Ah_balance (normalized)	Ah_balance (mAh)	Voltage - fit (V)	Voltage -  interpolate (V)	dQ/dV (1/V)	Temperature (°C)	Temperature - diff (°C)	Current (C)	R_DC 0ms (mOhm)	R_DC 50ms (mOhm)	R_DC 50 ms PEC (mOhm)
-0.0045	-287.36	4.2000	4.1940	0.8457	24.70	-0.34	-0.049	0.164	0.329	
-0.0036	-233.19	4.1990	4.1991	0.8481	24.72	-0.32	0.050			
-0.0028	-178.82	4.1980	4.1980	0.8509	24.72	-0.32	0.050			
-0.0019	-124.17	4.1970	4.1970	0.8536	24.71	-0.33	0.050			
-0.0011	-69.63	4.1960	4.1960	0.8540	24.71	-0.33	0.050			
-0.0002	-15.09	4.1950	4.1950	0.8550	24.71	-0.33	0.050			
0.0006	39.78	4.1940	4.1940	0.8566	24.72	-0.32	0.050			
0.0015	94.59	4.1930	4.1930	0.8580	24.71	-0.33	0.050			
0.0023	149.43	4.1920	4.1920	0.8597	24.71	-0.33	0.050			
0.0032	204.48	4.1910	4.1911	0.8615	24.71	-0.33	0.050			
0.0041	259.86	4.1900	4.1900	0.8625	24.71	-0.33	0.050			
0.0049	315.26	4.1890	4.1890	0.8647	24.72	-0.32	0.050			
0.0058	370.79	4.1880	4.1880	0.8657	24.71	-0.33	0.050			
0.0067	426.09	4.1870	4.1869	0.8666	24.71	-0.33	0.050			
0.0075	481.61	4.1860	4.1860	0.8676	24.71	-0.33	0.050			
0.0084	537.37	4.1850	4.1850	0.8672	24.71	-0.33	0.050			
0.0093	593.07	4.1840	4.1839	0.8678	24.71	-0.33	0.050			
0.0101	648.99	4.1830	4.1831	0.8685	24.71	-0.33	0.050			
0.0110	705.02	4.1820	4.1820	0.8681	24.71	-0.33	0.050			
0.0119	760.73	4.1810	4.1810	0.8678	24.72	-0.32	0.050			
0.0128	816.03	4.1800	4.1800	0.8675	24.72	-0.32	0.050			
0.0136	871.74	4.1790	4.1790	0.8681	24.72	-0.32	0.050			
0.0145	927.33	4.1780	4.1781	0.8682	24.72	-0.32	0.050			
0.0154	982.63	4.1770	4.1769	0.8689	24.72	-0.32	0.050			
0.0162	1038.12	4.1760	4.1760	0.8685	24.72	-0.32	0.050			
0.0171	1093.42	4.1750	4.1751	0.8685	24.72	-0.32	0.050			
0.0180	1148.94	4.1740	4.1739	0.8685	24.72	-0.32	0.050			
0.0188	1204.40	4.1730	4.1730	0.8682	24.72	-0.32	0.050			
0.0197	1260.11	4.1720	4.1719	0.8677	24.71	-0.33	0.050			
0.0206	1315.66	4.1710	4.1709	0.8674	24.72	-0.32	0.050			
0.0214	1371.17	4.1700	4.1700	0.8682	24.72	-0.32	0.050			
0.0223	1426.66	4.1690	4.1689	0.8684	24.72	-0.32	0.050			
0.0232	1482.20	4.1680	4.1681	0.8690	24.72	-0.32	0.050			
0.0240	1537.89	4.1670	4.1671	0.8703	24.71	-0.33	0.050			
0.0249	1593.62	4.1660	4.1659	0.8701	24.70	-0.34	0.050			
0.0258	1649.67	4.1650	4.1651	0.8711	24.70	-0.34	0.050			
0.0266	1705.45	4.1640	4.1641	0.8716	24.70	-0.34	0.050			
0.0275	1761.18	4.1630	4.1630	0.8717	24.71	-0.33	0.050			
0.0284	1817.00	4.1620	4.1620	0.8721	24.70	-0.34	0.050			
0.0293	1872.78	4.1610	4.1609	0.8718	24.69	-0.35	0.050			
0.0301	1928.07	4.1600	4.1600	0.8719	24.69	-0.35	0.050			
0.0310	1983.92	4.1590	4.1590	0.8719	24.69	-0.35	0.050			
0.0319	2039.63	4.1580	4.1580	0.8725	24.69	-0.35	0.050			
0.0327	2095.51	4.1570	4.1571	0.8727	24.69	-0.35	0.050			
0.0336	2151.70	4.1560	4.1559	0.8729	24.71	-0.33	0.050			
0.0345	2207.76	4.1550	4.1550	0.8732	24.71	-0.33	0.050			
0.0354	2263.96	4.1540	4.1540	0.8728	24.71	-0.33	0.050			
0.0363	2320.05	4.1530	4.1530	0.8724	24.70	-0.34	0.050			
0.0371	2375.91	4.1520	4.1520	0.8729	24.71	-0.33	0.050			
0.0380	2431.61	4.1510	4.1509	0.8729	24.72	-0.32	0.050			
0.0389	2486.85	4.1500	4.1501	0.8732	24.72	-0.32	0.050			
0.0397	2542.82	4.1490	4.1490	0.8731	24.72	-0.32	0.050			
0.0406	2598.69	4.1480	4.1481	0.8734	24.72	-0.32	0.050			
0.0415	2654.59	4.1470	4.1471	0.8732	24.72	-0.32	0.050			
0.0424	2710.45	4.1460	4.1460	0.8740	24.72	-0.32	0.050			
0.0432	2766.38	4.1450	4.1451	0.8737	24.72	-0.32	0.050			
0.0441	2822.33	4.1440	4.1439	0.8738	24.72	-0.32	0.050			
0.0450	2878.18	4.1430	4.1429	0.8739	24.72	-0.32	0.050			
0.0458	2933.96	4.1420	4.1420	0.8748	24.72	-0.32	0.050			
0.0467	2989.85	4.1410	4.1408	0.8753	24.72	-0.32	0.050	0.180	0.361	
0.0476	3045.70	4.1400	4.1401	0.8759	24.72	-0.32	0.050			
0.0485	3101.88	4.1390	4.1390	0.8767	24.72	-0.32	0.050			
0.0493	3158.22	4.1380	4.1380	0.8778	24.71	-0.33	0.050			
0.0502	3214.23	4.1370	4.1370	0.8797	24.71	-0.33	0.050			
0.0511	3270.72	4.1360	4.1360	0.8805	24.71	-0.33	0.050			
0.0520	3327.37	4.1350	4.1351	0.8810	24.71	-0.33	0.050			
0.0529	3383.74	4.1340	4.1340	0.8814	24.72	-0.32	0.050			
0.0538	3440.16	4.1330	4.1330	0.8815	24.72	-0.32	0.050			
0.0546	3496.43	4.1320	4.1319	0.8809	24.72	-0.32	0.050			
0.0555	3552.88	4.1310	4.1309	0.8807	24.72	-0.32	0.050			
0.0564	3609.47	4.1300	4.1300	0.8810	24.72	-0.32	0.050			
0.0573	3665.98	4.1290	4.1290	0.8818	24.72	-0.32	0.050			
0.0582	3722.61	4.1280	4.1280	0.8829	24.72	-0.32	0.050			
0.0591	3779.21	4.1270	4.1270	0.8827	24.73	-0.31	0.050			
0.0599	3835.70	4.1260	4.1260	0.8823	24.72	-0.32	0.050			
0.0608	3892.12	4.1250	4.1250	0.8823	24.73	-0.31	0.050			
0.0617	3948.84	4.1240	4.1240	0.8817	24.73	-0.31	0.050			
0.0626	4005.26	4.1230	4.1231	0.8817	24.72	-0.32	0.050			
0.0635	4061.51	4.1220	4.1219	0.8805	24.72	-0.32	0.050			
0.0643	4117.64	4.1210	4.1209	0.8807	24.72	-0.32	0.050			
0.0652	4174.13	4.1200	4.1200	0.8801	24.73	-0.31	0.050			
0.0661	4230.21	4.1190	4.1190	0.8801	24.72	-0.32	0.050			
0.0670	4286.55	4.1180	4.1180	0.8804	24.71	-0.33	0.050	0.134	0.196	
0.0679	4342.52	4.1170	4.1170	0.8803	24.69	-0.35	0.050			
0.0687	4398.88	4.1160	4.1160	0.8810	24.69	-0.35	0.050			
0.0696	4455.32	4.1150	4.1150	0.8822	24.70	-0.34	0.050			
0.0705	4511.66	4.1140	4.1138	0.8832	24.70	-0.34	0.050			
0.0714	4568.21	4.1130	4.1130	0.8834	24.69	-0.35	0.050			
0.0723	4624.80	4.1120	4.1120	0.8839	24.69	-0.35	0.050			
0.0732	4681.62	4.1110	4.1111	0.8838	24.68	-0.36	0.050			
0.0740	4738.18	4.1100	4.1100	0.8837	24.69	-0.35	0.050			
0.0749	4794.82	4.1090	4.1090	0.8835	24.69	-0.35	0.050			
0.0758	4851.42	4.1080	4.1080	0.8839	24.69	-0.35	0.050			
0.0767	4908.14	4.1070	4.1070	0.8844	24.69	-0.35	0.050			
0.0776	4965.10	4.1060	4.1061	0.8841	24.69	-0.35	0.050			
0.0785	5021.77	4.1050	4.1050	0.8841	24.69	-0.35	0.050			
0.0793	5078.34	4.1040	4.1041	0.8841	24.70	-0.34	0.050			
0.0802	5134.85	4.1030	4.1030	0.8845	24.71	-0.33	0.050			
0.0811	5191.18	4.1020	4.1019	0.8848	24.71	-0.33	0.050			
0.0820	5247.91	4.1010	4.1010	0.8849	24.71	-0.33	0.050			
0.0829	5304.37	4.1000	4.1000	0.8856	24.71	-0.33	0.050			
0.0838	5360.92	4.0990	4.0990	0.8855	24.71	-0.33	0.050			
0.0846	5417.31	4.0980	4.0980	0.8856	24.71	-0.33	0.050			
0.0855	5473.94	4.0970	4.0970	0.8860	24.71	-0.33	0.050			
0.0864	5530.35	4.0960	4.0960	0.8869	24.71	-0.33	0.050			
0.0873	5587.00	4.0950	4.0950	0.8877	24.71	-0.33	0.050			
0.0882	5643.87	4.0940	4.0941	0.8887	24.71	-0.33	0.050			
0.0891	5700.99	4.0930	4.0930	0.8900	24.71	-0.33	0.050			
0.0900	5758.31	4.0920	4.0920	0.8904	24.71	-0.33	0.050			
0.0909	5815.54	4.0910	4.0910	0.8911	24.71	-0.33	0.050			
0.0918	5872.75	4.0900	4.0900	0.8912	24.71	-0.33	0.050			
0.0927	5929.83	4.0890	4.0891	0.8913	24.71	-0.33	0.050			
0.0935	5986.94	4.0880	4.0879	0.8913	24.71	-0.33	0.050			
0.0944	6044.16	4.0870	4.0870	0.8918	24.71	-0.33	0.050			
0.0953	6101.40	4.0860	4.0860	0.8920	24.71	-0.33	0.050			
0.0962	6158.37	4.0850	4.0850	0.8922	24.72	-0.32	0.050			
0.0971	6215.30	4.0840	4.0840	0.8914	24.71	-0.33	0.050			
0.0980	6272.24	4.0830	4.0829	0.8913	24.72	-0.32	0.050			
0.0989	6329.18	4.0820	4.0821	0.8918	24.72	-0.32	0.050			
0.0998	6386.30	4.0810	4.0810	0.8920	24.71	-0.33	0.050			
0.1007	6443.28	4.0800	4.0801	0.8921	24.71	-0.33	0.050			
0.1016	6500.32	4.0790	4.0790	0.8921	24.72	-0.32	0.050			
0.1025	6557.42	4.0780	4.0780	0.8926	24.72	-0.32	0.050			
0.1033	6614.33	4.0770	4.0770	0.8926	24.72	-0.32	0.050			
0.1042	6671.26	4.0760	4.0759	0.8929	24.71	-0.33	0.050			
0.1051	6728.40	4.0750	4.0752	0.8937	24.71	-0.33	0.050			
0.1060	6785.68	4.0740	4.0739	0.8948	24.71	-0.33	0.050			
0.1069	6842.93	4.0730	4.0731	0.8961	24.72	-0.32	0.050	0.190	0.243	
0.1078	6900.33	4.0720	4.0719	0.8974	24.72	-0.32	0.050			
0.1087	6957.86	4.0710	4.0710	0.8979	24.72	-0.32	0.050			
0.1096	7015.41	4.0700	4.0700	0.8984	24.71	-0.33	0.050			
0.1105	7072.97	4.0690	4.0690	0.8985	24.69	-0.35	0.050			
0.1114	7130.54	4.0680	4.0680	0.8988	24.69	-0.35	0.050			
0.1123	7188.19	4.0670	4.0670	0.8993	24.69	-0.35	0.050			
0.1132	7246.11	4.0660	4.0661	0.8993	24.71	-0.33	0.050			
0.1141	7303.73	4.0650	4.0650	0.8990	24.71	-0.33	0.050			
0.1150	7361.27	4.0640	4.0640	0.8996	24.71	-0.33	0.050			
0.1159	7418.93	4.0630	4.0630	0.8996	24.72	-0.32	0.050			
0.1168	7476.55	4.0620	4.0620	0.8986	24.71	-0.33	0.050			
0.1177	7533.97	4.0610	4.0610	0.8990	24.72	-0.32	0.050			
0.1186	7591.53	4.0600	4.0600	0.8994	24.72	-0.32	0.050			
0.1195	7649.00	4.0590	4.0590	0.8995	24.71	-0.33	0.050			
0.1204	7706.49	4.0580	4.0579	0.8992	24.71	-0.33	0.050			
0.1213	7763.81	4.0570	4.0571	0.9001	24.72	-0.32	0.050			
0.1222	7821.14	4.0560	4.0560	0.9000	24.72	-0.32	0.050			
0.1231	7878.65	4.0550	4.0550	0.9009	24.72	-0.32	0.050			
0.1240	7936.14	4.0540	4.0540	0.9017	24.72	-0.32	0.050			
0.1249	7993.63	4.0530	4.0530	0.9024	24.72	-0.32	0.050			
0.1258	8051.35	4.0520	4.0520	0.9039	24.72	-0.32	0.050			
0.1267	8109.46	4.0510	4.0509	0.9048	24.72	-0.32	0.050	0.237	0.352	
0.1276	8167.34	4.0500	4.0501	0.9059	24.73	-0.31	0.050			
0.1285	8225.43	4.0490	4.0490	0.9073	24.73	-0.31	0.050			
0.1294	8283.77	4.0480	4.0480	0.9081	24.73	-0.31	0.050			
0.1303	8342.11	4.0470	4.0470	0.9086	24.75	-0.29	0.050			
0.1313	8400.52	4.0460	4.0460	0.9095	24.73	-0.31	0.050			
0.1322	8458.76	4.0450	4.0450	0.9101	24.73	-0.31	0.050			
0.1331	8517.05	4.0440	4.0440	0.9103	24.74	-0.30	0.050			
0.1340	8575.33	4.0430	4.0430	0.9108	24.74	-0.30	0.050			
0.1349	8633.89	4.0420	4.0420	0.9117	24.74	-0.30	0.050			
0.1358	8692.08	4.0410	4.0410	0.9113	24.72	-0.32	0.050			
0.1367	8750.37	4.0400	4.0400	0.9121	24.73	-0.31	0.050			
0.1376	8808.57	4.0390	4.0391	0.9133	24.72	-0.32	0.050			
0.1385	8866.87	4.0380	4.0379	0.9139	24.75	-0.29	0.050			
0.1395	8925.17	4.0370	4.0371	0.9142	24.75	-0.29	0.050			
0.1404	8983.75	4.0360	4.0359	0.9152	24.75	-0.29	0.050			
0.1413	9042.19	4.0350	4.0351	0.9159	24.75	-0.29	0.050			
0.1422	9100.65	4.0340	4.0340	0.9173	24.76	-0.28	0.050			
0.1431	9159.29	4.0330	4.0330	0.9184	24.77	-0.27	0.050			
0.1440	9218.26	4.0320	4.0319	0.9193	24.77	-0.27	0.050			
0.1450	9277.32	4.0310	4.0310	0.9202	24.77	-0.27	0.050			
0.1459	9336.36	4.0300	4.0300	0.9206	24.77	-0.27	0.050			
0.1468	9395.23	4.0290	4.0290	0.9220	24.78	-0.26	0.050			
0.1477	9454.54	4.0280	4.0280	0.9230	24.79	-0.25	0.050			
0.1487	9513.73	4.0270	4.0269	0.9240	24.79	-0.25	0.050			
0.1496	9572.69	4.0260	4.0260	0.9246	24.79	-0.25	0.050			
0.1505	9632.00	4.0250	4.0249	0.9260	24.80	-0.24	0.050			
0.1514	9691.38	4.0240	4.0241	0.9263	24.81	-0.23	0.050			
0.1524	9750.60	4.0230	4.0230	0.9271	24.80	-0.24	0.050			
0.1533	9809.81	4.0220	4.0220	0.9283	24.77	-0.27	0.050			
0.1542	9869.26	4.0210	4.0209	0.9287	24.77	-0.27	0.050			
0.1551	9928.75	4.0200	4.0200	0.9285	24.77	-0.27	0.050			
0.1561	9988.27	4.0190	4.0190	0.9283	24.77	-0.27	0.050			
0.1570	10047.83	4.0180	4.0180	0.9290	24.78	-0.26	0.050			
0.1579	10107.31	4.0170	4.0169	0.9295	24.79	-0.25	0.050			
0.1589	10166.87	4.0160	4.0160	0.9302	24.79	-0.25	0.050			
0.1598	10226.04	4.0150	4.0150	0.9314	24.79	-0.25	0.050			
0.1607	10285.45	4.0140	4.0140	0.9327	24.80	-0.24	0.050			
0.1616	10345.23	4.0130	4.0130	0.9337	24.79	-0.25	0.050			
0.1626	10405.25	4.0120	4.0121	0.9352	24.80	-0.24	0.050			
0.1635	10465.10	4.0110	4.0110	0.9357	24.81	-0.23	0.050			
0.1645	10524.90	4.0100	4.0100	0.9366	24.80	-0.24	0.050			
0.1654	10584.64	4.0090	4.0089	0.9376	24.81	-0.23	0.050			
0.1663	10644.70	4.0080	4.0080	0.9388	24.81	-0.23	0.050			
0.1673	10704.87	4.0070	4.0070	0.9393	24.81	-0.23	0.050			
0.1682	10765.10	4.0060	4.0060	0.9398	24.81	-0.23	0.050			
0.1691	10825.32	4.0050	4.0050	0.9407	24.81	-0.23	0.050			
0.1701	10885.65	4.0040	4.0041	0.9416	24.81	-0.23	0.050			
0.1710	10946.04	4.0030	4.0030	0.9423	24.81	-0.23	0.050			
0.1720	11006.56	4.0020	4.0020	0.9434	24.81	-0.23	0.050			
0.1729	11066.92	4.0010	4.0010	0.9445	24.81	-0.23	0.050			
0.1739	11127.54	4.0000	4.0000	0.9463	24.81	-0.23	0.050			
0.1748	11188.10	3.9990	3.9989	0.9469	24.81	-0.23	0.050			
0.1758	11248.61	3.9980	3.9980	0.9475	24.81	-0.23	0.050			
0.1767	11309.09	3.9970	3.9969	0.9479	24.81	-0.23	0.050			
0.1776	11369.54	3.9960	3.9961	0.9491	24.81	-0.23	0.050			
0.1786	11430.02	3.9950	3.9950	0.9498	24.81	-0.23	0.050			
0.1795	11490.91	3.9940	3.9940	0.9509	24.81	-0.23	0.050			
0.1805	11551.99	3.9930	3.9929	0.9522	24.81	-0.23	0.050			
0.1815	11613.05	3.9920	3.9920	0.9532	24.81	-0.23	0.050			
0.1824	11674.10	3.9910	3.9910	0.9540	24.81	-0.23	0.050			
0.1834	11735.16	3.9900	3.9900	0.9549	24.81	-0.23	0.050			
0.1843	11796.18	3.9890	3.9890	0.9560	24.82	-0.22	0.050			
0.1853	11857.69	3.9880	3.9880	0.9578	24.81	-0.23	0.050			
0.1862	11919.14	3.9870	3.9870	0.9585	24.82	-0.22	0.050			
0.1872	11980.69	3.9860	3.9860	0.9595	24.82	-0.22	0.050	0.124	0.184	
0.1882	12042.35	3.9850	3.9851	0.9594	24.82	-0.22	0.050			
0.1891	12103.75	3.9840	3.9840	0.9600	24.82	-0.22	0.050			
0.1901	12165.00	3.9830	3.9831	0.9606	24.82	-0.22	0.050			
0.1910	12226.48	3.9820	3.9820	0.9612	24.82	-0.22	0.050			
0.1920	12288.00	3.9810	3.9811	0.9616	24.82	-0.22	0.050			
0.1930	12349.37	3.9800	3.9800	0.9625	24.82	-0.22	0.050			
0.1939	12411.00	3.9790	3.9791	0.9630	24.82	-0.22	0.050			
0.1949	12472.74	3.9780	3.9780	0.9636	24.82	-0.22	0.050			
0.1958	12534.40	3.9770	3.9770	0.9642	24.81	-0.23	0.050			
0.1968	12595.86	3.9760	3.9760	0.9651	24.79	-0.25	0.050			
0.1978	12657.79	3.9750	3.9750	0.9661	24.79	-0.25	0.050			
0.1987	12719.61	3.9740	3.9740	0.9674	24.79	-0.25	0.050			
0.1997	12781.58	3.9730	3.9730	0.9679	24.79	-0.25	0.050			
0.2007	12843.60	3.9720	3.9721	0.9684	24.78	-0.26	0.050			
0.2017	12905.64	3.9710	3.9710	0.9689	24.79	-0.25	0.050			
0.2026	12967.74	3.9700	3.9700	0.9696	24.78	-0.26	0.050			
0.2036	13029.75	3.9690	3.9689	0.9703	24.78	-0.26	0.050			
0.2046	13091.93	3.9680	3.9680	0.9714	24.78	-0.26	0.050			
0.2055	13154.23	3.9670	3.9670	0.9726	24.79	-0.25	0.050			
0.2065	13216.48	3.9660	3.9660	0.9729	24.78	-0.26	0.050			
0.2075	13278.91	3.9650	3.9650	0.9738	24.78	-0.26	0.050			
0.2085	13340.92	3.9640	3.9640	0.9746	24.77	-0.27	0.050			
0.2094	13403.12	3.9630	3.9630	0.9754	24.79	-0.25	0.050			
0.2104	13465.40	3.9620	3.9619	0.9770	24.77	-0.27	0.050			
0.2114	13528.14	3.9610	3.9610	0.9782	24.77	-0.27	0.050			
0.2124	13590.57	3.9600	3.9599	0.9790	24.76	-0.28	0.050			
0.2133	13653.38	3.9590	3.9590	0.9800	24.75	-0.29	0.050			
0.2143	13716.21	3.9580	3.9580	0.9810	24.75	-0.29	0.050			
0.2153	13779.25	3.9570	3.9569	0.9813	24.75	-0.29	0.050			
0.2163	13842.06	3.9560	3.9560	0.9817	24.75	-0.29	0.050			
0.2173	13904.91	3.9550	3.9549	0.9819	24.75	-0.29	0.050			
0.2183	13968.06	3.9540	3.9541	0.9830	24.75	-0.29	0.050			
0.2192	14031.06	3.9530	3.9530	0.9844	24.74	-0.30	0.050			
0.2202	14094.16	3.9520	3.9520	0.9852	24.73	-0.31	0.050			
0.2212	14157.35	3.9510	3.9510	0.9857	24.72	-0.32	0.050			
0.2222	14220.36	3.9500	3.9500	0.9867	24.73	-0.31	0.050			
0.2232	14283.53	3.9490	3.9491	0.9867	24.72	-0.32	0.050			
0.2242	14346.61	3.9480	3.9479	0.9872	24.72	-0.32	0.050			
0.2252	14409.85	3.9470	3.9470	0.9876	24.72	-0.32	0.050			
0.2261	14473.14	3.9460	3.9459	0.9875	24.72	-0.32	0.050			
0.2271	14536.13	3.9450	3.9450	0.9883	24.71	-0.33	0.050	0.057	0.204	
0.2281	14599.11	3.9440	3.9440	0.9883	24.69	-0.35	0.050			
0.2291	14662.35	3.9430	3.9430	0.9888	24.69	-0.35	0.050			
0.2301	14725.63	3.9420	3.9421	0.9899	24.69	-0.35	0.050			
0.2311	14789.11	3.9410	3.9409	0.9906	24.69	-0.35	0.050			
0.2321	14852.61	3.9400	3.9400	0.9914	24.69	-0.35	0.050			
0.2331	14916.23	3.9390	3.9390	0.9925	24.69	-0.35	0.050			
0.2341	14979.80	3.9380	3.9380	0.9938	24.68	-0.36	0.050			
0.2351	15043.43	3.9370	3.9370	0.9946	24.67	-0.37	0.050			
0.2360	15107.14	3.9360	3.9359	0.9949	24.67	-0.37	0.050			
0.2370	15170.74	3.9350	3.9350	0.9951	24.67	-0.37	0.050			
0.2380	15234.30	3.9340	3.9340	0.9956	24.67	-0.37	0.050			
0.2390	15298.18	3.9330	3.9330	0.9953	24.66	-0.38	0.050			
0.2400	15362.09	3.9320	3.9321	0.9961	24.67	-0.37	0.050			
0.2410	15425.64	3.9310	3.9310	0.9976	24.66	-0.38	0.050			
0.2420	15489.29	3.9300	3.9300	0.9987	24.67	-0.37	0.050			
0.2430	15553.40	3.9290	3.9290	0.9998	24.65	-0.39	0.050			
0.2440	15617.67	3.9280	3.9280	0.9996	24.64	-0.40	0.050			
0.2450	15681.62	3.9270	3.9271	0.9999	24.64	-0.40	0.050			
0.2460	15745.81	3.9260	3.9259	1.0005	24.64	-0.40	0.050			
0.2470	15809.67	3.9250	3.9250	1.0005	24.64	-0.40	0.050			
0.2480	15873.84	3.9240	3.9240	1.0006	24.64	-0.40	0.050			
0.2490	15938.01	3.9230	3.9230	1.0013	24.65	-0.39	0.050			
0.2500	16002.12	3.9220	3.9220	1.0018	24.65	-0.39	0.050			
0.2510	16066.22	3.9210	3.9210	1.0024	24.65	-0.39	0.050			
0.2520	16130.24	3.9200	3.9201	1.0027	24.66	-0.38	0.050			
0.2530	16194.51	3.9190	3.9190	1.0027	24.67	-0.37	0.050			
0.2540	16258.70	3.9180	3.9180	1.0028	24.66	-0.38	0.050			
0.2550	16322.75	3.9170	3.9171	1.0037	24.67	-0.37	0.050			
0.2561	16387.25	3.9160	3.9160	1.0040	24.68	-0.36	0.050			
0.2571	16451.58	3.9150	3.9151	1.0038	24.68	-0.36	0.050			
0.2581	16515.65	3.9140	3.9140	1.0041	24.67	-0.37	0.050			
0.2591	16579.90	3.9130	3.9130	1.0050	24.67	-0.37	0.050			
0.2601	16644.10	3.9120	3.9121	1.0055	24.67	-0.37	0.050			
0.2611	16707.96	3.9110	3.9109	1.0055	24.67	-0.37	0.050			
0.2621	16772.43	3.9100	3.9100	1.0067	24.68	-0.36	0.050			
0.2631	16836.91	3.9090	3.9090	1.0085	24.69	-0.35	0.050			
0.2641	16901.53	3.9080	3.9080	1.0101	24.69	-0.35	0.050			
0.2651	16966.15	3.9070	3.9071	1.0110	24.69	-0.35	0.050			
0.2661	17030.78	3.9060	3.9060	1.0115	24.69	-0.35	0.050			
0.2671	17095.64	3.9050	3.9050	1.0119	24.69	-0.35	0.050			
0.2681	17160.53	3.9040	3.9040	1.0127	24.69	-0.35	0.050			
0.2691	17225.34	3.9030	3.9029	1.0133	24.70	-0.34	0.050			
0.2702	17290.43	3.9020	3.9020	1.0136	24.71	-0.33	0.050			
0.2712	17355.57	3.9010	3.9010	1.0144	24.71	-0.33	0.050			
0.2722	17420.50	3.9000	3.9000	1.0152	24.71	-0.33	0.050			
0.2732	17485.49	3.8990	3.8991	1.0160	24.72	-0.32	0.050			
0.2742	17550.69	3.8980	3.8980	1.0163	24.71	-0.33	0.050			
0.2752	17615.58	3.8970	3.8970	1.0171	24.72	-0.32	0.050			
0.2763	17680.55	3.8960	3.8961	1.0186	24.72	-0.32	0.050			
0.2773	17745.80	3.8950	3.8950	1.0189	24.72	-0.32	0.050			
0.2783	17811.08	3.8940	3.8940	1.0195	24.72	-0.32	0.050			
0.2793	17876.17	3.8930	3.8930	1.0192	24.72	-0.32	0.050			
0.2803	17941.38	3.8920	3.8919	1.0198	24.72	-0.32	0.050			
0.2814	18006.46	3.8910	3.8911	1.0202	24.72	-0.32	0.050			
0.2824	18071.83	3.8900	3.8900	1.0211	24.73	-0.31	0.050			
0.2834	18137.09	3.8890	3.8890	1.0216	24.73	-0.31	0.050			
0.2844	18202.60	3.8880	3.8880	1.0224	24.73	-0.31	0.050			
0.2854	18268.18	3.8870	3.8869	1.0237	24.73	-0.31	0.050			
0.2865	18333.76	3.8860	3.8860	1.0243	24.74	-0.30	0.050	0.283	0.377	
0.2875	18399.32	3.8850	3.8850	1.0260	24.73	-0.31	0.050			
0.2885	18464.78	3.8840	3.8840	1.0273	24.74	-0.30	0.050			
0.2895	18530.59	3.8830	3.8830	1.0281	24.75	-0.29	0.050			
0.2906	18596.45	3.8820	3.8820	1.0294	24.75	-0.29	0.050			
0.2916	18662.23	3.8810	3.8810	1.0304	24.74	-0.30	0.050			
0.2926	18728.20	3.8800	3.8801	1.0320	24.75	-0.29	0.050			
0.2937	18794.06	3.8790	3.8790	1.0331	24.75	-0.29	0.050			
0.2947	18860.36	3.8780	3.8779	1.0340	24.75	-0.29	0.050			
0.2957	18926.65	3.8770	3.8770	1.0342	24.75	-0.29	0.050			
0.2968	18993.21	3.8760	3.8759	1.0344	24.75	-0.29	0.050			
0.2978	19059.27	3.8750	3.8751	1.0354	24.75	-0.29	0.050			
0.2988	19125.88	3.8740	3.8740	1.0373	24.73	-0.31	0.050			
0.2999	19192.20	3.8730	3.8729	1.0389	24.74	-0.30	0.050			
0.3009	19258.51	3.8720	3.8720	1.0396	24.75	-0.29	0.050			
0.3020	19325.10	3.8710	3.8711	1.0410	24.75	-0.29	0.050			
0.3030	19391.72	3.8700	3.8700	1.0425	24.75	-0.29	0.050			
0.3040	19458.43	3.8690	3.8691	1.0442	24.74	-0.30	0.050			
0.3051	19525.22	3.8680	3.8680	1.0451	24.74	-0.30	0.050			
0.3061	19592.03	3.8670	3.8670	1.0460	24.72	-0.32	0.050			
0.3072	19658.79	3.8660	3.8660	1.0474	24.72	-0.32	0.050			
0.3082	19725.71	3.8650	3.8650	1.0487	24.72	-0.32	0.050			
0.3093	19792.77	3.8640	3.8640	1.0506	24.72	-0.32	0.050			
0.3103	19860.15	3.8630	3.8630	1.0524	24.72	-0.32	0.050			
0.3114	19927.66	3.8620	3.8621	1.0537	24.72	-0.32	0.050			
0.3124	19995.31	3.8610	3.8610	1.0550	24.72	-0.32	0.050			
0.3135	20063.18	3.8600	3.8599	1.0563	24.72	-0.32	0.050			
0.3145	20131.04	3.8590	3.8590	1.0579	24.71	-0.33	0.050			
0.3156	20199.01	3.8580	3.8580	1.0594	24.71	-0.33	0.050			
