Ah_balance (normalized)	Ah_balance (mAh)	Voltage - fit (V)	Voltage -  interpolate (V)	dQ/dV (1/V)	Temperature (°C)	Temperature - diff (°C)	Current (C)	R_DC 0ms (mOhm)	R_DC 50ms (mOhm)	R_DC 50 ms PEC (mOhm)
-0.0051	-323.85	4.1990	4.1989	0.8584	24.69	-0.28	0.050			
-0.0042	-268.84	4.1980	4.1980	0.8612	24.67	-0.30	0.050			
-0.0033	-213.83	4.1970	4.1970	0.8607	24.67	-0.30	0.050			
-0.0025	-158.63	4.1960	4.1960	0.8629	24.69	-0.28	0.050			
-0.0016	-103.17	4.1950	4.1950	0.8650	24.69	-0.28	0.050			
-0.0007	-47.82	4.1940	4.1939	0.8662	24.69	-0.28	0.050			
0.0001	7.79	4.1930	4.1930	0.8676	24.67	-0.30	0.050			
0.0010	63.50	4.1920	4.1919	0.8685	24.68	-0.29	0.050			
0.0019	119.10	4.1910	4.1910	0.8695	24.69	-0.28	0.050			
0.0027	174.95	4.1900	4.1900	0.8699	24.70	-0.27	0.050			
0.0036	230.80	4.1890	4.1889	0.8715	24.70	-0.27	0.050	0.133	0.152	
0.0045	286.42	4.1880	4.1881	0.8722	24.68	-0.29	0.050			
0.0053	342.38	4.1870	4.1869	0.8728	24.67	-0.30	0.050			
0.0062	398.27	4.1860	4.1861	0.8729	24.68	-0.29	0.050			
0.0071	454.43	4.1850	4.1849	0.8732	24.69	-0.28	0.050			
0.0080	510.61	4.1840	4.1840	0.8733	24.70	-0.27	0.050			
0.0089	566.75	4.1830	4.1830	0.8732	24.71	-0.26	0.050			
0.0097	622.46	4.1820	4.1819	0.8729	24.71	-0.26	0.050			
0.0106	678.47	4.1810	4.1810	0.8718	24.68	-0.29	0.050			
0.0115	734.30	4.1800	4.1799	0.8717	24.67	-0.30	0.050			
0.0123	790.25	4.1790	4.1790	0.8714	24.68	-0.29	0.050			
0.0132	846.12	4.1780	4.1781	0.8705	24.69	-0.28	0.050			
0.0141	901.76	4.1770	4.1770	0.8694	24.69	-0.28	0.050			
0.0150	957.10	4.1760	4.1760	0.8695	24.67	-0.30	0.050			
0.0158	1012.82	4.1750	4.1750	0.8696	24.67	-0.30	0.050			
0.0167	1068.20	4.1740	4.1740	0.8693	24.67	-0.30	0.050			
0.0176	1123.79	4.1730	4.1731	0.8694	24.69	-0.28	0.050			
0.0184	1179.32	4.1720	4.1720	0.8698	24.69	-0.28	0.050			
0.0193	1234.71	4.1710	4.1710	0.8692	24.68	-0.29	0.050			
0.0202	1290.23	4.1700	4.1701	0.8699	24.67	-0.30	0.050			
0.0210	1345.73	4.1690	4.1690	0.8691	24.67	-0.30	0.050			
0.0219	1401.34	4.1680	4.1680	0.8700	24.68	-0.29	0.050			
0.0228	1457.01	4.1670	4.1670	0.8710	24.69	-0.28	0.050			
0.0236	1512.83	4.1660	4.1660	0.8722	24.70	-0.27	0.050	0.313	0.373	
0.0245	1568.69	4.1650	4.1650	0.8729	24.71	-0.26	0.050			
0.0254	1624.68	4.1640	4.1640	0.8733	24.71	-0.26	0.050			
0.0263	1680.62	4.1630	4.1630	0.8742	24.69	-0.28	0.050			
0.0271	1736.61	4.1620	4.1620	0.8743	24.67	-0.30	0.050			
0.0280	1792.85	4.1610	4.1610	0.8748	24.67	-0.30	0.050			
0.0289	1848.96	4.1600	4.1600	0.8755	24.69	-0.28	0.050			
0.0298	1905.08	4.1590	4.1589	0.8754	24.69	-0.28	0.050			
0.0306	1961.21	4.1580	4.1580	0.8755	24.71	-0.26	0.050			
0.0315	2017.21	4.1570	4.1570	0.8754	24.71	-0.26	0.050			
0.0324	2073.06	4.1560	4.1560	0.8746	24.66	-0.31	0.050			
0.0333	2129.41	4.1550	4.1551	0.8745	24.66	-0.31	0.050			
0.0341	2185.37	4.1540	4.1540	0.8742	24.67	-0.30	0.050			
0.0350	2241.23	4.1530	4.1530	0.8745	24.69	-0.28	0.050			
0.0359	2297.07	4.1520	4.1520	0.8745	24.70	-0.27	0.050			
0.0368	2353.06	4.1510	4.1510	0.8749	24.71	-0.26	0.050			
0.0376	2408.88	4.1500	4.1501	0.8749	24.70	-0.27	0.050			
0.0385	2464.67	4.1490	4.1489	0.8757	24.68	-0.29	0.050			
0.0394	2520.41	4.1480	4.1481	0.8762	24.67	-0.30	0.050			
0.0403	2576.45	4.1470	4.1470	0.8762	24.68	-0.29	0.050			
0.0411	2632.48	4.1460	4.1460	0.8766	24.69	-0.28	0.050			
0.0420	2688.70	4.1450	4.1450	0.8774	24.70	-0.27	0.050			
0.0429	2745.04	4.1440	4.1439	0.8774	24.70	-0.27	0.050			
0.0438	2801.27	4.1430	4.1431	0.8777	24.68	-0.29	0.050	0.154	0.219	
0.0446	2857.45	4.1420	4.1420	0.8780	24.67	-0.30	0.050			
0.0455	2913.80	4.1410	4.1410	0.8787	24.67	-0.30	0.050			
0.0464	2970.05	4.1400	4.1400	0.8790	24.69	-0.28	0.050			
0.0473	3026.30	4.1390	4.1390	0.8803	24.67	-0.30	0.050			
0.0482	3082.60	4.1380	4.1381	0.8805	24.67	-0.30	0.050			
0.0490	3139.20	4.1370	4.1370	0.8804	24.67	-0.30	0.050			
0.0499	3195.71	4.1360	4.1360	0.8809	24.67	-0.30	0.050			
0.0508	3252.28	4.1350	4.1350	0.8808	24.69	-0.28	0.050			
0.0517	3308.53	4.1340	4.1339	0.8802	24.69	-0.28	0.050			
0.0526	3364.80	4.1330	4.1331	0.8797	24.71	-0.26	0.050			
0.0535	3421.17	4.1320	4.1319	0.8788	24.70	-0.27	0.050			
0.0543	3477.37	4.1310	4.1310	0.8793	24.67	-0.30	0.050			
0.0552	3533.28	4.1300	4.1300	0.8807	24.65	-0.32	0.050			
0.0561	3589.26	4.1290	4.1291	0.8810	24.66	-0.31	0.050			
0.0570	3645.91	4.1280	4.1281	0.8809	24.68	-0.29	0.050			
0.0579	3702.41	4.1270	4.1270	0.8813	24.70	-0.27	0.050			
0.0587	3759.02	4.1260	4.1261	0.8815	24.71	-0.26	0.050			
0.0596	3815.50	4.1250	4.1249	0.8814	24.70	-0.27	0.050			
0.0605	3872.05	4.1240	4.1240	0.8815	24.68	-0.29	0.050			
0.0614	3928.41	4.1230	4.1230	0.8814	24.67	-0.30	0.050			
0.0623	3984.75	4.1220	4.1219	0.8812	24.69	-0.28	0.050			
0.0631	4041.07	4.1210	4.1211	0.8808	24.69	-0.28	0.050	0.160	0.229	
0.0640	4097.47	4.1200	4.1201	0.8814	24.71	-0.26	0.050			
0.0649	4153.76	4.1190	4.1190	0.8811	24.71	-0.26	0.050			
0.0658	4210.26	4.1180	4.1180	0.8814	24.67	-0.30	0.050			
0.0667	4266.98	4.1170	4.1170	0.8819	24.67	-0.30	0.050			
0.0676	4323.44	4.1160	4.1160	0.8813	24.68	-0.29	0.050			
0.0684	4379.76	4.1150	4.1149	0.8815	24.69	-0.28	0.050			
0.0693	4436.19	4.1140	4.1140	0.8812	24.71	-0.26	0.050			
0.0702	4492.63	4.1130	4.1130	0.8818	24.71	-0.26	0.050			
0.0711	4548.88	4.1120	4.1120	0.8814	24.70	-0.27	0.050			
0.0720	4604.97	4.1110	4.1110	0.8801	24.68	-0.29	0.050			
0.0728	4661.21	4.1100	4.1099	0.8794	24.67	-0.30	0.050			
0.0737	4717.69	4.1090	4.1091	0.8802	24.68	-0.29	0.050			
0.0746	4773.85	4.1080	4.1080	0.8817	24.69	-0.28	0.050			
0.0755	4830.26	4.1070	4.1070	0.8825	24.70	-0.27	0.050			
0.0764	4886.85	4.1060	4.1060	0.8834	24.72	-0.25	0.050			
0.0772	4943.35	4.1050	4.1050	0.8838	24.72	-0.25	0.050			
0.0781	4999.80	4.1040	4.1040	0.8840	24.71	-0.26	0.050			
0.0790	5056.27	4.1030	4.1031	0.8846	24.67	-0.30	0.050			
0.0799	5112.86	4.1020	4.1019	0.8854	24.67	-0.30	0.050			
0.0808	5169.58	4.1010	4.1010	0.8861	24.69	-0.28	0.050			
0.0817	5226.36	4.1000	4.1000	0.8864	24.69	-0.28	0.050			
0.0825	5283.18	4.0990	4.0989	0.8869	24.71	-0.26	0.050			
0.0834	5340.13	4.0980	4.0980	0.8876	24.71	-0.26	0.050			
0.0843	5397.04	4.0970	4.0970	0.8883	24.71	-0.26	0.050			
0.0852	5454.16	4.0960	4.0960	0.8878	24.68	-0.29	0.050			
0.0861	5511.17	4.0950	4.0950	0.8873	24.68	-0.29	0.050			
0.0870	5568.28	4.0940	4.0940	0.8876	24.69	-0.28	0.050			
0.0879	5625.07	4.0930	4.0930	0.8870	24.69	-0.28	0.050			
0.0888	5682.05	4.0920	4.0920	0.8871	24.68	-0.29	0.050			
0.0897	5738.70	4.0910	4.0909	0.8862	24.68	-0.29	0.050			
0.0906	5795.59	4.0900	4.0900	0.8856	24.69	-0.28	0.050			
0.0914	5852.17	4.0890	4.0890	0.8848	24.71	-0.26	0.050			
0.0923	5908.21	4.0880	4.0880	0.8840	24.71	-0.26	0.050			
0.0932	5964.74	4.0870	4.0871	0.8840	24.71	-0.26	0.050			
0.0941	6021.06	4.0860	4.0860	0.8851	24.69	-0.28	0.050			
0.0950	6077.49	4.0850	4.0850	0.8855	24.67	-0.30	0.050			
0.0958	6134.00	4.0840	4.0840	0.8866	24.67	-0.30	0.050			
0.0967	6190.37	4.0830	4.0829	0.8867	24.68	-0.29	0.050			
0.0976	6247.17	4.0820	4.0821	0.8878	24.69	-0.28	0.050			
0.0985	6303.79	4.0810	4.0809	0.8894	24.71	-0.26	0.050			
0.0994	6360.62	4.0800	4.0800	0.8906	24.72	-0.25	0.050			
0.1003	6417.80	4.0790	4.0790	0.8918	24.71	-0.26	0.050			
0.1012	6474.71	4.0780	4.0780	0.8935	24.68	-0.29	0.050			
0.1021	6532.12	4.0770	4.0770	0.8946	24.68	-0.29	0.050			
0.1030	6589.98	4.0760	4.0760	0.8959	24.69	-0.28	0.050			
0.1039	6647.62	4.0750	4.0750	0.8961	24.69	-0.28	0.050			
0.1048	6705.38	4.0740	4.0740	0.8956	24.71	-0.26	0.050			
0.1057	6762.89	4.0730	4.0730	0.8957	24.72	-0.25	0.050			
0.1066	6820.20	4.0720	4.0719	0.8964	24.70	-0.27	0.050			
0.1075	6877.92	4.0710	4.0711	0.8964	24.67	-0.30	0.050			
0.1084	6935.37	4.0700	4.0700	0.8960	24.67	-0.30	0.050			
0.1093	6992.74	4.0690	4.0690	0.8953	24.69	-0.28	0.050			
0.1102	7049.76	4.0680	4.0681	0.8948	24.70	-0.27	0.050			
0.1110	7107.08	4.0670	4.0669	0.8946	24.70	-0.27	0.050			
0.1119	7163.93	4.0660	4.0660	0.8940	24.68	-0.29	0.050			
0.1128	7221.04	4.0650	4.0649	0.8940	24.68	-0.29	0.050			
0.1137	7278.05	4.0640	4.0640	0.8943	24.69	-0.28	0.050			
0.1146	7335.11	4.0630	4.0629	0.8941	24.70	-0.27	0.050			
0.1155	7392.28	4.0620	4.0620	0.8947	24.69	-0.28	0.050			
0.1164	7449.13	4.0610	4.0610	0.8951	24.67	-0.30	0.050			
0.1173	7506.46	4.0600	4.0600	0.8960	24.67	-0.30	0.050			
0.1182	7563.62	4.0590	4.0590	0.8973	24.69	-0.28	0.050			
0.1191	7620.99	4.0580	4.0579	0.8983	24.70	-0.27	0.050			
0.1200	7678.73	4.0570	4.0570	0.9001	24.71	-0.26	0.050			
0.1209	7736.50	4.0560	4.0561	0.9005	24.70	-0.27	0.050			
0.1218	7794.43	4.0550	4.0550	0.9022	24.66	-0.31	0.050			
0.1227	7852.28	4.0540	4.0540	0.9022	24.66	-0.31	0.050			
0.1236	7910.00	4.0530	4.0530	0.9027	24.67	-0.30	0.050	-0.066	0.223	
0.1245	7967.69	4.0520	4.0521	0.9030	24.68	-0.29	0.050			
0.1254	8025.54	4.0510	4.0510	0.9041	24.70	-0.27	0.050			
0.1263	8083.91	4.0500	4.0500	0.9044	24.71	-0.26	0.050			
0.1272	8141.86	4.0490	4.0490	0.9049	24.70	-0.27	0.050			
0.1281	8199.62	4.0480	4.0480	0.9052	24.67	-0.30	0.050			
0.1290	8257.54	4.0470	4.0470	0.9055	24.66	-0.31	0.050			
0.1299	8315.51	4.0460	4.0459	0.9060	24.68	-0.29	0.050			
0.1308	8373.60	4.0450	4.0450	0.9062	24.69	-0.28	0.050			
0.1317	8431.43	4.0440	4.0440	0.9067	24.70	-0.27	0.050			
0.1326	8489.21	4.0430	4.0431	0.9080	24.70	-0.27	0.050			
0.1336	8547.61	4.0420	4.0419	0.9074	24.67	-0.30	0.050			
0.1345	8605.43	4.0410	4.0411	0.9076	24.66	-0.31	0.050			
0.1354	8663.71	4.0400	4.0400	0.9082	24.68	-0.29	0.050			
0.1363	8721.51	4.0390	4.0390	0.9089	24.69	-0.28	0.050			
0.1372	8779.62	4.0380	4.0380	0.9104	24.71	-0.26	0.050			
0.1381	8838.11	4.0370	4.0370	0.9113	24.69	-0.28	0.050			
0.1390	8896.55	4.0360	4.0359	0.9123	24.64	-0.33	0.050			
0.1399	8954.65	4.0350	4.0349	0.9129	24.64	-0.33	0.050			
0.1408	9013.31	4.0340	4.0340	0.9142	24.66	-0.31	0.050			
0.1417	9071.86	4.0330	4.0330	0.9144	24.68	-0.29	0.050			
0.1427	9130.48	4.0320	4.0319	0.9150	24.69	-0.28	0.050			
0.1436	9188.96	4.0310	4.0310	0.9151	24.69	-0.28	0.050	0.126	0.158	
0.1445	9247.79	4.0300	4.0300	0.9168	24.66	-0.31	0.050			
0.1454	9306.53	4.0290	4.0289	0.9177	24.66	-0.31	0.050			
0.1463	9364.97	4.0280	4.0281	0.9180	24.68	-0.29	0.050			
0.1472	9423.81	4.0270	4.0269	0.9195	24.69	-0.28	0.050			
0.1482	9482.79	4.0260	4.0261	0.9196	24.71	-0.26	0.050			
0.1491	9541.75	4.0250	4.0250	0.9202	24.71	-0.26	0.050			
0.1500	9600.58	4.0240	4.0240	0.9208	24.67	-0.30	0.050			
0.1509	9659.43	4.0230	4.0229	0.9218	24.64	-0.33	0.050			
0.1519	9718.58	4.0220	4.0219	0.9225	24.65	-0.32	0.050			
0.1528	9777.62	4.0210	4.0209	0.9229	24.67	-0.30	0.050			
0.1537	9836.43	4.0200	4.0200	0.9239	24.69	-0.28	0.050			
0.1546	9895.44	4.0190	4.0190	0.9245	24.68	-0.29	0.050			
0.1555	9954.62	4.0180	4.0181	0.9260	24.65	-0.32	0.050			
0.1565	10014.06	4.0170	4.0170	0.9273	24.67	-0.30	0.050			
0.1574	10073.81	4.0160	4.0160	0.9280	24.68	-0.29	0.050			
0.1583	10133.05	4.0150	4.0149	0.9284	24.69	-0.28	0.050			
0.1593	10192.40	4.0140	4.0140	0.9294	24.71	-0.26	0.050			
0.1602	10252.06	4.0130	4.0130	0.9310	24.67	-0.30	0.050			
0.1611	10311.62	4.0120	4.0120	0.9318	24.64	-0.33	0.050			
0.1621	10371.28	4.0110	4.0110	0.9325	24.65	-0.32	0.050			
0.1630	10430.78	4.0100	4.0100	0.9335	24.66	-0.31	0.050			
0.1639	10490.52	4.0090	4.0090	0.9349	24.69	-0.28	0.050			
0.1649	10550.55	4.0080	4.0081	0.9356	24.69	-0.28	0.050			
0.1658	10610.61	4.0070	4.0070	0.9366	24.70	-0.27	0.050			
0.1667	10670.95	4.0060	4.0060	0.9374	24.67	-0.30	0.050			
0.1677	10730.82	4.0050	4.0050	0.9373	24.66	-0.31	0.050			
0.1686	10790.76	4.0040	4.0040	0.9383	24.67	-0.30	0.050			
0.1695	10850.84	4.0030	4.0030	0.9391	24.68	-0.29	0.050			
0.1705	10911.01	4.0020	4.0020	0.9399	24.70	-0.27	0.050			
0.1714	10971.17	4.0010	4.0010	0.9407	24.69	-0.28	0.050			
0.1724	11031.44	4.0000	4.0001	0.9403	24.66	-0.31	0.050			
0.1733	11091.59	3.9990	3.9990	0.9408	24.67	-0.30	0.050			
0.1742	11151.71	3.9980	3.9980	0.9425	24.67	-0.30	0.050			
0.1752	11212.28	3.9970	3.9970	0.9430	24.70	-0.27	0.050			
0.1761	11272.58	3.9960	3.9960	0.9443	24.71	-0.26	0.050			
0.1771	11332.87	3.9950	3.9950	0.9451	24.70	-0.27	0.050			
0.1780	11393.23	3.9940	3.9940	0.9450	24.66	-0.31	0.050			
0.1790	11453.74	3.9930	3.9930	0.9458	24.66	-0.31	0.050			
0.1799	11514.29	3.9920	3.9920	0.9468	24.67	-0.30	0.050			
0.1809	11574.83	3.9910	3.9910	0.9478	24.69	-0.28	0.050			
0.1818	11635.52	3.9900	3.9900	0.9482	24.69	-0.28	0.050			
0.1828	11696.20	3.9890	3.9890	0.9500	24.69	-0.28	0.050			
0.1837	11757.06	3.9880	3.9880	0.9518	24.66	-0.31	0.050	0.163	0.291	
0.1847	11818.25	3.9870	3.9869	0.9524	24.67	-0.30	0.050			
0.1856	11879.25	3.9860	3.9860	0.9530	24.69	-0.28	0.050			
0.1866	11940.44	3.9850	3.9850	0.9539	24.71	-0.26	0.050			
0.1875	12001.48	3.9840	3.9840	0.9534	24.71	-0.26	0.050			
0.1885	12062.53	3.9830	3.9830	0.9542	24.70	-0.27	0.050			
0.1894	12123.74	3.9820	3.9820	0.9553	24.68	-0.29	0.050			
0.1904	12184.97	3.9810	3.9810	0.9554	24.67	-0.30	0.050			
0.1913	12246.32	3.9800	3.9800	0.9561	24.69	-0.28	0.050			
0.1923	12307.48	3.9790	3.9790	0.9562	24.69	-0.28	0.050			
0.1933	12368.41	3.9780	3.9781	0.9561	24.71	-0.26	0.050			
0.1942	12429.60	3.9770	3.9770	0.9575	24.72	-0.25	0.050			
0.1952	12490.85	3.9760	3.9760	0.9575	24.71	-0.26	0.050			
0.1961	12552.17	3.9750	3.9750	0.9582	24.68	-0.29	0.050			
0.1971	12613.49	3.9740	3.9739	0.9596	24.67	-0.30	0.050			
0.1980	12674.78	3.9730	3.9730	0.9598	24.69	-0.28	0.050			
0.1990	12736.18	3.9720	3.9720	0.9607	24.69	-0.28	0.050			
0.2000	12797.51	3.9710	3.9710	0.9612	24.71	-0.26	0.050			
0.2009	12859.05	3.9700	3.9699	0.9618	24.69	-0.28	0.050			
0.2019	12920.56	3.9690	3.9690	0.9621	24.68	-0.29	0.050			
0.2028	12982.37	3.9680	3.9679	0.9625	24.68	-0.29	0.050			
0.2038	13044.28	3.9670	3.9671	0.9641	24.70	-0.27	0.050			
0.2048	13106.01	3.9660	3.9660	0.9652	24.71	-0.26	0.050			
0.2057	13167.63	3.9650	3.9651	0.9662	24.72	-0.25	0.050			
0.2067	13229.48	3.9640	3.9641	0.9673	24.69	-0.28	0.050			
0.2077	13291.12	3.9630	3.9630	0.9684	24.68	-0.29	0.050			
0.2086	13353.16	3.9620	3.9620	0.9696	24.70	-0.27	0.050			
0.2096	13415.43	3.9610	3.9610	0.9705	24.71	-0.26	0.050			
0.2106	13477.74	3.9600	3.9600	0.9707	24.72	-0.25	0.050			
0.2116	13539.92	3.9590	3.9590	0.9708	24.71	-0.26	0.050			
0.2125	13601.88	3.9580	3.9580	0.9720	24.69	-0.28	0.050			
0.2135	13664.11	3.9570	3.9570	0.9726	24.68	-0.29	0.050			
0.2145	13726.17	3.9560	3.9561	0.9749	24.70	-0.27	0.050			
0.2154	13788.71	3.9550	3.9550	0.9750	24.71	-0.26	0.050			
0.2164	13851.07	3.9540	3.9540	0.9757	24.71	-0.26	0.050			
0.2174	13913.63	3.9530	3.9531	0.9777	24.69	-0.28	0.050			
0.2184	13976.34	3.9520	3.9520	0.9782	24.69	-0.28	0.050			
0.2194	14038.85	3.9510	3.9510	0.9789	24.70	-0.27	0.050			
0.2203	14101.90	3.9500	3.9499	0.9799	24.71	-0.26	0.050			
0.2213	14164.84	3.9490	3.9489	0.9801	24.71	-0.26	0.050			
0.2223	14227.63	3.9480	3.9480	0.9805	24.67	-0.30	0.050			
0.2233	14290.29	3.9470	3.9469	0.9804	24.67	-0.30	0.050	0.101	0.215	
0.2243	14352.88	3.9460	3.9461	0.9813	24.69	-0.28	0.050			
0.2252	14415.82	3.9450	3.9449	0.9811	24.70	-0.27	0.050			
0.2262	14478.35	3.9440	3.9440	0.9826	24.72	-0.25	0.050			
0.2272	14541.32	3.9430	3.9430	0.9834	24.72	-0.25	0.050			
0.2282	14604.38	3.9420	3.9419	0.9843	24.71	-0.26	0.050			
0.2292	14667.79	3.9410	3.9410	0.9849	24.68	-0.29	0.050			
0.2302	14730.97	3.9400	3.9399	0.9848	24.69	-0.28	0.050			
0.2312	14793.91	3.9390	3.9391	0.9844	24.70	-0.27	0.050			
0.2321	14856.77	3.9380	3.9379	0.9837	24.71	-0.26	0.050			
0.2331	14919.83	3.9370	3.9370	0.9844	24.72	-0.25	0.050			
0.2341	14982.65	3.9360	3.9360	0.9844	24.71	-0.26	0.050			
0.2351	15045.53	3.9350	3.9349	0.9858	24.67	-0.30	0.050			
0.2361	15108.70	3.9340	3.9341	0.9866	24.67	-0.30	0.050			
0.2371	15171.72	3.9330	3.9330	0.9871	24.69	-0.28	0.050			
0.2380	15234.92	3.9320	3.9320	0.9883	24.70	-0.27	0.050			
0.2390	15298.05	3.9310	3.9309	0.9896	24.72	-0.25	0.050			
0.2400	15361.44	3.9300	3.9300	0.9900	24.72	-0.25	0.050			
0.2410	15424.87	3.9290	3.9289	0.9911	24.72	-0.25	0.050			
0.2420	15488.40	3.9280	3.9280	0.9915	24.69	-0.28	0.050			
0.2430	15551.96	3.9270	3.9270	0.9910	24.67	-0.30	0.050			
0.2440	15615.43	3.9260	3.9260	0.9911	24.69	-0.28	0.050	0.210	0.297	
0.2450	15678.78	3.9250	3.9251	0.9926	24.69	-0.28	0.050			
0.2460	15742.25	3.9240	3.9240	0.9926	24.70	-0.27	0.050			
0.2470	15805.94	3.9230	3.9231	0.9943	24.68	-0.29	0.050			
0.2480	15869.68	3.9220	3.9221	0.9959	24.69	-0.28	0.050			
0.2490	15933.67	3.9210	3.9210	0.9972	24.69	-0.28	0.050			
0.2500	15997.60	3.9200	3.9200	0.9974	24.71	-0.26	0.050			
0.2510	16061.42	3.9190	3.9190	0.9977	24.72	-0.25	0.050			
0.2520	16125.24	3.9180	3.9180	0.9978	24.72	-0.25	0.050			
0.2530	16188.86	3.9170	3.9170	0.9982	24.70	-0.27	0.050			
0.2540	16252.87	3.9160	3.9159	0.9989	24.68	-0.29	0.050			
0.2549	16316.71	3.9150	3.9150	0.9984	24.69	-0.28	0.050			
0.2559	16380.67	3.9140	3.9139	0.9995	24.70	-0.27	0.050			
0.2569	16444.61	3.9130	3.9131	1.0003	24.71	-0.26	0.050			
0.2579	16508.59	3.9120	3.9119	1.0006	24.71	-0.26	0.050			
0.2589	16572.67	3.9110	3.9110	1.0017	24.68	-0.29	0.050			
0.2600	16637.03	3.9100	3.9100	1.0027	24.67	-0.30	0.050			
0.2610	16701.26	3.9090	3.9089	1.0032	24.69	-0.28	0.050			
0.2620	16765.67	3.9080	3.9080	1.0033	24.70	-0.27	0.050			
0.2630	16829.90	3.9070	3.9070	1.0042	24.72	-0.25	0.050			
0.2640	16893.97	3.9060	3.9060	1.0049	24.72	-0.25	0.050	0.124	0.262	
0.2650	16957.95	3.9050	3.9050	1.0047	24.71	-0.26	0.050			
0.2660	17022.59	3.9040	3.9040	1.0047	24.68	-0.29	0.050			
0.2670	17086.79	3.9030	3.9030	1.0051	24.68	-0.29	0.050			
0.2680	17151.21	3.9020	3.9020	1.0057	24.69	-0.28	0.050			
0.2690	17215.61	3.9010	3.9010	1.0065	24.69	-0.28	0.050			
0.2700	17280.22	3.9000	3.9000	1.0074	24.70	-0.27	0.050			
0.2710	17344.75	3.8990	3.8990	1.0075	24.68	-0.29	0.050			
0.2720	17409.15	3.8980	3.8980	1.0075	24.68	-0.29	0.050			
0.2730	17473.93	3.8970	3.8970	1.0072	24.69	-0.28	0.050			
0.2740	17538.18	3.8960	3.8960	1.0078	24.69	-0.28	0.050			
0.2750	17602.81	3.8950	3.8950	1.0085	24.67	-0.30	0.050			
0.2760	17667.00	3.8940	3.8939	1.0091	24.68	-0.29	0.050			
0.2771	17731.34	3.8930	3.8930	1.0102	24.69	-0.28	0.050			
0.2781	17795.99	3.8920	3.8920	1.0115	24.69	-0.28	0.050			
0.2791	17860.66	3.8910	3.8910	1.0121	24.69	-0.28	0.050			
0.2801	17925.37	3.8900	3.8900	1.0137	24.69	-0.28	0.050			
0.2811	17990.25	3.8890	3.8890	1.0146	24.70	-0.27	0.050			
0.2821	18055.11	3.8880	3.8880	1.0164	24.69	-0.28	0.050			
0.2831	18119.88	3.8870	3.8870	1.0174	24.67	-0.30	0.050	0.043	0.199	
0.2841	18185.08	3.8860	3.8860	1.0188	24.68	-0.29	0.050			
0.2852	18250.65	3.8850	3.8850	1.0208	24.69	-0.28	0.050			
0.2862	18316.11	3.8840	3.8840	1.0226	24.70	-0.27	0.050			
0.2872	18381.63	3.8830	3.8830	1.0231	24.69	-0.28	0.050			
0.2882	18447.28	3.8820	3.8820	1.0242	24.68	-0.29	0.050			
0.2893	18512.83	3.8810	3.8810	1.0259	24.69	-0.28	0.050			
0.2903	18578.64	3.8800	3.8800	1.0270	24.70	-0.27	0.050			
0.2913	18644.73	3.8790	3.8791	1.0283	24.71	-0.26	0.050			
0.2924	18710.68	3.8780	3.8780	1.0288	24.71	-0.26	0.050			
0.2934	18776.72	3.8770	3.8769	1.0295	24.69	-0.28	0.050			
0.2944	18842.39	3.8760	3.8760	1.0292	24.69	-0.28	0.050			
0.2954	18908.19	3.8750	3.8750	1.0306	24.70	-0.27	0.050			
0.2965	18973.96	3.8740	3.8740	1.0314	24.71	-0.26	0.050			
0.2975	19040.01	3.8730	3.8730	1.0324	24.69	-0.28	0.050			
0.2985	19106.22	3.8720	3.8720	1.0332	24.68	-0.29	0.050			
0.2996	19172.30	3.8710	3.8710	1.0346	24.70	-0.27	0.050			
0.3006	19238.43	3.8700	3.8700	1.0349	24.71	-0.26	0.050			
0.3016	19304.74	3.8690	3.8690	1.0360	24.71	-0.26	0.050			
0.3027	19370.88	3.8680	3.8680	1.0369	24.69	-0.28	0.050			
0.3037	19437.15	3.8670	3.8670	1.0393	24.69	-0.28	0.050	-0.076	0.231	
0.3047	19503.52	3.8660	3.8660	1.0416	24.71	-0.26	0.050			
0.3058	19570.03	3.8650	3.8650	1.0435	24.71	-0.26	0.050			
0.3068	19636.87	3.8640	3.8640	1.0455	24.72	-0.25	0.050			
0.3079	19703.74	3.8630	3.8630	1.0479	24.72	-0.25	0.050			
0.3089	19770.81	3.8620	3.8620	1.0495	24.69	-0.28	0.050			
0.3100	19838.06	3.8610	3.8611	1.0513	24.69	-0.28	0.050			
0.3110	19905.73	3.8600	3.8599	1.0531	24.69	-0.28	0.050			
0.3121	19973.44	3.8590	3.8589	1.0548	24.71	-0.26	0.050			
0.3131	20040.93	3.8580	3.8580	1.0568	24.72	-0.25	0.050			
