Ah_balance (normalized)	Ah_balance (mAh)	Voltage - fit (V)	Voltage -  interpolate (V)	dQ/dV (1/V)	Temperature (°C)	Temperature - diff (°C)	Current (C)	R_DC 0ms (mOhm)	R_DC 50ms (mOhm)	R_DC 50 ms PEC (mOhm)
0.0006	36.93	4.1730	4.1729	-0.2004	24.51	0.01	-0.400			
0.0013	82.47	4.1700	4.1700	-0.2734	24.50	0.00	-0.400			
0.0022	142.65	4.1670	4.1670	-0.3448	24.50	0.00	-0.400			
0.0034	216.18	4.1640	4.1640	-0.4118	24.50	-0.00	-0.400			
0.0047	303.86	4.1610	4.1610	-0.4745	24.49	-0.01	-0.400			
0.0063	403.45	4.1580	4.1580	-0.5238	24.49	-0.01	-0.400			
0.0080	511.68	4.1550	4.1550	-0.5714	24.48	-0.02	-0.400			
0.0098	626.83	4.1520	4.1521	-0.6078	24.48	-0.02	-0.400			
0.0117	748.80	4.1490	4.1490	-0.6362	24.48	-0.02	-0.400			
0.0137	874.34	4.1460	4.1460	-0.6580	24.48	-0.02	-0.400			
0.0157	1003.91	4.1430	4.1430	-0.6795	24.48	-0.02	-0.400			
0.0178	1137.44	4.1400	4.1400	-0.6954	24.48	-0.02	-0.400			
0.0199	1272.99	4.1370	4.1370	-0.7062	24.47	-0.03	-0.400			
0.0220	1409.55	4.1340	4.1340	-0.7162	24.47	-0.03	-0.400			
0.0242	1548.04	4.1310	4.1309	-0.7241	24.47	-0.03	-0.400			
0.0264	1688.68	4.1280	4.1279	-0.7344	24.46	-0.04	-0.400			
0.0286	1829.40	4.1250	4.1250	-0.7437	24.46	-0.04	-0.400			
0.0308	1972.27	4.1220	4.1220	-0.7523	24.46	-0.04	-0.400			
0.0331	2120.78	4.1190	4.1189	-0.7625	24.46	-0.04	-0.400			
0.0354	2267.99	4.1160	4.1160	-0.7694	24.46	-0.04	-0.400			
0.0378	2416.46	4.1130	4.1129	-0.7724	24.46	-0.04	-0.400			
0.0401	2565.09	4.1100	4.1100	-0.7776	24.46	-0.04	-0.400			
0.0424	2713.99	4.1070	4.1070	-0.7805	24.46	-0.04	-0.400			
0.0447	2863.63	4.1040	4.1040	-0.7846	24.46	-0.04	-0.400			
0.0471	3015.04	4.1010	4.1010	-0.7924	24.47	-0.03	-0.400			
0.0495	3168.85	4.0980	4.0981	-0.7970	24.47	-0.03	-0.400			
0.0519	3320.95	4.0950	4.0950	-0.7988	24.47	-0.03	-0.400			
0.0543	3476.63	4.0920	4.0920	-0.8036	24.46	-0.04	-0.400			
0.0567	3631.16	4.0890	4.0891	-0.8025	24.46	-0.04	-0.400			
0.0591	3785.36	4.0860	4.0858	-0.8021	24.46	-0.04	-0.400			
0.0615	3938.36	4.0830	4.0830	-0.8082	24.46	-0.04	-0.400			
0.0640	4093.84	4.0800	4.0800	-0.8123	24.46	-0.04	-0.400			
0.0664	4250.46	4.0770	4.0769	-0.8165	24.47	-0.03	-0.400			
0.0689	4406.98	4.0740	4.0741	-0.8142	24.47	-0.03	-0.400			
0.0713	4564.63	4.0710	4.0710	-0.8195	24.47	-0.03	-0.400			
0.0738	4723.44	4.0680	4.0679	-0.8221	24.47	-0.03	-0.400			
0.0763	4881.25	4.0650	4.0651	-0.8207	24.47	-0.03	-0.400			
0.0787	5036.64	4.0620	4.0621	-0.8224	24.47	-0.03	-0.400			
0.0812	5196.77	4.0590	4.0590	-0.8252	24.47	-0.03	-0.400			
0.0837	5356.07	4.0560	4.0560	-0.8246	24.47	-0.03	-0.400			
0.0861	5512.89	4.0530	4.0529	-0.8308	24.47	-0.03	-0.400			
0.0886	5671.73	4.0500	4.0501	-0.8332	24.48	-0.02	-0.400			
0.0911	5832.45	4.0470	4.0469	-0.8400	24.48	-0.02	-0.400			
0.0937	5994.44	4.0440	4.0440	-0.8442	24.49	-0.01	-0.400			
0.0962	6157.60	4.0410	4.0412	-0.8419	24.49	-0.01	-0.400			
0.0988	6320.73	4.0380	4.0380	-0.8477	24.49	-0.01	-0.400			
0.1013	6480.32	4.0350	4.0352	-0.8671	24.48	-0.02	-0.400			
0.1039	6647.74	4.0320	4.0320	-0.8740	24.48	-0.02	-0.400			
0.1065	6818.41	4.0290	4.0288	-0.8847	24.49	-0.01	-0.400			
0.1092	6991.48	4.0260	4.0263	-0.8848	24.50	-0.00	-0.400			
0.1120	7165.76	4.0230	4.0231	-0.8852	24.51	0.01	-0.400			
0.1146	7335.58	4.0200	4.0201	-0.8797	24.52	0.02	-0.400			
0.1172	7500.46	4.0170	4.0169	-0.8675	24.52	0.02	-0.400			
0.1197	7662.65	4.0140	4.0141	-0.8588	24.52	0.02	-0.400			
0.1223	7829.50	4.0110	4.0110	-0.8599	24.52	0.02	-0.400			
0.1249	7994.83	4.0080	4.0080	-0.8594	24.53	0.03	-0.400			
0.1275	8159.00	4.0050	4.0049	-0.8631	24.53	0.03	-0.400			
0.1301	8324.06	4.0020	4.0021	-0.8661	24.54	0.04	-0.400			
0.1326	8489.03	3.9990	3.9991	-0.8677	24.54	0.04	-0.400			
0.1352	8655.18	3.9960	3.9960	-0.8752	24.55	0.05	-0.400			
0.1379	8825.54	3.9930	3.9930	-0.8808	24.55	0.05	-0.400			
0.1406	8995.86	3.9900	3.9899	-0.8843	24.56	0.06	-0.400			
0.1432	9165.45	3.9870	3.9870	-0.8856	24.56	0.06	-0.400			
0.1459	9336.14	3.9840	3.9839	-0.8832	24.56	0.06	-0.400			
0.1485	9505.93	3.9810	3.9810	-0.8833	24.57	0.07	-0.400			
0.1512	9674.60	3.9780	3.9780	-0.8868	24.57	0.07	-0.400			
0.1538	9843.10	3.9750	3.9750	-0.8894	24.58	0.08	-0.400			
0.1565	10016.78	3.9720	3.9720	-0.8873	24.58	0.08	-0.400			
0.1592	10189.63	3.9690	3.9689	-0.8741	24.58	0.08	-0.400			
0.1618	10357.74	3.9660	3.9661	-0.8692	24.58	0.08	-0.400			
0.1644	10520.91	3.9630	3.9631	-0.8746	24.58	0.08	-0.400			
0.1670	10685.01	3.9600	3.9598	-0.8717	24.58	0.08	-0.400			
0.1696	10851.51	3.9570	3.9570	-0.8803	24.58	0.08	-0.400			
0.1722	11021.25	3.9540	3.9540	-0.8890	24.58	0.08	-0.400			
0.1749	11195.46	3.9510	3.9511	-0.9011	24.59	0.09	-0.400			
0.1777	11374.04	3.9480	3.9481	-0.9149	24.59	0.09	-0.400			
0.1805	11550.34	3.9450	3.9450	-0.9158	24.60	0.10	-0.400			
0.1832	11722.82	3.9420	3.9420	-0.9151	24.60	0.10	-0.400			
0.1859	11899.01	3.9390	3.9392	-0.9201	24.60	0.10	-0.400			
0.1887	12076.39	3.9360	3.9360	-0.9195	24.60	0.10	-0.400			
0.1915	12252.85	3.9330	3.9329	-0.9262	24.60	0.10	-0.400			
0.1943	12432.57	3.9300	3.9298	-0.9264	24.60	0.10	-0.400			
0.1970	12609.55	3.9270	3.9271	-0.9261	24.60	0.10	-0.400			
0.1998	12788.37	3.9240	3.9239	-0.9304	24.60	0.10	-0.400			
0.2026	12967.40	3.9210	3.9210	-0.9307	24.60	0.10	-0.400			
0.2054	13145.53	3.9180	3.9179	-0.9339	24.61	0.11	-0.400			
0.2082	13326.95	3.9150	3.9150	-0.9394	24.62	0.12	-0.400			
0.2110	13507.05	3.9120	3.9121	-0.9421	24.62	0.12	-0.400			
0.2139	13691.00	3.9090	3.9090	-0.9463	24.61	0.11	-0.400			
0.2168	13872.61	3.9060	3.9060	-0.9486	24.61	0.11	-0.400			
0.2196	14054.55	3.9030	3.9031	-0.9467	24.62	0.12	-0.400			
0.2224	14235.98	3.9000	3.9001	-0.9482	24.62	0.12	-0.400			
0.2253	14417.63	3.8970	3.8969	-0.9505	24.62	0.12	-0.400			
0.2281	14600.73	3.8940	3.8941	-0.9545	24.62	0.12	-0.400			
0.2310	14784.49	3.8910	3.8909	-0.9556	24.62	0.12	-0.400			
0.2339	14967.75	3.8880	3.8881	-0.9603	24.62	0.12	-0.400			
0.2368	15153.75	3.8850	3.8850	-0.9607	24.62	0.12	-0.400			
0.2397	15338.99	3.8820	3.8820	-0.9642	24.62	0.12	-0.400			
0.2425	15522.84	3.8790	3.8790	-0.9606	24.62	0.12	-0.400			
0.2454	15707.66	3.8760	3.8760	-0.9641	24.62	0.12	-0.400			
0.2483	15893.56	3.8730	3.8730	-0.9640	24.62	0.12	-0.400			
0.2512	16078.72	3.8700	3.8700	-0.9656	24.62	0.12	-0.400			
0.2541	16262.23	3.8670	3.8670	-0.9687	24.62	0.12	-0.400			
0.2570	16450.18	3.8640	3.8639	-0.9682	24.62	0.12	-0.400			
0.2599	16635.22	3.8610	3.8610	-0.9697	24.62	0.12	-0.400			
0.2628	16822.04	3.8580	3.8581	-0.9746	24.62	0.12	-0.400			
0.2658	17009.51	3.8550	3.8548	-0.9732	24.62	0.12	-0.400			
0.2687	17197.69	3.8520	3.8520	-0.9749	24.62	0.12	-0.400			
0.2716	17382.68	3.8490	3.8491	-0.9767	24.62	0.12	-0.400			
0.2745	17571.04	3.8460	3.8460	-0.9790	24.62	0.12	-0.400			
0.2775	17760.91	3.8430	3.8430	-0.9821	24.62	0.12	-0.400			
0.2805	17948.93	3.8400	3.8400	-0.9753	24.61	0.11	-0.400			
0.2834	18136.26	3.8370	3.8370	-0.9771	24.61	0.11	-0.400			
0.2863	18322.84	3.8340	3.8341	-0.9818	24.62	0.12	-0.400			
0.2892	18510.67	3.8310	3.8310	-0.9848	24.62	0.12	-0.400			
0.2922	18698.91	3.8280	3.8280	-0.9855	24.62	0.12	-0.400			
0.2952	18890.20	3.8250	3.8250	-0.9892	24.62	0.12	-0.400			
0.2981	19080.77	3.8220	3.8221	-0.9944	24.62	0.12	-0.400			
0.3011	19272.37	3.8190	3.8189	-0.9972	24.61	0.11	-0.400			
0.3041	19464.26	3.8160	3.8160	-0.9940	24.61	0.11	-0.400			
0.3071	19655.09	3.8130	3.8130	-0.9916	24.61	0.11	-0.400			
0.3101	19846.13	3.8100	3.8100	-0.9932	24.61	0.11	-0.400			
0.3131	20036.39	3.8070	3.8071	-0.9921	24.62	0.12	-0.400			
0.3161	20227.57	3.8040	3.8040	-0.9910	24.62	0.12	-0.400			
0.3190	20416.31	3.8010	3.8010	-0.9904	24.62	0.12	-0.400			
0.3220	20607.30	3.7980	3.7980	-0.9899	24.62	0.12	-0.400			
0.3250	20798.01	3.7950	3.7950	-0.9952	24.62	0.12	-0.400			
0.3280	20989.90	3.7920	3.7921	-0.9926	24.62	0.12	-0.400			
0.3309	21179.42	3.7890	3.7890	-0.9932	24.62	0.12	-0.400			
0.3339	21369.10	3.7860	3.7860	-1.0007	24.62	0.12	-0.400			
0.3369	21562.69	3.7830	3.7831	-1.0027	24.62	0.12	-0.400			
0.3399	21755.32	3.7800	3.7798	-1.0061	24.62	0.12	-0.400			
0.3429	21948.69	3.7770	3.7771	-1.0106	24.62	0.12	-0.400			
0.3460	22143.15	3.7740	3.7740	-1.0088	24.62	0.12	-0.400			
0.3490	22338.01	3.7710	3.7709	-1.0099	24.62	0.12	-0.400			
0.3521	22532.02	3.7680	3.7681	-1.0031	24.62	0.12	-0.400			
0.3551	22723.92	3.7650	3.7650	-1.0027	24.62	0.12	-0.400			
0.3581	22917.24	3.7620	3.7620	-1.0034	24.63	0.13	-0.400			
0.3611	23109.24	3.7590	3.7589	-0.9992	24.63	0.13	-0.400			
0.3641	23299.88	3.7560	3.7561	-0.9979	24.64	0.14	-0.400			
0.3671	23493.38	3.7530	3.7530	-0.9988	24.64	0.14	-0.400			
0.3701	23683.52	3.7500	3.7500	-0.9968	24.64	0.14	-0.400			
0.3730	23874.95	3.7470	3.7470	-0.9965	24.65	0.15	-0.400			
0.3760	24066.14	3.7440	3.7440	-0.9941	24.65	0.15	-0.400			
0.3790	24257.18	3.7410	3.7410	-1.0008	24.65	0.15	-0.400			
0.3820	24449.18	3.7380	3.7380	-1.0042	24.65	0.15	-0.400			
0.3850	24642.88	3.7350	3.7349	-1.0065	24.65	0.15	-0.400			
0.3881	24836.85	3.7320	3.7321	-1.0107	24.66	0.16	-0.400			
0.3911	25029.80	3.7290	3.7290	-1.0155	24.66	0.16	-0.400			
0.3941	25225.44	3.7260	3.7260	-1.0209	24.66	0.16	-0.400			
0.3972	25419.99	3.7230	3.7230	-1.0327	24.66	0.16	-0.400			
0.4003	25618.30	3.7200	3.7200	-1.0448	24.67	0.17	-0.400			
0.4034	25819.15	3.7170	3.7170	-1.0599	24.68	0.18	-0.400			
0.4066	26024.93	3.7140	3.7139	-1.0805	24.68	0.18	-0.400			
0.4099	26233.85	3.7110	3.7110	-1.1003	24.68	0.18	-0.400			
0.4132	26446.77	3.7080	3.7080	-1.1209	24.69	0.19	-0.400			
0.4166	26664.94	3.7050	3.7050	-1.1437	24.70	0.20	-0.400			
0.4201	26884.18	3.7020	3.7020	-1.1670	24.70	0.20	-0.400			
0.4236	27112.03	3.6990	3.6990	-1.1917	24.70	0.20	-0.400			
0.4272	27342.31	3.6960	3.6960	-1.2206	24.70	0.20	-0.400			
0.4309	27578.58	3.6930	3.6931	-1.2502	24.70	0.20	-0.400			
0.4347	27820.60	3.6900	3.6899	-1.2893	24.70	0.20	-0.400			
0.4386	28071.66	3.6870	3.6870	-1.3254	24.70	0.20	-0.400			
0.4427	28329.63	3.6840	3.6840	-1.3639	24.71	0.21	-0.400			
0.4468	28596.69	3.6810	3.6811	-1.3995	24.71	0.21	-0.400			
0.4510	28867.05	3.6780	3.6781	-1.4392	24.71	0.21	-0.400			
0.4554	29145.90	3.6750	3.6751	-1.4796	24.72	0.22	-0.400			
0.4599	29434.62	3.6720	3.6719	-1.5186	24.71	0.21	-0.400			
0.4645	29728.47	3.6690	3.6689	-1.5710	24.70	0.20	-0.400			
0.4693	30037.39	3.6660	3.6660	-1.6155	24.70	0.20	-0.400			
0.4742	30351.87	3.6630	3.6629	-1.6676	24.70	0.20	-0.400			
0.4793	30674.35	3.6600	3.6601	-1.7181	24.70	0.20	-0.400			
0.4845	31007.80	3.6570	3.6568	-1.7658	24.69	0.19	-0.400			
0.4899	31353.30	3.6540	3.6540	-1.8224	24.68	0.18	-0.400			
0.4954	31708.13	3.6510	3.6509	-1.8714	24.66	0.16	-0.400	0.448	0.571	
0.5011	32072.46	3.6480	3.6480	-1.9345	24.66	0.16	-0.400			
0.5070	32446.63	3.6450	3.6450	-1.9979	24.65	0.15	-0.400			
0.5131	32836.63	3.6420	3.6419	-2.0593	24.64	0.14	-0.400			
0.5194	33238.58	3.6390	3.6389	-2.1273	24.63	0.13	-0.400			
0.5259	33655.28	3.6360	3.6361	-2.1964	24.62	0.12	-0.400			
0.5325	34081.87	3.6330	3.6330	-2.2742	24.61	0.11	-0.400			
0.5394	34524.23	3.6300	3.6300	-2.3471	24.60	0.10	-0.400			
0.5466	34981.13	3.6270	3.6269	-2.4214	24.58	0.08	-0.400			
0.5540	35456.01	3.6240	3.6240	-2.5030	24.57	0.07	-0.400			
0.5616	35945.19	3.6210	3.6209	-2.5692	24.56	0.06	-0.400			
0.5695	36447.51	3.6180	3.6179	-2.6359	24.55	0.05	-0.400			
0.5775	36957.84	3.6150	3.6150	-2.6931	24.55	0.05	-0.400			
0.5857	37482.96	3.6120	3.6120	-2.7453	24.53	0.03	-0.400			
0.5940	38015.95	3.6090	3.6090	-2.7827	24.51	0.01	-0.400			
0.6024	38555.03	3.6060	3.6060	-2.8167	24.50	0.00	-0.400			
0.6109	39094.61	3.6030	3.6030	-2.8444	24.48	-0.02	-0.400			
0.6194	39644.18	3.6000	3.6001	-2.8698	24.47	-0.03	-0.400			
0.6281	40200.80	3.5970	3.5969	-2.8923	24.46	-0.04	-0.400			
0.6368	40756.07	3.5940	3.5940	-2.9867	24.45	-0.05	-0.400			
0.6459	41336.21	3.5910	3.5909	-3.0364	24.44	-0.06	-0.400			
0.6552	41933.71	3.5880	3.5882	-3.0330	24.42	-0.08	-0.400			
0.6645	42525.11	3.5850	3.5851	-3.0034	24.42	-0.08	-0.400			
0.6734	43095.22	3.5820	3.5820	-2.9326	24.42	-0.08	-0.400			
0.6818	43636.10	3.5790	3.5790	-2.8557	24.42	-0.08	-0.400			
0.6904	44184.65	3.5760	3.5760	-2.8173	24.42	-0.08	-0.400			
0.6988	44725.83	3.5730	3.5730	-2.7921	24.44	-0.06	-0.400			
0.7072	45260.09	3.5700	3.5700	-2.7461	24.44	-0.06	-0.400			
0.7153	45782.16	3.5670	3.5670	-2.6891	24.44	-0.06	-0.400			
0.7233	46293.12	3.5640	3.5640	-2.6235	24.44	-0.06	-0.400			
0.7311	46791.90	3.5610	3.5610	-2.5582	24.46	-0.04	-0.400			
0.7388	47282.83	3.5580	3.5580	-2.4463	24.46	-0.04	-0.400			
0.7460	47743.58	3.5550	3.5551	-2.3264	24.46	-0.04	-0.400			
0.7528	48178.26	3.5520	3.5522	-2.2250	24.48	-0.02	-0.400			
0.7592	48587.37	3.5490	3.5488	-2.1292	24.49	-0.01	-0.400			
0.7654	48982.60	3.5460	3.5459	-2.0459	24.50	0.00	-0.400			
0.7714	49367.12	3.5430	3.5430	-1.9695	24.50	0.00	-0.400			
0.7772	49743.21	3.5400	3.5401	-1.9072	24.51	0.01	-0.400			
0.7830	50109.61	3.5370	3.5370	-1.8370	24.52	0.02	-0.400			
0.7883	50450.98	3.5340	3.5339	-1.7474	24.54	0.04	-0.400			
0.7934	50776.87	3.5310	3.5310	-1.6555	24.55	0.05	-0.400			
0.7982	51085.99	3.5280	3.5281	-1.5756	24.56	0.06	-0.400			
0.8028	51380.70	3.5250	3.5251	-1.5047	24.57	0.07	-0.400			
0.8072	51658.83	3.5220	3.5219	-1.4386	24.58	0.08	-0.400			
0.8114	51927.32	3.5190	3.5190	-1.3843	24.59	0.09	-0.400			
0.8154	52187.92	3.5160	3.5159	-1.3291	24.61	0.11	-0.400			
0.8194	52440.34	3.5130	3.5130	-1.2787	24.62	0.12	-0.400			
0.8231	52680.84	3.5100	3.5101	-1.2271	24.64	0.14	-0.400			
0.8267	52911.56	3.5070	3.5069	-1.1770	24.64	0.14	-0.400			
0.8302	53130.67	3.5040	3.5040	-1.1268	24.64	0.14	-0.400			
0.8335	53341.32	3.5010	3.5010	-1.0776	24.66	0.16	-0.400			
0.8366	53545.13	3.4980	3.4980	-1.0400	24.67	0.17	-0.400			
0.8397	53742.25	3.4950	3.4950	-1.0035	24.68	0.18	-0.400			
0.8426	53929.29	3.4920	3.4921	-0.9691	24.69	0.19	-0.400			
0.8455	54110.20	3.4890	3.4890	-0.9313	24.69	0.19	-0.400			
0.8482	54282.91	3.4860	3.4859	-0.9115	24.70	0.20	-0.400			
0.8509	54455.28	3.4830	3.4830	-0.8893	24.70	0.20	-0.400			
0.8535	54626.76	3.4800	3.4799	-0.8695	24.71	0.21	-0.400			
0.8561	54789.66	3.4770	3.4770	-0.8481	24.72	0.22	-0.400			
0.8586	54950.96	3.4740	3.4740	-0.8325	24.72	0.22	-0.400			
0.8611	55107.82	3.4710	3.4711	-0.8180	24.73	0.23	-0.400			
0.8635	55262.57	3.4680	3.4680	-0.8169	24.73	0.23	-0.400			
0.8659	55414.56	3.4650	3.4650	-0.8102	24.74	0.24	-0.400			
0.8683	55568.77	3.4620	3.4620	-0.8447	24.75	0.25	-0.400			
0.8707	55726.84	3.4590	3.4590	-0.8926	24.76	0.26	-0.400			
0.8733	55893.35	3.4560	3.4560	-0.9736	24.76	0.26	-0.400			
0.8763	56084.21	3.4530	3.4530	-1.0796	24.76	0.26	-0.400			
0.8796	56297.05	3.4500	3.4499	-1.1992	24.77	0.27	-0.400			
0.8835	56544.72	3.4470	3.4470	-1.3125	24.78	0.28	-0.400			
0.8878	56820.12	3.4440	3.4439	-1.3973	24.79	0.29	-0.400			
0.8923	57107.27	3.4410	3.4410	-1.4459	24.79	0.29	-0.400			
0.8968	57397.53	3.4380	3.4381	-1.4441	24.80	0.30	-0.400			
0.9013	57680.31	3.4350	3.4351	-1.4051	24.80	0.30	-0.400			
0.9054	57945.50	3.4320	3.4320	-1.3395	24.81	0.31	-0.400			
0.9093	58194.44	3.4290	3.4290	-1.2678	24.82	0.32	-0.400			
0.9130	58429.44	3.4260	3.4260	-1.2061	24.82	0.32	-0.400			
0.9165	58653.55	3.4230	3.4230	-1.1489	24.82	0.32	-0.400			
0.9198	58868.52	3.4200	3.4199	-1.0933	24.83	0.33	-0.400			
0.9230	59072.95	3.4170	3.4171	-1.0424	24.83	0.33	-0.400			
0.9261	59269.45	3.4140	3.4140	-0.9870	24.84	0.34	-0.400			
0.9290	59453.94	3.4110	3.4110	-0.9337	24.84	0.34	-0.400			
0.9317	59626.35	3.4080	3.4081	-0.8848	24.85	0.35	-0.400			
0.9342	59790.31	3.4050	3.4049	-0.8378	24.85	0.35	-0.400			
0.9367	59946.36	3.4020	3.4020	-0.7968	24.86	0.36	-0.400			
0.9390	60096.30	3.3990	3.3989	-0.7555	24.86	0.36	-0.400			
0.9412	60237.66	3.3960	3.3960	-0.7147	24.87	0.37	-0.400			
0.9433	60371.96	3.3930	3.3931	-0.6779	24.87	0.37	-0.400			
0.9453	60497.57	3.3900	3.3900	-0.6354	24.88	0.38	-0.400			
0.9471	60614.25	3.3870	3.3869	-0.5970	24.88	0.38	-0.400			
0.9488	60722.92	3.3840	3.3840	-0.5571	24.89	0.39	-0.400			
0.9504	60828.00	3.3810	3.3810	-0.5301	24.89	0.39	-0.400			
0.9520	60926.30	3.3780	3.3780	-0.4992	24.90	0.40	-0.400			
0.9534	61018.41	3.3750	3.3750	-0.4690	24.90	0.40	-0.400			
0.9548	61105.17	3.3720	3.3720	-0.4404	24.91	0.41	-0.400			
0.9561	61187.88	3.3690	3.3690	-0.4153	24.91	0.41	-0.400			
0.9573	61264.48	3.3660	3.3660	-0.3898	24.91	0.41	-0.400			
0.9584	61336.17	3.3630	3.3630	-0.3664	24.92	0.42	-0.400			
0.9594	61403.62	3.3600	3.3600	-0.3466	24.92	0.42	-0.400			
0.9604	61468.10	3.3570	3.3569	-0.3284	24.92	0.42	-0.400			
0.9614	61529.03	3.3540	3.3540	-0.3103	24.93	0.43	-0.400			
0.9623	61586.68	3.3510	3.3510	-0.2952	24.93	0.43	-0.400			
0.9631	61641.51	3.3480	3.3480	-0.2808	24.93	0.43	-0.400			
0.9640	61694.06	3.3450	3.3450	-0.2668	24.94	0.44	-0.400			
0.9647	61743.20	3.3420	3.3420	-0.2533	24.94	0.44	-0.400			
0.9655	61790.29	3.3390	3.3390	-0.2425	24.95	0.45	-0.400			
0.9662	61835.61	3.3360	3.3360	-0.2326	24.95	0.45	-0.400			
0.9669	61879.35	3.3330	3.3330	-0.2232	24.95	0.45	-0.400			
0.9675	61920.83	3.3300	3.3299	-0.2143	24.96	0.46	-0.400			
0.9681	61961.06	3.3270	3.3270	-0.2064	24.96	0.46	-0.400			
0.9687	61999.93	3.3240	3.3240	-0.1988	24.97	0.47	-0.400			
0.9693	62037.22	3.3210	3.3211	-0.1919	24.97	0.47	-0.400			
0.9699	62073.36	3.3180	3.3180	-0.1849	24.97	0.47	-0.400			
0.9704	62107.82	3.3150	3.3150	-0.1789	24.98	0.48	-0.400			
0.9710	62141.52	3.3120	3.3120	-0.1731	24.98	0.48	-0.400			
0.9715	62174.08	3.3090	3.3090	-0.1675	24.98	0.48	-0.400			
0.9720	62205.77	3.3060	3.3060	-0.1626	24.99	0.49	-0.400			
0.9724	62236.43	3.3030	3.3031	-0.1585	24.99	0.49	-0.400			
0.9729	62266.45	3.3000	3.3000	-0.1542	24.99	0.49	-0.400			
0.9734	62295.34	3.2970	3.2970	-0.1499	24.99	0.49	-0.400			
0.9738	62323.77	3.2940	3.2940	-0.1463	25.00	0.50	-0.400			
0.9742	62351.36	3.2910	3.2910	-0.1424	25.00	0.50	-0.400			
0.9747	62378.47	3.2880	3.2880	-0.1392	25.00	0.50	-0.400			
0.9751	62404.86	3.2850	3.2850	-0.1356	25.00	0.50	-0.400			
0.9755	62430.46	3.2820	3.2820	-0.1326	25.01	0.51	-0.400			
0.9759	62455.42	3.2790	3.2789	-0.1293	25.01	0.51	-0.400			
0.9763	62480.02	3.2760	3.2760	-0.1266	25.01	0.51	-0.400			
0.9766	62503.87	3.2730	3.2730	-0.1235	25.01	0.51	-0.400			
0.9770	62527.33	3.2700	3.2700	-0.1210	25.02	0.52	-0.400			
0.9773	62550.29	3.2670	3.2670	-0.1186	25.02	0.52	-0.400			
0.9777	62572.80	3.2640	3.2640	-0.1161	25.02	0.52	-0.400			
0.9780	62594.78	3.2610	3.2611	-0.1139	25.03	0.53	-0.400			
0.9784	62616.30	3.2580	3.2580	-0.1114	25.03	0.53	-0.400			
0.9787	62637.51	3.2550	3.2550	-0.1095	25.03	0.53	-0.400			
0.9790	62658.33	3.2520	3.2520	-0.1075	25.04	0.54	-0.400			
0.9794	62678.81	3.2490	3.2490	-0.1054	25.04	0.54	-0.400			
0.9797	62698.86	3.2460	3.2460	-0.1033	25.04	0.54	-0.400			
0.9800	62718.39	3.2430	3.2431	-0.1015	25.05	0.55	-0.400			
0.9803	62737.65	3.2400	3.2401	-0.0996	25.05	0.55	-0.400			
0.9806	62756.54	3.2370	3.2370	-0.0979	25.05	0.55	-0.400			
0.9809	62775.08	3.2340	3.2340	-0.0961	25.05	0.55	-0.400			
0.9811	62793.37	3.2310	3.2310	-0.0947	25.06	0.56	-0.400			
0.9814	62811.34	3.2280	3.2281	-0.0931	25.06	0.56	-0.400			
0.9817	62829.09	3.2250	3.2250	-0.0918	25.06	0.56	-0.400			
0.9820	62846.66	3.2220	3.2219	-0.0905	25.06	0.56	-0.400			
0.9822	62863.89	3.2190	3.2191	-0.0890	25.07	0.57	-0.400			
0.9825	62880.79	3.2160	3.2160	-0.0874	25.07	0.57	-0.400			
0.9828	62897.44	3.2130	3.2131	-0.0860	25.07	0.57	-0.400			
0.9830	62913.73	3.2100	3.2100	-0.0847	25.07	0.57	-0.400			
0.9833	62929.88	3.2070	3.2070	-0.0834	25.08	0.58	-0.400			
0.9835	62945.68	3.2040	3.2041	-0.0820	25.08	0.58	-0.400			
0.9838	62961.40	3.2010	3.2009	-0.0807	25.08	0.58	-0.400			
0.9840	62976.78	3.1980	3.1980	-0.0795	25.08	0.58	-0.400			
0.9842	62991.94	3.1950	3.1950	-0.0782	25.09	0.59	-0.400			
0.9845	63006.77	3.1920	3.1921	-0.0772	25.09	0.59	-0.400			
0.9847	63021.48	3.1890	3.1890	-0.0760	25.09	0.59	-0.400			
0.9849	63035.83	3.1860	3.1859	-0.0751	25.09	0.59	-0.400			
0.9852	63050.16	3.1830	3.1831	-0.0742	25.10	0.60	-0.400			
0.9854	63064.10	3.1800	3.1801	-0.0731	25.10	0.60	-0.400			
0.9856	63078.18	3.1770	3.1769	-0.0722	25.10	0.60	-0.400			
0.9858	63092.05	3.1740	3.1740	-0.0715	25.10	0.60	-0.400			
0.9860	63105.68	3.1710	3.1710	-0.0705	25.10	0.60	-0.400			
