Ah_balance (normalized)	Ah_balance (mAh)	Voltage - fit (V)	Voltage -  interpolate (V)	dQ/dV (1/V)	Temperature (°C)	Temperature - diff (°C)	Current (C)	R_DC 0ms (mOhm)	R_DC 50ms (mOhm)	R_DC 50 ms PEC (mOhm)
-0.0093	-593.37	4.1990	4.1988	0.8446	25.02	0.19	0.050			
-0.0084	-539.36	4.1980	4.1982	0.8379	25.03	0.20	0.050			
-0.0076	-485.64	4.1970	4.1969	0.8394	25.03	0.20	0.050			
-0.0068	-432.41	4.1960	4.1958	0.8330	25.03	0.20	0.050			
-0.0059	-380.00	4.1950	4.1952	0.8285	25.03	0.20	0.050			
-0.0051	-327.21	4.1940	4.1940	0.8287	25.04	0.21	0.050			
-0.0043	-274.21	4.1930	4.1928	0.8298	25.03	0.20	0.050			
-0.0034	-220.70	4.1920	4.1919	0.8315	25.03	0.20	0.050			
-0.0026	-166.56	4.1910	4.1911	0.8313	25.04	0.21	0.050			
-0.0018	-113.10	4.1900	4.1899	0.8303	25.04	0.21	0.050			
-0.0009	-59.79	4.1890	4.1890	0.8288	25.03	0.20	0.050			
-0.0001	-6.90	4.1880	4.1880	0.8273	25.04	0.21	0.050	0.693	0.460	
0.0007	45.99	4.1870	4.1869	0.8271	25.03	0.20	0.050			
0.0015	98.85	4.1860	4.1860	0.8283	25.03	0.20	0.050			
0.0024	151.75	4.1850	4.1852	0.8289	25.03	0.20	0.050			
0.0032	204.25	4.1840	4.1841	0.8295	25.02	0.19	0.050			
0.0040	257.43	4.1830	4.1830	0.8304	25.02	0.19	0.050			
0.0048	309.79	4.1820	4.1821	0.8302	25.02	0.19	0.050			
0.0057	363.98	4.1810	4.1808	0.8313	25.00	0.17	0.050			
0.0065	417.56	4.1800	4.1799	0.8316	25.00	0.17	0.050			
0.0074	470.75	4.1790	4.1790	0.8309	24.99	0.16	0.050			
0.0082	523.37	4.1780	4.1781	0.8290	24.97	0.14	0.050			
0.0090	576.53	4.1770	4.1770	0.8304	24.96	0.13	0.050			
0.0098	629.10	4.1760	4.1762	0.8301	24.95	0.12	0.050			
0.0107	681.69	4.1750	4.1748	0.8286	24.94	0.11	0.050			
0.0115	735.10	4.1740	4.1741	0.8326	24.92	0.09	0.050			
0.0123	788.09	4.1730	4.1730	0.8339	24.91	0.08	0.050			
0.0132	841.71	4.1720	4.1721	0.8369	24.91	0.08	0.050			
0.0140	896.08	4.1710	4.1710	0.8422	24.89	0.06	0.050			
0.0149	950.77	4.1700	4.1699	0.8402	24.88	0.05	0.050			
0.0157	1004.26	4.1690	4.1688	0.8393	24.87	0.04	0.050			
0.0165	1058.01	4.1680	4.1680	0.8370	24.86	0.03	0.050			
0.0174	1111.63	4.1670	4.1670	0.8370	24.87	0.04	0.050			
0.0182	1164.66	4.1660	4.1659	0.8354	24.85	0.02	0.050			
0.0190	1218.68	4.1650	4.1649	0.8373	24.85	0.02	0.050			
0.0199	1272.49	4.1640	4.1643	0.8343	24.85	0.02	0.050			
0.0207	1326.09	4.1630	4.1629	0.8337	24.85	0.02	0.050			
0.0216	1380.02	4.1620	4.1620	0.8346	24.85	0.02	0.050			
0.0224	1433.57	4.1610	4.1610	0.8353	24.85	0.02	0.050			
0.0232	1487.32	4.1600	4.1600	0.8347	24.84	0.01	0.050			
0.0241	1540.46	4.1590	4.1590	0.8325	24.84	0.01	0.050			
0.0249	1592.79	4.1580	4.1578	0.8321	24.84	0.01	0.050			
0.0257	1644.84	4.1570	4.1571	0.8331	24.82	-0.01	0.050			
0.0265	1698.22	4.1560	4.1561	0.8344	24.82	-0.01	0.050			
0.0274	1751.03	4.1550	4.1551	0.8345	24.82	-0.01	0.050			
0.0282	1804.19	4.1540	4.1539	0.8327	24.81	-0.02	0.050			
0.0290	1858.15	4.1530	4.1531	0.8329	24.81	-0.02	0.050			
0.0299	1911.72	4.1520	4.1520	0.8319	24.80	-0.03	0.050			
0.0307	1964.98	4.1510	4.1509	0.8343	24.80	-0.03	0.050			
0.0315	2018.99	4.1500	4.1500	0.8362	24.79	-0.04	0.050			
0.0324	2073.83	4.1490	4.1488	0.8357	24.78	-0.05	0.050			
0.0332	2126.73	4.1480	4.1479	0.8343	24.77	-0.06	0.050			
0.0341	2179.77	4.1470	4.1473	0.8356	24.76	-0.07	0.050			
0.0349	2233.48	4.1460	4.1459	0.8337	24.76	-0.07	0.050			
0.0357	2287.16	4.1450	4.1451	0.8345	24.75	-0.08	0.050			
0.0366	2341.15	4.1440	4.1440	0.8352	24.75	-0.08	0.050			
0.0374	2393.70	4.1430	4.1427	0.8367	24.74	-0.09	0.050			
0.0382	2446.76	4.1420	4.1420	0.8367	24.76	-0.07	0.050			
0.0391	2500.23	4.1410	4.1411	0.8358	24.76	-0.07	0.050			
0.0399	2553.91	4.1400	4.1402	0.8344	24.77	-0.06	0.050			
0.0407	2607.84	4.1390	4.1388	0.8327	24.78	-0.05	0.050			
0.0416	2660.73	4.1380	4.1380	0.8300	24.79	-0.04	0.050			
0.0424	2713.16	4.1370	4.1373	0.8301	24.80	-0.03	0.050			
0.0432	2765.22	4.1360	4.1362	0.8357	24.81	-0.02	0.050			
0.0441	2819.65	4.1350	4.1346	0.8389	24.82	-0.01	0.050			
0.0449	2873.43	4.1340	4.1341	0.8408	24.84	0.01	0.050	0.227	0.454	
0.0457	2927.55	4.1330	4.1331	0.8438	24.85	0.02	0.050			
0.0466	2981.85	4.1320	4.1319	0.8419	24.86	0.03	0.050			
0.0474	3035.37	4.1310	4.1313	0.8430	24.87	0.04	0.050			
0.0483	3089.25	4.1300	4.1300	0.8439	24.88	0.05	0.050			
0.0491	3143.99	4.1290	4.1287	0.8461	24.89	0.06	0.050			
0.0500	3198.30	4.1280	4.1278	0.8444	24.90	0.07	0.050			
0.0508	3252.54	4.1270	4.1269	0.8426	24.90	0.07	0.050			
0.0517	3307.20	4.1260	4.1262	0.8429	24.91	0.08	0.050			
0.0525	3361.77	4.1250	4.1251	0.8417	24.92	0.09	0.050			
0.0534	3415.15	4.1240	4.1238	0.8399	24.93	0.10	0.050			
0.0542	3468.82	4.1230	4.1231	0.8387	24.94	0.11	0.050			
0.0551	3523.36	4.1220	4.1220	0.8377	24.94	0.11	0.050			
0.0559	3577.03	4.1210	4.1210	0.8412	24.95	0.12	0.050			
0.0567	3631.26	4.1200	4.1201	0.8416	24.95	0.12	0.050			
0.0576	3684.62	4.1190	4.1190	0.8402	24.95	0.12	0.050			
0.0584	3737.81	4.1180	4.1179	0.8385	24.95	0.12	0.050			
0.0592	3789.45	4.1170	4.1169	0.8356	24.95	0.12	0.050			
0.0600	3841.80	4.1160	4.1162	0.8328	24.95	0.12	0.050			
0.0609	3895.30	4.1150	4.1150	0.8379	24.95	0.12	0.050			
0.0617	3948.68	4.1140	4.1139	0.8422	24.96	0.13	0.050			
0.0625	4002.82	4.1130	4.1130	0.8423	24.96	0.13	0.050			
0.0634	4057.34	4.1120	4.1119	0.8434	24.96	0.13	0.050			
0.0642	4111.15	4.1110	4.1112	0.8457	24.96	0.13	0.050			
0.0651	4164.98	4.1100	4.1101	0.8465	24.96	0.13	0.050			
0.0659	4219.26	4.1090	4.1088	0.8516	24.96	0.13	0.050			
0.0668	4274.61	4.1080	4.1078	0.8542	24.97	0.14	0.050			
0.0677	4330.03	4.1070	4.1070	0.8561	24.97	0.14	0.050			
0.0685	4385.13	4.1060	4.1059	0.8562	24.97	0.14	0.050			
0.0694	4439.63	4.1050	4.1052	0.8597	24.97	0.14	0.050			
0.0702	4495.52	4.1040	4.1041	0.8588	24.97	0.14	0.050			
0.0711	4550.45	4.1030	4.1028	0.8596	24.98	0.15	0.050			
0.0720	4606.21	4.1020	4.1020	0.8591	24.99	0.16	0.050			
0.0728	4660.70	4.1010	4.1011	0.8571	24.99	0.16	0.050			
0.0737	4715.76	4.1000	4.0999	0.8579	25.00	0.17	0.050			
0.0745	4771.18	4.0990	4.0992	0.8575	25.00	0.17	0.050			
0.0754	4826.09	4.0980	4.0979	0.8567	25.01	0.18	0.050			
0.0763	4880.44	4.0970	4.0970	0.8581	25.01	0.18	0.050			
0.0771	4935.83	4.0960	4.0958	0.8560	25.01	0.18	0.050			
0.0780	4990.31	4.0950	4.0951	0.8540	25.00	0.17	0.050			
0.0788	5044.33	4.0940	4.0943	0.8572	25.00	0.17	0.050			
0.0797	5099.50	4.0930	4.0930	0.8564	25.00	0.17	0.050			
0.0805	5154.55	4.0920	4.0919	0.8564	25.00	0.17	0.050			
0.0814	5208.69	4.0910	4.0910	0.8573	25.00	0.17	0.050			
0.0822	5263.17	4.0900	4.0900	0.8566	25.00	0.17	0.050			
0.0831	5317.05	4.0890	4.0891	0.8588	24.99	0.16	0.050			
0.0840	5372.83	4.0880	4.0877	0.8601	24.99	0.16	0.050			
0.0848	5428.66	4.0870	4.0874	0.8587	24.99	0.16	0.050			
0.0857	5484.61	4.0860	4.0859	0.8586	24.98	0.15	0.050			
0.0865	5539.09	4.0850	4.0850	0.8566	24.99	0.16	0.050			
0.0874	5593.84	4.0840	4.0842	0.8586	24.99	0.16	0.050			
0.0883	5649.30	4.0830	4.0831	0.8623	24.99	0.16	0.050			
0.0891	5704.37	4.0820	4.0819	0.8599	24.99	0.16	0.050			
0.0900	5759.81	4.0810	4.0812	0.8586	25.00	0.17	0.050			
0.0909	5814.53	4.0800	4.0800	0.8597	24.99	0.16	0.050			
0.0917	5869.22	4.0790	4.0793	0.8609	25.00	0.17	0.050			
0.0926	5924.75	4.0780	4.0782	0.8610	25.00	0.17	0.050			
0.0934	5979.49	4.0770	4.0766	0.8589	25.00	0.17	0.050			
0.0943	6034.95	4.0760	4.0758	0.8597	25.00	0.17	0.050			
0.0951	6089.53	4.0750	4.0751	0.8589	25.01	0.18	0.050			
0.0960	6143.29	4.0740	4.0742	0.8570	25.02	0.19	0.050			
0.0968	6198.36	4.0730	4.0731	0.8591	25.02	0.19	0.050			
0.0977	6253.47	4.0720	4.0719	0.8609	25.01	0.18	0.050			
0.0986	6308.00	4.0710	4.0708	0.8589	25.01	0.18	0.050			
0.0994	6363.38	4.0700	4.0701	0.8616	25.02	0.19	0.050			
0.1003	6417.85	4.0690	4.0690	0.8628	25.02	0.19	0.050			
0.1012	6474.13	4.0680	4.0681	0.8667	25.03	0.20	0.050			
0.1020	6530.02	4.0670	4.0671	0.8692	25.03	0.20	0.050			
0.1029	6585.52	4.0660	4.0659	0.8703	25.03	0.20	0.050			
0.1038	6640.14	4.0650	4.0650	0.8692	25.03	0.20	0.050			
0.1046	6695.62	4.0640	4.0639	0.8701	25.03	0.20	0.050			
0.1055	6752.10	4.0630	4.0629	0.8704	25.03	0.20	0.050			
0.1064	6808.20	4.0620	4.0620	0.8741	25.04	0.21	0.050			
0.1073	6864.71	4.0610	4.0609	0.8743	25.04	0.21	0.050			
0.1081	6920.41	4.0600	4.0600	0.8726	25.03	0.20	0.050			
0.1090	6976.54	4.0590	4.0590	0.8722	25.03	0.20	0.050			
0.1099	7032.78	4.0580	4.0581	0.8729	25.03	0.20	0.050			
0.1108	7089.59	4.0570	4.0571	0.8737	25.02	0.19	0.050			
0.1116	7145.57	4.0560	4.0559	0.8729	25.02	0.19	0.050			
0.1125	7200.26	4.0550	4.0552	0.8754	25.02	0.19	0.050			
0.1134	7256.41	4.0540	4.0541	0.8758	25.02	0.19	0.050			
0.1143	7312.08	4.0530	4.0529	0.8767	25.01	0.18	0.050			
0.1151	7368.58	4.0520	4.0520	0.8750	25.00	0.17	0.050			
0.1160	7424.42	4.0510	4.0511	0.8766	24.99	0.16	0.050			
0.1169	7479.76	4.0500	4.0499	0.8773	24.98	0.15	0.050			
0.1178	7536.18	4.0490	4.0488	0.8764	24.97	0.14	0.050			
0.1186	7591.96	4.0480	4.0481	0.8784	24.96	0.13	0.050			
0.1195	7648.23	4.0470	4.0469	0.8803	24.95	0.12	0.050			
0.1204	7703.51	4.0460	4.0459	0.8838	24.92	0.09	0.050			
0.1213	7760.50	4.0450	4.0452	0.8848	24.91	0.08	0.050			
0.1222	7817.94	4.0440	4.0440	0.8861	24.89	0.06	0.050			
0.1231	7875.33	4.0430	4.0429	0.8884	24.87	0.04	0.050			
0.1239	7932.64	4.0420	4.0419	0.8891	24.86	0.03	0.050			
0.1248	7989.41	4.0410	4.0411	0.8880	24.85	0.02	0.050	0.164	0.394	
0.1257	8047.11	4.0400	4.0402	0.8892	24.82	-0.01	0.050			
0.1266	8104.05	4.0390	4.0388	0.8881	24.80	-0.03	0.050			
0.1275	8161.05	4.0380	4.0382	0.8877	24.78	-0.05	0.050			
0.1284	8218.67	4.0370	4.0370	0.8857	24.77	-0.06	0.050			
0.1293	8274.69	4.0360	4.0364	0.8855	24.75	-0.08	0.050			
0.1302	8330.61	4.0350	4.0350	0.8839	24.73	-0.10	0.050			
0.1311	8387.56	4.0340	4.0340	0.8829	24.72	-0.11	0.050			
0.1319	8444.53	4.0330	4.0332	0.8841	24.71	-0.12	0.050			
0.1328	8500.64	4.0320	4.0322	0.8859	24.70	-0.13	0.050			
0.1337	8556.91	4.0310	4.0311	0.8833	24.70	-0.13	0.050			
0.1346	8613.03	4.0300	4.0300	0.8864	24.69	-0.14	0.050			
0.1355	8668.93	4.0290	4.0288	0.8876	24.69	-0.14	0.050			
0.1363	8725.13	4.0280	4.0279	0.8875	24.69	-0.14	0.050			
0.1372	8781.77	4.0270	4.0269	0.8892	24.69	-0.14	0.050			
0.1381	8838.44	4.0260	4.0264	0.8897	24.70	-0.13	0.050			
0.1390	8896.56	4.0250	4.0251	0.8904	24.72	-0.11	0.050			
0.1399	8954.07	4.0240	4.0241	0.8929	24.74	-0.09	0.050			
0.1408	9011.87	4.0230	4.0231	0.8922	24.76	-0.07	0.050			
0.1417	9068.94	4.0220	4.0223	0.8939	24.78	-0.05	0.050			
0.1426	9126.58	4.0210	4.0208	0.8957	24.81	-0.02	0.050			
0.1435	9183.96	4.0200	4.0200	0.8961	24.84	0.01	0.050			
0.1444	9241.41	4.0190	4.0191	0.8980	24.86	0.03	0.050			
0.1453	9298.34	4.0180	4.0181	0.8993	24.88	0.05	0.050	-0.070	0.370	
0.1462	9356.41	4.0170	4.0168	0.8999	24.90	0.07	0.050			
0.1471	9413.76	4.0160	4.0159	0.8991	24.92	0.09	0.050			
0.1480	9472.01	4.0150	4.0148	0.8977	24.94	0.11	0.050			
0.1489	9529.92	4.0140	4.0139	0.8979	24.95	0.12	0.050			
0.1498	9586.69	4.0130	4.0126	0.8982	24.96	0.13	0.050			
0.1507	9643.69	4.0120	4.0121	0.8967	24.96	0.13	0.050			
0.1516	9700.86	4.0110	4.0109	0.9001	24.96	0.13	0.050			
0.1525	9758.29	4.0100	4.0101	0.8986	24.96	0.13	0.050			
0.1534	9815.57	4.0090	4.0091	0.9004	24.96	0.13	0.050			
0.1543	9874.04	4.0080	4.0079	0.9023	24.96	0.13	0.050			
0.1552	9931.43	4.0070	4.0070	0.9054	24.95	0.12	0.050			
0.1561	9989.12	4.0060	4.0061	0.9085	24.96	0.13	0.050			
0.1570	10047.46	4.0050	4.0047	0.9108	24.96	0.13	0.050			
0.1579	10105.66	4.0040	4.0038	0.9114	24.96	0.13	0.050			
0.1588	10164.34	4.0030	4.0030	0.9107	24.97	0.14	0.050			
0.1597	10222.18	4.0020	4.0021	0.9110	24.96	0.13	0.050			
0.1606	10280.81	4.0010	4.0012	0.9110	24.96	0.13	0.050			
0.1616	10339.45	4.0000	4.0002	0.9114	24.97	0.14	0.050			
0.1625	10398.13	3.9990	3.9987	0.9106	24.97	0.14	0.050			
0.1634	10456.84	3.9980	3.9979	0.9133	24.97	0.14	0.050			
0.1643	10515.23	3.9970	3.9969	0.9125	24.98	0.15	0.050			
0.1652	10574.51	3.9960	3.9961	0.9143	24.98	0.15	0.050			
0.1662	10633.79	3.9950	3.9953	0.9151	24.98	0.15	0.050			
0.1671	10691.83	3.9940	3.9940	0.9152	24.99	0.16	0.050			
0.1680	10749.80	3.9930	3.9929	0.9119	24.99	0.16	0.050			
0.1689	10806.67	3.9920	3.9920	0.9154	24.98	0.15	0.050			
0.1698	10865.39	3.9910	3.9910	0.9151	24.99	0.16	0.050			
0.1707	10924.11	3.9900	3.9899	0.9170	24.99	0.16	0.050			
0.1716	10982.98	3.9890	3.9889	0.9198	24.99	0.16	0.050			
0.1725	11040.52	3.9880	3.9880	0.9218	25.00	0.17	0.050			
0.1734	11098.97	3.9870	3.9869	0.9227	25.00	0.17	0.050			
0.1743	11158.35	3.9860	3.9858	0.9251	25.00	0.17	0.050			
0.1753	11217.55	3.9850	3.9849	0.9278	25.00	0.17	0.050			
0.1762	11277.75	3.9840	3.9837	0.9312	25.00	0.17	0.050			
0.1772	11338.46	3.9830	3.9829	0.9327	25.00	0.17	0.050			
0.1781	11398.60	3.9820	3.9820	0.9326	25.01	0.18	0.050			
0.1790	11459.04	3.9810	3.9808	0.9347	25.01	0.18	0.050			
0.1800	11518.07	3.9800	3.9798	0.9381	25.02	0.19	0.050			
0.1809	11578.55	3.9790	3.9791	0.9398	25.02	0.19	0.050			
0.1819	11639.09	3.9780	3.9781	0.9384	25.02	0.19	0.050			
0.1828	11699.42	3.9770	3.9770	0.9368	25.02	0.19	0.050			
0.1837	11759.97	3.9760	3.9760	0.9383	25.02	0.19	0.050			
0.1847	11820.75	3.9750	3.9750	0.9363	25.02	0.19	0.050			
0.1856	11879.46	3.9740	3.9740	0.9385	25.03	0.20	0.050			
0.1865	11938.38	3.9730	3.9730	0.9392	25.03	0.20	0.050			
0.1875	11998.11	3.9720	3.9720	0.9396	25.03	0.20	0.050			
0.1884	12058.70	3.9710	3.9710	0.9414	25.02	0.19	0.050			
0.1894	12119.17	3.9700	3.9701	0.9420	25.03	0.20	0.050			
0.1903	12179.61	3.9690	3.9691	0.9417	25.02	0.19	0.050			
0.1912	12239.26	3.9680	3.9680	0.9427	25.02	0.19	0.050			
0.1922	12299.79	3.9670	3.9669	0.9418	25.02	0.19	0.050			
0.1931	12360.61	3.9660	3.9661	0.9457	25.01	0.18	0.050			
0.1941	12421.88	3.9650	3.9648	0.9487	25.01	0.18	0.050			
0.1950	12482.34	3.9640	3.9641	0.9494	25.02	0.19	0.050			
0.1960	12543.25	3.9630	3.9630	0.9487	25.01	0.18	0.050			
0.1969	12603.97	3.9620	3.9620	0.9500	25.00	0.17	0.050			
0.1979	12664.60	3.9610	3.9612	0.9518	24.99	0.16	0.050			
0.1988	12725.05	3.9600	3.9600	0.9509	24.98	0.15	0.050			
0.1998	12787.36	3.9590	3.9588	0.9535	24.97	0.14	0.050			
0.2008	12848.97	3.9580	3.9581	0.9539	24.96	0.13	0.050			
0.2017	12910.02	3.9570	3.9570	0.9551	24.95	0.12	0.050			
0.2027	12969.97	3.9560	3.9562	0.9547	24.94	0.11	0.050			
0.2036	13030.75	3.9550	3.9548	0.9548	24.93	0.10	0.050			
0.2046	13091.61	3.9540	3.9542	0.9515	24.92	0.09	0.050			
0.2055	13152.59	3.9530	3.9533	0.9546	24.93	0.10	0.050			
0.2065	13214.60	3.9520	3.9520	0.9541	24.93	0.10	0.050			
0.2074	13276.46	3.9510	3.9514	0.9542	24.92	0.09	0.050			
0.2084	13337.36	3.9500	3.9500	0.9557	24.93	0.10	0.050			
0.2093	13398.20	3.9490	3.9489	0.9561	24.93	0.10	0.050			
0.2103	13459.27	3.9480	3.9480	0.9543	24.94	0.11	0.050			
0.2113	13520.53	3.9470	3.9471	0.9553	24.95	0.12	0.050			
0.2122	13581.12	3.9460	3.9461	0.9531	24.96	0.13	0.050			
0.2132	13642.25	3.9450	3.9451	0.9571	24.95	0.12	0.050			
0.2141	13702.87	3.9440	3.9437	0.9582	24.96	0.13	0.050			
0.2151	13764.62	3.9430	3.9433	0.9580	24.96	0.13	0.050			
0.2160	13826.02	3.9420	3.9418	0.9577	24.96	0.13	0.050			
0.2170	13887.43	3.9410	3.9408	0.9565	24.95	0.12	0.050			
0.2180	13948.87	3.9400	3.9400	0.9583	24.95	0.12	0.050			
0.2189	14010.27	3.9390	3.9390	0.9593	24.95	0.12	0.050			
0.2199	14071.33	3.9380	3.9380	0.9594	24.92	0.09	0.050			
0.2208	14132.13	3.9370	3.9369	0.9598	24.91	0.08	0.050			
0.2218	14194.21	3.9360	3.9361	0.9593	24.90	0.07	0.050			
0.2227	14255.40	3.9350	3.9350	0.9616	24.88	0.05	0.050			
0.2237	14317.33	3.9340	3.9338	0.9638	24.87	0.04	0.050			
0.2247	14379.35	3.9330	3.9328	0.9619	24.86	0.03	0.050			
0.2256	14441.31	3.9320	3.9320	0.9615	24.84	0.01	0.050			
0.2266	14503.16	3.9310	3.9307	0.9614	24.83	-0.00	0.050			
0.2276	14563.80	3.9300	3.9300	0.9614	24.82	-0.01	0.050			
0.2285	14625.51	3.9290	3.9291	0.9611	24.80	-0.03	0.050			
0.2295	14687.41	3.9280	3.9279	0.9629	24.79	-0.04	0.050			
0.2305	14749.08	3.9270	3.9271	0.9634	24.78	-0.05	0.050			
0.2314	14810.75	3.9260	3.9258	0.9607	24.79	-0.04	0.050			
0.2324	14871.86	3.9250	3.9252	0.9591	24.78	-0.05	0.050			
0.2333	14933.73	3.9240	3.9240	0.9606	24.78	-0.05	0.050			
0.2343	14995.32	3.9230	3.9227	0.9602	24.78	-0.05	0.050			
0.2353	15056.51	3.9220	3.9220	0.9632	24.79	-0.04	0.050			
0.2362	15116.75	3.9210	3.9213	0.9653	24.80	-0.03	0.050			
0.2372	15178.58	3.9200	3.9200	0.9648	24.81	-0.02	0.050			
0.2381	15240.06	3.9190	3.9191	0.9666	24.82	-0.01	0.050			
0.2391	15303.34	3.9180	3.9182	0.9655	24.84	0.01	0.050			
0.2401	15364.45	3.9170	3.9172	0.9675	24.85	0.02	0.050			
0.2410	15426.62	3.9160	3.9159	0.9701	24.86	0.03	0.050			
0.2420	15489.21	3.9150	3.9149	0.9674	24.87	0.04	0.050			
0.2430	15551.18	3.9140	3.9140	0.9689	24.89	0.06	0.050			
0.2440	15614.58	3.9130	3.9128	0.9697	24.89	0.06	0.050			
0.2449	15676.12	3.9120	3.9122	0.9688	24.91	0.08	0.050	0.157	0.409	
0.2459	15737.08	3.9110	3.9112	0.9729	24.92	0.09	0.050			
0.2469	15799.81	3.9100	3.9102	0.9717	24.93	0.10	0.050			
0.2478	15862.39	3.9090	3.9090	0.9719	24.93	0.10	0.050			
0.2488	15925.54	3.9080	3.9077	0.9708	24.94	0.11	0.050			
0.2498	15988.09	3.9070	3.9071	0.9712	24.94	0.11	0.050			
0.2508	16049.69	3.9060	3.9061	0.9721	24.96	0.13	0.050			
0.2517	16111.70	3.9050	3.9048	0.9709	24.96	0.13	0.050			
0.2527	16172.89	3.9040	3.9041	0.9712	24.97	0.14	0.050			
0.2537	16234.37	3.9030	3.9026	0.9736	24.96	0.13	0.050			
0.2546	16295.61	3.9020	3.9021	0.9728	24.96	0.13	0.050			
0.2556	16358.31	3.9010	3.9013	0.9730	24.97	0.14	0.050			
0.2566	16420.82	3.9000	3.8999	0.9771	24.97	0.14	0.050			
0.2576	16483.62	3.8990	3.8990	0.9790	24.97	0.14	0.050			
0.2585	16547.06	3.8980	3.8978	0.9805	24.97	0.14	0.050			
0.2595	16610.29	3.8970	3.8968	0.9764	24.97	0.14	0.050			
0.2605	16672.57	3.8960	3.8960	0.9782	24.97	0.14	0.050			
0.2615	16736.73	3.8950	3.8949	0.9798	24.97	0.14	0.050			
0.2625	16798.96	3.8940	3.8940	0.9808	24.97	0.14	0.050			
0.2635	16861.63	3.8930	3.8931	0.9804	24.96	0.13	0.050			
0.2644	16924.27	3.8920	3.8919	0.9774	24.96	0.13	0.050			
0.2654	16986.84	3.8910	3.8911	0.9762	24.96	0.13	0.050	0.364	0.498	
0.2664	17050.06	3.8900	3.8903	0.9783	24.95	0.12	0.050			
0.2674	17113.71	3.8890	3.8891	0.9781	24.95	0.12	0.050			
0.2684	17175.73	3.8880	3.8880	0.9795	24.94	0.11	0.050			
0.2693	17238.11	3.8870	3.8869	0.9764	24.93	0.10	0.050			
0.2703	17300.53	3.8860	3.8859	0.9724	24.92	0.09	0.050			
0.2713	17362.86	3.8850	3.8850	0.9710	24.92	0.09	0.050			
0.2723	17424.44	3.8840	3.8843	0.9697	24.92	0.09	0.050			
0.2732	17486.92	3.8830	3.8831	0.9666	24.92	0.09	0.050			
0.2742	17549.79	3.8820	3.8820	0.9633	24.92	0.09	0.050			
0.2752	17611.89	3.8810	3.8809	0.9620	24.93	0.10	0.050			
0.2761	17672.99	3.8800	3.8802	0.9566	24.93	0.10	0.050			
0.2771	17734.87	3.8790	3.8789	0.9550	24.94	0.11	0.050			
0.2781	17796.07	3.8780	3.8783	0.9544	24.94	0.11	0.050			
0.2790	17856.99	3.8770	3.8770	0.9520	24.94	0.11	0.050			
0.2799	17916.42	3.8760	3.8758	0.9467	24.95	0.12	0.050			
0.2809	17976.88	3.8750	3.8751	0.9453	24.95	0.12	0.050			
0.2818	18036.63	3.8740	3.8740	0.9434	24.97	0.14	0.050			
0.2828	18096.74	3.8730	3.8730	0.9468	24.98	0.15	0.050			
0.2837	18157.00	3.8720	3.8719	0.9453	24.98	0.15	0.050			
0.2846	18217.45	3.8710	3.8710	0.9433	24.98	0.15	0.050			
0.2856	18277.07	3.8700	3.8698	0.9411	24.99	0.16	0.050	0.137	0.421	
0.2865	18337.17	3.8690	3.8689	0.9420	24.99	0.16	0.050			
0.2875	18397.46	3.8680	3.8682	0.9398	24.99	0.16	0.050			
0.2884	18458.72	3.8670	3.8670	0.9390	24.99	0.16	0.050			
0.2894	18519.25	3.8660	3.8659	0.9403	25.00	0.17	0.050			
0.2903	18579.69	3.8650	3.8649	0.9391	25.00	0.17	0.050			
0.2913	18640.18	3.8640	3.8640	0.9374	25.01	0.18	0.050			
0.2922	18700.46	3.8630	3.8632	0.9353	25.01	0.18	0.050			
0.2931	18761.05	3.8620	3.8621	0.9365	25.01	0.18	0.050			
0.2941	18820.88	3.8610	3.8608	0.9328	25.02	0.19	0.050			
0.2950	18880.94	3.8600	3.8600	0.9294	25.02	0.19	0.050			
0.2959	18939.74	3.8590	3.8591	0.9263	25.02	0.19	0.050			
0.2969	18998.65	3.8580	3.8580	0.9227	25.03	0.20	0.050			
0.2978	19058.45	3.8570	3.8568	0.9196	25.03	0.20	0.050			
0.2987	19116.96	3.8560	3.8560	0.9153	25.03	0.20	0.050			
0.2996	19175.20	3.8550	3.8549	0.9131	25.03	0.20	0.050			
0.3005	19232.68	3.8540	3.8541	0.9099	25.04	0.21	0.050			
0.3014	19290.26	3.8530	3.8530	0.9078	25.04	0.21	0.050			
0.3023	19348.56	3.8520	3.8520	0.9065	25.03	0.20	0.050			
