Ah_balance (normalized)	Ah_balance (mAh)	Voltage - fit (V)	Voltage -  interpolate (V)	dQ/dV (1/V)	Temperature (°C)	Temperature - diff (°C)	Current (C)	R_DC 0ms (mOhm)	R_DC 50ms (mOhm)	R_DC 50 ms PEC (mOhm)
-0.0103	-661.59	4.1990	4.1991	0.7431	24.76	0.03	0.050			
-0.0096	-613.76	4.1980	4.1980	0.7918	24.75	0.02	0.050			
-0.0088	-562.72	4.1970	4.1967	0.8004	24.76	0.03	0.050			
-0.0080	-510.34	4.1960	4.1960	0.8116	24.76	0.03	0.050			
-0.0072	-459.03	4.1950	4.1951	0.8094	24.75	0.02	0.050			
-0.0064	-407.21	4.1940	4.1939	0.8106	24.76	0.03	0.050			
-0.0055	-354.34	4.1930	4.1932	0.8122	24.75	0.02	0.050			
-0.0047	-302.46	4.1920	4.1917	0.8120	24.76	0.03	0.050			
-0.0039	-249.66	4.1910	4.1908	0.8103	24.76	0.03	0.050			
-0.0031	-197.53	4.1900	4.1902	0.8079	24.77	0.04	0.050			
-0.0023	-145.75	4.1890	4.1891	0.8053	24.78	0.05	0.050			
-0.0015	-93.69	4.1880	4.1879	0.8022	24.79	0.06	0.050			
-0.0007	-42.02	4.1870	4.1871	0.8035	24.80	0.07	0.050			
0.0001	8.40	4.1860	4.1862	0.8040	24.80	0.07	0.050	0.044	0.542	
0.0009	58.96	4.1850	4.1850	0.8058	24.81	0.08	0.050			
0.0017	109.71	4.1840	4.1841	0.8067	24.81	0.08	0.050			
0.0025	161.03	4.1830	4.1831	0.8041	24.82	0.09	0.050			
0.0033	212.43	4.1820	4.1821	0.8066	24.81	0.08	0.050			
0.0041	263.67	4.1810	4.1809	0.8078	24.83	0.10	0.050			
0.0049	314.47	4.1800	4.1798	0.8020	24.83	0.10	0.050			
0.0057	365.90	4.1790	4.1789	0.8050	24.84	0.11	0.050			
0.0065	417.78	4.1780	4.1776	0.8059	24.85	0.12	0.050	0.084	0.478	
0.0073	470.28	4.1770	4.1770	0.8083	24.85	0.12	0.050			
0.0082	523.04	4.1760	4.1761	0.8071	24.86	0.13	0.050			
0.0090	575.17	4.1750	4.1754	0.8078	24.87	0.14	0.050			
0.0098	625.66	4.1740	4.1743	0.8096	24.88	0.15	0.050			
0.0106	678.71	4.1730	4.1728	0.8133	24.90	0.17	0.050			
0.0114	731.04	4.1720	4.1723	0.8158	24.91	0.18	0.050			
0.0122	783.05	4.1710	4.1712	0.8164	24.92	0.19	0.050			
0.0131	836.14	4.1700	4.1700	0.8171	24.94	0.21	0.050			
0.0139	888.74	4.1690	4.1686	0.8130	24.95	0.22	0.050			
0.0147	940.10	4.1680	4.1679	0.8128	24.97	0.24	0.050			
0.0155	991.76	4.1670	4.1670	0.8116	24.98	0.25	0.050			
0.0163	1042.39	4.1660	4.1658	0.8098	25.00	0.27	0.050			
0.0171	1094.19	4.1650	4.1648	0.8095	25.02	0.29	0.050			
0.0179	1145.95	4.1640	4.1644	0.8113	25.04	0.31	0.050			
0.0187	1198.60	4.1630	4.1631	0.8142	25.05	0.32	0.050			
0.0195	1250.80	4.1620	4.1619	0.8147	25.06	0.33	0.050			
0.0204	1302.70	4.1610	4.1612	0.8137	25.07	0.34	0.050			
0.0212	1356.22	4.1600	4.1601	0.8161	25.08	0.35	0.050			
0.0220	1408.83	4.1590	4.1586	0.8137	25.09	0.36	0.050			
0.0228	1460.60	4.1580	4.1580	0.8145	25.10	0.37	0.050			
0.0236	1513.02	4.1570	4.1569	0.8140	25.11	0.38	0.050			
0.0245	1565.35	4.1560	4.1560	0.8136	25.12	0.39	0.050			
0.0253	1617.52	4.1550	4.1548	0.8113	25.13	0.40	0.050			
0.0261	1667.96	4.1540	4.1539	0.8078	25.14	0.41	0.050	-0.205	0.256	
0.0269	1720.55	4.1530	4.1528	0.8097	25.15	0.42	0.050			
0.0277	1772.31	4.1520	4.1520	0.8098	25.15	0.42	0.050			
0.0285	1823.82	4.1510	4.1510	0.8098	25.14	0.41	0.050			
0.0293	1875.92	4.1500	4.1498	0.8108	25.15	0.42	0.050			
0.0301	1926.91	4.1490	4.1489	0.8171	25.16	0.43	0.050			
0.0309	1977.87	4.1480	4.1481	0.8174	25.17	0.44	0.050			
0.0317	2030.28	4.1470	4.1473	0.8185	25.18	0.45	0.050			
0.0325	2082.72	4.1460	4.1458	0.8183	25.18	0.45	0.050			
0.0334	2135.27	4.1450	4.1450	0.8205	25.18	0.45	0.050			
0.0342	2188.04	4.1440	4.1441	0.8195	25.20	0.47	0.050			
0.0350	2240.71	4.1430	4.1431	0.8216	25.19	0.46	0.050			
0.0358	2294.18	4.1420	4.1417	0.8252	25.20	0.47	0.050			
0.0367	2346.09	4.1410	4.1409	0.8291	25.21	0.48	0.050			
0.0375	2400.48	4.1400	4.1400	0.8318	25.22	0.49	0.050			
0.0383	2453.96	4.1390	4.1390	0.8334	25.22	0.49	0.050			
0.0392	2507.62	4.1380	4.1382	0.8323	25.22	0.49	0.050			
0.0400	2562.19	4.1370	4.1370	0.8333	25.22	0.49	0.050			
0.0409	2615.81	4.1360	4.1360	0.8311	25.23	0.50	0.050			
0.0417	2670.06	4.1350	4.1350	0.8316	25.24	0.51	0.050			
0.0425	2722.36	4.1340	4.1339	0.8310	25.24	0.51	0.050			
0.0434	2775.29	4.1330	4.1329	0.8321	25.24	0.51	0.050			
0.0442	2828.48	4.1320	4.1320	0.8317	25.24	0.51	0.050			
0.0450	2880.57	4.1310	4.1315	0.8322	25.25	0.52	0.050			
0.0458	2933.62	4.1300	4.1301	0.8315	25.25	0.52	0.050			
0.0467	2986.62	4.1290	4.1288	0.8277	25.25	0.52	0.050	0.256	0.599	
0.0475	3040.73	4.1280	4.1281	0.8290	25.25	0.52	0.050			
0.0483	3093.62	4.1270	4.1267	0.8323	25.26	0.53	0.050			
0.0492	3146.77	4.1260	4.1259	0.8338	25.25	0.52	0.050			
0.0500	3199.99	4.1250	4.1248	0.8345	25.26	0.53	0.050			
0.0508	3252.83	4.1240	4.1242	0.8338	25.25	0.52	0.050			
0.0517	3306.67	4.1230	4.1228	0.8326	25.26	0.53	0.050			
0.0525	3359.09	4.1220	4.1220	0.8329	25.26	0.53	0.050			
0.0533	3412.20	4.1210	4.1214	0.8318	25.25	0.52	0.050			
0.0542	3466.58	4.1200	4.1201	0.8366	25.24	0.51	0.050			
0.0550	3520.28	4.1190	4.1189	0.8384	25.24	0.51	0.050			
0.0558	3573.92	4.1180	4.1178	0.8379	25.23	0.50	0.050			
0.0567	3627.89	4.1170	4.1170	0.8424	25.22	0.49	0.050			
0.0575	3682.11	4.1160	4.1162	0.8408	25.20	0.47	0.050			
0.0584	3734.46	4.1150	4.1153	0.8422	25.19	0.46	0.050			
0.0592	3788.12	4.1140	4.1139	0.8423	25.17	0.44	0.050			
0.0600	3841.74	4.1130	4.1129	0.8448	25.16	0.43	0.050			
0.0609	3896.05	4.1120	4.1120	0.8455	25.13	0.40	0.050			
0.0617	3951.27	4.1110	4.1109	0.8440	25.12	0.39	0.050			
0.0626	4006.01	4.1100	4.1099	0.8483	25.10	0.37	0.050			
0.0635	4060.82	4.1090	4.1090	0.8488	25.09	0.36	0.050			
0.0643	4115.46	4.1080	4.1077	0.8488	25.06	0.33	0.050			
0.0651	4169.15	4.1070	4.1070	0.8444	25.04	0.31	0.050			
0.0660	4223.17	4.1060	4.1058	0.8436	25.02	0.29	0.050			
0.0669	4278.57	4.1050	4.1051	0.8440	25.01	0.28	0.050			
0.0677	4332.29	4.1040	4.1040	0.8428	24.98	0.25	0.050			
0.0685	4387.09	4.1030	4.1029	0.8434	24.96	0.23	0.050			
0.0694	4440.07	4.1020	4.1021	0.8436	24.94	0.21	0.050			
0.0702	4493.79	4.1010	4.1008	0.8434	24.92	0.19	0.050			
0.0711	4547.44	4.1000	4.1002	0.8408	24.90	0.17	0.050			
0.0719	4600.81	4.0990	4.0991	0.8411	24.88	0.15	0.050			
0.0727	4654.44	4.0980	4.0980	0.8410	24.86	0.13	0.050			
0.0736	4707.29	4.0970	4.0970	0.8421	24.84	0.11	0.050			
0.0744	4761.62	4.0960	4.0960	0.8400	24.81	0.08	0.050			
0.0752	4815.85	4.0950	4.0950	0.8374	24.80	0.07	0.050			
0.0761	4870.10	4.0940	4.0939	0.8386	24.77	0.04	0.050			
0.0769	4923.79	4.0930	4.0930	0.8378	24.75	0.02	0.050			
0.0778	4977.84	4.0920	4.0920	0.8366	24.73	-0.00	0.050			
0.0786	5031.79	4.0910	4.0913	0.8376	24.71	-0.02	0.050			
0.0794	5084.41	4.0900	4.0899	0.8363	24.70	-0.03	0.050			
0.0803	5138.59	4.0890	4.0892	0.8380	24.69	-0.04	0.050			
0.0811	5192.77	4.0880	4.0880	0.8360	24.69	-0.04	0.050			
0.0820	5246.45	4.0870	4.0872	0.8371	24.67	-0.06	0.050			
0.0828	5300.37	4.0860	4.0863	0.8342	24.68	-0.05	0.050			
0.0836	5353.52	4.0850	4.0848	0.8322	24.68	-0.05	0.050			
0.0845	5406.74	4.0840	4.0839	0.8296	24.69	-0.04	0.050			
0.0853	5458.45	4.0830	4.0829	0.8291	24.69	-0.04	0.050			
0.0861	5510.91	4.0820	4.0824	0.8281	24.70	-0.03	0.050	0.298	0.382	
0.0869	5563.05	4.0810	4.0810	0.8299	24.73	0.00	0.050			
0.0878	5616.57	4.0800	4.0801	0.8308	24.74	0.01	0.050			
0.0886	5669.13	4.0790	4.0792	0.8309	24.76	0.03	0.050			
0.0894	5722.29	4.0780	4.0778	0.8340	24.78	0.05	0.050			
0.0902	5775.31	4.0770	4.0771	0.8348	24.79	0.06	0.050			
0.0911	5830.18	4.0760	4.0760	0.8376	24.81	0.08	0.050			
0.0919	5884.31	4.0750	4.0750	0.8401	24.83	0.10	0.050			
0.0928	5937.53	4.0740	4.0738	0.8408	24.84	0.11	0.050			
0.0936	5990.52	4.0730	4.0730	0.8419	24.86	0.13	0.050			
0.0945	6045.13	4.0720	4.0719	0.8418	24.88	0.15	0.050			
0.0953	6099.69	4.0710	4.0711	0.8408	24.90	0.17	0.050			
0.0961	6152.95	4.0700	4.0700	0.8427	24.91	0.18	0.050			
0.0970	6207.47	4.0690	4.0691	0.8439	24.93	0.20	0.050			
0.0978	6260.76	4.0680	4.0682	0.8501	24.95	0.22	0.050			
0.0987	6315.74	4.0670	4.0669	0.8505	24.97	0.24	0.050			
0.0995	6370.89	4.0660	4.0661	0.8508	24.98	0.25	0.050			
0.1004	6425.49	4.0650	4.0649	0.8534	24.99	0.26	0.050			
0.1012	6479.87	4.0640	4.0640	0.8524	25.00	0.27	0.050			
0.1021	6534.17	4.0630	4.0632	0.8511	25.00	0.27	0.050			
0.1030	6589.08	4.0620	4.0621	0.8491	25.01	0.28	0.050			
0.1038	6643.84	4.0610	4.0606	0.8498	25.01	0.28	0.050			
0.1047	6698.12	4.0600	4.0599	0.8512	25.01	0.28	0.050			
0.1055	6752.89	4.0590	4.0590	0.8525	25.00	0.27	0.050			
0.1064	6806.79	4.0580	4.0581	0.8533	25.00	0.27	0.050	0.059	0.377	
0.1072	6861.32	4.0570	4.0574	0.8556	25.00	0.27	0.050			
0.1081	6915.78	4.0560	4.0559	0.8582	25.00	0.27	0.050			
0.1089	6970.87	4.0550	4.0554	0.8603	25.00	0.27	0.050			
0.1098	7026.02	4.0540	4.0540	0.8579	25.00	0.27	0.050			
0.1106	7081.59	4.0530	4.0529	0.8577	25.00	0.27	0.050			
0.1115	7137.24	4.0520	4.0519	0.8573	25.00	0.27	0.050			
0.1124	7192.38	4.0510	4.0507	0.8584	25.00	0.27	0.050			
0.1132	7246.12	4.0500	4.0502	0.8546	25.00	0.27	0.050			
0.1141	7300.15	4.0490	4.0489	0.8556	25.00	0.27	0.050			
0.1149	7354.49	4.0480	4.0484	0.8552	25.00	0.27	0.050			
0.1158	7409.22	4.0470	4.0472	0.8618	25.00	0.27	0.050			
0.1166	7465.34	4.0460	4.0460	0.8645	24.99	0.26	0.050			
0.1175	7520.88	4.0450	4.0452	0.8617	24.99	0.26	0.050			
0.1184	7576.11	4.0440	4.0439	0.8655	24.99	0.26	0.050			
0.1192	7631.31	4.0430	4.0430	0.8678	24.99	0.26	0.050			
0.1201	7686.77	4.0420	4.0419	0.8682	24.99	0.26	0.050			
0.1210	7743.65	4.0410	4.0410	0.8669	24.99	0.26	0.050			
0.1219	7798.73	4.0400	4.0400	0.8631	24.99	0.26	0.050			
0.1227	7853.90	4.0390	4.0389	0.8623	24.99	0.26	0.050			
0.1236	7909.01	4.0380	4.0378	0.8635	24.98	0.25	0.050			
0.1244	7964.40	4.0370	4.0372	0.8624	24.98	0.25	0.050			
0.1253	8020.11	4.0360	4.0362	0.8617	24.97	0.24	0.050			
0.1262	8075.42	4.0350	4.0348	0.8614	24.98	0.25	0.050	0.138	0.580	
0.1271	8132.23	4.0340	4.0341	0.8633	24.97	0.24	0.050			
0.1279	8186.58	4.0330	4.0330	0.8630	24.97	0.24	0.050			
0.1288	8241.42	4.0320	4.0321	0.8640	24.96	0.23	0.050			
0.1296	8295.14	4.0310	4.0308	0.8630	24.96	0.23	0.050			
0.1305	8349.92	4.0300	4.0299	0.8632	24.95	0.22	0.050			
0.1313	8404.10	4.0290	4.0290	0.8632	24.95	0.22	0.050			
0.1322	8458.75	4.0280	4.0282	0.8651	24.94	0.21	0.050			
0.1330	8514.28	4.0270	4.0270	0.8640	24.94	0.21	0.050			
0.1339	8569.73	4.0260	4.0261	0.8681	24.93	0.20	0.050			
0.1348	8626.11	4.0250	4.0249	0.8714	24.93	0.20	0.050			
0.1356	8681.15	4.0240	4.0238	0.8711	24.92	0.19	0.050			
0.1365	8737.44	4.0230	4.0229	0.8746	24.92	0.19	0.050			
0.1374	8794.14	4.0220	4.0224	0.8767	24.92	0.19	0.050			
0.1383	8851.57	4.0210	4.0211	0.8785	24.92	0.19	0.050			
0.1392	8908.26	4.0200	4.0201	0.8790	24.92	0.19	0.050			
0.1401	8964.21	4.0190	4.0192	0.8792	24.92	0.19	0.050			
0.1409	9020.66	4.0180	4.0178	0.8809	24.92	0.19	0.050			
0.1418	9077.04	4.0170	4.0169	0.8826	24.92	0.19	0.050			
0.1427	9134.18	4.0160	4.0160	0.8838	24.91	0.18	0.050			
0.1436	9190.92	4.0150	4.0149	0.8837	24.92	0.19	0.050			
0.1445	9247.51	4.0140	4.0138	0.8816	24.92	0.19	0.050			
0.1454	9303.22	4.0130	4.0133	0.8803	24.92	0.19	0.050			
0.1462	9359.38	4.0120	4.0119	0.8782	24.92	0.19	0.050	0.108	0.527	
0.1471	9415.86	4.0110	4.0109	0.8799	24.93	0.20	0.050			
0.1480	9472.12	4.0100	4.0100	0.8794	24.92	0.19	0.050			
0.1489	9528.64	4.0090	4.0092	0.8795	24.93	0.20	0.050			
0.1498	9584.90	4.0080	4.0080	0.8800	24.92	0.19	0.050			
0.1506	9641.17	4.0070	4.0072	0.8798	24.92	0.19	0.050			
0.1515	9697.47	4.0060	4.0060	0.8781	24.93	0.20	0.050			
0.1524	9754.03	4.0050	4.0049	0.8781	24.93	0.20	0.050			
0.1533	9810.53	4.0040	4.0040	0.8772	24.94	0.21	0.050			
0.1542	9866.20	4.0030	4.0028	0.8776	24.95	0.22	0.050			
0.1550	9923.02	4.0020	4.0018	0.8779	24.95	0.22	0.050			
0.1559	9978.63	4.0010	4.0011	0.8793	24.96	0.23	0.050			
0.1568	10033.99	4.0000	3.9999	0.8790	24.97	0.24	0.050			
0.1576	10089.52	3.9990	3.9988	0.8791	24.98	0.25	0.050			
0.1585	10145.55	3.9980	3.9981	0.8818	24.99	0.26	0.050			
0.1594	10201.69	3.9970	3.9971	0.8837	25.00	0.27	0.050			
0.1603	10258.62	3.9960	3.9959	0.8862	25.00	0.27	0.050			
0.1612	10315.44	3.9950	3.9950	0.8875	25.01	0.28	0.050			
0.1621	10372.66	3.9940	3.9938	0.8888	25.03	0.30	0.050			
0.1630	10429.81	3.9930	3.9930	0.8902	25.03	0.30	0.050			
0.1638	10486.00	3.9920	3.9918	0.8932	25.03	0.30	0.050			
0.1647	10543.35	3.9910	3.9908	0.8947	25.04	0.31	0.050			
0.1656	10600.58	3.9900	3.9901	0.8989	25.05	0.32	0.050			
0.1665	10658.03	3.9890	3.9891	0.9023	25.05	0.32	0.050			
0.1674	10716.04	3.9880	3.9878	0.9046	25.05	0.32	0.050			
0.1684	10774.41	3.9870	3.9871	0.9062	25.04	0.31	0.050			
0.1693	10833.82	3.9860	3.9859	0.9067	25.05	0.32	0.050			
0.1702	10892.25	3.9850	3.9850	0.9044	25.04	0.31	0.050			
0.1711	10950.80	3.9840	3.9838	0.9040	25.03	0.30	0.050			
0.1720	11008.88	3.9830	3.9829	0.9020	25.02	0.29	0.050			
0.1729	11066.78	3.9820	3.9819	0.8994	25.01	0.28	0.050			
0.1738	11123.85	3.9810	3.9809	0.8999	25.00	0.27	0.050			
0.1747	11181.86	3.9800	3.9802	0.8978	24.98	0.25	0.050			
0.1756	11239.02	3.9790	3.9791	0.8987	24.96	0.23	0.050			
0.1765	11296.32	3.9780	3.9780	0.8999	24.95	0.22	0.050			
0.1774	11353.15	3.9770	3.9772	0.9024	24.93	0.20	0.050			
0.1783	11410.82	3.9760	3.9760	0.9034	24.91	0.18	0.050			
0.1792	11468.79	3.9750	3.9749	0.9037	24.90	0.17	0.050			
0.1801	11526.86	3.9740	3.9739	0.9009	24.88	0.15	0.050			
0.1810	11584.27	3.9730	3.9727	0.9005	24.86	0.13	0.050			
0.1819	11640.55	3.9720	3.9718	0.9006	24.86	0.13	0.050			
0.1828	11697.96	3.9710	3.9710	0.9025	24.84	0.11	0.050			
0.1837	11755.71	3.9700	3.9698	0.9036	24.84	0.11	0.050			
0.1846	11813.68	3.9690	3.9690	0.9051	24.84	0.11	0.050			
0.1855	11873.01	3.9680	3.9682	0.9078	24.84	0.11	0.050			
0.1864	11930.85	3.9670	3.9672	0.9097	24.85	0.12	0.050			
0.1873	11990.12	3.9660	3.9660	0.9133	24.85	0.12	0.050			
0.1883	12049.00	3.9650	3.9651	0.9141	24.85	0.12	0.050			
0.1892	12107.33	3.9640	3.9637	0.9136	24.86	0.13	0.050			
0.1901	12165.77	3.9630	3.9629	0.9154	24.87	0.14	0.050			
0.1910	12224.49	3.9620	3.9621	0.9163	24.87	0.14	0.050			
0.1919	12283.13	3.9610	3.9611	0.9125	24.88	0.15	0.050			
0.1928	12341.43	3.9600	3.9602	0.9126	24.88	0.15	0.050			
0.1937	12399.03	3.9590	3.9589	0.9128	24.89	0.16	0.050			
0.1947	12457.72	3.9580	3.9580	0.9107	24.89	0.16	0.050			
0.1956	12515.87	3.9570	3.9570	0.9112	24.91	0.18	0.050			
0.1965	12576.04	3.9560	3.9562	0.9150	24.92	0.19	0.050			
0.1974	12633.45	3.9550	3.9550	0.9182	24.93	0.20	0.050			
0.1983	12692.69	3.9540	3.9541	0.9209	24.93	0.20	0.050			
0.1992	12750.94	3.9530	3.9531	0.9217	24.93	0.20	0.050			
0.2001	12809.18	3.9520	3.9522	0.9189	24.92	0.19	0.050			
0.2011	12868.74	3.9510	3.9507	0.9198	24.92	0.19	0.050			
0.2020	12927.85	3.9500	3.9500	0.9201	24.92	0.19	0.050			
0.2029	12987.49	3.9490	3.9491	0.9189	24.91	0.18	0.050			
0.2038	13045.67	3.9480	3.9478	0.9205	24.91	0.18	0.050			
0.2048	13104.50	3.9470	3.9468	0.9210	24.90	0.17	0.050			
0.2057	13163.29	3.9460	3.9459	0.9209	24.90	0.17	0.050			
0.2066	13223.02	3.9450	3.9450	0.9234	24.90	0.17	0.050	0.025	0.489	
0.2075	13282.37	3.9440	3.9440	0.9209	24.90	0.17	0.050			
0.2085	13341.70	3.9430	3.9429	0.9192	24.89	0.16	0.050			
0.2094	13401.37	3.9420	3.9419	0.9193	24.90	0.17	0.050			
0.2103	13460.55	3.9410	3.9410	0.9197	24.89	0.16	0.050			
0.2112	13518.35	3.9400	3.9397	0.9226	24.89	0.16	0.050			
0.2121	13576.78	3.9390	3.9388	0.9201	24.89	0.16	0.050			
0.2131	13636.28	3.9380	3.9381	0.9181	24.89	0.16	0.050			
0.2140	13694.49	3.9370	3.9369	0.9173	24.89	0.16	0.050			
0.2149	13752.89	3.9360	3.9361	0.9165	24.88	0.15	0.050			
0.2158	13810.70	3.9350	3.9348	0.9149	24.88	0.15	0.050			
0.2167	13869.34	3.9340	3.9339	0.9147	24.88	0.15	0.050			
0.2176	13929.08	3.9330	3.9331	0.9160	24.88	0.15	0.050			
0.2186	13988.29	3.9320	3.9317	0.9139	24.87	0.14	0.050			
0.2195	14046.93	3.9310	3.9310	0.9150	24.88	0.15	0.050			
0.2204	14105.46	3.9300	3.9299	0.9155	24.86	0.13	0.050			
0.2213	14164.14	3.9290	3.9289	0.9130	24.87	0.14	0.050			
0.2222	14222.18	3.9280	3.9279	0.9090	24.87	0.14	0.050			
0.2231	14279.87	3.9270	3.9271	0.9131	24.87	0.14	0.050			
0.2240	14337.99	3.9260	3.9261	0.9134	24.86	0.13	0.050			
0.2250	14397.08	3.9250	3.9251	0.9136	24.87	0.14	0.050			
0.2259	14455.61	3.9240	3.9241	0.9130	24.88	0.15	0.050			
0.2268	14513.91	3.9230	3.9231	0.9133	24.88	0.15	0.050	0.187	0.491	
0.2277	14572.24	3.9220	3.9219	0.9149	24.88	0.15	0.050			
0.2286	14629.76	3.9210	3.9209	0.9153	24.88	0.15	0.050			
0.2295	14687.74	3.9200	3.9200	0.9139	24.89	0.16	0.050			
0.2304	14746.77	3.9190	3.9190	0.9134	24.91	0.18	0.050			
0.2314	14806.48	3.9180	3.9177	0.9162	24.92	0.19	0.050			
0.2323	14865.52	3.9170	3.9172	0.9154	24.94	0.21	0.050			
0.2332	14923.91	3.9160	3.9161	0.9156	24.95	0.22	0.050			
0.2341	14982.66	3.9150	3.9148	0.9177	24.96	0.23	0.050			
0.2350	15041.82	3.9140	3.9140	0.9178	24.98	0.25	0.050			
0.2360	15101.22	3.9130	3.9133	0.9162	24.99	0.26	0.050			
0.2369	15160.15	3.9120	3.9121	0.9150	25.00	0.27	0.050			
0.2378	15218.19	3.9110	3.9111	0.9119	25.02	0.29	0.050			
0.2387	15276.21	3.9100	3.9101	0.9135	25.02	0.29	0.050			
0.2396	15334.43	3.9090	3.9088	0.9139	25.04	0.31	0.050			
0.2405	15393.37	3.9080	3.9079	0.9118	25.05	0.32	0.050			
0.2414	15450.54	3.9070	3.9071	0.9074	25.06	0.33	0.050			
0.2423	15508.47	3.9060	3.9060	0.9110	25.06	0.33	0.050			
0.2432	15567.31	3.9050	3.9051	0.9123	25.07	0.34	0.050			
0.2441	15625.46	3.9040	3.9041	0.9116	25.07	0.34	0.050			
0.2450	15683.04	3.9030	3.9029	0.9093	25.07	0.34	0.050			
0.2460	15741.72	3.9020	3.9021	0.9121	25.07	0.34	0.050			
0.2469	15800.10	3.9010	3.9008	0.9102	25.07	0.34	0.050	0.066	0.453	
0.2478	15858.80	3.9000	3.9002	0.9115	25.06	0.33	0.050			
0.2487	15917.68	3.8990	3.8991	0.9111	25.06	0.33	0.050			
0.2496	15975.93	3.8980	3.8977	0.9084	25.06	0.33	0.050			
0.2505	16034.32	3.8970	3.8969	0.9080	25.05	0.32	0.050			
0.2515	16092.93	3.8960	3.8962	0.9084	25.06	0.33	0.050			
0.2523	16150.28	3.8950	3.8950	0.9082	25.05	0.32	0.050			
0.2533	16208.53	3.8940	3.8942	0.9087	25.05	0.32	0.050			
0.2542	16266.39	3.8930	3.8930	0.9120	25.03	0.30	0.050			
0.2551	16324.39	3.8920	3.8921	0.9108	25.03	0.30	0.050			
0.2560	16382.32	3.8910	3.8909	0.9101	25.03	0.30	0.050			
0.2569	16439.96	3.8900	3.8901	0.9099	25.02	0.29	0.050			
0.2578	16498.76	3.8890	3.8890	0.9105	25.02	0.29	0.050			
0.2587	16557.28	3.8880	3.8880	0.9109	25.00	0.27	0.050			
0.2596	16615.87	3.8870	3.8870	0.9093	25.00	0.27	0.050			
0.2605	16672.73	3.8860	3.8859	0.9104	24.98	0.25	0.050			
0.2614	16732.24	3.8850	3.8851	0.9094	24.97	0.24	0.050			
0.2624	16791.49	3.8840	3.8839	0.9081	24.96	0.23	0.050			
0.2633	16849.72	3.8830	3.8833	0.9105	24.94	0.21	0.050			
0.2642	16907.88	3.8820	3.8819	0.9092	24.93	0.20	0.050			
0.2651	16966.76	3.8810	3.8811	0.9088	24.92	0.19	0.050			
0.2660	17025.54	3.8800	3.8799	0.9069	24.90	0.17	0.050			
0.2669	17083.19	3.8790	3.8791	0.9074	24.88	0.15	0.050	0.071	0.475	
0.2678	17140.55	3.8780	3.8781	0.9079	24.86	0.13	0.050			
0.2687	17198.64	3.8770	3.8769	0.9046	24.84	0.11	0.050			
0.2696	17256.46	3.8760	3.8763	0.9036	24.81	0.08	0.050			
0.2705	17313.77	3.8750	3.8747	0.8993	24.79	0.06	0.050			
0.2714	17371.99	3.8740	3.8738	0.8968	24.77	0.04	0.050			
0.2723	17429.03	3.8730	3.8732	0.8938	24.75	0.02	0.050			
0.2732	17486.01	3.8720	3.8719	0.8968	24.73	0.00	0.050			
0.2741	17543.06	3.8710	3.8710	0.8979	24.71	-0.02	0.050			
0.2750	17600.84	3.8700	3.8697	0.8955	24.70	-0.03	0.050			
0.2759	17659.17	3.8690	3.8689	0.8928	24.69	-0.04	0.050			
0.2768	17716.56	3.8680	3.8680	0.8895	24.68	-0.05	0.050			
0.2777	17772.56	3.8670	3.8670	0.8904	24.67	-0.06	0.050			
0.2786	17829.49	3.8660	3.8661	0.8864	24.65	-0.08	0.050			
0.2795	17887.28	3.8650	3.8649	0.8843	24.65	-0.08	0.050			
0.2804	17944.60	3.8640	3.8636	0.8804	24.65	-0.08	0.050			
0.2813	18001.03	3.8630	3.8629	0.8732	24.65	-0.08	0.050			
0.2821	18057.25	3.8620	3.8621	0.8706	24.64	-0.09	0.050			
0.2830	18113.05	3.8610	3.8613	0.8665	24.65	-0.08	0.050			
0.2839	18167.84	3.8600	3.8602	0.8642	24.66	-0.07	0.050			
0.2847	18221.85	3.8590	3.8588	0.8601	24.67	-0.06	0.050			
0.2856	18275.71	3.8580	3.8580	0.8617	24.69	-0.04	0.050			
0.2864	18331.24	3.8570	3.8570	0.8607	24.71	-0.02	0.050	-0.230	0.346	
0.2873	18386.39	3.8560	3.8565	0.8603	24.72	-0.01	0.050			
0.2881	18440.78	3.8550	3.8549	0.8583	24.73	0.00	0.050			
0.2890	18495.13	3.8540	3.8538	0.8573	24.75	0.02	0.050			
0.2898	18549.50	3.8530	3.8527	0.8572	24.77	0.04	0.050			
0.2907	18603.22	3.8520	3.8519	0.8527	24.78	0.05	0.050			
