Ah_balance (normalized)	Ah_balance (mAh)	Voltage - fit (V)	Voltage -  interpolate (V)	dQ/dV (1/V)	Temperature (°C)	Temperature - diff (°C)	Current (C)	R_DC 0ms (mOhm)	R_DC 50ms (mOhm)	R_DC 50 ms PEC (mOhm)
0.0003	22.28	4.1120	4.1114	-0.0866	5.98	0.00	-0.750			
0.0007	41.97	4.1090	4.1087	-0.1141	5.98	0.00	-0.750			
0.0010	66.33	4.1060	4.1057	-0.1396	5.98	0.00	-0.750			
0.0015	95.87	4.1030	4.1032	-0.1640	5.98	0.00	-0.750			
0.0020	129.89	4.1000	4.0999	-0.1875	5.98	0.00	-0.750			
0.0026	169.56	4.0970	4.0969	-0.2116	5.98	0.00	-0.750			
0.0033	212.35	4.0940	4.0940	-0.2314	5.98	0.00	-0.750			
0.0040	257.92	4.0910	4.0911	-0.2540	5.98	0.00	-0.750			
0.0048	309.39	4.0880	4.0880	-0.2752	5.98	0.00	-0.750			
0.0057	364.31	4.0850	4.0849	-0.2953	5.98	0.00	-0.750			
0.0066	422.59	4.0820	4.0820	-0.3190	5.98	0.00	-0.750			
0.0076	485.97	4.0790	4.0790	-0.3398	5.98	0.00	-0.750			
0.0086	553.40	4.0760	4.0759	-0.3620	5.98	0.00	-0.750			
0.0098	625.29	4.0730	4.0731	-0.3843	5.98	0.00	-0.750			
0.0109	700.64	4.0700	4.0700	-0.4046	5.98	0.00	-0.750			
0.0122	780.65	4.0670	4.0671	-0.4293	5.98	0.00	-0.750			
0.0135	864.75	4.0640	4.0640	-0.4559	5.98	0.00	-0.750			
0.0149	954.85	4.0610	4.0609	-0.4784	5.98	0.00	-0.750			
0.0164	1049.64	4.0580	4.0580	-0.5052	5.98	0.00	-0.750			
0.0180	1149.73	4.0550	4.0551	-0.5244	5.98	0.00	-0.750			
0.0196	1253.99	4.0520	4.0520	-0.5449	5.98	0.00	-0.750			
0.0213	1360.20	4.0490	4.0490	-0.5639	5.98	0.00	-0.750			
0.0229	1468.63	4.0460	4.0461	-0.5812	5.98	0.00	-0.750			
0.0247	1581.98	4.0430	4.0429	-0.6045	5.99	0.01	-0.750			
0.0266	1701.07	4.0400	4.0399	-0.6203	5.99	0.01	-0.750			
0.0285	1822.66	4.0370	4.0370	-0.6347	5.99	0.01	-0.750			
0.0304	1946.70	4.0340	4.0342	-0.6511	5.99	0.01	-0.750			
0.0324	2074.05	4.0310	4.0309	-0.6640	5.99	0.01	-0.750			
0.0344	2202.68	4.0280	4.0280	-0.6706	6.00	0.02	-0.750			
0.0364	2331.69	4.0250	4.0250	-0.6764	6.00	0.02	-0.750			
0.0385	2462.74	4.0220	4.0221	-0.6878	6.00	0.02	-0.750			
0.0406	2596.33	4.0190	4.0190	-0.6973	6.01	0.03	-0.750			
0.0427	2731.75	4.0160	4.0159	-0.7002	6.01	0.03	-0.750			
0.0448	2865.39	4.0130	4.0130	-0.7051	6.01	0.03	-0.750			
0.0469	3001.09	4.0100	4.0101	-0.7133	6.02	0.04	-0.750			
0.0491	3139.71	4.0070	4.0069	-0.7236	6.02	0.04	-0.750			
0.0513	3280.52	4.0040	4.0039	-0.7207	6.02	0.04	-0.750			
0.0534	3418.95	4.0010	4.0010	-0.7211	6.03	0.05	-0.750			
0.0556	3556.90	3.9980	3.9983	-0.7321	6.03	0.05	-0.750			
0.0578	3699.21	3.9950	3.9948	-0.7386	6.04	0.06	-0.750			
0.0600	3838.92	3.9920	3.9919	-0.7486	6.05	0.07	-0.750			
0.0622	3983.01	3.9890	3.9891	-0.7535	6.05	0.07	-0.750			
0.0646	4132.93	3.9860	3.9859	-0.7627	6.06	0.08	-0.750			
0.0669	4281.67	3.9830	3.9829	-0.7586	6.07	0.09	-0.750			
0.0692	4427.51	3.9800	3.9801	-0.7505	6.07	0.09	-0.750			
0.0714	4568.70	3.9770	3.9770	-0.7442	6.08	0.10	-0.750			
0.0736	4710.61	3.9740	3.9741	-0.7453	6.09	0.11	-0.750			
0.0758	4850.00	3.9710	3.9709	-0.7449	6.10	0.12	-0.750			
0.0781	4995.42	3.9680	3.9679	-0.7511	6.10	0.12	-0.750			
0.0803	5139.01	3.9650	3.9652	-0.7582	6.11	0.13	-0.750			
0.0826	5287.85	3.9620	3.9619	-0.7666	6.12	0.14	-0.750			
0.0849	5434.71	3.9590	3.9591	-0.7709	6.13	0.15	-0.750			
0.0872	5581.14	3.9560	3.9559	-0.7714	6.13	0.15	-0.750			
0.0895	5731.08	3.9530	3.9532	-0.7810	6.14	0.16	-0.750			
0.0919	5882.32	3.9500	3.9500	-0.7804	6.15	0.17	-0.750			
0.0943	6033.96	3.9470	3.9469	-0.7856	6.16	0.18	-0.750			
0.0966	6183.26	3.9440	3.9440	-0.7827	6.16	0.18	-0.750			
0.0990	6333.13	3.9410	3.9411	-0.7870	6.17	0.19	-0.750			
0.1013	6482.90	3.9380	3.9380	-0.7874	6.18	0.20	-0.750			
0.1037	6635.11	3.9350	3.9349	-0.7907	6.19	0.21	-0.750			
0.1061	6788.40	3.9320	3.9320	-0.7902	6.19	0.21	-0.750			
0.1085	6942.28	3.9290	3.9290	-0.7933	6.20	0.22	-0.750			
0.1108	7093.42	3.9260	3.9261	-0.7868	6.21	0.23	-0.750			
0.1132	7243.51	3.9230	3.9230	-0.7835	6.22	0.24	-0.750			
0.1155	7391.94	3.9200	3.9200	-0.7852	6.22	0.24	-0.750			
0.1178	7542.01	3.9170	3.9171	-0.7843	6.23	0.25	-0.750			
0.1202	7692.10	3.9140	3.9139	-0.7920	6.24	0.26	-0.750			
0.1226	7846.51	3.9110	3.9110	-0.8046	6.25	0.27	-0.750			
0.1250	8002.54	3.9080	3.9081	-0.8059	6.26	0.28	-0.750			
0.1275	8158.64	3.9050	3.9048	-0.8089	6.27	0.29	-0.750			
0.1299	8314.20	3.9020	3.9022	-0.8093	6.28	0.30	-0.750			
0.1323	8467.69	3.8990	3.8990	-0.8104	6.29	0.31	-0.750			
0.1348	8624.14	3.8960	3.8958	-0.8204	6.30	0.32	-0.750			
0.1372	8779.23	3.8930	3.8931	-0.8278	6.31	0.33	-0.750			
0.1397	8941.20	3.8900	3.8900	-0.8307	6.32	0.34	-0.750			
0.1423	9104.34	3.8870	3.8871	-0.8425	6.33	0.35	-0.750			
0.1448	9267.20	3.8840	3.8840	-0.8369	6.34	0.36	-0.750			
0.1473	9427.37	3.8810	3.8809	-0.8389	6.34	0.36	-0.750			
0.1498	9588.22	3.8780	3.8780	-0.8336	6.35	0.37	-0.750			
0.1523	9747.38	3.8750	3.8749	-0.8228	6.36	0.38	-0.750			
0.1548	9904.94	3.8720	3.8721	-0.8217	6.37	0.39	-0.750			
0.1572	10063.89	3.8690	3.8690	-0.8225	6.38	0.40	-0.750			
0.1597	10219.57	3.8660	3.8659	-0.8187	6.39	0.41	-0.750			
0.1621	10375.52	3.8630	3.8630	-0.8293	6.40	0.42	-0.750			
0.1646	10533.24	3.8600	3.8600	-0.8316	6.41	0.43	-0.750			
0.1671	10696.13	3.8570	3.8570	-0.8437	6.42	0.44	-0.750			
0.1697	10859.33	3.8540	3.8539	-0.8515	6.43	0.45	-0.750			
0.1722	11022.81	3.8510	3.8511	-0.8547	6.44	0.46	-0.750			
0.1748	11188.42	3.8480	3.8480	-0.8626	6.45	0.47	-0.750			
0.1774	11353.30	3.8450	3.8450	-0.8654	6.47	0.49	-0.750			
0.1800	11518.82	3.8420	3.8421	-0.8633	6.48	0.50	-0.750			
0.1826	11687.09	3.8390	3.8390	-0.8665	6.49	0.51	-0.750			
0.1852	11855.24	3.8360	3.8358	-0.8631	6.50	0.52	-0.750			
0.1878	12021.07	3.8330	3.8331	-0.8538	6.50	0.52	-0.750			
0.1904	12183.70	3.8300	3.8299	-0.8489	6.51	0.53	-0.750			
0.1929	12343.52	3.8270	3.8273	-0.8502	6.52	0.54	-0.750			
0.1954	12505.28	3.8240	3.8240	-0.8603	6.53	0.55	-0.750			
0.1980	12669.94	3.8210	3.8209	-0.8637	6.54	0.56	-0.750			
0.2006	12837.58	3.8180	3.8179	-0.8692	6.55	0.57	-0.750			
0.2032	13007.01	3.8150	3.8151	-0.8770	6.56	0.58	-0.750			
0.2059	13176.30	3.8120	3.8121	-0.8798	6.57	0.59	-0.750			
0.2085	13345.88	3.8090	3.8090	-0.8779	6.58	0.60	-0.750			
0.2111	13512.54	3.8060	3.8060	-0.8796	6.59	0.61	-0.750			
0.2137	13677.75	3.8030	3.8030	-0.8817	6.60	0.62	-0.750			
0.2164	13850.50	3.8000	3.8000	-0.8895	6.61	0.63	-0.750			
0.2191	14023.81	3.7970	3.7968	-0.8879	6.62	0.64	-0.750			
0.2218	14193.35	3.7940	3.7941	-0.8875	6.63	0.65	-0.750			
0.2244	14364.18	3.7910	3.7911	-0.8884	6.64	0.66	-0.750			
0.2271	14535.47	3.7880	3.7880	-0.8849	6.65	0.67	-0.750			
0.2297	14703.61	3.7850	3.7848	-0.8843	6.66	0.68	-0.750			
0.2323	14869.91	3.7820	3.7821	-0.8837	6.67	0.69	-0.750			
0.2350	15041.66	3.7790	3.7789	-0.8878	6.68	0.70	-0.750			
0.2377	15214.11	3.7760	3.7760	-0.8918	6.69	0.71	-0.750			
0.2404	15382.58	3.7730	3.7730	-0.8946	6.70	0.72	-0.750			
0.2431	15556.15	3.7700	3.7701	-0.8973	6.71	0.73	-0.750			
0.2458	15728.85	3.7670	3.7670	-0.9062	6.72	0.74	-0.750			
0.2485	15903.51	3.7640	3.7639	-0.9008	6.73	0.75	-0.750			
0.2512	16077.94	3.7610	3.7610	-0.9001	6.74	0.76	-0.750			
0.2539	16250.62	3.7580	3.7580	-0.9042	6.75	0.77	-0.750			
0.2566	16422.91	3.7550	3.7551	-0.9030	6.75	0.77	-0.750			
0.2593	16592.85	3.7520	3.7519	-0.9069	6.76	0.78	-0.750			
0.2620	16771.02	3.7490	3.7489	-0.9084	6.77	0.79	-0.750			
0.2648	16945.27	3.7460	3.7460	-0.9083	6.78	0.80	-0.750			
0.2675	17122.45	3.7430	3.7429	-0.9122	6.79	0.81	-0.750			
0.2703	17297.08	3.7400	3.7401	-0.9196	6.80	0.82	-0.750			
0.2730	17474.46	3.7370	3.7368	-0.9142	6.81	0.83	-0.750			
0.2758	17648.47	3.7340	3.7339	-0.9136	6.82	0.84	-0.750			
0.2785	17821.29	3.7310	3.7310	-0.9193	6.83	0.85	-0.750			
0.2813	18000.21	3.7280	3.7281	-0.9324	6.84	0.86	-0.750			
0.2841	18180.93	3.7250	3.7248	-0.9380	6.85	0.87	-0.750			
0.2869	18362.41	3.7220	3.7219	-0.9415	6.86	0.88	-0.750			
0.2897	18542.59	3.7190	3.7192	-0.9465	6.87	0.89	-0.750			
0.2926	18728.56	3.7160	3.7163	-0.9496	6.88	0.90	-0.750			
0.2955	18910.24	3.7130	3.7129	-0.9507	6.89	0.91	-0.750			
0.2983	19091.49	3.7100	3.7100	-0.9491	6.89	0.91	-0.750			
0.3011	19271.69	3.7070	3.7070	-0.9488	6.90	0.92	-0.750			
0.3040	19455.72	3.7040	3.7040	-0.9619	6.91	0.93	-0.750			
0.3069	19638.68	3.7010	3.7009	-0.9643	6.92	0.94	-0.750			
0.3098	19824.05	3.6980	3.6980	-0.9754	6.92	0.94	-0.750			
0.3127	20014.72	3.6950	3.6949	-0.9871	6.93	0.95	-0.750			
0.3157	20204.16	3.6920	3.6920	-0.9886	6.94	0.96	-0.750			
0.3187	20395.97	3.6890	3.6891	-1.0025	6.95	0.97	-0.750			
0.3217	20589.17	3.6860	3.6860	-1.0115	6.96	0.98	-0.750			
0.3247	20783.46	3.6830	3.6829	-1.0175	6.97	0.99	-0.750			
0.3278	20978.46	3.6800	3.6799	-1.0180	6.97	0.99	-0.750			
0.3309	21175.49	3.6770	3.6772	-1.0311	6.98	1.00	-0.750			
0.3340	21376.47	3.6740	3.6740	-1.0366	6.99	1.01	-0.750			
0.3371	21576.47	3.6710	3.6709	-1.0389	7.00	1.02	-0.750			
0.3402	21773.40	3.6680	3.6681	-1.0414	7.00	1.02	-0.750			
0.3433	21971.77	3.6650	3.6652	-1.0604	7.01	1.03	-0.750			
0.3465	22178.45	3.6620	3.6621	-1.0690	7.02	1.04	-0.750			
0.3498	22386.13	3.6590	3.6589	-1.0784	7.03	1.05	-0.750			
0.3530	22593.51	3.6560	3.6559	-1.0786	7.04	1.06	-0.750			
0.3563	22802.39	3.6530	3.6531	-1.0955	7.05	1.07	-0.750			
0.3596	23012.57	3.6500	3.6500	-1.0981	7.06	1.08	-0.750			
0.3629	23223.09	3.6470	3.6468	-1.1018	7.07	1.09	-0.750			
0.3661	23432.21	3.6440	3.6441	-1.1102	7.08	1.10	-0.750			
0.3696	23651.26	3.6410	3.6409	-1.1315	7.08	1.10	-0.750			
0.3730	23870.73	3.6380	3.6379	-1.1451	7.09	1.11	-0.750			
0.3764	24091.63	3.6350	3.6350	-1.1581	7.10	1.12	-0.750			
0.3799	24310.61	3.6320	3.6321	-1.1755	7.11	1.13	-0.750			
0.3834	24540.67	3.6290	3.6289	-1.2016	7.12	1.14	-0.750			
0.3871	24772.81	3.6260	3.6260	-1.2151	7.13	1.15	-0.750			
0.3907	25007.46	3.6230	3.6230	-1.2325	7.14	1.16	-0.750			
0.3945	25247.96	3.6200	3.6201	-1.2476	7.14	1.16	-0.750			
0.3983	25491.00	3.6170	3.6170	-1.2621	7.15	1.17	-0.750			
0.4021	25734.25	3.6140	3.6140	-1.2693	7.16	1.18	-0.750			
0.4059	25977.32	3.6110	3.6111	-1.2755	7.16	1.18	-0.750			
0.4098	26224.06	3.6080	3.6080	-1.2915	7.17	1.19	-0.750	0.444	1.013	
0.4136	26473.26	3.6050	3.6049	-1.3083	7.17	1.19	-0.750			
0.4176	26725.07	3.6020	3.6022	-1.3214	7.18	1.20	-0.750			
0.4216	26980.08	3.5990	3.5989	-1.3452	7.19	1.21	-0.750			
0.4256	27240.32	3.5960	3.5959	-1.3512	7.20	1.22	-0.750			
0.4297	27500.97	3.5930	3.5931	-1.3699	7.21	1.23	-0.750			
0.4339	27768.63	3.5900	3.5900	-1.3898	7.22	1.24	-0.750			
0.4380	28032.22	3.5870	3.5868	-1.4035	7.22	1.24	-0.750			
0.4422	28302.73	3.5840	3.5841	-1.4183	7.23	1.25	-0.750			
0.4465	28576.31	3.5810	3.5810	-1.4380	7.23	1.25	-0.750			
0.4509	28854.92	3.5780	3.5779	-1.4570	7.24	1.26	-0.750			
0.4553	29141.83	3.5750	3.5751	-1.4695	7.24	1.26	-0.750			
0.4598	29424.10	3.5720	3.5718	-1.4840	7.25	1.27	-0.750			
0.4642	29709.69	3.5690	3.5692	-1.5159	7.26	1.28	-0.750			
0.4688	30002.32	3.5660	3.5659	-1.5260	7.27	1.29	-0.750			
0.4734	30295.92	3.5630	3.5633	-1.5527	7.27	1.29	-0.750			
0.4781	30596.61	3.5600	3.5600	-1.5735	7.28	1.30	-0.750			
0.4829	30903.66	3.5570	3.5567	-1.5830	7.28	1.30	-0.750			
0.4877	31211.66	3.5540	3.5538	-1.5980	7.29	1.31	-0.750			
0.4925	31523.02	3.5510	3.5513	-1.5977	7.30	1.32	-0.750			
0.4972	31823.51	3.5480	3.5481	-1.5984	7.31	1.33	-0.750			
0.5020	32129.37	3.5450	3.5449	-1.6102	7.31	1.33	-0.750			
0.5068	32433.37	3.5420	3.5420	-1.6479	7.32	1.34	-0.750			
0.5118	32756.22	3.5390	3.5388	-1.6678	7.33	1.35	-0.750			
0.5169	33079.08	3.5360	3.5358	-1.6779	7.34	1.36	-0.750			
0.5220	33407.85	3.5330	3.5330	-1.6944	7.35	1.37	-0.750			
0.5271	33733.80	3.5300	3.5302	-1.7317	7.36	1.38	-0.750			
0.5322	34061.52	3.5270	3.5269	-1.7296	7.36	1.38	-0.750			
0.5376	34403.70	3.5240	3.5239	-1.7369	7.37	1.39	-0.750			
0.5427	34731.94	3.5210	3.5211	-1.7325	7.38	1.40	-0.750			
0.5480	35074.15	3.5180	3.5179	-1.7413	7.38	1.40	-0.750			
0.5533	35409.17	3.5150	3.5149	-1.7329	7.39	1.41	-0.750			
0.5584	35736.53	3.5120	3.5118	-1.7160	7.40	1.42	-0.750			
0.5635	36063.74	3.5090	3.5087	-1.6981	7.41	1.43	-0.750			
0.5686	36389.58	3.5060	3.5061	-1.7055	7.42	1.44	-0.750			
0.5737	36719.60	3.5030	3.5029	-1.7361	7.43	1.45	-0.750			
0.5790	37053.81	3.5000	3.4998	-1.7189	7.44	1.46	-0.750			
0.5842	37385.86	3.4970	3.4970	-1.7095	7.44	1.46	-0.750			
0.5894	37721.18	3.4940	3.4940	-1.7176	7.45	1.47	-0.750			
0.5945	38048.01	3.4910	3.4912	-1.7016	7.45	1.47	-0.750			
0.5996	38372.46	3.4880	3.4879	-1.6932	7.46	1.48	-0.750			
0.6046	38694.08	3.4850	3.4849	-1.6563	7.47	1.49	-0.750			
0.6095	39010.46	3.4820	3.4820	-1.6456	7.48	1.50	-0.750			
0.6145	39328.15	3.4790	3.4790	-1.6270	7.49	1.51	-0.750			
0.6193	39638.16	3.4760	3.4761	-1.6107	7.50	1.52	-0.750			
0.6241	39945.24	3.4730	3.4729	-1.6072	7.52	1.54	-0.750			
0.6289	40249.86	3.4700	3.4697	-1.6101	7.53	1.55	-0.750			
0.6338	40564.94	3.4670	3.4668	-1.5900	7.53	1.55	-0.750			
0.6387	40875.16	3.4640	3.4643	-1.5776	7.54	1.56	-0.750			
0.6434	41179.47	3.4610	3.4613	-1.5468	7.54	1.56	-0.750			
0.6480	41472.24	3.4580	3.4579	-1.5004	7.56	1.58	-0.750			
0.6524	41752.22	3.4550	3.4550	-1.4751	7.57	1.59	-0.750			
0.6567	42031.21	3.4520	3.4520	-1.4530	7.58	1.60	-0.750			
0.6611	42308.45	3.4490	3.4489	-1.4370	7.59	1.61	-0.750			
0.6654	42584.82	3.4460	3.4460	-1.4201	7.60	1.62	-0.750			
0.6696	42856.67	3.4430	3.4430	-1.3893	7.62	1.64	-0.750			
0.6738	43123.68	3.4400	3.4400	-1.3638	7.63	1.65	-0.750			
0.6778	43379.10	3.4370	3.4370	-1.3371	7.64	1.66	-0.750			
0.6817	43631.33	3.4340	3.4339	-1.3020	7.65	1.67	-0.750			
0.6856	43881.11	3.4310	3.4310	-1.2728	7.66	1.68	-0.750			
0.6894	44123.02	3.4280	3.4279	-1.2385	7.67	1.69	-0.750			
0.6931	44357.27	3.4250	3.4252	-1.2194	7.68	1.70	-0.750			
0.6967	44591.74	3.4220	3.4219	-1.1937	7.69	1.71	-0.750			
0.7003	44817.31	3.4190	3.4188	-1.1520	7.70	1.72	-0.750			
0.7037	45033.90	3.4160	3.4160	-1.1171	7.72	1.74	-0.750			
0.7070	45247.98	3.4130	3.4130	-1.0841	7.73	1.75	-0.750			
0.7102	45452.11	3.4100	3.4099	-1.0515	7.74	1.76	-0.750			
0.7133	45648.79	3.4070	3.4070	-1.0142	7.75	1.77	-0.750			
0.7162	45837.49	3.4040	3.4040	-0.9746	7.76	1.78	-0.750			
0.7191	46024.38	3.4010	3.4009	-0.9581	7.78	1.80	-0.750			
0.7220	46206.45	3.3980	3.3980	-0.9368	7.79	1.81	-0.750			
0.7247	46383.21	3.3950	3.3949	-0.9025	7.80	1.82	-0.750			
0.7274	46554.43	3.3920	3.3919	-0.8682	7.81	1.83	-0.750			
0.7300	46720.72	3.3890	3.3893	-0.8424	7.82	1.84	-0.750			
0.7325	46878.42	3.3860	3.3860	-0.8119	7.83	1.85	-0.750			
0.7349	47030.61	3.3830	3.3830	-0.7820	7.84	1.86	-0.750			
0.7371	47173.27	3.3800	3.3799	-0.7517	7.85	1.87	-0.750			
0.7393	47316.35	3.3770	3.3770	-0.7363	7.86	1.88	-0.750			
0.7415	47457.58	3.3740	3.3740	-0.7118	7.87	1.89	-0.750			
0.7437	47593.94	3.3710	3.3710	-0.6893	7.87	1.89	-0.750			
0.7457	47722.77	3.3680	3.3681	-0.6603	7.88	1.90	-0.750			
0.7476	47845.78	3.3650	3.3650	-0.6373	7.89	1.91	-0.750			
0.7494	47964.38	3.3620	3.3620	-0.6159	7.90	1.92	-0.750			
0.7512	48079.98	3.3590	3.3589	-0.5952	7.91	1.93	-0.750			
0.7530	48192.18	3.3560	3.3559	-0.5772	7.92	1.94	-0.750			
0.7547	48302.54	3.3530	3.3530	-0.5613	7.93	1.95	-0.750			
0.7564	48408.45	3.3500	3.3500	-0.5455	7.94	1.96	-0.750			
0.7580	48511.42	3.3470	3.3470	-0.5283	7.95	1.97	-0.750			
0.7595	48609.30	3.3440	3.3440	-0.5094	7.96	1.98	-0.750			
0.7610	48706.40	3.3410	3.3410	-0.4957	7.97	1.99	-0.750			
0.7625	48801.30	3.3380	3.3380	-0.4805	7.98	2.00	-0.750			
0.7639	48891.75	3.3350	3.3350	-0.4642	7.99	2.01	-0.750			
0.7653	48979.20	3.3320	3.3321	-0.4502	7.99	2.01	-0.750			
0.7666	49063.51	3.3290	3.3290	-0.4354	8.00	2.02	-0.750			
0.7679	49145.77	3.3260	3.3259	-0.4202	8.01	2.03	-0.750			
0.7691	49225.15	3.3230	3.3230	-0.4057	8.02	2.04	-0.750			
0.7703	49301.59	3.3200	3.3200	-0.3939	8.03	2.05	-0.750			
0.7715	49375.26	3.3170	3.3170	-0.3833	8.03	2.05	-0.750			
0.7726	49446.56	3.3140	3.3140	-0.3728	8.04	2.06	-0.750			
0.7737	49516.91	3.3110	3.3109	-0.3655	8.05	2.07	-0.750			
0.7748	49586.91	3.3080	3.3080	-0.3582	8.06	2.08	-0.750			
0.7759	49656.26	3.3050	3.3050	-0.3500	8.06	2.08	-0.750			
0.7769	49723.42	3.3020	3.3020	-0.3414	8.07	2.09	-0.750			
0.7779	49787.75	3.2990	3.2991	-0.3299	8.08	2.10	-0.750			
0.7789	49848.99	3.2960	3.2960	-0.3171	8.08	2.10	-0.750			
0.7798	49908.54	3.2930	3.2928	-0.3094	8.09	2.11	-0.750			
0.7807	49966.10	3.2900	3.2900	-0.3017	8.09	2.11	-0.750			
0.7816	50023.29	3.2870	3.2870	-0.2977	8.10	2.12	-0.750			
0.7825	50080.70	3.2840	3.2839	-0.2937	8.11	2.13	-0.750			
0.7834	50136.85	3.2810	3.2810	-0.2855	8.12	2.14	-0.750			
0.7842	50191.49	3.2780	3.2781	-0.2778	8.12	2.14	-0.750			
0.7851	50244.80	3.2750	3.2750	-0.2699	8.13	2.15	-0.750			
0.7859	50295.36	3.2720	3.2719	-0.2633	8.14	2.16	-0.750			
0.7866	50344.10	3.2690	3.2690	-0.2559	8.14	2.16	-0.750			
0.7874	50392.24	3.2660	3.2659	-0.2498	8.15	2.17	-0.750			
0.7881	50439.77	3.2630	3.2630	-0.2456	8.15	2.17	-0.750			
0.7889	50486.70	3.2600	3.2601	-0.2416	8.16	2.18	-0.750			
0.7896	50532.78	3.2570	3.2571	-0.2365	8.17	2.19	-0.750			
0.7903	50577.92	3.2540	3.2541	-0.2328	8.17	2.19	-0.750			
0.7910	50622.25	3.2510	3.2508	-0.2270	8.18	2.20	-0.750			
0.7916	50664.92	3.2480	3.2481	-0.2212	8.18	2.20	-0.750			
0.7923	50707.07	3.2450	3.2450	-0.2165	8.19	2.21	-0.750			
0.7929	50748.24	3.2420	3.2421	-0.2121	8.19	2.21	-0.750			
0.7936	50788.40	3.2390	3.2390	-0.2073	8.20	2.22	-0.750			
0.7942	50827.21	3.2360	3.2360	-0.2031	8.21	2.23	-0.750			
0.7948	50865.62	3.2330	3.2329	-0.1992	8.21	2.23	-0.750			
0.7954	50903.09	3.2300	3.2301	-0.1963	8.22	2.24	-0.750			
0.7960	50940.98	3.2270	3.2269	-0.1935	8.22	2.24	-0.750			
0.7965	50977.84	3.2240	3.2240	-0.1902	8.23	2.25	-0.750			
0.7971	51014.05	3.2210	3.2210	-0.1870	8.23	2.25	-0.750			
0.7977	51049.88	3.2180	3.2181	-0.1831	8.24	2.26	-0.750			
0.7982	51084.96	3.2150	3.2150	-0.1794	8.25	2.27	-0.750			
0.7987	51118.68	3.2120	3.2120	-0.1750	8.25	2.27	-0.750			
0.7992	51151.90	3.2090	3.2089	-0.1710	8.26	2.28	-0.750			
0.7997	51183.88	3.2060	3.2060	-0.1684	8.26	2.28	-0.750			
0.8002	51215.90	3.2030	3.2031	-0.1660	8.27	2.29	-0.750			
0.8007	51247.22	3.2000	3.2000	-0.1633	8.27	2.29	-0.750			
0.8012	51278.43	3.1970	3.1969	-0.1619	8.28	2.30	-0.750			
0.8017	51309.40	3.1940	3.1941	-0.1605	8.28	2.30	-0.750			
0.8022	51340.25	3.1910	3.1910	-0.1588	8.29	2.31	-0.750			
0.8027	51370.64	3.1880	3.1879	-0.1570	8.29	2.31	-0.750			
0.8031	51400.65	3.1850	3.1850	-0.1543	8.30	2.32	-0.750			
0.8036	51430.06	3.1820	3.1821	-0.1516	8.30	2.32	-0.750			
0.8041	51459.20	3.1790	3.1790	-0.1494	8.30	2.32	-0.750			
0.8045	51487.67	3.1760	3.1760	-0.1459	8.31	2.33	-0.750			
0.8049	51515.13	3.1730	3.1729	-0.1433	8.31	2.33	-0.750			
0.8053	51542.09	3.1700	3.1701	-0.1408	8.31	2.33	-0.750			
0.8058	51568.74	3.1670	3.1671	-0.1384	8.32	2.34	-0.750			
0.8062	51595.24	3.1640	3.1639	-0.1360	8.32	2.34	-0.750			
0.8066	51621.06	3.1610	3.1610	-0.1340	8.33	2.35	-0.750			
0.8070	51646.35	3.1580	3.1582	-0.1324	8.33	2.35	-0.750			
0.8074	51671.64	3.1550	3.1550	-0.1310	8.34	2.36	-0.750			
0.8078	51696.91	3.1520	3.1519	-0.1291	8.34	2.36	-0.750			
0.8081	51721.32	3.1490	3.1490	-0.1269	8.35	2.37	-0.750			
0.8085	51745.48	3.1460	3.1461	-0.1255	8.35	2.37	-0.750			
0.8089	51769.37	3.1430	3.1432	-0.1241	8.36	2.38	-0.750			
0.8093	51793.22	3.1400	3.1399	-0.1230	8.36	2.38	-0.750			
0.8096	51816.74	3.1370	3.1369	-0.1208	8.37	2.39	-0.750			
0.8100	51839.77	3.1340	3.1340	-0.1190	8.37	2.39	-0.750			
0.8103	51862.28	3.1310	3.1311	-0.1171	8.38	2.40	-0.750			
0.8107	51884.83	3.1280	3.1281	-0.1167	8.38	2.40	-0.750			
0.8110	51907.07	3.1250	3.1251	-0.1150	8.38	2.40	-0.750			
0.8114	51928.69	3.1220	3.1219	-0.1134	8.39	2.41	-0.750			
0.8117	51950.36	3.1190	3.1189	-0.1123	8.39	2.41	-0.750			
0.8121	51971.60	3.1160	3.1161	-0.1111	8.40	2.42	-0.750			
0.8124	51992.88	3.1130	3.1131	-0.1105	8.40	2.42	-0.750			
0.8127	52014.43	3.1100	3.1099	-0.1095	8.40	2.42	-0.750			
0.8131	52035.29	3.1070	3.1070	-0.1079	8.41	2.43	-0.750			
0.8134	52055.82	3.1040	3.1041	-0.1063	8.41	2.43	-0.750			
0.8137	52076.07	3.1010	3.1010	-0.1048	8.42	2.44	-0.750			
0.8140	52096.10	3.0980	3.0980	-0.1035	8.42	2.44	-0.750			
0.8143	52115.82	3.0950	3.0950	-0.1019	8.43	2.45	-0.750			
0.8146	52134.95	3.0920	3.0920	-0.1007	8.43	2.45	-0.750			
0.8149	52154.21	3.0890	3.0891	-0.0998	8.44	2.46	-0.750			
