Ah_balance (normalized)	Ah_balance (mAh)	Voltage - fit (V)	Voltage -  interpolate (V)	dQ/dV (1/V)	Temperature (°C)	Temperature - diff (°C)	Current (C)	R_DC 0ms (mOhm)	R_DC 50ms (mOhm)	R_DC 50 ms PEC (mOhm)
0.0990	6337.20	4.1970	4.1985	0.7283	8.69	2.57	0.750			
0.1007	6445.79	4.1940	4.1961	0.6601	8.68	2.56	0.750			
0.1029	6584.86	4.1910	4.1932	0.7352	8.68	2.56	0.750			
0.1052	6731.73	4.1880	4.1898	0.7404	8.67	2.55	0.750			
0.1074	6874.53	4.1850	4.1865	0.7479	8.66	2.54	0.750			
0.1100	7041.39	4.1820	4.1828	0.7758	8.65	2.53	0.750			
0.1130	7229.90	4.1790	4.1784	0.8214	8.64	2.52	0.750			
0.1147	7337.75	4.1760	4.1760	0.7031	8.63	2.51	0.750			
0.1168	7473.29	4.1730	4.1728	0.7085	8.62	2.50	0.750			
0.1189	7610.62	4.1700	4.1701	0.7220	8.62	2.50	0.750			
0.1211	7751.31	4.1670	4.1669	0.7205	8.61	2.49	0.750			
0.1233	7890.33	4.1640	4.1641	0.7250	8.61	2.49	0.750			
0.1255	8030.80	4.1610	4.1610	0.7207	8.61	2.49	0.750			
0.1277	8169.84	4.1580	4.1579	0.7195	8.60	2.48	0.750			
0.1298	8305.55	4.1550	4.1550	0.7142	8.60	2.48	0.750			
0.1319	8443.27	4.1520	4.1522	0.7160	8.59	2.47	0.750			
0.1341	8580.40	4.1490	4.1489	0.7116	8.58	2.46	0.750			
0.1362	8718.24	4.1460	4.1459	0.7204	8.58	2.46	0.750			
0.1384	8855.43	4.1430	4.1431	0.7215	8.57	2.45	0.750			
0.1405	8994.63	4.1400	4.1401	0.7319	8.56	2.44	0.750			
0.1427	9134.37	4.1370	4.1372	0.7400	8.56	2.44	0.750			
0.1450	9277.28	4.1340	4.1341	0.7513	8.55	2.43	0.750			
0.1472	9423.70	4.1310	4.1308	0.7492	8.54	2.42	0.750			
0.1495	9568.20	4.1280	4.1281	0.7542	8.54	2.42	0.750			
0.1518	9713.81	4.1250	4.1251	0.7575	8.53	2.41	0.750			
0.1540	9858.59	4.1220	4.1218	0.7599	8.52	2.40	0.750			
0.1563	10004.15	4.1190	4.1191	0.7571	8.51	2.39	0.750			
0.1586	10150.84	4.1160	4.1160	0.7515	8.51	2.39	0.750			
0.1609	10296.40	4.1130	4.1130	0.7527	8.50	2.38	0.750			
0.1631	10439.57	4.1100	4.1102	0.7530	8.49	2.37	0.750			
0.1654	10582.58	4.1070	4.1070	0.7547	8.48	2.36	0.750			
0.1676	10726.32	4.1040	4.1040	0.7624	8.48	2.36	0.750			
0.1699	10873.82	4.1010	4.1009	0.7704	8.47	2.35	0.750			
0.1723	11024.74	4.0980	4.0980	0.7722	8.46	2.34	0.750			
0.1746	11173.48	4.0950	4.0951	0.7781	8.46	2.34	0.750			
0.1769	11322.39	4.0920	4.0921	0.7809	8.45	2.33	0.750			
0.1793	11472.35	4.0890	4.0887	0.7831	8.44	2.32	0.750			
0.1816	11621.87	4.0860	4.0860	0.7869	8.43	2.31	0.750			
0.1840	11774.03	4.0830	4.0830	0.7866	8.43	2.31	0.750			
0.1864	11926.76	4.0800	4.0800	0.8059	8.42	2.30	0.750			
0.1888	12080.99	4.0770	4.0771	0.8107	8.41	2.29	0.750			
0.1912	12237.84	4.0740	4.0738	0.8183	8.40	2.28	0.750			
0.1937	12397.46	4.0710	4.0712	0.8180	8.39	2.27	0.750			
0.1962	12557.29	4.0680	4.0679	0.8166	8.39	2.27	0.750			
0.1987	12714.27	4.0650	4.0651	0.8122	8.38	2.26	0.750			
0.2011	12870.18	4.0620	4.0620	0.8153	8.37	2.25	0.750			
0.2035	13022.73	4.0590	4.0589	0.8126	8.36	2.24	0.750			
0.2059	13178.91	4.0560	4.0560	0.8173	8.35	2.23	0.750			
0.2084	13336.63	4.0530	4.0531	0.8179	8.35	2.23	0.750			
0.2108	13493.93	4.0500	4.0500	0.8291	8.34	2.22	0.750			
0.2133	13653.93	4.0470	4.0470	0.8382	8.33	2.21	0.750			
0.2159	13816.19	4.0440	4.0439	0.8425	8.32	2.20	0.750			
0.2184	13977.37	4.0410	4.0411	0.8442	8.31	2.19	0.750			
0.2210	14142.01	4.0380	4.0380	0.8458	8.30	2.18	0.750			
0.2235	14304.93	4.0350	4.0351	0.8578	8.29	2.17	0.750			
0.2261	14470.40	4.0320	4.0319	0.8550	8.28	2.16	0.750			
0.2287	14634.60	4.0290	4.0289	0.8587	8.27	2.15	0.750			
0.2312	14799.11	4.0260	4.0262	0.8629	8.26	2.14	0.750			
0.2338	14965.85	4.0230	4.0230	0.8662	8.26	2.14	0.750			
0.2365	15133.47	4.0200	4.0199	0.8708	8.25	2.13	0.750			
0.2390	15298.91	4.0170	4.0171	0.8680	8.24	2.12	0.750			
0.2417	15466.04	4.0140	4.0137	0.8733	8.23	2.11	0.750			
0.2443	15636.56	4.0110	4.0111	0.8844	8.22	2.10	0.750			
0.2470	15805.79	4.0080	4.0080	0.8895	8.21	2.09	0.750			
0.2496	15977.04	4.0050	4.0049	0.8982	8.20	2.08	0.750			
0.2524	16151.17	4.0020	4.0020	0.9081	8.19	2.07	0.750			
0.2551	16326.62	3.9990	3.9991	0.9076	8.18	2.06	0.750			
0.2579	16503.11	3.9960	3.9961	0.9019	8.17	2.05	0.750			
0.2606	16677.09	3.9930	3.9930	0.8984	8.16	2.04	0.750			
0.2632	16846.12	3.9900	3.9901	0.8993	8.14	2.02	0.750			
0.2659	17016.94	3.9870	3.9869	0.8980	8.13	2.01	0.750			
0.2686	17189.65	3.9840	3.9839	0.9003	8.12	2.00	0.750			
0.2713	17360.22	3.9810	3.9811	0.9131	8.11	1.99	0.750			
0.2740	17536.65	3.9780	3.9780	0.9345	8.10	1.98	0.750			
0.2769	17719.60	3.9750	3.9750	0.9515	8.09	1.97	0.750			
0.2797	17903.58	3.9720	3.9718	0.9563	8.08	1.96	0.750			
0.2827	18090.67	3.9690	3.9691	0.9500	8.07	1.95	0.750			
0.2856	18278.18	3.9660	3.9660	0.9507	8.06	1.94	0.750			
0.2884	18457.36	3.9630	3.9633	0.9470	8.05	1.93	0.750			
0.2912	18634.08	3.9600	3.9599	0.9519	8.04	1.92	0.750			
0.2940	18814.59	3.9570	3.9570	0.9531	8.03	1.91	0.750			
0.2969	18998.91	3.9540	3.9538	0.9774	8.02	1.90	0.750			
0.2999	19192.16	3.9510	3.9512	0.9948	8.00	1.88	0.750			
0.3029	19385.62	3.9480	3.9480	1.0127	7.99	1.87	0.750			
0.3060	19585.14	3.9450	3.9450	1.0036	7.97	1.85	0.750			
0.3090	19774.25	3.9420	3.9421	1.0031	7.97	1.85	0.750			
0.3120	19965.56	3.9390	3.9391	1.0090	7.96	1.84	0.750			
0.3150	20159.88	3.9360	3.9361	1.0167	7.95	1.83	0.750			
0.3180	20354.01	3.9330	3.9328	1.0174	7.94	1.82	0.750			
0.3211	20550.15	3.9300	3.9301	1.0318	7.92	1.80	0.750			
0.3242	20748.74	3.9270	3.9270	1.0413	7.91	1.79	0.750			
0.3274	20953.61	3.9240	3.9241	1.0621	7.90	1.78	0.750			
0.3306	21158.83	3.9210	3.9210	1.0597	7.88	1.76	0.750			
0.3338	21360.94	3.9180	3.9180	1.0845	7.87	1.75	0.750			
0.3371	21572.90	3.9150	3.9151	1.0988	7.85	1.73	0.750			
0.3404	21784.79	3.9120	3.9118	1.1142	7.84	1.72	0.750			
0.3437	21998.77	3.9090	3.9093	1.1203	7.82	1.70	0.750			
0.3471	22215.72	3.9060	3.9060	1.1357	7.81	1.69	0.750			
0.3505	22434.82	3.9030	3.9030	1.1430	7.80	1.68	0.750			
0.3540	22655.59	3.9000	3.8998	1.1604	7.79	1.67	0.750			
0.3574	22876.32	3.8970	3.8971	1.1788	7.78	1.66	0.750			
0.3610	23106.45	3.8940	3.8939	1.1985	7.76	1.64	0.750			
0.3647	23338.36	3.8910	3.8909	1.2056	7.74	1.62	0.750			
0.3683	23571.11	3.8880	3.8882	1.2125	7.72	1.60	0.750			
0.3720	23807.02	3.8850	3.8850	1.2218	7.71	1.59	0.750			
0.3757	24041.68	3.8820	3.8817	1.2353	7.69	1.57	0.750	0.365	0.786	
0.3793	24277.18	3.8790	3.8788	1.2305	7.67	1.55	0.750			
0.3830	24512.08	3.8760	3.8761	1.2491	7.66	1.54	0.750			
0.3868	24755.43	3.8730	3.8730	1.2723	7.64	1.52	0.750			
0.3906	25001.25	3.8700	3.8699	1.2873	7.62	1.50	0.750			
0.3945	25250.86	3.8670	3.8670	1.3158	7.61	1.49	0.750			
0.3985	25505.74	3.8640	3.8641	1.3342	7.59	1.47	0.750			
0.4026	25764.45	3.8610	3.8609	1.3461	7.57	1.45	0.750			
0.4067	26027.65	3.8580	3.8581	1.3697	7.55	1.43	0.750			
0.4108	26288.44	3.8550	3.8550	1.3708	7.53	1.41	0.750			
0.4149	26555.27	3.8520	3.8520	1.3767	7.51	1.39	0.750			
0.4191	26819.40	3.8490	3.8492	1.3836	7.49	1.37	0.750			
0.4231	27079.32	3.8460	3.8460	1.4024	7.47	1.35	0.750			
0.4273	27348.13	3.8430	3.8432	1.4374	7.45	1.33	0.750			
0.4316	27623.95	3.8400	3.8399	1.4710	7.43	1.31	0.750			
0.4362	27914.85	3.8370	3.8369	1.4963	7.40	1.28	0.750			
0.4407	28207.87	3.8340	3.8341	1.5279	7.38	1.26	0.750			
0.4455	28511.51	3.8310	3.8311	1.5467	7.35	1.23	0.750			
0.4501	28808.69	3.8280	3.8280	1.5425	7.33	1.21	0.750			
0.4547	29102.48	3.8250	3.8249	1.5375	7.31	1.19	0.750			
0.4593	29397.01	3.8220	3.8221	1.5526	7.29	1.17	0.750			
0.4639	29690.19	3.8190	3.8192	1.5729	7.26	1.14	0.750			
0.4687	29997.78	3.8160	3.8159	1.5893	7.24	1.12	0.750			
0.4735	30301.88	3.8130	3.8128	1.6127	7.22	1.10	0.750			
0.4784	30617.46	3.8100	3.8100	1.6203	7.19	1.07	0.750			
0.4833	30931.55	3.8070	3.8070	1.6384	7.17	1.05	0.750			
0.4881	31239.94	3.8040	3.8041	1.6421	7.15	1.03	0.750			
0.4930	31552.23	3.8010	3.8013	1.6687	7.12	1.00	0.750			
0.4980	31870.71	3.7980	3.7978	1.7144	7.10	0.98	0.750			
0.5033	32209.84	3.7950	3.7950	1.7530	7.07	0.95	0.750			
0.5086	32548.50	3.7920	3.7920	1.8084	7.04	0.92	0.750			
0.5142	32908.40	3.7890	3.7891	1.8253	7.00	0.88	0.750			
0.5197	33260.12	3.7860	3.7863	1.8606	6.98	0.86	0.750			
0.5253	33617.70	3.7830	3.7831	1.9068	6.96	0.84	0.750			
0.5311	33988.22	3.7800	3.7798	1.9310	6.93	0.81	0.750			
0.5370	34364.89	3.7770	3.7771	2.0044	6.90	0.78	0.750			
0.5430	34750.32	3.7740	3.7741	2.1219	6.86	0.74	0.750			
0.5495	35166.91	3.7710	3.7707	2.2330	6.83	0.71	0.750			
0.5563	35602.20	3.7680	3.7682	2.3125	6.80	0.68	0.750			
0.5634	36060.59	3.7650	3.7649	2.4034	6.77	0.65	0.750			
0.5708	36529.58	3.7620	3.7619	2.4958	6.73	0.61	0.750			
0.5783	37008.90	3.7590	3.7591	2.6507	6.70	0.58	0.750			
0.5864	37532.70	3.7560	3.7559	2.7521	6.66	0.54	0.750			
0.5951	38086.11	3.7530	3.7531	2.8710	6.61	0.49	0.750			
0.6039	38649.09	3.7500	3.7500	2.9702	6.57	0.45	0.750			
0.6128	39216.77	3.7470	3.7469	3.0695	6.54	0.42	0.750			
0.6224	39832.59	3.7440	3.7441	2.9925	6.50	0.38	0.750			
0.6316	40422.85	3.7410	3.7412	2.8922	6.47	0.35	0.750			
0.6396	40936.09	3.7380	3.7379	2.5140	6.43	0.31	0.750			
0.6465	41375.81	3.7350	3.7350	2.1765	6.41	0.29	0.750			
0.6524	41751.21	3.7320	3.7322	1.8904	6.39	0.27	0.750			
0.6576	42085.98	3.7290	3.7292	1.6772	6.37	0.25	0.750			
0.6620	42365.05	3.7260	3.7261	1.5036	6.35	0.23	0.750			
0.6661	42628.91	3.7230	3.7226	1.3780	6.33	0.21	0.750			
0.6699	42870.65	3.7200	3.7199	1.2880	6.32	0.20	0.750			
0.6736	43107.37	3.7170	3.7170	1.2222	6.31	0.19	0.750			
0.6771	43337.31	3.7140	3.7142	1.1844	6.30	0.18	0.750			
0.6807	43562.62	3.7110	3.7110	1.1477	6.28	0.16	0.750			
0.6839	43772.14	3.7080	3.7080	1.1086	6.27	0.15	0.750			
0.6872	43980.55	3.7050	3.7049	1.0906	6.26	0.14	0.750			
0.6904	44188.56	3.7020	3.7020	1.0705	6.25	0.13	0.750			
0.6936	44392.86	3.6990	3.6990	1.0535	6.24	0.12	0.750			
0.6968	44595.38	3.6960	3.6960	1.0389	6.23	0.11	0.750			
0.6999	44791.26	3.6930	3.6930	1.0173	6.22	0.10	0.750			
0.7029	44983.56	3.6900	3.6900	1.0030	6.21	0.09	0.750			
0.7059	45175.78	3.6870	3.6869	0.9789	6.21	0.09	0.750			
0.7087	45359.45	3.6840	3.6840	0.9658	6.20	0.08	0.750			
0.7117	45545.84	3.6810	3.6810	0.9504	6.19	0.07	0.750			
0.7145	45727.03	3.6780	3.6781	0.9330	6.18	0.06	0.750			
0.7172	45902.53	3.6750	3.6748	0.9179	6.17	0.05	0.750			
0.7199	46076.58	3.6720	3.6720	0.9112	6.16	0.04	0.750			
0.7226	46246.72	3.6690	3.6690	0.9061	6.15	0.03	0.750			
0.7253	46421.74	3.6660	3.6660	0.9141	6.14	0.02	0.750			
0.7281	46596.04	3.6630	3.6630	0.9128	6.13	0.01	0.750			
0.7309	46776.49	3.6600	3.6599	0.9184	6.13	0.01	0.750			
0.7337	46959.34	3.6570	3.6570	0.8985	6.13	0.01	0.750			
0.7365	47133.78	3.6540	3.6540	0.8624	6.12	0.00	0.750			
0.7391	47301.97	3.6510	3.6511	0.8140	6.12	0.00	0.750			
0.7415	47456.85	3.6480	3.6478	0.7340	6.12	0.00	0.750			
0.7436	47592.40	3.6450	3.6451	0.6455	6.12	-0.00	0.750			
0.7454	47707.15	3.6420	3.6420	0.5463	6.12	-0.00	0.750			
0.7469	47802.56	3.6390	3.6391	0.4531	6.12	-0.00	0.750			
0.7479	47865.69	3.6360	3.6364	0.3884	6.12	-0.00	0.750			
0.7489	47931.46	3.6330	3.6332	0.3181	6.11	-0.01	0.750			
0.7497	47979.21	3.6300	3.6299	0.2429	6.11	-0.01	0.750			
0.7503	48017.66	3.6270	3.6257	0.1925	6.11	-0.01	0.750			
0.7507	48041.61	3.6240	3.6104	0.1386	6.11	-0.01	0.750			
0.7507	48046.54	3.6000	3.5687	-0.1191	6.11	-0.01	0.750			
0.7509	48060.01	3.6210	3.3614	0.0991	6.11	-0.01	0.750			
0.7510	48066.41	3.6030	3.2628	-0.0879	6.11	-0.01	0.750			
0.7512	48076.03	3.6180	3.1148	0.0679	6.11	-0.01	0.750			
0.7513	48080.30	3.6060	3.0491	-0.0568	6.11	-0.01	0.750			
0.7513	48086.08	3.6150	2.9602	0.0367	6.11	-0.01	0.750			
0.7514	48088.21	3.6090	2.9274	-0.0256	6.11	-0.01	0.750			
0.7514	48090.14	3.6120	2.8977	0.0056	6.11	-0.01	0.750			
