Ah_balance (normalized)	Ah_balance (mAh)	Voltage - fit (V)	Voltage -  interpolate (V)	dQ/dV (1/V)	Temperature (°C)	Temperature - diff (°C)	Current (C)	R_DC 0ms (mOhm)	R_DC 50ms (mOhm)	R_DC 50 ms PEC (mOhm)
0.1003	6422.28	4.1970	4.1990	1.0725	8.70	2.66	0.750			
0.1035	6623.43	4.1940	4.1951	1.0095	8.70	2.66	0.750			
0.1064	6809.40	4.1910	4.1914	0.9360	8.69	2.65	0.750			
0.1090	6974.72	4.1880	4.1881	0.8723	8.69	2.65	0.750			
0.1117	7149.65	4.1850	4.1848	0.8537	8.69	2.65	0.750			
0.1138	7285.23	4.1820	4.1820	0.7848	8.68	2.64	0.750			
0.1162	7434.64	4.1790	4.1790	0.7847	8.68	2.64	0.750			
0.1184	7579.46	4.1760	4.1761	0.7814	8.67	2.63	0.750			
0.1208	7731.24	4.1730	4.1728	0.7928	8.67	2.63	0.750			
0.1232	7885.26	4.1700	4.1700	0.7974	8.67	2.63	0.750			
0.1257	8041.60	4.1670	4.1670	0.7899	8.66	2.62	0.750			
0.1280	8195.04	4.1640	4.1642	0.8060	8.65	2.61	0.750			
0.1305	8350.25	4.1610	4.1611	0.8060	8.65	2.61	0.750			
0.1328	8501.70	4.1580	4.1578	0.7979	8.64	2.60	0.750			
0.1352	8654.23	4.1550	4.1552	0.8034	8.64	2.60	0.750			
0.1377	8809.82	4.1520	4.1521	0.8033	8.63	2.59	0.750			
0.1401	8965.09	4.1490	4.1489	0.8092	8.63	2.59	0.750			
0.1425	9123.03	4.1460	4.1460	0.8157	8.63	2.59	0.750			
0.1449	9275.87	4.1430	4.1431	0.8096	8.62	2.58	0.750			
0.1474	9433.38	4.1400	4.1401	0.8146	8.62	2.58	0.750			
0.1499	9592.92	4.1370	4.1369	0.8083	8.61	2.57	0.750			
0.1523	9744.46	4.1340	4.1341	0.8132	8.61	2.57	0.750			
0.1547	9899.92	4.1310	4.1311	0.8225	8.60	2.56	0.750			
0.1571	10056.70	4.1280	4.1280	0.8250	8.59	2.55	0.750			
0.1596	10216.12	4.1250	4.1251	0.8328	8.59	2.55	0.750			
0.1622	10379.68	4.1220	4.1221	0.8329	8.58	2.54	0.750			
0.1647	10543.23	4.1190	4.1190	0.8361	8.58	2.54	0.750			
0.1672	10703.35	4.1160	4.1160	0.8346	8.58	2.54	0.750			
0.1697	10859.91	4.1130	4.1132	0.8250	8.57	2.53	0.750			
0.1722	11017.71	4.1100	4.1101	0.8310	8.57	2.53	0.750			
0.1747	11178.72	4.1070	4.1069	0.8310	8.56	2.52	0.750			
0.1771	11336.80	4.1040	4.1040	0.8381	8.56	2.52	0.750			
0.1797	11499.30	4.1010	4.1011	0.8441	8.55	2.51	0.750			
0.1823	11664.21	4.0980	4.0981	0.8478	8.54	2.50	0.750			
0.1848	11827.12	4.0950	4.0950	0.8425	8.54	2.50	0.750			
0.1873	11988.80	4.0920	4.0921	0.8392	8.53	2.49	0.750			
0.1898	12148.46	4.0890	4.0891	0.8483	8.53	2.49	0.750			
0.1924	12311.64	4.0860	4.0859	0.8568	8.53	2.49	0.750			
0.1949	12474.61	4.0830	4.0829	0.8529	8.52	2.48	0.750			
0.1975	12640.82	4.0800	4.0802	0.8591	8.52	2.48	0.750			
0.2002	12809.75	4.0770	4.0770	0.8593	8.51	2.47	0.750			
0.2027	12974.35	4.0740	4.0740	0.8617	8.50	2.46	0.750			
0.2052	13135.16	4.0710	4.0710	0.8679	8.49	2.45	0.750			
0.2078	13300.20	4.0680	4.0680	0.8754	8.48	2.44	0.750			
0.2105	13471.36	4.0650	4.0650	0.8829	8.48	2.44	0.750			
0.2132	13643.69	4.0620	4.0620	0.8936	8.47	2.43	0.750			
0.2159	13817.22	4.0590	4.0591	0.8923	8.47	2.43	0.750			
0.2186	13991.38	4.0560	4.0560	0.8961	8.46	2.42	0.750			
0.2213	14162.24	4.0530	4.0529	0.8828	8.46	2.42	0.750			
0.2239	14328.06	4.0500	4.0500	0.8793	8.45	2.41	0.750			
0.2265	14495.89	4.0470	4.0470	0.8790	8.44	2.40	0.750			
0.2291	14665.49	4.0440	4.0440	0.8826	8.43	2.39	0.750			
0.2318	14835.04	4.0410	4.0410	0.8866	8.43	2.39	0.750			
0.2345	15005.66	4.0380	4.0380	0.8931	8.42	2.38	0.750			
0.2371	15177.06	4.0350	4.0351	0.8961	8.41	2.37	0.750			
0.2399	15351.82	4.0320	4.0319	0.8979	8.41	2.37	0.750			
0.2425	15522.62	4.0290	4.0291	0.8974	8.41	2.37	0.750			
0.2453	15696.02	4.0260	4.0260	0.8990	8.40	2.36	0.750			
0.2479	15868.50	4.0230	4.0230	0.8977	8.39	2.35	0.750			
0.2506	16039.43	4.0200	4.0200	0.9007	8.39	2.35	0.750			
0.2533	16211.85	4.0170	4.0170	0.9071	8.38	2.34	0.750			
0.2560	16386.85	4.0140	4.0140	0.9123	8.37	2.33	0.750			
0.2588	16562.02	4.0110	4.0109	0.9209	8.36	2.32	0.750			
0.2616	16739.91	4.0080	4.0081	0.9210	8.36	2.32	0.750			
0.2643	16917.79	4.0050	4.0050	0.9368	8.35	2.31	0.750			
0.2672	17099.46	4.0020	4.0019	0.9420	8.35	2.31	0.750			
0.2700	17279.76	3.9990	3.9991	0.9418	8.34	2.30	0.750			
0.2729	17463.98	3.9960	3.9961	0.9408	8.33	2.29	0.750			
0.2757	17645.36	3.9930	3.9931	0.9491	8.33	2.29	0.750			
0.2786	17827.38	3.9900	3.9900	0.9462	8.32	2.28	0.750			
0.2814	18007.07	3.9870	3.9870	0.9542	8.31	2.27	0.750			
0.2842	18187.51	3.9840	3.9840	0.9565	8.30	2.26	0.750			
0.2871	18374.50	3.9810	3.9810	0.9572	8.29	2.25	0.750			
0.2900	18559.23	3.9780	3.9781	0.9683	8.28	2.24	0.750			
0.2929	18746.42	3.9750	3.9751	0.9732	8.28	2.24	0.750			
0.2958	18931.34	3.9720	3.9718	0.9761	8.27	2.23	0.750			
0.2988	19121.72	3.9690	3.9691	0.9792	8.26	2.22	0.750			
0.3017	19309.59	3.9660	3.9660	0.9822	8.26	2.22	0.750			
0.3047	19500.89	3.9630	3.9630	0.9888	8.25	2.21	0.750			
0.3077	19691.16	3.9600	3.9600	0.9876	8.24	2.20	0.750			
0.3106	19880.05	3.9570	3.9571	0.9852	8.24	2.20	0.750			
0.3136	20068.31	3.9540	3.9540	0.9951	8.23	2.19	0.750			
0.3165	20259.08	3.9510	3.9510	1.0010	8.22	2.18	0.750			
0.3195	20450.69	3.9480	3.9479	1.0044	8.21	2.17	0.750			
0.3226	20646.74	3.9450	3.9451	1.0162	8.21	2.17	0.750			
0.3256	20839.75	3.9420	3.9422	1.0397	8.20	2.16	0.750			
0.3288	21042.79	3.9390	3.9389	1.0538	8.19	2.15	0.750			
0.3320	21247.88	3.9360	3.9359	1.0665	8.18	2.14	0.750			
0.3352	21454.43	3.9330	3.9331	1.0684	8.16	2.12	0.750			
0.3385	21662.17	3.9300	3.9301	1.0874	8.15	2.11	0.750			
0.3417	21870.94	3.9270	3.9269	1.0990	8.14	2.10	0.750			
0.3450	22080.90	3.9240	3.9240	1.1066	8.13	2.09	0.750			
0.3483	22292.32	3.9210	3.9211	1.1058	8.12	2.08	0.750			
0.3517	22509.40	3.9180	3.9180	1.1288	8.12	2.08	0.750			
0.3551	22727.35	3.9150	3.9151	1.1335	8.11	2.07	0.750			
0.3585	22946.61	3.9120	3.9116	1.1421	8.10	2.06	0.750			
0.3619	23162.90	3.9090	3.9092	1.1557	8.09	2.05	0.750			
0.3654	23384.32	3.9060	3.9060	1.1821	8.07	2.03	0.750			
0.3689	23612.27	3.9030	3.9030	1.2111	8.06	2.02	0.750			
0.3727	23849.73	3.9000	3.9000	1.2072	8.04	2.00	0.750			
0.3763	24082.91	3.8970	3.8972	1.2312	8.03	1.99	0.750			
0.3800	24322.46	3.8940	3.8942	1.2603	8.01	1.97	0.750			
0.3839	24566.56	3.8910	3.8906	1.2656	8.00	1.96	0.750			
0.3876	24805.01	3.8880	3.8880	1.2792	7.99	1.95	0.750			
0.3914	25051.21	3.8850	3.8852	1.3101	7.98	1.94	0.750			
0.3955	25309.64	3.8820	3.8819	1.3250	7.96	1.92	0.750			
0.3995	25568.30	3.8790	3.8790	1.3530	7.95	1.91	0.750			
0.4036	25829.39	3.8760	3.8761	1.3649	7.94	1.90	0.750			
0.4077	26094.20	3.8730	3.8729	1.3797	7.92	1.88	0.750			
0.4119	26362.14	3.8700	3.8701	1.3918	7.91	1.87	0.750			
0.4160	26626.69	3.8670	3.8670	1.4208	7.89	1.85	0.750			
0.4203	26896.94	3.8640	3.8639	1.4561	7.87	1.83	0.750			
0.4247	27178.26	3.8610	3.8611	1.4905	7.86	1.82	0.750			
0.4292	27471.07	3.8580	3.8579	1.5346	7.84	1.80	0.750			
0.4340	27774.01	3.8550	3.8549	1.5633	7.82	1.78	0.750			
0.4387	28077.02	3.8520	3.8522	1.5805	7.80	1.76	0.750			
0.4435	28382.15	3.8490	3.8492	1.6244	7.78	1.74	0.750			
0.4483	28691.71	3.8460	3.8459	1.6613	7.76	1.72	0.750			
0.4534	29016.29	3.8430	3.8431	1.6976	7.74	1.70	0.750			
0.4585	29346.77	3.8400	3.8401	1.7402	7.72	1.68	0.750			
0.4639	29691.45	3.8370	3.8370	1.8082	7.69	1.65	0.750			
0.4693	30037.93	3.8340	3.8340	1.8329	7.67	1.63	0.750			
0.4748	30389.93	3.8310	3.8310	1.8947	7.64	1.60	0.750			
0.4806	30758.42	3.8280	3.8280	1.9351	7.61	1.57	0.750			
0.4865	31135.90	3.8250	3.8249	1.9711	7.59	1.55	0.750			
0.4925	31517.67	3.8220	3.8222	2.0407	7.56	1.52	0.750			
0.4986	31911.18	3.8190	3.8190	2.1053	7.54	1.50	0.750			
0.5051	32323.89	3.8160	3.8159	2.1590	7.51	1.47	0.750			
0.5116	32742.25	3.8130	3.8131	2.2321	7.48	1.44	0.750			
0.5186	33187.96	3.8100	3.8100	2.2826	7.44	1.40	0.750			
0.5254	33626.53	3.8070	3.8069	2.2925	7.41	1.37	0.750			
0.5323	34066.64	3.8040	3.8041	2.3379	7.38	1.34	0.750			
0.5394	34518.89	3.8010	3.8008	2.4133	7.34	1.30	0.750			
0.5466	34982.32	3.7980	3.7981	2.4936	7.30	1.26	0.750			
0.5543	35473.08	3.7950	3.7950	2.6200	7.26	1.22	0.750			
0.5623	35988.15	3.7920	3.7918	2.6909	7.22	1.18	0.750			
0.5706	36521.39	3.7890	3.7892	2.7823	7.17	1.13	0.750			
0.5790	37057.05	3.7860	3.7859	2.7969	7.13	1.09	0.750			
0.5873	37585.66	3.7830	3.7831	2.8596	7.08	1.04	0.750			
0.5960	38143.91	3.7800	3.7800	2.8894	7.03	0.99	0.750			
0.6047	38702.78	3.7770	3.7773	2.9547	6.98	0.94	0.750			
0.6137	39277.39	3.7740	3.7740	3.0313	6.93	0.89	0.750			
0.6228	39857.58	3.7710	3.7711	3.0819	6.88	0.84	0.750			
0.6324	40470.93	3.7680	3.7680	3.1604	6.84	0.80	0.750			
0.6418	41077.02	3.7650	3.7651	3.2814	6.78	0.74	0.750			
0.6518	41717.41	3.7620	3.7618	3.5339	6.73	0.69	0.750			
0.6629	42423.15	3.7590	3.7590	3.7741	6.68	0.64	0.750			
0.6749	43191.22	3.7560	3.7559	3.8609	6.61	0.57	0.750			
0.6861	43912.93	3.7530	3.7532	3.8226	6.56	0.52	0.750			
0.6978	44656.23	3.7500	3.7499	3.9984	6.50	0.46	0.750			
0.7101	45444.62	3.7470	3.7471	3.8802	6.44	0.40	0.750			
0.7207	46123.83	3.7440	3.7439	3.3475	6.39	0.35	0.750			
0.7302	46730.01	3.7410	3.7411	2.9056	6.35	0.31	0.750			
0.7383	47251.90	3.7380	3.7380	2.5492	6.32	0.28	0.750			
0.7450	47677.23	3.7350	3.7351	2.1639	6.29	0.25	0.750			
0.7509	48060.67	3.7320	3.7318	1.9125	6.26	0.22	0.750			
0.7563	48400.08	3.7290	3.7290	1.6932	6.25	0.21	0.750			
0.7607	48685.65	3.7260	3.7261	1.5119	6.23	0.19	0.750			
0.7651	48966.69	3.7230	3.7231	1.4236	6.21	0.17	0.750			
0.7690	49216.38	3.7200	3.7200	1.2983	6.20	0.16	0.750			
0.7727	49450.75	3.7170	3.7170	1.2157	6.19	0.15	0.750			
0.7761	49672.41	3.7140	3.7141	1.1564	6.17	0.13	0.750			
0.7795	49886.12	3.7110	3.7110	1.1144	6.16	0.12	0.750			
0.7828	50096.88	3.7080	3.7079	1.0812	6.15	0.11	0.750			
0.7859	50298.37	3.7050	3.7049	1.0433	6.14	0.10	0.750			
0.7890	50495.01	3.7020	3.7021	1.0201	6.13	0.09	0.750			
0.7921	50693.10	3.6990	3.6989	0.9920	6.12	0.08	0.750			
0.7950	50881.26	3.6960	3.6959	0.9540	6.10	0.06	0.750			
0.7978	51061.92	3.6930	3.6931	0.9169	6.10	0.06	0.750			
0.8005	51234.31	3.6900	3.6901	0.8722	6.09	0.05	0.750			
0.8031	51398.69	3.6870	3.6869	0.8283	6.08	0.04	0.750			
0.8055	51552.24	3.6840	3.6841	0.7807	6.08	0.04	0.750			
0.8078	51697.10	3.6810	3.6810	0.7318	6.07	0.03	0.750			
0.8099	51834.13	3.6780	3.6780	0.6841	6.07	0.03	0.750			
0.8119	51961.45	3.6750	3.6750	0.6347	6.06	0.02	0.750			
0.8137	52077.99	3.6720	3.6720	0.5782	6.06	0.02	0.750			
0.8154	52184.78	3.6690	3.6690	0.5280	6.05	0.01	0.750			
0.8169	52280.78	3.6660	3.6661	0.4764	6.05	0.01	0.750			
0.8182	52366.06	3.6630	3.6627	0.4293	6.05	0.01	0.750			
0.8194	52442.48	3.6600	3.6601	0.3850	6.04	0.00	0.750			
0.8205	52511.01	3.6570	3.6570	0.3459	6.04	0.00	0.750			
0.8214	52572.66	3.6540	3.6540	0.3084	6.04	-0.00	0.750			
0.8223	52629.23	3.6510	3.6509	0.2753	6.04	-0.00	0.750			
0.8231	52678.76	3.6480	3.6479	0.2364	6.04	-0.00	0.750			
0.8238	52721.61	3.6450	3.6451	0.2026	6.03	-0.01	0.750			
0.8243	52757.57	3.6420	3.6421	0.1660	6.03	-0.01	0.750			
0.8248	52786.44	3.6390	3.6390	0.1284	6.03	-0.01	0.750			
0.8251	52808.24	3.6360	3.6357	0.0893	6.03	-0.01	0.750			
0.8253	52821.55	3.6330	3.6313	0.0485	6.03	-0.01	0.750			
0.8254	52824.47	3.6270	3.6276	-0.0333	6.03	-0.01	0.750			
0.8254	52826.93	3.6300	3.6166	0.0076	6.03	-0.01	0.750			
