Ah_balance (normalized)	Ah_balance (mAh)	Voltage - fit (V)	Voltage -  interpolate (V)	dQ/dV (1/V)	Temperature (°C)	Temperature - diff (°C)	Current (C)	R_DC 0ms (mOhm)	R_DC 50ms (mOhm)	R_DC 50 ms PEC (mOhm)
0.0001	6.65	4.1730	4.1730	-0.1333	24.86	0.00	-0.250			
0.0007	43.21	4.1700	4.1700	-0.2497	24.86	0.00	-0.250			
0.0016	104.73	4.1670	4.1670	-0.3654	24.86	0.00	-0.250			
0.0030	189.11	4.1640	4.1640	-0.4595	24.86	0.00	-0.250			
0.0045	288.44	4.1610	4.1610	-0.5326	24.86	0.00	-0.250			
0.0063	404.67	4.1580	4.1578	-0.6091	24.86	0.00	-0.250			
0.0083	529.47	4.1550	4.1549	-0.6547	24.86	0.00	-0.250			
0.0103	661.50	4.1520	4.1518	-0.6900	24.87	0.01	-0.250			
0.0125	799.27	4.1490	4.1493	-0.7181	24.87	0.01	-0.250			
0.0147	941.49	4.1460	4.1459	-0.7278	24.88	0.02	-0.250			
0.0170	1085.36	4.1430	4.1429	-0.7421	24.88	0.02	-0.250			
0.0192	1227.69	4.1400	4.1402	-0.7466	24.88	0.02	-0.250	0.324	0.516	
0.0214	1371.76	4.1370	4.1368	-0.7549	24.88	0.02	-0.250			
0.0237	1517.46	4.1340	4.1341	-0.7615	24.89	0.03	-0.250			
0.0260	1664.30	4.1310	4.1309	-0.7658	24.89	0.03	-0.250			
0.0284	1814.81	4.1280	4.1279	-0.7679	24.90	0.04	-0.250			
0.0306	1961.58	4.1250	4.1252	-0.7708	24.90	0.04	-0.250			
0.0330	2108.89	4.1220	4.1221	-0.7810	24.90	0.04	-0.250			
0.0353	2256.69	4.1190	4.1189	-0.7888	24.91	0.05	-0.250			
0.0376	2408.48	4.1160	4.1161	-0.7998	24.92	0.06	-0.250			
0.0401	2566.08	4.1130	4.1130	-0.8001	24.92	0.06	-0.250	0.400	0.506	
0.0426	2723.59	4.1100	4.1100	-0.8053	24.92	0.06	-0.250			
0.0450	2877.69	4.1070	4.1071	-0.8047	24.93	0.07	-0.250			
0.0473	3029.51	4.1040	4.1038	-0.8043	24.94	0.08	-0.250			
0.0497	3181.54	4.1010	4.1009	-0.8043	24.94	0.08	-0.250			
0.0522	3337.78	4.0980	4.0980	-0.8090	24.95	0.09	-0.250			
0.0546	3495.84	4.0950	4.0951	-0.8196	24.95	0.09	-0.250			
0.0571	3653.69	4.0920	4.0920	-0.8306	24.96	0.10	-0.250			
0.0596	3815.53	4.0890	4.0890	-0.8257	24.97	0.11	-0.250	0.419	0.535	
0.0621	3971.43	4.0860	4.0858	-0.8321	24.97	0.11	-0.250			
0.0646	4133.88	4.0830	4.0831	-0.8413	24.98	0.12	-0.250			
0.0671	4295.96	4.0800	4.0798	-0.8289	24.99	0.13	-0.250			
0.0696	4455.68	4.0770	4.0771	-0.8253	24.99	0.13	-0.250			
0.0721	4611.55	4.0740	4.0743	-0.8276	25.00	0.14	-0.250			
0.0745	4770.15	4.0710	4.0707	-0.8268	25.00	0.14	-0.250			
0.0770	4930.10	4.0680	4.0680	-0.8346	25.01	0.15	-0.250			
0.0795	5089.31	4.0650	4.0651	-0.8366	25.01	0.15	-0.250	0.424	0.505	
0.0821	5253.84	4.0620	4.0620	-0.8487	25.02	0.16	-0.250			
0.0847	5419.22	4.0590	4.0591	-0.8438	25.03	0.17	-0.250			
0.0872	5580.77	4.0560	4.0559	-0.8470	25.03	0.17	-0.250			
0.0897	5741.69	4.0530	4.0530	-0.8439	25.04	0.18	-0.250			
0.0922	5903.22	4.0500	4.0499	-0.8503	25.04	0.18	-0.250			
0.0948	6065.64	4.0470	4.0470	-0.8543	25.04	0.18	-0.250			
0.0974	6235.62	4.0440	4.0439	-0.8483	25.05	0.19	-0.250			
0.1000	6398.50	4.0410	4.0411	-0.8448	25.06	0.20	-0.250	0.343	0.501	
0.1025	6560.66	4.0380	4.0381	-0.8449	25.07	0.21	-0.250			
0.1050	6721.53	4.0350	4.0352	-0.8427	25.07	0.21	-0.250			
0.1075	6881.42	4.0320	4.0319	-0.8536	25.07	0.21	-0.250			
0.1100	7042.54	4.0290	4.0291	-0.8591	25.08	0.22	-0.250			
0.1127	7210.64	4.0260	4.0260	-0.8733	25.08	0.22	-0.250			
0.1153	7382.12	4.0230	4.0231	-0.8819	25.09	0.23	-0.250			
0.1180	7553.78	4.0200	4.0201	-0.8783	25.10	0.24	-0.250			
0.1207	7723.68	4.0170	4.0169	-0.8807	25.10	0.24	-0.250	0.396	0.498	
0.1233	7892.39	4.0140	4.0141	-0.8731	25.11	0.25	-0.250			
0.1259	8057.06	4.0110	4.0108	-0.8770	25.12	0.26	-0.250			
0.1285	8226.30	4.0080	4.0081	-0.8801	25.13	0.27	-0.250			
0.1311	8393.57	4.0050	4.0050	-0.8774	25.14	0.28	-0.250			
0.1338	8562.08	4.0020	4.0022	-0.8854	25.14	0.28	-0.250			
0.1365	8734.17	3.9990	3.9988	-0.8840	25.14	0.28	-0.250			
0.1391	8904.05	3.9960	3.9959	-0.8840	25.15	0.29	-0.250	0.401	0.490	
0.1418	9074.44	3.9930	3.9929	-0.8807	25.15	0.29	-0.250			
0.1444	9241.29	3.9900	3.9902	-0.8929	25.15	0.29	-0.250			
0.1471	9414.81	3.9870	3.9868	-0.8914	25.16	0.30	-0.250			
0.1498	9586.86	3.9840	3.9836	-0.9038	25.17	0.31	-0.250			
0.1525	9758.40	3.9810	3.9813	-0.9001	25.16	0.30	-0.250			
0.1553	9937.07	3.9780	3.9778	-0.9125	25.18	0.32	-0.250			
0.1580	10109.82	3.9750	3.9751	-0.9095	25.19	0.33	-0.250			
0.1607	10283.66	3.9720	3.9722	-0.9060	25.18	0.32	-0.250	0.337	0.491	
0.1634	10458.82	3.9690	3.9690	-0.9141	25.18	0.32	-0.250			
0.1662	10634.36	3.9660	3.9659	-0.9185	25.19	0.33	-0.250			
0.1689	10810.16	3.9630	3.9630	-0.9139	25.20	0.34	-0.250			
0.1717	10988.17	3.9600	3.9600	-0.9128	25.20	0.34	-0.250			
0.1744	11163.12	3.9570	3.9570	-0.9170	25.21	0.35	-0.250			
0.1771	11336.97	3.9540	3.9539	-0.9122	25.21	0.35	-0.250			
0.1799	11512.81	3.9510	3.9512	-0.9202	25.21	0.35	-0.250	0.370	0.499	
0.1826	11689.13	3.9480	3.9480	-0.9243	25.22	0.36	-0.250			
0.1855	11869.32	3.9450	3.9449	-0.9274	25.23	0.37	-0.250			
0.1883	12048.11	3.9420	3.9419	-0.9364	25.23	0.37	-0.250			
0.1911	12230.00	3.9390	3.9392	-0.9336	25.24	0.38	-0.250			
0.1939	12408.98	3.9360	3.9358	-0.9255	25.24	0.38	-0.250			
0.1966	12585.47	3.9330	3.9331	-0.9237	25.24	0.38	-0.250			
0.1994	12760.64	3.9300	3.9302	-0.9244	25.25	0.39	-0.250	0.325	0.487	
0.2022	12938.77	3.9270	3.9267	-0.9404	25.26	0.40	-0.250			
0.2050	13121.02	3.9240	3.9240	-0.9359	25.26	0.40	-0.250			
0.2078	13299.69	3.9210	3.9210	-0.9485	25.27	0.41	-0.250			
0.2107	13485.88	3.9180	3.9183	-0.9572	25.28	0.42	-0.250			
0.2136	13669.54	3.9150	3.9148	-0.9563	25.28	0.42	-0.250			
0.2165	13855.43	3.9120	3.9122	-0.9587	25.28	0.42	-0.250			
0.2193	14038.07	3.9090	3.9090	-0.9511	25.29	0.43	-0.250	0.342	0.492	
0.2222	14222.82	3.9060	3.9059	-0.9572	25.29	0.43	-0.250			
0.2251	14407.46	3.9030	3.9031	-0.9491	25.30	0.44	-0.250			
0.2279	14586.29	3.9000	3.9000	-0.9456	25.31	0.45	-0.250			
0.2307	14766.73	3.8970	3.8971	-0.9554	25.31	0.45	-0.250			
0.2336	14951.72	3.8940	3.8940	-0.9532	25.31	0.45	-0.250			
0.2365	15136.38	3.8910	3.8910	-0.9529	25.32	0.46	-0.250			
0.2394	15319.79	3.8880	3.8882	-0.9545	25.32	0.46	-0.250	0.370	0.520	
0.2422	15501.42	3.8850	3.8850	-0.9590	25.32	0.46	-0.250			
0.2451	15685.27	3.8820	3.8818	-0.9594	25.32	0.46	-0.250			
0.2480	15871.73	3.8790	3.8790	-0.9543	25.33	0.47	-0.250			
0.2509	16055.51	3.8760	3.8761	-0.9480	25.33	0.47	-0.250			
0.2538	16240.99	3.8730	3.8731	-0.9521	25.34	0.48	-0.250			
0.2565	16418.47	3.8700	3.8701	-0.9455	25.34	0.48	-0.250			
0.2594	16598.92	3.8670	3.8668	-0.9455	25.34	0.48	-0.250	0.269	0.485	
0.2622	16779.19	3.8640	3.8639	-0.9457	25.34	0.48	-0.250			
0.2651	16965.67	3.8610	3.8611	-0.9493	25.35	0.49	-0.250			
0.2680	17149.75	3.8580	3.8580	-0.9504	25.35	0.49	-0.250			
0.2708	17330.64	3.8550	3.8551	-0.9424	25.35	0.49	-0.250			
0.2736	17508.39	3.8520	3.8519	-0.9396	25.35	0.49	-0.250			
0.2764	17687.08	3.8490	3.8491	-0.9481	25.34	0.48	-0.250			
0.2792	17868.59	3.8460	3.8459	-0.9599	25.34	0.48	-0.250	0.335	0.498	
0.2821	18057.32	3.8430	3.8429	-0.9646	25.35	0.49	-0.250			
0.2851	18245.61	3.8400	3.8399	-0.9666	25.36	0.50	-0.250			
0.2880	18433.93	3.8370	3.8369	-0.9532	25.36	0.50	-0.250			
0.2909	18614.92	3.8340	3.8340	-0.9389	25.35	0.49	-0.250			
0.2936	18793.26	3.8310	3.8313	-0.9312	25.35	0.49	-0.250			
0.2964	18967.82	3.8280	3.8278	-0.9135	25.35	0.49	-0.250			
0.2991	19141.77	3.8250	3.8250	-0.9094	25.35	0.49	-0.250	0.404	0.494	
0.3018	19316.36	3.8220	3.8222	-0.9210	25.35	0.49	-0.250			
0.3046	19497.26	3.8190	3.8189	-0.9137	25.35	0.49	-0.250			
0.3073	19670.37	3.8160	3.8160	-0.9074	25.34	0.48	-0.250			
0.3100	19842.99	3.8130	3.8131	-0.9060	25.34	0.48	-0.250			
0.3128	20018.30	3.8100	3.8097	-0.9046	25.34	0.48	-0.250			
0.3155	20191.56	3.8070	3.8070	-0.9011	25.34	0.48	-0.250			
0.3182	20364.35	3.8040	3.8041	-0.8947	25.35	0.49	-0.250			
0.3209	20536.87	3.8010	3.8008	-0.8862	25.35	0.49	-0.250	0.283	0.503	
0.3236	20708.65	3.7980	3.7980	-0.8761	25.34	0.48	-0.250			
0.3261	20872.03	3.7950	3.7953	-0.8689	25.34	0.48	-0.250			
0.3287	21039.96	3.7920	3.7918	-0.8669	25.34	0.48	-0.250			
0.3313	21203.97	3.7890	3.7888	-0.8569	25.34	0.48	-0.250			
0.3339	21367.08	3.7860	3.7860	-0.8577	25.34	0.48	-0.250			
0.3365	21533.05	3.7830	3.7830	-0.8624	25.34	0.48	-0.250			
0.3391	21701.01	3.7800	3.7798	-0.8555	25.33	0.47	-0.250	0.405	0.510	
0.3416	21863.39	3.7770	3.7771	-0.8536	25.33	0.47	-0.250			
0.3442	22027.47	3.7740	3.7740	-0.8438	25.32	0.46	-0.250			
0.3467	22190.43	3.7710	3.7710	-0.8442	25.32	0.46	-0.250			
0.3492	22348.47	3.7680	3.7683	-0.8485	25.32	0.46	-0.250			
0.3517	22510.96	3.7650	3.7649	-0.8613	25.32	0.46	-0.250			
0.3543	22677.66	3.7620	3.7619	-0.8702	25.32	0.46	-0.250			
0.3570	22848.41	3.7590	3.7591	-0.8801	25.31	0.45	-0.250			
0.3597	23018.73	3.7560	3.7561	-0.8880	25.31	0.45	-0.250	0.415	0.502	
0.3624	23192.44	3.7530	3.7529	-0.8919	25.31	0.45	-0.250			
0.3650	23359.47	3.7500	3.7500	-0.8979	25.30	0.44	-0.250			
0.3677	23531.34	3.7470	3.7470	-0.9002	25.30	0.44	-0.250			
0.3704	23702.95	3.7440	3.7439	-0.9270	25.30	0.44	-0.250			
0.3732	23882.49	3.7410	3.7411	-0.9529	25.29	0.43	-0.250			
0.3761	24068.59	3.7380	3.7376	-0.9787	25.29	0.43	-0.250			
0.3790	24258.90	3.7350	3.7352	-1.0039	25.29	0.43	-0.250	0.366	0.518	
0.3821	24454.65	3.7320	3.7320	-1.0330	25.28	0.42	-0.250			
0.3852	24655.12	3.7290	3.7289	-1.0651	25.27	0.41	-0.250			
0.3885	24864.82	3.7260	3.7261	-1.0824	25.27	0.41	-0.250			
0.3918	25073.86	3.7230	3.7229	-1.1042	25.26	0.40	-0.250			
0.3951	25288.66	3.7200	3.7202	-1.1324	25.25	0.39	-0.250			
0.3986	25507.68	3.7170	3.7169	-1.1673	25.24	0.38	-0.250	0.400	0.504	
0.4021	25734.93	3.7140	3.7139	-1.1879	25.22	0.36	-0.250			
0.4057	25965.66	3.7110	3.7111	-1.2123	25.22	0.36	-0.250			
0.4094	26200.63	3.7080	3.7081	-1.2608	25.21	0.35	-0.250			
0.4132	26444.83	3.7050	3.7049	-1.2958	25.20	0.34	-0.250			
0.4172	26698.18	3.7020	3.7018	-1.3281	25.18	0.32	-0.250			
0.4212	26958.26	3.6990	3.6991	-1.3618	25.17	0.31	-0.250	0.415	0.539	
0.4254	27224.60	3.6960	3.6960	-1.4098	25.15	0.29	-0.250			
0.4297	27500.59	3.6930	3.6930	-1.4488	25.14	0.28	-0.250			
0.4341	27779.92	3.6900	3.6902	-1.4741	25.13	0.27	-0.250			
0.4385	28064.67	3.6870	3.6868	-1.5165	25.11	0.25	-0.250	0.373	0.510	
0.4431	28361.27	3.6840	3.6842	-1.5603	25.09	0.23	-0.250			
0.4479	28665.95	3.6810	3.6811	-1.5991	25.07	0.21	-0.250			
0.4528	28979.43	3.6780	3.6780	-1.6314	25.06	0.20	-0.250			
0.4577	29290.80	3.6750	3.6750	-1.6698	25.05	0.19	-0.250			
0.4627	29614.87	3.6720	3.6720	-1.7224	25.03	0.17	-0.250	0.299	0.510	
0.4680	29950.63	3.6690	3.6689	-1.7591	25.01	0.15	-0.250			
0.4733	30290.71	3.6660	3.6662	-1.8014	24.99	0.13	-0.250			
0.4788	30641.89	3.6630	3.6630	-1.8578	24.98	0.12	-0.250	0.395	0.526	
0.4844	31003.67	3.6600	3.6600	-1.9094	24.96	0.10	-0.250			
0.4902	31370.30	3.6570	3.6569	-1.9747	24.94	0.08	-0.250			
0.4962	31757.67	3.6540	3.6540	-2.0349	24.93	0.07	-0.250			
0.5025	32157.89	3.6510	3.6508	-2.0987	24.91	0.05	-0.250	0.371	0.531	
0.5088	32565.83	3.6480	3.6482	-2.1411	24.90	0.04	-0.250			
0.5153	32980.31	3.6450	3.6452	-2.1967	24.88	0.02	-0.250			
0.5220	33406.77	3.6420	3.6421	-2.2591	24.87	0.01	-0.250	0.325	0.536	
0.5288	33840.90	3.6390	3.6389	-2.3270	24.85	-0.01	-0.250			
0.5359	34299.39	3.6360	3.6360	-2.4132	24.85	-0.01	-0.250			
0.5433	34772.59	3.6330	3.6329	-2.4777	24.83	-0.03	-0.250	0.360	0.540	
0.5509	35258.66	3.6300	3.6299	-2.5363	24.82	-0.04	-0.250			
0.5586	35748.83	3.6270	3.6271	-2.5853	24.81	-0.05	-0.250	0.345	0.542	
0.5665	36254.13	3.6240	3.6239	-2.6354	24.81	-0.05	-0.250			
0.5744	36759.60	3.6210	3.6211	-2.6742	24.80	-0.06	-0.250			
0.5824	37275.94	3.6180	3.6180	-2.7318	24.80	-0.06	-0.250	0.384	0.536	
0.5908	37810.70	3.6150	3.6148	-2.7537	24.81	-0.05	-0.250			
0.5991	38344.85	3.6120	3.6121	-2.7936	24.81	-0.05	-0.250	0.339	0.528	
0.6075	38881.30	3.6090	3.6089	-2.8287	24.81	-0.05	-0.250			
0.6162	39435.01	3.6060	3.6060	-2.8422	24.82	-0.04	-0.250			
0.6247	39978.78	3.6030	3.6029	-2.8507	24.83	-0.03	-0.250	0.420	0.521	
0.6334	40538.61	3.6000	3.6000	-2.8355	24.84	-0.02	-0.250			
0.6418	41075.31	3.5970	3.5969	-2.7687	24.85	-0.01	-0.250	0.392	0.549	
0.6500	41603.11	3.5940	3.5938	-2.7147	24.86	0.00	-0.250			
0.6581	42116.23	3.5910	3.5910	-2.6635	24.87	0.01	-0.250	0.417	0.543	
0.6660	42624.77	3.5880	3.5879	-2.6065	24.89	0.03	-0.250			
0.6738	43121.33	3.5850	3.5847	-2.5502	24.90	0.04	-0.250			
0.6814	43608.99	3.5820	3.5822	-2.4715	24.93	0.07	-0.250	0.329	0.555	
0.6887	44078.78	3.5790	3.5790	-2.3802	24.94	0.08	-0.250			
0.6958	44528.60	3.5760	3.5763	-2.2782	24.96	0.10	-0.250			
0.7024	44952.61	3.5730	3.5730	-2.1650	24.98	0.12	-0.250	0.401	0.541	
0.7087	45359.55	3.5700	3.5700	-2.0661	25.01	0.15	-0.250			
0.7147	45741.54	3.5670	3.5670	-1.9699	25.04	0.18	-0.250			
0.7205	46113.00	3.5640	3.5637	-1.8879	25.05	0.19	-0.250	0.430	0.540	
0.7260	46464.03	3.5610	3.5611	-1.8210	25.08	0.22	-0.250			
0.7314	46806.85	3.5580	3.5582	-1.7470	25.10	0.24	-0.250			
0.7365	47136.77	3.5550	3.5548	-1.6788	25.12	0.26	-0.250			
0.7414	47450.66	3.5520	3.5521	-1.6209	25.14	0.28	-0.250	0.336	0.543	
0.7462	47755.78	3.5490	3.5490	-1.5680	25.17	0.31	-0.250			
0.7508	48049.65	3.5460	3.5460	-1.5360	25.18	0.32	-0.250			
0.7553	48338.51	3.5430	3.5429	-1.4897	25.20	0.34	-0.250			
0.7598	48625.49	3.5400	3.5400	-1.4589	25.22	0.36	-0.250	0.372	0.567	
0.7642	48908.33	3.5370	3.5371	-1.4027	25.24	0.38	-0.250			
0.7683	49172.97	3.5340	3.5339	-1.3366	25.25	0.39	-0.250			
0.7722	49422.36	3.5310	3.5311	-1.2792	25.27	0.41	-0.250			
0.7759	49655.17	3.5280	3.5280	-1.2130	25.28	0.42	-0.250			
0.7795	49886.22	3.5250	3.5250	-1.1662	25.29	0.43	-0.250	0.373	0.568	
0.7829	50103.40	3.5220	3.5220	-1.1114	25.30	0.44	-0.250			
0.7861	50313.53	3.5190	3.5190	-1.0744	25.32	0.46	-0.250			
0.7893	50514.89	3.5160	3.5159	-1.0433	25.33	0.47	-0.250			
0.7923	50707.84	3.5130	3.5129	-1.0104	25.34	0.48	-0.250			
0.7952	50894.88	3.5100	3.5101	-0.9865	25.35	0.49	-0.250			
0.7982	51083.18	3.5070	3.5072	-0.9767	25.35	0.49	-0.250			
0.8012	51274.11	3.5040	3.5040	-0.9607	25.36	0.50	-0.250	0.432	0.573	
0.8040	51456.92	3.5010	3.5009	-0.9433	25.37	0.51	-0.250			
0.8068	51634.33	3.4980	3.4981	-0.9295	25.38	0.52	-0.250			
0.8096	51811.24	3.4950	3.4949	-0.9210	25.39	0.53	-0.250			
0.8122	51982.29	3.4920	3.4919	-0.9122	25.39	0.53	-0.250			
0.8149	52155.32	3.4890	3.4890	-0.9265	25.40	0.54	-0.250			
0.8176	52328.89	3.4860	3.4863	-0.9688	25.41	0.55	-0.250			
0.8205	52511.32	3.4830	3.4829	-1.0483	25.41	0.55	-0.250	0.360	0.565	
0.8236	52707.32	3.4800	3.4800	-1.1619	25.42	0.56	-0.250			
0.8271	52931.57	3.4770	3.4769	-1.3315	25.42	0.56	-0.250			
0.8313	53206.08	3.4740	3.4740	-1.5243	25.43	0.57	-0.250			
0.8363	53522.04	3.4710	3.4710	-1.7080	25.45	0.59	-0.250			
0.8419	53882.12	3.4680	3.4680	-1.8375	25.45	0.59	-0.250	0.348	0.588	
0.8478	54262.28	3.4650	3.4650	-1.9055	25.47	0.61	-0.250			
0.8539	54649.04	3.4620	3.4621	-1.9066	25.48	0.62	-0.250			
0.8596	55016.74	3.4590	3.4590	-1.8503	25.49	0.63	-0.250	0.366	0.597	
0.8652	55370.58	3.4560	3.4557	-1.7671	25.49	0.63	-0.250			
0.8703	55698.37	3.4530	3.4530	-1.6621	25.50	0.64	-0.250			
0.8751	56008.68	3.4500	3.4501	-1.5678	25.50	0.64	-0.250			
0.8797	56297.90	3.4470	3.4470	-1.4793	25.51	0.65	-0.250	0.340	0.594	
0.8839	56571.77	3.4440	3.4439	-1.3836	25.51	0.65	-0.250			
0.8880	56833.00	3.4410	3.4409	-1.2848	25.52	0.66	-0.250			
0.8918	57074.14	3.4380	3.4378	-1.1920	25.52	0.66	-0.250			
0.8952	57292.28	3.4350	3.4350	-1.0931	25.51	0.65	-0.250			
0.8983	57491.39	3.4320	3.4319	-0.9961	25.52	0.66	-0.250			
0.9011	57671.78	3.4290	3.4290	-0.8979	25.52	0.66	-0.250	0.326	0.605	
0.9037	57834.87	3.4260	3.4260	-0.8169	25.52	0.66	-0.250			
0.9060	57984.14	3.4230	3.4231	-0.7379	25.53	0.67	-0.250			
0.9081	58116.78	3.4200	3.4201	-0.6687	25.53	0.67	-0.250			
0.9099	58234.86	3.4170	3.4170	-0.6012	25.54	0.68	-0.250			
0.9116	58343.75	3.4140	3.4141	-0.5496	25.54	0.68	-0.250			
0.9132	58442.75	3.4110	3.4113	-0.5035	25.54	0.68	-0.250			
0.9146	58534.70	3.4080	3.4079	-0.4656	25.54	0.68	-0.250			
0.9159	58618.04	3.4050	3.4050	-0.4321	25.54	0.68	-0.250			
0.9172	58697.65	3.4020	3.4020	-0.4045	25.54	0.68	-0.250			
0.9183	58772.73	3.3990	3.3990	-0.3774	25.55	0.69	-0.250			
0.9194	58841.94	3.3960	3.3959	-0.3522	25.55	0.69	-0.250			
0.9204	58907.06	3.3930	3.3930	-0.3308	25.55	0.69	-0.250	0.363	0.627	
0.9214	58967.51	3.3900	3.3899	-0.3100	25.55	0.69	-0.250			
0.9222	59023.72	3.3870	3.3869	-0.2929	25.55	0.69	-0.250			
0.9231	59077.33	3.3840	3.3839	-0.2796	25.55	0.69	-0.250			
0.9239	59128.43	3.3810	3.3812	-0.2712	25.55	0.69	-0.250			
0.9247	59180.40	3.3780	3.3780	-0.2644	25.55	0.69	-0.250			
0.9255	59230.20	3.3750	3.3749	-0.2570	25.56	0.70	-0.250			
0.9262	59278.55	3.3720	3.3721	-0.2495	25.56	0.70	-0.250			
0.9270	59325.90	3.3690	3.3691	-0.2440	25.57	0.71	-0.250			
0.9277	59372.31	3.3660	3.3659	-0.2377	25.57	0.71	-0.250			
0.9284	59417.04	3.3630	3.3630	-0.2303	25.57	0.71	-0.250			
0.9291	59459.99	3.3600	3.3600	-0.2245	25.57	0.71	-0.250			
0.9297	59502.46	3.3570	3.3571	-0.2220	25.57	0.71	-0.250			
0.9304	59544.71	3.3540	3.3540	-0.2193	25.58	0.72	-0.250			
0.9310	59586.12	3.3510	3.3509	-0.2163	25.58	0.72	-0.250			
0.9317	59627.62	3.3480	3.3480	-0.2131	25.58	0.72	-0.250			
0.9323	59668.07	3.3450	3.3452	-0.2111	25.58	0.72	-0.250			
0.9329	59708.60	3.3420	3.3420	-0.2084	25.58	0.72	-0.250			
0.9336	59748.95	3.3390	3.3390	-0.2062	25.58	0.72	-0.250			
0.9342	59788.13	3.3360	3.3359	-0.2025	25.58	0.72	-0.250			
0.9348	59826.54	3.3330	3.3331	-0.1984	25.59	0.73	-0.250			
0.9354	59864.74	3.3300	3.3300	-0.1947	25.59	0.73	-0.250			
0.9360	59901.52	3.3270	3.3269	-0.1910	25.59	0.73	-0.250			
0.9365	59937.61	3.3240	3.3241	-0.1885	25.59	0.73	-0.250			
0.9371	59972.82	3.3210	3.3210	-0.1847	25.60	0.74	-0.250			
0.9376	60007.97	3.3180	3.3179	-0.1824	25.60	0.74	-0.250			
0.9382	60042.28	3.3150	3.3151	-0.1814	25.60	0.74	-0.250			
0.9387	60076.99	3.3120	3.3120	-0.1811	25.61	0.75	-0.250			
0.9393	60112.46	3.3090	3.3090	-0.1793	25.61	0.75	-0.250			
0.9398	60147.14	3.3060	3.3058	-0.1782	25.61	0.75	-0.250			
0.9403	60181.58	3.3030	3.3029	-0.1753	25.62	0.76	-0.250			
0.9409	60214.93	3.3000	3.3000	-0.1727	25.62	0.76	-0.250	0.357	0.633	
0.9414	60247.74	3.2970	3.2970	-0.1690	25.62	0.76	-0.250			
0.9419	60279.86	3.2940	3.2939	-0.1673	25.62	0.76	-0.250			
0.9424	60311.45	3.2910	3.2909	-0.1657	25.62	0.76	-0.250			
0.9428	60341.97	3.2880	3.2879	-0.1637	25.63	0.77	-0.250			
0.9433	60373.39	3.2850	3.2851	-0.1633	25.63	0.77	-0.250			
0.9438	60404.88	3.2820	3.2820	-0.1622	25.63	0.77	-0.250			
0.9443	60436.24	3.2790	3.2789	-0.1613	25.63	0.77	-0.250			
0.9448	60467.19	3.2760	3.2760	-0.1598	25.63	0.77	-0.250			
0.9453	60497.81	3.2730	3.2730	-0.1567	25.63	0.77	-0.250			
0.9457	60527.65	3.2700	3.2700	-0.1548	25.64	0.78	-0.250			
0.9462	60556.96	3.2670	3.2671	-0.1528	25.64	0.78	-0.250			
0.9467	60586.11	3.2640	3.2640	-0.1509	25.64	0.78	-0.250			
0.9471	60614.64	3.2610	3.2609	-0.1491	25.64	0.78	-0.250			
0.9475	60643.00	3.2580	3.2580	-0.1480	25.64	0.78	-0.250			
0.9480	60671.38	3.2550	3.2551	-0.1464	25.65	0.79	-0.250			
0.9484	60699.45	3.2520	3.2519	-0.1450	25.65	0.79	-0.250			
0.9489	60727.47	3.2490	3.2491	-0.1438	25.65	0.79	-0.250			
0.9493	60754.77	3.2460	3.2460	-0.1422	25.65	0.79	-0.250			
0.9497	60781.68	3.2430	3.2431	-0.1411	25.66	0.80	-0.250			
0.9501	60808.80	3.2400	3.2400	-0.1398	25.66	0.80	-0.250			
0.9506	60835.53	3.2370	3.2369	-0.1387	25.66	0.80	-0.250			
0.9510	60862.06	3.2340	3.2339	-0.1368	25.67	0.81	-0.250			
0.9514	60888.39	3.2310	3.2310	-0.1358	25.67	0.81	-0.250			
0.9518	60914.29	3.2280	3.2281	-0.1343	25.67	0.81	-0.250			
0.9522	60939.89	3.2250	3.2250	-0.1324	25.67	0.81	-0.250			
0.9526	60965.07	3.2220	3.2219	-0.1307	25.68	0.82	-0.250			
0.9530	60989.76	3.2190	3.2190	-0.1288	25.68	0.82	-0.250			
0.9534	61014.50	3.2160	3.2159	-0.1280	25.68	0.82	-0.250			
0.9537	61038.92	3.2130	3.2131	-0.1268	25.69	0.83	-0.250			
0.9541	61063.18	3.2100	3.2100	-0.1256	25.69	0.83	-0.250			
0.9545	61087.06	3.2070	3.2070	-0.1242	25.69	0.83	-0.250			
0.9549	61110.82	3.2040	3.2040	-0.1232	25.69	0.83	-0.250			
0.9552	61134.35	3.2010	3.2011	-0.1223	25.70	0.84	-0.250			
0.9556	61157.78	3.1980	3.1980	-0.1214	25.70	0.84	-0.250			
0.9560	61181.12	3.1950	3.1949	-0.1196	25.70	0.84	-0.250			
0.9563	61204.04	3.1920	3.1920	-0.1182	25.70	0.84	-0.250			
