Ah_balance (normalized)	Ah_balance (mAh)	Voltage - fit (V)	Voltage -  interpolate (V)	dQ/dV (1/V)	Temperature (°C)	Temperature - diff (°C)	Current (C)	R_DC 0ms (mOhm)	R_DC 50ms (mOhm)	R_DC 50 ms PEC (mOhm)
0.0000	0.00	4.0970	4.1268	0.0000	5.99	0.00	-0.751			
0.0000	0.00	4.1000	4.1268	0.0000	5.99	0.00	-0.751			
0.0002	12.38	4.0940	4.0933	-0.0418	5.99	0.00	-0.750			
0.0004	24.35	4.0910	4.0903	-0.0687	5.99	0.00	-0.750			
0.0006	40.01	4.0880	4.0877	-0.0945	5.99	0.00	-0.750			
0.0009	60.58	4.0850	4.0849	-0.1204	5.99	0.00	-0.750			
0.0013	86.04	4.0820	4.0821	-0.1470	5.99	0.00	-0.750			
0.0018	116.77	4.0790	4.0790	-0.1733	5.99	0.00	-0.750			
0.0024	153.53	4.0760	4.0758	-0.1973	5.99	0.00	-0.750			
0.0030	193.70	4.0730	4.0729	-0.2206	5.99	0.00	-0.750			
0.0037	238.37	4.0700	4.0701	-0.2448	5.99	0.00	-0.750			
0.0045	287.68	4.0670	4.0671	-0.2692	5.99	0.00	-0.750			
0.0053	341.78	4.0640	4.0639	-0.2913	5.99	0.00	-0.750			
0.0063	400.26	4.0610	4.0610	-0.3112	5.99	0.00	-0.750			
0.0072	462.34	4.0580	4.0580	-0.3322	5.99	0.00	-0.750			
0.0083	528.64	4.0550	4.0551	-0.3515	5.99	0.00	-0.750			
0.0093	596.71	4.0520	4.0520	-0.3733	5.99	0.00	-0.750			
0.0105	669.58	4.0490	4.0490	-0.3963	5.99	0.00	-0.750			
0.0117	747.26	4.0460	4.0460	-0.4182	5.99	0.00	-0.750			
0.0130	831.11	4.0430	4.0428	-0.4387	5.99	0.00	-0.750			
0.0144	919.28	4.0400	4.0401	-0.4598	5.99	0.00	-0.750			
0.0158	1009.00	4.0370	4.0371	-0.4777	5.99	0.00	-0.750			
0.0172	1103.10	4.0340	4.0340	-0.4953	5.99	0.00	-0.750			
0.0187	1198.61	4.0310	4.0309	-0.5092	5.99	0.00	-0.750			
0.0203	1297.21	4.0280	4.0281	-0.5278	6.00	0.01	-0.750			
0.0219	1401.36	4.0250	4.0250	-0.5435	6.00	0.01	-0.750			
0.0236	1507.81	4.0220	4.0219	-0.5578	6.00	0.01	-0.750			
0.0252	1615.15	4.0190	4.0190	-0.5809	6.00	0.01	-0.750			
0.0270	1727.89	4.0160	4.0160	-0.6001	6.00	0.01	-0.750			
0.0288	1845.69	4.0130	4.0128	-0.6176	6.01	0.02	-0.750			
0.0307	1966.82	4.0100	4.0101	-0.6337	6.01	0.02	-0.750			
0.0327	2090.93	4.0070	4.0071	-0.6492	6.02	0.03	-0.750			
0.0347	2219.76	4.0040	4.0040	-0.6539	6.02	0.03	-0.750			
0.0367	2346.75	4.0010	4.0009	-0.6599	6.03	0.04	-0.750			
0.0386	2472.27	3.9980	3.9982	-0.6595	6.03	0.04	-0.750			
0.0406	2599.06	3.9950	3.9949	-0.6654	6.04	0.05	-0.750			
0.0426	2725.84	3.9920	3.9920	-0.6756	6.04	0.05	-0.750			
0.0446	2855.25	3.9890	3.9890	-0.6818	6.05	0.06	-0.750			
0.0467	2989.48	3.9860	3.9859	-0.6867	6.06	0.07	-0.750			
0.0488	3123.35	3.9830	3.9830	-0.6901	6.06	0.07	-0.750			
0.0509	3255.84	3.9800	3.9802	-0.6895	6.07	0.08	-0.750			
0.0529	3388.30	3.9770	3.9770	-0.6913	6.08	0.09	-0.750			
0.0550	3518.42	3.9740	3.9740	-0.6907	6.09	0.10	-0.750			
0.0570	3649.90	3.9710	3.9710	-0.6982	6.09	0.10	-0.750			
0.0591	3785.36	3.9680	3.9679	-0.7068	6.10	0.11	-0.750			
0.0613	3922.98	3.9650	3.9650	-0.7164	6.11	0.12	-0.750			
0.0635	4062.14	3.9620	3.9620	-0.7222	6.12	0.13	-0.750			
0.0656	4201.10	3.9590	3.9590	-0.7276	6.13	0.14	-0.750			
0.0678	4341.09	3.9560	3.9560	-0.7330	6.14	0.15	-0.750			
0.0700	4482.73	3.9530	3.9530	-0.7382	6.15	0.16	-0.750			
0.0723	4625.98	3.9500	3.9499	-0.7424	6.16	0.17	-0.750			
0.0745	4770.19	3.9470	3.9470	-0.7418	6.16	0.17	-0.750			
0.0768	4913.30	3.9440	3.9441	-0.7387	6.17	0.18	-0.750			
0.0790	5053.31	3.9410	3.9410	-0.7368	6.18	0.19	-0.750			
0.0812	5194.02	3.9380	3.9380	-0.7386	6.19	0.20	-0.750			
0.0833	5332.75	3.9350	3.9350	-0.7346	6.20	0.21	-0.750			
0.0856	5476.01	3.9320	3.9319	-0.7422	6.21	0.22	-0.750			
0.0878	5618.83	3.9290	3.9291	-0.7457	6.22	0.23	-0.750			
0.0900	5762.56	3.9260	3.9259	-0.7500	6.23	0.24	-0.750			
0.0923	5908.10	3.9230	3.9230	-0.7523	6.24	0.25	-0.750			
0.0946	6052.26	3.9200	3.9200	-0.7535	6.24	0.25	-0.750			
0.0968	6196.84	3.9170	3.9169	-0.7461	6.25	0.26	-0.750			
0.0991	6341.21	3.9140	3.9141	-0.7498	6.26	0.27	-0.750			
0.1013	6483.68	3.9110	3.9113	-0.7526	6.27	0.28	-0.750			
0.1036	6627.63	3.9080	3.9077	-0.7531	6.28	0.29	-0.750			
0.1058	6772.34	3.9050	3.9050	-0.7587	6.29	0.30	-0.750			
0.1081	6917.80	3.9020	3.9021	-0.7637	6.30	0.31	-0.750			
0.1104	7068.15	3.8990	3.8990	-0.7707	6.32	0.33	-0.750			
0.1128	7217.26	3.8960	3.8959	-0.7697	6.33	0.34	-0.750			
0.1150	7362.11	3.8930	3.8930	-0.7675	6.34	0.35	-0.750			
0.1173	7509.29	3.8900	3.8900	-0.7701	6.35	0.36	-0.750			
0.1196	7656.76	3.8870	3.8870	-0.7729	6.35	0.36	-0.750			
0.1220	7806.01	3.8840	3.8840	-0.7652	6.36	0.37	-0.750			
0.1243	7953.90	3.8810	3.8811	-0.7693	6.37	0.38	-0.750			
0.1266	8101.82	3.8780	3.8781	-0.7721	6.38	0.39	-0.750			
0.1289	8249.11	3.8750	3.8749	-0.7725	6.39	0.40	-0.750			
0.1312	8396.67	3.8720	3.8719	-0.7763	6.40	0.41	-0.750			
0.1335	8545.46	3.8690	3.8691	-0.7805	6.42	0.43	-0.750			
0.1359	8697.39	3.8660	3.8659	-0.7860	6.43	0.44	-0.750			
0.1383	8849.90	3.8630	3.8630	-0.7934	6.44	0.45	-0.750			
0.1407	9001.79	3.8600	3.8600	-0.7878	6.45	0.46	-0.750			
0.1430	9153.09	3.8570	3.8571	-0.7921	6.46	0.47	-0.750			
0.1454	9304.84	3.8540	3.8540	-0.7955	6.47	0.48	-0.750			
0.1478	9457.94	3.8510	3.8509	-0.7952	6.48	0.49	-0.750			
0.1502	9612.71	3.8480	3.8480	-0.7854	6.50	0.51	-0.750			
0.1525	9762.63	3.8450	3.8450	-0.7809	6.51	0.52	-0.750			
0.1548	9909.69	3.8420	3.8422	-0.7879	6.52	0.53	-0.750			
0.1572	10061.83	3.8390	3.8387	-0.7935	6.52	0.53	-0.750			
0.1596	10211.86	3.8360	3.8359	-0.7940	6.53	0.54	-0.750			
0.1620	10365.65	3.8330	3.8330	-0.8010	6.54	0.55	-0.750			
0.1644	10523.31	3.8300	3.8301	-0.8086	6.56	0.57	-0.750			
0.1669	10679.42	3.8270	3.8270	-0.8160	6.57	0.58	-0.750			
0.1693	10837.46	3.8240	3.8239	-0.8042	6.58	0.59	-0.750			
0.1717	10990.33	3.8210	3.8210	-0.7938	6.60	0.61	-0.750			
0.1741	11144.07	3.8180	3.8179	-0.7901	6.61	0.62	-0.750			
0.1765	11293.95	3.8150	3.8153	-0.7887	6.62	0.63	-0.750			
0.1788	11443.22	3.8120	3.8118	-0.7904	6.63	0.64	-0.750			
0.1811	11592.93	3.8090	3.8089	-0.7942	6.64	0.65	-0.750			
0.1835	11743.12	3.8060	3.8061	-0.7974	6.65	0.66	-0.750			
0.1860	11902.21	3.8030	3.8030	-0.8138	6.66	0.67	-0.750			
0.1884	12060.49	3.8000	3.7999	-0.8165	6.67	0.68	-0.750			
0.1909	12217.61	3.7970	3.7970	-0.8132	6.68	0.69	-0.750			
0.1933	12372.58	3.7940	3.7941	-0.8157	6.69	0.70	-0.750			
0.1958	12528.56	3.7910	3.7910	-0.8152	6.70	0.71	-0.750			
0.1982	12685.86	3.7880	3.7877	-0.8180	6.72	0.73	-0.750			
0.2007	12842.75	3.7850	3.7851	-0.8178	6.73	0.74	-0.750			
0.2031	12999.60	3.7820	3.7820	-0.8220	6.74	0.75	-0.750			
0.2056	13160.51	3.7790	3.7790	-0.8262	6.75	0.76	-0.750			
0.2081	13320.51	3.7760	3.7759	-0.8209	6.76	0.77	-0.750			
0.2105	13475.17	3.7730	3.7730	-0.8159	6.78	0.79	-0.750			
0.2130	13633.27	3.7700	3.7702	-0.8133	6.79	0.80	-0.750			
0.2154	13787.84	3.7670	3.7669	-0.8149	6.80	0.81	-0.750			
0.2179	13943.16	3.7640	3.7639	-0.8199	6.81	0.82	-0.750			
0.2203	14100.47	3.7610	3.7610	-0.8209	6.82	0.83	-0.750			
0.2228	14258.78	3.7580	3.7580	-0.8236	6.83	0.84	-0.750			
0.2253	14420.57	3.7550	3.7551	-0.8294	6.84	0.85	-0.750			
0.2278	14578.32	3.7520	3.7519	-0.8323	6.85	0.86	-0.750			
0.2303	14738.14	3.7490	3.7489	-0.8383	6.86	0.87	-0.750			
0.2328	14897.81	3.7460	3.7460	-0.8402	6.87	0.88	-0.750			
0.2353	15059.57	3.7430	3.7429	-0.8400	6.88	0.89	-0.750			
0.2379	15226.00	3.7400	3.7402	-0.8473	6.89	0.90	-0.750			
0.2404	15387.94	3.7370	3.7369	-0.8460	6.90	0.91	-0.750			
0.2429	15548.36	3.7340	3.7340	-0.8498	6.91	0.92	-0.750			
0.2455	15711.59	3.7310	3.7310	-0.8459	6.92	0.93	-0.750			
0.2480	15871.68	3.7280	3.7279	-0.8467	6.93	0.94	-0.750			
0.2506	16035.47	3.7250	3.7251	-0.8603	6.94	0.95	-0.750			
0.2531	16200.73	3.7220	3.7221	-0.8749	6.95	0.96	-0.750			
0.2558	16370.79	3.7190	3.7188	-0.8814	6.96	0.97	-0.750			
0.2585	16542.13	3.7160	3.7160	-0.8794	6.98	0.99	-0.750			
0.2611	16711.30	3.7130	3.7131	-0.8793	6.99	1.00	-0.750			
0.2638	16884.83	3.7100	3.7102	-0.8826	7.00	1.01	-0.750			
0.2664	17049.79	3.7070	3.7069	-0.8831	7.01	1.02	-0.750			
0.2690	17214.57	3.7040	3.7040	-0.8778	7.02	1.03	-0.750			
0.2716	17383.22	3.7010	3.7008	-0.8883	7.03	1.04	-0.750			
0.2743	17557.81	3.6980	3.6980	-0.8962	7.03	1.04	-0.750			
0.2770	17730.80	3.6950	3.6950	-0.9011	7.04	1.05	-0.750			
0.2797	17903.24	3.6920	3.6921	-0.9181	7.05	1.06	-0.750			
0.2825	18081.17	3.6890	3.6890	-0.9274	7.07	1.08	-0.750			
0.2853	18257.38	3.6860	3.6858	-0.9271	7.08	1.09	-0.750			
0.2881	18440.05	3.6830	3.6831	-0.9368	7.09	1.10	-0.750			
0.2909	18620.58	3.6800	3.6801	-0.9438	7.10	1.11	-0.750			
0.2938	18804.44	3.6770	3.6770	-0.9425	7.11	1.12	-0.750			
0.2966	18984.73	3.6740	3.6739	-0.9344	7.12	1.13	-0.750			
0.2994	19160.08	3.6710	3.6710	-0.9354	7.13	1.14	-0.750			
0.3022	19340.24	3.6680	3.6681	-0.9432	7.14	1.15	-0.750			
0.3050	19520.84	3.6650	3.6649	-0.9558	7.15	1.16	-0.750			
0.3079	19704.97	3.6620	3.6619	-0.9679	7.16	1.17	-0.750			
0.3108	19890.79	3.6590	3.6591	-0.9803	7.17	1.18	-0.750			
0.3138	20083.93	3.6560	3.6561	-0.9935	7.18	1.19	-0.750			
0.3168	20277.25	3.6530	3.6530	-1.0045	7.19	1.20	-0.750			
0.3198	20470.00	3.6500	3.6500	-1.0088	7.20	1.21	-0.750			
0.3229	20662.96	3.6470	3.6470	-1.0149	7.21	1.22	-0.750			
0.3259	20858.65	3.6440	3.6439	-1.0188	7.22	1.23	-0.750			
0.3290	21053.50	3.6410	3.6410	-1.0286	7.23	1.24	-0.750			
0.3321	21251.69	3.6380	3.6380	-1.0368	7.24	1.25	-0.750			
0.3352	21452.96	3.6350	3.6350	-1.0445	7.25	1.26	-0.750			
0.3383	21653.58	3.6320	3.6318	-1.0514	7.26	1.27	-0.750			
0.3415	21856.32	3.6290	3.6291	-1.0571	7.27	1.28	-0.750			
0.3447	22061.83	3.6260	3.6260	-1.0560	7.27	1.28	-0.750			
0.3479	22264.22	3.6230	3.6230	-1.0625	7.28	1.29	-0.750			
0.3510	22466.97	3.6200	3.6200	-1.0647	7.29	1.30	-0.750			
0.3542	22669.53	3.6170	3.6170	-1.0790	7.30	1.31	-0.750			
0.3575	22877.37	3.6140	3.6138	-1.0932	7.31	1.32	-0.750			
0.3607	23087.27	3.6110	3.6110	-1.1069	7.31	1.32	-0.750			
0.3641	23301.52	3.6080	3.6080	-1.1300	7.32	1.33	-0.750			
0.3676	23525.40	3.6050	3.6050	-1.1365	7.33	1.34	-0.750			
0.3710	23744.76	3.6020	3.6019	-1.1410	7.34	1.35	-0.750			
0.3745	23966.47	3.5990	3.5989	-1.1558	7.35	1.36	-0.750			
0.3780	24188.96	3.5960	3.5958	-1.1532	7.35	1.36	-0.750			
0.3814	24411.52	3.5930	3.5928	-1.1557	7.36	1.37	-0.750			
0.3849	24632.52	3.5900	3.5899	-1.1624	7.37	1.38	-0.750	0.372	0.853	
0.3884	24855.24	3.5870	3.5869	-1.1587	7.38	1.39	-0.750			
0.3919	25081.13	3.5840	3.5839	-1.1798	7.39	1.40	-0.750			
0.3954	25302.54	3.5810	3.5811	-1.1803	7.40	1.41	-0.750			
0.3989	25529.57	3.5780	3.5780	-1.1866	7.41	1.42	-0.750			
0.4026	25764.02	3.5750	3.5750	-1.2101	7.42	1.43	-0.750			
0.4062	25996.67	3.5720	3.5720	-1.2180	7.43	1.44	-0.750			
0.4098	26230.00	3.5690	3.5689	-1.2315	7.43	1.44	-0.750			
0.4136	26468.65	3.5660	3.5659	-1.2418	7.44	1.45	-0.750			
0.4174	26712.52	3.5630	3.5630	-1.2535	7.45	1.46	-0.750			
0.4212	26955.06	3.5600	3.5599	-1.2647	7.46	1.47	-0.750			
0.4250	27197.55	3.5570	3.5572	-1.2811	7.47	1.48	-0.750			
0.4288	27443.19	3.5540	3.5539	-1.2912	7.48	1.49	-0.750			
0.4327	27692.28	3.5510	3.5509	-1.3032	7.49	1.50	-0.750			
0.4366	27941.23	3.5480	3.5480	-1.3241	7.50	1.51	-0.750			
0.4406	28199.30	3.5450	3.5451	-1.3242	7.52	1.53	-0.750			
0.4447	28461.13	3.5420	3.5419	-1.3331	7.52	1.53	-0.750			
0.4487	28715.29	3.5390	3.5390	-1.3242	7.53	1.54	-0.750			
0.4526	28966.60	3.5360	3.5360	-1.3172	7.54	1.55	-0.750			
0.4565	29218.87	3.5330	3.5330	-1.3273	7.55	1.56	-0.750			
0.4605	29469.99	3.5300	3.5300	-1.3349	7.56	1.57	-0.750			
0.4644	29723.14	3.5270	3.5270	-1.3501	7.56	1.57	-0.750			
0.4686	29993.00	3.5240	3.5239	-1.3619	7.58	1.59	-0.750			
0.4728	30258.50	3.5210	3.5210	-1.3611	7.60	1.61	-0.750			
0.4769	30521.01	3.5180	3.5181	-1.3593	7.61	1.62	-0.750			
0.4810	30783.82	3.5150	3.5149	-1.3431	7.63	1.64	-0.750			
0.4850	31038.02	3.5120	3.5119	-1.3322	7.64	1.65	-0.750			
0.4889	31288.09	3.5090	3.5093	-1.3332	7.65	1.66	-0.750			
0.4929	31543.24	3.5060	3.5058	-1.3387	7.66	1.67	-0.750			
0.4969	31802.56	3.5030	3.5029	-1.3487	7.66	1.67	-0.750			
0.5010	32062.36	3.5000	3.5003	-1.3554	7.67	1.68	-0.750			
0.5052	32329.69	3.4970	3.4969	-1.3592	7.68	1.69	-0.750			
0.5092	32591.88	3.4940	3.4940	-1.3485	7.70	1.71	-0.750			
0.5132	32846.67	3.4910	3.4912	-1.3364	7.71	1.72	-0.750			
0.5173	33104.72	3.4880	3.4880	-1.3328	7.72	1.73	-0.750			
0.5212	33355.88	3.4850	3.4848	-1.3223	7.73	1.74	-0.750			
0.5251	33604.68	3.4820	3.4821	-1.3271	7.75	1.76	-0.750			
0.5291	33862.49	3.4790	3.4789	-1.3376	7.76	1.77	-0.750			
0.5332	34121.88	3.4760	3.4758	-1.3315	7.77	1.78	-0.750			
0.5372	34380.17	3.4730	3.4731	-1.3234	7.78	1.79	-0.750			
0.5411	34633.39	3.4700	3.4700	-1.3019	7.79	1.80	-0.750			
0.5451	34886.97	3.4670	3.4669	-1.2873	7.80	1.81	-0.750			
0.5489	35127.86	3.4640	3.4640	-1.2690	7.81	1.82	-0.750			
0.5525	35361.47	3.4610	3.4610	-1.2518	7.83	1.84	-0.750			
0.5563	35602.61	3.4580	3.4580	-1.2580	7.84	1.85	-0.750			
0.5601	35844.21	3.4550	3.4549	-1.2637	7.86	1.87	-0.750			
0.5639	36090.17	3.4520	3.4520	-1.2665	7.87	1.88	-0.750			
0.5678	36336.60	3.4490	3.4490	-1.2605	7.88	1.89	-0.750			
0.5716	36583.11	3.4460	3.4459	-1.2449	7.90	1.91	-0.750			
0.5753	36818.55	3.4430	3.4432	-1.2250	7.91	1.92	-0.750			
0.5789	37049.37	3.4400	3.4399	-1.2079	7.92	1.93	-0.750			
0.5825	37279.45	3.4370	3.4369	-1.1905	7.93	1.94	-0.750			
0.5860	37504.34	3.4340	3.4339	-1.1750	7.94	1.95	-0.750			
0.5895	37729.77	3.4310	3.4312	-1.1654	7.95	1.96	-0.750			
0.5931	37957.24	3.4280	3.4279	-1.1546	7.97	1.98	-0.750			
0.5965	38177.50	3.4250	3.4249	-1.1338	7.99	2.00	-0.750			
0.5998	38389.69	3.4220	3.4222	-1.1122	8.00	2.01	-0.750			
0.6032	38602.78	3.4190	3.4190	-1.1042	8.02	2.03	-0.750			
0.6064	38812.71	3.4160	3.4159	-1.0929	8.03	2.04	-0.750			
0.6097	39022.10	3.4130	3.4129	-1.0739	8.04	2.05	-0.750			
0.6129	39225.73	3.4100	3.4101	-1.0638	8.05	2.06	-0.750			
0.6161	39433.24	3.4070	3.4070	-1.0621	8.07	2.08	-0.750			
0.6193	39636.28	3.4040	3.4039	-1.0427	8.09	2.10	-0.750			
0.6224	39834.28	3.4010	3.4008	-1.0177	8.11	2.12	-0.750			
0.6254	40027.80	3.3980	3.3983	-0.9986	8.13	2.14	-0.750			
0.6284	40217.82	3.3950	3.3949	-0.9734	8.14	2.15	-0.750			
0.6313	40402.86	3.3920	3.3920	-0.9507	8.16	2.17	-0.750			
0.6341	40579.76	3.3890	3.3890	-0.9186	8.17	2.18	-0.750			
0.6368	40753.84	3.3860	3.3857	-0.8941	8.18	2.19	-0.750			
0.6395	40925.12	3.3830	3.3831	-0.8786	8.19	2.20	-0.750			
0.6420	41091.07	3.3800	3.3801	-0.8602	8.21	2.22	-0.750			
0.6446	41255.20	3.3770	3.3770	-0.8363	8.22	2.23	-0.750			
0.6471	41412.67	3.3740	3.3739	-0.8115	8.23	2.24	-0.750			
0.6495	41568.11	3.3710	3.3710	-0.7975	8.24	2.25	-0.750			
0.6519	41719.38	3.3680	3.3680	-0.7787	8.26	2.27	-0.750			
0.6542	41866.57	3.3650	3.3650	-0.7616	8.27	2.28	-0.750			
0.6564	42009.76	3.3620	3.3620	-0.7405	8.28	2.29	-0.750			
0.6586	42150.67	3.3590	3.3590	-0.7250	8.30	2.31	-0.750			
0.6608	42290.33	3.3560	3.3560	-0.7123	8.31	2.32	-0.750			
0.6629	42425.10	3.3530	3.3530	-0.6908	8.33	2.34	-0.750			
0.6649	42555.70	3.3500	3.3500	-0.6734	8.34	2.35	-0.750			
0.6669	42682.14	3.3470	3.3470	-0.6608	8.35	2.36	-0.750			
0.6689	42806.50	3.3440	3.3441	-0.6505	8.36	2.37	-0.750			
0.6708	42931.54	3.3410	3.3409	-0.6424	8.37	2.38	-0.750			
0.6727	43054.56	3.3380	3.3380	-0.6325	8.38	2.39	-0.750			
0.6746	43175.80	3.3350	3.3350	-0.6221	8.39	2.40	-0.750			
0.6765	43294.71	3.3320	3.3321	-0.6082	8.40	2.41	-0.750			
0.6783	43411.20	3.3290	3.3289	-0.5902	8.42	2.43	-0.750			
0.6800	43521.81	3.3260	3.3260	-0.5722	8.43	2.44	-0.750			
0.6817	43628.83	3.3230	3.3231	-0.5520	8.45	2.46	-0.750			
0.6833	43733.68	3.3200	3.3200	-0.5416	8.46	2.47	-0.750			
0.6849	43835.72	3.3170	3.3168	-0.5297	8.47	2.48	-0.750			
0.6865	43934.59	3.3140	3.3141	-0.5172	8.48	2.49	-0.750			
0.6880	44033.61	3.3110	3.3109	-0.5060	8.50	2.51	-0.750			
0.6896	44131.41	3.3080	3.3080	-0.4953	8.51	2.52	-0.750			
0.6910	44224.68	3.3050	3.3051	-0.4858	8.52	2.53	-0.750			
0.6924	44315.99	3.3020	3.3021	-0.4794	8.53	2.54	-0.750			
0.6938	44406.12	3.2990	3.2989	-0.4716	8.54	2.55	-0.750			
0.6952	44495.31	3.2960	3.2959	-0.4654	8.55	2.56	-0.750			
0.6966	44585.32	3.2930	3.2931	-0.4579	8.56	2.57	-0.750			
0.6980	44673.23	3.2900	3.2900	-0.4508	8.57	2.58	-0.750			
0.6994	44760.17	3.2870	3.2870	-0.4446	8.58	2.59	-0.750			
0.7007	44844.25	3.2840	3.2840	-0.4327	8.59	2.60	-0.750			
0.7020	44925.13	3.2810	3.2809	-0.4233	8.60	2.61	-0.750			
0.7032	45005.89	3.2780	3.2780	-0.4171	8.61	2.62	-0.750			
0.7044	45084.60	3.2750	3.2750	-0.4097	8.62	2.63	-0.750			
0.7057	45162.79	3.2720	3.2720	-0.4035	8.63	2.64	-0.750			
0.7069	45240.36	3.2690	3.2690	-0.3947	8.64	2.65	-0.750			
0.7081	45315.30	3.2660	3.2659	-0.3869	8.65	2.66	-0.750			
0.7092	45389.36	3.2630	3.2631	-0.3796	8.66	2.67	-0.750			
0.7103	45460.75	3.2600	3.2600	-0.3737	8.67	2.68	-0.750			
0.7114	45531.57	3.2570	3.2569	-0.3683	8.68	2.69	-0.750			
0.7125	45602.18	3.2540	3.2538	-0.3623	8.69	2.70	-0.750			
0.7136	45671.47	3.2510	3.2511	-0.3556	8.70	2.71	-0.750			
0.7147	45739.52	3.2480	3.2480	-0.3488	8.71	2.72	-0.750			
0.7157	45805.94	3.2450	3.2450	-0.3403	8.72	2.73	-0.750			
0.7167	45870.14	3.2420	3.2420	-0.3321	8.73	2.74	-0.750			
0.7177	45931.59	3.2390	3.2391	-0.3295	8.74	2.75	-0.750			
0.7187	45994.07	3.2360	3.2360	-0.3262	8.75	2.76	-0.750			
0.7196	46056.32	3.2330	3.2329	-0.3257	8.76	2.77	-0.750			
0.7206	46118.94	3.2300	3.2300	-0.3245	8.77	2.78	-0.750			
0.7216	46181.97	3.2270	3.2271	-0.3222	8.78	2.79	-0.750			
0.7226	46244.25	3.2240	3.2239	-0.3172	8.79	2.80	-0.750			
0.7235	46304.47	3.2210	3.2212	-0.3127	8.80	2.81	-0.750			
0.7244	46363.47	3.2180	3.2181	-0.3058	8.81	2.82	-0.750			
0.7253	46421.80	3.2150	3.2149	-0.3028	8.82	2.83	-0.750			
0.7262	46479.20	3.2120	3.2120	-0.2983	8.82	2.83	-0.750			
0.7271	46535.61	3.2090	3.2091	-0.2946	8.83	2.84	-0.750			
0.7280	46592.34	3.2060	3.2060	-0.2936	8.84	2.85	-0.750			
0.7289	46648.67	3.2030	3.2031	-0.2902	8.85	2.86	-0.750			
0.7297	46703.89	3.2000	3.1999	-0.2857	8.86	2.87	-0.750			
0.7306	46758.30	3.1970	3.1969	-0.2814	8.87	2.88	-0.750			
0.7314	46812.41	3.1940	3.1941	-0.2759	8.88	2.89	-0.750			
0.7323	46864.69	3.1910	3.1910	-0.2726	8.89	2.90	-0.750			
0.7331	46916.49	3.1880	3.1880	-0.2688	8.90	2.91	-0.750			
0.7339	46967.56	3.1850	3.1849	-0.2650	8.91	2.92	-0.750			
0.7347	47018.04	3.1820	3.1819	-0.2610	8.92	2.93	-0.750			
0.7354	47067.61	3.1790	3.1791	-0.2582	8.93	2.94	-0.750			
0.7362	47117.27	3.1760	3.1760	-0.2557	8.94	2.95	-0.750			
0.7370	47166.09	3.1730	3.1731	-0.2531	8.95	2.96	-0.750			
0.7377	47214.24	3.1700	3.1699	-0.2494	8.95	2.96	-0.750			
0.7385	47261.14	3.1670	3.1671	-0.2462	8.96	2.97	-0.750			
0.7392	47308.36	3.1640	3.1640	-0.2442	8.97	2.98	-0.750			
0.7399	47355.26	3.1610	3.1610	-0.2424	8.98	2.99	-0.750			
0.7407	47401.85	3.1580	3.1580	-0.2403	8.99	3.00	-0.750			
0.7414	47447.40	3.1550	3.1550	-0.2369	9.00	3.01	-0.750			
0.7421	47492.71	3.1520	3.1520	-0.2356	9.00	3.01	-0.750			
0.7428	47537.61	3.1490	3.1491	-0.2334	9.01	3.02	-0.750			
0.7435	47582.26	3.1460	3.1460	-0.2316	9.02	3.03	-0.750			
0.7442	47626.42	3.1430	3.1429	-0.2300	9.03	3.04	-0.750			
0.7448	47670.29	3.1400	3.1401	-0.2290	9.04	3.05	-0.750			
0.7455	47714.37	3.1370	3.1370	-0.2272	9.05	3.06	-0.750			
0.7462	47757.72	3.1340	3.1340	-0.2260	9.06	3.07	-0.750			
0.7469	47801.15	3.1310	3.1310	-0.2248	9.07	3.08	-0.750			
0.7476	47844.19	3.1280	3.1280	-0.2219	9.07	3.08	-0.750			
0.7482	47886.76	3.1250	3.1250	-0.2202	9.08	3.09	-0.750			
0.7489	47928.79	3.1220	3.1221	-0.2177	9.09	3.10	-0.750			
0.7495	47970.38	3.1190	3.1190	-0.2152	9.10	3.11	-0.750			
0.7502	48011.33	3.1160	3.1159	-0.2125	9.11	3.12	-0.750			
0.7508	48052.26	3.1130	3.1130	-0.2095	9.12	3.13	-0.750			
0.7514	48091.46	3.1100	3.1101	-0.2071	9.13	3.14	-0.750			
0.7520	48131.10	3.1070	3.1070	-0.2056	9.14	3.15	-0.750			
0.7527	48170.54	3.1040	3.1041	-0.2043	9.14	3.15	-0.750			
0.7533	48209.19	3.1010	3.1009	-0.2028	9.15	3.16	-0.750			
0.7539	48248.06	3.0980	3.0982	-0.2018	9.16	3.17	-0.750			
0.7545	48286.83	3.0950	3.0950	-0.2012	9.17	3.18	-0.750			
0.7551	48325.48	3.0920	3.0920	-0.1996	9.18	3.19	-0.750			
0.7557	48363.95	3.0890	3.0890	-0.1989	9.19	3.20	-0.750			
0.7563	48401.39	3.0860	3.0860	-0.1970	9.20	3.21	-0.750			
0.7569	48439.25	3.0830	3.0830	-0.1967	9.21	3.22	-0.750			
0.7575	48477.04	3.0800	3.0800	-0.1956	9.22	3.23	-0.750			
0.7580	48514.68	3.0770	3.0770	-0.1933	9.23	3.24	-0.750			
0.7586	48551.72	3.0740	3.0741	-0.1921	9.23	3.24	-0.750			
