Ah_balance (normalized)	Ah_balance (mAh)	Voltage - fit (V)	Voltage -  interpolate (V)	dQ/dV (1/V)	Temperature (°C)	Temperature - diff (°C)	Current (C)	R_DC 0ms (mOhm)	R_DC 50ms (mOhm)	R_DC 50 ms PEC (mOhm)
0.0958	6130.25	4.1990	4.1965	0.6355	8.14	2.14	0.750	0.400	0.830	
0.0979	6262.50	4.1960	4.1982	0.7354	8.13	2.13	0.750			
0.1002	6415.90	4.1930	4.1947	0.8027	8.12	2.12	0.750			
0.1028	6580.47	4.1900	4.1915	0.8113	8.11	2.11	0.750			
0.1054	6746.76	4.1870	4.1877	0.8180	8.10	2.10	0.750			
0.1078	6899.01	4.1840	4.1843	0.7726	8.10	2.10	0.750			
0.1105	7074.52	4.1810	4.1804	0.7843	8.09	2.09	0.750			
0.1122	7179.74	4.1780	4.1780	0.6964	8.08	2.08	0.750			
0.1143	7313.36	4.1750	4.1749	0.7002	8.08	2.08	0.750			
0.1164	7446.47	4.1720	4.1719	0.7055	8.07	2.07	0.750			
0.1185	7584.27	4.1690	4.1691	0.7051	8.06	2.06	0.750			
0.1206	7720.95	4.1660	4.1660	0.7078	8.06	2.06	0.750			
0.1228	7857.38	4.1630	4.1631	0.7082	8.05	2.05	0.750			
0.1249	7992.30	4.1600	4.1600	0.7059	8.04	2.04	0.750			
0.1270	8126.71	4.1570	4.1570	0.7101	8.04	2.04	0.750			
0.1291	8261.94	4.1540	4.1539	0.7145	8.03	2.03	0.750			
0.1312	8399.08	4.1510	4.1510	0.7230	8.02	2.02	0.750			
0.1334	8539.91	4.1480	4.1480	0.7373	8.01	2.01	0.750			
0.1357	8682.25	4.1450	4.1450	0.7438	8.01	2.01	0.750			
0.1379	8827.46	4.1420	4.1419	0.7445	8.00	2.00	0.750			
0.1402	8972.22	4.1390	4.1390	0.7440	7.99	1.99	0.750			
0.1424	9115.41	4.1360	4.1361	0.7374	7.99	1.99	0.750			
0.1446	9256.09	4.1330	4.1331	0.7377	7.98	1.98	0.750			
0.1468	9395.39	4.1300	4.1300	0.7359	7.98	1.98	0.750			
0.1490	9535.48	4.1270	4.1269	0.7418	7.97	1.97	0.750			
0.1512	9677.69	4.1240	4.1241	0.7495	7.97	1.97	0.750			
0.1535	9822.54	4.1210	4.1211	0.7607	7.96	1.96	0.750			
0.1558	9973.61	4.1180	4.1179	0.7598	7.95	1.95	0.750			
0.1581	10119.94	4.1150	4.1150	0.7590	7.95	1.95	0.750			
0.1604	10264.25	4.1120	4.1121	0.7609	7.94	1.94	0.750			
0.1626	10409.11	4.1090	4.1089	0.7648	7.93	1.93	0.750			
0.1649	10554.24	4.1060	4.1058	0.7673	7.92	1.92	0.750			
0.1673	10704.34	4.1030	4.1030	0.7678	7.92	1.92	0.750			
0.1696	10852.95	4.1000	4.1000	0.7722	7.91	1.91	0.750			
0.1719	11003.72	4.0970	4.0971	0.7775	7.90	1.90	0.750			
0.1742	11151.38	4.0940	4.0941	0.7746	7.89	1.89	0.750			
0.1765	11298.33	4.0910	4.0910	0.7790	7.89	1.89	0.750			
0.1789	11447.51	4.0880	4.0880	0.7768	7.88	1.88	0.750			
0.1812	11597.03	4.0850	4.0849	0.7876	7.88	1.88	0.750			
0.1836	11753.58	4.0820	4.0820	0.7979	7.87	1.87	0.750			
0.1860	11904.64	4.0790	4.0791	0.7998	7.86	1.86	0.750			
0.1884	12058.91	4.0760	4.0759	0.8049	7.86	1.86	0.750			
0.1909	12214.90	4.0730	4.0730	0.8042	7.85	1.85	0.750			
0.1932	12367.94	4.0700	4.0700	0.8008	7.84	1.84	0.750			
0.1957	12521.70	4.0670	4.0670	0.8096	7.84	1.84	0.750			
0.1981	12676.17	4.0640	4.0641	0.8116	7.83	1.83	0.750			
0.2005	12833.86	4.0610	4.0609	0.8171	7.82	1.82	0.750			
0.2030	12991.05	4.0580	4.0581	0.8160	7.81	1.81	0.750			
0.2055	13149.25	4.0550	4.0551	0.8184	7.81	1.81	0.750			
0.2079	13308.17	4.0520	4.0521	0.8230	7.80	1.80	0.750			
0.2104	13463.59	4.0490	4.0490	0.8254	7.80	1.80	0.750			
0.2128	13621.64	4.0460	4.0458	0.8282	7.79	1.79	0.750			
0.2153	13782.20	4.0430	4.0430	0.8282	7.78	1.78	0.750			
0.2178	13941.07	4.0400	4.0401	0.8341	7.77	1.77	0.750			
0.2204	14103.61	4.0370	4.0372	0.8389	7.76	1.76	0.750			
0.2229	14262.43	4.0340	4.0339	0.8411	7.75	1.75	0.750			
0.2254	14424.74	4.0310	4.0309	0.8463	7.74	1.74	0.750			
0.2279	14585.41	4.0280	4.0282	0.8519	7.73	1.73	0.750			
0.2305	14751.29	4.0250	4.0250	0.8566	7.73	1.73	0.750			
0.2331	14919.04	4.0220	4.0220	0.8665	7.72	1.72	0.750			
0.2357	15083.50	4.0190	4.0191	0.8675	7.72	1.72	0.750			
0.2383	15251.54	4.0160	4.0159	0.8691	7.71	1.71	0.750			
0.2409	15418.58	4.0130	4.0131	0.8646	7.70	1.70	0.750			
0.2435	15584.32	4.0100	4.0099	0.8725	7.69	1.69	0.750			
0.2461	15750.99	4.0070	4.0071	0.8763	7.68	1.68	0.750			
0.2488	15920.38	4.0040	4.0039	0.8848	7.68	1.68	0.750			
0.2514	16088.28	4.0010	4.0010	0.8858	7.67	1.67	0.750			
0.2541	16261.89	3.9980	3.9980	0.8838	7.66	1.66	0.750			
0.2568	16432.42	3.9950	3.9951	0.8980	7.65	1.65	0.750			
0.2594	16604.21	3.9920	3.9919	0.9019	7.65	1.65	0.750			
0.2621	16774.77	3.9890	3.9890	0.9039	7.64	1.64	0.750			
0.2649	16951.67	3.9860	3.9861	0.9098	7.63	1.63	0.750			
0.2676	17127.32	3.9830	3.9830	0.9141	7.63	1.63	0.750			
0.2704	17304.21	3.9800	3.9800	0.9205	7.62	1.62	0.750			
0.2732	17481.78	3.9770	3.9771	0.9291	7.61	1.61	0.750			
0.2759	17658.23	3.9740	3.9738	0.9267	7.60	1.60	0.750			
0.2787	17837.53	3.9710	3.9709	0.9267	7.59	1.59	0.750			
0.2815	18014.13	3.9680	3.9681	0.9321	7.59	1.59	0.750			
0.2843	18193.71	3.9650	3.9650	0.9417	7.58	1.58	0.750			
0.2871	18374.67	3.9620	3.9619	0.9508	7.57	1.57	0.750			
0.2900	18557.92	3.9590	3.9590	0.9565	7.56	1.56	0.750			
0.2928	18742.35	3.9560	3.9560	0.9608	7.55	1.55	0.750			
0.2958	18929.44	3.9530	3.9530	0.9703	7.55	1.55	0.750			
0.2987	19118.03	3.9500	3.9501	0.9708	7.54	1.54	0.750			
0.3016	19304.51	3.9470	3.9470	0.9747	7.53	1.53	0.750			
0.3045	19489.69	3.9440	3.9440	0.9762	7.52	1.52	0.750			
0.3075	19676.84	3.9410	3.9410	0.9816	7.51	1.51	0.750			
0.3104	19866.64	3.9380	3.9380	0.9877	7.50	1.50	0.750			
0.3134	20054.76	3.9350	3.9353	1.0044	7.49	1.49	0.750			
0.3164	20248.45	3.9320	3.9319	1.0142	7.48	1.48	0.750			
0.3195	20446.19	3.9290	3.9290	1.0316	7.47	1.47	0.750			
0.3226	20645.89	3.9260	3.9260	1.0392	7.46	1.46	0.750			
0.3258	20849.06	3.9230	3.9231	1.0443	7.45	1.45	0.750			
0.3289	21049.84	3.9200	3.9200	1.0557	7.44	1.44	0.750			
0.3320	21249.63	3.9170	3.9171	1.0670	7.43	1.43	0.750			
0.3352	21453.36	3.9140	3.9139	1.0723	7.42	1.42	0.750			
0.3385	21665.19	3.9110	3.9109	1.0788	7.41	1.41	0.750			
0.3417	21870.73	3.9080	3.9080	1.0907	7.40	1.40	0.750			
0.3450	22082.71	3.9050	3.9052	1.1103	7.39	1.39	0.750			
0.3484	22296.32	3.9020	3.9020	1.1241	7.38	1.38	0.750			
0.3517	22510.90	3.8990	3.8990	1.1264	7.37	1.37	0.750			
0.3551	22729.56	3.8960	3.8961	1.1448	7.36	1.36	0.750			
0.3586	22952.19	3.8930	3.8930	1.1638	7.34	1.34	0.750			
0.3622	23177.78	3.8900	3.8900	1.1735	7.33	1.33	0.750			
0.3656	23401.58	3.8870	3.8870	1.1828	7.32	1.32	0.750			
0.3692	23630.11	3.8840	3.8840	1.2027	7.31	1.31	0.750			
0.3729	23863.57	3.8810	3.8810	1.2216	7.29	1.29	0.750			
0.3766	24099.78	3.8780	3.8781	1.2414	7.28	1.28	0.750			
0.3803	24340.07	3.8750	3.8751	1.2540	7.26	1.26	0.750			
0.3841	24584.44	3.8720	3.8720	1.2683	7.25	1.25	0.750			
0.3880	24829.30	3.8690	3.8685	1.2812	7.23	1.23	0.750	0.390	0.856	
0.3918	25072.73	3.8660	3.8661	1.2970	7.21	1.21	0.750			
0.3957	25323.11	3.8630	3.8631	1.3192	7.20	1.20	0.750			
0.3997	25582.90	3.8600	3.8597	1.3264	7.18	1.18	0.750			
0.4037	25837.22	3.8570	3.8571	1.3429	7.17	1.17	0.750			
0.4078	26096.83	3.8540	3.8541	1.3807	7.16	1.16	0.750			
0.4119	26364.37	3.8510	3.8510	1.4057	7.14	1.14	0.750			
0.4161	26630.43	3.8480	3.8480	1.4299	7.13	1.13	0.750			
0.4205	26911.60	3.8450	3.8448	1.4634	7.11	1.11	0.750			
0.4250	27199.46	3.8420	3.8420	1.5027	7.09	1.09	0.750			
0.4296	27494.63	3.8390	3.8389	1.5272	7.08	1.08	0.750			
0.4342	27789.40	3.8360	3.8361	1.5253	7.06	1.06	0.750			
0.4388	28083.34	3.8330	3.8331	1.5460	7.05	1.05	0.750			
0.4435	28382.02	3.8300	3.8300	1.5751	7.02	1.02	0.750			
0.4482	28682.18	3.8270	3.8271	1.5904	7.00	1.00	0.750			
0.4530	28990.03	3.8240	3.8240	1.6361	6.98	0.98	0.750			
0.4580	29313.08	3.8210	3.8210	1.6573	6.96	0.96	0.750			
0.4630	29633.08	3.8180	3.8179	1.6935	6.94	0.94	0.750			
0.4682	29962.55	3.8150	3.8150	1.7264	6.92	0.92	0.750			
0.4733	30289.55	3.8120	3.8122	1.7530	6.90	0.90	0.750			
0.4786	30628.93	3.8090	3.8089	1.7800	6.88	0.88	0.750			
0.4841	30981.33	3.8060	3.8060	1.7942	6.86	0.86	0.750			
0.4895	31326.86	3.8030	3.8030	1.7962	6.83	0.83	0.750			
0.4950	31679.82	3.8000	3.7999	1.8408	6.81	0.81	0.750			
0.5004	32023.10	3.7970	3.7968	1.8693	6.79	0.79	0.750			
0.5061	32390.30	3.7940	3.7937	1.8874	6.77	0.77	0.750			
0.5118	32755.13	3.7910	3.7911	1.9303	6.74	0.74	0.750			
0.5178	33137.12	3.7880	3.7882	1.9531	6.72	0.72	0.750			
0.5237	33514.60	3.7850	3.7849	1.9515	6.70	0.70	0.750			
0.5293	33875.16	3.7820	3.7820	1.9818	6.67	0.67	0.750			
0.5352	34254.76	3.7790	3.7787	2.0157	6.65	0.65	0.750			
0.5414	34652.13	3.7760	3.7759	2.0629	6.62	0.62	0.750			
0.5477	35054.26	3.7730	3.7732	2.0816	6.59	0.59	0.750			
0.5541	35463.76	3.7700	3.7699	2.1492	6.57	0.57	0.750			
0.5605	35869.27	3.7670	3.7670	2.1939	6.54	0.54	0.750			
0.5670	36288.50	3.7640	3.7640	2.2588	6.52	0.52	0.750			
0.5740	36738.27	3.7610	3.7609	2.3222	6.49	0.49	0.750			
0.5811	37190.22	3.7580	3.7579	2.4285	6.47	0.47	0.750			
0.5883	37653.90	3.7550	3.7550	2.5196	6.44	0.44	0.750			
0.5961	38152.02	3.7520	3.7520	2.6610	6.41	0.41	0.750			
0.6044	38679.02	3.7490	3.7489	2.7426	6.38	0.38	0.750			
0.6128	39220.13	3.7460	3.7460	2.8780	6.35	0.35	0.750			
0.6216	39784.69	3.7430	3.7429	2.9982	6.32	0.32	0.750			
0.6309	40375.18	3.7400	3.7400	3.0976	6.29	0.29	0.750			
0.6405	40992.13	3.7370	3.7370	3.0765	6.26	0.26	0.750			
0.6497	41582.14	3.7340	3.7340	2.9457	6.23	0.23	0.750			
0.6584	42139.01	3.7310	3.7309	2.7485	6.21	0.21	0.750			
0.6662	42634.37	3.7280	3.7282	2.4615	6.19	0.19	0.750			
0.6731	43076.85	3.7250	3.7249	2.1801	6.18	0.18	0.750			
0.6792	43467.93	3.7220	3.7222	1.9590	6.16	0.16	0.750			
0.6846	43812.63	3.7190	3.7192	1.7232	6.14	0.14	0.750			
0.6893	44115.85	3.7160	3.7160	1.5578	6.13	0.13	0.750			
0.6935	44384.60	3.7130	3.7130	1.4050	6.12	0.12	0.750			
0.6974	44631.23	3.7100	3.7100	1.3019	6.11	0.11	0.750			
0.7011	44867.70	3.7070	3.7069	1.2136	6.11	0.11	0.750			
0.7046	45093.53	3.7040	3.7040	1.1558	6.10	0.10	0.750			
0.7079	45307.84	3.7010	3.7010	1.1151	6.09	0.09	0.750			
0.7112	45516.00	3.6980	3.6982	1.0806	6.08	0.08	0.750			
0.7143	45716.38	3.6950	3.6949	1.0497	6.08	0.08	0.750			
0.7174	45914.33	3.6920	3.6919	1.0296	6.07	0.07	0.750			
0.7205	46112.06	3.6890	3.6890	1.0136	6.07	0.07	0.750			
0.7236	46308.81	3.6860	3.6861	1.0034	6.06	0.06	0.750			
0.7265	46496.93	3.6830	3.6830	0.9813	6.06	0.06	0.750			
0.7294	46682.82	3.6800	3.6800	0.9575	6.05	0.05	0.750			
0.7322	46862.57	3.6770	3.6771	0.9381	6.05	0.05	0.750			
0.7350	47040.91	3.6740	3.6739	0.9248	6.04	0.04	0.750			
0.7378	47217.39	3.6710	3.6707	0.9080	6.04	0.04	0.750			
0.7405	47389.97	3.6680	3.6681	0.9000	6.03	0.03	0.750			
0.7431	47560.60	3.6650	3.6651	0.8889	6.02	0.02	0.750			
0.7458	47729.77	3.6620	3.6619	0.8817	6.02	0.02	0.750			
0.7484	47900.02	3.6590	3.6590	0.8811	6.01	0.01	0.750			
0.7510	48065.53	3.6560	3.6560	0.8726	6.00	-0.00	0.750			
0.7536	48232.89	3.6530	3.6529	0.8714	6.00	-0.00	0.750			
0.7563	48400.23	3.6500	3.6502	0.8797	6.00	-0.00	0.750			
0.7589	48571.04	3.6470	3.6470	0.8721	5.99	-0.01	0.750			
0.7616	48742.84	3.6440	3.6438	0.8640	5.99	-0.01	0.750			
0.7643	48913.67	3.6410	3.6411	0.8226	5.99	-0.01	0.750			
0.7668	49074.97	3.6380	3.6381	0.7741	5.99	-0.01	0.750			
0.7691	49223.22	3.6350	3.6350	0.6900	5.99	-0.01	0.750			
0.7711	49350.95	3.6320	3.6320	0.5953	6.00	-0.00	0.750			
0.7727	49453.11	3.6290	3.6291	0.4890	6.00	-0.00	0.750			
0.7738	49524.17	3.6260	3.6265	0.4160	6.00	-0.00	0.750			
0.7749	49593.72	3.6230	3.6231	0.3254	6.00	-0.00	0.750			
0.7758	49648.08	3.6200	3.6197	0.2601	6.00	0.00	0.750			
0.7763	49684.09	3.6170	3.6163	0.1886	6.00	0.00	0.750			
0.7768	49713.76	3.6140	3.6083	0.1397	6.00	0.00	0.750			
0.7769	49720.50	3.5960	3.5788	-0.1084	6.00	0.00	0.750			
0.7771	49733.35	3.6110	3.4072	0.0932	6.00	0.00	0.745			
0.7771	49737.51	3.5990	3.3517	-0.0688	6.00	0.00	0.744			
0.7772	49742.87	3.6080	3.2801	0.0502	6.00	0.00	0.742			
0.7773	49746.90	3.6020	3.2262	-0.0291	6.00	0.00	0.741			
0.7773	49748.69	3.6050	3.2024	0.0105	6.00	0.00	0.740			
