Ah_balance (normalized)	Ah_balance (mAh)	Voltage - fit (V)	Voltage -  interpolate (V)	dQ/dV (1/V)	Temperature (°C)	Temperature - diff (°C)	Current (C)	R_DC 0ms (mOhm)	R_DC 50ms (mOhm)	R_DC 50 ms PEC (mOhm)
0.0981	6275.89	4.1970	4.1992	0.6630	7.99	1.89	0.750			
0.1002	6415.08	4.1940	4.1960	0.7496	7.99	1.89	0.750			
0.1027	6572.00	4.1910	4.1924	0.7833	7.98	1.88	0.750			
0.1051	6725.68	4.1880	4.1892	0.7845	7.98	1.88	0.750			
0.1074	6871.13	4.1850	4.1855	0.7472	7.97	1.87	0.750			
0.1098	7028.85	4.1820	4.1821	0.7567	7.96	1.86	0.750			
0.1120	7166.58	4.1790	4.1791	0.6977	7.96	1.86	0.750			
0.1141	7301.81	4.1760	4.1760	0.7090	7.95	1.85	0.750			
0.1162	7439.61	4.1730	4.1729	0.7175	7.95	1.85	0.750			
0.1184	7578.09	4.1700	4.1701	0.7280	7.94	1.84	0.750			
0.1206	7719.94	4.1670	4.1669	0.7352	7.94	1.84	0.750			
0.1229	7863.83	4.1640	4.1640	0.7342	7.93	1.83	0.750			
0.1251	8003.73	4.1610	4.1610	0.7316	7.93	1.83	0.750			
0.1272	8143.93	4.1580	4.1581	0.7326	7.92	1.82	0.750			
0.1295	8285.76	4.1550	4.1549	0.7287	7.92	1.82	0.750			
0.1316	8424.19	4.1520	4.1519	0.7296	7.91	1.81	0.750			
0.1338	8563.95	4.1490	4.1491	0.7288	7.90	1.80	0.750			
0.1360	8703.54	4.1460	4.1460	0.7332	7.89	1.79	0.750			
0.1382	8843.53	4.1430	4.1430	0.7419	7.89	1.79	0.750			
0.1404	8986.42	4.1400	4.1398	0.7474	7.88	1.78	0.750			
0.1427	9132.11	4.1370	4.1369	0.7507	7.87	1.77	0.750			
0.1450	9278.79	4.1340	4.1341	0.7525	7.87	1.77	0.750			
0.1472	9422.84	4.1310	4.1310	0.7561	7.86	1.76	0.750			
0.1495	9567.56	4.1280	4.1281	0.7561	7.86	1.76	0.750			
0.1518	9712.01	4.1250	4.1248	0.7553	7.85	1.75	0.750			
0.1540	9857.16	4.1220	4.1221	0.7518	7.85	1.75	0.750			
0.1563	10003.59	4.1190	4.1190	0.7538	7.84	1.74	0.750			
0.1586	10147.67	4.1160	4.1161	0.7543	7.84	1.74	0.750			
0.1608	10293.42	4.1130	4.1129	0.7505	7.83	1.73	0.750			
0.1630	10433.74	4.1100	4.1100	0.7529	7.83	1.73	0.750			
0.1653	10577.99	4.1070	4.1069	0.7671	7.82	1.72	0.750			
0.1676	10725.65	4.1040	4.1040	0.7762	7.81	1.71	0.750			
0.1700	10877.35	4.1010	4.1009	0.7861	7.81	1.71	0.750			
0.1724	11031.92	4.0980	4.0981	0.7895	7.80	1.70	0.750			
0.1747	11183.86	4.0950	4.0951	0.7902	7.79	1.69	0.750			
0.1771	11335.90	4.0920	4.0920	0.7958	7.78	1.68	0.750			
0.1795	11485.94	4.0890	4.0890	0.7968	7.78	1.68	0.750			
0.1818	11637.59	4.0860	4.0859	0.7927	7.77	1.67	0.750			
0.1842	11791.08	4.0830	4.0830	0.7993	7.77	1.67	0.750			
0.1867	11946.60	4.0800	4.0800	0.8029	7.76	1.66	0.750			
0.1891	12101.18	4.0770	4.0772	0.8091	7.75	1.65	0.750			
0.1915	12256.28	4.0740	4.0739	0.8061	7.75	1.65	0.750			
0.1939	12412.04	4.0710	4.0710	0.7996	7.74	1.64	0.750			
0.1963	12564.80	4.0680	4.0679	0.8057	7.74	1.64	0.750			
0.1987	12718.01	4.0650	4.0652	0.8086	7.74	1.64	0.750			
0.2011	12873.25	4.0620	4.0621	0.8155	7.73	1.63	0.750			
0.2036	13030.82	4.0590	4.0588	0.8208	7.73	1.63	0.750			
0.2061	13190.08	4.0560	4.0560	0.8209	7.72	1.62	0.750			
0.2086	13349.13	4.0530	4.0530	0.8280	7.71	1.61	0.750			
0.2111	13508.56	4.0500	4.0501	0.8272	7.70	1.60	0.750			
0.2135	13666.12	4.0470	4.0471	0.8276	7.70	1.60	0.750			
0.2160	13825.82	4.0440	4.0439	0.8290	7.69	1.59	0.750			
0.2185	13985.66	4.0410	4.0410	0.8295	7.68	1.58	0.750			
0.2210	14145.30	4.0380	4.0381	0.8347	7.68	1.58	0.750			
0.2235	14305.77	4.0350	4.0350	0.8360	7.67	1.57	0.750			
0.2261	14467.54	4.0320	4.0320	0.8334	7.66	1.56	0.750			
0.2285	14626.64	4.0290	4.0290	0.8355	7.66	1.56	0.750			
0.2311	14788.17	4.0260	4.0260	0.8297	7.66	1.56	0.750			
0.2336	14948.48	4.0230	4.0230	0.8342	7.65	1.55	0.750			
0.2361	15108.07	4.0200	4.0199	0.8308	7.65	1.55	0.750			
0.2386	15267.24	4.0170	4.0172	0.8238	7.64	1.54	0.750			
0.2410	15426.12	4.0140	4.0138	0.8230	7.64	1.54	0.750			
0.2435	15584.59	4.0110	4.0110	0.8154	7.64	1.54	0.750			
0.2460	15741.15	4.0080	4.0080	0.7956	7.63	1.53	0.750			
0.2483	15892.02	4.0050	4.0052	0.7907	7.63	1.53	0.750			
0.2506	16040.16	4.0020	4.0021	0.7857	7.62	1.52	0.750			
0.2530	16191.08	3.9990	3.9986	0.7873	7.62	1.52	0.750			
0.2553	16341.49	3.9960	3.9960	0.7832	7.62	1.52	0.750			
0.2577	16492.41	3.9930	3.9932	0.7764	7.62	1.52	0.750			
0.2601	16646.86	3.9900	3.9900	0.7748	7.61	1.51	0.750			
0.2624	16795.80	3.9870	3.9869	0.7643	7.61	1.51	0.750			
0.2646	16936.59	3.9840	3.9841	0.7451	7.61	1.51	0.750			
0.2669	17079.02	3.9810	3.9810	0.7320	7.61	1.51	0.750			
0.2691	17219.67	3.9780	3.9780	0.7198	7.60	1.50	0.750			
0.2712	17357.21	3.9750	3.9750	0.7053	7.60	1.50	0.750			
0.2733	17491.44	3.9720	3.9720	0.7022	7.60	1.50	0.750			
0.2754	17623.68	3.9690	3.9691	0.6926	7.59	1.49	0.750			
0.2774	17755.91	3.9660	3.9658	0.6774	7.59	1.49	0.750			
0.2795	17886.58	3.9630	3.9631	0.6639	7.59	1.49	0.750			
0.2815	18015.53	3.9600	3.9600	0.6490	7.59	1.49	0.750			
0.2834	18138.34	3.9570	3.9571	0.6261	7.59	1.49	0.750			
0.2853	18262.13	3.9540	3.9538	0.7522	7.60	1.50	0.750			
0.2881	18437.58	3.9510	3.9491	0.8806	7.60	1.50	0.750			
0.2921	18694.83	3.9480	3.9413	0.9935	7.60	1.50	0.750			
0.2957	18924.62	3.9450	3.9333	0.9726	7.61	1.51	0.750			
0.2996	19172.54	3.9420	3.9216	1.0190	7.62	1.52	0.750			
0.3027	19371.64	3.9390	3.9046	0.8388	7.63	1.53	0.750			
0.3044	19483.06	3.9360	3.9455	0.2004	7.70	1.60	0.750			
0.3084	19734.61	3.9300	3.9414	0.4563	7.82	1.72	0.750			
0.3109	19899.00	3.9330	3.9389	1.5815	7.81	1.71	0.750			
0.3144	20122.10	3.9240	3.9355	0.3980	7.80	1.70	0.750			
0.3167	20271.33	3.9210	3.9332	0.9174	7.79	1.69	0.750			
0.3169	20282.91	3.9270	3.9331	1.3961	7.79	1.69	0.750			
0.3206	20515.95	3.9150	3.9295	0.6273	7.78	1.68	0.750			
0.3206	20519.36	3.9180	3.9295	-0.0340	7.78	1.68	0.750			
0.3243	20757.52	3.9120	3.9258	1.1755	7.76	1.66	0.750			
0.3253	20820.51	3.9090	3.9248	2.9690	7.76	1.66	0.750			
0.3276	20969.11	3.9060	3.9227	5.6870	7.75	1.65	0.750			
0.3417	21866.84	3.9030	3.9095	3.8900	7.70	1.60	0.750			
0.3499	22394.62	3.9000	3.9021	2.7201	7.67	1.57	0.750			
0.3563	22801.72	3.8970	3.8965	2.1141	7.65	1.55	0.750			
0.3593	22995.50	3.8940	3.8941	1.1668	7.64	1.54	0.750			
0.3628	23222.34	3.8910	3.8910	1.1773	7.63	1.53	0.750			
0.3664	23446.66	3.8880	3.8880	1.1943	7.61	1.51	0.750			
0.3699	23675.40	3.8850	3.8849	1.1912	7.60	1.50	0.750			
0.3735	23903.46	3.8820	3.8820	1.2073	7.59	1.49	0.750			
0.3771	24136.51	3.8790	3.8791	1.2368	7.58	1.48	0.750			
0.3809	24375.62	3.8760	3.8760	1.2643	7.56	1.46	0.750	0.380	0.815	
0.3847	24621.45	3.8730	3.8731	1.2848	7.55	1.45	0.750			
0.3886	24872.39	3.8700	3.8701	1.3009	7.53	1.43	0.750			
0.3926	25125.19	3.8670	3.8670	1.3150	7.51	1.41	0.750			
0.3966	25381.43	3.8640	3.8640	1.3363	7.50	1.40	0.750			
0.4006	25635.58	3.8610	3.8610	1.3448	7.49	1.39	0.750			
0.4046	25895.27	3.8580	3.8580	1.3546	7.48	1.38	0.750			
0.4087	26157.62	3.8550	3.8548	1.3684	7.46	1.36	0.750			
0.4128	26419.34	3.8520	3.8523	1.4024	7.44	1.34	0.750			
0.4171	26692.98	3.8490	3.8490	1.4273	7.42	1.32	0.750			
0.4214	26970.03	3.8460	3.8458	1.4574	7.40	1.30	0.750			
0.4258	27251.35	3.8430	3.8431	1.4667	7.39	1.29	0.750			
0.4303	27542.09	3.8400	3.8400	1.4829	7.37	1.27	0.750			
0.4348	27829.87	3.8370	3.8371	1.5028	7.35	1.25	0.750			
0.4393	28115.70	3.8340	3.8341	1.5031	7.33	1.23	0.750			
0.4437	28399.05	3.8310	3.8308	1.5210	7.31	1.21	0.750			
0.4483	28688.24	3.8280	3.8279	1.5435	7.30	1.20	0.750			
0.4530	28990.72	3.8250	3.8252	1.5866	7.28	1.18	0.750			
0.4579	29308.08	3.8220	3.8218	1.6116	7.26	1.16	0.750			
0.4628	29616.23	3.8190	3.8189	1.6331	7.23	1.13	0.750			
0.4676	29927.55	3.8160	3.8162	1.6578	7.21	1.11	0.750			
0.4727	30252.42	3.8130	3.8131	1.6863	7.18	1.08	0.750			
0.4778	30578.10	3.8100	3.8098	1.6930	7.15	1.05	0.750			
0.4829	30905.95	3.8070	3.8071	1.7211	7.13	1.03	0.750			
0.4881	31240.16	3.8040	3.8039	1.7453	7.11	1.01	0.750			
0.4935	31581.29	3.8010	3.8010	1.7752	7.08	0.98	0.750			
0.4988	31920.70	3.7980	3.7979	1.7597	7.06	0.96	0.750			
0.5040	32257.87	3.7950	3.7951	1.7648	7.03	0.93	0.750			
0.5093	32596.75	3.7920	3.7922	1.7925	7.01	0.91	0.750			
0.5147	32940.36	3.7890	3.7890	1.8386	6.98	0.88	0.750			
0.5201	33289.22	3.7860	3.7859	1.8614	6.96	0.86	0.750			
0.5258	33651.10	3.7830	3.7831	1.9108	6.93	0.83	0.750			
0.5317	34028.04	3.7800	3.7802	1.9373	6.90	0.80	0.750			
0.5376	34404.43	3.7770	3.7770	1.9770	6.87	0.77	0.750			
0.5435	34782.22	3.7740	3.7740	2.0012	6.85	0.75	0.750			
0.5495	35168.99	3.7710	3.7709	2.0535	6.82	0.72	0.750			
0.5557	35564.26	3.7680	3.7681	2.1645	6.80	0.70	0.750			
0.5624	35993.02	3.7650	3.7648	2.2804	6.77	0.67	0.750			
0.5695	36446.83	3.7620	3.7622	2.3586	6.74	0.64	0.750			
0.5767	36911.51	3.7590	3.7590	2.4388	6.71	0.61	0.750			
0.5841	37382.99	3.7560	3.7560	2.5655	6.68	0.58	0.750			
0.5919	37883.29	3.7530	3.7530	2.7048	6.64	0.54	0.750			
0.6003	38418.42	3.7500	3.7503	2.8939	6.60	0.50	0.750			
0.6093	38993.69	3.7470	3.7470	3.0294	6.56	0.46	0.750			
0.6186	39589.75	3.7440	3.7441	3.0758	6.52	0.42	0.750			
0.6281	40200.71	3.7410	3.7410	3.0791	6.49	0.39	0.750			
0.6372	40777.74	3.7380	3.7380	2.9545	6.45	0.35	0.750			
0.6460	41345.82	3.7350	3.7349	2.7666	6.42	0.32	0.750			
0.6542	41867.43	3.7320	3.7322	2.5319	6.39	0.29	0.750			
0.6613	42324.75	3.7290	3.7292	2.2223	6.37	0.27	0.750			
0.6673	42705.36	3.7260	3.7261	1.9208	6.35	0.25	0.750			
0.6725	43042.27	3.7230	3.7231	1.6879	6.33	0.23	0.750			
0.6769	43319.33	3.7200	3.7199	1.4692	6.32	0.22	0.750			
0.6809	43575.58	3.7170	3.7170	1.3512	6.30	0.20	0.750			
0.6845	43806.78	3.7140	3.7140	1.2410	6.29	0.19	0.750			
0.6881	44040.26	3.7110	3.7110	1.2068	6.28	0.18	0.750			
0.6916	44263.81	3.7080	3.7079	1.1666	6.27	0.17	0.750			
0.6951	44486.52	3.7050	3.7049	1.1424	6.26	0.16	0.750			
0.6985	44703.03	3.7020	3.7021	1.1173	6.25	0.15	0.750			
0.7018	44914.65	3.6990	3.6990	1.0987	6.24	0.14	0.750			
0.7051	45123.54	3.6960	3.6961	1.0744	6.23	0.13	0.750			
0.7082	45327.31	3.6930	3.6931	1.0380	6.22	0.12	0.750			
0.7113	45525.08	3.6900	3.6900	1.0134	6.21	0.11	0.750			
0.7143	45718.27	3.6870	3.6871	0.9871	6.20	0.10	0.750			
0.7172	45903.61	3.6840	3.6841	0.9630	6.19	0.09	0.750			
0.7201	46083.94	3.6810	3.6809	0.9451	6.18	0.08	0.750			
0.7228	46261.35	3.6780	3.6779	0.9301	6.17	0.07	0.750			
0.7256	46437.11	3.6750	3.6751	0.9260	6.16	0.06	0.750			
0.7284	46615.09	3.6720	3.6721	0.9258	6.15	0.05	0.750			
0.7311	46792.84	3.6690	3.6689	0.9243	6.14	0.04	0.750			
0.7339	46971.64	3.6660	3.6659	0.9190	6.14	0.04	0.750			
0.7366	47145.42	3.6630	3.6631	0.9177	6.13	0.03	0.750			
0.7394	47320.71	3.6600	3.6601	0.9229	6.13	0.03	0.750			
0.7422	47499.11	3.6570	3.6569	0.9243	6.12	0.02	0.750			
0.7450	47676.96	3.6540	3.6541	0.9180	6.12	0.02	0.750			
0.7478	47858.14	3.6510	3.6510	0.9066	6.11	0.01	0.750			
0.7506	48037.70	3.6480	3.6481	0.8827	6.11	0.01	0.750			
0.7533	48210.42	3.6450	3.6449	0.8288	6.11	0.01	0.750			
0.7557	48367.05	3.6420	3.6422	0.7557	6.10	0.00	0.750			
0.7579	48506.70	3.6390	3.6390	0.6688	6.10	-0.00	0.750			
0.7598	48628.53	3.6360	3.6360	0.5706	6.10	-0.00	0.750			
0.7614	48726.90	3.6330	3.6331	0.4685	6.09	-0.01	0.750			
0.7624	48793.35	3.6300	3.6305	0.3979	6.09	-0.01	0.750			
0.7634	48859.54	3.6270	3.6272	0.3114	6.09	-0.01	0.750			
0.7642	48910.47	3.6240	3.6237	0.2477	6.09	-0.01	0.750			
0.7647	48943.19	3.6210	3.6201	0.1778	6.09	-0.01	0.750			
0.7651	48967.79	3.6180	3.6105	0.1289	6.09	-0.01	0.750			
0.7652	48973.38	3.5970	3.5817	-0.1130	6.09	-0.01	0.750			
0.7654	48986.32	3.6150	3.4034	0.0905	6.09	-0.01	0.759			
0.7655	48991.82	3.6000	3.3275	-0.0791	6.09	-0.01	0.763			
0.7656	49000.44	3.6120	3.2085	0.0566	6.09	-0.01	0.769			
0.7657	49003.74	3.6030	3.1630	-0.0451	6.09	-0.01	0.771			
0.7658	49008.05	3.6090	3.1034	0.0227	6.09	-0.01	0.774			
0.7658	49009.15	3.6060	3.0883	-0.0112	6.09	-0.01	0.775			
