Ah_balance (normalized)	Ah_balance (mAh)	Voltage - fit (V)	Voltage -  interpolate (V)	dQ/dV (1/V)	Temperature (°C)	Temperature - diff (°C)	Current (C)	R_DC 0ms (mOhm)	R_DC 50ms (mOhm)	R_DC 50 ms PEC (mOhm)
0.0976	6244.13	4.1960	4.1960	0.6893	7.90	1.93	0.750			
0.0997	6377.78	4.1930	4.1928	0.6963	7.90	1.93	0.750			
0.1017	6511.82	4.1900	4.1901	0.6994	7.90	1.93	0.750			
0.1039	6647.49	4.1870	4.1870	0.6980	7.89	1.92	0.750			
0.1060	6782.09	4.1840	4.1840	0.7013	7.89	1.92	0.750			
0.1081	6915.55	4.1810	4.1810	0.6995	7.89	1.92	0.750			
0.1101	7049.55	4.1780	4.1781	0.7021	7.88	1.91	0.750			
0.1123	7185.15	4.1750	4.1749	0.7051	7.88	1.91	0.750			
0.1144	7320.74	4.1720	4.1719	0.7055	7.87	1.90	0.750			
0.1165	7456.93	4.1690	4.1691	0.7081	7.87	1.90	0.750			
0.1186	7592.88	4.1660	4.1660	0.7144	7.86	1.89	0.750			
0.1208	7729.55	4.1630	4.1630	0.7162	7.85	1.88	0.750			
0.1229	7868.37	4.1600	4.1600	0.7217	7.85	1.88	0.750			
0.1251	8007.12	4.1570	4.1570	0.7251	7.84	1.87	0.750			
0.1273	8147.64	4.1540	4.1540	0.7279	7.83	1.86	0.750			
0.1295	8289.24	4.1510	4.1510	0.7284	7.82	1.85	0.750			
0.1317	8428.19	4.1480	4.1480	0.7290	7.82	1.85	0.750			
0.1339	8566.87	4.1450	4.1451	0.7292	7.81	1.84	0.750			
0.1361	8707.24	4.1420	4.1419	0.7324	7.80	1.83	0.750			
0.1382	8847.95	4.1390	4.1390	0.7357	7.80	1.83	0.750			
0.1405	8989.32	4.1360	4.1360	0.7389	7.79	1.82	0.750			
0.1427	9132.17	4.1330	4.1330	0.7392	7.78	1.81	0.750			
0.1449	9275.23	4.1300	4.1300	0.7430	7.77	1.80	0.750			
0.1471	9417.55	4.1270	4.1270	0.7438	7.77	1.80	0.750			
0.1494	9560.18	4.1240	4.1238	0.7471	7.76	1.79	0.750			
0.1516	9702.92	4.1210	4.1210	0.7516	7.76	1.79	0.750			
0.1539	9847.71	4.1180	4.1180	0.7563	7.75	1.78	0.750			
0.1562	9994.15	4.1150	4.1149	0.7602	7.75	1.78	0.750			
0.1585	10141.12	4.1120	4.1120	0.7618	7.75	1.78	0.750			
0.1607	10287.02	4.1090	4.1090	0.7632	7.74	1.77	0.750			
0.1630	10433.61	4.1060	4.1060	0.7648	7.74	1.77	0.750			
0.1653	10579.57	4.1030	4.1029	0.7655	7.73	1.76	0.750			
0.1676	10726.60	4.1000	4.1001	0.7672	7.72	1.75	0.750			
0.1699	10874.68	4.0970	4.0969	0.7711	7.71	1.74	0.750			
0.1722	11023.03	4.0940	4.0941	0.7772	7.71	1.74	0.750			
0.1746	11172.82	4.0910	4.0909	0.7806	7.70	1.73	0.750			
0.1769	11322.10	4.0880	4.0880	0.7865	7.69	1.72	0.750			
0.1793	11475.83	4.0850	4.0850	0.7829	7.69	1.72	0.750			
0.1816	11625.41	4.0820	4.0820	0.7917	7.68	1.71	0.750			
0.1840	11776.53	4.0790	4.0791	0.8069	7.68	1.71	0.750			
0.1864	11930.72	4.0760	4.0759	0.8174	7.67	1.70	0.750			
0.1889	12089.57	4.0730	4.0730	0.8237	7.66	1.69	0.750			
0.1914	12251.77	4.0700	4.0701	0.8240	7.66	1.69	0.750			
0.1939	12411.11	4.0670	4.0671	0.8245	7.65	1.68	0.750			
0.1964	12572.46	4.0640	4.0641	0.8260	7.64	1.67	0.750			
0.1988	12726.16	4.0610	4.0609	0.8208	7.63	1.66	0.750			
0.2013	12881.85	4.0580	4.0581	0.8232	7.62	1.65	0.750			
0.2037	13039.41	4.0550	4.0550	0.8280	7.62	1.65	0.750			
0.2063	13200.08	4.0520	4.0520	0.8352	7.61	1.64	0.750			
0.2088	13363.02	4.0490	4.0490	0.8376	7.60	1.63	0.750			
0.2113	13524.46	4.0460	4.0461	0.8415	7.59	1.62	0.750			
0.2139	13687.16	4.0430	4.0430	0.8411	7.58	1.61	0.750			
0.2164	13849.03	4.0400	4.0399	0.8345	7.58	1.61	0.750			
0.2188	14006.31	4.0370	4.0371	0.8423	7.57	1.60	0.750			
0.2214	14167.72	4.0340	4.0341	0.8536	7.56	1.59	0.750			
0.2239	14332.69	4.0310	4.0307	0.8617	7.55	1.58	0.750			
0.2266	14499.22	4.0280	4.0280	0.8696	7.54	1.57	0.750			
0.2292	14667.81	4.0250	4.0251	0.8736	7.54	1.57	0.750			
0.2318	14837.34	4.0220	4.0221	0.8805	7.53	1.56	0.750			
0.2345	15008.88	4.0190	4.0190	0.8822	7.52	1.55	0.750			
0.2371	15175.45	4.0160	4.0159	0.8768	7.51	1.54	0.750			
0.2397	15343.68	4.0130	4.0131	0.8760	7.51	1.54	0.750			
0.2424	15511.94	4.0100	4.0099	0.8807	7.50	1.53	0.750			
0.2451	15684.40	4.0070	4.0070	0.8761	7.50	1.53	0.750			
0.2477	15853.28	4.0040	4.0040	0.8666	7.49	1.52	0.750			
0.2503	16016.71	4.0010	4.0011	0.8646	7.49	1.52	0.750			
0.2529	16182.80	3.9980	3.9982	0.8609	7.47	1.50	0.750			
0.2554	16344.09	3.9950	3.9948	0.8650	7.46	1.49	0.750			
0.2579	16508.75	3.9920	3.9919	0.8764	7.45	1.48	0.750			
0.2606	16675.94	3.9890	3.9892	0.8860	7.44	1.47	0.750			
0.2633	16850.26	3.9860	3.9860	0.9036	7.43	1.46	0.750			
0.2661	17028.97	3.9830	3.9830	0.9125	7.42	1.45	0.750			
0.2688	17203.00	3.9800	3.9801	0.9190	7.41	1.44	0.750			
0.2716	17380.05	3.9770	3.9770	0.9288	7.40	1.43	0.750			
0.2743	17558.20	3.9740	3.9739	0.9291	7.39	1.42	0.750			
0.2771	17736.75	3.9710	3.9710	0.9355	7.38	1.41	0.750			
0.2800	17917.56	3.9680	3.9681	0.9441	7.37	1.40	0.750			
0.2828	18101.29	3.9650	3.9650	0.9524	7.36	1.39	0.750			
0.2857	18284.82	3.9620	3.9619	0.9530	7.35	1.38	0.750			
0.2886	18469.43	3.9590	3.9590	0.9482	7.35	1.38	0.750			
0.2914	18649.62	3.9560	3.9561	0.9586	7.34	1.37	0.750			
0.2943	18833.50	3.9530	3.9530	0.9706	7.33	1.36	0.750			
0.2972	19019.68	3.9500	3.9500	0.9734	7.32	1.35	0.750			
0.3001	19207.81	3.9470	3.9470	0.9809	7.31	1.34	0.750			
0.3031	19396.63	3.9440	3.9442	0.9891	7.30	1.33	0.750			
0.3061	19589.14	3.9410	3.9410	1.0005	7.29	1.32	0.750			
0.3091	19781.33	3.9380	3.9379	1.0124	7.28	1.31	0.750			
0.3121	19975.08	3.9350	3.9348	1.0149	7.27	1.30	0.750			
0.3152	20171.73	3.9320	3.9320	1.0171	7.25	1.28	0.750			
0.3183	20369.33	3.9290	3.9291	1.0269	7.24	1.27	0.750			
0.3214	20566.42	3.9260	3.9261	1.0407	7.23	1.26	0.750			
0.3245	20766.71	3.9230	3.9228	1.0459	7.21	1.24	0.750			
0.3276	20966.96	3.9200	3.9200	1.0436	7.20	1.23	0.750			
0.3307	21166.15	3.9170	3.9171	1.0553	7.19	1.22	0.750			
0.3339	21371.61	3.9140	3.9141	1.0697	7.18	1.21	0.750			
0.3372	21579.39	3.9110	3.9107	1.0803	7.17	1.20	0.750			
0.3404	21784.70	3.9080	3.9081	1.0863	7.16	1.19	0.750			
0.3436	21993.48	3.9050	3.9051	1.1005	7.14	1.17	0.750			
0.3470	22208.51	3.9020	3.9021	1.1163	7.13	1.16	0.750			
0.3504	22423.90	3.8990	3.8989	1.1188	7.12	1.15	0.750			
0.3537	22638.88	3.8960	3.8961	1.1343	7.11	1.14	0.750			
0.3572	22857.90	3.8930	3.8930	1.1490	7.10	1.13	0.750			
0.3607	23081.74	3.8900	3.8899	1.1559	7.09	1.12	0.750			
0.3642	23305.82	3.8870	3.8870	1.1627	7.08	1.11	0.750			
0.3676	23523.84	3.8840	3.8841	1.1735	7.07	1.10	0.750			
0.3711	23747.62	3.8810	3.8812	1.2013	7.05	1.08	0.750			
0.3747	23977.84	3.8780	3.8779	1.2136	7.04	1.07	0.750			
0.3783	24212.72	3.8750	3.8753	1.2548	7.02	1.05	0.750	0.414	0.808	
0.3822	24461.02	3.8720	3.8722	1.2773	7.00	1.03	0.750			
0.3862	24715.28	3.8690	3.8690	1.2917	6.98	1.01	0.750			
0.3902	24970.06	3.8660	3.8660	1.3068	6.97	1.00	0.750			
0.3940	25212.82	3.8630	3.8631	1.2982	6.95	0.98	0.750			
0.3979	25465.11	3.8600	3.8599	1.3071	6.94	0.97	0.750			
0.4018	25715.90	3.8570	3.8570	1.3329	6.92	0.95	0.750			
0.4058	25968.51	3.8540	3.8541	1.3422	6.90	0.93	0.750			
0.4099	26235.42	3.8510	3.8510	1.3583	6.89	0.92	0.750			
0.4140	26499.03	3.8480	3.8480	1.3811	6.87	0.90	0.750			
0.4182	26763.07	3.8450	3.8451	1.3886	6.86	0.89	0.750			
0.4224	27032.48	3.8420	3.8421	1.3936	6.85	0.88	0.750			
0.4266	27300.76	3.8390	3.8390	1.4199	6.83	0.86	0.750			
0.4308	27570.32	3.8360	3.8361	1.4289	6.80	0.83	0.750			
0.4352	27851.08	3.8330	3.8329	1.4421	6.78	0.81	0.750			
0.4396	28133.39	3.8300	3.8301	1.4611	6.76	0.79	0.750			
0.4439	28408.66	3.8270	3.8270	1.4701	6.74	0.77	0.750			
0.4483	28692.60	3.8240	3.8240	1.4961	6.72	0.75	0.750			
0.4528	28978.20	3.8210	3.8211	1.5073	6.70	0.73	0.750			
0.4574	29274.84	3.8180	3.8179	1.5182	6.68	0.71	0.750			
0.4621	29571.59	3.8150	3.8147	1.5348	6.66	0.69	0.750			
0.4667	29866.57	3.8120	3.8122	1.5441	6.64	0.67	0.750			
0.4713	30162.50	3.8090	3.8091	1.5458	6.62	0.65	0.750			
0.4759	30457.83	3.8060	3.8058	1.5537	6.61	0.64	0.750			
0.4806	30757.68	3.8030	3.8030	1.5896	6.59	0.62	0.750			
0.4853	31060.65	3.8000	3.8001	1.6093	6.58	0.61	0.750			
0.4902	31374.91	3.7970	3.7971	1.6500	6.56	0.59	0.750			
0.4952	31690.37	3.7940	3.7940	1.6686	6.54	0.57	0.750			
0.5003	32018.01	3.7910	3.7911	1.6974	6.52	0.55	0.750			
0.5054	32348.38	3.7880	3.7879	1.7298	6.50	0.53	0.750			
0.5107	32681.67	3.7850	3.7850	1.7684	6.48	0.51	0.750			
0.5159	33018.89	3.7820	3.7821	1.8020	6.46	0.49	0.750			
0.5214	33369.20	3.7790	3.7792	1.8607	6.43	0.46	0.750			
0.5270	33729.09	3.7760	3.7760	1.9062	6.41	0.44	0.750			
0.5328	34099.25	3.7730	3.7730	1.9837	6.40	0.43	0.750			
0.5388	34486.17	3.7700	3.7701	2.0656	6.38	0.41	0.750			
0.5452	34894.97	3.7670	3.7669	2.1461	6.36	0.39	0.750			
0.5518	35317.18	3.7640	3.7640	2.2250	6.33	0.36	0.750			
0.5587	35755.26	3.7610	3.7610	2.3051	6.31	0.34	0.750			
0.5656	36200.53	3.7580	3.7579	2.4145	6.29	0.32	0.750			
0.5730	36671.15	3.7550	3.7549	2.5354	6.26	0.29	0.750			
0.5807	37163.19	3.7520	3.7521	2.6654	6.24	0.27	0.750			
0.5891	37703.80	3.7490	3.7490	2.7712	6.21	0.24	0.750			
0.5975	38239.44	3.7460	3.7460	2.8481	6.18	0.21	0.750			
0.6062	38794.50	3.7430	3.7430	2.8886	6.15	0.18	0.750			
0.6150	39357.27	3.7400	3.7400	2.8596	6.13	0.16	0.750			
0.6236	39913.54	3.7370	3.7370	2.7483	6.11	0.14	0.750			
0.6316	40423.87	3.7340	3.7340	2.4898	6.09	0.12	0.750			
0.6388	40880.19	3.7310	3.7310	2.2393	6.07	0.10	0.750			
0.6449	41273.01	3.7280	3.7280	1.9704	6.06	0.09	0.750			
0.6504	41622.69	3.7250	3.7251	1.7520	6.05	0.08	0.750			
0.6553	41938.55	3.7220	3.7220	1.5854	6.04	0.07	0.750			
0.6596	42214.77	3.7190	3.7189	1.4425	6.03	0.06	0.750			
0.6636	42470.00	3.7160	3.7159	1.3416	6.03	0.06	0.750			
0.6673	42709.61	3.7130	3.7130	1.2748	6.02	0.05	0.750			
0.6710	42944.72	3.7100	3.7100	1.2178	6.02	0.05	0.750			
0.6746	43175.80	3.7070	3.7068	1.1814	6.01	0.04	0.750			
0.6781	43396.06	3.7040	3.7041	1.1502	6.00	0.03	0.750			
0.6814	43612.42	3.7010	3.7010	1.1234	5.99	0.02	0.750			
0.6847	43823.58	3.6980	3.6981	1.0986	5.99	0.02	0.750			
0.6880	44032.28	3.6950	3.6949	1.0761	5.98	0.01	0.750			
0.6912	44237.54	3.6920	3.6921	1.0586	5.98	0.01	0.750			
0.6944	44441.42	3.6890	3.6890	1.0419	5.97	0.00	0.750			
0.6975	44638.79	3.6860	3.6861	1.0205	5.97	0.00	0.750			
0.7005	44833.05	3.6830	3.6830	0.9993	5.97	0.00	0.750			
0.7035	45021.88	3.6800	3.6800	0.9779	5.97	0.00	0.750			
0.7064	45206.84	3.6770	3.6770	0.9654	5.97	0.00	0.750			
0.7092	45388.53	3.6740	3.6740	0.9533	5.97	0.00	0.750			
0.7120	45569.96	3.6710	3.6707	0.9464	5.97	-0.00	0.750			
0.7149	45751.22	3.6680	3.6681	0.9397	5.97	-0.00	0.750			
0.7176	45929.34	3.6650	3.6650	0.9439	5.96	-0.01	0.750			
0.7205	46110.66	3.6620	3.6620	0.9474	5.96	-0.01	0.750			
0.7233	46290.25	3.6590	3.6590	0.9533	5.95	-0.02	0.750			
0.7262	46476.52	3.6560	3.6560	0.9592	5.95	-0.02	0.750			
0.7291	46663.32	3.6530	3.6530	0.9637	5.96	-0.01	0.750			
0.7320	46851.09	3.6500	3.6500	0.9593	5.96	-0.01	0.750			
0.7350	47037.21	3.6470	3.6471	0.9527	5.97	-0.00	0.750			
0.7379	47222.83	3.6440	3.6439	0.9151	5.97	0.00	0.750			
0.7406	47400.62	3.6410	3.6410	0.8682	5.97	0.00	0.750			
0.7433	47568.84	3.6380	3.6380	0.7930	5.97	0.00	0.750			
0.7456	47718.24	3.6350	3.6351	0.7058	5.97	0.00	0.750			
0.7476	47848.21	3.6320	3.6320	0.6060	5.97	0.00	0.750			
0.7492	47951.06	3.6290	3.6290	0.5010	5.97	0.00	0.750			
0.7505	48033.32	3.6260	3.6261	0.3912	5.97	0.00	0.750			
0.7514	48087.72	3.6230	3.6235	0.3372	5.97	0.00	0.750			
0.7522	48140.94	3.6200	3.6201	0.2578	5.97	0.00	0.750			
0.7528	48182.35	3.6170	3.6166	0.2038	5.97	0.00	0.750			
0.7533	48208.43	3.6140	3.6127	0.1463	5.97	0.00	0.750			
0.7535	48226.80	3.5900	3.5952	-0.1023	5.97	0.00	0.750			
0.7536	48229.86	3.6110	3.5765	0.1078	5.97	0.00	0.750			
0.7538	48243.64	3.5930	3.4025	-0.0731	5.97	0.00	0.708			
0.7538	48243.65	3.6080	3.4023	0.0731	5.97	0.00	0.708			
0.7540	48254.87	3.5960	3.2603	-0.0439	5.97	0.00	0.673			
0.7540	48254.87	3.6050	3.2602	0.0438	5.97	0.00	0.673			
0.7541	48260.48	3.5990	3.1892	-0.0146	5.97	0.00	0.656			
0.7541	48260.48	3.6020	3.1892	0.0146	5.97	0.00	0.656			
