Ah_balance (normalized)	Ah_balance (mAh)	Voltage - fit (V)	Voltage -  interpolate (V)	dQ/dV (1/V)	Temperature (°C)	Temperature - diff (°C)	Current (C)	R_DC 0ms (mOhm)	R_DC 50ms (mOhm)	R_DC 50 ms PEC (mOhm)
0.0002	13.07	4.1120	4.1112	-0.0595	5.99	0.00	-0.750			
0.0005	29.44	4.1090	4.1085	-0.0974	5.99	0.00	-0.750			
0.0008	52.01	4.1060	4.1057	-0.1250	5.99	0.00	-0.750			
0.0012	78.18	4.1030	4.1030	-0.1499	5.99	0.00	-0.750			
0.0017	109.47	4.1000	4.1002	-0.1745	5.99	0.00	-0.750			
0.0023	145.53	4.0970	4.0971	-0.1977	5.99	0.00	-0.750			
0.0029	186.62	4.0940	4.0939	-0.2216	5.99	0.00	-0.750			
0.0036	231.39	4.0910	4.0910	-0.2420	5.99	0.00	-0.750			
0.0044	279.94	4.0880	4.0880	-0.2640	5.99	0.00	-0.750			
0.0052	332.80	4.0850	4.0849	-0.2863	5.99	0.00	-0.750			
0.0061	389.75	4.0820	4.0820	-0.3101	5.99	0.00	-0.750			
0.0070	450.91	4.0790	4.0790	-0.3331	5.99	0.00	-0.750			
0.0081	516.74	4.0760	4.0760	-0.3581	5.99	0.00	-0.750			
0.0092	588.24	4.0730	4.0731	-0.3809	5.99	0.00	-0.750			
0.0104	664.09	4.0700	4.0700	-0.4044	5.99	0.00	-0.750			
0.0116	743.74	4.0670	4.0670	-0.4261	5.99	0.00	-0.750			
0.0129	828.26	4.0640	4.0642	-0.4467	5.99	0.00	-0.750			
0.0143	915.58	4.0610	4.0609	-0.4679	5.99	0.00	-0.750			
0.0157	1007.43	4.0580	4.0581	-0.4900	5.99	0.00	-0.750			
0.0172	1102.53	4.0550	4.0550	-0.5179	5.99	0.00	-0.750			
0.0188	1204.88	4.0520	4.0519	-0.5433	5.99	0.00	-0.750			
0.0205	1312.63	4.0490	4.0489	-0.5629	5.99	0.00	-0.750			
0.0222	1423.27	4.0460	4.0460	-0.5842	6.00	0.01	-0.750			
0.0240	1537.85	4.0430	4.0431	-0.6058	6.00	0.01	-0.750			
0.0259	1656.26	4.0400	4.0400	-0.6245	6.00	0.01	-0.750			
0.0278	1777.83	4.0370	4.0369	-0.6383	6.01	0.02	-0.750			
0.0297	1901.78	4.0340	4.0338	-0.6507	6.01	0.02	-0.750			
0.0317	2030.97	4.0310	4.0309	-0.6615	6.01	0.02	-0.750			
0.0337	2159.82	4.0280	4.0280	-0.6648	6.02	0.03	-0.750			
0.0357	2287.65	4.0250	4.0250	-0.6715	6.02	0.03	-0.750			
0.0377	2414.74	4.0220	4.0221	-0.6738	6.02	0.03	-0.750			
0.0398	2545.52	4.0190	4.0188	-0.6789	6.02	0.03	-0.750			
0.0418	2675.85	4.0160	4.0160	-0.6896	6.03	0.04	-0.750			
0.0439	2808.89	4.0130	4.0130	-0.6988	6.03	0.04	-0.750			
0.0460	2943.71	4.0100	4.0101	-0.7135	6.04	0.05	-0.750			
0.0482	3083.84	4.0070	4.0070	-0.7246	6.05	0.06	-0.750			
0.0504	3223.58	4.0040	4.0040	-0.7299	6.05	0.06	-0.750			
0.0526	3367.80	4.0010	4.0010	-0.7320	6.06	0.07	-0.750			
0.0549	3510.47	3.9980	3.9981	-0.7341	6.07	0.08	-0.750			
0.0570	3649.24	3.9950	3.9949	-0.7343	6.07	0.08	-0.750			
0.0592	3787.53	3.9920	3.9921	-0.7406	6.08	0.09	-0.750			
0.0614	3928.53	3.9890	3.9888	-0.7467	6.08	0.09	-0.750			
0.0636	4073.22	3.9860	3.9860	-0.7481	6.09	0.10	-0.750			
0.0659	4220.25	3.9830	3.9830	-0.7547	6.10	0.11	-0.750			
0.0682	4366.75	3.9800	3.9803	-0.7551	6.10	0.11	-0.750			
0.0705	4512.62	3.9770	3.9770	-0.7528	6.11	0.12	-0.750			
0.0727	4655.32	3.9740	3.9739	-0.7521	6.12	0.13	-0.750			
0.0750	4797.93	3.9710	3.9710	-0.7454	6.12	0.13	-0.750			
0.0772	4941.36	3.9680	3.9680	-0.7562	6.13	0.14	-0.750			
0.0795	5087.53	3.9650	3.9650	-0.7622	6.14	0.15	-0.750			
0.0818	5234.03	3.9620	3.9619	-0.7690	6.14	0.15	-0.750			
0.0841	5382.29	3.9590	3.9589	-0.7761	6.15	0.16	-0.750			
0.0864	5531.87	3.9560	3.9561	-0.7803	6.16	0.17	-0.750			
0.0888	5683.43	3.9530	3.9530	-0.7769	6.17	0.18	-0.750			
0.0912	5835.65	3.9500	3.9500	-0.7816	6.17	0.18	-0.750			
0.0935	5983.80	3.9470	3.9471	-0.7765	6.18	0.19	-0.750			
0.0958	6131.81	3.9440	3.9440	-0.7777	6.19	0.20	-0.750			
0.0981	6279.95	3.9410	3.9410	-0.7822	6.20	0.21	-0.750			
0.1005	6431.19	3.9380	3.9380	-0.7858	6.20	0.21	-0.750			
0.1029	6583.52	3.9350	3.9349	-0.7909	6.21	0.22	-0.750			
0.1052	6735.61	3.9320	3.9320	-0.7969	6.22	0.23	-0.750			
0.1077	6890.21	3.9290	3.9290	-0.7937	6.23	0.24	-0.750			
0.1100	7042.26	3.9260	3.9259	-0.7982	6.24	0.25	-0.750			
0.1124	7195.91	3.9230	3.9230	-0.7917	6.25	0.26	-0.750			
0.1148	7348.32	3.9200	3.9202	-0.7942	6.26	0.27	-0.750			
0.1172	7500.59	3.9170	3.9168	-0.7914	6.27	0.28	-0.750			
0.1196	7651.42	3.9140	3.9141	-0.7928	6.28	0.29	-0.750			
0.1219	7801.66	3.9110	3.9111	-0.7994	6.28	0.29	-0.750			
0.1243	7956.88	3.9080	3.9079	-0.8049	6.29	0.30	-0.750			
0.1267	8111.83	3.9050	3.9049	-0.7993	6.30	0.31	-0.750			
0.1292	8268.34	3.9020	3.9020	-0.8069	6.31	0.32	-0.750			
0.1316	8422.15	3.8990	3.8990	-0.8001	6.31	0.32	-0.750			
0.1340	8574.81	3.8960	3.8960	-0.8054	6.32	0.33	-0.750			
0.1364	8728.26	3.8930	3.8931	-0.8040	6.33	0.34	-0.750			
0.1388	8881.36	3.8900	3.8899	-0.8015	6.34	0.35	-0.750			
0.1412	9036.85	3.8870	3.8869	-0.8101	6.35	0.36	-0.750			
0.1437	9193.88	3.8840	3.8841	-0.8167	6.36	0.37	-0.750			
0.1461	9348.65	3.8810	3.8811	-0.8202	6.37	0.38	-0.750			
0.1486	9508.52	3.8780	3.8779	-0.8237	6.37	0.38	-0.750			
0.1510	9664.61	3.8750	3.8751	-0.8237	6.38	0.39	-0.750			
0.1535	9826.10	3.8720	3.8720	-0.8339	6.39	0.40	-0.750			
0.1561	9987.63	3.8690	3.8690	-0.8369	6.39	0.40	-0.750			
0.1586	10147.99	3.8660	3.8660	-0.8338	6.40	0.41	-0.750			
0.1611	10307.75	3.8630	3.8630	-0.8396	6.41	0.42	-0.750			
0.1636	10469.63	3.8600	3.8600	-0.8396	6.42	0.43	-0.750			
0.1661	10632.75	3.8570	3.8569	-0.8400	6.43	0.44	-0.750			
0.1686	10792.77	3.8540	3.8541	-0.8361	6.44	0.45	-0.750			
0.1711	10951.95	3.8510	3.8511	-0.8425	6.45	0.46	-0.750			
0.1737	11114.16	3.8480	3.8479	-0.8455	6.46	0.47	-0.750			
0.1761	11273.18	3.8450	3.8450	-0.8474	6.47	0.48	-0.750			
0.1787	11439.56	3.8420	3.8420	-0.8607	6.48	0.49	-0.750			
0.1814	11607.54	3.8390	3.8391	-0.8679	6.49	0.50	-0.750			
0.1840	11775.50	3.8360	3.8358	-0.8695	6.50	0.51	-0.750			
0.1866	11942.84	3.8330	3.8330	-0.8656	6.51	0.52	-0.750			
0.1892	12108.26	3.8300	3.8301	-0.8598	6.52	0.53	-0.750			
0.1918	12272.27	3.8270	3.8270	-0.8624	6.53	0.54	-0.750			
0.1943	12436.30	3.8240	3.8240	-0.8569	6.53	0.54	-0.750			
0.1969	12602.41	3.8210	3.8209	-0.8538	6.54	0.55	-0.750			
0.1995	12765.91	3.8180	3.8180	-0.8581	6.55	0.56	-0.750			
0.2020	12930.22	3.8150	3.8151	-0.8583	6.56	0.57	-0.750			
0.2046	13094.67	3.8120	3.8119	-0.8665	6.57	0.58	-0.750			
0.2072	13262.00	3.8090	3.8091	-0.8650	6.58	0.59	-0.750			
0.2098	13427.37	3.8060	3.8060	-0.8702	6.58	0.59	-0.750			
0.2125	13596.91	3.8030	3.8031	-0.8750	6.59	0.60	-0.750			
0.2151	13765.04	3.8000	3.7999	-0.8744	6.60	0.61	-0.750			
0.2177	13932.12	3.7970	3.7969	-0.8734	6.61	0.62	-0.750			
0.2203	14099.99	3.7940	3.7940	-0.8805	6.62	0.63	-0.750			
0.2230	14268.99	3.7910	3.7910	-0.8811	6.63	0.64	-0.750			
0.2256	14440.81	3.7880	3.7879	-0.8861	6.63	0.64	-0.750			
0.2283	14610.69	3.7850	3.7851	-0.8839	6.64	0.65	-0.750			
0.2310	14780.93	3.7820	3.7822	-0.8830	6.65	0.66	-0.750			
0.2336	14949.49	3.7790	3.7791	-0.8831	6.66	0.67	-0.750			
0.2362	15118.51	3.7760	3.7759	-0.8830	6.67	0.68	-0.750			
0.2388	15286.07	3.7730	3.7730	-0.8879	6.68	0.69	-0.750			
0.2415	15456.89	3.7700	3.7700	-0.8974	6.69	0.70	-0.750			
0.2442	15630.35	3.7670	3.7670	-0.8994	6.70	0.71	-0.750			
0.2470	15806.36	3.7640	3.7639	-0.8998	6.71	0.72	-0.750			
0.2497	15978.91	3.7610	3.7611	-0.8999	6.72	0.73	-0.750			
0.2524	16150.54	3.7580	3.7581	-0.8994	6.73	0.74	-0.750			
0.2551	16323.58	3.7550	3.7548	-0.8991	6.74	0.75	-0.750			
0.2577	16491.76	3.7520	3.7521	-0.9043	6.75	0.76	-0.750			
0.2604	16666.29	3.7490	3.7490	-0.9150	6.76	0.77	-0.750			
0.2632	16846.53	3.7460	3.7460	-0.9246	6.77	0.78	-0.750			
0.2660	17026.53	3.7430	3.7429	-0.9227	6.77	0.78	-0.750			
0.2688	17203.60	3.7400	3.7401	-0.9220	6.78	0.79	-0.750			
0.2716	17381.84	3.7370	3.7372	-0.9161	6.79	0.80	-0.750			
0.2743	17556.25	3.7340	3.7340	-0.9126	6.80	0.81	-0.750			
0.2770	17725.55	3.7310	3.7310	-0.9089	6.80	0.81	-0.750			
0.2797	17902.01	3.7280	3.7280	-0.9186	6.81	0.82	-0.750			
0.2825	18079.36	3.7250	3.7249	-0.9296	6.82	0.83	-0.750			
0.2853	18258.81	3.7220	3.7221	-0.9352	6.82	0.83	-0.750			
0.2881	18441.17	3.7190	3.7190	-0.9392	6.83	0.84	-0.750			
0.2910	18622.98	3.7160	3.7160	-0.9443	6.84	0.85	-0.750			
0.2938	18803.50	3.7130	3.7129	-0.9435	6.84	0.85	-0.750			
0.2966	18983.73	3.7100	3.7101	-0.9519	6.85	0.86	-0.750			
0.2995	19167.11	3.7070	3.7069	-0.9603	6.86	0.87	-0.750			
0.3024	19351.09	3.7040	3.7041	-0.9693	6.87	0.88	-0.750			
0.3053	19539.39	3.7010	3.7011	-0.9787	6.88	0.89	-0.750			
0.3083	19729.26	3.6980	3.6980	-0.9835	6.89	0.90	-0.750			
0.3113	19920.58	3.6950	3.6950	-0.9859	6.89	0.90	-0.750			
0.3142	20109.82	3.6920	3.6920	-0.9850	6.90	0.91	-0.750			
0.3172	20298.75	3.6890	3.6890	-0.9881	6.91	0.92	-0.750			
0.3201	20487.13	3.6860	3.6859	-0.9938	6.92	0.93	-0.750			
0.3231	20678.11	3.6830	3.6828	-0.9916	6.92	0.93	-0.750			
0.3261	20869.41	3.6800	3.6800	-0.9974	6.93	0.94	-0.750			
0.3291	21060.40	3.6770	3.6770	-1.0024	6.94	0.95	-0.750			
0.3321	21254.34	3.6740	3.6740	-1.0198	6.94	0.95	-0.750			
0.3352	21450.55	3.6710	3.6709	-1.0314	6.95	0.96	-0.750			
0.3382	21647.50	3.6680	3.6679	-1.0363	6.95	0.96	-0.750			
0.3414	21848.74	3.6650	3.6650	-1.0476	6.96	0.97	-0.750			
0.3446	22053.38	3.6620	3.6621	-1.0623	6.96	0.97	-0.750			
0.3478	22259.93	3.6590	3.6589	-1.0653	6.97	0.98	-0.750			
0.3510	22462.36	3.6560	3.6561	-1.0754	6.97	0.98	-0.750			
0.3541	22664.72	3.6530	3.6530	-1.0831	6.98	0.99	-0.750			
0.3574	22875.84	3.6500	3.6499	-1.1036	6.98	0.99	-0.750			
0.3608	23090.36	3.6470	3.6469	-1.1203	6.99	1.00	-0.750			
0.3642	23307.31	3.6440	3.6441	-1.1293	7.00	1.01	-0.750			
0.3676	23527.84	3.6410	3.6411	-1.1413	7.01	1.02	-0.750			
0.3711	23751.11	3.6380	3.6379	-1.1577	7.01	1.02	-0.750			
0.3746	23974.03	3.6350	3.6350	-1.1566	7.02	1.03	-0.750			
0.3780	24191.88	3.6320	3.6319	-1.1679	7.02	1.03	-0.750			
0.3815	24416.88	3.6290	3.6292	-1.1853	7.02	1.03	-0.750			
0.3851	24646.53	3.6260	3.6259	-1.1990	7.03	1.04	-0.750			
0.3887	24879.25	3.6230	3.6229	-1.2064	7.04	1.05	-0.750			
0.3923	25107.73	3.6200	3.6202	-1.2265	7.05	1.06	-0.750			
0.3961	25349.67	3.6170	3.6171	-1.2457	7.06	1.07	-0.750			
0.3999	25591.86	3.6140	3.6139	-1.2580	7.06	1.07	-0.750			
0.4036	25833.30	3.6110	3.6110	-1.2577	7.07	1.08	-0.750			
0.4074	26076.21	3.6080	3.6078	-1.2693	7.07	1.08	-0.750			
0.4113	26322.04	3.6050	3.6052	-1.2857	7.07	1.08	-0.750	0.429	0.994	
0.4151	26567.59	3.6020	3.6020	-1.3016	7.08	1.09	-0.750			
0.4190	26815.65	3.5990	3.5991	-1.3047	7.08	1.09	-0.750			
0.4230	27071.48	3.5960	3.5959	-1.3247	7.09	1.10	-0.750			
0.4270	27325.71	3.5930	3.5930	-1.3397	7.09	1.10	-0.750			
0.4310	27584.01	3.5900	3.5902	-1.3550	7.10	1.11	-0.750			
0.4351	27847.25	3.5870	3.5869	-1.3995	7.10	1.11	-0.750			
0.4393	28114.89	3.5840	3.5840	-1.4233	7.11	1.12	-0.750			
0.4437	28397.54	3.5810	3.5809	-1.4369	7.11	1.12	-0.750			
0.4481	28680.24	3.5780	3.5783	-1.4580	7.12	1.13	-0.750			
0.4525	28960.65	3.5750	3.5749	-1.4669	7.13	1.14	-0.750			
0.4569	29241.72	3.5720	3.5720	-1.4721	7.13	1.14	-0.750			
0.4613	29521.31	3.5690	3.5689	-1.4739	7.13	1.14	-0.750			
0.4656	29800.84	3.5660	3.5660	-1.4945	7.14	1.15	-0.750			
0.4701	30088.58	3.5630	3.5629	-1.5084	7.14	1.15	-0.750			
0.4748	30387.23	3.5600	3.5600	-1.5248	7.15	1.16	-0.750			
0.4794	30679.53	3.5570	3.5569	-1.5400	7.15	1.16	-0.750			
0.4840	30973.57	3.5540	3.5543	-1.5592	7.16	1.17	-0.750			
0.4887	31276.61	3.5510	3.5507	-1.5761	7.16	1.17	-0.750			
0.4934	31579.05	3.5480	3.5482	-1.5902	7.17	1.18	-0.750			
0.4982	31885.33	3.5450	3.5448	-1.6021	7.18	1.19	-0.750			
0.5031	32198.33	3.5420	3.5421	-1.6275	7.19	1.20	-0.750			
0.5080	32513.62	3.5390	3.5388	-1.6391	7.19	1.20	-0.750			
0.5129	32828.03	3.5360	3.5360	-1.6504	7.20	1.21	-0.750			
0.5178	33141.23	3.5330	3.5332	-1.6509	7.20	1.21	-0.750			
0.5228	33459.80	3.5300	3.5301	-1.6843	7.21	1.22	-0.750			
0.5279	33786.40	3.5270	3.5269	-1.7012	7.22	1.23	-0.750			
0.5331	34115.72	3.5240	3.5237	-1.6997	7.22	1.23	-0.750			
0.5382	34447.19	3.5210	3.5210	-1.7046	7.23	1.24	-0.750			
0.5433	34773.56	3.5180	3.5182	-1.7046	7.24	1.25	-0.750			
0.5485	35104.79	3.5150	3.5148	-1.7064	7.25	1.26	-0.750			
0.5535	35425.95	3.5120	3.5119	-1.6978	7.27	1.28	-0.750			
0.5586	35750.99	3.5090	3.5092	-1.7065	7.28	1.29	-0.750			
0.5638	36085.13	3.5060	3.5061	-1.7053	7.28	1.29	-0.750			
0.5690	36414.03	3.5030	3.5030	-1.6989	7.29	1.30	-0.750			
0.5740	36737.18	3.5000	3.5000	-1.6996	7.30	1.31	-0.750			
0.5791	37062.56	3.4970	3.4968	-1.6904	7.31	1.32	-0.750			
0.5841	37385.26	3.4940	3.4939	-1.6882	7.32	1.33	-0.750			
0.5892	37710.15	3.4910	3.4912	-1.6788	7.33	1.34	-0.750			
0.5943	38033.30	3.4880	3.4880	-1.6818	7.34	1.35	-0.750			
0.5994	38358.84	3.4850	3.4851	-1.6706	7.35	1.36	-0.750			
0.6044	38682.13	3.4820	3.4820	-1.6510	7.36	1.37	-0.750			
0.6093	38995.69	3.4790	3.4790	-1.6409	7.37	1.38	-0.750			
0.6143	39313.72	3.4760	3.4760	-1.6239	7.38	1.39	-0.750			
0.6191	39624.32	3.4730	3.4730	-1.6050	7.39	1.40	-0.750			
0.6238	39926.09	3.4700	3.4703	-1.5916	7.41	1.42	-0.750			
0.6286	40230.27	3.4670	3.4669	-1.5682	7.42	1.43	-0.750			
0.6333	40531.73	3.4640	3.4640	-1.5623	7.44	1.45	-0.750			
0.6380	40829.58	3.4610	3.4610	-1.5571	7.45	1.46	-0.750			
0.6427	41130.40	3.4580	3.4581	-1.5481	7.46	1.47	-0.750			
0.6473	41427.69	3.4550	3.4550	-1.5156	7.47	1.48	-0.750			
0.6518	41716.87	3.4520	3.4519	-1.4860	7.49	1.50	-0.750			
0.6562	41999.26	3.4490	3.4492	-1.4457	7.50	1.51	-0.750			
0.6606	42275.66	3.4460	3.4457	-1.4107	7.51	1.52	-0.750			
0.6646	42536.80	3.4430	3.4430	-1.3728	7.52	1.53	-0.750			
0.6687	42794.05	3.4400	3.4402	-1.3528	7.53	1.54	-0.750			
0.6728	43058.43	3.4370	3.4367	-1.3361	7.55	1.56	-0.750			
0.6767	43308.95	3.4340	3.4340	-1.3042	7.56	1.57	-0.750			
0.6806	43560.75	3.4310	3.4312	-1.2931	7.57	1.58	-0.750			
0.6845	43810.28	3.4280	3.4280	-1.2725	7.59	1.60	-0.750			
0.6883	44053.57	3.4250	3.4248	-1.2341	7.60	1.61	-0.750			
0.6919	44282.52	3.4220	3.4220	-1.1974	7.62	1.63	-0.750			
0.6955	44511.44	3.4190	3.4191	-1.1665	7.63	1.64	-0.750			
0.6990	44733.34	3.4160	3.4159	-1.1319	7.64	1.65	-0.750			
0.7023	44945.77	3.4130	3.4129	-1.0893	7.65	1.66	-0.750			
0.7055	45150.02	3.4100	3.4101	-1.0577	7.66	1.67	-0.750			
0.7086	45350.22	3.4070	3.4070	-1.0339	7.68	1.69	-0.750			
0.7117	45546.66	3.4040	3.4039	-1.0039	7.69	1.70	-0.750			
0.7146	45733.61	3.4010	3.4010	-0.9689	7.70	1.71	-0.750			
0.7175	45920.57	3.3980	3.3980	-0.9463	7.72	1.73	-0.750			
0.7203	46098.99	3.3950	3.3951	-0.9145	7.73	1.74	-0.750			
0.7230	46273.25	3.3920	3.3920	-0.8820	7.74	1.75	-0.750			
0.7256	46437.43	3.3890	3.3890	-0.8491	7.75	1.76	-0.750			
0.7281	46596.40	3.3860	3.3860	-0.8184	7.76	1.77	-0.750			
0.7305	46750.05	3.3830	3.3831	-0.7943	7.77	1.78	-0.750			
0.7328	46898.86	3.3800	3.3799	-0.7702	7.78	1.79	-0.750			
0.7351	47044.02	3.3770	3.3770	-0.7490	7.80	1.81	-0.750			
0.7373	47187.18	3.3740	3.3740	-0.7217	7.81	1.82	-0.750			
0.7395	47325.90	3.3710	3.3709	-0.6983	7.82	1.83	-0.750			
0.7415	47456.81	3.3680	3.3681	-0.6681	7.83	1.84	-0.750			
0.7435	47581.33	3.3650	3.3650	-0.6457	7.84	1.85	-0.750			
0.7453	47701.71	3.3620	3.3620	-0.6222	7.85	1.86	-0.750			
0.7471	47816.65	3.3590	3.3589	-0.6014	7.86	1.87	-0.750			
0.7489	47931.01	3.3560	3.3561	-0.5868	7.87	1.88	-0.750			
0.7507	48043.82	3.3530	3.3530	-0.5722	7.88	1.89	-0.750			
0.7524	48151.81	3.3500	3.3500	-0.5539	7.89	1.90	-0.750			
0.7540	48256.84	3.3470	3.3470	-0.5342	7.90	1.91	-0.750			
0.7556	48356.98	3.3440	3.3440	-0.5141	7.91	1.92	-0.750			
0.7571	48453.64	3.3410	3.3410	-0.4971	7.92	1.93	-0.750			
0.7585	48546.80	3.3380	3.3381	-0.4828	7.93	1.94	-0.750			
0.7600	48637.71	3.3350	3.3349	-0.4681	7.94	1.95	-0.750			
0.7613	48726.06	3.3320	3.3320	-0.4546	7.95	1.96	-0.750			
0.7627	48811.80	3.3290	3.3291	-0.4425	7.96	1.97	-0.750			
0.7640	48895.82	3.3260	3.3260	-0.4329	7.97	1.98	-0.750			
0.7653	48977.90	3.3230	3.3229	-0.4207	7.97	1.98	-0.750			
0.7665	49057.21	3.3200	3.3200	-0.4052	7.98	1.99	-0.750			
0.7677	49133.59	3.3170	3.3170	-0.3931	7.99	2.00	-0.750			
0.7689	49208.38	3.3140	3.3141	-0.3828	8.00	2.01	-0.750			
0.7700	49280.31	3.3110	3.3108	-0.3714	8.01	2.02	-0.750			
0.7711	49349.19	3.3080	3.3080	-0.3625	8.02	2.03	-0.750			
0.7722	49418.09	3.3050	3.3050	-0.3553	8.02	2.03	-0.750			
0.7732	49486.15	3.3020	3.3019	-0.3485	8.03	2.04	-0.750			
0.7743	49553.21	3.2990	3.2990	-0.3398	8.04	2.05	-0.750			
0.7753	49617.26	3.2960	3.2961	-0.3310	8.05	2.06	-0.750			
0.7763	49680.22	3.2930	3.2930	-0.3211	8.06	2.07	-0.750			
0.7772	49740.17	3.2900	3.2900	-0.3133	8.06	2.07	-0.750			
0.7781	49799.06	3.2870	3.2870	-0.3047	8.07	2.08	-0.750			
0.7790	49856.84	3.2840	3.2840	-0.2990	8.08	2.09	-0.750			
0.7799	49913.81	3.2810	3.2810	-0.2920	8.09	2.10	-0.750			
0.7808	49969.93	3.2780	3.2779	-0.2858	8.09	2.10	-0.750			
0.7816	50023.66	3.2750	3.2750	-0.2780	8.10	2.11	-0.750			
0.7824	50076.47	3.2720	3.2720	-0.2719	8.11	2.12	-0.750			
0.7832	50127.30	3.2690	3.2691	-0.2636	8.12	2.13	-0.750			
0.7840	50177.97	3.2660	3.2659	-0.2572	8.13	2.14	-0.750			
0.7848	50225.68	3.2630	3.2631	-0.2504	8.13	2.14	-0.750			
0.7855	50273.30	3.2600	3.2600	-0.2455	8.14	2.15	-0.750			
0.7862	50319.94	3.2570	3.2571	-0.2404	8.15	2.16	-0.750			
0.7870	50365.71	3.2540	3.2538	-0.2352	8.15	2.16	-0.750			
0.7877	50410.04	3.2510	3.2511	-0.2294	8.16	2.17	-0.750			
0.7883	50453.87	3.2480	3.2480	-0.2247	8.17	2.18	-0.750			
0.7890	50496.51	3.2450	3.2450	-0.2195	8.17	2.18	-0.750			
0.7897	50538.30	3.2420	3.2420	-0.2167	8.18	2.19	-0.750			
0.7903	50578.68	3.2390	3.2389	-0.2127	8.19	2.20	-0.750			
0.7909	50619.38	3.2360	3.2360	-0.2091	8.19	2.20	-0.750			
0.7916	50659.35	3.2330	3.2329	-0.2059	8.20	2.21	-0.750			
0.7922	50698.71	3.2300	3.2302	-0.2029	8.20	2.21	-0.750			
0.7928	50737.73	3.2270	3.2270	-0.1990	8.20	2.21	-0.750			
0.7934	50775.53	3.2240	3.2240	-0.1957	8.21	2.22	-0.750			
0.7939	50812.07	3.2210	3.2210	-0.1909	8.21	2.22	-0.750			
0.7945	50848.46	3.2180	3.2181	-0.1882	8.22	2.23	-0.750			
0.7951	50884.19	3.2150	3.2149	-0.1852	8.22	2.23	-0.750			
0.7956	50919.66	3.2120	3.2120	-0.1825	8.23	2.24	-0.750			
0.7962	50954.71	3.2090	3.2090	-0.1789	8.24	2.25	-0.750			
0.7967	50988.70	3.2060	3.2060	-0.1752	8.24	2.25	-0.750			
0.7972	51022.13	3.2030	3.2030	-0.1730	8.25	2.26	-0.750			
0.7977	51054.84	3.2000	3.2001	-0.1693	8.25	2.26	-0.750			
0.7982	51086.66	3.1970	3.1970	-0.1663	8.26	2.27	-0.750			
0.7987	51118.39	3.1940	3.1939	-0.1642	8.27	2.28	-0.750			
0.7992	51149.54	3.1910	3.1911	-0.1620	8.27	2.28	-0.750			
0.7997	51180.55	3.1880	3.1879	-0.1596	8.28	2.29	-0.750			
0.8002	51211.22	3.1850	3.1851	-0.1580	8.28	2.29	-0.750			
0.8006	51241.29	3.1820	3.1819	-0.1553	8.29	2.30	-0.750			
0.8011	51270.57	3.1790	3.1791	-0.1527	8.29	2.30	-0.750			
0.8016	51299.89	3.1760	3.1759	-0.1510	8.30	2.31	-0.750			
0.8020	51328.56	3.1730	3.1730	-0.1480	8.30	2.31	-0.750			
0.8024	51356.76	3.1700	3.1700	-0.1457	8.31	2.32	-0.750			
0.8029	51384.54	3.1670	3.1668	-0.1435	8.31	2.32	-0.750			
0.8033	51411.81	3.1640	3.1640	-0.1419	8.32	2.33	-0.750			
0.8037	51438.68	3.1610	3.1610	-0.1396	8.32	2.33	-0.750			
0.8041	51465.43	3.1580	3.1579	-0.1372	8.33	2.34	-0.750			
0.8046	51491.54	3.1550	3.1550	-0.1349	8.33	2.34	-0.750			
0.8050	51517.28	3.1520	3.1521	-0.1328	8.34	2.35	-0.750			
0.8054	51542.54	3.1490	3.1491	-0.1316	8.34	2.35	-0.750			
0.8057	51567.64	3.1460	3.1459	-0.1297	8.35	2.36	-0.750			
0.8061	51592.26	3.1430	3.1429	-0.1277	8.35	2.36	-0.750			
0.8065	51616.21	3.1400	3.1400	-0.1261	8.36	2.37	-0.750			
0.8069	51640.35	3.1370	3.1372	-0.1254	8.36	2.37	-0.750			
0.8073	51664.61	3.1340	3.1340	-0.1241	8.37	2.38	-0.750			
0.8076	51688.36	3.1310	3.1308	-0.1228	8.37	2.38	-0.750			
0.8080	51711.75	3.1280	3.1282	-0.1214	8.38	2.39	-0.750			
0.8084	51734.81	3.1250	3.1249	-0.1200	8.38	2.39	-0.750			
0.8087	51757.75	3.1220	3.1221	-0.1187	8.39	2.40	-0.750			
0.8091	51780.63	3.1190	3.1188	-0.1175	8.39	2.40	-0.750			
0.8094	51802.92	3.1160	3.1160	-0.1154	8.40	2.41	-0.750			
0.8098	51824.94	3.1130	3.1130	-0.1140	8.40	2.41	-0.750			
0.8101	51846.71	3.1100	3.1101	-0.1131	8.41	2.42	-0.750			
0.8104	51868.30	3.1070	3.1069	-0.1118	8.41	2.42	-0.750			
0.8108	51889.68	3.1040	3.1039	-0.1099	8.41	2.42	-0.750			
0.8111	51910.62	3.1010	3.1010	-0.1083	8.42	2.43	-0.750			
0.8114	51931.10	3.0980	3.0982	-0.1072	8.42	2.43	-0.750			
0.8117	51951.58	3.0950	3.0951	-0.1061	8.43	2.44	-0.750			
0.8121	51971.59	3.0920	3.0920	-0.1059	8.43	2.44	-0.750			
0.8124	51991.90	3.0890	3.0888	-0.1057	8.44	2.45	-0.750			
