Ah_balance (normalized)	Ah_balance (mAh)	Voltage - fit (V)	Voltage -  interpolate (V)	dQ/dV (1/V)	Temperature (°C)	Temperature - diff (°C)	Current (C)	R_DC 0ms (mOhm)	R_DC 50ms (mOhm)	R_DC 50 ms PEC (mOhm)
0.0993	6352.61	4.1980	4.1999	0.7499	8.05	2.05	0.750			
0.1011	6469.51	4.1950	4.1971	0.6682	8.05	2.05	0.750			
0.1033	6609.46	4.1920	4.1942	0.7468	8.04	2.04	0.750			
0.1056	6757.81	4.1890	4.1910	0.7655	8.04	2.04	0.750			
0.1081	6918.57	4.1860	4.1874	0.7735	8.03	2.03	0.750			
0.1106	7077.07	4.1830	4.1838	0.7779	8.03	2.03	0.750			
0.1132	7242.36	4.1800	4.1800	0.7870	8.02	2.02	0.750			
0.1153	7380.47	4.1770	4.1771	0.6978	8.01	2.01	0.750			
0.1174	7513.97	4.1740	4.1740	0.7049	8.01	2.01	0.750			
0.1195	7649.56	4.1710	4.1709	0.7086	8.00	2.00	0.750			
0.1216	7785.59	4.1680	4.1681	0.7114	7.99	1.99	0.750			
0.1238	7924.54	4.1650	4.1649	0.7196	7.99	1.99	0.750			
0.1260	8065.09	4.1620	4.1621	0.7265	7.98	1.98	0.750			
0.1282	8203.02	4.1590	4.1591	0.7268	7.97	1.97	0.750			
0.1304	8346.46	4.1560	4.1559	0.7259	7.97	1.97	0.750			
0.1326	8484.10	4.1530	4.1530	0.7228	7.96	1.96	0.750			
0.1347	8622.91	4.1500	4.1500	0.7226	7.96	1.96	0.750			
0.1369	8760.31	4.1470	4.1471	0.7174	7.95	1.95	0.750			
0.1390	8896.52	4.1440	4.1439	0.7204	7.95	1.95	0.750			
0.1412	9034.32	4.1410	4.1410	0.7232	7.94	1.94	0.750			
0.1433	9174.20	4.1380	4.1378	0.7222	7.94	1.94	0.750			
0.1455	9313.55	4.1350	4.1350	0.7360	7.93	1.93	0.750			
0.1477	9455.04	4.1320	4.1322	0.7415	7.93	1.93	0.750			
0.1500	9599.26	4.1290	4.1289	0.7530	7.92	1.92	0.750			
0.1523	9745.41	4.1260	4.1261	0.7583	7.92	1.92	0.750			
0.1545	9889.54	4.1230	4.1231	0.7598	7.91	1.91	0.750			
0.1568	10037.70	4.1200	4.1200	0.7633	7.91	1.91	0.750			
0.1591	10184.46	4.1170	4.1169	0.7611	7.90	1.90	0.750			
0.1614	10331.73	4.1140	4.1141	0.7643	7.90	1.90	0.750			
0.1637	10479.80	4.1110	4.1108	0.7624	7.89	1.89	0.750			
0.1660	10625.00	4.1080	4.1081	0.7642	7.88	1.88	0.750			
0.1683	10772.89	4.1050	4.1051	0.7632	7.87	1.87	0.750			
0.1706	10918.35	4.1020	4.1019	0.7656	7.87	1.87	0.750			
0.1729	11064.82	4.0990	4.0989	0.7737	7.86	1.86	0.750			
0.1752	11211.23	4.0960	4.0961	0.7780	7.85	1.85	0.750			
0.1775	11363.13	4.0930	4.0930	0.7802	7.85	1.85	0.750			
0.1800	11517.69	4.0900	4.0900	0.7826	7.84	1.84	0.750			
0.1823	11666.20	4.0870	4.0870	0.7831	7.83	1.83	0.750			
0.1846	11816.14	4.0840	4.0841	0.7867	7.82	1.82	0.750			
0.1870	11965.13	4.0810	4.0810	0.7903	7.82	1.82	0.750			
0.1893	12115.24	4.0780	4.0780	0.7921	7.81	1.81	0.750			
0.1917	12269.05	4.0750	4.0751	0.8049	7.80	1.80	0.750			
0.1942	12427.08	4.0720	4.0720	0.8178	7.80	1.80	0.750			
0.1966	12584.17	4.0690	4.0690	0.8222	7.79	1.79	0.750			
0.1991	12742.22	4.0660	4.0661	0.8304	7.78	1.78	0.750			
0.2016	12902.66	4.0630	4.0630	0.8379	7.78	1.78	0.750			
0.2042	13067.12	4.0600	4.0599	0.8311	7.77	1.77	0.750			
0.2067	13227.41	4.0570	4.0571	0.8331	7.77	1.77	0.750			
0.2092	13386.12	4.0540	4.0541	0.8276	7.76	1.76	0.750			
0.2116	13543.45	4.0510	4.0510	0.8324	7.75	1.75	0.750			
0.2141	13701.28	4.0480	4.0480	0.8332	7.75	1.75	0.750			
0.2166	13862.07	4.0450	4.0450	0.8344	7.74	1.74	0.750			
0.2191	14024.50	4.0420	4.0420	0.8411	7.73	1.73	0.750			
0.2217	14188.15	4.0390	4.0391	0.8475	7.72	1.72	0.750			
0.2242	14350.38	4.0360	4.0362	0.8443	7.72	1.72	0.750			
0.2268	14512.04	4.0330	4.0329	0.8516	7.71	1.71	0.750			
0.2293	14676.16	4.0300	4.0300	0.8465	7.70	1.70	0.750			
0.2318	14837.39	4.0270	4.0270	0.8571	7.69	1.69	0.750			
0.2344	15004.69	4.0240	4.0240	0.8577	7.68	1.68	0.750			
0.2370	15170.27	4.0210	4.0210	0.8592	7.67	1.67	0.750			
0.2396	15335.06	4.0180	4.0182	0.8656	7.67	1.67	0.750			
0.2422	15502.38	4.0150	4.0149	0.8665	7.66	1.66	0.750			
0.2448	15667.68	4.0120	4.0119	0.8697	7.65	1.65	0.750			
0.2474	15836.40	4.0090	4.0091	0.8779	7.65	1.65	0.750			
0.2501	16003.39	4.0060	4.0059	0.8866	7.64	1.64	0.750			
0.2528	16176.46	4.0030	4.0030	0.8981	7.63	1.63	0.750			
0.2554	16347.64	4.0000	4.0000	0.8996	7.63	1.63	0.750			
0.2581	16521.24	3.9970	3.9971	0.9060	7.62	1.62	0.750			
0.2609	16698.69	3.9940	3.9941	0.9139	7.61	1.61	0.750			
0.2636	16872.54	3.9910	3.9906	0.9181	7.60	1.60	0.750			
0.2664	17051.36	3.9880	3.9881	0.9134	7.59	1.59	0.750			
0.2691	17224.45	3.9850	3.9851	0.9200	7.58	1.58	0.750			
0.2719	17402.42	3.9820	3.9820	0.9285	7.57	1.57	0.750			
0.2747	17579.16	3.9790	3.9792	0.9233	7.56	1.56	0.750			
0.2775	17760.78	3.9760	3.9759	0.9314	7.56	1.56	0.750			
0.2803	17939.63	3.9730	3.9731	0.9402	7.55	1.55	0.750			
0.2831	18118.93	3.9700	3.9701	0.9492	7.54	1.54	0.750			
0.2860	18304.26	3.9670	3.9670	0.9607	7.53	1.53	0.750			
0.2888	18484.97	3.9640	3.9638	0.9584	7.52	1.52	0.750			
0.2918	18672.50	3.9610	3.9610	0.9693	7.51	1.51	0.750			
0.2947	18862.32	3.9580	3.9580	0.9767	7.50	1.50	0.750			
0.2977	19049.67	3.9550	3.9549	0.9794	7.49	1.49	0.750			
0.3006	19235.90	3.9520	3.9519	0.9842	7.48	1.48	0.750			
0.3035	19424.36	3.9490	3.9490	0.9878	7.47	1.47	0.750			
0.3065	19616.84	3.9460	3.9460	1.0011	7.46	1.46	0.750			
0.3095	19809.22	3.9430	3.9429	1.0102	7.45	1.45	0.750			
0.3126	20004.31	3.9400	3.9401	1.0170	7.43	1.43	0.750			
0.3157	20204.97	3.9370	3.9369	1.0218	7.42	1.42	0.750			
0.3187	20398.79	3.9340	3.9340	1.0268	7.41	1.41	0.750			
0.3218	20596.08	3.9310	3.9310	1.0265	7.40	1.40	0.750			
0.3249	20794.14	3.9280	3.9280	1.0298	7.39	1.39	0.750			
0.3280	20992.49	3.9250	3.9251	1.0447	7.38	1.38	0.750			
0.3311	21190.79	3.9220	3.9221	1.0572	7.37	1.37	0.750			
0.3343	21395.56	3.9190	3.9188	1.0738	7.36	1.36	0.750			
0.3376	21604.74	3.9160	3.9159	1.0895	7.34	1.34	0.750			
0.3408	21814.09	3.9130	3.9130	1.0940	7.33	1.33	0.750			
0.3442	22026.52	3.9100	3.9100	1.1099	7.32	1.32	0.750			
0.3475	22241.64	3.9070	3.9071	1.1215	7.31	1.31	0.750			
0.3509	22460.05	3.9040	3.9037	1.1132	7.30	1.30	0.750			
0.3542	22671.03	3.9010	3.9011	1.1241	7.29	1.29	0.750			
0.3576	22886.73	3.8980	3.8981	1.1436	7.28	1.28	0.750			
0.3610	23106.82	3.8950	3.8951	1.1650	7.27	1.27	0.750			
0.3647	23341.37	3.8920	3.8918	1.1398	7.26	1.26	0.750			
0.3680	23554.26	3.8890	3.8891	1.1714	7.24	1.24	0.750			
0.3715	23776.85	3.8860	3.8864	1.2092	7.23	1.23	0.750			
0.3752	24014.93	3.8830	3.8826	1.2342	7.21	1.21	0.750	0.379	0.810	
0.3789	24249.92	3.8800	3.8804	1.2624	7.20	1.20	0.750			
0.3828	24496.37	3.8770	3.8774	1.2849	7.18	1.18	0.750			
0.3867	24750.86	3.8740	3.8740	1.3134	7.17	1.17	0.750			
0.3909	25017.37	3.8710	3.8710	1.3363	7.15	1.15	0.750			
0.3949	25271.65	3.8680	3.8680	1.3014	7.13	1.13	0.750			
0.3987	25519.35	3.8650	3.8651	1.3193	7.12	1.12	0.750			
0.4027	25772.03	3.8620	3.8623	1.3567	7.10	1.10	0.750			
0.4067	26029.94	3.8590	3.8588	1.3698	7.09	1.09	0.750			
0.4110	26301.52	3.8560	3.8561	1.3906	7.07	1.07	0.750			
0.4152	26570.77	3.8530	3.8532	1.4188	7.05	1.05	0.750			
0.4195	26848.76	3.8500	3.8502	1.4263	7.04	1.04	0.750			
0.4240	27133.51	3.8470	3.8469	1.4332	7.02	1.02	0.750			
0.4281	27399.53	3.8440	3.8441	1.4192	7.00	1.00	0.750			
0.4322	27663.92	3.8410	3.8411	1.4456	6.99	0.99	0.750			
0.4366	27943.78	3.8380	3.8380	1.4788	6.97	0.97	0.750			
0.4411	28231.48	3.8350	3.8349	1.5182	6.95	0.95	0.750			
0.4457	28525.78	3.8320	3.8323	1.5416	6.94	0.94	0.750			
0.4505	28831.18	3.8290	3.8288	1.5602	6.92	0.92	0.750			
0.4553	29138.08	3.8260	3.8262	1.5787	6.90	0.90	0.750			
0.4600	29439.32	3.8230	3.8229	1.5871	6.88	0.88	0.750			
0.4647	29739.26	3.8200	3.8198	1.6057	6.86	0.86	0.750			
0.4696	30054.42	3.8170	3.8171	1.6097	6.84	0.84	0.750			
0.4744	30363.16	3.8140	3.8139	1.6197	6.82	0.82	0.750			
0.4793	30674.12	3.8110	3.8111	1.6423	6.80	0.80	0.750			
0.4842	30989.71	3.8080	3.8080	1.6580	6.78	0.78	0.750			
0.4892	31309.35	3.8050	3.8051	1.6676	6.76	0.76	0.750			
0.4942	31625.60	3.8020	3.8021	1.6878	6.74	0.74	0.750			
0.4992	31949.38	3.7990	3.7990	1.7206	6.73	0.73	0.750			
0.5045	32290.69	3.7960	3.7956	1.7529	6.71	0.71	0.750			
0.5098	32627.42	3.7930	3.7933	1.7879	6.68	0.68	0.750			
0.5152	32970.59	3.7900	3.7900	1.8241	6.66	0.66	0.750			
0.5209	33335.18	3.7870	3.7871	1.8641	6.64	0.64	0.750			
0.5263	33682.67	3.7840	3.7843	1.8863	6.62	0.62	0.750			
0.5321	34052.73	3.7810	3.7811	1.9443	6.60	0.60	0.750			
0.5379	34428.05	3.7780	3.7779	2.0091	6.58	0.58	0.750			
0.5442	34826.12	3.7750	3.7749	2.0581	6.55	0.55	0.750			
0.5504	35228.60	3.7720	3.7720	2.1309	6.52	0.52	0.750			
0.5569	35643.92	3.7690	3.7690	2.2251	6.50	0.50	0.750			
0.5637	36074.62	3.7660	3.7656	2.2897	6.47	0.47	0.750			
0.5706	36518.20	3.7630	3.7630	2.4096	6.45	0.45	0.750			
0.5779	36987.96	3.7600	3.7600	2.5195	6.42	0.42	0.750			
0.5857	37487.69	3.7570	3.7571	2.6660	6.39	0.39	0.750			
0.5939	38011.47	3.7540	3.7538	2.7787	6.36	0.36	0.750			
0.6025	38563.12	3.7510	3.7511	2.9302	6.33	0.33	0.750			
0.6117	39147.02	3.7480	3.7480	3.0486	6.30	0.30	0.750			
0.6210	39741.23	3.7450	3.7450	3.0248	6.27	0.27	0.750			
0.6301	40327.49	3.7420	3.7420	2.9117	6.24	0.24	0.750			
0.6388	40880.28	3.7390	3.7390	2.6737	6.21	0.21	0.750			
0.6462	41359.80	3.7360	3.7361	2.3745	6.19	0.19	0.750			
0.6529	41784.19	3.7330	3.7329	2.0911	6.17	0.17	0.750			
0.6587	42154.36	3.7300	3.7299	1.8517	6.15	0.15	0.750			
0.6637	42474.74	3.7270	3.7267	1.6363	6.14	0.14	0.750			
0.6681	42758.38	3.7240	3.7241	1.4804	6.13	0.13	0.750			
0.6722	43017.85	3.7210	3.7210	1.3491	6.12	0.12	0.750			
0.6759	43258.52	3.7180	3.7178	1.2473	6.11	0.11	0.750			
0.6794	43482.94	3.7150	3.7150	1.1744	6.10	0.10	0.750			
0.6828	43702.26	3.7120	3.7121	1.1369	6.09	0.09	0.750			
0.6861	43913.14	3.7090	3.7090	1.1050	6.09	0.09	0.750			
0.6894	44122.09	3.7060	3.7059	1.0725	6.08	0.08	0.750			
0.6926	44324.94	3.7030	3.7030	1.0496	6.07	0.07	0.750			
0.6957	44523.59	3.7000	3.7001	1.0361	6.06	0.06	0.750			
0.6988	44721.73	3.6970	3.6971	1.0267	6.06	0.06	0.750			
0.7018	44916.00	3.6940	3.6940	1.0004	6.05	0.05	0.750			
0.7048	45108.80	3.6910	3.6909	0.9773	6.04	0.04	0.750			
0.7077	45294.23	3.6880	3.6881	0.9546	6.03	0.03	0.750			
0.7106	45478.06	3.6850	3.6851	0.9280	6.03	0.03	0.750			
0.7133	45651.74	3.6820	3.6818	0.9041	6.02	0.02	0.750			
0.7159	45819.22	3.6790	3.6790	0.8825	6.01	0.01	0.750			
0.7185	45985.28	3.6760	3.6760	0.8783	6.01	0.01	0.750			
0.7211	46151.47	3.6730	3.6729	0.8813	6.00	0.00	0.750			
0.7238	46321.52	3.6700	3.6701	0.8806	6.00	-0.00	0.750			
0.7264	46491.66	3.6670	3.6669	0.8804	5.99	-0.01	0.750			
0.7291	46664.96	3.6640	3.6640	0.8710	5.99	-0.01	0.750			
0.7317	46830.76	3.6610	3.6611	0.8586	5.99	-0.01	0.750			
0.7343	46995.97	3.6580	3.6580	0.8433	5.98	-0.02	0.750			
0.7368	47157.84	3.6550	3.6550	0.8121	5.98	-0.02	0.750			
0.7393	47315.92	3.6520	3.6518	0.7676	5.98	-0.02	0.750			
0.7416	47462.96	3.6490	3.6492	0.7139	5.98	-0.02	0.750			
0.7437	47599.79	3.6460	3.6461	0.6482	5.99	-0.01	0.750			
0.7456	47718.81	3.6430	3.6429	0.5668	5.99	-0.01	0.750			
0.7472	47818.43	3.6400	3.6400	0.4755	5.99	-0.01	0.750			
0.7483	47888.40	3.6370	3.6375	0.4076	6.00	-0.00	0.750			
0.7494	47959.10	3.6340	3.6345	0.3352	6.00	-0.00	0.750			
0.7502	48015.92	3.6310	3.6311	0.2746	6.00	-0.00	0.750			
0.7509	48056.38	3.6280	3.6275	0.2074	6.00	-0.00	0.750			
0.7513	48086.36	3.6250	3.6226	0.1558	6.00	0.00	0.750			
0.7516	48102.06	3.6010	3.5887	-0.1059	6.00	0.00	0.750			
0.7517	48108.21	3.6220	3.5029	0.1138	6.00	0.00	0.754			
0.7519	48119.50	3.6040	3.3430	-0.0757	6.00	0.00	0.764			
0.7519	48119.92	3.6190	3.3370	0.0748	6.00	0.00	0.764			
0.7520	48131.15	3.6070	3.1781	-0.0456	6.00	0.00	0.773			
0.7521	48131.40	3.6160	3.1744	0.0447	6.00	0.00	0.774			
0.7521	48137.01	3.6100	3.0950	-0.0155	6.00	0.00	0.778			
0.7521	48137.10	3.6130	3.0938	0.0146	6.00	0.00	0.778			
