Ah_balance (normalized)	Ah_balance (mAh)	Voltage - fit (V)	Voltage -  interpolate (V)	dQ/dV (1/V)	Temperature (°C)	Temperature - diff (°C)	Current (C)	R_DC 0ms (mOhm)	R_DC 50ms (mOhm)	R_DC 50 ms PEC (mOhm)
0.0929	5947.10	4.1980	4.1961	0.7986	8.06	2.07	0.750	0.393	0.869	
0.0956	6118.20	4.1950	4.1971	0.9248	8.05	2.06	0.750			
0.0983	6292.78	4.1920	4.1932	0.8794	8.04	2.05	0.750			
0.1009	6456.35	4.1890	4.1897	0.8283	8.03	2.04	0.750			
0.1034	6618.98	4.1860	4.1857	0.8135	8.03	2.04	0.750			
0.1054	6747.30	4.1830	4.1830	0.7074	8.02	2.03	0.750			
0.1076	6883.53	4.1800	4.1801	0.7154	8.01	2.02	0.750			
0.1098	7024.17	4.1770	4.1769	0.7196	8.01	2.02	0.750			
0.1119	7161.43	4.1740	4.1741	0.7269	8.00	2.01	0.750			
0.1141	7300.00	4.1710	4.1711	0.7282	7.99	2.00	0.750			
0.1163	7441.99	4.1680	4.1680	0.7331	7.98	1.99	0.750			
0.1185	7583.01	4.1650	4.1650	0.7356	7.98	1.99	0.750			
0.1207	7724.54	4.1620	4.1621	0.7284	7.97	1.98	0.750			
0.1229	7865.38	4.1590	4.1591	0.7264	7.97	1.98	0.750			
0.1251	8005.14	4.1560	4.1560	0.7227	7.96	1.97	0.750			
0.1272	8139.75	4.1530	4.1530	0.7187	7.96	1.97	0.750			
0.1294	8278.60	4.1500	4.1500	0.7254	7.95	1.96	0.750			
0.1315	8417.74	4.1470	4.1470	0.7297	7.95	1.96	0.750			
0.1337	8557.86	4.1440	4.1440	0.7364	7.94	1.95	0.750			
0.1360	8702.16	4.1410	4.1410	0.7376	7.93	1.94	0.750			
0.1382	8844.26	4.1380	4.1380	0.7402	7.92	1.93	0.750			
0.1404	8985.86	4.1350	4.1351	0.7463	7.92	1.93	0.750			
0.1426	9128.60	4.1320	4.1317	0.7506	7.91	1.92	0.750			
0.1449	9272.98	4.1290	4.1289	0.7563	7.90	1.91	0.750			
0.1472	9419.65	4.1260	4.1261	0.7586	7.90	1.91	0.750			
0.1495	9567.43	4.1230	4.1230	0.7595	7.89	1.90	0.750			
0.1518	9714.14	4.1200	4.1200	0.7607	7.88	1.89	0.750			
0.1540	9858.10	4.1170	4.1171	0.7601	7.87	1.88	0.750			
0.1563	10003.48	4.1140	4.1140	0.7596	7.87	1.88	0.750			
0.1586	10148.74	4.1110	4.1109	0.7622	7.86	1.87	0.750			
0.1609	10294.83	4.1080	4.1081	0.7645	7.86	1.87	0.750			
0.1632	10442.37	4.1050	4.1050	0.7684	7.85	1.86	0.750			
0.1655	10591.30	4.1020	4.1020	0.7750	7.85	1.86	0.750			
0.1678	10739.87	4.0990	4.0989	0.7720	7.84	1.85	0.750			
0.1701	10886.45	4.0960	4.0961	0.7746	7.83	1.84	0.750			
0.1725	11037.41	4.0930	4.0931	0.7747	7.82	1.83	0.750			
0.1748	11185.12	4.0900	4.0900	0.7862	7.82	1.83	0.750			
0.1771	11334.82	4.0870	4.0870	0.7932	7.81	1.82	0.750			
0.1795	11489.60	4.0840	4.0839	0.8077	7.80	1.81	0.750			
0.1820	11646.76	4.0810	4.0811	0.8164	7.80	1.81	0.750			
0.1845	11808.62	4.0780	4.0780	0.8134	7.79	1.80	0.750			
0.1869	11963.12	4.0750	4.0750	0.8082	7.78	1.79	0.750			
0.1894	12118.71	4.0720	4.0722	0.8083	7.78	1.79	0.750			
0.1917	12270.19	4.0690	4.0690	0.8001	7.77	1.78	0.750			
0.1941	12422.06	4.0660	4.0659	0.7989	7.77	1.78	0.750			
0.1965	12574.25	4.0630	4.0632	0.8014	7.76	1.77	0.750			
0.1989	12727.69	4.0600	4.0601	0.8161	7.75	1.76	0.750			
0.2014	12889.04	4.0570	4.0568	0.8295	7.75	1.76	0.750			
0.2038	13045.23	4.0540	4.0540	0.8289	7.74	1.75	0.750			
0.2064	13207.76	4.0510	4.0511	0.8384	7.74	1.75	0.750			
0.2089	13371.54	4.0480	4.0479	0.8448	7.73	1.74	0.750			
0.2115	13536.06	4.0450	4.0450	0.8435	7.72	1.73	0.750			
0.2140	13697.30	4.0420	4.0419	0.8372	7.71	1.72	0.750			
0.2165	13855.40	4.0390	4.0391	0.8381	7.70	1.71	0.750			
0.2190	14016.31	4.0360	4.0361	0.8442	7.70	1.71	0.750			
0.2215	14176.72	4.0330	4.0329	0.8457	7.69	1.70	0.750			
0.2241	14341.62	4.0300	4.0299	0.8486	7.68	1.69	0.750			
0.2266	14504.90	4.0270	4.0270	0.8546	7.68	1.69	0.750			
0.2292	14670.70	4.0240	4.0240	0.8598	7.67	1.68	0.750			
0.2318	14836.85	4.0210	4.0211	0.8604	7.66	1.67	0.750			
0.2344	14999.37	4.0180	4.0179	0.8613	7.66	1.67	0.750			
0.2369	15164.38	4.0150	4.0151	0.8678	7.65	1.66	0.750			
0.2395	15331.14	4.0120	4.0119	0.8732	7.64	1.65	0.750			
0.2422	15500.58	4.0090	4.0088	0.8818	7.63	1.64	0.750			
0.2449	15672.91	4.0060	4.0060	0.8774	7.62	1.63	0.750			
0.2475	15841.20	4.0030	4.0031	0.8819	7.61	1.62	0.750			
0.2502	16011.32	4.0000	4.0000	0.8864	7.61	1.62	0.750			
0.2528	16178.71	3.9970	3.9971	0.8853	7.60	1.61	0.750			
0.2555	16349.79	3.9940	3.9937	0.8906	7.59	1.60	0.750			
0.2581	16521.43	3.9910	3.9911	0.8982	7.58	1.59	0.750			
0.2609	16695.27	3.9880	3.9880	0.9069	7.58	1.59	0.750			
0.2636	16871.15	3.9850	3.9850	0.9152	7.57	1.58	0.750			
0.2663	17045.96	3.9820	3.9820	0.9148	7.56	1.57	0.750			
0.2691	17223.62	3.9790	3.9790	0.9205	7.56	1.57	0.750			
0.2719	17401.01	3.9760	3.9760	0.9190	7.55	1.56	0.750			
0.2747	17577.74	3.9730	3.9731	0.9213	7.54	1.55	0.750			
0.2774	17755.11	3.9700	3.9700	0.9192	7.54	1.55	0.750			
0.2802	17930.50	3.9670	3.9668	0.9218	7.53	1.54	0.750			
0.2829	18106.54	3.9640	3.9640	0.9219	7.52	1.53	0.750			
0.2857	18283.83	3.9610	3.9611	0.9339	7.51	1.52	0.750			
0.2885	18463.88	3.9580	3.9580	0.9472	7.50	1.51	0.750			
0.2914	18646.52	3.9550	3.9549	0.9516	7.49	1.50	0.750			
0.2943	18832.38	3.9520	3.9521	0.9553	7.48	1.49	0.750			
0.2971	19015.95	3.9490	3.9491	0.9703	7.47	1.48	0.750			
0.3000	19201.66	3.9460	3.9461	0.9788	7.46	1.47	0.750			
0.3030	19389.66	3.9430	3.9428	0.9875	7.45	1.46	0.750			
0.3060	19582.61	3.9400	3.9400	0.9913	7.44	1.45	0.750			
0.3090	19772.99	3.9370	3.9371	0.9950	7.43	1.44	0.750			
0.3120	19967.76	3.9340	3.9341	1.0042	7.42	1.43	0.750			
0.3150	20159.84	3.9310	3.9310	1.0052	7.42	1.43	0.750			
0.3180	20350.02	3.9280	3.9280	0.9970	7.41	1.42	0.750			
0.3210	20541.52	3.9250	3.9250	1.0069	7.40	1.41	0.750			
0.3240	20732.89	3.9220	3.9219	1.0165	7.39	1.40	0.750			
0.3270	20929.38	3.9190	3.9191	1.0325	7.39	1.40	0.750			
0.3302	21130.44	3.9160	3.9162	1.0413	7.38	1.39	0.750			
0.3333	21329.93	3.9130	3.9130	1.0666	7.37	1.38	0.750			
0.3365	21538.27	3.9100	3.9101	1.0877	7.35	1.36	0.750			
0.3399	21751.28	3.9070	3.9070	1.1038	7.34	1.35	0.750			
0.3432	21967.37	3.9040	3.9038	1.1051	7.33	1.34	0.750			
0.3465	22178.07	3.9010	3.9011	1.1197	7.32	1.33	0.750			
0.3499	22392.59	3.8980	3.8981	1.1301	7.31	1.32	0.750			
0.3533	22609.67	3.8950	3.8950	1.1420	7.30	1.31	0.750			
0.3567	22828.89	3.8920	3.8920	1.1407	7.29	1.30	0.750			
0.3602	23052.84	3.8890	3.8892	1.1560	7.28	1.29	0.750			
0.3637	23274.35	3.8860	3.8860	1.1730	7.27	1.28	0.750			
0.3672	23502.17	3.8830	3.8828	1.1931	7.25	1.26	0.750			
0.3707	23727.12	3.8800	3.8799	1.1952	7.24	1.25	0.750			
0.3744	23959.87	3.8770	3.8770	1.2243	7.23	1.24	0.750			
0.3781	24199.88	3.8740	3.8740	1.2411	7.22	1.23	0.750			
0.3819	24443.32	3.8710	3.8710	1.2688	7.20	1.21	0.750			
0.3858	24691.19	3.8680	3.8679	1.2627	7.19	1.20	0.750			
0.3895	24928.08	3.8650	3.8651	1.2923	7.17	1.18	0.750			
0.3934	25175.82	3.8620	3.8620	1.3105	7.16	1.17	0.750			
0.3974	25430.64	3.8590	3.8586	1.3341	7.14	1.15	0.750	0.391	0.913	
0.4014	25690.59	3.8560	3.8563	1.3475	7.13	1.14	0.750			
0.4055	25952.16	3.8530	3.8528	1.3760	7.12	1.13	0.750			
0.4096	26217.01	3.8500	3.8502	1.4082	7.11	1.12	0.750			
0.4139	26491.28	3.8470	3.8469	1.4299	7.09	1.10	0.750			
0.4182	26764.21	3.8440	3.8439	1.4599	7.08	1.09	0.750			
0.4226	27048.66	3.8410	3.8410	1.4761	7.06	1.07	0.750			
0.4272	27342.32	3.8380	3.8376	1.5005	7.05	1.06	0.750			
0.4317	27630.11	3.8350	3.8352	1.5268	7.03	1.04	0.750			
0.4363	27922.28	3.8320	3.8320	1.5419	7.02	1.03	0.750			
0.4409	28219.63	3.8290	3.8289	1.5644	7.01	1.02	0.750			
0.4456	28518.92	3.8260	3.8262	1.5938	6.99	1.00	0.750			
0.4505	28830.72	3.8230	3.8231	1.6397	6.97	0.98	0.750			
0.4555	29151.54	3.8200	3.8199	1.6654	6.95	0.96	0.750			
0.4605	29472.88	3.8170	3.8169	1.7057	6.93	0.94	0.750			
0.4657	29804.64	3.8140	3.8141	1.7263	6.92	0.93	0.750			
0.4710	30143.55	3.8110	3.8109	1.7577	6.90	0.91	0.750			
0.4763	30485.89	3.8080	3.8082	1.7835	6.87	0.88	0.750			
0.4817	30828.48	3.8050	3.8051	1.8071	6.85	0.86	0.750			
0.4871	31177.58	3.8020	3.8020	1.8511	6.84	0.85	0.750			
0.4927	31532.85	3.7990	3.7989	1.8927	6.82	0.83	0.750			
0.4985	31902.13	3.7960	3.7960	1.9477	6.80	0.81	0.750			
0.5045	32285.10	3.7930	3.7929	1.9902	6.77	0.78	0.750			
0.5105	32673.13	3.7900	3.7900	2.0556	6.75	0.76	0.750			
0.5168	33076.90	3.7870	3.7869	2.0816	6.73	0.74	0.750			
0.5232	33487.12	3.7840	3.7838	2.1117	6.71	0.72	0.750			
0.5295	33890.14	3.7810	3.7809	2.0977	6.68	0.69	0.750			
0.5358	34288.94	3.7780	3.7779	2.1156	6.66	0.67	0.750			
0.5420	34685.22	3.7750	3.7751	2.1335	6.63	0.64	0.750			
0.5484	35098.92	3.7720	3.7719	2.1864	6.61	0.62	0.750			
0.5552	35532.37	3.7690	3.7691	2.2309	6.59	0.60	0.750			
0.5619	35959.99	3.7660	3.7661	2.2672	6.56	0.57	0.750			
0.5688	36402.74	3.7630	3.7628	2.2870	6.53	0.54	0.750			
0.5755	36832.64	3.7600	3.7601	2.3399	6.50	0.51	0.750			
0.5826	37287.85	3.7570	3.7570	2.4124	6.47	0.48	0.750			
0.5901	37765.81	3.7540	3.7539	2.5335	6.45	0.46	0.750			
0.5978	38258.24	3.7510	3.7511	2.6232	6.42	0.43	0.750			
0.6059	38774.68	3.7480	3.7482	2.7492	6.40	0.41	0.750			
0.6141	39304.95	3.7450	3.7449	2.8677	6.36	0.37	0.750			
0.6229	39867.63	3.7420	3.7421	2.9626	6.32	0.33	0.750			
0.6321	40455.68	3.7390	3.7391	3.1191	6.29	0.30	0.750			
0.6416	41062.87	3.7360	3.7360	3.2264	6.26	0.27	0.750			
0.6517	41707.00	3.7330	3.7332	3.2580	6.23	0.24	0.750			
0.6615	42336.92	3.7300	3.7302	3.1180	6.20	0.21	0.750			
0.6705	42910.29	3.7270	3.7270	2.8230	6.18	0.19	0.750			
0.6786	43430.27	3.7240	3.7240	2.5557	6.16	0.17	0.750			
0.6859	43900.13	3.7210	3.7209	2.3199	6.15	0.16	0.750			
0.6924	44311.90	3.7180	3.7180	2.0613	6.13	0.14	0.750			
0.6980	44674.30	3.7150	3.7150	1.8245	6.12	0.13	0.750			
0.7032	45003.40	3.7120	3.7121	1.6273	6.10	0.11	0.750			
0.7077	45290.51	3.7090	3.7091	1.4678	6.10	0.11	0.750			
0.7117	45546.36	3.7060	3.7060	1.3356	6.09	0.10	0.750			
0.7154	45785.84	3.7030	3.7031	1.2498	6.08	0.09	0.750			
0.7189	46012.45	3.7000	3.6999	1.1806	6.08	0.09	0.750			
0.7223	46229.45	3.6970	3.6970	1.1350	6.07	0.08	0.750			
0.7256	46439.78	3.6940	3.6940	1.1007	6.07	0.08	0.750			
0.7289	46648.86	3.6910	3.6909	1.0761	6.06	0.07	0.750			
0.7321	46853.03	3.6880	3.6879	1.0445	6.06	0.07	0.750			
0.7351	47049.43	3.6850	3.6851	1.0246	6.05	0.06	0.750			
0.7382	47243.97	3.6820	3.6820	1.0158	6.04	0.05	0.750			
0.7412	47436.46	3.6790	3.6790	1.0028	6.03	0.04	0.750			
0.7442	47628.21	3.6760	3.6760	0.9864	6.03	0.04	0.750			
0.7471	47815.11	3.6730	3.6731	0.9732	6.02	0.03	0.750			
0.7501	48003.63	3.6700	3.6700	0.9613	6.02	0.03	0.750			
0.7529	48188.04	3.6670	3.6669	0.9475	6.01	0.02	0.750			
0.7557	48366.48	3.6640	3.6641	0.9262	6.01	0.02	0.750			
0.7585	48542.46	3.6610	3.6610	0.9019	6.00	0.01	0.750			
0.7611	48712.13	3.6580	3.6580	0.8972	6.00	0.01	0.750			
0.7638	48883.15	3.6550	3.6551	0.8926	6.00	0.01	0.750			
0.7664	49050.79	3.6520	3.6519	0.8882	5.99	0.00	0.750			
0.7691	49220.71	3.6490	3.6491	0.8965	5.99	-0.00	0.750			
0.7718	49393.05	3.6460	3.6461	0.9024	5.99	-0.00	0.750			
0.7745	49568.86	3.6430	3.6429	0.9121	5.98	-0.01	0.750			
0.7773	49749.28	3.6400	3.6400	0.9140	5.98	-0.01	0.750			
0.7801	49925.08	3.6370	3.6369	0.8918	5.98	-0.01	0.750			
0.7829	50103.98	3.6340	3.6339	0.8566	5.98	-0.01	0.750			
0.7855	50269.38	3.6310	3.6311	0.7970	5.98	-0.01	0.750			
0.7879	50423.46	3.6280	3.6282	0.7186	5.99	-0.00	0.750			
0.7899	50555.54	3.6250	3.6250	0.6186	5.99	-0.00	0.750			
0.7916	50664.45	3.6220	3.6221	0.5151	5.99	-0.00	0.750			
0.7928	50740.75	3.6190	3.6194	0.4312	5.99	0.00	0.750			
0.7940	50813.53	3.6160	3.6161	0.3412	5.99	0.00	0.750			
0.7948	50869.79	3.6130	3.6128	0.2668	5.99	0.00	0.750			
0.7955	50911.35	3.6100	3.6090	0.1999	5.99	0.00	0.750			
0.7959	50937.14	3.6070	3.6045	0.1359	5.99	0.00	0.750			
0.7961	50947.33	3.5920	3.5921	-0.0886	5.99	0.00	0.750			
0.7962	50955.55	3.6040	3.5089	0.0845	5.99	0.00	0.755			
0.7963	50960.29	3.5950	3.4571	-0.0463	5.99	0.00	0.759			
0.7963	50961.82	3.6010	3.4403	0.0383	5.99	0.00	0.761			
0.7963	50965.12	3.5980	3.4043	-0.0040	5.99	0.00	0.763			
