Ah_balance (normalized)	Ah_balance (mAh)	Voltage - fit (V)	Voltage -  interpolate (V)	dQ/dV (1/V)	Temperature (°C)	Temperature - diff (°C)	Current (C)	R_DC 0ms (mOhm)	R_DC 50ms (mOhm)	R_DC 50 ms PEC (mOhm)
0.0002	14.56	4.1120	4.1114	-0.0657	5.97	-0.01	-0.750			
0.0005	30.71	4.1090	4.1086	-0.0974	5.97	-0.01	-0.750			
0.0008	53.01	4.1060	4.1059	-0.1252	5.97	-0.01	-0.750			
0.0013	80.09	4.1030	4.1030	-0.1498	5.97	-0.01	-0.750			
0.0017	111.11	4.1000	4.1001	-0.1745	5.97	-0.01	-0.750			
0.0023	147.00	4.0970	4.0970	-0.1989	5.97	-0.01	-0.750			
0.0029	188.57	4.0940	4.0940	-0.2218	5.97	-0.01	-0.750			
0.0036	233.23	4.0910	4.0909	-0.2438	5.97	-0.01	-0.750			
0.0044	282.26	4.0880	4.0881	-0.2644	5.98	-0.00	-0.750			
0.0052	335.17	4.0850	4.0851	-0.2854	5.98	-0.00	-0.750			
0.0061	391.86	4.0820	4.0820	-0.3071	5.98	-0.00	-0.750			
0.0071	452.93	4.0790	4.0790	-0.3277	5.98	-0.00	-0.750			
0.0081	517.18	4.0760	4.0760	-0.3516	5.98	-0.00	-0.750			
0.0092	586.76	4.0730	4.0728	-0.3753	5.98	-0.00	-0.750			
0.0103	660.88	4.0700	4.0700	-0.3997	5.98	0.00	-0.750			
0.0116	740.85	4.0670	4.0671	-0.4208	5.98	0.00	-0.750			
0.0129	823.68	4.0640	4.0640	-0.4481	5.98	0.00	-0.750			
0.0143	912.08	4.0610	4.0609	-0.4726	5.98	0.00	-0.750			
0.0157	1005.01	4.0580	4.0579	-0.4946	5.98	0.00	-0.750			
0.0172	1102.68	4.0550	4.0551	-0.5156	5.99	0.01	-0.750			
0.0188	1205.70	4.0520	4.0520	-0.5359	5.99	0.01	-0.750			
0.0205	1310.67	4.0490	4.0489	-0.5512	5.99	0.01	-0.750			
0.0222	1417.97	4.0460	4.0462	-0.5720	5.99	0.01	-0.750			
0.0239	1527.96	4.0430	4.0429	-0.5880	5.99	0.01	-0.750			
0.0257	1642.79	4.0400	4.0398	-0.6061	6.00	0.02	-0.750			
0.0275	1760.80	4.0370	4.0370	-0.6276	6.00	0.02	-0.750			
0.0294	1882.98	4.0340	4.0342	-0.6454	6.00	0.02	-0.750			
0.0314	2012.06	4.0310	4.0309	-0.6623	6.00	0.02	-0.750			
0.0335	2142.05	4.0280	4.0280	-0.6673	6.01	0.03	-0.750			
0.0355	2269.74	4.0250	4.0251	-0.6725	6.01	0.03	-0.750			
0.0375	2400.40	4.0220	4.0221	-0.6782	6.02	0.04	-0.750			
0.0395	2530.53	4.0190	4.0190	-0.6861	6.02	0.04	-0.750			
0.0416	2661.60	4.0160	4.0159	-0.6913	6.03	0.05	-0.750			
0.0437	2796.17	4.0130	4.0130	-0.6929	6.03	0.05	-0.750			
0.0458	2930.59	4.0100	4.0101	-0.6919	6.04	0.06	-0.750			
0.0479	3064.54	4.0070	4.0071	-0.7030	6.04	0.06	-0.750			
0.0500	3198.29	4.0040	4.0039	-0.7040	6.05	0.07	-0.750			
0.0521	3331.53	4.0010	4.0009	-0.7130	6.05	0.07	-0.750			
0.0542	3468.97	3.9980	3.9980	-0.7187	6.06	0.08	-0.750			
0.0564	3608.54	3.9950	3.9950	-0.7313	6.06	0.08	-0.750			
0.0586	3752.02	3.9920	3.9920	-0.7398	6.07	0.09	-0.750			
0.0609	3896.17	3.9890	3.9889	-0.7450	6.07	0.09	-0.750			
0.0631	4038.44	3.9860	3.9860	-0.7431	6.08	0.10	-0.750			
0.0654	4183.04	3.9830	3.9830	-0.7441	6.08	0.10	-0.750			
0.0675	4322.41	3.9800	3.9800	-0.7497	6.09	0.11	-0.750			
0.0698	4467.30	3.9770	3.9771	-0.7617	6.09	0.11	-0.750			
0.0721	4612.50	3.9740	3.9739	-0.7678	6.10	0.12	-0.750			
0.0744	4762.37	3.9710	3.9708	-0.7740	6.11	0.13	-0.750			
0.0768	4914.10	3.9680	3.9682	-0.7806	6.11	0.13	-0.750			
0.0792	5065.97	3.9650	3.9650	-0.7757	6.12	0.14	-0.750			
0.0815	5216.81	3.9620	3.9619	-0.7676	6.13	0.15	-0.750			
0.0837	5358.83	3.9590	3.9591	-0.7564	6.14	0.16	-0.750			
0.0860	5502.86	3.9560	3.9561	-0.7624	6.14	0.16	-0.750			
0.0883	5648.45	3.9530	3.9530	-0.7645	6.15	0.17	-0.750			
0.0906	5796.78	3.9500	3.9498	-0.7692	6.15	0.17	-0.750			
0.0929	5945.95	3.9470	3.9471	-0.7739	6.16	0.18	-0.750			
0.0953	6096.65	3.9440	3.9441	-0.7759	6.16	0.18	-0.750			
0.0976	6247.03	3.9410	3.9411	-0.7815	6.17	0.19	-0.750			
0.0999	6395.97	3.9380	3.9380	-0.7785	6.18	0.20	-0.750			
0.1022	6543.42	3.9350	3.9349	-0.7790	6.19	0.21	-0.750			
0.1046	6694.64	3.9320	3.9320	-0.7828	6.20	0.22	-0.750			
0.1070	6846.57	3.9290	3.9289	-0.7827	6.21	0.23	-0.750			
0.1093	6995.75	3.9260	3.9263	-0.7811	6.22	0.24	-0.750			
0.1117	7145.64	3.9230	3.9229	-0.7865	6.23	0.25	-0.750			
0.1140	7294.42	3.9200	3.9199	-0.7908	6.23	0.25	-0.750			
0.1163	7446.02	3.9170	3.9170	-0.7968	6.24	0.26	-0.750			
0.1187	7599.88	3.9140	3.9141	-0.8045	6.25	0.27	-0.750			
0.1213	7760.76	3.9110	3.9109	-0.8073	6.26	0.28	-0.750			
0.1237	7916.18	3.9080	3.9081	-0.8081	6.26	0.28	-0.750			
0.1261	8069.51	3.9050	3.9051	-0.8063	6.27	0.29	-0.750			
0.1285	8224.11	3.9020	3.9018	-0.8009	6.28	0.30	-0.750			
0.1309	8376.43	3.8990	3.8990	-0.7988	6.29	0.31	-0.750			
0.1333	8529.52	3.8960	3.8960	-0.8043	6.29	0.31	-0.750			
0.1357	8684.83	3.8930	3.8930	-0.8112	6.30	0.32	-0.750			
0.1382	8841.64	3.8900	3.8899	-0.8178	6.31	0.33	-0.750			
0.1406	9000.66	3.8870	3.8870	-0.8210	6.32	0.34	-0.750			
0.1431	9160.74	3.8840	3.8839	-0.8228	6.33	0.35	-0.750			
0.1456	9319.62	3.8810	3.8810	-0.8269	6.34	0.36	-0.750			
0.1481	9477.92	3.8780	3.8783	-0.8205	6.35	0.37	-0.750			
0.1505	9631.31	3.8750	3.8748	-0.8287	6.36	0.38	-0.750			
0.1530	9791.76	3.8720	3.8719	-0.8320	6.37	0.39	-0.750			
0.1555	9949.83	3.8690	3.8691	-0.8286	6.38	0.40	-0.750			
0.1580	10114.60	3.8660	3.8659	-0.8368	6.38	0.40	-0.750			
0.1606	10277.31	3.8630	3.8633	-0.8372	6.39	0.41	-0.750			
0.1631	10435.77	3.8600	3.8599	-0.8352	6.40	0.42	-0.750			
0.1655	10593.68	3.8570	3.8569	-0.8333	6.41	0.43	-0.750			
0.1680	10749.02	3.8540	3.8540	-0.8301	6.42	0.44	-0.750			
0.1705	10913.15	3.8510	3.8510	-0.8443	6.43	0.45	-0.750			
0.1731	11078.56	3.8480	3.8480	-0.8511	6.44	0.46	-0.750			
0.1757	11243.59	3.8450	3.8450	-0.8476	6.45	0.47	-0.750			
0.1782	11406.52	3.8420	3.8420	-0.8498	6.46	0.48	-0.750			
0.1808	11569.29	3.8390	3.8390	-0.8455	6.47	0.49	-0.750			
0.1833	11730.44	3.8360	3.8359	-0.8448	6.47	0.49	-0.750			
0.1858	11891.26	3.8330	3.8332	-0.8496	6.48	0.50	-0.750			
0.1883	12053.86	3.8300	3.8299	-0.8587	6.49	0.51	-0.750			
0.1909	12218.18	3.8270	3.8270	-0.8640	6.50	0.52	-0.750			
0.1935	12384.47	3.8240	3.8239	-0.8684	6.51	0.53	-0.750			
0.1962	12555.73	3.8210	3.8211	-0.8693	6.52	0.54	-0.750			
0.1988	12726.16	3.8180	3.8178	-0.8701	6.52	0.54	-0.750			
0.2014	12891.44	3.8150	3.8152	-0.8630	6.53	0.55	-0.750			
0.2040	13055.26	3.8120	3.8120	-0.8531	6.54	0.56	-0.750			
0.2065	13217.04	3.8090	3.8089	-0.8528	6.55	0.57	-0.750			
0.2091	13380.86	3.8060	3.8058	-0.8544	6.56	0.58	-0.750			
0.2116	13542.40	3.8030	3.8030	-0.8606	6.57	0.59	-0.750			
0.2142	13709.21	3.8000	3.7999	-0.8701	6.58	0.60	-0.750			
0.2168	13878.30	3.7970	3.7971	-0.8728	6.59	0.61	-0.750			
0.2195	14046.13	3.7940	3.7940	-0.8735	6.60	0.62	-0.750			
0.2222	14217.88	3.7910	3.7910	-0.8780	6.61	0.63	-0.750			
0.2248	14385.43	3.7880	3.7880	-0.8809	6.62	0.64	-0.750			
0.2274	14554.05	3.7850	3.7851	-0.8787	6.63	0.65	-0.750			
0.2300	14720.84	3.7820	3.7819	-0.8821	6.63	0.65	-0.750			
0.2327	14891.80	3.7790	3.7791	-0.8845	6.64	0.66	-0.750			
0.2354	15062.93	3.7760	3.7759	-0.8900	6.65	0.67	-0.750			
0.2380	15231.15	3.7730	3.7731	-0.9009	6.66	0.68	-0.750			
0.2407	15407.68	3.7700	3.7699	-0.8976	6.67	0.69	-0.750			
0.2434	15578.89	3.7670	3.7669	-0.8973	6.68	0.70	-0.750			
0.2461	15753.51	3.7640	3.7640	-0.8973	6.69	0.71	-0.750			
0.2488	15925.40	3.7610	3.7608	-0.8866	6.70	0.72	-0.750			
0.2515	16095.02	3.7580	3.7580	-0.8952	6.71	0.73	-0.750			
0.2541	16264.39	3.7550	3.7550	-0.8941	6.72	0.74	-0.750			
0.2568	16433.55	3.7520	3.7519	-0.8923	6.72	0.74	-0.750			
0.2595	16609.28	3.7490	3.7489	-0.9040	6.73	0.75	-0.750			
0.2622	16780.96	3.7460	3.7462	-0.9095	6.74	0.76	-0.750			
0.2650	16959.59	3.7430	3.7429	-0.9108	6.74	0.76	-0.750			
0.2678	17137.86	3.7400	3.7399	-0.9106	6.75	0.77	-0.750			
0.2704	17308.62	3.7370	3.7369	-0.9053	6.76	0.78	-0.750			
0.2732	17483.68	3.7340	3.7342	-0.9096	6.76	0.78	-0.750			
0.2759	17657.27	3.7310	3.7308	-0.9173	6.77	0.79	-0.750			
0.2786	17831.31	3.7280	3.7280	-0.9230	6.78	0.80	-0.750			
0.2814	18007.95	3.7250	3.7250	-0.9253	6.80	0.82	-0.750			
0.2842	18189.88	3.7220	3.7220	-0.9437	6.81	0.83	-0.750			
0.2871	18373.28	3.7190	3.7190	-0.9546	6.82	0.84	-0.750			
0.2900	18559.38	3.7160	3.7160	-0.9509	6.82	0.84	-0.750			
0.2929	18743.03	3.7130	3.7129	-0.9534	6.83	0.85	-0.750			
0.2957	18924.55	3.7100	3.7099	-0.9475	6.84	0.86	-0.750			
0.2985	19105.43	3.7070	3.7071	-0.9476	6.84	0.86	-0.750			
0.3013	19286.10	3.7040	3.7039	-0.9561	6.85	0.87	-0.750			
0.3042	19470.20	3.7010	3.7009	-0.9556	6.86	0.88	-0.750			
0.3071	19653.10	3.6980	3.6980	-0.9597	6.86	0.88	-0.750			
0.3100	19841.47	3.6950	3.6951	-0.9715	6.87	0.89	-0.750			
0.3129	20028.48	3.6920	3.6920	-0.9821	6.87	0.89	-0.750			
0.3159	20219.70	3.6890	3.6888	-0.9874	6.88	0.90	-0.750			
0.3189	20407.21	3.6860	3.6860	-0.9898	6.88	0.90	-0.750			
0.3218	20597.42	3.6830	3.6830	-1.0006	6.89	0.91	-0.750			
0.3249	20792.05	3.6800	3.6799	-1.0091	6.90	0.92	-0.750			
0.3279	20985.64	3.6770	3.6769	-1.0128	6.91	0.93	-0.750			
0.3310	21180.90	3.6740	3.6741	-1.0170	6.92	0.94	-0.750			
0.3340	21374.62	3.6710	3.6709	-1.0199	6.93	0.95	-0.750			
0.3371	21574.92	3.6680	3.6680	-1.0336	6.94	0.96	-0.750			
0.3402	21773.36	3.6650	3.6650	-1.0352	6.94	0.96	-0.750			
0.3433	21968.32	3.6620	3.6620	-1.0499	6.95	0.97	-0.750			
0.3464	22170.26	3.6590	3.6590	-1.0663	6.96	0.98	-0.750			
0.3497	22377.81	3.6560	3.6559	-1.0880	6.96	0.98	-0.750			
0.3530	22589.02	3.6530	3.6529	-1.1121	6.97	0.99	-0.750			
0.3564	22809.46	3.6500	3.6500	-1.1108	6.97	0.99	-0.750			
0.3597	23023.38	3.6470	3.6472	-1.1198	6.98	1.00	-0.750			
0.3631	23240.35	3.6440	3.6441	-1.1347	6.99	1.01	-0.750			
0.3665	23456.39	3.6410	3.6407	-1.1313	6.99	1.01	-0.750			
0.3699	23672.69	3.6380	3.6379	-1.1346	7.00	1.02	-0.750			
0.3733	23890.04	3.6350	3.6352	-1.1488	7.00	1.02	-0.750			
0.3768	24112.02	3.6320	3.6319	-1.1660	7.01	1.03	-0.750			
0.3803	24339.80	3.6290	3.6289	-1.1853	7.01	1.03	-0.750			
0.3838	24563.55	3.6260	3.6259	-1.1937	7.02	1.04	-0.750			
0.3875	24800.33	3.6230	3.6229	-1.2027	7.03	1.05	-0.750			
0.3911	25033.48	3.6200	3.6200	-1.2113	7.03	1.05	-0.750			
0.3948	25264.15	3.6170	3.6171	-1.2318	7.04	1.06	-0.750			
0.3984	25499.18	3.6140	3.6142	-1.2434	7.05	1.07	-0.750			
0.4022	25741.07	3.6110	3.6107	-1.2606	7.06	1.08	-0.750			
0.4060	25986.97	3.6080	3.6080	-1.2753	7.06	1.08	-0.750			
0.4099	26233.10	3.6050	3.6052	-1.2964	7.07	1.09	-0.750	0.426	1.003	
0.4139	26487.00	3.6020	3.6020	-1.3142	7.08	1.10	-0.750			
0.4178	26739.30	3.5990	3.5989	-1.3166	7.08	1.10	-0.750			
0.4217	26990.22	3.5960	3.5959	-1.3270	7.09	1.11	-0.750			
0.4257	27247.99	3.5930	3.5931	-1.3502	7.09	1.11	-0.750			
0.4298	27507.73	3.5900	3.5901	-1.3657	7.10	1.12	-0.750			
0.4340	27773.22	3.5870	3.5869	-1.3934	7.10	1.12	-0.750			
0.4382	28042.84	3.5840	3.5839	-1.4020	7.11	1.13	-0.750			
0.4424	28315.38	3.5810	3.5810	-1.4174	7.11	1.13	-0.750			
0.4467	28589.82	3.5780	3.5781	-1.4314	7.12	1.14	-0.750			
0.4510	28866.55	3.5750	3.5749	-1.4472	7.12	1.14	-0.750			
0.4554	29142.92	3.5720	3.5719	-1.4691	7.13	1.15	-0.750			
0.4598	29428.23	3.5690	3.5693	-1.4821	7.13	1.15	-0.750			
0.4643	29716.36	3.5660	3.5661	-1.4803	7.14	1.16	-0.750			
0.4688	30004.41	3.5630	3.5630	-1.5199	7.14	1.16	-0.750			
0.4733	30293.61	3.5600	3.5601	-1.5386	7.15	1.17	-0.750			
0.4780	30593.59	3.5570	3.5568	-1.5509	7.16	1.18	-0.750			
0.4827	30892.89	3.5540	3.5539	-1.5468	7.17	1.19	-0.750			
0.4874	31193.34	3.5510	3.5509	-1.5583	7.17	1.19	-0.750			
0.4922	31499.52	3.5480	3.5481	-1.5792	7.18	1.20	-0.750			
0.4969	31801.33	3.5450	3.5450	-1.5841	7.19	1.21	-0.750			
0.5015	32096.18	3.5420	3.5420	-1.5948	7.19	1.21	-0.750			
0.5064	32407.57	3.5390	3.5389	-1.6060	7.20	1.22	-0.750			
0.5113	32722.91	3.5360	3.5360	-1.6302	7.20	1.22	-0.750			
0.5162	33038.42	3.5330	3.5332	-1.6385	7.21	1.23	-0.750			
0.5212	33354.02	3.5300	3.5300	-1.6484	7.22	1.24	-0.750			
0.5261	33670.94	3.5270	3.5269	-1.6600	7.22	1.24	-0.750			
0.5311	33993.38	3.5240	3.5238	-1.6662	7.23	1.25	-0.750			
0.5362	34314.92	3.5210	3.5211	-1.6818	7.23	1.25	-0.750			
0.5413	34642.92	3.5180	3.5179	-1.6828	7.24	1.26	-0.750			
0.5463	34966.37	3.5150	3.5152	-1.6934	7.25	1.27	-0.750			
0.5515	35293.17	3.5120	3.5119	-1.6834	7.26	1.28	-0.750			
0.5565	35613.20	3.5090	3.5089	-1.6808	7.27	1.29	-0.750			
0.5615	35933.66	3.5060	3.5060	-1.6839	7.28	1.30	-0.750			
0.5665	36258.86	3.5030	3.5031	-1.6865	7.29	1.31	-0.750			
0.5716	36584.91	3.5000	3.5001	-1.6958	7.30	1.32	-0.750			
0.5768	36913.98	3.4970	3.4968	-1.6940	7.31	1.33	-0.750			
0.5820	37245.99	3.4940	3.4940	-1.6776	7.32	1.34	-0.750			
0.5870	37567.71	3.4910	3.4912	-1.6691	7.33	1.35	-0.750			
0.5919	37883.91	3.4880	3.4880	-1.6521	7.34	1.36	-0.750			
0.5968	38192.24	3.4850	3.4848	-1.6618	7.35	1.37	-0.750			
0.6017	38508.49	3.4820	3.4820	-1.6508	7.36	1.38	-0.750			
0.6067	38830.91	3.4790	3.4788	-1.6436	7.37	1.39	-0.750			
0.6118	39155.82	3.4760	3.4760	-1.6378	7.38	1.40	-0.750			
0.6167	39470.16	3.4730	3.4733	-1.6180	7.40	1.42	-0.750			
0.6216	39779.68	3.4700	3.4698	-1.5996	7.41	1.43	-0.750			
0.6263	40083.11	3.4670	3.4668	-1.5819	7.42	1.44	-0.750			
0.6310	40384.54	3.4640	3.4641	-1.5590	7.43	1.45	-0.750			
0.6358	40689.57	3.4610	3.4611	-1.5442	7.44	1.46	-0.750			
0.6403	40981.54	3.4580	3.4583	-1.5137	7.46	1.48	-0.750			
0.6449	41273.36	3.4550	3.4549	-1.4949	7.47	1.49	-0.750			
0.6493	41555.21	3.4520	3.4519	-1.4504	7.49	1.51	-0.750			
0.6536	41831.29	3.4490	3.4489	-1.4161	7.50	1.52	-0.750			
0.6577	42095.47	3.4460	3.4461	-1.4102	7.51	1.53	-0.750			
0.6620	42365.51	3.4430	3.4428	-1.3828	7.52	1.54	-0.750			
0.6661	42631.45	3.4400	3.4398	-1.3636	7.53	1.55	-0.750			
0.6701	42888.82	3.4370	3.4370	-1.3391	7.54	1.56	-0.750			
0.6742	43145.87	3.4340	3.4341	-1.3180	7.56	1.58	-0.750			
0.6782	43402.06	3.4310	3.4309	-1.2973	7.57	1.59	-0.750			
0.6820	43647.00	3.4280	3.4280	-1.2563	7.59	1.61	-0.750			
0.6856	43879.21	3.4250	3.4251	-1.2197	7.60	1.62	-0.750			
0.6893	44117.10	3.4220	3.4220	-1.1983	7.62	1.64	-0.750			
0.6929	44343.29	3.4190	3.4189	-1.1648	7.63	1.65	-0.750			
0.6963	44563.48	3.4160	3.4158	-1.1260	7.65	1.67	-0.750			
0.6996	44776.46	3.4130	3.4130	-1.0966	7.66	1.68	-0.750			
0.7029	44984.38	3.4100	3.4099	-1.0578	7.67	1.69	-0.750			
0.7060	45183.29	3.4070	3.4071	-1.0281	7.68	1.70	-0.750			
0.7090	45373.71	3.4040	3.4040	-0.9906	7.70	1.72	-0.750			
0.7119	45564.03	3.4010	3.4010	-0.9718	7.71	1.73	-0.750			
0.7148	45747.89	3.3980	3.3979	-0.9392	7.72	1.74	-0.750			
0.7176	45926.15	3.3950	3.3950	-0.9131	7.73	1.75	-0.750			
0.7203	46097.20	3.3920	3.3920	-0.8850	7.74	1.76	-0.750			
0.7229	46268.18	3.3890	3.3891	-0.8578	7.75	1.77	-0.750			
0.7254	46427.86	3.3860	3.3860	-0.8216	7.77	1.79	-0.750			
0.7278	46582.38	3.3830	3.3830	-0.7978	7.78	1.80	-0.750			
0.7302	46732.72	3.3800	3.3801	-0.7702	7.79	1.81	-0.750			
0.7325	46878.33	3.3770	3.3768	-0.7457	7.81	1.83	-0.750			
0.7346	47017.48	3.3740	3.3742	-0.7184	7.82	1.84	-0.750			
0.7368	47152.29	3.3710	3.3710	-0.6943	7.83	1.85	-0.750			
0.7388	47284.51	3.3680	3.3679	-0.6736	7.84	1.86	-0.750			
0.7408	47410.25	3.3650	3.3650	-0.6521	7.85	1.87	-0.750			
0.7427	47532.67	3.3620	3.3621	-0.6315	7.86	1.88	-0.750			
0.7446	47653.93	3.3590	3.3589	-0.6150	7.87	1.89	-0.750			
0.7464	47770.49	3.3560	3.3559	-0.5943	7.87	1.89	-0.750			
0.7482	47882.77	3.3530	3.3530	-0.5731	7.89	1.91	-0.750			
0.7499	47990.82	3.3500	3.3500	-0.5541	7.90	1.92	-0.750			
0.7515	48095.01	3.3470	3.3470	-0.5359	7.91	1.93	-0.750			
0.7530	48194.59	3.3440	3.3440	-0.5165	7.92	1.94	-0.750			
0.7546	48292.51	3.3410	3.3410	-0.5036	7.93	1.95	-0.750			
0.7561	48387.51	3.3380	3.3379	-0.4902	7.94	1.96	-0.750			
0.7575	48480.53	3.3350	3.3350	-0.4770	7.95	1.97	-0.750			
0.7589	48570.94	3.3320	3.3319	-0.4638	7.96	1.98	-0.750			
0.7603	48659.15	3.3290	3.3291	-0.4461	7.97	1.99	-0.750			
0.7616	48743.66	3.3260	3.3260	-0.4311	7.98	2.00	-0.750			
0.7629	48824.23	3.3230	3.3231	-0.4194	7.99	2.01	-0.750			
0.7641	48903.19	3.3200	3.3200	-0.4070	8.00	2.02	-0.750			
0.7653	48979.47	3.3170	3.3168	-0.3938	8.00	2.02	-0.750			
0.7665	49053.75	3.3140	3.3140	-0.3843	8.01	2.03	-0.750			
0.7676	49126.34	3.3110	3.3111	-0.3764	8.02	2.04	-0.750			
0.7687	49198.08	3.3080	3.3080	-0.3699	8.03	2.05	-0.750			
0.7698	49268.27	3.3050	3.3049	-0.3591	8.03	2.05	-0.750			
0.7709	49336.10	3.3020	3.3020	-0.3509	8.04	2.06	-0.750			
0.7719	49402.96	3.2990	3.2990	-0.3436	8.05	2.07	-0.750			
0.7729	49468.50	3.2960	3.2959	-0.3350	8.05	2.07	-0.750			
0.7739	49531.75	3.2930	3.2930	-0.3247	8.06	2.08	-0.750			
0.7749	49592.96	3.2900	3.2900	-0.3164	8.07	2.09	-0.750			
0.7758	49652.97	3.2870	3.2871	-0.3078	8.08	2.10	-0.750			
0.7767	49711.87	3.2840	3.2839	-0.2995	8.09	2.11	-0.750			
0.7776	49767.61	3.2810	3.2810	-0.2920	8.10	2.12	-0.750			
0.7785	49822.82	3.2780	3.2781	-0.2862	8.10	2.12	-0.750			
0.7793	49877.27	3.2750	3.2749	-0.2800	8.11	2.13	-0.750			
0.7802	49930.44	3.2720	3.2720	-0.2740	8.12	2.14	-0.750			
0.7810	49982.18	3.2690	3.2690	-0.2676	8.13	2.15	-0.750			
0.7818	50033.28	3.2660	3.2660	-0.2625	8.13	2.15	-0.750			
0.7826	50083.82	3.2630	3.2630	-0.2555	8.14	2.16	-0.750			
0.7833	50131.11	3.2600	3.2600	-0.2487	8.15	2.17	-0.750			
0.7840	50177.88	3.2570	3.2570	-0.2437	8.15	2.17	-0.750			
0.7848	50224.24	3.2540	3.2540	-0.2402	8.16	2.18	-0.750			
0.7855	50269.72	3.2510	3.2509	-0.2359	8.16	2.18	-0.750			
0.7862	50314.63	3.2480	3.2481	-0.2314	8.16	2.18	-0.750			
0.7869	50358.82	3.2450	3.2450	-0.2277	8.17	2.19	-0.750			
0.7875	50402.55	3.2420	3.2421	-0.2238	8.18	2.20	-0.750			
0.7882	50445.82	3.2390	3.2389	-0.2200	8.18	2.20	-0.750			
0.7889	50487.00	3.2360	3.2360	-0.2144	8.19	2.21	-0.750			
0.7895	50527.59	3.2330	3.2330	-0.2103	8.20	2.22	-0.750			
0.7901	50567.25	3.2300	3.2300	-0.2062	8.20	2.22	-0.750			
0.7907	50606.52	3.2270	3.2271	-0.2028	8.21	2.23	-0.750			
0.7913	50645.30	3.2240	3.2240	-0.1986	8.22	2.24	-0.750			
0.7919	50683.02	3.2210	3.2210	-0.1945	8.22	2.24	-0.750			
0.7925	50720.20	3.2180	3.2180	-0.1909	8.23	2.25	-0.750			
0.7931	50756.27	3.2150	3.2151	-0.1878	8.23	2.25	-0.750			
0.7936	50791.71	3.2120	3.2120	-0.1854	8.24	2.26	-0.750			
0.7942	50826.99	3.2090	3.2090	-0.1817	8.25	2.27	-0.750			
0.7947	50861.78	3.2060	3.2060	-0.1785	8.25	2.27	-0.750			
0.7952	50895.71	3.2030	3.2029	-0.1754	8.26	2.28	-0.750			
0.7958	50929.38	3.2000	3.2001	-0.1736	8.26	2.28	-0.750			
0.7963	50962.23	3.1970	3.1970	-0.1713	8.27	2.29	-0.750			
0.7968	50994.93	3.1940	3.1939	-0.1685	8.27	2.29	-0.750			
0.7973	51026.77	3.1910	3.1909	-0.1656	8.28	2.30	-0.750			
0.7978	51058.14	3.1880	3.1880	-0.1631	8.28	2.30	-0.750			
0.7983	51089.71	3.1850	3.1851	-0.1613	8.29	2.31	-0.750			
0.7988	51120.59	3.1820	3.1818	-0.1587	8.30	2.32	-0.750			
0.7992	51150.50	3.1790	3.1791	-0.1549	8.30	2.32	-0.750			
0.7997	51179.90	3.1760	3.1760	-0.1529	8.31	2.33	-0.750			
0.8001	51208.97	3.1730	3.1730	-0.1501	8.31	2.33	-0.750			
0.8006	51237.50	3.1700	3.1700	-0.1485	8.32	2.34	-0.750			
0.8010	51265.62	3.1670	3.1670	-0.1463	8.32	2.34	-0.750			
0.8015	51293.71	3.1640	3.1641	-0.1436	8.33	2.35	-0.750			
0.8019	51321.12	3.1610	3.1609	-0.1415	8.33	2.35	-0.750			
0.8023	51347.96	3.1580	3.1581	-0.1399	8.34	2.36	-0.750			
0.8027	51374.62	3.1550	3.1551	-0.1379	8.34	2.36	-0.750			
0.8031	51400.74	3.1520	3.1520	-0.1360	8.35	2.37	-0.750			
0.8035	51426.64	3.1490	3.1490	-0.1347	8.35	2.37	-0.750			
0.8039	51452.22	3.1460	3.1461	-0.1328	8.36	2.38	-0.750			
0.8043	51477.62	3.1430	3.1430	-0.1318	8.36	2.38	-0.750			
0.8047	51503.13	3.1400	3.1399	-0.1307	8.37	2.39	-0.750			
0.8051	51528.06	3.1370	3.1370	-0.1291	8.37	2.39	-0.750			
0.8055	51552.71	3.1340	3.1340	-0.1270	8.38	2.40	-0.750			
0.8059	51576.92	3.1310	3.1310	-0.1252	8.38	2.40	-0.750			
0.8063	51600.78	3.1280	3.1280	-0.1243	8.39	2.41	-0.750			
0.8066	51624.29	3.1250	3.1250	-0.1227	8.39	2.41	-0.750			
0.8070	51647.75	3.1220	3.1219	-0.1215	8.40	2.42	-0.750			
0.8074	51670.89	3.1190	3.1190	-0.1204	8.40	2.42	-0.750			
0.8077	51693.94	3.1160	3.1160	-0.1189	8.41	2.43	-0.750			
0.8081	51716.67	3.1130	3.1131	-0.1178	8.41	2.43	-0.750			
0.8084	51739.39	3.1100	3.1100	-0.1168	8.42	2.44	-0.750			
0.8088	51761.67	3.1070	3.1069	-0.1152	8.42	2.44	-0.750			
0.8091	51783.51	3.1040	3.1040	-0.1134	8.43	2.45	-0.750			
0.8095	51805.15	3.1010	3.1010	-0.1120	8.43	2.45	-0.750			
0.8098	51826.56	3.0980	3.0980	-0.1106	8.44	2.46	-0.750			
0.8101	51847.65	3.0950	3.0951	-0.1091	8.44	2.46	-0.750			
0.8104	51868.26	3.0920	3.0920	-0.1082	8.45	2.47	-0.750			
0.8108	51888.96	3.0890	3.0890	-0.1073	8.45	2.47	-0.750			
