Ah_balance (normalized)	Ah_balance (mAh)	Voltage - fit (V)	Voltage -  interpolate (V)	dQ/dV (1/V)	Temperature (°C)	Temperature - diff (°C)	Current (C)	R_DC 0ms (mOhm)	R_DC 50ms (mOhm)	R_DC 50 ms PEC (mOhm)
0.0942	6026.83	4.1980	4.1995	0.6312	8.55	2.50	0.750			
0.0960	6145.02	4.1950	4.1970	0.6619	8.54	2.49	0.750			
0.0982	6284.54	4.1920	4.1939	0.7330	8.54	2.49	0.750			
0.1006	6440.60	4.1890	4.1906	0.7850	8.53	2.48	0.750			
0.1030	6593.60	4.1860	4.1869	0.8033	8.52	2.47	0.750			
0.1054	6747.42	4.1830	4.1833	0.7915	8.51	2.46	0.750			
0.1084	6936.87	4.1800	4.1795	0.8357	8.51	2.46	0.750			
0.1101	7047.28	4.1770	4.1770	0.7146	8.50	2.45	0.750			
0.1123	7185.67	4.1740	4.1741	0.7105	8.50	2.45	0.750			
0.1144	7320.83	4.1710	4.1710	0.7139	8.49	2.44	0.750			
0.1165	7454.84	4.1680	4.1679	0.7177	8.49	2.44	0.750			
0.1186	7592.23	4.1650	4.1649	0.7174	8.48	2.43	0.750			
0.1208	7732.57	4.1620	4.1621	0.7237	8.48	2.43	0.750			
0.1230	7874.00	4.1590	4.1590	0.7270	8.47	2.42	0.750			
0.1252	8015.23	4.1560	4.1561	0.7261	8.46	2.41	0.750			
0.1274	8152.40	4.1530	4.1531	0.7278	8.45	2.40	0.750			
0.1295	8289.23	4.1500	4.1500	0.7264	8.45	2.40	0.750			
0.1317	8429.50	4.1470	4.1468	0.7307	8.44	2.39	0.750			
0.1339	8571.14	4.1440	4.1439	0.7374	8.44	2.39	0.750			
0.1362	8713.80	4.1410	4.1411	0.7347	8.43	2.38	0.750			
0.1384	8858.16	4.1380	4.1380	0.7370	8.42	2.37	0.750			
0.1406	8997.13	4.1350	4.1350	0.7335	8.42	2.37	0.750			
0.1428	9137.75	4.1320	4.1320	0.7347	8.41	2.36	0.750			
0.1450	9276.95	4.1290	4.1290	0.7361	8.41	2.36	0.750			
0.1472	9418.33	4.1260	4.1260	0.7418	8.40	2.35	0.750			
0.1494	9561.44	4.1230	4.1231	0.7466	8.40	2.35	0.750			
0.1517	9706.64	4.1200	4.1200	0.7523	8.39	2.34	0.750			
0.1540	9853.28	4.1170	4.1170	0.7535	8.39	2.34	0.750			
0.1562	9996.26	4.1140	4.1140	0.7556	8.38	2.33	0.750			
0.1585	10141.28	4.1110	4.1112	0.7598	8.38	2.33	0.750			
0.1608	10288.49	4.1080	4.1079	0.7585	8.37	2.32	0.750			
0.1630	10432.80	4.1050	4.1049	0.7645	8.36	2.31	0.750			
0.1653	10579.05	4.1020	4.1022	0.7720	8.35	2.30	0.750			
0.1676	10727.29	4.0990	4.0990	0.7811	8.35	2.30	0.750			
0.1700	10880.29	4.0960	4.0959	0.7876	8.34	2.29	0.750			
0.1724	11031.43	4.0930	4.0931	0.7916	8.33	2.28	0.750			
0.1748	11185.74	4.0900	4.0900	0.7872	8.32	2.27	0.750			
0.1771	11336.57	4.0870	4.0869	0.7887	8.32	2.27	0.750			
0.1795	11485.18	4.0840	4.0842	0.7843	8.31	2.26	0.750			
0.1818	11634.89	4.0810	4.0807	0.7914	8.30	2.25	0.750			
0.1842	11785.96	4.0780	4.0780	0.7970	8.29	2.24	0.750			
0.1866	11940.92	4.0750	4.0750	0.8042	8.29	2.24	0.750			
0.1890	12097.20	4.0720	4.0720	0.8110	8.28	2.23	0.750			
0.1915	12255.61	4.0690	4.0691	0.8106	8.28	2.23	0.750			
0.1939	12410.03	4.0660	4.0659	0.8171	8.27	2.22	0.750			
0.1964	12567.25	4.0630	4.0631	0.8170	8.27	2.22	0.750			
0.1988	12724.04	4.0600	4.0599	0.8179	8.26	2.21	0.750			
0.2012	12879.64	4.0570	4.0570	0.8240	8.25	2.20	0.750			
0.2037	13037.95	4.0540	4.0542	0.8276	8.25	2.20	0.750			
0.2062	13199.26	4.0510	4.0509	0.8300	8.24	2.19	0.750			
0.2088	13361.01	4.0480	4.0480	0.8316	8.24	2.19	0.750			
0.2112	13519.25	4.0450	4.0450	0.8245	8.23	2.18	0.750			
0.2137	13678.76	4.0420	4.0420	0.8293	8.22	2.17	0.750			
0.2162	13837.24	4.0390	4.0390	0.8230	8.22	2.17	0.750			
0.2186	13991.03	4.0360	4.0359	0.8236	8.21	2.16	0.750			
0.2211	14148.64	4.0330	4.0331	0.8378	8.20	2.15	0.750			
0.2236	14309.84	4.0300	4.0300	0.8530	8.20	2.15	0.750			
0.2262	14475.60	4.0270	4.0269	0.8618	8.19	2.14	0.750			
0.2288	14644.02	4.0240	4.0240	0.8710	8.18	2.13	0.750			
0.2314	14812.24	4.0210	4.0210	0.8759	8.17	2.12	0.750			
0.2341	14984.18	4.0180	4.0180	0.8800	8.16	2.11	0.750			
0.2367	15151.17	4.0150	4.0149	0.8754	8.16	2.11	0.750			
0.2393	15316.47	4.0120	4.0120	0.8718	8.15	2.10	0.750			
0.2419	15483.66	4.0090	4.0091	0.8767	8.15	2.10	0.750			
0.2446	15654.05	4.0060	4.0059	0.8788	8.14	2.09	0.750			
0.2472	15823.49	4.0030	4.0030	0.8833	8.13	2.08	0.750			
0.2499	15991.55	4.0000	4.0002	0.8931	8.13	2.08	0.750			
0.2525	16162.88	3.9970	3.9969	0.9065	8.12	2.07	0.750			
0.2553	16340.14	3.9940	3.9939	0.9083	8.11	2.06	0.750			
0.2581	16515.48	3.9910	3.9910	0.9087	8.11	2.06	0.750			
0.2608	16690.82	3.9880	3.9881	0.9034	8.10	2.05	0.750			
0.2636	16867.98	3.9850	3.9851	0.9028	8.09	2.04	0.750			
0.2662	17036.50	3.9820	3.9819	0.8989	8.09	2.04	0.750			
0.2688	17205.74	3.9790	3.9789	0.8999	8.08	2.03	0.750			
0.2715	17377.99	3.9760	3.9760	0.8987	8.07	2.02	0.750			
0.2742	17551.94	3.9730	3.9729	0.9176	8.07	2.02	0.750			
0.2770	17730.09	3.9700	3.9701	0.9352	8.06	2.01	0.750			
0.2799	17912.45	3.9670	3.9671	0.9439	8.05	2.00	0.750			
0.2827	18093.82	3.9640	3.9639	0.9545	8.05	2.00	0.750			
0.2856	18278.57	3.9610	3.9610	0.9537	8.04	1.99	0.750			
0.2884	18460.72	3.9580	3.9580	0.9656	8.03	1.98	0.750			
0.2914	18648.14	3.9550	3.9550	0.9739	8.02	1.97	0.750			
0.2943	18835.33	3.9520	3.9517	0.9710	8.01	1.96	0.750			
0.2973	19024.40	3.9490	3.9491	0.9663	8.00	1.95	0.750			
0.3002	19211.11	3.9460	3.9461	0.9707	8.00	1.95	0.750			
0.3031	19396.07	3.9430	3.9430	0.9714	7.99	1.94	0.750			
0.3059	19579.40	3.9400	3.9400	0.9756	7.98	1.93	0.750			
0.3088	19766.33	3.9370	3.9370	0.9802	7.98	1.93	0.750			
0.3118	19954.99	3.9340	3.9340	0.9966	7.97	1.92	0.750			
0.3148	20148.50	3.9310	3.9310	1.0132	7.96	1.91	0.750			
0.3179	20346.27	3.9280	3.9282	1.0206	7.95	1.90	0.750			
0.3210	20546.37	3.9250	3.9250	1.0279	7.94	1.89	0.750			
0.3241	20741.64	3.9220	3.9221	1.0426	7.94	1.89	0.750			
0.3272	20941.48	3.9190	3.9190	1.0633	7.93	1.88	0.750			
0.3305	21150.30	3.9160	3.9159	1.0710	7.91	1.86	0.750			
0.3337	21356.69	3.9130	3.9130	1.0694	7.90	1.85	0.750			
0.3369	21561.87	3.9100	3.9102	1.0885	7.89	1.84	0.750			
0.3402	21770.84	3.9070	3.9072	1.1065	7.88	1.83	0.750			
0.3435	21986.26	3.9040	3.9037	1.1134	7.87	1.82	0.750			
0.3468	22198.16	3.9010	3.9010	1.1210	7.86	1.81	0.750			
0.3502	22414.19	3.8980	3.8981	1.1353	7.85	1.80	0.750			
0.3537	22639.06	3.8950	3.8951	1.1462	7.84	1.79	0.750			
0.3572	22862.12	3.8920	3.8918	1.1463	7.83	1.78	0.750			
0.3606	23078.86	3.8890	3.8890	1.1600	7.82	1.77	0.750			
0.3640	23298.72	3.8860	3.8861	1.1707	7.80	1.75	0.750			
0.3676	23527.95	3.8830	3.8828	1.1925	7.79	1.74	0.750			
0.3712	23756.56	3.8800	3.8800	1.2105	7.77	1.72	0.750			
0.3749	23995.10	3.8770	3.8771	1.2217	7.76	1.71	0.750			
0.3786	24230.86	3.8740	3.8741	1.2403	7.74	1.69	0.750			
0.3823	24469.12	3.8710	3.8711	1.2610	7.73	1.68	0.750			
0.3861	24707.86	3.8680	3.8676	1.2936	7.71	1.66	0.750	0.405	0.836	
0.3900	24956.81	3.8650	3.8652	1.3270	7.68	1.63	0.750			
0.3941	25221.16	3.8620	3.8618	1.3367	7.66	1.61	0.750			
0.3981	25481.27	3.8590	3.8591	1.3734	7.65	1.60	0.750			
0.4024	25756.40	3.8560	3.8561	1.3998	7.63	1.58	0.750			
0.4066	26024.56	3.8530	3.8528	1.3898	7.61	1.56	0.750			
0.4107	26287.13	3.8500	3.8503	1.4062	7.59	1.54	0.750			
0.4149	26555.95	3.8470	3.8471	1.4232	7.57	1.52	0.750			
0.4193	26833.73	3.8440	3.8440	1.4496	7.55	1.50	0.750			
0.4236	27112.73	3.8410	3.8412	1.4859	7.53	1.48	0.750			
0.4281	27397.21	3.8380	3.8379	1.4994	7.51	1.46	0.750			
0.4327	27692.97	3.8350	3.8351	1.5402	7.48	1.43	0.750			
0.4374	27995.31	3.8320	3.8319	1.5674	7.45	1.40	0.750			
0.4422	28298.98	3.8290	3.8290	1.5921	7.42	1.37	0.750			
0.4470	28607.18	3.8260	3.8259	1.6221	7.39	1.34	0.750			
0.4518	28917.90	3.8230	3.8230	1.6470	7.36	1.31	0.750			
0.4569	29238.81	3.8200	3.8201	1.6646	7.33	1.28	0.750			
0.4620	29564.98	3.8170	3.8169	1.7047	7.30	1.25	0.750			
0.4670	29890.26	3.8140	3.8139	1.7312	7.27	1.22	0.750			
0.4722	30223.42	3.8110	3.8112	1.7571	7.24	1.19	0.750			
0.4776	30566.39	3.8080	3.8078	1.7849	7.20	1.15	0.750			
0.4829	30904.14	3.8050	3.8051	1.7984	7.16	1.11	0.750			
0.4884	31258.30	3.8020	3.8019	1.8309	7.13	1.08	0.750			
0.4940	31616.87	3.7990	3.7987	1.8626	7.09	1.04	0.750			
0.4996	31971.61	3.7960	3.7960	1.8582	7.06	1.01	0.750			
0.5051	32328.55	3.7930	3.7931	1.8758	7.02	0.97	0.750			
0.5108	32689.39	3.7900	3.7900	1.9288	6.99	0.94	0.750			
0.5166	33061.45	3.7870	3.7869	1.9657	6.95	0.90	0.750			
0.5226	33443.47	3.7840	3.7839	1.9766	6.91	0.86	0.750			
0.5286	33832.13	3.7810	3.7811	2.0022	6.88	0.83	0.750			
0.5346	34217.49	3.7780	3.7782	2.0418	6.85	0.80	0.750			
0.5408	34608.79	3.7750	3.7750	2.0331	6.82	0.77	0.750			
0.5467	34990.56	3.7720	3.7721	2.1026	6.79	0.74	0.750			
0.5531	35401.46	3.7690	3.7692	2.1626	6.75	0.70	0.750			
0.5597	35823.09	3.7660	3.7658	2.2200	6.72	0.67	0.750			
0.5665	36253.79	3.7630	3.7635	2.3157	6.69	0.64	0.750			
0.5735	36705.70	3.7600	3.7600	2.4328	6.66	0.61	0.750			
0.5810	37185.46	3.7570	3.7569	2.4732	6.62	0.57	0.750			
0.5887	37677.01	3.7540	3.7540	2.5992	6.59	0.54	0.750			
0.5965	38176.32	3.7510	3.7509	2.7093	6.55	0.50	0.750			
0.6047	38703.42	3.7480	3.7480	2.8205	6.52	0.47	0.750			
0.6135	39265.78	3.7450	3.7449	2.9505	6.48	0.43	0.750			
0.6226	39844.34	3.7420	3.7420	2.9926	6.45	0.40	0.750			
0.6316	40424.12	3.7390	3.7391	3.0053	6.41	0.36	0.750			
0.6406	41000.62	3.7360	3.7360	3.0329	6.38	0.33	0.750			
0.6499	41592.37	3.7330	3.7329	2.9297	6.34	0.29	0.750			
0.6588	42161.92	3.7300	3.7301	2.7364	6.31	0.26	0.750			
0.6664	42652.13	3.7270	3.7269	2.3696	6.29	0.24	0.750			
0.6727	43051.37	3.7240	3.7240	2.0157	6.27	0.22	0.750			
0.6783	43413.61	3.7210	3.7211	1.7576	6.25	0.20	0.750			
0.6829	43704.16	3.7180	3.7179	1.5649	6.24	0.19	0.750			
0.6871	43971.55	3.7150	3.7148	1.4063	6.23	0.18	0.750			
0.6909	44215.29	3.7120	3.7120	1.2933	6.22	0.17	0.750			
0.6946	44457.32	3.7090	3.7088	1.2334	6.21	0.16	0.750			
0.6982	44686.26	3.7060	3.7062	1.1832	6.20	0.15	0.750			
0.7017	44909.55	3.7030	3.7029	1.1452	6.19	0.14	0.750			
0.7050	45121.85	3.7000	3.6999	1.1083	6.18	0.13	0.750			
0.7083	45330.28	3.6970	3.6971	1.0657	6.17	0.12	0.750			
0.7114	45532.70	3.6940	3.6939	1.0514	6.16	0.11	0.750			
0.7145	45729.15	3.6910	3.6911	1.0340	6.15	0.10	0.750			
0.7176	45924.69	3.6880	3.6881	1.0191	6.14	0.09	0.750			
0.7207	46121.87	3.6850	3.6850	1.0029	6.13	0.08	0.750			
0.7236	46312.84	3.6820	3.6820	0.9873	6.12	0.07	0.750			
0.7266	46501.92	3.6790	3.6791	0.9664	6.12	0.07	0.750			
0.7295	46686.60	3.6760	3.6761	0.9493	6.11	0.06	0.750			
0.7323	46865.51	3.6730	3.6729	0.9241	6.11	0.06	0.750			
0.7350	47040.84	3.6700	3.6700	0.9014	6.10	0.05	0.750			
0.7376	47207.22	3.6670	3.6670	0.8964	6.10	0.05	0.750			
0.7403	47377.82	3.6640	3.6641	0.8984	6.09	0.04	0.750			
0.7429	47548.49	3.6610	3.6609	0.8972	6.08	0.03	0.750			
0.7457	47722.66	3.6580	3.6579	0.9058	6.08	0.03	0.750			
0.7484	47897.55	3.6550	3.6552	0.9099	6.07	0.02	0.750			
0.7512	48074.09	3.6520	3.6520	0.9208	6.06	0.01	0.750			
0.7540	48255.94	3.6490	3.6489	0.9176	6.06	0.01	0.750			
0.7567	48430.78	3.6460	3.6458	0.8983	6.05	0.00	0.750			
0.7595	48609.26	3.6430	3.6430	0.8627	6.05	0.00	0.750			
0.7621	48776.67	3.6400	3.6401	0.8075	6.05	0.00	0.750			
0.7646	48935.61	3.6370	3.6370	0.7328	6.05	0.00	0.750			
0.7667	49068.93	3.6340	3.6341	0.6319	6.05	0.00	0.750			
0.7684	49180.06	3.6310	3.6311	0.5293	6.05	0.00	0.750			
0.7696	49255.92	3.6280	3.6285	0.4474	6.05	0.00	0.750			
0.7708	49331.33	3.6250	3.6254	0.3494	6.05	0.00	0.750			
0.7717	49390.67	3.6220	3.6220	0.2841	6.05	0.00	0.750			
0.7724	49431.64	3.6190	3.6186	0.2094	6.05	0.00	0.750			
0.7729	49462.79	3.6160	3.6128	0.1549	6.05	0.00	0.750			
0.7730	49471.66	3.5950	3.6021	-0.1100	6.05	0.00	0.750			
0.7732	49483.63	3.6130	3.4617	0.1072	6.05	0.00	0.745			
0.7733	49489.44	3.5980	3.3838	-0.0752	6.05	0.00	0.742			
0.7733	49493.66	3.6100	3.3271	0.0642	6.05	0.00	0.739			
0.7734	49500.53	3.6010	3.2348	-0.0403	6.05	0.00	0.735			
0.7735	49502.64	3.6070	3.2065	0.0293	6.05	0.00	0.734			
0.7735	49504.93	3.6040	3.1758	-0.0055	6.05	0.00	0.732			
