Ah_balance (normalized)	Ah_balance (mAh)	Voltage - fit (V)	Voltage -  interpolate (V)	dQ/dV (1/V)	Temperature (°C)	Temperature - diff (°C)	Current (C)	R_DC 0ms (mOhm)	R_DC 50ms (mOhm)	R_DC 50 ms PEC (mOhm)
0.0997	6383.44	4.1970	4.1989	0.5574	8.14	2.16	0.750			
0.1016	6501.42	4.1940	4.1961	0.6662	8.14	2.16	0.750			
0.1038	6644.59	4.1910	4.1931	0.7531	8.13	2.15	0.750			
0.1062	6799.67	4.1880	4.1896	0.7512	8.12	2.14	0.750			
0.1085	6947.07	4.1850	4.1864	0.7585	8.11	2.13	0.750			
0.1113	7124.57	4.1820	4.1823	0.7980	8.10	2.12	0.750			
0.1143	7312.98	4.1790	4.1783	0.8224	8.09	2.11	0.750			
0.1158	7409.94	4.1760	4.1758	0.6927	8.08	2.10	0.750			
0.1178	7541.40	4.1730	4.1731	0.6995	8.07	2.09	0.750			
0.1199	7675.39	4.1700	4.1700	0.7058	8.07	2.09	0.750			
0.1221	7812.71	4.1670	4.1669	0.7153	8.06	2.08	0.750			
0.1242	7951.35	4.1640	4.1640	0.7187	8.06	2.08	0.750			
0.1264	8091.49	4.1610	4.1611	0.7254	8.05	2.07	0.750			
0.1287	8234.47	4.1580	4.1580	0.7277	8.05	2.07	0.750			
0.1308	8373.03	4.1550	4.1549	0.7268	8.04	2.06	0.750			
0.1330	8511.29	4.1520	4.1520	0.7168	8.03	2.05	0.750			
0.1351	8648.54	4.1490	4.1490	0.7202	8.03	2.05	0.750			
0.1373	8786.16	4.1460	4.1460	0.7217	8.02	2.04	0.750			
0.1394	8924.74	4.1430	4.1431	0.7268	8.01	2.03	0.750			
0.1416	9063.31	4.1400	4.1401	0.7349	8.01	2.03	0.750			
0.1438	9206.38	4.1370	4.1371	0.7460	8.00	2.02	0.750			
0.1461	9350.86	4.1340	4.1339	0.7462	7.99	2.01	0.750			
0.1484	9495.02	4.1310	4.1311	0.7589	7.98	2.00	0.750			
0.1506	9641.13	4.1280	4.1281	0.7600	7.97	1.99	0.750			
0.1529	9788.29	4.1250	4.1248	0.7614	7.96	1.98	0.750			
0.1552	9935.55	4.1220	4.1219	0.7577	7.95	1.97	0.750			
0.1575	10080.77	4.1190	4.1191	0.7542	7.95	1.97	0.750			
0.1597	10223.75	4.1160	4.1161	0.7625	7.94	1.96	0.750			
0.1620	10370.35	4.1130	4.1129	0.7681	7.93	1.95	0.750			
0.1643	10514.62	4.1100	4.1099	0.7671	7.92	1.94	0.750			
0.1666	10665.45	4.1070	4.1070	0.7798	7.92	1.94	0.750			
0.1691	10819.36	4.1040	4.1041	0.7837	7.91	1.93	0.750			
0.1714	10971.26	4.1010	4.1010	0.7816	7.90	1.92	0.750			
0.1738	11120.05	4.0980	4.0981	0.7811	7.89	1.91	0.750			
0.1761	11268.18	4.0950	4.0950	0.7741	7.89	1.91	0.750			
0.1784	11414.89	4.0920	4.0920	0.7785	7.88	1.90	0.750			
0.1807	11563.84	4.0890	4.0890	0.7847	7.87	1.89	0.750			
0.1831	11715.53	4.0860	4.0860	0.7867	7.86	1.88	0.750			
0.1854	11866.50	4.0830	4.0830	0.7970	7.86	1.88	0.750			
0.1878	12020.47	4.0800	4.0800	0.8053	7.85	1.87	0.750			
0.1903	12176.54	4.0770	4.0766	0.8057	7.84	1.86	0.750			
0.1927	12333.35	4.0740	4.0741	0.8080	7.83	1.85	0.750			
0.1951	12488.25	4.0710	4.0712	0.8010	7.83	1.85	0.750			
0.1975	12642.59	4.0680	4.0680	0.8085	7.82	1.84	0.750			
0.1999	12793.96	4.0650	4.0651	0.8050	7.81	1.83	0.750			
0.2023	12949.78	4.0620	4.0619	0.8115	7.80	1.82	0.750			
0.2048	13106.80	4.0590	4.0591	0.8209	7.79	1.81	0.750			
0.2073	13266.90	4.0560	4.0560	0.8355	7.79	1.81	0.750			
0.2098	13428.19	4.0530	4.0530	0.8402	7.78	1.80	0.750			
0.2123	13590.13	4.0500	4.0500	0.8457	7.77	1.79	0.750			
0.2149	13754.50	4.0470	4.0470	0.8487	7.76	1.78	0.750			
0.2175	13917.89	4.0440	4.0440	0.8499	7.75	1.77	0.750			
0.2201	14083.55	4.0410	4.0410	0.8523	7.75	1.77	0.750			
0.2226	14246.70	4.0380	4.0380	0.8502	7.74	1.76	0.750			
0.2251	14408.27	4.0350	4.0350	0.8486	7.73	1.75	0.750			
0.2277	14571.25	4.0320	4.0320	0.8531	7.72	1.74	0.750			
0.2302	14733.65	4.0290	4.0289	0.8534	7.71	1.73	0.750			
0.2328	14897.62	4.0260	4.0260	0.8649	7.70	1.72	0.750			
0.2354	15064.97	4.0230	4.0230	0.8701	7.69	1.71	0.750			
0.2380	15234.15	4.0200	4.0200	0.8744	7.68	1.70	0.750			
0.2407	15403.92	4.0170	4.0170	0.8763	7.67	1.69	0.750			
0.2433	15574.05	4.0140	4.0140	0.8685	7.66	1.68	0.750			
0.2459	15737.53	4.0110	4.0111	0.8742	7.65	1.67	0.750			
0.2485	15903.76	4.0080	4.0080	0.8819	7.64	1.66	0.750			
0.2511	16070.76	4.0050	4.0050	0.8920	7.63	1.65	0.750			
0.2538	16243.32	4.0020	4.0019	0.9083	7.62	1.64	0.750			
0.2566	16421.67	3.9990	3.9990	0.9098	7.61	1.63	0.750			
0.2594	16602.36	3.9960	3.9961	0.9191	7.60	1.62	0.750			
0.2622	16780.55	3.9930	3.9931	0.9156	7.60	1.62	0.750			
0.2649	16953.30	3.9900	3.9899	0.9025	7.59	1.61	0.750			
0.2676	17124.76	3.9870	3.9870	0.8965	7.58	1.60	0.750			
0.2702	17294.89	3.9840	3.9841	0.8958	7.57	1.59	0.750			
0.2729	17464.29	3.9810	3.9810	0.9056	7.56	1.58	0.750			
0.2756	17639.65	3.9780	3.9779	0.9276	7.55	1.57	0.750			
0.2784	17817.99	3.9750	3.9749	0.9372	7.54	1.56	0.750			
0.2813	18001.60	3.9720	3.9719	0.9431	7.53	1.55	0.750			
0.2841	18184.90	3.9690	3.9692	0.9601	7.52	1.54	0.750			
0.2870	18370.38	3.9660	3.9661	0.9741	7.50	1.52	0.750			
0.2900	18557.37	3.9630	3.9627	0.9829	7.49	1.51	0.750			
0.2929	18744.73	3.9600	3.9600	0.9787	7.48	1.50	0.750			
0.2959	18935.98	3.9570	3.9571	0.9841	7.47	1.49	0.750			
0.2989	19130.82	3.9540	3.9540	0.9963	7.46	1.48	0.750			
0.3019	19321.12	3.9510	3.9510	0.9887	7.45	1.47	0.750			
0.3048	19509.60	3.9480	3.9480	0.9867	7.44	1.46	0.750			
0.3077	19695.91	3.9450	3.9450	0.9902	7.43	1.45	0.750			
0.3107	19886.69	3.9420	3.9420	1.0008	7.42	1.44	0.750			
0.3137	20079.15	3.9390	3.9389	1.0096	7.41	1.43	0.750			
0.3168	20277.24	3.9360	3.9361	1.0193	7.39	1.41	0.750			
0.3199	20472.36	3.9330	3.9330	1.0315	7.38	1.40	0.750			
0.3230	20671.34	3.9300	3.9301	1.0463	7.37	1.39	0.750			
0.3261	20871.86	3.9270	3.9270	1.0619	7.36	1.38	0.750			
0.3294	21079.59	3.9240	3.9239	1.0654	7.34	1.36	0.750			
0.3326	21287.28	3.9210	3.9210	1.0763	7.33	1.35	0.750			
0.3359	21495.76	3.9180	3.9181	1.0787	7.32	1.34	0.750			
0.3391	21703.31	3.9150	3.9151	1.0879	7.31	1.33	0.750			
0.3423	21909.78	3.9120	3.9121	1.0940	7.29	1.31	0.750			
0.3456	22116.68	3.9090	3.9090	1.1108	7.28	1.30	0.750			
0.3489	22332.14	3.9060	3.9059	1.1294	7.27	1.29	0.750			
0.3524	22554.73	3.9030	3.9029	1.1493	7.25	1.27	0.750			
0.3559	22777.26	3.9000	3.9002	1.1626	7.24	1.26	0.750			
0.3594	23001.45	3.8970	3.8970	1.1751	7.23	1.25	0.750			
0.3629	23224.91	3.8940	3.8938	1.1884	7.22	1.24	0.750			
0.3664	23451.91	3.8910	3.8912	1.1911	7.21	1.23	0.750			
0.3700	23680.43	3.8880	3.8880	1.2120	7.19	1.21	0.750			
0.3737	23917.79	3.8850	3.8851	1.2334	7.17	1.19	0.750			
0.3775	24157.43	3.8820	3.8820	1.2434	7.15	1.17	0.750	0.382	0.808	
0.3812	24395.09	3.8790	3.8792	1.2689	7.14	1.16	0.750			
0.3850	24642.65	3.8760	3.8760	1.2785	7.12	1.14	0.750			
0.3889	24891.69	3.8730	3.8729	1.2914	7.11	1.13	0.750			
0.3928	25138.38	3.8700	3.8702	1.3002	7.09	1.11	0.750			
0.3967	25389.44	3.8670	3.8670	1.3171	7.08	1.10	0.750			
0.4007	25645.29	3.8640	3.8640	1.3312	7.06	1.08	0.750			
0.4047	25899.49	3.8610	3.8611	1.3599	7.04	1.06	0.750			
0.4088	26161.29	3.8580	3.8580	1.3809	7.03	1.05	0.750			
0.4131	26436.40	3.8550	3.8549	1.3952	7.01	1.03	0.750			
0.4173	26705.45	3.8520	3.8522	1.4064	6.99	1.01	0.750			
0.4215	26974.98	3.8490	3.8491	1.4262	6.98	1.00	0.750			
0.4258	27249.17	3.8460	3.8462	1.4419	6.97	0.99	0.750			
0.4301	27523.64	3.8430	3.8430	1.4592	6.95	0.97	0.750			
0.4344	27803.21	3.8400	3.8400	1.4781	6.93	0.95	0.750			
0.4390	28093.23	3.8370	3.8370	1.5014	6.92	0.94	0.750			
0.4436	28393.03	3.8340	3.8340	1.5124	6.89	0.91	0.750			
0.4481	28681.48	3.8310	3.8310	1.5273	6.87	0.89	0.750			
0.4527	28971.50	3.8280	3.8280	1.5612	6.84	0.86	0.750			
0.4573	29269.48	3.8250	3.8249	1.5909	6.83	0.85	0.750			
0.4622	29578.42	3.8220	3.8220	1.6183	6.81	0.83	0.750			
0.4672	29899.02	3.8190	3.8190	1.6350	6.79	0.81	0.750			
0.4721	30217.10	3.8160	3.8160	1.6522	6.77	0.79	0.750			
0.4773	30545.14	3.8130	3.8130	1.6652	6.74	0.76	0.750			
0.4822	30861.21	3.8100	3.8101	1.6514	6.72	0.74	0.750			
0.4870	31168.59	3.8070	3.8071	1.6600	6.70	0.72	0.750			
0.4920	31487.41	3.8040	3.8041	1.6726	6.68	0.70	0.750			
0.4971	31812.08	3.8010	3.8010	1.6929	6.66	0.68	0.750			
0.5022	32143.89	3.7980	3.7980	1.7219	6.64	0.66	0.750			
0.5073	32470.15	3.7950	3.7951	1.7400	6.62	0.64	0.750			
0.5127	32810.12	3.7920	3.7921	1.7750	6.60	0.62	0.750			
0.5180	33153.13	3.7890	3.7891	1.8158	6.58	0.60	0.750			
0.5234	33499.03	3.7860	3.7860	1.8623	6.56	0.58	0.750			
0.5291	33864.10	3.7830	3.7829	1.9325	6.54	0.56	0.750			
0.5351	34244.78	3.7800	3.7801	1.9715	6.51	0.53	0.750			
0.5411	34628.62	3.7770	3.7771	2.0309	6.49	0.51	0.750			
0.5471	35017.40	3.7740	3.7740	2.1059	6.46	0.48	0.750			
0.5535	35421.69	3.7710	3.7708	2.1739	6.44	0.46	0.750			
0.5601	35845.58	3.7680	3.7681	2.2864	6.41	0.43	0.750			
0.5672	36303.63	3.7650	3.7649	2.3447	6.39	0.41	0.750			
0.5745	36765.78	3.7620	3.7621	2.4335	6.37	0.39	0.750			
0.5818	37232.47	3.7590	3.7590	2.5483	6.35	0.37	0.750			
0.5896	37731.38	3.7560	3.7560	2.6512	6.32	0.34	0.750			
0.5977	38254.00	3.7530	3.7531	2.8710	6.29	0.31	0.750			
0.6067	38830.26	3.7500	3.7499	3.0009	6.26	0.28	0.750			
0.6161	39428.87	3.7470	3.7471	2.9993	6.23	0.25	0.750			
0.6252	40015.87	3.7440	3.7440	2.9711	6.21	0.23	0.750			
0.6340	40574.61	3.7410	3.7408	2.7807	6.18	0.20	0.750			
0.6423	41104.14	3.7380	3.7380	2.5703	6.16	0.18	0.750			
0.6495	41569.50	3.7350	3.7350	2.2931	6.14	0.16	0.750			
0.6557	41967.07	3.7320	3.7320	1.9893	6.12	0.14	0.750			
0.6613	42324.24	3.7290	3.7290	1.7684	6.11	0.13	0.750			
0.6661	42627.91	3.7260	3.7262	1.5529	6.10	0.12	0.750			
0.6703	42900.74	3.7230	3.7231	1.4078	6.09	0.11	0.750			
0.6742	43150.65	3.7200	3.7200	1.2935	6.08	0.10	0.750			
0.6778	43377.03	3.7170	3.7167	1.1994	6.07	0.09	0.750			
0.6811	43591.24	3.7140	3.7141	1.1432	6.07	0.09	0.750			
0.6844	43803.20	3.7110	3.7109	1.1131	6.06	0.08	0.750			
0.6878	44016.39	3.7080	3.7081	1.0949	6.05	0.07	0.750			
0.6910	44226.74	3.7050	3.7051	1.0623	6.05	0.07	0.750			
0.6942	44428.70	3.7020	3.7022	1.0386	6.04	0.06	0.750			
0.6973	44624.96	3.6990	3.6991	1.0214	6.04	0.06	0.750			
0.7003	44820.13	3.6960	3.6959	1.0020	6.03	0.05	0.750			
0.7032	45006.10	3.6930	3.6929	0.9745	6.03	0.05	0.750			
0.7062	45194.39	3.6900	3.6901	0.9598	6.02	0.04	0.750			
0.7091	45380.31	3.6870	3.6870	0.9450	6.02	0.04	0.750			
0.7119	45559.90	3.6840	3.6840	0.9301	6.01	0.03	0.750			
0.7146	45734.90	3.6810	3.6810	0.9083	6.00	0.02	0.750			
0.7173	45905.69	3.6780	3.6780	0.8938	6.00	0.02	0.750			
0.7199	46075.38	3.6750	3.6750	0.8871	6.00	0.02	0.750			
0.7226	46244.44	3.6720	3.6721	0.8787	5.99	0.01	0.750			
0.7252	46413.15	3.6690	3.6689	0.8785	5.99	0.01	0.750			
0.7278	46580.32	3.6660	3.6659	0.8719	5.99	0.01	0.750			
0.7304	46747.19	3.6630	3.6631	0.8615	5.99	0.01	0.750			
0.7330	46914.27	3.6600	3.6599	0.8559	5.99	0.01	0.750			
0.7356	47080.47	3.6570	3.6570	0.8428	5.98	0.00	0.750			
0.7382	47244.80	3.6540	3.6540	0.8115	5.98	0.00	0.750			
0.7407	47402.56	3.6510	3.6509	0.7752	5.98	-0.00	0.750			
0.7430	47550.19	3.6480	3.6480	0.7076	5.98	-0.00	0.750			
0.7451	47684.70	3.6450	3.6451	0.6362	5.98	-0.00	0.750			
0.7469	47800.45	3.6420	3.6420	0.5459	5.97	-0.01	0.750			
0.7484	47895.78	3.6390	3.6390	0.4546	5.97	-0.01	0.750			
0.7494	47959.33	3.6360	3.6366	0.3794	5.97	-0.01	0.750			
0.7504	48025.05	3.6330	3.6332	0.3149	5.97	-0.01	0.750			
0.7512	48074.26	3.6300	3.6300	0.2431	5.97	-0.01	0.750			
0.7518	48113.37	3.6270	3.6262	0.1932	5.97	-0.01	0.750			
0.7522	48138.55	3.6240	3.6204	0.1404	5.97	-0.01	0.750			
0.7523	48147.08	3.6000	3.6030	-0.1165	5.97	-0.01	0.750			
0.7525	48157.66	3.6210	3.4515	0.1008	5.97	-0.01	0.744			
0.7526	48166.47	3.6030	3.3116	-0.0855	5.97	-0.01	0.738			
0.7527	48174.03	3.6180	3.1918	0.0697	5.97	-0.01	0.733			
0.7528	48179.90	3.6060	3.0986	-0.0544	5.97	-0.01	0.729			
0.7529	48184.44	3.6150	3.0267	0.0387	5.97	-0.01	0.725			
0.7529	48187.38	3.6090	2.9800	-0.0234	5.97	-0.01	0.723			
0.7530	48188.89	3.6120	2.9561	0.0077	5.97	-0.01	0.722			
