Ah_balance (normalized)	Ah_balance (mAh)	Voltage - fit (V)	Voltage -  interpolate (V)	dQ/dV (1/V)	Temperature (°C)	Temperature - diff (°C)	Current (C)	R_DC 0ms (mOhm)	R_DC 50ms (mOhm)	R_DC 50 ms PEC (mOhm)
0.0000	0.00	4.0980	4.1252	0.0000	5.99	0.00	-0.749			
0.0000	0.00	4.1010	4.1252	0.0000	5.99	0.00	-0.749			
0.0002	14.25	4.0950	4.0946	-0.0466	5.99	0.00	-0.750			
0.0005	29.31	4.0920	4.0913	-0.0769	5.99	0.00	-0.750			
0.0007	46.71	4.0890	4.0888	-0.1043	5.99	0.00	-0.750			
0.0011	69.35	4.0860	4.0859	-0.1319	5.99	0.00	-0.750			
0.0015	97.42	4.0830	4.0833	-0.1583	5.99	0.00	-0.750			
0.0020	130.41	4.0800	4.0799	-0.1848	5.99	0.00	-0.750			
0.0026	169.36	4.0770	4.0769	-0.2108	5.99	0.00	-0.750			
0.0033	212.61	4.0740	4.0740	-0.2319	5.99	0.00	-0.750			
0.0041	259.39	4.0710	4.0710	-0.2526	5.99	0.00	-0.750			
0.0049	310.80	4.0680	4.0682	-0.2744	5.99	0.00	-0.750			
0.0057	365.56	4.0650	4.0650	-0.2923	5.99	0.00	-0.750			
0.0066	423.28	4.0620	4.0619	-0.3119	5.99	0.00	-0.750			
0.0076	484.33	4.0590	4.0591	-0.3352	5.99	0.00	-0.750			
0.0086	550.44	4.0560	4.0560	-0.3584	5.99	0.00	-0.750			
0.0097	622.36	4.0530	4.0528	-0.3814	5.99	0.00	-0.750			
0.0109	698.32	4.0500	4.0502	-0.4013	5.99	0.00	-0.750			
0.0122	777.75	4.0470	4.0470	-0.4219	5.99	0.00	-0.750			
0.0134	860.12	4.0440	4.0438	-0.4445	5.99	0.00	-0.750			
0.0148	946.91	4.0410	4.0410	-0.4627	5.99	0.00	-0.750			
0.0162	1037.01	4.0380	4.0379	-0.4832	5.99	0.00	-0.750			
0.0177	1132.24	4.0350	4.0350	-0.5049	6.00	0.01	-0.750			
0.0192	1231.14	4.0320	4.0321	-0.5298	6.00	0.01	-0.750			
0.0209	1336.37	4.0290	4.0290	-0.5547	6.00	0.01	-0.750			
0.0226	1445.42	4.0260	4.0259	-0.5732	6.00	0.01	-0.750			
0.0244	1558.49	4.0230	4.0229	-0.5836	6.01	0.02	-0.750			
0.0261	1673.36	4.0200	4.0201	-0.5972	6.01	0.02	-0.750			
0.0280	1789.65	4.0170	4.0170	-0.6075	6.01	0.02	-0.750			
0.0298	1906.68	4.0140	4.0139	-0.6139	6.02	0.03	-0.750			
0.0316	2022.62	4.0110	4.0110	-0.6206	6.03	0.04	-0.750			
0.0335	2142.66	4.0080	4.0081	-0.6341	6.03	0.04	-0.750			
0.0354	2267.36	4.0050	4.0049	-0.6436	6.04	0.05	-0.750			
0.0374	2393.41	4.0020	4.0019	-0.6481	6.05	0.06	-0.750			
0.0393	2516.78	3.9990	3.9991	-0.6576	6.05	0.06	-0.750			
0.0413	2643.65	3.9960	3.9960	-0.6656	6.06	0.07	-0.750			
0.0433	2772.34	3.9930	3.9929	-0.6735	6.06	0.07	-0.750			
0.0454	2903.04	3.9900	3.9899	-0.6766	6.07	0.08	-0.750			
0.0474	3033.52	3.9870	3.9872	-0.6853	6.07	0.08	-0.750			
0.0495	3166.73	3.9840	3.9841	-0.6936	6.08	0.09	-0.750			
0.0516	3301.22	3.9810	3.9811	-0.6998	6.08	0.09	-0.750			
0.0537	3434.13	3.9780	3.9780	-0.7019	6.09	0.10	-0.750			
0.0558	3569.00	3.9750	3.9750	-0.7070	6.10	0.11	-0.750			
0.0579	3705.18	3.9720	3.9720	-0.7135	6.11	0.12	-0.750			
0.0601	3844.37	3.9690	3.9690	-0.7189	6.11	0.12	-0.750			
0.0622	3981.65	3.9660	3.9660	-0.7174	6.12	0.13	-0.750			
0.0644	4120.18	3.9630	3.9631	-0.7233	6.13	0.14	-0.750			
0.0665	4259.01	3.9600	3.9599	-0.7302	6.14	0.15	-0.750			
0.0687	4398.27	3.9570	3.9570	-0.7367	6.15	0.16	-0.750			
0.0710	4542.19	3.9540	3.9540	-0.7407	6.16	0.17	-0.750			
0.0732	4684.91	3.9510	3.9510	-0.7455	6.17	0.18	-0.750			
0.0755	4829.76	3.9480	3.9480	-0.7464	6.18	0.19	-0.750			
0.0777	4973.87	3.9450	3.9450	-0.7458	6.19	0.20	-0.750			
0.0799	5115.91	3.9420	3.9420	-0.7392	6.19	0.20	-0.750			
0.0821	5256.63	3.9390	3.9390	-0.7405	6.20	0.21	-0.750			
0.0844	5399.01	3.9360	3.9360	-0.7372	6.21	0.22	-0.750			
0.0866	5541.31	3.9330	3.9328	-0.7380	6.22	0.23	-0.750			
0.0888	5681.72	3.9300	3.9303	-0.7390	6.23	0.24	-0.750			
0.0910	5823.76	3.9270	3.9268	-0.7444	6.24	0.25	-0.750			
0.0932	5965.13	3.9240	3.9241	-0.7549	6.25	0.26	-0.750			
0.0955	6112.73	3.9210	3.9209	-0.7583	6.26	0.27	-0.750			
0.0978	6260.43	3.9180	3.9179	-0.7663	6.27	0.28	-0.750			
0.1001	6408.22	3.9150	3.9150	-0.7677	6.27	0.28	-0.750			
0.1024	6555.43	3.9120	3.9120	-0.7666	6.28	0.29	-0.750			
0.1047	6700.85	3.9090	3.9089	-0.7658	6.30	0.31	-0.750			
0.1070	6845.34	3.9060	3.9060	-0.7655	6.31	0.32	-0.750			
0.1093	6992.91	3.9030	3.9031	-0.7603	6.32	0.33	-0.750			
0.1116	7141.88	3.9000	3.8999	-0.7623	6.33	0.34	-0.750			
0.1139	7287.52	3.8970	3.8974	-0.7628	6.34	0.35	-0.750			
0.1162	7433.72	3.8940	3.8938	-0.7598	6.35	0.36	-0.750			
0.1184	7577.22	3.8910	3.8911	-0.7651	6.36	0.37	-0.750			
0.1207	7725.86	3.8880	3.8879	-0.7641	6.37	0.38	-0.750			
0.1230	7872.42	3.8850	3.8850	-0.7670	6.38	0.39	-0.750			
0.1253	8021.80	3.8820	3.8819	-0.7699	6.39	0.40	-0.750			
0.1276	8168.99	3.8790	3.8791	-0.7677	6.40	0.41	-0.750			
0.1299	8312.68	3.8760	3.8760	-0.7785	6.41	0.42	-0.750			
0.1322	8461.29	3.8730	3.8729	-0.7854	6.42	0.43	-0.750			
0.1346	8612.90	3.8700	3.8699	-0.7876	6.43	0.44	-0.750			
0.1370	8768.06	3.8670	3.8670	-0.7975	6.44	0.45	-0.750			
0.1394	8923.37	3.8640	3.8642	-0.7992	6.45	0.46	-0.750			
0.1419	9079.00	3.8610	3.8609	-0.7926	6.46	0.47	-0.750			
0.1442	9229.07	3.8580	3.8580	-0.7937	6.48	0.49	-0.750			
0.1465	9379.06	3.8550	3.8549	-0.7905	6.49	0.50	-0.750			
0.1489	9532.18	3.8520	3.8519	-0.7906	6.50	0.51	-0.750			
0.1513	9683.21	3.8490	3.8489	-0.7893	6.51	0.52	-0.750			
0.1536	9833.49	3.8460	3.8461	-0.7936	6.52	0.53	-0.750			
0.1560	9985.58	3.8430	3.8431	-0.8065	6.53	0.54	-0.750			
0.1585	10141.08	3.8400	3.8397	-0.8149	6.54	0.55	-0.750			
0.1609	10300.53	3.8370	3.8370	-0.8059	6.55	0.56	-0.750			
0.1634	10457.22	3.8340	3.8342	-0.8029	6.56	0.57	-0.750			
0.1658	10614.22	3.8310	3.8310	-0.8047	6.57	0.58	-0.750			
0.1682	10765.04	3.8280	3.8280	-0.7974	6.58	0.59	-0.750			
0.1705	10910.00	3.8250	3.8249	-0.7877	6.59	0.60	-0.750			
0.1728	11060.95	3.8220	3.8220	-0.7919	6.60	0.61	-0.750			
0.1753	11216.06	3.8190	3.8190	-0.7982	6.61	0.62	-0.750			
0.1777	11371.80	3.8160	3.8160	-0.8065	6.63	0.64	-0.750			
0.1801	11525.97	3.8130	3.8131	-0.8148	6.64	0.65	-0.750			
0.1826	11683.37	3.8100	3.8099	-0.8174	6.65	0.66	-0.750			
0.1850	11840.03	3.8070	3.8070	-0.8152	6.66	0.67	-0.750			
0.1875	11999.59	3.8040	3.8038	-0.8161	6.67	0.68	-0.750			
0.1900	12156.91	3.8010	3.8012	-0.8212	6.68	0.69	-0.750			
0.1924	12313.45	3.7980	3.7980	-0.8235	6.70	0.71	-0.750			
0.1949	12471.58	3.7950	3.7949	-0.8152	6.71	0.72	-0.750			
0.1973	12625.36	3.7920	3.7919	-0.8081	6.72	0.73	-0.750			
0.1997	12782.78	3.7890	3.7891	-0.8153	6.73	0.74	-0.750			
0.2022	12940.76	3.7860	3.7860	-0.8162	6.74	0.75	-0.750			
0.2046	13095.86	3.7830	3.7829	-0.8164	6.75	0.76	-0.750			
0.2070	13249.66	3.7800	3.7800	-0.8155	6.76	0.77	-0.750			
0.2095	13407.82	3.7770	3.7771	-0.8205	6.77	0.78	-0.750			
0.2120	13568.72	3.7740	3.7739	-0.8262	6.78	0.79	-0.750			
0.2145	13727.62	3.7710	3.7711	-0.8211	6.79	0.80	-0.750			
0.2170	13885.31	3.7680	3.7680	-0.8174	6.80	0.81	-0.750			
0.2194	14043.64	3.7650	3.7650	-0.8181	6.82	0.83	-0.750			
0.2218	14198.14	3.7620	3.7620	-0.8150	6.83	0.84	-0.750			
0.2242	14351.87	3.7590	3.7589	-0.8193	6.84	0.85	-0.750			
0.2267	14509.33	3.7560	3.7563	-0.8293	6.85	0.86	-0.750			
0.2292	14669.37	3.7530	3.7528	-0.8383	6.86	0.87	-0.750			
0.2318	14832.31	3.7500	3.7500	-0.8478	6.88	0.89	-0.750			
0.2344	14998.50	3.7470	3.7470	-0.8484	6.89	0.90	-0.750			
0.2370	15166.01	3.7440	3.7439	-0.8532	6.90	0.91	-0.750			
0.2395	15327.14	3.7410	3.7411	-0.8481	6.91	0.92	-0.750			
0.2420	15487.20	3.7380	3.7382	-0.8398	6.92	0.93	-0.750			
0.2445	15647.55	3.7350	3.7349	-0.8478	6.93	0.94	-0.750			
0.2470	15808.34	3.7320	3.7319	-0.8531	6.94	0.95	-0.750			
0.2496	15974.47	3.7290	3.7290	-0.8616	6.95	0.96	-0.750			
0.2522	16140.72	3.7260	3.7261	-0.8648	6.96	0.97	-0.750			
0.2548	16309.70	3.7230	3.7230	-0.8717	6.97	0.98	-0.750			
0.2575	16476.84	3.7200	3.7200	-0.8759	6.98	0.99	-0.750			
0.2600	16643.13	3.7170	3.7170	-0.8768	6.99	1.00	-0.750			
0.2627	16814.06	3.7140	3.7139	-0.8832	7.01	1.02	-0.750			
0.2654	16983.13	3.7110	3.7111	-0.8858	7.01	1.02	-0.750			
0.2680	17154.95	3.7080	3.7080	-0.8891	7.02	1.03	-0.750			
0.2707	17326.32	3.7050	3.7050	-0.8886	7.03	1.04	-0.750			
0.2734	17495.17	3.7020	3.7020	-0.8936	7.04	1.05	-0.750			
0.2760	17666.89	3.6990	3.6989	-0.8971	7.05	1.06	-0.750			
0.2787	17837.68	3.6960	3.6960	-0.9080	7.06	1.07	-0.750			
0.2815	18015.19	3.6930	3.6929	-0.9140	7.07	1.08	-0.750			
0.2843	18193.08	3.6900	3.6900	-0.9165	7.09	1.10	-0.750			
0.2870	18369.90	3.6870	3.6870	-0.9215	7.10	1.11	-0.750			
0.2898	18547.77	3.6840	3.6841	-0.9241	7.11	1.12	-0.750			
0.2925	18723.09	3.6810	3.6810	-0.9301	7.12	1.13	-0.750			
0.2953	18901.32	3.6780	3.6779	-0.9329	7.13	1.14	-0.750			
0.2981	19079.21	3.6750	3.6750	-0.9419	7.14	1.15	-0.750			
0.3010	19264.18	3.6720	3.6721	-0.9513	7.15	1.16	-0.750			
0.3039	19448.61	3.6690	3.6690	-0.9630	7.16	1.17	-0.750			
0.3068	19633.05	3.6660	3.6661	-0.9647	7.17	1.18	-0.750			
0.3096	19817.14	3.6630	3.6629	-0.9747	7.18	1.19	-0.750			
0.3126	20004.96	3.6600	3.6598	-0.9752	7.19	1.20	-0.750			
0.3155	20193.63	3.6570	3.6570	-0.9853	7.20	1.21	-0.750			
0.3185	20383.89	3.6540	3.6541	-0.9910	7.20	1.21	-0.750			
0.3215	20578.17	3.6510	3.6507	-1.0025	7.21	1.22	-0.750			
0.3245	20767.99	3.6480	3.6480	-1.0062	7.22	1.23	-0.750			
0.3276	20965.43	3.6450	3.6448	-1.0097	7.23	1.24	-0.750			
0.3306	21160.26	3.6420	3.6419	-1.0227	7.24	1.25	-0.750			
0.3337	21359.42	3.6390	3.6391	-1.0322	7.25	1.26	-0.750			
0.3368	21555.94	3.6360	3.6359	-1.0302	7.26	1.27	-0.750			
0.3400	21757.87	3.6330	3.6332	-1.0416	7.27	1.28	-0.750			
0.3430	21953.01	3.6300	3.6299	-1.0466	7.28	1.29	-0.750			
0.3462	22153.83	3.6270	3.6270	-1.0557	7.29	1.30	-0.750			
0.3493	22357.39	3.6240	3.6240	-1.0553	7.29	1.30	-0.750			
0.3526	22563.28	3.6210	3.6211	-1.0788	7.30	1.31	-0.750			
0.3558	22772.57	3.6180	3.6182	-1.0956	7.31	1.32	-0.750			
0.3592	22986.56	3.6150	3.6149	-1.1046	7.32	1.33	-0.750			
0.3625	23199.54	3.6120	3.6119	-1.1119	7.34	1.35	-0.750			
0.3658	23413.64	3.6090	3.6090	-1.1210	7.34	1.35	-0.750			
0.3692	23631.14	3.6060	3.6060	-1.1336	7.35	1.36	-0.750			
0.3727	23849.90	3.6030	3.6029	-1.1365	7.36	1.37	-0.750			
0.3760	24065.29	3.6000	3.6003	-1.1494	7.37	1.38	-0.750			
0.3795	24287.71	3.5970	3.5969	-1.1679	7.38	1.39	-0.750			
0.3831	24515.50	3.5940	3.5938	-1.1827	7.39	1.40	-0.750			
0.3866	24744.19	3.5910	3.5910	-1.1851	7.39	1.40	-0.750	0.390	0.860	
0.3902	24972.06	3.5880	3.5881	-1.1990	7.40	1.41	-0.750			
0.3939	25209.48	3.5850	3.5850	-1.2006	7.41	1.42	-0.750			
0.3975	25440.11	3.5820	3.5819	-1.1981	7.42	1.43	-0.750			
0.4010	25665.27	3.5790	3.5792	-1.1981	7.43	1.44	-0.750			
0.4046	25895.15	3.5760	3.5759	-1.2122	7.44	1.45	-0.750			
0.4082	26125.90	3.5730	3.5729	-1.2249	7.44	1.45	-0.750			
0.4119	26360.16	3.5700	3.5699	-1.2496	7.45	1.46	-0.750			
0.4157	26606.14	3.5670	3.5670	-1.2666	7.45	1.46	-0.750			
0.4196	26854.50	3.5640	3.5640	-1.2743	7.46	1.47	-0.750			
0.4234	27100.07	3.5610	3.5610	-1.2721	7.47	1.48	-0.750			
0.4272	27341.93	3.5580	3.5581	-1.2705	7.48	1.49	-0.750			
0.4310	27586.53	3.5550	3.5549	-1.2796	7.49	1.50	-0.750			
0.4348	27828.93	3.5520	3.5520	-1.2859	7.50	1.51	-0.750			
0.4387	28075.91	3.5490	3.5490	-1.3130	7.51	1.52	-0.750			
0.4428	28336.64	3.5460	3.5459	-1.3306	7.52	1.53	-0.750			
0.4468	28592.28	3.5430	3.5429	-1.3375	7.53	1.54	-0.750			
0.4508	28852.02	3.5400	3.5403	-1.3522	7.54	1.55	-0.750			
0.4549	29113.57	3.5370	3.5369	-1.3488	7.55	1.56	-0.750			
0.4590	29374.07	3.5340	3.5339	-1.3501	7.56	1.57	-0.750			
0.4630	29631.56	3.5310	3.5312	-1.3555	7.57	1.58	-0.750			
0.4671	29894.09	3.5280	3.5278	-1.3593	7.58	1.59	-0.750			
0.4711	30152.61	3.5250	3.5250	-1.3628	7.59	1.60	-0.750			
0.4752	30411.03	3.5220	3.5220	-1.3637	7.60	1.61	-0.750			
0.4793	30674.91	3.5190	3.5190	-1.3671	7.60	1.61	-0.750			
0.4835	30944.57	3.5160	3.5158	-1.3706	7.61	1.62	-0.750			
0.4876	31204.67	3.5130	3.5131	-1.3673	7.62	1.63	-0.750			
0.4917	31466.30	3.5100	3.5099	-1.3624	7.63	1.64	-0.750			
0.4958	31730.66	3.5070	3.5069	-1.3653	7.64	1.65	-0.750			
0.4998	31989.57	3.5040	3.5040	-1.3656	7.65	1.66	-0.750			
0.5039	32250.89	3.5010	3.5009	-1.3615	7.66	1.67	-0.750			
0.5081	32520.26	3.4980	3.4979	-1.3716	7.67	1.68	-0.750			
0.5122	32781.33	3.4950	3.4950	-1.3741	7.68	1.69	-0.750			
0.5163	33044.68	3.4920	3.4918	-1.3646	7.69	1.70	-0.750			
0.5204	33308.20	3.4890	3.4889	-1.3626	7.70	1.71	-0.750			
0.5245	33566.86	3.4860	3.4858	-1.3598	7.71	1.72	-0.750			
0.5286	33829.51	3.4830	3.4831	-1.3380	7.73	1.74	-0.750			
0.5327	34090.96	3.4800	3.4799	-1.3293	7.74	1.75	-0.750			
0.5366	34340.63	3.4770	3.4771	-1.3108	7.75	1.76	-0.750			
0.5404	34586.80	3.4740	3.4740	-1.2930	7.76	1.77	-0.750			
0.5443	34834.73	3.4710	3.4709	-1.2931	7.78	1.79	-0.750			
0.5481	35077.95	3.4680	3.4681	-1.2944	7.79	1.80	-0.750			
0.5520	35326.11	3.4650	3.4650	-1.3090	7.80	1.81	-0.750			
0.5561	35587.41	3.4620	3.4617	-1.3144	7.81	1.82	-0.750			
0.5600	35842.50	3.4590	3.4590	-1.3050	7.82	1.83	-0.750			
0.5640	36094.83	3.4560	3.4564	-1.2867	7.83	1.84	-0.750			
0.5679	36344.17	3.4530	3.4530	-1.2674	7.84	1.85	-0.750			
0.5716	36582.85	3.4500	3.4499	-1.2442	7.85	1.86	-0.750			
0.5752	36811.42	3.4470	3.4469	-1.2132	7.87	1.88	-0.750			
0.5788	37042.38	3.4440	3.4438	-1.2196	7.88	1.89	-0.750			
0.5824	37275.91	3.4410	3.4410	-1.2130	7.89	1.90	-0.750			
0.5861	37508.84	3.4380	3.4379	-1.2092	7.90	1.91	-0.750			
0.5898	37744.26	3.4350	3.4351	-1.2058	7.91	1.92	-0.750			
0.5934	37975.10	3.4320	3.4320	-1.1914	7.92	1.93	-0.750			
0.5969	38203.05	3.4290	3.4290	-1.1708	7.94	1.95	-0.750			
0.6004	38426.01	3.4260	3.4260	-1.1510	7.95	1.96	-0.750			
0.6038	38644.21	3.4230	3.4230	-1.1332	7.96	1.97	-0.750			
0.6072	38861.19	3.4200	3.4200	-1.1215	7.97	1.98	-0.750			
0.6105	39074.16	3.4170	3.4171	-1.1082	7.99	2.00	-0.750			
0.6139	39286.47	3.4140	3.4141	-1.0957	8.00	2.01	-0.750			
0.6171	39495.92	3.4110	3.4109	-1.0763	8.01	2.02	-0.750			
0.6203	39702.13	3.4080	3.4081	-1.0572	8.03	2.04	-0.750			
0.6235	39902.79	3.4050	3.4050	-1.0323	8.04	2.05	-0.750			
0.6266	40100.35	3.4020	3.4021	-1.0031	8.05	2.06	-0.750			
0.6295	40290.46	3.3990	3.3989	-0.9786	8.06	2.07	-0.750			
0.6324	40475.41	3.3960	3.3961	-0.9523	8.08	2.09	-0.750			
0.6352	40654.48	3.3930	3.3930	-0.9319	8.09	2.10	-0.750			
0.6380	40832.66	3.3900	3.3900	-0.9128	8.11	2.12	-0.750			
0.6407	41003.23	3.3870	3.3869	-0.8964	8.12	2.13	-0.750			
0.6433	41173.32	3.3840	3.3840	-0.8795	8.13	2.14	-0.750			
0.6459	41340.73	3.3810	3.3811	-0.8677	8.14	2.15	-0.750			
0.6485	41504.97	3.3780	3.3779	-0.8487	8.16	2.17	-0.750			
0.6511	41669.75	3.3750	3.3751	-0.8353	8.17	2.18	-0.750			
0.6536	41828.10	3.3720	3.3720	-0.8166	8.18	2.19	-0.750			
0.6560	41985.09	3.3690	3.3690	-0.7982	8.20	2.21	-0.750			
0.6583	42134.17	3.3660	3.3660	-0.7757	8.21	2.22	-0.750			
0.6606	42280.60	3.3630	3.3631	-0.7540	8.22	2.23	-0.750			
0.6629	42423.60	3.3600	3.3599	-0.7360	8.23	2.24	-0.750			
0.6651	42563.76	3.3570	3.3570	-0.7180	8.25	2.26	-0.750			
0.6672	42700.03	3.3540	3.3540	-0.7000	8.26	2.27	-0.750			
0.6692	42831.76	3.3510	3.3510	-0.6836	8.27	2.28	-0.750			
0.6713	42961.89	3.3480	3.3480	-0.6698	8.28	2.29	-0.750			
0.6733	43088.34	3.3450	3.3450	-0.6544	8.29	2.30	-0.750			
0.6752	43212.70	3.3420	3.3419	-0.6398	8.30	2.31	-0.750			
0.6771	43333.68	3.3390	3.3391	-0.6243	8.31	2.32	-0.750			
0.6789	43452.60	3.3360	3.3359	-0.6125	8.33	2.34	-0.750			
0.6808	43569.25	3.3330	3.3329	-0.5951	8.34	2.35	-0.750			
0.6825	43681.17	3.3300	3.3300	-0.5804	8.35	2.36	-0.750			
0.6842	43791.41	3.3270	3.3270	-0.5671	8.36	2.37	-0.750			
0.6859	43899.02	3.3240	3.3241	-0.5556	8.37	2.38	-0.750			
0.6876	44004.78	3.3210	3.3209	-0.5441	8.38	2.39	-0.750			
0.6892	44108.27	3.3180	3.3180	-0.5285	8.39	2.40	-0.750			
0.6907	44207.88	3.3150	3.3151	-0.5167	8.40	2.41	-0.750			
0.6923	44306.89	3.3120	3.3120	-0.5061	8.42	2.43	-0.750			
0.6938	44401.12	3.3090	3.3090	-0.4932	8.43	2.44	-0.750			
0.6952	44493.77	3.3060	3.3059	-0.4867	8.44	2.45	-0.750			
0.6967	44585.72	3.3030	3.3030	-0.4847	8.45	2.46	-0.750			
0.6981	44680.08	3.3000	3.2999	-0.4784	8.46	2.47	-0.750			
0.6996	44773.13	3.2970	3.2969	-0.4683	8.48	2.49	-0.750			
0.7010	44862.63	3.2940	3.2941	-0.4584	8.49	2.50	-0.750			
0.7023	44950.11	3.2910	3.2910	-0.4481	8.50	2.51	-0.750			
0.7037	45033.69	3.2880	3.2879	-0.4334	8.51	2.52	-0.750			
0.7049	45114.38	3.2850	3.2850	-0.4245	8.52	2.53	-0.750			
0.7061	45193.37	3.2820	3.2821	-0.4156	8.52	2.53	-0.750			
0.7074	45275.30	3.2790	3.2789	-0.4146	8.53	2.54	-0.750			
0.7087	45353.72	3.2760	3.2761	-0.4070	8.54	2.55	-0.750			
0.7099	45431.06	3.2730	3.2730	-0.3982	8.55	2.56	-0.750			
0.7110	45507.13	3.2700	3.2700	-0.3919	8.56	2.57	-0.750			
0.7122	45581.54	3.2670	3.2670	-0.3851	8.57	2.58	-0.750			
0.7134	45654.65	3.2640	3.2640	-0.3773	8.58	2.59	-0.750			
0.7145	45726.57	3.2610	3.2609	-0.3716	8.59	2.60	-0.750			
0.7156	45797.36	3.2580	3.2580	-0.3654	8.60	2.61	-0.750			
0.7167	45866.70	3.2550	3.2551	-0.3600	8.61	2.62	-0.750			
0.7177	45935.70	3.2520	3.2519	-0.3558	8.62	2.63	-0.750			
0.7188	46003.15	3.2490	3.2491	-0.3498	8.63	2.64	-0.750			
0.7198	46069.80	3.2460	3.2459	-0.3434	8.64	2.65	-0.750			
0.7209	46135.09	3.2430	3.2431	-0.3392	8.65	2.66	-0.750			
0.7219	46199.73	3.2400	3.2400	-0.3329	8.66	2.67	-0.750			
0.7229	46263.01	3.2370	3.2370	-0.3288	8.67	2.68	-0.750			
0.7238	46325.75	3.2340	3.2340	-0.3231	8.68	2.69	-0.750			
0.7248	46387.35	3.2310	3.2311	-0.3191	8.69	2.70	-0.750			
0.7258	46448.74	3.2280	3.2279	-0.3149	8.70	2.71	-0.750			
0.7267	46509.01	3.2250	3.2251	-0.3099	8.70	2.71	-0.750			
0.7276	46567.68	3.2220	3.2219	-0.3041	8.71	2.72	-0.750			
0.7285	46625.37	3.2190	3.2191	-0.2985	8.72	2.73	-0.750			
0.7294	46682.04	3.2160	3.2159	-0.2938	8.73	2.74	-0.750			
0.7303	46738.01	3.2130	3.2130	-0.2901	8.74	2.75	-0.750			
0.7311	46792.79	3.2100	3.2100	-0.2861	8.75	2.76	-0.750			
0.7320	46847.45	3.2070	3.2070	-0.2835	8.76	2.77	-0.750			
0.7328	46902.23	3.2040	3.2039	-0.2803	8.77	2.78	-0.750			
0.7337	46955.55	3.2010	3.2010	-0.2773	8.78	2.79	-0.750			
0.7345	47008.67	3.1980	3.1981	-0.2743	8.79	2.80	-0.750			
0.7353	47060.87	3.1950	3.1949	-0.2711	8.80	2.81	-0.750			
0.7361	47112.95	3.1920	3.1920	-0.2683	8.81	2.82	-0.750			
0.7369	47163.84	3.1890	3.1891	-0.2651	8.81	2.82	-0.750			
0.7377	47214.47	3.1860	3.1860	-0.2628	8.82	2.83	-0.750			
0.7385	47264.83	3.1830	3.1830	-0.2604	8.83	2.84	-0.750			
0.7393	47314.28	3.1800	3.1799	-0.2569	8.83	2.84	-0.750			
0.7401	47363.27	3.1770	3.1770	-0.2555	8.84	2.85	-0.750			
0.7408	47412.20	3.1740	3.1740	-0.2522	8.85	2.86	-0.750			
0.7416	47460.49	3.1710	3.1710	-0.2488	8.86	2.87	-0.750			
0.7423	47508.58	3.1680	3.1681	-0.2460	8.87	2.88	-0.750			
0.7430	47555.08	3.1650	3.1651	-0.2421	8.88	2.89	-0.750			
0.7438	47601.12	3.1620	3.1620	-0.2385	8.89	2.90	-0.750			
0.7445	47646.29	3.1590	3.1589	-0.2356	8.90	2.91	-0.750			
0.7452	47690.81	3.1560	3.1560	-0.2324	8.90	2.91	-0.750			
0.7459	47735.49	3.1530	3.1530	-0.2314	8.91	2.92	-0.750			
0.7466	47779.69	3.1500	3.1500	-0.2296	8.92	2.93	-0.750			
0.7472	47823.59	3.1470	3.1471	-0.2281	8.93	2.94	-0.750			
0.7479	47867.29	3.1440	3.1440	-0.2264	8.94	2.95	-0.750			
0.7486	47910.57	3.1410	3.1409	-0.2247	8.95	2.96	-0.750			
0.7493	47953.53	3.1380	3.1380	-0.2242	8.95	2.96	-0.750			
0.7499	47996.70	3.1350	3.1349	-0.2212	8.96	2.97	-0.750			
0.7506	48039.31	3.1320	3.1320	-0.2190	8.97	2.98	-0.750			
0.7513	48081.07	3.1290	3.1290	-0.2158	8.98	2.99	-0.750			
0.7519	48122.42	3.1260	3.1260	-0.2128	8.99	3.00	-0.750			
0.7525	48162.54	3.1230	3.1229	-0.2113	9.00	3.01	-0.750			
0.7532	48202.44	3.1200	3.1200	-0.2094	9.00	3.01	-0.750			
0.7538	48242.32	3.1170	3.1170	-0.2075	9.01	3.02	-0.750			
0.7544	48282.18	3.1140	3.1139	-0.2077	9.02	3.03	-0.750			
0.7550	48322.75	3.1110	3.1111	-0.2054	9.03	3.04	-0.750			
0.7557	48362.35	3.1080	3.1080	-0.2034	9.04	3.05	-0.750			
0.7563	48400.87	3.1050	3.1052	-0.2021	9.05	3.06	-0.750			
0.7569	48439.45	3.1020	3.1020	-0.1998	9.06	3.07	-0.750			
0.7575	48476.88	3.0990	3.0989	-0.1985	9.06	3.07	-0.750			
0.7580	48514.76	3.0960	3.0959	-0.1970	9.07	3.08	-0.750			
0.7586	48552.90	3.0930	3.0930	-0.1952	9.08	3.09	-0.750			
0.7592	48590.38	3.0900	3.0901	-0.1931	9.09	3.10	-0.750			
0.7598	48627.99	3.0870	3.0870	-0.1918	9.10	3.11	-0.750			
0.7604	48664.48	3.0840	3.0841	-0.1900	9.10	3.11	-0.750			
0.7609	48699.95	3.0810	3.0810	-0.1875	9.11	3.12	-0.750			
0.7615	48735.36	3.0780	3.0780	-0.1868	9.12	3.13	-0.750			
0.7621	48771.28	3.0750	3.0750	-0.1874	9.13	3.14	-0.750			
