Ah_balance (normalized)	Ah_balance (mAh)	Voltage - fit (V)	Voltage -  interpolate (V)	dQ/dV (1/V)	Temperature (°C)	Temperature - diff (°C)	Current (C)	R_DC 0ms (mOhm)	R_DC 50ms (mOhm)	R_DC 50 ms PEC (mOhm)
0.0934	5979.62	4.1970	4.1994	0.7984	8.22	2.24	0.750			
0.0961	6150.09	4.1940	4.1957	0.8574	8.21	2.23	0.750			
0.0987	6315.53	4.1910	4.1920	0.8365	8.21	2.23	0.750			
0.1012	6476.16	4.1880	4.1885	0.7999	8.20	2.22	0.750			
0.1038	6646.13	4.1850	4.1845	0.8073	8.19	2.21	0.750			
0.1057	6765.29	4.1820	4.1821	0.6961	8.19	2.21	0.750			
0.1078	6897.74	4.1790	4.1791	0.7007	8.18	2.20	0.750			
0.1099	7031.59	4.1760	4.1759	0.7053	8.18	2.20	0.750			
0.1120	7168.44	4.1730	4.1729	0.7090	8.18	2.20	0.750			
0.1141	7304.27	4.1700	4.1701	0.7144	8.17	2.19	0.750			
0.1163	7442.99	4.1670	4.1670	0.7225	8.17	2.19	0.750			
0.1185	7582.76	4.1640	4.1640	0.7285	8.17	2.19	0.750			
0.1207	7723.20	4.1610	4.1611	0.7308	8.16	2.18	0.750			
0.1229	7864.18	4.1580	4.1580	0.7306	8.16	2.18	0.750			
0.1251	8006.34	4.1550	4.1550	0.7311	8.15	2.17	0.750			
0.1273	8147.67	4.1520	4.1520	0.7307	8.15	2.17	0.750			
0.1295	8286.07	4.1490	4.1491	0.7266	8.14	2.16	0.750			
0.1316	8424.59	4.1460	4.1459	0.7254	8.14	2.16	0.750			
0.1338	8561.46	4.1430	4.1430	0.7312	8.13	2.15	0.750			
0.1360	8701.73	4.1400	4.1400	0.7376	8.13	2.15	0.750			
0.1382	8843.96	4.1370	4.1370	0.7495	8.12	2.14	0.750			
0.1405	8991.01	4.1340	4.1339	0.7521	8.12	2.14	0.750			
0.1428	9137.66	4.1310	4.1312	0.7559	8.11	2.13	0.750			
0.1451	9283.52	4.1280	4.1281	0.7576	8.10	2.12	0.750			
0.1473	9427.96	4.1250	4.1248	0.7551	8.10	2.12	0.750			
0.1496	9571.43	4.1220	4.1220	0.7573	8.09	2.11	0.750			
0.1518	9716.02	4.1190	4.1190	0.7531	8.08	2.10	0.750			
0.1541	9861.86	4.1160	4.1160	0.7591	8.08	2.10	0.750			
0.1564	10008.71	4.1130	4.1130	0.7572	8.07	2.09	0.750			
0.1587	10154.85	4.1100	4.1101	0.7605	8.06	2.08	0.750			
0.1609	10299.71	4.1070	4.1071	0.7618	8.06	2.08	0.750			
0.1632	10447.51	4.1040	4.1040	0.7598	8.05	2.07	0.750			
0.1655	10592.03	4.1010	4.1009	0.7640	8.05	2.07	0.750			
0.1678	10739.64	4.0980	4.0981	0.7708	8.05	2.07	0.750			
0.1701	10885.85	4.0950	4.0952	0.7732	8.04	2.06	0.750			
0.1724	11035.49	4.0920	4.0917	0.7848	8.04	2.06	0.750			
0.1748	11186.33	4.0890	4.0889	0.7910	8.03	2.05	0.750			
0.1772	11338.12	4.0860	4.0860	0.7925	8.02	2.04	0.750			
0.1796	11492.08	4.0830	4.0830	0.8003	8.02	2.04	0.750			
0.1820	11645.92	4.0800	4.0802	0.8055	8.01	2.03	0.750			
0.1844	11802.00	4.0770	4.0768	0.8159	8.00	2.02	0.750			
0.1869	11958.89	4.0740	4.0740	0.8178	7.99	2.01	0.750			
0.1893	12116.79	4.0710	4.0710	0.8203	7.99	2.01	0.750			
0.1918	12275.28	4.0680	4.0681	0.8259	7.98	2.00	0.750			
0.1943	12434.85	4.0650	4.0651	0.8231	7.98	2.00	0.750			
0.1968	12594.04	4.0620	4.0618	0.8179	7.97	1.99	0.750			
0.1992	12750.11	4.0590	4.0591	0.8108	7.96	1.98	0.750			
0.2017	12905.74	4.0560	4.0561	0.8047	7.96	1.98	0.750			
0.2040	13058.67	4.0530	4.0530	0.8124	7.95	1.97	0.750			
0.2064	13210.57	4.0500	4.0500	0.8149	7.94	1.96	0.750			
0.2089	13368.53	4.0470	4.0469	0.8283	7.93	1.95	0.750			
0.2114	13528.90	4.0440	4.0441	0.8476	7.92	1.94	0.750			
0.2140	13695.41	4.0410	4.0409	0.8555	7.92	1.94	0.750			
0.2166	13862.24	4.0380	4.0381	0.8562	7.91	1.93	0.750			
0.2192	14028.23	4.0350	4.0350	0.8555	7.90	1.92	0.750			
0.2218	14192.63	4.0320	4.0320	0.8476	7.89	1.91	0.750			
0.2243	14353.33	4.0290	4.0289	0.8438	7.88	1.90	0.750			
0.2268	14514.50	4.0260	4.0261	0.8441	7.88	1.90	0.750			
0.2293	14673.28	4.0230	4.0230	0.8480	7.87	1.89	0.750			
0.2318	14837.63	4.0200	4.0200	0.8577	7.87	1.89	0.750			
0.2344	15003.93	4.0170	4.0168	0.8682	7.86	1.88	0.750			
0.2371	15172.61	4.0140	4.0140	0.8706	7.85	1.87	0.750			
0.2397	15341.37	4.0110	4.0111	0.8796	7.84	1.86	0.750			
0.2423	15509.41	4.0080	4.0081	0.8824	7.84	1.86	0.750			
0.2450	15679.00	4.0050	4.0050	0.8835	7.83	1.85	0.750			
0.2476	15849.35	4.0020	4.0020	0.8808	7.82	1.84	0.750			
0.2503	16021.53	3.9990	3.9990	0.8763	7.81	1.83	0.750			
0.2529	16187.10	3.9960	3.9962	0.8880	7.80	1.82	0.750			
0.2556	16357.97	3.9930	3.9930	0.8953	7.79	1.81	0.750			
0.2583	16528.31	3.9900	3.9900	0.8964	7.78	1.80	0.750			
0.2610	16702.22	3.9870	3.9870	0.9069	7.78	1.80	0.750			
0.2637	16878.50	3.9840	3.9841	0.9111	7.77	1.79	0.750			
0.2665	17055.34	3.9810	3.9810	0.9194	7.76	1.78	0.750			
0.2693	17233.48	3.9780	3.9780	0.9207	7.75	1.77	0.750			
0.2720	17406.10	3.9750	3.9748	0.9133	7.74	1.76	0.750			
0.2747	17583.31	3.9720	3.9721	0.9163	7.73	1.75	0.750			
0.2775	17759.10	3.9690	3.9690	0.9218	7.72	1.74	0.750			
0.2803	17936.40	3.9660	3.9660	0.9284	7.71	1.73	0.750			
0.2830	18113.45	3.9630	3.9630	0.9311	7.71	1.73	0.750			
0.2858	18292.47	3.9600	3.9601	0.9442	7.70	1.72	0.750			
0.2887	18476.47	3.9570	3.9570	0.9501	7.69	1.71	0.750			
0.2915	18657.46	3.9540	3.9541	0.9639	7.68	1.70	0.750			
0.2944	18843.87	3.9510	3.9511	0.9775	7.67	1.69	0.750			
0.2974	19032.80	3.9480	3.9478	0.9832	7.66	1.68	0.750			
0.3004	19223.42	3.9450	3.9451	0.9877	7.65	1.67	0.750			
0.3034	19415.43	3.9420	3.9421	0.9871	7.63	1.65	0.750			
0.3064	19606.95	3.9390	3.9391	0.9919	7.62	1.64	0.750			
0.3093	19795.87	3.9360	3.9358	0.9923	7.61	1.63	0.750			
0.3122	19983.92	3.9330	3.9329	0.9862	7.60	1.62	0.750			
0.3152	20173.86	3.9300	3.9300	1.0005	7.59	1.61	0.750			
0.3183	20368.23	3.9270	3.9270	1.0114	7.58	1.60	0.750			
0.3213	20561.86	3.9240	3.9239	1.0181	7.57	1.59	0.750			
0.3244	20761.18	3.9210	3.9210	1.0256	7.56	1.58	0.750			
0.3274	20955.59	3.9180	3.9181	1.0354	7.55	1.57	0.750			
0.3305	21154.77	3.9150	3.9150	1.0589	7.54	1.56	0.750			
0.3338	21360.44	3.9120	3.9119	1.0760	7.53	1.55	0.750			
0.3370	21567.77	3.9090	3.9089	1.0830	7.52	1.54	0.750			
0.3403	21777.53	3.9060	3.9062	1.0987	7.51	1.53	0.750			
0.3436	21990.74	3.9030	3.9031	1.1148	7.49	1.51	0.750			
0.3470	22209.03	3.9000	3.8998	1.1174	7.48	1.50	0.750			
0.3503	22418.75	3.8970	3.8969	1.1223	7.47	1.49	0.750			
0.3537	22634.65	3.8940	3.8942	1.1351	7.45	1.47	0.750			
0.3571	22854.43	3.8910	3.8910	1.1584	7.44	1.46	0.750			
0.3606	23077.82	3.8880	3.8881	1.1684	7.43	1.45	0.750			
0.3641	23305.08	3.8850	3.8849	1.1814	7.41	1.43	0.750			
0.3677	23531.92	3.8820	3.8821	1.1986	7.40	1.42	0.750			
0.3713	23765.88	3.8790	3.8790	1.2158	7.38	1.40	0.750			
0.3750	23999.50	3.8760	3.8761	1.2212	7.37	1.39	0.750			
0.3787	24234.21	3.8730	3.8729	1.2446	7.35	1.37	0.750			
0.3824	24475.61	3.8700	3.8702	1.2483	7.34	1.36	0.750			
0.3862	24716.76	3.8670	3.8669	1.2666	7.32	1.34	0.750			
0.3900	24959.13	3.8640	3.8640	1.2863	7.31	1.33	0.750			
0.3939	25207.43	3.8610	3.8612	1.2979	7.29	1.31	0.750			
0.3977	25455.18	3.8580	3.8575	1.3271	7.28	1.30	0.750	0.393	0.907	
0.4017	25711.61	3.8550	3.8552	1.3610	7.26	1.28	0.750			
0.4058	25972.27	3.8520	3.8521	1.3899	7.24	1.26	0.750			
0.4101	26245.62	3.8490	3.8490	1.4470	7.22	1.24	0.750			
0.4146	26535.28	3.8460	3.8460	1.4724	7.20	1.22	0.750			
0.4191	26822.48	3.8430	3.8430	1.4829	7.18	1.20	0.750			
0.4236	27109.73	3.8400	3.8402	1.4965	7.16	1.18	0.750			
0.4280	27392.65	3.8370	3.8372	1.5116	7.14	1.16	0.750			
0.4325	27681.24	3.8340	3.8339	1.5316	7.12	1.14	0.750			
0.4371	27975.23	3.8310	3.8308	1.5642	7.10	1.12	0.750			
0.4419	28278.48	3.8280	3.8280	1.5877	7.08	1.10	0.750			
0.4467	28588.69	3.8250	3.8250	1.6370	7.05	1.07	0.750			
0.4517	28909.83	3.8220	3.8220	1.6687	7.03	1.05	0.750			
0.4568	29234.41	3.8190	3.8190	1.6827	7.00	1.02	0.750			
0.4617	29550.80	3.8160	3.8159	1.7051	6.98	1.00	0.750			
0.4670	29885.10	3.8130	3.8132	1.7494	6.96	0.98	0.750			
0.4721	30215.19	3.8100	3.8098	1.7907	6.94	0.96	0.750			
0.4776	30568.07	3.8070	3.8069	1.8247	6.91	0.93	0.750			
0.4831	30918.14	3.8040	3.8041	1.8573	6.89	0.91	0.750			
0.4888	31283.25	3.8010	3.8011	1.9215	6.86	0.88	0.750			
0.4946	31657.07	3.7980	3.7977	1.9433	6.84	0.86	0.750			
0.5005	32033.22	3.7950	3.7951	1.9591	6.81	0.83	0.750			
0.5064	32406.73	3.7920	3.7923	2.0126	6.78	0.80	0.750			
0.5125	32802.15	3.7890	3.7891	2.0694	6.75	0.77	0.750			
0.5187	33197.29	3.7860	3.7858	2.0843	6.72	0.74	0.750			
0.5251	33608.63	3.7830	3.7834	2.0805	6.69	0.71	0.750			
0.5314	34007.68	3.7800	3.7803	2.1069	6.66	0.68	0.750			
0.5377	34414.51	3.7770	3.7773	2.1562	6.63	0.65	0.750			
0.5440	34817.62	3.7740	3.7738	2.2182	6.60	0.62	0.750			
0.5509	35259.02	3.7710	3.7712	2.2478	6.57	0.59	0.750			
0.5579	35704.25	3.7680	3.7680	2.2442	6.55	0.57	0.750			
0.5646	36135.54	3.7650	3.7650	2.2772	6.52	0.54	0.750			
0.5713	36562.09	3.7620	3.7619	2.3245	6.49	0.51	0.750			
0.5783	37013.89	3.7590	3.7592	2.4053	6.46	0.48	0.750			
0.5859	37495.36	3.7560	3.7561	2.5064	6.43	0.45	0.750			
0.5935	37985.82	3.7530	3.7529	2.5511	6.40	0.42	0.750			
0.6011	38472.85	3.7500	3.7500	2.6512	6.37	0.39	0.750			
0.6092	38989.37	3.7470	3.7469	2.7648	6.34	0.36	0.750			
0.6177	39532.00	3.7440	3.7441	2.9192	6.31	0.33	0.750			
0.6267	40109.20	3.7410	3.7410	3.0291	6.28	0.30	0.750			
0.6358	40694.18	3.7380	3.7381	3.1112	6.25	0.27	0.750			
0.6455	41311.99	3.7350	3.7350	3.1842	6.22	0.24	0.750			
0.6551	41925.02	3.7320	3.7321	3.1392	6.18	0.20	0.750			
0.6645	42526.52	3.7290	3.7290	3.0361	6.16	0.18	0.750			
0.6735	43102.56	3.7260	3.7260	2.8026	6.14	0.16	0.750			
0.6816	43622.18	3.7230	3.7231	2.5559	6.12	0.14	0.750			
0.6888	44082.67	3.7200	3.7198	2.2658	6.10	0.12	0.750			
0.6951	44484.53	3.7170	3.7171	1.9938	6.09	0.11	0.750			
0.7005	44834.54	3.7140	3.7141	1.7492	6.08	0.10	0.750			
0.7053	45138.18	3.7110	3.7111	1.5758	6.07	0.09	0.750			
0.7096	45412.34	3.7080	3.7077	1.4179	6.06	0.08	0.750			
0.7133	45654.23	3.7050	3.7050	1.2910	6.05	0.07	0.750			
0.7171	45896.26	3.7020	3.7020	1.2267	6.05	0.07	0.750			
0.7207	46122.86	3.6990	3.6991	1.1777	6.04	0.06	0.750			
0.7241	46341.79	3.6960	3.6958	1.1249	6.04	0.06	0.750			
0.7273	46546.61	3.6930	3.6930	1.0941	6.03	0.05	0.750			
0.7305	46752.46	3.6900	3.6900	1.0716	6.03	0.05	0.750			
0.7337	46956.50	3.6870	3.6869	1.0584	6.02	0.04	0.750			
0.7369	47158.66	3.6840	3.6840	1.0391	6.02	0.04	0.750			
0.7400	47359.01	3.6810	3.6810	1.0174	6.02	0.04	0.750			
0.7430	47552.07	3.6780	3.6780	0.9943	6.01	0.03	0.750			
0.7460	47741.08	3.6750	3.6750	0.9646	6.01	0.03	0.750			
0.7488	47923.49	3.6720	3.6720	0.9403	6.01	0.03	0.750			
0.7515	48098.99	3.6690	3.6690	0.9245	6.01	0.03	0.750			
0.7543	48272.81	3.6660	3.6660	0.9136	6.00	0.02	0.750			
0.7570	48445.80	3.6630	3.6630	0.9099	6.00	0.02	0.750			
0.7597	48620.01	3.6600	3.6599	0.9077	6.00	0.02	0.750			
0.7624	48795.77	3.6570	3.6571	0.8996	6.00	0.02	0.750			
0.7651	48969.35	3.6540	3.6539	0.8971	5.99	0.01	0.750			
0.7678	49140.41	3.6510	3.6511	0.8967	5.99	0.01	0.750			
0.7704	49307.68	3.6480	3.6482	0.9007	5.98	0.00	0.750			
0.7731	49481.31	3.6450	3.6449	0.9136	5.98	0.00	0.750			
0.7759	49658.42	3.6420	3.6420	0.9265	5.98	0.00	0.750			
0.7787	49839.24	3.6390	3.6391	0.9315	5.98	0.00	0.750			
0.7817	50026.21	3.6360	3.6359	0.9000	5.98	0.00	0.750			
0.7845	50205.35	3.6330	3.6330	0.8555	5.98	0.00	0.750			
0.7871	50372.65	3.6300	3.6301	0.7826	5.98	0.00	0.750			
0.7893	50517.64	3.6270	3.6271	0.6895	5.98	0.00	0.750			
0.7913	50643.09	3.6240	3.6239	0.5895	5.98	0.00	0.750			
0.7929	50743.55	3.6210	3.6211	0.4854	5.98	0.00	0.750			
0.7940	50815.30	3.6180	3.6183	0.4046	5.98	0.00	0.750			
0.7951	50884.95	3.6150	3.6150	0.3303	5.98	0.00	0.750			
0.7959	50936.73	3.6120	3.6118	0.2503	5.98	0.00	0.750			
0.7965	50974.95	3.6090	3.6084	0.1859	5.98	0.00	0.750			
0.7969	51000.66	3.6060	3.6033	0.1282	5.98	0.00	0.750			
0.7970	51009.61	3.5910	3.5905	-0.0913	5.98	0.00	0.750			
0.7972	51018.98	3.6030	3.5123	0.0799	5.98	0.00	0.754			
0.7972	51023.11	3.5940	3.4771	-0.0492	5.98	0.00	0.756			
0.7973	51025.85	3.6000	3.4536	0.0349	5.98	0.00	0.757			
0.7973	51028.52	3.5970	3.4309	-0.0072	5.98	0.00	0.758			
