Ah_balance (normalized)	Ah_balance (mAh)	Voltage - fit (V)	Voltage -  interpolate (V)	dQ/dV (1/V)	Temperature (°C)	Temperature - diff (°C)	Current (C)	R_DC 0ms (mOhm)	R_DC 50ms (mOhm)	R_DC 50 ms PEC (mOhm)
0.0003	18.56	4.1100	4.1094	-0.0787	5.97	-0.01	-0.750			
0.0006	36.52	4.1070	4.1067	-0.1084	5.97	-0.01	-0.750			
0.0010	61.12	4.1040	4.1039	-0.1365	5.97	-0.01	-0.750			
0.0014	90.27	4.1010	4.1010	-0.1619	5.97	-0.01	-0.750			
0.0019	124.10	4.0980	4.0980	-0.1859	5.97	-0.01	-0.750			
0.0025	162.19	4.0950	4.0952	-0.2097	5.97	-0.01	-0.750			
0.0032	206.46	4.0920	4.0919	-0.2312	5.97	-0.01	-0.750			
0.0039	252.48	4.0890	4.0891	-0.2530	5.97	-0.01	-0.750			
0.0047	302.72	4.0860	4.0860	-0.2746	5.97	-0.01	-0.750			
0.0056	357.52	4.0830	4.0830	-0.2970	5.97	-0.01	-0.750			
0.0065	416.52	4.0800	4.0799	-0.3195	5.98	-0.00	-0.750			
0.0075	478.74	4.0770	4.0771	-0.3478	5.98	-0.00	-0.750			
0.0086	548.52	4.0740	4.0740	-0.3727	5.98	-0.00	-0.750			
0.0097	623.38	4.0710	4.0709	-0.3994	5.98	-0.00	-0.750			
0.0110	702.54	4.0680	4.0680	-0.4225	5.98	-0.00	-0.750			
0.0123	786.53	4.0650	4.0651	-0.4467	5.98	0.00	-0.750			
0.0137	874.85	4.0620	4.0620	-0.4681	5.98	0.00	-0.750			
0.0151	967.12	4.0590	4.0590	-0.4862	5.98	0.00	-0.750			
0.0166	1060.90	4.0560	4.0561	-0.5074	5.98	0.00	-0.750			
0.0181	1161.32	4.0530	4.0530	-0.5316	5.99	0.01	-0.750			
0.0198	1265.69	4.0500	4.0500	-0.5518	5.99	0.01	-0.750			
0.0215	1374.00	4.0470	4.0470	-0.5712	5.99	0.01	-0.750			
0.0232	1486.52	4.0440	4.0439	-0.5906	5.99	0.01	-0.750			
0.0250	1602.28	4.0410	4.0411	-0.6068	5.99	0.01	-0.750			
0.0269	1720.09	4.0380	4.0380	-0.6254	6.00	0.02	-0.750			
0.0287	1839.47	4.0350	4.0351	-0.6428	6.00	0.02	-0.750			
0.0307	1966.65	4.0320	4.0319	-0.6638	6.01	0.03	-0.750			
0.0328	2097.73	4.0290	4.0289	-0.6752	6.01	0.03	-0.750			
0.0349	2231.28	4.0260	4.0259	-0.6843	6.02	0.04	-0.750			
0.0369	2362.70	4.0230	4.0235	-0.6926	6.02	0.04	-0.750			
0.0390	2497.55	4.0200	4.0199	-0.6970	6.03	0.05	-0.750			
0.0411	2629.28	4.0170	4.0170	-0.6995	6.03	0.05	-0.750			
0.0431	2761.55	4.0140	4.0140	-0.7019	6.04	0.06	-0.750			
0.0453	2900.07	4.0110	4.0111	-0.7176	6.04	0.06	-0.750			
0.0475	3037.28	4.0080	4.0079	-0.7238	6.05	0.07	-0.750			
0.0497	3178.41	4.0050	4.0053	-0.7272	6.05	0.07	-0.750			
0.0518	3317.57	4.0020	4.0019	-0.7283	6.06	0.08	-0.750			
0.0540	3457.75	3.9990	3.9991	-0.7423	6.06	0.08	-0.750			
0.0563	3602.09	3.9960	3.9960	-0.7416	6.07	0.09	-0.750			
0.0585	3743.92	3.9930	3.9928	-0.7492	6.07	0.09	-0.750			
0.0608	3888.17	3.9900	3.9901	-0.7513	6.08	0.10	-0.750			
0.0630	4032.09	3.9870	3.9869	-0.7544	6.08	0.10	-0.750			
0.0653	4178.60	3.9840	3.9840	-0.7546	6.09	0.11	-0.750			
0.0675	4323.03	3.9810	3.9810	-0.7529	6.10	0.12	-0.750			
0.0698	4465.60	3.9780	3.9781	-0.7569	6.11	0.13	-0.750			
0.0721	4613.35	3.9750	3.9748	-0.7623	6.11	0.13	-0.750			
0.0743	4757.97	3.9720	3.9719	-0.7588	6.12	0.14	-0.750			
0.0766	4904.57	3.9690	3.9691	-0.7679	6.13	0.15	-0.750			
0.0789	5052.62	3.9660	3.9661	-0.7724	6.13	0.15	-0.750			
0.0813	5202.21	3.9630	3.9629	-0.7785	6.14	0.16	-0.750			
0.0836	5351.71	3.9600	3.9599	-0.7780	6.15	0.17	-0.750			
0.0860	5501.11	3.9570	3.9570	-0.7735	6.16	0.18	-0.750			
0.0883	5651.16	3.9540	3.9541	-0.7717	6.16	0.18	-0.750			
0.0906	5798.67	3.9510	3.9510	-0.7767	6.17	0.19	-0.750			
0.0929	5945.68	3.9480	3.9480	-0.7797	6.18	0.20	-0.750			
0.0952	6095.49	3.9450	3.9449	-0.7783	6.19	0.21	-0.750			
0.0976	6245.81	3.9420	3.9420	-0.7751	6.19	0.21	-0.750			
0.0999	6395.80	3.9390	3.9392	-0.7840	6.20	0.22	-0.750			
0.1023	6547.37	3.9360	3.9360	-0.7822	6.21	0.23	-0.750			
0.1046	6696.87	3.9330	3.9328	-0.7857	6.22	0.24	-0.750			
0.1070	6846.57	3.9300	3.9301	-0.7831	6.22	0.24	-0.750			
0.1093	6997.38	3.9270	3.9270	-0.7826	6.23	0.25	-0.750			
0.1117	7148.87	3.9240	3.9240	-0.7894	6.24	0.26	-0.750			
0.1141	7299.52	3.9210	3.9210	-0.7991	6.25	0.27	-0.750			
0.1164	7451.48	3.9180	3.9180	-0.8091	6.26	0.28	-0.750			
0.1189	7609.77	3.9150	3.9149	-0.8176	6.27	0.29	-0.750			
0.1214	7769.68	3.9120	3.9119	-0.8156	6.28	0.30	-0.750			
0.1239	7927.38	3.9090	3.9093	-0.8167	6.29	0.31	-0.750			
0.1263	8084.21	3.9060	3.9060	-0.8122	6.30	0.32	-0.750			
0.1287	8236.95	3.9030	3.9028	-0.8165	6.30	0.32	-0.750			
0.1311	8392.69	3.9000	3.9000	-0.8194	6.31	0.33	-0.750			
0.1336	8549.12	3.8970	3.8969	-0.8181	6.32	0.34	-0.750			
0.1361	8712.09	3.8940	3.8941	-0.8266	6.33	0.35	-0.750			
0.1386	8870.88	3.8910	3.8910	-0.8302	6.34	0.36	-0.750			
0.1411	9029.48	3.8880	3.8880	-0.8299	6.35	0.37	-0.750			
0.1436	9189.65	3.8850	3.8848	-0.8275	6.36	0.38	-0.750			
0.1460	9345.69	3.8820	3.8819	-0.8205	6.37	0.39	-0.750			
0.1485	9505.96	3.8790	3.8792	-0.8271	6.38	0.40	-0.750			
0.1510	9664.89	3.8760	3.8759	-0.8257	6.39	0.41	-0.750			
0.1535	9822.80	3.8730	3.8730	-0.8306	6.40	0.42	-0.750			
0.1560	9981.07	3.8700	3.8700	-0.8302	6.41	0.43	-0.750			
0.1585	10141.47	3.8670	3.8669	-0.8269	6.42	0.44	-0.750			
0.1610	10302.39	3.8640	3.8640	-0.8362	6.43	0.45	-0.750			
0.1635	10461.80	3.8610	3.8610	-0.8385	6.44	0.46	-0.750			
0.1660	10622.95	3.8580	3.8580	-0.8412	6.45	0.47	-0.750			
0.1685	10785.06	3.8550	3.8548	-0.8439	6.46	0.48	-0.750			
0.1710	10944.77	3.8520	3.8521	-0.8443	6.47	0.49	-0.750			
0.1736	11109.53	3.8490	3.8491	-0.8561	6.48	0.50	-0.750			
0.1762	11274.70	3.8460	3.8460	-0.8585	6.49	0.51	-0.750			
0.1787	11438.71	3.8430	3.8429	-0.8574	6.49	0.51	-0.750			
0.1813	11605.00	3.8400	3.8401	-0.8608	6.50	0.52	-0.750			
0.1839	11770.70	3.8370	3.8369	-0.8598	6.51	0.53	-0.750			
0.1865	11937.18	3.8340	3.8341	-0.8598	6.52	0.54	-0.750			
0.1891	12100.49	3.8310	3.8310	-0.8612	6.53	0.55	-0.750			
0.1916	12264.61	3.8280	3.8280	-0.8669	6.54	0.56	-0.750			
0.1943	12433.44	3.8250	3.8249	-0.8710	6.55	0.57	-0.750			
0.1969	12600.06	3.8220	3.8219	-0.8656	6.56	0.58	-0.750			
0.1995	12769.34	3.8190	3.8192	-0.8673	6.57	0.59	-0.750			
0.2021	12935.61	3.8160	3.8160	-0.8643	6.58	0.60	-0.750			
0.2047	13100.85	3.8130	3.8130	-0.8647	6.59	0.61	-0.750			
0.2073	13264.51	3.8100	3.8100	-0.8686	6.60	0.62	-0.750			
0.2099	13430.83	3.8070	3.8069	-0.8718	6.60	0.62	-0.750			
0.2125	13599.09	3.8040	3.8041	-0.8770	6.61	0.63	-0.750			
0.2151	13768.96	3.8010	3.8011	-0.8885	6.62	0.64	-0.750			
0.2178	13940.08	3.7980	3.7979	-0.8865	6.63	0.65	-0.750			
0.2205	14109.57	3.7950	3.7950	-0.8878	6.64	0.66	-0.750			
0.2231	14281.49	3.7920	3.7920	-0.8882	6.66	0.68	-0.750			
0.2258	14450.89	3.7890	3.7889	-0.8884	6.66	0.68	-0.750			
0.2285	14622.45	3.7860	3.7860	-0.8938	6.67	0.69	-0.750			
0.2311	14793.58	3.7830	3.7830	-0.8944	6.68	0.70	-0.750			
0.2338	14964.34	3.7800	3.7800	-0.8916	6.69	0.71	-0.750			
0.2365	15137.42	3.7770	3.7770	-0.8969	6.70	0.72	-0.750			
0.2392	15308.34	3.7740	3.7741	-0.8949	6.71	0.73	-0.750			
0.2419	15481.47	3.7710	3.7708	-0.8938	6.72	0.74	-0.750			
0.2446	15652.58	3.7680	3.7681	-0.8876	6.73	0.75	-0.750			
0.2472	15822.19	3.7650	3.7650	-0.8873	6.74	0.76	-0.750			
0.2499	15991.84	3.7620	3.7621	-0.8902	6.75	0.77	-0.750			
0.2525	16161.58	3.7590	3.7588	-0.9017	6.76	0.78	-0.750			
0.2552	16333.26	3.7560	3.7560	-0.9061	6.77	0.79	-0.750			
0.2580	16510.52	3.7530	3.7530	-0.9093	6.78	0.80	-0.750			
0.2608	16688.15	3.7500	3.7500	-0.9127	6.79	0.81	-0.750			
0.2635	16864.04	3.7470	3.7471	-0.9118	6.80	0.82	-0.750			
0.2662	17035.85	3.7440	3.7440	-0.9164	6.80	0.82	-0.750			
0.2689	17211.18	3.7410	3.7409	-0.9220	6.81	0.83	-0.750			
0.2717	17385.63	3.7380	3.7380	-0.9245	6.82	0.84	-0.750			
0.2745	17567.91	3.7350	3.7350	-0.9352	6.83	0.85	-0.750			
0.2774	17750.52	3.7320	3.7320	-0.9448	6.84	0.86	-0.750			
0.2802	17933.69	3.7290	3.7290	-0.9369	6.85	0.87	-0.750			
0.2830	18113.83	3.7260	3.7259	-0.9323	6.86	0.88	-0.750			
0.2858	18289.37	3.7230	3.7230	-0.9301	6.87	0.89	-0.750			
0.2885	18466.58	3.7200	3.7199	-0.9391	6.88	0.90	-0.750			
0.2913	18644.15	3.7170	3.7169	-0.9483	6.89	0.91	-0.750			
0.2942	18829.02	3.7140	3.7139	-0.9557	6.90	0.92	-0.750			
0.2971	19012.55	3.7110	3.7111	-0.9616	6.91	0.93	-0.750			
0.3001	19204.39	3.7080	3.7081	-0.9772	6.92	0.94	-0.750			
0.3030	19391.73	3.7050	3.7049	-0.9763	6.93	0.95	-0.750			
0.3059	19578.46	3.7020	3.7020	-0.9702	6.94	0.96	-0.750			
0.3088	19764.60	3.6990	3.6989	-0.9714	6.94	0.96	-0.750			
0.3117	19950.14	3.6960	3.6962	-0.9734	6.95	0.97	-0.750			
0.3147	20138.22	3.6930	3.6930	-0.9829	6.96	0.98	-0.750			
0.3176	20325.29	3.6900	3.6899	-0.9876	6.96	0.98	-0.750			
0.3206	20515.27	3.6870	3.6870	-0.9946	6.97	0.99	-0.750			
0.3236	20708.44	3.6840	3.6840	-1.0063	6.98	1.00	-0.750			
0.3266	20901.55	3.6810	3.6810	-1.0141	6.99	1.01	-0.750			
0.3297	21098.50	3.6780	3.6781	-1.0181	7.00	1.02	-0.750			
0.3327	21292.37	3.6750	3.6749	-1.0327	7.01	1.03	-0.750			
0.3358	21490.73	3.6720	3.6720	-1.0366	7.02	1.04	-0.750			
0.3389	21689.79	3.6690	3.6691	-1.0486	7.02	1.04	-0.750			
0.3421	21894.04	3.6660	3.6660	-1.0577	7.03	1.05	-0.750			
0.3453	22099.44	3.6630	3.6629	-1.0669	7.04	1.06	-0.750			
0.3485	22304.16	3.6600	3.6600	-1.0735	7.05	1.07	-0.750			
0.3517	22511.04	3.6570	3.6571	-1.0799	7.06	1.08	-0.750			
0.3549	22716.74	3.6540	3.6539	-1.0846	7.07	1.09	-0.750			
0.3582	22927.43	3.6510	3.6510	-1.1037	7.08	1.10	-0.750			
0.3615	23138.00	3.6480	3.6480	-1.1158	7.09	1.11	-0.750			
0.3650	23358.64	3.6450	3.6449	-1.1353	7.10	1.12	-0.750			
0.3684	23578.17	3.6420	3.6419	-1.1422	7.11	1.13	-0.750			
0.3718	23798.00	3.6390	3.6390	-1.1549	7.11	1.13	-0.750			
0.3753	24021.25	3.6360	3.6360	-1.1694	7.12	1.14	-0.750			
0.3788	24246.14	3.6330	3.6329	-1.1782	7.13	1.15	-0.750			
0.3824	24472.29	3.6300	3.6300	-1.1886	7.14	1.16	-0.750			
0.3859	24698.83	3.6270	3.6271	-1.2002	7.15	1.17	-0.750			
0.3896	24937.13	3.6240	3.6239	-1.2206	7.16	1.18	-0.750			
0.3933	25171.34	3.6210	3.6210	-1.2245	7.17	1.19	-0.750			
0.3969	25403.52	3.6180	3.6180	-1.2386	7.17	1.19	-0.750			
0.4006	25640.46	3.6150	3.6151	-1.2542	7.18	1.20	-0.750			
0.4044	25883.85	3.6120	3.6119	-1.2796	7.19	1.21	-0.750			
0.4083	26132.42	3.6090	3.6090	-1.2988	7.20	1.22	-0.750			
0.4122	26383.97	3.6060	3.6065	-1.3209	7.21	1.23	-0.750	0.433	1.014	
0.4163	26642.48	3.6030	3.6031	-1.3386	7.22	1.24	-0.750			
0.4203	26901.84	3.6000	3.6000	-1.3532	7.22	1.24	-0.750			
0.4244	27162.44	3.5970	3.5970	-1.3703	7.23	1.25	-0.750			
0.4286	27428.58	3.5940	3.5939	-1.3785	7.24	1.26	-0.750			
0.4327	27694.79	3.5910	3.5910	-1.3830	7.24	1.26	-0.750			
0.4369	27964.17	3.5880	3.5884	-1.3993	7.25	1.27	-0.750			
0.4411	28233.39	3.5850	3.5850	-1.4044	7.26	1.28	-0.750			
0.4454	28504.11	3.5820	3.5819	-1.4105	7.27	1.29	-0.750			
0.4495	28768.92	3.5790	3.5793	-1.4268	7.28	1.30	-0.750			
0.4538	29045.02	3.5760	3.5760	-1.4598	7.29	1.31	-0.750			
0.4582	29327.22	3.5730	3.5728	-1.4780	7.29	1.31	-0.750			
0.4628	29616.60	3.5700	3.5701	-1.4904	7.30	1.32	-0.750			
0.4673	29904.96	3.5670	3.5669	-1.5196	7.31	1.33	-0.750			
0.4718	30197.72	3.5640	3.5641	-1.5435	7.32	1.34	-0.750			
0.4765	30498.79	3.5610	3.5609	-1.5508	7.33	1.35	-0.750			
0.4812	30797.24	3.5580	3.5579	-1.5697	7.34	1.36	-0.750			
0.4859	31099.66	3.5550	3.5550	-1.5841	7.34	1.36	-0.750			
0.4908	31409.62	3.5520	3.5518	-1.6087	7.35	1.37	-0.750			
0.4956	31721.44	3.5490	3.5491	-1.6294	7.36	1.38	-0.750			
0.5005	32033.49	3.5460	3.5460	-1.6302	7.37	1.39	-0.750			
0.5054	32345.76	3.5430	3.5434	-1.6577	7.38	1.40	-0.750			
0.5105	32672.45	3.5400	3.5397	-1.6716	7.39	1.41	-0.750			
0.5155	32991.34	3.5370	3.5370	-1.6859	7.40	1.42	-0.750			
0.5206	33317.53	3.5340	3.5341	-1.7060	7.40	1.42	-0.750			
0.5258	33652.89	3.5310	3.5310	-1.7112	7.41	1.43	-0.750			
0.5309	33978.74	3.5280	3.5281	-1.7030	7.42	1.44	-0.750			
0.5361	34311.62	3.5250	3.5253	-1.7200	7.43	1.45	-0.750			
0.5412	34637.66	3.5220	3.5219	-1.7192	7.44	1.46	-0.750			
0.5464	34967.49	3.5190	3.5192	-1.7256	7.45	1.47	-0.750			
0.5515	35295.03	3.5160	3.5162	-1.7443	7.46	1.48	-0.750			
0.5568	35632.29	3.5130	3.5130	-1.7537	7.47	1.49	-0.750			
0.5621	35976.97	3.5100	3.5101	-1.7793	7.48	1.50	-0.750			
0.5675	36322.57	3.5070	3.5070	-1.7599	7.49	1.51	-0.750			
0.5728	36656.86	3.5040	3.5041	-1.7670	7.50	1.52	-0.750			
0.5782	37002.85	3.5010	3.5010	-1.7508	7.51	1.53	-0.750			
0.5834	37336.91	3.4980	3.4976	-1.7296	7.52	1.54	-0.750			
0.5885	37665.94	3.4950	3.4950	-1.7000	7.53	1.55	-0.750			
0.5936	37990.94	3.4920	3.4922	-1.6924	7.55	1.57	-0.750			
0.5986	38312.69	3.4890	3.4890	-1.6801	7.56	1.58	-0.750			
0.6036	38628.02	3.4860	3.4860	-1.6654	7.57	1.59	-0.750			
0.6086	38950.16	3.4830	3.4830	-1.6554	7.57	1.59	-0.750			
0.6137	39278.38	3.4800	3.4800	-1.6658	7.58	1.60	-0.750			
0.6187	39595.00	3.4770	3.4771	-1.6613	7.60	1.62	-0.750			
0.6237	39915.92	3.4740	3.4740	-1.6591	7.61	1.63	-0.750			
0.6286	40233.02	3.4710	3.4709	-1.6371	7.62	1.64	-0.750			
0.6336	40549.80	3.4680	3.4678	-1.6099	7.63	1.65	-0.750			
0.6384	40854.94	3.4650	3.4652	-1.5867	7.64	1.66	-0.750			
0.6431	41160.18	3.4620	3.4619	-1.5604	7.66	1.68	-0.750			
0.6477	41455.71	3.4590	3.4589	-1.5357	7.67	1.69	-0.750			
0.6522	41743.51	3.4560	3.4558	-1.5085	7.69	1.71	-0.750			
0.6567	42031.84	3.4530	3.4531	-1.4826	7.70	1.72	-0.750			
0.6612	42316.12	3.4500	3.4500	-1.4850	7.72	1.74	-0.750			
0.6657	42603.21	3.4470	3.4470	-1.4579	7.73	1.75	-0.750			
0.6701	42884.37	3.4440	3.4440	-1.4259	7.75	1.77	-0.750			
0.6744	43159.44	3.4410	3.4409	-1.3940	7.76	1.78	-0.750			
0.6785	43423.44	3.4380	3.4383	-1.3486	7.77	1.79	-0.750			
0.6825	43678.31	3.4350	3.4349	-1.3239	7.78	1.80	-0.750			
0.6864	43927.66	3.4320	3.4321	-1.2985	7.79	1.81	-0.750			
0.6901	44166.94	3.4290	3.4289	-1.2487	7.80	1.82	-0.750			
0.6939	44411.62	3.4260	3.4261	-1.2355	7.81	1.83	-0.750			
0.6977	44649.67	3.4230	3.4230	-1.2069	7.82	1.84	-0.750			
0.7012	44877.16	3.4200	3.4199	-1.1702	7.84	1.86	-0.750			
0.7047	45100.55	3.4170	3.4170	-1.1351	7.85	1.87	-0.750			
0.7080	45310.63	3.4140	3.4140	-1.1023	7.86	1.88	-0.750			
0.7112	45518.44	3.4110	3.4110	-1.0736	7.88	1.90	-0.750			
0.7144	45724.31	3.4080	3.4079	-1.0472	7.89	1.91	-0.750			
0.7175	45922.44	3.4050	3.4050	-1.0182	7.91	1.93	-0.750			
0.7206	46115.29	3.4020	3.4021	-0.9872	7.92	1.94	-0.750			
0.7235	46301.42	3.3990	3.3989	-0.9622	7.94	1.96	-0.750			
0.7263	46484.14	3.3960	3.3960	-0.9318	7.95	1.97	-0.750			
0.7291	46659.64	3.3930	3.3930	-0.9000	7.96	1.98	-0.750			
0.7317	46831.46	3.3900	3.3899	-0.8669	7.97	1.99	-0.750			
0.7343	46994.03	3.3870	3.3871	-0.8309	7.98	2.00	-0.750			
0.7367	47150.55	3.3840	3.3841	-0.7979	7.99	2.01	-0.750			
0.7390	47299.13	3.3810	3.3809	-0.7664	8.00	2.02	-0.750			
0.7412	47439.67	3.3780	3.3780	-0.7383	8.01	2.03	-0.750			
0.7434	47580.66	3.3750	3.3750	-0.7213	8.03	2.05	-0.750			
0.7456	47716.62	3.3720	3.3719	-0.7021	8.04	2.06	-0.750			
0.7477	47851.43	3.3690	3.3690	-0.6825	8.05	2.07	-0.750			
0.7497	47980.68	3.3660	3.3661	-0.6598	8.06	2.08	-0.750			
0.7517	48106.64	3.3630	3.3629	-0.6349	8.07	2.09	-0.750			
0.7535	48225.66	3.3600	3.3601	-0.6066	8.08	2.10	-0.750			
0.7553	48337.46	3.3570	3.3570	-0.5798	8.09	2.11	-0.750			
0.7570	48446.57	3.3540	3.3540	-0.5629	8.10	2.12	-0.750			
0.7586	48551.29	3.3510	3.3509	-0.5415	8.11	2.13	-0.750			
0.7602	48652.50	3.3480	3.3479	-0.5264	8.12	2.14	-0.750			
0.7617	48751.33	3.3450	3.3452	-0.5131	8.13	2.15	-0.750			
0.7633	48849.47	3.3420	3.3418	-0.5007	8.14	2.16	-0.750			
0.7648	48944.22	3.3390	3.3390	-0.4868	8.15	2.17	-0.750			
0.7662	49035.79	3.3360	3.3361	-0.4727	8.16	2.18	-0.750			
0.7676	49126.16	3.3330	3.3329	-0.4636	8.17	2.19	-0.750			
0.7690	49213.97	3.3300	3.3300	-0.4497	8.18	2.20	-0.750			
0.7703	49298.35	3.3270	3.3271	-0.4335	8.18	2.20	-0.750			
0.7716	49380.59	3.3240	3.3240	-0.4200	8.19	2.21	-0.750			
0.7728	49460.21	3.3210	3.3209	-0.4064	8.20	2.22	-0.750			
0.7740	49536.67	3.3180	3.3181	-0.3903	8.21	2.23	-0.750			
0.7751	49609.48	3.3150	3.3149	-0.3783	8.22	2.24	-0.750			
0.7763	49680.53	3.3120	3.3120	-0.3657	8.23	2.25	-0.750			
0.7773	49749.49	3.3090	3.3090	-0.3576	8.24	2.26	-0.750			
0.7784	49816.70	3.3060	3.3060	-0.3469	8.25	2.27	-0.750			
0.7794	49882.87	3.3030	3.3029	-0.3386	8.25	2.27	-0.750			
0.7804	49946.87	3.3000	3.3001	-0.3308	8.26	2.28	-0.750			
0.7814	50009.92	3.2970	3.2970	-0.3234	8.27	2.29	-0.750			
0.7823	50070.31	3.2940	3.2940	-0.3149	8.28	2.30	-0.750			
0.7833	50130.20	3.2910	3.2909	-0.3081	8.29	2.31	-0.750			
0.7842	50188.53	3.2880	3.2881	-0.3005	8.30	2.32	-0.750			
0.7851	50246.72	3.2850	3.2848	-0.2943	8.30	2.32	-0.750			
0.7860	50302.09	3.2820	3.2820	-0.2848	8.31	2.33	-0.750			
0.7868	50355.33	3.2790	3.2791	-0.2770	8.32	2.34	-0.750			
0.7876	50407.64	3.2760	3.2760	-0.2710	8.33	2.35	-0.750			
0.7884	50458.62	3.2730	3.2729	-0.2635	8.33	2.35	-0.750			
0.7892	50508.98	3.2700	3.2699	-0.2585	8.34	2.36	-0.750			
0.7900	50558.36	3.2670	3.2671	-0.2522	8.35	2.37	-0.750			
0.7907	50606.75	3.2640	3.2641	-0.2479	8.36	2.38	-0.750			
0.7915	50653.65	3.2610	3.2610	-0.2420	8.36	2.38	-0.750			
0.7922	50699.30	3.2580	3.2580	-0.2353	8.37	2.39	-0.750			
0.7929	50743.24	3.2550	3.2549	-0.2300	8.37	2.39	-0.750			
0.7935	50786.82	3.2520	3.2521	-0.2259	8.38	2.40	-0.750			
0.7942	50829.84	3.2490	3.2490	-0.2224	8.39	2.41	-0.750			
0.7949	50872.20	3.2460	3.2460	-0.2188	8.39	2.41	-0.750			
0.7955	50914.09	3.2430	3.2430	-0.2154	8.40	2.42	-0.750			
0.7962	50955.09	3.2400	3.2400	-0.2101	8.40	2.42	-0.750			
0.7968	50995.15	3.2370	3.2370	-0.2066	8.41	2.43	-0.750			
0.7974	51034.38	3.2340	3.2340	-0.2021	8.42	2.44	-0.750			
0.7980	51072.71	3.2310	3.2310	-0.1978	8.42	2.44	-0.750			
0.7986	51110.04	3.2280	3.2279	-0.1939	8.43	2.45	-0.750			
0.7992	51146.65	3.2250	3.2250	-0.1899	8.42	2.44	-0.750			
0.7997	51182.81	3.2220	3.2219	-0.1868	8.42	2.44	-0.750			
0.8003	51218.35	3.2190	3.2190	-0.1827	8.43	2.45	-0.750			
0.8008	51253.12	3.2160	3.2161	-0.1806	8.44	2.46	-0.750			
0.8014	51287.17	3.2130	3.2130	-0.1771	8.44	2.46	-0.750			
0.8019	51320.96	3.2100	3.2101	-0.1748	8.45	2.47	-0.750			
0.8024	51354.58	3.2070	3.2069	-0.1711	8.46	2.48	-0.750			
0.8029	51387.00	3.2040	3.2041	-0.1680	8.46	2.48	-0.750			
0.8034	51419.12	3.2010	3.2011	-0.1652	8.47	2.49	-0.750			
0.8039	51450.46	3.1980	3.1981	-0.1621	8.47	2.49	-0.750			
0.8044	51481.27	3.1950	3.1949	-0.1600	8.48	2.50	-0.750			
0.8049	51511.28	3.1920	3.1920	-0.1564	8.48	2.50	-0.750			
0.8053	51541.04	3.1890	3.1890	-0.1544	8.49	2.51	-0.750			
0.8058	51570.64	3.1860	3.1860	-0.1519	8.50	2.52	-0.750			
0.8063	51600.04	3.1830	3.1830	-0.1498	8.50	2.52	-0.750			
0.8067	51628.26	3.1800	3.1801	-0.1470	8.51	2.53	-0.750			
0.8071	51656.24	3.1770	3.1770	-0.1445	8.51	2.53	-0.750			
0.8076	51683.76	3.1740	3.1740	-0.1419	8.52	2.54	-0.750			
0.8080	51710.34	3.1710	3.1710	-0.1401	8.52	2.54	-0.750			
0.8084	51737.01	3.1680	3.1679	-0.1387	8.53	2.55	-0.750			
0.8088	51763.53	3.1650	3.1651	-0.1375	8.53	2.55	-0.750			
0.8092	51789.95	3.1620	3.1619	-0.1353	8.53	2.55	-0.750			
0.8096	51815.88	3.1590	3.1590	-0.1335	8.54	2.56	-0.750			
0.8100	51841.38	3.1560	3.1561	-0.1315	8.54	2.56	-0.750			
0.8104	51866.26	3.1530	3.1531	-0.1300	8.55	2.57	-0.750			
0.8108	51891.18	3.1500	3.1498	-0.1283	8.55	2.57	-0.750			
0.8112	51915.31	3.1470	3.1469	-0.1261	8.55	2.57	-0.750			
0.8116	51939.26	3.1440	3.1440	-0.1246	8.56	2.58	-0.750			
0.8119	51963.28	3.1410	3.1411	-0.1223	8.56	2.58	-0.750			
0.8123	51987.02	3.1380	3.1380	-0.1207	8.57	2.59	-0.750			
0.8127	52009.71	3.1350	3.1352	-0.1199	8.57	2.59	-0.750			
0.8130	52032.44	3.1320	3.1319	-0.1182	8.58	2.60	-0.750			
0.8134	52054.71	3.1290	3.1289	-0.1162	8.58	2.60	-0.750			
0.8137	52076.93	3.1260	3.1258	-0.1153	8.59	2.61	-0.750			
0.8140	52098.99	3.1230	3.1231	-0.1142	8.59	2.61	-0.750			
0.8144	52120.83	3.1200	3.1201	-0.1133	8.60	2.62	-0.750			
0.8147	52142.97	3.1170	3.1169	-0.1120	8.60	2.62	-0.750			
0.8151	52164.28	3.1140	3.1139	-0.1099	8.61	2.63	-0.750			
0.8154	52184.93	3.1110	3.1110	-0.1080	8.61	2.63	-0.750			
0.8157	52205.51	3.1080	3.1081	-0.1065	8.62	2.64	-0.750			
0.8160	52225.65	3.1050	3.1051	-0.1057	8.62	2.64	-0.750			
0.8163	52245.85	3.1020	3.1019	-0.1047	8.62	2.64	-0.750			
0.8167	52265.62	3.0990	3.0990	-0.1033	8.63	2.65	-0.750			
0.8170	52285.41	3.0960	3.0960	-0.1028	8.63	2.65	-0.750			
0.8173	52305.37	3.0930	3.0931	-0.1020	8.64	2.66	-0.750			
0.8176	52324.83	3.0900	3.0900	-0.1008	8.64	2.66	-0.750			
0.8179	52344.23	3.0870	3.0870	-0.0997	8.65	2.67	-0.750			
