Ah_balance (normalized)	Ah_balance (mAh)	Voltage - fit (V)	Voltage -  interpolate (V)	dQ/dV (1/V)	Temperature (°C)	Temperature - diff (°C)	Current (C)	R_DC 0ms (mOhm)	R_DC 50ms (mOhm)	R_DC 50 ms PEC (mOhm)
0.0934	5975.54	4.1970	4.1995	0.9392	8.08	2.09	0.750			
0.0962	6156.47	4.1940	4.1954	0.9156	8.08	2.09	0.750			
0.0989	6326.78	4.1910	4.1917	0.8537	8.07	2.08	0.750			
0.1013	6482.22	4.1880	4.1880	0.7996	8.07	2.08	0.750			
0.1038	6641.95	4.1850	4.1847	0.7810	8.07	2.08	0.750			
0.1056	6757.66	4.1820	4.1821	0.7002	8.06	2.07	0.750			
0.1077	6892.95	4.1790	4.1790	0.7018	8.06	2.07	0.750			
0.1098	7024.21	4.1760	4.1760	0.7071	8.06	2.07	0.750			
0.1119	7161.16	4.1730	4.1730	0.7173	8.05	2.06	0.750			
0.1141	7302.34	4.1700	4.1699	0.7259	8.05	2.06	0.750			
0.1163	7443.31	4.1670	4.1671	0.7284	8.05	2.06	0.750			
0.1186	7588.05	4.1640	4.1640	0.7242	8.05	2.06	0.750			
0.1207	7724.87	4.1610	4.1611	0.7218	8.04	2.05	0.750			
0.1228	7861.38	4.1580	4.1580	0.7198	8.04	2.05	0.750			
0.1249	7995.64	4.1550	4.1551	0.7219	8.04	2.05	0.750			
0.1271	8134.50	4.1520	4.1519	0.7292	8.04	2.05	0.750			
0.1293	8276.68	4.1490	4.1490	0.7313	8.04	2.05	0.750			
0.1316	8421.14	4.1460	4.1460	0.7342	8.03	2.04	0.750			
0.1338	8562.53	4.1430	4.1431	0.7354	8.03	2.04	0.750			
0.1360	8702.00	4.1400	4.1400	0.7273	8.02	2.03	0.750			
0.1381	8840.91	4.1370	4.1369	0.7265	8.02	2.03	0.750			
0.1403	8979.80	4.1340	4.1340	0.7300	8.02	2.03	0.750			
0.1425	9119.96	4.1310	4.1309	0.7339	8.01	2.02	0.750			
0.1447	9261.57	4.1280	4.1280	0.7427	8.01	2.02	0.750			
0.1469	9404.77	4.1250	4.1251	0.7531	8.01	2.02	0.750			
0.1492	9549.34	4.1220	4.1219	0.7572	8.00	2.01	0.750			
0.1515	9698.09	4.1190	4.1189	0.7608	8.00	2.01	0.750			
0.1538	9845.09	4.1160	4.1160	0.7606	8.00	2.01	0.750			
0.1561	9990.89	4.1130	4.1131	0.7623	7.99	2.00	0.750			
0.1584	10136.40	4.1100	4.1100	0.7703	7.99	2.00	0.750			
0.1607	10283.39	4.1070	4.1069	0.7738	7.99	2.00	0.750			
0.1630	10432.70	4.1040	4.1038	0.7697	7.98	1.99	0.750			
0.1653	10582.15	4.1010	4.1012	0.7734	7.98	1.99	0.750			
0.1677	10734.30	4.0980	4.0981	0.7805	7.97	1.98	0.750			
0.1700	10881.68	4.0950	4.0950	0.7817	7.97	1.98	0.750			
0.1723	11028.58	4.0920	4.0919	0.7829	7.96	1.97	0.750			
0.1747	11178.58	4.0890	4.0891	0.7917	7.95	1.96	0.750			
0.1771	11332.93	4.0860	4.0858	0.8016	7.95	1.96	0.750			
0.1795	11490.88	4.0830	4.0830	0.8068	7.95	1.96	0.750			
0.1820	11647.64	4.0800	4.0801	0.8070	7.95	1.96	0.750			
0.1844	11801.52	4.0770	4.0771	0.8042	7.94	1.95	0.750			
0.1868	11955.34	4.0740	4.0741	0.8037	7.94	1.95	0.750			
0.1892	12106.62	4.0710	4.0709	0.8071	7.94	1.95	0.750			
0.1916	12261.89	4.0680	4.0679	0.8160	7.94	1.95	0.750			
0.1941	12420.71	4.0650	4.0650	0.8211	7.93	1.94	0.750			
0.1966	12580.37	4.0620	4.0620	0.8233	7.93	1.94	0.750			
0.1991	12741.33	4.0590	4.0591	0.8237	7.92	1.93	0.750			
0.2016	12899.37	4.0560	4.0559	0.8157	7.92	1.93	0.750			
0.2040	13053.22	4.0530	4.0531	0.8128	7.92	1.93	0.750			
0.2064	13208.20	4.0500	4.0500	0.8118	7.92	1.93	0.750			
0.2088	13360.73	4.0470	4.0469	0.8191	7.91	1.92	0.750			
0.2112	13517.86	4.0440	4.0440	0.8259	7.91	1.92	0.750			
0.2137	13677.64	4.0410	4.0410	0.8432	7.91	1.92	0.750			
0.2163	13841.86	4.0380	4.0379	0.8610	7.91	1.92	0.750			
0.2189	14011.48	4.0350	4.0350	0.8543	7.90	1.91	0.750			
0.2215	14175.19	4.0320	4.0322	0.8562	7.90	1.91	0.750			
0.2241	14341.11	4.0290	4.0291	0.8536	7.89	1.90	0.750			
0.2266	14503.11	4.0260	4.0257	0.8525	7.89	1.90	0.750			
0.2291	14665.11	4.0230	4.0230	0.8489	7.88	1.89	0.750			
0.2317	14826.33	4.0200	4.0201	0.8468	7.88	1.89	0.750			
0.2342	14990.20	4.0170	4.0169	0.8545	7.87	1.88	0.750			
0.2368	15155.51	4.0140	4.0141	0.8637	7.87	1.88	0.750			
0.2394	15320.70	4.0110	4.0111	0.8590	7.86	1.87	0.750			
0.2420	15487.42	4.0080	4.0079	0.8659	7.86	1.87	0.750			
0.2446	15653.18	4.0050	4.0051	0.8664	7.86	1.87	0.750			
0.2472	15820.22	4.0020	4.0021	0.8765	7.85	1.86	0.750			
0.2498	15988.28	3.9990	3.9989	0.8841	7.85	1.86	0.750			
0.2524	16156.61	3.9960	3.9960	0.8961	7.85	1.86	0.750			
0.2552	16330.49	3.9930	3.9929	0.8991	7.84	1.85	0.750			
0.2579	16506.88	3.9900	3.9900	0.9119	7.83	1.84	0.750			
0.2607	16685.00	3.9870	3.9870	0.9122	7.83	1.84	0.750			
0.2634	16859.74	3.9840	3.9840	0.9110	7.82	1.83	0.750			
0.2662	17035.37	3.9810	3.9809	0.8992	7.82	1.83	0.750			
0.2688	17205.63	3.9780	3.9780	0.8981	7.82	1.83	0.750			
0.2715	17375.24	3.9750	3.9750	0.8916	7.81	1.82	0.750			
0.2742	17546.86	3.9720	3.9720	0.9017	7.81	1.82	0.750			
0.2768	17717.09	3.9690	3.9689	0.9101	7.81	1.82	0.750			
0.2796	17895.28	3.9660	3.9659	0.9164	7.80	1.81	0.750			
0.2823	18070.32	3.9630	3.9630	0.9334	7.80	1.81	0.750			
0.2852	18254.62	3.9600	3.9600	0.9421	7.79	1.80	0.750			
0.2881	18437.02	3.9570	3.9570	0.9359	7.78	1.79	0.750			
0.2909	18618.79	3.9540	3.9542	0.9416	7.78	1.79	0.750			
0.2937	18795.07	3.9510	3.9510	0.9501	7.77	1.78	0.750			
0.2965	18978.81	3.9480	3.9480	0.9578	7.77	1.78	0.750			
0.2994	19164.55	3.9450	3.9449	0.9647	7.76	1.77	0.750			
0.3023	19349.69	3.9420	3.9421	0.9683	7.76	1.77	0.750			
0.3053	19538.74	3.9390	3.9392	0.9791	7.75	1.76	0.750			
0.3083	19729.11	3.9360	3.9359	0.9861	7.75	1.76	0.750			
0.3112	19916.05	3.9330	3.9329	0.9836	7.74	1.75	0.750			
0.3141	20102.52	3.9300	3.9300	0.9800	7.74	1.75	0.750			
0.3171	20292.19	3.9270	3.9270	0.9957	7.73	1.74	0.750			
0.3200	20482.30	3.9240	3.9241	1.0136	7.73	1.74	0.750			
0.3231	20677.28	3.9210	3.9210	1.0258	7.72	1.73	0.750			
0.3262	20875.13	3.9180	3.9179	1.0458	7.71	1.72	0.750			
0.3294	21079.14	3.9150	3.9151	1.0558	7.70	1.71	0.750			
0.3326	21286.04	3.9120	3.9119	1.0652	7.70	1.71	0.750			
0.3358	21493.46	3.9090	3.9091	1.0751	7.69	1.70	0.750			
0.3391	21700.74	3.9060	3.9057	1.0736	7.68	1.69	0.750			
0.3422	21902.29	3.9030	3.9031	1.0800	7.67	1.68	0.750			
0.3455	22109.94	3.9000	3.9000	1.1030	7.66	1.67	0.750			
0.3488	22320.95	3.8970	3.8971	1.1168	7.65	1.66	0.750			
0.3522	22540.00	3.8940	3.8938	1.1237	7.64	1.65	0.750			
0.3556	22759.10	3.8910	3.8911	1.1364	7.63	1.64	0.750			
0.3590	22977.87	3.8880	3.8882	1.1537	7.62	1.63	0.750			
0.3625	23201.65	3.8850	3.8850	1.1624	7.61	1.62	0.750			
0.3660	23423.34	3.8820	3.8819	1.1650	7.60	1.61	0.750			
0.3695	23644.89	3.8790	3.8792	1.1729	7.59	1.60	0.750			
0.3730	23873.51	3.8760	3.8761	1.1972	7.58	1.59	0.750			
0.3767	24109.98	3.8730	3.8729	1.2137	7.57	1.58	0.750			
0.3803	24338.46	3.8700	3.8701	1.2412	7.56	1.57	0.750			
0.3840	24578.45	3.8670	3.8671	1.2574	7.55	1.56	0.750			
0.3879	24825.64	3.8640	3.8638	1.2849	7.54	1.55	0.750			
0.3918	25073.98	3.8610	3.8613	1.3071	7.53	1.54	0.750			
0.3957	25327.02	3.8580	3.8577	1.3220	7.52	1.53	0.750			
0.3997	25582.01	3.8550	3.8552	1.3373	7.51	1.52	0.750			
0.4037	25839.94	3.8520	3.8522	1.3653	7.49	1.50	0.750	0.407	0.922	
0.4079	26103.01	3.8490	3.8489	1.3899	7.47	1.48	0.750			
0.4121	26373.74	3.8460	3.8459	1.4241	7.46	1.47	0.750			
0.4164	26647.80	3.8430	3.8430	1.4471	7.44	1.45	0.750			
0.4208	26928.00	3.8400	3.8400	1.4806	7.43	1.44	0.750			
0.4253	27218.89	3.8370	3.8369	1.5128	7.41	1.42	0.750			
0.4299	27514.73	3.8340	3.8340	1.5218	7.40	1.41	0.750			
0.4345	27808.51	3.8310	3.8310	1.5411	7.38	1.39	0.750			
0.4391	28103.52	3.8280	3.8281	1.5754	7.36	1.37	0.750			
0.4438	28406.03	3.8250	3.8249	1.5949	7.34	1.35	0.750			
0.4487	28715.58	3.8220	3.8221	1.6167	7.32	1.33	0.750			
0.4535	29022.15	3.8190	3.8192	1.6590	7.30	1.31	0.750			
0.4585	29345.76	3.8160	3.8159	1.7121	7.28	1.29	0.750			
0.4638	29683.46	3.8130	3.8126	1.7545	7.26	1.27	0.750			
0.4691	30023.56	3.8100	3.8100	1.7944	7.24	1.25	0.750			
0.4746	30373.58	3.8070	3.8070	1.8294	7.21	1.22	0.750			
0.4802	30735.26	3.8040	3.8040	1.8632	7.19	1.20	0.750			
0.4859	31094.79	3.8010	3.8013	1.8872	7.17	1.18	0.750			
0.4915	31453.13	3.7980	3.7980	1.9168	7.15	1.16	0.750			
0.4973	31824.89	3.7950	3.7950	1.9566	7.12	1.13	0.750			
0.5032	32207.34	3.7920	3.7920	1.9837	7.09	1.10	0.750			
0.5094	32598.55	3.7890	3.7890	2.0328	7.06	1.07	0.750			
0.5155	32993.88	3.7860	3.7858	2.0607	7.03	1.04	0.750			
0.5217	33391.60	3.7830	3.7831	2.0718	7.00	1.01	0.750			
0.5280	33788.84	3.7800	3.7801	2.1110	6.97	0.98	0.750			
0.5343	34195.41	3.7770	3.7770	2.1418	6.95	0.96	0.750			
0.5408	34611.19	3.7740	3.7740	2.2099	6.92	0.93	0.750			
0.5474	35032.51	3.7710	3.7711	2.2739	6.89	0.90	0.750			
0.5543	35475.53	3.7680	3.7680	2.3538	6.86	0.87	0.750			
0.5615	35936.42	3.7650	3.7649	2.3911	6.82	0.83	0.750			
0.5689	36409.47	3.7620	3.7620	2.4295	6.79	0.80	0.750			
0.5761	36873.58	3.7590	3.7590	2.4489	6.76	0.77	0.750			
0.5833	37334.08	3.7560	3.7559	2.5102	6.72	0.73	0.750			
0.5909	37815.30	3.7530	3.7531	2.6170	6.68	0.69	0.750			
0.5992	38345.86	3.7500	3.7500	2.6834	6.65	0.66	0.750			
0.6073	38869.20	3.7470	3.7471	2.7699	6.61	0.62	0.750			
0.6157	39403.67	3.7440	3.7438	2.8614	6.57	0.58	0.750			
0.6243	39952.50	3.7410	3.7411	2.9293	6.53	0.54	0.750			
0.6334	40536.85	3.7380	3.7381	3.0975	6.49	0.50	0.750			
0.6426	41128.82	3.7350	3.7350	3.1905	6.45	0.46	0.750			
0.6524	41755.31	3.7320	3.7320	3.4090	6.41	0.42	0.750			
0.6631	42439.58	3.7290	3.7289	3.3151	6.36	0.37	0.750			
0.6730	43069.17	3.7260	3.7260	3.1312	6.32	0.33	0.750			
0.6818	43636.89	3.7230	3.7229	2.7988	6.29	0.30	0.750			
0.6898	44144.91	3.7200	3.7200	2.4961	6.26	0.27	0.750			
0.6969	44602.12	3.7170	3.7171	2.2653	6.23	0.24	0.750			
0.7031	45000.89	3.7140	3.7139	1.9969	6.21	0.22	0.750			
0.7087	45357.17	3.7110	3.7110	1.7789	6.20	0.21	0.750			
0.7135	45667.06	3.7080	3.7079	1.5684	6.18	0.19	0.750			
0.7180	45949.30	3.7050	3.7050	1.4541	6.17	0.18	0.750			
0.7219	46202.12	3.7020	3.7020	1.3280	6.15	0.16	0.750			
0.7256	46436.65	3.6990	3.6988	1.2375	6.14	0.15	0.750			
0.7292	46670.17	3.6960	3.6961	1.1838	6.13	0.14	0.750			
0.7326	46885.90	3.6930	3.6929	1.1362	6.13	0.14	0.750			
0.7359	47099.22	3.6900	3.6901	1.1056	6.12	0.13	0.750			
0.7391	47304.55	3.6870	3.6870	1.0732	6.11	0.12	0.750			
0.7423	47508.71	3.6840	3.6839	1.0553	6.10	0.11	0.750			
0.7455	47709.64	3.6810	3.6810	1.0369	6.09	0.10	0.750			
0.7486	47908.64	3.6780	3.6781	1.0215	6.08	0.09	0.750			
0.7516	48105.30	3.6750	3.6748	1.0047	6.07	0.08	0.750			
0.7546	48295.75	3.6720	3.6720	0.9712	6.06	0.07	0.750			
0.7575	48478.63	3.6690	3.6691	0.9583	6.06	0.07	0.750			
0.7603	48657.75	3.6660	3.6658	0.9467	6.05	0.06	0.750			
0.7631	48837.43	3.6630	3.6630	0.9334	6.04	0.05	0.750			
0.7659	49017.63	3.6600	3.6601	0.9242	6.04	0.05	0.750			
0.7687	49196.18	3.6570	3.6571	0.9159	6.03	0.04	0.750			
0.7714	49372.12	3.6540	3.6540	0.9065	6.03	0.04	0.750			
0.7741	49544.51	3.6510	3.6510	0.8993	6.02	0.03	0.750			
0.7767	49709.31	3.6480	3.6480	0.8942	6.02	0.03	0.750			
0.7794	49880.42	3.6450	3.6451	0.8970	6.02	0.03	0.750			
0.7821	50053.81	3.6420	3.6419	0.9130	6.01	0.02	0.750			
0.7849	50232.62	3.6390	3.6390	0.9180	6.01	0.02	0.750			
0.7877	50411.98	3.6360	3.6361	0.9215	6.00	0.01	0.750			
0.7905	50592.66	3.6330	3.6331	0.8939	6.00	0.01	0.750			
0.7933	50769.15	3.6300	3.6299	0.8559	6.00	0.01	0.750			
0.7958	50934.19	3.6270	3.6271	0.7739	5.99	0.00	0.750			
0.7982	51082.53	3.6240	3.6240	0.6830	5.99	0.00	0.750			
0.8001	51203.71	3.6210	3.6212	0.5815	5.99	0.00	0.750			
0.8016	51304.57	3.6180	3.6177	0.4689	5.99	-0.00	0.750			
0.8027	51372.75	3.6150	3.6152	0.3863	5.99	-0.00	0.750			
0.8037	51437.12	3.6120	3.6120	0.3080	5.99	-0.00	0.750			
0.8044	51482.02	3.6090	3.6086	0.2286	5.99	-0.00	0.750			
0.8049	51515.94	3.6060	3.6055	0.1640	5.99	-0.00	0.750			
0.8053	51539.60	3.6030	3.6008	0.1101	5.99	-0.00	0.750			
0.8054	51548.77	3.5910	3.5822	-0.0721	5.99	-0.00	0.750			
0.8055	51551.90	3.6000	3.5528	0.0612	5.99	-0.00	0.753			
0.8056	51558.34	3.5940	3.4922	-0.0276	5.99	-0.00	0.760			
0.8056	51559.39	3.5970	3.4824	0.0168	5.99	-0.00	0.761			
