Ah_balance (normalized)	Ah_balance (mAh)	Voltage - fit (V)	Voltage -  interpolate (V)	dQ/dV (1/V)	Temperature (°C)	Temperature - diff (°C)	Current (C)	R_DC 0ms (mOhm)	R_DC 50ms (mOhm)	R_DC 50 ms PEC (mOhm)
0.0995	6366.72	4.1970	4.1997	0.4994	7.99	2.00	0.750			
0.1013	6485.59	4.1940	4.1969	0.6827	7.99	2.00	0.750			
0.1038	6640.71	4.1910	4.1934	0.7701	7.98	1.99	0.750			
0.1062	6796.76	4.1880	4.1896	0.7916	7.98	1.99	0.750			
0.1087	6956.05	4.1850	4.1860	0.7906	7.97	1.98	0.750			
0.1111	7112.34	4.1820	4.1823	0.7615	7.97	1.98	0.750			
0.1135	7261.23	4.1790	4.1789	0.6983	7.97	1.98	0.750			
0.1156	7395.73	4.1760	4.1761	0.7084	7.96	1.97	0.750			
0.1177	7534.01	4.1730	4.1731	0.7142	7.96	1.97	0.750			
0.1199	7673.94	4.1700	4.1701	0.7171	7.96	1.97	0.750			
0.1220	7810.90	4.1670	4.1669	0.7160	7.95	1.96	0.750			
0.1242	7946.64	4.1640	4.1638	0.7130	7.95	1.96	0.750			
0.1263	8083.72	4.1610	4.1611	0.7181	7.94	1.95	0.750			
0.1285	8222.39	4.1580	4.1579	0.7150	7.94	1.95	0.750			
0.1306	8358.99	4.1550	4.1550	0.7187	7.93	1.94	0.750			
0.1328	8496.77	4.1520	4.1520	0.7214	7.92	1.93	0.750			
0.1350	8637.60	4.1490	4.1491	0.7244	7.92	1.93	0.750			
0.1371	8777.31	4.1460	4.1458	0.7225	7.91	1.92	0.750			
0.1393	8915.71	4.1430	4.1431	0.7264	7.90	1.91	0.750			
0.1415	9055.74	4.1400	4.1400	0.7238	7.90	1.91	0.750			
0.1437	9195.36	4.1370	4.1369	0.7261	7.89	1.90	0.750			
0.1458	9333.79	4.1340	4.1341	0.7264	7.89	1.90	0.750			
0.1480	9471.99	4.1310	4.1310	0.7337	7.88	1.89	0.750			
0.1502	9613.91	4.1280	4.1280	0.7459	7.88	1.89	0.750			
0.1525	9758.81	4.1250	4.1250	0.7499	7.87	1.88	0.750			
0.1547	9902.48	4.1220	4.1220	0.7541	7.86	1.87	0.750			
0.1571	10051.30	4.1190	4.1191	0.7561	7.86	1.87	0.750			
0.1593	10198.17	4.1160	4.1160	0.7518	7.85	1.86	0.750			
0.1616	10341.90	4.1130	4.1129	0.7462	7.84	1.85	0.750			
0.1638	10482.78	4.1100	4.1101	0.7423	7.84	1.85	0.750			
0.1660	10623.79	4.1070	4.1070	0.7475	7.83	1.84	0.750			
0.1682	10766.29	4.1040	4.1040	0.7580	7.83	1.84	0.750			
0.1705	10911.38	4.1010	4.1010	0.7637	7.83	1.84	0.750			
0.1728	11060.62	4.0980	4.0980	0.7765	7.82	1.83	0.750			
0.1752	11212.10	4.0950	4.0952	0.7836	7.82	1.83	0.750			
0.1776	11363.82	4.0920	4.0920	0.7867	7.81	1.82	0.750			
0.1799	11515.48	4.0890	4.0890	0.7832	7.81	1.82	0.750			
0.1823	11665.41	4.0860	4.0859	0.7862	7.80	1.81	0.750			
0.1846	11814.28	4.0830	4.0832	0.7892	7.80	1.81	0.750			
0.1870	11967.51	4.0800	4.0798	0.7937	7.79	1.80	0.750			
0.1894	12120.77	4.0770	4.0771	0.7948	7.78	1.79	0.750			
0.1918	12273.64	4.0740	4.0740	0.7999	7.78	1.79	0.750			
0.1942	12428.38	4.0710	4.0711	0.8033	7.77	1.78	0.750			
0.1966	12582.38	4.0680	4.0679	0.7993	7.77	1.78	0.750			
0.1990	12735.55	4.0650	4.0649	0.8035	7.76	1.77	0.750			
0.2014	12889.07	4.0620	4.0621	0.8071	7.75	1.76	0.750			
0.2038	13044.99	4.0590	4.0589	0.8139	7.75	1.76	0.750			
0.2063	13201.66	4.0560	4.0560	0.8206	7.74	1.75	0.750			
0.2087	13359.01	4.0530	4.0530	0.8216	7.74	1.75	0.750			
0.2112	13518.62	4.0500	4.0500	0.8292	7.73	1.74	0.750			
0.2138	13680.26	4.0470	4.0469	0.8322	7.73	1.74	0.750			
0.2162	13839.74	4.0440	4.0442	0.8293	7.72	1.73	0.750			
0.2187	13998.29	4.0410	4.0410	0.8388	7.71	1.72	0.750			
0.2212	14159.75	4.0380	4.0380	0.8424	7.71	1.72	0.750			
0.2238	14321.48	4.0350	4.0348	0.8515	7.70	1.71	0.750			
0.2263	14485.79	4.0320	4.0322	0.8590	7.69	1.70	0.750			
0.2290	14653.20	4.0290	4.0289	0.8572	7.69	1.70	0.750			
0.2316	14819.52	4.0260	4.0259	0.8655	7.68	1.69	0.750			
0.2341	14985.20	4.0230	4.0231	0.8623	7.67	1.68	0.750			
0.2367	15148.53	4.0200	4.0199	0.8603	7.66	1.67	0.750			
0.2393	15314.51	4.0170	4.0169	0.8669	7.66	1.67	0.750			
0.2419	15480.05	4.0140	4.0141	0.8707	7.65	1.66	0.750			
0.2445	15648.85	4.0110	4.0109	0.8727	7.65	1.66	0.750			
0.2471	15817.33	4.0080	4.0080	0.8758	7.64	1.65	0.750			
0.2498	15984.22	4.0050	4.0052	0.8795	7.64	1.65	0.750			
0.2524	16155.70	4.0020	4.0020	0.8818	7.63	1.64	0.750			
0.2551	16323.82	3.9990	3.9989	0.8864	7.62	1.63	0.750			
0.2577	16493.43	3.9960	3.9961	0.8935	7.61	1.62	0.750			
0.2604	16664.42	3.9930	3.9931	0.9016	7.60	1.61	0.750			
0.2631	16839.39	3.9900	3.9899	0.9130	7.60	1.61	0.750			
0.2659	17018.11	3.9870	3.9870	0.9055	7.59	1.60	0.750			
0.2686	17191.32	3.9840	3.9840	0.9047	7.58	1.59	0.750			
0.2713	17366.09	3.9810	3.9812	0.9153	7.58	1.59	0.750			
0.2741	17539.48	3.9780	3.9777	0.9152	7.57	1.58	0.750			
0.2768	17716.23	3.9750	3.9749	0.9114	7.56	1.57	0.750			
0.2795	17891.12	3.9720	3.9721	0.9213	7.56	1.57	0.750			
0.2823	18067.60	3.9690	3.9691	0.9342	7.55	1.56	0.750			
0.2851	18247.95	3.9660	3.9661	0.9559	7.54	1.55	0.750			
0.2880	18431.20	3.9630	3.9631	0.9547	7.54	1.55	0.750			
0.2909	18614.70	3.9600	3.9599	0.9686	7.53	1.54	0.750			
0.2938	18805.10	3.9570	3.9571	0.9764	7.52	1.53	0.750			
0.2968	18994.21	3.9540	3.9542	0.9818	7.51	1.52	0.750			
0.2998	19184.29	3.9510	3.9510	0.9859	7.50	1.51	0.750			
0.3027	19372.20	3.9480	3.9480	0.9902	7.49	1.50	0.750			
0.3056	19560.38	3.9450	3.9448	0.9849	7.48	1.49	0.750			
0.3086	19752.30	3.9420	3.9421	0.9948	7.47	1.48	0.750			
0.3116	19942.66	3.9390	3.9390	0.9995	7.46	1.47	0.750			
0.3146	20136.33	3.9360	3.9360	1.0107	7.45	1.46	0.750			
0.3176	20328.68	3.9330	3.9329	1.0183	7.44	1.45	0.750			
0.3207	20521.95	3.9300	3.9301	1.0288	7.43	1.44	0.750			
0.3238	20720.08	3.9270	3.9269	1.0439	7.42	1.43	0.750			
0.3270	20928.78	3.9240	3.9241	1.0536	7.41	1.42	0.750			
0.3301	21127.62	3.9210	3.9211	1.0650	7.40	1.41	0.750			
0.3333	21333.84	3.9180	3.9181	1.0696	7.39	1.40	0.750			
0.3366	21540.13	3.9150	3.9148	1.0821	7.38	1.39	0.750			
0.3398	21746.07	3.9120	3.9120	1.0891	7.37	1.38	0.750			
0.3431	21956.30	3.9090	3.9092	1.1054	7.36	1.37	0.750			
0.3464	22172.12	3.9060	3.9060	1.1163	7.35	1.36	0.750			
0.3499	22390.46	3.9030	3.9029	1.1203	7.34	1.35	0.750			
0.3532	22602.82	3.9000	3.9000	1.1198	7.32	1.33	0.750			
0.3566	22819.42	3.8970	3.8971	1.1333	7.31	1.32	0.750			
0.3599	23034.47	3.8940	3.8940	1.1387	7.30	1.31	0.750			
0.3633	23253.21	3.8910	3.8909	1.1457	7.29	1.30	0.750			
0.3667	23469.09	3.8880	3.8881	1.1676	7.27	1.28	0.750			
0.3702	23692.45	3.8850	3.8851	1.2194	7.26	1.27	0.750			
0.3740	23935.71	3.8820	3.8817	1.2440	7.25	1.26	0.750			
0.3778	24178.66	3.8790	3.8792	1.2647	7.23	1.24	0.750	0.380	0.811	
0.3817	24427.00	3.8760	3.8763	1.2866	7.21	1.22	0.750			
0.3857	24684.97	3.8730	3.8730	1.2953	7.20	1.21	0.750			
0.3895	24928.90	3.8700	3.8699	1.3065	7.18	1.19	0.750			
0.3933	25174.10	3.8670	3.8670	1.3009	7.17	1.18	0.750			
0.3973	25425.32	3.8640	3.8641	1.3157	7.16	1.17	0.750			
0.4013	25682.88	3.8610	3.8611	1.3508	7.14	1.15	0.750			
0.4054	25942.96	3.8580	3.8581	1.3719	7.13	1.14	0.750			
0.4095	26210.49	3.8550	3.8549	1.3811	7.11	1.12	0.750			
0.4137	26476.37	3.8520	3.8522	1.4196	7.09	1.10	0.750			
0.4179	26748.01	3.8490	3.8490	1.4317	7.08	1.09	0.750			
0.4224	27032.71	3.8460	3.8460	1.4481	7.06	1.07	0.750			
0.4267	27309.66	3.8430	3.8431	1.4585	7.04	1.05	0.750			
0.4311	27587.68	3.8400	3.8403	1.4787	7.03	1.04	0.750			
0.4355	27873.59	3.8370	3.8369	1.4875	7.01	1.02	0.750			
0.4400	28158.01	3.8340	3.8340	1.5159	7.00	1.01	0.750			
0.4445	28446.59	3.8310	3.8312	1.5218	6.98	0.99	0.750			
0.4492	28746.05	3.8280	3.8278	1.5730	6.96	0.97	0.750			
0.4540	29058.88	3.8250	3.8249	1.5933	6.94	0.95	0.750			
0.4588	29364.23	3.8220	3.8220	1.5921	6.92	0.93	0.750			
0.4636	29671.29	3.8190	3.8193	1.6141	6.90	0.91	0.750			
0.4685	29983.78	3.8160	3.8158	1.6355	6.88	0.89	0.750			
0.4734	30297.05	3.8130	3.8128	1.6396	6.85	0.86	0.750			
0.4784	30616.41	3.8100	3.8098	1.6633	6.83	0.84	0.750			
0.4835	30941.41	3.8070	3.8072	1.6845	6.81	0.82	0.750			
0.4886	31268.34	3.8040	3.8039	1.6967	6.79	0.80	0.750			
0.4936	31592.80	3.8010	3.8012	1.7061	6.77	0.78	0.750			
0.4987	31919.43	3.7980	3.7982	1.7118	6.74	0.75	0.750			
0.5039	32249.56	3.7950	3.7949	1.7343	6.73	0.74	0.750			
0.5092	32587.52	3.7920	3.7919	1.7530	6.71	0.72	0.750			
0.5143	32916.67	3.7890	3.7890	1.7956	6.69	0.70	0.750			
0.5198	33264.37	3.7860	3.7861	1.8445	6.66	0.67	0.750			
0.5253	33622.02	3.7830	3.7828	1.8767	6.64	0.65	0.750			
0.5310	33985.60	3.7800	3.7799	1.9478	6.62	0.63	0.750			
0.5370	34367.97	3.7770	3.7773	2.0083	6.60	0.61	0.750			
0.5432	34765.48	3.7740	3.7737	2.0622	6.57	0.58	0.750			
0.5494	35161.19	3.7710	3.7712	2.0950	6.55	0.56	0.750			
0.5557	35566.68	3.7680	3.7681	2.1777	6.52	0.53	0.750			
0.5624	35996.19	3.7650	3.7649	2.2646	6.49	0.50	0.750			
0.5692	36428.15	3.7620	3.7620	2.3619	6.47	0.48	0.750			
0.5765	36895.21	3.7590	3.7592	2.4592	6.44	0.45	0.750			
0.5840	37375.60	3.7560	3.7560	2.5825	6.41	0.42	0.750			
0.5918	37877.40	3.7530	3.7528	2.7007	6.38	0.39	0.750			
0.6002	38412.55	3.7500	3.7501	2.8491	6.35	0.36	0.750			
0.6090	38978.02	3.7470	3.7469	2.9699	6.31	0.32	0.750			
0.6181	39556.99	3.7440	3.7440	3.0479	6.28	0.29	0.750			
0.6276	40168.22	3.7410	3.7410	3.1236	6.25	0.26	0.750			
0.6371	40772.62	3.7380	3.7378	2.9078	6.22	0.23	0.750			
0.6454	41303.06	3.7350	3.7352	2.6111	6.20	0.21	0.750			
0.6528	41777.24	3.7320	3.7317	2.2834	6.18	0.19	0.750			
0.6590	42174.04	3.7290	3.7290	1.9536	6.15	0.16	0.750			
0.6644	42518.89	3.7260	3.7263	1.7265	6.14	0.15	0.750			
0.6691	42821.31	3.7230	3.7229	1.5349	6.13	0.14	0.750			
0.6731	43076.30	3.7200	3.7199	1.3622	6.12	0.13	0.750			
0.6768	43312.58	3.7170	3.7170	1.2413	6.11	0.12	0.750			
0.6803	43539.92	3.7140	3.7140	1.1859	6.10	0.11	0.750			
0.6837	43759.39	3.7110	3.7111	1.1369	6.09	0.10	0.750			
0.6870	43969.89	3.7080	3.7080	1.0932	6.08	0.09	0.750			
0.6902	44175.26	3.7050	3.7049	1.0747	6.07	0.08	0.750			
0.6934	44375.13	3.7020	3.7021	1.0498	6.06	0.07	0.750			
0.6966	44579.43	3.6990	3.6991	1.0387	6.05	0.06	0.750			
0.6997	44778.02	3.6960	3.6958	1.0205	6.04	0.05	0.750			
0.7027	44971.67	3.6930	3.6931	0.9956	6.03	0.04	0.750			
0.7056	45159.81	3.6900	3.6900	0.9772	6.03	0.04	0.750			
0.7085	45346.77	3.6870	3.6870	0.9486	6.03	0.04	0.750			
0.7114	45526.70	3.6840	3.6838	0.9194	6.02	0.03	0.750			
0.7141	45699.99	3.6810	3.6811	0.8991	6.02	0.03	0.750			
0.7167	45868.11	3.6780	3.6781	0.8860	6.01	0.02	0.750			
0.7193	46034.53	3.6750	3.6750	0.8709	6.01	0.02	0.750			
0.7219	46200.06	3.6720	3.6720	0.8677	6.00	0.01	0.750			
0.7244	46364.31	3.6690	3.6688	0.8613	6.00	0.01	0.750			
0.7271	46533.71	3.6660	3.6661	0.8600	6.00	0.01	0.750			
0.7297	46698.45	3.6630	3.6630	0.8508	5.99	0.00	0.750			
0.7322	46861.90	3.6600	3.6600	0.8407	5.99	-0.00	0.750			
0.7347	47020.94	3.6570	3.6570	0.8281	5.98	-0.01	0.750			
0.7372	47180.74	3.6540	3.6540	0.8153	5.98	-0.01	0.750			
0.7397	47338.64	3.6510	3.6509	0.7814	5.98	-0.01	0.750			
0.7421	47491.87	3.6480	3.6480	0.7428	5.98	-0.01	0.750			
0.7443	47635.64	3.6450	3.6450	0.6719	5.99	-0.00	0.750			
0.7463	47760.94	3.6420	3.6421	0.5926	5.99	-0.00	0.750			
0.7479	47867.69	3.6390	3.6391	0.5075	5.99	-0.00	0.750			
0.7493	47955.51	3.6360	3.6358	0.4138	5.99	0.00	0.750			
0.7502	48014.64	3.6330	3.6334	0.3536	5.99	0.00	0.750			
0.7512	48074.55	3.6300	3.6301	0.2901	5.99	0.00	0.750			
0.7519	48119.02	3.6270	3.6266	0.2243	5.99	0.00	0.750			
0.7524	48154.39	3.6240	3.6224	0.1747	5.99	0.00	0.750			
0.7527	48174.74	3.6000	3.6042	-0.1135	5.99	0.00	0.750			
0.7528	48178.07	3.6210	3.5735	0.1267	5.99	0.00	0.749			
0.7530	48191.67	3.6180	3.3907	0.0841	5.99	0.00	0.725			
0.7530	48193.37	3.6030	3.3678	-0.0806	5.99	0.00	0.722			
0.7532	48204.66	3.6150	3.2161	0.0512	5.99	0.00	0.702			
0.7532	48205.68	3.6060	3.2023	-0.0476	5.99	0.00	0.700			
0.7533	48211.33	3.6120	3.1265	0.0182	5.99	0.00	0.691			
0.7533	48211.67	3.6090	3.1219	-0.0147	5.99	0.00	0.690			
