Ah_balance (normalized)	Ah_balance (mAh)	Voltage - fit (V)	Voltage -  interpolate (V)	dQ/dV (1/V)	Temperature (°C)	Temperature - diff (°C)	Current (C)	R_DC 0ms (mOhm)	R_DC 50ms (mOhm)	R_DC 50 ms PEC (mOhm)
0.0949	6071.09	4.1980	4.1950	0.6885	8.30	2.31	0.750	0.404	0.831	
0.0973	6227.10	4.1950	4.1971	0.8278	8.29	2.30	0.750			
0.0999	6392.78	4.1920	4.1936	0.8411	8.28	2.29	0.750			
0.1025	6558.88	4.1890	4.1900	0.8115	8.28	2.29	0.750			
0.1048	6707.41	4.1860	4.1865	0.7683	8.27	2.28	0.750			
0.1074	6871.46	4.1830	4.1829	0.7536	8.26	2.27	0.750			
0.1093	6995.22	4.1800	4.1802	0.6891	8.25	2.26	0.750			
0.1114	7127.02	4.1770	4.1770	0.6975	8.25	2.26	0.750			
0.1134	7260.79	4.1740	4.1740	0.7039	8.25	2.26	0.750			
0.1156	7396.28	4.1710	4.1709	0.7105	8.24	2.25	0.750			
0.1177	7534.83	4.1680	4.1681	0.7171	8.24	2.25	0.750			
0.1199	7675.05	4.1650	4.1651	0.7183	8.24	2.25	0.750			
0.1221	7814.93	4.1620	4.1620	0.7216	8.23	2.24	0.750			
0.1243	7952.09	4.1590	4.1591	0.7249	8.23	2.24	0.750			
0.1264	8089.70	4.1560	4.1560	0.7225	8.22	2.23	0.750			
0.1286	8230.12	4.1530	4.1529	0.7204	8.21	2.22	0.750			
0.1308	8368.47	4.1500	4.1501	0.7272	8.21	2.22	0.750			
0.1330	8509.39	4.1470	4.1470	0.7273	8.20	2.21	0.750			
0.1351	8648.72	4.1440	4.1438	0.7278	8.19	2.20	0.750			
0.1373	8787.22	4.1410	4.1411	0.7285	8.19	2.20	0.750			
0.1395	8926.73	4.1380	4.1380	0.7283	8.18	2.19	0.750			
0.1417	9068.54	4.1350	4.1350	0.7275	8.18	2.19	0.750			
0.1439	9208.47	4.1320	4.1321	0.7285	8.18	2.19	0.750			
0.1460	9346.10	4.1290	4.1291	0.7293	8.17	2.18	0.750			
0.1482	9486.88	4.1260	4.1257	0.7323	8.17	2.18	0.750			
0.1504	9626.04	4.1230	4.1230	0.7346	8.16	2.17	0.750			
0.1526	9767.42	4.1200	4.1200	0.7412	8.16	2.17	0.750			
0.1549	9911.92	4.1170	4.1171	0.7509	8.15	2.16	0.750			
0.1571	10055.57	4.1140	4.1140	0.7569	8.15	2.16	0.750			
0.1594	10201.16	4.1110	4.1110	0.7686	8.14	2.15	0.750			
0.1617	10351.17	4.1080	4.1080	0.7708	8.14	2.15	0.750			
0.1641	10501.49	4.1050	4.1049	0.7736	8.13	2.14	0.750			
0.1664	10650.45	4.1020	4.1021	0.7668	8.12	2.13	0.750			
0.1687	10798.35	4.0990	4.0989	0.7630	8.11	2.12	0.750			
0.1710	10941.52	4.0960	4.0961	0.7660	8.11	2.12	0.750			
0.1732	11087.05	4.0930	4.0929	0.7733	8.10	2.11	0.750			
0.1755	11233.20	4.0900	4.0899	0.7815	8.09	2.10	0.750			
0.1779	11388.03	4.0870	4.0869	0.7842	8.09	2.10	0.750			
0.1803	11540.98	4.0840	4.0841	0.7939	8.08	2.09	0.750			
0.1827	11694.52	4.0810	4.0812	0.7967	8.08	2.09	0.750			
0.1851	11847.90	4.0780	4.0778	0.7952	8.07	2.08	0.750			
0.1875	11998.39	4.0750	4.0751	0.8002	8.07	2.08	0.750			
0.1898	12150.23	4.0720	4.0720	0.8018	8.06	2.07	0.750			
0.1923	12305.52	4.0690	4.0690	0.8078	8.05	2.06	0.750			
0.1948	12464.22	4.0660	4.0661	0.8169	8.05	2.06	0.750			
0.1972	12620.81	4.0630	4.0630	0.8153	8.04	2.05	0.750			
0.1997	12778.00	4.0600	4.0600	0.8187	8.04	2.05	0.750			
0.2021	12935.85	4.0570	4.0569	0.8165	8.03	2.04	0.750			
0.2045	13090.96	4.0540	4.0541	0.8131	8.02	2.03	0.750			
0.2070	13246.57	4.0510	4.0512	0.8199	8.01	2.02	0.750			
0.2094	13403.84	4.0480	4.0479	0.8234	8.00	2.01	0.750			
0.2119	13562.07	4.0450	4.0449	0.8288	8.00	2.01	0.750			
0.2144	13722.71	4.0420	4.0420	0.8300	7.99	2.00	0.750			
0.2169	13880.61	4.0390	4.0391	0.8405	7.99	2.00	0.750			
0.2195	14045.58	4.0360	4.0361	0.8511	7.98	1.99	0.750			
0.2220	14208.00	4.0330	4.0329	0.8534	7.97	1.98	0.750			
0.2246	14373.40	4.0300	4.0301	0.8535	7.97	1.98	0.750			
0.2272	14540.54	4.0270	4.0270	0.8491	7.96	1.97	0.750			
0.2297	14701.27	4.0240	4.0241	0.8535	7.95	1.96	0.750			
0.2323	14866.58	4.0210	4.0210	0.8537	7.95	1.96	0.750			
0.2348	15027.09	4.0180	4.0179	0.8549	7.94	1.95	0.750			
0.2374	15192.32	4.0150	4.0150	0.8616	7.93	1.94	0.750			
0.2400	15359.21	4.0120	4.0121	0.8618	7.92	1.93	0.750			
0.2426	15526.25	4.0090	4.0091	0.8677	7.91	1.92	0.750			
0.2452	15692.73	4.0060	4.0060	0.8707	7.90	1.91	0.750			
0.2478	15860.86	4.0030	4.0028	0.8776	7.89	1.90	0.750			
0.2505	16030.04	4.0000	3.9998	0.8799	7.88	1.89	0.750			
0.2531	16197.37	3.9970	3.9971	0.8852	7.88	1.89	0.750			
0.2558	16370.75	3.9940	3.9940	0.8948	7.87	1.88	0.750			
0.2585	16543.19	3.9910	3.9910	0.9012	7.87	1.88	0.750			
0.2612	16715.35	3.9880	3.9879	0.9018	7.86	1.87	0.750			
0.2639	16888.22	3.9850	3.9851	0.9085	7.85	1.86	0.750			
0.2666	17062.98	3.9820	3.9820	0.9189	7.85	1.86	0.750			
0.2694	17240.74	3.9790	3.9789	0.9273	7.84	1.85	0.750			
0.2722	17420.16	3.9760	3.9760	0.9257	7.83	1.84	0.750			
0.2750	17600.09	3.9730	3.9730	0.9252	7.82	1.83	0.750			
0.2778	17776.81	3.9700	3.9701	0.9227	7.82	1.83	0.750			
0.2805	17951.63	3.9670	3.9670	0.9314	7.81	1.82	0.750			
0.2832	18126.77	3.9640	3.9641	0.9402	7.80	1.81	0.750			
0.2861	18309.09	3.9610	3.9606	0.9487	7.79	1.80	0.750			
0.2890	18493.22	3.9580	3.9582	0.9566	7.78	1.79	0.750			
0.2919	18680.79	3.9550	3.9552	0.9647	7.77	1.78	0.750			
0.2949	18870.48	3.9520	3.9520	0.9738	7.76	1.77	0.750			
0.2977	19055.66	3.9490	3.9488	0.9590	7.75	1.76	0.750			
0.3006	19236.33	3.9460	3.9461	0.9563	7.74	1.75	0.750			
0.3034	19419.65	3.9430	3.9430	0.9700	7.73	1.74	0.750			
0.3064	19608.82	3.9400	3.9399	0.9815	7.72	1.73	0.750			
0.3093	19794.92	3.9370	3.9369	0.9918	7.71	1.72	0.750			
0.3123	19987.44	3.9340	3.9341	1.0068	7.70	1.71	0.750			
0.3153	20182.28	3.9310	3.9310	1.0246	7.70	1.71	0.750			
0.3185	20383.61	3.9280	3.9280	1.0402	7.69	1.70	0.750			
0.3216	20584.55	3.9250	3.9250	1.0444	7.67	1.68	0.750			
0.3248	20787.24	3.9220	3.9219	1.0427	7.66	1.67	0.750			
0.3279	20988.63	3.9190	3.9192	1.0532	7.65	1.66	0.750			
0.3311	21188.07	3.9160	3.9160	1.0600	7.64	1.65	0.750			
0.3343	21392.13	3.9130	3.9130	1.0746	7.63	1.64	0.750			
0.3375	21600.34	3.9100	3.9100	1.0739	7.62	1.63	0.750			
0.3407	21806.64	3.9070	3.9071	1.0942	7.61	1.62	0.750			
0.3440	22018.93	3.9040	3.9042	1.1056	7.60	1.61	0.750			
0.3474	22234.97	3.9010	3.9008	1.1198	7.59	1.60	0.750			
0.3508	22448.56	3.8980	3.8980	1.1230	7.58	1.59	0.750			
0.3541	22663.02	3.8950	3.8951	1.1355	7.57	1.58	0.750			
0.3575	22882.56	3.8920	3.8921	1.1568	7.55	1.56	0.750			
0.3611	23107.86	3.8890	3.8889	1.1654	7.54	1.55	0.750			
0.3646	23332.95	3.8860	3.8860	1.1815	7.53	1.54	0.750			
0.3682	23563.06	3.8830	3.8831	1.1939	7.52	1.53	0.750			
0.3718	23793.55	3.8800	3.8799	1.2044	7.50	1.51	0.750			
0.3755	24028.86	3.8770	3.8769	1.2106	7.49	1.50	0.750			
0.3790	24255.89	3.8740	3.8741	1.2377	7.48	1.49	0.750			
0.3828	24496.03	3.8710	3.8711	1.2602	7.46	1.47	0.750			
0.3866	24743.27	3.8680	3.8679	1.2764	7.45	1.46	0.750	0.379	0.848	
0.3904	24988.27	3.8650	3.8654	1.2893	7.43	1.44	0.750			
0.3943	25238.39	3.8620	3.8621	1.3104	7.42	1.43	0.750			
0.3983	25491.37	3.8590	3.8588	1.3171	7.40	1.41	0.750			
0.4022	25739.40	3.8560	3.8557	1.3579	7.39	1.40	0.750			
0.4062	25997.73	3.8530	3.8533	1.3901	7.37	1.38	0.750			
0.4106	26277.56	3.8500	3.8498	1.4185	7.36	1.37	0.750			
0.4149	26553.50	3.8470	3.8472	1.4514	7.34	1.35	0.750			
0.4193	26838.38	3.8440	3.8442	1.4751	7.33	1.34	0.750			
0.4238	27125.76	3.8410	3.8409	1.4879	7.31	1.32	0.750			
0.4283	27409.54	3.8380	3.8381	1.5140	7.29	1.30	0.750			
0.4328	27697.34	3.8350	3.8351	1.5215	7.27	1.28	0.750			
0.4374	27996.64	3.8320	3.8320	1.5598	7.25	1.26	0.750			
0.4422	28298.44	3.8290	3.8291	1.5711	7.23	1.24	0.750			
0.4469	28600.93	3.8260	3.8260	1.5930	7.21	1.22	0.750			
0.4517	28909.85	3.8230	3.8232	1.6282	7.19	1.20	0.750			
0.4566	29224.93	3.8200	3.8201	1.6611	7.17	1.18	0.750			
0.4616	29539.86	3.8170	3.8169	1.6939	7.15	1.16	0.750			
0.4668	29874.44	3.8140	3.8138	1.7162	7.12	1.13	0.750			
0.4720	30206.99	3.8110	3.8110	1.7445	7.10	1.11	0.750			
0.4772	30543.34	3.8080	3.8081	1.7837	7.07	1.08	0.750			
0.4826	30888.92	3.8050	3.8048	1.7972	7.04	1.05	0.750			
0.4880	31232.56	3.8020	3.8019	1.8170	7.02	1.03	0.750			
0.4936	31591.94	3.7990	3.7991	1.8452	7.00	1.01	0.750			
0.4992	31945.93	3.7960	3.7959	1.8755	6.98	0.99	0.750			
0.5049	32315.00	3.7930	3.7930	1.8921	6.95	0.96	0.750			
0.5106	32677.63	3.7900	3.7899	1.8995	6.92	0.93	0.750			
0.5164	33046.61	3.7870	3.7871	1.9260	6.89	0.90	0.750			
0.5221	33414.29	3.7840	3.7839	1.9262	6.87	0.88	0.750			
0.5278	33780.93	3.7810	3.7811	1.9881	6.84	0.85	0.750			
0.5338	34162.19	3.7780	3.7780	2.0431	6.81	0.82	0.750			
0.5399	34556.75	3.7750	3.7748	2.0907	6.78	0.79	0.750			
0.5464	34968.35	3.7720	3.7721	2.1392	6.75	0.76	0.750			
0.5528	35382.39	3.7690	3.7691	2.1712	6.72	0.73	0.750			
0.5594	35801.18	3.7660	3.7658	2.2168	6.69	0.70	0.750			
0.5659	36219.20	3.7630	3.7630	2.2487	6.65	0.66	0.750			
0.5728	36657.36	3.7600	3.7599	2.3488	6.62	0.63	0.750			
0.5800	37120.14	3.7570	3.7569	2.4382	6.59	0.60	0.750			
0.5873	37585.51	3.7540	3.7540	2.5460	6.55	0.56	0.750			
0.5951	38088.10	3.7510	3.7509	2.6739	6.52	0.53	0.750			
0.6034	38619.00	3.7480	3.7481	2.8023	6.49	0.50	0.750			
0.6120	39166.68	3.7450	3.7450	2.9516	6.45	0.46	0.750			
0.6211	39750.61	3.7420	3.7420	3.1053	6.41	0.42	0.750			
0.6308	40369.63	3.7390	3.7391	3.1465	6.37	0.38	0.750			
0.6401	40964.67	3.7360	3.7360	3.0348	6.33	0.34	0.750			
0.6489	41527.76	3.7330	3.7331	2.9707	6.30	0.31	0.750			
0.6579	42107.69	3.7300	3.7301	2.8024	6.27	0.28	0.750			
0.6662	42639.57	3.7270	3.7273	2.5443	6.24	0.25	0.750			
0.6733	43091.44	3.7240	3.7241	2.2355	6.21	0.22	0.750			
0.6791	43461.31	3.7210	3.7212	1.9131	6.19	0.20	0.750			
0.6845	43806.60	3.7180	3.7177	1.6837	6.17	0.18	0.750			
0.6888	44085.57	3.7150	3.7151	1.5044	6.16	0.17	0.750			
0.6929	44347.13	3.7120	3.7120	1.3819	6.15	0.16	0.750			
0.6969	44599.47	3.7090	3.7089	1.2944	6.14	0.15	0.750			
0.7006	44837.34	3.7060	3.7061	1.2158	6.13	0.14	0.750			
0.7041	45062.49	3.7030	3.7031	1.1561	6.12	0.13	0.750			
0.7075	45278.57	3.7000	3.7000	1.1083	6.11	0.12	0.750			
0.7107	45485.66	3.6970	3.6968	1.0661	6.10	0.11	0.750			
0.7137	45677.53	3.6940	3.6940	1.0353	6.09	0.10	0.750			
0.7168	45872.23	3.6910	3.6911	1.0285	6.09	0.10	0.750			
0.7198	46067.43	3.6880	3.6879	1.0221	6.08	0.09	0.750			
0.7229	46265.25	3.6850	3.6850	1.0130	6.07	0.08	0.750			
0.7260	46461.14	3.6820	3.6819	0.9954	6.06	0.07	0.750			
0.7289	46652.59	3.6790	3.6792	0.9753	6.06	0.07	0.750			
0.7319	46840.02	3.6760	3.6759	0.9507	6.05	0.06	0.750			
0.7346	47016.85	3.6730	3.6731	0.9273	6.04	0.05	0.750			
0.7374	47190.61	3.6700	3.6700	0.9093	6.04	0.05	0.750			
0.7400	47360.30	3.6670	3.6670	0.8944	6.03	0.04	0.750			
0.7427	47530.75	3.6640	3.6639	0.8910	6.02	0.03	0.750			
0.7453	47700.27	3.6610	3.6611	0.8961	6.02	0.03	0.750			
0.7480	47870.98	3.6580	3.6578	0.8988	6.01	0.02	0.750			
0.7507	48045.67	3.6550	3.6550	0.9001	6.01	0.02	0.750			
0.7534	48217.82	3.6520	3.6520	0.9085	6.00	0.01	0.750			
0.7562	48394.59	3.6490	3.6490	0.9089	6.00	0.01	0.750			
0.7589	48571.66	3.6460	3.6459	0.9043	5.99	0.00	0.750			
0.7617	48748.82	3.6430	3.6430	0.8772	5.99	0.00	0.750			
0.7644	48918.63	3.6400	3.6401	0.8344	5.99	0.00	0.750			
0.7669	49083.20	3.6370	3.6370	0.7751	5.99	0.00	0.750			
0.7692	49230.16	3.6340	3.6341	0.6847	5.99	0.00	0.750			
0.7712	49354.40	3.6310	3.6311	0.5845	5.99	0.00	0.750			
0.7725	49440.51	3.6280	3.6285	0.4977	5.99	0.00	0.750			
0.7739	49527.18	3.6250	3.6255	0.3988	5.99	0.00	0.750			
0.7749	49595.11	3.6220	3.6219	0.3236	5.99	0.00	0.750			
0.7757	49647.51	3.6190	3.6185	0.2549	5.99	0.00	0.750			
0.7763	49682.81	3.6160	3.6143	0.1861	5.99	0.00	0.750			
0.7766	49703.05	3.5950	3.6018	-0.1327	5.99	0.00	0.750			
0.7766	49705.17	3.6130	3.5932	0.1276	5.99	0.00	0.750			
0.7769	49724.36	3.5980	3.3559	-0.0892	5.99	0.00	0.718			
0.7770	49726.06	3.6100	3.3347	0.0848	5.99	0.00	0.715			
0.7771	49737.32	3.6010	3.1946	-0.0457	5.99	0.00	0.696			
0.7772	49738.17	3.6070	3.1840	0.0413	5.99	0.00	0.694			
0.7772	49741.92	3.6040	3.1372	-0.0022	5.99	0.00	0.688			
