Ah_balance (normalized)	Ah_balance (mAh)	Voltage - fit (V)	Voltage -  interpolate (V)	dQ/dV (1/V)	Temperature (°C)	Temperature - diff (°C)	Current (C)	R_DC 0ms (mOhm)	R_DC 50ms (mOhm)	R_DC 50 ms PEC (mOhm)
0.0971	6216.54	4.1970	4.1970	0.6741	7.91	1.92	0.750			
0.0992	6346.45	4.1940	4.1941	0.6847	7.90	1.91	0.750			
0.1013	6481.01	4.1910	4.1908	0.6973	7.90	1.91	0.750			
0.1034	6616.10	4.1880	4.1880	0.7033	7.90	1.91	0.750			
0.1055	6752.85	4.1850	4.1850	0.7041	7.89	1.90	0.750			
0.1077	6890.00	4.1820	4.1820	0.7098	7.89	1.90	0.750			
0.1098	7025.04	4.1790	4.1790	0.7088	7.89	1.90	0.750			
0.1119	7161.05	4.1760	4.1760	0.7126	7.88	1.89	0.750			
0.1140	7297.21	4.1730	4.1729	0.7124	7.88	1.89	0.750			
0.1162	7435.33	4.1700	4.1700	0.7166	7.87	1.88	0.750			
0.1184	7574.48	4.1670	4.1670	0.7171	7.87	1.88	0.750			
0.1205	7712.42	4.1640	4.1641	0.7188	7.86	1.87	0.750			
0.1227	7850.06	4.1610	4.1610	0.7168	7.85	1.86	0.750			
0.1248	7987.36	4.1580	4.1580	0.7180	7.84	1.85	0.750			
0.1269	8123.81	4.1550	4.1551	0.7214	7.84	1.85	0.750			
0.1291	8263.07	4.1520	4.1520	0.7275	7.84	1.85	0.750			
0.1313	8404.24	4.1490	4.1489	0.7287	7.83	1.84	0.750			
0.1335	8544.59	4.1460	4.1460	0.7306	7.83	1.84	0.750			
0.1357	8684.35	4.1430	4.1432	0.7341	7.82	1.83	0.750			
0.1379	8826.16	4.1400	4.1400	0.7407	7.82	1.83	0.750			
0.1401	8968.83	4.1370	4.1370	0.7421	7.82	1.83	0.750			
0.1423	9110.17	4.1340	4.1340	0.7428	7.81	1.82	0.750			
0.1446	9253.91	4.1310	4.1311	0.7433	7.80	1.81	0.750			
0.1468	9398.10	4.1280	4.1280	0.7510	7.79	1.80	0.750			
0.1491	9541.79	4.1250	4.1250	0.7516	7.79	1.80	0.750			
0.1513	9685.88	4.1220	4.1217	0.7524	7.78	1.79	0.750			
0.1536	9830.87	4.1190	4.1190	0.7512	7.78	1.79	0.750			
0.1559	9976.16	4.1160	4.1161	0.7534	7.77	1.78	0.750			
0.1581	10120.67	4.1130	4.1130	0.7588	7.77	1.78	0.750			
0.1604	10266.83	4.1100	4.1100	0.7610	7.77	1.78	0.750			
0.1627	10409.86	4.1070	4.1069	0.7607	7.76	1.77	0.750			
0.1650	10557.87	4.1040	4.1041	0.7674	7.76	1.77	0.750			
0.1673	10708.68	4.1010	4.1009	0.7677	7.75	1.76	0.750			
0.1696	10855.79	4.0980	4.0980	0.7699	7.74	1.75	0.750			
0.1719	11001.87	4.0950	4.0951	0.7718	7.73	1.74	0.750			
0.1742	11148.79	4.0920	4.0921	0.7755	7.73	1.74	0.750			
0.1765	11298.61	4.0890	4.0887	0.7807	7.72	1.73	0.750			
0.1789	11448.87	4.0860	4.0859	0.7863	7.71	1.72	0.750			
0.1813	11601.76	4.0830	4.0831	0.7931	7.71	1.72	0.750			
0.1837	11754.69	4.0800	4.0801	0.7977	7.70	1.71	0.750			
0.1861	11907.84	4.0770	4.0770	0.7973	7.70	1.71	0.750			
0.1885	12061.79	4.0740	4.0739	0.8008	7.69	1.70	0.750			
0.1909	12214.70	4.0710	4.0710	0.8016	7.69	1.70	0.750			
0.1933	12369.82	4.0680	4.0681	0.8011	7.68	1.69	0.750			
0.1957	12523.31	4.0650	4.0650	0.8075	7.68	1.69	0.750			
0.1981	12677.73	4.0620	4.0620	0.8086	7.68	1.69	0.750			
0.2005	12833.45	4.0590	4.0590	0.8174	7.67	1.68	0.750			
0.2030	12990.55	4.0560	4.0560	0.8236	7.67	1.68	0.750			
0.2055	13150.36	4.0530	4.0530	0.8303	7.66	1.67	0.750			
0.2080	13310.64	4.0500	4.0500	0.8386	7.65	1.66	0.750			
0.2105	13473.23	4.0470	4.0470	0.8413	7.65	1.66	0.750			
0.2130	13635.13	4.0440	4.0439	0.8425	7.64	1.65	0.750			
0.2156	13797.62	4.0410	4.0411	0.8459	7.64	1.65	0.750			
0.2181	13959.52	4.0380	4.0381	0.8453	7.63	1.64	0.750			
0.2207	14122.31	4.0350	4.0349	0.8482	7.62	1.63	0.750			
0.2232	14284.31	4.0320	4.0320	0.8491	7.62	1.63	0.750			
0.2257	14447.38	4.0290	4.0289	0.8522	7.61	1.62	0.750			
0.2283	14612.13	4.0260	4.0260	0.8610	7.60	1.61	0.750			
0.2309	14778.38	4.0230	4.0230	0.8621	7.60	1.61	0.750			
0.2335	14943.65	4.0200	4.0200	0.8678	7.59	1.60	0.750			
0.2361	15111.55	4.0170	4.0170	0.8709	7.58	1.59	0.750			
0.2387	15277.96	4.0140	4.0139	0.8719	7.57	1.58	0.750			
0.2414	15447.72	4.0110	4.0110	0.8707	7.56	1.57	0.750			
0.2440	15614.40	4.0080	4.0080	0.8726	7.55	1.56	0.750			
0.2466	15780.29	4.0050	4.0050	0.8803	7.54	1.55	0.750			
0.2492	15950.20	4.0020	4.0021	0.8886	7.54	1.55	0.750			
0.2519	16119.21	3.9990	3.9988	0.8944	7.53	1.54	0.750			
0.2546	16294.37	3.9960	3.9960	0.8984	7.52	1.53	0.750			
0.2573	16467.04	3.9930	3.9931	0.9095	7.51	1.52	0.750			
0.2600	16642.69	3.9900	3.9900	0.9191	7.50	1.51	0.750			
0.2628	16820.27	3.9870	3.9870	0.9199	7.49	1.50	0.750			
0.2656	16998.53	3.9840	3.9840	0.9164	7.49	1.50	0.750			
0.2683	17174.34	3.9810	3.9811	0.9239	7.48	1.49	0.750			
0.2711	17351.88	3.9780	3.9781	0.9271	7.48	1.49	0.750			
0.2739	17530.61	3.9750	3.9749	0.9368	7.47	1.48	0.750			
0.2767	17707.31	3.9720	3.9719	0.9360	7.47	1.48	0.750			
0.2795	17889.15	3.9690	3.9690	0.9413	7.46	1.47	0.750			
0.2824	18072.00	3.9660	3.9660	0.9527	7.46	1.47	0.750			
0.2853	18256.53	3.9630	3.9630	0.9548	7.45	1.46	0.750			
0.2881	18437.66	3.9600	3.9599	0.9559	7.44	1.45	0.750			
0.2910	18623.83	3.9570	3.9570	0.9572	7.43	1.44	0.750			
0.2938	18805.80	3.9540	3.9541	0.9684	7.42	1.43	0.750			
0.2968	18992.69	3.9510	3.9510	0.9789	7.41	1.42	0.750			
0.2997	19181.20	3.9480	3.9480	0.9850	7.40	1.41	0.750			
0.3027	19372.82	3.9450	3.9451	0.9941	7.39	1.40	0.750			
0.3057	19566.27	3.9420	3.9420	1.0016	7.38	1.39	0.750			
0.3087	19757.91	3.9390	3.9390	1.0064	7.37	1.38	0.750			
0.3118	19953.24	3.9360	3.9360	1.0140	7.36	1.37	0.750			
0.3148	20147.99	3.9330	3.9329	1.0087	7.35	1.36	0.750			
0.3178	20340.98	3.9300	3.9300	1.0219	7.34	1.35	0.750			
0.3209	20536.95	3.9270	3.9271	1.0298	7.33	1.34	0.750			
0.3240	20734.65	3.9240	3.9241	1.0436	7.32	1.33	0.750			
0.3272	20937.64	3.9210	3.9208	1.0512	7.31	1.32	0.750			
0.3303	21139.66	3.9180	3.9181	1.0599	7.29	1.30	0.750			
0.3335	21344.85	3.9150	3.9150	1.0719	7.28	1.29	0.750			
0.3367	21551.66	3.9120	3.9121	1.0854	7.27	1.28	0.750			
0.3400	21761.02	3.9090	3.9090	1.0849	7.25	1.26	0.750			
0.3433	21969.26	3.9060	3.9060	1.1019	7.24	1.25	0.750			
0.3466	22181.61	3.9030	3.9030	1.1135	7.23	1.24	0.750			
0.3500	22398.66	3.9000	3.9000	1.1305	7.22	1.23	0.750			
0.3534	22615.95	3.8970	3.8970	1.1348	7.20	1.21	0.750			
0.3568	22834.30	3.8940	3.8940	1.1457	7.19	1.20	0.750			
0.3602	23054.29	3.8910	3.8911	1.1622	7.17	1.18	0.750			
0.3637	23279.77	3.8880	3.8878	1.1780	7.16	1.17	0.750			
0.3672	23501.18	3.8850	3.8850	1.1822	7.15	1.16	0.750			
0.3708	23730.30	3.8820	3.8821	1.2067	7.14	1.15	0.750			
0.3745	23965.66	3.8790	3.8791	1.2213	7.13	1.14	0.750			
0.3781	24201.50	3.8760	3.8760	1.2389	7.12	1.13	0.750	0.422	0.815	
0.3819	24441.55	3.8730	3.8732	1.2609	7.10	1.11	0.750			
0.3857	24685.09	3.8700	3.8701	1.2803	7.08	1.09	0.750			
0.3896	24936.42	3.8670	3.8668	1.2876	7.07	1.08	0.750			
0.3935	25181.58	3.8640	3.8640	1.2901	7.05	1.06	0.750			
0.3974	25432.16	3.8610	3.8611	1.3064	7.03	1.04	0.750			
0.4013	25684.31	3.8580	3.8579	1.3179	7.01	1.02	0.750			
0.4052	25935.83	3.8550	3.8551	1.3296	7.00	1.01	0.750			
0.4093	26193.10	3.8520	3.8520	1.3451	6.98	0.99	0.750			
0.4133	26452.25	3.8490	3.8488	1.3590	6.97	0.98	0.750			
0.4174	26713.54	3.8460	3.8460	1.3770	6.96	0.97	0.750			
0.4215	26978.26	3.8430	3.8431	1.4002	6.95	0.96	0.750			
0.4258	27251.33	3.8400	3.8398	1.4110	6.93	0.94	0.750			
0.4301	27523.35	3.8370	3.8369	1.4172	6.91	0.92	0.750			
0.4344	27798.47	3.8340	3.8342	1.4360	6.88	0.89	0.750			
0.4387	28075.52	3.8310	3.8307	1.4533	6.86	0.87	0.750			
0.4430	28353.22	3.8280	3.8281	1.4645	6.84	0.85	0.750			
0.4475	28638.80	3.8250	3.8250	1.4764	6.82	0.83	0.750			
0.4519	28923.05	3.8220	3.8218	1.4890	6.81	0.82	0.750			
0.4564	29209.10	3.8190	3.8192	1.5094	6.79	0.80	0.750			
0.4610	29503.99	3.8160	3.8160	1.5232	6.77	0.78	0.750			
0.4656	29797.01	3.8130	3.8130	1.5328	6.75	0.76	0.750			
0.4701	30089.33	3.8100	3.8101	1.5452	6.73	0.74	0.750			
0.4748	30390.27	3.8070	3.8070	1.5688	6.71	0.72	0.750			
0.4796	30695.57	3.8040	3.8041	1.6003	6.69	0.70	0.750			
0.4844	31003.04	3.8010	3.8010	1.6208	6.67	0.68	0.750			
0.4893	31314.45	3.7980	3.7980	1.6490	6.66	0.67	0.750			
0.4944	31640.61	3.7950	3.7951	1.6783	6.63	0.64	0.750			
0.4994	31962.88	3.7920	3.7919	1.7014	6.61	0.62	0.750			
0.5046	32291.86	3.7890	3.7892	1.7252	6.58	0.59	0.750			
0.5098	32626.86	3.7860	3.7861	1.7595	6.56	0.57	0.750			
0.5151	32963.48	3.7830	3.7829	1.7958	6.53	0.54	0.750			
0.5204	33308.00	3.7800	3.7800	1.8483	6.51	0.52	0.750			
0.5260	33663.47	3.7770	3.7771	1.9457	6.48	0.49	0.750			
0.5320	34045.32	3.7740	3.7740	2.0407	6.46	0.47	0.750			
0.5382	34443.79	3.7710	3.7709	2.1348	6.44	0.45	0.750			
0.5448	34868.06	3.7680	3.7681	2.2091	6.42	0.43	0.750			
0.5516	35302.62	3.7650	3.7650	2.2821	6.40	0.41	0.750			
0.5585	35743.95	3.7620	3.7620	2.3489	6.37	0.38	0.750			
0.5656	36197.67	3.7590	3.7590	2.4230	6.33	0.34	0.750			
0.5730	36669.59	3.7560	3.7560	2.5198	6.31	0.32	0.750			
0.5807	37166.37	3.7530	3.7529	2.6544	6.28	0.29	0.750			
0.5888	37680.45	3.7500	3.7500	2.7718	6.24	0.25	0.750			
0.5974	38235.62	3.7470	3.7470	2.8481	6.22	0.23	0.750			
0.6062	38794.35	3.7440	3.7441	2.8574	6.19	0.20	0.750			
0.6147	39340.81	3.7410	3.7410	2.7536	6.17	0.18	0.750			
0.6228	39859.76	3.7380	3.7383	2.5770	6.15	0.16	0.750			
0.6303	40338.76	3.7350	3.7350	2.4150	6.13	0.14	0.750			
0.6372	40783.46	3.7320	3.7319	2.2022	6.12	0.13	0.750			
0.6436	41187.32	3.7290	3.7291	2.0120	6.11	0.12	0.750			
0.6493	41552.86	3.7260	3.7260	1.7957	6.10	0.11	0.750			
0.6542	41868.18	3.7230	3.7230	1.6267	6.09	0.10	0.750			
0.6587	42154.85	3.7200	3.7199	1.4724	6.08	0.09	0.750			
0.6627	42412.65	3.7170	3.7169	1.3589	6.07	0.08	0.750			
0.6665	42656.21	3.7140	3.7141	1.2780	6.07	0.08	0.750			
0.6702	42895.46	3.7110	3.7110	1.2316	6.06	0.07	0.750			
0.6738	43123.03	3.7080	3.7081	1.1937	6.05	0.06	0.750			
0.6773	43348.63	3.7050	3.7049	1.1615	6.05	0.06	0.750			
0.6808	43568.92	3.7020	3.7021	1.1363	6.04	0.05	0.750			
0.6841	43785.23	3.6990	3.6991	1.1175	6.02	0.03	0.750			
0.6875	43998.19	3.6960	3.6960	1.0982	6.01	0.02	0.750			
0.6908	44208.19	3.6930	3.6929	1.0646	6.01	0.02	0.750			
0.6939	44409.34	3.6900	3.6900	1.0484	6.00	0.01	0.750			
0.6970	44607.72	3.6870	3.6872	1.0308	6.00	0.01	0.750			
0.7001	44804.65	3.6840	3.6839	1.0127	5.99	0.00	0.750			
0.7031	44997.96	3.6810	3.6810	0.9889	5.99	0.00	0.750			
0.7060	45183.46	3.6780	3.6782	0.9717	5.99	0.00	0.750			
0.7089	45367.91	3.6750	3.6750	0.9616	5.99	0.00	0.750			
0.7118	45552.27	3.6720	3.6720	0.9578	5.99	0.00	0.750			
0.7145	45730.73	3.6690	3.6690	0.9455	5.99	-0.00	0.750			
0.7174	45911.81	3.6660	3.6661	0.9475	5.99	-0.00	0.750			
0.7202	46094.84	3.6630	3.6630	0.9522	5.98	-0.01	0.750			
0.7231	46278.35	3.6600	3.6600	0.9564	5.98	-0.01	0.750			
0.7260	46461.50	3.6570	3.6568	0.9583	5.98	-0.01	0.750			
0.7288	46646.27	3.6540	3.6540	0.9607	5.98	-0.01	0.750			
0.7318	46832.41	3.6510	3.6510	0.9606	5.98	-0.01	0.750			
0.7347	47019.26	3.6480	3.6480	0.9550	5.97	-0.02	0.750			
0.7376	47204.83	3.6450	3.6449	0.9295	5.97	-0.02	0.750			
0.7404	47386.45	3.6420	3.6420	0.8904	5.97	-0.02	0.750			
0.7432	47562.01	3.6390	3.6389	0.8214	5.98	-0.01	0.750			
0.7456	47716.40	3.6360	3.6361	0.7311	5.98	-0.01	0.750			
0.7477	47851.77	3.6330	3.6331	0.6325	5.98	-0.01	0.750			
0.7494	47960.11	3.6300	3.6300	0.5261	5.99	-0.00	0.750			
0.7508	48048.56	3.6270	3.6269	0.4156	5.99	-0.00	0.750			
0.7516	48103.66	3.6240	3.6245	0.3620	5.99	0.00	0.750			
0.7525	48161.71	3.6210	3.6211	0.2843	5.99	0.00	0.750			
0.7532	48207.58	3.6180	3.6174	0.2299	5.99	0.00	0.750			
0.7537	48237.57	3.6150	3.6132	0.1710	5.99	0.00	0.750			
0.7540	48258.93	3.5850	3.5773	-0.1204	5.99	0.00	0.750			
0.7541	48261.32	3.6120	3.6399	0.1296	5.99	0.00	0.746			
0.7543	48278.30	3.6090	5.3231	0.0952	6.00	0.01	0.685			
0.7544	48279.46	3.5880	5.4381	-0.0935	6.00	0.01	0.681			
0.7546	48293.99	3.6060	6.8777	0.0682	6.00	0.01	0.629			
0.7546	48294.82	3.5910	6.9598	-0.0665	6.00	0.01	0.626			
0.7548	48304.51	3.6030	7.9195	0.0413	6.00	0.01	0.591			
0.7548	48305.01	3.5940	7.9688	-0.0396	6.00	0.01	0.590			
0.7548	48309.85	3.6000	8.4486	0.0143	6.00	0.01	0.572			
0.7548	48310.02	3.5970	8.4651	-0.0126	6.00	0.01	0.572			
