Ah_balance (normalized)	Ah_balance (mAh)	Voltage - fit (V)	Voltage -  interpolate (V)	dQ/dV (1/V)	Temperature (°C)	Temperature - diff (°C)	Current (C)	R_DC 0ms (mOhm)	R_DC 50ms (mOhm)	R_DC 50 ms PEC (mOhm)
0.0001	9.06	4.1640	4.1637	-0.1018	25.64	0.00	-0.750			
0.0005	33.61	4.1610	4.1610	-0.1536	25.64	0.00	-0.750			
0.0011	67.58	4.1580	4.1579	-0.2054	25.64	0.00	-0.750			
0.0018	112.88	4.1550	4.1550	-0.2557	25.64	0.00	-0.750			
0.0026	167.23	4.1520	4.1520	-0.3028	25.64	0.00	-0.750			
0.0036	231.52	4.1490	4.1490	-0.3466	25.64	0.00	-0.750			
0.0047	302.77	4.1460	4.1459	-0.3901	25.64	0.00	-0.750			
0.0060	381.24	4.1430	4.1432	-0.4309	25.64	-0.00	-0.750			
0.0073	467.29	4.1400	4.1400	-0.4719	25.64	-0.00	-0.750			
0.0088	561.74	4.1370	4.1369	-0.5123	25.64	-0.00	-0.750			
0.0104	664.91	4.1340	4.1340	-0.5520	25.64	-0.00	-0.750			
0.0121	774.79	4.1310	4.1311	-0.5978	25.63	-0.01	-0.750			
0.0140	897.14	4.1280	4.1279	-0.6370	25.63	-0.01	-0.750			
0.0160	1026.66	4.1250	4.1248	-0.6656	25.63	-0.01	-0.750			
0.0181	1159.53	4.1220	4.1221	-0.6801	25.63	-0.01	-0.750			
0.0202	1295.15	4.1190	4.1192	-0.6869	25.63	-0.01	-0.750	0.372	0.491	
0.0223	1426.74	4.1160	4.1159	-0.6928	25.63	-0.01	-0.750			
0.0243	1557.44	4.1130	4.1130	-0.6939	25.63	-0.01	-0.750			
0.0264	1687.24	4.1100	4.1101	-0.7006	25.63	-0.01	-0.750			
0.0285	1823.54	4.1070	4.1069	-0.7128	25.63	-0.01	-0.750			
0.0307	1962.99	4.1040	4.1041	-0.7196	25.63	-0.01	-0.750			
0.0328	2101.05	4.1010	4.1011	-0.7367	25.63	-0.01	-0.750			
0.0351	2245.87	4.0980	4.0980	-0.7507	25.63	-0.01	-0.750			
0.0374	2390.78	4.0950	4.0948	-0.7504	25.64	-0.00	-0.750			
0.0396	2536.46	4.0920	4.0919	-0.7525	25.64	-0.00	-0.750	0.386	0.486	
0.0419	2681.07	4.0890	4.0889	-0.7559	25.64	-0.00	-0.750			
0.0442	2826.68	4.0860	4.0860	-0.7583	25.64	0.00	-0.750			
0.0464	2970.73	4.0830	4.0830	-0.7665	25.64	0.00	-0.750			
0.0487	3116.90	4.0800	4.0799	-0.7680	25.64	0.00	-0.750			
0.0510	3262.97	4.0770	4.0771	-0.7788	25.64	0.00	-0.750			
0.0534	3417.03	4.0740	4.0740	-0.7930	25.64	0.00	-0.750			
0.0559	3575.44	4.0710	4.0710	-0.7913	25.64	0.00	-0.750			
0.0582	3727.38	4.0680	4.0678	-0.7812	25.65	0.01	-0.750			
0.0606	3875.97	4.0650	4.0653	-0.7804	25.65	0.01	-0.750	0.412	0.493	
0.0629	4023.79	4.0620	4.0619	-0.7736	25.66	0.02	-0.750			
0.0651	4169.59	4.0590	4.0588	-0.7751	25.66	0.02	-0.750			
0.0674	4314.88	4.0560	4.0559	-0.7776	25.67	0.03	-0.750			
0.0698	4466.94	4.0530	4.0530	-0.7954	25.67	0.03	-0.750			
0.0722	4621.27	4.0500	4.0500	-0.8073	25.67	0.03	-0.750			
0.0747	4779.51	4.0470	4.0469	-0.8080	25.68	0.04	-0.750			
0.0771	4934.34	4.0440	4.0441	-0.8069	25.68	0.04	-0.750			
0.0796	5091.62	4.0410	4.0410	-0.8064	25.68	0.04	-0.750	0.369	0.491	
0.0820	5245.61	4.0380	4.0379	-0.8003	25.68	0.04	-0.750			
0.0843	5396.43	4.0350	4.0350	-0.7969	25.68	0.04	-0.750			
0.0867	5547.69	4.0320	4.0321	-0.7974	25.68	0.04	-0.750			
0.0891	5702.06	4.0290	4.0289	-0.8005	25.69	0.05	-0.750			
0.0915	5856.77	4.0260	4.0259	-0.8055	25.69	0.05	-0.750			
0.0939	6010.45	4.0230	4.0231	-0.8136	25.69	0.05	-0.750			
0.0964	6169.18	4.0200	4.0200	-0.8159	25.70	0.06	-0.750			
0.0989	6327.27	4.0170	4.0168	-0.8154	25.70	0.06	-0.750	0.379	0.491	
0.1013	6484.17	4.0140	4.0141	-0.8068	25.70	0.06	-0.750			
0.1037	6638.47	4.0110	4.0109	-0.8062	25.71	0.07	-0.750			
0.1061	6792.15	4.0080	4.0083	-0.8041	25.71	0.07	-0.750			
0.1085	6943.17	4.0050	4.0049	-0.8022	25.71	0.07	-0.750			
0.1108	7094.15	4.0020	4.0021	-0.8304	25.72	0.08	-0.750			
0.1134	7258.58	3.9990	3.9989	-0.8481	25.72	0.08	-0.750			
0.1161	7429.61	3.9960	3.9957	-0.8471	25.73	0.09	-0.750			
0.1187	7594.74	3.9930	3.9930	-0.8426	25.73	0.09	-0.750			
0.1212	7755.95	3.9900	3.9900	-0.8446	25.73	0.09	-0.750	0.386	0.496	
0.1237	7918.87	3.9870	3.9869	-0.8358	25.73	0.09	-0.750			
0.1262	8074.91	3.9840	3.9837	-0.8185	25.74	0.10	-0.750			
0.1286	8227.40	3.9810	3.9810	-0.8106	25.74	0.10	-0.750			
0.1310	8384.90	3.9780	3.9783	-0.8190	25.74	0.10	-0.750			
0.1335	8541.98	3.9750	3.9749	-0.8253	25.74	0.10	-0.750			
0.1359	8697.43	3.9720	3.9719	-0.8301	25.75	0.11	-0.750			
0.1384	8857.93	3.9690	3.9690	-0.8343	25.75	0.11	-0.750			
0.1410	9021.45	3.9660	3.9661	-0.8456	25.76	0.12	-0.750	0.359	0.480	
0.1435	9185.87	3.9630	3.9631	-0.8472	25.76	0.12	-0.750			
0.1461	9349.27	3.9600	3.9601	-0.8489	25.76	0.12	-0.750			
0.1486	9510.66	3.9570	3.9569	-0.8511	25.76	0.12	-0.750			
0.1511	9670.22	3.9540	3.9540	-0.8644	25.77	0.13	-0.750			
0.1537	9838.46	3.9510	3.9509	-0.8690	25.77	0.13	-0.750			
0.1564	10010.03	3.9480	3.9480	-0.8632	25.77	0.13	-0.750			
0.1590	10179.10	3.9450	3.9449	-0.8629	25.78	0.14	-0.750	0.385	0.494	
0.1616	10344.15	3.9420	3.9419	-0.8627	25.78	0.14	-0.750			
0.1642	10506.86	3.9390	3.9388	-0.8549	25.78	0.14	-0.750			
0.1667	10669.30	3.9360	3.9359	-0.8489	25.79	0.15	-0.750			
0.1692	10830.31	3.9330	3.9329	-0.8511	25.79	0.15	-0.750			
0.1718	10995.97	3.9300	3.9301	-0.8624	25.79	0.15	-0.750			
0.1744	11161.49	3.9270	3.9269	-0.8643	25.79	0.15	-0.750			
0.1769	11324.43	3.9240	3.9240	-0.8617	25.80	0.16	-0.750			
0.1796	11493.35	3.9210	3.9210	-0.8690	25.80	0.16	-0.750	0.374	0.488	
0.1822	11659.55	3.9180	3.9180	-0.8732	25.80	0.16	-0.750			
0.1848	11828.15	3.9150	3.9150	-0.8848	25.80	0.16	-0.750			
0.1875	11997.46	3.9120	3.9118	-0.8869	25.81	0.17	-0.750			
0.1901	12167.32	3.9090	3.9090	-0.8947	25.81	0.17	-0.750			
0.1928	12341.95	3.9060	3.9062	-0.9025	25.81	0.17	-0.750			
0.1956	12517.23	3.9030	3.9029	-0.9055	25.81	0.17	-0.750			
0.1983	12693.16	3.9000	3.8999	-0.8981	25.82	0.18	-0.750			
0.2010	12865.32	3.8970	3.8971	-0.8855	25.82	0.18	-0.750	0.387	0.487	
0.2037	13033.99	3.8940	3.8939	-0.8720	25.83	0.19	-0.750			
0.2062	13199.49	3.8910	3.8911	-0.8749	25.83	0.19	-0.750			
0.2088	13361.89	3.8880	3.8881	-0.8796	25.83	0.19	-0.750			
0.2114	13532.05	3.8850	3.8848	-0.9009	25.84	0.20	-0.750			
0.2142	13710.56	3.8820	3.8818	-0.9106	25.84	0.20	-0.750			
0.2171	13892.56	3.8790	3.8791	-0.9125	25.85	0.21	-0.750			
0.2198	14068.36	3.8760	3.8760	-0.9067	25.85	0.21	-0.750	0.394	0.484	
0.2226	14244.58	3.8730	3.8729	-0.9091	25.85	0.21	-0.750			
0.2252	14415.00	3.8700	3.8699	-0.8994	25.86	0.22	-0.750			
0.2278	14581.29	3.8670	3.8668	-0.8854	25.86	0.22	-0.750			
0.2305	14750.43	3.8640	3.8643	-0.8924	25.86	0.22	-0.750			
0.2332	14926.76	3.8610	3.8610	-0.9070	25.86	0.22	-0.750			
0.2360	15101.65	3.8580	3.8579	-0.9010	25.86	0.22	-0.750			
0.2387	15274.04	3.8550	3.8549	-0.8930	25.87	0.23	-0.750			
0.2413	15445.51	3.8520	3.8521	-0.8971	25.87	0.23	-0.750	0.381	0.484	
0.2440	15617.05	3.8490	3.8490	-0.8952	25.87	0.23	-0.750			
0.2467	15788.11	3.8460	3.8460	-0.9020	25.88	0.24	-0.750			
0.2494	15958.93	3.8430	3.8430	-0.8994	25.88	0.24	-0.750			
0.2521	16134.99	3.8400	3.8400	-0.9108	25.88	0.24	-0.750			
0.2549	16312.41	3.8370	3.8371	-0.9181	25.89	0.25	-0.750			
0.2577	16489.81	3.8340	3.8339	-0.9181	25.89	0.25	-0.750			
0.2604	16665.54	3.8310	3.8311	-0.9118	25.89	0.25	-0.750	0.390	0.482	
0.2631	16839.54	3.8280	3.8280	-0.9063	25.89	0.25	-0.750			
0.2658	17010.30	3.8250	3.8250	-0.9078	25.89	0.25	-0.750			
0.2685	17184.14	3.8220	3.8221	-0.9184	25.89	0.25	-0.750			
0.2713	17361.52	3.8190	3.8189	-0.9281	25.89	0.25	-0.750			
0.2741	17543.91	3.8160	3.8159	-0.9238	25.89	0.25	-0.750			
0.2769	17722.96	3.8130	3.8131	-0.9218	25.90	0.26	-0.750			
0.2797	17902.17	3.8100	3.8102	-0.9146	25.90	0.26	-0.750	0.380	0.488	
0.2824	18076.60	3.8070	3.8068	-0.8999	25.90	0.26	-0.750			
0.2851	18243.23	3.8040	3.8040	-0.8977	25.90	0.26	-0.750			
0.2877	18414.06	3.8010	3.8011	-0.9023	25.91	0.27	-0.750			
0.2904	18586.31	3.7980	3.7978	-0.9177	25.91	0.27	-0.750			
0.2932	18766.57	3.7950	3.7953	-0.9256	25.91	0.27	-0.750			
0.2960	18945.38	3.7920	3.7920	-0.9325	25.91	0.27	-0.750			
0.2989	19127.40	3.7890	3.7890	-0.9350	25.92	0.28	-0.750	0.366	0.489	
0.3017	19308.49	3.7860	3.7860	-0.9298	25.92	0.28	-0.750			
0.3045	19487.21	3.7830	3.7830	-0.9348	25.93	0.29	-0.750			
0.3073	19665.46	3.7800	3.7800	-0.9280	25.93	0.29	-0.750			
0.3100	19841.72	3.7770	3.7769	-0.9244	25.93	0.29	-0.750			
0.3129	20022.76	3.7740	3.7741	-0.9283	25.92	0.28	-0.750			
0.3156	20198.51	3.7710	3.7709	-0.9229	25.92	0.28	-0.750			
0.3184	20377.07	3.7680	3.7681	-0.9270	25.92	0.28	-0.750			
0.3212	20554.71	3.7650	3.7652	-0.9271	25.92	0.28	-0.750	0.369	0.484	
0.3239	20730.48	3.7620	3.7618	-0.9283	25.92	0.28	-0.750			
0.3267	20910.14	3.7590	3.7591	-0.9286	25.93	0.29	-0.750			
0.3295	21087.72	3.7560	3.7558	-0.9300	25.93	0.29	-0.750			
0.3323	21269.61	3.7530	3.7529	-0.9556	25.93	0.29	-0.750			
0.3352	21452.94	3.7500	3.7499	-0.9547	25.93	0.29	-0.750			
0.3380	21635.19	3.7470	3.7469	-0.9596	25.93	0.29	-0.750			
0.3409	21819.09	3.7440	3.7443	-0.9618	25.93	0.29	-0.750	0.376	0.487	
0.3439	22008.13	3.7410	3.7410	-0.9701	25.93	0.29	-0.750			
0.3468	22195.73	3.7380	3.7378	-0.9837	25.93	0.29	-0.750			
0.3497	22380.81	3.7350	3.7351	-0.9899	25.93	0.29	-0.750			
0.3527	22573.88	3.7320	3.7319	-1.0055	25.93	0.29	-0.750			
0.3558	22770.20	3.7290	3.7292	-1.0161	25.93	0.29	-0.750			
0.3588	22965.83	3.7260	3.7259	-1.0253	25.93	0.29	-0.750	0.397	0.489	
0.3620	23166.08	3.7230	3.7230	-1.0244	25.92	0.28	-0.750			
0.3650	23362.60	3.7200	3.7200	-1.0236	25.92	0.28	-0.750			
0.3680	23555.09	3.7170	3.7173	-1.0401	25.92	0.28	-0.750			
0.3711	23752.81	3.7140	3.7140	-1.0561	25.92	0.28	-0.750			
0.3744	23960.32	3.7110	3.7107	-1.0754	25.91	0.27	-0.750			
0.3777	24170.17	3.7080	3.7079	-1.0860	25.91	0.27	-0.750			
0.3810	24380.91	3.7050	3.7055	-1.1123	25.91	0.27	-0.750	0.370	0.494	
0.3843	24596.99	3.7020	3.7019	-1.1287	25.91	0.27	-0.750			
0.3877	24811.12	3.6990	3.6990	-1.1407	25.90	0.26	-0.750			
0.3911	25029.95	3.6960	3.6959	-1.1616	25.90	0.26	-0.750			
0.3947	25259.42	3.6930	3.6929	-1.1845	25.90	0.26	-0.750			
0.3983	25489.33	3.6900	3.6900	-1.1958	25.89	0.25	-0.750			
0.4019	25720.92	3.6870	3.6870	-1.2172	25.89	0.25	-0.750	0.403	0.486	
0.4055	25949.95	3.6840	3.6838	-1.2362	25.88	0.24	-0.750			
0.4093	26192.73	3.6810	3.6809	-1.2690	25.87	0.23	-0.750			
0.4131	26439.07	3.6780	3.6778	-1.2806	25.86	0.22	-0.750			
0.4170	26691.08	3.6750	3.6751	-1.3196	25.85	0.21	-0.750			
0.4210	26945.48	3.6720	3.6723	-1.3474	25.84	0.20	-0.750	0.394	0.484	
0.4251	27207.63	3.6690	3.6688	-1.3677	25.83	0.19	-0.750			
0.4293	27472.95	3.6660	3.6659	-1.3814	25.82	0.18	-0.750			
0.4334	27737.33	3.6630	3.6629	-1.3897	25.81	0.17	-0.750			
0.4377	28010.67	3.6600	3.6601	-1.4304	25.80	0.16	-0.750			
0.4420	28286.14	3.6570	3.6571	-1.4446	25.79	0.15	-0.750	0.387	0.499	
0.4462	28558.74	3.6540	3.6538	-1.4624	25.78	0.14	-0.750			
0.4506	28837.75	3.6510	3.6512	-1.5041	25.77	0.13	-0.750			
0.4553	29138.34	3.6480	3.6480	-1.5377	25.76	0.12	-0.750			
0.4600	29436.81	3.6450	3.6449	-1.5860	25.75	0.11	-0.750	0.382	0.503	
0.4648	29745.86	3.6420	3.6420	-1.6268	25.73	0.09	-0.750			
0.4697	30062.47	3.6390	3.6390	-1.6505	25.71	0.07	-0.750			
0.4748	30386.63	3.6360	3.6358	-1.6809	25.70	0.06	-0.750			
0.4799	30713.07	3.6330	3.6328	-1.7038	25.68	0.04	-0.750	0.382	0.508	
0.4850	31039.47	3.6300	3.6300	-1.7368	25.67	0.03	-0.750			
0.4903	31381.06	3.6270	3.6272	-1.7619	25.66	0.02	-0.750			
0.4955	31713.27	3.6240	3.6237	-1.7888	25.64	0.00	-0.750			
0.5010	32061.59	3.6210	3.6210	-1.8165	25.63	-0.01	-0.750	0.380	0.509	
0.5065	32414.04	3.6180	3.6180	-1.8605	25.62	-0.02	-0.750			
0.5122	32780.58	3.6150	3.6150	-1.8779	25.60	-0.04	-0.750			
0.5178	33136.43	3.6120	3.6120	-1.8920	25.58	-0.06	-0.750	0.385	0.513	
0.5235	33503.47	3.6090	3.6092	-1.9354	25.56	-0.08	-0.750			
0.5294	33881.35	3.6060	3.6058	-1.9766	25.53	-0.11	-0.750			
0.5353	34260.08	3.6030	3.6029	-1.9985	25.53	-0.11	-0.750			
0.5414	34648.67	3.6000	3.6001	-2.0314	25.52	-0.12	-0.750	0.403	0.519	
0.5475	35039.80	3.5970	3.5971	-2.0579	25.51	-0.13	-0.750			
0.5537	35439.85	3.5940	3.5940	-2.1080	25.49	-0.15	-0.750			
0.5600	35842.89	3.5910	3.5909	-2.1544	25.48	-0.16	-0.750	0.387	0.515	
0.5666	36264.38	3.5880	3.5880	-2.1862	25.46	-0.18	-0.750			
0.5733	36691.89	3.5850	3.5849	-2.2109	25.45	-0.19	-0.750			
0.5801	37123.86	3.5820	3.5821	-2.2400	25.43	-0.21	-0.750	0.403	0.521	
0.5868	37557.95	3.5790	3.5790	-2.2537	25.42	-0.22	-0.750			
0.5937	37994.96	3.5760	3.5759	-2.2644	25.41	-0.23	-0.750			
0.6003	38418.77	3.5730	3.5730	-2.2796	25.40	-0.24	-0.750	0.399	0.527	
0.6073	38865.16	3.5700	3.5701	-2.3125	25.40	-0.24	-0.750			
0.6143	39316.53	3.5670	3.5668	-2.3106	25.39	-0.25	-0.750			
0.6213	39763.05	3.5640	3.5640	-2.3099	25.37	-0.27	-0.750	0.407	0.523	
0.6283	40208.85	3.5610	3.5609	-2.2897	25.36	-0.28	-0.750			
0.6351	40646.41	3.5580	3.5580	-2.2787	25.36	-0.28	-0.750			
0.6418	41075.45	3.5550	3.5553	-2.2904	25.36	-0.28	-0.750	0.392	0.538	
0.6487	41515.68	3.5520	3.5520	-2.2946	25.35	-0.29	-0.750			
0.6556	41961.00	3.5490	3.5487	-2.2729	25.34	-0.30	-0.750			
0.6626	42404.78	3.5460	3.5462	-2.2583	25.34	-0.30	-0.750	0.392	0.538	
0.6695	42847.89	3.5430	3.5429	-2.2422	25.34	-0.30	-0.750			
0.6762	43275.34	3.5400	3.5397	-2.1853	25.33	-0.31	-0.750			
0.6825	43678.20	3.5370	3.5371	-2.1065	25.33	-0.31	-0.750	0.373	0.548	
0.6887	44077.25	3.5340	3.5340	-2.0771	25.33	-0.31	-0.750			
0.6948	44469.86	3.5310	3.5310	-2.0437	25.33	-0.31	-0.750			
0.7010	44861.62	3.5280	3.5280	-2.0268	25.34	-0.30	-0.750	0.390	0.547	
0.7070	45245.32	3.5250	3.5251	-1.9621	25.34	-0.30	-0.750			
0.7129	45627.12	3.5220	3.5220	-1.9206	25.34	-0.30	-0.750			
0.7186	45992.31	3.5190	3.5191	-1.8761	25.34	-0.30	-0.750	0.398	0.544	
0.7241	46345.37	3.5160	3.5157	-1.8397	25.35	-0.29	-0.750			
0.7295	46689.14	3.5130	3.5128	-1.7822	25.36	-0.28	-0.750			
0.7348	47029.67	3.5100	3.5100	-1.7269	25.36	-0.28	-0.750			
0.7400	47361.72	3.5070	3.5069	-1.6749	25.37	-0.27	-0.750	0.379	0.557	
0.7450	47682.56	3.5040	3.5038	-1.6214	25.38	-0.26	-0.750			
0.7498	47986.40	3.5010	3.5010	-1.5589	25.39	-0.25	-0.750			
0.7542	48271.60	3.4980	3.4978	-1.4959	25.40	-0.24	-0.750			
0.7587	48553.83	3.4950	3.4948	-1.4485	25.41	-0.23	-0.750	0.400	0.557	
0.7630	48830.41	3.4920	3.4920	-1.3972	25.42	-0.22	-0.750			
0.7671	49094.93	3.4890	3.4890	-1.3535	25.43	-0.21	-0.750			
0.7710	49344.80	3.4860	3.4860	-1.3075	25.44	-0.20	-0.750			
0.7748	49589.45	3.4830	3.4830	-1.2647	25.45	-0.19	-0.750			
0.7786	49831.42	3.4800	3.4798	-1.2423	25.46	-0.18	-0.750			
0.7823	50065.33	3.4770	3.4771	-1.2072	25.46	-0.18	-0.750	0.410	0.564	
0.7859	50295.93	3.4740	3.4739	-1.1888	25.47	-0.17	-0.750			
0.7894	50520.88	3.4710	3.4710	-1.1711	25.48	-0.16	-0.750			
0.7928	50742.32	3.4680	3.4681	-1.1383	25.49	-0.15	-0.750			
0.7963	50962.66	3.4650	3.4648	-1.1253	25.50	-0.14	-0.750			
0.7996	51174.66	3.4620	3.4621	-1.1096	25.51	-0.13	-0.750	0.400	0.577	
0.8029	51382.41	3.4590	3.4590	-1.1008	25.52	-0.12	-0.750			
0.8061	51590.71	3.4560	3.4559	-1.1135	25.53	-0.11	-0.750			
0.8094	51799.56	3.4530	3.4529	-1.1473	25.54	-0.10	-0.750			
0.8129	52024.68	3.4500	3.4499	-1.1731	25.55	-0.09	-0.750			
0.8165	52257.21	3.4470	3.4467	-1.1999	25.56	-0.08	-0.750			
0.8202	52493.07	3.4440	3.4439	-1.2205	25.57	-0.07	-0.750	0.374	0.588	
0.8239	52729.87	3.4410	3.4409	-1.2294	25.57	-0.07	-0.750			
0.8276	52965.03	3.4380	3.4376	-1.2391	25.58	-0.06	-0.750			
0.8313	53201.54	3.4350	3.4352	-1.2388	25.59	-0.05	-0.750			
0.8351	53448.65	3.4320	3.4319	-1.2293	25.60	-0.04	-0.750			
0.8390	53692.94	3.4290	3.4288	-1.2179	25.60	-0.04	-0.750	0.375	0.588	
0.8425	53920.57	3.4260	3.4263	-1.1712	25.61	-0.03	-0.750			
0.8460	54144.30	3.4230	3.4229	-1.1436	25.62	-0.02	-0.750			
0.8493	54353.12	3.4200	3.4200	-1.1109	25.63	-0.01	-0.750			
0.8525	54562.44	3.4170	3.4170	-1.0781	25.63	-0.01	-0.750			
0.8558	54774.32	3.4140	3.4139	-1.0505	25.64	0.00	-0.750			
0.8589	54972.76	3.4110	3.4109	-1.0187	25.65	0.01	-0.750			
0.8620	55166.63	3.4080	3.4080	-0.9777	25.65	0.01	-0.750	0.399	0.602	
0.8648	55348.14	3.4050	3.4047	-0.9326	25.66	0.02	-0.750			
0.8675	55519.88	3.4020	3.4022	-0.8926	25.66	0.02	-0.750			
0.8701	55684.86	3.3990	3.3990	-0.8588	25.67	0.03	-0.750			
0.8727	55852.72	3.3960	3.3960	-0.8500	25.67	0.03	-0.750			
0.8752	56012.75	3.3930	3.3929	-0.8182	25.68	0.04	-0.750			
0.8776	56165.65	3.3900	3.3901	-0.7812	25.68	0.04	-0.750			
0.8800	56317.43	3.3870	3.3870	-0.7522	25.69	0.05	-0.750	0.381	0.612	
0.8822	56458.13	3.3840	3.3840	-0.7144	25.69	0.05	-0.750			
0.8842	56589.77	3.3810	3.3811	-0.6814	25.70	0.06	-0.750			
0.8862	56715.53	3.3780	3.3779	-0.6516	25.70	0.06	-0.750			
0.8880	56833.18	3.3750	3.3749	-0.6287	25.71	0.07	-0.750			
0.8899	56953.70	3.3720	3.3720	-0.6164	25.71	0.07	-0.750			
0.8917	57071.76	3.3690	3.3690	-0.5993	25.72	0.08	-0.750			
0.8935	57185.44	3.3660	3.3660	-0.5793	25.72	0.08	-0.750			
0.8952	57294.74	3.3630	3.3631	-0.5648	25.73	0.09	-0.750			
0.8969	57402.99	3.3600	3.3599	-0.5391	25.73	0.09	-0.750			
0.8985	57505.40	3.3570	3.3568	-0.5120	25.74	0.10	-0.750			
0.9000	57600.78	3.3540	3.3538	-0.4813	25.74	0.10	-0.750			
0.9014	57690.60	3.3510	3.3511	-0.4580	25.75	0.11	-0.750	0.365	0.631	
0.9027	57775.63	3.3480	3.3478	-0.4305	25.75	0.11	-0.750			
0.9040	57853.38	3.3450	3.3449	-0.4031	25.76	0.12	-0.750			
0.9051	57926.69	3.3420	3.3422	-0.3835	25.76	0.12	-0.750			
0.9063	58000.04	3.3390	3.3390	-0.3709	25.76	0.12	-0.750			
0.9073	58068.83	3.3360	3.3358	-0.3548	25.77	0.13	-0.750			
0.9084	58134.55	3.3330	3.3330	-0.3413	25.77	0.13	-0.750			
0.9094	58198.52	3.3300	3.3300	-0.3286	25.78	0.14	-0.750			
0.9103	58261.64	3.3270	3.3270	-0.3172	25.78	0.14	-0.750			
0.9113	58321.53	3.3240	3.3240	-0.3044	25.78	0.14	-0.750			
0.9122	58378.37	3.3210	3.3210	-0.2899	25.79	0.15	-0.750			
0.9130	58432.68	3.3180	3.3178	-0.2788	25.79	0.15	-0.750			
0.9138	58483.95	3.3150	3.3152	-0.2671	25.79	0.15	-0.750			
0.9146	58533.94	3.3120	3.3119	-0.2573	25.80	0.16	-0.750			
0.9154	58582.97	3.3090	3.3089	-0.2483	25.80	0.16	-0.750			
0.9161	58629.97	3.3060	3.3060	-0.2388	25.80	0.16	-0.750			
0.9168	58674.32	3.3030	3.3031	-0.2285	25.81	0.17	-0.750			
0.9175	58717.45	3.3000	3.3000	-0.2215	25.81	0.17	-0.750			
0.9181	58758.04	3.2970	3.2970	-0.2188	25.81	0.17	-0.750			
0.9187	58798.50	3.2940	3.2939	-0.2128	25.82	0.18	-0.750			
0.9194	58839.45	3.2910	3.2907	-0.2065	25.82	0.18	-0.750			
0.9200	58879.02	3.2880	3.2877	-0.2032	25.82	0.18	-0.750			
0.9206	58919.12	3.2850	3.2845	-0.1970	25.83	0.19	-0.750	0.362	0.642	
0.9212	58955.85	3.2820	3.2823	-0.1887	25.83	0.19	-0.750			
0.9217	58991.54	3.2790	3.2790	-0.1830	25.84	0.20	-0.750			
0.9223	59025.33	3.2760	3.2757	-0.1742	25.84	0.20	-0.750			
0.9227	59055.87	3.2730	3.2730	-0.1668	25.84	0.20	-0.750			
0.9232	59087.77	3.2700	3.2700	-0.1647	25.85	0.21	-0.750			
0.9237	59119.37	3.2670	3.2671	-0.1625	25.85	0.21	-0.750			
0.9242	59150.31	3.2640	3.2640	-0.1598	25.85	0.21	-0.750			
0.9247	59181.07	3.2610	3.2609	-0.1562	25.85	0.21	-0.750			
0.9252	59210.48	3.2580	3.2581	-0.1533	25.86	0.22	-0.750			
0.9256	59239.44	3.2550	3.2551	-0.1502	25.86	0.22	-0.750			
0.9261	59268.04	3.2520	3.2520	-0.1477	25.86	0.22	-0.750			
0.9265	59296.27	3.2490	3.2488	-0.1450	25.87	0.23	-0.750			
0.9269	59323.64	3.2460	3.2461	-0.1420	25.87	0.23	-0.750			
0.9274	59350.80	3.2430	3.2430	-0.1396	25.87	0.23	-0.750			
0.9278	59377.35	3.2400	3.2401	-0.1370	25.87	0.23	-0.750			
0.9282	59403.58	3.2370	3.2370	-0.1347	25.88	0.24	-0.750			
0.9286	59428.90	3.2340	3.2340	-0.1314	25.88	0.24	-0.750			
0.9290	59453.70	3.2310	3.2311	-0.1293	25.88	0.24	-0.750			
0.9293	59478.35	3.2280	3.2280	-0.1274	25.88	0.24	-0.750			
0.9297	59502.63	3.2250	3.2249	-0.1253	25.89	0.25	-0.750			
0.9301	59526.41	3.2220	3.2220	-0.1232	25.89	0.25	-0.750			
0.9305	59549.97	3.2190	3.2191	-0.1210	25.89	0.25	-0.750			
0.9308	59573.13	3.2160	3.2160	-0.1190	25.89	0.25	-0.750			
0.9312	59595.77	3.2130	3.2129	-0.1167	25.90	0.26	-0.750			
0.9315	59618.11	3.2100	3.2101	-0.1145	25.90	0.26	-0.750			
0.9319	59639.72	3.2070	3.2071	-0.1125	25.90	0.26	-0.750			
0.9322	59660.86	3.2040	3.2041	-0.1101	25.91	0.27	-0.750			
0.9325	59681.65	3.2010	3.2010	-0.1092	25.91	0.27	-0.750			
0.9328	59702.24	3.1980	3.1980	-0.1077	25.91	0.27	-0.750			
0.9332	59722.96	3.1950	3.1948	-0.1060	25.91	0.27	-0.750			
0.9335	59743.15	3.1920	3.1920	-0.1046	25.92	0.28	-0.750			
0.9338	59763.04	3.1890	3.1891	-0.1036	25.92	0.28	-0.750			
0.9341	59782.90	3.1860	3.1861	-0.1025	25.92	0.28	-0.750			
