Ah_balance (normalized)	Ah_balance (mAh)	Voltage - fit (V)	Voltage -  interpolate (V)	dQ/dV (1/V)	Temperature (°C)	Temperature - diff (°C)	Current (C)	R_DC 0ms (mOhm)	R_DC 50ms (mOhm)	R_DC 50 ms PEC (mOhm)
0.0944	6042.45	4.1980	4.1956	0.7150	7.83	1.83	0.750	0.387	0.877	
0.0970	6207.63	4.1950	4.1972	0.8989	7.82	1.82	0.750			
0.0997	6383.58	4.1920	4.1930	0.8822	7.81	1.81	0.750			
0.1024	6551.19	4.1890	4.1895	0.8359	7.80	1.80	0.750			
0.1051	6726.45	4.1860	4.1858	0.8035	7.79	1.79	0.750			
0.1070	6850.09	4.1830	4.1830	0.7114	7.79	1.79	0.750			
0.1091	6983.56	4.1800	4.1801	0.7128	7.78	1.78	0.750			
0.1112	7118.88	4.1770	4.1768	0.7138	7.77	1.77	0.750			
0.1134	7257.46	4.1740	4.1741	0.7169	7.77	1.77	0.750			
0.1156	7397.15	4.1710	4.1710	0.7200	7.76	1.76	0.750			
0.1177	7535.88	4.1680	4.1681	0.7185	7.76	1.76	0.750			
0.1199	7675.09	4.1650	4.1651	0.7208	7.75	1.75	0.750			
0.1220	7809.30	4.1620	4.1620	0.7217	7.75	1.75	0.750			
0.1242	7948.23	4.1590	4.1587	0.7253	7.74	1.74	0.750			
0.1264	8087.74	4.1560	4.1559	0.7313	7.73	1.73	0.750			
0.1286	8229.16	4.1530	4.1531	0.7340	7.72	1.72	0.750			
0.1308	8372.07	4.1500	4.1501	0.7424	7.71	1.71	0.750			
0.1330	8512.80	4.1470	4.1470	0.7473	7.71	1.71	0.750			
0.1353	8656.92	4.1440	4.1439	0.7547	7.70	1.70	0.750			
0.1376	8804.19	4.1410	4.1410	0.7564	7.69	1.69	0.750			
0.1399	8950.77	4.1380	4.1381	0.7660	7.68	1.68	0.750			
0.1422	9100.86	4.1350	4.1351	0.7646	7.68	1.68	0.750			
0.1445	9248.20	4.1320	4.1320	0.7639	7.67	1.67	0.750			
0.1468	9392.71	4.1290	4.1289	0.7594	7.67	1.67	0.750			
0.1490	9538.73	4.1260	4.1259	0.7526	7.66	1.66	0.750			
0.1513	9683.87	4.1230	4.1231	0.7477	7.65	1.65	0.750			
0.1536	9827.27	4.1200	4.1200	0.7428	7.65	1.65	0.750			
0.1557	9967.28	4.1170	4.1171	0.7388	7.64	1.64	0.750			
0.1579	10107.43	4.1140	4.1140	0.7425	7.63	1.63	0.750			
0.1602	10250.04	4.1110	4.1110	0.7459	7.63	1.63	0.750			
0.1624	10392.90	4.1080	4.1080	0.7554	7.62	1.62	0.750			
0.1647	10539.94	4.1050	4.1051	0.7688	7.61	1.61	0.750			
0.1670	10690.34	4.1020	4.1020	0.7734	7.61	1.61	0.750			
0.1694	10839.81	4.0990	4.0990	0.7746	7.60	1.60	0.750			
0.1717	10989.62	4.0960	4.0960	0.7718	7.60	1.60	0.750			
0.1740	11138.93	4.0930	4.0928	0.7641	7.59	1.59	0.750			
0.1763	11286.30	4.0900	4.0901	0.7587	7.59	1.59	0.750			
0.1786	11430.66	4.0870	4.0870	0.7406	7.58	1.58	0.750			
0.1808	11569.85	4.0840	4.0841	0.7369	7.57	1.57	0.750			
0.1829	11708.61	4.0810	4.0810	0.7283	7.57	1.57	0.750			
0.1852	11850.01	4.0780	4.0780	0.7246	7.56	1.56	0.750			
0.1873	11988.48	4.0750	4.0748	0.7229	7.56	1.56	0.750			
0.1895	12127.46	4.0720	4.0722	0.7184	7.56	1.56	0.750			
0.1917	12266.56	4.0690	4.0691	0.7122	7.55	1.55	0.750			
0.1938	12402.82	4.0660	4.0659	0.7119	7.55	1.55	0.750			
0.1959	12537.38	4.0630	4.0630	0.6980	7.55	1.55	0.750			
0.1980	12671.96	4.0600	4.0601	0.6912	7.54	1.54	0.750			
0.2001	12804.12	4.0570	4.0572	0.6850	7.54	1.54	0.750			
0.2021	12934.86	4.0540	4.0539	0.6743	7.54	1.54	0.750			
0.2041	13064.31	4.0510	4.0511	0.6674	7.54	1.54	0.750			
0.2061	13190.32	4.0480	4.0478	0.6563	7.53	1.53	0.750			
0.2080	13314.91	4.0450	4.0452	0.6494	7.53	1.53	0.750			
0.2100	13440.23	4.0420	4.0420	0.6461	7.53	1.53	0.750			
0.2119	13564.52	4.0390	4.0388	0.6362	7.53	1.53	0.750			
0.2138	13685.22	4.0360	4.0360	0.6240	7.53	1.53	0.750			
0.2157	13803.26	4.0330	4.0331	0.6149	7.53	1.53	0.750			
0.2175	13920.07	4.0300	4.0300	0.6033	7.53	1.53	0.750			
0.2193	14035.28	4.0270	4.0269	0.5963	7.52	1.52	0.750			
0.2210	14145.89	4.0240	4.0240	0.5889	7.52	1.52	0.750			
0.2228	14258.93	4.0210	4.0210	0.5846	7.52	1.52	0.750			
0.2246	14371.69	4.0180	4.0179	0.5837	7.52	1.52	0.750			
0.2263	14483.76	4.0150	4.0150	0.5741	7.52	1.52	0.750			
0.2280	14593.94	4.0120	4.0121	0.5681	7.52	1.52	0.750			
0.2288	14641.44	4.0090	4.0107	0.8284	7.52	1.52	0.750			
0.2318	14837.10	4.0060	4.0051	0.8793	7.52	1.52	0.750			
0.2345	15008.05	4.0030	4.0001	1.0985	7.52	1.52	0.750			
0.2396	15336.29	4.0000	3.9892	1.0055	7.52	1.52	0.750			
0.2435	15587.03	3.9970	3.9789	0.9957	7.53	1.53	0.750			
0.2468	15793.56	3.9940	3.9675	0.8932	7.54	1.54	0.750			
0.2497	15981.62	3.9910	3.9998	0.6869	7.69	1.69	0.750			
0.2510	16063.89	3.9880	3.9984	0.4640	7.95	1.95	0.750			
0.2534	16218.02	3.9850	3.9958	0.4875	7.94	1.94	0.750			
0.2543	16276.70	3.9820	3.9949	0.0843	7.94	1.94	0.750			
0.2570	16450.30	3.9760	3.9918	1.3722	7.94	1.94	0.750			
0.2610	16706.80	3.9730	3.9872	0.5545	7.93	1.93	0.750			
0.2627	16810.43	3.9670	3.9853	1.1142	7.92	1.92	0.750			
0.2629	16823.60	3.9790	3.9850	1.2762	7.92	1.92	0.750			
0.2641	16900.68	3.9700	3.9837	-0.1627	7.92	1.92	0.750			
0.2661	17029.76	3.9640	3.9815	1.8946	7.91	1.91	0.750			
0.2701	17285.76	3.9610	3.9771	1.5663	7.90	1.90	0.750			
0.2774	17750.52	3.9580	3.9696	1.9291	7.89	1.89	0.750			
0.2839	18169.38	3.9550	3.9626	2.7333	7.86	1.86	0.750			
0.2908	18614.09	3.9520	3.9552	2.1665	7.84	1.84	0.750			
0.2968	18993.32	3.9490	3.9492	1.4515	7.82	1.82	0.750			
0.2998	19185.95	3.9460	3.9460	0.9681	7.81	1.81	0.750			
0.3027	19373.25	3.9430	3.9430	0.9692	7.80	1.80	0.750			
0.3056	19557.55	3.9400	3.9399	0.9750	7.79	1.79	0.750			
0.3085	19744.91	3.9370	3.9371	0.9843	7.79	1.79	0.750			
0.3115	19938.18	3.9340	3.9340	0.9941	7.78	1.78	0.750			
0.3145	20130.13	3.9310	3.9311	0.9940	7.77	1.77	0.750			
0.3175	20321.08	3.9280	3.9281	1.0035	7.76	1.76	0.750			
0.3205	20511.87	3.9250	3.9250	1.0165	7.75	1.75	0.750			
0.3236	20708.06	3.9220	3.9221	1.0304	7.74	1.74	0.750			
0.3267	20908.80	3.9190	3.9187	1.0314	7.73	1.73	0.750			
0.3298	21104.68	3.9160	3.9161	1.0482	7.72	1.72	0.750			
0.3330	21309.57	3.9130	3.9131	1.0624	7.71	1.71	0.750			
0.3362	21513.99	3.9100	3.9100	1.0738	7.70	1.70	0.750			
0.3394	21723.14	3.9070	3.9069	1.0708	7.69	1.69	0.750			
0.3426	21928.32	3.9040	3.9042	1.0868	7.68	1.68	0.750			
0.3459	22137.67	3.9010	3.9011	1.1061	7.67	1.67	0.750			
0.3492	22351.67	3.8980	3.8980	1.1266	7.66	1.66	0.750			
0.3526	22567.13	3.8950	3.8950	1.1308	7.64	1.64	0.750			
0.3561	22787.31	3.8920	3.8920	1.1524	7.63	1.63	0.750			
0.3595	23008.19	3.8890	3.8891	1.1766	7.62	1.62	0.750			
0.3632	23241.89	3.8860	3.8858	1.1961	7.60	1.60	0.750			
0.3667	23469.43	3.8830	3.8830	1.2070	7.59	1.59	0.750			
0.3704	23705.57	3.8800	3.8800	1.2193	7.58	1.58	0.750			
0.3742	23945.95	3.8770	3.8770	1.2172	7.57	1.57	0.750			
0.3778	24179.48	3.8740	3.8741	1.2301	7.55	1.55	0.750			
0.3814	24409.83	3.8710	3.8712	1.2525	7.54	1.54	0.750			
0.3851	24647.86	3.8680	3.8679	1.2665	7.52	1.52	0.750			
0.3889	24890.47	3.8650	3.8648	1.2932	7.51	1.51	0.750			
0.3929	25146.85	3.8620	3.8623	1.3153	7.49	1.49	0.750	0.376	0.872	
0.3970	25407.64	3.8590	3.8592	1.3464	7.48	1.48	0.750			
0.4011	25667.51	3.8560	3.8560	1.3651	7.46	1.46	0.750			
0.4050	25922.76	3.8530	3.8530	1.3694	7.45	1.45	0.750			
0.4093	26193.36	3.8500	3.8499	1.4040	7.43	1.43	0.750			
0.4134	26456.23	3.8470	3.8469	1.4106	7.42	1.42	0.750			
0.4177	26731.76	3.8440	3.8441	1.4444	7.40	1.40	0.750			
0.4221	27015.96	3.8410	3.8411	1.4777	7.38	1.38	0.750			
0.4267	27307.16	3.8380	3.8377	1.4970	7.36	1.36	0.750			
0.4311	27591.63	3.8350	3.8351	1.5307	7.34	1.34	0.750			
0.4357	27887.29	3.8320	3.8323	1.5638	7.32	1.32	0.750			
0.4405	28192.96	3.8290	3.8293	1.5946	7.30	1.30	0.750			
0.4454	28503.23	3.8260	3.8260	1.6100	7.28	1.28	0.750			
0.4501	28808.50	3.8230	3.8231	1.6378	7.26	1.26	0.750			
0.4551	29128.94	3.8200	3.8202	1.6730	7.24	1.24	0.750			
0.4602	29453.00	3.8170	3.8166	1.7207	7.22	1.22	0.750			
0.4652	29775.17	3.8140	3.8140	1.7366	7.20	1.20	0.750			
0.4706	30118.74	3.8110	3.8111	1.7802	7.18	1.18	0.750			
0.4761	30472.60	3.8080	3.8076	1.8112	7.15	1.15	0.750			
0.4817	30825.69	3.8050	3.8049	1.8153	7.12	1.12	0.750			
0.4870	31170.16	3.8020	3.8020	1.8400	7.10	1.10	0.750			
0.4926	31525.30	3.7990	3.7991	1.8869	7.07	1.07	0.750			
0.4982	31884.28	3.7960	3.7960	1.9041	7.04	1.04	0.750			
0.5041	32260.34	3.7930	3.7929	1.9304	7.02	1.02	0.750			
0.5100	32640.51	3.7900	3.7902	1.9498	6.99	0.99	0.750			
0.5159	33018.92	3.7870	3.7869	1.9783	6.97	0.97	0.750			
0.5217	33390.09	3.7840	3.7840	1.9996	6.94	0.94	0.750			
0.5276	33767.83	3.7810	3.7809	2.0557	6.91	0.91	0.750			
0.5340	34177.66	3.7780	3.7780	2.1140	6.88	0.88	0.750			
0.5407	34602.37	3.7750	3.7750	2.1837	6.85	0.85	0.750			
0.5473	35025.00	3.7720	3.7721	2.1839	6.82	0.82	0.750			
0.5537	35436.67	3.7690	3.7690	2.2071	6.79	0.79	0.750			
0.5602	35855.73	3.7660	3.7660	2.2440	6.75	0.75	0.750			
0.5671	36292.27	3.7630	3.7628	2.2921	6.73	0.73	0.750			
0.5740	36737.85	3.7600	3.7602	2.3779	6.70	0.70	0.750			
0.5813	37203.42	3.7570	3.7569	2.4711	6.66	0.66	0.750			
0.5888	37685.67	3.7540	3.7540	2.5284	6.63	0.63	0.750			
0.5965	38178.95	3.7510	3.7511	2.6636	6.59	0.59	0.750			
0.6047	38701.25	3.7480	3.7479	2.7429	6.55	0.55	0.750			
0.6130	39231.11	3.7450	3.7449	2.8417	6.52	0.52	0.750			
0.6217	39785.87	3.7420	3.7420	3.0466	6.49	0.49	0.750			
0.6310	40385.48	3.7390	3.7389	3.2003	6.45	0.45	0.750			
0.6412	41036.09	3.7360	3.7361	3.2039	6.40	0.40	0.750			
0.6506	41637.77	3.7330	3.7331	3.1243	6.37	0.37	0.750			
0.6596	42217.57	3.7300	3.7298	2.8972	6.33	0.33	0.750			
0.6682	42763.48	3.7270	3.7272	2.7492	6.30	0.30	0.750			
0.6762	43274.53	3.7240	3.7239	2.5108	6.28	0.28	0.750			
0.6833	43730.50	3.7210	3.7209	2.2131	6.25	0.25	0.750			
0.6895	44130.71	3.7180	3.7183	1.9846	6.23	0.23	0.750			
0.6952	44490.62	3.7150	3.7152	1.7680	6.21	0.21	0.750			
0.7000	44798.34	3.7120	3.7117	1.5457	6.19	0.19	0.750			
0.7041	45062.23	3.7090	3.7091	1.3872	6.18	0.18	0.750			
0.7078	45299.67	3.7060	3.7061	1.2629	6.17	0.17	0.750			
0.7113	45520.82	3.7030	3.7029	1.1980	6.16	0.16	0.750			
0.7147	45742.15	3.7000	3.7001	1.1491	6.15	0.15	0.750			
0.7181	45959.65	3.6970	3.6971	1.1216	6.14	0.14	0.750			
0.7215	46173.50	3.6940	3.6942	1.1066	6.13	0.13	0.750			
0.7248	46387.82	3.6910	3.6909	1.0913	6.12	0.12	0.750			
0.7280	46590.56	3.6880	3.6879	1.0602	6.11	0.11	0.750			
0.7311	46791.43	3.6850	3.6850	1.0439	6.10	0.10	0.750			
0.7343	46992.23	3.6820	3.6821	1.0192	6.09	0.09	0.750			
0.7373	47189.22	3.6790	3.6790	1.0037	6.08	0.08	0.750			
0.7403	47381.37	3.6760	3.6760	0.9733	6.08	0.08	0.750			
0.7432	47563.50	3.6730	3.6730	0.9469	6.07	0.07	0.750			
0.7459	47738.46	3.6700	3.6700	0.9288	6.06	0.06	0.750			
0.7487	47913.69	3.6670	3.6671	0.9161	6.06	0.06	0.750			
0.7513	48085.82	3.6640	3.6639	0.9037	6.05	0.05	0.750			
0.7541	48262.34	3.6610	3.6609	0.8967	6.04	0.04	0.750			
0.7568	48432.26	3.6580	3.6583	0.8990	6.04	0.04	0.750			
0.7594	48604.70	3.6550	3.6550	0.9089	6.03	0.03	0.750			
0.7621	48776.41	3.6520	3.6521	0.9138	6.02	0.02	0.750			
0.7649	48954.23	3.6490	3.6491	0.9216	6.02	0.02	0.750			
0.7677	49131.59	3.6460	3.6460	0.9326	6.01	0.01	0.750			
0.7705	49314.15	3.6430	3.6430	0.9386	6.00	0.00	0.750			
0.7735	49501.70	3.6400	3.6399	0.9269	6.00	-0.00	0.750			
0.7763	49683.45	3.6370	3.6369	0.8810	5.99	-0.01	0.750			
0.7789	49851.88	3.6340	3.6341	0.8153	5.99	-0.01	0.750			
0.7814	50009.29	3.6310	3.6311	0.7298	5.99	-0.01	0.750			
0.7835	50143.11	3.6280	3.6280	0.6276	6.00	-0.00	0.750			
0.7852	50251.32	3.6250	3.6250	0.5162	6.00	-0.00	0.750			
0.7864	50327.43	3.6220	3.6223	0.4370	6.00	-0.00	0.750			
0.7875	50400.61	3.6190	3.6192	0.3488	6.00	-0.00	0.750			
0.7884	50456.97	3.6160	3.6156	0.2713	6.00	0.00	0.750			
0.7890	50495.59	3.6130	3.6123	0.1968	6.00	0.00	0.750			
0.7895	50525.13	3.6100	3.6046	0.1392	6.00	0.00	0.750			
0.7896	50534.05	3.5950	3.5469	-0.0994	6.00	0.00	0.751			
0.7897	50541.68	3.6070	3.4559	0.0851	6.00	0.00	0.752			
0.7898	50548.74	3.5980	3.3719	-0.0536	6.00	0.00	0.754			
0.7899	50551.70	3.6040	3.3365	0.0381	6.00	0.00	0.755			
0.7899	50554.62	3.6010	3.3018	-0.0077	6.00	0.00	0.755			
