Ah_balance (normalized)	Ah_balance (mAh)	Voltage - fit (V)	Voltage -  interpolate (V)	dQ/dV (1/V)	Temperature (°C)	Temperature - diff (°C)	Current (C)	R_DC 0ms (mOhm)	R_DC 50ms (mOhm)	R_DC 50 ms PEC (mOhm)
0.0966	6181.37	4.1980	4.1895	0.2660	8.31	2.10	0.750	0.379	0.808	
0.0981	6280.84	4.1950	4.1979	0.6474	8.30	2.09	0.750			
0.1004	6426.03	4.1920	4.1946	0.7756	8.30	2.09	0.750			
0.1030	6594.75	4.1890	4.1907	0.8082	8.29	2.08	0.750			
0.1057	6765.58	4.1860	4.1870	0.8317	8.28	2.07	0.750			
0.1085	6940.96	4.1830	4.1830	0.8271	8.28	2.07	0.750			
0.1105	7074.77	4.1800	4.1799	0.7072	8.27	2.06	0.750			
0.1127	7210.85	4.1770	4.1770	0.7084	8.27	2.06	0.750			
0.1148	7347.48	4.1740	4.1741	0.7164	8.26	2.05	0.750			
0.1169	7483.85	4.1710	4.1711	0.7150	8.26	2.05	0.750			
0.1191	7624.34	4.1680	4.1676	0.7163	8.25	2.04	0.750			
0.1213	7761.35	4.1650	4.1650	0.7125	8.25	2.04	0.750			
0.1234	7898.08	4.1620	4.1622	0.7097	8.24	2.03	0.750			
0.1255	8034.27	4.1590	4.1590	0.7112	8.24	2.03	0.750			
0.1276	8167.95	4.1560	4.1560	0.7044	8.24	2.03	0.750			
0.1297	8303.19	4.1530	4.1531	0.7109	8.23	2.02	0.750			
0.1319	8440.62	4.1500	4.1499	0.7164	8.23	2.02	0.750			
0.1340	8578.43	4.1470	4.1471	0.7277	8.22	2.01	0.750			
0.1363	8721.01	4.1440	4.1440	0.7270	8.22	2.01	0.750			
0.1385	8861.39	4.1410	4.1411	0.7282	8.21	2.00	0.750			
0.1406	9001.05	4.1380	4.1380	0.7338	8.20	1.99	0.750			
0.1428	9140.55	4.1350	4.1351	0.7348	8.19	1.98	0.750			
0.1450	9281.07	4.1320	4.1320	0.7387	8.19	1.98	0.750			
0.1472	9423.84	4.1290	4.1291	0.7411	8.19	1.98	0.750			
0.1495	9567.17	4.1260	4.1259	0.7365	8.18	1.97	0.750			
0.1517	9710.52	4.1230	4.1229	0.7435	8.18	1.97	0.750			
0.1540	9853.05	4.1200	4.1203	0.7428	8.17	1.96	0.750			
0.1561	9992.66	4.1170	4.1168	0.7464	8.17	1.96	0.750			
0.1584	10137.05	4.1140	4.1141	0.7524	8.17	1.96	0.750			
0.1607	10282.97	4.1110	4.1109	0.7581	8.16	1.95	0.750			
0.1629	10427.70	4.1080	4.1080	0.7628	8.15	1.94	0.750			
0.1653	10578.62	4.1050	4.1051	0.7689	8.15	1.94	0.750			
0.1676	10723.76	4.1020	4.1020	0.7716	8.14	1.93	0.750			
0.1699	10874.54	4.0990	4.0991	0.7681	8.14	1.93	0.750			
0.1722	11021.25	4.0960	4.0959	0.7684	8.14	1.93	0.750			
0.1745	11167.82	4.0930	4.0931	0.7762	8.13	1.92	0.750			
0.1768	11316.81	4.0900	4.0898	0.7808	8.13	1.92	0.750			
0.1792	11466.62	4.0870	4.0869	0.7830	8.12	1.91	0.750			
0.1815	11616.97	4.0840	4.0840	0.7948	8.12	1.91	0.750			
0.1839	11771.16	4.0810	4.0810	0.7905	8.11	1.90	0.750			
0.1864	11926.68	4.0780	4.0779	0.7890	8.10	1.89	0.750			
0.1887	12077.15	4.0750	4.0751	0.7845	8.10	1.89	0.750			
0.1910	12225.22	4.0720	4.0719	0.7877	8.09	1.88	0.750			
0.1934	12374.73	4.0690	4.0689	0.7959	8.08	1.87	0.750			
0.1958	12528.64	4.0660	4.0660	0.8027	8.08	1.87	0.750			
0.1982	12681.96	4.0630	4.0630	0.8060	8.07	1.86	0.750			
0.2006	12841.14	4.0600	4.0600	0.8170	8.06	1.85	0.750			
0.2031	13000.18	4.0570	4.0572	0.8220	8.06	1.85	0.750			
0.2056	13157.25	4.0540	4.0539	0.8282	8.05	1.84	0.750			
0.2080	13314.62	4.0510	4.0510	0.8341	8.05	1.84	0.750			
0.2105	13473.77	4.0480	4.0481	0.8356	8.04	1.83	0.750			
0.2131	13637.13	4.0450	4.0450	0.8445	8.04	1.83	0.750			
0.2157	13801.80	4.0420	4.0420	0.8521	8.04	1.83	0.750			
0.2182	13966.92	4.0390	4.0390	0.8505	8.03	1.82	0.750			
0.2208	14129.88	4.0360	4.0360	0.8495	8.03	1.82	0.750			
0.2233	14292.54	4.0330	4.0330	0.8436	8.02	1.81	0.750			
0.2258	14453.73	4.0300	4.0301	0.8457	8.01	1.80	0.750			
0.2284	14614.89	4.0270	4.0270	0.8449	8.01	1.80	0.750			
0.2309	14778.19	4.0240	4.0240	0.8498	8.00	1.79	0.750			
0.2334	14940.48	4.0210	4.0210	0.8540	8.00	1.79	0.750			
0.2360	15106.88	4.0180	4.0180	0.8551	7.99	1.78	0.750			
0.2386	15270.91	4.0150	4.0151	0.8579	7.98	1.77	0.750			
0.2412	15434.63	4.0120	4.0120	0.8680	7.98	1.77	0.750			
0.2438	15600.44	4.0090	4.0087	0.8777	7.97	1.76	0.750			
0.2464	15772.03	4.0060	4.0059	0.8794	7.96	1.75	0.750			
0.2491	15941.80	4.0030	4.0031	0.8859	7.96	1.75	0.750			
0.2518	16114.73	4.0000	4.0000	0.8900	7.95	1.74	0.750			
0.2545	16287.14	3.9970	3.9971	0.8926	7.95	1.74	0.750			
0.2571	16453.65	3.9940	3.9939	0.8924	7.94	1.73	0.750			
0.2598	16625.86	3.9910	3.9909	0.8879	7.93	1.72	0.750			
0.2624	16795.73	3.9880	3.9880	0.8971	7.92	1.71	0.750			
0.2652	16970.31	3.9850	3.9851	0.9082	7.91	1.70	0.750			
0.2679	17146.54	3.9820	3.9821	0.9101	7.90	1.69	0.750			
0.2706	17321.42	3.9790	3.9790	0.9212	7.90	1.69	0.750			
0.2734	17498.33	3.9760	3.9760	0.9164	7.89	1.68	0.750			
0.2762	17674.48	3.9730	3.9731	0.9213	7.88	1.67	0.750			
0.2790	17854.29	3.9700	3.9700	0.9323	7.88	1.67	0.750			
0.2817	18030.49	3.9670	3.9668	0.9316	7.87	1.66	0.750			
0.2845	18210.11	3.9640	3.9642	0.9369	7.86	1.65	0.750			
0.2874	18390.65	3.9610	3.9609	0.9488	7.85	1.64	0.750			
0.2902	18573.12	3.9580	3.9580	0.9561	7.84	1.63	0.750			
0.2931	18759.84	3.9550	3.9549	0.9621	7.83	1.62	0.750			
0.2960	18946.51	3.9520	3.9521	0.9570	7.82	1.61	0.750			
0.2989	19131.89	3.9490	3.9491	0.9653	7.81	1.60	0.750			
0.3018	19315.87	3.9460	3.9460	0.9736	7.81	1.60	0.750			
0.3047	19501.63	3.9430	3.9430	0.9780	7.80	1.59	0.750			
0.3077	19690.81	3.9400	3.9402	0.9779	7.79	1.58	0.750			
0.3106	19877.93	3.9370	3.9370	0.9865	7.78	1.57	0.750			
0.3135	20066.58	3.9340	3.9342	1.0108	7.77	1.56	0.750			
0.3166	20262.02	3.9310	3.9310	1.0287	7.77	1.56	0.750			
0.3197	20463.78	3.9280	3.9277	1.0324	7.76	1.55	0.750			
0.3228	20661.61	3.9250	3.9250	1.0504	7.75	1.54	0.750			
0.3260	20866.54	3.9220	3.9223	1.0691	7.73	1.52	0.750			
0.3293	21074.86	3.9190	3.9190	1.0805	7.72	1.51	0.750			
0.3326	21284.80	3.9160	3.9158	1.0698	7.71	1.50	0.750			
0.3358	21488.52	3.9130	3.9130	1.0717	7.70	1.49	0.750			
0.3390	21694.71	3.9100	3.9101	1.0792	7.69	1.48	0.750			
0.3422	21901.87	3.9070	3.9070	1.0855	7.68	1.47	0.750			
0.3454	22105.93	3.9040	3.9041	1.0900	7.66	1.45	0.750			
0.3487	22315.45	3.9010	3.9010	1.1205	7.65	1.44	0.750			
0.3521	22533.30	3.8980	3.8979	1.1402	7.64	1.43	0.750			
0.3556	22759.58	3.8950	3.8949	1.1550	7.62	1.41	0.750			
0.3591	22985.17	3.8920	3.8921	1.1718	7.61	1.40	0.750			
0.3627	23212.31	3.8890	3.8891	1.1767	7.60	1.39	0.750			
0.3662	23437.38	3.8860	3.8861	1.1889	7.59	1.38	0.750			
0.3698	23666.48	3.8830	3.8828	1.1824	7.58	1.37	0.750			
0.3733	23889.22	3.8800	3.8800	1.1965	7.56	1.35	0.750			
0.3769	24120.74	3.8770	3.8771	1.2205	7.55	1.34	0.750			
0.3805	24355.06	3.8740	3.8740	1.2427	7.53	1.32	0.750			
0.3843	24598.09	3.8710	3.8706	1.2761	7.52	1.31	0.750	0.380	0.823	
0.3882	24843.82	3.8680	3.8679	1.2978	7.51	1.30	0.750			
0.3921	25096.42	3.8650	3.8651	1.3183	7.50	1.29	0.750			
0.3962	25357.90	3.8620	3.8620	1.3452	7.49	1.28	0.750			
0.4003	25616.76	3.8590	3.8591	1.3456	7.47	1.26	0.750			
0.4044	25880.24	3.8560	3.8559	1.3528	7.45	1.24	0.750			
0.4084	26136.66	3.8530	3.8530	1.3734	7.43	1.22	0.750			
0.4124	26396.18	3.8500	3.8500	1.4007	7.42	1.21	0.750			
0.4167	26665.69	3.8470	3.8470	1.4394	7.40	1.19	0.750			
0.4211	26948.79	3.8440	3.8442	1.4719	7.38	1.17	0.750			
0.4256	27235.69	3.8410	3.8409	1.5008	7.37	1.16	0.750			
0.4302	27532.81	3.8380	3.8381	1.5153	7.35	1.14	0.750			
0.4348	27825.16	3.8350	3.8350	1.5204	7.34	1.13	0.750			
0.4393	28117.76	3.8320	3.8321	1.5336	7.32	1.11	0.750			
0.4439	28407.52	3.8290	3.8287	1.5416	7.30	1.09	0.750			
0.4485	28702.09	3.8260	3.8262	1.5755	7.28	1.07	0.750			
0.4533	29010.63	3.8230	3.8231	1.6096	7.26	1.05	0.750			
0.4582	29324.57	3.8200	3.8202	1.6396	7.23	1.02	0.750			
0.4632	29643.63	3.8170	3.8170	1.6485	7.21	1.00	0.750			
0.4682	29963.75	3.8140	3.8139	1.6774	7.19	0.98	0.750			
0.4732	30283.74	3.8110	3.8112	1.7057	7.17	0.96	0.750			
0.4784	30614.61	3.8080	3.8077	1.7274	7.15	0.94	0.750			
0.4836	30948.83	3.8050	3.8052	1.7295	7.13	0.92	0.750			
0.4888	31285.35	3.8020	3.8018	1.7742	7.10	0.89	0.750			
0.4942	31630.24	3.7990	3.7987	1.7990	7.07	0.86	0.750			
0.4997	31979.04	3.7960	3.7958	1.7937	7.05	0.84	0.750			
0.5051	32329.09	3.7930	3.7931	1.8190	7.03	0.82	0.750			
0.5105	32669.16	3.7900	3.7903	1.8259	7.01	0.80	0.750			
0.5159	33016.43	3.7870	3.7872	1.8407	6.99	0.78	0.750			
0.5214	33371.22	3.7840	3.7840	1.8473	6.96	0.75	0.750			
0.5271	33732.87	3.7810	3.7811	1.9005	6.94	0.73	0.750			
0.5329	34103.19	3.7780	3.7780	1.9666	6.93	0.72	0.750			
0.5390	34493.34	3.7750	3.7748	2.0011	6.90	0.69	0.750			
0.5449	34875.98	3.7720	3.7720	2.0417	6.88	0.67	0.750			
0.5512	35274.84	3.7690	3.7691	2.0854	6.85	0.64	0.750			
0.5575	35679.90	3.7660	3.7657	2.1426	6.82	0.61	0.750			
0.5638	36085.91	3.7630	3.7631	2.2170	6.80	0.59	0.750			
0.5706	36515.63	3.7600	3.7600	2.3376	6.77	0.56	0.750			
0.5778	36980.22	3.7570	3.7570	2.4722	6.75	0.54	0.750			
0.5855	37473.76	3.7540	3.7541	2.5578	6.71	0.50	0.750			
0.5933	37970.00	3.7510	3.7510	2.6496	6.67	0.46	0.750			
0.6012	38475.46	3.7480	3.7480	2.7885	6.65	0.44	0.750			
0.6098	39025.23	3.7450	3.7450	2.8508	6.62	0.41	0.750			
0.6187	39593.80	3.7420	3.7422	3.0296	6.58	0.37	0.750			
0.6278	40180.47	3.7390	3.7388	3.0382	6.55	0.34	0.750			
0.6371	40775.98	3.7360	3.7361	3.0739	6.52	0.31	0.750			
0.6466	41384.62	3.7330	3.7330	2.9719	6.48	0.27	0.750			
0.6552	41933.37	3.7300	3.7301	2.7062	6.45	0.24	0.750			
0.6629	42424.09	3.7270	3.7269	2.3597	6.44	0.23	0.750			
0.6692	42829.30	3.7240	3.7241	2.0396	6.42	0.21	0.750			
0.6747	43181.33	3.7210	3.7211	1.7936	6.41	0.20	0.750			
0.6797	43501.81	3.7180	3.7178	1.5904	6.39	0.18	0.750			
0.6839	43770.08	3.7150	3.7150	1.4209	6.38	0.17	0.750			
0.6879	44024.06	3.7120	3.7121	1.3062	6.37	0.16	0.750			
0.6916	44260.76	3.7090	3.7092	1.2422	6.36	0.15	0.750			
0.6951	44483.57	3.7060	3.7057	1.1612	6.35	0.14	0.750			
0.6983	44694.33	3.7030	3.7031	1.1243	6.34	0.13	0.750			
0.7016	44902.09	3.7000	3.7000	1.1010	6.33	0.12	0.750			
0.7049	45115.42	3.6970	3.6971	1.0971	6.32	0.11	0.750			
0.7082	45326.47	3.6940	3.6940	1.0771	6.31	0.10	0.750			
0.7115	45534.76	3.6910	3.6909	1.0582	6.30	0.09	0.750			
0.7146	45736.49	3.6880	3.6881	1.0285	6.29	0.08	0.750			
0.7177	45934.10	3.6850	3.6850	1.0028	6.28	0.07	0.750			
0.7206	46119.82	3.6820	3.6820	0.9650	6.28	0.07	0.750			
0.7234	46300.77	3.6790	3.6790	0.9376	6.27	0.06	0.750			
0.7262	46475.67	3.6760	3.6760	0.9233	6.26	0.05	0.750			
0.7289	46651.43	3.6730	3.6730	0.9100	6.25	0.04	0.750			
0.7316	46823.69	3.6700	3.6699	0.9029	6.24	0.03	0.750			
0.7343	46997.61	3.6670	3.6670	0.8933	6.24	0.03	0.750			
0.7370	47165.58	3.6640	3.6640	0.8962	6.23	0.02	0.750			
0.7396	47335.58	3.6610	3.6610	0.9000	6.23	0.02	0.750			
0.7423	47509.79	3.6580	3.6580	0.9022	6.22	0.01	0.750			
0.7450	47681.61	3.6550	3.6548	0.9053	6.22	0.01	0.750			
0.7478	47859.07	3.6520	3.6522	0.9093	6.21	0.00	0.750			
0.7505	48035.06	3.6490	3.6491	0.9084	6.21	-0.00	0.750			
0.7533	48213.58	3.6460	3.6459	0.8922	6.21	-0.00	0.750			
0.7560	48385.79	3.6430	3.6429	0.8611	6.20	-0.01	0.750			
0.7587	48555.67	3.6400	3.6400	0.8082	6.20	-0.01	0.750			
0.7611	48710.39	3.6370	3.6370	0.7367	6.20	-0.01	0.750			
0.7633	48849.73	3.6340	3.6341	0.6463	6.21	-0.00	0.750			
0.7651	48965.03	3.6310	3.6310	0.5449	6.21	-0.00	0.750			
0.7663	49042.85	3.6280	3.6285	0.4568	6.21	-0.00	0.750			
0.7675	49122.41	3.6250	3.6252	0.3789	6.21	-0.00	0.750			
0.7685	49181.65	3.6220	3.6219	0.2898	6.21	-0.00	0.750			
0.7692	49228.61	3.6190	3.6183	0.2282	6.21	0.00	0.750			
0.7697	49257.85	3.6160	3.6134	0.1626	6.21	0.00	0.750			
0.7698	49269.16	3.5950	3.6042	-0.1171	6.21	0.00	0.750			
0.7700	49278.85	3.6130	3.5010	0.1125	6.21	0.00	0.753			
0.7701	49288.06	3.5980	3.3731	-0.0797	6.21	0.00	0.759			
0.7702	49291.83	3.6100	3.3206	0.0699	6.21	0.00	0.761			
0.7703	49299.77	3.6010	3.2103	-0.0423	6.21	0.00	0.766			
0.7703	49301.66	3.6070	3.1841	0.0325	6.21	0.00	0.767			
0.7704	49304.31	3.6040	3.1473	-0.0049	6.21	0.00	0.768			
