Ah_balance (normalized)	Ah_balance (mAh)	Voltage - fit (V)	Voltage -  interpolate (V)	dQ/dV (1/V)	Temperature (°C)	Temperature - diff (°C)	Current (C)	R_DC 0ms (mOhm)	R_DC 50ms (mOhm)	R_DC 50 ms PEC (mOhm)
0.0966	6185.29	4.1960	4.1980	0.8094	7.98	1.98	0.750			
0.0992	6346.63	4.1930	4.1945	0.8284	7.97	1.97	0.750			
0.1017	6509.06	4.1900	4.1909	0.8088	7.97	1.97	0.750			
0.1040	6656.20	4.1870	4.1876	0.7747	7.96	1.96	0.750			
0.1066	6821.06	4.1840	4.1838	0.7693	7.95	1.95	0.750			
0.1086	6948.77	4.1810	4.1809	0.7022	7.94	1.94	0.750			
0.1107	7082.79	4.1780	4.1781	0.7038	7.94	1.94	0.750			
0.1128	7220.56	4.1750	4.1749	0.7038	7.93	1.93	0.750			
0.1149	7354.64	4.1720	4.1720	0.7030	7.93	1.93	0.750			
0.1170	7489.89	4.1690	4.1691	0.7057	7.93	1.93	0.750			
0.1191	7623.94	4.1660	4.1660	0.7041	7.93	1.93	0.750			
0.1212	7759.80	4.1630	4.1630	0.7118	7.92	1.92	0.750			
0.1234	7894.63	4.1600	4.1601	0.7165	7.92	1.92	0.750			
0.1255	8032.88	4.1570	4.1569	0.7254	7.92	1.92	0.750			
0.1277	8174.54	4.1540	4.1540	0.7344	7.91	1.91	0.750			
0.1300	8316.85	4.1510	4.1510	0.7320	7.91	1.91	0.750			
0.1322	8458.69	4.1480	4.1479	0.7355	7.90	1.90	0.750			
0.1344	8600.22	4.1450	4.1451	0.7344	7.89	1.89	0.750			
0.1366	8740.55	4.1420	4.1421	0.7375	7.89	1.89	0.750			
0.1388	8881.33	4.1390	4.1389	0.7399	7.88	1.88	0.750			
0.1410	9023.82	4.1360	4.1360	0.7441	7.87	1.87	0.750			
0.1432	9167.96	4.1330	4.1332	0.7443	7.87	1.87	0.750			
0.1455	9311.92	4.1300	4.1299	0.7447	7.86	1.86	0.750			
0.1477	9455.07	4.1270	4.1270	0.7444	7.86	1.86	0.750			
0.1500	9596.85	4.1240	4.1240	0.7450	7.85	1.85	0.750			
0.1522	9738.93	4.1210	4.1211	0.7459	7.85	1.85	0.750			
0.1544	9882.40	4.1180	4.1180	0.7491	7.84	1.84	0.750			
0.1567	10026.83	4.1150	4.1151	0.7552	7.84	1.84	0.750			
0.1590	10173.68	4.1120	4.1120	0.7599	7.83	1.83	0.750			
0.1612	10319.18	4.1090	4.1089	0.7592	7.82	1.82	0.750			
0.1635	10465.07	4.1060	4.1060	0.7610	7.82	1.82	0.750			
0.1658	10611.87	4.1030	4.1031	0.7622	7.81	1.81	0.750			
0.1681	10757.36	4.1000	4.1000	0.7678	7.81	1.81	0.750			
0.1704	10904.83	4.0970	4.0970	0.7718	7.80	1.80	0.750			
0.1727	11052.19	4.0940	4.0940	0.7747	7.80	1.80	0.750			
0.1750	11202.53	4.0910	4.0909	0.7802	7.79	1.79	0.750			
0.1774	11354.03	4.0880	4.0881	0.7871	7.79	1.79	0.750			
0.1798	11507.48	4.0850	4.0849	0.7829	7.78	1.78	0.750			
0.1821	11656.90	4.0820	4.0821	0.7878	7.78	1.78	0.750			
0.1845	11805.99	4.0790	4.0791	0.7921	7.78	1.78	0.750			
0.1868	11957.54	4.0760	4.0760	0.8017	7.77	1.77	0.750			
0.1893	12112.81	4.0730	4.0729	0.8086	7.77	1.77	0.750			
0.1917	12270.02	4.0700	4.0701	0.8124	7.76	1.76	0.750			
0.1942	12427.41	4.0670	4.0671	0.8137	7.76	1.76	0.750			
0.1967	12588.45	4.0640	4.0639	0.8192	7.75	1.75	0.750			
0.1991	12740.55	4.0610	4.0611	0.8117	7.74	1.74	0.750			
0.2015	12895.77	4.0580	4.0581	0.8130	7.74	1.74	0.750			
0.2040	13053.09	4.0550	4.0549	0.8098	7.73	1.73	0.750			
0.2064	13207.94	4.0520	4.0520	0.8171	7.73	1.73	0.750			
0.2088	13364.34	4.0490	4.0492	0.8222	7.72	1.72	0.750			
0.2113	13523.38	4.0460	4.0460	0.8280	7.71	1.71	0.750			
0.2138	13683.42	4.0430	4.0429	0.8327	7.71	1.71	0.750			
0.2163	13845.04	4.0400	4.0401	0.8348	7.70	1.70	0.750			
0.2188	14006.33	4.0370	4.0372	0.8432	7.70	1.70	0.750			
0.2214	14168.20	4.0340	4.0339	0.8529	7.69	1.69	0.750			
0.2239	14331.45	4.0310	4.0311	0.8527	7.68	1.68	0.750			
0.2265	14496.43	4.0280	4.0280	0.8530	7.68	1.68	0.750			
0.2291	14661.48	4.0250	4.0251	0.8496	7.67	1.67	0.750			
0.2317	14826.57	4.0220	4.0220	0.8543	7.67	1.67	0.750			
0.2342	14989.04	4.0190	4.0190	0.8556	7.67	1.67	0.750			
0.2368	15152.09	4.0160	4.0160	0.8515	7.66	1.66	0.750			
0.2393	15313.84	4.0130	4.0132	0.8589	7.66	1.66	0.750			
0.2419	15482.17	4.0100	4.0100	0.8650	7.65	1.65	0.750			
0.2445	15647.83	4.0070	4.0070	0.8785	7.64	1.64	0.750			
0.2471	15817.24	4.0040	4.0040	0.8882	7.63	1.63	0.750			
0.2498	15988.94	4.0010	4.0009	0.8946	7.62	1.62	0.750			
0.2525	16162.35	3.9980	3.9980	0.8993	7.62	1.62	0.750			
0.2553	16338.21	3.9950	3.9951	0.8936	7.61	1.61	0.750			
0.2579	16507.81	3.9920	3.9921	0.8898	7.61	1.61	0.750			
0.2606	16677.72	3.9890	3.9891	0.8952	7.60	1.60	0.750			
0.2632	16845.55	3.9860	3.9857	0.8955	7.60	1.60	0.750			
0.2659	17017.52	3.9830	3.9829	0.8968	7.60	1.60	0.750			
0.2686	17190.33	3.9800	3.9800	0.9063	7.59	1.59	0.750			
0.2714	17367.63	3.9770	3.9771	0.9197	7.59	1.59	0.750			
0.2742	17545.94	3.9740	3.9741	0.9181	7.58	1.58	0.750			
0.2769	17722.14	3.9710	3.9710	0.9247	7.58	1.58	0.750			
0.2797	17898.50	3.9680	3.9681	0.9160	7.57	1.57	0.750			
0.2824	18074.06	3.9650	3.9649	0.9261	7.56	1.56	0.750			
0.2852	18252.37	3.9620	3.9621	0.9361	7.56	1.56	0.750			
0.2880	18429.74	3.9590	3.9588	0.9471	7.55	1.55	0.750			
0.2908	18613.76	3.9560	3.9560	0.9534	7.54	1.54	0.750			
0.2938	18800.04	3.9530	3.9530	0.9665	7.54	1.54	0.750			
0.2967	18987.33	3.9500	3.9499	0.9717	7.53	1.53	0.750			
0.2996	19174.66	3.9470	3.9471	0.9785	7.52	1.52	0.750			
0.3025	19362.93	3.9440	3.9440	0.9816	7.52	1.52	0.750			
0.3055	19552.02	3.9410	3.9410	0.9855	7.51	1.51	0.750			
0.3085	19741.76	3.9380	3.9380	0.9837	7.50	1.50	0.750			
0.3114	19930.91	3.9350	3.9351	0.9843	7.49	1.49	0.750			
0.3144	20119.50	3.9320	3.9321	0.9916	7.49	1.49	0.750			
0.3173	20309.00	3.9290	3.9288	0.9978	7.48	1.48	0.750			
0.3203	20498.42	3.9260	3.9261	1.0107	7.47	1.47	0.750			
0.3234	20695.69	3.9230	3.9229	1.0197	7.47	1.47	0.750			
0.3265	20897.22	3.9200	3.9201	1.0268	7.46	1.46	0.750			
0.3296	21093.75	3.9170	3.9171	1.0399	7.45	1.45	0.750			
0.3327	21291.38	3.9140	3.9142	1.0501	7.44	1.44	0.750			
0.3358	21491.63	3.9110	3.9111	1.0717	7.43	1.43	0.750			
0.3390	21697.48	3.9080	3.9079	1.0827	7.42	1.42	0.750			
0.3423	21907.98	3.9050	3.9051	1.0983	7.41	1.41	0.750			
0.3457	22126.30	3.9020	3.9021	1.1195	7.40	1.40	0.750			
0.3491	22342.58	3.8990	3.8991	1.1217	7.39	1.39	0.750			
0.3524	22556.71	3.8960	3.8960	1.1246	7.39	1.39	0.750			
0.3558	22770.60	3.8930	3.8931	1.1307	7.38	1.38	0.750			
0.3592	22986.48	3.8900	3.8900	1.1480	7.37	1.37	0.750			
0.3626	23209.50	3.8870	3.8869	1.1595	7.36	1.36	0.750			
0.3661	23431.27	3.8840	3.8842	1.1827	7.35	1.35	0.750			
0.3697	23660.70	3.8810	3.8811	1.2015	7.34	1.34	0.750			
0.3734	23897.37	3.8780	3.8777	1.2237	7.34	1.34	0.750			
0.3771	24133.44	3.8750	3.8751	1.2368	7.33	1.33	0.750			
0.3808	24370.58	3.8720	3.8721	1.2539	7.31	1.31	0.750			
0.3846	24614.62	3.8690	3.8690	1.2751	7.30	1.30	0.750			
0.3884	24858.40	3.8660	3.8659	1.2975	7.29	1.29	0.750			
0.3924	25111.00	3.8630	3.8629	1.3121	7.28	1.28	0.750			
0.3964	25368.02	3.8600	3.8600	1.3361	7.26	1.26	0.750	0.367	0.876	
0.4004	25626.78	3.8570	3.8569	1.3398	7.25	1.25	0.750			
0.4044	25883.23	3.8540	3.8542	1.3590	7.24	1.24	0.750			
0.4084	26139.82	3.8510	3.8510	1.3856	7.22	1.22	0.750			
0.4126	26407.58	3.8480	3.8477	1.4042	7.21	1.21	0.750			
0.4168	26676.91	3.8450	3.8448	1.4261	7.20	1.20	0.750			
0.4212	26959.06	3.8420	3.8423	1.4546	7.18	1.18	0.750			
0.4257	27244.67	3.8390	3.8388	1.4912	7.16	1.16	0.750			
0.4301	27528.04	3.8360	3.8361	1.5188	7.14	1.14	0.750			
0.4348	27824.60	3.8330	3.8327	1.5458	7.12	1.12	0.750			
0.4394	28118.65	3.8300	3.8303	1.5825	7.11	1.11	0.750			
0.4442	28431.81	3.8270	3.8269	1.6083	7.09	1.09	0.750			
0.4492	28749.72	3.8240	3.8240	1.6360	7.07	1.07	0.750			
0.4541	29063.71	3.8210	3.8207	1.6657	7.06	1.06	0.750			
0.4592	29386.23	3.8180	3.8181	1.6768	7.04	1.04	0.750			
0.4642	29705.93	3.8150	3.8150	1.6912	7.03	1.03	0.750			
0.4692	30027.81	3.8120	3.8121	1.7335	7.00	1.00	0.750			
0.4743	30357.30	3.8090	3.8090	1.7717	6.98	0.98	0.750			
0.4799	30711.00	3.8060	3.8058	1.8234	6.95	0.95	0.750			
0.4854	31063.00	3.8030	3.8031	1.8854	6.93	0.93	0.750			
0.4912	31435.26	3.8000	3.7998	1.8976	6.91	0.91	0.750			
0.4970	31809.34	3.7970	3.7968	1.9230	6.88	0.88	0.750			
0.5027	32170.24	3.7940	3.7941	1.9310	6.86	0.86	0.750			
0.5084	32540.01	3.7910	3.7909	1.9671	6.84	0.84	0.750			
0.5143	32914.27	3.7880	3.7879	2.0253	6.82	0.82	0.750			
0.5205	33309.55	3.7850	3.7849	2.0486	6.79	0.79	0.750			
0.5268	33715.26	3.7820	3.7821	2.1154	6.76	0.76	0.750			
0.5333	34129.99	3.7790	3.7790	2.0937	6.73	0.73	0.750			
0.5395	34528.84	3.7760	3.7758	2.0978	6.71	0.71	0.750			
0.5457	34924.39	3.7730	3.7732	2.1039	6.69	0.69	0.750			
0.5519	35324.39	3.7700	3.7699	2.1699	6.66	0.66	0.750			
0.5585	35743.77	3.7670	3.7670	2.2245	6.64	0.64	0.750			
0.5654	36187.15	3.7640	3.7641	2.3236	6.61	0.61	0.750			
0.5724	36635.91	3.7610	3.7611	2.4082	6.58	0.58	0.750			
0.5799	37112.03	3.7580	3.7578	2.4331	6.55	0.55	0.750			
0.5871	37576.09	3.7550	3.7551	2.4765	6.51	0.51	0.750			
0.5947	38058.88	3.7520	3.7518	2.5430	6.48	0.48	0.750			
0.6022	38541.80	3.7490	3.7490	2.5972	6.45	0.45	0.750			
0.6101	39046.72	3.7460	3.7461	2.7657	6.43	0.43	0.750			
0.6186	39591.81	3.7430	3.7429	2.9214	6.40	0.40	0.750			
0.6277	40175.86	3.7400	3.7401	3.1130	6.36	0.36	0.750			
0.6375	40803.19	3.7370	3.7370	3.2289	6.32	0.32	0.750			
0.6474	41433.32	3.7340	3.7339	3.1799	6.29	0.29	0.750			
0.6567	42026.43	3.7310	3.7311	3.0614	6.26	0.26	0.750			
0.6657	42606.91	3.7280	3.7280	2.8738	6.23	0.23	0.750			
0.6742	43151.81	3.7250	3.7251	2.6489	6.21	0.21	0.750			
0.6817	43628.39	3.7220	3.7220	2.3474	6.19	0.19	0.750			
0.6880	44033.98	3.7190	3.7190	2.0348	6.17	0.17	0.750			
0.6937	44398.25	3.7160	3.7160	1.8050	6.15	0.15	0.750			
0.6986	44710.65	3.7130	3.7132	1.6007	6.14	0.14	0.750			
0.7029	44987.02	3.7100	3.7100	1.4365	6.13	0.13	0.750			
0.7069	45242.02	3.7070	3.7071	1.3093	6.12	0.12	0.750			
0.7105	45472.67	3.7040	3.7041	1.2318	6.11	0.11	0.750			
0.7140	45695.10	3.7010	3.7009	1.1687	6.11	0.11	0.750			
0.7173	45910.23	3.6980	3.6980	1.1195	6.10	0.10	0.750			
0.7206	46118.90	3.6950	3.6950	1.0909	6.09	0.09	0.750			
0.7239	46326.83	3.6920	3.6921	1.0688	6.08	0.08	0.750			
0.7270	46530.02	3.6890	3.6889	1.0476	6.08	0.08	0.750			
0.7301	46727.55	3.6860	3.6860	1.0364	6.07	0.07	0.750			
0.7332	46923.41	3.6830	3.6830	1.0238	6.06	0.06	0.750			
0.7363	47121.08	3.6800	3.6799	1.0047	6.05	0.05	0.750			
0.7393	47315.55	3.6770	3.6771	0.9857	6.05	0.05	0.750			
0.7422	47501.33	3.6740	3.6741	0.9609	6.04	0.04	0.750			
0.7451	47685.24	3.6710	3.6710	0.9326	6.04	0.04	0.750			
0.7478	47856.27	3.6680	3.6680	0.9155	6.03	0.03	0.750			
0.7504	48028.65	3.6650	3.6649	0.9010	6.03	0.03	0.750			
0.7531	48199.76	3.6620	3.6620	0.8921	6.03	0.03	0.750			
0.7558	48370.87	3.6590	3.6591	0.8970	6.02	0.02	0.750			
0.7585	48543.23	3.6560	3.6561	0.8985	6.02	0.02	0.750			
0.7612	48716.39	3.6530	3.6529	0.8983	6.01	0.01	0.750			
0.7639	48888.11	3.6500	3.6500	0.9048	6.01	0.01	0.750			
0.7666	49059.52	3.6470	3.6470	0.9058	6.00	0.00	0.750			
0.7693	49237.41	3.6440	3.6440	0.9093	6.00	-0.00	0.750			
0.7721	49413.42	3.6410	3.6408	0.9028	5.99	-0.01	0.750			
0.7749	49591.69	3.6380	3.6379	0.8710	5.98	-0.02	0.750			
0.7776	49764.53	3.6350	3.6350	0.8364	5.98	-0.02	0.750			
0.7801	49925.96	3.6320	3.6320	0.7610	5.99	-0.01	0.750			
0.7823	50069.80	3.6290	3.6291	0.6740	5.99	-0.01	0.750			
0.7842	50189.84	3.6260	3.6261	0.5710	5.99	-0.01	0.750			
0.7855	50274.46	3.6230	3.6235	0.4834	6.00	-0.00	0.750			
0.7868	50357.80	3.6200	3.6203	0.3837	6.00	-0.00	0.750			
0.7879	50423.36	3.6170	3.6169	0.3105	6.00	-0.00	0.750			
0.7886	50470.66	3.6140	3.6136	0.2321	6.00	0.00	0.750			
0.7892	50507.13	3.6110	3.6095	0.1727	6.00	0.00	0.750			
0.7895	50525.79	3.5930	3.6010	-0.1018	6.00	0.00	0.750			
0.7895	50527.34	3.6080	3.5970	0.1131	6.00	0.00	0.750			
0.7897	50539.72	3.6050	3.3842	0.0655	6.00	0.00	0.750			
0.7897	50541.31	3.5960	3.3522	-0.0599	6.00	0.00	0.750			
0.7898	50548.28	3.6020	3.2126	0.0237	6.00	0.00	0.750			
0.7898	50548.81	3.5990	3.2019	-0.0181	6.00	0.00	0.750			
