Ah_balance (normalized)	Ah_balance (mAh)	Voltage - fit (V)	Voltage -  interpolate (V)	dQ/dV (1/V)	Temperature (°C)	Temperature - diff (°C)	Current (C)	R_DC 0ms (mOhm)	R_DC 50ms (mOhm)	R_DC 50 ms PEC (mOhm)
0.0933	5970.84	4.1970	4.1994	0.8025	8.14	2.14	0.750			
0.0959	6140.61	4.1940	4.1955	0.8590	8.13	2.13	0.750			
0.0985	6305.56	4.1910	4.1920	0.8416	8.12	2.12	0.750			
0.1010	6465.63	4.1880	4.1882	0.7930	8.11	2.11	0.750			
0.1034	6618.30	4.1850	4.1851	0.7080	8.10	2.10	0.750			
0.1055	6753.95	4.1820	4.1822	0.7083	8.10	2.10	0.750			
0.1077	6889.62	4.1790	4.1786	0.7091	8.09	2.09	0.750			
0.1098	7025.33	4.1760	4.1761	0.7142	8.08	2.08	0.750			
0.1119	7162.57	4.1730	4.1730	0.7171	8.08	2.08	0.750			
0.1141	7301.23	4.1700	4.1699	0.7216	8.07	2.07	0.750			
0.1163	7442.97	4.1670	4.1670	0.7232	8.06	2.06	0.750			
0.1185	7581.36	4.1640	4.1642	0.7214	8.05	2.05	0.750			
0.1206	7720.92	4.1610	4.1609	0.7245	8.05	2.05	0.750			
0.1228	7859.15	4.1580	4.1580	0.7260	8.04	2.04	0.750			
0.1249	7996.48	4.1550	4.1551	0.7237	8.04	2.04	0.750			
0.1271	8135.43	4.1520	4.1520	0.7330	8.03	2.03	0.750			
0.1293	8276.77	4.1490	4.1490	0.7430	8.03	2.03	0.750			
0.1316	8420.85	4.1460	4.1460	0.7511	8.02	2.02	0.750			
0.1339	8566.60	4.1430	4.1430	0.7541	8.02	2.02	0.750			
0.1362	8714.08	4.1400	4.1400	0.7549	8.01	2.01	0.750			
0.1384	8859.23	4.1370	4.1371	0.7567	8.01	2.01	0.750			
0.1407	9005.31	4.1340	4.1340	0.7542	8.00	2.00	0.750			
0.1429	9148.12	4.1310	4.1309	0.7485	7.99	1.99	0.750			
0.1452	9289.98	4.1280	4.1280	0.7450	7.99	1.99	0.750			
0.1474	9432.56	4.1250	4.1251	0.7530	7.98	1.98	0.750			
0.1497	9578.04	4.1220	4.1219	0.7608	7.98	1.98	0.750			
0.1519	9724.55	4.1190	4.1189	0.7652	7.97	1.97	0.750			
0.1543	9872.59	4.1160	4.1161	0.7655	7.97	1.97	0.750			
0.1566	10021.54	4.1130	4.1129	0.7713	7.96	1.96	0.750			
0.1589	10169.99	4.1100	4.1100	0.7720	7.96	1.96	0.750			
0.1612	10317.73	4.1070	4.1070	0.7720	7.95	1.95	0.750			
0.1635	10463.30	4.1040	4.1041	0.7805	7.95	1.95	0.750			
0.1658	10614.30	4.1010	4.1009	0.7864	7.94	1.94	0.750			
0.1682	10766.10	4.0980	4.0980	0.7958	7.93	1.93	0.750			
0.1707	10921.93	4.0950	4.0950	0.7963	7.93	1.93	0.750			
0.1730	11074.68	4.0920	4.0921	0.7924	7.92	1.92	0.750			
0.1754	11228.80	4.0890	4.0890	0.7898	7.91	1.91	0.750			
0.1778	11378.23	4.0860	4.0859	0.7918	7.91	1.91	0.750			
0.1801	11526.00	4.0830	4.0830	0.7907	7.90	1.90	0.750			
0.1825	11679.51	4.0800	4.0799	0.8048	7.89	1.89	0.750			
0.1849	11834.78	4.0770	4.0770	0.8116	7.88	1.88	0.750			
0.1874	11994.95	4.0740	4.0739	0.8090	7.88	1.88	0.750			
0.1899	12151.09	4.0710	4.0712	0.8134	7.87	1.87	0.750			
0.1923	12306.86	4.0680	4.0681	0.8103	7.87	1.87	0.750			
0.1947	12459.25	4.0650	4.0647	0.8108	7.86	1.86	0.750			
0.1971	12613.04	4.0620	4.0620	0.8099	7.85	1.85	0.750			
0.1995	12768.31	4.0590	4.0592	0.8171	7.85	1.85	0.750			
0.2020	12929.02	4.0560	4.0559	0.8294	7.84	1.84	0.750			
0.2045	13089.36	4.0530	4.0532	0.8313	7.84	1.84	0.750			
0.2070	13249.96	4.0500	4.0499	0.8385	7.83	1.83	0.750			
0.2096	13412.89	4.0470	4.0469	0.8419	7.82	1.82	0.750			
0.2121	13573.90	4.0440	4.0441	0.8434	7.82	1.82	0.750			
0.2146	13735.91	4.0410	4.0411	0.8453	7.81	1.81	0.750			
0.2171	13895.79	4.0380	4.0380	0.8477	7.80	1.80	0.750			
0.2197	14060.07	4.0350	4.0348	0.8582	7.79	1.79	0.750			
0.2223	14226.18	4.0320	4.0321	0.8604	7.78	1.78	0.750			
0.2249	14392.97	4.0290	4.0290	0.8604	7.78	1.78	0.750			
0.2275	14560.67	4.0260	4.0261	0.8706	7.77	1.77	0.750			
0.2301	14727.04	4.0230	4.0231	0.8706	7.77	1.77	0.750			
0.2327	14892.89	4.0200	4.0199	0.8700	7.76	1.76	0.750			
0.2353	15059.97	4.0170	4.0169	0.8628	7.76	1.76	0.750			
0.2379	15224.28	4.0140	4.0141	0.8671	7.75	1.75	0.750			
0.2405	15390.78	4.0110	4.0111	0.8740	7.75	1.75	0.750			
0.2431	15560.76	4.0080	4.0079	0.8756	7.74	1.74	0.750			
0.2457	15726.67	4.0050	4.0050	0.8768	7.74	1.74	0.750			
0.2484	15897.50	4.0020	4.0020	0.8818	7.73	1.73	0.750			
0.2510	16066.47	3.9990	3.9991	0.8908	7.72	1.72	0.750			
0.2537	16238.79	3.9960	3.9960	0.8994	7.71	1.71	0.750			
0.2564	16410.94	3.9930	3.9930	0.8959	7.70	1.70	0.750			
0.2591	16585.29	3.9900	3.9899	0.8974	7.69	1.69	0.750			
0.2619	16760.01	3.9870	3.9871	0.8932	7.69	1.69	0.750			
0.2645	16928.64	3.9840	3.9841	0.8926	7.68	1.68	0.750			
0.2672	17099.12	3.9810	3.9811	0.8978	7.67	1.67	0.750			
0.2698	17269.25	3.9780	3.9777	0.9002	7.66	1.66	0.750			
0.2725	17442.87	3.9750	3.9751	0.9034	7.65	1.65	0.750			
0.2753	17619.09	3.9720	3.9720	0.9117	7.64	1.64	0.750			
0.2781	17795.82	3.9690	3.9690	0.9275	7.63	1.63	0.750			
0.2809	17974.69	3.9660	3.9662	0.9361	7.63	1.63	0.750			
0.2836	18152.19	3.9630	3.9630	0.9327	7.62	1.62	0.750			
0.2864	18332.74	3.9600	3.9600	0.9384	7.61	1.61	0.750			
0.2893	18512.12	3.9570	3.9572	0.9480	7.61	1.61	0.750			
0.2921	18695.98	3.9540	3.9540	0.9539	7.60	1.60	0.750			
0.2950	18879.49	3.9510	3.9508	0.9639	7.60	1.60	0.750			
0.2978	19062.19	3.9480	3.9481	0.9727	7.59	1.59	0.750			
0.3008	19252.28	3.9450	3.9451	0.9900	7.58	1.58	0.750			
0.3039	19446.98	3.9420	3.9418	1.0039	7.57	1.57	0.750			
0.3069	19641.95	3.9390	3.9389	0.9974	7.56	1.56	0.750			
0.3099	19835.10	3.9360	3.9360	0.9933	7.55	1.55	0.750			
0.3129	20025.57	3.9330	3.9331	0.9969	7.54	1.54	0.750			
0.3158	20214.15	3.9300	3.9300	0.9911	7.53	1.53	0.750			
0.3188	20400.44	3.9270	3.9269	0.9998	7.52	1.52	0.750			
0.3218	20594.27	3.9240	3.9240	1.0109	7.51	1.51	0.750			
0.3248	20789.25	3.9210	3.9210	1.0286	7.50	1.50	0.750			
0.3280	20989.87	3.9180	3.9180	1.0478	7.49	1.49	0.750			
0.3312	21194.78	3.9150	3.9150	1.0575	7.48	1.48	0.750			
0.3344	21399.36	3.9120	3.9120	1.0545	7.48	1.48	0.750			
0.3376	21603.95	3.9090	3.9090	1.0612	7.47	1.47	0.750			
0.3407	21806.32	3.9060	3.9061	1.0630	7.46	1.46	0.750			
0.3439	22009.03	3.9030	3.9029	1.0787	7.45	1.45	0.750			
0.3471	22212.25	3.9000	3.9001	1.1023	7.44	1.44	0.750			
0.3504	22423.75	3.8970	3.8970	1.1263	7.43	1.43	0.750			
0.3539	22648.96	3.8940	3.8939	1.1406	7.42	1.42	0.750			
0.3574	22875.23	3.8910	3.8908	1.1543	7.41	1.41	0.750			
0.3609	23097.73	3.8880	3.8882	1.1700	7.40	1.40	0.750			
0.3644	23321.92	3.8850	3.8851	1.1781	7.39	1.39	0.750			
0.3679	23543.28	3.8820	3.8818	1.1883	7.38	1.38	0.750			
0.3714	23769.41	3.8790	3.8789	1.1985	7.37	1.37	0.750			
0.3751	24005.50	3.8760	3.8760	1.2249	7.35	1.35	0.750			
0.3789	24246.50	3.8730	3.8731	1.2478	7.34	1.34	0.750			
0.3827	24491.20	3.8700	3.8700	1.2607	7.33	1.33	0.750			
0.3864	24732.03	3.8670	3.8671	1.2599	7.32	1.32	0.750			
0.3902	24973.95	3.8640	3.8639	1.2660	7.31	1.31	0.750			
0.3940	25215.61	3.8610	3.8609	1.2818	7.29	1.29	0.750			
0.3979	25463.93	3.8580	3.8580	1.2959	7.28	1.28	0.750			
0.4017	25710.65	3.8550	3.8551	1.3372	7.26	1.26	0.750			
0.4058	25972.21	3.8520	3.8520	1.3678	7.25	1.25	0.750	0.391	0.930	
0.4099	26236.55	3.8490	3.8490	1.4161	7.23	1.23	0.750			
0.4143	26512.69	3.8460	3.8462	1.4419	7.22	1.22	0.750			
0.4187	26795.58	3.8430	3.8430	1.4731	7.20	1.20	0.750			
0.4231	27077.66	3.8400	3.8401	1.5090	7.19	1.19	0.750			
0.4277	27373.71	3.8370	3.8367	1.5410	7.18	1.18	0.750			
0.4323	27670.29	3.8340	3.8336	1.5576	7.16	1.16	0.750			
0.4371	27973.25	3.8310	3.8310	1.5716	7.14	1.14	0.750			
0.4418	28273.68	3.8280	3.8282	1.5902	7.12	1.12	0.750			
0.4465	28578.52	3.8250	3.8249	1.6205	7.10	1.10	0.750			
0.4515	28896.77	3.8220	3.8217	1.6534	7.09	1.09	0.750			
0.4564	29210.61	3.8190	3.8190	1.6542	7.07	1.07	0.750			
0.4615	29533.21	3.8160	3.8160	1.7142	7.05	1.05	0.750			
0.4666	29863.35	3.8130	3.8129	1.7490	7.03	1.03	0.750			
0.4719	30202.09	3.8100	3.8099	1.7833	7.00	1.00	0.750			
0.4773	30544.92	3.8070	3.8071	1.8424	6.99	0.99	0.750			
0.4829	30907.46	3.8040	3.8041	1.8686	6.97	0.97	0.750			
0.4887	31276.83	3.8010	3.8010	1.9133	6.95	0.95	0.750			
0.4944	31641.83	3.7980	3.7982	1.9513	6.93	0.93	0.750			
0.5004	32024.53	3.7950	3.7949	1.9691	6.91	0.91	0.750			
0.5063	32405.10	3.7920	3.7921	2.0048	6.88	0.88	0.750			
0.5124	32790.99	3.7890	3.7892	2.0230	6.86	0.86	0.750			
0.5186	33187.91	3.7860	3.7858	2.0664	6.84	0.84	0.750			
0.5247	33582.06	3.7830	3.7831	2.1390	6.81	0.81	0.750			
0.5313	34001.83	3.7800	3.7799	2.1700	6.78	0.78	0.750			
0.5381	34435.58	3.7770	3.7772	2.2325	6.76	0.76	0.750			
0.5448	34868.14	3.7740	3.7740	2.2744	6.74	0.74	0.750			
0.5516	35303.52	3.7710	3.7708	2.2977	6.71	0.71	0.750			
0.5585	35743.76	3.7680	3.7680	2.2673	6.68	0.68	0.750			
0.5654	36187.48	3.7650	3.7651	2.3287	6.65	0.65	0.750			
0.5724	36634.38	3.7620	3.7620	2.3601	6.62	0.62	0.750			
0.5794	37082.65	3.7590	3.7589	2.4592	6.59	0.59	0.750			
0.5870	37569.16	3.7560	3.7561	2.5258	6.57	0.57	0.750			
0.5949	38072.46	3.7530	3.7531	2.6133	6.55	0.55	0.750			
0.6026	38567.86	3.7500	3.7499	2.6570	6.51	0.51	0.750			
0.6108	39090.03	3.7470	3.7470	2.7274	6.48	0.48	0.750			
0.6190	39613.58	3.7440	3.7440	2.8676	6.44	0.44	0.750			
0.6276	40167.89	3.7410	3.7409	3.1047	6.41	0.41	0.750			
0.6372	40783.79	3.7380	3.7381	3.2228	6.37	0.37	0.750			
0.6474	41431.21	3.7350	3.7349	3.2814	6.34	0.34	0.750			
0.6569	42041.59	3.7320	3.7321	3.2022	6.32	0.32	0.750			
0.6666	42662.86	3.7290	3.7290	3.1980	6.28	0.28	0.750			
0.6761	43270.71	3.7260	3.7259	3.0536	6.25	0.25	0.750			
0.6850	43842.31	3.7230	3.7231	2.7977	6.22	0.22	0.750			
0.6931	44357.32	3.7200	3.7201	2.5150	6.20	0.20	0.750			
0.7001	44806.42	3.7170	3.7169	2.2317	6.19	0.19	0.750			
0.7062	45196.92	3.7140	3.7141	1.9875	6.17	0.17	0.750			
0.7118	45558.18	3.7110	3.7110	1.7940	6.16	0.16	0.750			
0.7168	45873.41	3.7080	3.7080	1.6036	6.15	0.15	0.750			
0.7212	46156.93	3.7050	3.7050	1.4554	6.14	0.14	0.750			
0.7253	46421.37	3.7020	3.7021	1.3520	6.13	0.13	0.750			
0.7292	46665.90	3.6990	3.6989	1.2554	6.12	0.12	0.750			
0.7327	46891.77	3.6960	3.6958	1.1856	6.11	0.11	0.750			
0.7360	47103.90	3.6930	3.6931	1.1323	6.10	0.10	0.750			
0.7394	47321.22	3.6900	3.6900	1.1113	6.09	0.09	0.750			
0.7427	47531.76	3.6870	3.6870	1.0852	6.09	0.09	0.750			
0.7459	47736.84	3.6840	3.6840	1.0509	6.08	0.08	0.750			
0.7490	47935.72	3.6810	3.6812	1.0352	6.07	0.07	0.750			
0.7521	48132.37	3.6780	3.6780	1.0206	6.07	0.07	0.750			
0.7551	48326.29	3.6750	3.6749	0.9988	6.06	0.06	0.750			
0.7580	48512.54	3.6720	3.6719	0.9796	6.06	0.06	0.750			
0.7610	48701.97	3.6690	3.6690	0.9641	6.05	0.05	0.750			
0.7639	48886.83	3.6660	3.6661	0.9528	6.04	0.04	0.750			
0.7667	49069.58	3.6630	3.6629	0.9347	6.04	0.04	0.750			
0.7695	49245.17	3.6600	3.6598	0.9107	6.03	0.03	0.750			
0.7721	49417.41	3.6570	3.6571	0.8949	6.03	0.03	0.750			
0.7748	49587.62	3.6540	3.6541	0.8865	6.02	0.02	0.750			
0.7774	49752.99	3.6510	3.6510	0.8825	6.02	0.02	0.750			
0.7801	49924.01	3.6480	3.6480	0.8894	6.01	0.01	0.750			
0.7827	50091.89	3.6450	3.6450	0.8877	6.01	0.01	0.750			
0.7854	50267.04	3.6420	3.6420	0.8904	6.01	0.01	0.750			
0.7881	50439.51	3.6390	3.6390	0.8951	6.01	0.01	0.750			
0.7908	50612.38	3.6360	3.6360	0.8882	6.00	0.00	0.750			
0.7936	50787.47	3.6330	3.6331	0.8597	6.00	0.00	0.750			
0.7961	50952.78	3.6300	3.6299	0.8151	6.00	0.00	0.750			
0.7986	51112.18	3.6270	3.6271	0.7450	6.00	0.00	0.750			
0.8009	51255.92	3.6240	3.6241	0.6667	6.00	0.00	0.750			
0.8028	51376.16	3.6210	3.6210	0.5684	6.00	0.00	0.750			
0.8043	51474.27	3.6180	3.6179	0.4680	6.00	0.00	0.750			
0.8054	51543.80	3.6150	3.6153	0.3814	6.00	0.00	0.750			
0.8064	51608.70	3.6120	3.6121	0.3071	6.00	0.00	0.750			
0.8071	51656.77	3.6090	3.6091	0.2314	6.00	0.00	0.750			
0.8077	51693.73	3.6060	3.6055	0.1719	6.00	0.00	0.750			
0.8081	51717.35	3.6030	3.6009	0.1143	6.00	0.00	0.750			
0.8083	51729.01	3.5910	3.5711	-0.0645	6.00	0.00	0.749			
0.8083	51729.37	3.6000	3.5678	0.0632	6.00	0.00	0.749			
0.8084	51737.30	3.5940	3.4946	-0.0219	6.00	0.00	0.744			
0.8084	51737.42	3.5970	3.4935	0.0207	6.00	0.00	0.744			
