Ah_balance (normalized)	Ah_balance (mAh)	Voltage - fit (V)	Voltage -  interpolate (V)	dQ/dV (1/V)	Temperature (°C)	Temperature - diff (°C)	Current (C)	R_DC 0ms (mOhm)	R_DC 50ms (mOhm)	R_DC 50 ms PEC (mOhm)
0.0980	6272.03	4.1980	4.1995	0.5323	8.71	2.49	0.750			
0.0996	6373.63	4.1950	4.1973	0.5810	8.71	2.49	0.750			
0.1016	6504.06	4.1920	4.1943	0.7017	8.70	2.48	0.750			
0.1040	6658.15	4.1890	4.1908	0.7547	8.70	2.48	0.750			
0.1066	6819.64	4.1860	4.1867	0.8022	8.69	2.47	0.750			
0.1088	6962.25	4.1830	4.1839	0.7554	8.68	2.46	0.750			
0.1117	7146.78	4.1800	4.1798	0.7933	8.68	2.46	0.750			
0.1136	7270.98	4.1770	4.1771	0.7036	8.67	2.45	0.750			
0.1157	7405.44	4.1740	4.1740	0.7032	8.67	2.45	0.750			
0.1178	7538.74	4.1710	4.1709	0.7046	8.66	2.44	0.750			
0.1199	7674.43	4.1680	4.1680	0.7106	8.66	2.44	0.750			
0.1221	7812.73	4.1650	4.1651	0.7202	8.65	2.43	0.750			
0.1243	7952.22	4.1620	4.1619	0.7224	8.65	2.43	0.750			
0.1264	8091.66	4.1590	4.1590	0.7297	8.64	2.42	0.750			
0.1286	8230.16	4.1560	4.1562	0.7313	8.64	2.42	0.750			
0.1308	8371.96	4.1530	4.1529	0.7394	8.63	2.41	0.750			
0.1331	8515.39	4.1500	4.1498	0.7416	8.63	2.41	0.750			
0.1353	8658.83	4.1470	4.1471	0.7410	8.62	2.40	0.750			
0.1375	8801.39	4.1440	4.1441	0.7394	8.61	2.39	0.750			
0.1398	8945.21	4.1410	4.1410	0.7433	8.60	2.38	0.750			
0.1420	9086.72	4.1380	4.1380	0.7361	8.60	2.38	0.750			
0.1442	9225.87	4.1350	4.1350	0.7323	8.59	2.37	0.750			
0.1463	9366.00	4.1320	4.1320	0.7335	8.58	2.36	0.750			
0.1486	9507.78	4.1290	4.1290	0.7362	8.58	2.36	0.750			
0.1508	9648.86	4.1260	4.1260	0.7358	8.57	2.35	0.750			
0.1530	9790.02	4.1230	4.1230	0.7379	8.56	2.34	0.750			
0.1552	9930.70	4.1200	4.1200	0.7433	8.55	2.33	0.750			
0.1574	10075.02	4.1170	4.1171	0.7547	8.55	2.33	0.750			
0.1597	10218.73	4.1140	4.1140	0.7598	8.54	2.32	0.750			
0.1620	10366.51	4.1110	4.1110	0.7661	8.53	2.31	0.750			
0.1643	10514.73	4.1080	4.1081	0.7743	8.53	2.31	0.750			
0.1666	10665.03	4.1050	4.1050	0.7801	8.52	2.30	0.750			
0.1690	10815.11	4.1020	4.1018	0.7832	8.51	2.29	0.750			
0.1713	10965.42	4.0990	4.0990	0.7824	8.50	2.28	0.750			
0.1737	11117.13	4.0960	4.0959	0.7785	8.50	2.28	0.750			
0.1761	11267.43	4.0930	4.0931	0.7816	8.49	2.27	0.750			
0.1784	11416.02	4.0900	4.0901	0.7868	8.49	2.27	0.750			
0.1807	11565.09	4.0870	4.0869	0.7901	8.48	2.26	0.750			
0.1831	11717.46	4.0840	4.0840	0.7967	8.48	2.26	0.750			
0.1855	11871.14	4.0810	4.0809	0.7997	8.47	2.25	0.750			
0.1879	12026.96	4.0780	4.0781	0.7996	8.46	2.24	0.750			
0.1904	12184.32	4.0750	4.0750	0.7988	8.45	2.23	0.750			
0.1927	12334.47	4.0720	4.0722	0.8005	8.44	2.22	0.750			
0.1951	12486.13	4.0690	4.0689	0.8026	8.44	2.22	0.750			
0.1975	12640.73	4.0660	4.0659	0.7971	8.43	2.21	0.750			
0.1999	12793.44	4.0630	4.0630	0.8040	8.43	2.21	0.750			
0.2023	12947.65	4.0600	4.0602	0.8165	8.42	2.20	0.750			
0.2048	13106.03	4.0570	4.0570	0.8217	8.41	2.19	0.750			
0.2073	13264.54	4.0540	4.0538	0.8256	8.41	2.19	0.750			
0.2097	13421.86	4.0510	4.0511	0.8292	8.40	2.18	0.750			
0.2122	13582.40	4.0480	4.0482	0.8386	8.39	2.17	0.750			
0.2148	13747.59	4.0450	4.0449	0.8405	8.38	2.16	0.750			
0.2173	13907.86	4.0420	4.0420	0.8358	8.37	2.15	0.750			
0.2198	14068.41	4.0390	4.0392	0.8348	8.36	2.14	0.750			
0.2223	14227.56	4.0360	4.0360	0.8373	8.35	2.13	0.750			
0.2248	14387.64	4.0330	4.0330	0.8448	8.34	2.12	0.750			
0.2273	14549.48	4.0300	4.0300	0.8498	8.33	2.11	0.750			
0.2299	14713.69	4.0270	4.0269	0.8601	8.33	2.11	0.750			
0.2325	14882.07	4.0240	4.0241	0.8656	8.32	2.10	0.750			
0.2351	15048.56	4.0210	4.0210	0.8679	8.31	2.09	0.750			
0.2377	15214.78	4.0180	4.0180	0.8743	8.30	2.08	0.750			
0.2404	15382.62	4.0150	4.0150	0.8809	8.28	2.06	0.750			
0.2430	15550.39	4.0120	4.0119	0.8809	8.27	2.05	0.750			
0.2456	15721.24	4.0090	4.0089	0.8878	8.26	2.04	0.750			
0.2483	15894.06	4.0060	4.0061	0.8840	8.26	2.04	0.750			
0.2510	16063.36	4.0030	4.0031	0.8880	8.25	2.03	0.750			
0.2536	16232.83	4.0000	4.0000	0.8943	8.24	2.02	0.750			
0.2563	16404.68	3.9970	3.9968	0.8957	8.23	2.01	0.750			
0.2590	16577.38	3.9940	3.9940	0.8903	8.22	2.00	0.750			
0.2617	16748.47	3.9910	3.9911	0.8964	8.21	1.99	0.750			
0.2644	16920.48	3.9880	3.9881	0.9066	8.20	1.98	0.750			
0.2671	17094.97	3.9850	3.9849	0.9169	8.20	1.98	0.750			
0.2698	17266.80	3.9820	3.9819	0.9225	8.19	1.97	0.750			
0.2726	17445.24	3.9790	3.9791	0.9390	8.18	1.96	0.750			
0.2755	17631.59	3.9760	3.9759	0.9537	8.16	1.94	0.750			
0.2784	17817.74	3.9730	3.9730	0.9598	8.15	1.93	0.750			
0.2813	18002.72	3.9700	3.9699	0.9589	8.14	1.92	0.750			
0.2842	18187.67	3.9670	3.9671	0.9541	8.13	1.91	0.750			
0.2870	18370.40	3.9640	3.9639	0.9608	8.12	1.90	0.750			
0.2899	18552.83	3.9610	3.9610	0.9609	8.11	1.89	0.750			
0.2928	18737.36	3.9580	3.9580	0.9597	8.10	1.88	0.750			
0.2957	18924.77	3.9550	3.9550	0.9610	8.08	1.86	0.750			
0.2986	19108.67	3.9520	3.9522	0.9724	8.07	1.85	0.750			
0.3015	19295.46	3.9490	3.9490	0.9792	8.06	1.84	0.750			
0.3044	19482.17	3.9460	3.9460	0.9927	8.05	1.83	0.750			
0.3074	19672.15	3.9430	3.9430	0.9970	8.04	1.82	0.750			
0.3104	19865.95	3.9400	3.9400	1.0127	8.02	1.80	0.750			
0.3135	20065.16	3.9370	3.9370	1.0279	8.01	1.79	0.750			
0.3166	20262.91	3.9340	3.9340	1.0369	8.00	1.78	0.750			
0.3197	20463.37	3.9310	3.9309	1.0313	7.99	1.77	0.750			
0.3229	20663.76	3.9280	3.9280	1.0410	7.97	1.75	0.750			
0.3260	20861.31	3.9250	3.9250	1.0446	7.96	1.74	0.750			
0.3291	21062.92	3.9220	3.9221	1.0586	7.95	1.73	0.750			
0.3323	21267.40	3.9190	3.9188	1.0604	7.94	1.72	0.750			
0.3355	21470.48	3.9160	3.9159	1.0707	7.92	1.70	0.750			
0.3387	21674.10	3.9130	3.9132	1.0852	7.91	1.69	0.750			
0.3420	21885.41	3.9100	3.9101	1.1053	7.90	1.68	0.750			
0.3453	22100.28	3.9070	3.9069	1.1106	7.88	1.66	0.750			
0.3487	22316.30	3.9040	3.9040	1.1320	7.87	1.65	0.750			
0.3521	22534.63	3.9010	3.9011	1.1459	7.86	1.64	0.750			
0.3556	22758.11	3.8980	3.8979	1.1571	7.84	1.62	0.750			
0.3591	22981.75	3.8950	3.8951	1.1602	7.83	1.61	0.750			
0.3625	23203.09	3.8920	3.8920	1.1732	7.82	1.60	0.750			
0.3660	23426.82	3.8890	3.8890	1.1841	7.80	1.58	0.750			
0.3696	23653.26	3.8860	3.8861	1.1937	7.79	1.57	0.750			
0.3732	23885.81	3.8830	3.8830	1.2226	7.77	1.55	0.750			
0.3769	24122.98	3.8800	3.8794	1.2391	7.76	1.54	0.750	0.372	0.786	
0.3807	24366.04	3.8770	3.8770	1.2486	7.74	1.52	0.750			
0.3845	24607.60	3.8740	3.8741	1.2813	7.73	1.51	0.750			
0.3883	24853.71	3.8710	3.8710	1.2991	7.71	1.49	0.750			
0.3923	25105.30	3.8680	3.8680	1.2994	7.69	1.47	0.750			
0.3962	25359.26	3.8650	3.8653	1.3269	7.67	1.45	0.750			
0.4002	25613.77	3.8620	3.8620	1.3452	7.66	1.44	0.750			
0.4043	25876.13	3.8590	3.8592	1.3619	7.64	1.42	0.750			
0.4084	26137.58	3.8560	3.8560	1.3856	7.62	1.40	0.750			
0.4126	26404.12	3.8530	3.8531	1.4035	7.60	1.38	0.750			
0.4168	26677.81	3.8500	3.8500	1.4169	7.58	1.36	0.750			
0.4212	26955.61	3.8470	3.8470	1.4375	7.56	1.34	0.750			
0.4255	27231.50	3.8440	3.8440	1.4368	7.53	1.31	0.750			
0.4298	27507.33	3.8410	3.8410	1.4449	7.51	1.29	0.750			
0.4342	27785.68	3.8380	3.8381	1.4571	7.49	1.27	0.750			
0.4385	28060.92	3.8350	3.8350	1.4720	7.47	1.25	0.750			
0.4429	28343.91	3.8320	3.8319	1.5001	7.45	1.23	0.750			
0.4474	28631.88	3.8290	3.8291	1.5234	7.42	1.20	0.750			
0.4521	28935.46	3.8260	3.8260	1.5526	7.40	1.18	0.750			
0.4568	29236.96	3.8230	3.8229	1.5755	7.38	1.16	0.750			
0.4615	29538.96	3.8200	3.8202	1.5846	7.36	1.14	0.750			
0.4664	29848.51	3.8170	3.8172	1.5912	7.33	1.11	0.750			
0.4711	30153.37	3.8140	3.8139	1.5963	7.31	1.09	0.750			
0.4759	30460.79	3.8110	3.8110	1.6012	7.28	1.06	0.750			
0.4807	30764.70	3.8080	3.8079	1.6206	7.25	1.03	0.750			
0.4856	31078.42	3.8050	3.8048	1.6553	7.23	1.01	0.750			
0.4905	31392.67	3.8020	3.8018	1.6511	7.21	0.99	0.750			
0.4956	31717.58	3.7990	3.7992	1.6879	7.18	0.96	0.750			
0.5007	32044.48	3.7960	3.7961	1.7285	7.15	0.93	0.750			
0.5059	32377.31	3.7930	3.7927	1.7592	7.12	0.90	0.750			
0.5113	32722.66	3.7900	3.7900	1.7994	7.10	0.88	0.750			
0.5168	33072.24	3.7870	3.7872	1.8339	7.08	0.86	0.750			
0.5223	33428.04	3.7840	3.7840	1.8824	7.05	0.83	0.750			
0.5280	33789.89	3.7810	3.7810	1.9136	7.03	0.81	0.750			
0.5337	34157.11	3.7780	3.7779	1.9766	7.00	0.78	0.750			
0.5398	34546.14	3.7750	3.7750	2.0470	6.96	0.74	0.750			
0.5461	34948.72	3.7720	3.7719	2.1127	6.93	0.71	0.750			
0.5526	35365.98	3.7690	3.7690	2.1920	6.91	0.69	0.750			
0.5591	35782.80	3.7660	3.7660	2.2809	6.88	0.66	0.750			
0.5661	36228.26	3.7630	3.7628	2.3907	6.84	0.62	0.750			
0.5734	36696.80	3.7600	3.7599	2.5000	6.81	0.59	0.750			
0.5810	37187.02	3.7570	3.7572	2.6585	6.77	0.55	0.750			
0.5892	37709.97	3.7540	3.7539	2.8371	6.73	0.51	0.750			
0.5979	38264.57	3.7510	3.7510	3.0013	6.69	0.47	0.750			
0.6074	38872.73	3.7480	3.7480	3.0623	6.66	0.44	0.750			
0.6166	39461.10	3.7450	3.7450	3.0746	6.62	0.40	0.750			
0.6258	40051.59	3.7420	3.7420	2.9363	6.58	0.36	0.750			
0.6346	40612.57	3.7390	3.7391	2.7407	6.55	0.33	0.750			
0.6424	41112.67	3.7360	3.7361	2.4603	6.53	0.31	0.750			
0.6493	41557.46	3.7330	3.7329	2.1640	6.50	0.28	0.750			
0.6553	41936.24	3.7300	3.7301	1.9166	6.48	0.26	0.750			
0.6607	42281.77	3.7270	3.7271	1.6827	6.46	0.24	0.750			
0.6650	42559.56	3.7240	3.7240	1.4945	6.44	0.22	0.750			
0.6690	42819.18	3.7210	3.7208	1.3424	6.43	0.21	0.750			
0.6727	43055.18	3.7180	3.7180	1.2596	6.42	0.20	0.750			
0.6764	43290.27	3.7150	3.7149	1.2189	6.41	0.19	0.750			
0.6800	43517.31	3.7120	3.7121	1.1859	6.39	0.17	0.750			
0.6835	43741.83	3.7090	3.7090	1.1497	6.38	0.16	0.750			
0.6869	43961.01	3.7060	3.7061	1.1272	6.37	0.15	0.750			
0.6902	44173.73	3.7030	3.7029	1.1054	6.36	0.14	0.750			
0.6935	44385.03	3.7000	3.6998	1.0821	6.34	0.12	0.750			
0.6967	44586.67	3.6970	3.6970	1.0458	6.33	0.11	0.750			
0.6998	44784.61	3.6940	3.6940	1.0317	6.32	0.10	0.750			
0.7028	44981.46	3.6910	3.6912	1.0075	6.31	0.09	0.750			
0.7058	45174.32	3.6880	3.6878	0.9912	6.30	0.08	0.750			
0.7088	45360.99	3.6850	3.6851	0.9654	6.29	0.07	0.750			
0.7116	45542.43	3.6820	3.6819	0.9531	6.28	0.06	0.750			
0.7144	45724.47	3.6790	3.6791	0.9444	6.27	0.05	0.750			
0.7173	45904.50	3.6760	3.6759	0.9348	6.27	0.05	0.750			
0.7200	46080.89	3.6730	3.6729	0.9216	6.26	0.04	0.750			
0.7228	46258.68	3.6700	3.6701	0.9210	6.25	0.03	0.750			
0.7255	46432.46	3.6670	3.6671	0.9213	6.25	0.03	0.750			
0.7283	46609.78	3.6640	3.6639	0.9258	6.25	0.03	0.750			
0.7310	46786.93	3.6610	3.6608	0.9216	6.24	0.02	0.750			
0.7338	46965.07	3.6580	3.6581	0.9206	6.24	0.02	0.750			
0.7366	47143.18	3.6550	3.6552	0.9150	6.23	0.01	0.750			
0.7395	47326.82	3.6520	3.6518	0.8940	6.23	0.01	0.750			
0.7422	47499.33	3.6490	3.6489	0.8448	6.22	0.00	0.750			
0.7447	47662.59	3.6460	3.6460	0.7689	6.22	-0.00	0.750			
0.7470	47807.17	3.6430	3.6432	0.6812	6.22	-0.00	0.750			
0.7490	47935.23	3.6400	3.6401	0.5862	6.21	-0.01	0.750			
0.7505	48034.78	3.6370	3.6369	0.4810	6.21	-0.01	0.750			
0.7515	48097.10	3.6340	3.6345	0.3897	6.21	-0.01	0.750			
0.7526	48164.42	3.6310	3.6313	0.3211	6.21	-0.01	0.750			
0.7534	48214.85	3.6280	3.6282	0.2487	6.21	-0.01	0.750			
0.7540	48254.94	3.6250	3.6241	0.1979	6.20	-0.02	0.750			
0.7544	48281.93	3.6220	3.6147	0.1458	6.20	-0.02	0.750			
0.7545	48291.04	3.5980	3.5525	-0.1026	6.20	-0.02	0.754			
0.7546	48295.40	3.6190	3.4935	0.0961	6.20	-0.02	0.764			
0.7548	48308.01	3.6010	3.3228	-0.0742	6.20	-0.02	0.792			
0.7549	48311.13	3.6160	3.2807	0.0677	6.20	-0.02	0.799			
0.7550	48319.54	3.6040	3.1669	-0.0458	6.20	-0.02	0.817			
0.7550	48321.41	3.6130	3.1416	0.0393	6.20	-0.02	0.822			
0.7551	48325.61	3.6070	3.0847	-0.0174	6.20	-0.02	0.831			
0.7551	48326.23	3.6100	3.0763	0.0109	6.20	-0.02	0.832			
