Ah_balance (normalized)	Ah_balance (mAh)	Voltage - fit (V)	Voltage -  interpolate (V)	dQ/dV (1/V)	Temperature (°C)	Temperature - diff (°C)	Current (C)	R_DC 0ms (mOhm)	R_DC 50ms (mOhm)	R_DC 50 ms PEC (mOhm)
0.0990	6334.34	4.1970	4.1985	0.5487	8.36	2.38	0.750			
0.1008	6454.22	4.1940	4.1962	0.6664	8.36	2.38	0.750			
0.1031	6599.68	4.1910	4.1929	0.7396	8.35	2.37	0.750			
0.1054	6744.08	4.1880	4.1895	0.7544	8.35	2.37	0.750			
0.1078	6900.56	4.1850	4.1860	0.7516	8.35	2.37	0.750			
0.1103	7062.08	4.1820	4.1824	0.7746	8.34	2.36	0.750			
0.1127	7215.31	4.1790	4.1791	0.7039	8.34	2.36	0.750			
0.1148	7349.88	4.1760	4.1760	0.7059	8.33	2.35	0.750			
0.1170	7485.16	4.1730	4.1729	0.7107	8.32	2.34	0.750			
0.1191	7620.50	4.1700	4.1701	0.7152	8.32	2.34	0.750			
0.1212	7759.43	4.1670	4.1670	0.7247	8.31	2.33	0.750			
0.1234	7899.29	4.1640	4.1639	0.7291	8.30	2.32	0.750			
0.1256	8039.85	4.1610	4.1610	0.7328	8.30	2.32	0.750			
0.1278	8181.79	4.1580	4.1581	0.7315	8.29	2.31	0.750			
0.1300	8323.04	4.1550	4.1548	0.7349	8.29	2.31	0.750			
0.1323	8464.86	4.1520	4.1522	0.7286	8.29	2.31	0.750			
0.1344	8604.74	4.1490	4.1489	0.7295	8.28	2.30	0.750			
0.1366	8744.01	4.1460	4.1460	0.7286	8.28	2.30	0.750			
0.1388	8882.73	4.1430	4.1430	0.7342	8.27	2.29	0.750			
0.1410	9023.24	4.1400	4.1400	0.7335	8.27	2.29	0.750			
0.1432	9165.34	4.1370	4.1369	0.7348	8.26	2.28	0.750			
0.1454	9304.40	4.1340	4.1340	0.7415	8.26	2.28	0.750			
0.1476	9449.23	4.1310	4.1312	0.7526	8.25	2.27	0.750			
0.1499	9593.67	4.1280	4.1278	0.7553	8.25	2.27	0.750			
0.1522	9739.58	4.1250	4.1250	0.7597	8.24	2.26	0.750			
0.1545	9886.59	4.1220	4.1221	0.7570	8.23	2.25	0.750			
0.1568	10034.23	4.1190	4.1191	0.7638	8.22	2.24	0.750			
0.1591	10180.16	4.1160	4.1160	0.7595	8.22	2.24	0.750			
0.1613	10324.41	4.1130	4.1127	0.7526	8.21	2.23	0.750			
0.1635	10466.33	4.1100	4.1101	0.7570	8.20	2.22	0.750			
0.1658	10611.88	4.1070	4.1071	0.7613	8.20	2.22	0.750			
0.1681	10759.51	4.1040	4.1039	0.7687	8.19	2.21	0.750			
0.1704	10908.75	4.1010	4.1009	0.7737	8.18	2.20	0.750			
0.1728	11056.43	4.0980	4.0980	0.7763	8.17	2.19	0.750			
0.1751	11206.10	4.0950	4.0952	0.7855	8.17	2.19	0.750			
0.1775	11361.16	4.0920	4.0918	0.7855	8.16	2.18	0.750			
0.1798	11509.52	4.0890	4.0889	0.7876	8.16	2.18	0.750			
0.1822	11661.25	4.0860	4.0860	0.7916	8.15	2.17	0.750			
0.1846	11812.57	4.0830	4.0832	0.7961	8.14	2.16	0.750			
0.1870	11967.06	4.0800	4.0799	0.8020	8.14	2.16	0.750			
0.1894	12121.07	4.0770	4.0770	0.8042	8.13	2.15	0.750			
0.1918	12275.00	4.0740	4.0741	0.8068	8.12	2.14	0.750			
0.1942	12430.31	4.0710	4.0710	0.8200	8.11	2.13	0.750			
0.1967	12588.03	4.0680	4.0680	0.8230	8.11	2.13	0.750			
0.1992	12749.66	4.0650	4.0649	0.8225	8.10	2.12	0.750			
0.2017	12907.62	4.0620	4.0620	0.8216	8.09	2.11	0.750			
0.2042	13067.21	4.0590	4.0592	0.8188	8.08	2.10	0.750			
0.2066	13223.46	4.0560	4.0560	0.8153	8.08	2.10	0.750			
0.2090	13377.14	4.0530	4.0530	0.8216	8.07	2.09	0.750			
0.2115	13533.72	4.0500	4.0498	0.8234	8.06	2.08	0.750			
0.2139	13690.84	4.0470	4.0470	0.8384	8.05	2.07	0.750			
0.2165	13855.06	4.0440	4.0442	0.8476	8.04	2.06	0.750			
0.2191	14020.25	4.0410	4.0409	0.8552	8.04	2.06	0.750			
0.2217	14186.97	4.0380	4.0380	0.8536	8.03	2.05	0.750			
0.2242	14349.26	4.0350	4.0352	0.8547	8.02	2.04	0.750			
0.2268	14512.15	4.0320	4.0320	0.8572	8.01	2.03	0.750			
0.2294	14679.29	4.0290	4.0288	0.8568	8.00	2.02	0.750			
0.2319	14842.47	4.0260	4.0260	0.8539	7.99	2.01	0.750			
0.2345	15006.11	4.0230	4.0231	0.8609	7.99	2.01	0.750			
0.2371	15173.30	4.0200	4.0201	0.8677	7.98	2.00	0.750			
0.2397	15341.48	4.0170	4.0170	0.8700	7.97	1.99	0.750			
0.2423	15504.27	4.0140	4.0139	0.8795	7.96	1.98	0.750			
0.2449	15675.09	4.0110	4.0111	0.8936	7.95	1.97	0.750			
0.2477	15850.92	4.0080	4.0078	0.9043	7.94	1.96	0.750			
0.2504	16025.09	4.0050	4.0051	0.9041	7.93	1.95	0.750			
0.2531	16199.92	4.0020	4.0021	0.9056	7.92	1.94	0.750			
0.2559	16375.60	3.9990	3.9991	0.9028	7.91	1.93	0.750			
0.2586	16547.88	3.9960	3.9959	0.9073	7.90	1.92	0.750			
0.2612	16718.64	3.9930	3.9931	0.9048	7.89	1.91	0.750			
0.2640	16895.31	3.9900	3.9899	0.9031	7.88	1.90	0.750			
0.2667	17069.89	3.9870	3.9870	0.9148	7.87	1.89	0.750			
0.2695	17245.66	3.9840	3.9841	0.9173	7.86	1.88	0.750			
0.2722	17419.29	3.9810	3.9811	0.9295	7.86	1.88	0.750			
0.2750	17599.44	3.9780	3.9780	0.9390	7.85	1.87	0.750			
0.2778	17779.58	3.9750	3.9750	0.9450	7.84	1.86	0.750			
0.2807	17962.61	3.9720	3.9719	0.9585	7.83	1.85	0.750			
0.2836	18151.48	3.9690	3.9691	0.9549	7.82	1.84	0.750			
0.2865	18335.78	3.9660	3.9659	0.9546	7.81	1.83	0.750			
0.2894	18518.65	3.9630	3.9630	0.9549	7.80	1.82	0.750			
0.2921	18696.63	3.9600	3.9601	0.9545	7.79	1.81	0.750			
0.2950	18882.04	3.9570	3.9569	0.9682	7.78	1.80	0.750			
0.2979	19068.02	3.9540	3.9540	0.9788	7.76	1.78	0.750			
0.3009	19258.28	3.9510	3.9509	0.9867	7.75	1.77	0.750			
0.3039	19451.21	3.9480	3.9481	1.0039	7.74	1.76	0.750			
0.3069	19643.38	3.9450	3.9451	1.0114	7.73	1.75	0.750			
0.3100	19840.24	3.9420	3.9419	1.0151	7.72	1.74	0.750			
0.3131	20036.09	3.9390	3.9390	1.0165	7.71	1.73	0.750			
0.3161	20230.44	3.9360	3.9360	1.0247	7.70	1.72	0.750			
0.3192	20427.78	3.9330	3.9331	1.0265	7.69	1.71	0.750			
0.3222	20623.43	3.9300	3.9299	1.0334	7.69	1.71	0.750			
0.3254	20824.56	3.9270	3.9270	1.0376	7.67	1.69	0.750			
0.3285	21021.88	3.9240	3.9241	1.0519	7.66	1.68	0.750			
0.3317	21227.38	3.9210	3.9210	1.0693	7.65	1.67	0.750			
0.3349	21433.18	3.9180	3.9181	1.0864	7.64	1.66	0.750			
0.3382	21644.03	3.9150	3.9151	1.0889	7.62	1.64	0.750			
0.3415	21855.30	3.9120	3.9120	1.1022	7.61	1.63	0.750			
0.3448	22066.07	3.9090	3.9090	1.1098	7.60	1.62	0.750			
0.3481	22280.95	3.9060	3.9060	1.1271	7.58	1.60	0.750			
0.3515	22496.17	3.9030	3.9029	1.1310	7.57	1.59	0.750			
0.3549	22712.85	3.9000	3.9000	1.1525	7.55	1.57	0.750			
0.3584	22935.68	3.8970	3.8971	1.1697	7.53	1.55	0.750			
0.3620	23166.44	3.8940	3.8939	1.1822	7.52	1.54	0.750			
0.3655	23392.97	3.8910	3.8910	1.2059	7.50	1.52	0.750			
0.3691	23623.69	3.8880	3.8882	1.2086	7.49	1.51	0.750			
0.3727	23855.83	3.8850	3.8849	1.2272	7.47	1.49	0.750			
0.3765	24094.30	3.8820	3.8822	1.2452	7.46	1.48	0.750	0.388	0.813	
0.3802	24332.08	3.8790	3.8791	1.2661	7.45	1.47	0.750			
0.3841	24581.54	3.8760	3.8760	1.2840	7.44	1.46	0.750			
0.3880	24828.90	3.8730	3.8731	1.2995	7.42	1.44	0.750			
0.3920	25085.00	3.8700	3.8699	1.3244	7.40	1.42	0.750			
0.3959	25336.52	3.8670	3.8671	1.3205	7.38	1.40	0.750			
0.3998	25588.41	3.8640	3.8639	1.3302	7.36	1.38	0.750			
0.4038	25844.27	3.8610	3.8612	1.3469	7.34	1.36	0.750			
0.4078	26101.29	3.8580	3.8581	1.3627	7.32	1.34	0.750			
0.4120	26365.71	3.8550	3.8549	1.3895	7.31	1.33	0.750			
0.4162	26636.42	3.8520	3.8520	1.4007	7.29	1.31	0.750			
0.4205	26909.76	3.8490	3.8490	1.4260	7.27	1.29	0.750			
0.4248	27184.92	3.8460	3.8459	1.4538	7.25	1.27	0.750			
0.4292	27466.09	3.8430	3.8432	1.4682	7.23	1.25	0.750			
0.4336	27750.66	3.8400	3.8402	1.4796	7.21	1.23	0.750			
0.4380	28033.66	3.8370	3.8372	1.5051	7.19	1.21	0.750			
0.4426	28325.57	3.8340	3.8338	1.5240	7.16	1.18	0.750			
0.4472	28622.04	3.8310	3.8310	1.5259	7.14	1.16	0.750			
0.4518	28912.41	3.8280	3.8281	1.5429	7.12	1.14	0.750			
0.4565	29213.34	3.8250	3.8251	1.5721	7.10	1.12	0.750			
0.4613	29521.27	3.8220	3.8216	1.5862	7.08	1.10	0.750			
0.4660	29824.15	3.8190	3.8193	1.6111	7.05	1.07	0.750			
0.4708	30131.00	3.8160	3.8163	1.6247	7.03	1.05	0.750			
0.4758	30453.07	3.8130	3.8129	1.6524	7.00	1.02	0.750			
0.4808	30769.79	3.8100	3.8102	1.6713	6.98	1.00	0.750			
0.4859	31095.47	3.8070	3.8068	1.7043	6.95	0.97	0.750			
0.4910	31424.70	3.8040	3.8041	1.7344	6.93	0.95	0.750			
0.4963	31761.94	3.8010	3.8011	1.7676	6.90	0.92	0.750			
0.5016	32101.95	3.7980	3.7982	1.7842	6.88	0.90	0.750			
0.5070	32446.98	3.7950	3.7950	1.7898	6.85	0.87	0.750			
0.5124	32794.93	3.7920	3.7919	1.8239	6.82	0.84	0.750			
0.5178	33141.08	3.7890	3.7888	1.8400	6.80	0.82	0.750			
0.5235	33501.04	3.7860	3.7858	1.8927	6.77	0.79	0.750			
0.5291	33864.96	3.7830	3.7830	1.9236	6.74	0.76	0.750			
0.5349	34235.26	3.7800	3.7799	1.9789	6.72	0.74	0.750			
0.5409	34614.86	3.7770	3.7772	2.0507	6.69	0.71	0.750			
0.5471	35014.14	3.7740	3.7739	2.1400	6.66	0.68	0.750			
0.5536	35427.43	3.7710	3.7710	2.2154	6.63	0.65	0.750			
0.5605	35874.32	3.7680	3.7680	2.3091	6.59	0.61	0.750			
0.5676	36324.25	3.7650	3.7649	2.3597	6.56	0.58	0.750			
0.5746	36774.95	3.7620	3.7621	2.4398	6.53	0.55	0.750			
0.5819	37241.91	3.7590	3.7591	2.6189	6.50	0.52	0.750			
0.5901	37764.40	3.7560	3.7559	2.7526	6.46	0.48	0.750			
0.5987	38317.85	3.7530	3.7532	2.9140	6.41	0.43	0.750			
0.6077	38890.50	3.7500	3.7499	2.9987	6.37	0.39	0.750			
0.6167	39467.50	3.7470	3.7471	3.0581	6.34	0.36	0.750			
0.6262	40078.38	3.7440	3.7440	3.0135	6.30	0.32	0.750			
0.6352	40650.67	3.7410	3.7411	2.8860	6.27	0.29	0.750			
0.6436	41188.41	3.7380	3.7379	2.6112	6.24	0.26	0.750			
0.6509	41660.70	3.7350	3.7350	2.3036	6.21	0.23	0.750			
0.6573	42069.39	3.7320	3.7318	2.0389	6.20	0.22	0.750			
0.6628	42417.76	3.7290	3.7292	1.7422	6.18	0.20	0.750			
0.6676	42724.95	3.7260	3.7260	1.5619	6.16	0.18	0.750			
0.6716	42984.72	3.7230	3.7230	1.3918	6.15	0.17	0.750			
0.6755	43232.39	3.7200	3.7200	1.2784	6.14	0.16	0.750			
0.6792	43465.76	3.7170	3.7170	1.2264	6.13	0.15	0.750			
0.6827	43693.94	3.7140	3.7142	1.1903	6.12	0.14	0.750			
0.6863	43922.66	3.7110	3.7107	1.1554	6.11	0.13	0.750			
0.6897	44139.08	3.7080	3.7080	1.1174	6.10	0.12	0.750			
0.6930	44350.21	3.7050	3.7051	1.0888	6.09	0.11	0.750			
0.6962	44557.60	3.7020	3.7020	1.0581	6.08	0.10	0.750			
0.6993	44756.49	3.6990	3.6989	1.0289	6.07	0.09	0.750			
0.7023	44947.88	3.6960	3.6961	1.0090	6.06	0.08	0.750			
0.7053	45136.80	3.6930	3.6930	0.9959	6.05	0.07	0.750			
0.7083	45328.75	3.6900	3.6899	0.9918	6.04	0.06	0.750			
0.7112	45519.61	3.6870	3.6868	0.9755	6.03	0.05	0.750			
0.7142	45707.26	3.6840	3.6840	0.9629	6.03	0.05	0.750			
0.7171	45892.74	3.6810	3.6811	0.9461	6.02	0.04	0.750			
0.7199	46072.05	3.6780	3.6781	0.9233	6.02	0.04	0.750			
0.7226	46243.84	3.6750	3.6749	0.9034	6.01	0.03	0.750			
0.7252	46415.37	3.6720	3.6720	0.8972	6.01	0.03	0.750			
0.7279	46584.33	3.6690	3.6690	0.8857	6.00	0.02	0.750			
0.7305	46752.61	3.6660	3.6659	0.8874	6.00	0.02	0.750			
0.7332	46923.09	3.6630	3.6631	0.8877	5.99	0.01	0.750			
0.7359	47094.44	3.6600	3.6599	0.8902	5.99	0.01	0.750			
0.7386	47267.91	3.6570	3.6569	0.8830	5.99	0.01	0.750			
0.7413	47440.29	3.6540	3.6541	0.8535	5.99	0.01	0.750			
0.7439	47609.86	3.6510	3.6510	0.8131	5.98	0.00	0.750			
0.7463	47766.06	3.6480	3.6481	0.7499	5.98	0.00	0.750			
0.7485	47906.90	3.6450	3.6449	0.6631	5.98	0.00	0.750			
0.7504	48026.95	3.6420	3.6421	0.5738	5.98	-0.00	0.750			
0.7520	48127.08	3.6390	3.6390	0.4731	5.98	-0.00	0.750			
0.7530	48194.49	3.6360	3.6365	0.4053	5.98	-0.00	0.750			
0.7541	48262.42	3.6330	3.6333	0.3219	5.98	-0.00	0.750			
0.7549	48314.90	3.6300	3.6297	0.2584	5.98	-0.00	0.750			
0.7555	48351.29	3.6270	3.6262	0.1934	5.97	-0.01	0.750			
0.7560	48381.39	3.6240	3.6129	0.1494	5.97	-0.01	0.750			
0.7560	48386.57	3.6000	3.5768	-0.1223	5.97	-0.01	0.750			
0.7562	48398.70	3.6210	3.3498	0.1043	5.97	-0.01	0.741			
0.7564	48406.95	3.6030	3.1954	-0.0900	5.97	-0.01	0.735			
0.7565	48415.62	3.6180	3.0333	0.0719	5.97	-0.01	0.729			
0.7566	48421.12	3.6060	2.9304	-0.0576	5.97	-0.01	0.725			
0.7567	48426.32	3.6150	2.8331	0.0395	5.97	-0.01	0.721			
0.7567	48429.06	3.6090	2.7817	-0.0252	5.97	-0.01	0.719			
0.7567	48430.80	3.6120	2.7493	0.0072	5.97	-0.01	0.718			
