Ah_balance (normalized)	Ah_balance (mAh)	Voltage - fit (V)	Voltage -  interpolate (V)	dQ/dV (1/V)	Temperature (°C)	Temperature - diff (°C)	Current (C)	R_DC 0ms (mOhm)	R_DC 50ms (mOhm)	R_DC 50 ms PEC (mOhm)
0.1000	6402.41	4.1970	4.1988	0.6512	8.04	2.04	0.750			
0.1018	6517.25	4.1940	4.1962	0.6578	8.04	2.04	0.750			
0.1041	6659.81	4.1910	4.1930	0.7398	8.04	2.04	0.750			
0.1063	6805.46	4.1880	4.1898	0.7505	8.03	2.03	0.750			
0.1086	6952.97	4.1850	4.1865	0.7414	8.03	2.03	0.750			
0.1111	7112.35	4.1820	4.1831	0.7578	8.03	2.03	0.750			
0.1140	7295.09	4.1790	4.1784	0.7816	8.02	2.02	0.750			
0.1158	7412.60	4.1760	4.1760	0.6930	8.02	2.02	0.750			
0.1179	7543.72	4.1730	4.1731	0.6980	8.01	2.01	0.750			
0.1200	7679.84	4.1700	4.1700	0.7046	8.01	2.01	0.750			
0.1222	7819.20	4.1670	4.1670	0.7178	8.00	2.00	0.750			
0.1243	7956.11	4.1640	4.1640	0.7174	8.00	2.00	0.750			
0.1265	8094.58	4.1610	4.1608	0.7185	7.99	1.99	0.750			
0.1287	8234.24	4.1580	4.1581	0.7163	7.99	1.99	0.750			
0.1308	8368.83	4.1550	4.1550	0.7142	7.98	1.98	0.750			
0.1329	8507.47	4.1520	4.1521	0.7138	7.98	1.98	0.750			
0.1351	8644.14	4.1490	4.1488	0.7149	7.98	1.98	0.750			
0.1372	8779.05	4.1460	4.1461	0.7124	7.97	1.97	0.750			
0.1393	8916.22	4.1430	4.1428	0.7171	7.97	1.97	0.750			
0.1415	9055.11	4.1400	4.1400	0.7178	7.97	1.97	0.750			
0.1437	9193.91	4.1370	4.1370	0.7184	7.96	1.96	0.750			
0.1458	9328.73	4.1340	4.1339	0.7253	7.96	1.96	0.750			
0.1479	9468.02	4.1310	4.1312	0.7345	7.96	1.96	0.750			
0.1502	9610.55	4.1280	4.1279	0.7451	7.95	1.95	0.750			
0.1524	9756.26	4.1250	4.1251	0.7484	7.95	1.95	0.750			
0.1547	9901.95	4.1220	4.1221	0.7456	7.95	1.95	0.750			
0.1570	10048.01	4.1190	4.1191	0.7442	7.94	1.94	0.750			
0.1592	10187.69	4.1160	4.1160	0.7466	7.94	1.94	0.750			
0.1614	10327.16	4.1130	4.1130	0.7436	7.93	1.93	0.750			
0.1636	10470.55	4.1100	4.1099	0.7493	7.93	1.93	0.750			
0.1659	10614.61	4.1070	4.1070	0.7622	7.93	1.93	0.750			
0.1682	10766.73	4.1040	4.1040	0.7637	7.92	1.92	0.750			
0.1705	10913.72	4.1010	4.1010	0.7621	7.92	1.92	0.750			
0.1728	11058.81	4.0980	4.0980	0.7622	7.92	1.92	0.750			
0.1751	11206.64	4.0950	4.0951	0.7638	7.91	1.91	0.750			
0.1773	11348.80	4.0920	4.0918	0.7684	7.91	1.91	0.750			
0.1796	11497.04	4.0890	4.0891	0.7754	7.90	1.90	0.750			
0.1819	11643.51	4.0860	4.0861	0.7838	7.90	1.90	0.750			
0.1844	11798.67	4.0830	4.0828	0.7973	7.89	1.89	0.750			
0.1868	11953.57	4.0800	4.0802	0.7997	7.89	1.89	0.750			
0.1892	12108.20	4.0770	4.0768	0.8037	7.88	1.88	0.750			
0.1916	12265.14	4.0740	4.0742	0.8074	7.87	1.87	0.750			
0.1941	12420.96	4.0710	4.0710	0.7957	7.86	1.86	0.750			
0.1964	12571.80	4.0680	4.0680	0.8031	7.86	1.86	0.750			
0.1988	12722.33	4.0650	4.0650	0.7965	7.85	1.85	0.750			
0.2012	12878.53	4.0620	4.0618	0.8052	7.84	1.84	0.750			
0.2036	13032.15	4.0590	4.0591	0.8091	7.84	1.84	0.750			
0.2061	13189.32	4.0560	4.0560	0.8082	7.83	1.83	0.750			
0.2085	13343.59	4.0530	4.0530	0.8249	7.83	1.83	0.750			
0.2110	13502.84	4.0500	4.0499	0.8363	7.83	1.83	0.750			
0.2135	13661.55	4.0470	4.0469	0.8440	7.82	1.82	0.750			
0.2161	13827.62	4.0440	4.0441	0.8490	7.82	1.82	0.750			
0.2187	13995.55	4.0410	4.0410	0.8457	7.81	1.81	0.750			
0.2212	14157.56	4.0380	4.0381	0.8422	7.81	1.81	0.750			
0.2237	14316.21	4.0350	4.0352	0.8345	7.80	1.80	0.750			
0.2262	14475.06	4.0320	4.0318	0.8414	7.80	1.80	0.750			
0.2287	14635.59	4.0290	4.0290	0.8401	7.79	1.79	0.750			
0.2312	14798.50	4.0260	4.0259	0.8423	7.79	1.79	0.750			
0.2338	14962.24	4.0230	4.0231	0.8470	7.78	1.78	0.750			
0.2363	15124.80	4.0200	4.0202	0.8557	7.77	1.77	0.750			
0.2389	15289.00	4.0170	4.0167	0.8646	7.76	1.76	0.750			
0.2415	15453.91	4.0140	4.0139	0.8719	7.75	1.75	0.750			
0.2441	15623.60	4.0110	4.0109	0.8872	7.75	1.75	0.750			
0.2469	15800.56	4.0080	4.0081	0.8941	7.74	1.74	0.750			
0.2496	15973.61	4.0050	4.0051	0.8912	7.74	1.74	0.750			
0.2522	16143.84	4.0020	4.0020	0.8915	7.73	1.73	0.750			
0.2549	16313.52	3.9990	3.9989	0.8824	7.72	1.72	0.750			
0.2575	16479.02	3.9960	3.9960	0.8805	7.72	1.72	0.750			
0.2601	16646.07	3.9930	3.9930	0.8866	7.71	1.71	0.750			
0.2628	16818.04	3.9900	3.9902	0.8998	7.70	1.70	0.750			
0.2655	16995.04	3.9870	3.9869	0.9078	7.70	1.70	0.750			
0.2683	17169.48	3.9840	3.9840	0.9106	7.69	1.69	0.750			
0.2710	17343.90	3.9810	3.9812	0.9194	7.68	1.68	0.750			
0.2738	17522.03	3.9780	3.9780	0.9281	7.67	1.67	0.750			
0.2766	17699.63	3.9750	3.9747	0.9311	7.66	1.66	0.750			
0.2794	17878.96	3.9720	3.9722	0.9282	7.65	1.65	0.750			
0.2821	18055.76	3.9690	3.9690	0.9484	7.65	1.65	0.750			
0.2851	18243.78	3.9660	3.9660	0.9585	7.64	1.64	0.750			
0.2879	18426.75	3.9630	3.9629	0.9500	7.63	1.63	0.750			
0.2908	18611.12	3.9600	3.9603	0.9500	7.63	1.63	0.750			
0.2937	18794.80	3.9570	3.9571	0.9573	7.62	1.62	0.750			
0.2965	18976.83	3.9540	3.9540	0.9620	7.61	1.61	0.750			
0.2994	19159.85	3.9510	3.9510	0.9686	7.60	1.60	0.750			
0.3022	19343.40	3.9480	3.9480	0.9758	7.59	1.59	0.750			
0.3052	19533.45	3.9450	3.9451	0.9925	7.58	1.58	0.750			
0.3082	19727.66	3.9420	3.9420	1.0060	7.57	1.57	0.750			
0.3113	19922.65	3.9390	3.9390	1.0115	7.56	1.56	0.750			
0.3143	20118.20	3.9360	3.9357	1.0114	7.55	1.55	0.750			
0.3174	20312.18	3.9330	3.9333	1.0108	7.54	1.54	0.750			
0.3204	20506.27	3.9300	3.9301	1.0202	7.54	1.54	0.750			
0.3235	20701.33	3.9270	3.9270	1.0268	7.53	1.53	0.750			
0.3265	20897.42	3.9240	3.9237	1.0293	7.52	1.52	0.750			
0.3296	21095.61	3.9210	3.9211	1.0479	7.51	1.51	0.750			
0.3328	21298.32	3.9180	3.9180	1.0610	7.51	1.51	0.750			
0.3360	21505.16	3.9150	3.9150	1.0800	7.50	1.50	0.750			
0.3393	21715.31	3.9120	3.9119	1.0866	7.49	1.49	0.750			
0.3425	21921.82	3.9090	3.9090	1.0948	7.48	1.48	0.750			
0.3458	22134.26	3.9060	3.9061	1.1116	7.46	1.46	0.750			
0.3492	22348.17	3.9030	3.9031	1.1251	7.45	1.45	0.750			
0.3526	22563.59	3.9000	3.9000	1.1351	7.44	1.44	0.750			
0.3560	22784.14	3.8970	3.8971	1.1610	7.43	1.43	0.750			
0.3595	23010.09	3.8940	3.8938	1.1721	7.42	1.42	0.750			
0.3631	23241.03	3.8910	3.8910	1.1725	7.40	1.40	0.750			
0.3666	23465.03	3.8880	3.8881	1.1863	7.39	1.39	0.750			
0.3702	23691.79	3.8850	3.8851	1.2013	7.38	1.38	0.750			
0.3738	23923.07	3.8820	3.8820	1.2180	7.36	1.36	0.750	0.391	0.809	
0.3774	24153.06	3.8790	3.8790	1.2342	7.35	1.35	0.750			
0.3812	24393.83	3.8760	3.8761	1.2613	7.34	1.34	0.750			
0.3850	24642.93	3.8730	3.8730	1.2893	7.32	1.32	0.750			
0.3890	24898.03	3.8700	3.8699	1.2958	7.31	1.31	0.750			
0.3928	25141.39	3.8670	3.8671	1.2941	7.30	1.30	0.750			
0.3968	25392.88	3.8640	3.8640	1.3139	7.29	1.29	0.750			
0.4007	25647.19	3.8610	3.8609	1.3148	7.27	1.27	0.750			
0.4046	25896.19	3.8580	3.8580	1.3360	7.26	1.26	0.750			
0.4087	26154.58	3.8550	3.8552	1.3633	7.24	1.24	0.750			
0.4128	26417.26	3.8520	3.8519	1.3905	7.23	1.23	0.750			
0.4170	26690.36	3.8490	3.8491	1.4190	7.21	1.21	0.750			
0.4213	26962.18	3.8460	3.8460	1.4458	7.19	1.19	0.750			
0.4257	27243.16	3.8430	3.8429	1.4599	7.17	1.17	0.750			
0.4301	27529.10	3.8400	3.8402	1.4715	7.16	1.16	0.750			
0.4346	27812.63	3.8370	3.8369	1.4954	7.14	1.14	0.750			
0.4391	28101.67	3.8340	3.8339	1.5132	7.12	1.12	0.750			
0.4437	28393.68	3.8310	3.8311	1.5194	7.10	1.10	0.750			
0.4483	28691.47	3.8280	3.8281	1.5338	7.08	1.08	0.750			
0.4529	28986.58	3.8250	3.8251	1.5603	7.07	1.07	0.750			
0.4577	29290.80	3.8220	3.8219	1.5788	7.05	1.05	0.750			
0.4624	29591.48	3.8190	3.8192	1.5948	7.03	1.03	0.750			
0.4671	29896.66	3.8160	3.8162	1.6122	7.01	1.01	0.750			
0.4721	30213.03	3.8130	3.8130	1.6266	6.99	0.99	0.750			
0.4770	30528.41	3.8100	3.8098	1.6562	6.97	0.97	0.750			
0.4821	30853.63	3.8070	3.8071	1.6604	6.94	0.94	0.750			
0.4869	31163.66	3.8040	3.8043	1.6809	6.92	0.92	0.750			
0.4921	31493.55	3.8010	3.8012	1.6970	6.90	0.90	0.750			
0.4972	31819.89	3.7980	3.7978	1.7203	6.88	0.88	0.750			
0.5024	32152.19	3.7950	3.7949	1.7273	6.86	0.86	0.750			
0.5076	32483.68	3.7920	3.7921	1.7607	6.83	0.83	0.750			
0.5129	32824.24	3.7890	3.7890	1.8014	6.81	0.81	0.750			
0.5184	33175.99	3.7860	3.7860	1.8254	6.78	0.78	0.750			
0.5237	33517.23	3.7830	3.7833	1.8690	6.76	0.76	0.750			
0.5295	33887.47	3.7800	3.7799	1.9340	6.74	0.74	0.750			
0.5353	34261.86	3.7770	3.7769	1.9808	6.72	0.72	0.750			
0.5413	34643.09	3.7740	3.7741	2.0321	6.69	0.69	0.750			
0.5476	35048.69	3.7710	3.7710	2.1010	6.66	0.66	0.750			
0.5540	35452.86	3.7680	3.7680	2.1790	6.63	0.63	0.750			
0.5605	35870.40	3.7650	3.7651	2.2614	6.61	0.61	0.750			
0.5674	36314.88	3.7620	3.7618	2.3604	6.58	0.58	0.750			
0.5746	36773.30	3.7590	3.7591	2.5058	6.55	0.55	0.750			
0.5824	37276.44	3.7560	3.7559	2.6420	6.51	0.51	0.750			
0.5905	37793.59	3.7530	3.7531	2.7802	6.47	0.47	0.750			
0.5991	38345.06	3.7500	3.7501	2.8629	6.44	0.44	0.750			
0.6078	38900.44	3.7470	3.7472	2.9443	6.41	0.41	0.750			
0.6169	39484.16	3.7440	3.7439	3.0216	6.37	0.37	0.750			
0.6261	40071.26	3.7410	3.7410	3.0167	6.32	0.32	0.750			
0.6355	40672.74	3.7380	3.7377	2.8984	6.30	0.30	0.750			
0.6438	41202.55	3.7350	3.7351	2.5888	6.27	0.27	0.750			
0.6511	41670.20	3.7320	3.7321	2.2970	6.23	0.23	0.750			
0.6573	42065.85	3.7290	3.7291	1.9768	6.22	0.22	0.750			
0.6628	42421.69	3.7260	3.7260	1.7299	6.20	0.20	0.750			
0.6674	42716.01	3.7230	3.7230	1.5286	6.19	0.19	0.750			
0.6715	42973.74	3.7200	3.7201	1.3827	6.18	0.18	0.750			
0.6753	43216.44	3.7170	3.7168	1.2743	6.16	0.16	0.750			
0.6790	43453.14	3.7140	3.7141	1.2161	6.15	0.15	0.750			
0.6824	43676.56	3.7110	3.7111	1.1641	6.14	0.14	0.750			
0.6859	43895.52	3.7080	3.7080	1.1333	6.13	0.13	0.750			
0.6893	44112.47	3.7050	3.7047	1.0950	6.12	0.12	0.750			
0.6925	44317.91	3.7020	3.7019	1.0545	6.11	0.11	0.750			
0.6955	44514.48	3.6990	3.6991	1.0271	6.10	0.10	0.750			
0.6985	44706.45	3.6960	3.6961	1.0073	6.09	0.09	0.750			
0.7015	44897.64	3.6930	3.6928	0.9913	6.08	0.08	0.750			
0.7045	45085.05	3.6900	3.6900	0.9646	6.07	0.07	0.750			
0.7073	45268.93	3.6870	3.6870	0.9475	6.07	0.07	0.750			
0.7102	45454.21	3.6840	3.6842	0.9356	6.06	0.06	0.750			
0.7130	45631.03	3.6810	3.6810	0.9083	6.05	0.05	0.750			
0.7156	45800.41	3.6780	3.6780	0.8904	6.05	0.05	0.750			
0.7182	45967.73	3.6750	3.6751	0.8628	6.04	0.04	0.750			
0.7208	46131.14	3.6720	3.6720	0.8573	6.03	0.03	0.750			
0.7234	46295.48	3.6690	3.6691	0.8531	6.02	0.02	0.750			
0.7259	46457.52	3.6660	3.6660	0.8419	6.01	0.01	0.750			
0.7284	46618.41	3.6630	3.6630	0.8362	6.01	0.01	0.750			
0.7309	46778.63	3.6600	3.6600	0.8322	6.01	0.01	0.750			
0.7334	46939.72	3.6570	3.6570	0.8145	6.00	0.00	0.750			
0.7359	47099.93	3.6540	3.6539	0.7934	6.00	0.00	0.750			
0.7383	47253.28	3.6510	3.6511	0.7525	6.00	0.00	0.750			
0.7406	47399.02	3.6480	3.6480	0.7076	6.00	-0.00	0.750			
0.7427	47533.46	3.6450	3.6450	0.6389	6.00	-0.00	0.750			
0.7445	47650.98	3.6420	3.6419	0.5617	6.00	-0.00	0.750			
0.7461	47750.35	3.6390	3.6391	0.4777	5.99	-0.01	0.750			
0.7472	47821.38	3.6360	3.6366	0.4108	5.99	-0.01	0.750			
0.7483	47892.63	3.6330	3.6333	0.3352	5.99	-0.01	0.750			
0.7492	47949.42	3.6300	3.6301	0.2739	5.99	-0.01	0.750			
0.7498	47990.02	3.6270	3.6268	0.2070	5.99	-0.01	0.750			
0.7504	48023.10	3.6240	3.6221	0.1617	5.99	-0.01	0.750			
0.7506	48039.80	3.6000	3.6091	-0.1123	5.99	-0.01	0.750			
0.7507	48047.22	3.6210	3.5273	0.1198	5.99	-0.01	0.750			
0.7509	48058.32	3.6030	3.3583	-0.0806	5.99	-0.01	0.750			
0.7509	48059.41	3.6180	3.3417	0.0783	5.99	-0.01	0.750			
0.7511	48070.74	3.6060	3.1691	-0.0488	5.99	-0.01	0.750			
0.7511	48071.39	3.6150	3.1591	0.0465	5.99	-0.01	0.750			
0.7512	48077.06	3.6090	3.0728	-0.0170	5.99	-0.01	0.750			
0.7512	48077.28	3.6120	3.0695	0.0148	5.99	-0.01	0.750			
