Ah_balance (normalized)	Ah_balance (mAh)	Voltage - fit (V)	Voltage -  interpolate (V)	dQ/dV (1/V)	Temperature (°C)	Temperature - diff (°C)	Current (C)	R_DC 0ms (mOhm)	R_DC 50ms (mOhm)	R_DC 50 ms PEC (mOhm)
0.0967	6185.63	4.1970	4.1998	0.4685	8.43	2.25	0.750			
0.0985	6303.56	4.1940	4.1974	0.6869	8.43	2.25	0.750			
0.1010	6466.84	4.1910	4.1937	0.7959	8.43	2.25	0.750			
0.1036	6630.06	4.1880	4.1902	0.8327	8.42	2.24	0.750			
0.1063	6801.66	4.1850	4.1861	0.8165	8.42	2.24	0.750			
0.1092	6985.93	4.1820	4.1821	0.8209	8.41	2.23	0.750			
0.1113	7125.30	4.1790	4.1790	0.7015	8.41	2.23	0.750			
0.1134	7258.51	4.1760	4.1760	0.7115	8.41	2.23	0.750			
0.1155	7391.84	4.1730	4.1731	0.7153	8.40	2.22	0.750			
0.1177	7532.67	4.1700	4.1696	0.7182	8.40	2.22	0.750			
0.1199	7670.81	4.1670	4.1671	0.7244	8.39	2.21	0.750			
0.1221	7813.35	4.1640	4.1642	0.7219	8.39	2.21	0.750			
0.1242	7951.75	4.1610	4.1609	0.7284	8.38	2.20	0.750			
0.1264	8088.14	4.1580	4.1580	0.7222	8.37	2.19	0.750			
0.1285	8226.94	4.1550	4.1550	0.7282	8.37	2.19	0.750			
0.1307	8367.96	4.1520	4.1519	0.7306	8.36	2.18	0.750			
0.1330	8510.69	4.1490	4.1491	0.7361	8.35	2.17	0.750			
0.1352	8653.15	4.1460	4.1460	0.7304	8.34	2.16	0.750			
0.1374	8794.05	4.1430	4.1432	0.7345	8.34	2.16	0.750			
0.1395	8931.14	4.1400	4.1400	0.7326	8.33	2.15	0.750			
0.1418	9072.08	4.1370	4.1370	0.7335	8.32	2.14	0.750			
0.1440	9213.46	4.1340	4.1341	0.7365	8.32	2.14	0.750			
0.1462	9355.76	4.1310	4.1310	0.7432	8.31	2.13	0.750			
0.1484	9497.85	4.1280	4.1281	0.7446	8.31	2.13	0.750			
0.1506	9641.44	4.1250	4.1248	0.7521	8.30	2.12	0.750			
0.1529	9784.21	4.1220	4.1221	0.7579	8.30	2.12	0.750			
0.1552	9931.12	4.1190	4.1188	0.7665	8.29	2.11	0.750			
0.1575	10081.57	4.1160	4.1159	0.7757	8.28	2.10	0.750			
0.1599	10233.47	4.1130	4.1130	0.7679	8.28	2.10	0.750			
0.1622	10379.79	4.1100	4.1100	0.7734	8.27	2.09	0.750			
0.1645	10527.23	4.1070	4.1071	0.7695	8.27	2.09	0.750			
0.1668	10674.21	4.1040	4.1040	0.7673	8.26	2.08	0.750			
0.1691	10820.74	4.1010	4.1010	0.7688	8.26	2.08	0.750			
0.1714	10969.66	4.0980	4.0981	0.7704	8.25	2.07	0.750			
0.1737	11118.31	4.0950	4.0950	0.7702	8.24	2.06	0.750			
0.1761	11267.70	4.0920	4.0920	0.7816	8.23	2.05	0.750			
0.1783	11413.42	4.0890	4.0890	0.7814	8.23	2.05	0.750			
0.1807	11564.34	4.0860	4.0860	0.7927	8.22	2.04	0.750			
0.1831	11717.77	4.0830	4.0831	0.8039	8.21	2.03	0.750			
0.1855	11874.14	4.0800	4.0800	0.8078	8.21	2.03	0.750			
0.1880	12030.99	4.0770	4.0769	0.8125	8.20	2.02	0.750			
0.1904	12187.92	4.0740	4.0741	0.8144	8.20	2.02	0.750			
0.1929	12343.92	4.0710	4.0708	0.8090	8.19	2.01	0.750			
0.1953	12499.44	4.0680	4.0679	0.8094	8.18	2.00	0.750			
0.1977	12655.35	4.0650	4.0651	0.8064	8.17	1.99	0.750			
0.2001	12807.76	4.0620	4.0621	0.8096	8.17	1.99	0.750			
0.2025	12961.40	4.0590	4.0590	0.8148	8.16	1.98	0.750			
0.2050	13119.21	4.0560	4.0560	0.8223	8.15	1.97	0.750			
0.2075	13277.17	4.0530	4.0529	0.8287	8.14	1.96	0.750			
0.2100	13437.44	4.0500	4.0501	0.8357	8.13	1.95	0.750			
0.2125	13599.30	4.0470	4.0471	0.8440	8.12	1.94	0.750			
0.2150	13763.18	4.0440	4.0440	0.8505	8.11	1.93	0.750			
0.2176	13925.27	4.0410	4.0408	0.8518	8.10	1.92	0.750			
0.2201	14087.44	4.0380	4.0381	0.8562	8.09	1.91	0.750			
0.2227	14254.69	4.0350	4.0350	0.8557	8.09	1.91	0.750			
0.2253	14420.20	4.0320	4.0318	0.8581	8.08	1.90	0.750			
0.2279	14582.97	4.0290	4.0292	0.8576	8.08	1.90	0.750			
0.2304	14748.08	4.0260	4.0258	0.8615	8.07	1.89	0.750			
0.2331	14915.61	4.0230	4.0229	0.8594	8.06	1.88	0.750			
0.2356	15080.45	4.0200	4.0201	0.8613	8.05	1.87	0.750			
0.2382	15242.69	4.0170	4.0171	0.8702	8.04	1.86	0.750			
0.2408	15409.37	4.0140	4.0140	0.8816	8.03	1.85	0.750			
0.2434	15579.44	4.0110	4.0110	0.8841	8.02	1.84	0.750			
0.2461	15751.44	4.0080	4.0080	0.8871	8.01	1.83	0.750			
0.2488	15924.66	4.0050	4.0052	0.9005	8.01	1.83	0.750			
0.2516	16099.86	4.0020	4.0019	0.9027	8.00	1.82	0.750			
0.2542	16271.23	3.9990	3.9990	0.9014	7.99	1.81	0.750			
0.2569	16443.20	3.9960	3.9961	0.9066	7.98	1.80	0.750			
0.2596	16615.89	3.9930	3.9930	0.9078	7.98	1.80	0.750			
0.2624	16793.65	3.9900	3.9900	0.9152	7.97	1.79	0.750			
0.2652	16970.93	3.9870	3.9870	0.9165	7.96	1.78	0.750			
0.2679	17144.16	3.9840	3.9837	0.9154	7.95	1.77	0.750			
0.2707	17322.88	3.9810	3.9811	0.9150	7.94	1.76	0.750			
0.2734	17495.69	3.9780	3.9780	0.9241	7.93	1.75	0.750			
0.2761	17672.03	3.9750	3.9750	0.9302	7.92	1.74	0.750			
0.2789	17850.76	3.9720	3.9721	0.9323	7.91	1.73	0.750			
0.2818	18034.37	3.9690	3.9690	0.9412	7.91	1.73	0.750			
0.2846	18217.04	3.9660	3.9661	0.9531	7.90	1.72	0.750			
0.2875	18400.21	3.9630	3.9630	0.9562	7.89	1.71	0.750			
0.2904	18585.15	3.9600	3.9600	0.9639	7.88	1.70	0.750			
0.2932	18767.11	3.9570	3.9569	0.9596	7.87	1.69	0.750			
0.2961	18952.95	3.9540	3.9541	0.9702	7.86	1.68	0.750			
0.2990	19139.00	3.9510	3.9512	0.9855	7.85	1.67	0.750			
0.3020	19329.52	3.9480	3.9479	0.9975	7.84	1.66	0.750			
0.3050	19522.17	3.9450	3.9447	1.0057	7.83	1.65	0.750			
0.3081	19719.72	3.9420	3.9420	1.0078	7.82	1.64	0.750			
0.3112	19913.63	3.9390	3.9392	1.0113	7.81	1.63	0.750			
0.3142	20109.61	3.9360	3.9360	1.0199	7.79	1.61	0.750			
0.3173	20304.97	3.9330	3.9329	1.0188	7.78	1.60	0.750			
0.3202	20495.53	3.9300	3.9299	1.0161	7.77	1.59	0.750			
0.3233	20689.65	3.9270	3.9271	1.0392	7.76	1.58	0.750			
0.3264	20892.11	3.9240	3.9240	1.0595	7.75	1.57	0.750			
0.3297	21100.49	3.9210	3.9209	1.0733	7.73	1.55	0.750			
0.3329	21307.91	3.9180	3.9180	1.0754	7.72	1.54	0.750			
0.3362	21516.69	3.9150	3.9152	1.0804	7.71	1.53	0.750			
0.3395	21725.34	3.9120	3.9121	1.0915	7.70	1.52	0.750			
0.3427	21935.02	3.9090	3.9086	1.0935	7.69	1.51	0.750			
0.3459	22137.62	3.9060	3.9062	1.1032	7.68	1.50	0.750			
0.3493	22353.38	3.9030	3.9029	1.1265	7.66	1.48	0.750			
0.3527	22573.41	3.9000	3.9001	1.1546	7.65	1.47	0.750			
0.3562	22797.01	3.8970	3.8970	1.1581	7.64	1.46	0.750			
0.3597	23022.67	3.8940	3.8942	1.1801	7.62	1.44	0.750			
0.3633	23250.80	3.8910	3.8910	1.1919	7.61	1.43	0.750			
0.3669	23484.31	3.8880	3.8879	1.1933	7.59	1.41	0.750			
0.3704	23708.60	3.8850	3.8851	1.1949	7.58	1.40	0.750			
0.3740	23939.18	3.8820	3.8822	1.2207	7.57	1.39	0.750			
0.3777	24173.50	3.8790	3.8791	1.2391	7.55	1.37	0.750			
0.3815	24412.96	3.8760	3.8756	1.2686	7.54	1.36	0.750	0.357	0.793	
0.3853	24660.02	3.8730	3.8732	1.2930	7.52	1.34	0.750			
0.3893	24913.85	3.8700	3.8700	1.3228	7.51	1.33	0.750			
0.3934	25174.99	3.8670	3.8670	1.3278	7.50	1.32	0.750			
0.3974	25432.35	3.8640	3.8641	1.3358	7.48	1.30	0.750			
0.4014	25689.29	3.8610	3.8610	1.3232	7.46	1.28	0.750			
0.4053	25938.20	3.8580	3.8579	1.3586	7.44	1.26	0.750			
0.4093	26194.12	3.8550	3.8550	1.3730	7.42	1.24	0.750			
0.4135	26462.79	3.8520	3.8518	1.3990	7.41	1.23	0.750			
0.4177	26732.74	3.8490	3.8492	1.4358	7.39	1.21	0.750			
0.4221	27014.46	3.8460	3.8458	1.4701	7.37	1.19	0.750			
0.4266	27302.62	3.8430	3.8431	1.4936	7.35	1.17	0.750			
0.4311	27592.14	3.8400	3.8399	1.5180	7.34	1.16	0.750			
0.4356	27880.96	3.8370	3.8372	1.5273	7.31	1.13	0.750			
0.4403	28178.99	3.8340	3.8340	1.5350	7.29	1.11	0.750			
0.4450	28477.26	3.8310	3.8308	1.5577	7.27	1.09	0.750			
0.4495	28769.79	3.8280	3.8282	1.5828	7.25	1.07	0.750			
0.4544	29080.11	3.8250	3.8248	1.6290	7.22	1.04	0.750			
0.4595	29406.75	3.8220	3.8218	1.6355	7.20	1.02	0.750			
0.4643	29717.64	3.8190	3.8192	1.6308	7.18	1.00	0.750			
0.4693	30038.08	3.8160	3.8162	1.6619	7.16	0.98	0.750			
0.4744	30358.44	3.8130	3.8127	1.6681	7.14	0.96	0.750			
0.4792	30668.92	3.8100	3.8099	1.6680	7.12	0.94	0.750			
0.4842	30988.10	3.8070	3.8071	1.6951	7.09	0.91	0.750			
0.4894	31319.70	3.8040	3.8041	1.7399	7.07	0.89	0.750			
0.4947	31661.53	3.8010	3.8009	1.7530	7.04	0.86	0.750			
0.5000	31998.64	3.7980	3.7983	1.7689	7.02	0.84	0.750			
0.5053	32339.13	3.7950	3.7950	1.7943	7.00	0.82	0.750			
0.5108	32689.04	3.7920	3.7919	1.8083	6.97	0.79	0.750			
0.5161	33032.21	3.7890	3.7891	1.8338	6.95	0.77	0.750			
0.5218	33392.78	3.7860	3.7862	1.9029	6.92	0.74	0.750			
0.5275	33759.20	3.7830	3.7828	1.9207	6.90	0.72	0.750			
0.5334	34136.40	3.7800	3.7800	1.9500	6.88	0.70	0.750			
0.5393	34512.05	3.7770	3.7770	1.9861	6.85	0.67	0.750			
0.5453	34896.87	3.7740	3.7739	2.0601	6.82	0.64	0.750			
0.5513	35285.19	3.7710	3.7709	2.1127	6.80	0.62	0.750			
0.5579	35703.67	3.7680	3.7678	2.2335	6.77	0.59	0.750			
0.5648	36146.54	3.7650	3.7651	2.3092	6.73	0.55	0.750			
0.5718	36597.10	3.7620	3.7621	2.3856	6.70	0.52	0.750			
0.5790	37057.65	3.7590	3.7590	2.4723	6.68	0.50	0.750			
0.5866	37541.24	3.7560	3.7559	2.5666	6.64	0.46	0.750			
0.5944	38044.30	3.7530	3.7530	2.6943	6.61	0.43	0.750			
0.6027	38573.48	3.7500	3.7498	2.8563	6.58	0.40	0.750			
0.6115	39135.82	3.7470	3.7469	3.0614	6.55	0.37	0.750			
0.6211	39752.66	3.7440	3.7441	3.1198	6.52	0.34	0.750			
0.6306	40361.45	3.7410	3.7411	3.0749	6.48	0.30	0.750			
0.6395	40929.99	3.7380	3.7380	2.8558	6.44	0.26	0.750			
0.6481	41477.45	3.7350	3.7350	2.6611	6.41	0.23	0.750			
0.6557	41967.26	3.7320	3.7319	2.3957	6.39	0.21	0.750			
0.6623	42385.92	3.7290	3.7293	2.0936	6.38	0.20	0.750			
0.6680	42750.27	3.7260	3.7261	1.8376	6.37	0.19	0.750			
0.6730	43070.32	3.7230	3.7233	1.6235	6.35	0.17	0.750			
0.6774	43353.34	3.7200	3.7201	1.4481	6.34	0.16	0.750			
0.6814	43608.57	3.7170	3.7170	1.3383	6.33	0.15	0.750			
0.6851	43843.71	3.7140	3.7138	1.2493	6.32	0.14	0.750			
0.6886	44068.78	3.7110	3.7111	1.1926	6.31	0.13	0.750			
0.6920	44289.18	3.7080	3.7078	1.1559	6.30	0.12	0.750			
0.6955	44509.64	3.7050	3.7052	1.1319	6.29	0.11	0.750			
0.6988	44723.81	3.7020	3.7020	1.1105	6.28	0.10	0.750			
0.7021	44937.13	3.6990	3.6989	1.0845	6.27	0.09	0.750			
0.7053	45141.67	3.6960	3.6956	1.0506	6.26	0.08	0.750			
0.7084	45339.45	3.6930	3.6931	1.0098	6.25	0.07	0.750			
0.7114	45531.45	3.6900	3.6902	0.9905	6.25	0.07	0.750			
0.7143	45715.30	3.6870	3.6869	0.9759	6.24	0.06	0.750			
0.7172	45898.14	3.6840	3.6838	0.9528	6.23	0.05	0.750			
0.7200	46079.00	3.6810	3.6810	0.9392	6.23	0.05	0.750			
0.7228	46260.27	3.6780	3.6782	0.9405	6.22	0.04	0.750			
0.7257	46443.23	3.6750	3.6750	0.9323	6.22	0.04	0.750			
0.7285	46623.04	3.6720	3.6720	0.9260	6.21	0.03	0.750			
0.7312	46795.70	3.6690	3.6691	0.9147	6.21	0.03	0.750			
0.7339	46970.59	3.6660	3.6660	0.9071	6.20	0.02	0.750			
0.7367	47145.73	3.6630	3.6629	0.9077	6.19	0.01	0.750			
0.7394	47318.63	3.6600	3.6602	0.9047	6.19	0.01	0.750			
0.7421	47491.73	3.6570	3.6568	0.9010	6.18	0.00	0.750			
0.7448	47665.81	3.6540	3.6540	0.8989	6.18	0.00	0.750			
0.7475	47840.21	3.6510	3.6510	0.8795	6.18	0.00	0.750			
0.7502	48010.49	3.6480	3.6481	0.8565	6.18	0.00	0.750			
0.7529	48183.13	3.6450	3.6449	0.8084	6.18	0.00	0.750			
0.7552	48335.74	3.6420	3.6419	0.7362	6.18	0.00	0.750			
0.7574	48476.03	3.6390	3.6391	0.6507	6.18	0.00	0.750			
0.7593	48592.53	3.6360	3.6361	0.5544	6.18	0.00	0.750			
0.7608	48690.24	3.6330	3.6329	0.4517	6.18	0.00	0.750			
0.7617	48751.83	3.6300	3.6305	0.3821	6.18	0.00	0.750			
0.7627	48813.18	3.6270	3.6273	0.2928	6.18	0.00	0.750			
0.7635	48861.57	3.6240	3.6238	0.2349	6.18	0.00	0.750			
0.7640	48892.80	3.6210	3.6198	0.1689	6.18	0.00	0.750			
0.7643	48916.09	3.5970	3.5940	-0.1105	6.18	0.00	0.750			
0.7643	48916.66	3.6180	3.5885	0.1229	6.18	0.00	0.750			
0.7646	48931.92	3.6150	3.3522	0.0830	6.18	0.00	0.747			
0.7646	48934.21	3.6000	3.3162	-0.0783	6.18	0.00	0.746			
0.7648	48944.77	3.6120	3.1500	0.0508	6.18	0.00	0.744			
0.7648	48946.14	3.6030	3.1284	-0.0460	6.18	0.00	0.743			
0.7649	48951.42	3.6090	3.0453	0.0185	6.18	0.00	0.742			
0.7649	48951.87	3.6060	3.0381	-0.0137	6.18	0.00	0.742			
