Ah_balance (normalized)	Ah_balance (mAh)	Voltage - fit (V)	Voltage -  interpolate (V)	dQ/dV (1/V)	Temperature (°C)	Temperature - diff (°C)	Current (C)	R_DC 0ms (mOhm)	R_DC 50ms (mOhm)	R_DC 50 ms PEC (mOhm)
0.0968	6197.42	4.1980	4.1998	0.8080	8.75	2.47	0.750			
0.0987	6319.94	4.1950	4.1969	0.6574	8.74	2.46	0.750			
0.1009	6455.92	4.1920	4.1938	0.7264	8.74	2.46	0.750			
0.1032	6603.33	4.1890	4.1905	0.7719	8.73	2.45	0.750			
0.1054	6742.45	4.1860	4.1875	0.7437	8.72	2.44	0.750			
0.1080	6914.39	4.1830	4.1837	0.7850	8.72	2.44	0.750			
0.1107	7085.50	4.1800	4.1799	0.7910	8.71	2.43	0.750			
0.1128	7217.28	4.1770	4.1770	0.6970	8.70	2.42	0.750			
0.1148	7348.67	4.1740	4.1741	0.6967	8.70	2.42	0.750			
0.1169	7482.01	4.1710	4.1708	0.6959	8.69	2.41	0.750			
0.1190	7614.22	4.1680	4.1680	0.6978	8.69	2.41	0.750			
0.1211	7748.21	4.1650	4.1649	0.7026	8.68	2.40	0.750			
0.1232	7885.81	4.1620	4.1621	0.7128	8.67	2.39	0.750			
0.1253	8022.24	4.1590	4.1589	0.7184	8.67	2.39	0.750			
0.1275	8160.35	4.1560	4.1561	0.7261	8.67	2.39	0.750			
0.1297	8303.04	4.1530	4.1529	0.7223	8.66	2.38	0.750			
0.1319	8443.02	4.1500	4.1499	0.7270	8.66	2.38	0.750			
0.1341	8580.35	4.1470	4.1472	0.7317	8.66	2.38	0.750			
0.1363	8721.23	4.1440	4.1442	0.7356	8.65	2.37	0.750			
0.1385	8861.89	4.1410	4.1410	0.7404	8.65	2.37	0.750			
0.1407	9004.47	4.1380	4.1380	0.7444	8.64	2.36	0.750			
0.1430	9149.36	4.1350	4.1352	0.7443	8.63	2.35	0.750			
0.1452	9295.23	4.1320	4.1320	0.7443	8.63	2.35	0.750			
0.1475	9437.83	4.1290	4.1291	0.7403	8.62	2.34	0.750			
0.1497	9578.70	4.1260	4.1259	0.7368	8.61	2.33	0.750			
0.1519	9718.90	4.1230	4.1230	0.7376	8.61	2.33	0.750			
0.1541	9859.52	4.1200	4.1199	0.7396	8.60	2.32	0.750			
0.1563	10001.58	4.1170	4.1171	0.7478	8.60	2.32	0.750			
0.1585	10146.68	4.1140	4.1139	0.7536	8.59	2.31	0.750			
0.1608	10290.58	4.1110	4.1110	0.7654	8.58	2.30	0.750			
0.1631	10439.51	4.1080	4.1081	0.7687	8.58	2.30	0.750			
0.1654	10588.57	4.1050	4.1050	0.7770	8.58	2.30	0.750			
0.1678	10739.13	4.1020	4.1019	0.7777	8.57	2.29	0.750			
0.1701	10888.56	4.0990	4.0991	0.7814	8.57	2.29	0.750			
0.1725	11038.40	4.0960	4.0960	0.7824	8.56	2.28	0.750			
0.1748	11189.89	4.0930	4.0928	0.7803	8.56	2.28	0.750			
0.1772	11338.49	4.0900	4.0901	0.7742	8.55	2.27	0.750			
0.1795	11488.76	4.0870	4.0871	0.7778	8.55	2.27	0.750			
0.1818	11637.60	4.0840	4.0840	0.7827	8.54	2.26	0.750			
0.1842	11788.23	4.0810	4.0808	0.7888	8.53	2.25	0.750			
0.1865	11937.41	4.0780	4.0780	0.7894	8.52	2.24	0.750			
0.1889	12090.63	4.0750	4.0752	0.7963	8.52	2.24	0.750			
0.1914	12247.66	4.0720	4.0719	0.7995	8.51	2.23	0.750			
0.1937	12399.84	4.0690	4.0690	0.8001	8.51	2.23	0.750			
0.1961	12551.24	4.0660	4.0661	0.7984	8.51	2.23	0.750			
0.1985	12703.06	4.0630	4.0629	0.8001	8.50	2.22	0.750			
0.2009	12856.66	4.0600	4.0600	0.8105	8.50	2.22	0.750			
0.2034	13015.82	4.0570	4.0570	0.8146	8.49	2.21	0.750			
0.2058	13172.58	4.0540	4.0539	0.8277	8.48	2.20	0.750			
0.2083	13332.86	4.0510	4.0510	0.8371	8.47	2.19	0.750			
0.2108	13494.01	4.0480	4.0482	0.8368	8.47	2.19	0.750			
0.2134	13657.24	4.0450	4.0449	0.8380	8.46	2.18	0.750			
0.2159	13818.17	4.0420	4.0421	0.8412	8.45	2.17	0.750			
0.2184	13976.87	4.0390	4.0390	0.8377	8.45	2.17	0.750			
0.2209	14138.36	4.0360	4.0360	0.8451	8.45	2.17	0.750			
0.2234	14300.56	4.0330	4.0331	0.8460	8.44	2.16	0.750			
0.2260	14463.16	4.0300	4.0298	0.8537	8.44	2.16	0.750			
0.2286	14630.62	4.0270	4.0271	0.8527	8.43	2.15	0.750			
0.2312	14794.33	4.0240	4.0241	0.8588	8.43	2.15	0.750			
0.2337	14957.88	4.0210	4.0210	0.8591	8.42	2.14	0.750			
0.2363	15124.29	4.0180	4.0181	0.8594	8.41	2.13	0.750			
0.2389	15286.63	4.0150	4.0150	0.8585	8.41	2.13	0.750			
0.2414	15450.95	4.0120	4.0122	0.8693	8.40	2.12	0.750			
0.2440	15618.97	4.0090	4.0090	0.8725	8.39	2.11	0.750			
0.2467	15788.32	4.0060	4.0060	0.8796	8.38	2.10	0.750			
0.2493	15956.43	4.0030	4.0030	0.8851	8.37	2.09	0.750			
0.2520	16126.87	4.0000	4.0000	0.8967	8.36	2.08	0.750			
0.2547	16300.98	3.9970	3.9969	0.9028	8.35	2.07	0.750			
0.2574	16472.66	3.9940	3.9940	0.9084	8.34	2.06	0.750			
0.2601	16646.54	3.9910	3.9911	0.9156	8.33	2.05	0.750			
0.2629	16826.10	3.9880	3.9877	0.9231	8.32	2.04	0.750			
0.2657	17005.93	3.9850	3.9849	0.9203	8.31	2.03	0.750			
0.2685	17182.52	3.9820	3.9822	0.9164	8.31	2.03	0.750			
0.2712	17356.10	3.9790	3.9792	0.9203	8.30	2.02	0.750			
0.2739	17529.42	3.9760	3.9760	0.9231	8.29	2.01	0.750			
0.2767	17709.23	3.9730	3.9729	0.9282	8.29	2.01	0.750			
0.2795	17886.12	3.9700	3.9698	0.9333	8.28	2.00	0.750			
0.2823	18068.60	3.9670	3.9672	0.9392	8.27	1.99	0.750			
0.2852	18252.99	3.9640	3.9641	0.9514	8.27	1.99	0.750			
0.2881	18435.91	3.9610	3.9609	0.9485	8.26	1.98	0.750			
0.2909	18619.30	3.9580	3.9580	0.9352	8.25	1.97	0.750			
0.2936	18791.85	3.9550	3.9550	0.9433	8.25	1.97	0.750			
0.2965	18974.27	3.9520	3.9522	0.9596	8.24	1.96	0.750			
0.2993	19158.00	3.9490	3.9488	0.9671	8.23	1.95	0.750			
0.3023	19344.93	3.9460	3.9460	0.9799	8.22	1.94	0.750			
0.3052	19533.99	3.9430	3.9432	0.9913	8.21	1.93	0.750			
0.3083	19728.16	3.9400	3.9400	1.0083	8.20	1.92	0.750			
0.3113	19923.96	3.9370	3.9370	1.0173	8.19	1.91	0.750			
0.3144	20121.36	3.9340	3.9340	1.0260	8.17	1.89	0.750			
0.3175	20321.09	3.9310	3.9310	1.0309	8.16	1.88	0.750			
0.3206	20521.12	3.9280	3.9280	1.0337	8.15	1.87	0.750			
0.3237	20718.45	3.9250	3.9251	1.0415	8.14	1.86	0.750			
0.3268	20918.37	3.9220	3.9220	1.0413	8.13	1.85	0.750			
0.3299	21115.92	3.9190	3.9189	1.0531	8.13	1.85	0.750			
0.3331	21319.05	3.9160	3.9160	1.0614	8.11	1.83	0.750			
0.3363	21524.75	3.9130	3.9130	1.0822	8.10	1.82	0.750			
0.3396	21734.10	3.9100	3.9101	1.0978	8.09	1.81	0.750			
0.3429	21946.50	3.9070	3.9069	1.1134	8.08	1.80	0.750			
0.3463	22161.21	3.9040	3.9040	1.1260	8.07	1.79	0.750			
0.3497	22380.21	3.9010	3.9010	1.1410	8.05	1.77	0.750			
0.3531	22597.51	3.8980	3.8981	1.1655	8.04	1.76	0.750			
0.3566	22824.05	3.8950	3.8950	1.1880	8.02	1.74	0.750			
0.3602	23055.02	3.8920	3.8919	1.1949	8.00	1.72	0.750			
0.3639	23292.07	3.8890	3.8889	1.1863	7.98	1.70	0.750			
0.3677	23529.94	3.8860	3.8861	1.1337	7.97	1.69	0.750			
0.3708	23729.37	3.8830	3.8834	1.1816	7.95	1.67	0.750			
0.3742	23951.72	3.8800	3.8801	1.2073	7.93	1.65	0.750			
0.3778	24180.63	3.8770	3.8773	1.2323	7.92	1.64	0.750	0.364	0.786	
0.3815	24416.71	3.8740	3.8745	1.2724	7.90	1.62	0.750			
0.3855	24672.95	3.8710	3.8715	1.2969	7.87	1.59	0.750			
0.3897	24943.88	3.8680	3.8680	1.3296	7.85	1.57	0.750			
0.3936	25192.84	3.8650	3.8651	1.3079	7.83	1.55	0.750			
0.3976	25445.91	3.8620	3.8621	1.3250	7.81	1.53	0.750			
0.4016	25699.35	3.8590	3.8590	1.3586	7.79	1.51	0.750			
0.4057	25963.34	3.8560	3.8559	1.3904	7.77	1.49	0.750			
0.4099	26236.34	3.8530	3.8531	1.4066	7.75	1.47	0.750			
0.4142	26509.37	3.8500	3.8499	1.4449	7.72	1.44	0.750			
0.4186	26791.77	3.8470	3.8472	1.4611	7.69	1.41	0.750			
0.4231	27075.26	3.8440	3.8439	1.4647	7.66	1.38	0.750			
0.4275	27359.37	3.8410	3.8412	1.4828	7.64	1.36	0.750			
0.4319	27640.72	3.8380	3.8382	1.4824	7.61	1.33	0.750			
0.4363	27925.96	3.8350	3.8349	1.5060	7.58	1.30	0.750			
0.4409	28215.93	3.8320	3.8320	1.5376	7.56	1.28	0.750			
0.4455	28513.26	3.8290	3.8290	1.5412	7.53	1.25	0.750			
0.4502	28814.85	3.8260	3.8258	1.5585	7.51	1.23	0.750			
0.4550	29120.32	3.8230	3.8233	1.5671	7.48	1.20	0.750			
0.4597	29420.40	3.8200	3.8200	1.5820	7.44	1.16	0.750			
0.4645	29724.98	3.8170	3.8170	1.5914	7.41	1.13	0.750			
0.4692	30027.86	3.8140	3.8140	1.6076	7.39	1.11	0.750			
0.4740	30333.39	3.8110	3.8109	1.6313	7.37	1.09	0.750			
0.4790	30655.44	3.8080	3.8080	1.6456	7.34	1.06	0.750			
0.4840	30976.70	3.8050	3.8051	1.6618	7.31	1.03	0.750			
0.4890	31294.33	3.8020	3.8020	1.6769	7.28	1.00	0.750			
0.4940	31614.91	3.7990	3.7988	1.7013	7.26	0.98	0.750			
0.4992	31945.78	3.7960	3.7959	1.7125	7.24	0.96	0.750			
0.5043	32273.20	3.7930	3.7928	1.7403	7.21	0.93	0.750			
0.5095	32610.28	3.7900	3.7903	1.7816	7.18	0.90	0.750			
0.5150	32957.95	3.7870	3.7870	1.8164	7.15	0.87	0.750			
0.5205	33311.73	3.7840	3.7838	1.8334	7.12	0.84	0.750			
0.5260	33663.29	3.7810	3.7810	1.8671	7.10	0.82	0.750			
0.5316	34025.32	3.7780	3.7784	1.9474	7.07	0.79	0.750			
0.5375	34397.18	3.7750	3.7748	2.0608	7.04	0.76	0.750			
0.5437	34798.13	3.7720	3.7720	2.1238	7.01	0.73	0.750			
0.5503	35217.35	3.7690	3.7690	2.1993	6.98	0.70	0.750			
0.5572	35663.51	3.7660	3.7662	2.2819	6.95	0.67	0.750			
0.5640	36098.43	3.7630	3.7629	2.3270	6.91	0.63	0.750			
0.5709	36537.92	3.7600	3.7600	2.4689	6.88	0.60	0.750			
0.5786	37033.11	3.7570	3.7571	2.6736	6.84	0.56	0.750			
0.5870	37567.56	3.7540	3.7541	2.7809	6.79	0.51	0.750			
0.5956	38116.81	3.7510	3.7511	2.8753	6.76	0.48	0.750			
0.6042	38670.84	3.7480	3.7480	2.9403	6.72	0.44	0.750			
0.6132	39242.41	3.7450	3.7449	3.0578	6.69	0.41	0.750			
0.6227	39853.14	3.7420	3.7419	3.0594	6.65	0.37	0.750			
0.6320	40449.56	3.7390	3.7391	2.8855	6.61	0.33	0.750			
0.6403	40976.21	3.7360	3.7360	2.5741	6.58	0.30	0.750			
0.6474	41430.65	3.7330	3.7331	2.2516	6.56	0.28	0.750			
0.6534	41820.22	3.7300	3.7297	1.9627	6.54	0.26	0.750			
0.6588	42165.82	3.7270	3.7270	1.7442	6.52	0.24	0.750			
0.6636	42473.38	3.7240	3.7239	1.5553	6.50	0.22	0.750			
0.6679	42744.15	3.7210	3.7211	1.4186	6.48	0.20	0.750			
0.6719	42999.40	3.7180	3.7180	1.3122	6.47	0.19	0.750			
0.6756	43238.94	3.7150	3.7148	1.2298	6.46	0.18	0.750			
0.6791	43461.21	3.7120	3.7122	1.1788	6.45	0.17	0.750			
0.6825	43679.30	3.7090	3.7090	1.1443	6.44	0.16	0.750			
0.6858	43893.92	3.7060	3.7061	1.1327	6.43	0.15	0.750			
0.6892	44110.20	3.7030	3.7029	1.1054	6.42	0.14	0.750			
0.6925	44320.73	3.7000	3.7001	1.0901	6.40	0.12	0.750			
0.6958	44532.50	3.6970	3.6971	1.0694	6.39	0.11	0.750			
0.6991	44739.48	3.6940	3.6941	1.0432	6.38	0.10	0.750			
0.7021	44936.90	3.6910	3.6910	1.0056	6.37	0.09	0.750			
0.7050	45122.08	3.6880	3.6881	0.9828	6.36	0.08	0.750			
0.7079	45306.73	3.6850	3.6850	0.9613	6.36	0.08	0.750			
0.7108	45490.52	3.6820	3.6819	0.9524	6.35	0.07	0.750			
0.7136	45669.55	3.6790	3.6789	0.9372	6.34	0.06	0.750			
0.7164	45849.33	3.6760	3.6762	0.9262	6.33	0.05	0.750			
0.7192	46027.17	3.6730	3.6731	0.9252	6.32	0.04	0.750			
0.7219	46203.76	3.6700	3.6699	0.9165	6.32	0.04	0.750			
0.7246	46375.89	3.6670	3.6669	0.9114	6.31	0.03	0.750			
0.7273	46549.93	3.6640	3.6641	0.9158	6.30	0.02	0.750			
0.7301	46725.43	3.6610	3.6609	0.9191	6.30	0.02	0.750			
0.7329	46905.32	3.6580	3.6580	0.9219	6.29	0.01	0.750			
0.7357	47086.34	3.6550	3.6549	0.9084	6.28	0.00	0.750			
0.7385	47262.15	3.6520	3.6520	0.8811	6.28	0.00	0.750			
0.7412	47434.45	3.6490	3.6490	0.8337	6.28	0.00	0.750			
0.7437	47594.46	3.6460	3.6461	0.7726	6.28	0.00	0.750			
0.7459	47739.38	3.6430	3.6430	0.6911	6.28	0.00	0.750			
0.7479	47865.51	3.6400	3.6400	0.5989	6.28	0.00	0.750			
0.7496	47972.79	3.6370	3.6370	0.5053	6.28	0.00	0.750			
0.7507	48045.62	3.6340	3.6346	0.4377	6.28	0.00	0.750			
0.7519	48121.06	3.6310	3.6313	0.3574	6.28	0.00	0.750			
0.7528	48181.10	3.6280	3.6277	0.2908	6.28	0.00	0.750			
0.7535	48221.15	3.6250	3.6240	0.2138	6.28	0.00	0.750			
0.7540	48252.89	3.6220	3.6166	0.1626	6.28	0.00	0.750			
0.7541	48260.14	3.5980	3.5997	-0.1223	6.28	0.00	0.750			
0.7543	48272.38	3.6190	3.4402	0.1148	6.28	0.00	0.755			
0.7544	48280.44	3.6010	3.3283	-0.0891	6.28	0.00	0.758			
0.7545	48286.42	3.6160	3.2451	0.0767	6.28	0.00	0.761			
0.7546	48294.37	3.6040	3.1347	-0.0560	6.28	0.00	0.765			
0.7547	48297.96	3.6130	3.0849	0.0435	6.28	0.00	0.767			
0.7547	48301.93	3.6070	3.0296	-0.0228	6.28	0.00	0.768			
0.7547	48303.13	3.6100	3.0130	0.0103	6.28	0.00	0.769			
