Ah_balance (normalized)	Ah_balance (mAh)	Voltage - fit (V)	Voltage -  interpolate (V)	dQ/dV (1/V)	Temperature (°C)	Temperature - diff (°C)	Current (C)	R_DC 0ms (mOhm)	R_DC 50ms (mOhm)	R_DC 50 ms PEC (mOhm)
0.0949	6076.47	4.1990	4.1961	0.5115	8.35	2.29	0.750	0.417	0.821	
0.0967	6189.98	4.1960	4.1984	0.6606	8.35	2.29	0.750			
0.0990	6333.92	4.1930	4.1952	0.7637	8.34	2.28	0.750			
0.1015	6495.70	4.1900	4.1915	0.7963	8.34	2.28	0.750			
0.1041	6662.07	4.1870	4.1879	0.8131	8.33	2.27	0.750			
0.1065	6815.67	4.1840	4.1845	0.7727	8.32	2.26	0.750			
0.1093	6996.75	4.1810	4.1805	0.8006	8.32	2.26	0.750			
0.1110	7104.97	4.1780	4.1781	0.7020	8.31	2.25	0.750			
0.1131	7239.72	4.1750	4.1750	0.7055	8.31	2.25	0.750			
0.1152	7374.26	4.1720	4.1719	0.7032	8.30	2.24	0.750			
0.1174	7510.79	4.1690	4.1690	0.7003	8.29	2.23	0.750			
0.1195	7646.06	4.1660	4.1661	0.7096	8.29	2.23	0.750			
0.1216	7781.31	4.1630	4.1630	0.7087	8.28	2.22	0.750			
0.1237	7915.21	4.1600	4.1600	0.7165	8.27	2.21	0.750			
0.1258	8053.73	4.1570	4.1571	0.7209	8.27	2.21	0.750			
0.1280	8194.51	4.1540	4.1539	0.7218	8.26	2.20	0.750			
0.1302	8335.53	4.1510	4.1510	0.7215	8.26	2.20	0.750			
0.1324	8475.84	4.1480	4.1481	0.7178	8.25	2.19	0.750			
0.1345	8610.18	4.1450	4.1450	0.7115	8.25	2.19	0.750			
0.1366	8744.41	4.1420	4.1420	0.7189	8.24	2.18	0.750			
0.1387	8877.50	4.1390	4.1390	0.7202	8.24	2.18	0.750			
0.1409	9020.68	4.1360	4.1359	0.7316	8.23	2.17	0.750			
0.1432	9164.39	4.1330	4.1329	0.7489	8.23	2.17	0.750			
0.1455	9310.07	4.1300	4.1301	0.7593	8.22	2.16	0.750			
0.1478	9457.77	4.1270	4.1271	0.7610	8.21	2.15	0.750			
0.1501	9603.86	4.1240	4.1241	0.7583	8.21	2.15	0.750			
0.1523	9749.02	4.1210	4.1210	0.7549	8.20	2.14	0.750			
0.1546	9893.25	4.1180	4.1180	0.7479	8.19	2.13	0.750			
0.1568	10036.24	4.1150	4.1150	0.7498	8.19	2.13	0.750			
0.1590	10178.41	4.1120	4.1119	0.7501	8.18	2.12	0.750			
0.1613	10323.69	4.1090	4.1089	0.7501	8.17	2.11	0.750			
0.1636	10467.87	4.1060	4.1061	0.7567	8.17	2.11	0.750			
0.1658	10613.96	4.1030	4.1030	0.7604	8.16	2.10	0.750			
0.1681	10760.40	4.1000	4.0999	0.7644	8.16	2.10	0.750			
0.1704	10905.54	4.0970	4.0970	0.7762	8.15	2.09	0.750			
0.1727	11053.84	4.0940	4.0941	0.7830	8.14	2.08	0.750			
0.1751	11206.17	4.0910	4.0908	0.7911	8.14	2.08	0.750			
0.1775	11361.73	4.0880	4.0880	0.7967	8.13	2.07	0.750			
0.1799	11515.01	4.0850	4.0851	0.7992	8.12	2.06	0.750			
0.1823	11670.32	4.0820	4.0821	0.7988	8.11	2.05	0.750			
0.1848	11824.36	4.0790	4.0790	0.7989	8.11	2.05	0.750			
0.1871	11973.20	4.0760	4.0760	0.7945	8.10	2.04	0.750			
0.1895	12127.45	4.0730	4.0729	0.8025	8.09	2.03	0.750			
0.1919	12281.65	4.0700	4.0700	0.8072	8.09	2.03	0.750			
0.1943	12437.59	4.0670	4.0670	0.8122	8.08	2.02	0.750			
0.1968	12595.25	4.0640	4.0640	0.8137	8.08	2.02	0.750			
0.1993	12753.52	4.0610	4.0608	0.8097	8.07	2.01	0.750			
0.2017	12907.64	4.0580	4.0582	0.8062	8.06	2.00	0.750			
0.2041	13062.58	4.0550	4.0550	0.7992	8.06	2.00	0.750			
0.2064	13212.62	4.0520	4.0520	0.8102	8.05	1.99	0.750			
0.2089	13366.60	4.0490	4.0489	0.8090	8.05	1.99	0.750			
0.2113	13523.33	4.0460	4.0459	0.8207	8.04	1.98	0.750			
0.2138	13683.99	4.0430	4.0431	0.8340	8.04	1.98	0.750			
0.2164	13847.18	4.0400	4.0401	0.8420	8.03	1.97	0.750			
0.2189	14009.00	4.0370	4.0369	0.8466	8.02	1.96	0.750			
0.2214	14170.76	4.0340	4.0341	0.8481	8.02	1.96	0.750			
0.2240	14334.00	4.0310	4.0309	0.8547	8.01	1.95	0.750			
0.2266	14501.68	4.0280	4.0280	0.8619	8.00	1.94	0.750			
0.2292	14667.62	4.0250	4.0250	0.8560	7.99	1.93	0.750			
0.2318	14832.80	4.0220	4.0221	0.8573	7.99	1.93	0.750			
0.2343	14993.82	4.0190	4.0191	0.8634	7.98	1.92	0.750			
0.2369	15159.09	4.0160	4.0157	0.8744	7.97	1.91	0.750			
0.2395	15328.07	4.0130	4.0129	0.8713	7.96	1.90	0.750			
0.2421	15496.64	4.0100	4.0101	0.8759	7.95	1.89	0.750			
0.2448	15669.17	4.0070	4.0071	0.8869	7.94	1.88	0.750			
0.2475	15840.56	4.0040	4.0039	0.8838	7.94	1.88	0.750			
0.2501	16006.85	4.0010	4.0009	0.8833	7.93	1.87	0.750			
0.2527	16174.75	3.9980	3.9981	0.8855	7.92	1.86	0.750			
0.2554	16345.02	3.9950	3.9950	0.8901	7.92	1.86	0.750			
0.2581	16518.45	3.9920	3.9919	0.9007	7.91	1.85	0.750			
0.2608	16692.54	3.9890	3.9890	0.8976	7.90	1.84	0.750			
0.2635	16864.77	3.9860	3.9860	0.8954	7.90	1.84	0.750			
0.2662	17038.47	3.9830	3.9831	0.8969	7.89	1.83	0.750			
0.2689	17206.52	3.9800	3.9801	0.9062	7.88	1.82	0.750			
0.2715	17378.23	3.9770	3.9770	0.9174	7.87	1.81	0.750			
0.2743	17556.07	3.9740	3.9737	0.9315	7.86	1.80	0.750			
0.2771	17737.28	3.9710	3.9711	0.9390	7.85	1.79	0.750			
0.2800	17921.99	3.9680	3.9681	0.9485	7.84	1.78	0.750			
0.2829	18108.58	3.9650	3.9650	0.9525	7.83	1.77	0.750			
0.2858	18288.68	3.9620	3.9620	0.9447	7.81	1.75	0.750			
0.2886	18469.29	3.9590	3.9591	0.9449	7.81	1.75	0.750			
0.2914	18650.06	3.9560	3.9560	0.9430	7.80	1.74	0.750			
0.2942	18829.17	3.9530	3.9530	0.9587	7.79	1.73	0.750			
0.2971	19015.11	3.9500	3.9501	0.9700	7.79	1.73	0.750			
0.3000	19202.00	3.9470	3.9470	0.9804	7.78	1.72	0.750			
0.3030	19389.88	3.9440	3.9440	0.9951	7.77	1.71	0.750			
0.3060	19583.08	3.9410	3.9412	1.0018	7.76	1.70	0.750			
0.3091	19779.84	3.9380	3.9379	1.0016	7.75	1.69	0.750			
0.3121	19973.77	3.9350	3.9350	1.0084	7.74	1.68	0.750			
0.3151	20163.69	3.9320	3.9322	1.0112	7.73	1.67	0.750			
0.3181	20359.51	3.9290	3.9289	1.0212	7.72	1.66	0.750			
0.3212	20556.00	3.9260	3.9259	1.0276	7.70	1.64	0.750			
0.3242	20751.77	3.9230	3.9229	1.0364	7.69	1.63	0.750			
0.3274	20955.35	3.9200	3.9200	1.0439	7.68	1.62	0.750			
0.3306	21155.52	3.9170	3.9171	1.0548	7.67	1.61	0.750			
0.3337	21354.64	3.9140	3.9140	1.0630	7.66	1.60	0.750			
0.3369	21562.24	3.9110	3.9107	1.0695	7.65	1.59	0.750			
0.3401	21768.17	3.9080	3.9081	1.0873	7.64	1.58	0.750			
0.3434	21978.15	3.9050	3.9050	1.1006	7.62	1.56	0.750			
0.3467	22190.73	3.9020	3.9021	1.1224	7.61	1.55	0.750			
0.3501	22408.25	3.8990	3.8990	1.1308	7.60	1.54	0.750			
0.3535	22626.62	3.8960	3.8960	1.1436	7.58	1.52	0.750			
0.3570	22847.61	3.8930	3.8930	1.1592	7.57	1.51	0.750			
0.3605	23074.76	3.8900	3.8901	1.1742	7.56	1.50	0.750			
0.3641	23299.29	3.8870	3.8870	1.1849	7.54	1.48	0.750			
0.3676	23529.52	3.8840	3.8840	1.2038	7.53	1.47	0.750			
0.3713	23760.42	3.8810	3.8810	1.2208	7.51	1.45	0.750			
0.3750	24001.53	3.8780	3.8778	1.2220	7.50	1.44	0.750			
0.3786	24231.39	3.8750	3.8751	1.2575	7.49	1.43	0.750			
0.3824	24473.05	3.8720	3.8720	1.2833	7.47	1.41	0.750			
0.3863	24723.35	3.8690	3.8688	1.3087	7.46	1.40	0.750	0.397	0.840	
0.3903	24976.50	3.8660	3.8661	1.3278	7.45	1.39	0.750			
0.3943	25237.26	3.8630	3.8632	1.3443	7.43	1.37	0.750			
0.3985	25503.91	3.8600	3.8599	1.3531	7.41	1.35	0.750			
0.4025	25759.74	3.8570	3.8571	1.3600	7.40	1.34	0.750			
0.4066	26021.59	3.8540	3.8540	1.3734	7.38	1.32	0.750			
0.4107	26286.43	3.8510	3.8508	1.3864	7.36	1.30	0.750			
0.4149	26550.52	3.8480	3.8482	1.4187	7.34	1.28	0.750			
0.4191	26825.42	3.8450	3.8450	1.4456	7.32	1.26	0.750			
0.4236	27107.82	3.8420	3.8418	1.4702	7.30	1.24	0.750			
0.4280	27389.89	3.8390	3.8388	1.4969	7.29	1.23	0.750			
0.4325	27680.81	3.8360	3.8364	1.5316	7.27	1.21	0.750			
0.4372	27982.94	3.8330	3.8329	1.5551	7.25	1.19	0.750			
0.4419	28280.83	3.8300	3.8299	1.5600	7.23	1.17	0.750			
0.4465	28576.46	3.8270	3.8271	1.5720	7.20	1.14	0.750			
0.4513	28883.82	3.8240	3.8243	1.6202	7.18	1.12	0.750			
0.4562	29198.51	3.8210	3.8207	1.6474	7.16	1.10	0.750			
0.4611	29513.49	3.8180	3.8178	1.6883	7.14	1.08	0.750			
0.4664	29848.31	3.8150	3.8150	1.7197	7.12	1.06	0.750			
0.4716	30185.42	3.8120	3.8118	1.7424	7.09	1.03	0.750			
0.4769	30522.87	3.8090	3.8093	1.7726	7.07	1.01	0.750			
0.4823	30865.70	3.8060	3.8059	1.8083	7.04	0.98	0.750			
0.4877	31213.15	3.8030	3.8031	1.8360	7.02	0.96	0.750			
0.4933	31569.16	3.8000	3.8002	1.8414	6.99	0.93	0.750			
0.4989	31926.59	3.7970	3.7971	1.8823	6.96	0.90	0.750			
0.5046	32296.84	3.7940	3.7940	1.8764	6.94	0.88	0.750			
0.5102	32653.71	3.7910	3.7909	1.8925	6.93	0.87	0.750			
0.5159	33016.56	3.7880	3.7880	1.8859	6.90	0.84	0.750			
0.5215	33372.93	3.7850	3.7848	1.9312	6.87	0.81	0.750			
0.5272	33741.39	3.7820	3.7822	2.0045	6.84	0.78	0.750			
0.5333	34130.08	3.7790	3.7788	2.0410	6.81	0.75	0.750			
0.5398	34545.03	3.7760	3.7759	2.0739	6.79	0.73	0.750			
0.5460	34941.35	3.7730	3.7733	2.0647	6.76	0.70	0.750			
0.5522	35337.82	3.7700	3.7702	2.0840	6.74	0.68	0.750			
0.5582	35724.67	3.7670	3.7668	2.1242	6.72	0.66	0.750			
0.5645	36129.59	3.7640	3.7640	2.1885	6.69	0.63	0.750			
0.5713	36560.22	3.7610	3.7610	2.3198	6.66	0.60	0.750			
0.5786	37029.89	3.7580	3.7579	2.4295	6.62	0.56	0.750			
0.5860	37504.02	3.7550	3.7551	2.4671	6.59	0.53	0.750			
0.5934	37978.22	3.7520	3.7521	2.5728	6.56	0.50	0.750			
0.6013	38482.84	3.7490	3.7489	2.7254	6.53	0.47	0.750			
0.6096	39011.54	3.7460	3.7459	2.8315	6.50	0.44	0.750			
0.6185	39582.75	3.7430	3.7429	3.0212	6.47	0.41	0.750			
0.6277	40170.20	3.7400	3.7399	3.0741	6.44	0.38	0.750			
0.6371	40773.33	3.7370	3.7370	3.2005	6.40	0.34	0.750			
0.6470	41405.04	3.7340	3.7339	3.0150	6.36	0.30	0.750			
0.6559	41975.74	3.7310	3.7313	2.8309	6.33	0.27	0.750			
0.6638	42485.09	3.7280	3.7278	2.5079	6.31	0.25	0.750			
0.6707	42926.25	3.7250	3.7253	2.1858	6.29	0.23	0.750			
0.6769	43320.91	3.7220	3.7220	1.9379	6.27	0.21	0.750			
0.6823	43666.32	3.7190	3.7189	1.7359	6.25	0.19	0.750			
0.6869	43963.76	3.7160	3.7158	1.5117	6.23	0.17	0.750			
0.6910	44222.64	3.7130	3.7130	1.4057	6.22	0.16	0.750			
0.6949	44470.80	3.7100	3.7100	1.2965	6.22	0.16	0.750			
0.6986	44707.40	3.7070	3.7068	1.2246	6.21	0.15	0.750			
0.7022	44940.00	3.7040	3.7041	1.1745	6.20	0.14	0.750			
0.7056	45161.22	3.7010	3.7012	1.1244	6.19	0.13	0.750			
0.7089	45368.64	3.6980	3.6980	1.0951	6.18	0.12	0.750			
0.7121	45571.60	3.6950	3.6949	1.0493	6.17	0.11	0.750			
0.7151	45768.77	3.6920	3.6919	1.0284	6.16	0.10	0.750			
0.7182	45965.35	3.6890	3.6891	1.0209	6.15	0.09	0.750			
0.7213	46160.99	3.6860	3.6861	1.0074	6.14	0.08	0.750			
0.7243	46354.92	3.6830	3.6829	0.9871	6.13	0.07	0.750			
0.7273	46544.24	3.6800	3.6801	0.9642	6.12	0.06	0.750			
0.7301	46724.52	3.6770	3.6770	0.9403	6.12	0.06	0.750			
0.7329	46904.37	3.6740	3.6740	0.9284	6.11	0.05	0.750			
0.7356	47077.11	3.6710	3.6710	0.9075	6.10	0.04	0.750			
0.7383	47248.93	3.6680	3.6680	0.8956	6.10	0.04	0.750			
0.7409	47420.58	3.6650	3.6650	0.8896	6.09	0.03	0.750			
0.7436	47590.29	3.6620	3.6621	0.8893	6.09	0.03	0.750			
0.7462	47759.95	3.6590	3.6590	0.8898	6.09	0.03	0.750			
0.7489	47930.18	3.6560	3.6558	0.8875	6.08	0.02	0.750			
0.7516	48101.19	3.6530	3.6530	0.8832	6.07	0.01	0.750			
0.7542	48271.00	3.6500	3.6501	0.8879	6.07	0.01	0.750			
0.7569	48443.63	3.6470	3.6470	0.8905	6.06	0.00	0.750			
0.7597	48618.79	3.6440	3.6439	0.8678	6.06	-0.00	0.750			
0.7623	48787.08	3.6410	3.6408	0.8312	6.05	-0.01	0.750			
0.7648	48949.61	3.6380	3.6381	0.7653	6.05	-0.01	0.750			
0.7672	49099.16	3.6350	3.6351	0.6949	6.05	-0.01	0.750			
0.7691	49224.40	3.6320	3.6322	0.5956	6.06	-0.00	0.750			
0.7705	49311.83	3.6290	3.6294	0.5040	6.06	-0.00	0.750			
0.7719	49399.41	3.6260	3.6263	0.4061	6.06	-0.00	0.750			
0.7730	49469.28	3.6230	3.6231	0.3336	6.06	-0.00	0.750			
0.7738	49521.15	3.6200	3.6196	0.2563	6.06	-0.00	0.750			
0.7744	49561.55	3.6170	3.6149	0.1954	6.06	-0.00	0.750			
0.7747	49581.07	3.5960	3.6005	-0.1096	6.06	0.00	0.750			
0.7747	49582.81	3.6140	3.5905	0.1304	6.06	0.00	0.750			
0.7749	49594.96	3.6110	3.4281	0.0807	6.06	0.00	0.753			
0.7750	49598.46	3.5990	3.3801	-0.0715	6.06	0.00	0.753			
0.7751	49606.79	3.6080	3.2659	0.0426	6.06	0.00	0.755			
0.7751	49608.54	3.6020	3.2419	-0.0335	6.06	0.00	0.756			
0.7752	49611.32	3.6050	3.2038	0.0046	6.06	0.00	0.756			
