Ah_balance (normalized)	Ah_balance (mAh)	Voltage - fit (V)	Voltage -  interpolate (V)	dQ/dV (1/V)	Temperature (°C)	Temperature - diff (°C)	Current (C)	R_DC 0ms (mOhm)	R_DC 50ms (mOhm)	R_DC 50 ms PEC (mOhm)
0.0955	6110.47	4.1990	4.1952	0.3975	8.26	2.27	0.750	0.383	0.830	
0.0971	6216.79	4.1960	4.1984	0.6524	8.26	2.27	0.750			
0.0996	6373.02	4.1930	4.1949	0.7725	8.25	2.26	0.750			
0.1020	6530.23	4.1900	4.1914	0.7989	8.24	2.25	0.750			
0.1046	6695.10	4.1870	4.1877	0.7849	8.23	2.24	0.750			
0.1070	6850.44	4.1840	4.1843	0.7544	8.22	2.23	0.750			
0.1093	6994.57	4.1810	4.1810	0.6917	8.22	2.23	0.750			
0.1114	7126.75	4.1780	4.1779	0.6899	8.21	2.22	0.750			
0.1134	7257.42	4.1750	4.1751	0.6976	8.21	2.22	0.750			
0.1155	7392.20	4.1720	4.1720	0.7055	8.20	2.21	0.750			
0.1176	7528.50	4.1690	4.1689	0.7091	8.20	2.21	0.750			
0.1198	7666.16	4.1660	4.1661	0.7136	8.19	2.20	0.750			
0.1219	7803.88	4.1630	4.1631	0.7167	8.19	2.20	0.750			
0.1241	7941.63	4.1600	4.1598	0.7217	8.18	2.19	0.750			
0.1263	8080.47	4.1570	4.1569	0.7212	8.18	2.19	0.750			
0.1284	8218.46	4.1540	4.1540	0.7198	8.17	2.18	0.750			
0.1306	8357.70	4.1510	4.1511	0.7265	8.17	2.18	0.750			
0.1328	8496.96	4.1480	4.1480	0.7282	8.17	2.18	0.750			
0.1350	8638.90	4.1450	4.1450	0.7255	8.16	2.17	0.750			
0.1371	8777.02	4.1420	4.1420	0.7271	8.16	2.17	0.750			
0.1393	8915.74	4.1390	4.1391	0.7287	8.15	2.16	0.750			
0.1415	9056.90	4.1360	4.1359	0.7298	8.15	2.16	0.750			
0.1437	9196.04	4.1330	4.1329	0.7291	8.14	2.15	0.750			
0.1459	9335.30	4.1300	4.1300	0.7318	8.14	2.15	0.750			
0.1481	9475.95	4.1270	4.1271	0.7395	8.13	2.14	0.750			
0.1503	9619.18	4.1240	4.1239	0.7492	8.13	2.14	0.750			
0.1525	9762.76	4.1210	4.1210	0.7493	8.12	2.13	0.750			
0.1548	9908.37	4.1180	4.1181	0.7571	8.12	2.13	0.750			
0.1571	10057.46	4.1150	4.1149	0.7596	8.11	2.12	0.750			
0.1594	10202.04	4.1120	4.1120	0.7632	8.11	2.12	0.750			
0.1617	10346.97	4.1090	4.1090	0.7608	8.10	2.11	0.750			
0.1640	10493.12	4.1060	4.1060	0.7632	8.09	2.10	0.750			
0.1663	10642.16	4.1030	4.1030	0.7576	8.08	2.09	0.750			
0.1685	10785.23	4.1000	4.1001	0.7652	8.08	2.09	0.750			
0.1708	10931.34	4.0970	4.0972	0.7736	8.07	2.08	0.750			
0.1731	11080.85	4.0940	4.0939	0.7756	8.06	2.07	0.750			
0.1754	11228.64	4.0910	4.0908	0.7745	8.06	2.07	0.750			
0.1778	11380.45	4.0880	4.0883	0.7776	8.05	2.06	0.750			
0.1801	11529.37	4.0850	4.0850	0.7852	8.05	2.06	0.750			
0.1826	11683.75	4.0820	4.0820	0.7930	8.05	2.06	0.750			
0.1849	11831.81	4.0790	4.0790	0.7924	8.04	2.05	0.750			
0.1872	11982.61	4.0760	4.0760	0.7976	8.04	2.05	0.750			
0.1897	12140.39	4.0730	4.0729	0.8046	8.03	2.04	0.750			
0.1921	12295.57	4.0700	4.0699	0.8082	8.02	2.03	0.750			
0.1945	12451.07	4.0670	4.0671	0.8063	8.01	2.02	0.750			
0.1970	12605.56	4.0640	4.0642	0.7995	8.01	2.02	0.750			
0.1994	12759.99	4.0610	4.0608	0.8005	8.00	2.01	0.750			
0.2017	12910.66	4.0580	4.0582	0.8059	8.00	2.01	0.750			
0.2041	13063.92	4.0550	4.0550	0.8090	7.99	2.00	0.750			
0.2065	13218.72	4.0520	4.0520	0.8252	7.99	2.00	0.750			
0.2091	13380.64	4.0490	4.0491	0.8366	7.98	1.99	0.750			
0.2116	13544.25	4.0460	4.0459	0.8509	7.98	1.99	0.750			
0.2143	13712.03	4.0430	4.0429	0.8475	7.97	1.98	0.750			
0.2168	13873.98	4.0400	4.0401	0.8476	7.97	1.98	0.750			
0.2193	14036.57	4.0370	4.0370	0.8392	7.96	1.97	0.750			
0.2218	14197.38	4.0340	4.0338	0.8443	7.96	1.97	0.750			
0.2243	14354.69	4.0310	4.0310	0.8417	7.95	1.96	0.750			
0.2269	14519.10	4.0280	4.0280	0.8424	7.94	1.95	0.750			
0.2294	14682.75	4.0250	4.0250	0.8456	7.93	1.94	0.750			
0.2320	14847.13	4.0220	4.0220	0.8478	7.92	1.93	0.750			
0.2345	15005.23	4.0190	4.0191	0.8536	7.92	1.93	0.750			
0.2370	15170.54	4.0160	4.0158	0.8637	7.91	1.92	0.750			
0.2397	15338.04	4.0130	4.0129	0.8578	7.90	1.91	0.750			
0.2422	15503.19	4.0100	4.0100	0.8630	7.89	1.90	0.750			
0.2449	15671.07	4.0070	4.0072	0.8718	7.88	1.89	0.750			
0.2475	15837.19	4.0040	4.0042	0.8846	7.88	1.89	0.750			
0.2501	16004.65	4.0010	4.0009	0.8911	7.87	1.88	0.750			
0.2528	16176.75	3.9980	3.9979	0.8940	7.86	1.87	0.750			
0.2555	16350.44	3.9950	3.9950	0.9037	7.85	1.86	0.750			
0.2582	16527.63	3.9920	3.9922	0.9070	7.84	1.85	0.750			
0.2610	16703.65	3.9890	3.9890	0.9059	7.83	1.84	0.750			
0.2637	16877.92	3.9860	3.9860	0.9038	7.82	1.83	0.750			
0.2664	17048.33	3.9830	3.9830	0.9064	7.81	1.82	0.750			
0.2691	17220.57	3.9800	3.9800	0.9134	7.81	1.82	0.750			
0.2719	17398.46	3.9770	3.9771	0.9236	7.80	1.81	0.750			
0.2746	17576.06	3.9740	3.9739	0.9306	7.79	1.80	0.750			
0.2775	17757.21	3.9710	3.9710	0.9300	7.78	1.79	0.750			
0.2803	17936.07	3.9680	3.9680	0.9348	7.77	1.78	0.750			
0.2830	18114.79	3.9650	3.9651	0.9386	7.76	1.77	0.750			
0.2858	18292.42	3.9620	3.9620	0.9501	7.75	1.76	0.750			
0.2887	18478.38	3.9590	3.9590	0.9476	7.74	1.75	0.750			
0.2916	18661.21	3.9560	3.9559	0.9555	7.73	1.74	0.750			
0.2945	18846.21	3.9530	3.9532	0.9641	7.72	1.73	0.750			
0.2974	19031.64	3.9500	3.9500	0.9692	7.72	1.73	0.750			
0.3003	19218.49	3.9470	3.9469	0.9686	7.71	1.72	0.750			
0.3032	19404.02	3.9440	3.9441	0.9763	7.70	1.71	0.750			
0.3061	19588.48	3.9410	3.9410	0.9850	7.69	1.70	0.750			
0.3091	19783.05	3.9380	3.9380	0.9997	7.68	1.69	0.750			
0.3121	19975.59	3.9350	3.9349	0.9996	7.67	1.68	0.750			
0.3151	20168.80	3.9320	3.9321	1.0061	7.66	1.67	0.750			
0.3182	20362.71	3.9290	3.9291	1.0144	7.65	1.66	0.750			
0.3212	20558.23	3.9260	3.9260	1.0244	7.64	1.65	0.750			
0.3243	20755.14	3.9230	3.9231	1.0271	7.63	1.64	0.750			
0.3274	20951.12	3.9200	3.9200	1.0407	7.62	1.63	0.750			
0.3305	21152.07	3.9170	3.9170	1.0652	7.60	1.61	0.750			
0.3338	21360.07	3.9140	3.9142	1.0792	7.59	1.60	0.750			
0.3370	21570.43	3.9110	3.9107	1.0897	7.58	1.59	0.750			
0.3403	21779.97	3.9080	3.9081	1.1017	7.56	1.57	0.750			
0.3436	21991.92	3.9050	3.9052	1.1149	7.55	1.56	0.750			
0.3470	22208.82	3.9020	3.9019	1.1222	7.54	1.55	0.750			
0.3504	22428.04	3.8990	3.8990	1.1215	7.52	1.53	0.750			
0.3537	22637.40	3.8960	3.8961	1.1289	7.51	1.52	0.750			
0.3571	22856.29	3.8930	3.8932	1.1487	7.50	1.51	0.750			
0.3606	23080.25	3.8900	3.8898	1.1577	7.48	1.49	0.750			
0.3640	23298.70	3.8870	3.8870	1.1741	7.47	1.48	0.750			
0.3676	23525.93	3.8840	3.8842	1.2005	7.46	1.47	0.750			
0.3713	23762.97	3.8810	3.8811	1.2296	7.44	1.45	0.750			
0.3750	24001.20	3.8780	3.8778	1.2450	7.43	1.44	0.750			
0.3788	24240.52	3.8750	3.8752	1.2441	7.41	1.42	0.750			
0.3825	24480.29	3.8720	3.8721	1.2637	7.40	1.41	0.750			
0.3863	24723.60	3.8690	3.8693	1.2813	7.38	1.39	0.750	0.365	0.850	
0.3901	24967.25	3.8660	3.8660	1.2978	7.37	1.38	0.750			
0.3940	25216.95	3.8630	3.8629	1.3255	7.36	1.37	0.750			
0.3981	25478.67	3.8600	3.8599	1.3418	7.34	1.35	0.750			
0.4022	25741.05	3.8570	3.8571	1.3804	7.32	1.33	0.750			
0.4063	26006.32	3.8540	3.8541	1.3840	7.30	1.31	0.750			
0.4105	26272.75	3.8510	3.8509	1.3977	7.28	1.29	0.750			
0.4146	26536.67	3.8480	3.8480	1.4118	7.27	1.28	0.750			
0.4189	26809.29	3.8450	3.8453	1.4513	7.25	1.26	0.750			
0.4233	27092.56	3.8420	3.8419	1.4877	7.23	1.24	0.750			
0.4279	27384.13	3.8390	3.8387	1.5153	7.21	1.22	0.750			
0.4326	27683.45	3.8360	3.8362	1.5417	7.20	1.21	0.750			
0.4373	27988.44	3.8330	3.8330	1.5519	7.18	1.19	0.750			
0.4419	28284.29	3.8300	3.8299	1.5563	7.15	1.16	0.750			
0.4465	28572.87	3.8270	3.8273	1.5747	7.13	1.14	0.750			
0.4513	28880.80	3.8240	3.8239	1.6010	7.11	1.12	0.750			
0.4561	29189.73	3.8210	3.8211	1.6399	7.09	1.10	0.750			
0.4611	29511.31	3.8180	3.8181	1.6785	7.06	1.07	0.750			
0.4662	29839.80	3.8150	3.8151	1.7243	7.04	1.05	0.750			
0.4715	30178.75	3.8120	3.8119	1.7491	7.01	1.02	0.750			
0.4768	30517.16	3.8090	3.8089	1.7772	6.99	1.00	0.750			
0.4822	30859.85	3.8060	3.8061	1.7822	6.96	0.97	0.750			
0.4877	31210.90	3.8030	3.8030	1.8005	6.94	0.95	0.750			
0.4929	31546.73	3.8000	3.8003	1.8213	6.91	0.92	0.750			
0.4985	31901.43	3.7970	3.7969	1.8550	6.89	0.90	0.750			
0.5040	32255.62	3.7940	3.7938	1.9103	6.87	0.88	0.750			
0.5098	32628.21	3.7910	3.7911	1.9121	6.84	0.85	0.750			
0.5157	33004.55	3.7880	3.7881	1.9512	6.81	0.82	0.750			
0.5217	33385.97	3.7850	3.7853	1.9804	6.78	0.79	0.750			
0.5275	33760.91	3.7820	3.7819	1.9849	6.76	0.77	0.750			
0.5335	34144.93	3.7790	3.7790	2.0061	6.73	0.74	0.750			
0.5395	34530.46	3.7760	3.7760	2.0473	6.71	0.72	0.750			
0.5458	34931.07	3.7730	3.7729	2.0829	6.68	0.69	0.750			
0.5521	35334.01	3.7700	3.7698	2.1084	6.65	0.66	0.750			
0.5585	35741.55	3.7670	3.7671	2.1616	6.61	0.62	0.750			
0.5650	36157.68	3.7640	3.7642	2.2298	6.59	0.60	0.750			
0.5717	36589.99	3.7610	3.7610	2.3540	6.57	0.58	0.750			
0.5789	37052.61	3.7580	3.7579	2.4558	6.54	0.55	0.750			
0.5866	37540.01	3.7550	3.7552	2.5496	6.50	0.51	0.750			
0.5943	38034.75	3.7520	3.7520	2.5957	6.47	0.48	0.750			
0.6021	38534.11	3.7490	3.7491	2.7028	6.44	0.45	0.750			
0.6103	39056.78	3.7460	3.7460	2.8261	6.41	0.42	0.750			
0.6190	39612.86	3.7430	3.7432	2.9894	6.36	0.37	0.750			
0.6283	40210.68	3.7400	3.7399	3.1226	6.33	0.34	0.750			
0.6377	40815.98	3.7370	3.7371	3.1439	6.30	0.31	0.750			
0.6475	41442.39	3.7340	3.7340	3.0484	6.26	0.27	0.750			
0.6564	42009.51	3.7310	3.7310	2.8273	6.23	0.24	0.750			
0.6645	42529.89	3.7280	3.7279	2.5573	6.20	0.21	0.750			
0.6718	42994.87	3.7250	3.7251	2.2785	6.18	0.19	0.750			
0.6781	43399.01	3.7220	3.7221	2.0049	6.16	0.17	0.750			
0.6837	43755.99	3.7190	3.7191	1.7734	6.15	0.16	0.750			
0.6885	44061.87	3.7160	3.7162	1.5760	6.14	0.15	0.750			
0.6927	44332.56	3.7130	3.7128	1.4126	6.13	0.14	0.750			
0.6966	44579.58	3.7100	3.7099	1.2952	6.12	0.13	0.750			
0.7002	44814.88	3.7070	3.7070	1.2078	6.11	0.12	0.750			
0.7036	45032.84	3.7040	3.7040	1.1579	6.10	0.11	0.750			
0.7070	45248.13	3.7010	3.7010	1.1132	6.09	0.10	0.750			
0.7102	45455.15	3.6980	3.6978	1.0804	6.08	0.09	0.750			
0.7134	45658.32	3.6950	3.6950	1.0463	6.08	0.09	0.750			
0.7165	45855.04	3.6920	3.6921	1.0319	6.07	0.08	0.750			
0.7196	46052.84	3.6890	3.6891	1.0210	6.06	0.07	0.750			
0.7226	46246.06	3.6860	3.6859	1.0064	6.05	0.06	0.750			
0.7256	46438.57	3.6830	3.6830	0.9778	6.05	0.06	0.750			
0.7285	46627.12	3.6800	3.6800	0.9637	6.04	0.05	0.750			
0.7314	46809.24	3.6770	3.6771	0.9484	6.04	0.05	0.750			
0.7342	46990.39	3.6740	3.6741	0.9348	6.03	0.04	0.750			
0.7369	47163.69	3.6710	3.6707	0.9168	6.03	0.04	0.750			
0.7397	47339.29	3.6680	3.6680	0.9117	6.02	0.03	0.750			
0.7424	47514.94	3.6650	3.6650	0.8962	6.02	0.03	0.750			
0.7451	47688.84	3.6620	3.6621	0.8871	6.01	0.02	0.750			
0.7477	47855.45	3.6590	3.6590	0.8799	6.00	0.01	0.750			
0.7503	48020.84	3.6560	3.6561	0.8761	6.00	0.01	0.750			
0.7529	48185.74	3.6530	3.6529	0.8728	6.00	0.01	0.750			
0.7555	48352.74	3.6500	3.6499	0.8804	5.99	0.00	0.750			
0.7582	48525.71	3.6470	3.6471	0.8857	5.99	0.00	0.750			
0.7610	48703.78	3.6440	3.6439	0.8683	5.99	0.00	0.750			
0.7637	48876.69	3.6410	3.6409	0.8381	5.99	0.00	0.750			
0.7662	49036.50	3.6380	3.6382	0.7735	5.99	0.00	0.750			
0.7685	49186.45	3.6350	3.6350	0.6920	5.99	0.00	0.750			
0.7705	49311.71	3.6320	3.6320	0.5913	5.99	0.00	0.750			
0.7721	49413.23	3.6290	3.6290	0.4874	5.99	0.00	0.750			
0.7732	49483.51	3.6260	3.6265	0.4045	5.99	0.00	0.750			
0.7743	49553.31	3.6230	3.6231	0.3311	5.99	0.00	0.750			
0.7751	49607.89	3.6200	3.6197	0.2635	5.99	0.00	0.750			
0.7757	49645.23	3.6170	3.6163	0.1933	5.99	0.00	0.750			
0.7762	49673.61	3.6140	3.6090	0.1404	5.99	0.00	0.750			
0.7763	49681.31	3.5960	3.5753	-0.1063	5.99	0.00	0.750			
0.7765	49694.13	3.6110	3.3870	0.0945	5.99	0.00	0.731			
0.7765	49697.95	3.5990	3.3308	-0.0670	5.99	0.00	0.726			
0.7766	49702.67	3.6080	3.2614	0.0506	5.99	0.00	0.719			
0.7767	49707.05	3.6020	3.1970	-0.0278	5.99	0.00	0.713			
0.7767	49708.63	3.6050	3.1738	0.0114	5.99	0.00	0.711			
