Ah_balance (normalized)	Ah_balance (mAh)	Voltage - fit (V)	Voltage -  interpolate (V)	dQ/dV (1/V)	Temperature (°C)	Temperature - diff (°C)	Current (C)	R_DC 0ms (mOhm)	R_DC 50ms (mOhm)	R_DC 50 ms PEC (mOhm)
0.0000	0.00	4.0940	4.1268	0.0000	5.99	0.00	-0.749			
0.0000	0.00	4.0970	4.1268	0.0000	5.99	0.00	-0.749			
0.0002	13.05	4.0910	4.0906	-0.0442	5.99	0.00	-0.750			
0.0004	26.18	4.0880	4.0875	-0.0742	5.99	0.00	-0.750			
0.0007	43.17	4.0850	4.0847	-0.1028	5.99	0.00	-0.750			
0.0010	66.39	4.0820	4.0819	-0.1282	5.99	0.00	-0.750			
0.0015	93.87	4.0790	4.0791	-0.1536	5.99	0.00	-0.750			
0.0020	126.13	4.0760	4.0761	-0.1756	5.99	0.00	-0.750			
0.0026	164.58	4.0730	4.0730	-0.2018	5.99	0.00	-0.750			
0.0032	205.30	4.0700	4.0699	-0.2215	5.99	0.00	-0.750			
0.0039	249.31	4.0670	4.0672	-0.2433	5.99	0.00	-0.750			
0.0046	297.26	4.0640	4.0640	-0.2668	5.99	0.00	-0.750			
0.0055	350.82	4.0610	4.0610	-0.2913	5.99	0.00	-0.750			
0.0064	409.05	4.0580	4.0579	-0.3127	5.99	0.00	-0.750			
0.0074	470.72	4.0550	4.0550	-0.3390	5.99	0.00	-0.750			
0.0084	539.20	4.0520	4.0521	-0.3628	5.99	0.00	-0.750			
0.0095	610.48	4.0490	4.0490	-0.3900	5.99	0.00	-0.750			
0.0108	688.59	4.0460	4.0460	-0.4103	5.99	0.00	-0.750			
0.0120	769.96	4.0430	4.0431	-0.4299	5.99	0.00	-0.750			
0.0134	854.88	4.0400	4.0399	-0.4510	5.99	0.00	-0.750			
0.0147	944.00	4.0370	4.0370	-0.4730	5.99	0.00	-0.750			
0.0162	1036.18	4.0340	4.0339	-0.4896	5.99	0.00	-0.750			
0.0177	1132.14	4.0310	4.0310	-0.5102	6.00	0.01	-0.750			
0.0192	1230.96	4.0280	4.0280	-0.5243	6.00	0.01	-0.750			
0.0209	1334.99	4.0250	4.0251	-0.5509	6.00	0.01	-0.750			
0.0226	1444.21	4.0220	4.0219	-0.5652	6.00	0.01	-0.750			
0.0243	1554.64	4.0190	4.0189	-0.5749	6.01	0.02	-0.750			
0.0260	1665.80	4.0160	4.0161	-0.5885	6.01	0.02	-0.750			
0.0278	1780.04	4.0130	4.0131	-0.6037	6.01	0.02	-0.750			
0.0296	1896.30	4.0100	4.0099	-0.6183	6.02	0.03	-0.750			
0.0315	2016.30	4.0070	4.0069	-0.6345	6.03	0.04	-0.750			
0.0334	2139.22	4.0040	4.0041	-0.6424	6.03	0.04	-0.750			
0.0354	2268.71	4.0010	4.0009	-0.6567	6.04	0.05	-0.750			
0.0374	2395.35	3.9980	3.9981	-0.6591	6.04	0.05	-0.750			
0.0394	2521.09	3.9950	3.9951	-0.6614	6.05	0.06	-0.750			
0.0414	2647.85	3.9920	3.9919	-0.6661	6.06	0.07	-0.750			
0.0434	2775.69	3.9890	3.9890	-0.6637	6.06	0.07	-0.750			
0.0454	2903.08	3.9860	3.9860	-0.6745	6.07	0.08	-0.750			
0.0474	3033.40	3.9830	3.9831	-0.6889	6.08	0.09	-0.750			
0.0495	3166.08	3.9800	3.9799	-0.6971	6.08	0.09	-0.750			
0.0516	3302.08	3.9770	3.9771	-0.6995	6.09	0.10	-0.750			
0.0537	3436.93	3.9740	3.9740	-0.7061	6.10	0.11	-0.750			
0.0559	3574.62	3.9710	3.9712	-0.7106	6.11	0.12	-0.750			
0.0580	3712.45	3.9680	3.9680	-0.7175	6.12	0.13	-0.750			
0.0601	3848.13	3.9650	3.9649	-0.7180	6.12	0.13	-0.750			
0.0623	3985.56	3.9620	3.9620	-0.7230	6.13	0.14	-0.750			
0.0644	4124.65	3.9590	3.9592	-0.7335	6.14	0.15	-0.750			
0.0667	4268.15	3.9560	3.9558	-0.7399	6.15	0.16	-0.750			
0.0689	4410.09	3.9530	3.9530	-0.7453	6.16	0.17	-0.750			
0.0712	4555.33	3.9500	3.9500	-0.7431	6.17	0.18	-0.750			
0.0734	4700.02	3.9470	3.9470	-0.7430	6.18	0.19	-0.750			
0.0756	4841.59	3.9440	3.9438	-0.7396	6.19	0.20	-0.750			
0.0778	4981.31	3.9410	3.9411	-0.7392	6.19	0.20	-0.750			
0.0800	5122.90	3.9380	3.9379	-0.7375	6.20	0.21	-0.750			
0.0823	5265.34	3.9350	3.9349	-0.7404	6.21	0.22	-0.750			
0.0845	5406.54	3.9320	3.9321	-0.7346	6.22	0.23	-0.750			
0.0867	5550.06	3.9290	3.9290	-0.7392	6.23	0.24	-0.750			
0.0889	5692.77	3.9260	3.9262	-0.7385	6.24	0.25	-0.750			
0.0911	5832.97	3.9230	3.9229	-0.7427	6.25	0.26	-0.750			
0.0933	5973.33	3.9200	3.9200	-0.7418	6.26	0.27	-0.750			
0.0956	6117.52	3.9170	3.9170	-0.7483	6.27	0.28	-0.750			
0.0979	6263.40	3.9140	3.9140	-0.7587	6.27	0.28	-0.750			
0.1001	6408.82	3.9110	3.9110	-0.7589	6.28	0.29	-0.750			
0.1024	6554.31	3.9080	3.9080	-0.7614	6.29	0.30	-0.750			
0.1047	6699.24	3.9050	3.9050	-0.7652	6.30	0.31	-0.750			
0.1070	6846.41	3.9020	3.9020	-0.7679	6.32	0.33	-0.750			
0.1093	6994.07	3.8990	3.8990	-0.7709	6.33	0.34	-0.750			
0.1116	7143.45	3.8960	3.8960	-0.7785	6.34	0.35	-0.750			
0.1140	7293.84	3.8930	3.8930	-0.7807	6.35	0.36	-0.750			
0.1163	7445.05	3.8900	3.8898	-0.7815	6.36	0.37	-0.750			
0.1187	7595.50	3.8870	3.8871	-0.7804	6.37	0.38	-0.750			
0.1210	7746.67	3.8840	3.8841	-0.7746	6.38	0.39	-0.750			
0.1234	7894.74	3.8810	3.8809	-0.7744	6.39	0.40	-0.750			
0.1257	8042.07	3.8780	3.8778	-0.7675	6.40	0.41	-0.750			
0.1279	8186.85	3.8750	3.8750	-0.7622	6.41	0.42	-0.750			
0.1302	8332.14	3.8720	3.8720	-0.7700	6.41	0.42	-0.750			
0.1325	8479.84	3.8690	3.8689	-0.7767	6.42	0.43	-0.750			
0.1348	8628.67	3.8660	3.8660	-0.7791	6.43	0.44	-0.750			
0.1372	8782.53	3.8630	3.8631	-0.7889	6.44	0.45	-0.750			
0.1396	8936.28	3.8600	3.8601	-0.7876	6.45	0.46	-0.750			
0.1420	9089.83	3.8570	3.8570	-0.7850	6.46	0.47	-0.750			
0.1444	9239.06	3.8540	3.8540	-0.7833	6.48	0.49	-0.750			
0.1467	9387.87	3.8510	3.8511	-0.7779	6.49	0.50	-0.750			
0.1490	9535.59	3.8480	3.8479	-0.7795	6.50	0.51	-0.750			
0.1513	9685.08	3.8450	3.8448	-0.7815	6.51	0.52	-0.750			
0.1537	9835.76	3.8420	3.8420	-0.7820	6.52	0.53	-0.750			
0.1560	9985.58	3.8390	3.8389	-0.7912	6.53	0.54	-0.750			
0.1584	10140.66	3.8360	3.8361	-0.7920	6.54	0.55	-0.750			
0.1608	10291.74	3.8330	3.8329	-0.7928	6.55	0.56	-0.750			
0.1632	10445.95	3.8300	3.8301	-0.7937	6.56	0.57	-0.750			
0.1656	10597.86	3.8270	3.8270	-0.7911	6.57	0.58	-0.750			
0.1680	10749.02	3.8240	3.8239	-0.7919	6.58	0.59	-0.750			
0.1703	10899.43	3.8210	3.8211	-0.7945	6.59	0.60	-0.750			
0.1726	11048.08	3.8180	3.8180	-0.7946	6.60	0.61	-0.750			
0.1751	11205.39	3.8150	3.8149	-0.8066	6.61	0.62	-0.750			
0.1775	11359.50	3.8120	3.8120	-0.8088	6.62	0.63	-0.750			
0.1800	11517.00	3.8090	3.8091	-0.8159	6.63	0.64	-0.750			
0.1824	11674.47	3.8060	3.8060	-0.8150	6.64	0.65	-0.750			
0.1849	11831.09	3.8030	3.8030	-0.8154	6.65	0.66	-0.750			
0.1873	11987.70	3.8000	3.8000	-0.8147	6.66	0.67	-0.750			
0.1897	12143.88	3.7970	3.7970	-0.8110	6.67	0.68	-0.750			
0.1922	12299.73	3.7940	3.7941	-0.8103	6.68	0.69	-0.750			
0.1946	12454.60	3.7910	3.7910	-0.8130	6.69	0.70	-0.750			
0.1971	12611.75	3.7880	3.7880	-0.8122	6.70	0.71	-0.750			
0.1995	12767.63	3.7850	3.7849	-0.8123	6.71	0.72	-0.750			
0.2019	12923.24	3.7820	3.7822	-0.8085	6.72	0.73	-0.750			
0.2044	13079.37	3.7790	3.7790	-0.8065	6.73	0.74	-0.750			
0.2068	13233.58	3.7760	3.7760	-0.8049	6.74	0.75	-0.750			
0.2092	13386.45	3.7730	3.7730	-0.8025	6.75	0.76	-0.750			
0.2116	13540.33	3.7700	3.7700	-0.8078	6.76	0.77	-0.750			
0.2140	13695.75	3.7670	3.7669	-0.8096	6.77	0.78	-0.750			
0.2164	13850.82	3.7640	3.7640	-0.8148	6.78	0.79	-0.750			
0.2189	14008.31	3.7610	3.7611	-0.8281	6.79	0.80	-0.750			
0.2214	14168.72	3.7580	3.7579	-0.8359	6.80	0.81	-0.750			
0.2239	14329.76	3.7550	3.7549	-0.8436	6.81	0.82	-0.750			
0.2265	14493.04	3.7520	3.7523	-0.8473	6.82	0.83	-0.750			
0.2290	14656.38	3.7490	3.7489	-0.8521	6.83	0.84	-0.750			
0.2316	14823.48	3.7460	3.7460	-0.8577	6.84	0.85	-0.750			
0.2342	14988.71	3.7430	3.7430	-0.8486	6.86	0.87	-0.750			
0.2368	15153.38	3.7400	3.7399	-0.8447	6.87	0.88	-0.750			
0.2392	15311.65	3.7370	3.7373	-0.8435	6.88	0.89	-0.750			
0.2417	15471.00	3.7340	3.7339	-0.8380	6.89	0.90	-0.750			
0.2442	15631.58	3.7310	3.7309	-0.8446	6.90	0.91	-0.750			
0.2468	15792.12	3.7280	3.7280	-0.8467	6.90	0.91	-0.750			
0.2494	15958.51	3.7250	3.7251	-0.8597	6.91	0.92	-0.750			
0.2520	16125.81	3.7220	3.7221	-0.8564	6.92	0.93	-0.750			
0.2545	16290.81	3.7190	3.7189	-0.8580	6.93	0.94	-0.750			
0.2571	16453.63	3.7160	3.7161	-0.8615	6.94	0.95	-0.750			
0.2597	16619.22	3.7130	3.7129	-0.8640	6.95	0.96	-0.750			
0.2623	16784.19	3.7100	3.7099	-0.8774	6.96	0.97	-0.750			
0.2649	16952.75	3.7070	3.7072	-0.8870	6.97	0.98	-0.750			
0.2676	17125.18	3.7040	3.7038	-0.8967	6.98	0.99	-0.750			
0.2703	17300.48	3.7010	3.7009	-0.9006	6.99	1.00	-0.750			
0.2730	17471.15	3.6980	3.6982	-0.8992	7.01	1.02	-0.750			
0.2757	17647.08	3.6950	3.6950	-0.9076	7.02	1.03	-0.750			
0.2784	17820.46	3.6920	3.6920	-0.9163	7.03	1.04	-0.750			
0.2812	17994.44	3.6890	3.6889	-0.9211	7.03	1.04	-0.750			
0.2839	18171.40	3.6860	3.6861	-0.9289	7.04	1.05	-0.750			
0.2867	18351.44	3.6830	3.6830	-0.9437	7.05	1.06	-0.750			
0.2896	18537.34	3.6800	3.6800	-0.9538	7.06	1.07	-0.750			
0.2925	18721.03	3.6770	3.6769	-0.9568	7.07	1.08	-0.750			
0.2954	18908.06	3.6740	3.6740	-0.9536	7.09	1.10	-0.750			
0.2983	19088.40	3.6710	3.6710	-0.9518	7.10	1.11	-0.750			
0.3011	19270.97	3.6680	3.6681	-0.9542	7.11	1.12	-0.750			
0.3039	19452.35	3.6650	3.6649	-0.9693	7.11	1.12	-0.750			
0.3068	19637.27	3.6620	3.6620	-0.9695	7.12	1.13	-0.750			
0.3098	19825.13	3.6590	3.6589	-0.9808	7.12	1.13	-0.750			
0.3127	20015.62	3.6560	3.6561	-0.9806	7.13	1.14	-0.750			
0.3158	20208.70	3.6530	3.6528	-0.9914	7.14	1.15	-0.750			
0.3187	20398.62	3.6500	3.6500	-0.9860	7.14	1.15	-0.750			
0.3216	20585.03	3.6470	3.6469	-0.9883	7.15	1.16	-0.750			
0.3246	20772.06	3.6440	3.6440	-0.9970	7.16	1.17	-0.750			
0.3276	20965.24	3.6410	3.6410	-1.0215	7.17	1.18	-0.750			
0.3307	21162.25	3.6380	3.6378	-1.0284	7.18	1.19	-0.750			
0.3338	21362.11	3.6350	3.6350	-1.0451	7.19	1.20	-0.750			
0.3370	21565.57	3.6320	3.6320	-1.0517	7.19	1.20	-0.750			
0.3402	21772.14	3.6290	3.6291	-1.0670	7.20	1.21	-0.750			
0.3434	21976.80	3.6260	3.6259	-1.0575	7.21	1.22	-0.750			
0.3466	22180.49	3.6230	3.6230	-1.0526	7.22	1.23	-0.750			
0.3497	22378.98	3.6200	3.6200	-1.0533	7.23	1.24	-0.750			
0.3529	22582.78	3.6170	3.6172	-1.0624	7.23	1.24	-0.750			
0.3560	22783.34	3.6140	3.6139	-1.0674	7.24	1.25	-0.750			
0.3592	22989.64	3.6110	3.6110	-1.0816	7.25	1.26	-0.750			
0.3625	23197.02	3.6080	3.6080	-1.0937	7.26	1.27	-0.750			
0.3658	23410.48	3.6050	3.6050	-1.1213	7.26	1.27	-0.750			
0.3692	23631.09	3.6020	3.6020	-1.1335	7.27	1.28	-0.750			
0.3726	23845.63	3.5990	3.5990	-1.1590	7.27	1.28	-0.750			
0.3762	24073.87	3.5960	3.5961	-1.1665	7.28	1.29	-0.750			
0.3797	24301.72	3.5930	3.5928	-1.1611	7.29	1.30	-0.750			
0.3832	24527.24	3.5900	3.5898	-1.1581	7.30	1.31	-0.750			
0.3867	24747.50	3.5870	3.5870	-1.1501	7.30	1.31	-0.750	0.429	0.860	
0.3901	24963.55	3.5840	3.5840	-1.1557	7.31	1.32	-0.750			
0.3935	25185.24	3.5810	3.5808	-1.1642	7.32	1.33	-0.750			
0.3969	25402.34	3.5780	3.5781	-1.1617	7.32	1.33	-0.750			
0.4005	25634.53	3.5750	3.5749	-1.1926	7.33	1.34	-0.750			
0.4042	25870.22	3.5720	3.5719	-1.2192	7.33	1.34	-0.750			
0.4079	26106.67	3.5690	3.5688	-1.2161	7.34	1.35	-0.750			
0.4116	26340.30	3.5660	3.5660	-1.2180	7.35	1.36	-0.750			
0.4152	26570.76	3.5630	3.5632	-1.2296	7.35	1.36	-0.750			
0.4189	26808.03	3.5600	3.5600	-1.2463	7.36	1.37	-0.750			
0.4227	27049.69	3.5570	3.5568	-1.2567	7.36	1.37	-0.750			
0.4264	27290.04	3.5540	3.5540	-1.2639	7.37	1.38	-0.750			
0.4303	27539.62	3.5510	3.5511	-1.2822	7.38	1.39	-0.750			
0.4342	27791.29	3.5480	3.5481	-1.2995	7.38	1.39	-0.750			
0.4381	28038.44	3.5450	3.5450	-1.3032	7.39	1.40	-0.750			
0.4420	28286.14	3.5420	3.5419	-1.3022	7.40	1.41	-0.750			
0.4459	28539.38	3.5390	3.5389	-1.3059	7.41	1.42	-0.750			
0.4498	28789.69	3.5360	3.5361	-1.3197	7.42	1.43	-0.750			
0.4538	29045.07	3.5330	3.5329	-1.3188	7.42	1.43	-0.750			
0.4578	29302.04	3.5300	3.5300	-1.3256	7.43	1.44	-0.750			
0.4618	29552.51	3.5270	3.5269	-1.3276	7.44	1.45	-0.750			
0.4657	29806.58	3.5240	3.5241	-1.3209	7.44	1.45	-0.750			
0.4698	30064.63	3.5210	3.5209	-1.3298	7.45	1.46	-0.750			
0.4737	30319.35	3.5180	3.5180	-1.3301	7.46	1.47	-0.750			
0.4777	30572.92	3.5150	3.5151	-1.3207	7.46	1.47	-0.750			
0.4817	30828.48	3.5120	3.5121	-1.3295	7.47	1.48	-0.750			
0.4857	31081.77	3.5090	3.5089	-1.3309	7.48	1.49	-0.750			
0.4896	31336.26	3.5060	3.5062	-1.3361	7.49	1.50	-0.750			
0.4938	31601.41	3.5030	3.5029	-1.3353	7.50	1.51	-0.750			
0.4978	31857.29	3.5000	3.5000	-1.3324	7.51	1.52	-0.750			
0.5018	32112.80	3.4970	3.4972	-1.3298	7.52	1.53	-0.750			
0.5058	32368.70	3.4940	3.4939	-1.3183	7.53	1.54	-0.750			
0.5096	32617.48	3.4910	3.4908	-1.3102	7.53	1.54	-0.750			
0.5135	32863.50	3.4880	3.4882	-1.3108	7.54	1.55	-0.750			
0.5175	33118.60	3.4850	3.4849	-1.3163	7.55	1.56	-0.750			
0.5215	33373.36	3.4820	3.4819	-1.3153	7.56	1.57	-0.750			
0.5254	33623.56	3.4790	3.4791	-1.3079	7.57	1.58	-0.750			
0.5293	33876.55	3.4760	3.4760	-1.2985	7.58	1.59	-0.750			
0.5333	34129.49	3.4730	3.4729	-1.2935	7.59	1.60	-0.750			
0.5370	34370.95	3.4700	3.4701	-1.2924	7.60	1.61	-0.750			
0.5409	34615.07	3.4670	3.4670	-1.2839	7.61	1.62	-0.750			
0.5448	34867.85	3.4640	3.4639	-1.2799	7.62	1.63	-0.750			
0.5486	35112.58	3.4610	3.4609	-1.2671	7.63	1.64	-0.750			
0.5524	35355.26	3.4580	3.4582	-1.2607	7.64	1.65	-0.750			
0.5562	35598.37	3.4550	3.4550	-1.2519	7.65	1.66	-0.750			
0.5600	35837.66	3.4520	3.4519	-1.2319	7.67	1.68	-0.750			
0.5636	36071.14	3.4490	3.4490	-1.2076	7.68	1.69	-0.750			
0.5672	36301.21	3.4460	3.4460	-1.2062	7.69	1.70	-0.750			
0.5708	36531.36	3.4430	3.4431	-1.1953	7.70	1.71	-0.750			
0.5743	36758.23	3.4400	3.4398	-1.1855	7.71	1.72	-0.750			
0.5779	36983.61	3.4370	3.4370	-1.1829	7.72	1.73	-0.750			
0.5814	37211.71	3.4340	3.4341	-1.1802	7.74	1.75	-0.750			
0.5850	37440.26	3.4310	3.4310	-1.1698	7.75	1.76	-0.750			
0.5885	37665.52	3.4280	3.4280	-1.1568	7.77	1.78	-0.750			
0.5920	37887.84	3.4250	3.4250	-1.1489	7.78	1.79	-0.750			
0.5954	38108.36	3.4220	3.4218	-1.1259	7.79	1.80	-0.750			
0.5988	38322.78	3.4190	3.4190	-1.0976	7.80	1.81	-0.750			
0.6020	38530.05	3.4160	3.4163	-1.0778	7.81	1.82	-0.750			
0.6053	38736.90	3.4130	3.4128	-1.0593	7.82	1.83	-0.750			
0.6084	38936.41	3.4100	3.4100	-1.0464	7.84	1.85	-0.750			
0.6114	39130.38	3.4070	3.4070	-1.0310	7.85	1.86	-0.750			
0.6145	39330.54	3.4040	3.4041	-1.0269	7.86	1.87	-0.750			
0.6176	39528.57	3.4010	3.4010	-1.0178	7.88	1.89	-0.750			
0.6207	39724.32	3.3980	3.3979	-1.0030	7.89	1.90	-0.750			
0.6237	39914.76	3.3950	3.3950	-0.9808	7.91	1.92	-0.750			
0.6266	40103.01	3.3920	3.3921	-0.9598	7.92	1.93	-0.750			
0.6294	40282.98	3.3890	3.3889	-0.9367	7.93	1.94	-0.750			
0.6322	40460.56	3.3860	3.3861	-0.9127	7.94	1.95	-0.750			
0.6349	40633.62	3.3830	3.3830	-0.8924	7.95	1.96	-0.750			
0.6376	40803.29	3.3800	3.3800	-0.8725	7.96	1.97	-0.750			
0.6401	40968.85	3.3770	3.3770	-0.8512	7.98	1.99	-0.750			
0.6426	41129.18	3.3740	3.3740	-0.8290	7.99	2.00	-0.750			
0.6451	41287.65	3.3710	3.3709	-0.8077	8.00	2.01	-0.750			
0.6475	41438.94	3.3680	3.3681	-0.7871	8.02	2.03	-0.750			
0.6498	41589.03	3.3650	3.3650	-0.7705	8.03	2.04	-0.750			
0.6521	41733.97	3.3620	3.3620	-0.7535	8.04	2.05	-0.750			
0.6543	41877.84	3.3590	3.3589	-0.7360	8.06	2.07	-0.750			
0.6565	42016.39	3.3560	3.3561	-0.7215	8.07	2.08	-0.750			
0.6587	42154.65	3.3530	3.3531	-0.7033	8.09	2.10	-0.750			
0.6608	42289.22	3.3500	3.3499	-0.6864	8.10	2.11	-0.750			
0.6628	42417.50	3.3470	3.3469	-0.6692	8.11	2.12	-0.750			
0.6647	42543.57	3.3440	3.3441	-0.6527	8.12	2.13	-0.750			
0.6667	42666.35	3.3410	3.3409	-0.6408	8.14	2.15	-0.750			
0.6686	42788.30	3.3380	3.3379	-0.6315	8.15	2.16	-0.750			
0.6704	42907.44	3.3350	3.3351	-0.6183	8.16	2.17	-0.750			
0.6723	43028.07	3.3320	3.3320	-0.6074	8.17	2.18	-0.750			
0.6741	43144.64	3.3290	3.3290	-0.5934	8.18	2.19	-0.750			
0.6759	43255.91	3.3260	3.3260	-0.5791	8.20	2.21	-0.750			
0.6776	43364.78	3.3230	3.3230	-0.5659	8.21	2.22	-0.750			
0.6792	43471.42	3.3200	3.3199	-0.5515	8.22	2.23	-0.750			
0.6809	43575.86	3.3170	3.3171	-0.5422	8.23	2.24	-0.750			
0.6825	43680.22	3.3140	3.3140	-0.5285	8.25	2.26	-0.750			
0.6841	43780.63	3.3110	3.3110	-0.5170	8.26	2.27	-0.750			
0.6856	43878.53	3.3080	3.3080	-0.5055	8.27	2.28	-0.750			
0.6871	43973.63	3.3050	3.3049	-0.4936	8.28	2.29	-0.750			
0.6885	44066.76	3.3020	3.3020	-0.4840	8.30	2.31	-0.750			
0.6900	44159.23	3.2990	3.2991	-0.4757	8.31	2.32	-0.750			
0.6914	44249.01	3.2960	3.2960	-0.4690	8.32	2.33	-0.750			
0.6928	44339.23	3.2930	3.2930	-0.4649	8.33	2.34	-0.750			
0.6942	44427.46	3.2900	3.2900	-0.4533	8.34	2.35	-0.750			
0.6955	44513.91	3.2870	3.2870	-0.4462	8.35	2.36	-0.750			
0.6969	44598.84	3.2840	3.2841	-0.4416	8.36	2.37	-0.750			
0.6982	44683.64	3.2810	3.2809	-0.4314	8.37	2.38	-0.750			
0.6995	44765.71	3.2780	3.2779	-0.4234	8.37	2.38	-0.750			
0.7007	44845.51	3.2750	3.2751	-0.4147	8.38	2.39	-0.750			
0.7019	44924.71	3.2720	3.2720	-0.4061	8.39	2.40	-0.750			
0.7032	45002.72	3.2690	3.2689	-0.3967	8.40	2.41	-0.750			
0.7043	45076.83	3.2660	3.2660	-0.3876	8.42	2.43	-0.750			
0.7055	45149.97	3.2630	3.2631	-0.3800	8.43	2.44	-0.750			
0.7066	45222.82	3.2600	3.2599	-0.3779	8.44	2.45	-0.750			
0.7077	45293.89	3.2570	3.2571	-0.3715	8.45	2.46	-0.750			
0.7088	45364.38	3.2540	3.2539	-0.3659	8.46	2.47	-0.750			
0.7099	45434.45	3.2510	3.2511	-0.3636	8.47	2.48	-0.750			
0.7110	45504.72	3.2480	3.2480	-0.3588	8.48	2.49	-0.750			
0.7121	45572.80	3.2450	3.2449	-0.3520	8.49	2.50	-0.750			
0.7131	45640.39	3.2420	3.2420	-0.3464	8.50	2.51	-0.750			
0.7142	45705.68	3.2390	3.2392	-0.3409	8.51	2.52	-0.750			
0.7152	45770.77	3.2360	3.2360	-0.3367	8.52	2.53	-0.750			
0.7162	45834.66	3.2330	3.2330	-0.3335	8.53	2.54	-0.750			
0.7172	45897.65	3.2300	3.2300	-0.3289	8.54	2.55	-0.750			
0.7182	45961.77	3.2270	3.2269	-0.3243	8.55	2.56	-0.750			
0.7191	46023.35	3.2240	3.2240	-0.3186	8.56	2.57	-0.750			
0.7201	46083.86	3.2210	3.2211	-0.3143	8.57	2.58	-0.750			
0.7210	46143.54	3.2180	3.2180	-0.3080	8.58	2.59	-0.750			
0.7219	46201.77	3.2150	3.2148	-0.3027	8.59	2.60	-0.750			
0.7228	46259.08	3.2120	3.2121	-0.2980	8.60	2.61	-0.750			
0.7237	46316.00	3.2090	3.2091	-0.2953	8.61	2.62	-0.750			
0.7246	46372.73	3.2060	3.2059	-0.2929	8.61	2.62	-0.750			
0.7254	46428.00	3.2030	3.2030	-0.2886	8.62	2.63	-0.750			
0.7263	46483.34	3.2000	3.2000	-0.2850	8.63	2.64	-0.750			
0.7272	46537.86	3.1970	3.1970	-0.2826	8.64	2.65	-0.750			
0.7280	46592.05	3.1940	3.1940	-0.2803	8.65	2.66	-0.750			
0.7288	46645.68	3.1910	3.1909	-0.2759	8.66	2.67	-0.750			
0.7297	46698.13	3.1880	3.1880	-0.2712	8.67	2.68	-0.750			
0.7305	46749.47	3.1850	3.1852	-0.2678	8.68	2.69	-0.750			
0.7313	46800.30	3.1820	3.1820	-0.2647	8.69	2.70	-0.750			
0.7320	46850.63	3.1790	3.1789	-0.2639	8.70	2.71	-0.750			
0.7328	46900.76	3.1760	3.1760	-0.2615	8.71	2.72	-0.750			
0.7336	46951.34	3.1730	3.1730	-0.2601	8.72	2.73	-0.750			
0.7344	47001.95	3.1700	3.1700	-0.2591	8.73	2.74	-0.750			
0.7352	47051.56	3.1670	3.1671	-0.2567	8.73	2.74	-0.750			
0.7359	47100.48	3.1640	3.1640	-0.2530	8.74	2.75	-0.750			
0.7367	47148.62	3.1610	3.1610	-0.2495	8.75	2.76	-0.750			
0.7374	47195.50	3.1580	3.1579	-0.2454	8.76	2.77	-0.750			
0.7382	47242.36	3.1550	3.1551	-0.2434	8.76	2.77	-0.750			
0.7389	47289.43	3.1520	3.1519	-0.2401	8.77	2.78	-0.750			
0.7396	47335.11	3.1490	3.1490	-0.2381	8.78	2.79	-0.750			
0.7403	47380.51	3.1460	3.1460	-0.2351	8.79	2.80	-0.750			
0.7410	47424.95	3.1430	3.1431	-0.2331	8.80	2.81	-0.750			
0.7417	47469.91	3.1400	3.1398	-0.2303	8.81	2.82	-0.750			
0.7424	47513.55	3.1370	3.1370	-0.2283	8.82	2.83	-0.750			
0.7431	47557.21	3.1340	3.1341	-0.2265	8.82	2.83	-0.750			
0.7438	47600.39	3.1310	3.1311	-0.2243	8.83	2.84	-0.750			
0.7444	47643.75	3.1280	3.1279	-0.2233	8.84	2.85	-0.750			
0.7451	47686.02	3.1250	3.1250	-0.2199	8.85	2.86	-0.750			
0.7458	47728.15	3.1220	3.1220	-0.2179	8.86	2.87	-0.750			
0.7464	47769.60	3.1190	3.1190	-0.2168	8.87	2.88	-0.750			
0.7471	47811.36	3.1160	3.1162	-0.2157	8.88	2.89	-0.750			
0.7477	47852.12	3.1130	3.1130	-0.2133	8.89	2.90	-0.750			
0.7483	47893.16	3.1100	3.1101	-0.2117	8.89	2.90	-0.750			
0.7490	47933.89	3.1070	3.1069	-0.2101	8.90	2.91	-0.750			
0.7496	47974.06	3.1040	3.1041	-0.2083	8.91	2.92	-0.750			
0.7502	48014.07	3.1010	3.1010	-0.2072	8.91	2.92	-0.750			
0.7508	48053.61	3.0980	3.0979	-0.2053	8.92	2.93	-0.750			
0.7514	48092.47	3.0950	3.0949	-0.2027	8.93	2.94	-0.750			
0.7521	48131.28	3.0920	3.0920	-0.2016	8.94	2.95	-0.750			
0.7527	48169.69	3.0890	3.0891	-0.2015	8.95	2.96	-0.750			
0.7533	48208.57	3.0860	3.0859	-0.2004	8.96	2.97	-0.750			
0.7539	48246.98	3.0830	3.0829	-0.1994	8.97	2.98	-0.750			
0.7545	48285.21	3.0800	3.0800	-0.1979	8.98	2.99	-0.750			
0.7550	48323.14	3.0770	3.0771	-0.1963	8.99	3.00	-0.750			
0.7556	48360.66	3.0740	3.0740	-0.1958	9.00	3.01	-0.750			
0.7562	48398.04	3.0710	3.0710	-0.1943	9.01	3.02	-0.750			
