Ah_balance (normalized)	Ah_balance (mAh)	Voltage - fit (V)	Voltage -  interpolate (V)	dQ/dV (1/V)	Temperature (°C)	Temperature - diff (°C)	Current (C)	R_DC 0ms (mOhm)	R_DC 50ms (mOhm)	R_DC 50 ms PEC (mOhm)
0.0968	6193.48	4.1980	4.1935	0.6407	8.70	2.44	0.750	0.367	0.775	
0.0989	6327.45	4.1950	4.1974	0.7364	8.69	2.43	0.750			
0.1013	6481.37	4.1920	4.1940	0.7985	8.69	2.43	0.750			
0.1038	6644.24	4.1890	4.1901	0.8038	8.68	2.42	0.750			
0.1064	6807.30	4.1860	4.1871	0.8056	8.67	2.41	0.750			
0.1087	6956.67	4.1830	4.1835	0.7638	8.67	2.41	0.750			
0.1114	7132.17	4.1800	4.1795	0.8022	8.66	2.40	0.750			
0.1131	7237.18	4.1770	4.1771	0.6894	8.66	2.40	0.750			
0.1152	7372.33	4.1740	4.1740	0.6992	8.65	2.39	0.750			
0.1173	7508.67	4.1710	4.1710	0.7053	8.65	2.39	0.750			
0.1195	7645.60	4.1680	4.1680	0.7059	8.64	2.38	0.750			
0.1216	7784.87	4.1650	4.1651	0.7055	8.64	2.38	0.750			
0.1237	7919.71	4.1620	4.1620	0.7040	8.63	2.37	0.750			
0.1258	8050.53	4.1590	4.1591	0.7050	8.63	2.37	0.750			
0.1279	8185.08	4.1560	4.1559	0.7078	8.62	2.36	0.750			
0.1300	8321.75	4.1530	4.1531	0.7162	8.62	2.36	0.750			
0.1322	8460.88	4.1500	4.1500	0.7243	8.61	2.35	0.750			
0.1344	8601.04	4.1470	4.1472	0.7291	8.61	2.35	0.750			
0.1366	8743.88	4.1440	4.1439	0.7350	8.60	2.34	0.750			
0.1388	8884.69	4.1410	4.1411	0.7367	8.60	2.34	0.750			
0.1410	9025.05	4.1380	4.1379	0.7381	8.59	2.33	0.750			
0.1432	9167.66	4.1350	4.1350	0.7424	8.59	2.33	0.750			
0.1455	9311.61	4.1320	4.1319	0.7416	8.58	2.32	0.750			
0.1477	9453.17	4.1290	4.1291	0.7486	8.57	2.31	0.750			
0.1499	9596.25	4.1260	4.1260	0.7490	8.57	2.31	0.750			
0.1522	9740.93	4.1230	4.1231	0.7582	8.56	2.30	0.750			
0.1545	9887.22	4.1200	4.1200	0.7588	8.56	2.30	0.750			
0.1568	10034.23	4.1170	4.1170	0.7601	8.55	2.29	0.750			
0.1591	10182.67	4.1140	4.1141	0.7599	8.55	2.29	0.750			
0.1614	10328.20	4.1110	4.1110	0.7586	8.54	2.28	0.750			
0.1636	10472.34	4.1080	4.1082	0.7539	8.54	2.28	0.750			
0.1659	10616.91	4.1050	4.1047	0.7584	8.53	2.27	0.750			
0.1681	10761.41	4.1020	4.1021	0.7616	8.52	2.26	0.750			
0.1705	10909.59	4.0990	4.0989	0.7651	8.52	2.26	0.750			
0.1728	11056.06	4.0960	4.0961	0.7681	8.51	2.25	0.750			
0.1751	11204.72	4.0930	4.0930	0.7765	8.50	2.24	0.750			
0.1774	11353.52	4.0900	4.0901	0.7839	8.49	2.23	0.750			
0.1798	11504.27	4.0870	4.0870	0.7929	8.49	2.23	0.750			
0.1822	11657.72	4.0840	4.0840	0.7990	8.48	2.22	0.750			
0.1846	11812.61	4.0810	4.0811	0.8076	8.47	2.21	0.750			
0.1870	11970.21	4.0780	4.0779	0.8072	8.46	2.20	0.750			
0.1895	12125.91	4.0750	4.0750	0.8088	8.46	2.20	0.750			
0.1919	12281.39	4.0720	4.0720	0.8040	8.45	2.19	0.750			
0.1943	12434.57	4.0690	4.0690	0.8066	8.45	2.19	0.750			
0.1967	12588.75	4.0660	4.0660	0.8028	8.44	2.18	0.750			
0.1991	12742.42	4.0630	4.0631	0.8070	8.44	2.18	0.750			
0.2015	12895.65	4.0600	4.0600	0.8146	8.43	2.17	0.750			
0.2040	13053.83	4.0570	4.0566	0.8236	8.43	2.17	0.750			
0.2064	13212.33	4.0540	4.0541	0.8286	8.42	2.16	0.750			
0.2090	13373.87	4.0510	4.0511	0.8360	8.41	2.15	0.750			
0.2115	13536.59	4.0480	4.0480	0.8386	8.40	2.14	0.750			
0.2140	13698.91	4.0450	4.0450	0.8316	8.39	2.13	0.750			
0.2165	13857.70	4.0420	4.0420	0.8315	8.38	2.12	0.750			
0.2190	14016.08	4.0390	4.0390	0.8307	8.37	2.11	0.750			
0.2215	14174.07	4.0360	4.0360	0.8349	8.36	2.10	0.750			
0.2240	14334.30	4.0330	4.0329	0.8385	8.36	2.10	0.750			
0.2265	14496.80	4.0300	4.0300	0.8462	8.35	2.09	0.750			
0.2291	14659.67	4.0270	4.0267	0.8530	8.34	2.08	0.750			
0.2317	14826.75	4.0240	4.0241	0.8564	8.33	2.07	0.750			
0.2342	14989.70	4.0210	4.0210	0.8622	8.33	2.07	0.750			
0.2368	15154.93	4.0180	4.0180	0.8695	8.32	2.06	0.750			
0.2394	15320.83	4.0150	4.0150	0.8675	8.31	2.05	0.750			
0.2421	15491.62	4.0120	4.0119	0.8770	8.31	2.05	0.750			
0.2447	15661.62	4.0090	4.0091	0.8717	8.30	2.04	0.750			
0.2473	15827.58	4.0060	4.0061	0.8783	8.29	2.03	0.750			
0.2499	15996.47	4.0030	4.0030	0.8827	8.28	2.02	0.750			
0.2525	16161.46	4.0000	4.0001	0.8855	8.27	2.01	0.750			
0.2552	16333.05	3.9970	3.9969	0.9027	8.26	2.00	0.750			
0.2580	16509.14	3.9940	3.9941	0.9114	8.25	1.99	0.750			
0.2607	16685.34	3.9910	3.9910	0.9253	8.24	1.98	0.750			
0.2635	16866.34	3.9880	3.9881	0.9411	8.23	1.97	0.750			
0.2664	17047.23	3.9850	3.9845	0.9383	8.22	1.96	0.750			
0.2692	17230.17	3.9820	3.9821	0.9364	8.21	1.95	0.750			
0.2720	17408.17	3.9790	3.9791	0.9369	8.20	1.94	0.750			
0.2749	17590.60	3.9760	3.9761	0.9349	8.19	1.93	0.750			
0.2776	17766.11	3.9730	3.9730	0.9253	8.18	1.92	0.750			
0.2804	17944.32	3.9700	3.9700	0.9285	8.17	1.91	0.750			
0.2831	18120.58	3.9670	3.9672	0.9376	8.16	1.90	0.750			
0.2860	18303.02	3.9640	3.9639	0.9495	8.15	1.89	0.750			
0.2889	18486.92	3.9610	3.9610	0.9613	8.14	1.88	0.750			
0.2917	18670.11	3.9580	3.9579	0.9651	8.13	1.87	0.750			
0.2947	18859.66	3.9550	3.9550	0.9731	8.12	1.86	0.750			
0.2976	19045.02	3.9520	3.9519	0.9818	8.11	1.85	0.750			
0.3005	19235.17	3.9490	3.9492	0.9933	8.10	1.84	0.750			
0.3035	19426.96	3.9460	3.9457	0.9908	8.09	1.83	0.750			
0.3066	19621.99	3.9430	3.9431	0.9935	8.08	1.82	0.750			
0.3095	19811.03	3.9400	3.9401	0.9991	8.06	1.80	0.750			
0.3125	20001.92	3.9370	3.9371	1.0043	8.05	1.79	0.750			
0.3155	20192.69	3.9340	3.9338	1.0075	8.03	1.77	0.750			
0.3185	20386.75	3.9310	3.9310	1.0145	8.02	1.76	0.750			
0.3216	20583.37	3.9280	3.9281	1.0319	8.01	1.75	0.750			
0.3248	20784.07	3.9250	3.9251	1.0498	8.00	1.74	0.750			
0.3279	20988.50	3.9220	3.9219	1.0669	7.99	1.73	0.750			
0.3311	21193.56	3.9190	3.9191	1.0639	7.98	1.72	0.750			
0.3343	21396.91	3.9160	3.9161	1.0778	7.97	1.71	0.750			
0.3376	21603.56	3.9130	3.9131	1.0962	7.96	1.70	0.750			
0.3409	21817.96	3.9100	3.9097	1.1035	7.94	1.68	0.750			
0.3442	22026.91	3.9070	3.9070	1.1231	7.93	1.67	0.750			
0.3476	22244.94	3.9040	3.9042	1.1379	7.91	1.65	0.750			
0.3511	22470.21	3.9010	3.9009	1.1501	7.89	1.63	0.750			
0.3546	22693.05	3.8980	3.8980	1.1499	7.88	1.62	0.750			
0.3580	22913.21	3.8950	3.8952	1.1633	7.87	1.61	0.750			
0.3615	23132.82	3.8920	3.8921	1.1779	7.86	1.60	0.750			
0.3651	23365.04	3.8890	3.8888	1.1862	7.84	1.58	0.750			
0.3686	23587.56	3.8860	3.8860	1.1976	7.83	1.57	0.750			
0.3722	23820.72	3.8830	3.8832	1.2312	7.81	1.55	0.750			
0.3759	24059.85	3.8800	3.8796	1.2524	7.79	1.53	0.750	0.363	0.793	
0.3797	24303.44	3.8770	3.8768	1.2684	7.78	1.52	0.750			
0.3836	24547.33	3.8740	3.8742	1.2770	7.76	1.50	0.750			
0.3875	24797.37	3.8710	3.8710	1.2884	7.75	1.49	0.750			
0.3915	25054.70	3.8680	3.8679	1.2904	7.73	1.47	0.750			
0.3951	25287.84	3.8650	3.8651	1.2978	7.71	1.45	0.750			
0.3990	25536.65	3.8620	3.8622	1.3251	7.69	1.43	0.750			
0.4030	25792.96	3.8590	3.8588	1.3477	7.67	1.41	0.750			
0.4071	26054.38	3.8560	3.8560	1.3756	7.66	1.40	0.750			
0.4113	26322.05	3.8530	3.8532	1.4065	7.64	1.38	0.750			
0.4156	26598.90	3.8500	3.8499	1.4111	7.62	1.36	0.750			
0.4199	26875.00	3.8470	3.8470	1.4187	7.60	1.34	0.750			
0.4241	27144.61	3.8440	3.8442	1.4228	7.58	1.32	0.750			
0.4284	27418.66	3.8410	3.8407	1.4386	7.56	1.30	0.750			
0.4327	27691.93	3.8380	3.8380	1.4558	7.54	1.28	0.750			
0.4371	27975.97	3.8350	3.8350	1.4797	7.51	1.25	0.750			
0.4416	28264.95	3.8320	3.8320	1.4981	7.49	1.23	0.750			
0.4462	28553.64	3.8290	3.8290	1.5203	7.47	1.21	0.750			
0.4508	28851.37	3.8260	3.8261	1.5401	7.44	1.18	0.750			
0.4554	29147.87	3.8230	3.8230	1.5612	7.42	1.16	0.750			
0.4601	29449.43	3.8200	3.8201	1.5619	7.40	1.14	0.750			
0.4648	29750.23	3.8170	3.8170	1.5749	7.38	1.12	0.750			
0.4696	30054.18	3.8140	3.8141	1.6033	7.35	1.09	0.750			
0.4745	30368.60	3.8110	3.8109	1.6142	7.33	1.07	0.750			
0.4793	30673.13	3.8080	3.8081	1.6264	7.31	1.05	0.750			
0.4842	30991.56	3.8050	3.8050	1.6329	7.28	1.02	0.750			
0.4891	31303.30	3.8020	3.8021	1.6518	7.26	1.00	0.750			
0.4940	31616.07	3.7990	3.7990	1.6916	7.24	0.98	0.750			
0.4992	31946.73	3.7960	3.7961	1.7356	7.21	0.95	0.750			
0.5044	32280.42	3.7930	3.7931	1.7656	7.18	0.92	0.750			
0.5099	32633.44	3.7900	3.7900	1.7809	7.15	0.89	0.750			
0.5152	32973.77	3.7870	3.7872	1.8179	7.12	0.86	0.750			
0.5208	33330.83	3.7840	3.7841	1.8539	7.09	0.83	0.750			
0.5262	33675.16	3.7810	3.7806	1.9184	7.07	0.81	0.750			
0.5319	34042.53	3.7780	3.7781	1.9602	7.05	0.79	0.750			
0.5380	34430.23	3.7750	3.7749	2.0518	7.02	0.76	0.750			
0.5444	34842.08	3.7720	3.7723	2.1332	6.99	0.73	0.750			
0.5507	35246.95	3.7690	3.7690	2.2032	6.96	0.70	0.750			
0.5575	35677.61	3.7660	3.7660	2.3125	6.92	0.66	0.750			
0.5644	36124.67	3.7630	3.7630	2.4194	6.89	0.63	0.750			
0.5719	36603.46	3.7600	3.7601	2.5359	6.85	0.59	0.750			
0.5798	37109.06	3.7570	3.7569	2.6453	6.82	0.56	0.750			
0.5879	37624.18	3.7540	3.7541	2.7496	6.78	0.52	0.750			
0.5962	38159.38	3.7510	3.7510	2.9303	6.75	0.49	0.750			
0.6053	38738.45	3.7480	3.7479	3.0917	6.71	0.45	0.750			
0.6150	39358.11	3.7450	3.7450	3.1094	6.67	0.41	0.750			
0.6243	39955.91	3.7420	3.7419	2.9726	6.63	0.37	0.750			
0.6330	40510.68	3.7390	3.7391	2.7226	6.60	0.34	0.750			
0.6408	41009.03	3.7360	3.7359	2.4580	6.57	0.31	0.750			
0.6476	41445.51	3.7330	3.7330	2.1542	6.54	0.28	0.750			
0.6536	41827.74	3.7300	3.7300	1.9070	6.51	0.25	0.750			
0.6588	42162.57	3.7270	3.7272	1.6806	6.50	0.24	0.750			
0.6634	42456.19	3.7240	3.7241	1.5022	6.49	0.23	0.750			
0.6675	42717.92	3.7210	3.7208	1.3811	6.48	0.22	0.750			
0.6713	42961.23	3.7180	3.7180	1.2902	6.46	0.20	0.750			
0.6749	43194.93	3.7150	3.7150	1.2242	6.45	0.19	0.750			
0.6785	43426.53	3.7120	3.7120	1.1805	6.44	0.18	0.750			
0.6820	43650.06	3.7090	3.7089	1.1383	6.43	0.17	0.750			
0.6854	43864.06	3.7060	3.7061	1.1026	6.42	0.16	0.750			
0.6886	44067.91	3.7030	3.7031	1.0722	6.41	0.15	0.750			
0.6917	44268.24	3.7000	3.6999	1.0498	6.40	0.14	0.750			
0.6948	44467.63	3.6970	3.6968	1.0410	6.39	0.13	0.750			
0.6979	44664.98	3.6940	3.6940	1.0303	6.37	0.11	0.750			
0.7010	44863.62	3.6910	3.6911	1.0212	6.36	0.10	0.750			
0.7041	45061.44	3.6880	3.6879	1.0153	6.35	0.09	0.750			
0.7071	45256.83	3.6850	3.6850	0.9936	6.34	0.08	0.750			
0.7101	45443.27	3.6820	3.6819	0.9673	6.33	0.07	0.750			
0.7129	45626.47	3.6790	3.6792	0.9554	6.32	0.06	0.750			
0.7157	45806.10	3.6760	3.6760	0.9458	6.31	0.05	0.750			
0.7185	45986.97	3.6730	3.6729	0.9349	6.31	0.05	0.750			
0.7213	46165.22	3.6700	3.6700	0.9290	6.30	0.04	0.750			
0.7241	46342.07	3.6670	3.6671	0.9262	6.30	0.04	0.750			
0.7269	46520.99	3.6640	3.6640	0.9292	6.29	0.03	0.750			
0.7297	46698.86	3.6610	3.6609	0.9252	6.29	0.03	0.750			
0.7324	46876.50	3.6580	3.6579	0.9147	6.28	0.02	0.750			
0.7352	47052.93	3.6550	3.6550	0.8993	6.27	0.01	0.750			
0.7380	47230.11	3.6520	3.6521	0.8703	6.27	0.01	0.750			
0.7406	47399.52	3.6490	3.6489	0.8232	6.26	0.00	0.750			
0.7431	47556.69	3.6460	3.6460	0.7488	6.26	-0.00	0.750			
0.7453	47697.61	3.6430	3.6432	0.6674	6.25	-0.01	0.750			
0.7472	47819.20	3.6400	3.6401	0.5700	6.25	-0.01	0.750			
0.7488	47920.98	3.6370	3.6370	0.4738	6.24	-0.02	0.750			
0.7497	47983.95	3.6340	3.6347	0.3918	6.24	-0.02	0.750			
0.7508	48052.08	3.6310	3.6312	0.3242	6.24	-0.02	0.750			
0.7516	48103.68	3.6280	3.6278	0.2524	6.24	-0.02	0.750			
0.7522	48142.53	3.6250	3.6237	0.1959	6.23	-0.03	0.750			
0.7526	48165.74	3.6220	3.6147	0.1391	6.23	-0.03	0.750			
0.7527	48172.21	3.5980	3.5854	-0.1053	6.23	-0.03	0.750			
0.7529	48187.04	3.6190	3.3727	0.1031	6.23	-0.03	0.745			
0.7530	48189.70	3.6010	3.3343	-0.0769	6.23	-0.03	0.744			
0.7531	48195.31	3.6160	3.2534	0.0652	6.23	-0.03	0.742			
0.7532	48201.73	3.6040	3.1606	-0.0485	6.23	-0.03	0.740			
0.7532	48205.10	3.6130	3.1121	0.0368	6.23	-0.03	0.739			
0.7533	48208.31	3.6070	3.0657	-0.0200	6.23	-0.03	0.737			
0.7533	48209.43	3.6100	3.0495	0.0084	6.23	-0.03	0.737			
