Ah_balance (normalized)	Ah_balance (mAh)	Voltage - fit (V)	Voltage -  interpolate (V)	dQ/dV (1/V)	Temperature (°C)	Temperature - diff (°C)	Current (C)	R_DC 0ms (mOhm)	R_DC 50ms (mOhm)	R_DC 50 ms PEC (mOhm)
0.0971	6215.52	4.1980	4.1908	0.5241	8.14	2.16	0.750	0.386	0.826	
0.0992	6348.67	4.1950	4.1969	0.7324	8.13	2.15	0.750			
0.1016	6499.80	4.1920	4.1934	0.7764	8.13	2.15	0.750			
0.1040	6654.86	4.1890	4.1898	0.7831	8.12	2.14	0.750			
0.1063	6805.05	4.1860	4.1866	0.7609	8.11	2.13	0.750			
0.1089	6966.47	4.1830	4.1829	0.7653	8.10	2.12	0.750			
0.1110	7106.25	4.1800	4.1800	0.7094	8.10	2.12	0.750			
0.1131	7241.17	4.1770	4.1773	0.7055	8.09	2.11	0.750			
0.1153	7376.82	4.1740	4.1739	0.7027	8.08	2.10	0.750			
0.1174	7510.78	4.1710	4.1711	0.7013	8.08	2.10	0.750			
0.1194	7643.86	4.1680	4.1679	0.6992	8.07	2.09	0.750			
0.1215	7778.25	4.1650	4.1650	0.7086	8.07	2.09	0.750			
0.1237	7914.71	4.1620	4.1621	0.7120	8.07	2.09	0.750			
0.1258	8053.05	4.1590	4.1589	0.7150	8.06	2.08	0.750			
0.1280	8189.85	4.1560	4.1559	0.7200	8.06	2.08	0.750			
0.1301	8328.60	4.1530	4.1531	0.7244	8.06	2.08	0.750			
0.1323	8468.41	4.1500	4.1501	0.7226	8.05	2.07	0.750			
0.1345	8608.62	4.1470	4.1469	0.7176	8.05	2.07	0.750			
0.1366	8743.74	4.1440	4.1442	0.7169	8.04	2.06	0.750			
0.1388	8880.06	4.1410	4.1411	0.7200	8.03	2.05	0.750			
0.1409	9017.70	4.1380	4.1376	0.7242	8.03	2.05	0.750			
0.1431	9155.70	4.1350	4.1351	0.7263	8.02	2.04	0.750			
0.1453	9297.23	4.1320	4.1322	0.7342	8.02	2.04	0.750			
0.1475	9442.68	4.1290	4.1289	0.7447	8.01	2.03	0.750			
0.1498	9585.03	4.1260	4.1260	0.7436	8.00	2.02	0.750			
0.1520	9726.17	4.1230	4.1231	0.7469	7.99	2.01	0.750			
0.1542	9870.98	4.1200	4.1200	0.7554	7.99	2.01	0.750			
0.1565	10017.72	4.1170	4.1169	0.7573	7.98	2.00	0.750			
0.1588	10163.48	4.1140	4.1140	0.7613	7.98	2.00	0.750			
0.1611	10311.08	4.1110	4.1111	0.7644	7.97	1.99	0.750			
0.1634	10457.52	4.1080	4.1079	0.7588	7.97	1.99	0.750			
0.1657	10603.33	4.1050	4.1050	0.7598	7.96	1.98	0.750			
0.1679	10746.60	4.1020	4.1021	0.7578	7.95	1.97	0.750			
0.1702	10893.08	4.0990	4.0989	0.7559	7.95	1.97	0.750			
0.1724	11036.07	4.0960	4.0961	0.7729	7.94	1.96	0.750			
0.1747	11183.88	4.0930	4.0930	0.7827	7.94	1.96	0.750			
0.1771	11337.21	4.0900	4.0900	0.7879	7.93	1.95	0.750			
0.1795	11490.99	4.0870	4.0870	0.7933	7.93	1.95	0.750			
0.1820	11645.58	4.0840	4.0842	0.7916	7.92	1.94	0.750			
0.1843	11797.50	4.0810	4.0808	0.7917	7.92	1.94	0.750			
0.1867	11948.41	4.0780	4.0781	0.7902	7.91	1.93	0.750			
0.1890	12095.72	4.0750	4.0751	0.7866	7.90	1.92	0.750			
0.1914	12247.54	4.0720	4.0719	0.7956	7.90	1.92	0.750			
0.1938	12402.52	4.0690	4.0690	0.8016	7.89	1.91	0.750			
0.1962	12555.69	4.0660	4.0661	0.8067	7.89	1.91	0.750			
0.1986	12710.74	4.0630	4.0630	0.8171	7.88	1.90	0.750			
0.2011	12869.24	4.0600	4.0600	0.8216	7.88	1.90	0.750			
0.2036	13029.34	4.0570	4.0569	0.8178	7.87	1.89	0.750			
0.2060	13186.79	4.0540	4.0541	0.8170	7.86	1.88	0.750			
0.2085	13343.06	4.0510	4.0511	0.8169	7.85	1.87	0.750			
0.2109	13497.97	4.0480	4.0481	0.8200	7.85	1.87	0.750			
0.2133	13652.34	4.0450	4.0449	0.8250	7.84	1.86	0.750			
0.2158	13810.80	4.0420	4.0418	0.8356	7.83	1.85	0.750			
0.2184	13974.51	4.0390	4.0390	0.8433	7.82	1.84	0.750			
0.2209	14139.10	4.0360	4.0361	0.8512	7.82	1.84	0.750			
0.2235	14305.53	4.0330	4.0330	0.8567	7.81	1.83	0.750			
0.2261	14469.32	4.0300	4.0300	0.8590	7.81	1.83	0.750			
0.2286	14631.70	4.0270	4.0270	0.8586	7.80	1.82	0.750			
0.2312	14798.40	4.0240	4.0240	0.8574	7.79	1.81	0.750			
0.2338	14964.44	4.0210	4.0210	0.8601	7.79	1.81	0.750			
0.2364	15130.61	4.0180	4.0181	0.8595	7.78	1.80	0.750			
0.2390	15294.42	4.0150	4.0149	0.8616	7.77	1.79	0.750			
0.2415	15458.16	4.0120	4.0120	0.8603	7.77	1.79	0.750			
0.2441	15623.83	4.0090	4.0090	0.8603	7.76	1.78	0.750			
0.2467	15787.36	4.0060	4.0059	0.8699	7.75	1.77	0.750			
0.2493	15955.66	4.0030	4.0031	0.8814	7.74	1.76	0.750			
0.2519	16124.61	4.0000	4.0000	0.8915	7.73	1.75	0.750			
0.2547	16298.53	3.9970	3.9970	0.8991	7.73	1.75	0.750			
0.2574	16472.33	3.9940	3.9941	0.8976	7.72	1.74	0.750			
0.2601	16646.51	3.9910	3.9911	0.9036	7.71	1.73	0.750			
0.2628	16820.39	3.9880	3.9881	0.9079	7.70	1.72	0.750			
0.2655	16992.82	3.9850	3.9846	0.9024	7.69	1.71	0.750			
0.2682	17166.76	3.9820	3.9821	0.9005	7.68	1.70	0.750			
0.2709	17338.13	3.9790	3.9790	0.9070	7.68	1.70	0.750			
0.2737	17515.05	3.9760	3.9760	0.9191	7.67	1.69	0.750			
0.2764	17692.09	3.9730	3.9731	0.9233	7.66	1.68	0.750			
0.2792	17866.13	3.9700	3.9699	0.9283	7.66	1.68	0.750			
0.2820	18045.68	3.9670	3.9671	0.9352	7.65	1.67	0.750			
0.2848	18226.37	3.9640	3.9640	0.9449	7.64	1.66	0.750			
0.2876	18408.40	3.9610	3.9610	0.9514	7.64	1.66	0.750			
0.2905	18592.07	3.9580	3.9580	0.9591	7.63	1.65	0.750			
0.2934	18780.27	3.9550	3.9549	0.9552	7.62	1.64	0.750			
0.2963	18961.59	3.9520	3.9521	0.9691	7.61	1.63	0.750			
0.2992	19146.42	3.9490	3.9491	0.9759	7.60	1.62	0.750			
0.3021	19334.23	3.9460	3.9460	0.9881	7.58	1.60	0.750			
0.3051	19526.48	3.9430	3.9430	0.9953	7.58	1.60	0.750			
0.3081	19718.66	3.9400	3.9401	1.0008	7.57	1.59	0.750			
0.3111	19912.10	3.9370	3.9371	1.0064	7.56	1.58	0.750			
0.3142	20107.73	3.9340	3.9342	1.0100	7.55	1.57	0.750			
0.3172	20302.05	3.9310	3.9309	1.0103	7.55	1.57	0.750			
0.3202	20495.29	3.9280	3.9281	1.0174	7.54	1.56	0.750			
0.3233	20690.75	3.9250	3.9251	1.0264	7.53	1.55	0.750			
0.3264	20889.18	3.9220	3.9220	1.0457	7.52	1.54	0.750			
0.3296	21092.16	3.9190	3.9189	1.0479	7.51	1.53	0.750			
0.3327	21293.07	3.9160	3.9160	1.0548	7.50	1.52	0.750			
0.3358	21493.35	3.9130	3.9131	1.0695	7.49	1.51	0.750			
0.3391	21701.34	3.9100	3.9102	1.0896	7.48	1.50	0.750			
0.3423	21910.04	3.9070	3.9070	1.1037	7.47	1.49	0.750			
0.3457	22123.51	3.9040	3.9039	1.1180	7.45	1.47	0.750			
0.3491	22341.96	3.9010	3.9012	1.1298	7.44	1.46	0.750			
0.3526	22567.57	3.8980	3.8978	1.1407	7.43	1.45	0.750			
0.3560	22784.33	3.8950	3.8952	1.1457	7.42	1.44	0.750			
0.3594	23002.00	3.8920	3.8920	1.1510	7.41	1.43	0.750			
0.3628	23221.95	3.8890	3.8890	1.1549	7.39	1.41	0.750			
0.3663	23441.29	3.8860	3.8860	1.1591	7.38	1.40	0.750			
0.3698	23666.87	3.8830	3.8832	1.1874	7.37	1.39	0.750			
0.3734	23898.98	3.8800	3.8799	1.2141	7.36	1.38	0.750			
0.3771	24134.04	3.8770	3.8769	1.2373	7.34	1.36	0.750			
0.3808	24372.57	3.8740	3.8741	1.2589	7.33	1.35	0.750			
0.3847	24619.28	3.8710	3.8711	1.2823	7.31	1.33	0.750			
0.3886	24872.18	3.8680	3.8681	1.2930	7.30	1.32	0.750	0.381	0.858	
0.3925	25120.78	3.8650	3.8650	1.3078	7.28	1.30	0.750			
0.3964	25372.60	3.8620	3.8620	1.3168	7.27	1.29	0.750			
0.4004	25623.93	3.8590	3.8591	1.3400	7.26	1.28	0.750			
0.4044	25881.20	3.8560	3.8559	1.3702	7.25	1.27	0.750			
0.4085	26146.01	3.8530	3.8530	1.3985	7.23	1.25	0.750			
0.4129	26424.07	3.8500	3.8502	1.4218	7.22	1.24	0.750			
0.4172	26700.38	3.8470	3.8471	1.4358	7.20	1.22	0.750			
0.4215	26973.88	3.8440	3.8442	1.4644	7.19	1.21	0.750			
0.4259	27254.94	3.8410	3.8412	1.4936	7.17	1.19	0.750			
0.4304	27544.64	3.8380	3.8379	1.5117	7.15	1.17	0.750			
0.4350	27841.15	3.8350	3.8347	1.5327	7.13	1.15	0.750			
0.4397	28137.84	3.8320	3.8322	1.5639	7.11	1.13	0.750			
0.4445	28447.27	3.8290	3.8290	1.5939	7.09	1.11	0.750			
0.4492	28749.48	3.8260	3.8259	1.6029	7.07	1.09	0.750			
0.4539	29052.40	3.8230	3.8230	1.5924	7.05	1.07	0.750			
0.4588	29361.01	3.8200	3.8200	1.6376	7.03	1.05	0.750			
0.4638	29680.13	3.8170	3.8171	1.6858	7.01	1.03	0.750			
0.4689	30009.60	3.8140	3.8138	1.7146	6.99	1.01	0.750			
0.4741	30340.94	3.8110	3.8111	1.7552	6.97	0.99	0.750			
0.4795	30687.83	3.8080	3.8082	1.7841	6.94	0.96	0.750			
0.4849	31035.10	3.8050	3.8052	1.8113	6.92	0.94	0.750			
0.4903	31379.83	3.8020	3.8020	1.8189	6.89	0.91	0.750			
0.4958	31731.53	3.7990	3.7990	1.8177	6.87	0.89	0.750			
0.5013	32084.01	3.7960	3.7959	1.8437	6.86	0.88	0.750			
0.5069	32441.97	3.7930	3.7931	1.8746	6.84	0.86	0.750			
0.5124	32794.19	3.7900	3.7902	1.8809	6.81	0.83	0.750			
0.5181	33160.20	3.7870	3.7870	1.9106	6.79	0.81	0.750			
0.5238	33523.06	3.7840	3.7841	1.9422	6.77	0.79	0.750			
0.5297	33899.12	3.7810	3.7809	2.0111	6.74	0.76	0.750			
0.5359	34297.37	3.7780	3.7779	2.0337	6.72	0.74	0.750			
0.5421	34692.81	3.7750	3.7750	2.0402	6.69	0.71	0.750			
0.5483	35090.00	3.7720	3.7721	2.0652	6.66	0.68	0.750			
0.5544	35483.50	3.7690	3.7690	2.1022	6.64	0.66	0.750			
0.5606	35880.32	3.7660	3.7658	2.1595	6.61	0.63	0.750			
0.5671	36295.24	3.7630	3.7630	2.2394	6.59	0.61	0.750			
0.5740	36736.54	3.7600	3.7600	2.3458	6.56	0.58	0.750			
0.5813	37202.31	3.7570	3.7569	2.4498	6.54	0.56	0.750			
0.5887	37678.61	3.7540	3.7541	2.5760	6.50	0.52	0.750			
0.5966	38181.81	3.7510	3.7509	2.6912	6.47	0.49	0.750			
0.6050	38720.79	3.7480	3.7480	2.7669	6.43	0.45	0.750			
0.6135	39266.38	3.7450	3.7449	2.8648	6.40	0.42	0.750			
0.6222	39817.71	3.7420	3.7420	2.9464	6.37	0.39	0.750			
0.6311	40391.21	3.7390	3.7390	3.0290	6.34	0.36	0.750			
0.6404	40988.71	3.7360	3.7360	3.1110	6.31	0.33	0.750			
0.6500	41598.39	3.7330	3.7328	2.9797	6.27	0.29	0.750			
0.6588	42162.57	3.7300	3.7301	2.7755	6.24	0.26	0.750			
0.6665	42658.82	3.7270	3.7270	2.4597	6.22	0.24	0.750			
0.6735	43102.75	3.7240	3.7241	2.1637	6.20	0.22	0.750			
0.6794	43483.96	3.7210	3.7211	1.8929	6.19	0.21	0.750			
0.6847	43821.97	3.7180	3.7181	1.6748	6.17	0.19	0.750			
0.6893	44112.41	3.7150	3.7150	1.4918	6.15	0.17	0.750			
0.6933	44368.34	3.7120	3.7118	1.3330	6.14	0.16	0.750			
0.6968	44593.56	3.7090	3.7092	1.2260	6.13	0.15	0.750			
0.7003	44818.59	3.7060	3.7060	1.1745	6.12	0.14	0.750			
0.7037	45038.13	3.7030	3.7027	1.1306	6.11	0.13	0.750			
0.7070	45247.96	3.7000	3.7001	1.0956	6.10	0.12	0.750			
0.7103	45456.14	3.6970	3.6970	1.0781	6.09	0.11	0.750			
0.7134	45659.84	3.6940	3.6941	1.0616	6.09	0.11	0.750			
0.7166	45861.89	3.6910	3.6910	1.0339	6.08	0.10	0.750			
0.7197	46058.18	3.6880	3.6879	1.0145	6.07	0.09	0.750			
0.7227	46251.95	3.6850	3.6851	1.0006	6.06	0.08	0.750			
0.7257	46444.55	3.6820	3.6821	0.9827	6.06	0.08	0.750			
0.7286	46631.61	3.6790	3.6788	0.9653	6.05	0.07	0.750			
0.7315	46815.97	3.6760	3.6760	0.9394	6.04	0.06	0.750			
0.7342	46991.37	3.6730	3.6730	0.9156	6.04	0.06	0.750			
0.7370	47166.35	3.6700	3.6700	0.9013	6.03	0.05	0.750			
0.7396	47335.95	3.6670	3.6671	0.8886	6.02	0.04	0.750			
0.7422	47502.56	3.6640	3.6640	0.8824	6.02	0.04	0.750			
0.7449	47670.88	3.6610	3.6610	0.8799	6.01	0.03	0.750			
0.7475	47838.61	3.6580	3.6581	0.8830	6.00	0.02	0.750			
0.7502	48011.78	3.6550	3.6549	0.8882	6.00	0.02	0.750			
0.7528	48181.40	3.6520	3.6519	0.8877	5.99	0.01	0.750			
0.7555	48352.25	3.6490	3.6491	0.8891	5.99	0.01	0.750			
0.7582	48524.74	3.6460	3.6459	0.8685	5.99	0.01	0.750			
0.7609	48696.61	3.6430	3.6429	0.8399	5.98	0.00	0.750			
0.7634	48859.03	3.6400	3.6401	0.7930	5.98	0.00	0.750			
0.7658	49010.51	3.6370	3.6368	0.7260	5.98	-0.00	0.750			
0.7680	49150.21	3.6340	3.6340	0.6442	5.98	-0.00	0.750			
0.7698	49264.90	3.6310	3.6311	0.5451	5.98	-0.00	0.750			
0.7712	49359.90	3.6280	3.6280	0.4481	5.98	-0.00	0.750			
0.7723	49425.56	3.6250	3.6253	0.3716	5.97	-0.01	0.750			
0.7733	49489.10	3.6220	3.6221	0.3020	5.97	-0.01	0.750			
0.7740	49535.78	3.6190	3.6187	0.2296	5.97	-0.01	0.750			
0.7746	49572.55	3.6160	3.6144	0.1763	5.97	-0.01	0.750			
0.7749	49592.86	3.5950	3.5873	-0.1084	5.97	-0.01	0.750			
0.7749	49596.53	3.6130	3.5412	0.1241	5.97	-0.01	0.751			
0.7751	49608.09	3.6100	3.3910	0.0766	5.97	-0.01	0.755			
0.7752	49610.11	3.5980	3.3647	-0.0714	5.97	-0.01	0.756			
0.7753	49619.25	3.6070	3.2460	0.0396	5.97	-0.01	0.759			
0.7753	49620.26	3.6010	3.2329	-0.0344	5.97	-0.01	0.759			
0.7754	49623.31	3.6040	3.1933	0.0026	5.97	-0.01	0.760			
