Ah_balance (normalized)	Ah_balance (mAh)	Voltage - fit (V)	Voltage -  interpolate (V)	dQ/dV (1/V)	Temperature (°C)	Temperature - diff (°C)	Current (C)	R_DC 0ms (mOhm)	R_DC 50ms (mOhm)	R_DC 50 ms PEC (mOhm)
0.0002	14.45	4.1050	4.1038	-0.0494	6.00	0.00	-0.750			
0.0004	28.20	4.1020	4.1013	-0.0812	6.00	0.00	-0.750			
0.0007	46.40	4.0990	4.0989	-0.1090	6.00	0.00	-0.750			
0.0011	70.66	4.0960	4.0958	-0.1353	6.00	0.00	-0.750			
0.0015	99.16	4.0930	4.0931	-0.1616	6.00	-0.00	-0.750			
0.0021	132.71	4.0900	4.0900	-0.1862	6.00	-0.00	-0.750			
0.0027	172.47	4.0870	4.0871	-0.2089	6.00	-0.00	-0.750			
0.0034	214.75	4.0840	4.0839	-0.2311	6.00	-0.00	-0.750			
0.0041	261.20	4.0810	4.0810	-0.2517	6.00	-0.00	-0.750			
0.0049	311.94	4.0780	4.0780	-0.2718	6.00	-0.00	-0.750			
0.0057	365.07	4.0750	4.0750	-0.2964	6.00	-0.00	-0.750			
0.0066	423.70	4.0720	4.0720	-0.3205	6.00	-0.00	-0.750			
0.0076	487.78	4.0690	4.0689	-0.3438	6.00	-0.00	-0.750			
0.0087	556.22	4.0660	4.0660	-0.3694	5.99	-0.01	-0.750			
0.0099	630.49	4.0630	4.0631	-0.3911	5.99	-0.01	-0.750			
0.0111	708.29	4.0600	4.0600	-0.4131	5.99	-0.01	-0.750			
0.0124	790.70	4.0570	4.0570	-0.4317	5.99	-0.01	-0.750			
0.0137	874.53	4.0540	4.0540	-0.4481	5.99	-0.01	-0.750			
0.0150	961.82	4.0510	4.0510	-0.4696	5.99	-0.01	-0.750			
0.0165	1053.46	4.0480	4.0480	-0.4918	5.99	-0.01	-0.750			
0.0180	1150.12	4.0450	4.0449	-0.5099	6.00	-0.00	-0.750			
0.0195	1249.84	4.0420	4.0421	-0.5346	6.00	-0.00	-0.750			
0.0212	1354.73	4.0390	4.0390	-0.5597	6.00	0.00	-0.750			
0.0229	1466.73	4.0360	4.0360	-0.5766	6.00	0.00	-0.750			
0.0247	1580.63	4.0330	4.0328	-0.5908	6.01	0.01	-0.750			
0.0265	1695.04	4.0300	4.0302	-0.6009	6.01	0.01	-0.750			
0.0283	1811.61	4.0270	4.0270	-0.6137	6.01	0.01	-0.750			
0.0301	1929.45	4.0240	4.0240	-0.6291	6.02	0.02	-0.750			
0.0320	2048.15	4.0210	4.0209	-0.6417	6.02	0.02	-0.750			
0.0340	2176.33	4.0180	4.0180	-0.6553	6.03	0.03	-0.750			
0.0360	2305.06	4.0150	4.0150	-0.6679	6.03	0.03	-0.750			
0.0381	2436.01	4.0120	4.0121	-0.6788	6.04	0.04	-0.750			
0.0401	2566.99	4.0090	4.0090	-0.6838	6.04	0.04	-0.750			
0.0422	2698.32	4.0060	4.0059	-0.6821	6.05	0.05	-0.750			
0.0442	2828.72	4.0030	4.0031	-0.6848	6.05	0.05	-0.750			
0.0462	2958.63	4.0000	4.0001	-0.6920	6.06	0.06	-0.750			
0.0483	3093.10	3.9970	3.9969	-0.7023	6.06	0.06	-0.750			
0.0504	3228.66	3.9940	3.9939	-0.7001	6.07	0.07	-0.750			
0.0525	3362.87	3.9910	3.9910	-0.7056	6.07	0.07	-0.750			
0.0547	3498.80	3.9880	3.9882	-0.7149	6.08	0.08	-0.750			
0.0569	3638.73	3.9850	3.9846	-0.7205	6.09	0.09	-0.750			
0.0590	3777.18	3.9820	3.9820	-0.7206	6.10	0.10	-0.750			
0.0612	3914.25	3.9790	3.9791	-0.7304	6.11	0.11	-0.750			
0.0634	4055.54	3.9760	3.9761	-0.7407	6.12	0.12	-0.750			
0.0656	4201.01	3.9730	3.9727	-0.7475	6.13	0.13	-0.750			
0.0679	4343.44	3.9700	3.9700	-0.7451	6.13	0.13	-0.750			
0.0701	4487.52	3.9670	3.9671	-0.7455	6.14	0.14	-0.750			
0.0724	4632.40	3.9640	3.9641	-0.7462	6.15	0.15	-0.750			
0.0746	4775.09	3.9610	3.9609	-0.7485	6.15	0.15	-0.750			
0.0768	4918.22	3.9580	3.9580	-0.7424	6.16	0.16	-0.750			
0.0791	5060.27	3.9550	3.9549	-0.7415	6.17	0.17	-0.750			
0.0813	5202.75	3.9520	3.9520	-0.7483	6.18	0.18	-0.750			
0.0836	5347.55	3.9490	3.9492	-0.7538	6.18	0.18	-0.750			
0.0858	5493.51	3.9460	3.9457	-0.7577	6.19	0.19	-0.750			
0.0881	5639.19	3.9430	3.9430	-0.7560	6.20	0.20	-0.750			
0.0903	5781.72	3.9400	3.9400	-0.7617	6.21	0.21	-0.750			
0.0927	5930.06	3.9370	3.9371	-0.7725	6.21	0.21	-0.750			
0.0950	6079.47	3.9340	3.9339	-0.7762	6.22	0.22	-0.750			
0.0973	6228.51	3.9310	3.9310	-0.7759	6.23	0.23	-0.750			
0.0997	6380.76	3.9280	3.9280	-0.7771	6.24	0.24	-0.750			
0.1020	6530.44	3.9250	3.9251	-0.7764	6.25	0.25	-0.750			
0.1044	6680.86	3.9220	3.9220	-0.7715	6.26	0.26	-0.750			
0.1067	6826.36	3.9190	3.9190	-0.7680	6.27	0.27	-0.750			
0.1090	6973.41	3.9160	3.9160	-0.7698	6.28	0.28	-0.750			
0.1113	7121.09	3.9130	3.9130	-0.7730	6.29	0.29	-0.750			
0.1136	7270.54	3.9100	3.9101	-0.7725	6.30	0.30	-0.750			
0.1159	7419.11	3.9070	3.9069	-0.7786	6.31	0.31	-0.750			
0.1182	7567.85	3.9040	3.9040	-0.7814	6.32	0.32	-0.750			
0.1206	7717.78	3.9010	3.9010	-0.7847	6.33	0.33	-0.750			
0.1230	7869.15	3.8980	3.8979	-0.7943	6.34	0.34	-0.750			
0.1253	8020.98	3.8950	3.8951	-0.7931	6.35	0.35	-0.750			
0.1277	8174.52	3.8920	3.8919	-0.7995	6.36	0.36	-0.750			
0.1301	8328.82	3.8890	3.8890	-0.8053	6.36	0.36	-0.750			
0.1326	8484.70	3.8860	3.8859	-0.8011	6.37	0.37	-0.750			
0.1350	8637.84	3.8830	3.8830	-0.8029	6.38	0.38	-0.750			
0.1374	8792.70	3.8800	3.8799	-0.7996	6.39	0.39	-0.750			
0.1398	8945.93	3.8770	3.8771	-0.7940	6.40	0.40	-0.750			
0.1421	9096.19	3.8740	3.8739	-0.8038	6.41	0.41	-0.750			
0.1445	9248.82	3.8710	3.8710	-0.8048	6.42	0.42	-0.750			
0.1469	9404.27	3.8680	3.8679	-0.8052	6.43	0.43	-0.750			
0.1494	9560.86	3.8650	3.8650	-0.8176	6.43	0.43	-0.750			
0.1519	9719.22	3.8620	3.8621	-0.8161	6.44	0.44	-0.750			
0.1544	9878.46	3.8590	3.8589	-0.8170	6.45	0.45	-0.750			
0.1568	10034.75	3.8560	3.8560	-0.8173	6.46	0.46	-0.750			
0.1592	10187.95	3.8530	3.8530	-0.8162	6.47	0.47	-0.750			
0.1617	10346.41	3.8500	3.8499	-0.8225	6.48	0.48	-0.750			
0.1641	10505.48	3.8470	3.8471	-0.8218	6.49	0.49	-0.750			
0.1666	10661.69	3.8440	3.8440	-0.8254	6.50	0.50	-0.750			
0.1691	10822.46	3.8410	3.8411	-0.8322	6.51	0.51	-0.750			
0.1716	10984.23	3.8380	3.8380	-0.8273	6.52	0.52	-0.750			
0.1741	11143.49	3.8350	3.8348	-0.8243	6.53	0.53	-0.750			
0.1765	11299.04	3.8320	3.8322	-0.8248	6.54	0.54	-0.750			
0.1790	11457.54	3.8290	3.8290	-0.8249	6.55	0.55	-0.750			
0.1815	11615.61	3.8260	3.8258	-0.8306	6.56	0.56	-0.750			
0.1840	11774.75	3.8230	3.8230	-0.8246	6.57	0.57	-0.750			
0.1865	11935.45	3.8200	3.8200	-0.8310	6.58	0.58	-0.750			
0.1890	12095.35	3.8170	3.8174	-0.8351	6.59	0.59	-0.750			
0.1915	12255.87	3.8140	3.8138	-0.8306	6.60	0.60	-0.750			
0.1940	12413.88	3.8110	3.8110	-0.8252	6.61	0.61	-0.750			
0.1964	12571.16	3.8080	3.8081	-0.8277	6.61	0.61	-0.750			
0.1989	12731.05	3.8050	3.8051	-0.8366	6.62	0.62	-0.750			
0.2014	12891.70	3.8020	3.8020	-0.8405	6.63	0.63	-0.750			
0.2039	13051.62	3.7990	3.7990	-0.8427	6.64	0.64	-0.750			
0.2065	13214.21	3.7960	3.7960	-0.8540	6.65	0.65	-0.750			
0.2091	13383.23	3.7930	3.7930	-0.8588	6.66	0.66	-0.750			
0.2117	13548.31	3.7900	3.7899	-0.8582	6.67	0.67	-0.750			
0.2143	13715.17	3.7870	3.7872	-0.8507	6.68	0.68	-0.750			
0.2168	13877.86	3.7840	3.7841	-0.8473	6.69	0.69	-0.750			
0.2193	14037.66	3.7810	3.7809	-0.8529	6.70	0.70	-0.750			
0.2219	14200.60	3.7780	3.7781	-0.8535	6.71	0.71	-0.750			
0.2244	14364.67	3.7750	3.7748	-0.8572	6.72	0.72	-0.750			
0.2270	14530.07	3.7720	3.7722	-0.8551	6.73	0.73	-0.750			
0.2296	14696.34	3.7690	3.7689	-0.8533	6.74	0.74	-0.750			
0.2322	14861.61	3.7660	3.7660	-0.8547	6.75	0.75	-0.750			
0.2348	15024.58	3.7630	3.7630	-0.8463	6.76	0.76	-0.750			
0.2373	15184.26	3.7600	3.7599	-0.8509	6.76	0.76	-0.750			
0.2398	15348.19	3.7570	3.7572	-0.8610	6.77	0.77	-0.750			
0.2424	15511.96	3.7540	3.7538	-0.8717	6.78	0.78	-0.750			
0.2450	15681.11	3.7510	3.7509	-0.8815	6.79	0.79	-0.750			
0.2477	15851.86	3.7480	3.7480	-0.8866	6.80	0.80	-0.750			
0.2504	16025.37	3.7450	3.7450	-0.8952	6.81	0.81	-0.750			
0.2531	16201.39	3.7420	3.7421	-0.8959	6.82	0.82	-0.750			
0.2558	16371.58	3.7390	3.7389	-0.8880	6.83	0.83	-0.750			
0.2585	16541.26	3.7360	3.7361	-0.8803	6.84	0.84	-0.750			
0.2611	16709.07	3.7330	3.7330	-0.8765	6.85	0.85	-0.750			
0.2637	16877.19	3.7300	3.7299	-0.8740	6.86	0.86	-0.750			
0.2663	17042.84	3.7270	3.7270	-0.8835	6.87	0.87	-0.750			
0.2689	17212.18	3.7240	3.7241	-0.8859	6.88	0.88	-0.750			
0.2716	17383.45	3.7210	3.7209	-0.8974	6.88	0.88	-0.750			
0.2743	17556.65	3.7180	3.7180	-0.9048	6.89	0.89	-0.750			
0.2771	17732.61	3.7150	3.7151	-0.9102	6.90	0.90	-0.750			
0.2798	17908.38	3.7120	3.7121	-0.9097	6.91	0.91	-0.750			
0.2826	18084.19	3.7090	3.7090	-0.9122	6.92	0.92	-0.750			
0.2853	18257.56	3.7060	3.7060	-0.9106	6.93	0.93	-0.750			
0.2880	18433.58	3.7030	3.7029	-0.9128	6.94	0.94	-0.750			
0.2907	18606.46	3.7000	3.7000	-0.9155	6.95	0.95	-0.750			
0.2935	18782.48	3.6970	3.6970	-0.9337	6.95	0.95	-0.750			
0.2963	18963.52	3.6940	3.6939	-0.9403	6.96	0.96	-0.750			
0.2992	19146.36	3.6910	3.6909	-0.9466	6.97	0.97	-0.750			
0.3020	19328.42	3.6880	3.6883	-0.9533	6.98	0.98	-0.750			
0.3049	19514.58	3.6850	3.6848	-0.9625	6.99	0.99	-0.750			
0.3078	19699.88	3.6820	3.6820	-0.9665	7.00	1.00	-0.750			
0.3107	19884.46	3.6790	3.6790	-0.9627	7.00	1.00	-0.750			
0.3136	20071.13	3.6760	3.6763	-0.9702	7.01	1.01	-0.750			
0.3165	20256.11	3.6730	3.6729	-0.9883	7.02	1.02	-0.750			
0.3195	20444.80	3.6700	3.6700	-0.9968	7.02	1.02	-0.750			
0.3225	20636.93	3.6670	3.6669	-1.0048	7.03	1.03	-0.750			
0.3255	20833.26	3.6640	3.6640	-1.0269	7.04	1.04	-0.750			
0.3286	21031.65	3.6610	3.6611	-1.0267	7.05	1.05	-0.750			
0.3317	21230.63	3.6580	3.6580	-1.0280	7.06	1.06	-0.750			
0.3348	21428.21	3.6550	3.6550	-1.0352	7.07	1.07	-0.750			
0.3379	21625.26	3.6520	3.6519	-1.0347	7.08	1.08	-0.750			
0.3410	21822.93	3.6490	3.6490	-1.0536	7.08	1.08	-0.750			
0.3442	22027.04	3.6460	3.6460	-1.0647	7.09	1.09	-0.750			
0.3474	22232.99	3.6430	3.6428	-1.0761	7.09	1.09	-0.750			
0.3507	22442.29	3.6400	3.6401	-1.0944	7.10	1.10	-0.750			
0.3540	22655.47	3.6370	3.6370	-1.1103	7.11	1.11	-0.750			
0.3574	22872.16	3.6340	3.6339	-1.1027	7.12	1.12	-0.750			
0.3607	23086.84	3.6310	3.6309	-1.1054	7.13	1.13	-0.750			
0.3640	23294.16	3.6280	3.6285	-1.1090	7.14	1.14	-0.750			
0.3673	23508.10	3.6250	3.6249	-1.1194	7.14	1.14	-0.750			
0.3707	23721.61	3.6220	3.6218	-1.1230	7.15	1.15	-0.750			
0.3740	23935.60	3.6190	3.6189	-1.1244	7.15	1.15	-0.750			
0.3775	24156.94	3.6160	3.6161	-1.1550	7.15	1.15	-0.750			
0.3809	24380.11	3.6130	3.6131	-1.1644	7.16	1.16	-0.750			
0.3844	24601.51	3.6100	3.6100	-1.1776	7.17	1.17	-0.750			
0.3879	24825.80	3.6070	3.6070	-1.1901	7.18	1.18	-0.750			
0.3916	25059.28	3.6040	3.6040	-1.2137	7.18	1.18	-0.750			
0.3953	25296.97	3.6010	3.6008	-1.2258	7.19	1.19	-0.750			
0.3990	25535.12	3.5980	3.5988	-1.2267	7.20	1.20	-0.750	0.416	0.940	
0.4027	25770.28	3.5950	3.5950	-1.2356	7.20	1.20	-0.750			
0.4064	26008.67	3.5920	3.5920	-1.2497	7.21	1.21	-0.750			
0.4101	26248.68	3.5890	3.5888	-1.2529	7.21	1.21	-0.750			
0.4139	26486.50	3.5860	3.5862	-1.2751	7.22	1.22	-0.750			
0.4177	26733.62	3.5830	3.5829	-1.2951	7.23	1.23	-0.750			
0.4217	26985.82	3.5800	3.5801	-1.3106	7.24	1.24	-0.750			
0.4257	27243.12	3.5770	3.5771	-1.3279	7.25	1.25	-0.750			
0.4297	27503.65	3.5740	3.5739	-1.3326	7.25	1.25	-0.750			
0.4337	27758.35	3.5710	3.5709	-1.3268	7.26	1.26	-0.750			
0.4376	28007.72	3.5680	3.5682	-1.3414	7.26	1.26	-0.750			
0.4416	28262.73	3.5650	3.5648	-1.3446	7.26	1.26	-0.750			
0.4457	28522.28	3.5620	3.5618	-1.3626	7.27	1.27	-0.750			
0.4498	28786.04	3.5590	3.5590	-1.3818	7.28	1.28	-0.750			
0.4540	29054.78	3.5560	3.5561	-1.3898	7.28	1.28	-0.750			
0.4583	29331.45	3.5530	3.5529	-1.4186	7.29	1.29	-0.750			
0.4625	29601.62	3.5500	3.5500	-1.4275	7.30	1.30	-0.750			
0.4667	29871.49	3.5470	3.5469	-1.4313	7.30	1.30	-0.750			
0.4711	30150.90	3.5440	3.5440	-1.4564	7.31	1.31	-0.750			
0.4755	30432.37	3.5410	3.5410	-1.4627	7.32	1.32	-0.750			
0.4800	30717.54	3.5380	3.5380	-1.4615	7.33	1.33	-0.750			
0.4845	31007.63	3.5350	3.5351	-1.4659	7.33	1.33	-0.750			
0.4888	31284.00	3.5320	3.5320	-1.4518	7.34	1.34	-0.750			
0.4931	31558.87	3.5290	3.5289	-1.4498	7.35	1.35	-0.750			
0.4974	31832.85	3.5260	3.5264	-1.4528	7.35	1.35	-0.750			
0.5017	32111.48	3.5230	3.5232	-1.4767	7.36	1.36	-0.750			
0.5063	32400.88	3.5200	3.5197	-1.4930	7.37	1.37	-0.750			
0.5108	32691.86	3.5170	3.5171	-1.5035	7.38	1.38	-0.750			
0.5154	32987.43	3.5140	3.5141	-1.5077	7.38	1.38	-0.750			
0.5200	33278.05	3.5110	3.5110	-1.4974	7.39	1.39	-0.750			
0.5244	33559.79	3.5080	3.5079	-1.4996	7.40	1.40	-0.750			
0.5288	33840.73	3.5050	3.5050	-1.4838	7.40	1.40	-0.750			
0.5332	34125.69	3.5020	3.5019	-1.5015	7.41	1.41	-0.750			
0.5378	34418.91	3.4990	3.4989	-1.5115	7.42	1.42	-0.750			
0.5424	34710.45	3.4960	3.4959	-1.5137	7.43	1.43	-0.750			
0.5470	35006.27	3.4930	3.4928	-1.5111	7.43	1.43	-0.750			
0.5515	35298.02	3.4900	3.4902	-1.4911	7.44	1.44	-0.750			
0.5559	35578.68	3.4870	3.4871	-1.4641	7.45	1.45	-0.750			
0.5603	35856.22	3.4840	3.4840	-1.4843	7.46	1.46	-0.750			
0.5647	36140.22	3.4810	3.4809	-1.4755	7.47	1.47	-0.750			
0.5691	36424.20	3.4780	3.4776	-1.4783	7.48	1.48	-0.750			
0.5735	36706.62	3.4750	3.4751	-1.4664	7.49	1.49	-0.750			
0.5781	36997.34	3.4720	3.4721	-1.4571	7.50	1.50	-0.750			
0.5825	37279.48	3.4690	3.4689	-1.4378	7.51	1.51	-0.750			
0.5867	37549.73	3.4660	3.4659	-1.4070	7.52	1.52	-0.750			
0.5907	37807.07	3.4630	3.4630	-1.3750	7.53	1.53	-0.750			
0.5949	38072.82	3.4600	3.4600	-1.3665	7.54	1.54	-0.750			
0.5989	38331.46	3.4570	3.4569	-1.3470	7.55	1.55	-0.750			
0.6029	38586.20	3.4540	3.4541	-1.3366	7.56	1.56	-0.750			
0.6069	38844.52	3.4510	3.4510	-1.3408	7.58	1.58	-0.750			
0.6109	39099.31	3.4480	3.4479	-1.3341	7.59	1.59	-0.750			
0.6149	39355.95	3.4450	3.4450	-1.3293	7.60	1.60	-0.750			
0.6190	39615.08	3.4420	3.4420	-1.3216	7.61	1.61	-0.750			
0.6230	39872.48	3.4390	3.4389	-1.3132	7.61	1.61	-0.750			
0.6270	40124.99	3.4360	3.4361	-1.2832	7.62	1.62	-0.750			
0.6307	40367.05	3.4330	3.4330	-1.2493	7.64	1.64	-0.750			
0.6344	40601.28	3.4300	3.4300	-1.2298	7.65	1.65	-0.750			
0.6380	40832.53	3.4270	3.4271	-1.2037	7.67	1.67	-0.750			
0.6416	41063.37	3.4240	3.4238	-1.1953	7.68	1.68	-0.750			
0.6452	41291.59	3.4210	3.4210	-1.1632	7.69	1.69	-0.750			
0.6487	41515.32	3.4180	3.4181	-1.1392	7.70	1.70	-0.750			
0.6521	41733.13	3.4150	3.4152	-1.1096	7.71	1.71	-0.750			
0.6554	41943.22	3.4120	3.4118	-1.0749	7.73	1.73	-0.750			
0.6585	42142.49	3.4090	3.4090	-1.0458	7.74	1.74	-0.750			
0.6615	42338.75	3.4060	3.4059	-1.0197	7.75	1.75	-0.750			
0.6646	42533.56	3.4030	3.4030	-1.0029	7.76	1.76	-0.750			
0.6676	42725.19	3.4000	3.4000	-0.9886	7.77	1.77	-0.750			
0.6705	42913.14	3.3970	3.3970	-0.9685	7.78	1.78	-0.750			
0.6734	43098.16	3.3940	3.3940	-0.9481	7.79	1.79	-0.750			
0.6762	43279.22	3.3910	3.3912	-0.9209	7.80	1.80	-0.750			
0.6790	43453.28	3.3880	3.3880	-0.8931	7.81	1.81	-0.750			
0.6816	43623.32	3.3850	3.3850	-0.8689	7.83	1.83	-0.750			
0.6842	43787.32	3.3820	3.3819	-0.8343	7.84	1.84	-0.750			
0.6866	43945.09	3.3790	3.3789	-0.8066	7.86	1.86	-0.750			
0.6890	44094.99	3.3760	3.3762	-0.7785	7.87	1.87	-0.750			
0.6913	44241.28	3.3730	3.3730	-0.7528	7.88	1.88	-0.750			
0.6935	44381.80	3.3700	3.3699	-0.7370	7.89	1.89	-0.750			
0.6956	44519.94	3.3670	3.3670	-0.7184	7.90	1.90	-0.750			
0.6978	44656.18	3.3640	3.3640	-0.7056	7.91	1.91	-0.750			
0.6999	44791.63	3.3610	3.3609	-0.6895	7.91	1.91	-0.750			
0.7019	44922.87	3.3580	3.3581	-0.6739	7.92	1.92	-0.750			
0.7039	45050.65	3.3550	3.3550	-0.6553	7.93	1.93	-0.750			
0.7059	45175.33	3.3520	3.3519	-0.6348	7.94	1.94	-0.750			
0.7077	45293.69	3.3490	3.3491	-0.6158	7.96	1.96	-0.750			
0.7095	45410.36	3.3460	3.3460	-0.5984	7.97	1.97	-0.750			
0.7113	45523.38	3.3430	3.3429	-0.5772	7.98	1.98	-0.750			
0.7130	45631.49	3.3400	3.3400	-0.5644	7.98	1.98	-0.750			
0.7146	45737.06	3.3370	3.3370	-0.5504	8.00	2.00	-0.750			
0.7163	45841.45	3.3340	3.3340	-0.5411	8.01	2.01	-0.750			
0.7179	45944.52	3.3310	3.3310	-0.5328	8.02	2.02	-0.750			
0.7195	46045.72	3.3280	3.3280	-0.5189	8.03	2.03	-0.750			
0.7210	46145.35	3.3250	3.3251	-0.5116	8.04	2.04	-0.750			
0.7226	46243.30	3.3220	3.3220	-0.4999	8.05	2.05	-0.750			
0.7240	46337.25	3.3190	3.3189	-0.4828	8.06	2.06	-0.750			
0.7254	46428.47	3.3160	3.3160	-0.4696	8.07	2.07	-0.750			
0.7268	46516.80	3.3130	3.3131	-0.4567	8.08	2.08	-0.750			
0.7282	46603.52	3.3100	3.3101	-0.4434	8.09	2.09	-0.750			
0.7295	46687.65	3.3070	3.3070	-0.4323	8.10	2.10	-0.750			
0.7307	46767.75	3.3040	3.3040	-0.4212	8.11	2.11	-0.750			
0.7320	46848.61	3.3010	3.3010	-0.4118	8.12	2.12	-0.750			
0.7332	46926.90	3.2980	3.2979	-0.4007	8.13	2.13	-0.750			
0.7344	47001.60	3.2950	3.2951	-0.3942	8.14	2.14	-0.750			
0.7356	47076.40	3.2920	3.2919	-0.3871	8.15	2.15	-0.750			
0.7367	47150.87	3.2890	3.2889	-0.3792	8.15	2.15	-0.750			
0.7379	47222.54	3.2860	3.2861	-0.3727	8.16	2.16	-0.750			
0.7390	47292.95	3.2830	3.2833	-0.3640	8.17	2.17	-0.750			
0.7400	47363.00	3.2800	3.2799	-0.3587	8.18	2.18	-0.750			
0.7411	47430.83	3.2770	3.2770	-0.3522	8.19	2.19	-0.750			
0.7421	47497.08	3.2740	3.2739	-0.3434	8.20	2.20	-0.750			
0.7432	47562.86	3.2710	3.2710	-0.3380	8.21	2.21	-0.750			
0.7442	47627.11	3.2680	3.2680	-0.3335	8.22	2.22	-0.750			
0.7452	47689.98	3.2650	3.2651	-0.3261	8.23	2.23	-0.750			
0.7461	47752.77	3.2620	3.2619	-0.3210	8.24	2.24	-0.750			
0.7471	47812.98	3.2590	3.2590	-0.3153	8.24	2.24	-0.750			
0.7480	47873.13	3.2560	3.2561	-0.3104	8.25	2.25	-0.750			
0.7489	47932.76	3.2530	3.2529	-0.3058	8.26	2.26	-0.750			
0.7499	47990.85	3.2500	3.2499	-0.2987	8.27	2.27	-0.750			
0.7507	48047.01	3.2470	3.2471	-0.2918	8.28	2.28	-0.750			
0.7516	48102.92	3.2440	3.2440	-0.2871	8.28	2.28	-0.750			
0.7525	48157.49	3.2410	3.2409	-0.2824	8.29	2.29	-0.750			
0.7533	48210.86	3.2380	3.2380	-0.2770	8.30	2.30	-0.750			
0.7541	48263.53	3.2350	3.2350	-0.2711	8.31	2.31	-0.750			
0.7549	48315.59	3.2320	3.2320	-0.2677	8.31	2.31	-0.750			
0.7557	48366.55	3.2290	3.2291	-0.2636	8.32	2.32	-0.750			
0.7565	48416.12	3.2260	3.2261	-0.2599	8.33	2.33	-0.750			
0.7573	48465.84	3.2230	3.2229	-0.2562	8.34	2.34	-0.750			
0.7580	48514.28	3.2200	3.2200	-0.2521	8.35	2.35	-0.750			
0.7588	48562.77	3.2170	3.2170	-0.2476	8.35	2.35	-0.750			
0.7595	48610.39	3.2140	3.2141	-0.2442	8.36	2.36	-0.750			
0.7603	48657.05	3.2110	3.2111	-0.2405	8.37	2.37	-0.750			
0.7610	48701.62	3.2080	3.2080	-0.2359	8.38	2.38	-0.750			
0.7617	48746.40	3.2050	3.2049	-0.2330	8.38	2.38	-0.750			
0.7624	48790.74	3.2020	3.2020	-0.2290	8.39	2.39	-0.750			
0.7630	48834.71	3.1990	3.1990	-0.2275	8.39	2.39	-0.750			
0.7637	48878.21	3.1960	3.1961	-0.2250	8.40	2.40	-0.750			
0.7644	48921.59	3.1930	3.1929	-0.2228	8.41	2.41	-0.750			
0.7651	48964.07	3.1900	3.1899	-0.2192	8.41	2.41	-0.750			
0.7657	49005.60	3.1870	3.1870	-0.2165	8.42	2.42	-0.750			
0.7664	49046.89	3.1840	3.1842	-0.2131	8.43	2.43	-0.750			
0.7670	49087.55	3.1810	3.1809	-0.2105	8.44	2.44	-0.750			
0.7676	49128.01	3.1780	3.1780	-0.2085	8.44	2.44	-0.750			
0.7682	49167.31	3.1750	3.1751	-0.2057	8.45	2.45	-0.750			
0.7689	49206.83	3.1720	3.1719	-0.2031	8.46	2.46	-0.750			
0.7695	49245.59	3.1690	3.1691	-0.2006	8.47	2.47	-0.750			
0.7701	49284.03	3.1660	3.1660	-0.1983	8.47	2.47	-0.750			
0.7706	49321.32	3.1630	3.1631	-0.1964	8.48	2.48	-0.750			
0.7712	49359.26	3.1600	3.1599	-0.1947	8.49	2.49	-0.750			
0.7718	49396.41	3.1570	3.1570	-0.1924	8.49	2.49	-0.750			
0.7724	49432.98	3.1540	3.1539	-0.1899	8.50	2.50	-0.750			
0.7730	49469.21	3.1510	3.1511	-0.1878	8.51	2.51	-0.750			
0.7735	49505.46	3.1480	3.1481	-0.1864	8.52	2.52	-0.750			
0.7741	49540.84	3.1450	3.1448	-0.1841	8.52	2.52	-0.750			
0.7746	49575.80	3.1420	3.1420	-0.1819	8.53	2.53	-0.750			
0.7752	49610.06	3.1390	3.1390	-0.1794	8.53	2.53	-0.750			
0.7757	49644.43	3.1360	3.1360	-0.1783	8.54	2.54	-0.750			
0.7762	49678.95	3.1330	3.1329	-0.1766	8.55	2.55	-0.750			
0.7768	49712.53	3.1300	3.1299	-0.1750	8.55	2.55	-0.750			
0.7773	49745.95	3.1270	3.1271	-0.1733	8.56	2.56	-0.750			
0.7778	49778.97	3.1240	3.1241	-0.1726	8.57	2.57	-0.750			
0.7783	49812.02	3.1210	3.1209	-0.1710	8.57	2.57	-0.750			
0.7788	49844.81	3.1180	3.1180	-0.1696	8.58	2.58	-0.750			
0.7793	49877.23	3.1150	3.1151	-0.1681	8.59	2.59	-0.750			
0.7798	49909.47	3.1120	3.1120	-0.1661	8.60	2.60	-0.750			
0.7803	49941.46	3.1090	3.1090	-0.1646	8.60	2.60	-0.750			
0.7808	49972.75	3.1060	3.1060	-0.1621	8.61	2.61	-0.750			
0.7813	50003.65	3.1030	3.1030	-0.1598	8.61	2.61	-0.750			
0.7818	50033.76	3.1000	3.1000	-0.1590	8.62	2.62	-0.750			
0.7823	50064.23	3.0970	3.0970	-0.1577	8.63	2.63	-0.750			
0.7827	50094.35	3.0940	3.0940	-0.1563	8.63	2.63	-0.750			
0.7832	50124.26	3.0910	3.0909	-0.1553	8.64	2.64	-0.750			
0.7837	50154.09	3.0880	3.0881	-0.1541	8.65	2.65	-0.750			
0.7841	50183.57	3.0850	3.0850	-0.1530	8.65	2.65	-0.750			
0.7846	50212.99	3.0820	3.0820	-0.1519	8.66	2.66	-0.750			
