Ah_balance (normalized)	Ah_balance (mAh)	Voltage - fit (V)	Voltage -  interpolate (V)	dQ/dV (1/V)	Temperature (°C)	Temperature - diff (°C)	Current (C)	R_DC 0ms (mOhm)	R_DC 50ms (mOhm)	R_DC 50 ms PEC (mOhm)
0.0932	5963.04	4.1970	4.1992	0.7937	8.18	2.20	0.750			
0.0957	6126.07	4.1940	4.1956	0.8375	8.18	2.20	0.750			
0.0983	6291.41	4.1910	4.1918	0.8220	8.17	2.19	0.750			
0.1007	6444.84	4.1880	4.1884	0.7899	8.17	2.19	0.750			
0.1031	6599.45	4.1850	4.1850	0.7085	8.17	2.19	0.750			
0.1053	6737.60	4.1820	4.1819	0.7123	8.16	2.18	0.750			
0.1074	6873.96	4.1790	4.1791	0.7259	8.16	2.18	0.750			
0.1096	7012.16	4.1760	4.1760	0.7305	8.16	2.18	0.750			
0.1118	7155.33	4.1730	4.1729	0.7396	8.15	2.17	0.750			
0.1140	7298.87	4.1700	4.1701	0.7395	8.15	2.17	0.750			
0.1163	7442.63	4.1670	4.1672	0.7421	8.14	2.16	0.750			
0.1185	7583.87	4.1640	4.1640	0.7395	8.13	2.15	0.750			
0.1207	7725.38	4.1610	4.1609	0.7373	8.12	2.14	0.750			
0.1228	7862.28	4.1580	4.1581	0.7348	8.12	2.14	0.750			
0.1251	8005.19	4.1550	4.1547	0.7426	8.11	2.13	0.750			
0.1273	8149.96	4.1520	4.1522	0.7477	8.10	2.12	0.750			
0.1296	8295.98	4.1490	4.1490	0.7457	8.10	2.12	0.750			
0.1319	8440.50	4.1460	4.1461	0.7455	8.09	2.11	0.750			
0.1341	8581.08	4.1430	4.1430	0.7409	8.09	2.11	0.750			
0.1363	8722.00	4.1400	4.1401	0.7426	8.08	2.10	0.750			
0.1385	8863.99	4.1370	4.1370	0.7409	8.08	2.10	0.750			
0.1407	9006.10	4.1340	4.1341	0.7470	8.07	2.09	0.750			
0.1430	9150.92	4.1310	4.1310	0.7522	8.07	2.09	0.750			
0.1452	9294.27	4.1280	4.1279	0.7650	8.06	2.08	0.750			
0.1475	9442.07	4.1250	4.1250	0.7701	8.06	2.08	0.750			
0.1499	9591.28	4.1220	4.1217	0.7750	8.05	2.07	0.750			
0.1522	9742.73	4.1190	4.1190	0.7805	8.05	2.07	0.750			
0.1546	9895.34	4.1160	4.1160	0.7807	8.04	2.06	0.750			
0.1569	10042.84	4.1130	4.1131	0.7826	8.03	2.05	0.750			
0.1593	10192.79	4.1100	4.1100	0.7855	8.03	2.05	0.750			
0.1616	10340.10	4.1070	4.1070	0.7844	8.02	2.04	0.750			
0.1640	10493.67	4.1040	4.1039	0.7931	8.02	2.04	0.750			
0.1664	10648.00	4.1010	4.1011	0.7958	8.01	2.03	0.750			
0.1688	10800.26	4.0980	4.0980	0.7985	8.00	2.02	0.750			
0.1712	10955.60	4.0950	4.0950	0.8015	7.99	2.01	0.750			
0.1736	11107.45	4.0920	4.0920	0.8034	7.99	2.01	0.750			
0.1760	11261.41	4.0890	4.0889	0.8041	7.98	2.00	0.750			
0.1784	11417.50	4.0860	4.0860	0.8003	7.97	1.99	0.750			
0.1808	11571.00	4.0830	4.0831	0.8056	7.96	1.98	0.750			
0.1832	11724.34	4.0800	4.0801	0.8094	7.95	1.97	0.750			
0.1856	11878.58	4.0770	4.0769	0.8142	7.95	1.97	0.750			
0.1881	12035.22	4.0740	4.0739	0.8174	7.94	1.96	0.750			
0.1905	12194.24	4.0710	4.0710	0.8164	7.93	1.95	0.750			
0.1930	12352.68	4.0680	4.0681	0.8315	7.93	1.95	0.750			
0.1955	12514.59	4.0650	4.0651	0.8315	7.92	1.94	0.750			
0.1980	12672.69	4.0620	4.0619	0.8313	7.92	1.94	0.750			
0.2005	12831.75	4.0590	4.0588	0.8291	7.91	1.93	0.750			
0.2030	12992.03	4.0560	4.0561	0.8318	7.90	1.92	0.750			
0.2055	13153.95	4.0530	4.0530	0.8347	7.90	1.92	0.750			
0.2080	13312.41	4.0500	4.0500	0.8348	7.89	1.91	0.750			
0.2105	13469.21	4.0470	4.0471	0.8386	7.89	1.91	0.750			
0.2130	13632.95	4.0440	4.0439	0.8468	7.88	1.90	0.750			
0.2156	13795.72	4.0410	4.0409	0.8472	7.87	1.89	0.750			
0.2181	13960.98	4.0380	4.0381	0.8567	7.86	1.88	0.750			
0.2207	14126.66	4.0350	4.0351	0.8551	7.85	1.87	0.750			
0.2233	14291.27	4.0320	4.0320	0.8593	7.85	1.87	0.750			
0.2258	14453.68	4.0290	4.0290	0.8645	7.84	1.86	0.750			
0.2285	14621.73	4.0260	4.0260	0.8652	7.83	1.85	0.750			
0.2311	14790.86	4.0230	4.0228	0.8746	7.83	1.85	0.750			
0.2337	14958.29	4.0200	4.0202	0.8758	7.82	1.84	0.750			
0.2364	15128.21	4.0170	4.0169	0.8715	7.81	1.83	0.750			
0.2390	15294.82	4.0140	4.0140	0.8733	7.81	1.83	0.750			
0.2416	15459.58	4.0110	4.0111	0.8663	7.80	1.82	0.750			
0.2441	15623.54	4.0080	4.0080	0.8742	7.79	1.81	0.750			
0.2468	15794.32	4.0050	4.0050	0.8760	7.78	1.80	0.750			
0.2494	15964.37	4.0020	4.0020	0.8916	7.77	1.79	0.750			
0.2521	16137.59	3.9990	3.9989	0.8957	7.77	1.79	0.750			
0.2549	16312.05	3.9960	3.9959	0.9029	7.76	1.78	0.750			
0.2575	16482.78	3.9930	3.9930	0.9050	7.75	1.77	0.750			
0.2603	16657.95	3.9900	3.9902	0.9136	7.75	1.77	0.750			
0.2630	16833.37	3.9870	3.9868	0.9150	7.74	1.76	0.750			
0.2658	17013.48	3.9840	3.9840	0.9132	7.73	1.75	0.750			
0.2685	17185.16	3.9810	3.9811	0.9151	7.72	1.74	0.750			
0.2713	17361.26	3.9780	3.9781	0.9265	7.71	1.73	0.750			
0.2741	17540.98	3.9750	3.9750	0.9262	7.70	1.72	0.750			
0.2769	17720.14	3.9720	3.9720	0.9233	7.69	1.71	0.750			
0.2796	17897.23	3.9690	3.9692	0.9310	7.69	1.71	0.750			
0.2824	18074.82	3.9660	3.9661	0.9445	7.68	1.70	0.750			
0.2853	18258.43	3.9630	3.9629	0.9558	7.67	1.69	0.750			
0.2881	18438.32	3.9600	3.9598	0.9558	7.66	1.68	0.750			
0.2910	18624.69	3.9570	3.9570	0.9614	7.65	1.67	0.750			
0.2940	18815.10	3.9540	3.9541	0.9753	7.64	1.66	0.750			
0.2969	19002.00	3.9510	3.9510	0.9743	7.63	1.65	0.750			
0.2998	19188.80	3.9480	3.9479	0.9643	7.62	1.64	0.750			
0.3027	19372.07	3.9450	3.9450	0.9578	7.61	1.63	0.750			
0.3055	19554.64	3.9420	3.9421	0.9729	7.61	1.63	0.750			
0.3084	19739.71	3.9390	3.9390	0.9811	7.60	1.62	0.750			
0.3114	19929.20	3.9360	3.9359	0.9893	7.59	1.61	0.750			
0.3144	20121.01	3.9330	3.9330	0.9983	7.58	1.60	0.750			
0.3174	20316.10	3.9300	3.9302	1.0109	7.57	1.59	0.750			
0.3205	20513.13	3.9270	3.9269	1.0213	7.56	1.58	0.750			
0.3236	20708.59	3.9240	3.9241	1.0293	7.55	1.57	0.750			
0.3267	20906.29	3.9210	3.9211	1.0272	7.54	1.56	0.750			
0.3297	21103.52	3.9180	3.9179	1.0383	7.53	1.55	0.750			
0.3329	21303.79	3.9150	3.9150	1.0501	7.52	1.54	0.750			
0.3360	21505.15	3.9120	3.9121	1.0591	7.51	1.53	0.750			
0.3392	21709.26	3.9090	3.9090	1.0616	7.50	1.52	0.750			
0.3424	21913.00	3.9060	3.9060	1.0807	7.48	1.50	0.750			
0.3457	22121.93	3.9030	3.9030	1.0952	7.47	1.49	0.750			
0.3490	22334.12	3.9000	3.8999	1.1170	7.46	1.48	0.750			
0.3523	22549.13	3.8970	3.8971	1.1202	7.45	1.47	0.750			
0.3557	22766.68	3.8940	3.8941	1.1327	7.44	1.46	0.750			
0.3591	22984.84	3.8910	3.8911	1.1507	7.43	1.45	0.750			
0.3626	23207.51	3.8880	3.8877	1.1639	7.42	1.44	0.750			
0.3661	23429.08	3.8850	3.8851	1.1750	7.41	1.43	0.750			
0.3696	23657.15	3.8820	3.8820	1.1993	7.39	1.41	0.750			
0.3733	23892.70	3.8790	3.8790	1.2103	7.38	1.40	0.750			
0.3770	24126.47	3.8760	3.8760	1.2243	7.36	1.38	0.750			
0.3807	24363.28	3.8730	3.8731	1.2457	7.35	1.37	0.750			
0.3844	24601.59	3.8700	3.8701	1.2650	7.34	1.36	0.750			
0.3882	24844.60	3.8670	3.8668	1.2788	7.33	1.35	0.750			
0.3921	25092.68	3.8640	3.8640	1.3065	7.31	1.33	0.750			
0.3960	25342.45	3.8610	3.8611	1.3332	7.30	1.32	0.750			
0.4000	25601.34	3.8580	3.8578	1.3582	7.28	1.30	0.750			
0.4041	25863.67	3.8550	3.8550	1.3822	7.26	1.28	0.750			
0.4083	26133.88	3.8520	3.8518	1.4042	7.25	1.27	0.750	0.409	0.966	
0.4126	26406.19	3.8490	3.8490	1.4342	7.23	1.25	0.750			
0.4170	26686.94	3.8460	3.8461	1.4462	7.21	1.23	0.750			
0.4214	26968.87	3.8430	3.8429	1.4688	7.20	1.22	0.750			
0.4258	27250.25	3.8400	3.8401	1.5028	7.18	1.20	0.750			
0.4303	27536.07	3.8370	3.8369	1.5222	7.16	1.18	0.750			
0.4348	27829.16	3.8340	3.8342	1.5489	7.14	1.16	0.750			
0.4396	28132.19	3.8310	3.8309	1.5746	7.12	1.14	0.750			
0.4443	28432.34	3.8280	3.8282	1.6173	7.10	1.12	0.750			
0.4492	28751.91	3.8250	3.8249	1.6742	7.08	1.10	0.750			
0.4543	29074.89	3.8220	3.8220	1.7082	7.07	1.09	0.750			
0.4596	29412.87	3.8190	3.8189	1.7146	7.05	1.07	0.750			
0.4647	29743.80	3.8160	3.8162	1.7631	7.03	1.05	0.750			
0.4701	30085.73	3.8130	3.8129	1.8014	7.00	1.02	0.750			
0.4755	30429.58	3.8100	3.8096	1.8574	6.98	1.00	0.750			
0.4810	30782.63	3.8070	3.8070	1.8848	6.96	0.98	0.750			
0.4868	31158.23	3.8040	3.8041	1.9425	6.93	0.95	0.750			
0.4928	31540.80	3.8010	3.8011	2.0015	6.91	0.93	0.750			
0.4988	31924.15	3.7980	3.7978	2.0065	6.89	0.91	0.750			
0.5048	32305.26	3.7950	3.7949	2.0456	6.86	0.88	0.750			
0.5110	32701.93	3.7920	3.7921	2.0856	6.84	0.86	0.750			
0.5174	33110.51	3.7890	3.7889	2.1467	6.81	0.83	0.750			
0.5238	33521.74	3.7860	3.7861	2.1781	6.79	0.81	0.750			
0.5304	33945.51	3.7830	3.7830	2.2434	6.76	0.78	0.750			
0.5372	34377.95	3.7800	3.7800	2.3013	6.73	0.75	0.750			
0.5442	34831.21	3.7770	3.7770	2.3523	6.70	0.72	0.750			
0.5514	35288.92	3.7740	3.7740	2.3753	6.67	0.69	0.750			
0.5586	35750.71	3.7710	3.7712	2.4156	6.64	0.66	0.750			
0.5658	36211.91	3.7680	3.7676	2.4623	6.62	0.64	0.750			
0.5733	36690.10	3.7650	3.7650	2.4575	6.59	0.61	0.750			
0.5808	37173.88	3.7620	3.7622	2.5015	6.56	0.58	0.750			
0.5881	37640.20	3.7590	3.7587	2.4880	6.53	0.55	0.750			
0.5956	38120.99	3.7560	3.7561	2.5311	6.50	0.52	0.750			
0.6033	38612.73	3.7530	3.7529	2.6538	6.47	0.49	0.750			
0.6115	39133.27	3.7500	3.7500	2.7805	6.44	0.46	0.750			
0.6202	39695.44	3.7470	3.7470	2.8766	6.41	0.43	0.750			
0.6291	40262.58	3.7440	3.7441	2.9771	6.37	0.39	0.750			
0.6380	40830.58	3.7410	3.7407	3.0001	6.34	0.36	0.750			
0.6470	41408.23	3.7380	3.7380	3.1615	6.32	0.34	0.750			
0.6568	42038.26	3.7350	3.7350	3.2870	6.28	0.30	0.750			
0.6669	42679.57	3.7320	3.7320	3.3266	6.25	0.27	0.750			
0.6769	43319.76	3.7290	3.7290	3.2385	6.21	0.23	0.750			
0.6866	43939.45	3.7260	3.7261	3.1552	6.18	0.20	0.750			
0.6957	44527.92	3.7230	3.7230	2.9225	6.16	0.18	0.750			
0.7042	45071.52	3.7200	3.7200	2.6671	6.14	0.16	0.750			
0.7118	45555.93	3.7170	3.7170	2.3937	6.12	0.14	0.750			
0.7184	45980.67	3.7140	3.7142	2.1074	6.11	0.13	0.750			
0.7242	46346.47	3.7110	3.7110	1.8491	6.09	0.11	0.750			
0.7294	46683.13	3.7080	3.7080	1.6578	6.08	0.10	0.750			
0.7339	46969.80	3.7050	3.7050	1.4829	6.08	0.10	0.750			
0.7381	47236.55	3.7020	3.7018	1.3537	6.07	0.09	0.750			
0.7418	47474.00	3.6990	3.6991	1.2554	6.06	0.08	0.750			
0.7453	47700.35	3.6960	3.6960	1.1882	6.06	0.08	0.750			
0.7488	47920.45	3.6930	3.6928	1.1402	6.05	0.07	0.750			
0.7521	48133.89	3.6900	3.6899	1.0951	6.05	0.07	0.750			
0.7553	48338.51	3.6870	3.6871	1.0797	6.04	0.06	0.750			
0.7585	48543.76	3.6840	3.6840	1.0618	6.03	0.05	0.750			
0.7617	48746.38	3.6810	3.6808	1.0428	6.02	0.04	0.750			
0.7647	48943.16	3.6780	3.6780	1.0234	6.02	0.04	0.750			
0.7678	49139.91	3.6750	3.6751	1.0004	6.01	0.03	0.750			
0.7708	49332.48	3.6720	3.6720	0.9856	6.01	0.03	0.750			
0.7738	49520.86	3.6690	3.6689	0.9631	6.00	0.02	0.750			
0.7766	49699.62	3.6660	3.6661	0.9335	6.00	0.02	0.750			
0.7793	49875.86	3.6630	3.6628	0.9128	6.00	0.02	0.750			
0.7820	50047.30	3.6600	3.6600	0.9012	5.99	0.01	0.750			
0.7846	50216.99	3.6570	3.6570	0.8878	5.99	0.01	0.750			
0.7873	50387.94	3.6540	3.6537	0.8768	5.99	0.01	0.750			
0.7899	50556.35	3.6510	3.6512	0.8631	5.99	0.01	0.750			
0.7925	50721.85	3.6480	3.6480	0.8509	5.99	0.01	0.750			
0.7950	50882.42	3.6450	3.6450	0.8398	5.98	0.00	0.750			
0.7975	51038.81	3.6420	3.6421	0.8267	5.98	0.00	0.750			
0.8000	51198.79	3.6390	3.6387	0.8210	5.98	0.00	0.750			
0.8025	51357.90	3.6360	3.6360	0.8096	5.98	0.00	0.750			
0.8050	51516.86	3.6330	3.6331	0.7779	5.98	0.00	0.750			
0.8074	51671.07	3.6300	3.6302	0.7417	5.98	0.00	0.750			
0.8095	51810.48	3.6270	3.6269	0.6793	5.98	0.00	0.750			
0.8115	51937.25	3.6240	3.6240	0.6077	5.98	0.00	0.750			
0.8132	52047.06	3.6210	3.6210	0.5299	5.98	0.00	0.750			
0.8147	52140.92	3.6180	3.6181	0.4521	5.98	0.00	0.750			
0.8159	52215.40	3.6150	3.6152	0.3840	5.98	0.00	0.750			
0.8169	52281.76	3.6120	3.6121	0.3157	5.98	0.00	0.750			
0.8177	52332.56	3.6090	3.6090	0.2441	5.98	0.00	0.750			
0.8183	52370.55	3.6060	3.6058	0.1817	5.98	0.00	0.750			
0.8187	52399.41	3.6030	3.6027	0.1284	5.98	0.00	0.750			
0.8190	52417.29	3.6000	3.5967	0.0772	5.98	0.00	0.750			
0.8191	52419.64	3.5910	3.5932	-0.0632	5.98	0.00	0.750			
0.8192	52426.04	3.5970	3.5500	0.0299	5.98	0.00	0.757			
0.8192	52427.31	3.5940	3.5398	-0.0167	5.98	0.00	0.760			
