Ah_balance (normalized)	Ah_balance (mAh)	Voltage - fit (V)	Voltage -  interpolate (V)	dQ/dV (1/V)	Temperature (°C)	Temperature - diff (°C)	Current (C)	R_DC 0ms (mOhm)	R_DC 50ms (mOhm)	R_DC 50 ms PEC (mOhm)
0.0927	5935.81	4.1980	4.1946	0.7029	8.23	2.24	0.750	0.398	0.863	
0.0951	6086.72	4.1950	4.1974	0.8133	8.23	2.24	0.750			
0.0977	6253.87	4.1920	4.1937	0.8329	8.22	2.23	0.750			
0.1002	6414.49	4.1890	4.1898	0.8174	8.22	2.23	0.750			
0.1028	6577.35	4.1860	4.1863	0.8063	8.21	2.22	0.750			
0.1054	6745.06	4.1830	4.1824	0.8083	8.21	2.22	0.750			
0.1073	6864.04	4.1800	4.1800	0.7189	8.20	2.21	0.750			
0.1094	7002.62	4.1770	4.1770	0.7154	8.20	2.21	0.750			
0.1116	7139.80	4.1740	4.1742	0.7182	8.19	2.20	0.750			
0.1137	7279.14	4.1710	4.1709	0.7174	8.19	2.20	0.750			
0.1159	7415.66	4.1680	4.1679	0.7100	8.18	2.19	0.750			
0.1180	7550.79	4.1650	4.1651	0.7125	8.18	2.19	0.750			
0.1201	7687.72	4.1620	4.1621	0.7167	8.17	2.18	0.750			
0.1223	7826.49	4.1590	4.1589	0.7147	8.17	2.18	0.750			
0.1244	7962.56	4.1560	4.1560	0.7210	8.16	2.17	0.750			
0.1266	8099.97	4.1530	4.1531	0.7248	8.16	2.17	0.750			
0.1288	8241.65	4.1500	4.1499	0.7275	8.15	2.16	0.750			
0.1310	8382.87	4.1470	4.1470	0.7282	8.15	2.16	0.750			
0.1331	8520.53	4.1440	4.1441	0.7290	8.14	2.15	0.750			
0.1353	8661.82	4.1410	4.1410	0.7300	8.14	2.15	0.750			
0.1375	8800.51	4.1380	4.1380	0.7333	8.13	2.14	0.750			
0.1397	8941.75	4.1350	4.1350	0.7371	8.13	2.14	0.750			
0.1419	9082.20	4.1320	4.1319	0.7477	8.12	2.13	0.750			
0.1442	9229.59	4.1290	4.1289	0.7561	8.11	2.12	0.750			
0.1465	9376.56	4.1260	4.1259	0.7569	8.11	2.12	0.750			
0.1488	9521.82	4.1230	4.1230	0.7570	8.10	2.11	0.750			
0.1511	9668.06	4.1200	4.1202	0.7630	8.10	2.11	0.750			
0.1533	9813.51	4.1170	4.1169	0.7601	8.09	2.10	0.750			
0.1556	9960.74	4.1140	4.1139	0.7637	8.09	2.10	0.750			
0.1579	10105.65	4.1110	4.1111	0.7601	8.08	2.09	0.750			
0.1602	10252.38	4.1080	4.1081	0.7698	8.07	2.08	0.750			
0.1625	10402.04	4.1050	4.1049	0.7770	8.06	2.07	0.750			
0.1649	10550.49	4.1020	4.1020	0.7797	8.06	2.07	0.750			
0.1672	10700.09	4.0990	4.0990	0.7783	8.05	2.06	0.750			
0.1696	10851.22	4.0960	4.0960	0.7828	8.04	2.05	0.750			
0.1719	11002.30	4.0930	4.0930	0.7818	8.04	2.05	0.750			
0.1742	11151.07	4.0900	4.0900	0.7836	8.03	2.04	0.750			
0.1765	11299.17	4.0870	4.0871	0.7897	8.03	2.04	0.750			
0.1789	11451.96	4.0840	4.0837	0.8012	8.02	2.03	0.750			
0.1814	11608.30	4.0810	4.0810	0.8013	8.02	2.03	0.750			
0.1838	11764.72	4.0780	4.0781	0.8042	8.01	2.02	0.750			
0.1863	11921.21	4.0750	4.0751	0.8078	8.00	2.01	0.750			
0.1886	12073.56	4.0720	4.0720	0.8002	8.00	2.01	0.750			
0.1910	12227.03	4.0690	4.0689	0.8001	7.99	2.00	0.750			
0.1934	12379.87	4.0660	4.0661	0.8033	7.99	2.00	0.750			
0.1959	12535.32	4.0630	4.0630	0.8053	7.98	1.99	0.750			
0.1983	12690.39	4.0600	4.0600	0.8154	7.97	1.98	0.750			
0.2007	12846.88	4.0570	4.0571	0.8205	7.97	1.98	0.750			
0.2032	13005.39	4.0540	4.0539	0.8249	7.96	1.97	0.750			
0.2057	13164.89	4.0510	4.0511	0.8246	7.96	1.97	0.750			
0.2082	13325.46	4.0480	4.0480	0.8232	7.95	1.96	0.750			
0.2107	13482.47	4.0450	4.0451	0.8206	7.94	1.95	0.750			
0.2131	13636.89	4.0420	4.0420	0.8402	7.93	1.94	0.750			
0.2156	13796.33	4.0390	4.0391	0.8448	7.92	1.93	0.750			
0.2182	13962.25	4.0360	4.0359	0.8520	7.92	1.93	0.750			
0.2208	14130.86	4.0330	4.0330	0.8572	7.91	1.92	0.750			
0.2234	14297.62	4.0300	4.0302	0.8594	7.90	1.91	0.750			
0.2260	14462.46	4.0270	4.0270	0.8554	7.90	1.91	0.750			
0.2285	14624.54	4.0240	4.0239	0.8546	7.89	1.90	0.750			
0.2310	14785.35	4.0210	4.0210	0.8550	7.88	1.89	0.750			
0.2336	14949.67	4.0180	4.0180	0.8649	7.88	1.89	0.750			
0.2362	15116.52	4.0150	4.0151	0.8738	7.87	1.88	0.750			
0.2388	15285.98	4.0120	4.0120	0.8785	7.86	1.87	0.750			
0.2415	15458.16	4.0090	4.0088	0.8865	7.85	1.86	0.750			
0.2442	15631.32	4.0060	4.0061	0.8786	7.84	1.85	0.750			
0.2469	15798.76	4.0030	4.0031	0.8735	7.84	1.85	0.750			
0.2495	15964.82	4.0000	4.0001	0.8762	7.83	1.84	0.750			
0.2521	16133.21	3.9970	3.9970	0.8735	7.83	1.84	0.750			
0.2546	16297.23	3.9940	3.9938	0.8774	7.82	1.83	0.750			
0.2573	16466.48	3.9910	3.9911	0.8834	7.81	1.82	0.750			
0.2600	16638.23	3.9880	3.9880	0.8969	7.80	1.81	0.750			
0.2627	16812.83	3.9850	3.9850	0.9069	7.79	1.80	0.750			
0.2654	16987.10	3.9820	3.9820	0.9088	7.78	1.79	0.750			
0.2682	17162.52	3.9790	3.9790	0.9126	7.78	1.79	0.750			
0.2709	17340.35	3.9760	3.9760	0.9148	7.77	1.78	0.750			
0.2737	17513.68	3.9730	3.9731	0.9162	7.76	1.77	0.750			
0.2764	17689.51	3.9700	3.9700	0.9267	7.75	1.76	0.750			
0.2792	17866.88	3.9670	3.9668	0.9322	7.74	1.75	0.750			
0.2820	18047.85	3.9640	3.9641	0.9352	7.73	1.74	0.750			
0.2848	18227.93	3.9610	3.9609	0.9447	7.72	1.73	0.750			
0.2877	18412.17	3.9580	3.9581	0.9570	7.71	1.72	0.750			
0.2906	18595.28	3.9550	3.9550	0.9602	7.70	1.71	0.750			
0.2935	18782.09	3.9520	3.9520	0.9549	7.69	1.70	0.750			
0.2963	18964.94	3.9490	3.9492	0.9632	7.68	1.69	0.750			
0.2992	19150.31	3.9460	3.9460	0.9748	7.67	1.68	0.750			
0.3022	19338.84	3.9430	3.9429	0.9840	7.66	1.67	0.750			
0.3051	19526.41	3.9400	3.9402	0.9876	7.65	1.66	0.750			
0.3081	19717.66	3.9370	3.9370	0.9927	7.64	1.65	0.750			
0.3111	19911.61	3.9340	3.9341	1.0015	7.63	1.64	0.750			
0.3142	20106.47	3.9310	3.9310	1.0056	7.63	1.64	0.750			
0.3171	20295.77	3.9280	3.9283	1.0092	7.62	1.63	0.750			
0.3201	20488.08	3.9250	3.9250	1.0244	7.61	1.62	0.750			
0.3232	20685.44	3.9220	3.9220	1.0383	7.59	1.60	0.750			
0.3264	20887.81	3.9190	3.9189	1.0519	7.58	1.59	0.750			
0.3296	21097.11	3.9160	3.9160	1.0626	7.57	1.58	0.750			
0.3328	21299.78	3.9130	3.9132	1.0683	7.56	1.57	0.750			
0.3360	21504.73	3.9100	3.9100	1.0775	7.54	1.55	0.750			
0.3392	21709.09	3.9070	3.9070	1.0870	7.53	1.54	0.750			
0.3424	21916.27	3.9040	3.9039	1.0896	7.52	1.53	0.750			
0.3457	22126.62	3.9010	3.9011	1.1183	7.50	1.51	0.750			
0.3492	22348.53	3.8980	3.8980	1.1340	7.49	1.50	0.750			
0.3526	22569.07	3.8950	3.8950	1.1415	7.48	1.49	0.750			
0.3561	22787.31	3.8920	3.8922	1.1463	7.46	1.47	0.750			
0.3595	23007.25	3.8890	3.8889	1.1530	7.45	1.46	0.750			
0.3629	23226.72	3.8860	3.8861	1.1768	7.44	1.45	0.750			
0.3665	23454.82	3.8830	3.8828	1.1883	7.43	1.44	0.750			
0.3701	23684.40	3.8800	3.8800	1.2043	7.42	1.43	0.750			
0.3738	23920.77	3.8770	3.8771	1.2255	7.40	1.41	0.750			
0.3775	24161.27	3.8740	3.8741	1.2360	7.39	1.40	0.750			
0.3812	24395.75	3.8710	3.8711	1.2456	7.37	1.38	0.750			
0.3850	24637.33	3.8680	3.8679	1.2506	7.36	1.37	0.750			
0.3886	24872.55	3.8650	3.8651	1.2745	7.34	1.35	0.750			
0.3925	25118.80	3.8620	3.8619	1.3054	7.33	1.34	0.750			
0.3964	25369.74	3.8590	3.8591	1.3319	7.31	1.32	0.750	0.395	0.900	
0.4005	25631.68	3.8560	3.8561	1.3616	7.30	1.31	0.750			
0.4046	25896.84	3.8530	3.8528	1.3940	7.28	1.29	0.750			
0.4089	26169.27	3.8500	3.8502	1.4174	7.26	1.27	0.750			
0.4132	26446.27	3.8470	3.8471	1.4410	7.24	1.25	0.750			
0.4175	26719.26	3.8440	3.8440	1.4642	7.23	1.24	0.750			
0.4219	27000.83	3.8410	3.8411	1.4966	7.21	1.22	0.750			
0.4265	27294.68	3.8380	3.8377	1.5131	7.18	1.19	0.750			
0.4311	27589.52	3.8350	3.8348	1.5240	7.16	1.17	0.750			
0.4357	27884.46	3.8320	3.8323	1.5514	7.14	1.15	0.750			
0.4404	28184.61	3.8290	3.8290	1.5826	7.12	1.13	0.750			
0.4451	28485.37	3.8260	3.8260	1.5983	7.10	1.11	0.750			
0.4499	28791.84	3.8230	3.8229	1.6104	7.08	1.09	0.750			
0.4548	29107.73	3.8200	3.8199	1.6600	7.06	1.07	0.750			
0.4599	29435.60	3.8170	3.8170	1.7100	7.04	1.05	0.750			
0.4651	29766.18	3.8140	3.8140	1.7413	7.02	1.03	0.750			
0.4703	30098.89	3.8110	3.8112	1.7906	6.99	1.00	0.750			
0.4758	30452.40	3.8080	3.8080	1.8195	6.97	0.98	0.750			
0.4815	30813.92	3.8050	3.8049	1.8367	6.94	0.95	0.750			
0.4870	31170.11	3.8020	3.8021	1.8615	6.92	0.93	0.750			
0.4926	31525.77	3.7990	3.7989	1.8993	6.90	0.91	0.750			
0.4982	31885.54	3.7960	3.7960	1.9326	6.87	0.88	0.750			
0.5041	32262.88	3.7930	3.7930	1.9791	6.84	0.85	0.750			
0.5102	32654.47	3.7900	3.7901	2.0288	6.81	0.82	0.750			
0.5165	33055.54	3.7870	3.7870	2.0401	6.78	0.79	0.750			
0.5225	33442.00	3.7840	3.7840	2.0442	6.76	0.77	0.750			
0.5286	33827.95	3.7810	3.7810	2.0687	6.73	0.74	0.750			
0.5348	34225.90	3.7780	3.7778	2.1095	6.71	0.72	0.750			
0.5412	34636.98	3.7750	3.7750	2.1944	6.68	0.69	0.750			
0.5479	35065.47	3.7720	3.7721	2.2484	6.65	0.66	0.750			
0.5549	35511.83	3.7690	3.7689	2.2453	6.62	0.63	0.750			
0.5616	35941.59	3.7660	3.7661	2.2634	6.59	0.60	0.750			
0.5683	36368.93	3.7630	3.7631	2.3290	6.56	0.57	0.750			
0.5753	36816.04	3.7600	3.7599	2.3511	6.54	0.55	0.750			
0.5824	37275.92	3.7570	3.7570	2.4405	6.51	0.52	0.750			
0.5900	37761.92	3.7540	3.7539	2.5517	6.48	0.49	0.750			
0.5977	38251.57	3.7510	3.7509	2.5970	6.45	0.46	0.750			
0.6055	38753.68	3.7480	3.7481	2.7255	6.42	0.43	0.750			
0.6141	39300.05	3.7450	3.7450	2.9058	6.38	0.39	0.750			
0.6230	39870.22	3.7420	3.7420	3.0283	6.35	0.36	0.750			
0.6323	40468.96	3.7390	3.7390	3.1351	6.32	0.33	0.750			
0.6418	41076.71	3.7360	3.7360	3.1317	6.28	0.29	0.750			
0.6512	41679.43	3.7330	3.7332	3.1419	6.25	0.26	0.750			
0.6608	42293.27	3.7300	3.7299	3.0960	6.22	0.23	0.750			
0.6700	42880.66	3.7270	3.7271	2.8409	6.20	0.21	0.750			
0.6782	43406.47	3.7240	3.7241	2.5997	6.17	0.18	0.750			
0.6854	43865.20	3.7210	3.7209	2.2776	6.16	0.17	0.750			
0.6917	44267.39	3.7180	3.7178	2.0168	6.14	0.15	0.750			
0.6973	44630.07	3.7150	3.7150	1.8083	6.13	0.14	0.750			
0.7026	44964.50	3.7120	3.7121	1.6352	6.12	0.13	0.750			
0.7070	45246.92	3.7090	3.7091	1.4742	6.11	0.12	0.750			
0.7110	45504.96	3.7060	3.7060	1.3410	6.10	0.11	0.750			
0.7148	45747.92	3.7030	3.7030	1.2698	6.09	0.10	0.750			
0.7184	45979.53	3.7000	3.7000	1.1980	6.09	0.10	0.750			
0.7218	46198.10	3.6970	3.6970	1.1481	6.08	0.09	0.750			
0.7252	46413.30	3.6940	3.6940	1.1172	6.08	0.09	0.750			
0.7285	46624.73	3.6910	3.6909	1.0950	6.07	0.08	0.750			
0.7318	46832.73	3.6880	3.6878	1.0544	6.06	0.07	0.750			
0.7349	47032.85	3.6850	3.6851	1.0337	6.06	0.07	0.750			
0.7379	47227.69	3.6820	3.6821	1.0097	6.05	0.06	0.750			
0.7409	47420.66	3.6790	3.6790	0.9918	6.04	0.05	0.750			
0.7439	47607.56	3.6760	3.6760	0.9682	6.04	0.05	0.750			
0.7467	47788.93	3.6730	3.6730	0.9458	6.03	0.04	0.750			
0.7495	47968.48	3.6700	3.6700	0.9399	6.03	0.04	0.750			
0.7524	48151.01	3.6670	3.6671	0.9310	6.02	0.03	0.750			
0.7551	48325.30	3.6640	3.6638	0.9206	6.02	0.03	0.750			
0.7578	48501.83	3.6610	3.6611	0.9092	6.01	0.02	0.750			
0.7606	48675.72	3.6580	3.6579	0.8970	6.01	0.02	0.750			
0.7632	48846.10	3.6550	3.6551	0.8907	6.01	0.02	0.750			
0.7659	49016.03	3.6520	3.6520	0.8843	6.00	0.01	0.750			
0.7685	49180.91	3.6490	3.6490	0.8906	6.00	0.01	0.750			
0.7711	49350.86	3.6460	3.6460	0.9026	6.00	0.01	0.750			
0.7738	49524.30	3.6430	3.6430	0.9175	5.99	0.00	0.750			
0.7766	49705.34	3.6400	3.6399	0.9355	5.99	0.00	0.750			
0.7795	49890.74	3.6370	3.6371	0.9370	5.99	0.00	0.750			
0.7825	50079.42	3.6340	3.6340	0.8895	5.99	0.00	0.750			
0.7853	50258.38	3.6310	3.6309	0.8305	5.99	0.00	0.750			
0.7877	50413.46	3.6280	3.6282	0.7306	5.99	0.00	0.750			
0.7898	50546.26	3.6250	3.6250	0.6228	5.99	0.00	0.750			
0.7914	50651.30	3.6220	3.6219	0.5108	5.99	0.00	0.750			
0.7926	50725.81	3.6190	3.6194	0.4131	5.99	0.00	0.750			
0.7937	50796.16	3.6160	3.6162	0.3340	5.99	0.00	0.750			
0.7946	50851.52	3.6130	3.6127	0.2645	5.99	0.00	0.750			
0.7952	50890.26	3.6100	3.6093	0.1943	5.99	0.00	0.750			
0.7956	50915.55	3.6070	3.6048	0.1316	5.99	0.00	0.750			
0.7957	50925.52	3.5920	3.5942	-0.0985	5.99	0.00	0.750			
0.7958	50932.38	3.6040	3.5302	0.0807	5.99	0.00	0.745			
0.7959	50940.14	3.5950	3.4475	-0.0537	5.99	0.00	0.737			
0.7960	50943.57	3.6010	3.4109	0.0359	5.99	0.00	0.733			
0.7960	50946.16	3.5980	3.3833	-0.0089	5.99	0.00	0.731			
