Ah_balance (normalized)	Ah_balance (mAh)	Voltage - fit (V)	Voltage -  interpolate (V)	dQ/dV (1/V)	Temperature (°C)	Temperature - diff (°C)	Current (C)	R_DC 0ms (mOhm)	R_DC 50ms (mOhm)	R_DC 50 ms PEC (mOhm)
0.0998	6384.01	4.1970	4.1995	0.5961	8.12	2.13	0.750			
0.1018	6513.75	4.1940	4.1965	0.7129	8.11	2.12	0.750			
0.1042	6666.14	4.1910	4.1932	0.7807	8.11	2.12	0.750			
0.1067	6827.44	4.1880	4.1895	0.7910	8.10	2.11	0.750			
0.1091	6984.75	4.1850	4.1860	0.7989	8.09	2.10	0.750			
0.1116	7141.18	4.1820	4.1826	0.7699	8.09	2.10	0.750			
0.1140	7296.82	4.1790	4.1789	0.7023	8.08	2.09	0.750			
0.1161	7431.79	4.1760	4.1761	0.7023	8.07	2.08	0.750			
0.1183	7568.12	4.1730	4.1731	0.7023	8.07	2.08	0.750			
0.1203	7700.51	4.1700	4.1700	0.7054	8.06	2.07	0.750			
0.1224	7835.24	4.1670	4.1670	0.7131	8.05	2.06	0.750			
0.1246	7971.49	4.1640	4.1639	0.7119	8.05	2.06	0.750			
0.1267	8108.93	4.1610	4.1609	0.7241	8.04	2.05	0.750			
0.1289	8250.50	4.1580	4.1581	0.7265	8.04	2.05	0.750			
0.1311	8390.01	4.1550	4.1550	0.7336	8.03	2.04	0.750			
0.1333	8532.62	4.1520	4.1520	0.7354	8.03	2.04	0.750			
0.1355	8672.95	4.1490	4.1488	0.7375	8.02	2.03	0.750			
0.1377	8813.26	4.1460	4.1462	0.7430	8.01	2.02	0.750			
0.1400	8959.79	4.1430	4.1429	0.7381	8.01	2.02	0.750			
0.1422	9100.60	4.1400	4.1400	0.7336	8.00	2.01	0.750			
0.1444	9242.13	4.1370	4.1371	0.7265	7.99	2.00	0.750			
0.1466	9379.50	4.1340	4.1341	0.7266	7.98	1.99	0.750			
0.1487	9518.55	4.1310	4.1309	0.7326	7.98	1.99	0.750			
0.1509	9658.17	4.1280	4.1280	0.7358	7.98	1.99	0.750			
0.1531	9799.54	4.1250	4.1250	0.7366	7.97	1.98	0.750			
0.1554	9943.76	4.1220	4.1220	0.7482	7.97	1.98	0.750			
0.1576	10087.79	4.1190	4.1191	0.7538	7.96	1.97	0.750			
0.1599	10232.72	4.1160	4.1158	0.7600	7.96	1.97	0.750			
0.1621	10377.54	4.1130	4.1131	0.7653	7.95	1.96	0.750			
0.1645	10525.58	4.1100	4.1100	0.7648	7.95	1.96	0.750			
0.1668	10675.37	4.1070	4.1068	0.7637	7.94	1.95	0.750			
0.1691	10824.17	4.1040	4.1041	0.7684	7.93	1.94	0.750			
0.1714	10968.69	4.1010	4.1011	0.7665	7.93	1.94	0.750			
0.1737	11116.15	4.0980	4.0979	0.7656	7.92	1.93	0.750			
0.1760	11263.24	4.0950	4.0950	0.7673	7.91	1.92	0.750			
0.1782	11407.45	4.0920	4.0920	0.7702	7.91	1.92	0.750			
0.1806	11555.31	4.0890	4.0892	0.7859	7.90	1.91	0.750			
0.1830	11708.85	4.0860	4.0859	0.7963	7.90	1.91	0.750			
0.1854	11863.33	4.0830	4.0827	0.7927	7.89	1.90	0.750			
0.1878	12016.34	4.0800	4.0802	0.7978	7.88	1.89	0.750			
0.1902	12171.68	4.0770	4.0772	0.8008	7.88	1.89	0.750			
0.1926	12324.76	4.0740	4.0740	0.8059	7.87	1.88	0.750			
0.1949	12476.24	4.0710	4.0709	0.8001	7.87	1.88	0.750			
0.1974	12631.25	4.0680	4.0680	0.8068	7.86	1.87	0.750			
0.1998	12787.85	4.0650	4.0650	0.8202	7.86	1.87	0.750			
0.2023	12946.19	4.0620	4.0621	0.8317	7.85	1.86	0.750			
0.2048	13106.41	4.0590	4.0590	0.8372	7.84	1.85	0.750			
0.2073	13269.24	4.0560	4.0559	0.8389	7.84	1.85	0.750			
0.2099	13431.84	4.0530	4.0529	0.8366	7.83	1.84	0.750			
0.2124	13592.61	4.0500	4.0502	0.8403	7.83	1.84	0.750			
0.2149	13755.50	4.0470	4.0470	0.8299	7.82	1.83	0.750			
0.2174	13911.64	4.0440	4.0440	0.8292	7.81	1.82	0.750			
0.2198	14069.33	4.0410	4.0409	0.8321	7.81	1.82	0.750			
0.2223	14229.02	4.0380	4.0381	0.8325	7.80	1.81	0.750			
0.2248	14389.58	4.0350	4.0350	0.8356	7.79	1.80	0.750			
0.2274	14550.70	4.0320	4.0321	0.8450	7.78	1.79	0.750			
0.2299	14712.16	4.0290	4.0290	0.8513	7.77	1.78	0.750			
0.2324	14874.94	4.0260	4.0260	0.8583	7.76	1.77	0.750			
0.2350	15040.90	4.0230	4.0229	0.8734	7.75	1.76	0.750			
0.2377	15210.87	4.0200	4.0200	0.8799	7.74	1.75	0.750			
0.2404	15383.61	4.0170	4.0170	0.8862	7.74	1.75	0.750			
0.2431	15556.66	4.0140	4.0140	0.8854	7.73	1.74	0.750			
0.2457	15725.23	4.0110	4.0111	0.8800	7.73	1.74	0.750			
0.2483	15891.23	4.0080	4.0082	0.8812	7.72	1.73	0.750			
0.2509	16059.40	4.0050	4.0050	0.8832	7.71	1.72	0.750			
0.2536	16227.81	4.0020	4.0019	0.8846	7.71	1.72	0.750			
0.2562	16399.01	3.9990	3.9990	0.8963	7.70	1.71	0.750			
0.2590	16574.42	3.9960	3.9960	0.9019	7.69	1.70	0.750			
0.2617	16748.10	3.9930	3.9931	0.9048	7.69	1.70	0.750			
0.2644	16923.45	3.9900	3.9899	0.8973	7.68	1.69	0.750			
0.2671	17093.81	3.9870	3.9871	0.8961	7.67	1.68	0.750			
0.2697	17262.79	3.9840	3.9840	0.9053	7.66	1.67	0.750			
0.2725	17436.92	3.9810	3.9809	0.9126	7.65	1.66	0.750			
0.2752	17613.99	3.9780	3.9779	0.9141	7.64	1.65	0.750			
0.2780	17790.27	3.9750	3.9751	0.9316	7.64	1.65	0.750			
0.2808	17970.72	3.9720	3.9721	0.9470	7.63	1.64	0.750			
0.2837	18155.00	3.9690	3.9690	0.9629	7.62	1.63	0.750			
0.2866	18340.56	3.9660	3.9661	0.9583	7.62	1.63	0.750			
0.2895	18525.18	3.9630	3.9631	0.9650	7.61	1.62	0.750			
0.2924	18713.17	3.9600	3.9600	0.9759	7.60	1.61	0.750			
0.2953	18900.99	3.9570	3.9570	0.9790	7.59	1.60	0.750			
0.2982	19087.35	3.9540	3.9539	0.9763	7.58	1.59	0.750			
0.3012	19274.69	3.9510	3.9510	0.9801	7.57	1.58	0.750			
0.3041	19464.71	3.9480	3.9481	0.9864	7.56	1.57	0.750			
0.3071	19655.81	3.9450	3.9450	0.9958	7.54	1.55	0.750			
0.3101	19845.89	3.9420	3.9419	0.9971	7.53	1.54	0.750			
0.3131	20037.64	3.9390	3.9391	0.9990	7.52	1.53	0.750			
0.3161	20229.54	3.9360	3.9360	1.0108	7.51	1.52	0.750			
0.3191	20424.43	3.9330	3.9330	1.0226	7.50	1.51	0.750			
0.3222	20620.48	3.9300	3.9299	1.0367	7.49	1.50	0.750			
0.3253	20821.16	3.9270	3.9270	1.0501	7.48	1.49	0.750			
0.3285	21024.48	3.9240	3.9241	1.0597	7.47	1.48	0.750			
0.3317	21230.69	3.9210	3.9209	1.0751	7.46	1.47	0.750			
0.3350	21439.20	3.9180	3.9179	1.0843	7.45	1.46	0.750			
0.3382	21645.44	3.9150	3.9150	1.0862	7.44	1.45	0.750			
0.3415	21854.97	3.9120	3.9120	1.0968	7.43	1.44	0.750			
0.3448	22066.99	3.9090	3.9091	1.1021	7.41	1.42	0.750			
0.3481	22280.35	3.9060	3.9058	1.1100	7.40	1.41	0.750			
0.3515	22493.49	3.9030	3.9030	1.1214	7.39	1.40	0.750			
0.3548	22707.46	3.9000	3.9000	1.1401	7.38	1.39	0.750			
0.3582	22925.25	3.8970	3.8969	1.1642	7.38	1.39	0.750			
0.3617	23150.67	3.8940	3.8939	1.1767	7.37	1.38	0.750			
0.3654	23385.55	3.8910	3.8910	1.1900	7.35	1.36	0.750			
0.3690	23613.79	3.8880	3.8881	1.2084	7.34	1.35	0.750			
0.3726	23847.11	3.8850	3.8850	1.2163	7.32	1.33	0.750			
0.3762	24077.76	3.8820	3.8816	1.2317	7.31	1.32	0.750	0.369	0.813	
0.3799	24314.49	3.8790	3.8791	1.2474	7.30	1.31	0.750			
0.3837	24558.45	3.8760	3.8759	1.2563	7.29	1.30	0.750			
0.3875	24800.93	3.8730	3.8730	1.2831	7.27	1.28	0.750			
0.3914	25048.32	3.8700	3.8702	1.3071	7.26	1.27	0.750			
0.3954	25305.85	3.8670	3.8671	1.3067	7.24	1.25	0.750			
0.3994	25562.22	3.8640	3.8638	1.3164	7.22	1.23	0.750			
0.4034	25814.63	3.8610	3.8612	1.3134	7.21	1.22	0.750			
0.4073	26064.29	3.8580	3.8582	1.3417	7.19	1.20	0.750			
0.4112	26318.88	3.8550	3.8548	1.3803	7.18	1.19	0.750			
0.4154	26585.55	3.8520	3.8519	1.4021	7.16	1.17	0.750			
0.4197	26859.02	3.8490	3.8491	1.4339	7.14	1.15	0.750			
0.4241	27145.56	3.8460	3.8463	1.4781	7.13	1.14	0.750			
0.4287	27436.97	3.8430	3.8431	1.4988	7.11	1.12	0.750			
0.4332	27726.94	3.8400	3.8398	1.5044	7.09	1.10	0.750			
0.4377	28011.78	3.8370	3.8371	1.4980	7.07	1.08	0.750			
0.4422	28300.19	3.8340	3.8341	1.5048	7.05	1.06	0.750			
0.4467	28589.03	3.8310	3.8310	1.5241	7.03	1.04	0.750			
0.4513	28882.08	3.8280	3.8278	1.5290	7.01	1.02	0.750			
0.4559	29178.08	3.8250	3.8251	1.5632	6.99	1.00	0.750			
0.4607	29484.49	3.8220	3.8219	1.5828	6.97	0.98	0.750			
0.4655	29794.68	3.8190	3.8189	1.5904	6.95	0.96	0.750			
0.4704	30104.58	3.8160	3.8161	1.6040	6.92	0.93	0.750			
0.4752	30412.32	3.8130	3.8131	1.6174	6.90	0.91	0.750			
0.4800	30722.70	3.8100	3.8102	1.6397	6.88	0.89	0.750			
0.4849	31034.42	3.8070	3.8070	1.6710	6.85	0.86	0.750			
0.4900	31359.09	3.8040	3.8037	1.6926	6.83	0.84	0.750			
0.4952	31689.83	3.8010	3.8012	1.7350	6.81	0.82	0.750			
0.5005	32029.13	3.7980	3.7981	1.7585	6.79	0.80	0.750			
0.5057	32367.13	3.7950	3.7950	1.7616	6.77	0.78	0.750			
0.5110	32706.39	3.7920	3.7918	1.7783	6.75	0.76	0.750			
0.5164	33046.68	3.7890	3.7889	1.8110	6.72	0.73	0.750			
0.5217	33388.90	3.7860	3.7860	1.8695	6.70	0.71	0.750			
0.5274	33755.20	3.7830	3.7830	1.9106	6.67	0.68	0.750			
0.5333	34129.23	3.7800	3.7799	1.9412	6.64	0.65	0.750			
0.5392	34508.33	3.7770	3.7772	1.9934	6.62	0.63	0.750			
0.5452	34893.09	3.7740	3.7739	2.0612	6.59	0.60	0.750			
0.5514	35287.61	3.7710	3.7708	2.1978	6.56	0.57	0.750			
0.5581	35717.05	3.7680	3.7680	2.2378	6.53	0.54	0.750			
0.5651	36165.97	3.7650	3.7651	2.3763	6.51	0.52	0.750			
0.5724	36632.93	3.7620	3.7618	2.4836	6.48	0.49	0.750			
0.5799	37111.98	3.7590	3.7591	2.6028	6.45	0.46	0.750			
0.5879	37625.19	3.7560	3.7560	2.7264	6.42	0.43	0.750			
0.5965	38175.35	3.7530	3.7530	2.8270	6.38	0.39	0.750			
0.6051	38727.11	3.7500	3.7500	2.8636	6.34	0.35	0.750			
0.6135	39266.61	3.7470	3.7473	2.9328	6.31	0.32	0.750			
0.6226	39845.29	3.7440	3.7439	3.0272	6.28	0.29	0.750			
0.6320	40445.22	3.7410	3.7411	2.8982	6.25	0.26	0.750			
0.6407	41002.93	3.7380	3.7381	2.7180	6.22	0.23	0.750			
0.6480	41475.11	3.7350	3.7350	2.3154	6.20	0.21	0.750			
0.6545	41886.18	3.7320	3.7319	2.0309	6.18	0.19	0.750			
0.6601	42245.84	3.7290	3.7292	1.8013	6.17	0.18	0.750			
0.6651	42567.61	3.7260	3.7261	1.5978	6.16	0.17	0.750			
0.6693	42836.80	3.7230	3.7230	1.4313	6.14	0.15	0.750			
0.6733	43088.33	3.7200	3.7199	1.2993	6.13	0.14	0.750			
0.6769	43321.57	3.7170	3.7171	1.2324	6.12	0.13	0.750			
0.6804	43545.39	3.7140	3.7140	1.1758	6.11	0.12	0.750			
0.6838	43764.31	3.7110	3.7109	1.1380	6.10	0.11	0.750			
0.6872	43980.37	3.7080	3.7080	1.1023	6.09	0.10	0.750			
0.6905	44189.98	3.7050	3.7050	1.0849	6.08	0.09	0.750			
0.6937	44393.67	3.7020	3.7021	1.0634	6.07	0.08	0.750			
0.6968	44597.51	3.6990	3.6988	1.0425	6.06	0.07	0.750			
0.6999	44794.23	3.6960	3.6960	1.0065	6.06	0.07	0.750			
0.7029	44985.14	3.6930	3.6932	0.9895	6.05	0.06	0.750			
0.7058	45172.43	3.6900	3.6901	0.9732	6.04	0.05	0.750			
0.7087	45357.64	3.6870	3.6870	0.9603	6.03	0.04	0.750			
0.7115	45537.77	3.6840	3.6839	0.9388	6.03	0.04	0.750			
0.7143	45716.47	3.6810	3.6810	0.9244	6.02	0.03	0.750			
0.7171	45894.33	3.6780	3.6781	0.9190	6.02	0.03	0.750			
0.7199	46071.22	3.6750	3.6750	0.9081	6.02	0.03	0.750			
0.7225	46242.79	3.6720	3.6717	0.8922	6.01	0.02	0.750			
0.7252	46411.29	3.6690	3.6691	0.8821	6.01	0.02	0.750			
0.7278	46579.52	3.6660	3.6661	0.8798	6.00	0.01	0.750			
0.7305	46749.41	3.6630	3.6629	0.8798	6.00	0.01	0.750			
0.7331	46918.70	3.6600	3.6599	0.8711	5.99	0.00	0.750			
0.7357	47084.55	3.6570	3.6570	0.8573	5.99	0.00	0.750			
0.7383	47252.33	3.6540	3.6540	0.8323	5.99	0.00	0.750			
0.7409	47415.94	3.6510	3.6509	0.7975	5.99	0.00	0.750			
0.7433	47568.68	3.6480	3.6480	0.7343	5.99	0.00	0.750			
0.7454	47706.27	3.6450	3.6450	0.6595	5.99	0.00	0.750			
0.7473	47829.20	3.6420	3.6420	0.5756	5.99	0.00	0.750			
0.7489	47931.14	3.6390	3.6390	0.4853	5.99	0.00	0.750			
0.7500	48000.90	3.6360	3.6366	0.4127	5.99	0.00	0.750			
0.7511	48073.32	3.6330	3.6332	0.3467	5.99	0.00	0.750			
0.7520	48128.87	3.6300	3.6299	0.2728	5.99	0.00	0.750			
0.7527	48172.27	3.6270	3.6261	0.2162	5.99	0.00	0.750			
0.7531	48201.23	3.6240	3.6210	0.1603	5.99	0.00	0.750			
0.7534	48215.87	3.6000	3.5844	-0.1209	5.99	0.00	0.750			
0.7535	48224.16	3.6210	3.4662	0.1179	5.99	0.00	0.761			
0.7537	48235.87	3.6030	3.2985	-0.0874	5.99	0.00	0.777			
0.7537	48239.44	3.6180	3.2474	0.0800	5.99	0.00	0.782			
0.7539	48249.44	3.6060	3.1041	-0.0539	5.99	0.00	0.796			
0.7539	48251.58	3.6150	3.0735	0.0465	5.99	0.00	0.799			
0.7540	48256.58	3.6090	3.0018	-0.0205	5.99	0.00	0.806			
0.7540	48257.29	3.6120	2.9916	0.0130	5.99	0.00	0.807			
