Ah_balance (normalized)	Ah_balance (mAh)	Voltage - fit (V)	Voltage -  interpolate (V)	dQ/dV (1/V)	Temperature (°C)	Temperature - diff (°C)	Current (C)	R_DC 0ms (mOhm)	R_DC 50ms (mOhm)	R_DC 50 ms PEC (mOhm)
0.0004	23.17	4.1090	4.1085	-0.0884	6.00	0.00	-0.750			
0.0007	43.46	4.1060	4.1057	-0.1172	6.00	0.00	-0.750			
0.0011	68.48	4.1030	4.1029	-0.1434	6.00	0.00	-0.750			
0.0015	98.94	4.1000	4.1001	-0.1675	6.00	0.00	-0.750			
0.0021	133.65	4.0970	4.0970	-0.1898	6.00	0.00	-0.750			
0.0027	173.75	4.0940	4.0941	-0.2131	6.00	0.00	-0.750			
0.0034	216.09	4.0910	4.0910	-0.2349	6.00	0.00	-0.750			
0.0041	262.74	4.0880	4.0880	-0.2567	6.00	0.00	-0.750			
0.0049	314.01	4.0850	4.0850	-0.2788	6.00	0.00	-0.750			
0.0058	369.42	4.0820	4.0819	-0.3018	6.00	0.00	-0.750			
0.0067	429.72	4.0790	4.0791	-0.3266	6.00	0.00	-0.750			
0.0077	494.91	4.0760	4.0760	-0.3506	6.00	0.00	-0.750			
0.0088	564.22	4.0730	4.0730	-0.3766	6.00	0.00	-0.750			
0.0100	638.96	4.0700	4.0700	-0.3999	6.00	0.00	-0.750			
0.0112	718.38	4.0670	4.0670	-0.4238	6.00	0.00	-0.750			
0.0125	802.24	4.0640	4.0641	-0.4483	6.00	0.00	-0.750			
0.0139	890.23	4.0610	4.0610	-0.4722	6.00	0.00	-0.750			
0.0154	983.32	4.0580	4.0578	-0.4961	6.00	0.00	-0.750			
0.0169	1080.47	4.0550	4.0551	-0.5222	6.00	0.00	-0.750			
0.0185	1183.69	4.0520	4.0520	-0.5411	6.00	0.00	-0.750			
0.0202	1291.65	4.0490	4.0490	-0.5627	6.00	0.00	-0.750			
0.0219	1401.74	4.0460	4.0460	-0.5786	6.00	0.00	-0.750			
0.0237	1515.06	4.0430	4.0430	-0.5925	6.01	0.01	-0.750			
0.0255	1630.79	4.0400	4.0400	-0.6041	6.01	0.01	-0.750			
0.0273	1747.33	4.0370	4.0369	-0.6178	6.01	0.01	-0.750			
0.0292	1866.24	4.0340	4.0342	-0.6315	6.01	0.01	-0.750			
0.0311	1990.20	4.0310	4.0308	-0.6495	6.01	0.01	-0.750			
0.0331	2116.07	4.0280	4.0280	-0.6622	6.02	0.02	-0.750			
0.0351	2244.88	4.0250	4.0250	-0.6745	6.02	0.02	-0.750			
0.0371	2375.55	4.0220	4.0222	-0.6873	6.03	0.03	-0.750			
0.0392	2510.26	4.0190	4.0189	-0.7010	6.03	0.03	-0.750			
0.0413	2646.10	4.0160	4.0157	-0.7062	6.04	0.04	-0.750			
0.0435	2781.96	4.0130	4.0130	-0.7153	6.04	0.04	-0.750			
0.0456	2921.58	4.0100	4.0101	-0.7183	6.05	0.05	-0.750			
0.0478	3061.97	4.0070	4.0069	-0.7269	6.05	0.05	-0.750			
0.0500	3200.75	4.0040	4.0040	-0.7250	6.05	0.05	-0.750			
0.0522	3342.15	4.0010	4.0011	-0.7248	6.06	0.06	-0.750			
0.0544	3481.15	3.9980	3.9982	-0.7215	6.06	0.06	-0.750			
0.0566	3619.20	3.9950	3.9950	-0.7316	6.06	0.06	-0.750			
0.0587	3759.18	3.9920	3.9920	-0.7279	6.07	0.07	-0.750			
0.0609	3900.11	3.9890	3.9888	-0.7365	6.07	0.07	-0.750			
0.0631	4040.14	3.9860	3.9862	-0.7384	6.07	0.07	-0.750			
0.0654	4184.79	3.9830	3.9829	-0.7425	6.08	0.08	-0.750			
0.0676	4327.57	3.9800	3.9801	-0.7512	6.08	0.08	-0.750			
0.0699	4472.01	3.9770	3.9769	-0.7537	6.09	0.09	-0.750			
0.0721	4615.73	3.9740	3.9740	-0.7578	6.10	0.10	-0.750			
0.0745	4765.95	3.9710	3.9710	-0.7607	6.10	0.10	-0.750			
0.0767	4911.51	3.9680	3.9680	-0.7582	6.11	0.11	-0.750			
0.0790	5057.02	3.9650	3.9651	-0.7571	6.12	0.12	-0.750			
0.0813	5201.05	3.9620	3.9620	-0.7652	6.12	0.12	-0.750			
0.0835	5344.89	3.9590	3.9589	-0.7732	6.13	0.13	-0.750			
0.0859	5495.19	3.9560	3.9559	-0.7770	6.14	0.14	-0.750			
0.0882	5645.77	3.9530	3.9531	-0.7809	6.14	0.14	-0.750			
0.0906	5801.02	3.9500	3.9499	-0.7907	6.15	0.15	-0.750			
0.0930	5952.68	3.9470	3.9471	-0.7861	6.15	0.15	-0.750			
0.0953	6102.25	3.9440	3.9439	-0.7798	6.16	0.16	-0.750			
0.0977	6250.13	3.9410	3.9410	-0.7720	6.16	0.16	-0.750			
0.0999	6395.66	3.9380	3.9381	-0.7709	6.17	0.17	-0.750			
0.1023	6545.25	3.9350	3.9350	-0.7770	6.17	0.17	-0.750			
0.1046	6693.59	3.9320	3.9320	-0.7835	6.18	0.18	-0.750			
0.1069	6844.77	3.9290	3.9289	-0.7822	6.19	0.19	-0.750			
0.1093	6995.09	3.9260	3.9261	-0.7939	6.19	0.19	-0.750			
0.1117	7150.38	3.9230	3.9230	-0.7963	6.20	0.20	-0.750			
0.1141	7305.03	3.9200	3.9198	-0.7945	6.20	0.20	-0.750			
0.1165	7456.37	3.9170	3.9171	-0.7895	6.21	0.21	-0.750			
0.1188	7606.19	3.9140	3.9141	-0.7873	6.21	0.21	-0.750			
0.1212	7755.71	3.9110	3.9107	-0.7914	6.22	0.22	-0.750			
0.1236	7907.99	3.9080	3.9081	-0.8032	6.23	0.23	-0.750			
0.1259	8060.07	3.9050	3.9050	-0.8051	6.23	0.23	-0.750			
0.1284	8220.44	3.9020	3.9018	-0.8131	6.24	0.24	-0.750			
0.1309	8377.73	3.8990	3.8991	-0.8121	6.24	0.24	-0.750			
0.1333	8530.15	3.8960	3.8961	-0.8225	6.25	0.25	-0.750			
0.1358	8689.93	3.8930	3.8928	-0.8207	6.26	0.26	-0.750			
0.1382	8845.66	3.8900	3.8899	-0.8226	6.27	0.27	-0.750			
0.1407	9005.70	3.8870	3.8869	-0.8240	6.28	0.28	-0.750			
0.1432	9167.06	3.8840	3.8839	-0.8296	6.28	0.28	-0.750			
0.1457	9326.82	3.8810	3.8809	-0.8292	6.29	0.29	-0.750			
0.1482	9484.48	3.8780	3.8781	-0.8210	6.30	0.30	-0.750			
0.1506	9637.99	3.8750	3.8750	-0.8155	6.31	0.31	-0.750			
0.1531	9796.97	3.8720	3.8721	-0.8303	6.32	0.32	-0.750			
0.1555	9954.30	3.8690	3.8688	-0.8296	6.33	0.33	-0.750			
0.1580	10114.85	3.8660	3.8660	-0.8368	6.34	0.34	-0.750			
0.1606	10278.87	3.8630	3.8631	-0.8354	6.34	0.34	-0.750			
0.1631	10440.92	3.8600	3.8600	-0.8398	6.35	0.35	-0.750			
0.1657	10602.87	3.8570	3.8569	-0.8375	6.36	0.36	-0.750			
0.1681	10760.05	3.8540	3.8540	-0.8285	6.36	0.36	-0.750			
0.1706	10917.15	3.8510	3.8510	-0.8303	6.37	0.37	-0.750			
0.1731	11076.45	3.8480	3.8481	-0.8380	6.38	0.38	-0.750			
0.1756	11237.13	3.8450	3.8449	-0.8436	6.39	0.39	-0.750			
0.1782	11402.30	3.8420	3.8420	-0.8542	6.40	0.40	-0.750			
0.1807	11567.04	3.8390	3.8390	-0.8564	6.40	0.40	-0.750			
0.1833	11733.48	3.8360	3.8360	-0.8638	6.41	0.41	-0.750			
0.1860	11901.00	3.8330	3.8330	-0.8633	6.42	0.42	-0.750			
0.1886	12067.32	3.8300	3.8300	-0.8581	6.42	0.42	-0.750			
0.1911	12231.77	3.8270	3.8271	-0.8517	6.43	0.43	-0.750			
0.1937	12393.69	3.8240	3.8240	-0.8549	6.44	0.44	-0.750			
0.1962	12556.45	3.8210	3.8210	-0.8608	6.45	0.45	-0.750			
0.1988	12720.67	3.8180	3.8179	-0.8637	6.46	0.46	-0.750			
0.2014	12887.74	3.8150	3.8150	-0.8620	6.47	0.47	-0.750			
0.2040	13056.38	3.8120	3.8120	-0.8714	6.48	0.48	-0.750			
0.2066	13223.41	3.8090	3.8091	-0.8721	6.49	0.49	-0.750			
0.2092	13390.65	3.8060	3.8059	-0.8720	6.49	0.49	-0.750			
0.2118	13555.62	3.8030	3.8030	-0.8705	6.50	0.50	-0.750			
0.2144	13722.18	3.8000	3.7999	-0.8738	6.51	0.51	-0.750			
0.2171	13894.06	3.7970	3.7973	-0.8784	6.52	0.52	-0.750			
0.2197	14062.90	3.7940	3.7940	-0.8846	6.53	0.53	-0.750			
0.2224	14233.19	3.7910	3.7910	-0.8821	6.54	0.54	-0.750			
0.2251	14403.20	3.7880	3.7880	-0.8824	6.55	0.55	-0.750			
0.2277	14570.41	3.7850	3.7849	-0.8824	6.55	0.55	-0.750			
0.2303	14739.18	3.7820	3.7822	-0.8864	6.56	0.56	-0.750			
0.2330	14909.04	3.7790	3.7789	-0.8904	6.57	0.57	-0.750			
0.2356	15081.20	3.7760	3.7760	-0.8959	6.58	0.58	-0.750			
0.2383	15253.78	3.7730	3.7730	-0.8945	6.59	0.59	-0.750			
0.2411	15428.30	3.7700	3.7700	-0.8987	6.60	0.60	-0.750			
0.2438	15600.92	3.7670	3.7670	-0.9005	6.61	0.61	-0.750			
0.2465	15773.74	3.7640	3.7639	-0.8971	6.61	0.61	-0.750			
0.2491	15944.71	3.7610	3.7610	-0.8900	6.62	0.62	-0.750			
0.2518	16116.13	3.7580	3.7580	-0.8852	6.63	0.63	-0.750			
0.2544	16284.69	3.7550	3.7551	-0.8892	6.64	0.64	-0.750			
0.2571	16454.13	3.7520	3.7519	-0.8949	6.65	0.65	-0.750			
0.2598	16624.29	3.7490	3.7491	-0.8992	6.65	0.65	-0.750			
0.2624	16796.58	3.7460	3.7459	-0.9098	6.66	0.66	-0.750			
0.2652	16974.94	3.7430	3.7430	-0.9239	6.67	0.67	-0.750			
0.2680	17154.40	3.7400	3.7401	-0.9358	6.67	0.67	-0.750			
0.2709	17335.12	3.7370	3.7370	-0.9517	6.68	0.68	-0.750			
0.2738	17520.09	3.7340	3.7339	-0.9485	6.69	0.69	-0.750			
0.2766	17703.31	3.7310	3.7309	-0.9502	6.70	0.70	-0.750			
0.2795	17887.36	3.7280	3.7282	-0.9462	6.71	0.71	-0.750			
0.2823	18069.54	3.7250	3.7250	-0.9393	6.72	0.72	-0.750			
0.2851	18248.60	3.7220	3.7219	-0.9313	6.72	0.72	-0.750			
0.2879	18424.47	3.7190	3.7190	-0.9180	6.73	0.73	-0.750			
0.2906	18596.17	3.7160	3.7161	-0.9258	6.74	0.74	-0.750			
0.2933	18774.39	3.7130	3.7130	-0.9412	6.74	0.74	-0.750			
0.2961	18953.11	3.7100	3.7099	-0.9608	6.75	0.75	-0.750			
0.2991	19145.21	3.7070	3.7069	-0.9668	6.76	0.76	-0.750			
0.3021	19335.59	3.7040	3.7040	-0.9700	6.76	0.76	-0.750			
0.3050	19522.96	3.7010	3.7013	-0.9675	6.77	0.77	-0.750			
0.3080	19709.17	3.6980	3.6979	-0.9729	6.78	0.78	-0.750			
0.3108	19891.75	3.6950	3.6948	-0.9647	6.79	0.79	-0.750			
0.3136	20070.78	3.6920	3.6920	-0.9726	6.80	0.80	-0.750			
0.3166	20259.89	3.6890	3.6892	-0.9895	6.81	0.81	-0.750			
0.3196	20455.12	3.6860	3.6859	-0.9993	6.82	0.82	-0.750			
0.3227	20649.68	3.6830	3.6829	-1.0085	6.82	0.82	-0.750			
0.3257	20843.38	3.6800	3.6801	-1.0103	6.83	0.83	-0.750			
0.3287	21036.05	3.6770	3.6770	-1.0129	6.84	0.84	-0.750			
0.3318	21232.51	3.6740	3.6739	-1.0329	6.85	0.85	-0.750			
0.3349	21430.41	3.6710	3.6710	-1.0412	6.85	0.85	-0.750			
0.3380	21634.39	3.6680	3.6678	-1.0414	6.86	0.86	-0.750			
0.3412	21836.02	3.6650	3.6652	-1.0437	6.87	0.87	-0.750			
0.3443	22035.84	3.6620	3.6620	-1.0537	6.88	0.88	-0.750			
0.3475	22237.17	3.6590	3.6590	-1.0624	6.88	0.88	-0.750			
0.3506	22439.07	3.6560	3.6558	-1.0650	6.89	0.89	-0.750			
0.3538	22642.36	3.6530	3.6530	-1.0800	6.90	0.90	-0.750			
0.3571	22854.88	3.6500	3.6500	-1.1061	6.90	0.90	-0.750			
0.3605	23073.64	3.6470	3.6470	-1.1186	6.91	0.91	-0.750			
0.3639	23290.49	3.6440	3.6439	-1.1237	6.91	0.91	-0.750			
0.3672	23503.89	3.6410	3.6411	-1.1340	6.92	0.92	-0.750			
0.3707	23722.78	3.6380	3.6381	-1.1459	6.93	0.93	-0.750			
0.3741	23944.55	3.6350	3.6348	-1.1571	6.94	0.94	-0.750			
0.3776	24166.34	3.6320	3.6319	-1.1655	6.95	0.95	-0.750			
0.3811	24392.21	3.6290	3.6291	-1.1816	6.95	0.95	-0.750			
0.3847	24622.03	3.6260	3.6260	-1.1911	6.95	0.95	-0.750			
0.3883	24850.48	3.6230	3.6230	-1.2067	6.96	0.96	-0.750			
0.3919	25081.09	3.6200	3.6202	-1.2139	6.96	0.96	-0.750			
0.3956	25317.94	3.6170	3.6168	-1.2343	6.97	0.97	-0.750			
0.3993	25556.85	3.6140	3.6140	-1.2558	6.97	0.97	-0.750			
0.4031	25799.04	3.6110	3.6111	-1.2727	6.98	0.98	-0.750			
0.4070	26049.46	3.6080	3.6079	-1.2935	6.99	0.99	-0.750			
0.4109	26299.54	3.6050	3.6054	-1.2995	7.00	1.00	-0.750	0.418	1.015	
0.4147	26543.46	3.6020	3.6019	-1.3102	7.00	1.00	-0.750			
0.4187	26797.55	3.5990	3.5991	-1.3353	7.01	1.01	-0.750			
0.4227	27055.06	3.5960	3.5959	-1.3606	7.01	1.01	-0.750			
0.4269	27318.68	3.5930	3.5929	-1.3847	7.02	1.02	-0.750			
0.4311	27589.44	3.5900	3.5901	-1.3900	7.02	1.02	-0.750			
0.4354	27863.59	3.5870	3.5869	-1.3901	7.03	1.03	-0.750			
0.4395	28128.16	3.5840	3.5839	-1.4192	7.04	1.04	-0.750			
0.4437	28399.70	3.5810	3.5811	-1.4160	7.04	1.04	-0.750			
0.4480	28673.90	3.5780	3.5777	-1.4247	7.05	1.05	-0.750			
0.4523	28945.54	3.5750	3.5751	-1.4471	7.06	1.06	-0.750			
0.4567	29225.64	3.5720	3.5721	-1.4614	7.06	1.06	-0.750			
0.4612	29513.88	3.5690	3.5688	-1.4857	7.07	1.07	-0.750			
0.4657	29801.97	3.5660	3.5658	-1.5013	7.08	1.08	-0.750			
0.4701	30085.07	3.5630	3.5630	-1.5108	7.08	1.08	-0.750			
0.4747	30380.76	3.5600	3.5599	-1.5504	7.09	1.09	-0.750			
0.4794	30682.28	3.5570	3.5571	-1.5637	7.09	1.09	-0.750			
0.4840	30978.05	3.5540	3.5541	-1.5816	7.10	1.10	-0.750			
0.4890	31295.66	3.5510	3.5509	-1.5946	7.11	1.11	-0.750			
0.4938	31601.36	3.5480	3.5481	-1.5994	7.11	1.11	-0.750			
0.4985	31906.02	3.5450	3.5450	-1.6088	7.12	1.12	-0.750			
0.5034	32214.74	3.5420	3.5418	-1.6089	7.13	1.13	-0.750			
0.5082	32522.24	3.5390	3.5389	-1.6340	7.14	1.14	-0.750			
0.5131	32839.79	3.5360	3.5360	-1.6495	7.14	1.14	-0.750			
0.5181	33160.22	3.5330	3.5330	-1.6679	7.15	1.15	-0.750			
0.5232	33486.81	3.5300	3.5302	-1.6823	7.16	1.16	-0.750			
0.5283	33810.18	3.5270	3.5272	-1.6926	7.17	1.17	-0.750			
0.5334	34137.59	3.5240	3.5239	-1.7012	7.18	1.18	-0.750			
0.5385	34465.70	3.5210	3.5210	-1.7099	7.18	1.18	-0.750			
0.5437	34794.95	3.5180	3.5179	-1.7111	7.19	1.19	-0.750			
0.5488	35122.80	3.5150	3.5152	-1.7222	7.20	1.20	-0.750			
0.5541	35460.79	3.5120	3.5121	-1.7089	7.21	1.21	-0.750			
0.5592	35789.05	3.5090	3.5090	-1.6971	7.22	1.22	-0.750			
0.5642	36110.53	3.5060	3.5059	-1.7032	7.23	1.23	-0.750			
0.5692	36431.54	3.5030	3.5031	-1.7078	7.23	1.23	-0.750			
0.5744	36761.84	3.5000	3.4999	-1.6996	7.24	1.24	-0.750			
0.5795	37090.67	3.4970	3.4970	-1.6907	7.25	1.25	-0.750			
0.5846	37414.17	3.4940	3.4942	-1.6931	7.26	1.26	-0.750			
0.5898	37744.65	3.4910	3.4911	-1.6871	7.27	1.27	-0.750			
0.5948	38066.11	3.4880	3.4881	-1.6756	7.28	1.28	-0.750			
0.5997	38383.59	3.4850	3.4849	-1.6422	7.29	1.29	-0.750			
0.6047	38703.71	3.4820	3.4822	-1.6385	7.30	1.30	-0.750			
0.6097	39018.66	3.4790	3.4792	-1.6387	7.31	1.31	-0.750			
0.6146	39331.56	3.4760	3.4758	-1.6262	7.32	1.32	-0.750			
0.6194	39644.53	3.4730	3.4729	-1.6165	7.33	1.33	-0.750			
0.6243	39952.82	3.4700	3.4700	-1.6103	7.34	1.34	-0.750			
0.6291	40262.61	3.4670	3.4671	-1.5865	7.36	1.36	-0.750			
0.6339	40572.04	3.4640	3.4641	-1.5581	7.37	1.37	-0.750			
0.6386	40870.63	3.4610	3.4609	-1.5318	7.38	1.38	-0.750			
0.6430	41153.55	3.4580	3.4581	-1.5145	7.39	1.39	-0.750			
0.6476	41443.20	3.4550	3.4549	-1.4986	7.40	1.40	-0.750			
0.6520	41726.92	3.4520	3.4519	-1.4872	7.41	1.41	-0.750			
0.6565	42016.49	3.4490	3.4489	-1.4664	7.43	1.43	-0.750			
0.6610	42303.45	3.4460	3.4461	-1.4589	7.44	1.44	-0.750			
0.6653	42580.54	3.4430	3.4430	-1.4307	7.45	1.45	-0.750			
0.6696	42852.94	3.4400	3.4399	-1.3801	7.47	1.47	-0.750			
0.6737	43116.20	3.4370	3.4369	-1.3481	7.48	1.48	-0.750			
0.6776	43368.78	3.4340	3.4340	-1.3222	7.49	1.49	-0.750			
0.6815	43615.96	3.4310	3.4310	-1.2914	7.51	1.51	-0.750			
0.6854	43864.86	3.4280	3.4278	-1.2566	7.52	1.52	-0.750			
0.6891	44103.04	3.4250	3.4250	-1.2128	7.53	1.53	-0.750			
0.6927	44332.60	3.4220	3.4222	-1.1816	7.54	1.54	-0.750			
0.6962	44558.34	3.4190	3.4190	-1.1545	7.55	1.55	-0.750			
0.6996	44772.30	3.4160	3.4159	-1.1165	7.56	1.56	-0.750			
0.7028	44982.03	3.4130	3.4130	-1.0879	7.57	1.57	-0.750			
0.7060	45186.52	3.4100	3.4100	-1.0664	7.59	1.59	-0.750			
0.7093	45394.02	3.4070	3.4070	-1.0398	7.60	1.60	-0.750			
0.7124	45594.40	3.4040	3.4039	-1.0092	7.62	1.62	-0.750			
0.7154	45783.57	3.4010	3.4010	-0.9752	7.63	1.63	-0.750			
0.7182	45967.18	3.3980	3.3981	-0.9390	7.64	1.64	-0.750			
0.7210	46141.39	3.3950	3.3949	-0.9071	7.66	1.66	-0.750			
0.7236	46312.59	3.3920	3.3920	-0.8795	7.67	1.67	-0.750			
0.7262	46477.06	3.3890	3.3890	-0.8499	7.68	1.68	-0.750			
0.7287	46639.85	3.3860	3.3859	-0.8271	7.69	1.69	-0.750			
0.7312	46797.51	3.3830	3.3830	-0.7994	7.70	1.70	-0.750			
0.7336	46947.34	3.3800	3.3800	-0.7707	7.71	1.71	-0.750			
0.7358	47092.30	3.3770	3.3770	-0.7474	7.72	1.72	-0.750			
0.7380	47233.36	3.3740	3.3740	-0.7174	7.73	1.73	-0.750			
0.7401	47368.80	3.3710	3.3709	-0.6927	7.74	1.74	-0.750			
0.7422	47498.02	3.3680	3.3681	-0.6733	7.75	1.75	-0.750			
0.7441	47625.50	3.3650	3.3650	-0.6509	7.76	1.76	-0.750			
0.7461	47749.02	3.3620	3.3618	-0.6256	7.77	1.77	-0.750			
0.7479	47865.94	3.3590	3.3590	-0.6033	7.78	1.78	-0.750			
0.7497	47980.11	3.3560	3.3562	-0.5840	7.79	1.79	-0.750			
0.7514	48091.13	3.3530	3.3529	-0.5666	7.80	1.80	-0.750			
0.7531	48195.76	3.3500	3.3498	-0.5461	7.81	1.81	-0.750			
0.7547	48297.95	3.3470	3.3472	-0.5293	7.82	1.82	-0.750			
0.7562	48398.96	3.3440	3.3441	-0.5193	7.83	1.83	-0.750			
0.7578	48497.65	3.3410	3.3409	-0.5049	7.84	1.84	-0.750			
0.7593	48593.26	3.3380	3.3380	-0.4917	7.85	1.85	-0.750			
0.7607	48686.33	3.3350	3.3350	-0.4746	7.85	1.85	-0.750			
0.7621	48775.46	3.3320	3.3320	-0.4599	7.86	1.86	-0.750			
0.7635	48862.44	3.3290	3.3290	-0.4429	7.87	1.87	-0.750			
0.7648	48946.43	3.3260	3.3260	-0.4293	7.88	1.88	-0.750			
0.7660	49026.71	3.3230	3.3229	-0.4149	7.88	1.88	-0.750			
0.7673	49104.87	3.3200	3.3201	-0.4044	7.89	1.89	-0.750			
0.7684	49180.61	3.3170	3.3170	-0.3920	7.90	1.90	-0.750			
0.7696	49255.50	3.3140	3.3139	-0.3830	7.91	1.91	-0.750			
0.7708	49328.13	3.3110	3.3111	-0.3712	7.92	1.92	-0.750			
0.7718	49398.30	3.3080	3.3080	-0.3622	7.93	1.93	-0.750			
0.7729	49466.75	3.3050	3.3050	-0.3502	7.94	1.94	-0.750			
0.7739	49532.33	3.3020	3.3020	-0.3414	7.95	1.95	-0.750			
0.7750	49596.84	3.2990	3.2990	-0.3326	7.95	1.95	-0.750			
0.7759	49659.99	3.2960	3.2960	-0.3243	7.96	1.96	-0.750			
0.7769	49721.31	3.2930	3.2930	-0.3163	7.97	1.97	-0.750			
0.7778	49781.58	3.2900	3.2900	-0.3086	7.98	1.98	-0.750			
0.7787	49839.60	3.2870	3.2869	-0.3005	7.98	1.98	-0.750			
0.7796	49896.89	3.2840	3.2840	-0.2944	7.99	1.99	-0.750			
0.7805	49951.91	3.2810	3.2810	-0.2871	8.00	2.00	-0.750			
0.7814	50006.80	3.2780	3.2779	-0.2815	8.00	2.00	-0.750			
0.7822	50060.18	3.2750	3.2750	-0.2758	8.01	2.01	-0.750			
0.7830	50112.20	3.2720	3.2720	-0.2691	8.02	2.02	-0.750			
0.7838	50163.54	3.2690	3.2690	-0.2635	8.02	2.02	-0.750			
0.7846	50213.54	3.2660	3.2661	-0.2572	8.03	2.03	-0.750			
0.7853	50262.31	3.2630	3.2630	-0.2514	8.04	2.04	-0.750			
0.7861	50310.12	3.2600	3.2600	-0.2456	8.04	2.04	-0.750			
0.7868	50356.73	3.2570	3.2570	-0.2410	8.05	2.05	-0.750			
0.7875	50402.14	3.2540	3.2540	-0.2356	8.05	2.05	-0.750			
0.7882	50446.40	3.2510	3.2511	-0.2311	8.06	2.06	-0.750			
0.7889	50490.46	3.2480	3.2479	-0.2279	8.06	2.06	-0.750			
0.7896	50534.07	3.2450	3.2450	-0.2234	8.07	2.07	-0.750			
0.7903	50577.26	3.2420	3.2420	-0.2182	8.08	2.08	-0.750			
0.7909	50619.04	3.2390	3.2390	-0.2131	8.08	2.08	-0.750			
0.7915	50659.14	3.2360	3.2362	-0.2075	8.09	2.09	-0.750			
0.7922	50698.20	3.2330	3.2331	-0.2028	8.09	2.09	-0.750			
0.7928	50736.35	3.2300	3.2300	-0.1976	8.10	2.10	-0.750			
0.7933	50773.19	3.2270	3.2269	-0.1920	8.11	2.11	-0.750			
0.7939	50809.82	3.2240	3.2240	-0.1888	8.11	2.11	-0.750			
0.7945	50845.74	3.2210	3.2210	-0.1861	8.12	2.12	-0.750			
0.7950	50881.06	3.2180	3.2181	-0.1842	8.12	2.12	-0.750			
0.7956	50916.19	3.2150	3.2149	-0.1817	8.13	2.13	-0.750			
0.7961	50950.46	3.2120	3.2120	-0.1791	8.14	2.14	-0.750			
0.7966	50984.78	3.2090	3.2090	-0.1762	8.14	2.14	-0.750			
0.7972	51018.80	3.2060	3.2060	-0.1744	8.15	2.15	-0.750			
0.7977	51051.98	3.2030	3.2031	-0.1712	8.16	2.16	-0.750			
0.7982	51084.68	3.2000	3.2000	-0.1686	8.16	2.16	-0.750			
0.7987	51116.65	3.1970	3.1970	-0.1655	8.17	2.17	-0.750			
0.7992	51147.89	3.1940	3.1940	-0.1619	8.17	2.17	-0.750			
0.7997	51178.74	3.1910	3.1910	-0.1594	8.18	2.18	-0.750			
0.8001	51209.14	3.1880	3.1880	-0.1568	8.18	2.18	-0.750			
0.8006	51239.06	3.1850	3.1849	-0.1546	8.19	2.19	-0.750			
0.8011	51268.30	3.1820	3.1821	-0.1520	8.20	2.20	-0.750			
0.8015	51297.27	3.1790	3.1790	-0.1498	8.20	2.20	-0.750			
0.8020	51325.77	3.1760	3.1760	-0.1470	8.21	2.21	-0.750			
0.8024	51353.70	3.1730	3.1730	-0.1451	8.21	2.21	-0.750			
0.8028	51381.26	3.1700	3.1700	-0.1433	8.21	2.21	-0.750			
0.8033	51408.61	3.1670	3.1671	-0.1416	8.22	2.22	-0.750			
0.8037	51435.60	3.1640	3.1639	-0.1398	8.22	2.22	-0.750			
0.8041	51462.27	3.1610	3.1610	-0.1378	8.23	2.23	-0.750			
0.8045	51488.57	3.1580	3.1582	-0.1361	8.23	2.23	-0.750			
0.8049	51514.53	3.1550	3.1549	-0.1342	8.24	2.24	-0.750			
0.8053	51540.26	3.1520	3.1520	-0.1330	8.24	2.24	-0.750			
0.8057	51565.40	3.1490	3.1490	-0.1308	8.25	2.25	-0.750			
0.8061	51590.46	3.1460	3.1459	-0.1286	8.25	2.25	-0.750			
0.8065	51614.97	3.1430	3.1430	-0.1267	8.26	2.26	-0.750			
0.8069	51639.13	3.1400	3.1401	-0.1252	8.26	2.26	-0.750			
0.8072	51663.08	3.1370	3.1371	-0.1235	8.27	2.27	-0.750			
0.8076	51686.42	3.1340	3.1341	-0.1223	8.27	2.27	-0.750			
0.8080	51709.55	3.1310	3.1309	-0.1206	8.28	2.28	-0.750			
0.8083	51732.60	3.1280	3.1280	-0.1195	8.28	2.28	-0.750			
0.8087	51755.20	3.1250	3.1250	-0.1183	8.29	2.29	-0.750			
0.8090	51777.96	3.1220	3.1221	-0.1169	8.29	2.29	-0.750			
0.8094	51800.59	3.1190	3.1191	-0.1160	8.30	2.30	-0.750			
0.8097	51822.72	3.1160	3.1161	-0.1145	8.30	2.30	-0.750			
0.8101	51844.64	3.1130	3.1129	-0.1131	8.31	2.31	-0.750			
0.8104	51866.21	3.1100	3.1100	-0.1113	8.31	2.31	-0.750			
0.8107	51887.41	3.1070	3.1071	-0.1097	8.32	2.32	-0.750			
0.8111	51908.28	3.1040	3.1039	-0.1081	8.32	2.32	-0.750			
0.8114	51928.87	3.1010	3.1011	-0.1065	8.33	2.33	-0.750			
0.8117	51949.02	3.0980	3.0980	-0.1056	8.33	2.33	-0.750			
0.8120	51969.06	3.0950	3.0950	-0.1043	8.33	2.33	-0.750			
0.8123	51988.91	3.0920	3.0920	-0.1035	8.34	2.34	-0.750			
0.8126	52008.49	3.0890	3.0890	-0.1024	8.34	2.34	-0.750			
0.8129	52028.18	3.0860	3.0859	-0.1016	8.35	2.35	-0.750			
