Ah_balance (normalized)	Ah_balance (mAh)	Voltage - fit (V)	Voltage -  interpolate (V)	dQ/dV (1/V)	Temperature (°C)	Temperature - diff (°C)	Current (C)	R_DC 0ms (mOhm)	R_DC 50ms (mOhm)	R_DC 50 ms PEC (mOhm)
0.0970	6210.79	4.1970	4.1987	0.5667	8.78	2.54	0.750			
0.0987	6318.12	4.1940	4.1962	0.6279	8.77	2.53	0.750			
0.1009	6457.04	4.1910	4.1930	0.7163	8.77	2.53	0.750			
0.1033	6610.74	4.1880	4.1898	0.7797	8.76	2.52	0.750			
0.1055	6754.57	4.1850	4.1867	0.7438	8.76	2.52	0.750			
0.1080	6915.07	4.1820	4.1830	0.7750	8.75	2.51	0.750			
0.1110	7104.75	4.1790	4.1786	0.8120	8.75	2.51	0.750			
0.1128	7221.81	4.1760	4.1762	0.6930	8.74	2.50	0.750			
0.1149	7352.51	4.1730	4.1730	0.6988	8.74	2.50	0.750			
0.1170	7487.51	4.1700	4.1698	0.7046	8.73	2.49	0.750			
0.1191	7622.77	4.1670	4.1671	0.7099	8.73	2.49	0.750			
0.1213	7761.66	4.1640	4.1640	0.7184	8.72	2.48	0.750			
0.1235	7904.38	4.1610	4.1610	0.7296	8.72	2.48	0.750			
0.1257	8041.98	4.1580	4.1580	0.7281	8.71	2.47	0.750			
0.1279	8183.47	4.1550	4.1550	0.7330	8.70	2.46	0.750			
0.1301	8324.86	4.1520	4.1519	0.7287	8.70	2.46	0.750			
0.1323	8466.24	4.1490	4.1488	0.7299	8.69	2.45	0.750			
0.1345	8605.71	4.1460	4.1462	0.7267	8.69	2.45	0.750			
0.1366	8743.56	4.1430	4.1430	0.7266	8.68	2.44	0.750			
0.1388	8881.82	4.1400	4.1399	0.7253	8.68	2.44	0.750			
0.1409	9019.14	4.1370	4.1370	0.7270	8.67	2.43	0.750			
0.1431	9160.36	4.1340	4.1340	0.7385	8.67	2.43	0.750			
0.1454	9305.41	4.1310	4.1310	0.7505	8.66	2.42	0.750			
0.1477	9449.88	4.1280	4.1279	0.7520	8.65	2.41	0.750			
0.1499	9594.57	4.1250	4.1251	0.7583	8.65	2.41	0.750			
0.1522	9741.01	4.1220	4.1220	0.7602	8.64	2.40	0.750			
0.1545	9888.23	4.1190	4.1188	0.7638	8.63	2.39	0.750			
0.1568	10033.88	4.1160	4.1160	0.7618	8.62	2.38	0.750			
0.1591	10181.22	4.1130	4.1130	0.7589	8.62	2.38	0.750			
0.1614	10328.69	4.1100	4.1100	0.7588	8.61	2.37	0.750			
0.1636	10473.53	4.1070	4.1070	0.7610	8.60	2.36	0.750			
0.1659	10616.87	4.1040	4.1040	0.7631	8.59	2.35	0.750			
0.1682	10763.32	4.1010	4.1009	0.7702	8.59	2.35	0.750			
0.1705	10911.79	4.0980	4.0981	0.7736	8.58	2.34	0.750			
0.1729	11062.93	4.0950	4.0949	0.7720	8.57	2.33	0.750			
0.1752	11211.63	4.0920	4.0921	0.7763	8.57	2.33	0.750			
0.1775	11360.27	4.0890	4.0891	0.7784	8.56	2.32	0.750			
0.1798	11507.28	4.0860	4.0858	0.7826	8.55	2.31	0.750			
0.1821	11654.95	4.0830	4.0831	0.7923	8.54	2.30	0.750			
0.1845	11810.63	4.0800	4.0799	0.7949	8.54	2.30	0.750			
0.1870	11965.92	4.0770	4.0769	0.8088	8.53	2.29	0.750			
0.1894	12121.59	4.0740	4.0741	0.8139	8.52	2.28	0.750			
0.1918	12277.59	4.0710	4.0710	0.8213	8.51	2.27	0.750			
0.1943	12438.24	4.0680	4.0680	0.8214	8.50	2.26	0.750			
0.1968	12598.18	4.0650	4.0649	0.8132	8.50	2.26	0.750			
0.1993	12752.84	4.0620	4.0621	0.8139	8.49	2.25	0.750			
0.2017	12909.09	4.0590	4.0590	0.8269	8.48	2.24	0.750			
0.2041	13064.70	4.0560	4.0558	0.8205	8.47	2.23	0.750			
0.2066	13223.15	4.0530	4.0530	0.8235	8.47	2.23	0.750			
0.2091	13382.35	4.0500	4.0501	0.8210	8.46	2.22	0.750			
0.2116	13541.73	4.0470	4.0471	0.8291	8.45	2.21	0.750			
0.2141	13701.06	4.0440	4.0440	0.8416	8.45	2.21	0.750			
0.2166	13860.16	4.0410	4.0409	0.8406	8.44	2.20	0.750			
0.2191	14021.96	4.0380	4.0380	0.8437	8.43	2.19	0.750			
0.2217	14188.18	4.0350	4.0351	0.8494	8.43	2.19	0.750			
0.2242	14351.10	4.0320	4.0321	0.8538	8.42	2.18	0.750			
0.2268	14517.47	4.0290	4.0290	0.8546	8.41	2.17	0.750			
0.2293	14677.82	4.0260	4.0257	0.8567	8.40	2.16	0.750			
0.2319	14841.34	4.0230	4.0230	0.8645	8.39	2.15	0.750			
0.2345	15008.64	4.0200	4.0200	0.8724	8.38	2.14	0.750			
0.2371	15177.33	4.0170	4.0171	0.8785	8.37	2.13	0.750			
0.2398	15348.76	4.0140	4.0140	0.8861	8.36	2.12	0.750			
0.2425	15518.49	4.0110	4.0109	0.8844	8.35	2.11	0.750			
0.2452	15690.50	4.0080	4.0080	0.8878	8.34	2.10	0.750			
0.2478	15858.86	4.0050	4.0050	0.8908	8.34	2.10	0.750			
0.2505	16030.88	4.0020	4.0020	0.8947	8.33	2.09	0.750			
0.2532	16204.06	3.9990	3.9992	0.8958	8.32	2.08	0.750			
0.2559	16375.64	3.9960	3.9959	0.8972	8.32	2.08	0.750			
0.2586	16547.46	3.9930	3.9931	0.9026	8.31	2.07	0.750			
0.2613	16721.24	3.9900	3.9900	0.9073	8.29	2.05	0.750			
0.2640	16895.29	3.9870	3.9869	0.9093	8.28	2.04	0.750			
0.2667	17070.67	3.9840	3.9841	0.9127	8.27	2.03	0.750			
0.2695	17250.81	3.9810	3.9809	0.9100	8.26	2.02	0.750			
0.2722	17423.57	3.9780	3.9780	0.9142	8.25	2.01	0.750			
0.2749	17595.03	3.9750	3.9751	0.9211	8.24	2.00	0.750			
0.2777	17770.79	3.9720	3.9721	0.9315	8.23	1.99	0.750			
0.2805	17949.81	3.9690	3.9688	0.9470	8.22	1.98	0.750			
0.2834	18135.97	3.9660	3.9660	0.9480	8.21	1.97	0.750			
0.2863	18321.77	3.9630	3.9630	0.9608	8.19	1.95	0.750			
0.2892	18509.09	3.9600	3.9601	0.9632	8.18	1.94	0.750			
0.2921	18691.45	3.9570	3.9568	0.9610	8.17	1.93	0.750			
0.2949	18874.17	3.9540	3.9542	0.9597	8.16	1.92	0.750			
0.2978	19060.55	3.9510	3.9509	0.9747	8.15	1.91	0.750			
0.3008	19248.20	3.9480	3.9480	0.9831	8.14	1.90	0.750			
0.3037	19438.74	3.9450	3.9450	0.9951	8.13	1.89	0.750			
0.3067	19630.40	3.9420	3.9421	0.9998	8.12	1.88	0.750			
0.3098	19824.95	3.9390	3.9389	1.0101	8.11	1.87	0.750			
0.3128	20018.72	3.9360	3.9361	1.0162	8.10	1.86	0.750			
0.3158	20212.41	3.9330	3.9331	1.0182	8.09	1.85	0.750			
0.3189	20410.22	3.9300	3.9299	1.0268	8.07	1.83	0.750			
0.3220	20605.00	3.9270	3.9271	1.0432	8.06	1.82	0.750			
0.3251	20806.61	3.9240	3.9238	1.0542	8.05	1.81	0.750			
0.3283	21013.59	3.9210	3.9211	1.0697	8.04	1.80	0.750			
0.3316	21222.19	3.9180	3.9180	1.0677	8.02	1.78	0.750			
0.3348	21426.48	3.9150	3.9152	1.0897	8.01	1.77	0.750			
0.3381	21637.25	3.9120	3.9121	1.1043	8.00	1.76	0.750			
0.3414	21848.87	3.9090	3.9088	1.1096	7.98	1.74	0.750			
0.3447	22061.64	3.9060	3.9061	1.1080	7.97	1.73	0.750			
0.3481	22276.46	3.9030	3.9031	1.1269	7.96	1.72	0.750			
0.3515	22493.49	3.9000	3.9001	1.1332	7.94	1.70	0.750			
0.3549	22715.29	3.8970	3.8967	1.1383	7.93	1.69	0.750			
0.3582	22926.49	3.8940	3.8942	1.1501	7.91	1.67	0.750			
0.3617	23150.64	3.8910	3.8910	1.1718	7.90	1.66	0.750			
0.3654	23382.54	3.8880	3.8880	1.1816	7.88	1.64	0.750			
0.3689	23607.63	3.8850	3.8850	1.1978	7.86	1.62	0.750			
0.3725	23837.02	3.8820	3.8822	1.2230	7.85	1.61	0.750			
0.3762	24074.52	3.8790	3.8790	1.2513	7.83	1.59	0.750			
0.3800	24318.12	3.8760	3.8762	1.2686	7.82	1.58	0.750	0.375	0.789	
0.3838	24561.60	3.8730	3.8730	1.2836	7.80	1.56	0.750			
0.3877	24815.24	3.8700	3.8701	1.2997	7.78	1.54	0.750			
0.3917	25068.24	3.8670	3.8669	1.3117	7.76	1.52	0.750			
0.3955	25313.89	3.8640	3.8641	1.3301	7.74	1.50	0.750			
0.3995	25570.46	3.8610	3.8605	1.3467	7.73	1.49	0.750			
0.4036	25832.34	3.8580	3.8581	1.3602	7.71	1.47	0.750			
0.4078	26096.86	3.8550	3.8551	1.3825	7.69	1.45	0.750			
0.4120	26365.81	3.8520	3.8521	1.3960	7.67	1.43	0.750			
0.4161	26630.83	3.8490	3.8490	1.3980	7.65	1.41	0.750			
0.4203	26901.39	3.8460	3.8460	1.4134	7.63	1.39	0.750			
0.4246	27171.86	3.8430	3.8426	1.4391	7.61	1.37	0.750			
0.4290	27454.39	3.8400	3.8400	1.4603	7.58	1.34	0.750			
0.4334	27735.79	3.8370	3.8372	1.4784	7.56	1.32	0.750			
0.4378	28021.23	3.8340	3.8340	1.4992	7.54	1.30	0.750			
0.4423	28307.05	3.8310	3.8307	1.5129	7.52	1.28	0.750			
0.4469	28599.84	3.8280	3.8277	1.5415	7.50	1.26	0.750			
0.4516	28900.97	3.8250	3.8252	1.5684	7.48	1.24	0.750			
0.4563	29205.68	3.8220	3.8221	1.5929	7.45	1.21	0.750			
0.4612	29517.83	3.8190	3.8189	1.5985	7.43	1.19	0.750			
0.4660	29825.37	3.8160	3.8161	1.6023	7.41	1.17	0.750			
0.4709	30135.78	3.8130	3.8129	1.6214	7.38	1.14	0.750			
0.4758	30449.01	3.8100	3.8099	1.6233	7.35	1.11	0.750			
0.4806	30757.95	3.8070	3.8071	1.6400	7.33	1.09	0.750			
0.4856	31077.92	3.8040	3.8038	1.6487	7.30	1.06	0.750			
0.4905	31392.19	3.8010	3.8012	1.6661	7.28	1.04	0.750			
0.4956	31716.98	3.7980	3.7982	1.7088	7.25	1.01	0.750			
0.5007	32046.29	3.7950	3.7948	1.7390	7.22	0.98	0.750			
0.5060	32382.21	3.7920	3.7919	1.7749	7.19	0.95	0.750			
0.5114	32729.05	3.7890	3.7892	1.7860	7.17	0.93	0.750			
0.5168	33074.51	3.7860	3.7862	1.8261	7.14	0.90	0.750			
0.5222	33421.64	3.7830	3.7830	1.8609	7.11	0.87	0.750			
0.5278	33777.90	3.7800	3.7798	1.9125	7.08	0.84	0.750			
0.5336	34147.37	3.7770	3.7770	1.9897	7.06	0.82	0.750			
0.5396	34537.39	3.7740	3.7742	2.0610	7.03	0.79	0.750			
0.5461	34947.22	3.7710	3.7710	2.1386	7.00	0.76	0.750			
0.5525	35357.56	3.7680	3.7680	2.2131	6.96	0.72	0.750			
0.5591	35783.88	3.7650	3.7651	2.3541	6.93	0.69	0.750			
0.5663	36245.71	3.7620	3.7619	2.4798	6.89	0.65	0.750			
0.5741	36745.27	3.7590	3.7590	2.5754	6.86	0.62	0.750			
0.5821	37253.33	3.7560	3.7560	2.6491	6.82	0.58	0.750			
0.5900	37757.10	3.7530	3.7530	2.6513	6.78	0.54	0.750			
0.5978	38259.63	3.7500	3.7500	2.7945	6.75	0.51	0.750			
0.6064	38809.48	3.7470	3.7468	2.9753	6.71	0.47	0.750			
0.6157	39405.26	3.7440	3.7440	3.1573	6.68	0.44	0.750			
0.6256	40037.40	3.7410	3.7409	3.1462	6.64	0.40	0.750			
0.6348	40628.88	3.7380	3.7382	2.8762	6.60	0.36	0.750			
0.6430	41152.66	3.7350	3.7351	2.5628	6.57	0.33	0.750			
0.6499	41596.28	3.7320	3.7319	2.2070	6.54	0.30	0.750			
0.6560	41984.18	3.7290	3.7294	1.9344	6.52	0.28	0.750			
0.6614	42329.69	3.7260	3.7261	1.7082	6.50	0.26	0.750			
0.6661	42629.36	3.7230	3.7229	1.5281	6.48	0.24	0.750			
0.6701	42885.14	3.7200	3.7200	1.3935	6.47	0.23	0.750			
0.6738	43126.20	3.7170	3.7170	1.2962	6.45	0.21	0.750			
0.6775	43359.22	3.7140	3.7138	1.2310	6.44	0.20	0.750			
0.6811	43593.02	3.7110	3.7110	1.1909	6.42	0.18	0.750			
0.6847	43819.15	3.7080	3.7082	1.1542	6.41	0.17	0.750			
0.6881	44039.19	3.7050	3.7050	1.1352	6.40	0.16	0.750			
0.6915	44253.51	3.7020	3.7019	1.1053	6.38	0.14	0.750			
0.6946	44457.38	3.6990	3.6989	1.0708	6.37	0.13	0.750			
0.6978	44659.76	3.6960	3.6960	1.0513	6.37	0.13	0.750			
0.7010	44862.42	3.6930	3.6930	1.0365	6.36	0.12	0.750			
0.7041	45062.60	3.6900	3.6899	1.0217	6.35	0.11	0.750			
0.7071	45254.70	3.6870	3.6871	0.9963	6.34	0.10	0.750			
0.7100	45442.28	3.6840	3.6839	0.9744	6.33	0.09	0.750			
0.7129	45627.99	3.6810	3.6810	0.9579	6.32	0.08	0.750			
0.7158	45808.91	3.6780	3.6779	0.9370	6.31	0.07	0.750			
0.7185	45985.78	3.6750	3.6751	0.9305	6.30	0.06	0.750			
0.7213	46163.14	3.6720	3.6720	0.9211	6.29	0.05	0.750			
0.7240	46338.36	3.6690	3.6689	0.9156	6.28	0.04	0.750			
0.7268	46512.85	3.6660	3.6660	0.9142	6.28	0.04	0.750			
0.7295	46688.87	3.6630	3.6628	0.9174	6.27	0.03	0.750			
0.7323	46867.34	3.6600	3.6601	0.9167	6.26	0.02	0.750			
0.7350	47042.96	3.6570	3.6571	0.9199	6.26	0.02	0.750			
0.7378	47218.53	3.6540	3.6540	0.9160	6.25	0.01	0.750			
0.7406	47400.92	3.6510	3.6509	0.8983	6.24	0.00	0.750			
0.7434	47575.40	3.6480	3.6480	0.8617	6.24	0.00	0.750			
0.7460	47743.09	3.6450	3.6451	0.7852	6.24	0.00	0.750			
0.7484	47896.99	3.6420	3.6423	0.7074	6.24	0.00	0.750			
0.7504	48026.04	3.6390	3.6390	0.6022	6.24	0.00	0.750			
0.7520	48129.54	3.6360	3.6358	0.4938	6.24	0.00	0.750			
0.7531	48196.57	3.6330	3.6335	0.4112	6.24	0.00	0.750			
0.7542	48267.05	3.6300	3.6303	0.3389	6.24	0.00	0.750			
0.7550	48320.67	3.6270	3.6269	0.2657	6.24	0.00	0.750			
0.7557	48364.38	3.6240	3.6224	0.2136	6.24	0.00	0.750			
0.7561	48389.08	3.6210	3.6145	0.1507	6.24	0.00	0.750			
0.7562	48394.14	3.5970	3.6021	-0.1256	6.24	0.00	0.750			
0.7564	48407.46	3.6180	3.4130	0.1058	6.24	0.00	0.745			
0.7565	48415.08	3.6000	3.2930	-0.0926	6.24	0.00	0.742			
0.7566	48424.60	3.6150	3.1432	0.0727	6.24	0.00	0.737			
0.7567	48429.68	3.6030	3.0632	-0.0595	6.24	0.00	0.735			
0.7568	48435.39	3.6120	2.9733	0.0397	6.24	0.00	0.732			
0.7568	48437.93	3.6060	2.9333	-0.0264	6.24	0.00	0.731			
0.7569	48439.84	3.6090	2.9033	0.0066	6.24	0.00	0.730			
