Ah_balance (normalized)	Ah_balance (mAh)	Voltage - fit (V)	Voltage -  interpolate (V)	dQ/dV (1/V)	Temperature (°C)	Temperature - diff (°C)	Current (C)	R_DC 0ms (mOhm)	R_DC 50ms (mOhm)	R_DC 50 ms PEC (mOhm)
-0.0110	-703.78	4.1990	4.1987	0.7694	25.28	0.04	0.050			
-0.0102	-653.86	4.1980	4.1980	0.7903	25.28	0.04	0.050			
-0.0094	-601.04	4.1970	4.1966	0.8341	25.28	0.04	0.050			
-0.0085	-543.16	4.1960	4.1959	0.8702	25.28	0.04	0.050			
-0.0076	-485.49	4.1950	4.1945	0.8739	25.28	0.04	0.050			
-0.0067	-429.80	4.1940	4.1938	0.8663	25.28	0.04	0.050			
-0.0059	-374.41	4.1930	4.1924	0.8585	25.28	0.04	0.050			
-0.0050	-319.67	4.1920	4.1917	0.8511	25.28	0.04	0.050			
-0.0041	-265.45	4.1910	4.1912	0.8432	25.28	0.04	0.050			
-0.0033	-212.93	4.1900	4.1899	0.8398	25.28	0.04	0.050			
-0.0025	-159.52	4.1890	4.1892	0.8347	25.28	0.04	0.050	0.139	0.021	
-0.0017	-106.58	4.1880	4.1884	0.8369	25.28	0.04	0.050			
-0.0008	-53.00	4.1870	4.1872	0.8367	25.28	0.04	0.050			
-0.0000	-0.98	4.1860	4.1857	0.8362	25.27	0.03	0.050			
0.0008	51.08	4.1850	4.1852	0.8347	25.27	0.03	0.050			
0.0016	104.03	4.1840	4.1837	0.8315	25.26	0.02	0.050			
0.0024	156.53	4.1830	4.1828	0.8314	25.26	0.02	0.050			
0.0033	208.33	4.1820	4.1819	0.8241	25.27	0.03	0.050			
0.0041	259.24	4.1810	4.1804	0.8219	25.27	0.03	0.050			
0.0049	312.40	4.1800	4.1798	0.8240	25.27	0.03	0.050			
0.0057	365.09	4.1790	4.1794	0.8274	25.28	0.04	0.050			
0.0066	419.64	4.1780	4.1780	0.8276	25.28	0.04	0.050			
0.0074	473.94	4.1770	4.1773	0.8313	25.28	0.04	0.050			
0.0083	529.22	4.1760	4.1761	0.8378	25.28	0.04	0.050			
0.0091	583.53	4.1750	4.1752	0.8379	25.28	0.04	0.050			
0.0099	636.56	4.1740	4.1738	0.8382	25.28	0.04	0.050			
0.0108	690.33	4.1730	4.1730	0.8386	25.28	0.04	0.050			
0.0116	743.67	4.1720	4.1721	0.8370	25.28	0.04	0.050			
0.0125	796.93	4.1710	4.1709	0.8377	25.28	0.04	0.050			
0.0133	848.88	4.1700	4.1703	0.8392	25.28	0.04	0.050			
0.0141	902.08	4.1690	4.1690	0.8410	25.28	0.04	0.050			
0.0149	955.48	4.1680	4.1676	0.8401	25.28	0.04	0.050			
0.0158	1008.92	4.1670	4.1667	0.8441	25.28	0.04	0.050			
0.0166	1062.88	4.1660	4.1662	0.8473	25.28	0.04	0.050			
0.0175	1116.96	4.1650	4.1651	0.8513	25.28	0.04	0.050	0.320	0.481	
0.0183	1172.21	4.1640	4.1641	0.8551	25.27	0.03	0.050			
0.0192	1228.34	4.1630	4.1631	0.8564	25.26	0.02	0.050			
0.0201	1283.55	4.1620	4.1620	0.8592	25.26	0.02	0.050			
0.0209	1338.93	4.1610	4.1607	0.8623	25.26	0.02	0.050			
0.0218	1394.63	4.1600	4.1601	0.8625	25.26	0.02	0.050			
0.0227	1451.77	4.1590	4.1591	0.8581	25.26	0.02	0.050			
0.0236	1507.37	4.1580	4.1578	0.8575	25.25	0.01	0.050			
0.0244	1561.78	4.1570	4.1571	0.8577	25.26	0.02	0.050			
0.0253	1616.35	4.1560	4.1557	0.8575	25.26	0.02	0.050			
0.0261	1671.47	4.1550	4.1552	0.8544	25.26	0.02	0.050			
0.0270	1726.87	4.1540	4.1540	0.8514	25.25	0.01	0.050			
0.0278	1781.93	4.1530	4.1526	0.8476	25.25	0.01	0.050			
0.0287	1835.28	4.1520	4.1518	0.8471	25.26	0.02	0.050			
0.0295	1888.57	4.1510	4.1514	0.8482	25.26	0.02	0.050			
0.0303	1942.03	4.1500	4.1498	0.8449	25.26	0.02	0.050			
0.0312	1996.17	4.1490	4.1491	0.8445	25.26	0.02	0.050			
0.0320	2049.63	4.1480	4.1478	0.8465	25.26	0.02	0.050			
0.0328	2102.22	4.1470	4.1473	0.8467	25.27	0.03	0.050			
0.0337	2156.73	4.1460	4.1463	0.8448	25.28	0.04	0.050			
0.0345	2211.07	4.1450	4.1450	0.8451	25.28	0.04	0.050			
0.0354	2266.03	4.1440	4.1438	0.8457	25.28	0.04	0.050			
0.0363	2320.36	4.1430	4.1429	0.8475	25.28	0.04	0.050			
0.0371	2374.73	4.1420	4.1414	0.8446	25.28	0.04	0.050			
0.0379	2428.44	4.1410	4.1413	0.8476	25.28	0.04	0.050	0.386	0.617	
0.0388	2483.45	4.1400	4.1401	0.8480	25.28	0.04	0.050			
0.0396	2537.10	4.1390	4.1390	0.8575	25.28	0.04	0.050			
0.0405	2590.34	4.1380	4.1380	0.8665	25.28	0.04	0.050			
0.0413	2642.93	4.1370	4.1373	0.8664	25.28	0.04	0.050			
0.0422	2698.68	4.1360	4.1357	0.8743	25.28	0.04	0.050			
0.0431	2756.01	4.1350	4.1349	0.8804	25.28	0.04	0.050			
0.0440	2813.76	4.1340	4.1338	0.8855	25.27	0.03	0.050			
0.0449	2871.76	4.1330	4.1328	0.8844	25.27	0.03	0.050			
0.0457	2927.99	4.1320	4.1321	0.8828	25.27	0.03	0.050			
0.0467	2985.72	4.1310	4.1308	0.8831	25.28	0.04	0.050			
0.0476	3044.40	4.1300	4.1301	0.8853	25.28	0.04	0.050			
0.0485	3101.67	4.1290	4.1293	0.8851	25.28	0.04	0.050			
0.0494	3159.32	4.1280	4.1284	0.8838	25.28	0.04	0.050			
0.0503	3217.06	4.1270	4.1275	0.8814	25.29	0.05	0.050			
0.0512	3275.28	4.1260	4.1260	0.8758	25.30	0.06	0.050			
0.0521	3333.86	4.1250	4.1252	0.8738	25.30	0.06	0.050			
0.0530	3390.81	4.1240	4.1241	0.8643	25.30	0.06	0.050			
0.0538	3445.67	4.1230	4.1230	0.8577	25.30	0.06	0.050			
0.0547	3499.42	4.1220	4.1219	0.8491	25.30	0.06	0.050			
0.0555	3551.06	4.1210	4.1209	0.8440	25.30	0.06	0.050			
0.0563	3603.88	4.1200	4.1199	0.8367	25.30	0.06	0.050			
0.0571	3654.40	4.1190	4.1189	0.8281	25.31	0.07	0.050			
0.0579	3704.65	4.1180	4.1182	0.8283	25.30	0.06	0.050	-0.114	0.203	
0.0587	3756.73	4.1170	4.1172	0.8295	25.31	0.07	0.050			
0.0595	3810.16	4.1160	4.1160	0.8331	25.30	0.06	0.050			
0.0604	3863.84	4.1150	4.1149	0.8330	25.30	0.06	0.050			
0.0612	3917.86	4.1140	4.1137	0.8337	25.30	0.06	0.050			
0.0620	3970.94	4.1130	4.1131	0.8335	25.30	0.06	0.050			
0.0629	4023.88	4.1120	4.1120	0.8355	25.28	0.04	0.050			
0.0637	4076.66	4.1110	4.1110	0.8372	25.28	0.04	0.050			
0.0645	4130.03	4.1100	4.1101	0.8440	25.28	0.04	0.050			
0.0654	4184.31	4.1090	4.1091	0.8471	25.28	0.04	0.050			
0.0662	4239.16	4.1080	4.1083	0.8506	25.28	0.04	0.050			
0.0671	4294.96	4.1070	4.1071	0.8557	25.28	0.04	0.050			
0.0680	4350.21	4.1060	4.1062	0.8597	25.28	0.04	0.050			
0.0689	4407.00	4.1050	4.1050	0.8584	25.28	0.04	0.050			
0.0697	4461.24	4.1040	4.1038	0.8593	25.28	0.04	0.050			
0.0706	4515.73	4.1030	4.1032	0.8601	25.28	0.04	0.050			
0.0714	4570.95	4.1020	4.1022	0.8580	25.27	0.03	0.050			
0.0723	4626.21	4.1010	4.1008	0.8569	25.27	0.03	0.050			
0.0731	4681.26	4.1000	4.1001	0.8554	25.27	0.03	0.050			
0.0740	4736.36	4.0990	4.0989	0.8568	25.26	0.02	0.050			
0.0748	4790.16	4.0980	4.0982	0.8554	25.26	0.02	0.050			
0.0757	4844.91	4.0970	4.0972	0.8603	25.26	0.02	0.050			
0.0766	4901.03	4.0960	4.0962	0.8614	25.25	0.01	0.050			
0.0775	4957.93	4.0950	4.0946	0.8619	25.26	0.02	0.050	-0.072	0.402	
0.0783	5012.45	4.0940	4.0941	0.8613	25.25	0.01	0.050			
0.0792	5066.46	4.0930	4.0931	0.8577	25.24	0.00	0.050			
0.0800	5121.53	4.0920	4.0921	0.8560	25.24	0.00	0.050			
0.0809	5175.44	4.0910	4.0905	0.8546	25.24	0.00	0.050			
0.0817	5229.15	4.0900	4.0900	0.8556	25.24	0.00	0.050			
0.0826	5284.09	4.0890	4.0891	0.8571	25.23	-0.01	0.050			
0.0834	5339.86	4.0880	4.0882	0.8569	25.22	-0.02	0.050			
0.0843	5395.52	4.0870	4.0873	0.8594	25.22	-0.02	0.050			
0.0852	5450.22	4.0860	4.0858	0.8583	25.22	-0.02	0.050			
0.0860	5505.45	4.0850	4.0847	0.8570	25.22	-0.02	0.050			
0.0869	5560.45	4.0840	4.0839	0.8546	25.22	-0.02	0.050			
0.0877	5615.77	4.0830	4.0828	0.8553	25.22	-0.02	0.050			
0.0886	5670.78	4.0820	4.0817	0.8566	25.22	-0.02	0.050			
0.0895	5725.49	4.0810	4.0813	0.8589	25.22	-0.02	0.050			
0.0903	5779.90	4.0800	4.0802	0.8579	25.23	-0.01	0.050			
0.0911	5833.49	4.0790	4.0792	0.8567	25.23	-0.01	0.050			
0.0920	5887.75	4.0780	4.0779	0.8563	25.24	0.00	0.050			
0.0929	5943.07	4.0770	4.0770	0.8553	25.24	0.00	0.050			
0.0937	5999.21	4.0760	4.0761	0.8578	25.24	0.00	0.050			
0.0946	6053.85	4.0750	4.0749	0.8600	25.24	0.00	0.050			
0.0954	6108.13	4.0740	4.0741	0.8579	25.25	0.01	0.050			
0.0963	6162.89	4.0730	4.0730	0.8578	25.26	0.02	0.050			
0.0972	6218.71	4.0720	4.0719	0.8573	25.26	0.02	0.050			
0.0980	6272.53	4.0710	4.0713	0.8588	25.27	0.03	0.050	0.240	0.110	
0.0989	6326.52	4.0700	4.0702	0.8637	25.26	0.02	0.050			
0.0997	6380.08	4.0690	4.0690	0.8730	25.26	0.02	0.050			
0.1006	6436.22	4.0680	4.0679	0.8822	25.26	0.02	0.050			
0.1015	6492.91	4.0670	4.0670	0.8857	25.27	0.03	0.050			
0.1023	6549.38	4.0660	4.0661	0.8887	25.27	0.03	0.050			
0.1033	6608.25	4.0650	4.0649	0.8909	25.27	0.03	0.050			
0.1042	6667.26	4.0640	4.0639	0.8875	25.28	0.04	0.050			
0.1051	6725.08	4.0630	4.0631	0.8835	25.28	0.04	0.050			
0.1060	6782.83	4.0620	4.0613	0.8801	25.28	0.04	0.050			
0.1069	6839.49	4.0610	4.0610	0.8778	25.28	0.04	0.050			
0.1078	6896.98	4.0600	4.0599	0.8747	25.28	0.04	0.050			
0.1087	6953.90	4.0590	4.0594	0.8686	25.28	0.04	0.050			
0.1095	7011.04	4.0580	4.0584	0.8683	25.28	0.04	0.050			
0.1104	7066.21	4.0570	4.0573	0.8640	25.27	0.03	0.050			
0.1113	7121.63	4.0560	4.0563	0.8613	25.27	0.03	0.050			
0.1121	7173.83	4.0550	4.0550	0.8609	25.26	0.02	0.050			
0.1129	7228.06	4.0540	4.0537	0.8568	25.26	0.02	0.050			
0.1138	7282.40	4.0530	4.0526	0.8519	25.26	0.02	0.050			
0.1146	7335.33	4.0520	4.0520	0.8530	25.24	-0.00	0.050			
0.1154	7386.85	4.0510	4.0510	0.8455	25.22	-0.02	0.050			
0.1163	7440.08	4.0500	4.0498	0.8468	25.23	-0.01	0.050			
0.1171	7492.04	4.0490	4.0489	0.8482	25.22	-0.02	0.050			
0.1179	7546.87	4.0480	4.0480	0.8536	25.21	-0.03	0.050			
0.1188	7602.41	4.0470	4.0470	0.8615	25.21	-0.03	0.050			
0.1197	7659.14	4.0460	4.0460	0.8665	25.21	-0.03	0.050			
0.1206	7716.17	4.0450	4.0452	0.8690	25.20	-0.04	0.050			
0.1215	7773.16	4.0440	4.0439	0.8748	25.21	-0.03	0.050			
0.1223	7829.88	4.0430	4.0426	0.8767	25.21	-0.03	0.050			
0.1232	7885.26	4.0420	4.0422	0.8786	25.20	-0.04	0.050			
0.1241	7941.14	4.0410	4.0410	0.8798	25.19	-0.05	0.050			
0.1250	7998.81	4.0400	4.0398	0.8841	25.20	-0.04	0.050			
0.1259	8055.69	4.0390	4.0389	0.8834	25.20	-0.04	0.050			
0.1268	8112.62	4.0380	4.0380	0.8834	25.18	-0.06	0.050			
0.1276	8169.05	4.0370	4.0371	0.8794	25.18	-0.06	0.050			
0.1285	8225.17	4.0360	4.0357	0.8802	25.18	-0.06	0.050			
0.1294	8280.59	4.0350	4.0349	0.8784	25.18	-0.06	0.050			
0.1303	8336.89	4.0340	4.0338	0.8822	25.18	-0.06	0.050			
0.1312	8394.38	4.0330	4.0329	0.8843	25.18	-0.06	0.050			
0.1320	8450.20	4.0320	4.0319	0.8816	25.18	-0.06	0.050			
0.1329	8506.01	4.0310	4.0313	0.8839	25.17	-0.07	0.050			
0.1338	8562.61	4.0300	4.0302	0.8857	25.17	-0.07	0.050			
0.1347	8619.08	4.0290	4.0287	0.8857	25.17	-0.07	0.050			
0.1356	8677.13	4.0280	4.0283	0.8870	25.17	-0.07	0.050			
0.1365	8734.10	4.0270	4.0267	0.8877	25.17	-0.07	0.050			
0.1374	8790.84	4.0260	4.0261	0.8900	25.17	-0.07	0.050			
0.1383	8848.43	4.0250	4.0249	0.8886	25.17	-0.07	0.050			
0.1392	8905.64	4.0240	4.0240	0.8862	25.18	-0.06	0.050			
0.1400	8961.85	4.0230	4.0231	0.8859	25.17	-0.07	0.050			
0.1409	9018.26	4.0220	4.0216	0.8863	25.16	-0.08	0.050			
0.1418	9074.95	4.0210	4.0214	0.8894	25.16	-0.08	0.050			
0.1427	9132.65	4.0200	4.0197	0.8897	25.17	-0.07	0.050			
0.1436	9190.25	4.0190	4.0186	0.8884	25.16	-0.08	0.050			
0.1445	9246.91	4.0180	4.0180	0.8898	25.17	-0.07	0.050			
0.1454	9304.15	4.0170	4.0168	0.8926	25.17	-0.07	0.050			
0.1463	9362.16	4.0160	4.0161	0.8871	25.18	-0.06	0.050			
0.1471	9417.44	4.0150	4.0145	0.8876	25.17	-0.07	0.050			
0.1480	9472.89	4.0140	4.0141	0.8886	25.18	-0.06	0.050			
0.1489	9530.13	4.0130	4.0128	0.8906	25.18	-0.06	0.050			
0.1498	9586.77	4.0120	4.0121	0.8930	25.18	-0.06	0.050			
0.1506	9641.53	4.0110	4.0111	0.8976	25.18	-0.06	0.050			
0.1515	9698.31	4.0100	4.0096	0.9038	25.18	-0.06	0.050			
0.1524	9756.67	4.0090	4.0089	0.9094	25.19	-0.05	0.050			
0.1534	9815.50	4.0080	4.0077	0.9119	25.19	-0.05	0.050			
0.1543	9874.90	4.0070	4.0069	0.9157	25.20	-0.04	0.050			
0.1552	9933.42	4.0060	4.0056	0.9160	25.20	-0.04	0.050			
0.1561	9993.06	4.0050	4.0052	0.9198	25.20	-0.04	0.050			
0.1571	10052.96	4.0040	4.0040	0.9206	25.20	-0.04	0.050			
0.1580	10112.77	4.0030	4.0031	0.9235	25.22	-0.02	0.050			
0.1589	10171.87	4.0020	4.0021	0.9232	25.22	-0.02	0.050			
0.1599	10231.59	4.0010	4.0013	0.9246	25.23	-0.01	0.050			
0.1608	10291.82	4.0000	4.0002	0.9221	25.25	0.01	0.050			
0.1618	10352.64	3.9990	3.9992	0.9203	25.26	0.02	0.050			
0.1627	10411.73	3.9980	3.9981	0.9159	25.26	0.02	0.050			
0.1636	10470.60	3.9970	3.9968	0.9179	25.28	0.04	0.050			
0.1645	10530.11	3.9960	3.9959	0.9156	25.28	0.04	0.050			
0.1654	10587.57	3.9950	3.9952	0.9067	25.28	0.04	0.050			
0.1663	10645.17	3.9940	3.9939	0.9053	25.30	0.06	0.050			
0.1672	10702.82	3.9930	3.9932	0.9002	25.31	0.07	0.050			
0.1681	10759.91	3.9920	3.9920	0.8955	25.32	0.08	0.050			
0.1690	10814.67	3.9910	3.9912	0.8939	25.31	0.07	0.050			
0.1699	10870.69	3.9900	3.9900	0.8962	25.32	0.08	0.050			
0.1707	10927.97	3.9890	3.9886	0.9033	25.33	0.09	0.050			
0.1717	10986.08	3.9880	3.9878	0.9075	25.33	0.09	0.050			
0.1725	11043.12	3.9870	3.9873	0.9125	25.32	0.08	0.050			
0.1735	11100.87	3.9860	3.9859	0.9122	25.32	0.08	0.050			
0.1744	11159.38	3.9850	3.9848	0.9129	25.32	0.08	0.050			
0.1753	11219.28	3.9840	3.9843	0.9153	25.32	0.08	0.050			
0.1762	11278.07	3.9830	3.9826	0.9181	25.31	0.07	0.050			
0.1771	11336.56	3.9820	3.9819	0.9210	25.30	0.06	0.050			
0.1781	11396.38	3.9810	3.9810	0.9243	25.30	0.06	0.050			
0.1790	11457.04	3.9800	3.9800	0.9272	25.30	0.06	0.050			
0.1799	11516.03	3.9790	3.9792	0.9320	25.30	0.06	0.050			
0.1809	11575.89	3.9780	3.9778	0.9334	25.29	0.05	0.050			
0.1818	11635.85	3.9770	3.9774	0.9315	25.28	0.04	0.050			
0.1828	11696.31	3.9760	3.9762	0.9326	25.26	0.02	0.050			
0.1837	11757.87	3.9750	3.9749	0.9335	25.26	0.02	0.050			
0.1847	11817.62	3.9740	3.9738	0.9311	25.26	0.02	0.050			
0.1856	11877.41	3.9730	3.9731	0.9315	25.25	0.01	0.050			
0.1865	11936.66	3.9720	3.9722	0.9293	25.25	0.01	0.050			
0.1874	11993.86	3.9710	3.9708	0.9245	25.24	0.00	0.050			
0.1883	12052.54	3.9700	3.9701	0.9246	25.24	0.00	0.050			
0.1892	12111.83	3.9690	3.9693	0.9263	25.24	0.00	0.050			
0.1902	12171.91	3.9680	3.9683	0.9274	25.24	0.00	0.050			
0.1911	12231.01	3.9670	3.9673	0.9274	25.24	0.00	0.050			
0.1920	12290.69	3.9660	3.9661	0.9301	25.24	0.00	0.050			
0.1930	12349.82	3.9650	3.9647	0.9357	25.25	0.01	0.050			
0.1939	12409.67	3.9640	3.9638	0.9337	25.24	0.00	0.050			
0.1948	12469.90	3.9630	3.9627	0.9309	25.25	0.01	0.050			
0.1958	12529.90	3.9620	3.9620	0.9318	25.24	0.00	0.050			
0.1967	12588.87	3.9610	3.9607	0.9334	25.24	0.00	0.050			
0.1976	12648.55	3.9600	3.9598	0.9344	25.24	0.00	0.050	0.112	0.487	
0.1986	12707.23	3.9590	3.9589	0.9352	25.24	0.00	0.050			
0.1995	12767.86	3.9580	3.9584	0.9373	25.23	-0.01	0.050			
0.2004	12828.60	3.9570	3.9569	0.9424	25.23	-0.01	0.050			
0.2014	12890.44	3.9560	3.9560	0.9433	25.23	-0.01	0.050			
0.2024	12950.59	3.9550	3.9547	0.9416	25.22	-0.02	0.050			
0.2033	13010.24	3.9540	3.9541	0.9422	25.22	-0.02	0.050			
0.2042	13070.03	3.9530	3.9526	0.9430	25.23	-0.01	0.050			
0.2052	13130.90	3.9520	3.9522	0.9436	25.22	-0.02	0.050			
0.2061	13190.92	3.9510	3.9511	0.9423	25.21	-0.03	0.050			
0.2071	13251.74	3.9500	3.9502	0.9420	25.22	-0.02	0.050			
0.2080	13311.63	3.9490	3.9490	0.9445	25.22	-0.02	0.050			
0.2090	13373.77	3.9480	3.9479	0.9433	25.22	-0.02	0.050			
0.2099	13432.55	3.9470	3.9471	0.9451	25.22	-0.02	0.050			
0.2108	13490.63	3.9460	3.9459	0.9520	25.22	-0.02	0.050			
0.2117	13550.91	3.9450	3.9446	0.9560	25.22	-0.02	0.050			
0.2127	13612.35	3.9440	3.9442	0.9647	25.22	-0.02	0.050			
0.2137	13674.36	3.9430	3.9429	0.9716	25.22	-0.02	0.050			
0.2147	13739.81	3.9420	3.9421	0.9648	25.22	-0.02	0.050			
0.2157	13802.05	3.9410	3.9410	0.9592	25.22	-0.02	0.050			
0.2167	13865.77	3.9400	3.9397	0.9501	25.24	-0.00	0.050			
0.2176	13927.57	3.9390	3.9388	0.9489	25.24	0.00	0.050	0.006	0.121	
0.2186	13987.98	3.9380	3.9375	0.9488	25.26	0.02	0.050			
0.2195	14050.59	3.9370	3.9370	0.9441	25.26	0.02	0.050			
0.2205	14112.37	3.9360	3.9362	0.9381	25.26	0.02	0.050			
0.2214	14171.91	3.9350	3.9352	0.9387	25.27	0.03	0.050			
0.2224	14230.58	3.9340	3.9341	0.9367	25.27	0.03	0.050			
0.2233	14291.14	3.9330	3.9334	0.9334	25.26	0.02	0.050			
0.2242	14349.49	3.9320	3.9314	0.9316	25.26	0.02	0.050			
0.2251	14407.73	3.9310	3.9307	0.9327	25.26	0.02	0.050			
0.2260	14466.74	3.9300	3.9297	0.9293	25.26	0.02	0.050			
0.2269	14523.77	3.9290	3.9287	0.9276	25.26	0.02	0.050			
0.2278	14581.69	3.9280	3.9280	0.9315	25.26	0.02	0.050			
0.2287	14635.80	3.9270	3.9268	0.9290	25.25	0.01	0.050			
0.2296	14693.35	3.9260	3.9257	0.9340	25.24	0.00	0.050			
0.2305	14753.40	3.9250	3.9253	0.9475	25.26	0.02	0.050			
0.2315	14814.55	3.9240	3.9239	0.9588	25.26	0.02	0.050			
0.2325	14878.40	3.9230	3.9229	0.9683	25.25	0.01	0.050			
0.2335	14943.43	3.9220	3.9216	0.9765	25.26	0.02	0.050			
0.2345	15009.40	3.9210	3.9212	0.9856	25.24	0.00	0.050			
0.2355	15073.43	3.9200	3.9196	0.9831	25.24	0.00	0.050			
0.2365	15137.20	3.9190	3.9184	0.9816	25.24	0.00	0.050			
0.2375	15200.25	3.9180	3.9181	0.9805	25.24	0.00	0.050	-0.146	-0.226	
0.2385	15264.15	3.9170	3.9171	0.9858	25.24	0.00	0.050			
0.2395	15328.28	3.9160	3.9162	0.9869	25.24	0.00	0.050			
0.2405	15389.94	3.9150	3.9151	0.9840	25.24	0.00	0.050			
0.2415	15454.33	3.9140	3.9143	0.9874	25.24	0.00	0.050			
0.2425	15518.66	3.9130	3.9129	0.9841	25.25	0.01	0.050			
0.2435	15581.65	3.9120	3.9120	0.9821	25.24	0.00	0.050			
0.2444	15644.22	3.9110	3.9109	0.9784	25.24	0.00	0.050			
0.2454	15707.14	3.9100	3.9095	0.9786	25.26	0.02	0.050			
0.2464	15768.09	3.9090	3.9087	0.9744	25.26	0.02	0.050			
0.2473	15829.62	3.9080	3.9078	0.9677	25.26	0.02	0.050			
0.2483	15891.17	3.9070	3.9069	0.9614	25.27	0.03	0.050			
0.2493	15952.47	3.9060	3.9059	0.9636	25.27	0.03	0.050			
0.2502	16013.42	3.9050	3.9053	0.9672	25.26	0.02	0.050			
0.2512	16075.21	3.9040	3.9039	0.9695	25.28	0.04	0.050			
0.2522	16139.23	3.9030	3.9027	0.9703	25.28	0.04	0.050			
0.2532	16201.95	3.9020	3.9021	0.9699	25.28	0.04	0.050			
0.2541	16264.73	3.9010	3.9010	0.9661	25.28	0.04	0.050			
0.2551	16325.50	3.9000	3.9002	0.9733	25.28	0.04	0.050			
0.2561	16387.47	3.8990	3.8991	0.9706	25.28	0.04	0.050			
0.2570	16449.22	3.8980	3.8981	0.9690	25.27	0.03	0.050			
0.2580	16510.76	3.8970	3.8968	0.9659	25.28	0.04	0.050	0.039	-0.276	
0.2589	16572.36	3.8960	3.8959	0.9689	25.28	0.04	0.050			
0.2599	16634.42	3.8950	3.8952	0.9689	25.28	0.04	0.050			
0.2609	16696.40	3.8940	3.8942	0.9730	25.27	0.03	0.050			
0.2618	16757.21	3.8930	3.8930	0.9785	25.26	0.02	0.050			
0.2628	16818.90	3.8920	3.8917	0.9846	25.26	0.02	0.050			
0.2638	16880.37	3.8910	3.8910	0.9924	25.26	0.02	0.050			
0.2647	16943.22	3.8900	3.8903	0.9991	25.24	0.00	0.050			
0.2657	17007.46	3.8890	3.8893	1.0066	25.24	0.00	0.050			
0.2668	17074.26	3.8880	3.8879	1.0120	25.24	0.00	0.050			
0.2678	17139.79	3.8870	3.8865	1.0125	25.24	0.00	0.050			
0.2688	17204.80	3.8860	3.8861	1.0154	25.23	-0.01	0.050			
0.2699	17271.27	3.8850	3.8846	1.0137	25.23	-0.01	0.050			
0.2709	17337.49	3.8840	3.8836	1.0183	25.23	-0.01	0.050			
0.2719	17403.89	3.8830	3.8835	1.0200	25.24	0.00	0.050			
0.2730	17470.93	3.8820	3.8821	1.0185	25.25	0.01	0.050			
0.2740	17537.98	3.8810	3.8813	1.0145	25.26	0.02	0.050			
0.2750	17603.19	3.8800	3.8806	1.0099	25.28	0.04	0.050			
0.2761	17669.01	3.8790	3.8794	1.0093	25.28	0.04	0.050			
0.2771	17735.15	3.8780	3.8777	1.0044	25.29	0.05	0.050			
0.2781	17799.73	3.8770	3.8770	0.9977	25.30	0.06	0.050			
0.2791	17862.24	3.8760	3.8760	0.9900	25.31	0.07	0.050			
0.2801	17925.20	3.8750	3.8749	0.9850	25.32	0.08	0.050			
0.2810	17986.53	3.8740	3.8741	0.9745	25.32	0.08	0.050			
0.2820	18046.95	3.8730	3.8733	0.9663	25.33	0.09	0.050			
0.2829	18107.56	3.8720	3.8717	0.9602	25.34	0.10	0.050			
0.2839	18168.78	3.8710	3.8711	0.9539	25.35	0.11	0.050			
0.2848	18230.14	3.8700	3.8699	0.9502	25.35	0.11	0.050			
0.2858	18292.14	3.8690	3.8692	0.9460	25.34	0.10	0.050			
0.2868	18353.77	3.8680	3.8680	0.9445	25.36	0.12	0.050			
0.2877	18414.24	3.8670	3.8669	0.9369	25.36	0.12	0.050			
0.2887	18473.65	3.8660	3.8659	0.9315	25.35	0.11	0.050			
0.2896	18532.19	3.8650	3.8652	0.9313	25.34	0.10	0.050			
0.2905	18590.68	3.8640	3.8639	0.9258	25.34	0.10	0.050			
0.2915	18653.10	3.8630	3.8631	0.9169	25.33	0.09	0.050			
0.2924	18712.91	3.8620	3.8621	0.9069	25.33	0.09	0.050			
0.2933	18771.79	3.8610	3.8608	0.8971	25.32	0.08	0.050			
0.2942	18829.16	3.8600	3.8601	0.8855	25.32	0.08	0.050			
0.2951	18885.93	3.8590	3.8590	0.8739	25.32	0.08	0.050			
0.2960	18941.51	3.8580	3.8581	0.8688	25.30	0.06	0.050			
0.2968	18996.70	3.8570	3.8570	0.8595	25.29	0.05	0.050			
0.2977	19050.63	3.8560	3.8558	0.8476	25.28	0.04	0.050	0.388	0.551	
0.2985	19105.03	3.8550	3.8552	0.8338	25.26	0.02	0.050			
0.2994	19158.94	3.8540	3.8545	0.8252	25.26	0.02	0.050			
0.3002	19210.77	3.8530	3.8529	0.8157	25.26	0.02	0.050			
