Ah_balance (normalized)	Ah_balance (mAh)	Voltage - fit (V)	Voltage -  interpolate (V)	dQ/dV (1/V)	Temperature (°C)	Temperature - diff (°C)	Current (C)	R_DC 0ms (mOhm)	R_DC 50ms (mOhm)	R_DC 50 ms PEC (mOhm)
0.0002	14.73	4.1660	4.1658	-0.1193	25.59	0.01	-0.750			
0.0007	42.28	4.1630	4.1630	-0.1678	25.59	0.01	-0.750			
0.0013	80.22	4.1600	4.1599	-0.2162	25.59	0.01	-0.750			
0.0020	126.56	4.1570	4.1570	-0.2599	25.59	0.01	-0.750			
0.0028	180.80	4.1540	4.1540	-0.3022	25.58	0.00	-0.750			
0.0038	243.93	4.1510	4.1511	-0.3447	25.58	-0.00	-0.750			
0.0049	314.46	4.1480	4.1480	-0.3844	25.58	-0.00	-0.750			
0.0061	392.18	4.1450	4.1450	-0.4225	25.57	-0.01	-0.750			
0.0075	477.21	4.1420	4.1421	-0.4586	25.57	-0.01	-0.750			
0.0089	569.65	4.1390	4.1389	-0.4940	25.56	-0.02	-0.750			
0.0104	668.46	4.1360	4.1360	-0.5253	25.56	-0.02	-0.750			
0.0121	773.31	4.1330	4.1330	-0.5549	25.55	-0.03	-0.750			
0.0138	883.89	4.1300	4.1300	-0.5762	25.55	-0.03	-0.750			
0.0156	998.77	4.1270	4.1270	-0.5960	25.54	-0.04	-0.750			
0.0174	1114.42	4.1240	4.1240	-0.6123	25.54	-0.04	-0.750			
0.0193	1233.45	4.1210	4.1211	-0.6281	25.54	-0.04	-0.750			
0.0212	1354.39	4.1180	4.1180	-0.6433	25.53	-0.05	-0.750			
0.0231	1479.60	4.1150	4.1149	-0.6555	25.53	-0.05	-0.750			
0.0251	1608.24	4.1120	4.1121	-0.6693	25.53	-0.05	-0.750			
0.0272	1739.93	4.1090	4.1089	-0.6772	25.52	-0.06	-0.750			
0.0293	1872.35	4.1060	4.1061	-0.6856	25.52	-0.06	-0.750			
0.0313	2002.92	4.1030	4.1030	-0.6918	25.52	-0.06	-0.750			
0.0334	2135.05	4.1000	4.1000	-0.6986	25.51	-0.07	-0.750			
0.0355	2269.60	4.0970	4.0969	-0.7002	25.51	-0.07	-0.750			
0.0376	2406.35	4.0940	4.0940	-0.7110	25.51	-0.07	-0.750			
0.0398	2544.95	4.0910	4.0911	-0.7171	25.50	-0.08	-0.750			
0.0419	2682.99	4.0880	4.0880	-0.7225	25.50	-0.08	-0.750			
0.0441	2821.82	4.0850	4.0850	-0.7272	25.50	-0.08	-0.750			
0.0463	2960.64	4.0820	4.0820	-0.7287	25.50	-0.08	-0.750			
0.0485	3103.13	4.0790	4.0789	-0.7354	25.50	-0.08	-0.750			
0.0507	3245.04	4.0760	4.0760	-0.7374	25.50	-0.08	-0.750			
0.0529	3386.55	4.0730	4.0730	-0.7392	25.50	-0.08	-0.750			
0.0551	3528.47	4.0700	4.0698	-0.7420	25.50	-0.08	-0.750			
0.0574	3670.71	4.0670	4.0669	-0.7392	25.50	-0.08	-0.750			
0.0596	3812.12	4.0640	4.0640	-0.7470	25.50	-0.08	-0.750			
0.0618	3955.47	4.0610	4.0611	-0.7483	25.50	-0.08	-0.750			
0.0641	4102.82	4.0580	4.0579	-0.7539	25.50	-0.08	-0.750			
0.0664	4247.86	4.0550	4.0552	-0.7517	25.50	-0.08	-0.750			
0.0686	4391.43	4.0520	4.0520	-0.7509	25.50	-0.08	-0.750			
0.0709	4535.02	4.0490	4.0491	-0.7561	25.50	-0.08	-0.750			
0.0731	4681.35	4.0460	4.0459	-0.7555	25.50	-0.08	-0.750			
0.0754	4825.70	4.0430	4.0429	-0.7589	25.50	-0.08	-0.750			
0.0777	4971.65	4.0400	4.0401	-0.7637	25.50	-0.08	-0.750			
0.0800	5119.40	4.0370	4.0370	-0.7676	25.50	-0.08	-0.750			
0.0823	5266.74	4.0340	4.0339	-0.7706	25.50	-0.08	-0.750			
0.0846	5414.02	4.0310	4.0310	-0.7704	25.50	-0.08	-0.750			
0.0869	5561.93	4.0280	4.0281	-0.7730	25.50	-0.08	-0.750			
0.0893	5714.14	4.0250	4.0249	-0.7794	25.50	-0.08	-0.750			
0.0916	5862.32	4.0220	4.0221	-0.7777	25.50	-0.08	-0.750			
0.0939	6011.56	4.0190	4.0190	-0.7765	25.50	-0.08	-0.750			
0.0963	6160.62	4.0160	4.0160	-0.7808	25.50	-0.08	-0.750			
0.0986	6310.86	4.0130	4.0130	-0.7848	25.51	-0.07	-0.750			
0.1010	6461.59	4.0100	4.0100	-0.7856	25.51	-0.07	-0.750			
0.1033	6612.60	4.0070	4.0071	-0.7872	25.51	-0.07	-0.750			
0.1057	6764.68	4.0040	4.0040	-0.7891	25.51	-0.07	-0.750			
0.1081	6915.77	4.0010	4.0011	-0.7924	25.51	-0.07	-0.750			
0.1104	7068.75	3.9980	3.9979	-0.7936	25.52	-0.06	-0.750			
0.1128	7220.43	3.9950	3.9949	-0.7924	25.52	-0.06	-0.750			
0.1152	7373.93	3.9920	3.9921	-0.7897	25.52	-0.06	-0.750			
0.1176	7526.39	3.9890	3.9889	-0.7851	25.52	-0.06	-0.750			
0.1199	7674.56	3.9860	3.9860	-0.7937	25.53	-0.05	-0.750			
0.1223	7826.68	3.9830	3.9830	-0.7977	25.53	-0.05	-0.750			
0.1247	7978.00	3.9800	3.9799	-0.7988	25.53	-0.05	-0.750			
0.1271	8134.97	3.9770	3.9769	-0.8082	25.54	-0.04	-0.750			
0.1295	8291.05	3.9740	3.9741	-0.8145	25.54	-0.04	-0.750			
0.1320	8448.39	3.9710	3.9710	-0.8218	25.54	-0.04	-0.750			
0.1345	8608.48	3.9680	3.9680	-0.8209	25.54	-0.04	-0.750			
0.1369	8763.41	3.9650	3.9649	-0.8135	25.55	-0.03	-0.750			
0.1394	8922.75	3.9620	3.9620	-0.8160	25.55	-0.03	-0.750			
0.1419	9078.49	3.9590	3.9591	-0.8194	25.55	-0.03	-0.750			
0.1443	9235.14	3.9560	3.9561	-0.8167	25.55	-0.03	-0.750			
0.1467	9391.58	3.9530	3.9529	-0.8208	25.55	-0.03	-0.750			
0.1492	9549.70	3.9500	3.9500	-0.8225	25.56	-0.02	-0.750			
0.1517	9709.42	3.9470	3.9470	-0.8316	25.56	-0.02	-0.750			
0.1542	9869.04	3.9440	3.9441	-0.8300	25.56	-0.02	-0.750			
0.1567	10030.43	3.9410	3.9410	-0.8310	25.56	-0.02	-0.750			
0.1592	10189.73	3.9380	3.9380	-0.8326	25.57	-0.01	-0.750			
0.1617	10349.46	3.9350	3.9349	-0.8339	25.57	-0.01	-0.750			
0.1642	10510.26	3.9320	3.9319	-0.8391	25.58	-0.00	-0.750			
0.1667	10670.82	3.9290	3.9291	-0.8394	25.58	0.00	-0.750			
0.1692	10831.71	3.9260	3.9259	-0.8417	25.58	0.00	-0.750			
0.1718	10995.09	3.9230	3.9230	-0.8428	25.58	0.00	-0.750			
0.1743	11155.09	3.9200	3.9201	-0.8385	25.59	0.01	-0.750			
0.1769	11318.79	3.9170	3.9170	-0.8465	25.59	0.01	-0.750			
0.1794	11480.73	3.9140	3.9140	-0.8442	25.59	0.01	-0.750			
0.1819	11640.12	3.9110	3.9110	-0.8487	25.60	0.02	-0.750			
0.1844	11803.70	3.9080	3.9080	-0.8551	25.60	0.02	-0.750			
0.1870	11968.94	3.9050	3.9049	-0.8574	25.60	0.02	-0.750			
0.1896	12136.49	3.9020	3.9019	-0.8627	25.61	0.03	-0.750			
0.1922	12302.90	3.8990	3.8991	-0.8587	25.61	0.03	-0.750			
0.1948	12467.21	3.8960	3.8960	-0.8656	25.61	0.03	-0.750			
0.1974	12633.58	3.8930	3.8930	-0.8670	25.61	0.03	-0.750			
0.2000	12798.41	3.8900	3.8899	-0.8593	25.62	0.04	-0.750			
0.2026	12964.99	3.8870	3.8868	-0.8596	25.62	0.04	-0.750			
0.2052	13129.81	3.8840	3.8840	-0.8644	25.62	0.04	-0.750			
0.2077	13295.26	3.8810	3.8809	-0.8648	25.63	0.05	-0.750			
0.2103	13461.21	3.8780	3.8781	-0.8666	25.63	0.05	-0.750			
0.2129	13625.57	3.8750	3.8749	-0.8631	25.63	0.05	-0.750			
0.2156	13795.93	3.8720	3.8721	-0.8733	25.64	0.06	-0.750			
0.2182	13964.70	3.8690	3.8689	-0.8786	25.64	0.06	-0.750			
0.2208	14132.71	3.8660	3.8660	-0.8809	25.65	0.07	-0.750			
0.2235	14301.10	3.8630	3.8629	-0.8770	25.65	0.07	-0.750			
0.2261	14468.25	3.8600	3.8600	-0.8780	25.66	0.08	-0.750			
0.2287	14637.89	3.8570	3.8570	-0.8796	25.66	0.08	-0.750			
0.2314	14806.69	3.8540	3.8540	-0.8817	25.66	0.08	-0.750			
0.2340	14977.20	3.8510	3.8510	-0.8831	25.67	0.09	-0.750			
0.2367	15146.47	3.8480	3.8480	-0.8803	25.67	0.09	-0.750			
0.2393	15315.59	3.8450	3.8451	-0.8788	25.68	0.10	-0.750			
0.2420	15485.15	3.8420	3.8421	-0.8797	25.68	0.10	-0.750			
0.2446	15652.93	3.8390	3.8390	-0.8788	25.69	0.11	-0.750			
0.2472	15821.97	3.8360	3.8359	-0.8786	25.69	0.11	-0.750			
0.2498	15990.00	3.8330	3.8330	-0.8765	25.69	0.11	-0.750			
0.2525	16157.96	3.8300	3.8300	-0.8803	25.70	0.12	-0.750			
0.2551	16328.40	3.8270	3.8269	-0.8807	25.70	0.12	-0.750			
0.2578	16496.65	3.8240	3.8240	-0.8858	25.71	0.13	-0.750			
0.2604	16666.18	3.8210	3.8209	-0.8854	25.71	0.13	-0.750			
0.2631	16836.27	3.8180	3.8180	-0.8867	25.72	0.14	-0.750			
0.2658	17009.36	3.8150	3.8150	-0.8883	25.72	0.14	-0.750			
0.2684	17179.21	3.8120	3.8120	-0.8895	25.72	0.14	-0.750			
0.2711	17350.06	3.8090	3.8090	-0.8907	25.73	0.15	-0.750			
0.2738	17521.66	3.8060	3.8060	-0.8846	25.73	0.15	-0.750			
0.2764	17689.79	3.8030	3.8030	-0.8790	25.74	0.16	-0.750			
0.2790	17858.29	3.8000	3.8002	-0.8852	25.74	0.16	-0.750			
0.2817	18028.07	3.7970	3.7969	-0.8853	25.74	0.16	-0.750			
0.2844	18198.95	3.7940	3.7939	-0.8842	25.74	0.16	-0.750			
0.2870	18367.57	3.7910	3.7910	-0.8820	25.75	0.17	-0.750			
0.2897	18538.57	3.7880	3.7881	-0.8824	25.75	0.17	-0.750			
0.2923	18709.30	3.7850	3.7850	-0.8818	25.75	0.17	-0.750			
0.2949	18876.64	3.7820	3.7819	-0.8811	25.76	0.18	-0.750			
0.2976	19044.56	3.7790	3.7790	-0.8794	25.76	0.18	-0.750			
0.3002	19214.75	3.7760	3.7759	-0.8785	25.76	0.18	-0.750			
0.3029	19383.55	3.7730	3.7730	-0.8773	25.77	0.19	-0.750			
0.3055	19552.17	3.7700	3.7700	-0.8743	25.77	0.19	-0.750			
0.3081	19719.43	3.7670	3.7670	-0.8751	25.78	0.20	-0.750			
0.3107	19886.79	3.7640	3.7640	-0.8719	25.78	0.20	-0.750			
0.3133	20053.71	3.7610	3.7610	-0.8703	25.79	0.21	-0.750			
0.3160	20222.72	3.7580	3.7581	-0.8712	25.79	0.21	-0.750			
0.3186	20389.84	3.7550	3.7550	-0.8707	25.79	0.21	-0.750			
0.3212	20556.25	3.7520	3.7521	-0.8677	25.80	0.22	-0.750			
0.3238	20721.38	3.7490	3.7490	-0.8726	25.80	0.22	-0.750			
0.3264	20888.29	3.7460	3.7459	-0.8718	25.81	0.23	-0.750			
0.3290	21056.44	3.7430	3.7430	-0.8774	25.81	0.23	-0.750			
0.3316	21223.59	3.7400	3.7401	-0.8915	25.81	0.23	-0.750			
0.3343	21398.27	3.7370	3.7370	-0.8973	25.81	0.23	-0.750			
0.3371	21571.58	3.7340	3.7339	-0.9014	25.82	0.24	-0.750			
0.3398	21744.64	3.7310	3.7310	-0.9083	25.82	0.24	-0.750			
0.3425	21919.02	3.7280	3.7281	-0.9125	25.82	0.24	-0.750			
0.3453	22096.47	3.7250	3.7249	-0.9270	25.82	0.24	-0.750			
0.3480	22274.30	3.7220	3.7220	-0.9304	25.83	0.25	-0.750			
0.3508	22451.92	3.7190	3.7190	-0.9314	25.83	0.25	-0.750			
0.3536	22632.19	3.7160	3.7163	-0.9518	25.83	0.25	-0.750			
0.3565	22816.13	3.7130	3.7130	-0.9672	25.83	0.25	-0.750			
0.3594	23003.97	3.7100	3.7099	-0.9750	25.84	0.26	-0.750			
0.3624	23192.23	3.7070	3.7069	-0.9866	25.84	0.26	-0.750			
0.3654	23382.91	3.7040	3.7041	-1.0097	25.85	0.27	-0.750			
0.3684	23577.69	3.7010	3.7009	-1.0321	25.85	0.27	-0.750			
0.3715	23777.74	3.6980	3.6979	-1.0490	25.85	0.27	-0.750			
0.3747	23978.93	3.6950	3.6949	-1.0635	25.85	0.27	-0.750			
0.3779	24183.41	3.6920	3.6921	-1.0875	25.85	0.27	-0.750			
0.3812	24399.21	3.6890	3.6889	-1.1236	25.84	0.26	-0.750			
0.3846	24617.57	3.6860	3.6858	-1.1355	25.84	0.26	-0.750			
0.3881	24836.35	3.6830	3.6830	-1.1487	25.83	0.25	-0.750			
0.3915	25057.26	3.6800	3.6802	-1.1800	25.82	0.24	-0.750			
0.3951	25288.48	3.6770	3.6770	-1.2096	25.82	0.24	-0.750			
0.3988	25523.35	3.6740	3.6738	-1.2309	25.82	0.24	-0.750			
0.4025	25757.02	3.6710	3.6710	-1.2601	25.82	0.24	-0.750			
0.4063	26004.70	3.6680	3.6681	-1.2914	25.82	0.24	-0.750			
0.4103	26258.01	3.6650	3.6650	-1.3144	25.81	0.23	-0.750			
0.4143	26512.07	3.6620	3.6619	-1.3600	25.81	0.23	-0.750			
0.4184	26776.69	3.6590	3.6590	-1.3841	25.81	0.23	-0.750			
0.4226	27045.61	3.6560	3.6558	-1.4238	25.80	0.22	-0.750			
0.4269	27323.43	3.6530	3.6532	-1.4541	25.79	0.21	-0.750			
0.4313	27605.28	3.6500	3.6499	-1.4769	25.79	0.21	-0.750			
0.4358	27891.55	3.6470	3.6469	-1.5179	25.78	0.20	-0.750			
0.4404	28184.30	3.6440	3.6441	-1.5441	25.77	0.19	-0.750			
0.4450	28480.10	3.6410	3.6410	-1.5836	25.76	0.18	-0.750			
0.4499	28792.01	3.6380	3.6378	-1.6434	25.76	0.18	-0.750			
0.4549	29115.62	3.6350	3.6349	-1.6658	25.75	0.17	-0.750			
0.4600	29440.15	3.6320	3.6322	-1.7060	25.74	0.16	-0.750			
0.4653	29777.18	3.6290	3.6290	-1.7350	25.73	0.15	-0.750	0.413	0.499	
0.4704	30107.66	3.6260	3.6260	-1.7665	25.73	0.15	-0.750			
0.4758	30450.71	3.6230	3.6229	-1.7791	25.72	0.14	-0.750			
0.4810	30786.86	3.6200	3.6202	-1.8263	25.72	0.14	-0.750			
0.4866	31143.43	3.6170	3.6170	-1.8431	25.71	0.13	-0.750			
0.4922	31500.12	3.6140	3.6140	-1.8870	25.70	0.12	-0.750			
0.4979	31863.62	3.6110	3.6110	-1.9124	25.69	0.11	-0.750			
0.5037	32234.06	3.6080	3.6083	-1.9612	25.68	0.10	-0.750			
0.5096	32613.85	3.6050	3.6050	-2.0053	25.67	0.09	-0.750			
0.5158	33009.28	3.6020	3.6015	-2.0487	25.66	0.08	-0.750			
0.5219	33400.18	3.5990	3.5992	-2.0745	25.66	0.08	-0.750			
0.5283	33812.06	3.5960	3.5961	-2.1284	25.66	0.08	-0.750			
0.5347	34217.88	3.5930	3.5928	-2.1541	25.65	0.07	-0.750			
0.5412	34634.18	3.5900	3.5901	-2.1869	25.64	0.06	-0.750			
0.5478	35061.42	3.5870	3.5871	-2.2245	25.63	0.05	-0.750			
0.5546	35492.92	3.5840	3.5839	-2.2666	25.63	0.05	-0.750			
0.5614	35932.41	3.5810	3.5810	-2.2787	25.64	0.06	-0.750			
0.5683	36372.36	3.5780	3.5781	-2.3157	25.64	0.06	-0.750			
0.5753	36821.49	3.5750	3.5751	-2.3309	25.63	0.05	-0.750			
0.5823	37266.08	3.5720	3.5719	-2.3593	25.62	0.04	-0.750			
0.5894	37722.11	3.5690	3.5691	-2.3846	25.62	0.04	-0.750			
0.5967	38187.93	3.5660	3.5659	-2.4053	25.62	0.04	-0.750			
0.6040	38653.46	3.5630	3.5631	-2.4086	25.61	0.03	-0.750			
0.6112	39119.37	3.5600	3.5600	-2.3998	25.62	0.04	-0.750			
0.6184	39578.64	3.5570	3.5570	-2.3881	25.62	0.04	-0.750			
0.6256	40036.33	3.5540	3.5540	-2.3703	25.62	0.04	-0.750			
0.6326	40483.79	3.5510	3.5510	-2.3611	25.62	0.04	-0.750			
0.6396	40937.49	3.5480	3.5479	-2.3502	25.62	0.04	-0.750			
0.6468	41392.44	3.5450	3.5451	-2.3465	25.62	0.04	-0.750			
0.6539	41848.95	3.5420	3.5421	-2.3169	25.62	0.04	-0.750			
0.6608	42293.26	3.5390	3.5390	-2.2822	25.62	0.04	-0.750			
0.6676	42726.37	3.5360	3.5360	-2.2336	25.62	0.04	-0.750			
0.6742	43151.78	3.5330	3.5331	-2.1824	25.63	0.05	-0.750			
0.6807	43562.07	3.5300	3.5300	-2.1345	25.64	0.06	-0.750			
0.6870	43969.21	3.5270	3.5270	-2.0741	25.64	0.06	-0.750			
0.6932	44362.41	3.5240	3.5239	-2.0299	25.64	0.06	-0.750			
0.6992	44751.21	3.5210	3.5211	-1.9733	25.65	0.07	-0.750			
0.7051	45126.71	3.5180	3.5181	-1.9114	25.66	0.08	-0.750			
0.7108	45488.54	3.5150	3.5149	-1.8547	25.68	0.10	-0.750			
0.7162	45836.02	3.5120	3.5123	-1.7878	25.69	0.11	-0.750			
0.7215	46176.26	3.5090	3.5090	-1.7190	25.70	0.12	-0.750			
0.7266	46504.33	3.5060	3.5060	-1.6506	25.72	0.14	-0.750			
0.7314	46810.49	3.5030	3.5029	-1.5835	25.73	0.15	-0.750			
0.7361	47110.78	3.5000	3.5000	-1.5331	25.74	0.16	-0.750			
0.7406	47396.26	3.4970	3.4970	-1.4745	25.76	0.18	-0.750			
0.7448	47670.29	3.4940	3.4940	-1.4229	25.77	0.19	-0.750			
0.7491	47941.20	3.4910	3.4909	-1.3786	25.79	0.21	-0.750			
0.7532	48204.96	3.4880	3.4882	-1.3419	25.81	0.23	-0.750			
0.7571	48457.47	3.4850	3.4849	-1.2962	25.82	0.24	-0.750			
0.7609	48699.32	3.4820	3.4819	-1.2415	25.83	0.25	-0.750			
0.7646	48934.81	3.4790	3.4790	-1.2018	25.85	0.27	-0.750			
0.7681	49161.31	3.4760	3.4759	-1.1680	25.86	0.28	-0.750			
0.7716	49384.25	3.4730	3.4729	-1.1284	25.87	0.29	-0.750			
0.7750	49597.71	3.4700	3.4700	-1.0906	25.89	0.31	-0.750			
0.7781	49801.33	3.4670	3.4672	-1.0525	25.90	0.32	-0.750			
0.7813	50000.69	3.4640	3.4639	-1.0230	25.91	0.33	-0.750			
0.7843	50192.92	3.4610	3.4610	-0.9968	25.92	0.34	-0.750			
0.7872	50378.85	3.4580	3.4580	-0.9716	25.93	0.35	-0.750			
0.7900	50560.18	3.4550	3.4549	-0.9549	25.94	0.36	-0.750			
0.7929	50743.64	3.4520	3.4519	-0.9488	25.95	0.37	-0.750			
0.7957	50922.98	3.4490	3.4490	-0.9564	25.95	0.37	-0.750			
0.7985	51103.29	3.4460	3.4460	-0.9694	25.96	0.38	-0.750			
0.8014	51287.80	3.4430	3.4429	-0.9958	25.97	0.39	-0.750			
0.8044	51481.08	3.4400	3.4401	-1.0399	25.98	0.40	-0.750			
0.8075	51682.13	3.4370	3.4369	-1.0842	25.99	0.41	-0.750			
0.8109	51895.87	3.4340	3.4339	-1.1285	26.00	0.42	-0.750			
0.8144	52119.25	3.4310	3.4310	-1.1637	26.01	0.43	-0.750			
0.8180	52350.60	3.4280	3.4280	-1.1921	26.01	0.43	-0.750			
0.8216	52585.46	3.4250	3.4250	-1.1975	26.02	0.44	-0.750			
0.8253	52820.23	3.4220	3.4220	-1.1921	26.02	0.44	-0.750			
0.8289	53048.80	3.4190	3.4192	-1.1793	26.03	0.45	-0.750			
0.8325	53277.68	3.4160	3.4159	-1.1426	26.04	0.46	-0.750			
0.8359	53497.22	3.4130	3.4130	-1.1062	26.04	0.46	-0.750			
0.8391	53704.70	3.4100	3.4099	-1.0629	26.05	0.47	-0.750			
0.8423	53904.68	3.4070	3.4070	-1.0230	26.05	0.47	-0.750			
0.8452	54095.77	3.4040	3.4039	-0.9859	26.06	0.48	-0.750			
0.8481	54280.27	3.4010	3.4009	-0.9431	26.07	0.49	-0.750			
0.8509	54455.74	3.3980	3.3980	-0.9011	26.08	0.50	-0.750			
0.8536	54629.26	3.3950	3.3953	-0.8751	26.09	0.51	-0.750			
0.8561	54793.39	3.3920	3.3919	-0.8373	26.09	0.51	-0.750			
0.8586	54949.24	3.3890	3.3889	-0.8028	26.10	0.52	-0.750			
0.8609	55096.72	3.3860	3.3859	-0.7692	26.10	0.52	-0.750			
0.8632	55243.59	3.3830	3.3831	-0.7439	26.11	0.53	-0.750			
0.8654	55383.57	3.3800	3.3800	-0.7144	26.11	0.53	-0.750			
0.8675	55518.18	3.3770	3.3769	-0.6862	26.11	0.53	-0.750			
0.8695	55646.86	3.3740	3.3740	-0.6575	26.12	0.54	-0.750			
0.8714	55768.57	3.3710	3.3710	-0.6315	26.13	0.55	-0.750			
0.8732	55887.55	3.3680	3.3680	-0.6048	26.13	0.55	-0.750			
0.8750	56001.54	3.3650	3.3649	-0.5792	26.14	0.56	-0.750			
0.8767	56111.27	3.3620	3.3620	-0.5572	26.14	0.56	-0.750			
0.8784	56215.20	3.3590	3.3590	-0.5326	26.15	0.57	-0.750			
0.8799	56314.82	3.3560	3.3559	-0.5098	26.16	0.58	-0.750			
0.8814	56410.42	3.3530	3.3530	-0.4852	26.16	0.58	-0.750			
0.8828	56500.42	3.3500	3.3500	-0.4658	26.17	0.59	-0.750			
0.8842	56588.12	3.3470	3.3470	-0.4493	26.18	0.60	-0.750			
0.8855	56673.23	3.3440	3.3439	-0.4289	26.18	0.60	-0.750			
0.8868	56753.29	3.3410	3.3410	-0.4102	26.19	0.61	-0.750			
0.8880	56830.36	3.3380	3.3381	-0.3925	26.19	0.61	-0.750			
0.8891	56904.27	3.3350	3.3350	-0.3756	26.20	0.62	-0.750			
0.8902	56974.55	3.3320	3.3318	-0.3601	26.21	0.63	-0.750			
0.8913	57040.93	3.3290	3.3292	-0.3438	26.21	0.63	-0.750			
0.8923	57105.43	3.3260	3.3260	-0.3293	26.22	0.64	-0.750			
0.8932	57167.68	3.3230	3.3230	-0.3179	26.22	0.64	-0.750			
0.8942	57227.22	3.3200	3.3200	-0.3036	26.22	0.64	-0.750			
0.8951	57284.14	3.3170	3.3170	-0.2917	26.23	0.65	-0.750			
0.8959	57338.70	3.3140	3.3140	-0.2805	26.23	0.65	-0.750			
0.8967	57390.96	3.3110	3.3110	-0.2686	26.24	0.66	-0.750			
0.8975	57441.75	3.3080	3.3079	-0.2591	26.24	0.66	-0.750			
0.8983	57490.17	3.3050	3.3050	-0.2506	26.24	0.66	-0.750			
0.8990	57536.71	3.3020	3.3020	-0.2425	26.25	0.67	-0.750			
0.8997	57582.66	3.2990	3.2990	-0.2360	26.25	0.67	-0.750			
0.9004	57627.13	3.2960	3.2960	-0.2293	26.25	0.67	-0.750			
0.9011	57670.40	3.2930	3.2930	-0.2227	26.26	0.68	-0.750			
0.9018	57712.81	3.2900	3.2900	-0.2166	26.26	0.68	-0.750			
0.9024	57753.80	3.2870	3.2871	-0.2103	26.26	0.68	-0.750			
0.9030	57793.90	3.2840	3.2840	-0.2044	26.27	0.69	-0.750			
0.9036	57832.17	3.2810	3.2812	-0.1979	26.27	0.69	-0.750			
0.9042	57869.03	3.2780	3.2778	-0.1922	26.28	0.70	-0.750			
0.9048	57905.50	3.2750	3.2752	-0.1877	26.28	0.70	-0.750			
0.9053	57940.90	3.2720	3.2720	-0.1829	26.28	0.70	-0.750			
0.9059	57975.52	3.2690	3.2689	-0.1784	26.29	0.71	-0.750			
0.9064	58009.51	3.2660	3.2661	-0.1744	26.29	0.71	-0.750			
0.9069	58042.58	3.2630	3.2630	-0.1701	26.30	0.72	-0.750			
0.9074	58074.68	3.2600	3.2600	-0.1668	26.30	0.72	-0.750			
0.9079	58106.01	3.2570	3.2570	-0.1637	26.31	0.73	-0.750			
0.9084	58136.70	3.2540	3.2540	-0.1603	26.31	0.73	-0.750			
0.9089	58167.48	3.2510	3.2510	-0.1573	26.32	0.74	-0.750			
0.9093	58197.59	3.2480	3.2480	-0.1546	26.32	0.74	-0.750			
0.9098	58226.93	3.2450	3.2451	-0.1523	26.32	0.74	-0.750			
0.9103	58256.04	3.2420	3.2420	-0.1498	26.33	0.75	-0.750			
0.9107	58284.51	3.2390	3.2389	-0.1469	26.33	0.75	-0.750			
0.9111	58312.22	3.2360	3.2360	-0.1439	26.33	0.75	-0.750			
0.9116	58339.39	3.2330	3.2331	-0.1415	26.34	0.76	-0.750			
0.9120	58366.38	3.2300	3.2300	-0.1396	26.34	0.76	-0.750			
0.9124	58393.20	3.2270	3.2270	-0.1376	26.35	0.77	-0.750			
0.9128	58419.19	3.2240	3.2240	-0.1358	26.35	0.77	-0.750			
0.9132	58444.96	3.2210	3.2210	-0.1336	26.35	0.77	-0.750			
0.9136	58470.46	3.2180	3.2180	-0.1321	26.36	0.78	-0.750			
0.9140	58495.79	3.2150	3.2150	-0.1306	26.36	0.78	-0.750			
0.9144	58520.75	3.2120	3.2121	-0.1290	26.36	0.78	-0.750			
0.9148	58545.27	3.2090	3.2090	-0.1273	26.37	0.79	-0.750			
0.9152	58569.65	3.2060	3.2060	-0.1255	26.37	0.79	-0.750			
0.9155	58593.70	3.2030	3.2030	-0.1238	26.37	0.79	-0.750			
0.9159	58616.94	3.2000	3.2001	-0.1224	26.37	0.79	-0.750			
0.9163	58640.33	3.1970	3.1970	-0.1212	26.37	0.79	-0.750			
0.9166	58663.54	3.1940	3.1940	-0.1198	26.38	0.80	-0.750			
0.9170	58686.41	3.1910	3.1909	-0.1184	26.38	0.80	-0.750			
0.9173	58709.04	3.1880	3.1881	-0.1167	26.38	0.80	-0.750			
0.9177	58731.39	3.1850	3.1851	-0.1153	26.39	0.81	-0.750			
0.9180	58753.24	3.1820	3.1820	-0.1144	26.39	0.81	-0.750			
0.9184	58775.19	3.1790	3.1790	-0.1133	26.40	0.82	-0.750			
0.9187	58796.52	3.1760	3.1758	-0.1114	26.40	0.82	-0.750			
0.9190	58817.85	3.1730	3.1731	-0.1107	26.40	0.82	-0.750			
0.9194	58839.09	3.1700	3.1698	-0.1099	26.41	0.83	-0.750			
0.9197	58860.11	3.1670	3.1672	-0.1090	26.41	0.83	-0.750			
0.9200	58881.01	3.1640	3.1640	-0.1085	26.42	0.84	-0.750			
