Ah_balance (normalized)	Ah_balance (mAh)	Voltage - fit (V)	Voltage -  interpolate (V)	dQ/dV (1/V)	Temperature (°C)	Temperature - diff (°C)	Current (C)	R_DC 0ms (mOhm)	R_DC 50ms (mOhm)	R_DC 50 ms PEC (mOhm)
0.0002	11.10	4.1660	4.1661	-0.1320	25.99	0.00	-0.750			
0.0007	41.74	4.1630	4.1629	-0.1816	25.99	0.00	-0.750			
0.0013	80.22	4.1600	4.1599	-0.2242	25.99	0.00	-0.750			
0.0020	127.66	4.1570	4.1570	-0.2696	25.99	0.00	-0.750			
0.0029	183.39	4.1540	4.1540	-0.3157	25.99	-0.00	-0.750			
0.0039	248.22	4.1510	4.1509	-0.3625	25.99	-0.00	-0.750			
0.0050	323.00	4.1480	4.1481	-0.4051	25.98	-0.01	-0.750			
0.0063	405.19	4.1450	4.1448	-0.4467	25.98	-0.01	-0.750			
0.0077	495.72	4.1420	4.1421	-0.4901	25.98	-0.01	-0.750			
0.0093	594.37	4.1390	4.1391	-0.5280	25.97	-0.02	-0.750			
0.0109	700.14	4.1360	4.1359	-0.5614	25.97	-0.02	-0.750			
0.0127	812.73	4.1330	4.1330	-0.5935	25.96	-0.03	-0.750			
0.0145	930.53	4.1300	4.1302	-0.6183	25.96	-0.03	-0.750			
0.0165	1052.87	4.1270	4.1270	-0.6419	25.96	-0.03	-0.750			
0.0184	1179.72	4.1240	4.1240	-0.6596	25.95	-0.04	-0.750			
0.0204	1307.52	4.1210	4.1210	-0.6785	25.95	-0.04	-0.750			
0.0225	1440.56	4.1180	4.1180	-0.6928	25.95	-0.04	-0.750			
0.0246	1575.19	4.1150	4.1149	-0.7055	25.94	-0.05	-0.750			
0.0268	1712.39	4.1120	4.1122	-0.7177	25.94	-0.05	-0.750			
0.0289	1852.55	4.1090	4.1089	-0.7222	25.94	-0.05	-0.750			
0.0311	1990.80	4.1060	4.1060	-0.7294	25.94	-0.05	-0.750			
0.0333	2131.52	4.1030	4.1031	-0.7422	25.94	-0.05	-0.750			
0.0355	2275.07	4.1000	4.0999	-0.7446	25.93	-0.06	-0.750			
0.0378	2420.85	4.0970	4.0969	-0.7523	25.93	-0.06	-0.750			
0.0401	2564.98	4.0940	4.0942	-0.7542	25.93	-0.06	-0.750			
0.0424	2711.15	4.0910	4.0911	-0.7568	25.93	-0.06	-0.750			
0.0446	2856.43	4.0880	4.0879	-0.7646	25.93	-0.06	-0.750			
0.0469	3000.38	4.0850	4.0849	-0.7658	25.92	-0.07	-0.750			
0.0492	3149.73	4.0820	4.0820	-0.7695	25.92	-0.07	-0.750			
0.0515	3298.53	4.0790	4.0791	-0.7729	25.92	-0.07	-0.750			
0.0539	3448.01	4.0760	4.0760	-0.7776	25.92	-0.07	-0.750			
0.0562	3597.24	4.0730	4.0729	-0.7820	25.92	-0.07	-0.750			
0.0585	3746.93	4.0700	4.0700	-0.7837	25.92	-0.07	-0.750			
0.0609	3896.42	4.0670	4.0670	-0.7861	25.92	-0.07	-0.750			
0.0633	4049.13	4.0640	4.0640	-0.7909	25.92	-0.07	-0.750			
0.0657	4203.05	4.0610	4.0610	-0.7936	25.92	-0.07	-0.750			
0.0680	4352.69	4.0580	4.0581	-0.7998	25.92	-0.07	-0.750			
0.0704	4508.61	4.0550	4.0549	-0.7967	25.92	-0.07	-0.750			
0.0728	4662.07	4.0520	4.0520	-0.7973	25.91	-0.08	-0.750			
0.0752	4815.57	4.0490	4.0490	-0.7976	25.91	-0.08	-0.750			
0.0776	4968.46	4.0460	4.0462	-0.7962	25.91	-0.08	-0.750			
0.0800	5121.23	4.0430	4.0428	-0.7958	25.91	-0.08	-0.750			
0.0824	5272.19	4.0400	4.0399	-0.7981	25.92	-0.07	-0.750			
0.0847	5423.65	4.0370	4.0371	-0.7952	25.92	-0.07	-0.750			
0.0872	5580.15	4.0340	4.0340	-0.8061	25.93	-0.06	-0.750			
0.0896	5734.95	4.0310	4.0311	-0.8073	25.93	-0.06	-0.750			
0.0920	5890.83	4.0280	4.0279	-0.8095	25.93	-0.06	-0.750			
0.0945	6045.46	4.0250	4.0251	-0.8086	25.93	-0.06	-0.750			
0.0969	6201.66	4.0220	4.0220	-0.8074	25.93	-0.06	-0.750			
0.0993	6356.42	4.0190	4.0191	-0.8108	25.93	-0.06	-0.750			
0.1018	6512.50	4.0160	4.0160	-0.8121	25.93	-0.06	-0.750			
0.1042	6667.87	4.0130	4.0130	-0.8135	25.93	-0.06	-0.750			
0.1066	6823.77	4.0100	4.0100	-0.8231	25.94	-0.05	-0.750			
0.1091	6983.42	4.0070	4.0069	-0.8270	25.94	-0.05	-0.750			
0.1116	7143.63	4.0040	4.0039	-0.8247	25.95	-0.04	-0.750			
0.1141	7303.28	4.0010	4.0012	-0.8264	25.95	-0.04	-0.750			
0.1166	7460.82	3.9980	3.9979	-0.8206	25.95	-0.04	-0.750			
0.1190	7617.44	3.9950	3.9949	-0.8231	25.96	-0.03	-0.750			
0.1215	7774.50	3.9920	3.9920	-0.8208	25.96	-0.03	-0.750			
0.1239	7929.67	3.9890	3.9889	-0.8200	25.96	-0.03	-0.750			
0.1264	8092.43	3.9860	3.9861	-0.8248	25.97	-0.02	-0.750			
0.1289	8249.69	3.9830	3.9830	-0.8287	25.97	-0.02	-0.750			
0.1314	8406.58	3.9800	3.9800	-0.8356	25.98	-0.01	-0.750			
0.1339	8567.78	3.9770	3.9771	-0.8446	25.98	-0.01	-0.750			
0.1364	8728.83	3.9740	3.9738	-0.8494	25.98	-0.01	-0.750			
0.1390	8896.36	3.9710	3.9710	-0.8584	25.99	-0.00	-0.750			
0.1416	9063.19	3.9680	3.9681	-0.8539	25.99	0.00	-0.750			
0.1443	9232.37	3.9650	3.9650	-0.8591	26.00	0.01	-0.750			
0.1468	9393.37	3.9620	3.9621	-0.8483	26.00	0.01	-0.750			
0.1493	9552.78	3.9590	3.9589	-0.8417	26.01	0.02	-0.750			
0.1518	9712.65	3.9560	3.9562	-0.8453	26.01	0.02	-0.750			
0.1543	9874.06	3.9530	3.9528	-0.8524	26.01	0.02	-0.750			
0.1569	10039.50	3.9500	3.9500	-0.8662	26.01	0.02	-0.750			
0.1595	10209.18	3.9470	3.9470	-0.8635	26.01	0.02	-0.750			
0.1622	10379.67	3.9440	3.9439	-0.8721	26.01	0.02	-0.750			
0.1647	10543.71	3.9410	3.9414	-0.8644	26.01	0.02	-0.750			
0.1673	10706.89	3.9380	3.9378	-0.8603	26.01	0.02	-0.750			
0.1698	10869.84	3.9350	3.9350	-0.8631	26.02	0.03	-0.750			
0.1724	11034.60	3.9320	3.9319	-0.8623	26.02	0.03	-0.750			
0.1751	11204.92	3.9290	3.9290	-0.8752	26.03	0.04	-0.750			
0.1777	11373.34	3.9260	3.9261	-0.8774	26.03	0.04	-0.750			
0.1803	11541.83	3.9230	3.9230	-0.8785	26.03	0.04	-0.750			
0.1830	11711.00	3.9200	3.9199	-0.8742	26.03	0.04	-0.750			
0.1856	11877.21	3.9170	3.9169	-0.8697	26.04	0.05	-0.750			
0.1882	12043.79	3.9140	3.9141	-0.8779	26.04	0.05	-0.750			
0.1908	12212.54	3.9110	3.9111	-0.8835	26.04	0.05	-0.750			
0.1935	12382.63	3.9080	3.9078	-0.8903	26.05	0.06	-0.750			
0.1962	12554.17	3.9050	3.9051	-0.8940	26.06	0.07	-0.750			
0.1989	12727.63	3.9020	3.9019	-0.8936	26.06	0.07	-0.750			
0.2016	12900.53	3.8990	3.8991	-0.8943	26.07	0.08	-0.750			
0.2042	13069.75	3.8960	3.8960	-0.9029	26.07	0.08	-0.750			
0.2069	13242.18	3.8930	3.8929	-0.9024	26.07	0.08	-0.750			
0.2096	13417.05	3.8900	3.8899	-0.9007	26.07	0.08	-0.750			
0.2124	13590.70	3.8870	3.8870	-0.8994	26.07	0.08	-0.750			
0.2151	13765.16	3.8840	3.8842	-0.9081	26.07	0.08	-0.750			
0.2178	13940.23	3.8810	3.8809	-0.9171	26.08	0.09	-0.750			
0.2205	14115.17	3.8780	3.8779	-0.9151	26.08	0.09	-0.750			
0.2233	14290.98	3.8750	3.8750	-0.9122	26.09	0.10	-0.750			
0.2261	14469.79	3.8720	3.8722	-0.9189	26.10	0.11	-0.750			
0.2288	14645.77	3.8690	3.8689	-0.9139	26.10	0.11	-0.750			
0.2316	14820.62	3.8660	3.8660	-0.9081	26.10	0.11	-0.750			
0.2342	14991.62	3.8630	3.8630	-0.8999	26.11	0.12	-0.750			
0.2369	15160.74	3.8600	3.8599	-0.8958	26.11	0.12	-0.750			
0.2396	15335.37	3.8570	3.8572	-0.9035	26.11	0.12	-0.750			
0.2423	15506.99	3.8540	3.8540	-0.9173	26.11	0.12	-0.750			
0.2451	15685.93	3.8510	3.8510	-0.9194	26.12	0.13	-0.750			
0.2479	15864.12	3.8480	3.8479	-0.9255	26.12	0.13	-0.750			
0.2507	16042.79	3.8450	3.8450	-0.9273	26.13	0.14	-0.750			
0.2535	16222.32	3.8420	3.8420	-0.9245	26.13	0.14	-0.750			
0.2562	16399.41	3.8390	3.8389	-0.9245	26.13	0.14	-0.750			
0.2590	16575.87	3.8360	3.8360	-0.9202	26.14	0.15	-0.750			
0.2617	16749.48	3.8330	3.8330	-0.9138	26.14	0.15	-0.750			
0.2645	16927.96	3.8300	3.8302	-0.9197	26.14	0.15	-0.750			
0.2672	17102.33	3.8270	3.8270	-0.9236	26.14	0.15	-0.750			
0.2700	17280.40	3.8240	3.8240	-0.9269	26.14	0.15	-0.750			
0.2728	17458.47	3.8210	3.8209	-0.9282	26.15	0.16	-0.750			
0.2756	17638.69	3.8180	3.8179	-0.9339	26.15	0.16	-0.750			
0.2784	17818.04	3.8150	3.8150	-0.9311	26.15	0.16	-0.750			
0.2812	17997.25	3.8120	3.8120	-0.9388	26.16	0.17	-0.750			
0.2840	18177.90	3.8090	3.8090	-0.9380	26.16	0.17	-0.750			
0.2868	18357.47	3.8060	3.8059	-0.9297	26.17	0.18	-0.750			
0.2896	18536.89	3.8030	3.8033	-0.9352	26.17	0.18	-0.750			
0.2924	18715.68	3.8000	3.8000	-0.9451	26.17	0.18	-0.750			
0.2953	18897.70	3.7970	3.7970	-0.9463	26.18	0.19	-0.750			
0.2981	19080.76	3.7940	3.7938	-0.9423	26.18	0.19	-0.750			
0.3010	19263.81	3.7910	3.7911	-0.9448	26.19	0.20	-0.750			
0.3038	19443.35	3.7880	3.7880	-0.9493	26.19	0.20	-0.750			
0.3067	19626.73	3.7850	3.7849	-0.9483	26.19	0.20	-0.750			
0.3095	19805.96	3.7820	3.7819	-0.9429	26.19	0.20	-0.750			
0.3122	19983.34	3.7790	3.7790	-0.9399	26.19	0.20	-0.750			
0.3151	20168.89	3.7760	3.7762	-0.9509	26.19	0.20	-0.750			
0.3180	20351.33	3.7730	3.7730	-0.9584	26.20	0.21	-0.750			
0.3209	20535.76	3.7700	3.7699	-0.9593	26.20	0.21	-0.750			
0.3238	20720.15	3.7670	3.7669	-0.9570	26.20	0.21	-0.750			
0.3267	20905.74	3.7640	3.7641	-0.9622	26.21	0.22	-0.750			
0.3295	21089.84	3.7610	3.7610	-0.9709	26.21	0.22	-0.750			
0.3325	21278.36	3.7580	3.7580	-0.9702	26.21	0.22	-0.750			
0.3354	21464.14	3.7550	3.7548	-0.9664	26.21	0.22	-0.750			
0.3382	21647.77	3.7520	3.7520	-0.9633	26.21	0.22	-0.750			
0.3411	21833.45	3.7490	3.7490	-0.9725	26.21	0.22	-0.750			
0.3441	22021.04	3.7460	3.7458	-0.9703	26.22	0.23	-0.750			
0.3470	22206.11	3.7430	3.7431	-0.9688	26.22	0.23	-0.750			
0.3498	22389.79	3.7400	3.7400	-0.9704	26.23	0.24	-0.750			
0.3528	22581.19	3.7370	3.7371	-0.9894	26.23	0.24	-0.750			
0.3558	22771.08	3.7340	3.7339	-0.9941	26.24	0.25	-0.750			
0.3587	22959.74	3.7310	3.7310	-0.9985	26.24	0.25	-0.750			
0.3618	23152.16	3.7280	3.7281	-1.0045	26.25	0.26	-0.750			
0.3648	23346.66	3.7250	3.7250	-1.0235	26.25	0.26	-0.750			
0.3679	23545.06	3.7220	3.7220	-1.0272	26.25	0.26	-0.750			
0.3710	23743.78	3.7190	3.7190	-1.0316	26.25	0.26	-0.750			
0.3741	23941.21	3.7160	3.7159	-1.0409	26.25	0.26	-0.750			
0.3772	24139.92	3.7130	3.7133	-1.0585	26.25	0.26	-0.750			
0.3804	24344.63	3.7100	3.7100	-1.0741	26.25	0.26	-0.750			
0.3837	24554.67	3.7070	3.7068	-1.0821	26.25	0.26	-0.750			
0.3869	24762.72	3.7040	3.7040	-1.0914	26.25	0.26	-0.750			
0.3902	24972.60	3.7010	3.7012	-1.1231	26.25	0.26	-0.750			
0.3936	25189.08	3.6980	3.6979	-1.1392	26.25	0.26	-0.750			
0.3970	25407.94	3.6950	3.6949	-1.1554	26.25	0.26	-0.750			
0.4005	25631.33	3.6920	3.6919	-1.1818	26.25	0.26	-0.750			
0.4041	25865.31	3.6890	3.6890	-1.2118	26.25	0.26	-0.750			
0.4079	26102.59	3.6860	3.6859	-1.2295	26.24	0.25	-0.750			
0.4115	26338.96	3.6830	3.6830	-1.2457	26.23	0.24	-0.750			
0.4153	26576.38	3.6800	3.6802	-1.2686	26.23	0.24	-0.750			
0.4191	26825.53	3.6770	3.6769	-1.2989	26.23	0.24	-0.750			
0.4231	27076.42	3.6740	3.6739	-1.3215	26.22	0.23	-0.750			
0.4270	27330.79	3.6710	3.6713	-1.3464	26.22	0.23	-0.750			
0.4312	27597.81	3.6680	3.6679	-1.3843	26.22	0.23	-0.750			
0.4353	27860.12	3.6650	3.6651	-1.4219	26.21	0.22	-0.750			
0.4396	28134.36	3.6620	3.6621	-1.4516	26.21	0.22	-0.750			
0.4440	28417.94	3.6590	3.6589	-1.4919	26.20	0.21	-0.750			
0.4486	28709.46	3.6560	3.6559	-1.5288	26.20	0.21	-0.750			
0.4532	29007.24	3.6530	3.6530	-1.5623	26.19	0.20	-0.750			
0.4580	29314.35	3.6500	3.6497	-1.6077	26.18	0.19	-0.750			
0.4629	29625.31	3.6470	3.6469	-1.6427	26.17	0.18	-0.750			
0.4678	29940.93	3.6440	3.6438	-1.6728	26.17	0.18	-0.750			
0.4730	30274.22	3.6410	3.6413	-1.7189	26.17	0.18	-0.750			
0.4782	30602.70	3.6380	3.6381	-1.7454	26.17	0.18	-0.750			
0.4834	30939.61	3.6350	3.6354	-1.8109	26.15	0.16	-0.750	0.432	0.502	
0.4889	31288.87	3.6320	3.6320	-1.8338	26.13	0.14	-0.750			
0.4945	31645.60	3.6290	3.6290	-1.8940	26.13	0.14	-0.750			
0.5003	32019.77	3.6260	3.6260	-1.9215	26.13	0.14	-0.750			
0.5062	32394.39	3.6230	3.6231	-1.9645	26.12	0.13	-0.750			
0.5121	32773.29	3.6200	3.6201	-1.9782	26.11	0.12	-0.750			
0.5181	33155.55	3.6170	3.6171	-2.0030	26.10	0.11	-0.750			
0.5240	33537.05	3.6140	3.6142	-2.0428	26.09	0.10	-0.750			
0.5302	33935.76	3.6110	3.6108	-2.0841	26.09	0.10	-0.750			
0.5364	34332.27	3.6080	3.6080	-2.1197	26.09	0.10	-0.750			
0.5430	34755.02	3.6050	3.6050	-2.1688	26.08	0.09	-0.750			
0.5496	35174.50	3.6020	3.6018	-2.2022	26.07	0.08	-0.750			
0.5562	35599.93	3.5990	3.5990	-2.2247	26.06	0.07	-0.750			
0.5630	36030.71	3.5960	3.5961	-2.2537	26.05	0.06	-0.750			
0.5697	36463.07	3.5930	3.5929	-2.2840	26.05	0.06	-0.750			
0.5766	36902.23	3.5900	3.5898	-2.3107	26.05	0.06	-0.750			
0.5836	37350.29	3.5870	3.5871	-2.3401	26.05	0.06	-0.750			
0.5907	37805.85	3.5840	3.5840	-2.3732	26.05	0.06	-0.750			
0.5979	38264.56	3.5810	3.5810	-2.4097	26.05	0.06	-0.750			
0.6051	38727.70	3.5780	3.5780	-2.4313	26.05	0.06	-0.750			
0.6126	39205.75	3.5750	3.5749	-2.4497	26.05	0.06	-0.750			
0.6200	39680.12	3.5720	3.5721	-2.4464	26.05	0.06	-0.750			
0.6273	40149.02	3.5690	3.5689	-2.4446	26.05	0.06	-0.750			
0.6347	40619.46	3.5660	3.5660	-2.4557	26.05	0.06	-0.750			
0.6419	41084.18	3.5630	3.5629	-2.4457	26.05	0.06	-0.750			
0.6493	41552.73	3.5600	3.5601	-2.4654	26.05	0.06	-0.750			
0.6568	42035.36	3.5570	3.5571	-2.4787	26.05	0.06	-0.750			
0.6643	42517.22	3.5540	3.5539	-2.4708	26.05	0.06	-0.750			
0.6717	42991.24	3.5510	3.5510	-2.4444	26.06	0.07	-0.750			
0.6790	43456.79	3.5480	3.5480	-2.4121	26.07	0.08	-0.750			
0.6863	43922.80	3.5450	3.5449	-2.3822	26.07	0.08	-0.750			
0.6933	44370.33	3.5420	3.5420	-2.3452	26.07	0.08	-0.750			
0.7002	44814.85	3.5390	3.5390	-2.3043	26.07	0.08	-0.750			
0.7072	45263.39	3.5360	3.5361	-2.2702	26.08	0.09	-0.750			
0.7140	45694.55	3.5330	3.5331	-2.2323	26.09	0.10	-0.750			
0.7206	46117.08	3.5300	3.5299	-2.2052	26.10	0.11	-0.750			
0.7271	46536.88	3.5270	3.5270	-2.1534	26.11	0.12	-0.750			
0.7336	46952.83	3.5240	3.5239	-2.0935	26.12	0.13	-0.750			
0.7400	47357.36	3.5210	3.5211	-2.0232	26.13	0.14	-0.750			
0.7459	47739.82	3.5180	3.5179	-1.9417	26.15	0.16	-0.750			
0.7516	48105.38	3.5150	3.5153	-1.8609	26.16	0.17	-0.750			
0.7570	48448.86	3.5120	3.5120	-1.7562	26.18	0.19	-0.750			
0.7621	48773.80	3.5090	3.5089	-1.6902	26.20	0.21	-0.750			
0.7671	49092.72	3.5060	3.5059	-1.6196	26.22	0.23	-0.750			
0.7719	49403.20	3.5030	3.5029	-1.5678	26.23	0.24	-0.750			
0.7765	49693.34	3.5000	3.5003	-1.5104	26.25	0.26	-0.750			
0.7809	49977.05	3.4970	3.4968	-1.4472	26.26	0.27	-0.750			
0.7851	50249.20	3.4940	3.4938	-1.3979	26.28	0.29	-0.750			
0.7892	50509.88	3.4910	3.4915	-1.3557	26.29	0.30	-0.750			
0.7932	50763.45	3.4880	3.4878	-1.3126	26.30	0.31	-0.750			
0.7971	51017.57	3.4850	3.4849	-1.2706	26.32	0.33	-0.750			
0.8009	51254.81	3.4820	3.4820	-1.2209	26.34	0.35	-0.750			
0.8045	51486.03	3.4790	3.4790	-1.1891	26.35	0.36	-0.750			
0.8080	51709.88	3.4760	3.4760	-1.1400	26.36	0.37	-0.750			
0.8112	51920.00	3.4730	3.4729	-1.0887	26.38	0.39	-0.750			
0.8144	52123.76	3.4700	3.4702	-1.0499	26.39	0.40	-0.750			
0.8175	52320.80	3.4670	3.4669	-1.0229	26.40	0.41	-0.750			
0.8206	52515.22	3.4640	3.4640	-0.9932	26.41	0.42	-0.750			
0.8234	52698.02	3.4610	3.4610	-0.9773	26.43	0.44	-0.750			
0.8263	52883.25	3.4580	3.4580	-0.9733	26.44	0.45	-0.750			
0.8292	53066.23	3.4550	3.4549	-0.9928	26.45	0.46	-0.750			
0.8320	53250.76	3.4520	3.4520	-1.0087	26.46	0.47	-0.750			
0.8351	53444.23	3.4490	3.4490	-1.0577	26.47	0.48	-0.750			
0.8383	53648.76	3.4460	3.4460	-1.1156	26.48	0.49	-0.750			
0.8418	53873.40	3.4430	3.4429	-1.1773	26.49	0.50	-0.750			
0.8454	54105.25	3.4400	3.4400	-1.2258	26.50	0.51	-0.750			
0.8492	54349.79	3.4370	3.4369	-1.2771	26.51	0.52	-0.750			
0.8532	54603.79	3.4340	3.4341	-1.2927	26.52	0.53	-0.750			
0.8572	54861.22	3.4310	3.4309	-1.2810	26.53	0.54	-0.750			
0.8611	55113.51	3.4280	3.4280	-1.2533	26.54	0.55	-0.750			
0.8649	55352.04	3.4250	3.4253	-1.2171	26.55	0.56	-0.750			
0.8685	55582.64	3.4220	3.4219	-1.1714	26.56	0.57	-0.750			
0.8719	55799.23	3.4190	3.4189	-1.1189	26.57	0.58	-0.750			
0.8751	56007.53	3.4160	3.4159	-1.0726	26.58	0.59	-0.750			
0.8783	56212.71	3.4130	3.4130	-1.0401	26.58	0.59	-0.750			
0.8814	56407.47	3.4100	3.4100	-1.0021	26.59	0.60	-0.750			
0.8843	56596.30	3.4070	3.4070	-0.9664	26.60	0.61	-0.750			
0.8871	56775.02	3.4040	3.4040	-0.9245	26.60	0.61	-0.750			
0.8899	56952.43	3.4010	3.4011	-0.8897	26.61	0.62	-0.750			
0.8925	57118.55	3.3980	3.3979	-0.8534	26.62	0.63	-0.750			
0.8950	57279.22	3.3950	3.3951	-0.8270	26.62	0.63	-0.750			
0.8974	57434.39	3.3920	3.3920	-0.7936	26.63	0.64	-0.750			
0.8998	57584.94	3.3890	3.3888	-0.7637	26.63	0.64	-0.750			
0.9020	57727.36	3.3860	3.3864	-0.7344	26.64	0.65	-0.750			
0.9041	57865.24	3.3830	3.3830	-0.7049	26.65	0.66	-0.750			
0.9062	57998.04	3.3800	3.3799	-0.6791	26.65	0.66	-0.750			
0.9082	58122.80	3.3770	3.3770	-0.6494	26.66	0.67	-0.750			
0.9101	58247.59	3.3740	3.3740	-0.6261	26.67	0.68	-0.750			
0.9120	58364.96	3.3710	3.3710	-0.5994	26.67	0.68	-0.750			
0.9137	58477.23	3.3680	3.3680	-0.5786	26.68	0.69	-0.750			
0.9154	58585.30	3.3650	3.3650	-0.5531	26.68	0.69	-0.750			
0.9170	58688.94	3.3620	3.3618	-0.5307	26.69	0.70	-0.750			
0.9186	58788.52	3.3590	3.3590	-0.5061	26.69	0.70	-0.750			
0.9201	58883.24	3.3560	3.3561	-0.4851	26.70	0.71	-0.750			
0.9215	58975.08	3.3530	3.3529	-0.4666	26.70	0.71	-0.750			
0.9228	59062.04	3.3500	3.3500	-0.4456	26.71	0.72	-0.750			
0.9241	59145.16	3.3470	3.3470	-0.4263	26.71	0.72	-0.750			
0.9254	59225.70	3.3440	3.3440	-0.4103	26.71	0.72	-0.750			
0.9266	59302.75	3.3410	3.3410	-0.3929	26.72	0.73	-0.750			
0.9278	59376.72	3.3380	3.3379	-0.3754	26.72	0.73	-0.750			
0.9288	59446.12	3.3350	3.3351	-0.3571	26.73	0.74	-0.750			
0.9299	59512.88	3.3320	3.3320	-0.3406	26.74	0.75	-0.750			
0.9309	59576.49	3.3290	3.3289	-0.3255	26.74	0.75	-0.750			
0.9318	59637.52	3.3260	3.3260	-0.3106	26.75	0.76	-0.750			
0.9327	59695.51	3.3230	3.3231	-0.2966	26.76	0.77	-0.750			
0.9336	59751.29	3.3200	3.3199	-0.2843	26.76	0.77	-0.750			
0.9345	59804.95	3.3170	3.3170	-0.2718	26.77	0.78	-0.750			
0.9352	59854.61	3.3140	3.3140	-0.2601	26.77	0.78	-0.750			
0.9360	59903.58	3.3110	3.3110	-0.2506	26.78	0.79	-0.750			
0.9367	59950.50	3.3080	3.3079	-0.2413	26.78	0.79	-0.750			
0.9374	59996.45	3.3050	3.3050	-0.2329	26.79	0.80	-0.750			
0.9381	60040.37	3.3020	3.3020	-0.2241	26.79	0.80	-0.750			
0.9388	60082.47	3.2990	3.2990	-0.2159	26.80	0.81	-0.750			
0.9394	60123.01	3.2960	3.2960	-0.2080	26.80	0.81	-0.750			
0.9400	60162.14	3.2930	3.2930	-0.1997	26.80	0.81	-0.750			
0.9406	60199.16	3.2900	3.2899	-0.1921	26.81	0.82	-0.750			
0.9412	60235.16	3.2870	3.2870	-0.1859	26.81	0.82	-0.750			
0.9417	60269.84	3.2840	3.2839	-0.1795	26.81	0.82	-0.750			
0.9422	60303.80	3.2810	3.2811	-0.1742	26.82	0.83	-0.750			
0.9428	60336.79	3.2780	3.2779	-0.1694	26.82	0.83	-0.750			
0.9433	60368.65	3.2750	3.2750	-0.1637	26.82	0.83	-0.750			
0.9437	60399.70	3.2720	3.2720	-0.1588	26.83	0.84	-0.750			
0.9442	60429.70	3.2690	3.2690	-0.1537	26.83	0.84	-0.750			
0.9447	60458.67	3.2660	3.2661	-0.1496	26.83	0.84	-0.750			
0.9451	60486.60	3.2630	3.2630	-0.1455	26.84	0.85	-0.750			
0.9455	60513.88	3.2600	3.2601	-0.1416	26.84	0.85	-0.750			
0.9459	60540.78	3.2570	3.2568	-0.1386	26.84	0.85	-0.750			
0.9464	60566.97	3.2540	3.2541	-0.1351	26.84	0.85	-0.750			
0.9468	60592.90	3.2510	3.2510	-0.1321	26.85	0.86	-0.750			
0.9472	60618.09	3.2480	3.2480	-0.1290	26.85	0.86	-0.750			
0.9475	60642.11	3.2450	3.2451	-0.1263	26.85	0.86	-0.750			
0.9479	60665.84	3.2420	3.2419	-0.1232	26.85	0.86	-0.750			
0.9483	60689.03	3.2390	3.2391	-0.1204	26.86	0.87	-0.750			
0.9486	60711.77	3.2360	3.2359	-0.1180	26.86	0.87	-0.750			
0.9490	60734.39	3.2330	3.2329	-0.1159	26.86	0.87	-0.750			
0.9493	60756.51	3.2300	3.2300	-0.1141	26.86	0.87	-0.750			
0.9497	60778.33	3.2270	3.2272	-0.1116	26.87	0.88	-0.750			
0.9500	60799.89	3.2240	3.2239	-0.1098	26.87	0.88	-0.750			
0.9503	60820.45	3.2210	3.2210	-0.1075	26.87	0.88	-0.750			
0.9506	60840.56	3.2180	3.2180	-0.1046	26.87	0.88	-0.750			
0.9509	60860.47	3.2150	3.2151	-0.1027	26.87	0.88	-0.750			
0.9512	60879.95	3.2120	3.2119	-0.1009	26.88	0.89	-0.750			
0.9515	60899.14	3.2090	3.2090	-0.0991	26.88	0.89	-0.750			
0.9518	60917.89	3.2060	3.2061	-0.0972	26.88	0.89	-0.750			
0.9521	60936.41	3.2030	3.2030	-0.0956	26.88	0.89	-0.750			
0.9524	60954.74	3.2000	3.2000	-0.0940	26.89	0.90	-0.750			
0.9527	60972.62	3.1970	3.1970	-0.0922	26.89	0.90	-0.750			
0.9530	60989.88	3.1940	3.1940	-0.0909	26.89	0.90	-0.750			
0.9532	61007.21	3.1910	3.1910	-0.0897	26.89	0.90	-0.750			
0.9535	61024.27	3.1880	3.1879	-0.0883	26.90	0.91	-0.750			
0.9538	61041.12	3.1850	3.1850	-0.0872	26.90	0.91	-0.750			
0.9540	61057.65	3.1820	3.1822	-0.0862	26.90	0.91	-0.750			
0.9543	61074.12	3.1790	3.1791	-0.0854	26.91	0.92	-0.750			
0.9545	61090.50	3.1760	3.1759	-0.0846	26.91	0.92	-0.750			
0.9548	61106.68	3.1730	3.1729	-0.0834	26.91	0.92	-0.750			
0.9550	61122.60	3.1700	3.1701	-0.0824	26.92	0.93	-0.750			
0.9553	61138.34	3.1670	3.1672	-0.0810	26.92	0.93	-0.750			
0.9555	61153.79	3.1640	3.1639	-0.0799	26.92	0.93	-0.750			
