Ah_balance (normalized)	Ah_balance (mAh)	Voltage - fit (V)	Voltage -  interpolate (V)	dQ/dV (1/V)	Temperature (°C)	Temperature - diff (°C)	Current (C)	R_DC 0ms (mOhm)	R_DC 50ms (mOhm)	R_DC 50 ms PEC (mOhm)
0.0002	13.54	4.1650	4.1650	-0.1076	25.88	0.01	-0.750			
0.0006	40.32	4.1620	4.1619	-0.1609	25.88	0.01	-0.750			
0.0012	76.02	4.1590	4.1588	-0.2042	25.88	0.01	-0.750			
0.0019	119.55	4.1560	4.1559	-0.2458	25.87	0.00	-0.750			
0.0027	170.61	4.1530	4.1530	-0.2870	25.87	0.00	-0.750			
0.0036	229.55	4.1500	4.1500	-0.3278	25.87	-0.00	-0.750			
0.0046	297.19	4.1470	4.1471	-0.3669	25.86	-0.01	-0.750			
0.0058	371.63	4.1440	4.1439	-0.4050	25.86	-0.01	-0.750			
0.0071	453.61	4.1410	4.1410	-0.4396	25.85	-0.02	-0.750			
0.0085	542.68	4.1380	4.1381	-0.4739	25.85	-0.02	-0.750			
0.0100	637.57	4.1350	4.1350	-0.5040	25.84	-0.03	-0.750			
0.0115	738.60	4.1320	4.1320	-0.5319	25.84	-0.03	-0.750			
0.0132	844.44	4.1290	4.1289	-0.5516	25.83	-0.04	-0.750			
0.0149	953.17	4.1260	4.1260	-0.5719	25.82	-0.05	-0.750			
0.0166	1064.29	4.1230	4.1229	-0.5858	25.82	-0.05	-0.750			
0.0184	1179.02	4.1200	4.1199	-0.6009	25.82	-0.05	-0.750			
0.0202	1295.29	4.1170	4.1170	-0.6119	25.81	-0.06	-0.750			
0.0221	1413.33	4.1140	4.1140	-0.6239	25.81	-0.06	-0.750			
0.0240	1535.81	4.1110	4.1111	-0.6376	25.81	-0.06	-0.750			
0.0259	1660.38	4.1080	4.1080	-0.6475	25.80	-0.07	-0.750			
0.0279	1785.06	4.1050	4.1050	-0.6576	25.80	-0.07	-0.750			
0.0299	1912.84	4.1020	4.1020	-0.6655	25.80	-0.07	-0.750			
0.0319	2040.70	4.0990	4.0990	-0.6736	25.80	-0.07	-0.750			
0.0339	2171.26	4.0960	4.0960	-0.6801	25.80	-0.07	-0.750			
0.0360	2303.37	4.0930	4.0930	-0.6881	25.79	-0.08	-0.750			
0.0381	2436.17	4.0900	4.0900	-0.6911	25.79	-0.08	-0.750			
0.0401	2569.54	4.0870	4.0869	-0.6938	25.79	-0.08	-0.750			
0.0422	2702.66	4.0840	4.0840	-0.6972	25.79	-0.08	-0.750			
0.0443	2836.79	4.0810	4.0810	-0.7047	25.79	-0.08	-0.750			
0.0464	2971.69	4.0780	4.0780	-0.7141	25.79	-0.08	-0.750			
0.0486	3110.98	4.0750	4.0749	-0.7184	25.78	-0.09	-0.750			
0.0508	3251.26	4.0720	4.0719	-0.7214	25.78	-0.09	-0.750			
0.0530	3390.94	4.0690	4.0694	-0.7221	25.78	-0.09	-0.750			
0.0552	3530.41	4.0660	4.0659	-0.7222	25.78	-0.09	-0.750			
0.0573	3666.88	4.0630	4.0630	-0.7248	25.78	-0.09	-0.750			
0.0594	3803.64	4.0600	4.0600	-0.7222	25.77	-0.10	-0.750			
0.0616	3944.79	4.0570	4.0569	-0.7303	25.77	-0.10	-0.750			
0.0638	4084.47	4.0540	4.0540	-0.7358	25.77	-0.10	-0.750			
0.0661	4228.11	4.0510	4.0511	-0.7378	25.77	-0.10	-0.750			
0.0683	4369.55	4.0480	4.0480	-0.7389	25.77	-0.10	-0.750			
0.0705	4511.29	4.0450	4.0450	-0.7405	25.77	-0.10	-0.750			
0.0727	4652.85	4.0420	4.0421	-0.7392	25.77	-0.10	-0.750			
0.0749	4796.78	4.0390	4.0389	-0.7417	25.77	-0.10	-0.750			
0.0772	4938.84	4.0360	4.0359	-0.7411	25.77	-0.10	-0.750			
0.0794	5079.86	4.0330	4.0330	-0.7430	25.77	-0.10	-0.750			
0.0816	5223.07	4.0300	4.0300	-0.7501	25.77	-0.10	-0.750			
0.0839	5366.58	4.0270	4.0269	-0.7507	25.77	-0.10	-0.750			
0.0861	5512.18	4.0240	4.0240	-0.7497	25.77	-0.10	-0.750			
0.0884	5658.34	4.0210	4.0210	-0.7545	25.77	-0.10	-0.750			
0.0907	5802.44	4.0180	4.0182	-0.7483	25.77	-0.10	-0.750			
0.0929	5943.42	4.0150	4.0151	-0.7491	25.77	-0.10	-0.750			
0.0951	6086.68	4.0120	4.0120	-0.7512	25.77	-0.10	-0.750			
0.0974	6231.30	4.0090	4.0083	-0.7580	25.78	-0.09	-0.750			
0.0996	6376.60	4.0060	4.0062	-0.7662	25.78	-0.09	-0.750			
0.1020	6525.76	4.0030	4.0031	-0.7709	25.78	-0.09	-0.750			
0.1043	6676.94	4.0000	3.9999	-0.7781	25.78	-0.09	-0.750			
0.1067	6828.47	3.9970	3.9970	-0.7804	25.78	-0.09	-0.750			
0.1090	6973.87	3.9940	3.9940	-0.7702	25.78	-0.09	-0.750			
0.1113	7122.08	3.9910	3.9910	-0.7752	25.78	-0.09	-0.750			
0.1136	7271.76	3.9880	3.9880	-0.7780	25.78	-0.09	-0.750			
0.1159	7419.76	3.9850	3.9849	-0.7783	25.78	-0.09	-0.750			
0.1183	7569.90	3.9820	3.9820	-0.7810	25.78	-0.09	-0.750			
0.1206	7719.45	3.9790	3.9791	-0.7908	25.78	-0.09	-0.750			
0.1230	7874.61	3.9760	3.9760	-0.7889	25.79	-0.08	-0.750			
0.1254	8028.16	3.9730	3.9729	-0.7894	25.79	-0.08	-0.750			
0.1278	8178.34	3.9700	3.9704	-0.7872	25.79	-0.08	-0.750			
0.1301	8329.44	3.9670	3.9670	-0.7848	25.79	-0.08	-0.750			
0.1325	8478.37	3.9640	3.9639	-0.7901	25.79	-0.08	-0.750			
0.1348	8628.15	3.9610	3.9610	-0.7909	25.79	-0.08	-0.750			
0.1372	8782.69	3.9580	3.9579	-0.7961	25.79	-0.08	-0.750			
0.1396	8937.04	3.9550	3.9551	-0.7991	25.79	-0.08	-0.750			
0.1420	9090.23	3.9520	3.9520	-0.7993	25.79	-0.08	-0.750			
0.1444	9242.87	3.9490	3.9490	-0.7979	25.79	-0.08	-0.750			
0.1468	9395.50	3.9460	3.9459	-0.8039	25.80	-0.07	-0.750			
0.1492	9547.35	3.9430	3.9430	-0.8027	25.80	-0.07	-0.750			
0.1516	9704.82	3.9400	3.9400	-0.8102	25.80	-0.07	-0.750			
0.1541	9861.03	3.9370	3.9371	-0.8176	25.80	-0.07	-0.750			
0.1565	10018.23	3.9340	3.9340	-0.8241	25.81	-0.06	-0.750			
0.1590	10178.47	3.9310	3.9310	-0.8223	25.81	-0.06	-0.750			
0.1615	10335.69	3.9280	3.9279	-0.8230	25.81	-0.06	-0.750			
0.1640	10493.41	3.9250	3.9250	-0.8232	25.82	-0.05	-0.750			
0.1665	10652.83	3.9220	3.9219	-0.8241	25.82	-0.05	-0.750			
0.1689	10809.26	3.9190	3.9190	-0.8279	25.82	-0.05	-0.750			
0.1714	10969.40	3.9160	3.9161	-0.8232	25.82	-0.05	-0.750			
0.1739	11127.95	3.9130	3.9129	-0.8221	25.82	-0.05	-0.750			
0.1764	11286.92	3.9100	3.9099	-0.8284	25.82	-0.05	-0.750			
0.1788	11443.27	3.9070	3.9072	-0.8269	25.82	-0.05	-0.750			
0.1813	11601.20	3.9040	3.9039	-0.8350	25.82	-0.05	-0.750			
0.1838	11764.28	3.9010	3.9009	-0.8336	25.82	-0.05	-0.750			
0.1863	11922.80	3.8980	3.8981	-0.8335	25.82	-0.05	-0.750			
0.1888	12085.92	3.8950	3.8949	-0.8414	25.82	-0.05	-0.750			
0.1914	12248.31	3.8920	3.8920	-0.8414	25.82	-0.05	-0.750			
0.1939	12408.26	3.8890	3.8889	-0.8419	25.82	-0.05	-0.750			
0.1964	12569.15	3.8860	3.8860	-0.8392	25.82	-0.05	-0.750			
0.1989	12730.06	3.8830	3.8830	-0.8368	25.83	-0.04	-0.750			
0.2015	12893.64	3.8800	3.8798	-0.8489	25.83	-0.04	-0.750			
0.2040	13056.03	3.8770	3.8771	-0.8453	25.83	-0.04	-0.750			
0.2065	13218.41	3.8740	3.8739	-0.8485	25.84	-0.03	-0.750			
0.2091	13382.16	3.8710	3.8710	-0.8457	25.84	-0.03	-0.750			
0.2116	13542.72	3.8680	3.8680	-0.8418	25.84	-0.03	-0.750			
0.2142	13706.09	3.8650	3.8649	-0.8487	25.85	-0.02	-0.750			
0.2167	13868.79	3.8620	3.8619	-0.8489	25.85	-0.02	-0.750			
0.2192	14030.80	3.8590	3.8590	-0.8472	25.85	-0.02	-0.750			
0.2218	14195.19	3.8560	3.8560	-0.8504	25.86	-0.01	-0.750			
0.2243	14357.52	3.8530	3.8530	-0.8499	25.86	-0.01	-0.750			
0.2269	14522.46	3.8500	3.8500	-0.8561	25.86	-0.01	-0.750			
0.2295	14685.69	3.8470	3.8470	-0.8538	25.86	-0.01	-0.750			
0.2320	14849.92	3.8440	3.8440	-0.8599	25.86	-0.01	-0.750			
0.2346	15017.14	3.8410	3.8410	-0.8604	25.87	-0.00	-0.750			
0.2372	15183.07	3.8380	3.8379	-0.8589	25.87	-0.00	-0.750			
0.2398	15347.84	3.8350	3.8348	-0.8575	25.87	-0.00	-0.750			
0.2424	15511.84	3.8320	3.8319	-0.8531	25.87	0.00	-0.750			
0.2449	15674.29	3.8290	3.8289	-0.8568	25.88	0.01	-0.750			
0.2475	15838.71	3.8260	3.8260	-0.8535	25.88	0.01	-0.750			
0.2501	16004.41	3.8230	3.8229	-0.8562	25.89	0.02	-0.750			
0.2526	16169.15	3.8200	3.8201	-0.8516	25.89	0.02	-0.750			
0.2552	16331.51	3.8170	3.8170	-0.8500	25.89	0.02	-0.750			
0.2577	16493.04	3.8140	3.8140	-0.8558	25.90	0.03	-0.750			
0.2603	16658.72	3.8110	3.8108	-0.8552	25.90	0.03	-0.750			
0.2628	16821.55	3.8080	3.8080	-0.8529	25.91	0.04	-0.750			
0.2654	16988.11	3.8050	3.8054	-0.8611	25.91	0.04	-0.750			
0.2680	17153.04	3.8020	3.8020	-0.8594	25.91	0.04	-0.750			
0.2706	17318.88	3.7990	3.7989	-0.8645	25.91	0.04	-0.750			
0.2732	17485.12	3.7960	3.7959	-0.8579	25.91	0.04	-0.750			
0.2758	17651.93	3.7930	3.7929	-0.8561	25.91	0.04	-0.750			
0.2784	17816.36	3.7900	3.7902	-0.8522	25.91	0.04	-0.750			
0.2809	17978.88	3.7870	3.7870	-0.8453	25.91	0.04	-0.750			
0.2834	18139.04	3.7840	3.7839	-0.8451	25.92	0.05	-0.750			
0.2859	18299.48	3.7810	3.7810	-0.8376	25.92	0.05	-0.750			
0.2885	18462.36	3.7780	3.7779	-0.8395	25.93	0.06	-0.750			
0.2910	18622.68	3.7750	3.7752	-0.8388	25.93	0.06	-0.750			
0.2935	18784.04	3.7720	3.7718	-0.8378	25.93	0.06	-0.750			
0.2960	18944.09	3.7690	3.7690	-0.8318	25.93	0.06	-0.750			
0.2985	19102.67	3.7660	3.7660	-0.8287	25.93	0.06	-0.750			
0.3010	19263.79	3.7630	3.7631	-0.8272	25.93	0.06	-0.750			
0.3035	19422.25	3.7600	3.7600	-0.8282	25.93	0.06	-0.750			
0.3059	19579.77	3.7570	3.7570	-0.8256	25.93	0.06	-0.750			
0.3084	19737.35	3.7540	3.7540	-0.8322	25.94	0.07	-0.750			
0.3109	19898.00	3.7510	3.7510	-0.8335	25.94	0.07	-0.750			
0.3134	20059.20	3.7480	3.7479	-0.8386	25.95	0.08	-0.750			
0.3159	20220.10	3.7450	3.7452	-0.8407	25.95	0.08	-0.750			
0.3185	20384.14	3.7420	3.7420	-0.8403	25.95	0.08	-0.750			
0.3210	20543.15	3.7390	3.7390	-0.8455	25.95	0.08	-0.750			
0.3235	20704.37	3.7360	3.7360	-0.8493	25.96	0.09	-0.750			
0.3261	20868.97	3.7330	3.7329	-0.8590	25.96	0.09	-0.750			
0.3287	21035.17	3.7300	3.7301	-0.8619	25.96	0.09	-0.750			
0.3313	21201.08	3.7270	3.7270	-0.8709	25.96	0.09	-0.750			
0.3339	21369.48	3.7240	3.7241	-0.8774	25.96	0.09	-0.750			
0.3365	21536.65	3.7210	3.7210	-0.8837	25.97	0.10	-0.750			
0.3392	21708.38	3.7180	3.7179	-0.8972	25.97	0.10	-0.750			
0.3419	21879.82	3.7150	3.7150	-0.9080	25.97	0.10	-0.750			
0.3446	22055.25	3.7120	3.7120	-0.9328	25.97	0.10	-0.750			
0.3475	22239.23	3.7090	3.7088	-0.9500	25.97	0.10	-0.750			
0.3503	22421.99	3.7060	3.7060	-0.9629	25.97	0.10	-0.750			
0.3533	22610.50	3.7030	3.7032	-0.9865	25.97	0.10	-0.750			
0.3563	22800.22	3.7000	3.7001	-1.0058	25.97	0.10	-0.750			
0.3593	22996.76	3.6970	3.6968	-1.0251	25.96	0.09	-0.750			
0.3624	23192.19	3.6940	3.6941	-1.0428	25.96	0.09	-0.750			
0.3655	23394.98	3.6910	3.6911	-1.0683	25.96	0.09	-0.750			
0.3688	23603.08	3.6880	3.6881	-1.0840	25.96	0.09	-0.750			
0.3721	23812.93	3.6850	3.6849	-1.1024	25.95	0.08	-0.750			
0.3754	24025.65	3.6820	3.6820	-1.1183	25.95	0.08	-0.750			
0.3788	24241.03	3.6790	3.6791	-1.1443	25.95	0.08	-0.750			
0.3822	24463.54	3.6760	3.6759	-1.1694	25.94	0.07	-0.750			
0.3857	24687.29	3.6730	3.6730	-1.2092	25.94	0.07	-0.750			
0.3894	24923.46	3.6700	3.6699	-1.2543	25.93	0.06	-0.750			
0.3933	25172.20	3.6670	3.6668	-1.2850	25.93	0.06	-0.750			
0.3972	25422.79	3.6640	3.6641	-1.3085	25.92	0.05	-0.750			
0.4012	25678.67	3.6610	3.6610	-1.3365	25.91	0.04	-0.750			
0.4053	25938.10	3.6580	3.6580	-1.3421	25.91	0.04	-0.750			
0.4094	26201.59	3.6550	3.6549	-1.3452	25.91	0.04	-0.750			
0.4133	26453.06	3.6520	3.6520	-1.3605	25.91	0.04	-0.750			
0.4174	26714.93	3.6490	3.6491	-1.3886	25.91	0.04	-0.750			
0.4216	26985.00	3.6460	3.6458	-1.4156	25.90	0.03	-0.750			
0.4259	27256.18	3.6430	3.6429	-1.4631	25.89	0.02	-0.750			
0.4303	27542.33	3.6400	3.6400	-1.4919	25.88	0.01	-0.750			
0.4350	27837.90	3.6370	3.6369	-1.5500	25.87	0.00	-0.750			
0.4397	28139.68	3.6340	3.6343	-1.6132	25.86	-0.01	-0.750			
0.4445	28450.90	3.6310	3.6308	-1.6414	25.85	-0.02	-0.750			
0.4496	28776.34	3.6280	3.6282	-1.6832	25.84	-0.03	-0.750			
0.4548	29106.61	3.6250	3.6252	-1.7141	25.83	-0.04	-0.750			
0.4600	29438.80	3.6220	3.6218	-1.7545	25.82	-0.05	-0.750	0.399	0.502	
0.4653	29781.77	3.6190	3.6192	-1.7875	25.82	-0.05	-0.750			
0.4707	30125.76	3.6160	3.6160	-1.8207	25.82	-0.05	-0.750			
0.4762	30477.22	3.6130	3.6130	-1.8525	25.81	-0.06	-0.750			
0.4818	30834.37	3.6100	3.6098	-1.8846	25.80	-0.07	-0.750			
0.4876	31205.43	3.6070	3.6072	-1.9269	25.79	-0.08	-0.750			
0.4934	31575.54	3.6040	3.6042	-1.9482	25.79	-0.08	-0.750			
0.4992	31948.16	3.6010	3.6010	-1.9916	25.78	-0.09	-0.750			
0.5053	32336.62	3.5980	3.5979	-2.0202	25.77	-0.10	-0.750			
0.5114	32732.43	3.5950	3.5951	-2.0669	25.77	-0.10	-0.750			
0.5177	33133.63	3.5920	3.5920	-2.1189	25.77	-0.10	-0.750			
0.5241	33543.88	3.5890	3.5889	-2.1313	25.76	-0.11	-0.750			
0.5306	33956.43	3.5860	3.5863	-2.1610	25.76	-0.11	-0.750			
0.5371	34374.02	3.5830	3.5832	-2.1946	25.75	-0.12	-0.750			
0.5437	34797.51	3.5800	3.5798	-2.2173	25.75	-0.12	-0.750			
0.5504	35226.45	3.5770	3.5771	-2.2524	25.74	-0.13	-0.750			
0.5572	35663.75	3.5740	3.5741	-2.2921	25.74	-0.13	-0.750			
0.5642	36107.96	3.5710	3.5708	-2.3237	25.74	-0.13	-0.750			
0.5712	36559.32	3.5680	3.5681	-2.3441	25.74	-0.13	-0.750			
0.5784	37016.32	3.5650	3.5650	-2.3515	25.74	-0.13	-0.750			
0.5855	37469.24	3.5620	3.5622	-2.3503	25.75	-0.12	-0.750			
0.5926	37924.88	3.5590	3.5588	-2.3374	25.75	-0.12	-0.750			
0.5995	38369.18	3.5560	3.5559	-2.3404	25.74	-0.13	-0.750			
0.6065	38816.60	3.5530	3.5531	-2.3218	25.73	-0.14	-0.750			
0.6136	39268.29	3.5500	3.5500	-2.2977	25.74	-0.13	-0.750			
0.6205	39710.00	3.5470	3.5469	-2.2725	25.74	-0.13	-0.750			
0.6273	40146.49	3.5440	3.5441	-2.2284	25.75	-0.12	-0.750			
0.6340	40572.88	3.5410	3.5413	-2.1959	25.75	-0.12	-0.750			
0.6404	40982.91	3.5380	3.5379	-2.1729	25.75	-0.12	-0.750			
0.6468	41393.90	3.5350	3.5347	-2.1466	25.76	-0.11	-0.750			
0.6533	41812.54	3.5320	3.5322	-2.1291	25.77	-0.10	-0.750			
0.6599	42233.38	3.5290	3.5291	-2.1064	25.78	-0.09	-0.750			
0.6661	42627.29	3.5260	3.5260	-2.0535	25.79	-0.08	-0.750			
0.6722	43020.75	3.5230	3.5232	-2.0072	25.80	-0.07	-0.750			
0.6782	43402.97	3.5200	3.5201	-1.9768	25.80	-0.07	-0.750			
0.6840	43772.94	3.5170	3.5174	-1.9082	25.81	-0.06	-0.750			
0.6896	44135.75	3.5140	3.5141	-1.8598	25.83	-0.04	-0.750			
0.6952	44493.76	3.5110	3.5109	-1.8094	25.85	-0.02	-0.750			
0.7006	44836.29	3.5080	3.5080	-1.7330	25.86	-0.01	-0.750			
0.7057	45162.06	3.5050	3.5047	-1.6588	25.88	0.01	-0.750			
0.7105	45471.06	3.5020	3.5019	-1.5796	25.89	0.02	-0.750			
0.7151	45765.28	3.4990	3.4993	-1.5164	25.91	0.04	-0.750			
0.7195	46050.96	3.4960	3.4958	-1.4628	25.93	0.06	-0.750			
0.7238	46321.55	3.4930	3.4929	-1.4010	25.94	0.07	-0.750			
0.7280	46590.80	3.4900	3.4904	-1.3749	25.96	0.09	-0.750			
0.7321	46853.57	3.4870	3.4869	-1.3453	25.98	0.11	-0.750			
0.7360	47104.09	3.4840	3.4840	-1.2980	25.99	0.12	-0.750			
0.7398	47346.97	3.4810	3.4812	-1.2582	26.01	0.14	-0.750			
0.7436	47590.93	3.4780	3.4779	-1.2273	26.02	0.15	-0.750			
0.7472	47821.86	3.4750	3.4750	-1.1805	26.03	0.16	-0.750			
0.7507	48043.65	3.4720	3.4720	-1.1381	26.04	0.17	-0.750			
0.7540	48255.06	3.4690	3.4691	-1.0994	26.06	0.19	-0.750			
0.7572	48463.99	3.4660	3.4658	-1.0608	26.07	0.20	-0.750			
0.7603	48661.99	3.4630	3.4629	-1.0257	26.09	0.22	-0.750			
0.7633	48854.33	3.4600	3.4600	-0.9842	26.10	0.23	-0.750			
0.7663	49041.76	3.4570	3.4572	-0.9648	26.11	0.24	-0.750			
0.7691	49220.54	3.4540	3.4540	-0.9464	26.12	0.25	-0.750			
0.7719	49398.87	3.4510	3.4508	-0.9334	26.13	0.26	-0.750			
0.7746	49573.69	3.4480	3.4479	-0.9206	26.14	0.27	-0.750			
0.7774	49751.69	3.4450	3.4452	-0.9274	26.15	0.28	-0.750			
0.7801	49926.77	3.4420	3.4420	-0.9457	26.16	0.29	-0.750			
0.7830	50110.76	3.4390	3.4389	-0.9679	26.17	0.30	-0.750			
0.7858	50292.81	3.4360	3.4359	-0.9828	26.19	0.32	-0.750			
0.7888	50483.28	3.4330	3.4329	-1.0183	26.20	0.33	-0.750			
0.7920	50686.26	3.4300	3.4299	-1.0577	26.21	0.34	-0.750			
0.7952	50894.76	3.4270	3.4269	-1.0859	26.22	0.35	-0.750			
0.7986	51110.00	3.4240	3.4239	-1.0987	26.23	0.36	-0.750			
0.8019	51321.74	3.4210	3.4212	-1.1029	26.24	0.37	-0.750			
0.8053	51539.82	3.4180	3.4178	-1.0996	26.25	0.38	-0.750			
0.8086	51751.49	3.4150	3.4149	-1.0878	26.25	0.38	-0.750			
0.8119	51959.29	3.4120	3.4120	-1.0588	26.26	0.39	-0.750			
0.8150	52159.21	3.4090	3.4090	-1.0319	26.27	0.40	-0.750			
0.8181	52358.85	3.4060	3.4060	-1.0086	26.28	0.41	-0.750			
0.8211	52550.35	3.4030	3.4030	-0.9764	26.29	0.42	-0.750			
0.8240	52734.41	3.4000	3.3999	-0.9388	26.30	0.43	-0.750			
0.8267	52911.94	3.3970	3.3969	-0.9064	26.31	0.44	-0.750			
0.8294	53081.77	3.3940	3.3940	-0.8678	26.31	0.44	-0.750			
0.8320	53245.37	3.3910	3.3909	-0.8375	26.32	0.45	-0.750			
0.8344	53402.46	3.3880	3.3880	-0.7987	26.33	0.46	-0.750			
0.8367	53550.84	3.3850	3.3850	-0.7631	26.34	0.47	-0.750			
0.8390	53696.17	3.3820	3.3819	-0.7371	26.35	0.48	-0.750			
0.8412	53834.54	3.3790	3.3791	-0.7075	26.35	0.48	-0.750			
0.8432	53965.76	3.3760	3.3759	-0.6802	26.36	0.49	-0.750			
0.8452	54093.51	3.3730	3.3730	-0.6562	26.37	0.50	-0.750			
0.8471	54216.00	3.3700	3.3700	-0.6288	26.37	0.50	-0.750			
0.8490	54337.00	3.3670	3.3670	-0.6086	26.38	0.51	-0.750			
0.8508	54452.48	3.3640	3.3640	-0.5799	26.38	0.51	-0.750			
0.8525	54561.23	3.3610	3.3611	-0.5527	26.39	0.52	-0.750			
0.8541	54663.13	3.3580	3.3580	-0.5279	26.40	0.53	-0.750			
0.8556	54760.90	3.3550	3.3549	-0.5047	26.40	0.53	-0.750			
0.8571	54854.25	3.3520	3.3520	-0.4830	26.41	0.54	-0.750			
0.8585	54945.01	3.3490	3.3490	-0.4672	26.41	0.54	-0.750			
0.8599	55034.15	3.3460	3.3460	-0.4551	26.42	0.55	-0.750			
0.8613	55120.88	3.3430	3.3429	-0.4399	26.42	0.55	-0.750			
0.8626	55203.73	3.3400	3.3399	-0.4212	26.43	0.56	-0.750			
0.8638	55283.38	3.3370	3.3371	-0.4021	26.43	0.56	-0.750			
0.8650	55358.69	3.3340	3.3340	-0.3865	26.44	0.57	-0.750			
0.8661	55430.69	3.3310	3.3310	-0.3721	26.44	0.57	-0.750			
0.8672	55499.18	3.3280	3.3280	-0.3570	26.45	0.58	-0.750			
0.8682	55565.72	3.3250	3.3248	-0.3465	26.45	0.58	-0.750			
0.8693	55632.49	3.3220	3.3221	-0.3338	26.46	0.59	-0.750			
0.8703	55696.54	3.3190	3.3191	-0.3237	26.46	0.59	-0.750			
0.8712	55757.10	3.3160	3.3161	-0.3129	26.47	0.60	-0.750			
0.8721	55816.16	3.3130	3.3129	-0.3009	26.47	0.60	-0.750			
0.8730	55871.45	3.3100	3.3099	-0.2880	26.48	0.61	-0.750			
0.8738	55925.75	3.3070	3.3071	-0.2787	26.48	0.61	-0.750			
0.8747	55977.99	3.3040	3.3041	-0.2703	26.48	0.61	-0.750			
0.8755	56029.66	3.3010	3.3010	-0.2637	26.49	0.62	-0.750			
0.8762	56079.02	3.2980	3.2979	-0.2539	26.49	0.62	-0.750			
0.8770	56126.85	3.2950	3.2950	-0.2452	26.50	0.63	-0.750			
0.8777	56173.39	3.2920	3.2922	-0.2394	26.50	0.63	-0.750			
0.8784	56218.16	3.2890	3.2890	-0.2342	26.50	0.63	-0.750			
0.8791	56262.54	3.2860	3.2859	-0.2267	26.51	0.64	-0.750			
0.8798	56305.16	3.2830	3.2829	-0.2205	26.52	0.65	-0.750			
0.8804	56347.07	3.2800	3.2800	-0.2153	26.52	0.65	-0.750			
0.8811	56388.00	3.2770	3.2772	-0.2098	26.53	0.66	-0.750			
0.8817	56427.96	3.2740	3.2740	-0.2061	26.53	0.66	-0.750			
0.8823	56467.10	3.2710	3.2709	-0.2008	26.54	0.67	-0.750			
0.8829	56504.36	3.2680	3.2680	-0.1958	26.54	0.67	-0.750			
0.8835	56541.25	3.2650	3.2649	-0.1911	26.55	0.68	-0.750			
0.8840	56578.23	3.2620	3.2620	-0.1889	26.55	0.68	-0.750			
0.8846	56614.09	3.2590	3.2591	-0.1846	26.56	0.69	-0.750			
0.8851	56648.88	3.2560	3.2560	-0.1814	26.56	0.69	-0.750			
0.8857	56683.38	3.2530	3.2530	-0.1782	26.57	0.70	-0.750			
0.8862	56716.72	3.2500	3.2499	-0.1744	26.57	0.70	-0.750			
0.8867	56750.03	3.2470	3.2470	-0.1725	26.57	0.70	-0.750			
0.8872	56783.05	3.2440	3.2440	-0.1697	26.58	0.71	-0.750			
0.8877	56815.52	3.2410	3.2409	-0.1675	26.58	0.71	-0.750			
0.8882	56847.49	3.2380	3.2380	-0.1650	26.59	0.72	-0.750			
0.8887	56878.89	3.2350	3.2351	-0.1621	26.59	0.72	-0.750			
0.8892	56909.56	3.2320	3.2320	-0.1594	26.60	0.73	-0.750			
0.8897	56939.96	3.2290	3.2291	-0.1572	26.60	0.73	-0.750			
0.8902	56969.67	3.2260	3.2260	-0.1544	26.60	0.73	-0.750			
0.8906	56999.13	3.2230	3.2229	-0.1524	26.60	0.73	-0.750			
0.8911	57028.25	3.2200	3.2201	-0.1509	26.61	0.74	-0.750			
0.8915	57056.97	3.2170	3.2170	-0.1487	26.61	0.74	-0.750			
0.8920	57085.40	3.2140	3.2140	-0.1470	26.62	0.75	-0.750			
0.8924	57113.32	3.2110	3.2110	-0.1459	26.62	0.75	-0.750			
0.8928	57141.21	3.2080	3.2080	-0.1442	26.63	0.76	-0.750			
0.8933	57168.77	3.2050	3.2050	-0.1428	26.63	0.76	-0.750			
0.8937	57196.04	3.2020	3.2019	-0.1413	26.64	0.77	-0.750			
0.8941	57223.13	3.1990	3.1990	-0.1393	26.64	0.77	-0.750			
0.8945	57249.54	3.1960	3.1959	-0.1381	26.64	0.77	-0.750			
0.8949	57275.92	3.1930	3.1931	-0.1369	26.65	0.78	-0.750			
0.8953	57302.08	3.1900	3.1900	-0.1356	26.65	0.78	-0.750			
0.8957	57327.92	3.1870	3.1869	-0.1332	26.66	0.79	-0.750			
0.8961	57353.40	3.1840	3.1840	-0.1322	26.66	0.79	-0.750			
0.8965	57378.46	3.1810	3.1811	-0.1309	26.67	0.80	-0.750			
0.8969	57403.50	3.1780	3.1781	-0.1299	26.67	0.80	-0.750			
0.8973	57428.36	3.1750	3.1748	-0.1289	26.67	0.80	-0.750			
0.8977	57452.72	3.1720	3.1720	-0.1274	26.68	0.81	-0.750			
0.8981	57477.26	3.1690	3.1690	-0.1267	26.68	0.81	-0.750			
0.8985	57501.51	3.1660	3.1661	-0.1259	26.69	0.82	-0.750			
