Ah_balance (normalized)	Ah_balance (mAh)	Voltage - fit (V)	Voltage -  interpolate (V)	dQ/dV (1/V)	Temperature (°C)	Temperature - diff (°C)	Current (C)	R_DC 0ms (mOhm)	R_DC 50ms (mOhm)	R_DC 50 ms PEC (mOhm)
0.0002	12.92	4.1610	4.1600	-0.0988	25.85	0.00	-0.750			
0.0006	36.56	4.1580	4.1577	-0.1419	25.85	0.00	-0.750			
0.0011	67.34	4.1550	4.1549	-0.1801	25.85	-0.00	-0.750			
0.0017	105.90	4.1520	4.1521	-0.2177	25.85	-0.00	-0.750			
0.0024	151.41	4.1490	4.1490	-0.2547	25.85	-0.00	-0.750			
0.0032	204.06	4.1460	4.1460	-0.2904	25.84	-0.01	-0.750			
0.0041	263.84	4.1430	4.1430	-0.3268	25.84	-0.01	-0.750			
0.0052	330.41	4.1400	4.1400	-0.3598	25.84	-0.01	-0.750			
0.0063	403.90	4.1370	4.1370	-0.3897	25.84	-0.01	-0.750			
0.0075	482.10	4.1340	4.1340	-0.4195	25.83	-0.02	-0.750			
0.0088	565.43	4.1310	4.1311	-0.4478	25.83	-0.02	-0.750			
0.0102	654.62	4.1280	4.1280	-0.4711	25.83	-0.02	-0.750			
0.0117	747.65	4.1250	4.1249	-0.4932	25.82	-0.03	-0.750			
0.0132	844.92	4.1220	4.1221	-0.5129	25.82	-0.03	-0.750			
0.0148	946.07	4.1190	4.1190	-0.5314	25.82	-0.03	-0.750			
0.0164	1050.97	4.1160	4.1160	-0.5508	25.81	-0.04	-0.750			
0.0181	1157.70	4.1130	4.1130	-0.5632	25.81	-0.04	-0.750			
0.0198	1267.31	4.1100	4.1101	-0.5802	25.80	-0.05	-0.750			
0.0216	1381.94	4.1070	4.1070	-0.5931	25.80	-0.05	-0.750			
0.0234	1497.40	4.1040	4.1039	-0.5992	25.80	-0.05	-0.750			
0.0252	1614.48	4.1010	4.1011	-0.6081	25.79	-0.06	-0.750			
0.0271	1731.40	4.0980	4.0980	-0.6135	25.79	-0.06	-0.750			
0.0289	1849.30	4.0950	4.0950	-0.6191	25.79	-0.06	-0.750			
0.0308	1968.01	4.0920	4.0919	-0.6287	25.78	-0.07	-0.750			
0.0326	2087.89	4.0890	4.0890	-0.6340	25.78	-0.07	-0.750			
0.0346	2212.85	4.0860	4.0860	-0.6452	25.78	-0.07	-0.750			
0.0365	2337.64	4.0830	4.0830	-0.6505	25.77	-0.08	-0.750			
0.0385	2463.55	4.0800	4.0802	-0.6558	25.77	-0.08	-0.750			
0.0405	2590.24	4.0770	4.0769	-0.6598	25.77	-0.08	-0.750			
0.0424	2716.62	4.0740	4.0741	-0.6638	25.77	-0.08	-0.750			
0.0444	2844.64	4.0710	4.0710	-0.6701	25.77	-0.08	-0.750			
0.0465	2975.16	4.0680	4.0679	-0.6749	25.77	-0.08	-0.750			
0.0485	3105.71	4.0650	4.0649	-0.6737	25.77	-0.08	-0.750			
0.0506	3235.62	4.0620	4.0622	-0.6743	25.77	-0.08	-0.750			
0.0526	3364.47	4.0590	4.0590	-0.6746	25.77	-0.08	-0.750			
0.0546	3493.46	4.0560	4.0560	-0.6751	25.77	-0.08	-0.750			
0.0566	3621.81	4.0530	4.0530	-0.6826	25.77	-0.08	-0.750			
0.0586	3752.68	4.0500	4.0500	-0.6848	25.77	-0.08	-0.750			
0.0607	3887.54	4.0470	4.0469	-0.6878	25.77	-0.08	-0.750			
0.0628	4020.06	4.0440	4.0440	-0.6895	25.77	-0.08	-0.750			
0.0649	4152.70	4.0410	4.0410	-0.6931	25.77	-0.08	-0.750			
0.0670	4285.77	4.0380	4.0380	-0.6933	25.77	-0.08	-0.750			
0.0690	4417.08	4.0350	4.0350	-0.6968	25.77	-0.08	-0.750			
0.0711	4550.62	4.0320	4.0321	-0.7001	25.77	-0.08	-0.750			
0.0732	4687.84	4.0290	4.0290	-0.7109	25.77	-0.08	-0.750			
0.0754	4825.04	4.0260	4.0260	-0.7139	25.77	-0.08	-0.750			
0.0775	4962.59	4.0230	4.0230	-0.7174	25.77	-0.08	-0.750			
0.0797	5101.62	4.0200	4.0201	-0.7160	25.77	-0.08	-0.750			
0.0819	5240.27	4.0170	4.0170	-0.7214	25.77	-0.08	-0.750			
0.0840	5378.06	4.0140	4.0140	-0.7209	25.77	-0.08	-0.750			
0.0862	5516.97	4.0110	4.0109	-0.7232	25.77	-0.08	-0.750			
0.0884	5654.67	4.0080	4.0083	-0.7231	25.77	-0.08	-0.750			
0.0905	5794.25	4.0050	4.0050	-0.7261	25.77	-0.08	-0.750			
0.0927	5932.79	4.0020	4.0020	-0.7302	25.77	-0.08	-0.750			
0.0949	6075.16	3.9990	3.9989	-0.7316	25.78	-0.07	-0.750			
0.0971	6216.60	3.9960	3.9960	-0.7327	25.78	-0.07	-0.750			
0.0993	6356.47	3.9930	3.9930	-0.7329	25.78	-0.07	-0.750			
0.1015	6497.28	3.9900	3.9901	-0.7325	25.78	-0.07	-0.750			
0.1037	6637.62	3.9870	3.9869	-0.7330	25.78	-0.07	-0.750			
0.1059	6777.04	3.9840	3.9840	-0.7343	25.78	-0.07	-0.750			
0.1081	6916.03	3.9810	3.9810	-0.7384	25.79	-0.06	-0.750			
0.1103	7060.80	3.9780	3.9780	-0.7449	25.79	-0.06	-0.750			
0.1126	7205.05	3.9750	3.9749	-0.7463	25.79	-0.06	-0.750			
0.1148	7347.90	3.9720	3.9720	-0.7484	25.79	-0.06	-0.750			
0.1171	7492.50	3.9690	3.9690	-0.7556	25.79	-0.06	-0.750			
0.1193	7638.03	3.9660	3.9660	-0.7568	25.79	-0.06	-0.750			
0.1216	7783.43	3.9630	3.9629	-0.7539	25.80	-0.05	-0.750			
0.1239	7927.78	3.9600	3.9601	-0.7544	25.80	-0.05	-0.750			
0.1262	8074.21	3.9570	3.9572	-0.7590	25.80	-0.05	-0.750			
0.1284	8218.90	3.9540	3.9539	-0.7594	25.80	-0.05	-0.750			
0.1307	8363.95	3.9510	3.9510	-0.7629	25.80	-0.05	-0.750			
0.1330	8510.95	3.9480	3.9480	-0.7648	25.81	-0.04	-0.750			
0.1353	8660.64	3.9450	3.9449	-0.7653	25.81	-0.04	-0.750			
0.1376	8807.59	3.9420	3.9419	-0.7665	25.81	-0.04	-0.750			
0.1399	8953.37	3.9390	3.9390	-0.7698	25.81	-0.04	-0.750			
0.1422	9100.76	3.9360	3.9360	-0.7739	25.81	-0.04	-0.750			
0.1445	9248.81	3.9330	3.9329	-0.7708	25.81	-0.04	-0.750			
0.1468	9397.03	3.9300	3.9300	-0.7734	25.82	-0.03	-0.750			
0.1492	9547.90	3.9270	3.9271	-0.7794	25.82	-0.03	-0.750			
0.1515	9697.75	3.9240	3.9240	-0.7801	25.82	-0.03	-0.750			
0.1538	9846.13	3.9210	3.9211	-0.7813	25.82	-0.03	-0.750			
0.1562	9996.34	3.9180	3.9180	-0.7850	25.83	-0.02	-0.750			
0.1586	10149.35	3.9150	3.9150	-0.7856	25.83	-0.02	-0.750			
0.1610	10302.28	3.9120	3.9120	-0.7854	25.84	-0.01	-0.750			
0.1633	10451.09	3.9090	3.9091	-0.7869	25.84	-0.01	-0.750			
0.1656	10601.12	3.9060	3.9061	-0.7879	25.85	-0.00	-0.750			
0.1680	10751.21	3.9030	3.9028	-0.7910	25.85	0.00	-0.750			
0.1704	10903.70	3.9000	3.8999	-0.7925	25.86	0.01	-0.750			
0.1728	11058.71	3.8970	3.8970	-0.7930	25.86	0.01	-0.750			
0.1752	11211.84	3.8940	3.8941	-0.7926	25.87	0.02	-0.750			
0.1775	11363.17	3.8910	3.8910	-0.7990	25.87	0.02	-0.750			
0.1799	11513.83	3.8880	3.8880	-0.8031	25.87	0.02	-0.750			
0.1823	11668.96	3.8850	3.8848	-0.8027	25.87	0.02	-0.750			
0.1847	11823.28	3.8820	3.8820	-0.8044	25.87	0.02	-0.750			
0.1872	11981.55	3.8790	3.8791	-0.8112	25.87	0.02	-0.750			
0.1897	12138.83	3.8760	3.8760	-0.8031	25.87	0.02	-0.750			
0.1921	12291.60	3.8730	3.8729	-0.7998	25.88	0.03	-0.750			
0.1944	12441.94	3.8700	3.8701	-0.7963	25.88	0.03	-0.750			
0.1968	12593.03	3.8670	3.8670	-0.7952	25.88	0.03	-0.750			
0.1992	12747.03	3.8640	3.8639	-0.8027	25.89	0.04	-0.750			
0.2016	12901.46	3.8610	3.8610	-0.8039	25.89	0.04	-0.750			
0.2040	13056.24	3.8580	3.8581	-0.8043	25.90	0.05	-0.750			
0.2065	13213.99	3.8550	3.8549	-0.8129	25.90	0.05	-0.750			
0.2089	13369.06	3.8520	3.8521	-0.8065	25.90	0.05	-0.750			
0.2113	13525.09	3.8490	3.8489	-0.8028	25.91	0.06	-0.750			
0.2137	13678.69	3.8460	3.8462	-0.8011	25.91	0.06	-0.750			
0.2161	13831.79	3.8430	3.8430	-0.7942	25.91	0.06	-0.750			
0.2185	13982.82	3.8400	3.8400	-0.7963	25.91	0.06	-0.750			
0.2209	14134.59	3.8370	3.8370	-0.7959	25.92	0.07	-0.750			
0.2233	14288.06	3.8340	3.8340	-0.8000	25.92	0.07	-0.750			
0.2257	14442.23	3.8310	3.8312	-0.7998	25.92	0.07	-0.750			
0.2281	14596.60	3.8280	3.8279	-0.8015	25.92	0.07	-0.750			
0.2305	14750.43	3.8250	3.8251	-0.7991	25.92	0.07	-0.750			
0.2329	14904.41	3.8220	3.8220	-0.7963	25.93	0.08	-0.750			
0.2353	15057.21	3.8190	3.8189	-0.7926	25.93	0.08	-0.750			
0.2376	15208.07	3.8160	3.8161	-0.7890	25.93	0.08	-0.750			
0.2400	15358.70	3.8130	3.8130	-0.7838	25.93	0.08	-0.750			
0.2423	15508.39	3.8100	3.8100	-0.7852	25.94	0.09	-0.750			
0.2447	15659.01	3.8070	3.8070	-0.7810	25.94	0.09	-0.750			
0.2470	15808.40	3.8040	3.8040	-0.7786	25.94	0.09	-0.750			
0.2494	15958.46	3.8010	3.8009	-0.7822	25.95	0.10	-0.750			
0.2517	16109.60	3.7980	3.7981	-0.7764	25.95	0.10	-0.750			
0.2540	16258.58	3.7950	3.7949	-0.7708	25.96	0.11	-0.750			
0.2564	16406.81	3.7920	3.7921	-0.7693	25.96	0.11	-0.750			
0.2586	16552.77	3.7890	3.7890	-0.7630	25.96	0.11	-0.750			
0.2609	16700.10	3.7860	3.7860	-0.7611	25.97	0.12	-0.750			
0.2632	16845.91	3.7830	3.7832	-0.7518	25.97	0.12	-0.750			
0.2654	16988.49	3.7800	3.7800	-0.7451	25.97	0.12	-0.750			
0.2677	17132.47	3.7770	3.7770	-0.7439	25.98	0.13	-0.750			
0.2699	17273.17	3.7740	3.7740	-0.7447	25.98	0.13	-0.750			
0.2721	17416.03	3.7710	3.7709	-0.7445	25.98	0.13	-0.750			
0.2744	17558.78	3.7680	3.7680	-0.7451	25.99	0.14	-0.750			
0.2766	17703.38	3.7650	3.7651	-0.7489	25.99	0.14	-0.750			
0.2789	17848.09	3.7620	3.7619	-0.7508	25.99	0.14	-0.750			
0.2811	17991.83	3.7590	3.7590	-0.7521	26.00	0.15	-0.750			
0.2833	18134.19	3.7560	3.7560	-0.7497	26.00	0.15	-0.750			
0.2856	18279.79	3.7530	3.7530	-0.7530	26.01	0.16	-0.750			
0.2879	18425.08	3.7500	3.7500	-0.7551	26.01	0.16	-0.750			
0.2901	18569.45	3.7470	3.7470	-0.7589	26.01	0.16	-0.750			
0.2924	18714.98	3.7440	3.7440	-0.7636	26.01	0.16	-0.750			
0.2947	18860.25	3.7410	3.7410	-0.7721	26.01	0.16	-0.750			
0.2970	19008.04	3.7380	3.7381	-0.7826	26.01	0.16	-0.750			
0.2994	19161.52	3.7350	3.7349	-0.7941	26.01	0.16	-0.750			
0.3018	19315.74	3.7320	3.7320	-0.8041	26.01	0.16	-0.750			
0.3042	19470.65	3.7290	3.7291	-0.8150	26.01	0.16	-0.750			
0.3067	19628.81	3.7260	3.7260	-0.8196	26.01	0.16	-0.750			
0.3092	19787.00	3.7230	3.7230	-0.8291	26.01	0.16	-0.750			
0.3116	19945.14	3.7200	3.7199	-0.8440	26.01	0.16	-0.750			
0.3142	20106.62	3.7170	3.7170	-0.8586	26.01	0.16	-0.750			
0.3168	20273.85	3.7140	3.7139	-0.8815	26.01	0.16	-0.750			
0.3195	20445.00	3.7110	3.7110	-0.9012	26.01	0.16	-0.750			
0.3222	20621.27	3.7080	3.7080	-0.9102	26.01	0.16	-0.750			
0.3250	20800.33	3.7050	3.7050	-0.9284	26.01	0.16	-0.750			
0.3278	20977.56	3.7020	3.7020	-0.9423	26.01	0.16	-0.750			
0.3306	21159.72	3.6990	3.6988	-0.9547	26.01	0.16	-0.750			
0.3335	21343.13	3.6960	3.6960	-0.9683	26.01	0.16	-0.750			
0.3364	21530.48	3.6930	3.6930	-0.9842	26.01	0.16	-0.750			
0.3394	21720.65	3.6900	3.6902	-1.0162	26.01	0.16	-0.750			
0.3425	21920.00	3.6870	3.6869	-1.0387	26.00	0.15	-0.750			
0.3456	22120.73	3.6840	3.6839	-1.0533	26.00	0.15	-0.750			
0.3488	22324.39	3.6810	3.6809	-1.0678	25.99	0.14	-0.750			
0.3521	22532.53	3.6780	3.6781	-1.0948	25.99	0.14	-0.750			
0.3554	22746.49	3.6750	3.6750	-1.1123	25.99	0.14	-0.750			
0.3588	22960.66	3.6720	3.6718	-1.1311	25.98	0.13	-0.750			
0.3621	23176.20	3.6690	3.6691	-1.1425	25.98	0.13	-0.750			
0.3656	23401.25	3.6660	3.6659	-1.1723	25.98	0.13	-0.750			
0.3692	23629.30	3.6630	3.6630	-1.1982	25.98	0.13	-0.750			
0.3728	23860.52	3.6600	3.6599	-1.2188	25.97	0.12	-0.750			
0.3765	24094.02	3.6570	3.6571	-1.2405	25.97	0.12	-0.750			
0.3803	24336.83	3.6540	3.6540	-1.2722	25.96	0.11	-0.750			
0.3841	24582.73	3.6510	3.6510	-1.2933	25.96	0.11	-0.750			
0.3880	24834.81	3.6480	3.6480	-1.3232	25.95	0.10	-0.750			
0.3921	25092.52	3.6450	3.6450	-1.3503	25.94	0.09	-0.750			
0.3961	25353.15	3.6420	3.6419	-1.3918	25.92	0.07	-0.750			
0.4004	25624.99	3.6390	3.6391	-1.4225	25.91	0.06	-0.750			
0.4047	25901.17	3.6360	3.6358	-1.4484	25.91	0.06	-0.750			
0.4091	26183.73	3.6330	3.6335	-1.4769	25.90	0.05	-0.750			
0.4137	26473.69	3.6300	3.6300	-1.4977	25.90	0.05	-0.750			
0.4181	26760.87	3.6270	3.6268	-1.5149	25.90	0.05	-0.750			
0.4227	27054.75	3.6240	3.6241	-1.5333	25.89	0.04	-0.750			
0.4274	27350.79	3.6210	3.6211	-1.5688	25.89	0.04	-0.750			
0.4320	27650.69	3.6180	3.6179	-1.5999	25.88	0.03	-0.750			
0.4369	27961.36	3.6150	3.6151	-1.6355	25.87	0.02	-0.750	0.380	0.518	
0.4418	28273.69	3.6120	3.6120	-1.6766	25.86	0.01	-0.750			
0.4470	28608.68	3.6090	3.6089	-1.7069	25.86	0.01	-0.750			
0.4522	28941.65	3.6060	3.6060	-1.7207	25.85	-0.00	-0.750			
0.4575	29279.36	3.6030	3.6030	-1.7547	25.84	-0.01	-0.750			
0.4626	29605.72	3.6000	3.6001	-1.7619	25.84	-0.01	-0.750			
0.4678	29939.02	3.5970	3.5969	-1.8112	25.83	-0.02	-0.750			
0.4733	30290.29	3.5940	3.5939	-1.8474	25.82	-0.03	-0.750			
0.4788	30643.31	3.5910	3.5909	-1.8953	25.82	-0.03	-0.750			
0.4847	31018.16	3.5880	3.5883	-1.9550	25.81	-0.04	-0.750			
0.4907	31405.12	3.5850	3.5846	-1.9843	25.81	-0.04	-0.750			
0.4967	31789.44	3.5820	3.5817	-2.0138	25.81	-0.04	-0.750			
0.5028	32178.66	3.5790	3.5790	-2.0490	25.81	-0.04	-0.750			
0.5091	32582.86	3.5760	3.5756	-2.0942	25.80	-0.05	-0.750			
0.5152	32974.20	3.5730	3.5732	-2.1008	25.80	-0.05	-0.750			
0.5216	33384.24	3.5700	3.5701	-2.1274	25.79	-0.06	-0.750			
0.5282	33802.98	3.5670	3.5669	-2.1590	25.79	-0.06	-0.750			
0.5347	34221.08	3.5640	3.5641	-2.1406	25.79	-0.06	-0.750			
0.5412	34633.96	3.5610	3.5610	-2.1679	25.79	-0.06	-0.750			
0.5476	35047.07	3.5580	3.5579	-2.1753	25.80	-0.05	-0.750			
0.5541	35460.16	3.5550	3.5546	-2.1754	25.80	-0.05	-0.750			
0.5607	35881.88	3.5520	3.5521	-2.1779	25.80	-0.05	-0.750			
0.5673	36305.43	3.5490	3.5490	-2.1720	25.80	-0.05	-0.750			
0.5738	36722.28	3.5460	3.5458	-2.1732	25.80	-0.05	-0.750			
0.5803	37140.58	3.5430	3.5430	-2.1368	25.80	-0.05	-0.750			
0.5867	37547.04	3.5400	3.5401	-2.1186	25.81	-0.04	-0.750			
0.5930	37954.36	3.5370	3.5371	-2.1108	25.81	-0.04	-0.750			
0.5993	38353.47	3.5340	3.5340	-2.0696	25.82	-0.03	-0.750			
0.6055	38754.22	3.5310	3.5311	-2.0514	25.82	-0.03	-0.750			
0.6118	39152.55	3.5280	3.5280	-2.0284	25.82	-0.03	-0.750			
0.6178	39541.35	3.5250	3.5250	-1.9797	25.83	-0.02	-0.750			
0.6238	39920.47	3.5220	3.5219	-1.9409	25.85	0.00	-0.750			
0.6295	40285.41	3.5190	3.5191	-1.8992	25.86	0.01	-0.750			
0.6351	40647.60	3.5160	3.5157	-1.8466	25.87	0.02	-0.750			
0.6406	40999.56	3.5130	3.5131	-1.8082	25.88	0.03	-0.750			
0.6460	41341.23	3.5100	3.5100	-1.7681	25.89	0.04	-0.750			
0.6513	41680.06	3.5070	3.5072	-1.7001	25.91	0.06	-0.750			
0.6563	42006.20	3.5040	3.5043	-1.6476	25.92	0.07	-0.750			
0.6612	42313.90	3.5010	3.5012	-1.5940	25.93	0.08	-0.750			
0.6659	42614.54	3.4980	3.4978	-1.5415	25.94	0.09	-0.750			
0.6704	42907.10	3.4950	3.4949	-1.4902	25.95	0.10	-0.750			
0.6748	43185.66	3.4920	3.4919	-1.4429	25.97	0.12	-0.750			
0.6790	43458.41	3.4890	3.4890	-1.4022	25.99	0.14	-0.750			
0.6832	43724.73	3.4860	3.4859	-1.3641	26.01	0.16	-0.750			
0.6871	43974.42	3.4830	3.4830	-1.3185	26.02	0.17	-0.750			
0.6910	44225.97	3.4800	3.4800	-1.2729	26.04	0.19	-0.750			
0.6949	44470.44	3.4770	3.4770	-1.2438	26.05	0.20	-0.750			
0.6986	44707.39	3.4740	3.4739	-1.1972	26.06	0.21	-0.750			
0.7020	44930.64	3.4710	3.4710	-1.1579	26.07	0.22	-0.750			
0.7054	45147.59	3.4680	3.4680	-1.1212	26.09	0.24	-0.750			
0.7087	45358.13	3.4650	3.4648	-1.0860	26.10	0.25	-0.750			
0.7119	45561.99	3.4620	3.4620	-1.0481	26.11	0.26	-0.750			
0.7150	45763.12	3.4590	3.4590	-1.0261	26.12	0.27	-0.750			
0.7181	45958.41	3.4560	3.4560	-1.0012	26.13	0.28	-0.750			
0.7211	46149.90	3.4530	3.4527	-0.9757	26.15	0.30	-0.750			
0.7239	46331.03	3.4500	3.4500	-0.9419	26.16	0.31	-0.750			
0.7267	46511.01	3.4470	3.4470	-0.9189	26.17	0.32	-0.750			
0.7294	46684.36	3.4440	3.4439	-0.9004	26.18	0.33	-0.750			
0.7321	46854.21	3.4410	3.4410	-0.8800	26.19	0.34	-0.750			
0.7346	47014.77	3.4380	3.4380	-0.8607	26.20	0.35	-0.750			
0.7372	47181.90	3.4350	3.4349	-0.8658	26.21	0.36	-0.750			
0.7398	47345.43	3.4320	3.4319	-0.8622	26.21	0.36	-0.750			
0.7423	47509.87	3.4290	3.4290	-0.8731	26.22	0.37	-0.750			
0.7450	47677.02	3.4260	3.4260	-0.8850	26.23	0.38	-0.750			
0.7476	47846.70	3.4230	3.4230	-0.8990	26.24	0.39	-0.750			
0.7504	48023.22	3.4200	3.4199	-0.9194	26.25	0.40	-0.750			
0.7531	48200.90	3.4170	3.4170	-0.9313	26.26	0.41	-0.750			
0.7560	48383.62	3.4140	3.4140	-0.9350	26.27	0.42	-0.750			
0.7588	48565.59	3.4110	3.4110	-0.9396	26.28	0.43	-0.750			
0.7617	48746.74	3.4080	3.4078	-0.9323	26.29	0.44	-0.750			
0.7645	48926.10	3.4050	3.4050	-0.9256	26.29	0.44	-0.750			
0.7672	49103.65	3.4020	3.4020	-0.9128	26.30	0.45	-0.750			
0.7700	49279.80	3.3990	3.3989	-0.8935	26.31	0.46	-0.750			
0.7726	49448.74	3.3960	3.3960	-0.8684	26.31	0.46	-0.750			
0.7753	49616.79	3.3930	3.3930	-0.8484	26.32	0.47	-0.750			
0.7778	49776.91	3.3900	3.3899	-0.8186	26.33	0.48	-0.750			
0.7802	49931.58	3.3870	3.3870	-0.7911	26.33	0.48	-0.750			
0.7825	50078.93	3.3840	3.3841	-0.7599	26.34	0.49	-0.750			
0.7847	50222.07	3.3810	3.3810	-0.7332	26.35	0.50	-0.750			
0.7869	50361.06	3.3780	3.3780	-0.7117	26.36	0.51	-0.750			
0.7890	50493.80	3.3750	3.3750	-0.6851	26.36	0.51	-0.750			
0.7910	50623.49	3.3720	3.3720	-0.6612	26.37	0.52	-0.750			
0.7929	50748.03	3.3690	3.3690	-0.6398	26.37	0.52	-0.750			
0.7948	50868.69	3.3660	3.3661	-0.6195	26.38	0.53	-0.750			
0.7967	50986.59	3.3630	3.3629	-0.5976	26.38	0.53	-0.750			
0.7984	51098.87	3.3600	3.3601	-0.5756	26.38	0.53	-0.750			
0.8001	51206.53	3.3570	3.3571	-0.5541	26.39	0.54	-0.750			
0.8017	51311.08	3.3540	3.3539	-0.5329	26.39	0.54	-0.750			
0.8033	51411.42	3.3510	3.3509	-0.5144	26.40	0.55	-0.750			
0.8048	51506.62	3.3480	3.3481	-0.4964	26.41	0.56	-0.750			
0.8062	51599.45	3.3450	3.3451	-0.4797	26.41	0.56	-0.750			
0.8077	51690.87	3.3420	3.3419	-0.4690	26.42	0.57	-0.750			
0.8091	51779.45	3.3390	3.3390	-0.4543	26.42	0.57	-0.750			
0.8104	51865.20	3.3360	3.3361	-0.4400	26.43	0.58	-0.750			
0.8117	51949.36	3.3330	3.3330	-0.4262	26.43	0.58	-0.750			
0.8130	52029.94	3.3300	3.3300	-0.4109	26.44	0.59	-0.750			
0.8142	52107.11	3.3270	3.3270	-0.3969	26.44	0.59	-0.750			
0.8153	52180.94	3.3240	3.3240	-0.3843	26.45	0.60	-0.750			
0.8165	52253.06	3.3210	3.3209	-0.3730	26.46	0.61	-0.750			
0.8176	52323.27	3.3180	3.3180	-0.3630	26.46	0.61	-0.750			
0.8186	52392.67	3.3150	3.3150	-0.3541	26.47	0.62	-0.750			
0.8197	52459.79	3.3120	3.3121	-0.3449	26.47	0.62	-0.750			
0.8207	52525.15	3.3090	3.3089	-0.3368	26.48	0.63	-0.750			
0.8217	52589.01	3.3060	3.3060	-0.3276	26.48	0.63	-0.750			
0.8227	52650.34	3.3030	3.3029	-0.3181	26.49	0.64	-0.750			
0.8236	52710.96	3.3000	3.3001	-0.3106	26.49	0.64	-0.750			
0.8245	52769.81	3.2970	3.2970	-0.3038	26.49	0.64	-0.750			
0.8254	52827.40	3.2940	3.2939	-0.2966	26.50	0.65	-0.750			
0.8263	52883.68	3.2910	3.2910	-0.2886	26.50	0.65	-0.750			
0.8272	52938.27	3.2880	3.2880	-0.2815	26.51	0.66	-0.750			
0.8280	52992.07	3.2850	3.2850	-0.2756	26.52	0.67	-0.750			
0.8288	53044.01	3.2820	3.2820	-0.2709	26.52	0.67	-0.750			
0.8296	53095.34	3.2790	3.2790	-0.2656	26.53	0.68	-0.750			
0.8304	53145.59	3.2760	3.2759	-0.2601	26.53	0.68	-0.750			
0.8312	53195.31	3.2730	3.2731	-0.2557	26.54	0.69	-0.750			
0.8319	53244.12	3.2700	3.2700	-0.2512	26.54	0.69	-0.750			
0.8327	53292.34	3.2670	3.2670	-0.2458	26.55	0.70	-0.750			
0.8334	53338.45	3.2640	3.2640	-0.2409	26.56	0.71	-0.750			
0.8341	53383.82	3.2610	3.2610	-0.2360	26.56	0.71	-0.750			
0.8348	53428.93	3.2580	3.2580	-0.2317	26.57	0.72	-0.750			
0.8355	53472.65	3.2550	3.2551	-0.2286	26.57	0.72	-0.750			
0.8362	53516.26	3.2520	3.2521	-0.2250	26.58	0.73	-0.750			
0.8369	53559.16	3.2490	3.2490	-0.2219	26.58	0.73	-0.750			
0.8375	53601.46	3.2460	3.2459	-0.2190	26.59	0.74	-0.750			
0.8382	53643.10	3.2430	3.2432	-0.2150	26.59	0.74	-0.750			
0.8388	53684.10	3.2400	3.2400	-0.2121	26.60	0.75	-0.750			
0.8394	53724.76	3.2370	3.2369	-0.2095	26.60	0.75	-0.750			
0.8401	53764.68	3.2340	3.2340	-0.2070	26.61	0.76	-0.750			
0.8407	53803.63	3.2310	3.2310	-0.2035	26.61	0.76	-0.750			
0.8413	53842.66	3.2280	3.2280	-0.2018	26.62	0.77	-0.750			
0.8419	53881.34	3.2250	3.2248	-0.1986	26.62	0.77	-0.750			
0.8425	53919.02	3.2220	3.2220	-0.1964	26.63	0.78	-0.750			
0.8431	53956.78	3.2190	3.2190	-0.1940	26.63	0.78	-0.750			
0.8437	53993.74	3.2160	3.2160	-0.1911	26.64	0.79	-0.750			
0.8442	54029.95	3.2130	3.2129	-0.1890	26.64	0.79	-0.750			
0.8448	54065.96	3.2100	3.2101	-0.1863	26.64	0.79	-0.750			
0.8453	54101.30	3.2070	3.2069	-0.1845	26.65	0.80	-0.750			
0.8459	54136.57	3.2040	3.2040	-0.1829	26.65	0.80	-0.750			
0.8464	54171.78	3.2010	3.2010	-0.1804	26.66	0.81	-0.750			
0.8470	54206.09	3.1980	3.1980	-0.1776	26.66	0.81	-0.750			
0.8475	54239.84	3.1950	3.1951	-0.1765	26.67	0.82	-0.750			
0.8480	54273.55	3.1920	3.1921	-0.1747	26.67	0.82	-0.750			
0.8485	54306.65	3.1890	3.1889	-0.1728	26.68	0.83	-0.750			
0.8491	54339.96	3.1860	3.1859	-0.1707	26.68	0.83	-0.750			
0.8496	54372.42	3.1830	3.1831	-0.1682	26.68	0.83	-0.750			
0.8501	54404.53	3.1800	3.1801	-0.1663	26.69	0.84	-0.750			
0.8506	54436.50	3.1770	3.1769	-0.1655	26.70	0.85	-0.750			
0.8511	54467.88	3.1740	3.1740	-0.1640	26.70	0.85	-0.750			
0.8515	54499.04	3.1710	3.1709	-0.1613	26.71	0.86	-0.750			
0.8520	54529.92	3.1680	3.1679	-0.1603	26.72	0.87	-0.750			
0.8525	54560.73	3.1650	3.1651	-0.1591	26.72	0.87	-0.750			
0.8530	54591.47	3.1620	3.1621	-0.1582	26.73	0.88	-0.750			
0.8535	54621.71	3.1590	3.1589	-0.1562	26.73	0.88	-0.750			
