Ah_balance (normalized)	Ah_balance (mAh)	Voltage - fit (V)	Voltage -  interpolate (V)	dQ/dV (1/V)	Temperature (°C)	Temperature - diff (°C)	Current (C)	R_DC 0ms (mOhm)	R_DC 50ms (mOhm)	R_DC 50 ms PEC (mOhm)
0.0003	21.33	4.1650	4.1650	-0.1366	25.69	0.01	-0.750			
0.0008	52.86	4.1620	4.1619	-0.1841	25.69	0.01	-0.750			
0.0014	92.24	4.1590	4.1590	-0.2271	25.69	0.01	-0.750			
0.0022	140.43	4.1560	4.1561	-0.2691	25.69	0.01	-0.750			
0.0031	196.11	4.1530	4.1530	-0.3107	25.69	0.01	-0.750			
0.0041	260.28	4.1500	4.1500	-0.3520	25.69	0.01	-0.750			
0.0052	331.66	4.1470	4.1471	-0.3909	25.68	0.00	-0.750			
0.0064	410.83	4.1440	4.1440	-0.4298	25.68	0.00	-0.750			
0.0078	498.13	4.1410	4.1410	-0.4617	25.68	-0.00	-0.750			
0.0092	591.27	4.1380	4.1379	-0.4918	25.68	-0.00	-0.750			
0.0108	688.83	4.1350	4.1351	-0.5203	25.67	-0.01	-0.750			
0.0124	791.99	4.1320	4.1320	-0.5466	25.67	-0.01	-0.750			
0.0141	900.45	4.1290	4.1289	-0.5681	25.67	-0.01	-0.750			
0.0158	1012.06	4.1260	4.1260	-0.5875	25.67	-0.01	-0.750			
0.0176	1127.01	4.1230	4.1231	-0.6055	25.66	-0.02	-0.750			
0.0195	1245.78	4.1200	4.1201	-0.6220	25.66	-0.02	-0.750			
0.0214	1367.04	4.1170	4.1169	-0.6369	25.66	-0.02	-0.750			
0.0233	1489.99	4.1140	4.1140	-0.6493	25.65	-0.03	-0.750			
0.0252	1615.01	4.1110	4.1111	-0.6652	25.65	-0.03	-0.750			
0.0273	1745.64	4.1080	4.1080	-0.6758	25.64	-0.04	-0.750			
0.0294	1878.99	4.1050	4.1049	-0.6831	25.64	-0.04	-0.750			
0.0314	2011.21	4.1020	4.1019	-0.6875	25.63	-0.05	-0.750			
0.0335	2144.17	4.0990	4.0990	-0.6906	25.63	-0.05	-0.750			
0.0356	2276.21	4.0960	4.0960	-0.6949	25.63	-0.05	-0.750			
0.0376	2407.98	4.0930	4.0931	-0.7018	25.63	-0.05	-0.750			
0.0397	2542.40	4.0900	4.0900	-0.7082	25.62	-0.06	-0.750			
0.0419	2681.70	4.0870	4.0870	-0.7175	25.62	-0.06	-0.750			
0.0441	2821.29	4.0840	4.0840	-0.7233	25.62	-0.06	-0.750			
0.0463	2960.96	4.0810	4.0810	-0.7204	25.62	-0.06	-0.750			
0.0484	3099.73	4.0780	4.0780	-0.7281	25.62	-0.06	-0.750			
0.0506	3238.75	4.0750	4.0749	-0.7328	25.62	-0.06	-0.750			
0.0528	3380.77	4.0720	4.0719	-0.7239	25.62	-0.06	-0.750			
0.0550	3520.87	4.0690	4.0691	-0.7282	25.62	-0.06	-0.750			
0.0572	3661.48	4.0660	4.0662	-0.7316	25.62	-0.06	-0.750			
0.0594	3800.74	4.0630	4.0628	-0.7363	25.62	-0.06	-0.750			
0.0616	3940.18	4.0600	4.0601	-0.7463	25.62	-0.06	-0.750			
0.0638	4082.64	4.0570	4.0569	-0.7490	25.62	-0.06	-0.750			
0.0661	4228.68	4.0540	4.0540	-0.7540	25.62	-0.06	-0.750			
0.0684	4379.55	4.0510	4.0510	-0.7655	25.62	-0.06	-0.750			
0.0707	4523.93	4.0480	4.0482	-0.7601	25.62	-0.06	-0.750			
0.0730	4671.47	4.0450	4.0450	-0.7579	25.62	-0.06	-0.750			
0.0752	4815.91	4.0420	4.0420	-0.7578	25.62	-0.06	-0.750			
0.0775	4959.53	4.0390	4.0390	-0.7529	25.62	-0.06	-0.750			
0.0798	5105.46	4.0360	4.0360	-0.7582	25.62	-0.06	-0.750			
0.0821	5253.46	4.0330	4.0330	-0.7527	25.62	-0.06	-0.750			
0.0843	5394.70	4.0300	4.0300	-0.7551	25.62	-0.06	-0.750			
0.0865	5538.23	4.0270	4.0271	-0.7600	25.62	-0.06	-0.750			
0.0888	5685.96	4.0240	4.0239	-0.7637	25.62	-0.06	-0.750			
0.0911	5831.94	4.0210	4.0210	-0.7665	25.62	-0.06	-0.750			
0.0935	5982.25	4.0180	4.0180	-0.7721	25.62	-0.06	-0.750			
0.0958	6130.86	4.0150	4.0151	-0.7731	25.62	-0.06	-0.750			
0.0981	6280.73	4.0120	4.0119	-0.7827	25.63	-0.05	-0.750			
0.1004	6427.45	4.0090	4.0091	-0.7804	25.63	-0.05	-0.750			
0.1028	6577.84	4.0060	4.0059	-0.7801	25.63	-0.05	-0.750			
0.1052	6729.65	4.0030	4.0029	-0.7834	25.64	-0.04	-0.750			
0.1075	6880.14	4.0000	4.0003	-0.7877	25.64	-0.04	-0.750			
0.1099	7032.11	3.9970	3.9970	-0.7893	25.64	-0.04	-0.750			
0.1123	7184.35	3.9940	3.9939	-0.7922	25.64	-0.04	-0.750			
0.1146	7335.79	3.9910	3.9911	-0.7932	25.64	-0.04	-0.750			
0.1170	7488.71	3.9880	3.9880	-0.7929	25.64	-0.04	-0.750			
0.1194	7642.37	3.9850	3.9851	-0.7944	25.64	-0.04	-0.750			
0.1218	7794.56	3.9820	3.9820	-0.7921	25.64	-0.04	-0.750			
0.1241	7943.69	3.9790	3.9790	-0.7952	25.64	-0.04	-0.750			
0.1265	8096.96	3.9760	3.9760	-0.7967	25.64	-0.04	-0.750			
0.1289	8250.03	3.9730	3.9729	-0.7969	25.64	-0.04	-0.750			
0.1313	8404.21	3.9700	3.9700	-0.8023	25.64	-0.04	-0.750			
0.1337	8559.24	3.9670	3.9669	-0.8077	25.64	-0.04	-0.750			
0.1362	8713.97	3.9640	3.9640	-0.8151	25.65	-0.03	-0.750			
0.1386	8871.74	3.9610	3.9610	-0.8162	25.65	-0.03	-0.750			
0.1411	9027.79	3.9580	3.9579	-0.8120	25.65	-0.03	-0.750			
0.1435	9185.69	3.9550	3.9550	-0.8183	25.66	-0.02	-0.750			
0.1460	9343.49	3.9520	3.9520	-0.8169	25.66	-0.02	-0.750			
0.1484	9497.65	3.9490	3.9490	-0.8206	25.66	-0.02	-0.750			
0.1509	9655.74	3.9460	3.9460	-0.8169	25.66	-0.02	-0.750			
0.1533	9811.57	3.9430	3.9431	-0.8186	25.67	-0.01	-0.750			
0.1558	9970.92	3.9400	3.9399	-0.8223	25.67	-0.01	-0.750			
0.1583	10129.97	3.9370	3.9370	-0.8229	25.67	-0.01	-0.750			
0.1607	10285.42	3.9340	3.9340	-0.8265	25.67	-0.01	-0.750			
0.1632	10444.45	3.9310	3.9310	-0.8299	25.67	-0.01	-0.750			
0.1657	10602.40	3.9280	3.9280	-0.8278	25.68	-0.00	-0.750			
0.1682	10765.91	3.9250	3.9248	-0.8378	25.68	-0.00	-0.750			
0.1707	10926.53	3.9220	3.9221	-0.8370	25.68	0.00	-0.750			
0.1732	11086.89	3.9190	3.9190	-0.8456	25.68	0.00	-0.750			
0.1758	11251.12	3.9160	3.9160	-0.8423	25.68	0.00	-0.750			
0.1783	11411.45	3.9130	3.9129	-0.8330	25.69	0.01	-0.750			
0.1808	11572.98	3.9100	3.9099	-0.8365	25.69	0.01	-0.750			
0.1833	11733.28	3.9070	3.9071	-0.8373	25.69	0.01	-0.750			
0.1858	11891.62	3.9040	3.9039	-0.8459	25.69	0.01	-0.750			
0.1884	12055.02	3.9010	3.9010	-0.8443	25.69	0.01	-0.750			
0.1909	12216.01	3.8980	3.8979	-0.8462	25.70	0.02	-0.750			
0.1935	12382.99	3.8950	3.8951	-0.8558	25.70	0.02	-0.750			
0.1961	12549.31	3.8920	3.8920	-0.8556	25.70	0.02	-0.750			
0.1986	12711.59	3.8890	3.8889	-0.8574	25.71	0.03	-0.750			
0.2012	12874.42	3.8860	3.8860	-0.8550	25.71	0.03	-0.750			
0.2037	13038.12	3.8830	3.8830	-0.8573	25.71	0.03	-0.750			
0.2063	13205.02	3.8800	3.8799	-0.8650	25.72	0.04	-0.750			
0.2089	13371.14	3.8770	3.8769	-0.8655	25.72	0.04	-0.750			
0.2115	13538.09	3.8740	3.8740	-0.8706	25.72	0.04	-0.750			
0.2142	13706.59	3.8710	3.8710	-0.8706	25.73	0.05	-0.750			
0.2168	13872.79	3.8680	3.8680	-0.8665	25.73	0.05	-0.750			
0.2194	14041.93	3.8650	3.8649	-0.8646	25.73	0.05	-0.750			
0.2220	14206.70	3.8620	3.8620	-0.8637	25.73	0.05	-0.750			
0.2245	14370.76	3.8590	3.8591	-0.8674	25.74	0.06	-0.750			
0.2272	14538.38	3.8560	3.8559	-0.8611	25.74	0.06	-0.750			
0.2297	14702.64	3.8530	3.8529	-0.8600	25.75	0.07	-0.750			
0.2323	14868.16	3.8500	3.8502	-0.8636	25.75	0.07	-0.750			
0.2349	15032.68	3.8470	3.8470	-0.8680	25.75	0.07	-0.750			
0.2375	15200.35	3.8440	3.8439	-0.8710	25.75	0.07	-0.750			
0.2401	15366.54	3.8410	3.8409	-0.8722	25.76	0.08	-0.750			
0.2427	15534.90	3.8380	3.8381	-0.8771	25.76	0.08	-0.750			
0.2454	15706.02	3.8350	3.8352	-0.8833	25.76	0.08	-0.750			
0.2480	15874.42	3.8320	3.8321	-0.8844	25.77	0.09	-0.750			
0.2507	16044.96	3.8290	3.8289	-0.8824	25.77	0.09	-0.750			
0.2533	16213.46	3.8260	3.8260	-0.8761	25.77	0.09	-0.750			
0.2560	16382.41	3.8230	3.8230	-0.8782	25.78	0.10	-0.750			
0.2586	16550.13	3.8200	3.8200	-0.8762	25.78	0.10	-0.750			
0.2612	16718.22	3.8170	3.8170	-0.8785	25.79	0.11	-0.750			
0.2639	16886.63	3.8140	3.8140	-0.8757	25.79	0.11	-0.750			
0.2665	17055.02	3.8110	3.8110	-0.8735	25.79	0.11	-0.750			
0.2691	17223.95	3.8080	3.8080	-0.8772	25.80	0.12	-0.750			
0.2717	17391.70	3.8050	3.8050	-0.8798	25.80	0.12	-0.750			
0.2744	17559.51	3.8020	3.8020	-0.8793	25.80	0.12	-0.750			
0.2770	17728.75	3.7990	3.7989	-0.8761	25.81	0.13	-0.750			
0.2796	17897.27	3.7960	3.7960	-0.8740	25.81	0.13	-0.750			
0.2823	18067.09	3.7930	3.7932	-0.8756	25.81	0.13	-0.750			
0.2849	18234.46	3.7900	3.7900	-0.8703	25.81	0.13	-0.750			
0.2875	18400.66	3.7870	3.7869	-0.8705	25.81	0.13	-0.750			
0.2901	18567.84	3.7840	3.7839	-0.8669	25.82	0.14	-0.750			
0.2927	18733.20	3.7810	3.7810	-0.8673	25.82	0.14	-0.750			
0.2953	18900.78	3.7780	3.7782	-0.8649	25.82	0.14	-0.750			
0.2979	19067.66	3.7750	3.7748	-0.8616	25.82	0.14	-0.750			
0.3005	19231.58	3.7720	3.7721	-0.8643	25.83	0.15	-0.750			
0.3031	19395.75	3.7690	3.7690	-0.8642	25.83	0.15	-0.750			
0.3057	19564.01	3.7660	3.7659	-0.8689	25.84	0.16	-0.750			
0.3083	19731.32	3.7630	3.7631	-0.8682	25.84	0.16	-0.750			
0.3109	19897.33	3.7600	3.7600	-0.8673	25.84	0.16	-0.750			
0.3135	20066.27	3.7570	3.7570	-0.8627	25.84	0.16	-0.750			
0.3161	20230.90	3.7540	3.7539	-0.8506	25.85	0.17	-0.750			
0.3186	20393.09	3.7510	3.7510	-0.8534	25.85	0.17	-0.750			
0.3212	20554.74	3.7480	3.7481	-0.8527	25.85	0.17	-0.750			
0.3237	20718.46	3.7450	3.7449	-0.8637	25.86	0.18	-0.750			
0.3263	20885.13	3.7420	3.7419	-0.8686	25.86	0.18	-0.750			
0.3290	21053.33	3.7390	3.7390	-0.8734	25.86	0.18	-0.750			
0.3316	21223.94	3.7360	3.7360	-0.8808	25.87	0.19	-0.750			
0.3343	21394.10	3.7330	3.7329	-0.8879	25.87	0.19	-0.750			
0.3369	21563.24	3.7300	3.7300	-0.8889	25.87	0.19	-0.750			
0.3396	21731.91	3.7270	3.7270	-0.8932	25.87	0.19	-0.750			
0.3422	21903.04	3.7240	3.7240	-0.8984	25.87	0.19	-0.750			
0.3450	22079.34	3.7210	3.7211	-0.9156	25.87	0.19	-0.750			
0.3477	22254.73	3.7180	3.7181	-0.9282	25.87	0.19	-0.750			
0.3505	22434.49	3.7150	3.7149	-0.9404	25.87	0.19	-0.750			
0.3534	22614.84	3.7120	3.7119	-0.9579	25.87	0.19	-0.750			
0.3562	22799.98	3.7090	3.7090	-0.9737	25.87	0.19	-0.750			
0.3592	22987.89	3.7060	3.7060	-0.9968	25.87	0.19	-0.750			
0.3622	23183.50	3.7030	3.7030	-1.0122	25.87	0.19	-0.750			
0.3653	23377.97	3.7000	3.6999	-1.0292	25.87	0.19	-0.750			
0.3684	23575.93	3.6970	3.6970	-1.0476	25.87	0.19	-0.750			
0.3716	23780.28	3.6940	3.6938	-1.0737	25.87	0.19	-0.750			
0.3748	23988.09	3.6910	3.6910	-1.0904	25.87	0.19	-0.750			
0.3781	24200.92	3.6880	3.6879	-1.1111	25.87	0.19	-0.750			
0.3815	24415.89	3.6850	3.6851	-1.1285	25.87	0.19	-0.750			
0.3849	24636.73	3.6820	3.6819	-1.1558	25.87	0.19	-0.750			
0.3884	24858.23	3.6790	3.6790	-1.1706	25.86	0.18	-0.750			
0.3919	25084.59	3.6760	3.6759	-1.1931	25.85	0.17	-0.750			
0.3955	25313.96	3.6730	3.6732	-1.2199	25.85	0.17	-0.750			
0.3993	25552.73	3.6700	3.6699	-1.2532	25.84	0.16	-0.750			
0.4031	25796.33	3.6670	3.6670	-1.2772	25.84	0.16	-0.750			
0.4069	26044.19	3.6640	3.6640	-1.3071	25.83	0.15	-0.750			
0.4109	26300.22	3.6610	3.6610	-1.3400	25.82	0.14	-0.750			
0.4150	26558.91	3.6580	3.6580	-1.3733	25.82	0.14	-0.750			
0.4191	26822.94	3.6550	3.6551	-1.4055	25.81	0.13	-0.750			
0.4234	27097.74	3.6520	3.6519	-1.4470	25.80	0.12	-0.750			
0.4277	27375.35	3.6490	3.6490	-1.4920	25.80	0.12	-0.750			
0.4323	27669.23	3.6460	3.6461	-1.5332	25.79	0.11	-0.750			
0.4370	27969.18	3.6430	3.6430	-1.5574	25.78	0.10	-0.750			
0.4418	28273.77	3.6400	3.6399	-1.6061	25.77	0.09	-0.750			
0.4467	28587.08	3.6370	3.6369	-1.6258	25.77	0.09	-0.750			
0.4516	28901.51	3.6340	3.6340	-1.6569	25.76	0.08	-0.750			
0.4565	29219.04	3.6310	3.6313	-1.6812	25.75	0.07	-0.750			
0.4616	29544.75	3.6280	3.6280	-1.7075	25.74	0.06	-0.750			
0.4669	29879.67	3.6250	3.6249	-1.7385	25.73	0.05	-0.750	0.396	0.506	
0.4721	30214.73	3.6220	3.6219	-1.7765	25.72	0.04	-0.750			
0.4774	30555.61	3.6190	3.6191	-1.8254	25.71	0.03	-0.750			
0.4831	30919.42	3.6160	3.6159	-1.8513	25.70	0.02	-0.750			
0.4887	31279.90	3.6130	3.6133	-1.8784	25.69	0.01	-0.750			
0.4944	31639.81	3.6100	3.6102	-1.9263	25.68	0.00	-0.750			
0.5002	32010.75	3.6070	3.6072	-1.9616	25.67	-0.01	-0.750			
0.5061	32388.66	3.6040	3.6039	-1.9995	25.66	-0.02	-0.750			
0.5121	32776.11	3.6010	3.6010	-2.0347	25.66	-0.02	-0.750			
0.5183	33172.76	3.5980	3.5979	-2.0707	25.66	-0.02	-0.750			
0.5246	33575.69	3.5950	3.5951	-2.1192	25.65	-0.03	-0.750			
0.5310	33984.96	3.5920	3.5920	-2.1578	25.64	-0.04	-0.750			
0.5376	34405.17	3.5890	3.5891	-2.1746	25.63	-0.05	-0.750			
0.5442	34827.17	3.5860	3.5861	-2.2099	25.62	-0.06	-0.750			
0.5508	35251.74	3.5830	3.5831	-2.2402	25.61	-0.07	-0.750			
0.5576	35687.50	3.5800	3.5800	-2.2667	25.60	-0.08	-0.750			
0.5644	36122.35	3.5770	3.5769	-2.2868	25.60	-0.08	-0.750			
0.5714	36566.92	3.5740	3.5741	-2.3012	25.60	-0.08	-0.750			
0.5783	37010.55	3.5710	3.5711	-2.3306	25.60	-0.08	-0.750			
0.5854	37465.08	3.5680	3.5679	-2.3549	25.60	-0.08	-0.750			
0.5924	37914.15	3.5650	3.5650	-2.3544	25.59	-0.09	-0.750			
0.5995	38370.18	3.5620	3.5618	-2.3632	25.59	-0.09	-0.750			
0.6067	38829.67	3.5590	3.5591	-2.3713	25.59	-0.09	-0.750			
0.6138	39282.83	3.5560	3.5561	-2.3616	25.59	-0.09	-0.750			
0.6209	39738.06	3.5530	3.5530	-2.3539	25.59	-0.09	-0.750			
0.6279	40184.78	3.5500	3.5501	-2.3385	25.59	-0.09	-0.750			
0.6350	40639.76	3.5470	3.5469	-2.3385	25.59	-0.09	-0.750			
0.6421	41092.71	3.5440	3.5440	-2.3162	25.59	-0.09	-0.750			
0.6490	41535.34	3.5410	3.5411	-2.2734	25.59	-0.09	-0.750			
0.6558	41969.37	3.5380	3.5380	-2.2519	25.60	-0.08	-0.750			
0.6625	42402.26	3.5350	3.5350	-2.1942	25.60	-0.08	-0.750			
0.6690	42818.12	3.5320	3.5319	-2.1536	25.61	-0.07	-0.750			
0.6754	43223.41	3.5290	3.5290	-2.1175	25.61	-0.07	-0.750			
0.6817	43628.50	3.5260	3.5258	-2.0733	25.62	-0.06	-0.750			
0.6879	44024.95	3.5230	3.5230	-2.0311	25.63	-0.05	-0.750			
0.6940	44415.92	3.5200	3.5200	-1.9644	25.64	-0.04	-0.750			
0.6997	44783.20	3.5170	3.5171	-1.9039	25.65	-0.03	-0.750			
0.7055	45150.66	3.5140	3.5140	-1.8423	25.66	-0.02	-0.750			
0.7109	45495.96	3.5110	3.5111	-1.7701	25.67	-0.01	-0.750			
0.7160	45825.12	3.5080	3.5080	-1.7035	25.68	0.00	-0.750			
0.7211	46150.02	3.5050	3.5049	-1.6394	25.70	0.02	-0.750			
0.7259	46457.48	3.5020	3.5022	-1.5735	25.72	0.04	-0.750			
0.7305	46755.08	3.4990	3.4989	-1.5333	25.74	0.06	-0.750			
0.7349	47036.32	3.4960	3.4960	-1.4647	25.76	0.08	-0.750			
0.7393	47315.20	3.4930	3.4929	-1.4252	25.77	0.09	-0.750			
0.7435	47583.48	3.4900	3.4900	-1.3878	25.79	0.11	-0.750			
0.7476	47845.23	3.4870	3.4869	-1.3360	25.80	0.12	-0.750			
0.7516	48100.48	3.4840	3.4839	-1.2944	25.81	0.13	-0.750			
0.7554	48344.15	3.4810	3.4810	-1.2478	25.82	0.14	-0.750			
0.7590	48577.50	3.4780	3.4780	-1.2060	25.83	0.15	-0.750			
0.7626	48808.48	3.4750	3.4749	-1.1613	25.85	0.17	-0.750			
0.7660	49026.85	3.4720	3.4720	-1.1198	25.86	0.18	-0.750			
0.7693	49235.83	3.4690	3.4692	-1.0780	25.88	0.20	-0.750			
0.7725	49440.55	3.4660	3.4658	-1.0497	25.89	0.21	-0.750			
0.7756	49635.97	3.4630	3.4630	-1.0115	25.90	0.22	-0.750			
0.7785	49825.05	3.4600	3.4600	-0.9826	25.91	0.23	-0.750			
0.7814	50009.14	3.4570	3.4570	-0.9567	25.93	0.25	-0.750			
0.7843	50192.51	3.4540	3.4539	-0.9525	25.94	0.26	-0.750			
0.7870	50370.99	3.4510	3.4510	-0.9411	25.95	0.27	-0.750			
0.7898	50546.44	3.4480	3.4480	-0.9438	25.95	0.27	-0.750			
0.7926	50726.11	3.4450	3.4450	-0.9534	25.96	0.28	-0.750			
0.7955	50909.05	3.4420	3.4421	-0.9850	25.97	0.29	-0.750			
0.7984	51100.38	3.4390	3.4390	-1.0167	25.98	0.30	-0.750			
0.8015	51296.74	3.4360	3.4359	-1.0560	26.00	0.32	-0.750			
0.8047	51502.78	3.4330	3.4330	-1.0949	26.01	0.33	-0.750			
0.8081	51720.41	3.4300	3.4301	-1.1357	26.02	0.34	-0.750			
0.8116	51945.20	3.4270	3.4269	-1.1626	26.03	0.35	-0.750			
0.8153	52178.51	3.4240	3.4240	-1.1716	26.04	0.36	-0.750			
0.8188	52405.44	3.4210	3.4210	-1.1591	26.05	0.37	-0.750			
0.8224	52632.29	3.4180	3.4179	-1.1470	26.05	0.37	-0.750			
0.8258	52850.27	3.4150	3.4150	-1.1117	26.06	0.38	-0.750			
0.8291	53060.28	3.4120	3.4120	-1.0749	26.06	0.38	-0.750			
0.8322	53261.34	3.4090	3.4093	-1.0333	26.07	0.39	-0.750			
0.8353	53458.59	3.4060	3.4059	-1.0027	26.08	0.40	-0.750			
0.8382	53646.98	3.4030	3.4031	-0.9664	26.09	0.41	-0.750			
0.8411	53828.44	3.4000	3.4000	-0.9280	26.10	0.42	-0.750			
0.8438	54004.08	3.3970	3.3970	-0.8961	26.11	0.43	-0.750			
0.8464	54172.50	3.3940	3.3939	-0.8581	26.11	0.43	-0.750			
0.8489	54331.37	3.3910	3.3911	-0.8259	26.12	0.44	-0.750			
0.8514	54486.99	3.3880	3.3879	-0.7922	26.13	0.45	-0.750			
0.8537	54635.14	3.3850	3.3850	-0.7609	26.13	0.45	-0.750			
0.8559	54779.18	3.3820	3.3820	-0.7316	26.14	0.46	-0.750			
0.8581	54917.05	3.3790	3.3790	-0.7021	26.14	0.46	-0.750			
0.8601	55048.55	3.3760	3.3760	-0.6732	26.15	0.47	-0.750			
0.8621	55174.45	3.3730	3.3730	-0.6442	26.16	0.48	-0.750			
0.8640	55293.49	3.3700	3.3700	-0.6169	26.17	0.49	-0.750			
0.8658	55410.98	3.3670	3.3670	-0.5960	26.17	0.49	-0.750			
0.8675	55522.04	3.3640	3.3639	-0.5697	26.18	0.50	-0.750			
0.8692	55629.99	3.3610	3.3610	-0.5467	26.19	0.51	-0.750			
0.8708	55732.55	3.3580	3.3580	-0.5235	26.19	0.51	-0.750			
0.8723	55830.01	3.3550	3.3550	-0.5016	26.20	0.52	-0.750			
0.8738	55923.68	3.3520	3.3520	-0.4817	26.20	0.52	-0.750			
0.8752	56013.82	3.3490	3.3489	-0.4613	26.21	0.53	-0.750			
0.8766	56100.90	3.3460	3.3460	-0.4439	26.21	0.53	-0.750			
0.8779	56184.39	3.3430	3.3430	-0.4280	26.22	0.54	-0.750			
0.8791	56265.01	3.3400	3.3400	-0.4102	26.22	0.54	-0.750			
0.8803	56342.23	3.3370	3.3369	-0.3920	26.22	0.54	-0.750			
0.8815	56415.66	3.3340	3.3340	-0.3747	26.23	0.55	-0.750			
0.8826	56485.74	3.3310	3.3311	-0.3577	26.23	0.55	-0.750			
0.8836	56552.89	3.3280	3.3280	-0.3438	26.24	0.56	-0.750			
0.8846	56616.76	3.3250	3.3250	-0.3300	26.24	0.56	-0.750			
0.8856	56678.60	3.3220	3.3220	-0.3162	26.25	0.57	-0.750			
0.8865	56737.86	3.3190	3.3190	-0.3061	26.25	0.57	-0.750			
0.8874	56795.47	3.3160	3.3161	-0.2952	26.26	0.58	-0.750			
0.8883	56851.18	3.3130	3.3129	-0.2843	26.26	0.58	-0.750			
0.8891	56904.79	3.3100	3.3100	-0.2740	26.27	0.59	-0.750			
0.8899	56955.81	3.3070	3.3071	-0.2639	26.27	0.59	-0.750			
0.8907	57005.74	3.3040	3.3040	-0.2550	26.28	0.60	-0.750			
0.8915	57053.84	3.3010	3.3009	-0.2477	26.28	0.60	-0.750			
0.8922	57099.87	3.2980	3.2981	-0.2395	26.29	0.61	-0.750			
0.8929	57145.07	3.2950	3.2950	-0.2330	26.29	0.61	-0.750			
0.8936	57189.23	3.2920	3.2919	-0.2270	26.29	0.61	-0.750			
0.8943	57232.34	3.2890	3.2891	-0.2201	26.30	0.62	-0.750			
0.8949	57273.89	3.2860	3.2861	-0.2137	26.30	0.62	-0.750			
0.8955	57314.27	3.2830	3.2830	-0.2075	26.31	0.63	-0.750			
0.8962	57353.85	3.2800	3.2800	-0.2015	26.31	0.63	-0.750			
0.8967	57391.17	3.2770	3.2770	-0.1963	26.31	0.63	-0.750			
0.8973	57428.14	3.2740	3.2740	-0.1915	26.32	0.64	-0.750			
0.8979	57464.50	3.2710	3.2709	-0.1870	26.32	0.64	-0.750			
0.8984	57500.02	3.2680	3.2680	-0.1831	26.33	0.65	-0.750			
0.8990	57534.85	3.2650	3.2651	-0.1798	26.33	0.65	-0.750			
0.8995	57568.89	3.2620	3.2621	-0.1761	26.33	0.65	-0.750			
0.9000	57602.45	3.2590	3.2590	-0.1726	26.34	0.66	-0.750			
0.9006	57635.23	3.2560	3.2559	-0.1688	26.34	0.66	-0.750			
0.9010	57667.03	3.2530	3.2530	-0.1651	26.34	0.66	-0.750			
0.9015	57698.33	3.2500	3.2500	-0.1625	26.35	0.67	-0.750			
0.9020	57729.20	3.2470	3.2470	-0.1599	26.35	0.67	-0.750			
0.9025	57759.64	3.2440	3.2440	-0.1572	26.36	0.68	-0.750			
0.9030	57789.39	3.2410	3.2409	-0.1540	26.36	0.68	-0.750			
0.9034	57818.70	3.2380	3.2381	-0.1518	26.36	0.68	-0.750			
0.9039	57847.67	3.2350	3.2350	-0.1498	26.37	0.69	-0.750			
0.9043	57876.19	3.2320	3.2321	-0.1474	26.37	0.69	-0.750			
0.9048	57904.18	3.2290	3.2289	-0.1452	26.37	0.69	-0.750			
0.9052	57931.84	3.2260	3.2259	-0.1424	26.37	0.69	-0.750			
0.9056	57959.04	3.2230	3.2231	-0.1404	26.38	0.70	-0.750			
0.9060	57985.70	3.2200	3.2200	-0.1384	26.38	0.70	-0.750			
0.9064	58011.96	3.2170	3.2171	-0.1370	26.38	0.70	-0.750			
0.9068	58037.85	3.2140	3.2141	-0.1350	26.39	0.71	-0.750			
0.9072	58063.61	3.2110	3.2108	-0.1340	26.39	0.71	-0.750			
0.9076	58089.18	3.2080	3.2080	-0.1324	26.39	0.71	-0.750			
0.9080	58114.44	3.2050	3.2050	-0.1313	26.40	0.72	-0.750			
0.9084	58139.65	3.2020	3.2020	-0.1297	26.40	0.72	-0.750			
0.9088	58164.77	3.1990	3.1990	-0.1286	26.41	0.73	-0.750			
0.9092	58189.32	3.1960	3.1961	-0.1270	26.41	0.73	-0.750			
0.9096	58213.37	3.1930	3.1929	-0.1248	26.42	0.74	-0.750			
0.9100	58237.11	3.1900	3.1900	-0.1235	26.42	0.74	-0.750			
0.9103	58260.59	3.1870	3.1870	-0.1220	26.42	0.74	-0.750			
0.9107	58283.91	3.1840	3.1839	-0.1208	26.43	0.75	-0.750			
0.9110	58306.99	3.1810	3.1810	-0.1196	26.43	0.75	-0.750			
0.9114	58329.75	3.1780	3.1779	-0.1189	26.44	0.76	-0.750			
0.9118	58352.36	3.1750	3.1751	-0.1179	26.44	0.76	-0.750			
0.9121	58374.98	3.1720	3.1720	-0.1169	26.44	0.76	-0.750			
0.9125	58397.35	3.1690	3.1689	-0.1161	26.45	0.77	-0.750			
0.9128	58419.61	3.1660	3.1660	-0.1149	26.45	0.77	-0.750			
0.9132	58441.63	3.1630	3.1630	-0.1138	26.45	0.77	-0.750			
