Ah_balance (normalized)	Ah_balance (mAh)	Voltage - fit (V)	Voltage -  interpolate (V)	dQ/dV (1/V)	Temperature (°C)	Temperature - diff (°C)	Current (C)	R_DC 0ms (mOhm)	R_DC 50ms (mOhm)	R_DC 50 ms PEC (mOhm)
0.0005	34.05	4.1640	4.1637	-0.1581	25.66	0.02	-0.750			
0.0011	68.00	4.1610	4.1610	-0.2003	25.66	0.02	-0.750			
0.0017	110.80	4.1580	4.1580	-0.2442	25.66	0.02	-0.750			
0.0025	162.50	4.1550	4.1551	-0.2854	25.66	0.02	-0.750			
0.0035	221.27	4.1520	4.1519	-0.3269	25.65	0.01	-0.750			
0.0045	288.68	4.1490	4.1491	-0.3700	25.65	0.01	-0.750			
0.0057	364.73	4.1460	4.1460	-0.4074	25.65	0.01	-0.750			
0.0070	447.04	4.1430	4.1429	-0.4451	25.64	0.00	-0.750			
0.0084	536.59	4.1400	4.1399	-0.4791	25.64	0.00	-0.750			
0.0099	632.72	4.1370	4.1369	-0.5099	25.64	-0.00	-0.750			
0.0115	733.89	4.1340	4.1340	-0.5391	25.63	-0.01	-0.750			
0.0131	841.05	4.1310	4.1310	-0.5628	25.63	-0.01	-0.750			
0.0148	950.32	4.1280	4.1280	-0.5872	25.63	-0.01	-0.750			
0.0167	1068.76	4.1250	4.1250	-0.6093	25.62	-0.02	-0.750			
0.0186	1187.39	4.1220	4.1220	-0.6223	25.62	-0.02	-0.750			
0.0205	1309.57	4.1190	4.1190	-0.6375	25.61	-0.03	-0.750			
0.0224	1433.22	4.1160	4.1160	-0.6486	25.61	-0.03	-0.750			
0.0244	1559.14	4.1130	4.1130	-0.6557	25.61	-0.03	-0.750			
0.0263	1685.56	4.1100	4.1100	-0.6663	25.60	-0.04	-0.750			
0.0283	1813.09	4.1070	4.1071	-0.6738	25.60	-0.04	-0.750			
0.0304	1944.27	4.1040	4.1040	-0.6880	25.60	-0.04	-0.750			
0.0325	2077.96	4.1010	4.1009	-0.6947	25.59	-0.05	-0.750			
0.0346	2212.38	4.0980	4.0980	-0.7005	25.59	-0.05	-0.750			
0.0367	2347.67	4.0950	4.0951	-0.7090	25.59	-0.05	-0.750			
0.0388	2484.18	4.0920	4.0920	-0.7198	25.59	-0.05	-0.750			
0.0410	2623.65	4.0890	4.0890	-0.7190	25.58	-0.06	-0.750			
0.0432	2762.50	4.0860	4.0860	-0.7238	25.58	-0.06	-0.750			
0.0453	2901.79	4.0830	4.0829	-0.7254	25.58	-0.06	-0.750			
0.0475	3042.30	4.0800	4.0799	-0.7288	25.58	-0.06	-0.750			
0.0497	3180.73	4.0770	4.0770	-0.7331	25.58	-0.06	-0.750			
0.0519	3321.00	4.0740	4.0740	-0.7352	25.58	-0.06	-0.750			
0.0541	3462.24	4.0710	4.0710	-0.7374	25.57	-0.07	-0.750			
0.0564	3607.22	4.0680	4.0680	-0.7444	25.57	-0.07	-0.750			
0.0586	3750.45	4.0650	4.0650	-0.7434	25.57	-0.07	-0.750			
0.0608	3893.06	4.0620	4.0620	-0.7475	25.57	-0.07	-0.750			
0.0631	4035.23	4.0590	4.0591	-0.7502	25.57	-0.07	-0.750			
0.0653	4179.18	4.0560	4.0559	-0.7518	25.56	-0.08	-0.750			
0.0676	4325.09	4.0530	4.0530	-0.7537	25.56	-0.08	-0.750			
0.0699	4470.55	4.0500	4.0500	-0.7570	25.56	-0.08	-0.750			
0.0721	4615.74	4.0470	4.0471	-0.7580	25.56	-0.08	-0.750			
0.0744	4762.06	4.0440	4.0440	-0.7615	25.56	-0.08	-0.750			
0.0767	4907.99	4.0410	4.0409	-0.7592	25.56	-0.08	-0.750			
0.0790	5053.17	4.0380	4.0380	-0.7592	25.56	-0.08	-0.750			
0.0812	5199.34	4.0350	4.0351	-0.7650	25.56	-0.08	-0.750			
0.0835	5346.58	4.0320	4.0320	-0.7709	25.56	-0.08	-0.750			
0.0859	5494.40	4.0290	4.0289	-0.7715	25.56	-0.08	-0.750			
0.0882	5643.56	4.0260	4.0259	-0.7712	25.56	-0.08	-0.750			
0.0905	5791.99	4.0230	4.0231	-0.7620	25.57	-0.07	-0.750			
0.0928	5938.64	4.0200	4.0201	-0.7600	25.57	-0.07	-0.750			
0.0950	6080.84	4.0170	4.0172	-0.7669	25.57	-0.07	-0.750			
0.0973	6226.50	4.0140	4.0134	-0.7748	25.57	-0.07	-0.750			
0.0996	6374.50	4.0110	4.0111	-0.7777	25.57	-0.07	-0.750			
0.1020	6526.78	4.0080	4.0081	-0.7880	25.57	-0.07	-0.750			
0.1044	6683.24	4.0050	4.0051	-0.8003	25.57	-0.07	-0.750			
0.1069	6839.42	4.0020	4.0019	-0.8023	25.57	-0.07	-0.750			
0.1092	6989.96	3.9990	3.9992	-0.7935	25.57	-0.07	-0.750			
0.1116	7140.61	3.9960	3.9960	-0.7866	25.57	-0.07	-0.750			
0.1139	7291.10	3.9930	3.9931	-0.7911	25.57	-0.07	-0.750			
0.1163	7443.75	3.9900	3.9899	-0.7964	25.58	-0.06	-0.750			
0.1187	7596.13	3.9870	3.9870	-0.8001	25.58	-0.06	-0.750			
0.1211	7749.68	3.9840	3.9841	-0.8016	25.58	-0.06	-0.750			
0.1235	7904.92	3.9810	3.9810	-0.8054	25.58	-0.06	-0.750			
0.1260	8061.22	3.9780	3.9780	-0.8086	25.59	-0.05	-0.750			
0.1284	8217.20	3.9750	3.9750	-0.8071	25.59	-0.05	-0.750			
0.1308	8370.43	3.9720	3.9720	-0.8042	25.60	-0.04	-0.750			
0.1332	8525.45	3.9690	3.9690	-0.8026	25.60	-0.04	-0.750			
0.1356	8678.33	3.9660	3.9660	-0.8051	25.60	-0.04	-0.750			
0.1380	8831.74	3.9630	3.9630	-0.8097	25.60	-0.04	-0.750			
0.1404	8986.67	3.9600	3.9601	-0.8145	25.60	-0.04	-0.750			
0.1429	9143.62	3.9570	3.9569	-0.8197	25.60	-0.04	-0.750			
0.1454	9303.78	3.9540	3.9540	-0.8250	25.60	-0.04	-0.750			
0.1479	9463.24	3.9510	3.9509	-0.8236	25.60	-0.04	-0.750			
0.1503	9621.85	3.9480	3.9481	-0.8275	25.61	-0.03	-0.750			
0.1528	9779.25	3.9450	3.9450	-0.8267	25.61	-0.03	-0.750			
0.1553	9936.68	3.9420	3.9420	-0.8267	25.61	-0.03	-0.750			
0.1578	10096.21	3.9390	3.9387	-0.8309	25.62	-0.02	-0.750			
0.1602	10255.59	3.9360	3.9360	-0.8354	25.62	-0.02	-0.750			
0.1628	10417.07	3.9330	3.9330	-0.8394	25.62	-0.02	-0.750			
0.1653	10580.39	3.9300	3.9299	-0.8421	25.62	-0.02	-0.750			
0.1678	10741.79	3.9270	3.9270	-0.8326	25.62	-0.02	-0.750			
0.1704	10902.50	3.9240	3.9239	-0.8394	25.62	-0.02	-0.750			
0.1729	11063.73	3.9210	3.9209	-0.8399	25.62	-0.02	-0.750			
0.1754	11224.29	3.9180	3.9180	-0.8434	25.63	-0.01	-0.750			
0.1779	11385.22	3.9150	3.9148	-0.8441	25.63	-0.01	-0.750			
0.1804	11546.94	3.9120	3.9121	-0.8433	25.63	-0.01	-0.750			
0.1830	11712.02	3.9090	3.9089	-0.8509	25.64	-0.00	-0.750			
0.1856	11876.01	3.9060	3.9059	-0.8499	25.64	0.00	-0.750			
0.1881	12038.66	3.9030	3.9029	-0.8492	25.64	0.00	-0.750			
0.1907	12202.43	3.9000	3.9001	-0.8530	25.64	0.00	-0.750			
0.1932	12365.45	3.8970	3.8970	-0.8526	25.64	0.00	-0.750			
0.1958	12531.26	3.8940	3.8940	-0.8583	25.64	0.00	-0.750			
0.1984	12696.12	3.8910	3.8909	-0.8601	25.64	0.00	-0.750			
0.2010	12861.26	3.8880	3.8880	-0.8665	25.65	0.01	-0.750			
0.2036	13028.96	3.8850	3.8850	-0.8676	25.65	0.01	-0.750			
0.2062	13195.00	3.8820	3.8819	-0.8665	25.66	0.02	-0.750			
0.2088	13364.14	3.8790	3.8794	-0.8678	25.66	0.02	-0.750			
0.2114	13530.67	3.8760	3.8760	-0.8654	25.66	0.02	-0.750			
0.2140	13696.78	3.8730	3.8729	-0.8694	25.66	0.02	-0.750			
0.2166	13863.41	3.8700	3.8699	-0.8668	25.67	0.03	-0.750			
0.2192	14030.42	3.8670	3.8669	-0.8708	25.67	0.03	-0.750			
0.2218	14196.55	3.8640	3.8642	-0.8703	25.67	0.03	-0.750			
0.2244	14364.79	3.8610	3.8609	-0.8689	25.67	0.03	-0.750			
0.2271	14531.22	3.8580	3.8580	-0.8735	25.67	0.03	-0.750			
0.2297	14697.92	3.8550	3.8550	-0.8691	25.68	0.04	-0.750			
0.2323	14866.41	3.8520	3.8520	-0.8746	25.68	0.04	-0.750			
0.2349	15034.22	3.8490	3.8490	-0.8721	25.68	0.04	-0.750			
0.2375	15200.66	3.8460	3.8461	-0.8749	25.69	0.05	-0.750			
0.2401	15368.59	3.8430	3.8429	-0.8763	25.69	0.05	-0.750			
0.2428	15537.06	3.8400	3.8400	-0.8736	25.69	0.05	-0.750			
0.2454	15706.29	3.8370	3.8370	-0.8785	25.70	0.06	-0.750			
0.2481	15876.06	3.8340	3.8340	-0.8823	25.70	0.06	-0.750			
0.2507	16045.42	3.8310	3.8310	-0.8794	25.71	0.07	-0.750			
0.2533	16214.04	3.8280	3.8279	-0.8779	25.71	0.07	-0.750			
0.2560	16381.20	3.8250	3.8250	-0.8765	25.72	0.08	-0.750			
0.2586	16549.67	3.8220	3.8220	-0.8822	25.72	0.08	-0.750			
0.2612	16718.85	3.8190	3.8189	-0.8840	25.72	0.08	-0.750			
0.2639	16888.57	3.8160	3.8160	-0.8843	25.72	0.08	-0.750			
0.2665	17058.96	3.8130	3.8130	-0.8839	25.73	0.09	-0.750			
0.2692	17229.47	3.8100	3.8099	-0.8837	25.73	0.09	-0.750			
0.2719	17400.95	3.8070	3.8072	-0.8811	25.73	0.09	-0.750			
0.2745	17568.85	3.8040	3.8039	-0.8811	25.74	0.10	-0.750			
0.2771	17737.30	3.8010	3.8010	-0.8781	25.74	0.10	-0.750			
0.2798	17906.37	3.7980	3.7981	-0.8807	25.74	0.10	-0.750			
0.2824	18074.93	3.7950	3.7949	-0.8816	25.75	0.11	-0.750			
0.2851	18244.14	3.7920	3.7920	-0.8846	25.75	0.11	-0.750			
0.2877	18414.86	3.7890	3.7890	-0.8841	25.76	0.12	-0.750			
0.2904	18584.53	3.7860	3.7860	-0.8839	25.76	0.12	-0.750			
0.2930	18754.82	3.7830	3.7830	-0.8782	25.76	0.12	-0.750			
0.2957	18924.27	3.7800	3.7800	-0.8757	25.77	0.13	-0.750			
0.2983	19089.27	3.7770	3.7770	-0.8752	25.77	0.13	-0.750			
0.3009	19256.94	3.7740	3.7740	-0.8762	25.77	0.13	-0.750			
0.3035	19425.26	3.7710	3.7710	-0.8715	25.78	0.14	-0.750			
0.3062	19593.78	3.7680	3.7679	-0.8707	25.78	0.14	-0.750			
0.3088	19761.62	3.7650	3.7653	-0.8683	25.78	0.14	-0.750			
0.3114	19928.62	3.7620	3.7620	-0.8674	25.78	0.14	-0.750			
0.3140	20093.88	3.7590	3.7590	-0.8718	25.78	0.14	-0.750			
0.3166	20261.23	3.7560	3.7558	-0.8683	25.79	0.15	-0.750			
0.3192	20428.30	3.7530	3.7530	-0.8682	25.79	0.15	-0.750			
0.3218	20595.81	3.7500	3.7503	-0.8694	25.79	0.15	-0.750			
0.3244	20763.42	3.7470	3.7469	-0.8705	25.79	0.15	-0.750			
0.3270	20930.11	3.7440	3.7439	-0.8759	25.80	0.16	-0.750			
0.3296	21095.68	3.7410	3.7410	-0.8743	25.80	0.16	-0.750			
0.3323	21265.92	3.7380	3.7379	-0.8828	25.81	0.17	-0.750			
0.3349	21436.08	3.7350	3.7351	-0.8859	25.81	0.17	-0.750			
0.3376	21606.11	3.7320	3.7320	-0.8938	25.81	0.17	-0.750			
0.3403	21777.33	3.7290	3.7290	-0.8975	25.81	0.17	-0.750			
0.3429	21947.54	3.7260	3.7260	-0.9011	25.81	0.17	-0.750			
0.3457	22124.22	3.7230	3.7230	-0.9160	25.81	0.17	-0.750			
0.3484	22299.48	3.7200	3.7200	-0.9310	25.81	0.17	-0.750			
0.3512	22478.90	3.7170	3.7170	-0.9444	25.81	0.17	-0.750			
0.3541	22661.36	3.7140	3.7140	-0.9575	25.82	0.18	-0.750			
0.3570	22846.05	3.7110	3.7109	-0.9729	25.82	0.18	-0.750			
0.3599	23035.68	3.7080	3.7080	-0.9901	25.82	0.18	-0.750			
0.3629	23227.30	3.7050	3.7051	-1.0084	25.82	0.18	-0.750			
0.3660	23422.98	3.7020	3.7020	-1.0241	25.82	0.18	-0.750			
0.3691	23619.20	3.6990	3.6990	-1.0350	25.82	0.18	-0.750			
0.3722	23820.40	3.6960	3.6961	-1.0603	25.82	0.18	-0.750			
0.3754	24024.17	3.6930	3.6929	-1.0785	25.82	0.18	-0.750			
0.3786	24232.38	3.6900	3.6900	-1.1000	25.82	0.18	-0.750			
0.3820	24445.38	3.6870	3.6868	-1.1196	25.82	0.18	-0.750			
0.3854	24662.96	3.6840	3.6840	-1.1513	25.82	0.18	-0.750			
0.3889	24887.05	3.6810	3.6811	-1.1755	25.82	0.18	-0.750			
0.3924	25114.39	3.6780	3.6779	-1.1963	25.81	0.17	-0.750			
0.3960	25344.84	3.6750	3.6751	-1.2132	25.81	0.17	-0.750			
0.3997	25582.27	3.6720	3.6720	-1.2427	25.80	0.16	-0.750			
0.4035	25821.28	3.6690	3.6688	-1.2698	25.80	0.16	-0.750			
0.4073	26066.38	3.6660	3.6661	-1.3047	25.79	0.15	-0.750			
0.4112	26317.88	3.6630	3.6630	-1.3291	25.79	0.15	-0.750			
0.4153	26578.32	3.6600	3.6600	-1.3674	25.78	0.14	-0.750			
0.4194	26844.55	3.6570	3.6569	-1.4049	25.77	0.13	-0.750			
0.4237	27118.12	3.6540	3.6539	-1.4355	25.77	0.13	-0.750			
0.4281	27397.26	3.6510	3.6510	-1.4708	25.76	0.12	-0.750			
0.4325	27681.87	3.6480	3.6480	-1.5044	25.75	0.11	-0.750			
0.4371	27973.13	3.6450	3.6450	-1.5491	25.74	0.10	-0.750			
0.4418	28276.14	3.6420	3.6421	-1.6020	25.73	0.09	-0.750			
0.4467	28587.76	3.6390	3.6390	-1.6319	25.72	0.08	-0.750			
0.4517	28906.71	3.6360	3.6362	-1.6655	25.71	0.07	-0.750			
0.4567	29231.91	3.6330	3.6330	-1.7049	25.70	0.06	-0.750			
0.4619	29560.62	3.6300	3.6297	-1.7238	25.70	0.06	-0.750			
0.4671	29895.16	3.6270	3.6271	-1.7447	25.69	0.05	-0.750	0.370	0.475	
0.4724	30230.98	3.6240	3.6241	-1.7665	25.69	0.05	-0.750			
0.4778	30577.41	3.6210	3.6208	-1.7983	25.67	0.03	-0.750			
0.4831	30921.49	3.6180	3.6179	-1.8250	25.66	0.02	-0.750			
0.4887	31277.42	3.6150	3.6151	-1.8687	25.66	0.02	-0.750			
0.4943	31634.52	3.6120	3.6120	-1.9048	25.66	0.02	-0.750			
0.5001	32005.96	3.6090	3.6088	-1.9382	25.65	0.01	-0.750			
0.5060	32384.52	3.6060	3.6059	-1.9751	25.64	0.00	-0.750			
0.5119	32763.91	3.6030	3.6031	-2.0124	25.64	-0.00	-0.750			
0.5181	33156.46	3.6000	3.6001	-2.0475	25.63	-0.01	-0.750			
0.5243	33554.38	3.5970	3.5968	-2.0797	25.63	-0.01	-0.750			
0.5306	33955.94	3.5940	3.5939	-2.1263	25.62	-0.02	-0.750			
0.5371	34373.07	3.5910	3.5909	-2.1600	25.61	-0.03	-0.750			
0.5437	34795.22	3.5880	3.5881	-2.2018	25.60	-0.04	-0.750			
0.5502	35215.21	3.5850	3.5852	-2.2357	25.60	-0.04	-0.750			
0.5570	35647.32	3.5820	3.5820	-2.2605	25.60	-0.04	-0.750			
0.5639	36088.89	3.5790	3.5788	-2.2964	25.60	-0.04	-0.750			
0.5709	36535.06	3.5760	3.5761	-2.3258	25.60	-0.04	-0.750			
0.5779	36982.60	3.5730	3.5730	-2.3494	25.59	-0.05	-0.750			
0.5850	37440.81	3.5700	3.5701	-2.3765	25.58	-0.06	-0.750			
0.5922	37898.06	3.5670	3.5669	-2.3669	25.58	-0.06	-0.750			
0.5993	38353.87	3.5640	3.5640	-2.3774	25.58	-0.06	-0.750			
0.6065	38814.17	3.5610	3.5611	-2.3798	25.58	-0.06	-0.750			
0.6136	39272.27	3.5580	3.5578	-2.3774	25.58	-0.06	-0.750			
0.6208	39729.10	3.5550	3.5552	-2.3558	25.58	-0.06	-0.750			
0.6277	40175.97	3.5520	3.5519	-2.3517	25.58	-0.06	-0.750			
0.6348	40628.25	3.5490	3.5490	-2.3528	25.58	-0.06	-0.750			
0.6419	41079.73	3.5460	3.5460	-2.3294	25.59	-0.05	-0.750			
0.6490	41535.57	3.5430	3.5429	-2.3080	25.60	-0.04	-0.750			
0.6559	41975.66	3.5400	3.5402	-2.2666	25.60	-0.04	-0.750			
0.6626	42405.38	3.5370	3.5371	-2.2353	25.60	-0.04	-0.750			
0.6693	42835.19	3.5340	3.5339	-2.2018	25.61	-0.03	-0.750			
0.6758	43248.43	3.5310	3.5310	-2.1342	25.61	-0.03	-0.750			
0.6822	43658.93	3.5280	3.5280	-2.0965	25.62	-0.02	-0.750			
0.6884	44057.56	3.5250	3.5251	-2.0649	25.63	-0.01	-0.750			
0.6945	44449.36	3.5220	3.5219	-2.0119	25.64	-0.00	-0.750			
0.7005	44831.07	3.5190	3.5189	-1.9387	25.65	0.01	-0.750			
0.7062	45196.65	3.5160	3.5161	-1.8774	25.66	0.02	-0.750			
0.7118	45554.96	3.5130	3.5128	-1.8200	25.67	0.03	-0.750			
0.7172	45901.68	3.5100	3.5098	-1.7573	25.69	0.05	-0.750			
0.7223	46228.26	3.5070	3.5071	-1.6794	25.70	0.06	-0.750			
0.7272	46540.18	3.5040	3.5038	-1.6114	25.71	0.07	-0.750			
0.7319	46842.75	3.5010	3.5010	-1.5541	25.73	0.09	-0.750			
0.7366	47141.52	3.4980	3.4980	-1.5054	25.74	0.10	-0.750			
0.7410	47424.83	3.4950	3.4949	-1.4538	25.76	0.12	-0.750			
0.7452	47693.59	3.4920	3.4919	-1.3998	25.78	0.14	-0.750			
0.7494	47960.50	3.4890	3.4889	-1.3536	25.80	0.16	-0.750			
0.7534	48217.15	3.4860	3.4859	-1.3118	25.82	0.18	-0.750			
0.7573	48464.09	3.4830	3.4830	-1.2637	25.84	0.20	-0.750			
0.7609	48700.07	3.4800	3.4800	-1.2166	25.86	0.22	-0.750			
0.7646	48934.29	3.4770	3.4769	-1.1820	25.87	0.23	-0.750			
0.7680	49154.99	3.4740	3.4741	-1.1358	25.88	0.24	-0.750			
0.7713	49364.66	3.4710	3.4711	-1.0971	25.89	0.25	-0.750			
0.7746	49575.49	3.4680	3.4680	-1.0699	25.90	0.26	-0.750			
0.7777	49775.70	3.4650	3.4650	-1.0306	25.91	0.27	-0.750			
0.7808	49970.24	3.4620	3.4620	-1.0022	25.92	0.28	-0.750			
0.7837	50158.75	3.4590	3.4590	-0.9797	25.93	0.29	-0.750			
0.7866	50342.53	3.4560	3.4559	-0.9663	25.94	0.30	-0.750			
0.7894	50522.95	3.4530	3.4530	-0.9531	25.96	0.32	-0.750			
0.7922	50703.88	3.4500	3.4500	-0.9509	25.97	0.33	-0.750			
0.7951	50887.39	3.4470	3.4470	-0.9611	25.98	0.34	-0.750			
0.7980	51071.45	3.4440	3.4439	-0.9780	25.99	0.35	-0.750			
0.8009	51255.02	3.4410	3.4410	-1.0141	26.00	0.36	-0.750			
0.8039	51452.19	3.4380	3.4379	-1.0529	26.01	0.37	-0.750			
0.8071	51655.94	3.4350	3.4349	-1.0983	26.02	0.38	-0.750			
0.8106	51875.55	3.4320	3.4321	-1.1565	26.02	0.38	-0.750			
0.8142	52109.09	3.4290	3.4289	-1.1849	26.03	0.39	-0.750			
0.8179	52343.06	3.4260	3.4260	-1.1989	26.04	0.40	-0.750			
0.8215	52578.08	3.4230	3.4233	-1.1893	26.05	0.41	-0.750			
0.8252	52810.20	3.4200	3.4199	-1.1710	26.06	0.42	-0.750			
0.8287	53036.87	3.4170	3.4170	-1.1390	26.07	0.43	-0.750			
0.8320	53248.76	3.4140	3.4140	-1.0999	26.08	0.44	-0.750			
0.8353	53457.18	3.4110	3.4110	-1.0687	26.09	0.45	-0.750			
0.8384	53659.69	3.4080	3.4079	-1.0286	26.10	0.46	-0.750			
0.8414	53852.00	3.4050	3.4050	-0.9861	26.10	0.46	-0.750			
0.8443	54037.60	3.4020	3.4020	-0.9473	26.11	0.47	-0.750			
0.8471	54216.08	3.3990	3.3991	-0.9148	26.11	0.47	-0.750			
0.8498	54387.88	3.3960	3.3959	-0.8822	26.12	0.48	-0.750			
0.8524	54552.53	3.3930	3.3930	-0.8484	26.13	0.49	-0.750			
0.8549	54712.58	3.3900	3.3899	-0.8176	26.14	0.50	-0.750			
0.8573	54868.87	3.3870	3.3870	-0.7859	26.15	0.51	-0.750			
0.8596	55017.53	3.3840	3.3840	-0.7522	26.16	0.52	-0.750			
0.8618	55156.77	3.3810	3.3811	-0.7202	26.17	0.53	-0.750			
0.8639	55291.46	3.3780	3.3780	-0.6923	26.17	0.53	-0.750			
0.8659	55417.77	3.3750	3.3749	-0.6626	26.18	0.54	-0.750			
0.8679	55544.31	3.3720	3.3720	-0.6396	26.18	0.54	-0.750			
0.8698	55664.62	3.3690	3.3690	-0.6163	26.19	0.55	-0.750			
0.8716	55781.61	3.3660	3.3661	-0.5924	26.19	0.55	-0.750			
0.8733	55893.22	3.3630	3.3630	-0.5674	26.20	0.56	-0.750			
0.8750	55998.72	3.3600	3.3600	-0.5402	26.21	0.57	-0.750			
0.8766	56100.05	3.3570	3.3570	-0.5168	26.22	0.58	-0.750			
0.8781	56196.22	3.3540	3.3540	-0.4939	26.22	0.58	-0.750			
0.8795	56288.99	3.3510	3.3510	-0.4747	26.23	0.59	-0.750			
0.8809	56377.35	3.3480	3.3480	-0.4537	26.24	0.60	-0.750			
0.8822	56462.63	3.3450	3.3450	-0.4350	26.24	0.60	-0.750			
0.8835	56544.30	3.3420	3.3420	-0.4162	26.25	0.61	-0.750			
0.8847	56622.64	3.3390	3.3390	-0.3991	26.25	0.61	-0.750			
0.8859	56697.07	3.3360	3.3359	-0.3815	26.26	0.62	-0.750			
0.8870	56768.38	3.3330	3.3331	-0.3656	26.27	0.63	-0.750			
0.8881	56836.67	3.3300	3.3300	-0.3486	26.27	0.63	-0.750			
0.8891	56902.28	3.3270	3.3270	-0.3354	26.28	0.64	-0.750			
0.8901	56965.43	3.3240	3.3240	-0.3218	26.28	0.64	-0.750			
0.8910	57025.30	3.3210	3.3210	-0.3090	26.28	0.64	-0.750			
0.8919	57083.06	3.3180	3.3180	-0.2973	26.29	0.65	-0.750			
0.8928	57138.57	3.3150	3.3150	-0.2862	26.29	0.65	-0.750			
0.8936	57192.58	3.3120	3.3120	-0.2771	26.30	0.66	-0.750			
0.8945	57244.94	3.3090	3.3090	-0.2684	26.30	0.66	-0.750			
0.8952	57295.28	3.3060	3.3060	-0.2584	26.30	0.66	-0.750			
0.8960	57344.59	3.3030	3.3030	-0.2503	26.31	0.67	-0.750			
0.8967	57391.72	3.3000	3.2999	-0.2407	26.31	0.67	-0.750			
0.8974	57436.64	3.2970	3.2970	-0.2319	26.32	0.68	-0.750			
0.8981	57479.82	3.2940	3.2940	-0.2244	26.32	0.68	-0.750			
0.8988	57522.25	3.2910	3.2910	-0.2176	26.33	0.69	-0.750			
0.8994	57562.90	3.2880	3.2880	-0.2117	26.33	0.69	-0.750			
0.9000	57602.69	3.2850	3.2850	-0.2057	26.33	0.69	-0.750			
0.9007	57641.79	3.2820	3.2820	-0.2007	26.34	0.70	-0.750			
0.9012	57679.85	3.2790	3.2791	-0.1958	26.34	0.70	-0.750			
0.9018	57717.18	3.2760	3.2760	-0.1910	26.35	0.71	-0.750			
0.9024	57753.24	3.2730	3.2729	-0.1861	26.35	0.71	-0.750			
0.9029	57788.01	3.2700	3.2700	-0.1814	26.35	0.71	-0.750			
0.9035	57822.47	3.2670	3.2671	-0.1776	26.36	0.72	-0.750			
0.9040	57856.00	3.2640	3.2640	-0.1738	26.36	0.72	-0.750			
0.9045	57889.00	3.2610	3.2610	-0.1704	26.36	0.72	-0.750			
0.9050	57921.42	3.2580	3.2579	-0.1671	26.37	0.73	-0.750			
0.9055	57953.20	3.2550	3.2552	-0.1639	26.37	0.73	-0.750			
0.9060	57984.41	3.2520	3.2520	-0.1606	26.37	0.73	-0.750			
0.9065	58014.84	3.2490	3.2490	-0.1577	26.37	0.73	-0.750			
0.9069	58044.48	3.2460	3.2460	-0.1545	26.38	0.74	-0.750			
0.9074	58073.93	3.2430	3.2430	-0.1522	26.38	0.74	-0.750			
0.9079	58102.96	3.2400	3.2400	-0.1495	26.38	0.74	-0.750			
0.9083	58131.50	3.2370	3.2370	-0.1467	26.39	0.75	-0.750			
0.9087	58159.24	3.2340	3.2341	-0.1446	26.39	0.75	-0.750			
0.9092	58186.80	3.2310	3.2310	-0.1424	26.39	0.75	-0.750			
0.9096	58213.89	3.2280	3.2280	-0.1403	26.40	0.76	-0.750			
0.9100	58240.50	3.2250	3.2249	-0.1379	26.40	0.76	-0.750			
0.9104	58266.57	3.2220	3.2220	-0.1360	26.41	0.77	-0.750			
0.9108	58292.57	3.2190	3.2191	-0.1347	26.41	0.77	-0.750			
0.9112	58318.46	3.2160	3.2160	-0.1332	26.42	0.78	-0.750			
0.9116	58343.98	3.2130	3.2129	-0.1316	26.42	0.78	-0.750			
0.9120	58368.91	3.2100	3.2100	-0.1293	26.43	0.79	-0.750			
0.9124	58393.61	3.2070	3.2071	-0.1276	26.43	0.79	-0.750			
0.9128	58418.07	3.2040	3.2040	-0.1260	26.43	0.79	-0.750			
0.9132	58441.87	3.2010	3.2009	-0.1247	26.44	0.80	-0.750			
0.9135	58465.42	3.1980	3.1981	-0.1227	26.44	0.80	-0.750			
0.9139	58489.00	3.1950	3.1949	-0.1216	26.45	0.81	-0.750			
0.9143	58512.22	3.1920	3.1919	-0.1205	26.45	0.81	-0.750			
0.9146	58535.23	3.1890	3.1890	-0.1196	26.45	0.81	-0.750			
0.9150	58558.11	3.1860	3.1860	-0.1186	26.46	0.82	-0.750			
0.9153	58580.88	3.1830	3.1831	-0.1174	26.46	0.82	-0.750			
0.9157	58603.45	3.1800	3.1799	-0.1165	26.47	0.83	-0.750			
0.9160	58625.68	3.1770	3.1770	-0.1151	26.47	0.83	-0.750			
0.9164	58647.44	3.1740	3.1740	-0.1142	26.47	0.83	-0.750			
0.9167	58669.46	3.1710	3.1711	-0.1129	26.48	0.84	-0.750			
0.9170	58691.19	3.1680	3.1680	-0.1120	26.48	0.84	-0.750			
0.9174	58712.51	3.1650	3.1649	-0.1107	26.49	0.85	-0.750			
0.9177	58733.61	3.1620	3.1621	-0.1093	26.49	0.85	-0.750			
