Ah_balance (normalized)	Ah_balance (mAh)	Voltage - fit (V)	Voltage -  interpolate (V)	dQ/dV (1/V)	Temperature (°C)	Temperature - diff (°C)	Current (C)	R_DC 0ms (mOhm)	R_DC 50ms (mOhm)	R_DC 50 ms PEC (mOhm)
0.0003	18.16	4.1580	4.1591	-0.1893	25.96	0.01	-0.750			
0.0009	55.94	4.1550	4.1552	-0.2082	25.96	0.01	-0.750			
0.0015	96.81	4.1520	4.1520	-0.2323	25.96	0.01	-0.750			
0.0022	143.81	4.1490	4.1489	-0.2617	25.96	0.01	-0.750			
0.0031	196.72	4.1460	4.1460	-0.2924	25.96	0.01	-0.750			
0.0040	254.84	4.1430	4.1430	-0.3242	25.96	0.01	-0.750			
0.0050	321.31	4.1400	4.1400	-0.3558	25.95	0.00	-0.750			
0.0061	393.27	4.1370	4.1369	-0.3845	25.95	0.00	-0.750			
0.0074	470.54	4.1340	4.1341	-0.4122	25.95	0.00	-0.750			
0.0086	552.16	4.1310	4.1310	-0.4391	25.95	-0.00	-0.750			
0.0100	639.40	4.1280	4.1279	-0.4626	25.95	-0.00	-0.750			
0.0114	730.95	4.1250	4.1249	-0.4826	25.94	-0.01	-0.750			
0.0129	824.96	4.1220	4.1221	-0.5037	25.94	-0.01	-0.750			
0.0145	925.05	4.1190	4.1191	-0.5295	25.94	-0.01	-0.750			
0.0161	1029.25	4.1160	4.1159	-0.5453	25.94	-0.01	-0.750			
0.0177	1135.65	4.1130	4.1130	-0.5619	25.93	-0.02	-0.750			
0.0195	1245.25	4.1100	4.1100	-0.5742	25.93	-0.02	-0.750			
0.0212	1357.77	4.1070	4.1070	-0.5873	25.93	-0.02	-0.750			
0.0230	1472.43	4.1040	4.1040	-0.5977	25.92	-0.03	-0.750			
0.0248	1587.11	4.1010	4.1009	-0.6054	25.92	-0.03	-0.750			
0.0266	1704.33	4.0980	4.0980	-0.6130	25.91	-0.04	-0.750			
0.0285	1823.64	4.0950	4.0949	-0.6238	25.90	-0.05	-0.750			
0.0304	1943.94	4.0920	4.0921	-0.6301	25.90	-0.05	-0.750			
0.0323	2066.09	4.0890	4.0889	-0.6387	25.89	-0.06	-0.750			
0.0342	2189.63	4.0860	4.0859	-0.6432	25.89	-0.06	-0.750			
0.0362	2313.75	4.0830	4.0830	-0.6486	25.89	-0.06	-0.750			
0.0381	2436.55	4.0800	4.0801	-0.6582	25.89	-0.06	-0.750			
0.0401	2565.33	4.0770	4.0769	-0.6619	25.89	-0.06	-0.750			
0.0421	2694.19	4.0740	4.0740	-0.6641	25.89	-0.06	-0.750			
0.0441	2821.84	4.0710	4.0710	-0.6701	25.89	-0.06	-0.750			
0.0461	2951.35	4.0680	4.0680	-0.6722	25.89	-0.06	-0.750			
0.0481	3080.56	4.0650	4.0649	-0.6771	25.89	-0.06	-0.750			
0.0501	3207.97	4.0620	4.0620	-0.6795	25.88	-0.07	-0.750			
0.0522	3339.61	4.0590	4.0591	-0.6777	25.88	-0.07	-0.750			
0.0543	3472.32	4.0560	4.0560	-0.6886	25.88	-0.07	-0.750			
0.0563	3604.89	4.0530	4.0530	-0.6921	25.87	-0.08	-0.750			
0.0584	3737.07	4.0500	4.0502	-0.6923	25.87	-0.08	-0.750			
0.0605	3870.71	4.0470	4.0469	-0.6963	25.87	-0.08	-0.750			
0.0625	4002.40	4.0440	4.0441	-0.7039	25.87	-0.08	-0.750			
0.0647	4138.61	4.0410	4.0410	-0.7069	25.87	-0.08	-0.750			
0.0668	4276.89	4.0380	4.0379	-0.7141	25.87	-0.08	-0.750			
0.0689	4412.26	4.0350	4.0350	-0.7194	25.87	-0.08	-0.750			
0.0711	4551.33	4.0320	4.0321	-0.7305	25.87	-0.08	-0.750			
0.0734	4694.54	4.0290	4.0289	-0.7322	25.87	-0.08	-0.750			
0.0756	4835.90	4.0260	4.0258	-0.7367	25.87	-0.08	-0.750			
0.0778	4976.97	4.0230	4.0232	-0.7345	25.87	-0.08	-0.750			
0.0800	5120.86	4.0200	4.0200	-0.7342	25.87	-0.08	-0.750			
0.0822	5262.38	4.0170	4.0170	-0.7295	25.87	-0.08	-0.750			
0.0844	5400.40	4.0140	4.0139	-0.7217	25.87	-0.08	-0.750			
0.0865	5537.24	4.0110	4.0109	-0.7131	25.87	-0.08	-0.750			
0.0886	5673.52	4.0080	4.0080	-0.7209	25.87	-0.08	-0.750			
0.0908	5810.00	4.0050	4.0051	-0.7188	25.88	-0.07	-0.750			
0.0930	5950.43	4.0020	4.0019	-0.7261	25.88	-0.07	-0.750			
0.0952	6090.52	3.9990	3.9993	-0.7311	25.88	-0.07	-0.750			
0.0974	6231.25	3.9960	3.9959	-0.7342	25.88	-0.07	-0.750			
0.0996	6372.62	3.9930	3.9930	-0.7380	25.88	-0.07	-0.750			
0.1018	6514.97	3.9900	3.9900	-0.7396	25.89	-0.06	-0.750			
0.1040	6658.24	3.9870	3.9870	-0.7398	25.89	-0.06	-0.750			
0.1062	6799.86	3.9840	3.9840	-0.7377	25.89	-0.06	-0.750			
0.1085	6941.32	3.9810	3.9811	-0.7355	25.89	-0.06	-0.750			
0.1106	7081.14	3.9780	3.9780	-0.7365	25.89	-0.06	-0.750			
0.1128	7221.58	3.9750	3.9750	-0.7408	25.89	-0.06	-0.750			
0.1151	7364.51	3.9720	3.9719	-0.7444	25.89	-0.06	-0.750			
0.1173	7508.69	3.9690	3.9690	-0.7477	25.89	-0.06	-0.750			
0.1196	7652.96	3.9660	3.9661	-0.7517	25.89	-0.06	-0.750			
0.1218	7797.76	3.9630	3.9630	-0.7552	25.89	-0.06	-0.750			
0.1241	7943.02	3.9600	3.9599	-0.7588	25.90	-0.05	-0.750			
0.1264	8087.37	3.9570	3.9570	-0.7580	25.90	-0.05	-0.750			
0.1287	8233.81	3.9540	3.9540	-0.7619	25.90	-0.05	-0.750			
0.1310	8381.60	3.9510	3.9510	-0.7664	25.91	-0.04	-0.750			
0.1333	8529.89	3.9480	3.9481	-0.7637	25.91	-0.04	-0.750			
0.1356	8675.95	3.9450	3.9450	-0.7616	25.91	-0.04	-0.750			
0.1378	8821.76	3.9420	3.9420	-0.7594	25.91	-0.04	-0.750			
0.1401	8966.89	3.9390	3.9391	-0.7592	25.92	-0.03	-0.750			
0.1424	9112.58	3.9360	3.9359	-0.7601	25.92	-0.03	-0.750			
0.1447	9257.64	3.9330	3.9329	-0.7618	25.92	-0.03	-0.750			
0.1469	9404.26	3.9300	3.9300	-0.7611	25.92	-0.03	-0.750			
0.1492	9550.22	3.9270	3.9271	-0.7665	25.92	-0.03	-0.750			
0.1515	9698.14	3.9240	3.9239	-0.7673	25.92	-0.03	-0.750			
0.1538	9845.36	3.9210	3.9210	-0.7723	25.93	-0.02	-0.750			
0.1561	9992.41	3.9180	3.9180	-0.7770	25.93	-0.02	-0.750			
0.1585	10142.97	3.9150	3.9151	-0.7811	25.93	-0.02	-0.750			
0.1608	10293.54	3.9120	3.9119	-0.7885	25.93	-0.02	-0.750			
0.1632	10447.12	3.9090	3.9090	-0.7929	25.94	-0.01	-0.750			
0.1656	10599.63	3.9060	3.9060	-0.7922	25.94	-0.01	-0.750			
0.1680	10752.32	3.9030	3.9030	-0.7957	25.95	-0.00	-0.750			
0.1704	10904.91	3.9000	3.9000	-0.7945	25.95	0.00	-0.750			
0.1728	11056.85	3.8970	3.8970	-0.7935	25.95	0.00	-0.750			
0.1751	11209.55	3.8940	3.8940	-0.7982	25.95	0.00	-0.750			
0.1775	11361.90	3.8910	3.8910	-0.7983	25.96	0.01	-0.750			
0.1800	11517.00	3.8880	3.8880	-0.8008	25.96	0.01	-0.750			
0.1824	11670.99	3.8850	3.8850	-0.8006	25.96	0.01	-0.750			
0.1848	11824.25	3.8820	3.8820	-0.8001	25.96	0.01	-0.750			
0.1871	11977.28	3.8790	3.8790	-0.8055	25.96	0.01	-0.750			
0.1896	12132.60	3.8760	3.8759	-0.8050	25.97	0.02	-0.750			
0.1920	12286.93	3.8730	3.8729	-0.8017	25.97	0.02	-0.750			
0.1944	12442.44	3.8700	3.8701	-0.8032	25.97	0.02	-0.750			
0.1968	12597.17	3.8670	3.8670	-0.8009	25.97	0.02	-0.750			
0.1992	12749.40	3.8640	3.8639	-0.8041	25.98	0.03	-0.750			
0.2016	12903.73	3.8610	3.8610	-0.8024	25.98	0.03	-0.750			
0.2040	13055.90	3.8580	3.8580	-0.7993	25.98	0.03	-0.750			
0.2064	13212.77	3.8550	3.8548	-0.8036	25.99	0.04	-0.750			
0.2089	13367.16	3.8520	3.8520	-0.7992	25.99	0.04	-0.750			
0.2112	13517.65	3.8490	3.8490	-0.8051	26.00	0.05	-0.750			
0.2136	13673.31	3.8460	3.8459	-0.8031	26.00	0.05	-0.750			
0.2160	13825.73	3.8430	3.8429	-0.8010	26.00	0.05	-0.750			
0.2185	13982.89	3.8400	3.8400	-0.8039	26.01	0.06	-0.750			
0.2209	14138.75	3.8370	3.8371	-0.8016	26.01	0.06	-0.750			
0.2233	14291.88	3.8340	3.8340	-0.8010	26.01	0.06	-0.750			
0.2257	14444.68	3.8310	3.8310	-0.8012	26.02	0.07	-0.750			
0.2281	14598.06	3.8280	3.8280	-0.7909	26.02	0.07	-0.750			
0.2305	14752.58	3.8250	3.8249	-0.7920	26.03	0.08	-0.750			
0.2329	14903.12	3.8220	3.8222	-0.7897	26.03	0.08	-0.750			
0.2352	15055.30	3.8190	3.8190	-0.7873	26.03	0.08	-0.750			
0.2376	15204.82	3.8160	3.8158	-0.7876	26.04	0.09	-0.750			
0.2399	15353.46	3.8130	3.8130	-0.7829	26.04	0.09	-0.750			
0.2423	15506.17	3.8100	3.8100	-0.7845	26.05	0.10	-0.750			
0.2446	15657.42	3.8070	3.8071	-0.7824	26.05	0.10	-0.750			
0.2470	15808.22	3.8040	3.8039	-0.7777	26.05	0.10	-0.750			
0.2493	15955.25	3.8010	3.8009	-0.7724	26.06	0.11	-0.750			
0.2516	16103.40	3.7980	3.7980	-0.7660	26.06	0.11	-0.750			
0.2539	16248.73	3.7950	3.7951	-0.7617	26.06	0.11	-0.750			
0.2562	16396.72	3.7920	3.7919	-0.7627	26.07	0.12	-0.750			
0.2585	16543.28	3.7890	3.7890	-0.7614	26.07	0.12	-0.750			
0.2607	16687.52	3.7860	3.7860	-0.7599	26.07	0.12	-0.750			
0.2630	16834.14	3.7830	3.7830	-0.7593	26.08	0.13	-0.750			
0.2653	16979.68	3.7800	3.7800	-0.7596	26.08	0.13	-0.750			
0.2676	17127.59	3.7770	3.7770	-0.7563	26.09	0.14	-0.750			
0.2699	17272.02	3.7740	3.7739	-0.7498	26.09	0.14	-0.750			
0.2721	17416.46	3.7710	3.7710	-0.7438	26.09	0.14	-0.750			
0.2743	17557.76	3.7680	3.7679	-0.7397	26.10	0.15	-0.750			
0.2765	17697.48	3.7650	3.7650	-0.7428	26.10	0.15	-0.750			
0.2788	17840.57	3.7620	3.7620	-0.7430	26.10	0.15	-0.750			
0.2810	17984.28	3.7590	3.7589	-0.7421	26.11	0.16	-0.750			
0.2832	18127.70	3.7560	3.7562	-0.7467	26.11	0.16	-0.750			
0.2855	18271.46	3.7530	3.7529	-0.7460	26.11	0.16	-0.750			
0.2877	18413.91	3.7500	3.7500	-0.7520	26.12	0.17	-0.750			
0.2899	18556.34	3.7470	3.7470	-0.7527	26.12	0.17	-0.750			
0.2922	18702.10	3.7440	3.7440	-0.7633	26.13	0.18	-0.750			
0.2945	18849.13	3.7410	3.7409	-0.7736	26.13	0.18	-0.750			
0.2969	18998.80	3.7380	3.7379	-0.7825	26.13	0.18	-0.750			
0.2992	19147.95	3.7350	3.7350	-0.7978	26.13	0.18	-0.750			
0.3016	19303.53	3.7320	3.7320	-0.8066	26.12	0.17	-0.750			
0.3040	19457.99	3.7290	3.7290	-0.8143	26.12	0.17	-0.750			
0.3065	19618.49	3.7260	3.7260	-0.8270	26.12	0.17	-0.750			
0.3090	19777.68	3.7230	3.7230	-0.8356	26.12	0.17	-0.750			
0.3115	19937.51	3.7200	3.7200	-0.8467	26.12	0.17	-0.750			
0.3141	20101.76	3.7170	3.7169	-0.8578	26.13	0.18	-0.750			
0.3166	20264.20	3.7140	3.7140	-0.8666	26.13	0.18	-0.750			
0.3193	20433.76	3.7110	3.7109	-0.8903	26.13	0.18	-0.750			
0.3220	20606.12	3.7080	3.7081	-0.9032	26.13	0.18	-0.750			
0.3247	20781.13	3.7050	3.7049	-0.9262	26.13	0.18	-0.750			
0.3275	20960.59	3.7020	3.7021	-0.9398	26.13	0.18	-0.750			
0.3303	21142.09	3.6990	3.6990	-0.9545	26.13	0.18	-0.750			
0.3333	21328.24	3.6960	3.6961	-0.9821	26.13	0.18	-0.750			
0.3362	21518.76	3.6930	3.6928	-0.9971	26.12	0.17	-0.750			
0.3392	21710.88	3.6900	3.6900	-1.0119	26.12	0.17	-0.750			
0.3423	21907.28	3.6870	3.6870	-1.0328	26.11	0.16	-0.750			
0.3454	22105.93	3.6840	3.6843	-1.0550	26.11	0.16	-0.750			
0.3486	22312.22	3.6810	3.6809	-1.0746	26.11	0.16	-0.750			
0.3519	22518.80	3.6780	3.6780	-1.0930	26.11	0.16	-0.750			
0.3552	22729.94	3.6750	3.6750	-1.1130	26.11	0.16	-0.750			
0.3585	22946.63	3.6720	3.6721	-1.1370	26.11	0.16	-0.750			
0.3620	23167.37	3.6690	3.6690	-1.1534	26.10	0.15	-0.750			
0.3655	23390.43	3.6660	3.6660	-1.1697	26.10	0.15	-0.750			
0.3690	23615.19	3.6630	3.6629	-1.1999	26.09	0.14	-0.750			
0.3726	23847.44	3.6600	3.6600	-1.2264	26.09	0.14	-0.750			
0.3763	24084.42	3.6570	3.6569	-1.2530	26.08	0.13	-0.750			
0.3801	24326.86	3.6540	3.6541	-1.2849	26.07	0.12	-0.750			
0.3840	24577.79	3.6510	3.6511	-1.3075	26.07	0.12	-0.750			
0.3880	24834.56	3.6480	3.6480	-1.3234	26.06	0.11	-0.750			
0.3921	25091.82	3.6450	3.6450	-1.3410	26.06	0.11	-0.750			
0.3961	25348.29	3.6420	3.6421	-1.3650	26.05	0.10	-0.750			
0.4002	25611.85	3.6390	3.6388	-1.3900	26.04	0.09	-0.750			
0.4043	25878.17	3.6360	3.6360	-1.4136	26.04	0.09	-0.750			
0.4086	26153.01	3.6330	3.6331	-1.4508	26.03	0.08	-0.750			
0.4131	26438.87	3.6300	3.6299	-1.4882	26.03	0.08	-0.750			
0.4176	26728.65	3.6270	3.6269	-1.5193	26.02	0.07	-0.750			
0.4222	27020.36	3.6240	3.6238	-1.5478	26.02	0.07	-0.750			
0.4269	27320.25	3.6210	3.6210	-1.5791	26.01	0.06	-0.750			
0.4317	27628.30	3.6180	3.6180	-1.6008	26.01	0.06	-0.750			
0.4365	27932.89	3.6150	3.6153	-1.6393	26.00	0.05	-0.750	0.398	0.540	
0.4415	28258.60	3.6120	3.6120	-1.6730	26.00	0.05	-0.750			
0.4466	28582.78	3.6090	3.6089	-1.6964	25.99	0.04	-0.750			
0.4517	28908.89	3.6060	3.6060	-1.7317	25.98	0.03	-0.750			
0.4570	29245.28	3.6030	3.6028	-1.7597	25.98	0.03	-0.750			
0.4623	29588.29	3.6000	3.5999	-1.8021	25.98	0.03	-0.750			
0.4678	29940.46	3.5970	3.5969	-1.8344	25.97	0.02	-0.750			
0.4732	30288.00	3.5940	3.5939	-1.8661	25.97	0.02	-0.750			
0.4790	30658.16	3.5910	3.5912	-1.9195	25.97	0.02	-0.750			
0.4848	31027.02	3.5880	3.5881	-1.9482	25.97	0.02	-0.750			
0.4907	31402.81	3.5850	3.5849	-1.9732	25.96	0.01	-0.750			
0.4968	31792.68	3.5820	3.5820	-2.0128	25.95	0.00	-0.750			
0.5028	32178.99	3.5790	3.5791	-2.0443	25.95	0.00	-0.750			
0.5090	32577.34	3.5760	3.5760	-2.0673	25.95	0.00	-0.750			
0.5152	32975.54	3.5730	3.5731	-2.0939	25.95	0.00	-0.750			
0.5215	33377.23	3.5700	3.5701	-2.1395	25.95	-0.00	-0.750			
0.5280	33789.95	3.5670	3.5669	-2.1656	25.94	-0.01	-0.750			
0.5346	34215.82	3.5640	3.5640	-2.1621	25.94	-0.01	-0.750			
0.5413	34643.22	3.5610	3.5610	-2.1821	25.95	-0.00	-0.750			
0.5478	35061.34	3.5580	3.5580	-2.2007	25.95	0.00	-0.750			
0.5545	35487.63	3.5550	3.5549	-2.1562	25.95	0.00	-0.750			
0.5609	35897.91	3.5520	3.5523	-2.1428	25.95	0.00	-0.750			
0.5672	36302.34	3.5490	3.5494	-2.1465	25.97	0.02	-0.750			
0.5738	36720.05	3.5460	3.5460	-2.1462	25.97	0.02	-0.750			
0.5802	37131.92	3.5430	3.5430	-2.1241	25.97	0.02	-0.750			
0.5865	37536.08	3.5400	3.5402	-2.1268	25.97	0.02	-0.750			
0.5929	37948.61	3.5370	3.5370	-2.0988	25.97	0.02	-0.750			
0.5994	38359.15	3.5340	3.5340	-2.0872	25.98	0.03	-0.750			
0.6054	38747.70	3.5310	3.5311	-2.0414	25.99	0.04	-0.750			
0.6115	39133.29	3.5280	3.5279	-2.0088	26.00	0.05	-0.750			
0.6175	39518.01	3.5250	3.5248	-1.9738	26.01	0.06	-0.750			
0.6234	39899.70	3.5220	3.5219	-1.9267	26.02	0.07	-0.750			
0.6291	40262.50	3.5190	3.5189	-1.8779	26.02	0.07	-0.750			
0.6347	40621.36	3.5160	3.5159	-1.8290	26.03	0.08	-0.750			
0.6401	40968.04	3.5130	3.5130	-1.7925	26.05	0.10	-0.750			
0.6454	41306.48	3.5100	3.5101	-1.7460	26.06	0.11	-0.750			
0.6506	41638.81	3.5070	3.5071	-1.6939	26.07	0.12	-0.750			
0.6557	41962.43	3.5040	3.5039	-1.6450	26.08	0.13	-0.750			
0.6606	42278.93	3.5010	3.5008	-1.5943	26.10	0.15	-0.750			
0.6653	42578.76	3.4980	3.4980	-1.5455	26.11	0.16	-0.750			
0.6698	42865.97	3.4950	3.4950	-1.4956	26.13	0.18	-0.750			
0.6742	43149.16	3.4920	3.4918	-1.4411	26.15	0.20	-0.750			
0.6784	43420.17	3.4890	3.4889	-1.3931	26.16	0.21	-0.750			
0.6826	43685.97	3.4860	3.4864	-1.3542	26.18	0.23	-0.750			
0.6866	43941.45	3.4830	3.4829	-1.3094	26.20	0.25	-0.750			
0.6905	44189.48	3.4800	3.4799	-1.2671	26.21	0.26	-0.750			
0.6941	44424.77	3.4770	3.4769	-1.2222	26.23	0.28	-0.750			
0.6977	44654.85	3.4740	3.4740	-1.2002	26.24	0.29	-0.750			
0.7013	44883.85	3.4710	3.4709	-1.1610	26.25	0.30	-0.750			
0.7047	45102.86	3.4680	3.4679	-1.1225	26.26	0.31	-0.750			
0.7080	45314.57	3.4650	3.4652	-1.0909	26.27	0.32	-0.750			
0.7113	45521.98	3.4620	3.4621	-1.0581	26.29	0.34	-0.750			
0.7144	45722.28	3.4590	3.4588	-1.0199	26.31	0.36	-0.750			
0.7174	45910.79	3.4560	3.4560	-0.9826	26.32	0.37	-0.750			
0.7202	46095.72	3.4530	3.4533	-0.9541	26.34	0.39	-0.750			
0.7231	46276.77	3.4500	3.4500	-0.9295	26.35	0.40	-0.750			
0.7258	46451.31	3.4470	3.4469	-0.9040	26.36	0.41	-0.750			
0.7285	46621.39	3.4440	3.4440	-0.8836	26.37	0.42	-0.750			
0.7311	46787.89	3.4410	3.4410	-0.8717	26.38	0.43	-0.750			
0.7337	46953.75	3.4380	3.4380	-0.8641	26.39	0.44	-0.750			
0.7362	47116.68	3.4350	3.4350	-0.8542	26.40	0.45	-0.750			
0.7387	47278.64	3.4320	3.4321	-0.8661	26.41	0.46	-0.750			
0.7413	47443.73	3.4290	3.4289	-0.8750	26.42	0.47	-0.750			
0.7439	47612.22	3.4260	3.4259	-0.8931	26.43	0.48	-0.750			
0.7467	47786.82	3.4230	3.4230	-0.9020	26.44	0.49	-0.750			
0.7494	47962.35	3.4200	3.4200	-0.9217	26.45	0.50	-0.750			
0.7523	48144.36	3.4170	3.4170	-0.9304	26.46	0.51	-0.750			
0.7551	48323.58	3.4140	3.4140	-0.9305	26.47	0.52	-0.750			
0.7579	48503.26	3.4110	3.4114	-0.9299	26.48	0.53	-0.750			
0.7606	48680.94	3.4080	3.4078	-0.9324	26.49	0.54	-0.750			
0.7634	48859.89	3.4050	3.4051	-0.9264	26.50	0.55	-0.750			
0.7662	49039.49	3.4020	3.4020	-0.9192	26.51	0.56	-0.750			
0.7690	49218.20	3.3990	3.3989	-0.9061	26.52	0.57	-0.750			
0.7717	49391.12	3.3960	3.3959	-0.8826	26.52	0.57	-0.750			
0.7743	49557.52	3.3930	3.3931	-0.8617	26.53	0.58	-0.750			
0.7769	49721.78	3.3900	3.3899	-0.8307	26.54	0.59	-0.750			
0.7793	49877.61	3.3870	3.3869	-0.7972	26.55	0.60	-0.750			
0.7817	50029.25	3.3840	3.3839	-0.7680	26.56	0.61	-0.750			
0.7840	50173.37	3.3810	3.3810	-0.7413	26.56	0.61	-0.750			
0.7861	50312.31	3.3780	3.3779	-0.7123	26.57	0.62	-0.750			
0.7882	50443.45	3.3750	3.3749	-0.6874	26.58	0.63	-0.750			
0.7902	50572.10	3.3720	3.3721	-0.6605	26.58	0.63	-0.750			
0.7922	50699.81	3.3690	3.3690	-0.6412	26.59	0.64	-0.750			
0.7941	50821.41	3.3660	3.3659	-0.6176	26.60	0.65	-0.750			
0.7959	50937.19	3.3630	3.3631	-0.5954	26.60	0.65	-0.750			
0.7976	51047.49	3.3600	3.3600	-0.5719	26.61	0.66	-0.750			
0.7993	51155.63	3.3570	3.3569	-0.5540	26.61	0.66	-0.750			
0.8009	51258.01	3.3540	3.3540	-0.5334	26.62	0.67	-0.750			
0.8025	51359.51	3.3510	3.3511	-0.5237	26.62	0.67	-0.750			
0.8041	51459.81	3.3480	3.3479	-0.5090	26.63	0.68	-0.750			
0.8056	51556.27	3.3450	3.3449	-0.4902	26.63	0.68	-0.750			
0.8070	51647.73	3.3420	3.3420	-0.4738	26.64	0.69	-0.750			
0.8084	51737.63	3.3390	3.3391	-0.4595	26.64	0.69	-0.750			
0.8098	51824.58	3.3360	3.3359	-0.4438	26.65	0.70	-0.750			
0.8111	51907.91	3.3330	3.3330	-0.4277	26.66	0.71	-0.750			
0.8123	51987.41	3.3300	3.3301	-0.4117	26.66	0.71	-0.750			
0.8135	52066.12	3.3270	3.3270	-0.4001	26.67	0.72	-0.750			
0.8147	52141.33	3.3240	3.3240	-0.3880	26.67	0.72	-0.750			
0.8158	52213.67	3.3210	3.3210	-0.3748	26.68	0.73	-0.750			
0.8169	52284.16	3.3180	3.3181	-0.3663	26.68	0.73	-0.750			
0.8180	52353.78	3.3150	3.3150	-0.3577	26.69	0.74	-0.750			
0.8191	52422.04	3.3120	3.3120	-0.3477	26.69	0.74	-0.750			
0.8201	52487.83	3.3090	3.3091	-0.3391	26.70	0.75	-0.750			
0.8211	52552.21	3.3060	3.3060	-0.3300	26.71	0.76	-0.750			
0.8221	52614.59	3.3030	3.3030	-0.3193	26.71	0.76	-0.750			
0.8230	52674.30	3.3000	3.3000	-0.3115	26.72	0.77	-0.750			
0.8240	52732.92	3.2970	3.2970	-0.3036	26.72	0.77	-0.750			
0.8249	52790.62	3.2940	3.2940	-0.2978	26.73	0.78	-0.750			
0.8257	52847.17	3.2910	3.2911	-0.2923	26.74	0.79	-0.750			
0.8266	52902.62	3.2880	3.2880	-0.2850	26.74	0.79	-0.750			
0.8275	52957.43	3.2850	3.2849	-0.2790	26.75	0.80	-0.750			
0.8283	53010.24	3.2820	3.2820	-0.2731	26.75	0.80	-0.750			
0.8291	53061.30	3.2790	3.2791	-0.2663	26.76	0.81	-0.750			
0.8299	53112.20	3.2760	3.2760	-0.2617	26.76	0.81	-0.750			
0.8307	53161.69	3.2730	3.2730	-0.2551	26.77	0.82	-0.750			
0.8314	53209.64	3.2700	3.2701	-0.2499	26.77	0.82	-0.750			
0.8322	53257.65	3.2670	3.2669	-0.2448	26.78	0.83	-0.750			
0.8329	53303.95	3.2640	3.2641	-0.2417	26.78	0.83	-0.750			
0.8336	53349.40	3.2610	3.2611	-0.2382	26.79	0.84	-0.750			
0.8343	53395.14	3.2580	3.2579	-0.2345	26.79	0.84	-0.750			
0.8350	53439.89	3.2550	3.2550	-0.2302	26.80	0.85	-0.750			
0.8357	53484.35	3.2520	3.2520	-0.2277	26.80	0.85	-0.750			
0.8364	53528.71	3.2490	3.2490	-0.2191	26.81	0.86	-0.750			
0.8370	53569.38	3.2460	3.2460	-0.2161	26.82	0.87	-0.750			
0.8376	53608.28	3.2430	3.2432	-0.2120	26.82	0.87	-0.750			
0.8383	53649.10	3.2400	3.2402	-0.2111	26.83	0.88	-0.750			
0.8389	53688.66	3.2370	3.2369	-0.2097	26.83	0.88	-0.750			
0.8395	53729.00	3.2340	3.2341	-0.2090	26.84	0.89	-0.750			
0.8402	53770.09	3.2310	3.2312	-0.2088	26.84	0.89	-0.750			
0.8408	53811.48	3.2280	3.2278	-0.2094	26.85	0.90	-0.750			
0.8414	53851.09	3.2250	3.2249	-0.2033	26.85	0.90	-0.750			
0.8420	53888.47	3.2220	3.2220	-0.1980	26.86	0.91	-0.750			
0.8426	53925.83	3.2190	3.2191	-0.1955	26.86	0.91	-0.750			
0.8432	53963.40	3.2160	3.2159	-0.1932	26.87	0.92	-0.750			
0.8438	54000.21	3.2130	3.2130	-0.1902	26.87	0.92	-0.750			
0.8443	54036.19	3.2100	3.2100	-0.1870	26.88	0.93	-0.750			
0.8449	54071.76	3.2070	3.2073	-0.1848	26.88	0.93	-0.750			
0.8454	54107.18	3.2040	3.2042	-0.1827	26.88	0.93	-0.750			
0.8460	54141.99	3.2010	3.2009	-0.1804	26.89	0.94	-0.750			
0.8465	54176.42	3.1980	3.1979	-0.1780	26.89	0.94	-0.750			
0.8470	54210.07	3.1950	3.1950	-0.1753	26.90	0.95	-0.750			
0.8476	54243.74	3.1920	3.1920	-0.1738	26.90	0.95	-0.750			
0.8481	54276.85	3.1890	3.1891	-0.1717	26.91	0.96	-0.750			
0.8486	54309.42	3.1860	3.1860	-0.1706	26.91	0.96	-0.750			
0.8491	54342.00	3.1830	3.1832	-0.1683	26.92	0.97	-0.750			
0.8496	54374.18	3.1800	3.1799	-0.1669	26.92	0.97	-0.750			
0.8501	54406.14	3.1770	3.1769	-0.1654	26.93	0.98	-0.750			
0.8506	54437.77	3.1740	3.1741	-0.1643	26.93	0.98	-0.750			
0.8511	54469.21	3.1710	3.1709	-0.1628	26.94	0.99	-0.750			
0.8516	54500.32	3.1680	3.1680	-0.1612	26.94	0.99	-0.750			
0.8521	54531.24	3.1650	3.1650	-0.1589	26.95	1.00	-0.750			
0.8525	54561.41	3.1620	3.1621	-0.1569	26.95	1.00	-0.750			
0.8530	54591.44	3.1590	3.1590	-0.1560	26.96	1.01	-0.750			
0.8535	54621.22	3.1560	3.1561	-0.1542	26.96	1.01	-0.750			
