Ah_balance (normalized)	Ah_balance (mAh)	Voltage - fit (V)	Voltage -  interpolate (V)	dQ/dV (1/V)	Temperature (°C)	Temperature - diff (°C)	Current (C)	R_DC 0ms (mOhm)	R_DC 50ms (mOhm)	R_DC 50 ms PEC (mOhm)
0.0003	18.97	4.1590	4.1588	-0.1138	25.91	0.02	-0.750			
0.0007	45.63	4.1560	4.1557	-0.1564	25.91	0.02	-0.750			
0.0012	79.67	4.1530	4.1531	-0.1949	25.91	0.02	-0.750			
0.0019	121.08	4.1500	4.1499	-0.2316	25.91	0.02	-0.750			
0.0026	168.86	4.1470	4.1471	-0.2693	25.91	0.02	-0.750			
0.0035	225.01	4.1440	4.1440	-0.3043	25.90	0.01	-0.750			
0.0045	287.17	4.1410	4.1410	-0.3353	25.90	0.01	-0.750			
0.0056	355.51	4.1380	4.1380	-0.3661	25.90	0.01	-0.750			
0.0067	428.30	4.1350	4.1352	-0.4000	25.90	0.01	-0.750			
0.0080	508.91	4.1320	4.1320	-0.4260	25.90	0.01	-0.750			
0.0093	594.45	4.1290	4.1289	-0.4506	25.89	0.00	-0.750			
0.0107	683.18	4.1260	4.1260	-0.4733	25.89	0.00	-0.750			
0.0121	777.52	4.1230	4.1233	-0.4975	25.89	0.00	-0.750			
0.0137	875.24	4.1200	4.1199	-0.5156	25.89	-0.00	-0.750			
0.0153	976.16	4.1170	4.1170	-0.5323	25.89	-0.00	-0.750			
0.0169	1079.19	4.1140	4.1141	-0.5480	25.88	-0.01	-0.750			
0.0186	1187.54	4.1110	4.1110	-0.5687	25.88	-0.01	-0.750			
0.0203	1298.39	4.1080	4.1079	-0.5772	25.88	-0.01	-0.750			
0.0220	1409.99	4.1050	4.1050	-0.5900	25.87	-0.02	-0.750			
0.0238	1524.82	4.1020	4.1020	-0.6013	25.87	-0.02	-0.750			
0.0257	1642.55	4.0990	4.0989	-0.6111	25.87	-0.02	-0.750			
0.0275	1760.75	4.0960	4.0960	-0.6189	25.87	-0.02	-0.750			
0.0294	1879.97	4.0930	4.0931	-0.6257	25.86	-0.03	-0.750			
0.0313	2001.75	4.0900	4.0900	-0.6312	25.86	-0.03	-0.750			
0.0332	2124.26	4.0870	4.0870	-0.6374	25.86	-0.03	-0.750			
0.0351	2244.87	4.0840	4.0840	-0.6430	25.85	-0.04	-0.750			
0.0370	2370.04	4.0810	4.0808	-0.6466	25.85	-0.04	-0.750			
0.0390	2495.88	4.0780	4.0779	-0.6504	25.85	-0.04	-0.750			
0.0409	2620.07	4.0750	4.0750	-0.6555	25.85	-0.04	-0.750			
0.0429	2746.19	4.0720	4.0721	-0.6657	25.85	-0.04	-0.750			
0.0449	2876.02	4.0690	4.0690	-0.6733	25.85	-0.04	-0.750			
0.0470	3005.70	4.0660	4.0659	-0.6734	25.85	-0.04	-0.750			
0.0490	3135.26	4.0630	4.0629	-0.6786	25.85	-0.04	-0.750			
0.0511	3267.30	4.0600	4.0599	-0.6855	25.85	-0.04	-0.750			
0.0531	3398.58	4.0570	4.0568	-0.6845	25.85	-0.04	-0.750			
0.0552	3529.70	4.0540	4.0540	-0.6820	25.85	-0.04	-0.750			
0.0572	3659.38	4.0510	4.0511	-0.6826	25.85	-0.04	-0.750			
0.0593	3793.73	4.0480	4.0481	-0.6915	25.85	-0.04	-0.750			
0.0614	3926.76	4.0450	4.0450	-0.6935	25.85	-0.04	-0.750			
0.0634	4058.26	4.0420	4.0418	-0.6940	25.85	-0.04	-0.750			
0.0655	4192.53	4.0390	4.0390	-0.6967	25.85	-0.04	-0.750			
0.0676	4326.58	4.0360	4.0361	-0.7029	25.85	-0.04	-0.750			
0.0697	4462.50	4.0330	4.0330	-0.7038	25.85	-0.04	-0.750			
0.0719	4598.99	4.0300	4.0299	-0.7074	25.85	-0.04	-0.750			
0.0740	4733.76	4.0270	4.0271	-0.7053	25.85	-0.04	-0.750			
0.0761	4868.77	4.0240	4.0240	-0.7098	25.85	-0.04	-0.750			
0.0782	5005.31	4.0210	4.0210	-0.7112	25.85	-0.04	-0.750			
0.0804	5142.69	4.0180	4.0180	-0.7157	25.85	-0.04	-0.750			
0.0825	5279.50	4.0150	4.0150	-0.7157	25.85	-0.04	-0.750			
0.0847	5420.02	4.0120	4.0120	-0.7203	25.85	-0.04	-0.750			
0.0868	5557.71	4.0090	4.0092	-0.7188	25.85	-0.04	-0.750			
0.0890	5695.85	4.0060	4.0059	-0.7194	25.85	-0.04	-0.750			
0.0911	5833.33	4.0030	4.0030	-0.7157	25.85	-0.04	-0.750			
0.0933	5969.31	4.0000	4.0000	-0.7209	25.85	-0.04	-0.750			
0.0954	6108.55	3.9970	3.9970	-0.7206	25.86	-0.03	-0.750			
0.0976	6248.65	3.9940	3.9939	-0.7250	25.86	-0.03	-0.750			
0.0998	6387.70	3.9910	3.9912	-0.7284	25.86	-0.03	-0.750			
0.1020	6527.95	3.9880	3.9880	-0.7307	25.86	-0.03	-0.750			
0.1042	6668.42	3.9850	3.9849	-0.7356	25.86	-0.03	-0.750			
0.1064	6810.53	3.9820	3.9820	-0.7367	25.87	-0.02	-0.750			
0.1086	6951.13	3.9790	3.9790	-0.7419	25.87	-0.02	-0.750			
0.1109	7094.58	3.9760	3.9760	-0.7471	25.87	-0.02	-0.750			
0.1131	7237.98	3.9730	3.9730	-0.7501	25.87	-0.02	-0.750			
0.1153	7381.80	3.9700	3.9699	-0.7540	25.87	-0.02	-0.750			
0.1176	7528.58	3.9670	3.9670	-0.7561	25.87	-0.02	-0.750			
0.1199	7675.20	3.9640	3.9640	-0.7542	25.88	-0.01	-0.750			
0.1222	7820.12	3.9610	3.9610	-0.7509	25.88	-0.01	-0.750			
0.1244	7961.55	3.9580	3.9580	-0.7476	25.88	-0.01	-0.750			
0.1266	8104.94	3.9550	3.9549	-0.7495	25.88	-0.01	-0.750			
0.1289	8247.23	3.9520	3.9520	-0.7503	25.89	-0.00	-0.750			
0.1311	8391.84	3.9490	3.9490	-0.7570	25.90	0.01	-0.750			
0.1334	8538.39	3.9460	3.9461	-0.7682	25.90	0.01	-0.750			
0.1357	8687.34	3.9430	3.9430	-0.7707	25.91	0.02	-0.750			
0.1380	8835.20	3.9400	3.9400	-0.7733	25.91	0.02	-0.750			
0.1404	8983.47	3.9370	3.9371	-0.7739	25.91	0.02	-0.750			
0.1427	9132.41	3.9340	3.9339	-0.7721	25.91	0.02	-0.750			
0.1450	9281.40	3.9310	3.9311	-0.7700	25.91	0.02	-0.750			
0.1473	9429.10	3.9280	3.9280	-0.7709	25.91	0.02	-0.750			
0.1496	9575.79	3.9250	3.9251	-0.7710	25.91	0.02	-0.750			
0.1520	9724.89	3.9220	3.9219	-0.7743	25.91	0.02	-0.750			
0.1542	9871.91	3.9190	3.9190	-0.7764	25.91	0.02	-0.750			
0.1566	10022.23	3.9160	3.9160	-0.7819	25.92	0.03	-0.750			
0.1590	10174.20	3.9130	3.9130	-0.7856	25.92	0.03	-0.750			
0.1613	10325.00	3.9100	3.9100	-0.7852	25.92	0.03	-0.750			
0.1637	10474.99	3.9070	3.9069	-0.7846	25.92	0.03	-0.750			
0.1660	10624.69	3.9040	3.9040	-0.7862	25.92	0.03	-0.750			
0.1684	10775.86	3.9010	3.9009	-0.7880	25.92	0.03	-0.750			
0.1707	10925.89	3.8980	3.8980	-0.7882	25.93	0.04	-0.750			
0.1731	11079.07	3.8950	3.8950	-0.7932	25.93	0.04	-0.750			
0.1755	11232.60	3.8920	3.8921	-0.7937	25.93	0.04	-0.750			
0.1779	11385.35	3.8890	3.8890	-0.7948	25.94	0.05	-0.750			
0.1803	11538.14	3.8860	3.8860	-0.7941	25.94	0.05	-0.750			
0.1826	11688.92	3.8830	3.8830	-0.7944	25.94	0.05	-0.750			
0.1850	11842.94	3.8800	3.8800	-0.7935	25.95	0.06	-0.750			
0.1874	11994.22	3.8770	3.8770	-0.7948	25.95	0.06	-0.750			
0.1898	12146.40	3.8740	3.8740	-0.7982	25.95	0.06	-0.750			
0.1922	12300.75	3.8710	3.8711	-0.8069	25.96	0.07	-0.750			
0.1947	12457.64	3.8680	3.8678	-0.8023	25.96	0.07	-0.750			
0.1971	12612.88	3.8650	3.8650	-0.8038	25.97	0.08	-0.750			
0.1995	12766.33	3.8620	3.8624	-0.8028	25.97	0.08	-0.750			
0.2019	12921.04	3.8590	3.8588	-0.8057	25.97	0.08	-0.750			
0.2043	13073.68	3.8560	3.8559	-0.8030	25.97	0.08	-0.750			
0.2067	13227.26	3.8530	3.8530	-0.8004	25.98	0.09	-0.750			
0.2091	13383.22	3.8500	3.8500	-0.8066	25.98	0.09	-0.750			
0.2115	13538.54	3.8470	3.8471	-0.8033	25.98	0.09	-0.750			
0.2139	13691.32	3.8440	3.8439	-0.7988	25.98	0.09	-0.750			
0.2163	13842.89	3.8410	3.8410	-0.8004	25.98	0.09	-0.750			
0.2187	13996.21	3.8380	3.8379	-0.7963	25.99	0.10	-0.750			
0.2211	14149.42	3.8350	3.8350	-0.7969	25.99	0.10	-0.750			
0.2235	14304.87	3.8320	3.8319	-0.7989	25.99	0.10	-0.750			
0.2259	14457.55	3.8290	3.8291	-0.7950	25.99	0.10	-0.750			
0.2283	14609.58	3.8260	3.8259	-0.7949	26.00	0.11	-0.750			
0.2306	14761.50	3.8230	3.8230	-0.7913	26.00	0.11	-0.750			
0.2330	14912.92	3.8200	3.8200	-0.7847	26.00	0.11	-0.750			
0.2354	15064.67	3.8170	3.8171	-0.7871	26.01	0.12	-0.750			
0.2377	15215.86	3.8140	3.8142	-0.7843	26.01	0.12	-0.750			
0.2401	15365.91	3.8110	3.8111	-0.7820	26.01	0.12	-0.750			
0.2424	15515.49	3.8080	3.8080	-0.7796	26.02	0.13	-0.750			
0.2448	15664.67	3.8050	3.8049	-0.7784	26.02	0.13	-0.750			
0.2471	15815.21	3.8020	3.8020	-0.7753	26.03	0.14	-0.750			
0.2495	15965.26	3.7990	3.7989	-0.7708	26.03	0.14	-0.750			
0.2517	16111.72	3.7960	3.7960	-0.7611	26.03	0.14	-0.750			
0.2540	16257.14	3.7930	3.7929	-0.7573	26.04	0.15	-0.750			
0.2563	16400.15	3.7900	3.7900	-0.7534	26.04	0.15	-0.750			
0.2585	16544.03	3.7870	3.7870	-0.7523	26.04	0.15	-0.750			
0.2608	16689.38	3.7840	3.7840	-0.7494	26.05	0.16	-0.750			
0.2630	16833.90	3.7810	3.7810	-0.7470	26.05	0.16	-0.750			
0.2653	16976.42	3.7780	3.7781	-0.7474	26.05	0.16	-0.750			
0.2675	17119.90	3.7750	3.7750	-0.7428	26.05	0.16	-0.750			
0.2697	17261.32	3.7720	3.7719	-0.7369	26.06	0.17	-0.750			
0.2719	17402.75	3.7690	3.7689	-0.7385	26.06	0.17	-0.750			
0.2741	17543.33	3.7660	3.7661	-0.7373	26.06	0.17	-0.750			
0.2763	17685.83	3.7630	3.7629	-0.7387	26.06	0.17	-0.750			
0.2786	17828.59	3.7600	3.7600	-0.7371	26.06	0.17	-0.750			
0.2808	17968.97	3.7570	3.7570	-0.7400	26.06	0.17	-0.750			
0.2830	18110.30	3.7540	3.7541	-0.7421	26.07	0.18	-0.750			
0.2852	18254.36	3.7510	3.7509	-0.7462	26.07	0.18	-0.750			
0.2874	18396.52	3.7480	3.7481	-0.7495	26.07	0.18	-0.750			
0.2897	18541.60	3.7450	3.7450	-0.7511	26.07	0.18	-0.750			
0.2920	18684.81	3.7420	3.7421	-0.7652	26.07	0.18	-0.750			
0.2943	18833.21	3.7390	3.7389	-0.7722	26.07	0.18	-0.750			
0.2966	18982.04	3.7360	3.7360	-0.7809	26.07	0.18	-0.750			
0.2990	19133.01	3.7330	3.7330	-0.7913	26.07	0.18	-0.750			
0.3013	19285.39	3.7300	3.7301	-0.8062	26.07	0.18	-0.750			
0.3038	19441.54	3.7270	3.7269	-0.8211	26.08	0.19	-0.750			
0.3063	19602.03	3.7240	3.7239	-0.8308	26.08	0.19	-0.750			
0.3088	19761.33	3.7210	3.7209	-0.8339	26.08	0.19	-0.750			
0.3113	19924.46	3.7180	3.7181	-0.8532	26.09	0.20	-0.750			
0.3139	20086.62	3.7150	3.7150	-0.8699	26.09	0.20	-0.750			
0.3165	20253.62	3.7120	3.7119	-0.8825	26.09	0.20	-0.750			
0.3191	20424.26	3.7090	3.7088	-0.8965	26.08	0.19	-0.750			
0.3218	20596.91	3.7060	3.7061	-0.9143	26.08	0.19	-0.750			
0.3247	20778.52	3.7030	3.7032	-0.9415	26.08	0.19	-0.750			
0.3275	20961.37	3.7000	3.6999	-0.9562	26.08	0.19	-0.750			
0.3304	21144.75	3.6970	3.6970	-0.9693	26.08	0.19	-0.750			
0.3333	21332.93	3.6940	3.6940	-0.9855	26.07	0.18	-0.750			
0.3363	21525.46	3.6910	3.6910	-1.0037	26.07	0.18	-0.750			
0.3394	21718.93	3.6880	3.6879	-1.0226	26.07	0.18	-0.750			
0.3424	21915.21	3.6850	3.6850	-1.0365	26.06	0.17	-0.750			
0.3455	22114.82	3.6820	3.6820	-1.0556	26.06	0.17	-0.750			
0.3487	22319.21	3.6790	3.6790	-1.0761	26.05	0.16	-0.750			
0.3520	22529.83	3.6760	3.6760	-1.1006	26.05	0.16	-0.750			
0.3554	22745.55	3.6730	3.6730	-1.1196	26.04	0.15	-0.750			
0.3588	22963.03	3.6700	3.6700	-1.1383	26.04	0.15	-0.750			
0.3622	23180.26	3.6670	3.6673	-1.1634	26.03	0.14	-0.750			
0.3657	23407.51	3.6640	3.6640	-1.1830	26.02	0.13	-0.750			
0.3693	23636.94	3.6610	3.6608	-1.1993	26.02	0.13	-0.750			
0.3729	23867.18	3.6580	3.6580	-1.2209	26.01	0.12	-0.750			
0.3767	24106.89	3.6550	3.6550	-1.2415	26.01	0.12	-0.750			
0.3804	24342.71	3.6520	3.6520	-1.2749	26.00	0.11	-0.750			
0.3841	24584.42	3.6490	3.6490	-1.3107	25.99	0.10	-0.750			
0.3882	24841.83	3.6460	3.6460	-1.3461	25.99	0.10	-0.750			
0.3924	25111.17	3.6430	3.6429	-1.3838	25.98	0.09	-0.750			
0.3966	25385.14	3.6400	3.6401	-1.4101	25.97	0.08	-0.750			
0.4009	25658.78	3.6370	3.6371	-1.4274	25.97	0.08	-0.750			
0.4052	25934.91	3.6340	3.6340	-1.4538	25.96	0.07	-0.750			
0.4095	26210.53	3.6310	3.6309	-1.4713	25.95	0.06	-0.750			
0.4139	26491.81	3.6280	3.6280	-1.4867	25.95	0.06	-0.750			
0.4185	26783.89	3.6250	3.6249	-1.5135	25.94	0.05	-0.750			
0.4231	27078.78	3.6220	3.6219	-1.5474	25.93	0.04	-0.750			
0.4278	27376.55	3.6190	3.6189	-1.5693	25.92	0.03	-0.750			
0.4325	27679.51	3.6160	3.6158	-1.6053	25.91	0.02	-0.750			
0.4373	27985.19	3.6130	3.6131	-1.6343	25.90	0.01	-0.750	0.401	0.538	
0.4423	28305.54	3.6100	3.6101	-1.6522	25.90	0.01	-0.750			
0.4474	28636.54	3.6070	3.6069	-1.6937	25.89	0.00	-0.750			
0.4525	28962.34	3.6040	3.6039	-1.7101	25.89	0.00	-0.750			
0.4576	29286.91	3.6010	3.6008	-1.7503	25.89	0.00	-0.750			
0.4629	29625.96	3.5980	3.5981	-1.7749	25.89	-0.00	-0.750			
0.4683	29969.13	3.5950	3.5951	-1.8094	25.88	-0.01	-0.750			
0.4738	30324.11	3.5920	3.5921	-1.8606	25.87	-0.02	-0.750			
0.4795	30687.42	3.5890	3.5888	-1.9142	25.87	-0.02	-0.750			
0.4853	31059.53	3.5860	3.5861	-1.9622	25.87	-0.02	-0.750			
0.4913	31441.02	3.5830	3.5829	-2.0029	25.86	-0.03	-0.750			
0.4973	31829.38	3.5800	3.5798	-2.0346	25.85	-0.04	-0.750			
0.5036	32228.27	3.5770	3.5771	-2.0685	25.85	-0.04	-0.750			
0.5097	32623.41	3.5740	3.5741	-2.0861	25.84	-0.05	-0.750			
0.5160	33025.19	3.5710	3.5709	-2.1195	25.84	-0.05	-0.750			
0.5225	33438.19	3.5680	3.5679	-2.1227	25.84	-0.05	-0.750			
0.5290	33853.37	3.5650	3.5650	-2.1369	25.83	-0.06	-0.750			
0.5354	34266.84	3.5620	3.5621	-2.1471	25.82	-0.07	-0.750			
0.5418	34674.54	3.5590	3.5589	-2.1467	25.82	-0.07	-0.750			
0.5483	35090.33	3.5560	3.5559	-2.1411	25.82	-0.07	-0.750			
0.5547	35501.02	3.5530	3.5530	-2.1374	25.82	-0.07	-0.750			
0.5612	35914.22	3.5500	3.5501	-2.1518	25.82	-0.07	-0.750			
0.5676	36324.06	3.5470	3.5469	-2.1411	25.82	-0.07	-0.750			
0.5740	36737.71	3.5440	3.5441	-2.1387	25.82	-0.07	-0.750			
0.5804	37148.20	3.5410	3.5409	-2.1354	25.82	-0.07	-0.750			
0.5870	37564.98	3.5380	3.5380	-2.1108	25.82	-0.07	-0.750			
0.5933	37971.67	3.5350	3.5350	-2.0849	25.82	-0.07	-0.750			
0.5995	38368.47	3.5320	3.5321	-2.0575	25.82	-0.07	-0.750			
0.6056	38755.74	3.5290	3.5292	-2.0040	25.83	-0.06	-0.750			
0.6116	39141.44	3.5260	3.5260	-1.9689	25.85	-0.04	-0.750			
0.6174	39511.11	3.5230	3.5230	-1.9324	25.86	-0.03	-0.750			
0.6231	39877.33	3.5200	3.5200	-1.9019	25.87	-0.02	-0.750			
0.6288	40244.04	3.5170	3.5170	-1.8543	25.87	-0.02	-0.750			
0.6344	40598.62	3.5140	3.5137	-1.8083	25.87	-0.02	-0.750			
0.6397	40942.01	3.5110	3.5108	-1.7627	25.87	-0.02	-0.750			
0.6450	41277.35	3.5080	3.5079	-1.7253	25.88	-0.01	-0.750			
0.6501	41605.48	3.5050	3.5051	-1.6615	25.89	0.00	-0.750			
0.6550	41918.71	3.5020	3.5023	-1.6017	25.91	0.02	-0.750			
0.6597	42218.28	3.4990	3.4991	-1.5522	25.92	0.03	-0.750			
0.6643	42517.33	3.4960	3.4959	-1.5145	25.94	0.05	-0.750			
0.6688	42801.03	3.4930	3.4928	-1.4636	25.95	0.06	-0.750			
0.6731	43075.43	3.4900	3.4900	-1.4279	25.96	0.07	-0.750			
0.6773	43346.55	3.4870	3.4870	-1.3829	25.98	0.09	-0.750			
0.6814	43610.17	3.4840	3.4839	-1.3390	25.99	0.10	-0.750			
0.6853	43860.60	3.4810	3.4809	-1.2854	26.00	0.11	-0.750			
0.6891	44100.48	3.4780	3.4780	-1.2448	26.02	0.13	-0.750			
0.6928	44336.39	3.4750	3.4750	-1.2093	26.03	0.14	-0.750			
0.6963	44564.32	3.4720	3.4719	-1.1686	26.04	0.15	-0.750			
0.6997	44781.94	3.4690	3.4693	-1.1331	26.05	0.16	-0.750			
0.7031	45000.05	3.4660	3.4659	-1.1060	26.07	0.18	-0.750			
0.7064	45210.43	3.4630	3.4630	-1.0659	26.08	0.19	-0.750			
0.7095	45410.71	3.4600	3.4600	-1.0327	26.10	0.21	-0.750			
0.7126	45604.42	3.4570	3.4572	-1.0031	26.11	0.22	-0.750			
0.7155	45793.50	3.4540	3.4539	-0.9765	26.12	0.23	-0.750			
0.7184	45977.29	3.4510	3.4509	-0.9467	26.13	0.24	-0.750			
0.7212	46156.92	3.4480	3.4480	-0.9150	26.15	0.26	-0.750			
0.7239	46331.55	3.4450	3.4451	-0.8951	26.16	0.27	-0.750			
0.7265	46498.52	3.4420	3.4419	-0.8813	26.16	0.27	-0.750			
0.7291	46662.23	3.4390	3.4391	-0.8653	26.17	0.28	-0.750			
0.7317	46826.80	3.4360	3.4357	-0.8602	26.18	0.29	-0.750			
0.7342	46989.37	3.4330	3.4330	-0.8565	26.18	0.29	-0.750			
0.7368	47156.20	3.4300	3.4302	-0.8624	26.19	0.30	-0.750			
0.7394	47321.17	3.4270	3.4269	-0.8774	26.20	0.31	-0.750			
0.7420	47489.14	3.4240	3.4240	-0.8848	26.21	0.32	-0.750			
0.7447	47659.23	3.4210	3.4209	-0.8926	26.23	0.34	-0.750			
0.7474	47835.60	3.4180	3.4181	-0.9107	26.24	0.35	-0.750			
0.7502	48010.19	3.4150	3.4151	-0.9159	26.25	0.36	-0.750			
0.7529	48187.02	3.4120	3.4120	-0.9274	26.26	0.37	-0.750			
0.7558	48368.13	3.4090	3.4089	-0.9243	26.26	0.37	-0.750			
0.7585	48545.59	3.4060	3.4059	-0.9119	26.26	0.37	-0.750			
0.7613	48723.85	3.4030	3.4032	-0.9061	26.27	0.38	-0.750			
0.7640	48897.57	3.4000	3.3999	-0.8899	26.28	0.39	-0.750			
0.7667	49067.31	3.3970	3.3969	-0.8720	26.28	0.39	-0.750			
0.7692	49231.75	3.3940	3.3940	-0.8449	26.29	0.40	-0.750			
0.7717	49390.26	3.3910	3.3910	-0.8151	26.30	0.41	-0.750			
0.7742	49549.82	3.3880	3.3881	-0.7992	26.31	0.42	-0.750			
0.7765	49698.28	3.3850	3.3850	-0.7764	26.32	0.43	-0.750			
0.7788	49843.43	3.3820	3.3819	-0.7503	26.32	0.43	-0.750			
0.7810	49985.60	3.3790	3.3789	-0.7289	26.33	0.44	-0.750			
0.7832	50124.27	3.3760	3.3760	-0.6999	26.34	0.45	-0.750			
0.7853	50259.53	3.3730	3.3731	-0.6787	26.34	0.45	-0.750			
0.7873	50386.03	3.3700	3.3703	-0.6533	26.35	0.46	-0.750			
0.7892	50508.16	3.3670	3.3668	-0.6232	26.36	0.47	-0.750			
0.7910	50622.43	3.3640	3.3640	-0.5999	26.36	0.47	-0.750			
0.7927	50734.46	3.3610	3.3610	-0.5800	26.37	0.48	-0.750			
0.7945	50845.36	3.3580	3.3581	-0.5683	26.37	0.48	-0.750			
0.7961	50952.97	3.3550	3.3549	-0.5495	26.38	0.49	-0.750			
0.7978	51056.53	3.3520	3.3521	-0.5283	26.38	0.49	-0.750			
0.7993	51156.25	3.3490	3.3489	-0.5088	26.39	0.50	-0.750			
0.8008	51252.50	3.3460	3.3460	-0.4932	26.40	0.51	-0.750			
0.8023	51344.33	3.3430	3.3428	-0.4728	26.40	0.51	-0.750			
0.8036	51432.14	3.3400	3.3401	-0.4576	26.41	0.52	-0.750			
0.8050	51517.95	3.3370	3.3370	-0.4426	26.42	0.53	-0.750			
0.8063	51601.87	3.3340	3.3340	-0.4333	26.42	0.53	-0.750			
0.8076	51683.93	3.3310	3.3310	-0.4239	26.43	0.54	-0.750			
0.8088	51764.26	3.3280	3.3279	-0.4094	26.43	0.54	-0.750			
0.8100	51841.78	3.3250	3.3250	-0.3962	26.44	0.55	-0.750			
0.8112	51916.75	3.3220	3.3221	-0.3857	26.45	0.56	-0.750			
0.8123	51989.07	3.3190	3.3191	-0.3744	26.45	0.56	-0.750			
0.8134	52060.13	3.3160	3.3159	-0.3625	26.46	0.57	-0.750			
0.8145	52127.81	3.3130	3.3130	-0.3524	26.46	0.57	-0.750			
0.8155	52194.68	3.3100	3.3100	-0.3423	26.47	0.58	-0.750			
0.8166	52260.19	3.3070	3.3070	-0.3357	26.47	0.58	-0.750			
0.8175	52323.19	3.3040	3.3041	-0.3251	26.48	0.59	-0.750			
0.8185	52383.94	3.3010	3.3010	-0.3153	26.49	0.60	-0.750			
0.8194	52443.57	3.2980	3.2979	-0.3096	26.49	0.60	-0.750			
0.8203	52502.15	3.2950	3.2951	-0.3038	26.50	0.61	-0.750			
0.8212	52559.40	3.2920	3.2920	-0.2977	26.50	0.61	-0.750			
0.8221	52616.95	3.2890	3.2889	-0.2931	26.51	0.62	-0.750			
0.8230	52672.75	3.2860	3.2860	-0.2851	26.51	0.62	-0.750			
0.8239	52727.29	3.2830	3.2830	-0.2783	26.52	0.63	-0.750			
0.8247	52779.35	3.2800	3.2803	-0.2725	26.52	0.63	-0.750			
0.8255	52829.94	3.2770	3.2770	-0.2656	26.53	0.64	-0.750			
0.8263	52880.45	3.2740	3.2739	-0.2615	26.53	0.64	-0.750			
0.8270	52929.80	3.2710	3.2710	-0.2575	26.54	0.65	-0.750			
0.8278	52978.84	3.2680	3.2682	-0.2543	26.54	0.65	-0.750			
0.8286	53027.99	3.2650	3.2650	-0.2501	26.55	0.66	-0.750			
0.8293	53076.51	3.2620	3.2619	-0.2463	26.55	0.66	-0.750			
0.8300	53123.12	3.2590	3.2591	-0.2400	26.55	0.66	-0.750			
0.8308	53168.29	3.2560	3.2560	-0.2366	26.56	0.67	-0.750			
0.8315	53213.16	3.2530	3.2530	-0.2317	26.56	0.67	-0.750			
0.8321	53256.76	3.2500	3.2500	-0.2287	26.57	0.68	-0.750			
0.8328	53300.64	3.2470	3.2470	-0.2251	26.57	0.68	-0.750			
0.8335	53343.57	3.2440	3.2441	-0.2224	26.58	0.69	-0.750			
0.8342	53386.23	3.2410	3.2410	-0.2200	26.58	0.69	-0.750			
0.8348	53428.39	3.2380	3.2380	-0.2162	26.59	0.70	-0.750			
0.8355	53469.06	3.2350	3.2351	-0.2153	26.59	0.70	-0.750			
0.8361	53509.75	3.2320	3.2318	-0.2126	26.59	0.70	-0.750			
0.8367	53550.57	3.2290	3.2290	-0.2112	26.60	0.71	-0.750			
0.8374	53590.61	3.2260	3.2260	-0.2094	26.60	0.71	-0.750			
0.8380	53631.17	3.2230	3.2233	-0.2071	26.61	0.72	-0.750			
0.8386	53670.92	3.2200	3.2200	-0.2037	26.61	0.72	-0.750			
0.8392	53710.23	3.2170	3.2170	-0.2011	26.62	0.73	-0.750			
0.8398	53748.69	3.2140	3.2140	-0.1971	26.63	0.74	-0.750			
0.8404	53785.34	3.2110	3.2109	-0.1921	26.63	0.74	-0.750			
0.8410	53822.45	3.2080	3.2080	-0.1891	26.64	0.75	-0.750			
0.8415	53857.73	3.2050	3.2050	-0.1855	26.64	0.75	-0.750			
0.8421	53893.09	3.2020	3.2021	-0.1829	26.65	0.76	-0.750			
0.8426	53927.59	3.1990	3.1990	-0.1816	26.65	0.76	-0.750			
0.8432	53962.28	3.1960	3.1959	-0.1793	26.66	0.77	-0.750			
0.8437	53996.36	3.1930	3.1930	-0.1775	26.66	0.77	-0.750			
0.8442	54030.36	3.1900	3.1900	-0.1766	26.67	0.78	-0.750			
0.8448	54064.33	3.1870	3.1871	-0.1758	26.67	0.78	-0.750			
0.8453	54098.15	3.1840	3.1839	-0.1749	26.68	0.79	-0.750			
0.8458	54131.45	3.1810	3.1809	-0.1726	26.68	0.79	-0.750			
0.8463	54164.46	3.1780	3.1781	-0.1713	26.69	0.80	-0.750			
0.8468	54197.03	3.1750	3.1751	-0.1702	26.69	0.80	-0.750			
0.8473	54230.38	3.1720	3.1721	-0.1685	26.70	0.81	-0.750			
0.8479	54262.56	3.1690	3.1690	-0.1659	26.70	0.81	-0.750			
0.8483	54294.13	3.1660	3.1658	-0.1627	26.71	0.82	-0.750			
0.8488	54324.98	3.1630	3.1632	-0.1606	26.71	0.82	-0.750			
0.8493	54355.09	3.1600	3.1600	-0.1590	26.72	0.83	-0.750			
0.8498	54385.15	3.1570	3.1569	-0.1571	26.72	0.83	-0.750			
