Ah_balance (normalized)	Ah_balance (mAh)	Voltage - fit (V)	Voltage -  interpolate (V)	dQ/dV (1/V)	Temperature (°C)	Temperature - diff (°C)	Current (C)	R_DC 0ms (mOhm)	R_DC 50ms (mOhm)	R_DC 50 ms PEC (mOhm)
0.0004	26.20	4.1640	4.1639	-0.1474	25.84	0.02	-0.750			
0.0009	59.55	4.1610	4.1610	-0.1977	25.84	0.02	-0.750			
0.0016	102.50	4.1580	4.1580	-0.2459	25.84	0.02	-0.750			
0.0024	154.66	4.1550	4.1550	-0.2911	25.83	0.01	-0.750			
0.0034	214.48	4.1520	4.1521	-0.3394	25.83	0.01	-0.750			
0.0044	284.71	4.1490	4.1490	-0.3836	25.83	0.01	-0.750			
0.0057	363.60	4.1460	4.1459	-0.4262	25.83	0.01	-0.750			
0.0070	449.69	4.1430	4.1430	-0.4667	25.82	0.00	-0.750			
0.0085	543.68	4.1400	4.1402	-0.5046	25.82	-0.00	-0.750			
0.0101	645.43	4.1370	4.1370	-0.5416	25.82	-0.00	-0.750			
0.0118	753.11	4.1340	4.1339	-0.5747	25.81	-0.01	-0.750			
0.0135	866.22	4.1310	4.1311	-0.6017	25.81	-0.01	-0.750			
0.0154	986.68	4.1280	4.1280	-0.6298	25.80	-0.02	-0.750			
0.0174	1111.95	4.1250	4.1250	-0.6522	25.80	-0.02	-0.750			
0.0194	1239.11	4.1220	4.1220	-0.6691	25.79	-0.03	-0.750			
0.0214	1369.97	4.1190	4.1190	-0.6852	25.79	-0.03	-0.750			
0.0235	1502.72	4.1160	4.1160	-0.6987	25.79	-0.03	-0.750			
0.0256	1638.48	4.1130	4.1129	-0.7125	25.79	-0.03	-0.750			
0.0278	1777.49	4.1100	4.1100	-0.7236	25.78	-0.04	-0.750			
0.0300	1918.66	4.1070	4.1070	-0.7296	25.78	-0.04	-0.750			
0.0322	2060.57	4.1040	4.1040	-0.7391	25.78	-0.04	-0.750			
0.0344	2202.80	4.1010	4.1009	-0.7404	25.78	-0.04	-0.750			
0.0366	2345.02	4.0980	4.0980	-0.7422	25.78	-0.04	-0.750			
0.0388	2486.39	4.0950	4.0950	-0.7497	25.78	-0.04	-0.750			
0.0411	2631.00	4.0920	4.0920	-0.7515	25.77	-0.05	-0.750			
0.0434	2777.90	4.0890	4.0889	-0.7593	25.77	-0.05	-0.750			
0.0457	2923.56	4.0860	4.0863	-0.7645	25.77	-0.05	-0.750			
0.0480	3069.76	4.0830	4.0830	-0.7685	25.77	-0.05	-0.750			
0.0503	3218.53	4.0800	4.0800	-0.7762	25.77	-0.05	-0.750			
0.0526	3368.52	4.0770	4.0769	-0.7782	25.77	-0.05	-0.750			
0.0550	3518.56	4.0740	4.0740	-0.7841	25.77	-0.05	-0.750			
0.0574	3670.69	4.0710	4.0710	-0.7847	25.77	-0.05	-0.750			
0.0597	3821.02	4.0680	4.0680	-0.7867	25.77	-0.05	-0.750			
0.0620	3970.90	4.0650	4.0650	-0.7894	25.77	-0.05	-0.750			
0.0644	4122.46	4.0620	4.0620	-0.7875	25.77	-0.05	-0.750			
0.0668	4274.24	4.0590	4.0589	-0.7889	25.77	-0.05	-0.750			
0.0692	4426.19	4.0560	4.0560	-0.7959	25.77	-0.05	-0.750			
0.0715	4577.88	4.0530	4.0531	-0.8002	25.77	-0.05	-0.750			
0.0739	4731.41	4.0500	4.0499	-0.8102	25.77	-0.05	-0.750			
0.0764	4889.51	4.0470	4.0469	-0.8081	25.77	-0.05	-0.750			
0.0789	5046.49	4.0440	4.0440	-0.8070	25.77	-0.05	-0.750			
0.0813	5202.35	4.0410	4.0410	-0.8093	25.77	-0.05	-0.750			
0.0837	5357.47	4.0380	4.0381	-0.8087	25.77	-0.05	-0.750			
0.0861	5510.98	4.0350	4.0349	-0.8053	25.77	-0.05	-0.750			
0.0885	5663.30	4.0320	4.0319	-0.8088	25.78	-0.04	-0.750			
0.0909	5820.34	4.0290	4.0290	-0.8096	25.78	-0.04	-0.750			
0.0934	5979.46	4.0260	4.0260	-0.8148	25.79	-0.03	-0.750			
0.0959	6136.89	4.0230	4.0232	-0.8163	25.79	-0.03	-0.750			
0.0983	6291.50	4.0200	4.0200	-0.8134	25.79	-0.03	-0.750			
0.1007	6446.72	4.0170	4.0169	-0.8174	25.80	-0.02	-0.750			
0.1032	6603.19	4.0140	4.0140	-0.8145	25.80	-0.02	-0.750			
0.1056	6761.06	4.0110	4.0110	-0.8225	25.81	-0.01	-0.750			
0.1081	6919.66	4.0080	4.0081	-0.8195	25.81	-0.01	-0.750			
0.1106	7077.92	4.0050	4.0049	-0.8187	25.81	-0.01	-0.750			
0.1130	7233.39	4.0020	4.0020	-0.8254	25.81	-0.01	-0.750			
0.1155	7391.43	3.9990	3.9990	-0.8242	25.81	-0.01	-0.750			
0.1180	7551.41	3.9960	3.9958	-0.8293	25.81	-0.01	-0.750			
0.1205	7711.43	3.9930	3.9933	-0.8306	25.81	-0.01	-0.750			
0.1230	7870.72	3.9900	3.9900	-0.8297	25.81	-0.01	-0.750			
0.1255	8030.54	3.9870	3.9870	-0.8384	25.81	-0.01	-0.750			
0.1280	8190.50	3.9840	3.9839	-0.8341	25.82	-0.00	-0.750			
0.1305	8352.03	3.9810	3.9809	-0.8375	25.82	-0.00	-0.750			
0.1330	8513.13	3.9780	3.9783	-0.8386	25.82	-0.00	-0.750			
0.1355	8674.32	3.9750	3.9749	-0.8421	25.83	0.01	-0.750			
0.1381	8835.97	3.9720	3.9720	-0.8449	25.83	0.01	-0.750			
0.1406	8997.30	3.9690	3.9690	-0.8419	25.84	0.02	-0.750			
0.1431	9160.28	3.9660	3.9659	-0.8485	25.84	0.02	-0.750			
0.1457	9324.03	3.9630	3.9632	-0.8498	25.85	0.03	-0.750			
0.1482	9486.77	3.9600	3.9599	-0.8518	25.85	0.03	-0.750			
0.1508	9650.96	3.9570	3.9569	-0.8571	25.86	0.04	-0.750			
0.1534	9815.06	3.9540	3.9540	-0.8576	25.86	0.04	-0.750			
0.1560	9982.25	3.9510	3.9508	-0.8651	25.87	0.05	-0.750			
0.1586	10148.46	3.9480	3.9482	-0.8639	25.87	0.05	-0.750			
0.1612	10314.28	3.9450	3.9449	-0.8616	25.87	0.05	-0.750			
0.1637	10478.82	3.9420	3.9420	-0.8654	25.88	0.06	-0.750			
0.1663	10642.57	3.9390	3.9390	-0.8600	25.88	0.06	-0.750			
0.1689	10811.26	3.9360	3.9360	-0.8699	25.89	0.07	-0.750			
0.1715	10978.48	3.9330	3.9330	-0.8726	25.89	0.07	-0.750			
0.1741	11145.46	3.9300	3.9301	-0.8747	25.90	0.08	-0.750			
0.1768	11314.24	3.9270	3.9269	-0.8765	25.90	0.08	-0.750			
0.1794	11481.94	3.9240	3.9240	-0.8740	25.90	0.08	-0.750			
0.1820	11650.72	3.9210	3.9211	-0.8786	25.91	0.09	-0.750			
0.1847	11819.66	3.9180	3.9180	-0.8814	25.91	0.09	-0.750			
0.1873	11988.40	3.9150	3.9150	-0.8884	25.92	0.10	-0.750			
0.1900	12159.40	3.9120	3.9119	-0.8877	25.92	0.10	-0.750			
0.1927	12330.62	3.9090	3.9090	-0.8912	25.93	0.11	-0.750			
0.1954	12502.43	3.9060	3.9059	-0.8950	25.93	0.11	-0.750			
0.1981	12675.38	3.9030	3.9030	-0.9000	25.93	0.11	-0.750			
0.2008	12848.52	3.9000	3.8999	-0.8974	25.94	0.12	-0.750			
0.2034	13019.20	3.8970	3.8970	-0.8969	25.94	0.12	-0.750			
0.2061	13191.71	3.8940	3.8940	-0.9010	25.95	0.13	-0.750			
0.2088	13365.61	3.8910	3.8911	-0.9010	25.95	0.13	-0.750			
0.2115	13538.17	3.8880	3.8879	-0.9038	25.96	0.14	-0.750			
0.2142	13711.54	3.8850	3.8850	-0.9057	25.96	0.14	-0.750			
0.2169	13884.73	3.8820	3.8820	-0.9097	25.96	0.14	-0.750			
0.2197	14061.15	3.8790	3.8790	-0.9157	25.97	0.15	-0.750			
0.2224	14234.96	3.8760	3.8760	-0.9221	25.97	0.15	-0.750			
0.2252	14414.03	3.8730	3.8730	-0.9282	25.98	0.16	-0.750			
0.2281	14595.50	3.8700	3.8700	-0.9282	25.98	0.16	-0.750			
0.2308	14773.17	3.8670	3.8669	-0.9237	25.99	0.17	-0.750			
0.2336	14951.92	3.8640	3.8642	-0.9198	25.99	0.17	-0.750			
0.2364	15127.21	3.8610	3.8610	-0.9157	26.00	0.18	-0.750			
0.2391	15300.07	3.8580	3.8580	-0.9144	26.00	0.18	-0.750			
0.2418	15475.45	3.8550	3.8548	-0.9087	26.00	0.18	-0.750			
0.2445	15650.24	3.8520	3.8521	-0.9142	26.01	0.19	-0.750			
0.2473	15825.84	3.8490	3.8489	-0.9160	26.01	0.19	-0.750			
0.2500	16002.87	3.8460	3.8460	-0.9184	26.02	0.20	-0.750			
0.2528	16179.48	3.8430	3.8429	-0.9222	26.02	0.20	-0.750			
0.2556	16355.43	3.8400	3.8400	-0.9189	26.03	0.21	-0.750			
0.2583	16531.75	3.8370	3.8371	-0.9234	26.03	0.21	-0.750			
0.2611	16711.91	3.8340	3.8340	-0.9352	26.03	0.21	-0.750			
0.2639	16892.09	3.8310	3.8309	-0.9355	26.04	0.22	-0.750			
0.2668	17074.06	3.8280	3.8279	-0.9272	26.04	0.22	-0.750			
0.2696	17253.79	3.8250	3.8251	-0.9257	26.05	0.23	-0.750			
0.2723	17426.32	3.8220	3.8220	-0.9308	26.05	0.23	-0.750			
0.2751	17604.56	3.8190	3.8190	-0.9297	26.06	0.24	-0.750			
0.2778	17781.39	3.8160	3.8157	-0.9279	26.06	0.24	-0.750			
0.2806	17958.48	3.8130	3.8130	-0.9299	26.07	0.25	-0.750			
0.2835	18140.95	3.8100	3.8103	-0.9399	26.07	0.25	-0.750			
0.2863	18322.64	3.8070	3.8070	-0.9524	26.08	0.26	-0.750			
0.2892	18506.37	3.8040	3.8039	-0.9507	26.08	0.26	-0.750			
0.2920	18688.38	3.8010	3.8008	-0.9452	26.08	0.26	-0.750			
0.2949	18871.93	3.7980	3.7982	-0.9552	26.09	0.27	-0.750			
0.2977	19054.22	3.7950	3.7950	-0.9607	26.09	0.27	-0.750			
0.3006	19239.59	3.7920	3.7919	-0.9579	26.10	0.28	-0.750			
0.3035	19422.15	3.7890	3.7889	-0.9585	26.10	0.28	-0.750			
0.3063	19603.55	3.7860	3.7859	-0.9567	26.11	0.29	-0.750			
0.3092	19791.96	3.7830	3.7829	-0.9666	26.11	0.29	-0.750			
0.3122	19978.17	3.7800	3.7800	-0.9669	26.12	0.30	-0.750			
0.3150	20162.40	3.7770	3.7770	-0.9653	26.12	0.30	-0.750			
0.3179	20346.30	3.7740	3.7740	-0.9645	26.13	0.31	-0.750			
0.3209	20535.65	3.7710	3.7710	-0.9719	26.13	0.31	-0.750			
0.3238	20721.00	3.7680	3.7680	-0.9762	26.14	0.32	-0.750			
0.3267	20909.51	3.7650	3.7649	-0.9796	26.14	0.32	-0.750			
0.3297	21097.95	3.7620	3.7620	-0.9824	26.14	0.32	-0.750			
0.3326	21287.98	3.7590	3.7591	-0.9855	26.15	0.33	-0.750			
0.3356	21475.62	3.7560	3.7559	-0.9886	26.15	0.33	-0.750			
0.3385	21665.94	3.7530	3.7530	-0.9892	26.16	0.34	-0.750			
0.3415	21855.83	3.7500	3.7500	-0.9927	26.16	0.34	-0.750			
0.3445	22045.23	3.7470	3.7469	-0.9907	26.17	0.35	-0.750			
0.3475	22238.27	3.7440	3.7441	-1.0018	26.17	0.35	-0.750			
0.3505	22431.59	3.7410	3.7410	-1.0016	26.17	0.35	-0.750			
0.3535	22624.32	3.7380	3.7380	-1.0048	26.18	0.36	-0.750			
0.3565	22815.00	3.7350	3.7349	-1.0096	26.18	0.36	-0.750			
0.3595	23010.32	3.7320	3.7320	-1.0241	26.18	0.36	-0.750			
0.3626	23207.67	3.7290	3.7289	-1.0282	26.19	0.37	-0.750			
0.3657	23405.89	3.7260	3.7260	-1.0385	26.20	0.38	-0.750			
0.3688	23604.87	3.7230	3.7231	-1.0425	26.21	0.39	-0.750			
0.3720	23808.78	3.7200	3.7200	-1.0626	26.21	0.39	-0.750			
0.3752	24012.55	3.7170	3.7170	-1.0725	26.21	0.39	-0.750			
0.3784	24220.06	3.7140	3.7139	-1.0801	26.21	0.39	-0.750			
0.3817	24428.75	3.7110	3.7110	-1.0916	26.21	0.39	-0.750			
0.3850	24640.92	3.7080	3.7079	-1.1051	26.21	0.39	-0.750			
0.3883	24852.73	3.7050	3.7050	-1.1147	26.21	0.39	-0.750			
0.3917	25067.08	3.7020	3.7019	-1.1303	26.21	0.39	-0.750			
0.3950	25282.77	3.6990	3.6991	-1.1414	26.21	0.39	-0.750			
0.3985	25506.81	3.6960	3.6959	-1.1713	26.21	0.39	-0.750			
0.4021	25735.90	3.6930	3.6930	-1.1919	26.22	0.40	-0.750			
0.4057	25965.42	3.6900	3.6899	-1.2143	26.22	0.40	-0.750			
0.4094	26200.52	3.6870	3.6871	-1.2324	26.22	0.40	-0.750			
0.4131	26438.67	3.6840	3.6839	-1.2520	26.22	0.40	-0.750			
0.4169	26680.10	3.6810	3.6809	-1.2735	26.21	0.39	-0.750			
0.4207	26922.35	3.6780	3.6784	-1.2926	26.21	0.39	-0.750			
0.4247	27178.68	3.6750	3.6749	-1.3273	26.21	0.39	-0.750			
0.4287	27436.99	3.6720	3.6720	-1.3609	26.21	0.39	-0.750			
0.4328	27701.47	3.6690	3.6690	-1.3944	26.21	0.39	-0.750			
0.4371	27974.15	3.6660	3.6659	-1.4262	26.20	0.38	-0.750			
0.4414	28251.58	3.6630	3.6631	-1.4487	26.20	0.38	-0.750			
0.4458	28534.33	3.6600	3.6603	-1.4892	26.19	0.37	-0.750			
0.4503	28821.33	3.6570	3.6570	-1.5240	26.19	0.37	-0.750			
0.4550	29118.28	3.6540	3.6538	-1.5512	26.19	0.37	-0.750			
0.4596	29415.74	3.6510	3.6511	-1.5878	26.19	0.37	-0.750			
0.4644	29723.31	3.6480	3.6480	-1.6365	26.18	0.36	-0.750			
0.4694	30038.44	3.6450	3.6449	-1.6731	26.17	0.35	-0.750			
0.4744	30361.63	3.6420	3.6419	-1.6959	26.16	0.34	-0.750			
0.4797	30700.65	3.6390	3.6389	-1.7487	26.16	0.34	-0.750			
0.4850	31038.69	3.6360	3.6360	-1.7805	26.15	0.33	-0.750	0.432	0.514	
0.4904	31383.53	3.6330	3.6331	-1.8232	26.15	0.33	-0.750			
0.4959	31735.39	3.6300	3.6302	-1.8586	26.15	0.33	-0.750			
0.5014	32091.88	3.6270	3.6269	-1.9023	26.14	0.32	-0.750			
0.5073	32467.17	3.6240	3.6239	-1.9552	26.13	0.31	-0.750			
0.5133	32853.93	3.6210	3.6211	-1.9907	26.12	0.30	-0.750			
0.5194	33244.33	3.6180	3.6179	-2.0215	26.11	0.29	-0.750			
0.5255	33629.87	3.6150	3.6150	-2.0382	26.11	0.29	-0.750			
0.5316	34022.74	3.6120	3.6122	-2.0590	26.10	0.28	-0.750			
0.5378	34417.09	3.6090	3.6088	-2.1021	26.09	0.27	-0.750			
0.5440	34818.38	3.6060	3.6061	-2.1301	26.07	0.25	-0.750			
0.5506	35239.37	3.6030	3.6032	-2.1736	26.07	0.25	-0.750			
0.5572	35662.26	3.6000	3.5999	-2.2132	26.07	0.25	-0.750			
0.5640	36093.11	3.5970	3.5969	-2.2565	26.06	0.24	-0.750			
0.5708	36528.04	3.5940	3.5943	-2.2819	26.05	0.23	-0.750			
0.5777	36970.18	3.5910	3.5910	-2.3039	26.04	0.22	-0.750			
0.5846	37416.94	3.5880	3.5880	-2.3296	26.03	0.21	-0.750			
0.5916	37865.58	3.5850	3.5851	-2.3580	26.02	0.20	-0.750			
0.5989	38328.79	3.5820	3.5820	-2.3993	26.01	0.19	-0.750			
0.6060	38785.55	3.5790	3.5791	-2.4155	26.02	0.20	-0.750			
0.6133	39253.68	3.5760	3.5758	-2.4315	26.02	0.20	-0.750			
0.6207	39724.52	3.5730	3.5730	-2.4700	26.01	0.19	-0.750			
0.6282	40204.28	3.5700	3.5700	-2.4695	26.01	0.19	-0.750			
0.6357	40682.81	3.5670	3.5671	-2.4866	26.01	0.19	-0.750			
0.6431	41156.28	3.5640	3.5641	-2.4754	26.00	0.18	-0.750			
0.6506	41636.93	3.5610	3.5609	-2.4698	26.00	0.18	-0.750			
0.6580	42111.33	3.5580	3.5579	-2.4613	25.99	0.17	-0.750			
0.6654	42584.27	3.5550	3.5551	-2.4582	25.99	0.17	-0.750			
0.6727	43053.65	3.5520	3.5520	-2.4461	25.99	0.17	-0.750			
0.6800	43519.79	3.5490	3.5488	-2.4150	26.00	0.18	-0.750			
0.6873	43985.05	3.5460	3.5461	-2.3980	26.00	0.18	-0.750			
0.6945	44447.03	3.5430	3.5429	-2.3670	26.00	0.18	-0.750			
0.7016	44903.48	3.5400	3.5402	-2.3262	26.00	0.18	-0.750			
0.7084	45339.41	3.5370	3.5370	-2.2674	26.01	0.19	-0.750			
0.7152	45770.28	3.5340	3.5339	-2.2307	26.01	0.19	-0.750			
0.7218	46195.16	3.5310	3.5310	-2.1601	26.01	0.19	-0.750			
0.7283	46611.25	3.5280	3.5281	-2.1269	26.02	0.20	-0.750			
0.7345	47010.81	3.5250	3.5250	-2.0630	26.03	0.21	-0.750			
0.7407	47402.84	3.5220	3.5219	-1.9856	26.04	0.22	-0.750			
0.7466	47784.55	3.5190	3.5190	-1.9290	26.05	0.23	-0.750			
0.7522	48142.42	3.5160	3.5161	-1.8596	26.06	0.24	-0.750			
0.7577	48494.20	3.5130	3.5128	-1.7964	26.07	0.25	-0.750			
0.7631	48837.10	3.5100	3.5101	-1.7362	26.09	0.27	-0.750			
0.7681	49157.82	3.5070	3.5069	-1.6658	26.10	0.28	-0.750			
0.7730	49472.59	3.5040	3.5039	-1.6082	26.12	0.30	-0.750			
0.7778	49777.67	3.5010	3.5010	-1.5523	26.13	0.31	-0.750			
0.7823	50066.62	3.4980	3.4979	-1.4935	26.15	0.33	-0.750			
0.7867	50349.11	3.4950	3.4950	-1.4376	26.16	0.34	-0.750			
0.7910	50621.36	3.4920	3.4919	-1.3906	26.17	0.35	-0.750			
0.7950	50881.83	3.4890	3.4891	-1.3441	26.18	0.36	-0.750			
0.7990	51133.34	3.4860	3.4859	-1.2971	26.19	0.37	-0.750			
0.8028	51380.68	3.4830	3.4830	-1.2517	26.21	0.39	-0.750			
0.8065	51615.37	3.4800	3.4800	-1.2091	26.22	0.40	-0.750			
0.8100	51841.75	3.4770	3.4771	-1.1707	26.24	0.42	-0.750			
0.8135	52066.13	3.4740	3.4739	-1.1312	26.25	0.43	-0.750			
0.8168	52277.57	3.4710	3.4709	-1.0930	26.26	0.44	-0.750			
0.8200	52483.16	3.4680	3.4683	-1.0550	26.27	0.45	-0.750			
0.8232	52681.67	3.4650	3.4649	-1.0342	26.28	0.46	-0.750			
0.8262	52878.18	3.4620	3.4620	-1.0087	26.28	0.46	-0.750			
0.8291	53064.19	3.4590	3.4590	-0.9965	26.29	0.47	-0.750			
0.8320	53249.44	3.4560	3.4560	-0.9947	26.30	0.48	-0.750			
0.8350	53439.57	3.4530	3.4529	-1.0169	26.31	0.49	-0.750			
0.8380	53633.35	3.4500	3.4499	-1.0406	26.32	0.50	-0.750			
0.8411	53831.91	3.4470	3.4470	-1.0775	26.33	0.51	-0.750			
0.8444	54041.50	3.4440	3.4440	-1.1170	26.34	0.52	-0.750			
0.8479	54266.05	3.4410	3.4409	-1.1758	26.35	0.53	-0.750			
0.8515	54496.55	3.4380	3.4379	-1.2119	26.35	0.53	-0.750			
0.8553	54737.80	3.4350	3.4349	-1.2350	26.36	0.54	-0.750			
0.8591	54980.36	3.4320	3.4321	-1.2418	26.37	0.55	-0.750			
0.8629	55227.08	3.4290	3.4290	-1.2359	26.38	0.56	-0.750			
0.8666	55464.75	3.4260	3.4260	-1.2058	26.38	0.56	-0.750			
0.8702	55693.79	3.4230	3.4230	-1.1553	26.39	0.57	-0.750			
0.8737	55915.12	3.4200	3.4199	-1.1212	26.40	0.58	-0.750			
0.8769	56124.74	3.4170	3.4171	-1.0680	26.41	0.59	-0.750			
0.8801	56324.48	3.4140	3.4139	-1.0238	26.41	0.59	-0.750			
0.8831	56515.53	3.4110	3.4113	-0.9840	26.42	0.60	-0.750			
0.8859	56699.69	3.4080	3.4078	-0.9476	26.43	0.61	-0.750			
0.8887	56876.91	3.4050	3.4050	-0.9075	26.44	0.62	-0.750			
0.8914	57047.87	3.4020	3.4020	-0.8774	26.45	0.63	-0.750			
0.8940	57213.07	3.3990	3.3990	-0.8558	26.46	0.64	-0.750			
0.8965	57374.98	3.3960	3.3960	-0.8253	26.46	0.64	-0.750			
0.8989	57529.31	3.3930	3.3928	-0.7916	26.47	0.65	-0.750			
0.9012	57678.88	3.3900	3.3901	-0.7661	26.47	0.65	-0.750			
0.9035	57824.55	3.3870	3.3870	-0.7357	26.47	0.65	-0.750			
0.9057	57963.74	3.3840	3.3839	-0.7060	26.48	0.66	-0.750			
0.9077	58094.69	3.3810	3.3812	-0.6741	26.48	0.66	-0.750			
0.9097	58220.17	3.3780	3.3779	-0.6482	26.49	0.67	-0.750			
0.9116	58343.05	3.3750	3.3748	-0.6224	26.49	0.67	-0.750			
0.9134	58459.17	3.3720	3.3720	-0.5983	26.50	0.68	-0.750			
0.9152	58570.39	3.3690	3.3691	-0.5783	26.50	0.68	-0.750			
0.9169	58682.31	3.3660	3.3659	-0.5600	26.51	0.69	-0.750			
0.9186	58787.55	3.3630	3.3629	-0.5375	26.51	0.69	-0.750			
0.9201	58888.27	3.3600	3.3601	-0.5123	26.52	0.70	-0.750			
0.9216	58984.49	3.3570	3.3569	-0.4927	26.52	0.70	-0.750			
0.9231	59077.80	3.3540	3.3540	-0.4725	26.53	0.71	-0.750			
0.9245	59165.01	3.3510	3.3509	-0.4487	26.53	0.71	-0.750			
0.9257	59247.22	3.3480	3.3480	-0.4284	26.54	0.72	-0.750			
0.9270	59328.99	3.3450	3.3451	-0.4139	26.54	0.72	-0.750			
0.9282	59406.34	3.3420	3.3420	-0.3968	26.54	0.72	-0.750			
0.9294	59481.50	3.3390	3.3389	-0.3825	26.55	0.73	-0.750			
0.9305	59552.81	3.3360	3.3360	-0.3657	26.55	0.73	-0.750			
0.9316	59622.43	3.3330	3.3330	-0.3499	26.56	0.74	-0.750			
0.9326	59688.09	3.3300	3.3299	-0.3340	26.56	0.74	-0.750			
0.9336	59749.23	3.3270	3.3271	-0.3191	26.56	0.74	-0.750			
0.9345	59809.01	3.3240	3.3240	-0.3068	26.57	0.75	-0.750			
0.9354	59866.59	3.3210	3.3209	-0.2932	26.57	0.75	-0.750			
0.9363	59921.57	3.3180	3.3180	-0.2814	26.58	0.76	-0.750			
0.9371	59975.13	3.3150	3.3151	-0.2707	26.58	0.76	-0.750			
0.9379	60026.64	3.3120	3.3120	-0.2589	26.59	0.77	-0.750			
0.9387	60074.14	3.3090	3.3088	-0.2472	26.59	0.77	-0.750			
0.9394	60119.77	3.3060	3.3061	-0.2366	26.60	0.78	-0.750			
0.9401	60164.03	3.3030	3.3028	-0.2277	26.60	0.78	-0.750			
0.9407	60206.99	3.3000	3.3001	-0.2198	26.60	0.78	-0.750			
0.9414	60248.71	3.2970	3.2969	-0.2120	26.61	0.79	-0.750			
0.9420	60288.20	3.2940	3.2940	-0.2037	26.61	0.79	-0.750			
0.9426	60326.64	3.2910	3.2910	-0.1973	26.61	0.79	-0.750			
0.9432	60363.80	3.2880	3.2880	-0.1898	26.62	0.80	-0.750			
0.9437	60398.94	3.2850	3.2850	-0.1834	26.62	0.80	-0.750			
0.9443	60433.76	3.2820	3.2819	-0.1764	26.62	0.80	-0.750			
0.9448	60466.79	3.2790	3.2790	-0.1708	26.63	0.81	-0.750			
0.9453	60498.85	3.2760	3.2762	-0.1655	26.63	0.81	-0.750			
0.9458	60530.04	3.2730	3.2729	-0.1601	26.63	0.81	-0.750			
0.9463	60560.02	3.2700	3.2698	-0.1553	26.64	0.82	-0.750			
0.9467	60589.02	3.2670	3.2670	-0.1507	26.64	0.82	-0.750			
0.9471	60617.44	3.2640	3.2640	-0.1469	26.64	0.82	-0.750			
0.9476	60645.52	3.2610	3.2610	-0.1428	26.65	0.83	-0.750			
0.9480	60672.91	3.2580	3.2580	-0.1397	26.65	0.83	-0.750			
0.9484	60699.10	3.2550	3.2551	-0.1351	26.65	0.83	-0.750			
0.9488	60724.55	3.2520	3.2520	-0.1315	26.65	0.83	-0.750			
0.9492	60749.47	3.2490	3.2490	-0.1280	26.66	0.84	-0.750			
0.9496	60773.58	3.2460	3.2459	-0.1246	26.66	0.84	-0.750			
0.9500	60797.03	3.2430	3.2431	-0.1212	26.66	0.84	-0.750			
0.9503	60820.00	3.2400	3.2401	-0.1185	26.66	0.84	-0.750			
0.9507	60842.59	3.2370	3.2369	-0.1158	26.67	0.85	-0.750			
0.9510	60864.43	3.2340	3.2340	-0.1137	26.67	0.85	-0.750			
0.9513	60885.80	3.2310	3.2310	-0.1112	26.67	0.85	-0.750			
0.9517	60906.84	3.2280	3.2280	-0.1088	26.67	0.85	-0.750			
0.9520	60927.55	3.2250	3.2249	-0.1069	26.68	0.86	-0.750			
0.9523	60948.03	3.2220	3.2220	-0.1048	26.68	0.86	-0.750			
0.9526	60967.94	3.2190	3.2190	-0.1026	26.68	0.86	-0.750			
0.9529	60987.42	3.2160	3.2160	-0.1007	26.68	0.86	-0.750			
0.9532	61006.54	3.2130	3.2130	-0.0985	26.69	0.87	-0.750			
0.9535	61025.09	3.2100	3.2099	-0.0964	26.69	0.87	-0.750			
0.9538	61043.42	3.2070	3.2071	-0.0946	26.69	0.87	-0.750			
0.9541	61061.32	3.2040	3.2041	-0.0929	26.69	0.87	-0.750			
0.9544	61079.00	3.2010	3.2010	-0.0913	26.69	0.87	-0.750			
0.9546	61096.35	3.1980	3.1980	-0.0898	26.70	0.88	-0.750			
0.9549	61113.44	3.1950	3.1950	-0.0883	26.70	0.88	-0.750			
0.9552	61130.22	3.1920	3.1919	-0.0866	26.70	0.88	-0.750			
0.9554	61146.72	3.1890	3.1891	-0.0852	26.70	0.88	-0.750			
0.9557	61162.98	3.1860	3.1861	-0.0837	26.70	0.88	-0.750			
0.9559	61178.76	3.1830	3.1831	-0.0826	26.71	0.89	-0.750			
0.9562	61194.40	3.1800	3.1799	-0.0812	26.71	0.89	-0.750			
0.9564	61209.98	3.1770	3.1770	-0.0800	26.71	0.89	-0.750			
0.9566	61225.24	3.1740	3.1739	-0.0789	26.71	0.89	-0.750			
0.9569	61240.23	3.1710	3.1709	-0.0777	26.71	0.89	-0.750			
0.9571	61255.02	3.1680	3.1682	-0.0766	26.71	0.89	-0.750			
0.9573	61269.71	3.1650	3.1650	-0.0756	26.72	0.90	-0.750			
0.9576	61284.11	3.1620	3.1621	-0.0744	26.72	0.90	-0.750			
