Ah_balance (normalized)	Ah_balance (mAh)	Voltage - fit (V)	Voltage -  interpolate (V)	dQ/dV (1/V)	Temperature (°C)	Temperature - diff (°C)	Current (C)	R_DC 0ms (mOhm)	R_DC 50ms (mOhm)	R_DC 50 ms PEC (mOhm)
0.0002	12.71	4.1600	4.1598	-0.1084	25.83	0.01	-0.750			
0.0006	36.21	4.1570	4.1571	-0.1444	25.83	0.01	-0.750			
0.0011	69.21	4.1540	4.1541	-0.1877	25.83	0.01	-0.750			
0.0017	109.77	4.1510	4.1509	-0.2246	25.82	0.00	-0.750			
0.0024	156.70	4.1480	4.1480	-0.2602	25.82	0.00	-0.750			
0.0033	210.86	4.1450	4.1452	-0.2953	25.82	-0.00	-0.750			
0.0042	271.25	4.1420	4.1418	-0.3286	25.82	-0.00	-0.750			
0.0053	337.58	4.1390	4.1391	-0.3602	25.81	-0.01	-0.750			
0.0064	409.63	4.1360	4.1360	-0.3901	25.81	-0.01	-0.750			
0.0076	487.63	4.1330	4.1330	-0.4205	25.81	-0.01	-0.750			
0.0089	572.32	4.1300	4.1300	-0.4455	25.81	-0.01	-0.750			
0.0103	660.73	4.1270	4.1270	-0.4724	25.80	-0.02	-0.750			
0.0118	754.93	4.1240	4.1238	-0.4933	25.80	-0.02	-0.750			
0.0133	852.81	4.1210	4.1211	-0.5130	25.80	-0.02	-0.750			
0.0149	953.22	4.1180	4.1178	-0.5291	25.79	-0.03	-0.750			
0.0165	1056.90	4.1150	4.1149	-0.5442	25.79	-0.03	-0.750			
0.0182	1162.72	4.1120	4.1119	-0.5572	25.78	-0.04	-0.750			
0.0199	1270.73	4.1090	4.1090	-0.5693	25.78	-0.04	-0.750			
0.0215	1378.10	4.1060	4.1061	-0.5786	25.78	-0.04	-0.750			
0.0234	1494.59	4.1030	4.1030	-0.5922	25.77	-0.05	-0.750			
0.0251	1608.92	4.1000	4.1000	-0.5990	25.77	-0.05	-0.750			
0.0269	1724.18	4.0970	4.0969	-0.6109	25.76	-0.06	-0.750			
0.0288	1843.21	4.0940	4.0939	-0.6185	25.76	-0.06	-0.750			
0.0307	1962.54	4.0910	4.0910	-0.6259	25.76	-0.06	-0.750			
0.0326	2083.61	4.0880	4.0880	-0.6344	25.75	-0.07	-0.750			
0.0345	2205.56	4.0850	4.0851	-0.6418	25.75	-0.07	-0.750			
0.0364	2332.78	4.0820	4.0819	-0.6517	25.75	-0.07	-0.750			
0.0384	2457.76	4.0790	4.0790	-0.6538	25.74	-0.08	-0.750			
0.0404	2583.42	4.0760	4.0762	-0.6542	25.74	-0.08	-0.750			
0.0423	2710.18	4.0730	4.0729	-0.6599	25.74	-0.08	-0.750			
0.0443	2835.62	4.0700	4.0700	-0.6613	25.73	-0.09	-0.750			
0.0463	2960.51	4.0670	4.0670	-0.6683	25.73	-0.09	-0.750			
0.0483	3091.00	4.0640	4.0638	-0.6726	25.73	-0.09	-0.750			
0.0504	3222.91	4.0610	4.0610	-0.6810	25.72	-0.10	-0.750			
0.0524	3354.20	4.0580	4.0580	-0.6845	25.72	-0.10	-0.750			
0.0545	3486.69	4.0550	4.0550	-0.6897	25.72	-0.10	-0.750			
0.0565	3619.13	4.0520	4.0519	-0.6902	25.72	-0.10	-0.750			
0.0586	3750.39	4.0490	4.0490	-0.6874	25.72	-0.10	-0.750			
0.0606	3881.26	4.0460	4.0460	-0.6876	25.72	-0.10	-0.750			
0.0628	4017.27	4.0430	4.0431	-0.6984	25.72	-0.10	-0.750			
0.0648	4150.23	4.0400	4.0400	-0.6962	25.72	-0.10	-0.750			
0.0669	4284.55	4.0370	4.0369	-0.6955	25.72	-0.10	-0.750			
0.0690	4417.07	4.0340	4.0340	-0.6989	25.72	-0.10	-0.750			
0.0711	4550.56	4.0310	4.0311	-0.7046	25.72	-0.10	-0.750			
0.0732	4686.25	4.0280	4.0279	-0.7111	25.72	-0.10	-0.750			
0.0754	4824.54	4.0250	4.0248	-0.7130	25.72	-0.10	-0.750			
0.0775	4961.74	4.0220	4.0221	-0.7128	25.72	-0.10	-0.750			
0.0797	5099.45	4.0190	4.0190	-0.7151	25.72	-0.10	-0.750			
0.0818	5237.48	4.0160	4.0160	-0.7198	25.72	-0.10	-0.750			
0.0840	5375.45	4.0130	4.0129	-0.7230	25.72	-0.10	-0.750			
0.0861	5513.54	4.0100	4.0099	-0.7207	25.72	-0.10	-0.750			
0.0883	5653.63	4.0070	4.0069	-0.7241	25.72	-0.10	-0.750			
0.0905	5793.45	4.0040	4.0045	-0.7260	25.72	-0.10	-0.750			
0.0927	5933.82	4.0010	4.0009	-0.7246	25.72	-0.10	-0.750			
0.0948	6069.84	3.9980	3.9980	-0.7278	25.72	-0.10	-0.750			
0.0970	6206.16	3.9950	3.9950	-0.7276	25.72	-0.10	-0.750			
0.0992	6350.77	3.9920	3.9920	-0.7384	25.72	-0.10	-0.750			
0.1014	6492.63	3.9890	3.9889	-0.7348	25.72	-0.10	-0.750			
0.1037	6634.09	3.9860	3.9862	-0.7373	25.72	-0.10	-0.750			
0.1059	6776.23	3.9830	3.9830	-0.7343	25.72	-0.10	-0.750			
0.1081	6915.46	3.9800	3.9799	-0.7365	25.72	-0.10	-0.750			
0.1102	7055.06	3.9770	3.9770	-0.7369	25.72	-0.10	-0.750			
0.1125	7197.37	3.9740	3.9740	-0.7414	25.72	-0.10	-0.750			
0.1147	7340.39	3.9710	3.9709	-0.7475	25.72	-0.10	-0.750			
0.1170	7485.39	3.9680	3.9680	-0.7522	25.72	-0.10	-0.750			
0.1192	7629.07	3.9650	3.9650	-0.7542	25.72	-0.10	-0.750			
0.1215	7774.52	3.9620	3.9620	-0.7592	25.72	-0.10	-0.750			
0.1237	7918.75	3.9590	3.9590	-0.7566	25.72	-0.10	-0.750			
0.1260	8066.63	3.9560	3.9558	-0.7598	25.72	-0.10	-0.750			
0.1283	8213.65	3.9530	3.9533	-0.7610	25.72	-0.10	-0.750			
0.1306	8359.10	3.9500	3.9500	-0.7594	25.72	-0.10	-0.750			
0.1329	8505.00	3.9470	3.9471	-0.7638	25.73	-0.09	-0.750			
0.1352	8651.57	3.9440	3.9440	-0.7639	25.73	-0.09	-0.750			
0.1374	8796.53	3.9410	3.9409	-0.7664	25.73	-0.09	-0.750			
0.1398	8944.89	3.9380	3.9380	-0.7665	25.74	-0.08	-0.750			
0.1421	9092.54	3.9350	3.9349	-0.7699	25.74	-0.08	-0.750			
0.1444	9239.19	3.9320	3.9321	-0.7717	25.74	-0.08	-0.750			
0.1467	9388.25	3.9290	3.9288	-0.7709	25.74	-0.08	-0.750			
0.1490	9535.14	3.9260	3.9260	-0.7715	25.75	-0.07	-0.750			
0.1513	9684.77	3.9230	3.9230	-0.7749	25.75	-0.07	-0.750			
0.1536	9832.49	3.9200	3.9202	-0.7780	25.75	-0.07	-0.750			
0.1560	9983.17	3.9170	3.9169	-0.7827	25.75	-0.07	-0.750			
0.1583	10132.42	3.9140	3.9140	-0.7869	25.75	-0.07	-0.750			
0.1607	10284.85	3.9110	3.9109	-0.7902	25.75	-0.07	-0.750			
0.1631	10438.91	3.9080	3.9080	-0.7938	25.75	-0.07	-0.750			
0.1655	10591.30	3.9050	3.9048	-0.7913	25.75	-0.07	-0.750			
0.1679	10743.77	3.9020	3.9020	-0.7901	25.75	-0.07	-0.750			
0.1702	10893.72	3.8990	3.8990	-0.7927	25.76	-0.06	-0.750			
0.1726	11044.30	3.8960	3.8960	-0.7935	25.76	-0.06	-0.750			
0.1750	11198.05	3.8930	3.8929	-0.7940	25.76	-0.06	-0.750			
0.1774	11350.45	3.8900	3.8899	-0.7954	25.77	-0.05	-0.750			
0.1798	11505.21	3.8870	3.8870	-0.7949	25.77	-0.05	-0.750			
0.1821	11655.07	3.8840	3.8841	-0.8025	25.78	-0.04	-0.750			
0.1845	11808.31	3.8810	3.8809	-0.8060	25.78	-0.04	-0.750			
0.1869	11963.24	3.8780	3.8779	-0.8086	25.78	-0.04	-0.750			
0.1894	12121.40	3.8750	3.8749	-0.8130	25.79	-0.03	-0.750			
0.1919	12280.18	3.8720	3.8721	-0.8100	25.79	-0.03	-0.750			
0.1943	12435.75	3.8690	3.8690	-0.8122	25.80	-0.02	-0.750			
0.1967	12591.47	3.8660	3.8660	-0.8085	25.80	-0.02	-0.750			
0.1991	12741.70	3.8630	3.8629	-0.7956	25.80	-0.02	-0.750			
0.2015	12896.72	3.8600	3.8600	-0.7992	25.81	-0.01	-0.750			
0.2039	13050.41	3.8570	3.8571	-0.8006	25.81	-0.01	-0.750			
0.2063	13203.86	3.8540	3.8540	-0.7988	25.81	-0.01	-0.750			
0.2087	13358.11	3.8510	3.8509	-0.8017	25.81	-0.01	-0.750			
0.2111	13510.02	3.8480	3.8481	-0.7989	25.82	-0.00	-0.750			
0.2135	13665.19	3.8450	3.8450	-0.8000	25.82	-0.00	-0.750			
0.2159	13818.97	3.8420	3.8420	-0.8002	25.82	0.00	-0.750			
0.2183	13972.80	3.8390	3.8390	-0.7992	25.82	0.00	-0.750			
0.2207	14125.25	3.8360	3.8360	-0.7990	25.82	0.00	-0.750			
0.2231	14278.99	3.8330	3.8329	-0.7997	25.83	0.01	-0.750			
0.2255	14432.50	3.8300	3.8300	-0.7961	25.83	0.01	-0.750			
0.2279	14585.32	3.8270	3.8272	-0.7959	25.83	0.01	-0.750			
0.2303	14739.08	3.8240	3.8240	-0.7957	25.83	0.01	-0.750			
0.2327	14891.42	3.8210	3.8209	-0.7941	25.84	0.02	-0.750			
0.2351	15044.09	3.8180	3.8180	-0.7876	25.84	0.02	-0.750			
0.2374	15194.47	3.8150	3.8150	-0.7833	25.84	0.02	-0.750			
0.2398	15345.99	3.8120	3.8121	-0.7817	25.85	0.03	-0.750			
0.2421	15495.73	3.8090	3.8088	-0.7782	25.85	0.03	-0.750			
0.2444	15642.41	3.8060	3.8060	-0.7756	25.86	0.04	-0.750			
0.2468	15792.41	3.8030	3.8030	-0.7652	25.86	0.04	-0.750			
0.2490	15938.36	3.8000	3.8000	-0.7491	25.86	0.04	-0.750			
0.2513	16084.52	3.7970	3.7970	-0.7468	25.87	0.05	-0.750			
0.2535	16223.81	3.7940	3.7943	-0.7447	25.87	0.05	-0.750			
0.2557	16364.24	3.7910	3.7908	-0.7419	25.88	0.06	-0.750			
0.2579	16506.57	3.7880	3.7879	-0.7435	25.89	0.07	-0.750			
0.2602	16650.13	3.7850	3.7852	-0.7435	25.89	0.07	-0.750			
0.2625	16797.10	3.7820	3.7820	-0.7512	25.90	0.08	-0.750			
0.2647	16940.79	3.7790	3.7790	-0.7478	25.91	0.09	-0.750			
0.2669	17081.66	3.7760	3.7760	-0.7437	25.91	0.09	-0.750			
0.2691	17224.51	3.7730	3.7730	-0.7393	25.91	0.09	-0.750			
0.2713	17366.13	3.7700	3.7700	-0.7445	25.91	0.09	-0.750			
0.2736	17510.74	3.7670	3.7670	-0.7444	25.92	0.10	-0.750			
0.2758	17654.13	3.7640	3.7640	-0.7417	25.92	0.10	-0.750			
0.2781	17796.37	3.7610	3.7611	-0.7395	25.92	0.10	-0.750			
0.2803	17937.32	3.7580	3.7580	-0.7393	25.93	0.11	-0.750			
0.2825	18077.91	3.7550	3.7550	-0.7357	25.93	0.11	-0.750			
0.2847	18219.29	3.7520	3.7519	-0.7423	25.94	0.12	-0.750			
0.2869	18360.37	3.7490	3.7490	-0.7466	25.94	0.12	-0.750			
0.2891	18505.14	3.7460	3.7460	-0.7571	25.95	0.13	-0.750			
0.2914	18652.42	3.7430	3.7430	-0.7636	25.95	0.13	-0.750			
0.2937	18799.35	3.7400	3.7399	-0.7705	25.95	0.13	-0.750			
0.2960	18946.76	3.7370	3.7371	-0.7866	25.95	0.13	-0.750			
0.2984	19098.55	3.7340	3.7340	-0.7952	25.96	0.14	-0.750			
0.3008	19253.94	3.7310	3.7309	-0.8066	25.96	0.14	-0.750			
0.3033	19409.58	3.7280	3.7282	-0.8158	25.96	0.14	-0.750			
0.3057	19567.56	3.7250	3.7250	-0.8263	25.96	0.14	-0.750			
0.3082	19727.97	3.7220	3.7220	-0.8436	25.96	0.14	-0.750			
0.3108	19888.64	3.7190	3.7189	-0.8533	25.97	0.15	-0.750			
0.3133	20053.78	3.7160	3.7160	-0.8670	25.97	0.15	-0.750			
0.3160	20222.06	3.7130	3.7132	-0.8841	25.97	0.15	-0.750			
0.3186	20393.34	3.7100	3.7099	-0.9051	25.97	0.15	-0.750			
0.3214	20569.32	3.7070	3.7071	-0.9151	25.97	0.15	-0.750			
0.3242	20746.19	3.7040	3.7039	-0.9235	25.97	0.15	-0.750			
0.3270	20925.55	3.7010	3.7011	-0.9404	25.97	0.15	-0.750			
0.3298	21106.46	3.6980	3.6980	-0.9552	25.97	0.15	-0.750			
0.3327	21290.54	3.6950	3.6949	-0.9787	25.97	0.15	-0.750			
0.3356	21481.09	3.6920	3.6919	-0.9909	25.96	0.14	-0.750			
0.3386	21672.54	3.6890	3.6889	-1.0063	25.96	0.14	-0.750			
0.3417	21867.24	3.6860	3.6862	-1.0420	25.96	0.14	-0.750			
0.3449	22070.68	3.6830	3.6830	-1.0602	25.96	0.14	-0.750			
0.3481	22275.98	3.6800	3.6799	-1.0722	25.97	0.15	-0.750			
0.3513	22482.47	3.6770	3.6769	-1.0827	25.97	0.15	-0.750			
0.3546	22694.22	3.6740	3.6740	-1.1131	25.97	0.15	-0.750			
0.3580	22911.09	3.6710	3.6709	-1.1351	25.96	0.14	-0.750			
0.3614	23128.61	3.6680	3.6679	-1.1461	25.96	0.14	-0.750			
0.3648	23344.81	3.6650	3.6651	-1.1646	25.95	0.13	-0.750			
0.3684	23575.38	3.6620	3.6620	-1.2018	25.95	0.13	-0.750			
0.3721	23811.83	3.6590	3.6589	-1.2202	25.94	0.12	-0.750			
0.3757	24042.79	3.6560	3.6559	-1.2547	25.94	0.12	-0.750			
0.3795	24286.90	3.6530	3.6531	-1.2707	25.94	0.12	-0.750			
0.3834	24537.10	3.6500	3.6500	-1.2990	25.94	0.12	-0.750			
0.3873	24790.33	3.6470	3.6468	-1.3163	25.93	0.11	-0.750			
0.3913	25042.65	3.6440	3.6444	-1.3395	25.93	0.11	-0.750			
0.3954	25302.92	3.6410	3.6409	-1.3699	25.92	0.10	-0.750			
0.3995	25569.87	3.6380	3.6379	-1.3972	25.92	0.10	-0.750			
0.4037	25835.08	3.6350	3.6351	-1.4121	25.91	0.09	-0.750			
0.4081	26117.64	3.6320	3.6320	-1.4551	25.90	0.08	-0.750			
0.4125	26398.81	3.6290	3.6290	-1.4873	25.90	0.08	-0.750			
0.4170	26684.81	3.6260	3.6261	-1.5168	25.89	0.07	-0.750			
0.4215	26976.47	3.6230	3.6230	-1.5608	25.88	0.06	-0.750			
0.4263	27284.18	3.6200	3.6199	-1.5755	25.87	0.05	-0.750			
0.4311	27592.59	3.6170	3.6167	-1.5960	25.87	0.05	-0.750			
0.4360	27903.23	3.6140	3.6131	-1.6381	25.87	0.05	-0.750	0.399	0.543	
0.4409	28218.76	3.6110	3.6110	-1.6665	25.87	0.05	-0.750			
0.4459	28537.26	3.6080	3.6082	-1.6840	25.87	0.05	-0.750			
0.4509	28859.39	3.6050	3.6051	-1.7090	25.87	0.05	-0.750			
0.4562	29194.87	3.6020	3.6017	-1.7641	25.87	0.05	-0.750			
0.4615	29538.37	3.5990	3.5988	-1.8234	25.86	0.04	-0.750			
0.4670	29890.90	3.5960	3.5962	-1.8438	25.85	0.03	-0.750			
0.4726	30248.29	3.5930	3.5928	-1.9005	25.85	0.03	-0.750			
0.4784	30617.33	3.5900	3.5900	-1.9164	25.85	0.03	-0.750			
0.4843	30995.73	3.5870	3.5867	-1.9522	25.85	0.03	-0.750			
0.4902	31373.46	3.5840	3.5840	-1.9891	25.85	0.03	-0.750			
0.4963	31762.10	3.5810	3.5807	-2.0075	25.85	0.03	-0.750			
0.5023	32146.29	3.5780	3.5782	-2.0382	25.85	0.03	-0.750			
0.5084	32539.89	3.5750	3.5750	-2.0709	25.85	0.03	-0.750			
0.5147	32939.79	3.5720	3.5721	-2.0838	25.85	0.03	-0.750			
0.5210	33346.13	3.5690	3.5690	-2.1136	25.85	0.03	-0.750			
0.5275	33761.64	3.5660	3.5660	-2.1450	25.85	0.03	-0.750			
0.5340	34174.96	3.5630	3.5629	-2.1319	25.85	0.03	-0.750			
0.5404	34583.39	3.5600	3.5599	-2.1415	25.84	0.02	-0.750			
0.5466	34984.20	3.5570	3.5567	-2.1663	25.84	0.02	-0.750			
0.5532	35405.58	3.5540	3.5543	-2.1799	25.85	0.03	-0.750			
0.5599	35835.43	3.5510	3.5508	-2.1840	25.85	0.03	-0.750			
0.5665	36253.80	3.5480	3.5482	-2.1844	25.85	0.03	-0.750			
0.5730	36674.52	3.5450	3.5450	-2.1469	25.85	0.03	-0.750			
0.5796	37096.44	3.5420	3.5419	-2.1495	25.85	0.03	-0.750			
0.5859	37497.09	3.5390	3.5391	-2.0972	25.86	0.04	-0.750			
0.5922	37901.19	3.5360	3.5359	-2.0790	25.86	0.04	-0.750			
0.5985	38304.31	3.5330	3.5331	-2.0463	25.87	0.05	-0.750			
0.6047	38700.35	3.5300	3.5301	-2.0232	25.87	0.05	-0.750			
0.6106	39077.95	3.5270	3.5269	-1.9896	25.88	0.06	-0.750			
0.6165	39455.91	3.5240	3.5240	-1.9504	25.89	0.07	-0.750			
0.6223	39824.83	3.5210	3.5212	-1.9115	25.90	0.08	-0.750			
0.6280	40192.51	3.5180	3.5184	-1.8664	25.90	0.08	-0.750			
0.6336	40550.00	3.5150	3.5148	-1.8281	25.91	0.09	-0.750			
0.6390	40898.92	3.5120	3.5119	-1.7974	25.92	0.10	-0.750			
0.6444	41241.67	3.5090	3.5091	-1.7439	25.92	0.10	-0.750			
0.6495	41570.89	3.5060	3.5062	-1.6965	25.93	0.11	-0.750			
0.6546	41892.23	3.5030	3.5030	-1.6354	25.93	0.11	-0.750			
0.6594	42204.78	3.5000	3.5001	-1.5730	25.95	0.13	-0.750			
0.6641	42502.57	3.4970	3.4970	-1.5251	25.97	0.15	-0.750			
0.6685	42783.21	3.4940	3.4940	-1.4487	25.98	0.16	-0.750			
0.6728	43058.57	3.4910	3.4909	-1.4120	25.99	0.17	-0.750			
0.6769	43320.19	3.4880	3.4880	-1.3754	26.01	0.19	-0.750			
0.6809	43577.62	3.4850	3.4850	-1.3275	26.02	0.20	-0.750			
0.6849	43832.50	3.4820	3.4819	-1.3051	26.03	0.21	-0.750			
0.6888	44080.56	3.4790	3.4790	-1.2712	26.04	0.22	-0.750			
0.6925	44320.40	3.4760	3.4761	-1.2300	26.06	0.24	-0.750			
0.6962	44558.20	3.4730	3.4729	-1.1978	26.07	0.25	-0.750			
0.6997	44781.73	3.4700	3.4700	-1.1540	26.08	0.26	-0.750			
0.7031	44996.88	3.4670	3.4671	-1.1074	26.09	0.27	-0.750			
0.7064	45208.78	3.4640	3.4639	-1.0849	26.10	0.28	-0.750			
0.7096	45413.06	3.4610	3.4610	-1.0403	26.11	0.29	-0.750			
0.7127	45610.22	3.4580	3.4579	-1.0048	26.12	0.30	-0.750			
0.7156	45798.59	3.4550	3.4554	-0.9771	26.13	0.31	-0.750			
0.7185	45981.04	3.4520	3.4520	-0.9559	26.14	0.32	-0.750			
0.7213	46162.63	3.4490	3.4488	-0.9229	26.15	0.33	-0.750			
0.7240	46336.33	3.4460	3.4460	-0.8949	26.16	0.34	-0.750			
0.7266	46505.44	3.4430	3.4430	-0.8821	26.17	0.35	-0.750			
0.7293	46672.77	3.4400	3.4398	-0.8677	26.18	0.36	-0.750			
0.7318	46834.19	3.4370	3.4369	-0.8607	26.19	0.37	-0.750			
0.7343	46996.54	3.4340	3.4341	-0.8554	26.20	0.38	-0.750			
0.7369	47158.58	3.4310	3.4310	-0.8578	26.21	0.39	-0.750			
0.7395	47327.57	3.4280	3.4280	-0.8729	26.23	0.41	-0.750			
0.7421	47495.29	3.4250	3.4249	-0.8775	26.23	0.41	-0.750			
0.7447	47662.73	3.4220	3.4220	-0.8919	26.24	0.42	-0.750			
0.7474	47834.90	3.4190	3.4190	-0.9042	26.25	0.43	-0.750			
0.7502	48010.69	3.4160	3.4159	-0.9091	26.26	0.44	-0.750			
0.7529	48188.44	3.4130	3.4132	-0.9207	26.27	0.45	-0.750			
0.7557	48365.17	3.4100	3.4101	-0.9304	26.27	0.45	-0.750			
0.7586	48547.59	3.4070	3.4069	-0.9220	26.28	0.46	-0.750			
0.7613	48726.33	3.4040	3.4039	-0.9109	26.28	0.46	-0.750			
0.7640	48899.18	3.4010	3.4010	-0.8937	26.29	0.47	-0.750			
0.7668	49072.31	3.3980	3.3981	-0.8795	26.29	0.47	-0.750			
0.7694	49239.12	3.3950	3.3949	-0.8620	26.30	0.48	-0.750			
0.7719	49402.30	3.3920	3.3919	-0.8321	26.31	0.49	-0.750			
0.7743	49558.36	3.3890	3.3890	-0.8045	26.31	0.49	-0.750			
0.7768	49714.60	3.3860	3.3859	-0.7840	26.32	0.50	-0.750			
0.7791	49862.98	3.3830	3.3830	-0.7562	26.32	0.50	-0.750			
0.7813	50003.89	3.3800	3.3799	-0.7295	26.33	0.51	-0.750			
0.7834	50139.97	3.3770	3.3770	-0.7044	26.33	0.51	-0.750			
0.7855	50272.11	3.3740	3.3739	-0.6782	26.34	0.52	-0.750			
0.7875	50402.39	3.3710	3.3710	-0.6603	26.34	0.52	-0.750			
0.7895	50526.61	3.3680	3.3680	-0.6373	26.35	0.53	-0.750			
0.7914	50647.27	3.3650	3.3651	-0.6140	26.35	0.53	-0.750			
0.7932	50761.99	3.3620	3.3619	-0.5925	26.36	0.54	-0.750			
0.7949	50873.07	3.3590	3.3590	-0.5725	26.36	0.54	-0.750			
0.7966	50981.50	3.3560	3.3560	-0.5501	26.37	0.55	-0.750			
0.7982	51085.46	3.3530	3.3530	-0.5344	26.37	0.55	-0.750			
0.7998	51187.54	3.3500	3.3500	-0.5136	26.38	0.56	-0.750			
0.8013	51283.88	3.3470	3.3469	-0.4933	26.38	0.56	-0.750			
0.8028	51376.50	3.3440	3.3441	-0.4750	26.39	0.57	-0.750			
0.8041	51464.25	3.3410	3.3409	-0.4610	26.39	0.57	-0.750			
0.8055	51550.33	3.3380	3.3379	-0.4472	26.40	0.58	-0.750			
0.8068	51635.58	3.3350	3.3349	-0.4347	26.40	0.58	-0.750			
0.8081	51716.43	3.3320	3.3322	-0.4212	26.41	0.59	-0.750			
0.8094	51799.29	3.3290	3.3290	-0.4149	26.41	0.59	-0.750			
0.8106	51877.54	3.3260	3.3259	-0.4004	26.42	0.60	-0.750			
0.8118	51952.41	3.3230	3.3230	-0.3870	26.42	0.60	-0.750			
0.8129	52024.82	3.3200	3.3201	-0.3749	26.43	0.61	-0.750			
0.8140	52096.23	3.3170	3.3170	-0.3659	26.43	0.61	-0.750			
0.8151	52165.41	3.3140	3.3139	-0.3570	26.44	0.62	-0.750			
0.8161	52232.61	3.3110	3.3110	-0.3452	26.44	0.62	-0.750			
0.8172	52298.03	3.3080	3.3080	-0.3348	26.45	0.63	-0.750			
0.8182	52361.97	3.3050	3.3050	-0.3264	26.45	0.63	-0.750			
0.8191	52423.15	3.3020	3.3021	-0.3171	26.46	0.64	-0.750			
0.8200	52482.98	3.2990	3.2990	-0.3083	26.46	0.64	-0.750			
0.8209	52540.27	3.2960	3.2960	-0.3006	26.47	0.65	-0.750			
0.8218	52597.09	3.2930	3.2929	-0.2951	26.47	0.65	-0.750			
0.8227	52653.01	3.2900	3.2901	-0.2914	26.48	0.66	-0.750			
0.8236	52708.25	3.2870	3.2869	-0.2876	26.48	0.66	-0.750			
0.8244	52763.65	3.2840	3.2841	-0.2832	26.49	0.67	-0.750			
0.8253	52817.56	3.2810	3.2810	-0.2788	26.49	0.67	-0.750			
0.8261	52871.54	3.2780	3.2780	-0.2731	26.50	0.68	-0.750			
0.8269	52923.51	3.2750	3.2750	-0.2662	26.50	0.68	-0.750			
0.8277	52973.96	3.2720	3.2719	-0.2584	26.51	0.69	-0.750			
0.8285	53022.29	3.2690	3.2689	-0.2527	26.51	0.69	-0.750			
0.8292	53068.99	3.2660	3.2660	-0.2480	26.52	0.70	-0.750			
0.8299	53116.77	3.2630	3.2628	-0.2434	26.52	0.70	-0.750			
0.8307	53162.90	3.2600	3.2600	-0.2406	26.53	0.71	-0.750			
0.8314	53208.51	3.2570	3.2571	-0.2363	26.53	0.71	-0.750			
0.8321	53254.36	3.2540	3.2540	-0.2341	26.54	0.72	-0.750			
0.8328	53299.01	3.2510	3.2508	-0.2301	26.54	0.72	-0.750			
0.8335	53342.27	3.2480	3.2481	-0.2255	26.55	0.73	-0.750			
0.8341	53385.33	3.2450	3.2450	-0.2215	26.55	0.73	-0.750			
0.8348	53427.54	3.2420	3.2420	-0.2181	26.56	0.74	-0.750			
0.8355	53469.43	3.2390	3.2390	-0.2160	26.56	0.74	-0.750			
0.8361	53510.01	3.2360	3.2360	-0.2117	26.57	0.75	-0.750			
0.8367	53550.53	3.2330	3.2331	-0.2093	26.57	0.75	-0.750			
0.8374	53590.45	3.2300	3.2299	-0.2065	26.58	0.76	-0.750			
0.8380	53629.79	3.2270	3.2270	-0.2036	26.58	0.76	-0.750			
0.8386	53668.27	3.2240	3.2240	-0.2023	26.59	0.77	-0.750			
0.8392	53707.24	3.2210	3.2210	-0.2001	26.59	0.77	-0.750			
0.8398	53745.39	3.2180	3.2179	-0.1980	26.59	0.77	-0.750			
0.8404	53782.95	3.2150	3.2149	-0.1957	26.60	0.78	-0.750			
0.8409	53820.67	3.2120	3.2119	-0.1934	26.60	0.78	-0.750			
0.8415	53857.66	3.2090	3.2089	-0.1910	26.61	0.79	-0.750			
0.8421	53893.99	3.2060	3.2061	-0.1882	26.62	0.80	-0.750			
0.8426	53929.47	3.2030	3.2030	-0.1846	26.62	0.80	-0.750			
0.8432	53964.76	3.2000	3.2000	-0.1829	26.63	0.81	-0.750			
0.8437	53999.96	3.1970	3.1970	-0.1813	26.63	0.81	-0.750			
0.8443	54034.27	3.1940	3.1940	-0.1791	26.64	0.82	-0.750			
0.8448	54068.51	3.1910	3.1910	-0.1776	26.64	0.82	-0.750			
0.8454	54102.62	3.1880	3.1879	-0.1754	26.65	0.83	-0.750			
0.8459	54135.97	3.1850	3.1850	-0.1738	26.65	0.83	-0.750			
0.8464	54169.26	3.1820	3.1821	-0.1720	26.66	0.84	-0.750			
0.8469	54202.11	3.1790	3.1790	-0.1702	26.66	0.84	-0.750			
0.8474	54234.53	3.1760	3.1759	-0.1686	26.67	0.85	-0.750			
0.8479	54266.70	3.1730	3.1730	-0.1671	26.67	0.85	-0.750			
0.8484	54298.60	3.1700	3.1700	-0.1653	26.68	0.86	-0.750			
0.8489	54330.19	3.1670	3.1670	-0.1638	26.68	0.86	-0.750			
0.8494	54361.82	3.1640	3.1639	-0.1617	26.69	0.87	-0.750			
0.8499	54392.41	3.1610	3.1610	-0.1598	26.69	0.87	-0.750			
0.8504	54423.19	3.1580	3.1581	-0.1580	26.70	0.88	-0.750			
