Ah_balance (normalized)	Ah_balance (mAh)	Voltage - fit (V)	Voltage -  interpolate (V)	dQ/dV (1/V)	Temperature (°C)	Temperature - diff (°C)	Current (C)	R_DC 0ms (mOhm)	R_DC 50ms (mOhm)	R_DC 50 ms PEC (mOhm)
0.0002	11.87	4.1650	4.1647	-0.1056	25.81	0.04	-0.750			
0.0006	38.08	4.1620	4.1617	-0.1563	25.81	0.04	-0.750			
0.0011	71.39	4.1590	4.1590	-0.1961	25.81	0.04	-0.750			
0.0018	112.75	4.1560	4.1560	-0.2384	25.80	0.03	-0.750			
0.0025	163.07	4.1530	4.1531	-0.2786	25.80	0.03	-0.750			
0.0034	220.55	4.1500	4.1499	-0.3179	25.80	0.03	-0.750			
0.0045	286.31	4.1470	4.1471	-0.3558	25.80	0.03	-0.750			
0.0056	358.31	4.1440	4.1441	-0.3942	25.79	0.02	-0.750			
0.0068	438.04	4.1410	4.1410	-0.4311	25.79	0.02	-0.750			
0.0082	524.65	4.1380	4.1380	-0.4633	25.78	0.01	-0.750			
0.0097	617.67	4.1350	4.1350	-0.4924	25.78	0.01	-0.750			
0.0112	716.11	4.1320	4.1321	-0.5195	25.77	0.00	-0.750			
0.0128	820.39	4.1290	4.1290	-0.5406	25.77	-0.00	-0.750			
0.0145	926.20	4.1260	4.1260	-0.5597	25.76	-0.01	-0.750			
0.0162	1034.99	4.1230	4.1231	-0.5758	25.76	-0.01	-0.750			
0.0179	1146.99	4.1200	4.1199	-0.5944	25.75	-0.02	-0.750			
0.0197	1263.78	4.1170	4.1170	-0.6074	25.75	-0.02	-0.750			
0.0216	1381.46	4.1140	4.1140	-0.6183	25.74	-0.03	-0.750			
0.0235	1502.36	4.1110	4.1111	-0.6301	25.73	-0.04	-0.750			
0.0254	1624.48	4.1080	4.1082	-0.6408	25.73	-0.04	-0.750			
0.0273	1747.93	4.1050	4.1048	-0.6474	25.73	-0.04	-0.750			
0.0293	1872.84	4.1020	4.1021	-0.6596	25.72	-0.05	-0.750			
0.0313	2000.46	4.0990	4.0990	-0.6671	25.72	-0.05	-0.750			
0.0333	2131.10	4.0960	4.0960	-0.6782	25.72	-0.05	-0.750			
0.0353	2262.23	4.0930	4.0930	-0.6816	25.71	-0.06	-0.750			
0.0374	2393.58	4.0900	4.0900	-0.6864	25.71	-0.06	-0.750			
0.0395	2525.51	4.0870	4.0870	-0.6897	25.71	-0.06	-0.750			
0.0415	2658.20	4.0840	4.0840	-0.6931	25.71	-0.06	-0.750			
0.0436	2790.86	4.0810	4.0810	-0.6997	25.71	-0.06	-0.750			
0.0457	2926.32	4.0780	4.0779	-0.7045	25.70	-0.07	-0.750			
0.0479	3062.51	4.0750	4.0750	-0.7094	25.70	-0.07	-0.750			
0.0500	3199.84	4.0720	4.0723	-0.7109	25.70	-0.07	-0.750			
0.0521	3336.67	4.0690	4.0689	-0.7135	25.70	-0.07	-0.750			
0.0543	3472.84	4.0660	4.0661	-0.7200	25.70	-0.07	-0.750			
0.0564	3610.24	4.0630	4.0629	-0.7220	25.70	-0.07	-0.750			
0.0586	3751.06	4.0600	4.0600	-0.7260	25.70	-0.07	-0.750			
0.0608	3890.74	4.0570	4.0570	-0.7251	25.70	-0.07	-0.750			
0.0630	4030.41	4.0540	4.0541	-0.7270	25.70	-0.07	-0.750			
0.0652	4170.37	4.0510	4.0509	-0.7281	25.70	-0.07	-0.750			
0.0673	4307.07	4.0480	4.0480	-0.7301	25.69	-0.08	-0.750			
0.0695	4448.06	4.0450	4.0450	-0.7297	25.69	-0.08	-0.750			
0.0717	4589.31	4.0420	4.0420	-0.7355	25.69	-0.08	-0.750			
0.0739	4730.76	4.0390	4.0390	-0.7386	25.68	-0.09	-0.750			
0.0761	4873.01	4.0360	4.0359	-0.7409	25.68	-0.09	-0.750			
0.0784	5015.87	4.0330	4.0330	-0.7375	25.69	-0.08	-0.750			
0.0806	5156.67	4.0300	4.0299	-0.7447	25.69	-0.08	-0.750			
0.0828	5300.98	4.0270	4.0271	-0.7423	25.69	-0.08	-0.750			
0.0851	5445.57	4.0240	4.0238	-0.7453	25.70	-0.07	-0.750			
0.0873	5587.26	4.0210	4.0214	-0.7458	25.70	-0.07	-0.750			
0.0895	5730.59	4.0180	4.0180	-0.7461	25.70	-0.07	-0.750			
0.0917	5871.52	4.0150	4.0149	-0.7542	25.70	-0.07	-0.750			
0.0940	6019.04	4.0120	4.0119	-0.7527	25.70	-0.07	-0.750			
0.0963	6164.02	4.0090	4.0091	-0.7574	25.70	-0.07	-0.750			
0.0986	6309.40	4.0060	4.0059	-0.7623	25.70	-0.07	-0.750			
0.1009	6456.16	4.0030	4.0030	-0.7642	25.70	-0.07	-0.750			
0.1032	6602.55	4.0000	3.9998	-0.7632	25.71	-0.06	-0.750			
0.1054	6747.78	3.9970	3.9970	-0.7637	25.71	-0.06	-0.750			
0.1077	6892.69	3.9940	3.9942	-0.7632	25.71	-0.06	-0.750			
0.1101	7043.80	3.9910	3.9909	-0.7717	25.72	-0.05	-0.750			
0.1124	7191.29	3.9880	3.9881	-0.7698	25.72	-0.05	-0.750			
0.1147	7339.16	3.9850	3.9850	-0.7699	25.72	-0.05	-0.750			
0.1170	7487.10	3.9820	3.9820	-0.7764	25.72	-0.05	-0.750			
0.1193	7637.78	3.9790	3.9790	-0.7774	25.72	-0.05	-0.750			
0.1217	7786.18	3.9760	3.9760	-0.7759	25.72	-0.05	-0.750			
0.1240	7935.93	3.9730	3.9730	-0.7785	25.72	-0.05	-0.750			
0.1263	8085.58	3.9700	3.9700	-0.7788	25.72	-0.05	-0.750			
0.1286	8232.88	3.9670	3.9670	-0.7898	25.73	-0.04	-0.750			
0.1310	8386.39	3.9640	3.9640	-0.7913	25.73	-0.04	-0.750			
0.1334	8538.74	3.9610	3.9609	-0.7896	25.74	-0.03	-0.750			
0.1358	8693.02	3.9580	3.9580	-0.7925	25.75	-0.02	-0.750			
0.1382	8845.35	3.9550	3.9552	-0.7929	25.75	-0.02	-0.750			
0.1406	8996.49	3.9520	3.9520	-0.7951	25.75	-0.02	-0.750			
0.1429	9148.15	3.9490	3.9489	-0.7949	25.75	-0.02	-0.750			
0.1453	9298.52	3.9460	3.9460	-0.7935	25.75	-0.02	-0.750			
0.1477	9454.28	3.9430	3.9431	-0.8050	25.75	-0.02	-0.750			
0.1502	9611.06	3.9400	3.9401	-0.8103	25.75	-0.02	-0.750			
0.1526	9766.30	3.9370	3.9370	-0.8106	25.75	-0.02	-0.750			
0.1550	9921.38	3.9340	3.9340	-0.8092	25.76	-0.01	-0.750			
0.1575	10078.04	3.9310	3.9310	-0.8047	25.76	-0.01	-0.750			
0.1599	10232.86	3.9280	3.9280	-0.8070	25.77	-0.00	-0.750			
0.1623	10387.09	3.9250	3.9251	-0.8064	25.77	-0.00	-0.750			
0.1647	10540.29	3.9220	3.9219	-0.8107	25.77	0.00	-0.750			
0.1671	10696.39	3.9190	3.9191	-0.8229	25.78	0.01	-0.750			
0.1696	10856.98	3.9160	3.9159	-0.8225	25.78	0.01	-0.750			
0.1721	11016.32	3.9130	3.9129	-0.8250	25.79	0.02	-0.750			
0.1746	11177.04	3.9100	3.9104	-0.8323	25.79	0.02	-0.750			
0.1771	11335.64	3.9070	3.9068	-0.8269	25.79	0.02	-0.750			
0.1796	11494.38	3.9040	3.9039	-0.8264	25.79	0.02	-0.750			
0.1821	11651.84	3.9010	3.9010	-0.8231	25.80	0.03	-0.750			
0.1846	11811.67	3.8980	3.8980	-0.8285	25.80	0.03	-0.750			
0.1870	11969.24	3.8950	3.8951	-0.8298	25.80	0.03	-0.750			
0.1895	12126.44	3.8920	3.8920	-0.8304	25.80	0.03	-0.750			
0.1920	12285.73	3.8890	3.8889	-0.8356	25.81	0.04	-0.750			
0.1945	12448.09	3.8860	3.8859	-0.8404	25.81	0.04	-0.750			
0.1970	12610.38	3.8830	3.8831	-0.8404	25.82	0.05	-0.750			
0.1996	12774.54	3.8800	3.8801	-0.8437	25.82	0.05	-0.750			
0.2021	12936.08	3.8770	3.8769	-0.8420	25.82	0.05	-0.750			
0.2046	13096.02	3.8740	3.8739	-0.8445	25.83	0.06	-0.750			
0.2072	13259.78	3.8710	3.8709	-0.8450	25.83	0.06	-0.750			
0.2097	13422.28	3.8680	3.8679	-0.8434	25.84	0.07	-0.750			
0.2123	13586.53	3.8650	3.8655	-0.8487	25.84	0.07	-0.750			
0.2148	13749.17	3.8620	3.8619	-0.8462	25.85	0.08	-0.750			
0.2174	13910.70	3.8590	3.8589	-0.8459	25.85	0.08	-0.750			
0.2199	14072.12	3.8560	3.8560	-0.8441	25.86	0.09	-0.750			
0.2224	14236.41	3.8530	3.8529	-0.8502	25.86	0.09	-0.750			
0.2250	14397.62	3.8500	3.8501	-0.8499	25.87	0.10	-0.750			
0.2275	14560.43	3.8470	3.8470	-0.8509	25.87	0.10	-0.750			
0.2300	14722.71	3.8440	3.8440	-0.8549	25.87	0.10	-0.750			
0.2326	14889.08	3.8410	3.8410	-0.8542	25.87	0.10	-0.750			
0.2352	15055.95	3.8380	3.8379	-0.8518	25.87	0.10	-0.750			
0.2378	15218.14	3.8350	3.8351	-0.8485	25.87	0.10	-0.750			
0.2403	15379.79	3.8320	3.8321	-0.8475	25.87	0.10	-0.750			
0.2428	15542.19	3.8290	3.8289	-0.8511	25.88	0.11	-0.750			
0.2454	15705.70	3.8260	3.8258	-0.8506	25.88	0.11	-0.750			
0.2480	15870.49	3.8230	3.8229	-0.8493	25.89	0.12	-0.750			
0.2505	16034.43	3.8200	3.8203	-0.8490	25.89	0.12	-0.750			
0.2531	16199.99	3.8170	3.8169	-0.8461	25.90	0.13	-0.750			
0.2556	16359.08	3.8140	3.8138	-0.8415	25.90	0.13	-0.750			
0.2581	16515.98	3.8110	3.8112	-0.8303	25.91	0.14	-0.750			
0.2606	16678.54	3.8080	3.8080	-0.8461	25.92	0.15	-0.750			
0.2632	16842.83	3.8050	3.8050	-0.8449	25.92	0.15	-0.750			
0.2657	17005.73	3.8020	3.8020	-0.8441	25.92	0.15	-0.750			
0.2682	17165.82	3.7990	3.7990	-0.8440	25.92	0.15	-0.750			
0.2708	17328.01	3.7960	3.7960	-0.8459	25.93	0.16	-0.750			
0.2733	17493.48	3.7930	3.7929	-0.8474	25.93	0.16	-0.750			
0.2759	17655.49	3.7900	3.7900	-0.8417	25.93	0.16	-0.750			
0.2783	17814.05	3.7870	3.7871	-0.8475	25.94	0.17	-0.750			
0.2809	17979.92	3.7840	3.7840	-0.8446	25.94	0.17	-0.750			
0.2835	18141.79	3.7810	3.7809	-0.8340	25.95	0.18	-0.750			
0.2860	18303.75	3.7780	3.7779	-0.8349	25.96	0.19	-0.750			
0.2885	18462.16	3.7750	3.7748	-0.8290	25.96	0.19	-0.750			
0.2910	18621.02	3.7720	3.7719	-0.8288	25.96	0.19	-0.750			
0.2934	18778.04	3.7690	3.7690	-0.8182	25.96	0.19	-0.750			
0.2958	18931.81	3.7660	3.7660	-0.8117	25.97	0.20	-0.750			
0.2983	19091.94	3.7630	3.7630	-0.8221	25.97	0.20	-0.750			
0.3008	19249.21	3.7600	3.7598	-0.8199	25.97	0.20	-0.750			
0.3032	19403.84	3.7570	3.7571	-0.8237	25.98	0.21	-0.750			
0.3057	19563.12	3.7540	3.7540	-0.8216	25.98	0.21	-0.750			
0.3082	19722.37	3.7510	3.7510	-0.8241	25.98	0.21	-0.750			
0.3107	19881.97	3.7480	3.7479	-0.8302	25.99	0.22	-0.750			
0.3131	20039.22	3.7450	3.7451	-0.8296	25.99	0.22	-0.750			
0.3156	20197.57	3.7420	3.7420	-0.8389	26.00	0.23	-0.750			
0.3181	20360.19	3.7390	3.7390	-0.8375	26.00	0.23	-0.750			
0.3206	20519.34	3.7360	3.7359	-0.8373	26.00	0.23	-0.750			
0.3232	20684.14	3.7330	3.7330	-0.8485	26.01	0.24	-0.750			
0.3257	20846.22	3.7300	3.7300	-0.8513	26.01	0.24	-0.750			
0.3283	21008.36	3.7270	3.7270	-0.8568	26.02	0.25	-0.750			
0.3308	21172.77	3.7240	3.7240	-0.8605	26.02	0.25	-0.750			
0.3334	21339.15	3.7210	3.7210	-0.8667	26.02	0.25	-0.750			
0.3360	21506.64	3.7180	3.7181	-0.8938	26.03	0.26	-0.750			
0.3387	21676.73	3.7150	3.7151	-0.9054	26.03	0.26	-0.750			
0.3415	21853.54	3.7120	3.7118	-0.9282	26.03	0.26	-0.750			
0.3443	22034.65	3.7090	3.7090	-0.9412	26.03	0.26	-0.750			
0.3472	22217.82	3.7060	3.7061	-0.9570	26.03	0.26	-0.750			
0.3501	22403.90	3.7030	3.7032	-0.9762	26.03	0.26	-0.750			
0.3530	22594.41	3.7000	3.6999	-0.9949	26.03	0.26	-0.750			
0.3560	22783.89	3.6970	3.6969	-1.0045	26.03	0.26	-0.750			
0.3590	22977.58	3.6940	3.6940	-1.0249	26.03	0.26	-0.750			
0.3622	23178.21	3.6910	3.6911	-1.0485	26.03	0.26	-0.750			
0.3653	23381.63	3.6880	3.6879	-1.0733	26.03	0.26	-0.750			
0.3686	23588.79	3.6850	3.6849	-1.0940	26.02	0.25	-0.750			
0.3719	23799.43	3.6820	3.6820	-1.1179	26.01	0.24	-0.750			
0.3753	24017.94	3.6790	3.6792	-1.1513	26.01	0.24	-0.750			
0.3788	24241.61	3.6760	3.6760	-1.1664	26.01	0.24	-0.750			
0.3823	24467.60	3.6730	3.6730	-1.1863	26.01	0.24	-0.750			
0.3858	24692.89	3.6700	3.6700	-1.2315	26.01	0.24	-0.750			
0.3896	24935.53	3.6670	3.6668	-1.2573	26.01	0.24	-0.750			
0.3934	25179.01	3.6640	3.6639	-1.2819	26.00	0.23	-0.750			
0.3973	25428.58	3.6610	3.6610	-1.3079	25.99	0.22	-0.750			
0.4013	25684.20	3.6580	3.6580	-1.3267	25.99	0.22	-0.750			
0.4054	25942.90	3.6550	3.6549	-1.3649	25.98	0.21	-0.750			
0.4094	26202.77	3.6520	3.6520	-1.3901	25.97	0.20	-0.750			
0.4135	26466.32	3.6490	3.6490	-1.4152	25.97	0.20	-0.750			
0.4180	26749.46	3.6460	3.6462	-1.4611	25.97	0.20	-0.750			
0.4224	27033.95	3.6430	3.6429	-1.5015	25.96	0.19	-0.750			
0.4270	27329.26	3.6400	3.6399	-1.5326	25.95	0.18	-0.750			
0.4317	27628.34	3.6370	3.6370	-1.5656	25.94	0.17	-0.750			
0.4365	27933.54	3.6340	3.6340	-1.5891	25.93	0.16	-0.750			
0.4412	28237.36	3.6310	3.6310	-1.6088	25.92	0.15	-0.750			
0.4461	28549.39	3.6280	3.6278	-1.6399	25.92	0.15	-0.750			
0.4510	28864.80	3.6250	3.6250	-1.6683	25.91	0.14	-0.750			
0.4560	29181.59	3.6220	3.6220	-1.7165	25.90	0.13	-0.750	0.397	0.501	
0.4612	29517.10	3.6190	3.6189	-1.7499	25.89	0.12	-0.750			
0.4665	29858.78	3.6160	3.6160	-1.7811	25.88	0.11	-0.750			
0.4721	30212.66	3.6130	3.6128	-1.8222	25.87	0.10	-0.750			
0.4775	30560.50	3.6100	3.6098	-1.8453	25.87	0.10	-0.750			
0.4831	30917.04	3.6070	3.6067	-1.8786	25.86	0.09	-0.750			
0.4887	31279.43	3.6040	3.6042	-1.9230	25.85	0.08	-0.750			
0.4946	31654.28	3.6010	3.6008	-1.9563	25.84	0.07	-0.750			
0.5006	32036.34	3.5980	3.5979	-2.0041	25.84	0.07	-0.750			
0.5066	32424.28	3.5950	3.5951	-2.0459	25.83	0.06	-0.750			
0.5129	32827.50	3.5920	3.5922	-2.0826	25.82	0.05	-0.750			
0.5192	33229.77	3.5890	3.5890	-2.1188	25.81	0.04	-0.750			
0.5257	33644.44	3.5860	3.5860	-2.1448	25.81	0.04	-0.750			
0.5322	34059.33	3.5830	3.5829	-2.1740	25.80	0.03	-0.750			
0.5388	34484.96	3.5800	3.5801	-2.2207	25.80	0.03	-0.750			
0.5455	34914.99	3.5770	3.5771	-2.2060	25.79	0.02	-0.750			
0.5522	35343.66	3.5740	3.5740	-2.2211	25.79	0.02	-0.750			
0.5589	35770.00	3.5710	3.5713	-2.2384	25.78	0.01	-0.750			
0.5655	36194.58	3.5680	3.5682	-2.2449	25.78	0.01	-0.750			
0.5723	36624.04	3.5650	3.5651	-2.2809	25.77	0.00	-0.750			
0.5791	37065.14	3.5620	3.5621	-2.2845	25.77	0.00	-0.750			
0.5861	37511.09	3.5590	3.5589	-2.3067	25.77	0.00	-0.750			
0.5932	37964.80	3.5560	3.5560	-2.3330	25.77	0.00	-0.750			
0.6002	38411.91	3.5530	3.5528	-2.3142	25.78	0.01	-0.750			
0.6071	38855.73	3.5500	3.5499	-2.3039	25.78	0.01	-0.750			
0.6140	39296.53	3.5470	3.5472	-2.2857	25.78	0.01	-0.750			
0.6208	39730.73	3.5440	3.5439	-2.2764	25.79	0.02	-0.750			
0.6277	40174.07	3.5410	3.5409	-2.2447	25.79	0.02	-0.750			
0.6343	40597.81	3.5380	3.5383	-2.2051	25.79	0.02	-0.750			
0.6411	41027.73	3.5350	3.5351	-2.1834	25.79	0.02	-0.750			
0.6476	41443.77	3.5320	3.5319	-2.1411	25.80	0.03	-0.750			
0.6539	41848.06	3.5290	3.5290	-2.1048	25.80	0.03	-0.750			
0.6602	42254.05	3.5260	3.5260	-2.0646	25.81	0.04	-0.750			
0.6663	42643.46	3.5230	3.5228	-2.0072	25.81	0.04	-0.750			
0.6724	43030.40	3.5200	3.5202	-1.9432	25.82	0.05	-0.750			
0.6781	43395.64	3.5170	3.5168	-1.8901	25.83	0.06	-0.750			
0.6836	43750.86	3.5140	3.5138	-1.8263	25.84	0.07	-0.750			
0.6890	44098.43	3.5110	3.5109	-1.7666	25.86	0.09	-0.750			
0.6943	44435.04	3.5080	3.5082	-1.7270	25.87	0.10	-0.750			
0.6994	44759.41	3.5050	3.5047	-1.6612	25.89	0.12	-0.750			
0.7043	45074.22	3.5020	3.5021	-1.5926	25.90	0.13	-0.750			
0.7090	45377.53	3.4990	3.4988	-1.5390	25.92	0.15	-0.750			
0.7135	45665.65	3.4960	3.4961	-1.4939	25.93	0.16	-0.750			
0.7179	45947.54	3.4930	3.4928	-1.4455	25.95	0.18	-0.750			
0.7221	46214.38	3.4900	3.4899	-1.3864	25.96	0.19	-0.750			
0.7262	46476.72	3.4870	3.4871	-1.3407	25.98	0.21	-0.750			
0.7302	46733.57	3.4840	3.4840	-1.3084	26.00	0.23	-0.750			
0.7341	46980.49	3.4810	3.4810	-1.2647	26.01	0.24	-0.750			
0.7377	47212.86	3.4780	3.4781	-1.2127	26.03	0.26	-0.750			
0.7413	47446.02	3.4750	3.4750	-1.1800	26.04	0.27	-0.750			
0.7448	47669.43	3.4720	3.4720	-1.1379	26.05	0.28	-0.750			
0.7482	47883.53	3.4690	3.4690	-1.1001	26.06	0.29	-0.750			
0.7514	48089.69	3.4660	3.4660	-1.0636	26.08	0.31	-0.750			
0.7545	48289.55	3.4630	3.4630	-1.0268	26.09	0.32	-0.750			
0.7575	48482.10	3.4600	3.4600	-0.9936	26.11	0.34	-0.750			
0.7605	48669.19	3.4570	3.4570	-0.9651	26.12	0.35	-0.750			
0.7633	48851.87	3.4540	3.4540	-0.9497	26.13	0.36	-0.750			
0.7661	49031.05	3.4510	3.4510	-0.9359	26.14	0.37	-0.750			
0.7689	49208.79	3.4480	3.4479	-0.9192	26.15	0.38	-0.750			
0.7716	49381.96	3.4450	3.4450	-0.9156	26.16	0.39	-0.750			
0.7744	49558.49	3.4420	3.4422	-0.9170	26.17	0.40	-0.750			
0.7770	49730.65	3.4390	3.4388	-0.9372	26.18	0.41	-0.750			
0.7798	49909.39	3.4360	3.4360	-0.9513	26.19	0.42	-0.750			
0.7827	50091.21	3.4330	3.4329	-0.9807	26.19	0.42	-0.750			
0.7856	50280.77	3.4300	3.4300	-1.0116	26.20	0.43	-0.750			
0.7888	50483.80	3.4270	3.4270	-1.0491	26.21	0.44	-0.750			
0.7920	50689.29	3.4240	3.4239	-1.0687	26.22	0.45	-0.750			
0.7953	50901.85	3.4210	3.4209	-1.0848	26.24	0.47	-0.750			
0.7986	51111.61	3.4180	3.4181	-1.0827	26.25	0.48	-0.750			
0.8019	51324.57	3.4150	3.4149	-1.0828	26.25	0.48	-0.750			
0.8052	51532.90	3.4120	3.4120	-1.0612	26.26	0.49	-0.750			
0.8084	51737.84	3.4090	3.4090	-1.0274	26.26	0.49	-0.750			
0.8114	51931.85	3.4060	3.4061	-0.9929	26.27	0.50	-0.750			
0.8144	52119.15	3.4030	3.4030	-0.9666	26.28	0.51	-0.750			
0.8172	52300.15	3.4000	3.4000	-0.9301	26.29	0.52	-0.750			
0.8199	52475.78	3.3970	3.3968	-0.8949	26.29	0.52	-0.750			
0.8225	52642.59	3.3940	3.3940	-0.8581	26.30	0.53	-0.750			
0.8251	52807.23	3.3910	3.3913	-0.8329	26.31	0.54	-0.750			
0.8276	52965.04	3.3880	3.3879	-0.7995	26.32	0.55	-0.750			
0.8299	53113.46	3.3850	3.3850	-0.7649	26.33	0.56	-0.750			
0.8321	53256.36	3.3820	3.3820	-0.7325	26.33	0.56	-0.750			
0.8343	53394.12	3.3790	3.3790	-0.7076	26.34	0.57	-0.750			
0.8364	53527.36	3.3760	3.3760	-0.6830	26.35	0.58	-0.750			
0.8384	53655.54	3.3730	3.3730	-0.6558	26.35	0.58	-0.750			
0.8403	53777.19	3.3700	3.3700	-0.6367	26.36	0.59	-0.750			
0.8422	53897.93	3.3670	3.3671	-0.6170	26.37	0.60	-0.750			
0.8440	54014.29	3.3640	3.3639	-0.5942	26.37	0.60	-0.750			
0.8457	54127.92	3.3610	3.3610	-0.5715	26.38	0.61	-0.750			
0.8474	54235.80	3.3580	3.3581	-0.5458	26.38	0.61	-0.750			
0.8490	54338.05	3.3550	3.3550	-0.5207	26.39	0.62	-0.750			
0.8506	54435.51	3.3520	3.3519	-0.4970	26.39	0.62	-0.750			
0.8520	54526.46	3.3490	3.3491	-0.4737	26.40	0.63	-0.750			
0.8534	54615.50	3.3460	3.3460	-0.4555	26.40	0.63	-0.750			
0.8547	54701.01	3.3430	3.3429	-0.4364	26.41	0.64	-0.750			
0.8560	54783.80	3.3400	3.3400	-0.4207	26.41	0.64	-0.750			
0.8572	54862.42	3.3370	3.3371	-0.4039	26.42	0.65	-0.750			
0.8584	54937.91	3.3340	3.3339	-0.3881	26.42	0.65	-0.750			
0.8595	55009.98	3.3310	3.3310	-0.3732	26.43	0.66	-0.750			
0.8606	55080.50	3.3280	3.3280	-0.3603	26.43	0.66	-0.750			
0.8617	55149.23	3.3250	3.3249	-0.3467	26.44	0.67	-0.750			
0.8627	55214.21	3.3220	3.3221	-0.3346	26.44	0.67	-0.750			
0.8637	55276.69	3.3190	3.3191	-0.3228	26.45	0.68	-0.750			
0.8646	55337.03	3.3160	3.3160	-0.3130	26.45	0.68	-0.750			
0.8656	55395.54	3.3130	3.3128	-0.3016	26.46	0.69	-0.750			
0.8664	55452.71	3.3100	3.3101	-0.2920	26.47	0.70	-0.750			
0.8673	55508.20	3.3070	3.3069	-0.2848	26.47	0.70	-0.750			
0.8682	55562.25	3.3040	3.3041	-0.2759	26.48	0.71	-0.750			
0.8690	55613.90	3.3010	3.3009	-0.2648	26.48	0.71	-0.750			
0.8697	55663.41	3.2980	3.2980	-0.2587	26.49	0.72	-0.750			
0.8705	55712.01	3.2950	3.2951	-0.2502	26.49	0.72	-0.750			
0.8712	55759.56	3.2920	3.2920	-0.2452	26.50	0.73	-0.750			
0.8720	55806.53	3.2890	3.2890	-0.2397	26.50	0.73	-0.750			
0.8727	55852.00	3.2860	3.2861	-0.2336	26.51	0.74	-0.750			
0.8734	55896.07	3.2830	3.2829	-0.2274	26.51	0.74	-0.750			
0.8741	55939.27	3.2800	3.2800	-0.2226	26.51	0.74	-0.750			
0.8747	55981.11	3.2770	3.2770	-0.2162	26.52	0.75	-0.750			
0.8753	56021.92	3.2740	3.2740	-0.2108	26.52	0.75	-0.750			
0.8760	56062.15	3.2710	3.2710	-0.2064	26.53	0.76	-0.750			
0.8766	56101.11	3.2680	3.2681	-0.2022	26.53	0.76	-0.750			
0.8772	56139.14	3.2650	3.2650	-0.1977	26.54	0.77	-0.750			
0.8778	56176.75	3.2620	3.2620	-0.1941	26.54	0.77	-0.750			
0.8783	56213.52	3.2590	3.2590	-0.1904	26.55	0.78	-0.750			
0.8789	56249.54	3.2560	3.2560	-0.1870	26.55	0.78	-0.750			
0.8795	56285.29	3.2530	3.2530	-0.1843	26.56	0.79	-0.750			
0.8800	56320.40	3.2500	3.2500	-0.1810	26.56	0.79	-0.750			
0.8805	56355.02	3.2470	3.2470	-0.1774	26.57	0.80	-0.750			
0.8811	56388.33	3.2440	3.2441	-0.1746	26.57	0.80	-0.750			
0.8816	56421.49	3.2410	3.2410	-0.1719	26.58	0.81	-0.750			
0.8821	56454.30	3.2380	3.2381	-0.1693	26.58	0.81	-0.750			
0.8826	56486.52	3.2350	3.2349	-0.1669	26.58	0.81	-0.750			
0.8831	56518.26	3.2320	3.2321	-0.1643	26.59	0.82	-0.750			
0.8836	56549.60	3.2290	3.2290	-0.1622	26.59	0.82	-0.750			
0.8841	56580.54	3.2260	3.2261	-0.1608	26.60	0.83	-0.750			
0.8846	56611.26	3.2230	3.2230	-0.1594	26.60	0.83	-0.750			
0.8850	56641.47	3.2200	3.2200	-0.1567	26.60	0.83	-0.750			
0.8855	56671.44	3.2170	3.2170	-0.1554	26.61	0.84	-0.750			
0.8860	56701.49	3.2140	3.2141	-0.1530	26.61	0.84	-0.750			
0.8864	56730.70	3.2110	3.2110	-0.1511	26.62	0.85	-0.750			
0.8869	56759.65	3.2080	3.2079	-0.1488	26.62	0.85	-0.750			
0.8873	56787.82	3.2050	3.2051	-0.1470	26.62	0.85	-0.750			
0.8877	56815.39	3.2020	3.2019	-0.1453	26.62	0.85	-0.750			
0.8882	56842.92	3.1990	3.1990	-0.1439	26.63	0.86	-0.750			
0.8886	56870.42	3.1960	3.1960	-0.1431	26.63	0.86	-0.750			
0.8890	56898.00	3.1930	3.1930	-0.1417	26.64	0.87	-0.750			
0.8895	56925.34	3.1900	3.1901	-0.1407	26.64	0.87	-0.750			
0.8899	56952.33	3.1870	3.1870	-0.1388	26.65	0.88	-0.750			
0.8903	56978.78	3.1840	3.1840	-0.1367	26.65	0.88	-0.750			
0.8907	57004.78	3.1810	3.1809	-0.1356	26.66	0.89	-0.750			
0.8911	57030.49	3.1780	3.1780	-0.1341	26.66	0.89	-0.750			
0.8915	57055.96	3.1750	3.1750	-0.1327	26.67	0.90	-0.750			
0.8919	57081.37	3.1720	3.1719	-0.1319	26.67	0.90	-0.750			
0.8923	57106.73	3.1690	3.1690	-0.1308	26.68	0.91	-0.750			
0.8927	57131.70	3.1660	3.1660	-0.1296	26.68	0.91	-0.750			
0.8931	57156.67	3.1630	3.1630	-0.1290	26.69	0.92	-0.750			
