Ah_balance (normalized)	Ah_balance (mAh)	Voltage - fit (V)	Voltage -  interpolate (V)	dQ/dV (1/V)	Temperature (°C)	Temperature - diff (°C)	Current (C)	R_DC 0ms (mOhm)	R_DC 50ms (mOhm)	R_DC 50 ms PEC (mOhm)
0.0003	19.49	4.1660	4.1657	-0.1301	25.52	0.02	-0.750			
0.0008	48.97	4.1630	4.1629	-0.1780	25.52	0.02	-0.750			
0.0014	88.53	4.1600	4.1599	-0.2259	25.52	0.02	-0.750			
0.0021	136.40	4.1570	4.1571	-0.2718	25.52	0.02	-0.750			
0.0030	193.36	4.1540	4.1540	-0.3158	25.52	0.02	-0.750			
0.0040	259.06	4.1510	4.1510	-0.3610	25.51	0.01	-0.750			
0.0052	332.75	4.1480	4.1480	-0.4052	25.51	0.01	-0.750			
0.0065	415.60	4.1450	4.1450	-0.4431	25.51	0.01	-0.750			
0.0079	505.44	4.1420	4.1419	-0.4814	25.50	0.00	-0.750			
0.0094	601.93	4.1390	4.1393	-0.5162	25.50	-0.00	-0.750			
0.0110	704.84	4.1360	4.1359	-0.5495	25.50	-0.00	-0.750			
0.0127	814.37	4.1330	4.1330	-0.5760	25.49	-0.01	-0.750			
0.0145	928.03	4.1300	4.1300	-0.5996	25.49	-0.01	-0.750			
0.0164	1047.73	4.1270	4.1270	-0.6251	25.48	-0.02	-0.750			
0.0183	1170.36	4.1240	4.1240	-0.6432	25.48	-0.02	-0.750			
0.0202	1295.41	4.1210	4.1210	-0.6605	25.47	-0.03	-0.750			
0.0223	1424.17	4.1180	4.1181	-0.6724	25.47	-0.03	-0.750			
0.0243	1555.01	4.1150	4.1151	-0.6842	25.47	-0.03	-0.750			
0.0264	1687.15	4.1120	4.1120	-0.6992	25.46	-0.04	-0.750			
0.0285	1824.19	4.1090	4.1090	-0.7039	25.46	-0.04	-0.750			
0.0306	1961.20	4.1060	4.1059	-0.7109	25.46	-0.04	-0.750			
0.0328	2097.34	4.1030	4.1030	-0.7128	25.45	-0.05	-0.750			
0.0349	2235.03	4.1000	4.1002	-0.7170	25.45	-0.05	-0.750			
0.0371	2373.07	4.0970	4.0969	-0.7247	25.45	-0.05	-0.750			
0.0393	2512.36	4.0940	4.0940	-0.7317	25.45	-0.05	-0.750			
0.0415	2652.84	4.0910	4.0910	-0.7344	25.44	-0.06	-0.750			
0.0437	2797.05	4.0880	4.0880	-0.7439	25.44	-0.06	-0.750			
0.0460	2940.92	4.0850	4.0849	-0.7484	25.44	-0.06	-0.750			
0.0482	3084.23	4.0820	4.0818	-0.7514	25.44	-0.06	-0.750			
0.0504	3228.43	4.0790	4.0789	-0.7535	25.44	-0.06	-0.750			
0.0527	3371.45	4.0760	4.0760	-0.7553	25.44	-0.06	-0.750			
0.0550	3516.91	4.0730	4.0730	-0.7533	25.44	-0.06	-0.750			
0.0573	3664.76	4.0700	4.0701	-0.7639	25.44	-0.06	-0.750			
0.0595	3810.72	4.0670	4.0671	-0.7679	25.44	-0.06	-0.750			
0.0618	3957.96	4.0640	4.0638	-0.7705	25.44	-0.06	-0.750			
0.0642	4106.78	4.0610	4.0610	-0.7754	25.44	-0.06	-0.750			
0.0665	4255.55	4.0580	4.0580	-0.7813	25.43	-0.07	-0.750			
0.0689	4407.85	4.0550	4.0550	-0.7880	25.43	-0.07	-0.750			
0.0713	4561.28	4.0520	4.0518	-0.7857	25.43	-0.07	-0.750			
0.0736	4709.49	4.0490	4.0490	-0.7860	25.43	-0.07	-0.750			
0.0759	4859.70	4.0460	4.0461	-0.7946	25.43	-0.07	-0.750			
0.0783	5013.74	4.0430	4.0429	-0.7923	25.42	-0.08	-0.750			
0.0807	5165.77	4.0400	4.0399	-0.7919	25.42	-0.08	-0.750			
0.0831	5317.51	4.0370	4.0371	-0.7932	25.42	-0.08	-0.750			
0.0855	5469.30	4.0340	4.0340	-0.8017	25.42	-0.08	-0.750			
0.0879	5624.07	4.0310	4.0309	-0.8099	25.43	-0.07	-0.750			
0.0903	5779.87	4.0280	4.0279	-0.8056	25.43	-0.07	-0.750			
0.0927	5935.56	4.0250	4.0250	-0.8057	25.43	-0.07	-0.750			
0.0952	6092.72	4.0220	4.0220	-0.8114	25.44	-0.06	-0.750			
0.0976	6248.00	4.0190	4.0190	-0.8106	25.44	-0.06	-0.750			
0.1000	6401.61	4.0160	4.0160	-0.8133	25.44	-0.06	-0.750			
0.1024	6555.35	4.0130	4.0129	-0.8085	25.44	-0.06	-0.750			
0.1049	6712.47	4.0100	4.0100	-0.8092	25.44	-0.06	-0.750			
0.1073	6869.78	4.0070	4.0070	-0.8141	25.44	-0.06	-0.750			
0.1098	7027.07	4.0040	4.0041	-0.8107	25.44	-0.06	-0.750			
0.1122	7181.29	4.0010	4.0008	-0.8052	25.44	-0.06	-0.750			
0.1146	7334.42	3.9980	3.9981	-0.8095	25.44	-0.06	-0.750			
0.1170	7490.62	3.9950	3.9949	-0.8096	25.44	-0.06	-0.750			
0.1195	7647.20	3.9920	3.9919	-0.8176	25.44	-0.06	-0.750			
0.1219	7804.16	3.9890	3.9894	-0.8175	25.44	-0.06	-0.750			
0.1244	7960.68	3.9860	3.9859	-0.8186	25.44	-0.06	-0.750			
0.1269	8118.70	3.9830	3.9830	-0.8251	25.45	-0.05	-0.750			
0.1293	8275.29	3.9800	3.9800	-0.8258	25.45	-0.05	-0.750			
0.1318	8437.10	3.9770	3.9769	-0.8356	25.46	-0.04	-0.750			
0.1343	8597.70	3.9740	3.9741	-0.8325	25.46	-0.04	-0.750			
0.1368	8757.22	3.9710	3.9710	-0.8307	25.46	-0.04	-0.750			
0.1393	8916.82	3.9680	3.9681	-0.8403	25.46	-0.04	-0.750			
0.1418	9077.83	3.9650	3.9650	-0.8398	25.46	-0.04	-0.750			
0.1444	9240.37	3.9620	3.9618	-0.8417	25.46	-0.04	-0.750			
0.1469	9402.50	3.9590	3.9593	-0.8375	25.46	-0.04	-0.750			
0.1494	9564.32	3.9560	3.9560	-0.8394	25.46	-0.04	-0.750			
0.1520	9725.11	3.9530	3.9530	-0.8452	25.46	-0.04	-0.750			
0.1545	9885.57	3.9500	3.9499	-0.8422	25.47	-0.03	-0.750			
0.1570	10047.58	3.9470	3.9468	-0.8474	25.47	-0.03	-0.750			
0.1596	10211.95	3.9440	3.9444	-0.8501	25.47	-0.03	-0.750			
0.1621	10377.20	3.9410	3.9409	-0.8530	25.47	-0.03	-0.750			
0.1647	10540.81	3.9380	3.9380	-0.8554	25.47	-0.03	-0.750			
0.1672	10702.87	3.9350	3.9351	-0.8501	25.48	-0.02	-0.750			
0.1698	10868.00	3.9320	3.9319	-0.8577	25.48	-0.02	-0.750			
0.1724	11031.91	3.9290	3.9291	-0.8608	25.48	-0.02	-0.750			
0.1749	11196.12	3.9260	3.9259	-0.8632	25.49	-0.01	-0.750			
0.1775	11362.46	3.9230	3.9230	-0.8690	25.49	-0.01	-0.750			
0.1802	11531.20	3.9200	3.9201	-0.8694	25.49	-0.01	-0.750			
0.1828	11699.50	3.9170	3.9170	-0.8732	25.50	-0.00	-0.750			
0.1854	11866.62	3.9140	3.9141	-0.8772	25.50	0.00	-0.750			
0.1880	12034.29	3.9110	3.9110	-0.8779	25.50	0.00	-0.750			
0.1907	12202.68	3.9080	3.9079	-0.8809	25.51	0.01	-0.750			
0.1933	12372.65	3.9050	3.9050	-0.8821	25.51	0.01	-0.750			
0.1960	12543.08	3.9020	3.9021	-0.8815	25.51	0.01	-0.750			
0.1986	12713.28	3.8990	3.8989	-0.8878	25.51	0.01	-0.750			
0.2013	12882.93	3.8960	3.8960	-0.8830	25.51	0.01	-0.750			
0.2039	13049.94	3.8930	3.8931	-0.8786	25.52	0.02	-0.750			
0.2066	13219.34	3.8900	3.8899	-0.8821	25.52	0.02	-0.750			
0.2092	13389.71	3.8870	3.8872	-0.8849	25.52	0.02	-0.750			
0.2119	13559.13	3.8840	3.8840	-0.8929	25.52	0.02	-0.750			
0.2146	13732.60	3.8810	3.8810	-0.8935	25.52	0.02	-0.750			
0.2173	13904.02	3.8780	3.8780	-0.8915	25.52	0.02	-0.750			
0.2199	14076.34	3.8750	3.8749	-0.8923	25.52	0.02	-0.750			
0.2226	14246.72	3.8720	3.8722	-0.8901	25.52	0.02	-0.750			
0.2253	14416.78	3.8690	3.8690	-0.8917	25.53	0.03	-0.750			
0.2279	14587.21	3.8660	3.8660	-0.8918	25.53	0.03	-0.750			
0.2306	14757.88	3.8630	3.8630	-0.8879	25.53	0.03	-0.750			
0.2333	14930.28	3.8600	3.8599	-0.8952	25.54	0.04	-0.750			
0.2360	15101.93	3.8570	3.8570	-0.8986	25.54	0.04	-0.750			
0.2387	15274.99	3.8540	3.8540	-0.8996	25.55	0.05	-0.750			
0.2414	15446.69	3.8510	3.8509	-0.8992	25.55	0.05	-0.750			
0.2441	15619.75	3.8480	3.8480	-0.9010	25.56	0.06	-0.750			
0.2468	15794.71	3.8450	3.8451	-0.9017	25.56	0.06	-0.750			
0.2495	15966.48	3.8420	3.8420	-0.9094	25.56	0.06	-0.750			
0.2522	16138.99	3.8390	3.8391	-0.9139	25.56	0.06	-0.750			
0.2549	16315.31	3.8360	3.8359	-0.9231	25.56	0.06	-0.750			
0.2577	16495.50	3.8330	3.8329	-0.9279	25.56	0.06	-0.750			
0.2605	16674.80	3.8300	3.8301	-0.9304	25.56	0.06	-0.750			
0.2634	16857.51	3.8270	3.8270	-0.9317	25.57	0.07	-0.750			
0.2662	17035.88	3.8240	3.8240	-0.9264	25.57	0.07	-0.750			
0.2689	17209.52	3.8210	3.8210	-0.9116	25.58	0.08	-0.750			
0.2716	17385.06	3.8180	3.8180	-0.9093	25.58	0.08	-0.750			
0.2744	17558.51	3.8150	3.8150	-0.9077	25.58	0.08	-0.750			
0.2771	17732.29	3.8120	3.8120	-0.9086	25.58	0.08	-0.750			
0.2798	17906.25	3.8090	3.8090	-0.9090	25.59	0.09	-0.750			
0.2825	18081.47	3.8060	3.8060	-0.9095	25.59	0.09	-0.750			
0.2852	18255.08	3.8030	3.8030	-0.9132	25.59	0.09	-0.750			
0.2880	18431.81	3.8000	3.8001	-0.9221	25.59	0.09	-0.750			
0.2908	18609.24	3.7970	3.7969	-0.9263	25.60	0.10	-0.750			
0.2936	18789.24	3.7940	3.7940	-0.9238	25.60	0.10	-0.750			
0.2963	18966.19	3.7910	3.7911	-0.9222	25.60	0.10	-0.750			
0.2991	19142.42	3.7880	3.7880	-0.9260	25.60	0.10	-0.750			
0.3019	19322.16	3.7850	3.7849	-0.9205	25.61	0.11	-0.750			
0.3046	19497.08	3.7820	3.7819	-0.9152	25.61	0.11	-0.750			
0.3074	19671.56	3.7790	3.7789	-0.9129	25.62	0.12	-0.750			
0.3101	19847.45	3.7760	3.7761	-0.9162	25.62	0.12	-0.750			
0.3129	20024.22	3.7730	3.7729	-0.9165	25.62	0.12	-0.750			
0.3156	20200.46	3.7700	3.7700	-0.9060	25.62	0.12	-0.750			
0.3183	20372.08	3.7670	3.7670	-0.8991	25.62	0.12	-0.750			
0.3210	20546.59	3.7640	3.7641	-0.9048	25.62	0.12	-0.750			
0.3237	20715.60	3.7610	3.7612	-0.9073	25.62	0.12	-0.750			
0.3264	20889.98	3.7580	3.7579	-0.9128	25.63	0.13	-0.750			
0.3292	21066.91	3.7550	3.7550	-0.9126	25.63	0.13	-0.750			
0.3319	21244.01	3.7520	3.7519	-0.9204	25.64	0.14	-0.750			
0.3348	21424.28	3.7490	3.7492	-0.9289	25.64	0.14	-0.750			
0.3375	21600.90	3.7460	3.7460	-0.9291	25.64	0.14	-0.750			
0.3403	21777.87	3.7430	3.7429	-0.9278	25.64	0.14	-0.750			
0.3431	21955.26	3.7400	3.7399	-0.9320	25.64	0.14	-0.750			
0.3459	22135.10	3.7370	3.7371	-0.9426	25.64	0.14	-0.750			
0.3487	22316.55	3.7340	3.7339	-0.9504	25.64	0.14	-0.750			
0.3516	22500.24	3.7310	3.7310	-0.9536	25.65	0.15	-0.750			
0.3544	22684.24	3.7280	3.7280	-0.9584	25.66	0.16	-0.750			
0.3573	22866.78	3.7250	3.7250	-0.9636	25.67	0.17	-0.750			
0.3602	23054.53	3.7220	3.7220	-0.9732	25.67	0.17	-0.750			
0.3632	23241.88	3.7190	3.7189	-0.9902	25.67	0.17	-0.750			
0.3662	23433.95	3.7160	3.7159	-0.9962	25.67	0.17	-0.750			
0.3691	23625.57	3.7130	3.7129	-1.0087	25.67	0.17	-0.750			
0.3722	23820.71	3.7100	3.7104	-1.0281	25.67	0.17	-0.750			
0.3753	24019.19	3.7070	3.7069	-1.0402	25.67	0.17	-0.750			
0.3784	24219.61	3.7040	3.7039	-1.0516	25.66	0.16	-0.750			
0.3816	24420.78	3.7010	3.7010	-1.0661	25.66	0.16	-0.750			
0.3848	24628.76	3.6980	3.6982	-1.0981	25.66	0.16	-0.750			
0.3882	24841.72	3.6950	3.6950	-1.1143	25.66	0.16	-0.750			
0.3915	25057.17	3.6920	3.6919	-1.1259	25.67	0.17	-0.750			
0.3949	25274.20	3.6890	3.6890	-1.1521	25.67	0.17	-0.750			
0.3984	25497.67	3.6860	3.6860	-1.1779	25.67	0.17	-0.750			
0.4020	25726.42	3.6830	3.6829	-1.2006	25.67	0.17	-0.750			
0.4056	25958.84	3.6800	3.6800	-1.2203	25.66	0.16	-0.750			
0.4093	26194.28	3.6770	3.6771	-1.2514	25.66	0.16	-0.750			
0.4131	26440.81	3.6740	3.6740	-1.2822	25.66	0.16	-0.750			
0.4170	26690.78	3.6710	3.6709	-1.3063	25.65	0.15	-0.750			
0.4209	26940.71	3.6680	3.6682	-1.3370	25.65	0.15	-0.750			
0.4250	27202.64	3.6650	3.6649	-1.3613	25.64	0.14	-0.750			
0.4291	27464.26	3.6620	3.6619	-1.4062	25.64	0.14	-0.750			
0.4334	27737.61	3.6590	3.6591	-1.4354	25.63	0.13	-0.750			
0.4377	28015.60	3.6560	3.6559	-1.4694	25.63	0.13	-0.750			
0.4423	28304.90	3.6530	3.6533	-1.5217	25.62	0.12	-0.750			
0.4469	28601.06	3.6500	3.6500	-1.5516	25.62	0.12	-0.750			
0.4516	28899.69	3.6470	3.6470	-1.5871	25.61	0.11	-0.750			
0.4565	29214.14	3.6440	3.6439	-1.6228	25.60	0.10	-0.750			
0.4613	29523.28	3.6410	3.6410	-1.6782	25.60	0.10	-0.750			
0.4665	29856.69	3.6380	3.6380	-1.7110	25.59	0.09	-0.750			
0.4717	30186.51	3.6350	3.6350	-1.7393	25.59	0.09	-0.750			
0.4770	30525.96	3.6320	3.6317	-1.7733	25.58	0.08	-0.750	0.405	0.484	
0.4824	30870.45	3.6290	3.6289	-1.8110	25.57	0.07	-0.750			
0.4878	31217.10	3.6260	3.6258	-1.8418	25.57	0.07	-0.750			
0.4934	31574.93	3.6230	3.6234	-1.8857	25.56	0.06	-0.750			
0.4991	31939.43	3.6200	3.6199	-1.8975	25.56	0.06	-0.750			
0.5049	32311.47	3.6170	3.6171	-1.9421	25.55	0.05	-0.750			
0.5107	32684.65	3.6140	3.6141	-1.9808	25.54	0.04	-0.750			
0.5168	33072.22	3.6110	3.6109	-2.0204	25.53	0.03	-0.750			
0.5229	33463.69	3.6080	3.6081	-2.0359	25.53	0.03	-0.750			
0.5290	33855.96	3.6050	3.6050	-2.0759	25.52	0.02	-0.750			
0.5353	34258.66	3.6020	3.6021	-2.1101	25.52	0.02	-0.750			
0.5417	34671.35	3.5990	3.5990	-2.1566	25.51	0.01	-0.750			
0.5482	35083.98	3.5960	3.5959	-2.1867	25.50	-0.00	-0.750			
0.5548	35504.20	3.5930	3.5930	-2.2257	25.49	-0.01	-0.750			
0.5617	35950.18	3.5900	3.5901	-2.2345	25.49	-0.01	-0.750			
0.5685	36385.84	3.5870	3.5871	-2.2532	25.48	-0.02	-0.750			
0.5753	36816.13	3.5840	3.5841	-2.2504	25.48	-0.02	-0.750			
0.5819	37241.64	3.5810	3.5811	-2.2538	25.48	-0.02	-0.750			
0.5885	37666.56	3.5780	3.5778	-2.3147	25.48	-0.02	-0.750			
0.5955	38109.35	3.5750	3.5750	-2.3755	25.47	-0.03	-0.750			
0.6027	38574.83	3.5720	3.5718	-2.4297	25.47	-0.03	-0.750			
0.6103	39058.00	3.5690	3.5692	-2.4755	25.47	-0.03	-0.750			
0.6180	39549.89	3.5660	3.5660	-2.4946	25.47	-0.03	-0.750			
0.6254	40028.51	3.5630	3.5630	-2.4970	25.47	-0.03	-0.750			
0.6329	40503.02	3.5600	3.5600	-2.4535	25.47	-0.03	-0.750			
0.6402	40972.79	3.5570	3.5570	-2.4404	25.47	-0.03	-0.750			
0.6475	41439.95	3.5540	3.5542	-2.4288	25.46	-0.04	-0.750			
0.6548	41909.46	3.5510	3.5511	-2.4196	25.47	-0.03	-0.750			
0.6621	42375.61	3.5480	3.5477	-2.3913	25.47	-0.03	-0.750			
0.6692	42829.65	3.5450	3.5449	-2.3560	25.48	-0.02	-0.750			
0.6763	43280.64	3.5420	3.5421	-2.3210	25.48	-0.02	-0.750			
0.6833	43729.68	3.5390	3.5391	-2.2855	25.48	-0.02	-0.750			
0.6900	44161.02	3.5360	3.5359	-2.2383	25.49	-0.01	-0.750			
0.6967	44587.74	3.5330	3.5331	-2.1930	25.50	-0.00	-0.750			
0.7032	45007.66	3.5300	3.5303	-2.1610	25.51	0.01	-0.750			
0.7096	45417.28	3.5270	3.5271	-2.1189	25.52	0.02	-0.750			
0.7160	45823.93	3.5240	3.5240	-2.0464	25.53	0.03	-0.750			
0.7221	46216.84	3.5210	3.5209	-1.9806	25.53	0.03	-0.750			
0.7280	46594.14	3.5180	3.5180	-1.9151	25.55	0.05	-0.750			
0.7336	46950.99	3.5150	3.5148	-1.8444	25.56	0.06	-0.750			
0.7390	47296.90	3.5120	3.5120	-1.7795	25.57	0.07	-0.750			
0.7442	47627.81	3.5090	3.5088	-1.7069	25.58	0.08	-0.750			
0.7493	47952.74	3.5060	3.5063	-1.6436	25.60	0.10	-0.750			
0.7542	48267.31	3.5030	3.5030	-1.5799	25.61	0.11	-0.750			
0.7588	48560.54	3.5000	3.5001	-1.5201	25.62	0.12	-0.750			
0.7632	48842.21	3.4970	3.4969	-1.4555	25.64	0.14	-0.750			
0.7674	49115.82	3.4940	3.4938	-1.4150	25.65	0.15	-0.750			
0.7715	49378.91	3.4910	3.4913	-1.3693	25.67	0.17	-0.750			
0.7756	49639.21	3.4880	3.4879	-1.3351	25.69	0.19	-0.750			
0.7797	49899.58	3.4850	3.4850	-1.2982	25.70	0.20	-0.750			
0.7835	50144.19	3.4820	3.4821	-1.2488	25.72	0.22	-0.750			
0.7872	50381.13	3.4790	3.4790	-1.2079	25.73	0.23	-0.750			
0.7907	50607.69	3.4760	3.4759	-1.1580	25.75	0.25	-0.750			
0.7941	50823.28	3.4730	3.4729	-1.1039	25.76	0.26	-0.750			
0.7973	51028.57	3.4700	3.4702	-1.0672	25.77	0.27	-0.750			
0.8005	51229.07	3.4670	3.4670	-1.0345	25.78	0.28	-0.750			
0.8035	51422.91	3.4640	3.4639	-1.0070	25.79	0.29	-0.750			
0.8064	51609.88	3.4610	3.4611	-0.9807	25.80	0.30	-0.750			
0.8093	51797.18	3.4580	3.4582	-0.9791	25.81	0.31	-0.750			
0.8122	51980.31	3.4550	3.4549	-0.9799	25.82	0.32	-0.750			
0.8151	52165.00	3.4520	3.4521	-0.9885	25.83	0.33	-0.750			
0.8180	52351.80	3.4490	3.4490	-1.0138	25.84	0.34	-0.750			
0.8210	52546.27	3.4460	3.4460	-1.0578	25.85	0.35	-0.750			
0.8243	52754.57	3.4430	3.4429	-1.1150	25.86	0.36	-0.750			
0.8277	52972.44	3.4400	3.4398	-1.1684	25.87	0.37	-0.750			
0.8313	53202.56	3.4370	3.4369	-1.2217	25.88	0.38	-0.750			
0.8351	53445.24	3.4340	3.4342	-1.2594	25.89	0.39	-0.750			
0.8391	53703.01	3.4310	3.4308	-1.2793	25.91	0.41	-0.750			
0.8430	53953.78	3.4280	3.4280	-1.2700	25.92	0.42	-0.750			
0.8468	54196.35	3.4250	3.4253	-1.2465	25.93	0.43	-0.750			
0.8506	54440.40	3.4220	3.4219	-1.2140	25.94	0.44	-0.750			
0.8542	54669.19	3.4190	3.4189	-1.1682	25.94	0.44	-0.750			
0.8576	54884.93	3.4160	3.4160	-1.1201	25.95	0.45	-0.750			
0.8609	55097.68	3.4130	3.4128	-1.0860	25.95	0.45	-0.750			
0.8641	55302.24	3.4100	3.4099	-1.0374	25.96	0.46	-0.750			
0.8671	55496.21	3.4070	3.4070	-0.9899	25.96	0.46	-0.750			
0.8700	55678.62	3.4040	3.4041	-0.9530	25.97	0.47	-0.750			
0.8729	55862.51	3.4010	3.4010	-0.9172	25.97	0.47	-0.750			
0.8755	56030.25	3.3980	3.3979	-0.8836	25.98	0.48	-0.750			
0.8781	56196.70	3.3950	3.3950	-0.8543	25.99	0.49	-0.750			
0.8806	56357.85	3.3920	3.3921	-0.8241	26.00	0.50	-0.750			
0.8830	56515.16	3.3890	3.3889	-0.7954	26.01	0.51	-0.750			
0.8854	56664.90	3.3860	3.3860	-0.7638	26.01	0.51	-0.750			
0.8876	56807.19	3.3830	3.3830	-0.7302	26.02	0.52	-0.750			
0.8898	56946.09	3.3800	3.3799	-0.7059	26.03	0.53	-0.750			
0.8918	57075.44	3.3770	3.3770	-0.6706	26.03	0.53	-0.750			
0.8938	57203.12	3.3740	3.3740	-0.6441	26.04	0.54	-0.750			
0.8957	57323.97	3.3710	3.3710	-0.6197	26.05	0.55	-0.750			
0.8975	57439.81	3.3680	3.3680	-0.5937	26.05	0.55	-0.750			
0.8992	57550.70	3.3650	3.3650	-0.5683	26.06	0.56	-0.750			
0.9009	57657.57	3.3620	3.3620	-0.5447	26.06	0.56	-0.750			
0.9025	57759.56	3.3590	3.3590	-0.5201	26.07	0.57	-0.750			
0.9040	57857.76	3.3560	3.3560	-0.5000	26.07	0.57	-0.750			
0.9055	57951.79	3.3530	3.3530	-0.4788	26.08	0.58	-0.750			
0.9069	58040.31	3.3500	3.3500	-0.4564	26.08	0.58	-0.750			
0.9082	58125.72	3.3470	3.3469	-0.4353	26.09	0.59	-0.750			
0.9095	58207.99	3.3440	3.3441	-0.4152	26.09	0.59	-0.750			
0.9107	58285.89	3.3410	3.3409	-0.3967	26.10	0.60	-0.750			
0.9119	58359.81	3.3380	3.3381	-0.3781	26.10	0.60	-0.750			
0.9130	58430.34	3.3350	3.3351	-0.3605	26.11	0.61	-0.750			
0.9140	58496.84	3.3320	3.3319	-0.3450	26.11	0.61	-0.750			
0.9150	58561.49	3.3290	3.3290	-0.3310	26.12	0.62	-0.750			
0.9160	58623.44	3.3260	3.3260	-0.3189	26.12	0.62	-0.750			
0.9169	58683.35	3.3230	3.3231	-0.3068	26.13	0.63	-0.750			
0.9178	58741.39	3.3200	3.3199	-0.2941	26.13	0.63	-0.750			
0.9187	58796.95	3.3170	3.3170	-0.2822	26.14	0.64	-0.750			
0.9195	58849.63	3.3140	3.3140	-0.2698	26.14	0.64	-0.750			
0.9203	58900.05	3.3110	3.3110	-0.2575	26.14	0.64	-0.750			
0.9211	58948.00	3.3080	3.3081	-0.2478	26.15	0.65	-0.750			
0.9218	58994.00	3.3050	3.3050	-0.2384	26.15	0.65	-0.750			
0.9225	59039.08	3.3020	3.3019	-0.2300	26.15	0.65	-0.750			
0.9232	59082.67	3.2990	3.2989	-0.2227	26.16	0.66	-0.750			
0.9238	59124.37	3.2960	3.2961	-0.2154	26.16	0.66	-0.750			
0.9245	59165.58	3.2930	3.2930	-0.2080	26.17	0.67	-0.750			
0.9251	59204.90	3.2900	3.2900	-0.1999	26.17	0.67	-0.750			
0.9257	59242.16	3.2870	3.2868	-0.1934	26.18	0.68	-0.750			
0.9262	59277.89	3.2840	3.2841	-0.1869	26.18	0.68	-0.750			
0.9268	59312.90	3.2810	3.2810	-0.1815	26.18	0.68	-0.750			
0.9273	59347.30	3.2780	3.2779	-0.1768	26.19	0.69	-0.750			
0.9278	59380.59	3.2750	3.2750	-0.1728	26.19	0.69	-0.750			
0.9283	59413.26	3.2720	3.2720	-0.1676	26.19	0.69	-0.750			
0.9288	59445.45	3.2690	3.2690	-0.1646	26.20	0.70	-0.750			
0.9293	59476.59	3.2660	3.2660	-0.1597	26.20	0.70	-0.750			
0.9298	59506.56	3.2630	3.2630	-0.1553	26.20	0.70	-0.750			
0.9302	59535.84	3.2600	3.2600	-0.1514	26.20	0.70	-0.750			
0.9307	59564.14	3.2570	3.2570	-0.1479	26.21	0.71	-0.750			
0.9311	59592.27	3.2540	3.2540	-0.1451	26.21	0.71	-0.750			
0.9316	59619.68	3.2510	3.2510	-0.1415	26.21	0.71	-0.750			
0.9320	59646.82	3.2480	3.2480	-0.1388	26.22	0.72	-0.750			
0.9324	59673.11	3.2450	3.2450	-0.1355	26.22	0.72	-0.750			
0.9328	59698.71	3.2420	3.2421	-0.1331	26.22	0.72	-0.750			
0.9332	59724.05	3.2390	3.2389	-0.1305	26.22	0.72	-0.750			
0.9336	59748.75	3.2360	3.2361	-0.1277	26.23	0.73	-0.750			
0.9339	59772.63	3.2330	3.2329	-0.1249	26.23	0.73	-0.750			
0.9343	59796.46	3.2300	3.2301	-0.1233	26.23	0.73	-0.750			
0.9347	59820.13	3.2270	3.2270	-0.1217	26.23	0.73	-0.750			
0.9351	59843.29	3.2240	3.2239	-0.1197	26.24	0.74	-0.750			
0.9354	59866.06	3.2210	3.2211	-0.1178	26.24	0.74	-0.750			
0.9358	59888.36	3.2180	3.2180	-0.1158	26.25	0.75	-0.750			
0.9361	59910.50	3.2150	3.2150	-0.1139	26.25	0.75	-0.750			
0.9364	59932.39	3.2120	3.2120	-0.1123	26.25	0.75	-0.750			
0.9368	59953.65	3.2090	3.2090	-0.1105	26.26	0.76	-0.750			
0.9371	59974.57	3.2060	3.2061	-0.1085	26.26	0.76	-0.750			
0.9374	59995.15	3.2030	3.2029	-0.1072	26.26	0.76	-0.750			
0.9377	60015.48	3.2000	3.2000	-0.1056	26.27	0.77	-0.750			
0.9381	60035.62	3.1970	3.1971	-0.1044	26.27	0.77	-0.750			
0.9384	60055.43	3.1940	3.1940	-0.1031	26.27	0.77	-0.750			
0.9387	60075.17	3.1910	3.1910	-0.1017	26.28	0.78	-0.750			
0.9390	60094.67	3.1880	3.1879	-0.1005	26.28	0.78	-0.750			
0.9393	60113.87	3.1850	3.1850	-0.0990	26.28	0.78	-0.750			
0.9396	60132.84	3.1820	3.1821	-0.0976	26.29	0.79	-0.750			
0.9399	60151.33	3.1790	3.1791	-0.0964	26.29	0.79	-0.750			
0.9402	60169.62	3.1760	3.1760	-0.0949	26.29	0.79	-0.750			
0.9404	60187.58	3.1730	3.1730	-0.0944	26.30	0.80	-0.750			
0.9407	60205.39	3.1700	3.1700	-0.0934	26.30	0.80	-0.750			
0.9410	60223.38	3.1670	3.1670	-0.0923	26.30	0.80	-0.750			
0.9413	60241.02	3.1640	3.1640	-0.0915	26.30	0.80	-0.750			
