Ah_balance (normalized)	Ah_balance (mAh)	Voltage - fit (V)	Voltage -  interpolate (V)	dQ/dV (1/V)	Temperature (°C)	Temperature - diff (°C)	Current (C)	R_DC 0ms (mOhm)	R_DC 50ms (mOhm)	R_DC 50 ms PEC (mOhm)
0.0505	3231.61	4.1990	4.1990	0.7470	26.43	0.44	0.750			
0.0528	3378.81	4.1960	4.1960	0.7716	26.42	0.43	0.750			
0.0551	3524.29	4.1930	4.1929	0.7665	26.42	0.43	0.750			
0.0574	3671.79	4.1900	4.1901	0.7709	26.42	0.43	0.750			
0.0597	3820.72	4.1870	4.1870	0.7726	26.41	0.42	0.750			
0.0620	3969.52	4.1840	4.1840	0.7729	26.41	0.42	0.750			
0.0644	4119.59	4.1810	4.1811	0.7679	26.40	0.41	0.750			
0.0667	4265.93	4.1780	4.1780	0.7663	26.40	0.41	0.750			
0.0690	4413.19	4.1750	4.1751	0.7729	26.40	0.41	0.750			
0.0712	4558.79	4.1720	4.1720	0.7742	26.39	0.40	0.750			
0.0736	4707.62	4.1690	4.1690	0.7749	26.39	0.40	0.750			
0.0759	4856.97	4.1660	4.1661	0.7835	26.39	0.40	0.750			
0.0783	5009.65	4.1630	4.1630	0.7851	26.39	0.40	0.750			
0.0806	5161.18	4.1600	4.1599	0.7876	26.40	0.41	0.750			
0.0830	5311.18	4.1570	4.1570	0.7872	26.40	0.41	0.750			
0.0854	5462.47	4.1540	4.1538	0.7876	26.40	0.41	0.750			
0.0877	5613.64	4.1510	4.1510	0.7870	26.40	0.41	0.750			
0.0901	5767.98	4.1480	4.1480	0.7807	26.40	0.41	0.750			
0.0924	5915.14	4.1450	4.1451	0.7854	26.41	0.42	0.750			
0.0948	6066.66	4.1420	4.1420	0.7891	26.41	0.42	0.750			
0.0971	6215.86	4.1390	4.1390	0.7860	26.41	0.42	0.750			
0.0995	6366.74	4.1360	4.1361	0.7892	26.41	0.42	0.750			
0.1019	6520.01	4.1330	4.1330	0.7942	26.41	0.42	0.750			
0.1043	6673.23	4.1300	4.1301	0.7976	26.41	0.42	0.750			
0.1067	6828.36	4.1270	4.1269	0.8004	26.42	0.43	0.750			
0.1090	6977.71	4.1240	4.1241	0.7995	26.42	0.43	0.750			
0.1115	7133.24	4.1210	4.1210	0.8028	26.42	0.43	0.750			
0.1139	7287.95	4.1180	4.1179	0.8036	26.42	0.43	0.750			
0.1163	7443.30	4.1150	4.1150	0.7913	26.42	0.43	0.750			
0.1186	7591.93	4.1120	4.1120	0.7931	26.42	0.43	0.750			
0.1210	7742.95	4.1090	4.1092	0.7960	26.42	0.43	0.750			
0.1234	7895.86	4.1060	4.1054	0.8010	26.42	0.43	0.750			
0.1257	8047.45	4.1030	4.1031	0.8044	26.42	0.43	0.750			
0.1282	8205.81	4.1000	4.1001	0.8054	26.42	0.43	0.750			
0.1307	8362.41	4.0970	4.0971	0.8166	26.42	0.43	0.750			
0.1331	8518.06	4.0940	4.0941	0.8061	26.42	0.43	0.750			
0.1355	8674.37	4.0910	4.0906	0.8095	26.42	0.43	0.750			
0.1380	8829.14	4.0880	4.0882	0.8110	26.42	0.43	0.750			
0.1404	8985.33	4.0850	4.0850	0.8117	26.42	0.43	0.750			
0.1428	9140.46	4.0820	4.0820	0.8182	26.42	0.43	0.750			
0.1453	9297.20	4.0790	4.0790	0.8171	26.42	0.43	0.750			
0.1477	9454.71	4.0760	4.0759	0.8193	26.42	0.43	0.750			
0.1502	9614.99	4.0730	4.0730	0.8267	26.42	0.43	0.750			
0.1527	9774.64	4.0700	4.0701	0.8215	26.42	0.43	0.750			
0.1552	9931.81	4.0670	4.0670	0.8261	26.43	0.44	0.750			
0.1576	10089.25	4.0640	4.0641	0.8254	26.43	0.44	0.750			
0.1601	10247.06	4.0610	4.0607	0.8332	26.43	0.44	0.750			
0.1626	10407.79	4.0580	4.0582	0.8409	26.43	0.44	0.750			
0.1652	10571.17	4.0550	4.0550	0.8455	26.43	0.44	0.750			
0.1677	10735.52	4.0520	4.0521	0.8524	26.43	0.44	0.750			
0.1703	10898.69	4.0490	4.0490	0.8447	26.43	0.44	0.750			
0.1728	11061.24	4.0460	4.0460	0.8497	26.43	0.44	0.750			
0.1754	11225.07	4.0430	4.0430	0.8543	26.43	0.44	0.750			
0.1780	11388.80	4.0400	4.0400	0.8567	26.43	0.44	0.750			
0.1805	11554.05	4.0370	4.0369	0.8628	26.43	0.44	0.750			
0.1831	11720.74	4.0340	4.0341	0.8622	26.43	0.44	0.750			
0.1857	11886.10	4.0310	4.0309	0.8660	26.43	0.44	0.750			
0.1884	12055.22	4.0280	4.0280	0.8620	26.43	0.44	0.750			
0.1909	12218.98	4.0250	4.0249	0.8582	26.43	0.44	0.750			
0.1935	12381.37	4.0220	4.0221	0.8663	26.44	0.45	0.750			
0.1961	12548.69	4.0190	4.0192	0.8715	26.44	0.45	0.750			
0.1987	12716.26	4.0160	4.0157	0.8739	26.44	0.45	0.750			
0.2013	12885.56	4.0130	4.0131	0.8802	26.44	0.45	0.750			
0.2040	13053.44	4.0100	4.0101	0.8820	26.44	0.45	0.750			
0.2066	13224.96	4.0070	4.0069	0.8892	26.44	0.45	0.750			
0.2093	13395.34	4.0040	4.0040	0.8897	26.44	0.45	0.750			
0.2120	13565.59	4.0010	4.0009	0.8948	26.44	0.45	0.750			
0.2147	13739.49	3.9980	3.9981	0.8989	26.44	0.45	0.750			
0.2174	13913.11	3.9950	3.9950	0.9000	26.44	0.45	0.750			
0.2201	14086.33	3.9920	3.9920	0.9010	26.44	0.45	0.750			
0.2228	14259.38	3.9890	3.9887	0.9010	26.44	0.45	0.750			
0.2255	14433.61	3.9860	3.9860	0.8939	26.44	0.45	0.750			
0.2282	14601.77	3.9830	3.9831	0.8998	26.44	0.45	0.750			
0.2308	14774.37	3.9800	3.9800	0.9026	26.45	0.46	0.750			
0.2336	14948.70	3.9770	3.9770	0.9080	26.45	0.46	0.750			
0.2363	15121.59	3.9740	3.9739	0.9136	26.45	0.46	0.750			
0.2390	15297.96	3.9710	3.9712	0.9164	26.45	0.46	0.750			
0.2418	15475.59	3.9680	3.9680	0.9229	26.46	0.47	0.750			
0.2446	15654.30	3.9650	3.9650	0.9264	26.46	0.47	0.750			
0.2473	15830.16	3.9620	3.9620	0.9256	26.46	0.47	0.750			
0.2502	16011.02	3.9590	3.9590	0.9293	26.46	0.47	0.750			
0.2530	16189.71	3.9560	3.9560	0.9277	26.46	0.47	0.750			
0.2557	16367.72	3.9530	3.9530	0.9241	26.46	0.47	0.750			
0.2585	16544.55	3.9500	3.9501	0.9282	26.46	0.47	0.750			
0.2613	16720.36	3.9470	3.9470	0.9298	26.46	0.47	0.750			
0.2641	16899.53	3.9440	3.9440	0.9271	26.46	0.47	0.750			
0.2668	17075.96	3.9410	3.9410	0.9302	26.47	0.48	0.750			
0.2696	17255.92	3.9380	3.9381	0.9377	26.47	0.48	0.750			
0.2725	17437.03	3.9350	3.9349	0.9418	26.47	0.48	0.750			
0.2753	17621.31	3.9320	3.9320	0.9380	26.47	0.48	0.750			
0.2781	17798.76	3.9290	3.9290	0.9395	26.47	0.48	0.750			
0.2809	17978.34	3.9260	3.9261	0.9450	26.46	0.47	0.750			
0.2838	18161.11	3.9230	3.9231	0.9559	26.46	0.47	0.750			
0.2866	18342.41	3.9200	3.9200	0.9557	26.46	0.47	0.750			
0.2895	18527.68	3.9170	3.9171	0.9526	26.46	0.47	0.750			
0.2924	18712.05	3.9140	3.9141	0.9593	26.47	0.48	0.750			
0.2953	18897.88	3.9110	3.9111	0.9578	26.47	0.48	0.750			
0.2981	19080.99	3.9080	3.9077	0.9523	26.47	0.48	0.750			
0.3010	19264.65	3.9050	3.9051	0.9412	26.47	0.48	0.750			
0.3038	19443.70	3.9020	3.9020	0.9451	26.47	0.48	0.750			
0.3066	19624.95	3.8990	3.8991	0.9510	26.48	0.49	0.750			
0.3095	19806.22	3.8960	3.8959	0.9506	26.48	0.49	0.750			
0.3123	19989.30	3.8930	3.8931	0.9538	26.48	0.49	0.750			
0.3152	20173.91	3.8900	3.8901	0.9651	26.47	0.48	0.750			
0.3181	20359.62	3.8870	3.8870	0.9752	26.47	0.48	0.750			
0.3211	20550.39	3.8840	3.8841	0.9848	26.46	0.47	0.750			
0.3240	20737.73	3.8810	3.8810	0.9822	26.46	0.47	0.750			
0.3270	20927.92	3.8780	3.8781	0.9874	26.46	0.47	0.750			
0.3300	21119.54	3.8750	3.8750	0.9900	26.45	0.46	0.750			
0.3330	21309.82	3.8720	3.8720	0.9938	26.45	0.46	0.750			
0.3359	21499.69	3.8690	3.8690	0.9924	26.45	0.46	0.750			
0.3389	21689.70	3.8660	3.8660	0.9999	26.45	0.46	0.750			
0.3419	21881.23	3.8630	3.8631	1.0141	26.44	0.45	0.750			
0.3450	22076.81	3.8600	3.8600	1.0278	26.44	0.45	0.750			
0.3481	22275.25	3.8570	3.8570	1.0416	26.44	0.45	0.750			
0.3512	22478.06	3.8540	3.8540	1.0439	26.43	0.44	0.750			
0.3544	22678.72	3.8510	3.8511	1.0527	26.42	0.43	0.750			
0.3576	22883.29	3.8480	3.8481	1.0625	26.42	0.43	0.750			
0.3607	23087.85	3.8450	3.8448	1.0663	26.41	0.42	0.750			
0.3639	23290.58	3.8420	3.8420	1.0779	26.40	0.41	0.750			
0.3672	23497.88	3.8390	3.8390	1.0901	26.39	0.40	0.750			
0.3705	23710.04	3.8360	3.8360	1.1051	26.39	0.40	0.750			
0.3739	23927.44	3.8330	3.8329	1.1024	26.38	0.39	0.750			
0.3772	24138.67	3.8300	3.8301	1.1155	26.37	0.38	0.750			
0.3805	24352.65	3.8270	3.8270	1.1299	26.36	0.37	0.750			
0.3839	24570.25	3.8240	3.8241	1.1420	26.35	0.36	0.750			
0.3873	24789.23	3.8210	3.8211	1.1462	26.34	0.35	0.750			
0.3908	25012.35	3.8180	3.8181	1.1601	26.33	0.34	0.750			
0.3943	25237.41	3.8150	3.8150	1.1676	26.32	0.33	0.750			
0.3979	25466.67	3.8120	3.8119	1.1686	26.31	0.32	0.750			
0.4014	25687.31	3.8090	3.8091	1.1701	26.30	0.31	0.750			
0.4049	25910.86	3.8060	3.8060	1.1753	26.29	0.30	0.750			
0.4084	26136.75	3.8030	3.8030	1.1818	26.29	0.30	0.750			
0.4119	26363.46	3.8000	3.8001	1.1898	26.28	0.29	0.750			
0.4155	26592.99	3.7970	3.7970	1.2052	26.27	0.28	0.750			
0.4192	26826.85	3.7940	3.7940	1.2143	26.26	0.27	0.750			
0.4228	27062.27	3.7910	3.7908	1.2193	26.25	0.26	0.750			
0.4265	27294.90	3.7880	3.7881	1.2289	26.24	0.25	0.750			
0.4302	27533.22	3.7850	3.7850	1.2380	26.23	0.24	0.750			
0.4340	27774.72	3.7820	3.7819	1.2404	26.21	0.22	0.750			
0.4377	28010.19	3.7790	3.7790	1.2534	26.20	0.21	0.750			
0.4414	28248.48	3.7760	3.7761	1.2681	26.19	0.20	0.750			
0.4453	28496.73	3.7730	3.7730	1.2822	26.18	0.19	0.750			
0.4491	28743.16	3.7700	3.7698	1.3026	26.17	0.18	0.750			
0.4530	28989.34	3.7670	3.7671	1.3411	26.15	0.16	0.750			
0.4571	29253.64	3.7640	3.7641	1.3718	26.14	0.15	0.750			
0.4612	29519.11	3.7610	3.7608	1.4136	26.13	0.14	0.750	0.314	0.386	
0.4655	29793.94	3.7580	3.7582	1.4438	26.11	0.12	0.750			
0.4700	30080.53	3.7550	3.7551	1.4698	26.10	0.11	0.750			
0.4745	30366.76	3.7520	3.7521	1.4956	26.09	0.10	0.750			
0.4789	30650.59	3.7490	3.7491	1.5162	26.07	0.08	0.750			
0.4834	30940.41	3.7460	3.7461	1.5424	26.06	0.07	0.750			
0.4882	31242.32	3.7430	3.7430	1.5736	26.04	0.05	0.750			
0.4928	31542.16	3.7400	3.7398	1.6166	26.03	0.04	0.750			
0.4979	31862.89	3.7370	3.7368	1.6581	26.01	0.02	0.750			
0.5030	32191.54	3.7340	3.7339	1.7010	25.99	0.00	0.750			
0.5081	32517.57	3.7310	3.7310	1.7255	25.98	-0.01	0.750			
0.5133	32849.35	3.7280	3.7282	1.7657	25.96	-0.03	0.750			
0.5186	33192.47	3.7250	3.7248	1.8207	25.94	-0.05	0.750			
0.5242	33547.93	3.7220	3.7219	1.8879	25.93	-0.06	0.750			
0.5298	33907.64	3.7190	3.7192	1.9519	25.91	-0.08	0.750			
0.5358	34290.16	3.7160	3.7160	2.0279	25.90	-0.09	0.750			
0.5422	34697.80	3.7130	3.7130	2.0975	25.87	-0.12	0.750			
0.5486	35108.97	3.7100	3.7099	2.1494	25.85	-0.14	0.750			
0.5551	35528.01	3.7070	3.7070	2.2194	25.83	-0.16	0.750			
0.5618	35952.19	3.7040	3.7041	2.2929	25.82	-0.17	0.750			
0.5688	36401.99	3.7010	3.7009	2.3437	25.79	-0.20	0.750			
0.5758	36853.67	3.6980	3.6981	2.4049	25.77	-0.22	0.750			
0.5832	37325.28	3.6950	3.6951	2.4597	25.76	-0.23	0.750			
0.5908	37813.58	3.6920	3.6918	2.5295	25.74	-0.25	0.750			
0.5984	38299.23	3.6890	3.6889	2.5844	25.72	-0.27	0.750			
0.6062	38795.62	3.6860	3.6862	2.6993	25.70	-0.29	0.750			
0.6144	39324.06	3.6830	3.6829	2.7748	25.68	-0.31	0.750			
0.6230	39873.50	3.6800	3.6796	2.8679	25.66	-0.33	0.750			
0.6317	40431.07	3.6770	3.6772	2.9535	25.65	-0.34	0.750			
0.6409	41015.36	3.6740	3.6739	3.0064	25.63	-0.36	0.750			
0.6498	41589.64	3.6710	3.6710	3.0099	25.62	-0.37	0.750			
0.6594	42199.34	3.6680	3.6681	3.0960	25.60	-0.39	0.750			
0.6687	42794.93	3.6650	3.6649	3.0611	25.59	-0.40	0.750			
0.6780	43390.64	3.6620	3.6620	2.9953	25.58	-0.41	0.750			
0.6872	43981.49	3.6590	3.6590	2.8073	25.58	-0.41	0.750			
0.6951	44488.53	3.6560	3.6558	2.5205	25.58	-0.41	0.750			
0.7019	44919.56	3.6530	3.6535	2.2311	25.58	-0.41	0.750			
0.7082	45324.44	3.6500	3.6500	2.0058	25.58	-0.41	0.750			
0.7136	45669.20	3.6470	3.6470	1.8088	25.58	-0.41	0.750			
0.7187	45996.59	3.6440	3.6439	1.6582	25.59	-0.40	0.750			
0.7235	46305.56	3.6410	3.6409	1.5380	25.60	-0.39	0.750			
0.7280	46589.46	3.6380	3.6381	1.4260	25.60	-0.39	0.750			
0.7318	46836.74	3.6350	3.6351	1.3258	25.60	-0.39	0.750			
0.7356	47077.36	3.6320	3.6318	1.2455	25.60	-0.39	0.750			
0.7391	47300.70	3.6290	3.6290	1.2093	25.60	-0.39	0.750			
0.7426	47528.32	3.6260	3.6260	1.2034	25.60	-0.39	0.750			
0.7462	47756.82	3.6230	3.6230	1.2078	25.60	-0.39	0.750			
0.7498	47989.00	3.6200	3.6200	1.2131	25.60	-0.39	0.750			
0.7535	48222.56	3.6170	3.6171	1.2239	25.61	-0.38	0.750			
0.7572	48460.46	3.6140	3.6140	1.2274	25.61	-0.38	0.750			
0.7609	48699.96	3.6110	3.6109	1.2175	25.62	-0.37	0.750			
0.7646	48934.94	3.6080	3.6081	1.2085	25.62	-0.37	0.750			
0.7682	49166.95	3.6050	3.6050	1.1964	25.62	-0.37	0.750			
0.7718	49395.17	3.6020	3.6020	1.1802	25.62	-0.37	0.750			
0.7753	49616.58	3.5990	3.5991	1.1587	25.62	-0.37	0.750			
0.7787	49835.51	3.5960	3.5960	1.1578	25.63	-0.36	0.750			
0.7821	50054.09	3.5930	3.5931	1.1788	25.63	-0.36	0.750			
0.7856	50281.08	3.5900	3.5897	1.1902	25.64	-0.35	0.750			
0.7892	50508.49	3.5870	3.5870	1.2199	25.64	-0.35	0.750			
0.7929	50742.77	3.5840	3.5841	1.2633	25.64	-0.35	0.750			
0.7967	50991.55	3.5810	3.5810	1.2987	25.64	-0.35	0.750			
0.8007	51246.98	3.5780	3.5779	1.3512	25.64	-0.35	0.750			
0.8048	51507.10	3.5750	3.5750	1.3956	25.64	-0.35	0.750			
0.8091	51784.76	3.5720	3.5719	1.4291	25.64	-0.35	0.750			
0.8135	52066.78	3.5690	3.5692	1.4755	25.64	-0.35	0.750			
0.8180	52351.45	3.5660	3.5659	1.5014	25.64	-0.35	0.750			
0.8226	52643.73	3.5630	3.5629	1.5225	25.64	-0.35	0.750			
0.8271	52935.65	3.5600	3.5597	1.5546	25.64	-0.35	0.750			
0.8319	53243.24	3.5570	3.5571	1.5716	25.64	-0.35	0.750			
0.8367	53550.25	3.5540	3.5540	1.5870	25.64	-0.35	0.750			
0.8415	53856.34	3.5510	3.5513	1.6102	25.65	-0.34	0.750			
0.8464	54167.15	3.5480	3.5481	1.6201	25.66	-0.33	0.750			
0.8513	54482.56	3.5450	3.5450	1.6265	25.67	-0.32	0.750			
0.8561	54790.62	3.5420	3.5421	1.6707	25.67	-0.32	0.750			
0.8611	55111.49	3.5390	3.5389	1.6804	25.68	-0.31	0.750			
0.8662	55435.95	3.5360	3.5360	1.7436	25.69	-0.30	0.750			
0.8716	55781.58	3.5330	3.5329	1.7332	25.70	-0.29	0.750			
0.8770	56129.10	3.5300	3.5296	1.6830	25.71	-0.28	0.750			
0.8825	56477.37	3.5270	3.5274	1.5221	25.73	-0.26	0.750			
0.8872	56783.18	3.5240	3.5244	1.3249	25.75	-0.24	0.750			
0.8910	57024.20	3.5210	3.5214	1.0927	25.77	-0.22	0.750			
0.8935	57183.99	3.5180	3.5178	0.7970	25.78	-0.21	0.750			
0.8951	57285.31	3.5150	3.5147	0.5881	25.79	-0.20	0.750			
0.8964	57369.31	3.5120	3.5116	0.4587	25.80	-0.19	0.750			
0.8974	57434.92	3.5090	3.5090	0.3884	25.81	-0.18	0.750			
0.8985	57503.32	3.5060	3.5060	0.3521	25.81	-0.18	0.750			
0.8994	57564.54	3.5030	3.5029	0.3264	25.82	-0.17	0.750			
0.9004	57625.19	3.5000	3.5001	0.3127	25.83	-0.16	0.750			
0.9013	57682.31	3.4970	3.4970	0.3021	25.83	-0.16	0.750			
0.9022	57739.14	3.4940	3.4939	0.2925	25.84	-0.15	0.750			
0.9030	57794.73	3.4910	3.4910	0.2851	25.84	-0.15	0.750			
0.9039	57848.36	3.4880	3.4881	0.2781	25.85	-0.14	0.750			
0.9047	57901.80	3.4850	3.4851	0.2730	25.85	-0.14	0.750			
0.9055	57953.10	3.4820	3.4819	0.2663	25.86	-0.13	0.750			
0.9063	58002.98	3.4790	3.4790	0.2593	25.86	-0.13	0.750			
0.9071	58052.18	3.4760	3.4760	0.2535	25.87	-0.12	0.750			
0.9078	58100.56	3.4730	3.4730	0.2479	25.87	-0.12	0.750			
0.9086	58147.99	3.4700	3.4700	0.2437	25.88	-0.11	0.750			
0.9093	58193.64	3.4670	3.4671	0.2393	25.88	-0.11	0.750			
0.9100	58238.63	3.4640	3.4640	0.2349	25.89	-0.10	0.750			
0.9107	58283.28	3.4610	3.4612	0.2317	25.89	-0.10	0.750			
0.9114	58327.47	3.4580	3.4580	0.2274	25.89	-0.10	0.750			
0.9120	58370.98	3.4550	3.4551	0.2235	25.90	-0.09	0.750			
0.9127	58413.97	3.4520	3.4521	0.2201	25.90	-0.09	0.750			
0.9134	58456.18	3.4490	3.4489	0.2159	25.91	-0.08	0.750			
0.9140	58497.04	3.4460	3.4460	0.2107	25.91	-0.08	0.750			
0.9146	58536.74	3.4430	3.4430	0.2060	25.92	-0.07	0.750			
0.9152	58575.95	3.4400	3.4400	0.2014	25.92	-0.07	0.750			
0.9158	58614.20	3.4370	3.4370	0.1971	25.93	-0.06	0.750			
0.9164	58651.77	3.4340	3.4340	0.1930	25.93	-0.06	0.750			
0.9170	58688.52	3.4310	3.4310	0.1876	25.94	-0.05	0.750			
0.9176	58723.96	3.4280	3.4280	0.1828	25.94	-0.05	0.750			
0.9181	58758.60	3.4250	3.4250	0.1780	25.95	-0.04	0.750			
0.9186	58792.28	3.4220	3.4221	0.1741	25.95	-0.04	0.750			
0.9191	58825.08	3.4190	3.4189	0.1693	25.96	-0.03	0.750			
0.9196	58857.35	3.4160	3.4160	0.1649	25.96	-0.03	0.750			
0.9201	58888.59	3.4130	3.4130	0.1605	25.97	-0.02	0.750			
0.9206	58919.07	3.4100	3.4100	0.1554	25.97	-0.02	0.750			
0.9211	58948.89	3.4070	3.4070	0.1510	25.97	-0.02	0.750			
0.9215	58977.33	3.4040	3.4040	0.1452	25.98	-0.01	0.750			
0.9219	59004.61	3.4010	3.4010	0.1395	25.98	-0.01	0.750			
0.9224	59030.73	3.3980	3.3981	0.1336	25.98	-0.01	0.750			
0.9228	59056.07	3.3950	3.3948	0.1278	25.99	-0.00	0.750			
0.9231	59080.11	3.3920	3.3920	0.1219	25.99	0.00	0.750			
0.9235	59102.99	3.3890	3.3891	0.1154	25.99	0.00	0.750			
0.9238	59124.62	3.3860	3.3860	0.1091	26.00	0.01	0.750			
0.9242	59145.84	3.3830	3.3829	0.1007	26.00	0.01	0.750			
0.9245	59164.82	3.3800	3.3798	0.0938	26.00	0.01	0.750			
0.9247	59181.98	3.3770	3.3772	0.0850	26.00	0.01	0.750			
0.9250	59198.01	3.3740	3.3740	0.0768	26.01	0.02	0.750			
0.9252	59211.85	3.3710	3.3714	0.0673	26.01	0.02	0.750			
0.9254	59224.69	3.3680	3.3684	0.0572	26.01	0.02	0.750			
0.9255	59234.63	3.3650	3.3657	0.0463	26.01	0.02	0.750			
0.9257	59242.49	3.3620	3.3628	0.0355	26.01	0.02	0.750			
