Ah_balance (normalized)	Ah_balance (mAh)	Voltage - fit (V)	Voltage -  interpolate (V)	dQ/dV (1/V)	Temperature (°C)	Temperature - diff (°C)	Current (C)	R_DC 0ms (mOhm)	R_DC 50ms (mOhm)	R_DC 50 ms PEC (mOhm)
0.0004	25.41	4.1650	4.1647	-0.1326	25.46	0.00	-0.750			
0.0009	55.78	4.1620	4.1619	-0.1808	25.46	0.00	-0.750			
0.0015	95.51	4.1590	4.1590	-0.2265	25.46	-0.00	-0.750			
0.0022	143.67	4.1560	4.1560	-0.2714	25.46	-0.00	-0.750			
0.0031	200.29	4.1530	4.1531	-0.3138	25.45	-0.01	-0.750			
0.0041	265.52	4.1500	4.1500	-0.3558	25.45	-0.01	-0.750			
0.0053	338.14	4.1470	4.1472	-0.3957	25.45	-0.01	-0.750			
0.0065	418.08	4.1440	4.1439	-0.4348	25.44	-0.02	-0.750			
0.0079	504.93	4.1410	4.1410	-0.4740	25.44	-0.02	-0.750			
0.0094	601.11	4.1380	4.1380	-0.5064	25.43	-0.03	-0.750			
0.0110	702.16	4.1350	4.1350	-0.5352	25.43	-0.03	-0.750			
0.0127	809.81	4.1320	4.1320	-0.5636	25.42	-0.04	-0.750			
0.0144	920.48	4.1290	4.1291	-0.5876	25.42	-0.04	-0.750			
0.0162	1036.29	4.1260	4.1259	-0.6060	25.42	-0.04	-0.750			
0.0180	1154.96	4.1230	4.1229	-0.6190	25.41	-0.05	-0.750			
0.0199	1274.73	4.1200	4.1201	-0.6357	25.41	-0.05	-0.750			
0.0219	1399.52	4.1170	4.1170	-0.6510	25.41	-0.05	-0.750			
0.0238	1526.14	4.1140	4.1140	-0.6642	25.40	-0.06	-0.750			
0.0259	1654.79	4.1110	4.1109	-0.6730	25.40	-0.06	-0.750			
0.0279	1784.96	4.1080	4.1081	-0.6833	25.40	-0.06	-0.750			
0.0300	1918.28	4.1050	4.1050	-0.6937	25.40	-0.06	-0.750			
0.0321	2053.28	4.1020	4.1020	-0.7057	25.40	-0.06	-0.750			
0.0342	2189.71	4.0990	4.0990	-0.7064	25.39	-0.07	-0.750			
0.0364	2327.10	4.0960	4.0959	-0.7112	25.39	-0.07	-0.750			
0.0385	2463.41	4.0930	4.0932	-0.7149	25.39	-0.07	-0.750			
0.0406	2600.93	4.0900	4.0900	-0.7203	25.39	-0.07	-0.750			
0.0428	2738.28	4.0870	4.0869	-0.7246	25.39	-0.07	-0.750			
0.0450	2878.21	4.0840	4.0840	-0.7326	25.38	-0.08	-0.750			
0.0472	3021.69	4.0810	4.0809	-0.7386	25.38	-0.08	-0.750			
0.0494	3164.55	4.0780	4.0780	-0.7414	25.38	-0.08	-0.750			
0.0517	3307.39	4.0750	4.0751	-0.7446	25.38	-0.08	-0.750			
0.0539	3449.65	4.0720	4.0721	-0.7438	25.38	-0.08	-0.750			
0.0561	3593.42	4.0690	4.0689	-0.7424	25.38	-0.08	-0.750			
0.0583	3734.22	4.0660	4.0660	-0.7374	25.38	-0.08	-0.750			
0.0606	3878.16	4.0630	4.0631	-0.7450	25.38	-0.08	-0.750			
0.0628	4020.70	4.0600	4.0600	-0.7477	25.38	-0.08	-0.750			
0.0650	4162.90	4.0570	4.0568	-0.7476	25.38	-0.08	-0.750			
0.0673	4304.36	4.0540	4.0540	-0.7500	25.38	-0.08	-0.750			
0.0695	4449.99	4.0510	4.0510	-0.7562	25.38	-0.08	-0.750			
0.0718	4596.63	4.0480	4.0480	-0.7620	25.39	-0.07	-0.750			
0.0741	4743.65	4.0450	4.0450	-0.7673	25.39	-0.07	-0.750			
0.0764	4891.08	4.0420	4.0421	-0.7690	25.39	-0.07	-0.750			
0.0787	5039.53	4.0390	4.0389	-0.7732	25.39	-0.07	-0.750			
0.0811	5187.98	4.0360	4.0361	-0.7776	25.39	-0.07	-0.750			
0.0834	5338.30	4.0330	4.0330	-0.7789	25.40	-0.06	-0.750			
0.0858	5489.64	4.0300	4.0300	-0.7813	25.40	-0.06	-0.750			
0.0881	5639.45	4.0270	4.0269	-0.7789	25.40	-0.06	-0.750			
0.0904	5787.87	4.0240	4.0240	-0.7784	25.40	-0.06	-0.750			
0.0928	5937.20	4.0210	4.0210	-0.7814	25.40	-0.06	-0.750			
0.0951	6085.65	4.0180	4.0180	-0.7821	25.41	-0.05	-0.750			
0.0974	6235.42	4.0150	4.0150	-0.7880	25.41	-0.05	-0.750			
0.0998	6388.97	4.0120	4.0120	-0.7919	25.41	-0.05	-0.750			
0.1022	6541.79	4.0090	4.0090	-0.7914	25.41	-0.05	-0.750			
0.1046	6693.55	4.0060	4.0061	-0.7960	25.41	-0.05	-0.750			
0.1070	6846.21	4.0030	4.0030	-0.7988	25.41	-0.05	-0.750			
0.1094	6999.79	4.0000	4.0000	-0.7961	25.42	-0.04	-0.750			
0.1118	7153.41	3.9970	3.9969	-0.7954	25.42	-0.04	-0.750			
0.1142	7306.29	3.9940	3.9942	-0.7942	25.42	-0.04	-0.750			
0.1165	7459.02	3.9910	3.9909	-0.7974	25.42	-0.04	-0.750			
0.1189	7612.32	3.9880	3.9880	-0.8046	25.43	-0.03	-0.750			
0.1214	7767.01	3.9850	3.9850	-0.8023	25.43	-0.03	-0.750			
0.1238	7921.71	3.9820	3.9819	-0.8032	25.44	-0.02	-0.750			
0.1262	8076.24	3.9790	3.9794	-0.8107	25.44	-0.02	-0.750			
0.1286	8232.82	3.9760	3.9759	-0.8106	25.44	-0.02	-0.750			
0.1311	8387.63	3.9730	3.9729	-0.8142	25.45	-0.01	-0.750			
0.1335	8542.02	3.9700	3.9701	-0.8133	25.45	-0.01	-0.750			
0.1360	8701.49	3.9670	3.9670	-0.8215	25.46	-0.00	-0.750			
0.1384	8858.50	3.9640	3.9642	-0.8227	25.46	-0.00	-0.750			
0.1409	9016.82	3.9610	3.9610	-0.8194	25.46	0.00	-0.750			
0.1433	9172.09	3.9580	3.9579	-0.8207	25.46	0.00	-0.750			
0.1458	9330.48	3.9550	3.9551	-0.8242	25.46	0.00	-0.750			
0.1482	9487.96	3.9520	3.9518	-0.8270	25.46	0.00	-0.750			
0.1508	9649.75	3.9490	3.9490	-0.8268	25.46	0.00	-0.750			
0.1532	9807.70	3.9460	3.9460	-0.8319	25.47	0.01	-0.750			
0.1557	9966.98	3.9430	3.9431	-0.8387	25.47	0.01	-0.750			
0.1583	10130.71	3.9400	3.9399	-0.8410	25.48	0.02	-0.750			
0.1608	10290.51	3.9370	3.9369	-0.8399	25.48	0.02	-0.750			
0.1633	10453.16	3.9340	3.9342	-0.8430	25.49	0.03	-0.750			
0.1659	10614.97	3.9310	3.9309	-0.8434	25.49	0.03	-0.750			
0.1684	10779.42	3.9280	3.9279	-0.8486	25.49	0.03	-0.750			
0.1709	10939.59	3.9250	3.9250	-0.8443	25.50	0.04	-0.750			
0.1735	11102.29	3.9220	3.9220	-0.8501	25.50	0.04	-0.750			
0.1760	11265.53	3.9190	3.9192	-0.8521	25.50	0.04	-0.750			
0.1786	11428.48	3.9160	3.9160	-0.8526	25.50	0.04	-0.750			
0.1811	11591.75	3.9130	3.9130	-0.8572	25.51	0.05	-0.750			
0.1837	11757.37	3.9100	3.9100	-0.8559	25.51	0.05	-0.750			
0.1863	11923.18	3.9070	3.9070	-0.8597	25.52	0.06	-0.750			
0.1889	12086.71	3.9040	3.9041	-0.8610	25.52	0.06	-0.750			
0.1914	12249.64	3.9010	3.9010	-0.8708	25.52	0.06	-0.750			
0.1940	12419.05	3.8980	3.8979	-0.8668	25.52	0.06	-0.750			
0.1966	12585.49	3.8950	3.8949	-0.8678	25.53	0.07	-0.750			
0.1993	12754.19	3.8920	3.8920	-0.8678	25.53	0.07	-0.750			
0.2019	12921.64	3.8890	3.8891	-0.8646	25.53	0.07	-0.750			
0.2045	13086.16	3.8860	3.8859	-0.8636	25.53	0.07	-0.750			
0.2070	13249.60	3.8830	3.8830	-0.8637	25.53	0.07	-0.750			
0.2096	13414.58	3.8800	3.8799	-0.8727	25.54	0.08	-0.750			
0.2122	13581.78	3.8770	3.8769	-0.8728	25.54	0.08	-0.750			
0.2148	13749.98	3.8740	3.8741	-0.8758	25.54	0.08	-0.750			
0.2175	13920.12	3.8710	3.8710	-0.8804	25.55	0.09	-0.750			
0.2202	14090.47	3.8680	3.8680	-0.8808	25.55	0.09	-0.750			
0.2228	14258.44	3.8650	3.8650	-0.8767	25.55	0.09	-0.750			
0.2254	14427.37	3.8620	3.8620	-0.8747	25.56	0.10	-0.750			
0.2280	14594.80	3.8590	3.8589	-0.8752	25.56	0.10	-0.750			
0.2307	14762.36	3.8560	3.8560	-0.8848	25.57	0.11	-0.750			
0.2333	14932.96	3.8530	3.8529	-0.8828	25.57	0.11	-0.750			
0.2360	15103.01	3.8500	3.8499	-0.8826	25.58	0.12	-0.750			
0.2387	15274.17	3.8470	3.8474	-0.8853	25.58	0.12	-0.750			
0.2413	15443.70	3.8440	3.8439	-0.8880	25.58	0.12	-0.750			
0.2440	15614.50	3.8410	3.8410	-0.8855	25.59	0.13	-0.750			
0.2466	15782.89	3.8380	3.8379	-0.8823	25.59	0.13	-0.750			
0.2493	15952.54	3.8350	3.8350	-0.8856	25.60	0.14	-0.750			
0.2519	16123.72	3.8320	3.8321	-0.8852	25.60	0.14	-0.750			
0.2546	16292.42	3.8290	3.8290	-0.8889	25.61	0.15	-0.750			
0.2572	16462.72	3.8260	3.8260	-0.8894	25.61	0.15	-0.750			
0.2599	16633.27	3.8230	3.8230	-0.8871	25.61	0.15	-0.750			
0.2626	16805.00	3.8200	3.8198	-0.8928	25.62	0.16	-0.750			
0.2653	16976.22	3.8170	3.8171	-0.8918	25.62	0.16	-0.750			
0.2679	17147.69	3.8140	3.8140	-0.8896	25.63	0.17	-0.750			
0.2706	17319.69	3.8110	3.8109	-0.8849	25.63	0.17	-0.750			
0.2732	17486.53	3.8080	3.8080	-0.8822	25.64	0.18	-0.750			
0.2759	17655.44	3.8050	3.8050	-0.8858	25.64	0.18	-0.750			
0.2785	17824.48	3.8020	3.8020	-0.8928	25.64	0.18	-0.750			
0.2812	17997.93	3.7990	3.7988	-0.8888	25.65	0.19	-0.750			
0.2839	18169.16	3.7960	3.7961	-0.8945	25.65	0.19	-0.750			
0.2866	18342.65	3.7930	3.7929	-0.8967	25.66	0.20	-0.750			
0.2893	18514.73	3.7900	3.7902	-0.8970	25.66	0.20	-0.750			
0.2920	18686.01	3.7870	3.7868	-0.8947	25.66	0.20	-0.750			
0.2946	18856.80	3.7840	3.7840	-0.8892	25.66	0.20	-0.750			
0.2973	19026.95	3.7810	3.7810	-0.8841	25.66	0.20	-0.750			
0.3000	19199.37	3.7780	3.7780	-0.8845	25.66	0.20	-0.750			
0.3026	19366.44	3.7750	3.7750	-0.8806	25.66	0.20	-0.750			
0.3053	19536.02	3.7720	3.7719	-0.8846	25.67	0.21	-0.750			
0.3079	19704.46	3.7690	3.7690	-0.8816	25.67	0.21	-0.750			
0.3105	19875.08	3.7660	3.7660	-0.8831	25.68	0.22	-0.750			
0.3132	20046.70	3.7630	3.7629	-0.8819	25.68	0.22	-0.750			
0.3159	20215.57	3.7600	3.7600	-0.8869	25.68	0.22	-0.750			
0.3185	20385.44	3.7570	3.7570	-0.8859	25.69	0.23	-0.750			
0.3212	20553.64	3.7540	3.7539	-0.8830	25.69	0.23	-0.750			
0.3238	20725.74	3.7510	3.7510	-0.8860	25.70	0.24	-0.750			
0.3265	20894.75	3.7480	3.7482	-0.8857	25.70	0.24	-0.750			
0.3291	21064.91	3.7450	3.7450	-0.8896	25.70	0.24	-0.750			
0.3318	21236.00	3.7420	3.7420	-0.8909	25.70	0.24	-0.750			
0.3345	21405.08	3.7390	3.7389	-0.8935	25.71	0.25	-0.750			
0.3371	21577.16	3.7360	3.7360	-0.9014	25.71	0.25	-0.750			
0.3399	21751.29	3.7330	3.7330	-0.9073	25.71	0.25	-0.750			
0.3426	21929.10	3.7300	3.7300	-0.9195	25.71	0.25	-0.750			
0.3454	22105.86	3.7270	3.7270	-0.9211	25.72	0.26	-0.750			
0.3482	22282.56	3.7240	3.7239	-0.9279	25.72	0.26	-0.750			
0.3510	22461.22	3.7210	3.7214	-0.9377	25.72	0.26	-0.750			
0.3537	22639.49	3.7180	3.7179	-0.9469	25.72	0.26	-0.750			
0.3566	22822.06	3.7150	3.7149	-0.9601	25.73	0.27	-0.750			
0.3595	23006.61	3.7120	3.7120	-0.9736	25.73	0.27	-0.750			
0.3625	23198.32	3.7090	3.7090	-0.9945	25.74	0.28	-0.750			
0.3654	23388.10	3.7060	3.7060	-1.0061	25.74	0.28	-0.750			
0.3685	23581.00	3.7030	3.7030	-1.0235	25.74	0.28	-0.750			
0.3715	23778.96	3.7000	3.6999	-1.0460	25.74	0.28	-0.750			
0.3747	23981.62	3.6970	3.6969	-1.0625	25.74	0.28	-0.750			
0.3780	24189.50	3.6940	3.6940	-1.0888	25.74	0.28	-0.750			
0.3813	24404.48	3.6910	3.6910	-1.1011	25.73	0.27	-0.750			
0.3846	24616.34	3.6880	3.6880	-1.1204	25.73	0.27	-0.750			
0.3880	24830.40	3.6850	3.6852	-1.1367	25.72	0.26	-0.750			
0.3914	25050.70	3.6820	3.6818	-1.1663	25.72	0.26	-0.750			
0.3949	25276.14	3.6790	3.6789	-1.1880	25.72	0.26	-0.750			
0.3985	25506.56	3.6760	3.6760	-1.2148	25.72	0.26	-0.750			
0.4022	25741.94	3.6730	3.6731	-1.2388	25.72	0.26	-0.750			
0.4061	25988.05	3.6700	3.6700	-1.2719	25.71	0.25	-0.750			
0.4099	26230.53	3.6670	3.6669	-1.2917	25.71	0.25	-0.750			
0.4137	26477.60	3.6640	3.6643	-1.3322	25.70	0.24	-0.750			
0.4179	26742.95	3.6610	3.6609	-1.3679	25.69	0.23	-0.750			
0.4220	27008.91	3.6580	3.6578	-1.4070	25.69	0.23	-0.750			
0.4263	27283.73	3.6550	3.6555	-1.4371	25.68	0.22	-0.750			
0.4306	27560.72	3.6520	3.6519	-1.4741	25.67	0.21	-0.750			
0.4351	27846.05	3.6490	3.6490	-1.5064	25.67	0.21	-0.750			
0.4396	28133.84	3.6460	3.6461	-1.5359	25.66	0.20	-0.750			
0.4443	28437.08	3.6430	3.6427	-1.5891	25.64	0.18	-0.750			
0.4492	28745.69	3.6400	3.6399	-1.6152	25.63	0.17	-0.750			
0.4540	29058.13	3.6370	3.6369	-1.6433	25.62	0.16	-0.750			
0.4591	29380.38	3.6340	3.6339	-1.6887	25.61	0.15	-0.750			
0.4641	29704.05	3.6310	3.6312	-1.7047	25.60	0.14	-0.750			
0.4693	30035.43	3.6280	3.6281	-1.7462	25.59	0.13	-0.750	0.414	0.506	
0.4746	30376.74	3.6250	3.6250	-1.7794	25.58	0.12	-0.750			
0.4800	30721.81	3.6220	3.6221	-1.8219	25.57	0.11	-0.750			
0.4856	31075.95	3.6190	3.6187	-1.8533	25.56	0.10	-0.750			
0.4912	31438.20	3.6160	3.6158	-1.8693	25.56	0.10	-0.750			
0.4968	31794.75	3.6130	3.6132	-1.9105	25.55	0.09	-0.750			
0.5025	32160.99	3.6100	3.6101	-1.9558	25.54	0.08	-0.750			
0.5085	32545.07	3.6070	3.6069	-1.9926	25.53	0.07	-0.750			
0.5146	32931.75	3.6040	3.6041	-2.0254	25.52	0.06	-0.750			
0.5208	33328.19	3.6010	3.6010	-2.0612	25.51	0.05	-0.750			
0.5271	33735.48	3.5980	3.5981	-2.1050	25.50	0.04	-0.750			
0.5334	34139.73	3.5950	3.5948	-2.1398	25.49	0.03	-0.750			
0.5398	34549.13	3.5920	3.5921	-2.1662	25.48	0.02	-0.750			
0.5463	34964.94	3.5890	3.5890	-2.2001	25.47	0.01	-0.750			
0.5530	35390.58	3.5860	3.5859	-2.2546	25.47	0.01	-0.750			
0.5598	35824.83	3.5830	3.5830	-2.3184	25.46	-0.00	-0.750			
0.5669	36283.57	3.5800	3.5800	-2.3443	25.45	-0.01	-0.750			
0.5741	36739.80	3.5770	3.5769	-2.3739	25.44	-0.02	-0.750			
0.5813	37203.87	3.5740	3.5741	-2.3809	25.44	-0.02	-0.750			
0.5885	37662.08	3.5710	3.5710	-2.3899	25.43	-0.03	-0.750			
0.5957	38122.96	3.5680	3.5681	-2.3754	25.42	-0.04	-0.750			
0.6026	38567.73	3.5650	3.5649	-2.3633	25.42	-0.04	-0.750			
0.6097	39021.41	3.5620	3.5620	-2.3829	25.42	-0.04	-0.750			
0.6171	39496.40	3.5590	3.5588	-2.3862	25.42	-0.04	-0.750			
0.6243	39957.74	3.5560	3.5559	-2.3566	25.41	-0.05	-0.750			
0.6314	40407.08	3.5530	3.5531	-2.3323	25.41	-0.05	-0.750			
0.6383	40848.23	3.5500	3.5505	-2.3175	25.40	-0.06	-0.750			
0.6451	41288.25	3.5470	3.5469	-2.3224	25.41	-0.05	-0.750			
0.6520	41729.71	3.5440	3.5440	-2.2837	25.41	-0.05	-0.750			
0.6589	42172.24	3.5410	3.5411	-2.2860	25.42	-0.04	-0.750			
0.6661	42627.89	3.5380	3.5380	-2.2827	25.42	-0.04	-0.750			
0.6728	43057.45	3.5350	3.5347	-2.2255	25.42	-0.04	-0.750			
0.6793	43478.09	3.5320	3.5323	-2.1838	25.42	-0.04	-0.750			
0.6858	43888.98	3.5290	3.5289	-2.1490	25.42	-0.04	-0.750			
0.6922	44299.36	3.5260	3.5258	-2.0752	25.43	-0.03	-0.750			
0.6984	44699.57	3.5230	3.5231	-2.0252	25.44	-0.02	-0.750			
0.7044	45083.80	3.5200	3.5201	-1.9926	25.45	-0.01	-0.750			
0.7103	45460.95	3.5170	3.5167	-1.9121	25.45	-0.01	-0.750			
0.7160	45821.48	3.5140	3.5141	-1.8340	25.47	0.01	-0.750			
0.7214	46167.70	3.5110	3.5110	-1.7749	25.48	0.02	-0.750			
0.7266	46500.37	3.5080	3.5083	-1.7083	25.49	0.03	-0.750			
0.7316	46824.60	3.5050	3.5051	-1.6366	25.50	0.04	-0.750			
0.7364	47128.48	3.5020	3.5019	-1.5703	25.51	0.05	-0.750			
0.7410	47421.61	3.4990	3.4988	-1.5083	25.53	0.07	-0.750			
0.7455	47708.91	3.4960	3.4961	-1.4646	25.54	0.08	-0.750			
0.7497	47983.75	3.4930	3.4929	-1.4168	25.56	0.10	-0.750			
0.7539	48247.56	3.4900	3.4899	-1.3620	25.57	0.11	-0.750			
0.7579	48502.51	3.4870	3.4870	-1.3157	25.59	0.13	-0.750			
0.7618	48755.29	3.4840	3.4840	-1.2847	25.60	0.14	-0.750			
0.7656	48996.25	3.4810	3.4809	-1.2382	25.62	0.16	-0.750			
0.7693	49232.17	3.4780	3.4780	-1.2030	25.63	0.17	-0.750			
0.7728	49458.85	3.4750	3.4751	-1.1631	25.65	0.19	-0.750			
0.7762	49677.03	3.4720	3.4720	-1.1246	25.66	0.20	-0.750			
0.7796	49891.49	3.4690	3.4689	-1.0859	25.67	0.21	-0.750			
0.7827	50093.15	3.4660	3.4660	-1.0469	25.68	0.22	-0.750			
0.7858	50289.76	3.4630	3.4630	-1.0165	25.69	0.23	-0.750			
0.7888	50480.11	3.4600	3.4601	-0.9906	25.70	0.24	-0.750			
0.7916	50665.11	3.4570	3.4569	-0.9762	25.71	0.25	-0.750			
0.7945	50849.60	3.4540	3.4540	-0.9613	25.72	0.26	-0.750			
0.7974	51032.17	3.4510	3.4508	-0.9620	25.74	0.28	-0.750			
0.8003	51216.53	3.4480	3.4481	-0.9716	25.75	0.29	-0.750			
0.8031	51398.79	3.4450	3.4450	-0.9973	25.76	0.30	-0.750			
0.8061	51587.58	3.4420	3.4420	-1.0257	25.77	0.31	-0.750			
0.8092	51786.62	3.4390	3.4389	-1.0716	25.78	0.32	-0.750			
0.8124	51992.11	3.4360	3.4361	-1.1207	25.79	0.33	-0.750			
0.8160	52223.02	3.4330	3.4330	-1.1644	25.80	0.34	-0.750			
0.8196	52453.50	3.4300	3.4300	-1.1875	25.80	0.34	-0.750			
0.8233	52689.28	3.4270	3.4270	-1.2068	25.81	0.35	-0.750			
0.8269	52924.18	3.4240	3.4242	-1.2052	25.82	0.36	-0.750			
0.8306	53157.99	3.4210	3.4209	-1.1876	25.83	0.37	-0.750			
0.8342	53388.51	3.4180	3.4179	-1.1561	25.84	0.38	-0.750			
0.8376	53608.14	3.4150	3.4150	-1.1185	25.85	0.39	-0.750			
0.8409	53820.75	3.4120	3.4119	-1.0878	25.86	0.40	-0.750			
0.8441	54025.11	3.4090	3.4090	-1.0408	25.86	0.40	-0.750			
0.8471	54217.06	3.4060	3.4059	-0.9954	25.87	0.41	-0.750			
0.8501	54403.64	3.4030	3.4030	-0.9561	25.88	0.42	-0.750			
0.8529	54585.41	3.4000	3.4001	-0.9265	25.89	0.43	-0.750			
0.8556	54759.83	3.3970	3.3969	-0.8899	25.89	0.43	-0.750			
0.8582	54926.88	3.3940	3.3941	-0.8521	25.90	0.44	-0.750			
0.8607	55085.69	3.3910	3.3910	-0.8194	25.91	0.45	-0.750			
0.8632	55241.62	3.3880	3.3881	-0.7937	25.92	0.46	-0.750			
0.8655	55390.39	3.3850	3.3849	-0.7639	25.92	0.46	-0.750			
0.8677	55533.89	3.3820	3.3820	-0.7336	25.93	0.47	-0.750			
0.8699	55671.37	3.3790	3.3790	-0.7059	25.94	0.48	-0.750			
0.8719	55804.24	3.3760	3.3760	-0.6766	25.94	0.48	-0.750			
0.8740	55932.91	3.3730	3.3730	-0.6486	25.95	0.49	-0.750			
0.8758	56053.83	3.3700	3.3702	-0.6181	25.95	0.49	-0.750			
0.8776	56169.10	3.3670	3.3670	-0.5891	25.96	0.50	-0.750			
0.8794	56278.93	3.3640	3.3639	-0.5641	25.97	0.51	-0.750			
0.8810	56383.01	3.3610	3.3611	-0.5418	25.97	0.51	-0.750			
0.8826	56484.21	3.3580	3.3579	-0.5203	25.98	0.52	-0.750			
0.8841	56583.11	3.3550	3.3550	-0.5056	25.99	0.53	-0.750			
0.8856	56678.98	3.3520	3.3520	-0.4861	26.00	0.54	-0.750			
0.8871	56771.20	3.3490	3.3490	-0.4652	26.00	0.54	-0.750			
0.8884	56859.19	3.3460	3.3462	-0.4441	26.01	0.55	-0.750			
0.8897	56941.75	3.3430	3.3430	-0.4215	26.02	0.56	-0.750			
0.8909	57020.12	3.3400	3.3400	-0.4017	26.02	0.56	-0.750			
0.8921	57094.42	3.3370	3.3370	-0.3807	26.03	0.57	-0.750			
0.8932	57164.46	3.3340	3.3340	-0.3633	26.03	0.57	-0.750			
0.8943	57232.88	3.3310	3.3310	-0.3505	26.04	0.58	-0.750			
0.8953	57298.32	3.3280	3.3278	-0.3380	26.04	0.58	-0.750			
0.8963	57361.73	3.3250	3.3250	-0.3244	26.05	0.59	-0.750			
0.8972	57423.12	3.3220	3.3220	-0.3120	26.05	0.59	-0.750			
0.8982	57482.05	3.3190	3.3190	-0.3005	26.06	0.60	-0.750			
0.8991	57539.39	3.3160	3.3159	-0.2890	26.06	0.60	-0.750			
0.8999	57592.71	3.3130	3.3130	-0.2769	26.06	0.60	-0.750			
0.9007	57644.62	3.3100	3.3101	-0.2674	26.07	0.61	-0.750			
0.9015	57694.40	3.3070	3.3069	-0.2573	26.07	0.61	-0.750			
0.9022	57743.25	3.3040	3.3039	-0.2496	26.08	0.62	-0.750			
0.9030	57790.45	3.3010	3.3010	-0.2405	26.08	0.62	-0.750			
0.9037	57835.42	3.2980	3.2980	-0.2310	26.09	0.63	-0.750			
0.9044	57879.20	3.2950	3.2950	-0.2252	26.09	0.63	-0.750			
0.9050	57921.07	3.2920	3.2921	-0.2170	26.10	0.64	-0.750			
0.9057	57961.72	3.2890	3.2889	-0.2103	26.10	0.64	-0.750			
0.9063	58001.57	3.2860	3.2859	-0.2048	26.10	0.64	-0.750			
0.9069	58040.34	3.2830	3.2831	-0.1988	26.11	0.65	-0.750			
0.9075	58077.75	3.2800	3.2800	-0.1934	26.11	0.65	-0.750			
0.9080	58114.52	3.2770	3.2770	-0.1892	26.11	0.65	-0.750			
0.9086	58150.33	3.2740	3.2740	-0.1838	26.12	0.66	-0.750			
0.9091	58184.49	3.2710	3.2710	-0.1792	26.12	0.66	-0.750			
0.9097	58218.70	3.2680	3.2680	-0.1749	26.13	0.67	-0.750			
0.9102	58251.65	3.2650	3.2650	-0.1708	26.13	0.67	-0.750			
0.9107	58284.09	3.2620	3.2621	-0.1671	26.13	0.67	-0.750			
0.9112	58315.95	3.2590	3.2590	-0.1635	26.14	0.68	-0.750			
0.9117	58346.48	3.2560	3.2561	-0.1608	26.14	0.68	-0.750			
0.9121	58377.27	3.2530	3.2530	-0.1573	26.14	0.68	-0.750			
0.9126	58407.19	3.2500	3.2499	-0.1544	26.14	0.68	-0.750			
0.9131	58436.54	3.2470	3.2469	-0.1512	26.15	0.69	-0.750			
0.9135	58465.37	3.2440	3.2444	-0.1492	26.15	0.69	-0.750			
0.9140	58493.57	3.2410	3.2410	-0.1462	26.15	0.69	-0.750			
0.9144	58521.39	3.2380	3.2378	-0.1436	26.16	0.70	-0.750			
0.9148	58548.68	3.2350	3.2349	-0.1411	26.16	0.70	-0.750			
0.9152	58575.19	3.2320	3.2322	-0.1382	26.17	0.71	-0.750			
0.9157	58602.08	3.2290	3.2289	-0.1368	26.17	0.71	-0.750			
0.9161	58628.06	3.2260	3.2261	-0.1338	26.17	0.71	-0.750			
0.9165	58653.29	3.2230	3.2230	-0.1320	26.18	0.72	-0.750			
0.9168	58678.08	3.2200	3.2200	-0.1297	26.18	0.72	-0.750			
0.9172	58702.66	3.2170	3.2170	-0.1283	26.18	0.72	-0.750			
0.9176	58727.21	3.2140	3.2139	-0.1273	26.19	0.73	-0.750			
0.9180	58751.61	3.2110	3.2110	-0.1258	26.19	0.73	-0.750			
0.9184	58775.68	3.2080	3.2080	-0.1247	26.19	0.73	-0.750			
0.9187	58799.80	3.2050	3.2050	-0.1238	26.20	0.74	-0.750			
0.9191	58823.39	3.2020	3.2020	-0.1218	26.20	0.74	-0.750			
0.9195	58846.35	3.1990	3.1990	-0.1202	26.20	0.74	-0.750			
0.9198	58869.31	3.1960	3.1959	-0.1188	26.21	0.75	-0.750			
0.9202	58891.91	3.1930	3.1930	-0.1175	26.21	0.75	-0.750			
0.9205	58914.12	3.1900	3.1899	-0.1158	26.21	0.75	-0.750			
0.9209	58936.41	3.1870	3.1871	-0.1143	26.22	0.76	-0.750			
0.9212	58958.38	3.1840	3.1840	-0.1132	26.22	0.76	-0.750			
0.9216	58979.89	3.1810	3.1810	-0.1118	26.22	0.76	-0.750			
0.9219	59001.29	3.1780	3.1780	-0.1104	26.23	0.77	-0.750			
0.9222	59022.17	3.1750	3.1751	-0.1095	26.23	0.77	-0.750			
0.9225	59042.86	3.1720	3.1719	-0.1081	26.23	0.77	-0.750			
0.9229	59063.51	3.1690	3.1690	-0.1075	26.24	0.78	-0.750			
0.9232	59083.88	3.1660	3.1660	-0.1065	26.24	0.78	-0.750			
0.9235	59104.54	3.1630	3.1629	-0.1054	26.24	0.78	-0.750			
