Ah_balance (normalized)	Ah_balance (mAh)	Voltage - fit (V)	Voltage -  interpolate (V)	dQ/dV (1/V)	Temperature (°C)	Temperature - diff (°C)	Current (C)	R_DC 0ms (mOhm)	R_DC 50ms (mOhm)	R_DC 50 ms PEC (mOhm)
0.0587	3759.83	4.1980	4.1981	0.7152	26.05	0.08	0.750			
0.0609	3899.85	4.1950	4.1950	0.7302	26.05	0.08	0.750			
0.0631	4040.35	4.1920	4.1920	0.7338	26.05	0.08	0.750			
0.0653	4180.12	4.1890	4.1890	0.7422	26.05	0.08	0.750			
0.0676	4323.31	4.1860	4.1859	0.7459	26.05	0.08	0.750			
0.0698	4470.21	4.1830	4.1830	0.7461	26.05	0.08	0.750			
0.0721	4614.19	4.1800	4.1799	0.7403	26.05	0.08	0.750			
0.0743	4755.10	4.1770	4.1771	0.7420	26.05	0.08	0.750			
0.0765	4895.91	4.1740	4.1741	0.7428	26.05	0.08	0.750			
0.0787	5038.33	4.1710	4.1709	0.7451	26.05	0.08	0.750			
0.0809	5180.44	4.1680	4.1681	0.7434	26.05	0.08	0.750			
0.0832	5325.47	4.1650	4.1651	0.7517	26.05	0.08	0.750			
0.0855	5474.27	4.1620	4.1620	0.7570	26.05	0.08	0.750			
0.0878	5618.14	4.1590	4.1590	0.7537	26.05	0.08	0.750			
0.0900	5760.87	4.1560	4.1560	0.7491	26.05	0.08	0.750			
0.0923	5904.18	4.1530	4.1529	0.7522	26.05	0.08	0.750			
0.0945	6048.90	4.1500	4.1501	0.7561	26.05	0.08	0.750			
0.0968	6195.42	4.1470	4.1469	0.7551	26.04	0.07	0.750			
0.0991	6340.68	4.1440	4.1440	0.7563	26.04	0.07	0.750			
0.1014	6486.75	4.1410	4.1411	0.7582	26.04	0.07	0.750			
0.1036	6631.53	4.1380	4.1380	0.7584	26.03	0.06	0.750			
0.1059	6777.38	4.1350	4.1350	0.7582	26.03	0.06	0.750			
0.1082	6922.72	4.1320	4.1320	0.7597	26.03	0.06	0.750			
0.1105	7069.30	4.1290	4.1290	0.7567	26.03	0.06	0.750			
0.1127	7214.21	4.1260	4.1260	0.7615	26.03	0.06	0.750			
0.1150	7359.72	4.1230	4.1230	0.7638	26.03	0.06	0.750			
0.1173	7506.80	4.1200	4.1198	0.7659	26.03	0.06	0.750			
0.1196	7653.78	4.1170	4.1170	0.7714	26.03	0.06	0.750			
0.1219	7803.62	4.1140	4.1140	0.7737	26.03	0.06	0.750			
0.1243	7952.59	4.1110	4.1111	0.7755	26.04	0.07	0.750			
0.1266	8103.43	4.1080	4.1079	0.7798	26.04	0.07	0.750			
0.1289	8251.78	4.1050	4.1050	0.7743	26.04	0.07	0.750			
0.1313	8400.30	4.1020	4.1020	0.7749	26.04	0.07	0.750			
0.1336	8548.83	4.0990	4.0991	0.7769	26.04	0.07	0.750			
0.1359	8697.47	4.0960	4.0960	0.7758	26.04	0.07	0.750			
0.1382	8846.05	4.0930	4.0931	0.7837	26.04	0.07	0.750			
0.1406	8996.44	4.0900	4.0900	0.7871	26.04	0.07	0.750			
0.1429	9148.68	4.0870	4.0868	0.7903	26.04	0.07	0.750			
0.1454	9302.64	4.0840	4.0841	0.7950	26.04	0.07	0.750			
0.1477	9455.67	4.0810	4.0810	0.7913	26.04	0.07	0.750			
0.1501	9608.77	4.0780	4.0780	0.7898	26.05	0.08	0.750			
0.1525	9757.91	4.0750	4.0751	0.7892	26.05	0.08	0.750			
0.1548	9908.25	4.0720	4.0719	0.7925	26.05	0.08	0.750			
0.1572	10061.18	4.0690	4.0690	0.7968	26.05	0.08	0.750			
0.1596	10215.83	4.0660	4.0660	0.7978	26.05	0.08	0.750			
0.1620	10370.39	4.0630	4.0631	0.8049	26.05	0.08	0.750			
0.1645	10525.97	4.0600	4.0600	0.8065	26.05	0.08	0.750			
0.1669	10680.16	4.0570	4.0569	0.8051	26.05	0.08	0.750			
0.1693	10833.83	4.0540	4.0541	0.8050	26.05	0.08	0.750			
0.1717	10988.44	4.0510	4.0510	0.8043	26.05	0.08	0.750			
0.1741	11142.69	4.0480	4.0480	0.8090	26.05	0.08	0.750			
0.1765	11298.75	4.0450	4.0450	0.8135	26.06	0.09	0.750			
0.1790	11454.48	4.0420	4.0420	0.8138	26.06	0.09	0.750			
0.1814	11611.33	4.0390	4.0390	0.8173	26.06	0.09	0.750			
0.1839	11770.40	4.0360	4.0360	0.8141	26.07	0.10	0.750			
0.1863	11925.20	4.0330	4.0331	0.8170	26.07	0.10	0.750			
0.1888	12081.95	4.0300	4.0300	0.8223	26.07	0.10	0.750			
0.1912	12239.10	4.0270	4.0270	0.8239	26.08	0.11	0.750			
0.1937	12397.19	4.0240	4.0240	0.8265	26.08	0.11	0.750			
0.1962	12558.00	4.0210	4.0211	0.8266	26.08	0.11	0.750			
0.1987	12716.81	4.0180	4.0180	0.8335	26.08	0.11	0.750			
0.2012	12877.58	4.0150	4.0150	0.8381	26.09	0.12	0.750			
0.2037	13038.57	4.0120	4.0121	0.8304	26.09	0.12	0.750			
0.2062	13197.60	4.0090	4.0090	0.8309	26.09	0.12	0.750			
0.2087	13358.30	4.0060	4.0062	0.8311	26.09	0.12	0.750			
0.2112	13517.85	4.0030	4.0029	0.8332	26.09	0.12	0.750			
0.2137	13676.91	4.0000	4.0000	0.8353	26.09	0.12	0.750			
0.2162	13836.10	3.9970	3.9970	0.8380	26.09	0.12	0.750			
0.2187	13997.74	3.9940	3.9941	0.8417	26.09	0.12	0.750			
0.2213	14161.45	3.9910	3.9910	0.8468	26.09	0.12	0.750			
0.2238	14323.92	3.9880	3.9880	0.8490	26.09	0.12	0.750			
0.2264	14487.63	3.9850	3.9850	0.8520	26.10	0.13	0.750			
0.2289	14652.48	3.9820	3.9819	0.8507	26.10	0.13	0.750			
0.2315	14815.29	3.9790	3.9791	0.8480	26.10	0.13	0.750			
0.2340	14977.70	3.9760	3.9760	0.8448	26.10	0.13	0.750			
0.2366	15139.77	3.9730	3.9730	0.8490	26.10	0.13	0.750			
0.2391	15302.11	3.9700	3.9699	0.8486	26.11	0.14	0.750			
0.2416	15464.52	3.9670	3.9670	0.8504	26.11	0.14	0.750			
0.2442	15627.57	3.9640	3.9642	0.8555	26.11	0.14	0.750			
0.2468	15794.14	3.9610	3.9610	0.8614	26.11	0.14	0.750			
0.2494	15960.00	3.9580	3.9580	0.8604	26.11	0.14	0.750			
0.2520	16125.50	3.9550	3.9550	0.8610	26.11	0.14	0.750			
0.2545	16288.83	3.9520	3.9521	0.8631	26.11	0.14	0.750			
0.2571	16455.73	3.9490	3.9490	0.8660	26.11	0.14	0.750			
0.2597	16621.70	3.9460	3.9459	0.8659	26.11	0.14	0.750			
0.2623	16786.98	3.9430	3.9430	0.8691	26.11	0.14	0.750			
0.2649	16956.41	3.9400	3.9401	0.8696	26.11	0.14	0.750			
0.2675	17122.88	3.9370	3.9368	0.8726	26.11	0.14	0.750			
0.2702	17290.64	3.9340	3.9341	0.8719	26.11	0.14	0.750			
0.2728	17457.79	3.9310	3.9310	0.8713	26.10	0.13	0.750			
0.2754	17624.62	3.9280	3.9279	0.8779	26.10	0.13	0.750			
0.2780	17793.39	3.9250	3.9251	0.8814	26.09	0.12	0.750			
0.2807	17961.82	3.9220	3.9222	0.8817	26.09	0.12	0.750			
0.2833	18133.12	3.9190	3.9190	0.8881	26.09	0.12	0.750			
0.2860	18302.55	3.9160	3.9161	0.8886	26.08	0.11	0.750			
0.2886	18473.52	3.9130	3.9130	0.8995	26.08	0.11	0.750			
0.2914	18647.65	3.9100	3.9100	0.9016	26.07	0.10	0.750			
0.2941	18821.83	3.9070	3.9070	0.8992	26.07	0.10	0.750			
0.2968	18995.98	3.9040	3.9040	0.8975	26.06	0.09	0.750			
0.2995	19167.04	3.9010	3.9011	0.8996	26.06	0.09	0.750			
0.3022	19337.79	3.8980	3.8981	0.9043	26.06	0.09	0.750			
0.3048	19510.23	3.8950	3.8948	0.9119	26.05	0.08	0.750			
0.3076	19685.48	3.8920	3.8920	0.9125	26.05	0.08	0.750			
0.3104	19864.38	3.8890	3.8891	0.9216	26.04	0.07	0.750			
0.3132	20045.74	3.8860	3.8860	0.9277	26.04	0.07	0.750			
0.3160	20223.06	3.8830	3.8831	0.9244	26.03	0.06	0.750			
0.3187	20397.55	3.8800	3.8799	0.9121	26.03	0.06	0.750			
0.3214	20572.77	3.8770	3.8769	0.9063	26.02	0.05	0.750			
0.3242	20745.80	3.8740	3.8741	0.9017	26.02	0.05	0.750			
0.3268	20917.94	3.8710	3.8710	0.9057	26.02	0.05	0.750			
0.3296	21091.95	3.8680	3.8679	0.9057	26.01	0.04	0.750			
0.3323	21265.50	3.8650	3.8649	0.9046	26.00	0.03	0.750			
0.3350	21438.83	3.8620	3.8620	0.8977	26.00	0.03	0.750			
0.3377	21610.25	3.8590	3.8591	0.9102	25.99	0.02	0.750			
0.3404	21784.40	3.8560	3.8560	0.9178	25.98	0.01	0.750			
0.3431	21959.56	3.8530	3.8527	0.9217	25.97	-0.00	0.750			
0.3459	22138.25	3.8500	3.8500	0.9247	25.97	-0.00	0.750			
0.3487	22317.06	3.8470	3.8472	0.9372	25.96	-0.01	0.750			
0.3516	22500.65	3.8440	3.8440	0.9493	25.96	-0.01	0.750			
0.3544	22683.38	3.8410	3.8409	0.9482	25.95	-0.02	0.750			
0.3573	22865.95	3.8380	3.8380	0.9462	25.94	-0.03	0.750			
0.3601	23047.06	3.8350	3.8351	0.9537	25.93	-0.04	0.750			
0.3630	23231.05	3.8320	3.8320	0.9611	25.93	-0.04	0.750			
0.3659	23416.06	3.8290	3.8290	0.9701	25.92	-0.05	0.750			
0.3688	23601.07	3.8260	3.8260	0.9725	25.91	-0.06	0.750			
0.3717	23788.84	3.8230	3.8231	0.9818	25.90	-0.07	0.750			
0.3747	23979.24	3.8200	3.8199	0.9955	25.90	-0.07	0.750			
0.3777	24171.11	3.8170	3.8170	1.0059	25.89	-0.08	0.750			
0.3807	24364.32	3.8140	3.8141	1.0141	25.89	-0.08	0.750			
0.3838	24560.28	3.8110	3.8110	1.0297	25.88	-0.09	0.750			
0.3869	24760.52	3.8080	3.8080	1.0395	25.88	-0.09	0.750			
0.3900	24961.49	3.8050	3.8051	1.0540	25.87	-0.10	0.750			
0.3932	25165.91	3.8020	3.8019	1.0665	25.87	-0.10	0.750			
0.3964	25370.10	3.7990	3.7990	1.0806	25.86	-0.11	0.750			
0.3997	25578.34	3.7960	3.7960	1.0943	25.84	-0.13	0.750			
0.4030	25789.67	3.7930	3.7931	1.1111	25.83	-0.14	0.750			
0.4064	26008.85	3.7900	3.7899	1.1142	25.82	-0.15	0.750			
0.4097	26223.55	3.7870	3.7871	1.1343	25.81	-0.16	0.750			
0.4131	26439.88	3.7840	3.7841	1.1506	25.80	-0.17	0.750			
0.4166	26659.80	3.7810	3.7810	1.1845	25.79	-0.18	0.750			
0.4201	26888.28	3.7780	3.7781	1.2157	25.78	-0.19	0.750			
0.4238	27125.42	3.7750	3.7749	1.2476	25.77	-0.20	0.750	0.330	0.478	
0.4277	27372.38	3.7720	3.7722	1.2655	25.76	-0.21	0.750			
0.4316	27625.15	3.7690	3.7690	1.2923	25.75	-0.22	0.750			
0.4355	27871.44	3.7660	3.7661	1.3062	25.74	-0.23	0.750			
0.4393	28117.05	3.7630	3.7630	1.3184	25.73	-0.24	0.750			
0.4433	28370.65	3.7600	3.7599	1.3397	25.72	-0.25	0.750			
0.4473	28628.81	3.7570	3.7571	1.3667	25.71	-0.26	0.750			
0.4516	28902.09	3.7540	3.7540	1.3886	25.71	-0.26	0.750			
0.4558	29168.58	3.7510	3.7507	1.4296	25.70	-0.27	0.750			
0.4600	29439.28	3.7480	3.7482	1.4778	25.69	-0.28	0.750			
0.4646	29731.96	3.7450	3.7450	1.5004	25.69	-0.28	0.750			
0.4691	30023.98	3.7420	3.7418	1.5429	25.68	-0.29	0.750			
0.4738	30321.96	3.7390	3.7391	1.5850	25.67	-0.30	0.750			
0.4786	30633.13	3.7360	3.7363	1.6420	25.65	-0.32	0.750			
0.4836	30952.07	3.7330	3.7331	1.6908	25.64	-0.33	0.750			
0.4887	31279.82	3.7300	3.7300	1.7097	25.63	-0.34	0.750			
0.4939	31610.18	3.7270	3.7271	1.7622	25.62	-0.35	0.750			
0.4995	31966.65	3.7240	3.7239	1.8199	25.61	-0.36	0.750			
0.5048	32310.39	3.7210	3.7207	1.8662	25.60	-0.37	0.750			
0.5105	32669.72	3.7180	3.7179	1.9186	25.58	-0.39	0.750			
0.5163	33044.65	3.7150	3.7150	1.9663	25.56	-0.41	0.750			
0.5223	33425.20	3.7120	3.7121	2.0221	25.55	-0.42	0.750			
0.5285	33824.11	3.7090	3.7090	2.0776	25.54	-0.43	0.750			
0.5348	34225.66	3.7060	3.7058	2.1311	25.54	-0.43	0.750			
0.5413	34641.24	3.7030	3.7030	2.2233	25.53	-0.44	0.750			
0.5480	35071.82	3.7000	3.6999	2.2909	25.52	-0.45	0.750			
0.5551	35527.18	3.6970	3.6969	2.3878	25.51	-0.46	0.750			
0.5623	35988.77	3.6940	3.6941	2.4714	25.50	-0.47	0.750			
0.5698	36469.37	3.6910	3.6908	2.5941	25.50	-0.47	0.750			
0.5778	36977.83	3.6880	3.6878	2.6374	25.50	-0.47	0.750			
0.5859	37494.68	3.6850	3.6850	2.7065	25.50	-0.47	0.750			
0.5942	38031.17	3.6820	3.6821	2.7167	25.50	-0.47	0.750			
0.6024	38555.26	3.6790	3.6791	2.6352	25.50	-0.47	0.750			
0.6104	39068.16	3.6760	3.6760	2.4669	25.50	-0.47	0.750			
0.6176	39526.10	3.6730	3.6729	2.3077	25.51	-0.46	0.750			
0.6241	39944.15	3.6700	3.6705	2.0884	25.52	-0.45	0.750			
0.6299	40314.38	3.6670	3.6672	1.9023	25.53	-0.44	0.750			
0.6352	40652.18	3.6640	3.6641	1.7357	25.53	-0.44	0.750			
0.6401	40966.89	3.6610	3.6612	1.5876	25.54	-0.43	0.750			
0.6447	41259.66	3.6580	3.6580	1.4977	25.54	-0.43	0.750			
0.6490	41538.69	3.6550	3.6550	1.4103	25.55	-0.42	0.750			
0.6530	41790.95	3.6520	3.6521	1.3316	25.56	-0.41	0.750			
0.6569	42038.72	3.6490	3.6490	1.2445	25.56	-0.41	0.750			
0.6604	42264.16	3.6460	3.6461	1.2111	25.57	-0.40	0.750			
0.6639	42487.82	3.6430	3.6433	1.1786	25.57	-0.40	0.750			
0.6674	42712.35	3.6400	3.6395	1.1669	25.58	-0.39	0.750			
0.6708	42928.98	3.6370	3.6371	1.1578	25.58	-0.39	0.750			
0.6742	43149.38	3.6340	3.6341	1.1637	25.59	-0.38	0.750			
0.6777	43375.27	3.6310	3.6311	1.1711	25.59	-0.38	0.750			
0.6814	43607.07	3.6280	3.6279	1.1565	25.59	-0.38	0.750			
0.6848	43829.52	3.6250	3.6251	1.1575	25.59	-0.38	0.750			
0.6883	44053.50	3.6220	3.6221	1.1544	25.60	-0.37	0.750			
0.6918	44275.06	3.6190	3.6189	1.1370	25.60	-0.37	0.750			
0.6952	44491.14	3.6160	3.6161	1.1145	25.60	-0.37	0.750			
0.6984	44699.92	3.6130	3.6131	1.1089	25.61	-0.36	0.750			
0.7017	44911.79	3.6100	3.6101	1.1037	25.61	-0.36	0.750			
0.7051	45124.66	3.6070	3.6068	1.1093	25.62	-0.35	0.750			
0.7083	45332.25	3.6040	3.6041	1.1112	25.62	-0.35	0.750			
0.7116	45544.08	3.6010	3.6011	1.1387	25.63	-0.34	0.750			
0.7151	45765.31	3.5980	3.5980	1.1699	25.64	-0.33	0.750			
0.7186	45989.13	3.5950	3.5951	1.2004	25.64	-0.33	0.750			
0.7222	46220.07	3.5920	3.5921	1.2488	25.64	-0.33	0.750			
0.7260	46465.33	3.5890	3.5891	1.3049	25.64	-0.33	0.750			
0.7301	46726.70	3.5860	3.5858	1.3209	25.64	-0.33	0.750			
0.7340	46978.44	3.5830	3.5830	1.3876	25.64	-0.33	0.750			
0.7384	47255.90	3.5800	3.5802	1.4187	25.65	-0.32	0.750			
0.7427	47532.43	3.5770	3.5766	1.4635	25.65	-0.32	0.750			
0.7472	47818.07	3.5740	3.5743	1.4853	25.65	-0.32	0.750			
0.7516	48101.83	3.5710	3.5713	1.5519	25.65	-0.32	0.750			
0.7564	48406.59	3.5680	3.5678	1.5776	25.65	-0.32	0.750			
0.7612	48716.56	3.5650	3.5649	1.6013	25.65	-0.32	0.750			
0.7660	49022.15	3.5620	3.5622	1.6189	25.66	-0.31	0.750			
0.7710	49341.17	3.5590	3.5592	1.6511	25.66	-0.31	0.750			
0.7760	49663.02	3.5560	3.5560	1.6483	25.67	-0.30	0.750			
0.7809	49979.74	3.5530	3.5528	1.6653	25.67	-0.30	0.750			
0.7859	50296.58	3.5500	3.5501	1.7007	25.68	-0.29	0.750			
0.7909	50615.64	3.5470	3.5471	1.7338	25.69	-0.28	0.750			
0.7961	50952.47	3.5440	3.5443	1.7697	25.70	-0.27	0.750			
0.8018	51316.25	3.5410	3.5408	1.6990	25.71	-0.26	0.750			
0.8073	51664.55	3.5380	3.5379	1.5521	25.73	-0.24	0.750			
0.8122	51979.10	3.5350	3.5355	1.3601	25.75	-0.22	0.750			
0.8160	52225.05	3.5320	3.5324	1.1211	25.77	-0.20	0.750			
0.8188	52400.22	3.5290	3.5287	0.8395	25.79	-0.18	0.750			
0.8204	52506.45	3.5260	3.5256	0.6312	25.80	-0.17	0.750			
0.8216	52582.53	3.5230	3.5226	0.4668	25.81	-0.16	0.750			
0.8227	52654.29	3.5200	3.5200	0.4059	25.82	-0.15	0.750			
0.8238	52721.18	3.5170	3.5169	0.3589	25.82	-0.15	0.750			
0.8248	52784.42	3.5140	3.5140	0.3326	25.83	-0.14	0.750			
0.8257	52845.80	3.5110	3.5110	0.3148	25.84	-0.13	0.750			
0.8266	52902.44	3.5080	3.5081	0.3019	25.84	-0.13	0.750			
0.8275	52959.28	3.5050	3.5048	0.2913	25.85	-0.12	0.750			
0.8283	53013.64	3.5020	3.5021	0.2831	25.86	-0.11	0.750			
0.8292	53067.20	3.4990	3.4991	0.2753	25.86	-0.11	0.750			
0.8300	53119.83	3.4960	3.4960	0.2695	25.87	-0.10	0.750			
0.8308	53170.63	3.4930	3.4930	0.2637	25.87	-0.10	0.750			
0.8316	53220.12	3.4900	3.4901	0.2573	25.87	-0.10	0.750			
0.8323	53268.57	3.4870	3.4869	0.2518	25.87	-0.10	0.750			
0.8331	53317.11	3.4840	3.4840	0.2486	25.88	-0.09	0.750			
0.8338	53364.21	3.4810	3.4811	0.2425	25.89	-0.08	0.750			
0.8345	53410.02	3.4780	3.4780	0.2373	25.89	-0.08	0.750			
0.8352	53455.76	3.4750	3.4751	0.2327	25.90	-0.07	0.750			
0.8359	53499.85	3.4720	3.4719	0.2268	25.91	-0.06	0.750			
0.8366	53542.52	3.4690	3.4689	0.2214	25.91	-0.06	0.750			
0.8373	53584.56	3.4660	3.4662	0.2172	25.92	-0.05	0.750			
0.8379	53625.58	3.4630	3.4630	0.2117	25.92	-0.05	0.750			
0.8385	53665.82	3.4600	3.4600	0.2075	25.93	-0.04	0.750			
0.8391	53705.54	3.4570	3.4569	0.2024	25.94	-0.03	0.750			
0.8397	53743.81	3.4540	3.4541	0.1972	25.94	-0.03	0.750			
0.8403	53782.20	3.4510	3.4508	0.1917	25.95	-0.02	0.750			
0.8409	53818.28	3.4480	3.4482	0.1842	25.95	-0.02	0.750			
0.8415	53852.88	3.4450	3.4450	0.1788	25.96	-0.01	0.750			
0.8420	53885.87	3.4420	3.4421	0.1743	25.96	-0.01	0.750			
0.8425	53918.41	3.4390	3.4392	0.1700	25.97	-0.00	0.750			
0.8430	53951.17	3.4360	3.4357	0.1658	25.97	0.00	0.750			
0.8435	53982.52	3.4330	3.4330	0.1618	25.98	0.01	0.750			
0.8440	54013.63	3.4300	3.4301	0.1562	25.98	0.01	0.750			
0.8444	54044.25	3.4270	3.4271	0.1525	25.98	0.01	0.750			
0.8449	54072.18	3.4240	3.4239	0.1446	25.99	0.02	0.750			
0.8453	54099.31	3.4210	3.4210	0.1380	25.99	0.02	0.750			
0.8457	54124.87	3.4180	3.4179	0.1316	26.00	0.03	0.750			
0.8461	54149.25	3.4150	3.4150	0.1253	26.00	0.03	0.750			
0.8465	54173.42	3.4120	3.4120	0.1195	26.00	0.03	0.750			
0.8468	54195.71	3.4090	3.4090	0.1127	26.01	0.04	0.750			
0.8472	54218.44	3.4060	3.4059	0.1043	26.01	0.04	0.750			
0.8475	54237.84	3.4030	3.4028	0.0959	26.01	0.04	0.750			
0.8477	54255.26	3.4000	3.4000	0.0855	26.02	0.05	0.750			
0.8480	54271.45	3.3970	3.3973	0.0762	26.02	0.05	0.750			
0.8482	54285.01	3.3940	3.3944	0.0650	26.02	0.05	0.750			
0.8484	54297.20	3.3910	3.3917	0.0537	26.02	0.05	0.750			
0.8485	54306.34	3.3880	3.3889	0.0415	26.02	0.05	0.750			
0.8486	54313.13	3.3850	3.3865	0.0292	26.02	0.05	0.750			
0.8487	54317.57	3.3820	3.3842	0.0170	26.02	0.05	0.750			
