Ah_balance (normalized)	Ah_balance (mAh)	Voltage - fit (V)	Voltage -  interpolate (V)	dQ/dV (1/V)	Temperature (°C)	Temperature - diff (°C)	Current (C)	R_DC 0ms (mOhm)	R_DC 50ms (mOhm)	R_DC 50 ms PEC (mOhm)
0.0004	22.83	4.1550	4.1547	-0.1124	25.31	0.01	-0.750			
0.0008	48.76	4.1520	4.1519	-0.1521	25.31	0.01	-0.750			
0.0013	81.75	4.1490	4.1489	-0.1887	25.31	0.01	-0.750			
0.0019	122.32	4.1460	4.1461	-0.2223	25.31	0.01	-0.750			
0.0026	168.43	4.1430	4.1430	-0.2548	25.31	0.01	-0.750			
0.0035	221.43	4.1400	4.1400	-0.2874	25.31	0.01	-0.750			
0.0044	279.64	4.1370	4.1370	-0.3171	25.30	0.00	-0.750			
0.0054	343.14	4.1340	4.1340	-0.3489	25.30	0.00	-0.750			
0.0065	413.22	4.1310	4.1310	-0.3781	25.30	0.00	-0.750			
0.0076	489.37	4.1280	4.1280	-0.4048	25.30	0.00	-0.750			
0.0089	570.53	4.1250	4.1250	-0.4301	25.30	0.00	-0.750			
0.0103	656.35	4.1220	4.1221	-0.4548	25.30	0.00	-0.750			
0.0117	746.31	4.1190	4.1190	-0.4758	25.30	-0.00	-0.750			
0.0131	839.68	4.1160	4.1160	-0.4957	25.30	-0.00	-0.750			
0.0146	936.63	4.1130	4.1130	-0.5117	25.30	-0.00	-0.750			
0.0162	1037.16	4.1100	4.1101	-0.5283	25.30	-0.00	-0.750			
0.0178	1141.26	4.1070	4.1070	-0.5471	25.29	-0.01	-0.750			
0.0195	1248.12	4.1040	4.1040	-0.5581	25.29	-0.01	-0.750			
0.0212	1356.71	4.1010	4.1010	-0.5713	25.29	-0.01	-0.750			
0.0229	1468.07	4.0980	4.0982	-0.5803	25.29	-0.01	-0.750			
0.0247	1581.06	4.0950	4.0950	-0.5900	25.29	-0.01	-0.750			
0.0265	1695.50	4.0920	4.0919	-0.5980	25.29	-0.01	-0.750			
0.0283	1810.75	4.0890	4.0890	-0.6041	25.29	-0.01	-0.750			
0.0301	1927.51	4.0860	4.0860	-0.6111	25.28	-0.02	-0.750			
0.0319	2044.74	4.0830	4.0830	-0.6214	25.28	-0.02	-0.750			
0.0338	2164.21	4.0800	4.0800	-0.6301	25.28	-0.02	-0.750			
0.0357	2287.85	4.0770	4.0770	-0.6361	25.28	-0.02	-0.750			
0.0377	2410.62	4.0740	4.0740	-0.6416	25.28	-0.02	-0.750			
0.0396	2534.38	4.0710	4.0711	-0.6476	25.29	-0.01	-0.750			
0.0416	2659.51	4.0680	4.0679	-0.6547	25.29	-0.01	-0.750			
0.0435	2785.75	4.0650	4.0649	-0.6591	25.29	-0.01	-0.750			
0.0455	2912.53	4.0620	4.0619	-0.6606	25.30	-0.00	-0.750			
0.0475	3040.66	4.0590	4.0591	-0.6637	25.30	-0.00	-0.750			
0.0495	3168.79	4.0560	4.0560	-0.6694	25.30	0.00	-0.750			
0.0515	3297.04	4.0530	4.0530	-0.6698	25.31	0.01	-0.750			
0.0535	3425.20	4.0500	4.0500	-0.6751	25.31	0.01	-0.750			
0.0555	3554.22	4.0470	4.0470	-0.6781	25.31	0.01	-0.750			
0.0576	3686.56	4.0440	4.0440	-0.6831	25.32	0.02	-0.750			
0.0597	3818.88	4.0410	4.0410	-0.6850	25.32	0.02	-0.750			
0.0617	3951.53	4.0380	4.0379	-0.6868	25.32	0.02	-0.750			
0.0638	4082.70	4.0350	4.0350	-0.6842	25.33	0.03	-0.750			
0.0658	4213.38	4.0320	4.0320	-0.6866	25.33	0.03	-0.750			
0.0679	4344.08	4.0290	4.0290	-0.6878	25.33	0.03	-0.750			
0.0700	4477.27	4.0260	4.0260	-0.6924	25.34	0.04	-0.750			
0.0720	4610.49	4.0230	4.0230	-0.6971	25.34	0.04	-0.750			
0.0741	4745.59	4.0200	4.0199	-0.7015	25.34	0.04	-0.750			
0.0763	4880.57	4.0170	4.0170	-0.7050	25.35	0.05	-0.750			
0.0784	5016.83	4.0140	4.0139	-0.7091	25.35	0.05	-0.750			
0.0805	5152.80	4.0110	4.0110	-0.7107	25.35	0.05	-0.750			
0.0827	5290.54	4.0080	4.0080	-0.7124	25.36	0.06	-0.750			
0.0848	5427.71	4.0050	4.0051	-0.7119	25.36	0.06	-0.750			
0.0869	5564.55	4.0020	4.0019	-0.7136	25.36	0.06	-0.750			
0.0891	5700.85	3.9990	3.9990	-0.7137	25.36	0.06	-0.750			
0.0912	5837.31	3.9960	3.9960	-0.7157	25.36	0.06	-0.750			
0.0933	5974.25	3.9930	3.9929	-0.7161	25.37	0.07	-0.750			
0.0955	6113.12	3.9900	3.9900	-0.7186	25.37	0.07	-0.750			
0.0977	6251.35	3.9870	3.9871	-0.7223	25.37	0.07	-0.750			
0.0998	6390.28	3.9840	3.9840	-0.7267	25.37	0.07	-0.750			
0.1020	6530.02	3.9810	3.9809	-0.7274	25.38	0.08	-0.750			
0.1042	6668.94	3.9780	3.9780	-0.7306	25.39	0.09	-0.750			
0.1064	6810.23	3.9750	3.9750	-0.7315	25.39	0.09	-0.750			
0.1086	6952.44	3.9720	3.9720	-0.7342	25.40	0.10	-0.750			
0.1108	7092.92	3.9690	3.9690	-0.7368	25.40	0.10	-0.750			
0.1130	7233.99	3.9660	3.9660	-0.7358	25.40	0.10	-0.750			
0.1152	7375.00	3.9630	3.9630	-0.7403	25.41	0.11	-0.750			
0.1175	7518.09	3.9600	3.9600	-0.7414	25.41	0.11	-0.750			
0.1197	7660.30	3.9570	3.9570	-0.7436	25.41	0.11	-0.750			
0.1219	7803.86	3.9540	3.9540	-0.7455	25.42	0.12	-0.750			
0.1242	7947.08	3.9510	3.9510	-0.7451	25.42	0.12	-0.750			
0.1264	8088.56	3.9480	3.9480	-0.7501	25.43	0.13	-0.750			
0.1287	8233.64	3.9450	3.9450	-0.7524	25.43	0.13	-0.750			
0.1309	8377.95	3.9420	3.9420	-0.7531	25.43	0.13	-0.750			
0.1332	8523.79	3.9390	3.9390	-0.7569	25.44	0.14	-0.750			
0.1355	8669.06	3.9360	3.9363	-0.7592	25.44	0.14	-0.750			
0.1377	8815.63	3.9330	3.9329	-0.7611	25.44	0.14	-0.750			
0.1400	8962.35	3.9300	3.9300	-0.7612	25.45	0.15	-0.750			
0.1423	9108.04	3.9270	3.9270	-0.7590	25.45	0.15	-0.750			
0.1446	9254.49	3.9240	3.9240	-0.7641	25.45	0.15	-0.750			
0.1469	9400.29	3.9210	3.9210	-0.7663	25.46	0.16	-0.750			
0.1492	9546.99	3.9180	3.9179	-0.7671	25.46	0.16	-0.750			
0.1515	9694.42	3.9150	3.9150	-0.7692	25.46	0.16	-0.750			
0.1538	9843.37	3.9120	3.9120	-0.7710	25.46	0.16	-0.750			
0.1561	9991.67	3.9090	3.9090	-0.7706	25.46	0.16	-0.750			
0.1584	10140.37	3.9060	3.9060	-0.7719	25.46	0.16	-0.750			
0.1607	10286.76	3.9030	3.9031	-0.7711	25.46	0.16	-0.750			
0.1630	10434.74	3.9000	3.8999	-0.7746	25.46	0.16	-0.750			
0.1654	10584.20	3.8970	3.8970	-0.7773	25.47	0.17	-0.750			
0.1677	10733.99	3.8940	3.8940	-0.7783	25.47	0.17	-0.750			
0.1701	10884.99	3.8910	3.8910	-0.7811	25.48	0.18	-0.750			
0.1724	11034.93	3.8880	3.8880	-0.7797	25.48	0.18	-0.750			
0.1747	11183.91	3.8850	3.8849	-0.7772	25.48	0.18	-0.750			
0.1771	11332.19	3.8820	3.8820	-0.7782	25.49	0.19	-0.750			
0.1794	11480.95	3.8790	3.8790	-0.7795	25.49	0.19	-0.750			
0.1817	11631.01	3.8760	3.8759	-0.7825	25.49	0.19	-0.750			
0.1841	11783.28	3.8730	3.8730	-0.7828	25.50	0.20	-0.750			
0.1865	11933.47	3.8700	3.8701	-0.7824	25.50	0.20	-0.750			
0.1888	12083.75	3.8670	3.8670	-0.7848	25.50	0.20	-0.750			
0.1912	12234.65	3.8640	3.8640	-0.7845	25.50	0.20	-0.750			
0.1935	12383.87	3.8610	3.8610	-0.7803	25.50	0.20	-0.750			
0.1958	12533.95	3.8580	3.8581	-0.7801	25.50	0.20	-0.750			
0.1982	12684.82	3.8550	3.8552	-0.7805	25.50	0.20	-0.750			
0.2005	12834.64	3.8520	3.8519	-0.7804	25.51	0.21	-0.750			
0.2029	12984.13	3.8490	3.8490	-0.7776	25.52	0.22	-0.750			
0.2052	13133.06	3.8460	3.8460	-0.7762	25.52	0.22	-0.750			
0.2075	13282.91	3.8430	3.8430	-0.7758	25.53	0.23	-0.750			
0.2099	13431.71	3.8400	3.8400	-0.7755	25.54	0.24	-0.750			
0.2122	13580.24	3.8370	3.8369	-0.7721	25.54	0.24	-0.750			
0.2145	13727.67	3.8340	3.8340	-0.7703	25.54	0.24	-0.750			
0.2168	13874.94	3.8310	3.8310	-0.7671	25.54	0.24	-0.750			
0.2191	14022.35	3.8280	3.8280	-0.7657	25.54	0.24	-0.750			
0.2214	14170.28	3.8250	3.8250	-0.7631	25.54	0.24	-0.750			
0.2237	14316.42	3.8220	3.8220	-0.7604	25.54	0.24	-0.750			
0.2260	14461.95	3.8190	3.8191	-0.7552	25.55	0.25	-0.750			
0.2282	14606.81	3.8160	3.8160	-0.7547	25.55	0.25	-0.750			
0.2305	14751.17	3.8130	3.8130	-0.7497	25.56	0.26	-0.750			
0.2327	14895.56	3.8100	3.8100	-0.7452	25.56	0.26	-0.750			
0.2350	15038.17	3.8070	3.8070	-0.7416	25.57	0.27	-0.750			
0.2372	15179.94	3.8040	3.8040	-0.7367	25.57	0.27	-0.750			
0.2394	15320.52	3.8010	3.8010	-0.7313	25.57	0.27	-0.750			
0.2416	15460.78	3.7980	3.7980	-0.7291	25.57	0.27	-0.750			
0.2438	15600.30	3.7950	3.7949	-0.7217	25.58	0.28	-0.750			
0.2459	15739.32	3.7920	3.7920	-0.7203	25.58	0.28	-0.750			
0.2481	15876.73	3.7890	3.7891	-0.7176	25.58	0.28	-0.750			
0.2502	16013.70	3.7860	3.7860	-0.7136	25.58	0.28	-0.750			
0.2524	16150.57	3.7830	3.7829	-0.7122	25.59	0.29	-0.750			
0.2545	16286.00	3.7800	3.7800	-0.7101	25.59	0.29	-0.750			
0.2566	16423.86	3.7770	3.7770	-0.7084	25.59	0.29	-0.750			
0.2587	16559.03	3.7740	3.7740	-0.7080	25.60	0.30	-0.750			
0.2608	16694.27	3.7710	3.7710	-0.7049	25.60	0.30	-0.750			
0.2630	16828.82	3.7680	3.7680	-0.7068	25.60	0.30	-0.750			
0.2651	16963.71	3.7650	3.7650	-0.7101	25.60	0.30	-0.750			
0.2672	17100.78	3.7620	3.7619	-0.7124	25.60	0.30	-0.750			
0.2693	17238.21	3.7590	3.7590	-0.7169	25.60	0.30	-0.750			
0.2715	17376.41	3.7560	3.7561	-0.7229	25.60	0.30	-0.750			
0.2737	17515.23	3.7530	3.7530	-0.7251	25.60	0.30	-0.750			
0.2758	17654.31	3.7500	3.7500	-0.7350	25.60	0.30	-0.750			
0.2780	17794.06	3.7470	3.7470	-0.7408	25.61	0.31	-0.750			
0.2803	17937.37	3.7440	3.7441	-0.7538	25.61	0.31	-0.750			
0.2826	18083.92	3.7410	3.7409	-0.7644	25.62	0.32	-0.750			
0.2849	18231.71	3.7380	3.7381	-0.7746	25.62	0.32	-0.750			
0.2872	18382.19	3.7350	3.7350	-0.7835	25.62	0.32	-0.750			
0.2896	18533.87	3.7320	3.7319	-0.7951	25.62	0.32	-0.750			
0.2920	18687.31	3.7290	3.7290	-0.8010	25.61	0.31	-0.750			
0.2944	18840.72	3.7260	3.7260	-0.8071	25.61	0.31	-0.750			
0.2968	18996.31	3.7230	3.7230	-0.8229	25.61	0.31	-0.750			
0.2993	19155.61	3.7200	3.7200	-0.8367	25.61	0.31	-0.750			
0.3018	19316.43	3.7170	3.7169	-0.8519	25.61	0.31	-0.750			
0.3044	19481.25	3.7140	3.7141	-0.8706	25.60	0.30	-0.750			
0.3070	19651.02	3.7110	3.7110	-0.8829	25.60	0.30	-0.750			
0.3097	19823.00	3.7080	3.7080	-0.8993	25.60	0.30	-0.750			
0.3124	19995.75	3.7050	3.7050	-0.9202	25.60	0.30	-0.750			
0.3152	20174.98	3.7020	3.7020	-0.9292	25.60	0.30	-0.750			
0.3181	20356.27	3.6990	3.6989	-0.9419	25.60	0.30	-0.750			
0.3209	20537.41	3.6960	3.6960	-0.9531	25.60	0.30	-0.750			
0.3238	20721.30	3.6930	3.6931	-0.9666	25.60	0.30	-0.750			
0.3267	20908.91	3.6900	3.6899	-0.9862	25.59	0.29	-0.750			
0.3296	21096.79	3.6870	3.6869	-1.0019	25.59	0.29	-0.750			
0.3327	21289.81	3.6840	3.6840	-1.0226	25.58	0.28	-0.750			
0.3358	21492.09	3.6810	3.6811	-1.0459	25.58	0.28	-0.750			
0.3390	21695.62	3.6780	3.6780	-1.0644	25.57	0.27	-0.750			
0.3422	21901.60	3.6750	3.6750	-1.0754	25.57	0.27	-0.750			
0.3454	22108.46	3.6720	3.6720	-1.0859	25.56	0.26	-0.750			
0.3487	22317.36	3.6690	3.6690	-1.1093	25.56	0.26	-0.750			
0.3520	22530.52	3.6660	3.6659	-1.1253	25.55	0.25	-0.750			
0.3554	22747.53	3.6630	3.6630	-1.1466	25.55	0.25	-0.750			
0.3589	22970.45	3.6600	3.6599	-1.1693	25.54	0.24	-0.750			
0.3625	23197.14	3.6570	3.6570	-1.1958	25.54	0.24	-0.750			
0.3661	23430.93	3.6540	3.6540	-1.2146	25.53	0.23	-0.750			
0.3698	23665.50	3.6510	3.6509	-1.2363	25.52	0.22	-0.750			
0.3735	23902.82	3.6480	3.6482	-1.2560	25.52	0.22	-0.750			
0.3773	24148.79	3.6450	3.6449	-1.2802	25.51	0.21	-0.750			
0.3812	24396.01	3.6420	3.6420	-1.2992	25.51	0.21	-0.750			
0.3851	24647.01	3.6390	3.6391	-1.3290	25.50	0.20	-0.750			
0.3892	24905.86	3.6360	3.6360	-1.3526	25.49	0.19	-0.750			
0.3933	25168.59	3.6330	3.6329	-1.3741	25.47	0.17	-0.750			
0.3974	25432.26	3.6300	3.6302	-1.3936	25.46	0.16	-0.750			
0.4016	25702.44	3.6270	3.6270	-1.4170	25.46	0.16	-0.750			
0.4059	25978.27	3.6240	3.6240	-1.4420	25.46	0.16	-0.750			
0.4103	26256.69	3.6210	3.6210	-1.4678	25.46	0.16	-0.750			
0.4146	26535.93	3.6180	3.6180	-1.5043	25.45	0.15	-0.750			
0.4193	26832.01	3.6150	3.6150	-1.5394	25.45	0.15	-0.750			
0.4239	27130.84	3.6120	3.6120	-1.5634	25.44	0.14	-0.750	0.389	0.566	
0.4287	27434.61	3.6090	3.6090	-1.5934	25.43	0.13	-0.750			
0.4335	27744.91	3.6060	3.6060	-1.6237	25.42	0.12	-0.750			
0.4384	28058.50	3.6030	3.6028	-1.6600	25.42	0.12	-0.750			
0.4434	28375.90	3.6000	3.6001	-1.6952	25.42	0.12	-0.750			
0.4486	28707.90	3.5970	3.5970	-1.7224	25.42	0.12	-0.750			
0.4538	29043.41	3.5940	3.5942	-1.7712	25.42	0.12	-0.750			
0.4592	29385.88	3.5910	3.5909	-1.7923	25.42	0.12	-0.750			
0.4646	29731.84	3.5880	3.5881	-1.8329	25.41	0.11	-0.750			
0.4701	30086.13	3.5850	3.5851	-1.8683	25.40	0.10	-0.750			
0.4758	30450.96	3.5820	3.5819	-1.9006	25.40	0.10	-0.750			
0.4815	30819.11	3.5790	3.5791	-1.9241	25.40	0.10	-0.750			
0.4874	31194.49	3.5760	3.5759	-1.9651	25.40	0.10	-0.750			
0.4934	31576.85	3.5730	3.5729	-1.9913	25.40	0.10	-0.750			
0.4993	31956.28	3.5700	3.5700	-1.9961	25.40	0.10	-0.750			
0.5053	32342.08	3.5670	3.5670	-2.0274	25.40	0.10	-0.750			
0.5115	32734.01	3.5640	3.5640	-2.0410	25.40	0.10	-0.750			
0.5177	33132.41	3.5610	3.5610	-2.0669	25.41	0.11	-0.750			
0.5239	33530.54	3.5580	3.5579	-2.0590	25.41	0.11	-0.750			
0.5301	33926.41	3.5550	3.5550	-2.0677	25.42	0.12	-0.750			
0.5363	34326.15	3.5520	3.5521	-2.0743	25.42	0.12	-0.750			
0.5425	34722.64	3.5490	3.5489	-2.0775	25.42	0.12	-0.750			
0.5488	35120.12	3.5460	3.5462	-2.0723	25.42	0.12	-0.750			
0.5551	35523.60	3.5430	3.5429	-2.0592	25.42	0.12	-0.750			
0.5612	35919.03	3.5400	3.5400	-2.0449	25.42	0.12	-0.750			
0.5674	36311.38	3.5370	3.5370	-2.0218	25.43	0.13	-0.750			
0.5734	36695.94	3.5340	3.5339	-2.0144	25.43	0.13	-0.750			
0.5793	37078.00	3.5310	3.5309	-1.9757	25.44	0.14	-0.750			
0.5853	37458.93	3.5280	3.5280	-1.9507	25.44	0.14	-0.750			
0.5912	37834.19	3.5250	3.5250	-1.9262	25.45	0.15	-0.750			
0.5970	38205.70	3.5220	3.5218	-1.8977	25.46	0.16	-0.750			
0.6025	38562.15	3.5190	3.5191	-1.8585	25.47	0.17	-0.750			
0.6081	38918.83	3.5160	3.5158	-1.8108	25.48	0.18	-0.750			
0.6134	39260.69	3.5130	3.5133	-1.7607	25.48	0.18	-0.750			
0.6187	39596.11	3.5100	3.5100	-1.7337	25.49	0.19	-0.750			
0.6238	39923.36	3.5070	3.5071	-1.6830	25.50	0.20	-0.750			
0.6288	40241.96	3.5040	3.5041	-1.6375	25.51	0.21	-0.750			
0.6337	40554.82	3.5010	3.5011	-1.6105	25.52	0.22	-0.750			
0.6384	40858.70	3.4980	3.4979	-1.5606	25.53	0.23	-0.750			
0.6431	41156.77	3.4950	3.4949	-1.5215	25.54	0.24	-0.750			
0.6476	41443.99	3.4920	3.4920	-1.4806	25.56	0.26	-0.750			
0.6519	41723.89	3.4890	3.4889	-1.4369	25.57	0.27	-0.750			
0.6562	41996.88	3.4860	3.4859	-1.3915	25.59	0.29	-0.750			
0.6603	42258.04	3.4830	3.4832	-1.3477	25.60	0.30	-0.750			
0.6643	42512.55	3.4800	3.4800	-1.3078	25.62	0.32	-0.750			
0.6681	42759.85	3.4770	3.4769	-1.2654	25.64	0.34	-0.750			
0.6718	42996.10	3.4740	3.4741	-1.2209	25.66	0.36	-0.750			
0.6754	43227.84	3.4710	3.4710	-1.1899	25.67	0.37	-0.750			
0.6790	43453.19	3.4680	3.4679	-1.1480	25.68	0.38	-0.750			
0.6823	43669.87	3.4650	3.4650	-1.1087	25.69	0.39	-0.750			
0.6856	43877.70	3.4620	3.4622	-1.0681	25.70	0.40	-0.750			
0.6888	44080.57	3.4590	3.4590	-1.0386	25.72	0.42	-0.750			
0.6918	44276.59	3.4560	3.4559	-1.0041	25.74	0.44	-0.750			
0.6947	44463.71	3.4530	3.4529	-0.9690	25.75	0.45	-0.750			
0.6976	44647.24	3.4500	3.4502	-0.9416	25.77	0.47	-0.750			
0.7004	44824.52	3.4470	3.4469	-0.9164	25.78	0.48	-0.750			
0.7031	44997.03	3.4440	3.4440	-0.8875	25.79	0.49	-0.750			
0.7057	45163.51	3.4410	3.4410	-0.8676	25.80	0.50	-0.750			
0.7083	45328.36	3.4380	3.4380	-0.8518	25.80	0.50	-0.750			
0.7107	45487.61	3.4350	3.4352	-0.8413	25.81	0.51	-0.750			
0.7132	45645.70	3.4320	3.4320	-0.8343	25.82	0.52	-0.750			
0.7157	45804.83	3.4290	3.4290	-0.8443	25.83	0.53	-0.750			
0.7182	45967.18	3.4260	3.4259	-0.8463	25.84	0.54	-0.750			
0.7208	46131.49	3.4230	3.4230	-0.8549	25.84	0.54	-0.750			
0.7234	46296.22	3.4200	3.4202	-0.8595	25.85	0.55	-0.750			
0.7260	46462.87	3.4170	3.4170	-0.8694	25.86	0.56	-0.750			
0.7286	46630.22	3.4140	3.4139	-0.8674	25.86	0.56	-0.750			
0.7312	46795.70	3.4110	3.4110	-0.8666	25.86	0.56	-0.750			
0.7338	46963.26	3.4080	3.4080	-0.8697	25.87	0.57	-0.750			
0.7364	47131.42	3.4050	3.4050	-0.8681	25.87	0.57	-0.750			
0.7390	47298.60	3.4020	3.4019	-0.8631	25.88	0.58	-0.750			
0.7416	47464.98	3.3990	3.3991	-0.8505	25.89	0.59	-0.750			
0.7442	47627.65	3.3960	3.3960	-0.8368	25.90	0.60	-0.750			
0.7467	47788.68	3.3930	3.3930	-0.8225	25.91	0.61	-0.750			
0.7491	47945.00	3.3900	3.3900	-0.8012	25.91	0.61	-0.750			
0.7515	48096.23	3.3870	3.3870	-0.7812	25.92	0.62	-0.750			
0.7538	48245.50	3.3840	3.3840	-0.7584	25.93	0.63	-0.750			
0.7561	48388.80	3.3810	3.3810	-0.7340	25.94	0.64	-0.750			
0.7582	48527.96	3.3780	3.3780	-0.7141	25.94	0.64	-0.750			
0.7604	48662.79	3.3750	3.3752	-0.6900	25.95	0.65	-0.750			
0.7624	48792.28	3.3720	3.3720	-0.6697	25.95	0.65	-0.750			
0.7643	48918.29	3.3690	3.3690	-0.6503	25.96	0.66	-0.750			
0.7663	49040.52	3.3660	3.3661	-0.6328	25.96	0.66	-0.750			
0.7682	49162.07	3.3630	3.3629	-0.6158	25.97	0.67	-0.750			
0.7700	49278.11	3.3600	3.3600	-0.5950	25.97	0.67	-0.750			
0.7717	49390.53	3.3570	3.3570	-0.5751	25.98	0.68	-0.750			
0.7734	49499.41	3.3540	3.3542	-0.5575	25.98	0.68	-0.750			
0.7751	49603.50	3.3510	3.3509	-0.5373	25.99	0.69	-0.750			
0.7766	49704.65	3.3480	3.3480	-0.5223	26.00	0.70	-0.750			
0.7782	49802.47	3.3450	3.3450	-0.5065	26.00	0.70	-0.750			
0.7797	49898.95	3.3420	3.3420	-0.4949	26.01	0.71	-0.750			
0.7811	49993.27	3.3390	3.3390	-0.4798	26.01	0.71	-0.750			
0.7826	50084.12	3.3360	3.3360	-0.4656	26.02	0.72	-0.750			
0.7839	50171.88	3.3330	3.3330	-0.4521	26.02	0.72	-0.750			
0.7853	50257.53	3.3300	3.3300	-0.4378	26.03	0.73	-0.750			
0.7866	50339.29	3.3270	3.3270	-0.4251	26.04	0.74	-0.750			
0.7878	50419.66	3.3240	3.3240	-0.4147	26.04	0.74	-0.750			
0.7890	50497.87	3.3210	3.3210	-0.4052	26.05	0.75	-0.750			
0.7902	50575.14	3.3180	3.3180	-0.3964	26.05	0.75	-0.750			
0.7914	50650.08	3.3150	3.3150	-0.3871	26.06	0.76	-0.750			
0.7926	50723.74	3.3120	3.3120	-0.3776	26.06	0.76	-0.750			
0.7937	50795.63	3.3090	3.3090	-0.3699	26.07	0.77	-0.750			
0.7948	50865.46	3.3060	3.3060	-0.3600	26.08	0.78	-0.750			
0.7958	50933.57	3.3030	3.3030	-0.3510	26.08	0.78	-0.750			
0.7969	51000.01	3.3000	3.3000	-0.3425	26.09	0.79	-0.750			
0.7979	51065.10	3.2970	3.2971	-0.3348	26.09	0.79	-0.750			
0.7989	51128.15	3.2940	3.2940	-0.3278	26.10	0.80	-0.750			
0.7998	51190.17	3.2910	3.2910	-0.3223	26.10	0.80	-0.750			
0.8008	51251.26	3.2880	3.2880	-0.3158	26.11	0.81	-0.750			
0.8017	51311.58	3.2850	3.2849	-0.3097	26.11	0.81	-0.750			
0.8027	51370.63	3.2820	3.2820	-0.3032	26.12	0.82	-0.750			
0.8036	51428.07	3.2790	3.2791	-0.2976	26.12	0.82	-0.750			
0.8044	51484.53	3.2760	3.2760	-0.2916	26.13	0.83	-0.750			
0.8053	51539.54	3.2730	3.2730	-0.2844	26.13	0.83	-0.750			
0.8061	51593.43	3.2700	3.2700	-0.2804	26.14	0.84	-0.750			
0.8070	51646.65	3.2670	3.2671	-0.2770	26.14	0.84	-0.750			
0.8078	51699.45	3.2640	3.2640	-0.2745	26.15	0.85	-0.750			
0.8086	51752.07	3.2610	3.2609	-0.2703	26.15	0.85	-0.750			
0.8094	51803.73	3.2580	3.2581	-0.2652	26.16	0.86	-0.750			
0.8102	51854.57	3.2550	3.2549	-0.2611	26.16	0.86	-0.750			
0.8110	51904.11	3.2520	3.2520	-0.2573	26.17	0.87	-0.750			
0.8118	51952.84	3.2490	3.2490	-0.2513	26.17	0.87	-0.750			
0.8125	52000.25	3.2460	3.2459	-0.2460	26.18	0.88	-0.750			
0.8132	52046.48	3.2430	3.2430	-0.2424	26.18	0.88	-0.750			
0.8140	52093.39	3.2400	3.2402	-0.2390	26.19	0.89	-0.750			
0.8147	52138.94	3.2370	3.2371	-0.2350	26.20	0.90	-0.750			
0.8154	52183.16	3.2340	3.2338	-0.2320	26.20	0.90	-0.750			
0.8161	52227.28	3.2310	3.2311	-0.2279	26.21	0.91	-0.750			
0.8167	52270.39	3.2280	3.2279	-0.2242	26.21	0.91	-0.750			
0.8174	52313.17	3.2250	3.2249	-0.2235	26.22	0.92	-0.750			
0.8181	52355.88	3.2220	3.2222	-0.2214	26.23	0.93	-0.750			
0.8187	52398.16	3.2190	3.2188	-0.2175	26.23	0.93	-0.750			
0.8194	52440.40	3.2160	3.2160	-0.2155	26.24	0.94	-0.750			
0.8200	52481.43	3.2130	3.2130	-0.2123	26.24	0.94	-0.750			
0.8206	52521.49	3.2100	3.2101	-0.2088	26.25	0.95	-0.750			
0.8213	52561.68	3.2070	3.2069	-0.2069	26.25	0.95	-0.750			
0.8219	52600.76	3.2040	3.2039	-0.2042	26.26	0.96	-0.750			
0.8225	52638.97	3.2010	3.2011	-0.2008	26.26	0.96	-0.750			
0.8231	52677.55	3.1980	3.1980	-0.1979	26.27	0.97	-0.750			
0.8237	52715.53	3.1950	3.1950	-0.1968	26.28	0.98	-0.750			
0.8243	52752.96	3.1920	3.1920	-0.1945	26.28	0.98	-0.750			
0.8248	52789.83	3.1890	3.1891	-0.1920	26.29	0.99	-0.750			
0.8254	52826.50	3.1860	3.1859	-0.1896	26.30	1.00	-0.750			
0.8260	52862.72	3.1830	3.1831	-0.1876	26.30	1.00	-0.750			
0.8265	52898.51	3.1800	3.1800	-0.1852	26.31	1.01	-0.750			
0.8271	52933.88	3.1770	3.1770	-0.1833	26.31	1.01	-0.750			
0.8276	52969.22	3.1740	3.1740	-0.1815	26.32	1.02	-0.750			
0.8282	53003.44	3.1710	3.1710	-0.1788	26.32	1.02	-0.750			
0.8287	53037.49	3.1680	3.1680	-0.1771	26.33	1.03	-0.750			
0.8292	53071.35	3.1650	3.1651	-0.1756	26.33	1.03	-0.750			
0.8298	53105.02	3.1620	3.1620	-0.1736	26.34	1.04	-0.750			
0.8303	53138.06	3.1590	3.1590	-0.1719	26.34	1.04	-0.750			
0.8308	53170.97	3.1560	3.1561	-0.1704	26.35	1.05	-0.750			
0.8313	53203.51	3.1530	3.1530	-0.1687	26.35	1.05	-0.750			
0.8318	53235.82	3.1500	3.1499	-0.1666	26.36	1.06	-0.750			
