Ah_balance (normalized)	Ah_balance (mAh)	Voltage - fit (V)	Voltage -  interpolate (V)	dQ/dV (1/V)	Temperature (°C)	Temperature - diff (°C)	Current (C)	R_DC 0ms (mOhm)	R_DC 50ms (mOhm)	R_DC 50 ms PEC (mOhm)
0.0002	10.27	4.1620	4.1618	-0.1062	26.00	0.01	-0.750			
0.0005	34.29	4.1590	4.1589	-0.1455	26.00	0.01	-0.750			
0.0010	66.36	4.1560	4.1560	-0.1867	26.00	0.01	-0.750			
0.0017	106.66	4.1530	4.1530	-0.2259	26.00	0.01	-0.750			
0.0024	154.41	4.1500	4.1500	-0.2622	26.00	0.01	-0.750			
0.0033	208.67	4.1470	4.1470	-0.3002	25.99	0.00	-0.750			
0.0042	269.73	4.1440	4.1441	-0.3358	25.99	-0.00	-0.750			
0.0053	338.27	4.1410	4.1410	-0.3690	25.99	-0.00	-0.750			
0.0065	412.95	4.1380	4.1379	-0.4009	25.98	-0.01	-0.750			
0.0077	493.12	4.1350	4.1351	-0.4313	25.98	-0.01	-0.750			
0.0091	580.21	4.1320	4.1321	-0.4598	25.97	-0.02	-0.750			
0.0105	671.02	4.1290	4.1290	-0.4862	25.97	-0.02	-0.750			
0.0120	767.56	4.1260	4.1260	-0.5066	25.96	-0.03	-0.750			
0.0136	867.65	4.1230	4.1230	-0.5260	25.96	-0.03	-0.750			
0.0152	971.28	4.1200	4.1200	-0.5465	25.95	-0.04	-0.750			
0.0168	1077.43	4.1170	4.1173	-0.5634	25.95	-0.04	-0.750			
0.0186	1187.41	4.1140	4.1140	-0.5786	25.95	-0.04	-0.750			
0.0203	1300.89	4.1110	4.1109	-0.5905	25.94	-0.05	-0.750			
0.0221	1415.60	4.1080	4.1081	-0.6022	25.94	-0.05	-0.750			
0.0240	1534.00	4.1050	4.1050	-0.6187	25.94	-0.05	-0.750			
0.0258	1654.04	4.1020	4.1019	-0.6254	25.94	-0.05	-0.750			
0.0277	1775.23	4.0990	4.0989	-0.6314	25.93	-0.06	-0.750			
0.0297	1897.71	4.0960	4.0962	-0.6354	25.93	-0.06	-0.750			
0.0316	2020.86	4.0930	4.0930	-0.6430	25.93	-0.06	-0.750			
0.0335	2144.36	4.0900	4.0899	-0.6478	25.92	-0.07	-0.750			
0.0354	2266.74	4.0870	4.0871	-0.6478	25.92	-0.07	-0.750			
0.0374	2392.82	4.0840	4.0840	-0.6612	25.92	-0.07	-0.750			
0.0394	2520.88	4.0810	4.0810	-0.6693	25.91	-0.08	-0.750			
0.0414	2650.27	4.0780	4.0780	-0.6762	25.91	-0.08	-0.750			
0.0435	2782.83	4.0750	4.0750	-0.6791	25.91	-0.08	-0.750			
0.0455	2912.70	4.0720	4.0720	-0.6788	25.91	-0.08	-0.750			
0.0476	3043.62	4.0690	4.0691	-0.6841	25.91	-0.08	-0.750			
0.0496	3175.05	4.0660	4.0660	-0.6854	25.92	-0.07	-0.750			
0.0517	3305.63	4.0630	4.0629	-0.6879	25.92	-0.07	-0.750			
0.0537	3438.80	4.0600	4.0599	-0.6912	25.92	-0.07	-0.750			
0.0558	3571.13	4.0570	4.0570	-0.6993	25.92	-0.07	-0.750			
0.0579	3706.71	4.0540	4.0541	-0.7060	25.92	-0.07	-0.750			
0.0600	3842.85	4.0510	4.0509	-0.7075	25.92	-0.07	-0.750			
0.0622	3979.60	4.0480	4.0480	-0.7074	25.92	-0.07	-0.750			
0.0643	4117.15	4.0450	4.0451	-0.7099	25.92	-0.07	-0.750			
0.0665	4253.17	4.0420	4.0419	-0.7088	25.92	-0.07	-0.750			
0.0686	4389.18	4.0390	4.0389	-0.7108	25.92	-0.07	-0.750			
0.0707	4524.10	4.0360	4.0360	-0.7105	25.92	-0.07	-0.750			
0.0728	4660.83	4.0330	4.0330	-0.7115	25.92	-0.07	-0.750			
0.0750	4798.17	4.0300	4.0299	-0.7183	25.91	-0.08	-0.750			
0.0771	4936.38	4.0270	4.0271	-0.7204	25.91	-0.08	-0.750			
0.0793	5074.86	4.0240	4.0242	-0.7223	25.91	-0.08	-0.750			
0.0815	5213.34	4.0210	4.0210	-0.7254	25.91	-0.08	-0.750			
0.0836	5351.19	4.0180	4.0181	-0.7298	25.92	-0.07	-0.750			
0.0859	5494.74	4.0150	4.0149	-0.7301	25.92	-0.07	-0.750			
0.0881	5636.14	4.0120	4.0120	-0.7326	25.92	-0.07	-0.750			
0.0902	5775.49	4.0090	4.0090	-0.7327	25.93	-0.06	-0.750			
0.0924	5916.48	4.0060	4.0061	-0.7362	25.93	-0.06	-0.750			
0.0947	6058.38	4.0030	4.0028	-0.7346	25.93	-0.06	-0.750			
0.0968	6198.26	4.0000	4.0000	-0.7374	25.93	-0.06	-0.750			
0.0991	6340.38	3.9970	3.9970	-0.7372	25.94	-0.05	-0.750			
0.1013	6484.25	3.9940	3.9940	-0.7445	25.94	-0.05	-0.750			
0.1035	6626.50	3.9910	3.9911	-0.7439	25.94	-0.05	-0.750			
0.1058	6769.32	3.9880	3.9879	-0.7452	25.94	-0.05	-0.750			
0.1080	6912.28	3.9850	3.9849	-0.7457	25.94	-0.05	-0.750			
0.1103	7056.32	3.9820	3.9820	-0.7496	25.94	-0.05	-0.750			
0.1125	7199.28	3.9790	3.9791	-0.7481	25.95	-0.04	-0.750			
0.1148	7346.28	3.9760	3.9759	-0.7538	25.95	-0.04	-0.750			
0.1170	7489.65	3.9730	3.9731	-0.7557	25.95	-0.04	-0.750			
0.1193	7634.35	3.9700	3.9700	-0.7564	25.95	-0.04	-0.750			
0.1216	7780.52	3.9670	3.9669	-0.7587	25.96	-0.03	-0.750			
0.1239	7926.53	3.9640	3.9640	-0.7611	25.96	-0.03	-0.750			
0.1261	8072.92	3.9610	3.9611	-0.7659	25.97	-0.02	-0.750			
0.1284	8220.00	3.9580	3.9580	-0.7669	25.97	-0.02	-0.750			
0.1308	8368.41	3.9550	3.9549	-0.7672	25.97	-0.02	-0.750			
0.1330	8514.45	3.9520	3.9520	-0.7704	25.97	-0.02	-0.750			
0.1354	8662.88	3.9490	3.9491	-0.7729	25.97	-0.02	-0.750			
0.1377	8811.11	3.9460	3.9460	-0.7753	25.97	-0.02	-0.750			
0.1400	8961.19	3.9430	3.9429	-0.7758	25.97	-0.02	-0.750			
0.1423	9109.77	3.9400	3.9401	-0.7787	25.97	-0.02	-0.750			
0.1447	9259.70	3.9370	3.9370	-0.7837	25.97	-0.02	-0.750			
0.1470	9410.79	3.9340	3.9340	-0.7857	25.98	-0.01	-0.750			
0.1494	9561.20	3.9310	3.9309	-0.7831	25.98	-0.01	-0.750			
0.1518	9712.90	3.9280	3.9280	-0.7865	25.99	-0.00	-0.750			
0.1541	9863.34	3.9250	3.9251	-0.7857	25.99	-0.00	-0.750			
0.1565	10014.30	3.9220	3.9220	-0.7868	25.99	0.00	-0.750			
0.1588	10165.45	3.9190	3.9190	-0.7856	26.00	0.01	-0.750			
0.1612	10316.75	3.9160	3.9159	-0.7861	26.00	0.01	-0.750			
0.1636	10467.29	3.9130	3.9131	-0.7900	26.01	0.02	-0.750			
0.1659	10618.70	3.9100	3.9101	-0.7946	26.01	0.02	-0.750			
0.1683	10770.62	3.9070	3.9069	-0.7998	26.01	0.02	-0.750			
0.1707	10923.69	3.9040	3.9039	-0.8119	26.01	0.02	-0.750			
0.1732	11081.77	3.9010	3.9010	-0.8051	26.02	0.03	-0.750			
0.1756	11238.09	3.8980	3.8980	-0.8058	26.02	0.03	-0.750			
0.1780	11394.52	3.8950	3.8951	-0.8080	26.02	0.03	-0.750			
0.1804	11548.33	3.8920	3.8918	-0.8050	26.02	0.03	-0.750			
0.1828	11699.43	3.8890	3.8889	-0.8047	26.03	0.04	-0.750			
0.1852	11855.78	3.8860	3.8859	-0.8022	26.03	0.04	-0.750			
0.1876	12009.14	3.8830	3.8831	-0.8033	26.04	0.05	-0.750			
0.1901	12166.66	3.8800	3.8800	-0.8111	26.05	0.06	-0.750			
0.1925	12322.36	3.8770	3.8771	-0.8069	26.05	0.06	-0.750			
0.1949	12475.41	3.8740	3.8738	-0.8122	26.05	0.06	-0.750			
0.1973	12629.89	3.8710	3.8710	-0.8115	26.05	0.06	-0.750			
0.1998	12786.25	3.8680	3.8680	-0.8108	26.05	0.06	-0.750			
0.2022	12943.90	3.8650	3.8650	-0.8175	26.05	0.06	-0.750			
0.2047	13100.59	3.8620	3.8621	-0.8174	26.05	0.06	-0.750			
0.2072	13257.71	3.8590	3.8589	-0.8184	26.05	0.06	-0.750			
0.2096	13415.85	3.8560	3.8560	-0.8232	26.06	0.07	-0.750			
0.2121	13574.48	3.8530	3.8530	-0.8147	26.06	0.07	-0.750			
0.2146	13732.62	3.8500	3.8500	-0.8168	26.07	0.08	-0.750			
0.2170	13888.48	3.8470	3.8472	-0.8159	26.07	0.08	-0.750			
0.2194	14043.43	3.8440	3.8439	-0.8129	26.07	0.08	-0.750			
0.2219	14199.01	3.8410	3.8409	-0.8162	26.08	0.09	-0.750			
0.2243	14355.58	3.8380	3.8380	-0.8128	26.08	0.09	-0.750			
0.2268	14514.42	3.8350	3.8350	-0.8151	26.09	0.10	-0.750			
0.2292	14670.36	3.8320	3.8321	-0.8135	26.09	0.10	-0.750			
0.2316	14824.70	3.8290	3.8290	-0.8096	26.09	0.10	-0.750			
0.2340	14978.95	3.8260	3.8260	-0.8138	26.10	0.11	-0.750			
0.2365	15135.25	3.8230	3.8229	-0.8113	26.10	0.11	-0.750			
0.2389	15292.78	3.8200	3.8200	-0.8136	26.11	0.12	-0.750			
0.2414	15449.89	3.8170	3.8172	-0.8134	26.11	0.12	-0.750			
0.2439	15607.09	3.8140	3.8139	-0.8116	26.11	0.12	-0.750			
0.2463	15761.15	3.8110	3.8111	-0.8091	26.12	0.13	-0.750			
0.2487	15914.97	3.8080	3.8080	-0.8011	26.12	0.13	-0.750			
0.2511	16068.56	3.8050	3.8049	-0.7975	26.13	0.14	-0.750			
0.2535	16223.56	3.8020	3.8021	-0.7986	26.13	0.14	-0.750			
0.2559	16375.56	3.7990	3.7990	-0.7923	26.13	0.14	-0.750			
0.2582	16526.47	3.7960	3.7960	-0.7947	26.14	0.15	-0.750			
0.2606	16680.10	3.7930	3.7930	-0.7878	26.14	0.15	-0.750			
0.2630	16829.00	3.7900	3.7900	-0.7835	26.14	0.15	-0.750			
0.2654	16982.51	3.7870	3.7870	-0.7837	26.15	0.16	-0.750			
0.2677	17131.75	3.7840	3.7840	-0.7779	26.15	0.16	-0.750			
0.2700	17279.52	3.7810	3.7809	-0.7761	26.16	0.17	-0.750			
0.2723	17428.19	3.7780	3.7780	-0.7737	26.16	0.17	-0.750			
0.2746	17575.25	3.7750	3.7749	-0.7670	26.16	0.17	-0.750			
0.2770	17725.15	3.7720	3.7720	-0.7689	26.17	0.18	-0.750			
0.2792	17871.45	3.7690	3.7693	-0.7642	26.17	0.18	-0.750			
0.2815	18018.03	3.7660	3.7660	-0.7634	26.17	0.18	-0.750			
0.2838	18164.42	3.7630	3.7630	-0.7602	26.18	0.19	-0.750			
0.2861	18310.05	3.7600	3.7599	-0.7579	26.18	0.19	-0.750			
0.2884	18454.73	3.7570	3.7571	-0.7626	26.18	0.19	-0.750			
0.2906	18600.98	3.7540	3.7540	-0.7682	26.19	0.20	-0.750			
0.2929	18748.65	3.7510	3.7508	-0.7734	26.19	0.20	-0.750			
0.2953	18897.35	3.7480	3.7480	-0.7791	26.20	0.21	-0.750			
0.2976	19047.33	3.7450	3.7450	-0.7834	26.20	0.21	-0.750			
0.3000	19199.19	3.7420	3.7420	-0.7883	26.20	0.21	-0.750			
0.3024	19352.73	3.7390	3.7390	-0.7927	26.21	0.22	-0.750			
0.3047	19502.53	3.7360	3.7361	-0.7976	26.21	0.22	-0.750			
0.3071	19656.48	3.7330	3.7330	-0.8059	26.21	0.22	-0.750			
0.3095	19810.93	3.7300	3.7299	-0.8196	26.21	0.22	-0.750			
0.3120	19969.79	3.7270	3.7270	-0.8279	26.21	0.22	-0.750			
0.3145	20130.34	3.7240	3.7240	-0.8408	26.21	0.22	-0.750			
0.3171	20292.18	3.7210	3.7212	-0.8562	26.21	0.22	-0.750			
0.3196	20457.52	3.7180	3.7179	-0.8721	26.21	0.22	-0.750			
0.3223	20626.07	3.7150	3.7150	-0.8811	26.21	0.22	-0.750			
0.3249	20796.13	3.7120	3.7120	-0.8962	26.21	0.22	-0.750			
0.3277	20970.51	3.7090	3.7090	-0.9127	26.21	0.22	-0.750			
0.3304	21147.38	3.7060	3.7059	-0.9294	26.21	0.22	-0.750			
0.3332	21326.53	3.7030	3.7030	-0.9430	26.21	0.22	-0.750			
0.3361	21508.40	3.7000	3.7000	-0.9590	26.21	0.22	-0.750			
0.3390	21693.39	3.6970	3.6970	-0.9810	26.21	0.22	-0.750			
0.3419	21883.69	3.6940	3.6941	-1.0080	26.21	0.22	-0.750			
0.3450	22078.50	3.6910	3.6909	-1.0249	26.21	0.22	-0.750			
0.3481	22279.04	3.6880	3.6879	-1.0400	26.21	0.22	-0.750			
0.3512	22479.34	3.6850	3.6850	-1.0604	26.21	0.22	-0.750			
0.3545	22685.94	3.6820	3.6822	-1.0893	26.21	0.22	-0.750			
0.3578	22896.33	3.6790	3.6789	-1.1019	26.20	0.21	-0.750			
0.3611	23107.84	3.6760	3.6759	-1.1187	26.20	0.21	-0.750			
0.3645	23325.03	3.6730	3.6730	-1.1413	26.19	0.20	-0.750			
0.3679	23548.15	3.6700	3.6700	-1.1687	26.19	0.20	-0.750			
0.3715	23774.00	3.6670	3.6670	-1.1915	26.18	0.19	-0.750			
0.3750	24001.86	3.6640	3.6640	-1.2136	26.18	0.19	-0.750			
0.3787	24237.71	3.6610	3.6610	-1.2405	26.17	0.18	-0.750			
0.3825	24481.75	3.6580	3.6579	-1.2712	26.16	0.17	-0.750			
0.3864	24727.44	3.6550	3.6550	-1.2932	26.16	0.17	-0.750			
0.3903	24977.20	3.6520	3.6521	-1.3273	26.15	0.16	-0.750			
0.3943	25235.08	3.6490	3.6490	-1.3532	26.15	0.16	-0.750			
0.3984	25498.02	3.6460	3.6459	-1.3803	26.14	0.15	-0.750			
0.4026	25766.49	3.6430	3.6429	-1.4102	26.13	0.14	-0.750			
0.4069	26040.55	3.6400	3.6400	-1.4362	26.13	0.14	-0.750			
0.4112	26319.24	3.6370	3.6369	-1.4647	26.12	0.13	-0.750			
0.4157	26602.26	3.6340	3.6341	-1.4900	26.11	0.12	-0.750			
0.4201	26887.97	3.6310	3.6310	-1.5133	26.11	0.12	-0.750			
0.4247	27183.23	3.6280	3.6277	-1.5588	26.11	0.12	-0.750			
0.4295	27487.13	3.6250	3.6251	-1.5857	26.11	0.12	-0.750			
0.4343	27795.13	3.6220	3.6220	-1.6183	26.10	0.11	-0.750			
0.4393	28112.07	3.6190	3.6190	-1.6512	26.09	0.10	-0.750			
0.4442	28430.75	3.6160	3.6159	-1.6741	26.08	0.09	-0.750	0.398	0.523	
0.4493	28752.58	3.6130	3.6131	-1.7077	26.07	0.08	-0.750			
0.4544	29079.81	3.6100	3.6099	-1.7399	26.06	0.07	-0.750			
0.4596	29415.38	3.6070	3.6069	-1.7805	26.05	0.06	-0.750			
0.4651	29764.61	3.6040	3.6040	-1.8155	26.03	0.04	-0.750			
0.4705	30113.75	3.6010	3.6010	-1.8532	26.03	0.04	-0.750			
0.4762	30476.71	3.5980	3.5981	-1.8922	26.03	0.04	-0.750			
0.4819	30844.47	3.5950	3.5949	-1.9336	26.03	0.04	-0.750			
0.4877	31215.33	3.5920	3.5920	-1.9728	26.02	0.03	-0.750			
0.4937	31595.39	3.5890	3.5891	-2.0159	26.01	0.02	-0.750			
0.4999	31991.40	3.5860	3.5859	-2.0620	26.01	0.02	-0.750			
0.5061	32393.33	3.5830	3.5830	-2.1006	26.01	0.02	-0.750			
0.5125	32800.84	3.5800	3.5800	-2.1258	26.00	0.01	-0.750			
0.5190	33215.34	3.5770	3.5770	-2.1514	25.99	0.00	-0.750			
0.5255	33632.42	3.5740	3.5740	-2.1613	25.99	0.00	-0.750			
0.5320	34047.82	3.5710	3.5711	-2.1789	25.99	-0.00	-0.750			
0.5385	34464.75	3.5680	3.5682	-2.1916	25.98	-0.01	-0.750			
0.5452	34889.98	3.5650	3.5649	-2.2052	25.98	-0.01	-0.750			
0.5518	35315.37	3.5620	3.5620	-2.2124	25.98	-0.01	-0.750			
0.5585	35744.87	3.5590	3.5590	-2.2079	25.98	-0.01	-0.750			
0.5652	36173.29	3.5560	3.5560	-2.2045	25.97	-0.02	-0.750			
0.5718	36592.33	3.5530	3.5531	-2.1795	25.97	-0.02	-0.750			
0.5782	37003.62	3.5500	3.5499	-2.1786	25.97	-0.02	-0.750			
0.5847	37419.05	3.5470	3.5471	-2.1739	25.97	-0.02	-0.750			
0.5912	37836.28	3.5440	3.5439	-2.1682	25.97	-0.02	-0.750			
0.5977	38255.35	3.5410	3.5410	-2.1748	25.97	-0.02	-0.750			
0.6043	38673.67	3.5380	3.5380	-2.1558	25.97	-0.02	-0.750			
0.6108	39094.17	3.5350	3.5348	-2.1349	25.98	-0.01	-0.750			
0.6172	39498.01	3.5320	3.5321	-2.0934	25.99	0.00	-0.750			
0.6234	39895.36	3.5290	3.5290	-2.0394	26.00	0.01	-0.750			
0.6295	40290.52	3.5260	3.5260	-2.0008	26.00	0.01	-0.750			
0.6354	40666.11	3.5230	3.5231	-1.9411	26.01	0.02	-0.750			
0.6412	41033.66	3.5200	3.5199	-1.8995	26.01	0.02	-0.750			
0.6468	41392.28	3.5170	3.5171	-1.8487	26.02	0.03	-0.750			
0.6523	41745.29	3.5140	3.5138	-1.7961	26.03	0.04	-0.750			
0.6576	42084.66	3.5110	3.5110	-1.7447	26.04	0.05	-0.750			
0.6627	42413.21	3.5080	3.5079	-1.6965	26.06	0.07	-0.750			
0.6678	42736.06	3.5050	3.5051	-1.6404	26.07	0.08	-0.750			
0.6726	43046.72	3.5020	3.5021	-1.5853	26.09	0.10	-0.750			
0.6773	43344.94	3.4990	3.4990	-1.5368	26.10	0.11	-0.750			
0.6818	43636.15	3.4960	3.4959	-1.4826	26.11	0.12	-0.750			
0.6862	43917.52	3.4930	3.4929	-1.4432	26.12	0.13	-0.750			
0.6904	44187.35	3.4900	3.4899	-1.4022	26.13	0.14	-0.750			
0.6946	44451.49	3.4870	3.4870	-1.3602	26.14	0.15	-0.750			
0.6986	44712.94	3.4840	3.4839	-1.3192	26.16	0.17	-0.750			
0.7025	44961.45	3.4810	3.4810	-1.2739	26.18	0.19	-0.750			
0.7063	45200.08	3.4780	3.4779	-1.2279	26.20	0.21	-0.750			
0.7099	45434.24	3.4750	3.4749	-1.1941	26.21	0.22	-0.750			
0.7134	45656.53	3.4720	3.4719	-1.1493	26.23	0.24	-0.750			
0.7167	45869.02	3.4690	3.4691	-1.1102	26.24	0.25	-0.750			
0.7200	46082.44	3.4660	3.4660	-1.0844	26.25	0.26	-0.750			
0.7233	46288.53	3.4630	3.4630	-1.0546	26.27	0.28	-0.750			
0.7264	46487.50	3.4600	3.4599	-1.0189	26.28	0.29	-0.750			
0.7294	46680.74	3.4570	3.4571	-0.9865	26.29	0.30	-0.750			
0.7323	46866.09	3.4540	3.4540	-0.9602	26.30	0.31	-0.750			
0.7351	47046.59	3.4510	3.4510	-0.9305	26.31	0.32	-0.750			
0.7378	47221.41	3.4480	3.4478	-0.9037	26.32	0.33	-0.750			
0.7405	47391.55	3.4450	3.4451	-0.8820	26.34	0.35	-0.750			
0.7431	47557.49	3.4420	3.4419	-0.8676	26.34	0.35	-0.750			
0.7456	47719.75	3.4390	3.4389	-0.8689	26.35	0.36	-0.750			
0.7482	47884.59	3.4360	3.4360	-0.8718	26.36	0.37	-0.750			
0.7508	48048.40	3.4330	3.4330	-0.8770	26.37	0.38	-0.750			
0.7535	48220.84	3.4300	3.4300	-0.8978	26.38	0.39	-0.750			
0.7562	48394.18	3.4270	3.4270	-0.9222	26.39	0.40	-0.750			
0.7590	48573.23	3.4240	3.4239	-0.9363	26.40	0.41	-0.750			
0.7618	48754.24	3.4210	3.4210	-0.9505	26.42	0.43	-0.750			
0.7647	48939.34	3.4180	3.4180	-0.9581	26.43	0.44	-0.750			
0.7676	49127.42	3.4150	3.4150	-0.9696	26.44	0.45	-0.750			
0.7705	49315.00	3.4120	3.4121	-0.9753	26.45	0.46	-0.750			
0.7735	49504.45	3.4090	3.4089	-0.9692	26.45	0.46	-0.750			
0.7764	49690.78	3.4060	3.4059	-0.9535	26.46	0.47	-0.750			
0.7793	49875.58	3.4030	3.4032	-0.9407	26.46	0.47	-0.750			
0.7821	50054.16	3.4000	3.4000	-0.9186	26.47	0.48	-0.750			
0.7848	50229.60	3.3970	3.3970	-0.8892	26.48	0.49	-0.750			
0.7874	50396.43	3.3940	3.3940	-0.8562	26.49	0.50	-0.750			
0.7900	50557.85	3.3910	3.3911	-0.8287	26.49	0.50	-0.750			
0.7924	50713.94	3.3880	3.3880	-0.8000	26.50	0.51	-0.750			
0.7948	50864.92	3.3850	3.3850	-0.7710	26.51	0.52	-0.750			
0.7970	51008.34	3.3820	3.3819	-0.7433	26.52	0.53	-0.750			
0.7992	51148.22	3.3790	3.3791	-0.7172	26.52	0.53	-0.750			
0.8013	51284.91	3.3760	3.3760	-0.6928	26.53	0.54	-0.750			
0.8034	51415.12	3.3730	3.3729	-0.6668	26.54	0.55	-0.750			
0.8053	51540.55	3.3700	3.3700	-0.6412	26.54	0.55	-0.750			
0.8072	51660.36	3.3670	3.3669	-0.6159	26.55	0.56	-0.750			
0.8090	51776.41	3.3640	3.3640	-0.5923	26.56	0.57	-0.750			
0.8107	51885.75	3.3610	3.3611	-0.5708	26.57	0.58	-0.750			
0.8124	51994.57	3.3580	3.3579	-0.5525	26.57	0.58	-0.750			
0.8141	52099.38	3.3550	3.3549	-0.5316	26.58	0.59	-0.750			
0.8156	52198.66	3.3520	3.3520	-0.5119	26.59	0.60	-0.750			
0.8171	52295.13	3.3490	3.3490	-0.4941	26.59	0.60	-0.750			
0.8186	52387.86	3.3460	3.3460	-0.4783	26.60	0.61	-0.750			
0.8200	52477.47	3.3430	3.3430	-0.4608	26.61	0.62	-0.750			
0.8213	52563.33	3.3400	3.3400	-0.4451	26.61	0.62	-0.750			
0.8226	52648.34	3.3370	3.3370	-0.4326	26.62	0.63	-0.750			
0.8239	52730.54	3.3340	3.3340	-0.4183	26.63	0.64	-0.750			
0.8251	52808.34	3.3310	3.3310	-0.4038	26.63	0.64	-0.750			
0.8263	52884.84	3.3280	3.3281	-0.3898	26.64	0.65	-0.750			
0.8275	52958.00	3.3250	3.3250	-0.3774	26.64	0.65	-0.750			
0.8286	53028.79	3.3220	3.3220	-0.3673	26.65	0.66	-0.750			
0.8297	53097.81	3.3190	3.3191	-0.3574	26.65	0.66	-0.750			
0.8307	53165.53	3.3160	3.3159	-0.3461	26.66	0.67	-0.750			
0.8317	53231.90	3.3130	3.3129	-0.3364	26.66	0.67	-0.750			
0.8327	53295.03	3.3100	3.3101	-0.3267	26.67	0.68	-0.750			
0.8337	53356.64	3.3070	3.3070	-0.3172	26.67	0.68	-0.750			
0.8346	53416.66	3.3040	3.3040	-0.3075	26.68	0.69	-0.750			
0.8355	53474.55	3.3010	3.3010	-0.2994	26.68	0.69	-0.750			
0.8364	53530.81	3.2980	3.2981	-0.2923	26.69	0.70	-0.750			
0.8373	53586.64	3.2950	3.2950	-0.2863	26.69	0.70	-0.750			
0.8381	53640.78	3.2920	3.2919	-0.2798	26.69	0.70	-0.750			
0.8390	53693.65	3.2890	3.2890	-0.2723	26.70	0.71	-0.750			
0.8398	53745.22	3.2860	3.2860	-0.2667	26.70	0.71	-0.750			
0.8406	53795.85	3.2830	3.2830	-0.2613	26.71	0.72	-0.750			
0.8413	53845.20	3.2800	3.2800	-0.2550	26.71	0.72	-0.750			
0.8421	53893.61	3.2770	3.2770	-0.2499	26.71	0.72	-0.750			
0.8428	53941.12	3.2740	3.2740	-0.2453	26.72	0.73	-0.750			
0.8436	53987.78	3.2710	3.2711	-0.2405	26.72	0.73	-0.750			
0.8443	54033.46	3.2680	3.2679	-0.2357	26.73	0.74	-0.750			
0.8450	54078.42	3.2650	3.2650	-0.2319	26.73	0.74	-0.750			
0.8457	54122.30	3.2620	3.2620	-0.2267	26.74	0.75	-0.750			
0.8463	54165.37	3.2590	3.2589	-0.2226	26.74	0.75	-0.750			
0.8470	54207.77	3.2560	3.2561	-0.2186	26.75	0.76	-0.750			
0.8476	54249.24	3.2530	3.2530	-0.2150	26.75	0.76	-0.750			
0.8483	54289.91	3.2500	3.2500	-0.2115	26.76	0.77	-0.750			
0.8489	54329.99	3.2470	3.2469	-0.2086	26.76	0.77	-0.750			
0.8495	54369.80	3.2440	3.2440	-0.2061	26.77	0.78	-0.750			
0.8501	54408.87	3.2410	3.2411	-0.2034	26.77	0.78	-0.750			
0.8507	54447.93	3.2380	3.2379	-0.2011	26.78	0.79	-0.750			
0.8513	54486.15	3.2350	3.2351	-0.1990	26.78	0.79	-0.750			
0.8519	54524.14	3.2320	3.2320	-0.1968	26.78	0.79	-0.750			
0.8525	54561.92	3.2290	3.2290	-0.1931	26.79	0.80	-0.750			
0.8531	54598.91	3.2260	3.2259	-0.1897	26.79	0.80	-0.750			
0.8537	54634.88	3.2230	3.2230	-0.1866	26.80	0.81	-0.750			
0.8542	54670.37	3.2200	3.2200	-0.1832	26.80	0.81	-0.750			
0.8548	54705.10	3.2170	3.2171	-0.1810	26.81	0.82	-0.750			
0.8553	54739.33	3.2140	3.2139	-0.1784	26.81	0.82	-0.750			
0.8558	54772.88	3.2110	3.2110	-0.1761	26.82	0.83	-0.750			
0.8564	54806.61	3.2080	3.2080	-0.1753	26.82	0.83	-0.750			
0.8569	54840.50	3.2050	3.2050	-0.1735	26.83	0.84	-0.750			
0.8574	54873.74	3.2020	3.2020	-0.1718	26.83	0.84	-0.750			
0.8579	54906.59	3.1990	3.1991	-0.1696	26.84	0.85	-0.750			
0.8584	54938.95	3.1960	3.1960	-0.1674	26.85	0.86	-0.750			
0.8589	54970.83	3.1930	3.1930	-0.1657	26.85	0.86	-0.750			
0.8594	55002.58	3.1900	3.1900	-0.1635	26.86	0.87	-0.750			
0.8599	55033.35	3.1870	3.1870	-0.1617	26.86	0.87	-0.750			
0.8604	55064.28	3.1840	3.1841	-0.1605	26.87	0.88	-0.750			
0.8609	55095.09	3.1810	3.1810	-0.1586	26.87	0.88	-0.750			
0.8613	55125.37	3.1780	3.1779	-0.1568	26.88	0.89	-0.750			
0.8618	55155.31	3.1750	3.1751	-0.1554	26.88	0.89	-0.750			
0.8623	55184.99	3.1720	3.1721	-0.1537	26.89	0.90	-0.750			
0.8627	55214.15	3.1690	3.1690	-0.1529	26.89	0.90	-0.750			
0.8632	55243.52	3.1660	3.1659	-0.1518	26.89	0.90	-0.750			
0.8636	55272.43	3.1630	3.1630	-0.1498	26.90	0.91	-0.750			
0.8641	55301.10	3.1600	3.1600	-0.1488	26.90	0.91	-0.750			
