Ah_balance (normalized)	Ah_balance (mAh)	Voltage - fit (V)	Voltage -  interpolate (V)	dQ/dV (1/V)	Temperature (°C)	Temperature - diff (°C)	Current (C)	R_DC 0ms (mOhm)	R_DC 50ms (mOhm)	R_DC 50 ms PEC (mOhm)
0.0002	15.87	4.1650	4.1648	-0.1096	25.85	0.03	-0.750			
0.0007	42.15	4.1620	4.1618	-0.1595	25.85	0.03	-0.750			
0.0012	78.43	4.1590	4.1590	-0.2049	25.85	0.03	-0.750			
0.0019	121.58	4.1560	4.1561	-0.2484	25.85	0.03	-0.750			
0.0027	173.72	4.1530	4.1530	-0.2905	25.84	0.02	-0.750			
0.0037	234.62	4.1500	4.1500	-0.3316	25.84	0.02	-0.750			
0.0047	302.87	4.1470	4.1469	-0.3690	25.84	0.02	-0.750			
0.0059	377.68	4.1440	4.1440	-0.4048	25.84	0.02	-0.750			
0.0072	459.11	4.1410	4.1410	-0.4399	25.83	0.01	-0.750			
0.0086	547.73	4.1380	4.1381	-0.4692	25.83	0.01	-0.750			
0.0100	641.05	4.1350	4.1349	-0.4967	25.83	0.01	-0.750			
0.0116	739.88	4.1320	4.1320	-0.5224	25.82	0.00	-0.750			
0.0132	843.58	4.1290	4.1289	-0.5458	25.82	-0.00	-0.750			
0.0149	950.65	4.1260	4.1260	-0.5658	25.81	-0.01	-0.750			
0.0166	1062.00	4.1230	4.1231	-0.5844	25.81	-0.01	-0.750			
0.0184	1176.21	4.1200	4.1200	-0.6005	25.81	-0.01	-0.750			
0.0202	1294.64	4.1170	4.1170	-0.6140	25.80	-0.02	-0.750			
0.0221	1413.64	4.1140	4.1140	-0.6242	25.80	-0.02	-0.750			
0.0240	1534.23	4.1110	4.1110	-0.6345	25.79	-0.03	-0.750			
0.0259	1657.69	4.1080	4.1080	-0.6443	25.79	-0.03	-0.750			
0.0278	1781.83	4.1050	4.1049	-0.6517	25.79	-0.03	-0.750			
0.0298	1907.13	4.1020	4.1020	-0.6621	25.78	-0.04	-0.750			
0.0318	2035.58	4.0990	4.0990	-0.6703	25.78	-0.04	-0.750			
0.0338	2165.40	4.0960	4.0960	-0.6798	25.78	-0.04	-0.750			
0.0359	2297.58	4.0930	4.0930	-0.6854	25.77	-0.05	-0.750			
0.0380	2430.09	4.0900	4.0901	-0.6869	25.77	-0.05	-0.750			
0.0400	2562.92	4.0870	4.0870	-0.6915	25.77	-0.05	-0.750			
0.0421	2694.66	4.0840	4.0841	-0.7001	25.77	-0.05	-0.750			
0.0442	2829.05	4.0810	4.0809	-0.7009	25.76	-0.06	-0.750			
0.0463	2964.98	4.0780	4.0780	-0.7076	25.76	-0.06	-0.750			
0.0485	3101.57	4.0750	4.0751	-0.7076	25.76	-0.06	-0.750			
0.0506	3239.53	4.0720	4.0720	-0.7110	25.76	-0.06	-0.750			
0.0528	3376.14	4.0690	4.0690	-0.7113	25.76	-0.06	-0.750			
0.0548	3509.94	4.0660	4.0660	-0.7183	25.76	-0.06	-0.750			
0.0570	3648.37	4.0630	4.0630	-0.7173	25.75	-0.07	-0.750			
0.0592	3787.92	4.0600	4.0599	-0.7236	25.75	-0.07	-0.750			
0.0614	3928.71	4.0570	4.0571	-0.7253	25.75	-0.07	-0.750			
0.0636	4068.93	4.0540	4.0539	-0.7255	25.75	-0.07	-0.750			
0.0657	4206.95	4.0510	4.0510	-0.7260	25.75	-0.07	-0.750			
0.0679	4345.14	4.0480	4.0481	-0.7276	25.75	-0.07	-0.750			
0.0701	4484.39	4.0450	4.0449	-0.7284	25.75	-0.07	-0.750			
0.0723	4626.31	4.0420	4.0420	-0.7327	25.75	-0.07	-0.750			
0.0745	4766.93	4.0390	4.0392	-0.7321	25.75	-0.07	-0.750			
0.0767	4907.25	4.0360	4.0359	-0.7348	25.75	-0.07	-0.750			
0.0789	5048.47	4.0330	4.0330	-0.7372	25.75	-0.07	-0.750			
0.0811	5189.28	4.0300	4.0300	-0.7396	25.75	-0.07	-0.750			
0.0833	5331.17	4.0270	4.0270	-0.7400	25.76	-0.06	-0.750			
0.0856	5475.62	4.0240	4.0240	-0.7474	25.76	-0.06	-0.750			
0.0878	5619.10	4.0210	4.0210	-0.7527	25.76	-0.06	-0.750			
0.0901	5763.97	4.0180	4.0180	-0.7573	25.76	-0.06	-0.750			
0.0923	5910.37	4.0150	4.0149	-0.7584	25.76	-0.06	-0.750			
0.0946	6056.63	4.0120	4.0120	-0.7594	25.76	-0.06	-0.750			
0.0969	6202.76	4.0090	4.0090	-0.7614	25.76	-0.06	-0.750			
0.0992	6349.27	4.0060	4.0060	-0.7622	25.76	-0.06	-0.750			
0.1015	6494.57	4.0030	4.0029	-0.7587	25.76	-0.06	-0.750			
0.1037	6639.59	4.0000	4.0000	-0.7585	25.76	-0.06	-0.750			
0.1060	6785.72	3.9970	3.9971	-0.7610	25.76	-0.06	-0.750			
0.1083	6932.09	3.9940	3.9939	-0.7641	25.77	-0.05	-0.750			
0.1106	7080.06	3.9910	3.9910	-0.7657	25.77	-0.05	-0.750			
0.1129	7226.54	3.9880	3.9881	-0.7684	25.77	-0.05	-0.750			
0.1152	7374.00	3.9850	3.9850	-0.7722	25.77	-0.05	-0.750			
0.1176	7523.41	3.9820	3.9820	-0.7751	25.77	-0.05	-0.750			
0.1199	7671.26	3.9790	3.9790	-0.7767	25.77	-0.05	-0.750			
0.1222	7822.33	3.9760	3.9760	-0.7800	25.77	-0.05	-0.750			
0.1246	7971.55	3.9730	3.9730	-0.7783	25.77	-0.05	-0.750			
0.1269	8122.35	3.9700	3.9699	-0.7758	25.77	-0.05	-0.750			
0.1292	8268.34	3.9670	3.9670	-0.7841	25.78	-0.04	-0.750			
0.1315	8418.36	3.9640	3.9640	-0.7875	25.78	-0.04	-0.750			
0.1339	8570.30	3.9610	3.9609	-0.7947	25.78	-0.04	-0.750			
0.1363	8724.41	3.9580	3.9580	-0.7961	25.79	-0.03	-0.750			
0.1387	8878.60	3.9550	3.9550	-0.7997	25.79	-0.03	-0.750			
0.1411	9031.96	3.9520	3.9520	-0.8073	25.79	-0.03	-0.750			
0.1436	9188.40	3.9490	3.9488	-0.8060	25.79	-0.03	-0.750			
0.1459	9340.45	3.9460	3.9460	-0.7986	25.79	-0.03	-0.750			
0.1484	9496.97	3.9430	3.9430	-0.8014	25.79	-0.03	-0.750			
0.1508	9651.48	3.9400	3.9401	-0.8009	25.79	-0.03	-0.750			
0.1532	9804.30	3.9370	3.9370	-0.8051	25.80	-0.02	-0.750			
0.1556	9956.40	3.9340	3.9340	-0.8046	25.80	-0.02	-0.750			
0.1580	10109.33	3.9310	3.9310	-0.8082	25.81	-0.01	-0.750			
0.1604	10267.39	3.9280	3.9280	-0.8192	25.82	-0.00	-0.750			
0.1629	10428.31	3.9250	3.9250	-0.8117	25.82	0.00	-0.750			
0.1654	10584.89	3.9220	3.9220	-0.8039	25.82	0.00	-0.750			
0.1678	10738.37	3.9190	3.9191	-0.8036	25.82	0.00	-0.750			
0.1701	10889.27	3.9160	3.9158	-0.8035	25.82	0.00	-0.750			
0.1725	11041.24	3.9130	3.9129	-0.8051	25.82	0.00	-0.750			
0.1749	11195.82	3.9100	3.9103	-0.8109	25.82	0.00	-0.750			
0.1774	11352.96	3.9070	3.9070	-0.8230	25.82	0.00	-0.750			
0.1799	11515.23	3.9040	3.9040	-0.8339	25.83	0.01	-0.750			
0.1824	11675.21	3.9010	3.9010	-0.8321	25.83	0.01	-0.750			
0.1849	11835.98	3.8980	3.8980	-0.8379	25.84	0.02	-0.750			
0.1874	11996.02	3.8950	3.8952	-0.8339	25.84	0.02	-0.750			
0.1899	12155.72	3.8920	3.8919	-0.8339	25.84	0.02	-0.750			
0.1924	12315.69	3.8890	3.8890	-0.8377	25.85	0.03	-0.750			
0.1949	12476.49	3.8860	3.8860	-0.8342	25.85	0.03	-0.750			
0.1975	12638.08	3.8830	3.8829	-0.8418	25.86	0.04	-0.750			
0.2000	12799.43	3.8800	3.8802	-0.8400	25.86	0.04	-0.750			
0.2025	12958.97	3.8770	3.8769	-0.8395	25.86	0.04	-0.750			
0.2050	13121.44	3.8740	3.8740	-0.8433	25.86	0.04	-0.750			
0.2075	13282.85	3.8710	3.8710	-0.8415	25.87	0.05	-0.750			
0.2101	13446.20	3.8680	3.8680	-0.8458	25.87	0.05	-0.750			
0.2126	13608.78	3.8650	3.8652	-0.8483	25.87	0.05	-0.750			
0.2152	13770.08	3.8620	3.8620	-0.8485	25.87	0.05	-0.750			
0.2177	13934.69	3.8590	3.8589	-0.8553	25.87	0.05	-0.750			
0.2203	14098.93	3.8560	3.8560	-0.8506	25.88	0.06	-0.750			
0.2229	14264.98	3.8530	3.8529	-0.8544	25.88	0.06	-0.750			
0.2254	14427.76	3.8500	3.8502	-0.8454	25.88	0.06	-0.750			
0.2280	14589.16	3.8470	3.8470	-0.8408	25.88	0.06	-0.750			
0.2304	14747.56	3.8440	3.8440	-0.8456	25.88	0.06	-0.750			
0.2329	14908.76	3.8410	3.8408	-0.8445	25.89	0.07	-0.750			
0.2355	15075.18	3.8380	3.8380	-0.8479	25.89	0.07	-0.750			
0.2381	15237.38	3.8350	3.8352	-0.8504	25.89	0.07	-0.750			
0.2406	15401.40	3.8320	3.8320	-0.8553	25.90	0.08	-0.750			
0.2432	15566.33	3.8290	3.8288	-0.8583	25.90	0.08	-0.750			
0.2458	15728.75	3.8260	3.8260	-0.8529	25.90	0.08	-0.750			
0.2483	15894.35	3.8230	3.8230	-0.8524	25.91	0.09	-0.750			
0.2509	16058.82	3.8200	3.8201	-0.8536	25.91	0.09	-0.750			
0.2535	16224.13	3.8170	3.8170	-0.8569	25.92	0.10	-0.750			
0.2560	16385.97	3.8140	3.8140	-0.8522	25.92	0.10	-0.750			
0.2586	16548.20	3.8110	3.8108	-0.8505	25.92	0.10	-0.750			
0.2611	16712.20	3.8080	3.8080	-0.8521	25.93	0.11	-0.750			
0.2637	16876.95	3.8050	3.8050	-0.8559	25.93	0.11	-0.750			
0.2663	17042.06	3.8020	3.8020	-0.8534	25.94	0.12	-0.750			
0.2689	17206.96	3.7990	3.7989	-0.8485	25.94	0.12	-0.750			
0.2714	17369.51	3.7960	3.7960	-0.8430	25.94	0.12	-0.750			
0.2739	17531.19	3.7930	3.7931	-0.8413	25.95	0.13	-0.750			
0.2764	17691.03	3.7900	3.7899	-0.8405	25.95	0.13	-0.750			
0.2789	17852.19	3.7870	3.7869	-0.8422	25.96	0.14	-0.750			
0.2815	18013.39	3.7840	3.7839	-0.8396	25.96	0.14	-0.750			
0.2840	18176.12	3.7810	3.7810	-0.8395	25.96	0.14	-0.750			
0.2866	18339.55	3.7780	3.7780	-0.8381	25.97	0.15	-0.750			
0.2891	18499.70	3.7750	3.7749	-0.8362	25.97	0.15	-0.750			
0.2916	18660.00	3.7720	3.7720	-0.8314	25.98	0.16	-0.750			
0.2940	18817.52	3.7690	3.7689	-0.8245	25.98	0.16	-0.750			
0.2965	18974.62	3.7660	3.7660	-0.8231	25.98	0.16	-0.750			
0.2990	19133.78	3.7630	3.7631	-0.8251	25.99	0.17	-0.750			
0.3014	19291.25	3.7600	3.7598	-0.8261	25.99	0.17	-0.750			
0.3039	19451.52	3.7570	3.7569	-0.8285	26.00	0.18	-0.750			
0.3064	19610.68	3.7540	3.7540	-0.8247	26.00	0.18	-0.750			
0.3089	19769.52	3.7510	3.7510	-0.8224	26.00	0.18	-0.750			
0.3114	19928.75	3.7480	3.7480	-0.8254	26.01	0.19	-0.750			
0.3139	20086.56	3.7450	3.7448	-0.8210	26.01	0.19	-0.750			
0.3163	20241.90	3.7420	3.7419	-0.8302	26.02	0.20	-0.750			
0.3188	20400.24	3.7390	3.7391	-0.8347	26.02	0.20	-0.750			
0.3213	20560.88	3.7360	3.7359	-0.8444	26.02	0.20	-0.750			
0.3239	20727.19	3.7330	3.7330	-0.8528	26.03	0.21	-0.750			
0.3264	20891.02	3.7300	3.7299	-0.8601	26.03	0.21	-0.750			
0.3290	21056.15	3.7270	3.7270	-0.8677	26.03	0.21	-0.750			
0.3316	21223.48	3.7240	3.7238	-0.8751	26.04	0.22	-0.750			
0.3342	21390.07	3.7210	3.7210	-0.8803	26.04	0.22	-0.750			
0.3369	21562.83	3.7180	3.7180	-0.8927	26.04	0.22	-0.750			
0.3396	21732.16	3.7150	3.7150	-0.9135	26.04	0.22	-0.750			
0.3423	21909.84	3.7120	3.7119	-0.9296	26.04	0.22	-0.750			
0.3451	22088.05	3.7090	3.7089	-0.9424	26.05	0.23	-0.750			
0.3480	22272.10	3.7060	3.7059	-0.9593	26.05	0.23	-0.750			
0.3509	22459.62	3.7030	3.7031	-0.9777	26.05	0.23	-0.750			
0.3539	22648.56	3.7000	3.7000	-0.9995	26.05	0.23	-0.750			
0.3569	22842.07	3.6970	3.6970	-1.0138	26.04	0.22	-0.750			
0.3599	23035.37	3.6940	3.6939	-1.0259	26.04	0.22	-0.750			
0.3631	23235.41	3.6910	3.6911	-1.0548	26.04	0.22	-0.750			
0.3662	23439.35	3.6880	3.6880	-1.0754	26.04	0.22	-0.750			
0.3695	23647.79	3.6850	3.6850	-1.0977	26.04	0.22	-0.750			
0.3728	23861.59	3.6820	3.6818	-1.1156	26.04	0.22	-0.750			
0.3762	24077.53	3.6790	3.6790	-1.1422	26.04	0.22	-0.750			
0.3797	24300.60	3.6760	3.6760	-1.1671	26.04	0.22	-0.750			
0.3832	24526.72	3.6730	3.6730	-1.1886	26.03	0.21	-0.750			
0.3868	24752.22	3.6700	3.6700	-1.2177	26.03	0.21	-0.750			
0.3905	24994.19	3.6670	3.6670	-1.2414	26.03	0.21	-0.750			
0.3943	25234.31	3.6640	3.6640	-1.2691	26.02	0.20	-0.750			
0.3981	25477.92	3.6610	3.6611	-1.3082	26.01	0.19	-0.750			
0.4021	25734.12	3.6580	3.6580	-1.3232	26.01	0.19	-0.750			
0.4061	25991.46	3.6550	3.6549	-1.3590	26.01	0.19	-0.750			
0.4102	26254.11	3.6520	3.6519	-1.3900	26.00	0.18	-0.750			
0.4144	26521.66	3.6490	3.6489	-1.4204	26.00	0.18	-0.750			
0.4188	26802.79	3.6460	3.6460	-1.4579	25.99	0.17	-0.750			
0.4232	27083.97	3.6430	3.6429	-1.4954	25.99	0.17	-0.750			
0.4277	27374.54	3.6400	3.6401	-1.5250	25.98	0.16	-0.750			
0.4324	27676.37	3.6370	3.6369	-1.5796	25.97	0.15	-0.750			
0.4372	27978.94	3.6340	3.6342	-1.6168	25.96	0.14	-0.750			
0.4422	28297.74	3.6310	3.6310	-1.6473	25.96	0.14	-0.750			
0.4472	28619.73	3.6280	3.6278	-1.6687	25.95	0.13	-0.750			
0.4523	28946.13	3.6250	3.6247	-1.6964	25.95	0.13	-0.750			
0.4574	29275.20	3.6220	3.6219	-1.7193	25.94	0.12	-0.750	0.413	0.501	
0.4625	29602.25	3.6190	3.6191	-1.7429	25.93	0.11	-0.750			
0.4677	29935.36	3.6160	3.6161	-1.7648	25.92	0.10	-0.750			
0.4731	30275.34	3.6130	3.6130	-1.7912	25.91	0.09	-0.750			
0.4785	30626.55	3.6100	3.6099	-1.8415	25.90	0.08	-0.750			
0.4841	30980.92	3.6070	3.6068	-1.8888	25.90	0.08	-0.750			
0.4898	31347.97	3.6040	3.6037	-1.9204	25.89	0.07	-0.750			
0.4957	31725.19	3.6010	3.6008	-1.9605	25.89	0.07	-0.750			
0.5017	32105.89	3.5980	3.5981	-1.9976	25.89	0.07	-0.750			
0.5077	32494.17	3.5950	3.5950	-2.0478	25.88	0.06	-0.750			
0.5139	32888.30	3.5920	3.5921	-2.0775	25.88	0.06	-0.750			
0.5202	33290.74	3.5890	3.5889	-2.1219	25.87	0.05	-0.750			
0.5267	33705.73	3.5860	3.5861	-2.1697	25.87	0.05	-0.750			
0.5333	34132.74	3.5830	3.5830	-2.2010	25.87	0.05	-0.750			
0.5400	34557.94	3.5800	3.5801	-2.2245	25.87	0.05	-0.750			
0.5467	34990.39	3.5770	3.5770	-2.2496	25.86	0.04	-0.750			
0.5535	35426.89	3.5740	3.5739	-2.2545	25.85	0.03	-0.750			
0.5604	35863.17	3.5710	3.5710	-2.2656	25.86	0.04	-0.750			
0.5671	36297.24	3.5680	3.5680	-2.2834	25.86	0.04	-0.750			
0.5740	36735.37	3.5650	3.5652	-2.2989	25.85	0.03	-0.750			
0.5809	37180.62	3.5620	3.5620	-2.2989	25.85	0.03	-0.750			
0.5878	37621.57	3.5590	3.5590	-2.3043	25.85	0.03	-0.750			
0.5948	38067.03	3.5560	3.5559	-2.3153	25.85	0.03	-0.750			
0.6020	38525.95	3.5530	3.5528	-2.3142	25.85	0.03	-0.750			
0.6087	38958.63	3.5500	3.5504	-2.2966	25.85	0.03	-0.750			
0.6156	39395.91	3.5470	3.5470	-2.2769	25.85	0.03	-0.750			
0.6223	39827.30	3.5440	3.5440	-2.2685	25.85	0.03	-0.750			
0.6292	40265.97	3.5410	3.5407	-2.2427	25.85	0.03	-0.750			
0.6360	40703.20	3.5380	3.5381	-2.2416	25.86	0.04	-0.750			
0.6427	41132.49	3.5350	3.5349	-2.1926	25.86	0.04	-0.750			
0.6493	41557.06	3.5320	3.5318	-2.1471	25.87	0.05	-0.750			
0.6557	41964.53	3.5290	3.5291	-2.0795	25.88	0.06	-0.750			
0.6619	42358.87	3.5260	3.5262	-2.0440	25.89	0.07	-0.750			
0.6679	42742.64	3.5230	3.5231	-1.9777	25.89	0.07	-0.750			
0.6737	43118.35	3.5200	3.5201	-1.9451	25.89	0.07	-0.750			
0.6795	43487.15	3.5170	3.5169	-1.8908	25.90	0.08	-0.750			
0.6851	43848.54	3.5140	3.5142	-1.8401	25.91	0.09	-0.750			
0.6907	44202.27	3.5110	3.5108	-1.7832	25.92	0.10	-0.750			
0.6960	44541.05	3.5080	3.5077	-1.7303	25.94	0.12	-0.750			
0.7011	44869.57	3.5050	3.5050	-1.6557	25.95	0.13	-0.750			
0.7060	45182.42	3.5020	3.5022	-1.5941	25.97	0.15	-0.750			
0.7106	45481.20	3.4990	3.4990	-1.5342	25.98	0.16	-0.750			
0.7152	45769.78	3.4960	3.4958	-1.4737	26.00	0.18	-0.750			
0.7195	46049.53	3.4930	3.4928	-1.4235	26.01	0.19	-0.750			
0.7236	46312.66	3.4900	3.4900	-1.3799	26.02	0.20	-0.750			
0.7276	46569.24	3.4870	3.4870	-1.3235	26.03	0.21	-0.750			
0.7317	46827.69	3.4840	3.4839	-1.2977	26.05	0.23	-0.750			
0.7354	47068.60	3.4810	3.4810	-1.2530	26.06	0.24	-0.750			
0.7391	47302.93	3.4780	3.4780	-1.2133	26.08	0.26	-0.750			
0.7428	47537.41	3.4750	3.4749	-1.1816	26.09	0.27	-0.750			
0.7463	47760.82	3.4720	3.4720	-1.1427	26.11	0.29	-0.750			
0.7496	47974.18	3.4690	3.4691	-1.0984	26.12	0.30	-0.750			
0.7529	48184.73	3.4660	3.4659	-1.0691	26.13	0.31	-0.750			
0.7560	48385.12	3.4630	3.4630	-1.0253	26.14	0.32	-0.750			
0.7590	48576.72	3.4600	3.4600	-0.9967	26.16	0.34	-0.750			
0.7619	48762.96	3.4570	3.4570	-0.9686	26.17	0.35	-0.750			
0.7648	48945.79	3.4540	3.4539	-0.9507	26.18	0.36	-0.750			
0.7676	49125.50	3.4510	3.4511	-0.9284	26.18	0.36	-0.750			
0.7703	49300.66	3.4480	3.4480	-0.9142	26.19	0.37	-0.750			
0.7730	49473.33	3.4450	3.4450	-0.9099	26.20	0.38	-0.750			
0.7757	49644.69	3.4420	3.4420	-0.9221	26.20	0.38	-0.750			
0.7784	49818.94	3.4390	3.4389	-0.9439	26.21	0.39	-0.750			
0.7813	50000.71	3.4360	3.4359	-0.9686	26.22	0.40	-0.750			
0.7842	50189.23	3.4330	3.4329	-1.0024	26.22	0.40	-0.750			
0.7873	50388.15	3.4300	3.4302	-1.0373	26.23	0.41	-0.750			
0.7905	50591.04	3.4270	3.4270	-1.0620	26.24	0.42	-0.750			
0.7938	50800.00	3.4240	3.4240	-1.0803	26.25	0.43	-0.750			
0.7970	51010.82	3.4210	3.4209	-1.0853	26.26	0.44	-0.750			
0.8004	51222.44	3.4180	3.4181	-1.0938	26.27	0.45	-0.750			
0.8037	51433.62	3.4150	3.4151	-1.0840	26.28	0.46	-0.750			
0.8069	51643.94	3.4120	3.4119	-1.0630	26.29	0.47	-0.750			
0.8101	51848.08	3.4090	3.4090	-1.0327	26.30	0.48	-0.750			
0.8132	52042.51	3.4060	3.4061	-1.0010	26.31	0.49	-0.750			
0.8161	52231.84	3.4030	3.4031	-0.9701	26.32	0.50	-0.750			
0.8190	52416.92	3.4000	3.3999	-0.9345	26.33	0.51	-0.750			
0.8217	52591.34	3.3970	3.3969	-0.8944	26.33	0.51	-0.750			
0.8244	52760.48	3.3940	3.3943	-0.8602	26.34	0.52	-0.750			
0.8269	52921.50	3.3910	3.3909	-0.8269	26.34	0.52	-0.750			
0.8293	53076.67	3.3880	3.3880	-0.7955	26.35	0.53	-0.750			
0.8316	53224.47	3.3850	3.3849	-0.7613	26.36	0.54	-0.750			
0.8338	53365.34	3.3820	3.3819	-0.7292	26.36	0.54	-0.750			
0.8360	53505.76	3.3790	3.3791	-0.7053	26.37	0.55	-0.750			
0.8381	53637.15	3.3760	3.3761	-0.6794	26.37	0.55	-0.750			
0.8401	53765.45	3.3730	3.3730	-0.6545	26.38	0.56	-0.750			
0.8420	53888.78	3.3700	3.3699	-0.6277	26.39	0.57	-0.750			
0.8438	54005.73	3.3670	3.3670	-0.6010	26.40	0.58	-0.750			
0.8456	54119.56	3.3640	3.3641	-0.5781	26.40	0.58	-0.750			
0.8473	54228.65	3.3610	3.3610	-0.5526	26.41	0.59	-0.750			
0.8489	54330.92	3.3580	3.3578	-0.5302	26.42	0.60	-0.750			
0.8505	54428.80	3.3550	3.3551	-0.5043	26.42	0.60	-0.750			
0.8519	54523.74	3.3520	3.3520	-0.4875	26.43	0.61	-0.750			
0.8534	54615.95	3.3490	3.3490	-0.4717	26.43	0.61	-0.750			
0.8547	54703.91	3.3460	3.3461	-0.4526	26.44	0.62	-0.750			
0.8561	54790.51	3.3430	3.3429	-0.4407	26.44	0.62	-0.750			
0.8574	54873.67	3.3400	3.3401	-0.4261	26.44	0.62	-0.750			
0.8587	54953.92	3.3370	3.3370	-0.4086	26.45	0.63	-0.750			
0.8599	55032.10	3.3340	3.3339	-0.3941	26.45	0.63	-0.750			
0.8610	55105.60	3.3310	3.3310	-0.3768	26.46	0.64	-0.750			
0.8621	55175.40	3.3280	3.3280	-0.3600	26.46	0.64	-0.750			
0.8632	55242.53	3.3250	3.3250	-0.3457	26.46	0.64	-0.750			
0.8642	55307.17	3.3220	3.3219	-0.3321	26.47	0.65	-0.750			
0.8651	55369.22	3.3190	3.3191	-0.3223	26.47	0.65	-0.750			
0.8661	55429.87	3.3160	3.3160	-0.3130	26.48	0.66	-0.750			
0.8670	55489.66	3.3130	3.3129	-0.3039	26.48	0.66	-0.750			
0.8679	55547.33	3.3100	3.3100	-0.2940	26.49	0.67	-0.750			
0.8688	55602.71	3.3070	3.3070	-0.2850	26.49	0.67	-0.750			
0.8696	55656.52	3.3040	3.3041	-0.2765	26.49	0.67	-0.750			
0.8704	55708.42	3.3010	3.3009	-0.2673	26.50	0.68	-0.750			
0.8712	55758.52	3.2980	3.2981	-0.2581	26.50	0.68	-0.750			
0.8720	55806.82	3.2950	3.2949	-0.2512	26.51	0.69	-0.750			
0.8727	55854.60	3.2920	3.2920	-0.2446	26.51	0.69	-0.750			
0.8735	55901.23	3.2890	3.2890	-0.2384	26.51	0.69	-0.750			
0.8742	55945.88	3.2860	3.2859	-0.2314	26.52	0.70	-0.750			
0.8748	55989.76	3.2830	3.2832	-0.2260	26.52	0.70	-0.750			
0.8755	56032.55	3.2800	3.2799	-0.2205	26.52	0.70	-0.750			
0.8762	56074.70	3.2770	3.2770	-0.2142	26.53	0.71	-0.750			
0.8768	56114.99	3.2740	3.2740	-0.2092	26.53	0.71	-0.750			
0.8774	56153.79	3.2710	3.2712	-0.2040	26.54	0.72	-0.750			
0.8780	56192.61	3.2680	3.2680	-0.2005	26.54	0.72	-0.750			
0.8786	56230.62	3.2650	3.2648	-0.1983	26.55	0.73	-0.750			
0.8792	56268.23	3.2620	3.2620	-0.1940	26.55	0.73	-0.750			
0.8798	56305.68	3.2590	3.2590	-0.1906	26.56	0.74	-0.750			
0.8803	56341.91	3.2560	3.2560	-0.1868	26.56	0.74	-0.750			
0.8809	56378.08	3.2530	3.2531	-0.1834	26.56	0.74	-0.750			
0.8814	56412.43	3.2500	3.2500	-0.1799	26.57	0.75	-0.750			
0.8820	56446.15	3.2470	3.2468	-0.1758	26.57	0.75	-0.750			
0.8825	56479.66	3.2440	3.2441	-0.1733	26.57	0.75	-0.750			
0.8830	56512.18	3.2410	3.2410	-0.1708	26.58	0.76	-0.750			
0.8835	56545.08	3.2380	3.2381	-0.1689	26.58	0.76	-0.750			
0.8840	56577.61	3.2350	3.2350	-0.1669	26.59	0.77	-0.750			
0.8845	56609.38	3.2320	3.2319	-0.1640	26.59	0.77	-0.750			
0.8850	56640.57	3.2290	3.2290	-0.1617	26.59	0.77	-0.750			
0.8855	56671.06	3.2260	3.2261	-0.1594	26.60	0.78	-0.750			
0.8860	56701.56	3.2230	3.2230	-0.1574	26.60	0.78	-0.750			
0.8864	56731.60	3.2200	3.2199	-0.1554	26.60	0.78	-0.750			
0.8869	56761.20	3.2170	3.2170	-0.1529	26.61	0.79	-0.750			
0.8873	56790.35	3.2140	3.2141	-0.1513	26.61	0.79	-0.750			
0.8878	56819.34	3.2110	3.2110	-0.1495	26.61	0.79	-0.750			
0.8882	56847.74	3.2080	3.2080	-0.1478	26.62	0.80	-0.750			
0.8887	56875.67	3.2050	3.2049	-0.1462	26.62	0.80	-0.750			
0.8891	56903.59	3.2020	3.2021	-0.1443	26.63	0.81	-0.750			
0.8895	56931.18	3.1990	3.1991	-0.1431	26.63	0.81	-0.750			
0.8900	56958.58	3.1960	3.1959	-0.1423	26.64	0.82	-0.750			
0.8904	56986.07	3.1930	3.1930	-0.1407	26.64	0.82	-0.750			
0.8908	57012.84	3.1900	3.1898	-0.1388	26.64	0.82	-0.750			
0.8912	57039.31	3.1870	3.1871	-0.1370	26.65	0.83	-0.750			
0.8916	57065.45	3.1840	3.1841	-0.1355	26.65	0.83	-0.750			
0.8921	57091.32	3.1810	3.1810	-0.1336	26.66	0.84	-0.750			
0.8924	57116.46	3.1780	3.1781	-0.1328	26.66	0.84	-0.750			
0.8928	57141.88	3.1750	3.1749	-0.1319	26.66	0.84	-0.750			
0.8932	57166.71	3.1720	3.1721	-0.1311	26.67	0.85	-0.750			
0.8936	57192.16	3.1690	3.1689	-0.1304	26.67	0.85	-0.750			
0.8940	57217.21	3.1660	3.1660	-0.1295	26.68	0.86	-0.750			
0.8944	57241.97	3.1630	3.1631	-0.1285	26.68	0.86	-0.750			
