Ah_balance (normalized)	Ah_balance (mAh)	Voltage - fit (V)	Voltage -  interpolate (V)	dQ/dV (1/V)	Temperature (°C)	Temperature - diff (°C)	Current (C)	R_DC 0ms (mOhm)	R_DC 50ms (mOhm)	R_DC 50 ms PEC (mOhm)
0.0002	15.37	4.1660	4.1659	-0.1251	25.55	0.01	-0.750			
0.0007	43.78	4.1630	4.1630	-0.1698	25.55	0.01	-0.750			
0.0013	80.18	4.1600	4.1600	-0.2145	25.55	0.01	-0.750			
0.0020	126.34	4.1570	4.1570	-0.2576	25.55	0.01	-0.750			
0.0028	180.14	4.1540	4.1540	-0.2997	25.55	0.01	-0.750			
0.0038	241.77	4.1510	4.1511	-0.3423	25.55	0.01	-0.750			
0.0049	311.81	4.1480	4.1479	-0.3831	25.55	0.01	-0.750			
0.0061	389.93	4.1450	4.1451	-0.4214	25.54	0.00	-0.750			
0.0074	474.90	4.1420	4.1419	-0.4582	25.54	0.00	-0.750			
0.0089	566.73	4.1390	4.1392	-0.4938	25.54	0.00	-0.750			
0.0104	666.64	4.1360	4.1360	-0.5237	25.54	-0.00	-0.750			
0.0121	771.52	4.1330	4.1330	-0.5483	25.54	-0.00	-0.750			
0.0137	879.34	4.1300	4.1300	-0.5702	25.53	-0.01	-0.750			
0.0155	990.49	4.1270	4.1271	-0.5932	25.53	-0.01	-0.750			
0.0173	1108.27	4.1240	4.1239	-0.6118	25.53	-0.01	-0.750			
0.0192	1227.53	4.1210	4.1209	-0.6239	25.52	-0.02	-0.750			
0.0211	1348.81	4.1180	4.1181	-0.6391	25.52	-0.02	-0.750			
0.0230	1473.37	4.1150	4.1150	-0.6519	25.52	-0.02	-0.750			
0.0250	1601.68	4.1120	4.1119	-0.6595	25.51	-0.03	-0.750			
0.0270	1727.44	4.1090	4.1090	-0.6682	25.51	-0.03	-0.750			
0.0290	1855.35	4.1060	4.1060	-0.6762	25.51	-0.03	-0.750			
0.0311	1988.22	4.1030	4.1030	-0.6893	25.50	-0.04	-0.750			
0.0331	2121.24	4.1000	4.0999	-0.6951	25.50	-0.04	-0.750			
0.0352	2254.85	4.0970	4.0970	-0.7005	25.50	-0.04	-0.750			
0.0374	2391.10	4.0940	4.0940	-0.7069	25.50	-0.04	-0.750			
0.0395	2528.43	4.0910	4.0909	-0.7161	25.50	-0.04	-0.750			
0.0416	2664.55	4.0880	4.0880	-0.7179	25.49	-0.05	-0.750			
0.0438	2803.78	4.0850	4.0850	-0.7226	25.49	-0.05	-0.750			
0.0460	2943.48	4.0820	4.0821	-0.7250	25.49	-0.05	-0.750			
0.0482	3082.70	4.0790	4.0790	-0.7307	25.49	-0.05	-0.750			
0.0504	3223.09	4.0760	4.0760	-0.7328	25.49	-0.05	-0.750			
0.0526	3364.27	4.0730	4.0730	-0.7423	25.49	-0.05	-0.750			
0.0548	3508.10	4.0700	4.0699	-0.7393	25.48	-0.06	-0.750			
0.0571	3651.82	4.0670	4.0670	-0.7428	25.48	-0.06	-0.750			
0.0593	3794.36	4.0640	4.0643	-0.7459	25.48	-0.06	-0.750			
0.0615	3937.78	4.0610	4.0609	-0.7461	25.48	-0.06	-0.750			
0.0637	4078.93	4.0580	4.0580	-0.7494	25.48	-0.06	-0.750			
0.0660	4221.75	4.0550	4.0550	-0.7512	25.48	-0.06	-0.750			
0.0683	4368.47	4.0520	4.0520	-0.7622	25.48	-0.06	-0.750			
0.0706	4516.74	4.0490	4.0489	-0.7576	25.48	-0.06	-0.750			
0.0728	4662.21	4.0460	4.0460	-0.7572	25.48	-0.06	-0.750			
0.0751	4807.55	4.0430	4.0430	-0.7542	25.49	-0.05	-0.750			
0.0774	4950.83	4.0400	4.0400	-0.7589	25.49	-0.05	-0.750			
0.0796	5094.86	4.0370	4.0370	-0.7585	25.49	-0.05	-0.750			
0.0819	5241.59	4.0340	4.0339	-0.7667	25.50	-0.04	-0.750			
0.0842	5389.96	4.0310	4.0312	-0.7681	25.50	-0.04	-0.750			
0.0866	5539.37	4.0280	4.0280	-0.7721	25.50	-0.04	-0.750			
0.0889	5686.98	4.0250	4.0251	-0.7756	25.50	-0.04	-0.750			
0.0912	5836.92	4.0220	4.0220	-0.7776	25.50	-0.04	-0.750			
0.0935	5985.62	4.0190	4.0189	-0.7773	25.50	-0.04	-0.750			
0.0959	6135.21	4.0160	4.0160	-0.7801	25.50	-0.04	-0.750			
0.0982	6285.16	4.0130	4.0131	-0.7811	25.50	-0.04	-0.750			
0.1005	6435.02	4.0100	4.0100	-0.7880	25.51	-0.03	-0.750			
0.1029	6587.26	4.0070	4.0069	-0.7861	25.51	-0.03	-0.750			
0.1053	6738.30	4.0040	4.0040	-0.7828	25.51	-0.03	-0.750			
0.1076	6888.64	4.0010	4.0009	-0.7890	25.52	-0.02	-0.750			
0.1100	7040.13	3.9980	3.9980	-0.7897	25.52	-0.02	-0.750			
0.1124	7190.40	3.9950	3.9949	-0.7923	25.52	-0.02	-0.750			
0.1147	7343.04	3.9920	3.9920	-0.7959	25.52	-0.02	-0.750			
0.1171	7495.95	3.9890	3.9890	-0.7933	25.52	-0.02	-0.750			
0.1195	7650.64	3.9860	3.9860	-0.7984	25.52	-0.02	-0.750			
0.1219	7804.37	3.9830	3.9831	-0.7988	25.52	-0.02	-0.750			
0.1243	7956.29	3.9800	3.9799	-0.7953	25.52	-0.02	-0.750			
0.1267	8108.27	3.9770	3.9770	-0.8009	25.53	-0.01	-0.750			
0.1291	8262.12	3.9740	3.9740	-0.8026	25.53	-0.01	-0.750			
0.1315	8417.96	3.9710	3.9710	-0.8044	25.54	-0.00	-0.750			
0.1340	8572.82	3.9680	3.9681	-0.8077	25.54	-0.00	-0.750			
0.1364	8726.92	3.9650	3.9650	-0.8130	25.54	0.00	-0.750			
0.1388	8884.10	3.9620	3.9620	-0.8166	25.54	0.00	-0.750			
0.1413	9041.66	3.9590	3.9589	-0.8159	25.55	0.01	-0.750			
0.1437	9198.54	3.9560	3.9560	-0.8160	25.55	0.01	-0.750			
0.1462	9356.62	3.9530	3.9531	-0.8143	25.55	0.01	-0.750			
0.1486	9511.88	3.9500	3.9499	-0.8169	25.56	0.02	-0.750			
0.1511	9667.31	3.9470	3.9470	-0.8191	25.56	0.02	-0.750			
0.1535	9824.39	3.9440	3.9439	-0.8230	25.57	0.03	-0.750			
0.1560	9986.27	3.9410	3.9410	-0.8132	25.57	0.03	-0.750			
0.1585	10143.62	3.9380	3.9382	-0.8191	25.58	0.04	-0.750			
0.1609	10298.22	3.9350	3.9350	-0.8259	25.58	0.04	-0.750			
0.1634	10455.22	3.9320	3.9321	-0.8351	25.58	0.04	-0.750			
0.1659	10614.67	3.9290	3.9287	-0.8412	25.58	0.04	-0.750			
0.1684	10777.94	3.9260	3.9259	-0.8398	25.58	0.04	-0.750			
0.1710	10944.14	3.9230	3.9232	-0.8491	25.58	0.04	-0.750			
0.1736	11108.77	3.9200	3.9200	-0.8523	25.58	0.04	-0.750			
0.1761	11270.10	3.9170	3.9169	-0.8480	25.58	0.04	-0.750			
0.1786	11432.79	3.9140	3.9139	-0.8492	25.59	0.05	-0.750			
0.1812	11594.17	3.9110	3.9110	-0.8499	25.59	0.05	-0.750			
0.1838	11760.50	3.9080	3.9081	-0.8574	25.59	0.05	-0.750			
0.1863	11926.07	3.9050	3.9050	-0.8602	25.59	0.05	-0.750			
0.1889	12090.99	3.9020	3.9020	-0.8621	25.60	0.06	-0.750			
0.1915	12256.99	3.8990	3.8989	-0.8598	25.60	0.06	-0.750			
0.1941	12421.76	3.8960	3.8960	-0.8551	25.61	0.07	-0.750			
0.1967	12587.00	3.8930	3.8932	-0.8583	25.61	0.07	-0.750			
0.1992	12751.20	3.8900	3.8900	-0.8556	25.61	0.07	-0.750			
0.2018	12914.52	3.8870	3.8870	-0.8608	25.61	0.07	-0.750			
0.2044	13079.53	3.8840	3.8839	-0.8612	25.62	0.08	-0.750			
0.2070	13245.41	3.8810	3.8810	-0.8675	25.62	0.08	-0.750			
0.2096	13412.83	3.8780	3.8782	-0.8700	25.62	0.08	-0.750			
0.2122	13580.99	3.8750	3.8749	-0.8745	25.63	0.09	-0.750			
0.2148	13749.24	3.8720	3.8720	-0.8684	25.63	0.09	-0.750			
0.2174	13916.12	3.8690	3.8690	-0.8626	25.63	0.09	-0.750			
0.2200	14081.14	3.8660	3.8660	-0.8639	25.64	0.10	-0.750			
0.2226	14246.38	3.8630	3.8631	-0.8634	25.64	0.10	-0.750			
0.2252	14409.88	3.8600	3.8599	-0.8644	25.65	0.11	-0.750			
0.2277	14575.85	3.8570	3.8569	-0.8693	25.65	0.11	-0.750			
0.2304	14742.66	3.8540	3.8541	-0.8711	25.65	0.11	-0.750			
0.2330	14911.39	3.8510	3.8510	-0.8808	25.66	0.12	-0.750			
0.2357	15082.29	3.8480	3.8479	-0.8854	25.66	0.12	-0.750			
0.2383	15252.29	3.8450	3.8449	-0.8842	25.66	0.12	-0.750			
0.2410	15421.49	3.8420	3.8421	-0.8838	25.67	0.13	-0.750			
0.2436	15592.30	3.8390	3.8390	-0.8763	25.67	0.13	-0.750			
0.2463	15761.43	3.8360	3.8361	-0.8787	25.67	0.13	-0.750			
0.2489	15928.53	3.8330	3.8330	-0.8824	25.67	0.13	-0.750			
0.2515	16094.60	3.8300	3.8299	-0.8812	25.67	0.13	-0.750			
0.2542	16266.06	3.8270	3.8269	-0.8816	25.68	0.14	-0.750			
0.2568	16435.47	3.8240	3.8240	-0.8835	25.68	0.14	-0.750			
0.2595	16607.43	3.8210	3.8212	-0.8838	25.68	0.14	-0.750			
0.2622	16777.82	3.8180	3.8179	-0.8837	25.69	0.15	-0.750			
0.2648	16945.47	3.8150	3.8150	-0.8769	25.69	0.15	-0.750			
0.2674	17113.61	3.8120	3.8120	-0.8765	25.69	0.15	-0.750			
0.2700	17281.00	3.8090	3.8089	-0.8769	25.70	0.16	-0.750			
0.2727	17450.19	3.8060	3.8061	-0.8790	25.70	0.16	-0.750			
0.2753	17617.89	3.8030	3.8030	-0.8800	25.70	0.16	-0.750			
0.2779	17787.28	3.8000	3.7999	-0.8834	25.70	0.16	-0.750			
0.2806	17957.31	3.7970	3.7970	-0.8798	25.70	0.16	-0.750			
0.2832	18126.65	3.7940	3.7939	-0.8823	25.70	0.16	-0.750			
0.2859	18297.83	3.7910	3.7910	-0.8799	25.70	0.16	-0.750			
0.2885	18466.50	3.7880	3.7879	-0.8818	25.71	0.17	-0.750			
0.2912	18634.69	3.7850	3.7850	-0.8788	25.71	0.17	-0.750			
0.2938	18804.14	3.7820	3.7820	-0.8725	25.72	0.18	-0.750			
0.2964	18971.45	3.7790	3.7793	-0.8731	25.72	0.18	-0.750			
0.2990	19138.90	3.7760	3.7760	-0.8738	25.73	0.19	-0.750			
0.3016	19304.04	3.7730	3.7731	-0.8701	25.73	0.19	-0.750			
0.3043	19472.33	3.7700	3.7699	-0.8681	25.74	0.20	-0.750			
0.3069	19639.63	3.7670	3.7671	-0.8691	25.74	0.20	-0.750			
0.3095	19805.96	3.7640	3.7641	-0.8716	25.75	0.21	-0.750			
0.3121	19974.19	3.7610	3.7610	-0.8769	25.75	0.21	-0.750			
0.3147	20141.37	3.7580	3.7579	-0.8715	25.75	0.21	-0.750			
0.3173	20308.04	3.7550	3.7551	-0.8699	25.75	0.21	-0.750			
0.3199	20476.72	3.7520	3.7520	-0.8678	25.75	0.21	-0.750			
0.3225	20642.88	3.7490	3.7490	-0.8687	25.75	0.21	-0.750			
0.3251	20808.13	3.7460	3.7461	-0.8729	25.75	0.21	-0.750			
0.3277	20975.18	3.7430	3.7429	-0.8752	25.76	0.22	-0.750			
0.3304	21144.42	3.7400	3.7399	-0.8768	25.76	0.22	-0.750			
0.3330	21313.91	3.7370	3.7371	-0.8851	25.76	0.22	-0.750			
0.3357	21483.48	3.7340	3.7340	-0.8944	25.76	0.22	-0.750			
0.3384	21656.29	3.7310	3.7309	-0.9014	25.76	0.22	-0.750			
0.3411	21828.83	3.7280	3.7279	-0.9008	25.77	0.23	-0.750			
0.3438	22002.01	3.7250	3.7251	-0.9077	25.77	0.23	-0.750			
0.3465	22177.87	3.7220	3.7222	-0.9229	25.77	0.23	-0.750			
0.3493	22355.96	3.7190	3.7190	-0.9381	25.77	0.23	-0.750			
0.3521	22535.89	3.7160	3.7159	-0.9462	25.77	0.23	-0.750			
0.3550	22719.20	3.7130	3.7129	-0.9582	25.78	0.24	-0.750			
0.3579	22905.39	3.7100	3.7101	-0.9754	25.78	0.24	-0.750			
0.3608	23093.27	3.7070	3.7069	-0.9977	25.78	0.24	-0.750			
0.3639	23287.40	3.7040	3.7039	-1.0086	25.78	0.24	-0.750			
0.3669	23481.26	3.7010	3.7010	-1.0228	25.77	0.23	-0.750			
0.3700	23678.03	3.6980	3.6980	-1.0349	25.77	0.23	-0.750			
0.3731	23880.89	3.6950	3.6950	-1.0661	25.77	0.23	-0.750			
0.3764	24087.52	3.6920	3.6919	-1.0850	25.77	0.23	-0.750			
0.3796	24295.70	3.6890	3.6889	-1.1002	25.77	0.23	-0.750			
0.3829	24507.40	3.6860	3.6862	-1.1215	25.77	0.23	-0.750			
0.3864	24729.21	3.6830	3.6829	-1.1512	25.77	0.23	-0.750			
0.3899	24951.80	3.6800	3.6799	-1.1739	25.76	0.22	-0.750			
0.3934	25178.73	3.6770	3.6770	-1.2005	25.75	0.21	-0.750			
0.3970	25408.56	3.6740	3.6742	-1.2231	25.75	0.21	-0.750			
0.4008	25649.94	3.6710	3.6709	-1.2562	25.74	0.20	-0.750			
0.4046	25893.34	3.6680	3.6680	-1.2867	25.73	0.19	-0.750			
0.4085	26143.36	3.6650	3.6651	-1.3122	25.72	0.18	-0.750			
0.4125	26399.65	3.6620	3.6619	-1.3549	25.72	0.18	-0.750			
0.4166	26662.61	3.6590	3.6590	-1.3715	25.71	0.17	-0.750			
0.4208	26929.14	3.6560	3.6561	-1.3989	25.71	0.17	-0.750			
0.4250	27199.29	3.6530	3.6529	-1.4360	25.70	0.16	-0.750			
0.4294	27478.90	3.6500	3.6499	-1.4658	25.70	0.16	-0.750			
0.4338	27760.04	3.6470	3.6472	-1.5117	25.69	0.15	-0.750			
0.4384	28055.61	3.6440	3.6440	-1.5391	25.68	0.14	-0.750			
0.4431	28358.82	3.6410	3.6409	-1.5761	25.67	0.13	-0.750			
0.4479	28666.46	3.6380	3.6380	-1.6197	25.66	0.12	-0.750			
0.4528	28979.57	3.6350	3.6352	-1.6707	25.64	0.10	-0.750			
0.4579	29304.33	3.6320	3.6322	-1.6853	25.63	0.09	-0.750			
0.4630	29630.76	3.6290	3.6288	-1.7193	25.63	0.09	-0.750			
0.4682	29965.32	3.6260	3.6258	-1.7680	25.62	0.08	-0.750	0.400	0.494	
0.4736	30311.29	3.6230	3.6228	-1.7915	25.62	0.08	-0.750			
0.4790	30655.68	3.6200	3.6200	-1.8239	25.61	0.07	-0.750			
0.4845	31007.57	3.6170	3.6170	-1.8444	25.60	0.06	-0.750			
0.4901	31367.39	3.6140	3.6138	-1.8856	25.59	0.05	-0.750			
0.4958	31733.88	3.6110	3.6111	-1.9199	25.58	0.04	-0.750			
0.5016	32099.58	3.6080	3.6080	-1.9390	25.57	0.03	-0.750			
0.5074	32472.57	3.6050	3.6050	-1.9825	25.56	0.02	-0.750			
0.5135	32860.99	3.6020	3.6020	-2.0142	25.56	0.02	-0.750			
0.5195	33248.82	3.5990	3.5990	-2.0655	25.55	0.01	-0.750			
0.5258	33652.93	3.5960	3.5960	-2.1100	25.55	0.01	-0.750			
0.5322	34063.91	3.5930	3.5929	-2.1461	25.54	0.00	-0.750			
0.5388	34480.54	3.5900	3.5901	-2.1778	25.53	-0.01	-0.750			
0.5454	34902.95	3.5870	3.5870	-2.2116	25.52	-0.02	-0.750			
0.5520	35329.78	3.5840	3.5839	-2.2402	25.52	-0.02	-0.750			
0.5588	35763.45	3.5810	3.5809	-2.2834	25.52	-0.02	-0.750			
0.5657	36203.65	3.5780	3.5781	-2.3086	25.52	-0.02	-0.750			
0.5727	36653.15	3.5750	3.5750	-2.3416	25.52	-0.02	-0.750			
0.5798	37107.71	3.5720	3.5721	-2.3573	25.51	-0.03	-0.750			
0.5869	37561.46	3.5690	3.5689	-2.3797	25.51	-0.03	-0.750			
0.5942	38025.64	3.5660	3.5660	-2.3737	25.51	-0.03	-0.750			
0.6013	38483.51	3.5630	3.5630	-2.3666	25.51	-0.03	-0.750			
0.6084	38938.01	3.5600	3.5600	-2.3502	25.50	-0.04	-0.750			
0.6154	39387.35	3.5570	3.5568	-2.3439	25.51	-0.03	-0.750			
0.6224	39832.72	3.5540	3.5540	-2.3431	25.51	-0.03	-0.750			
0.6294	40282.07	3.5510	3.5510	-2.3475	25.52	-0.02	-0.750			
0.6364	40732.65	3.5480	3.5484	-2.3420	25.52	-0.02	-0.750			
0.6435	41186.86	3.5450	3.5450	-2.3370	25.52	-0.02	-0.750			
0.6506	41635.28	3.5420	3.5421	-2.3284	25.53	-0.01	-0.750			
0.6576	42084.73	3.5390	3.5389	-2.3026	25.54	-0.00	-0.750			
0.6646	42535.88	3.5360	3.5358	-2.2422	25.54	0.00	-0.750			
0.6712	42954.30	3.5330	3.5330	-2.1769	25.54	0.00	-0.750			
0.6776	43366.69	3.5300	3.5302	-2.1366	25.55	0.01	-0.750			
0.6839	43767.29	3.5270	3.5269	-2.0732	25.56	0.02	-0.750			
0.6900	44161.93	3.5240	3.5241	-2.0201	25.57	0.03	-0.750			
0.6961	44547.57	3.5210	3.5209	-1.9617	25.58	0.04	-0.750			
0.7020	44926.64	3.5180	3.5183	-1.9375	25.59	0.05	-0.750			
0.7077	45295.77	3.5150	3.5149	-1.8768	25.61	0.07	-0.750			
0.7132	45647.65	3.5120	3.5120	-1.7984	25.62	0.08	-0.750			
0.7185	45981.85	3.5090	3.5088	-1.7251	25.63	0.09	-0.750			
0.7236	46311.92	3.5060	3.5059	-1.6624	25.65	0.11	-0.750			
0.7285	46627.15	3.5030	3.5030	-1.6025	25.66	0.12	-0.750			
0.7332	46925.87	3.5000	3.5000	-1.5453	25.68	0.14	-0.750			
0.7377	47214.16	3.4970	3.4969	-1.4792	25.69	0.15	-0.750			
0.7421	47496.50	3.4940	3.4939	-1.4349	25.71	0.17	-0.750			
0.7463	47765.43	3.4910	3.4912	-1.3886	25.72	0.18	-0.750			
0.7504	48025.59	3.4880	3.4880	-1.3412	25.74	0.20	-0.750			
0.7544	48283.28	3.4850	3.4849	-1.3036	25.76	0.22	-0.750			
0.7582	48525.79	3.4820	3.4821	-1.2544	25.79	0.25	-0.750			
0.7619	48761.44	3.4790	3.4790	-1.2167	25.80	0.26	-0.750			
0.7655	48992.43	3.4760	3.4759	-1.1744	25.81	0.27	-0.750			
0.7690	49214.49	3.4730	3.4730	-1.1305	25.81	0.27	-0.750			
0.7723	49425.62	3.4700	3.4701	-1.0913	25.82	0.28	-0.750			
0.7755	49631.65	3.4670	3.4670	-1.0562	25.84	0.30	-0.750			
0.7786	49829.65	3.4640	3.4639	-1.0253	25.85	0.31	-0.750			
0.7816	50020.67	3.4610	3.4610	-0.9940	25.86	0.32	-0.750			
0.7845	50209.20	3.4580	3.4582	-0.9772	25.87	0.33	-0.750			
0.7874	50393.40	3.4550	3.4550	-0.9661	25.88	0.34	-0.750			
0.7902	50575.41	3.4520	3.4520	-0.9575	25.89	0.35	-0.750			
0.7931	50756.73	3.4490	3.4490	-0.9554	25.90	0.36	-0.750			
0.7959	50937.29	3.4460	3.4461	-0.9661	25.91	0.37	-0.750			
0.7988	51121.24	3.4430	3.4430	-0.9996	25.92	0.38	-0.750			
0.8018	51312.87	3.4400	3.4399	-1.0301	25.94	0.40	-0.750			
0.8049	51512.47	3.4370	3.4369	-1.0708	25.95	0.41	-0.750			
0.8081	51720.89	3.4340	3.4341	-1.1161	25.97	0.43	-0.750			
0.8117	51947.01	3.4310	3.4310	-1.1574	25.97	0.43	-0.750			
0.8153	52176.30	3.4280	3.4279	-1.1852	25.98	0.44	-0.750			
0.8189	52410.56	3.4250	3.4250	-1.1891	25.99	0.45	-0.750			
0.8225	52641.49	3.4220	3.4220	-1.1858	25.99	0.45	-0.750			
0.8262	52875.55	3.4190	3.4190	-1.1719	26.00	0.46	-0.750			
0.8297	53100.17	3.4160	3.4159	-1.1301	26.01	0.47	-0.750			
0.8330	53312.63	3.4130	3.4130	-1.0876	26.02	0.48	-0.750			
0.8362	53519.41	3.4100	3.4100	-1.0566	26.03	0.49	-0.750			
0.8393	53715.06	3.4070	3.4070	-1.0072	26.03	0.49	-0.750			
0.8422	53903.80	3.4040	3.4038	-0.9694	26.04	0.50	-0.750			
0.8451	54084.34	3.4010	3.4010	-0.9296	26.05	0.51	-0.750			
0.8479	54262.42	3.3980	3.3979	-0.9024	26.05	0.51	-0.750			
0.8505	54431.55	3.3950	3.3950	-0.8713	26.06	0.52	-0.750			
0.8531	54595.38	3.3920	3.3920	-0.8326	26.07	0.53	-0.750			
0.8555	54751.09	3.3890	3.3890	-0.7998	26.08	0.54	-0.750			
0.8579	54903.67	3.3860	3.3860	-0.7752	26.09	0.55	-0.750			
0.8601	55048.81	3.3830	3.3829	-0.7428	26.09	0.55	-0.750			
0.8623	55188.76	3.3800	3.3799	-0.7121	26.10	0.56	-0.750			
0.8644	55321.23	3.3770	3.3771	-0.6840	26.10	0.56	-0.750			
0.8664	55449.96	3.3740	3.3740	-0.6542	26.10	0.56	-0.750			
0.8683	55573.87	3.3710	3.3710	-0.6321	26.11	0.57	-0.750			
0.8702	55691.37	3.3680	3.3679	-0.6040	26.11	0.57	-0.750			
0.8720	55804.84	3.3650	3.3651	-0.5788	26.11	0.57	-0.750			
0.8737	55914.50	3.3620	3.3619	-0.5555	26.12	0.58	-0.750			
0.8753	56018.74	3.3590	3.3591	-0.5306	26.13	0.59	-0.750			
0.8768	56117.02	3.3560	3.3560	-0.5063	26.14	0.60	-0.750			
0.8783	56212.76	3.3530	3.3530	-0.4853	26.14	0.60	-0.750			
0.8797	56302.19	3.3500	3.3500	-0.4655	26.15	0.61	-0.750			
0.8811	56390.33	3.3470	3.3470	-0.4494	26.16	0.62	-0.750			
0.8824	56475.83	3.3440	3.3440	-0.4320	26.16	0.62	-0.750			
0.8837	56557.02	3.3410	3.3412	-0.4144	26.17	0.63	-0.750			
0.8849	56635.20	3.3380	3.3379	-0.3973	26.17	0.63	-0.750			
0.8861	56709.55	3.3350	3.3351	-0.3783	26.18	0.64	-0.750			
0.8872	56779.87	3.3320	3.3319	-0.3613	26.19	0.65	-0.750			
0.8882	56846.18	3.3290	3.3290	-0.3442	26.19	0.65	-0.750			
0.8892	56911.70	3.3260	3.3260	-0.3310	26.20	0.66	-0.750			
0.8902	56973.65	3.3230	3.3230	-0.3173	26.20	0.66	-0.750			
0.8911	57032.85	3.3200	3.3200	-0.3047	26.20	0.66	-0.750			
0.8920	57090.15	3.3170	3.3170	-0.2939	26.21	0.67	-0.750			
0.8929	57145.19	3.3140	3.3140	-0.2839	26.21	0.67	-0.750			
0.8937	57198.72	3.3110	3.3109	-0.2736	26.22	0.68	-0.750			
0.8945	57250.26	3.3080	3.3080	-0.2640	26.22	0.68	-0.750			
0.8953	57300.20	3.3050	3.3050	-0.2554	26.22	0.68	-0.750			
0.8961	57348.51	3.3020	3.3020	-0.2460	26.23	0.69	-0.750			
0.8968	57394.38	3.2990	3.2990	-0.2377	26.23	0.69	-0.750			
0.8975	57438.65	3.2960	3.2960	-0.2289	26.24	0.70	-0.750			
0.8981	57481.36	3.2930	3.2931	-0.2229	26.24	0.70	-0.750			
0.8988	57523.56	3.2900	3.2901	-0.2162	26.25	0.71	-0.750			
0.8994	57564.80	3.2870	3.2869	-0.2105	26.25	0.71	-0.750			
0.9001	57604.62	3.2840	3.2840	-0.2043	26.25	0.71	-0.750			
0.9007	57642.98	3.2810	3.2811	-0.1996	26.26	0.72	-0.750			
0.9013	57680.84	3.2780	3.2781	-0.1954	26.26	0.72	-0.750			
0.9018	57717.48	3.2750	3.2748	-0.1895	26.26	0.72	-0.750			
0.9024	57753.48	3.2720	3.2720	-0.1854	26.27	0.73	-0.750			
0.9029	57788.49	3.2690	3.2691	-0.1806	26.27	0.73	-0.750			
0.9035	57823.19	3.2660	3.2661	-0.1773	26.28	0.74	-0.750			
0.9040	57856.99	3.2630	3.2629	-0.1728	26.28	0.74	-0.750			
0.9045	57889.40	3.2600	3.2601	-0.1700	26.28	0.74	-0.750			
0.9050	57921.24	3.2570	3.2570	-0.1659	26.29	0.75	-0.750			
0.9055	57952.74	3.2540	3.2539	-0.1627	26.29	0.75	-0.750			
0.9060	57983.84	3.2510	3.2510	-0.1602	26.29	0.75	-0.750			
0.9065	58014.25	3.2480	3.2481	-0.1576	26.29	0.75	-0.750			
0.9069	58044.38	3.2450	3.2450	-0.1549	26.30	0.76	-0.750			
0.9074	58073.72	3.2420	3.2420	-0.1522	26.30	0.76	-0.750			
0.9079	58102.68	3.2390	3.2390	-0.1495	26.30	0.76	-0.750			
0.9083	58130.88	3.2360	3.2360	-0.1462	26.31	0.77	-0.750			
0.9087	58159.11	3.2330	3.2330	-0.1433	26.31	0.77	-0.750			
0.9092	58185.78	3.2300	3.2302	-0.1414	26.31	0.77	-0.750			
0.9096	58212.75	3.2270	3.2270	-0.1394	26.32	0.78	-0.750			
0.9100	58239.07	3.2240	3.2240	-0.1371	26.32	0.78	-0.750			
0.9104	58265.12	3.2210	3.2208	-0.1354	26.33	0.79	-0.750			
0.9108	58290.95	3.2180	3.2181	-0.1338	26.33	0.79	-0.750			
0.9112	58316.52	3.2150	3.2152	-0.1326	26.33	0.79	-0.750			
0.9116	58342.11	3.2120	3.2120	-0.1315	26.34	0.80	-0.750			
0.9120	58367.45	3.2090	3.2089	-0.1300	26.34	0.80	-0.750			
0.9124	58391.69	3.2060	3.2061	-0.1273	26.35	0.81	-0.750			
0.9128	58416.04	3.2030	3.2029	-0.1262	26.35	0.81	-0.750			
0.9131	58440.41	3.2000	3.1999	-0.1253	26.35	0.81	-0.750			
0.9135	58464.27	3.1970	3.1971	-0.1236	26.36	0.82	-0.750			
0.9139	58487.86	3.1940	3.1940	-0.1221	26.36	0.82	-0.750			
0.9142	58511.16	3.1910	3.1911	-0.1206	26.37	0.83	-0.750			
0.9146	58534.22	3.1880	3.1880	-0.1192	26.37	0.83	-0.750			
0.9150	58556.96	3.1850	3.1850	-0.1177	26.37	0.83	-0.750			
0.9153	58579.49	3.1820	3.1820	-0.1163	26.38	0.84	-0.750			
0.9156	58601.24	3.1790	3.1791	-0.1153	26.38	0.84	-0.750			
0.9160	58623.32	3.1760	3.1760	-0.1147	26.38	0.84	-0.750			
0.9163	58645.43	3.1730	3.1730	-0.1135	26.39	0.85	-0.750			
0.9167	58667.13	3.1700	3.1699	-0.1125	26.39	0.85	-0.750			
0.9170	58688.70	3.1670	3.1671	-0.1118	26.39	0.85	-0.750			
0.9173	58710.06	3.1640	3.1641	-0.1107	26.40	0.86	-0.750			
