Ah_balance (normalized)	Ah_balance (mAh)	Voltage - fit (V)	Voltage -  interpolate (V)	dQ/dV (1/V)	Temperature (°C)	Temperature - diff (°C)	Current (C)	R_DC 0ms (mOhm)	R_DC 50ms (mOhm)	R_DC 50 ms PEC (mOhm)
0.0005	28.92	4.1640	4.1637	-0.1353	25.55	0.02	-0.750			
0.0010	61.81	4.1610	4.1609	-0.1880	25.55	0.02	-0.750			
0.0016	102.46	4.1580	4.1580	-0.2318	25.55	0.02	-0.750			
0.0024	151.45	4.1550	4.1548	-0.2731	25.54	0.01	-0.750			
0.0033	208.27	4.1520	4.1521	-0.3127	25.54	0.01	-0.750			
0.0043	273.20	4.1490	4.1490	-0.3547	25.54	0.01	-0.750			
0.0054	344.58	4.1460	4.1460	-0.3947	25.54	0.01	-0.750			
0.0066	424.31	4.1430	4.1431	-0.4315	25.53	0.00	-0.750			
0.0080	511.62	4.1400	4.1399	-0.4686	25.53	0.00	-0.750			
0.0095	607.06	4.1370	4.1369	-0.4999	25.53	-0.00	-0.750			
0.0110	706.88	4.1340	4.1340	-0.5279	25.52	-0.01	-0.750			
0.0127	811.33	4.1310	4.1310	-0.5545	25.52	-0.01	-0.750			
0.0144	918.81	4.1280	4.1280	-0.5794	25.52	-0.01	-0.750			
0.0162	1033.60	4.1250	4.1250	-0.5970	25.51	-0.02	-0.750			
0.0180	1151.56	4.1220	4.1220	-0.6147	25.51	-0.02	-0.750			
0.0199	1273.87	4.1190	4.1190	-0.6264	25.50	-0.03	-0.750			
0.0218	1395.55	4.1160	4.1160	-0.6360	25.50	-0.03	-0.750			
0.0237	1516.78	4.1130	4.1130	-0.6468	25.50	-0.03	-0.750			
0.0256	1641.37	4.1100	4.1100	-0.6540	25.49	-0.04	-0.750			
0.0276	1766.02	4.1070	4.1069	-0.6670	25.49	-0.04	-0.750			
0.0297	1897.94	4.1040	4.1040	-0.6802	25.49	-0.04	-0.750			
0.0317	2030.54	4.1010	4.1011	-0.6918	25.48	-0.05	-0.750			
0.0338	2164.93	4.0980	4.0982	-0.6970	25.48	-0.05	-0.750			
0.0359	2299.07	4.0950	4.0950	-0.7031	25.48	-0.05	-0.750			
0.0380	2433.02	4.0920	4.0920	-0.7141	25.48	-0.05	-0.750			
0.0402	2572.00	4.0890	4.0888	-0.7154	25.47	-0.06	-0.750			
0.0424	2711.36	4.0860	4.0860	-0.7185	25.47	-0.06	-0.750			
0.0445	2849.69	4.0830	4.0830	-0.7218	25.47	-0.06	-0.750			
0.0467	2989.03	4.0800	4.0800	-0.7244	25.47	-0.06	-0.750			
0.0489	3127.50	4.0770	4.0770	-0.7301	25.47	-0.06	-0.750			
0.0510	3266.20	4.0740	4.0740	-0.7277	25.46	-0.07	-0.750			
0.0532	3405.95	4.0710	4.0709	-0.7298	25.46	-0.07	-0.750			
0.0555	3549.76	4.0680	4.0680	-0.7381	25.45	-0.08	-0.750			
0.0577	3692.24	4.0650	4.0651	-0.7379	25.45	-0.08	-0.750			
0.0599	3832.40	4.0620	4.0619	-0.7364	25.45	-0.08	-0.750			
0.0621	3973.59	4.0590	4.0590	-0.7347	25.45	-0.08	-0.750			
0.0643	4113.20	4.0560	4.0561	-0.7406	25.45	-0.08	-0.750			
0.0665	4255.81	4.0530	4.0530	-0.7466	25.46	-0.07	-0.750			
0.0688	4400.27	4.0500	4.0498	-0.7547	25.46	-0.07	-0.750			
0.0710	4545.93	4.0470	4.0472	-0.7578	25.46	-0.07	-0.750			
0.0733	4692.57	4.0440	4.0440	-0.7612	25.46	-0.07	-0.750			
0.0756	4840.86	4.0410	4.0410	-0.7603	25.46	-0.07	-0.750			
0.0779	4987.19	4.0380	4.0381	-0.7609	25.46	-0.07	-0.750			
0.0802	5132.13	4.0350	4.0350	-0.7574	25.46	-0.07	-0.750			
0.0824	5276.00	4.0320	4.0320	-0.7582	25.46	-0.07	-0.750			
0.0847	5419.86	4.0290	4.0290	-0.7576	25.46	-0.07	-0.750			
0.0870	5565.60	4.0260	4.0261	-0.7632	25.46	-0.07	-0.750			
0.0893	5712.99	4.0230	4.0229	-0.7700	25.46	-0.07	-0.750			
0.0916	5863.18	4.0200	4.0201	-0.7691	25.46	-0.07	-0.750			
0.0939	6010.25	4.0170	4.0170	-0.7702	25.46	-0.07	-0.750			
0.0962	6158.03	4.0140	4.0141	-0.7760	25.46	-0.07	-0.750			
0.0986	6307.22	4.0110	4.0109	-0.7758	25.46	-0.07	-0.750			
0.1009	6455.41	4.0080	4.0079	-0.7850	25.46	-0.07	-0.750			
0.1032	6607.30	4.0050	4.0050	-0.7884	25.46	-0.07	-0.750			
0.1056	6761.38	4.0020	4.0020	-0.7879	25.46	-0.07	-0.750			
0.1080	6914.46	3.9990	3.9993	-0.7867	25.46	-0.07	-0.750			
0.1104	7063.24	3.9960	3.9960	-0.7799	25.46	-0.07	-0.750			
0.1127	7211.29	3.9930	3.9929	-0.7791	25.46	-0.07	-0.750			
0.1150	7358.63	3.9900	3.9900	-0.7790	25.46	-0.07	-0.750			
0.1173	7506.80	3.9870	3.9869	-0.7800	25.46	-0.07	-0.750			
0.1197	7659.82	3.9840	3.9840	-0.7910	25.46	-0.07	-0.750			
0.1221	7812.96	3.9810	3.9811	-0.7957	25.46	-0.07	-0.750			
0.1245	7965.52	3.9780	3.9780	-0.8023	25.47	-0.06	-0.750			
0.1269	8121.12	3.9750	3.9750	-0.8036	25.47	-0.06	-0.750			
0.1293	8274.56	3.9720	3.9720	-0.8057	25.47	-0.06	-0.750			
0.1317	8430.45	3.9690	3.9690	-0.8079	25.48	-0.05	-0.750			
0.1342	8587.13	3.9660	3.9660	-0.8075	25.48	-0.05	-0.750			
0.1366	8741.28	3.9630	3.9630	-0.8047	25.48	-0.05	-0.750			
0.1390	8895.70	3.9600	3.9600	-0.8121	25.48	-0.05	-0.750			
0.1414	9051.77	3.9570	3.9570	-0.8097	25.48	-0.05	-0.750			
0.1439	9209.43	3.9540	3.9539	-0.8112	25.48	-0.05	-0.750			
0.1463	9363.49	3.9510	3.9513	-0.8129	25.48	-0.05	-0.750			
0.1487	9519.69	3.9480	3.9480	-0.8182	25.48	-0.05	-0.750			
0.1512	9677.17	3.9450	3.9449	-0.8213	25.49	-0.04	-0.750			
0.1537	9834.33	3.9420	3.9419	-0.8185	25.49	-0.04	-0.750			
0.1562	9993.63	3.9390	3.9391	-0.8228	25.50	-0.03	-0.750			
0.1586	10151.37	3.9360	3.9361	-0.8234	25.50	-0.03	-0.750			
0.1611	10309.15	3.9330	3.9330	-0.8282	25.50	-0.03	-0.750			
0.1635	10467.13	3.9300	3.9300	-0.8303	25.50	-0.03	-0.750			
0.1660	10626.85	3.9270	3.9269	-0.8303	25.50	-0.03	-0.750			
0.1686	10788.12	3.9240	3.9239	-0.8383	25.50	-0.03	-0.750			
0.1711	10949.89	3.9210	3.9211	-0.8383	25.50	-0.03	-0.750			
0.1736	11111.28	3.9180	3.9180	-0.8402	25.50	-0.03	-0.750			
0.1761	11271.03	3.9150	3.9149	-0.8429	25.51	-0.02	-0.750			
0.1786	11431.94	3.9120	3.9120	-0.8378	25.51	-0.02	-0.750			
0.1812	11594.28	3.9090	3.9090	-0.8456	25.52	-0.01	-0.750			
0.1837	11756.24	3.9060	3.9062	-0.8478	25.52	-0.01	-0.750			
0.1862	11919.63	3.9030	3.9029	-0.8488	25.52	-0.01	-0.750			
0.1888	12083.77	3.9000	3.9000	-0.8532	25.53	-0.00	-0.750			
0.1914	12246.78	3.8970	3.8970	-0.8511	25.53	0.00	-0.750			
0.1939	12412.26	3.8940	3.8940	-0.8507	25.54	0.01	-0.750			
0.1965	12575.57	3.8910	3.8911	-0.8551	25.54	0.01	-0.750			
0.1990	12737.73	3.8880	3.8879	-0.8518	25.54	0.01	-0.750			
0.2016	12903.74	3.8850	3.8849	-0.8582	25.55	0.02	-0.750			
0.2042	13068.01	3.8820	3.8820	-0.8615	25.55	0.02	-0.750			
0.2068	13235.42	3.8790	3.8789	-0.8633	25.56	0.03	-0.750			
0.2094	13401.42	3.8760	3.8761	-0.8600	25.56	0.03	-0.750			
0.2120	13565.84	3.8730	3.8729	-0.8671	25.57	0.04	-0.750			
0.2146	13731.24	3.8700	3.8699	-0.8620	25.57	0.04	-0.750			
0.2171	13894.41	3.8670	3.8670	-0.8589	25.57	0.04	-0.750			
0.2197	14063.61	3.8640	3.8638	-0.8701	25.58	0.05	-0.750			
0.2224	14231.06	3.8610	3.8610	-0.8685	25.58	0.05	-0.750			
0.2250	14398.76	3.8580	3.8579	-0.8734	25.59	0.06	-0.750			
0.2276	14565.76	3.8550	3.8551	-0.8706	25.59	0.06	-0.750			
0.2302	14730.23	3.8520	3.8520	-0.8653	25.59	0.06	-0.750			
0.2328	14901.20	3.8490	3.8489	-0.8748	25.60	0.07	-0.750			
0.2354	15067.29	3.8460	3.8460	-0.8715	25.60	0.07	-0.750			
0.2380	15234.63	3.8430	3.8430	-0.8716	25.61	0.08	-0.750			
0.2407	15401.73	3.8400	3.8401	-0.8701	25.61	0.08	-0.750			
0.2433	15568.62	3.8370	3.8369	-0.8656	25.62	0.09	-0.750			
0.2459	15735.78	3.8340	3.8342	-0.8700	25.62	0.09	-0.750			
0.2485	15901.66	3.8310	3.8310	-0.8712	25.62	0.09	-0.750			
0.2511	16069.20	3.8280	3.8280	-0.8735	25.63	0.10	-0.750			
0.2537	16236.87	3.8250	3.8249	-0.8738	25.63	0.10	-0.750			
0.2563	16404.59	3.8220	3.8220	-0.8766	25.64	0.11	-0.750			
0.2590	16574.08	3.8190	3.8191	-0.8780	25.64	0.11	-0.750			
0.2616	16744.28	3.8160	3.8160	-0.8796	25.65	0.12	-0.750			
0.2642	16911.99	3.8130	3.8130	-0.8742	25.65	0.12	-0.750			
0.2669	17078.94	3.8100	3.8101	-0.8733	25.65	0.12	-0.750			
0.2695	17246.34	3.8070	3.8069	-0.8745	25.66	0.13	-0.750			
0.2721	17413.77	3.8040	3.8040	-0.8755	25.66	0.13	-0.750			
0.2747	17581.64	3.8010	3.8010	-0.8744	25.66	0.13	-0.750			
0.2773	17750.31	3.7980	3.7980	-0.8735	25.67	0.14	-0.750			
0.2800	17919.18	3.7950	3.7950	-0.8757	25.67	0.14	-0.750			
0.2826	18088.55	3.7920	3.7920	-0.8706	25.67	0.14	-0.750			
0.2852	18252.84	3.7890	3.7890	-0.8703	25.67	0.14	-0.750			
0.2878	18419.71	3.7860	3.7860	-0.8714	25.67	0.14	-0.750			
0.2904	18586.98	3.7830	3.7830	-0.8662	25.68	0.15	-0.750			
0.2930	18753.52	3.7800	3.7799	-0.8661	25.68	0.15	-0.750			
0.2956	18920.88	3.7770	3.7770	-0.8645	25.68	0.15	-0.750			
0.2982	19085.63	3.7740	3.7739	-0.8606	25.69	0.16	-0.750			
0.3008	19250.92	3.7710	3.7710	-0.8663	25.69	0.16	-0.750			
0.3034	19415.91	3.7680	3.7680	-0.8602	25.70	0.17	-0.750			
0.3060	19582.49	3.7650	3.7649	-0.8602	25.70	0.17	-0.750			
0.3086	19747.46	3.7620	3.7622	-0.8611	25.71	0.18	-0.750			
0.3111	19911.25	3.7590	3.7589	-0.8589	25.71	0.18	-0.750			
0.3137	20078.53	3.7560	3.7560	-0.8632	25.71	0.18	-0.750			
0.3163	20242.79	3.7530	3.7527	-0.8608	25.72	0.19	-0.750			
0.3189	20410.00	3.7500	3.7501	-0.8615	25.72	0.19	-0.750			
0.3215	20575.71	3.7470	3.7472	-0.8665	25.72	0.19	-0.750			
0.3241	20741.97	3.7440	3.7439	-0.8704	25.73	0.20	-0.750			
0.3267	20909.25	3.7410	3.7409	-0.8767	25.73	0.20	-0.750			
0.3293	21075.55	3.7380	3.7380	-0.8716	25.74	0.21	-0.750			
0.3320	21247.13	3.7350	3.7350	-0.8906	25.75	0.22	-0.750			
0.3347	21417.82	3.7320	3.7320	-0.8923	25.75	0.22	-0.750			
0.3373	21589.69	3.7290	3.7289	-0.8948	25.75	0.22	-0.750			
0.3400	21759.66	3.7260	3.7260	-0.8960	25.75	0.22	-0.750			
0.3426	21929.01	3.7230	3.7232	-0.8993	25.75	0.22	-0.750			
0.3454	22105.53	3.7200	3.7198	-0.9168	25.75	0.22	-0.750			
0.3481	22280.95	3.7170	3.7170	-0.9338	25.75	0.22	-0.750			
0.3509	22459.85	3.7140	3.7140	-0.9478	25.75	0.22	-0.750			
0.3538	22643.93	3.7110	3.7110	-0.9688	25.75	0.22	-0.750			
0.3568	22834.48	3.7080	3.7079	-0.9830	25.75	0.22	-0.750			
0.3597	23023.98	3.7050	3.7051	-1.0046	25.75	0.22	-0.750			
0.3628	23219.42	3.7020	3.7020	-1.0164	25.75	0.22	-0.750			
0.3659	23415.40	3.6990	3.6990	-1.0294	25.76	0.23	-0.750			
0.3689	23611.27	3.6960	3.6959	-1.0403	25.76	0.23	-0.750			
0.3721	23812.78	3.6930	3.6931	-1.0681	25.76	0.23	-0.750			
0.3753	24019.63	3.6900	3.6900	-1.0893	25.76	0.23	-0.750			
0.3786	24231.18	3.6870	3.6869	-1.1158	25.75	0.22	-0.750			
0.3820	24447.11	3.6840	3.6840	-1.1297	25.75	0.22	-0.750			
0.3854	24668.78	3.6810	3.6810	-1.1625	25.75	0.22	-0.750			
0.3890	24894.41	3.6780	3.6780	-1.1845	25.75	0.22	-0.750			
0.3926	25123.96	3.6750	3.6748	-1.2061	25.75	0.22	-0.750			
0.3962	25356.24	3.6720	3.6722	-1.2371	25.75	0.22	-0.750			
0.4000	25599.37	3.6690	3.6690	-1.2583	25.74	0.21	-0.750			
0.4038	25843.33	3.6660	3.6659	-1.2856	25.73	0.20	-0.750			
0.4077	26092.36	3.6630	3.6633	-1.3247	25.72	0.19	-0.750			
0.4117	26349.56	3.6600	3.6598	-1.3485	25.71	0.18	-0.750			
0.4158	26612.03	3.6570	3.6569	-1.3665	25.71	0.18	-0.750			
0.4199	26876.10	3.6540	3.6542	-1.3994	25.70	0.17	-0.750			
0.4241	27145.00	3.6510	3.6510	-1.4353	25.69	0.16	-0.750			
0.4285	27422.45	3.6480	3.6478	-1.5053	25.69	0.16	-0.750			
0.4331	27716.55	3.6450	3.6453	-1.5380	25.68	0.15	-0.750			
0.4378	28016.28	3.6420	3.6420	-1.5716	25.68	0.15	-0.750			
0.4427	28333.37	3.6390	3.6389	-1.6195	25.67	0.14	-0.750			
0.4476	28647.87	3.6360	3.6360	-1.6467	25.67	0.14	-0.750			
0.4526	28966.50	3.6330	3.6329	-1.6810	25.65	0.12	-0.750			
0.4576	29285.75	3.6300	3.6301	-1.7013	25.64	0.11	-0.750			
0.4627	29611.19	3.6270	3.6269	-1.7248	25.63	0.10	-0.750	0.417	0.504	
0.4680	29953.66	3.6240	3.6239	-1.7678	25.62	0.09	-0.750			
0.4734	30294.41	3.6210	3.6211	-1.7954	25.62	0.09	-0.750			
0.4788	30642.61	3.6180	3.6180	-1.8202	25.61	0.08	-0.750			
0.4842	30989.07	3.6150	3.6150	-1.8553	25.61	0.08	-0.750			
0.4898	31350.29	3.6120	3.6119	-1.8898	25.60	0.07	-0.750			
0.4955	31714.59	3.6090	3.6091	-1.9251	25.60	0.07	-0.750			
0.5014	32090.14	3.6060	3.6060	-1.9633	25.59	0.06	-0.750			
0.5074	32472.32	3.6030	3.6030	-2.0070	25.58	0.05	-0.750			
0.5134	32858.03	3.6000	3.6000	-2.0352	25.57	0.04	-0.750			
0.5196	33254.36	3.5970	3.5970	-2.0823	25.56	0.03	-0.750			
0.5259	33655.98	3.5940	3.5940	-2.1166	25.56	0.03	-0.750			
0.5324	34070.45	3.5910	3.5910	-2.1555	25.56	0.03	-0.750			
0.5389	34489.37	3.5880	3.5880	-2.1730	25.56	0.03	-0.750			
0.5454	34906.25	3.5850	3.5849	-2.2163	25.55	0.02	-0.750			
0.5521	35334.81	3.5820	3.5819	-2.2406	25.55	0.02	-0.750			
0.5589	35767.06	3.5790	3.5789	-2.2684	25.54	0.01	-0.750			
0.5657	36204.82	3.5760	3.5761	-2.3059	25.54	0.01	-0.750			
0.5727	36653.35	3.5730	3.5730	-2.3160	25.54	0.01	-0.750			
0.5797	37100.71	3.5700	3.5700	-2.3503	25.54	0.01	-0.750			
0.5868	37556.85	3.5670	3.5671	-2.3567	25.54	0.01	-0.750			
0.5938	38006.07	3.5640	3.5638	-2.3743	25.54	0.01	-0.750			
0.6011	38473.50	3.5610	3.5610	-2.3813	25.54	0.01	-0.750			
0.6083	38932.44	3.5580	3.5577	-2.3639	25.54	0.01	-0.750			
0.6154	39385.26	3.5550	3.5551	-2.3682	25.54	0.01	-0.750			
0.6225	39837.93	3.5520	3.5522	-2.3483	25.54	0.01	-0.750			
0.6295	40287.72	3.5490	3.5487	-2.3353	25.54	0.01	-0.750			
0.6365	40737.59	3.5460	3.5460	-2.3023	25.54	0.01	-0.750			
0.6434	41175.56	3.5430	3.5431	-2.2887	25.54	0.01	-0.750			
0.6503	41617.37	3.5400	3.5401	-2.2709	25.55	0.02	-0.750			
0.6571	42054.14	3.5370	3.5369	-2.2292	25.56	0.03	-0.750			
0.6638	42480.06	3.5340	3.5339	-2.1845	25.57	0.04	-0.750			
0.6704	42903.54	3.5310	3.5310	-2.1539	25.58	0.05	-0.750			
0.6767	43311.40	3.5280	3.5281	-2.1029	25.58	0.05	-0.750			
0.6831	43717.42	3.5250	3.5252	-2.0496	25.58	0.05	-0.750			
0.6890	44098.51	3.5220	3.5224	-1.9772	25.59	0.06	-0.750			
0.6949	44475.35	3.5190	3.5189	-1.9280	25.60	0.07	-0.750			
0.7007	44843.52	3.5160	3.5160	-1.8707	25.61	0.08	-0.750			
0.7062	45199.13	3.5130	3.5130	-1.8178	25.62	0.09	-0.750			
0.7116	45543.12	3.5100	3.5104	-1.7658	25.64	0.11	-0.750			
0.7167	45870.53	3.5070	3.5071	-1.6891	25.65	0.12	-0.750			
0.7218	46195.69	3.5040	3.5040	-1.6334	25.66	0.13	-0.750			
0.7265	46498.51	3.5010	3.5009	-1.5599	25.68	0.15	-0.750			
0.7312	46795.33	3.4980	3.4981	-1.5183	25.69	0.16	-0.750			
0.7356	47076.82	3.4950	3.4949	-1.4589	25.71	0.18	-0.750			
0.7399	47350.44	3.4920	3.4918	-1.4089	25.73	0.20	-0.750			
0.7440	47614.60	3.4890	3.4888	-1.3585	25.75	0.22	-0.750			
0.7479	47868.68	3.4860	3.4860	-1.3139	25.77	0.24	-0.750			
0.7519	48121.48	3.4830	3.4830	-1.2828	25.78	0.25	-0.750			
0.7557	48362.54	3.4800	3.4799	-1.2368	25.80	0.27	-0.750			
0.7592	48591.78	3.4770	3.4770	-1.1907	25.81	0.28	-0.750			
0.7628	48820.32	3.4740	3.4740	-1.1564	25.82	0.29	-0.750			
0.7662	49038.54	3.4710	3.4710	-1.1152	25.84	0.31	-0.750			
0.7695	49250.14	3.4680	3.4679	-1.0747	25.85	0.32	-0.750			
0.7727	49451.48	3.4650	3.4650	-1.0351	25.86	0.33	-0.750			
0.7757	49646.23	3.4620	3.4620	-1.0038	25.87	0.34	-0.750			
0.7786	49833.39	3.4590	3.4590	-0.9744	25.88	0.35	-0.750			
0.7815	50015.28	3.4560	3.4559	-0.9515	25.89	0.36	-0.750			
0.7843	50196.59	3.4530	3.4531	-0.9384	25.90	0.37	-0.750			
0.7871	50371.94	3.4500	3.4499	-0.9403	25.91	0.38	-0.750			
0.7899	50550.60	3.4470	3.4470	-0.9457	25.92	0.39	-0.750			
0.7926	50726.59	3.4440	3.4440	-0.9614	25.93	0.40	-0.750			
0.7956	50916.09	3.4410	3.4411	-0.9951	25.94	0.41	-0.750			
0.7986	51107.76	3.4380	3.4380	-1.0289	25.95	0.42	-0.750			
0.8017	51309.62	3.4350	3.4350	-1.0687	25.95	0.42	-0.750			
0.8050	51519.69	3.4320	3.4320	-1.1043	25.96	0.43	-0.750			
0.8083	51734.32	3.4290	3.4291	-1.1332	25.97	0.44	-0.750			
0.8119	51963.96	3.4260	3.4260	-1.1550	25.98	0.45	-0.750			
0.8155	52189.46	3.4230	3.4229	-1.1553	25.99	0.46	-0.750			
0.8190	52416.48	3.4200	3.4200	-1.1492	26.00	0.47	-0.750			
0.8224	52636.56	3.4170	3.4169	-1.1342	26.01	0.48	-0.750			
0.8258	52852.43	3.4140	3.4139	-1.1044	26.02	0.49	-0.750			
0.8291	53064.22	3.4110	3.4110	-1.0650	26.02	0.49	-0.750			
0.8323	53264.04	3.4080	3.4080	-1.0251	26.03	0.50	-0.750			
0.8353	53459.95	3.4050	3.4051	-0.9984	26.03	0.50	-0.750			
0.8382	53646.35	3.4020	3.4019	-0.9545	26.04	0.51	-0.750			
0.8410	53825.73	3.3990	3.3989	-0.9092	26.05	0.52	-0.750			
0.8437	53994.36	3.3960	3.3960	-0.8705	26.05	0.52	-0.750			
0.8463	54160.28	3.3930	3.3932	-0.8410	26.06	0.53	-0.750			
0.8487	54318.85	3.3900	3.3900	-0.8061	26.07	0.54	-0.750			
0.8510	54466.23	3.3870	3.3869	-0.7727	26.07	0.54	-0.750			
0.8533	54610.93	3.3840	3.3840	-0.7467	26.08	0.55	-0.750			
0.8555	54752.99	3.3810	3.3809	-0.7231	26.08	0.55	-0.750			
0.8577	54890.33	3.3780	3.3780	-0.6971	26.09	0.56	-0.750			
0.8597	55021.80	3.3750	3.3750	-0.6672	26.09	0.56	-0.750			
0.8617	55147.94	3.3720	3.3720	-0.6395	26.10	0.57	-0.750			
0.8636	55267.63	3.3690	3.3691	-0.6115	26.11	0.58	-0.750			
0.8653	55380.52	3.3660	3.3660	-0.5848	26.11	0.58	-0.750			
0.8670	55489.94	3.3630	3.3629	-0.5614	26.12	0.59	-0.750			
0.8687	55596.20	3.3600	3.3600	-0.5387	26.12	0.59	-0.750			
0.8703	55697.19	3.3570	3.3570	-0.5165	26.13	0.60	-0.750			
0.8718	55794.76	3.3540	3.3539	-0.4965	26.13	0.60	-0.750			
0.8733	55888.00	3.3510	3.3510	-0.4763	26.14	0.61	-0.750			
0.8746	55976.47	3.3480	3.3480	-0.4555	26.14	0.61	-0.750			
0.8760	56062.05	3.3450	3.3450	-0.4356	26.15	0.62	-0.750			
0.8772	56143.96	3.3420	3.3421	-0.4179	26.15	0.62	-0.750			
0.8785	56221.85	3.3390	3.3390	-0.4025	26.15	0.62	-0.750			
0.8796	56296.80	3.3360	3.3359	-0.3862	26.16	0.63	-0.750			
0.8808	56369.28	3.3330	3.3330	-0.3699	26.16	0.63	-0.750			
0.8819	56438.97	3.3300	3.3300	-0.3556	26.17	0.64	-0.750			
0.8829	56506.27	3.3270	3.3270	-0.3415	26.17	0.64	-0.750			
0.8839	56570.59	3.3240	3.3240	-0.3283	26.17	0.64	-0.750			
0.8849	56631.39	3.3210	3.3210	-0.3140	26.18	0.65	-0.750			
0.8858	56690.04	3.3180	3.3180	-0.3017	26.19	0.66	-0.750			
0.8867	56746.47	3.3150	3.3150	-0.2910	26.19	0.66	-0.750			
0.8875	56801.50	3.3120	3.3120	-0.2814	26.20	0.67	-0.750			
0.8884	56854.47	3.3090	3.3090	-0.2714	26.20	0.67	-0.750			
0.8891	56905.50	3.3060	3.3059	-0.2632	26.21	0.68	-0.750			
0.8899	56955.02	3.3030	3.3030	-0.2531	26.21	0.68	-0.750			
0.8907	57002.64	3.3000	3.3000	-0.2456	26.22	0.69	-0.750			
0.8914	57048.85	3.2970	3.2969	-0.2372	26.22	0.69	-0.750			
0.8921	57093.33	3.2940	3.2941	-0.2308	26.23	0.70	-0.750			
0.8928	57136.61	3.2910	3.2909	-0.2238	26.23	0.70	-0.750			
0.8934	57178.70	3.2880	3.2880	-0.2182	26.23	0.70	-0.750			
0.8941	57220.29	3.2850	3.2850	-0.2126	26.24	0.71	-0.750			
0.8947	57260.29	3.2820	3.2821	-0.2069	26.24	0.71	-0.750			
0.8953	57300.14	3.2790	3.2790	-0.2023	26.25	0.72	-0.750			
0.8959	57337.88	3.2760	3.2761	-0.1964	26.25	0.72	-0.750			
0.8965	57375.03	3.2730	3.2730	-0.1917	26.25	0.72	-0.750			
0.8970	57411.19	3.2700	3.2700	-0.1868	26.26	0.73	-0.750			
0.8976	57446.55	3.2670	3.2670	-0.1825	26.26	0.73	-0.750			
0.8981	57481.03	3.2640	3.2640	-0.1777	26.27	0.74	-0.750			
0.8987	57515.09	3.2610	3.2610	-0.1743	26.27	0.74	-0.750			
0.8992	57547.95	3.2580	3.2581	-0.1711	26.27	0.74	-0.750			
0.8997	57580.24	3.2550	3.2550	-0.1680	26.28	0.75	-0.750			
0.9002	57611.92	3.2520	3.2519	-0.1647	26.28	0.75	-0.750			
0.9007	57643.26	3.2490	3.2490	-0.1623	26.28	0.75	-0.750			
0.9012	57674.32	3.2460	3.2460	-0.1592	26.29	0.76	-0.750			
0.9016	57704.60	3.2430	3.2430	-0.1570	26.29	0.76	-0.750			
0.9021	57734.55	3.2400	3.2401	-0.1548	26.29	0.76	-0.750			
0.9026	57764.02	3.2370	3.2369	-0.1522	26.30	0.77	-0.750			
0.9030	57792.76	3.2340	3.2340	-0.1497	26.30	0.77	-0.750			
0.9035	57821.20	3.2310	3.2310	-0.1477	26.30	0.77	-0.750			
0.9039	57849.40	3.2280	3.2281	-0.1458	26.31	0.78	-0.750			
0.9043	57877.20	3.2250	3.2250	-0.1439	26.31	0.78	-0.750			
0.9048	57904.81	3.2220	3.2220	-0.1419	26.31	0.78	-0.750			
0.9052	57931.74	3.2190	3.2190	-0.1394	26.32	0.79	-0.750			
0.9056	57958.24	3.2160	3.2160	-0.1377	26.32	0.79	-0.750			
0.9060	57984.49	3.2130	3.2130	-0.1358	26.32	0.79	-0.750			
0.9064	58010.31	3.2100	3.2100	-0.1342	26.33	0.80	-0.750			
0.9068	58035.76	3.2070	3.2070	-0.1325	26.33	0.80	-0.750			
0.9072	58060.96	3.2040	3.2040	-0.1310	26.33	0.80	-0.750			
0.9076	58086.10	3.2010	3.2011	-0.1295	26.33	0.80	-0.750			
0.9080	58110.86	3.1980	3.1981	-0.1281	26.34	0.81	-0.750			
0.9084	58135.42	3.1950	3.1950	-0.1268	26.34	0.81	-0.750			
0.9087	58159.46	3.1920	3.1921	-0.1251	26.34	0.81	-0.750			
0.9091	58183.35	3.1890	3.1889	-0.1238	26.35	0.82	-0.750			
0.9095	58207.00	3.1860	3.1860	-0.1223	26.35	0.82	-0.750			
0.9098	58230.34	3.1830	3.1829	-0.1209	26.36	0.83	-0.750			
0.9102	58253.32	3.1800	3.1801	-0.1198	26.36	0.83	-0.750			
0.9106	58276.23	3.1770	3.1771	-0.1186	26.37	0.84	-0.750			
0.9109	58298.79	3.1740	3.1739	-0.1178	26.37	0.84	-0.750			
0.9113	58321.15	3.1710	3.1709	-0.1166	26.38	0.85	-0.750			
0.9116	58343.46	3.1680	3.1681	-0.1159	26.38	0.85	-0.750			
0.9120	58365.53	3.1650	3.1650	-0.1151	26.38	0.85	-0.750			
0.9123	58387.76	3.1620	3.1619	-0.1140	26.39	0.86	-0.750			
