Ah_balance (normalized)	Ah_balance (mAh)	Voltage - fit (V)	Voltage -  interpolate (V)	dQ/dV (1/V)	Temperature (°C)	Temperature - diff (°C)	Current (C)	R_DC 0ms (mOhm)	R_DC 50ms (mOhm)	R_DC 50 ms PEC (mOhm)
0.0005	30.21	4.1580	4.1578	-0.1373	25.83	0.00	-0.750			
0.0010	60.93	4.1550	4.1550	-0.1765	25.83	0.00	-0.750			
0.0016	99.36	4.1520	4.1519	-0.2122	25.83	0.00	-0.750			
0.0022	143.03	4.1490	4.1490	-0.2470	25.83	0.00	-0.750			
0.0030	193.60	4.1460	4.1461	-0.2838	25.83	0.00	-0.750			
0.0039	251.88	4.1430	4.1430	-0.3156	25.83	0.00	-0.750			
0.0049	315.73	4.1400	4.1398	-0.3491	25.83	0.00	-0.750			
0.0060	386.23	4.1370	4.1370	-0.3783	25.83	0.00	-0.750			
0.0072	462.12	4.1340	4.1338	-0.4098	25.83	-0.00	-0.750			
0.0085	543.91	4.1310	4.1311	-0.4374	25.83	-0.00	-0.750			
0.0099	631.74	4.1280	4.1279	-0.4616	25.83	-0.00	-0.750			
0.0113	722.23	4.1250	4.1250	-0.4855	25.83	-0.00	-0.750			
0.0128	818.95	4.1220	4.1220	-0.5083	25.83	-0.00	-0.750			
0.0144	918.73	4.1190	4.1190	-0.5266	25.82	-0.01	-0.750			
0.0160	1022.55	4.1160	4.1159	-0.5446	25.82	-0.01	-0.750			
0.0176	1128.08	4.1130	4.1131	-0.5614	25.82	-0.01	-0.750			
0.0194	1238.48	4.1100	4.1100	-0.5750	25.82	-0.01	-0.750			
0.0211	1351.69	4.1070	4.1070	-0.5881	25.82	-0.01	-0.750			
0.0229	1465.10	4.1040	4.1040	-0.5964	25.81	-0.02	-0.750			
0.0247	1580.50	4.1010	4.1010	-0.6078	25.81	-0.02	-0.750			
0.0265	1698.95	4.0980	4.0980	-0.6140	25.81	-0.02	-0.750			
0.0284	1817.20	4.0950	4.0950	-0.6189	25.81	-0.02	-0.750			
0.0303	1936.00	4.0920	4.0920	-0.6252	25.80	-0.03	-0.750			
0.0322	2057.70	4.0890	4.0892	-0.6320	25.80	-0.03	-0.750			
0.0340	2178.91	4.0860	4.0860	-0.6401	25.80	-0.03	-0.750			
0.0360	2302.35	4.0830	4.0830	-0.6454	25.80	-0.03	-0.750			
0.0379	2427.21	4.0800	4.0801	-0.6542	25.79	-0.04	-0.750			
0.0399	2555.23	4.0770	4.0769	-0.6625	25.79	-0.04	-0.750			
0.0419	2683.78	4.0740	4.0740	-0.6680	25.79	-0.04	-0.750			
0.0440	2812.99	4.0710	4.0713	-0.6679	25.79	-0.04	-0.750			
0.0460	2941.57	4.0680	4.0679	-0.6704	25.79	-0.04	-0.750			
0.0479	3068.73	4.0650	4.0650	-0.6705	25.79	-0.04	-0.750			
0.0499	3196.21	4.0620	4.0620	-0.6747	25.79	-0.04	-0.750			
0.0520	3327.98	4.0590	4.0589	-0.6820	25.80	-0.03	-0.750			
0.0540	3458.28	4.0560	4.0560	-0.6825	25.80	-0.03	-0.750			
0.0561	3590.60	4.0530	4.0530	-0.6874	25.80	-0.03	-0.750			
0.0582	3722.91	4.0500	4.0500	-0.6938	25.80	-0.03	-0.750			
0.0602	3855.62	4.0470	4.0470	-0.6958	25.80	-0.03	-0.750			
0.0623	3989.83	4.0440	4.0440	-0.7022	25.80	-0.03	-0.750			
0.0645	4125.53	4.0410	4.0410	-0.7029	25.80	-0.03	-0.750			
0.0666	4263.52	4.0380	4.0380	-0.7036	25.80	-0.03	-0.750			
0.0687	4398.09	4.0350	4.0352	-0.6993	25.80	-0.03	-0.750			
0.0708	4531.37	4.0320	4.0320	-0.7005	25.80	-0.03	-0.750			
0.0729	4664.01	4.0290	4.0288	-0.7016	25.80	-0.03	-0.750			
0.0750	4797.31	4.0260	4.0260	-0.7052	25.80	-0.03	-0.750			
0.0771	4933.27	4.0230	4.0231	-0.7116	25.81	-0.02	-0.750			
0.0793	5073.78	4.0200	4.0199	-0.7197	25.81	-0.02	-0.750			
0.0815	5213.01	4.0170	4.0171	-0.7214	25.81	-0.02	-0.750			
0.0836	5351.56	4.0140	4.0139	-0.7208	25.81	-0.02	-0.750			
0.0858	5489.50	4.0110	4.0110	-0.7184	25.81	-0.02	-0.750			
0.0879	5626.83	4.0080	4.0080	-0.7196	25.81	-0.02	-0.750			
0.0901	5765.41	4.0050	4.0051	-0.7205	25.81	-0.02	-0.750			
0.0923	5904.19	4.0020	4.0019	-0.7237	25.81	-0.02	-0.750			
0.0944	6043.11	3.9990	3.9990	-0.7261	25.81	-0.02	-0.750			
0.0966	6182.56	3.9960	3.9960	-0.7286	25.81	-0.02	-0.750			
0.0988	6322.14	3.9930	3.9930	-0.7353	25.81	-0.02	-0.750			
0.1010	6464.91	3.9900	3.9900	-0.7376	25.82	-0.01	-0.750			
0.1032	6606.93	3.9870	3.9869	-0.7398	25.82	-0.01	-0.750			
0.1055	6749.63	3.9840	3.9840	-0.7405	25.82	-0.01	-0.750			
0.1077	6892.22	3.9810	3.9810	-0.7395	25.82	-0.01	-0.750			
0.1099	7034.00	3.9780	3.9780	-0.7391	25.82	-0.01	-0.750			
0.1121	7175.09	3.9750	3.9750	-0.7412	25.82	-0.01	-0.750			
0.1143	7315.83	3.9720	3.9721	-0.7443	25.83	-0.00	-0.750			
0.1166	7461.03	3.9690	3.9689	-0.7479	25.83	-0.00	-0.750			
0.1188	7605.86	3.9660	3.9661	-0.7471	25.83	-0.00	-0.750			
0.1211	7749.28	3.9630	3.9630	-0.7512	25.83	0.00	-0.750			
0.1233	7892.96	3.9600	3.9600	-0.7570	25.84	0.01	-0.750			
0.1256	8038.92	3.9570	3.9569	-0.7563	25.84	0.01	-0.750			
0.1279	8182.64	3.9540	3.9540	-0.7584	25.84	0.01	-0.750			
0.1302	8329.94	3.9510	3.9510	-0.7586	25.85	0.02	-0.750			
0.1325	8476.84	3.9480	3.9480	-0.7618	25.85	0.02	-0.750			
0.1347	8623.38	3.9450	3.9450	-0.7662	25.86	0.03	-0.750			
0.1370	8770.01	3.9420	3.9419	-0.7659	25.86	0.03	-0.750			
0.1393	8917.21	3.9390	3.9389	-0.7658	25.86	0.03	-0.750			
0.1416	9065.48	3.9360	3.9360	-0.7716	25.87	0.04	-0.750			
0.1440	9213.24	3.9330	3.9333	-0.7724	25.87	0.04	-0.750			
0.1463	9362.68	3.9300	3.9299	-0.7746	25.87	0.04	-0.750			
0.1486	9509.44	3.9270	3.9270	-0.7765	25.88	0.05	-0.750			
0.1509	9658.61	3.9240	3.9241	-0.7730	25.88	0.05	-0.750			
0.1533	9809.31	3.9210	3.9210	-0.7817	25.88	0.05	-0.750			
0.1556	9958.19	3.9180	3.9180	-0.7785	25.89	0.06	-0.750			
0.1579	10106.87	3.9150	3.9148	-0.7802	25.89	0.06	-0.750			
0.1603	10256.34	3.9120	3.9121	-0.7845	25.89	0.06	-0.750			
0.1626	10407.58	3.9090	3.9090	-0.7883	25.89	0.06	-0.750			
0.1650	10559.61	3.9060	3.9060	-0.7871	25.90	0.07	-0.750			
0.1674	10711.61	3.9030	3.9031	-0.7888	25.90	0.07	-0.750			
0.1697	10862.71	3.9000	3.9001	-0.7914	25.90	0.07	-0.750			
0.1721	11015.68	3.8970	3.8969	-0.7914	25.91	0.08	-0.750			
0.1745	11168.73	3.8940	3.8939	-0.7903	25.91	0.08	-0.750			
0.1769	11321.34	3.8910	3.8910	-0.7836	25.92	0.09	-0.750			
0.1792	11471.10	3.8880	3.8880	-0.7883	25.92	0.09	-0.750			
0.1816	11621.32	3.8850	3.8855	-0.7955	25.93	0.10	-0.750			
0.1839	11772.33	3.8820	3.8818	-0.7963	25.93	0.10	-0.750			
0.1863	11926.33	3.8790	3.8788	-0.8048	25.93	0.10	-0.750			
0.1888	12082.62	3.8760	3.8761	-0.8069	25.93	0.10	-0.750			
0.1913	12243.29	3.8730	3.8730	-0.8166	25.93	0.10	-0.750			
0.1937	12398.60	3.8700	3.8702	-0.8059	25.93	0.10	-0.750			
0.1961	12549.32	3.8670	3.8669	-0.7959	25.93	0.10	-0.750			
0.1985	12701.66	3.8640	3.8640	-0.7971	25.94	0.11	-0.750			
0.2008	12853.96	3.8610	3.8610	-0.7950	25.94	0.11	-0.750			
0.2032	13005.47	3.8580	3.8580	-0.7979	25.94	0.11	-0.750			
0.2057	13162.12	3.8550	3.8551	-0.8039	25.95	0.12	-0.750			
0.2081	13315.89	3.8520	3.8519	-0.8045	25.95	0.12	-0.750			
0.2105	13470.58	3.8490	3.8490	-0.8057	25.96	0.13	-0.750			
0.2129	13625.14	3.8460	3.8461	-0.8054	25.96	0.13	-0.750			
0.2153	13779.52	3.8430	3.8430	-0.8030	25.96	0.13	-0.750			
0.2177	13935.40	3.8400	3.8398	-0.8033	25.97	0.14	-0.750			
0.2201	14088.32	3.8370	3.8370	-0.7999	25.97	0.14	-0.750			
0.2225	14241.14	3.8340	3.8341	-0.8010	25.97	0.14	-0.750			
0.2249	14395.14	3.8310	3.8310	-0.8014	25.97	0.14	-0.750			
0.2273	14549.21	3.8280	3.8279	-0.7949	25.98	0.15	-0.750			
0.2297	14702.53	3.8250	3.8250	-0.7973	25.98	0.15	-0.750			
0.2321	14855.67	3.8220	3.8221	-0.7963	25.98	0.15	-0.750			
0.2345	15008.17	3.8190	3.8189	-0.7921	25.99	0.16	-0.750			
0.2369	15159.53	3.8160	3.8160	-0.7900	25.99	0.16	-0.750			
0.2392	15311.35	3.8130	3.8130	-0.7864	26.00	0.17	-0.750			
0.2416	15462.71	3.8100	3.8100	-0.7845	26.00	0.17	-0.750			
0.2440	15614.13	3.8070	3.8071	-0.7778	26.01	0.18	-0.750			
0.2463	15761.59	3.8040	3.8040	-0.7734	26.01	0.18	-0.750			
0.2486	15909.95	3.8010	3.8010	-0.7705	26.01	0.18	-0.750			
0.2509	16057.28	3.7980	3.7980	-0.7656	26.01	0.18	-0.750			
0.2532	16203.20	3.7950	3.7951	-0.7624	26.01	0.18	-0.750			
0.2555	16350.53	3.7920	3.7919	-0.7626	26.01	0.18	-0.750			
0.2578	16496.51	3.7890	3.7891	-0.7591	26.01	0.18	-0.750			
0.2600	16641.46	3.7860	3.7859	-0.7614	26.02	0.19	-0.750			
0.2623	16787.16	3.7830	3.7830	-0.7567	26.02	0.19	-0.750			
0.2646	16933.75	3.7800	3.7799	-0.7519	26.02	0.19	-0.750			
0.2668	17077.89	3.7770	3.7771	-0.7473	26.03	0.20	-0.750			
0.2691	17220.57	3.7740	3.7745	-0.7419	26.03	0.20	-0.750			
0.2713	17361.92	3.7710	3.7709	-0.7380	26.03	0.20	-0.750			
0.2735	17501.41	3.7680	3.7681	-0.7382	26.04	0.21	-0.750			
0.2757	17642.86	3.7650	3.7649	-0.7391	26.04	0.21	-0.750			
0.2779	17787.24	3.7620	3.7620	-0.7429	26.04	0.21	-0.750			
0.2802	17929.87	3.7590	3.7590	-0.7439	26.05	0.22	-0.750			
0.2824	18072.73	3.7560	3.7561	-0.7445	26.05	0.22	-0.750			
0.2846	18215.88	3.7530	3.7529	-0.7463	26.05	0.22	-0.750			
0.2868	18356.74	3.7500	3.7499	-0.7498	26.06	0.23	-0.750			
0.2891	18500.74	3.7470	3.7471	-0.7519	26.06	0.23	-0.750			
0.2913	18646.10	3.7440	3.7440	-0.7606	26.07	0.24	-0.750			
0.2937	18795.51	3.7410	3.7409	-0.7651	26.07	0.24	-0.750			
0.2959	18939.38	3.7380	3.7380	-0.7837	26.07	0.24	-0.750			
0.2983	19090.19	3.7350	3.7350	-0.8006	26.07	0.24	-0.750			
0.3007	19246.24	3.7320	3.7318	-0.8169	26.07	0.24	-0.750			
0.3032	19405.91	3.7290	3.7290	-0.8247	26.07	0.24	-0.750			
0.3058	19569.78	3.7260	3.7262	-0.8411	26.07	0.24	-0.750			
0.3083	19731.30	3.7230	3.7229	-0.8486	26.07	0.24	-0.750			
0.3109	19895.57	3.7200	3.7199	-0.8560	26.07	0.24	-0.750			
0.3134	20054.87	3.7170	3.7170	-0.8574	26.07	0.24	-0.750			
0.3159	20219.01	3.7140	3.7140	-0.8733	26.07	0.24	-0.750			
0.3186	20391.17	3.7110	3.7111	-0.8939	26.07	0.24	-0.750			
0.3213	20563.98	3.7080	3.7079	-0.9145	26.07	0.24	-0.750			
0.3241	20742.46	3.7050	3.7050	-0.9260	26.07	0.24	-0.750			
0.3269	20922.28	3.7020	3.7020	-0.9374	26.07	0.24	-0.750			
0.3297	21103.37	3.6990	3.6990	-0.9548	26.07	0.24	-0.750			
0.3326	21287.81	3.6960	3.6960	-0.9683	26.07	0.24	-0.750			
0.3355	21473.88	3.6930	3.6929	-0.9891	26.06	0.23	-0.750			
0.3385	21665.02	3.6900	3.6900	-1.0055	26.06	0.23	-0.750			
0.3416	21860.55	3.6870	3.6869	-1.0213	26.05	0.22	-0.750			
0.3447	22058.32	3.6840	3.6841	-1.0527	26.05	0.22	-0.750			
0.3478	22262.30	3.6810	3.6809	-1.0709	26.05	0.22	-0.750			
0.3511	22468.98	3.6780	3.6779	-1.0891	26.05	0.22	-0.750			
0.3544	22683.31	3.6750	3.6749	-1.0994	26.05	0.22	-0.750			
0.3578	22897.67	3.6720	3.6720	-1.1166	26.05	0.22	-0.750			
0.3611	23113.59	3.6690	3.6691	-1.1307	26.04	0.21	-0.750			
0.3645	23328.80	3.6660	3.6660	-1.1506	26.04	0.21	-0.750			
0.3679	23542.44	3.6630	3.6630	-1.1790	26.03	0.20	-0.750			
0.3715	23776.98	3.6600	3.6598	-1.2025	26.03	0.20	-0.750			
0.3752	24011.00	3.6570	3.6569	-1.2307	26.02	0.19	-0.750			
0.3789	24250.86	3.6540	3.6540	-1.2620	26.01	0.18	-0.750			
0.3827	24495.15	3.6510	3.6512	-1.2880	26.01	0.18	-0.750			
0.3867	24748.35	3.6480	3.6479	-1.3098	26.00	0.17	-0.750			
0.3906	24999.11	3.6450	3.6450	-1.3397	26.00	0.17	-0.750			
0.3947	25258.88	3.6420	3.6422	-1.3846	25.99	0.16	-0.750			
0.3989	25531.02	3.6390	3.6390	-1.3941	25.98	0.15	-0.750			
0.4031	25796.47	3.6360	3.6359	-1.4344	25.98	0.15	-0.750			
0.4075	26076.94	3.6330	3.6331	-1.4558	25.97	0.14	-0.750			
0.4119	26360.54	3.6300	3.6298	-1.4766	25.96	0.13	-0.750			
0.4163	26646.25	3.6270	3.6269	-1.5129	25.95	0.12	-0.750			
0.4209	26937.16	3.6240	3.6241	-1.5336	25.95	0.12	-0.750			
0.4256	27237.08	3.6210	3.6208	-1.5764	25.94	0.11	-0.750			
0.4304	27545.20	3.6180	3.6180	-1.6009	25.93	0.10	-0.750			
0.4352	27852.81	3.6150	3.6149	-1.6156	25.93	0.10	-0.750	0.393	0.539	
0.4402	28170.29	3.6120	3.6119	-1.6646	25.92	0.09	-0.750			
0.4452	28489.77	3.6090	3.6090	-1.6963	25.92	0.09	-0.750			
0.4503	28818.49	3.6060	3.6061	-1.7129	25.92	0.09	-0.750			
0.4555	29149.28	3.6030	3.6030	-1.7526	25.91	0.08	-0.750			
0.4607	29485.65	3.6000	3.5999	-1.7927	25.91	0.08	-0.750			
0.4662	29837.15	3.5970	3.5970	-1.8325	25.90	0.07	-0.750			
0.4717	30191.85	3.5940	3.5941	-1.8727	25.90	0.07	-0.750			
0.4774	30551.20	3.5910	3.5910	-1.9005	25.89	0.06	-0.750			
0.4832	30925.80	3.5880	3.5880	-1.9481	25.89	0.06	-0.750			
0.4892	31306.78	3.5850	3.5851	-1.9821	25.88	0.05	-0.750			
0.4951	31688.63	3.5820	3.5819	-2.0155	25.88	0.05	-0.750			
0.5012	32078.66	3.5790	3.5790	-2.0472	25.87	0.04	-0.750			
0.5075	32479.09	3.5760	3.5759	-2.0904	25.87	0.04	-0.750			
0.5138	32880.36	3.5730	3.5730	-2.1161	25.87	0.04	-0.750			
0.5202	33292.69	3.5700	3.5700	-2.1470	25.87	0.04	-0.750			
0.5266	33704.77	3.5670	3.5670	-2.1549	25.87	0.04	-0.750			
0.5332	34127.40	3.5640	3.5640	-2.1714	25.87	0.04	-0.750			
0.5399	34550.52	3.5610	3.5610	-2.1601	25.87	0.04	-0.750			
0.5463	34961.65	3.5580	3.5580	-2.1685	25.87	0.04	-0.750			
0.5527	35374.69	3.5550	3.5550	-2.1640	25.87	0.04	-0.750			
0.5592	35791.42	3.5520	3.5519	-2.1533	25.87	0.04	-0.750			
0.5657	36204.58	3.5490	3.5491	-2.1552	25.87	0.04	-0.750			
0.5722	36621.43	3.5460	3.5460	-2.1299	25.87	0.04	-0.750			
0.5786	37030.34	3.5430	3.5430	-2.1204	25.87	0.04	-0.750			
0.5850	37437.40	3.5400	3.5401	-2.1020	25.87	0.04	-0.750			
0.5911	37832.27	3.5370	3.5368	-2.0687	25.88	0.05	-0.750			
0.5973	38228.92	3.5340	3.5342	-2.0564	25.88	0.05	-0.750			
0.6035	38623.49	3.5310	3.5308	-2.0472	25.89	0.06	-0.750			
0.6096	39016.97	3.5280	3.5280	-2.0128	25.89	0.06	-0.750			
0.6157	39405.62	3.5250	3.5250	-1.9710	25.90	0.07	-0.750			
0.6216	39779.62	3.5220	3.5220	-1.9431	25.91	0.08	-0.750			
0.6273	40148.93	3.5190	3.5189	-1.8873	25.92	0.09	-0.750			
0.6329	40504.89	3.5160	3.5160	-1.8590	25.92	0.09	-0.750			
0.6384	40858.05	3.5130	3.5130	-1.8150	25.94	0.11	-0.750			
0.6439	41207.46	3.5100	3.5101	-1.7581	25.95	0.12	-0.750			
0.6491	41544.80	3.5070	3.5069	-1.7190	25.96	0.13	-0.750			
0.6542	41870.83	3.5040	3.5039	-1.6618	25.97	0.14	-0.750			
0.6591	42179.38	3.5010	3.5009	-1.5893	25.98	0.15	-0.750			
0.6638	42483.84	3.4980	3.4981	-1.5427	25.99	0.16	-0.750			
0.6682	42765.76	3.4950	3.4951	-1.4824	26.01	0.18	-0.750			
0.6726	43048.17	3.4920	3.4919	-1.4378	26.02	0.19	-0.750			
0.6769	43323.20	3.4890	3.4889	-1.4036	26.04	0.21	-0.750			
0.6810	43583.08	3.4860	3.4862	-1.3506	26.05	0.22	-0.750			
0.6850	43842.35	3.4830	3.4829	-1.3161	26.06	0.23	-0.750			
0.6890	44093.21	3.4800	3.4800	-1.2750	26.07	0.24	-0.750			
0.6927	44332.93	3.4770	3.4769	-1.2277	26.09	0.26	-0.750			
0.6963	44563.88	3.4740	3.4740	-1.1936	26.10	0.27	-0.750			
0.6998	44787.10	3.4710	3.4709	-1.1546	26.12	0.29	-0.750			
0.7032	45004.14	3.4680	3.4682	-1.1186	26.13	0.30	-0.750			
0.7065	45215.30	3.4650	3.4651	-1.0863	26.15	0.32	-0.750			
0.7097	45421.93	3.4620	3.4619	-1.0594	26.16	0.33	-0.750			
0.7129	45623.90	3.4590	3.4590	-1.0293	26.18	0.35	-0.750			
0.7159	45817.35	3.4560	3.4559	-0.9951	26.19	0.36	-0.750			
0.7188	46004.28	3.4530	3.4530	-0.9647	26.20	0.37	-0.750			
0.7217	46185.66	3.4500	3.4500	-0.9348	26.21	0.38	-0.750			
0.7244	46360.96	3.4470	3.4469	-0.9076	26.22	0.39	-0.750			
0.7271	46531.86	3.4440	3.4439	-0.8810	26.23	0.40	-0.750			
0.7297	46697.65	3.4410	3.4411	-0.8674	26.24	0.41	-0.750			
0.7322	46859.28	3.4380	3.4380	-0.8606	26.25	0.42	-0.750			
0.7347	47020.98	3.4350	3.4350	-0.8619	26.26	0.43	-0.750			
0.7373	47186.49	3.4320	3.4319	-0.8682	26.27	0.44	-0.750			
0.7399	47353.28	3.4290	3.4290	-0.8779	26.28	0.45	-0.750			
0.7426	47523.89	3.4260	3.4260	-0.8896	26.29	0.46	-0.750			
0.7453	47696.66	3.4230	3.4231	-0.9033	26.29	0.46	-0.750			
0.7480	47870.34	3.4200	3.4199	-0.9155	26.31	0.48	-0.750			
0.7507	48047.15	3.4170	3.4169	-0.9287	26.32	0.49	-0.750			
0.7535	48226.95	3.4140	3.4140	-0.9345	26.33	0.50	-0.750			
0.7564	48409.39	3.4110	3.4112	-0.9423	26.34	0.51	-0.750			
0.7593	48593.59	3.4080	3.4080	-0.9421	26.35	0.52	-0.750			
0.7621	48776.61	3.4050	3.4050	-0.9286	26.35	0.52	-0.750			
0.7649	48954.02	3.4020	3.4020	-0.9102	26.36	0.53	-0.750			
0.7676	49128.43	3.3990	3.3989	-0.8939	26.37	0.54	-0.750			
0.7703	49297.21	3.3960	3.3960	-0.8684	26.38	0.55	-0.750			
0.7728	49461.27	3.3930	3.3929	-0.8475	26.39	0.56	-0.750			
0.7754	49623.18	3.3900	3.3900	-0.8171	26.40	0.57	-0.750			
0.7778	49777.43	3.3870	3.3869	-0.7880	26.41	0.58	-0.750			
0.7801	49926.91	3.3840	3.3840	-0.7613	26.41	0.58	-0.750			
0.7823	50069.61	3.3810	3.3810	-0.7325	26.42	0.59	-0.750			
0.7845	50206.10	3.3780	3.3779	-0.7069	26.43	0.60	-0.750			
0.7865	50338.42	3.3750	3.3750	-0.6821	26.44	0.61	-0.750			
0.7885	50466.27	3.3720	3.3720	-0.6609	26.44	0.61	-0.750			
0.7905	50594.14	3.3690	3.3690	-0.6445	26.45	0.62	-0.750			
0.7924	50715.93	3.3660	3.3660	-0.6217	26.45	0.62	-0.750			
0.7943	50833.25	3.3630	3.3632	-0.5988	26.46	0.63	-0.750			
0.7960	50945.15	3.3600	3.3599	-0.5767	26.47	0.64	-0.750			
0.7977	51053.70	3.3570	3.3570	-0.5561	26.47	0.64	-0.750			
0.7993	51157.09	3.3540	3.3539	-0.5373	26.48	0.65	-0.750			
0.8009	51259.43	3.3510	3.3510	-0.5203	26.48	0.65	-0.750			
0.8025	51357.25	3.3480	3.3480	-0.5015	26.49	0.66	-0.750			
0.8039	51451.51	3.3450	3.3450	-0.4864	26.49	0.66	-0.750			
0.8054	51543.26	3.3420	3.3419	-0.4714	26.50	0.67	-0.750			
0.8067	51631.25	3.3390	3.3390	-0.4556	26.50	0.67	-0.750			
0.8081	51718.04	3.3360	3.3360	-0.4416	26.51	0.68	-0.750			
0.8094	51801.53	3.3330	3.3330	-0.4270	26.51	0.68	-0.750			
0.8107	51882.96	3.3300	3.3300	-0.4135	26.52	0.69	-0.750			
0.8119	51959.90	3.3270	3.3270	-0.4001	26.53	0.70	-0.750			
0.8130	52034.75	3.3240	3.3240	-0.3873	26.53	0.70	-0.750			
0.8142	52107.37	3.3210	3.3209	-0.3758	26.54	0.71	-0.750			
0.8153	52178.14	3.3180	3.3180	-0.3680	26.54	0.71	-0.750			
0.8164	52248.66	3.3150	3.3150	-0.3587	26.55	0.72	-0.750			
0.8174	52316.53	3.3120	3.3119	-0.3489	26.55	0.72	-0.750			
0.8185	52382.77	3.3090	3.3090	-0.3403	26.56	0.73	-0.750			
0.8195	52447.08	3.3060	3.3060	-0.3297	26.56	0.73	-0.750			
0.8205	52509.27	3.3030	3.3030	-0.3213	26.57	0.74	-0.750			
0.8214	52570.00	3.3000	3.2999	-0.3129	26.57	0.74	-0.750			
0.8223	52628.85	3.2970	3.2971	-0.3034	26.58	0.75	-0.750			
0.8232	52686.50	3.2940	3.2940	-0.2987	26.58	0.75	-0.750			
0.8241	52742.92	3.2910	3.2910	-0.2922	26.59	0.76	-0.750			
0.8250	52798.78	3.2880	3.2879	-0.2848	26.59	0.76	-0.750			
0.8258	52852.71	3.2850	3.2849	-0.2795	26.60	0.77	-0.750			
0.8266	52905.43	3.2820	3.2822	-0.2738	26.60	0.77	-0.750			
0.8275	52957.33	3.2790	3.2790	-0.2693	26.61	0.78	-0.750			
0.8283	53008.75	3.2760	3.2760	-0.2643	26.61	0.78	-0.750			
0.8290	53058.23	3.2730	3.2729	-0.2578	26.62	0.79	-0.750			
0.8298	53107.83	3.2700	3.2700	-0.2541	26.62	0.79	-0.750			
0.8306	53156.92	3.2670	3.2671	-0.2515	26.62	0.79	-0.750			
0.8313	53203.96	3.2640	3.2640	-0.2448	26.63	0.80	-0.750			
0.8320	53250.37	3.2610	3.2609	-0.2401	26.63	0.80	-0.750			
0.8328	53296.04	3.2580	3.2580	-0.2355	26.64	0.81	-0.750			
0.8335	53340.84	3.2550	3.2551	-0.2314	26.64	0.81	-0.750			
0.8341	53385.16	3.2520	3.2520	-0.2278	26.65	0.82	-0.750			
0.8348	53428.25	3.2490	3.2489	-0.2247	26.65	0.82	-0.750			
0.8355	53470.85	3.2460	3.2460	-0.2209	26.66	0.83	-0.750			
0.8361	53512.69	3.2430	3.2430	-0.2175	26.66	0.83	-0.750			
0.8368	53554.18	3.2400	3.2400	-0.2148	26.67	0.84	-0.750			
0.8374	53595.18	3.2370	3.2371	-0.2121	26.67	0.84	-0.750			
0.8381	53635.96	3.2340	3.2340	-0.2087	26.68	0.85	-0.750			
0.8387	53675.48	3.2310	3.2310	-0.2060	26.68	0.85	-0.750			
0.8393	53714.74	3.2280	3.2280	-0.2030	26.69	0.86	-0.750			
0.8399	53753.06	3.2250	3.2251	-0.2009	26.69	0.86	-0.750			
0.8405	53791.42	3.2220	3.2219	-0.1989	26.69	0.86	-0.750			
0.8411	53829.37	3.2190	3.2191	-0.1965	26.70	0.87	-0.750			
0.8417	53866.94	3.2160	3.2159	-0.1948	26.70	0.87	-0.750			
0.8423	53904.35	3.2130	3.2130	-0.1919	26.71	0.88	-0.750			
0.8428	53941.39	3.2100	3.2100	-0.1897	26.71	0.88	-0.750			
0.8434	53977.09	3.2070	3.2070	-0.1868	26.72	0.89	-0.750			
0.8439	54012.70	3.2040	3.2041	-0.1846	26.72	0.89	-0.750			
0.8445	54047.74	3.2010	3.2008	-0.1822	26.73	0.90	-0.750			
0.8450	54082.56	3.1980	3.1980	-0.1796	26.73	0.90	-0.750			
0.8456	54116.77	3.1950	3.1951	-0.1778	26.74	0.91	-0.750			
0.8461	54150.84	3.1920	3.1921	-0.1762	26.75	0.92	-0.750			
0.8466	54184.45	3.1890	3.1889	-0.1740	26.75	0.92	-0.750			
0.8471	54217.41	3.1860	3.1859	-0.1727	26.76	0.93	-0.750			
0.8477	54250.49	3.1830	3.1830	-0.1699	26.76	0.93	-0.750			
0.8482	54282.98	3.1800	3.1800	-0.1684	26.77	0.94	-0.750			
0.8487	54315.12	3.1770	3.1770	-0.1664	26.78	0.95	-0.750			
0.8492	54347.03	3.1740	3.1741	-0.1648	26.78	0.95	-0.750			
0.8497	54378.23	3.1710	3.1709	-0.1628	26.79	0.96	-0.750			
0.8501	54409.07	3.1680	3.1679	-0.1614	26.80	0.97	-0.750			
0.8506	54439.97	3.1650	3.1651	-0.1605	26.80	0.97	-0.750			
0.8511	54470.52	3.1620	3.1620	-0.1586	26.81	0.98	-0.750			
0.8516	54501.40	3.1590	3.1590	-0.1575	26.81	0.98	-0.750			
0.8520	54531.19	3.1560	3.1561	-0.1557	26.82	0.99	-0.750			
0.8525	54560.92	3.1530	3.1529	-0.1541	26.82	0.99	-0.750			
