Ah_balance (normalized)	Ah_balance (mAh)	Voltage - fit (V)	Voltage -  interpolate (V)	dQ/dV (1/V)	Temperature (°C)	Temperature - diff (°C)	Current (C)	R_DC 0ms (mOhm)	R_DC 50ms (mOhm)	R_DC 50 ms PEC (mOhm)
0.5130	32833.51	3.7570	3.7571	1.9466	26.04	1.37	0.750			
0.5191	33225.33	3.7540	3.7539	2.0053	26.02	1.35	0.750			
0.5251	33606.36	3.7510	3.7508	2.0330	26.00	1.33	0.750			
0.5311	33993.45	3.7480	3.7481	2.0372	25.98	1.31	0.750			
0.5374	34393.56	3.7450	3.7451	2.0746	25.95	1.28	0.750			
0.5436	34791.62	3.7420	3.7419	2.1289	25.92	1.25	0.750			
0.5502	35214.59	3.7390	3.7389	2.1493	25.90	1.23	0.750			
0.5566	35625.02	3.7360	3.7361	2.2028	25.88	1.21	0.750			
0.5632	36047.64	3.7330	3.7329	2.2432	25.85	1.18	0.750			
0.5700	36482.58	3.7300	3.7299	2.2561	25.81	1.14	0.750			
0.5770	36927.70	3.7270	3.7271	2.3348	25.78	1.11	0.750			
0.5840	37375.22	3.7240	3.7238	2.3842	25.75	1.08	0.750			
0.5913	37841.41	3.7210	3.7210	2.4528	25.71	1.04	0.750			
0.5989	38328.50	3.7180	3.7179	2.5609	25.67	1.00	0.750			
0.6065	38816.81	3.7150	3.7149	2.5816	25.63	0.96	0.750			
0.6143	39316.28	3.7120	3.7120	2.6886	25.60	0.93	0.750			
0.6227	39853.45	3.7090	3.7090	2.7409	25.56	0.89	0.750			
0.6310	40383.75	3.7060	3.7061	2.7474	25.53	0.86	0.750			
0.6392	40906.18	3.7030	3.7029	2.7593	25.49	0.82	0.750			
0.6476	41446.62	3.7000	3.7000	2.8562	25.45	0.78	0.750			
0.6563	42004.48	3.6970	3.6969	3.0348	25.43	0.76	0.750			
0.6656	42595.23	3.6940	3.6939	3.1173	25.39	0.72	0.750			
0.6750	43202.71	3.6910	3.6909	3.2033	25.35	0.68	0.750			
0.6849	43832.02	3.6880	3.6879	3.4073	25.31	0.64	0.750			
0.6954	44507.59	3.6850	3.6853	3.5323	25.26	0.59	0.750			
0.7063	45202.37	3.6820	3.6820	3.6887	25.23	0.56	0.750			
0.7177	45931.48	3.6790	3.6790	3.6649	25.19	0.52	0.750			
0.7280	46593.86	3.6760	3.6761	3.5143	25.16	0.49	0.750			
0.7390	47294.90	3.6730	3.6727	3.6445	25.14	0.47	0.750			
0.7500	47999.36	3.6700	3.6700	3.3404	25.10	0.43	0.750			
0.7587	48558.55	3.6670	3.6669	2.7188	25.07	0.40	0.750			
0.7662	49038.86	3.6640	3.6639	2.3509	25.06	0.39	0.750			
0.7727	49452.55	3.6610	3.6611	2.0911	25.05	0.38	0.750			
0.7785	49823.16	3.6580	3.6579	1.9018	25.03	0.36	0.750			
0.7839	50171.66	3.6550	3.6551	1.7531	25.02	0.35	0.750			
0.7890	50498.34	3.6520	3.6520	1.6523	25.01	0.34	0.750			
0.7937	50798.62	3.6490	3.6491	1.5311	25.00	0.33	0.750			
0.7981	51075.33	3.6460	3.6461	1.4225	24.98	0.31	0.750			
0.8021	51334.61	3.6430	3.6430	1.3558	24.97	0.30	0.750			
0.8061	51591.54	3.6400	3.6401	1.3225	24.97	0.30	0.750			
0.8100	51836.83	3.6370	3.6370	1.3008	24.96	0.29	0.750			
0.8138	52084.33	3.6340	3.6342	1.3012	24.95	0.28	0.750			
0.8177	52334.35	3.6310	3.6310	1.3049	24.94	0.27	0.750			
0.8216	52585.51	3.6280	3.6278	1.3167	24.93	0.26	0.750			
0.8256	52837.42	3.6250	3.6251	1.3236	24.92	0.25	0.750			
0.8296	53094.36	3.6220	3.6221	1.3362	24.91	0.24	0.750			
0.8337	53355.30	3.6190	3.6189	1.3301	24.90	0.23	0.750			
0.8376	53607.49	3.6160	3.6160	1.3264	24.89	0.22	0.750			
0.8416	53861.21	3.6130	3.6131	1.3263	24.88	0.21	0.750			
0.8455	54115.19	3.6100	3.6098	1.3301	24.87	0.20	0.750			
0.8495	54366.27	3.6070	3.6070	1.3431	24.86	0.19	0.750			
0.8535	54624.03	3.6040	3.6041	1.3696	24.85	0.18	0.750			
0.8576	54889.17	3.6010	3.6008	1.3950	24.83	0.16	0.750			
0.8618	55157.45	3.5980	3.5981	1.4323	24.82	0.15	0.750			
0.8662	55435.22	3.5950	3.5951	1.4776	24.80	0.13	0.750			
0.8707	55727.45	3.5920	3.5917	1.4939	24.79	0.12	0.750			
0.8752	56014.30	3.5890	3.5890	1.5302	24.78	0.11	0.750			
0.8799	56312.69	3.5860	3.5862	1.5500	24.76	0.09	0.750			
0.8846	56611.81	3.5830	3.5828	1.5840	24.74	0.07	0.750			
0.8894	56918.76	3.5800	3.5799	1.6162	24.72	0.05	0.750			
0.8943	57232.44	3.5770	3.5770	1.6347	24.70	0.03	0.750			
0.8993	57553.95	3.5740	3.5741	1.6855	24.68	0.01	0.750			
0.9044	57879.08	3.5710	3.5710	1.7189	24.67	-0.00	0.750			
0.9095	58206.28	3.5680	3.5679	1.7092	24.66	-0.01	0.750			
0.9148	58544.43	3.5650	3.5650	1.7640	24.63	-0.04	0.750			
0.9200	58876.98	3.5620	3.5618	1.8042	24.61	-0.06	0.750			
0.9253	59222.31	3.5590	3.5592	1.8584	24.60	-0.07	0.750			
0.9312	59594.66	3.5560	3.5559	1.9585	24.58	-0.09	0.750			
0.9373	59990.05	3.5530	3.5529	2.0137	24.56	-0.11	0.750			
0.9437	60399.43	3.5500	3.5499	1.7462	24.55	-0.12	0.750			
0.9485	60706.40	3.5470	3.5475	1.4290	24.55	-0.12	0.750			
0.9526	60965.68	3.5440	3.5442	1.1453	24.54	-0.13	0.750			
0.9552	61132.51	3.5410	3.5409	0.8734	24.54	-0.13	0.750			
0.9569	61242.68	3.5380	3.5378	0.6216	24.54	-0.13	0.750			
0.9583	61331.54	3.5350	3.5347	0.5045	24.54	-0.13	0.750			
0.9595	61404.90	3.5320	3.5319	0.4112	24.54	-0.13	0.750			
0.9605	61475.14	3.5290	3.5289	0.3714	24.54	-0.13	0.750			
0.9616	61539.66	3.5260	3.5261	0.3408	24.55	-0.12	0.750			
0.9625	61600.93	3.5230	3.5230	0.3218	24.55	-0.12	0.750			
0.9634	61660.58	3.5200	3.5199	0.3107	24.55	-0.12	0.750			
0.9643	61718.00	3.5170	3.5170	0.2994	24.55	-0.12	0.750			
0.9652	61774.62	3.5140	3.5139	0.2915	24.55	-0.12	0.750			
0.9661	61830.53	3.5110	3.5110	0.2864	24.55	-0.12	0.750			
0.9670	61884.83	3.5080	3.5081	0.2797	24.55	-0.12	0.750			
0.9678	61937.75	3.5050	3.5050	0.2727	24.56	-0.11	0.750			
0.9686	61989.38	3.5020	3.5019	0.2669	24.56	-0.11	0.750			
0.9694	62039.23	3.4990	3.4991	0.2604	24.56	-0.11	0.750			
0.9701	62089.17	3.4960	3.4961	0.2569	24.56	-0.11	0.750			
0.9709	62137.92	3.4930	3.4928	0.2533	24.56	-0.11	0.750			
0.9717	62185.64	3.4900	3.4900	0.2497	24.56	-0.11	0.750			
0.9724	62233.37	3.4870	3.4870	0.2464	24.56	-0.11	0.750			
0.9731	62280.70	3.4840	3.4839	0.2439	24.57	-0.10	0.750			
0.9739	62327.21	3.4810	3.4811	0.2406	24.57	-0.10	0.750			
0.9746	62373.33	3.4780	3.4780	0.2364	24.57	-0.10	0.750			
0.9753	62418.36	3.4750	3.4750	0.2329	24.57	-0.10	0.750			
0.9760	62462.70	3.4720	3.4720	0.2292	24.57	-0.10	0.750			
0.9767	62506.03	3.4690	3.4690	0.2248	24.57	-0.10	0.750			
0.9773	62548.50	3.4660	3.4660	0.2215	24.58	-0.09	0.750			
0.9780	62590.91	3.4630	3.4631	0.2190	24.58	-0.09	0.750			
0.9786	62632.52	3.4600	3.4600	0.2158	24.58	-0.09	0.750			
0.9793	62673.72	3.4570	3.4569	0.2134	24.58	-0.09	0.750			
0.9799	62714.52	3.4540	3.4540	0.2113	24.58	-0.09	0.750			
0.9805	62755.00	3.4510	3.4509	0.2078	24.58	-0.09	0.750			
0.9812	62794.82	3.4480	3.4480	0.2050	24.58	-0.09	0.750			
0.9818	62833.70	3.4450	3.4451	0.2028	24.59	-0.08	0.750			
0.9824	62872.42	3.4420	3.4421	0.1994	24.59	-0.08	0.750			
0.9830	62910.35	3.4390	3.4390	0.1970	24.59	-0.08	0.750			
0.9836	62947.58	3.4360	3.4361	0.1944	24.59	-0.08	0.750			
0.9841	62984.73	3.4330	3.4330	0.1926	24.59	-0.08	0.750			
0.9847	63021.17	3.4300	3.4300	0.1912	24.59	-0.08	0.750			
0.9853	63058.20	3.4270	3.4269	0.1895	24.59	-0.08	0.750			
0.9859	63094.51	3.4240	3.4240	0.1866	24.60	-0.07	0.750			
0.9864	63130.11	3.4210	3.4210	0.1842	24.60	-0.07	0.750			
0.9870	63165.67	3.4180	3.4181	0.1827	24.60	-0.07	0.750			
0.9875	63200.37	3.4150	3.4150	0.1800	24.60	-0.07	0.750			
0.9880	63234.68	3.4120	3.4119	0.1767	24.60	-0.07	0.750			
0.9886	63268.35	3.4090	3.4089	0.1740	24.60	-0.07	0.750			
0.9891	63301.27	3.4060	3.4061	0.1714	24.60	-0.07	0.750			
0.9896	63334.12	3.4030	3.4031	0.1696	24.61	-0.06	0.750			
0.9901	63366.45	3.4000	3.4000	0.1673	24.61	-0.06	0.750			
0.9906	63398.32	3.3970	3.3969	0.1647	24.61	-0.06	0.750			
0.9911	63429.30	3.3940	3.3940	0.1627	24.61	-0.06	0.750			
0.9916	63460.44	3.3910	3.3910	0.1610	24.61	-0.06	0.750			
0.9921	63491.26	3.3880	3.3880	0.1598	24.61	-0.06	0.750			
0.9925	63521.77	3.3850	3.3849	0.1580	24.61	-0.06	0.750			
0.9930	63551.80	3.3820	3.3820	0.1563	24.61	-0.06	0.750			
0.9935	63581.62	3.3790	3.3790	0.1549	24.61	-0.06	0.750			
0.9939	63611.46	3.3760	3.3760	0.1535	24.62	-0.05	0.750			
0.9944	63640.74	3.3730	3.3730	0.1516	24.62	-0.05	0.750			
0.9948	63669.67	3.3700	3.3700	0.1496	24.62	-0.05	0.750			
0.9953	63698.25	3.3670	3.3670	0.1483	24.62	-0.05	0.750			
0.9957	63726.45	3.3640	3.3640	0.1462	24.62	-0.05	0.750			
0.9962	63754.48	3.3610	3.3611	0.1437	24.62	-0.05	0.750			
0.9966	63781.79	3.3580	3.3580	0.1418	24.62	-0.05	0.750			
0.9970	63808.54	3.3550	3.3551	0.1403	24.62	-0.05	0.750			
0.9974	63835.36	3.3520	3.3520	0.1391	24.63	-0.04	0.750			
0.9978	63861.96	3.3490	3.3489	0.1378	24.63	-0.04	0.750			
0.9983	63888.18	3.3460	3.3460	0.1363	24.63	-0.04	0.750			
0.9987	63914.30	3.3430	3.3430	0.1347	24.63	-0.04	0.750			
0.9991	63940.04	3.3400	3.3401	0.1334	24.63	-0.04	0.750			
0.9995	63965.97	3.3370	3.3370	0.1319	24.63	-0.04	0.750			
0.9999	63991.11	3.3340	3.3341	0.1296	24.64	-0.03	0.750			
1.0002	64015.59	3.3310	3.3310	0.1276	24.64	-0.03	0.750			
1.0006	64039.82	3.3280	3.3281	0.1263	24.64	-0.03	0.750			
1.0010	64063.88	3.3250	3.3250	0.1248	24.64	-0.03	0.750			
1.0014	64087.67	3.3220	3.3219	0.1229	24.64	-0.03	0.750			
1.0017	64111.14	3.3190	3.3190	0.1216	24.64	-0.03	0.750			
1.0021	64134.38	3.3160	3.3161	0.1200	24.65	-0.02	0.750			
1.0025	64157.50	3.3130	3.3130	0.1187	24.65	-0.02	0.750			
1.0028	64179.96	3.3100	3.3100	0.1174	24.65	-0.02	0.750			
1.0032	64202.23	3.3070	3.3070	0.1159	24.65	-0.02	0.750			
1.0035	64224.15	3.3040	3.3040	0.1145	24.65	-0.02	0.750			
1.0038	64246.07	3.3010	3.3010	0.1137	24.65	-0.02	0.750			
1.0042	64267.97	3.2980	3.2981	0.1126	24.65	-0.02	0.750			
1.0045	64289.48	3.2950	3.2950	0.1115	24.65	-0.02	0.750			
1.0049	64310.93	3.2920	3.2919	0.1103	24.66	-0.01	0.750			
1.0052	64331.95	3.2890	3.2891	0.1087	24.66	-0.01	0.750			
1.0055	64352.68	3.2860	3.2861	0.1072	24.66	-0.01	0.750			
1.0058	64373.12	3.2830	3.2829	0.1057	24.66	-0.01	0.750			
1.0061	64393.21	3.2800	3.2799	0.1042	24.66	-0.01	0.750			
1.0065	64413.08	3.2770	3.2771	0.1028	24.66	-0.01	0.750			
1.0068	64432.58	3.2740	3.2739	0.1016	24.66	-0.01	0.750			
1.0071	64451.98	3.2710	3.2710	0.1005	24.66	-0.01	0.750			
1.0074	64471.11	3.2680	3.2680	0.0993	24.67	-0.00	0.750			
1.0077	64490.07	3.2650	3.2650	0.0982	24.67	-0.00	0.750			
1.0080	64508.99	3.2620	3.2621	0.0970	24.67	-0.00	0.750			
1.0082	64527.48	3.2590	3.2590	0.0956	24.67	-0.00	0.750			
1.0085	64545.72	3.2560	3.2560	0.0945	24.67	0.00	0.750			
1.0088	64563.74	3.2530	3.2530	0.0931	24.67	0.00	0.750			
1.0091	64581.41	3.2500	3.2501	0.0920	24.67	0.00	0.750			
1.0094	64598.82	3.2470	3.2469	0.0906	24.67	0.00	0.750			
1.0096	64616.11	3.2440	3.2440	0.0896	24.68	0.01	0.750			
1.0099	64633.11	3.2410	3.2409	0.0884	24.68	0.01	0.750			
1.0102	64650.11	3.2380	3.2380	0.0872	24.68	0.01	0.750			
1.0104	64666.88	3.2350	3.2350	0.0863	24.68	0.01	0.750			
1.0107	64683.32	3.2320	3.2320	0.0850	24.68	0.01	0.750			
1.0109	64699.49	3.2290	3.2290	0.0839	24.68	0.01	0.750			
1.0112	64715.48	3.2260	3.2260	0.0827	24.68	0.01	0.750			
1.0114	64731.23	3.2230	3.2231	0.0814	24.68	0.01	0.750			
1.0117	64746.74	3.2200	3.2200	0.0802	24.68	0.01	0.750			
1.0119	64761.99	3.2170	3.2171	0.0789	24.68	0.01	0.750			
1.0121	64777.00	3.2140	3.2140	0.0779	24.69	0.02	0.750			
1.0124	64791.88	3.2110	3.2110	0.0768	24.69	0.02	0.750			
1.0126	64806.53	3.2080	3.2080	0.0757	24.69	0.02	0.750			
1.0128	64820.94	3.2050	3.2049	0.0746	24.69	0.02	0.750			
1.0130	64835.08	3.2020	3.2020	0.0734	24.69	0.02	0.750			
1.0133	64849.07	3.1990	3.1991	0.0725	24.69	0.02	0.750			
1.0135	64862.89	3.1960	3.1960	0.0715	24.69	0.02	0.750			
1.0137	64876.56	3.1930	3.1930	0.0705	24.69	0.02	0.750			
1.0139	64890.07	3.1900	3.1900	0.0693	24.69	0.02	0.750			
1.0141	64903.29	3.1870	3.1870	0.0682	24.69	0.02	0.750			
1.0143	64916.27	3.1840	3.1841	0.0670	24.69	0.02	0.750			
1.0145	64928.98	3.1810	3.1811	0.0661	24.69	0.02	0.750			
1.0147	64941.57	3.1780	3.1780	0.0650	24.70	0.03	0.750			
1.0149	64953.95	3.1750	3.1750	0.0639	24.70	0.03	0.750			
1.0151	64966.15	3.1720	3.1719	0.0627	24.70	0.03	0.750			
1.0153	64978.04	3.1690	3.1689	0.0615	24.70	0.03	0.750			
1.0155	64989.74	3.1660	3.1665	0.0604	24.70	0.03	0.750			
1.0156	65001.33	3.1630	3.1630	0.0594	24.70	0.03	0.750			
1.0158	65012.62	3.1600	3.1599	0.0581	24.70	0.03	0.750			
1.0160	65023.66	3.1570	3.1570	0.0569	24.70	0.03	0.750			
1.0162	65034.64	3.1540	3.1540	0.0554	24.70	0.03	0.750			
1.0163	65045.12	3.1510	3.1509	0.0538	24.70	0.03	0.750			
1.0165	65055.30	3.1480	3.1480	0.0522	24.70	0.03	0.750			
1.0166	65065.17	3.1450	3.1452	0.0507	24.70	0.03	0.750			
1.0168	65075.83	3.1420	3.1418	0.0482	24.70	0.03	0.750			
1.0169	65084.78	3.1390	3.1389	0.0451	24.70	0.03	0.750			
1.0171	65093.14	3.1360	3.1361	0.0420	24.71	0.04	0.750			
1.0172	65101.54	3.1330	3.1332	0.0401	24.71	0.04	0.750			
1.0173	65108.90	3.1300	3.1305	0.0366	24.71	0.04	0.750			
1.0174	65115.58	3.1270	3.1277	0.0330	24.71	0.04	0.750			
1.0175	65121.58	3.1240	3.1252	0.0295	24.71	0.04	0.750			
1.0176	65126.91	3.1210	3.1228	0.0259	24.71	0.04	0.750			
1.0177	65131.55	3.1180	3.1204	0.0224	24.71	0.04	0.750			
1.0177	65135.51	3.1150	3.1181	0.0189	24.71	0.04	0.750			
1.0178	65138.79	3.1120	3.1157	0.0153	24.71	0.04	0.750			
