Ah_balance (normalized)	Ah_balance (mAh)	Voltage - fit (V)	Voltage -  interpolate (V)	dQ/dV (1/V)	Temperature (°C)	Temperature - diff (°C)	Current (C)	R_DC 0ms (mOhm)	R_DC 50ms (mOhm)	R_DC 50 ms PEC (mOhm)
0.0005	32.88	4.1590	4.1592	-0.1661	25.78	0.00	-0.750			
0.0010	66.45	4.1560	4.1560	-0.1953	25.78	-0.00	-0.750			
0.0017	107.26	4.1530	4.1530	-0.2296	25.78	-0.00	-0.750			
0.0024	154.91	4.1500	4.1500	-0.2622	25.78	-0.00	-0.750			
0.0033	208.29	4.1470	4.1470	-0.2942	25.77	-0.01	-0.750			
0.0042	267.66	4.1440	4.1441	-0.3329	25.77	-0.01	-0.750			
0.0052	335.12	4.1410	4.1409	-0.3678	25.77	-0.01	-0.750			
0.0064	409.46	4.1380	4.1379	-0.4008	25.77	-0.01	-0.750			
0.0077	490.02	4.1350	4.1351	-0.4324	25.76	-0.02	-0.750			
0.0090	577.43	4.1320	4.1320	-0.4621	25.76	-0.02	-0.750			
0.0105	669.86	4.1290	4.1290	-0.4835	25.76	-0.02	-0.750			
0.0120	765.83	4.1260	4.1260	-0.5035	25.75	-0.03	-0.750			
0.0135	863.39	4.1230	4.1231	-0.5194	25.75	-0.03	-0.750			
0.0151	965.31	4.1200	4.1199	-0.5394	25.75	-0.03	-0.750			
0.0167	1070.35	4.1170	4.1171	-0.5547	25.74	-0.04	-0.750			
0.0184	1178.26	4.1140	4.1139	-0.5705	25.74	-0.04	-0.750			
0.0202	1290.59	4.1110	4.1111	-0.5870	25.73	-0.05	-0.750			
0.0220	1405.85	4.1080	4.1078	-0.5994	25.73	-0.05	-0.750			
0.0238	1522.73	4.1050	4.1050	-0.6096	25.72	-0.06	-0.750			
0.0256	1640.88	4.1020	4.1022	-0.6163	25.72	-0.06	-0.750			
0.0275	1759.56	4.0990	4.0989	-0.6229	25.72	-0.06	-0.750			
0.0294	1879.93	4.0960	4.0960	-0.6306	25.71	-0.07	-0.750			
0.0312	1999.14	4.0930	4.0930	-0.6414	25.71	-0.07	-0.750			
0.0332	2125.55	4.0900	4.0900	-0.6481	25.71	-0.07	-0.750			
0.0352	2250.43	4.0870	4.0869	-0.6526	25.70	-0.08	-0.750			
0.0371	2377.32	4.0840	4.0840	-0.6575	25.70	-0.08	-0.750			
0.0391	2504.30	4.0810	4.0809	-0.6589	25.70	-0.08	-0.750			
0.0411	2630.05	4.0780	4.0780	-0.6631	25.70	-0.08	-0.750			
0.0431	2756.76	4.0750	4.0750	-0.6688	25.70	-0.08	-0.750			
0.0451	2883.99	4.0720	4.0720	-0.6719	25.69	-0.09	-0.750			
0.0471	3016.01	4.0690	4.0691	-0.6832	25.69	-0.09	-0.750			
0.0492	3148.27	4.0660	4.0659	-0.6861	25.69	-0.09	-0.750			
0.0513	3281.32	4.0630	4.0630	-0.6886	25.69	-0.09	-0.750			
0.0534	3414.46	4.0600	4.0600	-0.6892	25.69	-0.09	-0.750			
0.0554	3545.01	4.0570	4.0570	-0.6936	25.69	-0.09	-0.750			
0.0575	3679.45	4.0540	4.0540	-0.6924	25.69	-0.09	-0.750			
0.0596	3812.64	4.0510	4.0509	-0.6950	25.69	-0.09	-0.750			
0.0617	3946.51	4.0480	4.0480	-0.6974	25.69	-0.09	-0.750			
0.0638	4081.42	4.0450	4.0451	-0.6971	25.69	-0.09	-0.750			
0.0659	4215.32	4.0420	4.0418	-0.6964	25.69	-0.09	-0.750			
0.0679	4346.23	4.0390	4.0391	-0.7025	25.69	-0.09	-0.750			
0.0700	4481.93	4.0360	4.0360	-0.6957	25.70	-0.08	-0.750			
0.0721	4617.20	4.0330	4.0328	-0.6985	25.70	-0.08	-0.750			
0.0742	4750.52	4.0300	4.0300	-0.7001	25.70	-0.08	-0.750			
0.0763	4885.16	4.0270	4.0271	-0.7024	25.70	-0.08	-0.750			
0.0784	5020.21	4.0240	4.0238	-0.7113	25.70	-0.08	-0.750			
0.0806	5155.98	4.0210	4.0210	-0.7181	25.70	-0.08	-0.750			
0.0827	5293.14	4.0180	4.0180	-0.7135	25.70	-0.08	-0.750			
0.0849	5434.84	4.0150	4.0150	-0.7251	25.70	-0.08	-0.750			
0.0871	5574.73	4.0120	4.0121	-0.7264	25.70	-0.08	-0.750			
0.0893	5713.38	4.0090	4.0089	-0.7274	25.70	-0.08	-0.750			
0.0914	5852.66	4.0060	4.0059	-0.7306	25.70	-0.08	-0.750			
0.0936	5992.72	4.0030	4.0030	-0.7319	25.70	-0.08	-0.750			
0.0958	6134.01	4.0000	4.0000	-0.7368	25.70	-0.08	-0.750			
0.0981	6277.16	3.9970	3.9971	-0.7429	25.70	-0.08	-0.750			
0.1003	6419.85	3.9940	3.9941	-0.7430	25.70	-0.08	-0.750			
0.1026	6563.39	3.9910	3.9909	-0.7395	25.70	-0.08	-0.750			
0.1048	6705.33	3.9880	3.9880	-0.7354	25.71	-0.07	-0.750			
0.1070	6846.08	3.9850	3.9851	-0.7401	25.71	-0.07	-0.750			
0.1092	6988.05	3.9820	3.9820	-0.7419	25.71	-0.07	-0.750			
0.1114	7130.38	3.9790	3.9789	-0.7441	25.72	-0.06	-0.750			
0.1136	7273.19	3.9760	3.9761	-0.7504	25.72	-0.06	-0.750			
0.1159	7418.42	3.9730	3.9730	-0.7537	25.72	-0.06	-0.750			
0.1182	7563.92	3.9700	3.9700	-0.7605	25.72	-0.06	-0.750			
0.1205	7709.23	3.9670	3.9671	-0.7582	25.73	-0.05	-0.750			
0.1228	7858.05	3.9640	3.9639	-0.7639	25.73	-0.05	-0.750			
0.1251	8004.50	3.9610	3.9610	-0.7630	25.73	-0.05	-0.750			
0.1274	8150.83	3.9580	3.9580	-0.7625	25.73	-0.05	-0.750			
0.1296	8296.42	3.9550	3.9550	-0.7639	25.74	-0.04	-0.750			
0.1319	8444.15	3.9520	3.9519	-0.7662	25.74	-0.04	-0.750			
0.1342	8590.04	3.9490	3.9490	-0.7650	25.74	-0.04	-0.750			
0.1365	8737.71	3.9460	3.9460	-0.7697	25.75	-0.03	-0.750			
0.1388	8885.94	3.9430	3.9431	-0.7714	25.75	-0.03	-0.750			
0.1412	9033.88	3.9400	3.9399	-0.7751	25.75	-0.03	-0.750			
0.1435	9183.33	3.9370	3.9370	-0.7840	25.76	-0.02	-0.750			
0.1459	9335.42	3.9340	3.9339	-0.7819	25.76	-0.02	-0.750			
0.1482	9487.38	3.9310	3.9309	-0.7797	25.77	-0.01	-0.750			
0.1506	9636.54	3.9280	3.9284	-0.7829	25.77	-0.01	-0.750			
0.1529	9785.74	3.9250	3.9249	-0.7832	25.77	-0.01	-0.750			
0.1553	9936.05	3.9220	3.9219	-0.7859	25.78	-0.00	-0.750			
0.1576	10084.50	3.9190	3.9190	-0.7852	25.78	0.00	-0.750			
0.1600	10238.21	3.9160	3.9160	-0.7912	25.79	0.01	-0.750			
0.1623	10390.04	3.9130	3.9131	-0.7945	25.79	0.01	-0.750			
0.1647	10543.41	3.9100	3.9100	-0.7975	25.79	0.01	-0.750			
0.1671	10693.79	3.9070	3.9069	-0.8006	25.80	0.02	-0.750			
0.1695	10849.30	3.9040	3.9040	-0.7974	25.80	0.02	-0.750			
0.1719	11002.77	3.9010	3.9011	-0.8003	25.80	0.02	-0.750			
0.1743	11157.92	3.8980	3.8979	-0.8022	25.81	0.03	-0.750			
0.1768	11312.95	3.8950	3.8949	-0.7994	25.81	0.03	-0.750			
0.1791	11461.35	3.8920	3.8920	-0.8006	25.82	0.04	-0.750			
0.1815	11616.76	3.8890	3.8890	-0.8026	25.82	0.04	-0.750			
0.1839	11770.76	3.8860	3.8860	-0.8037	25.82	0.04	-0.750			
0.1864	11928.20	3.8830	3.8829	-0.8090	25.83	0.05	-0.750			
0.1888	12083.40	3.8800	3.8801	-0.8067	25.83	0.05	-0.750			
0.1912	12238.85	3.8770	3.8769	-0.8063	25.84	0.06	-0.750			
0.1937	12393.74	3.8740	3.8740	-0.8025	25.84	0.06	-0.750			
0.1960	12543.56	3.8710	3.8711	-0.7994	25.84	0.06	-0.750			
0.1984	12699.68	3.8680	3.8680	-0.8056	25.85	0.07	-0.750			
0.2008	12853.93	3.8650	3.8650	-0.8071	25.85	0.07	-0.750			
0.2033	13009.72	3.8620	3.8620	-0.8089	25.85	0.07	-0.750			
0.2057	13165.53	3.8590	3.8591	-0.8146	25.86	0.08	-0.750			
0.2082	13323.84	3.8560	3.8559	-0.8147	25.86	0.08	-0.750			
0.2106	13481.18	3.8530	3.8530	-0.8151	25.87	0.09	-0.750			
0.2131	13636.23	3.8500	3.8502	-0.8125	25.87	0.09	-0.750			
0.2155	13792.56	3.8470	3.8471	-0.8144	25.87	0.09	-0.750			
0.2180	13948.81	3.8440	3.8438	-0.8116	25.88	0.10	-0.750			
0.2204	14104.51	3.8410	3.8409	-0.8078	25.88	0.10	-0.750			
0.2228	14259.65	3.8380	3.8380	-0.8086	25.89	0.11	-0.750			
0.2252	14413.90	3.8350	3.8352	-0.8088	25.89	0.11	-0.750			
0.2276	14568.82	3.8320	3.8319	-0.8117	25.89	0.11	-0.750			
0.2301	14725.14	3.8290	3.8290	-0.8122	25.90	0.12	-0.750			
0.2325	14881.52	3.8260	3.8260	-0.8102	25.90	0.12	-0.750			
0.2350	15037.68	3.8230	3.8231	-0.8097	25.91	0.13	-0.750			
0.2374	15195.98	3.8200	3.8200	-0.8084	25.91	0.13	-0.750			
0.2398	15349.85	3.8170	3.8170	-0.8018	25.91	0.13	-0.750			
0.2422	15500.65	3.8140	3.8140	-0.8000	25.92	0.14	-0.750			
0.2446	15655.14	3.8110	3.8110	-0.7932	25.92	0.14	-0.750			
0.2470	15807.11	3.8080	3.8079	-0.7936	25.92	0.14	-0.750			
0.2494	15960.48	3.8050	3.8050	-0.7927	25.93	0.15	-0.750			
0.2517	16111.70	3.8020	3.8020	-0.7882	25.93	0.15	-0.750			
0.2541	16260.64	3.7990	3.7990	-0.7966	25.94	0.16	-0.750			
0.2565	16415.60	3.7960	3.7960	-0.7907	25.94	0.16	-0.750			
0.2589	16567.25	3.7930	3.7929	-0.7837	25.94	0.16	-0.750			
0.2612	16719.88	3.7900	3.7899	-0.7810	25.95	0.17	-0.750			
0.2636	16868.62	3.7870	3.7872	-0.7735	25.95	0.17	-0.750			
0.2659	17016.50	3.7840	3.7840	-0.7697	25.95	0.17	-0.750			
0.2682	17161.61	3.7810	3.7808	-0.7650	25.96	0.18	-0.750			
0.2704	17305.13	3.7780	3.7781	-0.7588	25.96	0.18	-0.750			
0.2728	17456.09	3.7750	3.7750	-0.7662	25.97	0.19	-0.750			
0.2751	17603.77	3.7720	3.7719	-0.7645	25.97	0.19	-0.750			
0.2773	17749.49	3.7690	3.7690	-0.7630	25.97	0.19	-0.750			
0.2796	17893.69	3.7660	3.7660	-0.7584	25.98	0.20	-0.750			
0.2819	18039.15	3.7630	3.7630	-0.7580	25.98	0.20	-0.750			
0.2841	18184.04	3.7600	3.7600	-0.7550	25.98	0.20	-0.750			
0.2864	18330.45	3.7570	3.7570	-0.7564	25.99	0.21	-0.750			
0.2887	18475.18	3.7540	3.7541	-0.7610	25.99	0.21	-0.750			
0.2910	18621.32	3.7510	3.7509	-0.7589	25.99	0.21	-0.750			
0.2932	18766.05	3.7480	3.7480	-0.7650	26.00	0.22	-0.750			
0.2955	18913.55	3.7450	3.7451	-0.7713	26.00	0.22	-0.750			
0.2979	19063.02	3.7420	3.7419	-0.7787	26.01	0.23	-0.750			
0.3002	19213.82	3.7390	3.7389	-0.7825	26.01	0.23	-0.750			
0.3026	19363.96	3.7360	3.7360	-0.7895	26.01	0.23	-0.750			
0.3049	19514.07	3.7330	3.7331	-0.8018	26.02	0.24	-0.750			
0.3073	19669.52	3.7300	3.7299	-0.8130	26.02	0.24	-0.750			
0.3098	19825.24	3.7270	3.7270	-0.8227	26.02	0.24	-0.750			
0.3123	19985.47	3.7240	3.7240	-0.8369	26.03	0.25	-0.750			
0.3148	20147.38	3.7210	3.7211	-0.8477	26.03	0.25	-0.750			
0.3174	20311.59	3.7180	3.7180	-0.8651	26.03	0.25	-0.750			
0.3200	20478.13	3.7150	3.7150	-0.8769	26.03	0.25	-0.750			
0.3226	20646.29	3.7120	3.7119	-0.8892	26.03	0.25	-0.750			
0.3253	20820.52	3.7090	3.7090	-0.9061	26.03	0.25	-0.750			
0.3280	20993.94	3.7060	3.7061	-0.9294	26.03	0.25	-0.750			
0.3309	21176.15	3.7030	3.7030	-0.9459	26.03	0.25	-0.750			
0.3338	21360.59	3.7000	3.6999	-0.9586	26.03	0.25	-0.750			
0.3366	21543.72	3.6970	3.6970	-0.9728	26.03	0.25	-0.750			
0.3396	21732.14	3.6940	3.6940	-0.9948	26.03	0.25	-0.750			
0.3426	21924.58	3.6910	3.6909	-1.0137	26.03	0.25	-0.750			
0.3456	22120.74	3.6880	3.6880	-1.0320	26.03	0.25	-0.750			
0.3487	22319.37	3.6850	3.6850	-1.0503	26.03	0.25	-0.750			
0.3520	22525.27	3.6820	3.6821	-1.0802	26.03	0.25	-0.750			
0.3553	22736.10	3.6790	3.6789	-1.1010	26.02	0.24	-0.750			
0.3586	22948.44	3.6760	3.6760	-1.1178	26.02	0.24	-0.750			
0.3619	23164.48	3.6730	3.6730	-1.1363	26.01	0.23	-0.750			
0.3654	23385.40	3.6700	3.6700	-1.1648	26.01	0.23	-0.750			
0.3689	23612.08	3.6670	3.6669	-1.1840	26.00	0.22	-0.750			
0.3725	23840.65	3.6640	3.6640	-1.2039	25.99	0.21	-0.750			
0.3761	24073.40	3.6610	3.6612	-1.2259	25.99	0.21	-0.750			
0.3799	24312.20	3.6580	3.6579	-1.2567	25.99	0.21	-0.750			
0.3837	24555.59	3.6550	3.6550	-1.2775	25.98	0.20	-0.750			
0.3875	24801.66	3.6520	3.6520	-1.3040	25.98	0.20	-0.750			
0.3915	25056.34	3.6490	3.6490	-1.3382	25.97	0.19	-0.750			
0.3956	25317.20	3.6460	3.6459	-1.3605	25.96	0.18	-0.750			
0.3997	25579.90	3.6430	3.6431	-1.3985	25.95	0.17	-0.750			
0.4040	25853.18	3.6400	3.6399	-1.4200	25.95	0.17	-0.750			
0.4083	26128.84	3.6370	3.6370	-1.4469	25.95	0.17	-0.750			
0.4127	26411.00	3.6340	3.6343	-1.4790	25.95	0.17	-0.750			
0.4171	26695.70	3.6310	3.6309	-1.5135	25.94	0.16	-0.750			
0.4217	26991.01	3.6280	3.6279	-1.5472	25.94	0.16	-0.750			
0.4265	27294.77	3.6250	3.6250	-1.5672	25.93	0.15	-0.750			
0.4313	27605.26	3.6220	3.6223	-1.5812	25.92	0.14	-0.750			
0.4361	27908.77	3.6190	3.6191	-1.6016	25.91	0.13	-0.750			
0.4408	28210.07	3.6160	3.6162	-1.6247	25.91	0.13	-0.750	0.395	0.533	
0.4457	28523.19	3.6130	3.6129	-1.6521	25.90	0.12	-0.750			
0.4506	28838.73	3.6100	3.6103	-1.6939	25.90	0.12	-0.750			
0.4557	29166.96	3.6070	3.6070	-1.7495	25.90	0.12	-0.750			
0.4611	29512.64	3.6040	3.6039	-1.8034	25.89	0.11	-0.750			
0.4666	29861.41	3.6010	3.6008	-1.8356	25.89	0.11	-0.750			
0.4722	30223.43	3.5980	3.5981	-1.8598	25.89	0.11	-0.750			
0.4779	30582.45	3.5950	3.5947	-1.8878	25.89	0.11	-0.750			
0.4836	30950.03	3.5920	3.5919	-1.9238	25.88	0.10	-0.750			
0.4893	31313.40	3.5890	3.5889	-1.9579	25.87	0.09	-0.750			
0.4952	31695.03	3.5860	3.5861	-1.9979	25.87	0.09	-0.750			
0.5012	32079.83	3.5830	3.5828	-2.0268	25.87	0.09	-0.750			
0.5074	32474.31	3.5800	3.5802	-2.0816	25.86	0.08	-0.750			
0.5139	32888.28	3.5770	3.5770	-2.1294	25.86	0.08	-0.750			
0.5203	33301.27	3.5740	3.5740	-2.1600	25.86	0.08	-0.750			
0.5269	33720.24	3.5710	3.5710	-2.1615	25.86	0.08	-0.750			
0.5334	34135.93	3.5680	3.5681	-2.1773	25.87	0.09	-0.750			
0.5400	34558.38	3.5650	3.5650	-2.1929	25.87	0.09	-0.750			
0.5465	34977.61	3.5620	3.5619	-2.1891	25.87	0.09	-0.750			
0.5531	35395.73	3.5590	3.5591	-2.1907	25.87	0.09	-0.750			
0.5597	35819.54	3.5560	3.5560	-2.1997	25.87	0.09	-0.750			
0.5663	36242.00	3.5530	3.5529	-2.2058	25.87	0.09	-0.750			
0.5730	36670.91	3.5500	3.5501	-2.1996	25.87	0.09	-0.750			
0.5795	37089.83	3.5470	3.5470	-2.1941	25.87	0.09	-0.750			
0.5861	37511.49	3.5440	3.5439	-2.1905	25.87	0.09	-0.750			
0.5927	37931.09	3.5410	3.5412	-2.1800	25.87	0.09	-0.750			
0.5993	38355.45	3.5380	3.5379	-2.1487	25.87	0.09	-0.750			
0.6057	38765.55	3.5350	3.5350	-2.1084	25.88	0.10	-0.750			
0.6120	39165.62	3.5320	3.5321	-2.0523	25.89	0.11	-0.750			
0.6181	39555.47	3.5290	3.5289	-2.0307	25.89	0.11	-0.750			
0.6241	39940.26	3.5260	3.5257	-1.9867	25.90	0.12	-0.750			
0.6300	40318.98	3.5230	3.5230	-1.9516	25.90	0.12	-0.750			
0.6358	40692.79	3.5200	3.5201	-1.9260	25.91	0.13	-0.750			
0.6417	41065.98	3.5170	3.5169	-1.8748	25.92	0.14	-0.750			
0.6473	41426.24	3.5140	3.5143	-1.8332	25.94	0.16	-0.750			
0.6527	41769.96	3.5110	3.5110	-1.7777	25.95	0.17	-0.750			
0.6578	42101.78	3.5080	3.5080	-1.7406	25.96	0.18	-0.750			
0.6631	42436.17	3.5050	3.5053	-1.6638	25.97	0.19	-0.750			
0.6680	42752.93	3.5020	3.5021	-1.6028	25.98	0.20	-0.750			
0.6727	43053.42	3.4990	3.4991	-1.5468	25.99	0.21	-0.750			
0.6773	43344.25	3.4960	3.4957	-1.4953	26.01	0.23	-0.750			
0.6816	43622.38	3.4930	3.4928	-1.4359	26.02	0.24	-0.750			
0.6857	43885.81	3.4900	3.4899	-1.3907	26.03	0.25	-0.750			
0.6898	44147.78	3.4870	3.4871	-1.3630	26.05	0.27	-0.750			
0.6940	44413.76	3.4840	3.4839	-1.3356	26.07	0.29	-0.750			
0.6978	44662.24	3.4810	3.4809	-1.2876	26.09	0.31	-0.750			
0.7016	44905.30	3.4780	3.4781	-1.2508	26.10	0.32	-0.750			
0.7054	45145.93	3.4750	3.4749	-1.2155	26.12	0.34	-0.750			
0.7090	45377.98	3.4720	3.4719	-1.1745	26.13	0.35	-0.750			
0.7125	45597.56	3.4690	3.4689	-1.1231	26.15	0.37	-0.750			
0.7158	45809.48	3.4660	3.4659	-1.0861	26.16	0.38	-0.750			
0.7190	46013.77	3.4630	3.4630	-1.0483	26.17	0.39	-0.750			
0.7220	46206.69	3.4600	3.4599	-1.0134	26.19	0.41	-0.750			
0.7250	46399.04	3.4570	3.4571	-0.9923	26.20	0.42	-0.750			
0.7279	46583.95	3.4540	3.4539	-0.9700	26.21	0.43	-0.750			
0.7308	46769.36	3.4510	3.4510	-0.9390	26.22	0.44	-0.750			
0.7336	46948.29	3.4480	3.4479	-0.9147	26.23	0.45	-0.750			
0.7362	47119.70	3.4450	3.4449	-0.8935	26.24	0.46	-0.750			
0.7389	47288.59	3.4420	3.4420	-0.8759	26.25	0.47	-0.750			
0.7414	47452.67	3.4390	3.4389	-0.8754	26.26	0.48	-0.750			
0.7440	47617.62	3.4360	3.4360	-0.8705	26.27	0.49	-0.750			
0.7466	47783.25	3.4330	3.4329	-0.8717	26.28	0.50	-0.750			
0.7493	47954.71	3.4300	3.4300	-0.8875	26.30	0.52	-0.750			
0.7519	48124.65	3.4270	3.4269	-0.8965	26.30	0.52	-0.750			
0.7546	48297.06	3.4240	3.4239	-0.9138	26.31	0.53	-0.750			
0.7574	48472.55	3.4210	3.4209	-0.9246	26.32	0.54	-0.750			
0.7601	48649.24	3.4180	3.4180	-0.9424	26.33	0.55	-0.750			
0.7631	48836.05	3.4150	3.4152	-0.9682	26.34	0.56	-0.750			
0.7660	49026.56	3.4120	3.4118	-0.9800	26.34	0.56	-0.750			
0.7690	49218.46	3.4090	3.4089	-0.9779	26.35	0.57	-0.750			
0.7720	49409.95	3.4060	3.4060	-0.9639	26.35	0.57	-0.750			
0.7750	49598.10	3.4030	3.4031	-0.9506	26.36	0.58	-0.750			
0.7778	49778.38	3.4000	3.3999	-0.9181	26.37	0.59	-0.750			
0.7804	49947.89	3.3970	3.3970	-0.8824	26.38	0.60	-0.750			
0.7830	50114.31	3.3940	3.3940	-0.8511	26.38	0.60	-0.750			
0.7855	50274.41	3.3910	3.3910	-0.8241	26.39	0.61	-0.750			
0.7880	50432.14	3.3880	3.3881	-0.7969	26.40	0.62	-0.750			
0.7903	50581.23	3.3850	3.3850	-0.7700	26.41	0.63	-0.750			
0.7926	50726.40	3.3820	3.3819	-0.7423	26.41	0.63	-0.750			
0.7948	50866.57	3.3790	3.3790	-0.7167	26.42	0.64	-0.750			
0.7969	51001.33	3.3760	3.3761	-0.6905	26.43	0.65	-0.750			
0.7989	51131.71	3.3730	3.3730	-0.6663	26.43	0.65	-0.750			
0.8009	51257.20	3.3700	3.3701	-0.6399	26.44	0.66	-0.750			
0.8028	51377.62	3.3670	3.3670	-0.6173	26.45	0.67	-0.750			
0.8046	51492.99	3.3640	3.3640	-0.5923	26.46	0.68	-0.750			
0.8063	51604.69	3.3610	3.3610	-0.5701	26.46	0.68	-0.750			
0.8080	51712.37	3.3580	3.3580	-0.5499	26.47	0.69	-0.750			
0.8096	51814.91	3.3550	3.3551	-0.5290	26.48	0.70	-0.750			
0.8112	51913.92	3.3520	3.3519	-0.5097	26.48	0.70	-0.750			
0.8127	52009.89	3.3490	3.3489	-0.4926	26.49	0.71	-0.750			
0.8141	52101.53	3.3460	3.3460	-0.4763	26.49	0.71	-0.750			
0.8155	52191.74	3.3430	3.3430	-0.4642	26.50	0.72	-0.750			
0.8169	52280.01	3.3400	3.3400	-0.4495	26.50	0.72	-0.750			
0.8182	52365.02	3.3370	3.3370	-0.4354	26.50	0.72	-0.750			
0.8195	52447.55	3.3340	3.3340	-0.4209	26.51	0.73	-0.750			
0.8207	52527.32	3.3310	3.3310	-0.4073	26.51	0.73	-0.750			
0.8219	52603.72	3.3280	3.3280	-0.3945	26.51	0.73	-0.750			
0.8231	52677.94	3.3250	3.3250	-0.3807	26.51	0.73	-0.750			
0.8242	52749.66	3.3220	3.3219	-0.3679	26.52	0.74	-0.750			
0.8253	52819.12	3.3190	3.3192	-0.3581	26.52	0.74	-0.750			
0.8264	52886.56	3.3160	3.3159	-0.3469	26.53	0.75	-0.750			
0.8274	52951.78	3.3130	3.3129	-0.3377	26.53	0.75	-0.750			
0.8284	53015.44	3.3100	3.3100	-0.3264	26.54	0.76	-0.750			
0.8293	53077.30	3.3070	3.3070	-0.3159	26.54	0.76	-0.750			
0.8303	53138.27	3.3040	3.3040	-0.3085	26.55	0.77	-0.750			
0.8312	53196.33	3.3010	3.3010	-0.2991	26.56	0.78	-0.750			
0.8321	53251.53	3.2980	3.2981	-0.2906	26.56	0.78	-0.750			
0.8329	53306.69	3.2950	3.2949	-0.2846	26.57	0.79	-0.750			
0.8337	53359.91	3.2920	3.2920	-0.2785	26.57	0.79	-0.750			
0.8346	53413.40	3.2890	3.2890	-0.2746	26.58	0.80	-0.750			
0.8354	53465.85	3.2860	3.2860	-0.2704	26.58	0.80	-0.750			
0.8362	53517.88	3.2830	3.2830	-0.2641	26.59	0.81	-0.750			
0.8370	53567.80	3.2800	3.2800	-0.2578	26.59	0.81	-0.750			
0.8378	53616.50	3.2770	3.2770	-0.2530	26.60	0.82	-0.750			
0.8385	53664.57	3.2740	3.2740	-0.2469	26.60	0.82	-0.750			
0.8392	53710.80	3.2710	3.2710	-0.2423	26.61	0.83	-0.750			
0.8400	53756.88	3.2680	3.2680	-0.2386	26.61	0.83	-0.750			
0.8407	53801.67	3.2650	3.2651	-0.2351	26.62	0.84	-0.750			
0.8414	53847.27	3.2620	3.2618	-0.2332	26.62	0.84	-0.750			
0.8421	53891.51	3.2590	3.2591	-0.2293	26.63	0.85	-0.750			
0.8427	53935.26	3.2560	3.2560	-0.2262	26.63	0.85	-0.750			
0.8434	53978.57	3.2530	3.2531	-0.2223	26.63	0.85	-0.750			
0.8441	54021.47	3.2500	3.2499	-0.2193	26.64	0.86	-0.750			
0.8447	54062.72	3.2470	3.2470	-0.2142	26.64	0.86	-0.750			
0.8454	54103.54	3.2440	3.2440	-0.2107	26.65	0.87	-0.750			
0.8460	54143.38	3.2410	3.2410	-0.2060	26.65	0.87	-0.750			
0.8466	54182.33	3.2380	3.2381	-0.2038	26.66	0.88	-0.750			
0.8472	54221.19	3.2350	3.2350	-0.2010	26.66	0.88	-0.750			
0.8478	54259.13	3.2320	3.2320	-0.1980	26.66	0.88	-0.750			
0.8484	54296.73	3.2290	3.2289	-0.1967	26.67	0.89	-0.750			
0.8490	54334.77	3.2260	3.2261	-0.1936	26.67	0.89	-0.750			
0.8496	54371.68	3.2230	3.2230	-0.1910	26.67	0.89	-0.750			
0.8501	54408.29	3.2200	3.2199	-0.1885	26.68	0.90	-0.750			
0.8507	54444.44	3.2170	3.2171	-0.1865	26.68	0.90	-0.750			
0.8512	54479.33	3.2140	3.2140	-0.1834	26.69	0.91	-0.750			
0.8518	54514.57	3.2110	3.2109	-0.1812	26.69	0.91	-0.750			
0.8523	54549.19	3.2080	3.2079	-0.1791	26.70	0.92	-0.750			
0.8529	54582.93	3.2050	3.2050	-0.1773	26.70	0.92	-0.750			
0.8534	54617.53	3.2020	3.2020	-0.1762	26.71	0.93	-0.750			
0.8539	54650.76	3.1990	3.1990	-0.1738	26.71	0.93	-0.750			
0.8544	54683.98	3.1960	3.1960	-0.1721	26.72	0.94	-0.750			
0.8550	54716.89	3.1930	3.1931	-0.1697	26.72	0.94	-0.750			
0.8555	54749.18	3.1900	3.1899	-0.1676	26.73	0.95	-0.750			
0.8560	54781.47	3.1870	3.1870	-0.1662	26.73	0.95	-0.750			
0.8565	54813.04	3.1840	3.1840	-0.1644	26.74	0.96	-0.750			
0.8569	54844.06	3.1810	3.1810	-0.1625	26.74	0.96	-0.750			
0.8574	54875.25	3.1780	3.1780	-0.1614	26.75	0.97	-0.750			
0.8579	54905.80	3.1750	3.1750	-0.1595	26.75	0.97	-0.750			
0.8584	54936.52	3.1720	3.1721	-0.1577	26.76	0.98	-0.750			
0.8589	54966.71	3.1690	3.1690	-0.1573	26.76	0.98	-0.750			
0.8593	54996.65	3.1660	3.1661	-0.1559	26.76	0.98	-0.750			
0.8598	55026.48	3.1630	3.1630	-0.1549	26.77	0.99	-0.750			
0.8603	55056.18	3.1600	3.1598	-0.1527	26.77	0.99	-0.750			
0.8607	55085.45	3.1570	3.1570	-0.1511	26.78	1.00	-0.750			
