Ah_balance (normalized)	Ah_balance (mAh)	Voltage - fit (V)	Voltage -  interpolate (V)	dQ/dV (1/V)	Temperature (°C)	Temperature - diff (°C)	Current (C)	R_DC 0ms (mOhm)	R_DC 50ms (mOhm)	R_DC 50 ms PEC (mOhm)
0.0003	16.57	4.1560	4.1557	-0.1043	25.08	0.01	-0.750			
0.0006	40.28	4.1530	4.1529	-0.1415	25.08	0.01	-0.750			
0.0011	71.84	4.1500	4.1499	-0.1773	25.08	0.01	-0.750			
0.0017	108.89	4.1470	4.1470	-0.2108	25.08	0.01	-0.750			
0.0024	152.42	4.1440	4.1442	-0.2453	25.08	0.01	-0.750			
0.0032	203.46	4.1410	4.1410	-0.2793	25.08	0.01	-0.750			
0.0041	260.44	4.1380	4.1378	-0.3106	25.07	0.00	-0.750			
0.0051	323.35	4.1350	4.1350	-0.3422	25.07	0.00	-0.750			
0.0061	392.62	4.1320	4.1321	-0.3715	25.07	0.00	-0.750			
0.0073	467.47	4.1290	4.1289	-0.3986	25.07	0.00	-0.750			
0.0086	547.29	4.1260	4.1260	-0.4232	25.07	0.00	-0.750			
0.0099	630.93	4.1230	4.1232	-0.4457	25.07	0.00	-0.750			
0.0112	718.79	4.1200	4.1200	-0.4691	25.07	-0.00	-0.750			
0.0127	811.67	4.1170	4.1170	-0.4907	25.07	-0.00	-0.750			
0.0142	908.50	4.1140	4.1139	-0.5055	25.07	-0.00	-0.750			
0.0158	1008.33	4.1110	4.1111	-0.5235	25.07	-0.00	-0.750			
0.0173	1110.30	4.1080	4.1081	-0.5400	25.06	-0.01	-0.750			
0.0190	1215.08	4.1050	4.1050	-0.5551	25.06	-0.01	-0.750			
0.0207	1323.60	4.1020	4.1019	-0.5671	25.06	-0.01	-0.750			
0.0224	1434.08	4.0990	4.0991	-0.5770	25.06	-0.01	-0.750			
0.0242	1546.76	4.0960	4.0960	-0.5896	25.06	-0.01	-0.750			
0.0260	1661.89	4.0930	4.0931	-0.5970	25.06	-0.01	-0.750			
0.0278	1776.89	4.0900	4.0900	-0.6030	25.06	-0.01	-0.750			
0.0296	1893.29	4.0870	4.0869	-0.6095	25.07	-0.00	-0.750			
0.0314	2010.46	4.0840	4.0840	-0.6164	25.07	-0.00	-0.750			
0.0333	2129.51	4.0810	4.0810	-0.6258	25.07	-0.00	-0.750			
0.0352	2249.63	4.0780	4.0781	-0.6337	25.07	0.00	-0.750			
0.0371	2372.58	4.0750	4.0750	-0.6409	25.07	0.00	-0.750			
0.0390	2497.43	4.0720	4.0720	-0.6483	25.07	0.00	-0.750			
0.0410	2622.19	4.0690	4.0690	-0.6564	25.07	0.00	-0.750			
0.0430	2750.12	4.0660	4.0661	-0.6610	25.07	0.00	-0.750			
0.0450	2877.75	4.0630	4.0629	-0.6600	25.07	0.00	-0.750			
0.0470	3004.82	4.0600	4.0601	-0.6617	25.07	0.00	-0.750			
0.0489	3131.91	4.0570	4.0570	-0.6621	25.07	0.00	-0.750			
0.0509	3258.08	4.0540	4.0539	-0.6663	25.08	0.01	-0.750			
0.0529	3384.90	4.0510	4.0510	-0.6720	25.08	0.01	-0.750			
0.0549	3513.09	4.0480	4.0480	-0.6760	25.09	0.02	-0.750			
0.0570	3646.65	4.0450	4.0449	-0.6844	25.09	0.02	-0.750			
0.0590	3779.16	4.0420	4.0419	-0.6871	25.10	0.03	-0.750			
0.0611	3912.03	4.0390	4.0390	-0.6848	25.10	0.03	-0.750			
0.0632	4043.01	4.0360	4.0360	-0.6883	25.10	0.03	-0.750			
0.0652	4172.61	4.0330	4.0331	-0.6914	25.10	0.03	-0.750			
0.0673	4305.97	4.0300	4.0299	-0.6896	25.10	0.03	-0.750			
0.0694	4439.57	4.0270	4.0270	-0.6945	25.10	0.03	-0.750			
0.0715	4573.77	4.0240	4.0240	-0.6992	25.10	0.03	-0.750			
0.0736	4708.18	4.0210	4.0209	-0.6998	25.10	0.03	-0.750			
0.0757	4843.73	4.0180	4.0179	-0.7036	25.11	0.04	-0.750			
0.0778	4977.42	4.0150	4.0151	-0.7075	25.11	0.04	-0.750			
0.0799	5113.63	4.0120	4.0120	-0.7087	25.11	0.04	-0.750			
0.0821	5252.99	4.0090	4.0089	-0.7108	25.12	0.05	-0.750			
0.0842	5389.64	4.0060	4.0061	-0.7064	25.12	0.05	-0.750			
0.0863	5523.86	4.0030	4.0030	-0.7084	25.12	0.05	-0.750			
0.0884	5659.45	4.0000	3.9999	-0.7092	25.13	0.06	-0.750			
0.0905	5794.13	3.9970	3.9969	-0.7148	25.13	0.06	-0.750			
0.0927	5929.81	3.9940	3.9941	-0.7164	25.14	0.07	-0.750			
0.0949	6072.46	3.9910	3.9909	-0.7211	25.14	0.07	-0.750			
0.0971	6211.40	3.9880	3.9882	-0.7208	25.15	0.08	-0.750			
0.0992	6348.77	3.9850	3.9850	-0.7227	25.15	0.08	-0.750			
0.1013	6485.56	3.9820	3.9820	-0.7227	25.16	0.09	-0.750			
0.1035	6623.00	3.9790	3.9789	-0.7284	25.16	0.09	-0.750			
0.1057	6764.58	3.9760	3.9758	-0.7307	25.17	0.10	-0.750			
0.1079	6907.85	3.9730	3.9731	-0.7397	25.18	0.11	-0.750			
0.1102	7051.12	3.9700	3.9701	-0.7421	25.18	0.11	-0.750			
0.1124	7194.27	3.9670	3.9670	-0.7441	25.18	0.11	-0.750			
0.1146	7336.17	3.9640	3.9639	-0.7494	25.19	0.12	-0.750			
0.1169	7480.28	3.9610	3.9610	-0.7442	25.19	0.12	-0.750			
0.1191	7624.08	3.9580	3.9579	-0.7452	25.19	0.12	-0.750			
0.1214	7767.17	3.9550	3.9550	-0.7466	25.20	0.13	-0.750			
0.1236	7910.62	3.9520	3.9519	-0.7432	25.20	0.13	-0.750			
0.1258	8052.16	3.9490	3.9489	-0.7439	25.21	0.14	-0.750			
0.1280	8192.98	3.9460	3.9461	-0.7472	25.21	0.14	-0.750			
0.1303	8337.73	3.9430	3.9430	-0.7464	25.21	0.14	-0.750			
0.1326	8484.02	3.9400	3.9398	-0.7550	25.22	0.15	-0.750			
0.1348	8629.61	3.9370	3.9372	-0.7532	25.22	0.15	-0.750			
0.1371	8774.04	3.9340	3.9340	-0.7526	25.23	0.16	-0.750			
0.1394	8918.48	3.9310	3.9309	-0.7606	25.23	0.16	-0.750			
0.1416	9063.98	3.9280	3.9280	-0.7618	25.24	0.17	-0.750			
0.1439	9210.20	3.9250	3.9249	-0.7654	25.24	0.17	-0.750			
0.1462	9358.51	3.9220	3.9220	-0.7675	25.25	0.18	-0.750			
0.1485	9506.52	3.9190	3.9189	-0.7691	25.25	0.18	-0.750			
0.1508	9654.37	3.9160	3.9160	-0.7713	25.25	0.18	-0.750			
0.1532	9801.79	3.9130	3.9130	-0.7729	25.25	0.18	-0.750			
0.1555	9950.26	3.9100	3.9100	-0.7709	25.26	0.19	-0.750			
0.1578	10100.59	3.9070	3.9069	-0.7770	25.26	0.19	-0.750			
0.1602	10250.72	3.9040	3.9042	-0.7737	25.26	0.19	-0.750			
0.1625	10399.45	3.9010	3.9010	-0.7748	25.26	0.19	-0.750			
0.1648	10546.66	3.8980	3.8980	-0.7740	25.27	0.20	-0.750			
0.1671	10694.73	3.8950	3.8950	-0.7741	25.27	0.20	-0.750			
0.1695	10846.21	3.8920	3.8918	-0.7675	25.28	0.21	-0.750			
0.1718	10992.45	3.8890	3.8891	-0.7580	25.28	0.21	-0.750			
0.1740	11135.39	3.8860	3.8861	-0.7574	25.28	0.21	-0.750			
0.1762	11279.97	3.8830	3.8829	-0.7574	25.29	0.22	-0.750			
0.1785	11421.49	3.8800	3.8799	-0.7578	25.29	0.22	-0.750			
0.1807	11567.60	3.8770	3.8770	-0.7647	25.29	0.22	-0.750			
0.1831	11716.21	3.8740	3.8741	-0.7770	25.30	0.23	-0.750			
0.1855	11870.66	3.8710	3.8710	-0.7802	25.30	0.23	-0.750			
0.1878	12020.64	3.8680	3.8680	-0.7802	25.30	0.23	-0.750			
0.1901	12169.30	3.8650	3.8650	-0.7853	25.31	0.24	-0.750			
0.1925	12320.69	3.8620	3.8620	-0.7829	25.31	0.24	-0.750			
0.1949	12471.10	3.8590	3.8588	-0.7819	25.32	0.25	-0.750			
0.1972	12622.14	3.8560	3.8563	-0.7800	25.32	0.25	-0.750			
0.1996	12771.43	3.8530	3.8530	-0.7810	25.32	0.25	-0.750			
0.2019	12921.85	3.8500	3.8500	-0.7829	25.32	0.25	-0.750			
0.2042	13069.94	3.8470	3.8470	-0.7784	25.32	0.25	-0.750			
0.2066	13221.09	3.8440	3.8440	-0.7834	25.32	0.25	-0.750			
0.2089	13372.45	3.8410	3.8410	-0.7793	25.32	0.25	-0.750			
0.2113	13521.03	3.8380	3.8381	-0.7790	25.32	0.25	-0.750			
0.2136	13670.61	3.8350	3.8350	-0.7775	25.33	0.26	-0.750			
0.2159	13819.13	3.8320	3.8320	-0.7718	25.33	0.26	-0.750			
0.2182	13966.18	3.8290	3.8290	-0.7705	25.33	0.26	-0.750			
0.2205	14114.00	3.8260	3.8260	-0.7721	25.34	0.27	-0.750			
0.2229	14263.77	3.8230	3.8231	-0.7673	25.34	0.27	-0.750			
0.2252	14411.27	3.8200	3.8200	-0.7613	25.34	0.27	-0.750			
0.2274	14554.90	3.8170	3.8171	-0.7617	25.34	0.27	-0.750			
0.2297	14702.75	3.8140	3.8139	-0.7590	25.35	0.28	-0.750			
0.2320	14848.42	3.8110	3.8109	-0.7558	25.35	0.28	-0.750			
0.2342	14991.97	3.8080	3.8080	-0.7526	25.35	0.28	-0.750			
0.2365	15136.49	3.8050	3.8051	-0.7502	25.35	0.28	-0.750			
0.2388	15281.97	3.8020	3.8019	-0.7469	25.35	0.28	-0.750			
0.2410	15424.14	3.7990	3.7990	-0.7446	25.35	0.28	-0.750			
0.2432	15565.75	3.7960	3.7960	-0.7387	25.36	0.29	-0.750			
0.2455	15709.96	3.7930	3.7929	-0.7393	25.36	0.29	-0.750			
0.2477	15850.75	3.7900	3.7901	-0.7327	25.36	0.29	-0.750			
0.2498	15990.33	3.7870	3.7870	-0.7265	25.36	0.29	-0.750			
0.2520	16129.25	3.7840	3.7840	-0.7247	25.37	0.30	-0.750			
0.2542	16267.39	3.7810	3.7810	-0.7212	25.37	0.30	-0.750			
0.2563	16406.36	3.7780	3.7780	-0.7172	25.37	0.30	-0.750			
0.2585	16543.63	3.7750	3.7749	-0.7130	25.38	0.31	-0.750			
0.2606	16679.71	3.7720	3.7721	-0.7165	25.38	0.31	-0.750			
0.2628	16816.69	3.7690	3.7691	-0.7186	25.38	0.31	-0.750			
0.2649	16954.87	3.7660	3.7659	-0.7245	25.39	0.32	-0.750			
0.2671	17095.17	3.7630	3.7631	-0.7255	25.39	0.32	-0.750			
0.2693	17235.79	3.7600	3.7599	-0.7319	25.40	0.33	-0.750			
0.2715	17376.97	3.7570	3.7570	-0.7330	25.40	0.33	-0.750			
0.2737	17518.11	3.7540	3.7538	-0.7357	25.40	0.33	-0.750			
0.2759	17657.81	3.7510	3.7510	-0.7379	25.40	0.33	-0.750			
0.2781	17799.75	3.7480	3.7480	-0.7420	25.40	0.33	-0.750			
0.2803	17942.01	3.7450	3.7450	-0.7430	25.40	0.33	-0.750			
0.2826	18087.55	3.7420	3.7420	-0.7529	25.40	0.33	-0.750			
0.2849	18230.70	3.7390	3.7393	-0.7592	25.40	0.33	-0.750			
0.2872	18377.98	3.7360	3.7358	-0.7667	25.40	0.33	-0.750			
0.2894	18524.40	3.7330	3.7331	-0.7823	25.40	0.33	-0.750			
0.2918	18675.48	3.7300	3.7300	-0.7909	25.40	0.33	-0.750			
0.2943	18832.46	3.7270	3.7269	-0.8076	25.40	0.33	-0.750			
0.2967	18987.49	3.7240	3.7241	-0.8168	25.40	0.33	-0.750			
0.2991	19143.35	3.7210	3.7210	-0.8272	25.40	0.33	-0.750			
0.3016	19302.02	3.7180	3.7180	-0.8433	25.40	0.33	-0.750			
0.3042	19466.08	3.7150	3.7149	-0.8545	25.41	0.34	-0.750			
0.3067	19630.25	3.7120	3.7120	-0.8639	25.41	0.34	-0.750			
0.3094	19801.25	3.7090	3.7091	-0.8850	25.41	0.34	-0.750			
0.3120	19970.65	3.7060	3.7060	-0.8998	25.41	0.34	-0.750			
0.3147	20143.09	3.7030	3.7029	-0.9118	25.41	0.34	-0.750			
0.3175	20319.95	3.7000	3.7000	-0.9249	25.40	0.33	-0.750			
0.3203	20498.39	3.6970	3.6970	-0.9355	25.40	0.33	-0.750			
0.3232	20682.07	3.6940	3.6941	-0.9592	25.40	0.33	-0.750			
0.3260	20866.80	3.6910	3.6909	-0.9817	25.39	0.32	-0.750			
0.3290	21058.05	3.6880	3.6879	-0.9927	25.39	0.32	-0.750			
0.3320	21248.41	3.6850	3.6850	-1.0099	25.38	0.31	-0.750			
0.3351	21445.70	3.6820	3.6824	-1.0312	25.38	0.31	-0.750			
0.3382	21646.43	3.6790	3.6789	-1.0481	25.38	0.31	-0.750			
0.3414	21848.74	3.6760	3.6759	-1.0646	25.37	0.30	-0.750			
0.3446	22052.43	3.6730	3.6729	-1.0788	25.37	0.30	-0.750			
0.3478	22260.45	3.6700	3.6703	-1.1088	25.37	0.30	-0.750			
0.3512	22477.08	3.6670	3.6670	-1.1264	25.36	0.29	-0.750			
0.3546	22695.11	3.6640	3.6639	-1.1367	25.35	0.28	-0.750			
0.3580	22914.97	3.6610	3.6609	-1.1642	25.34	0.27	-0.750			
0.3616	23139.68	3.6580	3.6580	-1.1937	25.34	0.27	-0.750			
0.3652	23372.16	3.6550	3.6549	-1.2139	25.34	0.27	-0.750			
0.3689	23609.96	3.6520	3.6519	-1.2282	25.33	0.26	-0.750			
0.3726	23846.21	3.6490	3.6493	-1.2424	25.33	0.26	-0.750			
0.3764	24089.94	3.6460	3.6460	-1.2697	25.32	0.25	-0.750			
0.3802	24334.94	3.6430	3.6429	-1.2873	25.32	0.25	-0.750			
0.3840	24578.72	3.6400	3.6399	-1.3137	25.31	0.24	-0.750			
0.3880	24833.09	3.6370	3.6369	-1.3458	25.30	0.23	-0.750			
0.3921	25095.56	3.6340	3.6339	-1.3739	25.29	0.22	-0.750			
0.3963	25364.80	3.6310	3.6311	-1.4105	25.28	0.21	-0.750			
0.4006	25637.62	3.6280	3.6279	-1.4291	25.27	0.20	-0.750			
0.4050	25917.52	3.6250	3.6249	-1.4607	25.27	0.20	-0.750			
0.4094	26202.90	3.6220	3.6221	-1.4898	25.26	0.19	-0.750			
0.4139	26486.91	3.6190	3.6189	-1.5228	25.26	0.19	-0.750			
0.4185	26787.09	3.6160	3.6163	-1.5531	25.25	0.18	-0.750			
0.4233	27090.70	3.6130	3.6130	-1.5606	25.25	0.18	-0.750			
0.4279	27386.71	3.6100	3.6104	-1.6018	25.25	0.18	-0.750	0.418	0.586	
0.4328	27699.47	3.6070	3.6072	-1.6188	25.24	0.17	-0.750			
0.4377	28012.41	3.6040	3.6038	-1.6486	25.24	0.17	-0.750			
0.4427	28332.83	3.6010	3.6010	-1.6870	25.23	0.16	-0.750			
0.4478	28660.21	3.5980	3.5982	-1.7164	25.22	0.15	-0.750			
0.4530	28993.95	3.5950	3.5951	-1.7586	25.21	0.14	-0.750			
0.4584	29335.64	3.5920	3.5921	-1.7777	25.20	0.13	-0.750			
0.4636	29671.40	3.5890	3.5889	-1.8119	25.20	0.13	-0.750			
0.4692	30029.59	3.5860	3.5858	-1.8398	25.20	0.13	-0.750			
0.4746	30376.68	3.5830	3.5829	-1.9010	25.20	0.13	-0.750			
0.4805	30749.21	3.5800	3.5801	-1.9254	25.19	0.12	-0.750			
0.4864	31128.97	3.5770	3.5768	-1.9571	25.18	0.11	-0.750			
0.4923	31509.51	3.5740	3.5742	-1.9942	25.18	0.11	-0.750			
0.4985	31901.42	3.5710	3.5710	-2.0103	25.18	0.11	-0.750			
0.5044	32282.21	3.5680	3.5681	-2.0437	25.18	0.11	-0.750			
0.5107	32682.97	3.5650	3.5650	-2.0553	25.18	0.11	-0.750			
0.5167	33069.98	3.5620	3.5621	-2.0638	25.18	0.11	-0.750			
0.5231	33477.17	3.5590	3.5592	-2.0855	25.18	0.11	-0.750			
0.5295	33884.87	3.5560	3.5558	-2.0728	25.18	0.11	-0.750			
0.5356	34277.49	3.5530	3.5531	-2.0651	25.18	0.11	-0.750			
0.5418	34676.48	3.5500	3.5500	-2.0734	25.18	0.11	-0.750			
0.5479	35064.93	3.5470	3.5469	-2.0695	25.18	0.11	-0.750			
0.5541	35462.94	3.5440	3.5442	-2.0893	25.19	0.12	-0.750			
0.5604	35868.42	3.5410	3.5410	-2.0848	25.20	0.13	-0.750			
0.5668	36272.99	3.5380	3.5380	-2.0654	25.20	0.13	-0.750			
0.5731	36675.73	3.5350	3.5351	-2.0479	25.20	0.13	-0.750			
0.5791	37063.89	3.5320	3.5318	-2.0278	25.21	0.14	-0.750			
0.5851	37448.44	3.5290	3.5288	-1.9824	25.22	0.15	-0.750			
0.5910	37821.09	3.5260	3.5261	-1.9553	25.22	0.15	-0.750			
0.5969	38198.63	3.5230	3.5230	-1.9200	25.22	0.15	-0.750			
0.6026	38569.21	3.5200	3.5199	-1.8749	25.23	0.16	-0.750			
0.6082	38927.33	3.5170	3.5171	-1.8403	25.24	0.17	-0.750			
0.6137	39279.04	3.5140	3.5140	-1.7990	25.25	0.18	-0.750			
0.6190	39617.01	3.5110	3.5111	-1.7475	25.25	0.18	-0.750			
0.6242	39949.88	3.5080	3.5082	-1.7134	25.26	0.19	-0.750			
0.6292	40270.38	3.5050	3.5049	-1.6554	25.27	0.20	-0.750			
0.6342	40591.24	3.5020	3.5019	-1.6254	25.28	0.21	-0.750			
0.6390	40895.13	3.4990	3.4990	-1.5676	25.29	0.22	-0.750			
0.6436	41189.60	3.4960	3.4960	-1.5253	25.30	0.23	-0.750			
0.6482	41485.37	3.4930	3.4931	-1.4926	25.31	0.24	-0.750			
0.6526	41767.09	3.4900	3.4900	-1.4475	25.32	0.25	-0.750			
0.6569	42039.79	3.4870	3.4870	-1.4059	25.33	0.26	-0.750			
0.6611	42308.60	3.4840	3.4841	-1.3646	25.34	0.27	-0.750			
0.6651	42567.41	3.4810	3.4809	-1.3212	25.36	0.29	-0.750			
0.6690	42814.40	3.4780	3.4779	-1.2750	25.37	0.30	-0.750			
0.6727	43050.80	3.4750	3.4753	-1.2353	25.38	0.31	-0.750			
0.6764	43289.79	3.4720	3.4719	-1.2106	25.40	0.33	-0.750			
0.6800	43518.11	3.4690	3.4689	-1.1674	25.41	0.34	-0.750			
0.6834	43738.86	3.4660	3.4659	-1.1312	25.42	0.35	-0.750			
0.6868	43952.25	3.4630	3.4630	-1.1046	25.44	0.37	-0.750			
0.6900	44160.87	3.4600	3.4599	-1.0674	25.45	0.38	-0.750			
0.6931	44360.20	3.4570	3.4569	-1.0301	25.46	0.39	-0.750			
0.6961	44552.17	3.4540	3.4540	-0.9950	25.48	0.41	-0.750			
0.6991	44744.57	3.4510	3.4510	-0.9775	25.49	0.42	-0.750			
0.7020	44929.16	3.4480	3.4479	-0.9510	25.50	0.43	-0.750			
0.7048	45107.07	3.4450	3.4450	-0.9243	25.51	0.44	-0.750			
0.7075	45279.92	3.4420	3.4420	-0.8992	25.52	0.45	-0.750			
0.7102	45451.15	3.4390	3.4390	-0.8874	25.53	0.46	-0.750			
0.7128	45618.58	3.4360	3.4360	-0.8747	25.54	0.47	-0.750			
0.7154	45784.83	3.4330	3.4330	-0.8595	25.55	0.48	-0.750			
0.7179	45948.42	3.4300	3.4300	-0.8513	25.56	0.49	-0.750			
0.7205	46109.33	3.4270	3.4271	-0.8472	25.57	0.50	-0.750			
0.7230	46272.17	3.4240	3.4241	-0.8454	25.58	0.51	-0.750			
0.7255	46433.22	3.4210	3.4209	-0.8442	25.59	0.52	-0.750			
0.7280	46594.38	3.4180	3.4180	-0.8457	25.60	0.53	-0.750			
0.7306	46756.59	3.4150	3.4151	-0.8478	25.61	0.54	-0.750			
0.7331	46921.37	3.4120	3.4120	-0.8531	25.61	0.54	-0.750			
0.7357	47085.16	3.4090	3.4090	-0.8491	25.62	0.55	-0.750			
0.7383	47248.05	3.4060	3.4060	-0.8473	25.63	0.56	-0.750			
0.7408	47412.44	3.4030	3.4030	-0.8434	25.64	0.57	-0.750			
0.7434	47575.78	3.4000	3.3998	-0.8378	25.65	0.58	-0.750			
0.7459	47736.53	3.3970	3.3970	-0.8266	25.66	0.59	-0.750			
0.7484	47894.91	3.3940	3.3940	-0.8111	25.66	0.59	-0.750			
0.7508	48049.62	3.3910	3.3909	-0.7963	25.67	0.60	-0.750			
0.7531	48201.48	3.3880	3.3881	-0.7764	25.68	0.61	-0.750			
0.7554	48346.29	3.3850	3.3850	-0.7496	25.69	0.62	-0.750			
0.7577	48491.09	3.3820	3.3820	-0.7349	25.69	0.62	-0.750			
0.7598	48629.36	3.3790	3.3792	-0.7106	25.70	0.63	-0.750			
0.7619	48762.74	3.3760	3.3759	-0.6922	25.71	0.64	-0.750			
0.7640	48894.05	3.3730	3.3731	-0.6751	25.72	0.65	-0.750			
0.7660	49021.91	3.3700	3.3700	-0.6566	25.72	0.65	-0.750			
0.7679	49147.87	3.3670	3.3669	-0.6392	25.73	0.66	-0.750			
0.7698	49269.71	3.3640	3.3640	-0.6160	25.74	0.67	-0.750			
0.7716	49385.14	3.3610	3.3610	-0.5957	25.75	0.68	-0.750			
0.7734	49496.98	3.3580	3.3580	-0.5741	25.75	0.68	-0.750			
0.7750	49603.02	3.3550	3.3549	-0.5516	25.76	0.69	-0.750			
0.7767	49707.46	3.3520	3.3519	-0.5336	25.76	0.69	-0.750			
0.7782	49807.45	3.3490	3.3491	-0.5180	25.76	0.69	-0.750			
0.7798	49906.30	3.3460	3.3460	-0.5077	25.77	0.70	-0.750			
0.7813	50002.74	3.3430	3.3430	-0.4919	25.77	0.70	-0.750			
0.7827	50095.27	3.3400	3.3399	-0.4755	25.77	0.70	-0.750			
0.7841	50184.93	3.3370	3.3371	-0.4605	25.78	0.71	-0.750			
0.7855	50271.82	3.3340	3.3340	-0.4488	25.78	0.71	-0.750			
0.7868	50357.12	3.3310	3.3310	-0.4364	25.79	0.72	-0.750			
0.7881	50438.92	3.3280	3.3279	-0.4213	25.79	0.72	-0.750			
0.7893	50517.59	3.3250	3.3250	-0.4076	25.80	0.73	-0.750			
0.7905	50594.98	3.3220	3.3220	-0.4000	25.80	0.73	-0.750			
0.7917	50670.38	3.3190	3.3190	-0.3904	25.81	0.74	-0.750			
0.7929	50744.66	3.3160	3.3159	-0.3793	25.81	0.74	-0.750			
0.7940	50815.50	3.3130	3.3130	-0.3720	25.82	0.75	-0.750			
0.7951	50887.27	3.3100	3.3100	-0.3643	25.82	0.75	-0.750			
0.7962	50956.84	3.3070	3.3070	-0.3560	25.83	0.76	-0.750			
0.7973	51024.47	3.3040	3.3042	-0.3453	25.83	0.76	-0.750			
0.7983	51088.97	3.3010	3.3010	-0.3344	25.83	0.76	-0.750			
0.7993	51152.62	3.2980	3.2979	-0.3265	25.84	0.77	-0.750			
0.8002	51213.70	3.2950	3.2950	-0.3196	25.84	0.77	-0.750			
0.8011	51273.35	3.2920	3.2920	-0.3123	25.85	0.78	-0.750			
0.8021	51333.80	3.2890	3.2889	-0.3076	25.85	0.78	-0.750			
0.8030	51392.04	3.2860	3.2861	-0.3016	25.86	0.79	-0.750			
0.8039	51449.73	3.2830	3.2830	-0.2964	25.86	0.79	-0.750			
0.8048	51505.85	3.2800	3.2799	-0.2908	25.87	0.80	-0.750			
0.8056	51560.89	3.2770	3.2770	-0.2855	25.87	0.80	-0.750			
0.8065	51614.92	3.2740	3.2741	-0.2808	25.87	0.80	-0.750			
0.8073	51668.49	3.2710	3.2709	-0.2770	25.88	0.81	-0.750			
0.8081	51721.47	3.2680	3.2680	-0.2730	25.88	0.81	-0.750			
0.8090	51773.16	3.2650	3.2650	-0.2687	25.89	0.82	-0.750			
0.8098	51824.51	3.2620	3.2621	-0.2648	25.89	0.82	-0.750			
0.8105	51875.19	3.2590	3.2590	-0.2603	25.90	0.83	-0.750			
0.8113	51924.57	3.2560	3.2559	-0.2569	25.90	0.83	-0.750			
0.8121	51973.36	3.2530	3.2531	-0.2529	25.91	0.84	-0.750			
0.8128	52021.46	3.2500	3.2500	-0.2494	25.91	0.84	-0.750			
0.8136	52069.01	3.2470	3.2470	-0.2457	25.92	0.85	-0.750			
0.8143	52115.74	3.2440	3.2440	-0.2429	25.93	0.86	-0.750			
0.8150	52161.87	3.2410	3.2410	-0.2398	25.93	0.86	-0.750			
0.8157	52207.95	3.2380	3.2380	-0.2366	25.94	0.87	-0.750			
0.8165	52253.17	3.2350	3.2350	-0.2336	25.94	0.87	-0.750			
0.8171	52297.28	3.2320	3.2321	-0.2299	25.95	0.88	-0.750			
0.8178	52341.18	3.2290	3.2290	-0.2273	25.95	0.88	-0.750			
0.8185	52384.57	3.2260	3.2260	-0.2251	25.96	0.89	-0.750			
0.8192	52427.49	3.2230	3.2230	-0.2227	25.96	0.89	-0.750			
0.8198	52469.61	3.2200	3.2200	-0.2202	25.97	0.90	-0.750			
0.8205	52512.32	3.2170	3.2169	-0.2173	25.98	0.91	-0.750			
0.8212	52554.22	3.2140	3.2140	-0.2150	25.98	0.91	-0.750			
0.8218	52595.19	3.2110	3.2111	-0.2126	25.99	0.92	-0.750			
0.8224	52635.58	3.2080	3.2082	-0.2099	25.99	0.92	-0.750			
0.8231	52675.63	3.2050	3.2049	-0.2070	26.00	0.93	-0.750			
0.8237	52715.00	3.2020	3.2019	-0.2040	26.00	0.93	-0.750			
0.8243	52753.70	3.1990	3.1990	-0.2014	26.01	0.94	-0.750			
0.8249	52791.89	3.1960	3.1961	-0.1995	26.01	0.94	-0.750			
0.8255	52830.56	3.1930	3.1930	-0.1983	26.02	0.95	-0.750			
0.8261	52868.37	3.1900	3.1899	-0.1956	26.02	0.95	-0.750			
0.8266	52905.47	3.1870	3.1870	-0.1925	26.03	0.96	-0.750			
0.8272	52941.91	3.1840	3.1841	-0.1914	26.03	0.96	-0.750			
0.8278	52978.63	3.1810	3.1810	-0.1899	26.04	0.97	-0.750			
0.8284	53014.93	3.1780	3.1780	-0.1882	26.04	0.97	-0.750			
0.8289	53050.82	3.1750	3.1749	-0.1861	26.05	0.98	-0.750			
0.8295	53086.16	3.1720	3.1722	-0.1844	26.05	0.98	-0.750			
0.8300	53121.98	3.1690	3.1690	-0.1832	26.06	0.99	-0.750			
0.8306	53156.91	3.1660	3.1659	-0.1807	26.06	0.99	-0.750			
0.8311	53191.31	3.1630	3.1630	-0.1799	26.07	1.00	-0.750			
0.8316	53225.28	3.1600	3.1601	-0.1773	26.07	1.00	-0.750			
0.8322	53259.46	3.1570	3.1569	-0.1763	26.08	1.01	-0.750			
0.8327	53293.16	3.1540	3.1539	-0.1748	26.08	1.01	-0.750			
0.8332	53326.77	3.1510	3.1511	-0.1726	26.09	1.02	-0.750			
