Ah_balance (normalized)	Ah_balance (mAh)	Voltage - fit (V)	Voltage -  interpolate (V)	dQ/dV (1/V)	Temperature (°C)	Temperature - diff (°C)	Current (C)	R_DC 0ms (mOhm)	R_DC 50ms (mOhm)	R_DC 50 ms PEC (mOhm)
0.0004	22.70	4.1590	4.1588	-0.1277	25.92	0.01	-0.750			
0.0008	51.22	4.1560	4.1558	-0.1649	25.92	0.01	-0.750			
0.0013	85.00	4.1530	4.1531	-0.2003	25.92	0.01	-0.750			
0.0020	127.58	4.1500	4.1500	-0.2369	25.92	0.01	-0.750			
0.0028	176.79	4.1470	4.1470	-0.2731	25.92	0.01	-0.750			
0.0036	233.26	4.1440	4.1438	-0.3079	25.91	0.00	-0.750			
0.0046	296.30	4.1410	4.1412	-0.3372	25.91	-0.00	-0.750			
0.0057	364.75	4.1380	4.1381	-0.3674	25.91	-0.00	-0.750			
0.0069	438.86	4.1350	4.1350	-0.3977	25.90	-0.01	-0.750			
0.0081	518.09	4.1320	4.1320	-0.4255	25.90	-0.01	-0.750			
0.0094	602.14	4.1290	4.1289	-0.4529	25.89	-0.02	-0.750			
0.0108	691.95	4.1260	4.1260	-0.4763	25.89	-0.02	-0.750			
0.0123	787.32	4.1230	4.1230	-0.5021	25.88	-0.03	-0.750			
0.0139	887.43	4.1200	4.1200	-0.5199	25.88	-0.03	-0.750			
0.0155	989.76	4.1170	4.1170	-0.5377	25.87	-0.04	-0.750			
0.0171	1094.40	4.1140	4.1142	-0.5510	25.87	-0.04	-0.750			
0.0188	1202.26	4.1110	4.1110	-0.5620	25.87	-0.04	-0.750			
0.0205	1310.57	4.1080	4.1080	-0.5743	25.87	-0.04	-0.750			
0.0222	1421.52	4.1050	4.1051	-0.5881	25.87	-0.04	-0.750			
0.0240	1536.43	4.1020	4.1020	-0.6039	25.86	-0.05	-0.750			
0.0258	1654.18	4.0990	4.0989	-0.6126	25.86	-0.05	-0.750			
0.0277	1773.50	4.0960	4.0960	-0.6206	25.86	-0.05	-0.750			
0.0296	1894.41	4.0930	4.0932	-0.6278	25.86	-0.05	-0.750			
0.0315	2016.58	4.0900	4.0900	-0.6354	25.86	-0.05	-0.750			
0.0334	2137.62	4.0870	4.0870	-0.6387	25.86	-0.05	-0.750			
0.0353	2259.68	4.0840	4.0840	-0.6452	25.86	-0.05	-0.750			
0.0373	2386.26	4.0810	4.0809	-0.6525	25.85	-0.06	-0.750			
0.0392	2511.88	4.0780	4.0779	-0.6558	25.85	-0.06	-0.750			
0.0412	2638.65	4.0750	4.0751	-0.6609	25.85	-0.06	-0.750			
0.0432	2766.30	4.0720	4.0718	-0.6599	25.85	-0.06	-0.750			
0.0452	2892.20	4.0690	4.0689	-0.6615	25.85	-0.06	-0.750			
0.0472	3018.04	4.0660	4.0661	-0.6682	25.85	-0.06	-0.750			
0.0491	3145.54	4.0630	4.0631	-0.6702	25.85	-0.06	-0.750			
0.0512	3277.56	4.0600	4.0598	-0.6813	25.85	-0.06	-0.750			
0.0533	3408.35	4.0570	4.0570	-0.6867	25.85	-0.06	-0.750			
0.0553	3540.74	4.0540	4.0540	-0.6921	25.85	-0.06	-0.750			
0.0574	3675.21	4.0510	4.0510	-0.6965	25.85	-0.06	-0.750			
0.0595	3808.90	4.0480	4.0480	-0.6957	25.85	-0.06	-0.750			
0.0616	3943.03	4.0450	4.0451	-0.6944	25.85	-0.06	-0.750			
0.0637	4077.14	4.0420	4.0419	-0.6977	25.85	-0.06	-0.750			
0.0658	4210.58	4.0390	4.0391	-0.6959	25.85	-0.06	-0.750			
0.0679	4343.50	4.0360	4.0360	-0.6975	25.85	-0.06	-0.750			
0.0700	4477.09	4.0330	4.0330	-0.7029	25.85	-0.06	-0.750			
0.0721	4611.94	4.0300	4.0300	-0.7112	25.85	-0.06	-0.750			
0.0742	4750.72	4.0270	4.0269	-0.7112	25.85	-0.06	-0.750			
0.0764	4887.95	4.0240	4.0240	-0.7127	25.85	-0.06	-0.750			
0.0785	5025.15	4.0210	4.0210	-0.7133	25.85	-0.06	-0.750			
0.0807	5162.18	4.0180	4.0180	-0.7155	25.85	-0.06	-0.750			
0.0828	5299.19	4.0150	4.0149	-0.7132	25.85	-0.06	-0.750			
0.0849	5436.01	4.0120	4.0120	-0.7143	25.85	-0.06	-0.750			
0.0871	5573.49	4.0090	4.0090	-0.7152	25.86	-0.05	-0.750			
0.0892	5711.83	4.0060	4.0061	-0.7221	25.86	-0.05	-0.750			
0.0914	5850.25	4.0030	4.0031	-0.7216	25.86	-0.05	-0.750			
0.0936	5988.75	4.0000	3.9999	-0.7247	25.86	-0.05	-0.750			
0.0958	6128.29	3.9970	3.9970	-0.7238	25.86	-0.05	-0.750			
0.0979	6267.52	3.9940	3.9941	-0.7320	25.86	-0.05	-0.750			
0.1002	6409.73	3.9910	3.9910	-0.7306	25.87	-0.04	-0.750			
0.1024	6552.25	3.9880	3.9879	-0.7312	25.87	-0.04	-0.750			
0.1046	6691.53	3.9850	3.9852	-0.7300	25.87	-0.04	-0.750			
0.1067	6831.36	3.9820	3.9821	-0.7318	25.87	-0.04	-0.750			
0.1089	6969.82	3.9790	3.9789	-0.7384	25.87	-0.04	-0.750			
0.1111	7112.52	3.9760	3.9760	-0.7403	25.87	-0.04	-0.750			
0.1134	7255.46	3.9730	3.9729	-0.7446	25.87	-0.04	-0.750			
0.1156	7399.74	3.9700	3.9700	-0.7501	25.87	-0.04	-0.750			
0.1179	7545.78	3.9670	3.9670	-0.7528	25.87	-0.04	-0.750			
0.1201	7688.99	3.9640	3.9639	-0.7546	25.88	-0.03	-0.750			
0.1224	7833.44	3.9610	3.9610	-0.7532	25.88	-0.03	-0.750			
0.1246	7977.50	3.9580	3.9580	-0.7519	25.88	-0.03	-0.750			
0.1269	8123.83	3.9550	3.9550	-0.7574	25.89	-0.02	-0.750			
0.1292	8269.10	3.9520	3.9521	-0.7589	25.89	-0.02	-0.750			
0.1315	8415.07	3.9490	3.9489	-0.7582	25.89	-0.02	-0.750			
0.1338	8560.82	3.9460	3.9460	-0.7620	25.89	-0.02	-0.750			
0.1361	8707.44	3.9430	3.9430	-0.7582	25.89	-0.02	-0.750			
0.1383	8852.55	3.9400	3.9401	-0.7607	25.89	-0.02	-0.750			
0.1406	8999.25	3.9370	3.9369	-0.7627	25.89	-0.02	-0.750			
0.1429	9144.61	3.9340	3.9340	-0.7651	25.89	-0.02	-0.750			
0.1452	9290.04	3.9310	3.9310	-0.7709	25.90	-0.01	-0.750			
0.1475	9439.23	3.9280	3.9279	-0.7778	25.90	-0.01	-0.750			
0.1499	9590.95	3.9250	3.9250	-0.7788	25.90	-0.01	-0.750			
0.1522	9742.13	3.9220	3.9221	-0.7839	25.91	-0.00	-0.750			
0.1546	9893.73	3.9190	3.9193	-0.7823	25.91	0.00	-0.750			
0.1569	10044.22	3.9160	3.9160	-0.7829	25.91	0.00	-0.750			
0.1593	10192.04	3.9130	3.9129	-0.7806	25.92	0.01	-0.750			
0.1616	10340.90	3.9100	3.9101	-0.7843	25.92	0.01	-0.750			
0.1640	10492.98	3.9070	3.9069	-0.7868	25.93	0.02	-0.750			
0.1663	10644.39	3.9040	3.9040	-0.7894	25.93	0.02	-0.750			
0.1687	10796.62	3.9010	3.9010	-0.7882	25.93	0.02	-0.750			
0.1711	10947.85	3.8980	3.8980	-0.7928	25.93	0.02	-0.750			
0.1734	11100.52	3.8950	3.8950	-0.7900	25.93	0.02	-0.750			
0.1758	11250.58	3.8920	3.8920	-0.7978	25.93	0.02	-0.750			
0.1782	11402.98	3.8890	3.8890	-0.8045	25.93	0.02	-0.750			
0.1806	11559.66	3.8860	3.8859	-0.8136	25.93	0.02	-0.750			
0.1831	11716.70	3.8830	3.8830	-0.8192	25.94	0.03	-0.750			
0.1856	11877.85	3.8800	3.8801	-0.8145	25.94	0.03	-0.750			
0.1880	12035.01	3.8770	3.8770	-0.8095	25.94	0.03	-0.750			
0.1905	12189.87	3.8740	3.8739	-0.8084	25.95	0.04	-0.750			
0.1928	12340.94	3.8710	3.8709	-0.7972	25.95	0.04	-0.750			
0.1952	12493.03	3.8680	3.8680	-0.7995	25.96	0.05	-0.750			
0.1976	12645.78	3.8650	3.8650	-0.8016	25.96	0.05	-0.750			
0.2000	12800.59	3.8620	3.8621	-0.8004	25.96	0.05	-0.750			
0.2025	12957.94	3.8590	3.8589	-0.8039	25.97	0.06	-0.750			
0.2049	13111.15	3.8560	3.8561	-0.8026	25.97	0.06	-0.750			
0.2073	13264.64	3.8530	3.8531	-0.8006	25.97	0.06	-0.750			
0.2097	13418.28	3.8500	3.8499	-0.8012	25.97	0.06	-0.750			
0.2121	13571.95	3.8470	3.8470	-0.8000	25.97	0.06	-0.750			
0.2144	13724.59	3.8440	3.8440	-0.8012	25.97	0.06	-0.750			
0.2169	13878.76	3.8410	3.8411	-0.8034	25.97	0.06	-0.750			
0.2193	14034.09	3.8380	3.8379	-0.8035	25.97	0.06	-0.750			
0.2217	14187.91	3.8350	3.8350	-0.8026	25.98	0.07	-0.750			
0.2241	14342.85	3.8320	3.8320	-0.8014	25.98	0.07	-0.750			
0.2265	14496.76	3.8290	3.8290	-0.7964	25.99	0.08	-0.750			
0.2289	14650.33	3.8260	3.8261	-0.7942	25.99	0.08	-0.750			
0.2313	14801.78	3.8230	3.8229	-0.7891	25.99	0.08	-0.750			
0.2336	14951.24	3.8200	3.8199	-0.7879	26.00	0.09	-0.750			
0.2360	15102.95	3.8170	3.8170	-0.7844	26.00	0.09	-0.750			
0.2383	15253.27	3.8140	3.8139	-0.7781	26.00	0.09	-0.750			
0.2407	15405.03	3.8110	3.8110	-0.7745	26.01	0.10	-0.750			
0.2430	15553.56	3.8080	3.8081	-0.7658	26.01	0.10	-0.750			
0.2453	15696.69	3.8050	3.8050	-0.7636	26.01	0.10	-0.750			
0.2475	15842.53	3.8020	3.8020	-0.7623	26.01	0.10	-0.750			
0.2498	15986.99	3.7990	3.7989	-0.7570	26.02	0.11	-0.750			
0.2521	16133.89	3.7960	3.7959	-0.7597	26.02	0.11	-0.750			
0.2544	16282.58	3.7930	3.7934	-0.7601	26.02	0.11	-0.750			
0.2567	16428.21	3.7900	3.7900	-0.7561	26.02	0.11	-0.750			
0.2589	16572.38	3.7870	3.7869	-0.7572	26.03	0.12	-0.750			
0.2612	16717.29	3.7840	3.7840	-0.7489	26.03	0.12	-0.750			
0.2634	16859.94	3.7810	3.7808	-0.7475	26.03	0.12	-0.750			
0.2657	17003.11	3.7780	3.7780	-0.7457	26.04	0.13	-0.750			
0.2679	17146.86	3.7750	3.7750	-0.7418	26.04	0.13	-0.750			
0.2701	17288.11	3.7720	3.7720	-0.7388	26.04	0.13	-0.750			
0.2723	17429.20	3.7690	3.7690	-0.7369	26.04	0.13	-0.750			
0.2745	17568.93	3.7660	3.7661	-0.7362	26.05	0.14	-0.750			
0.2768	17713.13	3.7630	3.7629	-0.7433	26.05	0.14	-0.750			
0.2790	17855.76	3.7600	3.7601	-0.7398	26.05	0.14	-0.750			
0.2812	17998.17	3.7570	3.7570	-0.7444	26.05	0.14	-0.750			
0.2835	18141.41	3.7540	3.7541	-0.7499	26.05	0.14	-0.750			
0.2857	18285.17	3.7510	3.7509	-0.7503	26.06	0.15	-0.750			
0.2879	18428.36	3.7480	3.7480	-0.7538	26.06	0.15	-0.750			
0.2902	18572.83	3.7450	3.7450	-0.7608	26.06	0.15	-0.750			
0.2925	18720.35	3.7420	3.7421	-0.7662	26.06	0.15	-0.750			
0.2948	18869.38	3.7390	3.7390	-0.7728	26.06	0.15	-0.750			
0.2971	19016.10	3.7360	3.7360	-0.7843	26.06	0.15	-0.750			
0.2995	19168.89	3.7330	3.7329	-0.7902	26.07	0.16	-0.750			
0.3019	19322.06	3.7300	3.7299	-0.8002	26.07	0.16	-0.750			
0.3043	19474.88	3.7270	3.7273	-0.8138	26.07	0.16	-0.750			
0.3068	19632.84	3.7240	3.7240	-0.8217	26.07	0.16	-0.750			
0.3092	19791.97	3.7210	3.7209	-0.8394	26.07	0.16	-0.750			
0.3118	19953.02	3.7180	3.7180	-0.8532	26.07	0.16	-0.750			
0.3144	20118.45	3.7150	3.7151	-0.8729	26.07	0.16	-0.750			
0.3170	20289.05	3.7120	3.7121	-0.8870	26.07	0.16	-0.750			
0.3197	20458.87	3.7090	3.7090	-0.9054	26.07	0.16	-0.750			
0.3224	20634.10	3.7060	3.7060	-0.9218	26.07	0.16	-0.750			
0.3252	20815.32	3.7030	3.7029	-0.9379	26.06	0.15	-0.750			
0.3281	20995.92	3.7000	3.6999	-0.9523	26.06	0.15	-0.750			
0.3310	21181.32	3.6970	3.6971	-0.9576	26.06	0.15	-0.750			
0.3339	21367.81	3.6940	3.6939	-0.9793	26.06	0.15	-0.750			
0.3368	21556.30	3.6910	3.6909	-0.9951	26.05	0.14	-0.750			
0.3398	21744.51	3.6880	3.6880	-1.0116	26.05	0.14	-0.750			
0.3428	21942.32	3.6850	3.6851	-1.0397	26.05	0.14	-0.750			
0.3460	22145.78	3.6820	3.6819	-1.0611	26.04	0.13	-0.750			
0.3492	22350.42	3.6790	3.6791	-1.0834	26.04	0.13	-0.750			
0.3525	22560.36	3.6760	3.6761	-1.0966	26.03	0.12	-0.750			
0.3559	22777.42	3.6730	3.6729	-1.1294	26.03	0.12	-0.750			
0.3593	22996.34	3.6700	3.6700	-1.1414	26.02	0.11	-0.750			
0.3628	23216.21	3.6670	3.6670	-1.1584	26.02	0.11	-0.750			
0.3663	23441.06	3.6640	3.6641	-1.1811	26.01	0.10	-0.750			
0.3698	23669.50	3.6610	3.6609	-1.2094	26.01	0.10	-0.750			
0.3735	23901.67	3.6580	3.6579	-1.2273	26.00	0.09	-0.750			
0.3772	24139.68	3.6550	3.6550	-1.2558	25.99	0.08	-0.750			
0.3810	24382.26	3.6520	3.6521	-1.2779	25.99	0.08	-0.750			
0.3849	24634.62	3.6490	3.6490	-1.3083	25.98	0.07	-0.750			
0.3889	24887.24	3.6460	3.6459	-1.3279	25.97	0.06	-0.750			
0.3929	25143.69	3.6430	3.6430	-1.3524	25.97	0.06	-0.750			
0.3970	25409.07	3.6400	3.6398	-1.3770	25.96	0.05	-0.750			
0.4011	25672.92	3.6370	3.6370	-1.4189	25.96	0.05	-0.750			
0.4055	25948.83	3.6340	3.6341	-1.4416	25.95	0.04	-0.750			
0.4098	26230.38	3.6310	3.6309	-1.4677	25.94	0.03	-0.750			
0.4143	26514.03	3.6280	3.6280	-1.5004	25.93	0.02	-0.750			
0.4188	26801.52	3.6250	3.6249	-1.5243	25.93	0.02	-0.750			
0.4234	27097.80	3.6220	3.6220	-1.5619	25.92	0.01	-0.750			
0.4281	27401.28	3.6190	3.6191	-1.5733	25.91	0.00	-0.750			
0.4328	27700.79	3.6160	3.6159	-1.6076	25.90	-0.01	-0.750			
0.4378	28017.06	3.6130	3.6129	-1.6397	25.90	-0.01	-0.750	0.403	0.549	
0.4427	28333.80	3.6100	3.6102	-1.6682	25.89	-0.02	-0.750			
0.4477	28654.83	3.6070	3.6071	-1.7044	25.88	-0.03	-0.750			
0.4530	28991.78	3.6040	3.6038	-1.7496	25.87	-0.04	-0.750			
0.4582	29326.12	3.6010	3.6009	-1.7736	25.86	-0.05	-0.750			
0.4637	29673.61	3.5980	3.5978	-1.8102	25.86	-0.05	-0.750			
0.4691	30019.90	3.5950	3.5952	-1.8480	25.85	-0.06	-0.750			
0.4747	30381.60	3.5920	3.5919	-1.8694	25.84	-0.07	-0.750			
0.4804	30744.21	3.5890	3.5890	-1.9066	25.84	-0.07	-0.750			
0.4862	31115.87	3.5860	3.5858	-1.9418	25.83	-0.08	-0.750			
0.4920	31489.27	3.5830	3.5833	-1.9859	25.82	-0.09	-0.750			
0.4980	31873.67	3.5800	3.5803	-2.0288	25.82	-0.09	-0.750			
0.5042	32266.72	3.5770	3.5771	-2.0649	25.82	-0.09	-0.750			
0.5104	32667.91	3.5740	3.5741	-2.0997	25.82	-0.09	-0.750			
0.5169	33083.71	3.5710	3.5709	-2.1413	25.81	-0.10	-0.750			
0.5234	33500.35	3.5680	3.5679	-2.1563	25.80	-0.11	-0.750			
0.5300	33921.11	3.5650	3.5650	-2.1391	25.80	-0.11	-0.750			
0.5364	34330.05	3.5620	3.5621	-2.1397	25.79	-0.12	-0.750			
0.5427	34734.69	3.5590	3.5590	-2.1381	25.79	-0.12	-0.750			
0.5491	35143.57	3.5560	3.5560	-2.1534	25.79	-0.12	-0.750			
0.5556	35558.31	3.5530	3.5530	-2.1419	25.79	-0.12	-0.750			
0.5620	35970.81	3.5500	3.5500	-2.1472	25.79	-0.12	-0.750			
0.5685	36385.56	3.5470	3.5471	-2.1629	25.79	-0.12	-0.750			
0.5750	36802.44	3.5440	3.5440	-2.1546	25.79	-0.12	-0.750			
0.5816	37220.56	3.5410	3.5409	-2.1351	25.79	-0.12	-0.750			
0.5880	37630.95	3.5380	3.5381	-2.1111	25.79	-0.12	-0.750			
0.5944	38039.49	3.5350	3.5351	-2.0991	25.79	-0.12	-0.750			
0.6005	38434.39	3.5320	3.5318	-2.0569	25.79	-0.12	-0.750			
0.6066	38822.91	3.5290	3.5289	-2.0080	25.79	-0.12	-0.750			
0.6126	39206.50	3.5260	3.5262	-1.9860	25.80	-0.11	-0.750			
0.6186	39589.43	3.5230	3.5230	-1.9417	25.81	-0.10	-0.750			
0.6244	39958.53	3.5200	3.5201	-1.8849	25.81	-0.10	-0.750			
0.6299	40315.87	3.5170	3.5170	-1.8341	25.81	-0.10	-0.750			
0.6353	40656.16	3.5140	3.5138	-1.7863	25.82	-0.09	-0.750			
0.6405	40994.75	3.5110	3.5109	-1.7465	25.83	-0.08	-0.750			
0.6457	41326.67	3.5080	3.5079	-1.6922	25.84	-0.07	-0.750			
0.6507	41647.27	3.5050	3.5049	-1.6570	25.85	-0.06	-0.750			
0.6556	41960.04	3.5020	3.5021	-1.6102	25.86	-0.05	-0.750			
0.6605	42269.95	3.4990	3.4989	-1.5610	25.87	-0.04	-0.750			
0.6651	42563.96	3.4960	3.4958	-1.5179	25.89	-0.02	-0.750			
0.6695	42848.99	3.4930	3.4929	-1.4602	25.90	-0.01	-0.750			
0.6739	43128.28	3.4900	3.4899	-1.4241	25.91	0.00	-0.750			
0.6781	43397.96	3.4870	3.4871	-1.3900	25.93	0.02	-0.750			
0.6822	43660.29	3.4840	3.4839	-1.3453	25.94	0.03	-0.750			
0.6861	43908.41	3.4810	3.4809	-1.2909	25.96	0.05	-0.750			
0.6900	44158.55	3.4780	3.4781	-1.2594	25.98	0.07	-0.750			
0.6936	44391.56	3.4750	3.4750	-1.2180	26.00	0.09	-0.750			
0.6973	44627.37	3.4720	3.4719	-1.1898	26.01	0.10	-0.750			
0.7008	44851.33	3.4690	3.4689	-1.1458	26.02	0.11	-0.750			
0.7041	45064.25	3.4660	3.4662	-1.1038	26.03	0.12	-0.750			
0.7074	45275.52	3.4630	3.4630	-1.0759	26.04	0.13	-0.750			
0.7106	45478.54	3.4600	3.4600	-1.0347	26.06	0.15	-0.750			
0.7136	45672.47	3.4570	3.4569	-1.0005	26.07	0.16	-0.750			
0.7166	45860.61	3.4540	3.4540	-0.9698	26.09	0.18	-0.750			
0.7194	46041.61	3.4510	3.4510	-0.9426	26.09	0.18	-0.750			
0.7222	46219.25	3.4480	3.4481	-0.9188	26.10	0.19	-0.750			
0.7249	46392.06	3.4450	3.4450	-0.8960	26.10	0.19	-0.750			
0.7275	46561.63	3.4420	3.4420	-0.8784	26.11	0.20	-0.750			
0.7301	46727.96	3.4390	3.4391	-0.8731	26.11	0.20	-0.750			
0.7327	46893.26	3.4360	3.4359	-0.8626	26.13	0.22	-0.750			
0.7353	47058.22	3.4330	3.4329	-0.8621	26.14	0.23	-0.750			
0.7379	47222.52	3.4300	3.4300	-0.8640	26.15	0.24	-0.750			
0.7404	47387.11	3.4270	3.4270	-0.8734	26.16	0.25	-0.750			
0.7431	47555.48	3.4240	3.4240	-0.8860	26.17	0.26	-0.750			
0.7457	47726.35	3.4210	3.4209	-0.8999	26.18	0.27	-0.750			
0.7485	47900.96	3.4180	3.4179	-0.9051	26.19	0.28	-0.750			
0.7512	48077.23	3.4150	3.4150	-0.9111	26.20	0.29	-0.750			
0.7540	48255.22	3.4120	3.4123	-0.9187	26.21	0.30	-0.750			
0.7567	48431.45	3.4090	3.4089	-0.9187	26.22	0.31	-0.750			
0.7595	48607.89	3.4060	3.4059	-0.9135	26.23	0.32	-0.750			
0.7622	48782.56	3.4030	3.4030	-0.9031	26.24	0.33	-0.750			
0.7649	48956.14	3.4000	3.4000	-0.8914	26.25	0.34	-0.750			
0.7677	49131.56	3.3970	3.3970	-0.8817	26.26	0.35	-0.750			
0.7703	49298.06	3.3940	3.3941	-0.8595	26.27	0.36	-0.750			
0.7728	49461.80	3.3910	3.3909	-0.8362	26.27	0.36	-0.750			
0.7753	49620.33	3.3880	3.3879	-0.8120	26.28	0.37	-0.750			
0.7777	49774.70	3.3850	3.3850	-0.7855	26.29	0.38	-0.750			
0.7800	49923.02	3.3820	3.3821	-0.7524	26.29	0.38	-0.750			
0.7823	50066.50	3.3790	3.3789	-0.7235	26.30	0.39	-0.750			
0.7844	50199.94	3.3760	3.3760	-0.6977	26.31	0.40	-0.750			
0.7864	50328.07	3.3730	3.3729	-0.6703	26.32	0.41	-0.750			
0.7884	50456.30	3.3700	3.3699	-0.6501	26.33	0.42	-0.750			
0.7903	50578.48	3.3670	3.3669	-0.6271	26.33	0.42	-0.750			
0.7922	50697.81	3.3640	3.3643	-0.6082	26.34	0.43	-0.750			
0.7940	50812.89	3.3610	3.3610	-0.5883	26.34	0.43	-0.750			
0.7957	50923.73	3.3580	3.3579	-0.5639	26.35	0.44	-0.750			
0.7973	51029.06	3.3550	3.3550	-0.5422	26.35	0.44	-0.750			
0.7989	51129.88	3.3520	3.3521	-0.5267	26.36	0.45	-0.750			
0.8005	51229.57	3.3490	3.3490	-0.5111	26.36	0.45	-0.750			
0.8020	51325.81	3.3460	3.3459	-0.4939	26.36	0.45	-0.750			
0.8034	51419.25	3.3430	3.3430	-0.4770	26.37	0.46	-0.750			
0.8048	51509.58	3.3400	3.3401	-0.4622	26.37	0.46	-0.750			
0.8062	51597.51	3.3370	3.3370	-0.4482	26.38	0.47	-0.750			
0.8075	51681.16	3.3340	3.3340	-0.4338	26.39	0.48	-0.750			
0.8088	51762.09	3.3310	3.3309	-0.4185	26.39	0.48	-0.750			
0.8100	51842.09	3.3280	3.3280	-0.4065	26.40	0.49	-0.750			
0.8112	51919.40	3.3250	3.3251	-0.3948	26.41	0.50	-0.750			
0.8124	51993.49	3.3220	3.3220	-0.3823	26.41	0.50	-0.750			
0.8135	52065.38	3.3190	3.3190	-0.3708	26.42	0.51	-0.750			
0.8146	52134.38	3.3160	3.3160	-0.3591	26.43	0.52	-0.750			
0.8157	52202.03	3.3130	3.3129	-0.3500	26.43	0.52	-0.750			
0.8167	52268.87	3.3100	3.3101	-0.3423	26.44	0.53	-0.750			
0.8177	52334.00	3.3070	3.3070	-0.3330	26.44	0.53	-0.750			
0.8187	52397.09	3.3040	3.3040	-0.3250	26.45	0.54	-0.750			
0.8197	52458.78	3.3010	3.3010	-0.3172	26.46	0.55	-0.750			
0.8206	52518.28	3.2980	3.2980	-0.3077	26.46	0.55	-0.750			
0.8215	52576.51	3.2950	3.2950	-0.3008	26.47	0.56	-0.750			
0.8224	52633.32	3.2920	3.2921	-0.2947	26.47	0.56	-0.750			
0.8233	52689.32	3.2890	3.2890	-0.2885	26.48	0.57	-0.750			
0.8241	52744.24	3.2860	3.2860	-0.2827	26.48	0.57	-0.750			
0.8250	52797.59	3.2830	3.2830	-0.2765	26.49	0.58	-0.750			
0.8258	52850.35	3.2800	3.2800	-0.2715	26.49	0.58	-0.750			
0.8266	52901.86	3.2770	3.2770	-0.2678	26.49	0.58	-0.750			
0.8274	52952.76	3.2740	3.2740	-0.2624	26.50	0.59	-0.750			
0.8282	53002.57	3.2710	3.2710	-0.2575	26.50	0.59	-0.750			
0.8289	53051.86	3.2680	3.2679	-0.2538	26.51	0.60	-0.750			
0.8297	53100.29	3.2650	3.2651	-0.2493	26.51	0.60	-0.750			
0.8304	53147.73	3.2620	3.2619	-0.2441	26.52	0.61	-0.750			
0.8312	53194.09	3.2590	3.2590	-0.2400	26.53	0.62	-0.750			
0.8319	53239.55	3.2560	3.2560	-0.2351	26.53	0.62	-0.750			
0.8326	53283.72	3.2530	3.2530	-0.2304	26.54	0.63	-0.750			
0.8332	53327.70	3.2500	3.2500	-0.2282	26.54	0.63	-0.750			
0.8339	53371.23	3.2470	3.2470	-0.2238	26.55	0.64	-0.750			
0.8346	53413.89	3.2440	3.2439	-0.2206	26.55	0.64	-0.750			
0.8352	53455.88	3.2410	3.2410	-0.2179	26.56	0.65	-0.750			
0.8359	53497.60	3.2380	3.2381	-0.2151	26.57	0.66	-0.750			
0.8365	53538.30	3.2350	3.2350	-0.2118	26.57	0.66	-0.750			
0.8372	53578.71	3.2320	3.2320	-0.2091	26.58	0.67	-0.750			
0.8378	53618.56	3.2290	3.2290	-0.2065	26.58	0.67	-0.750			
0.8384	53657.62	3.2260	3.2260	-0.2037	26.59	0.68	-0.750			
0.8390	53697.07	3.2230	3.2230	-0.2021	26.59	0.68	-0.750			
0.8396	53735.56	3.2200	3.2200	-0.1989	26.60	0.69	-0.750			
0.8402	53773.26	3.2170	3.2170	-0.1962	26.60	0.69	-0.750			
0.8408	53810.82	3.2140	3.2139	-0.1938	26.61	0.70	-0.750			
0.8414	53847.70	3.2110	3.2110	-0.1909	26.61	0.70	-0.750			
0.8419	53884.10	3.2080	3.2079	-0.1882	26.62	0.71	-0.750			
0.8425	53919.90	3.2050	3.2050	-0.1859	26.63	0.72	-0.750			
0.8430	53954.99	3.2020	3.2021	-0.1840	26.63	0.72	-0.750			
0.8436	53990.49	3.1990	3.1989	-0.1821	26.64	0.73	-0.750			
0.8441	54025.25	3.1960	3.1960	-0.1800	26.64	0.73	-0.750			
0.8447	54059.52	3.1930	3.1930	-0.1776	26.65	0.74	-0.750			
0.8452	54093.56	3.1900	3.1901	-0.1758	26.65	0.74	-0.750			
0.8457	54127.22	3.1870	3.1871	-0.1736	26.66	0.75	-0.750			
0.8463	54160.08	3.1840	3.1839	-0.1726	26.67	0.76	-0.750			
0.8468	54192.89	3.1810	3.1810	-0.1708	26.67	0.76	-0.750			
0.8473	54225.38	3.1780	3.1780	-0.1687	26.68	0.77	-0.750			
0.8478	54258.03	3.1750	3.1750	-0.1683	26.68	0.77	-0.750			
0.8483	54290.12	3.1720	3.1721	-0.1667	26.69	0.78	-0.750			
0.8488	54322.08	3.1690	3.1690	-0.1650	26.69	0.78	-0.750			
0.8493	54353.37	3.1660	3.1660	-0.1638	26.70	0.79	-0.750			
0.8498	54384.70	3.1630	3.1630	-0.1625	26.70	0.79	-0.750			
0.8502	54415.65	3.1600	3.1600	-0.1600	26.71	0.80	-0.750			
0.8507	54446.44	3.1570	3.1569	-0.1586	26.71	0.80	-0.750			
