Ah_balance (normalized)	Ah_balance (mAh)	Voltage - fit (V)	Voltage -  interpolate (V)	dQ/dV (1/V)	Temperature (°C)	Temperature - diff (°C)	Current (C)	R_DC 0ms (mOhm)	R_DC 50ms (mOhm)	R_DC 50 ms PEC (mOhm)
0.0497	3179.88	4.1980	4.1980	0.7477	26.34	0.39	0.750			
0.0519	3324.77	4.1950	4.1951	0.7585	26.34	0.39	0.750			
0.0542	3471.14	4.1920	4.1920	0.7657	26.34	0.39	0.750			
0.0566	3620.00	4.1890	4.1890	0.7661	26.34	0.39	0.750			
0.0589	3767.35	4.1860	4.1861	0.7720	26.35	0.40	0.750			
0.0612	3915.43	4.1830	4.1830	0.7713	26.35	0.40	0.750			
0.0635	4063.52	4.1800	4.1798	0.7790	26.35	0.40	0.750			
0.0658	4214.01	4.1770	4.1770	0.7771	26.35	0.40	0.750			
0.0682	4363.68	4.1740	4.1740	0.7755	26.35	0.40	0.750			
0.0705	4513.43	4.1710	4.1710	0.7786	26.34	0.39	0.750			
0.0729	4663.55	4.1680	4.1680	0.7800	26.34	0.39	0.750			
0.0752	4811.38	4.1650	4.1649	0.7766	26.34	0.39	0.750			
0.0775	4960.74	4.1620	4.1621	0.7812	26.34	0.39	0.750			
0.0798	5109.40	4.1590	4.1590	0.7827	26.34	0.39	0.750			
0.0822	5261.68	4.1560	4.1560	0.7828	26.34	0.39	0.750			
0.0845	5409.81	4.1530	4.1530	0.7916	26.35	0.40	0.750			
0.0869	5561.95	4.1500	4.1502	0.7957	26.35	0.40	0.750			
0.0893	5715.99	4.1470	4.1471	0.7989	26.35	0.40	0.750			
0.0917	5871.37	4.1440	4.1441	0.7988	26.35	0.40	0.750			
0.0942	6028.49	4.1410	4.1411	0.7850	26.35	0.40	0.750			
0.0965	6175.58	4.1380	4.1381	0.7859	26.34	0.39	0.750			
0.0988	6323.00	4.1350	4.1353	0.7748	26.34	0.39	0.750			
0.1011	6469.87	4.1320	4.1312	0.7781	26.34	0.39	0.750			
0.1034	6618.90	4.1290	4.1292	0.7867	26.34	0.39	0.750			
0.1058	6772.46	4.1260	4.1261	0.7916	26.34	0.39	0.750			
0.1083	6929.31	4.1230	4.1230	0.8060	26.35	0.40	0.750			
0.1107	7081.91	4.1200	4.1200	0.7993	26.35	0.40	0.750			
0.1131	7236.18	4.1170	4.1170	0.8023	26.35	0.40	0.750			
0.1155	7392.36	4.1140	4.1139	0.8053	26.35	0.40	0.750			
0.1179	7548.15	4.1110	4.1110	0.7976	26.35	0.40	0.750			
0.1203	7700.09	4.1080	4.1081	0.8023	26.35	0.40	0.750			
0.1227	7853.40	4.1050	4.1050	0.8061	26.35	0.40	0.750			
0.1251	8006.15	4.1020	4.1020	0.8049	26.35	0.40	0.750			
0.1275	8161.94	4.0990	4.0991	0.8085	26.35	0.40	0.750			
0.1300	8320.60	4.0960	4.0959	0.8085	26.35	0.40	0.750			
0.1324	8475.69	4.0930	4.0931	0.8124	26.35	0.40	0.750			
0.1349	8632.41	4.0900	4.0901	0.8184	26.35	0.40	0.750			
0.1373	8786.01	4.0870	4.0870	0.8192	26.35	0.40	0.750			
0.1398	8944.56	4.0840	4.0841	0.8285	26.35	0.40	0.750			
0.1423	9104.42	4.0810	4.0810	0.8332	26.35	0.40	0.750			
0.1448	9266.28	4.0780	4.0779	0.8399	26.35	0.40	0.750			
0.1474	9430.73	4.0750	4.0752	0.8466	26.35	0.40	0.750			
0.1499	9592.83	4.0720	4.0719	0.8406	26.35	0.40	0.750			
0.1524	9754.02	4.0690	4.0690	0.8361	26.35	0.40	0.750			
0.1549	9915.07	4.0660	4.0660	0.8236	26.35	0.40	0.750			
0.1574	10070.65	4.0630	4.0631	0.8293	26.35	0.40	0.750			
0.1598	10229.44	4.0600	4.0600	0.8365	26.35	0.40	0.750			
0.1623	10389.09	4.0570	4.0569	0.8400	26.35	0.40	0.750			
0.1649	10551.42	4.0540	4.0541	0.8461	26.35	0.40	0.750			
0.1675	10717.70	4.0510	4.0511	0.8506	26.35	0.40	0.750			
0.1700	10881.30	4.0480	4.0480	0.8558	26.35	0.40	0.750			
0.1726	11048.04	4.0450	4.0450	0.8590	26.35	0.40	0.750			
0.1751	11208.87	4.0420	4.0420	0.8542	26.35	0.40	0.750			
0.1777	11373.71	4.0390	4.0392	0.8574	26.35	0.40	0.750			
0.1803	11538.88	4.0360	4.0360	0.8622	26.35	0.40	0.750			
0.1829	11705.61	4.0330	4.0330	0.8634	26.35	0.40	0.750			
0.1855	11871.35	4.0300	4.0300	0.8745	26.35	0.40	0.750			
0.1881	12037.23	4.0270	4.0270	0.8753	26.35	0.40	0.750			
0.1907	12206.61	4.0240	4.0241	0.8839	26.35	0.40	0.750			
0.1934	12378.00	4.0210	4.0209	0.8779	26.35	0.40	0.750			
0.1961	12548.95	4.0180	4.0181	0.8783	26.35	0.40	0.750			
0.1987	12715.48	4.0150	4.0151	0.8785	26.35	0.40	0.750			
0.2013	12883.26	4.0120	4.0118	0.8792	26.35	0.40	0.750			
0.2040	13053.22	4.0090	4.0090	0.8682	26.35	0.40	0.750			
0.2066	13219.45	4.0060	4.0060	0.8647	26.35	0.40	0.750			
0.2092	13386.32	4.0030	4.0031	0.8692	26.35	0.40	0.750			
0.2118	13552.16	4.0000	4.0002	0.8714	26.35	0.40	0.750			
0.2143	13718.15	3.9970	3.9968	0.8747	26.35	0.40	0.750			
0.2170	13885.43	3.9940	3.9940	0.8753	26.35	0.40	0.750			
0.2196	14053.76	3.9910	3.9910	0.8836	26.35	0.40	0.750			
0.2223	14225.42	3.9880	3.9881	0.8987	26.35	0.40	0.750			
0.2250	14400.34	3.9850	3.9849	0.9027	26.35	0.40	0.750			
0.2277	14573.80	3.9820	3.9821	0.9058	26.35	0.40	0.750			
0.2304	14747.64	3.9790	3.9790	0.9065	26.35	0.40	0.750			
0.2332	14922.97	3.9760	3.9760	0.9145	26.35	0.40	0.750			
0.2359	15100.31	3.9730	3.9731	0.9180	26.35	0.40	0.750			
0.2387	15275.08	3.9700	3.9697	0.9196	26.35	0.40	0.750			
0.2415	15455.59	3.9670	3.9670	0.9119	26.35	0.40	0.750			
0.2442	15630.07	3.9640	3.9640	0.9212	26.35	0.40	0.750			
0.2469	15804.43	3.9610	3.9610	0.9311	26.35	0.40	0.750			
0.2497	15983.65	3.9580	3.9582	0.9392	26.35	0.40	0.750			
0.2526	16163.22	3.9550	3.9551	0.9410	26.35	0.40	0.750			
0.2554	16345.41	3.9520	3.9521	0.9388	26.35	0.40	0.750			
0.2582	16527.08	3.9490	3.9492	0.9390	26.35	0.40	0.750			
0.2611	16708.25	3.9460	3.9461	0.9405	26.35	0.40	0.750			
0.2639	16886.88	3.9430	3.9427	0.9334	26.35	0.40	0.750			
0.2667	17068.19	3.9400	3.9400	0.9207	26.35	0.40	0.750			
0.2694	17244.20	3.9370	3.9371	0.9308	26.35	0.40	0.750			
0.2722	17422.76	3.9340	3.9341	0.9412	26.36	0.41	0.750			
0.2750	17601.91	3.9310	3.9311	0.9392	26.36	0.41	0.750			
0.2779	17787.69	3.9280	3.9281	0.9355	26.36	0.41	0.750			
0.2807	17965.77	3.9250	3.9251	0.9411	26.36	0.41	0.750			
0.2836	18147.45	3.9220	3.9221	0.9449	26.37	0.42	0.750			
0.2864	18330.43	3.9190	3.9190	0.9575	26.37	0.42	0.750			
0.2892	18510.43	3.9160	3.9159	0.9529	26.37	0.42	0.750			
0.2921	18693.49	3.9130	3.9131	0.9555	26.36	0.41	0.750			
0.2950	18880.64	3.9100	3.9102	0.9635	26.36	0.41	0.750			
0.2979	19067.75	3.9070	3.9070	0.9659	26.36	0.41	0.750			
0.3008	19251.14	3.9040	3.9039	0.9613	26.35	0.40	0.750			
0.3037	19439.13	3.9010	3.9010	0.9521	26.35	0.40	0.750			
0.3065	19618.91	3.8980	3.8980	0.9542	26.35	0.40	0.750			
0.3094	19801.71	3.8950	3.8951	0.9629	26.35	0.40	0.750			
0.3123	19984.72	3.8920	3.8921	0.9694	26.35	0.40	0.750			
0.3152	20172.46	3.8890	3.8891	0.9831	26.35	0.40	0.750			
0.3182	20362.31	3.8860	3.8861	0.9803	26.35	0.40	0.750			
0.3211	20550.04	3.8830	3.8830	0.9906	26.35	0.40	0.750			
0.3241	20744.75	3.8800	3.8802	1.0032	26.35	0.40	0.750			
0.3271	20936.00	3.8770	3.8771	0.9948	26.35	0.40	0.750			
0.3301	21126.00	3.8740	3.8740	1.0018	26.35	0.40	0.750			
0.3331	21319.24	3.8710	3.8712	1.0071	26.34	0.39	0.750			
0.3362	21514.48	3.8680	3.8681	1.0168	26.34	0.39	0.750			
0.3392	21710.89	3.8650	3.8651	1.0115	26.34	0.39	0.750			
0.3423	21906.16	3.8620	3.8620	1.0174	26.33	0.38	0.750			
0.3453	22100.66	3.8590	3.8590	1.0276	26.33	0.38	0.750			
0.3484	22298.62	3.8560	3.8560	1.0355	26.32	0.37	0.750			
0.3516	22500.55	3.8530	3.8530	1.0343	26.32	0.37	0.750			
0.3546	22696.03	3.8500	3.8500	1.0559	26.31	0.36	0.750			
0.3577	22895.79	3.8470	3.8472	1.0817	26.31	0.36	0.750			
0.3611	23107.92	3.8440	3.8441	1.1127	26.30	0.35	0.750			
0.3645	23326.52	3.8410	3.8409	1.1271	26.30	0.35	0.750			
0.3679	23546.49	3.8380	3.8382	1.1371	26.29	0.34	0.750			
0.3714	23770.31	3.8350	3.8353	1.1532	26.28	0.33	0.750			
0.3749	23993.98	3.8320	3.8319	1.1489	26.27	0.32	0.750			
0.3783	24211.56	3.8290	3.8289	1.1370	26.27	0.32	0.750			
0.3816	24424.76	3.8260	3.8261	1.1415	26.26	0.31	0.750			
0.3851	24644.35	3.8230	3.8231	1.1612	26.26	0.31	0.750			
0.3886	24872.40	3.8200	3.8198	1.1755	26.25	0.30	0.750			
0.3921	25097.35	3.8170	3.8171	1.1741	26.24	0.29	0.750			
0.3957	25322.74	3.8140	3.8141	1.1562	26.23	0.28	0.750			
0.3991	25541.97	3.8110	3.8113	1.1335	26.22	0.27	0.750			
0.4023	25745.43	3.8080	3.8085	1.1634	26.21	0.26	0.750			
0.4057	25967.77	3.8050	3.8030	1.1993	26.20	0.25	0.750			
0.4094	26199.56	3.8020	3.8026	1.2189	26.20	0.25	0.750			
0.4131	26441.47	3.7990	3.7993	1.2564	26.19	0.24	0.750			
0.4171	26696.23	3.7960	3.7962	1.2721	26.18	0.23	0.750			
0.4211	26953.39	3.7930	3.7930	1.2777	26.17	0.22	0.750			
0.4247	27183.57	3.7900	3.7900	1.2280	26.15	0.20	0.750			
0.4284	27416.94	3.7870	3.7872	1.2455	26.14	0.19	0.750			
0.4322	27661.27	3.7840	3.7841	1.2405	26.13	0.18	0.750			
0.4359	27896.28	3.7810	3.7812	1.2544	26.12	0.17	0.750			
0.4398	28145.89	3.7780	3.7779	1.2639	26.11	0.16	0.750			
0.4433	28373.42	3.7750	3.7754	1.2870	26.09	0.14	0.750			
0.4473	28624.12	3.7720	3.7725	1.3184	26.08	0.13	0.750			
0.4513	28883.74	3.7690	3.7693	1.3496	26.07	0.12	0.750			
0.4554	29143.82	3.7660	3.7664	1.3892	26.06	0.11	0.750			
0.4599	29432.72	3.7630	3.7631	1.4325	26.04	0.09	0.750			
0.4641	29701.23	3.7600	3.7599	1.4349	26.03	0.08	0.750			
0.4686	29993.08	3.7570	3.7571	1.4518	26.01	0.06	0.750	0.305	0.379	
0.4729	30264.24	3.7540	3.7541	1.4629	26.00	0.05	0.750			
0.4771	30533.64	3.7510	3.7511	1.4670	25.99	0.04	0.750			
0.4814	30809.56	3.7480	3.7483	1.5283	25.98	0.03	0.750			
0.4859	31095.93	3.7450	3.7433	1.5602	25.97	0.02	0.750			
0.4907	31403.59	3.7420	3.7423	1.6288	25.95	0.00	0.750			
0.4957	31725.42	3.7390	3.7392	1.6705	25.94	-0.01	0.750			
0.5011	32069.80	3.7360	3.7361	1.7262	25.93	-0.02	0.750			
0.5066	32419.79	3.7330	3.7331	1.7872	25.91	-0.04	0.750			
0.5116	32743.22	3.7300	3.7301	1.7759	25.90	-0.05	0.750			
0.5171	33091.53	3.7270	3.7272	1.8313	25.88	-0.07	0.750			
0.5227	33451.04	3.7240	3.7242	1.8669	25.86	-0.09	0.750			
0.5284	33816.62	3.7210	3.7212	1.9364	25.84	-0.11	0.750			
0.5343	34193.52	3.7180	3.7180	1.9897	25.83	-0.12	0.750			
0.5405	34590.65	3.7150	3.7148	2.0241	25.81	-0.14	0.750			
0.5466	34984.34	3.7120	3.7120	2.0823	25.79	-0.16	0.750			
0.5529	35384.27	3.7090	3.7091	2.1557	25.78	-0.17	0.750			
0.5595	35806.12	3.7060	3.7060	2.2378	25.76	-0.19	0.750			
0.5663	36243.48	3.7030	3.7025	2.3277	25.74	-0.21	0.750			
0.5736	36708.03	3.7000	3.7004	2.4042	25.73	-0.22	0.750			
0.5811	37190.15	3.6970	3.6971	2.4403	25.70	-0.25	0.750			
0.5887	37678.86	3.6940	3.6937	2.5207	25.68	-0.27	0.750			
0.5958	38130.73	3.6910	3.6912	2.5280	25.67	-0.28	0.750			
0.6033	38609.46	3.6880	3.6883	2.6065	25.66	-0.29	0.750			
0.6113	39124.04	3.6850	3.6851	2.6920	25.64	-0.31	0.750			
0.6196	39654.74	3.6820	3.6824	2.8146	25.63	-0.32	0.750			
0.6286	40230.90	3.6790	3.6791	2.9950	25.61	-0.34	0.750			
0.6373	40790.02	3.6760	3.6758	3.0496	25.60	-0.35	0.750			
0.6471	41411.94	3.6730	3.6730	3.0045	25.59	-0.36	0.750			
0.6562	41994.50	3.6700	3.6698	2.9069	25.57	-0.38	0.750			
0.6646	42535.72	3.6670	3.6672	2.7691	25.56	-0.39	0.750			
0.6721	43015.27	3.6640	3.6639	2.8465	25.56	-0.39	0.750			
0.6806	43559.79	3.6610	3.6613	3.2620	25.56	-0.39	0.750			
0.6904	44186.97	3.6580	3.6587	3.1487	25.55	-0.40	0.750			
0.7013	44885.65	3.6550	3.6554	3.0391	25.55	-0.40	0.750			
0.7087	45357.72	3.6520	3.6521	2.5034	25.56	-0.39	0.750			
0.7152	45771.06	3.6490	3.6486	2.1111	25.56	-0.39	0.750			
0.7206	46116.17	3.6460	3.6456	1.8191	25.56	-0.39	0.750			
0.7257	46443.02	3.6430	3.6429	1.6578	25.56	-0.39	0.750			
0.7304	46747.98	3.6400	3.6401	1.5343	25.57	-0.38	0.750			
0.7347	47018.36	3.6370	3.6371	1.4121	25.57	-0.38	0.750			
0.7387	47276.84	3.6340	3.6336	1.3091	25.58	-0.37	0.750			
0.7424	47511.35	3.6310	3.6311	1.2525	25.58	-0.37	0.750			
0.7460	47744.64	3.6280	3.6281	1.2276	25.59	-0.36	0.750			
0.7496	47976.22	3.6250	3.6249	1.2073	25.59	-0.36	0.750			
0.7532	48202.21	3.6220	3.6221	1.1977	25.59	-0.36	0.750			
0.7568	48432.17	3.6190	3.6190	1.2078	25.59	-0.36	0.750			
0.7604	48667.28	3.6160	3.6160	1.2194	25.59	-0.36	0.750			
0.7641	48905.01	3.6130	3.6130	1.2108	25.59	-0.36	0.750			
0.7678	49136.82	3.6100	3.6101	1.2110	25.59	-0.36	0.750			
0.7715	49373.20	3.6070	3.6071	1.2096	25.60	-0.35	0.750			
0.7751	49608.66	3.6040	3.6038	1.1907	25.60	-0.35	0.750			
0.7786	49833.06	3.6010	3.6011	1.1696	25.60	-0.35	0.750			
0.7821	50054.08	3.5980	3.5982	1.1626	25.60	-0.35	0.750			
0.7855	50273.31	3.5950	3.5950	1.1721	25.61	-0.34	0.750			
0.7890	50495.21	3.5920	3.5920	1.1674	25.61	-0.34	0.750			
0.7925	50717.97	3.5890	3.5891	1.1993	25.61	-0.34	0.750			
0.7961	50952.05	3.5860	3.5860	1.2345	25.62	-0.33	0.750			
0.8000	51198.58	3.5830	3.5829	1.2521	25.62	-0.33	0.750			
0.8037	51438.82	3.5800	3.5801	1.2922	25.62	-0.33	0.750			
0.8076	51684.05	3.5770	3.5771	1.3284	25.62	-0.33	0.750			
0.8116	51943.37	3.5740	3.5741	1.3678	25.62	-0.33	0.750			
0.8158	52212.35	3.5710	3.5712	1.4069	25.62	-0.33	0.750			
0.8200	52480.53	3.5680	3.5679	1.4540	25.63	-0.32	0.750			
0.8246	52772.75	3.5650	3.5651	1.4928	25.63	-0.32	0.750			
0.8293	53073.21	3.5620	3.5619	1.5282	25.63	-0.32	0.750			
0.8339	53369.63	3.5590	3.5587	1.5400	25.64	-0.31	0.750			
0.8385	53664.69	3.5560	3.5558	1.5547	25.64	-0.31	0.750			
0.8431	53959.80	3.5530	3.5531	1.5812	25.64	-0.31	0.750			
0.8478	54260.96	3.5500	3.5500	1.5742	25.65	-0.30	0.750			
0.8526	54564.47	3.5470	3.5466	1.5957	25.65	-0.30	0.750			
0.8574	54872.47	3.5440	3.5441	1.6383	25.66	-0.29	0.750			
0.8625	55201.57	3.5410	3.5411	1.6297	25.66	-0.29	0.750			
0.8675	55517.59	3.5380	3.5383	1.6342	25.67	-0.28	0.750			
0.8723	55824.79	3.5350	3.5353	1.6428	25.67	-0.28	0.750			
0.8772	56141.01	3.5320	3.5316	1.6790	25.68	-0.27	0.750			
0.8825	56478.49	3.5290	3.5286	1.6797	25.70	-0.25	0.750			
0.8877	56812.33	3.5260	3.5260	1.5297	25.71	-0.24	0.750			
0.8928	57140.43	3.5230	3.5232	1.4057	25.73	-0.22	0.750			
0.8970	57408.48	3.5200	3.5204	1.1485	25.75	-0.20	0.750			
0.8998	57585.14	3.5170	3.5173	0.8793	25.76	-0.19	0.750			
0.9019	57720.24	3.5140	3.5135	0.6615	25.77	-0.18	0.750			
0.9031	57795.61	3.5110	3.5108	0.4945	25.78	-0.17	0.750			
0.9041	57865.53	3.5080	3.5081	0.4014	25.79	-0.16	0.750			
0.9052	57932.99	3.5050	3.5048	0.3633	25.80	-0.15	0.750			
0.9062	57997.11	3.5020	3.5019	0.3350	25.81	-0.14	0.750			
0.9071	58056.05	3.4990	3.4990	0.3164	25.82	-0.13	0.750			
0.9080	58115.04	3.4960	3.4961	0.3053	25.82	-0.13	0.750			
0.9089	58172.64	3.4930	3.4929	0.2949	25.83	-0.12	0.750			
0.9098	58227.96	3.4900	3.4898	0.2865	25.84	-0.11	0.750			
0.9107	58282.30	3.4870	3.4871	0.2775	25.85	-0.10	0.750			
0.9115	58334.22	3.4840	3.4841	0.2722	25.85	-0.10	0.750			
0.9123	58385.48	3.4810	3.4809	0.2670	25.86	-0.09	0.750			
0.9131	58436.24	3.4780	3.4782	0.2627	25.87	-0.08	0.750			
0.9138	58486.07	3.4750	3.4748	0.2564	25.87	-0.08	0.750			
0.9146	58535.21	3.4720	3.4721	0.2525	25.88	-0.07	0.750			
0.9154	58583.10	3.4690	3.4691	0.2479	25.88	-0.07	0.750			
0.9161	58630.75	3.4660	3.4660	0.2436	25.89	-0.06	0.750			
0.9168	58676.11	3.4630	3.4629	0.2375	25.89	-0.06	0.750			
0.9175	58721.35	3.4600	3.4600	0.2328	25.90	-0.05	0.750			
0.9182	58765.47	3.4570	3.4570	0.2281	25.90	-0.05	0.750			
0.9189	58808.91	3.4540	3.4540	0.2244	25.90	-0.05	0.750			
0.9196	58852.25	3.4510	3.4510	0.2214	25.91	-0.04	0.750			
0.9202	58893.85	3.4480	3.4479	0.2168	25.91	-0.04	0.750			
0.9209	58934.85	3.4450	3.4450	0.2127	25.92	-0.03	0.750			
0.9215	58975.45	3.4420	3.4420	0.2093	25.92	-0.03	0.750			
0.9221	59015.54	3.4390	3.4390	0.2048	25.92	-0.03	0.750			
0.9227	59054.90	3.4360	3.4360	0.2007	25.93	-0.02	0.750			
0.9233	59092.94	3.4330	3.4331	0.1955	25.93	-0.02	0.750			
0.9239	59130.32	3.4300	3.4300	0.1890	25.94	-0.01	0.750			
0.9245	59165.67	3.4270	3.4270	0.1857	25.94	-0.01	0.750			
0.9250	59200.18	3.4240	3.4240	0.1818	25.94	-0.01	0.750			
0.9255	59234.99	3.4210	3.4211	0.1786	25.95	-0.00	0.750			
0.9261	59268.94	3.4180	3.4175	0.1746	25.95	0.00	0.750			
0.9266	59302.34	3.4150	3.4150	0.1717	25.95	0.00	0.750			
0.9271	59335.67	3.4120	3.4121	0.1673	25.96	0.01	0.750			
0.9276	59367.30	3.4090	3.4092	0.1614	25.96	0.01	0.750			
0.9281	59397.96	3.4060	3.4060	0.1546	25.96	0.01	0.750			
0.9285	59426.79	3.4030	3.4031	0.1510	25.97	0.02	0.750			
0.9290	59455.39	3.4000	3.3999	0.1459	25.97	0.02	0.750			
0.9294	59482.88	3.3970	3.3971	0.1413	25.97	0.02	0.750			
0.9298	59510.04	3.3940	3.3940	0.1355	25.97	0.02	0.750			
0.9302	59535.50	3.3910	3.3914	0.1297	25.98	0.03	0.750			
0.9306	59560.52	3.3880	3.3878	0.1239	25.98	0.03	0.750			
0.9310	59583.95	3.3850	3.3849	0.1171	25.98	0.03	0.750			
0.9313	59605.36	3.3820	3.3819	0.1107	25.98	0.03	0.750			
0.9316	59625.29	3.3790	3.3791	0.1031	25.99	0.04	0.750			
0.9320	59645.75	3.3760	3.3758	0.0940	25.99	0.04	0.750			
0.9322	59663.51	3.3730	3.3729	0.0871	25.99	0.04	0.750			
0.9325	59680.11	3.3700	3.3700	0.0803	25.99	0.04	0.750			
0.9327	59694.60	3.3670	3.3673	0.0706	25.99	0.04	0.750			
0.9329	59708.45	3.3640	3.3643	0.0619	25.99	0.04	0.750			
0.9331	59719.27	3.3610	3.3614	0.0507	26.00	0.05	0.750			
0.9332	59727.93	3.3580	3.3589	0.0395	26.00	0.05	0.750			
0.9334	59734.44	3.3550	3.3558	0.0283	26.00	0.05	0.750			
0.9334	59738.80	3.3520	3.3537	0.0171	26.00	0.05	0.750			
