Ah_balance (normalized)	Ah_balance (mAh)	Voltage - fit (V)	Voltage -  interpolate (V)	dQ/dV (1/V)	Temperature (°C)	Temperature - diff (°C)	Current (C)	R_DC 0ms (mOhm)	R_DC 50ms (mOhm)	R_DC 50 ms PEC (mOhm)
0.0003	21.92	4.1660	4.1658	-0.1420	25.63	0.01	-0.750			
0.0008	53.70	4.1630	4.1629	-0.1877	25.63	0.01	-0.750			
0.0015	93.67	4.1600	4.1600	-0.2324	25.63	0.01	-0.750			
0.0022	142.38	4.1570	4.1570	-0.2787	25.63	0.01	-0.750			
0.0031	200.92	4.1540	4.1541	-0.3216	25.62	0.00	-0.750			
0.0042	267.29	4.1510	4.1509	-0.3659	25.62	0.00	-0.750			
0.0053	341.90	4.1480	4.1481	-0.4087	25.62	0.00	-0.750			
0.0066	425.03	4.1450	4.1451	-0.4498	25.62	-0.00	-0.750			
0.0081	516.09	4.1420	4.1419	-0.4859	25.62	-0.00	-0.750			
0.0096	613.46	4.1390	4.1390	-0.5221	25.61	-0.01	-0.750			
0.0112	717.67	4.1360	4.1360	-0.5549	25.61	-0.01	-0.750			
0.0130	829.69	4.1330	4.1330	-0.5838	25.61	-0.01	-0.750			
0.0148	944.06	4.1300	4.1299	-0.6052	25.61	-0.01	-0.750			
0.0166	1063.06	4.1270	4.1271	-0.6271	25.60	-0.02	-0.750			
0.0185	1186.29	4.1240	4.1241	-0.6426	25.60	-0.02	-0.750			
0.0205	1311.84	4.1210	4.1209	-0.6606	25.59	-0.03	-0.750			
0.0225	1438.16	4.1180	4.1181	-0.6755	25.59	-0.03	-0.750			
0.0245	1569.54	4.1150	4.1150	-0.6896	25.58	-0.04	-0.750			
0.0266	1705.30	4.1120	4.1120	-0.7023	25.58	-0.04	-0.750			
0.0288	1841.26	4.1090	4.1089	-0.7105	25.57	-0.05	-0.750			
0.0309	1979.42	4.1060	4.1063	-0.7172	25.57	-0.05	-0.750			
0.0331	2118.15	4.1030	4.1029	-0.7247	25.57	-0.05	-0.750			
0.0353	2256.10	4.1000	4.1001	-0.7320	25.57	-0.05	-0.750			
0.0375	2398.16	4.0970	4.0969	-0.7362	25.56	-0.06	-0.750			
0.0397	2540.87	4.0940	4.0940	-0.7410	25.56	-0.06	-0.750			
0.0419	2683.55	4.0910	4.0910	-0.7444	25.56	-0.06	-0.750			
0.0442	2827.24	4.0880	4.0880	-0.7475	25.56	-0.06	-0.750			
0.0464	2970.33	4.0850	4.0850	-0.7520	25.56	-0.06	-0.750			
0.0486	3112.82	4.0820	4.0820	-0.7547	25.56	-0.06	-0.750			
0.0509	3257.40	4.0790	4.0790	-0.7603	25.56	-0.06	-0.750			
0.0532	3406.92	4.0760	4.0759	-0.7644	25.56	-0.06	-0.750			
0.0555	3555.12	4.0730	4.0731	-0.7658	25.56	-0.06	-0.750			
0.0578	3701.39	4.0700	4.0701	-0.7672	25.56	-0.06	-0.750			
0.0601	3847.97	4.0670	4.0670	-0.7731	25.56	-0.06	-0.750			
0.0624	3996.42	4.0640	4.0639	-0.7728	25.55	-0.07	-0.750			
0.0648	4144.59	4.0610	4.0610	-0.7716	25.55	-0.07	-0.750			
0.0671	4293.45	4.0580	4.0580	-0.7771	25.55	-0.07	-0.750			
0.0694	4443.54	4.0550	4.0549	-0.7818	25.55	-0.07	-0.750			
0.0718	4593.91	4.0520	4.0519	-0.7860	25.55	-0.07	-0.750			
0.0741	4744.56	4.0490	4.0491	-0.7878	25.55	-0.07	-0.750			
0.0765	4896.00	4.0460	4.0460	-0.7861	25.56	-0.06	-0.750			
0.0789	5049.08	4.0430	4.0431	-0.7887	25.56	-0.06	-0.750			
0.0813	5200.61	4.0400	4.0401	-0.7903	25.56	-0.06	-0.750			
0.0836	5351.14	4.0370	4.0369	-0.7871	25.56	-0.06	-0.750			
0.0860	5501.81	4.0340	4.0340	-0.7872	25.56	-0.06	-0.750			
0.0883	5652.84	4.0310	4.0311	-0.7877	25.55	-0.07	-0.750			
0.0907	5804.57	4.0280	4.0280	-0.7912	25.55	-0.07	-0.750			
0.0931	5956.47	4.0250	4.0250	-0.7969	25.55	-0.07	-0.750			
0.0955	6109.40	4.0220	4.0220	-0.7992	25.55	-0.07	-0.750			
0.0979	6263.50	4.0190	4.0190	-0.8041	25.55	-0.07	-0.750			
0.1003	6420.15	4.0160	4.0160	-0.8058	25.56	-0.06	-0.750			
0.1027	6574.75	4.0130	4.0130	-0.8072	25.56	-0.06	-0.750			
0.1052	6730.97	4.0100	4.0101	-0.8071	25.56	-0.06	-0.750			
0.1076	6884.95	4.0070	4.0069	-0.8078	25.56	-0.06	-0.750			
0.1100	7038.87	4.0040	4.0040	-0.8066	25.57	-0.05	-0.750			
0.1124	7194.30	4.0010	4.0010	-0.8088	25.57	-0.05	-0.750			
0.1148	7349.26	3.9980	3.9980	-0.8093	25.57	-0.05	-0.750			
0.1173	7506.52	3.9950	3.9950	-0.8150	25.58	-0.04	-0.750			
0.1197	7662.57	3.9920	3.9919	-0.8129	25.58	-0.04	-0.750			
0.1222	7818.09	3.9890	3.9890	-0.8195	25.58	-0.04	-0.750			
0.1246	7975.96	3.9860	3.9860	-0.8184	25.58	-0.04	-0.750			
0.1271	8133.73	3.9830	3.9830	-0.8200	25.58	-0.04	-0.750			
0.1296	8292.36	3.9800	3.9800	-0.8231	25.58	-0.04	-0.750			
0.1320	8449.99	3.9770	3.9770	-0.8243	25.58	-0.04	-0.750			
0.1345	8607.16	3.9740	3.9740	-0.8301	25.58	-0.04	-0.750			
0.1370	8768.02	3.9710	3.9710	-0.8263	25.59	-0.03	-0.750			
0.1395	8925.58	3.9680	3.9680	-0.8272	25.59	-0.03	-0.750			
0.1420	9085.27	3.9650	3.9649	-0.8320	25.59	-0.03	-0.750			
0.1445	9244.94	3.9620	3.9619	-0.8339	25.59	-0.03	-0.750			
0.1469	9404.37	3.9590	3.9589	-0.8392	25.60	-0.02	-0.750			
0.1495	9565.63	3.9560	3.9559	-0.8408	25.60	-0.02	-0.750			
0.1520	9727.04	3.9530	3.9530	-0.8439	25.60	-0.02	-0.750			
0.1546	9893.43	3.9500	3.9500	-0.8489	25.61	-0.01	-0.750			
0.1571	10055.99	3.9470	3.9470	-0.8462	25.61	-0.01	-0.750			
0.1597	10217.87	3.9440	3.9440	-0.8512	25.61	-0.01	-0.750			
0.1622	10380.63	3.9410	3.9410	-0.8509	25.60	-0.02	-0.750			
0.1647	10543.44	3.9380	3.9379	-0.8527	25.60	-0.02	-0.750			
0.1673	10707.86	3.9350	3.9350	-0.8586	25.60	-0.02	-0.750			
0.1699	10873.00	3.9320	3.9320	-0.8621	25.60	-0.02	-0.750			
0.1725	11039.75	3.9290	3.9290	-0.8646	25.61	-0.01	-0.750			
0.1751	11206.45	3.9260	3.9260	-0.8641	25.61	-0.01	-0.750			
0.1777	11371.39	3.9230	3.9230	-0.8648	25.62	-0.00	-0.750			
0.1803	11539.74	3.9200	3.9200	-0.8668	25.62	-0.00	-0.750			
0.1829	11704.06	3.9170	3.9170	-0.8711	25.62	0.00	-0.750			
0.1855	11871.54	3.9140	3.9140	-0.8707	25.63	0.01	-0.750			
0.1881	12039.46	3.9110	3.9110	-0.8749	25.63	0.01	-0.750			
0.1907	12207.21	3.9080	3.9080	-0.8738	25.64	0.02	-0.750			
0.1934	12376.68	3.9050	3.9053	-0.8762	25.64	0.02	-0.750			
0.1960	12543.98	3.9020	3.9021	-0.8784	25.64	0.02	-0.750			
0.1986	12712.97	3.8990	3.8990	-0.8794	25.64	0.02	-0.750			
0.2013	12880.07	3.8960	3.8959	-0.8814	25.64	0.02	-0.750			
0.2039	13050.20	3.8930	3.8930	-0.8842	25.64	0.02	-0.750			
0.2066	13219.69	3.8900	3.8900	-0.8847	25.64	0.02	-0.750			
0.2092	13391.08	3.8870	3.8871	-0.8919	25.65	0.03	-0.750			
0.2119	13562.86	3.8840	3.8840	-0.8914	25.65	0.03	-0.750			
0.2146	13734.15	3.8810	3.8810	-0.8871	25.65	0.03	-0.750			
0.2173	13904.56	3.8780	3.8779	-0.8903	25.66	0.04	-0.750			
0.2199	14073.36	3.8750	3.8750	-0.8919	25.66	0.04	-0.750			
0.2226	14245.73	3.8720	3.8719	-0.8978	25.66	0.04	-0.750			
0.2253	14418.33	3.8690	3.8689	-0.8956	25.66	0.04	-0.750			
0.2280	14590.26	3.8660	3.8661	-0.8957	25.66	0.04	-0.750			
0.2307	14765.28	3.8630	3.8630	-0.9003	25.66	0.04	-0.750			
0.2334	14937.14	3.8600	3.8600	-0.9020	25.66	0.04	-0.750			
0.2361	15108.11	3.8570	3.8569	-0.8924	25.67	0.05	-0.750			
0.2387	15279.08	3.8540	3.8540	-0.8926	25.67	0.05	-0.750			
0.2414	15450.23	3.8510	3.8510	-0.8965	25.68	0.06	-0.750			
0.2441	15623.26	3.8480	3.8480	-0.9004	25.68	0.06	-0.750			
0.2468	15796.69	3.8450	3.8450	-0.9061	25.68	0.06	-0.750			
0.2496	15971.48	3.8420	3.8419	-0.9090	25.69	0.07	-0.750			
0.2523	16147.33	3.8390	3.8390	-0.9047	25.69	0.07	-0.750			
0.2551	16324.02	3.8360	3.8362	-0.9041	25.69	0.07	-0.750			
0.2577	16494.32	3.8330	3.8330	-0.9057	25.69	0.07	-0.750			
0.2604	16667.12	3.8300	3.8300	-0.9049	25.69	0.07	-0.750			
0.2631	16839.44	3.8270	3.8269	-0.9025	25.70	0.08	-0.750			
0.2658	17012.29	3.8240	3.8240	-0.9033	25.70	0.08	-0.750			
0.2686	17189.43	3.8210	3.8211	-0.9063	25.70	0.08	-0.750			
0.2713	17363.47	3.8180	3.8180	-0.9112	25.70	0.08	-0.750			
0.2740	17538.90	3.8150	3.8150	-0.9074	25.70	0.08	-0.750			
0.2767	17711.04	3.8120	3.8119	-0.9035	25.70	0.08	-0.750			
0.2794	17884.27	3.8090	3.8090	-0.9088	25.70	0.08	-0.750			
0.2822	18059.26	3.8060	3.8060	-0.9123	25.70	0.08	-0.750			
0.2849	18235.08	3.8030	3.8029	-0.9205	25.70	0.08	-0.750			
0.2877	18413.79	3.8000	3.8000	-0.9184	25.71	0.09	-0.750			
0.2905	18589.93	3.7970	3.7970	-0.9144	25.71	0.09	-0.750			
0.2932	18767.89	3.7940	3.7942	-0.9115	25.71	0.09	-0.750			
0.2960	18940.99	3.7910	3.7910	-0.9109	25.71	0.09	-0.750			
0.2987	19115.07	3.7880	3.7880	-0.9061	25.72	0.10	-0.750			
0.3014	19287.10	3.7850	3.7849	-0.9028	25.72	0.10	-0.750			
0.3041	19460.86	3.7820	3.7819	-0.9061	25.73	0.11	-0.750			
0.3068	19634.63	3.7790	3.7791	-0.9105	25.73	0.11	-0.750			
0.3095	19809.76	3.7760	3.7759	-0.9177	25.73	0.11	-0.750			
0.3123	19987.77	3.7730	3.7729	-0.9165	25.73	0.11	-0.750			
0.3150	20161.60	3.7700	3.7700	-0.9143	25.73	0.11	-0.750			
0.3178	20339.80	3.7670	3.7672	-0.9205	25.73	0.11	-0.750			
0.3206	20516.93	3.7640	3.7639	-0.9213	25.73	0.11	-0.750			
0.3233	20693.82	3.7610	3.7610	-0.9189	25.74	0.12	-0.750			
0.3261	20868.08	3.7580	3.7580	-0.9139	25.74	0.12	-0.750			
0.3288	21044.30	3.7550	3.7549	-0.9117	25.75	0.13	-0.750			
0.3316	21222.16	3.7520	3.7521	-0.9148	25.75	0.13	-0.750			
0.3343	21396.01	3.7490	3.7490	-0.9121	25.76	0.14	-0.750			
0.3371	21571.28	3.7460	3.7460	-0.9105	25.76	0.14	-0.750			
0.3398	21744.72	3.7430	3.7429	-0.9056	25.76	0.14	-0.750			
0.3425	21919.66	3.7400	3.7401	-0.9100	25.77	0.15	-0.750			
0.3452	22092.44	3.7370	3.7370	-0.9172	25.77	0.15	-0.750			
0.3480	22269.35	3.7340	3.7340	-0.9237	25.77	0.15	-0.750			
0.3507	22446.13	3.7310	3.7309	-0.9293	25.77	0.15	-0.750			
0.3535	22625.60	3.7280	3.7280	-0.9368	25.77	0.15	-0.750			
0.3564	22808.26	3.7250	3.7251	-0.9489	25.77	0.15	-0.750			
0.3592	22991.54	3.7220	3.7219	-0.9651	25.77	0.15	-0.750			
0.3622	23178.30	3.7190	3.7190	-0.9731	25.77	0.15	-0.750			
0.3651	23364.99	3.7160	3.7160	-0.9847	25.77	0.15	-0.750			
0.3681	23556.21	3.7130	3.7134	-1.0016	25.77	0.15	-0.750			
0.3711	23750.07	3.7100	3.7099	-1.0198	25.77	0.15	-0.750			
0.3742	23947.50	3.7070	3.7069	-1.0328	25.77	0.15	-0.750			
0.3773	24145.75	3.7040	3.7040	-1.0465	25.78	0.16	-0.750			
0.3804	24347.57	3.7010	3.7012	-1.0786	25.78	0.16	-0.750			
0.3837	24555.82	3.6980	3.6979	-1.1000	25.78	0.16	-0.750			
0.3870	24767.79	3.6950	3.6949	-1.1181	25.77	0.15	-0.750			
0.3904	24984.37	3.6920	3.6920	-1.1456	25.77	0.15	-0.750			
0.3939	25210.09	3.6890	3.6891	-1.1793	25.77	0.15	-0.750			
0.3975	25439.85	3.6860	3.6859	-1.1967	25.77	0.15	-0.750			
0.4011	25672.42	3.6830	3.6829	-1.2077	25.77	0.15	-0.750			
0.4047	25903.06	3.6800	3.6800	-1.2242	25.77	0.15	-0.750			
0.4084	26139.27	3.6770	3.6770	-1.2456	25.77	0.15	-0.750			
0.4122	26379.03	3.6740	3.6739	-1.2713	25.76	0.14	-0.750			
0.4159	26619.09	3.6710	3.6710	-1.3062	25.75	0.13	-0.750			
0.4199	26874.40	3.6680	3.6680	-1.3369	25.75	0.13	-0.750			
0.4241	27139.55	3.6650	3.6649	-1.3767	25.74	0.12	-0.750			
0.4283	27408.71	3.6620	3.6620	-1.4233	25.73	0.11	-0.750			
0.4326	27687.78	3.6590	3.6589	-1.4470	25.72	0.10	-0.750			
0.4370	27969.55	3.6560	3.6559	-1.4872	25.71	0.09	-0.750			
0.4415	28257.23	3.6530	3.6532	-1.5145	25.71	0.09	-0.750			
0.4461	28550.76	3.6500	3.6498	-1.5393	25.70	0.08	-0.750			
0.4508	28850.76	3.6470	3.6471	-1.5792	25.69	0.07	-0.750			
0.4555	29150.67	3.6440	3.6441	-1.6195	25.68	0.06	-0.750			
0.4604	29467.30	3.6410	3.6410	-1.6506	25.68	0.06	-0.750			
0.4655	29793.35	3.6380	3.6378	-1.6925	25.67	0.05	-0.750			
0.4706	30116.24	3.6350	3.6350	-1.7267	25.67	0.05	-0.750			
0.4758	30453.88	3.6320	3.6320	-1.7744	25.66	0.04	-0.750	0.413	0.488	
0.4813	30801.36	3.6290	3.6291	-1.8154	25.65	0.03	-0.750			
0.4868	31153.61	3.6260	3.6259	-1.8427	25.65	0.03	-0.750			
0.4924	31510.53	3.6230	3.6230	-1.8812	25.64	0.02	-0.750			
0.4981	31878.19	3.6200	3.6202	-1.9221	25.63	0.01	-0.750			
0.5040	32253.87	3.6170	3.6169	-1.9449	25.62	0.00	-0.750			
0.5097	32622.92	3.6140	3.6139	-1.9666	25.61	-0.01	-0.750			
0.5157	33002.47	3.6110	3.6110	-1.9941	25.60	-0.02	-0.750			
0.5217	33389.85	3.6080	3.6079	-2.0203	25.60	-0.02	-0.750			
0.5279	33782.69	3.6050	3.6051	-2.0660	25.60	-0.02	-0.750			
0.5341	34181.40	3.6020	3.6021	-2.1109	25.59	-0.03	-0.750			
0.5405	34590.12	3.5990	3.5988	-2.1545	25.58	-0.04	-0.750			
0.5470	35009.93	3.5960	3.5961	-2.1967	25.58	-0.04	-0.750			
0.5537	35438.80	3.5930	3.5931	-2.2350	25.58	-0.04	-0.750			
0.5606	35876.18	3.5900	3.5899	-2.2755	25.57	-0.05	-0.750			
0.5674	36312.44	3.5870	3.5870	-2.2928	25.56	-0.06	-0.750			
0.5743	36754.13	3.5840	3.5841	-2.3216	25.56	-0.06	-0.750			
0.5813	37204.17	3.5810	3.5810	-2.3389	25.56	-0.06	-0.750			
0.5884	37654.42	3.5780	3.5779	-2.3666	25.55	-0.07	-0.750			
0.5955	38113.67	3.5750	3.5750	-2.3905	25.55	-0.07	-0.750			
0.6028	38577.94	3.5720	3.5720	-2.4141	25.56	-0.06	-0.750			
0.6101	39046.11	3.5690	3.5691	-2.4337	25.56	-0.06	-0.750			
0.6174	39513.14	3.5660	3.5659	-2.4354	25.56	-0.06	-0.750			
0.6247	39980.13	3.5630	3.5630	-2.4567	25.56	-0.06	-0.750			
0.6321	40454.29	3.5600	3.5602	-2.4530	25.56	-0.06	-0.750			
0.6396	40932.85	3.5570	3.5569	-2.4535	25.56	-0.06	-0.750			
0.6469	41401.41	3.5540	3.5540	-2.4363	25.56	-0.06	-0.750			
0.6542	41871.79	3.5510	3.5510	-2.4078	25.57	-0.05	-0.750			
0.6615	42336.50	3.5480	3.5479	-2.4019	25.57	-0.05	-0.750			
0.6687	42793.81	3.5450	3.5450	-2.3441	25.58	-0.04	-0.750			
0.6756	43236.72	3.5420	3.5421	-2.3174	25.59	-0.03	-0.750			
0.6826	43684.85	3.5390	3.5389	-2.2924	25.60	-0.02	-0.750			
0.6895	44126.19	3.5360	3.5359	-2.2481	25.61	-0.01	-0.750			
0.6961	44550.98	3.5330	3.5333	-2.2128	25.61	-0.01	-0.750			
0.7027	44975.96	3.5300	3.5301	-2.1693	25.63	0.01	-0.750			
0.7093	45392.87	3.5270	3.5267	-2.0759	25.64	0.02	-0.750			
0.7155	45789.24	3.5240	3.5241	-1.9955	25.65	0.03	-0.750			
0.7212	46159.34	3.5210	3.5212	-1.9040	25.66	0.04	-0.750			
0.7267	46510.47	3.5180	3.5177	-1.8385	25.67	0.05	-0.750			
0.7321	46856.39	3.5150	3.5150	-1.7801	25.68	0.06	-0.750			
0.7373	47186.67	3.5120	3.5118	-1.7165	25.70	0.08	-0.750			
0.7425	47519.42	3.5090	3.5092	-1.6783	25.72	0.10	-0.750			
0.7475	47839.72	3.5060	3.5061	-1.6310	25.73	0.11	-0.750			
0.7523	48146.68	3.5030	3.5029	-1.5751	25.74	0.12	-0.750			
0.7569	48444.47	3.5000	3.4999	-1.5109	25.76	0.14	-0.750			
0.7614	48727.41	3.4970	3.4973	-1.4494	25.78	0.16	-0.750			
0.7656	48999.38	3.4940	3.4938	-1.4053	25.80	0.18	-0.750			
0.7698	49264.73	3.4910	3.4910	-1.3631	25.82	0.20	-0.750			
0.7738	49521.00	3.4880	3.4879	-1.3238	25.83	0.21	-0.750			
0.7777	49771.22	3.4850	3.4849	-1.2827	25.85	0.23	-0.750			
0.7814	50012.16	3.4820	3.4821	-1.2327	25.86	0.24	-0.750			
0.7852	50250.50	3.4790	3.4790	-1.2038	25.88	0.26	-0.750			
0.7887	50477.91	3.4760	3.4760	-1.1604	25.89	0.27	-0.750			
0.7921	50694.37	3.4730	3.4728	-1.1121	25.91	0.29	-0.750			
0.7953	50902.11	3.4700	3.4699	-1.0720	25.92	0.30	-0.750			
0.7985	51103.91	3.4670	3.4670	-1.0347	25.93	0.31	-0.750			
0.8015	51298.29	3.4640	3.4640	-1.0051	25.94	0.32	-0.750			
0.8044	51483.50	3.4610	3.4610	-0.9796	25.95	0.33	-0.750			
0.8073	51668.28	3.4580	3.4580	-0.9696	25.96	0.34	-0.750			
0.8102	51851.18	3.4550	3.4550	-0.9801	25.97	0.35	-0.750			
0.8131	52037.00	3.4520	3.4521	-0.9895	25.98	0.36	-0.750			
0.8160	52225.83	3.4490	3.4489	-1.0215	25.99	0.37	-0.750			
0.8191	52423.26	3.4460	3.4461	-1.0709	26.00	0.38	-0.750			
0.8224	52630.41	3.4430	3.4430	-1.1144	26.01	0.39	-0.750			
0.8258	52849.20	3.4400	3.4399	-1.1656	26.02	0.40	-0.750			
0.8293	53076.59	3.4370	3.4370	-1.2221	26.04	0.42	-0.750			
0.8332	53324.54	3.4340	3.4340	-1.2587	26.05	0.43	-0.750			
0.8371	53576.53	3.4310	3.4308	-1.2822	26.06	0.44	-0.750			
0.8410	53825.44	3.4280	3.4281	-1.2769	26.07	0.45	-0.750			
0.8449	54072.56	3.4250	3.4251	-1.2570	26.07	0.45	-0.750			
0.8488	54320.06	3.4220	3.4219	-1.2291	26.08	0.46	-0.750			
0.8524	54552.29	3.4190	3.4189	-1.1789	26.09	0.47	-0.750			
0.8558	54768.68	3.4160	3.4166	-1.1302	26.10	0.48	-0.750			
0.8591	54984.49	3.4130	3.4129	-1.0912	26.11	0.49	-0.750			
0.8623	55187.31	3.4100	3.4100	-1.0505	26.12	0.50	-0.750			
0.8654	55384.18	3.4070	3.4068	-1.0083	26.12	0.50	-0.750			
0.8683	55574.15	3.4040	3.4044	-0.9757	26.13	0.51	-0.750			
0.8712	55758.04	3.4010	3.4010	-0.9434	26.13	0.51	-0.750			
0.8740	55937.35	3.3980	3.3980	-0.9040	26.14	0.52	-0.750			
0.8767	56106.96	3.3950	3.3949	-0.8638	26.14	0.52	-0.750			
0.8792	56268.05	3.3920	3.3920	-0.8291	26.15	0.53	-0.750			
0.8816	56422.57	3.3890	3.3890	-0.7921	26.15	0.53	-0.750			
0.8839	56570.79	3.3860	3.3859	-0.7624	26.17	0.55	-0.750			
0.8861	56713.23	3.3830	3.3829	-0.7333	26.18	0.56	-0.750			
0.8883	56850.74	3.3800	3.3800	-0.7033	26.19	0.57	-0.750			
0.8904	56984.42	3.3770	3.3770	-0.6797	26.20	0.58	-0.750			
0.8924	57112.47	3.3740	3.3741	-0.6513	26.21	0.59	-0.750			
0.8943	57234.82	3.3710	3.3708	-0.6214	26.21	0.59	-0.750			
0.8961	57350.66	3.3680	3.3680	-0.5928	26.22	0.60	-0.750			
0.8978	57460.20	3.3650	3.3651	-0.5684	26.23	0.61	-0.750			
0.8995	57565.44	3.3620	3.3620	-0.5425	26.23	0.61	-0.750			
0.9011	57669.85	3.3590	3.3589	-0.5239	26.24	0.62	-0.750			
0.9026	57768.05	3.3560	3.3560	-0.4993	26.24	0.62	-0.750			
0.9041	57862.12	3.3530	3.3530	-0.4782	26.25	0.63	-0.750			
0.9055	57952.09	3.3500	3.3500	-0.4555	26.25	0.63	-0.750			
0.9068	58036.28	3.3470	3.3470	-0.4328	26.25	0.63	-0.750			
0.9081	58116.42	3.3440	3.3439	-0.4134	26.26	0.64	-0.750			
0.9093	58193.60	3.3410	3.3411	-0.3964	26.26	0.64	-0.750			
0.9104	58267.73	3.3380	3.3380	-0.3817	26.27	0.65	-0.750			
0.9116	58340.12	3.3350	3.3350	-0.3667	26.27	0.65	-0.750			
0.9126	58409.02	3.3320	3.3319	-0.3507	26.28	0.66	-0.750			
0.9137	58475.13	3.3290	3.3291	-0.3348	26.28	0.66	-0.750			
0.9146	58537.57	3.3260	3.3259	-0.3190	26.29	0.67	-0.750			
0.9156	58597.33	3.3230	3.3230	-0.3030	26.29	0.67	-0.750			
0.9165	58653.94	3.3200	3.3200	-0.2886	26.29	0.67	-0.750			
0.9173	58706.62	3.3170	3.3169	-0.2744	26.30	0.68	-0.750			
0.9181	58757.68	3.3140	3.3143	-0.2651	26.30	0.68	-0.750			
0.9189	58806.95	3.3110	3.3109	-0.2541	26.30	0.68	-0.750			
0.9196	58854.78	3.3080	3.3079	-0.2455	26.31	0.69	-0.750			
0.9203	58901.29	3.3050	3.3050	-0.2366	26.31	0.69	-0.750			
0.9210	58945.43	3.3020	3.3023	-0.2287	26.32	0.70	-0.750			
0.9217	58989.23	3.2990	3.2990	-0.2215	26.32	0.70	-0.750			
0.9224	59030.66	3.2960	3.2959	-0.2145	26.32	0.70	-0.750			
0.9230	59070.64	3.2930	3.2929	-0.2072	26.33	0.71	-0.750			
0.9236	59109.41	3.2900	3.2901	-0.2000	26.33	0.71	-0.750			
0.9242	59147.81	3.2870	3.2870	-0.1955	26.33	0.71	-0.750			
0.9248	59184.81	3.2840	3.2840	-0.1882	26.34	0.72	-0.750			
0.9253	59220.28	3.2810	3.2810	-0.1827	26.34	0.72	-0.750			
0.9258	59254.01	3.2780	3.2781	-0.1766	26.34	0.72	-0.750			
0.9264	59287.46	3.2750	3.2750	-0.1719	26.35	0.73	-0.750			
0.9269	59319.70	3.2720	3.2718	-0.1672	26.35	0.73	-0.750			
0.9274	59351.19	3.2690	3.2690	-0.1632	26.35	0.73	-0.750			
0.9278	59382.30	3.2660	3.2660	-0.1593	26.35	0.73	-0.750			
0.9283	59412.51	3.2630	3.2631	-0.1554	26.36	0.74	-0.750			
0.9288	59442.11	3.2600	3.2600	-0.1527	26.36	0.74	-0.750			
0.9292	59470.70	3.2570	3.2571	-0.1493	26.36	0.74	-0.750			
0.9297	59499.12	3.2540	3.2540	-0.1457	26.36	0.74	-0.750			
0.9301	59526.82	3.2510	3.2508	-0.1428	26.37	0.75	-0.750			
0.9305	59554.08	3.2480	3.2482	-0.1399	26.37	0.75	-0.750			
0.9309	59580.62	3.2450	3.2451	-0.1370	26.37	0.75	-0.750			
0.9314	59606.63	3.2420	3.2420	-0.1345	26.38	0.76	-0.750			
0.9318	59632.16	3.2390	3.2389	-0.1315	26.38	0.76	-0.750			
0.9321	59656.72	3.2360	3.2360	-0.1288	26.39	0.77	-0.750			
0.9325	59681.27	3.2330	3.2330	-0.1264	26.39	0.77	-0.750			
0.9329	59705.50	3.2300	3.2301	-0.1247	26.39	0.77	-0.750			
0.9333	59729.03	3.2270	3.2270	-0.1229	26.40	0.78	-0.750			
0.9336	59752.30	3.2240	3.2240	-0.1208	26.40	0.78	-0.750			
0.9340	59775.27	3.2210	3.2210	-0.1189	26.40	0.78	-0.750			
0.9343	59797.87	3.2180	3.2179	-0.1171	26.41	0.79	-0.750			
0.9347	59820.18	3.2150	3.2150	-0.1156	26.41	0.79	-0.750			
0.9350	59842.18	3.2120	3.2121	-0.1141	26.41	0.79	-0.750			
0.9354	59864.06	3.2090	3.2091	-0.1124	26.42	0.80	-0.750			
0.9357	59885.69	3.2060	3.2059	-0.1111	26.42	0.80	-0.750			
0.9360	59906.78	3.2030	3.2030	-0.1093	26.42	0.80	-0.750			
0.9364	59927.50	3.2000	3.2001	-0.1074	26.43	0.81	-0.750			
0.9367	59947.95	3.1970	3.1970	-0.1057	26.43	0.81	-0.750			
0.9370	59968.04	3.1940	3.1939	-0.1046	26.43	0.81	-0.750			
0.9373	59988.00	3.1910	3.1912	-0.1033	26.44	0.82	-0.750			
0.9376	60007.50	3.1880	3.1881	-0.1018	26.44	0.82	-0.750			
0.9379	60026.96	3.1850	3.1848	-0.1009	26.44	0.82	-0.750			
0.9382	60046.34	3.1820	3.1820	-0.0996	26.45	0.83	-0.750			
0.9385	60065.34	3.1790	3.1791	-0.0983	26.45	0.83	-0.750			
0.9388	60084.16	3.1760	3.1759	-0.0972	26.45	0.83	-0.750			
0.9391	60102.70	3.1730	3.1731	-0.0959	26.46	0.84	-0.750			
0.9394	60120.76	3.1700	3.1700	-0.0949	26.46	0.84	-0.750			
0.9397	60138.90	3.1670	3.1670	-0.0941	26.46	0.84	-0.750			
0.9400	60156.91	3.1640	3.1640	-0.0929	26.46	0.84	-0.750			
