Ah_balance (normalized)	Ah_balance (mAh)	Voltage - fit (V)	Voltage -  interpolate (V)	dQ/dV (1/V)	Temperature (°C)	Temperature - diff (°C)	Current (C)	R_DC 0ms (mOhm)	R_DC 50ms (mOhm)	R_DC 50 ms PEC (mOhm)
0.0004	25.62	4.1600	4.1597	-0.1345	25.83	0.00	-0.750			
0.0009	54.73	4.1570	4.1569	-0.1686	25.83	0.00	-0.750			
0.0014	90.07	4.1540	4.1540	-0.2026	25.83	0.00	-0.750			
0.0021	131.85	4.1510	4.1512	-0.2391	25.83	0.00	-0.750			
0.0028	181.41	4.1480	4.1480	-0.2755	25.83	-0.00	-0.750			
0.0037	237.44	4.1450	4.1449	-0.3128	25.83	-0.00	-0.750			
0.0047	301.42	4.1420	4.1420	-0.3471	25.82	-0.01	-0.750			
0.0058	372.04	4.1390	4.1391	-0.3799	25.82	-0.01	-0.750			
0.0070	450.02	4.1360	4.1360	-0.4105	25.82	-0.01	-0.750			
0.0083	531.52	4.1330	4.1330	-0.4390	25.82	-0.01	-0.750			
0.0097	618.42	4.1300	4.1301	-0.4650	25.81	-0.02	-0.750			
0.0111	710.62	4.1270	4.1269	-0.4900	25.81	-0.02	-0.750			
0.0126	807.72	4.1240	4.1240	-0.5102	25.80	-0.03	-0.750			
0.0142	909.01	4.1210	4.1210	-0.5292	25.80	-0.03	-0.750			
0.0158	1013.54	4.1180	4.1180	-0.5469	25.80	-0.03	-0.750			
0.0175	1119.82	4.1150	4.1150	-0.5613	25.79	-0.04	-0.750			
0.0192	1228.11	4.1120	4.1120	-0.5733	25.79	-0.04	-0.750			
0.0209	1340.02	4.1090	4.1089	-0.5886	25.79	-0.04	-0.750			
0.0227	1455.69	4.1060	4.1060	-0.6008	25.78	-0.05	-0.750			
0.0246	1574.02	4.1030	4.1030	-0.6047	25.78	-0.05	-0.750			
0.0264	1690.91	4.1000	4.1000	-0.6161	25.77	-0.06	-0.750			
0.0283	1809.51	4.0970	4.0970	-0.6191	25.77	-0.06	-0.750			
0.0301	1927.32	4.0940	4.0938	-0.6255	25.77	-0.06	-0.750			
0.0320	2047.73	4.0910	4.0910	-0.6333	25.76	-0.07	-0.750			
0.0339	2169.37	4.0880	4.0881	-0.6425	25.76	-0.07	-0.750			
0.0359	2295.36	4.0850	4.0851	-0.6559	25.76	-0.07	-0.750			
0.0379	2424.13	4.0820	4.0819	-0.6648	25.75	-0.08	-0.750			
0.0399	2551.40	4.0790	4.0790	-0.6665	25.75	-0.08	-0.750			
0.0419	2681.15	4.0760	4.0760	-0.6717	25.75	-0.08	-0.750			
0.0439	2809.49	4.0730	4.0731	-0.6736	25.75	-0.08	-0.750			
0.0459	2940.30	4.0700	4.0700	-0.6753	25.74	-0.09	-0.750			
0.0480	3069.80	4.0670	4.0670	-0.6742	25.74	-0.09	-0.750			
0.0500	3198.08	4.0640	4.0640	-0.6784	25.74	-0.09	-0.750			
0.0520	3328.60	4.0610	4.0611	-0.6835	25.74	-0.09	-0.750			
0.0541	3460.47	4.0580	4.0579	-0.6860	25.74	-0.09	-0.750			
0.0561	3592.98	4.0550	4.0550	-0.6916	25.74	-0.09	-0.750			
0.0582	3726.34	4.0520	4.0520	-0.6974	25.74	-0.09	-0.750			
0.0603	3860.80	4.0490	4.0490	-0.6981	25.73	-0.10	-0.750			
0.0624	3996.65	4.0460	4.0459	-0.7011	25.73	-0.10	-0.750			
0.0645	4130.40	4.0430	4.0429	-0.7012	25.73	-0.10	-0.750			
0.0666	4264.98	4.0400	4.0399	-0.7038	25.73	-0.10	-0.750			
0.0687	4399.84	4.0370	4.0370	-0.7069	25.73	-0.10	-0.750			
0.0709	4534.88	4.0340	4.0340	-0.7078	25.73	-0.10	-0.750			
0.0730	4672.04	4.0310	4.0310	-0.7151	25.74	-0.09	-0.750			
0.0752	4810.10	4.0280	4.0280	-0.7163	25.74	-0.09	-0.750			
0.0773	4948.72	4.0250	4.0252	-0.7161	25.74	-0.09	-0.750			
0.0795	5085.81	4.0220	4.0220	-0.7164	25.74	-0.09	-0.750			
0.0816	5221.34	4.0190	4.0191	-0.7221	25.74	-0.09	-0.750			
0.0838	5361.88	4.0160	4.0160	-0.7226	25.75	-0.08	-0.750			
0.0860	5501.19	4.0130	4.0128	-0.7231	25.75	-0.08	-0.750			
0.0881	5639.96	4.0100	4.0100	-0.7230	25.75	-0.08	-0.750			
0.0903	5780.24	4.0070	4.0071	-0.7237	25.75	-0.08	-0.750			
0.0925	5918.05	4.0040	4.0039	-0.7251	25.75	-0.08	-0.750			
0.0946	6055.25	4.0010	4.0010	-0.7265	25.75	-0.08	-0.750			
0.0968	6194.04	3.9980	3.9980	-0.7304	25.75	-0.08	-0.750			
0.0990	6338.03	3.9950	3.9949	-0.7366	25.75	-0.08	-0.750			
0.1013	6480.73	3.9920	3.9919	-0.7396	25.75	-0.08	-0.750			
0.1035	6622.97	3.9890	3.9889	-0.7383	25.75	-0.08	-0.750			
0.1057	6764.37	3.9860	3.9860	-0.7433	25.75	-0.08	-0.750			
0.1079	6905.19	3.9830	3.9830	-0.7425	25.75	-0.08	-0.750			
0.1101	7046.95	3.9800	3.9800	-0.7424	25.76	-0.07	-0.750			
0.1124	7192.10	3.9770	3.9771	-0.7498	25.76	-0.07	-0.750			
0.1146	7337.45	3.9740	3.9739	-0.7530	25.76	-0.07	-0.750			
0.1169	7481.99	3.9710	3.9710	-0.7541	25.76	-0.07	-0.750			
0.1192	7626.54	3.9680	3.9680	-0.7557	25.76	-0.07	-0.750			
0.1214	7771.23	3.9650	3.9650	-0.7545	25.77	-0.06	-0.750			
0.1237	7916.78	3.9620	3.9620	-0.7591	25.77	-0.06	-0.750			
0.1260	8062.04	3.9590	3.9590	-0.7629	25.77	-0.06	-0.750			
0.1283	8208.51	3.9560	3.9560	-0.7636	25.77	-0.06	-0.750			
0.1306	8355.23	3.9530	3.9530	-0.7688	25.78	-0.05	-0.750			
0.1329	8504.20	3.9500	3.9500	-0.7667	25.78	-0.05	-0.750			
0.1352	8651.45	3.9470	3.9470	-0.7696	25.78	-0.05	-0.750			
0.1375	8799.96	3.9440	3.9440	-0.7706	25.79	-0.04	-0.750			
0.1398	8947.09	3.9410	3.9413	-0.7686	25.79	-0.04	-0.750			
0.1421	9095.04	3.9380	3.9380	-0.7687	25.79	-0.04	-0.750			
0.1444	9241.90	3.9350	3.9351	-0.7749	25.80	-0.03	-0.750			
0.1467	9390.85	3.9320	3.9320	-0.7763	25.80	-0.03	-0.750			
0.1491	9541.99	3.9290	3.9289	-0.7818	25.81	-0.02	-0.750			
0.1514	9691.56	3.9260	3.9260	-0.7771	25.81	-0.02	-0.750			
0.1538	9841.86	3.9230	3.9231	-0.7778	25.81	-0.02	-0.750			
0.1561	9989.47	3.9200	3.9201	-0.7813	25.81	-0.02	-0.750			
0.1584	10139.70	3.9170	3.9169	-0.7803	25.82	-0.01	-0.750			
0.1607	10287.97	3.9140	3.9139	-0.7808	25.82	-0.01	-0.750			
0.1631	10439.00	3.9110	3.9109	-0.7851	25.82	-0.01	-0.750			
0.1655	10590.09	3.9080	3.9081	-0.7878	25.82	-0.01	-0.750			
0.1678	10741.74	3.9050	3.9050	-0.7980	25.83	-0.00	-0.750			
0.1702	10895.77	3.9020	3.9020	-0.7976	25.83	0.00	-0.750			
0.1726	11048.66	3.8990	3.8989	-0.7925	25.84	0.01	-0.750			
0.1750	11203.00	3.8960	3.8959	-0.7979	25.84	0.01	-0.750			
0.1774	11355.58	3.8930	3.8932	-0.7983	25.85	0.02	-0.750			
0.1798	11509.12	3.8900	3.8899	-0.7987	25.85	0.02	-0.750			
0.1822	11661.63	3.8870	3.8869	-0.7990	25.86	0.03	-0.750			
0.1846	11813.95	3.8840	3.8840	-0.8021	25.86	0.03	-0.750			
0.1870	11970.07	3.8810	3.8810	-0.8068	25.87	0.04	-0.750			
0.1895	12125.15	3.8780	3.8780	-0.8056	25.87	0.04	-0.750			
0.1919	12279.67	3.8750	3.8750	-0.8053	25.87	0.04	-0.750			
0.1943	12433.76	3.8720	3.8720	-0.8101	25.88	0.05	-0.750			
0.1967	12589.96	3.8690	3.8690	-0.8110	25.88	0.05	-0.750			
0.1992	12746.47	3.8660	3.8659	-0.8070	25.89	0.06	-0.750			
0.2016	12901.68	3.8630	3.8631	-0.8057	25.89	0.06	-0.750			
0.2040	13056.48	3.8600	3.8600	-0.8054	25.89	0.06	-0.750			
0.2064	13210.69	3.8570	3.8569	-0.8072	25.90	0.07	-0.750			
0.2088	13364.82	3.8540	3.8539	-0.8063	25.90	0.07	-0.750			
0.2112	13518.54	3.8510	3.8509	-0.8035	25.90	0.07	-0.750			
0.2137	13675.43	3.8480	3.8481	-0.8082	25.91	0.08	-0.750			
0.2161	13830.29	3.8450	3.8448	-0.8109	25.91	0.08	-0.750			
0.2185	13985.07	3.8420	3.8420	-0.8114	25.92	0.09	-0.750			
0.2210	14141.51	3.8390	3.8390	-0.8079	25.92	0.09	-0.750			
0.2234	14294.71	3.8360	3.8360	-0.8030	25.92	0.09	-0.750			
0.2258	14450.71	3.8330	3.8331	-0.8109	25.93	0.10	-0.750			
0.2282	14607.25	3.8300	3.8300	-0.8104	25.93	0.10	-0.750			
0.2307	14761.61	3.8270	3.8269	-0.8123	25.94	0.11	-0.750			
0.2331	14918.81	3.8240	3.8240	-0.8072	25.94	0.11	-0.750			
0.2355	15074.44	3.8210	3.8211	-0.8064	25.94	0.11	-0.750			
0.2380	15230.04	3.8180	3.8180	-0.8056	25.95	0.12	-0.750			
0.2404	15383.74	3.8150	3.8151	-0.7993	25.95	0.12	-0.750			
0.2427	15535.07	3.8120	3.8119	-0.7943	25.95	0.12	-0.750			
0.2451	15688.30	3.8090	3.8090	-0.7934	25.96	0.13	-0.750			
0.2475	15839.79	3.8060	3.8060	-0.7878	25.96	0.13	-0.750			
0.2499	15992.18	3.8030	3.8030	-0.7908	25.97	0.14	-0.750			
0.2522	16143.67	3.8000	3.8001	-0.7861	25.97	0.14	-0.750			
0.2546	16294.05	3.7970	3.7970	-0.7831	25.97	0.14	-0.750			
0.2569	16444.12	3.7940	3.7939	-0.7793	25.98	0.15	-0.750			
0.2593	16592.78	3.7910	3.7910	-0.7757	25.98	0.15	-0.750			
0.2616	16743.78	3.7880	3.7880	-0.7723	25.99	0.16	-0.750			
0.2639	16890.06	3.7850	3.7850	-0.7653	25.99	0.16	-0.750			
0.2662	17035.57	3.7820	3.7820	-0.7600	25.99	0.16	-0.750			
0.2685	17181.20	3.7790	3.7790	-0.7585	26.00	0.17	-0.750			
0.2707	17325.01	3.7760	3.7759	-0.7559	26.00	0.17	-0.750			
0.2730	17470.37	3.7730	3.7730	-0.7544	26.00	0.17	-0.750			
0.2752	17615.26	3.7700	3.7701	-0.7560	26.01	0.18	-0.750			
0.2775	17761.44	3.7670	3.7670	-0.7581	26.01	0.18	-0.750			
0.2798	17906.85	3.7640	3.7639	-0.7531	26.01	0.18	-0.750			
0.2820	18050.79	3.7610	3.7610	-0.7581	26.02	0.19	-0.750			
0.2843	18196.57	3.7580	3.7580	-0.7553	26.02	0.19	-0.750			
0.2866	18342.30	3.7550	3.7550	-0.7561	26.03	0.20	-0.750			
0.2889	18487.37	3.7520	3.7519	-0.7592	26.03	0.20	-0.750			
0.2911	18632.29	3.7490	3.7491	-0.7594	26.03	0.20	-0.750			
0.2934	18777.83	3.7460	3.7460	-0.7652	26.03	0.20	-0.750			
0.2957	18924.51	3.7430	3.7429	-0.7728	26.03	0.20	-0.750			
0.2980	19071.92	3.7400	3.7401	-0.7809	26.03	0.20	-0.750			
0.3004	19224.80	3.7370	3.7369	-0.7948	26.03	0.20	-0.750			
0.3028	19378.13	3.7340	3.7341	-0.8011	26.03	0.20	-0.750			
0.3052	19532.90	3.7310	3.7311	-0.8093	26.03	0.20	-0.750			
0.3077	19690.53	3.7280	3.7280	-0.8194	26.04	0.21	-0.750			
0.3101	19848.15	3.7250	3.7250	-0.8258	26.04	0.21	-0.750			
0.3126	20007.22	3.7220	3.7220	-0.8340	26.05	0.22	-0.750			
0.3151	20166.87	3.7190	3.7191	-0.8487	26.05	0.22	-0.750			
0.3176	20329.52	3.7160	3.7160	-0.8681	26.05	0.22	-0.750			
0.3203	20497.95	3.7130	3.7129	-0.8877	26.05	0.22	-0.750			
0.3230	20669.58	3.7100	3.7099	-0.9061	26.05	0.22	-0.750			
0.3258	20848.62	3.7070	3.7070	-0.9248	26.05	0.22	-0.750			
0.3286	21027.83	3.7040	3.7041	-0.9351	26.05	0.22	-0.750			
0.3314	21209.90	3.7010	3.7010	-0.9537	26.04	0.21	-0.750			
0.3343	21392.42	3.6980	3.6980	-0.9692	26.04	0.21	-0.750			
0.3372	21577.95	3.6950	3.6949	-0.9805	26.03	0.20	-0.750			
0.3401	21768.22	3.6920	3.6921	-1.0039	26.03	0.20	-0.750			
0.3432	21963.68	3.6890	3.6890	-1.0248	26.03	0.20	-0.750			
0.3463	22163.21	3.6860	3.6860	-1.0435	26.03	0.20	-0.750			
0.3495	22365.63	3.6830	3.6830	-1.0595	26.03	0.20	-0.750			
0.3526	22568.68	3.6800	3.6801	-1.0867	26.03	0.20	-0.750			
0.3559	22780.12	3.6770	3.6770	-1.1051	26.02	0.19	-0.750			
0.3593	22994.94	3.6740	3.6739	-1.1272	26.02	0.19	-0.750			
0.3627	23212.73	3.6710	3.6709	-1.1444	26.01	0.18	-0.750			
0.3662	23435.18	3.6680	3.6681	-1.1748	26.01	0.18	-0.750			
0.3697	23663.89	3.6650	3.6649	-1.1933	26.00	0.17	-0.750			
0.3734	23894.85	3.6620	3.6619	-1.2151	26.00	0.17	-0.750			
0.3770	24127.46	3.6590	3.6592	-1.2303	25.99	0.16	-0.750			
0.3808	24368.81	3.6560	3.6559	-1.2635	25.98	0.15	-0.750			
0.3846	24613.46	3.6530	3.6530	-1.2867	25.98	0.15	-0.750			
0.3885	24861.73	3.6500	3.6500	-1.3239	25.97	0.14	-0.750			
0.3925	25120.38	3.6470	3.6469	-1.3553	25.97	0.14	-0.750			
0.3967	25386.59	3.6440	3.6439	-1.3750	25.96	0.13	-0.750			
0.4008	25652.54	3.6410	3.6410	-1.3996	25.95	0.12	-0.750			
0.4050	25921.99	3.6380	3.6380	-1.4355	25.95	0.12	-0.750			
0.4094	26201.89	3.6350	3.6349	-1.4575	25.94	0.11	-0.750			
0.4138	26483.80	3.6320	3.6320	-1.4851	25.93	0.10	-0.750			
0.4183	26768.36	3.6290	3.6291	-1.5087	25.92	0.09	-0.750			
0.4229	27065.38	3.6260	3.6259	-1.5592	25.92	0.09	-0.750			
0.4276	27367.99	3.6230	3.6231	-1.5857	25.91	0.08	-0.750			
0.4324	27671.46	3.6200	3.6200	-1.6062	25.90	0.07	-0.750			
0.4373	27984.29	3.6170	3.6170	-1.6237	25.89	0.06	-0.750	0.379	0.526	
0.4423	28305.37	3.6140	3.6137	-1.6633	25.89	0.06	-0.750			
0.4473	28627.61	3.6110	3.6109	-1.6862	25.88	0.05	-0.750			
0.4523	28949.72	3.6080	3.6080	-1.7140	25.88	0.05	-0.750			
0.4575	29278.52	3.6050	3.6051	-1.7584	25.87	0.04	-0.750			
0.4628	29618.57	3.6020	3.6020	-1.7934	25.86	0.03	-0.750			
0.4683	29972.40	3.5990	3.5988	-1.8404	25.86	0.03	-0.750			
0.4739	30330.29	3.5960	3.5961	-1.8895	25.85	0.02	-0.750			
0.4796	30693.68	3.5930	3.5930	-1.9213	25.84	0.01	-0.750			
0.4854	31068.17	3.5900	3.5901	-1.9670	25.83	0.00	-0.750			
0.4914	31449.75	3.5870	3.5870	-1.9921	25.82	-0.01	-0.750			
0.4975	31838.65	3.5840	3.5840	-2.0256	25.82	-0.01	-0.750			
0.5036	32231.45	3.5810	3.5811	-2.0575	25.82	-0.01	-0.750			
0.5098	32628.83	3.5780	3.5780	-2.0918	25.81	-0.02	-0.750			
0.5162	33034.57	3.5750	3.5749	-2.1157	25.81	-0.02	-0.750			
0.5226	33445.87	3.5720	3.5720	-2.1296	25.81	-0.02	-0.750			
0.5290	33853.27	3.5690	3.5691	-2.1592	25.81	-0.02	-0.750			
0.5356	34276.15	3.5660	3.5660	-2.1631	25.80	-0.03	-0.750			
0.5421	34691.72	3.5630	3.5629	-2.1754	25.79	-0.04	-0.750			
0.5486	35110.72	3.5600	3.5600	-2.1695	25.79	-0.04	-0.750			
0.5551	35525.30	3.5570	3.5566	-2.1760	25.79	-0.04	-0.750			
0.5617	35948.35	3.5540	3.5541	-2.1912	25.79	-0.04	-0.750			
0.5683	36368.62	3.5510	3.5512	-2.1947	25.79	-0.04	-0.750			
0.5748	36788.93	3.5480	3.5480	-2.1969	25.79	-0.04	-0.750			
0.5815	37216.42	3.5450	3.5451	-2.1775	25.79	-0.04	-0.750			
0.5881	37636.80	3.5420	3.5420	-2.1661	25.78	-0.05	-0.750			
0.5947	38060.28	3.5390	3.5390	-2.1482	25.78	-0.05	-0.750			
0.6009	38459.32	3.5360	3.5359	-2.1024	25.79	-0.04	-0.750			
0.6073	38867.13	3.5330	3.5330	-2.0760	25.79	-0.04	-0.750			
0.6134	39260.54	3.5300	3.5300	-2.0285	25.79	-0.04	-0.750			
0.6195	39646.99	3.5270	3.5270	-2.0013	25.80	-0.03	-0.750			
0.6255	40032.75	3.5240	3.5241	-1.9499	25.81	-0.02	-0.750			
0.6312	40397.49	3.5210	3.5209	-1.9092	25.81	-0.02	-0.750			
0.6369	40761.75	3.5180	3.5179	-1.8620	25.82	-0.01	-0.750			
0.6424	41111.30	3.5150	3.5148	-1.8181	25.82	-0.01	-0.750			
0.6478	41459.38	3.5120	3.5121	-1.7769	25.83	0.00	-0.750			
0.6531	41798.03	3.5090	3.5091	-1.7369	25.84	0.01	-0.750			
0.6583	42132.55	3.5060	3.5062	-1.6736	25.85	0.02	-0.750			
0.6633	42448.49	3.5030	3.5030	-1.6266	25.87	0.04	-0.750			
0.6680	42752.26	3.5000	3.4999	-1.5657	25.88	0.05	-0.750			
0.6726	43049.26	3.4970	3.4968	-1.5142	25.89	0.06	-0.750			
0.6771	43333.37	3.4940	3.4939	-1.4735	25.90	0.07	-0.750			
0.6814	43611.01	3.4910	3.4911	-1.4243	25.92	0.09	-0.750			
0.6857	43882.81	3.4880	3.4880	-1.3772	25.93	0.10	-0.750			
0.6898	44144.91	3.4850	3.4852	-1.3445	25.95	0.12	-0.750			
0.6936	44393.37	3.4820	3.4820	-1.2821	25.96	0.13	-0.750			
0.6975	44637.88	3.4790	3.4790	-1.2551	25.98	0.15	-0.750			
0.7011	44873.08	3.4760	3.4759	-1.2142	25.99	0.16	-0.750			
0.7047	45102.40	3.4730	3.4730	-1.1809	26.00	0.17	-0.750			
0.7082	45325.30	3.4700	3.4700	-1.1487	26.02	0.19	-0.750			
0.7116	45542.68	3.4670	3.4671	-1.1155	26.04	0.21	-0.750			
0.7149	45752.15	3.4640	3.4639	-1.0790	26.05	0.22	-0.750			
0.7181	45960.23	3.4610	3.4610	-1.0506	26.06	0.23	-0.750			
0.7212	46156.17	3.4580	3.4581	-1.0109	26.07	0.24	-0.750			
0.7242	46348.62	3.4550	3.4550	-0.9778	26.08	0.25	-0.750			
0.7270	46531.15	3.4520	3.4520	-0.9369	26.09	0.26	-0.750			
0.7298	46705.64	3.4490	3.4490	-0.9163	26.10	0.27	-0.750			
0.7324	46876.64	3.4460	3.4461	-0.8941	26.11	0.28	-0.750			
0.7351	47046.16	3.4430	3.4429	-0.8777	26.12	0.29	-0.750			
0.7377	47212.18	3.4400	3.4400	-0.8689	26.12	0.29	-0.750			
0.7403	47376.80	3.4370	3.4372	-0.8631	26.13	0.30	-0.750			
0.7428	47541.17	3.4340	3.4341	-0.8643	26.14	0.31	-0.750			
0.7454	47707.15	3.4310	3.4309	-0.8760	26.15	0.32	-0.750			
0.7480	47873.34	3.4280	3.4280	-0.8836	26.16	0.33	-0.750			
0.7507	48045.41	3.4250	3.4250	-0.9029	26.17	0.34	-0.750			
0.7535	48222.30	3.4220	3.4219	-0.9169	26.17	0.34	-0.750			
0.7562	48399.00	3.4190	3.4190	-0.9313	26.18	0.35	-0.750			
0.7591	48579.43	3.4160	3.4160	-0.9370	26.19	0.36	-0.750			
0.7619	48760.50	3.4130	3.4130	-0.9384	26.20	0.37	-0.750			
0.7648	48946.31	3.4100	3.4100	-0.9370	26.21	0.38	-0.750			
0.7676	49125.18	3.4070	3.4071	-0.9359	26.22	0.39	-0.750			
0.7704	49305.47	3.4040	3.4040	-0.9212	26.23	0.40	-0.750			
0.7732	49483.10	3.4010	3.4010	-0.9053	26.24	0.41	-0.750			
0.7758	49654.31	3.3980	3.3979	-0.8821	26.25	0.42	-0.750			
0.7785	49822.84	3.3950	3.3950	-0.8600	26.25	0.42	-0.750			
0.7810	49986.64	3.3920	3.3920	-0.8350	26.26	0.43	-0.750			
0.7835	50144.40	3.3890	3.3890	-0.8041	26.27	0.44	-0.750			
0.7858	50293.54	3.3860	3.3861	-0.7705	26.28	0.45	-0.750			
0.7881	50441.32	3.3830	3.3830	-0.7495	26.29	0.46	-0.750			
0.7903	50581.90	3.3800	3.3800	-0.7220	26.29	0.46	-0.750			
0.7925	50717.75	3.3770	3.3770	-0.6946	26.29	0.46	-0.750			
0.7945	50848.19	3.3740	3.3740	-0.6708	26.30	0.47	-0.750			
0.7965	50974.70	3.3710	3.3709	-0.6487	26.30	0.47	-0.750			
0.7984	51098.02	3.3680	3.3679	-0.6262	26.30	0.47	-0.750			
0.8002	51215.38	3.3650	3.3650	-0.6013	26.31	0.48	-0.750			
0.8020	51328.44	3.3620	3.3622	-0.5788	26.31	0.48	-0.750			
0.8037	51437.69	3.3590	3.3590	-0.5579	26.32	0.49	-0.750			
0.8053	51541.92	3.3560	3.3559	-0.5385	26.32	0.49	-0.750			
0.8069	51642.37	3.3530	3.3530	-0.5204	26.33	0.50	-0.750			
0.8084	51740.71	3.3500	3.3500	-0.5045	26.34	0.51	-0.750			
0.8099	51835.37	3.3470	3.3470	-0.4886	26.34	0.51	-0.750			
0.8114	51928.04	3.3440	3.3440	-0.4731	26.35	0.52	-0.750			
0.8128	52017.40	3.3410	3.3410	-0.4576	26.35	0.52	-0.750			
0.8141	52103.75	3.3380	3.3380	-0.4424	26.36	0.53	-0.750			
0.8154	52186.91	3.3350	3.3351	-0.4262	26.36	0.53	-0.750			
0.8167	52267.62	3.3320	3.3320	-0.4123	26.37	0.54	-0.750			
0.8179	52345.62	3.3290	3.3290	-0.3979	26.38	0.55	-0.750			
0.8191	52419.73	3.3260	3.3260	-0.3860	26.38	0.55	-0.750			
0.8202	52492.32	3.3230	3.3230	-0.3752	26.39	0.56	-0.750			
0.8213	52563.14	3.3200	3.3199	-0.3652	26.40	0.57	-0.750			
0.8224	52632.39	3.3170	3.3171	-0.3552	26.40	0.57	-0.750			
0.8234	52699.36	3.3140	3.3140	-0.3472	26.41	0.58	-0.750			
0.8245	52765.68	3.3110	3.3110	-0.3368	26.42	0.59	-0.750			
0.8255	52829.60	3.3080	3.3080	-0.3273	26.42	0.59	-0.750			
0.8264	52890.76	3.3050	3.3048	-0.3183	26.43	0.60	-0.750			
0.8274	52951.33	3.3020	3.3022	-0.3090	26.43	0.60	-0.750			
0.8283	53009.43	3.2990	3.2989	-0.3030	26.44	0.61	-0.750			
0.8292	53066.66	3.2960	3.2960	-0.2975	26.44	0.61	-0.750			
0.8300	53122.22	3.2930	3.2931	-0.2896	26.45	0.62	-0.750			
0.8309	53178.74	3.2900	3.2899	-0.2862	26.45	0.62	-0.750			
0.8318	53233.39	3.2870	3.2870	-0.2798	26.46	0.63	-0.750			
0.8326	53286.48	3.2840	3.2840	-0.2733	26.47	0.64	-0.750			
0.8334	53338.45	3.2810	3.2810	-0.2661	26.47	0.64	-0.750			
0.8342	53388.02	3.2780	3.2780	-0.2592	26.48	0.65	-0.750			
0.8350	53437.23	3.2750	3.2750	-0.2548	26.48	0.65	-0.750			
0.8357	53485.40	3.2720	3.2720	-0.2502	26.48	0.65	-0.750			
0.8365	53532.95	3.2690	3.2689	-0.2456	26.49	0.66	-0.750			
0.8372	53579.92	3.2660	3.2661	-0.2415	26.49	0.66	-0.750			
0.8379	53625.76	3.2630	3.2631	-0.2375	26.50	0.67	-0.750			
0.8386	53671.03	3.2600	3.2600	-0.2338	26.50	0.67	-0.750			
0.8393	53715.76	3.2570	3.2570	-0.2300	26.51	0.68	-0.750			
0.8400	53758.90	3.2540	3.2539	-0.2255	26.51	0.68	-0.750			
0.8407	53802.06	3.2510	3.2510	-0.2221	26.52	0.69	-0.750			
0.8413	53844.21	3.2480	3.2480	-0.2193	26.52	0.69	-0.750			
0.8420	53886.07	3.2450	3.2451	-0.2164	26.53	0.70	-0.750			
0.8426	53927.41	3.2420	3.2420	-0.2128	26.53	0.70	-0.750			
0.8432	53967.80	3.2390	3.2390	-0.2095	26.54	0.71	-0.750			
0.8439	54007.73	3.2360	3.2360	-0.2066	26.54	0.71	-0.750			
0.8445	54047.12	3.2330	3.2330	-0.2037	26.55	0.72	-0.750			
0.8451	54085.84	3.2300	3.2300	-0.2014	26.55	0.72	-0.750			
0.8457	54124.28	3.2270	3.2270	-0.1989	26.56	0.73	-0.750			
0.8463	54162.07	3.2240	3.2240	-0.1958	26.56	0.73	-0.750			
0.8469	54199.45	3.2210	3.2210	-0.1937	26.57	0.74	-0.750			
0.8474	54236.69	3.2180	3.2180	-0.1915	26.57	0.74	-0.750			
0.8480	54273.11	3.2150	3.2150	-0.1892	26.58	0.75	-0.750			
0.8486	54309.23	3.2120	3.2121	-0.1867	26.58	0.75	-0.750			
0.8491	54344.84	3.2090	3.2089	-0.1843	26.59	0.76	-0.750			
0.8497	54379.80	3.2060	3.2060	-0.1820	26.59	0.76	-0.750			
0.8502	54414.49	3.2030	3.2030	-0.1804	26.59	0.76	-0.750			
0.8508	54449.14	3.2000	3.2000	-0.1783	26.60	0.77	-0.750			
0.8513	54483.15	3.1970	3.1970	-0.1762	26.60	0.77	-0.750			
0.8518	54516.79	3.1940	3.1940	-0.1741	26.61	0.78	-0.750			
0.8523	54550.01	3.1910	3.1910	-0.1720	26.61	0.78	-0.750			
0.8529	54582.76	3.1880	3.1880	-0.1705	26.62	0.79	-0.750			
0.8534	54615.29	3.1850	3.1850	-0.1689	26.62	0.79	-0.750			
0.8539	54647.35	3.1820	3.1819	-0.1671	26.63	0.80	-0.750			
0.8544	54679.28	3.1790	3.1790	-0.1651	26.63	0.80	-0.750			
0.8549	54711.06	3.1760	3.1761	-0.1638	26.64	0.81	-0.750			
0.8554	54742.48	3.1730	3.1730	-0.1618	26.64	0.81	-0.750			
0.8558	54773.33	3.1700	3.1701	-0.1595	26.65	0.82	-0.750			
0.8563	54803.68	3.1670	3.1670	-0.1582	26.65	0.82	-0.750			
0.8568	54833.53	3.1640	3.1641	-0.1566	26.66	0.83	-0.750			
0.8572	54863.44	3.1610	3.1610	-0.1554	26.66	0.83	-0.750			
0.8577	54893.20	3.1580	3.1579	-0.1547	26.67	0.84	-0.750			
