Ah_balance (normalized)	Ah_balance (mAh)	Voltage - fit (V)	Voltage -  interpolate (V)	dQ/dV (1/V)	Temperature (°C)	Temperature - diff (°C)	Current (C)	R_DC 0ms (mOhm)	R_DC 50ms (mOhm)	R_DC 50 ms PEC (mOhm)
0.0004	23.96	4.1640	4.1638	-0.1308	25.99	-0.00	-0.750			
0.0008	53.55	4.1610	4.1607	-0.1764	25.99	-0.00	-0.750			
0.0014	92.07	4.1580	4.1581	-0.2210	25.99	-0.00	-0.750			
0.0022	139.72	4.1550	4.1550	-0.2618	25.98	-0.01	-0.750			
0.0030	193.61	4.1520	4.1520	-0.3040	25.98	-0.01	-0.750			
0.0040	256.59	4.1490	4.1490	-0.3454	25.98	-0.01	-0.750			
0.0051	326.89	4.1460	4.1460	-0.3829	25.97	-0.02	-0.750			
0.0063	404.54	4.1430	4.1430	-0.4179	25.97	-0.02	-0.750			
0.0076	489.38	4.1400	4.1401	-0.4539	25.97	-0.02	-0.750			
0.0091	580.61	4.1370	4.1370	-0.4846	25.96	-0.03	-0.750			
0.0106	678.74	4.1340	4.1340	-0.5116	25.96	-0.03	-0.750			
0.0122	779.01	4.1310	4.1309	-0.5336	25.95	-0.04	-0.750			
0.0138	884.99	4.1280	4.1280	-0.5535	25.95	-0.04	-0.750			
0.0155	993.27	4.1250	4.1250	-0.5708	25.94	-0.05	-0.750			
0.0173	1104.48	4.1220	4.1220	-0.5874	25.94	-0.05	-0.750			
0.0190	1218.02	4.1190	4.1190	-0.6016	25.93	-0.06	-0.750			
0.0209	1336.72	4.1160	4.1159	-0.6175	25.93	-0.06	-0.750			
0.0228	1456.76	4.1130	4.1130	-0.6295	25.93	-0.06	-0.750			
0.0247	1579.40	4.1100	4.1100	-0.6386	25.92	-0.07	-0.750			
0.0266	1703.27	4.1070	4.1070	-0.6501	25.92	-0.07	-0.750			
0.0286	1829.27	4.1040	4.1039	-0.6568	25.91	-0.08	-0.750			
0.0306	1955.35	4.1010	4.1011	-0.6666	25.91	-0.08	-0.750			
0.0326	2085.48	4.0980	4.0980	-0.6698	25.91	-0.08	-0.750			
0.0346	2215.37	4.0950	4.0950	-0.6782	25.91	-0.08	-0.750			
0.0366	2345.57	4.0920	4.0919	-0.6842	25.90	-0.09	-0.750			
0.0387	2477.56	4.0890	4.0890	-0.6896	25.90	-0.09	-0.750			
0.0408	2610.33	4.0860	4.0859	-0.6892	25.89	-0.10	-0.750			
0.0429	2742.86	4.0830	4.0831	-0.6970	25.89	-0.10	-0.750			
0.0449	2875.65	4.0800	4.0801	-0.6956	25.88	-0.11	-0.750			
0.0471	3011.42	4.0770	4.0770	-0.7069	25.88	-0.11	-0.750			
0.0492	3146.98	4.0740	4.0738	-0.7062	25.87	-0.12	-0.750			
0.0513	3283.20	4.0710	4.0708	-0.7105	25.87	-0.12	-0.750			
0.0534	3420.47	4.0680	4.0681	-0.7186	25.87	-0.12	-0.750			
0.0556	3559.65	4.0650	4.0650	-0.7253	25.87	-0.12	-0.750			
0.0578	3699.25	4.0620	4.0619	-0.7266	25.87	-0.12	-0.750			
0.0600	3840.41	4.0590	4.0591	-0.7317	25.87	-0.12	-0.750			
0.0622	3980.50	4.0560	4.0561	-0.7293	25.87	-0.12	-0.750			
0.0644	4121.98	4.0530	4.0529	-0.7311	25.87	-0.12	-0.750			
0.0666	4261.81	4.0500	4.0499	-0.7305	25.87	-0.12	-0.750			
0.0688	4400.32	4.0470	4.0471	-0.7402	25.87	-0.12	-0.750			
0.0710	4543.96	4.0440	4.0440	-0.7395	25.86	-0.13	-0.750			
0.0733	4688.37	4.0410	4.0407	-0.7431	25.86	-0.13	-0.750			
0.0755	4830.87	4.0380	4.0383	-0.7458	25.86	-0.13	-0.750			
0.0777	4974.78	4.0350	4.0350	-0.7490	25.86	-0.13	-0.750			
0.0800	5116.84	4.0320	4.0319	-0.7504	25.86	-0.13	-0.750			
0.0822	5260.44	4.0290	4.0290	-0.7471	25.86	-0.13	-0.750			
0.0845	5404.90	4.0260	4.0260	-0.7536	25.86	-0.13	-0.750			
0.0867	5551.13	4.0230	4.0229	-0.7545	25.86	-0.13	-0.750			
0.0890	5696.25	4.0200	4.0200	-0.7539	25.86	-0.13	-0.750			
0.0912	5838.98	4.0170	4.0170	-0.7581	25.86	-0.13	-0.750			
0.0935	5984.62	4.0140	4.0139	-0.7596	25.86	-0.13	-0.750			
0.0958	6130.72	4.0110	4.0110	-0.7585	25.87	-0.12	-0.750			
0.0981	6278.59	4.0080	4.0080	-0.7643	25.87	-0.12	-0.750			
0.1004	6425.96	4.0050	4.0052	-0.7625	25.87	-0.12	-0.750			
0.1027	6572.34	4.0020	4.0020	-0.7656	25.87	-0.12	-0.750			
0.1050	6718.17	3.9990	3.9990	-0.7669	25.87	-0.12	-0.750			
0.1073	6865.33	3.9960	3.9959	-0.7662	25.87	-0.12	-0.750			
0.1096	7012.81	3.9930	3.9930	-0.7721	25.87	-0.12	-0.750			
0.1119	7161.40	3.9900	3.9901	-0.7753	25.87	-0.12	-0.750			
0.1142	7310.94	3.9870	3.9870	-0.7799	25.87	-0.12	-0.750			
0.1166	7460.78	3.9840	3.9840	-0.7835	25.87	-0.12	-0.750			
0.1189	7610.83	3.9810	3.9811	-0.7799	25.87	-0.12	-0.750			
0.1213	7762.16	3.9780	3.9780	-0.7794	25.87	-0.12	-0.750			
0.1236	7912.30	3.9750	3.9748	-0.7811	25.87	-0.12	-0.750			
0.1259	8060.58	3.9720	3.9721	-0.7820	25.87	-0.12	-0.750			
0.1283	8210.09	3.9690	3.9690	-0.7885	25.87	-0.12	-0.750			
0.1307	8361.86	3.9660	3.9659	-0.7925	25.87	-0.12	-0.750			
0.1330	8514.93	3.9630	3.9629	-0.7923	25.87	-0.12	-0.750			
0.1355	8669.75	3.9600	3.9601	-0.8002	25.87	-0.12	-0.750			
0.1379	8825.11	3.9570	3.9571	-0.8047	25.87	-0.12	-0.750			
0.1403	8978.80	3.9540	3.9539	-0.7994	25.87	-0.12	-0.750			
0.1427	9130.95	3.9510	3.9510	-0.8056	25.88	-0.11	-0.750			
0.1451	9285.82	3.9480	3.9480	-0.7975	25.88	-0.11	-0.750			
0.1475	9440.37	3.9450	3.9449	-0.8048	25.89	-0.10	-0.750			
0.1499	9594.05	3.9420	3.9422	-0.8035	25.89	-0.10	-0.750			
0.1523	9747.75	3.9390	3.9389	-0.8055	25.89	-0.10	-0.750			
0.1547	9902.51	3.9360	3.9360	-0.8124	25.89	-0.10	-0.750			
0.1572	10058.66	3.9330	3.9330	-0.8149	25.89	-0.10	-0.750			
0.1596	10215.54	3.9300	3.9301	-0.8134	25.89	-0.10	-0.750			
0.1621	10376.71	3.9270	3.9271	-0.8225	25.89	-0.10	-0.750			
0.1646	10531.96	3.9240	3.9239	-0.8169	25.89	-0.10	-0.750			
0.1670	10688.96	3.9210	3.9209	-0.8173	25.89	-0.10	-0.750			
0.1695	10845.19	3.9180	3.9180	-0.8159	25.89	-0.10	-0.750			
0.1719	11000.29	3.9150	3.9150	-0.8159	25.89	-0.10	-0.750			
0.1744	11158.97	3.9120	3.9121	-0.8244	25.89	-0.10	-0.750			
0.1768	11318.10	3.9090	3.9089	-0.8270	25.89	-0.10	-0.750			
0.1793	11476.09	3.9060	3.9060	-0.8320	25.89	-0.10	-0.750			
0.1818	11637.42	3.9030	3.9030	-0.8340	25.90	-0.09	-0.750			
0.1843	11797.99	3.9000	3.9000	-0.8350	25.90	-0.09	-0.750			
0.1869	11960.70	3.8970	3.8969	-0.8371	25.90	-0.09	-0.750			
0.1894	12119.25	3.8940	3.8941	-0.8419	25.90	-0.09	-0.750			
0.1919	12279.97	3.8910	3.8909	-0.8456	25.90	-0.09	-0.750			
0.1944	12443.75	3.8880	3.8880	-0.8517	25.91	-0.08	-0.750			
0.1970	12609.16	3.8850	3.8849	-0.8472	25.91	-0.08	-0.750			
0.1996	12775.12	3.8820	3.8820	-0.8538	25.91	-0.08	-0.750			
0.2022	12937.70	3.8790	3.8790	-0.8505	25.91	-0.08	-0.750			
0.2047	13100.19	3.8760	3.8759	-0.8488	25.92	-0.07	-0.750			
0.2072	13260.26	3.8730	3.8729	-0.8457	25.92	-0.07	-0.750			
0.2097	13422.65	3.8700	3.8700	-0.8454	25.93	-0.06	-0.750			
0.2123	13588.12	3.8670	3.8671	-0.8472	25.93	-0.06	-0.750			
0.2149	13751.59	3.8640	3.8639	-0.8465	25.93	-0.06	-0.750			
0.2174	13912.74	3.8610	3.8610	-0.8468	25.93	-0.06	-0.750			
0.2199	14075.22	3.8580	3.8580	-0.8458	25.94	-0.05	-0.750			
0.2224	14236.58	3.8550	3.8550	-0.8461	25.94	-0.05	-0.750			
0.2250	14400.03	3.8520	3.8522	-0.8484	25.94	-0.05	-0.750			
0.2276	14563.38	3.8490	3.8490	-0.8524	25.94	-0.05	-0.750			
0.2301	14728.78	3.8460	3.8460	-0.8545	25.94	-0.05	-0.750			
0.2327	14892.20	3.8430	3.8430	-0.8505	25.95	-0.04	-0.750			
0.2352	15054.55	3.8400	3.8400	-0.8490	25.95	-0.04	-0.750			
0.2378	15219.24	3.8370	3.8372	-0.8517	25.95	-0.04	-0.750			
0.2404	15382.47	3.8340	3.8339	-0.8477	25.95	-0.04	-0.750			
0.2429	15545.22	3.8310	3.8310	-0.8487	25.95	-0.04	-0.750			
0.2454	15707.63	3.8280	3.8280	-0.8471	25.96	-0.03	-0.750			
0.2480	15871.29	3.8250	3.8251	-0.8546	25.96	-0.03	-0.750			
0.2506	16035.85	3.8220	3.8222	-0.8487	25.96	-0.03	-0.750			
0.2531	16199.55	3.8190	3.8189	-0.8409	25.96	-0.03	-0.750			
0.2556	16360.89	3.8160	3.8160	-0.8374	25.96	-0.03	-0.750			
0.2581	16518.89	3.8130	3.8132	-0.8360	25.97	-0.02	-0.750			
0.2606	16679.64	3.8100	3.8098	-0.8387	25.97	-0.02	-0.750			
0.2631	16838.63	3.8070	3.8070	-0.8370	25.97	-0.02	-0.750			
0.2656	16997.61	3.8040	3.8040	-0.8352	25.97	-0.02	-0.750			
0.2681	17160.58	3.8010	3.8010	-0.8511	25.98	-0.01	-0.750			
0.2707	17327.93	3.7980	3.7979	-0.8560	25.98	-0.01	-0.750			
0.2733	17494.17	3.7950	3.7949	-0.8507	25.99	-0.00	-0.750			
0.2759	17656.34	3.7920	3.7923	-0.8456	25.99	0.00	-0.750			
0.2784	17818.13	3.7890	3.7891	-0.8436	26.00	0.01	-0.750			
0.2809	17978.26	3.7860	3.7859	-0.8417	26.00	0.01	-0.750			
0.2834	18136.37	3.7830	3.7830	-0.8264	26.00	0.01	-0.750			
0.2859	18297.46	3.7800	3.7798	-0.8346	26.01	0.02	-0.750			
0.2884	18460.07	3.7770	3.7772	-0.8385	26.01	0.02	-0.750			
0.2909	18619.79	3.7740	3.7741	-0.8461	26.01	0.02	-0.750			
0.2935	18782.15	3.7710	3.7709	-0.8409	26.01	0.02	-0.750			
0.2960	18943.08	3.7680	3.7680	-0.8332	26.02	0.03	-0.750			
0.2985	19106.57	3.7650	3.7649	-0.8339	26.02	0.03	-0.750			
0.3011	19267.36	3.7620	3.7621	-0.8365	26.02	0.03	-0.750			
0.3035	19424.98	3.7590	3.7590	-0.8307	26.03	0.04	-0.750			
0.3060	19583.21	3.7560	3.7559	-0.8267	26.03	0.04	-0.750			
0.3084	19738.99	3.7530	3.7530	-0.8228	26.03	0.04	-0.750			
0.3109	19900.67	3.7500	3.7500	-0.8316	26.04	0.05	-0.750			
0.3135	20061.65	3.7470	3.7470	-0.8323	26.04	0.05	-0.750			
0.3160	20221.21	3.7440	3.7440	-0.8347	26.04	0.05	-0.750			
0.3184	20380.45	3.7410	3.7410	-0.8372	26.04	0.05	-0.750			
0.3210	20541.78	3.7380	3.7380	-0.8453	26.05	0.06	-0.750			
0.3235	20705.36	3.7350	3.7349	-0.8492	26.05	0.06	-0.750			
0.3261	20868.42	3.7320	3.7321	-0.8539	26.05	0.06	-0.750			
0.3286	21032.75	3.7290	3.7289	-0.8648	26.06	0.07	-0.750			
0.3312	21199.04	3.7260	3.7260	-0.8721	26.06	0.07	-0.750			
0.3338	21364.28	3.7230	3.7230	-0.8783	26.06	0.07	-0.750			
0.3365	21536.40	3.7200	3.7200	-0.8928	26.07	0.08	-0.750			
0.3392	21708.78	3.7170	3.7170	-0.9050	26.07	0.08	-0.750			
0.3419	21884.43	3.7140	3.7140	-0.9315	26.07	0.08	-0.750			
0.3448	22065.05	3.7110	3.7110	-0.9433	26.07	0.08	-0.750			
0.3476	22248.64	3.7080	3.7079	-0.9541	26.07	0.08	-0.750			
0.3505	22434.63	3.7050	3.7053	-0.9681	26.07	0.08	-0.750			
0.3535	22621.92	3.7020	3.7021	-0.9815	26.07	0.08	-0.750			
0.3564	22810.02	3.6990	3.6989	-0.9984	26.07	0.08	-0.750			
0.3594	22999.76	3.6960	3.6959	-1.0124	26.07	0.08	-0.750			
0.3624	23196.02	3.6930	3.6931	-1.0394	26.07	0.08	-0.750			
0.3656	23398.08	3.6900	3.6900	-1.0735	26.07	0.08	-0.750			
0.3689	23609.77	3.6870	3.6869	-1.0979	26.07	0.08	-0.750			
0.3722	23822.20	3.6840	3.6839	-1.1217	26.06	0.07	-0.750			
0.3756	24040.02	3.6810	3.6813	-1.1492	26.06	0.07	-0.750			
0.3791	24264.07	3.6780	3.6778	-1.1710	26.06	0.07	-0.750			
0.3827	24492.52	3.6750	3.6750	-1.1920	26.05	0.06	-0.750			
0.3862	24719.17	3.6720	3.6720	-1.2216	26.05	0.06	-0.750			
0.3900	24959.88	3.6690	3.6689	-1.2487	26.05	0.06	-0.750			
0.3938	25201.68	3.6660	3.6659	-1.2708	26.04	0.05	-0.750			
0.3976	25443.32	3.6630	3.6629	-1.2953	26.03	0.04	-0.750			
0.4015	25693.96	3.6600	3.6601	-1.3232	26.03	0.04	-0.750			
0.4056	25956.31	3.6570	3.6569	-1.3520	26.03	0.04	-0.750			
0.4096	26217.55	3.6540	3.6539	-1.3735	26.03	0.04	-0.750			
0.4138	26480.95	3.6510	3.6511	-1.3991	26.03	0.04	-0.750			
0.4180	26754.45	3.6480	3.6480	-1.4477	26.02	0.03	-0.750			
0.4224	27035.80	3.6450	3.6449	-1.4741	26.01	0.02	-0.750			
0.4269	27319.06	3.6420	3.6421	-1.5176	26.01	0.02	-0.750			
0.4315	27615.14	3.6390	3.6389	-1.5523	26.00	0.01	-0.750			
0.4362	27918.86	3.6360	3.6360	-1.5865	25.99	0.00	-0.750			
0.4410	28224.98	3.6330	3.6329	-1.6177	25.99	-0.00	-0.750			
0.4460	28543.27	3.6300	3.6297	-1.6595	25.98	-0.01	-0.750			
0.4510	28862.56	3.6270	3.6271	-1.6922	25.98	-0.01	-0.750			
0.4561	29193.09	3.6240	3.6240	-1.7224	25.98	-0.01	-0.750	0.402	0.500	
0.4613	29526.26	3.6210	3.6211	-1.7360	25.97	-0.02	-0.750			
0.4666	29861.53	3.6180	3.6179	-1.7599	25.97	-0.02	-0.750			
0.4720	30206.42	3.6150	3.6148	-1.7833	25.96	-0.03	-0.750			
0.4772	30543.86	3.6120	3.6120	-1.8296	25.96	-0.03	-0.750			
0.4828	30898.00	3.6090	3.6090	-1.8601	25.95	-0.04	-0.750			
0.4884	31257.14	3.6060	3.6061	-1.9105	25.95	-0.04	-0.750			
0.4942	31628.89	3.6030	3.6031	-1.9586	25.94	-0.05	-0.750			
0.5003	32017.39	3.6000	3.6000	-2.0022	25.93	-0.06	-0.750			
0.5063	32404.45	3.5970	3.5971	-2.0389	25.93	-0.06	-0.750			
0.5125	32801.41	3.5940	3.5940	-2.0751	25.92	-0.07	-0.750			
0.5187	33198.06	3.5910	3.5910	-2.1054	25.92	-0.07	-0.750			
0.5252	33612.55	3.5880	3.5879	-2.1416	25.91	-0.08	-0.750			
0.5316	34023.44	3.5850	3.5850	-2.1698	25.91	-0.08	-0.750			
0.5382	34445.64	3.5820	3.5820	-2.1963	25.91	-0.08	-0.750			
0.5449	34872.71	3.5790	3.5791	-2.2372	25.91	-0.08	-0.750			
0.5516	35300.38	3.5760	3.5759	-2.2539	25.91	-0.08	-0.750			
0.5584	35739.06	3.5730	3.5730	-2.2826	25.91	-0.08	-0.750			
0.5653	36177.18	3.5700	3.5702	-2.3058	25.91	-0.08	-0.750			
0.5723	36625.53	3.5670	3.5670	-2.3347	25.89	-0.10	-0.750			
0.5793	37076.64	3.5640	3.5640	-2.3395	25.89	-0.10	-0.750			
0.5864	37530.59	3.5610	3.5609	-2.3466	25.89	-0.10	-0.750			
0.5935	37981.65	3.5580	3.5582	-2.3481	25.89	-0.10	-0.750			
0.6005	38432.40	3.5550	3.5549	-2.3368	25.89	-0.10	-0.750			
0.6076	38889.29	3.5520	3.5519	-2.2947	25.89	-0.10	-0.750			
0.6144	39324.44	3.5490	3.5490	-2.2587	25.89	-0.10	-0.750			
0.6212	39756.89	3.5460	3.5462	-2.2563	25.90	-0.09	-0.750			
0.6279	40182.47	3.5430	3.5431	-2.2331	25.91	-0.08	-0.750			
0.6345	40609.53	3.5400	3.5399	-2.2048	25.91	-0.08	-0.750			
0.6411	41030.96	3.5370	3.5372	-2.1817	25.91	-0.08	-0.750			
0.6477	41454.95	3.5340	3.5340	-2.1853	25.91	-0.08	-0.750			
0.6543	41877.86	3.5310	3.5310	-2.1461	25.92	-0.07	-0.750			
0.6607	42287.64	3.5280	3.5280	-2.0882	25.93	-0.06	-0.750			
0.6670	42687.47	3.5250	3.5250	-2.0393	25.94	-0.05	-0.750			
0.6730	43071.52	3.5220	3.5220	-1.9864	25.96	-0.03	-0.750			
0.6790	43455.39	3.5190	3.5191	-1.9312	25.97	-0.02	-0.750			
0.6846	43815.18	3.5160	3.5162	-1.8625	25.98	-0.01	-0.750			
0.6900	44162.46	3.5130	3.5128	-1.8040	25.99	-0.00	-0.750			
0.6954	44504.00	3.5100	3.5100	-1.7668	26.00	0.01	-0.750			
0.7006	44840.38	3.5070	3.5071	-1.6991	26.01	0.02	-0.750			
0.7056	45161.54	3.5040	3.5042	-1.6328	26.03	0.04	-0.750			
0.7104	45467.13	3.5010	3.5009	-1.5683	26.04	0.05	-0.750			
0.7151	45768.01	3.4980	3.4979	-1.5210	26.06	0.07	-0.750			
0.7195	46048.17	3.4950	3.4949	-1.4591	26.07	0.08	-0.750			
0.7237	46318.74	3.4920	3.4920	-1.4147	26.09	0.10	-0.750			
0.7280	46590.91	3.4890	3.4890	-1.3774	26.10	0.11	-0.750			
0.7320	46848.65	3.4860	3.4860	-1.3302	26.12	0.13	-0.750			
0.7359	47099.78	3.4830	3.4829	-1.2867	26.14	0.15	-0.750			
0.7397	47342.46	3.4800	3.4799	-1.2483	26.16	0.17	-0.750			
0.7434	47579.67	3.4770	3.4769	-1.2084	26.17	0.18	-0.750			
0.7470	47807.60	3.4740	3.4739	-1.1648	26.18	0.19	-0.750			
0.7504	48024.45	3.4710	3.4713	-1.1229	26.19	0.20	-0.750			
0.7538	48240.24	3.4680	3.4680	-1.0923	26.20	0.21	-0.750			
0.7569	48444.24	3.4650	3.4649	-1.0483	26.22	0.23	-0.750			
0.7600	48641.87	3.4620	3.4620	-1.0105	26.23	0.24	-0.750			
0.7630	48831.22	3.4590	3.4593	-0.9811	26.24	0.25	-0.750			
0.7658	49013.05	3.4560	3.4559	-0.9579	26.25	0.26	-0.750			
0.7686	49193.08	3.4530	3.4530	-0.9357	26.25	0.26	-0.750			
0.7714	49369.11	3.4500	3.4498	-0.9203	26.26	0.27	-0.750			
0.7741	49543.29	3.4470	3.4471	-0.9172	26.27	0.28	-0.750			
0.7768	49717.13	3.4440	3.4440	-0.9261	26.28	0.29	-0.750			
0.7796	49893.18	3.4410	3.4409	-0.9353	26.29	0.30	-0.750			
0.7824	50071.68	3.4380	3.4379	-0.9580	26.30	0.31	-0.750			
0.7852	50253.31	3.4350	3.4350	-0.9830	26.31	0.32	-0.750			
0.7882	50446.56	3.4320	3.4321	-1.0257	26.32	0.33	-0.750			
0.7914	50649.64	3.4290	3.4290	-1.0566	26.33	0.34	-0.750			
0.7946	50856.62	3.4260	3.4259	-1.0836	26.34	0.35	-0.750			
0.7980	51070.57	3.4230	3.4230	-1.0978	26.34	0.35	-0.750			
0.8013	51284.66	3.4200	3.4201	-1.1137	26.35	0.36	-0.750			
0.8047	51502.82	3.4170	3.4170	-1.1004	26.36	0.37	-0.750			
0.8081	51716.49	3.4140	3.4140	-1.0860	26.37	0.38	-0.750			
0.8113	51925.35	3.4110	3.4109	-1.0512	26.38	0.39	-0.750			
0.8145	52124.82	3.4080	3.4080	-1.0229	26.39	0.40	-0.750			
0.8175	52317.27	3.4050	3.4050	-0.9903	26.40	0.41	-0.750			
0.8204	52504.09	3.4020	3.4019	-0.9558	26.40	0.41	-0.750			
0.8232	52683.06	3.3990	3.3989	-0.9199	26.41	0.42	-0.750			
0.8259	52858.60	3.3960	3.3961	-0.8920	26.42	0.43	-0.750			
0.8285	53026.52	3.3930	3.3930	-0.8592	26.43	0.44	-0.750			
0.8311	53190.15	3.3900	3.3899	-0.8252	26.43	0.44	-0.750			
0.8335	53342.25	3.3870	3.3871	-0.7845	26.43	0.44	-0.750			
0.8358	53491.87	3.3840	3.3840	-0.7590	26.44	0.45	-0.750			
0.8380	53633.57	3.3810	3.3811	-0.7277	26.44	0.45	-0.750			
0.8401	53769.38	3.3780	3.3780	-0.6985	26.45	0.46	-0.750			
0.8422	53899.89	3.3750	3.3749	-0.6702	26.45	0.46	-0.750			
0.8441	54025.57	3.3720	3.3720	-0.6460	26.46	0.47	-0.750			
0.8461	54147.74	3.3690	3.3690	-0.6240	26.47	0.48	-0.750			
0.8479	54265.37	3.3660	3.3660	-0.5960	26.47	0.48	-0.750			
0.8496	54376.51	3.3630	3.3630	-0.5715	26.48	0.49	-0.750			
0.8513	54483.42	3.3600	3.3601	-0.5521	26.48	0.49	-0.750			
0.8529	54586.83	3.3570	3.3569	-0.5278	26.49	0.50	-0.750			
0.8545	54686.38	3.3540	3.3538	-0.5080	26.49	0.50	-0.750			
0.8560	54781.77	3.3510	3.3512	-0.4864	26.50	0.51	-0.750			
0.8574	54873.71	3.3480	3.3479	-0.4689	26.50	0.51	-0.750			
0.8588	54962.19	3.3450	3.3450	-0.4554	26.51	0.52	-0.750			
0.8601	55047.44	3.3420	3.3420	-0.4347	26.51	0.52	-0.750			
0.8614	55128.14	3.3390	3.3389	-0.4158	26.52	0.53	-0.750			
0.8626	55207.08	3.3360	3.3364	-0.4019	26.52	0.53	-0.750			
0.8638	55282.23	3.3330	3.3329	-0.3846	26.53	0.54	-0.750			
0.8649	55354.11	3.3300	3.3300	-0.3697	26.53	0.54	-0.750			
0.8660	55422.69	3.3270	3.3270	-0.3530	26.54	0.55	-0.750			
0.8670	55489.53	3.3240	3.3241	-0.3421	26.54	0.55	-0.750			
0.8680	55553.73	3.3210	3.3210	-0.3308	26.55	0.56	-0.750			
0.8690	55615.43	3.3180	3.3180	-0.3189	26.55	0.56	-0.750			
0.8699	55675.75	3.3150	3.3149	-0.3068	26.55	0.56	-0.750			
0.8708	55733.67	3.3120	3.3119	-0.2963	26.56	0.57	-0.750			
0.8717	55788.77	3.3090	3.3091	-0.2880	26.56	0.57	-0.750			
0.8726	55843.33	3.3060	3.3060	-0.2786	26.57	0.58	-0.750			
0.8734	55895.99	3.3030	3.3029	-0.2693	26.57	0.58	-0.750			
0.8742	55946.75	3.3000	3.3000	-0.2602	26.58	0.59	-0.750			
0.8749	55995.58	3.2970	3.2972	-0.2528	26.58	0.59	-0.750			
0.8757	56043.69	3.2940	3.2940	-0.2454	26.58	0.59	-0.750			
0.8764	56089.52	3.2910	3.2909	-0.2378	26.59	0.60	-0.750			
0.8771	56133.96	3.2880	3.2880	-0.2304	26.59	0.60	-0.750			
0.8778	56177.21	3.2850	3.2851	-0.2248	26.60	0.61	-0.750			
0.8784	56220.30	3.2820	3.2819	-0.2211	26.60	0.61	-0.750			
0.8791	56262.24	3.2790	3.2789	-0.2159	26.61	0.62	-0.750			
0.8797	56303.18	3.2760	3.2761	-0.2110	26.61	0.62	-0.750			
0.8804	56343.03	3.2730	3.2730	-0.2058	26.61	0.62	-0.750			
0.8810	56382.53	3.2700	3.2701	-0.2019	26.62	0.63	-0.750			
0.8816	56420.30	3.2670	3.2670	-0.1969	26.62	0.63	-0.750			
0.8822	56457.71	3.2640	3.2640	-0.1928	26.62	0.63	-0.750			
0.8827	56494.31	3.2610	3.2610	-0.1884	26.63	0.64	-0.750			
0.8833	56530.06	3.2580	3.2580	-0.1836	26.63	0.64	-0.750			
0.8838	56564.78	3.2550	3.2551	-0.1804	26.64	0.65	-0.750			
0.8844	56599.05	3.2520	3.2521	-0.1766	26.64	0.65	-0.750			
0.8849	56632.27	3.2490	3.2490	-0.1739	26.64	0.65	-0.750			
0.8854	56664.95	3.2460	3.2459	-0.1714	26.65	0.66	-0.750			
0.8859	56697.63	3.2430	3.2430	-0.1683	26.65	0.66	-0.750			
0.8864	56729.80	3.2400	3.2399	-0.1669	26.65	0.66	-0.750			
0.8869	56762.06	3.2370	3.2370	-0.1647	26.66	0.67	-0.750			
0.8874	56793.67	3.2340	3.2339	-0.1631	26.66	0.67	-0.750			
0.8879	56824.56	3.2310	3.2311	-0.1607	26.66	0.67	-0.750			
0.8884	56854.99	3.2280	3.2279	-0.1581	26.67	0.68	-0.750			
0.8888	56885.00	3.2250	3.2249	-0.1554	26.67	0.68	-0.750			
0.8893	56914.51	3.2220	3.2221	-0.1530	26.68	0.69	-0.750			
0.8897	56943.78	3.2190	3.2190	-0.1519	26.68	0.69	-0.750			
0.8902	56972.76	3.2160	3.2161	-0.1500	26.68	0.69	-0.750			
0.8906	57001.36	3.2130	3.2129	-0.1479	26.69	0.70	-0.750			
0.8911	57029.48	3.2100	3.2100	-0.1456	26.69	0.70	-0.750			
0.8915	57057.15	3.2070	3.2070	-0.1439	26.70	0.71	-0.750			
0.8919	57084.64	3.2040	3.2041	-0.1424	26.70	0.71	-0.750			
0.8924	57111.89	3.2010	3.2010	-0.1413	26.71	0.72	-0.750			
0.8928	57138.71	3.1980	3.1979	-0.1397	26.71	0.72	-0.750			
0.8932	57165.38	3.1950	3.1950	-0.1379	26.71	0.72	-0.750			
0.8936	57191.75	3.1920	3.1920	-0.1368	26.72	0.73	-0.750			
0.8940	57218.09	3.1890	3.1890	-0.1356	26.72	0.73	-0.750			
0.8944	57243.94	3.1860	3.1860	-0.1346	26.73	0.74	-0.750			
0.8948	57269.51	3.1830	3.1830	-0.1330	26.73	0.74	-0.750			
0.8952	57294.96	3.1800	3.1800	-0.1320	26.73	0.74	-0.750			
0.8956	57320.21	3.1770	3.1770	-0.1306	26.74	0.75	-0.750			
0.8960	57345.19	3.1740	3.1741	-0.1294	26.74	0.75	-0.750			
0.8964	57370.08	3.1710	3.1710	-0.1285	26.75	0.76	-0.750			
0.8968	57394.51	3.1680	3.1680	-0.1273	26.75	0.76	-0.750			
0.8972	57418.81	3.1650	3.1650	-0.1260	26.75	0.76	-0.750			
