Ah_balance (normalized)	Ah_balance (mAh)	Voltage - fit (V)	Voltage -  interpolate (V)	dQ/dV (1/V)	Temperature (°C)	Temperature - diff (°C)	Current (C)	R_DC 0ms (mOhm)	R_DC 50ms (mOhm)	R_DC 50 ms PEC (mOhm)
0.0004	25.97	4.1590	4.1587	-0.1250	25.83	0.01	-0.750			
0.0009	55.42	4.1560	4.1559	-0.1694	25.82	0.00	-0.750			
0.0014	92.00	4.1530	4.1529	-0.2090	25.82	0.00	-0.750			
0.0021	136.91	4.1500	4.1499	-0.2439	25.82	0.00	-0.750			
0.0029	187.20	4.1470	4.1471	-0.2796	25.82	-0.00	-0.750			
0.0038	244.97	4.1440	4.1441	-0.3148	25.82	-0.00	-0.750			
0.0048	308.71	4.1410	4.1409	-0.3479	25.81	-0.01	-0.750			
0.0059	378.22	4.1380	4.1380	-0.3803	25.81	-0.01	-0.750			
0.0071	455.37	4.1350	4.1349	-0.4102	25.81	-0.01	-0.750			
0.0084	537.47	4.1320	4.1321	-0.4406	25.81	-0.01	-0.750			
0.0098	625.25	4.1290	4.1290	-0.4707	25.80	-0.02	-0.750			
0.0112	719.48	4.1260	4.1260	-0.4921	25.80	-0.02	-0.750			
0.0128	816.78	4.1230	4.1229	-0.5129	25.80	-0.02	-0.750			
0.0143	918.04	4.1200	4.1200	-0.5298	25.79	-0.03	-0.750			
0.0160	1021.70	4.1170	4.1170	-0.5432	25.79	-0.03	-0.750			
0.0176	1127.56	4.1140	4.1140	-0.5570	25.79	-0.03	-0.750			
0.0193	1234.79	4.1110	4.1111	-0.5701	25.78	-0.04	-0.750			
0.0210	1343.87	4.1080	4.1080	-0.5855	25.78	-0.04	-0.750			
0.0228	1460.63	4.1050	4.1049	-0.5973	25.78	-0.04	-0.750			
0.0246	1576.74	4.1020	4.1020	-0.6074	25.77	-0.05	-0.750			
0.0265	1695.37	4.0990	4.0989	-0.6148	25.77	-0.05	-0.750			
0.0284	1815.11	4.0960	4.0961	-0.6233	25.77	-0.05	-0.750			
0.0302	1934.76	4.0930	4.0929	-0.6277	25.77	-0.05	-0.750			
0.0321	2054.36	4.0900	4.0900	-0.6326	25.76	-0.06	-0.750			
0.0340	2175.12	4.0870	4.0870	-0.6396	25.76	-0.06	-0.750			
0.0360	2301.08	4.0840	4.0840	-0.6521	25.76	-0.06	-0.750			
0.0379	2426.86	4.0810	4.0810	-0.6576	25.75	-0.07	-0.750			
0.0399	2554.26	4.0780	4.0780	-0.6646	25.75	-0.07	-0.750			
0.0419	2683.08	4.0750	4.0750	-0.6694	25.75	-0.07	-0.750			
0.0439	2812.74	4.0720	4.0719	-0.6732	25.75	-0.07	-0.750			
0.0460	2942.35	4.0690	4.0690	-0.6748	25.75	-0.07	-0.750			
0.0480	3072.46	4.0660	4.0660	-0.6747	25.75	-0.07	-0.750			
0.0500	3201.81	4.0630	4.0630	-0.6806	25.75	-0.07	-0.750			
0.0521	3332.74	4.0600	4.0600	-0.6819	25.75	-0.07	-0.750			
0.0541	3462.64	4.0570	4.0569	-0.6859	25.75	-0.07	-0.750			
0.0562	3594.76	4.0540	4.0540	-0.6903	25.75	-0.07	-0.750			
0.0582	3727.95	4.0510	4.0511	-0.6985	25.75	-0.07	-0.750			
0.0604	3863.36	4.0480	4.0479	-0.7019	25.75	-0.07	-0.750			
0.0625	4000.25	4.0450	4.0450	-0.7046	25.75	-0.07	-0.750			
0.0646	4135.11	4.0420	4.0422	-0.7026	25.75	-0.07	-0.750			
0.0667	4270.64	4.0390	4.0390	-0.7058	25.75	-0.07	-0.750			
0.0688	4405.37	4.0360	4.0359	-0.7039	25.75	-0.07	-0.750			
0.0709	4539.37	4.0330	4.0330	-0.7090	25.75	-0.07	-0.750			
0.0731	4676.42	4.0300	4.0300	-0.7085	25.75	-0.07	-0.750			
0.0752	4815.52	4.0270	4.0269	-0.7146	25.75	-0.07	-0.750			
0.0774	4952.81	4.0240	4.0243	-0.7144	25.75	-0.07	-0.750			
0.0795	5089.29	4.0210	4.0210	-0.7156	25.75	-0.07	-0.750			
0.0817	5226.36	4.0180	4.0179	-0.7136	25.75	-0.07	-0.750			
0.0838	5362.08	4.0150	4.0150	-0.7195	25.75	-0.07	-0.750			
0.0860	5502.51	4.0120	4.0119	-0.7224	25.75	-0.07	-0.750			
0.0881	5640.94	4.0090	4.0089	-0.7227	25.75	-0.07	-0.750			
0.0903	5780.50	4.0060	4.0063	-0.7224	25.75	-0.07	-0.750			
0.0925	5918.76	4.0030	4.0027	-0.7209	25.75	-0.07	-0.750			
0.0946	6055.48	4.0000	4.0001	-0.7288	25.76	-0.06	-0.750			
0.0968	6196.01	3.9970	3.9970	-0.7275	25.76	-0.06	-0.750			
0.0990	6336.90	3.9940	3.9939	-0.7343	25.76	-0.06	-0.750			
0.1012	6478.31	3.9910	3.9909	-0.7373	25.77	-0.05	-0.750			
0.1034	6618.23	3.9880	3.9882	-0.7404	25.77	-0.05	-0.750			
0.1056	6761.06	3.9850	3.9849	-0.7472	25.77	-0.05	-0.750			
0.1079	6905.24	3.9820	3.9819	-0.7493	25.77	-0.05	-0.750			
0.1101	7048.19	3.9790	3.9790	-0.7498	25.77	-0.05	-0.750			
0.1124	7195.74	3.9760	3.9761	-0.7574	25.77	-0.05	-0.750			
0.1147	7342.36	3.9730	3.9730	-0.7551	25.77	-0.05	-0.750			
0.1170	7486.66	3.9700	3.9699	-0.7552	25.77	-0.05	-0.750			
0.1192	7628.79	3.9670	3.9670	-0.7545	25.78	-0.04	-0.750			
0.1215	7774.42	3.9640	3.9640	-0.7560	25.78	-0.04	-0.750			
0.1238	7920.56	3.9610	3.9609	-0.7574	25.78	-0.04	-0.750			
0.1260	8066.41	3.9580	3.9580	-0.7573	25.79	-0.03	-0.750			
0.1283	8212.03	3.9550	3.9551	-0.7575	25.79	-0.03	-0.750			
0.1306	8356.29	3.9520	3.9521	-0.7643	25.79	-0.03	-0.750			
0.1329	8503.16	3.9490	3.9489	-0.7638	25.80	-0.02	-0.750			
0.1351	8648.50	3.9460	3.9461	-0.7670	25.80	-0.02	-0.750			
0.1375	8797.62	3.9430	3.9430	-0.7725	25.81	-0.01	-0.750			
0.1398	8947.89	3.9400	3.9401	-0.7763	25.81	-0.01	-0.750			
0.1421	9097.03	3.9370	3.9369	-0.7768	25.81	-0.01	-0.750			
0.1445	9244.82	3.9340	3.9339	-0.7766	25.81	-0.01	-0.750			
0.1468	9393.03	3.9310	3.9311	-0.7763	25.82	-0.00	-0.750			
0.1491	9542.68	3.9280	3.9280	-0.7791	25.82	-0.00	-0.750			
0.1515	9693.17	3.9250	3.9250	-0.7778	25.82	-0.00	-0.750			
0.1538	9842.83	3.9220	3.9220	-0.7800	25.82	0.00	-0.750			
0.1561	9991.40	3.9190	3.9191	-0.7857	25.82	0.00	-0.750			
0.1585	10142.45	3.9160	3.9158	-0.7885	25.82	0.00	-0.750			
0.1608	10294.33	3.9130	3.9130	-0.7885	25.83	0.01	-0.750			
0.1632	10447.00	3.9100	3.9100	-0.7892	25.83	0.01	-0.750			
0.1656	10600.08	3.9070	3.9071	-0.7901	25.83	0.01	-0.750			
0.1680	10752.92	3.9040	3.9040	-0.7832	25.84	0.02	-0.750			
0.1703	10901.35	3.9010	3.9010	-0.7794	25.84	0.02	-0.750			
0.1726	11048.90	3.8980	3.8981	-0.7799	25.85	0.03	-0.750			
0.1750	11197.83	3.8950	3.8949	-0.7832	25.85	0.03	-0.750			
0.1773	11348.76	3.8920	3.8919	-0.7841	25.86	0.04	-0.750			
0.1797	11499.48	3.8890	3.8890	-0.7876	25.86	0.04	-0.750			
0.1820	11650.73	3.8860	3.8860	-0.7943	25.87	0.05	-0.750			
0.1845	11805.07	3.8830	3.8830	-0.8003	25.87	0.05	-0.750			
0.1869	11959.33	3.8800	3.8799	-0.8038	25.87	0.05	-0.750			
0.1893	12112.68	3.8770	3.8769	-0.8023	25.88	0.06	-0.750			
0.1917	12268.93	3.8740	3.8740	-0.8003	25.88	0.06	-0.750			
0.1941	12421.80	3.8710	3.8709	-0.8054	25.89	0.07	-0.750			
0.1965	12574.71	3.8680	3.8681	-0.8017	25.90	0.08	-0.750			
0.1989	12728.27	3.8650	3.8650	-0.8016	25.90	0.08	-0.750			
0.2013	12883.51	3.8620	3.8619	-0.8047	25.91	0.09	-0.750			
0.2037	13038.50	3.8590	3.8590	-0.8057	25.91	0.09	-0.750			
0.2061	13192.09	3.8560	3.8560	-0.8103	25.91	0.09	-0.750			
0.2086	13349.38	3.8530	3.8529	-0.8083	25.91	0.09	-0.750			
0.2110	13503.41	3.8500	3.8500	-0.7987	25.91	0.09	-0.750			
0.2134	13658.18	3.8470	3.8470	-0.8026	25.91	0.09	-0.750			
0.2158	13811.78	3.8440	3.8440	-0.8017	25.91	0.09	-0.750			
0.2182	13963.45	3.8410	3.8411	-0.8060	25.91	0.09	-0.750			
0.2206	14117.20	3.8380	3.8380	-0.8073	25.92	0.10	-0.750			
0.2230	14273.91	3.8350	3.8349	-0.8025	25.92	0.10	-0.750			
0.2255	14431.44	3.8320	3.8319	-0.8044	25.93	0.11	-0.750			
0.2279	14586.03	3.8290	3.8292	-0.8020	25.93	0.11	-0.750			
0.2303	14737.20	3.8260	3.8260	-0.7960	25.94	0.12	-0.750			
0.2326	14888.87	3.8230	3.8229	-0.7918	25.94	0.12	-0.750			
0.2350	15040.82	3.8200	3.8200	-0.7849	25.95	0.13	-0.750			
0.2374	15191.47	3.8170	3.8170	-0.7838	25.95	0.13	-0.750			
0.2397	15342.18	3.8140	3.8142	-0.7819	25.96	0.14	-0.750			
0.2421	15491.26	3.8110	3.8110	-0.7815	25.96	0.14	-0.750			
0.2444	15639.81	3.8080	3.8078	-0.7867	25.96	0.14	-0.750			
0.2467	15790.07	3.8050	3.8051	-0.7862	25.97	0.15	-0.750			
0.2491	15943.82	3.8020	3.8020	-0.7873	25.97	0.15	-0.750			
0.2516	16099.64	3.7990	3.7990	-0.7893	25.97	0.15	-0.750			
0.2539	16250.66	3.7960	3.7959	-0.7787	25.97	0.15	-0.750			
0.2562	16398.24	3.7930	3.7929	-0.7695	25.98	0.16	-0.750			
0.2585	16542.83	3.7900	3.7901	-0.7644	25.98	0.16	-0.750			
0.2607	16686.83	3.7870	3.7870	-0.7557	25.98	0.16	-0.750			
0.2631	16835.26	3.7840	3.7839	-0.7568	25.99	0.17	-0.750			
0.2653	16979.95	3.7810	3.7811	-0.7551	25.99	0.17	-0.750			
0.2676	17124.80	3.7780	3.7781	-0.7551	26.00	0.18	-0.750			
0.2698	17268.70	3.7750	3.7750	-0.7530	26.00	0.18	-0.750			
0.2721	17412.87	3.7720	3.7719	-0.7520	26.01	0.19	-0.750			
0.2743	17556.13	3.7690	3.7690	-0.7485	26.01	0.19	-0.750			
0.2766	17700.93	3.7660	3.7660	-0.7498	26.02	0.20	-0.750			
0.2789	17846.60	3.7630	3.7630	-0.7504	26.02	0.20	-0.750			
0.2811	17988.03	3.7600	3.7600	-0.7492	26.02	0.20	-0.750			
0.2833	18130.79	3.7570	3.7570	-0.7488	26.02	0.20	-0.750			
0.2855	18274.67	3.7540	3.7540	-0.7525	26.03	0.21	-0.750			
0.2878	18420.19	3.7510	3.7509	-0.7550	26.03	0.21	-0.750			
0.2901	18565.77	3.7480	3.7483	-0.7603	26.03	0.21	-0.750			
0.2924	18711.74	3.7450	3.7450	-0.7638	26.03	0.21	-0.750			
0.2947	18858.99	3.7420	3.7420	-0.7720	26.04	0.22	-0.750			
0.2970	19007.13	3.7390	3.7390	-0.7780	26.04	0.22	-0.750			
0.2993	19156.16	3.7360	3.7359	-0.7860	26.04	0.22	-0.750			
0.3017	19307.85	3.7330	3.7330	-0.7948	26.05	0.23	-0.750			
0.3041	19461.62	3.7300	3.7299	-0.8075	26.05	0.23	-0.750			
0.3065	19616.46	3.7270	3.7270	-0.8187	26.05	0.23	-0.750			
0.3090	19774.66	3.7240	3.7240	-0.8310	26.05	0.23	-0.750			
0.3115	19935.26	3.7210	3.7210	-0.8437	26.05	0.23	-0.750			
0.3141	20099.79	3.7180	3.7180	-0.8576	26.05	0.23	-0.750			
0.3166	20265.13	3.7150	3.7150	-0.8730	26.05	0.23	-0.750			
0.3193	20434.74	3.7120	3.7120	-0.8906	26.05	0.23	-0.750			
0.3220	20607.68	3.7090	3.7089	-0.9008	26.05	0.23	-0.750			
0.3247	20781.62	3.7060	3.7060	-0.9155	26.05	0.23	-0.750			
0.3275	20958.97	3.7030	3.7033	-0.9323	26.05	0.23	-0.750			
0.3303	21138.61	3.7000	3.6999	-0.9542	26.05	0.23	-0.750			
0.3332	21323.42	3.6970	3.6969	-0.9724	26.05	0.23	-0.750			
0.3361	21511.43	3.6940	3.6940	-0.9862	26.05	0.23	-0.750			
0.3391	21705.56	3.6910	3.6909	-1.0115	26.05	0.23	-0.750			
0.3422	21900.92	3.6880	3.6880	-1.0289	26.05	0.23	-0.750			
0.3453	22100.42	3.6850	3.6850	-1.0408	26.04	0.22	-0.750			
0.3484	22298.43	3.6820	3.6819	-1.0629	26.04	0.22	-0.750			
0.3516	22502.60	3.6790	3.6790	-1.0815	26.03	0.21	-0.750			
0.3549	22714.99	3.6760	3.6759	-1.1115	26.03	0.21	-0.750			
0.3583	22932.63	3.6730	3.6730	-1.1289	26.03	0.21	-0.750			
0.3618	23152.92	3.6700	3.6700	-1.1479	26.03	0.21	-0.750			
0.3652	23373.45	3.6670	3.6673	-1.1688	26.03	0.21	-0.750			
0.3687	23599.87	3.6640	3.6639	-1.1893	26.02	0.20	-0.750			
0.3723	23827.82	3.6610	3.6610	-1.2035	26.02	0.20	-0.750			
0.3759	24058.15	3.6580	3.6580	-1.2331	26.01	0.19	-0.750			
0.3797	24300.65	3.6550	3.6549	-1.2657	26.01	0.19	-0.750			
0.3835	24545.81	3.6520	3.6520	-1.2925	26.00	0.18	-0.750			
0.3874	24794.04	3.6490	3.6489	-1.3235	25.99	0.17	-0.750			
0.3915	25053.91	3.6460	3.6461	-1.3419	25.99	0.17	-0.750			
0.3956	25316.81	3.6430	3.6429	-1.3673	25.97	0.15	-0.750			
0.3997	25579.13	3.6400	3.6399	-1.4064	25.96	0.14	-0.750			
0.4039	25848.37	3.6370	3.6371	-1.4256	25.95	0.13	-0.750			
0.4083	26130.24	3.6340	3.6338	-1.4506	25.94	0.12	-0.750			
0.4127	26410.26	3.6310	3.6311	-1.4824	25.93	0.11	-0.750			
0.4172	26699.13	3.6280	3.6279	-1.4975	25.93	0.11	-0.750			
0.4218	26994.40	3.6250	3.6250	-1.5214	25.93	0.11	-0.750			
0.4263	27285.12	3.6220	3.6221	-1.5487	25.93	0.11	-0.750			
0.4310	27583.68	3.6190	3.6189	-1.5770	25.92	0.10	-0.750			
0.4358	27888.82	3.6160	3.6158	-1.6189	25.92	0.10	-0.750	0.412	0.552	
0.4406	28199.81	3.6130	3.6133	-1.6631	25.91	0.09	-0.750			
0.4457	28521.73	3.6100	3.6101	-1.6949	25.90	0.08	-0.750			
0.4509	28860.26	3.6070	3.6070	-1.7245	25.89	0.07	-0.750			
0.4561	29191.00	3.6040	3.6040	-1.7546	25.89	0.07	-0.750			
0.4615	29534.42	3.6010	3.6009	-1.7923	25.88	0.06	-0.750			
0.4669	29880.41	3.5980	3.5978	-1.8312	25.88	0.06	-0.750			
0.4724	30231.35	3.5950	3.5951	-1.8697	25.87	0.05	-0.750			
0.4780	30595.05	3.5920	3.5921	-1.8998	25.87	0.05	-0.750			
0.4838	30965.70	3.5890	3.5892	-1.9496	25.86	0.04	-0.750			
0.4898	31345.73	3.5860	3.5859	-1.9943	25.85	0.03	-0.750			
0.4958	31731.72	3.5830	3.5832	-2.0283	25.85	0.03	-0.750			
0.5020	32126.39	3.5800	3.5800	-2.0581	25.85	0.03	-0.750			
0.5082	32527.13	3.5770	3.5770	-2.0739	25.84	0.02	-0.750			
0.5144	32923.33	3.5740	3.5740	-2.0910	25.82	0.00	-0.750			
0.5208	33329.23	3.5710	3.5710	-2.1384	25.82	0.00	-0.750			
0.5271	33737.52	3.5680	3.5680	-2.1529	25.82	0.00	-0.750			
0.5337	34157.09	3.5650	3.5651	-2.1625	25.82	0.00	-0.750			
0.5402	34574.38	3.5620	3.5621	-2.1902	25.82	0.00	-0.750			
0.5469	35004.24	3.5590	3.5591	-2.1754	25.82	0.00	-0.750			
0.5535	35421.81	3.5560	3.5559	-2.1794	25.82	0.00	-0.750			
0.5599	35835.36	3.5530	3.5531	-2.1727	25.82	0.00	-0.750			
0.5664	36249.06	3.5500	3.5499	-2.1540	25.82	0.00	-0.750			
0.5729	36664.82	3.5470	3.5471	-2.1651	25.82	0.00	-0.750			
0.5793	37077.37	3.5440	3.5441	-2.1557	25.82	0.00	-0.750			
0.5858	37491.17	3.5410	3.5409	-2.1356	25.82	0.00	-0.750			
0.5923	37909.47	3.5380	3.5380	-2.1234	25.82	0.00	-0.750			
0.5987	38314.36	3.5350	3.5350	-2.0871	25.82	0.00	-0.750			
0.6049	38713.86	3.5320	3.5319	-2.0578	25.82	0.00	-0.750			
0.6111	39108.40	3.5290	3.5288	-2.0070	25.83	0.01	-0.750			
0.6170	39487.10	3.5260	3.5260	-1.9713	25.84	0.02	-0.750			
0.6228	39861.30	3.5230	3.5231	-1.9421	25.85	0.03	-0.750			
0.6287	40234.93	3.5200	3.5200	-1.8974	25.85	0.03	-0.750			
0.6343	40594.37	3.5170	3.5172	-1.8582	25.86	0.04	-0.750			
0.6399	40955.02	3.5140	3.5141	-1.8219	25.87	0.05	-0.750			
0.6453	41299.08	3.5110	3.5108	-1.7723	25.88	0.06	-0.750			
0.6505	41633.47	3.5080	3.5081	-1.7439	25.89	0.07	-0.750			
0.6557	41967.13	3.5050	3.5051	-1.6905	25.90	0.08	-0.750			
0.6607	42287.67	3.5020	3.5019	-1.6369	25.90	0.08	-0.750			
0.6656	42600.38	3.4990	3.4990	-1.5878	25.91	0.09	-0.750			
0.6702	42894.96	3.4960	3.4961	-1.5265	25.93	0.11	-0.750			
0.6748	43186.20	3.4930	3.4928	-1.4836	25.94	0.12	-0.750			
0.6791	43461.81	3.4900	3.4899	-1.4241	25.95	0.13	-0.750			
0.6832	43724.47	3.4870	3.4870	-1.3660	25.97	0.15	-0.750			
0.6873	43988.74	3.4840	3.4840	-1.3306	25.98	0.16	-0.750			
0.6912	44239.03	3.4810	3.4810	-1.2811	26.00	0.18	-0.750			
0.6951	44484.72	3.4780	3.4780	-1.2406	26.01	0.19	-0.750			
0.6987	44715.53	3.4750	3.4749	-1.1934	26.03	0.21	-0.750			
0.7022	44939.83	3.4720	3.4719	-1.1560	26.05	0.23	-0.750			
0.7056	45155.78	3.4690	3.4689	-1.1253	26.06	0.24	-0.750			
0.7089	45369.26	3.4660	3.4661	-1.0944	26.07	0.25	-0.750			
0.7121	45577.56	3.4630	3.4629	-1.0614	26.08	0.26	-0.750			
0.7153	45779.68	3.4600	3.4601	-1.0324	26.09	0.27	-0.750			
0.7183	45973.41	3.4570	3.4570	-0.9988	26.10	0.28	-0.750			
0.7213	46160.73	3.4540	3.4540	-0.9659	26.11	0.29	-0.750			
0.7241	46341.30	3.4510	3.4510	-0.9351	26.13	0.31	-0.750			
0.7268	46517.60	3.4480	3.4480	-0.9128	26.14	0.32	-0.750			
0.7295	46688.47	3.4450	3.4450	-0.8979	26.15	0.33	-0.750			
0.7322	46859.60	3.4420	3.4420	-0.8840	26.16	0.34	-0.750			
0.7348	47026.47	3.4390	3.4389	-0.8733	26.17	0.35	-0.750			
0.7374	47192.06	3.4360	3.4360	-0.8661	26.18	0.36	-0.750			
0.7399	47355.71	3.4330	3.4332	-0.8694	26.19	0.37	-0.750			
0.7425	47522.27	3.4300	3.4299	-0.8770	26.20	0.38	-0.750			
0.7452	47690.25	3.4270	3.4270	-0.8861	26.21	0.39	-0.750			
0.7478	47861.10	3.4240	3.4240	-0.8966	26.21	0.39	-0.750			
0.7505	48035.10	3.4210	3.4211	-0.9153	26.22	0.40	-0.750			
0.7533	48212.35	3.4180	3.4181	-0.9287	26.23	0.41	-0.750			
0.7561	48393.04	3.4150	3.4149	-0.9412	26.24	0.42	-0.750			
0.7590	48575.27	3.4120	3.4120	-0.9474	26.25	0.43	-0.750			
0.7619	48761.74	3.4090	3.4090	-0.9432	26.25	0.43	-0.750			
0.7647	48943.42	3.4060	3.4061	-0.9355	26.26	0.44	-0.750			
0.7675	49122.66	3.4030	3.4030	-0.9236	26.27	0.45	-0.750			
0.7703	49297.95	3.4000	3.3999	-0.9035	26.28	0.46	-0.750			
0.7730	49471.08	3.3970	3.3969	-0.8771	26.29	0.47	-0.750			
0.7756	49637.05	3.3940	3.3940	-0.8511	26.29	0.47	-0.750			
0.7781	49799.36	3.3910	3.3912	-0.8290	26.30	0.48	-0.750			
0.7806	49957.02	3.3880	3.3880	-0.8018	26.31	0.49	-0.750			
0.7829	50106.70	3.3850	3.3849	-0.7730	26.32	0.50	-0.750			
0.7852	50252.50	3.3820	3.3820	-0.7469	26.32	0.50	-0.750			
0.7874	50393.77	3.3790	3.3790	-0.7223	26.33	0.51	-0.750			
0.7895	50530.19	3.3760	3.3759	-0.6983	26.34	0.52	-0.750			
0.7916	50661.65	3.3730	3.3729	-0.6701	26.34	0.52	-0.750			
0.7935	50786.99	3.3700	3.3699	-0.6453	26.35	0.53	-0.750			
0.7954	50907.90	3.3670	3.3671	-0.6217	26.35	0.53	-0.750			
0.7972	51023.64	3.3640	3.3639	-0.5971	26.36	0.54	-0.750			
0.7990	51137.84	3.3610	3.3610	-0.5782	26.36	0.54	-0.750			
0.8007	51246.34	3.3580	3.3579	-0.5568	26.37	0.55	-0.750			
0.8024	51350.41	3.3550	3.3552	-0.5380	26.37	0.55	-0.750			
0.8039	51452.32	3.3520	3.3520	-0.5234	26.38	0.56	-0.750			
0.8055	51549.99	3.3490	3.3488	-0.5053	26.39	0.57	-0.750			
0.8070	51646.40	3.3460	3.3460	-0.4888	26.39	0.57	-0.750			
0.8084	51737.71	3.3430	3.3431	-0.4723	26.40	0.58	-0.750			
0.8098	51827.31	3.3400	3.3400	-0.4601	26.41	0.59	-0.750			
0.8112	51914.46	3.3370	3.3369	-0.4451	26.42	0.60	-0.750			
0.8125	51997.55	3.3340	3.3339	-0.4274	26.43	0.61	-0.750			
0.8137	52077.88	3.3310	3.3310	-0.4152	26.43	0.61	-0.750			
0.8149	52156.63	3.3280	3.3282	-0.4032	26.44	0.62	-0.750			
0.8161	52232.98	3.3250	3.3249	-0.3903	26.45	0.63	-0.750			
0.8173	52306.03	3.3220	3.3220	-0.3767	26.45	0.63	-0.750			
0.8184	52376.97	3.3190	3.3191	-0.3646	26.46	0.64	-0.750			
0.8195	52445.29	3.3160	3.3160	-0.3549	26.46	0.64	-0.750			
0.8205	52512.67	3.3130	3.3130	-0.3470	26.47	0.65	-0.750			
0.8215	52577.74	3.3100	3.3098	-0.3370	26.47	0.65	-0.750			
0.8225	52641.77	3.3070	3.3071	-0.3284	26.48	0.66	-0.750			
0.8235	52704.36	3.3040	3.3040	-0.3200	26.48	0.66	-0.750			
0.8245	52764.99	3.3010	3.3011	-0.3131	26.49	0.67	-0.750			
0.8254	52824.62	3.2980	3.2979	-0.3046	26.49	0.67	-0.750			
0.8263	52881.35	3.2950	3.2950	-0.2953	26.49	0.67	-0.750			
0.8271	52937.29	3.2920	3.2921	-0.2897	26.50	0.68	-0.750			
0.8280	52992.44	3.2890	3.2890	-0.2832	26.50	0.68	-0.750			
0.8288	53046.20	3.2860	3.2859	-0.2765	26.51	0.69	-0.750			
0.8297	53098.37	3.2830	3.2831	-0.2712	26.51	0.69	-0.750			
0.8305	53149.58	3.2800	3.2800	-0.2654	26.51	0.69	-0.750			
0.8313	53200.51	3.2770	3.2770	-0.2586	26.52	0.70	-0.750			
0.8320	53249.28	3.2740	3.2740	-0.2540	26.52	0.70	-0.750			
0.8328	53297.06	3.2710	3.2711	-0.2498	26.52	0.70	-0.750			
0.8335	53345.15	3.2680	3.2680	-0.2458	26.53	0.71	-0.750			
0.8342	53391.47	3.2650	3.2650	-0.2413	26.53	0.71	-0.750			
0.8350	53437.03	3.2620	3.2621	-0.2371	26.54	0.72	-0.750			
0.8357	53482.82	3.2590	3.2591	-0.2339	26.54	0.72	-0.750			
0.8364	53527.85	3.2560	3.2559	-0.2308	26.54	0.72	-0.750			
0.8370	53570.58	3.2530	3.2531	-0.2253	26.55	0.73	-0.750			
0.8377	53613.58	3.2500	3.2500	-0.2227	26.55	0.73	-0.750			
0.8384	53656.20	3.2470	3.2470	-0.2182	26.55	0.73	-0.750			
0.8390	53697.97	3.2440	3.2439	-0.2155	26.56	0.74	-0.750			
0.8397	53738.57	3.2410	3.2411	-0.2114	26.56	0.74	-0.750			
0.8403	53778.83	3.2380	3.2381	-0.2090	26.56	0.74	-0.750			
0.8409	53818.84	3.2350	3.2348	-0.2066	26.57	0.75	-0.750			
0.8415	53858.32	3.2320	3.2320	-0.2028	26.58	0.76	-0.750			
0.8421	53896.38	3.2290	3.2289	-0.1999	26.58	0.76	-0.750			
0.8427	53934.85	3.2260	3.2261	-0.1992	26.59	0.77	-0.750			
0.8433	53972.87	3.2230	3.2231	-0.1968	26.59	0.77	-0.750			
0.8439	54010.27	3.2200	3.2199	-0.1934	26.60	0.78	-0.750			
0.8445	54047.27	3.2170	3.2169	-0.1908	26.61	0.79	-0.750			
0.8451	54083.65	3.2140	3.2141	-0.1883	26.61	0.79	-0.750			
0.8456	54119.56	3.2110	3.2111	-0.1857	26.62	0.80	-0.750			
0.8462	54155.18	3.2080	3.2080	-0.1840	26.63	0.81	-0.750			
0.8467	54189.63	3.2050	3.2050	-0.1810	26.63	0.81	-0.750			
0.8472	54223.98	3.2020	3.2020	-0.1792	26.64	0.82	-0.750			
0.8478	54258.35	3.1990	3.1990	-0.1782	26.64	0.82	-0.750			
0.8483	54292.77	3.1960	3.1960	-0.1765	26.65	0.83	-0.750			
0.8489	54326.62	3.1930	3.1930	-0.1746	26.65	0.83	-0.750			
0.8494	54359.95	3.1900	3.1900	-0.1724	26.66	0.84	-0.750			
0.8499	54392.94	3.1870	3.1870	-0.1702	26.66	0.84	-0.750			
0.8504	54425.26	3.1840	3.1840	-0.1685	26.67	0.85	-0.750			
0.8509	54457.26	3.1810	3.1810	-0.1666	26.67	0.85	-0.750			
0.8514	54489.12	3.1780	3.1780	-0.1647	26.67	0.85	-0.750			
0.8519	54520.60	3.1750	3.1749	-0.1632	26.68	0.86	-0.750			
0.8524	54551.94	3.1720	3.1720	-0.1616	26.68	0.86	-0.750			
0.8529	54582.67	3.1690	3.1691	-0.1603	26.68	0.86	-0.750			
0.8533	54613.30	3.1660	3.1660	-0.1588	26.69	0.87	-0.750			
0.8538	54643.69	3.1630	3.1629	-0.1570	26.70	0.88	-0.750			
0.8543	54673.51	3.1600	3.1600	-0.1553	26.70	0.88	-0.750			
0.8547	54703.15	3.1570	3.1570	-0.1541	26.71	0.89	-0.750			
