Ah_balance (normalized)	Ah_balance (mAh)	Voltage - fit (V)	Voltage -  interpolate (V)	dQ/dV (1/V)	Temperature (°C)	Temperature - diff (°C)	Current (C)	R_DC 0ms (mOhm)	R_DC 50ms (mOhm)	R_DC 50 ms PEC (mOhm)
0.0002	15.74	4.1660	4.1659	-0.1288	25.48	0.02	-0.750			
0.0007	46.05	4.1630	4.1629	-0.1785	25.48	0.02	-0.750			
0.0013	84.34	4.1600	4.1599	-0.2215	25.48	0.02	-0.750			
0.0020	130.91	4.1570	4.1571	-0.2652	25.48	0.02	-0.750			
0.0029	186.17	4.1540	4.1541	-0.3079	25.47	0.01	-0.750			
0.0039	249.15	4.1510	4.1510	-0.3533	25.47	0.01	-0.750			
0.0050	321.66	4.1480	4.1480	-0.3937	25.47	0.01	-0.750			
0.0063	401.49	4.1450	4.1450	-0.4355	25.47	0.01	-0.750			
0.0077	490.32	4.1420	4.1420	-0.4757	25.47	0.01	-0.750			
0.0092	586.49	4.1390	4.1390	-0.5078	25.46	0.00	-0.750			
0.0108	688.56	4.1360	4.1360	-0.5385	25.46	0.00	-0.750			
0.0124	795.38	4.1330	4.1331	-0.5658	25.46	-0.00	-0.750			
0.0142	906.76	4.1300	4.1301	-0.5873	25.46	-0.00	-0.750			
0.0160	1023.16	4.1270	4.1269	-0.6085	25.45	-0.01	-0.750			
0.0178	1141.31	4.1240	4.1241	-0.6318	25.45	-0.01	-0.750			
0.0198	1265.77	4.1210	4.1209	-0.6476	25.45	-0.01	-0.750			
0.0218	1392.66	4.1180	4.1180	-0.6621	25.44	-0.02	-0.750			
0.0238	1522.49	4.1150	4.1151	-0.6739	25.44	-0.02	-0.750			
0.0258	1652.54	4.1120	4.1120	-0.6833	25.44	-0.02	-0.750			
0.0279	1786.03	4.1090	4.1090	-0.6928	25.43	-0.03	-0.750			
0.0300	1918.87	4.1060	4.1059	-0.7031	25.43	-0.03	-0.750			
0.0321	2053.12	4.1030	4.1030	-0.7075	25.43	-0.03	-0.750			
0.0343	2192.99	4.1000	4.1000	-0.7212	25.42	-0.04	-0.750			
0.0364	2331.14	4.0970	4.0972	-0.7275	25.42	-0.04	-0.750			
0.0386	2473.31	4.0940	4.0939	-0.7333	25.42	-0.04	-0.750			
0.0409	2614.49	4.0910	4.0910	-0.7350	25.41	-0.05	-0.750			
0.0431	2756.57	4.0880	4.0880	-0.7372	25.41	-0.05	-0.750			
0.0453	2897.37	4.0850	4.0850	-0.7381	25.41	-0.05	-0.750			
0.0475	3041.29	4.0820	4.0820	-0.7417	25.40	-0.06	-0.750			
0.0497	3182.31	4.0790	4.0792	-0.7458	25.40	-0.06	-0.750			
0.0519	3324.70	4.0760	4.0760	-0.7502	25.40	-0.06	-0.750			
0.0542	3470.62	4.0730	4.0729	-0.7564	25.40	-0.06	-0.750			
0.0565	3616.48	4.0700	4.0700	-0.7586	25.40	-0.06	-0.750			
0.0588	3764.41	4.0670	4.0670	-0.7660	25.40	-0.06	-0.750			
0.0611	3910.53	4.0640	4.0640	-0.7643	25.40	-0.06	-0.750			
0.0634	4057.44	4.0610	4.0609	-0.7686	25.40	-0.06	-0.750			
0.0657	4204.30	4.0580	4.0580	-0.7675	25.40	-0.06	-0.750			
0.0680	4351.15	4.0550	4.0550	-0.7707	25.40	-0.06	-0.750			
0.0703	4500.58	4.0520	4.0520	-0.7734	25.39	-0.07	-0.750			
0.0727	4651.09	4.0490	4.0489	-0.7755	25.39	-0.07	-0.750			
0.0750	4799.08	4.0460	4.0461	-0.7761	25.39	-0.07	-0.750			
0.0773	4948.35	4.0430	4.0431	-0.7786	25.39	-0.07	-0.750			
0.0797	5098.14	4.0400	4.0399	-0.7747	25.39	-0.07	-0.750			
0.0820	5246.82	4.0370	4.0370	-0.7792	25.39	-0.07	-0.750			
0.0843	5395.40	4.0340	4.0340	-0.7770	25.39	-0.07	-0.750			
0.0866	5544.29	4.0310	4.0311	-0.7821	25.39	-0.07	-0.750			
0.0890	5694.99	4.0280	4.0279	-0.7862	25.39	-0.07	-0.750			
0.0913	5846.06	4.0250	4.0248	-0.7930	25.39	-0.07	-0.750			
0.0937	5999.89	4.0220	4.0220	-0.7979	25.40	-0.06	-0.750			
0.0962	6155.60	4.0190	4.0190	-0.7975	25.40	-0.06	-0.750			
0.0986	6309.07	4.0160	4.0160	-0.7975	25.40	-0.06	-0.750			
0.1010	6463.02	4.0130	4.0129	-0.7994	25.40	-0.06	-0.750			
0.1033	6612.75	4.0100	4.0099	-0.7969	25.40	-0.06	-0.750			
0.1057	6766.47	4.0070	4.0069	-0.7950	25.40	-0.06	-0.750			
0.1081	6917.74	4.0040	4.0041	-0.7941	25.40	-0.06	-0.750			
0.1105	7072.90	4.0010	4.0010	-0.8025	25.40	-0.06	-0.750			
0.1129	7227.53	3.9980	3.9980	-0.8048	25.40	-0.06	-0.750			
0.1153	7379.76	3.9950	3.9950	-0.8063	25.40	-0.06	-0.750			
0.1178	7536.14	3.9920	3.9920	-0.8089	25.40	-0.06	-0.750			
0.1202	7692.15	3.9890	3.9890	-0.8085	25.40	-0.06	-0.750			
0.1227	7850.30	3.9860	3.9859	-0.8080	25.40	-0.06	-0.750			
0.1250	8003.16	3.9830	3.9831	-0.8094	25.40	-0.06	-0.750			
0.1275	8157.67	3.9800	3.9801	-0.8107	25.40	-0.06	-0.750			
0.1299	8312.25	3.9770	3.9769	-0.8224	25.41	-0.05	-0.750			
0.1324	8472.68	3.9740	3.9738	-0.8228	25.41	-0.05	-0.750			
0.1349	8632.74	3.9710	3.9710	-0.8302	25.42	-0.04	-0.750			
0.1374	8792.39	3.9680	3.9683	-0.8306	25.42	-0.04	-0.750			
0.1399	8954.72	3.9650	3.9649	-0.8317	25.42	-0.04	-0.750			
0.1424	9112.35	3.9620	3.9619	-0.8327	25.42	-0.04	-0.750			
0.1448	9270.34	3.9590	3.9590	-0.8299	25.42	-0.04	-0.750			
0.1474	9431.70	3.9560	3.9560	-0.8373	25.42	-0.04	-0.750			
0.1499	9593.33	3.9530	3.9531	-0.8359	25.42	-0.04	-0.750			
0.1524	9753.11	3.9500	3.9500	-0.8355	25.42	-0.04	-0.750			
0.1549	9914.90	3.9470	3.9469	-0.8416	25.42	-0.04	-0.750			
0.1574	10075.65	3.9440	3.9440	-0.8433	25.42	-0.04	-0.750			
0.1600	10238.64	3.9410	3.9409	-0.8463	25.42	-0.04	-0.750			
0.1625	10401.23	3.9380	3.9382	-0.8427	25.42	-0.04	-0.750			
0.1650	10563.14	3.9350	3.9349	-0.8432	25.42	-0.04	-0.750			
0.1676	10726.08	3.9320	3.9320	-0.8508	25.43	-0.03	-0.750			
0.1701	10887.04	3.9290	3.9288	-0.8465	25.43	-0.03	-0.750			
0.1727	11052.74	3.9260	3.9260	-0.8585	25.44	-0.02	-0.750			
0.1753	11218.67	3.9230	3.9230	-0.8570	25.44	-0.02	-0.750			
0.1779	11384.29	3.9200	3.9199	-0.8556	25.44	-0.02	-0.750			
0.1804	11548.66	3.9170	3.9169	-0.8545	25.44	-0.02	-0.750			
0.1829	11706.73	3.9140	3.9142	-0.8510	25.45	-0.01	-0.750			
0.1855	11873.74	3.9110	3.9109	-0.8661	25.45	-0.01	-0.750			
0.1881	12039.21	3.9080	3.9081	-0.8681	25.45	-0.01	-0.750			
0.1907	12207.69	3.9050	3.9048	-0.8714	25.45	-0.01	-0.750			
0.1934	12377.98	3.9020	3.9021	-0.8778	25.46	-0.00	-0.750			
0.1960	12545.46	3.8990	3.8990	-0.8753	25.46	-0.00	-0.750			
0.1986	12713.46	3.8960	3.8960	-0.8735	25.46	-0.00	-0.750			
0.2012	12878.47	3.8930	3.8929	-0.8724	25.46	0.00	-0.750			
0.2039	13047.72	3.8900	3.8899	-0.8749	25.46	0.00	-0.750			
0.2065	13216.49	3.8870	3.8871	-0.8767	25.47	0.01	-0.750			
0.2091	13384.86	3.8840	3.8840	-0.8794	25.47	0.01	-0.750			
0.2118	13555.32	3.8810	3.8811	-0.8800	25.47	0.01	-0.750			
0.2144	13723.13	3.8780	3.8780	-0.8825	25.47	0.01	-0.750			
0.2171	13892.71	3.8750	3.8750	-0.8799	25.47	0.01	-0.750			
0.2197	14060.84	3.8720	3.8720	-0.8784	25.48	0.02	-0.750			
0.2223	14230.23	3.8690	3.8690	-0.8837	25.48	0.02	-0.750			
0.2250	14399.13	3.8660	3.8662	-0.8821	25.48	0.02	-0.750			
0.2276	14567.75	3.8630	3.8630	-0.8871	25.48	0.02	-0.750			
0.2303	14738.81	3.8600	3.8600	-0.8908	25.48	0.02	-0.750			
0.2329	14908.28	3.8570	3.8570	-0.8924	25.49	0.03	-0.750			
0.2357	15082.72	3.8540	3.8539	-0.8963	25.49	0.03	-0.750			
0.2384	15254.90	3.8510	3.8509	-0.8932	25.49	0.03	-0.750			
0.2410	15426.15	3.8480	3.8481	-0.8995	25.49	0.03	-0.750			
0.2438	15600.20	3.8450	3.8449	-0.8979	25.50	0.04	-0.750			
0.2464	15771.71	3.8420	3.8419	-0.8958	25.50	0.04	-0.750			
0.2491	15945.26	3.8390	3.8392	-0.8943	25.50	0.04	-0.750			
0.2518	16115.35	3.8360	3.8360	-0.8953	25.50	0.04	-0.750			
0.2545	16287.81	3.8330	3.8329	-0.8962	25.51	0.05	-0.750			
0.2572	16458.29	3.8300	3.8300	-0.8927	25.51	0.05	-0.750			
0.2598	16628.17	3.8270	3.8270	-0.8908	25.52	0.06	-0.750			
0.2625	16802.11	3.8240	3.8241	-0.8960	25.52	0.06	-0.750			
0.2652	16973.33	3.8210	3.8210	-0.9007	25.52	0.06	-0.750			
0.2679	17147.31	3.8180	3.8180	-0.9021	25.52	0.06	-0.750			
0.2706	17319.73	3.8150	3.8149	-0.9037	25.53	0.07	-0.750			
0.2733	17493.96	3.8120	3.8121	-0.9076	25.53	0.07	-0.750			
0.2761	17669.40	3.8090	3.8089	-0.9082	25.53	0.07	-0.750			
0.2788	17844.81	3.8060	3.8059	-0.9083	25.53	0.07	-0.750			
0.2815	18018.63	3.8030	3.8030	-0.9041	25.54	0.08	-0.750			
0.2842	18189.46	3.8000	3.8000	-0.8997	25.54	0.08	-0.750			
0.2869	18364.77	3.7970	3.7970	-0.9017	25.54	0.08	-0.750			
0.2896	18536.75	3.7940	3.7939	-0.8959	25.54	0.08	-0.750			
0.2923	18708.29	3.7910	3.7910	-0.8949	25.55	0.09	-0.750			
0.2950	18879.44	3.7880	3.7880	-0.8963	25.55	0.09	-0.750			
0.2977	19051.12	3.7850	3.7850	-0.9023	25.56	0.10	-0.750			
0.3004	19224.46	3.7820	3.7820	-0.9052	25.56	0.10	-0.750			
0.3031	19399.00	3.7790	3.7789	-0.9101	25.56	0.10	-0.750			
0.3059	19576.97	3.7760	3.7760	-0.9094	25.56	0.10	-0.750			
0.3086	19753.23	3.7730	3.7730	-0.9064	25.56	0.10	-0.750			
0.3113	19925.30	3.7700	3.7702	-0.9028	25.56	0.10	-0.750			
0.3140	20096.37	3.7670	3.7669	-0.9043	25.56	0.10	-0.750			
0.3167	20268.06	3.7640	3.7639	-0.8968	25.57	0.11	-0.750			
0.3194	20440.21	3.7610	3.7610	-0.8964	25.57	0.11	-0.750			
0.3220	20610.89	3.7580	3.7580	-0.8975	25.58	0.12	-0.750			
0.3248	20787.90	3.7550	3.7553	-0.9040	25.58	0.12	-0.750			
0.3275	20959.90	3.7520	3.7519	-0.9049	25.58	0.12	-0.750			
0.3302	21132.11	3.7490	3.7490	-0.9015	25.59	0.13	-0.750			
0.3329	21306.34	3.7460	3.7460	-0.9055	25.59	0.13	-0.750			
0.3356	21481.32	3.7430	3.7429	-0.9108	25.60	0.14	-0.750			
0.3384	21655.03	3.7400	3.7401	-0.9116	25.60	0.14	-0.750			
0.3411	21829.56	3.7370	3.7370	-0.9240	25.60	0.14	-0.750			
0.3439	22009.22	3.7340	3.7338	-0.9267	25.60	0.14	-0.750			
0.3467	22187.83	3.7310	3.7310	-0.9292	25.60	0.14	-0.750			
0.3495	22367.32	3.7280	3.7285	-0.9391	25.60	0.14	-0.750			
0.3523	22548.10	3.7250	3.7250	-0.9525	25.60	0.14	-0.750			
0.3552	22732.60	3.7220	3.7218	-0.9564	25.61	0.15	-0.750			
0.3580	22913.28	3.7190	3.7190	-0.9607	25.61	0.15	-0.750			
0.3610	23101.04	3.7160	3.7161	-0.9792	25.62	0.16	-0.750			
0.3639	23288.72	3.7130	3.7130	-0.9942	25.62	0.16	-0.750			
0.3669	23480.63	3.7100	3.7099	-1.0035	25.62	0.16	-0.750			
0.3699	23672.51	3.7070	3.7071	-1.0187	25.62	0.16	-0.750			
0.3730	23868.91	3.7040	3.7039	-1.0301	25.62	0.16	-0.750			
0.3761	24071.89	3.7010	3.7008	-1.0625	25.62	0.16	-0.750			
0.3793	24277.00	3.6980	3.6980	-1.0769	25.62	0.16	-0.750			
0.3826	24484.63	3.6950	3.6950	-1.0953	25.61	0.15	-0.750			
0.3859	24695.87	3.6920	3.6921	-1.1075	25.61	0.15	-0.750			
0.3893	24914.33	3.6890	3.6889	-1.1405	25.61	0.15	-0.750			
0.3927	25133.69	3.6860	3.6859	-1.1569	25.61	0.15	-0.750			
0.3962	25357.84	3.6830	3.6830	-1.1802	25.60	0.14	-0.750			
0.3998	25585.08	3.6800	3.6803	-1.1932	25.60	0.14	-0.750			
0.4034	25819.70	3.6770	3.6769	-1.2190	25.60	0.14	-0.750			
0.4071	26054.80	3.6740	3.6740	-1.2372	25.60	0.14	-0.750			
0.4108	26291.37	3.6710	3.6710	-1.2703	25.60	0.14	-0.750			
0.4147	26540.53	3.6680	3.6679	-1.3002	25.60	0.14	-0.750			
0.4186	26788.24	3.6650	3.6650	-1.3378	25.59	0.13	-0.750			
0.4226	27047.89	3.6620	3.6619	-1.3800	25.58	0.12	-0.750			
0.4269	27320.76	3.6590	3.6588	-1.4136	25.58	0.12	-0.750			
0.4312	27598.16	3.6560	3.6557	-1.4562	25.57	0.11	-0.750			
0.4357	27882.72	3.6530	3.6533	-1.4871	25.56	0.10	-0.750			
0.4401	28169.16	3.6500	3.6498	-1.5153	25.55	0.09	-0.750			
0.4449	28471.81	3.6470	3.6471	-1.5524	25.54	0.08	-0.750			
0.4495	28766.06	3.6440	3.6442	-1.5915	25.53	0.07	-0.750			
0.4542	29067.00	3.6410	3.6412	-1.6406	25.52	0.06	-0.750			
0.4593	29393.82	3.6380	3.6378	-1.6688	25.51	0.05	-0.750			
0.4643	29714.76	3.6350	3.6349	-1.7047	25.51	0.05	-0.750			
0.4695	30049.33	3.6320	3.6319	-1.7603	25.50	0.04	-0.750			
0.4749	30392.36	3.6290	3.6295	-1.7737	25.49	0.03	-0.750	0.403	0.496	
0.4802	30735.81	3.6260	3.6261	-1.8187	25.48	0.02	-0.750			
0.4858	31088.95	3.6230	3.6233	-1.8350	25.46	0.00	-0.750			
0.4913	31445.82	3.6200	3.6199	-1.8667	25.45	-0.01	-0.750			
0.4970	31806.97	3.6170	3.6171	-1.8881	25.44	-0.02	-0.750			
0.5026	32166.62	3.6140	3.6139	-1.9241	25.43	-0.03	-0.750			
0.5084	32536.55	3.6110	3.6109	-1.9749	25.43	-0.03	-0.750			
0.5144	32922.88	3.6080	3.6078	-2.0087	25.42	-0.04	-0.750			
0.5205	33314.32	3.6050	3.6051	-2.0501	25.41	-0.05	-0.750			
0.5267	33710.70	3.6020	3.6019	-2.0737	25.41	-0.05	-0.750			
0.5331	34117.28	3.5990	3.5988	-2.1065	25.40	-0.06	-0.750			
0.5394	34521.23	3.5960	3.5961	-2.1341	25.40	-0.06	-0.750			
0.5459	34934.46	3.5930	3.5931	-2.1765	25.39	-0.07	-0.750			
0.5523	35350.38	3.5900	3.5904	-2.2208	25.38	-0.08	-0.750			
0.5590	35778.47	3.5870	3.5871	-2.2899	25.38	-0.08	-0.750			
0.5661	36228.90	3.5840	3.5840	-2.3537	25.38	-0.08	-0.750			
0.5733	36691.68	3.5810	3.5809	-2.4120	25.37	-0.09	-0.750			
0.5807	37167.64	3.5780	3.5780	-2.4569	25.36	-0.10	-0.750			
0.5882	37644.61	3.5750	3.5750	-2.4527	25.36	-0.10	-0.750			
0.5956	38119.93	3.5720	3.5721	-2.4718	25.35	-0.11	-0.750			
0.6030	38589.87	3.5690	3.5691	-2.4483	25.35	-0.11	-0.750			
0.6102	39053.59	3.5660	3.5659	-2.4379	25.36	-0.10	-0.750			
0.6176	39523.85	3.5630	3.5631	-2.4357	25.35	-0.11	-0.750			
0.6250	39997.17	3.5600	3.5600	-2.4155	25.34	-0.12	-0.750			
0.6322	40462.06	3.5570	3.5570	-2.3930	25.34	-0.12	-0.750			
0.6393	40915.03	3.5540	3.5539	-2.3748	25.34	-0.12	-0.750			
0.6464	41367.68	3.5510	3.5510	-2.3665	25.36	-0.10	-0.750			
0.6535	41823.41	3.5480	3.5480	-2.3465	25.36	-0.10	-0.750			
0.6605	42274.46	3.5450	3.5451	-2.3222	25.36	-0.10	-0.750			
0.6675	42718.38	3.5420	3.5419	-2.2937	25.36	-0.10	-0.750			
0.6744	43159.42	3.5390	3.5388	-2.2824	25.36	-0.10	-0.750			
0.6812	43597.19	3.5360	3.5362	-2.2286	25.37	-0.09	-0.750			
0.6878	44019.37	3.5330	3.5330	-2.1820	25.38	-0.08	-0.750			
0.6943	44432.82	3.5300	3.5300	-2.1466	25.39	-0.07	-0.750			
0.7007	44844.68	3.5270	3.5270	-2.0919	25.40	-0.06	-0.750			
0.7070	45247.96	3.5240	3.5240	-2.0614	25.41	-0.05	-0.750			
0.7130	45633.82	3.5210	3.5209	-1.9768	25.42	-0.04	-0.750			
0.7189	46009.72	3.5180	3.5181	-1.9187	25.44	-0.02	-0.750			
0.7247	46378.60	3.5150	3.5150	-1.8615	25.45	-0.01	-0.750			
0.7301	46726.91	3.5120	3.5116	-1.7940	25.46	0.00	-0.750			
0.7353	47060.85	3.5090	3.5092	-1.7122	25.48	0.02	-0.750			
0.7404	47386.09	3.5060	3.5058	-1.6491	25.49	0.03	-0.750			
0.7452	47690.05	3.5030	3.5029	-1.5761	25.51	0.05	-0.750			
0.7497	47983.60	3.5000	3.5000	-1.5182	25.52	0.06	-0.750			
0.7543	48272.53	3.4970	3.4969	-1.4690	25.54	0.08	-0.750			
0.7586	48550.48	3.4940	3.4939	-1.4219	25.56	0.10	-0.750			
0.7628	48818.70	3.4910	3.4912	-1.3842	25.58	0.12	-0.750			
0.7669	49082.72	3.4880	3.4879	-1.3438	25.60	0.14	-0.750			
0.7709	49336.60	3.4850	3.4849	-1.2936	25.61	0.15	-0.750			
0.7746	49576.84	3.4820	3.4823	-1.2426	25.62	0.16	-0.750			
0.7783	49813.72	3.4790	3.4789	-1.2027	25.64	0.18	-0.750			
0.7819	50040.68	3.4760	3.4759	-1.1530	25.66	0.20	-0.750			
0.7852	50252.52	3.4730	3.4730	-1.1061	25.67	0.21	-0.750			
0.7885	50461.51	3.4700	3.4700	-1.0772	25.69	0.23	-0.750			
0.7916	50662.65	3.4670	3.4670	-1.0429	25.70	0.24	-0.750			
0.7947	50858.69	3.4640	3.4639	-1.0103	25.71	0.25	-0.750			
0.7976	51047.75	3.4610	3.4610	-0.9869	25.72	0.26	-0.750			
0.8005	51234.61	3.4580	3.4580	-0.9756	25.73	0.27	-0.750			
0.8034	51418.53	3.4550	3.4551	-0.9767	25.75	0.29	-0.750			
0.8063	51602.78	3.4520	3.4519	-0.9833	25.76	0.30	-0.750			
0.8092	51789.51	3.4490	3.4489	-0.9971	25.77	0.31	-0.750			
0.8122	51981.27	3.4460	3.4462	-1.0360	25.78	0.32	-0.750			
0.8153	52179.86	3.4430	3.4430	-1.0790	25.79	0.33	-0.750			
0.8186	52389.07	3.4400	3.4399	-1.1287	25.80	0.34	-0.750			
0.8220	52608.67	3.4370	3.4369	-1.1783	25.81	0.35	-0.750			
0.8257	52845.49	3.4340	3.4340	-1.2285	25.82	0.36	-0.750			
0.8296	53091.86	3.4310	3.4310	-1.2471	25.84	0.38	-0.750			
0.8335	53341.84	3.4280	3.4280	-1.2595	25.85	0.39	-0.750			
0.8373	53587.02	3.4250	3.4251	-1.2430	25.86	0.40	-0.750			
0.8410	53826.52	3.4220	3.4220	-1.2152	25.87	0.41	-0.750			
0.8447	54057.83	3.4190	3.4189	-1.1712	25.88	0.42	-0.750			
0.8481	54278.02	3.4160	3.4160	-1.1283	25.89	0.43	-0.750			
0.8514	54491.72	3.4130	3.4129	-1.0878	25.90	0.44	-0.750			
0.8546	54694.84	3.4100	3.4099	-1.0441	25.91	0.45	-0.750			
0.8576	54889.35	3.4070	3.4070	-1.0003	25.92	0.46	-0.750			
0.8606	55076.00	3.4040	3.4040	-0.9611	25.93	0.47	-0.750			
0.8634	55259.11	3.4010	3.4011	-0.9301	25.93	0.47	-0.750			
0.8662	55433.78	3.3980	3.3980	-0.8951	25.94	0.48	-0.750			
0.8688	55600.93	3.3950	3.3949	-0.8601	25.95	0.49	-0.750			
0.8713	55763.06	3.3920	3.3920	-0.8279	25.96	0.50	-0.750			
0.8737	55918.90	3.3890	3.3890	-0.7949	25.97	0.51	-0.750			
0.8761	56069.06	3.3860	3.3859	-0.7652	25.98	0.52	-0.750			
0.8783	56212.74	3.3830	3.3830	-0.7333	25.99	0.53	-0.750			
0.8805	56349.31	3.3800	3.3800	-0.7041	26.00	0.54	-0.750			
0.8825	56481.88	3.3770	3.3770	-0.6749	26.01	0.55	-0.750			
0.8845	56608.11	3.3740	3.3740	-0.6479	26.02	0.56	-0.750			
0.8864	56730.20	3.3710	3.3709	-0.6224	26.03	0.57	-0.750			
0.8882	56847.75	3.3680	3.3680	-0.5969	26.03	0.57	-0.750			
0.8900	56959.52	3.3650	3.3650	-0.5700	26.04	0.58	-0.750			
0.8917	57066.26	3.3620	3.3620	-0.5457	26.05	0.59	-0.750			
0.8933	57168.16	3.3590	3.3590	-0.5211	26.05	0.59	-0.750			
0.8948	57265.62	3.3560	3.3560	-0.5017	26.06	0.60	-0.750			
0.8962	57359.03	3.3530	3.3530	-0.4807	26.06	0.60	-0.750			
0.8977	57450.41	3.3500	3.3499	-0.4602	26.06	0.60	-0.750			
0.8990	57536.94	3.3470	3.3470	-0.4400	26.07	0.61	-0.750			
0.9003	57619.71	3.3440	3.3440	-0.4202	26.07	0.61	-0.750			
0.9015	57697.83	3.3410	3.3410	-0.4008	26.08	0.62	-0.750			
0.9027	57772.41	3.3380	3.3379	-0.3813	26.09	0.63	-0.750			
0.9038	57843.07	3.3350	3.3350	-0.3627	26.09	0.63	-0.750			
0.9049	57910.88	3.3320	3.3320	-0.3478	26.10	0.64	-0.750			
0.9059	57976.48	3.3290	3.3291	-0.3342	26.10	0.64	-0.750			
0.9069	58038.84	3.3260	3.3259	-0.3198	26.11	0.65	-0.750			
0.9078	58098.87	3.3230	3.3230	-0.3072	26.11	0.65	-0.750			
0.9087	58156.16	3.3200	3.3201	-0.2935	26.11	0.65	-0.750			
0.9096	58211.56	3.3170	3.3170	-0.2841	26.12	0.66	-0.750			
0.9104	58265.05	3.3140	3.3140	-0.2729	26.12	0.66	-0.750			
0.9112	58316.24	3.3110	3.3110	-0.2622	26.13	0.67	-0.750			
0.9120	58365.35	3.3080	3.3081	-0.2528	26.13	0.67	-0.750			
0.9127	58412.90	3.3050	3.3051	-0.2437	26.14	0.68	-0.750			
0.9134	58458.66	3.3020	3.3019	-0.2346	26.14	0.68	-0.750			
0.9141	58502.78	3.2990	3.2989	-0.2264	26.15	0.69	-0.750			
0.9148	58545.05	3.2960	3.2961	-0.2179	26.15	0.69	-0.750			
0.9154	58586.06	3.2930	3.2931	-0.2115	26.16	0.70	-0.750			
0.9160	58626.01	3.2900	3.2899	-0.2047	26.16	0.70	-0.750			
0.9166	58664.36	3.2870	3.2870	-0.1985	26.17	0.71	-0.750			
0.9172	58701.62	3.2840	3.2841	-0.1919	26.17	0.71	-0.750			
0.9178	58737.99	3.2810	3.2809	-0.1866	26.18	0.72	-0.750			
0.9183	58773.23	3.2780	3.2780	-0.1816	26.18	0.72	-0.750			
0.9189	58807.49	3.2750	3.2750	-0.1769	26.19	0.73	-0.750			
0.9194	58840.79	3.2720	3.2720	-0.1726	26.19	0.73	-0.750			
0.9199	58873.22	3.2690	3.2690	-0.1680	26.19	0.73	-0.750			
0.9204	58905.25	3.2660	3.2660	-0.1637	26.20	0.74	-0.750			
0.9209	58936.08	3.2630	3.2630	-0.1604	26.20	0.74	-0.750			
0.9214	58966.65	3.2600	3.2600	-0.1572	26.21	0.75	-0.750			
0.9218	58996.51	3.2570	3.2570	-0.1538	26.21	0.75	-0.750			
0.9223	59025.60	3.2540	3.2539	-0.1503	26.21	0.75	-0.750			
0.9227	59053.98	3.2510	3.2511	-0.1476	26.22	0.76	-0.750			
0.9232	59082.06	3.2480	3.2480	-0.1445	26.22	0.76	-0.750			
0.9236	59109.55	3.2450	3.2450	-0.1418	26.22	0.76	-0.750			
0.9240	59136.70	3.2420	3.2419	-0.1392	26.23	0.77	-0.750			
0.9244	59162.79	3.2390	3.2391	-0.1362	26.23	0.77	-0.750			
0.9248	59188.78	3.2360	3.2360	-0.1339	26.23	0.77	-0.750			
0.9252	59214.30	3.2330	3.2330	-0.1311	26.24	0.78	-0.750			
0.9256	59239.00	3.2300	3.2300	-0.1292	26.24	0.78	-0.750			
0.9260	59263.34	3.2270	3.2272	-0.1267	26.25	0.79	-0.750			
0.9264	59287.52	3.2240	3.2240	-0.1251	26.25	0.79	-0.750			
0.9267	59311.38	3.2210	3.2209	-0.1235	26.25	0.79	-0.750			
0.9271	59334.86	3.2180	3.2180	-0.1218	26.26	0.80	-0.750			
0.9275	59358.02	3.2150	3.2150	-0.1201	26.26	0.80	-0.750			
0.9278	59381.04	3.2120	3.2121	-0.1186	26.26	0.80	-0.750			
0.9282	59403.93	3.2090	3.2089	-0.1174	26.27	0.81	-0.750			
0.9285	59426.19	3.2060	3.2061	-0.1157	26.27	0.81	-0.750			
0.9289	59448.04	3.2030	3.2031	-0.1136	26.27	0.81	-0.750			
0.9292	59469.73	3.2000	3.1999	-0.1121	26.28	0.82	-0.750			
0.9295	59491.14	3.1970	3.1970	-0.1106	26.28	0.82	-0.750			
0.9299	59512.15	3.1940	3.1940	-0.1091	26.28	0.82	-0.750			
0.9302	59532.90	3.1910	3.1910	-0.1076	26.29	0.83	-0.750			
0.9305	59553.33	3.1880	3.1880	-0.1065	26.29	0.83	-0.750			
0.9308	59573.58	3.1850	3.1851	-0.1053	26.29	0.83	-0.750			
0.9312	59593.74	3.1820	3.1819	-0.1041	26.29	0.83	-0.750			
0.9315	59613.57	3.1790	3.1790	-0.1029	26.30	0.84	-0.750			
0.9318	59633.12	3.1760	3.1760	-0.1022	26.30	0.84	-0.750			
0.9321	59652.64	3.1730	3.1730	-0.1014	26.30	0.84	-0.750			
0.9324	59672.14	3.1700	3.1701	-0.1002	26.31	0.85	-0.750			
0.9327	59691.32	3.1670	3.1669	-0.0993	26.31	0.85	-0.750			
