Ah_balance (normalized)	Ah_balance (mAh)	Voltage - fit (V)	Voltage -  interpolate (V)	dQ/dV (1/V)	Temperature (°C)	Temperature - diff (°C)	Current (C)	R_DC 0ms (mOhm)	R_DC 50ms (mOhm)	R_DC 50 ms PEC (mOhm)
0.0007	42.78	4.1600	4.1603	-0.1929	25.75	-0.00	-0.750			
0.0013	82.03	4.1570	4.1572	-0.2211	25.75	-0.00	-0.750			
0.0020	126.72	4.1540	4.1539	-0.2531	25.74	-0.01	-0.750			
0.0028	178.21	4.1510	4.1510	-0.2880	25.74	-0.01	-0.750			
0.0037	236.05	4.1480	4.1480	-0.3204	25.74	-0.01	-0.750			
0.0047	301.55	4.1450	4.1450	-0.3580	25.74	-0.01	-0.750			
0.0059	374.43	4.1420	4.1420	-0.3936	25.73	-0.02	-0.750			
0.0071	452.99	4.1390	4.1390	-0.4253	25.73	-0.02	-0.750			
0.0084	538.67	4.1360	4.1361	-0.4560	25.72	-0.03	-0.750			
0.0098	630.34	4.1330	4.1330	-0.4826	25.72	-0.03	-0.750			
0.0113	726.09	4.1300	4.1299	-0.5078	25.72	-0.03	-0.750			
0.0129	827.21	4.1270	4.1271	-0.5310	25.71	-0.04	-0.750			
0.0145	931.13	4.1240	4.1240	-0.5496	25.71	-0.04	-0.750			
0.0162	1039.61	4.1210	4.1209	-0.5686	25.70	-0.05	-0.750			
0.0180	1150.52	4.1180	4.1181	-0.5833	25.70	-0.05	-0.750			
0.0198	1264.50	4.1150	4.1150	-0.5989	25.69	-0.06	-0.750			
0.0216	1381.29	4.1120	4.1120	-0.6112	25.69	-0.06	-0.750			
0.0234	1499.84	4.1090	4.1089	-0.6237	25.68	-0.07	-0.750			
0.0253	1621.25	4.1060	4.1061	-0.6321	25.68	-0.07	-0.750			
0.0273	1744.19	4.1030	4.1030	-0.6404	25.68	-0.07	-0.750			
0.0292	1868.08	4.1000	4.0999	-0.6472	25.67	-0.08	-0.750			
0.0311	1992.93	4.0970	4.0970	-0.6571	25.67	-0.08	-0.750			
0.0331	2120.80	4.0940	4.0939	-0.6619	25.67	-0.08	-0.750			
0.0351	2248.20	4.0910	4.0910	-0.6629	25.66	-0.09	-0.750			
0.0371	2375.98	4.0880	4.0879	-0.6688	25.66	-0.09	-0.750			
0.0391	2504.78	4.0850	4.0850	-0.6757	25.66	-0.09	-0.750			
0.0412	2634.78	4.0820	4.0819	-0.6766	25.65	-0.10	-0.750			
0.0432	2763.05	4.0790	4.0790	-0.6824	25.65	-0.10	-0.750			
0.0452	2893.44	4.0760	4.0761	-0.6846	25.65	-0.10	-0.750			
0.0473	3028.98	4.0730	4.0730	-0.7002	25.64	-0.11	-0.750			
0.0494	3164.04	4.0700	4.0699	-0.7010	25.64	-0.11	-0.750			
0.0515	3298.64	4.0670	4.0670	-0.7012	25.64	-0.11	-0.750			
0.0536	3433.45	4.0640	4.0640	-0.7044	25.64	-0.11	-0.750			
0.0558	3569.32	4.0610	4.0610	-0.7104	25.64	-0.11	-0.750			
0.0579	3706.00	4.0580	4.0580	-0.7065	25.64	-0.11	-0.750			
0.0600	3842.06	4.0550	4.0549	-0.7106	25.64	-0.11	-0.750			
0.0622	3977.69	4.0520	4.0521	-0.7128	25.64	-0.11	-0.750			
0.0643	4116.47	4.0490	4.0490	-0.7147	25.64	-0.11	-0.750			
0.0665	4253.62	4.0460	4.0460	-0.7193	25.64	-0.11	-0.750			
0.0686	4391.75	4.0430	4.0429	-0.7253	25.64	-0.11	-0.750			
0.0708	4531.13	4.0400	4.0399	-0.7252	25.64	-0.11	-0.750			
0.0730	4672.64	4.0370	4.0370	-0.7333	25.64	-0.11	-0.750			
0.0752	4812.56	4.0340	4.0343	-0.7305	25.64	-0.11	-0.750			
0.0774	4954.23	4.0310	4.0309	-0.7313	25.64	-0.11	-0.750			
0.0796	5093.76	4.0280	4.0280	-0.7346	25.64	-0.11	-0.750			
0.0818	5233.73	4.0250	4.0251	-0.7313	25.64	-0.11	-0.750			
0.0840	5375.51	4.0220	4.0220	-0.7339	25.64	-0.11	-0.750			
0.0862	5515.08	4.0190	4.0190	-0.7352	25.64	-0.11	-0.750			
0.0884	5654.76	4.0160	4.0161	-0.7353	25.64	-0.11	-0.750			
0.0906	5797.01	4.0130	4.0128	-0.7379	25.64	-0.11	-0.750			
0.0928	5938.84	4.0100	4.0100	-0.7411	25.64	-0.11	-0.750			
0.0950	6080.48	4.0070	4.0070	-0.7451	25.65	-0.10	-0.750			
0.0973	6225.75	4.0040	4.0040	-0.7515	25.65	-0.10	-0.750			
0.0995	6370.62	4.0010	4.0008	-0.7509	25.65	-0.10	-0.750			
0.1018	6514.06	3.9980	3.9981	-0.7487	25.65	-0.10	-0.750			
0.1040	6659.04	3.9950	3.9950	-0.7492	25.65	-0.10	-0.750			
0.1063	6803.15	3.9920	3.9920	-0.7550	25.65	-0.10	-0.750			
0.1085	6946.12	3.9890	3.9889	-0.7519	25.66	-0.09	-0.750			
0.1108	7093.16	3.9860	3.9859	-0.7476	25.66	-0.09	-0.750			
0.1131	7235.32	3.9830	3.9833	-0.7530	25.66	-0.09	-0.750			
0.1153	7378.86	3.9800	3.9801	-0.7613	25.66	-0.09	-0.750			
0.1176	7525.71	3.9770	3.9770	-0.7649	25.67	-0.08	-0.750			
0.1199	7672.82	3.9740	3.9737	-0.7694	25.67	-0.08	-0.750			
0.1222	7821.77	3.9710	3.9712	-0.7759	25.67	-0.08	-0.750			
0.1246	7972.48	3.9680	3.9682	-0.7776	25.68	-0.07	-0.750			
0.1270	8126.63	3.9650	3.9648	-0.7821	25.68	-0.07	-0.750			
0.1292	8271.23	3.9620	3.9620	-0.7842	25.68	-0.07	-0.750			
0.1315	8418.99	3.9590	3.9590	-0.7793	25.68	-0.07	-0.750			
0.1339	8571.29	3.9560	3.9559	-0.7848	25.69	-0.06	-0.750			
0.1363	8723.82	3.9530	3.9530	-0.7881	25.69	-0.06	-0.750			
0.1387	8875.82	3.9500	3.9500	-0.7852	25.69	-0.06	-0.750			
0.1410	9025.74	3.9470	3.9471	-0.7875	25.69	-0.06	-0.750			
0.1434	9175.82	3.9440	3.9439	-0.7888	25.69	-0.06	-0.750			
0.1457	9325.03	3.9410	3.9411	-0.7867	25.70	-0.05	-0.750			
0.1481	9479.83	3.9380	3.9380	-0.7928	25.70	-0.05	-0.750			
0.1505	9632.01	3.9350	3.9351	-0.7988	25.70	-0.05	-0.750			
0.1529	9785.55	3.9320	3.9320	-0.7991	25.70	-0.05	-0.750			
0.1553	9940.14	3.9290	3.9290	-0.8049	25.71	-0.04	-0.750			
0.1577	10094.01	3.9260	3.9259	-0.8023	25.71	-0.04	-0.750			
0.1601	10248.79	3.9230	3.9230	-0.8009	25.72	-0.03	-0.750			
0.1625	10402.89	3.9200	3.9203	-0.8027	25.72	-0.03	-0.750			
0.1650	10557.83	3.9170	3.9169	-0.8039	25.72	-0.03	-0.750			
0.1673	10710.08	3.9140	3.9139	-0.8015	25.72	-0.03	-0.750			
0.1697	10863.52	3.9110	3.9110	-0.8016	25.72	-0.03	-0.750			
0.1721	11017.27	3.9080	3.9080	-0.8017	25.72	-0.03	-0.750			
0.1746	11174.08	3.9050	3.9051	-0.8070	25.72	-0.03	-0.750			
0.1770	11328.71	3.9020	3.9019	-0.8088	25.72	-0.03	-0.750			
0.1794	11481.41	3.8990	3.8990	-0.8148	25.73	-0.02	-0.750			
0.1819	11639.52	3.8960	3.8960	-0.8171	25.73	-0.02	-0.750			
0.1843	11794.88	3.8930	3.8930	-0.8266	25.73	-0.02	-0.750			
0.1868	11957.06	3.8900	3.8900	-0.8368	25.74	-0.01	-0.750			
0.1894	12119.15	3.8870	3.8869	-0.8414	25.74	-0.01	-0.750			
0.1919	12282.36	3.8840	3.8840	-0.8489	25.74	-0.01	-0.750			
0.1945	12446.39	3.8810	3.8812	-0.8487	25.75	-0.00	-0.750			
0.1970	12609.77	3.8780	3.8779	-0.8416	25.75	-0.00	-0.750			
0.1996	12773.60	3.8750	3.8749	-0.8375	25.75	-0.00	-0.750			
0.2021	12931.77	3.8720	3.8720	-0.8275	25.75	0.00	-0.750			
0.2045	13089.21	3.8690	3.8690	-0.8288	25.76	0.01	-0.750			
0.2070	13247.41	3.8660	3.8660	-0.8260	25.76	0.01	-0.750			
0.2094	13403.82	3.8630	3.8630	-0.8239	25.76	0.01	-0.750			
0.2119	13564.56	3.8600	3.8599	-0.8281	25.77	0.02	-0.750			
0.2144	13724.24	3.8570	3.8571	-0.8300	25.77	0.02	-0.750			
0.2169	13884.25	3.8540	3.8540	-0.8376	25.78	0.03	-0.750			
0.2195	14045.42	3.8510	3.8509	-0.8359	25.78	0.03	-0.750			
0.2220	14205.99	3.8480	3.8479	-0.8335	25.78	0.03	-0.750			
0.2245	14366.98	3.8450	3.8450	-0.8359	25.79	0.04	-0.750			
0.2270	14528.46	3.8420	3.8419	-0.8361	25.79	0.04	-0.750			
0.2295	14688.71	3.8390	3.8390	-0.8328	25.80	0.05	-0.750			
0.2320	14846.69	3.8360	3.8360	-0.8318	25.80	0.05	-0.750			
0.2344	15004.66	3.8330	3.8330	-0.8302	25.80	0.05	-0.750			
0.2370	15167.38	3.8300	3.8300	-0.8346	25.81	0.06	-0.750			
0.2395	15327.43	3.8270	3.8271	-0.8304	25.81	0.06	-0.750			
0.2420	15486.40	3.8240	3.8240	-0.8352	25.82	0.07	-0.750			
0.2445	15647.91	3.8210	3.8210	-0.8353	25.82	0.07	-0.750			
0.2470	15807.66	3.8180	3.8179	-0.8355	25.82	0.07	-0.750			
0.2495	15968.38	3.8150	3.8150	-0.8326	25.83	0.08	-0.750			
0.2520	16129.22	3.8120	3.8120	-0.8321	25.83	0.08	-0.750			
0.2545	16288.56	3.8090	3.8090	-0.8315	25.84	0.09	-0.750			
0.2570	16449.04	3.8060	3.8061	-0.8264	25.84	0.09	-0.750			
0.2595	16605.55	3.8030	3.8030	-0.8194	25.84	0.09	-0.750			
0.2619	16764.56	3.8000	3.8000	-0.8212	25.85	0.10	-0.750			
0.2644	16921.45	3.7970	3.7970	-0.8144	25.85	0.10	-0.750			
0.2668	17076.72	3.7940	3.7939	-0.8181	25.86	0.11	-0.750			
0.2693	17233.00	3.7910	3.7911	-0.8151	25.86	0.11	-0.750			
0.2717	17389.26	3.7880	3.7879	-0.8116	25.86	0.11	-0.750			
0.2742	17546.69	3.7850	3.7850	-0.8106	25.87	0.12	-0.750			
0.2766	17702.30	3.7820	3.7820	-0.8080	25.87	0.12	-0.750			
0.2790	17856.97	3.7790	3.7790	-0.8017	25.88	0.13	-0.750			
0.2814	18010.42	3.7760	3.7760	-0.7999	25.88	0.13	-0.750			
0.2838	18161.88	3.7730	3.7730	-0.7966	25.88	0.13	-0.750			
0.2862	18316.17	3.7700	3.7699	-0.7952	25.89	0.14	-0.750			
0.2886	18468.27	3.7670	3.7670	-0.7970	25.89	0.14	-0.750			
0.2910	18620.97	3.7640	3.7640	-0.7960	25.89	0.14	-0.750			
0.2933	18773.78	3.7610	3.7610	-0.7994	25.89	0.14	-0.750			
0.2958	18929.05	3.7580	3.7579	-0.7969	25.90	0.15	-0.750			
0.2981	19081.08	3.7550	3.7550	-0.7944	25.90	0.15	-0.750			
0.3005	19233.64	3.7520	3.7523	-0.7949	25.90	0.15	-0.750			
0.3029	19386.32	3.7490	3.7489	-0.7976	25.90	0.15	-0.750			
0.3053	19537.68	3.7460	3.7460	-0.7990	25.90	0.15	-0.750			
0.3076	19689.59	3.7430	3.7430	-0.8036	25.91	0.16	-0.750			
0.3101	19846.03	3.7400	3.7400	-0.8122	25.91	0.16	-0.750			
0.3125	20002.89	3.7370	3.7370	-0.8168	25.91	0.16	-0.750			
0.3150	20159.81	3.7340	3.7340	-0.8223	25.91	0.16	-0.750			
0.3175	20318.42	3.7310	3.7309	-0.8308	25.92	0.17	-0.750			
0.3200	20477.20	3.7280	3.7280	-0.8378	25.92	0.17	-0.750			
0.3225	20638.51	3.7250	3.7250	-0.8518	25.93	0.18	-0.750			
0.3250	20802.71	3.7220	3.7221	-0.8653	25.93	0.18	-0.750			
0.3277	20969.84	3.7190	3.7189	-0.8843	25.93	0.18	-0.750			
0.3303	21140.86	3.7160	3.7160	-0.8995	25.93	0.18	-0.750			
0.3331	21315.55	3.7130	3.7130	-0.9097	25.93	0.18	-0.750			
0.3358	21491.69	3.7100	3.7099	-0.9226	25.93	0.18	-0.750			
0.3386	21669.97	3.7070	3.7071	-0.9421	25.93	0.18	-0.750			
0.3415	21852.82	3.7040	3.7039	-0.9597	25.93	0.18	-0.750			
0.3444	22038.81	3.7010	3.7009	-0.9756	25.93	0.18	-0.750			
0.3473	22228.42	3.6980	3.6979	-0.9892	25.93	0.18	-0.750			
0.3503	22419.58	3.6950	3.6953	-1.0124	25.93	0.18	-0.750			
0.3534	22616.21	3.6920	3.6919	-1.0305	25.93	0.18	-0.750			
0.3565	22813.34	3.6890	3.6890	-1.0487	25.92	0.17	-0.750			
0.3596	23015.59	3.6860	3.6859	-1.0682	25.92	0.17	-0.750			
0.3629	23222.68	3.6830	3.6832	-1.0997	25.91	0.16	-0.750			
0.3662	23437.49	3.6800	3.6800	-1.1124	25.90	0.15	-0.750			
0.3696	23654.80	3.6770	3.6770	-1.1328	25.90	0.15	-0.750			
0.3730	23870.99	3.6740	3.6739	-1.1513	25.89	0.14	-0.750			
0.3765	24093.03	3.6710	3.6711	-1.1794	25.89	0.14	-0.750			
0.3800	24321.84	3.6680	3.6679	-1.2026	25.89	0.14	-0.750			
0.3837	24555.32	3.6650	3.6649	-1.2299	25.89	0.14	-0.750			
0.3874	24792.14	3.6620	3.6621	-1.2570	25.89	0.14	-0.750			
0.3913	25041.21	3.6590	3.6589	-1.2974	25.88	0.13	-0.750			
0.3952	25292.48	3.6560	3.6560	-1.3204	25.88	0.13	-0.750			
0.3992	25548.03	3.6530	3.6530	-1.3488	25.87	0.12	-0.750			
0.4033	25809.97	3.6500	3.6500	-1.3664	25.87	0.12	-0.750			
0.4075	26078.46	3.6470	3.6469	-1.4069	25.86	0.11	-0.750			
0.4117	26349.91	3.6440	3.6440	-1.4396	25.85	0.10	-0.750			
0.4161	26627.85	3.6410	3.6408	-1.4775	25.84	0.09	-0.750			
0.4206	26919.16	3.6380	3.6382	-1.5076	25.83	0.08	-0.750			
0.4252	27212.10	3.6350	3.6352	-1.5404	25.82	0.07	-0.750			
0.4298	27507.75	3.6320	3.6322	-1.5764	25.82	0.07	-0.750			
0.4347	27819.58	3.6290	3.6288	-1.6057	25.81	0.06	-0.750			
0.4395	28126.66	3.6260	3.6261	-1.6271	25.81	0.06	-0.750			
0.4444	28443.52	3.6230	3.6229	-1.6613	25.80	0.05	-0.750			
0.4495	28765.93	3.6200	3.6202	-1.6725	25.79	0.04	-0.750	0.393	0.510	
0.4545	29091.12	3.6170	3.6170	-1.7149	25.78	0.03	-0.750			
0.4597	29419.28	3.6140	3.6140	-1.7311	25.78	0.03	-0.750			
0.4649	29753.32	3.6110	3.6110	-1.7713	25.77	0.02	-0.750			
0.4702	30094.13	3.6080	3.6079	-1.8322	25.76	0.01	-0.750			
0.4758	30453.29	3.6050	3.6050	-1.8623	25.75	0.00	-0.750			
0.4816	30820.25	3.6020	3.6023	-1.9140	25.75	0.00	-0.750			
0.4874	31193.79	3.5990	3.5991	-1.9417	25.75	0.00	-0.750			
0.4932	31565.49	3.5960	3.5957	-1.9774	25.74	-0.01	-0.750			
0.4992	31950.55	3.5930	3.5931	-2.0108	25.72	-0.03	-0.750			
0.5053	32338.83	3.5900	3.5900	-2.0500	25.72	-0.03	-0.750			
0.5114	32730.63	3.5870	3.5870	-2.0862	25.72	-0.03	-0.750			
0.5179	33142.87	3.5840	3.5840	-2.1091	25.72	-0.03	-0.750			
0.5243	33553.08	3.5810	3.5810	-2.1391	25.72	-0.03	-0.750			
0.5307	33965.31	3.5780	3.5781	-2.1721	25.71	-0.04	-0.750			
0.5372	34380.72	3.5750	3.5750	-2.1917	25.70	-0.05	-0.750			
0.5439	34809.58	3.5720	3.5718	-2.2131	25.70	-0.05	-0.750			
0.5505	35232.75	3.5690	3.5691	-2.2352	25.70	-0.05	-0.750			
0.5573	35665.28	3.5660	3.5661	-2.2669	25.70	-0.05	-0.750			
0.5642	36111.99	3.5630	3.5629	-2.2778	25.70	-0.05	-0.750			
0.5710	36546.57	3.5600	3.5599	-2.2673	25.70	-0.05	-0.750			
0.5778	36981.72	3.5570	3.5572	-2.2726	25.70	-0.05	-0.750			
0.5847	37421.73	3.5540	3.5539	-2.2720	25.70	-0.05	-0.750			
0.5915	37857.69	3.5510	3.5510	-2.2735	25.70	-0.05	-0.750			
0.5983	38288.82	3.5480	3.5480	-2.2526	25.70	-0.05	-0.750			
0.6051	38727.57	3.5450	3.5450	-2.2497	25.70	-0.05	-0.750			
0.6119	39161.21	3.5420	3.5420	-2.2400	25.70	-0.05	-0.750			
0.6186	39588.70	3.5390	3.5390	-2.2133	25.70	-0.05	-0.750			
0.6251	40009.44	3.5360	3.5360	-2.1807	25.70	-0.05	-0.750			
0.6317	40430.11	3.5330	3.5331	-2.1382	25.72	-0.03	-0.750			
0.6381	40839.41	3.5300	3.5300	-2.0914	25.73	-0.02	-0.750			
0.6443	41236.89	3.5270	3.5270	-2.0493	25.74	-0.01	-0.750			
0.6504	41626.25	3.5240	3.5239	-1.9918	25.75	0.00	-0.750			
0.6562	41999.86	3.5210	3.5212	-1.9402	25.76	0.01	-0.750			
0.6620	42366.37	3.5180	3.5179	-1.8907	25.77	0.02	-0.750			
0.6676	42725.52	3.5150	3.5151	-1.8344	25.78	0.03	-0.750			
0.6730	43074.43	3.5120	3.5119	-1.7740	25.79	0.04	-0.750			
0.6783	43408.38	3.5090	3.5088	-1.7232	25.80	0.05	-0.750			
0.6834	43735.02	3.5060	3.5060	-1.6631	25.81	0.06	-0.750			
0.6883	44051.45	3.5030	3.5030	-1.6147	25.82	0.07	-0.750			
0.6931	44356.05	3.5000	3.4998	-1.5564	25.84	0.09	-0.750			
0.6976	44646.25	3.4970	3.4972	-1.5091	25.86	0.11	-0.750			
0.7021	44937.30	3.4940	3.4940	-1.4664	25.88	0.13	-0.750			
0.7065	45216.64	3.4910	3.4908	-1.4115	25.89	0.14	-0.750			
0.7106	45477.47	3.4880	3.4880	-1.3637	25.90	0.15	-0.750			
0.7145	45730.32	3.4850	3.4851	-1.3148	25.92	0.17	-0.750			
0.7185	45983.62	3.4820	3.4819	-1.2844	25.93	0.18	-0.750			
0.7222	46223.52	3.4790	3.4789	-1.2389	25.95	0.20	-0.750			
0.7258	46453.45	3.4760	3.4762	-1.2057	25.96	0.21	-0.750			
0.7295	46688.58	3.4730	3.4729	-1.1752	25.98	0.23	-0.750			
0.7330	46914.22	3.4700	3.4699	-1.1342	26.00	0.25	-0.750			
0.7363	47124.15	3.4670	3.4670	-1.0893	26.01	0.26	-0.750			
0.7395	47329.26	3.4640	3.4641	-1.0520	26.03	0.28	-0.750			
0.7426	47528.75	3.4610	3.4608	-1.0201	26.04	0.29	-0.750			
0.7456	47718.83	3.4580	3.4579	-0.9830	26.05	0.30	-0.750			
0.7485	47902.68	3.4550	3.4550	-0.9502	26.06	0.31	-0.750			
0.7513	48084.07	3.4520	3.4521	-0.9312	26.07	0.32	-0.750			
0.7541	48259.35	3.4490	3.4489	-0.9158	26.08	0.33	-0.750			
0.7567	48430.85	3.4460	3.4460	-0.8982	26.09	0.34	-0.750			
0.7593	48596.98	3.4430	3.4430	-0.8866	26.10	0.35	-0.750			
0.7620	48768.91	3.4400	3.4400	-0.8952	26.11	0.36	-0.750			
0.7646	48937.58	3.4370	3.4370	-0.9050	26.12	0.37	-0.750			
0.7674	49111.63	3.4340	3.4340	-0.9221	26.12	0.37	-0.750			
0.7701	49287.74	3.4310	3.4310	-0.9396	26.13	0.38	-0.750			
0.7730	49470.06	3.4280	3.4280	-0.9658	26.14	0.39	-0.750			
0.7759	49659.47	3.4250	3.4251	-0.9946	26.15	0.40	-0.750			
0.7790	49854.49	3.4220	3.4219	-1.0134	26.16	0.41	-0.750			
0.7821	50053.61	3.4190	3.4190	-1.0247	26.17	0.42	-0.750			
0.7852	50252.15	3.4160	3.4160	-1.0286	26.18	0.43	-0.750			
0.7883	50453.76	3.4130	3.4132	-1.0227	26.19	0.44	-0.750			
0.7914	50650.81	3.4100	3.4099	-1.0081	26.20	0.45	-0.750			
0.7944	50843.33	3.4070	3.4070	-0.9891	26.20	0.45	-0.750			
0.7974	51032.21	3.4040	3.4040	-0.9615	26.21	0.46	-0.750			
0.8002	51215.70	3.4010	3.4010	-0.9343	26.21	0.46	-0.750			
0.8030	51391.41	3.3980	3.3980	-0.9008	26.22	0.47	-0.750			
0.8056	51560.72	3.3950	3.3951	-0.8683	26.23	0.48	-0.750			
0.8082	51724.74	3.3920	3.3920	-0.8364	26.24	0.49	-0.750			
0.8107	51881.86	3.3890	3.3889	-0.8025	26.24	0.49	-0.750			
0.8130	52031.93	3.3860	3.3863	-0.7691	26.25	0.50	-0.750			
0.8153	52176.54	3.3830	3.3830	-0.7416	26.26	0.51	-0.750			
0.8174	52315.64	3.3800	3.3800	-0.7156	26.26	0.51	-0.750			
0.8195	52450.15	3.3770	3.3769	-0.6898	26.27	0.52	-0.750			
0.8215	52579.11	3.3740	3.3740	-0.6639	26.28	0.53	-0.750			
0.8235	52704.92	3.3710	3.3710	-0.6402	26.28	0.53	-0.750			
0.8254	52826.32	3.3680	3.3681	-0.6162	26.29	0.54	-0.750			
0.8272	52942.32	3.3650	3.3650	-0.5901	26.30	0.55	-0.750			
0.8289	53051.52	3.3620	3.3620	-0.5646	26.30	0.55	-0.750			
0.8306	53157.43	3.3590	3.3590	-0.5419	26.31	0.56	-0.750			
0.8322	53258.33	3.3560	3.3560	-0.5208	26.32	0.57	-0.750			
0.8337	53356.23	3.3530	3.3530	-0.5021	26.32	0.57	-0.750			
0.8352	53450.84	3.3500	3.3501	-0.4854	26.33	0.58	-0.750			
0.8366	53542.48	3.3470	3.3469	-0.4685	26.34	0.59	-0.750			
0.8380	53630.98	3.3440	3.3440	-0.4514	26.34	0.59	-0.750			
0.8393	53716.07	3.3410	3.3410	-0.4333	26.35	0.60	-0.750			
0.8406	53796.77	3.3380	3.3380	-0.4199	26.35	0.60	-0.750			
0.8418	53875.72	3.3350	3.3350	-0.4049	26.36	0.61	-0.750			
0.8430	53951.63	3.3320	3.3319	-0.3906	26.36	0.61	-0.750			
0.8441	54025.19	3.3290	3.3290	-0.3775	26.37	0.62	-0.750			
0.8453	54096.85	3.3260	3.3261	-0.3653	26.37	0.62	-0.750			
0.8463	54165.72	3.3230	3.3230	-0.3534	26.37	0.62	-0.750			
0.8474	54232.39	3.3200	3.3200	-0.3416	26.38	0.63	-0.750			
0.8484	54295.95	3.3170	3.3170	-0.3290	26.38	0.63	-0.750			
0.8494	54358.46	3.3140	3.3139	-0.3187	26.39	0.64	-0.750			
0.8503	54418.39	3.3110	3.3111	-0.3086	26.39	0.64	-0.750			
0.8512	54476.37	3.3080	3.3080	-0.2997	26.39	0.64	-0.750			
0.8521	54533.05	3.3050	3.3050	-0.2905	26.40	0.65	-0.750			
0.8529	54587.90	3.3020	3.3020	-0.2825	26.40	0.65	-0.750			
0.8538	54641.00	3.2990	3.2992	-0.2746	26.41	0.66	-0.750			
0.8546	54692.92	3.2960	3.2960	-0.2683	26.41	0.66	-0.750			
0.8554	54743.81	3.2930	3.2930	-0.2625	26.42	0.67	-0.750			
0.8561	54793.48	3.2900	3.2899	-0.2549	26.42	0.67	-0.750			
0.8569	54841.65	3.2870	3.2871	-0.2493	26.43	0.68	-0.750			
0.8576	54889.25	3.2840	3.2841	-0.2440	26.43	0.68	-0.750			
0.8584	54935.34	3.2810	3.2810	-0.2380	26.43	0.68	-0.750			
0.8591	54980.30	3.2780	3.2779	-0.2328	26.44	0.69	-0.750			
0.8597	55023.97	3.2750	3.2751	-0.2279	26.44	0.69	-0.750			
0.8604	55067.38	3.2720	3.2720	-0.2242	26.45	0.70	-0.750			
0.8611	55109.91	3.2690	3.2690	-0.2198	26.45	0.70	-0.750			
0.8618	55152.04	3.2660	3.2660	-0.2164	26.45	0.70	-0.750			
0.8624	55193.27	3.2630	3.2629	-0.2112	26.46	0.71	-0.750			
0.8630	55233.39	3.2600	3.2601	-0.2067	26.46	0.71	-0.750			
0.8636	55272.94	3.2570	3.2569	-0.2025	26.47	0.72	-0.750			
0.8642	55311.06	3.2540	3.2541	-0.1986	26.47	0.72	-0.750			
0.8648	55348.38	3.2510	3.2511	-0.1944	26.48	0.73	-0.750			
0.8654	55385.30	3.2480	3.2479	-0.1912	26.48	0.73	-0.750			
0.8660	55421.67	3.2450	3.2450	-0.1891	26.49	0.74	-0.750			
0.8665	55457.52	3.2420	3.2421	-0.1862	26.49	0.74	-0.750			
0.8671	55493.14	3.2390	3.2389	-0.1850	26.49	0.74	-0.750			
0.8676	55528.47	3.2360	3.2360	-0.1830	26.50	0.75	-0.750			
0.8682	55563.45	3.2330	3.2330	-0.1800	26.50	0.75	-0.750			
0.8687	55597.79	3.2300	3.2299	-0.1775	26.51	0.76	-0.750			
0.8692	55631.64	3.2270	3.2271	-0.1755	26.51	0.76	-0.750			
0.8698	55665.11	3.2240	3.2241	-0.1730	26.52	0.77	-0.750			
0.8703	55698.10	3.2210	3.2209	-0.1699	26.52	0.77	-0.750			
0.8708	55730.36	3.2180	3.2180	-0.1680	26.52	0.77	-0.750			
0.8713	55762.17	3.2150	3.2151	-0.1652	26.53	0.78	-0.750			
0.8718	55793.73	3.2120	3.2120	-0.1635	26.53	0.78	-0.750			
0.8723	55825.05	3.2090	3.2089	-0.1624	26.54	0.79	-0.750			
0.8728	55856.05	3.2060	3.2060	-0.1600	26.54	0.79	-0.750			
0.8732	55886.45	3.2030	3.2030	-0.1583	26.54	0.79	-0.750			
0.8737	55916.69	3.2000	3.2000	-0.1568	26.55	0.80	-0.750			
0.8742	55946.87	3.1970	3.1971	-0.1554	26.55	0.80	-0.750			
0.8746	55976.32	3.1940	3.1939	-0.1534	26.56	0.81	-0.750			
0.8751	56005.72	3.1910	3.1911	-0.1520	26.56	0.81	-0.750			
0.8755	56034.73	3.1880	3.1879	-0.1505	26.56	0.81	-0.750			
0.8760	56063.32	3.1850	3.1850	-0.1487	26.57	0.82	-0.750			
0.8764	56091.84	3.1820	3.1821	-0.1479	26.57	0.82	-0.750			
0.8769	56119.92	3.1790	3.1789	-0.1462	26.58	0.83	-0.750			
0.8773	56147.95	3.1760	3.1760	-0.1448	26.58	0.83	-0.750			
0.8777	56175.63	3.1730	3.1730	-0.1437	26.59	0.84	-0.750			
0.8782	56203.15	3.1700	3.1700	-0.1424	26.59	0.84	-0.750			
0.8786	56230.36	3.1670	3.1670	-0.1411	26.60	0.85	-0.750			
0.8790	56257.35	3.1640	3.1640	-0.1397	26.60	0.85	-0.750			
0.8794	56284.06	3.1610	3.1610	-0.1385	26.61	0.86	-0.750			
