Ah_balance (normalized)	Ah_balance (mAh)	Voltage - fit (V)	Voltage -  interpolate (V)	dQ/dV (1/V)	Temperature (°C)	Temperature - diff (°C)	Current (C)	R_DC 0ms (mOhm)	R_DC 50ms (mOhm)	R_DC 50 ms PEC (mOhm)
0.0593	3793.42	4.1980	4.1981	0.7911	25.97	0.00	0.750			
0.0615	3939.14	4.1950	4.1950	0.7389	25.97	0.00	0.750			
0.0637	4079.97	4.1920	4.1922	0.7363	25.97	0.00	0.750			
0.0660	4220.86	4.1890	4.1890	0.7394	25.97	0.00	0.750			
0.0682	4363.61	4.1860	4.1858	0.7406	25.97	0.00	0.750			
0.0704	4505.48	4.1830	4.1831	0.7402	25.97	0.00	0.750			
0.0727	4650.40	4.1800	4.1800	0.7398	25.97	0.00	0.750			
0.0749	4791.33	4.1770	4.1771	0.7437	25.97	0.00	0.750			
0.0771	4932.50	4.1740	4.1740	0.7425	25.97	0.00	0.750			
0.0793	5074.46	4.1710	4.1711	0.7477	25.97	0.00	0.750			
0.0815	5219.09	4.1680	4.1681	0.7488	25.97	0.00	0.750			
0.0838	5364.11	4.1650	4.1651	0.7555	25.97	0.00	0.750			
0.0861	5510.04	4.1620	4.1620	0.7519	25.97	0.00	0.750			
0.0884	5655.75	4.1590	4.1589	0.7520	25.98	0.01	0.750			
0.0906	5796.81	4.1560	4.1561	0.7471	25.98	0.01	0.750			
0.0928	5940.41	4.1530	4.1526	0.7501	25.98	0.01	0.750			
0.0951	6084.22	4.1500	4.1500	0.7501	25.98	0.01	0.750			
0.0973	6229.12	4.1470	4.1470	0.7559	25.98	0.01	0.750			
0.0996	6374.31	4.1440	4.1440	0.7565	25.99	0.02	0.750			
0.1019	6521.72	4.1410	4.1410	0.7584	25.99	0.02	0.750			
0.1042	6665.88	4.1380	4.1380	0.7577	25.99	0.02	0.750			
0.1064	6810.65	4.1350	4.1350	0.7598	25.99	0.02	0.750			
0.1087	6956.02	4.1320	4.1320	0.7620	25.99	0.02	0.750			
0.1110	7103.06	4.1290	4.1289	0.7609	25.99	0.02	0.750			
0.1133	7248.96	4.1260	4.1260	0.7612	25.99	0.02	0.750			
0.1156	7395.45	4.1230	4.1231	0.7658	25.99	0.02	0.750			
0.1179	7542.87	4.1200	4.1197	0.7656	25.99	0.02	0.750			
0.1201	7689.31	4.1170	4.1170	0.7686	25.99	0.02	0.750			
0.1225	7837.68	4.1140	4.1140	0.7707	25.99	0.02	0.750			
0.1248	7986.70	4.1110	4.1110	0.7711	25.99	0.02	0.750			
0.1271	8135.11	4.1080	4.1081	0.7752	25.99	0.02	0.750			
0.1294	8283.49	4.1050	4.1049	0.7718	25.99	0.02	0.750			
0.1317	8431.09	4.1020	4.1019	0.7727	25.99	0.02	0.750			
0.1341	8579.33	4.0990	4.0990	0.7737	26.00	0.03	0.750			
0.1364	8726.60	4.0960	4.0960	0.7753	26.00	0.03	0.750			
0.1387	8877.06	4.0930	4.0930	0.7795	26.00	0.03	0.750			
0.1410	9026.86	4.0900	4.0900	0.7819	26.01	0.04	0.750			
0.1434	9176.46	4.0870	4.0870	0.7805	26.01	0.04	0.750			
0.1457	9327.38	4.0840	4.0840	0.7869	26.01	0.04	0.750			
0.1481	9478.61	4.0810	4.0810	0.7840	26.01	0.04	0.750			
0.1505	9629.47	4.0780	4.0780	0.7852	26.01	0.04	0.750			
0.1528	9779.71	4.0750	4.0750	0.7872	26.01	0.04	0.750			
0.1552	9931.03	4.0720	4.0718	0.7914	26.01	0.04	0.750			
0.1575	10082.60	4.0690	4.0689	0.7932	26.01	0.04	0.750			
0.1600	10238.16	4.0660	4.0660	0.7847	26.01	0.04	0.750			
0.1623	10386.22	4.0630	4.0630	0.7931	26.01	0.04	0.750			
0.1647	10537.76	4.0600	4.0601	0.8066	26.01	0.04	0.750			
0.1671	10692.36	4.0570	4.0570	0.8104	26.01	0.04	0.750			
0.1695	10850.17	4.0540	4.0541	0.8121	26.01	0.04	0.750			
0.1720	11010.22	4.0510	4.0511	0.8093	26.02	0.05	0.750			
0.1745	11165.27	4.0480	4.0482	0.8143	26.02	0.05	0.750			
0.1769	11323.25	4.0450	4.0450	0.8196	26.02	0.05	0.750			
0.1793	11474.97	4.0420	4.0420	0.8078	26.03	0.06	0.750			
0.1817	11630.23	4.0390	4.0390	0.8095	26.03	0.06	0.750			
0.1842	11787.60	4.0360	4.0361	0.8150	26.03	0.06	0.750			
0.1866	11944.58	4.0330	4.0330	0.8202	26.03	0.06	0.750			
0.1891	12104.58	4.0300	4.0300	0.8244	26.03	0.06	0.750			
0.1916	12259.37	4.0270	4.0270	0.8201	26.03	0.06	0.750			
0.1940	12418.57	4.0240	4.0240	0.8264	26.03	0.06	0.750			
0.1966	12580.52	4.0210	4.0210	0.8231	26.03	0.06	0.750			
0.1990	12737.81	4.0180	4.0182	0.8267	26.03	0.06	0.750			
0.2015	12894.27	4.0150	4.0150	0.8350	26.04	0.07	0.750			
0.2040	13054.47	4.0120	4.0121	0.8381	26.04	0.07	0.750			
0.2065	13215.30	4.0090	4.0091	0.8416	26.04	0.07	0.750			
0.2090	13377.92	4.0060	4.0061	0.8432	26.04	0.07	0.750			
0.2116	13543.12	4.0030	4.0031	0.8484	26.04	0.07	0.750			
0.2142	13707.15	4.0000	4.0000	0.8447	26.04	0.07	0.750			
0.2167	13867.74	3.9970	3.9970	0.8389	26.04	0.07	0.750			
0.2192	14028.05	3.9940	3.9940	0.8380	26.04	0.07	0.750			
0.2217	14190.10	3.9910	3.9909	0.8375	26.04	0.07	0.750			
0.2242	14349.60	3.9880	3.9880	0.8423	26.05	0.08	0.750			
0.2267	14511.77	3.9850	3.9851	0.8478	26.05	0.08	0.750			
0.2293	14674.82	3.9820	3.9819	0.8476	26.05	0.08	0.750			
0.2319	14839.06	3.9790	3.9790	0.8488	26.05	0.08	0.750			
0.2344	15001.63	3.9760	3.9761	0.8450	26.05	0.08	0.750			
0.2369	15163.21	3.9730	3.9730	0.8482	26.06	0.09	0.750			
0.2395	15326.99	3.9700	3.9700	0.8492	26.06	0.09	0.750			
0.2420	15487.11	3.9670	3.9669	0.8481	26.06	0.09	0.750			
0.2445	15650.30	3.9640	3.9641	0.8548	26.06	0.09	0.750			
0.2471	15815.53	3.9610	3.9611	0.8619	26.06	0.09	0.750			
0.2497	15982.81	3.9580	3.9578	0.8623	26.05	0.08	0.750			
0.2523	16148.91	3.9550	3.9551	0.8682	26.05	0.08	0.750			
0.2549	16316.18	3.9520	3.9520	0.8612	26.05	0.08	0.750			
0.2575	16482.09	3.9490	3.9490	0.8640	26.05	0.08	0.750			
0.2601	16647.28	3.9460	3.9460	0.8614	26.05	0.08	0.750			
0.2627	16809.74	3.9430	3.9429	0.8608	26.05	0.08	0.750			
0.2652	16974.84	3.9400	3.9400	0.8618	26.05	0.08	0.750			
0.2678	17140.82	3.9370	3.9369	0.8696	26.05	0.08	0.750			
0.2704	17308.72	3.9340	3.9340	0.8673	26.05	0.08	0.750			
0.2731	17476.99	3.9310	3.9310	0.8752	26.05	0.08	0.750			
0.2757	17643.69	3.9280	3.9280	0.8779	26.05	0.08	0.750			
0.2783	17813.18	3.9250	3.9250	0.8797	26.05	0.08	0.750			
0.2810	17982.47	3.9220	3.9220	0.8828	26.05	0.08	0.750			
0.2837	18153.80	3.9190	3.9190	0.8836	26.04	0.07	0.750			
0.2863	18322.88	3.9160	3.9161	0.8857	26.04	0.07	0.750			
0.2890	18494.14	3.9130	3.9130	0.8896	26.04	0.07	0.750			
0.2916	18663.66	3.9100	3.9100	0.8862	26.03	0.06	0.750			
0.2943	18833.54	3.9070	3.9070	0.8919	26.03	0.06	0.750			
0.2970	19005.35	3.9040	3.9040	0.8940	26.02	0.05	0.750			
0.2996	19176.81	3.9010	3.9010	0.8970	26.02	0.05	0.750			
0.3024	19350.58	3.8980	3.8980	0.9025	26.01	0.04	0.750			
0.3050	19522.31	3.8950	3.8948	0.9064	26.01	0.04	0.750			
0.3078	19699.07	3.8920	3.8920	0.9048	26.01	0.04	0.750			
0.3105	19873.97	3.8890	3.8890	0.9009	26.00	0.03	0.750			
0.3132	20046.40	3.8860	3.8860	0.8988	26.00	0.03	0.750			
0.3159	20219.23	3.8830	3.8831	0.8979	25.99	0.02	0.750			
0.3186	20389.49	3.8800	3.8800	0.8943	25.99	0.02	0.750			
0.3213	20560.62	3.8770	3.8770	0.8926	25.98	0.01	0.750			
0.3239	20729.83	3.8740	3.8741	0.8959	25.98	0.01	0.750			
0.3266	20904.01	3.8710	3.8711	0.9056	25.98	0.01	0.750			
0.3294	21079.31	3.8680	3.8679	0.9105	25.97	0.00	0.750			
0.3321	21254.27	3.8650	3.8650	0.9108	25.97	-0.00	0.750			
0.3348	21429.84	3.8620	3.8620	0.9080	25.96	-0.01	0.750			
0.3376	21603.24	3.8590	3.8591	0.9133	25.95	-0.02	0.750			
0.3403	21778.56	3.8560	3.8560	0.9169	25.95	-0.02	0.750			
0.3430	21953.82	3.8530	3.8527	0.9211	25.94	-0.03	0.750			
0.3458	22132.11	3.8500	3.8500	0.9190	25.93	-0.04	0.750			
0.3486	22308.89	3.8470	3.8471	0.9272	25.93	-0.04	0.750			
0.3514	22489.42	3.8440	3.8441	0.9361	25.92	-0.05	0.750			
0.3542	22667.71	3.8410	3.8409	0.9376	25.91	-0.06	0.750			
0.3570	22849.39	3.8380	3.8381	0.9420	25.91	-0.06	0.750			
0.3598	23030.21	3.8350	3.8350	0.9466	25.90	-0.07	0.750			
0.3627	23212.98	3.8320	3.8320	0.9516	25.90	-0.07	0.750			
0.3656	23397.86	3.8290	3.8291	0.9627	25.89	-0.08	0.750			
0.3685	23581.01	3.8260	3.8259	0.9662	25.89	-0.08	0.750			
0.3714	23766.40	3.8230	3.8230	0.9720	25.88	-0.09	0.750			
0.3743	23952.24	3.8200	3.8201	0.9805	25.88	-0.09	0.750			
0.3772	24142.42	3.8170	3.8170	0.9946	25.88	-0.09	0.750			
0.3802	24335.93	3.8140	3.8138	1.0046	25.87	-0.10	0.750			
0.3833	24530.20	3.8110	3.8110	1.0088	25.87	-0.10	0.750			
0.3863	24722.78	3.8080	3.8081	1.0195	25.86	-0.11	0.750			
0.3894	24919.24	3.8050	3.8050	1.0315	25.86	-0.11	0.750			
0.3924	25116.64	3.8020	3.8018	1.0468	25.85	-0.12	0.750			
0.3956	25318.83	3.7990	3.7991	1.0594	25.84	-0.13	0.750			
0.3988	25524.33	3.7960	3.7960	1.0778	25.84	-0.13	0.750			
0.4021	25735.28	3.7930	3.7930	1.1015	25.83	-0.14	0.750			
0.4054	25948.57	3.7900	3.7899	1.1107	25.82	-0.15	0.750			
0.4088	26163.84	3.7870	3.7870	1.1311	25.81	-0.16	0.750			
0.4122	26382.67	3.7840	3.7840	1.1486	25.81	-0.16	0.750			
0.4157	26602.48	3.7810	3.7812	1.1804	25.80	-0.17	0.750			
0.4193	26832.01	3.7780	3.7780	1.2045	25.80	-0.17	0.750			
0.4229	27065.64	3.7750	3.7747	1.2375	25.79	-0.18	0.750	0.329	0.487	
0.4266	27305.15	3.7720	3.7722	1.2656	25.78	-0.19	0.750			
0.4305	27553.19	3.7690	3.7689	1.2838	25.77	-0.20	0.750			
0.4344	27803.83	3.7660	3.7661	1.3064	25.76	-0.21	0.750			
0.4384	28057.05	3.7630	3.7631	1.3261	25.76	-0.21	0.750			
0.4424	28311.45	3.7600	3.7599	1.3543	25.75	-0.22	0.750			
0.4464	28571.56	3.7570	3.7571	1.3803	25.74	-0.23	0.750			
0.4506	28840.05	3.7540	3.7540	1.4072	25.73	-0.24	0.750			
0.4549	29113.46	3.7510	3.7511	1.4393	25.72	-0.25	0.750			
0.4593	29397.29	3.7480	3.7480	1.4530	25.71	-0.26	0.750			
0.4637	29675.88	3.7450	3.7450	1.4872	25.69	-0.28	0.750			
0.4681	29961.15	3.7420	3.7419	1.5214	25.68	-0.29	0.750			
0.4727	30252.26	3.7390	3.7391	1.5708	25.67	-0.30	0.750			
0.4775	30558.50	3.7360	3.7361	1.6133	25.66	-0.31	0.750			
0.4824	30872.81	3.7330	3.7330	1.6709	25.65	-0.32	0.750			
0.4875	31198.38	3.7300	3.7301	1.7101	25.64	-0.33	0.750			
0.4928	31542.04	3.7270	3.7269	1.7696	25.62	-0.35	0.750			
0.4982	31883.21	3.7240	3.7239	1.8008	25.61	-0.36	0.750			
0.5036	32231.29	3.7210	3.7210	1.8362	25.60	-0.37	0.750			
0.5091	32580.88	3.7180	3.7183	1.8828	25.59	-0.38	0.750			
0.5148	32946.31	3.7150	3.7150	1.9467	25.58	-0.39	0.750			
0.5207	33322.15	3.7120	3.7119	2.0227	25.58	-0.39	0.750			
0.5268	33716.78	3.7090	3.7090	2.0952	25.57	-0.40	0.750			
0.5333	34130.44	3.7060	3.7061	2.1796	25.56	-0.41	0.750			
0.5399	34556.71	3.7030	3.7031	2.2598	25.54	-0.43	0.750			
0.5468	34997.61	3.7000	3.6998	2.3232	25.54	-0.43	0.750			
0.5539	35449.34	3.6970	3.6970	2.3856	25.53	-0.44	0.750			
0.5612	35915.18	3.6940	3.6940	2.4378	25.53	-0.44	0.750			
0.5686	36390.51	3.6910	3.6912	2.5315	25.52	-0.45	0.750			
0.5762	36877.97	3.6880	3.6880	2.6125	25.51	-0.46	0.750			
0.5843	37393.06	3.6850	3.6850	2.7032	25.51	-0.46	0.750			
0.5926	37924.90	3.6820	3.6821	2.7180	25.50	-0.47	0.750			
0.6010	38465.55	3.6790	3.6790	2.6886	25.51	-0.46	0.750			
0.6090	38974.60	3.6760	3.6759	2.5229	25.51	-0.46	0.750			
0.6165	39453.08	3.6730	3.6730	2.3479	25.52	-0.45	0.750			
0.6230	39873.89	3.6700	3.6701	2.1254	25.52	-0.45	0.750			
0.6290	40255.52	3.6670	3.6671	1.9308	25.52	-0.45	0.750			
0.6343	40598.01	3.6640	3.6640	1.7580	25.53	-0.44	0.750			
0.6393	40912.08	3.6610	3.6609	1.6120	25.53	-0.44	0.750			
0.6438	41200.20	3.6580	3.6579	1.4962	25.54	-0.43	0.750			
0.6482	41482.91	3.6550	3.6551	1.4202	25.54	-0.43	0.750			
0.6522	41742.55	3.6520	3.6521	1.3429	25.54	-0.43	0.750			
0.6561	41990.89	3.6490	3.6489	1.2589	25.54	-0.43	0.750			
0.6597	42218.49	3.6460	3.6461	1.2135	25.55	-0.42	0.750			
0.6632	42442.30	3.6430	3.6430	1.1858	25.55	-0.42	0.750			
0.6667	42669.69	3.6400	3.6400	1.1746	25.56	-0.41	0.750			
0.6702	42890.45	3.6370	3.6371	1.1688	25.56	-0.41	0.750			
0.6736	43112.47	3.6340	3.6340	1.1728	25.57	-0.40	0.750			
0.6772	43339.86	3.6310	3.6311	1.1842	25.57	-0.40	0.750			
0.6808	43570.19	3.6280	3.6278	1.1728	25.58	-0.39	0.750			
0.6843	43798.38	3.6250	3.6251	1.1739	25.59	-0.38	0.750			
0.6879	44024.71	3.6220	3.6221	1.1616	25.59	-0.38	0.750			
0.6914	44247.35	3.6190	3.6190	1.1494	25.60	-0.37	0.750			
0.6948	44464.82	3.6160	3.6160	1.1258	25.60	-0.37	0.750			
0.6981	44676.05	3.6130	3.6130	1.1145	25.60	-0.37	0.750			
0.7014	44887.82	3.6100	3.6101	1.1123	25.60	-0.37	0.750			
0.7047	45102.61	3.6070	3.6069	1.1241	25.60	-0.37	0.750			
0.7080	45315.05	3.6040	3.6040	1.1280	25.60	-0.37	0.750			
0.7114	45531.65	3.6010	3.6010	1.1562	25.61	-0.36	0.750			
0.7149	45752.48	3.5980	3.5981	1.1848	25.62	-0.35	0.750			
0.7185	45983.92	3.5950	3.5949	1.2104	25.62	-0.35	0.750			
0.7221	46217.12	3.5920	3.5921	1.2552	25.63	-0.34	0.750			
0.7260	46461.72	3.5890	3.5890	1.2975	25.63	-0.34	0.750			
0.7299	46713.48	3.5860	3.5857	1.3463	25.64	-0.33	0.750			
0.7341	46979.39	3.5830	3.5831	1.3861	25.64	-0.33	0.750			
0.7383	47248.54	3.5800	3.5800	1.4349	25.64	-0.33	0.750			
0.7427	47533.44	3.5770	3.5770	1.4781	25.64	-0.33	0.750			
0.7472	47819.47	3.5740	3.5742	1.5181	25.64	-0.33	0.750			
0.7518	48117.59	3.5710	3.5711	1.5482	25.64	-0.33	0.750			
0.7566	48424.66	3.5680	3.5680	1.5695	25.64	-0.33	0.750			
0.7614	48728.51	3.5650	3.5651	1.5975	25.65	-0.32	0.750			
0.7662	49035.05	3.5620	3.5620	1.6229	25.66	-0.31	0.750			
0.7710	49344.38	3.5590	3.5591	1.6345	25.66	-0.31	0.750			
0.7760	49663.83	3.5560	3.5558	1.6516	25.66	-0.31	0.750			
0.7809	49978.64	3.5530	3.5528	1.6748	25.66	-0.31	0.750			
0.7860	50306.26	3.5500	3.5500	1.7138	25.67	-0.30	0.750			
0.7911	50632.93	3.5470	3.5470	1.7501	25.69	-0.28	0.750			
0.7965	50973.81	3.5440	3.5443	1.7665	25.70	-0.27	0.750			
0.8022	51342.28	3.5410	3.5410	1.6843	25.71	-0.26	0.750			
0.8075	51681.85	3.5380	3.5379	1.5407	25.73	-0.24	0.750			
0.8123	51985.53	3.5350	3.5356	1.3168	25.75	-0.22	0.750			
0.8160	52226.52	3.5320	3.5322	1.0656	25.77	-0.20	0.750			
0.8185	52384.74	3.5290	3.5288	0.8206	25.78	-0.19	0.750			
0.8202	52493.29	3.5260	3.5256	0.5939	25.80	-0.17	0.750			
0.8213	52562.93	3.5230	3.5230	0.4580	25.80	-0.17	0.750			
0.8225	52637.88	3.5200	3.5198	0.3939	25.81	-0.16	0.750			
0.8235	52701.48	3.5170	3.5169	0.3527	25.82	-0.15	0.750			
0.8244	52764.30	3.5140	3.5140	0.3299	25.83	-0.14	0.750			
0.8254	52825.86	3.5110	3.5110	0.3155	25.83	-0.14	0.750			
0.8263	52884.03	3.5080	3.5081	0.3031	25.84	-0.13	0.750			
0.8272	52940.74	3.5050	3.5049	0.2919	25.85	-0.12	0.750			
0.8280	52995.20	3.5020	3.5020	0.2829	25.85	-0.12	0.750			
0.8289	53048.63	3.4990	3.4990	0.2760	25.86	-0.11	0.750			
0.8297	53100.62	3.4960	3.4961	0.2698	25.87	-0.10	0.750			
0.8305	53152.39	3.4930	3.4930	0.2635	25.87	-0.10	0.750			
0.8313	53202.76	3.4900	3.4900	0.2577	25.88	-0.09	0.750			
0.8321	53251.54	3.4870	3.4871	0.2527	25.88	-0.09	0.750			
0.8328	53299.13	3.4840	3.4840	0.2461	25.89	-0.08	0.750			
0.8335	53346.15	3.4810	3.4809	0.2414	25.90	-0.07	0.750			
0.8342	53391.30	3.4780	3.4780	0.2358	25.90	-0.07	0.750			
0.8349	53435.99	3.4750	3.4749	0.2307	25.91	-0.06	0.750			
0.8356	53480.39	3.4720	3.4720	0.2272	25.91	-0.06	0.750			
0.8363	53523.78	3.4690	3.4689	0.2219	25.92	-0.05	0.750			
0.8370	53565.68	3.4660	3.4660	0.2156	25.92	-0.05	0.750			
0.8376	53606.91	3.4630	3.4631	0.2110	25.93	-0.04	0.750			
0.8382	53646.82	3.4600	3.4599	0.2048	25.93	-0.04	0.750			
0.8388	53685.23	3.4570	3.4570	0.2001	25.94	-0.03	0.750			
0.8394	53722.79	3.4540	3.4540	0.1956	25.94	-0.03	0.750			
0.8400	53760.10	3.4510	3.4510	0.1905	25.95	-0.02	0.750			
0.8406	53796.24	3.4480	3.4479	0.1860	25.95	-0.02	0.750			
0.8411	53831.87	3.4450	3.4450	0.1798	25.96	-0.01	0.750			
0.8417	53865.93	3.4420	3.4421	0.1756	25.96	-0.01	0.750			
0.8422	53899.05	3.4390	3.4390	0.1705	25.96	-0.01	0.750			
0.8427	53931.24	3.4360	3.4358	0.1653	25.97	-0.00	0.750			
0.8432	53962.14	3.4330	3.4330	0.1598	25.97	0.00	0.750			
0.8436	53992.30	3.4300	3.4301	0.1542	25.98	0.01	0.750			
0.8441	54021.77	3.4270	3.4270	0.1499	25.98	0.01	0.750			
0.8445	54050.36	3.4240	3.4240	0.1448	25.98	0.01	0.750			
0.8450	54077.55	3.4210	3.4210	0.1384	25.99	0.02	0.750			
0.8454	54103.39	3.4180	3.4179	0.1312	25.99	0.02	0.750			
0.8458	54128.21	3.4150	3.4152	0.1252	25.99	0.02	0.750			
0.8461	54151.92	3.4120	3.4120	0.1185	26.00	0.03	0.750			
0.8465	54173.95	3.4090	3.4090	0.1110	26.00	0.03	0.750			
0.8468	54195.92	3.4060	3.4057	0.1021	26.00	0.03	0.750			
0.8471	54214.76	3.4030	3.4030	0.0930	26.00	0.03	0.750			
0.8474	54231.63	3.4000	3.4001	0.0828	26.01	0.04	0.750			
0.8476	54247.28	3.3970	3.3971	0.0737	26.01	0.04	0.750			
0.8478	54260.37	3.3940	3.3945	0.0626	26.01	0.04	0.750			
0.8480	54272.39	3.3910	3.3914	0.0517	26.01	0.04	0.750			
0.8481	54281.13	3.3880	3.3889	0.0394	26.01	0.04	0.750			
0.8482	54287.51	3.3850	3.3866	0.0271	26.01	0.04	0.750			
0.8483	54291.54	3.3820	3.3841	0.0148	26.01	0.04	0.750			
