Ah_balance (normalized)	Ah_balance (mAh)	Voltage - fit (V)	Voltage -  interpolate (V)	dQ/dV (1/V)	Temperature (°C)	Temperature - diff (°C)	Current (C)	R_DC 0ms (mOhm)	R_DC 50ms (mOhm)	R_DC 50 ms PEC (mOhm)
0.0002	14.57	4.1670	4.1669	-0.1229	26.01	0.04	-0.750			
0.0007	43.41	4.1640	4.1639	-0.1745	26.01	0.04	-0.750			
0.0013	81.48	4.1610	4.1611	-0.2239	26.00	0.03	-0.750			
0.0020	129.67	4.1580	4.1580	-0.2720	26.00	0.03	-0.750			
0.0029	186.77	4.1550	4.1550	-0.3186	26.00	0.03	-0.750			
0.0040	252.98	4.1520	4.1520	-0.3648	26.00	0.03	-0.750			
0.0051	328.08	4.1490	4.1489	-0.4082	25.99	0.02	-0.750			
0.0064	410.73	4.1460	4.1461	-0.4509	25.99	0.02	-0.750			
0.0078	502.31	4.1430	4.1430	-0.4887	25.98	0.01	-0.750			
0.0094	600.81	4.1400	4.1400	-0.5241	25.98	0.01	-0.750			
0.0110	705.83	4.1370	4.1370	-0.5554	25.97	0.00	-0.750			
0.0127	815.61	4.1340	4.1340	-0.5871	25.97	-0.00	-0.750			
0.0146	931.88	4.1310	4.1310	-0.6115	25.96	-0.01	-0.750			
0.0164	1052.48	4.1280	4.1280	-0.6366	25.96	-0.01	-0.750			
0.0184	1177.28	4.1250	4.1250	-0.6582	25.95	-0.02	-0.750			
0.0204	1307.78	4.1220	4.1220	-0.6752	25.94	-0.03	-0.750			
0.0225	1440.40	4.1190	4.1189	-0.6897	25.94	-0.03	-0.750			
0.0246	1574.74	4.1160	4.1162	-0.6968	25.93	-0.04	-0.750			
0.0267	1709.57	4.1130	4.1130	-0.7022	25.93	-0.04	-0.750			
0.0288	1843.33	4.1100	4.1100	-0.7190	25.92	-0.05	-0.750			
0.0310	1982.25	4.1070	4.1070	-0.7226	25.92	-0.05	-0.750			
0.0332	2123.57	4.1040	4.1038	-0.7337	25.92	-0.05	-0.750			
0.0354	2264.98	4.1010	4.1009	-0.7390	25.91	-0.06	-0.750			
0.0376	2408.16	4.0980	4.0982	-0.7459	25.91	-0.06	-0.750			
0.0399	2552.03	4.0950	4.0949	-0.7495	25.91	-0.06	-0.750			
0.0421	2695.21	4.0920	4.0920	-0.7588	25.91	-0.06	-0.750			
0.0444	2839.01	4.0890	4.0891	-0.7603	25.90	-0.07	-0.750			
0.0467	2990.94	4.0860	4.0858	-0.7705	25.90	-0.07	-0.750			
0.0491	3140.32	4.0830	4.0831	-0.7736	25.90	-0.07	-0.750			
0.0514	3289.15	4.0800	4.0800	-0.7725	25.90	-0.07	-0.750			
0.0537	3437.12	4.0770	4.0770	-0.7737	25.90	-0.07	-0.750			
0.0560	3585.06	4.0740	4.0739	-0.7721	25.89	-0.08	-0.750			
0.0583	3729.85	4.0710	4.0710	-0.7700	25.89	-0.08	-0.750			
0.0606	3881.36	4.0680	4.0680	-0.7744	25.89	-0.08	-0.750			
0.0630	4029.94	4.0650	4.0650	-0.7763	25.89	-0.08	-0.750			
0.0653	4177.16	4.0620	4.0621	-0.7850	25.89	-0.08	-0.750			
0.0676	4329.17	4.0590	4.0590	-0.7893	25.89	-0.08	-0.750			
0.0700	4481.66	4.0560	4.0558	-0.7880	25.89	-0.08	-0.750			
0.0724	4634.10	4.0530	4.0530	-0.7924	25.89	-0.08	-0.750			
0.0748	4786.33	4.0500	4.0502	-0.7948	25.89	-0.08	-0.750			
0.0772	4939.41	4.0470	4.0469	-0.7986	25.89	-0.08	-0.750			
0.0796	5091.91	4.0440	4.0439	-0.8003	25.89	-0.08	-0.750			
0.0820	5245.93	4.0410	4.0410	-0.7996	25.89	-0.08	-0.750			
0.0844	5401.97	4.0380	4.0380	-0.8033	25.89	-0.08	-0.750			
0.0868	5556.11	4.0350	4.0351	-0.8031	25.89	-0.08	-0.750			
0.0892	5709.42	4.0320	4.0320	-0.8011	25.89	-0.08	-0.750			
0.0916	5862.31	4.0290	4.0290	-0.8062	25.89	-0.08	-0.750			
0.0940	6016.33	4.0260	4.0260	-0.8064	25.90	-0.07	-0.750			
0.0964	6172.71	4.0230	4.0229	-0.8043	25.90	-0.07	-0.750			
0.0989	6328.75	4.0200	4.0201	-0.8110	25.90	-0.07	-0.750			
0.1013	6483.87	4.0170	4.0170	-0.8099	25.90	-0.07	-0.750			
0.1037	6638.79	4.0140	4.0139	-0.8146	25.90	-0.07	-0.750			
0.1062	6796.19	4.0110	4.0109	-0.8160	25.91	-0.06	-0.750			
0.1086	6952.38	4.0080	4.0080	-0.8129	25.91	-0.06	-0.750			
0.1111	7111.71	4.0050	4.0051	-0.8171	25.91	-0.06	-0.750			
0.1136	7268.30	4.0020	4.0019	-0.8188	25.91	-0.06	-0.750			
0.1160	7422.48	3.9990	3.9990	-0.8192	25.91	-0.06	-0.750			
0.1184	7580.67	3.9960	3.9959	-0.8208	25.91	-0.06	-0.750			
0.1209	7735.69	3.9930	3.9930	-0.8235	25.91	-0.06	-0.750			
0.1234	7898.00	3.9900	3.9900	-0.8309	25.91	-0.06	-0.750			
0.1259	8058.32	3.9870	3.9869	-0.8301	25.91	-0.06	-0.750			
0.1284	8217.61	3.9840	3.9840	-0.8361	25.92	-0.05	-0.750			
0.1309	8378.61	3.9810	3.9811	-0.8309	25.92	-0.05	-0.750			
0.1334	8537.54	3.9780	3.9779	-0.8296	25.92	-0.05	-0.750			
0.1359	8697.61	3.9750	3.9750	-0.8387	25.93	-0.04	-0.750			
0.1384	8856.72	3.9720	3.9720	-0.8418	25.93	-0.04	-0.750			
0.1409	9020.58	3.9690	3.9689	-0.8440	25.94	-0.03	-0.750			
0.1435	9184.09	3.9660	3.9660	-0.8461	25.94	-0.03	-0.750			
0.1460	9345.99	3.9630	3.9631	-0.8444	25.94	-0.03	-0.750			
0.1486	9509.80	3.9600	3.9599	-0.8490	25.95	-0.02	-0.750			
0.1511	9671.96	3.9570	3.9568	-0.8479	25.95	-0.02	-0.750			
0.1537	9833.85	3.9540	3.9539	-0.8490	25.95	-0.02	-0.750			
0.1562	9996.35	3.9510	3.9510	-0.8523	25.95	-0.02	-0.750			
0.1588	10160.31	3.9480	3.9481	-0.8546	25.95	-0.02	-0.750			
0.1614	10327.01	3.9450	3.9450	-0.8616	25.95	-0.02	-0.750			
0.1639	10491.86	3.9420	3.9419	-0.8673	25.95	-0.02	-0.750			
0.1665	10658.16	3.9390	3.9390	-0.8674	25.96	-0.01	-0.750			
0.1691	10825.44	3.9360	3.9360	-0.8693	25.97	-0.00	-0.750			
0.1718	10993.40	3.9330	3.9330	-0.8681	25.97	0.00	-0.750			
0.1744	11161.08	3.9300	3.9304	-0.8713	25.98	0.01	-0.750			
0.1770	11327.99	3.9270	3.9269	-0.8728	25.98	0.01	-0.750			
0.1796	11495.56	3.9240	3.9240	-0.8736	25.98	0.01	-0.750			
0.1822	11663.16	3.9210	3.9210	-0.8758	25.99	0.02	-0.750			
0.1849	11832.30	3.9180	3.9180	-0.8808	25.99	0.02	-0.750			
0.1875	12001.47	3.9150	3.9151	-0.8804	25.99	0.02	-0.750			
0.1902	12171.05	3.9120	3.9120	-0.8829	26.00	0.03	-0.750			
0.1928	12339.20	3.9090	3.9090	-0.8838	26.00	0.03	-0.750			
0.1954	12507.93	3.9060	3.9059	-0.8857	26.00	0.03	-0.750			
0.1981	12680.95	3.9030	3.9030	-0.8876	26.01	0.04	-0.750			
0.2008	12849.18	3.9000	3.9000	-0.8885	26.01	0.04	-0.750			
0.2034	13020.33	3.8970	3.8970	-0.8949	26.02	0.05	-0.750			
0.2061	13193.33	3.8940	3.8938	-0.8961	26.02	0.05	-0.750			
0.2088	13365.10	3.8910	3.8910	-0.8951	26.03	0.06	-0.750			
0.2115	13536.76	3.8880	3.8882	-0.8978	26.03	0.06	-0.750			
0.2142	13708.81	3.8850	3.8850	-0.9079	26.03	0.06	-0.750			
0.2170	13885.40	3.8820	3.8819	-0.9100	26.03	0.06	-0.750			
0.2196	14057.59	3.8790	3.8790	-0.9058	26.04	0.07	-0.750			
0.2224	14232.61	3.8760	3.8759	-0.9087	26.04	0.07	-0.750			
0.2252	14410.19	3.8730	3.8731	-0.9136	26.04	0.07	-0.750			
0.2279	14585.36	3.8700	3.8700	-0.9123	26.05	0.08	-0.750			
0.2306	14759.32	3.8670	3.8670	-0.9100	26.05	0.08	-0.750			
0.2333	14932.67	3.8640	3.8641	-0.9046	26.06	0.09	-0.750			
0.2361	15109.56	3.8610	3.8610	-0.9101	26.07	0.10	-0.750			
0.2388	15282.81	3.8580	3.8580	-0.9108	26.07	0.10	-0.750			
0.2415	15457.80	3.8550	3.8550	-0.9164	26.08	0.11	-0.750			
0.2443	15634.23	3.8520	3.8519	-0.9166	26.08	0.11	-0.750			
0.2470	15810.29	3.8490	3.8490	-0.9178	26.09	0.12	-0.750			
0.2498	15988.40	3.8460	3.8462	-0.9156	26.09	0.12	-0.750			
0.2526	16163.73	3.8430	3.8429	-0.9199	26.09	0.12	-0.750			
0.2553	16340.40	3.8400	3.8400	-0.9187	26.09	0.12	-0.750			
0.2580	16514.83	3.8370	3.8370	-0.9154	26.10	0.13	-0.750			
0.2608	16692.28	3.8340	3.8340	-0.9210	26.10	0.13	-0.750			
0.2636	16869.15	3.8310	3.8309	-0.9196	26.10	0.13	-0.750			
0.2663	17045.79	3.8280	3.8280	-0.9182	26.10	0.13	-0.750			
0.2691	17221.19	3.8250	3.8251	-0.9222	26.11	0.14	-0.750			
0.2718	17396.69	3.8220	3.8220	-0.9156	26.11	0.14	-0.750			
0.2746	17575.49	3.8190	3.8189	-0.9183	26.11	0.14	-0.750			
0.2773	17750.00	3.8160	3.8160	-0.9239	26.12	0.15	-0.750			
0.2801	17928.82	3.8130	3.8131	-0.9182	26.12	0.15	-0.750			
0.2829	18105.40	3.8100	3.8099	-0.9207	26.13	0.16	-0.750			
0.2856	18281.26	3.8070	3.8070	-0.9225	26.14	0.17	-0.750			
0.2884	18457.79	3.8040	3.8039	-0.9232	26.14	0.17	-0.750			
0.2912	18637.00	3.8010	3.8009	-0.9352	26.14	0.17	-0.750			
0.2940	18816.77	3.7980	3.7980	-0.9365	26.15	0.18	-0.750			
0.2968	18996.28	3.7950	3.7950	-0.9346	26.15	0.18	-0.750			
0.2997	19178.81	3.7920	3.7922	-0.9425	26.15	0.18	-0.750			
0.3025	19358.49	3.7890	3.7890	-0.9404	26.15	0.18	-0.750			
0.3053	19540.43	3.7860	3.7860	-0.9352	26.16	0.19	-0.750			
0.3081	19719.29	3.7830	3.7830	-0.9328	26.16	0.19	-0.750			
0.3109	19897.70	3.7800	3.7801	-0.9382	26.17	0.20	-0.750			
0.3137	20077.04	3.7770	3.7770	-0.9403	26.17	0.20	-0.750			
0.3165	20258.57	3.7740	3.7739	-0.9455	26.18	0.21	-0.750			
0.3194	20440.31	3.7710	3.7710	-0.9446	26.18	0.21	-0.750			
0.3222	20622.41	3.7680	3.7680	-0.9479	26.19	0.22	-0.750			
0.3251	20805.87	3.7650	3.7651	-0.9468	26.19	0.22	-0.750			
0.3279	20986.85	3.7620	3.7620	-0.9530	26.20	0.23	-0.750			
0.3308	21169.84	3.7590	3.7590	-0.9527	26.20	0.23	-0.750			
0.3336	21352.69	3.7560	3.7558	-0.9487	26.20	0.23	-0.750			
0.3365	21537.07	3.7530	3.7533	-0.9529	26.21	0.24	-0.750			
0.3394	21719.16	3.7500	3.7500	-0.9501	26.21	0.24	-0.750			
0.3422	21901.48	3.7470	3.7469	-0.9475	26.22	0.25	-0.750			
0.3450	22082.45	3.7440	3.7440	-0.9476	26.22	0.25	-0.750			
0.3478	22259.76	3.7410	3.7411	-0.9502	26.23	0.26	-0.750			
0.3507	22445.82	3.7380	3.7380	-0.9643	26.23	0.26	-0.750			
0.3536	22632.34	3.7350	3.7349	-0.9767	26.24	0.27	-0.750			
0.3566	22822.18	3.7320	3.7320	-0.9760	26.24	0.27	-0.750			
0.3596	23011.30	3.7290	3.7290	-0.9813	26.25	0.28	-0.750			
0.3625	23198.67	3.7260	3.7262	-0.9922	26.25	0.28	-0.750			
0.3654	23388.38	3.7230	3.7229	-0.9979	26.26	0.29	-0.750			
0.3684	23578.63	3.7200	3.7199	-1.0085	26.26	0.29	-0.750			
0.3714	23772.07	3.7170	3.7170	-1.0227	26.27	0.30	-0.750			
0.3746	23972.53	3.7140	3.7141	-1.0447	26.27	0.30	-0.750			
0.3777	24175.97	3.7110	3.7109	-1.0570	26.27	0.30	-0.750			
0.3809	24379.76	3.7080	3.7081	-1.0675	26.27	0.30	-0.750			
0.3841	24584.88	3.7050	3.7050	-1.0791	26.27	0.30	-0.750			
0.3874	24792.28	3.7020	3.7020	-1.1023	26.27	0.30	-0.750			
0.3907	25005.48	3.6990	3.6989	-1.1152	26.27	0.30	-0.750			
0.3941	25220.02	3.6960	3.6960	-1.1315	26.27	0.30	-0.750			
0.3975	25439.19	3.6930	3.6930	-1.1527	26.27	0.30	-0.750			
0.4010	25663.78	3.6900	3.6899	-1.1799	26.27	0.30	-0.750			
0.4046	25892.93	3.6870	3.6870	-1.1977	26.27	0.30	-0.750			
0.4082	26123.57	3.6840	3.6840	-1.2184	26.26	0.29	-0.750			
0.4118	26357.47	3.6810	3.6812	-1.2481	26.26	0.29	-0.750			
0.4157	26602.97	3.6780	3.6780	-1.2797	26.26	0.29	-0.750			
0.4196	26851.47	3.6750	3.6748	-1.2981	26.26	0.29	-0.750			
0.4235	27101.44	3.6720	3.6722	-1.3297	26.26	0.29	-0.750			
0.4275	27361.41	3.6690	3.6690	-1.3595	26.26	0.29	-0.750			
0.4316	27623.65	3.6660	3.6659	-1.3982	26.25	0.28	-0.750			
0.4358	27893.59	3.6630	3.6630	-1.4332	26.25	0.28	-0.750			
0.4402	28172.56	3.6600	3.6599	-1.4664	26.25	0.28	-0.750			
0.4448	28465.35	3.6570	3.6572	-1.4990	26.24	0.27	-0.750			
0.4493	28753.71	3.6540	3.6543	-1.5442	26.24	0.27	-0.750			
0.4539	29051.17	3.6510	3.6509	-1.5689	26.23	0.26	-0.750			
0.4587	29357.30	3.6480	3.6480	-1.6177	26.22	0.25	-0.750			
0.4636	29669.28	3.6450	3.6450	-1.6556	26.21	0.24	-0.750			
0.4687	29994.94	3.6420	3.6421	-1.7188	26.20	0.23	-0.750			
0.4739	30330.74	3.6390	3.6392	-1.7517	26.20	0.23	-0.750			
0.4792	30670.34	3.6360	3.6359	-1.7677	26.20	0.23	-0.750	0.427	0.493	
0.4847	31018.20	3.6330	3.6331	-1.8021	26.19	0.22	-0.750			
0.4900	31361.71	3.6300	3.6298	-1.8415	26.19	0.22	-0.750			
0.4956	31716.90	3.6270	3.6267	-1.8841	26.18	0.21	-0.750			
0.5013	32080.85	3.6240	3.6239	-1.9158	26.17	0.20	-0.750			
0.5071	32455.20	3.6210	3.6210	-1.9477	26.17	0.20	-0.750			
0.5130	32832.80	3.6180	3.6182	-1.9855	26.17	0.20	-0.750			
0.5190	33218.16	3.6150	3.6150	-2.0241	26.15	0.18	-0.750			
0.5252	33615.48	3.6120	3.6119	-2.0636	26.14	0.17	-0.750			
0.5314	34008.82	3.6090	3.6090	-2.0740	26.13	0.16	-0.750			
0.5377	34410.52	3.6060	3.6061	-2.1141	26.13	0.16	-0.750			
0.5441	34823.48	3.6030	3.6030	-2.1498	26.12	0.15	-0.750			
0.5506	35237.01	3.6000	3.5999	-2.1877	26.11	0.14	-0.750			
0.5571	35655.91	3.5970	3.5970	-2.2190	26.10	0.13	-0.750			
0.5639	36086.89	3.5940	3.5939	-2.2592	26.10	0.13	-0.750			
0.5707	36527.91	3.5910	3.5911	-2.3020	26.09	0.12	-0.750			
0.5777	36974.24	3.5880	3.5881	-2.3309	26.09	0.12	-0.750			
0.5847	37423.82	3.5850	3.5850	-2.3794	26.08	0.11	-0.750			
0.5919	37882.15	3.5820	3.5820	-2.4071	26.08	0.11	-0.750			
0.5992	38350.97	3.5790	3.5791	-2.4407	26.07	0.10	-0.750			
0.6067	38826.88	3.5760	3.5761	-2.4685	26.07	0.10	-0.750			
0.6142	39306.39	3.5730	3.5729	-2.4728	26.07	0.10	-0.750			
0.6216	39782.22	3.5700	3.5699	-2.4808	26.06	0.09	-0.750			
0.6290	40256.50	3.5670	3.5671	-2.4770	26.06	0.09	-0.750			
0.6365	40738.10	3.5640	3.5640	-2.4724	26.06	0.09	-0.750			
0.6438	41206.25	3.5610	3.5610	-2.4643	26.07	0.10	-0.750			
0.6513	41681.05	3.5580	3.5581	-2.4649	26.07	0.10	-0.750			
0.6587	42158.46	3.5550	3.5548	-2.4621	26.07	0.10	-0.750			
0.6661	42630.92	3.5520	3.5521	-2.4491	26.07	0.10	-0.750			
0.6735	43102.31	3.5490	3.5491	-2.4234	26.07	0.10	-0.750			
0.6808	43568.33	3.5460	3.5459	-2.4003	26.08	0.11	-0.750			
0.6879	44024.51	3.5430	3.5430	-2.3596	26.08	0.11	-0.750			
0.6949	44474.04	3.5400	3.5400	-2.3144	26.09	0.12	-0.750			
0.7018	44913.68	3.5370	3.5370	-2.2902	26.09	0.12	-0.750			
0.7086	45348.10	3.5340	3.5339	-2.2339	26.10	0.13	-0.750			
0.7152	45774.79	3.5310	3.5309	-2.1823	26.12	0.15	-0.750			
0.7218	46195.75	3.5280	3.5281	-2.1267	26.13	0.16	-0.750			
0.7281	46597.06	3.5250	3.5249	-2.0689	26.14	0.17	-0.750			
0.7342	46987.32	3.5220	3.5219	-1.9932	26.15	0.18	-0.750			
0.7401	47365.77	3.5190	3.5192	-1.9198	26.16	0.19	-0.750			
0.7457	47727.08	3.5160	3.5160	-1.8452	26.18	0.21	-0.750			
0.7512	48074.63	3.5130	3.5130	-1.7802	26.19	0.22	-0.750			
0.7564	48408.34	3.5100	3.5100	-1.7062	26.20	0.23	-0.750			
0.7615	48734.80	3.5070	3.5069	-1.6472	26.21	0.24	-0.750			
0.7662	49038.97	3.5040	3.5040	-1.5785	26.22	0.25	-0.750			
0.7709	49336.80	3.5010	3.5009	-1.5320	26.24	0.27	-0.750			
0.7754	49626.04	3.4980	3.4980	-1.4718	26.25	0.28	-0.750			
0.7797	49901.54	3.4950	3.4952	-1.4127	26.27	0.30	-0.750			
0.7838	50164.56	3.4920	3.4919	-1.3540	26.29	0.32	-0.750			
0.7878	50420.66	3.4890	3.4891	-1.3152	26.30	0.33	-0.750			
0.7917	50670.35	3.4860	3.4860	-1.2728	26.32	0.35	-0.750			
0.7955	50909.15	3.4830	3.4829	-1.2257	26.33	0.36	-0.750			
0.7990	51138.25	3.4800	3.4800	-1.1786	26.35	0.38	-0.750			
0.8025	51362.96	3.4770	3.4770	-1.1469	26.36	0.39	-0.750			
0.8059	51578.22	3.4740	3.4740	-1.1035	26.37	0.40	-0.750			
0.8091	51785.53	3.4710	3.4709	-1.0619	26.38	0.41	-0.750			
0.8122	51983.18	3.4680	3.4682	-1.0258	26.39	0.42	-0.750			
0.8153	52176.38	3.4650	3.4650	-1.0002	26.40	0.43	-0.750			
0.8182	52364.82	3.4620	3.4619	-0.9751	26.42	0.45	-0.750			
0.8210	52546.65	3.4590	3.4590	-0.9618	26.43	0.46	-0.750			
0.8239	52728.08	3.4560	3.4561	-0.9597	26.44	0.47	-0.750			
0.8267	52906.90	3.4530	3.4530	-0.9910	26.45	0.48	-0.750			
0.8296	53092.21	3.4500	3.4501	-1.0284	26.45	0.48	-0.750			
0.8327	53291.78	3.4470	3.4468	-1.0855	26.46	0.49	-0.750			
0.8360	53501.45	3.4440	3.4440	-1.1621	26.47	0.50	-0.750			
0.8396	53737.57	3.4410	3.4410	-1.2242	26.48	0.51	-0.750			
0.8435	53981.97	3.4380	3.4380	-1.2772	26.49	0.52	-0.750			
0.8475	54240.43	3.4350	3.4349	-1.3100	26.50	0.53	-0.750			
0.8516	54499.64	3.4320	3.4320	-1.3007	26.51	0.54	-0.750			
0.8556	54756.13	3.4290	3.4290	-1.2910	26.51	0.54	-0.750			
0.8595	55004.92	3.4260	3.4260	-1.2495	26.52	0.55	-0.750			
0.8631	55238.09	3.4230	3.4231	-1.2015	26.53	0.56	-0.750			
0.8667	55467.77	3.4200	3.4200	-1.1606	26.54	0.57	-0.750			
0.8700	55683.01	3.4170	3.4169	-1.1087	26.55	0.58	-0.750			
0.8733	55889.53	3.4140	3.4140	-1.0636	26.56	0.59	-0.750			
0.8764	56090.87	3.4110	3.4111	-1.0337	26.56	0.59	-0.750			
0.8795	56285.26	3.4080	3.4078	-0.9924	26.57	0.60	-0.750			
0.8824	56473.77	3.4050	3.4050	-0.9567	26.58	0.61	-0.750			
0.8852	56651.13	3.4020	3.4020	-0.9194	26.59	0.62	-0.750			
0.8879	56826.93	3.3990	3.3990	-0.8900	26.59	0.62	-0.750			
0.8905	56993.62	3.3960	3.3959	-0.8580	26.60	0.63	-0.750			
0.8930	57153.38	3.3930	3.3930	-0.8183	26.60	0.63	-0.750			
0.8954	57306.59	3.3900	3.3900	-0.7825	26.61	0.64	-0.750			
0.8977	57455.61	3.3870	3.3869	-0.7529	26.62	0.65	-0.750			
0.8999	57596.06	3.3840	3.3841	-0.7203	26.62	0.65	-0.750			
0.9020	57729.48	3.3810	3.3809	-0.6911	26.63	0.66	-0.750			
0.9041	57859.58	3.3780	3.3780	-0.6650	26.63	0.66	-0.750			
0.9060	57983.14	3.3750	3.3750	-0.6391	26.64	0.67	-0.750			
0.9079	58105.96	3.3720	3.3720	-0.6206	26.64	0.67	-0.750			
0.9097	58222.34	3.3690	3.3691	-0.5950	26.64	0.67	-0.750			
0.9115	58334.88	3.3660	3.3659	-0.5696	26.65	0.68	-0.750			
0.9131	58441.46	3.3630	3.3631	-0.5450	26.66	0.69	-0.750			
0.9147	58542.63	3.3600	3.3599	-0.5189	26.66	0.69	-0.750			
0.9162	58639.77	3.3570	3.3571	-0.4983	26.67	0.70	-0.750			
0.9177	58732.98	3.3540	3.3540	-0.4751	26.67	0.70	-0.750			
0.9191	58822.09	3.3510	3.3510	-0.4559	26.68	0.71	-0.750			
0.9204	58907.52	3.3480	3.3480	-0.4368	26.68	0.71	-0.750			
0.9217	58989.69	3.3450	3.3451	-0.4179	26.69	0.72	-0.750			
0.9229	59067.20	3.3420	3.3420	-0.3981	26.69	0.72	-0.750			
0.9241	59141.89	3.3390	3.3390	-0.3801	26.70	0.73	-0.750			
0.9252	59212.49	3.3360	3.3361	-0.3632	26.70	0.73	-0.750			
0.9263	59280.86	3.3330	3.3329	-0.3470	26.71	0.74	-0.750			
0.9273	59345.48	3.3300	3.3301	-0.3298	26.71	0.74	-0.750			
0.9282	59406.77	3.3270	3.3270	-0.3152	26.72	0.75	-0.750			
0.9292	59466.12	3.3240	3.3242	-0.3014	26.72	0.75	-0.750			
0.9300	59522.44	3.3210	3.3208	-0.2876	26.73	0.76	-0.750			
0.9309	59575.57	3.3180	3.3181	-0.2754	26.73	0.76	-0.750			
0.9317	59627.10	3.3150	3.3151	-0.2643	26.73	0.76	-0.750			
0.9325	59676.89	3.3120	3.3118	-0.2550	26.74	0.77	-0.750			
0.9332	59724.91	3.3090	3.3090	-0.2445	26.74	0.77	-0.750			
0.9339	59769.84	3.3060	3.3061	-0.2340	26.75	0.78	-0.750			
0.9346	59814.38	3.3030	3.3030	-0.2269	26.75	0.78	-0.750			
0.9353	59857.04	3.3000	3.3000	-0.2177	26.75	0.78	-0.750			
0.9359	59897.48	3.2970	3.2970	-0.2089	26.76	0.79	-0.750			
0.9365	59936.89	3.2940	3.2941	-0.2016	26.76	0.79	-0.750			
0.9371	59974.77	3.2910	3.2910	-0.1948	26.76	0.79	-0.750			
0.9377	60011.17	3.2880	3.2880	-0.1881	26.77	0.80	-0.750			
0.9382	60046.64	3.2850	3.2850	-0.1824	26.77	0.80	-0.750			
0.9388	60080.86	3.2820	3.2820	-0.1764	26.77	0.80	-0.750			
0.9393	60114.13	3.2790	3.2790	-0.1706	26.78	0.81	-0.750			
0.9398	60146.58	3.2760	3.2759	-0.1656	26.78	0.81	-0.750			
0.9403	60177.67	3.2730	3.2730	-0.1596	26.78	0.81	-0.750			
0.9407	60207.64	3.2700	3.2701	-0.1554	26.79	0.82	-0.750			
0.9412	60236.74	3.2670	3.2670	-0.1515	26.79	0.82	-0.750			
0.9416	60265.27	3.2640	3.2638	-0.1472	26.79	0.82	-0.750			
0.9421	60293.10	3.2610	3.2610	-0.1436	26.80	0.83	-0.750			
0.9425	60320.33	3.2580	3.2580	-0.1408	26.80	0.83	-0.750			
0.9429	60347.12	3.2550	3.2551	-0.1381	26.80	0.83	-0.750			
0.9433	60373.36	3.2520	3.2519	-0.1352	26.81	0.84	-0.750			
0.9437	60399.03	3.2490	3.2489	-0.1322	26.81	0.84	-0.750			
0.9441	60424.08	3.2460	3.2461	-0.1288	26.81	0.84	-0.750			
0.9445	60448.55	3.2430	3.2430	-0.1258	26.81	0.84	-0.750			
0.9449	60472.46	3.2400	3.2401	-0.1235	26.82	0.85	-0.750			
0.9452	60495.89	3.2370	3.2370	-0.1205	26.82	0.85	-0.750			
0.9456	60518.26	3.2340	3.2340	-0.1183	26.82	0.85	-0.750			
0.9459	60540.53	3.2310	3.2310	-0.1161	26.83	0.86	-0.750			
0.9463	60562.72	3.2280	3.2279	-0.1145	26.83	0.86	-0.750			
0.9466	60584.39	3.2250	3.2250	-0.1128	26.83	0.86	-0.750			
0.9470	60606.08	3.2220	3.2220	-0.1105	26.83	0.86	-0.750			
0.9473	60627.44	3.2190	3.2190	-0.1088	26.84	0.87	-0.750			
0.9476	60648.04	3.2160	3.2161	-0.1068	26.84	0.87	-0.750			
0.9479	60668.42	3.2130	3.2130	-0.1047	26.84	0.87	-0.750			
0.9483	60688.12	3.2100	3.2099	-0.1032	26.84	0.87	-0.750			
0.9486	60707.45	3.2070	3.2071	-0.1010	26.84	0.87	-0.750			
0.9489	60726.73	3.2040	3.2039	-0.0996	26.85	0.88	-0.750			
0.9491	60745.54	3.2010	3.2011	-0.0980	26.85	0.88	-0.750			
0.9494	60764.38	3.1980	3.1980	-0.0962	26.85	0.88	-0.750			
0.9497	60782.92	3.1950	3.1950	-0.0949	26.85	0.88	-0.750			
0.9500	60800.76	3.1920	3.1921	-0.0938	26.86	0.89	-0.750			
0.9503	60818.57	3.1890	3.1891	-0.0924	26.86	0.89	-0.750			
0.9506	60836.14	3.1860	3.1859	-0.0912	26.86	0.89	-0.750			
0.9508	60853.30	3.1830	3.1829	-0.0898	26.87	0.90	-0.750			
0.9511	60870.53	3.1800	3.1800	-0.0888	26.87	0.90	-0.750			
0.9514	60887.49	3.1770	3.1770	-0.0879	26.87	0.90	-0.750			
0.9516	60904.28	3.1740	3.1742	-0.0869	26.87	0.90	-0.750			
0.9519	60921.11	3.1710	3.1710	-0.0861	26.88	0.91	-0.750			
0.9521	60937.51	3.1680	3.1679	-0.0848	26.88	0.91	-0.750			
0.9524	60953.51	3.1650	3.1649	-0.0833	26.88	0.91	-0.750			
