Ah_balance (normalized)	Ah_balance (mAh)	Voltage - fit (V)	Voltage -  interpolate (V)	dQ/dV (1/V)	Temperature (°C)	Temperature - diff (°C)	Current (C)	R_DC 0ms (mOhm)	R_DC 50ms (mOhm)	R_DC 50 ms PEC (mOhm)
0.0491	3144.26	4.1990	4.1989	0.7780	26.17	0.24	0.750			
0.0515	3294.44	4.1960	4.1960	0.7801	26.17	0.24	0.750			
0.0538	3443.02	4.1930	4.1930	0.7769	26.17	0.24	0.750			
0.0561	3592.14	4.1900	4.1900	0.7747	26.18	0.25	0.750			
0.0584	3740.28	4.1870	4.1870	0.7756	26.18	0.25	0.750			
0.0608	3889.01	4.1840	4.1842	0.7737	26.18	0.25	0.750			
0.0631	4037.59	4.1810	4.1810	0.7739	26.18	0.25	0.750			
0.0654	4185.78	4.1780	4.1780	0.7746	26.18	0.25	0.750			
0.0677	4334.87	4.1750	4.1750	0.7744	26.18	0.25	0.750			
0.0700	4481.75	4.1720	4.1720	0.7758	26.18	0.25	0.750			
0.0724	4632.14	4.1690	4.1690	0.7802	26.18	0.25	0.750			
0.0747	4782.00	4.1660	4.1659	0.7819	26.18	0.25	0.750			
0.0771	4933.51	4.1630	4.1630	0.7837	26.18	0.25	0.750			
0.0795	5085.73	4.1600	4.1600	0.7744	26.18	0.25	0.750			
0.0818	5232.03	4.1570	4.1571	0.7837	26.17	0.24	0.750			
0.0841	5383.03	4.1540	4.1540	0.7853	26.17	0.24	0.750			
0.0864	5532.57	4.1510	4.1509	0.7822	26.17	0.24	0.750			
0.0888	5682.58	4.1480	4.1481	0.7903	26.17	0.24	0.750			
0.0912	5835.87	4.1450	4.1452	0.7893	26.18	0.25	0.750			
0.0936	5987.82	4.1420	4.1419	0.7924	26.18	0.25	0.750			
0.0960	6141.57	4.1390	4.1390	0.7957	26.18	0.25	0.750			
0.0983	6290.51	4.1360	4.1359	0.7910	26.19	0.26	0.750			
0.1007	6444.59	4.1330	4.1331	0.7966	26.19	0.26	0.750			
0.1031	6597.92	4.1300	4.1300	0.7968	26.19	0.26	0.750			
0.1055	6750.35	4.1270	4.1270	0.7896	26.19	0.26	0.750			
0.1078	6901.92	4.1240	4.1241	0.7977	26.19	0.26	0.750			
0.1102	7053.01	4.1210	4.1210	0.7979	26.19	0.26	0.750			
0.1126	7205.28	4.1180	4.1177	0.8028	26.19	0.26	0.750			
0.1150	7360.35	4.1150	4.1151	0.8093	26.19	0.26	0.750			
0.1175	7517.35	4.1120	4.1121	0.8077	26.19	0.26	0.750			
0.1199	7674.30	4.1090	4.1090	0.8179	26.19	0.26	0.750			
0.1224	7830.79	4.1060	4.1061	0.8161	26.19	0.26	0.750			
0.1248	7988.06	4.1030	4.1027	0.8175	26.19	0.26	0.750			
0.1273	8145.89	4.1000	4.1001	0.8177	26.19	0.26	0.750			
0.1297	8302.87	4.0970	4.0971	0.8157	26.20	0.27	0.750			
0.1322	8459.26	4.0940	4.0941	0.8224	26.20	0.27	0.750			
0.1346	8615.95	4.0910	4.0910	0.8185	26.21	0.28	0.750			
0.1371	8772.88	4.0880	4.0878	0.8205	26.21	0.28	0.750			
0.1396	8931.53	4.0850	4.0851	0.8260	26.21	0.28	0.750			
0.1421	9091.62	4.0820	4.0821	0.8245	26.21	0.28	0.750			
0.1445	9251.05	4.0790	4.0790	0.8298	26.21	0.28	0.750			
0.1470	9407.85	4.0760	4.0761	0.8275	26.21	0.28	0.750			
0.1495	9566.55	4.0730	4.0727	0.8335	26.21	0.28	0.750			
0.1520	9726.92	4.0700	4.0700	0.8414	26.21	0.28	0.750			
0.1545	9889.63	4.0670	4.0670	0.8443	26.21	0.28	0.750			
0.1571	10053.28	4.0640	4.0640	0.8517	26.21	0.28	0.750			
0.1596	10217.12	4.0610	4.0611	0.8477	26.21	0.28	0.750			
0.1622	10380.82	4.0580	4.0578	0.8519	26.21	0.28	0.750			
0.1647	10543.84	4.0550	4.0550	0.8531	26.21	0.28	0.750			
0.1673	10708.08	4.0520	4.0520	0.8557	26.21	0.28	0.750			
0.1699	10872.32	4.0490	4.0489	0.8591	26.22	0.29	0.750			
0.1725	11037.05	4.0460	4.0461	0.8593	26.22	0.29	0.750			
0.1751	11203.24	4.0430	4.0428	0.8660	26.22	0.29	0.750			
0.1777	11371.69	4.0400	4.0399	0.8671	26.22	0.29	0.750			
0.1803	11537.54	4.0370	4.0370	0.8682	26.22	0.29	0.750			
0.1829	11703.67	4.0340	4.0340	0.8710	26.22	0.29	0.750			
0.1855	11868.92	4.0310	4.0310	0.8675	26.22	0.29	0.750			
0.1881	12038.35	4.0280	4.0281	0.8736	26.22	0.29	0.750			
0.1907	12206.88	4.0250	4.0250	0.8732	26.22	0.29	0.750			
0.1933	12373.65	4.0220	4.0221	0.8824	26.22	0.29	0.750			
0.1960	12544.82	4.0190	4.0190	0.8862	26.23	0.30	0.750			
0.1986	12713.59	4.0160	4.0159	0.8900	26.23	0.30	0.750			
0.2013	12885.12	4.0130	4.0130	0.8998	26.23	0.30	0.750			
0.2041	13060.09	4.0100	4.0100	0.9012	26.23	0.30	0.750			
0.2068	13234.66	4.0070	4.0070	0.8999	26.24	0.31	0.750			
0.2095	13408.19	4.0040	4.0041	0.9037	26.24	0.31	0.750			
0.2122	13579.66	4.0010	4.0009	0.9011	26.24	0.31	0.750			
0.2149	13756.03	3.9980	3.9979	0.8993	26.24	0.31	0.750			
0.2176	13924.45	3.9950	3.9950	0.9059	26.24	0.31	0.750			
0.2203	14097.73	3.9920	3.9921	0.9100	26.25	0.32	0.750			
0.2230	14275.09	3.9890	3.9891	0.9147	26.25	0.32	0.750			
0.2258	14451.42	3.9860	3.9858	0.9184	26.25	0.32	0.750			
0.2286	14627.75	3.9830	3.9832	0.9117	26.25	0.32	0.750			
0.2313	14803.23	3.9800	3.9800	0.9129	26.25	0.32	0.750			
0.2340	14978.39	3.9770	3.9771	0.9137	26.25	0.32	0.750			
0.2367	15151.28	3.9740	3.9739	0.9096	26.25	0.32	0.750			
0.2395	15327.74	3.9710	3.9710	0.9161	26.25	0.32	0.750			
0.2423	15504.24	3.9680	3.9680	0.9213	26.25	0.32	0.750			
0.2450	15680.94	3.9650	3.9650	0.9275	26.26	0.33	0.750			
0.2478	15860.40	3.9620	3.9620	0.9366	26.26	0.33	0.750			
0.2506	16038.51	3.9590	3.9590	0.9404	26.26	0.33	0.750			
0.2534	16220.70	3.9560	3.9560	0.9410	26.26	0.33	0.750			
0.2563	16401.88	3.9530	3.9530	0.9454	26.27	0.34	0.750			
0.2591	16584.32	3.9500	3.9501	0.9489	26.27	0.34	0.750			
0.2620	16766.77	3.9470	3.9468	0.9513	26.27	0.34	0.750			
0.2648	16949.95	3.9440	3.9440	0.9479	26.27	0.34	0.750			
0.2677	17131.41	3.9410	3.9410	0.9523	26.27	0.34	0.750			
0.2706	17315.53	3.9380	3.9380	0.9520	26.27	0.34	0.750			
0.2734	17497.79	3.9350	3.9350	0.9504	26.27	0.34	0.750			
0.2763	17681.04	3.9320	3.9320	0.9507	26.27	0.34	0.750			
0.2791	17862.78	3.9290	3.9290	0.9526	26.27	0.34	0.750			
0.2820	18045.67	3.9260	3.9260	0.9546	26.27	0.34	0.750			
0.2848	18229.55	3.9230	3.9230	0.9601	26.27	0.34	0.750			
0.2877	18412.89	3.9200	3.9200	0.9606	26.27	0.34	0.750			
0.2906	18599.35	3.9170	3.9170	0.9630	26.28	0.35	0.750			
0.2935	18782.93	3.9140	3.9140	0.9663	26.28	0.35	0.750			
0.2964	18967.63	3.9110	3.9111	0.9791	26.28	0.35	0.750			
0.2993	19156.83	3.9080	3.9078	0.9812	26.29	0.36	0.750			
0.3023	19348.37	3.9050	3.9050	0.9782	26.29	0.36	0.750			
0.3052	19535.09	3.9020	3.9021	0.9876	26.29	0.36	0.750			
0.3082	19726.98	3.8990	3.8991	0.9911	26.29	0.36	0.750			
0.3112	19916.54	3.8960	3.8959	0.9862	26.29	0.36	0.750			
0.3142	20106.65	3.8930	3.8931	0.9832	26.29	0.36	0.750			
0.3170	20291.15	3.8900	3.8901	0.9905	26.29	0.36	0.750			
0.3201	20485.30	3.8870	3.8870	0.9983	26.29	0.36	0.750			
0.3231	20678.97	3.8840	3.8839	1.0031	26.29	0.36	0.750			
0.3261	20868.82	3.8810	3.8811	1.0029	26.29	0.36	0.750			
0.3291	21063.44	3.8780	3.8780	1.0151	26.29	0.36	0.750			
0.3322	21259.16	3.8750	3.8749	1.0234	26.29	0.36	0.750			
0.3353	21457.04	3.8720	3.8720	1.0275	26.29	0.36	0.750			
0.3384	21655.44	3.8690	3.8690	1.0150	26.29	0.36	0.750			
0.3414	21852.45	3.8660	3.8661	1.0229	26.29	0.36	0.750			
0.3445	22046.48	3.8630	3.8631	1.0342	26.29	0.36	0.750			
0.3476	22244.97	3.8600	3.8600	1.0378	26.29	0.36	0.750			
0.3507	22443.83	3.8570	3.8568	1.0394	26.29	0.36	0.750			
0.3538	22643.47	3.8540	3.8541	1.0532	26.28	0.35	0.750			
0.3570	22847.83	3.8510	3.8512	1.0711	26.28	0.35	0.750			
0.3602	23055.06	3.8480	3.8481	1.0894	26.27	0.34	0.750			
0.3635	23265.63	3.8450	3.8449	1.0874	26.27	0.34	0.750			
0.3668	23474.75	3.8420	3.8420	1.1042	26.27	0.34	0.750			
0.3701	23689.39	3.8390	3.8391	1.1230	26.26	0.33	0.750			
0.3735	23905.87	3.8360	3.8360	1.1350	26.26	0.33	0.750			
0.3769	24124.31	3.8330	3.8330	1.1418	26.26	0.33	0.750			
0.3804	24342.87	3.8300	3.8300	1.1559	26.25	0.32	0.750			
0.3839	24567.00	3.8270	3.8271	1.1704	26.25	0.32	0.750			
0.3874	24794.56	3.8240	3.8238	1.1953	26.24	0.31	0.750			
0.3909	25019.92	3.8210	3.8211	1.2022	26.23	0.30	0.750			
0.3946	25253.46	3.8180	3.8181	1.2239	26.22	0.29	0.750			
0.3983	25493.15	3.8150	3.8148	1.2335	26.21	0.28	0.750			
0.4020	25730.65	3.8120	3.8122	1.2458	26.21	0.28	0.750			
0.4058	25971.83	3.8090	3.8092	1.2585	26.20	0.27	0.750			
0.4096	26215.96	3.8060	3.8060	1.2704	26.19	0.26	0.750			
0.4135	26462.27	3.8030	3.8030	1.2794	26.19	0.26	0.750			
0.4172	26700.10	3.8000	3.8001	1.2842	26.17	0.24	0.750			
0.4211	26947.70	3.7970	3.7971	1.3105	26.16	0.23	0.750			
0.4251	27204.55	3.7940	3.7936	1.3144	26.15	0.22	0.750			
0.4290	27456.14	3.7910	3.7911	1.3279	26.14	0.21	0.750			
0.4330	27714.47	3.7880	3.7882	1.3413	26.12	0.19	0.750			
0.4371	27976.08	3.7850	3.7847	1.3456	26.11	0.18	0.750			
0.4411	28231.85	3.7820	3.7821	1.3429	26.10	0.17	0.750			
0.4452	28490.12	3.7790	3.7791	1.3544	26.10	0.17	0.750			
0.4492	28749.21	3.7760	3.7758	1.3687	26.09	0.16	0.750			
0.4533	29013.38	3.7730	3.7731	1.3803	26.08	0.15	0.750			
0.4575	29277.96	3.7700	3.7700	1.3992	26.07	0.14	0.750			
0.4617	29549.30	3.7670	3.7669	1.4330	26.05	0.12	0.750			
0.4660	29824.89	3.7640	3.7641	1.4574	26.04	0.11	0.750			
0.4705	30110.55	3.7610	3.7609	1.4858	26.03	0.10	0.750			
0.4750	30398.49	3.7580	3.7580	1.5144	26.02	0.09	0.750	0.330	0.403	
0.4795	30691.03	3.7550	3.7551	1.5335	26.01	0.08	0.750			
0.4842	30986.77	3.7520	3.7521	1.5705	26.00	0.07	0.750			
0.4889	31291.17	3.7490	3.7488	1.5972	25.98	0.05	0.750			
0.4937	31598.37	3.7460	3.7456	1.6378	25.97	0.04	0.750			
0.4987	31919.03	3.7430	3.7430	1.6722	25.95	0.02	0.750			
0.5039	32246.60	3.7400	3.7401	1.7103	25.94	0.01	0.750			
0.5090	32578.70	3.7370	3.7372	1.7435	25.94	0.01	0.750			
0.5143	32912.45	3.7340	3.7340	1.7712	25.92	-0.01	0.750			
0.5197	33257.61	3.7310	3.7310	1.8261	25.91	-0.02	0.750			
0.5251	33606.74	3.7280	3.7278	1.8854	25.89	-0.04	0.750			
0.5308	33973.46	3.7250	3.7247	1.9418	25.87	-0.06	0.750			
0.5369	34359.82	3.7220	3.7220	2.0005	25.85	-0.08	0.750			
0.5429	34744.36	3.7190	3.7190	2.0735	25.84	-0.09	0.750			
0.5492	35148.73	3.7160	3.7160	2.1173	25.82	-0.11	0.750			
0.5557	35561.60	3.7130	3.7128	2.1669	25.81	-0.12	0.750			
0.5624	35990.43	3.7100	3.7102	2.2481	25.79	-0.14	0.750			
0.5691	36423.59	3.7070	3.7070	2.2985	25.78	-0.15	0.750			
0.5762	36875.60	3.7040	3.7039	2.3667	25.77	-0.16	0.750			
0.5832	37327.41	3.7010	3.7011	2.4405	25.74	-0.19	0.750			
0.5907	37805.28	3.6980	3.6978	2.5269	25.72	-0.21	0.750			
0.5985	38302.72	3.6950	3.6949	2.6092	25.70	-0.23	0.750			
0.6064	38812.71	3.6920	3.6920	2.6700	25.69	-0.24	0.750			
0.6146	39334.63	3.6890	3.6889	2.7515	25.68	-0.25	0.750			
0.6229	39864.10	3.6860	3.6860	2.8342	25.66	-0.27	0.750			
0.6314	40408.72	3.6830	3.6829	2.8588	25.65	-0.28	0.750			
0.6402	40969.70	3.6800	3.6802	2.9899	25.64	-0.29	0.750			
0.6491	41544.97	3.6770	3.6769	3.1245	25.62	-0.31	0.750			
0.6588	42162.57	3.6740	3.6739	3.2363	25.61	-0.32	0.750			
0.6688	42802.49	3.6710	3.6711	3.2927	25.59	-0.34	0.750			
0.6792	43466.93	3.6680	3.6681	3.3364	25.58	-0.35	0.750			
0.6890	44096.49	3.6650	3.6649	3.2642	25.58	-0.35	0.750			
0.6988	44726.38	3.6620	3.6622	3.1218	25.58	-0.35	0.750			
0.7083	45332.34	3.6590	3.6591	2.9410	25.58	-0.35	0.750			
0.7165	45858.88	3.6560	3.6561	2.6066	25.58	-0.35	0.750			
0.7236	46310.85	3.6530	3.6532	2.3066	25.59	-0.34	0.750			
0.7302	46731.25	3.6500	3.6497	2.0566	25.59	-0.34	0.750			
0.7356	47078.88	3.6470	3.6470	1.8253	25.60	-0.33	0.750			
0.7406	47399.12	3.6440	3.6439	1.6545	25.60	-0.33	0.750			
0.7453	47699.87	3.6410	3.6412	1.5301	25.61	-0.32	0.750			
0.7497	47983.56	3.6380	3.6377	1.4145	25.61	-0.32	0.750			
0.7536	48233.47	3.6350	3.6351	1.3292	25.61	-0.32	0.750			
0.7575	48477.71	3.6320	3.6320	1.2776	25.61	-0.32	0.750			
0.7611	48710.59	3.6290	3.6289	1.2296	25.61	-0.32	0.750			
0.7647	48943.42	3.6260	3.6260	1.2252	25.61	-0.32	0.750			
0.7683	49171.50	3.6230	3.6231	1.2206	25.61	-0.32	0.750			
0.7720	49405.42	3.6200	3.6200	1.2326	25.62	-0.31	0.750			
0.7757	49643.73	3.6170	3.6171	1.2247	25.62	-0.31	0.750			
0.7794	49880.73	3.6140	3.6140	1.2297	25.62	-0.31	0.750			
0.7831	50119.75	3.6110	3.6111	1.2297	25.62	-0.31	0.750			
0.7869	50359.91	3.6080	3.6078	1.2127	25.62	-0.31	0.750			
0.7905	50590.07	3.6050	3.6051	1.1929	25.63	-0.30	0.750			
0.7940	50814.56	3.6020	3.6021	1.1862	25.63	-0.30	0.750			
0.7975	51037.54	3.5990	3.5991	1.1803	25.64	-0.29	0.750			
0.8010	51261.83	3.5960	3.5961	1.1831	25.64	-0.29	0.750			
0.8045	51487.89	3.5930	3.5930	1.2019	25.64	-0.29	0.750			
0.8081	51718.69	3.5900	3.5901	1.2280	25.64	-0.29	0.750			
0.8119	51961.87	3.5870	3.5867	1.2380	25.64	-0.29	0.750			
0.8156	52199.89	3.5840	3.5841	1.2815	25.64	-0.29	0.750			
0.8194	52442.84	3.5810	3.5812	1.3298	25.65	-0.28	0.750			
0.8235	52700.89	3.5780	3.5779	1.3791	25.65	-0.28	0.750			
0.8276	52968.74	3.5750	3.5751	1.4456	25.65	-0.28	0.750			
0.8321	53256.30	3.5720	3.5718	1.4898	25.66	-0.27	0.750			
0.8368	53555.52	3.5690	3.5689	1.5315	25.66	-0.27	0.750			
0.8416	53861.39	3.5660	3.5659	1.5790	25.66	-0.27	0.750			
0.8463	54166.37	3.5630	3.5631	1.5737	25.66	-0.27	0.750			
0.8510	54466.65	3.5600	3.5602	1.5786	25.66	-0.27	0.750			
0.8558	54769.98	3.5570	3.5570	1.5873	25.66	-0.27	0.750			
0.8605	55072.29	3.5540	3.5541	1.5801	25.67	-0.26	0.750			
0.8653	55379.99	3.5510	3.5508	1.5876	25.67	-0.26	0.750			
0.8700	55682.61	3.5480	3.5483	1.6080	25.67	-0.26	0.750			
0.8749	55993.20	3.5450	3.5448	1.6319	25.67	-0.26	0.750			
0.8798	56310.23	3.5420	3.5420	1.6615	25.68	-0.25	0.750			
0.8848	56629.18	3.5390	3.5392	1.7113	25.69	-0.24	0.750			
0.8900	56962.43	3.5360	3.5361	1.7533	25.70	-0.23	0.750			
0.8956	57316.85	3.5330	3.5328	1.7407	25.71	-0.22	0.750			
0.9012	57673.90	3.5300	3.5297	1.6215	25.73	-0.20	0.750			
0.9063	58002.14	3.5270	3.5273	1.4459	25.75	-0.18	0.750			
0.9104	58266.01	3.5240	3.5247	1.1949	25.76	-0.17	0.750			
0.9138	58484.06	3.5210	3.5209	0.9335	25.78	-0.15	0.750			
0.9157	58603.19	3.5180	3.5178	0.6821	25.79	-0.14	0.750			
0.9172	58700.64	3.5150	3.5146	0.5185	25.80	-0.13	0.750			
0.9183	58768.04	3.5120	3.5118	0.4245	25.81	-0.12	0.750			
0.9193	58835.49	3.5090	3.5089	0.3661	25.81	-0.12	0.750			
0.9203	58900.38	3.5060	3.5059	0.3387	25.82	-0.11	0.750			
0.9213	58961.97	3.5030	3.5031	0.3204	25.83	-0.10	0.750			
0.9222	59021.16	3.5000	3.5000	0.3063	25.83	-0.10	0.750			
0.9231	59078.15	3.4970	3.4969	0.2948	25.84	-0.09	0.750			
0.9240	59133.06	3.4940	3.4940	0.2869	25.84	-0.09	0.750			
0.9248	59186.77	3.4910	3.4908	0.2794	25.85	-0.08	0.750			
0.9256	59239.94	3.4880	3.4880	0.2738	25.86	-0.07	0.750			
0.9264	59292.02	3.4850	3.4852	0.2685	25.86	-0.07	0.750			
0.9272	59342.56	3.4820	3.4820	0.2627	25.87	-0.06	0.750			
0.9280	59392.99	3.4790	3.4790	0.2586	25.87	-0.06	0.750			
0.9288	59442.03	3.4760	3.4759	0.2531	25.88	-0.05	0.750			
0.9295	59489.67	3.4730	3.4730	0.2498	25.88	-0.05	0.750			
0.9303	59537.65	3.4700	3.4700	0.2459	25.89	-0.04	0.750			
0.9310	59584.72	3.4670	3.4669	0.2408	25.89	-0.04	0.750			
0.9317	59630.43	3.4640	3.4640	0.2362	25.89	-0.04	0.750			
0.9324	59675.27	3.4610	3.4611	0.2318	25.90	-0.03	0.750			
0.9331	59719.32	3.4580	3.4579	0.2271	25.90	-0.03	0.750			
0.9338	59762.43	3.4550	3.4549	0.2225	25.91	-0.02	0.750			
0.9344	59804.18	3.4520	3.4520	0.2173	25.91	-0.02	0.750			
0.9351	59845.93	3.4490	3.4491	0.2146	25.92	-0.01	0.750			
0.9357	59886.69	3.4460	3.4460	0.2109	25.92	-0.01	0.750			
0.9364	59927.14	3.4430	3.4430	0.2061	25.92	-0.01	0.750			
0.9370	59966.22	3.4400	3.4401	0.2013	25.93	-0.00	0.750			
0.9376	60004.53	3.4370	3.4370	0.1967	25.93	0.00	0.750			
0.9381	60041.58	3.4340	3.4340	0.1936	25.94	0.01	0.750			
0.9387	60078.35	3.4310	3.4309	0.1897	25.94	0.01	0.750			
0.9393	60114.33	3.4280	3.4279	0.1853	25.94	0.01	0.750			
0.9398	60149.56	3.4250	3.4250	0.1816	25.95	0.02	0.750			
0.9404	60183.95	3.4220	3.4221	0.1781	25.95	0.02	0.750			
0.9409	60218.46	3.4190	3.4190	0.1740	25.95	0.02	0.750			
0.9414	60251.69	3.4160	3.4158	0.1690	25.96	0.03	0.750			
0.9419	60283.58	3.4130	3.4130	0.1632	25.96	0.03	0.750			
0.9424	60314.07	3.4100	3.4102	0.1585	25.96	0.03	0.750			
0.9429	60344.12	3.4070	3.4070	0.1541	25.97	0.04	0.750			
0.9433	60373.15	3.4040	3.4039	0.1492	25.97	0.04	0.750			
0.9438	60401.36	3.4010	3.4010	0.1446	25.97	0.04	0.750			
0.9442	60428.44	3.3980	3.3980	0.1395	25.97	0.04	0.750			
0.9446	60455.22	3.3950	3.3950	0.1350	25.98	0.05	0.750			
0.9450	60480.90	3.3920	3.3921	0.1301	25.98	0.05	0.750			
0.9454	60505.38	3.3890	3.3889	0.1239	25.98	0.05	0.750			
0.9458	60528.52	3.3860	3.3860	0.1178	25.98	0.05	0.750			
0.9461	60550.78	3.3830	3.3830	0.1117	25.99	0.06	0.750			
0.9464	60571.69	3.3800	3.3801	0.1053	25.99	0.06	0.750			
0.9468	60592.54	3.3770	3.3768	0.0959	25.99	0.06	0.750			
0.9470	60610.49	3.3740	3.3739	0.0881	25.99	0.06	0.750			
0.9473	60627.02	3.3710	3.3710	0.0801	25.99	0.06	0.750			
0.9475	60641.41	3.3680	3.3683	0.0698	26.00	0.07	0.750			
0.9477	60655.05	3.3650	3.3653	0.0607	26.00	0.07	0.750			
0.9479	60665.58	3.3620	3.3624	0.0490	26.00	0.07	0.750			
0.9480	60673.86	3.3590	3.3601	0.0373	26.00	0.07	0.750			
0.9481	60679.88	3.3560	3.3579	0.0255	26.00	0.07	0.750			
0.9482	60683.66	3.3530	3.3559	0.0138	26.00	0.07	0.750			
