Ah_balance (normalized)	Ah_balance (mAh)	Voltage - fit (V)	Voltage -  interpolate (V)	dQ/dV (1/V)	Temperature (°C)	Temperature - diff (°C)	Current (C)	R_DC 0ms (mOhm)	R_DC 50ms (mOhm)	R_DC 50 ms PEC (mOhm)
0.0003	19.91	4.1590	4.1592	-0.1314	25.98	0.01	-0.750			
0.0008	51.22	4.1560	4.1558	-0.1756	25.98	0.01	-0.750			
0.0014	86.98	4.1530	4.1530	-0.2090	25.97	0.00	-0.750			
0.0021	131.40	4.1500	4.1501	-0.2417	25.97	0.00	-0.750			
0.0028	180.54	4.1470	4.1471	-0.2769	25.97	-0.00	-0.750			
0.0037	237.40	4.1440	4.1440	-0.3102	25.97	-0.00	-0.750			
0.0047	300.42	4.1410	4.1409	-0.3400	25.96	-0.01	-0.750			
0.0058	368.46	4.1380	4.1380	-0.3658	25.96	-0.01	-0.750			
0.0069	441.14	4.1350	4.1352	-0.3970	25.96	-0.01	-0.750			
0.0081	519.53	4.1320	4.1322	-0.4259	25.95	-0.02	-0.750			
0.0094	603.24	4.1290	4.1282	-0.4650	25.95	-0.02	-0.750			
0.0109	695.87	4.1260	4.1262	-0.4927	25.94	-0.03	-0.750			
0.0124	795.65	4.1230	4.1231	-0.5233	25.94	-0.03	-0.750			
0.0141	903.34	4.1200	4.1198	-0.5490	25.93	-0.04	-0.750			
0.0158	1012.94	4.1170	4.1171	-0.5606	25.93	-0.04	-0.750			
0.0175	1118.47	4.1140	4.1140	-0.5688	25.92	-0.05	-0.750			
0.0192	1228.68	4.1110	4.1109	-0.5759	25.92	-0.05	-0.750			
0.0209	1337.47	4.1080	4.1081	-0.5813	25.92	-0.05	-0.750			
0.0227	1452.00	4.1050	4.1050	-0.5956	25.91	-0.06	-0.750			
0.0245	1568.57	4.1020	4.1021	-0.6037	25.91	-0.06	-0.750			
0.0263	1685.53	4.0990	4.0989	-0.6128	25.90	-0.07	-0.750			
0.0282	1804.91	4.0960	4.0960	-0.6203	25.90	-0.07	-0.750			
0.0301	1923.38	4.0930	4.0931	-0.6277	25.90	-0.07	-0.750			
0.0320	2045.17	4.0900	4.0900	-0.6363	25.90	-0.07	-0.750			
0.0339	2167.03	4.0870	4.0870	-0.6454	25.89	-0.08	-0.750			
0.0358	2293.94	4.0840	4.0840	-0.6533	25.89	-0.08	-0.750			
0.0378	2421.27	4.0810	4.0809	-0.6618	25.89	-0.08	-0.750			
0.0398	2548.79	4.0780	4.0783	-0.6609	25.89	-0.08	-0.750			
0.0418	2676.13	4.0750	4.0750	-0.6653	25.89	-0.08	-0.750			
0.0438	2802.68	4.0720	4.0720	-0.6653	25.89	-0.08	-0.750			
0.0458	2930.10	4.0690	4.0690	-0.6662	25.89	-0.08	-0.750			
0.0478	3059.36	4.0660	4.0659	-0.6722	25.89	-0.08	-0.750			
0.0498	3188.41	4.0630	4.0631	-0.6736	25.89	-0.08	-0.750			
0.0518	3317.49	4.0600	4.0600	-0.6791	25.89	-0.08	-0.750			
0.0539	3449.24	4.0570	4.0570	-0.6825	25.89	-0.08	-0.750			
0.0559	3579.72	4.0540	4.0539	-0.6864	25.89	-0.08	-0.750			
0.0580	3711.21	4.0510	4.0510	-0.6942	25.89	-0.08	-0.750			
0.0601	3846.44	4.0480	4.0480	-0.6987	25.88	-0.09	-0.750			
0.0622	3981.93	4.0450	4.0450	-0.6980	25.88	-0.09	-0.750			
0.0643	4116.88	4.0420	4.0421	-0.6989	25.88	-0.09	-0.750			
0.0664	4250.11	4.0390	4.0390	-0.6999	25.88	-0.09	-0.750			
0.0685	4384.75	4.0360	4.0360	-0.7013	25.88	-0.09	-0.750			
0.0706	4518.14	4.0330	4.0329	-0.7004	25.88	-0.09	-0.750			
0.0727	4650.86	4.0300	4.0300	-0.7021	25.89	-0.08	-0.750			
0.0748	4788.75	4.0270	4.0271	-0.7092	25.89	-0.08	-0.750			
0.0769	4924.71	4.0240	4.0239	-0.7132	25.89	-0.08	-0.750			
0.0791	5061.80	4.0210	4.0210	-0.7146	25.89	-0.08	-0.750			
0.0812	5199.51	4.0180	4.0181	-0.7158	25.89	-0.08	-0.750			
0.0834	5337.61	4.0150	4.0149	-0.7216	25.89	-0.08	-0.750			
0.0856	5476.69	4.0120	4.0120	-0.7236	25.89	-0.08	-0.750			
0.0877	5615.57	4.0090	4.0090	-0.7235	25.89	-0.08	-0.750			
0.0899	5754.80	4.0060	4.0062	-0.7257	25.89	-0.08	-0.750			
0.0921	5894.70	4.0030	4.0030	-0.7248	25.89	-0.08	-0.750			
0.0943	6033.42	4.0000	4.0000	-0.7302	25.90	-0.07	-0.750			
0.0965	6173.25	3.9970	3.9970	-0.7309	25.90	-0.07	-0.750			
0.0987	6315.51	3.9940	3.9940	-0.7324	25.90	-0.07	-0.750			
0.1009	6455.69	3.9910	3.9909	-0.7318	25.91	-0.06	-0.750			
0.1031	6596.71	3.9880	3.9881	-0.7337	25.91	-0.06	-0.750			
0.1053	6737.41	3.9850	3.9850	-0.7321	25.91	-0.06	-0.750			
0.1075	6876.96	3.9820	3.9819	-0.7420	25.91	-0.06	-0.750			
0.1097	7021.14	3.9790	3.9790	-0.7353	25.91	-0.06	-0.750			
0.1119	7163.76	3.9760	3.9759	-0.7423	25.91	-0.06	-0.750			
0.1142	7307.69	3.9730	3.9730	-0.7471	25.91	-0.06	-0.750			
0.1164	7448.89	3.9700	3.9699	-0.7487	25.91	-0.06	-0.750			
0.1186	7592.63	3.9670	3.9670	-0.7522	25.92	-0.05	-0.750			
0.1209	7736.35	3.9640	3.9639	-0.7543	25.92	-0.05	-0.750			
0.1231	7880.74	3.9610	3.9610	-0.7529	25.92	-0.05	-0.750			
0.1255	8031.26	3.9580	3.9581	-0.7666	25.93	-0.04	-0.750			
0.1278	8176.58	3.9550	3.9550	-0.7586	25.93	-0.04	-0.750			
0.1300	8322.13	3.9520	3.9520	-0.7605	25.93	-0.04	-0.750			
0.1323	8467.37	3.9490	3.9490	-0.7632	25.94	-0.03	-0.750			
0.1346	8614.26	3.9460	3.9461	-0.7654	25.94	-0.03	-0.750			
0.1369	8761.53	3.9430	3.9428	-0.7683	25.95	-0.02	-0.750			
0.1392	8909.65	3.9400	3.9400	-0.7717	25.95	-0.02	-0.750			
0.1415	9057.58	3.9370	3.9370	-0.7735	25.95	-0.02	-0.750			
0.1438	9206.33	3.9340	3.9340	-0.7774	25.95	-0.02	-0.750			
0.1462	9356.32	3.9310	3.9310	-0.7744	25.95	-0.02	-0.750			
0.1485	9506.01	3.9280	3.9280	-0.7731	25.95	-0.02	-0.750			
0.1509	9655.78	3.9250	3.9250	-0.7754	25.95	-0.02	-0.750			
0.1532	9803.64	3.9220	3.9222	-0.7734	25.95	-0.02	-0.750			
0.1555	9949.45	3.9190	3.9190	-0.7777	25.95	-0.02	-0.750			
0.1578	10098.94	3.9160	3.9160	-0.7826	25.96	-0.01	-0.750			
0.1602	10251.04	3.9130	3.9129	-0.7813	25.96	-0.01	-0.750			
0.1625	10402.56	3.9100	3.9100	-0.7843	25.97	-0.00	-0.750			
0.1649	10553.59	3.9070	3.9071	-0.7893	25.97	-0.00	-0.750			
0.1673	10704.17	3.9040	3.9040	-0.7880	25.98	0.01	-0.750			
0.1696	10854.45	3.9010	3.9008	-0.7922	25.98	0.01	-0.750			
0.1720	11006.87	3.8980	3.8979	-0.7942	25.99	0.02	-0.750			
0.1744	11160.82	3.8950	3.8951	-0.8009	25.99	0.02	-0.750			
0.1768	11316.13	3.8920	3.8921	-0.8061	26.00	0.03	-0.750			
0.1793	11473.01	3.8890	3.8889	-0.8022	26.00	0.03	-0.750			
0.1816	11625.35	3.8860	3.8860	-0.8012	26.00	0.03	-0.750			
0.1840	11777.89	3.8830	3.8830	-0.7985	26.01	0.04	-0.750			
0.1864	11930.94	3.8800	3.8799	-0.7936	26.01	0.04	-0.750			
0.1889	12086.56	3.8770	3.8769	-0.7873	26.01	0.04	-0.750			
0.1912	12234.64	3.8740	3.8741	-0.7850	26.01	0.04	-0.750			
0.1935	12382.58	3.8710	3.8711	-0.7940	26.02	0.05	-0.750			
0.1959	12536.32	3.8680	3.8678	-0.8009	26.02	0.05	-0.750			
0.1983	12688.35	3.8650	3.8649	-0.8012	26.02	0.05	-0.750			
0.2007	12845.36	3.8620	3.8622	-0.8084	26.03	0.06	-0.750			
0.2032	13005.13	3.8590	3.8590	-0.8107	26.03	0.06	-0.750			
0.2056	13161.40	3.8560	3.8560	-0.8064	26.04	0.07	-0.750			
0.2080	13312.32	3.8530	3.8530	-0.8057	26.04	0.07	-0.750			
0.2104	13468.35	3.8500	3.8499	-0.8019	26.04	0.07	-0.750			
0.2129	13622.87	3.8470	3.8469	-0.8027	26.05	0.08	-0.750			
0.2153	13776.77	3.8440	3.8444	-0.7985	26.05	0.08	-0.750			
0.2177	13930.92	3.8410	3.8409	-0.7981	26.05	0.08	-0.750			
0.2201	14083.37	3.8380	3.8380	-0.8024	26.06	0.09	-0.750			
0.2224	14235.94	3.8350	3.8350	-0.7953	26.06	0.09	-0.750			
0.2249	14391.06	3.8320	3.8319	-0.7987	26.07	0.10	-0.750			
0.2273	14545.13	3.8290	3.8293	-0.7944	26.07	0.10	-0.750			
0.2296	14695.79	3.8260	3.8260	-0.7925	26.07	0.10	-0.750			
0.2320	14848.01	3.8230	3.8229	-0.7944	26.08	0.11	-0.750			
0.2343	14998.30	3.8200	3.8200	-0.7903	26.08	0.11	-0.750			
0.2367	15151.89	3.8170	3.8168	-0.7938	26.08	0.11	-0.750			
0.2391	15304.81	3.8140	3.8142	-0.7898	26.09	0.12	-0.750			
0.2415	15457.25	3.8110	3.8109	-0.7881	26.09	0.12	-0.750			
0.2439	15606.95	3.8080	3.8080	-0.7832	26.10	0.13	-0.750			
0.2462	15756.77	3.8050	3.8050	-0.7775	26.10	0.13	-0.750			
0.2485	15902.75	3.8020	3.8020	-0.7715	26.10	0.13	-0.750			
0.2508	16052.85	3.7990	3.7990	-0.7705	26.11	0.14	-0.750			
0.2531	16201.05	3.7960	3.7960	-0.7667	26.11	0.14	-0.750			
0.2554	16348.20	3.7930	3.7930	-0.7619	26.11	0.14	-0.750			
0.2577	16492.71	3.7900	3.7900	-0.7616	26.12	0.15	-0.750			
0.2600	16638.11	3.7870	3.7870	-0.7593	26.12	0.15	-0.750			
0.2623	16784.88	3.7840	3.7839	-0.7569	26.13	0.16	-0.750			
0.2645	16929.97	3.7810	3.7809	-0.7513	26.13	0.16	-0.750			
0.2668	17074.45	3.7780	3.7780	-0.7487	26.13	0.16	-0.750			
0.2690	17218.90	3.7750	3.7748	-0.7375	26.14	0.17	-0.750			
0.2712	17358.41	3.7720	3.7721	-0.7393	26.14	0.17	-0.750			
0.2734	17497.61	3.7690	3.7691	-0.7409	26.14	0.17	-0.750			
0.2756	17640.60	3.7660	3.7659	-0.7430	26.15	0.18	-0.750			
0.2779	17784.90	3.7630	3.7631	-0.7430	26.15	0.18	-0.750			
0.2801	17927.54	3.7600	3.7600	-0.7451	26.15	0.18	-0.750			
0.2824	18070.96	3.7570	3.7571	-0.7466	26.16	0.19	-0.750			
0.2846	18215.88	3.7540	3.7539	-0.7485	26.16	0.19	-0.750			
0.2868	18356.84	3.7510	3.7509	-0.7476	26.16	0.19	-0.750			
0.2891	18500.27	3.7480	3.7480	-0.7531	26.17	0.20	-0.750			
0.2913	18645.61	3.7450	3.7449	-0.7596	26.17	0.20	-0.750			
0.2936	18790.61	3.7420	3.7420	-0.7706	26.17	0.20	-0.750			
0.2959	18939.23	3.7390	3.7389	-0.7720	26.17	0.20	-0.750			
0.2982	19087.99	3.7360	3.7360	-0.7792	26.18	0.21	-0.750			
0.3006	19238.82	3.7330	3.7330	-0.7930	26.18	0.21	-0.750			
0.3030	19391.38	3.7300	3.7301	-0.8038	26.18	0.21	-0.750			
0.3054	19546.57	3.7270	3.7270	-0.8178	26.18	0.21	-0.750			
0.3079	19704.12	3.7240	3.7240	-0.8318	26.18	0.21	-0.750			
0.3104	19865.66	3.7210	3.7210	-0.8399	26.19	0.22	-0.750			
0.3130	20030.38	3.7180	3.7179	-0.8579	26.19	0.22	-0.750			
0.3155	20193.94	3.7150	3.7151	-0.8712	26.19	0.22	-0.750			
0.3181	20361.42	3.7120	3.7119	-0.8897	26.19	0.22	-0.750			
0.3209	20535.39	3.7090	3.7089	-0.9055	26.19	0.22	-0.750			
0.3236	20711.49	3.7060	3.7060	-0.9205	26.19	0.22	-0.750			
0.3264	20890.60	3.7030	3.7031	-0.9361	26.19	0.22	-0.750			
0.3293	21072.53	3.7000	3.7000	-0.9511	26.19	0.22	-0.750			
0.3321	21256.57	3.6970	3.6969	-0.9710	26.19	0.22	-0.750			
0.3351	21443.98	3.6940	3.6939	-0.9867	26.18	0.21	-0.750			
0.3380	21634.94	3.6910	3.6909	-1.0001	26.18	0.21	-0.750			
0.3411	21830.96	3.6880	3.6881	-1.0269	26.18	0.21	-0.750			
0.3442	22028.63	3.6850	3.6849	-1.0440	26.18	0.21	-0.750			
0.3473	22230.06	3.6820	3.6819	-1.0580	26.17	0.20	-0.750			
0.3505	22432.04	3.6790	3.6789	-1.0738	26.17	0.20	-0.750			
0.3538	22644.33	3.6760	3.6762	-1.1136	26.17	0.20	-0.750			
0.3572	22862.11	3.6730	3.6729	-1.1326	26.16	0.19	-0.750			
0.3607	23082.63	3.6700	3.6699	-1.1483	26.16	0.19	-0.750			
0.3641	23303.24	3.6670	3.6672	-1.1670	26.15	0.18	-0.750			
0.3677	23533.21	3.6640	3.6639	-1.1881	26.15	0.18	-0.750			
0.3713	23765.26	3.6610	3.6608	-1.2021	26.14	0.17	-0.750			
0.3749	23992.53	3.6580	3.6580	-1.2205	26.13	0.16	-0.750			
0.3785	24226.07	3.6550	3.6553	-1.2378	26.13	0.16	-0.750			
0.3823	24468.23	3.6520	3.6518	-1.2722	26.12	0.15	-0.750			
0.3861	24713.44	3.6490	3.6489	-1.2979	26.12	0.15	-0.750			
0.3900	24962.44	3.6460	3.6462	-1.3236	26.11	0.14	-0.750			
0.3941	25225.57	3.6430	3.6430	-1.3606	26.11	0.14	-0.750			
0.3983	25491.95	3.6400	3.6400	-1.3895	26.11	0.14	-0.750			
0.4025	25760.42	3.6370	3.6373	-1.4182	26.11	0.14	-0.750			
0.4068	26034.82	3.6340	3.6339	-1.4518	26.10	0.13	-0.750			
0.4112	26313.94	3.6310	3.6309	-1.4936	26.08	0.11	-0.750			
0.4157	26604.26	3.6280	3.6281	-1.5237	26.07	0.10	-0.750			
0.4204	26908.46	3.6250	3.6251	-1.5512	26.07	0.10	-0.750			
0.4251	27208.65	3.6220	3.6221	-1.5651	26.06	0.09	-0.750			
0.4298	27506.94	3.6190	3.6188	-1.5841	26.06	0.09	-0.750			
0.4345	27811.00	3.6160	3.6160	-1.6205	26.05	0.08	-0.750	0.391	0.537	
0.4393	28118.11	3.6130	3.6131	-1.6534	26.05	0.08	-0.750			
0.4443	28437.19	3.6100	3.6099	-1.7033	26.04	0.07	-0.750			
0.4495	28768.00	3.6070	3.6070	-1.7454	26.03	0.06	-0.750			
0.4549	29115.76	3.6040	3.6037	-1.7852	26.03	0.06	-0.750			
0.4604	29464.36	3.6010	3.6009	-1.8269	26.02	0.05	-0.750			
0.4660	29822.09	3.5980	3.5980	-1.8429	26.01	0.04	-0.750			
0.4715	30177.96	3.5950	3.5951	-1.8629	26.01	0.04	-0.750			
0.4770	30530.17	3.5920	3.5921	-1.8922	26.01	0.04	-0.750			
0.4828	30896.04	3.5890	3.5889	-1.9324	26.00	0.03	-0.750			
0.4887	31276.19	3.5860	3.5861	-1.9796	25.99	0.02	-0.750			
0.4947	31660.75	3.5830	3.5829	-2.0284	25.99	0.02	-0.750			
0.5010	32060.93	3.5800	3.5800	-2.0372	25.99	0.02	-0.750			
0.5072	32461.13	3.5770	3.5771	-2.0440	25.98	0.01	-0.750			
0.5133	32848.95	3.5740	3.5740	-2.0491	25.97	0.00	-0.750			
0.5194	33239.50	3.5710	3.5710	-2.0552	25.97	0.00	-0.750			
0.5255	33632.15	3.5680	3.5679	-2.0789	25.97	0.00	-0.750			
0.5317	34028.53	3.5650	3.5649	-2.1051	25.97	0.00	-0.750			
0.5380	34434.86	3.5620	3.5621	-2.1385	25.97	0.00	-0.750			
0.5446	34857.24	3.5590	3.5590	-2.1725	25.97	0.00	-0.750			
0.5513	35283.29	3.5560	3.5559	-2.1914	25.97	0.00	-0.750			
0.5578	35702.25	3.5530	3.5530	-2.1849	25.97	0.00	-0.750			
0.5644	36123.67	3.5500	3.5501	-2.1783	25.97	0.00	-0.750			
0.5709	36539.79	3.5470	3.5469	-2.1740	25.98	0.01	-0.750			
0.5774	36955.91	3.5440	3.5438	-2.1358	25.99	0.02	-0.750			
0.5838	37362.88	3.5410	3.5410	-2.1179	25.99	0.02	-0.750			
0.5902	37772.73	3.5380	3.5381	-2.0982	25.99	0.02	-0.750			
0.5964	38171.30	3.5350	3.5346	-2.0833	25.99	0.02	-0.750			
0.6027	38570.01	3.5320	3.5321	-2.0491	25.99	0.02	-0.750			
0.6089	38966.87	3.5290	3.5291	-2.0229	26.00	0.03	-0.750			
0.6149	39356.15	3.5260	3.5261	-1.9943	26.01	0.04	-0.750			
0.6209	39736.93	3.5230	3.5232	-1.9452	26.01	0.04	-0.750			
0.6266	40105.48	3.5200	3.5201	-1.9043	26.01	0.04	-0.750			
0.6323	40467.05	3.5170	3.5170	-1.8665	26.02	0.05	-0.750			
0.6378	40819.11	3.5140	3.5139	-1.8083	26.03	0.06	-0.750			
0.6433	41168.47	3.5110	3.5108	-1.7526	26.04	0.07	-0.750			
0.6483	41492.28	3.5080	3.5078	-1.6904	26.06	0.09	-0.750			
0.6533	41813.66	3.5050	3.5051	-1.6239	26.07	0.10	-0.750			
0.6581	42115.71	3.5020	3.5016	-1.5860	26.08	0.11	-0.750			
0.6627	42412.53	3.4990	3.4989	-1.5503	26.09	0.12	-0.750			
0.6673	42704.93	3.4960	3.4961	-1.5165	26.10	0.13	-0.750			
0.6720	43006.96	3.4930	3.4928	-1.4982	26.11	0.14	-0.750			
0.6764	43286.98	3.4900	3.4902	-1.4403	26.13	0.16	-0.750			
0.6807	43562.70	3.4870	3.4870	-1.3938	26.14	0.17	-0.750			
0.6849	43830.84	3.4840	3.4840	-1.3544	26.15	0.18	-0.750			
0.6887	44078.88	3.4810	3.4810	-1.3048	26.17	0.20	-0.750			
0.6926	44324.51	3.4780	3.4779	-1.2495	26.18	0.21	-0.750			
0.6963	44562.82	3.4750	3.4749	-1.2135	26.20	0.23	-0.750			
0.6999	44791.35	3.4720	3.4719	-1.1703	26.22	0.25	-0.750			
0.7033	45009.96	3.4690	3.4692	-1.1330	26.23	0.26	-0.750			
0.7067	45226.96	3.4660	3.4658	-1.0980	26.25	0.28	-0.750			
0.7099	45432.96	3.4630	3.4630	-1.0540	26.27	0.30	-0.750			
0.7130	45630.98	3.4600	3.4599	-1.0259	26.28	0.31	-0.750			
0.7160	45823.01	3.4570	3.4572	-0.9910	26.29	0.32	-0.750			
0.7189	46007.65	3.4540	3.4539	-0.9588	26.31	0.34	-0.750			
0.7217	46188.90	3.4510	3.4510	-0.9342	26.32	0.35	-0.750			
0.7244	46363.59	3.4480	3.4480	-0.9072	26.33	0.36	-0.750			
0.7272	46537.77	3.4450	3.4451	-0.8925	26.34	0.37	-0.750			
0.7298	46708.49	3.4420	3.4419	-0.8727	26.35	0.38	-0.750			
0.7324	46871.92	3.4390	3.4390	-0.8626	26.36	0.39	-0.750			
0.7349	47032.61	3.4360	3.4360	-0.8555	26.37	0.40	-0.750			
0.7374	47195.67	3.4330	3.4329	-0.8589	26.38	0.41	-0.750			
0.7400	47359.47	3.4300	3.4304	-0.8697	26.39	0.42	-0.750			
0.7426	47527.11	3.4270	3.4270	-0.8847	26.40	0.43	-0.750			
0.7453	47698.50	3.4240	3.4240	-0.9010	26.41	0.44	-0.750			
0.7480	47873.83	3.4210	3.4210	-0.9164	26.42	0.45	-0.750			
0.7508	48052.67	3.4180	3.4179	-0.9302	26.43	0.46	-0.750			
0.7536	48232.32	3.4150	3.4150	-0.9399	26.44	0.47	-0.750			
0.7565	48416.00	3.4120	3.4120	-0.9477	26.45	0.48	-0.750			
0.7594	48600.53	3.4090	3.4090	-0.9406	26.46	0.49	-0.750			
0.7622	48783.18	3.4060	3.4059	-0.9353	26.46	0.49	-0.750			
0.7650	48962.70	3.4030	3.4033	-0.9180	26.47	0.50	-0.750			
0.7678	49138.20	3.4000	3.3999	-0.8999	26.48	0.51	-0.750			
0.7705	49309.70	3.3970	3.3970	-0.8687	26.48	0.51	-0.750			
0.7730	49470.82	3.3940	3.3940	-0.8455	26.49	0.52	-0.750			
0.7755	49632.93	3.3910	3.3911	-0.8313	26.50	0.53	-0.750			
0.7780	49789.92	3.3880	3.3879	-0.8048	26.50	0.53	-0.750			
0.7803	49941.05	3.3850	3.3849	-0.7813	26.51	0.54	-0.750			
0.7827	50090.30	3.3820	3.3821	-0.7595	26.52	0.55	-0.750			
0.7849	50234.87	3.3790	3.3790	-0.7323	26.53	0.56	-0.750			
0.7871	50375.39	3.3760	3.3759	-0.7097	26.54	0.57	-0.750			
0.7892	50506.58	3.3730	3.3729	-0.6772	26.55	0.58	-0.750			
0.7911	50632.79	3.3700	3.3700	-0.6514	26.55	0.58	-0.750			
0.7931	50755.59	3.3670	3.3669	-0.6279	26.56	0.59	-0.750			
0.7949	50872.22	3.3640	3.3640	-0.6022	26.57	0.60	-0.750			
0.7966	50984.74	3.3610	3.3610	-0.5802	26.57	0.60	-0.750			
0.7984	51096.59	3.3580	3.3581	-0.5631	26.58	0.61	-0.750			
0.8000	51201.92	3.3550	3.3550	-0.5404	26.58	0.61	-0.750			
0.8016	51302.86	3.3520	3.3520	-0.5223	26.59	0.62	-0.750			
0.8031	51401.18	3.3490	3.3490	-0.5071	26.59	0.62	-0.750			
0.8046	51496.25	3.3460	3.3460	-0.4904	26.60	0.63	-0.750			
0.8061	51589.12	3.3430	3.3430	-0.4761	26.60	0.63	-0.750			
0.8075	51679.23	3.3400	3.3400	-0.4622	26.61	0.64	-0.750			
0.8089	51767.12	3.3370	3.3370	-0.4492	26.62	0.65	-0.750			
0.8102	51851.67	3.3340	3.3340	-0.4350	26.62	0.65	-0.750			
0.8115	51933.57	3.3310	3.3310	-0.4199	26.63	0.66	-0.750			
0.8127	52013.29	3.3280	3.3279	-0.4038	26.63	0.66	-0.750			
0.8139	52089.55	3.3250	3.3250	-0.3901	26.64	0.67	-0.750			
0.8150	52161.89	3.3220	3.3221	-0.3779	26.64	0.67	-0.750			
0.8161	52232.64	3.3190	3.3189	-0.3667	26.65	0.68	-0.750			
0.8172	52301.27	3.3160	3.3159	-0.3576	26.65	0.68	-0.750			
0.8183	52369.08	3.3130	3.3130	-0.3509	26.66	0.69	-0.750			
0.8193	52436.66	3.3100	3.3100	-0.3445	26.66	0.69	-0.750			
0.8204	52502.68	3.3070	3.3070	-0.3371	26.67	0.70	-0.750			
0.8214	52566.58	3.3040	3.3040	-0.3267	26.67	0.70	-0.750			
0.8223	52628.23	3.3010	3.3010	-0.3168	26.68	0.71	-0.750			
0.8233	52688.04	3.2980	3.2980	-0.3073	26.68	0.71	-0.750			
0.8241	52745.18	3.2950	3.2950	-0.3002	26.68	0.71	-0.750			
0.8250	52801.65	3.2920	3.2921	-0.2935	26.69	0.72	-0.750			
0.8259	52857.67	3.2890	3.2890	-0.2866	26.69	0.72	-0.750			
0.8268	52912.30	3.2860	3.2859	-0.2807	26.70	0.73	-0.750			
0.8276	52965.83	3.2830	3.2832	-0.2757	26.70	0.73	-0.750			
0.8284	53018.17	3.2800	3.2799	-0.2691	26.71	0.74	-0.750			
0.8292	53069.22	3.2770	3.2770	-0.2628	26.71	0.74	-0.750			
0.8300	53117.86	3.2740	3.2741	-0.2551	26.72	0.75	-0.750			
0.8307	53166.98	3.2710	3.2710	-0.2521	26.73	0.76	-0.750			
0.8315	53214.98	3.2680	3.2680	-0.2489	26.73	0.76	-0.750			
0.8322	53262.03	3.2650	3.2649	-0.2439	26.74	0.77	-0.750			
0.8329	53308.47	3.2620	3.2620	-0.2395	26.75	0.78	-0.750			
0.8337	53354.13	3.2590	3.2590	-0.2360	26.75	0.78	-0.750			
0.8344	53399.62	3.2560	3.2561	-0.2322	26.76	0.79	-0.750			
0.8351	53443.79	3.2530	3.2530	-0.2285	26.76	0.79	-0.750			
0.8357	53486.50	3.2500	3.2500	-0.2245	26.77	0.80	-0.750			
0.8364	53529.35	3.2470	3.2470	-0.2219	26.77	0.80	-0.750			
0.8371	53571.34	3.2440	3.2439	-0.2184	26.78	0.81	-0.750			
0.8377	53613.22	3.2410	3.2409	-0.2160	26.79	0.82	-0.750			
0.8384	53654.73	3.2380	3.2381	-0.2128	26.79	0.82	-0.750			
0.8390	53695.25	3.2350	3.2350	-0.2093	26.80	0.83	-0.750			
0.8396	53735.35	3.2320	3.2321	-0.2060	26.80	0.83	-0.750			
0.8402	53774.33	3.2290	3.2290	-0.2033	26.80	0.83	-0.750			
0.8408	53812.91	3.2260	3.2260	-0.1991	26.81	0.84	-0.750			
0.8414	53850.58	3.2230	3.2231	-0.1972	26.81	0.84	-0.750			
0.8420	53888.24	3.2200	3.2200	-0.1951	26.82	0.85	-0.750			
0.8426	53925.42	3.2170	3.2170	-0.1921	26.83	0.86	-0.750			
0.8432	53962.37	3.2140	3.2139	-0.1895	26.83	0.86	-0.750			
0.8437	53998.54	3.2110	3.2110	-0.1866	26.84	0.87	-0.750			
0.8443	54034.07	3.2080	3.2080	-0.1835	26.84	0.87	-0.750			
0.8448	54068.66	3.2050	3.2050	-0.1818	26.85	0.88	-0.750			
0.8454	54103.28	3.2020	3.2020	-0.1808	26.85	0.88	-0.750			
0.8459	54137.35	3.1990	3.1990	-0.1778	26.86	0.89	-0.750			
0.8464	54171.47	3.1960	3.1959	-0.1776	26.86	0.89	-0.750			
0.8470	54205.95	3.1930	3.1930	-0.1759	26.87	0.90	-0.750			
0.8475	54239.90	3.1900	3.1901	-0.1744	26.87	0.90	-0.750			
0.8480	54273.53	3.1870	3.1870	-0.1724	26.88	0.91	-0.750			
0.8485	54306.16	3.1840	3.1839	-0.1701	26.88	0.91	-0.750			
0.8490	54338.24	3.1810	3.1809	-0.1677	26.89	0.92	-0.750			
0.8495	54369.86	3.1780	3.1781	-0.1660	26.89	0.92	-0.750			
0.8500	54401.49	3.1750	3.1750	-0.1649	26.90	0.93	-0.750			
0.8505	54433.27	3.1720	3.1720	-0.1631	26.90	0.93	-0.750			
0.8510	54464.68	3.1690	3.1690	-0.1616	26.91	0.94	-0.750			
0.8515	54495.51	3.1660	3.1661	-0.1599	26.91	0.94	-0.750			
0.8520	54525.97	3.1630	3.1630	-0.1582	26.92	0.95	-0.750			
0.8524	54556.17	3.1600	3.1601	-0.1565	26.92	0.95	-0.750			
0.8529	54585.99	3.1570	3.1570	-0.1550	26.93	0.96	-0.750			
