Ah_balance (normalized)	Ah_balance (mAh)	Voltage - fit (V)	Voltage -  interpolate (V)	dQ/dV (1/V)	Temperature (°C)	Temperature - diff (°C)	Current (C)	R_DC 0ms (mOhm)	R_DC 50ms (mOhm)	R_DC 50 ms PEC (mOhm)
0.0003	18.82	4.1660	4.1662	-0.1446	25.58	0.02	-0.750			
0.0008	51.28	4.1630	4.1630	-0.1916	25.58	0.02	-0.750			
0.0014	92.61	4.1600	4.1599	-0.2363	25.58	0.02	-0.750			
0.0022	142.17	4.1570	4.1571	-0.2801	25.57	0.01	-0.750			
0.0031	200.24	4.1540	4.1541	-0.3236	25.57	0.01	-0.750			
0.0042	266.93	4.1510	4.1510	-0.3672	25.57	0.01	-0.750			
0.0053	341.90	4.1480	4.1480	-0.4085	25.56	0.00	-0.750			
0.0066	424.32	4.1450	4.1452	-0.4492	25.56	-0.00	-0.750			
0.0080	514.59	4.1420	4.1420	-0.4886	25.56	-0.00	-0.750			
0.0096	613.83	4.1390	4.1390	-0.5252	25.55	-0.01	-0.750			
0.0112	718.72	4.1360	4.1359	-0.5575	25.55	-0.01	-0.750			
0.0130	830.26	4.1330	4.1331	-0.5912	25.54	-0.02	-0.750			
0.0148	948.13	4.1300	4.1300	-0.6144	25.53	-0.03	-0.750			
0.0167	1070.44	4.1270	4.1269	-0.6371	25.53	-0.03	-0.750			
0.0187	1194.99	4.1240	4.1242	-0.6509	25.52	-0.04	-0.750			
0.0206	1321.34	4.1210	4.1209	-0.6669	25.52	-0.04	-0.750			
0.0227	1450.79	4.1180	4.1180	-0.6790	25.51	-0.05	-0.750			
0.0247	1581.54	4.1150	4.1150	-0.6913	25.51	-0.05	-0.750			
0.0268	1714.81	4.1120	4.1121	-0.7039	25.51	-0.05	-0.750			
0.0290	1854.68	4.1090	4.1089	-0.7181	25.50	-0.06	-0.750			
0.0311	1992.93	4.1060	4.1059	-0.7260	25.50	-0.06	-0.750			
0.0334	2134.46	4.1030	4.1030	-0.7336	25.50	-0.06	-0.750			
0.0356	2275.62	4.1000	4.1000	-0.7364	25.50	-0.06	-0.750			
0.0378	2418.57	4.0970	4.0970	-0.7442	25.50	-0.06	-0.750			
0.0400	2561.85	4.0940	4.0940	-0.7455	25.49	-0.07	-0.750			
0.0423	2705.50	4.0910	4.0910	-0.7510	25.49	-0.07	-0.750			
0.0445	2850.31	4.0880	4.0881	-0.7543	25.49	-0.07	-0.750			
0.0468	2995.34	4.0850	4.0850	-0.7583	25.49	-0.07	-0.750			
0.0491	3141.05	4.0820	4.0820	-0.7694	25.49	-0.07	-0.750			
0.0514	3288.75	4.0790	4.0790	-0.7769	25.49	-0.07	-0.750			
0.0537	3439.95	4.0760	4.0759	-0.7813	25.49	-0.07	-0.750			
0.0561	3590.72	4.0730	4.0730	-0.7860	25.49	-0.07	-0.750			
0.0585	3743.06	4.0700	4.0700	-0.7861	25.49	-0.07	-0.750			
0.0609	3894.56	4.0670	4.0669	-0.7870	25.49	-0.07	-0.750			
0.0632	4044.81	4.0640	4.0640	-0.7848	25.48	-0.08	-0.750			
0.0655	4194.79	4.0610	4.0610	-0.7807	25.48	-0.08	-0.750			
0.0679	4346.09	4.0580	4.0580	-0.7824	25.48	-0.08	-0.750			
0.0703	4496.40	4.0550	4.0550	-0.7833	25.48	-0.08	-0.750			
0.0726	4644.13	4.0520	4.0521	-0.7882	25.48	-0.08	-0.750			
0.0749	4796.49	4.0490	4.0490	-0.7931	25.48	-0.08	-0.750			
0.0773	4949.32	4.0460	4.0459	-0.7925	25.48	-0.08	-0.750			
0.0797	5102.42	4.0430	4.0431	-0.7951	25.48	-0.08	-0.750			
0.0821	5256.18	4.0400	4.0401	-0.7994	25.48	-0.08	-0.750			
0.0845	5409.04	4.0370	4.0368	-0.7982	25.48	-0.08	-0.750			
0.0869	5562.13	4.0340	4.0340	-0.7974	25.48	-0.08	-0.750			
0.0893	5714.39	4.0310	4.0310	-0.7995	25.48	-0.08	-0.750			
0.0917	5870.02	4.0280	4.0280	-0.8039	25.48	-0.08	-0.750			
0.0941	6024.59	4.0250	4.0251	-0.8060	25.48	-0.08	-0.750			
0.0966	6179.50	4.0220	4.0220	-0.8026	25.48	-0.08	-0.750			
0.0989	6332.62	4.0190	4.0190	-0.8088	25.49	-0.07	-0.750			
0.1014	6488.75	4.0160	4.0159	-0.8075	25.49	-0.07	-0.750			
0.1038	6644.26	4.0130	4.0130	-0.8096	25.50	-0.06	-0.750			
0.1062	6798.46	4.0100	4.0102	-0.8100	25.50	-0.06	-0.750			
0.1087	6954.64	4.0070	4.0070	-0.8152	25.50	-0.06	-0.750			
0.1111	7110.97	4.0040	4.0039	-0.8183	25.50	-0.06	-0.750			
0.1136	7268.69	4.0010	4.0010	-0.8205	25.51	-0.05	-0.750			
0.1160	7426.04	3.9980	3.9980	-0.8173	25.51	-0.05	-0.750			
0.1186	7588.66	3.9950	3.9950	-0.8156	25.51	-0.05	-0.750			
0.1210	7742.01	3.9920	3.9920	-0.8179	25.51	-0.05	-0.750			
0.1234	7896.24	3.9890	3.9891	-0.8237	25.51	-0.05	-0.750			
0.1259	8055.23	3.9860	3.9859	-0.8272	25.52	-0.04	-0.750			
0.1284	8215.30	3.9830	3.9829	-0.8231	25.52	-0.04	-0.750			
0.1309	8375.04	3.9800	3.9801	-0.8312	25.52	-0.04	-0.750			
0.1334	8535.57	3.9770	3.9770	-0.8339	25.52	-0.04	-0.750			
0.1359	8697.12	3.9740	3.9738	-0.8396	25.52	-0.04	-0.750			
0.1384	8855.20	3.9710	3.9709	-0.8292	25.53	-0.03	-0.750			
0.1408	9012.77	3.9680	3.9681	-0.8282	25.53	-0.03	-0.750			
0.1434	9175.45	3.9650	3.9650	-0.8401	25.53	-0.03	-0.750			
0.1459	9337.16	3.9620	3.9620	-0.8407	25.53	-0.03	-0.750			
0.1484	9495.51	3.9590	3.9589	-0.8408	25.53	-0.03	-0.750			
0.1509	9658.02	3.9560	3.9560	-0.8475	25.54	-0.02	-0.750			
0.1535	9822.11	3.9530	3.9530	-0.8505	25.54	-0.02	-0.750			
0.1561	9988.31	3.9500	3.9499	-0.8583	25.54	-0.02	-0.750			
0.1586	10152.18	3.9470	3.9470	-0.8575	25.54	-0.02	-0.750			
0.1612	10316.36	3.9440	3.9440	-0.8619	25.55	-0.01	-0.750			
0.1638	10483.64	3.9410	3.9409	-0.8609	25.55	-0.01	-0.750			
0.1664	10648.08	3.9380	3.9380	-0.8586	25.56	-0.00	-0.750			
0.1690	10814.41	3.9350	3.9352	-0.8616	25.56	-0.00	-0.750			
0.1715	10978.97	3.9320	3.9319	-0.8633	25.56	0.00	-0.750			
0.1741	11143.86	3.9290	3.9290	-0.8637	25.56	0.00	-0.750			
0.1767	11309.18	3.9260	3.9260	-0.8647	25.56	0.00	-0.750			
0.1793	11476.14	3.9230	3.9230	-0.8728	25.56	0.00	-0.750			
0.1820	11645.22	3.9200	3.9200	-0.8760	25.56	0.00	-0.750			
0.1846	11811.87	3.9170	3.9170	-0.8781	25.56	0.00	-0.750			
0.1872	11981.76	3.9140	3.9140	-0.8796	25.57	0.01	-0.750			
0.1899	12150.47	3.9110	3.9110	-0.8821	25.57	0.01	-0.750			
0.1925	12320.75	3.9080	3.9079	-0.8827	25.58	0.02	-0.750			
0.1952	12490.52	3.9050	3.9051	-0.8828	25.58	0.02	-0.750			
0.1978	12659.21	3.9020	3.9020	-0.8859	25.58	0.02	-0.750			
0.2005	12830.14	3.8990	3.8990	-0.8867	25.59	0.03	-0.750			
0.2031	12999.39	3.8960	3.8959	-0.8877	25.59	0.03	-0.750			
0.2058	13170.81	3.8930	3.8930	-0.8919	25.59	0.03	-0.750			
0.2085	13342.11	3.8900	3.8899	-0.8928	25.59	0.03	-0.750			
0.2112	13514.63	3.8870	3.8870	-0.8944	25.59	0.03	-0.750			
0.2138	13685.42	3.8840	3.8840	-0.8954	25.60	0.04	-0.750			
0.2165	13857.15	3.8810	3.8810	-0.8953	25.60	0.04	-0.750			
0.2192	14031.65	3.8780	3.8781	-0.8974	25.60	0.04	-0.750			
0.2219	14201.87	3.8750	3.8751	-0.9017	25.60	0.04	-0.750			
0.2246	14375.77	3.8720	3.8720	-0.9022	25.61	0.05	-0.750			
0.2273	14549.15	3.8690	3.8689	-0.9053	25.61	0.05	-0.750			
0.2301	14724.31	3.8660	3.8660	-0.9021	25.62	0.06	-0.750			
0.2328	14896.41	3.8630	3.8630	-0.9017	25.62	0.06	-0.750			
0.2355	15072.03	3.8600	3.8600	-0.9102	25.63	0.07	-0.750			
0.2382	15247.02	3.8570	3.8569	-0.9071	25.63	0.07	-0.750			
0.2409	15419.07	3.8540	3.8538	-0.9020	25.63	0.07	-0.750			
0.2437	15594.36	3.8510	3.8514	-0.9043	25.64	0.08	-0.750			
0.2463	15766.20	3.8480	3.8479	-0.9091	25.64	0.08	-0.750			
0.2491	15941.57	3.8450	3.8450	-0.9132	25.65	0.09	-0.750			
0.2518	16114.60	3.8420	3.8420	-0.9097	25.65	0.09	-0.750			
0.2546	16294.72	3.8390	3.8390	-0.9194	25.66	0.10	-0.750			
0.2573	16469.57	3.8360	3.8361	-0.9164	25.66	0.10	-0.750			
0.2601	16644.88	3.8330	3.8330	-0.9182	25.66	0.10	-0.750			
0.2628	16820.84	3.8300	3.8299	-0.9189	25.66	0.10	-0.750			
0.2656	16995.79	3.8270	3.8270	-0.9202	25.67	0.11	-0.750			
0.2683	17173.21	3.8240	3.8241	-0.9243	25.67	0.11	-0.750			
0.2711	17350.39	3.8210	3.8210	-0.9312	25.67	0.11	-0.750			
0.2740	17532.84	3.8180	3.8179	-0.9289	25.67	0.11	-0.750			
0.2767	17709.74	3.8150	3.8150	-0.9246	25.68	0.12	-0.750			
0.2795	17887.20	3.8120	3.8119	-0.9202	25.68	0.12	-0.750			
0.2823	18064.14	3.8090	3.8091	-0.9199	25.68	0.12	-0.750			
0.2850	18239.21	3.8060	3.8059	-0.9204	25.69	0.13	-0.750			
0.2877	18414.84	3.8030	3.8030	-0.9198	25.69	0.13	-0.750			
0.2905	18590.23	3.8000	3.8000	-0.9186	25.69	0.13	-0.750			
0.2933	18771.22	3.7970	3.7970	-0.9297	25.70	0.14	-0.750			
0.2961	18948.54	3.7940	3.7941	-0.9309	25.70	0.14	-0.750			
0.2989	19128.69	3.7910	3.7910	-0.9332	25.71	0.15	-0.750			
0.3017	19307.27	3.7880	3.7880	-0.9351	25.71	0.15	-0.750			
0.3045	19487.50	3.7850	3.7850	-0.9353	25.72	0.16	-0.750			
0.3073	19667.38	3.7820	3.7820	-0.9360	25.72	0.16	-0.750			
0.3101	19846.98	3.7790	3.7790	-0.9384	25.73	0.17	-0.750			
0.3129	20028.43	3.7760	3.7760	-0.9416	25.73	0.17	-0.750			
0.3158	20209.05	3.7730	3.7729	-0.9366	25.73	0.17	-0.750			
0.3186	20389.39	3.7700	3.7701	-0.9374	25.74	0.18	-0.750			
0.3214	20568.16	3.7670	3.7670	-0.9359	25.74	0.18	-0.750			
0.3242	20748.56	3.7640	3.7639	-0.9363	25.75	0.19	-0.750			
0.3270	20927.61	3.7610	3.7610	-0.9334	25.75	0.19	-0.750			
0.3298	21104.90	3.7580	3.7580	-0.9332	25.76	0.20	-0.750			
0.3326	21285.64	3.7550	3.7551	-0.9387	25.76	0.20	-0.750			
0.3354	21468.10	3.7520	3.7519	-0.9396	25.76	0.20	-0.750			
0.3383	21648.06	3.7490	3.7490	-0.9381	25.77	0.21	-0.750			
0.3410	21826.81	3.7460	3.7461	-0.9422	25.77	0.21	-0.750			
0.3439	22008.40	3.7430	3.7432	-0.9491	25.77	0.21	-0.750			
0.3467	22190.61	3.7400	3.7399	-0.9570	25.77	0.21	-0.750			
0.3496	22374.72	3.7370	3.7370	-0.9628	25.78	0.22	-0.750			
0.3525	22561.79	3.7340	3.7340	-0.9668	25.78	0.22	-0.750			
0.3554	22748.53	3.7310	3.7310	-0.9711	25.79	0.23	-0.750			
0.3584	22936.68	3.7280	3.7280	-0.9763	25.79	0.23	-0.750			
0.3613	23124.92	3.7250	3.7250	-0.9798	25.79	0.23	-0.750			
0.3643	23312.63	3.7220	3.7219	-0.9831	25.79	0.23	-0.750			
0.3672	23499.40	3.7190	3.7190	-0.9909	25.79	0.23	-0.750			
0.3702	23691.04	3.7160	3.7161	-1.0060	25.79	0.23	-0.750			
0.3732	23884.78	3.7130	3.7129	-1.0235	25.80	0.24	-0.750			
0.3763	24082.42	3.7100	3.7099	-1.0374	25.80	0.24	-0.750			
0.3794	24280.60	3.7070	3.7071	-1.0536	25.81	0.25	-0.750			
0.3826	24487.05	3.7040	3.7041	-1.0819	25.81	0.25	-0.750			
0.3859	24697.72	3.7010	3.7009	-1.0984	25.81	0.25	-0.750			
0.3892	24910.79	3.6980	3.6979	-1.1123	25.81	0.25	-0.750			
0.3926	25126.78	3.6950	3.6949	-1.1231	25.81	0.25	-0.750			
0.3960	25343.57	3.6920	3.6920	-1.1422	25.81	0.25	-0.750			
0.3995	25565.21	3.6890	3.6889	-1.1581	25.81	0.25	-0.750			
0.4029	25786.35	3.6860	3.6859	-1.1747	25.80	0.24	-0.750			
0.4064	26009.99	3.6830	3.6833	-1.1962	25.80	0.24	-0.750			
0.4101	26245.16	3.6800	3.6800	-1.2299	25.80	0.24	-0.750			
0.4138	26483.61	3.6770	3.6769	-1.2603	25.79	0.23	-0.750			
0.4176	26727.10	3.6740	3.6740	-1.2975	25.79	0.23	-0.750			
0.4216	26982.62	3.6710	3.6710	-1.3262	25.79	0.23	-0.750			
0.4256	27240.39	3.6680	3.6679	-1.3465	25.79	0.23	-0.750			
0.4297	27499.31	3.6650	3.6650	-1.3835	25.79	0.23	-0.750			
0.4339	27769.17	3.6620	3.6620	-1.4095	25.79	0.23	-0.750			
0.4381	28038.39	3.6590	3.6589	-1.4588	25.78	0.22	-0.750			
0.4425	28322.38	3.6560	3.6563	-1.4936	25.77	0.21	-0.750			
0.4471	28614.05	3.6530	3.6529	-1.5306	25.77	0.21	-0.750			
0.4518	28915.05	3.6500	3.6500	-1.5752	25.76	0.20	-0.750			
0.4566	29221.77	3.6470	3.6473	-1.6177	25.75	0.19	-0.750			
0.4615	29537.77	3.6440	3.6440	-1.6543	25.74	0.18	-0.750			
0.4665	29857.79	3.6410	3.6409	-1.6912	25.73	0.17	-0.750			
0.4716	30184.12	3.6380	3.6379	-1.7221	25.73	0.17	-0.750			
0.4768	30518.28	3.6350	3.6350	-1.7724	25.72	0.16	-0.750	0.423	0.498	
0.4822	30863.24	3.6320	3.6320	-1.8022	25.72	0.16	-0.750			
0.4877	31213.37	3.6290	3.6293	-1.8396	25.71	0.15	-0.750			
0.4933	31573.16	3.6260	3.6260	-1.8778	25.70	0.14	-0.750			
0.4990	31937.93	3.6230	3.6229	-1.9144	25.70	0.14	-0.750			
0.5049	32311.37	3.6200	3.6201	-1.9425	25.69	0.13	-0.750			
0.5108	32692.64	3.6170	3.6168	-1.9877	25.69	0.13	-0.750			
0.5168	33073.91	3.6140	3.6140	-2.0020	25.68	0.12	-0.750			
0.5229	33462.71	3.6110	3.6111	-2.0455	25.67	0.11	-0.750			
0.5289	33852.75	3.6080	3.6078	-2.0683	25.66	0.10	-0.750			
0.5352	34254.81	3.6050	3.6050	-2.1115	25.66	0.10	-0.750			
0.5416	34663.44	3.6020	3.6021	-2.1539	25.66	0.10	-0.750			
0.5481	35080.87	3.5990	3.5989	-2.2038	25.65	0.09	-0.750			
0.5549	35513.59	3.5960	3.5960	-2.2302	25.64	0.08	-0.750			
0.5617	35947.79	3.5930	3.5931	-2.2624	25.64	0.08	-0.750			
0.5685	36384.20	3.5900	3.5900	-2.2911	25.65	0.09	-0.750			
0.5754	36827.17	3.5870	3.5869	-2.3156	25.64	0.08	-0.750			
0.5824	37272.68	3.5840	3.5840	-2.3351	25.64	0.08	-0.750			
0.5894	37724.20	3.5810	3.5811	-2.3740	25.64	0.08	-0.750			
0.5966	38184.09	3.5780	3.5779	-2.3901	25.64	0.08	-0.750			
0.6039	38646.79	3.5750	3.5749	-2.4146	25.64	0.08	-0.750			
0.6111	39108.78	3.5720	3.5721	-2.4279	25.64	0.08	-0.750			
0.6184	39579.33	3.5690	3.5691	-2.4543	25.64	0.08	-0.750			
0.6258	40053.37	3.5660	3.5658	-2.4594	25.64	0.08	-0.750			
0.6332	40525.91	3.5630	3.5629	-2.4797	25.64	0.08	-0.750			
0.6407	41005.94	3.5600	3.5601	-2.4773	25.64	0.08	-0.750			
0.6482	41487.09	3.5570	3.5570	-2.4733	25.64	0.08	-0.750			
0.6556	41957.70	3.5540	3.5541	-2.4640	25.64	0.08	-0.750			
0.6629	42428.12	3.5510	3.5511	-2.4345	25.64	0.08	-0.750			
0.6703	42898.03	3.5480	3.5479	-2.4224	25.64	0.08	-0.750			
0.6775	43360.88	3.5450	3.5451	-2.3896	25.65	0.09	-0.750			
0.6847	43821.56	3.5420	3.5421	-2.3651	25.67	0.11	-0.750			
0.6917	44270.77	3.5390	3.5390	-2.3061	25.68	0.12	-0.750			
0.6985	44702.98	3.5360	3.5359	-2.2591	25.68	0.12	-0.750			
0.7053	45137.86	3.5330	3.5329	-2.2133	25.69	0.13	-0.750			
0.7120	45564.93	3.5300	3.5298	-2.1547	25.69	0.13	-0.750			
0.7182	45967.74	3.5270	3.5271	-2.0927	25.70	0.14	-0.750			
0.7244	46363.39	3.5240	3.5238	-2.0244	25.72	0.16	-0.750			
0.7305	46750.12	3.5210	3.5209	-1.9654	25.74	0.18	-0.750			
0.7363	47122.50	3.5180	3.5179	-1.9009	25.75	0.19	-0.750			
0.7420	47484.95	3.5150	3.5152	-1.8359	25.76	0.20	-0.750			
0.7473	47829.27	3.5120	3.5118	-1.7658	25.78	0.22	-0.750			
0.7526	48165.29	3.5090	3.5092	-1.7143	25.80	0.24	-0.750			
0.7576	48486.02	3.5060	3.5060	-1.6348	25.81	0.25	-0.750			
0.7624	48792.86	3.5030	3.5027	-1.5663	25.83	0.27	-0.750			
0.7670	49088.18	3.5000	3.5001	-1.5123	25.84	0.28	-0.750			
0.7714	49370.89	3.4970	3.4970	-1.4545	25.86	0.30	-0.750			
0.7758	49650.47	3.4940	3.4938	-1.4068	25.87	0.31	-0.750			
0.7797	49903.72	3.4910	3.4910	-1.3488	25.88	0.32	-0.750			
0.7838	50162.79	3.4880	3.4881	-1.3107	25.90	0.34	-0.750			
0.7877	50414.70	3.4850	3.4849	-1.2769	25.92	0.36	-0.750			
0.7915	50657.17	3.4820	3.4819	-1.2286	25.94	0.38	-0.750			
0.7951	50885.92	3.4790	3.4791	-1.1849	25.95	0.39	-0.750			
0.7986	51111.54	3.4760	3.4760	-1.1446	25.96	0.40	-0.750			
0.8020	51327.47	3.4730	3.4729	-1.1000	25.98	0.42	-0.750			
0.8052	51530.73	3.4700	3.4700	-1.0511	25.99	0.43	-0.750			
0.8083	51731.07	3.4670	3.4669	-1.0233	26.00	0.44	-0.750			
0.8113	51921.80	3.4640	3.4640	-0.9902	26.01	0.45	-0.750			
0.8142	52105.62	3.4610	3.4610	-0.9756	26.01	0.45	-0.750			
0.8169	52284.51	3.4580	3.4581	-0.9649	26.02	0.46	-0.750			
0.8198	52468.30	3.4550	3.4550	-0.9815	26.03	0.47	-0.750			
0.8228	52656.85	3.4520	3.4520	-1.0041	26.04	0.48	-0.750			
0.8258	52849.37	3.4490	3.4490	-1.0428	26.05	0.49	-0.750			
0.8289	53049.24	3.4460	3.4460	-1.0919	26.06	0.50	-0.750			
0.8322	53261.76	3.4430	3.4431	-1.1560	26.07	0.51	-0.750			
0.8358	53492.20	3.4400	3.4398	-1.2110	26.08	0.52	-0.750			
0.8396	53734.35	3.4370	3.4370	-1.2615	26.10	0.54	-0.750			
0.8436	53988.77	3.4340	3.4339	-1.2828	26.11	0.55	-0.750			
0.8476	54247.27	3.4310	3.4310	-1.2973	26.12	0.56	-0.750			
0.8516	54499.71	3.4280	3.4280	-1.2728	26.12	0.56	-0.750			
0.8554	54743.32	3.4250	3.4250	-1.2356	26.13	0.57	-0.750			
0.8590	54976.76	3.4220	3.4220	-1.1994	26.14	0.58	-0.750			
0.8625	55202.53	3.4190	3.4189	-1.1520	26.14	0.58	-0.750			
0.8659	55419.45	3.4160	3.4160	-1.1068	26.15	0.59	-0.750			
0.8692	55628.14	3.4130	3.4131	-1.0639	26.16	0.60	-0.750			
0.8723	55827.98	3.4100	3.4100	-1.0247	26.17	0.61	-0.750			
0.8753	56020.11	3.4070	3.4070	-0.9846	26.18	0.62	-0.750			
0.8782	56203.92	3.4040	3.4040	-0.9461	26.18	0.62	-0.750			
0.8810	56382.06	3.4010	3.4010	-0.9110	26.19	0.63	-0.750			
0.8837	56553.86	3.3980	3.3980	-0.8801	26.20	0.64	-0.750			
0.8862	56718.92	3.3950	3.3951	-0.8475	26.21	0.65	-0.750			
0.8887	56878.38	3.3920	3.3919	-0.8147	26.21	0.65	-0.750			
0.8911	57031.55	3.3890	3.3890	-0.7798	26.22	0.66	-0.750			
0.8934	57178.66	3.3860	3.3860	-0.7488	26.23	0.67	-0.750			
0.8956	57318.91	3.3830	3.3831	-0.7193	26.23	0.67	-0.750			
0.8977	57454.47	3.3800	3.3800	-0.6895	26.24	0.68	-0.750			
0.8997	57582.66	3.3770	3.3770	-0.6617	26.24	0.68	-0.750			
0.9017	57706.60	3.3740	3.3740	-0.6356	26.24	0.68	-0.750			
0.9035	57826.91	3.3710	3.3710	-0.6108	26.25	0.69	-0.750			
0.9053	57941.98	3.3680	3.3679	-0.5854	26.25	0.69	-0.750			
0.9071	58051.86	3.3650	3.3651	-0.5599	26.25	0.69	-0.750			
0.9087	58156.37	3.3620	3.3620	-0.5360	26.26	0.70	-0.750			
0.9103	58256.67	3.3590	3.3589	-0.5124	26.27	0.71	-0.750			
0.9117	58351.66	3.3560	3.3560	-0.4882	26.28	0.72	-0.750			
0.9132	58443.86	3.3530	3.3530	-0.4683	26.28	0.72	-0.750			
0.9146	58531.80	3.3500	3.3499	-0.4503	26.29	0.73	-0.750			
0.9159	58616.28	3.3470	3.3470	-0.4296	26.29	0.73	-0.750			
0.9171	58696.74	3.3440	3.3440	-0.4108	26.30	0.74	-0.750			
0.9183	58773.76	3.3410	3.3409	-0.3911	26.31	0.75	-0.750			
0.9195	58847.37	3.3380	3.3381	-0.3740	26.31	0.75	-0.750			
0.9206	58916.63	3.3350	3.3350	-0.3569	26.32	0.76	-0.750			
0.9216	58983.05	3.3320	3.3320	-0.3426	26.32	0.76	-0.750			
0.9226	59046.52	3.3290	3.3290	-0.3273	26.33	0.77	-0.750			
0.9236	59108.66	3.3260	3.3260	-0.3149	26.33	0.77	-0.750			
0.9245	59168.10	3.3230	3.3230	-0.3012	26.34	0.78	-0.750			
0.9254	59224.82	3.3200	3.3201	-0.2892	26.34	0.78	-0.750			
0.9262	59278.82	3.3170	3.3170	-0.2757	26.34	0.78	-0.750			
0.9270	59330.22	3.3140	3.3139	-0.2638	26.35	0.79	-0.750			
0.9278	59378.70	3.3110	3.3110	-0.2510	26.35	0.79	-0.750			
0.9285	59425.78	3.3080	3.3081	-0.2427	26.36	0.80	-0.750			
0.9292	59471.63	3.3050	3.3050	-0.2343	26.36	0.80	-0.750			
0.9299	59515.69	3.3020	3.3020	-0.2254	26.36	0.80	-0.750			
0.9306	59558.07	3.2990	3.2989	-0.2173	26.37	0.81	-0.750			
0.9312	59598.60	3.2960	3.2958	-0.2089	26.37	0.81	-0.750			
0.9318	59638.18	3.2930	3.2930	-0.2020	26.37	0.81	-0.750			
0.9324	59675.95	3.2900	3.2900	-0.1951	26.38	0.82	-0.750			
0.9330	59712.36	3.2870	3.2871	-0.1893	26.38	0.82	-0.750			
0.9336	59747.57	3.2840	3.2839	-0.1829	26.38	0.82	-0.750			
0.9341	59782.43	3.2810	3.2810	-0.1774	26.38	0.82	-0.750			
0.9346	59816.09	3.2780	3.2780	-0.1727	26.39	0.83	-0.750			
0.9351	59848.77	3.2750	3.2751	-0.1676	26.39	0.83	-0.750			
0.9356	59880.47	3.2720	3.2720	-0.1626	26.39	0.83	-0.750			
0.9361	59911.18	3.2690	3.2689	-0.1582	26.40	0.84	-0.750			
0.9366	59940.83	3.2660	3.2661	-0.1541	26.40	0.84	-0.750			
0.9370	59969.76	3.2630	3.2630	-0.1497	26.40	0.84	-0.750			
0.9375	59998.18	3.2600	3.2599	-0.1464	26.40	0.84	-0.750			
0.9379	60026.17	3.2570	3.2570	-0.1428	26.41	0.85	-0.750			
0.9383	60053.08	3.2540	3.2541	-0.1389	26.41	0.85	-0.750			
0.9387	60079.29	3.2510	3.2509	-0.1362	26.41	0.85	-0.750			
0.9391	60105.14	3.2480	3.2480	-0.1331	26.41	0.85	-0.750			
0.9395	60130.15	3.2450	3.2451	-0.1306	26.41	0.85	-0.750			
0.9399	60154.79	3.2420	3.2419	-0.1278	26.42	0.86	-0.750			
0.9403	60179.15	3.2390	3.2389	-0.1259	26.42	0.86	-0.750			
0.9407	60203.19	3.2360	3.2361	-0.1236	26.42	0.86	-0.750			
0.9410	60226.86	3.2330	3.2330	-0.1216	26.42	0.86	-0.750			
0.9414	60250.01	3.2300	3.2300	-0.1195	26.43	0.87	-0.750			
0.9418	60272.60	3.2270	3.2270	-0.1169	26.43	0.87	-0.750			
0.9421	60294.89	3.2240	3.2240	-0.1146	26.43	0.87	-0.750			
0.9424	60316.70	3.2210	3.2210	-0.1124	26.43	0.87	-0.750			
0.9428	60338.07	3.2180	3.2180	-0.1102	26.43	0.87	-0.750			
0.9431	60358.96	3.2150	3.2150	-0.1082	26.43	0.87	-0.750			
0.9434	60379.37	3.2120	3.2122	-0.1066	26.44	0.88	-0.750			
0.9437	60399.55	3.2090	3.2091	-0.1047	26.44	0.88	-0.750			
0.9441	60419.53	3.2060	3.2060	-0.1032	26.44	0.88	-0.750			
0.9444	60439.07	3.2030	3.2029	-0.1015	26.44	0.88	-0.750			
0.9447	60458.47	3.2000	3.2000	-0.1001	26.45	0.89	-0.750			
0.9450	60477.66	3.1970	3.1970	-0.0989	26.45	0.89	-0.750			
0.9453	60496.36	3.1940	3.1941	-0.0978	26.46	0.90	-0.750			
0.9455	60514.97	3.1910	3.1910	-0.0965	26.46	0.90	-0.750			
0.9458	60533.41	3.1880	3.1879	-0.0953	26.46	0.90	-0.750			
0.9461	60551.46	3.1850	3.1850	-0.0939	26.47	0.91	-0.750			
0.9464	60569.39	3.1820	3.1820	-0.0929	26.47	0.91	-0.750			
0.9467	60587.27	3.1790	3.1790	-0.0917	26.47	0.91	-0.750			
0.9469	60604.74	3.1760	3.1762	-0.0904	26.48	0.92	-0.750			
0.9472	60621.98	3.1730	3.1730	-0.0894	26.48	0.92	-0.750			
0.9475	60639.03	3.1700	3.1701	-0.0881	26.48	0.92	-0.750			
0.9477	60655.65	3.1670	3.1669	-0.0869	26.49	0.93	-0.750			
0.9480	60672.26	3.1640	3.1641	-0.0861	26.49	0.93	-0.750			
