Ah_balance (normalized)	Ah_balance (mAh)	Voltage - fit (V)	Voltage -  interpolate (V)	dQ/dV (1/V)	Temperature (°C)	Temperature - diff (°C)	Current (C)	R_DC 0ms (mOhm)	R_DC 50ms (mOhm)	R_DC 50 ms PEC (mOhm)
0.0005	29.42	4.1650	4.1649	-0.1553	25.55	0.00	-0.750			
0.0010	64.30	4.1620	4.1620	-0.2020	25.55	0.00	-0.750			
0.0017	107.22	4.1590	4.1590	-0.2459	25.55	0.00	-0.750			
0.0025	158.74	4.1560	4.1560	-0.2894	25.55	-0.00	-0.750			
0.0034	218.42	4.1530	4.1530	-0.3336	25.55	-0.00	-0.750			
0.0045	286.92	4.1500	4.1500	-0.3769	25.54	-0.01	-0.750			
0.0057	363.70	4.1470	4.1470	-0.4196	25.54	-0.01	-0.750			
0.0070	449.15	4.1440	4.1440	-0.4592	25.54	-0.01	-0.750			
0.0085	542.18	4.1410	4.1410	-0.5001	25.53	-0.02	-0.750			
0.0100	643.10	4.1380	4.1379	-0.5369	25.53	-0.02	-0.750			
0.0117	750.69	4.1350	4.1350	-0.5668	25.53	-0.02	-0.750			
0.0135	863.57	4.1320	4.1320	-0.5924	25.52	-0.03	-0.750			
0.0153	980.88	4.1290	4.1289	-0.6103	25.52	-0.03	-0.750			
0.0172	1100.69	4.1260	4.1260	-0.6282	25.52	-0.03	-0.750			
0.0191	1222.28	4.1230	4.1230	-0.6437	25.51	-0.04	-0.750			
0.0210	1345.58	4.1200	4.1200	-0.6615	25.51	-0.04	-0.750			
0.0231	1476.15	4.1170	4.1169	-0.6763	25.51	-0.04	-0.750			
0.0251	1607.73	4.1140	4.1140	-0.6934	25.50	-0.05	-0.750			
0.0272	1742.79	4.1110	4.1112	-0.7038	25.50	-0.05	-0.750			
0.0294	1881.15	4.1080	4.1077	-0.7158	25.50	-0.05	-0.750			
0.0315	2018.34	4.1050	4.1051	-0.7226	25.49	-0.06	-0.750			
0.0337	2157.59	4.1020	4.1020	-0.7264	25.49	-0.06	-0.750			
0.0359	2298.69	4.0990	4.0990	-0.7343	25.49	-0.06	-0.750			
0.0381	2440.87	4.0960	4.0958	-0.7383	25.48	-0.07	-0.750			
0.0403	2581.81	4.0930	4.0930	-0.7387	25.48	-0.07	-0.750			
0.0426	2724.29	4.0900	4.0900	-0.7436	25.48	-0.07	-0.750			
0.0448	2866.78	4.0870	4.0870	-0.7519	25.48	-0.07	-0.750			
0.0471	3011.45	4.0840	4.0840	-0.7511	25.48	-0.07	-0.750			
0.0493	3157.82	4.0810	4.0809	-0.7582	25.48	-0.07	-0.750			
0.0516	3303.71	4.0780	4.0782	-0.7623	25.48	-0.07	-0.750			
0.0539	3450.49	4.0750	4.0749	-0.7668	25.48	-0.07	-0.750			
0.0562	3598.38	4.0720	4.0720	-0.7711	25.48	-0.07	-0.750			
0.0585	3746.98	4.0690	4.0690	-0.7694	25.48	-0.07	-0.750			
0.0609	3895.20	4.0660	4.0659	-0.7746	25.48	-0.07	-0.750			
0.0632	4044.32	4.0630	4.0629	-0.7748	25.48	-0.07	-0.750			
0.0655	4192.08	4.0600	4.0600	-0.7743	25.48	-0.07	-0.750			
0.0678	4339.13	4.0570	4.0570	-0.7780	25.48	-0.07	-0.750			
0.0701	4487.99	4.0540	4.0540	-0.7802	25.48	-0.07	-0.750			
0.0725	4639.25	4.0510	4.0510	-0.7830	25.48	-0.07	-0.750			
0.0749	4790.98	4.0480	4.0480	-0.7896	25.48	-0.07	-0.750			
0.0773	4944.18	4.0450	4.0452	-0.7884	25.48	-0.07	-0.750			
0.0796	5096.35	4.0420	4.0420	-0.7882	25.48	-0.07	-0.750			
0.0820	5246.95	4.0390	4.0390	-0.7932	25.48	-0.07	-0.750			
0.0844	5399.82	4.0360	4.0361	-0.7924	25.48	-0.07	-0.750			
0.0867	5551.17	4.0330	4.0329	-0.7978	25.48	-0.07	-0.750			
0.0891	5704.74	4.0300	4.0303	-0.8021	25.48	-0.07	-0.750			
0.0916	5859.40	4.0270	4.0269	-0.8014	25.48	-0.07	-0.750			
0.0940	6014.66	4.0240	4.0239	-0.8056	25.48	-0.07	-0.750			
0.0964	6170.21	4.0210	4.0211	-0.8037	25.48	-0.07	-0.750			
0.0988	6324.88	4.0180	4.0180	-0.8086	25.48	-0.07	-0.750			
0.1013	6480.41	4.0150	4.0151	-0.8037	25.48	-0.07	-0.750			
0.1036	6631.96	4.0120	4.0119	-0.8009	25.48	-0.07	-0.750			
0.1060	6787.16	4.0090	4.0090	-0.8047	25.49	-0.06	-0.750			
0.1085	6942.85	4.0060	4.0060	-0.8073	25.49	-0.06	-0.750			
0.1109	7096.68	4.0030	4.0030	-0.8063	25.49	-0.06	-0.750			
0.1133	7253.02	4.0000	4.0001	-0.8107	25.50	-0.05	-0.750			
0.1157	7407.88	3.9970	3.9968	-0.8127	25.50	-0.05	-0.750			
0.1182	7564.30	3.9940	3.9940	-0.8175	25.50	-0.05	-0.750			
0.1206	7720.17	3.9910	3.9910	-0.8199	25.50	-0.05	-0.750			
0.1231	7878.29	3.9880	3.9880	-0.8244	25.50	-0.05	-0.750			
0.1256	8039.98	3.9850	3.9849	-0.8282	25.50	-0.05	-0.750			
0.1281	8199.09	3.9820	3.9821	-0.8282	25.50	-0.05	-0.750			
0.1306	8357.40	3.9790	3.9790	-0.8318	25.50	-0.05	-0.750			
0.1331	8517.47	3.9760	3.9761	-0.8313	25.51	-0.04	-0.750			
0.1356	8676.66	3.9730	3.9729	-0.8278	25.51	-0.04	-0.750			
0.1381	8836.59	3.9700	3.9700	-0.8283	25.51	-0.04	-0.750			
0.1406	8995.67	3.9670	3.9670	-0.8312	25.51	-0.04	-0.750			
0.1430	9154.36	3.9640	3.9640	-0.8359	25.51	-0.04	-0.750			
0.1455	9314.96	3.9610	3.9610	-0.8367	25.52	-0.03	-0.750			
0.1481	9475.35	3.9580	3.9579	-0.8380	25.52	-0.03	-0.750			
0.1506	9639.09	3.9550	3.9549	-0.8327	25.52	-0.03	-0.750			
0.1531	9800.47	3.9520	3.9520	-0.8273	25.52	-0.03	-0.750			
0.1556	9956.64	3.9490	3.9491	-0.8290	25.53	-0.02	-0.750			
0.1580	10111.85	3.9460	3.9458	-0.8314	25.53	-0.02	-0.750			
0.1605	10270.30	3.9430	3.9430	-0.8352	25.53	-0.02	-0.750			
0.1630	10433.88	3.9400	3.9398	-0.8429	25.54	-0.01	-0.750			
0.1656	10597.90	3.9370	3.9371	-0.8521	25.54	-0.01	-0.750			
0.1682	10764.39	3.9340	3.9340	-0.8644	25.54	-0.01	-0.750			
0.1708	10931.38	3.9310	3.9309	-0.8647	25.55	-0.00	-0.750			
0.1734	11095.02	3.9280	3.9279	-0.8592	25.55	-0.00	-0.750			
0.1760	11262.10	3.9250	3.9250	-0.8615	25.55	-0.00	-0.750			
0.1786	11428.40	3.9220	3.9219	-0.8643	25.55	0.00	-0.750			
0.1812	11594.29	3.9190	3.9190	-0.8694	25.56	0.01	-0.750			
0.1837	11759.90	3.9160	3.9160	-0.8674	25.56	0.01	-0.750			
0.1863	11925.82	3.9130	3.9129	-0.8666	25.57	0.02	-0.750			
0.1890	12095.87	3.9100	3.9102	-0.8718	25.57	0.02	-0.750			
0.1916	12262.17	3.9070	3.9069	-0.8729	25.57	0.02	-0.750			
0.1942	12429.57	3.9040	3.9041	-0.8774	25.57	0.02	-0.750			
0.1968	12597.05	3.9010	3.9010	-0.8789	25.58	0.03	-0.750			
0.1995	12767.31	3.8980	3.8979	-0.8856	25.58	0.03	-0.750			
0.2022	12938.06	3.8950	3.8950	-0.8857	25.58	0.03	-0.750			
0.2048	13107.21	3.8920	3.8921	-0.8888	25.58	0.03	-0.750			
0.2075	13280.29	3.8890	3.8889	-0.8881	25.59	0.04	-0.750			
0.2102	13449.96	3.8860	3.8860	-0.8859	25.59	0.04	-0.750			
0.2128	13619.76	3.8830	3.8829	-0.8794	25.60	0.05	-0.750			
0.2154	13787.82	3.8800	3.8800	-0.8812	25.60	0.05	-0.750			
0.2181	13957.45	3.8770	3.8770	-0.8840	25.60	0.05	-0.750			
0.2207	14126.21	3.8740	3.8741	-0.8853	25.60	0.05	-0.750			
0.2234	14295.58	3.8710	3.8709	-0.8892	25.60	0.05	-0.750			
0.2261	14468.75	3.8680	3.8681	-0.8950	25.60	0.05	-0.750			
0.2288	14640.68	3.8650	3.8649	-0.8986	25.60	0.05	-0.750			
0.2315	14814.74	3.8620	3.8621	-0.9015	25.61	0.06	-0.750			
0.2342	14987.20	3.8590	3.8590	-0.8995	25.62	0.07	-0.750			
0.2369	15160.57	3.8560	3.8560	-0.9003	25.62	0.07	-0.750			
0.2396	15333.63	3.8530	3.8531	-0.9001	25.63	0.08	-0.750			
0.2423	15504.88	3.8500	3.8500	-0.9060	25.63	0.08	-0.750			
0.2450	15681.72	3.8470	3.8470	-0.9036	25.63	0.08	-0.750			
0.2477	15855.05	3.8440	3.8439	-0.8981	25.64	0.09	-0.750			
0.2504	16027.17	3.8410	3.8411	-0.9004	25.64	0.09	-0.750			
0.2531	16199.34	3.8380	3.8380	-0.9001	25.64	0.09	-0.750			
0.2558	16370.87	3.8350	3.8349	-0.9031	25.65	0.10	-0.750			
0.2585	16543.67	3.8320	3.8319	-0.9061	25.65	0.10	-0.750			
0.2612	16717.33	3.8290	3.8291	-0.9065	25.66	0.11	-0.750			
0.2640	16894.91	3.8260	3.8260	-0.9145	25.66	0.11	-0.750			
0.2667	17070.46	3.8230	3.8230	-0.9209	25.66	0.11	-0.750			
0.2695	17247.66	3.8200	3.8200	-0.9187	25.66	0.11	-0.750			
0.2722	17423.66	3.8170	3.8169	-0.9171	25.67	0.12	-0.750			
0.2750	17600.38	3.8140	3.8138	-0.9130	25.67	0.12	-0.750			
0.2778	17776.27	3.8110	3.8111	-0.9110	25.67	0.12	-0.750			
0.2805	17950.56	3.8080	3.8080	-0.9171	25.68	0.13	-0.750			
0.2832	18126.88	3.8050	3.8049	-0.9142	25.69	0.14	-0.750			
0.2859	18299.41	3.8020	3.8019	-0.9095	25.69	0.14	-0.750			
0.2887	18476.84	3.7990	3.7993	-0.9214	25.70	0.15	-0.750			
0.2915	18654.55	3.7960	3.7959	-0.9251	25.70	0.15	-0.750			
0.2943	18833.07	3.7930	3.7929	-0.9253	25.70	0.15	-0.750			
0.2970	19010.23	3.7900	3.7900	-0.9201	25.71	0.16	-0.750			
0.2998	19185.14	3.7870	3.7871	-0.9190	25.71	0.16	-0.750			
0.3026	19365.70	3.7840	3.7840	-0.9213	25.71	0.16	-0.750			
0.3053	19541.26	3.7810	3.7809	-0.9201	25.71	0.16	-0.750			
0.3081	19716.65	3.7780	3.7780	-0.9173	25.72	0.17	-0.750			
0.3108	19893.87	3.7750	3.7749	-0.9145	25.72	0.17	-0.750			
0.3136	20069.58	3.7720	3.7721	-0.9159	25.72	0.17	-0.750			
0.3163	20243.93	3.7690	3.7690	-0.9183	25.72	0.17	-0.750			
0.3190	20418.95	3.7660	3.7660	-0.9182	25.73	0.18	-0.750			
0.3218	20596.12	3.7630	3.7629	-0.9195	25.73	0.18	-0.750			
0.3246	20771.47	3.7600	3.7599	-0.9199	25.74	0.19	-0.750			
0.3274	20950.84	3.7570	3.7572	-0.9238	25.74	0.19	-0.750			
0.3301	21129.34	3.7540	3.7540	-0.9263	25.74	0.19	-0.750			
0.3329	21306.25	3.7510	3.7510	-0.9260	25.74	0.19	-0.750			
0.3357	21484.38	3.7480	3.7479	-0.9257	25.75	0.20	-0.750			
0.3385	21661.79	3.7450	3.7451	-0.9259	25.75	0.20	-0.750			
0.3412	21837.70	3.7420	3.7419	-0.9371	25.75	0.20	-0.750			
0.3440	22017.33	3.7390	3.7390	-0.9445	25.76	0.21	-0.750			
0.3469	22199.80	3.7360	3.7359	-0.9534	25.76	0.21	-0.750			
0.3498	22384.09	3.7330	3.7329	-0.9550	25.77	0.22	-0.750			
0.3527	22570.26	3.7300	3.7302	-0.9650	25.77	0.22	-0.750			
0.3556	22757.31	3.7270	3.7270	-0.9780	25.78	0.23	-0.750			
0.3585	22945.37	3.7240	3.7239	-0.9799	25.78	0.23	-0.750			
0.3614	23130.90	3.7210	3.7209	-0.9768	25.79	0.24	-0.750			
0.3644	23320.64	3.7180	3.7183	-0.9889	25.79	0.24	-0.750			
0.3674	23511.86	3.7150	3.7149	-1.0018	25.79	0.24	-0.750			
0.3704	23704.55	3.7120	3.7120	-1.0138	25.79	0.24	-0.750			
0.3734	23897.46	3.7090	3.7089	-1.0204	25.79	0.24	-0.750			
0.3765	24095.59	3.7060	3.7061	-1.0445	25.79	0.24	-0.750			
0.3797	24298.80	3.7030	3.7030	-1.0724	25.79	0.24	-0.750			
0.3829	24508.25	3.7000	3.6999	-1.0865	25.79	0.24	-0.750			
0.3862	24718.93	3.6970	3.6969	-1.1019	25.79	0.24	-0.750			
0.3895	24929.55	3.6940	3.6944	-1.1275	25.79	0.24	-0.750			
0.3930	25149.21	3.6910	3.6909	-1.1454	25.79	0.24	-0.750			
0.3964	25371.58	3.6880	3.6879	-1.1638	25.79	0.24	-0.750			
0.3999	25591.92	3.6850	3.6850	-1.1831	25.79	0.24	-0.750			
0.4035	25825.32	3.6820	3.6820	-1.2137	25.79	0.24	-0.750			
0.4072	26059.87	3.6790	3.6789	-1.2357	25.78	0.23	-0.750			
0.4109	26297.04	3.6760	3.6759	-1.2570	25.78	0.23	-0.750			
0.4147	26538.07	3.6730	3.6733	-1.2879	25.77	0.22	-0.750			
0.4186	26791.94	3.6700	3.6699	-1.3266	25.77	0.22	-0.750			
0.4227	27051.33	3.6670	3.6669	-1.3527	25.77	0.22	-0.750			
0.4268	27313.53	3.6640	3.6642	-1.3857	25.77	0.22	-0.750			
0.4310	27582.76	3.6610	3.6610	-1.4196	25.76	0.21	-0.750			
0.4353	27856.01	3.6580	3.6580	-1.4551	25.76	0.21	-0.750			
0.4396	28136.60	3.6550	3.6551	-1.4877	25.75	0.20	-0.750			
0.4442	28428.19	3.6520	3.6519	-1.5225	25.75	0.20	-0.750			
0.4488	28724.44	3.6490	3.6490	-1.5639	25.75	0.20	-0.750			
0.4536	29030.12	3.6460	3.6459	-1.6061	25.75	0.20	-0.750			
0.4585	29341.81	3.6430	3.6430	-1.6465	25.73	0.18	-0.750			
0.4635	29661.67	3.6400	3.6400	-1.6786	25.72	0.17	-0.750			
0.4686	29987.45	3.6370	3.6370	-1.7168	25.71	0.16	-0.750			
0.4738	30320.82	3.6340	3.6339	-1.7606	25.71	0.16	-0.750			
0.4791	30660.67	3.6310	3.6309	-1.8004	25.70	0.15	-0.750	0.407	0.494	
0.4845	31008.02	3.6280	3.6282	-1.8329	25.70	0.15	-0.750			
0.4901	31365.97	3.6250	3.6250	-1.8653	25.69	0.14	-0.750			
0.4958	31730.32	3.6220	3.6221	-1.8996	25.68	0.13	-0.750			
0.5016	32099.50	3.6190	3.6189	-1.9329	25.67	0.12	-0.750			
0.5073	32469.25	3.6160	3.6159	-1.9568	25.67	0.12	-0.750			
0.5133	32848.50	3.6130	3.6130	-1.9856	25.66	0.11	-0.750			
0.5193	33233.89	3.6100	3.6101	-2.0294	25.66	0.11	-0.750			
0.5254	33625.70	3.6070	3.6070	-2.0692	25.65	0.10	-0.750			
0.5317	34029.05	3.6040	3.6040	-2.0987	25.65	0.10	-0.750			
0.5381	34436.95	3.6010	3.6011	-2.1291	25.64	0.09	-0.750			
0.5445	34845.68	3.5980	3.5980	-2.1673	25.63	0.08	-0.750			
0.5511	35269.24	3.5950	3.5950	-2.1964	25.62	0.07	-0.750			
0.5577	35693.39	3.5920	3.5919	-2.2289	25.62	0.07	-0.750			
0.5644	36122.60	3.5890	3.5890	-2.2640	25.62	0.07	-0.750			
0.5713	36562.85	3.5860	3.5861	-2.2998	25.61	0.06	-0.750			
0.5783	37014.32	3.5830	3.5831	-2.3335	25.61	0.06	-0.750			
0.5854	37463.89	3.5800	3.5801	-2.3547	25.61	0.06	-0.750			
0.5924	37915.11	3.5770	3.5771	-2.3789	25.61	0.06	-0.750			
0.5997	38380.95	3.5740	3.5740	-2.4102	25.61	0.06	-0.750			
0.6069	38844.24	3.5710	3.5710	-2.4190	25.61	0.06	-0.750			
0.6142	39309.49	3.5680	3.5680	-2.4278	25.61	0.06	-0.750			
0.6215	39773.94	3.5650	3.5650	-2.4509	25.60	0.05	-0.750			
0.6288	40245.20	3.5620	3.5619	-2.4667	25.60	0.05	-0.750			
0.6364	40727.40	3.5590	3.5589	-2.4604	25.60	0.05	-0.750			
0.6438	41205.19	3.5560	3.5561	-2.4503	25.60	0.05	-0.750			
0.6512	41674.88	3.5530	3.5531	-2.4311	25.60	0.05	-0.750			
0.6584	42137.95	3.5500	3.5499	-2.3934	25.61	0.06	-0.750			
0.6655	42590.55	3.5470	3.5470	-2.3621	25.61	0.06	-0.750			
0.6724	43036.26	3.5440	3.5440	-2.3431	25.62	0.07	-0.750			
0.6795	43489.67	3.5410	3.5410	-2.3283	25.62	0.07	-0.750			
0.6866	43942.68	3.5380	3.5379	-2.2947	25.64	0.09	-0.750			
0.6935	44381.75	3.5350	3.5351	-2.2395	25.64	0.09	-0.750			
0.7001	44808.47	3.5320	3.5321	-2.1851	25.65	0.10	-0.750			
0.7066	45221.84	3.5290	3.5288	-2.1311	25.65	0.10	-0.750			
0.7128	45618.21	3.5260	3.5260	-2.0676	25.66	0.11	-0.750			
0.7189	46012.02	3.5230	3.5230	-1.9964	25.67	0.12	-0.750			
0.7249	46393.01	3.5200	3.5200	-1.9274	25.68	0.13	-0.750			
0.7306	46761.55	3.5170	3.5171	-1.8732	25.69	0.14	-0.750			
0.7361	47112.97	3.5140	3.5138	-1.8020	25.70	0.15	-0.750			
0.7414	47449.89	3.5110	3.5109	-1.7245	25.71	0.16	-0.750			
0.7464	47772.54	3.5080	3.5080	-1.6631	25.72	0.17	-0.750			
0.7513	48085.99	3.5050	3.5050	-1.6106	25.74	0.19	-0.750			
0.7561	48392.30	3.5020	3.5019	-1.5520	25.76	0.21	-0.750			
0.7607	48684.08	3.4990	3.4991	-1.4960	25.78	0.23	-0.750			
0.7650	48961.53	3.4960	3.4962	-1.4477	25.79	0.24	-0.750			
0.7693	49238.24	3.4930	3.4929	-1.4011	25.80	0.25	-0.750			
0.7735	49506.14	3.4900	3.4899	-1.3473	25.81	0.26	-0.750			
0.7775	49756.82	3.4870	3.4872	-1.3066	25.82	0.27	-0.750			
0.7813	50004.90	3.4840	3.4840	-1.2674	25.84	0.29	-0.750			
0.7851	50243.43	3.4810	3.4808	-1.2263	25.85	0.30	-0.750			
0.7886	50471.22	3.4780	3.4780	-1.1797	25.87	0.32	-0.750			
0.7921	50697.26	3.4750	3.4750	-1.1424	25.88	0.33	-0.750			
0.7955	50912.85	3.4720	3.4721	-1.1019	25.90	0.35	-0.750			
0.7988	51121.90	3.4690	3.4689	-1.0619	25.91	0.36	-0.750			
0.8018	51316.72	3.4660	3.4662	-1.0205	25.92	0.37	-0.750			
0.8048	51507.20	3.4630	3.4629	-0.9938	25.93	0.38	-0.750			
0.8077	51692.57	3.4600	3.4600	-0.9759	25.94	0.39	-0.750			
0.8105	51875.12	3.4570	3.4570	-0.9706	25.95	0.40	-0.750			
0.8134	52059.57	3.4540	3.4540	-0.9828	25.96	0.41	-0.750			
0.8163	52244.90	3.4510	3.4509	-1.0034	25.97	0.42	-0.750			
0.8193	52436.96	3.4480	3.4480	-1.0319	25.98	0.43	-0.750			
0.8224	52635.68	3.4450	3.4449	-1.0787	25.99	0.44	-0.750			
0.8257	52842.68	3.4420	3.4420	-1.1418	26.00	0.45	-0.750			
0.8292	53070.88	3.4390	3.4390	-1.1939	26.01	0.46	-0.750			
0.8330	53309.48	3.4360	3.4359	-1.2401	26.01	0.46	-0.750			
0.8368	53558.05	3.4330	3.4329	-1.2710	26.02	0.47	-0.750			
0.8408	53810.54	3.4300	3.4301	-1.2787	26.03	0.48	-0.750			
0.8447	54063.96	3.4270	3.4270	-1.2700	26.04	0.49	-0.750			
0.8485	54306.06	3.4240	3.4240	-1.2313	26.04	0.49	-0.750			
0.8521	54536.24	3.4210	3.4213	-1.1885	26.05	0.50	-0.750			
0.8557	54765.21	3.4180	3.4180	-1.1519	26.06	0.51	-0.750			
0.8591	54982.19	3.4150	3.4150	-1.1060	26.06	0.51	-0.750			
0.8623	55188.45	3.4120	3.4120	-1.0584	26.07	0.52	-0.750			
0.8654	55388.15	3.4090	3.4090	-1.0202	26.07	0.52	-0.750			
0.8684	55577.55	3.4060	3.4060	-0.9831	26.08	0.53	-0.750			
0.8713	55762.40	3.4030	3.4029	-0.9468	26.09	0.54	-0.750			
0.8741	55939.51	3.4000	3.4000	-0.9113	26.10	0.55	-0.750			
0.8768	56113.29	3.3970	3.3971	-0.8798	26.11	0.56	-0.750			
0.8794	56280.03	3.3940	3.3940	-0.8448	26.12	0.57	-0.750			
0.8818	56437.96	3.3910	3.3910	-0.8120	26.12	0.57	-0.750			
0.8842	56587.88	3.3880	3.3880	-0.7765	26.13	0.58	-0.750			
0.8864	56732.70	3.3850	3.3850	-0.7505	26.13	0.58	-0.750			
0.8887	56874.65	3.3820	3.3818	-0.7238	26.14	0.59	-0.750			
0.8908	57011.55	3.3790	3.3790	-0.6982	26.15	0.60	-0.750			
0.8929	57144.06	3.3760	3.3760	-0.6732	26.15	0.60	-0.750			
0.8949	57271.32	3.3730	3.3730	-0.6453	26.16	0.61	-0.750			
0.8967	57391.99	3.3700	3.3700	-0.6129	26.16	0.61	-0.750			
0.8985	57506.97	3.3670	3.3670	-0.5817	26.17	0.62	-0.750			
0.9002	57614.36	3.3640	3.3639	-0.5541	26.18	0.63	-0.750			
0.9018	57717.59	3.3610	3.3611	-0.5295	26.18	0.63	-0.750			
0.9034	57815.38	3.3580	3.3579	-0.5065	26.19	0.64	-0.750			
0.9049	57910.61	3.3550	3.3549	-0.4856	26.19	0.64	-0.750			
0.9063	58002.53	3.3520	3.3521	-0.4659	26.19	0.64	-0.750			
0.9077	58090.01	3.3490	3.3489	-0.4478	26.20	0.65	-0.750			
0.9090	58174.02	3.3460	3.3460	-0.4287	26.20	0.65	-0.750			
0.9102	58252.93	3.3430	3.3430	-0.4081	26.21	0.66	-0.750			
0.9114	58330.17	3.3400	3.3399	-0.3911	26.21	0.66	-0.750			
0.9126	58403.35	3.3370	3.3370	-0.3729	26.21	0.66	-0.750			
0.9137	58474.00	3.3340	3.3340	-0.3570	26.22	0.67	-0.750			
0.9147	58541.05	3.3310	3.3310	-0.3408	26.22	0.67	-0.750			
0.9157	58604.17	3.3280	3.3280	-0.3238	26.23	0.68	-0.750			
0.9166	58664.11	3.3250	3.3250	-0.3075	26.23	0.68	-0.750			
0.9175	58721.20	3.3220	3.3220	-0.2953	26.24	0.69	-0.750			
0.9184	58776.56	3.3190	3.3189	-0.2846	26.24	0.69	-0.750			
0.9192	58829.85	3.3160	3.3160	-0.2735	26.25	0.70	-0.750			
0.9200	58881.53	3.3130	3.3130	-0.2628	26.25	0.70	-0.750			
0.9208	58931.19	3.3100	3.3100	-0.2531	26.26	0.71	-0.750			
0.9215	58978.94	3.3070	3.3071	-0.2440	26.26	0.71	-0.750			
0.9223	59024.54	3.3040	3.3039	-0.2336	26.27	0.72	-0.750			
0.9229	59067.71	3.3010	3.3010	-0.2246	26.27	0.72	-0.750			
0.9236	59109.48	3.2980	3.2980	-0.2166	26.27	0.72	-0.750			
0.9242	59150.54	3.2950	3.2950	-0.2103	26.28	0.73	-0.750			
0.9248	59190.30	3.2920	3.2920	-0.2039	26.28	0.73	-0.750			
0.9255	59228.87	3.2890	3.2890	-0.1976	26.28	0.73	-0.750			
0.9260	59266.02	3.2860	3.2860	-0.1913	26.29	0.74	-0.750			
0.9266	59302.02	3.2830	3.2830	-0.1856	26.29	0.74	-0.750			
0.9271	59337.11	3.2800	3.2800	-0.1799	26.29	0.74	-0.750			
0.9277	59370.92	3.2770	3.2770	-0.1748	26.30	0.75	-0.750			
0.9282	59403.76	3.2740	3.2740	-0.1697	26.30	0.75	-0.750			
0.9287	59435.89	3.2710	3.2710	-0.1652	26.31	0.76	-0.750			
0.9292	59467.19	3.2680	3.2680	-0.1608	26.31	0.76	-0.750			
0.9296	59497.47	3.2650	3.2650	-0.1572	26.31	0.76	-0.750			
0.9301	59527.28	3.2620	3.2621	-0.1531	26.32	0.77	-0.750			
0.9306	59556.21	3.2590	3.2589	-0.1493	26.32	0.77	-0.750			
0.9310	59584.55	3.2560	3.2560	-0.1458	26.32	0.77	-0.750			
0.9314	59612.09	3.2530	3.2531	-0.1428	26.33	0.78	-0.750			
0.9319	59639.02	3.2500	3.2500	-0.1400	26.33	0.78	-0.750			
0.9323	59665.56	3.2470	3.2470	-0.1373	26.33	0.78	-0.750			
0.9327	59691.78	3.2440	3.2439	-0.1343	26.34	0.79	-0.750			
0.9331	59717.21	3.2410	3.2410	-0.1312	26.34	0.79	-0.750			
0.9335	59742.39	3.2380	3.2380	-0.1290	26.34	0.79	-0.750			
0.9339	59766.58	3.2350	3.2351	-0.1270	26.35	0.80	-0.750			
0.9342	59790.59	3.2320	3.2320	-0.1246	26.35	0.80	-0.750			
0.9346	59814.13	3.2290	3.2289	-0.1222	26.35	0.80	-0.750			
0.9350	59837.21	3.2260	3.2259	-0.1201	26.36	0.81	-0.750			
0.9353	59860.23	3.2230	3.2230	-0.1184	26.36	0.81	-0.750			
0.9357	59883.00	3.2200	3.2201	-0.1170	26.36	0.81	-0.750			
0.9360	59905.31	3.2170	3.2171	-0.1150	26.36	0.81	-0.750			
0.9364	59927.37	3.2140	3.2138	-0.1132	26.37	0.82	-0.750			
0.9367	59948.70	3.2110	3.2110	-0.1115	26.37	0.82	-0.750			
0.9370	59969.60	3.2080	3.2081	-0.1092	26.37	0.82	-0.750			
0.9374	59990.57	3.2050	3.2049	-0.1074	26.38	0.83	-0.750			
0.9377	60011.15	3.2020	3.2019	-0.1059	26.38	0.83	-0.750			
0.9380	60031.31	3.1990	3.1990	-0.1041	26.38	0.83	-0.750			
0.9383	60050.91	3.1960	3.1961	-0.1032	26.38	0.83	-0.750			
0.9386	60070.62	3.1930	3.1931	-0.1022	26.39	0.84	-0.750			
0.9389	60090.07	3.1900	3.1899	-0.1010	26.39	0.84	-0.750			
0.9392	60109.37	3.1870	3.1870	-0.1000	26.39	0.84	-0.750			
0.9395	60128.44	3.1840	3.1841	-0.0985	26.39	0.84	-0.750			
0.9398	60147.26	3.1810	3.1809	-0.0975	26.40	0.85	-0.750			
0.9401	60166.18	3.1780	3.1780	-0.0967	26.40	0.85	-0.750			
0.9404	60184.59	3.1750	3.1750	-0.0951	26.40	0.85	-0.750			
0.9407	60202.51	3.1720	3.1720	-0.0935	26.40	0.85	-0.750			
0.9409	60220.35	3.1690	3.1690	-0.0923	26.41	0.86	-0.750			
0.9412	60237.87	3.1660	3.1661	-0.0914	26.41	0.86	-0.750			
0.9415	60255.32	3.1630	3.1629	-0.0904	26.41	0.86	-0.750			
