Ah_balance (normalized)	Ah_balance (mAh)	Voltage - fit (V)	Voltage -  interpolate (V)	dQ/dV (1/V)	Temperature (°C)	Temperature - diff (°C)	Current (C)	R_DC 0ms (mOhm)	R_DC 50ms (mOhm)	R_DC 50 ms PEC (mOhm)
0.0002	14.48	4.1610	4.1603	-0.1275	25.82	0.01	-0.750			
0.0007	42.94	4.1580	4.1579	-0.1640	25.82	0.01	-0.750			
0.0012	75.91	4.1550	4.1550	-0.1973	25.82	0.01	-0.750			
0.0018	117.86	4.1520	4.1521	-0.2344	25.82	0.01	-0.750			
0.0026	166.26	4.1490	4.1490	-0.2715	25.82	0.01	-0.750			
0.0035	222.24	4.1460	4.1460	-0.3070	25.82	0.01	-0.750			
0.0044	284.37	4.1430	4.1431	-0.3444	25.82	0.01	-0.750			
0.0055	354.95	4.1400	4.1400	-0.3744	25.82	0.01	-0.750			
0.0067	430.54	4.1370	4.1370	-0.4078	25.81	0.00	-0.750			
0.0080	512.08	4.1340	4.1340	-0.4356	25.81	0.00	-0.750			
0.0094	599.27	4.1310	4.1310	-0.4632	25.81	-0.00	-0.750			
0.0108	691.94	4.1280	4.1279	-0.4848	25.81	-0.00	-0.750			
0.0123	787.19	4.1250	4.1250	-0.5079	25.80	-0.01	-0.750			
0.0139	887.49	4.1220	4.1220	-0.5249	25.80	-0.01	-0.750			
0.0155	991.09	4.1190	4.1189	-0.5442	25.80	-0.01	-0.750			
0.0171	1096.96	4.1160	4.1160	-0.5575	25.80	-0.01	-0.750			
0.0188	1206.11	4.1130	4.1131	-0.5725	25.79	-0.02	-0.750			
0.0206	1317.29	4.1100	4.1099	-0.5893	25.79	-0.02	-0.750			
0.0224	1432.40	4.1070	4.1071	-0.6022	25.79	-0.02	-0.750			
0.0242	1549.27	4.1040	4.1039	-0.6103	25.79	-0.02	-0.750			
0.0261	1669.06	4.1010	4.1010	-0.6180	25.78	-0.03	-0.750			
0.0279	1788.18	4.0980	4.0981	-0.6255	25.78	-0.03	-0.750			
0.0298	1908.80	4.0950	4.0951	-0.6334	25.78	-0.03	-0.750			
0.0317	2031.80	4.0920	4.0919	-0.6385	25.77	-0.04	-0.750			
0.0337	2153.80	4.0890	4.0889	-0.6463	25.77	-0.04	-0.750			
0.0356	2279.08	4.0860	4.0861	-0.6553	25.77	-0.04	-0.750			
0.0376	2406.40	4.0830	4.0831	-0.6603	25.76	-0.05	-0.750			
0.0396	2534.37	4.0800	4.0799	-0.6739	25.76	-0.05	-0.750			
0.0416	2664.41	4.0770	4.0770	-0.6768	25.76	-0.05	-0.750			
0.0437	2795.45	4.0740	4.0739	-0.6775	25.75	-0.06	-0.750			
0.0457	2925.96	4.0710	4.0710	-0.6816	25.75	-0.06	-0.750			
0.0478	3058.13	4.0680	4.0680	-0.6807	25.75	-0.06	-0.750			
0.0498	3188.60	4.0650	4.0649	-0.6840	25.75	-0.06	-0.750			
0.0519	3319.63	4.0620	4.0620	-0.6858	25.75	-0.06	-0.750			
0.0539	3449.25	4.0590	4.0591	-0.6876	25.75	-0.06	-0.750			
0.0560	3584.33	4.0560	4.0559	-0.6940	25.75	-0.06	-0.750			
0.0581	3717.42	4.0530	4.0530	-0.7003	25.75	-0.06	-0.750			
0.0602	3851.55	4.0500	4.0500	-0.7029	25.75	-0.06	-0.750			
0.0623	3988.41	4.0470	4.0470	-0.7037	25.75	-0.06	-0.750			
0.0644	4123.66	4.0440	4.0441	-0.7098	25.75	-0.06	-0.750			
0.0666	4261.95	4.0410	4.0410	-0.7098	25.75	-0.06	-0.750			
0.0687	4398.55	4.0380	4.0379	-0.7091	25.75	-0.06	-0.750			
0.0709	4535.82	4.0350	4.0353	-0.7039	25.75	-0.06	-0.750			
0.0730	4669.32	4.0320	4.0319	-0.7021	25.75	-0.06	-0.750			
0.0751	4803.25	4.0290	4.0289	-0.7045	25.75	-0.06	-0.750			
0.0772	4938.13	4.0260	4.0260	-0.7153	25.75	-0.06	-0.750			
0.0793	5074.65	4.0230	4.0231	-0.7136	25.76	-0.05	-0.750			
0.0815	5216.26	4.0200	4.0199	-0.7257	25.76	-0.05	-0.750			
0.0837	5356.11	4.0170	4.0175	-0.7278	25.76	-0.05	-0.750			
0.0859	5497.97	4.0140	4.0139	-0.7311	25.76	-0.05	-0.750			
0.0881	5636.40	4.0110	4.0109	-0.7279	25.76	-0.05	-0.750			
0.0902	5774.25	4.0080	4.0081	-0.7264	25.77	-0.04	-0.750			
0.0924	5915.92	4.0050	4.0050	-0.7314	25.77	-0.04	-0.750			
0.0946	6055.26	4.0020	4.0019	-0.7313	25.77	-0.04	-0.750			
0.0968	6195.19	3.9990	3.9991	-0.7272	25.77	-0.04	-0.750			
0.0990	6334.92	3.9960	3.9959	-0.7277	25.77	-0.04	-0.750			
0.1012	6474.26	3.9930	3.9931	-0.7363	25.77	-0.04	-0.750			
0.1034	6616.60	3.9900	3.9898	-0.7396	25.77	-0.04	-0.750			
0.1056	6758.52	3.9870	3.9870	-0.7445	25.77	-0.04	-0.750			
0.1079	6903.21	3.9840	3.9840	-0.7472	25.77	-0.04	-0.750			
0.1101	7047.22	3.9810	3.9810	-0.7486	25.77	-0.04	-0.750			
0.1124	7191.60	3.9780	3.9780	-0.7532	25.78	-0.03	-0.750			
0.1146	7335.07	3.9750	3.9750	-0.7497	25.78	-0.03	-0.750			
0.1168	7477.63	3.9720	3.9720	-0.7503	25.78	-0.03	-0.750			
0.1191	7624.67	3.9690	3.9689	-0.7544	25.79	-0.02	-0.750			
0.1214	7767.29	3.9660	3.9662	-0.7597	25.79	-0.02	-0.750			
0.1237	7914.25	3.9630	3.9631	-0.7643	25.79	-0.02	-0.750			
0.1260	8061.92	3.9600	3.9599	-0.7674	25.79	-0.02	-0.750			
0.1283	8209.74	3.9570	3.9570	-0.7697	25.80	-0.01	-0.750			
0.1306	8359.34	3.9540	3.9541	-0.7681	25.80	-0.01	-0.750			
0.1329	8506.03	3.9510	3.9509	-0.7628	25.80	-0.01	-0.750			
0.1352	8652.89	3.9480	3.9480	-0.7657	25.80	-0.01	-0.750			
0.1374	8796.21	3.9450	3.9450	-0.7658	25.80	-0.01	-0.750			
0.1397	8942.82	3.9420	3.9420	-0.7707	25.80	-0.01	-0.750			
0.1421	9091.35	3.9390	3.9390	-0.7743	25.81	-0.00	-0.750			
0.1444	9242.35	3.9360	3.9358	-0.7806	25.81	-0.00	-0.750			
0.1468	9394.37	3.9330	3.9332	-0.7836	25.81	0.00	-0.750			
0.1491	9544.45	3.9300	3.9299	-0.7826	25.81	0.00	-0.750			
0.1515	9693.32	3.9270	3.9270	-0.7843	25.81	0.00	-0.750			
0.1538	9844.77	3.9240	3.9240	-0.7880	25.82	0.01	-0.750			
0.1562	9996.05	3.9210	3.9209	-0.7902	25.82	0.01	-0.750			
0.1586	10148.19	3.9180	3.9181	-0.7924	25.82	0.01	-0.750			
0.1610	10300.88	3.9150	3.9150	-0.7941	25.83	0.02	-0.750			
0.1633	10453.55	3.9120	3.9121	-0.7947	25.83	0.02	-0.750			
0.1657	10606.08	3.9090	3.9090	-0.7929	25.84	0.03	-0.750			
0.1681	10758.22	3.9060	3.9059	-0.7920	25.84	0.03	-0.750			
0.1705	10911.09	3.9030	3.9031	-0.7926	25.85	0.04	-0.750			
0.1729	11062.93	3.9000	3.9000	-0.7930	25.85	0.04	-0.750			
0.1752	11214.09	3.8970	3.8971	-0.8000	25.85	0.04	-0.750			
0.1776	11368.97	3.8940	3.8938	-0.8006	25.85	0.04	-0.750			
0.1800	11522.45	3.8910	3.8910	-0.8021	25.85	0.04	-0.750			
0.1825	11678.96	3.8880	3.8880	-0.8032	25.85	0.04	-0.750			
0.1849	11832.39	3.8850	3.8850	-0.8036	25.85	0.04	-0.750			
0.1873	11986.88	3.8820	3.8820	-0.8109	25.86	0.05	-0.750			
0.1897	12141.58	3.8790	3.8790	-0.8069	25.86	0.05	-0.750			
0.1921	12295.73	3.8760	3.8759	-0.8068	25.86	0.05	-0.750			
0.1946	12453.08	3.8730	3.8730	-0.8103	25.87	0.06	-0.750			
0.1970	12609.78	3.8700	3.8701	-0.8069	25.87	0.06	-0.750			
0.1994	12763.66	3.8670	3.8670	-0.8093	25.88	0.07	-0.750			
0.2018	12917.68	3.8640	3.8640	-0.8073	25.88	0.07	-0.750			
0.2043	13072.59	3.8610	3.8610	-0.8054	25.88	0.07	-0.750			
0.2067	13229.85	3.8580	3.8580	-0.8098	25.89	0.08	-0.750			
0.2091	13384.19	3.8550	3.8550	-0.8128	25.89	0.08	-0.750			
0.2116	13540.89	3.8520	3.8521	-0.8146	25.89	0.08	-0.750			
0.2141	13699.29	3.8490	3.8488	-0.8187	25.90	0.09	-0.750			
0.2165	13855.30	3.8460	3.8460	-0.8108	25.90	0.09	-0.750			
0.2189	14011.56	3.8430	3.8431	-0.8106	25.91	0.10	-0.750			
0.2214	14166.76	3.8400	3.8404	-0.8120	25.91	0.10	-0.750			
0.2238	14323.75	3.8370	3.8367	-0.8088	25.91	0.10	-0.750			
0.2262	14477.06	3.8340	3.8341	-0.8099	25.91	0.10	-0.750			
0.2286	14632.29	3.8310	3.8311	-0.8100	25.92	0.11	-0.750			
0.2311	14791.91	3.8280	3.8279	-0.8134	25.92	0.11	-0.750			
0.2336	14947.25	3.8250	3.8252	-0.8087	25.92	0.11	-0.750			
0.2359	15099.54	3.8220	3.8220	-0.8063	25.92	0.11	-0.750			
0.2383	15253.26	3.8190	3.8190	-0.8088	25.93	0.12	-0.750			
0.2408	15409.23	3.8160	3.8159	-0.8092	25.93	0.12	-0.750			
0.2432	15565.10	3.8130	3.8130	-0.7996	25.94	0.13	-0.750			
0.2456	15721.15	3.8100	3.8101	-0.8016	25.94	0.13	-0.750			
0.2480	15874.47	3.8070	3.8071	-0.7983	25.94	0.13	-0.750			
0.2504	16025.21	3.8040	3.8039	-0.7957	25.95	0.14	-0.750			
0.2528	16177.57	3.8010	3.8009	-0.7919	25.95	0.14	-0.750			
0.2551	16328.68	3.7980	3.7980	-0.7865	25.95	0.14	-0.750			
0.2575	16481.80	3.7950	3.7950	-0.7897	25.96	0.15	-0.750			
0.2599	16633.47	3.7920	3.7920	-0.7895	25.96	0.15	-0.750			
0.2622	16783.25	3.7890	3.7890	-0.7808	25.96	0.15	-0.750			
0.2646	16932.85	3.7860	3.7859	-0.7772	25.96	0.15	-0.750			
0.2669	17080.93	3.7830	3.7831	-0.7730	25.97	0.16	-0.750			
0.2692	17231.16	3.7800	3.7799	-0.7730	25.97	0.16	-0.750			
0.2716	17380.46	3.7770	3.7772	-0.7664	25.97	0.16	-0.750			
0.2738	17525.46	3.7740	3.7741	-0.7605	25.97	0.16	-0.750			
0.2761	17669.61	3.7710	3.7710	-0.7573	25.98	0.17	-0.750			
0.2784	17815.74	3.7680	3.7680	-0.7583	25.98	0.17	-0.750			
0.2806	17959.96	3.7650	3.7649	-0.7560	25.98	0.17	-0.750			
0.2829	18104.80	3.7620	3.7620	-0.7559	25.99	0.18	-0.750			
0.2852	18250.81	3.7590	3.7591	-0.7588	25.99	0.18	-0.750			
0.2874	18396.31	3.7560	3.7560	-0.7623	26.00	0.19	-0.750			
0.2897	18542.10	3.7530	3.7530	-0.7588	26.00	0.19	-0.750			
0.2920	18687.39	3.7500	3.7500	-0.7619	26.00	0.19	-0.750			
0.2943	18834.33	3.7470	3.7470	-0.7681	26.01	0.20	-0.750			
0.2966	18982.47	3.7440	3.7441	-0.7719	26.01	0.20	-0.750			
0.2989	19130.95	3.7410	3.7410	-0.7768	26.01	0.20	-0.750			
0.3013	19280.44	3.7380	3.7380	-0.7908	26.01	0.20	-0.750			
0.3037	19434.23	3.7350	3.7349	-0.7972	26.01	0.20	-0.750			
0.3061	19589.12	3.7320	3.7319	-0.8071	26.01	0.20	-0.750			
0.3085	19743.49	3.7290	3.7294	-0.8152	26.01	0.20	-0.750			
0.3109	19900.69	3.7260	3.7259	-0.8281	26.01	0.20	-0.750			
0.3135	20061.33	3.7230	3.7229	-0.8400	26.01	0.20	-0.750			
0.3160	20221.73	3.7200	3.7200	-0.8468	26.01	0.20	-0.750			
0.3186	20388.05	3.7170	3.7169	-0.8665	26.01	0.20	-0.750			
0.3212	20554.55	3.7140	3.7141	-0.8754	26.01	0.20	-0.750			
0.3238	20721.33	3.7110	3.7110	-0.8946	26.01	0.20	-0.750			
0.3265	20893.95	3.7080	3.7080	-0.9106	26.02	0.21	-0.750			
0.3292	21069.61	3.7050	3.7049	-0.9286	26.02	0.21	-0.750			
0.3321	21252.01	3.7020	3.7019	-0.9549	26.03	0.22	-0.750			
0.3350	21437.20	3.6990	3.6990	-0.9731	26.03	0.22	-0.750			
0.3379	21627.69	3.6960	3.6960	-0.9909	26.02	0.21	-0.750			
0.3409	21820.56	3.6930	3.6929	-1.0022	26.02	0.21	-0.750			
0.3440	22013.59	3.6900	3.6900	-1.0081	26.01	0.20	-0.750			
0.3470	22207.11	3.6870	3.6871	-1.0431	26.01	0.20	-0.750			
0.3501	22408.99	3.6840	3.6840	-1.0580	26.00	0.19	-0.750			
0.3533	22613.59	3.6810	3.6808	-1.0784	26.00	0.19	-0.750			
0.3566	22822.15	3.6780	3.6780	-1.1008	25.99	0.18	-0.750			
0.3600	23039.85	3.6750	3.6751	-1.1296	25.99	0.18	-0.750			
0.3634	23258.55	3.6720	3.6719	-1.1463	25.99	0.18	-0.750			
0.3669	23479.65	3.6690	3.6690	-1.1668	25.98	0.17	-0.750			
0.3703	23699.25	3.6660	3.6661	-1.1880	25.98	0.17	-0.750			
0.3740	23934.38	3.6630	3.6629	-1.2171	25.98	0.17	-0.750			
0.3777	24170.11	3.6600	3.6599	-1.2399	25.97	0.16	-0.750			
0.3814	24408.56	3.6570	3.6570	-1.2708	25.96	0.15	-0.750			
0.3852	24655.51	3.6540	3.6540	-1.2981	25.96	0.15	-0.750			
0.3892	24910.78	3.6510	3.6509	-1.3181	25.95	0.14	-0.750			
0.3932	25165.54	3.6480	3.6480	-1.3383	25.94	0.13	-0.750			
0.3972	25423.55	3.6450	3.6451	-1.3758	25.93	0.12	-0.750			
0.4015	25696.79	3.6420	3.6418	-1.3980	25.92	0.11	-0.750			
0.4057	25963.82	3.6390	3.6389	-1.4280	25.91	0.10	-0.750			
0.4100	26240.58	3.6360	3.6360	-1.4515	25.91	0.10	-0.750			
0.4144	26522.75	3.6330	3.6330	-1.4904	25.91	0.10	-0.750			
0.4190	26814.11	3.6300	3.6297	-1.5185	25.90	0.09	-0.750			
0.4234	27099.73	3.6270	3.6271	-1.5495	25.90	0.09	-0.750			
0.4283	27410.12	3.6240	3.6240	-1.5957	25.89	0.08	-0.750			
0.4331	27719.99	3.6210	3.6210	-1.6267	25.88	0.07	-0.750			
0.4380	28032.51	3.6180	3.6181	-1.6237	25.87	0.06	-0.750			
0.4430	28350.80	3.6150	3.6148	-1.6616	25.87	0.06	-0.750	0.397	0.533	
0.4479	28664.71	3.6120	3.6119	-1.6965	25.86	0.05	-0.750			
0.4530	28994.82	3.6090	3.6091	-1.7291	25.85	0.04	-0.750			
0.4583	29329.21	3.6060	3.6061	-1.7789	25.85	0.04	-0.750			
0.4637	29676.89	3.6030	3.6029	-1.8172	25.84	0.03	-0.750			
0.4693	30032.85	3.6000	3.6000	-1.8484	25.82	0.01	-0.750			
0.4749	30394.45	3.5970	3.5971	-1.8790	25.82	0.01	-0.750			
0.4805	30752.14	3.5940	3.5940	-1.8950	25.81	0.00	-0.750			
0.4861	31111.79	3.5910	3.5911	-1.9298	25.81	0.00	-0.750			
0.4920	31486.45	3.5880	3.5880	-1.9744	25.81	0.00	-0.750			
0.4980	31871.01	3.5850	3.5849	-2.0084	25.81	-0.00	-0.750			
0.5042	32267.85	3.5820	3.5821	-2.0457	25.80	-0.01	-0.750			
0.5104	32663.63	3.5790	3.5789	-2.0858	25.80	-0.01	-0.750			
0.5167	33071.20	3.5760	3.5760	-2.1104	25.79	-0.02	-0.750			
0.5232	33483.67	3.5730	3.5732	-2.1232	25.79	-0.02	-0.750			
0.5295	33886.77	3.5700	3.5700	-2.1315	25.79	-0.02	-0.750			
0.5359	34297.59	3.5670	3.5670	-2.1376	25.79	-0.02	-0.750			
0.5424	34714.82	3.5640	3.5642	-2.1621	25.79	-0.02	-0.750			
0.5489	35129.99	3.5610	3.5610	-2.2278	25.79	-0.02	-0.750			
0.5556	35557.28	3.5580	3.5581	-2.2535	25.78	-0.03	-0.750			
0.5625	36000.05	3.5550	3.5551	-2.2786	25.78	-0.03	-0.750			
0.5695	36451.09	3.5520	3.5521	-2.3029	25.77	-0.04	-0.750			
0.5765	36894.72	3.5490	3.5490	-2.2731	25.77	-0.04	-0.750			
0.5833	37333.14	3.5460	3.5459	-2.2448	25.77	-0.04	-0.750			
0.5900	37760.32	3.5430	3.5431	-2.2107	25.78	-0.03	-0.750			
0.5964	38168.28	3.5400	3.5399	-2.1642	25.79	-0.02	-0.750			
0.6029	38588.24	3.5370	3.5369	-2.1393	25.79	-0.02	-0.750			
0.6094	38998.87	3.5340	3.5341	-2.1001	25.79	-0.02	-0.750			
0.6157	39405.25	3.5310	3.5310	-2.0536	25.80	-0.01	-0.750			
0.6218	39792.57	3.5280	3.5281	-2.0015	25.80	-0.01	-0.750			
0.6276	40169.51	3.5250	3.5252	-1.9486	25.81	-0.00	-0.750			
0.6334	40539.23	3.5220	3.5219	-1.9053	25.81	-0.00	-0.750			
0.6390	40896.13	3.5190	3.5189	-1.8493	25.81	0.00	-0.750			
0.6445	41247.35	3.5160	3.5162	-1.8281	25.82	0.01	-0.750			
0.6500	41599.48	3.5130	3.5128	-1.7976	25.83	0.02	-0.750			
0.6553	41941.59	3.5100	3.5097	-1.7463	25.84	0.03	-0.750			
0.6605	42271.93	3.5070	3.5070	-1.6931	25.86	0.05	-0.750			
0.6655	42589.42	3.5040	3.5042	-1.6573	25.87	0.06	-0.750			
0.6705	42910.97	3.5010	3.5007	-1.6089	25.89	0.08	-0.750			
0.6752	43210.23	3.4980	3.4980	-1.5425	25.90	0.09	-0.750			
0.6798	43505.51	3.4950	3.4948	-1.4951	25.92	0.11	-0.750			
0.6842	43788.87	3.4920	3.4921	-1.4445	25.93	0.12	-0.750			
0.6884	44060.73	3.4890	3.4887	-1.4040	25.95	0.14	-0.750			
0.6925	44317.41	3.4860	3.4862	-1.3491	25.96	0.15	-0.750			
0.6964	44570.11	3.4830	3.4832	-1.3062	25.97	0.16	-0.750			
0.7004	44825.07	3.4800	3.4799	-1.2855	25.99	0.18	-0.750			
0.7042	45068.09	3.4770	3.4770	-1.2396	26.00	0.19	-0.750			
0.7078	45301.47	3.4740	3.4740	-1.1995	26.02	0.21	-0.750			
0.7114	45530.56	3.4710	3.4710	-1.1685	26.03	0.22	-0.750			
0.7148	45747.90	3.4680	3.4680	-1.1179	26.04	0.23	-0.750			
0.7181	45956.39	3.4650	3.4649	-1.0744	26.06	0.25	-0.750			
0.7212	46158.13	3.4620	3.4623	-1.0394	26.07	0.26	-0.750			
0.7243	46354.47	3.4590	3.4589	-1.0060	26.08	0.27	-0.750			
0.7272	46543.39	3.4560	3.4560	-0.9747	26.09	0.28	-0.750			
0.7301	46726.07	3.4530	3.4529	-0.9403	26.11	0.30	-0.750			
0.7329	46904.90	3.4500	3.4501	-0.9220	26.12	0.31	-0.750			
0.7356	47078.37	3.4470	3.4469	-0.9002	26.13	0.32	-0.750			
0.7382	47246.72	3.4440	3.4440	-0.8828	26.14	0.33	-0.750			
0.7408	47414.12	3.4410	3.4409	-0.8724	26.15	0.34	-0.750			
0.7434	47578.79	3.4380	3.4380	-0.8657	26.16	0.35	-0.750			
0.7460	47742.73	3.4350	3.4350	-0.8682	26.17	0.36	-0.750			
0.7486	47908.28	3.4320	3.4320	-0.8853	26.18	0.37	-0.750			
0.7512	48077.86	3.4290	3.4289	-0.8923	26.19	0.38	-0.750			
0.7539	48251.13	3.4260	3.4260	-0.9082	26.19	0.38	-0.750			
0.7567	48429.25	3.4230	3.4230	-0.9276	26.20	0.39	-0.750			
0.7595	48609.20	3.4200	3.4201	-0.9392	26.21	0.40	-0.750			
0.7624	48791.33	3.4170	3.4170	-0.9522	26.22	0.41	-0.750			
0.7653	48976.51	3.4140	3.4139	-0.9531	26.23	0.42	-0.750			
0.7681	49161.60	3.4110	3.4110	-0.9535	26.24	0.43	-0.750			
0.7710	49346.49	3.4080	3.4082	-0.9537	26.25	0.44	-0.750			
0.7739	49529.31	3.4050	3.4050	-0.9475	26.26	0.45	-0.750			
0.7768	49712.46	3.4020	3.4019	-0.9233	26.27	0.46	-0.750			
0.7795	49889.03	3.3990	3.3990	-0.8970	26.28	0.47	-0.750			
0.7822	50059.15	3.3960	3.3960	-0.8737	26.29	0.48	-0.750			
0.7848	50224.68	3.3930	3.3930	-0.8428	26.29	0.48	-0.750			
0.7872	50383.35	3.3900	3.3899	-0.8157	26.30	0.49	-0.750			
0.7896	50534.83	3.3870	3.3870	-0.7813	26.30	0.49	-0.750			
0.7919	50681.17	3.3840	3.3841	-0.7505	26.31	0.50	-0.750			
0.7941	50825.54	3.3810	3.3810	-0.7308	26.32	0.51	-0.750			
0.7963	50961.89	3.3780	3.3781	-0.7049	26.32	0.51	-0.750			
0.7983	51094.00	3.3750	3.3749	-0.6778	26.33	0.52	-0.750			
0.8003	51221.49	3.3720	3.3720	-0.6543	26.34	0.53	-0.750			
0.8023	51344.17	3.3690	3.3690	-0.6307	26.34	0.53	-0.750			
0.8041	51464.99	3.3660	3.3661	-0.6098	26.35	0.54	-0.750			
0.8059	51579.55	3.3630	3.3629	-0.5855	26.36	0.55	-0.750			
0.8076	51688.10	3.3600	3.3600	-0.5617	26.37	0.56	-0.750			
0.8093	51793.41	3.3570	3.3570	-0.5410	26.37	0.56	-0.750			
0.8109	51895.37	3.3540	3.3539	-0.5206	26.38	0.57	-0.750			
0.8124	51992.43	3.3510	3.3510	-0.5045	26.38	0.57	-0.750			
0.8139	52087.22	3.3480	3.3481	-0.4885	26.39	0.58	-0.750			
0.8153	52180.15	3.3450	3.3449	-0.4730	26.40	0.59	-0.750			
0.8167	52268.97	3.3420	3.3421	-0.4587	26.40	0.59	-0.750			
0.8181	52355.95	3.3390	3.3390	-0.4436	26.41	0.60	-0.750			
0.8194	52439.61	3.3360	3.3359	-0.4290	26.41	0.60	-0.750			
0.8206	52521.02	3.3330	3.3330	-0.4149	26.42	0.61	-0.750			
0.8218	52598.21	3.3300	3.3300	-0.4011	26.42	0.61	-0.750			
0.8230	52674.00	3.3270	3.3270	-0.3889	26.43	0.62	-0.750			
0.8242	52747.55	3.3240	3.3239	-0.3767	26.43	0.62	-0.750			
0.8253	52817.82	3.3210	3.3210	-0.3644	26.44	0.63	-0.750			
0.8264	52887.06	3.3180	3.3180	-0.3557	26.44	0.63	-0.750			
0.8274	52954.66	3.3150	3.3150	-0.3442	26.45	0.64	-0.750			
0.8284	53019.89	3.3120	3.3120	-0.3330	26.45	0.64	-0.750			
0.8294	53081.98	3.3090	3.3091	-0.3236	26.46	0.65	-0.750			
0.8304	53143.22	3.3060	3.3060	-0.3164	26.46	0.65	-0.750			
0.8313	53203.10	3.3030	3.3029	-0.3070	26.47	0.66	-0.750			
0.8322	53261.03	3.3000	3.3000	-0.2999	26.47	0.66	-0.750			
0.8331	53317.62	3.2970	3.2970	-0.2931	26.48	0.67	-0.750			
0.8340	53373.70	3.2940	3.2940	-0.2876	26.48	0.67	-0.750			
0.8348	53428.32	3.2910	3.2911	-0.2807	26.49	0.68	-0.750			
0.8356	53481.28	3.2880	3.2880	-0.2726	26.49	0.68	-0.750			
0.8365	53532.94	3.2850	3.2850	-0.2667	26.50	0.69	-0.750			
0.8373	53584.06	3.2820	3.2820	-0.2612	26.50	0.69	-0.750			
0.8380	53632.95	3.2790	3.2790	-0.2548	26.51	0.70	-0.750			
0.8388	53681.28	3.2760	3.2759	-0.2518	26.51	0.70	-0.750			
0.8395	53728.67	3.2730	3.2731	-0.2476	26.52	0.71	-0.750			
0.8402	53775.86	3.2700	3.2699	-0.2435	26.52	0.71	-0.750			
0.8410	53822.57	3.2670	3.2671	-0.2395	26.53	0.72	-0.750			
0.8417	53868.71	3.2640	3.2640	-0.2359	26.53	0.72	-0.750			
0.8424	53913.66	3.2610	3.2610	-0.2308	26.54	0.73	-0.750			
0.8431	53957.19	3.2580	3.2580	-0.2266	26.54	0.73	-0.750			
0.8437	53999.54	3.2550	3.2551	-0.2219	26.54	0.73	-0.750			
0.8444	54042.05	3.2520	3.2519	-0.2185	26.55	0.74	-0.750			
0.8451	54083.68	3.2490	3.2489	-0.2153	26.55	0.74	-0.750			
0.8457	54124.61	3.2460	3.2460	-0.2125	26.56	0.75	-0.750			
0.8463	54165.32	3.2430	3.2431	-0.2095	26.56	0.75	-0.750			
0.8470	54205.33	3.2400	3.2399	-0.2057	26.57	0.76	-0.750			
0.8476	54244.77	3.2370	3.2370	-0.2021	26.57	0.76	-0.750			
0.8482	54282.79	3.2340	3.2340	-0.1993	26.58	0.77	-0.750			
0.8488	54320.57	3.2310	3.2310	-0.1965	26.58	0.77	-0.750			
0.8493	54357.97	3.2280	3.2280	-0.1946	26.59	0.78	-0.750			
0.8499	54395.14	3.2250	3.2250	-0.1926	26.59	0.78	-0.750			
0.8505	54431.63	3.2220	3.2220	-0.1900	26.60	0.79	-0.750			
0.8511	54468.19	3.2190	3.2191	-0.1881	26.60	0.79	-0.750			
0.8516	54504.45	3.2160	3.2159	-0.1862	26.61	0.80	-0.750			
0.8522	54539.91	3.2130	3.2131	-0.1831	26.61	0.80	-0.750			
0.8527	54574.56	3.2100	3.2100	-0.1809	26.62	0.81	-0.750			
0.8533	54609.05	3.2070	3.2070	-0.1788	26.62	0.81	-0.750			
0.8538	54643.07	3.2040	3.2040	-0.1762	26.63	0.82	-0.750			
0.8543	54676.72	3.2010	3.2009	-0.1743	26.63	0.82	-0.750			
0.8548	54709.96	3.1980	3.1980	-0.1728	26.64	0.83	-0.750			
0.8554	54742.91	3.1950	3.1950	-0.1713	26.64	0.83	-0.750			
0.8559	54775.80	3.1920	3.1920	-0.1698	26.65	0.84	-0.750			
0.8564	54808.22	3.1890	3.1889	-0.1680	26.65	0.84	-0.750			
0.8569	54840.23	3.1860	3.1860	-0.1659	26.66	0.85	-0.750			
0.8574	54871.93	3.1830	3.1830	-0.1645	26.66	0.85	-0.750			
0.8579	54903.47	3.1800	3.1800	-0.1630	26.67	0.86	-0.750			
0.8584	54934.61	3.1770	3.1770	-0.1607	26.68	0.87	-0.750			
0.8588	54965.10	3.1740	3.1740	-0.1586	26.68	0.87	-0.750			
0.8593	54995.21	3.1710	3.1711	-0.1570	26.69	0.88	-0.750			
0.8598	55025.26	3.1680	3.1680	-0.1557	26.69	0.88	-0.750			
0.8602	55055.05	3.1650	3.1650	-0.1538	26.70	0.89	-0.750			
0.8607	55084.27	3.1620	3.1620	-0.1527	26.70	0.89	-0.750			
0.8611	55113.29	3.1590	3.1591	-0.1511	26.71	0.90	-0.750			
