Ah_balance (normalized)	Ah_balance (mAh)	Voltage - fit (V)	Voltage -  interpolate (V)	dQ/dV (1/V)	Temperature (°C)	Temperature - diff (°C)	Current (C)	R_DC 0ms (mOhm)	R_DC 50ms (mOhm)	R_DC 50 ms PEC (mOhm)
0.0004	25.66	4.1680	4.1681	-0.2026	24.61	0.00	-0.250			
0.0013	82.97	4.1650	4.1647	-0.3462	24.61	0.00	-0.250			
0.0025	160.45	4.1620	4.1621	-0.4496	24.61	0.00	-0.250			
0.0041	259.50	4.1590	4.1588	-0.5371	24.61	0.00	-0.250			
0.0058	373.30	4.1560	4.1562	-0.6027	24.61	0.00	-0.250			
0.0079	508.60	4.1530	4.1528	-0.6616	24.61	0.00	-0.250			
0.0100	641.05	4.1500	4.1501	-0.7033	24.61	0.00	-0.250			
0.0122	777.85	4.1470	4.1472	-0.7237	24.62	0.01	-0.250			
0.0144	922.61	4.1440	4.1439	-0.7441	24.63	0.02	-0.250			
0.0167	1066.70	4.1410	4.1409	-0.7577	24.63	0.02	-0.250			
0.0190	1215.90	4.1380	4.1379	-0.7726	24.63	0.02	-0.250	0.483	0.629	
0.0214	1366.52	4.1350	4.1348	-0.7805	24.63	0.02	-0.250			
0.0237	1518.05	4.1320	4.1319	-0.7835	24.63	0.02	-0.250			
0.0260	1666.33	4.1290	4.1290	-0.7856	24.63	0.02	-0.250			
0.0284	1817.85	4.1260	4.1259	-0.7912	24.63	0.02	-0.250			
0.0308	1970.80	4.1230	4.1230	-0.7935	24.65	0.04	-0.250			
0.0332	2124.62	4.1200	4.1199	-0.7950	24.65	0.04	-0.250			
0.0356	2277.68	4.1170	4.1170	-0.8041	24.65	0.04	-0.250			
0.0380	2432.48	4.1140	4.1141	-0.8097	24.65	0.04	-0.250			
0.0404	2588.65	4.1110	4.1110	-0.8141	24.65	0.04	-0.250	0.488	0.611	
0.0429	2745.79	4.1080	4.1082	-0.8172	24.66	0.05	-0.250			
0.0454	2903.17	4.1050	4.1050	-0.8246	24.67	0.06	-0.250			
0.0479	3064.53	4.1020	4.1019	-0.8273	24.67	0.06	-0.250			
0.0503	3221.75	4.0990	4.0990	-0.8295	24.67	0.06	-0.250			
0.0528	3382.11	4.0960	4.0961	-0.8323	24.67	0.06	-0.250			
0.0553	3541.68	4.0930	4.0929	-0.8324	24.67	0.06	-0.250			
0.0578	3700.84	4.0900	4.0901	-0.8332	24.67	0.06	-0.250			
0.0603	3860.47	4.0870	4.0872	-0.8421	24.67	0.06	-0.250	0.475	0.596	
0.0628	4021.25	4.0840	4.0841	-0.8451	24.68	0.07	-0.250			
0.0654	4186.51	4.0810	4.0810	-0.8488	24.69	0.08	-0.250			
0.0680	4350.18	4.0780	4.0781	-0.8501	24.69	0.08	-0.250			
0.0705	4514.23	4.0750	4.0749	-0.8535	24.69	0.08	-0.250			
0.0731	4679.78	4.0720	4.0719	-0.8530	24.69	0.08	-0.250			
0.0757	4842.09	4.0690	4.0691	-0.8503	24.70	0.09	-0.250			
0.0782	5004.40	4.0660	4.0661	-0.8501	24.70	0.09	-0.250			
0.0807	5167.53	4.0630	4.0630	-0.8510	24.71	0.10	-0.250	0.494	0.604	
0.0833	5331.57	4.0600	4.0600	-0.8538	24.71	0.10	-0.250			
0.0859	5497.66	4.0570	4.0570	-0.8563	24.71	0.10	-0.250			
0.0885	5660.87	4.0540	4.0538	-0.8599	24.71	0.10	-0.250			
0.0910	5827.09	4.0510	4.0512	-0.8601	24.71	0.10	-0.250			
0.0936	5992.04	4.0480	4.0480	-0.8597	24.71	0.10	-0.250			
0.0962	6156.35	4.0450	4.0452	-0.8636	24.71	0.10	-0.250			
0.0988	6321.54	4.0420	4.0420	-0.8632	24.71	0.10	-0.250	0.523	0.595	
0.1014	6491.03	4.0390	4.0387	-0.8698	24.71	0.10	-0.250			
0.1040	6657.79	4.0360	4.0361	-0.8730	24.71	0.10	-0.250			
0.1066	6825.23	4.0330	4.0330	-0.8761	24.71	0.10	-0.250			
0.1093	6994.24	4.0300	4.0301	-0.8791	24.72	0.11	-0.250			
0.1119	7161.78	4.0270	4.0270	-0.8757	24.73	0.12	-0.250			
0.1146	7331.57	4.0240	4.0240	-0.8779	24.73	0.12	-0.250			
0.1172	7500.24	4.0210	4.0211	-0.8820	24.73	0.12	-0.250			
0.1199	7670.47	4.0180	4.0180	-0.8829	24.73	0.12	-0.250	0.431	0.609	
0.1225	7838.87	4.0150	4.0150	-0.8825	24.73	0.12	-0.250			
0.1251	8008.06	4.0120	4.0122	-0.8855	24.74	0.13	-0.250			
0.1278	8178.87	4.0090	4.0090	-0.8897	24.75	0.14	-0.250			
0.1305	8349.64	4.0060	4.0060	-0.8917	24.75	0.14	-0.250			
0.1332	8521.78	4.0030	4.0029	-0.8960	24.75	0.14	-0.250			
0.1359	8694.81	4.0000	3.9999	-0.8994	24.75	0.14	-0.250			
0.1386	8867.64	3.9970	3.9970	-0.9029	24.75	0.14	-0.250			
0.1413	9041.35	3.9940	3.9940	-0.9029	24.75	0.14	-0.250	0.515	0.620	
0.1440	9213.58	3.9910	3.9910	-0.9068	24.75	0.14	-0.250			
0.1467	9388.38	3.9880	3.9880	-0.9107	24.75	0.14	-0.250			
0.1494	9564.68	3.9850	3.9849	-0.9126	24.75	0.14	-0.250			
0.1522	9740.34	3.9820	3.9822	-0.9147	24.75	0.14	-0.250			
0.1550	9916.81	3.9790	3.9790	-0.9152	24.75	0.14	-0.250			
0.1577	10093.31	3.9760	3.9757	-0.9096	24.76	0.15	-0.250			
0.1604	10266.25	3.9730	3.9729	-0.9118	24.77	0.16	-0.250	0.447	0.607	
0.1631	10440.62	3.9700	3.9700	-0.9193	24.77	0.16	-0.250			
0.1659	10616.30	3.9670	3.9669	-0.9259	24.77	0.16	-0.250			
0.1687	10794.11	3.9640	3.9641	-0.9343	24.77	0.16	-0.250			
0.1715	10976.17	3.9610	3.9610	-0.9434	24.77	0.16	-0.250			
0.1744	11159.41	3.9580	3.9582	-0.9486	24.77	0.16	-0.250			
0.1772	11342.77	3.9550	3.9549	-0.9535	24.77	0.16	-0.250			
0.1801	11525.87	3.9520	3.9520	-0.9494	24.77	0.16	-0.250	0.490	0.584	
0.1829	11707.00	3.9490	3.9490	-0.9494	24.77	0.16	-0.250			
0.1858	11889.93	3.9460	3.9459	-0.9533	24.77	0.16	-0.250			
0.1886	12071.39	3.9430	3.9428	-0.9505	24.78	0.17	-0.250			
0.1915	12254.49	3.9400	3.9399	-0.9574	24.79	0.18	-0.250			
0.1944	12439.24	3.9370	3.9370	-0.9602	24.79	0.18	-0.250			
0.1973	12624.55	3.9340	3.9341	-0.9583	24.78	0.17	-0.250			
0.2002	12810.44	3.9310	3.9311	-0.9572	24.78	0.17	-0.250	0.459	0.561	
0.2030	12993.17	3.9280	3.9281	-0.9573	24.79	0.18	-0.250			
0.2059	13177.70	3.9250	3.9250	-0.9541	24.79	0.18	-0.250			
0.2088	13361.46	3.9220	3.9221	-0.9554	24.78	0.17	-0.250			
0.2116	13544.30	3.9190	3.9191	-0.9511	24.78	0.17	-0.250			
0.2145	13727.77	3.9160	3.9160	-0.9565	24.79	0.18	-0.250			
0.2174	13910.74	3.9130	3.9130	-0.9588	24.78	0.17	-0.250			
0.2202	14094.56	3.9100	3.9099	-0.9588	24.77	0.16	-0.250	0.432	0.565	
0.2232	14281.63	3.9070	3.9067	-0.9478	24.77	0.16	-0.250			
0.2260	14464.15	3.9040	3.9040	-0.9438	24.77	0.16	-0.250			
0.2288	14643.60	3.9010	3.9010	-0.9477	24.77	0.16	-0.250			
0.2316	14824.99	3.8980	3.8979	-0.9467	24.77	0.16	-0.250			
0.2344	15003.84	3.8950	3.8951	-0.9521	24.76	0.15	-0.250			
0.2373	15188.68	3.8920	3.8923	-0.9664	24.76	0.15	-0.250			
0.2403	15377.08	3.8890	3.8894	-0.9803	24.76	0.15	-0.250	0.506	0.620	
0.2433	15568.73	3.8860	3.8863	-0.9895	24.75	0.14	-0.250			
0.2462	15758.50	3.8830	3.8833	-0.9850	24.75	0.14	-0.250			
0.2492	15947.32	3.8800	3.8801	-0.9905	24.75	0.14	-0.250			
0.2521	16136.35	3.8770	3.8771	-0.9818	24.75	0.14	-0.250			
0.2551	16323.70	3.8740	3.8740	-0.9837	24.75	0.14	-0.250			
0.2580	16511.91	3.8710	3.8710	-0.9849	24.75	0.14	-0.250			
0.2610	16702.09	3.8680	3.8676	-0.9849	24.75	0.14	-0.250	0.538	0.624	
0.2639	16889.61	3.8650	3.8649	-0.9827	24.75	0.14	-0.250			
0.2669	17078.57	3.8620	3.8617	-0.9929	24.75	0.14	-0.250			
0.2699	17271.17	3.8590	3.8589	-0.9904	24.75	0.14	-0.250			
0.2728	17461.50	3.8560	3.8558	-0.9844	24.75	0.14	-0.250			
0.2758	17651.03	3.8530	3.8532	-0.9813	24.75	0.14	-0.250			
0.2788	17840.09	3.8500	3.8500	-0.9815	24.75	0.14	-0.250	0.478	0.626	
0.2817	18030.23	3.8470	3.8470	-0.9816	24.75	0.14	-0.250			
0.2846	18215.64	3.8440	3.8441	-0.9774	24.75	0.14	-0.250			
0.2876	18407.35	3.8410	3.8412	-0.9799	24.75	0.14	-0.250			
0.2906	18597.40	3.8380	3.8380	-0.9787	24.75	0.14	-0.250			
0.2935	18783.39	3.8350	3.8352	-0.9744	24.75	0.14	-0.250			
0.2964	18967.65	3.8320	3.8322	-0.9775	24.75	0.14	-0.250			
0.2993	19157.67	3.8290	3.8290	-0.9841	24.75	0.14	-0.250	0.537	0.629	
0.3023	19345.13	3.8260	3.8260	-0.9863	24.75	0.14	-0.250			
0.3053	19536.20	3.8230	3.8232	-0.9877	24.76	0.15	-0.250			
0.3082	19727.40	3.8200	3.8200	-0.9877	24.76	0.15	-0.250			
0.3112	19916.95	3.8170	3.8170	-0.9830	24.77	0.16	-0.250			
0.3141	20103.71	3.8140	3.8137	-0.9751	24.77	0.16	-0.250			
0.3170	20290.49	3.8110	3.8108	-0.9725	24.78	0.17	-0.250			
0.3199	20475.69	3.8080	3.8076	-0.9713	24.79	0.18	-0.250	0.579	0.671	
0.3229	20665.04	3.8050	3.8048	-0.9655	24.80	0.19	-0.250			
0.3258	20850.57	3.8020	3.8018	-0.9580	24.81	0.20	-0.250			
0.3287	21034.21	3.7990	3.7991	-0.9532	24.81	0.20	-0.250			
0.3315	21216.06	3.7960	3.7960	-0.9517	24.81	0.20	-0.250			
0.3344	21399.17	3.7930	3.7931	-0.9446	24.81	0.20	-0.250			
0.3372	21579.30	3.7900	3.7901	-0.9407	24.81	0.20	-0.250			
0.3400	21760.67	3.7870	3.7873	-0.9402	24.82	0.21	-0.250	0.333	0.624	
0.3428	21941.26	3.7840	3.7840	-0.9361	24.82	0.21	-0.250			
0.3457	22122.39	3.7810	3.7810	-0.9408	24.82	0.21	-0.250			
0.3485	22301.11	3.7780	3.7777	-0.9318	24.83	0.22	-0.250			
0.3512	22479.01	3.7750	3.7749	-0.9374	24.83	0.22	-0.250			
0.3541	22661.45	3.7720	3.7718	-0.9316	24.83	0.22	-0.250			
0.3569	22840.33	3.7690	3.7689	-0.9337	24.83	0.22	-0.250			
0.3597	23018.45	3.7660	3.7662	-0.9312	24.85	0.24	-0.250	0.484	0.600	
0.3625	23196.88	3.7630	3.7630	-0.9324	24.85	0.24	-0.250			
0.3652	23374.64	3.7600	3.7601	-0.9351	24.85	0.24	-0.250			
0.3680	23554.39	3.7570	3.7572	-0.9410	24.86	0.25	-0.250			
0.3709	23736.35	3.7540	3.7540	-0.9550	24.86	0.25	-0.250			
0.3738	23922.08	3.7510	3.7510	-0.9647	24.86	0.25	-0.250			
0.3767	24107.49	3.7480	3.7478	-0.9738	24.86	0.25	-0.250			
0.3796	24295.97	3.7450	3.7446	-0.9880	24.87	0.26	-0.250	0.455	0.598	
0.3826	24486.87	3.7420	3.7419	-0.9990	24.87	0.26	-0.250			
0.3856	24678.72	3.7390	3.7388	-1.0158	24.87	0.26	-0.250			
0.3886	24873.15	3.7360	3.7360	-1.0351	24.87	0.26	-0.250			
0.3918	25072.55	3.7330	3.7328	-1.0574	24.87	0.26	-0.250			
0.3950	25279.54	3.7300	3.7300	-1.0857	24.87	0.26	-0.250			
0.3983	25492.47	3.7270	3.7269	-1.1124	24.87	0.26	-0.250			
0.4017	25710.70	3.7240	3.7238	-1.1402	24.87	0.26	-0.250	0.485	0.618	
0.4052	25930.70	3.7210	3.7211	-1.1603	24.87	0.26	-0.250			
0.4087	26157.77	3.7180	3.7180	-1.1819	24.87	0.26	-0.250			
0.4123	26385.71	3.7150	3.7152	-1.2082	24.87	0.26	-0.250			
0.4159	26617.74	3.7120	3.7120	-1.2317	24.87	0.26	-0.250			
0.4196	26854.76	3.7090	3.7090	-1.2721	24.87	0.26	-0.250	0.498	0.610	
0.4235	27103.13	3.7060	3.7060	-1.3089	24.87	0.26	-0.250			
0.4275	27359.33	3.7030	3.7031	-1.3497	24.85	0.24	-0.250			
0.4316	27619.81	3.7000	3.7002	-1.3917	24.85	0.24	-0.250			
0.4358	27893.25	3.6970	3.6968	-1.4359	24.85	0.24	-0.250			
0.4402	28172.22	3.6940	3.6940	-1.4805	24.83	0.22	-0.250	0.488	0.598	
0.4447	28461.14	3.6910	3.6909	-1.5119	24.81	0.20	-0.250			
0.4493	28754.65	3.6880	3.6880	-1.5535	24.81	0.20	-0.250			
0.4540	29058.99	3.6850	3.6850	-1.5875	24.79	0.18	-0.250			
0.4588	29365.16	3.6820	3.6820	-1.6293	24.77	0.16	-0.250	0.486	0.619	
0.4638	29681.24	3.6790	3.6788	-1.6746	24.76	0.15	-0.250			
0.4688	30003.92	3.6760	3.6762	-1.7278	24.73	0.12	-0.250			
0.4741	30342.65	3.6730	3.6729	-1.7885	24.72	0.11	-0.250			
0.4796	30691.73	3.6700	3.6701	-1.8412	24.70	0.09	-0.250	0.467	0.660	
0.4852	31052.52	3.6670	3.6670	-1.8945	24.68	0.07	-0.250			
0.4909	31420.72	3.6640	3.6640	-1.9549	24.66	0.05	-0.250			
0.4969	31802.22	3.6610	3.6611	-2.0075	24.64	0.03	-0.250			
0.5030	32191.39	3.6580	3.6579	-2.0631	24.63	0.02	-0.250	0.460	0.655	
0.5092	32589.03	3.6550	3.6552	-2.1486	24.60	-0.01	-0.250			
0.5158	33008.95	3.6520	3.6521	-2.2334	24.59	-0.02	-0.250			
0.5226	33447.63	3.6490	3.6489	-2.3183	24.57	-0.04	-0.250	0.472	0.623	
0.5297	33903.27	3.6460	3.6460	-2.3851	24.56	-0.05	-0.250			
0.5371	34373.50	3.6430	3.6430	-2.4506	24.55	-0.06	-0.250	0.486	0.618	
0.5445	34850.63	3.6400	3.6400	-2.4929	24.55	-0.06	-0.250			
0.5520	35329.28	3.6370	3.6370	-2.5346	24.53	-0.08	-0.250			
0.5597	35820.08	3.6340	3.6341	-2.6061	24.53	-0.08	-0.250	0.438	0.611	
0.5676	36325.41	3.6310	3.6310	-2.6615	24.52	-0.09	-0.250			
0.5757	36846.17	3.6280	3.6280	-2.7228	24.51	-0.10	-0.250			
0.5840	37374.83	3.6250	3.6250	-2.7760	24.50	-0.11	-0.250	0.453	0.626	
0.5924	37915.00	3.6220	3.6219	-2.8235	24.51	-0.10	-0.250			
0.6009	38460.55	3.6190	3.6191	-2.8410	24.51	-0.10	-0.250	0.462	0.628	
0.6096	39012.97	3.6160	3.6161	-2.8748	24.51	-0.10	-0.250			
0.6183	39568.53	3.6130	3.6130	-2.8909	24.51	-0.10	-0.250	0.449	0.624	
0.6269	40123.08	3.6100	3.6101	-2.8899	24.51	-0.10	-0.250			
0.6356	40679.18	3.6070	3.6069	-2.9049	24.52	-0.09	-0.250			
0.6444	41238.80	3.6040	3.6040	-2.9017	24.53	-0.08	-0.250	0.505	0.635	
0.6531	41797.64	3.6010	3.6011	-2.8805	24.52	-0.09	-0.250			
0.6617	42348.35	3.5980	3.5981	-2.8527	24.53	-0.08	-0.250	0.453	0.641	
0.6702	42895.98	3.5950	3.5950	-2.8197	24.55	-0.06	-0.250			
0.6786	43431.37	3.5920	3.5919	-2.7765	24.55	-0.06	-0.250	0.475	0.661	
0.6869	43963.74	3.5890	3.5892	-2.7254	24.57	-0.04	-0.250			
0.6951	44485.27	3.5860	3.5859	-2.6684	24.59	-0.02	-0.250			
0.7030	44992.02	3.5830	3.5832	-2.6047	24.59	-0.02	-0.250	0.484	0.653	
0.7107	45485.56	3.5800	3.5799	-2.5175	24.61	0.00	-0.250			
0.7182	45964.34	3.5770	3.5771	-2.4337	24.62	0.01	-0.250	0.427	0.650	
0.7254	46426.81	3.5740	3.5740	-2.3292	24.63	0.02	-0.250			
0.7323	46866.55	3.5710	3.5710	-2.2324	24.63	0.02	-0.250			
0.7387	47279.96	3.5680	3.5679	-2.1258	24.65	0.04	-0.250	0.419	0.637	
0.7450	47677.18	3.5650	3.5647	-2.0286	24.67	0.06	-0.250			
0.7509	48057.47	3.5620	3.5620	-1.9382	24.67	0.06	-0.250			
0.7566	48420.01	3.5590	3.5591	-1.8546	24.69	0.08	-0.250			
0.7620	48771.12	3.5560	3.5558	-1.7760	24.70	0.09	-0.250	0.489	0.667	
0.7672	49102.01	3.5530	3.5529	-1.6985	24.72	0.11	-0.250			
0.7721	49417.22	3.5500	3.5501	-1.6304	24.75	0.14	-0.250			
0.7769	49722.85	3.5470	3.5470	-1.5762	24.77	0.16	-0.250			
0.7815	50018.31	3.5440	3.5440	-1.5360	24.77	0.16	-0.250	0.414	0.628	
0.7861	50308.90	3.5410	3.5409	-1.4883	24.79	0.18	-0.250			
0.7905	50594.81	3.5380	3.5380	-1.4460	24.81	0.20	-0.250			
0.7948	50867.60	3.5350	3.5349	-1.3954	24.81	0.20	-0.250			
0.7989	51130.90	3.5320	3.5320	-1.3420	24.83	0.22	-0.250	0.491	0.696	
0.8029	51384.49	3.5290	3.5290	-1.2887	24.85	0.24	-0.250			
0.8066	51624.71	3.5260	3.5260	-1.2267	24.86	0.25	-0.250			
0.8102	51855.02	3.5230	3.5229	-1.1744	24.87	0.26	-0.250			
0.8137	52075.40	3.5200	3.5199	-1.1278	24.89	0.28	-0.250			
0.8170	52285.47	3.5170	3.5170	-1.0767	24.89	0.28	-0.250			
0.8201	52487.40	3.5140	3.5141	-1.0343	24.89	0.28	-0.250	0.496	0.721	
0.8231	52679.79	3.5110	3.5111	-1.0051	24.89	0.28	-0.250			
0.8261	52868.89	3.5080	3.5079	-0.9825	24.90	0.29	-0.250			
0.8290	53056.39	3.5050	3.5048	-0.9589	24.91	0.30	-0.250			
0.8318	53236.85	3.5020	3.5020	-0.9448	24.91	0.30	-0.250			
0.8346	53416.58	3.4990	3.4991	-0.9297	24.92	0.31	-0.250			
0.8374	53594.42	3.4960	3.4959	-0.9120	24.92	0.31	-0.250			
0.8401	53768.33	3.4930	3.4931	-0.8905	24.92	0.31	-0.250	0.472	0.704	
0.8428	53936.91	3.4900	3.4899	-0.8716	24.93	0.32	-0.250			
0.8454	54102.61	3.4870	3.4870	-0.8579	24.93	0.32	-0.250			
0.8479	54263.32	3.4840	3.4839	-0.8547	24.93	0.32	-0.250			
0.8503	54418.99	3.4810	3.4810	-0.8712	24.93	0.32	-0.250			
0.8528	54582.03	3.4780	3.4780	-0.9236	24.93	0.32	-0.250			
0.8555	54751.78	3.4750	3.4751	-1.0211	24.95	0.34	-0.250			
0.8586	54948.19	3.4720	3.4722	-1.1690	24.95	0.34	-0.250			
0.8623	55186.98	3.4690	3.4689	-1.3375	24.95	0.34	-0.250	0.521	0.762	
0.8667	55466.07	3.4660	3.4657	-1.5041	24.95	0.34	-0.250			
0.8716	55782.53	3.4630	3.4631	-1.6236	24.95	0.34	-0.250			
0.8769	56123.24	3.4600	3.4600	-1.7023	24.97	0.36	-0.250			
0.8822	56461.86	3.4570	3.4569	-1.6987	24.95	0.34	-0.250	0.507	0.769	
0.8873	56789.73	3.4540	3.4540	-1.6638	24.97	0.36	-0.250			
0.8923	57107.31	3.4510	3.4509	-1.6004	24.97	0.36	-0.250			
0.8970	57406.37	3.4480	3.4480	-1.5310	24.97	0.36	-0.250			
0.9015	57695.78	3.4450	3.4449	-1.4684	24.97	0.36	-0.250	0.489	0.760	
0.9058	57971.45	3.4420	3.4420	-1.3988	24.97	0.36	-0.250			
0.9099	58233.34	3.4390	3.4389	-1.3263	24.98	0.37	-0.250			
0.9137	58479.02	3.4360	3.4359	-1.2577	24.99	0.38	-0.250			
0.9175	58717.61	3.4330	3.4330	-1.1973	24.99	0.38	-0.250			
0.9209	58940.56	3.4300	3.4299	-1.1288	25.00	0.39	-0.250	0.496	0.783	
0.9242	59149.94	3.4270	3.4272	-1.0653	25.00	0.39	-0.250			
0.9273	59348.38	3.4240	3.4241	-1.0023	25.01	0.40	-0.250			
0.9302	59535.51	3.4210	3.4211	-0.9345	25.01	0.40	-0.250			
0.9329	59707.24	3.4180	3.4180	-0.8677	25.01	0.40	-0.250			
0.9355	59869.35	3.4150	3.4148	-0.8071	25.01	0.40	-0.250			
0.9378	60017.98	3.4120	3.4119	-0.7411	25.02	0.41	-0.250			
0.9399	60152.74	3.4090	3.4090	-0.6804	25.03	0.42	-0.250	0.463	0.813	
0.9418	60274.62	3.4060	3.4060	-0.6198	25.03	0.42	-0.250			
0.9435	60386.75	3.4030	3.4031	-0.5656	25.03	0.42	-0.250			
0.9452	60491.16	3.4000	3.3999	-0.5226	25.03	0.42	-0.250			
0.9466	60584.53	3.3970	3.3969	-0.4770	25.04	0.43	-0.250			
0.9480	60671.70	3.3940	3.3941	-0.4419	25.04	0.43	-0.250			
0.9492	60751.61	3.3910	3.3909	-0.4104	25.04	0.43	-0.250			
0.9504	60826.04	3.3880	3.3880	-0.3803	25.05	0.44	-0.250			
0.9515	60896.88	3.3850	3.3849	-0.3588	25.05	0.44	-0.250			
0.9525	60962.47	3.3820	3.3821	-0.3355	25.05	0.44	-0.250			
0.9535	61024.12	3.3790	3.3789	-0.3173	25.06	0.45	-0.250			
0.9544	61082.27	3.3760	3.3760	-0.2991	25.06	0.45	-0.250			
0.9553	61137.89	3.3730	3.3730	-0.2837	25.07	0.46	-0.250			
0.9561	61190.69	3.3700	3.3700	-0.2717	25.07	0.46	-0.250			
0.9569	61241.04	3.3670	3.3671	-0.2600	25.07	0.46	-0.250			
0.9576	61289.03	3.3640	3.3640	-0.2522	25.08	0.47	-0.250			
0.9584	61336.43	3.3610	3.3610	-0.2443	25.08	0.47	-0.250			
0.9591	61383.15	3.3580	3.3580	-0.2360	25.08	0.47	-0.250			
0.9598	61427.92	3.3550	3.3548	-0.2289	25.09	0.48	-0.250			
0.9605	61471.36	3.3520	3.3520	-0.2226	25.09	0.48	-0.250	0.502	0.847	
0.9611	61513.15	3.3490	3.3490	-0.2159	25.09	0.48	-0.250			
0.9618	61553.35	3.3460	3.3459	-0.2108	25.10	0.49	-0.250			
0.9624	61592.72	3.3430	3.3430	-0.2050	25.10	0.49	-0.250			
0.9630	61630.58	3.3400	3.3400	-0.1995	25.11	0.50	-0.250			
0.9636	61669.09	3.3370	3.3370	-0.1978	25.11	0.50	-0.250			
0.9642	61707.06	3.3340	3.3340	-0.1954	25.12	0.51	-0.250			
0.9648	61744.26	3.3310	3.3311	-0.1920	25.12	0.51	-0.250			
0.9653	61780.63	3.3280	3.3280	-0.1889	25.12	0.51	-0.250			
0.9659	61816.69	3.3250	3.3250	-0.1859	25.13	0.52	-0.250			
0.9664	61851.82	3.3220	3.3220	-0.1826	25.13	0.52	-0.250			
0.9670	61886.65	3.3190	3.3191	-0.1802	25.13	0.52	-0.250			
0.9675	61921.27	3.3160	3.3159	-0.1778	25.13	0.52	-0.250			
0.9680	61955.06	3.3130	3.3130	-0.1743	25.14	0.53	-0.250			
0.9686	61988.31	3.3100	3.3099	-0.1713	25.14	0.53	-0.250			
0.9691	62020.82	3.3070	3.3069	-0.1689	25.14	0.53	-0.250			
0.9696	62052.93	3.3040	3.3040	-0.1663	25.14	0.53	-0.250			
0.9701	62084.49	3.3010	3.3009	-0.1641	25.14	0.53	-0.250			
0.9706	62115.57	3.2980	3.2980	-0.1616	25.14	0.53	-0.250			
0.9710	62146.36	3.2950	3.2951	-0.1604	25.15	0.54	-0.250			
0.9715	62176.99	3.2920	3.2920	-0.1584	25.15	0.54	-0.250			
0.9720	62207.51	3.2890	3.2890	-0.1568	25.15	0.54	-0.250			
0.9725	62237.41	3.2860	3.2860	-0.1546	25.15	0.54	-0.250			
0.9729	62266.83	3.2830	3.2830	-0.1526	25.15	0.54	-0.250			
0.9734	62296.03	3.2800	3.2800	-0.1509	25.15	0.54	-0.250			
0.9738	62324.79	3.2770	3.2770	-0.1486	25.16	0.55	-0.250			
0.9743	62353.11	3.2740	3.2740	-0.1464	25.16	0.55	-0.250			
0.9747	62380.95	3.2710	3.2710	-0.1439	25.16	0.55	-0.250			
0.9751	62408.28	3.2680	3.2681	-0.1428	25.17	0.56	-0.250			
0.9756	62435.59	3.2650	3.2650	-0.1409	25.17	0.56	-0.250			
0.9760	62462.47	3.2620	3.2619	-0.1391	25.17	0.56	-0.250			
0.9764	62488.86	3.2590	3.2589	-0.1375	25.17	0.56	-0.250			
0.9768	62515.15	3.2560	3.2560	-0.1358	25.18	0.57	-0.250			
0.9772	62541.22	3.2530	3.2532	-0.1344	25.18	0.57	-0.250			
0.9776	62566.87	3.2500	3.2499	-0.1324	25.18	0.57	-0.250			
0.9780	62592.26	3.2470	3.2470	-0.1305	25.18	0.57	-0.250			
0.9784	62616.73	3.2440	3.2441	-0.1285	25.19	0.58	-0.250			
0.9788	62641.07	3.2410	3.2410	-0.1278	25.19	0.58	-0.250			
0.9791	62665.52	3.2380	3.2380	-0.1270	25.19	0.58	-0.250			
0.9795	62689.52	3.2350	3.2350	-0.1259	25.19	0.58	-0.250			
0.9799	62714.42	3.2320	3.2319	-0.1236	25.19	0.58	-0.250			
0.9803	62738.37	3.2290	3.2288	-0.1222	25.20	0.59	-0.250			
0.9807	62761.79	3.2260	3.2258	-0.1210	25.20	0.59	-0.250	0.474	0.858	
0.9810	62784.76	3.2230	3.2233	-0.1182	25.20	0.59	-0.250			
0.9814	62807.02	3.2200	3.2201	-0.1164	25.20	0.59	-0.250			
0.9817	62829.16	3.2170	3.2168	-0.1142	25.20	0.59	-0.250			
0.9820	62850.01	3.2140	3.2139	-0.1118	25.20	0.59	-0.250			
0.9824	62871.26	3.2110	3.2111	-0.1108	25.21	0.60	-0.250			
0.9827	62892.52	3.2080	3.2080	-0.1103	25.21	0.60	-0.250			
0.9830	62914.03	3.2050	3.2050	-0.1103	25.21	0.60	-0.250			
0.9834	62935.19	3.2020	3.2020	-0.1089	25.21	0.60	-0.250			
0.9837	62955.86	3.1990	3.1990	-0.1075	25.21	0.60	-0.250			
0.9840	62976.43	3.1960	3.1960	-0.1062	25.21	0.60	-0.250			
0.9843	62996.85	3.1930	3.1930	-0.1051	25.21	0.60	-0.250			
0.9846	63016.89	3.1900	3.1900	-0.1037	25.22	0.61	-0.250			
0.9849	63036.75	3.1870	3.1870	-0.1024	25.22	0.61	-0.250			
