Ah_balance (normalized)	Ah_balance (mAh)	Voltage - fit (V)	Voltage -  interpolate (V)	dQ/dV (1/V)	Temperature (°C)	Temperature - diff (°C)	Current (C)	R_DC 0ms (mOhm)	R_DC 50ms (mOhm)	R_DC 50 ms PEC (mOhm)
0.4057	25962.65	3.7510	3.7507	-0.1050	25.98	0.00	-0.750			
0.4061	25989.63	3.7480	3.7479	-0.1662	25.98	0.00	-0.750			
0.4067	26026.88	3.7450	3.7448	-0.2167	25.98	0.00	-0.750			
0.4074	26073.64	3.7420	3.7420	-0.2648	25.98	0.00	-0.750			
0.4083	26129.28	3.7390	3.7390	-0.3109	25.98	0.00	-0.750			
0.4093	26193.77	3.7360	3.7361	-0.3570	25.98	0.00	-0.750			
0.4104	26268.12	3.7330	3.7330	-0.3994	25.98	0.00	-0.750			
0.4117	26350.72	3.7300	3.7299	-0.4341	25.98	0.00	-0.750			
0.4131	26438.56	3.7270	3.7272	-0.4652	25.98	0.00	-0.750			
0.4146	26532.33	3.7240	3.7240	-0.4915	25.98	0.00	-0.750			
0.4161	26629.67	3.7210	3.7210	-0.5105	25.98	0.00	-0.750			
0.4177	26730.29	3.7180	3.7180	-0.5264	25.98	0.00	-0.750			
0.4193	26832.72	3.7150	3.7150	-0.5379	25.98	0.00	-0.750			
0.4209	26939.14	3.7120	3.7120	-0.5498	25.98	0.00	-0.750			
0.4226	27046.00	3.7090	3.7090	-0.5576	25.98	0.00	-0.750			
0.4243	27153.82	3.7060	3.7060	-0.5637	25.98	0.00	-0.750			
0.4260	27262.24	3.7030	3.7030	-0.5715	25.98	-0.00	-0.750			
0.4277	27372.21	3.7000	3.7000	-0.5807	25.98	-0.00	-0.750			
0.4294	27483.70	3.6970	3.6970	-0.5923	25.98	-0.00	-0.750			
0.4312	27597.01	3.6940	3.6940	-0.6099	25.98	-0.00	-0.750			
0.4330	27714.28	3.6910	3.6910	-0.6280	25.97	-0.01	-0.750			
0.4349	27834.88	3.6880	3.6881	-0.6580	25.97	-0.01	-0.750			
0.4369	27960.25	3.6850	3.6850	-0.6985	25.97	-0.01	-0.750			
0.4390	28097.19	3.6820	3.6820	-0.7459	25.97	-0.01	-0.750			
0.4413	28241.38	3.6790	3.6790	-0.8061	25.96	-0.02	-0.750			
0.4438	28403.63	3.6760	3.6760	-0.8662	25.95	-0.03	-0.750			
0.4465	28576.04	3.6730	3.6730	-0.9326	25.94	-0.04	-0.750			
0.4494	28762.86	3.6700	3.6699	-1.0028	25.93	-0.05	-0.750			
0.4525	28959.62	3.6670	3.6669	-1.0721	25.92	-0.06	-0.750			
0.4558	29172.19	3.6640	3.6640	-1.1606	25.90	-0.08	-0.750			
0.4594	29398.45	3.6610	3.6610	-1.2492	25.88	-0.10	-0.750			
0.4633	29650.96	3.6580	3.6580	-1.3359	25.86	-0.12	-0.750			
0.4674	29916.56	3.6550	3.6550	-1.4381	25.85	-0.13	-0.750			
0.4719	30202.83	3.6520	3.6519	-1.4916	25.83	-0.15	-0.750			
0.4765	30493.38	3.6490	3.6492	-1.6068	25.82	-0.16	-0.750			
0.4814	30811.90	3.6460	3.6458	-1.6468	25.80	-0.18	-0.750			
0.4864	31132.10	3.6430	3.6429	-1.7310	25.79	-0.19	-0.750			
0.4917	31469.40	3.6400	3.6399	-1.7779	25.77	-0.21	-0.750			
0.4971	31814.91	3.6370	3.6371	-1.9104	25.75	-0.23	-0.750			
0.5029	32185.17	3.6340	3.6339	-1.9198	25.74	-0.24	-0.750			
0.5088	32566.22	3.6310	3.6309	-1.9599	25.73	-0.25	-0.750			
0.5146	32932.33	3.6280	3.6281	-1.9173	25.72	-0.26	-0.750			
0.5204	33305.38	3.6250	3.6248	-2.0104	25.72	-0.26	-0.750			
0.5264	33690.88	3.6220	3.6221	-2.0935	25.72	-0.26	-0.750			
0.5329	34104.30	3.6190	3.6190	-2.0938	25.71	-0.27	-0.750			
0.5393	34512.86	3.6160	3.6159	-2.1314	25.71	-0.27	-0.750			
0.5456	34921.24	3.6130	3.6131	-2.1693	25.72	-0.26	-0.750			
0.5521	35337.57	3.6100	3.6101	-2.1167	25.73	-0.25	-0.750			
0.5586	35752.31	3.6070	3.6069	-2.1991	25.74	-0.24	-0.750			
0.5655	36190.86	3.6040	3.6039	-2.2977	25.76	-0.22	-0.750			
0.5721	36615.20	3.6010	3.6011	-2.2717	25.77	-0.21	-0.750			
0.5790	37056.26	3.5980	3.5981	-2.2728	25.79	-0.19	-0.750			
0.5862	37514.19	3.5950	3.5948	-2.3134	25.80	-0.18	-0.750			
0.5931	37956.75	3.5920	3.5922	-2.3489	25.82	-0.16	-0.750	0.433	0.578	
0.6000	38401.23	3.5890	3.5892	-2.3688	25.84	-0.14	-0.750			
0.6074	38873.47	3.5860	3.5860	-2.3511	25.87	-0.11	-0.750			
0.6145	39325.88	3.5830	3.5828	-2.3487	25.90	-0.08	-0.750			
0.6217	39785.67	3.5800	3.5799	-2.4528	25.93	-0.05	-0.750			
0.6287	40234.17	3.5770	3.5772	-2.4688	25.95	-0.03	-0.750			
0.6362	40719.18	3.5740	3.5741	-2.4335	25.99	0.01	-0.750			
0.6436	41191.65	3.5710	3.5709	-2.4352	26.03	0.05	-0.750			
0.6512	41674.80	3.5680	3.5678	-2.4462	26.06	0.08	-0.750			
0.6582	42122.32	3.5650	3.5651	-2.4613	26.10	0.12	-0.750			
0.6654	42583.76	3.5620	3.5622	-2.4534	26.13	0.15	-0.750			
0.6730	43069.53	3.5590	3.5591	-2.4373	26.18	0.20	-0.750			
0.6805	43552.34	3.5560	3.5558	-2.3914	26.23	0.25	-0.750			
0.6876	44005.36	3.5530	3.5528	-2.3709	26.28	0.30	-0.750			
0.6943	44435.35	3.5500	3.5501	-2.3918	26.32	0.34	-0.750			
0.7016	44899.71	3.5470	3.5472	-2.2889	26.38	0.40	-0.750			
0.7086	45353.58	3.5440	3.5438	-2.2586	26.43	0.45	-0.750			
0.7154	45784.42	3.5410	3.5409	-2.2872	26.48	0.50	-0.750			
0.7217	46187.78	3.5380	3.5382	-2.1695	26.54	0.56	-0.750			
0.7283	46613.16	3.5350	3.5350	-2.1545	26.60	0.62	-0.750			
0.7349	47035.26	3.5320	3.5317	-2.1356	26.67	0.69	-0.750			
0.7410	47422.10	3.5290	3.5292	-2.0156	26.72	0.74	-0.750			
0.7470	47808.94	3.5260	3.5259	-1.9727	26.80	0.82	-0.750			
0.7527	48174.61	3.5230	3.5229	-1.9296	26.86	0.88	-0.750			
0.7585	48543.03	3.5200	3.5199	-1.8831	26.93	0.95	-0.750			
0.7641	48904.94	3.5170	3.5170	-1.8710	27.01	1.03	-0.750			
0.7696	49255.22	3.5140	3.5139	-1.8059	27.10	1.12	-0.750			
0.7750	49597.21	3.5110	3.5111	-1.7859	27.19	1.21	-0.750			
