Ah_balance (normalized)	Ah_balance (mAh)	Voltage - fit (V)	Voltage -  interpolate (V)	dQ/dV (1/V)	Temperature (°C)	Temperature - diff (°C)	Current (C)	R_DC 0ms (mOhm)	R_DC 50ms (mOhm)	R_DC 50 ms PEC (mOhm)
-0.0028	-181.13	4.1990	4.1989	0.8420	24.37	-0.30	0.050			
-0.0020	-127.20	4.1980	4.1979	0.8432	24.35	-0.32	0.050			
-0.0011	-72.88	4.1970	4.1970	0.8484	24.34	-0.33	0.050			
-0.0003	-18.56	4.1960	4.1960	0.8484	24.32	-0.35	0.050			
0.0006	35.62	4.1950	4.1950	0.8479	24.30	-0.37	0.050			
0.0014	89.61	4.1940	4.1940	0.8477	24.29	-0.38	0.050			
0.0022	143.79	4.1930	4.1930	0.8483	24.28	-0.39	0.050			
0.0031	198.12	4.1920	4.1920	0.8491	24.27	-0.40	0.050			
0.0039	252.53	4.1910	4.1910	0.8497	24.26	-0.41	0.050			
0.0048	306.98	4.1900	4.1900	0.8502	24.26	-0.41	0.050			
0.0056	361.51	4.1890	4.1890	0.8505	24.24	-0.43	0.050			
0.0065	415.99	4.1880	4.1880	0.8503	24.23	-0.44	0.050			
0.0074	470.56	4.1870	4.1869	0.8508	24.22	-0.45	0.050			
0.0082	525.32	4.1860	4.1860	0.8517	24.22	-0.45	0.050			
0.0091	579.73	4.1850	4.1851	0.8511	24.22	-0.45	0.050			
0.0099	634.08	4.1840	4.1840	0.8513	24.20	-0.47	0.050			
0.0108	688.67	4.1830	4.1830	0.8512	24.20	-0.47	0.050			
0.0116	743.27	4.1820	4.1821	0.8516	24.20	-0.47	0.050			
0.0125	797.67	4.1810	4.1810	0.8520	24.21	-0.46	0.050			
0.0133	852.20	4.1800	4.1800	0.8521	24.20	-0.47	0.050			
0.0142	906.81	4.1790	4.1790	0.8520	24.20	-0.47	0.050			
0.0150	961.43	4.1780	4.1779	0.8523	24.20	-0.47	0.050			
0.0159	1016.14	4.1770	4.1769	0.8528	24.21	-0.46	0.050	0.251	0.493	
0.0167	1070.30	4.1760	4.1759	0.8532	24.24	-0.43	0.050			
0.0176	1124.72	4.1750	4.1749	0.8533	24.22	-0.45	0.050			
0.0184	1179.04	4.1740	4.1741	0.8533	24.24	-0.43	0.050			
0.0193	1233.96	4.1730	4.1730	0.8535	24.24	-0.43	0.050			
0.0201	1288.66	4.1720	4.1720	0.8537	24.25	-0.42	0.050			
0.0210	1343.39	4.1710	4.1711	0.8542	24.26	-0.41	0.050			
0.0218	1398.18	4.1700	4.1700	0.8543	24.26	-0.41	0.050			
0.0227	1452.93	4.1690	4.1690	0.8546	24.27	-0.40	0.050			
0.0236	1507.65	4.1680	4.1680	0.8551	24.27	-0.40	0.050			
0.0244	1562.18	4.1670	4.1670	0.8554	24.29	-0.38	0.050			
0.0253	1617.16	4.1660	4.1661	0.8563	24.30	-0.37	0.050			
0.0261	1671.80	4.1650	4.1650	0.8563	24.30	-0.37	0.050			
0.0270	1726.59	4.1640	4.1640	0.8563	24.31	-0.36	0.050			
0.0278	1781.47	4.1630	4.1631	0.8572	24.32	-0.35	0.050			
0.0287	1836.29	4.1620	4.1619	0.8576	24.33	-0.34	0.050			
0.0295	1890.83	4.1610	4.1610	0.8582	24.34	-0.33	0.050			
0.0304	1945.84	4.1600	4.1601	0.8592	24.34	-0.33	0.050			
0.0313	2000.78	4.1590	4.1589	0.8601	24.35	-0.32	0.050			
0.0321	2055.91	4.1580	4.1581	0.8598	24.36	-0.31	0.050			
0.0330	2110.90	4.1570	4.1570	0.8607	24.37	-0.30	0.050			
0.0338	2165.80	4.1560	4.1560	0.8609	24.38	-0.29	0.050			
0.0347	2221.05	4.1550	4.1550	0.8622	24.40	-0.27	0.050			
0.0356	2276.58	4.1540	4.1539	0.8624	24.40	-0.27	0.050	0.223	0.399	
0.0364	2332.04	4.1530	4.1530	0.8635	24.40	-0.27	0.050			
0.0373	2387.52	4.1520	4.1520	0.8634	24.42	-0.25	0.050			
0.0382	2442.72	4.1510	4.1510	0.8634	24.42	-0.25	0.050			
0.0390	2497.88	4.1500	4.1500	0.8640	24.43	-0.24	0.050			
0.0399	2553.29	4.1490	4.1490	0.8644	24.44	-0.23	0.050			
0.0408	2608.52	4.1480	4.1479	0.8641	24.44	-0.23	0.050			
0.0416	2663.63	4.1470	4.1470	0.8648	24.44	-0.23	0.050			
0.0425	2719.02	4.1460	4.1460	0.8655	24.46	-0.21	0.050			
0.0433	2774.33	4.1450	4.1451	0.8659	24.46	-0.21	0.050			
0.0442	2829.62	4.1440	4.1439	0.8666	24.47	-0.20	0.050			
0.0451	2885.14	4.1430	4.1430	0.8667	24.48	-0.19	0.050			
0.0459	2940.54	4.1420	4.1420	0.8665	24.48	-0.19	0.050			
0.0468	2996.12	4.1410	4.1410	0.8664	24.49	-0.18	0.050			
0.0477	3051.56	4.1400	4.1400	0.8663	24.50	-0.17	0.050			
0.0486	3107.32	4.1390	4.1390	0.8666	24.51	-0.16	0.050			
0.0494	3162.98	4.1380	4.1380	0.8675	24.52	-0.15	0.050			
0.0503	3218.36	4.1370	4.1371	0.8671	24.53	-0.14	0.050			
0.0512	3273.87	4.1360	4.1360	0.8676	24.54	-0.13	0.050			
0.0520	3329.50	4.1350	4.1350	0.8679	24.54	-0.13	0.050			
0.0529	3385.15	4.1340	4.1340	0.8689	24.54	-0.13	0.050			
0.0538	3440.69	4.1330	4.1331	0.8682	24.54	-0.13	0.050			
0.0546	3496.22	4.1320	4.1320	0.8685	24.53	-0.14	0.050			
0.0555	3551.61	4.1310	4.1310	0.8685	24.52	-0.15	0.050	0.249	0.426	
0.0564	3607.03	4.1300	4.1300	0.8688	24.51	-0.16	0.050			
0.0572	3662.63	4.1290	4.1290	0.8693	24.51	-0.16	0.050			
0.0581	3718.21	4.1280	4.1280	0.8700	24.50	-0.17	0.050			
0.0590	3773.65	4.1270	4.1270	0.8697	24.50	-0.17	0.050			
0.0598	3829.26	4.1260	4.1261	0.8708	24.48	-0.19	0.050			
0.0607	3884.96	4.1250	4.1250	0.8720	24.47	-0.20	0.050			
0.0616	3940.95	4.1240	4.1241	0.8727	24.48	-0.19	0.050			
0.0625	3996.90	4.1230	4.1230	0.8733	24.48	-0.19	0.050			
0.0633	4053.13	4.1220	4.1220	0.8742	24.46	-0.21	0.050			
0.0642	4109.38	4.1210	4.1209	0.8740	24.46	-0.21	0.050			
0.0651	4165.42	4.1200	4.1200	0.8744	24.44	-0.23	0.050			
0.0660	4221.54	4.1190	4.1190	0.8740	24.44	-0.23	0.050			
0.0668	4277.44	4.1180	4.1180	0.8732	24.43	-0.24	0.050			
0.0677	4333.28	4.1170	4.1170	0.8733	24.42	-0.25	0.050			
0.0686	4388.91	4.1160	4.1160	0.8747	24.41	-0.26	0.050			
0.0695	4445.07	4.1150	4.1150	0.8747	24.40	-0.27	0.050			
0.0703	4501.13	4.1140	4.1141	0.8742	24.40	-0.27	0.050			
0.0712	4557.06	4.1130	4.1130	0.8747	24.39	-0.28	0.050			
0.0721	4613.00	4.1120	4.1120	0.8748	24.37	-0.30	0.050			
0.0729	4668.63	4.1110	4.1110	0.8753	24.36	-0.31	0.050			
0.0738	4724.24	4.1100	4.1100	0.8760	24.35	-0.32	0.050			
0.0747	4780.38	4.1090	4.1089	0.8764	24.36	-0.31	0.050			
0.0756	4836.37	4.1080	4.1079	0.8777	24.36	-0.31	0.050	0.095	0.382	
0.0764	4892.47	4.1070	4.1070	0.8781	24.35	-0.32	0.050			
0.0773	4948.63	4.1060	4.1061	0.8784	24.36	-0.31	0.050			
0.0782	5004.88	4.1050	4.1050	0.8791	24.35	-0.32	0.050			
0.0791	5061.67	4.1040	4.1040	0.8797	24.35	-0.32	0.050			
0.0800	5118.19	4.1030	4.1030	0.8808	24.36	-0.31	0.050			
0.0809	5174.60	4.1020	4.1020	0.8812	24.36	-0.31	0.050			
0.0817	5231.12	4.1010	4.1010	0.8823	24.36	-0.31	0.050			
0.0826	5287.65	4.1000	4.1000	0.8827	24.38	-0.29	0.050			
0.0835	5344.14	4.0990	4.0990	0.8825	24.38	-0.29	0.050			
0.0844	5400.73	4.0980	4.0980	0.8825	24.38	-0.29	0.050			
0.0853	5457.13	4.0970	4.0971	0.8823	24.39	-0.28	0.050			
0.0861	5513.56	4.0960	4.0959	0.8820	24.40	-0.27	0.050			
0.0870	5570.07	4.0950	4.0950	0.8832	24.40	-0.27	0.050			
0.0879	5626.71	4.0940	4.0940	0.8840	24.40	-0.27	0.050			
0.0888	5683.01	4.0930	4.0930	0.8833	24.40	-0.27	0.050			
0.0897	5739.35	4.0920	4.0920	0.8839	24.40	-0.27	0.050			
0.0906	5795.72	4.0910	4.0910	0.8840	24.40	-0.27	0.050			
0.0914	5852.30	4.0900	4.0900	0.8850	24.40	-0.27	0.050			
0.0923	5909.07	4.0890	4.0889	0.8859	24.40	-0.27	0.050			
0.0932	5965.65	4.0880	4.0880	0.8867	24.42	-0.25	0.050			
0.0941	6022.35	4.0870	4.0871	0.8875	24.42	-0.25	0.050			
0.0950	6079.30	4.0860	4.0859	0.8888	24.42	-0.25	0.050			
0.0959	6136.24	4.0850	4.0849	0.8889	24.42	-0.25	0.050	0.413	0.463	
0.0968	6193.24	4.0840	4.0840	0.8903	24.43	-0.24	0.050			
0.0977	6250.33	4.0830	4.0830	0.8898	24.42	-0.25	0.050			
0.0986	6307.26	4.0820	4.0820	0.8904	24.43	-0.24	0.050			
0.0994	6364.40	4.0810	4.0809	0.8918	24.43	-0.24	0.050			
0.1003	6421.53	4.0800	4.0800	0.8916	24.43	-0.24	0.050			
0.1012	6478.91	4.0790	4.0790	0.8926	24.43	-0.24	0.050			
0.1021	6535.83	4.0780	4.0781	0.8926	24.42	-0.25	0.050			
0.1030	6593.11	4.0770	4.0770	0.8934	24.42	-0.25	0.050			
0.1039	6650.11	4.0760	4.0760	0.8944	24.44	-0.23	0.050			
0.1048	6707.28	4.0750	4.0750	0.8948	24.44	-0.23	0.050			
0.1057	6764.66	4.0740	4.0740	0.8948	24.42	-0.25	0.050			
0.1066	6822.08	4.0730	4.0730	0.8942	24.42	-0.25	0.050			
0.1075	6879.21	4.0720	4.0720	0.8947	24.42	-0.25	0.050			
0.1084	6936.34	4.0710	4.0711	0.8961	24.42	-0.25	0.050			
0.1093	6993.49	4.0700	4.0700	0.8968	24.43	-0.24	0.050			
0.1102	7050.86	4.0690	4.0689	0.8979	24.43	-0.24	0.050			
0.1111	7108.26	4.0680	4.0680	0.8989	24.44	-0.23	0.050			
0.1120	7165.98	4.0670	4.0670	0.8989	24.43	-0.24	0.050			
0.1129	7223.65	4.0660	4.0660	0.8993	24.44	-0.23	0.050			
0.1138	7281.50	4.0650	4.0649	0.8999	24.43	-0.24	0.050			
0.1147	7339.15	4.0640	4.0641	0.8996	24.44	-0.23	0.050			
0.1156	7397.06	4.0630	4.0629	0.9002	24.44	-0.23	0.050			
0.1165	7454.66	4.0620	4.0621	0.8997	24.44	-0.23	0.050			
0.1174	7512.31	4.0610	4.0609	0.8992	24.45	-0.22	0.050			
0.1183	7569.87	4.0600	4.0601	0.9003	24.44	-0.23	0.050			
0.1192	7627.34	4.0590	4.0590	0.9006	24.44	-0.23	0.050			
0.1201	7684.68	4.0580	4.0581	0.9006	24.45	-0.22	0.050			
0.1210	7742.32	4.0570	4.0570	0.9010	24.45	-0.22	0.050			
0.1219	7799.59	4.0560	4.0559	0.9019	24.46	-0.21	0.050			
0.1228	7857.23	4.0550	4.0550	0.9030	24.46	-0.21	0.050			
0.1237	7915.14	4.0540	4.0540	0.9042	24.46	-0.21	0.050			
0.1246	7972.90	4.0530	4.0530	0.9045	24.45	-0.22	0.050			
0.1255	8030.61	4.0520	4.0519	0.9053	24.44	-0.23	0.050			
0.1264	8088.15	4.0510	4.0509	0.9055	24.43	-0.24	0.050			
0.1273	8146.19	4.0500	4.0500	0.9062	24.42	-0.25	0.050			
0.1282	8204.32	4.0490	4.0490	0.9081	24.41	-0.26	0.050			
0.1291	8262.52	4.0480	4.0480	0.9099	24.40	-0.27	0.050			
0.1300	8320.95	4.0470	4.0470	0.9124	24.39	-0.28	0.050			
0.1309	8379.51	4.0460	4.0460	0.9136	24.38	-0.29	0.050			
0.1318	8438.28	4.0450	4.0450	0.9145	24.37	-0.30	0.050			
0.1328	8497.10	4.0440	4.0440	0.9155	24.35	-0.32	0.050			
0.1337	8555.93	4.0430	4.0430	0.9158	24.33	-0.34	0.050			
0.1346	8614.77	4.0420	4.0420	0.9159	24.32	-0.35	0.050			
0.1355	8673.48	4.0410	4.0409	0.9156	24.31	-0.36	0.050	0.075	0.393	
0.1364	8731.86	4.0400	4.0400	0.9160	24.30	-0.37	0.050			
0.1373	8790.33	4.0390	4.0390	0.9163	24.29	-0.38	0.050			
0.1383	8849.32	4.0380	4.0380	0.9169	24.27	-0.40	0.050			
0.1392	8907.91	4.0370	4.0371	0.9167	24.27	-0.40	0.050			
0.1401	8966.34	4.0360	4.0360	0.9177	24.27	-0.40	0.050			
0.1410	9024.87	4.0350	4.0351	0.9183	24.26	-0.41	0.050			
0.1419	9083.57	4.0340	4.0339	0.9205	24.25	-0.42	0.050			
0.1429	9142.58	4.0330	4.0330	0.9213	24.23	-0.44	0.050			
0.1438	9201.53	4.0320	4.0319	0.9216	24.22	-0.45	0.050			
0.1447	9260.38	4.0310	4.0309	0.9226	24.22	-0.45	0.050			
0.1456	9319.59	4.0300	4.0300	0.9225	24.22	-0.45	0.050			
0.1465	9378.56	4.0290	4.0291	0.9226	24.22	-0.45	0.050			
0.1475	9437.88	4.0280	4.0280	0.9228	24.20	-0.47	0.050			
0.1484	9496.86	4.0270	4.0270	0.9239	24.20	-0.47	0.050			
0.1493	9556.20	4.0260	4.0260	0.9250	24.22	-0.45	0.050			
0.1502	9615.58	4.0250	4.0250	0.9264	24.22	-0.45	0.050			
0.1512	9674.99	4.0240	4.0241	0.9278	24.24	-0.43	0.050			
0.1521	9734.29	4.0230	4.0230	0.9287	24.24	-0.43	0.050			
0.1530	9793.76	4.0220	4.0220	0.9295	24.24	-0.43	0.050			
0.1540	9853.34	4.0210	4.0211	0.9297	24.26	-0.41	0.050			
0.1549	9912.44	4.0200	4.0200	0.9300	24.26	-0.41	0.050			
0.1558	9971.98	4.0190	4.0189	0.9311	24.28	-0.39	0.050	0.339	0.415	
0.1567	10031.59	4.0180	4.0179	0.9323	24.28	-0.39	0.050			
0.1577	10091.22	4.0170	4.0170	0.9331	24.29	-0.38	0.050			
0.1586	10150.39	4.0160	4.0160	0.9337	24.30	-0.37	0.050			
0.1595	10210.39	4.0150	4.0150	0.9350	24.30	-0.37	0.050			
0.1605	10270.15	4.0140	4.0140	0.9360	24.30	-0.37	0.050			
0.1614	10330.30	4.0130	4.0130	0.9381	24.32	-0.35	0.050			
0.1624	10390.64	4.0120	4.0119	0.9393	24.33	-0.34	0.050			
0.1633	10450.91	4.0110	4.0110	0.9400	24.36	-0.31	0.050			
0.1642	10511.57	4.0100	4.0099	0.9409	24.35	-0.32	0.050			
0.1652	10571.84	4.0090	4.0090	0.9414	24.36	-0.31	0.050			
0.1661	10631.80	4.0080	4.0080	0.9427	24.38	-0.29	0.050			
0.1671	10692.05	4.0070	4.0070	0.9436	24.38	-0.29	0.050			
0.1680	10752.44	4.0060	4.0060	0.9439	24.40	-0.27	0.050			
0.1690	10812.88	4.0050	4.0050	0.9448	24.40	-0.27	0.050			
0.1699	10873.23	4.0040	4.0040	0.9457	24.42	-0.25	0.050			
0.1708	10933.55	4.0030	4.0030	0.9474	24.43	-0.24	0.050			
0.1718	10994.24	4.0020	4.0020	0.9490	24.44	-0.23	0.050			
0.1727	11055.02	4.0010	4.0010	0.9498	24.44	-0.23	0.050			
0.1737	11115.66	4.0000	4.0000	0.9508	24.45	-0.22	0.050			
0.1746	11176.57	3.9990	3.9990	0.9518	24.46	-0.21	0.050			
0.1756	11237.46	3.9980	3.9980	0.9533	24.47	-0.20	0.050	0.139	0.450	
0.1765	11298.59	3.9970	3.9970	0.9548	24.46	-0.21	0.050			
0.1775	11359.51	3.9960	3.9960	0.9565	24.48	-0.19	0.050			
0.1785	11420.85	3.9950	3.9950	0.9583	24.49	-0.18	0.050			
0.1794	11482.46	3.9940	3.9940	0.9593	24.50	-0.17	0.050			
0.1804	11544.10	3.9930	3.9930	0.9602	24.51	-0.16	0.050			
0.1813	11605.92	3.9920	3.9919	0.9615	24.52	-0.15	0.050			
0.1823	11667.84	3.9910	3.9910	0.9622	24.52	-0.15	0.050			
0.1833	11729.62	3.9900	3.9900	0.9623	24.53	-0.14	0.050			
0.1842	11791.23	3.9890	3.9890	0.9616	24.54	-0.13	0.050			
0.1852	11852.86	3.9880	3.9880	0.9614	24.54	-0.13	0.050			
0.1862	11914.47	3.9870	3.9870	0.9626	24.54	-0.13	0.050			
0.1871	11975.94	3.9860	3.9861	0.9631	24.54	-0.13	0.050			
0.1881	12037.61	3.9850	3.9850	0.9629	24.54	-0.13	0.050			
0.1890	12099.17	3.9840	3.9840	0.9628	24.54	-0.13	0.050			
0.1900	12160.44	3.9830	3.9830	0.9636	24.54	-0.13	0.050			
0.1910	12222.07	3.9820	3.9820	0.9642	24.55	-0.12	0.050			
0.1919	12283.85	3.9810	3.9810	0.9651	24.54	-0.13	0.050			
0.1929	12345.43	3.9800	3.9800	0.9661	24.54	-0.13	0.050			
0.1939	12407.08	3.9790	3.9790	0.9664	24.52	-0.15	0.050			
0.1948	12468.75	3.9780	3.9780	0.9674	24.51	-0.16	0.050			
0.1958	12530.49	3.9770	3.9770	0.9684	24.52	-0.15	0.050	0.313	0.371	
0.1968	12592.21	3.9760	3.9760	0.9699	24.51	-0.16	0.050			
0.1977	12654.63	3.9750	3.9750	0.9719	24.50	-0.17	0.050			
0.1987	12716.98	3.9740	3.9740	0.9734	24.48	-0.19	0.050			
0.1997	12779.37	3.9730	3.9730	0.9749	24.47	-0.20	0.050			
0.2007	12841.79	3.9720	3.9720	0.9767	24.47	-0.20	0.050			
0.2016	12904.49	3.9710	3.9710	0.9783	24.46	-0.21	0.050			
0.2026	12967.42	3.9700	3.9700	0.9792	24.44	-0.23	0.050			
0.2036	13030.16	3.9690	3.9690	0.9800	24.44	-0.23	0.050			
0.2046	13092.87	3.9680	3.9680	0.9808	24.43	-0.24	0.050			
0.2056	13155.83	3.9670	3.9670	0.9811	24.42	-0.25	0.050			
0.2065	13218.66	3.9660	3.9661	0.9820	24.41	-0.26	0.050			
0.2075	13281.54	3.9650	3.9650	0.9837	24.40	-0.27	0.050			
0.2085	13344.35	3.9640	3.9640	0.9847	24.39	-0.28	0.050			
0.2095	13407.27	3.9630	3.9630	0.9855	24.38	-0.29	0.050			
0.2105	13470.40	3.9620	3.9619	0.9872	24.38	-0.29	0.050			
0.2115	13533.61	3.9610	3.9610	0.9883	24.36	-0.31	0.050			
0.2125	13597.10	3.9600	3.9600	0.9887	24.36	-0.31	0.050			
0.2134	13660.45	3.9590	3.9590	0.9893	24.37	-0.30	0.050			
0.2144	13723.78	3.9580	3.9580	0.9896	24.37	-0.30	0.050			
0.2154	13787.13	3.9570	3.9569	0.9901	24.37	-0.30	0.050			
0.2164	13850.44	3.9560	3.9560	0.9909	24.36	-0.31	0.050	-0.044	0.368	
0.2174	13913.94	3.9550	3.9550	0.9926	24.38	-0.29	0.050			
0.2184	13977.45	3.9540	3.9541	0.9934	24.39	-0.28	0.050			
0.2194	14041.01	3.9530	3.9530	0.9939	24.38	-0.29	0.050			
0.2204	14104.90	3.9520	3.9521	0.9944	24.39	-0.28	0.050			
0.2214	14168.46	3.9510	3.9510	0.9952	24.38	-0.29	0.050			
0.2224	14232.51	3.9500	3.9499	0.9963	24.38	-0.29	0.050			
0.2234	14296.30	3.9490	3.9491	0.9967	24.40	-0.27	0.050			
0.2244	14360.11	3.9480	3.9480	0.9966	24.41	-0.26	0.050			
0.2254	14424.19	3.9470	3.9470	0.9967	24.41	-0.26	0.050			
0.2264	14487.66	3.9460	3.9460	0.9968	24.41	-0.26	0.050			
0.2274	14551.16	3.9450	3.9450	0.9972	24.42	-0.25	0.050			
0.2284	14614.86	3.9440	3.9441	0.9981	24.42	-0.25	0.050			
0.2294	14678.78	3.9430	3.9430	0.9988	24.42	-0.25	0.050			
0.2304	14742.61	3.9420	3.9420	1.0003	24.42	-0.25	0.050			
0.2314	14806.83	3.9410	3.9410	1.0015	24.43	-0.24	0.050			
0.2324	14871.06	3.9400	3.9400	1.0026	24.42	-0.25	0.050			
0.2334	14935.09	3.9390	3.9390	1.0034	24.43	-0.24	0.050			
0.2344	14999.33	3.9380	3.9380	1.0037	24.42	-0.25	0.050			
0.2354	15063.23	3.9370	3.9369	1.0049	24.43	-0.24	0.050			
0.2364	15127.51	3.9360	3.9359	1.0062	24.43	-0.24	0.050			
0.2374	15191.79	3.9350	3.9350	1.0074	24.44	-0.23	0.050			
0.2384	15256.62	3.9340	3.9340	1.0083	24.44	-0.23	0.050			
0.2394	15321.26	3.9330	3.9330	1.0099	24.44	-0.23	0.050			
0.2404	15386.05	3.9320	3.9320	1.0113	24.44	-0.23	0.050			
0.2414	15451.03	3.9310	3.9310	1.0111	24.44	-0.23	0.050			
0.2424	15516.08	3.9300	3.9300	1.0119	24.44	-0.23	0.050			
0.2435	15580.95	3.9290	3.9290	1.0121	24.45	-0.22	0.050			
0.2445	15645.87	3.9280	3.9280	1.0132	24.46	-0.21	0.050			
0.2455	15710.85	3.9270	3.9270	1.0133	24.46	-0.21	0.050			
0.2465	15775.42	3.9260	3.9260	1.0130	24.46	-0.21	0.050			
0.2475	15840.14	3.9250	3.9250	1.0139	24.48	-0.19	0.050			
0.2485	15905.07	3.9240	3.9239	1.0147	24.46	-0.21	0.050			
0.2495	15969.98	3.9230	3.9230	1.0148	24.46	-0.21	0.050			
0.2505	16034.81	3.9220	3.9220	1.0155	24.47	-0.20	0.050			
0.2516	16099.86	3.9210	3.9210	1.0164	24.46	-0.21	0.050			
0.2526	16164.75	3.9200	3.9200	1.0173	24.47	-0.20	0.050			
0.2536	16229.72	3.9190	3.9190	1.0179	24.48	-0.19	0.050			
0.2546	16294.82	3.9180	3.9181	1.0186	24.48	-0.19	0.050			
0.2556	16359.80	3.9170	3.9169	1.0192	24.48	-0.19	0.050	0.387	0.492	
0.2566	16425.20	3.9160	3.9160	1.0204	24.48	-0.19	0.050			
0.2577	16490.62	3.9150	3.9150	1.0214	24.48	-0.19	0.050			
0.2587	16556.47	3.9140	3.9140	1.0217	24.46	-0.21	0.050			
0.2597	16621.76	3.9130	3.9130	1.0225	24.46	-0.21	0.050			
0.2607	16687.28	3.9120	3.9120	1.0233	24.44	-0.23	0.050			
0.2618	16753.12	3.9110	3.9110	1.0247	24.44	-0.23	0.050			
0.2628	16818.60	3.9100	3.9101	1.0248	24.42	-0.25	0.050			
0.2638	16884.25	3.9090	3.9090	1.0257	24.40	-0.27	0.050			
0.2648	16949.68	3.9080	3.9080	1.0258	24.40	-0.27	0.050			
0.2659	17015.37	3.9070	3.9070	1.0267	24.38	-0.29	0.050			
0.2669	17080.78	3.9060	3.9059	1.0278	24.36	-0.31	0.050			
0.2679	17146.41	3.9050	3.9050	1.0290	24.34	-0.33	0.050			
0.2689	17212.31	3.9040	3.9040	1.0308	24.32	-0.35	0.050			
0.2700	17278.32	3.9030	3.9030	1.0315	24.32	-0.35	0.050			
0.2710	17344.13	3.9020	3.9020	1.0324	24.30	-0.37	0.050			
0.2720	17410.13	3.9010	3.9009	1.0335	24.29	-0.38	0.050			
0.2731	17476.38	3.9000	3.9000	1.0347	24.27	-0.40	0.050			
0.2741	17542.64	3.8990	3.8990	1.0365	24.26	-0.41	0.050			
0.2751	17609.17	3.8980	3.8980	1.0378	24.24	-0.43	0.050			
0.2762	17675.79	3.8970	3.8970	1.0388	24.23	-0.44	0.050			
0.2772	17742.38	3.8960	3.8961	1.0399	24.22	-0.45	0.050			
0.2783	17809.24	3.8950	3.8951	1.0413	24.22	-0.45	0.050			
0.2793	17876.03	3.8940	3.8940	1.0431	24.20	-0.47	0.050			
0.2804	17942.91	3.8930	3.8930	1.0435	24.20	-0.47	0.050			
0.2814	18009.73	3.8920	3.8920	1.0441	24.19	-0.48	0.050			
0.2824	18076.63	3.8910	3.8910	1.0450	24.18	-0.49	0.050			
0.2835	18143.76	3.8900	3.8900	1.0443	24.19	-0.48	0.050			
0.2845	18210.75	3.8890	3.8891	1.0447	24.21	-0.46	0.050			
0.2856	18277.82	3.8880	3.8880	1.0442	24.20	-0.47	0.050			
0.2866	18344.50	3.8870	3.8869	1.0442	24.22	-0.45	0.050			
0.2877	18410.92	3.8860	3.8860	1.0449	24.22	-0.45	0.050			
0.2887	18477.75	3.8850	3.8850	1.0458	24.24	-0.43	0.050			
0.2898	18544.78	3.8840	3.8840	1.0461	24.24	-0.43	0.050			
0.2908	18611.74	3.8830	3.8831	1.0470	24.25	-0.42	0.050			
0.2919	18678.45	3.8820	3.8820	1.0476	24.26	-0.41	0.050			
0.2929	18745.39	3.8810	3.8810	1.0485	24.27	-0.40	0.050			
0.2939	18812.26	3.8800	3.8800	1.0500	24.28	-0.39	0.050			
0.2950	18879.25	3.8790	3.8790	1.0509	24.28	-0.39	0.050			
0.2960	18946.50	3.8780	3.8779	1.0530	24.30	-0.37	0.050	0.346	0.450	
0.2971	19013.89	3.8770	3.8771	1.0540	24.31	-0.36	0.050			
0.2981	19081.25	3.8760	3.8760	1.0553	24.30	-0.37	0.050			
0.2992	19148.87	3.8750	3.8750	1.0570	24.32	-0.35	0.050			
0.3003	19216.43	3.8740	3.8740	1.0587	24.33	-0.34	0.050			
0.3013	19284.38	3.8730	3.8730	1.0614	24.35	-0.32	0.050			
0.3024	19352.63	3.8720	3.8720	1.0630	24.35	-0.32	0.050			
0.3035	19420.84	3.8710	3.8711	1.0645	24.37	-0.30	0.050			
0.3045	19489.53	3.8700	3.8700	1.0662	24.38	-0.29	0.050			
0.3056	19557.76	3.8690	3.8690	1.0672	24.40	-0.27	0.050			
0.3067	19626.04	3.8680	3.8679	1.0686	24.42	-0.25	0.050			
0.3077	19694.25	3.8670	3.8671	1.0692	24.42	-0.25	0.050			
0.3088	19762.60	3.8660	3.8659	1.0705	24.43	-0.24	0.050			
0.3099	19830.94	3.8650	3.8650	1.0730	24.46	-0.21	0.050			
0.3109	19899.91	3.8640	3.8641	1.0749	24.46	-0.21	0.050			
0.3120	19968.66	3.8630	3.8630	1.0754	24.47	-0.20	0.050			
0.3131	20037.82	3.8620	3.8619	1.0757	24.48	-0.19	0.050			
0.3142	20106.73	3.8610	3.8610	1.0766	24.48	-0.19	0.050			
0.3152	20175.69	3.8600	3.8600	1.0774	24.50	-0.17	0.050			
0.3163	20244.34	3.8590	3.8589	1.0793	24.51	-0.16	0.050	0.162	0.428	
0.3174	20313.62	3.8580	3.8580	1.0808	24.52	-0.15	0.050			
