Ah_balance (normalized)	Ah_balance (mAh)	Voltage - fit (V)	Voltage -  interpolate (V)	dQ/dV (1/V)	Temperature (°C)	Temperature - diff (°C)	Current (C)	R_DC 0ms (mOhm)	R_DC 50ms (mOhm)	R_DC 50 ms PEC (mOhm)
-0.0057	-364.21	4.1990	4.1990	0.8347	25.14	-0.07	0.050			
-0.0049	-310.69	4.1980	4.1979	0.8379	25.13	-0.08	0.050			
-0.0040	-257.06	4.1970	4.1970	0.8400	25.12	-0.09	0.050			
-0.0032	-203.17	4.1960	4.1959	0.8433	25.12	-0.09	0.050			
-0.0023	-149.07	4.1950	4.1950	0.8465	25.13	-0.08	0.050			
-0.0015	-94.61	4.1940	4.1940	0.8497	25.13	-0.08	0.050			
-0.0006	-39.84	4.1930	4.1930	0.8524	25.13	-0.08	0.050			
0.0002	15.26	4.1920	4.1920	0.8540	25.13	-0.08	0.050			
0.0011	70.40	4.1910	4.1910	0.8546	25.13	-0.08	0.050			
0.0020	125.36	4.1900	4.1901	0.8548	25.13	-0.08	0.050			
0.0028	180.30	4.1890	4.1890	0.8558	25.15	-0.06	0.050			
0.0037	235.21	4.1880	4.1880	0.8564	25.14	-0.07	0.050			
0.0045	290.44	4.1870	4.1870	0.8578	25.15	-0.06	0.050			
0.0054	345.42	4.1860	4.1860	0.8574	25.15	-0.06	0.050			
0.0063	400.21	4.1850	4.1850	0.8573	25.15	-0.06	0.050			
0.0071	455.00	4.1840	4.1841	0.8576	25.16	-0.05	0.050			
0.0080	509.69	4.1830	4.1831	0.8575	25.17	-0.04	0.050			
0.0088	564.45	4.1820	4.1819	0.8577	25.17	-0.04	0.050			
0.0097	619.41	4.1810	4.1811	0.8574	25.17	-0.04	0.050			
0.0105	674.25	4.1800	4.1800	0.8572	25.17	-0.04	0.050			
0.0114	728.94	4.1790	4.1790	0.8578	25.17	-0.04	0.050	0.331	0.398	
0.0122	783.54	4.1780	4.1780	0.8583	25.17	-0.04	0.050			
0.0131	838.18	4.1770	4.1769	0.8587	25.19	-0.02	0.050			
0.0140	892.90	4.1760	4.1760	0.8593	25.19	-0.02	0.050			
0.0148	948.10	4.1750	4.1750	0.8601	25.19	-0.02	0.050			
0.0157	1003.20	4.1740	4.1741	0.8611	25.21	0.00	0.050			
0.0165	1058.60	4.1730	4.1730	0.8620	25.22	0.01	0.050			
0.0174	1114.00	4.1720	4.1720	0.8645	25.24	0.03	0.050			
0.0183	1169.45	4.1710	4.1709	0.8647	25.25	0.04	0.050			
0.0191	1225.03	4.1700	4.1700	0.8649	25.25	0.04	0.050			
0.0200	1280.31	4.1690	4.1690	0.8647	25.25	0.04	0.050			
0.0209	1335.80	4.1680	4.1681	0.8645	25.25	0.04	0.050			
0.0217	1391.37	4.1670	4.1669	0.8644	25.25	0.04	0.050			
0.0226	1446.98	4.1660	4.1659	0.8636	25.26	0.05	0.050			
0.0235	1502.02	4.1650	4.1650	0.8648	25.25	0.04	0.050			
0.0243	1557.01	4.1640	4.1640	0.8649	25.26	0.05	0.050			
0.0252	1612.45	4.1630	4.1630	0.8659	25.26	0.05	0.050			
0.0261	1667.69	4.1620	4.1621	0.8668	25.27	0.06	0.050			
0.0269	1723.14	4.1610	4.1610	0.8673	25.27	0.06	0.050			
0.0278	1778.35	4.1600	4.1601	0.8681	25.26	0.05	0.050			
0.0287	1833.96	4.1590	4.1590	0.8684	25.25	0.04	0.050			
0.0295	1889.25	4.1580	4.1580	0.8686	25.26	0.05	0.050			
0.0304	1945.12	4.1570	4.1570	0.8699	25.27	0.06	0.050			
0.0313	2000.66	4.1560	4.1561	0.8705	25.28	0.07	0.050	0.254	0.392	
0.0321	2056.62	4.1550	4.1551	0.8711	25.27	0.06	0.050			
0.0330	2112.63	4.1540	4.1541	0.8713	25.28	0.07	0.050			
0.0339	2168.40	4.1530	4.1530	0.8716	25.27	0.06	0.050			
0.0348	2224.37	4.1520	4.1520	0.8711	25.27	0.06	0.050			
0.0356	2280.45	4.1510	4.1510	0.8718	25.27	0.06	0.050			
0.0365	2336.49	4.1500	4.1501	0.8724	25.28	0.07	0.050			
0.0374	2392.65	4.1490	4.1490	0.8716	25.29	0.08	0.050			
0.0383	2448.72	4.1480	4.1480	0.8713	25.28	0.07	0.050			
0.0391	2504.38	4.1470	4.1470	0.8711	25.28	0.07	0.050			
0.0400	2560.14	4.1460	4.1459	0.8705	25.28	0.07	0.050			
0.0409	2615.13	4.1450	4.1450	0.8686	25.29	0.08	0.050			
0.0417	2670.70	4.1440	4.1440	0.8685	25.29	0.08	0.050			
0.0426	2726.08	4.1430	4.1430	0.8686	25.30	0.09	0.050			
0.0435	2781.57	4.1420	4.1420	0.8686	25.31	0.10	0.050			
0.0443	2837.22	4.1410	4.1410	0.8683	25.31	0.10	0.050			
0.0452	2892.48	4.1400	4.1400	0.8685	25.31	0.10	0.050			
0.0461	2948.38	4.1390	4.1390	0.8688	25.31	0.10	0.050			
0.0469	3003.93	4.1380	4.1380	0.8690	25.30	0.09	0.050			
0.0478	3059.47	4.1370	4.1371	0.8687	25.27	0.06	0.050			
0.0487	3115.03	4.1360	4.1360	0.8690	25.25	0.04	0.050			
0.0495	3170.60	4.1350	4.1350	0.8700	25.25	0.04	0.050			
0.0504	3226.12	4.1340	4.1340	0.8712	25.25	0.04	0.050			
0.0513	3281.93	4.1330	4.1329	0.8720	25.23	0.02	0.050	0.304	0.523	
0.0522	3337.62	4.1320	4.1321	0.8733	25.23	0.02	0.050			
0.0530	3393.34	4.1310	4.1310	0.8735	25.21	-0.00	0.050			
0.0539	3449.40	4.1300	4.1301	0.8747	25.19	-0.02	0.050			
0.0548	3505.63	4.1290	4.1290	0.8756	25.19	-0.02	0.050			
0.0556	3561.60	4.1280	4.1279	0.8757	25.19	-0.02	0.050			
0.0565	3617.86	4.1270	4.1270	0.8752	25.16	-0.05	0.050			
0.0574	3674.12	4.1260	4.1260	0.8759	25.15	-0.06	0.050			
0.0583	3730.25	4.1250	4.1251	0.8757	25.14	-0.07	0.050			
0.0592	3786.64	4.1240	4.1239	0.8753	25.13	-0.08	0.050			
0.0600	3842.72	4.1230	4.1230	0.8752	25.11	-0.10	0.050			
0.0609	3899.14	4.1220	4.1221	0.8750	25.10	-0.11	0.050			
0.0618	3954.97	4.1210	4.1210	0.8751	25.09	-0.12	0.050			
0.0627	4010.89	4.1200	4.1200	0.8751	25.07	-0.14	0.050			
0.0635	4066.87	4.1190	4.1190	0.8753	25.07	-0.14	0.050			
0.0644	4122.63	4.1180	4.1180	0.8752	25.06	-0.15	0.050			
0.0653	4178.21	4.1170	4.1171	0.8760	25.06	-0.15	0.050			
0.0662	4233.79	4.1160	4.1160	0.8762	25.04	-0.17	0.050			
0.0670	4289.71	4.1150	4.1150	0.8770	25.02	-0.19	0.050			
0.0679	4345.43	4.1140	4.1139	0.8775	25.02	-0.19	0.050			
0.0688	4401.51	4.1130	4.1130	0.8778	25.01	-0.20	0.050			
0.0697	4458.15	4.1120	4.1120	0.8775	25.02	-0.19	0.050			
0.0705	4514.55	4.1110	4.1110	0.8788	25.02	-0.19	0.050			
0.0714	4571.08	4.1100	4.1101	0.8787	25.03	-0.18	0.050	0.276	0.388	
0.0723	4627.69	4.1090	4.1090	0.8790	25.03	-0.18	0.050			
0.0732	4684.14	4.1080	4.1080	0.8793	25.03	-0.18	0.050			
0.0741	4741.00	4.1070	4.1071	0.8794	25.04	-0.17	0.050			
0.0750	4797.28	4.1060	4.1060	0.8795	25.04	-0.17	0.050			
0.0758	4853.56	4.1050	4.1051	0.8791	25.05	-0.16	0.050			
0.0767	4909.94	4.1040	4.1041	0.8795	25.05	-0.16	0.050			
0.0776	4965.96	4.1030	4.1030	0.8788	25.05	-0.16	0.050			
0.0785	5021.93	4.1020	4.1020	0.8794	25.05	-0.16	0.050			
0.0793	5077.75	4.1010	4.1010	0.8793	25.06	-0.15	0.050			
0.0802	5133.60	4.1000	4.0999	0.8797	25.08	-0.13	0.050			
0.0811	5189.71	4.0990	4.0990	0.8793	25.08	-0.13	0.050			
0.0820	5245.82	4.0980	4.0979	0.8802	25.09	-0.12	0.050			
0.0828	5301.94	4.0970	4.0970	0.8803	25.10	-0.11	0.050			
0.0837	5358.33	4.0960	4.0960	0.8814	25.11	-0.10	0.050			
0.0846	5414.81	4.0950	4.0951	0.8825	25.12	-0.09	0.050			
0.0855	5471.60	4.0940	4.0940	0.8837	25.11	-0.10	0.050			
0.0864	5528.74	4.0930	4.0930	0.8850	25.13	-0.08	0.050			
0.0873	5585.69	4.0920	4.0921	0.8862	25.13	-0.08	0.050			
0.0882	5642.57	4.0910	4.0910	0.8861	25.15	-0.06	0.050			
0.0891	5699.36	4.0900	4.0901	0.8862	25.15	-0.06	0.050			
0.0899	5756.19	4.0890	4.0889	0.8869	25.15	-0.06	0.050			
0.0908	5812.89	4.0880	4.0881	0.8874	25.15	-0.06	0.050			
0.0917	5869.69	4.0870	4.0870	0.8880	25.16	-0.05	0.050			
0.0926	5926.41	4.0860	4.0860	0.8877	25.17	-0.04	0.050			
0.0935	5982.87	4.0850	4.0850	0.8884	25.17	-0.04	0.050			
0.0944	6039.65	4.0840	4.0839	0.8890	25.14	-0.07	0.050			
0.0953	6096.30	4.0830	4.0831	0.8899	25.14	-0.07	0.050			
0.0961	6153.04	4.0820	4.0820	0.8900	25.12	-0.09	0.050			
0.0970	6210.30	4.0810	4.0810	0.8904	25.09	-0.12	0.050			
0.0979	6267.65	4.0800	4.0800	0.8901	25.08	-0.13	0.050			
0.0988	6324.98	4.0790	4.0790	0.8901	25.05	-0.16	0.050			
0.0997	6382.02	4.0780	4.0780	0.8903	25.03	-0.18	0.050			
0.1006	6439.09	4.0770	4.0770	0.8902	25.02	-0.19	0.050			
0.1015	6496.19	4.0760	4.0760	0.8902	25.04	-0.17	0.050			
0.1024	6553.19	4.0750	4.0750	0.8902	25.04	-0.17	0.050			
0.1033	6610.26	4.0740	4.0740	0.8904	25.04	-0.17	0.050			
0.1042	6667.22	4.0730	4.0730	0.8906	25.05	-0.16	0.050			
0.1051	6724.32	4.0720	4.0720	0.8906	25.05	-0.16	0.050			
0.1060	6780.94	4.0710	4.0710	0.8909	25.05	-0.16	0.050			
0.1068	6837.85	4.0700	4.0699	0.8903	25.05	-0.16	0.050			
0.1077	6894.67	4.0690	4.0689	0.8899	25.05	-0.16	0.050			
0.1086	6951.40	4.0680	4.0680	0.8899	25.04	-0.17	0.050			
0.1095	7008.15	4.0670	4.0670	0.8899	25.04	-0.17	0.050			
0.1104	7065.27	4.0660	4.0660	0.8897	25.03	-0.18	0.050			
0.1113	7121.97	4.0650	4.0649	0.8899	25.01	-0.20	0.050	0.133	0.411	
0.1122	7179.14	4.0640	4.0641	0.8900	25.02	-0.19	0.050			
0.1131	7236.27	4.0630	4.0630	0.8902	24.99	-0.22	0.050			
0.1140	7293.25	4.0620	4.0620	0.8908	24.99	-0.22	0.050			
0.1149	7350.65	4.0610	4.0611	0.8922	24.99	-0.22	0.050			
0.1157	7407.84	4.0600	4.0599	0.8928	24.99	-0.22	0.050			
0.1166	7464.91	4.0590	4.0590	0.8936	24.98	-0.23	0.050			
0.1175	7521.53	4.0580	4.0580	0.8936	24.97	-0.24	0.050			
0.1184	7578.59	4.0570	4.0570	0.8944	24.98	-0.23	0.050			
0.1193	7635.67	4.0560	4.0560	0.8955	24.97	-0.24	0.050			
0.1202	7692.63	4.0550	4.0550	0.8973	24.97	-0.24	0.050			
0.1211	7750.01	4.0540	4.0540	0.8982	24.97	-0.24	0.050			
0.1220	7807.29	4.0530	4.0530	0.9000	24.97	-0.24	0.050			
0.1229	7864.94	4.0520	4.0520	0.9014	24.99	-0.22	0.050			
0.1238	7922.90	4.0510	4.0509	0.9020	24.97	-0.24	0.050			
0.1247	7981.01	4.0500	4.0500	0.9030	24.97	-0.24	0.050			
0.1256	8039.17	4.0490	4.0490	0.9040	24.99	-0.22	0.050			
0.1265	8097.07	4.0480	4.0481	0.9050	25.01	-0.20	0.050			
0.1274	8155.33	4.0470	4.0470	0.9064	25.02	-0.19	0.050			
0.1283	8213.53	4.0460	4.0460	0.9072	25.01	-0.20	0.050			
0.1292	8271.84	4.0450	4.0451	0.9081	25.03	-0.18	0.050			
0.1302	8330.07	4.0440	4.0440	0.9089	25.05	-0.16	0.050			
0.1311	8388.17	4.0430	4.0431	0.9091	25.06	-0.15	0.050	0.312	0.448	
0.1320	8446.21	4.0420	4.0420	0.9096	25.07	-0.14	0.050			
0.1329	8504.37	4.0410	4.0410	0.9101	25.09	-0.12	0.050			
0.1338	8562.58	4.0400	4.0399	0.9103	25.11	-0.10	0.050			
0.1347	8620.76	4.0390	4.0390	0.9099	25.14	-0.07	0.050			
0.1356	8678.98	4.0380	4.0380	0.9097	25.15	-0.06	0.050			
0.1365	8737.19	4.0370	4.0370	0.9103	25.16	-0.05	0.050			
0.1374	8795.38	4.0360	4.0360	0.9104	25.17	-0.04	0.050			
0.1383	8853.51	4.0350	4.0351	0.9108	25.17	-0.04	0.050			
0.1393	8912.06	4.0340	4.0340	0.9115	25.17	-0.04	0.050			
0.1402	8970.35	4.0330	4.0330	0.9121	25.17	-0.04	0.050			
0.1411	9028.84	4.0320	4.0320	0.9132	25.17	-0.04	0.050			
0.1420	9087.49	4.0310	4.0310	0.9147	25.17	-0.04	0.050			
0.1429	9146.06	4.0300	4.0300	0.9151	25.18	-0.03	0.050			
0.1438	9204.40	4.0290	4.0289	0.9155	25.19	-0.02	0.050			
0.1447	9262.65	4.0280	4.0279	0.9168	25.19	-0.02	0.050			
0.1456	9321.33	4.0270	4.0269	0.9175	25.20	-0.01	0.050			
0.1466	9379.99	4.0260	4.0260	0.9186	25.21	-0.00	0.050			
0.1475	9438.75	4.0250	4.0250	0.9198	25.20	-0.01	0.050			
0.1484	9497.53	4.0240	4.0240	0.9207	25.21	-0.00	0.050			
0.1493	9556.48	4.0230	4.0230	0.9220	25.21	0.00	0.050			
0.1502	9615.43	4.0220	4.0220	0.9233	25.21	0.00	0.050			
0.1512	9674.64	4.0210	4.0210	0.9250	25.21	0.00	0.050	0.165	0.405	
0.1521	9734.00	4.0200	4.0200	0.9270	25.19	-0.02	0.050			
0.1530	9793.44	4.0190	4.0190	0.9289	25.19	-0.02	0.050			
0.1540	9852.83	4.0180	4.0180	0.9306	25.20	-0.01	0.050			
0.1549	9912.46	4.0170	4.0170	0.9314	25.20	-0.01	0.050			
0.1558	9972.24	4.0160	4.0161	0.9329	25.21	0.00	0.050			
0.1568	10032.03	4.0150	4.0149	0.9340	25.21	0.00	0.050			
0.1577	10091.94	4.0140	4.0140	0.9354	25.22	0.01	0.050			
0.1586	10151.84	4.0130	4.0130	0.9366	25.23	0.02	0.050			
0.1596	10211.77	4.0120	4.0120	0.9375	25.25	0.04	0.050			
0.1605	10271.96	4.0110	4.0110	0.9385	25.26	0.05	0.050			
0.1614	10332.22	4.0100	4.0100	0.9390	25.25	0.04	0.050			
0.1624	10392.49	4.0090	4.0090	0.9392	25.25	0.04	0.050			
0.1633	10452.77	4.0080	4.0080	0.9393	25.25	0.04	0.050			
0.1643	10513.14	4.0070	4.0069	0.9400	25.25	0.04	0.050			
0.1652	10573.36	4.0060	4.0060	0.9406	25.25	0.04	0.050			
0.1661	10633.55	4.0050	4.0050	0.9408	25.26	0.05	0.050			
0.1671	10693.85	4.0040	4.0041	0.9406	25.25	0.04	0.050			
0.1680	10753.89	4.0030	4.0030	0.9413	25.24	0.03	0.050			
0.1690	10814.14	4.0020	4.0021	0.9409	25.23	0.02	0.050			
0.1699	10874.32	4.0010	4.0010	0.9410	25.24	0.03	0.050			
0.1708	10934.33	4.0000	3.9999	0.9417	25.23	0.02	0.050			
0.1718	10994.43	3.9990	3.9990	0.9422	25.24	0.03	0.050			
0.1727	11054.49	3.9980	3.9980	0.9429	25.26	0.05	0.050			
0.1737	11114.97	3.9970	3.9970	0.9440	25.25	0.04	0.050			
0.1746	11175.23	3.9960	3.9961	0.9445	25.27	0.06	0.050			
0.1756	11235.56	3.9950	3.9950	0.9454	25.26	0.05	0.050			
0.1765	11295.99	3.9940	3.9940	0.9463	25.26	0.05	0.050			
0.1774	11356.67	3.9930	3.9930	0.9480	25.25	0.04	0.050			
0.1784	11417.27	3.9920	3.9920	0.9496	25.23	0.02	0.050			
0.1793	11478.18	3.9910	3.9909	0.9514	25.23	0.02	0.050			
0.1803	11539.28	3.9900	3.9901	0.9527	25.22	0.01	0.050			
0.1813	11600.39	3.9890	3.9890	0.9537	25.23	0.02	0.050			
0.1822	11661.23	3.9880	3.9880	0.9554	25.23	0.02	0.050			
0.1832	11722.49	3.9870	3.9869	0.9564	25.21	0.00	0.050			
0.1841	11783.71	3.9860	3.9861	0.9576	25.22	0.01	0.050			
0.1851	11845.17	3.9850	3.9849	0.9592	25.23	0.02	0.050			
0.1860	11906.60	3.9840	3.9841	0.9604	25.23	0.02	0.050			
0.1870	11968.08	3.9830	3.9830	0.9617	25.23	0.02	0.050			
0.1880	12029.68	3.9820	3.9821	0.9628	25.22	0.01	0.050			
0.1889	12091.45	3.9810	3.9811	0.9641	25.22	0.01	0.050			
0.1899	12153.24	3.9800	3.9799	0.9644	25.21	0.00	0.050			
0.1909	12215.11	3.9790	3.9790	0.9657	25.21	0.00	0.050			
0.1918	12276.89	3.9780	3.9779	0.9669	25.20	-0.01	0.050			
0.1928	12338.80	3.9770	3.9771	0.9683	25.19	-0.02	0.050			
0.1938	12400.99	3.9760	3.9760	0.9686	25.20	-0.01	0.050			
0.1947	12462.98	3.9750	3.9750	0.9696	25.19	-0.02	0.050			
0.1957	12525.12	3.9740	3.9740	0.9700	25.17	-0.04	0.050			
0.1967	12587.39	3.9730	3.9730	0.9702	25.18	-0.03	0.050			
0.1977	12649.76	3.9720	3.9720	0.9696	25.16	-0.05	0.050			
0.1986	12711.80	3.9710	3.9710	0.9702	25.15	-0.06	0.050			
0.1996	12774.04	3.9700	3.9700	0.9706	25.14	-0.07	0.050			
0.2006	12836.21	3.9690	3.9690	0.9708	25.15	-0.06	0.050			
0.2015	12898.01	3.9680	3.9680	0.9707	25.13	-0.08	0.050			
0.2025	12960.39	3.9670	3.9670	0.9717	25.14	-0.07	0.050			
0.2035	13022.45	3.9660	3.9660	0.9713	25.15	-0.06	0.050			
0.2044	13084.54	3.9650	3.9650	0.9719	25.13	-0.08	0.050			
0.2054	13146.82	3.9640	3.9640	0.9721	25.13	-0.08	0.050			
0.2064	13208.93	3.9630	3.9630	0.9722	25.14	-0.07	0.050			
0.2074	13271.14	3.9620	3.9620	0.9725	25.13	-0.08	0.050			
0.2083	13333.44	3.9610	3.9611	0.9727	25.12	-0.09	0.050			
0.2093	13395.64	3.9600	3.9599	0.9733	25.11	-0.10	0.050			
0.2103	13457.78	3.9590	3.9590	0.9733	25.12	-0.09	0.050			
0.2112	13519.72	3.9580	3.9579	0.9745	25.13	-0.08	0.050	0.240	0.446	
0.2122	13582.04	3.9570	3.9571	0.9755	25.13	-0.08	0.050			
0.2132	13644.62	3.9560	3.9560	0.9774	25.14	-0.07	0.050			
0.2142	13707.00	3.9550	3.9550	0.9788	25.15	-0.06	0.050			
0.2151	13769.59	3.9540	3.9540	0.9806	25.16	-0.05	0.050			
0.2161	13832.62	3.9530	3.9529	0.9822	25.16	-0.05	0.050			
0.2171	13895.54	3.9520	3.9520	0.9828	25.15	-0.06	0.050			
0.2181	13958.58	3.9510	3.9509	0.9831	25.16	-0.05	0.050			
0.2191	14021.40	3.9500	3.9500	0.9840	25.18	-0.03	0.050			
0.2201	14084.26	3.9490	3.9489	0.9855	25.20	-0.01	0.050			
0.2211	14147.58	3.9480	3.9480	0.9863	25.21	0.00	0.050			
0.2220	14210.70	3.9470	3.9470	0.9879	25.20	-0.01	0.050			
0.2230	14274.31	3.9460	3.9460	0.9890	25.22	0.01	0.050			
0.2240	14337.50	3.9450	3.9451	0.9900	25.22	0.01	0.050			
0.2250	14400.92	3.9440	3.9440	0.9919	25.24	0.03	0.050			
0.2260	14464.43	3.9430	3.9430	0.9930	25.25	0.04	0.050			
0.2270	14527.89	3.9420	3.9419	0.9945	25.27	0.06	0.050			
0.2280	14591.72	3.9410	3.9410	0.9953	25.27	0.06	0.050			
0.2290	14655.38	3.9400	3.9400	0.9956	25.29	0.08	0.050			
0.2300	14719.34	3.9390	3.9389	0.9958	25.30	0.09	0.050			
0.2310	14783.21	3.9380	3.9379	0.9949	25.33	0.12	0.050			
0.2320	14847.02	3.9370	3.9370	0.9952	25.35	0.14	0.050			
0.2330	14910.62	3.9360	3.9359	0.9964	25.35	0.14	0.050			
0.2340	14974.38	3.9350	3.9351	0.9973	25.35	0.14	0.050			
0.2350	15038.04	3.9340	3.9339	0.9986	25.35	0.14	0.050			
0.2360	15102.49	3.9330	3.9331	0.9995	25.35	0.14	0.050			
0.2370	15166.63	3.9320	3.9321	1.0000	25.34	0.13	0.050			
0.2380	15230.51	3.9310	3.9310	1.0004	25.33	0.12	0.050			
0.2390	15294.41	3.9300	3.9301	1.0000	25.33	0.12	0.050			
0.2400	15358.40	3.9290	3.9290	1.0006	25.33	0.12	0.050			
0.2410	15422.50	3.9280	3.9279	1.0013	25.32	0.11	0.050			
0.2420	15486.37	3.9270	3.9270	1.0012	25.31	0.10	0.050			
0.2430	15550.32	3.9260	3.9260	1.0023	25.31	0.10	0.050			
0.2440	15614.31	3.9250	3.9250	1.0018	25.31	0.10	0.050			
0.2450	15678.52	3.9240	3.9240	1.0033	25.28	0.07	0.050			
0.2460	15742.60	3.9230	3.9231	1.0043	25.27	0.06	0.050			
0.2470	15807.00	3.9220	3.9220	1.0050	25.25	0.04	0.050			
0.2480	15871.83	3.9210	3.9210	1.0056	25.24	0.03	0.050			
0.2490	15936.27	3.9200	3.9201	1.0069	25.23	0.02	0.050			
0.2500	16000.80	3.9190	3.9189	1.0075	25.23	0.02	0.050			
0.2510	16065.20	3.9180	3.9180	1.0083	25.23	0.02	0.050			
0.2520	16129.62	3.9170	3.9170	1.0084	25.23	0.02	0.050			
0.2530	16193.70	3.9160	3.9161	1.0087	25.21	0.00	0.050			
0.2540	16257.95	3.9150	3.9150	1.0109	25.20	-0.01	0.050			
0.2550	16322.79	3.9140	3.9140	1.0121	25.19	-0.02	0.050			
0.2561	16387.83	3.9130	3.9130	1.0140	25.19	-0.02	0.050			
0.2571	16453.02	3.9120	3.9120	1.0154	25.17	-0.04	0.050			
0.2581	16517.96	3.9110	3.9109	1.0150	25.18	-0.03	0.050			
0.2591	16583.37	3.9100	3.9100	1.0150	25.17	-0.04	0.050			
0.2601	16648.43	3.9090	3.9090	1.0156	25.17	-0.04	0.050			
0.2611	16713.57	3.9080	3.9080	1.0156	25.15	-0.06	0.050			
0.2622	16778.40	3.9070	3.9070	1.0164	25.17	-0.04	0.050			
0.2632	16843.39	3.9060	3.9060	1.0173	25.18	-0.03	0.050			
0.2642	16908.70	3.9050	3.9051	1.0185	25.18	-0.03	0.050			
0.2652	16973.72	3.9040	3.9041	1.0187	25.18	-0.03	0.050			
0.2662	17038.79	3.9030	3.9030	1.0204	25.18	-0.03	0.050			
0.2672	17103.92	3.9020	3.9020	1.0217	25.17	-0.04	0.050			
0.2683	17169.48	3.9010	3.9009	1.0226	25.19	-0.02	0.050			
0.2693	17234.67	3.9000	3.8999	1.0225	25.19	-0.02	0.050			
0.2703	17300.35	3.8990	3.8990	1.0232	25.18	-0.03	0.050			
0.2713	17365.81	3.8980	3.8979	1.0231	25.19	-0.02	0.050			
0.2724	17431.37	3.8970	3.8970	1.0231	25.17	-0.04	0.050			
0.2734	17496.99	3.8960	3.8960	1.0234	25.16	-0.05	0.050			
0.2744	17562.39	3.8950	3.8950	1.0233	25.15	-0.06	0.050			
0.2754	17628.25	3.8940	3.8940	1.0252	25.15	-0.06	0.050			
0.2765	17694.12	3.8930	3.8930	1.0259	25.15	-0.06	0.050			
0.2775	17759.90	3.8920	3.8920	1.0265	25.15	-0.06	0.050			
0.2785	17825.61	3.8910	3.8910	1.0273	25.15	-0.06	0.050			
0.2796	17891.42	3.8900	3.8900	1.0277	25.17	-0.04	0.050			
0.2806	17957.06	3.8890	3.8889	1.0269	25.17	-0.04	0.050			
0.2816	18022.45	3.8880	3.8880	1.0289	25.17	-0.04	0.050			
0.2826	18087.50	3.8870	3.8870	1.0301	25.17	-0.04	0.050			
0.2836	18153.19	3.8860	3.8860	1.0314	25.17	-0.04	0.050			
0.2847	18219.33	3.8850	3.8850	1.0327	25.18	-0.03	0.050			
0.2857	18285.29	3.8840	3.8840	1.0338	25.19	-0.02	0.050			
0.2867	18351.46	3.8830	3.8829	1.0344	25.18	-0.03	0.050			
0.2878	18417.75	3.8820	3.8820	1.0366	25.19	-0.02	0.050			
0.2888	18484.57	3.8810	3.8810	1.0388	25.18	-0.03	0.050			
0.2899	18551.31	3.8800	3.8801	1.0405	25.18	-0.03	0.050			
0.2909	18617.97	3.8790	3.8789	1.0426	25.18	-0.03	0.050			
0.2919	18684.61	3.8780	3.8780	1.0456	25.19	-0.02	0.050	0.392	0.442	
0.2930	18751.60	3.8770	3.8771	1.0472	25.17	-0.04	0.050			
0.2940	18818.72	3.8760	3.8760	1.0489	25.17	-0.04	0.050			
0.2951	18885.99	3.8750	3.8749	1.0502	25.18	-0.03	0.050			
0.2961	18953.33	3.8740	3.8740	1.0518	25.19	-0.02	0.050			
0.2972	19020.91	3.8730	3.8730	1.0530	25.19	-0.02	0.050			
0.2983	19088.28	3.8720	3.8720	1.0541	25.19	-0.02	0.050			
0.2993	19155.99	3.8710	3.8709	1.0544	25.19	-0.02	0.050			
0.3004	19223.57	3.8700	3.8699	1.0553	25.19	-0.02	0.050			
0.3014	19291.14	3.8690	3.8690	1.0564	25.20	-0.01	0.050			
0.3025	19358.59	3.8680	3.8681	1.0554	25.20	-0.01	0.050			
0.3035	19426.40	3.8670	3.8670	1.0563	25.20	-0.01	0.050			
0.3046	19494.30	3.8660	3.8660	1.0583	25.18	-0.03	0.050			
0.3057	19562.09	3.8650	3.8649	1.0591	25.17	-0.04	0.050			
0.3067	19629.76	3.8640	3.8640	1.0603	25.14	-0.07	0.050			
0.3078	19697.27	3.8630	3.8631	1.0624	25.13	-0.08	0.050			
0.3088	19765.05	3.8620	3.8620	1.0643	25.10	-0.11	0.050			
0.3099	19832.85	3.8610	3.8609	1.0653	25.05	-0.16	0.050			
0.3110	19900.87	3.8600	3.8601	1.0662	25.00	-0.21	0.050			
0.3120	19968.99	3.8590	3.8590	1.0675	24.96	-0.25	0.050	0.099	0.363	
0.3131	20037.16	3.8580	3.8579	1.0691	24.94	-0.27	0.050			
0.3142	20105.88	3.8570	3.8569	1.0712	24.93	-0.28	0.050			
0.3152	20174.74	3.8560	3.8560	1.0724	24.93	-0.28	0.050			
