Ah_balance (normalized)	Ah_balance (mAh)	Voltage - fit (V)	Voltage -  interpolate (V)	dQ/dV (1/V)	Temperature (°C)	Temperature - diff (°C)	Current (C)	R_DC 0ms (mOhm)	R_DC 50ms (mOhm)	R_DC 50 ms PEC (mOhm)
-0.0002	-10.80	4.1710	4.0625	-0.5050	25.68	0.01	-0.011			
0.0003	21.59	4.1700	4.1698	-0.5072	25.67	0.00	-0.050			
0.0008	54.11	4.1690	4.1687	-0.5093	25.67	-0.00	-0.050			
0.0014	88.25	4.1680	4.1675	-0.5228	25.66	-0.01	-0.050			
0.0018	115.38	4.1670	4.1668	-0.4961	25.65	-0.02	-0.050			
0.0023	145.23	4.1660	4.1661	-0.5053	25.64	-0.03	-0.050			
0.0028	176.41	4.1650	4.1651	-0.5240	25.64	-0.03	-0.050			
0.0033	210.18	4.1640	4.1643	-0.5480	25.64	-0.03	-0.050			
0.0039	249.63	4.1630	4.1632	-0.5722	25.63	-0.04	-0.050			
0.0045	286.90	4.1620	4.1625	-0.5924	25.62	-0.05	-0.050			
0.0051	326.12	4.1610	4.1615	-0.6115	25.61	-0.06	-0.050			
0.0057	366.35	4.1600	4.1583	-0.6295	25.59	-0.08	-0.050			
0.0064	408.48	4.1590	4.1581	-0.6444	25.59	-0.08	-0.050			
0.0071	451.63	4.1580	4.1583	-0.6637	25.56	-0.11	-0.050			
0.0078	496.68	4.1570	4.1572	-0.6670	25.56	-0.11	-0.050			
0.0085	541.25	4.1560	4.1563	-0.6748	25.55	-0.12	-0.050			
0.0091	585.15	4.1550	4.1554	-0.6857	25.54	-0.13	-0.050			
0.0098	629.78	4.1540	4.1544	-0.6958	25.54	-0.13	-0.050			
0.0106	675.21	4.1530	4.1534	-0.7063	25.53	-0.14	-0.050			
0.0113	723.62	4.1520	4.1518	-0.7125	25.52	-0.15	-0.050			
0.0120	771.02	4.1510	4.1512	-0.7250	25.50	-0.17	-0.050			
0.0128	816.92	4.1500	4.1501	-0.7287	25.50	-0.17	-0.050			
0.0135	863.49	4.1490	4.1491	-0.7319	25.50	-0.17	-0.050			
0.0143	914.85	4.1480	4.1480	-0.7353	25.50	-0.17	-0.050			
0.0149	956.29	4.1470	4.1472	-0.7231	25.51	-0.16	-0.050			
0.0157	1002.35	4.1460	4.1461	-0.7294	25.52	-0.15	-0.050			
0.0164	1050.71	4.1450	4.1438	-0.7304	25.52	-0.15	-0.050			
0.0172	1097.85	4.1440	4.1441	-0.7354	25.54	-0.13	-0.050			
0.0179	1145.52	4.1430	4.1432	-0.7444	25.54	-0.13	-0.050			
0.0186	1193.53	4.1420	4.1420	-0.7476	25.54	-0.13	-0.050			
0.0194	1243.21	4.1410	4.1411	-0.7458	25.55	-0.12	-0.050			
0.0202	1291.94	4.1400	4.1399	-0.7496	25.57	-0.10	-0.050	0.370	0.436	
0.0210	1341.45	4.1390	4.1391	-0.7484	25.59	-0.08	-0.050			
0.0217	1389.39	4.1380	4.1367	-0.7462	25.59	-0.08	-0.050			
0.0225	1439.72	4.1370	4.1370	-0.7479	25.59	-0.08	-0.050			
0.0232	1485.98	4.1360	4.1362	-0.7431	25.60	-0.07	-0.050			
0.0240	1533.13	4.1350	4.1351	-0.7413	25.61	-0.06	-0.050			
0.0247	1579.22	4.1340	4.1340	-0.7427	25.61	-0.06	-0.050			
0.0254	1626.19	4.1330	4.1333	-0.7449	25.62	-0.05	-0.050			
0.0262	1673.75	4.1320	4.1322	-0.7455	25.62	-0.05	-0.050			
0.0269	1719.78	4.1310	4.1313	-0.7449	25.62	-0.05	-0.050			
0.0276	1766.88	4.1300	4.1300	-0.7489	25.63	-0.04	-0.050			
0.0284	1814.42	4.1290	4.1291	-0.7517	25.63	-0.04	-0.050			
0.0291	1862.76	4.1280	4.1279	-0.7557	25.64	-0.03	-0.050			
0.0298	1907.97	4.1270	4.1268	-0.7721	25.64	-0.03	-0.050			
0.0305	1954.95	4.1260	4.1259	-0.7775	25.64	-0.03	-0.050			
0.0313	2004.93	4.1250	4.1251	-0.7884	25.64	-0.03	-0.050			
0.0321	2056.55	4.1240	4.1241	-0.7992	25.64	-0.03	-0.050			
0.0329	2107.30	4.1230	4.1229	-0.8052	25.66	-0.01	-0.050			
0.0338	2160.45	4.1220	4.1218	-0.8172	25.66	-0.01	-0.050			
0.0346	2215.05	4.1210	4.1210	-0.8281	25.66	-0.01	-0.050			
0.0355	2270.01	4.1200	4.1198	-0.8306	25.67	-0.00	-0.050			
0.0363	2326.10	4.1190	4.1184	-0.8359	25.67	0.00	-0.050			
0.0372	2381.08	4.1180	4.1176	-0.8380	25.69	0.02	-0.050			
0.0381	2435.92	4.1170	4.1173	-0.8386	25.69	0.02	-0.050			
0.0389	2490.61	4.1160	4.1162	-0.8383	25.69	0.02	-0.050			
0.0398	2544.37	4.1150	4.1151	-0.8365	25.71	0.04	-0.050			
0.0406	2598.93	4.1140	4.1141	-0.8360	25.70	0.03	-0.050			
0.0415	2658.34	4.1130	4.1130	-0.8245	25.71	0.04	-0.050			
0.0424	2711.80	4.1120	4.1120	-0.8156	25.71	0.04	-0.050			
0.0432	2765.87	4.1110	4.1109	-0.8065	25.70	0.03	-0.050			
0.0440	2815.78	4.1100	4.1099	-0.8047	25.71	0.04	-0.050			
0.0448	2864.84	4.1090	4.1089	-0.7988	25.71	0.04	-0.050			
0.0455	2911.95	4.1080	4.1079	-0.8019	25.71	0.04	-0.050			
0.0462	2958.69	4.1070	4.1071	-0.7936	25.71	0.04	-0.050			
0.0470	3009.00	4.1060	4.1062	-0.7939	25.70	0.03	-0.050			
0.0478	3057.66	4.1050	4.1053	-0.7999	25.69	0.02	-0.050			
0.0486	3107.24	4.1040	4.1042	-0.8023	25.69	0.02	-0.050			
0.0494	3160.36	4.1030	4.1033	-0.8016	25.68	0.01	-0.050			
0.0502	3211.15	4.1020	4.0999	-0.8067	25.65	-0.02	-0.050			
0.0510	3262.76	4.1010	4.0998	-0.8115	25.62	-0.05	-0.050			
0.0518	3315.39	4.1000	4.1002	-0.8135	25.60	-0.07	-0.050			
0.0526	3367.62	4.0990	4.0994	-0.8190	25.57	-0.10	-0.050			
0.0534	3420.41	4.0980	4.0983	-0.8243	25.53	-0.14	-0.050			
0.0543	3475.24	4.0970	4.0973	-0.8221	25.51	-0.16	-0.050			
0.0551	3528.39	4.0960	4.0960	-0.8261	25.48	-0.19	-0.050			
0.0560	3581.49	4.0950	4.0953	-0.8308	25.45	-0.22	-0.050			
0.0568	3636.20	4.0940	4.0943	-0.8351	25.43	-0.24	-0.050			
0.0577	3695.00	4.0930	4.0932	-0.8408	25.39	-0.28	-0.050			
0.0586	3747.28	4.0920	4.0921	-0.8398	25.37	-0.30	-0.050			
0.0594	3800.46	4.0910	4.0911	-0.8376	25.33	-0.34	-0.050			
0.0602	3855.43	4.0900	4.0901	-0.8306	25.31	-0.36	-0.050	0.473	0.568	
0.0610	3903.52	4.0890	4.0892	-0.8200	25.28	-0.39	-0.050			
0.0618	3955.73	4.0880	4.0881	-0.8233	25.25	-0.42	-0.050			
0.0626	4009.12	4.0870	4.0871	-0.8252	25.23	-0.44	-0.050			
0.0635	4063.79	4.0860	4.0861	-0.8235	25.21	-0.46	-0.050			
0.0643	4117.07	4.0850	4.0851	-0.8176	25.18	-0.49	-0.050			
0.0652	4170.61	4.0840	4.0841	-0.8143	25.15	-0.52	-0.050			
0.0660	4224.29	4.0830	4.0821	-0.8106	25.13	-0.54	-0.050			
0.0668	4276.75	4.0820	4.0822	-0.8093	25.11	-0.56	-0.050			
0.0676	4326.90	4.0810	4.0812	-0.8045	25.09	-0.58	-0.050			
0.0684	4378.38	4.0800	4.0802	-0.8024	25.08	-0.59	-0.050			
0.0692	4428.64	4.0790	4.0793	-0.7986	25.06	-0.61	-0.050			
0.0700	4479.59	4.0780	4.0782	-0.7988	25.05	-0.62	-0.050			
0.0708	4529.42	4.0770	4.0774	-0.8013	25.03	-0.64	-0.050			
0.0716	4579.87	4.0760	4.0760	-0.8038	25.02	-0.65	-0.050			
0.0723	4629.47	4.0750	4.0749	-0.7995	25.01	-0.66	-0.050			
0.0731	4676.62	4.0740	4.0741	-0.8154	25.00	-0.67	-0.050			
0.0739	4727.22	4.0730	4.0728	-0.8263	24.98	-0.69	-0.050			
0.0746	4776.99	4.0720	4.0721	-0.8321	25.00	-0.67	-0.050			
0.0755	4830.60	4.0710	4.0711	-0.8440	24.98	-0.69	-0.050			
0.0763	4885.08	4.0700	4.0699	-0.8558	24.98	-0.69	-0.050			
0.0772	4941.39	4.0690	4.0690	-0.8588	24.98	-0.69	-0.050			
0.0781	4998.18	4.0680	4.0679	-0.8704	24.98	-0.69	-0.050			
0.0790	5055.87	4.0670	4.0671	-0.8790	24.98	-0.69	-0.050			
0.0799	5115.27	4.0660	4.0658	-0.8871	24.99	-0.68	-0.050	0.376	0.542	
0.0809	5174.56	4.0650	4.0648	-0.8936	24.99	-0.68	-0.050			
0.0818	5233.90	4.0640	4.0643	-0.8973	24.99	-0.68	-0.050			
0.0827	5293.08	4.0630	4.0633	-0.8998	25.01	-0.66	-0.050			
0.0836	5351.70	4.0620	4.0622	-0.8984	25.02	-0.65	-0.050			
0.0845	5410.82	4.0610	4.0612	-0.8967	25.03	-0.64	-0.050			
0.0855	5474.45	4.0600	4.0600	-0.8815	25.06	-0.61	-0.050			
0.0864	5531.62	4.0590	4.0587	-0.8697	25.08	-0.59	-0.050			
0.0873	5587.62	4.0580	4.0578	-0.8584	25.10	-0.57	-0.050			
0.0881	5640.44	4.0570	4.0568	-0.8577	25.10	-0.57	-0.050			
0.0890	5692.81	4.0560	4.0560	-0.8518	25.12	-0.55	-0.050			
0.0897	5743.35	4.0550	4.0550	-0.8526	25.15	-0.52	-0.050			
0.0905	5791.94	4.0540	4.0542	-0.8428	25.18	-0.49	-0.050			
0.0913	5844.69	4.0530	4.0532	-0.8464	25.20	-0.47	-0.050			
0.0921	5897.17	4.0520	4.0522	-0.8498	25.21	-0.46	-0.050			
0.0930	5950.66	4.0510	4.0514	-0.8556	25.25	-0.42	-0.050			
0.0939	6006.95	4.0500	4.0496	-0.8549	25.26	-0.41	-0.050			
0.0947	6059.71	4.0490	4.0472	-0.8618	25.28	-0.39	-0.050			
0.0956	6116.11	4.0480	4.0484	-0.8620	25.30	-0.37	-0.050			
0.0964	6170.62	4.0470	4.0474	-0.8693	25.32	-0.35	-0.050			
0.0973	6225.53	4.0460	4.0465	-0.8739	25.34	-0.33	-0.050			
0.0982	6283.29	4.0450	4.0453	-0.8753	25.36	-0.31	-0.050			
0.0991	6339.74	4.0440	4.0442	-0.8822	25.38	-0.29	-0.050			
0.1000	6397.60	4.0430	4.0433	-0.8874	25.39	-0.28	-0.050			
0.1009	6456.99	4.0420	4.0423	-0.8896	25.41	-0.26	-0.050			
0.1018	6517.36	4.0410	4.0412	-0.8979	25.43	-0.24	-0.050			
0.1028	6577.47	4.0400	4.0402	-0.9041	25.44	-0.23	-0.050			
0.1037	6636.02	4.0390	4.0392	-0.8958	25.46	-0.21	-0.050			
0.1046	6692.38	4.0380	4.0381	-0.8918	25.47	-0.20	-0.050			
0.1054	6745.12	4.0370	4.0371	-0.8762	25.46	-0.21	-0.050			
0.1063	6801.32	4.0360	4.0363	-0.8767	25.48	-0.19	-0.050			
0.1072	6860.59	4.0350	4.0351	-0.8747	25.48	-0.19	-0.050			
0.1081	6917.92	4.0340	4.0341	-0.8697	25.48	-0.19	-0.050			
0.1090	6974.50	4.0330	4.0331	-0.8686	25.49	-0.18	-0.050			
0.1098	7029.03	4.0320	4.0320	-0.8617	25.50	-0.17	-0.050			
0.1107	7083.88	4.0310	4.0311	-0.8617	25.50	-0.17	-0.050			
0.1116	7139.69	4.0300	4.0301	-0.8585	25.51	-0.16	-0.050			
0.1124	7192.66	4.0290	4.0290	-0.8517	25.50	-0.17	-0.050			
0.1132	7246.80	4.0280	4.0282	-0.8531	25.51	-0.16	-0.050			
0.1141	7299.81	4.0270	4.0273	-0.8500	25.52	-0.15	-0.050			
0.1149	7353.11	4.0260	4.0264	-0.8537	25.53	-0.14	-0.050			
0.1157	7407.97	4.0250	4.0247	-0.8548	25.53	-0.14	-0.050			
0.1165	7458.13	4.0240	4.0239	-0.8635	25.54	-0.13	-0.050			
0.1174	7511.66	4.0230	4.0230	-0.8712	25.56	-0.11	-0.050			
0.1182	7566.82	4.0220	4.0222	-0.8817	25.56	-0.11	-0.050			
0.1191	7622.98	4.0210	4.0211	-0.8919	25.57	-0.10	-0.050			
0.1200	7678.88	4.0200	4.0203	-0.8968	25.58	-0.09	-0.050			
0.1209	7738.04	4.0190	4.0192	-0.9054	25.59	-0.08	-0.050			
0.1218	7796.26	4.0180	4.0178	-0.9109	25.61	-0.06	-0.050			
0.1228	7857.00	4.0170	4.0168	-0.9189	25.62	-0.05	-0.050			
0.1237	7918.45	4.0160	4.0160	-0.9275	25.62	-0.05	-0.050			
0.1247	7981.10	4.0150	4.0147	-0.9333	25.64	-0.03	-0.050			
0.1257	8043.12	4.0140	4.0143	-0.9389	25.63	-0.04	-0.050			
0.1266	8103.78	4.0130	4.0132	-0.9380	25.62	-0.05	-0.050			
0.1276	8165.34	4.0120	4.0123	-0.9358	25.62	-0.05	-0.050			
0.1286	8228.07	4.0110	4.0111	-0.9320	25.61	-0.06	-0.050			
0.1296	8292.05	4.0100	4.0100	-0.9159	25.61	-0.06	-0.050			
0.1305	8352.33	4.0090	4.0089	-0.9060	25.58	-0.09	-0.050			
0.1314	8411.21	4.0080	4.0079	-0.8976	25.56	-0.11	-0.050			
0.1323	8465.81	4.0070	4.0070	-0.8976	25.56	-0.11	-0.050			
0.1331	8519.22	4.0060	4.0060	-0.8969	25.55	-0.12	-0.050			
0.1340	8575.17	4.0050	4.0051	-0.8905	25.54	-0.13	-0.050			
0.1348	8626.60	4.0040	4.0042	-0.8797	25.54	-0.13	-0.050			
0.1356	8680.92	4.0030	4.0033	-0.8861	25.52	-0.15	-0.050			
0.1365	8736.21	4.0020	4.0021	-0.8922	25.52	-0.15	-0.050			
0.1374	8791.97	4.0010	4.0013	-0.8955	25.50	-0.17	-0.050			
0.1383	8850.94	4.0000	3.9982	-0.8929	25.50	-0.17	-0.050			
0.1392	8908.32	3.9990	3.9985	-0.8930	25.49	-0.18	-0.050			
0.1401	8964.37	3.9980	3.9982	-0.9011	25.48	-0.19	-0.050			
0.1410	9021.66	3.9970	3.9973	-0.9059	25.46	-0.21	-0.050			
0.1419	9081.31	3.9960	3.9963	-0.9096	25.47	-0.20	-0.050			
0.1428	9139.53	3.9950	3.9952	-0.9166	25.48	-0.19	-0.050			
0.1437	9198.63	3.9940	3.9933	-0.9241	25.49	-0.18	-0.050			
0.1447	9259.90	3.9930	3.9933	-0.9265	25.50	-0.17	-0.050			
0.1456	9321.47	3.9920	3.9923	-0.9379	25.51	-0.16	-0.050			
0.1466	9383.00	3.9910	3.9912	-0.9432	25.53	-0.14	-0.050			
0.1476	9445.48	3.9900	3.9900	-0.9480	25.54	-0.13	-0.050			
0.1485	9505.97	3.9890	3.9892	-0.9434	25.55	-0.12	-0.050			
0.1494	9564.14	3.9880	3.9881	-0.9361	25.56	-0.11	-0.050			
0.1503	9622.15	3.9870	3.9872	-0.9236	25.57	-0.10	-0.050			
0.1513	9683.59	3.9860	3.9859	-0.9215	25.59	-0.08	-0.050			
0.1523	9744.40	3.9850	3.9851	-0.9182	25.59	-0.08	-0.050			
0.1532	9804.33	3.9840	3.9841	-0.9157	25.59	-0.08	-0.050			
0.1541	9863.46	3.9830	3.9825	-0.9090	25.59	-0.08	-0.050			
0.1550	9923.06	3.9820	3.9822	-0.9088	25.58	-0.09	-0.050			
0.1560	9980.90	3.9810	3.9811	-0.9008	25.56	-0.11	-0.050			
0.1568	10037.26	3.9800	3.9788	-0.8963	25.56	-0.11	-0.050			
0.1577	10093.57	3.9790	3.9793	-0.8961	25.56	-0.11	-0.050			
0.1586	10148.92	3.9780	3.9782	-0.8923	25.56	-0.11	-0.050			
0.1594	10204.47	3.9770	3.9773	-0.8955	25.56	-0.11	-0.050			
0.1603	10260.98	3.9760	3.9758	-0.8984	25.54	-0.13	-0.050			
0.1611	10312.50	3.9750	3.9749	-0.9077	25.54	-0.13	-0.050			
0.1620	10369.45	3.9740	3.9739	-0.9182	25.52	-0.15	-0.050			
0.1629	10427.53	3.9730	3.9727	-0.9296	25.52	-0.15	-0.050			
0.1638	10485.32	3.9720	3.9719	-0.9372	25.52	-0.15	-0.050			
0.1648	10546.97	3.9710	3.9709	-0.9465	25.50	-0.17	-0.050			
0.1658	10608.77	3.9700	3.9700	-0.9574	25.49	-0.18	-0.050			
0.1667	10671.32	3.9690	3.9688	-0.9619	25.48	-0.19	-0.050			
0.1677	10734.71	3.9680	3.9682	-0.9728	25.46	-0.21	-0.050			
0.1687	10799.96	3.9670	3.9669	-0.9794	25.46	-0.21	-0.050			
0.1698	10866.75	3.9660	3.9660	-0.9894	25.44	-0.23	-0.050			
0.1708	10932.56	3.9650	3.9652	-0.9909	25.44	-0.23	-0.050			
0.1718	10997.37	3.9640	3.9643	-0.9912	25.43	-0.24	-0.050			
0.1729	11063.95	3.9630	3.9631	-0.9781	25.42	-0.25	-0.050			
0.1739	11128.01	3.9620	3.9621	-0.9757	25.42	-0.25	-0.050			
0.1749	11190.80	3.9610	3.9611	-0.9705	25.40	-0.27	-0.050			
0.1758	11252.29	3.9600	3.9599	-0.9638	25.40	-0.27	-0.050			
0.1768	11312.60	3.9590	3.9590	-0.9626	25.39	-0.28	-0.050			
0.1777	11372.73	3.9580	3.9580	-0.9584	25.38	-0.29	-0.050			
0.1786	11432.50	3.9570	3.9570	-0.9477	25.36	-0.31	-0.050			
0.1795	11491.07	3.9560	3.9561	-0.9422	25.34	-0.33	-0.050			
0.1805	11549.21	3.9550	3.9550	-0.9334	25.31	-0.36	-0.050	0.296	0.461	
0.1814	11607.29	3.9540	3.9542	-0.9383	25.29	-0.38	-0.050			
0.1823	11667.88	3.9530	3.9512	-0.9365	25.26	-0.41	-0.050			
0.1832	11726.84	3.9520	3.9522	-0.9408	25.23	-0.44	-0.050			
0.1842	11786.30	3.9510	3.9512	-0.9443	25.21	-0.46	-0.050			
0.1851	11848.08	3.9500	3.9501	-0.9439	25.18	-0.49	-0.050			
0.1861	11909.98	3.9490	3.9492	-0.9400	25.15	-0.52	-0.050			
0.1870	11971.07	3.9480	3.9470	-0.9373	25.12	-0.55	-0.050			
0.1880	12032.50	3.9470	3.9471	-0.9361	25.10	-0.57	-0.050			
0.1890	12092.97	3.9460	3.9461	-0.9343	25.08	-0.59	-0.050			
0.1899	12154.33	3.9450	3.9449	-0.9333	25.05	-0.62	-0.050			
0.1909	12214.44	3.9440	3.9441	-0.9305	25.01	-0.66	-0.050			
0.1918	12275.17	3.9430	3.9432	-0.9265	24.99	-0.68	-0.050			
0.1927	12335.12	3.9420	3.9422	-0.9256	24.95	-0.72	-0.050			
0.1936	12389.90	3.9410	3.9413	-0.9120	24.93	-0.74	-0.050			
0.1945	12446.58	3.9400	3.9403	-0.9175	24.90	-0.77	-0.050			
0.1954	12505.36	3.9390	3.9389	-0.9168	24.90	-0.77	-0.050			
0.1963	12563.67	3.9380	3.9378	-0.9192	24.88	-0.79	-0.050			
0.1972	12621.82	3.9370	3.9369	-0.9247	24.85	-0.82	-0.050			
0.1981	12678.48	3.9360	3.9359	-0.9223	24.84	-0.83	-0.050			
0.1990	12733.81	3.9350	3.9351	-0.9404	24.84	-0.83	-0.050			
0.1998	12789.71	3.9340	3.9339	-0.9469	24.84	-0.83	-0.050			
0.2008	12849.97	3.9330	3.9329	-0.9612	24.84	-0.83	-0.050			
0.2017	12910.97	3.9320	3.9323	-0.9708	24.85	-0.82	-0.050			
0.2027	12974.13	3.9310	3.9310	-0.9873	24.86	-0.81	-0.050			
0.2038	13040.70	3.9300	3.9301	-1.0012	24.88	-0.79	-0.050			
0.2048	13108.72	3.9290	3.9286	-1.0134	24.90	-0.77	-0.050			
0.2059	13175.27	3.9280	3.9277	-1.0209	24.90	-0.77	-0.050			
0.2069	13242.09	3.9270	3.9267	-1.0237	24.92	-0.75	-0.050			
0.2080	13309.14	3.9260	3.9252	-1.0289	24.93	-0.74	-0.050			
0.2090	13376.66	3.9250	3.9254	-1.0301	24.94	-0.73	-0.050			
0.2101	13445.49	3.9240	3.9243	-1.0340	24.96	-0.71	-0.050			
0.2111	13513.57	3.9230	3.9232	-1.0262	24.98	-0.69	-0.050			
0.2122	13581.18	3.9220	3.9221	-1.0253	24.98	-0.69	-0.050			
0.2133	13651.20	3.9210	3.9210	-1.0045	25.01	-0.66	-0.050			
0.2143	13713.60	3.9200	3.9201	-1.0060	25.03	-0.64	-0.050			
0.2153	13778.03	3.9190	3.9189	-1.0024	25.07	-0.60	-0.050			
0.2163	13843.08	3.9180	3.9178	-0.9920	25.10	-0.57	-0.050			
0.2172	13901.29	3.9170	3.9171	-0.9922	25.12	-0.55	-0.050			
0.2182	13962.84	3.9160	3.9161	-0.9885	25.16	-0.51	-0.050			
0.2191	14021.01	3.9150	3.9151	-0.9768	25.19	-0.48	-0.050			
0.2200	14082.47	3.9140	3.9142	-0.9809	25.21	-0.46	-0.050			
0.2210	14145.06	3.9130	3.9122	-0.9844	25.24	-0.43	-0.050			
0.2220	14206.98	3.9120	3.9121	-0.9880	25.27	-0.40	-0.050			
0.2230	14272.26	3.9110	3.9112	-0.9823	25.30	-0.37	-0.050			
0.2240	14337.20	3.9100	3.9102	-0.9787	25.32	-0.35	-0.050			
0.2250	14400.76	3.9090	3.9092	-0.9769	25.35	-0.32	-0.050			
0.2260	14464.10	3.9080	3.9065	-0.9744	25.37	-0.30	-0.050			
0.2270	14527.31	3.9070	3.9071	-0.9715	25.40	-0.27	-0.050			
0.2280	14589.61	3.9060	3.9063	-0.9728	25.43	-0.24	-0.050			
0.2290	14653.11	3.9050	3.9052	-0.9727	25.43	-0.24	-0.050			
0.2299	14715.12	3.9040	3.9042	-0.9746	25.45	-0.22	-0.050			
0.2309	14777.48	3.9030	3.9033	-0.9779	25.46	-0.21	-0.050			
0.2319	14839.73	3.9020	3.9023	-0.9766	25.48	-0.19	-0.050			
0.2328	14901.89	3.9010	3.9013	-0.9760	25.50	-0.17	-0.050			
0.2337	14959.61	3.9000	3.9005	-0.9660	25.51	-0.16	-0.050			
0.2347	15019.89	3.8990	3.8990	-0.9696	25.53	-0.14	-0.050			
0.2356	15080.04	3.8980	3.8979	-0.9833	25.54	-0.13	-0.050			
0.2365	15138.91	3.8970	3.8970	-0.9891	25.55	-0.12	-0.050			
0.2375	15201.85	3.8960	3.8959	-1.0011	25.56	-0.11	-0.050			
0.2385	15265.99	3.8950	3.8950	-1.0125	25.58	-0.09	-0.050			
0.2396	15331.38	3.8940	3.8943	-1.0204	25.59	-0.08	-0.050			
0.2406	15398.17	3.8930	3.8929	-1.0331	25.60	-0.07	-0.050			
0.2417	15467.17	3.8920	3.8919	-1.0413	25.61	-0.06	-0.050			
0.2427	15535.72	3.8910	3.8909	-1.0442	25.62	-0.05	-0.050			
0.2438	15605.55	3.8900	3.8899	-1.0533	25.62	-0.05	-0.050			
0.2450	15677.10	3.8890	3.8887	-1.0599	25.62	-0.05	-0.050			
0.2460	15745.32	3.8880	3.8883	-1.0567	25.62	-0.05	-0.050			
0.2471	15814.32	3.8870	3.8872	-1.0550	25.62	-0.05	-0.050			
0.2482	15883.08	3.8860	3.8862	-1.0509	25.62	-0.05	-0.050			
0.2492	15951.01	3.8850	3.8850	-1.0425	25.62	-0.05	-0.050			
0.2503	16019.24	3.8840	3.8841	-1.0396	25.63	-0.04	-0.050			
0.2514	16086.44	3.8830	3.8830	-1.0346	25.63	-0.04	-0.050			
0.2524	16153.74	3.8820	3.8819	-1.0321	25.63	-0.04	-0.050			
0.2534	16219.16	3.8810	3.8810	-1.0238	25.64	-0.03	-0.050			
0.2544	16282.64	3.8800	3.8800	-1.0164	25.63	-0.04	-0.050			
0.2554	16344.97	3.8790	3.8790	-1.0068	25.62	-0.05	-0.050			
0.2564	16406.60	3.8780	3.8780	-0.9980	25.61	-0.06	-0.050			
0.2573	16469.70	3.8770	3.8771	-0.9967	25.59	-0.08	-0.050			
0.2583	16533.34	3.8760	3.8759	-0.9961	25.56	-0.11	-0.050			
0.2593	16595.96	3.8750	3.8747	-0.9980	25.54	-0.13	-0.050			
0.2603	16658.59	3.8740	3.8741	-1.0013	25.53	-0.14	-0.050	0.395	0.472	
0.2613	16722.13	3.8730	3.8731	-1.0060	25.50	-0.17	-0.050			
0.2623	16785.78	3.8720	3.8720	-1.0095	25.48	-0.19	-0.050			
0.2633	16849.77	3.8710	3.8711	-1.0138	25.46	-0.21	-0.050			
0.2643	16915.03	3.8700	3.8701	-1.0188	25.45	-0.22	-0.050			
0.2653	16980.17	3.8690	3.8689	-1.0237	25.43	-0.24	-0.050			
0.2664	17046.45	3.8680	3.8678	-1.0286	25.42	-0.25	-0.050			
0.2674	17113.04	3.8670	3.8671	-1.0328	25.41	-0.26	-0.050			
0.2684	17179.70	3.8660	3.8658	-1.0367	25.40	-0.27	-0.050			
0.2695	17247.31	3.8650	3.8651	-1.0405	25.40	-0.27	-0.050			
0.2705	17314.54	3.8640	3.8641	-1.0410	25.40	-0.27	-0.050			
0.2716	17381.84	3.8630	3.8631	-1.0431	25.42	-0.25	-0.050			
0.2726	17449.50	3.8620	3.8620	-1.0438	25.43	-0.24	-0.050			
0.2737	17516.75	3.8610	3.8611	-1.0446	25.44	-0.23	-0.050			
0.2748	17584.39	3.8600	3.8600	-1.0454	25.45	-0.22	-0.050			
0.2758	17651.78	3.8590	3.8590	-1.0463	25.46	-0.21	-0.050			
0.2769	17718.79	3.8580	3.8580	-1.0449	25.46	-0.21	-0.050			
0.2779	17785.55	3.8570	3.8570	-1.0436	25.48	-0.19	-0.050			
0.2789	17852.09	3.8560	3.8560	-1.0425	25.48	-0.19	-0.050			
0.2800	17917.73	3.8550	3.8550	-1.0396	25.48	-0.19	-0.050			
0.2810	17983.75	3.8540	3.8540	-1.0379	25.47	-0.20	-0.050			
0.2820	18049.80	3.8530	3.8530	-1.0380	25.46	-0.21	-0.050			
0.2831	18116.35	3.8520	3.8520	-1.0377	25.45	-0.22	-0.050			
0.2842	18190.92	3.8510	3.8509	-1.0189	25.44	-0.23	-0.050			
0.2853	18257.27	3.8500	3.8500	-1.0126	25.42	-0.25	-0.050			
0.2863	18322.41	3.8490	3.8490	-1.0021	25.42	-0.25	-0.050			
0.2874	18391.75	3.8480	3.8478	-0.9677	25.40	-0.27	-0.050			
0.2884	18456.74	3.8470	3.8469	-0.9407	25.40	-0.27	-0.050			
0.2893	18516.66	3.8460	3.8460	-0.9206	25.38	-0.29	-0.050			
0.2902	18574.82	3.8450	3.8450	-0.9094	25.36	-0.31	-0.050			
0.2911	18632.56	3.8440	3.8443	-0.8935	25.35	-0.32	-0.050			
0.2920	18685.16	3.8430	3.8434	-0.8877	25.34	-0.33	-0.050			
0.2928	18736.09	3.8420	3.8427	-0.8806	25.34	-0.33	-0.050			
0.2935	18787.01	3.8410	3.8420	-0.8703	25.34	-0.33	-0.050			
0.2943	18836.16	3.8400	3.8392	-0.8757	25.34	-0.33	-0.050			
0.2951	18883.95	3.8390	3.8376	-0.8794	25.33	-0.34	-0.050			
