Ah_balance (normalized)	Ah_balance (mAh)	Voltage - fit (V)	Voltage -  interpolate (V)	dQ/dV (1/V)	Temperature (°C)	Temperature - diff (°C)	Current (C)	R_DC 0ms (mOhm)	R_DC 50ms (mOhm)	R_DC 50 ms PEC (mOhm)
-0.0051	-324.75	4.1990	4.1990	0.8189	23.71	-0.16	0.050			
-0.0043	-272.24	4.1980	4.1981	0.8229	23.71	-0.16	0.050			
-0.0034	-219.57	4.1970	4.1970	0.8248	23.72	-0.15	0.050			
-0.0026	-166.47	4.1960	4.1959	0.8288	23.73	-0.14	0.050			
-0.0018	-113.57	4.1950	4.1950	0.8307	23.74	-0.13	0.050			
-0.0009	-60.33	4.1940	4.1940	0.8335	23.76	-0.11	0.050			
-0.0001	-6.90	4.1930	4.1929	0.8364	23.77	-0.10	0.050			
0.0007	47.35	4.1920	4.1920	0.8384	23.77	-0.10	0.050			
0.0016	101.02	4.1910	4.1911	0.8405	23.78	-0.09	0.050			
0.0024	154.98	4.1900	4.1900	0.8422	23.79	-0.08	0.050			
0.0033	209.48	4.1890	4.1889	0.8441	23.80	-0.07	0.050			
0.0041	263.76	4.1880	4.1881	0.8445	23.81	-0.06	0.050			
0.0050	317.76	4.1870	4.1869	0.8459	23.81	-0.06	0.050			
0.0058	372.43	4.1860	4.1859	0.8477	23.82	-0.05	0.050			
0.0067	426.75	4.1850	4.1850	0.8470	23.82	-0.05	0.050			
0.0075	480.99	4.1840	4.1841	0.8470	23.83	-0.04	0.050	0.177	0.433	
0.0084	535.24	4.1830	4.1831	0.8486	23.84	-0.03	0.050			
0.0092	589.37	4.1820	4.1819	0.8487	23.85	-0.02	0.050			
0.0101	643.53	4.1810	4.1811	0.8498	23.85	-0.02	0.050			
0.0109	698.36	4.1800	4.1801	0.8506	23.86	-0.01	0.050			
0.0118	752.83	4.1790	4.1791	0.8510	23.87	-0.00	0.050			
0.0126	806.72	4.1780	4.1779	0.8514	23.88	0.01	0.050			
0.0135	861.25	4.1770	4.1771	0.8526	23.89	0.02	0.050			
0.0143	915.81	4.1760	4.1760	0.8524	23.89	0.02	0.050			
0.0152	970.13	4.1750	4.1749	0.8529	23.89	0.02	0.050			
0.0160	1024.56	4.1740	4.1740	0.8546	23.90	0.03	0.050			
0.0169	1079.50	4.1730	4.1730	0.8555	23.90	0.03	0.050			
0.0177	1134.47	4.1720	4.1720	0.8572	23.91	0.04	0.050			
0.0186	1189.54	4.1710	4.1711	0.8571	23.90	0.03	0.050			
0.0194	1244.65	4.1700	4.1700	0.8574	23.90	0.03	0.050			
0.0203	1299.62	4.1690	4.1688	0.8590	23.89	0.02	0.050			
0.0212	1354.74	4.1680	4.1681	0.8595	23.89	0.02	0.050			
0.0220	1409.57	4.1670	4.1670	0.8591	23.89	0.02	0.050			
0.0229	1464.74	4.1660	4.1660	0.8611	23.87	0.00	0.050			
0.0237	1519.77	4.1650	4.1651	0.8620	23.87	0.00	0.050			
0.0246	1575.04	4.1640	4.1641	0.8615	23.87	0.00	0.050			
0.0255	1630.09	4.1630	4.1630	0.8619	23.87	-0.00	0.050			
0.0263	1685.29	4.1620	4.1621	0.8613	23.86	-0.01	0.050			
0.0272	1741.00	4.1610	4.1610	0.8607	23.84	-0.03	0.050			
0.0281	1796.16	4.1600	4.1599	0.8611	23.83	-0.04	0.050	0.097	0.407	
0.0289	1851.31	4.1590	4.1591	0.8610	23.82	-0.05	0.050			
0.0298	1906.01	4.1580	4.1579	0.8607	23.80	-0.07	0.050			
0.0306	1960.80	4.1570	4.1570	0.8615	23.79	-0.08	0.050			
0.0315	2015.99	4.1560	4.1561	0.8630	23.79	-0.08	0.050			
0.0324	2070.97	4.1550	4.1551	0.8630	23.79	-0.08	0.050			
0.0332	2126.07	4.1540	4.1540	0.8634	23.78	-0.09	0.050			
0.0341	2181.86	4.1530	4.1530	0.8632	23.77	-0.10	0.050			
0.0350	2237.22	4.1520	4.1520	0.8633	23.77	-0.10	0.050			
0.0358	2292.71	4.1510	4.1508	0.8630	23.76	-0.11	0.050			
0.0367	2348.16	4.1500	4.1500	0.8633	23.75	-0.12	0.050			
0.0375	2403.18	4.1490	4.1490	0.8622	23.75	-0.12	0.050			
0.0384	2458.26	4.1480	4.1481	0.8620	23.74	-0.13	0.050			
0.0393	2513.34	4.1470	4.1471	0.8612	23.74	-0.13	0.050			
0.0401	2568.46	4.1460	4.1460	0.8610	23.74	-0.13	0.050			
0.0410	2623.71	4.1450	4.1450	0.8613	23.73	-0.14	0.050			
0.0419	2678.61	4.1440	4.1441	0.8627	23.73	-0.14	0.050			
0.0427	2733.91	4.1430	4.1429	0.8628	23.75	-0.12	0.050			
0.0436	2789.32	4.1420	4.1420	0.8638	23.75	-0.12	0.050			
0.0444	2844.74	4.1410	4.1410	0.8635	23.75	-0.12	0.050			
0.0453	2899.52	4.1400	4.1398	0.8619	23.77	-0.10	0.050			
0.0462	2954.31	4.1390	4.1390	0.8622	23.77	-0.10	0.050			
0.0470	3009.44	4.1380	4.1380	0.8626	23.78	-0.09	0.050			
0.0479	3064.30	4.1370	4.1370	0.8632	23.79	-0.08	0.050	0.387	0.462	
0.0487	3119.67	4.1360	4.1360	0.8639	23.80	-0.07	0.050			
0.0496	3175.05	4.1350	4.1350	0.8657	23.81	-0.06	0.050			
0.0505	3230.51	4.1340	4.1341	0.8664	23.81	-0.06	0.050			
0.0513	3286.18	4.1330	4.1330	0.8681	23.82	-0.05	0.050			
0.0522	3341.77	4.1320	4.1319	0.8688	23.84	-0.03	0.050			
0.0531	3397.62	4.1310	4.1310	0.8694	23.85	-0.02	0.050			
0.0540	3453.42	4.1300	4.1299	0.8700	23.85	-0.02	0.050			
0.0548	3509.22	4.1290	4.1290	0.8701	23.85	-0.02	0.050			
0.0557	3564.84	4.1280	4.1279	0.8709	23.86	-0.01	0.050			
0.0566	3620.68	4.1270	4.1271	0.8713	23.87	0.00	0.050			
0.0574	3676.37	4.1260	4.1261	0.8715	23.87	0.00	0.050			
0.0583	3732.02	4.1250	4.1250	0.8720	23.88	0.01	0.050			
0.0592	3787.64	4.1240	4.1241	0.8721	23.89	0.02	0.050			
0.0601	3843.60	4.1230	4.1231	0.8739	23.89	0.02	0.050			
0.0609	3899.40	4.1220	4.1221	0.8754	23.89	0.02	0.050			
0.0618	3955.53	4.1210	4.1211	0.8763	23.90	0.03	0.050			
0.0627	4011.64	4.1200	4.1199	0.8771	23.90	0.03	0.050			
0.0636	4067.42	4.1190	4.1190	0.8773	23.91	0.04	0.050			
0.0644	4123.71	4.1180	4.1179	0.8778	23.91	0.04	0.050			
0.0653	4179.81	4.1170	4.1170	0.8785	23.91	0.04	0.050			
0.0662	4236.35	4.1160	4.1160	0.8801	23.91	0.04	0.050			
0.0671	4292.82	4.1150	4.1150	0.8800	23.91	0.04	0.050			
0.0680	4349.47	4.1140	4.1140	0.8796	23.91	0.04	0.050			
0.0688	4406.04	4.1130	4.1130	0.8794	23.91	0.04	0.050			
0.0697	4462.25	4.1120	4.1119	0.8806	23.91	0.04	0.050			
0.0706	4518.72	4.1110	4.1111	0.8814	23.91	0.04	0.050			
0.0715	4575.10	4.1100	4.1100	0.8821	23.91	0.04	0.050			
0.0724	4631.61	4.1090	4.1090	0.8818	23.91	0.04	0.050			
0.0733	4688.15	4.1080	4.1080	0.8816	23.91	0.04	0.050			
0.0741	4744.19	4.1070	4.1070	0.8822	23.91	0.04	0.050			
0.0750	4800.62	4.1060	4.1061	0.8826	23.90	0.03	0.050			
0.0759	4856.72	4.1050	4.1050	0.8831	23.89	0.02	0.050			
0.0768	4913.11	4.1040	4.1040	0.8837	23.89	0.02	0.050			
0.0777	4969.65	4.1030	4.1029	0.8839	23.90	0.03	0.050			
0.0785	5025.78	4.1020	4.1020	0.8855	23.90	0.03	0.050			
0.0794	5082.63	4.1010	4.1011	0.8863	23.89	0.02	0.050			
0.0803	5139.34	4.1000	4.1000	0.8883	23.89	0.02	0.050			
0.0812	5196.17	4.0990	4.0990	0.8895	23.90	0.03	0.050			
0.0821	5253.19	4.0980	4.0979	0.8899	23.91	0.04	0.050			
0.0830	5310.81	4.0970	4.0971	0.8903	23.90	0.03	0.050			
0.0839	5368.17	4.0960	4.0960	0.8907	23.89	0.02	0.050			
0.0848	5425.75	4.0950	4.0950	0.8900	23.89	0.02	0.050			
0.0857	5483.05	4.0940	4.0940	0.8903	23.89	0.02	0.050			
0.0866	5540.07	4.0930	4.0928	0.8893	23.89	0.02	0.050			
0.0875	5596.92	4.0920	4.0920	0.8877	23.88	0.01	0.050			
0.0883	5653.56	4.0910	4.0909	0.8874	23.87	0.00	0.050			
0.0892	5710.62	4.0900	4.0900	0.8876	23.86	-0.01	0.050			
0.0901	5767.51	4.0890	4.0890	0.8867	23.85	-0.02	0.050			
0.0910	5824.08	4.0880	4.0880	0.8864	23.83	-0.04	0.050			
0.0919	5880.29	4.0870	4.0871	0.8852	23.83	-0.04	0.050			
0.0928	5936.65	4.0860	4.0860	0.8863	23.82	-0.05	0.050			
0.0936	5993.10	4.0850	4.0850	0.8855	23.82	-0.05	0.050			
0.0945	6049.33	4.0840	4.0840	0.8863	23.81	-0.06	0.050			
0.0954	6105.98	4.0830	4.0830	0.8872	23.81	-0.06	0.050			
0.0963	6162.34	4.0820	4.0821	0.8868	23.81	-0.06	0.050			
0.0972	6218.85	4.0810	4.0810	0.8885	23.81	-0.06	0.050			
0.0981	6275.50	4.0800	4.0800	0.8903	23.80	-0.07	0.050			
0.0989	6332.53	4.0790	4.0789	0.8921	23.79	-0.08	0.050			
0.0998	6389.85	4.0780	4.0780	0.8955	23.79	-0.08	0.050			
0.1007	6447.31	4.0770	4.0770	0.8974	23.77	-0.10	0.050			
0.1016	6505.41	4.0760	4.0761	0.8990	23.77	-0.10	0.050			
0.1026	6563.27	4.0750	4.0749	0.8991	23.76	-0.11	0.050			
0.1035	6620.83	4.0740	4.0740	0.8999	23.75	-0.12	0.050			
0.1044	6678.84	4.0730	4.0731	0.9005	23.75	-0.12	0.050			
0.1053	6736.52	4.0720	4.0720	0.9008	23.74	-0.13	0.050			
0.1062	6794.26	4.0710	4.0710	0.9014	23.73	-0.14	0.050			
0.1071	6852.09	4.0700	4.0700	0.9025	23.73	-0.14	0.050			
0.1080	6910.06	4.0690	4.0690	0.9021	23.73	-0.14	0.050			
0.1089	6967.94	4.0680	4.0682	0.9014	23.72	-0.15	0.050			
0.1098	7025.69	4.0670	4.0670	0.9011	23.71	-0.16	0.050			
0.1107	7083.24	4.0660	4.0660	0.9006	23.71	-0.16	0.050			
0.1116	7140.98	4.0650	4.0649	0.9009	23.69	-0.18	0.050			
0.1125	7198.06	4.0640	4.0641	0.9014	23.69	-0.18	0.050			
0.1134	7255.64	4.0630	4.0630	0.9018	23.68	-0.19	0.050			
0.1143	7313.36	4.0620	4.0620	0.9019	23.67	-0.20	0.050			
0.1152	7370.71	4.0610	4.0610	0.9013	23.67	-0.20	0.050			
0.1161	7428.43	4.0600	4.0601	0.9016	23.65	-0.22	0.050			
0.1170	7486.09	4.0590	4.0590	0.9021	23.65	-0.22	0.050			
0.1179	7543.62	4.0580	4.0579	0.9031	23.64	-0.23	0.050			
0.1188	7601.52	4.0570	4.0570	0.9051	23.62	-0.25	0.050			
0.1197	7659.71	4.0560	4.0559	0.9063	23.63	-0.24	0.050			
0.1206	7717.71	4.0550	4.0550	0.9073	23.62	-0.25	0.050			
0.1215	7775.44	4.0540	4.0540	0.9090	23.62	-0.25	0.050			
0.1224	7833.94	4.0530	4.0531	0.9096	23.61	-0.26	0.050			
0.1233	7892.14	4.0520	4.0519	0.9100	23.62	-0.25	0.050			
0.1242	7950.58	4.0510	4.0510	0.9110	23.61	-0.26	0.050			
0.1251	8008.73	4.0500	4.0500	0.9119	23.60	-0.27	0.050			
0.1261	8067.48	4.0490	4.0490	0.9131	23.60	-0.27	0.050			
0.1270	8126.06	4.0480	4.0480	0.9149	23.60	-0.27	0.050			
0.1279	8184.52	4.0470	4.0470	0.9149	23.59	-0.28	0.050			
0.1288	8243.58	4.0460	4.0460	0.9141	23.60	-0.27	0.050			
0.1297	8301.94	4.0450	4.0450	0.9143	23.60	-0.27	0.050			
0.1306	8360.51	4.0440	4.0441	0.9141	23.60	-0.27	0.050			
0.1315	8419.00	4.0430	4.0429	0.9153	23.61	-0.26	0.050			
0.1325	8477.94	4.0420	4.0420	0.9164	23.62	-0.25	0.050			
0.1334	8536.58	4.0410	4.0410	0.9156	23.62	-0.25	0.050			
0.1343	8595.47	4.0400	4.0400	0.9150	23.64	-0.23	0.050			
0.1352	8653.92	4.0390	4.0390	0.9150	23.64	-0.23	0.050			
0.1361	8712.13	4.0380	4.0381	0.9141	23.64	-0.23	0.050			
0.1370	8770.77	4.0370	4.0369	0.9136	23.65	-0.22	0.050			
0.1379	8828.80	4.0360	4.0359	0.9147	23.67	-0.20	0.050			
0.1389	8887.39	4.0350	4.0350	0.9153	23.67	-0.20	0.050			
0.1398	8945.46	4.0340	4.0340	0.9159	23.67	-0.20	0.050			
0.1407	9004.51	4.0330	4.0330	0.9171	23.68	-0.19	0.050			
0.1416	9062.89	4.0320	4.0320	0.9177	23.69	-0.18	0.050			
0.1425	9121.64	4.0310	4.0310	0.9183	23.69	-0.18	0.050			
0.1434	9179.90	4.0300	4.0300	0.9196	23.71	-0.16	0.050			
0.1444	9238.82	4.0290	4.0289	0.9212	23.71	-0.16	0.050			
0.1453	9298.15	4.0280	4.0280	0.9214	23.71	-0.16	0.050			
0.1462	9357.13	4.0270	4.0269	0.9241	23.71	-0.16	0.050			
0.1471	9416.14	4.0260	4.0261	0.9270	23.71	-0.16	0.050			
0.1480	9474.86	4.0250	4.0250	0.9290	23.72	-0.15	0.050	0.380	0.517	
0.1490	9534.19	4.0240	4.0241	0.9312	23.73	-0.14	0.050			
0.1499	9594.11	4.0230	4.0230	0.9329	23.75	-0.12	0.050			
0.1508	9654.22	4.0220	4.0220	0.9346	23.75	-0.12	0.050			
0.1518	9714.63	4.0210	4.0210	0.9369	23.75	-0.12	0.050			
0.1527	9774.97	4.0200	4.0200	0.9381	23.77	-0.10	0.050			
0.1537	9835.40	4.0190	4.0190	0.9375	23.77	-0.10	0.050			
0.1546	9895.51	4.0180	4.0178	0.9378	23.77	-0.10	0.050			
0.1556	9955.91	4.0170	4.0170	0.9379	23.77	-0.10	0.050			
0.1565	10016.01	4.0160	4.0161	0.9375	23.77	-0.10	0.050			
0.1574	10076.44	4.0150	4.0150	0.9384	23.77	-0.10	0.050			
0.1584	10136.44	4.0140	4.0140	0.9388	23.77	-0.10	0.050			
0.1593	10196.18	4.0130	4.0130	0.9391	23.77	-0.10	0.050			
0.1603	10256.44	4.0120	4.0119	0.9393	23.76	-0.11	0.050			
0.1612	10315.69	4.0110	4.0111	0.9422	23.75	-0.12	0.050			
0.1621	10375.65	4.0100	4.0100	0.9435	23.75	-0.12	0.050			
0.1631	10435.48	4.0090	4.0090	0.9459	23.73	-0.14	0.050			
0.1640	10496.14	4.0080	4.0079	0.9479	23.73	-0.14	0.050			
0.1649	10556.62	4.0070	4.0070	0.9453	23.71	-0.16	0.050			
0.1659	10617.14	4.0060	4.0060	0.9458	23.70	-0.17	0.050			
0.1668	10677.76	4.0050	4.0049	0.9479	23.69	-0.18	0.050			
0.1678	10738.67	4.0040	4.0040	0.9496	23.68	-0.19	0.050			
0.1688	10800.64	4.0030	4.0029	0.9503	23.67	-0.20	0.050			
0.1697	10861.56	4.0020	4.0019	0.9517	23.66	-0.21	0.050			
0.1707	10922.73	4.0010	4.0011	0.9528	23.65	-0.22	0.050			
0.1716	10984.18	4.0000	4.0001	0.9530	23.64	-0.23	0.050			
0.1726	11045.80	3.9990	3.9990	0.9536	23.64	-0.23	0.050			
0.1735	11106.98	3.9980	3.9981	0.9528	23.62	-0.25	0.050			
0.1745	11167.71	3.9970	3.9969	0.9534	23.63	-0.24	0.050			
0.1754	11228.47	3.9960	3.9960	0.9536	23.62	-0.25	0.050			
0.1764	11289.46	3.9950	3.9950	0.9519	23.62	-0.25	0.050			
0.1773	11349.66	3.9940	3.9941	0.9507	23.62	-0.25	0.050			
0.1783	11410.49	3.9930	3.9929	0.9504	23.61	-0.26	0.050			
0.1792	11470.86	3.9920	3.9920	0.9496	23.62	-0.25	0.050			
0.1802	11530.88	3.9910	3.9910	0.9494	23.62	-0.25	0.050			
0.1811	11591.67	3.9900	3.9900	0.9519	23.63	-0.24	0.050			
0.1821	11652.54	3.9890	3.9890	0.9541	23.64	-0.23	0.050			
0.1830	11713.98	3.9880	3.9879	0.9561	23.65	-0.22	0.050			
0.1840	11775.69	3.9870	3.9871	0.9581	23.67	-0.20	0.050			
0.1850	11836.98	3.9860	3.9861	0.9584	23.69	-0.18	0.050			
0.1859	11897.70	3.9850	3.9849	0.9599	23.70	-0.17	0.050			
0.1869	11958.96	3.9840	3.9840	0.9626	23.71	-0.16	0.050			
0.1878	12020.92	3.9830	3.9830	0.9653	23.71	-0.16	0.050	0.338	0.441	
0.1888	12082.52	3.9820	3.9819	0.9652	23.73	-0.14	0.050			
0.1898	12144.48	3.9810	3.9810	0.9672	23.73	-0.14	0.050			
0.1907	12206.81	3.9800	3.9800	0.9688	23.74	-0.13	0.050			
0.1917	12269.22	3.9790	3.9791	0.9696	23.75	-0.12	0.050			
0.1927	12331.50	3.9780	3.9780	0.9703	23.75	-0.12	0.050			
0.1937	12393.83	3.9770	3.9769	0.9700	23.75	-0.12	0.050			
0.1946	12456.12	3.9760	3.9759	0.9719	23.75	-0.12	0.050			
0.1956	12518.62	3.9750	3.9750	0.9739	23.77	-0.10	0.050			
0.1966	12580.62	3.9740	3.9740	0.9747	23.77	-0.10	0.050			
0.1975	12642.72	3.9730	3.9731	0.9760	23.77	-0.10	0.050			
0.1985	12705.09	3.9720	3.9720	0.9775	23.79	-0.08	0.050			
0.1995	12767.24	3.9710	3.9709	0.9783	23.79	-0.08	0.050			
0.2005	12829.83	3.9700	3.9699	0.9797	23.79	-0.08	0.050			
0.2014	12892.57	3.9690	3.9690	0.9811	23.79	-0.08	0.050			
0.2024	12955.59	3.9680	3.9680	0.9832	23.80	-0.07	0.050			
0.2034	13018.42	3.9670	3.9668	0.9849	23.80	-0.07	0.050			
0.2044	13081.29	3.9660	3.9660	0.9855	23.79	-0.08	0.050			
0.2054	13143.98	3.9650	3.9651	0.9859	23.80	-0.07	0.050			
0.2064	13207.47	3.9640	3.9640	0.9871	23.79	-0.08	0.050			
0.2074	13271.24	3.9630	3.9630	0.9892	23.80	-0.07	0.050			
0.2084	13335.37	3.9620	3.9620	0.9897	23.81	-0.06	0.050			
0.2094	13398.99	3.9610	3.9610	0.9896	23.81	-0.06	0.050			
0.2104	13462.64	3.9600	3.9600	0.9899	23.81	-0.06	0.050			
0.2114	13526.47	3.9590	3.9590	0.9897	23.82	-0.05	0.050			
0.2123	13590.05	3.9580	3.9580	0.9894	23.83	-0.04	0.050			
0.2133	13653.43	3.9570	3.9570	0.9889	23.83	-0.04	0.050			
0.2143	13716.29	3.9560	3.9560	0.9869	23.83	-0.04	0.050			
0.2153	13779.41	3.9550	3.9549	0.9853	23.84	-0.03	0.050			
0.2163	13842.53	3.9540	3.9540	0.9841	23.84	-0.03	0.050			
0.2173	13905.12	3.9530	3.9530	0.9839	23.85	-0.02	0.050			
0.2182	13967.90	3.9520	3.9519	0.9836	23.85	-0.02	0.050			
0.2192	14030.54	3.9510	3.9510	0.9837	23.85	-0.02	0.050			
0.2202	14093.24	3.9500	3.9500	0.9839	23.87	-0.00	0.050			
0.2212	14155.99	3.9490	3.9489	0.9839	23.88	0.01	0.050			
0.2222	14218.51	3.9480	3.9481	0.9853	23.89	0.02	0.050			
0.2231	14281.13	3.9470	3.9469	0.9864	23.89	0.02	0.050			
0.2241	14344.01	3.9460	3.9460	0.9881	23.89	0.02	0.050			
0.2251	14407.39	3.9450	3.9450	0.9903	23.89	0.02	0.050			
0.2261	14470.78	3.9440	3.9441	0.9921	23.89	0.02	0.050			
0.2271	14534.40	3.9430	3.9430	0.9944	23.89	0.02	0.050			
0.2281	14598.02	3.9420	3.9420	0.9968	23.87	0.00	0.050	0.140	0.382	
0.2291	14661.83	3.9410	3.9410	0.9982	23.87	0.00	0.050			
0.2301	14725.87	3.9400	3.9399	0.9998	23.87	0.00	0.050			
0.2311	14790.24	3.9390	3.9390	1.0019	23.86	-0.01	0.050			
0.2321	14854.54	3.9380	3.9380	1.0027	23.85	-0.02	0.050			
0.2331	14919.49	3.9370	3.9370	1.0033	23.85	-0.02	0.050			
0.2341	14983.84	3.9360	3.9360	1.0037	23.84	-0.03	0.050			
0.2351	15048.59	3.9350	3.9351	1.0054	23.84	-0.03	0.050			
0.2361	15112.83	3.9340	3.9339	1.0065	23.83	-0.04	0.050			
0.2371	15176.91	3.9330	3.9330	1.0070	23.83	-0.04	0.050			
0.2381	15241.44	3.9320	3.9320	1.0081	23.82	-0.05	0.050			
0.2392	15305.62	3.9310	3.9310	1.0086	23.81	-0.06	0.050			
0.2402	15370.51	3.9300	3.9300	1.0090	23.80	-0.07	0.050			
0.2412	15434.77	3.9290	3.9289	1.0096	23.79	-0.08	0.050			
0.2422	15499.33	3.9280	3.9280	1.0097	23.78	-0.09	0.050			
0.2432	15563.82	3.9270	3.9269	1.0108	23.77	-0.10	0.050			
0.2442	15628.31	3.9260	3.9260	1.0123	23.76	-0.11	0.050			
0.2452	15693.13	3.9250	3.9249	1.0133	23.75	-0.12	0.050			
0.2462	15758.10	3.9240	3.9240	1.0145	23.73	-0.14	0.050			
0.2472	15822.63	3.9230	3.9231	1.0158	23.73	-0.14	0.050			
0.2482	15887.77	3.9220	3.9221	1.0174	23.71	-0.16	0.050	0.183	0.377	
0.2493	15953.07	3.9210	3.9211	1.0190	23.70	-0.17	0.050			
0.2503	16018.57	3.9200	3.9200	1.0207	23.69	-0.18	0.050			
0.2513	16084.41	3.9190	3.9190	1.0216	23.69	-0.18	0.050			
0.2523	16150.19	3.9180	3.9180	1.0218	23.68	-0.19	0.050			
0.2534	16216.01	3.9170	3.9171	1.0226	23.67	-0.20	0.050			
0.2544	16281.24	3.9160	3.9159	1.0219	23.67	-0.20	0.050			
0.2554	16346.61	3.9150	3.9150	1.0215	23.65	-0.22	0.050			
0.2564	16411.89	3.9140	3.9139	1.0216	23.64	-0.23	0.050			
0.2575	16477.22	3.9130	3.9130	1.0216	23.63	-0.24	0.050			
0.2585	16542.90	3.9120	3.9120	1.0225	23.64	-0.23	0.050			
0.2595	16608.12	3.9110	3.9111	1.0232	23.62	-0.25	0.050			
0.2605	16673.72	3.9100	3.9100	1.0236	23.62	-0.25	0.050			
0.2615	16738.84	3.9090	3.9090	1.0240	23.63	-0.24	0.050			
0.2626	16804.57	3.9080	3.9079	1.0251	23.64	-0.23	0.050			
0.2636	16869.84	3.9070	3.9070	1.0246	23.64	-0.23	0.050			
0.2646	16935.37	3.9060	3.9060	1.0252	23.66	-0.21	0.050			
0.2656	17000.76	3.9050	3.9050	1.0256	23.67	-0.20	0.050			
0.2667	17066.52	3.9040	3.9040	1.0264	23.68	-0.19	0.050			
0.2677	17131.91	3.9030	3.9030	1.0270	23.69	-0.18	0.050	0.385	0.512	
0.2687	17197.72	3.9020	3.9020	1.0274	23.71	-0.16	0.050			
0.2697	17263.54	3.9010	3.9011	1.0300	23.71	-0.16	0.050			
0.2708	17329.81	3.9000	3.9000	1.0313	23.71	-0.16	0.050			
0.2718	17395.81	3.8990	3.8991	1.0327	23.71	-0.16	0.050			
0.2728	17462.04	3.8980	3.8981	1.0344	23.71	-0.16	0.050			
0.2739	17528.51	3.8970	3.8970	1.0357	23.73	-0.14	0.050			
0.2749	17594.63	3.8960	3.8961	1.0363	23.73	-0.14	0.050			
0.2760	17661.00	3.8950	3.8950	1.0373	23.75	-0.12	0.050			
0.2770	17727.51	3.8940	3.8941	1.0375	23.75	-0.12	0.050			
0.2780	17794.08	3.8930	3.8929	1.0379	23.75	-0.12	0.050			
0.2791	17860.29	3.8920	3.8919	1.0390	23.76	-0.11	0.050			
0.2801	17926.41	3.8910	3.8911	1.0410	23.77	-0.10	0.050			
0.2811	17993.16	3.8900	3.8899	1.0425	23.77	-0.10	0.050			
0.2822	18059.74	3.8890	3.8890	1.0433	23.77	-0.10	0.050			
0.2832	18126.87	3.8880	3.8880	1.0458	23.77	-0.10	0.050			
0.2843	18193.89	3.8870	3.8870	1.0465	23.78	-0.09	0.050			
0.2853	18260.70	3.8860	3.8860	1.0479	23.79	-0.08	0.050			
0.2864	18327.65	3.8850	3.8850	1.0508	23.79	-0.08	0.050			
0.2874	18394.89	3.8840	3.8839	1.0519	23.79	-0.08	0.050			
0.2885	18462.09	3.8830	3.8831	1.0532	23.79	-0.08	0.050			
0.2895	18529.54	3.8820	3.8821	1.0546	23.79	-0.08	0.050			
0.2906	18596.72	3.8810	3.8811	1.0569	23.79	-0.08	0.050			
0.2916	18664.31	3.8800	3.8800	1.0596	23.79	-0.08	0.050			
0.2927	18732.33	3.8790	3.8790	1.0616	23.79	-0.08	0.050			
0.2938	18800.33	3.8780	3.8781	1.0644	23.79	-0.08	0.050			
0.2948	18869.09	3.8770	3.8770	1.0664	23.79	-0.08	0.050			
0.2959	18937.67	3.8760	3.8759	1.0673	23.78	-0.09	0.050			
0.2970	19006.35	3.8750	3.8750	1.0688	23.77	-0.10	0.050			
0.2980	19074.77	3.8740	3.8740	1.0706	23.75	-0.12	0.050			
0.2991	19143.43	3.8730	3.8730	1.0715	23.74	-0.13	0.050			
0.3002	19211.58	3.8720	3.8719	1.0727	23.72	-0.15	0.050			
0.3013	19280.73	3.8710	3.8711	1.0727	23.72	-0.15	0.050			
0.3023	19349.94	3.8700	3.8701	1.0732	23.71	-0.16	0.050			
0.3034	19419.11	3.8690	3.8690	1.0733	23.69	-0.18	0.050			
0.3045	19487.85	3.8680	3.8680	1.0734	23.69	-0.18	0.050			
0.3056	19556.34	3.8670	3.8670	1.0746	23.68	-0.19	0.050			
0.3066	19624.68	3.8660	3.8660	1.0750	23.67	-0.20	0.050			
0.3077	19693.40	3.8650	3.8648	1.0751	23.67	-0.20	0.050	0.083	0.498	
0.3088	19762.42	3.8640	3.8640	1.0762	23.66	-0.21	0.050			
0.3099	19831.01	3.8630	3.8631	1.0768	23.66	-0.21	0.050			
0.3109	19899.40	3.8620	3.8620	1.0781	23.66	-0.21	0.050			
0.3120	19968.04	3.8610	3.8609	1.0787	23.67	-0.20	0.050			
0.3131	20036.98	3.8600	3.8600	1.0808	23.68	-0.19	0.050			
0.3142	20106.45	3.8590	3.8589	1.0818	23.70	-0.17	0.050			
0.3152	20175.33	3.8580	3.8579	1.0846	23.71	-0.16	0.050			
0.3163	20244.63	3.8570	3.8570	1.0883	23.72	-0.15	0.050			
0.3174	20314.32	3.8560	3.8561	1.0912	23.74	-0.13	0.050			
