Ah_balance (normalized)	Ah_balance (mAh)	Voltage - fit (V)	Voltage -  interpolate (V)	dQ/dV (1/V)	Temperature (°C)	Temperature - diff (°C)	Current (C)	R_DC 0ms (mOhm)	R_DC 50ms (mOhm)	R_DC 50 ms PEC (mOhm)
-0.0093	-594.80	4.1990	4.1990	0.8457	24.96	-0.12	0.050			
-0.0084	-540.43	4.1980	4.1979	0.8550	24.96	-0.12	0.050			
-0.0076	-485.71	4.1970	4.1969	0.8562	24.96	-0.12	0.050			
-0.0067	-430.76	4.1960	4.1960	0.8584	24.96	-0.12	0.050			
-0.0059	-375.91	4.1950	4.1949	0.8597	24.96	-0.12	0.050			
-0.0050	-320.68	4.1940	4.1941	0.8618	24.96	-0.12	0.050			
-0.0041	-264.88	4.1930	4.1929	0.8632	24.96	-0.12	0.050			
-0.0033	-209.31	4.1920	4.1920	0.8633	24.96	-0.12	0.050			
-0.0024	-154.29	4.1910	4.1910	0.8640	24.96	-0.12	0.050			
-0.0015	-99.06	4.1900	4.1900	0.8648	24.96	-0.12	0.050			
-0.0007	-43.52	4.1890	4.1891	0.8671	24.96	-0.12	0.050			
0.0002	11.92	4.1880	4.1880	0.8675	24.96	-0.12	0.050			
0.0011	67.60	4.1870	4.1871	0.8678	24.96	-0.12	0.050			
0.0019	122.72	4.1860	4.1860	0.8689	24.96	-0.12	0.050	0.362	0.403	
0.0028	178.38	4.1850	4.1850	0.8696	24.96	-0.12	0.050			
0.0037	233.96	4.1840	4.1841	0.8695	24.96	-0.12	0.050			
0.0045	290.00	4.1830	4.1829	0.8700	24.95	-0.13	0.050			
0.0054	345.75	4.1820	4.1819	0.8706	24.94	-0.14	0.050			
0.0063	401.21	4.1810	4.1811	0.8714	24.95	-0.13	0.050			
0.0071	457.24	4.1800	4.1800	0.8720	24.96	-0.12	0.050			
0.0080	513.04	4.1790	4.1791	0.8722	24.95	-0.13	0.050			
0.0089	568.87	4.1780	4.1780	0.8725	24.96	-0.12	0.050			
0.0098	624.70	4.1770	4.1769	0.8731	24.95	-0.13	0.050			
0.0106	680.85	4.1760	4.1760	0.8735	24.96	-0.12	0.050			
0.0115	736.95	4.1750	4.1750	0.8732	24.96	-0.12	0.050			
0.0124	793.26	4.1740	4.1740	0.8732	24.96	-0.12	0.050			
0.0133	849.50	4.1730	4.1729	0.8739	24.96	-0.12	0.050			
0.0141	905.42	4.1720	4.1719	0.8735	24.95	-0.13	0.050			
0.0150	960.91	4.1710	4.1712	0.8711	24.95	-0.13	0.050			
0.0159	1016.64	4.1700	4.1699	0.8705	24.96	-0.12	0.050			
0.0168	1072.18	4.1690	4.1691	0.8705	24.96	-0.12	0.050			
0.0176	1128.10	4.1680	4.1681	0.8698	24.96	-0.12	0.050			
0.0185	1183.75	4.1670	4.1670	0.8696	24.96	-0.12	0.050			
0.0194	1239.10	4.1660	4.1661	0.8690	24.96	-0.12	0.050			
0.0202	1294.57	4.1650	4.1650	0.8694	24.96	-0.12	0.050			
0.0211	1350.38	4.1640	4.1639	0.8697	24.95	-0.13	0.050			
0.0220	1405.77	4.1630	4.1630	0.8700	24.95	-0.13	0.050	0.285	0.456	
0.0228	1461.36	4.1620	4.1620	0.8704	24.94	-0.14	0.050			
0.0237	1516.60	4.1610	4.1609	0.8698	24.95	-0.13	0.050			
0.0246	1572.30	4.1600	4.1600	0.8705	24.95	-0.13	0.050			
0.0254	1628.00	4.1590	4.1590	0.8709	24.95	-0.13	0.050			
0.0263	1683.96	4.1580	4.1580	0.8717	24.95	-0.13	0.050			
0.0272	1739.90	4.1570	4.1570	0.8710	24.94	-0.14	0.050			
0.0281	1795.80	4.1560	4.1561	0.8720	24.94	-0.14	0.050			
0.0289	1851.72	4.1550	4.1550	0.8724	24.94	-0.14	0.050			
0.0298	1907.64	4.1540	4.1540	0.8727	24.95	-0.13	0.050			
0.0307	1963.43	4.1530	4.1532	0.8723	24.94	-0.14	0.050			
0.0316	2019.30	4.1520	4.1520	0.8731	24.95	-0.13	0.050			
0.0324	2075.35	4.1510	4.1510	0.8731	24.94	-0.14	0.050			
0.0333	2131.17	4.1500	4.1501	0.8737	24.94	-0.14	0.050			
0.0342	2187.02	4.1490	4.1490	0.8732	24.94	-0.14	0.050			
0.0350	2242.84	4.1480	4.1480	0.8736	24.94	-0.14	0.050			
0.0359	2298.65	4.1470	4.1469	0.8735	24.94	-0.14	0.050			
0.0368	2354.29	4.1460	4.1460	0.8741	24.95	-0.13	0.050			
0.0377	2410.22	4.1450	4.1451	0.8740	24.94	-0.14	0.050			
0.0385	2466.27	4.1440	4.1439	0.8743	24.94	-0.14	0.050			
0.0394	2522.30	4.1430	4.1430	0.8744	24.93	-0.15	0.050			
0.0403	2578.12	4.1420	4.1420	0.8749	24.94	-0.14	0.050			
0.0412	2634.52	4.1410	4.1410	0.8741	24.94	-0.14	0.050			
0.0420	2690.75	4.1400	4.1400	0.8731	24.94	-0.14	0.050	0.331	0.448	
0.0429	2746.75	4.1390	4.1389	0.8735	24.94	-0.14	0.050			
0.0438	2802.77	4.1380	4.1380	0.8734	24.94	-0.14	0.050			
0.0447	2858.80	4.1370	4.1369	0.8734	24.95	-0.13	0.050			
0.0455	2914.54	4.1360	4.1361	0.8722	24.95	-0.13	0.050			
0.0464	2970.09	4.1350	4.1350	0.8724	24.94	-0.14	0.050			
0.0473	3026.02	4.1340	4.1339	0.8722	24.95	-0.13	0.050			
0.0481	3081.50	4.1330	4.1331	0.8714	24.95	-0.13	0.050			
0.0490	3137.08	4.1320	4.1320	0.8723	24.94	-0.14	0.050			
0.0499	3192.67	4.1310	4.1309	0.8726	24.94	-0.14	0.050			
0.0508	3248.44	4.1300	4.1300	0.8724	24.95	-0.13	0.050			
0.0516	3304.27	4.1290	4.1289	0.8732	24.94	-0.14	0.050			
0.0525	3359.99	4.1280	4.1281	0.8729	24.94	-0.14	0.050			
0.0534	3415.92	4.1270	4.1271	0.8729	24.94	-0.14	0.050			
0.0543	3472.06	4.1260	4.1260	0.8725	24.94	-0.14	0.050			
0.0551	3528.23	4.1250	4.1250	0.8728	24.94	-0.14	0.050			
0.0560	3584.26	4.1240	4.1239	0.8728	24.94	-0.14	0.050			
0.0569	3640.08	4.1230	4.1231	0.8735	24.94	-0.14	0.050			
0.0578	3696.07	4.1220	4.1220	0.8732	24.94	-0.14	0.050			
0.0586	3752.18	4.1210	4.1211	0.8733	24.94	-0.14	0.050			
0.0595	3808.06	4.1200	4.1200	0.8739	24.95	-0.13	0.050			
0.0604	3863.89	4.1190	4.1190	0.8728	24.94	-0.14	0.050			
0.0612	3919.56	4.1180	4.1180	0.8728	24.95	-0.13	0.050			
0.0621	3975.29	4.1170	4.1170	0.8735	24.96	-0.12	0.050	0.114	0.451	
0.0630	4031.12	4.1160	4.1160	0.8725	24.95	-0.13	0.050			
0.0639	4086.67	4.1150	4.1149	0.8728	24.95	-0.13	0.050			
0.0647	4142.51	4.1140	4.1139	0.8735	24.94	-0.14	0.050			
0.0656	4198.45	4.1130	4.1131	0.8734	24.94	-0.14	0.050			
0.0665	4254.13	4.1120	4.1120	0.8731	24.94	-0.14	0.050			
0.0673	4310.18	4.1110	4.1109	0.8740	24.94	-0.14	0.050			
0.0682	4366.11	4.1100	4.1100	0.8752	24.94	-0.14	0.050			
0.0691	4422.17	4.1090	4.1089	0.8756	24.96	-0.12	0.050			
0.0700	4478.34	4.1080	4.1081	0.8761	24.96	-0.12	0.050			
0.0709	4534.97	4.1070	4.1070	0.8761	24.96	-0.12	0.050			
0.0717	4591.32	4.1060	4.1059	0.8758	24.94	-0.14	0.050			
0.0726	4647.23	4.1050	4.1050	0.8762	24.94	-0.14	0.050			
0.0735	4703.14	4.1040	4.1040	0.8753	24.94	-0.14	0.050			
0.0744	4759.19	4.1030	4.1030	0.8753	24.94	-0.14	0.050			
0.0752	4815.25	4.1020	4.1020	0.8758	24.94	-0.14	0.050			
0.0761	4871.46	4.1010	4.1011	0.8753	24.95	-0.13	0.050			
0.0770	4927.16	4.1000	4.1001	0.8754	24.95	-0.13	0.050			
0.0779	4983.16	4.0990	4.0990	0.8750	24.94	-0.14	0.050			
0.0787	5039.24	4.0980	4.0981	0.8757	24.95	-0.13	0.050			
0.0796	5095.02	4.0970	4.0970	0.8757	24.96	-0.12	0.050			
0.0805	5151.24	4.0960	4.0959	0.8759	24.96	-0.12	0.050			
0.0814	5207.37	4.0950	4.0950	0.8745	24.95	-0.13	0.050			
0.0822	5263.47	4.0940	4.0939	0.8739	24.95	-0.13	0.050	0.376	0.438	
0.0831	5319.53	4.0930	4.0930	0.8737	24.96	-0.12	0.050			
0.0840	5375.30	4.0920	4.0920	0.8736	24.94	-0.14	0.050			
0.0849	5431.37	4.0910	4.0910	0.8733	24.96	-0.12	0.050			
0.0857	5487.16	4.0900	4.0901	0.8723	24.95	-0.13	0.050			
0.0866	5542.99	4.0890	4.0889	0.8727	24.96	-0.12	0.050			
0.0875	5598.95	4.0880	4.0880	0.8727	24.94	-0.14	0.050			
0.0884	5654.83	4.0870	4.0870	0.8739	24.95	-0.13	0.050			
0.0892	5710.60	4.0860	4.0860	0.8739	24.94	-0.14	0.050			
0.0901	5765.86	4.0850	4.0851	0.8732	24.96	-0.12	0.050			
0.0910	5821.86	4.0840	4.0839	0.8740	24.94	-0.14	0.050			
0.0918	5877.74	4.0830	4.0831	0.8745	24.94	-0.14	0.050			
0.0927	5933.52	4.0820	4.0820	0.8744	24.95	-0.13	0.050			
0.0936	5989.23	4.0810	4.0809	0.8749	24.94	-0.14	0.050			
0.0945	6045.11	4.0800	4.0800	0.8755	24.95	-0.13	0.050			
0.0953	6101.48	4.0790	4.0790	0.8765	24.95	-0.13	0.050			
0.0962	6157.60	4.0780	4.0781	0.8767	24.95	-0.13	0.050			
0.0971	6213.97	4.0770	4.0769	0.8777	24.95	-0.13	0.050			
0.0980	6270.44	4.0760	4.0759	0.8774	24.95	-0.13	0.050			
0.0989	6327.23	4.0750	4.0751	0.8779	24.96	-0.12	0.050			
0.0997	6383.52	4.0740	4.0740	0.8776	24.96	-0.12	0.050			
0.1006	6439.87	4.0730	4.0731	0.8765	24.96	-0.12	0.050			
0.1015	6495.58	4.0720	4.0719	0.8773	24.95	-0.13	0.050			
0.1024	6551.83	4.0710	4.0711	0.8766	24.96	-0.12	0.050	0.257	0.483	
0.1032	6607.77	4.0700	4.0700	0.8773	24.94	-0.14	0.050			
0.1041	6663.77	4.0690	4.0690	0.8769	24.94	-0.14	0.050			
0.1050	6719.90	4.0680	4.0680	0.8757	24.94	-0.14	0.050			
0.1059	6775.81	4.0670	4.0670	0.8754	24.94	-0.14	0.050			
0.1067	6831.78	4.0660	4.0659	0.8748	24.94	-0.14	0.050			
0.1076	6887.87	4.0650	4.0650	0.8746	24.95	-0.13	0.050			
0.1085	6943.81	4.0640	4.0639	0.8748	24.95	-0.13	0.050			
0.1094	6999.48	4.0630	4.0630	0.8756	24.94	-0.14	0.050			
0.1102	7055.49	4.0620	4.0621	0.8754	24.95	-0.13	0.050			
0.1111	7111.35	4.0610	4.0609	0.8750	24.95	-0.13	0.050			
0.1120	7167.72	4.0600	4.0600	0.8755	24.94	-0.14	0.050			
0.1129	7223.91	4.0590	4.0590	0.8750	24.94	-0.14	0.050			
0.1137	7279.73	4.0580	4.0580	0.8763	24.95	-0.13	0.050			
0.1146	7335.69	4.0570	4.0570	0.8767	24.96	-0.12	0.050			
0.1155	7391.79	4.0560	4.0560	0.8774	24.96	-0.12	0.050			
0.1164	7447.81	4.0550	4.0551	0.8783	24.95	-0.13	0.050			
0.1172	7503.98	4.0540	4.0540	0.8783	24.96	-0.12	0.050			
0.1181	7559.94	4.0530	4.0531	0.8797	24.95	-0.13	0.050			
0.1190	7615.82	4.0520	4.0520	0.8797	24.96	-0.12	0.050			
0.1199	7672.40	4.0510	4.0510	0.8810	24.96	-0.12	0.050			
0.1208	7728.78	4.0500	4.0499	0.8818	24.95	-0.13	0.050			
0.1216	7785.14	4.0490	4.0489	0.8831	24.94	-0.14	0.050			
0.1225	7842.05	4.0480	4.0479	0.8848	24.94	-0.14	0.050	0.307	0.393	
0.1234	7898.84	4.0470	4.0470	0.8852	24.95	-0.13	0.050			
0.1243	7955.70	4.0460	4.0460	0.8869	24.94	-0.14	0.050			
0.1252	8012.42	4.0450	4.0449	0.8873	24.94	-0.14	0.050			
0.1261	8069.52	4.0440	4.0440	0.8874	24.94	-0.14	0.050			
0.1270	8126.52	4.0430	4.0431	0.8870	24.94	-0.14	0.050			
0.1279	8183.49	4.0420	4.0419	0.8871	24.94	-0.14	0.050			
0.1288	8240.87	4.0410	4.0409	0.8869	24.94	-0.14	0.050			
0.1297	8297.85	4.0400	4.0399	0.8865	24.95	-0.13	0.050			
0.1305	8354.46	4.0390	4.0391	0.8854	24.95	-0.13	0.050			
0.1314	8410.92	4.0380	4.0380	0.8840	24.96	-0.12	0.050			
0.1323	8467.45	4.0370	4.0369	0.8830	24.95	-0.13	0.050			
0.1332	8524.05	4.0360	4.0361	0.8828	24.95	-0.13	0.050			
0.1341	8580.30	4.0350	4.0349	0.8827	24.94	-0.14	0.050			
0.1350	8636.82	4.0340	4.0340	0.8820	24.94	-0.14	0.050			
0.1358	8692.72	4.0330	4.0329	0.8816	24.96	-0.12	0.050			
0.1367	8749.12	4.0320	4.0319	0.8824	24.94	-0.14	0.050			
0.1376	8805.33	4.0310	4.0310	0.8830	24.94	-0.14	0.050			
0.1385	8861.51	4.0300	4.0300	0.8828	24.94	-0.14	0.050			
0.1393	8917.56	4.0290	4.0290	0.8839	24.94	-0.14	0.050			
0.1402	8974.07	4.0280	4.0279	0.8847	24.95	-0.13	0.050			
0.1411	9030.90	4.0270	4.0270	0.8863	24.95	-0.13	0.050			
0.1420	9087.34	4.0260	4.0260	0.8867	24.96	-0.12	0.050	0.305	0.392	
0.1429	9144.25	4.0250	4.0250	0.8887	24.96	-0.12	0.050			
0.1438	9201.33	4.0240	4.0240	0.8901	24.95	-0.13	0.050			
0.1447	9258.64	4.0230	4.0229	0.8911	24.96	-0.12	0.050			
0.1456	9315.41	4.0220	4.0220	0.8923	24.95	-0.13	0.050			
0.1465	9373.04	4.0210	4.0211	0.8938	24.94	-0.14	0.050			
0.1474	9430.57	4.0200	4.0199	0.8937	24.94	-0.14	0.050			
0.1482	9487.59	4.0190	4.0191	0.8951	24.94	-0.14	0.050			
0.1491	9545.20	4.0180	4.0179	0.8955	24.94	-0.14	0.050			
0.1500	9602.82	4.0170	4.0170	0.8957	24.94	-0.14	0.050			
0.1509	9660.06	4.0160	4.0161	0.8961	24.96	-0.12	0.050			
0.1518	9717.70	4.0150	4.0150	0.8960	24.96	-0.12	0.050			
0.1527	9774.97	4.0140	4.0140	0.8954	24.96	-0.12	0.050			
0.1536	9832.50	4.0130	4.0130	0.8949	24.95	-0.13	0.050			
0.1545	9889.43	4.0120	4.0121	0.8942	24.95	-0.13	0.050			
0.1554	9946.78	4.0110	4.0109	0.8950	24.95	-0.13	0.050			
0.1563	10003.73	4.0100	4.0099	0.8958	24.95	-0.13	0.050			
0.1572	10060.97	4.0090	4.0090	0.8956	24.95	-0.13	0.050			
0.1581	10118.53	4.0080	4.0080	0.8957	24.95	-0.13	0.050			
0.1590	10175.78	4.0070	4.0069	0.8959	24.96	-0.12	0.050			
0.1599	10232.86	4.0060	4.0061	0.8960	24.95	-0.13	0.050			
0.1608	10290.34	4.0050	4.0051	0.8962	24.96	-0.12	0.050			
0.1617	10347.01	4.0040	4.0040	0.8988	24.96	-0.12	0.050			
0.1626	10404.37	4.0030	4.0031	0.8998	24.95	-0.13	0.050			
0.1635	10462.00	4.0020	4.0019	0.8999	24.95	-0.13	0.050			
0.1644	10520.13	4.0010	4.0010	0.9001	24.95	-0.13	0.050			
0.1653	10578.06	4.0000	4.0000	0.9006	24.95	-0.13	0.050			
0.1662	10635.51	3.9990	3.9991	0.9002	24.94	-0.14	0.050			
0.1671	10693.56	3.9980	3.9980	0.9012	24.95	-0.13	0.050			
0.1680	10751.41	3.9970	3.9970	0.9017	24.96	-0.12	0.050			
0.1689	10809.09	3.9960	3.9960	0.9022	24.95	-0.13	0.050			
0.1698	10866.86	3.9950	3.9949	0.9036	24.96	-0.12	0.050			
0.1707	10925.01	3.9940	3.9941	0.9037	24.94	-0.14	0.050			
0.1716	10982.95	3.9930	3.9930	0.9027	24.94	-0.14	0.050			
0.1725	11040.41	3.9920	3.9921	0.9031	24.94	-0.14	0.050			
0.1734	11097.89	3.9910	3.9910	0.9032	24.94	-0.14	0.050			
0.1743	11155.61	3.9900	3.9900	0.9039	24.96	-0.12	0.050			
0.1752	11213.26	3.9890	3.9889	0.9045	24.95	-0.13	0.050			
0.1761	11271.19	3.9880	3.9880	0.9061	24.95	-0.13	0.050			
0.1770	11329.23	3.9870	3.9871	0.9069	24.95	-0.13	0.050			
0.1779	11386.83	3.9860	3.9860	0.9070	24.95	-0.13	0.050			
0.1788	11444.70	3.9850	3.9851	0.9083	24.94	-0.14	0.050			
0.1797	11502.68	3.9840	3.9840	0.9079	24.95	-0.13	0.050			
0.1806	11561.18	3.9830	3.9831	0.9098	24.94	-0.14	0.050			
0.1816	11620.02	3.9820	3.9819	0.9116	24.95	-0.13	0.050			
0.1825	11678.60	3.9810	3.9808	0.9132	24.94	-0.14	0.050	0.303	0.436	
0.1834	11737.44	3.9800	3.9800	0.9131	24.94	-0.14	0.050			
0.1843	11795.90	3.9790	3.9791	0.9126	24.94	-0.14	0.050			
0.1852	11854.06	3.9780	3.9780	0.9141	24.95	-0.13	0.050			
0.1861	11912.45	3.9770	3.9770	0.9149	24.95	-0.13	0.050			
0.1871	11971.32	3.9760	3.9761	0.9147	24.95	-0.13	0.050			
0.1880	12029.81	3.9750	3.9750	0.9156	24.95	-0.13	0.050			
0.1889	12088.46	3.9740	3.9740	0.9164	24.94	-0.14	0.050			
0.1898	12147.21	3.9730	3.9729	0.9176	24.94	-0.14	0.050			
0.1907	12205.38	3.9720	3.9721	0.9175	24.94	-0.14	0.050			
0.1916	12264.15	3.9710	3.9710	0.9179	24.94	-0.14	0.050			
0.1925	12322.98	3.9700	3.9700	0.9184	24.96	-0.12	0.050			
0.1935	12381.69	3.9690	3.9689	0.9189	24.95	-0.13	0.050			
0.1944	12440.41	3.9680	3.9680	0.9197	24.95	-0.13	0.050			
0.1953	12499.21	3.9670	3.9670	0.9211	24.95	-0.13	0.050			
0.1962	12558.18	3.9660	3.9660	0.9217	24.95	-0.13	0.050			
0.1972	12617.61	3.9650	3.9650	0.9226	24.95	-0.13	0.050			
0.1981	12676.70	3.9640	3.9641	0.9238	24.95	-0.13	0.050			
0.1990	12735.93	3.9630	3.9629	0.9247	24.96	-0.12	0.050			
0.1999	12795.12	3.9620	3.9621	0.9250	24.95	-0.13	0.050			
0.2008	12854.39	3.9610	3.9610	0.9260	24.94	-0.14	0.050			
0.2018	12913.99	3.9600	3.9600	0.9265	24.94	-0.14	0.050			
0.2027	12973.11	3.9590	3.9588	0.9270	24.96	-0.12	0.050	0.310	0.423	
0.2036	13032.14	3.9580	3.9581	0.9263	24.95	-0.13	0.050			
0.2046	13091.52	3.9570	3.9570	0.9263	24.94	-0.14	0.050			
0.2055	13151.06	3.9560	3.9560	0.9274	24.94	-0.14	0.050			
0.2064	13210.19	3.9550	3.9550	0.9279	24.95	-0.13	0.050			
0.2073	13269.66	3.9540	3.9540	0.9285	24.94	-0.14	0.050			
0.2083	13328.98	3.9530	3.9530	0.9291	24.95	-0.13	0.050			
0.2092	13388.47	3.9520	3.9520	0.9297	24.96	-0.12	0.050			
0.2101	13448.18	3.9510	3.9510	0.9312	24.94	-0.14	0.050			
0.2111	13507.75	3.9500	3.9499	0.9318	24.94	-0.14	0.050			
0.2120	13567.39	3.9490	3.9490	0.9315	24.95	-0.13	0.050			
0.2129	13627.02	3.9480	3.9479	0.9314	24.96	-0.12	0.050			
0.2138	13686.36	3.9470	3.9470	0.9331	24.95	-0.13	0.050			
0.2148	13745.98	3.9460	3.9459	0.9340	24.94	-0.14	0.050			
0.2157	13805.59	3.9450	3.9450	0.9366	24.95	-0.13	0.050			
0.2167	13865.62	3.9440	3.9441	0.9376	24.94	-0.14	0.050			
0.2176	13925.61	3.9430	3.9430	0.9385	24.94	-0.14	0.050			
0.2185	13985.67	3.9420	3.9420	0.9397	24.95	-0.13	0.050			
0.2195	14045.96	3.9410	3.9410	0.9409	24.95	-0.13	0.050			
0.2204	14106.37	3.9400	3.9400	0.9425	24.96	-0.12	0.050			
0.2214	14166.62	3.9390	3.9390	0.9435	24.95	-0.13	0.050			
0.2223	14227.23	3.9380	3.9381	0.9440	24.94	-0.14	0.050	0.363	0.428	
0.2232	14287.83	3.9370	3.9370	0.9458	24.96	-0.12	0.050			
0.2242	14348.45	3.9360	3.9360	0.9459	24.95	-0.13	0.050			
0.2251	14409.24	3.9350	3.9351	0.9462	24.96	-0.12	0.050			
0.2261	14469.93	3.9340	3.9340	0.9468	24.96	-0.12	0.050			
0.2270	14530.49	3.9330	3.9330	0.9482	24.96	-0.12	0.050			
0.2280	14591.40	3.9320	3.9320	0.9493	24.95	-0.13	0.050			
0.2289	14652.16	3.9310	3.9309	0.9497	24.95	-0.13	0.050			
0.2299	14712.98	3.9300	3.9301	0.9506	24.95	-0.13	0.050			
0.2308	14774.05	3.9290	3.9289	0.9507	24.94	-0.14	0.050			
0.2318	14834.72	3.9280	3.9280	0.9516	24.94	-0.14	0.050			
0.2327	14894.80	3.9270	3.9270	0.9517	24.94	-0.14	0.050			
0.2337	14955.65	3.9260	3.9261	0.9526	24.94	-0.14	0.050			
0.2346	15016.50	3.9250	3.9248	0.9540	24.96	-0.12	0.050			
0.2356	15077.66	3.9240	3.9240	0.9562	24.95	-0.13	0.050			
0.2365	15139.04	3.9230	3.9230	0.9572	24.96	-0.12	0.050			
0.2375	15200.51	3.9220	3.9221	0.9582	24.96	-0.12	0.050			
0.2385	15261.70	3.9210	3.9210	0.9596	24.94	-0.14	0.050			
0.2394	15323.32	3.9200	3.9200	0.9604	24.96	-0.12	0.050			
0.2404	15385.00	3.9190	3.9190	0.9610	24.96	-0.12	0.050			
0.2414	15446.51	3.9180	3.9181	0.9626	24.96	-0.12	0.050			
0.2423	15508.19	3.9170	3.9169	0.9635	24.96	-0.12	0.050	0.284	0.464	
0.2433	15570.19	3.9160	3.9160	0.9653	24.96	-0.12	0.050			
0.2443	15632.06	3.9150	3.9150	0.9657	24.96	-0.12	0.050			
0.2452	15693.88	3.9140	3.9140	0.9666	24.95	-0.13	0.050			
0.2462	15755.40	3.9130	3.9131	0.9674	24.96	-0.12	0.050			
0.2472	15817.66	3.9120	3.9119	0.9682	24.96	-0.12	0.050			
0.2481	15879.72	3.9110	3.9111	0.9694	24.96	-0.12	0.050			
0.2491	15941.78	3.9100	3.9099	0.9693	24.96	-0.12	0.050			
0.2501	16003.96	3.9090	3.9090	0.9701	24.96	-0.12	0.050			
0.2510	16065.59	3.9080	3.9080	0.9703	24.96	-0.12	0.050			
0.2520	16127.63	3.9070	3.9071	0.9716	24.95	-0.13	0.050			
0.2530	16190.19	3.9060	3.9059	0.9719	24.95	-0.13	0.050			
0.2539	16252.38	3.9050	3.9050	0.9721	24.94	-0.14	0.050			
0.2549	16314.72	3.9040	3.9041	0.9734	24.96	-0.12	0.050			
0.2559	16377.09	3.9030	3.9031	0.9744	24.96	-0.12	0.050			
0.2569	16439.70	3.9020	3.9019	0.9747	24.96	-0.12	0.050			
0.2578	16501.46	3.9010	3.9010	0.9762	24.96	-0.12	0.050			
0.2588	16563.72	3.9000	3.9000	0.9779	24.96	-0.12	0.050			
0.2598	16626.48	3.8990	3.8991	0.9787	24.95	-0.13	0.050			
0.2608	16688.92	3.8980	3.8980	0.9791	24.96	-0.12	0.050			
0.2617	16751.64	3.8970	3.8970	0.9810	24.95	-0.13	0.050			
0.2627	16814.47	3.8960	3.8959	0.9819	24.95	-0.13	0.050	-0.028	0.396	
0.2637	16877.36	3.8950	3.8950	0.9828	24.95	-0.13	0.050			
0.2647	16940.41	3.8940	3.8939	0.9834	24.96	-0.12	0.050			
0.2657	17003.46	3.8930	3.8930	0.9843	24.96	-0.12	0.050			
0.2667	17066.90	3.8920	3.8919	0.9856	24.95	-0.13	0.050			
0.2677	17130.07	3.8910	3.8910	0.9858	24.96	-0.12	0.050			
0.2686	17193.55	3.8900	3.8902	0.9860	24.94	-0.14	0.050			
0.2696	17256.73	3.8890	3.8889	0.9860	24.96	-0.12	0.050			
0.2706	17320.29	3.8880	3.8880	0.9858	24.96	-0.12	0.050			
0.2716	17383.56	3.8870	3.8870	0.9855	24.95	-0.13	0.050			
0.2726	17447.23	3.8860	3.8860	0.9851	24.95	-0.13	0.050			
0.2736	17510.13	3.8850	3.8850	0.9839	24.96	-0.12	0.050			
0.2746	17572.96	3.8840	3.8840	0.9823	24.96	-0.12	0.050			
0.2756	17635.71	3.8830	3.8830	0.9804	24.96	-0.12	0.050			
0.2765	17698.27	3.8820	3.8820	0.9802	24.96	-0.12	0.050			
0.2775	17760.82	3.8810	3.8811	0.9765	24.96	-0.12	0.050			
0.2785	17823.48	3.8800	3.8800	0.9746	24.96	-0.12	0.050			
0.2795	17886.39	3.8790	3.8790	0.9739	24.96	-0.12	0.050			
0.2804	17948.75	3.8780	3.8779	0.9705	24.96	-0.12	0.050			
0.2814	18011.01	3.8770	3.8770	0.9674	24.96	-0.12	0.050			
0.2824	18072.92	3.8760	3.8760	0.9646	24.97	-0.11	0.050	0.117	0.446	
0.2834	18135.06	3.8750	3.8749	0.9611	24.98	-0.10	0.050			
0.2843	18196.59	3.8740	3.8741	0.9579	24.98	-0.10	0.050			
0.2853	18257.78	3.8730	3.8729	0.9544	24.97	-0.11	0.050			
0.2862	18318.73	3.8720	3.8723	0.9512	24.97	-0.11	0.050			
0.2872	18380.05	3.8710	3.8709	0.9473	24.97	-0.11	0.050			
0.2881	18440.59	3.8700	3.8700	0.9425	24.97	-0.11	0.050			
0.2891	18500.87	3.8690	3.8690	0.9387	24.98	-0.10	0.050			
0.2900	18560.94	3.8680	3.8680	0.9335	24.98	-0.10	0.050			
0.2909	18620.41	3.8670	3.8669	0.9289	24.98	-0.10	0.050			
0.2919	18679.86	3.8660	3.8661	0.9247	24.98	-0.10	0.050			
0.2928	18738.69	3.8650	3.8649	0.9186	24.98	-0.10	0.050			
0.2937	18797.74	3.8640	3.8641	0.9116	24.98	-0.10	0.050			
0.2946	18856.17	3.8630	3.8630	0.9067	24.99	-0.09	0.050			
0.2955	18914.28	3.8620	3.8621	0.8986	24.98	-0.10	0.050			
0.2964	18972.40	3.8610	3.8610	0.8942	24.98	-0.10	0.050			
0.2973	19029.54	3.8600	3.8601	0.8864	25.00	-0.08	0.050			
0.2982	19086.52	3.8590	3.8591	0.8787	25.00	-0.08	0.050			
0.2991	19142.75	3.8580	3.8580	0.8711	25.00	-0.08	0.050			
