Ah_balance (normalized)	Ah_balance (mAh)	Voltage - fit (V)	Voltage -  interpolate (V)	dQ/dV (1/V)	Temperature (°C)	Temperature - diff (°C)	Current (C)	R_DC 0ms (mOhm)	R_DC 50ms (mOhm)	R_DC 50 ms PEC (mOhm)
0.0002	10.22	4.1740	4.1738	-0.1794	24.77	0.00	-0.050			
0.0004	22.79	4.1730	4.1727	-0.2084	24.77	-0.00	-0.050			
0.0006	36.65	4.1720	4.1717	-0.2248	24.76	-0.01	-0.050			
0.0008	52.30	4.1710	4.1707	-0.2441	24.76	-0.01	-0.050			
0.0011	68.39	4.1700	4.1698	-0.2588	24.75	-0.02	-0.050			
0.0014	86.51	4.1690	4.1687	-0.2743	24.75	-0.02	-0.050			
0.0016	104.49	4.1680	4.1679	-0.2873	24.74	-0.03	-0.050			
0.0019	124.06	4.1670	4.1669	-0.2994	24.74	-0.03	-0.050			
0.0023	144.32	4.1660	4.1660	-0.3102	24.74	-0.03	-0.050			
0.0026	164.52	4.1650	4.1650	-0.3212	24.73	-0.04	-0.050			
0.0029	186.08	4.1640	4.1641	-0.3302	24.73	-0.04	-0.050			
0.0033	208.24	4.1630	4.1631	-0.3381	24.72	-0.05	-0.050			
0.0036	230.18	4.1620	4.1620	-0.3475	24.72	-0.05	-0.050			
0.0040	255.67	4.1610	4.1610	-0.3590	24.72	-0.05	-0.050			
0.0044	279.18	4.1600	4.1600	-0.3642	24.71	-0.06	-0.050			
0.0047	302.67	4.1590	4.1591	-0.3698	24.70	-0.07	-0.050			
0.0051	327.26	4.1580	4.1579	-0.3763	24.69	-0.08	-0.050			
0.0055	351.63	4.1570	4.1570	-0.3807	24.69	-0.08	-0.050			
0.0059	376.40	4.1560	4.1560	-0.3859	24.68	-0.09	-0.050			
0.0063	401.39	4.1550	4.1550	-0.3897	24.68	-0.09	-0.050			
0.0067	426.74	4.1540	4.1541	-0.3944	24.67	-0.10	-0.050			
0.0071	452.26	4.1530	4.1530	-0.3987	24.66	-0.11	-0.050			
0.0075	478.07	4.1520	4.1520	-0.4018	24.65	-0.12	-0.050			
0.0079	503.99	4.1510	4.1510	-0.4063	24.65	-0.12	-0.050			
0.0083	530.10	4.1500	4.1500	-0.4098	24.64	-0.13	-0.050			
0.0087	556.46	4.1490	4.1490	-0.4132	24.63	-0.14	-0.050			
0.0091	583.10	4.1480	4.1480	-0.4164	24.63	-0.14	-0.050			
0.0095	609.89	4.1470	4.1470	-0.4200	24.63	-0.14	-0.050			
0.0099	636.77	4.1460	4.1460	-0.4231	24.62	-0.15	-0.050			
0.0104	663.92	4.1450	4.1450	-0.4267	24.62	-0.15	-0.050			
0.0108	691.30	4.1440	4.1439	-0.4301	24.61	-0.16	-0.050			
0.0112	719.04	4.1430	4.1430	-0.4334	24.61	-0.16	-0.050			
0.0117	746.89	4.1420	4.1421	-0.4369	24.60	-0.17	-0.050			
0.0121	775.19	4.1410	4.1409	-0.4400	24.59	-0.18	-0.050			
0.0126	803.63	4.1400	4.1400	-0.4431	24.59	-0.18	-0.050			
0.0130	832.09	4.1390	4.1389	-0.4460	24.59	-0.18	-0.050			
0.0135	860.84	4.1380	4.1380	-0.4485	24.59	-0.18	-0.050			
0.0139	889.59	4.1370	4.1369	-0.4512	24.58	-0.19	-0.050			
0.0144	918.67	4.1360	4.1360	-0.4535	24.57	-0.20	-0.050			
0.0148	947.85	4.1350	4.1351	-0.4568	24.56	-0.21	-0.050			
0.0153	977.28	4.1340	4.1340	-0.4596	24.55	-0.22	-0.050			
0.0157	1006.73	4.1330	4.1330	-0.4622	24.54	-0.23	-0.050			
0.0162	1036.37	4.1320	4.1320	-0.4648	24.54	-0.23	-0.050			
0.0167	1066.44	4.1310	4.1310	-0.4672	24.53	-0.24	-0.050			
0.0171	1096.41	4.1300	4.1300	-0.4694	24.53	-0.24	-0.050			
0.0176	1126.48	4.1290	4.1289	-0.4710	24.53	-0.24	-0.050			
0.0181	1156.77	4.1280	4.1280	-0.4738	24.52	-0.25	-0.050			
0.0186	1187.30	4.1270	4.1269	-0.4757	24.51	-0.26	-0.050			
0.0190	1217.89	4.1260	4.1260	-0.4774	24.51	-0.26	-0.050			
0.0195	1248.43	4.1250	4.1250	-0.4792	24.50	-0.27	-0.050			
0.0200	1279.03	4.1240	4.1240	-0.4817	24.49	-0.28	-0.050	0.569	0.808	
0.0205	1310.04	4.1230	4.1230	-0.4838	24.48	-0.29	-0.050			
0.0210	1341.06	4.1220	4.1221	-0.4858	24.48	-0.29	-0.050			
0.0214	1372.34	4.1210	4.1210	-0.4879	24.48	-0.29	-0.050			
0.0219	1403.72	4.1200	4.1199	-0.4900	24.48	-0.29	-0.050			
0.0224	1435.09	4.1190	4.1190	-0.4919	24.48	-0.29	-0.050			
0.0229	1466.60	4.1180	4.1180	-0.4939	24.48	-0.29	-0.050			
0.0234	1498.41	4.1170	4.1170	-0.4953	24.47	-0.30	-0.050			
0.0239	1530.02	4.1160	4.1159	-0.4971	24.47	-0.30	-0.050			
0.0244	1561.79	4.1150	4.1150	-0.4992	24.47	-0.30	-0.050			
0.0249	1593.80	4.1140	4.1141	-0.5012	24.48	-0.29	-0.050			
0.0254	1625.92	4.1130	4.1131	-0.5023	24.48	-0.29	-0.050			
0.0259	1658.29	4.1120	4.1120	-0.5041	24.47	-0.30	-0.050			
0.0264	1690.71	4.1110	4.1110	-0.5060	24.47	-0.30	-0.050			
0.0269	1723.15	4.1100	4.1099	-0.5077	24.47	-0.30	-0.050			
0.0274	1755.84	4.1090	4.1089	-0.5096	24.46	-0.31	-0.050			
0.0279	1788.51	4.1080	4.1081	-0.5111	24.46	-0.31	-0.050			
0.0285	1821.11	4.1070	4.1071	-0.5128	24.46	-0.31	-0.050			
0.0290	1853.97	4.1060	4.1060	-0.5153	24.46	-0.31	-0.050			
0.0295	1886.95	4.1050	4.1050	-0.5173	24.45	-0.32	-0.050			
0.0300	1920.15	4.1040	4.1040	-0.5184	24.45	-0.32	-0.050			
0.0305	1953.25	4.1030	4.1030	-0.5198	24.45	-0.32	-0.050			
0.0310	1986.72	4.1020	4.1019	-0.5219	24.45	-0.32	-0.050			
0.0316	2020.13	4.1010	4.1011	-0.5235	24.45	-0.32	-0.050			
0.0321	2053.71	4.1000	4.1000	-0.5253	24.45	-0.32	-0.050			
0.0326	2087.40	4.0990	4.0989	-0.5270	24.44	-0.33	-0.050			
0.0331	2121.25	4.0980	4.0979	-0.5283	24.44	-0.33	-0.050			
0.0337	2155.20	4.0970	4.0970	-0.5300	24.43	-0.34	-0.050			
0.0342	2189.25	4.0960	4.0960	-0.5318	24.43	-0.34	-0.050			
0.0347	2223.10	4.0950	4.0951	-0.5333	24.43	-0.34	-0.050			
0.0353	2257.32	4.0940	4.0941	-0.5350	24.43	-0.34	-0.050			
0.0358	2291.67	4.0930	4.0930	-0.5368	24.44	-0.33	-0.050			
0.0363	2326.39	4.0920	4.0920	-0.5385	24.44	-0.33	-0.050			
0.0369	2360.85	4.0910	4.0910	-0.5398	24.44	-0.33	-0.050			
0.0374	2395.34	4.0900	4.0900	-0.5412	24.45	-0.32	-0.050			
0.0380	2430.01	4.0890	4.0889	-0.5426	24.45	-0.32	-0.050			
0.0385	2464.68	4.0880	4.0881	-0.5444	24.43	-0.34	-0.050			
0.0391	2499.55	4.0870	4.0869	-0.5457	24.44	-0.33	-0.050			
0.0396	2534.44	4.0860	4.0860	-0.5470	24.44	-0.33	-0.050			
0.0401	2569.47	4.0850	4.0851	-0.5486	24.43	-0.34	-0.050	0.381	0.753	
0.0407	2604.75	4.0840	4.0840	-0.5506	24.43	-0.34	-0.050			
0.0413	2640.30	4.0830	4.0830	-0.5520	24.43	-0.34	-0.050			
0.0418	2675.51	4.0820	4.0820	-0.5534	24.42	-0.35	-0.050			
0.0424	2710.91	4.0810	4.0811	-0.5552	24.41	-0.36	-0.050			
0.0429	2746.64	4.0800	4.0800	-0.5563	24.40	-0.37	-0.050			
0.0435	2782.40	4.0790	4.0790	-0.5574	24.42	-0.35	-0.050			
0.0440	2818.07	4.0780	4.0780	-0.5591	24.42	-0.35	-0.050			
0.0446	2854.04	4.0770	4.0771	-0.5603	24.42	-0.35	-0.050			
0.0452	2889.86	4.0760	4.0760	-0.5615	24.42	-0.35	-0.050			
0.0457	2925.76	4.0750	4.0749	-0.5626	24.42	-0.35	-0.050			
0.0463	2961.78	4.0740	4.0740	-0.5639	24.42	-0.35	-0.050			
0.0468	2997.91	4.0730	4.0730	-0.5652	24.41	-0.36	-0.050			
0.0474	3034.28	4.0720	4.0720	-0.5668	24.40	-0.37	-0.050			
0.0480	3070.60	4.0710	4.0710	-0.5682	24.40	-0.37	-0.050			
0.0485	3106.84	4.0700	4.0700	-0.5694	24.40	-0.37	-0.050			
0.0491	3143.30	4.0690	4.0690	-0.5706	24.40	-0.37	-0.050			
0.0497	3179.86	4.0680	4.0680	-0.5720	24.40	-0.37	-0.050			
0.0503	3216.51	4.0670	4.0671	-0.5729	24.40	-0.37	-0.050			
0.0508	3253.31	4.0660	4.0660	-0.5746	24.40	-0.37	-0.050			
0.0514	3290.14	4.0650	4.0649	-0.5759	24.40	-0.37	-0.050			
0.0520	3326.98	4.0640	4.0639	-0.5773	24.40	-0.37	-0.050			
0.0526	3364.01	4.0630	4.0630	-0.5784	24.41	-0.36	-0.050			
0.0531	3401.07	4.0620	4.0619	-0.5800	24.42	-0.35	-0.050			
0.0537	3438.19	4.0610	4.0610	-0.5808	24.43	-0.34	-0.050			
0.0543	3475.52	4.0600	4.0600	-0.5821	24.43	-0.34	-0.050			
0.0549	3513.01	4.0590	4.0589	-0.5837	24.43	-0.34	-0.050			
0.0555	3550.48	4.0580	4.0580	-0.5842	24.43	-0.34	-0.050			
0.0561	3587.85	4.0570	4.0570	-0.5850	24.43	-0.34	-0.050			
0.0566	3625.48	4.0560	4.0560	-0.5862	24.43	-0.34	-0.050			
0.0572	3662.97	4.0550	4.0550	-0.5869	24.43	-0.34	-0.050			
0.0578	3700.51	4.0540	4.0540	-0.5880	24.42	-0.35	-0.050			
0.0584	3738.12	4.0530	4.0531	-0.5891	24.41	-0.36	-0.050			
0.0590	3775.82	4.0520	4.0520	-0.5902	24.40	-0.37	-0.050			
0.0596	3813.59	4.0510	4.0510	-0.5913	24.40	-0.37	-0.050			
0.0602	3851.50	4.0500	4.0500	-0.5919	24.40	-0.37	-0.050	0.596	0.833	
0.0608	3889.37	4.0490	4.0489	-0.5930	24.39	-0.38	-0.050			
0.0614	3927.47	4.0480	4.0480	-0.5939	24.38	-0.39	-0.050			
0.0620	3965.44	4.0470	4.0470	-0.5950	24.38	-0.39	-0.050			
0.0626	4003.56	4.0460	4.0459	-0.5959	24.38	-0.39	-0.050			
0.0632	4041.62	4.0450	4.0450	-0.5967	24.38	-0.39	-0.050			
0.0637	4079.79	4.0440	4.0440	-0.5980	24.38	-0.39	-0.050			
0.0643	4118.09	4.0430	4.0430	-0.5989	24.36	-0.41	-0.050			
0.0649	4156.57	4.0420	4.0420	-0.5999	24.37	-0.40	-0.050			
0.0655	4194.99	4.0410	4.0410	-0.6008	24.37	-0.40	-0.050			
0.0662	4233.61	4.0400	4.0400	-0.6021	24.36	-0.41	-0.050			
0.0668	4272.22	4.0390	4.0390	-0.6028	24.36	-0.41	-0.050			
0.0674	4310.95	4.0380	4.0379	-0.6035	24.36	-0.41	-0.050			
0.0680	4349.40	4.0370	4.0370	-0.6049	24.35	-0.42	-0.050			
0.0686	4388.05	4.0360	4.0360	-0.6064	24.34	-0.43	-0.050			
0.0692	4426.86	4.0350	4.0350	-0.6069	24.34	-0.43	-0.050			
0.0698	4465.73	4.0340	4.0340	-0.6076	24.34	-0.43	-0.050			
0.0704	4504.69	4.0330	4.0330	-0.6081	24.34	-0.43	-0.050			
0.0710	4543.62	4.0320	4.0320	-0.6093	24.34	-0.43	-0.050			
0.0716	4582.65	4.0310	4.0310	-0.6104	24.33	-0.44	-0.050			
0.0722	4621.81	4.0300	4.0300	-0.6114	24.33	-0.44	-0.050			
0.0728	4661.08	4.0290	4.0290	-0.6123	24.32	-0.45	-0.050			
0.0734	4700.00	4.0280	4.0280	-0.6137	24.32	-0.45	-0.050			
0.0741	4739.27	4.0270	4.0270	-0.6151	24.31	-0.46	-0.050			
0.0747	4778.57	4.0260	4.0261	-0.6160	24.31	-0.46	-0.050			
0.0753	4818.27	4.0250	4.0252	-0.6167	24.30	-0.47	-0.050			
0.0759	4857.80	4.0240	4.0240	-0.6175	24.31	-0.46	-0.050			
0.0765	4897.24	4.0230	4.0231	-0.6190	24.33	-0.44	-0.050			
0.0771	4936.92	4.0220	4.0219	-0.6205	24.34	-0.43	-0.050			
0.0778	4976.55	4.0210	4.0211	-0.6221	24.34	-0.43	-0.050			
0.0784	5016.38	4.0200	4.0200	-0.6232	24.34	-0.43	-0.050			
0.0790	5056.29	4.0190	4.0190	-0.6245	24.34	-0.43	-0.050			
0.0796	5096.36	4.0180	4.0179	-0.6255	24.33	-0.44	-0.050			
0.0803	5136.30	4.0170	4.0170	-0.6267	24.32	-0.45	-0.050	0.515	0.722	
0.0809	5176.40	4.0160	4.0161	-0.6272	24.33	-0.44	-0.050			
0.0815	5216.96	4.0150	4.0151	-0.6282	24.33	-0.44	-0.050			
0.0821	5257.41	4.0140	4.0140	-0.6299	24.32	-0.45	-0.050			
0.0828	5297.85	4.0130	4.0130	-0.6305	24.32	-0.45	-0.050			
0.0834	5338.28	4.0120	4.0121	-0.6313	24.33	-0.44	-0.050			
0.0840	5378.69	4.0110	4.0111	-0.6316	24.34	-0.43	-0.050			
0.0847	5419.21	4.0100	4.0100	-0.6323	24.33	-0.44	-0.050			
0.0853	5459.80	4.0090	4.0090	-0.6326	24.33	-0.44	-0.050			
0.0859	5500.27	4.0080	4.0081	-0.6330	24.33	-0.44	-0.050			
0.0866	5540.54	4.0070	4.0070	-0.6334	24.32	-0.45	-0.050			
0.0872	5581.27	4.0060	4.0061	-0.6347	24.33	-0.44	-0.050			
0.0878	5621.86	4.0050	4.0050	-0.6359	24.34	-0.43	-0.050			
0.0885	5662.62	4.0040	4.0040	-0.6367	24.32	-0.45	-0.050			
0.0891	5703.00	4.0030	4.0031	-0.6371	24.32	-0.45	-0.050			
0.0897	5743.54	4.0020	4.0020	-0.6377	24.32	-0.45	-0.050			
0.0904	5784.30	4.0010	4.0010	-0.6391	24.32	-0.45	-0.050			
0.0910	5825.00	4.0000	4.0001	-0.6407	24.32	-0.45	-0.050			
0.0917	5866.22	3.9990	3.9990	-0.6420	24.32	-0.45	-0.050			
0.0923	5907.35	3.9980	3.9980	-0.6432	24.32	-0.45	-0.050			
0.0929	5948.71	3.9970	3.9970	-0.6443	24.32	-0.45	-0.050			
0.0936	5990.23	3.9960	3.9960	-0.6447	24.32	-0.45	-0.050			
0.0942	6031.74	3.9950	3.9950	-0.6462	24.32	-0.45	-0.050			
0.0949	6073.16	3.9940	3.9940	-0.6475	24.33	-0.44	-0.050			
0.0955	6114.60	3.9930	3.9931	-0.6479	24.34	-0.43	-0.050			
0.0962	6156.13	3.9920	3.9920	-0.6495	24.33	-0.44	-0.050			
0.0968	6197.82	3.9910	3.9910	-0.6501	24.32	-0.45	-0.050			
0.0975	6239.48	3.9900	3.9900	-0.6514	24.32	-0.45	-0.050			
0.0981	6281.23	3.9890	3.9890	-0.6520	24.32	-0.45	-0.050			
0.0988	6322.99	3.9880	3.9880	-0.6529	24.32	-0.45	-0.050			
0.0994	6364.69	3.9870	3.9869	-0.6533	24.31	-0.46	-0.050			
0.1001	6406.42	3.9860	3.9859	-0.6538	24.30	-0.47	-0.050	0.534	0.777	
0.1008	6448.36	3.9850	3.9849	-0.6544	24.29	-0.48	-0.050			
0.1014	6490.30	3.9840	3.9840	-0.6546	24.28	-0.49	-0.050			
0.1021	6532.31	3.9830	3.9830	-0.6552	24.27	-0.50	-0.050			
0.1027	6573.91	3.9820	3.9820	-0.6565	24.28	-0.49	-0.050			
0.1034	6615.98	3.9810	3.9811	-0.6574	24.28	-0.49	-0.050			
0.1040	6658.01	3.9800	3.9800	-0.6583	24.29	-0.48	-0.050			
0.1047	6700.19	3.9790	3.9791	-0.6593	24.30	-0.47	-0.050			
0.1054	6742.62	3.9780	3.9780	-0.6606	24.30	-0.47	-0.050			
0.1060	6784.85	3.9770	3.9770	-0.6616	24.32	-0.45	-0.050			
0.1067	6827.19	3.9760	3.9760	-0.6626	24.32	-0.45	-0.050			
0.1073	6869.68	3.9750	3.9750	-0.6634	24.33	-0.44	-0.050			
0.1080	6911.90	3.9740	3.9739	-0.6644	24.34	-0.43	-0.050			
0.1087	6954.43	3.9730	3.9729	-0.6660	24.36	-0.41	-0.050			
0.1093	6997.10	3.9720	3.9721	-0.6670	24.37	-0.40	-0.050			
0.1100	7039.67	3.9710	3.9710	-0.6682	24.37	-0.40	-0.050			
0.1107	7082.66	3.9700	3.9700	-0.6696	24.37	-0.40	-0.050			
0.1113	7125.47	3.9690	3.9690	-0.6707	24.37	-0.40	-0.050			
0.1120	7168.61	3.9680	3.9680	-0.6720	24.37	-0.40	-0.050			
0.1127	7211.49	3.9670	3.9670	-0.6737	24.38	-0.39	-0.050			
0.1134	7254.75	3.9660	3.9660	-0.6750	24.37	-0.40	-0.050			
0.1140	7298.29	3.9650	3.9650	-0.6756	24.37	-0.40	-0.050			
0.1147	7341.75	3.9640	3.9640	-0.6764	24.38	-0.39	-0.050			
0.1154	7385.17	3.9630	3.9630	-0.6769	24.38	-0.39	-0.050			
0.1161	7428.40	3.9620	3.9620	-0.6773	24.37	-0.40	-0.050			
0.1167	7471.75	3.9610	3.9610	-0.6774	24.38	-0.39	-0.050			
0.1174	7515.41	3.9600	3.9600	-0.6786	24.38	-0.39	-0.050			
0.1181	7558.81	3.9590	3.9590	-0.6796	24.38	-0.39	-0.050			
0.1188	7602.51	3.9580	3.9580	-0.6803	24.37	-0.40	-0.050			
0.1195	7645.93	3.9570	3.9570	-0.6806	24.38	-0.39	-0.050			
0.1201	7689.35	3.9560	3.9560	-0.6812	24.38	-0.39	-0.050	0.385	0.734	
0.1208	7732.89	3.9550	3.9550	-0.6820	24.39	-0.38	-0.050			
0.1215	7776.54	3.9540	3.9540	-0.6825	24.40	-0.37	-0.050			
0.1222	7820.07	3.9530	3.9531	-0.6827	24.40	-0.37	-0.050			
0.1229	7863.90	3.9520	3.9520	-0.6834	24.40	-0.37	-0.050			
0.1236	7907.72	3.9510	3.9510	-0.6842	24.41	-0.36	-0.050			
0.1242	7951.41	3.9500	3.9500	-0.6848	24.42	-0.35	-0.050			
0.1249	7995.35	3.9490	3.9490	-0.6854	24.44	-0.33	-0.050			
0.1256	8039.13	3.9480	3.9480	-0.6861	24.45	-0.32	-0.050			
0.1263	8082.75	3.9470	3.9470	-0.6872	24.46	-0.31	-0.050			
0.1270	8126.69	3.9460	3.9461	-0.6884	24.48	-0.29	-0.050			
0.1277	8171.08	3.9450	3.9450	-0.6902	24.49	-0.28	-0.050			
0.1284	8215.50	3.9440	3.9440	-0.6912	24.49	-0.28	-0.050			
0.1291	8259.69	3.9430	3.9430	-0.6916	24.50	-0.27	-0.050			
0.1298	8304.16	3.9420	3.9420	-0.6917	24.50	-0.27	-0.050			
0.1304	8348.45	3.9410	3.9410	-0.6921	24.50	-0.27	-0.050			
0.1311	8392.73	3.9400	3.9400	-0.6931	24.52	-0.25	-0.050			
0.1318	8436.99	3.9390	3.9389	-0.6936	24.50	-0.27	-0.050			
0.1325	8481.32	3.9380	3.9380	-0.6944	24.50	-0.27	-0.050			
0.1332	8525.99	3.9370	3.9370	-0.6951	24.50	-0.27	-0.050			
0.1339	8570.41	3.9360	3.9360	-0.6957	24.49	-0.28	-0.050			
0.1346	8615.02	3.9350	3.9351	-0.6966	24.48	-0.29	-0.050			
0.1353	8659.62	3.9340	3.9341	-0.6973	24.48	-0.29	-0.050			
0.1360	8704.22	3.9330	3.9330	-0.6986	24.48	-0.29	-0.050			
0.1367	8749.01	3.9320	3.9319	-0.6990	24.47	-0.30	-0.050			
0.1374	8793.87	3.9310	3.9310	-0.6995	24.47	-0.30	-0.050			
0.1381	8838.56	3.9300	3.9300	-0.7001	24.46	-0.31	-0.050			
0.1388	8883.37	3.9290	3.9290	-0.7004	24.45	-0.32	-0.050			
0.1395	8928.28	3.9280	3.9280	-0.7008	24.45	-0.32	-0.050			
0.1402	8972.90	3.9270	3.9270	-0.7011	24.45	-0.32	-0.050	0.516	0.726	
0.1409	9017.75	3.9260	3.9260	-0.7020	24.45	-0.32	-0.050			
0.1416	9062.89	3.9250	3.9251	-0.7029	24.44	-0.33	-0.050			
0.1423	9108.16	3.9240	3.9240	-0.7035	24.43	-0.34	-0.050			
0.1430	9153.46	3.9230	3.9231	-0.7034	24.43	-0.34	-0.050			
0.1437	9198.55	3.9220	3.9220	-0.7035	24.42	-0.35	-0.050			
0.1444	9243.51	3.9210	3.9210	-0.7042	24.42	-0.35	-0.050			
0.1451	9288.37	3.9200	3.9199	-0.7041	24.43	-0.34	-0.050			
0.1458	9333.38	3.9190	3.9191	-0.7041	24.43	-0.34	-0.050			
0.1465	9378.73	3.9180	3.9180	-0.7040	24.43	-0.34	-0.050			
0.1472	9423.71	3.9170	3.9170	-0.7040	24.42	-0.35	-0.050			
0.1479	9468.79	3.9160	3.9160	-0.7046	24.41	-0.36	-0.050			
0.1486	9513.60	3.9150	3.9150	-0.7049	24.40	-0.37	-0.050			
0.1494	9558.66	3.9140	3.9140	-0.7053	24.41	-0.36	-0.050			
0.1501	9603.82	3.9130	3.9129	-0.7053	24.40	-0.37	-0.050			
0.1508	9648.86	3.9120	3.9120	-0.7058	24.40	-0.37	-0.050			
0.1515	9694.00	3.9110	3.9110	-0.7065	24.40	-0.37	-0.050			
0.1522	9739.31	3.9100	3.9101	-0.7075	24.40	-0.37	-0.050			
0.1529	9784.56	3.9090	3.9091	-0.7072	24.40	-0.37	-0.050			
0.1536	9829.85	3.9080	3.9078	-0.7081	24.40	-0.37	-0.050			
0.1543	9874.99	3.9070	3.9069	-0.7091	24.40	-0.37	-0.050			
0.1550	9920.42	3.9060	3.9060	-0.7094	24.40	-0.37	-0.050			
0.1557	9965.96	3.9050	3.9050	-0.7101	24.39	-0.38	-0.050			
0.1564	10011.69	3.9040	3.9040	-0.7107	24.38	-0.39	-0.050			
0.1571	10057.32	3.9030	3.9030	-0.7111	24.37	-0.40	-0.050			
0.1579	10102.70	3.9020	3.9020	-0.7113	24.36	-0.41	-0.050			
0.1586	10148.31	3.9010	3.9010	-0.7115	24.36	-0.41	-0.050			
0.1593	10193.93	3.9000	3.9000	-0.7112	24.36	-0.41	-0.050			
0.1600	10239.48	3.8990	3.8990	-0.7123	24.35	-0.42	-0.050	0.506	0.825	
0.1607	10285.26	3.8980	3.8980	-0.7125	24.35	-0.42	-0.050			
0.1614	10330.88	3.8970	3.8970	-0.7129	24.35	-0.42	-0.050			
0.1621	10376.32	3.8960	3.8961	-0.7126	24.34	-0.43	-0.050			
0.1628	10421.84	3.8950	3.8951	-0.7128	24.34	-0.43	-0.050			
0.1636	10467.47	3.8940	3.8940	-0.7133	24.34	-0.43	-0.050			
0.1643	10513.16	3.8930	3.8930	-0.7135	24.34	-0.43	-0.050			
0.1650	10558.82	3.8920	3.8920	-0.7139	24.33	-0.44	-0.050			
0.1657	10604.32	3.8910	3.8909	-0.7140	24.33	-0.44	-0.050			
0.1664	10650.00	3.8900	3.8900	-0.7144	24.33	-0.44	-0.050			
0.1671	10695.78	3.8890	3.8890	-0.7149	24.32	-0.45	-0.050			
0.1678	10741.43	3.8880	3.8881	-0.7148	24.32	-0.45	-0.050			
0.1686	10787.25	3.8870	3.8870	-0.7153	24.32	-0.45	-0.050			
0.1693	10832.93	3.8860	3.8860	-0.7158	24.32	-0.45	-0.050			
0.1700	10879.14	3.8850	3.8850	-0.7165	24.31	-0.46	-0.050			
0.1707	10924.97	3.8840	3.8840	-0.7168	24.30	-0.47	-0.050			
0.1714	10970.94	3.8830	3.8830	-0.7170	24.31	-0.46	-0.050			
0.1721	11016.92	3.8820	3.8820	-0.7166	24.32	-0.45	-0.050			
0.1729	11062.89	3.8810	3.8810	-0.7162	24.30	-0.47	-0.050			
0.1736	11108.92	3.8800	3.8799	-0.7163	24.31	-0.46	-0.050			
0.1743	11154.67	3.8790	3.8790	-0.7162	24.30	-0.47	-0.050			
0.1750	11200.41	3.8780	3.8780	-0.7157	24.30	-0.47	-0.050			
0.1757	11246.30	3.8770	3.8769	-0.7163	24.31	-0.46	-0.050			
0.1764	11291.91	3.8760	3.8760	-0.7165	24.32	-0.45	-0.050			
0.1772	11337.80	3.8750	3.8750	-0.7164	24.31	-0.46	-0.050			
0.1779	11383.56	3.8740	3.8740	-0.7165	24.32	-0.45	-0.050			
0.1786	11429.42	3.8730	3.8731	-0.7163	24.30	-0.47	-0.050			
0.1793	11475.25	3.8720	3.8720	-0.7164	24.30	-0.47	-0.050			
0.1800	11521.13	3.8710	3.8709	-0.7160	24.31	-0.46	-0.050	0.527	0.805	
0.1807	11566.89	3.8700	3.8700	-0.7162	24.30	-0.47	-0.050			
0.1814	11612.61	3.8690	3.8690	-0.7169	24.30	-0.47	-0.050			
0.1822	11658.63	3.8680	3.8680	-0.7165	24.30	-0.47	-0.050			
0.1829	11704.58	3.8670	3.8670	-0.7161	24.30	-0.47	-0.050			
0.1836	11750.44	3.8660	3.8660	-0.7155	24.30	-0.47	-0.050			
0.1843	11796.35	3.8650	3.8650	-0.7157	24.30	-0.47	-0.050			
0.1850	11842.26	3.8640	3.8641	-0.7161	24.30	-0.47	-0.050			
0.1858	11888.09	3.8630	3.8629	-0.7156	24.30	-0.47	-0.050			
0.1865	11934.06	3.8620	3.8620	-0.7154	24.31	-0.46	-0.050			
0.1872	11980.03	3.8610	3.8610	-0.7148	24.32	-0.45	-0.050			
0.1879	12025.62	3.8600	3.8600	-0.7142	24.32	-0.45	-0.050			
0.1886	12071.26	3.8590	3.8591	-0.7136	24.31	-0.46	-0.050			
0.1893	12116.73	3.8580	3.8579	-0.7131	24.30	-0.47	-0.050			
0.1900	12162.30	3.8570	3.8569	-0.7129	24.31	-0.46	-0.050			
0.1907	12207.69	3.8560	3.8560	-0.7128	24.32	-0.45	-0.050			
0.1915	12253.24	3.8550	3.8550	-0.7128	24.31	-0.46	-0.050			
0.1922	12298.93	3.8540	3.8541	-0.7132	24.31	-0.46	-0.050			
0.1929	12344.86	3.8530	3.8531	-0.7119	24.32	-0.45	-0.050			
0.1936	12390.36	3.8520	3.8519	-0.7114	24.32	-0.45	-0.050			
0.1943	12435.97	3.8510	3.8509	-0.7110	24.31	-0.46	-0.050			
0.1950	12481.49	3.8500	3.8499	-0.7106	24.32	-0.45	-0.050			
0.1957	12526.81	3.8490	3.8490	-0.7101	24.32	-0.45	-0.050			
0.1964	12572.41	3.8480	3.8480	-0.7095	24.32	-0.45	-0.050			
0.1972	12618.17	3.8470	3.8470	-0.7093	24.33	-0.44	-0.050			
0.1979	12663.55	3.8460	3.8461	-0.7083	24.34	-0.43	-0.050			
0.1986	12708.99	3.8450	3.8450	-0.7068	24.34	-0.43	-0.050			
0.1993	12754.49	3.8440	3.8440	-0.7047	24.34	-0.43	-0.050			
0.2000	12799.77	3.8430	3.8430	-0.7028	24.34	-0.43	-0.050	0.565	0.831	
0.2007	12844.89	3.8420	3.8421	-0.7015	24.33	-0.44	-0.050			
