Ah_balance (normalized)	Ah_balance (mAh)	Voltage - fit (V)	Voltage -  interpolate (V)	dQ/dV (1/V)	Temperature (°C)	Temperature - diff (°C)	Current (C)	R_DC 0ms (mOhm)	R_DC 50ms (mOhm)	R_DC 50 ms PEC (mOhm)
-0.0033	-214.19	4.1990	4.1991	0.8239	25.57	0.05	0.050			
-0.0025	-161.58	4.1980	4.1978	0.8259	25.58	0.06	0.050			
-0.0017	-109.20	4.1970	4.1971	0.8125	25.57	0.05	0.050			
-0.0009	-57.43	4.1960	4.1961	0.8118	25.57	0.05	0.050			
-0.0001	-4.41	4.1950	4.1952	0.8193	25.57	0.05	0.050			
0.0007	47.37	4.1940	4.1937	0.8191	25.57	0.05	0.050			
0.0016	100.52	4.1930	4.1931	0.8218	25.56	0.04	0.050			
0.0024	153.36	4.1920	4.1918	0.8228	25.55	0.03	0.050			
0.0032	205.91	4.1910	4.1909	0.8237	25.55	0.03	0.050			
0.0040	258.74	4.1900	4.1900	0.8250	25.55	0.03	0.050			
0.0049	311.85	4.1890	4.1887	0.8251	25.56	0.04	0.050			
0.0057	365.06	4.1880	4.1878	0.8279	25.55	0.03	0.050			
0.0065	418.20	4.1870	4.1872	0.8277	25.54	0.02	0.050			
0.0074	470.48	4.1860	4.1861	0.8260	25.54	0.02	0.050			
0.0082	523.41	4.1850	4.1848	0.8271	25.53	0.01	0.050			
0.0090	576.21	4.1840	4.1842	0.8268	25.52	-0.00	0.050			
0.0098	629.40	4.1830	4.1829	0.8287	25.51	-0.01	0.050			
0.0107	683.61	4.1820	4.1820	0.8294	25.51	-0.01	0.050			
0.0115	736.05	4.1810	4.1811	0.8311	25.50	-0.02	0.050			
0.0123	788.88	4.1800	4.1801	0.8304	25.50	-0.02	0.050			
0.0132	842.18	4.1790	4.1788	0.8319	25.49	-0.03	0.050			
0.0140	894.99	4.1780	4.1781	0.8312	25.48	-0.04	0.050			
0.0148	947.75	4.1770	4.1770	0.8295	25.46	-0.06	0.050			
0.0157	1001.66	4.1760	4.1761	0.8300	25.46	-0.06	0.050			
0.0165	1054.88	4.1750	4.1750	0.8306	25.45	-0.07	0.050			
0.0173	1107.89	4.1740	4.1740	0.8301	25.44	-0.08	0.050			
0.0181	1161.54	4.1730	4.1729	0.8335	25.45	-0.07	0.050			
0.0190	1214.90	4.1720	4.1719	0.8344	25.44	-0.08	0.050			
0.0198	1267.93	4.1710	4.1712	0.8343	25.42	-0.10	0.050			
0.0206	1321.23	4.1700	4.1702	0.8348	25.42	-0.10	0.050			
0.0215	1375.47	4.1690	4.1691	0.8369	25.41	-0.11	0.050			
0.0223	1428.37	4.1680	4.1680	0.8380	25.41	-0.11	0.050			
0.0232	1482.20	4.1670	4.1669	0.8386	25.41	-0.11	0.050			
0.0240	1536.35	4.1660	4.1657	0.8355	25.41	-0.11	0.050			
0.0248	1590.15	4.1650	4.1650	0.8348	25.40	-0.12	0.050			
0.0257	1643.68	4.1640	4.1640	0.8348	25.41	-0.11	0.050			
0.0265	1696.83	4.1630	4.1630	0.8344	25.41	-0.11	0.050			
0.0274	1750.69	4.1620	4.1620	0.8326	25.41	-0.11	0.050			
0.0282	1803.41	4.1610	4.1610	0.8318	25.40	-0.12	0.050			
0.0290	1856.69	4.1600	4.1602	0.8330	25.40	-0.12	0.050			
0.0298	1909.55	4.1590	4.1589	0.8358	25.40	-0.12	0.050			
0.0307	1963.30	4.1580	4.1582	0.8360	25.40	-0.12	0.050			
0.0315	2016.71	4.1570	4.1571	0.8369	25.40	-0.12	0.050			
0.0324	2070.66	4.1560	4.1558	0.8362	25.39	-0.13	0.050			
0.0332	2123.50	4.1550	4.1548	0.8348	25.39	-0.13	0.050			
0.0340	2176.51	4.1540	4.1540	0.8376	25.40	-0.12	0.050			
0.0348	2230.09	4.1530	4.1529	0.8365	25.39	-0.13	0.050			
0.0357	2283.30	4.1520	4.1519	0.8376	25.39	-0.13	0.050			
0.0365	2336.84	4.1510	4.1512	0.8402	25.40	-0.12	0.050			
0.0374	2390.62	4.1500	4.1501	0.8404	25.41	-0.11	0.050			
0.0382	2445.23	4.1490	4.1492	0.8423	25.41	-0.11	0.050			
0.0391	2499.58	4.1480	4.1479	0.8413	25.41	-0.11	0.050			
0.0399	2553.39	4.1470	4.1471	0.8421	25.42	-0.10	0.050			
0.0408	2609.31	4.1460	4.1458	0.8407	25.42	-0.10	0.050			
0.0416	2663.42	4.1450	4.1449	0.8390	25.43	-0.09	0.050			
0.0424	2716.67	4.1440	4.1441	0.8383	25.44	-0.08	0.050			
0.0433	2770.22	4.1430	4.1429	0.8388	25.44	-0.08	0.050			
0.0441	2823.12	4.1420	4.1418	0.8398	25.45	-0.07	0.050			
0.0450	2877.23	4.1410	4.1413	0.8387	25.45	-0.07	0.050			
0.0458	2929.44	4.1400	4.1397	0.8392	25.46	-0.06	0.050			
0.0466	2982.68	4.1390	4.1392	0.8414	25.47	-0.05	0.050			
0.0474	3036.54	4.1380	4.1380	0.8413	25.48	-0.04	0.050			
0.0483	3090.66	4.1370	4.1372	0.8437	25.49	-0.03	0.050			
0.0491	3145.08	4.1360	4.1359	0.8429	25.48	-0.04	0.050			
0.0500	3199.04	4.1350	4.1346	0.8444	25.48	-0.04	0.050			
0.0508	3252.32	4.1340	4.1341	0.8438	25.49	-0.03	0.050			
0.0517	3306.99	4.1330	4.1329	0.8446	25.50	-0.02	0.050			
0.0525	3360.91	4.1320	4.1323	0.8453	25.51	-0.01	0.050			
0.0533	3414.31	4.1310	4.1308	0.8488	25.51	-0.01	0.050			
0.0542	3469.20	4.1300	4.1301	0.8505	25.52	0.00	0.050			
0.0551	3524.51	4.1290	4.1292	0.8531	25.52	0.00	0.050			
0.0559	3579.89	4.1280	4.1281	0.8549	25.53	0.01	0.050			
0.0568	3634.63	4.1270	4.1268	0.8560	25.53	0.01	0.050			
0.0577	3689.61	4.1260	4.1258	0.8579	25.54	0.02	0.050			
0.0585	3744.62	4.1250	4.1250	0.8572	25.55	0.03	0.050			
0.0594	3798.58	4.1240	4.1240	0.8565	25.56	0.04	0.050			
0.0602	3853.16	4.1230	4.1229	0.8557	25.57	0.05	0.050			
0.0611	3907.92	4.1220	4.1219	0.8558	25.58	0.06	0.050			
0.0619	3962.90	4.1210	4.1213	0.8544	25.59	0.07	0.050			
0.0628	4018.15	4.1200	4.1200	0.8530	25.58	0.06	0.050			
0.0636	4072.81	4.1190	4.1190	0.8532	25.59	0.07	0.050			
0.0645	4128.32	4.1180	4.1181	0.8552	25.60	0.08	0.050			
0.0654	4183.59	4.1170	4.1170	0.8578	25.60	0.08	0.050			
0.0662	4237.68	4.1160	4.1159	0.8566	25.61	0.09	0.050			
0.0671	4292.84	4.1150	4.1150	0.8542	25.61	0.09	0.050			
0.0679	4347.45	4.1140	4.1140	0.8551	25.61	0.09	0.050			
0.0688	4401.24	4.1130	4.1130	0.8574	25.62	0.10	0.050			
0.0696	4455.81	4.1120	4.1119	0.8552	25.62	0.10	0.050			
0.0705	4510.47	4.1110	4.1111	0.8535	25.62	0.10	0.050			
0.0713	4565.30	4.1100	4.1097	0.8528	25.61	0.09	0.050			
0.0722	4620.02	4.1090	4.1091	0.8559	25.62	0.10	0.050			
0.0730	4674.79	4.1080	4.1081	0.8583	25.62	0.10	0.050			
0.0739	4728.90	4.1070	4.1071	0.8584	25.63	0.11	0.050			
0.0747	4783.75	4.1060	4.1060	0.8594	25.62	0.10	0.050			
0.0756	4839.55	4.1050	4.1048	0.8588	25.62	0.10	0.050			
0.0765	4894.47	4.1040	4.1040	0.8604	25.61	0.09	0.050			
0.0773	4949.74	4.1030	4.1032	0.8597	25.61	0.09	0.050			
0.0782	5004.54	4.1020	4.1021	0.8664	25.61	0.09	0.050			
0.0791	5060.48	4.1010	4.1010	0.8668	25.60	0.08	0.050			
0.0799	5116.59	4.1000	4.1000	0.8669	25.60	0.08	0.050			
0.0808	5172.43	4.0990	4.0991	0.8650	25.60	0.08	0.050			
0.0817	5227.34	4.0980	4.0979	0.8642	25.59	0.07	0.050			
0.0825	5282.86	4.0970	4.0972	0.8660	25.59	0.07	0.050			
0.0834	5338.10	4.0960	4.0961	0.8659	25.59	0.07	0.050			
0.0843	5393.39	4.0950	4.0948	0.8671	25.58	0.06	0.050			
0.0851	5448.94	4.0940	4.0942	0.8679	25.56	0.04	0.050			
0.0860	5503.80	4.0930	4.0929	0.8679	25.56	0.04	0.050			
0.0869	5560.09	4.0920	4.0926	0.8695	25.56	0.04	0.050			
0.0878	5616.28	4.0910	4.0909	0.8710	25.55	0.03	0.050			
0.0886	5671.15	4.0900	4.0900	0.8711	25.54	0.02	0.050			
0.0895	5726.62	4.0890	4.0887	0.8716	25.53	0.01	0.050			
0.0904	5782.42	4.0880	4.0879	0.8714	25.52	0.00	0.050			
0.0912	5837.58	4.0870	4.0869	0.8736	25.52	0.00	0.050			
0.0921	5893.76	4.0860	4.0860	0.8760	25.50	-0.02	0.050			
0.0930	5950.01	4.0850	4.0850	0.8789	25.50	-0.02	0.050			
0.0939	6007.03	4.0840	4.0841	0.8769	25.49	-0.03	0.050			
0.0947	6063.03	4.0830	4.0832	0.8757	25.48	-0.04	0.050			
0.0956	6119.41	4.0820	4.0821	0.8731	25.48	-0.04	0.050			
0.0965	6176.97	4.0810	4.0810	0.8716	25.46	-0.06	0.050			
0.0974	6234.77	4.0800	4.0801	0.8706	25.46	-0.06	0.050			
0.0983	6289.41	4.0790	4.0791	0.8713	25.45	-0.07	0.050			
0.0991	6343.97	4.0780	4.0780	0.8725	25.44	-0.08	0.050			
0.1000	6399.53	4.0770	4.0773	0.8735	25.43	-0.09	0.050			
0.1009	6455.38	4.0760	4.0761	0.8721	25.42	-0.10	0.050			
0.1017	6511.14	4.0750	4.0752	0.8715	25.42	-0.10	0.050			
0.1026	6565.77	4.0740	4.0739	0.8731	25.41	-0.11	0.050			
0.1035	6622.00	4.0730	4.0731	0.8725	25.41	-0.11	0.050			
0.1043	6677.72	4.0720	4.0719	0.8742	25.41	-0.11	0.050			
0.1052	6733.49	4.0710	4.0707	0.8749	25.40	-0.12	0.050			
0.1061	6789.21	4.0700	4.0696	0.8732	25.40	-0.12	0.050			
0.1069	6844.68	4.0690	4.0690	0.8764	25.40	-0.12	0.050			
0.1078	6901.00	4.0680	4.0681	0.8773	25.41	-0.11	0.050			
0.1087	6956.75	4.0670	4.0671	0.8780	25.41	-0.11	0.050			
0.1096	7013.05	4.0660	4.0662	0.8800	25.41	-0.11	0.050			
0.1105	7070.16	4.0650	4.0648	0.8839	25.42	-0.10	0.050			
0.1114	7128.38	4.0640	4.0640	0.8842	25.42	-0.10	0.050			
0.1123	7186.18	4.0630	4.0630	0.8843	25.43	-0.09	0.050			
0.1132	7242.38	4.0620	4.0619	0.8855	25.42	-0.10	0.050			
0.1140	7298.92	4.0610	4.0609	0.8869	25.43	-0.09	0.050			
0.1149	7355.49	4.0600	4.0603	0.8866	25.44	-0.08	0.050			
0.1158	7410.53	4.0590	4.0591	0.8815	25.45	-0.07	0.050			
0.1167	7466.73	4.0580	4.0580	0.8824	25.45	-0.07	0.050			
0.1176	7523.36	4.0570	4.0570	0.8841	25.46	-0.06	0.050			
0.1184	7580.15	4.0560	4.0559	0.8873	25.47	-0.05	0.050			
0.1193	7636.96	4.0550	4.0551	0.8887	25.48	-0.04	0.050			
0.1202	7693.82	4.0540	4.0539	0.8883	25.49	-0.03	0.050			
0.1211	7751.50	4.0530	4.0529	0.8898	25.51	-0.01	0.050			
0.1220	7808.29	4.0520	4.0522	0.8907	25.52	-0.00	0.050			
0.1229	7864.86	4.0510	4.0511	0.8907	25.53	0.01	0.050			
0.1238	7921.86	4.0500	4.0501	0.8926	25.54	0.02	0.050			
0.1247	7978.82	4.0490	4.0491	0.8944	25.55	0.03	0.050			
0.1256	8036.46	4.0480	4.0481	0.8948	25.55	0.03	0.050			
0.1265	8094.07	4.0470	4.0471	0.8946	25.55	0.03	0.050			
0.1274	8152.09	4.0460	4.0460	0.8951	25.57	0.05	0.050			
0.1283	8209.74	4.0450	4.0448	0.8945	25.57	0.05	0.050			
0.1292	8267.03	4.0440	4.0441	0.8956	25.58	0.06	0.050			
0.1301	8324.53	4.0430	4.0429	0.8942	25.58	0.06	0.050			
0.1310	8381.24	4.0420	4.0417	0.8913	25.59	0.07	0.050			
0.1318	8437.62	4.0410	4.0410	0.8948	25.60	0.08	0.050			
0.1327	8495.01	4.0400	4.0402	0.8941	25.60	0.08	0.050			
0.1336	8551.94	4.0390	4.0389	0.8980	25.60	0.08	0.050			
0.1345	8609.75	4.0380	4.0379	0.8980	25.60	0.08	0.050			
0.1354	8666.37	4.0370	4.0369	0.8990	25.61	0.09	0.050			
0.1363	8723.89	4.0360	4.0361	0.9009	25.61	0.09	0.050			
0.1372	8781.42	4.0350	4.0349	0.9030	25.61	0.09	0.050			
0.1381	8839.15	4.0340	4.0340	0.9057	25.61	0.09	0.050			
0.1390	8898.23	4.0330	4.0329	0.9047	25.62	0.10	0.050			
0.1399	8955.80	4.0320	4.0319	0.9045	25.61	0.09	0.050			
0.1408	9013.15	4.0310	4.0312	0.9068	25.61	0.09	0.050			
0.1417	9071.73	4.0300	4.0297	0.9084	25.60	0.08	0.050			
0.1427	9130.10	4.0290	4.0292	0.9109	25.61	0.09	0.050			
0.1436	9189.39	4.0280	4.0279	0.9133	25.60	0.08	0.050			
0.1445	9248.34	4.0270	4.0271	0.9145	25.60	0.08	0.050			
0.1454	9306.97	4.0260	4.0260	0.9151	25.59	0.07	0.050			
0.1463	9365.47	4.0250	4.0251	0.9137	25.58	0.06	0.050			
0.1473	9424.15	4.0240	4.0240	0.9128	25.58	0.06	0.050			
0.1482	9482.52	4.0230	4.0228	0.9141	25.58	0.06	0.050			
0.1491	9540.62	4.0220	4.0220	0.9152	25.58	0.06	0.050			
0.1500	9598.21	4.0210	4.0211	0.9138	25.57	0.05	0.050			
0.1509	9656.76	4.0200	4.0200	0.9153	25.56	0.04	0.050			
0.1518	9714.82	4.0190	4.0191	0.9168	25.54	0.02	0.050			
0.1527	9773.99	4.0180	4.0180	0.9175	25.53	0.01	0.050			
0.1536	9832.66	4.0170	4.0171	0.9177	25.53	0.01	0.050			
0.1546	9891.45	4.0160	4.0159	0.9178	25.51	-0.01	0.050			
0.1555	9950.55	4.0150	4.0150	0.9191	25.51	-0.01	0.050			
0.1564	10009.32	4.0140	4.0141	0.9230	25.50	-0.02	0.050			
0.1573	10068.44	4.0130	4.0130	0.9260	25.49	-0.03	0.050			
0.1582	10127.27	4.0120	4.0121	0.9282	25.48	-0.04	0.050			
0.1592	10185.78	4.0110	4.0111	0.9283	25.46	-0.06	0.050			
0.1601	10245.78	4.0100	4.0102	0.9331	25.45	-0.07	0.050			
0.1610	10305.15	4.0090	4.0090	0.9358	25.44	-0.08	0.050			
0.1620	10366.02	4.0080	4.0080	0.9368	25.44	-0.08	0.050			
0.1629	10426.75	4.0070	4.0070	0.9374	25.43	-0.09	0.050			
0.1639	10488.62	4.0060	4.0059	0.9359	25.42	-0.10	0.050			
0.1648	10547.65	4.0050	4.0050	0.9381	25.40	-0.12	0.050			
0.1657	10607.84	4.0040	4.0042	0.9393	25.40	-0.12	0.050			
0.1667	10667.68	4.0030	4.0031	0.9389	25.40	-0.12	0.050			
0.1676	10728.02	4.0020	4.0020	0.9379	25.38	-0.14	0.050			
0.1686	10789.22	4.0010	4.0010	0.9375	25.39	-0.13	0.050			
0.1695	10849.29	4.0000	4.0002	0.9349	25.38	-0.14	0.050			
0.1705	10909.70	3.9990	3.9990	0.9344	25.37	-0.15	0.050			
0.1714	10969.07	3.9980	3.9978	0.9349	25.36	-0.16	0.050			
0.1723	11028.88	3.9970	3.9969	0.9350	25.37	-0.15	0.050			
0.1733	11088.96	3.9960	3.9955	0.9316	25.36	-0.16	0.050			
0.1742	11147.58	3.9950	3.9951	0.9328	25.37	-0.15	0.050			
0.1751	11205.76	3.9940	3.9941	0.9315	25.37	-0.15	0.050			
0.1760	11264.81	3.9930	3.9931	0.9314	25.37	-0.15	0.050			
0.1769	11324.32	3.9920	3.9921	0.9326	25.36	-0.16	0.050			
0.1779	11383.26	3.9910	3.9909	0.9345	25.37	-0.15	0.050			
0.1788	11443.02	3.9900	3.9900	0.9357	25.37	-0.15	0.050			
0.1797	11503.41	3.9890	3.9889	0.9404	25.38	-0.14	0.050			
0.1807	11563.59	3.9880	3.9880	0.9426	25.38	-0.14	0.050			
0.1816	11624.67	3.9870	3.9868	0.9441	25.39	-0.13	0.050			
0.1826	11685.25	3.9860	3.9857	0.9451	25.40	-0.12	0.050			
0.1835	11745.02	3.9850	3.9851	0.9435	25.42	-0.10	0.050			
0.1845	11805.58	3.9840	3.9840	0.9462	25.43	-0.09	0.050			
0.1854	11866.75	3.9830	3.9830	0.9513	25.44	-0.08	0.050			
0.1864	11928.71	3.9820	3.9819	0.9542	25.44	-0.08	0.050			
0.1873	11990.32	3.9810	3.9812	0.9554	25.46	-0.06	0.050			
0.1883	12051.84	3.9800	3.9799	0.9546	25.47	-0.05	0.050			
0.1893	12112.72	3.9790	3.9791	0.9547	25.48	-0.04	0.050			
0.1902	12174.24	3.9780	3.9779	0.9525	25.50	-0.02	0.050			
0.1912	12235.26	3.9770	3.9770	0.9554	25.51	-0.01	0.050			
0.1921	12296.38	3.9760	3.9759	0.9560	25.53	0.01	0.050			
0.1931	12356.99	3.9750	3.9749	0.9535	25.54	0.02	0.050			
0.1940	12418.06	3.9740	3.9740	0.9538	25.54	0.02	0.050			
0.1950	12478.46	3.9730	3.9732	0.9593	25.56	0.04	0.050			
0.1959	12539.13	3.9720	3.9722	0.9621	25.57	0.05	0.050			
0.1969	12600.67	3.9710	3.9713	0.9618	25.58	0.06	0.050			
0.1979	12662.74	3.9700	3.9699	0.9636	25.60	0.08	0.050			
0.1988	12724.62	3.9690	3.9690	0.9637	25.59	0.07	0.050			
0.1998	12786.84	3.9680	3.9677	0.9663	25.60	0.08	0.050			
0.2008	12848.30	3.9670	3.9671	0.9691	25.61	0.09	0.050			
0.2017	12910.84	3.9660	3.9659	0.9705	25.62	0.10	0.050			
0.2027	12972.40	3.9650	3.9649	0.9719	25.62	0.10	0.050			
0.2037	13035.34	3.9640	3.9639	0.9697	25.63	0.11	0.050			
0.2047	13098.17	3.9630	3.9633	0.9697	25.62	0.10	0.050			
0.2056	13160.89	3.9620	3.9622	0.9703	25.63	0.11	0.050			
0.2066	13223.57	3.9610	3.9609	0.9722	25.63	0.11	0.050			
0.2076	13285.84	3.9600	3.9599	0.9720	25.63	0.11	0.050			
0.2086	13347.92	3.9590	3.9591	0.9726	25.62	0.10	0.050			
0.2095	13410.03	3.9580	3.9579	0.9744	25.62	0.10	0.050			
0.2105	13471.02	3.9570	3.9571	0.9752	25.61	0.09	0.050			
0.2115	13533.78	3.9560	3.9559	0.9758	25.61	0.09	0.050			
0.2124	13595.50	3.9550	3.9553	0.9777	25.60	0.08	0.050			
0.2134	13657.87	3.9540	3.9538	0.9761	25.60	0.08	0.050			
0.2144	13719.07	3.9530	3.9531	0.9769	25.59	0.07	0.050			
0.2153	13781.59	3.9520	3.9521	0.9818	25.59	0.07	0.050			
0.2163	13845.74	3.9510	3.9512	0.9832	25.59	0.07	0.050			
0.2173	13909.62	3.9500	3.9500	0.9841	25.57	0.05	0.050			
0.2183	13973.00	3.9490	3.9490	0.9854	25.58	0.06	0.050			
0.2193	14036.72	3.9480	3.9478	0.9848	25.56	0.04	0.050			
0.2203	14099.35	3.9470	3.9472	0.9855	25.55	0.03	0.050			
0.2213	14162.40	3.9460	3.9461	0.9874	25.55	0.03	0.050			
0.2223	14226.48	3.9450	3.9449	0.9893	25.54	0.02	0.050			
0.2233	14290.61	3.9440	3.9438	0.9927	25.53	0.01	0.050			
0.2243	14353.85	3.9430	3.9431	0.9924	25.52	0.00	0.050			
0.2253	14417.21	3.9420	3.9423	0.9910	25.52	0.00	0.050			
0.2263	14480.35	3.9410	3.9409	0.9933	25.50	-0.02	0.050			
0.2272	14542.37	3.9400	3.9401	0.9959	25.50	-0.02	0.050			
0.2282	14606.81	3.9390	3.9389	0.9953	25.49	-0.03	0.050			
0.2292	14670.74	3.9380	3.9377	0.9928	25.48	-0.04	0.050			
0.2302	14734.18	3.9370	3.9370	0.9931	25.48	-0.04	0.050			
0.2312	14797.81	3.9360	3.9361	0.9966	25.47	-0.05	0.050			
0.2322	14862.04	3.9350	3.9351	0.9954	25.46	-0.06	0.050			
0.2332	14925.53	3.9340	3.9339	0.9972	25.46	-0.06	0.050			
0.2342	14990.30	3.9330	3.9330	0.9945	25.45	-0.07	0.050			
0.2352	15054.96	3.9320	3.9320	0.9958	25.44	-0.08	0.050			
0.2363	15120.21	3.9310	3.9311	0.9950	25.43	-0.09	0.050			
0.2372	15184.00	3.9300	3.9303	0.9943	25.43	-0.09	0.050			
0.2382	15247.05	3.9290	3.9288	0.9955	25.42	-0.10	0.050			
0.2392	15309.72	3.9280	3.9280	0.9967	25.42	-0.10	0.050			
0.2402	15373.39	3.9270	3.9270	0.9951	25.41	-0.11	0.050			
0.2412	15436.76	3.9260	3.9264	0.9939	25.41	-0.11	0.050			
0.2422	15500.26	3.9250	3.9250	0.9927	25.41	-0.11	0.050			
0.2432	15563.45	3.9240	3.9241	0.9929	25.41	-0.11	0.050			
0.2442	15626.84	3.9230	3.9229	0.9919	25.41	-0.11	0.050			
0.2452	15689.91	3.9220	3.9218	0.9941	25.41	-0.11	0.050			
0.2461	15752.62	3.9210	3.9209	0.9942	25.41	-0.11	0.050			
0.2471	15816.16	3.9200	3.9200	0.9954	25.41	-0.11	0.050			
0.2482	15881.96	3.9190	3.9191	0.9950	25.41	-0.11	0.050			
0.2492	15946.86	3.9180	3.9181	0.9930	25.41	-0.11	0.050			
0.2502	16010.25	3.9170	3.9172	0.9930	25.40	-0.12	0.050			
0.2511	16072.68	3.9160	3.9158	0.9930	25.40	-0.12	0.050			
0.2521	16136.51	3.9150	3.9149	0.9983	25.41	-0.11	0.050			
0.2531	16199.76	3.9140	3.9141	0.9990	25.41	-0.11	0.050			
0.2541	16264.51	3.9130	3.9129	1.0021	25.41	-0.11	0.050			
0.2551	16328.92	3.9120	3.9121	1.0016	25.41	-0.11	0.050			
0.2561	16391.15	3.9110	3.9112	1.0038	25.42	-0.10	0.050			
0.2571	16455.21	3.9100	3.9099	1.0038	25.42	-0.10	0.050			
0.2581	16518.67	3.9090	3.9089	1.0030	25.42	-0.10	0.050			
0.2591	16583.29	3.9080	3.9077	1.0041	25.43	-0.09	0.050			
0.2601	16648.37	3.9070	3.9068	1.0075	25.44	-0.08	0.050			
0.2611	16712.92	3.9060	3.9059	1.0095	25.44	-0.08	0.050			
0.2622	16777.65	3.9050	3.9051	1.0117	25.45	-0.07	0.050			
0.2632	16842.13	3.9040	3.9040	1.0134	25.46	-0.06	0.050			
0.2642	16907.06	3.9030	3.9030	1.0172	25.46	-0.06	0.050			
0.2652	16973.30	3.9020	3.9018	1.0143	25.48	-0.04	0.050			
0.2662	17038.96	3.9010	3.9010	1.0171	25.49	-0.03	0.050			
0.2673	17105.27	3.9000	3.9001	1.0228	25.50	-0.02	0.050			
0.2683	17171.25	3.8990	3.8991	1.0237	25.51	-0.01	0.050			
0.2693	17236.87	3.8980	3.8979	1.0230	25.52	0.00	0.050			
0.2703	17300.87	3.8970	3.8968	1.0196	25.53	0.01	0.050			
0.2713	17365.78	3.8960	3.8961	1.0184	25.55	0.03	0.050			
0.2724	17430.51	3.8950	3.8950	1.0191	25.55	0.03	0.050			
0.2734	17495.51	3.8940	3.8941	1.0215	25.57	0.05	0.050			
0.2744	17561.37	3.8930	3.8930	1.0237	25.58	0.06	0.050			
0.2754	17627.06	3.8920	3.8920	1.0248	25.58	0.06	0.050			
0.2764	17692.00	3.8910	3.8911	1.0236	25.59	0.07	0.050			
0.2775	17758.45	3.8900	3.8903	1.0275	25.61	0.09	0.050			
0.2785	17824.51	3.8890	3.8890	1.0292	25.62	0.10	0.050			
0.2795	17890.81	3.8880	3.8879	1.0265	25.63	0.11	0.050			
0.2806	17956.53	3.8870	3.8873	1.0244	25.63	0.11	0.050			
0.2816	18021.50	3.8860	3.8858	1.0255	25.64	0.12	0.050			
0.2826	18086.29	3.8850	3.8849	1.0276	25.65	0.13	0.050			
0.2836	18151.48	3.8840	3.8842	1.0306	25.65	0.13	0.050			
0.2847	18217.95	3.8830	3.8831	1.0343	25.65	0.13	0.050			
0.2857	18284.07	3.8820	3.8820	1.0385	25.65	0.13	0.050			
0.2867	18350.61	3.8810	3.8810	1.0396	25.65	0.13	0.050			
0.2877	18415.99	3.8800	3.8801	1.0390	25.65	0.13	0.050			
0.2888	18483.85	3.8790	3.8789	1.0403	25.65	0.13	0.050			
0.2898	18549.80	3.8780	3.8777	1.0440	25.63	0.11	0.050			
0.2909	18615.89	3.8770	3.8768	1.0482	25.63	0.11	0.050			
0.2919	18683.10	3.8760	3.8759	1.0510	25.61	0.09	0.050			
0.2930	18750.19	3.8750	3.8749	1.0534	25.62	0.10	0.050			
0.2940	18817.69	3.8740	3.8742	1.0572	25.61	0.09	0.050			
0.2951	18885.75	3.8730	3.8731	1.0600	25.60	0.08	0.050			
0.2962	18954.76	3.8720	3.8720	1.0621	25.59	0.07	0.050			
0.2972	19023.90	3.8710	3.8711	1.0632	25.58	0.06	0.050			
0.2983	19092.60	3.8700	3.8701	1.0610	25.57	0.05	0.050			
0.2994	19161.68	3.8690	3.8688	1.0627	25.55	0.03	0.050			
0.3005	19229.64	3.8680	3.8682	1.0647	25.54	0.02	0.050			
0.3015	19298.15	3.8670	3.8672	1.0619	25.53	0.01	0.050			
0.3026	19365.20	3.8660	3.8661	1.0603	25.54	0.02	0.050			
0.3036	19432.15	3.8650	3.8648	1.0635	25.52	0.00	0.050			
0.3047	19500.35	3.8640	3.8640	1.0644	25.51	-0.01	0.050			
0.3058	19569.07	3.8630	3.8630	1.0648	25.51	-0.01	0.050			
0.3068	19636.73	3.8620	3.8620	1.0672	25.49	-0.03	0.050			
0.3079	19704.96	3.8610	3.8608	1.0638	25.49	-0.03	0.050			
0.3090	19773.20	3.8600	3.8598	1.0651	25.49	-0.03	0.050			
0.3100	19840.91	3.8590	3.8590	1.0688	25.48	-0.04	0.050			
0.3111	19907.54	3.8580	3.8580	1.0685	25.48	-0.04	0.050			
0.3121	19976.08	3.8570	3.8567	1.0715	25.47	-0.05	0.050			
0.3132	20045.44	3.8560	3.8561	1.0740	25.47	-0.05	0.050			
0.3143	20114.82	3.8550	3.8550	1.0754	25.47	-0.05	0.050			
0.3154	20183.35	3.8540	3.8540	1.0802	25.47	-0.05	0.050			
0.3165	20253.02	3.8530	3.8529	1.0841	25.46	-0.06	0.050			
