Ah_balance (normalized)	Ah_balance (mAh)	Voltage - fit (V)	Voltage -  interpolate (V)	dQ/dV (1/V)	Temperature (°C)	Temperature - diff (°C)	Current (C)	R_DC 0ms (mOhm)	R_DC 50ms (mOhm)	R_DC 50 ms PEC (mOhm)
0.0002	10.11	4.1840	4.1839	-0.3373	25.97	0.02	-0.050			
0.0005	32.43	4.1830	4.1827	-0.3650	25.92	-0.03	-0.050			
0.0009	56.46	4.1820	4.1817	-0.3859	25.86	-0.09	-0.050			
0.0013	82.08	4.1810	4.1808	-0.4082	25.80	-0.15	-0.050			
0.0017	109.26	4.1800	4.1799	-0.4293	25.73	-0.22	-0.050			
0.0022	138.02	4.1790	4.1790	-0.4492	25.67	-0.28	-0.050			
0.0026	167.90	4.1780	4.1780	-0.4669	25.59	-0.36	-0.050			
0.0031	199.09	4.1770	4.1769	-0.4830	25.51	-0.44	-0.050			
0.0036	231.10	4.1760	4.1761	-0.4976	25.44	-0.51	-0.050			
0.0041	264.08	4.1750	4.1750	-0.5107	25.36	-0.59	-0.050			
0.0047	298.04	4.1740	4.1738	-0.5220	25.29	-0.66	-0.050			
0.0052	332.43	4.1730	4.1730	-0.5323	25.21	-0.74	-0.050			
0.0058	369.71	4.1720	4.1720	-0.5464	25.12	-0.83	-0.050			
0.0063	405.12	4.1710	4.1709	-0.5540	25.05	-0.90	-0.050			
0.0069	441.58	4.1700	4.1700	-0.5613	24.97	-0.98	-0.050			
0.0075	478.53	4.1690	4.1690	-0.5682	24.89	-1.06	-0.050			
0.0081	515.76	4.1680	4.1680	-0.5753	24.82	-1.13	-0.050			
0.0086	552.83	4.1670	4.1671	-0.5801	24.75	-1.20	-0.050			
0.0092	590.89	4.1660	4.1660	-0.5870	24.69	-1.26	-0.050			
0.0098	628.59	4.1650	4.1651	-0.5916	24.62	-1.33	-0.050			
0.0104	666.74	4.1640	4.1640	-0.5970	24.56	-1.39	-0.050			
0.0110	705.26	4.1630	4.1630	-0.6001	24.51	-1.44	-0.050			
0.0116	743.72	4.1620	4.1620	-0.6040	24.46	-1.49	-0.050			
0.0122	782.39	4.1610	4.1609	-0.6081	24.41	-1.54	-0.050			
0.0128	821.21	4.1600	4.1601	-0.6122	24.36	-1.59	-0.050			
0.0134	860.29	4.1590	4.1589	-0.6169	24.32	-1.63	-0.050			
0.0141	899.88	4.1580	4.1579	-0.6210	24.28	-1.67	-0.050			
0.0147	939.97	4.1570	4.1569	-0.6242	24.25	-1.70	-0.050			
0.0153	980.10	4.1560	4.1560	-0.6284	24.22	-1.73	-0.050			
0.0159	1020.73	4.1550	4.1550	-0.6315	24.20	-1.75	-0.050			
0.0166	1061.43	4.1540	4.1540	-0.6357	24.17	-1.78	-0.050			
0.0172	1102.45	4.1530	4.1532	-0.6398	24.15	-1.80	-0.050			
0.0179	1143.48	4.1520	4.1518	-0.6437	24.14	-1.81	-0.050			
0.0185	1185.04	4.1510	4.1511	-0.6473	24.14	-1.81	-0.050			
0.0192	1226.58	4.1500	4.1500	-0.6502	24.13	-1.82	-0.050			
0.0198	1268.52	4.1490	4.1489	-0.6541	24.13	-1.82	-0.050	0.404	0.500	
0.0205	1310.45	4.1480	4.1480	-0.6571	24.14	-1.81	-0.050			
0.0211	1352.61	4.1470	4.1470	-0.6593	24.14	-1.81	-0.050			
0.0218	1394.86	4.1460	4.1461	-0.6622	24.16	-1.79	-0.050			
0.0225	1437.49	4.1450	4.1449	-0.6642	24.17	-1.78	-0.050			
0.0231	1480.18	4.1440	4.1440	-0.6671	24.19	-1.76	-0.050			
0.0238	1523.10	4.1430	4.1430	-0.6696	24.20	-1.75	-0.050			
0.0245	1566.17	4.1420	4.1420	-0.6728	24.22	-1.73	-0.050			
0.0251	1609.11	4.1410	4.1409	-0.6745	24.24	-1.71	-0.050			
0.0258	1652.36	4.1400	4.1401	-0.6768	24.26	-1.69	-0.050			
0.0265	1695.75	4.1390	4.1390	-0.6791	24.29	-1.66	-0.050			
0.0272	1739.26	4.1380	4.1380	-0.6820	24.32	-1.63	-0.050			
0.0279	1783.23	4.1370	4.1370	-0.6853	24.34	-1.61	-0.050			
0.0285	1827.11	4.1360	4.1360	-0.6885	24.38	-1.57	-0.050			
0.0292	1871.13	4.1350	4.1350	-0.6902	24.40	-1.55	-0.050			
0.0299	1915.56	4.1340	4.1341	-0.6925	24.43	-1.52	-0.050			
0.0306	1959.92	4.1330	4.1330	-0.6932	24.47	-1.48	-0.050			
0.0313	2004.52	4.1320	4.1320	-0.6948	24.50	-1.45	-0.050			
0.0320	2049.13	4.1310	4.1311	-0.6978	24.52	-1.43	-0.050			
0.0327	2094.03	4.1300	4.1299	-0.6994	24.56	-1.39	-0.050			
0.0334	2138.88	4.1290	4.1290	-0.7010	24.59	-1.36	-0.050			
0.0341	2183.78	4.1280	4.1280	-0.7028	24.62	-1.33	-0.050			
0.0348	2229.06	4.1270	4.1270	-0.7044	24.66	-1.29	-0.050			
0.0355	2274.35	4.1260	4.1262	-0.7062	24.69	-1.26	-0.050			
0.0362	2319.71	4.1250	4.1250	-0.7070	24.73	-1.22	-0.050			
0.0370	2365.46	4.1240	4.1241	-0.7075	24.76	-1.19	-0.050			
0.0377	2410.55	4.1230	4.1229	-0.7082	24.79	-1.16	-0.050			
0.0384	2455.71	4.1220	4.1220	-0.7100	24.83	-1.12	-0.050			
0.0391	2500.88	4.1210	4.1209	-0.7119	24.86	-1.09	-0.050			
0.0398	2546.81	4.1200	4.1200	-0.7131	24.90	-1.05	-0.050			
0.0405	2592.21	4.1190	4.1190	-0.7139	24.93	-1.02	-0.050			
0.0412	2637.76	4.1180	4.1181	-0.7150	24.98	-0.97	-0.050			
0.0419	2683.15	4.1170	4.1170	-0.7171	25.02	-0.93	-0.050			
0.0426	2729.00	4.1160	4.1160	-0.7192	25.05	-0.90	-0.050			
0.0434	2774.94	4.1150	4.1150	-0.7218	25.09	-0.86	-0.050			
0.0441	2821.46	4.1140	4.1139	-0.7243	25.12	-0.83	-0.050			
0.0448	2868.04	4.1130	4.1130	-0.7258	25.16	-0.79	-0.050			
0.0455	2914.54	4.1120	4.1120	-0.7272	25.21	-0.74	-0.050			
0.0463	2961.17	4.1110	4.1111	-0.7289	25.26	-0.69	-0.050			
0.0470	3007.75	4.1100	4.1100	-0.7304	25.29	-0.66	-0.050			
0.0477	3054.96	4.1090	4.1088	-0.7323	25.34	-0.61	-0.050			
0.0485	3101.86	4.1080	4.1080	-0.7337	25.37	-0.58	-0.050			
0.0492	3149.04	4.1070	4.1071	-0.7360	25.42	-0.53	-0.050			
0.0499	3196.46	4.1060	4.1060	-0.7382	25.46	-0.49	-0.050			
0.0507	3243.76	4.1050	4.1050	-0.7393	25.50	-0.45	-0.050			
0.0514	3291.41	4.1040	4.1040	-0.7403	25.55	-0.40	-0.050			
0.0522	3338.81	4.1030	4.1029	-0.7411	25.60	-0.35	-0.050			
0.0529	3386.00	4.1020	4.1020	-0.7408	25.63	-0.32	-0.050			
0.0536	3433.34	4.1010	4.1010	-0.7419	25.69	-0.26	-0.050			
0.0544	3481.29	4.1000	4.1000	-0.7438	25.72	-0.23	-0.050			
0.0551	3529.01	4.0990	4.0990	-0.7440	25.76	-0.19	-0.050			
0.0559	3576.33	4.0980	4.0979	-0.7442	25.81	-0.14	-0.050			
0.0566	3623.91	4.0970	4.0971	-0.7446	25.85	-0.10	-0.050			
0.0574	3671.43	4.0960	4.0960	-0.7450	25.89	-0.06	-0.050			
0.0581	3719.39	4.0950	4.0950	-0.7458	25.93	-0.02	-0.050			
0.0589	3767.49	4.0940	4.0939	-0.7469	25.97	0.02	-0.050			
0.0596	3815.24	4.0930	4.0930	-0.7479	26.02	0.07	-0.050			
0.0604	3863.25	4.0920	4.0920	-0.7482	26.05	0.10	-0.050	0.338	0.459	
0.0611	3911.13	4.0910	4.0911	-0.7479	26.09	0.14	-0.050			
0.0619	3958.86	4.0900	4.0900	-0.7486	26.14	0.19	-0.050			
0.0626	4006.62	4.0890	4.0890	-0.7495	26.17	0.22	-0.050			
0.0634	4054.83	4.0880	4.0879	-0.7494	26.21	0.26	-0.050			
0.0641	4102.83	4.0870	4.0869	-0.7491	26.25	0.30	-0.050			
0.0649	4150.56	4.0860	4.0861	-0.7501	26.29	0.34	-0.050			
0.0656	4198.59	4.0850	4.0850	-0.7510	26.32	0.37	-0.050			
0.0664	4246.87	4.0840	4.0840	-0.7514	26.36	0.41	-0.050			
0.0671	4294.91	4.0830	4.0830	-0.7516	26.36	0.41	-0.050			
0.0679	4343.67	4.0820	4.0820	-0.7499	26.34	0.39	-0.050			
0.0686	4392.40	4.0810	4.0810	-0.7474	26.31	0.36	-0.050			
0.0694	4440.49	4.0800	4.0800	-0.7451	26.26	0.31	-0.050			
0.0701	4488.58	4.0790	4.0790	-0.7430	26.19	0.24	-0.050			
0.0709	4536.50	4.0780	4.0780	-0.7410	26.11	0.16	-0.050			
0.0716	4584.13	4.0770	4.0770	-0.7381	26.01	0.06	-0.050			
0.0724	4630.91	4.0760	4.0762	-0.7376	25.93	-0.02	-0.050			
0.0731	4677.72	4.0750	4.0751	-0.7366	25.83	-0.12	-0.050			
0.0738	4724.68	4.0740	4.0740	-0.7351	25.72	-0.23	-0.050			
0.0745	4771.09	4.0730	4.0731	-0.7334	25.62	-0.33	-0.050			
0.0753	4817.34	4.0720	4.0721	-0.7337	25.51	-0.44	-0.050			
0.0760	4864.15	4.0710	4.0710	-0.7328	25.41	-0.54	-0.050			
0.0767	4910.40	4.0700	4.0699	-0.7328	25.30	-0.65	-0.050			
0.0774	4956.51	4.0690	4.0689	-0.7319	25.19	-0.76	-0.050			
0.0782	5003.00	4.0680	4.0680	-0.7334	25.10	-0.85	-0.050			
0.0789	5049.98	4.0670	4.0668	-0.7340	24.99	-0.96	-0.050			
0.0796	5096.38	4.0660	4.0660	-0.7356	24.89	-1.06	-0.050			
0.0804	5143.12	4.0650	4.0649	-0.7371	24.79	-1.16	-0.050	0.378	0.640	
0.0811	5190.55	4.0640	4.0640	-0.7400	24.70	-1.25	-0.050			
0.0818	5238.13	4.0630	4.0631	-0.7428	24.62	-1.33	-0.050			
0.0826	5286.08	4.0620	4.0621	-0.7468	24.54	-1.41	-0.050			
0.0834	5334.69	4.0610	4.0610	-0.7508	24.47	-1.48	-0.050			
0.0841	5382.83	4.0600	4.0599	-0.7529	24.41	-1.54	-0.050			
0.0849	5430.70	4.0590	4.0590	-0.7548	24.34	-1.61	-0.050			
0.0856	5478.78	4.0580	4.0580	-0.7580	24.28	-1.67	-0.050			
0.0864	5527.09	4.0570	4.0569	-0.7610	24.24	-1.71	-0.050			
0.0871	5575.66	4.0560	4.0560	-0.7615	24.19	-1.76	-0.050			
0.0879	5624.51	4.0550	4.0550	-0.7636	24.16	-1.79	-0.050			
0.0886	5673.59	4.0540	4.0540	-0.7665	24.12	-1.83	-0.050			
0.0894	5722.86	4.0530	4.0530	-0.7700	24.10	-1.85	-0.050			
0.0902	5772.41	4.0520	4.0521	-0.7721	24.06	-1.89	-0.050			
0.0910	5822.12	4.0510	4.0508	-0.7750	24.06	-1.89	-0.050			
0.0917	5871.66	4.0500	4.0499	-0.7784	24.06	-1.89	-0.050			
0.0925	5921.36	4.0490	4.0491	-0.7804	24.06	-1.89	-0.050			
0.0933	5971.94	4.0480	4.0481	-0.7821	24.06	-1.89	-0.050			
0.0941	6022.69	4.0470	4.0470	-0.7815	24.06	-1.89	-0.050			
0.0949	6073.08	4.0460	4.0459	-0.7822	24.07	-1.88	-0.050			
0.0957	6123.18	4.0450	4.0449	-0.7840	24.09	-1.86	-0.050			
0.0965	6173.52	4.0440	4.0441	-0.7850	24.11	-1.84	-0.050			
0.0972	6223.51	4.0430	4.0430	-0.7871	24.14	-1.81	-0.050			
0.0980	6273.61	4.0420	4.0420	-0.7882	24.17	-1.78	-0.050			
0.0988	6324.08	4.0410	4.0410	-0.7907	24.20	-1.75	-0.050			
0.0996	6374.49	4.0400	4.0399	-0.7919	24.23	-1.72	-0.050			
0.1004	6424.97	4.0390	4.0390	-0.7932	24.26	-1.69	-0.050			
0.1012	6475.41	4.0380	4.0381	-0.7948	24.30	-1.65	-0.050			
0.1020	6526.44	4.0370	4.0367	-0.7970	24.34	-1.61	-0.050			
0.1028	6577.84	4.0360	4.0359	-0.7980	24.38	-1.57	-0.050			
0.1036	6629.33	4.0350	4.0351	-0.7999	24.42	-1.53	-0.050			
0.1044	6680.29	4.0340	4.0340	-0.7998	24.45	-1.50	-0.050			
0.1052	6731.43	4.0330	4.0331	-0.8012	24.49	-1.46	-0.050			
0.1060	6782.54	4.0320	4.0320	-0.8039	24.53	-1.42	-0.050			
0.1068	6833.94	4.0310	4.0311	-0.8058	24.57	-1.38	-0.050			
0.1076	6885.89	4.0300	4.0300	-0.8079	24.61	-1.34	-0.050			
0.1084	6937.59	4.0290	4.0289	-0.8098	24.65	-1.30	-0.050			
0.1092	6990.16	4.0280	4.0281	-0.8123	24.69	-1.26	-0.050			
0.1100	7042.75	4.0270	4.0270	-0.8141	24.73	-1.22	-0.050			
0.1109	7094.53	4.0260	4.0258	-0.8139	24.77	-1.18	-0.050			
0.1117	7145.90	4.0250	4.0249	-0.8160	24.82	-1.13	-0.050			
0.1125	7197.90	4.0240	4.0240	-0.8182	24.86	-1.09	-0.050			
0.1133	7250.01	4.0230	4.0229	-0.8199	24.90	-1.05	-0.050			
0.1141	7302.58	4.0220	4.0219	-0.8229	24.94	-1.01	-0.050			
0.1149	7355.27	4.0210	4.0210	-0.8248	24.99	-0.96	-0.050			
0.1158	7408.22	4.0200	4.0200	-0.8277	25.04	-0.91	-0.050			
0.1166	7461.38	4.0190	4.0190	-0.8295	25.08	-0.87	-0.050			
0.1174	7514.91	4.0180	4.0180	-0.8311	25.12	-0.83	-0.050			
0.1183	7568.42	4.0170	4.0169	-0.8328	25.17	-0.78	-0.050			
0.1191	7622.25	4.0160	4.0159	-0.8355	25.23	-0.72	-0.050			
0.1199	7675.92	4.0150	4.0149	-0.8363	25.28	-0.67	-0.050			
0.1208	7729.55	4.0140	4.0141	-0.8374	25.32	-0.63	-0.050			
0.1216	7783.18	4.0130	4.0130	-0.8377	25.38	-0.57	-0.050			
0.1225	7837.11	4.0120	4.0120	-0.8377	25.42	-0.53	-0.050			
0.1233	7890.84	4.0110	4.0110	-0.8377	25.48	-0.47	-0.050			
0.1241	7945.16	4.0100	4.0100	-0.8392	25.53	-0.42	-0.050			
0.1250	7998.55	4.0090	4.0090	-0.8393	25.57	-0.38	-0.050			
0.1258	8052.38	4.0080	4.0080	-0.8397	25.62	-0.33	-0.050			
0.1267	8106.36	4.0070	4.0070	-0.8392	25.67	-0.28	-0.050			
0.1275	8160.00	4.0060	4.0060	-0.8373	25.71	-0.24	-0.050			
0.1283	8213.31	4.0050	4.0050	-0.8360	25.76	-0.19	-0.050			
0.1292	8266.39	4.0040	4.0041	-0.8372	25.80	-0.15	-0.050			
0.1300	8320.05	4.0030	4.0030	-0.8382	25.85	-0.10	-0.050			
0.1308	8373.61	4.0020	4.0019	-0.8374	25.89	-0.06	-0.050			
0.1317	8427.25	4.0010	4.0009	-0.8374	25.94	-0.01	-0.050			
0.1325	8480.83	4.0000	4.0000	-0.8377	25.99	0.04	-0.050			
0.1333	8534.40	3.9990	3.9990	-0.8380	26.01	0.06	-0.050			
0.1342	8588.15	3.9980	3.9980	-0.8378	26.01	0.06	-0.050			
0.1350	8642.08	3.9970	3.9969	-0.8368	26.00	0.05	-0.050			
0.1359	8695.89	3.9960	3.9959	-0.8352	25.96	0.01	-0.050			
0.1367	8749.68	3.9950	3.9950	-0.8339	25.91	-0.04	-0.050			
0.1375	8802.97	3.9940	3.9940	-0.8339	25.86	-0.09	-0.050			
0.1384	8856.22	3.9930	3.9930	-0.8333	25.79	-0.16	-0.050			
0.1392	8909.88	3.9920	3.9920	-0.8326	25.71	-0.24	-0.050			
0.1400	8963.03	3.9910	3.9911	-0.8311	25.64	-0.31	-0.050	0.273	0.598	
0.1409	9015.98	3.9900	3.9900	-0.8308	25.56	-0.39	-0.050			
0.1417	9068.86	3.9890	3.9891	-0.8300	25.47	-0.48	-0.050			
0.1425	9121.99	3.9880	3.9880	-0.8290	25.38	-0.57	-0.050			
0.1434	9175.11	3.9870	3.9870	-0.8290	25.29	-0.66	-0.050			
0.1442	9228.00	3.9860	3.9859	-0.8285	25.20	-0.75	-0.050			
0.1450	9280.59	3.9850	3.9849	-0.8280	25.12	-0.83	-0.050			
0.1458	9332.91	3.9840	3.9841	-0.8264	25.03	-0.92	-0.050			
0.1467	9385.62	3.9830	3.9830	-0.8283	24.95	-1.00	-0.050			
0.1475	9438.38	3.9820	3.9820	-0.8299	24.87	-1.08	-0.050			
0.1483	9491.52	3.9810	3.9810	-0.8314	24.79	-1.16	-0.050			
0.1491	9544.36	3.9800	3.9800	-0.8321	24.72	-1.23	-0.050			
0.1500	9597.64	3.9790	3.9791	-0.8347	24.66	-1.29	-0.050			
0.1508	9650.98	3.9780	3.9779	-0.8370	24.60	-1.35	-0.050			
0.1516	9704.70	3.9770	3.9770	-0.8399	24.55	-1.40	-0.050			
0.1525	9758.59	3.9760	3.9760	-0.8423	24.51	-1.44	-0.050			
0.1533	9812.41	3.9750	3.9749	-0.8450	24.47	-1.48	-0.050			
0.1542	9866.19	3.9740	3.9740	-0.8456	24.45	-1.50	-0.050			
0.1550	9920.52	3.9730	3.9730	-0.8485	24.43	-1.52	-0.050			
0.1559	9975.13	3.9720	3.9719	-0.8506	24.40	-1.55	-0.050			
0.1567	10029.79	3.9710	3.9711	-0.8532	24.38	-1.57	-0.050			
0.1576	10084.57	3.9700	3.9700	-0.8551	24.36	-1.59	-0.050			
0.1584	10139.26	3.9690	3.9689	-0.8572	24.36	-1.59	-0.050			
0.1593	10194.84	3.9680	3.9681	-0.8601	24.36	-1.59	-0.050			
0.1602	10249.61	3.9670	3.9671	-0.8629	24.36	-1.59	-0.050	0.302	0.590	
0.1610	10304.83	3.9660	3.9659	-0.8648	24.36	-1.59	-0.050			
0.1619	10360.27	3.9650	3.9650	-0.8671	24.38	-1.57	-0.050			
0.1627	10415.92	3.9640	3.9640	-0.8685	24.38	-1.57	-0.050			
0.1636	10471.71	3.9630	3.9630	-0.8696	24.40	-1.55	-0.050			
0.1645	10527.55	3.9620	3.9620	-0.8712	24.42	-1.53	-0.050			
0.1654	10583.07	3.9610	3.9610	-0.8727	24.44	-1.51	-0.050			
0.1662	10639.21	3.9600	3.9600	-0.8749	24.47	-1.48	-0.050			
0.1671	10695.04	3.9590	3.9589	-0.8763	24.50	-1.45	-0.050			
0.1680	10751.34	3.9580	3.9579	-0.8778	24.53	-1.42	-0.050			
0.1689	10807.52	3.9570	3.9570	-0.8793	24.56	-1.39	-0.050			
0.1697	10863.77	3.9560	3.9560	-0.8816	24.59	-1.36	-0.050			
0.1706	10920.16	3.9550	3.9550	-0.8836	24.63	-1.32	-0.050			
0.1715	10976.98	3.9540	3.9540	-0.8854	24.67	-1.28	-0.050			
0.1724	11033.81	3.9530	3.9530	-0.8879	24.72	-1.23	-0.050			
0.1733	11090.58	3.9520	3.9520	-0.8890	24.75	-1.20	-0.050			
0.1742	11147.37	3.9510	3.9511	-0.8911	24.79	-1.16	-0.050			
0.1751	11204.36	3.9500	3.9499	-0.8928	24.84	-1.11	-0.050			
0.1760	11261.52	3.9490	3.9489	-0.8939	24.87	-1.08	-0.050			
0.1769	11318.99	3.9480	3.9479	-0.8948	24.92	-1.03	-0.050			
0.1778	11376.15	3.9470	3.9469	-0.8961	24.96	-0.99	-0.050			
0.1787	11434.06	3.9460	3.9460	-0.8965	24.98	-0.97	-0.050			
0.1796	11491.79	3.9450	3.9449	-0.8981	25.02	-0.93	-0.050			
0.1805	11549.79	3.9440	3.9440	-0.8992	25.05	-0.90	-0.050	0.424	0.510	
0.1814	11606.91	3.9430	3.9430	-0.9021	25.08	-0.87	-0.050			
0.1823	11664.37	3.9420	3.9420	-0.9035	25.12	-0.83	-0.050			
0.1832	11722.39	3.9410	3.9410	-0.9048	25.16	-0.79	-0.050			
0.1841	11780.02	3.9400	3.9400	-0.9062	25.20	-0.75	-0.050			
0.1850	11838.03	3.9390	3.9390	-0.9082	25.24	-0.71	-0.050			
0.1859	11896.23	3.9380	3.9381	-0.9093	25.28	-0.67	-0.050			
0.1868	11954.40	3.9370	3.9371	-0.9104	25.33	-0.62	-0.050			
0.1877	12012.64	3.9360	3.9358	-0.9114	25.37	-0.58	-0.050			
0.1886	12071.46	3.9350	3.9350	-0.9118	25.40	-0.55	-0.050			
0.1895	12129.72	3.9340	3.9339	-0.9130	25.45	-0.50	-0.050			
0.1904	12188.32	3.9330	3.9331	-0.9137	25.50	-0.45	-0.050			
0.1914	12246.98	3.9320	3.9321	-0.9147	25.56	-0.39	-0.050			
0.1923	12305.83	3.9310	3.9310	-0.9149	25.60	-0.35	-0.050			
0.1932	12364.71	3.9300	3.9300	-0.9155	25.65	-0.30	-0.050			
0.1941	12423.42	3.9290	3.9290	-0.9163	25.69	-0.26	-0.050			
0.1950	12482.57	3.9280	3.9280	-0.9166	25.74	-0.21	-0.050			
0.1960	12541.60	3.9270	3.9270	-0.9159	25.77	-0.18	-0.050			
0.1969	12600.06	3.9260	3.9261	-0.9167	25.79	-0.16	-0.050			
0.1978	12658.66	3.9250	3.9249	-0.9153	25.81	-0.14	-0.050			
0.1987	12717.14	3.9240	3.9240	-0.9135	25.83	-0.12	-0.050			
0.1996	12775.12	3.9230	3.9229	-0.9115	25.87	-0.08	-0.050			
0.2005	12833.82	3.9220	3.9220	-0.9113	25.90	-0.05	-0.050	0.250	0.448	
0.2014	12891.94	3.9210	3.9210	-0.9108	25.92	-0.03	-0.050			
0.2023	12949.96	3.9200	3.9200	-0.9106	25.95	0.00	-0.050			
0.2033	13008.43	3.9190	3.9190	-0.9103	25.98	0.03	-0.050			
0.2042	13066.94	3.9180	3.9180	-0.9090	26.01	0.06	-0.050			
0.2051	13125.42	3.9170	3.9169	-0.9077	26.04	0.09	-0.050			
0.2060	13183.90	3.9160	3.9160	-0.9051	26.04	0.09	-0.050			
0.2069	13242.40	3.9150	3.9149	-0.9027	26.01	0.06	-0.050			
0.2078	13300.37	3.9140	3.9140	-0.9000	25.97	0.02	-0.050			
0.2087	13357.98	3.9130	3.9130	-0.8972	25.89	-0.06	-0.050			
0.2096	13415.15	3.9120	3.9120	-0.8945	25.81	-0.14	-0.050			
0.2105	13472.26	3.9110	3.9111	-0.8935	25.73	-0.22	-0.050			
0.2114	13529.28	3.9100	3.9100	-0.8905	25.63	-0.32	-0.050			
0.2123	13585.63	3.9090	3.9091	-0.8894	25.53	-0.42	-0.050			
0.2132	13642.28	3.9080	3.9082	-0.8877	25.42	-0.53	-0.050			
0.2140	13698.72	3.9070	3.9069	-0.8878	25.32	-0.63	-0.050			
0.2149	13754.57	3.9060	3.9059	-0.8866	25.21	-0.74	-0.050			
0.2158	13811.27	3.9050	3.9050	-0.8865	25.11	-0.84	-0.050			
0.2167	13867.74	3.9040	3.9039	-0.8860	25.00	-0.95	-0.050			
0.2176	13924.20	3.9030	3.9029	-0.8865	24.90	-1.05	-0.050			
0.2184	13980.30	3.9020	3.9020	-0.8862	24.81	-1.14	-0.050			
0.2193	14036.62	3.9010	3.9011	-0.8875	24.73	-1.22	-0.050			
0.2202	14093.40	3.9000	3.9001	-0.8880	24.65	-1.30	-0.050	0.450	0.595	
0.2211	14150.38	3.8990	3.8990	-0.8896	24.56	-1.39	-0.050			
0.2220	14207.64	3.8980	3.8980	-0.8927	24.49	-1.46	-0.050			
0.2229	14265.29	3.8970	3.8971	-0.8964	24.42	-1.53	-0.050			
0.2238	14322.46	3.8960	3.8961	-0.8985	24.37	-1.58	-0.050			
0.2247	14379.91	3.8950	3.8949	-0.9009	24.31	-1.64	-0.050			
0.2256	14437.40	3.8940	3.8940	-0.9041	24.27	-1.68	-0.050			
0.2265	14495.13	3.8930	3.8930	-0.9056	24.24	-1.71	-0.050			
0.2274	14553.09	3.8920	3.8920	-0.9072	24.21	-1.74	-0.050			
0.2283	14611.21	3.8910	3.8910	-0.9091	24.19	-1.76	-0.050			
0.2292	14669.55	3.8900	3.8901	-0.9122	24.17	-1.78	-0.050			
0.2301	14728.07	3.8890	3.8889	-0.9130	24.16	-1.79	-0.050			
0.2310	14786.93	3.8880	3.8880	-0.9148	24.18	-1.77	-0.050			
0.2320	14845.33	3.8870	3.8870	-0.9176	24.18	-1.77	-0.050			
0.2329	14904.14	3.8860	3.8860	-0.9206	24.18	-1.77	-0.050			
0.2338	14963.49	3.8850	3.8850	-0.9240	24.20	-1.75	-0.050			
0.2347	15022.48	3.8840	3.8841	-0.9265	24.23	-1.72	-0.050			
0.2357	15081.82	3.8830	3.8830	-0.9288	24.26	-1.69	-0.050			
0.2366	15141.25	3.8820	3.8820	-0.9314	24.29	-1.66	-0.050			
0.2375	15201.06	3.8810	3.8808	-0.9337	24.31	-1.64	-0.050			
0.2385	15261.04	3.8800	3.8801	-0.9362	24.35	-1.60	-0.050			
0.2394	15321.15	3.8790	3.8789	-0.9374	24.38	-1.57	-0.050			
0.2403	15380.89	3.8780	3.8782	-0.9385	24.42	-1.53	-0.050	0.297	0.526	
0.2413	15441.03	3.8770	3.8770	-0.9401	24.46	-1.49	-0.050			
0.2422	15501.10	3.8760	3.8761	-0.9422	24.49	-1.46	-0.050			
0.2431	15561.45	3.8750	3.8750	-0.9448	24.54	-1.41	-0.050			
0.2441	15622.40	3.8740	3.8740	-0.9455	24.58	-1.37	-0.050			
0.2451	15683.54	3.8730	3.8729	-0.9473	24.63	-1.32	-0.050			
0.2460	15744.71	3.8720	3.8720	-0.9483	24.67	-1.28	-0.050			
0.2470	15805.66	3.8710	3.8710	-0.9495	24.70	-1.25	-0.050			
0.2479	15866.26	3.8700	3.8700	-0.9505	24.75	-1.20	-0.050			
0.2489	15927.38	3.8690	3.8689	-0.9523	24.79	-1.16	-0.050			
0.2498	15987.97	3.8680	3.8681	-0.9527	24.84	-1.11	-0.050			
0.2508	16048.51	3.8670	3.8670	-0.9543	24.88	-1.07	-0.050			
0.2517	16109.22	3.8660	3.8661	-0.9554	24.93	-1.02	-0.050			
0.2527	16170.31	3.8650	3.8651	-0.9577	24.98	-0.97	-0.050			
0.2536	16231.46	3.8640	3.8640	-0.9586	25.02	-0.93	-0.050			
0.2546	16292.92	3.8630	3.8631	-0.9606	25.08	-0.87	-0.050			
0.2555	16354.45	3.8620	3.8619	-0.9619	25.13	-0.82	-0.050			
0.2565	16416.16	3.8610	3.8609	-0.9632	25.18	-0.77	-0.050			
0.2575	16478.04	3.8600	3.8600	-0.9650	25.23	-0.72	-0.050			
0.2584	16539.89	3.8590	3.8590	-0.9669	25.29	-0.66	-0.050			
0.2594	16601.85	3.8580	3.8580	-0.9676	25.34	-0.61	-0.050			
0.2604	16664.26	3.8570	3.8570	-0.9690	25.39	-0.56	-0.050	0.322	0.522	
0.2613	16726.24	3.8560	3.8560	-0.9701	25.44	-0.51	-0.050			
0.2623	16788.55	3.8550	3.8550	-0.9706	25.49	-0.46	-0.050			
0.2633	16851.55	3.8540	3.8540	-0.9724	25.55	-0.40	-0.050			
0.2643	16913.87	3.8530	3.8530	-0.9726	25.60	-0.35	-0.050			
