Ah_balance (normalized)	Ah_balance (mAh)	Voltage - fit (V)	Voltage -  interpolate (V)	dQ/dV (1/V)	Temperature (°C)	Temperature - diff (°C)	Current (C)	R_DC 0ms (mOhm)	R_DC 50ms (mOhm)	R_DC 50 ms PEC (mOhm)
-0.0036	-231.06	4.1990	4.1990	0.8069	25.07	-0.18	0.050			
-0.0028	-179.29	4.1980	4.1979	0.8107	25.07	-0.18	0.050			
-0.0020	-127.15	4.1970	4.1970	0.8170	25.08	-0.17	0.050			
-0.0012	-74.64	4.1960	4.1961	0.8215	25.08	-0.17	0.050			
-0.0003	-21.89	4.1950	4.1950	0.8253	25.09	-0.16	0.050			
0.0005	31.82	4.1940	4.1940	0.8299	25.10	-0.15	0.050			
0.0013	84.94	4.1930	4.1930	0.8320	25.10	-0.15	0.050			
0.0022	138.36	4.1920	4.1920	0.8341	25.11	-0.14	0.050			
0.0030	192.18	4.1910	4.1910	0.8356	25.12	-0.13	0.050			
0.0038	245.91	4.1900	4.1900	0.8365	25.11	-0.14	0.050			
0.0047	299.68	4.1890	4.1889	0.8370	25.12	-0.13	0.050			
0.0055	354.09	4.1880	4.1879	0.8379	25.12	-0.13	0.050			
0.0064	407.61	4.1870	4.1871	0.8382	25.12	-0.13	0.050			
0.0072	461.12	4.1860	4.1860	0.8383	25.13	-0.12	0.050			
0.0080	515.05	4.1850	4.1851	0.8401	25.14	-0.11	0.050			
0.0089	568.91	4.1840	4.1840	0.8409	25.14	-0.11	0.050			
0.0097	622.91	4.1830	4.1830	0.8411	25.14	-0.11	0.050			
0.0106	676.49	4.1820	4.1821	0.8408	25.15	-0.10	0.050			
0.0114	729.94	4.1810	4.1809	0.8410	25.16	-0.09	0.050			
0.0122	783.78	4.1800	4.1800	0.8408	25.16	-0.09	0.050			
0.0131	837.42	4.1790	4.1789	0.8407	25.16	-0.09	0.050			
0.0139	890.75	4.1780	4.1778	0.8422	25.16	-0.09	0.050			
0.0148	944.84	4.1770	4.1769	0.8417	25.17	-0.08	0.050			
0.0156	999.10	4.1760	4.1761	0.8422	25.17	-0.08	0.050			
0.0165	1053.18	4.1750	4.1751	0.8413	25.17	-0.08	0.050			
0.0173	1107.29	4.1740	4.1740	0.8417	25.16	-0.09	0.050			
0.0181	1161.58	4.1730	4.1730	0.8422	25.17	-0.08	0.050			
0.0190	1215.33	4.1720	4.1720	0.8405	25.17	-0.08	0.050			
0.0198	1269.08	4.1710	4.1711	0.8426	25.18	-0.07	0.050			
0.0207	1323.23	4.1700	4.1700	0.8429	25.17	-0.08	0.050			
0.0215	1377.02	4.1690	4.1691	0.8430	25.16	-0.09	0.050			
0.0224	1430.63	4.1680	4.1681	0.8442	25.17	-0.08	0.050			
0.0232	1483.97	4.1670	4.1669	0.8444	25.16	-0.09	0.050			
0.0240	1537.41	4.1660	4.1660	0.8449	25.16	-0.09	0.050			
0.0249	1592.03	4.1650	4.1650	0.8446	25.16	-0.09	0.050			
0.0257	1646.30	4.1640	4.1638	0.8459	25.16	-0.09	0.050			
0.0266	1700.40	4.1630	4.1630	0.8460	25.16	-0.09	0.050			
0.0274	1754.36	4.1620	4.1618	0.8471	25.15	-0.10	0.050			
0.0283	1808.71	4.1610	4.1611	0.8469	25.14	-0.11	0.050			
0.0291	1863.11	4.1600	4.1600	0.8477	25.14	-0.11	0.050			
0.0300	1917.48	4.1590	4.1590	0.8487	25.14	-0.11	0.050			
0.0308	1971.74	4.1580	4.1581	0.8501	25.13	-0.12	0.050			
0.0317	2025.88	4.1570	4.1571	0.8525	25.12	-0.13	0.050			
0.0325	2080.92	4.1560	4.1560	0.8551	25.12	-0.13	0.050			
0.0334	2135.65	4.1550	4.1550	0.8555	25.12	-0.13	0.050			
0.0342	2190.89	4.1540	4.1539	0.8562	25.12	-0.13	0.050			
0.0351	2245.51	4.1530	4.1530	0.8564	25.12	-0.13	0.050			
0.0359	2300.44	4.1520	4.1520	0.8563	25.12	-0.13	0.050			
0.0368	2354.67	4.1510	4.1509	0.8563	25.11	-0.14	0.050			
0.0376	2409.53	4.1500	4.1500	0.8578	25.11	-0.14	0.050			
0.0385	2464.60	4.1490	4.1490	0.8586	25.11	-0.14	0.050			
0.0394	2519.41	4.1480	4.1480	0.8587	25.12	-0.13	0.050			
0.0402	2574.51	4.1470	4.1471	0.8611	25.11	-0.14	0.050			
0.0411	2629.67	4.1460	4.1460	0.8616	25.12	-0.13	0.050			
0.0420	2685.58	4.1450	4.1450	0.8641	25.10	-0.15	0.050			
0.0428	2741.36	4.1440	4.1439	0.8627	25.10	-0.15	0.050			
0.0437	2796.78	4.1430	4.1429	0.8619	25.11	-0.14	0.050			
0.0446	2851.94	4.1420	4.1420	0.8614	25.12	-0.13	0.050			
0.0454	2907.34	4.1410	4.1409	0.8600	25.12	-0.13	0.050			
0.0463	2962.33	4.1400	4.1401	0.8597	25.12	-0.13	0.050			
0.0471	3017.43	4.1390	4.1390	0.8582	25.11	-0.14	0.050			
0.0480	3072.29	4.1380	4.1380	0.8562	25.11	-0.14	0.050			
0.0489	3127.18	4.1370	4.1370	0.8543	25.11	-0.14	0.050			
0.0497	3181.89	4.1360	4.1361	0.8540	25.10	-0.15	0.050			
0.0506	3236.63	4.1350	4.1350	0.8532	25.10	-0.15	0.050			
0.0514	3291.68	4.1340	4.1340	0.8513	25.10	-0.15	0.050			
0.0523	3345.87	4.1330	4.1329	0.8501	25.10	-0.15	0.050			
0.0531	3399.81	4.1320	4.1320	0.8485	25.10	-0.15	0.050			
0.0540	3454.07	4.1310	4.1310	0.8475	25.10	-0.15	0.050			
0.0548	3507.64	4.1300	4.1301	0.8461	25.09	-0.16	0.050			
0.0556	3561.58	4.1290	4.1290	0.8458	25.10	-0.15	0.050			
0.0565	3615.50	4.1280	4.1282	0.8452	25.09	-0.16	0.050			
0.0573	3669.34	4.1270	4.1269	0.8434	25.10	-0.15	0.050			
0.0582	3723.26	4.1260	4.1260	0.8435	25.09	-0.16	0.050			
0.0590	3777.20	4.1250	4.1250	0.8450	25.09	-0.16	0.050			
0.0599	3831.10	4.1240	4.1241	0.8467	25.08	-0.17	0.050			
0.0607	3885.04	4.1230	4.1230	0.8486	25.08	-0.17	0.050			
0.0615	3938.85	4.1220	4.1220	0.8497	25.08	-0.17	0.050			
0.0624	3993.04	4.1210	4.1210	0.8510	25.08	-0.17	0.050			
0.0632	4047.69	4.1200	4.1203	0.8520	25.08	-0.17	0.050			
0.0641	4102.14	4.1190	4.1189	0.8534	25.08	-0.17	0.050			
0.0650	4156.88	4.1180	4.1180	0.8562	25.08	-0.17	0.050			
0.0658	4211.71	4.1170	4.1170	0.8587	25.08	-0.17	0.050			
0.0667	4266.87	4.1160	4.1160	0.8601	25.08	-0.17	0.050			
0.0675	4322.10	4.1150	4.1150	0.8618	25.08	-0.17	0.050			
0.0684	4377.41	4.1140	4.1141	0.8629	25.08	-0.17	0.050			
0.0693	4432.64	4.1130	4.1129	0.8647	25.08	-0.17	0.050			
0.0701	4488.10	4.1120	4.1120	0.8673	25.10	-0.15	0.050			
0.0710	4543.62	4.1110	4.1111	0.8687	25.09	-0.16	0.050			
0.0719	4599.33	4.1100	4.1099	0.8715	25.09	-0.16	0.050			
0.0727	4655.58	4.1090	4.1090	0.8726	25.09	-0.16	0.050			
0.0736	4712.00	4.1080	4.1079	0.8723	25.10	-0.15	0.050			
0.0745	4768.20	4.1070	4.1070	0.8730	25.10	-0.15	0.050			
0.0754	4824.18	4.1060	4.1060	0.8726	25.10	-0.15	0.050	0.282	0.445	
0.0762	4879.65	4.1050	4.1049	0.8723	25.10	-0.15	0.050			
0.0771	4936.12	4.1040	4.1041	0.8710	25.10	-0.15	0.050			
0.0780	4991.73	4.1030	4.1031	0.8723	25.11	-0.14	0.050			
0.0789	5047.59	4.1020	4.1020	0.8729	25.11	-0.14	0.050			
0.0797	5103.41	4.1010	4.1011	0.8733	25.10	-0.15	0.050			
0.0806	5159.38	4.1000	4.1001	0.8736	25.11	-0.14	0.050			
0.0815	5215.22	4.0990	4.0990	0.8724	25.12	-0.13	0.050			
0.0824	5271.22	4.0980	4.0979	0.8718	25.11	-0.14	0.050			
0.0832	5326.84	4.0970	4.0971	0.8716	25.12	-0.13	0.050			
0.0841	5382.33	4.0960	4.0960	0.8733	25.12	-0.13	0.050			
0.0850	5438.15	4.0950	4.0951	0.8738	25.12	-0.13	0.050			
0.0858	5493.67	4.0940	4.0940	0.8732	25.12	-0.13	0.050			
0.0867	5549.36	4.0930	4.0931	0.8736	25.12	-0.13	0.050			
0.0876	5605.02	4.0920	4.0922	0.8736	25.12	-0.13	0.050			
0.0885	5661.34	4.0910	4.0908	0.8739	25.12	-0.13	0.050			
0.0893	5717.69	4.0900	4.0900	0.8735	25.12	-0.13	0.050			
0.0902	5774.21	4.0890	4.0889	0.8746	25.12	-0.13	0.050			
0.0911	5829.89	4.0880	4.0879	0.8745	25.12	-0.13	0.050			
0.0920	5885.72	4.0870	4.0870	0.8754	25.12	-0.13	0.050			
0.0928	5941.85	4.0860	4.0860	0.8766	25.12	-0.13	0.050			
0.0937	5997.76	4.0850	4.0850	0.8768	25.12	-0.13	0.050			
0.0946	6053.83	4.0840	4.0840	0.8779	25.12	-0.13	0.050			
0.0955	6110.07	4.0830	4.0830	0.8780	25.12	-0.13	0.050			
0.0963	6166.11	4.0820	4.0821	0.8772	25.12	-0.13	0.050			
0.0972	6221.68	4.0810	4.0810	0.8810	25.12	-0.13	0.050			
0.0981	6277.83	4.0800	4.0798	0.8825	25.13	-0.12	0.050			
0.0990	6334.02	4.0790	4.0790	0.8855	25.12	-0.13	0.050			
0.0999	6390.54	4.0780	4.0779	0.8874	25.13	-0.12	0.050			
0.1007	6447.46	4.0770	4.0770	0.8888	25.13	-0.12	0.050			
0.1016	6504.12	4.0760	4.0760	0.8893	25.14	-0.11	0.050			
0.1025	6561.42	4.0750	4.0750	0.8907	25.14	-0.11	0.050			
0.1034	6619.11	4.0740	4.0740	0.8927	25.14	-0.11	0.050			
0.1043	6676.68	4.0730	4.0728	0.8934	25.14	-0.11	0.050			
0.1052	6734.45	4.0720	4.0719	0.8954	25.16	-0.09	0.050			
0.1061	6792.14	4.0710	4.0711	0.8967	25.16	-0.09	0.050			
0.1070	6849.91	4.0700	4.0700	0.8977	25.16	-0.09	0.050			
0.1079	6907.62	4.0690	4.0690	0.8958	25.16	-0.09	0.050			
0.1088	6965.53	4.0680	4.0680	0.8937	25.16	-0.09	0.050			
0.1097	7022.65	4.0670	4.0669	0.8931	25.18	-0.07	0.050			
0.1106	7079.72	4.0660	4.0659	0.8926	25.18	-0.07	0.050			
0.1115	7136.89	4.0650	4.0651	0.8917	25.18	-0.07	0.050			
0.1124	7193.74	4.0640	4.0639	0.8921	25.18	-0.07	0.050			
0.1133	7250.75	4.0630	4.0631	0.8909	25.19	-0.06	0.050			
0.1142	7307.47	4.0620	4.0620	0.8903	25.18	-0.07	0.050			
0.1151	7363.68	4.0610	4.0610	0.8867	25.18	-0.07	0.050	0.410	0.527	
0.1159	7420.26	4.0600	4.0600	0.8880	25.18	-0.07	0.050			
0.1168	7476.73	4.0590	4.0589	0.8880	25.19	-0.06	0.050			
0.1177	7533.59	4.0580	4.0581	0.8891	25.18	-0.07	0.050			
0.1186	7590.66	4.0570	4.0569	0.8897	25.18	-0.07	0.050			
0.1195	7647.50	4.0560	4.0560	0.8914	25.18	-0.07	0.050			
0.1204	7704.22	4.0550	4.0550	0.8918	25.18	-0.07	0.050			
0.1213	7761.16	4.0540	4.0541	0.8932	25.18	-0.07	0.050			
0.1222	7818.30	4.0530	4.0530	0.8936	25.17	-0.08	0.050			
0.1231	7875.82	4.0520	4.0520	0.8946	25.16	-0.09	0.050			
0.1240	7932.85	4.0510	4.0508	0.8959	25.16	-0.09	0.050			
0.1249	7990.86	4.0500	4.0501	0.8979	25.15	-0.10	0.050			
0.1258	8048.65	4.0490	4.0491	0.8979	25.14	-0.11	0.050			
0.1267	8106.47	4.0480	4.0480	0.8985	25.14	-0.11	0.050			
0.1276	8163.75	4.0470	4.0469	0.8995	25.12	-0.13	0.050			
0.1285	8220.83	4.0460	4.0461	0.8999	25.12	-0.13	0.050			
0.1293	8278.36	4.0450	4.0450	0.9027	25.12	-0.13	0.050			
0.1302	8335.71	4.0440	4.0440	0.9034	25.11	-0.14	0.050			
0.1312	8394.16	4.0430	4.0429	0.9048	25.10	-0.15	0.050			
0.1321	8452.20	4.0420	4.0421	0.9053	25.10	-0.15	0.050			
0.1330	8510.08	4.0410	4.0410	0.9063	25.09	-0.16	0.050			
0.1339	8567.92	4.0400	4.0400	0.9064	25.08	-0.17	0.050			
0.1348	8625.80	4.0390	4.0388	0.9083	25.08	-0.17	0.050	0.402	0.454	
0.1357	8684.38	4.0380	4.0380	0.9095	25.07	-0.18	0.050			
0.1366	8742.48	4.0370	4.0370	0.9101	25.08	-0.17	0.050			
0.1375	8800.53	4.0360	4.0360	0.9108	25.06	-0.19	0.050			
0.1384	8858.98	4.0350	4.0350	0.9135	25.06	-0.19	0.050			
0.1393	8917.36	4.0340	4.0341	0.9148	25.06	-0.19	0.050			
0.1403	8976.45	4.0330	4.0331	0.9160	25.05	-0.20	0.050			
0.1412	9035.08	4.0320	4.0320	0.9173	25.05	-0.20	0.050			
0.1421	9093.99	4.0310	4.0311	0.9187	25.06	-0.19	0.050			
0.1430	9153.10	4.0300	4.0299	0.9192	25.06	-0.19	0.050			
0.1439	9211.86	4.0290	4.0291	0.9202	25.06	-0.19	0.050			
0.1449	9271.12	4.0280	4.0280	0.9195	25.06	-0.19	0.050			
0.1458	9328.98	4.0270	4.0270	0.9205	25.06	-0.19	0.050			
0.1467	9387.52	4.0260	4.0259	0.9216	25.06	-0.19	0.050			
0.1476	9446.86	4.0250	4.0250	0.9222	25.06	-0.19	0.050			
0.1485	9505.95	4.0240	4.0241	0.9227	25.06	-0.19	0.050			
0.1495	9565.48	4.0230	4.0230	0.9253	25.06	-0.19	0.050			
0.1504	9624.92	4.0220	4.0220	0.9269	25.06	-0.19	0.050			
0.1513	9683.93	4.0210	4.0210	0.9261	25.06	-0.19	0.050			
0.1522	9743.44	4.0200	4.0201	0.9272	25.06	-0.19	0.050			
0.1532	9802.81	4.0190	4.0190	0.9265	25.07	-0.18	0.050			
0.1541	9861.85	4.0180	4.0180	0.9287	25.08	-0.17	0.050			
0.1550	9921.25	4.0170	4.0169	0.9291	25.08	-0.17	0.050	0.229	0.423	
0.1560	9981.52	4.0160	4.0162	0.9282	25.08	-0.17	0.050			
0.1569	10040.74	4.0150	4.0149	0.9280	25.09	-0.16	0.050			
0.1578	10100.22	4.0140	4.0141	0.9294	25.09	-0.16	0.050			
0.1587	10159.96	4.0130	4.0130	0.9303	25.10	-0.15	0.050			
0.1597	10219.52	4.0120	4.0119	0.9307	25.10	-0.15	0.050			
0.1606	10279.11	4.0110	4.0110	0.9296	25.10	-0.15	0.050			
0.1615	10338.33	4.0100	4.0100	0.9319	25.10	-0.15	0.050			
0.1625	10397.59	4.0090	4.0089	0.9321	25.12	-0.13	0.050			
0.1634	10456.86	4.0080	4.0080	0.9349	25.12	-0.13	0.050			
0.1643	10515.69	4.0070	4.0071	0.9353	25.13	-0.12	0.050			
0.1652	10575.66	4.0060	4.0060	0.9369	25.13	-0.12	0.050			
0.1662	10635.88	4.0050	4.0049	0.9406	25.13	-0.12	0.050			
0.1671	10696.11	4.0040	4.0041	0.9422	25.13	-0.12	0.050			
0.1681	10756.75	4.0030	4.0030	0.9439	25.14	-0.11	0.050			
0.1690	10817.11	4.0020	4.0019	0.9456	25.14	-0.11	0.050			
0.1700	10877.95	4.0010	4.0009	0.9466	25.14	-0.11	0.050			
0.1709	10938.98	4.0000	4.0001	0.9481	25.14	-0.11	0.050			
0.1719	10999.82	3.9990	3.9989	0.9493	25.14	-0.11	0.050			
0.1728	11060.64	3.9980	3.9982	0.9504	25.15	-0.10	0.050			
0.1738	11122.05	3.9970	3.9971	0.9507	25.16	-0.09	0.050			
0.1748	11184.02	3.9960	3.9960	0.9526	25.16	-0.09	0.050	0.418	0.478	
0.1757	11244.70	3.9950	3.9949	0.9539	25.16	-0.09	0.050			
0.1766	11305.34	3.9940	3.9941	0.9538	25.14	-0.11	0.050			
0.1776	11366.60	3.9930	3.9931	0.9550	25.15	-0.10	0.050			
0.1786	11427.82	3.9920	3.9920	0.9545	25.15	-0.10	0.050			
0.1795	11488.71	3.9910	3.9909	0.9535	25.14	-0.11	0.050			
0.1805	11549.65	3.9900	3.9899	0.9513	25.15	-0.10	0.050			
0.1814	11610.33	3.9890	3.9890	0.9515	25.14	-0.11	0.050			
0.1824	11671.44	3.9880	3.9880	0.9502	25.15	-0.10	0.050			
0.1833	11732.80	3.9870	3.9868	0.9495	25.14	-0.11	0.050			
0.1843	11793.89	3.9860	3.9860	0.9490	25.14	-0.11	0.050			
0.1852	11854.57	3.9850	3.9851	0.9480	25.14	-0.11	0.050			
0.1862	11915.31	3.9840	3.9841	0.9483	25.14	-0.11	0.050			
0.1871	11975.81	3.9830	3.9831	0.9493	25.14	-0.11	0.050			
0.1881	12036.01	3.9820	3.9820	0.9487	25.14	-0.11	0.050			
0.1890	12096.93	3.9810	3.9811	0.9493	25.14	-0.11	0.050			
0.1900	12157.41	3.9800	3.9799	0.9491	25.14	-0.11	0.050			
0.1909	12217.47	3.9790	3.9792	0.9505	25.14	-0.11	0.050			
0.1918	12277.92	3.9780	3.9780	0.9518	25.14	-0.11	0.050			
0.1928	12338.94	3.9770	3.9769	0.9525	25.14	-0.11	0.050			
0.1937	12399.76	3.9760	3.9759	0.9535	25.14	-0.11	0.050			
0.1947	12459.85	3.9750	3.9751	0.9547	25.15	-0.10	0.050			
0.1956	12520.96	3.9740	3.9739	0.9572	25.15	-0.10	0.050			
0.1966	12582.28	3.9730	3.9731	0.9608	25.16	-0.09	0.050			
0.1976	12644.10	3.9720	3.9720	0.9638	25.15	-0.10	0.050			
0.1985	12705.83	3.9710	3.9709	0.9663	25.16	-0.09	0.050			
0.1995	12767.85	3.9700	3.9699	0.9703	25.16	-0.09	0.050			
0.2005	12829.83	3.9690	3.9691	0.9734	25.16	-0.09	0.050			
0.2014	12892.46	3.9680	3.9681	0.9775	25.16	-0.09	0.050			
0.2024	12955.69	3.9670	3.9669	0.9797	25.17	-0.08	0.050			
0.2034	13018.50	3.9660	3.9658	0.9802	25.18	-0.07	0.050			
0.2044	13081.66	3.9650	3.9649	0.9806	25.18	-0.07	0.050			
0.2054	13144.54	3.9640	3.9640	0.9813	25.18	-0.07	0.050			
0.2064	13207.65	3.9630	3.9630	0.9834	25.18	-0.07	0.050			
0.2074	13270.95	3.9620	3.9620	0.9850	25.17	-0.08	0.050			
0.2083	13334.33	3.9610	3.9610	0.9867	25.17	-0.08	0.050			
0.2093	13397.46	3.9600	3.9600	0.9859	25.17	-0.08	0.050			
0.2103	13460.87	3.9590	3.9591	0.9857	25.16	-0.09	0.050			
0.2113	13524.41	3.9580	3.9581	0.9859	25.17	-0.08	0.050			
0.2123	13587.77	3.9570	3.9570	0.9871	25.16	-0.09	0.050			
0.2133	13651.01	3.9560	3.9558	0.9856	25.14	-0.11	0.050			
0.2143	13713.41	3.9550	3.9550	0.9853	25.14	-0.11	0.050			
0.2153	13776.62	3.9540	3.9541	0.9851	25.14	-0.11	0.050			
0.2162	13839.48	3.9530	3.9530	0.9851	25.13	-0.12	0.050			
0.2172	13902.14	3.9520	3.9521	0.9854	25.12	-0.13	0.050			
0.2182	13964.70	3.9510	3.9510	0.9867	25.11	-0.14	0.050			
0.2192	14027.39	3.9500	3.9500	0.9866	25.10	-0.15	0.050			
0.2202	14090.42	3.9490	3.9490	0.9879	25.09	-0.16	0.050			
0.2212	14153.90	3.9480	3.9480	0.9880	25.08	-0.17	0.050			
0.2222	14217.66	3.9470	3.9472	0.9901	25.07	-0.18	0.050			
0.2231	14281.03	3.9460	3.9459	0.9932	25.06	-0.19	0.050			
0.2241	14343.86	3.9450	3.9450	0.9952	25.05	-0.20	0.050			
0.2251	14407.35	3.9440	3.9440	0.9961	25.04	-0.21	0.050			
0.2261	14470.91	3.9430	3.9429	0.9986	25.04	-0.21	0.050			
0.2271	14535.26	3.9420	3.9420	0.9999	25.03	-0.22	0.050			
0.2281	14599.26	3.9410	3.9410	1.0029	25.03	-0.22	0.050			
0.2291	14663.50	3.9400	3.9400	1.0067	25.03	-0.22	0.050			
0.2301	14727.77	3.9390	3.9391	1.0103	25.02	-0.23	0.050			
0.2311	14792.39	3.9380	3.9377	1.0127	25.02	-0.23	0.050			
0.2322	14857.90	3.9370	3.9370	1.0128	25.02	-0.23	0.050			
0.2332	14923.27	3.9360	3.9361	1.0158	25.02	-0.23	0.050			
0.2342	14988.43	3.9350	3.9351	1.0155	25.02	-0.23	0.050			
0.2352	15053.78	3.9340	3.9340	1.0145	25.03	-0.22	0.050	-0.090	0.270	
0.2362	15119.34	3.9330	3.9331	1.0163	25.04	-0.21	0.050			
0.2373	15184.07	3.9320	3.9319	1.0156	25.05	-0.20	0.050			
0.2383	15249.82	3.9310	3.9311	1.0164	25.06	-0.19	0.050			
0.2393	15315.50	3.9300	3.9299	1.0173	25.06	-0.19	0.050			
0.2403	15380.70	3.9290	3.9290	1.0166	25.07	-0.18	0.050			
0.2413	15446.03	3.9280	3.9281	1.0164	25.08	-0.17	0.050			
0.2424	15511.15	3.9270	3.9269	1.0132	25.09	-0.16	0.050			
0.2434	15576.09	3.9260	3.9260	1.0089	25.10	-0.15	0.050			
0.2444	15640.68	3.9250	3.9251	1.0071	25.10	-0.15	0.050			
0.2454	15705.24	3.9240	3.9239	1.0071	25.10	-0.15	0.050			
0.2464	15769.40	3.9230	3.9230	1.0037	25.12	-0.13	0.050			
0.2474	15833.38	3.9220	3.9220	1.0026	25.12	-0.13	0.050			
0.2484	15896.45	3.9210	3.9210	1.0021	25.12	-0.13	0.050			
0.2494	15960.07	3.9200	3.9200	1.0007	25.12	-0.13	0.050			
0.2504	16023.88	3.9190	3.9191	1.0007	25.14	-0.11	0.050			
0.2514	16087.91	3.9180	3.9182	1.0011	25.14	-0.11	0.050			
0.2524	16152.13	3.9170	3.9168	1.0034	25.14	-0.11	0.050			
0.2534	16215.97	3.9160	3.9158	1.0038	25.15	-0.10	0.050			
0.2544	16279.67	3.9150	3.9150	1.0053	25.16	-0.09	0.050			
0.2554	16343.03	3.9140	3.9139	1.0088	25.16	-0.09	0.050	0.145	0.483	
0.2564	16407.43	3.9130	3.9129	1.0107	25.16	-0.09	0.050			
0.2574	16471.87	3.9120	3.9119	1.0129	25.16	-0.09	0.050			
0.2584	16537.18	3.9110	3.9111	1.0141	25.17	-0.08	0.050			
0.2594	16602.30	3.9100	3.9100	1.0166	25.17	-0.08	0.050			
0.2604	16667.66	3.9090	3.9090	1.0198	25.18	-0.07	0.050			
0.2615	16733.25	3.9080	3.9080	1.0231	25.18	-0.07	0.050			
0.2625	16799.82	3.9070	3.9070	1.0256	25.18	-0.07	0.050			
0.2635	16865.49	3.9060	3.9058	1.0279	25.19	-0.06	0.050			
0.2646	16931.45	3.9050	3.9051	1.0280	25.19	-0.06	0.050			
0.2656	16997.36	3.9040	3.9041	1.0292	25.20	-0.05	0.050			
0.2666	17063.66	3.9030	3.9030	1.0317	25.20	-0.05	0.050			
0.2676	17129.21	3.9020	3.9020	1.0333	25.19	-0.06	0.050			
0.2687	17195.45	3.9010	3.9008	1.0335	25.20	-0.05	0.050			
0.2697	17261.82	3.9000	3.8999	1.0361	25.20	-0.05	0.050			
0.2708	17328.22	3.8990	3.8989	1.0377	25.20	-0.05	0.050			
0.2718	17394.37	3.8980	3.8980	1.0384	25.20	-0.05	0.050			
0.2728	17460.76	3.8970	3.8970	1.0391	25.20	-0.05	0.050			
0.2739	17527.31	3.8960	3.8960	1.0396	25.20	-0.05	0.050			
0.2749	17593.88	3.8950	3.8950	1.0390	25.19	-0.06	0.050	-0.105	0.201	
0.2759	17660.27	3.8940	3.8940	1.0403	25.19	-0.06	0.050			
0.2770	17727.53	3.8930	3.8930	1.0435	25.19	-0.06	0.050			
0.2780	17794.69	3.8920	3.8921	1.0446	25.18	-0.07	0.050			
0.2791	17861.85	3.8910	3.8908	1.0452	25.17	-0.08	0.050			
0.2801	17928.19	3.8900	3.8901	1.0458	25.17	-0.08	0.050			
0.2812	17994.93	3.8890	3.8891	1.0472	25.16	-0.09	0.050			
0.2822	18062.11	3.8880	3.8880	1.0480	25.14	-0.11	0.050			
0.2833	18129.41	3.8870	3.8869	1.0492	25.13	-0.12	0.050			
0.2843	18196.48	3.8860	3.8860	1.0486	25.12	-0.13	0.050			
0.2854	18263.61	3.8850	3.8850	1.0505	25.12	-0.13	0.050			
0.2864	18330.91	3.8840	3.8840	1.0500	25.11	-0.14	0.050			
0.2875	18397.87	3.8830	3.8831	1.0515	25.10	-0.15	0.050			
0.2885	18465.10	3.8820	3.8820	1.0518	25.08	-0.17	0.050			
0.2896	18532.36	3.8810	3.8809	1.0539	25.08	-0.17	0.050			
0.2906	18599.02	3.8800	3.8800	1.0579	25.07	-0.18	0.050			
0.2917	18666.38	3.8790	3.8790	1.0611	25.06	-0.19	0.050			
0.2927	18734.33	3.8780	3.8780	1.0641	25.06	-0.19	0.050			
0.2938	18802.55	3.8770	3.8770	1.0679	25.04	-0.21	0.050			
0.2949	18871.13	3.8760	3.8759	1.0703	25.04	-0.21	0.050	0.152	0.435	
0.2959	18940.29	3.8750	3.8750	1.0714	25.04	-0.21	0.050			
0.2970	19008.87	3.8740	3.8739	1.0736	25.03	-0.22	0.050			
0.2981	19077.74	3.8730	3.8731	1.0750	25.03	-0.22	0.050			
0.2992	19147.10	3.8720	3.8719	1.0769	25.03	-0.22	0.050			
0.3003	19216.38	3.8710	3.8711	1.0783	25.04	-0.21	0.050			
0.3013	19285.54	3.8700	3.8701	1.0790	25.04	-0.21	0.050			
0.3024	19355.10	3.8690	3.8690	1.0813	25.04	-0.21	0.050			
0.3035	19424.55	3.8680	3.8681	1.0810	25.04	-0.21	0.050			
0.3046	19494.91	3.8670	3.8671	1.0808	25.05	-0.20	0.050			
0.3057	19564.45	3.8660	3.8659	1.0807	25.06	-0.19	0.050			
0.3068	19633.42	3.8650	3.8650	1.0800	25.06	-0.19	0.050			
0.3078	19702.37	3.8640	3.8639	1.0801	25.07	-0.18	0.050			
0.3089	19771.51	3.8630	3.8629	1.0777	25.08	-0.17	0.050			
0.3100	19840.04	3.8620	3.8620	1.0774	25.08	-0.17	0.050			
0.3111	19908.35	3.8610	3.8610	1.0775	25.08	-0.17	0.050			
0.3121	19976.24	3.8600	3.8601	1.0769	25.10	-0.15	0.050			
0.3132	20044.99	3.8590	3.8591	1.0794	25.10	-0.15	0.050			
0.3143	20113.71	3.8580	3.8580	1.0816	25.10	-0.15	0.050			
0.3154	20182.79	3.8570	3.8569	1.0833	25.11	-0.14	0.050	0.221	0.356	
