Ah_balance (normalized)	Ah_balance (mAh)	Voltage - fit (V)	Voltage -  interpolate (V)	dQ/dV (1/V)	Temperature (°C)	Temperature - diff (°C)	Current (C)	R_DC 0ms (mOhm)	R_DC 50ms (mOhm)	R_DC 50 ms PEC (mOhm)
-0.0211	-1353.16	4.2000	4.1941	0.7298	25.34	-0.04	0.050	0.400	0.779	
-0.0204	-1306.33	4.1990	4.1990	0.7368	25.32	-0.06	0.050			
-0.0197	-1259.00	4.1980	4.1980	0.7422	25.30	-0.08	0.050			
-0.0189	-1211.12	4.1970	4.1970	0.7483	25.30	-0.08	0.050			
-0.0182	-1163.11	4.1960	4.1960	0.7512	25.30	-0.08	0.050			
-0.0174	-1114.85	4.1950	4.1952	0.7541	25.30	-0.08	0.050			
-0.0167	-1066.35	4.1940	4.1940	0.7566	25.30	-0.08	0.050			
-0.0159	-1017.77	4.1930	4.1930	0.7588	25.30	-0.08	0.050			
-0.0151	-969.20	4.1920	4.1920	0.7609	25.30	-0.08	0.050			
-0.0144	-920.42	4.1910	4.1910	0.7630	25.28	-0.10	0.050			
-0.0136	-871.20	4.1900	4.1901	0.7641	25.30	-0.08	0.050			
-0.0128	-821.63	4.1890	4.1890	0.7669	25.30	-0.08	0.050			
-0.0121	-772.42	4.1880	4.1880	0.7668	25.30	-0.08	0.050			
-0.0113	-723.30	4.1870	4.1869	0.7675	25.31	-0.07	0.050			
-0.0105	-674.02	4.1860	4.1861	0.7690	25.30	-0.08	0.050			
-0.0098	-624.71	4.1850	4.1850	0.7687	25.31	-0.07	0.050			
-0.0090	-575.36	4.1840	4.1840	0.7684	25.31	-0.07	0.050			
-0.0082	-526.14	4.1830	4.1830	0.7688	25.30	-0.08	0.050			
-0.0074	-476.80	4.1820	4.1821	0.7686	25.31	-0.07	0.050	0.454	0.701	
-0.0067	-427.41	4.1810	4.1811	0.7684	25.31	-0.07	0.050			
-0.0059	-377.95	4.1800	4.1799	0.7677	25.30	-0.08	0.050			
-0.0051	-328.59	4.1790	4.1790	0.7671	25.30	-0.08	0.050			
-0.0044	-279.69	4.1780	4.1780	0.7666	25.30	-0.08	0.050			
-0.0036	-230.69	4.1770	4.1771	0.7666	25.28	-0.10	0.050			
-0.0028	-181.85	4.1760	4.1761	0.7661	25.28	-0.10	0.050			
-0.0021	-132.73	4.1750	4.1749	0.7651	25.27	-0.11	0.050			
-0.0013	-83.88	4.1740	4.1739	0.7648	25.26	-0.12	0.050			
-0.0005	-35.18	4.1730	4.1730	0.7642	25.25	-0.13	0.050			
0.0002	13.42	4.1720	4.1720	0.7642	25.23	-0.15	0.050			
0.0010	62.34	4.1710	4.1710	0.7641	25.22	-0.16	0.050			
0.0017	111.36	4.1700	4.1699	0.7642	25.22	-0.16	0.050			
0.0025	160.30	4.1690	4.1690	0.7647	25.22	-0.16	0.050			
0.0033	209.01	4.1680	4.1680	0.7644	25.21	-0.17	0.050			
0.0040	257.95	4.1670	4.1671	0.7648	25.20	-0.18	0.050			
0.0048	306.49	4.1660	4.1660	0.7659	25.21	-0.17	0.050			
0.0056	355.66	4.1650	4.1650	0.7662	25.20	-0.18	0.050			
0.0063	404.94	4.1640	4.1639	0.7667	25.20	-0.18	0.050			
0.0071	453.94	4.1630	4.1630	0.7670	25.20	-0.18	0.050			
0.0079	503.05	4.1620	4.1621	0.7679	25.20	-0.18	0.050			
0.0086	552.47	4.1610	4.1610	0.7686	25.21	-0.17	0.050			
0.0094	601.63	4.1600	4.1600	0.7693	25.22	-0.16	0.050			
0.0102	650.81	4.1590	4.1589	0.7693	25.23	-0.15	0.050			
0.0109	700.16	4.1580	4.1579	0.7696	25.25	-0.13	0.050			
0.0117	749.35	4.1570	4.1569	0.7693	25.26	-0.12	0.050			
0.0125	798.78	4.1560	4.1560	0.7694	25.29	-0.09	0.050	0.383	0.787	
0.0133	848.34	4.1550	4.1550	0.7704	25.30	-0.08	0.050			
0.0140	897.69	4.1540	4.1539	0.7704	25.31	-0.07	0.050			
0.0148	946.89	4.1530	4.1530	0.7695	25.32	-0.06	0.050			
0.0156	996.11	4.1520	4.1519	0.7696	25.34	-0.04	0.050			
0.0163	1045.58	4.1510	4.1511	0.7699	25.34	-0.04	0.050			
0.0171	1094.73	4.1500	4.1500	0.7703	25.34	-0.04	0.050			
0.0179	1143.80	4.1490	4.1490	0.7704	25.35	-0.03	0.050			
0.0186	1193.02	4.1480	4.1480	0.7700	25.34	-0.04	0.050			
0.0194	1242.40	4.1470	4.1470	0.7696	25.34	-0.04	0.050			
0.0202	1291.57	4.1460	4.1460	0.7685	25.35	-0.03	0.050			
0.0210	1341.09	4.1450	4.1451	0.7695	25.36	-0.02	0.050			
0.0217	1390.28	4.1440	4.1440	0.7698	25.36	-0.02	0.050			
0.0225	1439.31	4.1430	4.1430	0.7698	25.35	-0.03	0.050			
0.0233	1488.51	4.1420	4.1420	0.7690	25.34	-0.04	0.050			
0.0240	1537.87	4.1410	4.1410	0.7692	25.33	-0.05	0.050			
0.0248	1586.97	4.1400	4.1400	0.7696	25.30	-0.08	0.050			
0.0256	1636.05	4.1390	4.1391	0.7698	25.27	-0.11	0.050			
0.0263	1685.33	4.1380	4.1381	0.7707	25.24	-0.14	0.050			
0.0271	1734.80	4.1370	4.1369	0.7711	25.20	-0.18	0.050			
0.0279	1784.10	4.1360	4.1359	0.7713	25.20	-0.18	0.050			
0.0286	1833.53	4.1350	4.1350	0.7713	25.18	-0.20	0.050			
0.0294	1882.87	4.1340	4.1340	0.7710	25.18	-0.20	0.050			
0.0302	1932.41	4.1330	4.1331	0.7710	25.15	-0.23	0.050			
0.0310	1981.75	4.1320	4.1319	0.7704	25.14	-0.24	0.050			
0.0317	2031.01	4.1310	4.1310	0.7703	25.14	-0.24	0.050			
0.0325	2080.41	4.1300	4.1301	0.7701	25.16	-0.22	0.050	0.452	0.802	
0.0333	2129.75	4.1290	4.1290	0.7703	25.17	-0.21	0.050			
0.0341	2179.24	4.1280	4.1281	0.7705	25.18	-0.20	0.050			
0.0348	2228.75	4.1270	4.1270	0.7703	25.18	-0.20	0.050			
0.0356	2278.05	4.1260	4.1260	0.7701	25.18	-0.20	0.050			
0.0364	2327.11	4.1250	4.1250	0.7691	25.17	-0.21	0.050			
0.0371	2376.37	4.1240	4.1240	0.7687	25.17	-0.21	0.050			
0.0379	2425.43	4.1230	4.1229	0.7682	25.16	-0.22	0.050			
0.0387	2474.45	4.1220	4.1220	0.7687	25.17	-0.21	0.050			
0.0394	2523.75	4.1210	4.1210	0.7686	25.17	-0.21	0.050			
0.0402	2572.51	4.1200	4.1200	0.7679	25.18	-0.20	0.050			
0.0410	2621.56	4.1190	4.1190	0.7681	25.17	-0.21	0.050			
0.0417	2670.57	4.1180	4.1179	0.7685	25.17	-0.21	0.050			
0.0425	2719.72	4.1170	4.1170	0.7691	25.18	-0.20	0.050			
0.0433	2769.17	4.1160	4.1160	0.7690	25.16	-0.22	0.050			
0.0440	2818.48	4.1150	4.1150	0.7694	25.14	-0.24	0.050			
0.0448	2867.81	4.1140	4.1140	0.7697	25.13	-0.25	0.050			
0.0456	2917.19	4.1130	4.1131	0.7696	25.14	-0.24	0.050			
0.0464	2966.53	4.1120	4.1120	0.7693	25.16	-0.22	0.050			
0.0471	3015.72	4.1110	4.1110	0.7694	25.14	-0.24	0.050			
0.0479	3065.04	4.1100	4.1100	0.7692	25.15	-0.23	0.050			
0.0487	3114.34	4.1090	4.1090	0.7692	25.14	-0.24	0.050			
0.0494	3163.56	4.1080	4.1080	0.7689	25.13	-0.25	0.050			
0.0502	3212.91	4.1070	4.1070	0.7690	25.12	-0.26	0.050			
0.0510	3262.04	4.1060	4.1059	0.7692	25.11	-0.27	0.050			
0.0517	3311.07	4.1050	4.1050	0.7691	25.11	-0.27	0.050			
0.0525	3360.22	4.1040	4.1040	0.7695	25.12	-0.26	0.050	0.495	0.833	
0.0533	3409.14	4.1030	4.1031	0.7697	25.11	-0.27	0.050			
0.0540	3458.40	4.1020	4.1020	0.7702	25.11	-0.27	0.050			
0.0548	3507.68	4.1010	4.1010	0.7696	25.10	-0.28	0.050			
0.0556	3557.05	4.1000	4.1000	0.7704	25.09	-0.29	0.050			
0.0563	3606.13	4.0990	4.0990	0.7709	25.10	-0.28	0.050			
0.0571	3655.46	4.0980	4.0980	0.7712	25.10	-0.28	0.050			
0.0579	3705.13	4.0970	4.0970	0.7708	25.12	-0.26	0.050			
0.0587	3754.87	4.0960	4.0960	0.7706	25.10	-0.28	0.050			
0.0594	3804.60	4.0950	4.0950	0.7699	25.10	-0.28	0.050			
0.0602	3853.81	4.0940	4.0941	0.7699	25.09	-0.29	0.050			
0.0610	3903.08	4.0930	4.0930	0.7698	25.09	-0.29	0.050			
0.0618	3952.45	4.0920	4.0920	0.7698	25.08	-0.30	0.050			
0.0625	4001.64	4.0910	4.0910	0.7695	25.06	-0.32	0.050			
0.0633	4050.98	4.0900	4.0900	0.7691	25.04	-0.34	0.050			
0.0641	4100.18	4.0890	4.0891	0.7687	25.04	-0.34	0.050			
0.0648	4149.13	4.0880	4.0880	0.7686	25.04	-0.34	0.050			
0.0656	4198.33	4.0870	4.0870	0.7678	25.06	-0.32	0.050			
0.0664	4247.13	4.0860	4.0860	0.7672	25.07	-0.31	0.050			
0.0671	4295.72	4.0850	4.0849	0.7680	25.10	-0.28	0.050			
0.0679	4344.61	4.0840	4.0840	0.7686	25.10	-0.28	0.050			
0.0687	4393.67	4.0830	4.0831	0.7693	25.13	-0.25	0.050			
0.0694	4442.84	4.0820	4.0820	0.7702	25.15	-0.23	0.050			
0.0702	4492.48	4.0810	4.0810	0.7707	25.17	-0.21	0.050			
0.0710	4541.92	4.0800	4.0800	0.7709	25.19	-0.19	0.050			
0.0717	4591.15	4.0790	4.0790	0.7712	25.21	-0.17	0.050			
0.0725	4640.74	4.0780	4.0781	0.7714	25.22	-0.16	0.050	0.403	0.720	
0.0733	4690.54	4.0770	4.0769	0.7730	25.23	-0.15	0.050			
0.0741	4740.12	4.0760	4.0760	0.7735	25.25	-0.13	0.050			
0.0748	4789.70	4.0750	4.0750	0.7739	25.26	-0.12	0.050			
0.0756	4839.10	4.0740	4.0740	0.7739	25.28	-0.10	0.050			
0.0764	4888.47	4.0730	4.0731	0.7738	25.28	-0.10	0.050			
0.0772	4938.19	4.0720	4.0721	0.7746	25.28	-0.10	0.050			
0.0779	4987.77	4.0710	4.0709	0.7743	25.29	-0.09	0.050			
0.0787	5037.24	4.0700	4.0700	0.7748	25.29	-0.09	0.050			
0.0795	5087.02	4.0690	4.0690	0.7747	25.28	-0.10	0.050			
0.0803	5136.66	4.0680	4.0679	0.7740	25.29	-0.09	0.050			
0.0810	5185.95	4.0670	4.0670	0.7744	25.28	-0.10	0.050			
0.0818	5235.45	4.0660	4.0660	0.7749	25.29	-0.09	0.050			
0.0826	5284.52	4.0650	4.0650	0.7743	25.30	-0.08	0.050			
0.0833	5334.29	4.0640	4.0642	0.7758	25.30	-0.08	0.050			
0.0841	5383.98	4.0630	4.0630	0.7759	25.30	-0.08	0.050			
0.0849	5433.72	4.0620	4.0620	0.7770	25.30	-0.08	0.050			
0.0857	5483.57	4.0610	4.0611	0.7777	25.30	-0.08	0.050			
0.0865	5533.44	4.0600	4.0599	0.7778	25.31	-0.07	0.050			
0.0872	5583.49	4.0590	4.0589	0.7772	25.31	-0.07	0.050			
0.0880	5633.11	4.0580	4.0579	0.7777	25.32	-0.06	0.050			
0.0888	5682.82	4.0570	4.0570	0.7784	25.32	-0.06	0.050			
0.0896	5732.16	4.0560	4.0560	0.7797	25.31	-0.07	0.050			
0.0903	5781.97	4.0550	4.0550	0.7810	25.32	-0.06	0.050			
0.0911	5832.07	4.0540	4.0540	0.7812	25.32	-0.06	0.050			
0.0919	5882.09	4.0530	4.0530	0.7822	25.32	-0.06	0.050	0.349	0.719	
0.0927	5932.54	4.0520	4.0520	0.7821	25.31	-0.07	0.050			
0.0935	5982.61	4.0510	4.0510	0.7830	25.32	-0.06	0.050			
0.0943	6032.85	4.0500	4.0500	0.7832	25.31	-0.07	0.050			
0.0950	6082.99	4.0490	4.0489	0.7834	25.31	-0.07	0.050			
0.0958	6133.33	4.0480	4.0479	0.7841	25.32	-0.06	0.050			
0.0966	6183.28	4.0470	4.0470	0.7835	25.32	-0.06	0.050			
0.0974	6233.41	4.0460	4.0460	0.7847	25.32	-0.06	0.050			
0.0982	6283.52	4.0450	4.0451	0.7854	25.32	-0.06	0.050			
0.0990	6333.87	4.0440	4.0440	0.7863	25.32	-0.06	0.050			
0.0998	6384.30	4.0430	4.0430	0.7870	25.31	-0.07	0.050			
0.1005	6434.81	4.0420	4.0420	0.7874	25.32	-0.06	0.050			
0.1013	6485.24	4.0410	4.0410	0.7872	25.32	-0.06	0.050			
0.1021	6535.88	4.0400	4.0400	0.7872	25.32	-0.06	0.050			
0.1029	6586.18	4.0390	4.0390	0.7877	25.32	-0.06	0.050			
0.1037	6636.55	4.0380	4.0379	0.7868	25.32	-0.06	0.050			
0.1045	6686.84	4.0370	4.0370	0.7854	25.32	-0.06	0.050			
0.1053	6736.81	4.0360	4.0360	0.7860	25.32	-0.06	0.050			
0.1061	6787.28	4.0350	4.0350	0.7870	25.32	-0.06	0.050			
0.1068	6837.67	4.0340	4.0341	0.7879	25.32	-0.06	0.050			
0.1076	6888.23	4.0330	4.0331	0.7890	25.31	-0.07	0.050			
0.1084	6938.74	4.0320	4.0320	0.7894	25.31	-0.07	0.050			
0.1092	6989.12	4.0310	4.0309	0.7896	25.31	-0.07	0.050			
0.1100	7039.62	4.0300	4.0300	0.7892	25.29	-0.09	0.050			
0.1108	7090.38	4.0290	4.0291	0.7891	25.27	-0.11	0.050			
0.1116	7140.76	4.0280	4.0279	0.7888	25.26	-0.12	0.050			
0.1124	7191.14	4.0270	4.0270	0.7886	25.26	-0.12	0.050	0.521	0.762	
0.1131	7241.53	4.0260	4.0260	0.7890	25.25	-0.13	0.050			
0.1139	7292.03	4.0250	4.0250	0.7887	25.26	-0.12	0.050			
0.1147	7342.69	4.0240	4.0240	0.7895	25.26	-0.12	0.050			
0.1155	7393.43	4.0230	4.0230	0.7899	25.25	-0.13	0.050			
0.1163	7444.00	4.0220	4.0221	0.7902	25.26	-0.12	0.050			
0.1171	7494.72	4.0210	4.0210	0.7903	25.26	-0.12	0.050			
0.1179	7545.40	4.0200	4.0199	0.7904	25.24	-0.14	0.050			
0.1187	7595.68	4.0190	4.0190	0.7902	25.24	-0.14	0.050			
0.1195	7646.13	4.0180	4.0181	0.7910	25.23	-0.15	0.050			
0.1203	7696.89	4.0170	4.0169	0.7918	25.24	-0.14	0.050			
0.1210	7747.00	4.0160	4.0160	0.7909	25.24	-0.14	0.050			
0.1218	7797.65	4.0150	4.0150	0.7912	25.24	-0.14	0.050			
0.1226	7848.32	4.0140	4.0140	0.7919	25.23	-0.15	0.050			
0.1234	7899.09	4.0130	4.0130	0.7921	25.22	-0.16	0.050			
0.1242	7949.61	4.0120	4.0120	0.7935	25.22	-0.16	0.050			
0.1250	8000.51	4.0110	4.0110	0.7944	25.21	-0.17	0.050			
0.1258	8051.56	4.0100	4.0100	0.7949	25.20	-0.18	0.050			
0.1266	8102.58	4.0090	4.0090	0.7958	25.20	-0.18	0.050			
0.1274	8153.41	4.0080	4.0080	0.7962	25.20	-0.18	0.050			
0.1282	8204.34	4.0070	4.0071	0.7970	25.20	-0.18	0.050			
0.1290	8255.55	4.0060	4.0060	0.7971	25.22	-0.16	0.050			
0.1298	8306.66	4.0050	4.0050	0.7981	25.22	-0.16	0.050			
0.1306	8357.84	4.0040	4.0040	0.7987	25.22	-0.16	0.050			
0.1314	8408.93	4.0030	4.0030	0.7989	25.24	-0.14	0.050			
0.1322	8460.10	4.0020	4.0020	0.7995	25.25	-0.13	0.050	0.486	0.813	
0.1330	8511.23	4.0010	4.0011	0.8003	25.26	-0.12	0.050			
0.1338	8562.34	4.0000	4.0001	0.8003	25.26	-0.12	0.050			
0.1346	8613.60	3.9990	3.9990	0.8006	25.27	-0.11	0.050			
0.1354	8664.98	3.9980	3.9980	0.8004	25.28	-0.10	0.050			
0.1362	8716.21	3.9970	3.9970	0.8003	25.28	-0.10	0.050			
0.1370	8767.48	3.9960	3.9960	0.8011	25.29	-0.09	0.050			
0.1378	8818.90	3.9950	3.9950	0.8010	25.30	-0.08	0.050			
0.1386	8870.17	3.9940	3.9940	0.8010	25.31	-0.07	0.050			
0.1394	8921.48	3.9930	3.9930	0.8015	25.32	-0.06	0.050			
0.1402	8972.74	3.9920	3.9920	0.8011	25.32	-0.06	0.050			
0.1410	9024.02	3.9910	3.9910	0.8014	25.31	-0.07	0.050			
0.1418	9075.36	3.9900	3.9899	0.8018	25.29	-0.09	0.050			
0.1426	9126.65	3.9890	3.9891	0.8018	25.27	-0.11	0.050			
0.1434	9177.87	3.9880	3.9880	0.8013	25.26	-0.12	0.050			
0.1442	9229.33	3.9870	3.9869	0.8009	25.24	-0.14	0.050			
0.1450	9280.60	3.9860	3.9860	0.8011	25.21	-0.17	0.050			
0.1458	9331.88	3.9850	3.9850	0.8014	25.19	-0.19	0.050			
0.1466	9383.17	3.9840	3.9840	0.8001	25.18	-0.20	0.050			
0.1474	9434.52	3.9830	3.9830	0.7997	25.17	-0.21	0.050			
0.1482	9485.35	3.9820	3.9821	0.8000	25.15	-0.23	0.050			
0.1490	9536.43	3.9810	3.9810	0.8004	25.14	-0.24	0.050			
0.1498	9587.66	3.9800	3.9800	0.8012	25.14	-0.24	0.050			
0.1506	9638.79	3.9790	3.9790	0.8015	25.14	-0.24	0.050			
0.1514	9690.29	3.9780	3.9781	0.8017	25.14	-0.24	0.050			
0.1522	9741.82	3.9770	3.9770	0.8012	25.16	-0.22	0.050	0.497	0.736	
0.1530	9792.97	3.9760	3.9761	0.8004	25.14	-0.24	0.050			
0.1538	9844.18	3.9750	3.9749	0.8007	25.14	-0.24	0.050			
0.1546	9895.53	3.9740	3.9739	0.8008	25.12	-0.26	0.050			
0.1554	9946.54	3.9730	3.9729	0.8009	25.10	-0.28	0.050			
0.1562	9997.64	3.9720	3.9720	0.8015	25.10	-0.28	0.050			
0.1570	10048.99	3.9710	3.9710	0.8020	25.10	-0.28	0.050			
0.1578	10100.18	3.9700	3.9700	0.8024	25.11	-0.27	0.050			
0.1586	10151.58	3.9690	3.9690	0.8032	25.12	-0.26	0.050			
0.1594	10202.99	3.9680	3.9681	0.8033	25.12	-0.26	0.050			
0.1602	10254.56	3.9670	3.9670	0.8040	25.12	-0.26	0.050			
0.1610	10305.99	3.9660	3.9660	0.8036	25.12	-0.26	0.050			
0.1618	10357.79	3.9650	3.9649	0.8041	25.12	-0.26	0.050			
0.1626	10409.17	3.9640	3.9641	0.8040	25.12	-0.26	0.050			
0.1635	10460.85	3.9630	3.9630	0.8040	25.12	-0.26	0.050			
0.1642	10511.73	3.9620	3.9620	0.8037	25.12	-0.26	0.050			
0.1650	10563.15	3.9610	3.9611	0.8045	25.12	-0.26	0.050			
0.1659	10614.90	3.9600	3.9600	0.8042	25.12	-0.26	0.050			
0.1667	10666.73	3.9590	3.9590	0.8047	25.11	-0.27	0.050			
0.1675	10718.21	3.9580	3.9580	0.8051	25.10	-0.28	0.050			
0.1683	10769.98	3.9570	3.9570	0.8057	25.11	-0.27	0.050			
0.1691	10821.56	3.9560	3.9560	0.8055	25.13	-0.25	0.050			
0.1699	10872.99	3.9550	3.9550	0.8042	25.15	-0.23	0.050			
0.1707	10924.17	3.9540	3.9540	0.8044	25.17	-0.21	0.050			
0.1715	10975.72	3.9530	3.9529	0.8043	25.20	-0.18	0.050			
0.1723	11027.05	3.9520	3.9520	0.8041	25.23	-0.15	0.050	0.340	0.701	
0.1731	11078.53	3.9510	3.9510	0.8038	25.29	-0.09	0.050			
0.1739	11130.03	3.9500	3.9500	0.8039	25.32	-0.06	0.050			
0.1747	11181.55	3.9490	3.9490	0.8034	25.33	-0.05	0.050			
0.1755	11233.14	3.9480	3.9481	0.8035	25.32	-0.06	0.050			
0.1763	11284.72	3.9470	3.9470	0.8033	25.30	-0.08	0.050			
0.1771	11335.99	3.9460	3.9460	0.8032	25.30	-0.08	0.050			
0.1779	11387.32	3.9450	3.9449	0.8031	25.28	-0.10	0.050			
0.1787	11438.82	3.9440	3.9441	0.8027	25.28	-0.10	0.050			
0.1795	11490.14	3.9430	3.9431	0.8018	25.28	-0.10	0.050			
0.1803	11541.45	3.9420	3.9420	0.8014	25.28	-0.10	0.050			
0.1811	11592.64	3.9410	3.9410	0.8014	25.28	-0.10	0.050			
0.1819	11643.96	3.9400	3.9400	0.8015	25.28	-0.10	0.050			
0.1827	11695.41	3.9390	3.9389	0.8014	25.28	-0.10	0.050			
0.1835	11746.27	3.9380	3.9380	0.8006	25.28	-0.10	0.050			
0.1843	11797.46	3.9370	3.9370	0.8014	25.27	-0.11	0.050			
0.1851	11848.63	3.9360	3.9361	0.8014	25.25	-0.13	0.050			
0.1859	11899.94	3.9350	3.9350	0.8015	25.24	-0.14	0.050			
0.1867	11951.18	3.9340	3.9341	0.8005	25.23	-0.15	0.050			
0.1875	12002.94	3.9330	3.9329	0.7998	25.21	-0.17	0.050			
0.1883	12054.07	3.9320	3.9320	0.8000	25.19	-0.19	0.050			
0.1891	12105.36	3.9310	3.9310	0.7997	25.18	-0.20	0.050			
0.1899	12156.61	3.9300	3.9299	0.7995	25.18	-0.20	0.050			
0.1907	12207.94	3.9290	3.9290	0.7984	25.18	-0.20	0.050			
0.1915	12259.12	3.9280	3.9280	0.7978	25.18	-0.20	0.050			
0.1923	12310.25	3.9270	3.9271	0.7966	25.18	-0.20	0.050	0.419	0.800	
0.1931	12361.08	3.9260	3.9260	0.7958	25.18	-0.20	0.050			
0.1939	12411.91	3.9250	3.9250	0.7949	25.18	-0.20	0.050			
0.1947	12462.91	3.9240	3.9240	0.7951	25.18	-0.20	0.050			
0.1955	12513.81	3.9230	3.9230	0.7948	25.19	-0.19	0.050			
0.1963	12564.09	3.9220	3.9220	0.7951	25.19	-0.19	0.050			
0.1971	12614.94	3.9210	3.9209	0.7941	25.20	-0.18	0.050			
0.1979	12665.89	3.9200	3.9200	0.7925	25.20	-0.18	0.050			
0.1987	12716.47	3.9190	3.9190	0.7913	25.20	-0.18	0.050			
0.1995	12767.35	3.9180	3.9179	0.7901	25.19	-0.19	0.050			
0.2003	12817.92	3.9170	3.9170	0.7886	25.20	-0.18	0.050			
0.2011	12868.47	3.9160	3.9160	0.7883	25.21	-0.17	0.050			
0.2019	12918.80	3.9150	3.9150	0.7884	25.24	-0.14	0.050			
0.2026	12969.14	3.9140	3.9141	0.7890	25.26	-0.12	0.050			
0.2034	13019.69	3.9130	3.9130	0.7885	25.27	-0.11	0.050			
0.2042	13069.92	3.9120	3.9120	0.7885	25.28	-0.10	0.050			
0.2050	13120.02	3.9110	3.9111	0.7880	25.28	-0.10	0.050			
0.2058	13170.90	3.9100	3.9100	0.7871	25.29	-0.09	0.050			
0.2066	13221.51	3.9090	3.9090	0.7864	25.30	-0.08	0.050			
0.2074	13272.22	3.9080	3.9078	0.7846	25.30	-0.08	0.050			
0.2082	13322.58	3.9070	3.9070	0.7822	25.30	-0.08	0.050			
0.2090	13372.87	3.9060	3.9060	0.7797	25.30	-0.08	0.050			
0.2097	13422.69	3.9050	3.9050	0.7778	25.30	-0.08	0.050			
0.2105	13472.38	3.9040	3.9040	0.7761	25.30	-0.08	0.050			
0.2113	13521.71	3.9030	3.9031	0.7748	25.30	-0.08	0.050			
0.2121	13571.30	3.9020	3.9021	0.7733	25.30	-0.08	0.050	0.424	0.787	
0.2128	13621.14	3.9010	3.9011	0.7725	25.28	-0.10	0.050			
0.2136	13670.91	3.9000	3.9000	0.7712	25.28	-0.10	0.050			
0.2144	13720.20	3.8990	3.8990	0.7693	25.27	-0.11	0.050			
0.2151	13769.09	3.8980	3.8979	0.7670	25.27	-0.11	0.050			
0.2159	13817.74	3.8970	3.8969	0.7646	25.26	-0.12	0.050			
0.2167	13866.39	3.8960	3.8959	0.7622	25.25	-0.13	0.050			
0.2174	13914.84	3.8950	3.8949	0.7598	25.24	-0.14	0.050			
0.2182	13962.96	3.8940	3.8941	0.7579	25.24	-0.14	0.050			
0.2189	14011.38	3.8930	3.8931	0.7571	25.24	-0.14	0.050			
0.2197	14059.72	3.8920	3.8920	0.7564	25.26	-0.12	0.050			
0.2204	14108.14	3.8910	3.8909	0.7547	25.25	-0.13	0.050			
0.2212	14156.98	3.8900	3.8900	0.7549	25.26	-0.12	0.050			
0.2220	14205.30	3.8890	3.8890	0.7539	25.26	-0.12	0.050			
0.2227	14253.63	3.8880	3.8880	0.7532	25.26	-0.12	0.050			
0.2235	14301.94	3.8870	3.8870	0.7524	25.27	-0.11	0.050			
0.2242	14350.08	3.8860	3.8859	0.7501	25.28	-0.10	0.050			
0.2250	14397.83	3.8850	3.8850	0.7473	25.28	-0.10	0.050			
0.2257	14445.37	3.8840	3.8841	0.7461	25.29	-0.09	0.050			
0.2265	14493.08	3.8830	3.8830	0.7446	25.30	-0.08	0.050			
0.2272	14540.64	3.8820	3.8820	0.7433	25.30	-0.08	0.050			
0.2279	14588.28	3.8810	3.8808	0.7432	25.30	-0.08	0.050			
0.2287	14635.85	3.8800	3.8799	0.7422	25.30	-0.08	0.050			
0.2294	14683.20	3.8790	3.8791	0.7408	25.32	-0.06	0.050			
0.2302	14730.46	3.8780	3.8781	0.7398	25.32	-0.06	0.050			
0.2309	14777.82	3.8770	3.8770	0.7386	25.33	-0.05	0.050			
0.2316	14825.15	3.8760	3.8760	0.7375	25.35	-0.03	0.050			
0.2324	14872.58	3.8750	3.8749	0.7359	25.36	-0.02	0.050	0.515	0.761	
0.2331	14919.44	3.8740	3.8741	0.7338	25.36	-0.02	0.050			
0.2339	14966.56	3.8730	3.8729	0.7321	25.38	0.00	0.050			
0.2346	15013.42	3.8720	3.8720	0.7310	25.38	0.00	0.050			
0.2353	15060.28	3.8710	3.8710	0.7295	25.40	0.02	0.050			
0.2360	15106.92	3.8700	3.8700	0.7281	25.41	0.03	0.050			
0.2368	15153.61	3.8690	3.8691	0.7257	25.42	0.04	0.050			
0.2375	15200.12	3.8680	3.8680	0.7238	25.43	0.05	0.050			
0.2382	15246.44	3.8670	3.8670	0.7220	25.45	0.07	0.050			
0.2389	15292.49	3.8660	3.8660	0.7212	25.46	0.08	0.050			
0.2397	15338.83	3.8650	3.8650	0.7192	25.46	0.08	0.050			
0.2404	15384.37	3.8640	3.8639	0.7168	25.46	0.08	0.050			
0.2411	15430.19	3.8630	3.8630	0.7152	25.44	0.06	0.050			
0.2418	15475.75	3.8620	3.8620	0.7139	25.44	0.06	0.050			
0.2425	15521.13	3.8610	3.8610	0.7123	25.44	0.06	0.050			
0.2432	15566.41	3.8600	3.8601	0.7112	25.43	0.05	0.050			
0.2439	15611.83	3.8590	3.8589	0.7101	25.42	0.04	0.050			
