Ah_balance (normalized)	Ah_balance (mAh)	Voltage - fit (V)	Voltage -  interpolate (V)	dQ/dV (1/V)	Temperature (°C)	Temperature - diff (°C)	Current (C)	R_DC 0ms (mOhm)	R_DC 50ms (mOhm)	R_DC 50 ms PEC (mOhm)
-0.0102	-651.32	4.1990	4.1990	0.8399	24.69	-0.10	0.050			
-0.0093	-597.59	4.1980	4.1980	0.8395	24.69	-0.10	0.050			
-0.0085	-543.80	4.1970	4.1970	0.8389	24.68	-0.11	0.050			
-0.0077	-490.08	4.1960	4.1960	0.8370	24.67	-0.12	0.050			
-0.0068	-436.60	4.1950	4.1950	0.8343	24.67	-0.12	0.050			
-0.0060	-383.12	4.1940	4.1940	0.8315	24.66	-0.13	0.050			
-0.0052	-329.98	4.1930	4.1930	0.8284	24.65	-0.14	0.050			
-0.0043	-277.13	4.1920	4.1919	0.8254	24.64	-0.15	0.050			
-0.0035	-224.46	4.1910	4.1909	0.8226	24.63	-0.16	0.050			
-0.0027	-171.70	4.1900	4.1901	0.8191	24.62	-0.17	0.050			
-0.0019	-118.99	4.1890	4.1890	0.8156	24.61	-0.18	0.050			
-0.0010	-66.55	4.1880	4.1880	0.8106	24.61	-0.18	0.050			
-0.0002	-13.90	4.1870	4.1870	0.8056	24.61	-0.18	0.050			
0.0006	37.79	4.1860	4.1859	0.8002	24.61	-0.18	0.050			
0.0014	88.79	4.1850	4.1850	0.7955	24.61	-0.18	0.050			
0.0022	139.42	4.1840	4.1839	0.7916	24.61	-0.18	0.050			
0.0030	188.95	4.1830	4.1830	0.7893	24.61	-0.18	0.050			
0.0037	238.51	4.1820	4.1821	0.7878	24.62	-0.17	0.050			
0.0045	288.17	4.1810	4.1811	0.7860	24.63	-0.16	0.050			
0.0053	337.21	4.1800	4.1801	0.7862	24.63	-0.16	0.050			
0.0060	386.85	4.1790	4.1790	0.7871	24.63	-0.16	0.050			
0.0068	436.07	4.1780	4.1779	0.7878	24.63	-0.16	0.050	0.322	0.572	
0.0076	485.61	4.1770	4.1769	0.7911	24.64	-0.15	0.050			
0.0084	535.57	4.1760	4.1758	0.7949	24.66	-0.13	0.050			
0.0091	585.59	4.1750	4.1749	0.8003	24.67	-0.12	0.050			
0.0099	635.92	4.1740	4.1740	0.8042	24.67	-0.12	0.050			
0.0107	686.95	4.1730	4.1730	0.8103	24.68	-0.11	0.050			
0.0115	739.10	4.1720	4.1721	0.8166	24.69	-0.10	0.050			
0.0124	791.61	4.1710	4.1710	0.8229	24.69	-0.10	0.050			
0.0132	845.19	4.1700	4.1700	0.8299	24.70	-0.09	0.050			
0.0141	899.74	4.1690	4.1690	0.8348	24.71	-0.08	0.050			
0.0149	954.55	4.1680	4.1680	0.8408	24.70	-0.09	0.050			
0.0158	1009.99	4.1670	4.1670	0.8452	24.70	-0.09	0.050			
0.0166	1065.54	4.1660	4.1660	0.8451	24.70	-0.09	0.050			
0.0175	1119.99	4.1650	4.1650	0.8443	24.70	-0.09	0.050			
0.0183	1174.16	4.1640	4.1640	0.8440	24.69	-0.10	0.050			
0.0192	1228.77	4.1630	4.1631	0.8443	24.70	-0.09	0.050			
0.0200	1282.99	4.1620	4.1620	0.8426	24.70	-0.09	0.050			
0.0209	1337.05	4.1610	4.1610	0.8413	24.69	-0.10	0.050			
0.0217	1391.60	4.1600	4.1600	0.8408	24.69	-0.10	0.050			
0.0226	1445.22	4.1590	4.1590	0.8386	24.70	-0.09	0.050			
0.0234	1498.73	4.1580	4.1580	0.8358	24.71	-0.08	0.050			
0.0242	1551.90	4.1570	4.1569	0.8333	24.71	-0.08	0.050			
0.0251	1604.82	4.1560	4.1559	0.8302	24.72	-0.07	0.050			
0.0259	1657.27	4.1550	4.1548	0.8278	24.73	-0.06	0.050			
0.0267	1710.10	4.1540	4.1540	0.8263	24.73	-0.06	0.050	0.298	0.606	
0.0275	1762.58	4.1530	4.1530	0.8253	24.73	-0.06	0.050			
0.0284	1814.87	4.1520	4.1520	0.8247	24.73	-0.06	0.050			
0.0292	1867.45	4.1510	4.1510	0.8249	24.73	-0.06	0.050			
0.0300	1920.16	4.1500	4.1500	0.8253	24.73	-0.06	0.050			
0.0308	1972.65	4.1490	4.1491	0.8263	24.73	-0.06	0.050			
0.0317	2025.98	4.1480	4.1479	0.8264	24.72	-0.07	0.050			
0.0325	2079.30	4.1470	4.1469	0.8254	24.71	-0.08	0.050			
0.0333	2132.57	4.1460	4.1460	0.8246	24.71	-0.08	0.050			
0.0341	2185.55	4.1450	4.1450	0.8227	24.71	-0.08	0.050			
0.0350	2238.10	4.1440	4.1439	0.8201	24.71	-0.08	0.050			
0.0358	2290.67	4.1430	4.1431	0.8193	24.71	-0.08	0.050			
0.0366	2342.84	4.1420	4.1421	0.8201	24.71	-0.08	0.050			
0.0374	2395.13	4.1410	4.1410	0.8203	24.70	-0.09	0.050			
0.0382	2447.45	4.1400	4.1401	0.8207	24.69	-0.10	0.050			
0.0391	2499.60	4.1390	4.1392	0.8218	24.68	-0.11	0.050			
0.0399	2551.94	4.1380	4.1381	0.8231	24.67	-0.12	0.050			
0.0407	2604.41	4.1370	4.1369	0.8231	24.67	-0.12	0.050			
0.0415	2656.78	4.1360	4.1360	0.8240	24.66	-0.13	0.050			
0.0423	2709.21	4.1350	4.1349	0.8240	24.65	-0.14	0.050			
0.0432	2761.90	4.1340	4.1339	0.8253	24.65	-0.14	0.050			
0.0440	2814.77	4.1330	4.1329	0.8253	24.64	-0.15	0.050			
0.0448	2867.37	4.1320	4.1320	0.8255	24.63	-0.16	0.050			
0.0456	2920.52	4.1310	4.1310	0.8266	24.63	-0.16	0.050			
0.0465	2973.64	4.1300	4.1300	0.8272	24.63	-0.16	0.050	0.304	0.597	
0.0473	3027.09	4.1290	4.1291	0.8287	24.63	-0.16	0.050			
0.0481	3080.89	4.1280	4.1280	0.8301	24.63	-0.16	0.050			
0.0490	3134.84	4.1270	4.1270	0.8308	24.63	-0.16	0.050			
0.0498	3188.60	4.1260	4.1260	0.8293	24.63	-0.16	0.050			
0.0507	3242.10	4.1250	4.1250	0.8278	24.63	-0.16	0.050			
0.0515	3294.90	4.1240	4.1240	0.8256	24.63	-0.16	0.050			
0.0523	3347.66	4.1230	4.1230	0.8241	24.63	-0.16	0.050			
0.0531	3399.74	4.1220	4.1220	0.8212	24.64	-0.15	0.050			
0.0539	3451.93	4.1210	4.1210	0.8206	24.64	-0.15	0.050			
0.0547	3503.69	4.1200	4.1201	0.8212	24.65	-0.14	0.050			
0.0556	3555.74	4.1190	4.1190	0.8210	24.65	-0.14	0.050			
0.0564	3608.17	4.1180	4.1181	0.8211	24.65	-0.14	0.050			
0.0572	3660.47	4.1170	4.1170	0.8214	24.66	-0.13	0.050			
0.0580	3712.89	4.1160	4.1160	0.8214	24.67	-0.12	0.050			
0.0588	3765.26	4.1150	4.1150	0.8225	24.67	-0.12	0.050			
0.0597	3817.86	4.1140	4.1140	0.8238	24.68	-0.11	0.050			
0.0605	3870.42	4.1130	4.1130	0.8248	24.69	-0.10	0.050			
0.0613	3923.33	4.1120	4.1120	0.8257	24.69	-0.10	0.050			
0.0621	3976.31	4.1110	4.1110	0.8266	24.71	-0.08	0.050			
0.0630	4029.20	4.1100	4.1101	0.8279	24.72	-0.07	0.050			
0.0638	4082.58	4.1090	4.1091	0.8293	24.73	-0.06	0.050			
0.0646	4135.89	4.1080	4.1080	0.8307	24.74	-0.05	0.050			
0.0655	4189.28	4.1070	4.1070	0.8320	24.75	-0.04	0.050			
0.0663	4242.86	4.1060	4.1061	0.8339	24.75	-0.04	0.050	0.309	0.503	
0.0671	4296.07	4.1050	4.1051	0.8354	24.77	-0.02	0.050			
0.0680	4349.59	4.1040	4.1040	0.8357	24.77	-0.02	0.050			
0.0688	4402.73	4.1030	4.1030	0.8367	24.77	-0.02	0.050			
0.0696	4456.19	4.1020	4.1020	0.8375	24.77	-0.02	0.050			
0.0705	4509.64	4.1010	4.1011	0.8378	24.77	-0.02	0.050			
0.0713	4563.21	4.1000	4.1000	0.8381	24.76	-0.03	0.050			
0.0721	4616.99	4.0990	4.0989	0.8387	24.75	-0.04	0.050			
0.0730	4670.93	4.0980	4.0980	0.8402	24.75	-0.04	0.050			
0.0738	4724.81	4.0970	4.0969	0.8416	24.75	-0.04	0.050			
0.0747	4778.77	4.0960	4.0961	0.8427	24.73	-0.06	0.050			
0.0755	4832.66	4.0950	4.0950	0.8436	24.73	-0.06	0.050			
0.0764	4886.56	4.0940	4.0940	0.8451	24.73	-0.06	0.050			
0.0772	4940.71	4.0930	4.0930	0.8463	24.71	-0.08	0.050			
0.0780	4995.15	4.0920	4.0920	0.8470	24.71	-0.08	0.050			
0.0789	5049.55	4.0910	4.0909	0.8475	24.71	-0.08	0.050			
0.0797	5103.95	4.0900	4.0899	0.8478	24.71	-0.08	0.050			
0.0806	5158.29	4.0890	4.0890	0.8478	24.71	-0.08	0.050			
0.0815	5213.01	4.0880	4.0880	0.8464	24.71	-0.08	0.050			
0.0823	5267.24	4.0870	4.0870	0.8457	24.71	-0.08	0.050			
0.0831	5321.36	4.0860	4.0860	0.8453	24.71	-0.08	0.050			
0.0840	5375.64	4.0850	4.0851	0.8445	24.72	-0.07	0.050			
0.0848	5429.89	4.0840	4.0841	0.8433	24.73	-0.06	0.050			
0.0857	5483.99	4.0830	4.0830	0.8426	24.74	-0.05	0.050			
0.0865	5538.18	4.0820	4.0821	0.8413	24.75	-0.04	0.050	0.366	0.588	
0.0874	5591.98	4.0810	4.0810	0.8405	24.76	-0.03	0.050			
0.0882	5645.78	4.0800	4.0800	0.8395	24.77	-0.02	0.050			
0.0890	5698.91	4.0790	4.0791	0.8394	24.77	-0.02	0.050			
0.0899	5752.29	4.0780	4.0780	0.8389	24.77	-0.02	0.050			
0.0907	5805.28	4.0770	4.0770	0.8384	24.77	-0.02	0.050			
0.0915	5858.61	4.0760	4.0760	0.8387	24.78	-0.01	0.050			
0.0924	5912.05	4.0750	4.0750	0.8393	24.79	0.00	0.050			
0.0932	5965.67	4.0740	4.0739	0.8384	24.79	0.00	0.050			
0.0941	6019.78	4.0730	4.0730	0.8387	24.79	0.00	0.050			
0.0949	6073.89	4.0720	4.0719	0.8375	24.79	0.00	0.050			
0.0957	6127.74	4.0710	4.0710	0.8370	24.79	0.00	0.050			
0.0966	6181.27	4.0700	4.0700	0.8374	24.80	0.01	0.050			
0.0974	6234.76	4.0690	4.0690	0.8386	24.81	0.02	0.050			
0.0982	6287.90	4.0680	4.0681	0.8422	24.81	0.02	0.050			
0.0991	6341.55	4.0670	4.0670	0.8433	24.81	0.02	0.050			
0.0999	6395.01	4.0660	4.0661	0.8458	24.81	0.02	0.050			
0.1008	6449.11	4.0650	4.0652	0.8478	24.80	0.01	0.050			
0.1016	6503.37	4.0640	4.0640	0.8499	24.80	0.01	0.050			
0.1025	6557.54	4.0630	4.0629	0.8527	24.79	0.00	0.050			
0.1033	6611.83	4.0620	4.0619	0.8547	24.79	0.00	0.050			
0.1042	6666.26	4.0610	4.0609	0.8570	24.78	-0.01	0.050			
0.1050	6721.07	4.0600	4.0599	0.8593	24.76	-0.03	0.050			
0.1059	6775.91	4.0590	4.0590	0.8613	24.74	-0.05	0.050			
0.1067	6831.49	4.0580	4.0581	0.8637	24.73	-0.06	0.050	0.323	0.606	
0.1076	6887.05	4.0570	4.0570	0.8668	24.71	-0.08	0.050			
0.1085	6943.13	4.0560	4.0560	0.8688	24.69	-0.10	0.050			
0.1094	6999.33	4.0550	4.0550	0.8712	24.67	-0.12	0.050			
0.1103	7056.18	4.0540	4.0540	0.8750	24.65	-0.14	0.050			
0.1111	7113.24	4.0530	4.0530	0.8748	24.63	-0.16	0.050			
0.1120	7169.66	4.0520	4.0520	0.8749	24.61	-0.18	0.050			
0.1129	7225.93	4.0510	4.0510	0.8735	24.59	-0.20	0.050			
0.1138	7281.64	4.0500	4.0500	0.8706	24.59	-0.20	0.050			
0.1146	7337.38	4.0490	4.0490	0.8683	24.57	-0.22	0.050			
0.1155	7392.76	4.0480	4.0480	0.8662	24.56	-0.23	0.050			
0.1164	7448.23	4.0470	4.0470	0.8651	24.54	-0.25	0.050			
0.1172	7503.68	4.0460	4.0461	0.8644	24.53	-0.26	0.050			
0.1181	7558.86	4.0450	4.0450	0.8627	24.53	-0.26	0.050			
0.1190	7614.23	4.0440	4.0441	0.8610	24.52	-0.27	0.050			
0.1198	7669.18	4.0430	4.0430	0.8580	24.51	-0.28	0.050			
0.1207	7724.07	4.0420	4.0420	0.8552	24.51	-0.28	0.050			
0.1215	7778.86	4.0410	4.0410	0.8526	24.51	-0.28	0.050			
0.1224	7833.39	4.0400	4.0400	0.8499	24.52	-0.27	0.050			
0.1232	7887.90	4.0390	4.0390	0.8473	24.52	-0.27	0.050			
0.1241	7941.67	4.0380	4.0380	0.8454	24.53	-0.26	0.050			
0.1249	7995.63	4.0370	4.0370	0.8432	24.54	-0.25	0.050			
0.1258	8049.09	4.0360	4.0361	0.8424	24.55	-0.24	0.050			
0.1266	8102.77	4.0350	4.0350	0.8421	24.56	-0.23	0.050	0.348	0.588	
0.1274	8156.35	4.0340	4.0340	0.8413	24.57	-0.22	0.050			
0.1283	8209.52	4.0330	4.0329	0.8431	24.57	-0.22	0.050			
0.1291	8262.83	4.0320	4.0320	0.8446	24.58	-0.21	0.050			
0.1299	8315.67	4.0310	4.0310	0.8483	24.59	-0.20	0.050			
0.1308	8369.20	4.0300	4.0299	0.8507	24.60	-0.19	0.050			
0.1316	8423.00	4.0290	4.0289	0.8556	24.61	-0.18	0.050			
0.1325	8477.13	4.0280	4.0280	0.8607	24.61	-0.18	0.050			
0.1333	8531.17	4.0270	4.0269	0.8657	24.62	-0.17	0.050			
0.1342	8586.61	4.0260	4.0260	0.8719	24.63	-0.16	0.050			
0.1351	8643.22	4.0250	4.0250	0.8763	24.64	-0.15	0.050			
0.1359	8700.12	4.0240	4.0239	0.8815	24.65	-0.14	0.050			
0.1368	8757.66	4.0230	4.0230	0.8857	24.67	-0.12	0.050			
0.1377	8815.74	4.0220	4.0220	0.8892	24.67	-0.12	0.050			
0.1387	8874.09	4.0210	4.0210	0.8892	24.68	-0.11	0.050			
0.1396	8931.94	4.0200	4.0200	0.8903	24.68	-0.11	0.050			
0.1405	8989.49	4.0190	4.0190	0.8911	24.69	-0.10	0.050			
0.1414	9047.31	4.0180	4.0181	0.8924	24.69	-0.10	0.050			
0.1423	9104.53	4.0170	4.0172	0.8932	24.68	-0.11	0.050			
0.1432	9162.07	4.0160	4.0161	0.8933	24.69	-0.10	0.050			
0.1440	9218.94	4.0150	4.0151	0.8931	24.68	-0.11	0.050			
0.1449	9275.76	4.0140	4.0139	0.8923	24.66	-0.13	0.050			
0.1458	9331.92	4.0130	4.0130	0.8918	24.67	-0.12	0.050			
0.1467	9388.62	4.0120	4.0119	0.8910	24.67	-0.12	0.050	0.349	0.567	
0.1476	9444.70	4.0110	4.0109	0.8900	24.67	-0.12	0.050			
0.1485	9501.27	4.0100	4.0099	0.8909	24.67	-0.12	0.050			
0.1493	9557.39	4.0090	4.0090	0.8917	24.65	-0.14	0.050			
0.1502	9614.12	4.0080	4.0080	0.8926	24.67	-0.12	0.050			
0.1511	9671.24	4.0070	4.0070	0.8943	24.65	-0.14	0.050			
0.1520	9729.45	4.0060	4.0060	0.8969	24.65	-0.14	0.050			
0.1529	9787.66	4.0050	4.0050	0.8994	24.66	-0.13	0.050			
0.1538	9845.98	4.0040	4.0040	0.9008	24.65	-0.14	0.050			
0.1548	9904.64	4.0030	4.0030	0.8998	24.65	-0.14	0.050			
0.1557	9962.97	4.0020	4.0020	0.8988	24.65	-0.14	0.050			
0.1566	10020.94	4.0010	4.0010	0.8983	24.66	-0.13	0.050			
0.1575	10078.04	4.0000	4.0000	0.8972	24.67	-0.12	0.050			
0.1584	10134.58	3.9990	3.9991	0.8979	24.68	-0.11	0.050			
0.1592	10191.75	3.9980	3.9981	0.8981	24.69	-0.10	0.050			
0.1601	10248.51	3.9970	3.9970	0.8992	24.69	-0.10	0.050			
0.1610	10305.88	3.9960	3.9961	0.8998	24.70	-0.09	0.050			
0.1619	10363.29	3.9950	3.9950	0.8997	24.71	-0.08	0.050			
0.1628	10420.76	3.9940	3.9941	0.9000	24.71	-0.08	0.050			
0.1637	10478.26	3.9930	3.9929	0.8996	24.71	-0.08	0.050			
0.1646	10535.95	3.9920	3.9918	0.8998	24.72	-0.07	0.050			
0.1655	10593.54	3.9910	3.9909	0.9008	24.71	-0.08	0.050			
0.1664	10651.15	3.9900	3.9899	0.9004	24.72	-0.07	0.050	0.330	0.564	
0.1673	10708.74	3.9890	3.9890	0.9012	24.73	-0.06	0.050			
0.1682	10766.90	3.9880	3.9880	0.9021	24.73	-0.06	0.050			
0.1691	10824.88	3.9870	3.9871	0.9034	24.73	-0.06	0.050			
0.1701	10883.24	3.9860	3.9861	0.9046	24.74	-0.05	0.050			
0.1710	10941.53	3.9850	3.9851	0.9055	24.75	-0.04	0.050			
0.1719	10999.61	3.9840	3.9840	0.9057	24.75	-0.04	0.050			
0.1728	11057.64	3.9830	3.9830	0.9072	24.75	-0.04	0.050			
0.1737	11115.49	3.9820	3.9820	0.9075	24.75	-0.04	0.050			
0.1746	11172.43	3.9810	3.9810	0.9073	24.75	-0.04	0.050			
0.1755	11229.92	3.9800	3.9800	0.9079	24.76	-0.03	0.050			
0.1764	11287.34	3.9790	3.9790	0.9083	24.75	-0.04	0.050			
0.1773	11345.52	3.9780	3.9780	0.9098	24.76	-0.03	0.050			
0.1782	11403.86	3.9770	3.9770	0.9119	24.75	-0.04	0.050			
0.1791	11462.54	3.9760	3.9760	0.9140	24.74	-0.05	0.050			
0.1800	11521.65	3.9750	3.9749	0.9152	24.73	-0.06	0.050			
0.1809	11580.63	3.9740	3.9740	0.9164	24.73	-0.06	0.050			
0.1819	11640.12	3.9730	3.9730	0.9154	24.73	-0.06	0.050			
0.1828	11699.14	3.9720	3.9721	0.9154	24.72	-0.07	0.050			
0.1837	11757.93	3.9710	3.9710	0.9145	24.71	-0.08	0.050			
0.1846	11816.68	3.9700	3.9700	0.9157	24.71	-0.08	0.050			
0.1856	11875.45	3.9690	3.9690	0.9151	24.70	-0.09	0.050			
0.1865	11933.54	3.9680	3.9681	0.9170	24.69	-0.10	0.050	0.339	0.599	
0.1874	11991.48	3.9670	3.9672	0.9192	24.70	-0.09	0.050			
0.1883	12049.81	3.9660	3.9660	0.9208	24.69	-0.10	0.050			
0.1892	12108.02	3.9650	3.9650	0.9229	24.69	-0.10	0.050			
0.1901	12166.71	3.9640	3.9641	0.9252	24.70	-0.09	0.050			
0.1910	12225.05	3.9630	3.9630	0.9271	24.69	-0.10	0.050			
0.1919	12284.04	3.9620	3.9619	0.9306	24.71	-0.08	0.050			
0.1929	12342.74	3.9610	3.9610	0.9350	24.71	-0.08	0.050			
0.1938	12402.58	3.9600	3.9599	0.9395	24.71	-0.08	0.050			
0.1947	12462.71	3.9590	3.9590	0.9446	24.71	-0.08	0.050			
0.1957	12523.79	3.9580	3.9580	0.9487	24.72	-0.07	0.050			
0.1966	12585.46	3.9570	3.9570	0.9511	24.73	-0.06	0.050			
0.1976	12647.67	3.9560	3.9560	0.9528	24.74	-0.05	0.050			
0.1986	12709.82	3.9550	3.9550	0.9562	24.75	-0.04	0.050			
0.1996	12771.73	3.9540	3.9540	0.9575	24.73	-0.06	0.050			
0.2005	12834.02	3.9530	3.9530	0.9610	24.75	-0.04	0.050			
0.2015	12895.95	3.9520	3.9520	0.9604	24.75	-0.04	0.050			
0.2025	12957.58	3.9510	3.9510	0.9590	24.75	-0.04	0.050			
0.2034	13019.55	3.9500	3.9501	0.9562	24.76	-0.03	0.050			
0.2044	13080.92	3.9490	3.9490	0.9533	24.75	-0.04	0.050			
0.2053	13142.29	3.9480	3.9480	0.9487	24.75	-0.04	0.050			
0.2063	13203.07	3.9470	3.9469	0.9454	24.76	-0.03	0.050	0.348	0.632	
0.2072	13263.62	3.9460	3.9459	0.9413	24.77	-0.02	0.050			
0.2082	13324.17	3.9450	3.9449	0.9373	24.77	-0.02	0.050			
0.2091	13383.98	3.9440	3.9440	0.9328	24.77	-0.02	0.050			
0.2101	13443.67	3.9430	3.9430	0.9269	24.77	-0.02	0.050			
0.2110	13502.77	3.9420	3.9421	0.9215	24.77	-0.02	0.050			
0.2119	13560.82	3.9410	3.9411	0.9178	24.77	-0.02	0.050			
0.2128	13619.42	3.9400	3.9400	0.9151	24.77	-0.02	0.050			
0.2137	13677.58	3.9390	3.9390	0.9130	24.75	-0.04	0.050			
0.2146	13735.75	3.9380	3.9380	0.9105	24.77	-0.02	0.050			
0.2155	13793.71	3.9370	3.9370	0.9085	24.77	-0.02	0.050			
0.2164	13851.24	3.9360	3.9360	0.9065	24.75	-0.04	0.050			
0.2173	13908.07	3.9350	3.9350	0.9061	24.74	-0.05	0.050			
0.2182	13964.21	3.9340	3.9341	0.9060	24.73	-0.06	0.050			
0.2191	14020.97	3.9330	3.9329	0.9070	24.73	-0.06	0.050			
0.2200	14078.59	3.9320	3.9319	0.9112	24.72	-0.07	0.050			
0.2209	14136.91	3.9310	3.9311	0.9150	24.71	-0.08	0.050			
0.2218	14195.43	3.9300	3.9300	0.9181	24.71	-0.08	0.050			
0.2227	14254.61	3.9290	3.9290	0.9206	24.70	-0.09	0.050			
0.2237	14313.86	3.9280	3.9280	0.9232	24.69	-0.10	0.050			
0.2246	14373.63	3.9270	3.9269	0.9242	24.67	-0.12	0.050			
0.2255	14433.67	3.9260	3.9259	0.9261	24.67	-0.12	0.050			
0.2265	14494.27	3.9250	3.9250	0.9246	24.66	-0.13	0.050	0.355	0.616	
0.2274	14554.26	3.9240	3.9240	0.9242	24.65	-0.14	0.050			
0.2284	14614.67	3.9230	3.9230	0.9238	24.64	-0.15	0.050			
0.2293	14674.26	3.9220	3.9220	0.9204	24.63	-0.16	0.050			
0.2302	14733.63	3.9210	3.9211	0.9170	24.63	-0.16	0.050			
0.2311	14792.89	3.9200	3.9200	0.9121	24.62	-0.17	0.050			
0.2321	14852.31	3.9190	3.9191	0.9079	24.63	-0.16	0.050			
0.2330	14910.76	3.9180	3.9180	0.9018	24.63	-0.16	0.050			
0.2339	14968.51	3.9170	3.9169	0.8953	24.62	-0.17	0.050			
0.2348	15025.65	3.9160	3.9160	0.8869	24.63	-0.16	0.050			
0.2357	15081.77	3.9150	3.9149	0.8774	24.62	-0.17	0.050			
0.2365	15137.33	3.9140	3.9140	0.8682	24.62	-0.17	0.050			
0.2374	15192.85	3.9130	3.9129	0.8597	24.61	-0.18	0.050			
0.2382	15247.72	3.9120	3.9120	0.8516	24.60	-0.19	0.050			
0.2391	15302.02	3.9110	3.9111	0.8436	24.60	-0.19	0.050			
0.2399	15356.02	3.9100	3.9099	0.8361	24.59	-0.20	0.050			
0.2408	15409.37	3.9090	3.9091	0.8274	24.60	-0.19	0.050			
0.2416	15462.04	3.9080	3.9081	0.8186	24.59	-0.20	0.050			
0.2424	15514.40	3.9070	3.9070	0.8104	24.60	-0.19	0.050			
0.2432	15566.37	3.9060	3.9060	0.8010	24.60	-0.19	0.050			
0.2440	15617.74	3.9050	3.9050	0.7916	24.61	-0.18	0.050			
0.2448	15668.30	3.9040	3.9040	0.7807	24.62	-0.17	0.050			
0.2456	15717.90	3.9030	3.9029	0.7699	24.63	-0.16	0.050			
0.2464	15766.61	3.9020	3.9020	0.7602	24.64	-0.15	0.050			
0.2471	15814.78	3.9010	3.9010	0.7509	24.65	-0.14	0.050	0.298	0.543	
0.2478	15862.40	3.9000	3.9001	0.7423	24.67	-0.12	0.050			
0.2486	15909.15	3.8990	3.8991	0.7336	24.67	-0.12	0.050			
0.2493	15955.51	3.8980	3.8980	0.7259	24.67	-0.12	0.050			
0.2500	16000.93	3.8970	3.8971	0.7183	24.68	-0.11	0.050			
0.2507	16046.08	3.8960	3.8960	0.7123	24.69	-0.10	0.050			
0.2514	16090.99	3.8950	3.8950	0.7069	24.70	-0.09	0.050			
0.2521	16135.38	3.8940	3.8939	0.7020	24.71	-0.08	0.050			
0.2528	16179.12	3.8930	3.8930	0.6966	24.71	-0.08	0.050			
0.2535	16222.94	3.8920	3.8920	0.6927	24.71	-0.08	0.050			
0.2542	16266.90	3.8910	3.8910	0.6888	24.71	-0.08	0.050			
0.2548	16310.27	3.8900	3.8900	0.6849	24.71	-0.08	0.050			
0.2555	16353.89	3.8890	3.8889	0.6823	24.72	-0.07	0.050			
0.2562	16397.70	3.8880	3.8880	0.6802	24.73	-0.06	0.050			
0.2569	16441.05	3.8870	3.8870	0.6785	24.73	-0.06	0.050			
0.2576	16484.61	3.8860	3.8860	0.6770	24.73	-0.06	0.050			
0.2583	16528.08	3.8850	3.8850	0.6765	24.73	-0.06	0.050			
0.2589	16571.56	3.8840	3.8841	0.6744	24.73	-0.06	0.050			
0.2596	16614.92	3.8830	3.8830	0.6725	24.73	-0.06	0.050			
0.2603	16657.93	3.8820	3.8821	0.6696	24.73	-0.06	0.050			
0.2609	16700.70	3.8810	3.8810	0.6671	24.71	-0.08	0.050			
0.2616	16743.28	3.8800	3.8799	0.6648	24.71	-0.08	0.050			
0.2623	16785.64	3.8790	3.8790	0.6624	24.71	-0.08	0.050			
0.2629	16827.81	3.8780	3.8780	0.6600	24.70	-0.09	0.050			
0.2636	16869.91	3.8770	3.8770	0.6575	24.69	-0.10	0.050			
0.2642	16911.78	3.8760	3.8760	0.6548	24.69	-0.10	0.050			
0.2649	16953.38	3.8750	3.8750	0.6533	24.69	-0.10	0.050			
0.2655	16994.98	3.8740	3.8741	0.6522	24.68	-0.11	0.050			
0.2662	17036.35	3.8730	3.8730	0.6516	24.67	-0.12	0.050			
0.2668	17077.73	3.8720	3.8720	0.6518	24.67	-0.12	0.050	0.411	0.573	
0.2675	17119.06	3.8710	3.8710	0.6519	24.67	-0.12	0.050			
0.2681	17160.25	3.8700	3.8700	0.6529	24.67	-0.12	0.050			
0.2688	17201.59	3.8690	3.8690	0.6531	24.67	-0.12	0.050			
0.2694	17243.07	3.8680	3.8680	0.6544	24.67	-0.12	0.050			
0.2701	17284.60	3.8670	3.8670	0.6560	24.67	-0.12	0.050			
0.2707	17326.24	3.8660	3.8659	0.6573	24.67	-0.12	0.050			
0.2714	17368.37	3.8650	3.8650	0.6593	24.68	-0.11	0.050			
0.2720	17410.55	3.8640	3.8640	0.6613	24.68	-0.11	0.050			
0.2727	17453.13	3.8630	3.8630	0.6648	24.69	-0.10	0.050			
0.2734	17495.59	3.8620	3.8620	0.6678	24.69	-0.10	0.050			
0.2740	17538.38	3.8610	3.8610	0.6712	24.69	-0.10	0.050			
0.2747	17581.29	3.8600	3.8600	0.6744	24.70	-0.09	0.050			
0.2754	17624.62	3.8590	3.8591	0.6775	24.71	-0.08	0.050			
0.2761	17668.17	3.8580	3.8580	0.6810	24.71	-0.08	0.050			
