Ah_balance (normalized)	Ah_balance (mAh)	Voltage - fit (V)	Voltage -  interpolate (V)	dQ/dV (1/V)	Temperature (°C)	Temperature - diff (°C)	Current (C)	R_DC 0ms (mOhm)	R_DC 50ms (mOhm)	R_DC 50 ms PEC (mOhm)
-0.0097	-621.81	4.1990	4.1990	0.8744	24.90	-0.02	0.050			
-0.0088	-565.85	4.1980	4.1980	0.8742	24.90	-0.02	0.050			
-0.0080	-510.02	4.1970	4.1970	0.8728	24.90	-0.02	0.050			
-0.0071	-454.08	4.1960	4.1960	0.8738	24.90	-0.02	0.050			
-0.0062	-398.22	4.1950	4.1950	0.8741	24.90	-0.02	0.050			
-0.0053	-342.07	4.1940	4.1940	0.8750	24.90	-0.02	0.050			
-0.0045	-286.31	4.1930	4.1931	0.8755	24.90	-0.02	0.050			
-0.0036	-229.93	4.1920	4.1920	0.8758	24.89	-0.03	0.050			
-0.0027	-173.77	4.1910	4.1909	0.8758	24.90	-0.02	0.050			
-0.0018	-117.48	4.1900	4.1900	0.8751	24.90	-0.02	0.050			
-0.0010	-61.38	4.1890	4.1890	0.8752	24.89	-0.03	0.050			
-0.0001	-5.27	4.1880	4.1880	0.8747	24.89	-0.03	0.050			
0.0008	50.58	4.1870	4.1870	0.8749	24.90	-0.02	0.050			
0.0017	106.45	4.1860	4.1860	0.8744	24.90	-0.02	0.050			
0.0025	162.31	4.1850	4.1851	0.8735	24.90	-0.02	0.050			
0.0034	218.65	4.1840	4.1840	0.8731	24.90	-0.02	0.050			
0.0043	274.60	4.1830	4.1831	0.8730	24.90	-0.02	0.050			
0.0052	330.60	4.1820	4.1820	0.8734	24.90	-0.02	0.050			
0.0060	386.59	4.1810	4.1810	0.8723	24.90	-0.02	0.050			
0.0069	442.07	4.1800	4.1800	0.8716	24.91	-0.01	0.050			
0.0078	497.22	4.1790	4.1790	0.8718	24.92	0.00	0.050			
0.0086	552.72	4.1780	4.1779	0.8723	24.92	0.00	0.050			
0.0095	608.43	4.1770	4.1771	0.8725	24.92	0.00	0.050			
0.0104	664.07	4.1760	4.1759	0.8732	24.92	0.00	0.050			
0.0113	720.10	4.1750	4.1750	0.8737	24.93	0.01	0.050			
0.0121	775.81	4.1740	4.1740	0.8746	24.93	0.01	0.050			
0.0130	831.98	4.1730	4.1730	0.8752	24.93	0.01	0.050			
0.0139	888.19	4.1720	4.1720	0.8763	24.94	0.02	0.050			
0.0148	944.19	4.1710	4.1710	0.8767	24.94	0.02	0.050			
0.0156	1000.55	4.1700	4.1700	0.8772	24.96	0.04	0.050			
0.0165	1056.70	4.1690	4.1691	0.8771	24.96	0.04	0.050			
0.0174	1113.00	4.1680	4.1681	0.8781	24.96	0.04	0.050			
0.0183	1169.22	4.1670	4.1670	0.8779	24.95	0.03	0.050			
0.0192	1225.60	4.1660	4.1659	0.8792	24.94	0.02	0.050			
0.0200	1281.98	4.1650	4.1650	0.8795	24.93	0.01	0.050			
0.0209	1338.45	4.1640	4.1641	0.8805	24.92	0.00	0.050			
0.0218	1394.58	4.1630	4.1629	0.8804	24.94	0.02	0.050			
0.0227	1450.95	4.1620	4.1620	0.8806	24.93	0.01	0.050			
0.0236	1507.26	4.1610	4.1611	0.8786	24.94	0.02	0.050			
0.0244	1563.75	4.1600	4.1600	0.8792	24.94	0.02	0.050			
0.0253	1619.62	4.1590	4.1589	0.8785	24.94	0.02	0.050			
0.0262	1676.05	4.1580	4.1580	0.8790	24.94	0.02	0.050			
0.0271	1732.53	4.1570	4.1569	0.8786	24.94	0.02	0.050			
0.0280	1788.91	4.1560	4.1560	0.8784	24.93	0.01	0.050			
0.0288	1845.07	4.1550	4.1551	0.8777	24.94	0.02	0.050			
0.0297	1901.40	4.1540	4.1541	0.8769	24.94	0.02	0.050			
0.0306	1957.46	4.1530	4.1531	0.8769	24.95	0.03	0.050			
0.0315	2013.54	4.1520	4.1521	0.8771	24.96	0.04	0.050			
0.0323	2069.47	4.1510	4.1510	0.8765	24.96	0.04	0.050			
0.0332	2125.54	4.1500	4.1500	0.8770	24.96	0.04	0.050			
0.0341	2181.57	4.1490	4.1490	0.8765	24.97	0.05	0.050			
0.0350	2237.59	4.1480	4.1480	0.8763	24.98	0.06	0.050			
0.0358	2293.47	4.1470	4.1469	0.8762	24.98	0.06	0.050			
0.0367	2349.14	4.1460	4.1459	0.8761	24.97	0.05	0.050			
0.0376	2405.30	4.1450	4.1450	0.8764	24.97	0.05	0.050			
0.0385	2461.31	4.1440	4.1440	0.8767	24.96	0.04	0.050			
0.0393	2517.43	4.1430	4.1430	0.8779	24.96	0.04	0.050			
0.0402	2573.73	4.1420	4.1420	0.8787	24.96	0.04	0.050			
0.0411	2630.19	4.1410	4.1409	0.8796	24.96	0.04	0.050			
0.0420	2686.70	4.1400	4.1401	0.8783	24.96	0.04	0.050			
0.0429	2743.00	4.1390	4.1391	0.8785	24.96	0.04	0.050			
0.0437	2799.27	4.1380	4.1380	0.8787	24.96	0.04	0.050			
0.0446	2855.82	4.1370	4.1370	0.8794	24.96	0.04	0.050			
0.0455	2911.95	4.1360	4.1360	0.8792	24.97	0.05	0.050			
0.0464	2968.08	4.1350	4.1350	0.8802	24.96	0.04	0.050			
0.0473	3024.42	4.1340	4.1340	0.8803	24.97	0.05	0.050			
0.0481	3080.80	4.1330	4.1330	0.8796	24.97	0.05	0.050			
0.0490	3136.79	4.1320	4.1320	0.8802	24.97	0.05	0.050			
0.0499	3193.17	4.1310	4.1311	0.8808	24.97	0.05	0.050			
0.0508	3249.57	4.1300	4.1300	0.8806	24.96	0.04	0.050			
0.0517	3305.95	4.1290	4.1290	0.8805	24.97	0.05	0.050			
0.0525	3362.44	4.1280	4.1280	0.8806	24.97	0.05	0.050			
0.0534	3418.64	4.1270	4.1270	0.8807	24.96	0.04	0.050			
0.0543	3474.92	4.1260	4.1260	0.8808	24.98	0.06	0.050			
0.0552	3531.64	4.1250	4.1251	0.8806	24.98	0.06	0.050			
0.0561	3588.06	4.1240	4.1240	0.8804	24.98	0.06	0.050			
0.0569	3644.48	4.1230	4.1230	0.8798	24.98	0.06	0.050			
0.0578	3700.81	4.1220	4.1220	0.8806	24.98	0.06	0.050			
0.0587	3757.38	4.1210	4.1210	0.8808	24.98	0.06	0.050			
0.0596	3813.84	4.1200	4.1199	0.8812	24.96	0.04	0.050			
0.0605	3870.00	4.1190	4.1190	0.8807	24.97	0.05	0.050			
0.0613	3926.08	4.1180	4.1181	0.8807	24.96	0.04	0.050			
0.0622	3982.25	4.1170	4.1170	0.8806	24.94	0.02	0.050			
0.0631	4038.57	4.1160	4.1160	0.8808	24.94	0.02	0.050			
0.0640	4094.70	4.1150	4.1150	0.8806	24.94	0.02	0.050			
0.0649	4151.05	4.1140	4.1140	0.8818	24.93	0.01	0.050			
0.0657	4207.68	4.1130	4.1130	0.8821	24.94	0.02	0.050			
0.0666	4263.82	4.1120	4.1120	0.8822	24.94	0.02	0.050			
0.0675	4320.44	4.1110	4.1110	0.8829	24.94	0.02	0.050			
0.0684	4377.12	4.1100	4.1100	0.8840	24.95	0.03	0.050			
0.0693	4433.66	4.1090	4.1090	0.8838	24.94	0.02	0.050			
0.0702	4490.35	4.1080	4.1080	0.8848	24.94	0.02	0.050			
0.0710	4547.01	4.1070	4.1069	0.8849	24.94	0.02	0.050			
0.0719	4603.89	4.1060	4.1060	0.8850	24.95	0.03	0.050			
0.0728	4660.95	4.1050	4.1050	0.8855	24.96	0.04	0.050			
0.0737	4717.70	4.1040	4.1040	0.8856	24.96	0.04	0.050	0.433	0.501	
0.0746	4774.54	4.1030	4.1030	0.8843	24.96	0.04	0.050			
0.0755	4831.10	4.1020	4.1020	0.8835	24.96	0.04	0.050			
0.0764	4887.28	4.1010	4.1010	0.8837	24.96	0.04	0.050			
0.0773	4944.05	4.1000	4.1000	0.8833	24.96	0.04	0.050			
0.0781	5000.55	4.0990	4.0990	0.8824	24.95	0.03	0.050			
0.0790	5057.21	4.0980	4.0981	0.8813	24.95	0.03	0.050			
0.0799	5113.53	4.0970	4.0970	0.8814	24.95	0.03	0.050			
0.0808	5169.94	4.0960	4.0960	0.8805	24.94	0.02	0.050			
0.0817	5226.05	4.0950	4.0950	0.8803	24.94	0.02	0.050			
0.0825	5282.32	4.0940	4.0940	0.8797	24.94	0.02	0.050			
0.0834	5338.49	4.0930	4.0930	0.8798	24.95	0.03	0.050			
0.0843	5394.87	4.0920	4.0919	0.8794	24.95	0.03	0.050			
0.0852	5450.89	4.0910	4.0911	0.8789	24.95	0.03	0.050			
0.0860	5507.10	4.0900	4.0900	0.8791	24.94	0.02	0.050			
0.0869	5563.17	4.0890	4.0890	0.8794	24.94	0.02	0.050			
0.0878	5619.31	4.0880	4.0880	0.8795	24.96	0.04	0.050			
0.0887	5675.61	4.0870	4.0871	0.8808	24.94	0.02	0.050			
0.0896	5731.83	4.0860	4.0860	0.8817	24.96	0.04	0.050			
0.0904	5788.17	4.0850	4.0851	0.8822	24.95	0.03	0.050			
0.0913	5844.67	4.0840	4.0840	0.8834	24.96	0.04	0.050			
0.0922	5901.19	4.0830	4.0830	0.8844	24.95	0.03	0.050			
0.0931	5957.70	4.0820	4.0820	0.8843	24.95	0.03	0.050			
0.0940	6014.07	4.0810	4.0809	0.8854	24.94	0.02	0.050	0.444	0.483	
0.0949	6071.06	4.0800	4.0800	0.8870	24.95	0.03	0.050			
0.0957	6127.92	4.0790	4.0790	0.8887	24.94	0.02	0.050			
0.0966	6185.01	4.0780	4.0779	0.8890	24.94	0.02	0.050			
0.0975	6241.94	4.0770	4.0770	0.8892	24.94	0.02	0.050			
0.0984	6299.03	4.0760	4.0761	0.8899	24.95	0.03	0.050			
0.0993	6356.16	4.0750	4.0750	0.8904	24.94	0.02	0.050			
0.1002	6413.29	4.0740	4.0741	0.8908	24.94	0.02	0.050			
0.1011	6470.39	4.0730	4.0730	0.8915	24.94	0.02	0.050			
0.1020	6527.26	4.0720	4.0719	0.8919	24.94	0.02	0.050			
0.1029	6584.48	4.0710	4.0710	0.8922	24.93	0.01	0.050			
0.1038	6641.49	4.0700	4.0700	0.8923	24.93	0.01	0.050			
0.1047	6698.71	4.0690	4.0690	0.8922	24.92	-0.00	0.050			
0.1056	6755.77	4.0680	4.0680	0.8929	24.90	-0.02	0.050			
0.1064	6812.80	4.0670	4.0670	0.8927	24.90	-0.02	0.050			
0.1073	6870.07	4.0660	4.0660	0.8925	24.92	-0.00	0.050			
0.1082	6927.38	4.0650	4.0650	0.8928	24.91	-0.01	0.050			
0.1091	6984.46	4.0640	4.0639	0.8925	24.91	-0.01	0.050			
0.1100	7041.58	4.0630	4.0630	0.8927	24.90	-0.02	0.050			
0.1109	7098.69	4.0620	4.0620	0.8933	24.89	-0.03	0.050			
0.1118	7155.72	4.0610	4.0610	0.8925	24.89	-0.03	0.050			
0.1127	7212.99	4.0600	4.0600	0.8929	24.90	-0.02	0.050			
0.1136	7269.95	4.0590	4.0590	0.8935	24.90	-0.02	0.050	0.392	0.466	
0.1145	7327.19	4.0580	4.0581	0.8950	24.90	-0.02	0.050			
0.1154	7384.28	4.0570	4.0570	0.8954	24.90	-0.02	0.050			
0.1163	7441.53	4.0560	4.0560	0.8962	24.90	-0.02	0.050			
0.1172	7498.67	4.0550	4.0550	0.8967	24.90	-0.02	0.050			
0.1181	7556.04	4.0540	4.0540	0.8970	24.90	-0.02	0.050			
0.1190	7613.35	4.0530	4.0530	0.8973	24.90	-0.02	0.050			
0.1199	7670.99	4.0520	4.0520	0.8976	24.90	-0.02	0.050			
0.1208	7728.72	4.0510	4.0510	0.8978	24.90	-0.02	0.050			
0.1217	7786.23	4.0500	4.0499	0.8985	24.90	-0.02	0.050			
0.1226	7843.90	4.0490	4.0492	0.8987	24.90	-0.02	0.050			
0.1235	7901.39	4.0480	4.0480	0.8992	24.89	-0.03	0.050			
0.1244	7959.13	4.0470	4.0471	0.8998	24.88	-0.04	0.050			
0.1253	8016.80	4.0460	4.0460	0.9006	24.88	-0.04	0.050			
0.1262	8074.37	4.0450	4.0451	0.9007	24.89	-0.03	0.050			
0.1271	8131.83	4.0440	4.0440	0.9017	24.88	-0.04	0.050			
0.1280	8189.60	4.0430	4.0430	0.9015	24.88	-0.04	0.050			
0.1289	8247.41	4.0420	4.0420	0.9013	24.88	-0.04	0.050			
0.1298	8305.14	4.0410	4.0409	0.9013	24.88	-0.04	0.050			
0.1307	8362.59	4.0400	4.0401	0.9014	24.88	-0.04	0.050			
0.1316	8419.91	4.0390	4.0389	0.9021	24.88	-0.04	0.050			
0.1325	8477.56	4.0380	4.0381	0.9023	24.88	-0.04	0.050			
0.1334	8535.12	4.0370	4.0371	0.9037	24.88	-0.04	0.050	0.393	0.512	
0.1343	8592.99	4.0360	4.0361	0.9047	24.88	-0.04	0.050			
0.1352	8651.08	4.0350	4.0350	0.9054	24.88	-0.04	0.050			
0.1361	8709.11	4.0340	4.0340	0.9064	24.87	-0.05	0.050			
0.1370	8767.03	4.0330	4.0330	0.9084	24.86	-0.06	0.050			
0.1379	8825.17	4.0320	4.0319	0.9097	24.86	-0.06	0.050			
0.1388	8883.47	4.0310	4.0310	0.9109	24.86	-0.06	0.050			
0.1397	8941.69	4.0300	4.0299	0.9117	24.86	-0.06	0.050			
0.1406	9000.49	4.0290	4.0290	0.9118	24.86	-0.06	0.050			
0.1415	9058.81	4.0280	4.0279	0.9124	24.86	-0.06	0.050			
0.1425	9117.38	4.0270	4.0270	0.9130	24.86	-0.06	0.050			
0.1434	9175.88	4.0260	4.0260	0.9138	24.86	-0.06	0.050			
0.1443	9234.27	4.0250	4.0250	0.9143	24.85	-0.07	0.050			
0.1452	9292.85	4.0240	4.0240	0.9158	24.84	-0.08	0.050			
0.1461	9351.62	4.0230	4.0229	0.9167	24.85	-0.07	0.050			
0.1470	9410.60	4.0220	4.0221	0.9175	24.86	-0.06	0.050			
0.1480	9469.44	4.0210	4.0210	0.9176	24.85	-0.07	0.050			
0.1489	9527.85	4.0200	4.0200	0.9176	24.85	-0.07	0.050			
0.1498	9586.41	4.0190	4.0190	0.9177	24.85	-0.07	0.050			
0.1507	9645.16	4.0180	4.0180	0.9186	24.85	-0.07	0.050			
0.1516	9703.97	4.0170	4.0169	0.9193	24.85	-0.07	0.050			
0.1525	9762.97	4.0160	4.0160	0.9192	24.83	-0.09	0.050			
0.1535	9821.94	4.0150	4.0150	0.9201	24.82	-0.10	0.050	0.204	0.472	
0.1544	9880.90	4.0140	4.0140	0.9200	24.83	-0.09	0.050			
0.1553	9939.58	4.0130	4.0130	0.9196	24.83	-0.09	0.050			
0.1562	9998.36	4.0120	4.0120	0.9200	24.83	-0.09	0.050			
0.1571	10057.52	4.0110	4.0109	0.9214	24.84	-0.08	0.050			
0.1581	10116.51	4.0100	4.0100	0.9224	24.84	-0.08	0.050			
0.1590	10175.79	4.0090	4.0091	0.9230	24.84	-0.08	0.050			
0.1599	10234.96	4.0080	4.0079	0.9234	24.84	-0.08	0.050			
0.1608	10293.70	4.0070	4.0070	0.9233	24.84	-0.08	0.050			
0.1618	10352.55	4.0060	4.0060	0.9236	24.84	-0.08	0.050			
0.1627	10411.61	4.0050	4.0050	0.9240	24.84	-0.08	0.050			
0.1636	10470.68	4.0040	4.0039	0.9251	24.84	-0.08	0.050			
0.1645	10530.14	4.0030	4.0030	0.9253	24.84	-0.08	0.050			
0.1655	10589.33	4.0020	4.0020	0.9263	24.82	-0.10	0.050			
0.1664	10648.54	4.0010	4.0011	0.9273	24.81	-0.11	0.050			
0.1673	10707.59	4.0000	4.0000	0.9280	24.80	-0.12	0.050			
0.1682	10766.81	3.9990	3.9990	0.9297	24.80	-0.12	0.050			
0.1692	10826.40	3.9980	3.9980	0.9313	24.80	-0.12	0.050			
0.1701	10886.10	3.9970	3.9971	0.9321	24.81	-0.11	0.050			
0.1710	10945.95	3.9960	3.9960	0.9337	24.81	-0.11	0.050			
0.1720	11005.84	3.9950	3.9950	0.9348	24.80	-0.12	0.050			
0.1729	11065.80	3.9940	3.9940	0.9354	24.81	-0.11	0.050			
0.1738	11125.65	3.9930	3.9930	0.9363	24.81	-0.11	0.050	0.399	0.482	
0.1748	11185.60	3.9920	3.9920	0.9368	24.81	-0.11	0.050			
0.1757	11245.83	3.9910	3.9911	0.9371	24.81	-0.11	0.050			
0.1767	11305.61	3.9900	3.9900	0.9391	24.80	-0.12	0.050			
0.1776	11365.78	3.9890	3.9891	0.9399	24.82	-0.10	0.050			
0.1785	11425.91	3.9880	3.9880	0.9417	24.82	-0.10	0.050			
0.1795	11486.07	3.9870	3.9870	0.9428	24.82	-0.10	0.050			
0.1804	11546.74	3.9860	3.9860	0.9433	24.82	-0.10	0.050			
0.1814	11607.18	3.9850	3.9850	0.9438	24.82	-0.10	0.050			
0.1823	11667.88	3.9840	3.9840	0.9442	24.82	-0.10	0.050			
0.1833	11728.37	3.9830	3.9830	0.9445	24.83	-0.09	0.050			
0.1842	11788.80	3.9820	3.9820	0.9444	24.84	-0.08	0.050			
0.1851	11849.15	3.9810	3.9809	0.9450	24.83	-0.09	0.050			
0.1861	11909.45	3.9800	3.9800	0.9458	24.84	-0.08	0.050			
0.1870	11969.99	3.9790	3.9790	0.9464	24.84	-0.08	0.050			
0.1880	12030.92	3.9780	3.9781	0.9471	24.84	-0.08	0.050			
0.1889	12091.48	3.9770	3.9770	0.9478	24.84	-0.08	0.050			
0.1899	12152.20	3.9760	3.9760	0.9484	24.83	-0.09	0.050			
0.1908	12213.09	3.9750	3.9750	0.9486	24.84	-0.08	0.050			
0.1918	12273.84	3.9740	3.9740	0.9492	24.83	-0.09	0.050			
0.1927	12334.26	3.9730	3.9730	0.9503	24.84	-0.08	0.050			
0.1937	12395.04	3.9720	3.9720	0.9507	24.82	-0.10	0.050	0.308	0.461	
0.1946	12455.93	3.9710	3.9710	0.9510	24.80	-0.12	0.050			
0.1956	12516.32	3.9700	3.9701	0.9510	24.78	-0.14	0.050			
0.1965	12577.35	3.9690	3.9690	0.9518	24.79	-0.13	0.050			
0.1975	12638.25	3.9680	3.9680	0.9529	24.80	-0.12	0.050			
0.1984	12699.51	3.9670	3.9670	0.9537	24.79	-0.13	0.050			
0.1994	12760.81	3.9660	3.9660	0.9554	24.78	-0.14	0.050			
0.2003	12822.13	3.9650	3.9650	0.9554	24.78	-0.14	0.050			
0.2013	12883.29	3.9640	3.9640	0.9559	24.78	-0.14	0.050			
0.2023	12944.45	3.9630	3.9630	0.9565	24.79	-0.13	0.050			
0.2032	13005.58	3.9620	3.9620	0.9567	24.79	-0.13	0.050			
0.2042	13066.92	3.9610	3.9610	0.9579	24.80	-0.12	0.050			
0.2051	13128.23	3.9600	3.9600	0.9576	24.80	-0.12	0.050			
0.2061	13189.68	3.9590	3.9589	0.9584	24.80	-0.12	0.050			
0.2071	13251.25	3.9580	3.9580	0.9591	24.78	-0.14	0.050			
0.2080	13312.67	3.9570	3.9570	0.9582	24.78	-0.14	0.050			
0.2090	13373.95	3.9560	3.9560	0.9585	24.77	-0.15	0.050			
0.2099	13435.35	3.9550	3.9549	0.9589	24.77	-0.15	0.050			
0.2109	13496.53	3.9540	3.9540	0.9595	24.78	-0.14	0.050			
0.2118	13557.75	3.9530	3.9530	0.9591	24.76	-0.16	0.050			
0.2128	13619.17	3.9520	3.9520	0.9594	24.77	-0.15	0.050			
0.2138	13680.60	3.9510	3.9510	0.9607	24.77	-0.15	0.050			
0.2147	13742.15	3.9500	3.9499	0.9615	24.77	-0.15	0.050			
0.2157	13803.50	3.9490	3.9490	0.9622	24.78	-0.14	0.050			
0.2166	13864.89	3.9480	3.9480	0.9626	24.78	-0.14	0.050			
0.2176	13926.65	3.9470	3.9470	0.9634	24.78	-0.14	0.050			
0.2186	13988.39	3.9460	3.9460	0.9635	24.78	-0.14	0.050			
0.2195	14050.08	3.9450	3.9450	0.9643	24.78	-0.14	0.050			
0.2205	14111.77	3.9440	3.9440	0.9645	24.78	-0.14	0.050			
0.2215	14173.31	3.9430	3.9430	0.9652	24.78	-0.14	0.050			
0.2224	14235.28	3.9420	3.9420	0.9656	24.78	-0.14	0.050			
0.2234	14296.88	3.9410	3.9410	0.9669	24.78	-0.14	0.050			
0.2244	14359.22	3.9400	3.9400	0.9696	24.78	-0.14	0.050			
0.2253	14421.10	3.9390	3.9390	0.9702	24.77	-0.15	0.050			
0.2263	14483.19	3.9380	3.9380	0.9708	24.78	-0.14	0.050			
0.2273	14545.58	3.9370	3.9370	0.9713	24.78	-0.14	0.050			
0.2282	14607.50	3.9360	3.9360	0.9716	24.78	-0.14	0.050			
0.2292	14669.89	3.9350	3.9349	0.9717	24.78	-0.14	0.050			
0.2302	14732.14	3.9340	3.9340	0.9721	24.78	-0.14	0.050			
0.2312	14794.48	3.9330	3.9330	0.9729	24.76	-0.16	0.050			
0.2321	14856.80	3.9320	3.9320	0.9730	24.77	-0.15	0.050			
0.2331	14919.12	3.9310	3.9311	0.9726	24.76	-0.16	0.050			
0.2341	14981.60	3.9300	3.9299	0.9736	24.76	-0.16	0.050	0.362	0.454	
0.2351	15044.08	3.9290	3.9290	0.9730	24.78	-0.14	0.050			
0.2360	15106.43	3.9280	3.9280	0.9732	24.78	-0.14	0.050			
0.2370	15168.87	3.9270	3.9270	0.9735	24.78	-0.14	0.050			
0.2380	15231.34	3.9260	3.9260	0.9729	24.76	-0.16	0.050			
0.2390	15293.44	3.9250	3.9249	0.9725	24.76	-0.16	0.050			
0.2399	15355.52	3.9240	3.9240	0.9719	24.76	-0.16	0.050			
0.2409	15417.56	3.9230	3.9230	0.9719	24.76	-0.16	0.050			
0.2419	15479.61	3.9220	3.9220	0.9725	24.76	-0.16	0.050			
0.2428	15541.40	3.9210	3.9210	0.9722	24.75	-0.17	0.050			
0.2438	15603.58	3.9200	3.9201	0.9725	24.76	-0.16	0.050			
0.2448	15665.83	3.9190	3.9190	0.9738	24.76	-0.16	0.050			
0.2457	15727.99	3.9180	3.9180	0.9749	24.76	-0.16	0.050			
0.2467	15790.16	3.9170	3.9170	0.9768	24.76	-0.16	0.050			
0.2477	15852.54	3.9160	3.9160	0.9774	24.76	-0.16	0.050			
0.2487	15915.22	3.9150	3.9150	0.9786	24.76	-0.16	0.050			
0.2497	15977.82	3.9140	3.9140	0.9797	24.76	-0.16	0.050			
0.2506	16040.72	3.9130	3.9131	0.9804	24.76	-0.16	0.050			
0.2516	16103.58	3.9120	3.9120	0.9817	24.76	-0.16	0.050			
0.2526	16166.46	3.9110	3.9110	0.9836	24.76	-0.16	0.050			
0.2536	16229.28	3.9100	3.9100	0.9860	24.76	-0.16	0.050			
0.2546	16292.49	3.9090	3.9090	0.9878	24.76	-0.16	0.050			
0.2556	16355.94	3.9080	3.9080	0.9888	24.75	-0.17	0.050			
0.2566	16419.23	3.9070	3.9069	0.9902	24.75	-0.17	0.050			
0.2575	16482.55	3.9060	3.9061	0.9919	24.76	-0.16	0.050			
0.2585	16546.16	3.9050	3.9050	0.9928	24.76	-0.16	0.050			
0.2595	16609.92	3.9040	3.9040	0.9936	24.75	-0.17	0.050			
0.2605	16673.86	3.9030	3.9029	0.9945	24.76	-0.16	0.050			
0.2615	16737.72	3.9020	3.9020	0.9941	24.75	-0.17	0.050			
0.2625	16801.50	3.9010	3.9010	0.9944	24.76	-0.16	0.050			
0.2635	16865.58	3.9000	3.9000	0.9943	24.76	-0.16	0.050			
0.2645	16929.29	3.8990	3.8990	0.9942	24.76	-0.16	0.050			
0.2655	16992.89	3.8980	3.8979	0.9941	24.76	-0.16	0.050			
0.2665	17056.55	3.8970	3.8970	0.9942	24.76	-0.16	0.050			
0.2675	17120.01	3.8960	3.8960	0.9944	24.76	-0.16	0.050			
0.2685	17184.15	3.8950	3.8950	0.9944	24.76	-0.16	0.050			
0.2695	17247.82	3.8940	3.8940	0.9941	24.76	-0.16	0.050			
0.2705	17311.40	3.8930	3.8930	0.9933	24.76	-0.16	0.050			
0.2715	17374.71	3.8920	3.8920	0.9917	24.75	-0.17	0.050			
0.2725	17438.22	3.8910	3.8910	0.9908	24.76	-0.16	0.050			
0.2735	17501.32	3.8900	3.8900	0.9898	24.76	-0.16	0.050	0.202	0.491	
0.2744	17564.76	3.8890	3.8891	0.9891	24.76	-0.16	0.050			
0.2754	17628.32	3.8880	3.8880	0.9883	24.76	-0.16	0.050			
0.2764	17691.55	3.8870	3.8870	0.9865	24.76	-0.16	0.050			
0.2774	17754.74	3.8860	3.8861	0.9851	24.76	-0.16	0.050			
0.2784	17818.06	3.8850	3.8850	0.9847	24.77	-0.15	0.050			
0.2794	17881.45	3.8840	3.8841	0.9819	24.76	-0.16	0.050			
0.2804	17944.71	3.8830	3.8830	0.9794	24.78	-0.14	0.050			
0.2814	18007.73	3.8820	3.8820	0.9770	24.77	-0.15	0.050			
0.2824	18070.60	3.8810	3.8809	0.9739	24.77	-0.15	0.050			
0.2833	18132.97	3.8800	3.8800	0.9694	24.77	-0.15	0.050			
0.2843	18195.06	3.8790	3.8790	0.9659	24.77	-0.15	0.050			
0.2853	18256.78	3.8780	3.8780	0.9605	24.76	-0.16	0.050			
0.2862	18318.48	3.8770	3.8771	0.9553	24.76	-0.16	0.050			
0.2872	18379.66	3.8760	3.8760	0.9500	24.77	-0.15	0.050			
0.2881	18440.70	3.8750	3.8751	0.9457	24.76	-0.16	0.050			
0.2891	18501.10	3.8740	3.8740	0.9399	24.77	-0.15	0.050			
0.2900	18561.31	3.8730	3.8730	0.9337	24.78	-0.14	0.050			
0.2910	18621.03	3.8720	3.8720	0.9272	24.78	-0.14	0.050			
0.2919	18680.32	3.8710	3.8710	0.9204	24.78	-0.14	0.050			
0.2928	18739.32	3.8700	3.8699	0.9114	24.78	-0.14	0.050			
0.2937	18797.78	3.8690	3.8690	0.9044	24.78	-0.14	0.050	0.488	0.532	
0.2946	18855.72	3.8680	3.8679	0.8961	24.78	-0.14	0.050			
0.2955	18913.08	3.8670	3.8670	0.8879	24.78	-0.14	0.050			
0.2964	18969.71	3.8660	3.8660	0.8791	24.78	-0.14	0.050			
0.2973	19025.95	3.8650	3.8650	0.8709	24.78	-0.14	0.050			
0.2982	19082.05	3.8640	3.8640	0.8616	24.78	-0.14	0.050			
0.2990	19137.07	3.8630	3.8630	0.8518	24.79	-0.13	0.050			
0.2999	19191.57	3.8620	3.8620	0.8405	24.80	-0.12	0.050			
0.3007	19245.15	3.8610	3.8611	0.8301	24.79	-0.13	0.050			
0.3015	19298.15	3.8600	3.8599	0.8198	24.79	-0.13	0.050			
0.3023	19350.07	3.8590	3.8590	0.8091	24.78	-0.14	0.050			
0.3031	19401.42	3.8580	3.8580	0.7991	24.79	-0.13	0.050			
0.3039	19452.30	3.8570	3.8570	0.7885	24.79	-0.13	0.050			
0.3047	19502.10	3.8560	3.8561	0.7780	24.80	-0.12	0.050			
