Ah_balance (normalized)	Ah_balance (mAh)	Voltage - fit (V)	Voltage -  interpolate (V)	dQ/dV (1/V)	Temperature (°C)	Temperature - diff (°C)	Current (C)	R_DC 0ms (mOhm)	R_DC 50ms (mOhm)	R_DC 50 ms PEC (mOhm)
0.0565	3615.69	4.1990	4.1990	0.8600	27.37	2.42	0.750			
0.0590	3776.56	4.1960	4.1960	0.8271	27.37	2.42	0.750			
0.0615	3933.44	4.1930	4.1931	0.8236	27.38	2.43	0.750			
0.0640	4092.84	4.1900	4.1899	0.8254	27.38	2.43	0.750			
0.0664	4249.91	4.1870	4.1869	0.8284	27.38	2.43	0.750			
0.0689	4409.82	4.1840	4.1840	0.8245	27.39	2.44	0.750			
0.0714	4568.97	4.1810	4.1811	0.8315	27.39	2.44	0.750			
0.0739	4727.71	4.1780	4.1779	0.8352	27.40	2.45	0.750			
0.0764	4888.46	4.1750	4.1749	0.8357	27.40	2.45	0.750			
0.0789	5048.31	4.1720	4.1720	0.8351	27.40	2.45	0.750			
0.0814	5210.24	4.1690	4.1690	0.8367	27.41	2.46	0.750			
0.0839	5371.17	4.1660	4.1661	0.8365	27.41	2.46	0.750			
0.0865	5533.24	4.1630	4.1630	0.8339	27.42	2.47	0.750			
0.0889	5691.76	4.1600	4.1599	0.8332	27.42	2.47	0.750			
0.0914	5851.04	4.1570	4.1570	0.8302	27.43	2.48	0.750			
0.0939	6011.34	4.1540	4.1540	0.8320	27.43	2.48	0.750			
0.0964	6171.13	4.1510	4.1510	0.8351	27.44	2.49	0.750			
0.0989	6330.69	4.1480	4.1480	0.8342	27.45	2.50	0.750			
0.1014	6491.09	4.1450	4.1449	0.8422	27.46	2.51	0.750			
0.1040	6653.66	4.1420	4.1421	0.8458	27.46	2.51	0.750			
0.1065	6816.44	4.1390	4.1389	0.8430	27.46	2.51	0.750			
0.1091	6980.17	4.1360	4.1361	0.8484	27.46	2.51	0.750			
0.1116	7141.90	4.1330	4.1331	0.8437	27.46	2.51	0.750			
0.1141	7303.86	4.1300	4.1299	0.8464	27.46	2.51	0.750			
0.1167	7466.81	4.1270	4.1270	0.8451	27.47	2.52	0.750			
0.1192	7627.14	4.1240	4.1241	0.8483	27.48	2.53	0.750			
0.1217	7789.11	4.1210	4.1211	0.8643	27.49	2.54	0.750			
0.1243	7956.31	4.1180	4.1180	0.8710	27.50	2.55	0.750			
0.1269	8124.02	4.1150	4.1145	0.8819	27.51	2.56	0.750			
0.1297	8298.30	4.1120	4.1121	0.8805	27.51	2.56	0.750			
0.1323	8468.69	4.1090	4.1090	0.8778	27.51	2.56	0.750			
0.1350	8639.63	4.1060	4.1061	0.8765	27.51	2.56	0.750			
0.1376	8805.63	4.1030	4.1029	0.8647	27.51	2.56	0.750			
0.1401	8964.16	4.1000	4.1000	0.8579	27.51	2.56	0.750			
0.1427	9130.48	4.0970	4.0970	0.8621	27.52	2.57	0.750			
0.1452	9294.45	4.0940	4.0940	0.8647	27.52	2.57	0.750			
0.1479	9462.95	4.0910	4.0910	0.8736	27.52	2.57	0.750			
0.1505	9631.64	4.0880	4.0881	0.8777	27.53	2.58	0.750			
0.1531	9800.81	4.0850	4.0851	0.8831	27.53	2.58	0.750			
0.1558	9971.99	4.0820	4.0819	0.8831	27.54	2.59	0.750			
0.1585	10141.12	4.0790	4.0790	0.8819	27.55	2.60	0.750			
0.1611	10311.10	4.0760	4.0760	0.8845	27.55	2.60	0.750			
0.1637	10478.87	4.0730	4.0731	0.8834	27.56	2.61	0.750			
0.1664	10648.27	4.0700	4.0699	0.8858	27.57	2.62	0.750			
0.1690	10817.45	4.0670	4.0670	0.8890	27.58	2.63	0.750			
0.1717	10988.26	4.0640	4.0639	0.8945	27.59	2.64	0.750			
0.1744	11161.72	4.0610	4.0611	0.9029	27.61	2.66	0.750			
0.1771	11336.94	4.0580	4.0581	0.9113	27.62	2.67	0.750			
0.1799	11513.88	4.0550	4.0551	0.9078	27.63	2.68	0.750			
0.1826	11688.72	4.0520	4.0519	0.9072	27.64	2.69	0.750			
0.1853	11861.18	4.0490	4.0491	0.9102	27.65	2.70	0.750			
0.1880	12033.83	4.0460	4.0461	0.9082	27.66	2.71	0.750			
0.1908	12208.29	4.0430	4.0430	0.9145	27.67	2.72	0.750			
0.1935	12384.54	4.0400	4.0400	0.9203	27.67	2.72	0.750			
0.1963	12562.69	4.0370	4.0370	0.9257	27.68	2.73	0.750			
0.1991	12745.25	4.0340	4.0340	0.9341	27.68	2.73	0.750			
0.2019	12923.00	4.0310	4.0310	0.9314	27.68	2.73	0.750			
0.2047	13103.33	4.0280	4.0280	0.9224	27.69	2.74	0.750			
0.2075	13277.92	4.0250	4.0250	0.9288	27.71	2.76	0.750			
0.2102	13454.24	4.0220	4.0220	0.9373	27.72	2.77	0.750			
0.2130	13634.40	4.0190	4.0190	0.9433	27.73	2.78	0.750			
0.2159	13819.96	4.0160	4.0161	0.9387	27.75	2.80	0.750			
0.2188	14002.15	4.0130	4.0130	0.9445	27.76	2.81	0.750			
0.2216	14182.81	4.0100	4.0102	0.9420	27.77	2.82	0.750			
0.2244	14364.19	4.0070	4.0070	0.9457	27.78	2.83	0.750			
0.2272	14541.07	4.0040	4.0038	0.9372	27.79	2.84	0.750			
0.2300	14720.06	4.0010	4.0010	0.9446	27.80	2.85	0.750			
0.2329	14903.24	3.9980	3.9981	0.9560	27.81	2.86	0.750			
0.2358	15089.50	3.9950	3.9949	0.9667	27.82	2.87	0.750			
0.2387	15276.42	3.9920	3.9919	0.9645	27.83	2.88	0.750			
0.2416	15464.17	3.9890	3.9890	0.9632	27.84	2.89	0.750			
0.2445	15648.79	3.9860	3.9860	0.9639	27.85	2.90	0.750			
0.2474	15831.61	3.9830	3.9831	0.9714	27.86	2.91	0.750			
0.2503	16016.87	3.9800	3.9799	0.9736	27.87	2.92	0.750			
0.2532	16206.94	3.9770	3.9770	0.9764	27.88	2.93	0.750			
0.2562	16394.44	3.9740	3.9741	0.9856	27.88	2.93	0.750			
0.2592	16585.63	3.9710	3.9711	0.9929	27.89	2.94	0.750			
0.2622	16779.90	3.9680	3.9680	0.9937	27.89	2.94	0.750			
0.2651	16968.88	3.9650	3.9650	0.9883	27.89	2.94	0.750			
0.2681	17156.88	3.9620	3.9621	0.9781	27.89	2.94	0.750			
0.2710	17344.41	3.9590	3.9591	0.9815	27.90	2.95	0.750			
0.2739	17531.50	3.9560	3.9560	0.9891	27.90	2.95	0.750			
0.2769	17720.24	3.9530	3.9527	0.9879	27.90	2.95	0.750			
0.2799	17911.51	3.9500	3.9500	0.9904	27.90	2.95	0.750			
0.2829	18103.04	3.9470	3.9471	0.9964	27.90	2.95	0.750			
0.2859	18297.00	3.9440	3.9440	1.0013	27.90	2.95	0.750			
0.2889	18488.25	3.9410	3.9408	1.0006	27.90	2.95	0.750			
0.2919	18678.73	3.9380	3.9380	1.0027	27.91	2.96	0.750			
0.2949	18872.06	3.9350	3.9351	1.0087	27.91	2.96	0.750			
0.2979	19067.38	3.9320	3.9319	1.0265	27.92	2.97	0.750			
0.3010	19266.77	3.9290	3.9290	1.0326	27.93	2.98	0.750			
0.3042	19465.75	3.9260	3.9259	1.0326	27.94	2.99	0.750			
0.3073	19665.29	3.9230	3.9230	1.0327	27.95	3.00	0.750			
0.3104	19864.17	3.9200	3.9201	1.0323	27.96	3.01	0.750			
0.3135	20062.33	3.9170	3.9169	1.0316	27.97	3.02	0.750			
0.3166	20261.18	3.9140	3.9140	1.0249	27.97	3.02	0.750			
0.3196	20453.57	3.9110	3.9110	1.0268	27.97	3.02	0.750			
0.3227	20651.60	3.9080	3.9081	1.0383	27.98	3.03	0.750			
0.3258	20850.95	3.9050	3.9049	1.0476	27.98	3.03	0.750			
0.3290	21053.31	3.9020	3.9020	1.0503	27.98	3.03	0.750			
0.3321	21256.47	3.8990	3.8991	1.0571	27.99	3.04	0.750			
0.3353	21459.65	3.8960	3.8961	1.0706	28.00	3.05	0.750			
0.3386	21668.32	3.8930	3.8930	1.0769	28.01	3.06	0.750			
0.3418	21872.59	3.8900	3.8899	1.0763	28.02	3.07	0.750			
0.3450	22079.89	3.8870	3.8870	1.0876	28.04	3.09	0.750			
0.3483	22291.37	3.8840	3.8841	1.0920	28.05	3.10	0.750			
0.3516	22503.62	3.8810	3.8808	1.0935	28.07	3.12	0.750			
0.3549	22712.37	3.8780	3.8782	1.0943	28.06	3.11	0.750			
0.3581	22920.53	3.8750	3.8751	1.0971	28.05	3.10	0.750			
0.3614	23130.32	3.8720	3.8719	1.1147	28.04	3.09	0.750			
0.3647	23343.83	3.8690	3.8689	1.1120	28.03	3.08	0.750			
0.3681	23559.19	3.8660	3.8660	1.1304	28.04	3.09	0.750			
0.3716	23783.06	3.8630	3.8631	1.1458	28.05	3.10	0.750			
0.3750	24002.84	3.8600	3.8601	1.1546	28.06	3.11	0.750			
0.3785	24223.50	3.8570	3.8571	1.1621	28.06	3.11	0.750			
0.3820	24445.23	3.8540	3.8540	1.1719	28.05	3.10	0.750			
0.3855	24670.34	3.8510	3.8509	1.1874	28.05	3.10	0.750			
0.3891	24902.07	3.8480	3.8478	1.2109	28.04	3.09	0.750			
0.3928	25136.21	3.8450	3.8450	1.2250	28.05	3.10	0.750			
0.3965	25373.83	3.8420	3.8420	1.2436	28.06	3.11	0.750			
0.4002	25615.56	3.8390	3.8389	1.2514	28.07	3.12	0.750			
0.4040	25855.76	3.8360	3.8361	1.2744	28.06	3.11	0.750			
0.4078	26098.68	3.8330	3.8330	1.2948	28.05	3.10	0.750			
0.4117	26350.77	3.8300	3.8300	1.3164	28.04	3.09	0.750			
0.4157	26603.71	3.8270	3.8270	1.3501	28.02	3.07	0.750			
0.4198	26866.60	3.8240	3.8241	1.3818	28.01	3.06	0.750			
0.4240	27136.83	3.8210	3.8210	1.4101	27.99	3.04	0.750			
0.4283	27413.29	3.8180	3.8181	1.4294	27.97	3.02	0.750			
0.4327	27689.75	3.8150	3.8150	1.4413	27.94	2.99	0.750			
0.4370	27968.92	3.8120	3.8121	1.4570	27.91	2.96	0.750			
0.4414	28248.24	3.8090	3.8090	1.4868	27.88	2.93	0.750			
0.4458	28531.57	3.8060	3.8060	1.5136	27.85	2.90	0.750			
0.4504	28823.84	3.8030	3.8029	1.5540	27.82	2.87	0.750			
0.4551	29124.96	3.8000	3.8002	1.5963	27.79	2.84	0.750			
0.4600	29438.42	3.7970	3.7970	1.6347	27.75	2.80	0.750			
0.4650	29757.08	3.7940	3.7939	1.6759	27.71	2.76	0.750			
0.4700	30080.12	3.7910	3.7909	1.7173	27.66	2.71	0.750			
0.4752	30412.96	3.7880	3.7881	1.7405	27.61	2.66	0.750			
0.4805	30751.23	3.7850	3.7850	1.7903	27.56	2.61	0.750			
0.4859	31097.02	3.7820	3.7821	1.8431	27.53	2.58	0.750			
0.4916	31462.61	3.7790	3.7788	1.8745	27.48	2.53	0.750			
0.4974	31831.34	3.7760	3.7760	1.9082	27.43	2.48	0.750			
0.5031	32200.77	3.7730	3.7731	1.9323	27.38	2.43	0.750			
0.5089	32571.78	3.7700	3.7701	1.9616	27.33	2.38	0.750			
0.5148	32949.46	3.7670	3.7669	1.9735	27.27	2.32	0.750			
0.5207	33326.15	3.7640	3.7640	1.9959	27.21	2.26	0.750			
0.5267	33711.17	3.7610	3.7613	2.0582	27.13	2.18	0.750			
0.5330	34110.68	3.7580	3.7579	2.1366	27.07	2.12	0.750			
0.5394	34524.53	3.7550	3.7548	2.2054	26.97	2.02	0.750			
0.5462	34958.87	3.7520	3.7521	2.2389	26.91	1.96	0.750			
0.5531	35399.13	3.7490	3.7490	2.3057	26.83	1.88	0.750			
0.5601	35846.58	3.7460	3.7459	2.3234	26.76	1.81	0.750			
0.5671	36291.85	3.7430	3.7429	2.3337	26.69	1.74	0.750			
0.5741	36741.92	3.7400	3.7401	2.3961	26.61	1.66	0.750			
0.5815	37216.22	3.7370	3.7369	2.4586	26.53	1.58	0.750			
0.5888	37683.67	3.7340	3.7340	2.5465	26.44	1.49	0.750			
0.5968	38192.69	3.7310	3.7309	2.6573	26.34	1.39	0.750			
0.6050	38718.93	3.7280	3.7280	2.7430	26.23	1.28	0.750			
0.6133	39248.64	3.7250	3.7248	2.8133	26.13	1.18	0.750			
0.6217	39787.46	3.7220	3.7221	2.8464	26.03	1.08	0.750			
0.6304	40343.67	3.7190	3.7190	2.9778	25.94	0.99	0.750			
0.6395	40928.57	3.7160	3.7159	3.1314	25.84	0.89	0.750			
0.6492	41548.91	3.7130	3.7129	3.2862	25.73	0.78	0.750			
0.6593	42193.22	3.7100	3.7100	3.4002	25.64	0.69	0.750			
0.6697	42862.46	3.7070	3.7071	3.5293	25.53	0.58	0.750			
0.6806	43556.66	3.7040	3.7042	3.6066	25.41	0.46	0.750			
0.6916	44261.13	3.7010	3.7010	3.5170	25.30	0.35	0.750			
0.7017	44908.31	3.6980	3.6980	3.2255	25.20	0.25	0.750			
0.7109	45497.69	3.6950	3.6950	2.9472	25.13	0.18	0.750			
0.7195	46048.62	3.6920	3.6919	2.6502	25.07	0.12	0.750			
0.7269	46519.07	3.6890	3.6892	2.3129	25.02	0.07	0.750			
0.7329	46907.91	3.6860	3.6861	1.9507	25.00	0.05	0.750			
0.7384	47260.20	3.6830	3.6828	1.6391	24.97	0.02	0.750			
0.7424	47516.33	3.6800	3.6800	1.3550	24.97	0.02	0.750			
0.7460	47744.59	3.6770	3.6770	1.1436	24.96	0.01	0.750			
0.7489	47932.63	3.6740	3.6740	0.9669	24.95	0.00	0.750			
0.7516	48101.79	3.6710	3.6707	0.8363	24.95	0.00	0.750			
0.7538	48240.43	3.6680	3.6681	0.7190	24.95	-0.00	0.750			
0.7557	48367.32	3.6650	3.6650	0.6270	24.94	-0.01	0.750			
0.7574	48476.38	3.6620	3.6619	0.5458	24.94	-0.01	0.750			
0.7590	48573.15	3.6590	3.6590	0.4729	24.94	-0.01	0.750			
0.7602	48654.35	3.6560	3.6561	0.4051	24.94	-0.01	0.750			
0.7613	48725.61	3.6530	3.6529	0.3466	24.93	-0.02	0.750			
0.7623	48785.06	3.6500	3.6500	0.2858	24.93	-0.02	0.750			
0.7630	48833.76	3.6470	3.6470	0.2315	24.93	-0.02	0.750			
0.7637	48873.67	3.6440	3.6442	0.1779	24.93	-0.02	0.750			
0.7641	48902.60	3.6410	3.6412	0.1253	24.93	-0.02	0.750			
