Ah_balance (normalized)	Ah_balance (mAh)	Voltage - fit (V)	Voltage -  interpolate (V)	dQ/dV (1/V)	Temperature (°C)	Temperature - diff (°C)	Current (C)	R_DC 0ms (mOhm)	R_DC 50ms (mOhm)	R_DC 50 ms PEC (mOhm)
-0.0053	-339.92	4.2000	4.1767	0.7930	23.58	-0.24	-0.422	0.113	0.379	
-0.0045	-289.08	4.1990	4.1991	0.8062	23.56	-0.26	0.050			
-0.0037	-237.15	4.1980	4.1980	0.8170	23.54	-0.28	0.050			
-0.0029	-184.48	4.1970	4.1969	0.8234	23.52	-0.30	0.050			
-0.0021	-131.48	4.1960	4.1960	0.8274	23.54	-0.28	0.050			
-0.0012	-78.10	4.1950	4.1950	0.8305	23.54	-0.28	0.050			
-0.0004	-24.80	4.1940	4.1940	0.8324	23.54	-0.28	0.050			
0.0004	28.73	4.1930	4.1930	0.8339	23.54	-0.28	0.050			
0.0013	82.16	4.1920	4.1920	0.8352	23.53	-0.29	0.050			
0.0021	135.92	4.1910	4.1910	0.8359	23.53	-0.29	0.050			
0.0030	189.60	4.1900	4.1901	0.8362	23.51	-0.31	0.050			
0.0038	243.27	4.1890	4.1890	0.8382	23.50	-0.32	0.050			
0.0046	297.13	4.1880	4.1881	0.8390	23.51	-0.31	0.050			
0.0055	351.13	4.1870	4.1869	0.8399	23.52	-0.30	0.050			
0.0063	404.78	4.1860	4.1859	0.8405	23.53	-0.29	0.050			
0.0072	458.50	4.1850	4.1850	0.8405	23.52	-0.30	0.050			
0.0080	512.09	4.1840	4.1840	0.8404	23.53	-0.29	0.050			
0.0088	565.93	4.1830	4.1830	0.8406	23.51	-0.31	0.050			
0.0097	619.47	4.1820	4.1821	0.8415	23.53	-0.29	0.050			
0.0105	673.35	4.1810	4.1810	0.8409	23.54	-0.28	0.050			
0.0114	726.89	4.1800	4.1799	0.8418	23.56	-0.26	0.050			
0.0122	780.94	4.1790	4.1790	0.8421	23.57	-0.25	0.050			
0.0131	835.52	4.1780	4.1781	0.8424	23.60	-0.22	0.050			
0.0139	889.70	4.1770	4.1770	0.8419	23.61	-0.21	0.050			
0.0147	943.21	4.1760	4.1760	0.8431	23.62	-0.20	0.050			
0.0156	997.22	4.1750	4.1750	0.8433	23.60	-0.22	0.050			
0.0164	1050.92	4.1740	4.1740	0.8438	23.56	-0.26	0.050			
0.0173	1105.09	4.1730	4.1730	0.8441	23.53	-0.29	0.050			
0.0181	1159.06	4.1720	4.1721	0.8447	23.52	-0.30	0.050			
0.0190	1212.98	4.1710	4.1710	0.8451	23.52	-0.30	0.050			
0.0198	1267.41	4.1700	4.1701	0.8454	23.52	-0.30	0.050			
0.0206	1321.16	4.1690	4.1689	0.8449	23.52	-0.30	0.050			
0.0215	1375.19	4.1680	4.1679	0.8448	23.49	-0.33	0.050			
0.0223	1429.63	4.1670	4.1669	0.8449	23.44	-0.38	0.050			
0.0232	1483.59	4.1660	4.1660	0.8450	23.37	-0.45	0.050			
0.0240	1537.69	4.1650	4.1652	0.8448	23.31	-0.51	0.050			
0.0249	1592.14	4.1640	4.1640	0.8444	23.26	-0.56	0.050			
0.0257	1646.60	4.1630	4.1629	0.8430	23.23	-0.59	0.050			
0.0266	1700.17	4.1620	4.1621	0.8439	23.24	-0.58	0.050			
0.0274	1754.30	4.1610	4.1610	0.8446	23.28	-0.54	0.050			
0.0283	1808.26	4.1600	4.1599	0.8440	23.33	-0.49	0.050			
0.0291	1862.11	4.1590	4.1591	0.8441	23.39	-0.43	0.050			
0.0299	1916.41	4.1580	4.1580	0.8445	23.43	-0.39	0.050			
0.0308	1970.21	4.1570	4.1569	0.8443	23.46	-0.36	0.050			
0.0316	2023.37	4.1560	4.1561	0.8435	23.49	-0.33	0.050			
0.0325	2077.57	4.1550	4.1549	0.8440	23.50	-0.32	0.050			
0.0333	2131.67	4.1540	4.1539	0.8445	23.51	-0.31	0.050			
0.0342	2185.76	4.1530	4.1530	0.8442	23.53	-0.29	0.050			
0.0350	2239.64	4.1520	4.1520	0.8454	23.53	-0.29	0.050			
0.0358	2293.91	4.1510	4.1510	0.8452	23.54	-0.28	0.050			
0.0367	2348.25	4.1500	4.1500	0.8454	23.56	-0.26	0.050			
0.0375	2402.56	4.1490	4.1491	0.8454	23.55	-0.27	0.050			
0.0384	2456.72	4.1480	4.1481	0.8464	23.55	-0.27	0.050			
0.0392	2511.06	4.1470	4.1470	0.8472	23.57	-0.25	0.050			
0.0401	2565.14	4.1460	4.1461	0.8473	23.61	-0.21	0.050			
0.0409	2619.12	4.1450	4.1451	0.8488	23.62	-0.20	0.050			
0.0418	2673.71	4.1440	4.1440	0.8496	23.65	-0.17	0.050			
0.0426	2728.26	4.1430	4.1430	0.8484	23.68	-0.14	0.050			
0.0435	2781.60	4.1420	4.1421	0.8491	23.71	-0.11	0.050			
0.0443	2836.11	4.1410	4.1409	0.8498	23.74	-0.08	0.050			
0.0452	2889.93	4.1400	4.1401	0.8535	23.79	-0.03	0.050			
0.0460	2944.67	4.1390	4.1390	0.8538	23.82	-0.00	0.050			
0.0469	2999.34	4.1380	4.1380	0.8558	23.85	0.03	0.050			
0.0477	3053.82	4.1370	4.1370	0.8581	23.88	0.06	0.050			
0.0486	3108.70	4.1360	4.1360	0.8594	23.89	0.07	0.050			
0.0494	3163.74	4.1350	4.1350	0.8627	23.89	0.07	0.050			
0.0503	3219.11	4.1340	4.1339	0.8646	23.89	0.07	0.050			
0.0512	3275.74	4.1330	4.1328	0.8633	23.88	0.06	0.050			
0.0521	3331.41	4.1320	4.1320	0.8634	23.90	0.08	0.050			
0.0529	3386.81	4.1310	4.1310	0.8631	23.89	0.07	0.050			
0.0538	3442.62	4.1300	4.1300	0.8638	23.88	0.06	0.050			
0.0547	3498.18	4.1290	4.1289	0.8638	23.89	0.07	0.050			
0.0555	3553.10	4.1280	4.1279	0.8641	23.88	0.06	0.050			
0.0564	3608.51	4.1270	4.1271	0.8647	23.89	0.07	0.050			
0.0572	3663.69	4.1260	4.1260	0.8645	23.87	0.05	0.050			
0.0581	3718.76	4.1250	4.1250	0.8650	23.85	0.03	0.050			
0.0590	3774.18	4.1240	4.1241	0.8649	23.86	0.04	0.050			
0.0598	3829.70	4.1230	4.1230	0.8650	23.86	0.04	0.050			
0.0607	3884.31	4.1220	4.1220	0.8634	23.85	0.03	0.050			
0.0616	3939.80	4.1210	4.1210	0.8636	23.85	0.03	0.050			
0.0624	3994.59	4.1200	4.1199	0.8628	23.85	0.03	0.050			
0.0633	4050.05	4.1190	4.1190	0.8643	23.86	0.04	0.050			
0.0641	4105.02	4.1180	4.1180	0.8645	23.86	0.04	0.050			
0.0650	4160.31	4.1170	4.1170	0.8639	23.88	0.06	0.050			
0.0659	4215.66	4.1160	4.1160	0.8655	23.89	0.07	0.050			
0.0667	4271.11	4.1150	4.1150	0.8658	23.90	0.08	0.050			
0.0676	4326.52	4.1140	4.1139	0.8680	23.91	0.09	0.050			
0.0685	4383.29	4.1130	4.1129	0.8702	23.90	0.08	0.050			
0.0694	4439.03	4.1120	4.1120	0.8705	23.87	0.05	0.050			
0.0702	4494.38	4.1110	4.1109	0.8693	23.85	0.03	0.050			
0.0711	4549.91	4.1100	4.1099	0.8685	23.82	0.00	0.050			
0.0720	4605.20	4.1090	4.1090	0.8684	23.78	-0.04	0.050			
0.0728	4660.72	4.1080	4.1080	0.8680	23.77	-0.05	0.050			
0.0737	4716.17	4.1070	4.1069	0.8690	23.73	-0.09	0.050			
0.0746	4771.59	4.1060	4.1060	0.8706	23.69	-0.13	0.050	0.281	0.494	
0.0754	4827.52	4.1050	4.1050	0.8712	23.69	-0.13	0.050			
0.0763	4883.35	4.1040	4.1041	0.8717	23.69	-0.13	0.050			
0.0772	4939.56	4.1030	4.1029	0.8722	23.67	-0.15	0.050			
0.0780	4995.14	4.1020	4.1020	0.8725	23.67	-0.15	0.050			
0.0789	5051.24	4.1010	4.1010	0.8725	23.67	-0.15	0.050			
0.0798	5107.13	4.1000	4.1001	0.8724	23.67	-0.15	0.050			
0.0807	5163.23	4.0990	4.0989	0.8716	23.66	-0.16	0.050			
0.0815	5219.00	4.0980	4.0980	0.8717	23.65	-0.17	0.050			
0.0824	5274.79	4.0970	4.0970	0.8722	23.63	-0.19	0.050			
0.0833	5330.15	4.0960	4.0961	0.8727	23.62	-0.20	0.050			
0.0842	5386.15	4.0950	4.0950	0.8729	23.61	-0.21	0.050			
0.0850	5442.17	4.0940	4.0940	0.8731	23.62	-0.20	0.050			
0.0859	5498.19	4.0930	4.0930	0.8718	23.61	-0.21	0.050			
0.0868	5554.13	4.0920	4.0920	0.8728	23.60	-0.22	0.050			
0.0877	5609.71	4.0910	4.0909	0.8730	23.58	-0.24	0.050			
0.0885	5665.55	4.0900	4.0901	0.8735	23.58	-0.24	0.050			
0.0894	5721.33	4.0890	4.0889	0.8741	23.57	-0.25	0.050			
0.0903	5776.94	4.0880	4.0880	0.8744	23.55	-0.27	0.050			
0.0911	5832.53	4.0870	4.0870	0.8747	23.56	-0.26	0.050			
0.0920	5888.72	4.0860	4.0861	0.8751	23.54	-0.28	0.050			
0.0929	5944.98	4.0850	4.0851	0.8764	23.53	-0.29	0.050			
0.0938	6001.16	4.0840	4.0841	0.8766	23.52	-0.30	0.050			
0.0946	6057.29	4.0830	4.0829	0.8774	23.54	-0.28	0.050	0.046	0.379	
0.0955	6113.28	4.0820	4.0819	0.8781	23.56	-0.26	0.050			
0.0964	6169.58	4.0810	4.0810	0.8796	23.56	-0.26	0.050			
0.0973	6226.04	4.0800	4.0800	0.8799	23.56	-0.26	0.050			
0.0982	6282.52	4.0790	4.0790	0.8803	23.55	-0.27	0.050			
0.0990	6338.78	4.0780	4.0781	0.8812	23.53	-0.29	0.050			
0.0999	6395.19	4.0770	4.0770	0.8801	23.49	-0.33	0.050			
0.1008	6451.43	4.0760	4.0759	0.8808	23.44	-0.38	0.050			
0.1017	6508.09	4.0750	4.0750	0.8829	23.41	-0.41	0.050			
0.1026	6565.05	4.0740	4.0739	0.8831	23.39	-0.43	0.050			
0.1035	6621.58	4.0730	4.0729	0.8830	23.38	-0.44	0.050			
0.1043	6677.79	4.0720	4.0720	0.8820	23.40	-0.42	0.050			
0.1052	6733.99	4.0710	4.0711	0.8821	23.42	-0.40	0.050			
0.1061	6790.52	4.0700	4.0699	0.8829	23.42	-0.40	0.050			
0.1070	6846.91	4.0690	4.0689	0.8832	23.44	-0.38	0.050			
0.1079	6903.36	4.0680	4.0680	0.8841	23.44	-0.38	0.050			
0.1088	6960.02	4.0670	4.0669	0.8847	23.46	-0.36	0.050			
0.1096	7016.58	4.0660	4.0661	0.8857	23.44	-0.38	0.050			
0.1105	7073.22	4.0650	4.0650	0.8863	23.43	-0.39	0.050			
0.1114	7129.93	4.0640	4.0639	0.8870	23.44	-0.38	0.050			
0.1123	7186.47	4.0630	4.0630	0.8875	23.43	-0.39	0.050			
0.1132	7243.15	4.0620	4.0620	0.8883	23.43	-0.39	0.050			
0.1141	7299.99	4.0610	4.0610	0.8899	23.43	-0.39	0.050	0.352	0.419	
0.1150	7357.10	4.0600	4.0600	0.8919	23.42	-0.40	0.050			
0.1158	7413.67	4.0590	4.0590	0.8932	23.40	-0.42	0.050			
0.1167	7471.14	4.0580	4.0581	0.8945	23.41	-0.41	0.050			
0.1176	7528.68	4.0570	4.0570	0.8955	23.40	-0.42	0.050			
0.1185	7586.45	4.0560	4.0559	0.8964	23.42	-0.40	0.050			
0.1194	7644.13	4.0550	4.0550	0.8956	23.41	-0.41	0.050			
0.1203	7701.67	4.0540	4.0541	0.8971	23.42	-0.40	0.050			
0.1212	7759.25	4.0530	4.0529	0.8976	23.40	-0.42	0.050			
0.1221	7817.07	4.0520	4.0520	0.8971	23.40	-0.42	0.050			
0.1230	7874.56	4.0510	4.0510	0.8968	23.42	-0.40	0.050			
0.1239	7931.65	4.0500	4.0501	0.8975	23.45	-0.37	0.050			
0.1248	7989.04	4.0490	4.0491	0.8982	23.49	-0.33	0.050			
0.1257	8046.29	4.0480	4.0479	0.8993	23.52	-0.30	0.050			
0.1266	8103.80	4.0470	4.0470	0.9003	23.55	-0.27	0.050			
0.1275	8161.23	4.0460	4.0459	0.9007	23.56	-0.26	0.050			
0.1284	8218.74	4.0450	4.0448	0.9006	23.57	-0.25	0.050			
0.1293	8276.53	4.0440	4.0440	0.9012	23.60	-0.22	0.050			
0.1302	8334.25	4.0430	4.0431	0.9016	23.62	-0.20	0.050			
0.1311	8391.75	4.0420	4.0420	0.9022	23.67	-0.15	0.050			
0.1320	8449.22	4.0410	4.0410	0.9031	23.69	-0.13	0.050			
0.1329	8507.00	4.0400	4.0400	0.9045	23.70	-0.12	0.050			
0.1338	8564.74	4.0390	4.0390	0.9061	23.72	-0.10	0.050			
0.1347	8622.91	4.0380	4.0380	0.9081	23.73	-0.09	0.050	0.109	0.369	
0.1356	8681.17	4.0370	4.0370	0.9109	23.72	-0.10	0.050			
0.1366	8739.37	4.0360	4.0363	0.9130	23.72	-0.10	0.050			
0.1375	8798.30	4.0350	4.0350	0.9140	23.72	-0.10	0.050			
0.1384	8856.56	4.0340	4.0341	0.9140	23.72	-0.10	0.050			
0.1393	8915.50	4.0330	4.0329	0.9159	23.74	-0.08	0.050			
0.1402	8974.17	4.0320	4.0320	0.9171	23.75	-0.07	0.050			
0.1411	9033.16	4.0310	4.0310	0.9185	23.74	-0.08	0.050			
0.1421	9091.54	4.0300	4.0300	0.9176	23.75	-0.07	0.050			
0.1430	9150.38	4.0290	4.0289	0.9180	23.74	-0.08	0.050			
0.1439	9209.41	4.0280	4.0280	0.9190	23.70	-0.12	0.050			
0.1448	9267.96	4.0270	4.0270	0.9217	23.65	-0.17	0.050			
0.1457	9327.39	4.0260	4.0260	0.9226	23.62	-0.20	0.050			
0.1467	9386.92	4.0250	4.0250	0.9231	23.59	-0.23	0.050			
0.1476	9446.02	4.0240	4.0239	0.9233	23.56	-0.26	0.050			
0.1485	9505.58	4.0230	4.0230	0.9232	23.51	-0.31	0.050			
0.1494	9564.55	4.0220	4.0220	0.9219	23.44	-0.38	0.050			
0.1504	9623.55	4.0210	4.0210	0.9209	23.38	-0.44	0.050			
0.1513	9682.50	4.0200	4.0199	0.9199	23.29	-0.53	0.050			
0.1522	9741.11	4.0190	4.0190	0.9203	23.25	-0.57	0.050			
0.1531	9799.60	4.0180	4.0179	0.9215	23.23	-0.59	0.050			
0.1540	9858.38	4.0170	4.0171	0.9216	23.24	-0.58	0.050			
0.1550	9917.03	4.0160	4.0160	0.9233	23.26	-0.56	0.050	0.154	0.472	
0.1559	9976.37	4.0150	4.0150	0.9250	23.29	-0.53	0.050			
0.1568	10035.37	4.0140	4.0139	0.9259	23.35	-0.47	0.050			
0.1577	10094.49	4.0130	4.0129	0.9261	23.42	-0.40	0.050			
0.1587	10153.64	4.0120	4.0119	0.9274	23.47	-0.35	0.050			
0.1596	10213.20	4.0110	4.0109	0.9277	23.48	-0.34	0.050			
0.1605	10272.72	4.0100	4.0100	0.9285	23.49	-0.33	0.050			
0.1614	10331.97	4.0090	4.0090	0.9296	23.50	-0.32	0.050			
0.1624	10391.40	4.0080	4.0081	0.9311	23.51	-0.31	0.050			
0.1633	10450.76	4.0070	4.0070	0.9322	23.51	-0.31	0.050			
0.1642	10510.58	4.0060	4.0061	0.9342	23.51	-0.31	0.050			
0.1652	10571.14	4.0050	4.0050	0.9369	23.54	-0.28	0.050			
0.1661	10630.99	4.0040	4.0041	0.9386	23.56	-0.26	0.050			
0.1670	10691.10	4.0030	4.0030	0.9400	23.56	-0.26	0.050			
0.1680	10751.32	4.0020	4.0021	0.9426	23.58	-0.24	0.050			
0.1689	10811.68	4.0010	4.0009	0.9435	23.59	-0.23	0.050			
0.1699	10871.92	4.0000	3.9999	0.9444	23.59	-0.23	0.050			
0.1708	10932.54	3.9990	3.9990	0.9442	23.59	-0.23	0.050			
0.1718	10992.86	3.9980	3.9981	0.9450	23.59	-0.23	0.050			
0.1727	11053.97	3.9970	3.9970	0.9451	23.60	-0.22	0.050			
0.1737	11114.30	3.9960	3.9961	0.9467	23.58	-0.24	0.050			
0.1746	11175.10	3.9950	3.9951	0.9478	23.60	-0.22	0.050	0.440	0.413	
0.1756	11236.07	3.9940	3.9939	0.9494	23.61	-0.21	0.050			
0.1765	11296.81	3.9930	3.9931	0.9514	23.60	-0.22	0.050			
0.1775	11357.71	3.9920	3.9921	0.9523	23.62	-0.20	0.050			
0.1784	11418.58	3.9910	3.9910	0.9538	23.65	-0.17	0.050			
0.1794	11479.57	3.9900	3.9900	0.9547	23.66	-0.16	0.050			
0.1803	11540.28	3.9890	3.9890	0.9556	23.67	-0.15	0.050			
0.1813	11601.56	3.9880	3.9879	0.9561	23.68	-0.14	0.050			
0.1822	11663.14	3.9870	3.9870	0.9578	23.70	-0.12	0.050			
0.1832	11724.37	3.9860	3.9860	0.9581	23.71	-0.11	0.050			
0.1841	11785.54	3.9850	3.9850	0.9594	23.71	-0.11	0.050			
0.1851	11847.04	3.9840	3.9841	0.9584	23.73	-0.09	0.050			
0.1861	11908.49	3.9830	3.9830	0.9594	23.72	-0.10	0.050			
0.1870	11969.89	3.9820	3.9820	0.9613	23.72	-0.10	0.050			
0.1880	12031.71	3.9810	3.9811	0.9637	23.78	-0.04	0.050			
0.1890	12093.42	3.9800	3.9800	0.9648	23.81	-0.01	0.050			
0.1899	12155.58	3.9790	3.9789	0.9661	23.85	0.03	0.050			
0.1909	12217.35	3.9780	3.9780	0.9682	23.87	0.05	0.050			
0.1919	12279.03	3.9770	3.9770	0.9688	23.90	0.08	0.050			
0.1928	12340.99	3.9760	3.9762	0.9692	23.93	0.11	0.050			
0.1938	12402.97	3.9750	3.9750	0.9692	23.92	0.10	0.050			
0.1948	12465.14	3.9740	3.9741	0.9706	23.93	0.11	0.050			
0.1957	12526.82	3.9730	3.9730	0.9711	23.95	0.13	0.050			
0.1967	12589.12	3.9720	3.9720	0.9717	23.98	0.16	0.050			
0.1977	12651.02	3.9710	3.9710	0.9743	23.99	0.17	0.050			
0.1986	12713.58	3.9700	3.9700	0.9757	23.97	0.15	0.050			
0.1996	12776.37	3.9690	3.9690	0.9776	23.94	0.12	0.050			
0.2006	12839.01	3.9680	3.9680	0.9781	23.88	0.06	0.050			
0.2016	12901.87	3.9670	3.9670	0.9793	23.83	0.01	0.050			
0.2026	12964.60	3.9660	3.9659	0.9810	23.80	-0.02	0.050			
0.2036	13027.86	3.9650	3.9649	0.9827	23.81	-0.01	0.050			
0.2045	13090.70	3.9640	3.9640	0.9839	23.80	-0.02	0.050			
0.2055	13153.50	3.9630	3.9630	0.9834	23.80	-0.02	0.050			
0.2065	13216.27	3.9620	3.9619	0.9838	23.80	-0.02	0.050			
0.2075	13279.28	3.9610	3.9610	0.9854	23.81	-0.01	0.050			
0.2085	13342.61	3.9600	3.9600	0.9862	23.82	0.00	0.050			
0.2095	13405.36	3.9590	3.9589	0.9882	23.84	0.02	0.050			
0.2104	13468.40	3.9580	3.9580	0.9896	23.84	0.02	0.050			
0.2114	13532.30	3.9570	3.9570	0.9903	23.83	0.01	0.050			
0.2124	13595.99	3.9560	3.9560	0.9898	23.80	-0.02	0.050			
0.2134	13659.68	3.9550	3.9551	0.9905	23.77	-0.05	0.050			
0.2144	13723.08	3.9540	3.9539	0.9907	23.77	-0.05	0.050	0.294	0.474	
0.2154	13786.30	3.9530	3.9530	0.9908	23.74	-0.08	0.050			
0.2164	13850.05	3.9520	3.9520	0.9909	23.72	-0.10	0.050			
0.2174	13913.08	3.9510	3.9510	0.9909	23.70	-0.12	0.050			
0.2184	13976.87	3.9500	3.9501	0.9921	23.68	-0.14	0.050			
0.2194	14040.31	3.9490	3.9490	0.9943	23.67	-0.15	0.050			
0.2204	14103.71	3.9480	3.9481	0.9947	23.65	-0.17	0.050			
0.2214	14167.50	3.9470	3.9468	0.9939	23.64	-0.18	0.050			
0.2224	14230.75	3.9460	3.9459	0.9950	23.62	-0.20	0.050			
0.2234	14294.48	3.9450	3.9450	0.9964	23.60	-0.22	0.050			
0.2243	14358.23	3.9440	3.9440	0.9969	23.56	-0.26	0.050			
0.2253	14421.89	3.9430	3.9431	0.9983	23.55	-0.27	0.050			
0.2263	14485.86	3.9420	3.9418	0.9987	23.51	-0.31	0.050			
0.2273	14549.47	3.9410	3.9411	0.9996	23.46	-0.36	0.050			
0.2283	14613.53	3.9400	3.9400	1.0007	23.42	-0.40	0.050			
0.2293	14677.27	3.9390	3.9391	1.0020	23.40	-0.42	0.050			
0.2303	14742.15	3.9380	3.9381	1.0038	23.38	-0.44	0.050			
0.2314	14806.62	3.9370	3.9368	1.0052	23.40	-0.42	0.050			
0.2324	14871.18	3.9360	3.9359	1.0067	23.41	-0.41	0.050			
0.2334	14935.56	3.9350	3.9351	1.0080	23.43	-0.39	0.050			
0.2344	14999.95	3.9340	3.9340	1.0081	23.45	-0.37	0.050			
0.2354	15064.73	3.9330	3.9330	1.0080	23.46	-0.36	0.050			
0.2364	15129.63	3.9320	3.9319	1.0084	23.46	-0.36	0.050			
0.2374	15194.20	3.9310	3.9310	1.0067	23.44	-0.38	0.050			
0.2384	15258.67	3.9300	3.9300	1.0076	23.41	-0.41	0.050			
0.2394	15323.04	3.9290	3.9289	1.0068	23.38	-0.44	0.050			
0.2404	15388.18	3.9280	3.9278	1.0067	23.36	-0.46	0.050			
0.2415	15452.97	3.9270	3.9270	1.0071	23.34	-0.48	0.050			
0.2424	15516.74	3.9260	3.9259	1.0059	23.35	-0.47	0.050			
0.2435	15580.99	3.9250	3.9251	1.0060	23.35	-0.47	0.050			
0.2445	15645.21	3.9240	3.9240	1.0073	23.34	-0.48	0.050			
0.2455	15709.36	3.9230	3.9229	1.0072	23.36	-0.46	0.050			
0.2465	15773.92	3.9220	3.9220	1.0075	23.36	-0.46	0.050			
0.2475	15837.82	3.9210	3.9208	1.0082	23.36	-0.46	0.050			
0.2485	15902.31	3.9200	3.9201	1.0099	23.39	-0.43	0.050			
0.2495	15966.48	3.9190	3.9189	1.0109	23.38	-0.44	0.050			
0.2505	16031.21	3.9180	3.9180	1.0129	23.40	-0.42	0.050			
0.2515	16096.07	3.9170	3.9171	1.0131	23.39	-0.43	0.050			
0.2525	16160.98	3.9160	3.9159	1.0138	23.40	-0.42	0.050			
0.2535	16226.06	3.9150	3.9151	1.0150	23.42	-0.40	0.050			
0.2545	16291.05	3.9140	3.9140	1.0169	23.44	-0.38	0.050	0.225	0.407	
0.2556	16356.54	3.9130	3.9130	1.0196	23.45	-0.37	0.050			
0.2566	16422.06	3.9120	3.9120	1.0206	23.45	-0.37	0.050			
0.2576	16487.49	3.9110	3.9110	1.0218	23.45	-0.37	0.050			
0.2586	16552.64	3.9100	3.9099	1.0231	23.46	-0.36	0.050			
0.2597	16618.53	3.9090	3.9091	1.0245	23.47	-0.35	0.050			
0.2607	16684.43	3.9080	3.9080	1.0254	23.50	-0.32	0.050			
0.2617	16749.93	3.9070	3.9069	1.0260	23.53	-0.29	0.050			
0.2627	16815.43	3.9060	3.9059	1.0259	23.56	-0.26	0.050			
0.2638	16881.08	3.9050	3.9049	1.0268	23.58	-0.24	0.050			
0.2648	16946.65	3.9040	3.9040	1.0274	23.62	-0.20	0.050			
0.2658	17012.48	3.9030	3.9030	1.0289	23.65	-0.17	0.050			
0.2669	17078.49	3.9020	3.9020	1.0297	23.64	-0.18	0.050			
0.2679	17144.26	3.9010	3.9010	1.0304	23.63	-0.19	0.050			
0.2689	17210.38	3.9000	3.9001	1.0310	23.64	-0.18	0.050			
0.2699	17276.30	3.8990	3.8990	1.0326	23.65	-0.17	0.050			
0.2710	17342.49	3.8980	3.8980	1.0336	23.65	-0.17	0.050			
0.2720	17409.38	3.8970	3.8970	1.0342	23.62	-0.20	0.050			
0.2731	17475.86	3.8960	3.8960	1.0335	23.58	-0.24	0.050			
0.2741	17541.99	3.8950	3.8949	1.0324	23.56	-0.26	0.050	0.323	0.389	
0.2751	17607.85	3.8940	3.8940	1.0325	23.54	-0.28	0.050			
0.2762	17673.94	3.8930	3.8930	1.0329	23.50	-0.32	0.050			
0.2772	17739.85	3.8920	3.8922	1.0347	23.42	-0.40	0.050			
0.2782	17805.54	3.8910	3.8910	1.0357	23.36	-0.46	0.050			
0.2792	17871.98	3.8900	3.8900	1.0364	23.32	-0.50	0.050			
0.2803	17938.78	3.8890	3.8891	1.0360	23.36	-0.46	0.050			
0.2813	18004.78	3.8880	3.8879	1.0370	23.39	-0.43	0.050			
0.2824	18070.89	3.8870	3.8870	1.0391	23.44	-0.38	0.050			
0.2834	18136.96	3.8860	3.8859	1.0404	23.50	-0.32	0.050			
0.2844	18203.10	3.8850	3.8849	1.0419	23.56	-0.26	0.050			
0.2855	18269.91	3.8840	3.8841	1.0426	23.64	-0.18	0.050			
0.2865	18336.52	3.8830	3.8830	1.0448	23.69	-0.13	0.050			
0.2876	18403.34	3.8820	3.8820	1.0475	23.70	-0.12	0.050			
0.2886	18470.65	3.8810	3.8810	1.0493	23.75	-0.07	0.050			
0.2897	18537.92	3.8800	3.8801	1.0511	23.78	-0.04	0.050			
0.2907	18605.17	3.8790	3.8790	1.0532	23.80	-0.02	0.050			
0.2918	18673.08	3.8780	3.8779	1.0561	23.83	0.01	0.050			
0.2928	18741.08	3.8770	3.8771	1.0587	23.85	0.03	0.050			
0.2939	18809.06	3.8760	3.8760	1.0614	23.84	0.02	0.050			
0.2949	18876.71	3.8750	3.8751	1.0621	23.83	0.01	0.050	0.274	0.393	
0.2960	18944.25	3.8740	3.8740	1.0640	23.82	0.00	0.050			
0.2971	19012.70	3.8730	3.8731	1.0652	23.82	-0.00	0.050			
0.2981	19080.74	3.8720	3.8720	1.0672	23.83	0.01	0.050			
0.2992	19149.27	3.8710	3.8710	1.0701	23.81	-0.01	0.050			
0.3003	19218.31	3.8700	3.8700	1.0717	23.80	-0.02	0.050			
0.3014	19287.31	3.8690	3.8690	1.0733	23.79	-0.03	0.050			
0.3024	19355.60	3.8680	3.8680	1.0730	23.78	-0.04	0.050			
0.3035	19424.34	3.8670	3.8670	1.0738	23.75	-0.07	0.050			
0.3046	19493.21	3.8660	3.8660	1.0747	23.75	-0.07	0.050			
0.3057	19562.30	3.8650	3.8649	1.0769	23.74	-0.08	0.050			
0.3067	19631.56	3.8640	3.8640	1.0785	23.72	-0.10	0.050			
0.3078	19700.25	3.8630	3.8629	1.0793	23.69	-0.13	0.050			
0.3089	19769.21	3.8620	3.8621	1.0807	23.70	-0.12	0.050			
0.3100	19838.45	3.8610	3.8610	1.0831	23.68	-0.14	0.050			
0.3111	19907.44	3.8600	3.8601	1.0846	23.68	-0.14	0.050			
0.3121	19976.66	3.8590	3.8591	1.0870	23.70	-0.12	0.050			
0.3132	20046.03	3.8580	3.8579	1.0891	23.72	-0.10	0.050			
