Ah_balance (normalized)	Ah_balance (mAh)	Voltage - fit (V)	Voltage -  interpolate (V)	dQ/dV (1/V)	Temperature (°C)	Temperature - diff (°C)	Current (C)	R_DC 0ms (mOhm)	R_DC 50ms (mOhm)	R_DC 50 ms PEC (mOhm)
0.0003	17.94	4.1820	4.1820	-0.3061	25.53	0.00	-0.050			
0.0006	38.30	4.1810	4.1807	-0.3294	25.53	0.00	-0.050			
0.0010	60.86	4.1800	4.1797	-0.3574	25.53	0.00	-0.050			
0.0013	84.27	4.1790	4.1789	-0.3741	25.53	-0.00	-0.050			
0.0017	108.65	4.1780	4.1777	-0.3910	25.52	-0.01	-0.050			
0.0021	134.22	4.1770	4.1771	-0.4080	25.52	-0.01	-0.050			
0.0025	162.75	4.1760	4.1761	-0.4247	25.52	-0.01	-0.050			
0.0030	191.18	4.1750	4.1747	-0.4380	25.52	-0.01	-0.050			
0.0035	221.04	4.1740	4.1740	-0.4489	25.51	-0.02	-0.050			
0.0039	250.12	4.1730	4.1731	-0.4599	25.51	-0.02	-0.050			
0.0044	280.28	4.1720	4.1719	-0.4693	25.51	-0.02	-0.050			
0.0049	311.41	4.1710	4.1709	-0.4763	25.51	-0.02	-0.050			
0.0054	342.47	4.1700	4.1701	-0.4841	25.50	-0.03	-0.050			
0.0059	376.86	4.1690	4.1689	-0.4951	25.50	-0.03	-0.050			
0.0064	409.20	4.1680	4.1683	-0.5019	25.50	-0.03	-0.050			
0.0069	441.15	4.1670	4.1671	-0.5084	25.49	-0.04	-0.050			
0.0074	474.05	4.1660	4.1662	-0.5133	25.49	-0.04	-0.050			
0.0079	507.72	4.1650	4.1644	-0.5198	25.48	-0.05	-0.050			
0.0085	542.26	4.1640	4.1640	-0.5213	25.48	-0.05	-0.050			
0.0090	575.75	4.1630	4.1628	-0.5240	25.48	-0.05	-0.050			
0.0095	608.66	4.1620	4.1618	-0.5302	25.47	-0.06	-0.050			
0.0100	642.79	4.1610	4.1609	-0.5347	25.47	-0.06	-0.050			
0.0106	676.82	4.1600	4.1601	-0.5376	25.47	-0.06	-0.050			
0.0111	711.27	4.1590	4.1589	-0.5423	25.46	-0.07	-0.050			
0.0116	744.71	4.1580	4.1579	-0.5468	25.46	-0.07	-0.050			
0.0122	780.31	4.1570	4.1571	-0.5518	25.46	-0.07	-0.050			
0.0127	815.87	4.1560	4.1563	-0.5585	25.45	-0.08	-0.050			
0.0133	852.80	4.1550	4.1546	-0.5634	25.45	-0.08	-0.050			
0.0139	889.80	4.1540	4.1536	-0.5650	25.44	-0.09	-0.050			
0.0145	926.85	4.1530	4.1527	-0.5660	25.44	-0.09	-0.050			
0.0151	963.73	4.1520	4.1523	-0.5695	25.43	-0.10	-0.050			
0.0156	999.89	4.1510	4.1510	-0.5736	25.43	-0.10	-0.050			
0.0162	1037.13	4.1500	4.1500	-0.5771	25.43	-0.10	-0.050			
0.0168	1074.12	4.1490	4.1491	-0.5787	25.42	-0.11	-0.050			
0.0173	1110.39	4.1480	4.1477	-0.5848	25.42	-0.11	-0.050			
0.0179	1147.79	4.1470	4.1474	-0.5875	25.41	-0.12	-0.050			
0.0185	1185.96	4.1460	4.1460	-0.5897	25.41	-0.12	-0.050			
0.0191	1223.80	4.1450	4.1451	-0.5925	25.41	-0.12	-0.050			
0.0197	1262.51	4.1440	4.1438	-0.5970	25.41	-0.12	-0.050	0.376	0.503	
0.0203	1300.75	4.1430	4.1427	-0.6013	25.40	-0.13	-0.050			
0.0209	1338.43	4.1420	4.1418	-0.6019	25.39	-0.14	-0.050			
0.0215	1376.43	4.1410	4.1411	-0.6034	25.39	-0.14	-0.050			
0.0221	1416.61	4.1400	4.1400	-0.6041	25.39	-0.14	-0.050			
0.0227	1455.05	4.1390	4.1389	-0.6068	25.39	-0.14	-0.050			
0.0233	1493.78	4.1380	4.1380	-0.6079	25.39	-0.14	-0.050			
0.0239	1532.75	4.1370	4.1371	-0.6104	25.38	-0.15	-0.050			
0.0246	1572.74	4.1360	4.1358	-0.6150	25.37	-0.16	-0.050			
0.0252	1612.53	4.1350	4.1347	-0.6163	25.37	-0.16	-0.050			
0.0258	1652.37	4.1340	4.1342	-0.6223	25.37	-0.16	-0.050			
0.0264	1692.12	4.1330	4.1332	-0.6256	25.37	-0.16	-0.050			
0.0271	1732.29	4.1320	4.1320	-0.6265	25.35	-0.18	-0.050			
0.0277	1771.19	4.1310	4.1309	-0.6250	25.36	-0.17	-0.050			
0.0283	1811.70	4.1300	4.1295	-0.6263	25.36	-0.17	-0.050			
0.0289	1852.74	4.1290	4.1292	-0.6282	25.35	-0.18	-0.050			
0.0296	1891.85	4.1280	4.1281	-0.6286	25.35	-0.18	-0.050			
0.0302	1931.65	4.1270	4.1271	-0.6311	25.34	-0.19	-0.050			
0.0308	1972.65	4.1260	4.1258	-0.6365	25.34	-0.19	-0.050			
0.0315	2013.51	4.1250	4.1247	-0.6390	25.34	-0.19	-0.050			
0.0321	2054.77	4.1240	4.1242	-0.6407	25.34	-0.19	-0.050			
0.0327	2095.28	4.1230	4.1231	-0.6426	25.34	-0.19	-0.050			
0.0334	2137.56	4.1220	4.1220	-0.6433	25.34	-0.19	-0.050			
0.0341	2179.31	4.1210	4.1209	-0.6462	25.34	-0.19	-0.050			
0.0347	2221.24	4.1200	4.1201	-0.6477	25.34	-0.19	-0.050			
0.0354	2263.18	4.1190	4.1188	-0.6494	25.34	-0.19	-0.050			
0.0360	2304.34	4.1180	4.1177	-0.6476	25.34	-0.19	-0.050			
0.0367	2346.00	4.1170	4.1170	-0.6485	25.34	-0.19	-0.050			
0.0373	2387.29	4.1160	4.1160	-0.6499	25.34	-0.19	-0.050			
0.0380	2429.40	4.1150	4.1151	-0.6525	25.35	-0.18	-0.050			
0.0386	2470.59	4.1140	4.1139	-0.6509	25.35	-0.18	-0.050			
0.0393	2512.45	4.1130	4.1130	-0.6522	25.35	-0.18	-0.050			
0.0399	2554.34	4.1120	4.1120	-0.6538	25.35	-0.18	-0.050			
0.0406	2596.71	4.1110	4.1110	-0.6556	25.36	-0.17	-0.050			
0.0412	2637.79	4.1100	4.1098	-0.6585	25.36	-0.17	-0.050			
0.0419	2680.00	4.1090	4.1091	-0.6602	25.37	-0.16	-0.050			
0.0425	2722.00	4.1080	4.1078	-0.6598	25.37	-0.16	-0.050			
0.0432	2763.59	4.1070	4.1070	-0.6595	25.37	-0.16	-0.050			
0.0438	2805.68	4.1060	4.1061	-0.6621	25.37	-0.16	-0.050			
0.0445	2848.04	4.1050	4.1051	-0.6649	25.37	-0.16	-0.050			
0.0452	2891.18	4.1040	4.1039	-0.6665	25.38	-0.15	-0.050			
0.0458	2934.03	4.1030	4.1029	-0.6685	25.38	-0.15	-0.050			
0.0465	2977.40	4.1020	4.1020	-0.6701	25.38	-0.15	-0.050			
0.0472	3019.72	4.1010	4.1009	-0.6744	25.38	-0.15	-0.050			
0.0479	3064.23	4.1000	4.1000	-0.6777	25.39	-0.14	-0.050			
0.0486	3107.52	4.0990	4.0991	-0.6762	25.39	-0.14	-0.050			
0.0492	3150.39	4.0980	4.0979	-0.6793	25.40	-0.13	-0.050			
0.0499	3193.31	4.0970	4.0970	-0.6842	25.40	-0.13	-0.050			
0.0506	3236.95	4.0960	4.0960	-0.6857	25.40	-0.13	-0.050			
0.0513	3280.82	4.0950	4.0952	-0.6877	25.39	-0.14	-0.050			
0.0520	3325.63	4.0940	4.0938	-0.6882	25.40	-0.13	-0.050			
0.0527	3370.83	4.0930	4.0929	-0.6878	25.40	-0.13	-0.050			
0.0534	3415.15	4.0920	4.0918	-0.6871	25.39	-0.14	-0.050			
0.0540	3459.05	4.0910	4.0912	-0.6876	25.39	-0.14	-0.050			
0.0547	3503.00	4.0900	4.0902	-0.6887	25.39	-0.14	-0.050			
0.0554	3547.32	4.0890	4.0891	-0.6906	25.39	-0.14	-0.050			
0.0561	3591.67	4.0880	4.0878	-0.6929	25.39	-0.14	-0.050			
0.0568	3636.12	4.0870	4.0872	-0.6938	25.39	-0.14	-0.050			
0.0575	3680.03	4.0860	4.0865	-0.6951	25.39	-0.14	-0.050			
0.0582	3723.65	4.0850	4.0851	-0.6986	25.39	-0.14	-0.050			
0.0589	3768.44	4.0840	4.0839	-0.7005	25.38	-0.15	-0.050			
0.0596	3813.71	4.0830	4.0831	-0.7017	25.38	-0.15	-0.050			
0.0603	3858.89	4.0820	4.0822	-0.7001	25.38	-0.15	-0.050	-0.178	0.540	
0.0610	3903.17	4.0810	4.0807	-0.6982	25.38	-0.15	-0.050			
0.0617	3948.03	4.0800	4.0801	-0.7030	25.38	-0.15	-0.050			
0.0624	3993.18	4.0790	4.0790	-0.7044	25.38	-0.15	-0.050			
0.0631	4038.07	4.0780	4.0782	-0.7042	25.37	-0.16	-0.050			
0.0638	4082.93	4.0770	4.0770	-0.7024	25.37	-0.16	-0.050			
0.0645	4128.44	4.0760	4.0761	-0.7035	25.37	-0.16	-0.050			
0.0652	4175.01	4.0750	4.0748	-0.7061	25.36	-0.17	-0.050			
0.0659	4220.57	4.0740	4.0744	-0.7072	25.36	-0.17	-0.050			
0.0667	4266.21	4.0730	4.0732	-0.7094	25.36	-0.17	-0.050			
0.0674	4312.07	4.0720	4.0716	-0.7113	25.36	-0.17	-0.050			
0.0681	4356.01	4.0710	4.0709	-0.7115	25.36	-0.17	-0.050			
0.0688	4400.88	4.0700	4.0705	-0.7111	25.36	-0.17	-0.050			
0.0695	4446.43	4.0690	4.0690	-0.7107	25.36	-0.17	-0.050			
0.0702	4491.90	4.0680	4.0680	-0.7112	25.35	-0.18	-0.050			
0.0709	4536.86	4.0670	4.0671	-0.7132	25.36	-0.17	-0.050			
0.0716	4582.18	4.0660	4.0660	-0.7157	25.36	-0.17	-0.050			
0.0723	4628.12	4.0650	4.0651	-0.7145	25.35	-0.18	-0.050			
0.0730	4673.78	4.0640	4.0639	-0.7158	25.35	-0.18	-0.050			
0.0738	4720.62	4.0630	4.0630	-0.7196	25.35	-0.18	-0.050			
0.0745	4767.72	4.0620	4.0620	-0.7197	25.35	-0.18	-0.050			
0.0752	4813.68	4.0610	4.0610	-0.7213	25.35	-0.18	-0.050			
0.0759	4859.40	4.0600	4.0601	-0.7209	25.35	-0.18	-0.050			
0.0766	4905.41	4.0590	4.0590	-0.7207	25.35	-0.18	-0.050			
0.0774	4952.63	4.0580	4.0579	-0.7221	25.35	-0.18	-0.050			
0.0781	4999.00	4.0570	4.0571	-0.7235	25.35	-0.18	-0.050			
0.0788	5045.04	4.0560	4.0563	-0.7243	25.35	-0.18	-0.050			
0.0796	5091.86	4.0550	4.0549	-0.7238	25.35	-0.18	-0.050			
0.0803	5137.88	4.0540	4.0541	-0.7239	25.34	-0.19	-0.050			
0.0810	5183.70	4.0530	4.0530	-0.7228	25.34	-0.19	-0.050			
0.0817	5229.87	4.0520	4.0520	-0.7224	25.34	-0.19	-0.050			
0.0824	5275.86	4.0510	4.0511	-0.7229	25.34	-0.19	-0.050			
0.0832	5322.24	4.0500	4.0501	-0.7231	25.33	-0.20	-0.050			
0.0839	5368.38	4.0490	4.0490	-0.7267	25.33	-0.20	-0.050			
0.0846	5414.88	4.0480	4.0479	-0.7284	25.32	-0.21	-0.050			
0.0853	5461.45	4.0470	4.0470	-0.7276	25.31	-0.22	-0.050			
0.0861	5508.01	4.0460	4.0458	-0.7272	25.31	-0.22	-0.050			
0.0868	5554.77	4.0450	4.0452	-0.7294	25.31	-0.22	-0.050			
0.0875	5601.88	4.0440	4.0438	-0.7294	25.30	-0.23	-0.050			
0.0882	5647.98	4.0430	4.0431	-0.7305	25.30	-0.23	-0.050			
0.0890	5695.10	4.0420	4.0422	-0.7334	25.30	-0.23	-0.050			
0.0897	5741.81	4.0410	4.0409	-0.7364	25.29	-0.24	-0.050			
0.0904	5788.01	4.0400	4.0401	-0.7378	25.29	-0.24	-0.050			
0.0912	5835.15	4.0390	4.0391	-0.7420	25.28	-0.25	-0.050			
0.0919	5883.05	4.0380	4.0381	-0.7436	25.28	-0.25	-0.050			
0.0927	5931.31	4.0370	4.0369	-0.7413	25.27	-0.26	-0.050			
0.0934	5978.44	4.0360	4.0358	-0.7455	25.27	-0.26	-0.050			
0.0942	6026.25	4.0350	4.0349	-0.7472	25.27	-0.26	-0.050			
0.0949	6074.55	4.0340	4.0340	-0.7501	25.26	-0.27	-0.050			
0.0956	6121.58	4.0330	4.0331	-0.7540	25.27	-0.26	-0.050			
0.0964	6170.41	4.0320	4.0321	-0.7555	25.26	-0.27	-0.050			
0.0972	6220.73	4.0310	4.0311	-0.7545	25.26	-0.27	-0.050			
0.0980	6268.86	4.0300	4.0300	-0.7542	25.26	-0.27	-0.050			
0.0987	6316.96	4.0290	4.0293	-0.7568	25.26	-0.27	-0.050			
0.0995	6365.36	4.0280	4.0280	-0.7567	25.26	-0.27	-0.050			
0.1002	6414.32	4.0270	4.0266	-0.7600	25.27	-0.26	-0.050	0.061	0.722	
0.1010	6463.22	4.0260	4.0263	-0.7621	25.27	-0.26	-0.050			
0.1017	6511.54	4.0250	4.0251	-0.7624	25.28	-0.25	-0.050			
0.1025	6560.04	4.0240	4.0238	-0.7619	25.28	-0.25	-0.050			
0.1033	6609.33	4.0230	4.0231	-0.7630	25.28	-0.25	-0.050			
0.1040	6657.64	4.0220	4.0222	-0.7624	25.28	-0.25	-0.050			
0.1048	6706.47	4.0210	4.0207	-0.7623	25.29	-0.24	-0.050			
0.1056	6755.76	4.0200	4.0198	-0.7634	25.29	-0.24	-0.050			
0.1063	6804.55	4.0190	4.0190	-0.7632	25.29	-0.24	-0.050			
0.1071	6853.67	4.0180	4.0179	-0.7651	25.30	-0.23	-0.050			
0.1079	6903.02	4.0170	4.0168	-0.7678	25.31	-0.22	-0.050			
0.1086	6950.25	4.0160	4.0162	-0.7685	25.31	-0.22	-0.050			
0.1094	6999.81	4.0150	4.0150	-0.7702	25.32	-0.21	-0.050			
0.1102	7049.67	4.0140	4.0140	-0.7712	25.33	-0.20	-0.050			
0.1109	7098.72	4.0130	4.0132	-0.7720	25.33	-0.20	-0.050			
0.1117	7148.45	4.0120	4.0118	-0.7742	25.34	-0.19	-0.050			
0.1125	7200.27	4.0110	4.0110	-0.7753	25.35	-0.18	-0.050			
0.1133	7249.56	4.0100	4.0099	-0.7755	25.34	-0.19	-0.050			
0.1140	7298.48	4.0090	4.0091	-0.7731	25.35	-0.18	-0.050			
0.1148	7347.83	4.0080	4.0078	-0.7739	25.36	-0.17	-0.050			
0.1156	7397.12	4.0070	4.0068	-0.7753	25.36	-0.17	-0.050			
0.1163	7446.21	4.0060	4.0064	-0.7753	25.36	-0.17	-0.050			
0.1171	7496.09	4.0050	4.0051	-0.7781	25.36	-0.17	-0.050			
0.1179	7545.73	4.0040	4.0039	-0.7813	25.37	-0.16	-0.050			
0.1187	7595.85	4.0030	4.0029	-0.7830	25.37	-0.16	-0.050			
0.1195	7646.98	4.0020	4.0021	-0.7846	25.36	-0.17	-0.050			
0.1203	7696.82	4.0010	4.0009	-0.7843	25.37	-0.16	-0.050	0.291	0.506	
0.1210	7746.92	4.0000	4.0003	-0.7862	25.37	-0.16	-0.050			
0.1218	7796.81	3.9990	3.9990	-0.7856	25.36	-0.17	-0.050			
0.1226	7847.28	3.9980	3.9980	-0.7870	25.36	-0.17	-0.050			
0.1234	7897.09	3.9970	3.9969	-0.7872	25.37	-0.16	-0.050			
0.1242	7947.34	3.9960	3.9963	-0.7878	25.37	-0.16	-0.050			
0.1250	7998.90	3.9950	3.9950	-0.7924	25.37	-0.16	-0.050			
0.1258	8050.20	3.9940	3.9942	-0.7945	25.36	-0.17	-0.050			
0.1266	8101.06	3.9930	3.9931	-0.7965	25.35	-0.18	-0.050			
0.1274	8152.05	3.9920	3.9920	-0.7969	25.36	-0.17	-0.050			
0.1282	8203.68	3.9910	3.9910	-0.7976	25.35	-0.18	-0.050			
0.1290	8254.48	3.9900	3.9900	-0.7972	25.35	-0.18	-0.050			
0.1298	8305.10	3.9890	3.9889	-0.7985	25.35	-0.18	-0.050			
0.1306	8356.18	3.9880	3.9878	-0.7997	25.35	-0.18	-0.050			
0.1314	8407.36	3.9870	3.9869	-0.7992	25.34	-0.19	-0.050			
0.1322	8458.81	3.9860	3.9861	-0.7977	25.35	-0.18	-0.050			
0.1330	8509.63	3.9850	3.9849	-0.7996	25.34	-0.19	-0.050			
0.1338	8560.59	3.9840	3.9840	-0.8008	25.35	-0.18	-0.050			
0.1346	8612.08	3.9830	3.9830	-0.8030	25.35	-0.18	-0.050			
0.1354	8663.39	3.9820	3.9821	-0.8057	25.34	-0.19	-0.050			
0.1362	8715.15	3.9810	3.9811	-0.8070	25.35	-0.18	-0.050			
0.1370	8766.20	3.9800	3.9800	-0.8071	25.35	-0.18	-0.050			
0.1378	8818.43	3.9790	3.9790	-0.8088	25.36	-0.17	-0.050			
0.1386	8870.22	3.9780	3.9780	-0.8097	25.36	-0.17	-0.050			
0.1394	8921.97	3.9770	3.9767	-0.8106	25.36	-0.17	-0.050			
0.1402	8974.08	3.9760	3.9761	-0.8105	25.36	-0.17	-0.050	0.371	0.549	
0.1410	9026.50	3.9750	3.9751	-0.8105	25.36	-0.17	-0.050			
0.1418	9078.10	3.9740	3.9741	-0.8117	25.37	-0.16	-0.050			
0.1427	9129.78	3.9730	3.9729	-0.8131	25.36	-0.17	-0.050			
0.1435	9181.80	3.9720	3.9721	-0.8163	25.36	-0.17	-0.050			
0.1443	9234.35	3.9710	3.9710	-0.8168	25.36	-0.17	-0.050			
0.1451	9286.90	3.9700	3.9700	-0.8170	25.37	-0.16	-0.050			
0.1459	9339.76	3.9690	3.9690	-0.8153	25.37	-0.16	-0.050			
0.1468	9392.88	3.9680	3.9680	-0.8126	25.37	-0.16	-0.050			
0.1476	9445.85	3.9670	3.9670	-0.8106	25.37	-0.16	-0.050			
0.1484	9498.03	3.9660	3.9659	-0.8095	25.37	-0.16	-0.050			
0.1492	9548.75	3.9650	3.9650	-0.8080	25.37	-0.16	-0.050			
0.1500	9600.06	3.9640	3.9640	-0.8066	25.37	-0.16	-0.050			
0.1508	9651.39	3.9630	3.9630	-0.8073	25.37	-0.16	-0.050			
0.1516	9702.20	3.9620	3.9621	-0.8089	25.37	-0.16	-0.050			
0.1524	9754.14	3.9610	3.9611	-0.8100	25.36	-0.17	-0.050			
0.1532	9805.62	3.9600	3.9600	-0.8110	25.36	-0.17	-0.050			
0.1540	9856.86	3.9590	3.9591	-0.8126	25.36	-0.17	-0.050			
0.1548	9908.51	3.9580	3.9579	-0.8146	25.35	-0.18	-0.050			
0.1556	9959.85	3.9570	3.9565	-0.8180	25.35	-0.18	-0.050			
0.1564	10012.60	3.9560	3.9561	-0.8189	25.35	-0.18	-0.050			
0.1573	10064.06	3.9550	3.9551	-0.8216	25.34	-0.19	-0.050			
0.1581	10116.28	3.9540	3.9540	-0.8259	25.34	-0.19	-0.050			
0.1589	10168.64	3.9530	3.9530	-0.8282	25.34	-0.19	-0.050			
0.1597	10221.90	3.9520	3.9522	-0.8335	25.33	-0.20	-0.050			
0.1606	10275.86	3.9510	3.9510	-0.8373	25.33	-0.20	-0.050			
0.1614	10330.91	3.9500	3.9499	-0.8418	25.32	-0.21	-0.050			
0.1623	10386.11	3.9490	3.9489	-0.8462	25.33	-0.20	-0.050			
0.1632	10441.95	3.9480	3.9481	-0.8486	25.33	-0.20	-0.050			
0.1640	10497.00	3.9470	3.9471	-0.8477	25.33	-0.20	-0.050			
0.1649	10551.13	3.9460	3.9460	-0.8458	25.33	-0.20	-0.050			
0.1657	10604.62	3.9450	3.9450	-0.8457	25.33	-0.20	-0.050			
0.1665	10658.99	3.9440	3.9441	-0.8466	25.33	-0.20	-0.050			
0.1674	10713.22	3.9430	3.9430	-0.8459	25.33	-0.20	-0.050			
0.1682	10766.66	3.9420	3.9420	-0.8495	25.33	-0.20	-0.050			
0.1691	10820.92	3.9410	3.9409	-0.8529	25.33	-0.20	-0.050			
0.1699	10875.86	3.9400	3.9400	-0.8523	25.33	-0.20	-0.050			
0.1708	10930.43	3.9390	3.9390	-0.8511	25.34	-0.19	-0.050			
0.1716	10985.28	3.9380	3.9379	-0.8482	25.34	-0.19	-0.050			
0.1725	11040.24	3.9370	3.9370	-0.8455	25.35	-0.18	-0.050			
0.1733	11094.09	3.9360	3.9357	-0.8445	25.35	-0.18	-0.050			
0.1742	11148.42	3.9350	3.9349	-0.8445	25.36	-0.17	-0.050			
0.1750	11201.24	3.9340	3.9339	-0.8446	25.36	-0.17	-0.050			
0.1759	11255.16	3.9330	3.9330	-0.8473	25.36	-0.17	-0.050			
0.1767	11308.85	3.9320	3.9321	-0.8498	25.37	-0.16	-0.050			
0.1775	11362.74	3.9310	3.9312	-0.8531	25.37	-0.16	-0.050			
0.1784	11417.32	3.9300	3.9302	-0.8550	25.37	-0.16	-0.050			
0.1793	11472.45	3.9290	3.9292	-0.8563	25.37	-0.16	-0.050			
0.1801	11527.92	3.9280	3.9276	-0.8598	25.38	-0.15	-0.050	-0.050	0.586	
0.1810	11583.43	3.9270	3.9267	-0.8591	25.38	-0.15	-0.050			
0.1819	11638.91	3.9260	3.9260	-0.8559	25.38	-0.15	-0.050			
0.1827	11693.12	3.9250	3.9248	-0.8534	25.38	-0.15	-0.050			
0.1836	11747.44	3.9240	3.9241	-0.8536	25.39	-0.14	-0.050			
0.1844	11801.86	3.9230	3.9229	-0.8556	25.39	-0.14	-0.050			
0.1853	11856.07	3.9220	3.9220	-0.8552	25.39	-0.14	-0.050			
0.1861	11911.75	3.9210	3.9211	-0.8598	25.39	-0.14	-0.050			
0.1870	11967.47	3.9200	3.9201	-0.8638	25.39	-0.14	-0.050			
0.1879	12023.45	3.9190	3.9191	-0.8659	25.39	-0.14	-0.050			
0.1887	12078.79	3.9180	3.9182	-0.8670	25.40	-0.13	-0.050			
0.1896	12134.22	3.9170	3.9170	-0.8666	25.39	-0.14	-0.050			
0.1905	12189.36	3.9160	3.9156	-0.8658	25.39	-0.14	-0.050			
0.1913	12244.06	3.9150	3.9148	-0.8647	25.38	-0.15	-0.050			
0.1922	12299.10	3.9140	3.9140	-0.8622	25.38	-0.15	-0.050			
0.1930	12354.05	3.9130	3.9130	-0.8629	25.38	-0.15	-0.050			
0.1939	12409.31	3.9120	3.9120	-0.8630	25.38	-0.15	-0.050			
0.1948	12464.96	3.9110	3.9111	-0.8642	25.37	-0.16	-0.050			
0.1956	12520.84	3.9100	3.9100	-0.8669	25.37	-0.16	-0.050			
0.1965	12577.26	3.9090	3.9090	-0.8689	25.37	-0.16	-0.050			
0.1974	12632.78	3.9080	3.9080	-0.8699	25.36	-0.17	-0.050			
0.1983	12688.66	3.9070	3.9072	-0.8700	25.37	-0.16	-0.050			
0.1991	12745.32	3.9060	3.9057	-0.8697	25.37	-0.16	-0.050			
0.2000	12800.32	3.9050	3.9048	-0.8700	25.36	-0.17	-0.050	0.367	0.425	
0.2009	12854.43	3.9040	3.9040	-0.8699	25.36	-0.17	-0.050			
0.2017	12909.82	3.9030	3.9027	-0.8705	25.36	-0.17	-0.050			
0.2026	12965.86	3.9020	3.9019	-0.8692	25.36	-0.17	-0.050			
0.2035	13020.92	3.9010	3.9010	-0.8713	25.36	-0.17	-0.050			
0.2043	13076.11	3.9000	3.8999	-0.8744	25.36	-0.17	-0.050			
0.2052	13132.85	3.8990	3.8989	-0.8739	25.36	-0.17	-0.050			
0.2061	13188.95	3.8980	3.8980	-0.8740	25.36	-0.17	-0.050			
0.2070	13245.00	3.8970	3.8970	-0.8758	25.36	-0.17	-0.050			
0.2078	13301.59	3.8960	3.8959	-0.8792	25.36	-0.17	-0.050			
0.2087	13357.83	3.8950	3.8951	-0.8782	25.36	-0.17	-0.050			
0.2096	13414.29	3.8940	3.8942	-0.8801	25.36	-0.17	-0.050			
0.2105	13471.53	3.8930	3.8930	-0.8799	25.36	-0.17	-0.050			
0.2114	13527.65	3.8920	3.8920	-0.8783	25.36	-0.17	-0.050			
0.2122	13582.66	3.8910	3.8912	-0.8834	25.36	-0.17	-0.050			
0.2131	13639.49	3.8900	3.8901	-0.8854	25.36	-0.17	-0.050			
0.2140	13694.51	3.8890	3.8888	-0.8921	25.37	-0.16	-0.050			
0.2149	13750.96	3.8880	3.8880	-0.8952	25.36	-0.17	-0.050			
0.2158	13809.45	3.8870	3.8871	-0.8967	25.36	-0.17	-0.050			
0.2167	13867.29	3.8860	3.8861	-0.8969	25.37	-0.16	-0.050			
0.2176	13925.03	3.8850	3.8848	-0.8972	25.37	-0.16	-0.050			
0.2185	13982.24	3.8840	3.8840	-0.8984	25.37	-0.16	-0.050			
0.2194	14040.35	3.8830	3.8828	-0.9010	25.37	-0.16	-0.050			
0.2203	14098.45	3.8820	3.8819	-0.9034	25.37	-0.16	-0.050			
0.2212	14156.57	3.8810	3.8813	-0.9025	25.37	-0.16	-0.050			
0.2221	14215.15	3.8800	3.8799	-0.9024	25.37	-0.16	-0.050			
0.2230	14273.52	3.8790	3.8791	-0.9028	25.37	-0.16	-0.050			
0.2239	14332.63	3.8780	3.8781	-0.9024	25.38	-0.15	-0.050			
0.2248	14390.26	3.8770	3.8772	-0.9007	25.37	-0.16	-0.050			
0.2258	14448.42	3.8760	3.8758	-0.8997	25.38	-0.15	-0.050			
0.2266	14505.47	3.8750	3.8749	-0.8976	25.37	-0.16	-0.050			
0.2276	14563.33	3.8740	3.8742	-0.8960	25.38	-0.15	-0.050			
0.2285	14620.93	3.8730	3.8730	-0.8934	25.38	-0.15	-0.050			
0.2293	14677.83	3.8720	3.8719	-0.8894	25.38	-0.15	-0.050			
0.2302	14732.78	3.8710	3.8709	-0.8801	25.38	-0.15	-0.050			
0.2311	14788.79	3.8700	3.8698	-0.8805	25.38	-0.15	-0.050			
0.2319	14844.74	3.8690	3.8691	-0.8808	25.38	-0.15	-0.050			
0.2328	14901.82	3.8680	3.8680	-0.8837	25.38	-0.15	-0.050			
0.2337	14958.34	3.8670	3.8671	-0.8841	25.38	-0.15	-0.050			
0.2346	15015.13	3.8660	3.8661	-0.8868	25.38	-0.15	-0.050			
0.2355	15070.93	3.8650	3.8651	-0.8835	25.39	-0.14	-0.050			
0.2364	15127.05	3.8640	3.8641	-0.8840	25.38	-0.15	-0.050			
0.2372	15182.83	3.8630	3.8627	-0.8854	25.39	-0.14	-0.050			
0.2381	15239.86	3.8620	3.8619	-0.8848	25.38	-0.15	-0.050			
0.2390	15296.67	3.8610	3.8609	-0.8868	25.38	-0.15	-0.050			
0.2399	15353.49	3.8600	3.8600	-0.8880	25.39	-0.14	-0.050	0.440	0.529	
0.2408	15410.40	3.8590	3.8591	-0.8894	25.39	-0.14	-0.050			
0.2417	15467.34	3.8580	3.8579	-0.8908	25.39	-0.14	-0.050			
0.2426	15524.69	3.8570	3.8570	-0.8900	25.39	-0.14	-0.050			
0.2435	15582.22	3.8560	3.8560	-0.8907	25.39	-0.14	-0.050			
0.2444	15639.57	3.8550	3.8550	-0.8903	25.39	-0.14	-0.050			
0.2453	15696.50	3.8540	3.8542	-0.8911	25.39	-0.14	-0.050			
0.2462	15754.52	3.8530	3.8531	-0.8927	25.40	-0.13	-0.050			
0.2471	15811.92	3.8520	3.8518	-0.8909	25.40	-0.13	-0.050			
0.2480	15869.15	3.8510	3.8510	-0.8892	25.40	-0.13	-0.050			
