Ah_balance (normalized)	Ah_balance (mAh)	Voltage - fit (V)	Voltage -  interpolate (V)	dQ/dV (1/V)	Temperature (°C)	Temperature - diff (°C)	Current (C)	R_DC 0ms (mOhm)	R_DC 50ms (mOhm)	R_DC 50 ms PEC (mOhm)
0.0002	10.68	4.1830	4.1829	-0.2998	24.96	0.01	-0.050			
0.0005	30.93	4.1820	4.1817	-0.3444	24.95	-0.00	-0.050			
0.0008	53.98	4.1810	4.1808	-0.3707	24.94	-0.01	-0.050			
0.0012	78.74	4.1800	4.1798	-0.3933	24.93	-0.02	-0.050			
0.0016	105.40	4.1790	4.1788	-0.4151	24.93	-0.02	-0.050			
0.0021	132.49	4.1780	4.1778	-0.4315	24.92	-0.03	-0.050			
0.0025	161.82	4.1770	4.1770	-0.4488	24.92	-0.03	-0.050			
0.0030	191.01	4.1760	4.1760	-0.4633	24.92	-0.03	-0.050			
0.0035	222.03	4.1750	4.1750	-0.4764	24.91	-0.04	-0.050			
0.0040	253.35	4.1740	4.1740	-0.4885	24.91	-0.04	-0.050			
0.0045	285.42	4.1730	4.1731	-0.4999	24.89	-0.06	-0.050			
0.0050	318.42	4.1720	4.1720	-0.5096	24.89	-0.06	-0.050			
0.0055	351.79	4.1710	4.1709	-0.5189	24.89	-0.06	-0.050			
0.0061	388.12	4.1700	4.1701	-0.5325	24.89	-0.06	-0.050			
0.0066	422.83	4.1690	4.1690	-0.5409	24.88	-0.07	-0.050			
0.0072	457.90	4.1680	4.1679	-0.5471	24.87	-0.08	-0.050			
0.0077	493.65	4.1670	4.1670	-0.5540	24.87	-0.08	-0.050			
0.0083	529.35	4.1660	4.1660	-0.5598	24.87	-0.08	-0.050			
0.0088	565.64	4.1650	4.1649	-0.5658	24.86	-0.09	-0.050			
0.0094	602.06	4.1640	4.1642	-0.5713	24.85	-0.10	-0.050			
0.0100	639.26	4.1630	4.1631	-0.5767	24.84	-0.11	-0.050			
0.0106	676.59	4.1620	4.1619	-0.5814	24.83	-0.12	-0.050			
0.0112	714.59	4.1610	4.1610	-0.5861	24.83	-0.12	-0.050			
0.0118	752.14	4.1600	4.1600	-0.5899	24.82	-0.13	-0.050			
0.0123	790.10	4.1590	4.1590	-0.5942	24.81	-0.14	-0.050			
0.0129	828.53	4.1580	4.1581	-0.5972	24.81	-0.14	-0.050			
0.0135	867.09	4.1570	4.1571	-0.6008	24.80	-0.15	-0.050			
0.0142	905.67	4.1560	4.1560	-0.6041	24.79	-0.16	-0.050			
0.0148	944.90	4.1550	4.1550	-0.6084	24.79	-0.16	-0.050			
0.0154	983.87	4.1540	4.1540	-0.6116	24.79	-0.16	-0.050			
0.0160	1023.10	4.1530	4.1531	-0.6138	24.78	-0.17	-0.050			
0.0166	1062.37	4.1520	4.1520	-0.6176	24.78	-0.17	-0.050			
0.0172	1102.05	4.1510	4.1510	-0.6212	24.77	-0.18	-0.050			
0.0178	1141.73	4.1500	4.1499	-0.6238	24.77	-0.18	-0.050			
0.0185	1181.74	4.1490	4.1490	-0.6265	24.76	-0.19	-0.050			
0.0191	1221.82	4.1480	4.1480	-0.6296	24.75	-0.20	-0.050			
0.0197	1262.34	4.1470	4.1470	-0.6330	24.75	-0.20	-0.050	0.312	0.497	
0.0204	1302.90	4.1460	4.1460	-0.6358	24.73	-0.22	-0.050			
0.0210	1343.82	4.1450	4.1450	-0.6380	24.73	-0.22	-0.050			
0.0216	1384.90	4.1440	4.1440	-0.6408	24.73	-0.22	-0.050			
0.0223	1425.95	4.1430	4.1430	-0.6440	24.73	-0.22	-0.050			
0.0229	1467.52	4.1420	4.1419	-0.6472	24.72	-0.23	-0.050			
0.0236	1509.16	4.1410	4.1410	-0.6497	24.71	-0.24	-0.050			
0.0242	1550.76	4.1400	4.1401	-0.6529	24.71	-0.24	-0.050			
0.0249	1592.53	4.1390	4.1390	-0.6551	24.71	-0.24	-0.050			
0.0255	1634.48	4.1380	4.1380	-0.6585	24.71	-0.24	-0.050			
0.0262	1676.87	4.1370	4.1371	-0.6617	24.70	-0.25	-0.050			
0.0269	1719.44	4.1360	4.1360	-0.6629	24.69	-0.26	-0.050			
0.0275	1762.06	4.1350	4.1349	-0.6647	24.69	-0.26	-0.050			
0.0282	1804.92	4.1340	4.1340	-0.6661	24.69	-0.26	-0.050			
0.0289	1847.56	4.1330	4.1330	-0.6682	24.69	-0.26	-0.050			
0.0295	1890.62	4.1320	4.1319	-0.6698	24.68	-0.27	-0.050			
0.0302	1933.41	4.1310	4.1309	-0.6708	24.69	-0.26	-0.050			
0.0309	1976.82	4.1300	4.1300	-0.6721	24.68	-0.27	-0.050			
0.0316	2020.00	4.1290	4.1290	-0.6736	24.67	-0.28	-0.050			
0.0322	2063.35	4.1280	4.1280	-0.6746	24.67	-0.28	-0.050			
0.0329	2106.74	4.1270	4.1271	-0.6748	24.69	-0.26	-0.050			
0.0336	2149.92	4.1260	4.1260	-0.6764	24.68	-0.27	-0.050			
0.0343	2193.33	4.1250	4.1250	-0.6773	24.67	-0.28	-0.050			
0.0349	2236.54	4.1240	4.1239	-0.6788	24.67	-0.28	-0.050			
0.0356	2279.74	4.1230	4.1230	-0.6795	24.67	-0.28	-0.050			
0.0363	2322.89	4.1220	4.1220	-0.6808	24.67	-0.28	-0.050			
0.0370	2366.36	4.1210	4.1210	-0.6827	24.67	-0.28	-0.050			
0.0376	2409.29	4.1200	4.1200	-0.6843	24.67	-0.28	-0.050			
0.0383	2453.08	4.1190	4.1191	-0.6867	24.67	-0.28	-0.050			
0.0390	2497.23	4.1180	4.1178	-0.6881	24.67	-0.28	-0.050			
0.0397	2541.25	4.1170	4.1169	-0.6902	24.68	-0.27	-0.050	0.441	0.615	
0.0404	2585.55	4.1160	4.1160	-0.6937	24.69	-0.26	-0.050			
0.0411	2630.71	4.1150	4.1151	-0.6950	24.68	-0.27	-0.050			
0.0418	2675.21	4.1140	4.1140	-0.6967	24.69	-0.26	-0.050			
0.0425	2720.25	4.1130	4.1131	-0.6974	24.69	-0.26	-0.050			
0.0432	2764.93	4.1120	4.1121	-0.6985	24.69	-0.26	-0.050			
0.0439	2810.18	4.1110	4.1110	-0.6997	24.70	-0.25	-0.050			
0.0446	2855.11	4.1100	4.1100	-0.7007	24.69	-0.26	-0.050			
0.0453	2900.21	4.1090	4.1091	-0.7019	24.70	-0.25	-0.050			
0.0460	2945.48	4.1080	4.1080	-0.7029	24.71	-0.24	-0.050			
0.0467	2990.45	4.1070	4.1070	-0.7038	24.71	-0.24	-0.050			
0.0474	3035.26	4.1060	4.1061	-0.7047	24.71	-0.24	-0.050			
0.0481	3080.09	4.1050	4.1049	-0.7044	24.71	-0.24	-0.050			
0.0488	3124.84	4.1040	4.1041	-0.7064	24.72	-0.23	-0.050			
0.0495	3169.81	4.1030	4.1029	-0.7068	24.73	-0.22	-0.050			
0.0502	3214.94	4.1020	4.1021	-0.7080	24.73	-0.22	-0.050			
0.0509	3259.91	4.1010	4.1009	-0.7095	24.73	-0.22	-0.050			
0.0516	3305.08	4.1000	4.1000	-0.7102	24.73	-0.22	-0.050			
0.0524	3350.91	4.0990	4.0991	-0.7121	24.73	-0.22	-0.050			
0.0531	3396.46	4.0980	4.0980	-0.7143	24.73	-0.22	-0.050			
0.0538	3442.32	4.0970	4.0969	-0.7165	24.75	-0.20	-0.050			
0.0545	3488.13	4.0960	4.0961	-0.7178	24.75	-0.20	-0.050			
0.0552	3534.46	4.0950	4.0948	-0.7193	24.75	-0.20	-0.050			
0.0560	3581.07	4.0940	4.0941	-0.7217	24.75	-0.20	-0.050			
0.0567	3627.27	4.0930	4.0931	-0.7219	24.75	-0.20	-0.050			
0.0574	3674.01	4.0920	4.0920	-0.7226	24.75	-0.20	-0.050			
0.0581	3720.41	4.0910	4.0910	-0.7235	24.75	-0.20	-0.050			
0.0589	3766.62	4.0900	4.0900	-0.7237	24.75	-0.20	-0.050			
0.0596	3813.03	4.0890	4.0889	-0.7245	24.75	-0.20	-0.050			
0.0603	3859.37	4.0880	4.0880	-0.7253	24.75	-0.20	-0.050	0.383	0.556	
0.0610	3905.64	4.0870	4.0870	-0.7265	24.75	-0.20	-0.050			
0.0617	3951.89	4.0860	4.0861	-0.7272	24.75	-0.20	-0.050			
0.0625	3998.52	4.0850	4.0851	-0.7277	24.75	-0.20	-0.050			
0.0632	4045.03	4.0840	4.0841	-0.7282	24.75	-0.20	-0.050			
0.0639	4091.40	4.0830	4.0829	-0.7298	24.75	-0.20	-0.050			
0.0647	4138.16	4.0820	4.0819	-0.7315	24.75	-0.20	-0.050			
0.0654	4184.98	4.0810	4.0810	-0.7320	24.73	-0.22	-0.050			
0.0661	4231.67	4.0800	4.0800	-0.7336	24.73	-0.22	-0.050			
0.0669	4278.66	4.0790	4.0791	-0.7356	24.73	-0.22	-0.050			
0.0676	4325.47	4.0780	4.0780	-0.7363	24.73	-0.22	-0.050			
0.0683	4372.63	4.0770	4.0770	-0.7382	24.73	-0.22	-0.050			
0.0691	4419.98	4.0760	4.0761	-0.7406	24.73	-0.22	-0.050			
0.0698	4467.48	4.0750	4.0751	-0.7430	24.72	-0.23	-0.050			
0.0706	4515.58	4.0740	4.0740	-0.7440	24.71	-0.24	-0.050			
0.0713	4563.20	4.0730	4.0731	-0.7456	24.71	-0.24	-0.050			
0.0721	4611.25	4.0720	4.0720	-0.7469	24.71	-0.24	-0.050			
0.0728	4659.45	4.0710	4.0709	-0.7463	24.71	-0.24	-0.050			
0.0736	4707.46	4.0700	4.0701	-0.7464	24.70	-0.25	-0.050			
0.0743	4755.14	4.0690	4.0691	-0.7474	24.71	-0.24	-0.050			
0.0750	4802.86	4.0680	4.0679	-0.7483	24.70	-0.25	-0.050			
0.0758	4850.65	4.0670	4.0670	-0.7494	24.69	-0.26	-0.050			
0.0765	4898.86	4.0660	4.0660	-0.7505	24.69	-0.26	-0.050			
0.0773	4947.02	4.0650	4.0651	-0.7518	24.69	-0.26	-0.050			
0.0780	4994.96	4.0640	4.0640	-0.7526	24.69	-0.26	-0.050			
0.0788	5042.86	4.0630	4.0631	-0.7533	24.69	-0.26	-0.050			
0.0795	5090.56	4.0620	4.0620	-0.7553	24.69	-0.26	-0.050			
0.0803	5139.11	4.0610	4.0610	-0.7565	24.68	-0.27	-0.050	0.464	0.609	
0.0811	5187.72	4.0600	4.0600	-0.7562	24.68	-0.27	-0.050			
0.0818	5235.92	4.0590	4.0590	-0.7573	24.67	-0.28	-0.050			
0.0826	5284.51	4.0580	4.0581	-0.7583	24.67	-0.28	-0.050			
0.0833	5333.10	4.0570	4.0571	-0.7598	24.67	-0.28	-0.050			
0.0841	5381.79	4.0560	4.0559	-0.7605	24.66	-0.29	-0.050			
0.0849	5430.59	4.0550	4.0550	-0.7625	24.65	-0.30	-0.050			
0.0856	5479.61	4.0540	4.0541	-0.7640	24.65	-0.30	-0.050			
0.0864	5529.19	4.0530	4.0530	-0.7648	24.65	-0.30	-0.050			
0.0872	5578.15	4.0520	4.0520	-0.7647	24.65	-0.30	-0.050			
0.0879	5627.62	4.0510	4.0510	-0.7665	24.64	-0.31	-0.050			
0.0887	5676.58	4.0500	4.0500	-0.7651	24.63	-0.32	-0.050			
0.0895	5725.17	4.0490	4.0491	-0.7664	24.63	-0.32	-0.050			
0.0902	5774.00	4.0480	4.0479	-0.7660	24.63	-0.32	-0.050			
0.0910	5823.04	4.0470	4.0471	-0.7668	24.62	-0.33	-0.050			
0.0918	5872.36	4.0460	4.0460	-0.7678	24.61	-0.34	-0.050			
0.0925	5920.95	4.0450	4.0452	-0.7690	24.61	-0.34	-0.050			
0.0933	5969.94	4.0440	4.0440	-0.7695	24.61	-0.34	-0.050			
0.0941	6019.24	4.0430	4.0430	-0.7698	24.61	-0.34	-0.050			
0.0948	6068.40	4.0420	4.0419	-0.7705	24.61	-0.34	-0.050			
0.0956	6118.07	4.0410	4.0410	-0.7721	24.61	-0.34	-0.050			
0.0964	6167.95	4.0400	4.0399	-0.7730	24.61	-0.34	-0.050			
0.0971	6217.34	4.0390	4.0389	-0.7740	24.61	-0.34	-0.050			
0.0979	6266.60	4.0380	4.0380	-0.7740	24.61	-0.34	-0.050			
0.0987	6315.78	4.0370	4.0370	-0.7761	24.61	-0.34	-0.050			
0.0995	6365.65	4.0360	4.0360	-0.7778	24.61	-0.34	-0.050			
0.1002	6415.48	4.0350	4.0350	-0.7789	24.61	-0.34	-0.050	0.403	0.674	
0.1010	6465.38	4.0340	4.0341	-0.7798	24.62	-0.33	-0.050			
0.1018	6515.67	4.0330	4.0330	-0.7817	24.63	-0.32	-0.050			
0.1026	6565.70	4.0320	4.0320	-0.7830	24.63	-0.32	-0.050			
0.1034	6615.73	4.0310	4.0309	-0.7838	24.63	-0.32	-0.050			
0.1042	6665.97	4.0300	4.0300	-0.7842	24.63	-0.32	-0.050			
0.1049	6715.80	4.0290	4.0291	-0.7852	24.63	-0.32	-0.050			
0.1057	6766.03	4.0280	4.0280	-0.7871	24.64	-0.31	-0.050			
0.1065	6816.45	4.0270	4.0270	-0.7894	24.65	-0.30	-0.050			
0.1073	6866.99	4.0260	4.0260	-0.7904	24.65	-0.30	-0.050			
0.1081	6917.37	4.0250	4.0251	-0.7918	24.65	-0.30	-0.050			
0.1089	6968.26	4.0240	4.0240	-0.7936	24.65	-0.30	-0.050			
0.1097	7019.49	4.0230	4.0229	-0.7954	24.65	-0.30	-0.050			
0.1105	7070.54	4.0220	4.0221	-0.7971	24.65	-0.30	-0.050			
0.1113	7121.47	4.0210	4.0210	-0.7985	24.67	-0.28	-0.050			
0.1121	7172.96	4.0200	4.0198	-0.7994	24.67	-0.28	-0.050			
0.1129	7224.22	4.0190	4.0190	-0.7999	24.67	-0.28	-0.050			
0.1137	7275.57	4.0180	4.0181	-0.7992	24.67	-0.28	-0.050			
0.1145	7326.83	4.0170	4.0171	-0.7995	24.68	-0.27	-0.050			
0.1153	7378.11	4.0160	4.0160	-0.8011	24.68	-0.27	-0.050			
0.1161	7429.66	4.0150	4.0151	-0.8019	24.69	-0.26	-0.050			
0.1169	7481.27	4.0140	4.0140	-0.8016	24.69	-0.26	-0.050			
0.1177	7532.62	4.0130	4.0129	-0.8019	24.69	-0.26	-0.050			
0.1185	7583.54	4.0120	4.0120	-0.8027	24.69	-0.26	-0.050			
0.1193	7634.75	4.0110	4.0111	-0.8036	24.69	-0.26	-0.050			
0.1201	7685.99	4.0100	4.0100	-0.8050	24.69	-0.26	-0.050	0.316	0.631	
0.1209	7737.18	4.0090	4.0089	-0.8047	24.69	-0.26	-0.050			
0.1217	7788.51	4.0080	4.0079	-0.8057	24.69	-0.26	-0.050			
0.1225	7840.02	4.0070	4.0070	-0.8069	24.69	-0.26	-0.050			
0.1233	7891.76	4.0060	4.0061	-0.8080	24.70	-0.25	-0.050			
0.1241	7943.47	4.0050	4.0049	-0.8089	24.69	-0.26	-0.050			
0.1249	7994.95	4.0040	4.0041	-0.8110	24.70	-0.25	-0.050			
0.1257	8047.21	4.0030	4.0029	-0.8120	24.70	-0.25	-0.050			
0.1265	8099.03	4.0020	4.0019	-0.8133	24.71	-0.24	-0.050			
0.1274	8151.17	4.0010	4.0011	-0.8149	24.71	-0.24	-0.050			
0.1282	8203.47	4.0000	4.0001	-0.8170	24.71	-0.24	-0.050			
0.1290	8256.34	3.9990	3.9990	-0.8177	24.71	-0.24	-0.050			
0.1298	8309.03	3.9980	3.9981	-0.8193	24.71	-0.24	-0.050			
0.1306	8361.56	3.9970	3.9970	-0.8204	24.72	-0.23	-0.050			
0.1315	8413.48	3.9960	3.9959	-0.8222	24.71	-0.24	-0.050			
0.1323	8465.95	3.9950	3.9950	-0.8249	24.71	-0.24	-0.050			
0.1331	8518.38	3.9940	3.9941	-0.8269	24.71	-0.24	-0.050			
0.1339	8571.40	3.9930	3.9929	-0.8292	24.71	-0.24	-0.050			
0.1348	8624.15	3.9920	3.9920	-0.8296	24.71	-0.24	-0.050			
0.1356	8677.27	3.9910	3.9911	-0.8312	24.71	-0.24	-0.050			
0.1364	8731.31	3.9900	3.9900	-0.8309	24.71	-0.24	-0.050			
0.1373	8784.78	3.9890	3.9889	-0.8319	24.71	-0.24	-0.050			
0.1381	8838.46	3.9880	3.9880	-0.8331	24.71	-0.24	-0.050			
0.1389	8891.87	3.9870	3.9869	-0.8342	24.71	-0.24	-0.050			
0.1398	8945.52	3.9860	3.9860	-0.8345	24.69	-0.26	-0.050	0.454	0.625	
0.1406	8999.26	3.9850	3.9851	-0.8346	24.69	-0.26	-0.050			
0.1415	9052.82	3.9840	3.9840	-0.8340	24.71	-0.24	-0.050			
0.1423	9106.19	3.9830	3.9831	-0.8341	24.70	-0.25	-0.050			
0.1431	9160.06	3.9820	3.9820	-0.8340	24.69	-0.26	-0.050			
0.1440	9213.19	3.9810	3.9810	-0.8347	24.69	-0.26	-0.050			
0.1448	9266.53	3.9800	3.9800	-0.8352	24.69	-0.26	-0.050			
0.1456	9320.02	3.9790	3.9789	-0.8356	24.69	-0.26	-0.050			
0.1465	9373.19	3.9780	3.9779	-0.8342	24.69	-0.26	-0.050			
0.1473	9426.39	3.9770	3.9769	-0.8336	24.69	-0.26	-0.050			
0.1481	9478.65	3.9760	3.9761	-0.8338	24.69	-0.26	-0.050			
0.1489	9531.77	3.9750	3.9750	-0.8344	24.68	-0.27	-0.050			
0.1498	9585.00	3.9740	3.9740	-0.8365	24.69	-0.26	-0.050			
0.1506	9638.62	3.9730	3.9730	-0.8388	24.69	-0.26	-0.050			
0.1514	9692.48	3.9720	3.9719	-0.8407	24.68	-0.27	-0.050			
0.1523	9746.41	3.9710	3.9710	-0.8432	24.68	-0.27	-0.050			
0.1531	9800.51	3.9700	3.9700	-0.8458	24.68	-0.27	-0.050			
0.1540	9854.60	3.9690	3.9689	-0.8475	24.69	-0.26	-0.050			
0.1548	9908.88	3.9680	3.9680	-0.8481	24.69	-0.26	-0.050			
0.1557	9963.38	3.9670	3.9668	-0.8490	24.68	-0.27	-0.050			
0.1565	10017.68	3.9660	3.9660	-0.8511	24.67	-0.28	-0.050			
0.1574	10072.63	3.9650	3.9651	-0.8531	24.68	-0.27	-0.050			
0.1582	10127.42	3.9640	3.9640	-0.8543	24.68	-0.27	-0.050			
0.1591	10182.19	3.9630	3.9630	-0.8558	24.67	-0.28	-0.050			
0.1600	10237.13	3.9620	3.9621	-0.8561	24.67	-0.28	-0.050	0.367	0.634	
0.1608	10291.69	3.9610	3.9611	-0.8579	24.67	-0.28	-0.050			
0.1617	10346.71	3.9600	3.9600	-0.8594	24.67	-0.28	-0.050			
0.1625	10401.91	3.9590	3.9590	-0.8618	24.67	-0.28	-0.050			
0.1634	10457.24	3.9580	3.9579	-0.8633	24.65	-0.30	-0.050			
0.1643	10512.58	3.9570	3.9569	-0.8634	24.65	-0.30	-0.050			
0.1651	10567.69	3.9560	3.9561	-0.8624	24.65	-0.30	-0.050			
0.1660	10623.03	3.9550	3.9550	-0.8628	24.65	-0.30	-0.050			
0.1668	10678.33	3.9540	3.9540	-0.8644	24.65	-0.30	-0.050			
0.1677	10733.82	3.9530	3.9530	-0.8646	24.65	-0.30	-0.050			
0.1686	10788.93	3.9520	3.9520	-0.8659	24.65	-0.30	-0.050			
0.1694	10844.43	3.9510	3.9512	-0.8667	24.64	-0.31	-0.050			
0.1703	10900.03	3.9500	3.9499	-0.8668	24.65	-0.30	-0.050			
0.1712	10955.45	3.9490	3.9491	-0.8680	24.64	-0.31	-0.050			
0.1720	11011.04	3.9480	3.9480	-0.8695	24.65	-0.30	-0.050			
0.1729	11066.72	3.9470	3.9470	-0.8698	24.64	-0.31	-0.050			
0.1738	11122.38	3.9460	3.9459	-0.8708	24.64	-0.31	-0.050			
0.1747	11178.18	3.9450	3.9449	-0.8710	24.65	-0.30	-0.050			
0.1755	11233.99	3.9440	3.9440	-0.8716	24.65	-0.30	-0.050			
0.1764	11289.53	3.9430	3.9429	-0.8720	24.65	-0.30	-0.050			
0.1773	11345.46	3.9420	3.9420	-0.8733	24.65	-0.30	-0.050			
0.1781	11401.17	3.9410	3.9410	-0.8742	24.65	-0.30	-0.050			
0.1790	11457.13	3.9400	3.9399	-0.8750	24.66	-0.29	-0.050			
0.1799	11513.17	3.9390	3.9391	-0.8763	24.66	-0.29	-0.050	0.422	0.553	
0.1808	11569.57	3.9380	3.9380	-0.8762	24.65	-0.30	-0.050			
0.1817	11626.26	3.9370	3.9369	-0.8774	24.66	-0.29	-0.050			
0.1825	11682.13	3.9360	3.9359	-0.8780	24.65	-0.30	-0.050			
0.1834	11738.73	3.9350	3.9350	-0.8779	24.65	-0.30	-0.050			
0.1843	11794.47	3.9340	3.9341	-0.8781	24.65	-0.30	-0.050			
0.1852	11850.72	3.9330	3.9330	-0.8795	24.65	-0.30	-0.050			
0.1860	11906.92	3.9320	3.9320	-0.8793	24.65	-0.30	-0.050			
0.1869	11963.01	3.9310	3.9310	-0.8805	24.67	-0.28	-0.050			
0.1878	12019.58	3.9300	3.9300	-0.8816	24.65	-0.30	-0.050			
0.1887	12076.07	3.9290	3.9290	-0.8808	24.65	-0.30	-0.050			
0.1896	12132.19	3.9280	3.9279	-0.8818	24.67	-0.28	-0.050			
0.1904	12188.75	3.9270	3.9269	-0.8833	24.66	-0.29	-0.050			
0.1913	12245.46	3.9260	3.9261	-0.8831	24.67	-0.28	-0.050			
0.1922	12302.15	3.9250	3.9249	-0.8835	24.67	-0.28	-0.050			
0.1931	12358.64	3.9240	3.9241	-0.8849	24.67	-0.28	-0.050			
0.1940	12415.41	3.9230	3.9230	-0.8838	24.67	-0.28	-0.050			
0.1949	12472.33	3.9220	3.9221	-0.8829	24.67	-0.28	-0.050			
0.1958	12528.98	3.9210	3.9210	-0.8827	24.67	-0.28	-0.050			
0.1966	12585.57	3.9200	3.9200	-0.8831	24.67	-0.28	-0.050			
0.1975	12642.42	3.9190	3.9190	-0.8838	24.67	-0.28	-0.050			
0.1984	12698.93	3.9180	3.9179	-0.8829	24.67	-0.28	-0.050			
0.1993	12755.26	3.9170	3.9171	-0.8830	24.67	-0.28	-0.050			
0.2002	12811.22	3.9160	3.9161	-0.8834	24.67	-0.28	-0.050	0.459	0.694	
0.2011	12867.73	3.9150	3.9150	-0.8841	24.67	-0.28	-0.050			
0.2019	12923.89	3.9140	3.9141	-0.8846	24.67	-0.28	-0.050			
0.2028	12980.25	3.9130	3.9130	-0.8845	24.66	-0.29	-0.050			
0.2037	13036.89	3.9120	3.9119	-0.8854	24.67	-0.28	-0.050			
0.2046	13093.36	3.9110	3.9109	-0.8866	24.67	-0.28	-0.050			
0.2055	13150.08	3.9100	3.9100	-0.8874	24.67	-0.28	-0.050			
0.2064	13207.11	3.9090	3.9090	-0.8881	24.67	-0.28	-0.050			
0.2072	13263.64	3.9080	3.9080	-0.8883	24.68	-0.27	-0.050			
0.2081	13320.62	3.9070	3.9071	-0.8898	24.67	-0.28	-0.050			
0.2090	13377.78	3.9060	3.9059	-0.8923	24.67	-0.28	-0.050			
0.2099	13434.98	3.9050	3.9051	-0.8938	24.68	-0.27	-0.050			
0.2108	13492.76	3.9040	3.9040	-0.8927	24.69	-0.26	-0.050			
0.2117	13550.37	3.9030	3.9030	-0.8948	24.69	-0.26	-0.050			
0.2126	13607.76	3.9020	3.9020	-0.8962	24.69	-0.26	-0.050			
0.2135	13665.10	3.9010	3.9009	-0.8961	24.69	-0.26	-0.050			
0.2144	13722.16	3.9000	3.9000	-0.8957	24.69	-0.26	-0.050			
0.2153	13779.46	3.8990	3.8990	-0.8958	24.68	-0.27	-0.050			
0.2162	13836.86	3.8980	3.8980	-0.8962	24.69	-0.26	-0.050			
0.2171	13894.17	3.8970	3.8971	-0.8971	24.69	-0.26	-0.050			
0.2180	13951.08	3.8960	3.8960	-0.8972	24.67	-0.28	-0.050			
0.2189	14008.22	3.8950	3.8950	-0.8986	24.67	-0.28	-0.050			
0.2198	14065.75	3.8940	3.8940	-0.9000	24.68	-0.27	-0.050	0.544	0.698	
0.2207	14123.56	3.8930	3.8930	-0.9013	24.68	-0.27	-0.050			
0.2216	14181.24	3.8920	3.8920	-0.9024	24.67	-0.28	-0.050			
0.2225	14238.94	3.8910	3.8912	-0.9028	24.67	-0.28	-0.050			
0.2234	14296.66	3.8900	3.8900	-0.9033	24.67	-0.28	-0.050			
0.2243	14354.87	3.8890	3.8890	-0.9043	24.67	-0.28	-0.050			
0.2252	14413.19	3.8880	3.8878	-0.9048	24.67	-0.28	-0.050			
0.2261	14471.02	3.8870	3.8871	-0.9046	24.67	-0.28	-0.050			
0.2270	14529.29	3.8860	3.8860	-0.9058	24.67	-0.28	-0.050			
0.2279	14587.39	3.8850	3.8851	-0.9050	24.66	-0.29	-0.050			
0.2288	14646.15	3.8840	3.8840	-0.9056	24.67	-0.28	-0.050			
0.2297	14703.83	3.8830	3.8830	-0.9045	24.67	-0.28	-0.050			
0.2306	14761.30	3.8820	3.8821	-0.9049	24.67	-0.28	-0.050			
0.2315	14818.98	3.8810	3.8809	-0.9052	24.67	-0.28	-0.050			
0.2324	14876.80	3.8800	3.8800	-0.9060	24.66	-0.29	-0.050			
0.2334	14934.79	3.8790	3.8789	-0.9069	24.65	-0.30	-0.050			
0.2343	14992.35	3.8780	3.8782	-0.9075	24.65	-0.30	-0.050			
0.2352	15050.00	3.8770	3.8769	-0.9076	24.65	-0.30	-0.050			
0.2361	15107.93	3.8760	3.8760	-0.9079	24.65	-0.30	-0.050			
0.2370	15166.12	3.8750	3.8750	-0.9079	24.64	-0.31	-0.050			
0.2379	15224.47	3.8740	3.8740	-0.9082	24.65	-0.30	-0.050			
0.2388	15282.84	3.8730	3.8728	-0.9086	24.65	-0.30	-0.050			
0.2397	15341.40	3.8720	3.8720	-0.9089	24.65	-0.30	-0.050			
0.2406	15399.38	3.8710	3.8710	-0.9104	24.64	-0.31	-0.050	0.462	0.670	
0.2415	15457.77	3.8700	3.8700	-0.9111	24.65	-0.30	-0.050			
0.2424	15516.52	3.8690	3.8691	-0.9106	24.65	-0.30	-0.050			
0.2434	15575.26	3.8680	3.8680	-0.9099	24.65	-0.30	-0.050			
0.2443	15633.99	3.8670	3.8670	-0.9096	24.65	-0.30	-0.050			
0.2452	15692.51	3.8660	3.8660	-0.9077	24.65	-0.30	-0.050			
0.2461	15750.63	3.8650	3.8651	-0.9061	24.64	-0.31	-0.050			
0.2470	15808.89	3.8640	3.8639	-0.9045	24.65	-0.30	-0.050			
0.2479	15866.49	3.8630	3.8630	-0.9015	24.64	-0.31	-0.050			
0.2488	15923.84	3.8620	3.8619	-0.8995	24.65	-0.30	-0.050			
0.2497	15981.58	3.8610	3.8611	-0.8972	24.65	-0.30	-0.050			
0.2506	16038.81	3.8600	3.8601	-0.8957	24.65	-0.30	-0.050			
0.2515	16095.95	3.8590	3.8588	-0.8935	24.65	-0.30	-0.050			
0.2524	16153.09	3.8580	3.8581	-0.8917	24.65	-0.30	-0.050			
0.2533	16210.22	3.8570	3.8569	-0.8893	24.65	-0.30	-0.050			
0.2542	16267.14	3.8560	3.8560	-0.8881	24.65	-0.30	-0.050			
0.2551	16324.15	3.8550	3.8550	-0.8860	24.65	-0.30	-0.050			
0.2559	16380.54	3.8540	3.8539	-0.8844	24.65	-0.30	-0.050			
0.2568	16436.83	3.8530	3.8530	-0.8818	24.66	-0.29	-0.050			
0.2577	16493.16	3.8520	3.8520	-0.8788	24.67	-0.28	-0.050			
