Ah_balance (normalized)	Ah_balance (mAh)	Voltage - fit (V)	Voltage -  interpolate (V)	dQ/dV (1/V)	Temperature (°C)	Temperature - diff (°C)	Current (C)	R_DC 0ms (mOhm)	R_DC 50ms (mOhm)	R_DC 50 ms PEC (mOhm)
-0.0061	-387.39	4.1990	4.1988	0.9813	24.93	0.00	0.050			
-0.0051	-325.44	4.1980	4.1982	0.9442	24.93	0.00	0.050			
-0.0042	-266.03	4.1970	4.1972	0.9209	24.93	0.00	0.050			
-0.0033	-208.13	4.1960	4.1963	0.9027	24.93	0.00	0.050			
-0.0024	-152.00	4.1950	4.1952	0.8864	24.92	-0.01	0.050			
-0.0015	-96.26	4.1940	4.1940	0.8754	24.91	-0.02	0.050			
-0.0007	-41.83	4.1930	4.1929	0.8667	24.91	-0.02	0.050			
0.0002	13.07	4.1920	4.1920	0.8601	24.91	-0.02	0.050			
0.0010	66.43	4.1910	4.1909	0.8567	24.90	-0.03	0.050			
0.0019	120.88	4.1900	4.1900	0.8531	24.90	-0.03	0.050			
0.0027	174.17	4.1890	4.1890	0.8537	24.89	-0.04	0.050			
0.0035	224.97	4.1880	4.1880	0.8446	24.89	-0.04	0.050			
0.0044	278.42	4.1870	4.1870	0.8472	24.89	-0.04	0.050			
0.0052	332.48	4.1860	4.1858	0.8506	24.87	-0.06	0.050			
0.0060	386.42	4.1850	4.1851	0.8549	24.87	-0.06	0.050			
0.0069	441.46	4.1840	4.1840	0.8608	24.86	-0.07	0.050			
0.0078	496.75	4.1830	4.1830	0.8638	24.85	-0.08	0.050			
0.0086	551.58	4.1820	4.1820	0.8665	24.85	-0.08	0.050			
0.0095	608.33	4.1810	4.1810	0.8685	24.83	-0.10	0.050			
0.0104	665.19	4.1800	4.1800	0.8687	24.83	-0.10	0.050	-0.130	0.320	
0.0113	721.96	4.1790	4.1792	0.8691	24.81	-0.12	0.050			
0.0122	778.33	4.1780	4.1779	0.8684	24.80	-0.13	0.050			
0.0130	834.60	4.1770	4.1770	0.8672	24.78	-0.15	0.050			
0.0139	891.51	4.1760	4.1761	0.8691	24.77	-0.16	0.050			
0.0148	947.51	4.1750	4.1751	0.8648	24.77	-0.16	0.050			
0.0157	1002.95	4.1740	4.1740	0.8603	24.77	-0.16	0.050			
0.0165	1059.18	4.1730	4.1731	0.8584	24.77	-0.16	0.050			
0.0174	1114.09	4.1720	4.1722	0.8529	24.77	-0.16	0.050			
0.0183	1168.31	4.1710	4.1710	0.8483	24.77	-0.16	0.050			
0.0191	1222.08	4.1700	4.1700	0.8442	24.77	-0.16	0.050			
0.0199	1275.23	4.1690	4.1689	0.8383	24.78	-0.15	0.050			
0.0207	1327.96	4.1680	4.1681	0.8370	24.80	-0.13	0.050			
0.0216	1380.95	4.1670	4.1669	0.8332	24.81	-0.12	0.050			
0.0224	1432.69	4.1660	4.1663	0.8314	24.81	-0.12	0.050			
0.0232	1485.65	4.1650	4.1649	0.8305	24.82	-0.11	0.050			
0.0240	1537.53	4.1640	4.1639	0.8295	24.83	-0.10	0.050			
0.0248	1590.38	4.1630	4.1630	0.8301	24.84	-0.09	0.050			
0.0257	1643.70	4.1620	4.1620	0.8316	24.85	-0.08	0.050			
0.0265	1697.18	4.1610	4.1609	0.8328	24.86	-0.07	0.050			
0.0273	1750.10	4.1600	4.1602	0.8356	24.87	-0.06	0.050			
0.0282	1803.43	4.1590	4.1590	0.8394	24.87	-0.06	0.050			
0.0290	1854.93	4.1580	4.1580	0.8440	24.88	-0.05	0.050			
0.0298	1908.66	4.1570	4.1571	0.8509	24.89	-0.04	0.050			
0.0307	1963.05	4.1560	4.1559	0.8564	24.89	-0.04	0.050	0.245	0.288	
0.0315	2017.63	4.1550	4.1551	0.8626	24.90	-0.03	0.050			
0.0324	2073.58	4.1540	4.1541	0.8670	24.91	-0.02	0.050			
0.0333	2129.82	4.1530	4.1529	0.8711	24.91	-0.02	0.050			
0.0342	2186.24	4.1520	4.1520	0.8747	24.91	-0.02	0.050			
0.0350	2242.91	4.1510	4.1508	0.8780	24.91	-0.02	0.050			
0.0359	2299.05	4.1500	4.1498	0.8822	24.91	-0.02	0.050			
0.0368	2356.51	4.1490	4.1490	0.8839	24.91	-0.02	0.050			
0.0377	2414.01	4.1480	4.1480	0.8867	24.91	-0.02	0.050			
0.0386	2471.47	4.1470	4.1472	0.8891	24.91	-0.02	0.050			
0.0395	2529.27	4.1460	4.1461	0.8908	24.91	-0.02	0.050			
0.0404	2586.80	4.1450	4.1450	0.8912	24.91	-0.02	0.050			
0.0413	2644.15	4.1440	4.1439	0.8929	24.91	-0.02	0.050			
0.0422	2702.03	4.1430	4.1428	0.8937	24.91	-0.02	0.050			
0.0431	2758.87	4.1420	4.1419	0.8930	24.90	-0.03	0.050			
0.0440	2815.97	4.1410	4.1409	0.8923	24.90	-0.03	0.050			
0.0449	2871.74	4.1400	4.1402	0.8905	24.89	-0.04	0.050			
0.0458	2928.26	4.1390	4.1390	0.8900	24.89	-0.04	0.050			
0.0466	2984.08	4.1380	4.1380	0.8884	24.89	-0.04	0.050			
0.0475	3040.74	4.1370	4.1370	0.8902	24.88	-0.05	0.050			
0.0484	3098.19	4.1360	4.1359	0.8933	24.87	-0.06	0.050			
0.0493	3155.52	4.1350	4.1351	0.8961	24.87	-0.06	0.050			
0.0502	3213.04	4.1340	4.1339	0.8969	24.87	-0.06	0.050			
0.0511	3270.92	4.1330	4.1329	0.8980	24.86	-0.07	0.050			
0.0520	3328.61	4.1320	4.1319	0.8987	24.87	-0.06	0.050			
0.0529	3386.62	4.1310	4.1311	0.8973	24.86	-0.07	0.050			
0.0538	3445.07	4.1300	4.1300	0.8938	24.85	-0.08	0.050			
0.0548	3504.23	4.1290	4.1288	0.8917	24.84	-0.09	0.050			
0.0557	3561.76	4.1280	4.1280	0.8879	24.83	-0.10	0.050			
0.0565	3619.06	4.1270	4.1269	0.8826	24.83	-0.10	0.050			
0.0574	3676.24	4.1260	4.1260	0.8781	24.82	-0.11	0.050			
0.0583	3732.81	4.1250	4.1251	0.8728	24.82	-0.11	0.050			
0.0592	3788.45	4.1240	4.1242	0.8678	24.81	-0.12	0.050			
0.0601	3843.67	4.1230	4.1232	0.8609	24.81	-0.12	0.050			
0.0609	3898.88	4.1220	4.1219	0.8555	24.81	-0.12	0.050			
0.0618	3952.99	4.1210	4.1210	0.8489	24.81	-0.12	0.050			
0.0626	4003.42	4.1200	4.1201	0.8538	24.82	-0.11	0.050			
0.0634	4056.50	4.1190	4.1191	0.8548	24.82	-0.11	0.050			
0.0642	4109.18	4.1180	4.1180	0.8586	24.83	-0.10	0.050			
0.0650	4162.09	4.1170	4.1170	0.8588	24.84	-0.09	0.050			
0.0659	4216.73	4.1160	4.1161	0.8628	24.84	-0.09	0.050			
0.0667	4270.75	4.1150	4.1150	0.8646	24.85	-0.08	0.050			
0.0676	4326.34	4.1140	4.1140	0.8699	24.87	-0.06	0.050			
0.0685	4381.79	4.1130	4.1128	0.8749	24.87	-0.06	0.050			
0.0694	4439.54	4.1120	4.1118	0.8792	24.87	-0.06	0.050			
0.0703	4496.51	4.1110	4.1105	0.8845	24.88	-0.05	0.050			
0.0712	4555.47	4.1100	4.1102	0.8886	24.89	-0.04	0.050			
0.0721	4613.63	4.1090	4.1090	0.8922	24.89	-0.04	0.050			
0.0730	4671.77	4.1080	4.1084	0.8945	24.89	-0.04	0.050			
0.0739	4729.04	4.1070	4.1070	0.8956	24.89	-0.04	0.050			
0.0748	4787.66	4.1060	4.1061	0.8986	24.90	-0.03	0.050			
0.0757	4845.41	4.1050	4.1050	0.9002	24.91	-0.02	0.050			
0.0766	4904.32	4.1040	4.1039	0.8989	24.91	-0.02	0.050			
0.0775	4962.73	4.1030	4.1030	0.8950	24.91	-0.02	0.050			
0.0784	5020.40	4.1020	4.1020	0.8882	24.91	-0.02	0.050			
0.0793	5076.68	4.1010	4.1010	0.8822	24.91	-0.02	0.050			
0.0802	5131.07	4.1000	4.0999	0.8730	24.91	-0.02	0.050			
0.0810	5186.59	4.0990	4.0989	0.8721	24.91	-0.02	0.050			
0.0819	5242.08	4.0980	4.0980	0.8719	24.91	-0.02	0.050			
0.0828	5296.86	4.0970	4.0969	0.8760	24.90	-0.03	0.050			
0.0836	5351.74	4.0960	4.0961	0.8794	24.91	-0.02	0.050			
0.0845	5407.46	4.0950	4.0953	0.8796	24.91	-0.02	0.050			
0.0854	5462.85	4.0940	4.0943	0.8833	24.90	-0.03	0.050			
0.0862	5519.23	4.0930	4.0929	0.8866	24.89	-0.04	0.050			
0.0871	5575.35	4.0920	4.0918	0.8894	24.89	-0.04	0.050			
0.0880	5631.72	4.0910	4.0910	0.8944	24.89	-0.04	0.050			
0.0889	5688.75	4.0900	4.0897	0.8974	24.89	-0.04	0.050			
0.0898	5746.42	4.0890	4.0889	0.9013	24.89	-0.04	0.050			
0.0907	5804.07	4.0880	4.0881	0.9028	24.87	-0.06	0.050	-0.143	0.260	
0.0916	5862.64	4.0870	4.0871	0.9067	24.87	-0.06	0.050			
0.0925	5921.48	4.0860	4.0861	0.9088	24.86	-0.07	0.050			
0.0935	5981.46	4.0850	4.0850	0.9130	24.85	-0.08	0.050			
0.0944	6041.43	4.0840	4.0842	0.9160	24.83	-0.10	0.050			
0.0953	6102.13	4.0830	4.0830	0.9170	24.83	-0.10	0.050			
0.0963	6162.54	4.0820	4.0821	0.9165	24.82	-0.11	0.050			
0.0972	6221.20	4.0810	4.0810	0.9125	24.82	-0.11	0.050			
0.0981	6279.72	4.0800	4.0801	0.9076	24.81	-0.12	0.050			
0.0990	6337.43	4.0790	4.0789	0.9032	24.79	-0.14	0.050			
0.0999	6394.83	4.0780	4.0779	0.8990	24.79	-0.14	0.050			
0.1008	6451.30	4.0770	4.0771	0.8945	24.78	-0.15	0.050			
0.1017	6507.34	4.0760	4.0761	0.8955	24.78	-0.15	0.050			
0.1026	6564.63	4.0750	4.0750	0.8938	24.78	-0.15	0.050			
0.1035	6621.18	4.0740	4.0740	0.8902	24.79	-0.14	0.050			
0.1043	6677.66	4.0730	4.0730	0.8899	24.79	-0.14	0.050			
0.1052	6734.67	4.0720	4.0720	0.8877	24.79	-0.14	0.050			
0.1061	6791.03	4.0710	4.0711	0.8845	24.77	-0.16	0.050			
0.1070	6847.90	4.0700	4.0699	0.8826	24.77	-0.16	0.050			
0.1079	6904.36	4.0690	4.0688	0.8834	24.77	-0.16	0.050			
0.1087	6960.00	4.0680	4.0680	0.8858	24.77	-0.16	0.050			
0.1096	7016.04	4.0670	4.0669	0.8865	24.77	-0.16	0.050			
0.1105	7073.12	4.0660	4.0659	0.8877	24.77	-0.16	0.050			
0.1114	7129.54	4.0650	4.0651	0.8900	24.77	-0.16	0.050			
0.1123	7186.18	4.0640	4.0641	0.8931	24.77	-0.16	0.050			
0.1132	7243.69	4.0630	4.0631	0.8961	24.77	-0.16	0.050			
0.1141	7300.89	4.0620	4.0620	0.8979	24.78	-0.15	0.050			
0.1150	7358.38	4.0610	4.0608	0.9001	24.79	-0.14	0.050			
0.1159	7416.02	4.0600	4.0598	0.9017	24.80	-0.13	0.050			
0.1168	7474.28	4.0590	4.0589	0.9011	24.80	-0.13	0.050			
0.1177	7532.36	4.0580	4.0580	0.9011	24.81	-0.12	0.050			
0.1186	7590.38	4.0570	4.0572	0.8999	24.81	-0.12	0.050			
0.1195	7648.05	4.0560	4.0559	0.8986	24.83	-0.10	0.050			
0.1204	7706.79	4.0550	4.0550	0.9007	24.83	-0.10	0.050			
0.1213	7764.61	4.0540	4.0540	0.9026	24.84	-0.09	0.050			
0.1222	7822.47	4.0530	4.0530	0.9036	24.85	-0.08	0.050			
0.1231	7880.67	4.0520	4.0521	0.9046	24.85	-0.08	0.050			
0.1240	7937.93	4.0510	4.0510	0.9078	24.86	-0.07	0.050			
0.1249	7993.88	4.0500	4.0501	0.9110	24.87	-0.06	0.050			
0.1258	8050.88	4.0490	4.0490	0.9130	24.87	-0.06	0.050			
0.1267	8108.17	4.0480	4.0480	0.9146	24.88	-0.05	0.050			
0.1276	8166.48	4.0470	4.0469	0.9190	24.89	-0.04	0.050			
0.1285	8225.10	4.0460	4.0460	0.9255	24.89	-0.04	0.050			
0.1294	8283.53	4.0450	4.0449	0.9299	24.89	-0.04	0.050			
0.1304	8342.52	4.0440	4.0439	0.9359	24.89	-0.04	0.050	0.460	0.408	
0.1313	8402.74	4.0430	4.0430	0.9430	24.89	-0.04	0.050			
0.1323	8464.51	4.0420	4.0419	0.9467	24.88	-0.05	0.050			
0.1332	8525.84	4.0410	4.0409	0.9528	24.87	-0.06	0.050			
0.1342	8588.99	4.0400	4.0402	0.9535	24.87	-0.06	0.050			
0.1352	8652.24	4.0390	4.0391	0.9576	24.86	-0.07	0.050			
0.1362	8715.44	4.0380	4.0381	0.9564	24.87	-0.06	0.050			
0.1372	8779.04	4.0370	4.0368	0.9530	24.85	-0.08	0.050			
0.1381	8840.72	4.0360	4.0360	0.9481	24.85	-0.08	0.050			
0.1391	8902.10	4.0350	4.0350	0.9425	24.85	-0.08	0.050			
0.1400	8960.92	4.0340	4.0342	0.9441	24.85	-0.08	0.050			
0.1409	9019.14	4.0330	4.0331	0.9479	24.86	-0.07	0.050			
0.1418	9077.21	4.0320	4.0321	0.9512	24.85	-0.08	0.050			
0.1428	9136.05	4.0310	4.0311	0.9517	24.87	-0.06	0.050			
0.1437	9195.49	4.0300	4.0302	0.9516	24.87	-0.06	0.050			
0.1446	9255.95	4.0290	4.0290	0.9557	24.86	-0.07	0.050			
0.1456	9316.93	4.0280	4.0278	0.9589	24.87	-0.06	0.050			
0.1465	9379.14	4.0270	4.0267	0.9603	24.87	-0.06	0.050			
0.1475	9441.52	4.0260	4.0256	0.9563	24.87	-0.06	0.050			
0.1485	9503.62	4.0250	4.0246	0.9561	24.87	-0.06	0.050			
0.1495	9565.57	4.0240	4.0242	0.9571	24.87	-0.06	0.050			
0.1505	9629.47	4.0230	4.0231	0.9522	24.86	-0.07	0.050			
0.1514	9692.67	4.0220	4.0222	0.9526	24.85	-0.08	0.050			
0.1524	9754.18	4.0210	4.0213	0.9504	24.85	-0.08	0.050			
0.1534	9817.56	4.0200	4.0200	0.9515	24.85	-0.08	0.050			
0.1544	9878.79	4.0190	4.0192	0.9498	24.83	-0.10	0.050			
0.1553	9939.58	4.0180	4.0181	0.9444	24.83	-0.10	0.050			
0.1562	9999.80	4.0170	4.0169	0.9414	24.83	-0.10	0.050			
0.1572	10058.97	4.0160	4.0160	0.9339	24.83	-0.10	0.050			
0.1581	10115.23	4.0150	4.0149	0.9291	24.82	-0.11	0.050			
0.1589	10171.02	4.0140	4.0140	0.9202	24.83	-0.10	0.050			
0.1598	10227.28	4.0130	4.0129	0.9199	24.83	-0.10	0.050			
0.1607	10285.16	4.0120	4.0117	0.9212	24.83	-0.10	0.050			
0.1616	10344.31	4.0110	4.0110	0.9244	24.82	-0.11	0.050			
0.1626	10403.42	4.0100	4.0101	0.9286	24.83	-0.10	0.050			
0.1635	10462.65	4.0090	4.0090	0.9339	24.82	-0.11	0.050			
0.1644	10522.64	4.0080	4.0081	0.9384	24.82	-0.11	0.050			
0.1654	10583.56	4.0070	4.0070	0.9447	24.82	-0.11	0.050			
0.1663	10644.95	4.0060	4.0059	0.9513	24.82	-0.11	0.050			
0.1673	10706.20	4.0050	4.0052	0.9569	24.82	-0.11	0.050			
0.1682	10767.98	4.0040	4.0039	0.9610	24.82	-0.11	0.050			
0.1692	10830.99	4.0030	4.0031	0.9644	24.82	-0.11	0.050			
0.1702	10893.19	4.0020	4.0020	0.9648	24.83	-0.10	0.050			
0.1712	10955.21	4.0010	4.0009	0.9617	24.83	-0.10	0.050	0.468	0.574	
0.1722	11017.71	4.0000	3.9999	0.9595	24.84	-0.09	0.050			
0.1731	11079.88	3.9990	3.9990	0.9587	24.85	-0.08	0.050			
0.1741	11141.56	3.9980	3.9980	0.9564	24.86	-0.07	0.050			
0.1751	11203.39	3.9970	3.9971	0.9571	24.86	-0.07	0.050			
0.1760	11264.31	3.9960	3.9959	0.9556	24.87	-0.06	0.050			
0.1770	11324.96	3.9950	3.9950	0.9533	24.87	-0.06	0.050			
0.1779	11385.86	3.9940	3.9942	0.9523	24.87	-0.06	0.050			
0.1788	11446.26	3.9930	3.9932	0.9521	24.87	-0.06	0.050			
0.1798	11507.08	3.9920	3.9921	0.9517	24.88	-0.05	0.050			
0.1807	11566.71	3.9910	3.9909	0.9548	24.89	-0.04	0.050			
0.1817	11626.53	3.9900	3.9899	0.9543	24.89	-0.04	0.050			
0.1826	11687.39	3.9890	3.9890	0.9555	24.89	-0.04	0.050			
0.1836	11747.59	3.9880	3.9879	0.9570	24.89	-0.04	0.050			
0.1845	11808.62	3.9870	3.9869	0.9597	24.89	-0.04	0.050			
0.1855	11869.53	3.9860	3.9862	0.9610	24.89	-0.04	0.050			
0.1864	11930.97	3.9850	3.9850	0.9647	24.89	-0.04	0.050			
0.1874	11992.71	3.9840	3.9840	0.9700	24.89	-0.04	0.050			
0.1884	12055.37	3.9830	3.9829	0.9781	24.90	-0.03	0.050			
0.1894	12118.99	3.9820	3.9820	0.9836	24.89	-0.04	0.050			
0.1903	12181.98	3.9810	3.9810	0.9889	24.89	-0.04	0.050	0.116	0.519	
0.1913	12245.88	3.9800	3.9799	0.9921	24.89	-0.04	0.050			
0.1923	12309.85	3.9790	3.9790	0.9945	24.89	-0.04	0.050			
0.1933	12373.78	3.9780	3.9778	0.9980	24.89	-0.04	0.050			
0.1943	12437.90	3.9770	3.9770	0.9994	24.87	-0.06	0.050			
0.1953	12501.70	3.9760	3.9759	1.0023	24.87	-0.06	0.050			
0.1964	12566.74	3.9750	3.9750	1.0052	24.87	-0.06	0.050			
0.1974	12631.45	3.9740	3.9740	1.0063	24.86	-0.07	0.050			
0.1984	12696.37	3.9730	3.9731	1.0060	24.85	-0.08	0.050			
0.1994	12761.88	3.9720	3.9720	1.0044	24.84	-0.09	0.050			
0.2004	12827.10	3.9710	3.9712	0.9996	24.83	-0.10	0.050			
0.2014	12892.15	3.9700	3.9700	1.0002	24.82	-0.11	0.050			
0.2024	12956.22	3.9690	3.9689	0.9973	24.81	-0.12	0.050			
0.2034	13019.94	3.9680	3.9681	0.9961	24.81	-0.12	0.050			
0.2044	13083.58	3.9670	3.9670	0.9929	24.80	-0.13	0.050			
0.2054	13146.28	3.9660	3.9662	0.9932	24.79	-0.14	0.050			
0.2064	13209.28	3.9650	3.9649	0.9891	24.78	-0.15	0.050			
0.2074	13271.87	3.9640	3.9641	0.9899	24.78	-0.15	0.050			
0.2083	13334.27	3.9630	3.9631	0.9874	24.77	-0.16	0.050			
0.2093	13397.36	3.9620	3.9619	0.9884	24.77	-0.16	0.050			
0.2103	13460.36	3.9610	3.9608	0.9857	24.77	-0.16	0.050			
0.2113	13523.03	3.9600	3.9600	0.9868	24.77	-0.16	0.050	-0.142	0.360	
0.2123	13586.34	3.9590	3.9589	0.9870	24.77	-0.16	0.050			
0.2133	13649.19	3.9580	3.9580	0.9842	24.79	-0.14	0.050			
0.2143	13713.69	3.9570	3.9570	0.9812	24.79	-0.14	0.050			
0.2153	13776.47	3.9560	3.9560	0.9786	24.79	-0.14	0.050			
0.2162	13839.75	3.9550	3.9549	0.9793	24.79	-0.14	0.050			
0.2172	13901.32	3.9540	3.9542	0.9821	24.81	-0.12	0.050			
0.2182	13963.56	3.9530	3.9531	0.9892	24.82	-0.11	0.050			
0.2191	14025.35	3.9520	3.9521	0.9965	24.83	-0.10	0.050			
0.2201	14087.86	3.9510	3.9509	1.0021	24.85	-0.08	0.050			
0.2211	14150.37	3.9500	3.9502	1.0055	24.85	-0.08	0.050			
0.2221	14214.40	3.9490	3.9490	1.0127	24.88	-0.05	0.050			
0.2231	14278.13	3.9480	3.9479	1.0176	24.90	-0.03	0.050			
0.2241	14343.75	3.9470	3.9467	1.0238	24.91	-0.02	0.050			
0.2251	14409.52	3.9460	3.9458	1.0282	24.93	-0.00	0.050			
0.2262	14476.27	3.9450	3.9450	1.0352	24.94	0.01	0.050			
0.2272	14543.31	3.9440	3.9439	1.0400	24.95	0.02	0.050			
0.2283	14611.42	3.9430	3.9429	1.0464	24.93	0.00	0.050			
0.2294	14679.24	3.9420	3.9422	1.0530	24.93	0.00	0.050			
0.2304	14748.16	3.9410	3.9412	1.0596	24.93	0.00	0.050	0.513	0.663	
0.2315	14818.10	3.9400	3.9400	1.0618	24.93	0.00	0.050			
0.2326	14888.18	3.9390	3.9390	1.0626	24.92	-0.01	0.050			
0.2337	14958.20	3.9380	3.9380	1.0597	24.93	-0.00	0.050			
0.2348	15027.86	3.9370	3.9371	1.0590	24.92	-0.01	0.050			
0.2359	15096.08	3.9360	3.9360	1.0528	24.91	-0.02	0.050			
0.2369	15162.41	3.9350	3.9349	1.0446	24.91	-0.02	0.050			
0.2379	15227.73	3.9340	3.9340	1.0358	24.89	-0.04	0.050			
0.2389	15292.54	3.9330	3.9329	1.0321	24.89	-0.04	0.050			
0.2399	15356.44	3.9320	3.9322	1.0323	24.88	-0.05	0.050			
0.2410	15422.11	3.9310	3.9311	1.0310	24.86	-0.07	0.050			
0.2420	15487.19	3.9300	3.9303	1.0347	24.85	-0.08	0.050			
0.2430	15552.69	3.9290	3.9289	1.0345	24.84	-0.09	0.050			
0.2440	15618.95	3.9280	3.9279	1.0344	24.83	-0.10	0.050			
0.2451	15685.02	3.9270	3.9270	1.0341	24.81	-0.12	0.050			
0.2461	15751.60	3.9260	3.9259	1.0308	24.81	-0.12	0.050			
0.2472	15818.14	3.9250	3.9248	1.0312	24.79	-0.14	0.050			
0.2482	15884.17	3.9240	3.9238	1.0262	24.78	-0.15	0.050			
0.2492	15950.02	3.9230	3.9230	1.0245	24.77	-0.16	0.050			
0.2503	16016.75	3.9220	3.9221	1.0199	24.76	-0.17	0.050			
0.2513	16083.25	3.9210	3.9212	1.0177	24.75	-0.18	0.050	0.416	0.529	
0.2523	16149.97	3.9200	3.9203	1.0170	24.75	-0.18	0.050			
0.2534	16216.15	3.9190	3.9192	1.0151	24.74	-0.19	0.050			
0.2544	16280.92	3.9180	3.9180	1.0104	24.75	-0.18	0.050			
0.2554	16345.35	3.9170	3.9171	1.0045	24.75	-0.18	0.050			
0.2564	16409.20	3.9160	3.9158	1.0001	24.75	-0.18	0.050			
0.2574	16471.45	3.9150	3.9151	0.9974	24.75	-0.18	0.050			
0.2583	16534.01	3.9140	3.9138	0.9956	24.76	-0.17	0.050			
0.2593	16595.42	3.9130	3.9130	0.9912	24.77	-0.16	0.050			
0.2603	16657.02	3.9120	3.9119	0.9892	24.77	-0.16	0.050			
0.2612	16719.11	3.9110	3.9109	0.9940	24.77	-0.16	0.050			
0.2622	16780.11	3.9100	3.9101	0.9956	24.79	-0.14	0.050			
0.2632	16843.69	3.9090	3.9089	1.0026	24.80	-0.13	0.050			
0.2642	16908.17	3.9080	3.9082	1.0094	24.81	-0.12	0.050			
0.2652	16973.00	3.9070	3.9068	1.0163	24.81	-0.12	0.050			
0.2662	17038.49	3.9060	3.9061	1.0229	24.81	-0.12	0.050			
0.2673	17104.49	3.9050	3.9051	1.0277	24.82	-0.11	0.050			
0.2683	17171.61	3.9040	3.9038	1.0335	24.84	-0.09	0.050			
0.2693	17238.01	3.9030	3.9030	1.0383	24.85	-0.08	0.050			
0.2704	17306.25	3.9020	3.9017	1.0436	24.85	-0.08	0.050	0.172	0.251	
0.2715	17373.32	3.9010	3.9011	1.0484	24.86	-0.07	0.050			
0.2725	17440.39	3.9000	3.9001	1.0524	24.87	-0.06	0.050			
0.2736	17508.38	3.8990	3.8991	1.0569	24.87	-0.06	0.050			
0.2746	17576.59	3.8980	3.8979	1.0591	24.87	-0.06	0.050			
0.2757	17645.24	3.8970	3.8970	1.0624	24.87	-0.06	0.050			
0.2768	17712.74	3.8960	3.8960	1.0648	24.87	-0.06	0.050			
0.2778	17780.87	3.8950	3.8950	1.0658	24.88	-0.05	0.050			
0.2789	17849.32	3.8940	3.8941	1.0689	24.89	-0.04	0.050			
0.2800	17917.13	3.8930	3.8930	1.0710	24.89	-0.04	0.050			
0.2810	17985.10	3.8920	3.8918	1.0752	24.87	-0.06	0.050			
0.2821	18053.09	3.8910	3.8909	1.0759	24.88	-0.05	0.050			
0.2832	18121.84	3.8900	3.8901	1.0802	24.87	-0.06	0.050			
0.2842	18191.06	3.8890	3.8891	1.0851	24.87	-0.06	0.050			
0.2853	18261.46	3.8880	3.8879	1.0888	24.87	-0.06	0.050			
0.2864	18331.47	3.8870	3.8869	1.0922	24.87	-0.06	0.050			
0.2875	18401.75	3.8860	3.8861	1.0958	24.85	-0.08	0.050			
0.2886	18472.84	3.8850	3.8849	1.0977	24.85	-0.08	0.050			
0.2898	18544.38	3.8840	3.8840	1.0982	24.85	-0.08	0.050			
0.2909	18615.94	3.8830	3.8829	1.0967	24.82	-0.11	0.050	0.759	0.390	
0.2920	18687.10	3.8820	3.8820	1.0933	24.81	-0.12	0.050			
0.2931	18757.42	3.8810	3.8809	1.0896	24.81	-0.12	0.050			
0.2942	18828.05	3.8800	3.8800	1.0875	24.80	-0.13	0.050			
0.2953	18896.62	3.8790	3.8791	1.0883	24.79	-0.14	0.050			
0.2963	18966.24	3.8780	3.8780	1.0895	24.79	-0.14	0.050			
0.2974	19034.49	3.8770	3.8772	1.0908	24.79	-0.14	0.050			
0.2985	19103.13	3.8760	3.8762	1.0901	24.79	-0.14	0.050			
0.2996	19173.41	3.8750	3.8751	1.0895	24.79	-0.14	0.050			
0.3007	19242.33	3.8740	3.8741	1.0878	24.79	-0.14	0.050			
0.3018	19312.04	3.8730	3.8728	1.0859	24.81	-0.12	0.050			
0.3028	19381.01	3.8720	3.8719	1.0836	24.80	-0.13	0.050			
0.3039	19450.75	3.8710	3.8708	1.0819	24.81	-0.12	0.050			
0.3050	19520.15	3.8700	3.8698	1.0799	24.81	-0.12	0.050			
0.3061	19589.86	3.8690	3.8693	1.0778	24.82	-0.11	0.050			
0.3072	19659.86	3.8680	3.8681	1.0763	24.83	-0.10	0.050			
0.3083	19728.86	3.8670	3.8672	1.0749	24.83	-0.10	0.050			
0.3093	19797.67	3.8660	3.8661	1.0742	24.83	-0.10	0.050			
0.3104	19867.40	3.8650	3.8651	1.0752	24.84	-0.09	0.050	0.533	0.638	
0.3115	19936.28	3.8640	3.8641	1.0774	24.85	-0.08	0.050			
0.3126	20004.67	3.8630	3.8630	1.0802	24.87	-0.06	0.050			
0.3136	20071.31	3.8620	3.8620	1.0837	24.87	-0.06	0.050			
0.3147	20138.49	3.8610	3.8609	1.0901	24.88	-0.05	0.050			
0.3157	20205.95	3.8600	3.8600	1.0930	24.89	-0.04	0.050			
0.3168	20272.22	3.8590	3.8589	1.0914	24.91	-0.02	0.050			
0.3179	20342.65	3.8580	3.8580	1.1002	24.91	-0.02	0.050			
