Ah_balance (normalized)	Ah_balance (mAh)	Voltage - fit (V)	Voltage -  interpolate (V)	dQ/dV (1/V)	Temperature (°C)	Temperature - diff (°C)	Current (C)	R_DC 0ms (mOhm)	R_DC 50ms (mOhm)	R_DC 50 ms PEC (mOhm)
0.2089	13366.97	3.9130	3.9127	-0.1061	25.73	0.00	-1.500			
0.2092	13390.31	3.9100	3.9098	-0.1375	25.73	0.00	-1.500			
0.2097	13419.58	3.9070	3.9071	-0.1693	25.73	0.00	-1.500			
0.2102	13455.69	3.9040	3.9040	-0.2004	25.73	0.00	-1.500			
0.2109	13497.40	3.9010	3.9010	-0.2299	25.73	0.00	-1.500			
0.2117	13545.70	3.8980	3.8979	-0.2581	25.73	0.00	-1.500			
0.2125	13597.86	3.8950	3.8951	-0.2832	25.73	0.00	-1.500			
0.2134	13655.13	3.8920	3.8920	-0.3093	25.73	0.00	-1.500			
0.2143	13716.74	3.8890	3.8891	-0.3357	25.73	0.00	-1.500			
0.2154	13783.12	3.8860	3.8860	-0.3615	25.73	0.00	-1.500			
0.2165	13854.53	3.8830	3.8830	-0.3892	25.73	-0.00	-1.500			
0.2177	13931.93	3.8800	3.8800	-0.4168	25.73	-0.00	-1.500			
0.2190	14015.34	3.8770	3.8770	-0.4460	25.73	-0.00	-1.500			
0.2204	14103.56	3.8740	3.8740	-0.4720	25.73	-0.00	-1.500			
0.2218	14197.11	3.8710	3.8710	-0.4964	25.73	-0.00	-1.500			
0.2234	14294.96	3.8680	3.8680	-0.5202	25.73	-0.00	-1.500			
0.2250	14397.99	3.8650	3.8650	-0.5402	25.73	-0.00	-1.500			
0.2266	14503.59	3.8620	3.8620	-0.5608	25.73	-0.00	-1.500			
0.2283	14613.62	3.8590	3.8590	-0.5803	25.73	-0.00	-1.500			
0.2301	14726.68	3.8560	3.8560	-0.5984	25.72	-0.01	-1.500			
0.2319	14843.58	3.8530	3.8530	-0.6126	25.72	-0.01	-1.500			
0.2338	14962.79	3.8500	3.8500	-0.6283	25.72	-0.01	-1.500			
0.2357	15086.00	3.8470	3.8470	-0.6436	25.72	-0.01	-1.500			
0.2377	15211.88	3.8440	3.8438	-0.6550	25.72	-0.01	-1.500			
0.2397	15338.57	3.8410	3.8410	-0.6648	25.72	-0.01	-1.500			
0.2417	15467.96	3.8380	3.8381	-0.6724	25.72	-0.01	-1.500			
0.2437	15598.92	3.8350	3.8350	-0.6770	25.72	-0.01	-1.500			
0.2458	15729.63	3.8320	3.8320	-0.6815	25.72	-0.01	-1.500			
0.2478	15858.48	3.8290	3.8292	-0.6846	25.72	-0.01	-1.500			
0.2499	15991.82	3.8260	3.8260	-0.6939	25.72	-0.01	-1.500			
0.2520	16125.64	3.8230	3.8229	-0.6987	25.72	-0.01	-1.500			
0.2541	16260.83	3.8200	3.8200	-0.7004	25.73	-0.00	-1.500			
0.2562	16396.69	3.8170	3.8170	-0.7080	25.73	-0.00	-1.500			
0.2583	16532.45	3.8140	3.8141	-0.7123	25.73	-0.00	-1.500			
0.2605	16668.94	3.8110	3.8109	-0.7117	25.73	-0.00	-1.500			
0.2626	16805.65	3.8080	3.8080	-0.7130	25.73	-0.00	-1.500			
0.2647	16943.43	3.8050	3.8050	-0.7128	25.73	-0.00	-1.500			
0.2669	17080.22	3.8020	3.8020	-0.7130	25.73	0.00	-1.500			
0.2690	17218.44	3.7990	3.7991	-0.7149	25.73	0.00	-1.500			
0.2712	17353.89	3.7960	3.7960	-0.7125	25.74	0.01	-1.500			
0.2733	17490.52	3.7930	3.7930	-0.7120	25.74	0.01	-1.500			
0.2754	17628.16	3.7900	3.7900	-0.7161	25.74	0.01	-1.500			
0.2776	17765.74	3.7870	3.7870	-0.7190	25.74	0.01	-1.500			
0.2798	17904.31	3.7840	3.7840	-0.7220	25.75	0.02	-1.500			
0.2819	18042.89	3.7810	3.7809	-0.7212	25.75	0.02	-1.500			
0.2841	18181.46	3.7780	3.7780	-0.7227	25.75	0.02	-1.500			
0.2862	18320.00	3.7750	3.7750	-0.7226	25.75	0.02	-1.500			
0.2884	18459.74	3.7720	3.7719	-0.7216	25.76	0.03	-1.500			
0.2906	18598.34	3.7690	3.7690	-0.7197	25.76	0.03	-1.500			
0.2927	18735.99	3.7660	3.7660	-0.7196	25.76	0.03	-1.500			
0.2949	18873.93	3.7630	3.7630	-0.7211	25.77	0.04	-1.500			
0.2971	19013.11	3.7600	3.7599	-0.7223	25.77	0.04	-1.500			
0.2992	19151.02	3.7570	3.7570	-0.7217	25.78	0.05	-1.500			
0.3014	19290.42	3.7540	3.7540	-0.7229	25.78	0.05	-1.500			
0.3036	19429.36	3.7510	3.7511	-0.7249	25.79	0.06	-1.500			
0.3058	19568.30	3.7480	3.7479	-0.7253	25.80	0.07	-1.500			
0.3079	19706.86	3.7450	3.7450	-0.7270	25.80	0.07	-1.500			
0.3101	19846.31	3.7420	3.7419	-0.7275	25.81	0.08	-1.500			
0.3123	19986.81	3.7390	3.7390	-0.7306	25.81	0.08	-1.500			
0.3145	20128.09	3.7360	3.7360	-0.7317	25.82	0.09	-1.500			
0.3167	20269.16	3.7330	3.7330	-0.7305	25.82	0.09	-1.500			
0.3189	20408.62	3.7300	3.7300	-0.7335	25.83	0.10	-1.500			
0.3211	20549.04	3.7270	3.7270	-0.7391	25.83	0.10	-1.500			
0.3233	20689.72	3.7240	3.7240	-0.7434	25.84	0.11	-1.500			
0.3255	20834.03	3.7210	3.7210	-0.7515	25.84	0.11	-1.500			
0.3278	20979.38	3.7180	3.7180	-0.7559	25.85	0.12	-1.500			
0.3301	21126.78	3.7150	3.7150	-0.7615	25.85	0.12	-1.500			
0.3324	21272.95	3.7120	3.7121	-0.7673	25.86	0.13	-1.500			
0.3347	21419.42	3.7090	3.7090	-0.7766	25.86	0.13	-1.500			
0.3370	21570.14	3.7060	3.7060	-0.7853	25.87	0.14	-1.500			
0.3394	21722.04	3.7030	3.7029	-0.7913	25.88	0.15	-1.500			
0.3418	21874.86	3.7000	3.7001	-0.7998	25.88	0.15	-1.500			
0.3442	22030.27	3.6970	3.6970	-0.8105	25.89	0.16	-1.500			
0.3466	22185.52	3.6940	3.6940	-0.8179	25.89	0.16	-1.500			
0.3491	22341.00	3.6910	3.6909	-0.8211	25.89	0.16	-1.500			
0.3516	22501.16	3.6880	3.6880	-0.8350	25.90	0.17	-1.500			
0.3541	22662.93	3.6850	3.6850	-0.8478	25.90	0.17	-1.500			
0.3567	22825.87	3.6820	3.6821	-0.8612	25.90	0.17	-1.500			
0.3593	22992.10	3.6790	3.6790	-0.8744	25.91	0.18	-1.500			
0.3619	23161.47	3.6760	3.6760	-0.8893	25.91	0.18	-1.500			
0.3646	23333.42	3.6730	3.6729	-0.9018	25.92	0.19	-1.500			
0.3673	23508.71	3.6700	3.6700	-0.9176	25.92	0.19	-1.500			
0.3701	23686.33	3.6670	3.6670	-0.9327	25.92	0.19	-1.500			
0.3729	23866.53	3.6640	3.6640	-0.9463	25.93	0.20	-1.500			
0.3757	24047.76	3.6610	3.6610	-0.9629	25.93	0.20	-1.500			
0.3787	24235.36	3.6580	3.6580	-0.9817	25.93	0.20	-1.500			
0.3816	24425.53	3.6550	3.6550	-1.0050	25.93	0.20	-1.500			
0.3847	24621.99	3.6520	3.6520	-1.0217	25.93	0.20	-1.500			
0.3878	24820.88	3.6490	3.6490	-1.0376	25.94	0.21	-1.500			
0.3909	25020.04	3.6460	3.6462	-1.0577	25.94	0.21	-1.500			
0.3941	25224.84	3.6430	3.6430	-1.0736	25.94	0.21	-1.500			
0.3974	25431.68	3.6400	3.6400	-1.0900	25.95	0.22	-1.500			
0.4007	25642.68	3.6370	3.6370	-1.1095	25.95	0.22	-1.500			
0.4040	25856.57	3.6340	3.6341	-1.1365	25.95	0.22	-1.500			
0.4075	26077.96	3.6310	3.6310	-1.1592	25.95	0.22	-1.500			
0.4110	26302.26	3.6280	3.6280	-1.1830	25.96	0.23	-1.500			
0.4145	26530.64	3.6250	3.6250	-1.2060	25.96	0.23	-1.500			
0.4182	26765.76	3.6220	3.6220	-1.2360	25.96	0.23	-1.500			
0.4220	27005.57	3.6190	3.6190	-1.2588	25.96	0.23	-1.500			
0.4258	27249.48	3.6160	3.6160	-1.2824	25.97	0.24	-1.500			
0.4296	27497.58	3.6130	3.6130	-1.3052	25.97	0.24	-1.500			
0.4336	27751.89	3.6100	3.6100	-1.3268	25.97	0.24	-1.500			
0.4376	28008.85	3.6070	3.6070	-1.3440	25.98	0.25	-1.500			
0.4417	28267.71	3.6040	3.6041	-1.3705	25.98	0.25	-1.500			
0.4458	28532.61	3.6010	3.6009	-1.3917	25.98	0.25	-1.500			
0.4500	28801.28	3.5980	3.5980	-1.4200	25.99	0.26	-1.500			
0.4543	29076.55	3.5950	3.5950	-1.4395	25.99	0.26	-1.500			
0.4587	29357.73	3.5920	3.5920	-1.4669	25.99	0.26	-1.500			
0.4631	29641.14	3.5890	3.5890	-1.4884	26.00	0.27	-1.500			
0.4676	29929.54	3.5860	3.5860	-1.5032	26.00	0.27	-1.500			
0.4721	30216.81	3.5830	3.5830	-1.5245	26.00	0.27	-1.500			
0.4767	30511.96	3.5800	3.5800	-1.5466	26.00	0.27	-1.500			
0.4814	30809.46	3.5770	3.5771	-1.5662	26.01	0.28	-1.500			
0.4862	31115.13	3.5740	3.5740	-1.5918	26.01	0.28	-1.500			
0.4910	31422.76	3.5710	3.5711	-1.6110	26.01	0.28	-1.500			
0.4958	31733.37	3.5680	3.5680	-1.6327	26.02	0.29	-1.500			
0.5008	32049.11	3.5650	3.5651	-1.6642	26.02	0.29	-1.500			
0.5058	32370.86	3.5620	3.5619	-1.6798	26.03	0.30	-1.500			
0.5109	32697.08	3.5590	3.5589	-1.7060	26.03	0.30	-1.500			
0.5161	33028.44	3.5560	3.5562	-1.7171	26.04	0.31	-1.500			
0.5213	33361.67	3.5530	3.5530	-1.7339	26.04	0.31	-1.500			
0.5265	33694.92	3.5500	3.5499	-1.7494	26.05	0.32	-1.500			
0.5317	34030.23	3.5470	3.5470	-1.7530	26.05	0.32	-1.500			
0.5370	34368.22	3.5440	3.5439	-1.7754	26.06	0.33	-1.500			
0.5424	34711.23	3.5410	3.5411	-1.7862	26.06	0.33	-1.500			
0.5478	35056.49	3.5380	3.5379	-1.7918	26.07	0.34	-1.500			
0.5532	35403.26	3.5350	3.5352	-1.7933	26.07	0.34	-1.500	0.389	0.522	
0.5585	35744.82	3.5320	3.5320	-1.7927	26.08	0.35	-1.500			
0.5639	36090.72	3.5290	3.5289	-1.8003	26.09	0.36	-1.500			
0.5693	36435.51	3.5260	3.5259	-1.7929	26.09	0.36	-1.500			
0.5747	36780.11	3.5230	3.5230	-1.7961	26.10	0.37	-1.500			
0.5801	37127.02	3.5200	3.5200	-1.7975	26.11	0.38	-1.500			
0.5855	37469.67	3.5170	3.5170	-1.7906	26.11	0.38	-1.500			
0.5909	37815.23	3.5140	3.5139	-1.7908	26.12	0.39	-1.500			
0.5962	38157.25	3.5110	3.5110	-1.7881	26.13	0.40	-1.500			
0.6016	38501.81	3.5080	3.5080	-1.7961	26.15	0.42	-1.500			
0.6070	38846.41	3.5050	3.5050	-1.8010	26.16	0.43	-1.500			
0.6124	39193.70	3.5020	3.5020	-1.7967	26.17	0.44	-1.500			
0.6178	39539.95	3.4990	3.4990	-1.7909	26.18	0.45	-1.500			
0.6232	39882.95	3.4960	3.4961	-1.7870	26.20	0.47	-1.500			
0.6286	40227.72	3.4930	3.4930	-1.7792	26.21	0.48	-1.500			
0.6338	40565.77	3.4900	3.4900	-1.7670	26.22	0.49	-1.500			
0.6391	40904.89	3.4870	3.4870	-1.7525	26.24	0.51	-1.500			
0.6444	41239.80	3.4840	3.4840	-1.7440	26.25	0.52	-1.500			
0.6496	41576.04	3.4810	3.4810	-1.7353	26.27	0.54	-1.500			
0.6548	41907.08	3.4780	3.4779	-1.7199	26.28	0.55	-1.500			
0.6599	42235.80	3.4750	3.4750	-1.7055	26.30	0.57	-1.500			
0.6650	42563.20	3.4720	3.4719	-1.6932	26.32	0.59	-1.500			
0.6701	42887.57	3.4690	3.4690	-1.6764	26.33	0.60	-1.500			
0.6751	43208.51	3.4660	3.4660	-1.6572	26.35	0.62	-1.500			
0.6801	43525.13	3.4630	3.4630	-1.6347	26.36	0.63	-1.500			
0.6849	43836.56	3.4600	3.4600	-1.6109	26.37	0.64	-1.500			
0.6898	44145.80	3.4570	3.4570	-1.5893	26.39	0.66	-1.500			
0.6945	44448.33	3.4540	3.4540	-1.5659	26.40	0.67	-1.500			
0.6992	44746.20	3.4510	3.4510	-1.5469	26.42	0.69	-1.500			
0.7038	45041.18	3.4480	3.4480	-1.5262	26.44	0.71	-1.500			
0.7083	45332.52	3.4450	3.4450	-1.5001	26.45	0.72	-1.500			
0.7128	45618.81	3.4420	3.4420	-1.4821	26.47	0.74	-1.500			
0.7172	45899.74	3.4390	3.4391	-1.4667	26.49	0.76	-1.500			
0.7216	46180.26	3.4360	3.4361	-1.4534	26.50	0.77	-1.500			
0.7259	46454.97	3.4330	3.4329	-1.4512	26.52	0.79	-1.500			
0.7302	46734.14	3.4300	3.4300	-1.4341	26.54	0.81	-1.500			
0.7346	47011.35	3.4270	3.4269	-1.4243	26.56	0.83	-1.500			
0.7388	47284.51	3.4240	3.4239	-1.4130	26.58	0.85	-1.500			
0.7431	47555.71	3.4210	3.4210	-1.3940	26.59	0.86	-1.500			
0.7472	47821.52	3.4180	3.4179	-1.3757	26.61	0.88	-1.500			
0.7513	48083.40	3.4150	3.4150	-1.3538	26.63	0.90	-1.500			
0.7553	48340.79	3.4120	3.4120	-1.3288	26.65	0.92	-1.500			
0.7593	48596.89	3.4090	3.4090	-1.3117	26.67	0.94	-1.500			
0.7632	48847.46	3.4060	3.4060	-1.2831	26.69	0.96	-1.500			
0.7670	49090.50	3.4030	3.4030	-1.2476	26.70	0.97	-1.500			
0.7708	49328.93	3.4000	3.4000	-1.2146	26.72	0.99	-1.500			
0.7744	49558.48	3.3970	3.3970	-1.1715	26.74	1.01	-1.500			
0.7778	49780.25	3.3940	3.3940	-1.1309	26.76	1.03	-1.500			
0.7812	49994.61	3.3910	3.3910	-1.0909	26.77	1.04	-1.500			
0.7843	50198.35	3.3880	3.3879	-1.0414	26.79	1.06	-1.500			
0.7874	50394.14	3.3850	3.3852	-1.0013	26.80	1.07	-1.500			
0.7904	50582.49	3.3820	3.3819	-0.9581	26.82	1.09	-1.500			
0.7932	50761.81	3.3790	3.3790	-0.9185	26.83	1.10	-1.500			
0.7958	50934.30	3.3760	3.3760	-0.8798	26.84	1.11	-1.500			
0.7984	51096.72	3.3730	3.3730	-0.8462	26.85	1.12	-1.500			
0.8009	51254.89	3.3700	3.3700	-0.8141	26.87	1.14	-1.500			
0.8033	51409.48	3.3670	3.3670	-0.7872	26.88	1.15	-1.500			
0.8056	51556.63	3.3640	3.3641	-0.7597	26.89	1.16	-1.500			
0.8078	51700.81	3.3610	3.3610	-0.7369	26.90	1.17	-1.500			
0.8100	51839.67	3.3580	3.3580	-0.7133	26.91	1.18	-1.500			
0.8121	51974.51	3.3550	3.3549	-0.6858	26.92	1.19	-1.500			
0.8141	52102.73	3.3520	3.3520	-0.6623	26.92	1.19	-1.500			
0.8161	52228.23	3.3490	3.3492	-0.6422	26.93	1.20	-1.500			
0.8180	52349.05	3.3460	3.3459	-0.6221	26.94	1.21	-1.500			
0.8198	52465.33	3.3430	3.3429	-0.5998	26.95	1.22	-1.500			
0.8215	52578.04	3.3400	3.3401	-0.5801	26.96	1.23	-1.500			
0.8233	52688.80	3.3370	3.3370	-0.5667	26.97	1.24	-1.500			
0.8249	52796.14	3.3340	3.3339	-0.5485	26.98	1.25	-1.500			
0.8265	52898.34	3.3310	3.3311	-0.5280	26.98	1.25	-1.500			
0.8281	52998.03	3.3280	3.3280	-0.5137	26.99	1.26	-1.500			
0.8296	53094.96	3.3250	3.3250	-0.4982	27.00	1.27	-1.500			
0.8311	53189.78	3.3220	3.3220	-0.4849	27.01	1.28	-1.500			
0.8325	53280.15	3.3190	3.3189	-0.4715	27.02	1.29	-1.500			
0.8339	53369.37	3.3160	3.3160	-0.4580	27.02	1.29	-1.500			
0.8353	53457.11	3.3130	3.3129	-0.4453	27.03	1.30	-1.500			
0.8366	53541.27	3.3100	3.3100	-0.4313	27.03	1.30	-1.500			
0.8378	53622.03	3.3070	3.3072	-0.4192	27.04	1.31	-1.500			
0.8391	53701.51	3.3040	3.3040	-0.4084	27.04	1.31	-1.500			
0.8403	53778.55	3.3010	3.3008	-0.3963	27.05	1.32	-1.500			
0.8415	53853.24	3.2980	3.2980	-0.3850	27.05	1.32	-1.500			
0.8426	53926.80	3.2950	3.2950	-0.3749	27.06	1.33	-1.500			
0.8437	53997.50	3.2920	3.2920	-0.3644	27.07	1.34	-1.500			
0.8448	54066.13	3.2890	3.2890	-0.3537	27.07	1.34	-1.500			
0.8458	54132.66	3.2860	3.2860	-0.3429	27.08	1.35	-1.500			
0.8468	54197.25	3.2830	3.2830	-0.3353	27.09	1.36	-1.500			
0.8478	54260.86	3.2800	3.2800	-0.3288	27.09	1.36	-1.500			
0.8488	54323.71	3.2770	3.2770	-0.3205	27.10	1.37	-1.500			
0.8498	54384.91	3.2740	3.2740	-0.3125	27.10	1.37	-1.500			
0.8507	54444.00	3.2710	3.2711	-0.3028	27.11	1.38	-1.500			
0.8516	54501.26	3.2680	3.2680	-0.2956	27.12	1.39	-1.500			
0.8525	54557.07	3.2650	3.2651	-0.2876	27.12	1.39	-1.500			
0.8533	54610.70	3.2620	3.2619	-0.2804	27.13	1.40	-1.500			
0.8541	54663.80	3.2590	3.2591	-0.2757	27.13	1.40	-1.500			
0.8549	54716.71	3.2560	3.2559	-0.2704	27.14	1.41	-1.500			
0.8557	54767.77	3.2530	3.2531	-0.2643	27.14	1.41	-1.500			
0.8565	54818.42	3.2500	3.2500	-0.2591	27.15	1.42	-1.500			
0.8573	54867.03	3.2470	3.2471	-0.2539	27.15	1.42	-1.500			
0.8581	54915.50	3.2440	3.2440	-0.2489	27.16	1.43	-1.500			
0.8588	54962.59	3.2410	3.2411	-0.2435	27.16	1.43	-1.500			
0.8595	55008.75	3.2380	3.2379	-0.2390	27.17	1.44	-1.500			
0.8602	55054.49	3.2350	3.2352	-0.2359	27.17	1.44	-1.500			
0.8609	55099.06	3.2320	3.2320	-0.2319	27.18	1.45	-1.500			
0.8616	55143.14	3.2290	3.2290	-0.2283	27.18	1.45	-1.500			
0.8623	55186.95	3.2260	3.2260	-0.2240	27.18	1.45	-1.500			
0.8630	55229.36	3.2230	3.2230	-0.2193	27.19	1.46	-1.500			
0.8636	55271.28	3.2200	3.2200	-0.2169	27.19	1.46	-1.500			
0.8643	55312.51	3.2170	3.2171	-0.2129	27.20	1.47	-1.500			
0.8649	55352.91	3.2140	3.2139	-0.2088	27.20	1.47	-1.500			
0.8655	55392.30	3.2110	3.2110	-0.2058	27.21	1.48	-1.500			
0.8661	55431.40	3.2080	3.2080	-0.2023	27.21	1.48	-1.500			
0.8667	55470.11	3.2050	3.2051	-0.1996	27.22	1.49	-1.500			
0.8673	55508.55	3.2020	3.2019	-0.1973	27.22	1.49	-1.500			
0.8679	55546.01	3.1990	3.1990	-0.1945	27.23	1.50	-1.500			
0.8685	55582.66	3.1960	3.1960	-0.1920	27.23	1.50	-1.500			
0.8691	55619.45	3.1930	3.1930	-0.1903	27.24	1.51	-1.500			
0.8696	55655.80	3.1900	3.1899	-0.1884	27.24	1.51	-1.500			
0.8702	55691.58	3.1870	3.1870	-0.1859	27.24	1.51	-1.500			
0.8707	55727.36	3.1840	3.1841	-0.1842	27.25	1.52	-1.500			
0.8713	55762.60	3.1810	3.1810	-0.1823	27.25	1.52	-1.500			
0.8718	55797.36	3.1780	3.1780	-0.1798	27.26	1.53	-1.500			
0.8724	55831.57	3.1750	3.1750	-0.1778	27.26	1.53	-1.500			
0.8729	55865.27	3.1720	3.1720	-0.1754	27.27	1.54	-1.500			
0.8734	55898.65	3.1690	3.1690	-0.1740	27.27	1.54	-1.500			
0.8739	55931.93	3.1660	3.1660	-0.1727	27.28	1.55	-1.500			
0.8745	55964.96	3.1630	3.1630	-0.1710	27.28	1.55	-1.500			
0.8750	55997.69	3.1600	3.1600	-0.1695	27.28	1.55	-1.500			
0.8755	56030.23	3.1570	3.1570	-0.1679	27.29	1.56	-1.500			
0.8760	56062.29	3.1540	3.1540	-0.1660	27.29	1.56	-1.500			
0.8765	56094.07	3.1510	3.1510	-0.1642	27.30	1.57	-1.500			
0.8770	56125.38	3.1480	3.1480	-0.1626	27.30	1.57	-1.500			
0.8774	56156.05	3.1450	3.1449	-0.1609	27.30	1.57	-1.500			
0.8779	56186.85	3.1420	3.1421	-0.1600	27.31	1.58	-1.500			
0.8784	56217.53	3.1390	3.1389	-0.1581	27.31	1.58	-1.500			
0.8789	56247.59	3.1360	3.1360	-0.1573	27.32	1.59	-1.500			
0.8793	56277.86	3.1330	3.1331	-0.1563	27.32	1.59	-1.500			
0.8798	56307.77	3.1300	3.1300	-0.1551	27.33	1.60	-1.500			
0.8803	56337.37	3.1270	3.1269	-0.1546	27.33	1.60	-1.500			
0.8807	56367.08	3.1240	3.1240	-0.1530	27.34	1.61	-1.500			
0.8812	56396.34	3.1210	3.1211	-0.1515	27.34	1.61	-1.500			
0.8816	56425.29	3.1180	3.1179	-0.1501	27.35	1.62	-1.500			
0.8821	56454.24	3.1150	3.1151	-0.1493	27.35	1.62	-1.500			
0.8825	56482.41	3.1120	3.1120	-0.1480	27.36	1.63	-1.500			
0.8830	56510.68	3.1090	3.1090	-0.1473	27.36	1.63	-1.500			
0.8834	56538.90	3.1060	3.1060	-0.1467	27.37	1.64	-1.500			
0.8839	56566.84	3.1030	3.1029	-0.1451	27.37	1.64	-1.500			
0.8843	56594.82	3.1000	3.1000	-0.1451	27.37	1.64	-1.500			
0.8847	56622.63	3.0970	3.0971	-0.1442	27.38	1.65	-1.500			
0.8852	56650.21	3.0940	3.0939	-0.1431	27.38	1.65	-1.500			
0.8856	56677.57	3.0910	3.0910	-0.1419	27.39	1.66	-1.500			
0.8860	56704.72	3.0880	3.0881	-0.1408	27.39	1.66	-1.500			
0.8864	56731.61	3.0850	3.0850	-0.1399	27.40	1.67	-1.500			
0.8868	56758.39	3.0820	3.0820	-0.1390	27.40	1.67	-1.500			
0.8873	56785.11	3.0790	3.0790	-0.1384	27.41	1.68	-1.500			
0.8877	56811.29	3.0760	3.0761	-0.1372	27.41	1.68	-1.500			
0.8881	56837.61	3.0730	3.0730	-0.1368	27.41	1.68	-1.500			
0.8885	56863.84	3.0700	3.0700	-0.1361	27.42	1.69	-1.500			
0.8889	56889.98	3.0670	3.0670	-0.1354	27.42	1.69	-1.500			
0.8893	56915.99	3.0640	3.0640	-0.1346	27.43	1.70	-1.500			
0.8897	56941.76	3.0610	3.0610	-0.1337	27.43	1.70	-1.500			
0.8901	56967.38	3.0580	3.0580	-0.1325	27.44	1.71	-1.500			
0.8905	56992.69	3.0550	3.0550	-0.1318	27.44	1.71	-1.500			
0.8909	57017.87	3.0520	3.0520	-0.1307	27.45	1.72	-1.500			
0.8913	57042.88	3.0490	3.0490	-0.1298	27.45	1.72	-1.500			
0.8917	57067.63	3.0460	3.0460	-0.1292	27.46	1.73	-1.500			
0.8921	57092.36	3.0430	3.0430	-0.1284	27.46	1.73	-1.500			
0.8925	57116.84	3.0400	3.0401	-0.1279	27.47	1.74	-1.500			
0.8928	57141.36	3.0370	3.0369	-0.1275	27.47	1.74	-1.500			
0.8932	57165.89	3.0340	3.0340	-0.1268	27.48	1.75	-1.500			
0.8936	57190.12	3.0310	3.0310	-0.1260	27.48	1.75	-1.500			
0.8940	57214.23	3.0280	3.0280	-0.1259	27.49	1.76	-1.500			
0.8944	57238.52	3.0250	3.0250	-0.1251	27.49	1.76	-1.500			
0.8947	57262.48	3.0220	3.0220	-0.1243	27.49	1.76	-1.500			
0.8951	57286.37	3.0190	3.0189	-0.1237	27.50	1.77	-1.500			
0.8955	57310.01	3.0160	3.0161	-0.1226	27.50	1.77	-1.500			
0.8958	57333.40	3.0130	3.0130	-0.1215	27.51	1.78	-1.500			
0.8962	57356.91	3.0100	3.0099	-0.1205	27.51	1.78	-1.500			
0.8966	57379.89	3.0070	3.0070	-0.1189	27.52	1.79	-1.500			
0.8969	57402.50	3.0040	3.0041	-0.1202	27.52	1.79	-1.500			
