Ah_balance (normalized)	Ah_balance (mAh)	Voltage - fit (V)	Voltage -  interpolate (V)	dQ/dV (1/V)	Temperature (°C)	Temperature - diff (°C)	Current (C)	R_DC 0ms (mOhm)	R_DC 50ms (mOhm)	R_DC 50 ms PEC (mOhm)
0.2948	18868.54	3.9730	3.9730	0.8730	27.24	1.26	1.500			
0.2974	19035.24	3.9700	3.9700	0.8683	27.23	1.25	1.500			
0.3000	19200.97	3.9670	3.9669	0.8699	27.23	1.25	1.500			
0.3026	19368.43	3.9640	3.9640	0.8719	27.22	1.24	1.500			
0.3052	19535.98	3.9610	3.9609	0.8741	27.22	1.24	1.500			
0.3079	19703.03	3.9580	3.9581	0.8801	27.21	1.23	1.500			
0.3105	19873.69	3.9550	3.9549	0.8823	27.21	1.23	1.500			
0.3132	20043.93	3.9520	3.9520	0.8852	27.21	1.23	1.500			
0.3158	20214.03	3.9490	3.9490	0.8863	27.20	1.22	1.500			
0.3185	20383.02	3.9460	3.9461	0.8899	27.20	1.22	1.500			
0.3211	20553.04	3.9430	3.9430	0.8955	27.19	1.21	1.500			
0.3238	20726.02	3.9400	3.9400	0.9033	27.19	1.21	1.500			
0.3266	20899.56	3.9370	3.9369	0.9059	27.18	1.20	1.500			
0.3293	21075.60	3.9340	3.9340	0.9156	27.18	1.20	1.500			
0.3321	21253.20	3.9310	3.9311	0.9207	27.18	1.20	1.500			
0.3349	21430.46	3.9280	3.9279	0.9238	27.17	1.19	1.500			
0.3376	21607.19	3.9250	3.9250	0.9236	27.17	1.19	1.500			
0.3404	21784.41	3.9220	3.9220	0.9290	27.16	1.18	1.500			
0.3432	21963.57	3.9190	3.9191	0.9347	27.15	1.17	1.500			
0.3460	22142.78	3.9160	3.9160	0.9442	27.15	1.17	1.500			
0.3488	22323.65	3.9130	3.9130	0.9515	27.14	1.16	1.500			
0.3517	22507.66	3.9100	3.9100	0.9561	27.13	1.15	1.500			
0.3545	22691.03	3.9070	3.9071	0.9658	27.12	1.14	1.500			
0.3575	22877.35	3.9040	3.9041	0.9773	27.12	1.14	1.500			
0.3604	23066.74	3.9010	3.9009	0.9826	27.11	1.13	1.500			
0.3634	23256.50	3.8980	3.8980	0.9885	27.10	1.12	1.500			
0.3663	23446.22	3.8950	3.8951	0.9936	27.10	1.12	1.500			
0.3694	23638.46	3.8920	3.8921	1.0042	27.09	1.11	1.500			
0.3724	23831.35	3.8890	3.8890	1.0125	27.09	1.11	1.500			
0.3754	24025.02	3.8860	3.8859	1.0150	27.08	1.10	1.500			
0.3785	24221.40	3.8830	3.8830	1.0259	27.07	1.09	1.500			
0.3816	24420.23	3.8800	3.8800	1.0406	27.07	1.09	1.500			
0.3847	24620.26	3.8770	3.8770	1.0482	27.06	1.08	1.500			
0.3878	24821.70	3.8740	3.8740	1.0586	27.06	1.08	1.500			
0.3910	25025.79	3.8710	3.8710	1.0719	27.05	1.07	1.500			
0.3943	25233.43	3.8680	3.8680	1.0845	27.05	1.07	1.500			
0.3976	25445.12	3.8650	3.8649	1.0934	27.04	1.06	1.500			
0.4009	25655.82	3.8620	3.8621	1.1076	27.04	1.06	1.500			
0.4042	25867.91	3.8590	3.8590	1.1231	27.03	1.05	1.500			
0.4076	26084.80	3.8560	3.8560	1.1424	27.02	1.04	1.500			
0.4110	26304.51	3.8530	3.8530	1.1579	27.02	1.04	1.500			
0.4145	26528.54	3.8500	3.8500	1.1776	27.01	1.03	1.500			
0.4181	26758.74	3.8470	3.8471	1.1998	27.00	1.02	1.500			
0.4217	26991.49	3.8440	3.8440	1.2161	26.99	1.01	1.500			
0.4254	27225.52	3.8410	3.8409	1.2296	26.98	1.00	1.500			
0.4291	27462.07	3.8380	3.8381	1.2547	26.98	1.00	1.500			
0.4329	27706.09	3.8350	3.8350	1.2776	26.97	0.99	1.500			
0.4368	27953.32	3.8320	3.8320	1.3035	26.96	0.98	1.500			
0.4407	28206.31	3.8290	3.8291	1.3269	26.95	0.97	1.500			
0.4448	28464.70	3.8260	3.8260	1.3466	26.94	0.96	1.500			
0.4488	28724.16	3.8230	3.8229	1.3757	26.93	0.95	1.500			
0.4529	28987.47	3.8200	3.8201	1.4084	26.92	0.94	1.500			
0.4572	29261.20	3.8170	3.8170	1.4352	26.91	0.93	1.500			
0.4616	29541.52	3.8140	3.8140	1.4728	26.90	0.92	1.500			
0.4660	29825.76	3.8110	3.8111	1.5034	26.89	0.91	1.500			
0.4707	30122.74	3.8080	3.8080	1.5283	26.88	0.90	1.500			
0.4752	30414.98	3.8050	3.8050	1.5590	26.86	0.88	1.500			
0.4799	30714.95	3.8020	3.8021	1.6050	26.85	0.87	1.500			
0.4848	31027.50	3.7990	3.7988	1.6480	26.84	0.86	1.500			
0.4898	31348.37	3.7960	3.7960	1.7061	26.83	0.85	1.500			
0.4950	31681.78	3.7930	3.7931	1.7336	26.81	0.83	1.500			
0.5003	32021.30	3.7900	3.7899	1.7701	26.79	0.81	1.500			
0.5057	32362.53	3.7870	3.7871	1.8156	26.78	0.80	1.500			
0.5111	32713.22	3.7840	3.7839	1.8690	26.76	0.78	1.500			
0.5168	33076.27	3.7810	3.7810	1.9205	26.74	0.76	1.500			
0.5227	33450.90	3.7780	3.7780	1.9469	26.72	0.74	1.500			
0.5287	33835.47	3.7750	3.7751	1.9685	26.70	0.72	1.500			
0.5345	34210.89	3.7720	3.7720	1.9736	26.68	0.70	1.500			
0.5404	34588.77	3.7690	3.7691	1.9992	26.66	0.68	1.500			
0.5465	34974.49	3.7660	3.7659	1.9982	26.65	0.67	1.500			
0.5526	35363.24	3.7630	3.7631	2.0338	26.63	0.65	1.500	0.356	0.456	
0.5587	35759.29	3.7600	3.7599	2.0391	26.61	0.63	1.500			
0.5649	36156.78	3.7570	3.7571	2.0257	26.59	0.61	1.500			
0.5710	36542.10	3.7540	3.7540	1.9784	26.57	0.59	1.500			
0.5769	36919.36	3.7510	3.7511	1.9562	26.55	0.57	1.500			
0.5827	37291.50	3.7480	3.7479	1.9541	26.54	0.56	1.500			
0.5885	37667.12	3.7450	3.7450	1.9557	26.52	0.54	1.500			
0.5944	38039.38	3.7420	3.7420	1.9640	26.51	0.53	1.500			
0.6004	38423.13	3.7390	3.7390	2.0001	26.49	0.51	1.500			
0.6064	38807.43	3.7360	3.7359	2.0022	26.47	0.49	1.500			
0.6124	39193.60	3.7330	3.7331	2.0278	26.46	0.48	1.500			
0.6186	39589.11	3.7300	3.7299	2.0445	26.44	0.46	1.500			
0.6246	39977.42	3.7270	3.7270	2.0907	26.43	0.45	1.500			
0.6309	40376.75	3.7240	3.7241	2.1459	26.41	0.43	1.500			
0.6375	40797.07	3.7210	3.7210	2.2226	26.40	0.42	1.500			
0.6442	41229.70	3.7180	3.7180	2.2590	26.38	0.40	1.500			
0.6512	41674.49	3.7150	3.7151	2.3735	26.36	0.38	1.500			
0.6583	42129.59	3.7120	3.7119	2.4694	26.35	0.37	1.500			
0.6658	42612.79	3.7090	3.7091	2.5893	26.33	0.35	1.500			
0.6740	43134.87	3.7060	3.7060	2.6747	26.31	0.33	1.500			
0.6818	43633.30	3.7030	3.7030	2.6222	26.29	0.31	1.500			
0.6897	44138.14	3.7000	3.7000	2.6044	26.27	0.29	1.500			
0.6975	44641.34	3.6970	3.6970	2.5430	26.25	0.27	1.500			
0.7052	45130.54	3.6940	3.6940	2.4667	26.23	0.25	1.500			
0.7124	45594.25	3.6910	3.6910	2.2958	26.22	0.24	1.500			
0.7191	46019.71	3.6880	3.6881	2.1134	26.21	0.23	1.500			
0.7251	46404.88	3.6850	3.6851	1.9460	26.21	0.23	1.500			
0.7305	46750.61	3.6820	3.6820	1.7767	26.20	0.22	1.500			
0.7355	47072.77	3.6790	3.6788	1.6614	26.20	0.22	1.500			
0.7403	47380.40	3.6760	3.6761	1.5746	26.19	0.21	1.500			
0.7449	47672.86	3.6730	3.6730	1.4941	26.18	0.20	1.500			
0.7493	47953.40	3.6700	3.6700	1.4253	26.17	0.19	1.500			
0.7534	48215.57	3.6670	3.6671	1.3608	26.16	0.18	1.500			
0.7573	48469.29	3.6640	3.6639	1.3160	26.15	0.17	1.500			
0.7611	48713.06	3.6610	3.6610	1.2836	26.14	0.16	1.500			
0.7649	48953.90	3.6580	3.6580	1.2660	26.13	0.15	1.500			
0.7686	49191.88	3.6550	3.6550	1.2618	26.13	0.15	1.500			
0.7724	49435.24	3.6520	3.6519	1.2653	26.12	0.14	1.500			
0.7762	49675.97	3.6490	3.6490	1.2767	26.11	0.13	1.500			
0.7800	49921.42	3.6460	3.6460	1.2924	26.11	0.13	1.500			
0.7839	50170.93	3.6430	3.6430	1.3062	26.10	0.12	1.500			
0.7879	50425.08	3.6400	3.6400	1.3157	26.09	0.11	1.500			
0.7919	50679.51	3.6370	3.6370	1.3236	26.08	0.10	1.500			
0.7959	50937.46	3.6340	3.6340	1.3160	26.08	0.10	1.500			
0.7999	51191.43	3.6310	3.6310	1.3137	26.07	0.09	1.500			
0.8037	51439.94	3.6280	3.6280	1.3039	26.06	0.08	1.500			
0.8076	51688.98	3.6250	3.6250	1.3038	26.05	0.07	1.500			
0.8115	51938.30	3.6220	3.6219	1.2986	26.04	0.06	1.500			
0.8154	52187.27	3.6190	3.6191	1.2968	26.03	0.05	1.500			
0.8193	52437.57	3.6160	3.6161	1.2958	26.02	0.04	1.500			
0.8233	52688.59	3.6130	3.6129	1.2908	26.01	0.03	1.500			
0.8271	52936.17	3.6100	3.6099	1.2797	26.00	0.02	1.500			
0.8309	53179.22	3.6070	3.6071	1.2659	25.99	0.01	1.500			
0.8347	53422.45	3.6040	3.6040	1.2518	25.98	0.00	1.500			
0.8385	53664.24	3.6010	3.6010	1.2399	25.98	-0.00	1.500			
0.8422	53900.12	3.5980	3.5980	1.2208	25.97	-0.01	1.500			
0.8458	54132.67	3.5950	3.5951	1.2047	25.97	-0.01	1.500			
0.8494	54361.85	3.5920	3.5919	1.1844	25.96	-0.02	1.500			
0.8529	54585.77	3.5890	3.5890	1.1735	25.96	-0.02	1.500			
0.8564	54807.52	3.5860	3.5860	1.1644	25.95	-0.03	1.500			
0.8599	55032.29	3.5830	3.5829	1.1521	25.95	-0.03	1.500			
0.8634	55256.10	3.5800	3.5800	1.1304	25.95	-0.03	1.500			
0.8668	55477.46	3.5770	3.5770	1.0732	25.96	-0.02	1.500			
0.8702	55690.72	3.5740	3.5740	1.0031	25.96	-0.02	1.500			
0.8731	55880.33	3.5710	3.5710	0.8870	25.97	-0.01	1.500			
0.8757	56042.05	3.5680	3.5681	0.7601	25.97	-0.01	1.500			
0.8777	56172.44	3.5650	3.5651	0.6365	25.97	-0.01	1.500			
0.8794	56279.06	3.5620	3.5619	0.5208	25.97	-0.01	1.500			
0.8806	56360.75	3.5590	3.5589	0.4234	25.97	-0.01	1.500			
0.8817	56428.96	3.5560	3.5559	0.3558	25.98	-0.00	1.500			
0.8826	56485.48	3.5530	3.5530	0.3016	25.98	-0.00	1.500			
0.8834	56536.11	3.5500	3.5499	0.2635	25.98	-0.00	1.500			
0.8841	56581.08	3.5470	3.5469	0.2295	25.98	-0.00	1.500			
0.8847	56620.32	3.5440	3.5440	0.2057	25.98	-0.00	1.500			
0.8853	56656.19	3.5410	3.5410	0.1853	25.98	-0.00	1.500			
0.8858	56689.80	3.5380	3.5379	0.1680	25.98	0.00	1.500			
0.8863	56720.28	3.5350	3.5351	0.1539	25.98	0.00	1.500			
0.8867	56748.12	3.5320	3.5320	0.1390	25.98	0.00	1.500			
0.8871	56773.36	3.5290	3.5289	0.1248	25.98	0.00	1.500			
0.8874	56795.88	3.5260	3.5260	0.1106	25.98	0.00	1.500			
0.8877	56815.81	3.5230	3.5231	0.0970	25.98	0.00	1.500			
0.8880	56833.24	3.5200	3.5201	0.0834	25.98	0.00	1.500			
0.8883	56848.59	3.5170	3.5171	0.0693	25.98	0.00	1.500			
0.8884	56860.44	3.5140	3.5143	0.0541	25.98	0.00	1.500			
0.8886	56869.36	3.5110	3.5116	0.0388	25.98	0.00	1.500			
