Ah_balance (normalized)	Ah_balance (mAh)	Voltage - fit (V)	Voltage -  interpolate (V)	dQ/dV (1/V)	Temperature (°C)	Temperature - diff (°C)	Current (C)	R_DC 0ms (mOhm)	R_DC 50ms (mOhm)	R_DC 50 ms PEC (mOhm)
0.1900	12159.40	3.9290	3.9285	-0.0803	25.90	-0.03	-1.500			
0.1903	12177.16	3.9260	3.9258	-0.1046	25.90	-0.03	-1.500			
0.1906	12199.25	3.9230	3.9229	-0.1291	25.90	-0.03	-1.500			
0.1910	12227.07	3.9200	3.9201	-0.1533	25.90	-0.03	-1.500			
0.1915	12259.01	3.9170	3.9170	-0.1763	25.90	-0.03	-1.500			
0.1921	12295.25	3.9140	3.9139	-0.1980	25.90	-0.03	-1.500			
0.1928	12336.56	3.9110	3.9111	-0.2194	25.90	-0.03	-1.500			
0.1934	12380.18	3.9080	3.9080	-0.2410	25.91	-0.02	-1.500			
0.1942	12428.52	3.9050	3.9050	-0.2624	25.91	-0.02	-1.500			
0.1950	12481.37	3.9020	3.9019	-0.2808	25.91	-0.02	-1.500			
0.1959	12537.03	3.8990	3.8990	-0.2996	25.91	-0.02	-1.500			
0.1968	12596.81	3.8960	3.8961	-0.3194	25.91	-0.02	-1.500			
0.1978	12659.87	3.8930	3.8930	-0.3389	25.91	-0.02	-1.500			
0.1989	12726.71	3.8900	3.8899	-0.3572	25.91	-0.02	-1.500			
0.1999	12796.67	3.8870	3.8870	-0.3750	25.91	-0.02	-1.500			
0.2011	12870.85	3.8840	3.8840	-0.3937	25.91	-0.02	-1.500			
0.2023	12948.57	3.8810	3.8810	-0.4128	25.92	-0.01	-1.500			
0.2036	13030.23	3.8780	3.8781	-0.4283	25.92	-0.01	-1.500			
0.2049	13114.06	3.8750	3.8750	-0.4431	25.92	-0.01	-1.500			
0.2063	13201.22	3.8720	3.8719	-0.4567	25.92	-0.01	-1.500			
0.2077	13290.58	3.8690	3.8690	-0.4694	25.92	-0.01	-1.500			
0.2091	13381.27	3.8660	3.8659	-0.4800	25.92	-0.01	-1.500			
0.2105	13474.25	3.8630	3.8630	-0.4916	25.93	-0.00	-1.500			
0.2120	13569.30	3.8600	3.8600	-0.5030	25.93	-0.00	-1.500			
0.2136	13667.60	3.8570	3.8569	-0.5152	25.93	-0.00	-1.500			
0.2151	13768.36	3.8540	3.8540	-0.5253	25.93	0.00	-1.500			
0.2167	13870.56	3.8510	3.8510	-0.5354	25.93	0.00	-1.500			
0.2184	13975.25	3.8480	3.8481	-0.5432	25.94	0.01	-1.500			
0.2200	14080.33	3.8450	3.8450	-0.5493	25.94	0.01	-1.500			
0.2217	14185.92	3.8420	3.8419	-0.5539	25.94	0.01	-1.500			
0.2233	14292.53	3.8390	3.8390	-0.5598	25.94	0.01	-1.500			
0.2250	14400.10	3.8360	3.8360	-0.5663	25.94	0.01	-1.500			
0.2267	14509.34	3.8330	3.8330	-0.5722	25.95	0.02	-1.500			
0.2284	14620.50	3.8300	3.8300	-0.5762	25.95	0.02	-1.500			
0.2302	14732.39	3.8270	3.8270	-0.5786	25.95	0.02	-1.500			
0.2319	14844.19	3.8240	3.8241	-0.5798	25.95	0.02	-1.500			
0.2337	14954.92	3.8210	3.8210	-0.5875	25.95	0.02	-1.500			
0.2354	15067.70	3.8180	3.8180	-0.5892	25.96	0.03	-1.500			
0.2372	15181.86	3.8150	3.8149	-0.5913	25.96	0.03	-1.500			
0.2390	15295.66	3.8120	3.8122	-0.5946	25.96	0.03	-1.500			
0.2408	15411.86	3.8090	3.8090	-0.5972	25.96	0.03	-1.500			
0.2426	15525.91	3.8060	3.8060	-0.6011	25.97	0.04	-1.500			
0.2444	15640.21	3.8030	3.8030	-0.6041	25.97	0.04	-1.500			
0.2462	15755.89	3.8000	3.8000	-0.6080	25.98	0.05	-1.500			
0.2480	15873.44	3.7970	3.7970	-0.6148	25.98	0.05	-1.500			
0.2499	15993.16	3.7940	3.7940	-0.6193	25.99	0.06	-1.500			
0.2517	16111.75	3.7910	3.7910	-0.6222	25.99	0.06	-1.500			
0.2536	16232.72	3.7880	3.7880	-0.6257	26.00	0.07	-1.500			
0.2555	16351.60	3.7850	3.7850	-0.6266	26.00	0.07	-1.500			
0.2574	16472.22	3.7820	3.7820	-0.6305	26.00	0.07	-1.500			
0.2593	16594.80	3.7790	3.7790	-0.6323	26.01	0.08	-1.500			
0.2612	16716.42	3.7760	3.7759	-0.6329	26.01	0.08	-1.500			
0.2631	16838.11	3.7730	3.7731	-0.6377	26.02	0.09	-1.500			
0.2650	16959.75	3.7700	3.7701	-0.6390	26.02	0.09	-1.500			
0.2669	17082.62	3.7670	3.7669	-0.6441	26.03	0.10	-1.500			
0.2688	17205.63	3.7640	3.7641	-0.6473	26.03	0.10	-1.500			
0.2708	17330.37	3.7610	3.7610	-0.6550	26.04	0.11	-1.500			
0.2728	17457.38	3.7580	3.7579	-0.6623	26.04	0.11	-1.500			
0.2748	17585.97	3.7550	3.7550	-0.6642	26.05	0.12	-1.500			
0.2768	17713.44	3.7520	3.7519	-0.6664	26.05	0.12	-1.500			
0.2788	17842.21	3.7490	3.7491	-0.6728	26.06	0.13	-1.500			
0.2808	17971.53	3.7460	3.7459	-0.6776	26.06	0.13	-1.500			
0.2828	18101.03	3.7430	3.7430	-0.6838	26.07	0.14	-1.500			
0.2849	18233.32	3.7400	3.7400	-0.6897	26.07	0.14	-1.500			
0.2870	18366.60	3.7370	3.7370	-0.6972	26.08	0.15	-1.500			
0.2891	18502.26	3.7340	3.7340	-0.6996	26.08	0.15	-1.500			
0.2912	18636.18	3.7310	3.7310	-0.7045	26.09	0.16	-1.500			
0.2933	18771.17	3.7280	3.7280	-0.7084	26.09	0.16	-1.500			
0.2954	18907.38	3.7250	3.7249	-0.7111	26.10	0.17	-1.500			
0.2976	19044.04	3.7220	3.7220	-0.7167	26.10	0.17	-1.500			
0.2997	19182.13	3.7190	3.7191	-0.7240	26.11	0.18	-1.500			
0.3019	19321.57	3.7160	3.7160	-0.7326	26.11	0.18	-1.500			
0.3041	19463.09	3.7130	3.7130	-0.7436	26.12	0.19	-1.500			
0.3063	19606.39	3.7100	3.7100	-0.7456	26.12	0.19	-1.500			
0.3086	19750.84	3.7070	3.7070	-0.7561	26.13	0.20	-1.500			
0.3109	19897.36	3.7040	3.7040	-0.7653	26.13	0.20	-1.500			
0.3132	20044.52	3.7010	3.7011	-0.7704	26.14	0.21	-1.500			
0.3155	20193.33	3.6980	3.6978	-0.7747	26.14	0.21	-1.500			
0.3178	20342.33	3.6950	3.6950	-0.7797	26.15	0.22	-1.500			
0.3202	20492.16	3.6920	3.6921	-0.7848	26.16	0.23	-1.500			
0.3226	20644.58	3.6890	3.6890	-0.7918	26.16	0.23	-1.500			
0.3249	20796.28	3.6860	3.6860	-0.7961	26.17	0.24	-1.500			
0.3273	20950.08	3.6830	3.6830	-0.8026	26.17	0.24	-1.500			
0.3297	21103.60	3.6800	3.6800	-0.8125	26.18	0.25	-1.500			
0.3322	21261.13	3.6770	3.6770	-0.8212	26.18	0.25	-1.500			
0.3347	21418.71	3.6740	3.6740	-0.8297	26.19	0.26	-1.500			
0.3372	21579.88	3.6710	3.6709	-0.8364	26.20	0.27	-1.500			
0.3397	21741.55	3.6680	3.6681	-0.8483	26.20	0.27	-1.500			
0.3423	21904.82	3.6650	3.6650	-0.8557	26.21	0.28	-1.500			
0.3449	22070.97	3.6620	3.6620	-0.8622	26.21	0.28	-1.500			
0.3474	22235.89	3.6590	3.6589	-0.8665	26.22	0.29	-1.500			
0.3501	22404.14	3.6560	3.6561	-0.8768	26.22	0.29	-1.500			
0.3527	22572.21	3.6530	3.6531	-0.8860	26.23	0.30	-1.500			
0.3554	22744.63	3.6500	3.6499	-0.8938	26.23	0.30	-1.500			
0.3581	22915.29	3.6470	3.6470	-0.8994	26.24	0.31	-1.500			
0.3608	23090.01	3.6440	3.6440	-0.9116	26.24	0.31	-1.500			
0.3635	23266.54	3.6410	3.6410	-0.9234	26.25	0.32	-1.500			
0.3663	23443.61	3.6380	3.6379	-0.9315	26.25	0.32	-1.500			
0.3691	23623.32	3.6350	3.6351	-0.9409	26.26	0.33	-1.500			
0.3720	23804.89	3.6320	3.6320	-0.9488	26.27	0.34	-1.500			
0.3748	23989.17	3.6290	3.6290	-0.9583	26.27	0.34	-1.500			
0.3777	24172.25	3.6260	3.6261	-0.9715	26.28	0.35	-1.500			
0.3806	24359.60	3.6230	3.6230	-0.9853	26.28	0.35	-1.500			
0.3836	24550.24	3.6200	3.6199	-0.9966	26.29	0.36	-1.500			
0.3866	24744.05	3.6170	3.6169	-1.0048	26.30	0.37	-1.500			
0.3897	24938.92	3.6140	3.6141	-1.0150	26.30	0.37	-1.500			
0.3927	25134.47	3.6110	3.6110	-1.0258	26.31	0.38	-1.500			
0.3958	25331.14	3.6080	3.6080	-1.0397	26.32	0.39	-1.500			
0.3989	25529.81	3.6050	3.6050	-1.0546	26.32	0.39	-1.500			
0.4021	25733.62	3.6020	3.6020	-1.0699	26.33	0.40	-1.500			
0.4053	25941.86	3.5990	3.5990	-1.0856	26.34	0.41	-1.500			
0.4086	26153.09	3.5960	3.5960	-1.1067	26.35	0.42	-1.500			
0.4120	26366.74	3.5930	3.5930	-1.1179	26.36	0.43	-1.500			
0.4153	26581.51	3.5900	3.5900	-1.1326	26.36	0.43	-1.500			
0.4188	26800.97	3.5870	3.5870	-1.1448	26.37	0.44	-1.500			
0.4222	27021.32	3.5840	3.5840	-1.1601	26.37	0.44	-1.500			
0.4257	27246.17	3.5810	3.5810	-1.1783	26.38	0.45	-1.500			
0.4293	27474.86	3.5780	3.5780	-1.1900	26.38	0.45	-1.500			
0.4329	27702.97	3.5750	3.5750	-1.2032	26.39	0.46	-1.500			
0.4365	27936.25	3.5720	3.5720	-1.2219	26.40	0.47	-1.500			
0.4402	28170.59	3.5690	3.5691	-1.2385	26.40	0.47	-1.500			
0.4439	28411.14	3.5660	3.5659	-1.2590	26.41	0.48	-1.500			
0.4477	28653.20	3.5630	3.5630	-1.2764	26.41	0.48	-1.500			
0.4516	28900.38	3.5600	3.5600	-1.3019	26.42	0.49	-1.500			
0.4556	29156.89	3.5570	3.5570	-1.3188	26.43	0.50	-1.500			
0.4596	29411.42	3.5540	3.5540	-1.3343	26.43	0.50	-1.500			
0.4636	29668.89	3.5510	3.5512	-1.3528	26.44	0.51	-1.500			
0.4677	29930.32	3.5480	3.5479	-1.3641	26.45	0.52	-1.500			
0.4718	30193.06	3.5450	3.5449	-1.3837	26.46	0.53	-1.500			
0.4759	30457.47	3.5420	3.5421	-1.3942	26.47	0.54	-1.500			
0.4801	30728.77	3.5390	3.5390	-1.4219	26.48	0.55	-1.500			
0.4844	31003.99	3.5360	3.5360	-1.4422	26.49	0.56	-1.500			
0.4888	31282.29	3.5330	3.5329	-1.4584	26.50	0.57	-1.500			
0.4932	31562.29	3.5300	3.5300	-1.4780	26.51	0.58	-1.500			
0.4977	31849.65	3.5270	3.5270	-1.4971	26.51	0.58	-1.500			
0.5022	32138.86	3.5240	3.5240	-1.5089	26.52	0.59	-1.500			
0.5068	32432.09	3.5210	3.5212	-1.5220	26.53	0.60	-1.500	0.373	0.560	
0.5113	32725.13	3.5180	3.5179	-1.5312	26.54	0.61	-1.500			
0.5159	33020.20	3.5150	3.5150	-1.5414	26.54	0.61	-1.500			
0.5205	33313.54	3.5120	3.5120	-1.5617	26.55	0.62	-1.500			
0.5252	33614.63	3.5090	3.5090	-1.5715	26.56	0.63	-1.500			
0.5300	33919.49	3.5060	3.5059	-1.5772	26.57	0.64	-1.500			
0.5348	34225.92	3.5030	3.5029	-1.5848	26.58	0.65	-1.500			
0.5395	34530.65	3.5000	3.5003	-1.5909	26.59	0.66	-1.500			
0.5443	34836.57	3.4970	3.4969	-1.5877	26.60	0.67	-1.500			
0.5491	35140.34	3.4940	3.4940	-1.5942	26.61	0.68	-1.500			
0.5538	35446.23	3.4910	3.4909	-1.5936	26.63	0.70	-1.500			
0.5587	35754.41	3.4880	3.4880	-1.6005	26.64	0.71	-1.500			
0.5635	36062.93	3.4850	3.4850	-1.5929	26.65	0.72	-1.500			
0.5683	36368.79	3.4820	3.4820	-1.5921	26.66	0.73	-1.500			
0.5730	36673.61	3.4790	3.4790	-1.5842	26.67	0.74	-1.500			
0.5777	36975.04	3.4760	3.4760	-1.5805	26.68	0.75	-1.500			
0.5825	37277.68	3.4730	3.4729	-1.5723	26.69	0.76	-1.500			
0.5872	37580.59	3.4700	3.4700	-1.5637	26.71	0.78	-1.500			
0.5919	37879.83	3.4670	3.4670	-1.5514	26.72	0.79	-1.500			
0.5966	38179.57	3.4640	3.4640	-1.5408	26.73	0.80	-1.500			
0.6012	38473.78	3.4610	3.4610	-1.5203	26.75	0.82	-1.500			
0.6057	38764.75	3.4580	3.4580	-1.4996	26.76	0.83	-1.500			
0.6101	39049.52	3.4550	3.4551	-1.4820	26.78	0.85	-1.500			
0.6146	39332.79	3.4520	3.4521	-1.4668	26.79	0.86	-1.500			
0.6189	39611.67	3.4490	3.4490	-1.4487	26.81	0.88	-1.500			
0.6232	39886.59	3.4460	3.4459	-1.4322	26.82	0.89	-1.500			
0.6275	40159.92	3.4430	3.4430	-1.4180	26.84	0.91	-1.500			
0.6318	40434.32	3.4400	3.4400	-1.4032	26.85	0.92	-1.500			
0.6359	40700.65	3.4370	3.4370	-1.3857	26.87	0.94	-1.500			
0.6401	40964.86	3.4340	3.4340	-1.3648	26.88	0.95	-1.500			
0.6442	41225.94	3.4310	3.4310	-1.3480	26.90	0.97	-1.500			
0.6482	41483.08	3.4280	3.4280	-1.3309	26.92	0.99	-1.500			
0.6521	41737.55	3.4250	3.4250	-1.3143	26.93	1.00	-1.500			
0.6561	41989.38	3.4220	3.4219	-1.2937	26.95	1.02	-1.500			
0.6599	42235.34	3.4190	3.4191	-1.2749	26.97	1.04	-1.500			
0.6637	42477.76	3.4160	3.4161	-1.2510	26.98	1.05	-1.500			
0.6674	42716.29	3.4130	3.4129	-1.2333	26.99	1.06	-1.500			
0.6711	42950.37	3.4100	3.4100	-1.2129	27.01	1.08	-1.500			
0.6747	43181.05	3.4070	3.4070	-1.1894	27.03	1.10	-1.500			
0.6783	43411.46	3.4040	3.4040	-1.1693	27.04	1.11	-1.500			
0.6818	43634.19	3.4010	3.4010	-1.1354	27.06	1.13	-1.500			
0.6851	43848.55	3.3980	3.3980	-1.1010	27.07	1.14	-1.500			
0.6884	44057.64	3.3950	3.3951	-1.0662	27.09	1.16	-1.500			
0.6915	44256.66	3.3920	3.3919	-1.0283	27.10	1.17	-1.500			
0.6945	44450.60	3.3890	3.3890	-0.9943	27.12	1.19	-1.500			
0.6975	44636.85	3.3860	3.3861	-0.9692	27.13	1.20	-1.500			
0.7003	44819.28	3.3830	3.3829	-0.9421	27.14	1.21	-1.500			
0.7031	44997.81	3.3800	3.3800	-0.9249	27.16	1.23	-1.500			
0.7058	45174.20	3.3770	3.3769	-0.8990	27.17	1.24	-1.500			
0.7085	45346.30	3.3740	3.3740	-0.8755	27.18	1.25	-1.500			
0.7111	45512.35	3.3710	3.3711	-0.8485	27.19	1.26	-1.500			
0.7136	45673.28	3.3680	3.3679	-0.8214	27.19	1.26	-1.500			
0.7160	45826.41	3.3650	3.3650	-0.7959	27.20	1.27	-1.500			
0.7184	45974.76	3.3620	3.3620	-0.7720	27.21	1.28	-1.500			
0.7206	46121.03	3.3590	3.3589	-0.7512	27.22	1.29	-1.500			
0.7229	46263.44	3.3560	3.3561	-0.7327	27.23	1.30	-1.500			
0.7250	46402.68	3.3530	3.3529	-0.7139	27.24	1.31	-1.500			
0.7271	46537.25	3.3500	3.3500	-0.6956	27.25	1.32	-1.500			
0.7292	46669.09	3.3470	3.3470	-0.6767	27.27	1.34	-1.500			
0.7312	46796.43	3.3440	3.3441	-0.6594	27.27	1.34	-1.500			
0.7332	46922.15	3.3410	3.3409	-0.6420	27.28	1.35	-1.500			
0.7351	47043.97	3.3380	3.3381	-0.6252	27.29	1.36	-1.500			
0.7369	47161.92	3.3350	3.3349	-0.6070	27.30	1.37	-1.500			
0.7387	47276.56	3.3320	3.3319	-0.5918	27.31	1.38	-1.500			
0.7404	47388.02	3.3290	3.3291	-0.5760	27.32	1.39	-1.500			
0.7421	47497.08	3.3260	3.3260	-0.5647	27.33	1.40	-1.500			
0.7438	47604.58	3.3230	3.3230	-0.5510	27.33	1.40	-1.500			
0.7455	47710.04	3.3200	3.3200	-0.5381	27.34	1.41	-1.500			
0.7471	47811.56	3.3170	3.3170	-0.5259	27.35	1.42	-1.500			
0.7486	47911.54	3.3140	3.3140	-0.5128	27.36	1.43	-1.500			
0.7501	48007.92	3.3110	3.3110	-0.4994	27.36	1.43	-1.500			
0.7516	48102.52	3.3080	3.3080	-0.4878	27.37	1.44	-1.500			
0.7530	48194.85	3.3050	3.3050	-0.4736	27.38	1.45	-1.500			
0.7545	48285.23	3.3020	3.3019	-0.4619	27.38	1.45	-1.500			
0.7558	48372.72	3.2990	3.2991	-0.4503	27.39	1.46	-1.500			
0.7571	48457.27	3.2960	3.2960	-0.4380	27.40	1.47	-1.500			
0.7584	48539.79	3.2930	3.2930	-0.4288	27.40	1.47	-1.500			
0.7597	48620.91	3.2900	3.2899	-0.4198	27.41	1.48	-1.500			
0.7609	48700.52	3.2870	3.2870	-0.4100	27.42	1.49	-1.500			
0.7622	48779.04	3.2840	3.2839	-0.4016	27.42	1.49	-1.500			
0.7634	48855.67	3.2810	3.2810	-0.3925	27.43	1.50	-1.500			
0.7645	48929.92	3.2780	3.2780	-0.3823	27.43	1.50	-1.500			
0.7657	49002.26	3.2750	3.2750	-0.3720	27.44	1.51	-1.500			
0.7668	49072.55	3.2720	3.2721	-0.3626	27.45	1.52	-1.500			
0.7678	49140.75	3.2690	3.2690	-0.3550	27.46	1.53	-1.500			
0.7689	49208.05	3.2660	3.2660	-0.3486	27.47	1.54	-1.500			
0.7699	49274.22	3.2630	3.2629	-0.3406	27.47	1.54	-1.500			
0.7709	49338.78	3.2600	3.2601	-0.3339	27.48	1.55	-1.500			
0.7719	49402.61	3.2570	3.2570	-0.3270	27.49	1.56	-1.500			
0.7729	49464.78	3.2540	3.2540	-0.3211	27.50	1.57	-1.500			
0.7738	49525.59	3.2510	3.2510	-0.3145	27.50	1.57	-1.500			
0.7748	49585.10	3.2480	3.2480	-0.3086	27.51	1.58	-1.500			
0.7757	49643.76	3.2450	3.2450	-0.3029	27.52	1.59	-1.500			
0.7766	49701.80	3.2420	3.2421	-0.2975	27.52	1.59	-1.500			
0.7775	49758.43	3.2390	3.2390	-0.2917	27.53	1.60	-1.500			
0.7783	49813.84	3.2360	3.2360	-0.2875	27.54	1.61	-1.500			
0.7792	49868.14	3.2330	3.2331	-0.2819	27.54	1.61	-1.500			
0.7800	49921.98	3.2300	3.2299	-0.2770	27.55	1.62	-1.500			
0.7809	49974.84	3.2270	3.2270	-0.2729	27.55	1.62	-1.500			
0.7817	50026.59	3.2240	3.2240	-0.2691	27.56	1.63	-1.500			
0.7825	50077.95	3.2210	3.2209	-0.2651	27.56	1.63	-1.500			
0.7833	50128.48	3.2180	3.2180	-0.2594	27.57	1.64	-1.500			
0.7840	50177.59	3.2150	3.2151	-0.2548	27.58	1.65	-1.500			
0.7848	50226.22	3.2120	3.2120	-0.2516	27.58	1.65	-1.500			
0.7855	50274.11	3.2090	3.2090	-0.2476	27.59	1.66	-1.500			
0.7863	50320.88	3.2060	3.2059	-0.2429	27.59	1.66	-1.500			
0.7870	50366.89	3.2030	3.2030	-0.2397	27.60	1.67	-1.500			
0.7877	50412.73	3.2000	3.2001	-0.2372	27.60	1.67	-1.500			
0.7884	50458.17	3.1970	3.1971	-0.2346	27.61	1.68	-1.500			
0.7891	50503.34	3.1940	3.1939	-0.2322	27.61	1.68	-1.500			
0.7898	50547.48	3.1910	3.1910	-0.2278	27.62	1.69	-1.500			
0.7905	50590.93	3.1880	3.1880	-0.2244	27.62	1.69	-1.500			
0.7911	50633.60	3.1850	3.1851	-0.2218	27.63	1.70	-1.500			
0.7918	50675.88	3.1820	3.1820	-0.2186	27.64	1.71	-1.500			
0.7925	50717.19	3.1790	3.1790	-0.2162	27.64	1.71	-1.500			
0.7931	50758.31	3.1760	3.1760	-0.2134	27.65	1.72	-1.500			
0.7937	50799.17	3.1730	3.1730	-0.2110	27.65	1.72	-1.500			
0.7944	50839.48	3.1700	3.1700	-0.2089	27.66	1.73	-1.500			
0.7950	50879.57	3.1670	3.1671	-0.2076	27.66	1.73	-1.500			
0.7956	50919.21	3.1640	3.1640	-0.2052	27.67	1.74	-1.500			
0.7962	50958.18	3.1610	3.1609	-0.2030	27.67	1.74	-1.500			
0.7968	50996.98	3.1580	3.1580	-0.2013	27.68	1.75	-1.500			
0.7974	51035.49	3.1550	3.1551	-0.1988	27.68	1.75	-1.500			
0.7980	51073.71	3.1520	3.1520	-0.1967	27.69	1.76	-1.500			
0.7986	51111.38	3.1490	3.1490	-0.1942	27.69	1.76	-1.500			
0.7992	51148.38	3.1460	3.1460	-0.1912	27.70	1.77	-1.500			
0.7998	51184.62	3.1430	3.1430	-0.1883	27.70	1.77	-1.500			
0.8003	51220.30	3.1400	3.1400	-0.1871	27.71	1.78	-1.500			
0.8009	51255.76	3.1370	3.1369	-0.1849	27.71	1.78	-1.500			
0.8014	51291.16	3.1340	3.1340	-0.1839	27.72	1.79	-1.500			
0.8020	51326.39	3.1310	3.1309	-0.1823	27.73	1.80	-1.500			
0.8025	51361.15	3.1280	3.1281	-0.1814	27.73	1.80	-1.500			
0.8031	51395.88	3.1250	3.1251	-0.1810	27.74	1.81	-1.500			
0.8036	51430.56	3.1220	3.1219	-0.1802	27.75	1.82	-1.500			
0.8041	51465.32	3.1190	3.1189	-0.1778	27.75	1.82	-1.500			
0.8047	51499.25	3.1160	3.1160	-0.1754	27.76	1.83	-1.500			
0.8052	51532.82	3.1130	3.1131	-0.1745	27.76	1.83	-1.500			
0.8057	51566.12	3.1100	3.1100	-0.1724	27.77	1.84	-1.500			
0.8062	51599.06	3.1070	3.1069	-0.1708	27.78	1.85	-1.500			
0.8067	51631.24	3.1040	3.1039	-0.1690	27.78	1.85	-1.500			
0.8072	51663.35	3.1010	3.1011	-0.1676	27.79	1.86	-1.500			
0.8077	51695.59	3.0980	3.0980	-0.1670	27.79	1.86	-1.500			
0.8082	51727.91	3.0950	3.0949	-0.1666	27.80	1.87	-1.500			
0.8087	51759.73	3.0920	3.0920	-0.1659	27.80	1.87	-1.500			
0.8092	51791.71	3.0890	3.0889	-0.1638	27.81	1.88	-1.500			
0.8097	51823.00	3.0860	3.0860	-0.1621	27.82	1.89	-1.500			
0.8102	51854.21	3.0830	3.0830	-0.1608	27.82	1.89	-1.500			
0.8107	51884.79	3.0800	3.0801	-0.1595	27.83	1.90	-1.500			
0.8112	51915.09	3.0770	3.0770	-0.1581	27.83	1.90	-1.500			
0.8116	51945.34	3.0740	3.0738	-0.1570	27.84	1.91	-1.500			
0.8121	51975.10	3.0710	3.0711	-0.1564	27.85	1.92	-1.500			
0.8126	52004.85	3.0680	3.0681	-0.1557	27.85	1.92	-1.500			
0.8130	52035.10	3.0650	3.0649	-0.1563	27.86	1.93	-1.500			
0.8135	52065.15	3.0620	3.0620	-0.1546	27.87	1.94	-1.500			
0.8140	52094.82	3.0590	3.0590	-0.1530	27.87	1.94	-1.500			
0.8144	52123.94	3.0560	3.0561	-0.1522	27.88	1.95	-1.500			
0.8149	52153.08	3.0530	3.0531	-0.1510	27.88	1.95	-1.500			
0.8153	52181.89	3.0500	3.0500	-0.1501	27.89	1.96	-1.500			
0.8158	52210.48	3.0470	3.0469	-0.1486	27.89	1.96	-1.500			
0.8162	52238.85	3.0440	3.0440	-0.1474	27.90	1.97	-1.500			
0.8167	52267.09	3.0410	3.0411	-0.1467	27.90	1.97	-1.500			
0.8171	52295.37	3.0380	3.0381	-0.1465	27.91	1.98	-1.500			
0.8176	52323.54	3.0350	3.0350	-0.1453	27.91	1.98	-1.500			
0.8180	52351.10	3.0320	3.0320	-0.1439	27.92	1.99	-1.500			
0.8184	52378.65	3.0290	3.0290	-0.1431	27.92	1.99	-1.500			
0.8188	52406.01	3.0260	3.0261	-0.1427	27.93	2.00	-1.500			
0.8193	52433.44	3.0230	3.0230	-0.1421	27.93	2.00	-1.500			
0.8197	52460.71	3.0200	3.0200	-0.1410	27.94	2.01	-1.500			
0.8201	52487.69	3.0170	3.0169	-0.1400	27.95	2.02	-1.500			
0.8205	52514.41	3.0140	3.0140	-0.1390	27.95	2.02	-1.500			
0.8210	52541.30	3.0110	3.0110	-0.1383	27.96	2.03	-1.500			
0.8214	52567.68	3.0080	3.0080	-0.1369	27.96	2.03	-1.500			
0.8218	52593.84	3.0050	3.0049	-0.1356	27.96	2.03	-1.500			
0.8222	52619.85	3.0020	3.0022	-0.1362	27.97	2.04	-1.499			
