Ah_balance (normalized)	Ah_balance (mAh)	Voltage - fit (V)	Voltage -  interpolate (V)	dQ/dV (1/V)	Temperature (°C)	Temperature - diff (°C)	Current (C)	R_DC 0ms (mOhm)	R_DC 50ms (mOhm)	R_DC 50 ms PEC (mOhm)
0.2867	18348.11	3.9890	3.9890	0.8270	27.24	1.28	1.500			
0.2892	18507.40	3.9860	3.9860	0.8325	27.23	1.27	1.500			
0.2917	18667.04	3.9830	3.9830	0.8373	27.23	1.27	1.500			
0.2942	18829.12	3.9800	3.9799	0.8418	27.23	1.27	1.500			
0.2967	18990.59	3.9770	3.9770	0.8446	27.22	1.26	1.500			
0.2993	19153.81	3.9740	3.9740	0.8531	27.22	1.26	1.500			
0.3019	19318.59	3.9710	3.9710	0.8544	27.21	1.25	1.500			
0.3044	19482.44	3.9680	3.9680	0.8568	27.21	1.25	1.500			
0.3070	19647.75	3.9650	3.9650	0.8588	27.21	1.25	1.500			
0.3096	19812.53	3.9620	3.9621	0.8625	27.20	1.24	1.500			
0.3122	19979.52	3.9590	3.9589	0.8669	27.20	1.24	1.500			
0.3148	20145.87	3.9560	3.9560	0.8679	27.19	1.23	1.500			
0.3174	20310.82	3.9530	3.9530	0.8726	27.19	1.23	1.500			
0.3200	20480.97	3.9500	3.9501	0.8752	27.18	1.22	1.500			
0.3226	20649.17	3.9470	3.9469	0.8792	27.18	1.22	1.500			
0.3253	20818.53	3.9440	3.9440	0.8834	27.18	1.22	1.500			
0.3279	20987.15	3.9410	3.9412	0.8867	27.17	1.21	1.500			
0.3306	21158.13	3.9380	3.9381	0.8925	27.17	1.21	1.500			
0.3333	21329.99	3.9350	3.9350	0.8981	27.16	1.20	1.500			
0.3360	21502.06	3.9320	3.9320	0.9046	27.15	1.19	1.500			
0.3387	21678.56	3.9290	3.9290	0.9138	27.15	1.19	1.500			
0.3415	21854.21	3.9260	3.9260	0.9168	27.14	1.18	1.500			
0.3442	22030.71	3.9230	3.9230	0.9214	27.13	1.17	1.500			
0.3470	22208.11	3.9200	3.9201	0.9241	27.13	1.17	1.500			
0.3498	22386.44	3.9170	3.9170	0.9282	27.12	1.16	1.500			
0.3525	22563.10	3.9140	3.9140	0.9332	27.11	1.15	1.500			
0.3553	22742.09	3.9110	3.9110	0.9416	27.11	1.15	1.500			
0.3582	22924.17	3.9080	3.9080	0.9504	27.10	1.14	1.500			
0.3611	23107.30	3.9050	3.9050	0.9576	27.09	1.13	1.500			
0.3640	23292.97	3.9020	3.9020	0.9652	27.08	1.12	1.500			
0.3669	23479.46	3.8990	3.8991	0.9726	27.08	1.12	1.500			
0.3698	23668.53	3.8960	3.8959	0.9711	27.07	1.11	1.500			
0.3727	23851.90	3.8930	3.8930	0.9836	27.06	1.10	1.500			
0.3756	24040.60	3.8900	3.8900	0.9909	27.05	1.09	1.500			
0.3786	24231.84	3.8870	3.8869	1.0055	27.04	1.08	1.500			
0.3817	24427.02	3.8840	3.8841	1.0153	27.03	1.07	1.500			
0.3847	24623.90	3.8810	3.8811	1.0254	27.03	1.07	1.500			
0.3878	24821.58	3.8780	3.8780	1.0398	27.02	1.06	1.500			
0.3910	25023.93	3.8750	3.8749	1.0527	27.01	1.05	1.500			
0.3941	25223.33	3.8720	3.8720	1.0557	27.00	1.04	1.500			
0.3973	25428.70	3.8690	3.8691	1.0695	27.00	1.04	1.500			
0.4005	25635.16	3.8660	3.8660	1.0812	26.99	1.03	1.500			
0.4038	25844.63	3.8630	3.8629	1.0947	26.98	1.02	1.500			
0.4071	26054.31	3.8600	3.8601	1.1098	26.97	1.01	1.500			
0.4104	26267.15	3.8570	3.8570	1.1262	26.97	1.01	1.500			
0.4138	26486.30	3.8540	3.8540	1.1471	26.96	1.00	1.500			
0.4173	26709.73	3.8510	3.8510	1.1627	26.95	0.99	1.500			
0.4209	26934.48	3.8480	3.8480	1.1830	26.95	0.99	1.500			
0.4244	27163.23	3.8450	3.8450	1.1980	26.94	0.98	1.500			
0.4280	27394.88	3.8420	3.8420	1.2151	26.93	0.97	1.500			
0.4317	27629.02	3.8390	3.8391	1.2304	26.92	0.96	1.500			
0.4354	27865.21	3.8360	3.8360	1.2555	26.91	0.95	1.500			
0.4392	28108.97	3.8330	3.8330	1.2776	26.90	0.94	1.500			
0.4431	28357.41	3.8300	3.8299	1.2961	26.89	0.93	1.500			
0.4470	28609.28	3.8270	3.8270	1.3179	26.88	0.92	1.500			
0.4510	28862.13	3.8240	3.8241	1.3444	26.87	0.91	1.500			
0.4550	29122.02	3.8210	3.8210	1.3668	26.86	0.90	1.500			
0.4591	29385.40	3.8180	3.8179	1.4008	26.85	0.89	1.500			
0.4634	29656.34	3.8150	3.8150	1.4166	26.84	0.88	1.500			
0.4677	29933.27	3.8120	3.8120	1.4498	26.83	0.87	1.500			
0.4721	30216.06	3.8090	3.8090	1.4874	26.82	0.86	1.500			
0.4766	30504.36	3.8060	3.8060	1.5106	26.81	0.85	1.500			
0.4812	30794.15	3.8030	3.8029	1.5393	26.79	0.83	1.500			
0.4858	31093.22	3.8000	3.8001	1.5734	26.78	0.82	1.500			
0.4906	31400.41	3.7970	3.7969	1.6005	26.76	0.80	1.500			
0.4955	31711.83	3.7940	3.7940	1.6280	26.75	0.79	1.500			
0.5003	32022.26	3.7910	3.7911	1.6453	26.73	0.77	1.500			
0.5054	32343.08	3.7880	3.7879	1.6723	26.72	0.76	1.500			
0.5103	32662.32	3.7850	3.7851	1.6909	26.70	0.74	1.500			
0.5155	32990.03	3.7820	3.7820	1.7224	26.69	0.73	1.500			
0.5207	33325.58	3.7790	3.7789	1.7513	26.67	0.71	1.500	0.351	0.475	
0.5260	33662.68	3.7760	3.7762	1.7738	26.66	0.70	1.500			
0.5314	34007.29	3.7730	3.7730	1.7853	26.64	0.68	1.500			
0.5368	34357.84	3.7700	3.7699	1.7889	26.63	0.67	1.500			
0.5421	34691.56	3.7670	3.7671	1.7591	26.61	0.65	1.500			
0.5473	35029.72	3.7640	3.7640	1.7617	26.60	0.64	1.500			
0.5526	35365.74	3.7610	3.7609	1.7666	26.58	0.62	1.500			
0.5579	35705.88	3.7580	3.7581	1.7646	26.57	0.61	1.500			
0.5632	36045.51	3.7550	3.7550	1.7671	26.56	0.60	1.500			
0.5685	36384.72	3.7520	3.7520	1.7851	26.54	0.58	1.500			
0.5738	36724.50	3.7490	3.7490	1.7948	26.53	0.57	1.500			
0.5791	37063.09	3.7460	3.7459	1.8070	26.51	0.55	1.500			
0.5846	37413.27	3.7430	3.7430	1.8397	26.50	0.54	1.500			
0.5902	37769.79	3.7400	3.7401	1.8850	26.48	0.52	1.500			
0.5958	38128.68	3.7370	3.7370	1.9083	26.46	0.50	1.500			
0.6016	38500.17	3.7340	3.7339	1.9561	26.45	0.49	1.500			
0.6075	38881.45	3.7310	3.7311	2.0094	26.43	0.47	1.500			
0.6137	39274.73	3.7280	3.7280	2.0462	26.42	0.46	1.500			
0.6199	39672.04	3.7250	3.7250	2.1262	26.40	0.44	1.500			
0.6262	40077.84	3.7220	3.7220	2.1768	26.39	0.43	1.500			
0.6329	40503.45	3.7190	3.7191	2.2475	26.37	0.41	1.500			
0.6398	40945.43	3.7160	3.7160	2.3114	26.35	0.39	1.500			
0.6468	41394.75	3.7130	3.7130	2.3620	26.34	0.38	1.500			
0.6539	41849.77	3.7100	3.7099	2.4004	26.32	0.36	1.500			
0.6612	42318.54	3.7070	3.7070	2.4362	26.31	0.35	1.500			
0.6687	42795.22	3.7040	3.7040	2.3908	26.29	0.33	1.500			
0.6758	43249.02	3.7010	3.7010	2.3015	26.28	0.32	1.500			
0.6825	43682.36	3.6980	3.6980	2.1722	26.26	0.30	1.500			
0.6888	44086.16	3.6950	3.6950	2.0138	26.25	0.29	1.500			
0.6946	44455.75	3.6920	3.6920	1.8655	26.24	0.28	1.500			
0.6999	44792.65	3.6890	3.6890	1.7212	26.23	0.27	1.500			
0.7049	45111.76	3.6860	3.6859	1.6208	26.22	0.26	1.500			
0.7095	45408.75	3.6830	3.6830	1.5307	26.21	0.25	1.500			
0.7139	45689.91	3.6800	3.6800	1.4558	26.19	0.23	1.500			
0.7182	45964.21	3.6770	3.6770	1.3980	26.18	0.22	1.500			
0.7222	46220.48	3.6740	3.6740	1.3419	26.17	0.21	1.500			
0.7261	46473.16	3.6710	3.6711	1.3093	26.16	0.20	1.500			
0.7300	46717.55	3.6680	3.6680	1.2800	26.15	0.19	1.500			
0.7337	46959.63	3.6650	3.6650	1.2675	26.14	0.18	1.500			
0.7375	47197.47	3.6620	3.6620	1.2650	26.13	0.17	1.500			
0.7412	47439.97	3.6590	3.6589	1.2692	26.12	0.16	1.500			
0.7451	47684.89	3.6560	3.6560	1.2748	26.11	0.15	1.500			
0.7489	47931.28	3.6530	3.6531	1.2753	26.10	0.14	1.500			
0.7528	48177.44	3.6500	3.6500	1.2790	26.09	0.13	1.500			
0.7566	48424.21	3.6470	3.6470	1.2794	26.08	0.12	1.500			
0.7604	48668.38	3.6440	3.6440	1.2713	26.07	0.11	1.500			
0.7643	48912.02	3.6410	3.6410	1.2647	26.06	0.10	1.500			
0.7681	49155.52	3.6380	3.6381	1.2586	26.05	0.09	1.500			
0.7718	49396.33	3.6350	3.6350	1.2508	26.04	0.08	1.500			
0.7756	49635.80	3.6320	3.6320	1.2446	26.03	0.07	1.500			
0.7793	49872.59	3.6290	3.6289	1.2355	26.02	0.06	1.500			
0.7830	50109.20	3.6260	3.6260	1.2277	26.01	0.05	1.500			
0.7866	50345.36	3.6230	3.6230	1.2204	26.01	0.05	1.500			
0.7903	50580.87	3.6200	3.6200	1.2092	26.00	0.04	1.500			
0.7939	50811.12	3.6170	3.6170	1.1945	26.00	0.04	1.500			
0.7975	51040.39	3.6140	3.6140	1.1814	25.99	0.03	1.500			
0.8010	51265.71	3.6110	3.6110	1.1651	25.99	0.03	1.500			
0.8045	51487.45	3.6080	3.6079	1.1461	25.98	0.02	1.500			
0.8079	51706.56	3.6050	3.6050	1.1264	25.98	0.02	1.500			
0.8113	51920.51	3.6020	3.6020	1.1093	25.97	0.01	1.500			
0.8146	52131.94	3.5990	3.5990	1.0889	25.97	0.01	1.500			
0.8178	52339.70	3.5960	3.5960	1.0634	25.97	0.01	1.500			
0.8210	52543.20	3.5930	3.5929	1.0360	25.97	0.01	1.500			
0.8241	52741.97	3.5900	3.5901	1.0043	25.96	0.00	1.500			
0.8271	52935.80	3.5870	3.5870	0.9527	25.96	0.00	1.500			
0.8300	53119.46	3.5840	3.5839	0.8939	25.96	-0.00	1.500			
0.8326	53287.43	3.5810	3.5811	0.8089	25.96	-0.00	1.500			
0.8350	53439.10	3.5780	3.5780	0.7223	25.96	-0.00	1.500			
0.8370	53568.17	3.5750	3.5751	0.6244	25.95	-0.01	1.500			
0.8387	53676.97	3.5720	3.5720	0.5276	25.95	-0.01	1.500			
0.8401	53763.56	3.5690	3.5691	0.4380	25.95	-0.01	1.500			
0.8412	53836.39	3.5660	3.5659	0.3719	25.95	-0.01	1.500			
0.8421	53896.56	3.5630	3.5630	0.3146	25.95	-0.01	1.500			
0.8430	53949.36	3.5600	3.5600	0.2731	25.95	-0.01	1.500			
0.8437	53995.71	3.5570	3.5569	0.2368	25.95	-0.01	1.500			
0.8443	54037.09	3.5540	3.5539	0.2122	25.95	-0.01	1.500			
0.8449	54074.13	3.5510	3.5511	0.1900	25.95	-0.01	1.500			
0.8454	54108.65	3.5480	3.5480	0.1713	25.95	-0.01	1.500			
0.8459	54139.41	3.5450	3.5451	0.1558	25.95	-0.01	1.500			
0.8464	54167.25	3.5420	3.5420	0.1392	25.95	-0.01	1.500			
0.8468	54192.17	3.5390	3.5390	0.1235	25.95	-0.01	1.500			
0.8471	54214.53	3.5360	3.5359	0.1092	25.95	-0.01	1.500			
0.8474	54234.10	3.5330	3.5331	0.0946	25.95	-0.01	1.500			
0.8477	54250.95	3.5300	3.5302	0.0802	25.95	-0.01	1.500			
0.8479	54265.53	3.5270	3.5271	0.0653	25.95	-0.01	1.500			
0.8481	54276.55	3.5240	3.5245	0.0494	25.94	-0.02	1.500			
0.8482	54284.51	3.5210	3.5219	0.0336	25.94	-0.02	1.500			
