Ah_balance (normalized)	Ah_balance (mAh)	Voltage - fit (V)	Voltage -  interpolate (V)	dQ/dV (1/V)	Temperature (°C)	Temperature - diff (°C)	Current (C)	R_DC 0ms (mOhm)	R_DC 50ms (mOhm)	R_DC 50 ms PEC (mOhm)
0.2020	12929.94	3.9140	3.9139	-0.0909	25.97	-0.01	-1.500			
0.2024	12950.59	3.9110	3.9107	-0.1242	25.97	-0.01	-1.500			
0.2028	12978.43	3.9080	3.9078	-0.1569	25.97	-0.01	-1.500			
0.2033	13011.86	3.9050	3.9049	-0.1856	25.97	-0.01	-1.500			
0.2039	13050.38	3.9020	3.9021	-0.2135	25.97	-0.01	-1.500			
0.2046	13094.05	3.8990	3.8991	-0.2425	25.97	-0.01	-1.500			
0.2054	13143.66	3.8960	3.8960	-0.2715	25.97	-0.01	-1.500			
0.2062	13198.23	3.8930	3.8930	-0.2983	25.97	-0.01	-1.500			
0.2072	13258.72	3.8900	3.8900	-0.3250	25.97	-0.01	-1.500			
0.2082	13324.03	3.8870	3.8869	-0.3524	25.97	-0.01	-1.500			
0.2093	13394.47	3.8840	3.8840	-0.3777	25.97	-0.01	-1.500			
0.2105	13469.37	3.8810	3.8810	-0.4029	25.97	-0.01	-1.500			
0.2117	13548.59	3.8780	3.8780	-0.4277	25.97	-0.01	-1.500			
0.2130	13632.60	3.8750	3.8750	-0.4560	25.98	-0.00	-1.500			
0.2144	13723.56	3.8720	3.8720	-0.4805	25.98	-0.00	-1.500			
0.2159	13819.25	3.8690	3.8689	-0.5053	25.98	-0.00	-1.500			
0.2175	13918.51	3.8660	3.8661	-0.5263	25.98	-0.00	-1.500			
0.2191	14022.82	3.8630	3.8630	-0.5471	25.98	-0.00	-1.500			
0.2208	14129.28	3.8600	3.8600	-0.5659	25.98	-0.00	-1.500			
0.2225	14240.25	3.8570	3.8570	-0.5826	25.98	-0.00	-1.500			
0.2243	14353.07	3.8540	3.8540	-0.5969	25.98	-0.00	-1.500			
0.2261	14470.28	3.8510	3.8510	-0.6116	25.98	0.00	-1.500			
0.2280	14589.28	3.8480	3.8480	-0.6248	25.98	0.00	-1.500			
0.2298	14710.36	3.8450	3.8450	-0.6360	25.98	0.00	-1.500			
0.2318	14833.97	3.8420	3.8419	-0.6467	25.98	0.00	-1.500			
0.2337	14958.69	3.8390	3.8390	-0.6558	25.98	0.00	-1.500			
0.2357	15086.34	3.8360	3.8360	-0.6647	25.98	0.00	-1.500			
0.2377	15215.30	3.8330	3.8330	-0.6708	25.99	0.01	-1.500			
0.2398	15345.09	3.8300	3.8299	-0.6751	25.99	0.01	-1.500			
0.2418	15474.74	3.8270	3.8271	-0.6821	25.99	0.01	-1.500			
0.2439	15606.61	3.8240	3.8239	-0.6866	25.99	0.01	-1.500			
0.2459	15739.18	3.8210	3.8210	-0.6904	25.99	0.01	-1.500			
0.2480	15872.51	3.8180	3.8181	-0.6925	25.99	0.01	-1.500			
0.2501	16006.52	3.8150	3.8150	-0.6948	25.99	0.01	-1.500			
0.2522	16139.77	3.8120	3.8120	-0.6971	25.99	0.01	-1.500			
0.2543	16273.75	3.8090	3.8090	-0.6957	26.00	0.02	-1.500			
0.2563	16406.33	3.8060	3.8060	-0.6973	26.00	0.02	-1.500			
0.2584	16540.22	3.8030	3.8030	-0.7001	26.00	0.02	-1.500			
0.2606	16675.70	3.8000	3.8000	-0.7008	26.00	0.02	-1.500			
0.2627	16810.25	3.7970	3.7970	-0.7020	26.01	0.03	-1.500			
0.2648	16945.53	3.7940	3.7940	-0.7027	26.01	0.03	-1.500			
0.2669	17080.22	3.7910	3.7911	-0.7014	26.01	0.03	-1.500			
0.2690	17215.45	3.7880	3.7879	-0.7040	26.01	0.03	-1.500			
0.2711	17349.28	3.7850	3.7850	-0.7041	26.02	0.04	-1.500			
0.2732	17484.33	3.7820	3.7820	-0.7047	26.02	0.04	-1.500			
0.2753	17620.85	3.7790	3.7790	-0.7048	26.02	0.04	-1.500			
0.2775	17756.84	3.7760	3.7760	-0.7036	26.03	0.05	-1.500			
0.2796	17891.93	3.7730	3.7730	-0.7033	26.03	0.05	-1.500			
0.2817	18025.72	3.7700	3.7701	-0.7055	26.03	0.05	-1.500			
0.2838	18160.94	3.7670	3.7670	-0.7055	26.04	0.06	-1.500			
0.2859	18296.13	3.7640	3.7640	-0.7064	26.04	0.06	-1.500			
0.2880	18432.55	3.7610	3.7611	-0.7115	26.04	0.06	-1.500			
0.2902	18571.18	3.7580	3.7580	-0.7128	26.05	0.07	-1.500			
0.2923	18707.39	3.7550	3.7550	-0.7128	26.05	0.07	-1.500			
0.2944	18843.88	3.7520	3.7520	-0.7115	26.05	0.07	-1.500			
0.2966	18979.27	3.7490	3.7490	-0.7160	26.06	0.08	-1.500			
0.2987	19117.96	3.7460	3.7459	-0.7188	26.06	0.08	-1.500			
0.3009	19256.21	3.7430	3.7430	-0.7199	26.06	0.08	-1.500			
0.3030	19394.57	3.7400	3.7401	-0.7230	26.07	0.09	-1.500			
0.3052	19534.41	3.7370	3.7371	-0.7255	26.07	0.09	-1.500			
0.3074	19672.96	3.7340	3.7340	-0.7266	26.08	0.10	-1.500			
0.3096	19812.23	3.7310	3.7310	-0.7309	26.08	0.10	-1.500			
0.3117	19951.96	3.7280	3.7280	-0.7351	26.09	0.11	-1.500			
0.3140	20095.09	3.7250	3.7250	-0.7422	26.10	0.12	-1.500			
0.3162	20237.03	3.7220	3.7221	-0.7491	26.10	0.12	-1.500			
0.3185	20382.32	3.7190	3.7190	-0.7534	26.11	0.13	-1.500			
0.3208	20528.31	3.7160	3.7159	-0.7576	26.11	0.13	-1.500			
0.3230	20672.78	3.7130	3.7130	-0.7640	26.12	0.14	-1.500			
0.3253	20819.60	3.7100	3.7101	-0.7729	26.12	0.14	-1.500			
0.3276	20968.89	3.7070	3.7069	-0.7788	26.13	0.15	-1.500			
0.3300	21119.00	3.7040	3.7040	-0.7886	26.13	0.15	-1.500			
0.3323	21270.21	3.7010	3.7011	-0.7946	26.13	0.15	-1.500			
0.3348	21425.19	3.6980	3.6979	-0.8052	26.14	0.16	-1.500			
0.3372	21580.01	3.6950	3.6951	-0.8154	26.14	0.16	-1.500			
0.3396	21736.35	3.6920	3.6920	-0.8242	26.14	0.16	-1.500			
0.3421	21896.18	3.6890	3.6890	-0.8353	26.15	0.17	-1.500			
0.3447	22058.69	3.6860	3.6859	-0.8463	26.15	0.17	-1.500			
0.3472	22220.33	3.6830	3.6831	-0.8574	26.16	0.18	-1.500			
0.3498	22385.98	3.6800	3.6800	-0.8731	26.16	0.18	-1.500			
0.3524	22555.15	3.6770	3.6770	-0.8860	26.17	0.19	-1.500			
0.3551	22726.43	3.6740	3.6740	-0.8987	26.17	0.19	-1.500			
0.3578	22899.80	3.6710	3.6710	-0.9136	26.17	0.19	-1.500			
0.3606	23078.41	3.6680	3.6681	-0.9274	26.18	0.20	-1.500			
0.3634	23256.60	3.6650	3.6650	-0.9418	26.18	0.20	-1.500			
0.3662	23437.77	3.6620	3.6620	-0.9528	26.19	0.21	-1.500			
0.3691	23621.76	3.6590	3.6590	-0.9711	26.19	0.21	-1.500			
0.3720	23809.49	3.6560	3.6560	-0.9875	26.20	0.22	-1.500			
0.3750	24000.04	3.6530	3.6530	-1.0020	26.20	0.22	-1.500			
0.3780	24193.69	3.6500	3.6500	-1.0225	26.20	0.22	-1.500			
0.3811	24392.23	3.6470	3.6470	-1.0425	26.21	0.23	-1.500			
0.3843	24592.61	3.6440	3.6439	-1.0619	26.21	0.23	-1.500			
0.3875	24798.95	3.6410	3.6411	-1.0844	26.21	0.23	-1.500			
0.3908	25009.16	3.6380	3.6380	-1.1036	26.21	0.23	-1.500			
0.3941	25224.36	3.6350	3.6350	-1.1271	26.22	0.24	-1.500			
0.3975	25443.01	3.6320	3.6319	-1.1457	26.22	0.24	-1.500			
0.4010	25662.70	3.6290	3.6289	-1.1645	26.22	0.24	-1.500			
0.4045	25888.86	3.6260	3.6260	-1.1898	26.22	0.24	-1.500			
0.4081	26119.34	3.6230	3.6229	-1.2083	26.22	0.24	-1.500			
0.4118	26353.95	3.6200	3.6200	-1.2272	26.22	0.24	-1.500			
0.4155	26593.13	3.6170	3.6171	-1.2472	26.22	0.24	-1.500			
0.4193	26833.64	3.6140	3.6140	-1.2644	26.22	0.24	-1.500			
0.4231	27078.10	3.6110	3.6109	-1.2814	26.22	0.24	-1.500			
0.4269	27323.36	3.6080	3.6080	-1.2976	26.22	0.24	-1.500			
0.4308	27574.07	3.6050	3.6050	-1.3187	26.23	0.25	-1.500			
0.4348	27828.48	3.6020	3.6020	-1.3510	26.23	0.25	-1.500			
0.4389	28089.17	3.5990	3.5990	-1.3761	26.23	0.25	-1.500			
0.4431	28358.87	3.5960	3.5960	-1.4054	26.24	0.26	-1.500			
0.4474	28632.85	3.5930	3.5930	-1.4258	26.24	0.26	-1.500			
0.4517	28911.58	3.5900	3.5900	-1.4436	26.24	0.26	-1.500			
0.4561	29188.65	3.5870	3.5870	-1.4645	26.25	0.27	-1.500			
0.4605	29470.40	3.5840	3.5840	-1.4816	26.25	0.27	-1.500			
0.4649	29756.25	3.5810	3.5809	-1.4894	26.25	0.27	-1.500			
0.4695	30044.87	3.5780	3.5780	-1.5070	26.26	0.28	-1.500			
0.4740	30336.58	3.5750	3.5751	-1.5259	26.26	0.28	-1.500			
0.4786	30629.67	3.5720	3.5720	-1.5503	26.26	0.28	-1.500			
0.4833	30929.00	3.5690	3.5690	-1.5713	26.26	0.28	-1.500			
0.4880	31231.43	3.5660	3.5660	-1.5881	26.26	0.28	-1.500			
0.4928	31539.44	3.5630	3.5630	-1.6092	26.26	0.28	-1.500			
0.4977	31855.11	3.5600	3.5601	-1.6336	26.26	0.28	-1.500			
0.5026	32168.80	3.5570	3.5570	-1.6479	26.26	0.28	-1.500			
0.5076	32485.82	3.5540	3.5540	-1.6667	26.27	0.29	-1.500			
0.5126	32806.56	3.5510	3.5510	-1.6843	26.27	0.29	-1.500			
0.5177	33132.26	3.5480	3.5480	-1.7000	26.27	0.29	-1.500			
0.5228	33462.28	3.5450	3.5450	-1.7209	26.28	0.30	-1.500			
0.5280	33794.22	3.5420	3.5420	-1.7416	26.28	0.30	-1.500			
0.5333	34133.21	3.5390	3.5389	-1.7512	26.29	0.31	-1.500			
0.5386	34470.99	3.5360	3.5360	-1.7518	26.29	0.31	-1.500			
0.5439	34809.59	3.5330	3.5334	-1.7668	26.30	0.32	-1.500	0.386	0.520	
0.5492	35148.05	3.5300	3.5301	-1.7663	26.30	0.32	-1.500			
0.5545	35485.87	3.5270	3.5269	-1.7592	26.31	0.33	-1.500			
0.5597	35821.51	3.5240	3.5241	-1.7647	26.32	0.34	-1.500			
0.5650	36162.09	3.5210	3.5210	-1.7675	26.33	0.35	-1.500			
0.5704	36505.14	3.5180	3.5180	-1.7797	26.33	0.35	-1.500			
0.5757	36845.99	3.5150	3.5150	-1.7799	26.34	0.36	-1.500			
0.5810	37185.84	3.5120	3.5120	-1.7877	26.35	0.37	-1.500			
0.5864	37530.60	3.5090	3.5090	-1.7890	26.36	0.38	-1.500			
0.5918	37876.01	3.5060	3.5060	-1.7849	26.38	0.40	-1.500			
0.5972	38218.52	3.5030	3.5031	-1.7815	26.39	0.41	-1.500			
0.6025	38561.50	3.5000	3.5000	-1.7761	26.40	0.42	-1.500			
0.6078	38901.29	3.4970	3.4970	-1.7800	26.41	0.43	-1.500			
0.6132	39241.99	3.4940	3.4940	-1.7720	26.42	0.44	-1.500			
0.6185	39582.03	3.4910	3.4910	-1.7701	26.43	0.45	-1.500			
0.6238	39923.87	3.4880	3.4880	-1.7737	26.44	0.46	-1.500			
0.6291	40264.78	3.4850	3.4850	-1.7583	26.45	0.47	-1.500			
0.6344	40602.69	3.4820	3.4820	-1.7486	26.47	0.49	-1.500			
0.6396	40937.08	3.4790	3.4791	-1.7362	26.48	0.50	-1.500			
0.6448	41270.39	3.4760	3.4759	-1.7158	26.50	0.52	-1.500			
0.6500	41598.41	3.4730	3.4730	-1.6942	26.51	0.53	-1.500			
0.6550	41920.36	3.4700	3.4701	-1.6699	26.53	0.55	-1.500			
0.6600	42238.13	3.4670	3.4670	-1.6584	26.54	0.56	-1.500			
0.6649	42556.30	3.4640	3.4639	-1.6361	26.55	0.57	-1.500			
0.6698	42869.92	3.4610	3.4609	-1.6106	26.57	0.59	-1.500			
0.6746	43176.67	3.4580	3.4582	-1.5870	26.58	0.60	-1.500			
0.6794	43481.49	3.4550	3.4550	-1.5696	26.60	0.62	-1.500			
0.6840	43778.82	3.4520	3.4520	-1.5426	26.61	0.63	-1.500			
0.6886	44069.15	3.4490	3.4490	-1.5167	26.63	0.65	-1.500			
0.6931	44359.31	3.4460	3.4460	-1.4977	26.64	0.66	-1.500			
0.6976	44644.62	3.4430	3.4430	-1.4832	26.65	0.67	-1.500			
0.7020	44929.05	3.4400	3.4400	-1.4693	26.67	0.69	-1.500			
0.7064	45208.80	3.4370	3.4370	-1.4434	26.69	0.71	-1.500			
0.7107	45483.92	3.4340	3.4340	-1.4218	26.71	0.73	-1.500			
0.7149	45754.84	3.4310	3.4311	-1.4022	26.73	0.75	-1.500			
0.7191	46021.56	3.4280	3.4280	-1.3889	26.75	0.77	-1.500			
0.7232	46285.67	3.4250	3.4250	-1.3751	26.76	0.78	-1.500			
0.7273	46546.83	3.4220	3.4220	-1.3647	26.77	0.79	-1.500			
0.7314	46807.56	3.4190	3.4190	-1.3584	26.79	0.81	-1.500			
0.7355	47070.24	3.4160	3.4159	-1.3451	26.81	0.83	-1.500			
0.7395	47328.96	3.4130	3.4131	-1.3261	26.83	0.85	-1.500			
0.7435	47584.94	3.4100	3.4100	-1.3022	26.85	0.87	-1.500			
0.7474	47832.63	3.4070	3.4069	-1.2667	26.86	0.88	-1.500			
0.7511	48072.48	3.4040	3.4040	-1.2336	26.88	0.90	-1.500			
0.7548	48305.27	3.4010	3.4010	-1.1966	26.90	0.92	-1.500			
0.7583	48531.95	3.3980	3.3979	-1.1617	26.91	0.93	-1.500			
0.7618	48752.19	3.3950	3.3950	-1.1227	26.93	0.95	-1.500			
0.7651	48965.91	3.3920	3.3920	-1.0850	26.94	0.96	-1.500			
0.7683	49171.90	3.3890	3.3890	-1.0473	26.96	0.98	-1.500			
0.7714	49369.49	3.3860	3.3860	-1.0012	26.97	0.99	-1.500			
0.7743	49554.41	3.3830	3.3830	-0.9606	26.99	1.01	-1.500			
0.7771	49734.95	3.3800	3.3800	-0.9250	27.01	1.03	-1.500			
0.7798	49907.32	3.3770	3.3771	-0.8891	27.02	1.04	-1.500			
0.7824	50075.31	3.3740	3.3740	-0.8591	27.03	1.05	-1.500			
0.7849	50236.74	3.3710	3.3711	-0.8295	27.05	1.07	-1.500			
0.7874	50393.47	3.3680	3.3680	-0.7995	27.06	1.08	-1.500			
0.7898	50544.75	3.3650	3.3650	-0.7706	27.07	1.09	-1.500			
0.7920	50687.83	3.3620	3.3620	-0.7387	27.08	1.10	-1.500			
0.7942	50827.09	3.3590	3.3590	-0.7129	27.09	1.11	-1.500			
0.7963	50960.65	3.3560	3.3560	-0.6895	27.10	1.12	-1.500			
0.7983	51089.75	3.3530	3.3530	-0.6657	27.11	1.13	-1.500			
0.8002	51215.14	3.3500	3.3500	-0.6448	27.12	1.14	-1.500			
0.8021	51337.15	3.3470	3.3470	-0.6282	27.12	1.14	-1.500			
0.8040	51455.78	3.3440	3.3440	-0.6103	27.13	1.15	-1.500			
0.8058	51571.51	3.3410	3.3410	-0.5926	27.14	1.16	-1.500			
0.8076	51683.73	3.3380	3.3380	-0.5754	27.15	1.17	-1.500			
0.8093	51792.02	3.3350	3.3350	-0.5572	27.16	1.18	-1.500			
0.8109	51897.87	3.3320	3.3320	-0.5416	27.17	1.19	-1.500			
0.8125	51999.85	3.3290	3.3289	-0.5237	27.18	1.20	-1.500			
0.8140	52098.37	3.3260	3.3260	-0.5066	27.19	1.21	-1.500			
0.8155	52193.55	3.3230	3.3230	-0.4925	27.19	1.21	-1.500			
0.8170	52286.74	3.3200	3.3199	-0.4781	27.20	1.22	-1.500			
0.8184	52377.14	3.3170	3.3170	-0.4641	27.21	1.23	-1.500			
0.8198	52464.92	3.3140	3.3139	-0.4517	27.21	1.23	-1.500			
0.8211	52550.51	3.3110	3.3111	-0.4402	27.22	1.24	-1.500			
0.8224	52634.20	3.3080	3.3079	-0.4283	27.22	1.24	-1.500			
0.8237	52714.63	3.3050	3.3049	-0.4162	27.23	1.25	-1.500			
0.8249	52793.08	3.3020	3.3021	-0.4033	27.23	1.25	-1.500			
0.8261	52869.58	3.2990	3.2990	-0.3950	27.24	1.26	-1.500			
0.8273	52944.25	3.2960	3.2959	-0.3850	27.25	1.27	-1.500			
0.8284	53017.28	3.2930	3.2930	-0.3738	27.26	1.28	-1.500			
0.8295	53088.01	3.2900	3.2901	-0.3642	27.26	1.28	-1.500			
0.8306	53157.52	3.2870	3.2870	-0.3545	27.27	1.29	-1.500			
0.8316	53224.58	3.2840	3.2839	-0.3441	27.27	1.29	-1.500			
0.8326	53288.80	3.2810	3.2810	-0.3358	27.28	1.30	-1.500			
0.8336	53351.78	3.2780	3.2779	-0.3277	27.29	1.31	-1.500			
0.8346	53414.22	3.2750	3.2750	-0.3194	27.29	1.31	-1.500			
0.8355	53474.95	3.2720	3.2719	-0.3137	27.30	1.32	-1.500			
0.8365	53534.61	3.2690	3.2691	-0.3057	27.30	1.32	-1.500			
0.8374	53592.48	3.2660	3.2659	-0.3006	27.31	1.33	-1.500			
0.8383	53649.35	3.2630	3.2630	-0.2935	27.31	1.33	-1.500			
0.8391	53704.93	3.2600	3.2600	-0.2873	27.32	1.34	-1.500			
0.8400	53759.62	3.2570	3.2569	-0.2814	27.32	1.34	-1.500			
0.8408	53813.25	3.2540	3.2543	-0.2761	27.33	1.35	-1.500			
0.8416	53864.97	3.2510	3.2510	-0.2697	27.33	1.35	-1.500			
0.8424	53916.47	3.2480	3.2480	-0.2655	27.34	1.36	-1.500			
0.8432	53966.84	3.2450	3.2449	-0.2599	27.34	1.36	-1.500			
0.8440	54015.98	3.2420	3.2420	-0.2549	27.35	1.37	-1.500			
0.8448	54064.31	3.2390	3.2391	-0.2498	27.35	1.37	-1.500			
0.8455	54112.01	3.2360	3.2360	-0.2467	27.36	1.38	-1.500			
0.8462	54158.79	3.2330	3.2330	-0.2420	27.36	1.38	-1.500			
0.8469	54204.50	3.2300	3.2299	-0.2374	27.37	1.39	-1.500			
0.8477	54249.79	3.2270	3.2269	-0.2331	27.37	1.39	-1.500			
0.8483	54294.33	3.2240	3.2240	-0.2293	27.37	1.39	-1.500			
0.8490	54337.79	3.2210	3.2211	-0.2264	27.38	1.40	-1.500			
0.8497	54380.92	3.2180	3.2180	-0.2228	27.38	1.40	-1.500			
0.8504	54423.27	3.2150	3.2149	-0.2189	27.39	1.41	-1.500			
0.8510	54464.55	3.2120	3.2120	-0.2150	27.40	1.42	-1.500			
0.8516	54505.54	3.2090	3.2090	-0.2128	27.40	1.42	-1.500			
0.8523	54546.16	3.2060	3.2061	-0.2103	27.41	1.43	-1.500			
0.8529	54586.43	3.2030	3.2029	-0.2075	27.41	1.43	-1.500			
0.8535	54626.01	3.2000	3.2000	-0.2046	27.42	1.44	-1.500			
0.8541	54664.85	3.1970	3.1969	-0.2011	27.42	1.44	-1.500			
0.8547	54703.22	3.1940	3.1942	-0.1985	27.43	1.45	-1.500			
0.8553	54741.32	3.1910	3.1910	-0.1965	27.43	1.45	-1.500			
0.8559	54778.51	3.1880	3.1880	-0.1939	27.44	1.46	-1.500			
0.8565	54815.04	3.1850	3.1851	-0.1915	27.44	1.46	-1.500			
0.8571	54851.72	3.1820	3.1819	-0.1905	27.45	1.47	-1.500			
0.8576	54888.33	3.1790	3.1790	-0.1884	27.45	1.47	-1.500			
0.8582	54924.66	3.1760	3.1759	-0.1863	27.46	1.48	-1.500			
0.8588	54960.46	3.1730	3.1730	-0.1843	27.46	1.48	-1.500			
0.8593	54995.45	3.1700	3.1701	-0.1816	27.47	1.49	-1.500			
0.8598	55029.85	3.1670	3.1670	-0.1799	27.47	1.49	-1.500			
0.8604	55063.80	3.1640	3.1641	-0.1779	27.48	1.50	-1.500			
0.8609	55097.36	3.1610	3.1610	-0.1759	27.48	1.50	-1.500			
0.8614	55131.40	3.1580	3.1580	-0.1747	27.49	1.51	-1.500			
0.8620	55165.16	3.1550	3.1551	-0.1736	27.49	1.51	-1.500			
0.8625	55198.64	3.1520	3.1520	-0.1724	27.50	1.52	-1.500			
0.8630	55231.52	3.1490	3.1490	-0.1701	27.50	1.52	-1.500			
0.8635	55263.94	3.1460	3.1460	-0.1685	27.51	1.53	-1.500			
0.8640	55295.80	3.1430	3.1430	-0.1665	27.51	1.53	-1.500			
0.8645	55327.45	3.1400	3.1401	-0.1650	27.52	1.54	-1.500			
0.8650	55359.07	3.1370	3.1369	-0.1642	27.52	1.54	-1.500			
0.8655	55390.57	3.1340	3.1340	-0.1634	27.53	1.55	-1.500			
0.8660	55422.02	3.1310	3.1309	-0.1618	27.53	1.55	-1.500			
0.8665	55452.95	3.1280	3.1280	-0.1604	27.54	1.56	-1.500			
0.8669	55483.79	3.1250	3.1250	-0.1590	27.54	1.56	-1.500			
0.8674	55513.92	3.1220	3.1221	-0.1581	27.55	1.57	-1.500			
0.8679	55544.11	3.1190	3.1190	-0.1569	27.55	1.57	-1.500			
0.8683	55574.16	3.1160	3.1159	-0.1560	27.55	1.57	-1.500			
0.8688	55603.96	3.1130	3.1129	-0.1546	27.56	1.58	-1.500			
0.8693	55633.66	3.1100	3.1101	-0.1531	27.56	1.58	-1.500			
0.8697	55663.06	3.1070	3.1070	-0.1525	27.57	1.59	-1.500			
0.8702	55692.15	3.1040	3.1040	-0.1509	27.57	1.59	-1.500			
0.8706	55720.96	3.1010	3.1010	-0.1494	27.58	1.60	-1.500			
0.8711	55749.22	3.0980	3.0979	-0.1480	27.58	1.60	-1.500			
0.8715	55777.51	3.0950	3.0951	-0.1472	27.59	1.61	-1.500			
0.8720	55805.64	3.0920	3.0921	-0.1468	27.59	1.61	-1.500			
0.8724	55833.75	3.0890	3.0889	-0.1463	27.60	1.62	-1.500			
0.8728	55861.87	3.0860	3.0859	-0.1455	27.60	1.62	-1.500			
0.8733	55889.80	3.0830	3.0830	-0.1442	27.61	1.63	-1.500			
0.8737	55917.65	3.0800	3.0800	-0.1436	27.61	1.63	-1.500			
0.8741	55944.94	3.0770	3.0771	-0.1430	27.62	1.64	-1.500			
0.8746	55972.40	3.0740	3.0740	-0.1418	27.62	1.64	-1.500			
0.8750	55999.61	3.0710	3.0708	-0.1403	27.63	1.65	-1.500			
0.8754	56026.41	3.0680	3.0680	-0.1389	27.64	1.66	-1.500			
0.8758	56052.82	3.0650	3.0651	-0.1378	27.64	1.66	-1.500			
0.8762	56079.12	3.0620	3.0620	-0.1373	27.65	1.67	-1.500			
0.8766	56105.32	3.0590	3.0590	-0.1366	27.65	1.67	-1.500			
0.8771	56131.49	3.0560	3.0560	-0.1360	27.66	1.68	-1.500			
0.8775	56157.25	3.0530	3.0530	-0.1351	27.66	1.68	-1.500			
0.8779	56183.39	3.0500	3.0500	-0.1348	27.67	1.69	-1.500			
0.8783	56209.43	3.0470	3.0470	-0.1344	27.67	1.69	-1.500			
0.8787	56235.13	3.0440	3.0440	-0.1333	27.68	1.70	-1.500			
0.8791	56260.60	3.0410	3.0410	-0.1323	27.68	1.70	-1.500			
0.8795	56285.67	3.0380	3.0380	-0.1317	27.69	1.71	-1.500			
0.8799	56310.82	3.0350	3.0350	-0.1311	27.70	1.72	-1.500			
0.8803	56336.04	3.0320	3.0319	-0.1305	27.70	1.72	-1.500			
0.8806	56361.09	3.0290	3.0290	-0.1299	27.71	1.73	-1.500			
0.8810	56385.99	3.0260	3.0262	-0.1293	27.71	1.73	-1.500			
0.8814	56410.97	3.0230	3.0229	-0.1284	27.72	1.74	-1.500			
0.8818	56435.36	3.0200	3.0200	-0.1278	27.72	1.74	-1.500			
0.8822	56459.83	3.0170	3.0170	-0.1270	27.73	1.75	-1.500			
0.8826	56484.01	3.0140	3.0140	-0.1255	27.73	1.75	-1.500			
0.8829	56508.05	3.0110	3.0109	-0.1249	27.74	1.76	-1.500			
0.8833	56532.05	3.0080	3.0082	-0.1241	27.74	1.76	-1.500			
0.8837	56555.84	3.0050	3.0050	-0.1228	27.75	1.77	-1.501			
0.8841	56579.31	3.0020	3.0020	-0.1216	27.75	1.77	-1.501			
