Ah_balance (normalized)	Ah_balance (mAh)	Voltage - fit (V)	Voltage -  interpolate (V)	dQ/dV (1/V)	Temperature (°C)	Temperature - diff (°C)	Current (C)	R_DC 0ms (mOhm)	R_DC 50ms (mOhm)	R_DC 50 ms PEC (mOhm)
0.2671	17094.71	3.9910	3.9910	0.8375	27.35	1.41	1.500			
0.2697	17257.86	3.9880	3.9879	0.8515	27.35	1.41	1.500			
0.2722	17421.80	3.9850	3.9852	0.8515	27.34	1.40	1.500			
0.2748	17585.09	3.9820	3.9820	0.8500	27.34	1.40	1.500			
0.2773	17747.98	3.9790	3.9790	0.8545	27.33	1.39	1.500			
0.2798	17909.98	3.9760	3.9760	0.8561	27.32	1.38	1.500			
0.2824	18075.32	3.9730	3.9729	0.8612	27.32	1.38	1.500			
0.2850	18241.80	3.9700	3.9699	0.8616	27.31	1.37	1.500			
0.2876	18408.67	3.9670	3.9671	0.8680	27.31	1.37	1.500			
0.2902	18575.10	3.9640	3.9641	0.8701	27.30	1.36	1.500			
0.2929	18742.74	3.9610	3.9610	0.8703	27.29	1.35	1.500			
0.2955	18909.35	3.9580	3.9579	0.8688	27.29	1.35	1.500			
0.2980	19073.65	3.9550	3.9551	0.8734	27.28	1.34	1.500			
0.3007	19242.63	3.9520	3.9520	0.8830	27.27	1.33	1.500			
0.3033	19413.98	3.9490	3.9489	0.8881	27.27	1.33	1.500			
0.3060	19583.66	3.9460	3.9460	0.8918	27.26	1.32	1.500			
0.3087	19756.56	3.9430	3.9431	0.8968	27.26	1.32	1.500			
0.3114	19929.73	3.9400	3.9399	0.9072	27.25	1.31	1.500			
0.3141	20104.77	3.9370	3.9370	0.9113	27.24	1.30	1.500			
0.3169	20279.41	3.9340	3.9340	0.9124	27.24	1.30	1.500			
0.3196	20455.26	3.9310	3.9311	0.9191	27.23	1.29	1.500			
0.3224	20632.90	3.9280	3.9280	0.9238	27.22	1.28	1.500			
0.3251	20809.04	3.9250	3.9249	0.9265	27.21	1.27	1.500			
0.3279	20987.99	3.9220	3.9220	0.9275	27.21	1.27	1.500			
0.3307	21165.03	3.9190	3.9191	0.9325	27.20	1.26	1.500			
0.3335	21346.34	3.9160	3.9160	0.9417	27.19	1.25	1.500			
0.3364	21527.62	3.9130	3.9129	0.9474	27.18	1.24	1.500			
0.3392	21707.74	3.9100	3.9100	0.9579	27.17	1.23	1.500			
0.3421	21893.09	3.9070	3.9071	0.9669	27.17	1.23	1.500			
0.3450	22080.13	3.9040	3.9040	0.9751	27.16	1.22	1.500			
0.3480	22269.69	3.9010	3.9010	0.9823	27.15	1.21	1.500			
0.3509	22458.12	3.8980	3.8979	0.9864	27.14	1.20	1.500			
0.3539	22648.26	3.8950	3.8950	0.9953	27.12	1.18	1.500			
0.3569	22840.02	3.8920	3.8920	1.0037	27.11	1.17	1.500			
0.3599	23031.13	3.8890	3.8890	1.0097	27.10	1.16	1.500			
0.3629	23227.27	3.8860	3.8860	1.0217	27.09	1.15	1.500			
0.3660	23423.59	3.8830	3.8830	1.0346	27.08	1.14	1.500			
0.3691	23623.37	3.8800	3.8799	1.0449	27.07	1.13	1.500			
0.3723	23825.80	3.8770	3.8769	1.0537	27.06	1.12	1.500			
0.3755	24029.14	3.8740	3.8740	1.0626	27.05	1.11	1.500			
0.3787	24234.53	3.8710	3.8710	1.0710	27.04	1.10	1.500			
0.3819	24441.06	3.8680	3.8680	1.0769	27.03	1.09	1.500			
0.3851	24648.28	3.8650	3.8650	1.0934	27.02	1.08	1.500			
0.3884	24856.38	3.8620	3.8620	1.1082	27.01	1.07	1.500			
0.3917	25071.96	3.8590	3.8591	1.1268	27.00	1.06	1.500			
0.3952	25290.35	3.8560	3.8560	1.1432	26.99	1.05	1.500			
0.3986	25510.82	3.8530	3.8531	1.1611	26.97	1.03	1.500			
0.4021	25737.37	3.8500	3.8501	1.1756	26.96	1.02	1.500			
0.4057	25965.60	3.8470	3.8469	1.1850	26.95	1.01	1.500			
0.4093	26193.29	3.8440	3.8440	1.1985	26.94	1.00	1.500			
0.4129	26422.90	3.8410	3.8411	1.2132	26.92	0.98	1.500			
0.4165	26657.37	3.8380	3.8381	1.2340	26.91	0.97	1.500			
0.4202	26895.97	3.8350	3.8350	1.2547	26.90	0.96	1.500			
0.4240	27137.92	3.8320	3.8320	1.2722	26.88	0.94	1.500			
0.4279	27384.93	3.8290	3.8290	1.2959	26.87	0.93	1.500			
0.4318	27635.18	3.8260	3.8260	1.3117	26.85	0.91	1.500			
0.4357	27887.13	3.8230	3.8229	1.3385	26.84	0.90	1.500			
0.4398	28146.06	3.8200	3.8201	1.3643	26.83	0.89	1.500			
0.4439	28411.49	3.8170	3.8168	1.3873	26.81	0.87	1.500			
0.4482	28682.03	3.8140	3.8141	1.4091	26.79	0.85	1.500			
0.4524	28956.51	3.8110	3.8110	1.4283	26.78	0.84	1.500			
0.4568	29232.54	3.8080	3.8080	1.4438	26.76	0.82	1.500			
0.4611	29507.34	3.8050	3.8051	1.4695	26.74	0.80	1.500			
0.4655	29791.22	3.8020	3.8020	1.4959	26.72	0.78	1.500			
0.4700	30081.70	3.7990	3.7988	1.5298	26.71	0.77	1.500			
0.4747	30380.14	3.7960	3.7961	1.5575	26.71	0.77	1.500			
0.4795	30686.10	3.7930	3.7930	1.5714	26.69	0.75	1.500			
0.4842	30987.86	3.7900	3.7900	1.6025	26.66	0.72	1.500			
0.4889	31288.93	3.7870	3.7871	1.6455	26.64	0.70	1.500			
0.4939	31611.59	3.7840	3.7837	1.6731	26.62	0.68	1.500	0.344	0.479	
0.4990	31938.41	3.7810	3.7811	1.6951	26.60	0.66	1.500			
0.5043	32272.87	3.7780	3.7781	1.6958	26.59	0.65	1.500			
0.5094	32603.94	3.7750	3.7749	1.6987	26.57	0.63	1.500			
0.5144	32924.37	3.7720	3.7720	1.6874	26.55	0.61	1.500			
0.5194	33244.37	3.7690	3.7689	1.7245	26.54	0.60	1.500			
0.5247	33579.50	3.7660	3.7660	1.7527	26.52	0.58	1.500			
0.5300	33922.38	3.7630	3.7630	1.7526	26.50	0.56	1.500			
0.5353	34259.01	3.7600	3.7601	1.7432	26.48	0.54	1.500			
0.5405	34592.97	3.7570	3.7570	1.7526	26.46	0.52	1.500			
0.5457	34923.42	3.7540	3.7540	1.7631	26.45	0.51	1.500			
0.5510	35261.42	3.7510	3.7510	1.8077	26.43	0.49	1.500			
0.5565	35616.69	3.7480	3.7479	1.8465	26.42	0.48	1.500			
0.5621	35973.85	3.7450	3.7450	1.8675	26.40	0.46	1.500			
0.5678	36336.60	3.7420	3.7420	1.9017	26.38	0.44	1.500			
0.5735	36702.21	3.7390	3.7390	1.9185	26.37	0.43	1.500			
0.5792	37070.29	3.7360	3.7360	1.9323	26.35	0.41	1.500			
0.5850	37441.72	3.7330	3.7330	1.9825	26.33	0.39	1.500			
0.5911	37828.41	3.7300	3.7300	2.0434	26.31	0.37	1.500			
0.5973	38224.12	3.7270	3.7270	2.0989	26.29	0.35	1.500			
0.6037	38637.29	3.7240	3.7240	2.1457	26.28	0.34	1.500			
0.6102	39054.46	3.7210	3.7210	2.2217	26.26	0.32	1.500			
0.6169	39482.94	3.7180	3.7180	2.2789	26.25	0.31	1.500			
0.6239	39932.70	3.7150	3.7150	2.3035	26.23	0.29	1.500			
0.6309	40378.45	3.7120	3.7120	2.3111	26.21	0.27	1.500			
0.6379	40823.21	3.7090	3.7090	2.2669	26.19	0.25	1.500			
0.6446	41254.19	3.7060	3.7059	2.1843	26.18	0.24	1.500			
0.6511	41672.93	3.7030	3.7030	2.0841	26.17	0.23	1.500			
0.6572	42061.07	3.7000	3.7000	1.9467	26.16	0.22	1.500			
0.6627	42413.71	3.6970	3.6971	1.8010	26.15	0.21	1.500			
0.6678	42741.23	3.6940	3.6940	1.6848	26.14	0.20	1.500			
0.6728	43059.35	3.6910	3.6910	1.6097	26.13	0.19	1.500			
0.6775	43359.02	3.6880	3.6880	1.5353	26.13	0.19	1.500			
0.6820	43647.49	3.6850	3.6851	1.4679	26.12	0.18	1.500			
0.6863	43920.11	3.6820	3.6819	1.4117	26.11	0.17	1.500			
0.6904	44183.94	3.6790	3.6790	1.3633	26.11	0.17	1.500			
0.6943	44435.69	3.6760	3.6758	1.3260	26.10	0.16	1.500			
0.6982	44687.35	3.6730	3.6731	1.3059	26.09	0.15	1.500			
0.7021	44936.20	3.6700	3.6699	1.2906	26.08	0.14	1.500			
0.7059	45180.37	3.6670	3.6670	1.2766	26.07	0.13	1.500			
0.7097	45422.64	3.6640	3.6641	1.2689	26.06	0.12	1.500			
0.7135	45664.40	3.6610	3.6610	1.2721	26.05	0.11	1.500			
0.7173	45909.35	3.6580	3.6580	1.2775	26.04	0.10	1.500			
0.7212	46155.85	3.6550	3.6550	1.2755	26.03	0.09	1.500			
0.7250	46403.01	3.6520	3.6520	1.2740	26.03	0.09	1.500			
0.7289	46649.48	3.6490	3.6490	1.2633	26.02	0.08	1.500			
0.7327	46892.64	3.6460	3.6460	1.2478	26.01	0.07	1.500			
0.7364	47128.50	3.6430	3.6430	1.2357	26.00	0.06	1.500			
0.7400	47361.33	3.6400	3.6401	1.2228	25.99	0.05	1.500			
0.7437	47594.40	3.6370	3.6369	1.2210	25.98	0.04	1.500			
0.7473	47829.12	3.6340	3.6340	1.2188	25.98	0.04	1.500			
0.7510	48062.67	3.6310	3.6310	1.2143	25.97	0.03	1.500			
0.7547	48298.62	3.6280	3.6280	1.2125	25.97	0.03	1.500			
0.7583	48531.04	3.6250	3.6250	1.1955	25.96	0.02	1.500			
0.7619	48759.18	3.6220	3.6220	1.1828	25.96	0.02	1.500			
0.7654	48986.04	3.6190	3.6190	1.1662	25.95	0.01	1.500			
0.7689	49209.43	3.6160	3.6159	1.1442	25.95	0.01	1.500			
0.7723	49427.67	3.6130	3.6130	1.1241	25.95	0.01	1.500			
0.7756	49640.47	3.6100	3.6101	1.1022	25.95	0.01	1.500			
0.7789	49851.18	3.6070	3.6070	1.0783	25.95	0.01	1.500			
0.7821	50055.10	3.6040	3.6039	1.0516	25.94	0.00	1.500			
0.7852	50255.09	3.6010	3.6010	1.0244	25.94	0.00	1.500			
0.7883	50451.40	3.5980	3.5980	0.9988	25.94	0.00	1.500			
0.7913	50642.88	3.5950	3.5949	0.9585	25.94	0.00	1.500			
0.7941	50825.13	3.5920	3.5919	0.9092	25.94	-0.00	1.500			
0.7969	50998.72	3.5890	3.5890	0.8446	25.94	-0.00	1.500			
0.7993	51157.81	3.5860	3.5861	0.7699	25.94	-0.00	1.500			
0.8016	51301.61	3.5830	3.5830	0.6844	25.94	-0.00	1.500			
0.8035	51424.22	3.5800	3.5800	0.5918	25.94	-0.00	1.500			
0.8051	51525.27	3.5770	3.5771	0.5080	25.94	-0.00	1.500			
0.8064	51610.55	3.5740	3.5741	0.4351	25.94	-0.00	1.500			
0.8076	51683.97	3.5710	3.5709	0.3638	25.93	-0.01	1.500			
0.8085	51745.68	3.5680	3.5679	0.3165	25.93	-0.01	1.500			
0.8093	51798.22	3.5650	3.5651	0.2756	25.93	-0.01	1.500			
0.8101	51845.96	3.5620	3.5620	0.2457	25.93	-0.01	1.500			
0.8108	51889.46	3.5590	3.5590	0.2189	25.93	-0.01	1.500			
0.8114	51928.18	3.5560	3.5560	0.1982	25.93	-0.01	1.500			
0.8119	51963.32	3.5530	3.5530	0.1796	25.93	-0.01	1.500			
0.8124	51995.75	3.5500	3.5500	0.1623	25.93	-0.01	1.500			
0.8129	52025.26	3.5470	3.5470	0.1480	25.93	-0.01	1.500			
0.8133	52051.87	3.5440	3.5440	0.1331	25.93	-0.01	1.500			
0.8137	52076.21	3.5410	3.5410	0.1189	25.93	-0.01	1.500			
0.8140	52097.79	3.5380	3.5380	0.1051	25.93	-0.01	1.500			
0.8143	52116.59	3.5350	3.5351	0.0908	25.93	-0.01	1.500			
0.8146	52132.64	3.5320	3.5321	0.0764	25.93	-0.01	1.500			
0.8148	52146.27	3.5290	3.5293	0.0620	25.93	-0.01	1.500			
0.8149	52156.73	3.5260	3.5265	0.0469	25.93	-0.01	1.500			
0.8151	52164.29	3.5230	3.5239	0.0319	25.93	-0.01	1.500			
