Ah_balance (normalized)	Ah_balance (mAh)	Voltage - fit (V)	Voltage -  interpolate (V)	dQ/dV (1/V)	Temperature (°C)	Temperature - diff (°C)	Current (C)	R_DC 0ms (mOhm)	R_DC 50ms (mOhm)	R_DC 50 ms PEC (mOhm)
0.2879	18422.87	3.9700	3.9701	0.8523	26.98	1.02	1.500			
0.2905	18590.82	3.9670	3.9670	0.8711	26.98	1.02	1.500			
0.2931	18758.45	3.9640	3.9639	0.8761	26.98	1.02	1.500			
0.2957	18926.77	3.9610	3.9611	0.8853	26.98	1.02	1.500			
0.2984	19097.78	3.9580	3.9581	0.8917	26.98	1.02	1.500			
0.3011	19269.90	3.9550	3.9549	0.8987	26.98	1.02	1.500			
0.3038	19444.00	3.9520	3.9520	0.9023	26.98	1.02	1.500			
0.3065	19616.75	3.9490	3.9490	0.9026	26.98	1.02	1.500			
0.3093	19793.15	3.9460	3.9460	0.9072	26.98	1.02	1.500			
0.3120	19965.09	3.9430	3.9430	0.9054	26.97	1.01	1.500			
0.3147	20138.58	3.9400	3.9400	0.9066	26.97	1.01	1.500			
0.3174	20312.24	3.9370	3.9370	0.9136	26.97	1.01	1.500			
0.3201	20486.96	3.9340	3.9340	0.9206	26.97	1.01	1.500			
0.3229	20665.62	3.9310	3.9310	0.9272	26.97	1.01	1.500			
0.3257	20844.30	3.9280	3.9280	0.9326	26.97	1.01	1.500			
0.3285	21025.30	3.9250	3.9250	0.9407	26.96	1.00	1.500			
0.3313	21205.68	3.9220	3.9221	0.9472	26.96	1.00	1.500			
0.3342	21387.38	3.9190	3.9189	0.9532	26.95	0.99	1.500			
0.3370	21570.19	3.9160	3.9160	0.9594	26.95	0.99	1.500			
0.3399	21754.06	3.9130	3.9130	0.9670	26.94	0.98	1.500			
0.3428	21941.61	3.9100	3.9100	0.9770	26.94	0.98	1.500			
0.3458	22131.37	3.9070	3.9070	0.9825	26.94	0.98	1.500			
0.3488	22320.37	3.9040	3.9039	0.9881	26.93	0.97	1.500			
0.3517	22510.05	3.9010	3.9011	0.9933	26.93	0.97	1.500			
0.3547	22702.24	3.8980	3.8980	0.9982	26.92	0.96	1.500			
0.3577	22892.57	3.8950	3.8950	1.0073	26.91	0.95	1.500			
0.3607	23085.51	3.8920	3.8920	1.0225	26.91	0.95	1.500			
0.3638	23282.80	3.8890	3.8889	1.0293	26.90	0.94	1.500			
0.3669	23482.70	3.8860	3.8860	1.0474	26.89	0.93	1.500			
0.3701	23685.48	3.8830	3.8830	1.0570	26.89	0.93	1.500			
0.3733	23890.63	3.8800	3.8800	1.0681	26.88	0.92	1.500			
0.3765	24096.88	3.8770	3.8771	1.0795	26.88	0.92	1.500			
0.3797	24303.63	3.8740	3.8740	1.0849	26.87	0.91	1.500			
0.3830	24513.67	3.8710	3.8709	1.0926	26.86	0.90	1.500			
0.3863	24724.95	3.8680	3.8680	1.0994	26.86	0.90	1.500			
0.3896	24935.25	3.8650	3.8651	1.1127	26.85	0.89	1.500			
0.3930	25150.97	3.8620	3.8620	1.1292	26.84	0.88	1.500			
0.3964	25367.52	3.8590	3.8590	1.1477	26.84	0.88	1.500			
0.3998	25587.51	3.8560	3.8560	1.1670	26.83	0.87	1.500			
0.4034	25816.24	3.8530	3.8530	1.1823	26.82	0.86	1.500			
0.4070	26048.80	3.8500	3.8500	1.1958	26.81	0.85	1.500			
0.4106	26278.10	3.8470	3.8471	1.2076	26.81	0.85	1.500			
0.4142	26509.30	3.8440	3.8441	1.2223	26.80	0.84	1.500			
0.4179	26743.78	3.8410	3.8409	1.2400	26.79	0.83	1.500			
0.4216	26981.67	3.8380	3.8380	1.2639	26.79	0.83	1.500			
0.4254	27224.42	3.8350	3.8351	1.2912	26.78	0.82	1.500			
0.4293	27476.64	3.8320	3.8320	1.3262	26.77	0.81	1.500			
0.4334	27736.24	3.8290	3.8290	1.3572	26.76	0.80	1.500			
0.4375	27998.39	3.8260	3.8260	1.3854	26.75	0.79	1.500			
0.4417	28266.17	3.8230	3.8231	1.4185	26.74	0.78	1.500			
0.4460	28543.19	3.8200	3.8200	1.4517	26.73	0.77	1.500			
0.4504	28823.75	3.8170	3.8170	1.4837	26.72	0.76	1.500			
0.4549	29111.92	3.8140	3.8140	1.5191	26.71	0.75	1.500			
0.4595	29406.89	3.8110	3.8110	1.5501	26.70	0.74	1.500			
0.4642	29707.38	3.8080	3.8080	1.5865	26.68	0.72	1.500			
0.4690	30014.65	3.8050	3.8050	1.6211	26.67	0.71	1.500			
0.4739	30326.82	3.8020	3.8018	1.6602	26.66	0.70	1.500			
0.4789	30649.87	3.7990	3.7990	1.7120	26.65	0.69	1.500			
0.4841	30982.78	3.7960	3.7960	1.7509	26.64	0.68	1.500			
0.4894	31322.79	3.7930	3.7930	1.8054	26.63	0.67	1.500			
0.4949	31673.61	3.7900	3.7901	1.8603	26.62	0.66	1.500			
0.5006	32036.13	3.7870	3.7870	1.9184	26.61	0.65	1.500			
0.5065	32413.06	3.7840	3.7840	1.9543	26.59	0.63	1.500			
0.5124	32791.87	3.7810	3.7810	2.0059	26.57	0.61	1.500			
0.5184	33179.86	3.7780	3.7781	2.0588	26.56	0.60	1.500			
0.5247	33581.86	3.7750	3.7748	2.1174	26.54	0.58	1.500			
0.5313	34003.08	3.7720	3.7720	2.1389	26.52	0.56	1.500			
0.5378	34416.60	3.7690	3.7690	2.1647	26.50	0.54	1.500			
0.5441	34823.98	3.7660	3.7661	2.1914	26.48	0.52	1.500			
0.5507	35245.93	3.7630	3.7629	2.2513	26.47	0.51	1.500			
0.5576	35685.52	3.7600	3.7602	2.2602	26.45	0.49	1.500	0.358	0.452	
0.5646	36137.31	3.7570	3.7571	2.2940	26.43	0.47	1.500			
0.5713	36566.24	3.7540	3.7540	2.2244	26.41	0.45	1.500			
0.5779	36988.40	3.7510	3.7510	2.1737	26.39	0.43	1.500			
0.5844	37402.44	3.7480	3.7480	2.1350	26.37	0.41	1.500			
0.5908	37808.35	3.7450	3.7450	2.1306	26.35	0.39	1.500			
0.5971	38214.46	3.7420	3.7419	2.1073	26.33	0.37	1.500			
0.6034	38618.96	3.7390	3.7390	2.1067	26.31	0.35	1.500			
0.6098	39026.41	3.7360	3.7360	2.0771	26.30	0.34	1.500			
0.6160	39422.46	3.7330	3.7331	2.1094	26.29	0.33	1.500			
0.6222	39822.05	3.7300	3.7299	2.1350	26.28	0.32	1.500			
0.6286	40233.16	3.7270	3.7271	2.1818	26.27	0.31	1.500			
0.6352	40654.10	3.7240	3.7239	2.2032	26.25	0.29	1.500			
0.6420	41088.04	3.7210	3.7211	2.2598	26.23	0.27	1.500			
0.6487	41515.77	3.7180	3.7179	2.3020	26.21	0.25	1.500			
0.6558	41968.54	3.7150	3.7150	2.3674	26.20	0.24	1.500			
0.6629	42424.91	3.7120	3.7120	2.4643	26.18	0.22	1.500			
0.6704	42906.94	3.7090	3.7090	2.5853	26.17	0.21	1.500			
0.6783	43411.10	3.7060	3.7060	2.7094	26.15	0.19	1.500			
0.6866	43944.76	3.7030	3.7031	2.7927	26.14	0.18	1.500			
0.6953	44499.03	3.7000	3.7000	2.8175	26.13	0.17	1.500			
0.7038	45043.74	3.6970	3.6971	2.7987	26.11	0.15	1.500			
0.7122	45580.01	3.6940	3.6940	2.7175	26.10	0.14	1.500			
0.7202	46093.14	3.6910	3.6910	2.5653	26.09	0.13	1.500			
0.7278	46581.65	3.6880	3.6881	2.4019	26.08	0.12	1.500			
0.7348	47029.94	3.6850	3.6850	2.2073	26.07	0.11	1.500			
0.7410	47425.81	3.6820	3.6820	2.0142	26.07	0.11	1.500			
0.7466	47784.86	3.6790	3.6790	1.8305	26.06	0.10	1.500			
0.7519	48118.77	3.6760	3.6760	1.7043	26.06	0.10	1.500			
0.7567	48430.96	3.6730	3.6730	1.5929	26.05	0.09	1.500			
0.7613	48721.82	3.6700	3.6700	1.5044	26.05	0.09	1.500			
0.7656	48997.35	3.6670	3.6670	1.4293	26.05	0.09	1.500			
0.7697	49262.21	3.6640	3.6640	1.3673	26.04	0.08	1.500			
0.7737	49517.35	3.6610	3.6608	1.3183	26.04	0.08	1.500			
0.7776	49763.71	3.6580	3.6581	1.2834	26.03	0.07	1.500			
0.7813	50005.04	3.6550	3.6550	1.2602	26.03	0.07	1.500			
0.7850	50240.86	3.6520	3.6520	1.2457	26.02	0.06	1.500			
0.7887	50476.46	3.6490	3.6490	1.2471	26.02	0.06	1.500			
0.7923	50710.35	3.6460	3.6460	1.2542	26.01	0.05	1.500			
0.7961	50952.83	3.6430	3.6430	1.2795	26.00	0.04	1.500			
0.8000	51200.52	3.6400	3.6400	1.2963	26.00	0.04	1.500			
0.8040	51453.55	3.6370	3.6370	1.3066	25.99	0.03	1.500			
0.8079	51708.54	3.6340	3.6341	1.3177	25.99	0.03	1.500			
0.8119	51964.26	3.6310	3.6310	1.3189	25.98	0.02	1.500			
0.8159	52217.67	3.6280	3.6280	1.3122	25.97	0.01	1.500			
0.8198	52466.02	3.6250	3.6250	1.3093	25.97	0.01	1.500			
0.8237	52717.32	3.6220	3.6220	1.3062	25.96	0.00	1.500			
0.8276	52969.22	3.6190	3.6190	1.3088	25.96	-0.00	1.500			
0.8316	53220.70	3.6160	3.6159	1.3044	25.95	-0.01	1.500			
0.8355	53472.23	3.6130	3.6130	1.2970	25.95	-0.01	1.500			
0.8394	53720.48	3.6100	3.6100	1.2932	25.94	-0.02	1.500			
0.8432	53967.68	3.6070	3.6070	1.2932	25.94	-0.02	1.500			
0.8471	54213.96	3.6040	3.6040	1.2823	25.93	-0.03	1.500			
0.8510	54462.71	3.6010	3.6010	1.2717	25.93	-0.03	1.500			
0.8548	54706.58	3.5980	3.5980	1.2620	25.93	-0.03	1.500			
0.8586	54949.37	3.5950	3.5951	1.2457	25.93	-0.03	1.500			
0.8623	55188.66	3.5920	3.5919	1.2236	25.92	-0.04	1.500			
0.8659	55417.99	3.5890	3.5890	1.2082	25.92	-0.04	1.500			
0.8695	55647.56	3.5860	3.5860	1.1941	25.92	-0.04	1.500			
0.8730	55873.17	3.5830	3.5829	1.1945	25.92	-0.04	1.500			
0.8766	56100.59	3.5800	3.5800	1.2029	25.92	-0.04	1.500			
0.8802	56331.78	3.5770	3.5770	1.1965	25.93	-0.03	1.500			
0.8839	56567.47	3.5740	3.5739	1.1791	25.94	-0.02	1.500			
0.8876	56809.02	3.5710	3.5709	1.1157	25.94	-0.02	1.500			
0.8910	57025.93	3.5680	3.5681	1.0170	25.95	-0.01	1.500			
0.8941	57224.63	3.5650	3.5651	0.8957	25.95	-0.01	1.500			
0.8966	57380.68	3.5620	3.5621	0.7452	25.96	-0.00	1.500			
0.8985	57501.76	3.5590	3.5589	0.5920	25.96	-0.00	1.500			
0.8999	57593.12	3.5560	3.5559	0.4852	25.96	0.00	1.500			
0.9010	57664.93	3.5530	3.5530	0.3892	25.96	0.00	1.500			
0.9020	57729.62	3.5500	3.5499	0.3192	25.96	0.00	1.500			
0.9028	57781.47	3.5470	3.5469	0.2712	25.97	0.01	1.500			
0.9036	57827.31	3.5440	3.5440	0.2364	25.97	0.01	1.500			
0.9042	57867.57	3.5410	3.5409	0.2103	25.97	0.01	1.500			
0.9047	57903.84	3.5380	3.5380	0.1850	25.97	0.01	1.500			
0.9053	57936.22	3.5350	3.5349	0.1662	25.97	0.01	1.500			
0.9057	57965.59	3.5320	3.5319	0.1478	25.97	0.01	1.500			
0.9061	57992.23	3.5290	3.5290	0.1323	25.97	0.01	1.500			
0.9065	58016.19	3.5260	3.5260	0.1172	25.97	0.01	1.500			
0.9068	58037.00	3.5230	3.5230	0.1019	25.97	0.01	1.500			
0.9071	58055.36	3.5200	3.5201	0.0872	25.97	0.01	1.500			
0.9074	58070.64	3.5170	3.5171	0.0720	25.97	0.01	1.500			
0.9075	58082.93	3.5140	3.5144	0.0572	25.97	0.01	1.500			
0.9077	58092.48	3.5110	3.5117	0.0423	25.97	0.01	1.500			
