Ah_balance (normalized)	Ah_balance (mAh)	Voltage - fit (V)	Voltage -  interpolate (V)	dQ/dV (1/V)	Temperature (°C)	Temperature - diff (°C)	Current (C)	R_DC 0ms (mOhm)	R_DC 50ms (mOhm)	R_DC 50 ms PEC (mOhm)
0.2817	18031.80	3.9900	3.9900	0.8345	27.27	1.32	1.500			
0.2843	18192.14	3.9870	3.9870	0.8363	27.26	1.31	1.500			
0.2868	18353.66	3.9840	3.9839	0.8375	27.26	1.31	1.500			
0.2893	18514.00	3.9810	3.9811	0.8424	27.25	1.30	1.500			
0.2918	18675.53	3.9780	3.9780	0.8457	27.24	1.29	1.500			
0.2944	18839.73	3.9750	3.9749	0.8477	27.24	1.29	1.500			
0.2969	19002.59	3.9720	3.9721	0.8500	27.23	1.28	1.500			
0.2995	19165.70	3.9690	3.9690	0.8518	27.22	1.27	1.500			
0.3020	19328.92	3.9660	3.9660	0.8564	27.21	1.26	1.500			
0.3046	19492.53	3.9630	3.9630	0.8637	27.21	1.26	1.500			
0.3072	19657.78	3.9600	3.9600	0.8684	27.20	1.25	1.500			
0.3098	19826.71	3.9570	3.9569	0.8760	27.19	1.24	1.500			
0.3124	19996.46	3.9540	3.9540	0.8818	27.19	1.24	1.500			
0.3151	20167.22	3.9510	3.9510	0.8840	27.18	1.23	1.500			
0.3178	20337.62	3.9480	3.9480	0.8859	27.17	1.22	1.500			
0.3204	20507.36	3.9450	3.9450	0.8830	27.16	1.21	1.500			
0.3231	20675.77	3.9420	3.9420	0.8874	27.16	1.21	1.500			
0.3257	20845.38	3.9390	3.9390	0.8945	27.15	1.20	1.500			
0.3284	21017.36	3.9360	3.9358	0.9008	27.14	1.19	1.500			
0.3311	21191.34	3.9330	3.9330	0.9085	27.14	1.19	1.500			
0.3339	21367.17	3.9300	3.9300	0.9140	27.13	1.18	1.500			
0.3366	21544.05	3.9270	3.9270	0.9233	27.12	1.17	1.500			
0.3394	21721.79	3.9240	3.9240	0.9225	27.12	1.17	1.500			
0.3422	21899.55	3.9210	3.9210	0.9260	27.11	1.16	1.500			
0.3450	22077.54	3.9180	3.9180	0.9269	27.11	1.16	1.500			
0.3477	22255.04	3.9150	3.9149	0.9360	27.10	1.15	1.500			
0.3505	22435.07	3.9120	3.9120	0.9413	27.10	1.15	1.500			
0.3534	22615.86	3.9090	3.9090	0.9511	27.09	1.14	1.500			
0.3562	22798.37	3.9060	3.9060	0.9586	27.08	1.13	1.500			
0.3591	22985.43	3.9030	3.9030	0.9695	27.07	1.12	1.500			
0.3621	23172.32	3.9000	3.9000	0.9787	27.06	1.11	1.500			
0.3650	23360.80	3.8970	3.8970	0.9899	27.05	1.10	1.500			
0.3680	23552.56	3.8940	3.8940	0.9885	27.04	1.09	1.500			
0.3710	23742.47	3.8910	3.8909	0.9998	27.03	1.08	1.500			
0.3740	23933.67	3.8880	3.8881	1.0078	27.02	1.07	1.500			
0.3770	24127.54	3.8850	3.8851	1.0172	27.02	1.07	1.500			
0.3800	24323.18	3.8820	3.8820	1.0294	27.01	1.06	1.500			
0.3831	24521.40	3.8790	3.8791	1.0424	27.00	1.05	1.500			
0.3863	24723.77	3.8760	3.8759	1.0558	26.99	1.04	1.500			
0.3895	24930.92	3.8730	3.8730	1.0737	26.98	1.03	1.500			
0.3928	25137.33	3.8700	3.8700	1.0698	26.97	1.02	1.500			
0.3960	25343.52	3.8670	3.8670	1.0842	26.96	1.01	1.500			
0.3992	25551.71	3.8640	3.8640	1.1014	26.95	1.00	1.500			
0.4025	25761.70	3.8610	3.8609	1.1148	26.94	0.99	1.500			
0.4059	25976.87	3.8580	3.8581	1.1332	26.93	0.98	1.500			
0.4093	26197.49	3.8550	3.8551	1.1526	26.92	0.97	1.500			
0.4128	26421.82	3.8520	3.8520	1.1643	26.91	0.96	1.500			
0.4164	26650.20	3.8490	3.8490	1.1781	26.90	0.95	1.500			
0.4199	26874.80	3.8460	3.8461	1.1896	26.89	0.94	1.500			
0.4235	27102.32	3.8430	3.8430	1.2055	26.88	0.93	1.500			
0.4271	27334.45	3.8400	3.8399	1.2231	26.86	0.91	1.500			
0.4308	27571.43	3.8370	3.8370	1.2441	26.85	0.90	1.500			
0.4346	27811.90	3.8340	3.8340	1.2690	26.84	0.89	1.500			
0.4384	28059.22	3.8310	3.8310	1.2878	26.83	0.88	1.500			
0.4423	28309.19	3.8280	3.8280	1.3099	26.82	0.87	1.500			
0.4463	28561.86	3.8250	3.8250	1.3269	26.80	0.85	1.500			
0.4503	28817.65	3.8220	3.8220	1.3511	26.79	0.84	1.500			
0.4544	29078.87	3.8190	3.8190	1.3739	26.78	0.83	1.500			
0.4585	29344.91	3.8160	3.8160	1.3959	26.76	0.81	1.500			
0.4627	29615.54	3.8130	3.8130	1.4189	26.75	0.80	1.500			
0.4670	29889.69	3.8100	3.8100	1.4527	26.74	0.79	1.500			
0.4714	30171.41	3.8070	3.8070	1.4720	26.72	0.77	1.500			
0.4759	30457.34	3.8040	3.8040	1.4970	26.71	0.76	1.500			
0.4804	30746.06	3.8010	3.8012	1.5212	26.69	0.74	1.500			
0.4850	31041.66	3.7980	3.7979	1.5434	26.68	0.73	1.500			
0.4896	31337.34	3.7950	3.7950	1.5734	26.66	0.71	1.500			
0.4944	31642.62	3.7920	3.7920	1.6037	26.65	0.70	1.500			
0.4993	31955.61	3.7890	3.7889	1.6289	26.63	0.68	1.500			
0.5042	32270.26	3.7860	3.7859	1.6443	26.61	0.66	1.500	0.344	0.484	
0.5092	32589.68	3.7830	3.7830	1.6595	26.60	0.65	1.500			
0.5142	32911.24	3.7800	3.7800	1.6606	26.58	0.63	1.500			
0.5192	33226.22	3.7770	3.7770	1.6573	26.56	0.61	1.500			
0.5241	33544.03	3.7740	3.7741	1.6733	26.55	0.60	1.500			
0.5292	33866.81	3.7710	3.7709	1.6882	26.53	0.58	1.500			
0.5342	34190.93	3.7680	3.7680	1.6955	26.51	0.56	1.500			
0.5394	34520.05	3.7650	3.7650	1.7027	26.50	0.55	1.500			
0.5445	34848.98	3.7620	3.7620	1.7049	26.49	0.54	1.500			
0.5496	35172.74	3.7590	3.7590	1.7209	26.47	0.52	1.500			
0.5548	35504.98	3.7560	3.7560	1.7444	26.46	0.51	1.500			
0.5601	35844.87	3.7530	3.7530	1.7614	26.44	0.49	1.500			
0.5654	36185.49	3.7500	3.7500	1.7654	26.42	0.47	1.500			
0.5707	36523.07	3.7470	3.7470	1.7956	26.41	0.46	1.500			
0.5760	36866.96	3.7440	3.7440	1.8278	26.39	0.44	1.500			
0.5816	37221.79	3.7410	3.7410	1.8656	26.37	0.42	1.500			
0.5873	37584.46	3.7380	3.7380	1.9208	26.36	0.41	1.500			
0.5931	37959.97	3.7350	3.7350	1.9569	26.35	0.40	1.500			
0.5990	38338.76	3.7320	3.7320	1.9969	26.34	0.39	1.500			
0.6051	38725.92	3.7290	3.7290	2.0481	26.33	0.38	1.500			
0.6113	39125.37	3.7260	3.7260	2.0967	26.31	0.36	1.500			
0.6176	39529.24	3.7230	3.7230	2.1700	26.29	0.34	1.500			
0.6243	39955.36	3.7200	3.7200	2.2415	26.27	0.32	1.500			
0.6311	40393.06	3.7170	3.7171	2.2886	26.25	0.30	1.500			
0.6382	40842.79	3.7140	3.7140	2.3119	26.24	0.29	1.500			
0.6451	41285.92	3.7110	3.7110	2.2604	26.22	0.27	1.500			
0.6519	41722.37	3.7080	3.7080	2.2316	26.20	0.25	1.500			
0.6586	42147.68	3.7050	3.7049	2.1268	26.19	0.24	1.500			
0.6648	42547.27	3.7020	3.7021	1.9807	26.17	0.22	1.500			
0.6705	42910.35	3.6990	3.6991	1.8545	26.16	0.21	1.500			
0.6758	43248.75	3.6960	3.6960	1.7303	26.15	0.20	1.500			
0.6807	43565.30	3.6930	3.6931	1.6269	26.14	0.19	1.500			
0.6854	43868.18	3.6900	3.6900	1.5473	26.13	0.18	1.500			
0.6900	44159.14	3.6870	3.6870	1.4687	26.12	0.17	1.500			
0.6943	44432.46	3.6840	3.6840	1.4145	26.11	0.16	1.500			
0.6983	44691.96	3.6810	3.6811	1.3579	26.11	0.16	1.500			
0.7023	44944.72	3.6780	3.6779	1.3204	26.10	0.15	1.500			
0.7061	45191.63	3.6750	3.6750	1.2942	26.09	0.14	1.500			
0.7099	45435.56	3.6720	3.6720	1.2788	26.08	0.13	1.500			
0.7138	45680.75	3.6690	3.6690	1.2718	26.08	0.13	1.500			
0.7176	45924.57	3.6660	3.6660	1.2711	26.07	0.12	1.500			
0.7213	46165.58	3.6630	3.6630	1.2630	26.06	0.11	1.500			
0.7252	46409.88	3.6600	3.6600	1.2623	26.05	0.10	1.500			
0.7289	46651.44	3.6570	3.6569	1.2573	26.04	0.09	1.500			
0.7327	46895.36	3.6540	3.6540	1.2464	26.03	0.08	1.500			
0.7365	47133.02	3.6510	3.6510	1.2362	26.02	0.07	1.500			
0.7402	47369.62	3.6480	3.6480	1.2245	26.01	0.06	1.500			
0.7438	47604.03	3.6450	3.6450	1.2174	26.00	0.05	1.500			
0.7474	47833.88	3.6420	3.6420	1.2071	25.99	0.04	1.500			
0.7510	48064.89	3.6390	3.6390	1.1991	25.99	0.04	1.500			
0.7546	48294.64	3.6360	3.6360	1.1926	25.98	0.03	1.500			
0.7582	48524.58	3.6330	3.6330	1.1867	25.97	0.02	1.500			
0.7617	48751.62	3.6300	3.6300	1.1756	25.97	0.02	1.500			
0.7653	48978.66	3.6270	3.6269	1.1615	25.97	0.02	1.500			
0.7688	49200.23	3.6240	3.6240	1.1485	25.96	0.01	1.500			
0.7722	49419.62	3.6210	3.6210	1.1291	25.96	0.01	1.500			
0.7756	49635.31	3.6180	3.6180	1.1112	25.95	0.00	1.500			
0.7789	49847.35	3.6150	3.6149	1.0876	25.95	0.00	1.500			
0.7821	50053.26	3.6120	3.6119	1.0671	25.95	0.00	1.500			
0.7853	50257.13	3.6090	3.6090	1.0414	25.95	0.00	1.500			
0.7884	50454.88	3.6060	3.6060	1.0177	25.95	0.00	1.500			
0.7914	50648.54	3.6030	3.6030	0.9853	25.95	0.00	1.500			
0.7943	50837.32	3.6000	3.5999	0.9539	25.95	0.00	1.500			
0.7971	51017.47	3.5970	3.5970	0.9185	25.95	0.00	1.500			
0.7999	51192.95	3.5940	3.5940	0.8716	25.95	0.00	1.500			
0.8025	51358.42	3.5910	3.5909	0.8167	25.95	0.00	1.500			
0.8049	51513.90	3.5880	3.5880	0.7469	25.95	0.00	1.500			
0.8071	51652.59	3.5850	3.5851	0.6706	25.95	0.00	1.500			
0.8090	51774.51	3.5820	3.5821	0.5887	25.95	0.00	1.500			
0.8106	51878.60	3.5790	3.5789	0.5048	25.95	0.00	1.500			
0.8119	51962.89	3.5760	3.5760	0.4243	25.95	0.00	1.500			
0.8130	52034.74	3.5730	3.5730	0.3647	25.95	0.00	1.500			
0.8140	52094.95	3.5700	3.5700	0.3118	25.95	0.00	1.500			
0.8148	52148.03	3.5670	3.5669	0.2732	25.95	0.00	1.500			
0.8155	52194.20	3.5640	3.5640	0.2366	25.95	0.00	1.500			
0.8162	52235.92	3.5610	3.5610	0.2119	25.95	0.00	1.500			
0.8168	52272.92	3.5580	3.5580	0.1893	25.95	0.00	1.500			
0.8173	52307.24	3.5550	3.5549	0.1698	25.95	0.00	1.500			
0.8178	52337.58	3.5520	3.5523	0.1535	25.95	0.00	1.500			
0.8182	52364.90	3.5490	3.5490	0.1361	25.95	0.00	1.500			
0.8186	52388.97	3.5460	3.5458	0.1205	25.95	0.00	1.500			
0.8189	52410.39	3.5430	3.5431	0.1049	25.95	0.00	1.500			
0.8192	52429.19	3.5400	3.5402	0.0909	25.95	0.00	1.500			
0.8195	52445.52	3.5370	3.5371	0.0770	25.95	0.00	1.500			
0.8197	52459.34	3.5340	3.5341	0.0625	25.95	0.00	1.500			
0.8198	52469.86	3.5310	3.5316	0.0472	25.95	0.00	1.500			
0.8200	52477.46	3.5280	3.5290	0.0319	25.95	0.00	1.500			
