Ah_balance (normalized)	Ah_balance (mAh)	Voltage - fit (V)	Voltage -  interpolate (V)	dQ/dV (1/V)	Temperature (°C)	Temperature - diff (°C)	Current (C)	R_DC 0ms (mOhm)	R_DC 50ms (mOhm)	R_DC 50 ms PEC (mOhm)
0.2832	18123.88	3.9880	3.9880	0.8258	27.20	1.23	1.500			
0.2857	18286.60	3.9850	3.9850	0.8562	27.20	1.23	1.500			
0.2883	18450.81	3.9820	3.9819	0.8552	27.19	1.22	1.500			
0.2909	18614.84	3.9790	3.9790	0.8557	27.18	1.21	1.500			
0.2934	18778.21	3.9760	3.9760	0.8575	27.18	1.21	1.500			
0.2960	18945.01	3.9730	3.9729	0.8587	27.17	1.20	1.500			
0.2986	19108.64	3.9700	3.9700	0.8569	27.16	1.19	1.500			
0.3011	19272.91	3.9670	3.9670	0.8594	27.16	1.19	1.500			
0.3038	19440.70	3.9640	3.9640	0.8584	27.15	1.18	1.500			
0.3063	19603.63	3.9610	3.9609	0.8602	27.15	1.18	1.500			
0.3089	19767.52	3.9580	3.9581	0.8651	27.14	1.17	1.500			
0.3115	19933.64	3.9550	3.9550	0.8676	27.13	1.16	1.500			
0.3141	20101.70	3.9520	3.9519	0.8756	27.13	1.16	1.500			
0.3167	20270.62	3.9490	3.9491	0.8754	27.12	1.15	1.500			
0.3194	20438.74	3.9460	3.9461	0.8824	27.11	1.14	1.500			
0.3221	20611.21	3.9430	3.9430	0.8910	27.10	1.13	1.500			
0.3247	20780.04	3.9400	3.9399	0.8903	27.10	1.13	1.500			
0.3274	20950.48	3.9370	3.9370	0.8942	27.09	1.12	1.500			
0.3301	21124.03	3.9340	3.9341	0.9031	27.08	1.11	1.500			
0.3328	21297.88	3.9310	3.9309	0.9124	27.07	1.10	1.500			
0.3355	21474.39	3.9280	3.9280	0.9179	27.07	1.10	1.500			
0.3383	21650.13	3.9250	3.9251	0.9196	27.06	1.09	1.500			
0.3411	21827.98	3.9220	3.9220	0.9258	27.05	1.08	1.500			
0.3438	22005.63	3.9190	3.9189	0.9320	27.05	1.08	1.500			
0.3467	22185.90	3.9160	3.9160	0.9343	27.04	1.07	1.500			
0.3495	22365.50	3.9130	3.9130	0.9382	27.03	1.06	1.500			
0.3523	22546.39	3.9100	3.9100	0.9410	27.03	1.06	1.500			
0.3551	22727.44	3.9070	3.9070	0.9503	27.02	1.05	1.500			
0.3579	22908.67	3.9040	3.9040	0.9595	27.01	1.04	1.500			
0.3608	23093.86	3.9010	3.9010	0.9672	27.00	1.03	1.500			
0.3638	23280.52	3.8980	3.8979	0.9752	27.00	1.03	1.500			
0.3667	23469.51	3.8950	3.8951	0.9889	26.99	1.02	1.500			
0.3697	23660.71	3.8920	3.8921	0.9984	26.98	1.01	1.500			
0.3727	23854.74	3.8890	3.8890	1.0009	26.98	1.01	1.500			
0.3757	24046.03	3.8860	3.8859	1.0054	26.97	1.00	1.500			
0.3787	24239.91	3.8830	3.8831	1.0101	26.96	0.99	1.500			
0.3818	24432.98	3.8800	3.8800	1.0220	26.95	0.98	1.500			
0.3848	24628.94	3.8770	3.8770	1.0342	26.95	0.98	1.500			
0.3879	24827.87	3.8740	3.8739	1.0467	26.94	0.97	1.500			
0.3911	25032.08	3.8710	3.8710	1.0615	26.93	0.96	1.500			
0.3944	25238.63	3.8680	3.8681	1.0759	26.92	0.95	1.500			
0.3976	25446.62	3.8650	3.8650	1.0897	26.91	0.94	1.500			
0.4009	25658.27	3.8620	3.8620	1.0983	26.90	0.93	1.500			
0.4042	25866.41	3.8590	3.8590	1.1136	26.89	0.92	1.500			
0.4075	26082.68	3.8560	3.8560	1.1332	26.88	0.91	1.500			
0.4110	26303.90	3.8530	3.8530	1.1492	26.88	0.91	1.500			
0.4145	26525.95	3.8500	3.8501	1.1699	26.86	0.89	1.500			
0.4180	26752.29	3.8470	3.8470	1.1855	26.85	0.88	1.500			
0.4216	26980.74	3.8440	3.8440	1.2039	26.84	0.87	1.500			
0.4252	27215.24	3.8410	3.8410	1.2166	26.83	0.86	1.500			
0.4289	27448.94	3.8380	3.8380	1.2335	26.82	0.85	1.500			
0.4326	27687.21	3.8350	3.8350	1.2576	26.81	0.84	1.500			
0.4364	27931.58	3.8320	3.8320	1.2789	26.79	0.82	1.500			
0.4403	28177.00	3.8290	3.8290	1.3011	26.78	0.81	1.500			
0.4442	28428.54	3.8260	3.8260	1.3287	26.77	0.80	1.500			
0.4482	28686.70	3.8230	3.8230	1.3513	26.76	0.79	1.500			
0.4523	28949.25	3.8200	3.8199	1.3769	26.75	0.78	1.500			
0.4565	29217.01	3.8170	3.8170	1.4047	26.74	0.77	1.500			
0.4607	29486.79	3.8140	3.8140	1.4338	26.73	0.76	1.500			
0.4651	29766.64	3.8110	3.8110	1.4650	26.71	0.74	1.500			
0.4695	30049.27	3.8080	3.8080	1.4891	26.70	0.73	1.500			
0.4741	30339.50	3.8050	3.8050	1.5242	26.68	0.71	1.500			
0.4787	30636.12	3.8020	3.8020	1.5565	26.67	0.70	1.500			
0.4834	30937.40	3.7990	3.7989	1.5843	26.65	0.68	1.500			
0.4882	31242.92	3.7960	3.7960	1.6190	26.64	0.67	1.500			
0.4931	31557.40	3.7930	3.7930	1.6432	26.63	0.66	1.500			
0.4981	31877.74	3.7900	3.7900	1.6658	26.61	0.64	1.500			
0.5031	32199.24	3.7870	3.7871	1.6773	26.60	0.63	1.500			
0.5081	32521.56	3.7840	3.7840	1.7055	26.58	0.61	1.500			
0.5133	32850.80	3.7810	3.7810	1.7301	26.57	0.60	1.500			
0.5185	33185.07	3.7780	3.7775	1.7526	26.55	0.58	1.500	0.348	0.469	
0.5239	33527.58	3.7750	3.7750	1.7744	26.54	0.57	1.500			
0.5293	33872.51	3.7720	3.7720	1.7866	26.52	0.55	1.500			
0.5346	34217.40	3.7690	3.7690	1.7770	26.51	0.54	1.500			
0.5399	34555.24	3.7660	3.7661	1.7697	26.49	0.52	1.500			
0.5452	34894.61	3.7630	3.7631	1.7654	26.48	0.51	1.500			
0.5505	35232.49	3.7600	3.7599	1.7680	26.47	0.50	1.500			
0.5558	35571.13	3.7570	3.7570	1.7700	26.46	0.49	1.500			
0.5611	35908.71	3.7540	3.7541	1.7872	26.44	0.47	1.500			
0.5665	36253.89	3.7510	3.7510	1.7935	26.43	0.46	1.500			
0.5719	36599.09	3.7480	3.7480	1.7983	26.42	0.45	1.500			
0.5773	36944.83	3.7450	3.7451	1.8180	26.41	0.44	1.500			
0.5827	37293.68	3.7420	3.7420	1.8400	26.39	0.42	1.500			
0.5883	37648.69	3.7390	3.7389	1.8657	26.38	0.41	1.500			
0.5939	38007.39	3.7360	3.7360	1.9105	26.37	0.40	1.500			
0.5997	38377.72	3.7330	3.7330	1.9541	26.35	0.38	1.500			
0.6056	38755.40	3.7300	3.7300	2.0096	26.34	0.37	1.500			
0.6117	39145.90	3.7270	3.7269	2.0771	26.32	0.35	1.500			
0.6180	39554.23	3.7240	3.7241	2.1378	26.31	0.34	1.500			
0.6245	39968.67	3.7210	3.7210	2.1859	26.29	0.32	1.500			
0.6312	40394.25	3.7180	3.7181	2.2582	26.28	0.31	1.500			
0.6379	40828.48	3.7150	3.7148	2.3218	26.26	0.29	1.500			
0.6450	41280.60	3.7120	3.7121	2.3892	26.24	0.27	1.500			
0.6524	41751.11	3.7090	3.7090	2.4205	26.23	0.26	1.500			
0.6597	42221.66	3.7060	3.7060	2.4330	26.21	0.24	1.500			
0.6671	42692.33	3.7030	3.7031	2.3742	26.19	0.22	1.500			
0.6743	43152.30	3.7000	3.7000	2.2795	26.18	0.21	1.500			
0.6809	43574.55	3.6970	3.6970	2.1492	26.17	0.20	1.500			
0.6871	43972.06	3.6940	3.6939	1.9781	26.16	0.19	1.500			
0.6927	44335.53	3.6910	3.6911	1.8383	26.15	0.18	1.500			
0.6980	44673.12	3.6880	3.6879	1.7035	26.14	0.17	1.500			
0.7028	44981.16	3.6850	3.6850	1.5919	26.14	0.17	1.500			
0.7073	45269.46	3.6820	3.6820	1.4970	26.13	0.16	1.500			
0.7116	45545.33	3.6790	3.6790	1.4287	26.12	0.15	1.500			
0.7158	45812.13	3.6760	3.6760	1.3802	26.11	0.14	1.500			
0.7199	46070.98	3.6730	3.6731	1.3405	26.10	0.13	1.500			
0.7238	46323.74	3.6700	3.6699	1.3071	26.09	0.12	1.500			
0.7276	46569.17	3.6670	3.6669	1.2860	26.08	0.11	1.500			
0.7314	46811.04	3.6640	3.6641	1.2670	26.08	0.11	1.500			
0.7352	47050.36	3.6610	3.6611	1.2672	26.07	0.10	1.500			
0.7389	47292.01	3.6580	3.6579	1.2652	26.06	0.09	1.500			
0.7427	47535.49	3.6550	3.6550	1.2677	26.05	0.08	1.500			
0.7465	47778.52	3.6520	3.6520	1.2724	26.04	0.07	1.500			
0.7504	48025.29	3.6490	3.6491	1.2730	26.03	0.06	1.500			
0.7542	48271.50	3.6460	3.6460	1.2711	26.02	0.05	1.500			
0.7581	48515.35	3.6430	3.6430	1.2673	26.01	0.04	1.500			
0.7618	48757.81	3.6400	3.6399	1.2578	26.00	0.03	1.500			
0.7656	48998.89	3.6370	3.6370	1.2530	26.00	0.03	1.500			
0.7694	49238.61	3.6340	3.6340	1.2457	25.99	0.02	1.500			
0.7731	49476.71	3.6310	3.6311	1.2362	25.98	0.01	1.500			
0.7768	49713.91	3.6280	3.6279	1.2318	25.98	0.01	1.500			
0.7804	49947.30	3.6250	3.6251	1.2288	25.97	0.00	1.500			
0.7841	50183.26	3.6220	3.6220	1.2261	25.97	-0.00	1.500			
0.7878	50421.11	3.6190	3.6190	1.2192	25.96	-0.01	1.500			
0.7915	50655.11	3.6160	3.6160	1.2071	25.96	-0.01	1.500			
0.7951	50886.74	3.6130	3.6131	1.1877	25.95	-0.02	1.500			
0.7987	51115.87	3.6100	3.6100	1.1713	25.95	-0.02	1.500			
0.8022	51337.93	3.6070	3.6069	1.1450	25.95	-0.02	1.500			
0.8055	51553.98	3.6040	3.6040	1.1191	25.95	-0.02	1.500			
0.8088	51764.56	3.6010	3.6010	1.1025	25.94	-0.03	1.500			
0.8121	51974.12	3.5980	3.5979	1.0887	25.94	-0.03	1.500			
0.8153	52182.18	3.5950	3.5950	1.0679	25.94	-0.03	1.500			
0.8186	52387.57	3.5920	3.5919	1.0443	25.95	-0.02	1.500			
0.8217	52590.49	3.5890	3.5890	1.0123	25.95	-0.02	1.500			
0.8248	52784.53	3.5860	3.5860	0.9663	25.95	-0.02	1.500			
0.8277	52970.08	3.5830	3.5829	0.8992	25.96	-0.01	1.500			
0.8303	53138.23	3.5800	3.5800	0.8161	25.96	-0.01	1.500			
0.8327	53290.26	3.5770	3.5770	0.7223	25.96	-0.01	1.500			
0.8347	53420.32	3.5740	3.5740	0.6245	25.97	-0.00	1.500			
0.8364	53529.89	3.5710	3.5710	0.5269	25.97	-0.00	1.500			
0.8378	53617.40	3.5680	3.5678	0.4385	25.97	-0.00	1.500			
0.8389	53686.57	3.5650	3.5650	0.3678	25.97	0.00	1.500			
0.8398	53747.84	3.5620	3.5619	0.3168	25.97	0.00	1.500			
0.8406	53799.47	3.5590	3.5589	0.2719	25.97	0.00	1.500			
0.8414	53846.99	3.5560	3.5559	0.2376	25.97	0.00	1.500			
0.8420	53887.19	3.5530	3.5530	0.2110	25.98	0.01	1.500			
0.8426	53924.24	3.5500	3.5501	0.1904	25.98	0.01	1.500			
0.8431	53958.64	3.5470	3.5470	0.1712	25.98	0.01	1.500			
0.8436	53989.51	3.5440	3.5440	0.1554	25.98	0.01	1.500			
0.8440	54016.95	3.5410	3.5409	0.1384	25.98	0.01	1.500			
0.8444	54041.91	3.5380	3.5381	0.1233	25.98	0.01	1.500			
0.8448	54064.27	3.5350	3.5351	0.1090	25.98	0.01	1.500			
0.8451	54083.79	3.5320	3.5320	0.0944	25.98	0.01	1.500			
0.8453	54100.71	3.5290	3.5291	0.0798	25.98	0.01	1.500			
0.8455	54114.33	3.5260	3.5264	0.0649	25.98	0.01	1.500			
0.8457	54125.41	3.5230	3.5235	0.0504	25.98	0.01	1.500			
0.8458	54133.71	3.5200	3.5210	0.0360	25.98	0.01	1.500			
