Ah_balance (normalized)	Ah_balance (mAh)	Voltage - fit (V)	Voltage -  interpolate (V)	dQ/dV (1/V)	Temperature (°C)	Temperature - diff (°C)	Current (C)	R_DC 0ms (mOhm)	R_DC 50ms (mOhm)	R_DC 50 ms PEC (mOhm)
0.2763	17684.61	3.9860	3.9860	0.8378	27.20	1.23	1.500			
0.2788	17846.00	3.9830	3.9829	0.8416	27.20	1.23	1.500			
0.2814	18007.82	3.9800	3.9801	0.8443	27.19	1.22	1.500			
0.2839	18170.39	3.9770	3.9770	0.8468	27.19	1.22	1.500			
0.2865	18333.45	3.9740	3.9740	0.8531	27.18	1.21	1.500			
0.2890	18496.46	3.9710	3.9710	0.8569	27.18	1.21	1.500			
0.2916	18660.84	3.9680	3.9680	0.8626	27.18	1.21	1.500			
0.2942	18828.89	3.9650	3.9649	0.8668	27.17	1.20	1.500			
0.2968	18995.75	3.9620	3.9620	0.8677	27.17	1.20	1.500			
0.2994	19162.40	3.9590	3.9591	0.8716	27.16	1.19	1.500			
0.3020	19330.31	3.9560	3.9561	0.8712	27.16	1.19	1.500			
0.3046	19496.20	3.9530	3.9529	0.8746	27.15	1.18	1.500			
0.3073	19664.87	3.9500	3.9499	0.8790	27.15	1.18	1.500			
0.3099	19833.52	3.9470	3.9471	0.8856	27.15	1.18	1.500			
0.3126	20004.36	3.9440	3.9441	0.8944	27.14	1.17	1.500			
0.3153	20178.05	3.9410	3.9409	0.8977	27.13	1.16	1.500			
0.3180	20350.84	3.9380	3.9380	0.9002	27.13	1.16	1.500			
0.3207	20523.82	3.9350	3.9350	0.9090	27.12	1.15	1.500			
0.3234	20699.10	3.9320	3.9319	0.9047	27.12	1.15	1.500			
0.3261	20872.90	3.9290	3.9290	0.9143	27.11	1.14	1.500			
0.3289	21048.40	3.9260	3.9261	0.9165	27.11	1.14	1.500			
0.3317	21225.72	3.9230	3.9229	0.9201	27.10	1.13	1.500			
0.3344	21403.33	3.9200	3.9200	0.9255	27.10	1.13	1.500			
0.3372	21580.30	3.9170	3.9171	0.9285	27.09	1.12	1.500			
0.3400	21757.45	3.9140	3.9141	0.9358	27.09	1.12	1.500			
0.3428	21939.27	3.9110	3.9109	0.9397	27.08	1.11	1.500			
0.3456	22120.33	3.9080	3.9080	0.9476	27.07	1.10	1.500			
0.3485	22304.14	3.9050	3.9050	0.9553	27.07	1.10	1.500			
0.3514	22487.10	3.9020	3.9021	0.9644	27.06	1.09	1.500			
0.3543	22673.23	3.8990	3.8990	0.9706	27.06	1.09	1.500			
0.3572	22859.54	3.8960	3.8959	0.9810	27.05	1.08	1.500			
0.3601	23048.26	3.8930	3.8930	0.9877	27.05	1.08	1.500			
0.3631	23240.09	3.8900	3.8901	0.9996	27.04	1.07	1.500			
0.3662	23434.03	3.8870	3.8869	1.0120	27.03	1.06	1.500			
0.3692	23630.29	3.8840	3.8840	1.0192	27.03	1.06	1.500			
0.3723	23824.82	3.8810	3.8810	1.0258	27.02	1.05	1.500			
0.3754	24023.01	3.8780	3.8781	1.0396	27.01	1.04	1.500			
0.3785	24222.75	3.8750	3.8749	1.0486	27.01	1.04	1.500			
0.3817	24426.22	3.8720	3.8719	1.0597	27.00	1.03	1.500			
0.3848	24629.65	3.8690	3.8690	1.0707	26.99	1.02	1.500			
0.3881	24835.80	3.8660	3.8660	1.0822	26.99	1.02	1.500			
0.3914	25046.73	3.8630	3.8630	1.0985	26.98	1.01	1.500			
0.3947	25257.90	3.8600	3.8600	1.1082	26.97	1.00	1.500			
0.3980	25471.48	3.8570	3.8570	1.1236	26.96	0.99	1.500			
0.4014	25688.60	3.8540	3.8540	1.1420	26.96	0.99	1.500			
0.4048	25909.17	3.8510	3.8510	1.1622	26.95	0.98	1.500			
0.4083	26134.10	3.8480	3.8481	1.1767	26.94	0.97	1.500			
0.4119	26361.27	3.8450	3.8450	1.1999	26.93	0.96	1.500			
0.4156	26596.04	3.8420	3.8420	1.2156	26.91	0.94	1.500			
0.4192	26831.94	3.8390	3.8390	1.2293	26.90	0.93	1.500			
0.4229	27067.80	3.8360	3.8359	1.2479	26.89	0.92	1.500			
0.4267	27308.26	3.8330	3.8331	1.2657	26.88	0.91	1.500			
0.4305	27550.75	3.8300	3.8299	1.2848	26.87	0.90	1.500			
0.4344	27800.04	3.8270	3.8270	1.3096	26.85	0.88	1.500			
0.4383	28050.79	3.8240	3.8241	1.3353	26.84	0.87	1.500			
0.4424	28313.59	3.8210	3.8210	1.3648	26.83	0.86	1.500			
0.4466	28579.43	3.8180	3.8180	1.3931	26.82	0.85	1.500			
0.4507	28847.44	3.8150	3.8150	1.4236	26.80	0.83	1.500			
0.4551	29124.36	3.8120	3.8121	1.4544	26.79	0.82	1.500			
0.4595	29407.20	3.8090	3.8089	1.4807	26.77	0.80	1.500			
0.4640	29693.91	3.8060	3.8061	1.5116	26.76	0.79	1.500			
0.4685	29987.16	3.8030	3.8030	1.5309	26.75	0.78	1.500			
0.4732	30285.05	3.8000	3.8000	1.5703	26.74	0.77	1.500			
0.4779	30586.06	3.7970	3.7970	1.5912	26.72	0.75	1.500			
0.4827	30893.38	3.7940	3.7939	1.6226	26.71	0.74	1.500			
0.4877	31210.39	3.7910	3.7911	1.6433	26.70	0.73	1.500			
0.4926	31526.19	3.7880	3.7880	1.6655	26.68	0.71	1.500			
0.4976	31849.28	3.7850	3.7851	1.6926	26.67	0.70	1.500			
0.5027	32171.81	3.7820	3.7820	1.7265	26.65	0.68	1.500			
0.5080	32508.89	3.7790	3.7789	1.7645	26.64	0.67	1.500			
0.5133	32850.23	3.7760	3.7756	1.7837	26.62	0.65	1.500	0.340	0.464	
0.5188	33200.72	3.7730	3.7731	1.8033	26.60	0.63	1.500			
0.5242	33546.99	3.7700	3.7700	1.8002	26.59	0.62	1.500			
0.5295	33891.19	3.7670	3.7670	1.7843	26.57	0.60	1.500			
0.5349	34232.02	3.7640	3.7640	1.7862	26.55	0.58	1.500			
0.5403	34576.71	3.7610	3.7610	1.7809	26.54	0.57	1.500			
0.5456	34916.95	3.7580	3.7580	1.7800	26.53	0.56	1.500			
0.5509	35256.12	3.7550	3.7551	1.7782	26.52	0.55	1.500			
0.5562	35596.91	3.7520	3.7520	1.7942	26.50	0.53	1.500			
0.5616	35942.92	3.7490	3.7490	1.8101	26.49	0.52	1.500			
0.5670	36288.37	3.7460	3.7460	1.8306	26.48	0.51	1.500			
0.5726	36643.73	3.7430	3.7430	1.8634	26.46	0.49	1.500			
0.5782	37004.30	3.7400	3.7400	1.8909	26.45	0.48	1.500			
0.5839	37368.45	3.7370	3.7370	1.9288	26.44	0.47	1.500			
0.5897	37742.07	3.7340	3.7340	1.9688	26.42	0.45	1.500			
0.5957	38123.08	3.7310	3.7310	1.9959	26.41	0.44	1.500			
0.6017	38508.97	3.7280	3.7281	2.0490	26.39	0.42	1.500			
0.6079	38907.16	3.7250	3.7248	2.1184	26.38	0.41	1.500			
0.6144	39322.62	3.7220	3.7220	2.1664	26.37	0.40	1.500			
0.6210	39745.16	3.7190	3.7191	2.2398	26.36	0.39	1.500			
0.6278	40178.30	3.7160	3.7161	2.3006	26.35	0.38	1.500			
0.6348	40625.70	3.7130	3.7130	2.3853	26.33	0.36	1.500			
0.6421	41092.30	3.7100	3.7100	2.4224	26.32	0.35	1.500			
0.6495	41565.04	3.7070	3.7070	2.4408	26.30	0.33	1.500			
0.6568	42037.40	3.7040	3.7039	2.4291	26.28	0.31	1.500			
0.6642	42511.60	3.7010	3.7010	2.3560	26.27	0.30	1.500			
0.6712	42959.36	3.6980	3.6980	2.2401	26.26	0.29	1.500			
0.6777	43375.07	3.6950	3.6950	2.0812	26.25	0.28	1.500			
0.6837	43756.60	3.6920	3.6919	1.9240	26.24	0.27	1.500			
0.6892	44106.70	3.6890	3.6891	1.7760	26.23	0.26	1.500			
0.6943	44432.60	3.6860	3.6860	1.6643	26.22	0.25	1.500			
0.6990	44735.71	3.6830	3.6831	1.5640	26.21	0.24	1.500			
0.7035	45022.38	3.6800	3.6800	1.4773	26.21	0.24	1.500			
0.7077	45295.26	3.6770	3.6770	1.4176	26.20	0.23	1.500			
0.7119	45559.88	3.6740	3.6740	1.3691	26.19	0.22	1.500			
0.7159	45815.18	3.6710	3.6710	1.3281	26.18	0.21	1.500			
0.7198	46066.31	3.6680	3.6680	1.2972	26.17	0.20	1.500			
0.7236	46307.83	3.6650	3.6650	1.2791	26.16	0.19	1.500			
0.7274	46550.58	3.6620	3.6619	1.2761	26.15	0.18	1.500			
0.7311	46792.36	3.6590	3.6590	1.2713	26.14	0.17	1.500			
0.7349	47035.97	3.6560	3.6560	1.2739	26.13	0.16	1.500			
0.7388	47280.94	3.6530	3.6531	1.2818	26.13	0.16	1.500			
0.7427	47531.83	3.6500	3.6500	1.2805	26.12	0.15	1.500			
0.7465	47778.37	3.6470	3.6470	1.2827	26.11	0.14	1.500			
0.7503	48021.42	3.6440	3.6441	1.2825	26.10	0.13	1.500			
0.7542	48268.16	3.6410	3.6411	1.2861	26.09	0.12	1.500			
0.7581	48516.20	3.6380	3.6378	1.2845	26.08	0.11	1.500			
0.7619	48762.53	3.6350	3.6351	1.2852	26.07	0.10	1.500			
0.7658	49011.08	3.6320	3.6320	1.2780	26.06	0.09	1.500			
0.7697	49257.72	3.6290	3.6290	1.2740	26.05	0.08	1.500			
0.7734	49499.71	3.6260	3.6260	1.2619	26.04	0.07	1.500			
0.7772	49740.92	3.6230	3.6230	1.2558	26.03	0.06	1.500			
0.7810	49981.33	3.6200	3.6199	1.2523	26.02	0.05	1.500			
0.7847	50221.75	3.6170	3.6170	1.2446	26.02	0.05	1.500			
0.7884	50459.86	3.6140	3.6140	1.2343	26.01	0.04	1.500			
0.7922	50698.73	3.6110	3.6110	1.2183	26.00	0.03	1.500			
0.7958	50932.23	3.6080	3.6080	1.1984	25.99	0.02	1.500			
0.7994	51160.43	3.6050	3.6051	1.1782	25.99	0.02	1.500			
0.8029	51384.34	3.6020	3.6019	1.1580	25.98	0.01	1.500			
0.8063	51603.28	3.5990	3.5990	1.1347	25.97	0.00	1.500			
0.8097	51819.58	3.5960	3.5960	1.1157	25.97	0.00	1.500			
0.8130	52031.70	3.5930	3.5930	1.0970	25.97	0.00	1.500			
0.8163	52241.76	3.5900	3.5899	1.0750	25.97	0.00	1.500			
0.8195	52450.43	3.5870	3.5870	1.0345	25.97	0.00	1.500			
0.8226	52648.93	3.5840	3.5840	0.9797	25.97	0.00	1.500			
0.8256	52839.82	3.5810	3.5810	0.9025	25.97	0.00	1.500			
0.8283	53009.25	3.5780	3.5781	0.8049	25.97	0.00	1.500			
0.8306	53155.91	3.5750	3.5750	0.6999	25.97	0.00	1.500			
0.8324	53276.43	3.5720	3.5719	0.5945	25.97	0.00	1.500			
0.8340	53375.51	3.5690	3.5690	0.4926	25.97	0.00	1.500			
0.8353	53458.11	3.5660	3.5659	0.4137	25.97	0.00	1.500			
0.8363	53525.07	3.5630	3.5630	0.3499	25.97	0.00	1.500			
0.8372	53583.24	3.5600	3.5600	0.2991	25.97	0.00	1.500			
0.8380	53634.45	3.5570	3.5570	0.2637	25.97	0.00	1.500			
0.8387	53679.13	3.5540	3.5540	0.2295	25.97	0.00	1.500			
0.8394	53719.49	3.5510	3.5509	0.2071	25.97	0.00	1.500			
0.8399	53755.61	3.5480	3.5480	0.1856	25.97	0.00	1.500			
0.8405	53789.40	3.5450	3.5449	0.1681	25.97	0.00	1.500			
0.8409	53819.78	3.5420	3.5422	0.1532	25.97	0.00	1.500			
0.8414	53847.38	3.5390	3.5390	0.1375	25.97	0.00	1.500			
0.8418	53872.20	3.5360	3.5358	0.1228	25.97	0.00	1.500			
0.8421	53894.13	3.5330	3.5330	0.1076	25.97	0.00	1.500			
0.8424	53913.44	3.5300	3.5300	0.0936	25.97	0.00	1.500			
0.8427	53930.09	3.5270	3.5272	0.0796	25.97	0.00	1.500			
0.8429	53944.78	3.5240	3.5243	0.0651	25.97	0.00	1.500			
0.8431	53955.77	3.5210	3.5214	0.0494	25.97	0.00	1.500			
0.8432	53963.74	3.5180	3.5189	0.0337	25.97	0.00	1.500			
