Ah_balance (normalized)	Ah_balance (mAh)	Voltage - fit (V)	Voltage -  interpolate (V)	dQ/dV (1/V)	Temperature (°C)	Temperature - diff (°C)	Current (C)	R_DC 0ms (mOhm)	R_DC 50ms (mOhm)	R_DC 50 ms PEC (mOhm)
0.2798	17904.48	3.9710	3.9710	0.8458	27.13	1.16	1.500			
0.2823	18068.77	3.9680	3.9679	0.8648	27.12	1.15	1.500			
0.2849	18236.36	3.9650	3.9650	0.8810	27.12	1.15	1.500			
0.2876	18409.00	3.9620	3.9621	0.8914	27.12	1.15	1.500			
0.2903	18581.65	3.9590	3.9590	0.8986	27.12	1.15	1.500			
0.2931	18756.98	3.9560	3.9560	0.9028	27.11	1.14	1.500			
0.2958	18930.04	3.9530	3.9530	0.9068	27.11	1.14	1.500			
0.2985	19103.62	3.9500	3.9500	0.9090	27.11	1.14	1.500			
0.3012	19277.75	3.9470	3.9470	0.9081	27.11	1.14	1.500			
0.3039	19451.45	3.9440	3.9439	0.9124	27.11	1.14	1.500			
0.3067	19627.61	3.9410	3.9411	0.9222	27.10	1.13	1.500			
0.3095	19805.71	3.9380	3.9379	0.9253	27.10	1.13	1.500			
0.3122	19983.89	3.9350	3.9351	0.9311	27.10	1.13	1.500			
0.3150	20162.36	3.9320	3.9321	0.9362	27.09	1.12	1.500			
0.3179	20344.62	3.9290	3.9290	0.9397	27.09	1.12	1.500			
0.3207	20525.92	3.9260	3.9260	0.9432	27.08	1.11	1.500			
0.3235	20705.59	3.9230	3.9231	0.9450	27.08	1.11	1.500			
0.3264	20886.94	3.9200	3.9200	0.9505	27.08	1.11	1.500			
0.3292	21070.08	3.9170	3.9170	0.9628	27.07	1.10	1.500			
0.3321	21254.80	3.9140	3.9139	0.9711	27.07	1.10	1.500			
0.3350	21442.29	3.9110	3.9110	0.9822	27.06	1.09	1.500			
0.3380	21633.53	3.9080	3.9080	0.9934	27.06	1.09	1.500			
0.3410	21826.37	3.9050	3.9050	0.9982	27.06	1.09	1.500			
0.3440	22019.19	3.9020	3.9021	1.0023	27.05	1.08	1.500			
0.3470	22210.29	3.8990	3.8990	1.0074	27.05	1.08	1.500			
0.3501	22405.51	3.8960	3.8959	1.0121	27.05	1.08	1.500			
0.3531	22597.73	3.8930	3.8930	1.0217	27.05	1.08	1.500			
0.3562	22793.68	3.8900	3.8901	1.0371	27.04	1.07	1.500			
0.3593	22994.17	3.8870	3.8870	1.0585	27.04	1.07	1.500			
0.3625	23200.93	3.8840	3.8840	1.0695	27.04	1.07	1.500			
0.3658	23408.42	3.8810	3.8811	1.0804	27.03	1.06	1.500			
0.3690	23616.36	3.8780	3.8780	1.0903	27.03	1.06	1.500			
0.3723	23828.69	3.8750	3.8750	1.1023	27.03	1.06	1.500			
0.3756	24039.52	3.8720	3.8720	1.0993	27.02	1.05	1.500			
0.3789	24249.07	3.8690	3.8690	1.1128	27.02	1.05	1.500			
0.3822	24462.02	3.8660	3.8662	1.1273	27.01	1.04	1.500			
0.3856	24681.60	3.8630	3.8629	1.1460	27.01	1.04	1.500			
0.3891	24902.22	3.8600	3.8600	1.1620	27.01	1.04	1.500			
0.3926	25125.67	3.8570	3.8571	1.1845	27.00	1.03	1.500			
0.3962	25355.86	3.8540	3.8539	1.2058	26.99	1.02	1.500			
0.3998	25590.14	3.8510	3.8510	1.2209	26.99	1.02	1.500			
0.4035	25824.76	3.8480	3.8480	1.2401	26.98	1.01	1.500			
0.4073	26065.25	3.8450	3.8451	1.2589	26.98	1.01	1.500			
0.4111	26309.12	3.8420	3.8418	1.2806	26.97	1.00	1.500			
0.4149	26555.83	3.8390	3.8390	1.3011	26.96	0.99	1.500			
0.4189	26807.61	3.8360	3.8360	1.3206	26.96	0.99	1.500			
0.4228	27062.27	3.8330	3.8330	1.3488	26.95	0.98	1.500			
0.4269	27323.55	3.8300	3.8300	1.3658	26.94	0.97	1.500			
0.4310	27585.02	3.8270	3.8270	1.3989	26.94	0.97	1.500			
0.4353	27857.72	3.8240	3.8239	1.4326	26.93	0.96	1.500			
0.4396	28134.82	3.8210	3.8212	1.4631	26.92	0.95	1.500			
0.4441	28419.64	3.8180	3.8180	1.4987	26.92	0.95	1.500			
0.4486	28710.48	3.8150	3.8151	1.5484	26.91	0.94	1.500			
0.4533	29013.50	3.8120	3.8120	1.5829	26.90	0.93	1.500			
0.4581	29321.24	3.8090	3.8089	1.6257	26.89	0.92	1.500			
0.4631	29635.61	3.8060	3.8061	1.6523	26.89	0.92	1.500			
0.4681	29959.95	3.8030	3.8031	1.6923	26.88	0.91	1.500			
0.4732	30285.81	3.8000	3.8000	1.7421	26.87	0.90	1.500			
0.4784	30619.54	3.7970	3.7969	1.7815	26.86	0.89	1.500			
0.4838	30965.91	3.7940	3.7940	1.8429	26.84	0.87	1.500			
0.4895	31328.14	3.7910	3.7911	1.9159	26.83	0.86	1.500			
0.4953	31701.63	3.7880	3.7880	1.9536	26.82	0.85	1.500			
0.5013	32081.02	3.7850	3.7851	2.0226	26.80	0.83	1.500			
0.5074	32473.47	3.7820	3.7821	2.0727	26.79	0.82	1.500			
0.5137	32877.86	3.7790	3.7789	2.1341	26.77	0.80	1.500			
0.5202	33293.05	3.7760	3.7761	2.1607	26.75	0.78	1.500			
0.5268	33716.10	3.7730	3.7730	2.2519	26.74	0.77	1.500			
0.5336	34148.49	3.7700	3.7700	2.3057	26.72	0.75	1.500			
0.5406	34598.23	3.7670	3.7670	2.3161	26.70	0.73	1.500			
0.5475	35042.79	3.7640	3.7641	2.3732	26.68	0.71	1.500			
0.5548	35505.17	3.7610	3.7610	2.3999	26.66	0.69	1.500			
0.5620	35970.28	3.7580	3.7581	2.4222	26.64	0.67	1.500	0.330	0.442	
0.5694	36443.30	3.7550	3.7552	2.4213	26.61	0.64	1.500			
0.5770	36927.18	3.7520	3.7519	2.3889	26.59	0.62	1.500			
0.5838	37360.98	3.7490	3.7490	2.3001	26.57	0.60	1.500			
0.5907	37804.30	3.7460	3.7460	2.2918	26.55	0.58	1.500			
0.5975	38242.86	3.7430	3.7430	2.2483	26.53	0.56	1.500			
0.6042	38671.13	3.7400	3.7400	2.2249	26.51	0.54	1.500			
0.6108	39093.63	3.7370	3.7369	2.2065	26.49	0.52	1.500			
0.6174	39514.60	3.7340	3.7340	2.1945	26.47	0.50	1.500			
0.6240	39935.74	3.7310	3.7310	2.2141	26.45	0.48	1.500			
0.6307	40361.98	3.7280	3.7281	2.2413	26.44	0.47	1.500			
0.6374	40793.68	3.7250	3.7249	2.2700	26.42	0.45	1.500			
0.6443	41237.16	3.7220	3.7220	2.2737	26.39	0.42	1.500			
0.6511	41671.27	3.7190	3.7191	2.3603	26.37	0.40	1.500			
0.6582	42122.84	3.7160	3.7160	2.4319	26.35	0.38	1.500			
0.6657	42601.83	3.7130	3.7130	2.4847	26.33	0.36	1.500			
0.6733	43091.62	3.7100	3.7101	2.5734	26.32	0.35	1.500			
0.6813	43602.35	3.7070	3.7071	2.7429	26.30	0.33	1.500			
0.6894	44123.80	3.7040	3.7040	2.8354	26.28	0.31	1.500			
0.6983	44693.92	3.7010	3.7011	2.9109	26.26	0.29	1.500			
0.7071	45253.98	3.6980	3.6980	2.9637	26.23	0.26	1.500			
0.7161	45828.87	3.6950	3.6951	2.9049	26.21	0.24	1.500			
0.7249	46396.80	3.6920	3.6922	2.8640	26.20	0.23	1.500			
0.7335	46943.25	3.6890	3.6889	2.7151	26.18	0.21	1.500			
0.7414	47451.45	3.6860	3.6860	2.4802	26.17	0.20	1.500			
0.7483	47890.07	3.6830	3.6831	2.2323	26.17	0.20	1.500			
0.7545	48290.66	3.6800	3.6800	2.0132	26.16	0.19	1.500			
0.7600	48643.04	3.6770	3.6769	1.8290	26.15	0.18	1.500			
0.7652	48972.23	3.6740	3.6740	1.6915	26.14	0.17	1.500			
0.7701	49284.04	3.6710	3.6709	1.5864	26.14	0.17	1.500			
0.7746	49577.12	3.6680	3.6680	1.5008	26.13	0.16	1.500			
0.7790	49856.01	3.6650	3.6650	1.4229	26.12	0.15	1.500			
0.7831	50121.23	3.6620	3.6620	1.3550	26.11	0.14	1.500			
0.7870	50369.99	3.6590	3.6590	1.2968	26.11	0.14	1.500			
0.7908	50609.13	3.6560	3.6560	1.2518	26.10	0.13	1.500			
0.7944	50839.15	3.6530	3.6530	1.2329	26.09	0.12	1.500			
0.7980	51073.99	3.6500	3.6500	1.2255	26.09	0.12	1.500			
0.8016	51302.41	3.6470	3.6470	1.2308	26.08	0.11	1.500			
0.8053	51540.50	3.6440	3.6440	1.2531	26.07	0.10	1.500			
0.8091	51783.16	3.6410	3.6410	1.2748	26.06	0.09	1.500			
0.8130	52031.55	3.6380	3.6380	1.2956	26.06	0.09	1.500			
0.8169	52283.46	3.6350	3.6351	1.3133	26.05	0.08	1.500			
0.8210	52540.96	3.6320	3.6319	1.3126	26.04	0.07	1.500			
0.8249	52795.98	3.6290	3.6290	1.3201	26.04	0.07	1.500			
0.8288	53045.61	3.6260	3.6261	1.3138	26.03	0.06	1.500			
0.8328	53298.38	3.6230	3.6231	1.3152	26.03	0.06	1.500			
0.8367	53549.45	3.6200	3.6199	1.3152	26.02	0.05	1.500			
0.8407	53802.40	3.6170	3.6171	1.3154	26.01	0.04	1.500			
0.8446	54056.52	3.6140	3.6140	1.3166	26.00	0.03	1.500			
0.8486	54310.96	3.6110	3.6110	1.3178	25.99	0.02	1.500			
0.8526	54564.05	3.6080	3.6080	1.3098	25.99	0.02	1.500			
0.8565	54813.69	3.6050	3.6050	1.3080	25.98	0.01	1.500			
0.8604	55065.75	3.6020	3.6018	1.3051	25.97	0.00	1.500			
0.8643	55317.62	3.5990	3.5990	1.2907	25.97	-0.00	1.500			
0.8682	55566.18	3.5960	3.5961	1.2768	25.96	-0.01	1.500			
0.8721	55813.21	3.5930	3.5930	1.2595	25.96	-0.01	1.500			
0.8758	56050.08	3.5900	3.5900	1.2425	25.96	-0.01	1.500			
0.8794	56282.71	3.5870	3.5870	1.2299	25.96	-0.01	1.500			
0.8831	56515.41	3.5840	3.5840	1.2218	25.95	-0.02	1.500			
0.8867	56749.00	3.5810	3.5810	1.2249	25.95	-0.02	1.500			
0.8904	56984.78	3.5780	3.5780	1.2343	25.95	-0.02	1.500			
0.8942	57226.89	3.5750	3.5750	1.2330	25.96	-0.01	1.500			
0.8980	57469.31	3.5720	3.5719	1.2061	25.96	-0.01	1.500			
0.9018	57712.04	3.5690	3.5689	1.1274	25.96	-0.01	1.500			
0.9052	57931.31	3.5660	3.5662	1.0185	25.97	-0.00	1.500			
0.9082	58127.31	3.5630	3.5632	0.8846	25.97	-0.00	1.500			
0.9106	58281.03	3.5600	3.5600	0.7206	25.97	-0.00	1.500			
0.9124	58392.75	3.5570	3.5570	0.5710	25.97	0.00	1.500			
0.9138	58480.16	3.5540	3.5539	0.4507	25.97	0.00	1.500			
0.9148	58545.94	3.5510	3.5509	0.3578	25.97	0.00	1.500			
0.9157	58603.65	3.5480	3.5479	0.2988	25.97	0.00	1.500			
0.9164	58652.44	3.5450	3.5449	0.2461	25.97	0.00	1.500			
0.9171	58693.17	3.5420	3.5419	0.2109	25.97	0.00	1.500			
0.9176	58727.85	3.5390	3.5390	0.1824	25.98	0.01	1.500			
0.9181	58759.79	3.5360	3.5361	0.1580	25.98	0.01	1.500			
0.9185	58787.05	3.5330	3.5329	0.1383	25.98	0.01	1.500			
0.9189	58811.29	3.5300	3.5299	0.1186	25.98	0.01	1.500			
0.9192	58831.98	3.5270	3.5270	0.1002	25.98	0.01	1.500			
0.9195	58849.33	3.5240	3.5242	0.0826	25.98	0.01	1.500			
0.9197	58863.55	3.5210	3.5212	0.0655	25.98	0.01	1.500			
0.9199	58874.57	3.5180	3.5184	0.0465	25.98	0.01	1.500			
