Ah_balance (normalized)	Ah_balance (mAh)	Voltage - fit (V)	Voltage -  interpolate (V)	dQ/dV (1/V)	Temperature (°C)	Temperature - diff (°C)	Current (C)	R_DC 0ms (mOhm)	R_DC 50ms (mOhm)	R_DC 50 ms PEC (mOhm)
0.2845	18209.70	3.9700	3.9700	0.8666	27.02	1.04	1.500			
0.2872	18379.10	3.9670	3.9670	0.8930	27.01	1.03	1.500			
0.2899	18551.10	3.9640	3.9639	0.9023	27.01	1.03	1.500			
0.2926	18726.72	3.9610	3.9612	0.9103	27.01	1.03	1.500			
0.2954	18903.13	3.9580	3.9579	0.9166	27.00	1.02	1.500			
0.2981	19079.57	3.9550	3.9550	0.9199	27.00	1.02	1.500			
0.3009	19256.27	3.9520	3.9520	0.9169	27.00	1.02	1.500			
0.3036	19432.87	3.9490	3.9490	0.9246	26.99	1.01	1.500			
0.3064	19610.12	3.9460	3.9460	0.9245	26.99	1.01	1.500			
0.3092	19785.64	3.9430	3.9430	0.9283	26.99	1.01	1.500			
0.3119	19964.71	3.9400	3.9400	0.9375	26.98	1.00	1.500			
0.3148	20146.07	3.9370	3.9370	0.9419	26.98	1.00	1.500			
0.3176	20327.55	3.9340	3.9339	0.9485	26.98	1.00	1.500			
0.3205	20511.72	3.9310	3.9311	0.9571	26.97	0.99	1.500			
0.3234	20694.41	3.9280	3.9280	0.9629	26.97	0.99	1.500			
0.3263	20881.18	3.9250	3.9249	0.9674	26.96	0.98	1.500			
0.3292	21066.73	3.9220	3.9220	0.9694	26.96	0.98	1.500			
0.3321	21251.60	3.9190	3.9190	0.9772	26.95	0.97	1.500			
0.3350	21439.85	3.9160	3.9160	0.9881	26.95	0.97	1.500			
0.3380	21629.93	3.9130	3.9130	0.9955	26.94	0.96	1.500			
0.3410	21821.78	3.9100	3.9100	1.0072	26.94	0.96	1.500			
0.3440	22017.45	3.9070	3.9071	1.0151	26.93	0.95	1.500			
0.3471	22215.53	3.9040	3.9040	1.0256	26.92	0.94	1.500			
0.3502	22413.21	3.9010	3.9009	1.0286	26.92	0.94	1.500			
0.3533	22609.81	3.8980	3.8980	1.0315	26.91	0.93	1.500			
0.3563	22806.28	3.8950	3.8951	1.0373	26.91	0.93	1.500			
0.3594	23004.71	3.8920	3.8920	1.0515	26.90	0.92	1.500			
0.3626	23206.73	3.8890	3.8890	1.0650	26.89	0.91	1.500			
0.3659	23414.50	3.8860	3.8860	1.0808	26.89	0.91	1.500			
0.3691	23623.49	3.8830	3.8829	1.0984	26.88	0.90	1.500			
0.3725	23837.36	3.8800	3.8801	1.1118	26.87	0.89	1.500			
0.3758	24052.05	3.8770	3.8770	1.1241	26.87	0.89	1.500			
0.3792	24269.04	3.8740	3.8740	1.1316	26.86	0.88	1.500			
0.3826	24486.80	3.8710	3.8711	1.1414	26.85	0.87	1.500			
0.3860	24704.70	3.8680	3.8680	1.1590	26.85	0.87	1.500			
0.3895	24927.68	3.8650	3.8648	1.1794	26.84	0.86	1.500			
0.3931	25156.31	3.8620	3.8620	1.1905	26.83	0.85	1.500			
0.3967	25387.07	3.8590	3.8590	1.2106	26.83	0.85	1.500			
0.4004	25623.44	3.8560	3.8561	1.2277	26.82	0.84	1.500			
0.4041	25861.26	3.8530	3.8530	1.2482	26.82	0.84	1.500			
0.4078	26099.99	3.8500	3.8499	1.2682	26.81	0.83	1.500			
0.4116	26343.97	3.8470	3.8471	1.2906	26.80	0.82	1.500			
0.4155	26593.32	3.8440	3.8439	1.3193	26.80	0.82	1.500			
0.4195	26850.60	3.8410	3.8410	1.3537	26.79	0.81	1.500			
0.4237	27113.73	3.8380	3.8380	1.3745	26.79	0.81	1.500			
0.4278	27380.27	3.8350	3.8351	1.4037	26.78	0.80	1.500			
0.4321	27651.58	3.8320	3.8320	1.4295	26.77	0.79	1.500			
0.4364	27929.02	3.8290	3.8289	1.4577	26.77	0.79	1.500			
0.4408	28211.07	3.8260	3.8260	1.4872	26.76	0.78	1.500			
0.4453	28498.27	3.8230	3.8230	1.5197	26.75	0.77	1.500			
0.4499	28793.38	3.8200	3.8200	1.5574	26.74	0.76	1.500			
0.4546	29096.82	3.8170	3.8170	1.5982	26.73	0.75	1.500			
0.4594	29404.62	3.8140	3.8140	1.6372	26.72	0.74	1.500			
0.4644	29723.40	3.8110	3.8110	1.6828	26.71	0.73	1.500			
0.4696	30051.25	3.8080	3.8080	1.7250	26.70	0.72	1.500			
0.4748	30384.99	3.8050	3.8050	1.7650	26.70	0.72	1.500			
0.4801	30726.55	3.8020	3.8020	1.8097	26.69	0.71	1.500			
0.4855	31075.01	3.7990	3.7990	1.8690	26.68	0.70	1.500			
0.4912	31439.18	3.7960	3.7961	1.9251	26.68	0.70	1.500			
0.4971	31815.88	3.7930	3.7930	1.9731	26.67	0.69	1.500			
0.5031	32199.43	3.7900	3.7901	2.0646	26.66	0.68	1.500			
0.5094	32602.80	3.7870	3.7870	2.1230	26.65	0.67	1.500			
0.5159	33019.96	3.7840	3.7840	2.1980	26.64	0.66	1.500			
0.5226	33447.77	3.7810	3.7811	2.2672	26.63	0.65	1.500			
0.5296	33896.09	3.7780	3.7780	2.3384	26.62	0.64	1.500			
0.5367	34347.67	3.7750	3.7750	2.3672	26.60	0.62	1.500			
0.5440	34813.03	3.7720	3.7720	2.3991	26.59	0.61	1.500			
0.5512	35275.08	3.7690	3.7690	2.4388	26.58	0.60	1.500			
0.5582	35724.53	3.7660	3.7661	2.5267	26.56	0.58	1.500			
0.5660	36222.36	3.7630	3.7628	2.6326	26.55	0.57	1.500	0.363	0.449	
0.5741	36745.09	3.7600	3.7603	2.6707	26.53	0.55	1.500			
0.5826	37285.75	3.7570	3.7570	2.7192	26.52	0.54	1.500			
0.5906	37799.78	3.7540	3.7540	2.6204	26.51	0.53	1.500			
0.5981	38276.13	3.7510	3.7511	2.5092	26.49	0.51	1.500			
0.6056	38755.45	3.7480	3.7480	2.4758	26.48	0.50	1.500			
0.6129	39222.47	3.7450	3.7450	2.4245	26.46	0.48	1.500			
0.6200	39682.09	3.7420	3.7420	2.3747	26.45	0.47	1.500			
0.6272	40138.15	3.7390	3.7390	2.3514	26.43	0.45	1.500			
0.6341	40582.20	3.7360	3.7360	2.3265	26.42	0.44	1.500			
0.6411	41027.59	3.7330	3.7330	2.3295	26.41	0.43	1.500			
0.6480	41471.85	3.7300	3.7300	2.3098	26.39	0.41	1.500			
0.6549	41914.44	3.7270	3.7270	2.3519	26.38	0.40	1.500			
0.6620	42368.05	3.7240	3.7240	2.3870	26.37	0.39	1.500			
0.6693	42833.25	3.7210	3.7210	2.4063	26.35	0.37	1.500			
0.6765	43296.79	3.7180	3.7181	2.4673	26.34	0.36	1.500			
0.6840	43775.34	3.7150	3.7150	2.5418	26.33	0.35	1.500			
0.6916	44261.93	3.7120	3.7120	2.7093	26.32	0.34	1.500			
0.7000	44799.48	3.7090	3.7090	2.8572	26.30	0.32	1.500			
0.7088	45366.30	3.7060	3.7062	2.9749	26.29	0.31	1.500			
0.7181	45956.66	3.7030	3.7030	3.1172	26.27	0.29	1.500			
0.7274	46550.71	3.7000	3.7002	3.0848	26.25	0.27	1.500			
0.7371	47174.38	3.6970	3.6969	3.1149	26.23	0.25	1.500			
0.7462	47754.58	3.6940	3.6940	2.9288	26.22	0.24	1.500			
0.7547	48297.67	3.6910	3.6911	2.7200	26.21	0.23	1.500			
0.7625	48801.53	3.6880	3.6879	2.4887	26.19	0.21	1.500			
0.7696	49252.09	3.6850	3.6851	2.2482	26.19	0.21	1.500			
0.7759	49657.14	3.6820	3.6820	2.0349	26.18	0.20	1.500			
0.7815	50012.84	3.6790	3.6791	1.8521	26.18	0.20	1.500			
0.7867	50350.73	3.6760	3.6760	1.6980	26.17	0.19	1.500			
0.7916	50661.68	3.6730	3.6729	1.5863	26.17	0.19	1.500			
0.7961	50950.03	3.6700	3.6701	1.4794	26.16	0.18	1.500			
0.8004	51226.08	3.6670	3.6670	1.4033	26.16	0.18	1.500			
0.8045	51486.15	3.6640	3.6640	1.3336	26.15	0.17	1.500			
0.8083	51730.08	3.6610	3.6609	1.2617	26.15	0.17	1.500			
0.8119	51962.33	3.6580	3.6581	1.2231	26.14	0.16	1.500			
0.8155	52189.20	3.6550	3.6549	1.1945	26.14	0.16	1.500			
0.8190	52413.45	3.6520	3.6520	1.1856	26.13	0.15	1.500			
0.8224	52636.43	3.6490	3.6490	1.1867	26.13	0.15	1.500			
0.8260	52864.23	3.6460	3.6460	1.2000	26.12	0.14	1.500			
0.8296	53096.36	3.6430	3.6430	1.2168	26.12	0.14	1.500			
0.8333	53332.16	3.6400	3.6400	1.2334	26.11	0.13	1.500			
0.8370	53570.92	3.6370	3.6371	1.2421	26.10	0.12	1.500			
0.8408	53811.96	3.6340	3.6340	1.2453	26.10	0.12	1.500			
0.8446	54052.28	3.6310	3.6310	1.2472	26.09	0.11	1.500			
0.8483	54290.97	3.6280	3.6281	1.2454	26.08	0.10	1.500			
0.8520	54531.11	3.6250	3.6249	1.2395	26.08	0.10	1.500			
0.8557	54767.35	3.6220	3.6221	1.2465	26.07	0.09	1.500			
0.8595	55006.25	3.6190	3.6190	1.2531	26.06	0.08	1.500			
0.8632	55247.53	3.6160	3.6159	1.2620	26.05	0.07	1.500			
0.8671	55491.98	3.6130	3.6131	1.2653	26.05	0.07	1.500			
0.8709	55734.59	3.6100	3.6100	1.2716	26.04	0.06	1.500			
0.8747	55982.14	3.6070	3.6070	1.2661	26.03	0.05	1.500			
0.8786	56229.03	3.6040	3.6040	1.2578	26.03	0.05	1.500			
0.8823	56468.21	3.6010	3.6010	1.2415	26.02	0.04	1.500			
0.8860	56704.11	3.5980	3.5981	1.2258	26.02	0.04	1.500			
0.8896	56936.51	3.5950	3.5950	1.2110	26.01	0.03	1.500			
0.8932	57166.28	3.5920	3.5920	1.2042	26.01	0.03	1.500			
0.8968	57393.18	3.5890	3.5890	1.1946	26.00	0.02	1.500			
0.9004	57623.39	3.5860	3.5860	1.2054	26.00	0.02	1.500			
0.9040	57854.25	3.5830	3.5830	1.2185	25.99	0.01	1.500			
0.9077	58090.12	3.5800	3.5800	1.2234	25.99	0.01	1.500			
0.9114	58331.28	3.5770	3.5769	1.2138	25.98	0.00	1.500			
0.9153	58580.81	3.5740	3.5739	1.1553	25.98	-0.00	1.500			
0.9188	58806.05	3.5710	3.5711	1.0580	25.97	-0.01	1.500			
0.9221	59013.32	3.5680	3.5682	0.9349	25.97	-0.01	1.500			
0.9247	59177.74	3.5650	3.5650	0.7726	25.97	-0.01	1.500			
0.9265	59298.63	3.5620	3.5621	0.6166	25.97	-0.01	1.500			
0.9280	59392.90	3.5590	3.5590	0.4884	25.96	-0.02	1.500			
0.9292	59468.19	3.5560	3.5559	0.3712	25.96	-0.02	1.500			
0.9301	59527.13	3.5530	3.5529	0.3035	25.96	-0.02	1.500			
0.9308	59570.58	3.5500	3.5501	0.2422	25.96	-0.02	1.500			
0.9314	59611.34	3.5470	3.5470	0.1977	25.96	-0.02	1.500			
0.9319	59642.60	3.5440	3.5440	0.1563	25.96	-0.02	1.500			
0.9323	59669.15	3.5410	3.5409	0.1253	25.96	-0.02	1.500			
0.9327	59689.89	3.5380	3.5381	0.0961	25.96	-0.02	1.500			
0.9329	59705.19	3.5350	3.5352	0.0691	25.96	-0.02	1.500			
0.9331	59715.90	3.5320	3.5324	0.0424	25.96	-0.02	1.500			
