Ah_balance (normalized)	Ah_balance (mAh)	Voltage - fit (V)	Voltage -  interpolate (V)	dQ/dV (1/V)	Temperature (°C)	Temperature - diff (°C)	Current (C)	R_DC 0ms (mOhm)	R_DC 50ms (mOhm)	R_DC 50 ms PEC (mOhm)
0.2768	17717.71	3.9910	3.9910	0.8294	27.29	1.33	1.500			
0.2793	17877.83	3.9880	3.9880	0.8377	27.28	1.32	1.500			
0.2819	18039.80	3.9850	3.9850	0.8458	27.28	1.32	1.500			
0.2844	18204.07	3.9820	3.9820	0.8462	27.27	1.31	1.500			
0.2870	18366.50	3.9790	3.9790	0.8468	27.26	1.30	1.500			
0.2895	18529.55	3.9760	3.9761	0.8510	27.26	1.30	1.500			
0.2921	18692.96	3.9730	3.9729	0.8498	27.25	1.29	1.500			
0.2946	18854.67	3.9700	3.9700	0.8516	27.25	1.29	1.500			
0.2972	19018.27	3.9670	3.9670	0.8584	27.24	1.28	1.500			
0.2997	19183.30	3.9640	3.9640	0.8654	27.23	1.27	1.500			
0.3024	19350.98	3.9610	3.9610	0.8704	27.23	1.27	1.500			
0.3050	19519.32	3.9580	3.9580	0.8733	27.22	1.26	1.500			
0.3076	19688.13	3.9550	3.9550	0.8749	27.21	1.25	1.500			
0.3103	19857.09	3.9520	3.9520	0.8765	27.21	1.25	1.500			
0.3129	20023.58	3.9490	3.9490	0.8760	27.20	1.24	1.500			
0.3155	20191.27	3.9460	3.9460	0.8813	27.19	1.23	1.500			
0.3181	20360.43	3.9430	3.9430	0.8838	27.19	1.23	1.500			
0.3208	20530.41	3.9400	3.9400	0.8916	27.18	1.22	1.500			
0.3235	20703.33	3.9370	3.9370	0.8984	27.17	1.21	1.500			
0.3262	20876.77	3.9340	3.9340	0.9039	27.17	1.21	1.500			
0.3289	21051.52	3.9310	3.9310	0.9092	27.16	1.20	1.500			
0.3317	21226.56	3.9280	3.9280	0.9108	27.15	1.19	1.500			
0.3344	21401.41	3.9250	3.9250	0.9164	27.14	1.18	1.500			
0.3372	21578.39	3.9220	3.9219	0.9213	27.14	1.18	1.500			
0.3399	21753.97	3.9190	3.9191	0.9257	27.13	1.17	1.500			
0.3427	21932.59	3.9160	3.9158	0.9350	27.12	1.16	1.500			
0.3455	22112.78	3.9130	3.9130	0.9394	27.11	1.15	1.500			
0.3483	22294.21	3.9100	3.9100	0.9478	27.10	1.14	1.500			
0.3512	22477.19	3.9070	3.9071	0.9543	27.10	1.14	1.500			
0.3541	22660.20	3.9040	3.9040	0.9646	27.09	1.13	1.500			
0.3570	22847.49	3.9010	3.9010	0.9728	27.08	1.12	1.500			
0.3599	23033.70	3.8980	3.8980	0.9785	27.07	1.11	1.500			
0.3629	23222.76	3.8950	3.8950	0.9890	27.06	1.10	1.500			
0.3659	23414.82	3.8920	3.8921	1.0035	27.05	1.09	1.500			
0.3689	23607.84	3.8890	3.8890	1.0118	27.05	1.09	1.500			
0.3719	23804.41	3.8860	3.8860	1.0187	27.04	1.08	1.500			
0.3750	24000.16	3.8830	3.8830	1.0232	27.03	1.07	1.500			
0.3781	24196.90	3.8800	3.8801	1.0385	27.02	1.06	1.500			
0.3812	24397.04	3.8770	3.8770	1.0430	27.01	1.05	1.500			
0.3843	24597.49	3.8740	3.8739	1.0516	27.00	1.04	1.500			
0.3875	24798.99	3.8710	3.8710	1.0638	26.99	1.03	1.500			
0.3907	25004.87	3.8680	3.8682	1.0795	26.98	1.02	1.500			
0.3940	25214.23	3.8650	3.8650	1.0951	26.97	1.01	1.500			
0.3973	25425.06	3.8620	3.8620	1.1089	26.95	0.99	1.500			
0.4006	25638.07	3.8590	3.8591	1.1260	26.94	0.98	1.500			
0.4040	25858.40	3.8560	3.8559	1.1401	26.93	0.97	1.500			
0.4075	26077.65	3.8530	3.8529	1.1501	26.92	0.96	1.500			
0.4109	26298.42	3.8500	3.8501	1.1652	26.91	0.95	1.500			
0.4144	26523.35	3.8470	3.8470	1.1838	26.90	0.94	1.500			
0.4180	26752.02	3.8440	3.8440	1.2050	26.89	0.93	1.500			
0.4216	26985.31	3.8410	3.8410	1.2251	26.88	0.92	1.500			
0.4253	27222.30	3.8380	3.8380	1.2426	26.86	0.90	1.500			
0.4292	27465.70	3.8350	3.8350	1.2621	26.85	0.89	1.500			
0.4329	27708.18	3.8320	3.8320	1.2836	26.83	0.87	1.500			
0.4368	27956.36	3.8290	3.8290	1.2993	26.82	0.86	1.500			
0.4407	28206.61	3.8260	3.8260	1.3199	26.81	0.85	1.500			
0.4447	28461.68	3.8230	3.8231	1.3411	26.79	0.83	1.500			
0.4488	28721.99	3.8200	3.8200	1.3663	26.78	0.82	1.500			
0.4529	28986.33	3.8170	3.8170	1.3922	26.77	0.81	1.500			
0.4571	29255.02	3.8140	3.8140	1.4188	26.76	0.80	1.500			
0.4614	29529.27	3.8110	3.8110	1.4476	26.75	0.79	1.500			
0.4658	29811.07	3.8080	3.8079	1.4739	26.73	0.77	1.500			
0.4703	30096.16	3.8050	3.8050	1.5022	26.72	0.76	1.500			
0.4748	30388.28	3.8020	3.8020	1.5247	26.70	0.74	1.500			
0.4794	30683.18	3.7990	3.7990	1.5461	26.69	0.73	1.500			
0.4841	30980.92	3.7960	3.7961	1.5650	26.67	0.71	1.500			
0.4888	31282.03	3.7930	3.7930	1.5908	26.65	0.69	1.500			
0.4936	31588.90	3.7900	3.7900	1.6235	26.64	0.68	1.500			
0.4985	31901.24	3.7870	3.7870	1.6577	26.62	0.66	1.500			
0.5036	32229.61	3.7840	3.7840	1.6775	26.60	0.64	1.500			
0.5086	32553.12	3.7810	3.7811	1.6958	26.59	0.63	1.500	0.352	0.479	
0.5138	32883.40	3.7780	3.7781	1.7050	26.57	0.61	1.500			
0.5189	33209.61	3.7750	3.7750	1.7061	26.56	0.60	1.500			
0.5240	33534.36	3.7720	3.7721	1.7071	26.54	0.58	1.500			
0.5291	33864.32	3.7690	3.7689	1.7058	26.52	0.56	1.500			
0.5343	34192.34	3.7660	3.7660	1.7149	26.51	0.55	1.500			
0.5394	34522.58	3.7630	3.7631	1.7260	26.49	0.53	1.500			
0.5446	34855.99	3.7600	3.7600	1.7376	26.47	0.51	1.500			
0.5499	35190.43	3.7570	3.7570	1.7545	26.46	0.50	1.500			
0.5552	35529.82	3.7540	3.7540	1.7473	26.45	0.49	1.500			
0.5604	35864.78	3.7510	3.7511	1.7629	26.44	0.48	1.500			
0.5657	36205.61	3.7480	3.7479	1.7882	26.42	0.46	1.500			
0.5711	36549.41	3.7450	3.7450	1.8150	26.41	0.45	1.500			
0.5765	36897.93	3.7420	3.7420	1.8448	26.40	0.44	1.500			
0.5822	37259.61	3.7390	3.7390	1.8996	26.38	0.42	1.500			
0.5879	37624.42	3.7360	3.7360	1.9411	26.37	0.41	1.500			
0.5938	38004.62	3.7330	3.7330	1.9910	26.36	0.40	1.500			
0.5999	38391.94	3.7300	3.7300	2.0277	26.34	0.38	1.500			
0.6060	38784.16	3.7270	3.7270	2.0815	26.32	0.36	1.500			
0.6123	39186.75	3.7240	3.7240	2.1384	26.30	0.34	1.500			
0.6188	39603.44	3.7210	3.7210	2.2024	26.29	0.33	1.500			
0.6255	40034.40	3.7180	3.7180	2.2736	26.27	0.31	1.500			
0.6324	40475.60	3.7150	3.7150	2.3058	26.25	0.29	1.500			
0.6393	40917.59	3.7120	3.7120	2.3466	26.23	0.27	1.500			
0.6465	41374.76	3.7090	3.7090	2.3470	26.21	0.25	1.500			
0.6536	41830.05	3.7060	3.7061	2.2830	26.20	0.24	1.500			
0.6604	42265.61	3.7030	3.7030	2.1662	26.18	0.22	1.500			
0.6667	42670.65	3.7000	3.7000	2.0329	26.17	0.21	1.500			
0.6726	43044.85	3.6970	3.6970	1.8933	26.16	0.20	1.500			
0.6781	43396.79	3.6940	3.6940	1.7706	26.14	0.18	1.500			
0.6831	43716.13	3.6910	3.6910	1.6491	26.13	0.17	1.500			
0.6879	44022.44	3.6880	3.6880	1.5655	26.12	0.16	1.500			
0.6923	44310.12	3.6850	3.6850	1.4870	26.11	0.15	1.500			
0.6967	44587.53	3.6820	3.6820	1.4276	26.10	0.14	1.500			
0.7009	44855.72	3.6790	3.6790	1.3777	26.09	0.13	1.500			
0.7049	45113.10	3.6760	3.6760	1.3272	26.09	0.13	1.500			
0.7088	45361.36	3.6730	3.6730	1.3025	26.08	0.12	1.500			
0.7126	45604.93	3.6700	3.6700	1.2870	26.07	0.11	1.500			
0.7164	45846.67	3.6670	3.6669	1.2745	26.06	0.10	1.500			
0.7202	46090.01	3.6640	3.6641	1.2784	26.05	0.09	1.500			
0.7240	46336.17	3.6610	3.6610	1.2770	26.04	0.08	1.500			
0.7279	46583.78	3.6580	3.6580	1.2769	26.04	0.08	1.500			
0.7317	46830.99	3.6550	3.6551	1.2742	26.03	0.07	1.500			
0.7355	47074.29	3.6520	3.6520	1.2677	26.02	0.06	1.500			
0.7393	47316.55	3.6490	3.6490	1.2583	26.01	0.05	1.500			
0.7431	47556.86	3.6460	3.6460	1.2480	26.00	0.04	1.500			
0.7468	47794.33	3.6430	3.6430	1.2412	25.99	0.03	1.500			
0.7505	48033.67	3.6400	3.6400	1.2410	25.98	0.02	1.500			
0.7542	48271.13	3.6370	3.6370	1.2316	25.97	0.01	1.500			
0.7579	48507.54	3.6340	3.6339	1.2240	25.96	0.00	1.500			
0.7616	48742.06	3.6310	3.6310	1.2125	25.95	-0.01	1.500			
0.7652	48974.95	3.6280	3.6281	1.2019	25.95	-0.01	1.500			
0.7688	49203.63	3.6250	3.6250	1.1911	25.94	-0.02	1.500			
0.7723	49429.97	3.6220	3.6220	1.1768	25.94	-0.02	1.500			
0.7759	49655.35	3.6190	3.6190	1.1653	25.94	-0.02	1.500			
0.7794	49879.78	3.6160	3.6159	1.1522	25.94	-0.02	1.500			
0.7828	50100.31	3.6130	3.6130	1.1282	25.93	-0.03	1.500			
0.7862	50315.38	3.6100	3.6101	1.1072	25.93	-0.03	1.500			
0.7895	50525.82	3.6070	3.6070	1.0840	25.93	-0.03	1.500			
0.7927	50731.17	3.6040	3.6038	1.0587	25.93	-0.03	1.500			
0.7958	50930.99	3.6010	3.6011	1.0348	25.93	-0.03	1.500			
0.7989	51127.77	3.5980	3.5980	1.0077	25.94	-0.02	1.500			
0.8019	51321.73	3.5950	3.5950	0.9808	25.94	-0.02	1.500			
0.8048	51508.70	3.5920	3.5920	0.9306	25.94	-0.02	1.500			
0.8076	51686.73	3.5890	3.5890	0.8793	25.95	-0.01	1.500			
0.8103	51856.18	3.5860	3.5860	0.8084	25.95	-0.01	1.500			
0.8126	52006.88	3.5830	3.5830	0.7235	25.95	-0.01	1.500			
0.8147	52139.54	3.5800	3.5800	0.6346	25.96	-0.00	1.500			
0.8164	52249.61	3.5770	3.5771	0.5486	25.96	-0.00	1.500			
0.8178	52340.47	3.5740	3.5740	0.4654	25.96	0.00	1.500			
0.8191	52421.21	3.5710	3.5710	0.3924	25.96	0.00	1.500			
0.8201	52484.82	3.5680	3.5679	0.3342	25.96	0.00	1.500			
0.8210	52541.28	3.5650	3.5651	0.2917	25.96	0.00	1.500			
0.8217	52591.00	3.5620	3.5619	0.2531	25.97	0.01	1.500			
0.8224	52634.46	3.5590	3.5590	0.2256	25.97	0.01	1.500			
0.8230	52674.23	3.5560	3.5560	0.2034	25.97	0.01	1.500			
0.8236	52709.80	3.5530	3.5529	0.1829	25.97	0.01	1.500			
0.8241	52742.75	3.5500	3.5500	0.1649	25.97	0.01	1.500			
0.8246	52772.69	3.5470	3.5470	0.1504	25.97	0.01	1.500			
0.8250	52799.72	3.5440	3.5440	0.1353	25.97	0.01	1.500			
0.8254	52824.49	3.5410	3.5409	0.1208	25.97	0.01	1.500			
0.8257	52846.32	3.5380	3.5380	0.1065	25.97	0.01	1.500			
0.8260	52865.51	3.5350	3.5351	0.0923	25.97	0.01	1.500			
0.8263	52881.89	3.5320	3.5321	0.0778	25.97	0.01	1.500			
0.8265	52895.42	3.5290	3.5291	0.0632	25.97	0.01	1.500			
0.8267	52906.46	3.5260	3.5264	0.0476	25.97	0.01	1.500			
0.8268	52914.11	3.5230	3.5238	0.0321	25.97	0.01	1.500			
