Ah_balance (normalized)	Ah_balance (mAh)	Voltage - fit (V)	Voltage -  interpolate (V)	dQ/dV (1/V)	Temperature (°C)	Temperature - diff (°C)	Current (C)	R_DC 0ms (mOhm)	R_DC 50ms (mOhm)	R_DC 50 ms PEC (mOhm)
0.2791	17859.43	3.9910	3.9909	0.8335	27.28	1.33	1.500			
0.2816	18020.40	3.9880	3.9879	0.8396	27.27	1.32	1.500			
0.2841	18182.24	3.9850	3.9851	0.8443	27.27	1.32	1.500			
0.2866	18345.08	3.9820	3.9820	0.8451	27.26	1.31	1.500			
0.2892	18508.29	3.9790	3.9789	0.8485	27.25	1.30	1.500			
0.2917	18670.63	3.9760	3.9761	0.8485	27.25	1.30	1.500			
0.2943	18832.90	3.9730	3.9729	0.8460	27.24	1.29	1.500			
0.2968	18996.01	3.9700	3.9699	0.8499	27.24	1.29	1.500			
0.2993	19157.80	3.9670	3.9671	0.8562	27.23	1.28	1.500			
0.3019	19322.14	3.9640	3.9640	0.8617	27.22	1.27	1.500			
0.3045	19489.89	3.9610	3.9609	0.8664	27.22	1.27	1.500			
0.3071	19656.58	3.9580	3.9581	0.8693	27.21	1.26	1.500			
0.3098	19824.35	3.9550	3.9551	0.8740	27.20	1.25	1.500			
0.3124	19993.00	3.9520	3.9519	0.8772	27.20	1.25	1.500			
0.3150	20160.91	3.9490	3.9490	0.8783	27.19	1.24	1.500			
0.3176	20328.63	3.9460	3.9460	0.8833	27.19	1.24	1.500			
0.3203	20498.84	3.9430	3.9430	0.8904	27.18	1.23	1.500			
0.3230	20671.38	3.9400	3.9400	0.8941	27.17	1.22	1.500			
0.3257	20843.61	3.9370	3.9369	0.8968	27.17	1.22	1.500			
0.3284	21014.86	3.9340	3.9340	0.9045	27.16	1.21	1.500			
0.3311	21188.39	3.9310	3.9311	0.9124	27.15	1.20	1.500			
0.3338	21364.80	3.9280	3.9280	0.9158	27.15	1.20	1.500			
0.3366	21541.82	3.9250	3.9250	0.9184	27.14	1.19	1.500			
0.3394	21719.04	3.9220	3.9221	0.9241	27.13	1.18	1.500			
0.3421	21896.79	3.9190	3.9190	0.9320	27.13	1.18	1.500			
0.3449	22075.23	3.9160	3.9160	0.9389	27.12	1.17	1.500			
0.3477	22255.55	3.9130	3.9129	0.9409	27.11	1.16	1.500			
0.3506	22435.35	3.9100	3.9101	0.9523	27.11	1.16	1.500			
0.3535	22620.83	3.9070	3.9071	0.9608	27.10	1.15	1.500			
0.3564	22807.22	3.9040	3.9039	0.9678	27.09	1.14	1.500			
0.3593	22993.23	3.9010	3.9010	0.9715	27.08	1.13	1.500			
0.3622	23178.68	3.8980	3.8980	0.9775	27.07	1.12	1.500			
0.3651	23367.76	3.8950	3.8950	0.9826	27.07	1.12	1.500			
0.3681	23557.10	3.8920	3.8920	0.9950	27.06	1.11	1.500			
0.3711	23747.65	3.8890	3.8890	0.9952	27.05	1.10	1.500			
0.3741	23939.61	3.8860	3.8860	1.0113	27.04	1.09	1.500			
0.3771	24133.36	3.8830	3.8830	1.0252	27.03	1.08	1.500			
0.3802	24331.86	3.8800	3.8800	1.0380	27.02	1.07	1.500			
0.3833	24533.25	3.8770	3.8770	1.0489	27.01	1.06	1.500			
0.3865	24736.99	3.8740	3.8741	1.0626	27.00	1.05	1.500			
0.3897	24941.92	3.8710	3.8711	1.0715	26.99	1.04	1.500			
0.3930	25150.45	3.8680	3.8680	1.0835	26.98	1.03	1.500			
0.3962	25356.11	3.8650	3.8650	1.0906	26.97	1.02	1.500			
0.3995	25566.82	3.8620	3.8620	1.1058	26.96	1.01	1.500			
0.4028	25780.97	3.8590	3.8589	1.1221	26.95	1.00	1.500			
0.4062	25997.47	3.8560	3.8560	1.1398	26.94	0.99	1.500			
0.4097	26218.37	3.8530	3.8530	1.1562	26.93	0.98	1.500			
0.4132	26441.97	3.8500	3.8500	1.1752	26.92	0.97	1.500			
0.4167	26669.98	3.8470	3.8470	1.1893	26.91	0.96	1.500			
0.4203	26900.91	3.8440	3.8439	1.2004	26.90	0.95	1.500			
0.4239	27131.41	3.8410	3.8410	1.2187	26.89	0.94	1.500			
0.4276	27365.09	3.8380	3.8380	1.2379	26.88	0.93	1.500			
0.4313	27604.59	3.8350	3.8349	1.2566	26.87	0.92	1.500			
0.4351	27848.90	3.8320	3.8320	1.2813	26.86	0.91	1.500			
0.4390	28097.37	3.8290	3.8290	1.2988	26.85	0.90	1.500			
0.4430	28351.13	3.8260	3.8261	1.3146	26.83	0.88	1.500			
0.4469	28604.05	3.8230	3.8229	1.3329	26.82	0.87	1.500			
0.4509	28860.33	3.8200	3.8201	1.3625	26.80	0.85	1.500			
0.4550	29121.69	3.8170	3.8170	1.3821	26.79	0.84	1.500			
0.4592	29390.83	3.8140	3.8140	1.4092	26.77	0.82	1.500			
0.4635	29665.16	3.8110	3.8111	1.4402	26.76	0.81	1.500			
0.4679	29946.03	3.8080	3.8080	1.4676	26.75	0.80	1.500			
0.4724	30231.69	3.8050	3.8049	1.4870	26.73	0.78	1.500			
0.4769	30518.68	3.8020	3.8021	1.5124	26.72	0.77	1.500			
0.4814	30811.49	3.7990	3.7990	1.5342	26.70	0.75	1.500			
0.4861	31109.01	3.7960	3.7960	1.5561	26.69	0.74	1.500			
0.4907	31407.62	3.7930	3.7931	1.5774	26.67	0.72	1.500			
0.4955	31714.97	3.7900	3.7900	1.6117	26.66	0.71	1.500			
0.5004	32026.27	3.7870	3.7870	1.6406	26.64	0.69	1.500	0.346	0.481	
0.5054	32345.01	3.7840	3.7840	1.6602	26.63	0.68	1.500			
0.5104	32666.86	3.7810	3.7811	1.6751	26.61	0.66	1.500			
0.5155	32991.32	3.7780	3.7780	1.6877	26.59	0.64	1.500			
0.5205	33314.65	3.7750	3.7749	1.6745	26.57	0.62	1.500			
0.5255	33634.70	3.7720	3.7721	1.6889	26.55	0.60	1.500			
0.5306	33958.94	3.7690	3.7690	1.7093	26.53	0.58	1.500			
0.5358	34290.28	3.7660	3.7660	1.7236	26.51	0.56	1.500			
0.5410	34622.19	3.7630	3.7630	1.7200	26.49	0.54	1.500			
0.5462	34954.57	3.7600	3.7601	1.7186	26.48	0.53	1.500			
0.5513	35283.39	3.7570	3.7570	1.7236	26.46	0.51	1.500			
0.5565	35613.88	3.7540	3.7538	1.7374	26.44	0.49	1.500			
0.5617	35947.66	3.7510	3.7510	1.7485	26.43	0.48	1.500			
0.5670	36289.46	3.7480	3.7480	1.7860	26.41	0.46	1.500			
0.5724	36632.23	3.7450	3.7450	1.8135	26.39	0.44	1.500			
0.5778	36980.40	3.7420	3.7420	1.8430	26.37	0.42	1.500			
0.5834	37338.52	3.7390	3.7390	1.8912	26.36	0.41	1.500			
0.5891	37705.57	3.7360	3.7360	1.9503	26.34	0.39	1.500			
0.5950	38082.03	3.7330	3.7329	1.9818	26.32	0.37	1.500			
0.6010	38465.88	3.7300	3.7301	2.0510	26.31	0.36	1.500			
0.6073	38866.01	3.7270	3.7267	2.1157	26.29	0.34	1.500			
0.6138	39285.46	3.7240	3.7240	2.1653	26.27	0.32	1.500			
0.6204	39706.50	3.7210	3.7210	2.2074	26.25	0.30	1.500			
0.6271	40132.78	3.7180	3.7180	2.2535	26.23	0.28	1.500			
0.6339	40568.67	3.7150	3.7150	2.3018	26.21	0.26	1.500			
0.6409	41017.59	3.7120	3.7121	2.3209	26.19	0.24	1.500			
0.6480	41473.80	3.7090	3.7090	2.2676	26.18	0.23	1.500			
0.6547	41902.83	3.7060	3.7060	2.1658	26.17	0.22	1.500			
0.6611	42309.60	3.7030	3.7031	2.0418	26.15	0.20	1.500			
0.6670	42690.15	3.7000	3.7000	1.9007	26.14	0.19	1.500			
0.6724	43036.59	3.6970	3.6970	1.7749	26.12	0.17	1.500			
0.6775	43362.13	3.6940	3.6940	1.6620	26.11	0.16	1.500			
0.6823	43669.78	3.6910	3.6909	1.5775	26.10	0.15	1.500			
0.6869	43962.34	3.6880	3.6880	1.5003	26.09	0.14	1.500			
0.6913	44241.62	3.6850	3.6850	1.4362	26.09	0.14	1.500			
0.6955	44509.75	3.6820	3.6820	1.3816	26.08	0.13	1.500			
0.6995	44767.37	3.6790	3.6790	1.3363	26.07	0.12	1.500			
0.7033	45013.88	3.6760	3.6760	1.3036	26.07	0.12	1.500			
0.7072	45259.56	3.6730	3.6728	1.2874	26.06	0.11	1.500			
0.7110	45503.04	3.6700	3.6700	1.2731	26.05	0.10	1.500			
0.7148	45746.10	3.6670	3.6670	1.2700	26.04	0.09	1.500			
0.7186	45991.80	3.6640	3.6640	1.2667	26.03	0.08	1.500			
0.7224	46234.51	3.6610	3.6610	1.2630	26.02	0.07	1.500			
0.7262	46474.77	3.6580	3.6580	1.2573	26.01	0.06	1.500			
0.7299	46716.18	3.6550	3.6551	1.2537	26.01	0.06	1.500			
0.7337	46957.38	3.6520	3.6519	1.2427	26.00	0.05	1.500			
0.7374	47196.03	3.6490	3.6491	1.2362	25.99	0.04	1.500			
0.7411	47432.45	3.6460	3.6460	1.2231	25.98	0.03	1.500			
0.7448	47667.88	3.6430	3.6430	1.2065	25.97	0.02	1.500			
0.7484	47895.78	3.6400	3.6400	1.1939	25.96	0.01	1.500			
0.7519	48123.52	3.6370	3.6370	1.1875	25.95	0.00	1.500			
0.7555	48350.13	3.6340	3.6340	1.1832	25.94	-0.01	1.500			
0.7590	48577.50	3.6310	3.6310	1.1806	25.94	-0.01	1.500			
0.7626	48804.70	3.6280	3.6280	1.1703	25.94	-0.01	1.500			
0.7661	49030.80	3.6250	3.6250	1.1621	25.94	-0.01	1.500			
0.7696	49255.81	3.6220	3.6220	1.1501	25.94	-0.01	1.500			
0.7730	49472.50	3.6190	3.6190	1.1276	25.93	-0.02	1.500			
0.7764	49688.05	3.6160	3.6160	1.1077	25.93	-0.02	1.500			
0.7797	49899.11	3.6130	3.6130	1.0838	25.93	-0.02	1.500			
0.7829	50105.34	3.6100	3.6100	1.0611	25.93	-0.02	1.500			
0.7861	50307.52	3.6070	3.6071	1.0354	25.93	-0.02	1.500			
0.7891	50504.33	3.6040	3.6040	1.0089	25.94	-0.01	1.500			
0.7921	50696.03	3.6010	3.6010	0.9789	25.94	-0.01	1.500			
0.7950	50881.98	3.5980	3.5980	0.9439	25.94	-0.01	1.500			
0.7979	51064.07	3.5950	3.5949	0.9034	25.94	-0.01	1.500			
0.8006	51235.22	3.5920	3.5920	0.8504	25.94	-0.01	1.500			
0.8031	51397.26	3.5890	3.5889	0.7889	25.95	-0.00	1.500			
0.8054	51544.62	3.5860	3.5860	0.7103	25.95	-0.00	1.500			
0.8074	51674.19	3.5830	3.5830	0.6275	25.95	0.00	1.500			
0.8091	51784.82	3.5800	3.5801	0.5449	25.95	0.00	1.500			
0.8106	51879.78	3.5770	3.5770	0.4649	25.95	0.00	1.500			
0.8119	51959.01	3.5740	3.5739	0.3958	25.95	0.00	1.500			
0.8129	52025.98	3.5710	3.5710	0.3420	25.95	0.00	1.500			
0.8138	52082.59	3.5680	3.5680	0.2947	25.96	0.01	1.500			
0.8146	52133.05	3.5650	3.5650	0.2595	25.96	0.01	1.500			
0.8153	52177.29	3.5620	3.5619	0.2262	25.96	0.01	1.500			
0.8159	52217.13	3.5590	3.5590	0.2030	25.96	0.01	1.500			
0.8164	52252.69	3.5560	3.5560	0.1828	25.96	0.01	1.500			
0.8170	52285.74	3.5530	3.5531	0.1646	25.96	0.01	1.500			
0.8174	52315.46	3.5500	3.5500	0.1496	25.96	0.01	1.500			
0.8178	52342.08	3.5470	3.5469	0.1336	25.96	0.01	1.500			
0.8182	52366.29	3.5440	3.5440	0.1190	25.96	0.01	1.500			
0.8186	52387.66	3.5410	3.5411	0.1044	25.96	0.01	1.500			
0.8188	52406.35	3.5380	3.5381	0.0903	25.96	0.01	1.500			
0.8191	52422.76	3.5350	3.5351	0.0763	25.96	0.01	1.500			
0.8193	52435.98	3.5320	3.5323	0.0615	25.96	0.01	1.500			
0.8195	52446.36	3.5290	3.5295	0.0467	25.96	0.01	1.500			
0.8196	52453.90	3.5260	3.5271	0.0319	25.96	0.01	1.500			
