Ah_balance (normalized)	Ah_balance (mAh)	Voltage - fit (V)	Voltage -  interpolate (V)	dQ/dV (1/V)	Temperature (°C)	Temperature - diff (°C)	Current (C)	R_DC 0ms (mOhm)	R_DC 50ms (mOhm)	R_DC 50 ms PEC (mOhm)
0.2723	17424.07	3.9880	3.9880	0.8146	27.20	1.26	1.500			
0.2747	17582.05	3.9850	3.9850	0.8308	27.19	1.25	1.500			
0.2773	17745.00	3.9820	3.9820	0.8468	27.18	1.24	1.500			
0.2798	17909.03	3.9790	3.9790	0.8526	27.18	1.24	1.500			
0.2824	18073.94	3.9760	3.9760	0.8572	27.17	1.23	1.500			
0.2850	18238.79	3.9730	3.9731	0.8627	27.16	1.22	1.500			
0.2876	18405.41	3.9700	3.9700	0.8646	27.15	1.21	1.500			
0.2902	18570.85	3.9670	3.9670	0.8630	27.15	1.21	1.500			
0.2928	18736.24	3.9640	3.9640	0.8665	27.14	1.20	1.500			
0.2954	18903.52	3.9610	3.9611	0.8690	27.13	1.19	1.500			
0.2980	19069.12	3.9580	3.9579	0.8732	27.13	1.19	1.500			
0.3006	19237.04	3.9550	3.9550	0.8754	27.12	1.18	1.500			
0.3032	19404.98	3.9520	3.9519	0.8785	27.11	1.17	1.500			
0.3059	19574.59	3.9490	3.9490	0.8861	27.10	1.16	1.500			
0.3085	19745.52	3.9460	3.9461	0.8917	27.09	1.15	1.500			
0.3112	19916.24	3.9430	3.9429	0.8967	27.08	1.14	1.500			
0.3139	20089.56	3.9400	3.9400	0.9010	27.08	1.14	1.500			
0.3166	20263.14	3.9370	3.9370	0.9059	27.07	1.13	1.500			
0.3194	20439.71	3.9340	3.9339	0.9101	27.06	1.12	1.500			
0.3221	20613.48	3.9310	3.9310	0.9143	27.05	1.11	1.500			
0.3248	20788.11	3.9280	3.9280	0.9157	27.04	1.10	1.500			
0.3276	20964.37	3.9250	3.9249	0.9191	27.03	1.09	1.500			
0.3303	21141.74	3.9220	3.9220	0.9196	27.02	1.08	1.500			
0.3331	21317.58	3.9190	3.9191	0.9294	27.02	1.08	1.500			
0.3359	21497.18	3.9160	3.9160	0.9356	27.01	1.07	1.500			
0.3387	21677.24	3.9130	3.9129	0.9443	27.00	1.06	1.500			
0.3415	21858.33	3.9100	3.9100	0.9495	26.99	1.05	1.500			
0.3444	22042.17	3.9070	3.9070	0.9565	26.99	1.05	1.500			
0.3473	22226.88	3.9040	3.9040	0.9632	26.98	1.04	1.500			
0.3502	22412.68	3.9010	3.9010	0.9727	26.97	1.03	1.500			
0.3531	22598.60	3.8980	3.8979	0.9775	26.96	1.02	1.500			
0.3560	22786.93	3.8950	3.8950	0.9899	26.95	1.01	1.500			
0.3590	22978.02	3.8920	3.8920	0.9970	26.94	1.00	1.500			
0.3620	23170.99	3.8890	3.8889	1.0067	26.93	0.99	1.500			
0.3651	23364.71	3.8860	3.8860	1.0120	26.92	0.98	1.500			
0.3681	23561.23	3.8830	3.8831	1.0172	26.91	0.97	1.500			
0.3712	23755.00	3.8800	3.8800	1.0311	26.90	0.96	1.500			
0.3743	23953.30	3.8770	3.8769	1.0433	26.89	0.95	1.500			
0.3774	24155.37	3.8740	3.8739	1.0564	26.88	0.94	1.500			
0.3807	24361.91	3.8710	3.8710	1.0693	26.87	0.93	1.500			
0.3839	24567.48	3.8680	3.8680	1.0823	26.87	0.93	1.500			
0.3871	24777.17	3.8650	3.8651	1.0932	26.86	0.92	1.500			
0.3905	24989.06	3.8620	3.8619	1.0936	26.85	0.91	1.500			
0.3937	25198.27	3.8590	3.8590	1.1082	26.84	0.90	1.500			
0.3970	25409.53	3.8560	3.8561	1.1231	26.84	0.90	1.500			
0.4004	25626.10	3.8530	3.8530	1.1441	26.83	0.89	1.500			
0.4039	25848.61	3.8500	3.8500	1.1669	26.82	0.88	1.500			
0.4074	26073.62	3.8470	3.8470	1.1836	26.81	0.87	1.500			
0.4110	26304.92	3.8440	3.8440	1.2101	26.80	0.86	1.500			
0.4147	26541.64	3.8410	3.8411	1.2264	26.78	0.84	1.500			
0.4184	26777.91	3.8380	3.8379	1.2376	26.77	0.83	1.500			
0.4221	27016.56	3.8350	3.8350	1.2528	26.76	0.82	1.500			
0.4259	27256.14	3.8320	3.8322	1.2714	26.75	0.81	1.500			
0.4297	27501.76	3.8290	3.8290	1.2922	26.74	0.80	1.500			
0.4336	27751.13	3.8260	3.8259	1.3213	26.72	0.78	1.500			
0.4376	28009.29	3.8230	3.8230	1.3409	26.71	0.77	1.500			
0.4417	28268.63	3.8200	3.8199	1.3700	26.70	0.76	1.500			
0.4459	28536.25	3.8170	3.8170	1.4010	26.68	0.74	1.500			
0.4501	28807.82	3.8140	3.8141	1.4279	26.67	0.73	1.500			
0.4544	29082.32	3.8110	3.8111	1.4536	26.66	0.72	1.500			
0.4588	29363.29	3.8080	3.8080	1.4833	26.64	0.70	1.500			
0.4633	29651.93	3.8050	3.8050	1.5098	26.63	0.69	1.500			
0.4679	29945.73	3.8020	3.8020	1.5442	26.61	0.67	1.500			
0.4726	30245.23	3.7990	3.7991	1.5884	26.60	0.66	1.500			
0.4774	30553.51	3.7960	3.7959	1.6268	26.58	0.64	1.500			
0.4824	30871.19	3.7930	3.7930	1.6520	26.57	0.63	1.500			
0.4874	31193.70	3.7900	3.7900	1.6661	26.55	0.61	1.500			
0.4925	31520.80	3.7870	3.7871	1.6951	26.53	0.59	1.500			
0.4976	31843.70	3.7840	3.7840	1.6998	26.51	0.57	1.500			
0.5026	32167.45	3.7810	3.7809	1.7263	26.49	0.55	1.500			
0.5078	32498.53	3.7780	3.7781	1.7559	26.48	0.54	1.500			
0.5132	32841.81	3.7750	3.7750	1.7883	26.46	0.52	1.500	0.346	0.462	
0.5186	33192.25	3.7720	3.7721	1.8105	26.45	0.51	1.500			
0.5241	33540.91	3.7690	3.7691	1.8175	26.43	0.49	1.500			
0.5296	33893.73	3.7660	3.7659	1.8211	26.42	0.48	1.500			
0.5350	34239.71	3.7630	3.7630	1.8008	26.40	0.46	1.500			
0.5404	34586.91	3.7600	3.7601	1.7965	26.38	0.44	1.500			
0.5458	34931.66	3.7570	3.7570	1.7959	26.36	0.42	1.500			
0.5512	35275.29	3.7540	3.7539	1.7941	26.35	0.41	1.500			
0.5565	35613.99	3.7510	3.7510	1.8106	26.33	0.39	1.500			
0.5619	35963.40	3.7480	3.7480	1.8300	26.31	0.37	1.500			
0.5674	36316.01	3.7450	3.7450	1.8408	26.29	0.35	1.500			
0.5730	36670.82	3.7420	3.7421	1.8537	26.28	0.34	1.500			
0.5785	37025.43	3.7390	3.7388	1.8956	26.26	0.32	1.500			
0.5842	37391.84	3.7360	3.7360	1.9344	26.25	0.31	1.500			
0.5901	37768.60	3.7330	3.7330	1.9694	26.23	0.29	1.500			
0.5961	38148.69	3.7300	3.7301	2.0084	26.22	0.28	1.500			
0.6021	38537.16	3.7270	3.7269	2.0836	26.20	0.26	1.500			
0.6085	38943.74	3.7240	3.7240	2.1333	26.19	0.25	1.500			
0.6151	39363.64	3.7210	3.7210	2.2017	26.18	0.24	1.500			
0.6217	39790.56	3.7180	3.7181	2.2592	26.16	0.22	1.500			
0.6285	40226.35	3.7150	3.7150	2.3611	26.15	0.21	1.500			
0.6357	40684.84	3.7120	3.7120	2.4304	26.14	0.20	1.500			
0.6432	41162.77	3.7090	3.7091	2.4715	26.12	0.18	1.500			
0.6507	41643.47	3.7060	3.7059	2.4731	26.11	0.17	1.500			
0.6581	42115.60	3.7030	3.7031	2.3999	26.09	0.15	1.500			
0.6653	42578.88	3.7000	3.7000	2.3178	26.08	0.14	1.500			
0.6721	43012.36	3.6970	3.6970	2.1716	26.07	0.13	1.500			
0.6783	43412.14	3.6940	3.6939	2.0156	26.06	0.12	1.500			
0.6841	43784.14	3.6910	3.6910	1.8770	26.06	0.12	1.500			
0.6895	44125.69	3.6880	3.6881	1.7458	26.05	0.11	1.500			
0.6945	44447.52	3.6850	3.6849	1.6298	26.05	0.11	1.500			
0.6991	44743.06	3.6820	3.6820	1.5329	26.04	0.10	1.500			
0.7035	45027.05	3.6790	3.6790	1.4549	26.04	0.10	1.500			
0.7077	45295.94	3.6760	3.6760	1.3952	26.03	0.09	1.500			
0.7118	45555.88	3.6730	3.6730	1.3425	26.03	0.09	1.500			
0.7157	45807.23	3.6700	3.6700	1.3102	26.02	0.08	1.500			
0.7196	46052.42	3.6670	3.6670	1.2827	26.01	0.07	1.500			
0.7233	46293.51	3.6640	3.6640	1.2719	26.01	0.07	1.500			
0.7271	46534.32	3.6610	3.6610	1.2638	26.00	0.06	1.500			
0.7309	46776.20	3.6580	3.6580	1.2719	25.99	0.05	1.500			
0.7347	47021.14	3.6550	3.6550	1.2788	25.99	0.05	1.500			
0.7386	47269.88	3.6520	3.6520	1.2828	25.98	0.04	1.500			
0.7424	47516.16	3.6490	3.6490	1.2853	25.97	0.03	1.500			
0.7463	47764.06	3.6460	3.6460	1.2857	25.96	0.02	1.500			
0.7502	48010.51	3.6430	3.6430	1.2854	25.96	0.02	1.500			
0.7540	48257.37	3.6400	3.6400	1.2822	25.95	0.01	1.500			
0.7578	48501.74	3.6370	3.6370	1.2798	25.94	0.00	1.500			
0.7617	48748.79	3.6340	3.6340	1.2790	25.94	-0.00	1.500			
0.7656	48995.20	3.6310	3.6310	1.2735	25.94	-0.00	1.500			
0.7693	49237.85	3.6280	3.6280	1.2669	25.93	-0.01	1.500			
0.7731	49481.25	3.6250	3.6250	1.2628	25.93	-0.01	1.500			
0.7769	49723.71	3.6220	3.6220	1.2544	25.92	-0.02	1.500			
0.7807	49964.60	3.6190	3.6190	1.2469	25.92	-0.02	1.500			
0.7844	50202.53	3.6160	3.6161	1.2375	25.92	-0.02	1.500			
0.7881	50440.58	3.6130	3.6131	1.2274	25.92	-0.02	1.500			
0.7918	50676.54	3.6100	3.6099	1.2140	25.91	-0.03	1.500			
0.7954	50907.45	3.6070	3.6070	1.1947	25.91	-0.03	1.500			
0.7990	51136.05	3.6040	3.6041	1.1784	25.91	-0.03	1.500			
0.8025	51360.70	3.6010	3.6009	1.1598	25.91	-0.03	1.500			
0.8060	51581.86	3.5980	3.5980	1.1430	25.91	-0.03	1.500			
0.8094	51799.72	3.5950	3.5950	1.1220	25.92	-0.02	1.500			
0.8127	52013.56	3.5920	3.5920	1.1033	25.92	-0.02	1.500			
0.8160	52225.16	3.5890	3.5890	1.0750	25.93	-0.01	1.500			
0.8193	52433.23	3.5860	3.5860	1.0324	25.93	-0.01	1.500			
0.8224	52631.97	3.5830	3.5829	0.9706	25.93	-0.01	1.500			
0.8253	52818.30	3.5800	3.5802	0.8978	25.94	-0.00	1.500			
0.8279	52985.33	3.5770	3.5769	0.7958	25.94	-0.00	1.500			
0.8302	53131.66	3.5740	3.5742	0.6931	25.94	0.00	1.500			
0.8321	53251.33	3.5710	3.5710	0.5878	25.94	0.00	1.500			
0.8336	53350.63	3.5680	3.5680	0.4898	25.95	0.01	1.500			
0.8348	53429.28	3.5650	3.5649	0.4118	25.95	0.01	1.500			
0.8359	53496.93	3.5620	3.5620	0.3516	25.95	0.01	1.500			
0.8368	53555.88	3.5590	3.5589	0.2972	25.95	0.01	1.500			
0.8376	53607.71	3.5560	3.5560	0.2628	25.95	0.01	1.500			
0.8383	53652.26	3.5530	3.5529	0.2326	25.95	0.01	1.500			
0.8389	53692.61	3.5500	3.5501	0.2095	25.95	0.01	1.500			
0.8395	53729.36	3.5470	3.5469	0.1879	25.95	0.01	1.500			
0.8400	53762.76	3.5440	3.5440	0.1711	25.95	0.01	1.500			
0.8405	53794.14	3.5410	3.5410	0.1571	25.95	0.01	1.500			
0.8410	53822.63	3.5380	3.5380	0.1422	25.96	0.02	1.500			
0.8414	53848.61	3.5350	3.5350	0.1285	25.96	0.02	1.500			
0.8418	53872.06	3.5320	3.5321	0.1148	25.96	0.02	1.500			
0.8421	53892.79	3.5290	3.5290	0.1010	25.96	0.02	1.500			
0.8424	53910.77	3.5260	3.5261	0.0870	25.96	0.02	1.500			
0.8426	53926.14	3.5230	3.5232	0.0732	25.96	0.02	1.500			
0.8428	53938.97	3.5200	3.5203	0.0594	25.96	0.02	1.500			
0.8430	53949.03	3.5170	3.5175	0.0454	25.96	0.02	1.500			
0.8431	53956.41	3.5140	3.5150	0.0315	25.96	0.02	1.500			
