Ah_balance (normalized)	Ah_balance (mAh)	Voltage - fit (V)	Voltage -  interpolate (V)	dQ/dV (1/V)	Temperature (°C)	Temperature - diff (°C)	Current (C)	R_DC 0ms (mOhm)	R_DC 50ms (mOhm)	R_DC 50 ms PEC (mOhm)
0.2680	17152.86	3.9920	3.9920	0.8233	27.29	1.30	1.500			
0.2705	17314.56	3.9890	3.9890	0.8452	27.28	1.29	1.500			
0.2731	17475.92	3.9860	3.9860	0.8452	27.28	1.29	1.500			
0.2756	17638.66	3.9830	3.9830	0.8476	27.27	1.28	1.500			
0.2782	17802.61	3.9800	3.9800	0.8508	27.26	1.27	1.500			
0.2807	17965.42	3.9770	3.9770	0.8505	27.25	1.26	1.500			
0.2833	18128.60	3.9740	3.9740	0.8514	27.25	1.26	1.500			
0.2858	18291.30	3.9710	3.9711	0.8573	27.24	1.25	1.500			
0.2884	18456.89	3.9680	3.9679	0.8644	27.23	1.24	1.500			
0.2910	18622.00	3.9650	3.9649	0.8690	27.23	1.24	1.500			
0.2936	18790.68	3.9620	3.9620	0.8704	27.22	1.23	1.500			
0.2962	18958.08	3.9590	3.9591	0.8748	27.21	1.22	1.500			
0.2989	19127.48	3.9560	3.9560	0.8795	27.20	1.21	1.500			
0.3015	19296.30	3.9530	3.9530	0.8823	27.20	1.21	1.500			
0.3041	19464.52	3.9500	3.9500	0.8819	27.19	1.20	1.500			
0.3068	19633.91	3.9470	3.9470	0.8901	27.18	1.19	1.500			
0.3094	19804.70	3.9440	3.9441	0.8994	27.17	1.18	1.500			
0.3122	19980.15	3.9410	3.9411	0.9037	27.17	1.18	1.500			
0.3149	20153.76	3.9380	3.9379	0.9066	27.16	1.17	1.500			
0.3176	20329.04	3.9350	3.9351	0.9086	27.15	1.16	1.500			
0.3204	20503.33	3.9320	3.9320	0.9102	27.14	1.15	1.500			
0.3231	20678.20	3.9290	3.9290	0.9146	27.14	1.15	1.500			
0.3258	20853.62	3.9260	3.9260	0.9169	27.13	1.14	1.500			
0.3286	21029.09	3.9230	3.9230	0.9208	27.12	1.13	1.500			
0.3314	21207.09	3.9200	3.9201	0.9331	27.11	1.12	1.500			
0.3342	21386.20	3.9170	3.9170	0.9392	27.10	1.11	1.500			
0.3370	21568.53	3.9140	3.9139	0.9443	27.10	1.11	1.500			
0.3398	21749.77	3.9110	3.9110	0.9516	27.09	1.10	1.500			
0.3427	21932.50	3.9080	3.9080	0.9616	27.08	1.09	1.500			
0.3456	22118.74	3.9050	3.9050	0.9716	27.07	1.08	1.500			
0.3485	22306.36	3.9020	3.9020	0.9795	27.06	1.07	1.500			
0.3515	22494.54	3.8990	3.8990	0.9835	27.05	1.06	1.500			
0.3545	22686.17	3.8960	3.8961	0.9868	27.04	1.05	1.500			
0.3575	22877.04	3.8930	3.8930	0.9985	27.03	1.04	1.500			
0.3604	23066.93	3.8900	3.8900	1.0091	27.02	1.03	1.500			
0.3634	23259.51	3.8870	3.8869	1.0205	27.01	1.02	1.500			
0.3665	23457.33	3.8840	3.8841	1.0333	27.00	1.01	1.500			
0.3697	23658.01	3.8810	3.8811	1.0484	26.99	1.00	1.500			
0.3729	23862.40	3.8780	3.8780	1.0544	26.98	0.99	1.500			
0.3760	24066.76	3.8750	3.8750	1.0648	26.97	0.98	1.500			
0.3792	24270.14	3.8720	3.8720	1.0708	26.96	0.97	1.500			
0.3824	24475.10	3.8690	3.8690	1.0756	26.95	0.96	1.500			
0.3856	24681.42	3.8660	3.8660	1.0861	26.94	0.95	1.500			
0.3889	24891.27	3.8630	3.8629	1.0997	26.93	0.94	1.500			
0.3922	25102.80	3.8600	3.8601	1.1123	26.92	0.93	1.500			
0.3956	25318.35	3.8570	3.8569	1.1298	26.91	0.92	1.500			
0.3990	25536.36	3.8540	3.8540	1.1398	26.90	0.91	1.500			
0.4025	25757.76	3.8510	3.8509	1.1531	26.89	0.90	1.500			
0.4059	25980.20	3.8480	3.8480	1.1716	26.88	0.89	1.500			
0.4095	26205.01	3.8450	3.8450	1.1915	26.87	0.88	1.500			
0.4130	26434.07	3.8420	3.8419	1.2122	26.85	0.86	1.500			
0.4167	26670.16	3.8390	3.8391	1.2302	26.84	0.85	1.500			
0.4204	26908.27	3.8360	3.8360	1.2492	26.83	0.84	1.500			
0.4243	27152.66	3.8330	3.8330	1.2669	26.82	0.83	1.500			
0.4281	27398.56	3.8300	3.8300	1.2826	26.81	0.82	1.500			
0.4319	27644.37	3.8270	3.8269	1.3046	26.79	0.80	1.500			
0.4359	27894.44	3.8240	3.8241	1.3240	26.78	0.79	1.500			
0.4398	28148.54	3.8210	3.8208	1.3499	26.77	0.78	1.500			
0.4439	28411.18	3.8180	3.8181	1.3806	26.76	0.77	1.500			
0.4481	28680.92	3.8150	3.8150	1.4048	26.74	0.75	1.500			
0.4524	28953.53	3.8120	3.8120	1.4302	26.73	0.74	1.500			
0.4568	29232.82	3.8090	3.8090	1.4498	26.71	0.72	1.500			
0.4611	29512.01	3.8060	3.8061	1.4749	26.70	0.71	1.500			
0.4656	29796.18	3.8030	3.8030	1.4988	26.69	0.70	1.500			
0.4701	30083.60	3.8000	3.8000	1.5301	26.67	0.68	1.500			
0.4747	30381.56	3.7970	3.7970	1.5651	26.66	0.67	1.500			
0.4795	30688.03	3.7940	3.7940	1.5983	26.65	0.66	1.500			
0.4843	30997.02	3.7910	3.7911	1.6275	26.63	0.64	1.500			
0.4893	31314.43	3.7880	3.7878	1.6553	26.62	0.63	1.500			
0.4943	31633.72	3.7850	3.7849	1.6697	26.60	0.61	1.500	0.345	0.476	
0.4994	31958.55	3.7820	3.7820	1.6874	26.59	0.60	1.500			
0.5045	32285.02	3.7790	3.7790	1.6924	26.57	0.58	1.500			
0.5095	32609.78	3.7760	3.7760	1.6954	26.56	0.57	1.500			
0.5146	32933.68	3.7730	3.7730	1.6998	26.54	0.55	1.500			
0.5197	33260.32	3.7700	3.7700	1.7046	26.52	0.53	1.500			
0.5248	33587.44	3.7670	3.7670	1.7073	26.51	0.52	1.500			
0.5300	33917.12	3.7640	3.7640	1.7229	26.50	0.51	1.500			
0.5351	34248.70	3.7610	3.7610	1.7333	26.48	0.49	1.500			
0.5404	34582.66	3.7580	3.7580	1.7464	26.47	0.48	1.500			
0.5456	34920.60	3.7550	3.7550	1.7620	26.45	0.46	1.500			
0.5509	35258.80	3.7520	3.7520	1.7628	26.44	0.45	1.500			
0.5561	35593.22	3.7490	3.7490	1.7803	26.42	0.43	1.500			
0.5615	35935.29	3.7460	3.7460	1.8204	26.41	0.42	1.500			
0.5670	36290.46	3.7430	3.7429	1.8543	26.39	0.40	1.500			
0.5727	36651.29	3.7400	3.7400	1.8915	26.38	0.39	1.500			
0.5784	37018.27	3.7370	3.7371	1.9398	26.36	0.37	1.500			
0.5843	37393.56	3.7340	3.7340	1.9717	26.34	0.35	1.500			
0.5902	37773.78	3.7310	3.7310	2.0293	26.33	0.34	1.500			
0.5965	38173.90	3.7280	3.7279	2.0814	26.31	0.32	1.500			
0.6027	38574.99	3.7250	3.7250	2.1286	26.30	0.31	1.500			
0.6092	38988.83	3.7220	3.7220	2.1790	26.28	0.29	1.500			
0.6158	39413.28	3.7190	3.7190	2.2338	26.27	0.28	1.500			
0.6226	39844.93	3.7160	3.7160	2.3037	26.25	0.26	1.500			
0.6296	40297.08	3.7130	3.7130	2.2915	26.24	0.25	1.500			
0.6366	40739.80	3.7100	3.7100	2.2796	26.23	0.24	1.500			
0.6434	41179.57	3.7070	3.7070	2.2197	26.21	0.22	1.500			
0.6500	41600.43	3.7040	3.7040	2.1131	26.20	0.21	1.500			
0.6563	42004.80	3.7010	3.7010	2.0156	26.19	0.20	1.500			
0.6620	42369.97	3.6980	3.6979	1.8622	26.17	0.18	1.500			
0.6673	42708.65	3.6950	3.6950	1.7396	26.16	0.17	1.500			
0.6723	43030.10	3.6920	3.6920	1.6412	26.15	0.16	1.500			
0.6771	43337.33	3.6890	3.6890	1.5576	26.14	0.15	1.500			
0.6817	43627.07	3.6860	3.6860	1.4850	26.14	0.15	1.500			
0.6860	43901.70	3.6830	3.6830	1.4208	26.13	0.14	1.500			
0.6901	44163.90	3.6800	3.6800	1.3693	26.12	0.13	1.500			
0.6941	44421.18	3.6770	3.6770	1.3326	26.11	0.12	1.500			
0.6980	44669.85	3.6740	3.6740	1.3091	26.10	0.11	1.500			
0.7019	44919.88	3.6710	3.6710	1.2827	26.09	0.10	1.500			
0.7057	45162.07	3.6680	3.6680	1.2833	26.08	0.09	1.500			
0.7095	45406.75	3.6650	3.6651	1.2798	26.07	0.08	1.500			
0.7133	45651.27	3.6620	3.6618	1.2770	26.06	0.07	1.500			
0.7171	45897.15	3.6590	3.6591	1.2777	26.06	0.07	1.500			
0.7210	46143.47	3.6560	3.6561	1.2744	26.05	0.06	1.500			
0.7248	46390.16	3.6530	3.6530	1.2626	26.04	0.05	1.500			
0.7287	46636.08	3.6500	3.6499	1.2588	26.04	0.05	1.500			
0.7324	46872.98	3.6470	3.6471	1.2377	26.03	0.04	1.500			
0.7361	47108.25	3.6440	3.6441	1.2321	26.03	0.04	1.500			
0.7397	47343.06	3.6410	3.6410	1.2231	26.02	0.03	1.500			
0.7434	47576.82	3.6380	3.6380	1.2200	26.01	0.02	1.500			
0.7470	47810.41	3.6350	3.6350	1.2173	26.00	0.01	1.500			
0.7507	48044.47	3.6320	3.6320	1.2122	25.99	0.00	1.500			
0.7544	48278.54	3.6290	3.6291	1.2037	25.98	-0.01	1.500			
0.7580	48511.70	3.6260	3.6260	1.1933	25.98	-0.01	1.500			
0.7615	48738.75	3.6230	3.6230	1.1798	25.97	-0.02	1.500			
0.7651	48963.91	3.6200	3.6201	1.1671	25.96	-0.03	1.500			
0.7685	49186.95	3.6170	3.6169	1.1461	25.96	-0.03	1.500			
0.7720	49406.74	3.6140	3.6140	1.1281	25.96	-0.03	1.500			
0.7753	49621.67	3.6110	3.6110	1.1033	25.96	-0.03	1.500			
0.7786	49831.42	3.6080	3.6080	1.0780	25.96	-0.03	1.500			
0.7818	50036.63	3.6050	3.6050	1.0546	25.96	-0.03	1.500			
0.7849	50235.81	3.6020	3.6019	1.0247	25.96	-0.03	1.500			
0.7880	50430.86	3.5990	3.5990	0.9950	25.96	-0.03	1.500			
0.7910	50621.61	3.5960	3.5960	0.9596	25.96	-0.03	1.500			
0.7938	50805.05	3.5930	3.5930	0.9164	25.97	-0.02	1.500			
0.7966	50980.47	3.5900	3.5900	0.8551	25.97	-0.02	1.500			
0.7991	51142.81	3.5870	3.5870	0.7854	25.97	-0.02	1.500			
0.8014	51288.40	3.5840	3.5840	0.7014	25.97	-0.02	1.500			
0.8034	51415.62	3.5810	3.5810	0.6137	25.98	-0.01	1.500			
0.8050	51522.71	3.5780	3.5781	0.5279	25.98	-0.01	1.500			
0.8065	51613.23	3.5750	3.5749	0.4467	25.98	-0.01	1.500			
0.8076	51687.47	3.5720	3.5720	0.3780	25.98	-0.01	1.500			
0.8086	51751.16	3.5690	3.5689	0.3274	25.98	-0.01	1.500			
0.8095	51805.60	3.5660	3.5659	0.2838	25.98	-0.01	1.500			
0.8102	51854.73	3.5630	3.5630	0.2518	25.99	-0.00	1.500			
0.8109	51898.31	3.5600	3.5599	0.2222	25.99	-0.00	1.500			
0.8115	51937.71	3.5570	3.5570	0.2019	25.99	-0.00	1.500			
0.8121	51973.51	3.5540	3.5540	0.1827	25.99	-0.00	1.500			
0.8126	52006.54	3.5510	3.5509	0.1651	25.99	-0.00	1.500			
0.8131	52036.64	3.5480	3.5480	0.1502	25.99	-0.00	1.500			
0.8135	52063.68	3.5450	3.5451	0.1348	25.99	-0.00	1.500			
0.8139	52088.13	3.5420	3.5420	0.1204	25.99	-0.00	1.500			
0.8142	52109.92	3.5390	3.5390	0.1061	25.99	-0.00	1.500			
0.8145	52128.91	3.5360	3.5359	0.0916	25.99	0.00	1.500			
0.8148	52144.70	3.5330	3.5332	0.0769	25.99	0.00	1.500			
0.8150	52158.35	3.5300	3.5301	0.0629	25.99	0.00	1.500			
0.8151	52169.05	3.5270	3.5276	0.0485	25.99	0.00	1.500			
0.8153	52176.98	3.5240	3.5249	0.0342	25.99	0.00	1.500			
