Ah_balance (normalized)	Ah_balance (mAh)	Voltage - fit (V)	Voltage -  interpolate (V)	dQ/dV (1/V)	Temperature (°C)	Temperature - diff (°C)	Current (C)	R_DC 0ms (mOhm)	R_DC 50ms (mOhm)	R_DC 50 ms PEC (mOhm)
0.2898	18548.98	3.9920	3.9920	0.8186	27.29	1.33	1.500			
0.2923	18706.85	3.9890	3.9891	0.8249	27.28	1.32	1.500			
0.2948	18866.47	3.9860	3.9860	0.8308	27.28	1.32	1.500			
0.2973	19026.50	3.9830	3.9830	0.8344	27.28	1.32	1.500			
0.2998	19186.72	3.9800	3.9800	0.8383	27.27	1.31	1.500			
0.3023	19348.68	3.9770	3.9771	0.8416	27.27	1.31	1.500			
0.3048	19510.06	3.9740	3.9740	0.8469	27.27	1.31	1.500			
0.3074	19672.22	3.9710	3.9710	0.8494	27.27	1.31	1.500			
0.3099	19836.23	3.9680	3.9680	0.8536	27.26	1.30	1.500			
0.3125	20000.13	3.9650	3.9650	0.8591	27.26	1.30	1.500			
0.3151	20165.77	3.9620	3.9621	0.8618	27.26	1.30	1.500			
0.3177	20331.30	3.9590	3.9589	0.8655	27.25	1.29	1.500			
0.3203	20498.31	3.9560	3.9560	0.8693	27.25	1.29	1.500			
0.3229	20664.64	3.9530	3.9530	0.8716	27.25	1.29	1.500			
0.3255	20833.02	3.9500	3.9500	0.8751	27.24	1.28	1.500			
0.3281	21001.36	3.9470	3.9470	0.8787	27.24	1.28	1.500			
0.3308	21169.09	3.9440	3.9440	0.8817	27.24	1.28	1.500			
0.3334	21339.92	3.9410	3.9410	0.8849	27.23	1.27	1.500			
0.3361	21508.51	3.9380	3.9380	0.8898	27.23	1.27	1.500			
0.3387	21679.75	3.9350	3.9350	0.8980	27.22	1.26	1.500			
0.3414	21852.35	3.9320	3.9321	0.9043	27.21	1.25	1.500			
0.3442	22027.63	3.9290	3.9290	0.9114	27.21	1.25	1.500			
0.3469	22203.64	3.9260	3.9260	0.9164	27.20	1.24	1.500			
0.3497	22380.42	3.9230	3.9230	0.9223	27.20	1.24	1.500			
0.3525	22557.67	3.9200	3.9200	0.9305	27.19	1.23	1.500			
0.3552	22735.45	3.9170	3.9171	0.9354	27.19	1.23	1.500			
0.3581	22915.83	3.9140	3.9140	0.9408	27.18	1.22	1.500			
0.3609	23097.82	3.9110	3.9109	0.9480	27.18	1.22	1.500			
0.3638	23280.73	3.9080	3.9081	0.9577	27.17	1.21	1.500			
0.3666	23465.15	3.9050	3.9050	0.9638	27.16	1.20	1.500			
0.3695	23650.88	3.9020	3.9019	0.9688	27.16	1.20	1.500			
0.3725	23837.46	3.8990	3.8990	0.9737	27.15	1.19	1.500			
0.3754	24023.76	3.8960	3.8961	0.9816	27.15	1.19	1.500			
0.3783	24212.75	3.8930	3.8929	0.9932	27.14	1.18	1.500			
0.3813	24405.15	3.8900	3.8900	1.0017	27.13	1.17	1.500			
0.3843	24597.99	3.8870	3.8870	1.0098	27.12	1.16	1.500			
0.3874	24792.71	3.8840	3.8840	1.0250	27.12	1.16	1.500			
0.3905	24991.56	3.8810	3.8811	1.0356	27.11	1.15	1.500			
0.3936	25191.12	3.8780	3.8779	1.0452	27.10	1.14	1.500			
0.3967	25391.90	3.8750	3.8750	1.0549	27.09	1.13	1.500			
0.3999	25594.90	3.8720	3.8721	1.0653	27.08	1.12	1.500			
0.4031	25800.71	3.8690	3.8690	1.0808	27.07	1.11	1.500			
0.4064	26009.85	3.8660	3.8660	1.0907	27.06	1.10	1.500			
0.4097	26219.44	3.8630	3.8630	1.1026	27.06	1.10	1.500			
0.4130	26433.59	3.8600	3.8600	1.1184	27.05	1.09	1.500			
0.4164	26648.98	3.8570	3.8570	1.1320	27.04	1.08	1.500			
0.4198	26866.93	3.8540	3.8540	1.1478	27.03	1.07	1.500			
0.4233	27088.38	3.8510	3.8510	1.1676	27.02	1.06	1.500			
0.4268	27314.80	3.8480	3.8480	1.1835	27.01	1.05	1.500			
0.4304	27545.51	3.8450	3.8451	1.2004	27.00	1.04	1.500			
0.4340	27776.67	3.8420	3.8419	1.2178	26.99	1.03	1.500			
0.4377	28012.51	3.8390	3.8391	1.2333	26.98	1.02	1.500			
0.4414	28248.36	3.8360	3.8360	1.2482	26.97	1.01	1.500			
0.4451	28488.70	3.8330	3.8330	1.2679	26.96	1.00	1.500			
0.4490	28733.35	3.8300	3.8301	1.2916	26.95	0.99	1.500			
0.4529	28984.61	3.8270	3.8269	1.3199	26.93	0.97	1.500			
0.4569	29242.43	3.8240	3.8240	1.3458	26.92	0.96	1.500			
0.4610	29503.69	3.8210	3.8210	1.3640	26.90	0.94	1.500			
0.4652	29769.66	3.8180	3.8180	1.3859	26.89	0.93	1.500			
0.4693	30037.15	3.8150	3.8150	1.3964	26.87	0.91	1.500			
0.4735	30305.83	3.8120	3.8120	1.4123	26.86	0.90	1.500			
0.4777	30575.84	3.8090	3.8090	1.4367	26.84	0.88	1.500			
0.4821	30852.98	3.8060	3.8060	1.4613	26.83	0.87	1.500			
0.4865	31136.06	3.8030	3.8030	1.4860	26.81	0.85	1.500			
0.4910	31424.71	3.8000	3.8001	1.5229	26.80	0.84	1.500			
0.4956	31719.46	3.7970	3.7970	1.5523	26.78	0.82	1.500			
0.5003	32019.92	3.7940	3.7939	1.5791	26.76	0.80	1.500			
0.5050	32322.72	3.7910	3.7911	1.6079	26.75	0.79	1.500			
0.5100	32637.27	3.7880	3.7879	1.6353	26.73	0.77	1.500	0.346	0.489	
0.5149	32956.46	3.7850	3.7851	1.6463	26.71	0.75	1.500			
0.5199	33272.95	3.7820	3.7821	1.6531	26.69	0.73	1.500			
0.5249	33595.21	3.7790	3.7790	1.6689	26.67	0.71	1.500			
0.5298	33909.43	3.7760	3.7760	1.6532	26.66	0.70	1.500			
0.5348	34228.83	3.7730	3.7730	1.6705	26.64	0.68	1.500			
0.5399	34552.15	3.7700	3.7700	1.6704	26.62	0.66	1.500			
0.5449	34874.00	3.7670	3.7670	1.6795	26.61	0.65	1.500			
0.5499	35192.40	3.7640	3.7639	1.6983	26.59	0.63	1.500			
0.5550	35520.61	3.7610	3.7610	1.7099	26.58	0.62	1.500			
0.5602	35851.53	3.7580	3.7580	1.7294	26.56	0.60	1.500			
0.5655	36190.12	3.7550	3.7550	1.7266	26.54	0.58	1.500			
0.5705	36514.31	3.7520	3.7520	1.7372	26.53	0.57	1.500			
0.5757	36847.35	3.7490	3.7491	1.7577	26.51	0.55	1.500			
0.5811	37187.45	3.7460	3.7460	1.7912	26.49	0.53	1.500			
0.5865	37535.89	3.7430	3.7430	1.8349	26.48	0.52	1.500			
0.5921	37895.03	3.7400	3.7400	1.8805	26.46	0.50	1.500			
0.5977	38253.28	3.7370	3.7370	1.9253	26.44	0.48	1.500			
0.6035	38626.64	3.7340	3.7339	1.9773	26.42	0.46	1.500			
0.6096	39013.58	3.7310	3.7310	2.0398	26.40	0.44	1.500			
0.6158	39412.95	3.7280	3.7280	2.0833	26.38	0.42	1.500			
0.6222	39818.63	3.7250	3.7250	2.1299	26.36	0.40	1.500			
0.6286	40227.84	3.7220	3.7220	2.1856	26.34	0.38	1.500			
0.6352	40654.68	3.7190	3.7190	2.2518	26.32	0.36	1.500			
0.6421	41091.56	3.7160	3.7160	2.2704	26.30	0.34	1.500			
0.6490	41535.87	3.7130	3.7130	2.2835	26.28	0.32	1.500			
0.6558	41974.34	3.7100	3.7099	2.2577	26.25	0.29	1.500			
0.6627	42411.80	3.7070	3.7071	2.1727	26.24	0.28	1.500			
0.6692	42829.76	3.7040	3.7040	2.0796	26.22	0.26	1.500			
0.6751	43207.25	3.7010	3.7010	1.9105	26.21	0.25	1.500			
0.6806	43559.44	3.6980	3.6980	1.7813	26.20	0.24	1.500			
0.6857	43883.14	3.6950	3.6950	1.6596	26.19	0.23	1.500			
0.6905	44190.77	3.6920	3.6920	1.5675	26.18	0.22	1.500			
0.6950	44479.25	3.6890	3.6890	1.4959	26.17	0.21	1.500			
0.6993	44756.89	3.6860	3.6860	1.4350	26.16	0.20	1.500			
0.7035	45023.90	3.6830	3.6830	1.3837	26.15	0.19	1.500			
0.7076	45283.71	3.6800	3.6801	1.3502	26.14	0.18	1.500			
0.7116	45539.67	3.6770	3.6769	1.3174	26.13	0.17	1.500			
0.7154	45788.11	3.6740	3.6740	1.2865	26.12	0.16	1.500			
0.7192	46029.18	3.6710	3.6710	1.2692	26.11	0.15	1.500			
0.7230	46270.51	3.6680	3.6681	1.2581	26.10	0.14	1.500			
0.7267	46508.69	3.6650	3.6649	1.2515	26.09	0.13	1.500			
0.7304	46748.60	3.6620	3.6620	1.2508	26.08	0.12	1.500			
0.7342	46988.20	3.6590	3.6590	1.2454	26.07	0.11	1.500			
0.7380	47229.94	3.6560	3.6560	1.2486	26.06	0.10	1.500			
0.7417	47471.27	3.6530	3.6531	1.2432	26.05	0.09	1.500			
0.7454	47707.80	3.6500	3.6500	1.2351	26.04	0.08	1.500			
0.7491	47945.31	3.6470	3.6470	1.2257	26.03	0.07	1.500			
0.7528	48180.02	3.6440	3.6440	1.2112	26.02	0.06	1.500			
0.7564	48412.05	3.6410	3.6410	1.1951	26.01	0.05	1.500			
0.7600	48639.63	3.6380	3.6380	1.1807	26.01	0.05	1.500			
0.7635	48863.38	3.6350	3.6351	1.1709	26.00	0.04	1.500			
0.7670	49087.51	3.6320	3.6319	1.1575	25.99	0.03	1.500			
0.7704	49308.51	3.6290	3.6289	1.1421	25.99	0.03	1.500			
0.7739	49527.95	3.6260	3.6261	1.1320	25.98	0.02	1.500			
0.7773	49745.36	3.6230	3.6230	1.1206	25.97	0.01	1.500			
0.7806	49959.12	3.6200	3.6200	1.1046	25.97	0.01	1.500			
0.7839	50169.60	3.6170	3.6169	1.0798	25.97	0.01	1.500			
0.7871	50374.35	3.6140	3.6140	1.0603	25.97	0.01	1.500			
0.7903	50579.51	3.6110	3.6110	1.0401	25.97	0.01	1.500			
0.7934	50777.01	3.6080	3.6080	1.0098	25.96	0.00	1.500			
0.7964	50968.01	3.6050	3.6049	0.9820	25.96	0.00	1.500			
0.7993	51153.93	3.6020	3.6021	0.9501	25.96	0.00	1.500			
0.8021	51334.35	3.5990	3.5989	0.9170	25.96	0.00	1.500			
0.8048	51508.89	3.5960	3.5960	0.8788	25.96	-0.00	1.500			
0.8074	51676.37	3.5930	3.5930	0.8243	25.96	-0.00	1.500			
0.8099	51832.48	3.5900	3.5901	0.7652	25.96	-0.00	1.500			
0.8122	51978.10	3.5870	3.5870	0.6919	25.96	-0.00	1.500			
0.8141	52102.99	3.5840	3.5841	0.6077	25.96	-0.00	1.500			
0.8158	52211.86	3.5810	3.5810	0.5277	25.96	-0.00	1.500			
0.8172	52303.00	3.5780	3.5780	0.4486	25.95	-0.01	1.500			
0.8184	52377.30	3.5750	3.5750	0.3840	25.95	-0.01	1.500			
0.8194	52441.80	3.5720	3.5720	0.3311	25.95	-0.01	1.500			
0.8203	52497.54	3.5690	3.5689	0.2802	25.95	-0.01	1.500			
0.8210	52546.35	3.5660	3.5660	0.2468	25.95	-0.01	1.500			
0.8217	52587.93	3.5630	3.5630	0.2176	25.95	-0.01	1.500			
0.8223	52626.17	3.5600	3.5600	0.1951	25.95	-0.01	1.500			
0.8228	52660.25	3.5570	3.5569	0.1725	25.95	-0.01	1.500			
0.8233	52690.83	3.5540	3.5540	0.1552	25.95	-0.01	1.500			
0.8237	52718.97	3.5510	3.5511	0.1390	25.95	-0.01	1.500			
0.8241	52743.78	3.5480	3.5480	0.1234	25.95	-0.01	1.500			
0.8245	52766.05	3.5450	3.5450	0.1086	25.95	-0.01	1.500			
0.8248	52785.45	3.5420	3.5420	0.0937	25.95	-0.01	1.500			
0.8250	52801.48	3.5390	3.5392	0.0786	25.95	-0.01	1.500			
0.8252	52815.23	3.5360	3.5363	0.0646	25.95	-0.01	1.500			
0.8254	52826.88	3.5330	3.5333	0.0489	25.95	-0.01	1.500			
0.8255	52834.77	3.5300	3.5309	0.0333	25.95	-0.01	1.500			
