Ah_balance (normalized)	Ah_balance (mAh)	Voltage - fit (V)	Voltage -  interpolate (V)	dQ/dV (1/V)	Temperature (°C)	Temperature - diff (°C)	Current (C)	R_DC 0ms (mOhm)	R_DC 50ms (mOhm)	R_DC 50 ms PEC (mOhm)
0.2832	18125.95	3.9750	3.9750	0.8960	27.02	1.10	1.500			
0.2859	18296.14	3.9720	3.9721	0.8855	27.02	1.10	1.500			
0.2886	18467.39	3.9690	3.9689	0.8871	27.01	1.09	1.500			
0.2912	18636.28	3.9660	3.9659	0.8845	27.01	1.09	1.500			
0.2938	18805.31	3.9630	3.9632	0.8854	27.00	1.08	1.500			
0.2965	18975.36	3.9600	3.9600	0.8876	27.00	1.08	1.500			
0.2992	19147.63	3.9570	3.9569	0.8900	26.99	1.07	1.500			
0.3018	19317.13	3.9540	3.9541	0.8884	26.99	1.07	1.500			
0.3045	19487.25	3.9510	3.9510	0.8896	26.99	1.07	1.500			
0.3072	19660.24	3.9480	3.9480	0.8916	26.98	1.06	1.500			
0.3098	19829.88	3.9450	3.9450	0.8936	26.98	1.06	1.500			
0.3125	20001.00	3.9420	3.9420	0.9007	26.97	1.05	1.500			
0.3152	20174.91	3.9390	3.9390	0.9081	26.97	1.05	1.500			
0.3180	20349.89	3.9360	3.9360	0.9175	26.96	1.04	1.500			
0.3207	20526.68	3.9330	3.9330	0.9245	26.96	1.04	1.500			
0.3235	20705.78	3.9300	3.9300	0.9335	26.96	1.04	1.500			
0.3264	20887.25	3.9270	3.9269	0.9401	26.95	1.03	1.500			
0.3292	21067.60	3.9240	3.9240	0.9383	26.95	1.03	1.500			
0.3320	21249.00	3.9210	3.9211	0.9406	26.94	1.02	1.500			
0.3348	21429.40	3.9180	3.9180	0.9439	26.94	1.02	1.500			
0.3376	21609.44	3.9150	3.9150	0.9495	26.93	1.01	1.500			
0.3405	21790.32	3.9120	3.9120	0.9557	26.93	1.01	1.500			
0.3433	21973.99	3.9090	3.9090	0.9654	26.92	1.00	1.500			
0.3463	22161.77	3.9060	3.9060	0.9756	26.92	1.00	1.500			
0.3492	22350.35	3.9030	3.9030	0.9873	26.91	0.99	1.500			
0.3522	22541.78	3.9000	3.9000	0.9940	26.90	0.98	1.500			
0.3552	22733.04	3.8970	3.8970	0.9991	26.90	0.98	1.500			
0.3582	22924.82	3.8940	3.8941	1.0033	26.89	0.97	1.500			
0.3612	23117.36	3.8910	3.8910	1.0135	26.88	0.96	1.500			
0.3643	23312.40	3.8880	3.8879	1.0242	26.88	0.96	1.500			
0.3673	23509.85	3.8850	3.8850	1.0355	26.87	0.95	1.500			
0.3705	23709.66	3.8820	3.8819	1.0428	26.86	0.94	1.500			
0.3736	23912.92	3.8790	3.8790	1.0549	26.85	0.93	1.500			
0.3768	24115.78	3.8760	3.8760	1.0638	26.85	0.93	1.500			
0.3800	24320.28	3.8730	3.8730	1.0729	26.84	0.92	1.500			
0.3832	24525.45	3.8700	3.8700	1.0815	26.83	0.91	1.500			
0.3865	24734.51	3.8670	3.8669	1.0983	26.82	0.90	1.500			
0.3898	24946.89	3.8640	3.8640	1.1126	26.81	0.89	1.500			
0.3932	25162.47	3.8610	3.8610	1.1257	26.81	0.89	1.500			
0.3966	25380.39	3.8580	3.8581	1.1412	26.80	0.88	1.500			
0.4000	25599.61	3.8550	3.8550	1.1605	26.79	0.87	1.500			
0.4035	25823.40	3.8520	3.8519	1.1740	26.78	0.86	1.500			
0.4070	26051.11	3.8490	3.8490	1.1870	26.77	0.85	1.500			
0.4106	26280.10	3.8460	3.8460	1.2079	26.76	0.84	1.500			
0.4143	26514.13	3.8430	3.8431	1.2302	26.76	0.84	1.500			
0.4180	26751.53	3.8400	3.8400	1.2536	26.75	0.83	1.500			
0.4218	26993.11	3.8370	3.8371	1.2743	26.74	0.82	1.500			
0.4256	27240.38	3.8340	3.8339	1.2965	26.73	0.81	1.500			
0.4296	27492.95	3.8310	3.8310	1.3272	26.72	0.80	1.500			
0.4336	27750.21	3.8280	3.8280	1.3526	26.71	0.79	1.500			
0.4377	28012.06	3.8250	3.8249	1.3815	26.70	0.78	1.500			
0.4419	28279.95	3.8220	3.8220	1.4068	26.69	0.77	1.500			
0.4461	28551.79	3.8190	3.8190	1.4309	26.68	0.76	1.500			
0.4505	28828.82	3.8160	3.8160	1.4620	26.67	0.75	1.500			
0.4549	29113.33	3.8130	3.8130	1.4877	26.66	0.74	1.500			
0.4593	29397.34	3.8100	3.8100	1.5288	26.65	0.73	1.500			
0.4640	29693.95	3.8070	3.8069	1.5702	26.64	0.72	1.500			
0.4687	29998.09	3.8040	3.8040	1.6182	26.62	0.70	1.500			
0.4737	30315.18	3.8010	3.8010	1.6691	26.61	0.69	1.500			
0.4788	30641.36	3.7980	3.7980	1.7119	26.60	0.68	1.500			
0.4840	30974.45	3.7950	3.7950	1.7588	26.58	0.66	1.500			
0.4893	31316.73	3.7920	3.7920	1.7957	26.57	0.65	1.500			
0.4948	31665.43	3.7890	3.7890	1.8486	26.55	0.63	1.500			
0.5004	32025.53	3.7860	3.7860	1.8872	26.54	0.62	1.500			
0.5062	32394.68	3.7830	3.7830	1.9089	26.52	0.60	1.500			
0.5119	32763.49	3.7800	3.7801	1.9640	26.50	0.58	1.500			
0.5179	33145.43	3.7770	3.7769	2.0175	26.49	0.57	1.500			
0.5240	33534.63	3.7740	3.7741	2.0526	26.47	0.55	1.500			
0.5303	33937.34	3.7710	3.7710	2.0887	26.45	0.53	1.500			
0.5366	34344.65	3.7680	3.7680	2.1306	26.43	0.51	1.500			
0.5430	34750.31	3.7650	3.7650	2.1458	26.41	0.49	1.500			
0.5495	35168.57	3.7620	3.7620	2.1602	26.39	0.47	1.500	0.361	0.455	
0.5561	35587.94	3.7590	3.7590	2.1335	26.37	0.45	1.500			
0.5625	36001.25	3.7560	3.7561	2.1327	26.36	0.44	1.500			
0.5688	36405.37	3.7530	3.7529	2.0882	26.34	0.42	1.500			
0.5750	36802.94	3.7500	3.7501	2.0602	26.33	0.41	1.500			
0.5812	37196.67	3.7470	3.7470	2.0246	26.31	0.39	1.500			
0.5872	37581.05	3.7440	3.7440	2.0113	26.29	0.37	1.500			
0.5932	37965.25	3.7410	3.7410	2.0164	26.28	0.36	1.500			
0.5993	38355.40	3.7380	3.7380	2.0416	26.26	0.34	1.500			
0.6055	38750.21	3.7350	3.7350	2.0435	26.25	0.33	1.500			
0.6116	39143.11	3.7320	3.7321	2.0783	26.24	0.32	1.500			
0.6179	39544.15	3.7290	3.7289	2.1130	26.23	0.31	1.500			
0.6243	39952.93	3.7260	3.7260	2.1576	26.21	0.29	1.500			
0.6308	40369.87	3.7230	3.7230	2.2247	26.20	0.28	1.500			
0.6376	40804.66	3.7200	3.7200	2.2829	26.18	0.26	1.500			
0.6444	41242.29	3.7170	3.7169	2.3407	26.16	0.24	1.500			
0.6516	41702.59	3.7140	3.7141	2.4168	26.15	0.23	1.500			
0.6590	42173.11	3.7110	3.7110	2.5069	26.14	0.22	1.500			
0.6666	42661.33	3.7080	3.7080	2.5847	26.13	0.21	1.500			
0.6745	43165.38	3.7050	3.7050	2.6721	26.11	0.19	1.500			
0.6826	43685.57	3.7020	3.7020	2.7385	26.10	0.18	1.500			
0.6909	44220.71	3.6990	3.6990	2.7503	26.08	0.16	1.500			
0.6994	44759.85	3.6960	3.6960	2.6987	26.07	0.15	1.500			
0.7073	45266.29	3.6930	3.6930	2.5604	26.06	0.14	1.500			
0.7148	45746.77	3.6900	3.6900	2.3845	26.05	0.13	1.500			
0.7216	46183.76	3.6870	3.6871	2.1862	26.04	0.12	1.500			
0.7279	46587.07	3.6840	3.6841	2.0043	26.03	0.11	1.500			
0.7335	46946.44	3.6810	3.6810	1.8339	26.03	0.11	1.500			
0.7387	47273.80	3.6780	3.6781	1.6975	26.03	0.11	1.500			
0.7435	47582.68	3.6750	3.6749	1.5863	26.02	0.10	1.500			
0.7481	47875.35	3.6720	3.6720	1.5025	26.02	0.10	1.500			
0.7524	48153.45	3.6690	3.6690	1.4253	26.01	0.09	1.500			
0.7566	48421.19	3.6660	3.6660	1.3619	26.01	0.09	1.500			
0.7605	48674.05	3.6630	3.6631	1.3228	26.01	0.09	1.500			
0.7643	48917.28	3.6600	3.6600	1.2766	26.00	0.08	1.500			
0.7681	49155.42	3.6570	3.6570	1.2597	26.00	0.08	1.500			
0.7717	49390.41	3.6540	3.6540	1.2508	26.00	0.08	1.500			
0.7755	49629.43	3.6510	3.6510	1.2569	25.99	0.07	1.500			
0.7792	49870.67	3.6480	3.6480	1.2709	25.99	0.07	1.500			
0.7831	50116.82	3.6450	3.6450	1.2791	25.98	0.06	1.500			
0.7869	50362.56	3.6420	3.6420	1.2830	25.97	0.05	1.500			
0.7908	50613.10	3.6390	3.6390	1.2998	25.97	0.05	1.500			
0.7947	50863.11	3.6360	3.6359	1.3057	25.96	0.04	1.500			
0.7986	51112.56	3.6330	3.6330	1.3125	25.96	0.04	1.500			
0.8026	51367.48	3.6300	3.6300	1.3164	25.95	0.03	1.500			
0.8066	51622.44	3.6270	3.6270	1.3136	25.95	0.03	1.500			
0.8106	51875.96	3.6240	3.6240	1.3072	25.95	0.03	1.500			
0.8145	52126.39	3.6210	3.6211	1.3075	25.94	0.02	1.500			
0.8184	52374.55	3.6180	3.6180	1.3055	25.94	0.02	1.500			
0.8223	52625.06	3.6150	3.6149	1.3057	25.94	0.02	1.500			
0.8262	52875.03	3.6120	3.6120	1.2979	25.94	0.02	1.500			
0.8301	53127.53	3.6090	3.6090	1.2947	25.93	0.01	1.500			
0.8340	53379.10	3.6060	3.6060	1.2863	25.93	0.01	1.500			
0.8379	53623.19	3.6030	3.6030	1.2713	25.93	0.01	1.500			
0.8416	53863.86	3.6000	3.6000	1.2546	25.92	0.00	1.500			
0.8454	54103.76	3.5970	3.5969	1.2416	25.92	0.00	1.500			
0.8491	54340.71	3.5940	3.5941	1.2279	25.92	0.00	1.500			
0.8528	54576.28	3.5910	3.5910	1.2127	25.92	0.00	1.500			
0.8564	54808.54	3.5880	3.5880	1.2022	25.92	0.00	1.500			
0.8599	55033.92	3.5850	3.5850	1.1902	25.92	0.00	1.500			
0.8634	55260.79	3.5820	3.5820	1.1870	25.92	0.00	1.500			
0.8670	55490.73	3.5790	3.5789	1.1769	25.92	0.00	1.500			
0.8706	55720.37	3.5760	3.5758	1.1519	25.92	0.00	1.500			
0.8742	55947.22	3.5730	3.5730	1.1067	25.92	0.00	1.500			
0.8775	56163.11	3.5700	3.5701	1.0051	25.92	0.00	1.500			
0.8806	56359.77	3.5670	3.5671	0.8922	25.92	0.00	1.500			
0.8831	56519.62	3.5640	3.5640	0.7551	25.92	0.00	1.500			
0.8851	56646.05	3.5610	3.5610	0.6139	25.92	0.00	1.500			
0.8866	56742.81	3.5580	3.5580	0.5034	25.92	0.00	1.500			
0.8879	56823.76	3.5550	3.5551	0.4188	25.92	0.00	1.500			
0.8889	56890.30	3.5520	3.5519	0.3364	25.92	0.00	1.500			
0.8898	56946.41	3.5490	3.5488	0.2890	25.92	0.00	1.500			
0.8905	56992.78	3.5460	3.5460	0.2487	25.92	0.00	1.500			
0.8912	57034.27	3.5430	3.5429	0.2197	25.92	0.00	1.500			
0.8918	57072.03	3.5400	3.5400	0.1939	25.92	0.00	1.500			
0.8923	57106.63	3.5370	3.5370	0.1765	25.92	0.00	1.500			
0.8928	57137.80	3.5340	3.5340	0.1597	25.92	0.00	1.500			
0.8932	57166.79	3.5310	3.5311	0.1447	25.92	0.00	1.500			
0.8936	57193.27	3.5280	3.5280	0.1305	25.92	0.00	1.500			
0.8940	57216.82	3.5250	3.5250	0.1162	25.92	0.00	1.500			
0.8943	57238.03	3.5220	3.5219	0.1026	25.92	0.00	1.500			
0.8946	57256.31	3.5190	3.5191	0.0883	25.92	0.00	1.500			
0.8949	57271.91	3.5160	3.5162	0.0742	25.92	0.00	1.500			
0.8951	57285.08	3.5130	3.5133	0.0591	25.92	0.00	1.500			
0.8952	57294.99	3.5100	3.5105	0.0440	25.92	0.00	1.500			
