Ah_balance (normalized)	Ah_balance (mAh)	Voltage - fit (V)	Voltage -  interpolate (V)	dQ/dV (1/V)	Temperature (°C)	Temperature - diff (°C)	Current (C)	R_DC 0ms (mOhm)	R_DC 50ms (mOhm)	R_DC 50 ms PEC (mOhm)
0.2129	13622.71	3.9110	3.9108	-0.1137	25.72	0.00	-1.500			
0.2133	13648.08	3.9080	3.9080	-0.1506	25.72	0.00	-1.500			
0.2138	13682.01	3.9050	3.9048	-0.1858	25.72	0.00	-1.500			
0.2144	13721.43	3.9020	3.9019	-0.2159	25.72	0.00	-1.500			
0.2151	13765.45	3.8990	3.8991	-0.2478	25.72	0.00	-1.500			
0.2159	13816.89	3.8960	3.8961	-0.2780	25.72	0.00	-1.500			
0.2168	13872.99	3.8930	3.8929	-0.3061	25.72	0.00	-1.500			
0.2177	13934.13	3.8900	3.8900	-0.3368	25.72	0.00	-1.500			
0.2188	14000.91	3.8870	3.8872	-0.3662	25.72	-0.00	-1.500			
0.2199	14074.45	3.8840	3.8839	-0.3972	25.72	-0.00	-1.500			
0.2212	14154.39	3.8810	3.8809	-0.4266	25.72	-0.00	-1.500			
0.2225	14238.43	3.8780	3.8781	-0.4562	25.72	-0.00	-1.500			
0.2239	14329.31	3.8750	3.8750	-0.4859	25.72	-0.00	-1.500			
0.2254	14426.23	3.8720	3.8720	-0.5132	25.71	-0.01	-1.500			
0.2270	14527.32	3.8690	3.8690	-0.5386	25.71	-0.01	-1.500			
0.2286	14633.28	3.8660	3.8661	-0.5655	25.71	-0.01	-1.500			
0.2304	14744.53	3.8630	3.8629	-0.5906	25.71	-0.01	-1.500			
0.2322	14861.03	3.8600	3.8600	-0.6134	25.71	-0.01	-1.500			
0.2341	14980.78	3.8570	3.8570	-0.6331	25.71	-0.01	-1.500			
0.2360	15105.04	3.8540	3.8540	-0.6553	25.71	-0.01	-1.500			
0.2380	15233.93	3.8510	3.8509	-0.6701	25.70	-0.02	-1.500			
0.2401	15363.49	3.8480	3.8480	-0.6876	25.70	-0.02	-1.500			
0.2421	15497.59	3.8450	3.8450	-0.6994	25.70	-0.02	-1.500			
0.2443	15634.24	3.8420	3.8419	-0.7109	25.70	-0.02	-1.500			
0.2464	15772.30	3.8390	3.8390	-0.7188	25.70	-0.02	-1.500			
0.2486	15911.19	3.8360	3.8361	-0.7263	25.70	-0.02	-1.500			
0.2508	16050.50	3.8330	3.8330	-0.7343	25.70	-0.02	-1.500			
0.2530	16192.81	3.8300	3.8299	-0.7458	25.70	-0.02	-1.500			
0.2552	16335.08	3.8270	3.8270	-0.7501	25.70	-0.02	-1.500			
0.2575	16481.28	3.8240	3.8241	-0.7610	25.71	-0.01	-1.500			
0.2598	16630.02	3.8210	3.8210	-0.7656	25.71	-0.01	-1.500			
0.2622	16777.83	3.8180	3.8180	-0.7671	25.71	-0.01	-1.500			
0.2645	16925.42	3.8150	3.8150	-0.7665	25.71	-0.01	-1.500			
0.2667	17071.77	3.8120	3.8119	-0.7673	25.71	-0.01	-1.500			
0.2691	17220.27	3.8090	3.8090	-0.7623	25.71	-0.01	-1.500			
0.2713	17366.37	3.8060	3.8060	-0.7599	25.71	-0.01	-1.500			
0.2736	17511.89	3.8030	3.8031	-0.7580	25.72	-0.00	-1.500			
0.2759	17655.34	3.8000	3.8002	-0.7577	25.72	-0.00	-1.500			
0.2781	17800.84	3.7970	3.7969	-0.7643	25.72	0.00	-1.500			
0.2804	17946.93	3.7940	3.7940	-0.7694	25.72	0.00	-1.500			
0.2827	18095.98	3.7910	3.7910	-0.7739	25.73	0.01	-1.500			
0.2851	18248.06	3.7880	3.7880	-0.7871	25.73	0.01	-1.500			
0.2875	18399.24	3.7850	3.7850	-0.7857	25.73	0.01	-1.500			
0.2898	18549.32	3.7820	3.7820	-0.7875	25.74	0.02	-1.500			
0.2922	18700.88	3.7790	3.7790	-0.7845	25.74	0.02	-1.500			
0.2946	18851.80	3.7760	3.7760	-0.7857	25.74	0.02	-1.500			
0.2969	19003.07	3.7730	3.7730	-0.7857	25.75	0.03	-1.500			
0.2993	19153.57	3.7700	3.7700	-0.7875	25.75	0.03	-1.500			
0.3016	19303.95	3.7670	3.7670	-0.7889	25.76	0.04	-1.500			
0.3040	19456.62	3.7640	3.7640	-0.7912	25.76	0.04	-1.500			
0.3064	19608.00	3.7610	3.7610	-0.7896	25.77	0.05	-1.500			
0.3088	19761.11	3.7580	3.7581	-0.7901	25.77	0.05	-1.500			
0.3111	19913.01	3.7550	3.7550	-0.7901	25.78	0.06	-1.500			
0.3135	20064.60	3.7520	3.7519	-0.7879	25.78	0.06	-1.500			
0.3159	20214.92	3.7490	3.7490	-0.7846	25.79	0.07	-1.500			
0.3182	20364.78	3.7460	3.7462	-0.7860	25.79	0.07	-1.500			
0.3206	20516.10	3.7430	3.7429	-0.7893	25.79	0.07	-1.500			
0.3229	20667.51	3.7400	3.7400	-0.7921	25.80	0.08	-1.500			
0.3253	20819.05	3.7370	3.7369	-0.7937	25.80	0.08	-1.500			
0.3277	20973.51	3.7340	3.7341	-0.7983	25.81	0.09	-1.500			
0.3301	21126.81	3.7310	3.7310	-0.7981	25.81	0.09	-1.500			
0.3325	21280.10	3.7280	3.7280	-0.7986	25.82	0.10	-1.500			
0.3349	21433.44	3.7250	3.7250	-0.7962	25.82	0.10	-1.500			
0.3373	21585.41	3.7220	3.7219	-0.7940	25.83	0.11	-1.500			
0.3396	21737.07	3.7190	3.7190	-0.7955	25.83	0.11	-1.500			
0.3420	21889.86	3.7160	3.7160	-0.7974	25.84	0.12	-1.500			
0.3444	22042.45	3.7130	3.7130	-0.8022	25.84	0.12	-1.500			
0.3468	22196.23	3.7100	3.7100	-0.8059	25.85	0.13	-1.500			
0.3492	22351.09	3.7070	3.7070	-0.8156	25.85	0.13	-1.500			
0.3517	22508.79	3.7040	3.7040	-0.8254	25.86	0.14	-1.500			
0.3542	22668.42	3.7010	3.7009	-0.8329	25.87	0.15	-1.500			
0.3567	22829.26	3.6980	3.6980	-0.8378	25.87	0.15	-1.500			
0.3592	22990.44	3.6950	3.6951	-0.8504	25.88	0.16	-1.500			
0.3618	23154.78	3.6920	3.6920	-0.8565	25.88	0.16	-1.500			
0.3644	23320.25	3.6890	3.6888	-0.8667	25.89	0.17	-1.500			
0.3670	23486.20	3.6860	3.6860	-0.8729	25.90	0.18	-1.500			
0.3696	23654.45	3.6830	3.6830	-0.8881	25.90	0.18	-1.500			
0.3723	23826.89	3.6800	3.6800	-0.9056	25.91	0.19	-1.500			
0.3750	24002.16	3.6770	3.6770	-0.9201	25.91	0.19	-1.500			
0.3778	24177.73	3.6740	3.6740	-0.9322	25.92	0.20	-1.500			
0.3806	24360.69	3.6710	3.6711	-0.9488	25.92	0.20	-1.500			
0.3835	24545.01	3.6680	3.6680	-0.9631	25.92	0.20	-1.500			
0.3864	24731.40	3.6650	3.6650	-0.9772	25.93	0.21	-1.500			
0.3894	24918.67	3.6620	3.6620	-0.9915	25.93	0.21	-1.500			
0.3924	25110.74	3.6590	3.6590	-1.0082	25.94	0.22	-1.500			
0.3954	25304.24	3.6560	3.6559	-1.0334	25.94	0.22	-1.500			
0.3985	25504.23	3.6530	3.6531	-1.0599	25.94	0.22	-1.500			
0.4017	25711.13	3.6500	3.6499	-1.0848	25.95	0.23	-1.500			
0.4050	25922.00	3.6470	3.6470	-1.1057	25.95	0.23	-1.500			
0.4084	26139.58	3.6440	3.6440	-1.1282	25.95	0.23	-1.500			
0.4118	26357.06	3.6410	3.6411	-1.1518	25.95	0.23	-1.500			
0.4153	26580.41	3.6380	3.6379	-1.1770	25.96	0.24	-1.500			
0.4189	26807.37	3.6350	3.6350	-1.1940	25.96	0.24	-1.500			
0.4225	27037.54	3.6320	3.6320	-1.2193	25.96	0.24	-1.500			
0.4262	27274.03	3.6290	3.6291	-1.2456	25.97	0.25	-1.500			
0.4300	27516.88	3.6260	3.6260	-1.2739	25.97	0.25	-1.500			
0.4338	27766.15	3.6230	3.6230	-1.3013	25.97	0.25	-1.500			
0.4377	28014.72	3.6200	3.6199	-1.3244	25.98	0.26	-1.500			
0.4418	28272.83	3.6170	3.6171	-1.3485	25.98	0.26	-1.500			
0.4458	28534.32	3.6140	3.6139	-1.3802	25.98	0.26	-1.500			
0.4500	28799.52	3.6110	3.6110	-1.4096	25.98	0.26	-1.500			
0.4543	29073.88	3.6080	3.6081	-1.4461	25.98	0.26	-1.500			
0.4586	29353.16	3.6050	3.6049	-1.4748	25.98	0.26	-1.500			
0.4632	29643.61	3.6020	3.6020	-1.5047	25.98	0.26	-1.500			
0.4677	29934.86	3.5990	3.5991	-1.5283	25.98	0.26	-1.500			
0.4724	30230.89	3.5960	3.5960	-1.5617	25.98	0.26	-1.500			
0.4770	30530.96	3.5930	3.5929	-1.5899	25.98	0.26	-1.500			
0.4819	30838.60	3.5900	3.5900	-1.6091	25.98	0.26	-1.500			
0.4867	31151.89	3.5870	3.5869	-1.6331	25.98	0.26	-1.500			
0.4917	31471.49	3.5840	3.5841	-1.6636	25.98	0.26	-1.500			
0.4968	31792.67	3.5810	3.5809	-1.6868	25.98	0.26	-1.500			
0.5018	32115.39	3.5780	3.5780	-1.7130	25.98	0.26	-1.500			
0.5069	32444.72	3.5750	3.5750	-1.7425	25.97	0.25	-1.500			
0.5122	32781.59	3.5720	3.5720	-1.7596	25.97	0.25	-1.500			
0.5176	33128.41	3.5690	3.5690	-1.7957	25.97	0.25	-1.500			
0.5230	33474.45	3.5660	3.5661	-1.8137	25.97	0.25	-1.500			
0.5285	33824.31	3.5630	3.5630	-1.8479	25.97	0.25	-1.500			
0.5341	34182.59	3.5600	3.5599	-1.8641	25.96	0.24	-1.500			
0.5397	34540.81	3.5570	3.5570	-1.8757	25.96	0.24	-1.500			
0.5454	34905.32	3.5540	3.5541	-1.9035	25.96	0.24	-1.500			
0.5511	35269.15	3.5510	3.5509	-1.9380	25.96	0.24	-1.500			
0.5570	35649.45	3.5480	3.5479	-1.9332	25.97	0.25	-1.500			
0.5628	36021.53	3.5450	3.5449	-1.9320	25.97	0.25	-1.500			
0.5687	36398.14	3.5420	3.5422	-1.9550	25.97	0.25	-1.500	0.386	0.512	
0.5746	36771.75	3.5390	3.5389	-1.9604	25.97	0.25	-1.500			
0.5804	37144.60	3.5360	3.5359	-1.9514	25.97	0.25	-1.500			
0.5862	37519.20	3.5330	3.5330	-1.9340	25.98	0.26	-1.500			
0.5922	37899.50	3.5300	3.5301	-1.9531	25.98	0.26	-1.500			
0.5980	38271.24	3.5270	3.5270	-1.9189	25.98	0.26	-1.500			
0.6037	38634.67	3.5240	3.5240	-1.9098	25.99	0.27	-1.500			
0.6093	38996.06	3.5210	3.5209	-1.8929	25.99	0.27	-1.500			
0.6150	39357.58	3.5180	3.5179	-1.8866	26.00	0.28	-1.500			
0.6206	39719.07	3.5150	3.5151	-1.8798	26.00	0.28	-1.500			
0.6263	40080.58	3.5120	3.5120	-1.8753	26.01	0.29	-1.500			
0.6319	40441.52	3.5090	3.5089	-1.8653	26.01	0.29	-1.500			
0.6375	40798.03	3.5060	3.5061	-1.8490	26.02	0.30	-1.500			
0.6430	41152.73	3.5030	3.5030	-1.8403	26.02	0.30	-1.500			
0.6485	41502.28	3.5000	3.5001	-1.8444	26.03	0.31	-1.500			
0.6540	41858.58	3.4970	3.4969	-1.8322	26.04	0.32	-1.500			
0.6595	42210.52	3.4940	3.4939	-1.8206	26.05	0.33	-1.500			
0.6650	42559.88	3.4910	3.4909	-1.8046	26.05	0.33	-1.500			
0.6704	42906.40	3.4880	3.4880	-1.7906	26.06	0.34	-1.500			
0.6757	43247.79	3.4850	3.4850	-1.7776	26.08	0.36	-1.500			
0.6810	43586.95	3.4820	3.4819	-1.7522	26.09	0.37	-1.500			
0.6862	43917.94	3.4790	3.4790	-1.7307	26.10	0.38	-1.500			
0.6915	44253.30	3.4760	3.4759	-1.7310	26.11	0.39	-1.500			
0.6966	44585.10	3.4730	3.4729	-1.7107	26.12	0.40	-1.500			
0.7017	44911.26	3.4700	3.4700	-1.6875	26.13	0.41	-1.500			
0.7068	45234.17	3.4670	3.4669	-1.6648	26.15	0.43	-1.500			
0.7117	45548.69	3.4640	3.4640	-1.6390	26.16	0.44	-1.500			
0.7166	45864.97	3.4610	3.4611	-1.6255	26.18	0.46	-1.500			
0.7214	46172.79	3.4580	3.4580	-1.5959	26.19	0.47	-1.500			
0.7262	46479.21	3.4550	3.4549	-1.5739	26.20	0.48	-1.500			
0.7310	46781.22	3.4520	3.4521	-1.5514	26.21	0.49	-1.500			
0.7355	47073.53	3.4490	3.4490	-1.5304	26.22	0.50	-1.500			
0.7401	47365.32	3.4460	3.4460	-1.5113	26.23	0.51	-1.500			
0.7446	47652.21	3.4430	3.4430	-1.4933	26.25	0.53	-1.500			
0.7490	47936.08	3.4400	3.4400	-1.4836	26.27	0.55	-1.500			
0.7535	48221.34	3.4370	3.4370	-1.4819	26.29	0.57	-1.500			
0.7579	48504.64	3.4340	3.4340	-1.4758	26.31	0.59	-1.500			
0.7623	48789.35	3.4310	3.4309	-1.4638	26.33	0.61	-1.500			
0.7667	49069.61	3.4280	3.4281	-1.4499	26.34	0.62	-1.500			
0.7710	49346.58	3.4250	3.4249	-1.4457	26.35	0.63	-1.500			
0.7753	49622.24	3.4220	3.4220	-1.4379	26.37	0.65	-1.500			
0.7797	49897.62	3.4190	3.4189	-1.4207	26.39	0.67	-1.500			
0.7839	50170.30	3.4160	3.4160	-1.4062	26.41	0.69	-1.500			
0.7882	50442.41	3.4130	3.4130	-1.3862	26.43	0.71	-1.500			
0.7923	50709.79	3.4100	3.4100	-1.3551	26.45	0.73	-1.500			
0.7964	50967.94	3.4070	3.4069	-1.3134	26.47	0.75	-1.500			
0.8002	51214.06	3.4040	3.4040	-1.2650	26.48	0.76	-1.500			
0.8039	51452.38	3.4010	3.4011	-1.2186	26.50	0.78	-1.500			
0.8075	51682.70	3.3980	3.3979	-1.1776	26.52	0.80	-1.500			
0.8110	51904.99	3.3950	3.3950	-1.1339	26.54	0.82	-1.500			
0.8143	52118.34	3.3920	3.3920	-1.0911	26.55	0.83	-1.500			
0.8176	52325.07	3.3890	3.3890	-1.0523	26.56	0.84	-1.500			
0.8207	52522.95	3.3860	3.3859	-1.0064	26.57	0.85	-1.500			
0.8236	52710.43	3.3830	3.3830	-0.9618	26.59	0.87	-1.500			
0.8264	52891.39	3.3800	3.3800	-0.9238	26.61	0.89	-1.500			
0.8291	53062.34	3.3770	3.3770	-0.8829	26.62	0.90	-1.500			
0.8317	53227.15	3.3740	3.3740	-0.8482	26.64	0.92	-1.500			
0.8342	53386.08	3.3710	3.3710	-0.8188	26.65	0.93	-1.500			
0.8366	53540.00	3.3680	3.3680	-0.7893	26.66	0.94	-1.500			
0.8389	53688.90	3.3650	3.3650	-0.7656	26.67	0.95	-1.500			
0.8411	53833.60	3.3620	3.3620	-0.7387	26.67	0.95	-1.500			
0.8433	53973.35	3.3590	3.3590	-0.7104	26.68	0.96	-1.500			
0.8454	54107.24	3.3560	3.3560	-0.6857	26.69	0.97	-1.500			
0.8474	54234.73	3.3530	3.3532	-0.6613	26.70	0.98	-1.500			
0.8494	54359.14	3.3500	3.3500	-0.6404	26.71	0.99	-1.500			
0.8512	54479.60	3.3470	3.3469	-0.6211	26.72	1.00	-1.500			
0.8531	54596.65	3.3440	3.3440	-0.6016	26.73	1.01	-1.500			
0.8549	54710.92	3.3410	3.3410	-0.5858	26.74	1.02	-1.500			
0.8566	54821.59	3.3380	3.3380	-0.5691	26.75	1.03	-1.500			
0.8583	54929.22	3.3350	3.3350	-0.5484	26.75	1.03	-1.500			
0.8599	55032.93	3.3320	3.3319	-0.5306	26.76	1.04	-1.500			
0.8615	55133.09	3.3290	3.3291	-0.5119	26.77	1.05	-1.500			
0.8630	55228.87	3.3260	3.3260	-0.4968	26.78	1.06	-1.500			
0.8644	55322.46	3.3230	3.3231	-0.4822	26.78	1.06	-1.500			
0.8658	55413.82	3.3200	3.3199	-0.4662	26.79	1.07	-1.500			
0.8672	55501.56	3.3170	3.3170	-0.4495	26.80	1.08	-1.500			
0.8685	55586.92	3.3140	3.3141	-0.4369	26.80	1.08	-1.500			
0.8698	55668.80	3.3110	3.3111	-0.4218	26.81	1.09	-1.500			
0.8711	55748.56	3.3080	3.3079	-0.4089	26.82	1.10	-1.500			
0.8723	55825.02	3.3050	3.3050	-0.3950	26.82	1.10	-1.500			
0.8734	55899.10	3.3020	3.3020	-0.3838	26.83	1.11	-1.500			
0.8746	55972.08	3.2990	3.2990	-0.3737	26.84	1.12	-1.500			
0.8757	56043.60	3.2960	3.2960	-0.3625	26.84	1.12	-1.500			
0.8767	56111.90	3.2930	3.2930	-0.3495	26.85	1.13	-1.500			
0.8778	56177.51	3.2900	3.2900	-0.3394	26.85	1.13	-1.500			
0.8788	56241.56	3.2870	3.2871	-0.3289	26.86	1.14	-1.500			
0.8797	56303.39	3.2840	3.2839	-0.3184	26.86	1.14	-1.500			
0.8807	56363.13	3.2810	3.2810	-0.3091	26.87	1.15	-1.500			
0.8816	56421.75	3.2780	3.2781	-0.3005	26.88	1.16	-1.500			
0.8825	56478.79	3.2750	3.2750	-0.2916	26.88	1.16	-1.500			
0.8833	56534.33	3.2720	3.2720	-0.2825	26.88	1.16	-1.500			
0.8842	56587.22	3.2690	3.2691	-0.2731	26.89	1.17	-1.500			
0.8850	56638.59	3.2660	3.2660	-0.2645	26.89	1.17	-1.500			
0.8858	56688.52	3.2630	3.2629	-0.2560	26.90	1.18	-1.500			
0.8865	56736.17	3.2600	3.2600	-0.2488	26.90	1.18	-1.500			
0.8872	56783.16	3.2570	3.2571	-0.2430	26.91	1.19	-1.500			
0.8880	56829.23	3.2540	3.2540	-0.2381	26.91	1.19	-1.500			
0.8887	56874.45	3.2510	3.2510	-0.2332	26.91	1.19	-1.500			
0.8894	56918.81	3.2480	3.2480	-0.2272	26.92	1.20	-1.500			
0.8900	56961.76	3.2450	3.2450	-0.2224	26.92	1.20	-1.500			
0.8907	57004.47	3.2420	3.2420	-0.2175	26.93	1.21	-1.500			
0.8913	57045.49	3.2390	3.2390	-0.2121	26.93	1.21	-1.500			
0.8920	57085.50	3.2360	3.2360	-0.2064	26.93	1.21	-1.500			
0.8926	57124.41	3.2330	3.2331	-0.2021	26.94	1.22	-1.500			
0.8932	57162.66	3.2300	3.2300	-0.1971	26.94	1.22	-1.500			
0.8938	57200.12	3.2270	3.2270	-0.1931	26.95	1.23	-1.500			
0.8943	57236.92	3.2240	3.2240	-0.1890	26.95	1.23	-1.500			
0.8949	57272.39	3.2210	3.2211	-0.1852	26.95	1.23	-1.500			
0.8954	57307.79	3.2180	3.2180	-0.1825	26.96	1.24	-1.500			
0.8960	57342.49	3.2150	3.2150	-0.1790	26.96	1.24	-1.500			
0.8965	57376.29	3.2120	3.2119	-0.1757	26.97	1.25	-1.500			
0.8970	57409.57	3.2090	3.2090	-0.1726	26.97	1.25	-1.500			
0.8975	57442.69	3.2060	3.2060	-0.1702	26.98	1.26	-1.500			
0.8980	57475.08	3.2030	3.2030	-0.1672	26.98	1.26	-1.500			
0.8985	57506.85	3.2000	3.2000	-0.1647	26.99	1.27	-1.500			
0.8990	57538.03	3.1970	3.1970	-0.1618	26.99	1.27	-1.500			
0.8995	57568.85	3.1940	3.1940	-0.1593	26.99	1.27	-1.500			
0.9000	57599.20	3.1910	3.1910	-0.1568	27.00	1.28	-1.500			
0.9005	57629.10	3.1880	3.1880	-0.1543	27.00	1.28	-1.500			
0.9009	57658.42	3.1850	3.1850	-0.1521	27.01	1.29	-1.500			
0.9014	57687.36	3.1820	3.1820	-0.1499	27.01	1.29	-1.500			
0.9018	57715.93	3.1790	3.1790	-0.1477	27.01	1.29	-1.500			
0.9022	57743.80	3.1760	3.1760	-0.1465	27.02	1.30	-1.500			
0.9027	57771.88	3.1730	3.1729	-0.1445	27.02	1.30	-1.500			
0.9031	57799.41	3.1700	3.1701	-0.1430	27.03	1.31	-1.500			
0.9035	57826.72	3.1670	3.1669	-0.1416	27.03	1.31	-1.500			
0.9040	57853.88	3.1640	3.1641	-0.1397	27.03	1.31	-1.500			
0.9044	57880.53	3.1610	3.1609	-0.1381	27.04	1.32	-1.500			
0.9048	57906.88	3.1580	3.1580	-0.1363	27.04	1.32	-1.500			
0.9052	57932.88	3.1550	3.1550	-0.1345	27.04	1.32	-1.500			
0.9056	57958.26	3.1520	3.1521	-0.1331	27.05	1.33	-1.500			
0.9060	57983.89	3.1490	3.1490	-0.1320	27.05	1.33	-1.500			
0.9064	58008.92	3.1460	3.1460	-0.1303	27.06	1.34	-1.500			
0.9068	58033.74	3.1430	3.1431	-0.1296	27.06	1.34	-1.500			
0.9072	58058.58	3.1400	3.1400	-0.1288	27.06	1.34	-1.500			
0.9076	58083.29	3.1370	3.1369	-0.1271	27.07	1.35	-1.500			
0.9079	58107.47	3.1340	3.1340	-0.1264	27.07	1.35	-1.500			
0.9083	58131.65	3.1310	3.1311	-0.1255	27.07	1.35	-1.500			
0.9087	58155.66	3.1280	3.1280	-0.1240	27.08	1.36	-1.500			
0.9091	58179.38	3.1250	3.1249	-0.1229	27.08	1.36	-1.500			
0.9094	58202.95	3.1220	3.1221	-0.1221	27.09	1.37	-1.500			
0.9098	58226.09	3.1190	3.1190	-0.1207	27.09	1.37	-1.500			
0.9101	58249.15	3.1160	3.1161	-0.1200	27.09	1.37	-1.500			
0.9105	58272.30	3.1130	3.1129	-0.1194	27.10	1.38	-1.500			
0.9109	58295.05	3.1100	3.1100	-0.1187	27.10	1.38	-1.500			
0.9112	58317.43	3.1070	3.1070	-0.1176	27.10	1.38	-1.500			
0.9116	58340.08	3.1040	3.1041	-0.1168	27.11	1.39	-1.500			
0.9119	58362.66	3.1010	3.1010	-0.1164	27.11	1.39	-1.500			
0.9123	58384.93	3.0980	3.0980	-0.1154	27.11	1.39	-1.500			
0.9126	58407.06	3.0950	3.0950	-0.1145	27.12	1.40	-1.500			
0.9130	58428.91	3.0920	3.0920	-0.1136	27.12	1.40	-1.500			
0.9133	58450.62	3.0890	3.0890	-0.1127	27.12	1.40	-1.500			
0.9136	58472.12	3.0860	3.0860	-0.1120	27.13	1.41	-1.500			
0.9140	58493.44	3.0830	3.0830	-0.1111	27.13	1.41	-1.500			
0.9143	58514.67	3.0800	3.0799	-0.1107	27.13	1.41	-1.500			
0.9146	58535.80	3.0770	3.0771	-0.1101	27.14	1.42	-1.500			
0.9150	58556.84	3.0740	3.0739	-0.1099	27.14	1.42	-1.500			
0.9153	58577.84	3.0710	3.0711	-0.1095	27.15	1.43	-1.500			
0.9156	58599.00	3.0680	3.0680	-0.1086	27.15	1.43	-1.500			
0.9159	58619.94	3.0650	3.0649	-0.1081	27.16	1.44	-1.500			
0.9163	58640.58	3.0620	3.0620	-0.1074	27.16	1.44	-1.500			
0.9166	58661.22	3.0590	3.0591	-0.1068	27.17	1.45	-1.500			
0.9169	58681.57	3.0560	3.0560	-0.1062	27.17	1.45	-1.500			
0.9172	58701.84	3.0530	3.0530	-0.1055	27.18	1.46	-1.500			
0.9175	58722.08	3.0500	3.0499	-0.1047	27.18	1.46	-1.500			
0.9178	58741.97	3.0470	3.0470	-0.1038	27.19	1.47	-1.500			
0.9182	58761.80	3.0440	3.0439	-0.1037	27.19	1.47	-1.500			
0.9185	58781.79	3.0410	3.0411	-0.1035	27.19	1.47	-1.500			
0.9188	58801.66	3.0380	3.0379	-0.1027	27.20	1.48	-1.500			
0.9191	58821.26	3.0350	3.0349	-0.1020	27.20	1.48	-1.500			
0.9194	58840.75	3.0320	3.0321	-0.1017	27.21	1.49	-1.500			
0.9197	58860.18	3.0290	3.0290	-0.1012	27.21	1.49	-1.500			
0.9200	58879.62	3.0260	3.0260	-0.1007	27.22	1.50	-1.500			
0.9203	58899.05	3.0230	3.0229	-0.1003	27.22	1.50	-1.500			
0.9206	58918.15	3.0200	3.0199	-0.1001	27.23	1.51	-1.500			
0.9209	58937.09	3.0170	3.0171	-0.0996	27.23	1.51	-1.500			
0.9212	58956.26	3.0140	3.0141	-0.0991	27.24	1.52	-1.500			
0.9215	58975.42	3.0110	3.0109	-0.0988	27.24	1.52	-1.500			
0.9218	58994.34	3.0080	3.0080	-0.0982	27.24	1.52	-1.500			
0.9221	59013.11	3.0050	3.0051	-0.0980	27.25	1.53	-1.500			
0.9224	59031.89	3.0020	3.0020	-0.0977	27.25	1.53	-1.498			
