Ah_balance (normalized)	Ah_balance (mAh)	Voltage - fit (V)	Voltage -  interpolate (V)	dQ/dV (1/V)	Temperature (°C)	Temperature - diff (°C)	Current (C)	R_DC 0ms (mOhm)	R_DC 50ms (mOhm)	R_DC 50 ms PEC (mOhm)
0.2653	16977.87	3.9930	3.9930	0.8228	27.51	1.56	1.500			
0.2678	17138.00	3.9900	3.9900	0.8387	27.51	1.56	1.500			
0.2703	17300.44	3.9870	3.9870	0.8446	27.50	1.55	1.500			
0.2728	17462.40	3.9840	3.9840	0.8476	27.50	1.55	1.500			
0.2754	17626.92	3.9810	3.9810	0.8498	27.49	1.54	1.500			
0.2780	17789.02	3.9780	3.9780	0.8531	27.49	1.54	1.500			
0.2805	17952.90	3.9750	3.9749	0.8545	27.48	1.53	1.500			
0.2831	18116.84	3.9720	3.9721	0.8565	27.48	1.53	1.500			
0.2856	18281.21	3.9690	3.9690	0.8607	27.47	1.52	1.500			
0.2882	18446.63	3.9660	3.9661	0.8673	27.47	1.52	1.500			
0.2908	18613.58	3.9630	3.9627	0.8717	27.46	1.51	1.500			
0.2935	18781.45	3.9600	3.9600	0.8782	27.46	1.51	1.500			
0.2961	18950.02	3.9570	3.9570	0.8824	27.45	1.50	1.500			
0.2988	19122.00	3.9540	3.9540	0.8872	27.44	1.49	1.500			
0.3015	19292.91	3.9510	3.9510	0.8883	27.44	1.49	1.500			
0.3041	19462.64	3.9480	3.9480	0.8906	27.43	1.48	1.500			
0.3068	19634.43	3.9450	3.9450	0.8893	27.43	1.48	1.500			
0.3094	19804.59	3.9420	3.9419	0.8950	27.42	1.47	1.500			
0.3121	19975.90	3.9390	3.9391	0.9018	27.42	1.47	1.500			
0.3148	20149.72	3.9360	3.9359	0.9062	27.41	1.46	1.500			
0.3176	20324.38	3.9330	3.9330	0.9125	27.41	1.46	1.500			
0.3203	20500.21	3.9300	3.9301	0.9186	27.40	1.45	1.500			
0.3231	20677.35	3.9270	3.9270	0.9223	27.39	1.44	1.500			
0.3259	20855.53	3.9240	3.9239	0.9300	27.39	1.44	1.500			
0.3286	21033.13	3.9210	3.9210	0.9335	27.38	1.43	1.500			
0.3315	21213.31	3.9180	3.9180	0.9355	27.37	1.42	1.500			
0.3343	21394.87	3.9150	3.9150	0.9422	27.37	1.42	1.500			
0.3371	21574.71	3.9120	3.9120	0.9508	27.36	1.41	1.500			
0.3400	21757.11	3.9090	3.9090	0.9580	27.35	1.40	1.500			
0.3428	21941.66	3.9060	3.9060	0.9709	27.34	1.39	1.500			
0.3458	22129.16	3.9030	3.9030	0.9753	27.33	1.38	1.500			
0.3487	22317.98	3.9000	3.9000	0.9844	27.33	1.38	1.500			
0.3517	22510.09	3.8970	3.8970	0.9896	27.32	1.37	1.500			
0.3547	22700.02	3.8940	3.8940	0.9903	27.31	1.36	1.500			
0.3576	22887.65	3.8910	3.8910	0.9983	27.30	1.35	1.500			
0.3606	23079.29	3.8880	3.8881	1.0047	27.29	1.34	1.500			
0.3636	23272.19	3.8850	3.8850	1.0165	27.28	1.33	1.500			
0.3667	23469.30	3.8820	3.8819	1.0347	27.27	1.32	1.500			
0.3698	23669.18	3.8790	3.8791	1.0419	27.26	1.31	1.500			
0.3730	23872.15	3.8760	3.8760	1.0548	27.25	1.30	1.500			
0.3762	24075.50	3.8730	3.8730	1.0624	27.24	1.29	1.500			
0.3794	24280.51	3.8700	3.8700	1.0657	27.23	1.28	1.500			
0.3826	24485.83	3.8670	3.8670	1.0750	27.22	1.27	1.500			
0.3858	24690.03	3.8640	3.8641	1.0871	27.21	1.26	1.500			
0.3890	24898.95	3.8610	3.8610	1.1024	27.20	1.25	1.500			
0.3924	25113.44	3.8580	3.8580	1.1214	27.18	1.23	1.500			
0.3958	25330.30	3.8550	3.8550	1.1352	27.17	1.22	1.500			
0.3992	25549.66	3.8520	3.8521	1.1526	27.16	1.21	1.500			
0.4027	25775.47	3.8490	3.8490	1.1677	27.15	1.20	1.500			
0.4062	25999.15	3.8460	3.8460	1.1813	27.13	1.18	1.500			
0.4098	26224.81	3.8430	3.8430	1.1932	27.12	1.17	1.500			
0.4134	26455.67	3.8400	3.8400	1.2146	27.11	1.16	1.500			
0.4171	26691.88	3.8370	3.8370	1.2317	27.10	1.15	1.500			
0.4208	26929.74	3.8340	3.8340	1.2505	27.09	1.14	1.500			
0.4245	27171.11	3.8310	3.8310	1.2699	27.07	1.12	1.500			
0.4284	27417.58	3.8280	3.8280	1.2867	27.05	1.10	1.500			
0.4323	27664.03	3.8250	3.8250	1.3074	27.04	1.09	1.500			
0.4362	27916.41	3.8220	3.8221	1.3299	27.02	1.07	1.500			
0.4402	28173.70	3.8190	3.8189	1.3577	27.00	1.05	1.500			
0.4444	28439.09	3.8160	3.8161	1.3831	26.99	1.04	1.500			
0.4485	28706.81	3.8130	3.8130	1.4022	26.97	1.02	1.500			
0.4528	28981.45	3.8100	3.8100	1.4196	26.95	1.00	1.500			
0.4571	29252.93	3.8070	3.8071	1.4381	26.94	0.99	1.500			
0.4614	29531.25	3.8040	3.8040	1.4628	26.92	0.97	1.500			
0.4658	29812.33	3.8010	3.8011	1.4922	26.90	0.95	1.500			
0.4703	30101.81	3.7980	3.7981	1.5202	26.89	0.94	1.500			
0.4750	30399.48	3.7950	3.7950	1.5486	26.87	0.92	1.500			
0.4797	30697.86	3.7920	3.7920	1.5858	26.85	0.90	1.500			
0.4844	31003.14	3.7890	3.7890	1.6055	26.83	0.88	1.500			
0.4893	31316.56	3.7860	3.7860	1.6321	26.81	0.86	1.500	0.345	0.478	
0.4943	31633.88	3.7830	3.7831	1.6524	26.79	0.84	1.500			
0.4993	31956.36	3.7800	3.7800	1.6665	26.77	0.82	1.500			
0.5043	32277.36	3.7770	3.7770	1.6665	26.75	0.80	1.500			
0.5093	32596.62	3.7740	3.7741	1.6747	26.73	0.78	1.500			
0.5143	32916.64	3.7710	3.7710	1.6981	26.71	0.76	1.500			
0.5194	33243.95	3.7680	3.7680	1.7092	26.69	0.74	1.500			
0.5246	33574.73	3.7650	3.7650	1.7218	26.67	0.72	1.500			
0.5299	33911.57	3.7620	3.7621	1.7334	26.65	0.70	1.500			
0.5350	34240.34	3.7590	3.7590	1.7329	26.63	0.68	1.500			
0.5402	34572.08	3.7560	3.7559	1.7354	26.60	0.65	1.500			
0.5454	34908.18	3.7530	3.7530	1.7535	26.59	0.64	1.500			
0.5508	35252.15	3.7500	3.7500	1.7650	26.57	0.62	1.500			
0.5561	35588.05	3.7470	3.7470	1.7913	26.55	0.60	1.500			
0.5614	35926.97	3.7440	3.7441	1.8218	26.53	0.58	1.500			
0.5669	36283.09	3.7410	3.7410	1.8730	26.52	0.57	1.500			
0.5726	36649.16	3.7380	3.7380	1.9322	26.50	0.55	1.500			
0.5785	37025.24	3.7350	3.7350	1.9733	26.47	0.52	1.500			
0.5845	37405.87	3.7320	3.7320	2.0153	26.45	0.50	1.500			
0.5906	37797.43	3.7290	3.7289	2.0595	26.42	0.47	1.500			
0.5969	38204.13	3.7260	3.7260	2.1100	26.40	0.45	1.500			
0.6033	38610.24	3.7230	3.7230	2.1508	26.38	0.43	1.500			
0.6098	39025.92	3.7200	3.7200	2.1902	26.36	0.41	1.500			
0.6164	39451.73	3.7170	3.7169	2.2542	26.34	0.39	1.500			
0.6233	39891.70	3.7140	3.7140	2.2892	26.32	0.37	1.500			
0.6304	40346.82	3.7110	3.7110	2.2546	26.30	0.35	1.500			
0.6371	40777.04	3.7080	3.7080	2.1748	26.28	0.33	1.500			
0.6435	41184.02	3.7050	3.7050	2.0632	26.26	0.31	1.500			
0.6495	41565.86	3.7020	3.7019	1.9263	26.25	0.30	1.500			
0.6550	41918.19	3.6990	3.6991	1.8069	26.23	0.28	1.500			
0.6603	42256.49	3.6960	3.6960	1.7101	26.22	0.27	1.500			
0.6652	42571.79	3.6930	3.6930	1.6190	26.20	0.25	1.500			
0.6699	42875.74	3.6900	3.6900	1.5463	26.19	0.24	1.500			
0.6744	43164.27	3.6870	3.6869	1.4763	26.17	0.22	1.500			
0.6787	43439.43	3.6840	3.6840	1.4235	26.16	0.21	1.500			
0.6829	43702.51	3.6810	3.6810	1.3726	26.15	0.20	1.500			
0.6869	43959.49	3.6780	3.6780	1.3354	26.13	0.18	1.500			
0.6908	44212.05	3.6750	3.6750	1.3127	26.12	0.17	1.500			
0.6947	44458.60	3.6720	3.6720	1.2890	26.11	0.16	1.500			
0.6985	44704.00	3.6690	3.6690	1.2812	26.10	0.15	1.500			
0.7023	44947.89	3.6660	3.6660	1.2764	26.09	0.14	1.500			
0.7061	45190.48	3.6630	3.6630	1.2697	26.08	0.13	1.500			
0.7099	45435.30	3.6600	3.6600	1.2690	26.07	0.12	1.500			
0.7137	45679.49	3.6570	3.6569	1.2680	26.07	0.12	1.500			
0.7176	45923.33	3.6540	3.6541	1.2650	26.06	0.11	1.500			
0.7214	46167.38	3.6510	3.6509	1.2553	26.05	0.10	1.500			
0.7251	46405.97	3.6480	3.6480	1.2456	26.04	0.09	1.500			
0.7288	46643.59	3.6450	3.6451	1.2342	26.03	0.08	1.500			
0.7325	46879.94	3.6420	3.6420	1.2272	26.02	0.07	1.500			
0.7362	47115.38	3.6390	3.6390	1.2223	26.01	0.06	1.500			
0.7398	47349.61	3.6360	3.6360	1.2104	26.00	0.05	1.500			
0.7435	47581.60	3.6330	3.6330	1.2058	25.99	0.04	1.500			
0.7471	47813.69	3.6300	3.6301	1.1979	25.99	0.04	1.500			
0.7506	48041.41	3.6270	3.6269	1.1823	25.98	0.03	1.500			
0.7542	48268.61	3.6240	3.6240	1.1695	25.97	0.02	1.500			
0.7577	48490.90	3.6210	3.6210	1.1590	25.97	0.02	1.500			
0.7611	48713.16	3.6180	3.6179	1.1425	25.96	0.01	1.500			
0.7646	48933.97	3.6150	3.6150	1.1250	25.95	0.00	1.500			
0.7679	49147.60	3.6120	3.6121	1.0994	25.95	0.00	1.500			
0.7712	49358.91	3.6090	3.6091	1.0757	25.95	0.00	1.500			
0.7744	49563.19	3.6060	3.6059	1.0469	25.95	0.00	1.500			
0.7775	49760.15	3.6030	3.6030	1.0168	25.95	0.00	1.500			
0.7805	49952.99	3.6000	3.6000	0.9808	25.95	0.00	1.500			
0.7834	50139.31	3.5970	3.5970	0.9438	25.95	0.00	1.500			
0.7863	50321.80	3.5940	3.5940	0.8979	25.95	0.00	1.500			
0.7889	50490.98	3.5910	3.5910	0.8378	25.95	0.00	1.500			
0.7914	50651.98	3.5880	3.5880	0.7671	25.95	0.00	1.500			
0.7936	50792.86	3.5850	3.5851	0.6831	25.95	0.00	1.500			
0.7956	50915.56	3.5820	3.5820	0.5983	25.95	0.00	1.500			
0.7972	51021.46	3.5790	3.5790	0.5146	25.95	0.00	1.500			
0.7985	51106.57	3.5760	3.5760	0.4384	25.95	0.00	1.500			
0.7997	51180.13	3.5730	3.5730	0.3774	25.95	0.00	1.500			
0.8007	51244.57	3.5700	3.5700	0.3210	25.95	0.00	1.500			
0.8016	51300.24	3.5670	3.5669	0.2843	25.95	0.00	1.500			
0.8023	51348.48	3.5640	3.5640	0.2507	25.95	0.00	1.500			
0.8030	51392.36	3.5610	3.5609	0.2262	25.95	0.00	1.500			
0.8036	51432.66	3.5580	3.5580	0.2041	25.95	0.00	1.500			
0.8042	51469.20	3.5550	3.5550	0.1863	25.95	0.00	1.500			
0.8047	51502.78	3.5520	3.5520	0.1702	25.95	0.00	1.500			
0.8052	51533.78	3.5490	3.5490	0.1550	25.95	0.00	1.500			
0.8057	51562.02	3.5460	3.5460	0.1416	25.95	0.00	1.500			
0.8061	51587.56	3.5430	3.5430	0.1277	25.95	0.00	1.500			
0.8064	51611.19	3.5400	3.5400	0.1142	25.95	0.00	1.500			
0.8067	51631.84	3.5370	3.5369	0.1005	25.95	0.00	1.500			
0.8070	51649.80	3.5340	3.5340	0.0866	25.95	0.00	1.500			
0.8073	51665.26	3.5310	3.5312	0.0727	25.95	0.00	1.500			
0.8075	51678.35	3.5280	3.5282	0.0582	25.95	0.00	1.500			
0.8076	51688.06	3.5250	3.5254	0.0429	25.95	0.00	1.500			
0.8077	51694.84	3.5220	3.5231	0.0276	25.95	0.00	1.500			
