Ah_balance (normalized)	Ah_balance (mAh)	Voltage - fit (V)	Voltage -  interpolate (V)	dQ/dV (1/V)	Temperature (°C)	Temperature - diff (°C)	Current (C)	R_DC 0ms (mOhm)	R_DC 50ms (mOhm)	R_DC 50 ms PEC (mOhm)
0.2180	13953.18	3.9100	3.9100	-0.1216	25.75	-0.01	-1.500			
0.2184	13979.60	3.9070	3.9068	-0.1545	25.75	-0.01	-1.500			
0.2190	14013.16	3.9040	3.9040	-0.1875	25.75	-0.01	-1.500			
0.2196	14052.72	3.9010	3.9009	-0.2173	25.75	-0.01	-1.500			
0.2203	14097.23	3.8980	3.8980	-0.2476	25.75	-0.01	-1.500			
0.2211	14148.21	3.8950	3.8951	-0.2774	25.75	-0.01	-1.500			
0.2219	14204.14	3.8920	3.8919	-0.3065	25.75	-0.01	-1.500			
0.2229	14265.89	3.8890	3.8890	-0.3334	25.75	-0.01	-1.500			
0.2239	14331.89	3.8860	3.8861	-0.3643	25.75	-0.01	-1.500			
0.2251	14404.83	3.8830	3.8831	-0.3939	25.75	-0.01	-1.500			
0.2263	14483.66	3.8800	3.8799	-0.4244	25.75	-0.01	-1.500			
0.2276	14567.58	3.8770	3.8770	-0.4544	25.75	-0.01	-1.500			
0.2290	14658.17	3.8740	3.8741	-0.4845	25.75	-0.01	-1.500			
0.2305	14754.11	3.8710	3.8710	-0.5137	25.76	-0.00	-1.500			
0.2321	14857.26	3.8680	3.8680	-0.5384	25.76	-0.00	-1.500			
0.2338	14962.21	3.8650	3.8650	-0.5623	25.76	-0.00	-1.500			
0.2355	15073.37	3.8620	3.8620	-0.5852	25.76	-0.00	-1.500			
0.2373	15187.47	3.8590	3.8590	-0.6062	25.76	0.00	-1.500			
0.2392	15306.55	3.8560	3.8560	-0.6251	25.76	0.00	-1.500			
0.2411	15428.61	3.8530	3.8529	-0.6442	25.76	0.00	-1.500			
0.2430	15554.72	3.8500	3.8501	-0.6633	25.77	0.01	-1.500			
0.2451	15684.69	3.8470	3.8471	-0.6811	25.77	0.01	-1.500			
0.2471	15817.05	3.8440	3.8439	-0.6942	25.77	0.01	-1.500			
0.2493	15953.55	3.8410	3.8410	-0.7050	25.77	0.01	-1.500			
0.2514	16089.59	3.8380	3.8380	-0.7126	25.77	0.01	-1.500			
0.2535	16226.27	3.8350	3.8351	-0.7248	25.77	0.01	-1.500			
0.2557	16367.38	3.8320	3.8320	-0.7298	25.78	0.02	-1.500			
0.2579	16508.12	3.8290	3.8289	-0.7347	25.78	0.02	-1.500			
0.2602	16650.31	3.8260	3.8260	-0.7398	25.78	0.02	-1.500			
0.2624	16793.19	3.8230	3.8231	-0.7439	25.78	0.02	-1.500			
0.2646	16937.06	3.8200	3.8200	-0.7528	25.78	0.02	-1.500			
0.2669	17081.65	3.8170	3.8169	-0.7516	25.79	0.03	-1.500			
0.2691	17224.73	3.8140	3.8140	-0.7496	25.79	0.03	-1.500			
0.2714	17370.49	3.8110	3.8110	-0.7568	25.80	0.04	-1.500			
0.2737	17516.41	3.8080	3.8081	-0.7587	25.80	0.04	-1.500			
0.2760	17661.85	3.8050	3.8049	-0.7604	25.80	0.04	-1.500			
0.2782	17807.46	3.8020	3.8020	-0.7611	25.81	0.05	-1.500			
0.2805	17952.61	3.7990	3.7991	-0.7670	25.81	0.05	-1.500			
0.2828	18102.01	3.7960	3.7960	-0.7737	25.81	0.05	-1.500			
0.2852	18251.57	3.7930	3.7929	-0.7715	25.82	0.06	-1.500			
0.2875	18399.75	3.7900	3.7901	-0.7713	25.82	0.06	-1.500			
0.2898	18548.15	3.7870	3.7871	-0.7724	25.83	0.07	-1.500			
0.2921	18696.12	3.7840	3.7839	-0.7724	25.83	0.07	-1.500			
0.2944	18842.90	3.7810	3.7810	-0.7701	25.84	0.08	-1.500			
0.2967	18991.08	3.7780	3.7781	-0.7699	25.84	0.08	-1.500			
0.2991	19140.69	3.7750	3.7749	-0.7766	25.85	0.09	-1.500			
0.3014	19290.00	3.7720	3.7720	-0.7794	25.85	0.09	-1.500			
0.3037	19439.53	3.7690	3.7691	-0.7788	25.85	0.09	-1.500			
0.3061	19589.58	3.7660	3.7660	-0.7769	25.86	0.10	-1.500			
0.3084	19739.00	3.7630	3.7630	-0.7774	25.86	0.10	-1.500			
0.3107	19887.67	3.7600	3.7600	-0.7803	25.87	0.11	-1.500			
0.3131	20038.33	3.7570	3.7569	-0.7821	25.87	0.11	-1.500			
0.3154	20187.36	3.7540	3.7539	-0.7803	25.88	0.12	-1.500			
0.3178	20337.79	3.7510	3.7510	-0.7793	25.89	0.13	-1.500			
0.3201	20487.97	3.7480	3.7481	-0.7806	25.89	0.13	-1.500			
0.3225	20638.96	3.7450	3.7449	-0.7829	25.90	0.14	-1.500			
0.3248	20788.02	3.7420	3.7420	-0.7804	25.91	0.15	-1.500			
0.3271	20936.76	3.7390	3.7390	-0.7773	25.91	0.15	-1.500			
0.3295	21086.19	3.7360	3.7360	-0.7853	25.92	0.16	-1.500			
0.3318	21236.86	3.7330	3.7330	-0.7876	25.93	0.17	-1.500			
0.3342	21389.26	3.7300	3.7299	-0.7914	25.93	0.17	-1.500			
0.3366	21542.79	3.7270	3.7271	-0.7889	25.94	0.18	-1.500			
0.3390	21694.86	3.7240	3.7239	-0.7851	25.95	0.19	-1.500			
0.3413	21844.14	3.7210	3.7212	-0.7875	25.95	0.19	-1.500			
0.3437	21994.03	3.7180	3.7180	-0.7892	25.96	0.20	-1.500			
0.3460	22144.05	3.7150	3.7150	-0.7925	25.96	0.20	-1.500			
0.3484	22297.15	3.7120	3.7119	-0.7998	25.97	0.21	-1.500			
0.3508	22451.62	3.7090	3.7090	-0.8075	25.97	0.21	-1.500			
0.3533	22608.04	3.7060	3.7060	-0.8177	25.98	0.22	-1.500			
0.3557	22765.65	3.7030	3.7030	-0.8245	25.99	0.23	-1.500			
0.3582	22923.12	3.7000	3.7000	-0.8300	25.99	0.23	-1.500			
0.3607	23083.27	3.6970	3.6969	-0.8369	26.00	0.24	-1.500			
0.3632	23245.34	3.6940	3.6940	-0.8440	26.00	0.24	-1.500			
0.3658	23408.56	3.6910	3.6910	-0.8514	26.01	0.25	-1.500			
0.3683	23571.92	3.6880	3.6881	-0.8594	26.02	0.26	-1.500			
0.3709	23735.96	3.6850	3.6850	-0.8704	26.02	0.26	-1.500			
0.3735	23904.38	3.6820	3.6819	-0.8835	26.03	0.27	-1.500			
0.3762	24073.98	3.6790	3.6790	-0.8978	26.04	0.28	-1.500			
0.3789	24248.16	3.6760	3.6760	-0.9155	26.04	0.28	-1.500			
0.3817	24425.87	3.6730	3.6730	-0.9362	26.05	0.29	-1.500			
0.3845	24607.54	3.6700	3.6700	-0.9532	26.06	0.30	-1.500			
0.3874	24791.96	3.6670	3.6670	-0.9670	26.06	0.30	-1.500			
0.3903	24980.70	3.6640	3.6640	-0.9760	26.06	0.30	-1.500			
0.3933	25168.96	3.6610	3.6611	-0.9962	26.07	0.31	-1.500			
0.3963	25360.44	3.6580	3.6580	-1.0138	26.07	0.31	-1.500			
0.3993	25553.81	3.6550	3.6550	-1.0357	26.08	0.32	-1.500			
0.4024	25754.55	3.6520	3.6520	-1.0585	26.08	0.32	-1.500			
0.4056	25961.49	3.6490	3.6490	-1.0819	26.08	0.32	-1.500			
0.4090	26173.00	3.6460	3.6459	-1.1020	26.09	0.33	-1.500			
0.4123	26388.61	3.6430	3.6432	-1.1267	26.09	0.33	-1.500			
0.4157	26605.21	3.6400	3.6400	-1.1363	26.09	0.33	-1.500			
0.4191	26822.71	3.6370	3.6370	-1.1610	26.09	0.33	-1.500			
0.4226	27047.03	3.6340	3.6340	-1.1863	26.09	0.33	-1.500			
0.4262	27274.57	3.6310	3.6310	-1.2188	26.10	0.34	-1.500			
0.4299	27513.29	3.6280	3.6279	-1.2446	26.10	0.34	-1.500			
0.4337	27756.40	3.6250	3.6250	-1.2752	26.10	0.34	-1.500			
0.4376	28003.21	3.6220	3.6221	-1.3073	26.10	0.34	-1.500			
0.4416	28259.21	3.6190	3.6190	-1.3368	26.10	0.34	-1.500			
0.4455	28515.16	3.6160	3.6159	-1.3677	26.10	0.34	-1.500			
0.4497	28779.98	3.6130	3.6130	-1.3976	26.11	0.35	-1.500			
0.4539	29052.62	3.6100	3.6100	-1.4191	26.11	0.35	-1.500			
0.4583	29330.02	3.6070	3.6069	-1.4441	26.11	0.35	-1.500			
0.4627	29610.33	3.6040	3.6041	-1.4640	26.11	0.35	-1.500			
0.4671	29892.43	3.6010	3.6010	-1.4850	26.11	0.35	-1.500			
0.4715	30178.92	3.5980	3.5980	-1.5236	26.11	0.35	-1.500			
0.4761	30473.11	3.5950	3.5950	-1.5516	26.10	0.34	-1.500			
0.4809	30775.46	3.5920	3.5919	-1.5758	26.10	0.34	-1.500			
0.4856	31081.13	3.5890	3.5890	-1.6058	26.10	0.34	-1.500			
0.4905	31393.51	3.5860	3.5860	-1.6292	26.10	0.34	-1.500			
0.4954	31708.40	3.5830	3.5829	-1.6589	26.10	0.34	-1.500			
0.5004	32028.74	3.5800	3.5800	-1.6754	26.09	0.33	-1.500			
0.5055	32350.30	3.5770	3.5770	-1.6960	26.09	0.33	-1.500			
0.5107	32683.17	3.5740	3.5741	-1.7241	26.09	0.33	-1.500			
0.5159	33017.87	3.5710	3.5709	-1.7364	26.08	0.32	-1.500			
0.5211	33349.12	3.5680	3.5680	-1.7742	26.08	0.32	-1.500			
0.5265	33693.29	3.5650	3.5650	-1.8030	26.07	0.31	-1.500			
0.5319	34043.21	3.5620	3.5618	-1.8338	26.07	0.31	-1.500			
0.5375	34399.01	3.5590	3.5592	-1.8502	26.06	0.30	-1.500			
0.5430	34753.54	3.5560	3.5560	-1.8797	26.06	0.30	-1.500			
0.5487	35119.99	3.5530	3.5530	-1.8894	26.06	0.30	-1.500			
0.5544	35483.07	3.5500	3.5499	-1.9109	26.07	0.31	-1.500			
0.5602	35852.69	3.5470	3.5471	-1.9186	26.07	0.31	-1.500			
0.5660	36221.10	3.5440	3.5439	-1.9191	26.07	0.31	-1.500			
0.5717	36590.13	3.5410	3.5415	-1.9212	26.07	0.31	-1.500	0.397	0.513	
0.5775	36958.14	3.5380	3.5380	-1.9220	26.07	0.31	-1.500			
0.5833	37330.09	3.5350	3.5350	-1.9284	26.07	0.31	-1.500			
0.5890	37695.41	3.5320	3.5320	-1.9095	26.07	0.31	-1.500			
0.5948	38066.99	3.5290	3.5291	-1.9284	26.08	0.32	-1.500			
0.6006	38440.87	3.5260	3.5259	-1.9107	26.09	0.33	-1.500			
0.6063	38804.94	3.5230	3.5228	-1.8947	26.09	0.33	-1.500			
0.6120	39167.24	3.5200	3.5204	-1.8838	26.10	0.34	-1.500			
0.6176	39526.73	3.5170	3.5169	-1.8831	26.10	0.34	-1.500			
0.6232	39887.98	3.5140	3.5139	-1.8737	26.11	0.35	-1.500			
0.6287	40239.64	3.5110	3.5110	-1.8516	26.11	0.35	-1.500			
0.6344	40604.59	3.5080	3.5080	-1.8634	26.12	0.36	-1.500			
0.6400	40961.68	3.5050	3.5050	-1.8546	26.13	0.37	-1.500			
0.6455	41314.73	3.5020	3.5020	-1.8464	26.13	0.37	-1.500			
0.6511	41669.70	3.4990	3.4989	-1.8331	26.14	0.38	-1.500			
0.6566	42019.93	3.4960	3.4960	-1.8198	26.15	0.39	-1.500			
0.6620	42370.41	3.4930	3.4931	-1.8138	26.16	0.40	-1.500			
0.6675	42717.58	3.4900	3.4900	-1.8024	26.17	0.41	-1.500			
0.6728	43061.75	3.4870	3.4870	-1.7903	26.19	0.43	-1.500			
0.6782	43403.50	3.4840	3.4840	-1.7645	26.20	0.44	-1.500			
0.6835	43743.44	3.4810	3.4810	-1.7549	26.21	0.45	-1.500			
0.6887	44078.93	3.4780	3.4781	-1.7348	26.23	0.47	-1.500			
0.6939	44407.75	3.4750	3.4750	-1.7205	26.24	0.48	-1.500			
0.6990	44736.56	3.4720	3.4720	-1.6978	26.25	0.49	-1.500			
0.7041	45059.52	3.4690	3.4690	-1.6779	26.26	0.50	-1.500			
0.7091	45380.79	3.4660	3.4659	-1.6580	26.27	0.51	-1.500			
0.7141	45699.51	3.4630	3.4629	-1.6400	26.29	0.53	-1.500			
0.7189	46010.73	3.4600	3.4600	-1.6173	26.30	0.54	-1.500			
0.7238	46320.13	3.4570	3.4569	-1.5933	26.31	0.55	-1.500			
0.7285	46621.15	3.4540	3.4540	-1.5686	26.33	0.57	-1.500			
0.7332	46924.83	3.4510	3.4511	-1.5552	26.34	0.58	-1.500			
0.7378	47219.84	3.4480	3.4480	-1.5338	26.35	0.59	-1.500			
0.7424	47511.52	3.4450	3.4450	-1.5209	26.37	0.61	-1.500			
0.7469	47801.11	3.4420	3.4420	-1.5062	26.38	0.62	-1.500			
0.7514	48088.13	3.4390	3.4390	-1.4956	26.40	0.64	-1.500			
0.7559	48378.72	3.4360	3.4360	-1.4812	26.41	0.65	-1.500			
0.7603	48661.33	3.4330	3.4331	-1.4613	26.43	0.67	-1.500			
0.7647	48939.75	3.4300	3.4299	-1.4523	26.44	0.68	-1.500			
0.7690	49215.77	3.4270	3.4271	-1.4425	26.47	0.71	-1.500			
0.7732	49487.75	3.4240	3.4238	-1.4345	26.49	0.73	-1.500			
0.7776	49767.82	3.4210	3.4209	-1.4210	26.51	0.75	-1.500			
0.7819	50041.76	3.4180	3.4180	-1.4028	26.53	0.77	-1.500			
0.7861	50310.77	3.4150	3.4152	-1.3859	26.54	0.78	-1.500			
0.7903	50577.25	3.4120	3.4119	-1.3635	26.56	0.80	-1.500			
0.7943	50834.59	3.4090	3.4089	-1.3308	26.58	0.82	-1.500			
0.7982	51086.48	3.4060	3.4060	-1.2991	26.59	0.83	-1.500			
0.8022	51338.45	3.4030	3.4030	-1.2680	26.61	0.85	-1.500			
0.8060	51581.31	3.4000	3.3999	-1.2201	26.63	0.87	-1.500			
0.8095	51810.28	3.3970	3.3969	-1.1702	26.65	0.89	-1.500			
0.8129	52028.31	3.3940	3.3940	-1.1160	26.67	0.91	-1.500			
0.8162	52236.58	3.3910	3.3910	-1.0675	26.68	0.92	-1.500			
0.8192	52431.58	3.3880	3.3880	-1.0191	26.70	0.94	-1.500			
0.8223	52624.75	3.3850	3.3850	-0.9862	26.71	0.95	-1.500			
0.8252	52811.91	3.3820	3.3820	-0.9535	26.72	0.96	-1.500			
0.8280	52992.45	3.3790	3.3789	-0.9205	26.74	0.98	-1.500			
0.8307	53164.69	3.3760	3.3759	-0.8818	26.75	0.99	-1.500			
0.8333	53330.97	3.3730	3.3731	-0.8511	26.76	1.00	-1.500			
0.8358	53492.22	3.3700	3.3700	-0.8163	26.77	1.01	-1.500			
0.8382	53643.55	3.3670	3.3669	-0.7827	26.78	1.02	-1.500			
0.8405	53790.49	3.3640	3.3640	-0.7541	26.79	1.03	-1.500			
0.8427	53931.46	3.3610	3.3611	-0.7270	26.80	1.04	-1.500			
0.8448	54068.21	3.3580	3.3579	-0.7007	26.81	1.05	-1.500			
0.8469	54199.55	3.3550	3.3551	-0.6789	26.82	1.06	-1.500			
0.8489	54327.25	3.3520	3.3520	-0.6572	26.83	1.07	-1.500			
0.8508	54452.07	3.3490	3.3490	-0.6409	26.84	1.08	-1.500			
0.8527	54572.57	3.3460	3.3459	-0.6188	26.85	1.09	-1.500			
0.8545	54689.75	3.3430	3.3431	-0.5998	26.86	1.10	-1.500			
0.8563	54803.47	3.3400	3.3400	-0.5830	26.87	1.11	-1.500			
0.8580	54914.64	3.3370	3.3370	-0.5635	26.87	1.11	-1.500			
0.8597	55019.97	3.3340	3.3339	-0.5434	26.88	1.12	-1.500			
0.8613	55122.18	3.3310	3.3311	-0.5244	26.89	1.13	-1.500			
0.8628	55220.20	3.3280	3.3280	-0.5071	26.90	1.14	-1.500			
0.8643	55316.01	3.3250	3.3250	-0.4926	26.90	1.14	-1.500			
0.8658	55408.88	3.3220	3.3220	-0.4762	26.91	1.15	-1.500			
0.8672	55498.17	3.3190	3.3190	-0.4623	26.92	1.16	-1.500			
0.8685	55586.54	3.3160	3.3160	-0.4519	26.93	1.17	-1.500			
0.8699	55671.94	3.3130	3.3130	-0.4376	26.93	1.17	-1.500			
0.8712	55755.01	3.3100	3.3099	-0.4255	26.94	1.18	-1.500			
0.8724	55835.37	3.3070	3.3071	-0.4117	26.95	1.19	-1.500			
0.8736	55913.18	3.3040	3.3040	-0.3987	26.95	1.19	-1.500			
0.8748	55988.66	3.3010	3.3010	-0.3857	26.96	1.20	-1.500			
0.8760	56060.92	3.2980	3.2980	-0.3721	26.97	1.21	-1.500			
0.8770	56130.93	3.2950	3.2951	-0.3601	26.97	1.21	-1.500			
0.8781	56199.22	3.2920	3.2919	-0.3500	26.98	1.22	-1.500			
0.8791	56265.02	3.2890	3.2890	-0.3381	26.98	1.22	-1.500			
0.8801	56328.55	3.2860	3.2860	-0.3294	26.99	1.23	-1.500			
0.8811	56390.89	3.2830	3.2831	-0.3197	26.99	1.23	-1.500			
0.8821	56451.91	3.2800	3.2799	-0.3101	27.00	1.24	-1.500			
0.8830	56510.23	3.2770	3.2771	-0.3014	27.01	1.25	-1.500			
0.8839	56567.18	3.2740	3.2740	-0.2922	27.01	1.25	-1.500			
0.8847	56622.35	3.2710	3.2710	-0.2832	27.02	1.26	-1.500			
0.8856	56675.90	3.2680	3.2679	-0.2746	27.02	1.26	-1.500			
0.8864	56727.08	3.2650	3.2651	-0.2659	27.03	1.27	-1.500			
0.8872	56777.89	3.2620	3.2621	-0.2595	27.03	1.27	-1.500			
0.8879	56826.67	3.2590	3.2590	-0.2532	27.04	1.28	-1.500			
0.8887	56874.44	3.2560	3.2560	-0.2470	27.04	1.28	-1.500			
0.8894	56920.86	3.2530	3.2530	-0.2403	27.05	1.29	-1.500			
0.8901	56966.80	3.2500	3.2500	-0.2355	27.05	1.29	-1.500			
0.8908	57011.59	3.2470	3.2470	-0.2303	27.06	1.30	-1.500			
0.8915	57055.35	3.2440	3.2440	-0.2247	27.06	1.30	-1.500			
0.8922	57097.74	3.2410	3.2411	-0.2190	27.07	1.31	-1.500			
0.8928	57139.26	3.2380	3.2379	-0.2135	27.07	1.31	-1.500			
0.8934	57179.52	3.2350	3.2350	-0.2084	27.08	1.32	-1.500			
0.8940	57218.83	3.2320	3.2320	-0.2043	27.08	1.32	-1.500			
0.8946	57257.54	3.2290	3.2290	-0.2001	27.08	1.32	-1.500			
0.8952	57295.60	3.2260	3.2260	-0.1963	27.09	1.33	-1.500			
0.8958	57332.63	3.2230	3.2230	-0.1932	27.09	1.33	-1.500			
0.8964	57369.57	3.2200	3.2200	-0.1897	27.10	1.34	-1.500			
0.8970	57405.75	3.2170	3.2171	-0.1864	27.10	1.34	-1.500			
0.8975	57441.19	3.2140	3.2139	-0.1828	27.10	1.34	-1.500			
0.8981	57475.99	3.2110	3.2111	-0.1798	27.11	1.35	-1.500			
0.8986	57509.97	3.2080	3.2079	-0.1766	27.11	1.35	-1.500			
0.8991	57543.57	3.2050	3.2051	-0.1737	27.11	1.35	-1.500			
0.8996	57576.66	3.2020	3.2019	-0.1709	27.12	1.36	-1.500			
0.9001	57609.13	3.1990	3.1990	-0.1673	27.12	1.36	-1.500			
0.9006	57641.08	3.1960	3.1960	-0.1650	27.12	1.36	-1.500			
0.9011	57672.14	3.1930	3.1930	-0.1627	27.13	1.37	-1.500			
0.9016	57703.17	3.1900	3.1900	-0.1606	27.13	1.37	-1.500			
0.9021	57733.56	3.1870	3.1870	-0.1583	27.13	1.37	-1.500			
0.9026	57763.70	3.1840	3.1840	-0.1563	27.14	1.38	-1.500			
0.9030	57793.68	3.1810	3.1809	-0.1546	27.14	1.38	-1.500			
0.9035	57823.19	3.1780	3.1782	-0.1528	27.15	1.39	-1.500			
0.9039	57852.68	3.1750	3.1749	-0.1508	27.15	1.39	-1.500			
0.9044	57881.28	3.1720	3.1720	-0.1486	27.15	1.39	-1.500			
0.9048	57909.46	3.1690	3.1690	-0.1461	27.16	1.40	-1.500			
0.9053	57937.32	3.1660	3.1660	-0.1441	27.16	1.40	-1.500			
0.9057	57964.84	3.1630	3.1629	-0.1426	27.16	1.40	-1.500			
0.9061	57991.93	3.1600	3.1600	-0.1410	27.17	1.41	-1.500			
0.9065	58018.74	3.1570	3.1570	-0.1394	27.17	1.41	-1.500			
0.9070	58045.40	3.1540	3.1539	-0.1382	27.17	1.41	-1.500			
0.9074	58071.77	3.1510	3.1511	-0.1371	27.18	1.42	-1.500			
0.9078	58097.92	3.1480	3.1480	-0.1360	27.18	1.42	-1.500			
0.9082	58124.07	3.1450	3.1450	-0.1350	27.18	1.42	-1.500			
0.9086	58149.88	3.1420	3.1419	-0.1338	27.19	1.43	-1.500			
0.9090	58175.33	3.1390	3.1391	-0.1329	27.19	1.43	-1.500			
0.9094	58200.75	3.1360	3.1360	-0.1320	27.19	1.43	-1.500			
0.9098	58226.12	3.1330	3.1330	-0.1306	27.20	1.44	-1.500			
0.9102	58251.09	3.1300	3.1299	-0.1293	27.20	1.44	-1.500			
0.9106	58275.82	3.1270	3.1270	-0.1280	27.20	1.44	-1.500			
0.9109	58300.18	3.1240	3.1241	-0.1270	27.21	1.45	-1.500			
0.9113	58324.45	3.1210	3.1210	-0.1258	27.21	1.45	-1.500			
0.9117	58348.37	3.1180	3.1180	-0.1252	27.21	1.45	-1.500			
0.9121	58371.99	3.1150	3.1150	-0.1240	27.22	1.46	-1.500			
0.9124	58396.03	3.1120	3.1120	-0.1231	27.22	1.46	-1.500			
0.9128	58419.80	3.1090	3.1090	-0.1226	27.23	1.47	-1.500			
0.9132	58443.19	3.1060	3.1060	-0.1217	27.23	1.47	-1.500			
0.9135	58466.56	3.1030	3.1030	-0.1209	27.24	1.48	-1.500			
0.9139	58489.62	3.1000	3.1002	-0.1200	27.24	1.48	-1.500			
0.9143	58512.54	3.0970	3.0968	-0.1190	27.24	1.48	-1.500			
0.9146	58535.22	3.0940	3.0939	-0.1186	27.25	1.49	-1.500			
0.9150	58557.83	3.0910	3.0911	-0.1175	27.25	1.49	-1.500			
0.9153	58580.34	3.0880	3.0878	-0.1169	27.26	1.50	-1.500			
0.9157	58602.94	3.0850	3.0852	-0.1164	27.26	1.50	-1.500			
0.9160	58625.20	3.0820	3.0821	-0.1154	27.27	1.51	-1.500			
0.9164	58647.22	3.0790	3.0790	-0.1147	27.27	1.51	-1.500			
0.9167	58669.17	3.0760	3.0760	-0.1139	27.28	1.52	-1.500			
0.9170	58690.88	3.0730	3.0729	-0.1133	27.28	1.52	-1.500			
0.9174	58712.40	3.0700	3.0700	-0.1124	27.28	1.52	-1.500			
0.9177	58734.01	3.0670	3.0670	-0.1118	27.29	1.53	-1.500			
0.9181	58755.48	3.0640	3.0641	-0.1114	27.29	1.53	-1.500			
0.9184	58776.78	3.0610	3.0609	-0.1109	27.30	1.54	-1.500			
0.9187	58798.05	3.0580	3.0580	-0.1104	27.30	1.54	-1.500			
0.9190	58819.08	3.0550	3.0551	-0.1102	27.31	1.55	-1.500			
0.9194	58840.09	3.0520	3.0519	-0.1097	27.31	1.55	-1.500			
0.9197	58861.36	3.0490	3.0489	-0.1088	27.31	1.55	-1.500			
0.9200	58882.29	3.0460	3.0460	-0.1083	27.32	1.56	-1.500			
0.9204	58903.01	3.0430	3.0430	-0.1075	27.32	1.56	-1.500			
0.9207	58923.75	3.0400	3.0402	-0.1070	27.33	1.57	-1.500			
0.9210	58944.01	3.0370	3.0369	-0.1064	27.33	1.57	-1.500			
0.9213	58964.27	3.0340	3.0339	-0.1056	27.33	1.57	-1.500			
0.9216	58984.44	3.0310	3.0311	-0.1052	27.34	1.58	-1.500			
0.9219	59004.31	3.0280	3.0280	-0.1045	27.34	1.58	-1.500			
0.9223	59024.55	3.0250	3.0249	-0.1040	27.35	1.59	-1.500			
0.9226	59044.73	3.0220	3.0220	-0.1040	27.35	1.59	-1.500			
0.9229	59064.71	3.0190	3.0190	-0.1031	27.35	1.59	-1.500			
0.9232	59084.56	3.0160	3.0160	-0.1024	27.36	1.60	-1.500			
0.9235	59104.13	3.0130	3.0130	-0.1013	27.36	1.60	-1.500			
0.9238	59123.52	3.0100	3.0100	-0.1002	27.37	1.61	-1.500			
0.9241	59142.65	3.0070	3.0070	-0.0990	27.37	1.61	-1.500			
0.9244	59161.55	3.0040	3.0041	-0.0981	27.37	1.61	-1.500			
