Ah_balance (normalized)	Ah_balance (mAh)	Voltage - fit (V)	Voltage -  interpolate (V)	dQ/dV (1/V)	Temperature (°C)	Temperature - diff (°C)	Current (C)	R_DC 0ms (mOhm)	R_DC 50ms (mOhm)	R_DC 50 ms PEC (mOhm)
0.2074	13273.50	3.9110	3.9110	-0.1213	25.70	0.00	-1.500			
0.2078	13299.77	3.9080	3.9080	-0.1554	25.70	0.00	-1.500			
0.2084	13335.06	3.9050	3.9049	-0.1891	25.70	-0.00	-1.500			
0.2090	13374.29	3.9020	3.9019	-0.2179	25.70	-0.00	-1.500			
0.2097	13418.64	3.8990	3.8991	-0.2479	25.70	-0.00	-1.500			
0.2105	13469.16	3.8960	3.8961	-0.2788	25.70	-0.00	-1.500			
0.2113	13525.52	3.8930	3.8929	-0.3096	25.70	-0.00	-1.500			
0.2123	13587.74	3.8900	3.8899	-0.3401	25.70	-0.00	-1.500			
0.2134	13655.50	3.8870	3.8870	-0.3703	25.70	-0.00	-1.500			
0.2145	13730.44	3.8840	3.8841	-0.4025	25.70	-0.00	-1.500			
0.2158	13810.99	3.8810	3.8809	-0.4329	25.70	-0.00	-1.500			
0.2171	13897.12	3.8780	3.8780	-0.4607	25.70	-0.00	-1.500			
0.2186	13987.78	3.8750	3.8751	-0.4892	25.70	-0.00	-1.500			
0.2201	14084.48	3.8720	3.8720	-0.5184	25.70	-0.00	-1.500			
0.2217	14188.54	3.8690	3.8690	-0.5437	25.69	-0.01	-1.500			
0.2234	14294.93	3.8660	3.8660	-0.5702	25.69	-0.01	-1.500			
0.2251	14406.50	3.8630	3.8631	-0.5979	25.69	-0.01	-1.500			
0.2269	14524.21	3.8600	3.8600	-0.6229	25.69	-0.01	-1.500			
0.2289	14647.00	3.8570	3.8569	-0.6473	25.69	-0.01	-1.500			
0.2308	14773.96	3.8540	3.8541	-0.6661	25.69	-0.01	-1.500			
0.2329	14904.98	3.8510	3.8510	-0.6873	25.69	-0.01	-1.500			
0.2350	15040.31	3.8480	3.8480	-0.7005	25.69	-0.01	-1.500			
0.2371	15175.32	3.8450	3.8450	-0.7092	25.69	-0.01	-1.500			
0.2393	15312.71	3.8420	3.8420	-0.7188	25.69	-0.01	-1.500			
0.2414	15452.43	3.8390	3.8390	-0.7273	25.70	-0.00	-1.500			
0.2436	15592.65	3.8360	3.8360	-0.7382	25.70	-0.00	-1.500			
0.2459	15735.40	3.8330	3.8330	-0.7458	25.70	0.00	-1.500			
0.2481	15879.05	3.8300	3.8300	-0.7551	25.70	0.00	-1.500			
0.2504	16026.89	3.8270	3.8270	-0.7633	25.70	0.00	-1.500			
0.2527	16175.25	3.8240	3.8240	-0.7662	25.71	0.01	-1.500			
0.2551	16323.75	3.8210	3.8210	-0.7642	25.71	0.01	-1.500			
0.2573	16469.66	3.8180	3.8181	-0.7723	25.71	0.01	-1.500			
0.2596	16617.11	3.8150	3.8149	-0.7726	25.71	0.01	-1.500			
0.2620	16765.54	3.8120	3.8118	-0.7763	25.72	0.02	-1.500			
0.2643	16913.92	3.8090	3.8091	-0.7804	25.72	0.02	-1.500			
0.2666	17064.42	3.8060	3.8061	-0.7868	25.73	0.03	-1.500			
0.2690	17218.90	3.8030	3.8030	-0.7928	25.73	0.03	-1.500			
0.2714	17371.11	3.8000	3.8000	-0.7955	25.74	0.04	-1.500			
0.2738	17523.28	3.7970	3.7970	-0.7902	25.74	0.04	-1.500			
0.2762	17676.30	3.7940	3.7940	-0.7976	25.75	0.05	-1.500			
0.2786	17828.61	3.7910	3.7910	-0.8000	25.75	0.05	-1.500			
0.2810	17980.95	3.7880	3.7880	-0.8078	25.76	0.06	-1.500			
0.2834	18137.51	3.7850	3.7852	-0.8121	25.76	0.06	-1.500			
0.2859	18295.12	3.7820	3.7818	-0.8167	25.77	0.07	-1.500			
0.2883	18453.32	3.7790	3.7790	-0.8162	25.77	0.07	-1.500			
0.2908	18612.25	3.7760	3.7761	-0.8176	25.78	0.08	-1.500			
0.2933	18769.49	3.7730	3.7729	-0.8164	25.78	0.08	-1.500			
0.2957	18924.13	3.7700	3.7701	-0.8103	25.79	0.09	-1.500			
0.2981	19076.85	3.7670	3.7669	-0.8030	25.80	0.10	-1.500			
0.3005	19231.87	3.7640	3.7640	-0.8065	25.80	0.10	-1.500			
0.3029	19387.54	3.7610	3.7609	-0.8058	25.81	0.11	-1.500			
0.3053	19541.65	3.7580	3.7581	-0.8064	25.81	0.11	-1.500			
0.3078	19697.59	3.7550	3.7549	-0.8063	25.82	0.12	-1.500			
0.3102	19852.65	3.7520	3.7520	-0.8053	25.82	0.12	-1.500			
0.3126	20006.97	3.7490	3.7490	-0.8010	25.83	0.13	-1.500			
0.3150	20160.18	3.7460	3.7460	-0.8038	25.84	0.14	-1.500			
0.3174	20314.42	3.7430	3.7430	-0.8045	25.84	0.14	-1.500			
0.3198	20469.83	3.7400	3.7399	-0.8035	25.85	0.15	-1.500			
0.3222	20623.44	3.7370	3.7370	-0.8018	25.85	0.15	-1.500			
0.3246	20777.14	3.7340	3.7340	-0.8068	25.86	0.16	-1.500			
0.3271	20932.82	3.7310	3.7310	-0.8058	25.87	0.17	-1.500			
0.3295	21088.20	3.7280	3.7279	-0.8062	25.87	0.17	-1.500			
0.3319	21241.62	3.7250	3.7250	-0.8059	25.88	0.18	-1.500			
0.3343	21396.98	3.7220	3.7220	-0.8101	25.88	0.18	-1.500			
0.3368	21552.90	3.7190	3.7189	-0.8148	25.89	0.19	-1.500			
0.3392	21708.17	3.7160	3.7160	-0.8186	25.90	0.20	-1.500			
0.3416	21865.26	3.7130	3.7130	-0.8195	25.90	0.20	-1.500			
0.3442	22025.87	3.7100	3.7099	-0.8245	25.91	0.21	-1.500			
0.3466	22184.10	3.7070	3.7071	-0.8284	25.92	0.22	-1.500			
0.3491	22342.60	3.7040	3.7040	-0.8330	25.92	0.22	-1.500			
0.3516	22502.02	3.7010	3.7010	-0.8384	25.93	0.23	-1.500			
0.3541	22663.50	3.6980	3.6979	-0.8451	25.94	0.24	-1.500			
0.3567	22825.82	3.6950	3.6950	-0.8507	25.95	0.25	-1.500			
0.3592	22990.91	3.6920	3.6921	-0.8608	25.95	0.25	-1.500			
0.3618	23158.34	3.6890	3.6890	-0.8683	25.96	0.26	-1.500			
0.3644	23323.65	3.6860	3.6860	-0.8743	25.96	0.26	-1.500			
0.3670	23489.77	3.6830	3.6831	-0.8876	25.97	0.27	-1.500			
0.3697	23662.35	3.6800	3.6800	-0.9010	25.97	0.27	-1.500			
0.3724	23835.15	3.6770	3.6769	-0.9197	25.98	0.28	-1.500			
0.3752	24014.18	3.6740	3.6741	-0.9369	25.98	0.28	-1.500			
0.3781	24196.07	3.6710	3.6711	-0.9556	25.99	0.29	-1.500			
0.3810	24382.44	3.6680	3.6679	-0.9708	26.00	0.30	-1.500			
0.3839	24569.37	3.6650	3.6651	-0.9835	26.00	0.30	-1.500			
0.3869	24759.46	3.6620	3.6621	-0.9992	26.01	0.31	-1.500			
0.3899	24953.11	3.6590	3.6590	-1.0248	26.01	0.31	-1.500			
0.3930	25149.53	3.6560	3.6560	-1.0466	26.02	0.32	-1.500			
0.3961	25352.00	3.6530	3.6530	-1.0720	26.02	0.32	-1.500			
0.3994	25560.54	3.6500	3.6500	-1.0932	26.03	0.33	-1.500			
0.4027	25774.55	3.6470	3.6470	-1.1205	26.03	0.33	-1.500			
0.4061	25992.43	3.6440	3.6439	-1.1405	26.04	0.34	-1.500			
0.4096	26213.61	3.6410	3.6410	-1.1617	26.04	0.34	-1.500			
0.4131	26437.51	3.6380	3.6380	-1.1829	26.04	0.34	-1.500			
0.4166	26665.22	3.6350	3.6350	-1.2094	26.05	0.35	-1.500			
0.4203	26900.25	3.6320	3.6319	-1.2341	26.05	0.35	-1.500			
0.4241	27141.03	3.6290	3.6290	-1.2640	26.05	0.35	-1.500			
0.4279	27385.47	3.6260	3.6259	-1.2897	26.06	0.36	-1.500			
0.4318	27635.78	3.6230	3.6230	-1.3194	26.06	0.36	-1.500			
0.4358	27891.44	3.6200	3.6200	-1.3479	26.06	0.36	-1.500			
0.4399	28152.25	3.6170	3.6170	-1.3764	26.06	0.36	-1.500			
0.4441	28419.45	3.6140	3.6140	-1.4060	26.06	0.36	-1.500			
0.4484	28695.36	3.6110	3.6110	-1.4332	26.06	0.36	-1.500			
0.4527	28973.28	3.6080	3.6079	-1.4635	26.06	0.36	-1.500			
0.4571	29256.74	3.6050	3.6051	-1.4902	26.06	0.36	-1.500			
0.4616	29545.52	3.6020	3.6019	-1.5129	26.06	0.36	-1.500			
0.4662	29836.16	3.5990	3.5990	-1.5447	26.06	0.36	-1.500			
0.4709	30135.16	3.5960	3.5960	-1.5771	26.06	0.36	-1.500			
0.4757	30442.59	3.5930	3.5929	-1.5904	26.06	0.36	-1.500			
0.4806	30756.16	3.5900	3.5899	-1.6093	26.06	0.36	-1.500			
0.4854	31063.61	3.5870	3.5871	-1.6185	26.06	0.36	-1.500			
0.4902	31371.72	3.5840	3.5842	-1.6529	26.06	0.36	-1.500			
0.4952	31691.83	3.5810	3.5809	-1.6763	26.06	0.36	-1.500			
0.5002	32011.73	3.5780	3.5779	-1.6938	26.06	0.36	-1.500			
0.5053	32341.15	3.5750	3.5750	-1.7385	26.06	0.36	-1.500			
0.5107	32685.38	3.5720	3.5720	-1.7831	26.06	0.36	-1.500			
0.5161	33027.82	3.5690	3.5689	-1.8258	26.06	0.36	-1.500			
0.5216	33380.23	3.5660	3.5660	-1.8445	26.06	0.36	-1.500			
0.5271	33737.31	3.5630	3.5630	-1.8654	26.06	0.36	-1.500			
0.5329	34106.38	3.5600	3.5602	-1.8963	26.06	0.36	-1.500			
0.5385	34466.23	3.5570	3.5570	-1.9136	26.06	0.36	-1.500			
0.5443	34834.21	3.5540	3.5540	-1.9460	26.06	0.36	-1.500			
0.5502	35211.55	3.5510	3.5509	-1.9676	26.06	0.36	-1.500			
0.5562	35594.66	3.5480	3.5479	-1.9773	26.06	0.36	-1.500			
0.5621	35976.58	3.5450	3.5450	-1.9792	26.06	0.36	-1.500	0.391	0.505	
0.5681	36359.48	3.5420	3.5419	-1.9830	26.06	0.36	-1.500			
0.5740	36734.69	3.5390	3.5390	-1.9779	26.06	0.36	-1.500			
0.5799	37111.19	3.5360	3.5360	-1.9858	26.06	0.36	-1.500			
0.5859	37500.62	3.5330	3.5330	-1.9934	26.06	0.36	-1.500			
0.5919	37884.73	3.5300	3.5300	-1.9928	26.07	0.37	-1.500			
0.5980	38271.47	3.5270	3.5270	-1.9825	26.07	0.37	-1.500			
0.6039	38648.87	3.5240	3.5240	-1.9586	26.08	0.38	-1.500			
0.6097	39022.86	3.5210	3.5211	-1.9407	26.08	0.38	-1.500			
0.6155	39390.93	3.5180	3.5180	-1.9355	26.09	0.39	-1.500			
0.6213	39761.48	3.5150	3.5149	-1.9270	26.10	0.40	-1.500			
0.6271	40132.44	3.5120	3.5120	-1.9067	26.11	0.41	-1.500			
0.6328	40500.16	3.5090	3.5092	-1.9011	26.12	0.42	-1.500			
0.6385	40863.95	3.5060	3.5060	-1.8961	26.13	0.43	-1.500			
0.6442	41227.15	3.5030	3.5029	-1.8661	26.14	0.44	-1.500			
0.6497	41581.33	3.5000	3.5000	-1.8335	26.15	0.45	-1.500			
0.6552	41933.87	3.4970	3.4971	-1.8325	26.16	0.46	-1.500			
0.6607	42284.60	3.4940	3.4939	-1.8076	26.17	0.47	-1.500			
0.6660	42624.97	3.4910	3.4910	-1.8096	26.19	0.49	-1.500			
0.6714	42972.19	3.4880	3.4879	-1.8019	26.20	0.50	-1.500			
0.6769	43319.65	3.4850	3.4850	-1.7853	26.21	0.51	-1.500			
0.6823	43667.56	3.4820	3.4823	-1.7723	26.22	0.52	-1.500			
0.6876	44004.76	3.4790	3.4790	-1.7548	26.23	0.53	-1.500			
0.6928	44339.14	3.4760	3.4758	-1.7472	26.24	0.54	-1.500			
0.6980	44672.68	3.4730	3.4729	-1.7129	26.26	0.56	-1.500			
0.7031	44996.14	3.4700	3.4699	-1.6767	26.27	0.57	-1.500			
0.7082	45322.68	3.4670	3.4673	-1.6710	26.28	0.58	-1.500			
0.7131	45641.19	3.4640	3.4639	-1.6475	26.29	0.59	-1.500			
0.7180	45952.76	3.4610	3.4609	-1.6204	26.30	0.60	-1.500			
0.7228	46258.11	3.4580	3.4579	-1.5947	26.31	0.61	-1.500			
0.7276	46563.90	3.4550	3.4551	-1.5707	26.33	0.63	-1.500			
0.7323	46865.70	3.4520	3.4520	-1.5517	26.34	0.64	-1.500			
0.7369	47159.06	3.4490	3.4490	-1.5340	26.35	0.65	-1.500			
0.7414	47448.49	3.4460	3.4460	-1.5107	26.37	0.67	-1.500			
0.7459	47735.02	3.4430	3.4429	-1.4932	26.39	0.69	-1.500			
0.7503	48020.86	3.4400	3.4401	-1.4833	26.40	0.70	-1.500			
0.7548	48304.68	3.4370	3.4370	-1.4739	26.42	0.72	-1.500			
0.7592	48588.05	3.4340	3.4340	-1.4656	26.43	0.73	-1.500			
0.7635	48865.85	3.4310	3.4309	-1.4521	26.45	0.75	-1.500			
0.7678	49141.25	3.4280	3.4281	-1.4505	26.46	0.76	-1.500			
0.7722	49422.93	3.4250	3.4250	-1.4415	26.48	0.78	-1.500			
0.7766	49701.79	3.4220	3.4219	-1.4333	26.50	0.80	-1.500			
0.7809	49976.52	3.4190	3.4189	-1.4146	26.51	0.81	-1.500			
0.7851	50248.01	3.4160	3.4161	-1.3945	26.53	0.83	-1.500			
0.7893	50513.41	3.4130	3.4129	-1.3703	26.55	0.85	-1.500			
0.7933	50773.66	3.4100	3.4100	-1.3373	26.57	0.87	-1.500			
0.7973	51028.01	3.4070	3.4070	-1.2932	26.59	0.89	-1.500			
0.8012	51275.97	3.4040	3.4039	-1.2603	26.61	0.91	-1.500			
0.8049	51515.22	3.4010	3.4011	-1.2157	26.62	0.92	-1.500			
0.8085	51743.72	3.3980	3.3980	-1.1720	26.63	0.93	-1.500			
0.8119	51964.36	3.3950	3.3950	-1.1276	26.65	0.95	-1.500			
0.8153	52176.69	3.3920	3.3920	-1.0819	26.66	0.96	-1.500			
0.8185	52381.16	3.3890	3.3890	-1.0384	26.68	0.98	-1.500			
0.8215	52576.61	3.3860	3.3859	-0.9977	26.69	0.99	-1.500			
0.8244	52761.51	3.3830	3.3831	-0.9583	26.70	1.00	-1.500			
0.8272	52942.44	3.3800	3.3799	-0.9165	26.72	1.02	-1.500			
0.8299	53113.06	3.3770	3.3771	-0.8785	26.73	1.03	-1.500			
0.8325	53278.92	3.3740	3.3741	-0.8433	26.74	1.04	-1.500			
0.8349	53436.37	3.3710	3.3710	-0.8143	26.75	1.05	-1.500			
0.8373	53590.30	3.3680	3.3679	-0.7806	26.76	1.06	-1.500			
0.8396	53735.40	3.3650	3.3650	-0.7507	26.77	1.07	-1.500			
0.8418	53875.23	3.3620	3.3620	-0.7239	26.78	1.08	-1.500			
0.8440	54014.08	3.3590	3.3591	-0.7027	26.79	1.09	-1.500			
0.8460	54144.86	3.3560	3.3559	-0.6765	26.80	1.10	-1.500			
0.8480	54273.06	3.3530	3.3531	-0.6528	26.81	1.11	-1.500			
0.8499	54395.09	3.3500	3.3500	-0.6292	26.82	1.12	-1.500			
0.8518	54514.37	3.3470	3.3470	-0.6139	26.83	1.13	-1.500			
0.8536	54629.06	3.3440	3.3440	-0.5928	26.84	1.14	-1.500			
0.8553	54739.92	3.3410	3.3409	-0.5746	26.85	1.15	-1.500			
0.8570	54849.52	3.3380	3.3380	-0.5584	26.85	1.15	-1.500			
0.8587	54954.19	3.3350	3.3351	-0.5423	26.86	1.16	-1.500			
0.8603	55057.67	3.3320	3.3319	-0.5281	26.87	1.17	-1.500			
0.8618	55157.93	3.3290	3.3290	-0.5083	26.88	1.18	-1.500			
0.8633	55253.50	3.3260	3.3260	-0.4907	26.88	1.18	-1.500			
0.8648	55345.69	3.3230	3.3231	-0.4763	26.89	1.19	-1.500			
0.8662	55435.44	3.3200	3.3200	-0.4622	26.90	1.20	-1.500			
0.8675	55522.08	3.3170	3.3169	-0.4473	26.90	1.20	-1.500			
0.8688	55606.02	3.3140	3.3140	-0.4329	26.91	1.21	-1.500			
0.8701	55688.38	3.3110	3.3111	-0.4190	26.92	1.22	-1.500			
0.8714	55767.70	3.3080	3.3079	-0.4072	26.92	1.22	-1.500			
0.8726	55844.75	3.3050	3.3050	-0.3914	26.93	1.23	-1.500			
0.8737	55918.46	3.3020	3.3020	-0.3764	26.93	1.23	-1.500			
0.8748	55988.53	3.2990	3.2990	-0.3639	26.94	1.24	-1.500			
0.8759	56057.15	3.2960	3.2960	-0.3533	26.94	1.24	-1.500			
0.8769	56123.03	3.2930	3.2929	-0.3418	26.95	1.25	-1.500			
0.8779	56187.87	3.2900	3.2899	-0.3317	26.95	1.25	-1.500			
0.8789	56250.04	3.2870	3.2871	-0.3214	26.96	1.26	-1.500			
0.8799	56311.89	3.2840	3.2840	-0.3127	26.96	1.26	-1.500			
0.8808	56371.24	3.2810	3.2811	-0.3026	26.97	1.27	-1.500			
0.8817	56427.75	3.2780	3.2779	-0.2936	26.97	1.27	-1.500			
0.8825	56482.94	3.2750	3.2750	-0.2837	26.98	1.28	-1.500			
0.8834	56536.32	3.2720	3.2719	-0.2757	26.98	1.28	-1.500			
0.8842	56588.33	3.2690	3.2691	-0.2683	26.99	1.29	-1.500			
0.8850	56639.07	3.2660	3.2660	-0.2609	26.99	1.29	-1.500			
0.8858	56688.76	3.2630	3.2629	-0.2535	27.00	1.30	-1.500			
0.8865	56736.64	3.2600	3.2601	-0.2462	27.00	1.30	-1.500			
0.8872	56782.69	3.2570	3.2571	-0.2393	27.01	1.31	-1.500			
0.8879	56828.14	3.2540	3.2540	-0.2334	27.01	1.31	-1.500			
0.8886	56872.52	3.2510	3.2509	-0.2278	27.01	1.31	-1.500			
0.8893	56915.42	3.2480	3.2480	-0.2207	27.02	1.32	-1.500			
0.8900	56957.21	3.2450	3.2450	-0.2147	27.02	1.32	-1.500			
0.8906	56997.88	3.2420	3.2421	-0.2089	27.03	1.33	-1.500			
0.8912	57037.50	3.2390	3.2391	-0.2047	27.03	1.33	-1.500			
0.8918	57075.82	3.2360	3.2360	-0.1998	27.03	1.33	-1.500			
0.8924	57113.22	3.2330	3.2329	-0.1951	27.04	1.34	-1.500			
0.8930	57150.41	3.2300	3.2301	-0.1923	27.04	1.34	-1.500			
0.8935	57187.04	3.2270	3.2270	-0.1884	27.05	1.35	-1.500			
0.8941	57223.27	3.2240	3.2240	-0.1853	27.05	1.35	-1.500			
0.8947	57258.69	3.2210	3.2210	-0.1815	27.05	1.35	-1.500			
0.8952	57293.11	3.2180	3.2181	-0.1769	27.06	1.36	-1.500			
0.8957	57326.44	3.2150	3.2150	-0.1730	27.06	1.36	-1.500			
0.8962	57359.00	3.2120	3.2121	-0.1697	27.06	1.36	-1.500			
0.8967	57390.96	3.2090	3.2089	-0.1660	27.07	1.37	-1.500			
0.8972	57422.61	3.2060	3.2061	-0.1637	27.07	1.37	-1.500			
0.8977	57453.74	3.2030	3.2030	-0.1615	27.07	1.37	-1.500			
0.8982	57484.41	3.2000	3.2001	-0.1592	27.07	1.37	-1.500			
0.8987	57515.17	3.1970	3.1970	-0.1567	27.08	1.38	-1.500			
0.8991	57544.88	3.1940	3.1940	-0.1538	27.08	1.38	-1.500			
0.8996	57573.90	3.1910	3.1912	-0.1517	27.08	1.38	-1.500			
0.9000	57602.63	3.1880	3.1880	-0.1492	27.09	1.39	-1.500			
0.9005	57631.07	3.1850	3.1849	-0.1477	27.09	1.39	-1.500			
0.9009	57659.28	3.1820	3.1819	-0.1454	27.10	1.40	-1.500			
0.9014	57687.06	3.1790	3.1790	-0.1431	27.10	1.40	-1.500			
0.9018	57714.35	3.1760	3.1760	-0.1411	27.10	1.40	-1.500			
0.9022	57741.63	3.1730	3.1731	-0.1390	27.11	1.41	-1.500			
0.9026	57767.71	3.1700	3.1700	-0.1376	27.11	1.41	-1.500			
0.9030	57793.62	3.1670	3.1670	-0.1353	27.11	1.41	-1.500			
0.9034	57819.51	3.1640	3.1640	-0.1344	27.12	1.42	-1.500			
0.9038	57845.14	3.1610	3.1609	-0.1327	27.12	1.42	-1.500			
0.9042	57870.73	3.1580	3.1581	-0.1317	27.13	1.43	-1.500			
0.9046	57896.03	3.1550	3.1550	-0.1305	27.13	1.43	-1.500			
0.9050	57920.81	3.1520	3.1520	-0.1292	27.13	1.43	-1.500			
0.9054	57945.58	3.1490	3.1490	-0.1278	27.14	1.44	-1.500			
0.9058	57969.74	3.1460	3.1459	-0.1253	27.14	1.44	-1.500			
0.9061	57993.54	3.1430	3.1430	-0.1244	27.14	1.44	-1.500			
0.9065	58017.32	3.1400	3.1402	-0.1233	27.15	1.45	-1.500			
0.9069	58041.05	3.1370	3.1370	-0.1218	27.15	1.45	-1.500			
0.9073	58064.27	3.1340	3.1339	-0.1202	27.15	1.45	-1.500			
0.9076	58086.93	3.1310	3.1310	-0.1194	27.15	1.45	-1.500			
0.9080	58109.52	3.1280	3.1280	-0.1181	27.16	1.46	-1.500			
0.9083	58132.24	3.1250	3.1251	-0.1175	27.16	1.46	-1.500			
0.9087	58154.91	3.1220	3.1219	-0.1172	27.17	1.47	-1.500			
0.9090	58177.34	3.1190	3.1190	-0.1163	27.17	1.47	-1.500			
0.9094	58199.33	3.1160	3.1160	-0.1151	27.17	1.47	-1.500			
0.9097	58221.47	3.1130	3.1130	-0.1143	27.18	1.48	-1.500			
0.9101	58243.72	3.1100	3.1100	-0.1140	27.18	1.48	-1.500			
0.9104	58265.42	3.1070	3.1070	-0.1129	27.19	1.49	-1.500			
0.9107	58286.80	3.1040	3.1040	-0.1116	27.19	1.49	-1.500			
0.9111	58308.23	3.1010	3.1010	-0.1105	27.19	1.49	-1.500			
0.9114	58329.44	3.0980	3.0980	-0.1096	27.20	1.50	-1.500			
0.9117	58350.22	3.0950	3.0951	-0.1091	27.20	1.50	-1.500			
0.9120	58371.01	3.0920	3.0920	-0.1083	27.20	1.50	-1.500			
0.9124	58391.74	3.0890	3.0889	-0.1076	27.21	1.51	-1.500			
0.9127	58412.23	3.0860	3.0859	-0.1069	27.21	1.51	-1.500			
0.9130	58432.80	3.0830	3.0830	-0.1061	27.22	1.52	-1.500			
0.9133	58453.14	3.0800	3.0800	-0.1054	27.22	1.52	-1.500			
0.9136	58473.25	3.0770	3.0772	-0.1049	27.22	1.52	-1.500			
0.9140	58493.48	3.0740	3.0738	-0.1044	27.23	1.53	-1.500			
0.9143	58513.35	3.0710	3.0710	-0.1039	27.23	1.53	-1.500			
0.9146	58533.00	3.0680	3.0678	-0.1031	27.23	1.53	-1.500			
0.9149	58552.91	3.0650	3.0650	-0.1023	27.24	1.54	-1.500			
0.9152	58572.58	3.0620	3.0620	-0.1018	27.24	1.54	-1.500			
0.9155	58591.90	3.0590	3.0590	-0.1017	27.24	1.54	-1.500			
0.9158	58611.42	3.0560	3.0561	-0.1014	27.25	1.55	-1.500			
0.9161	58631.04	3.0530	3.0530	-0.1005	27.25	1.55	-1.500			
0.9164	58650.27	3.0500	3.0499	-0.0997	27.25	1.55	-1.500			
0.9167	58669.34	3.0470	3.0470	-0.0990	27.26	1.56	-1.500			
0.9170	58688.25	3.0440	3.0441	-0.0986	27.26	1.56	-1.500			
0.9173	58707.12	3.0410	3.0410	-0.0980	27.26	1.56	-1.500			
0.9176	58725.99	3.0380	3.0379	-0.0977	27.27	1.57	-1.500			
0.9179	58744.68	3.0350	3.0349	-0.0970	27.27	1.57	-1.500			
0.9182	58762.87	3.0320	3.0321	-0.0961	27.27	1.57	-1.500			
0.9185	58781.33	3.0290	3.0291	-0.0961	27.28	1.58	-1.500			
0.9188	58800.12	3.0260	3.0262	-0.0959	27.28	1.58	-1.500			
0.9190	58818.45	3.0230	3.0228	-0.0951	27.28	1.58	-1.500			
0.9193	58836.48	3.0200	3.0200	-0.0947	27.29	1.59	-1.500			
0.9196	58854.63	3.0170	3.0171	-0.0943	27.29	1.59	-1.500			
0.9199	58872.65	3.0140	3.0140	-0.0939	27.29	1.59	-1.500			
0.9202	58890.66	3.0110	3.0109	-0.0937	27.30	1.60	-1.500			
0.9204	58908.50	3.0080	3.0080	-0.0935	27.30	1.60	-1.500			
0.9207	58926.46	3.0050	3.0051	-0.0936	27.30	1.60	-1.500			
0.9210	58944.42	3.0020	3.0021	-0.0921	27.31	1.61	-1.501			
