Ah_balance (normalized)	Ah_balance (mAh)	Voltage - fit (V)	Voltage -  interpolate (V)	dQ/dV (1/V)	Temperature (°C)	Temperature - diff (°C)	Current (C)	R_DC 0ms (mOhm)	R_DC 50ms (mOhm)	R_DC 50 ms PEC (mOhm)
0.2900	18562.98	3.9720	3.9720	0.8556	27.10	1.16	1.500			
0.2926	18725.96	3.9690	3.9690	0.8557	27.10	1.16	1.500			
0.2953	18897.33	3.9660	3.9660	0.8795	27.09	1.15	1.500			
0.2979	19066.14	3.9630	3.9630	0.8851	27.09	1.15	1.500			
0.3006	19237.99	3.9600	3.9600	0.8873	27.08	1.14	1.500			
0.3033	19410.01	3.9570	3.9570	0.8913	27.08	1.14	1.500			
0.3059	19580.57	3.9540	3.9539	0.8941	27.07	1.13	1.500			
0.3086	19750.90	3.9510	3.9511	0.8970	27.07	1.13	1.500			
0.3113	19922.14	3.9480	3.9479	0.8941	27.07	1.13	1.500			
0.3140	20096.22	3.9450	3.9449	0.9029	27.06	1.12	1.500			
0.3167	20268.61	3.9420	3.9421	0.9052	27.06	1.12	1.500			
0.3194	20443.08	3.9390	3.9390	0.9135	27.05	1.11	1.500			
0.3222	20619.43	3.9360	3.9360	0.9187	27.05	1.11	1.500			
0.3249	20796.10	3.9330	3.9330	0.9249	27.04	1.10	1.500			
0.3277	20973.70	3.9300	3.9300	0.9303	27.04	1.10	1.500			
0.3305	21154.53	3.9270	3.9270	0.9362	27.04	1.10	1.500			
0.3334	21334.55	3.9240	3.9240	0.9380	27.03	1.09	1.500			
0.3362	21516.22	3.9210	3.9210	0.9399	27.03	1.09	1.500			
0.3390	21696.30	3.9180	3.9180	0.9467	27.02	1.08	1.500			
0.3418	21877.15	3.9150	3.9150	0.9564	27.02	1.08	1.500			
0.3447	22060.93	3.9120	3.9121	0.9669	27.01	1.07	1.500			
0.3476	22247.42	3.9090	3.9091	0.9765	27.01	1.07	1.500			
0.3506	22436.60	3.9060	3.9060	0.9846	27.00	1.06	1.500			
0.3536	22628.01	3.9030	3.9030	0.9919	27.00	1.06	1.500			
0.3566	22819.31	3.9000	3.9000	0.9955	26.99	1.05	1.500			
0.3595	23010.68	3.8970	3.8970	1.0026	26.98	1.04	1.500			
0.3625	23202.48	3.8940	3.8940	1.0083	26.98	1.04	1.500			
0.3656	23396.19	3.8910	3.8910	1.0147	26.97	1.03	1.500			
0.3686	23591.70	3.8880	3.8880	1.0265	26.97	1.03	1.500			
0.3717	23790.39	3.8850	3.8850	1.0390	26.96	1.02	1.500			
0.3749	23991.07	3.8820	3.8820	1.0489	26.95	1.01	1.500			
0.3780	24193.85	3.8790	3.8790	1.0593	26.95	1.01	1.500			
0.3812	24396.56	3.8760	3.8761	1.0723	26.94	1.00	1.500			
0.3844	24603.34	3.8730	3.8731	1.0880	26.94	1.00	1.500			
0.3877	24815.60	3.8700	3.8699	1.0977	26.93	0.99	1.500			
0.3911	25027.38	3.8670	3.8670	1.1053	26.93	0.99	1.500			
0.3944	25240.30	3.8640	3.8641	1.1186	26.92	0.98	1.500			
0.3977	25455.49	3.8610	3.8610	1.1323	26.92	0.98	1.500			
0.4012	25674.48	3.8580	3.8579	1.1435	26.91	0.97	1.500			
0.4046	25894.34	3.8550	3.8550	1.1548	26.90	0.96	1.500			
0.4081	26118.44	3.8520	3.8520	1.1671	26.89	0.95	1.500			
0.4116	26342.29	3.8490	3.8491	1.1936	26.88	0.94	1.500			
0.4152	26572.01	3.8460	3.8460	1.2121	26.88	0.94	1.500			
0.4188	26805.68	3.8430	3.8430	1.2341	26.87	0.93	1.500			
0.4226	27043.75	3.8400	3.8400	1.2613	26.86	0.92	1.500			
0.4264	27290.04	3.8370	3.8371	1.2901	26.85	0.91	1.500			
0.4304	27542.65	3.8340	3.8339	1.3159	26.84	0.90	1.500			
0.4343	27797.26	3.8310	3.8310	1.3430	26.83	0.89	1.500			
0.4384	28054.94	3.8280	3.8281	1.3621	26.83	0.89	1.500			
0.4425	28320.10	3.8250	3.8250	1.3979	26.82	0.88	1.500			
0.4467	28589.66	3.8220	3.8220	1.4296	26.81	0.87	1.500			
0.4510	28867.04	3.8190	3.8190	1.4612	26.80	0.86	1.500			
0.4555	29155.17	3.8160	3.8159	1.4886	26.79	0.85	1.500			
0.4600	29442.90	3.8130	3.8130	1.5186	26.78	0.84	1.500			
0.4646	29734.08	3.8100	3.8101	1.5596	26.77	0.83	1.500			
0.4693	30037.30	3.8070	3.8070	1.5983	26.76	0.82	1.500			
0.4742	30347.02	3.8040	3.8040	1.6377	26.74	0.80	1.500			
0.4792	30666.16	3.8010	3.8011	1.6687	26.73	0.79	1.500			
0.4842	30991.44	3.7980	3.7980	1.7234	26.71	0.77	1.500			
0.4895	31327.37	3.7950	3.7950	1.7627	26.70	0.76	1.500			
0.4948	31668.68	3.7920	3.7919	1.8144	26.68	0.74	1.500			
0.5003	32019.99	3.7890	3.7891	1.8849	26.67	0.73	1.500			
0.5061	32390.11	3.7860	3.7859	1.9384	26.66	0.72	1.500			
0.5120	32770.06	3.7830	3.7831	1.9725	26.64	0.70	1.500			
0.5180	33155.03	3.7800	3.7801	2.0299	26.63	0.69	1.500			
0.5242	33547.82	3.7770	3.7769	2.0623	26.61	0.67	1.500			
0.5304	33946.52	3.7740	3.7740	2.0912	26.59	0.65	1.500			
0.5368	34356.05	3.7710	3.7710	2.1523	26.57	0.63	1.500			
0.5433	34771.98	3.7680	3.7680	2.1884	26.55	0.61	1.500			
0.5500	35198.46	3.7650	3.7650	2.2380	26.53	0.59	1.500			
0.5569	35639.60	3.7620	3.7616	2.2495	26.51	0.57	1.500	0.367	0.456	
0.5636	36071.64	3.7590	3.7591	2.2322	26.49	0.55	1.500			
0.5702	36493.61	3.7560	3.7559	2.2038	26.46	0.52	1.500			
0.5767	36909.39	3.7530	3.7531	2.1802	26.45	0.51	1.500			
0.5833	37334.15	3.7500	3.7500	2.1610	26.43	0.49	1.500			
0.5898	37749.90	3.7470	3.7470	2.1326	26.42	0.48	1.500			
0.5961	38150.23	3.7440	3.7438	2.0929	26.40	0.46	1.500			
0.6023	38547.50	3.7410	3.7410	2.0686	26.38	0.44	1.500			
0.6084	38937.85	3.7380	3.7381	2.0700	26.36	0.42	1.500			
0.6147	39338.18	3.7350	3.7349	2.0971	26.34	0.40	1.500			
0.6209	39739.22	3.7320	3.7319	2.1154	26.32	0.38	1.500			
0.6274	40153.80	3.7290	3.7290	2.1567	26.31	0.37	1.500			
0.6338	40564.74	3.7260	3.7260	2.1773	26.29	0.35	1.500			
0.6403	40978.49	3.7230	3.7230	2.1943	26.27	0.33	1.500			
0.6470	41405.80	3.7200	3.7199	2.2621	26.26	0.32	1.500			
0.6539	41847.36	3.7170	3.7171	2.3210	26.24	0.30	1.500			
0.6609	42298.95	3.7140	3.7140	2.4285	26.23	0.29	1.500			
0.6683	42773.42	3.7110	3.7110	2.5297	26.21	0.27	1.500			
0.6761	43267.60	3.7080	3.7080	2.6344	26.19	0.25	1.500			
0.6841	43780.17	3.7050	3.7051	2.7044	26.17	0.23	1.500			
0.6923	44306.82	3.7020	3.7020	2.7714	26.15	0.21	1.500			
0.7007	44847.37	3.6990	3.6991	2.7955	26.13	0.19	1.500			
0.7093	45395.53	3.6960	3.6961	2.7629	26.12	0.18	1.500			
0.7175	45920.18	3.6930	3.6929	2.6557	26.11	0.17	1.500			
0.7254	46425.98	3.6900	3.6900	2.5049	26.10	0.16	1.500			
0.7328	46900.43	3.6870	3.6870	2.3373	26.09	0.15	1.500			
0.7394	47322.45	3.6840	3.6841	2.1148	26.08	0.14	1.500			
0.7452	47695.98	3.6810	3.6810	1.9080	26.07	0.13	1.500			
0.7506	48038.02	3.6780	3.6780	1.7430	26.07	0.13	1.500			
0.7556	48358.52	3.6750	3.6749	1.6403	26.06	0.12	1.500			
0.7603	48657.23	3.6720	3.6720	1.5420	26.05	0.11	1.500			
0.7647	48942.21	3.6690	3.6690	1.4603	26.05	0.11	1.500			
0.7689	49212.07	3.6660	3.6660	1.3928	26.04	0.10	1.500			
0.7730	49471.92	3.6630	3.6631	1.3342	26.04	0.10	1.500			
0.7768	49717.57	3.6600	3.6599	1.2880	26.04	0.10	1.500			
0.7806	49957.30	3.6570	3.6570	1.2548	26.03	0.09	1.500			
0.7842	50189.89	3.6540	3.6541	1.2367	26.03	0.09	1.500			
0.7879	50423.48	3.6510	3.6510	1.2405	26.03	0.09	1.500			
0.7916	50660.66	3.6480	3.6480	1.2463	26.02	0.08	1.500			
0.7953	50901.56	3.6450	3.6450	1.2621	26.02	0.08	1.500			
0.7992	51145.66	3.6420	3.6420	1.2798	26.01	0.07	1.500			
0.8030	51393.42	3.6390	3.6390	1.2949	26.00	0.06	1.500			
0.8069	51644.57	3.6360	3.6360	1.3041	25.99	0.05	1.500			
0.8109	51896.34	3.6330	3.6329	1.3049	25.99	0.05	1.500			
0.8148	52148.10	3.6300	3.6301	1.3060	25.98	0.04	1.500			
0.8188	52400.82	3.6270	3.6270	1.3066	25.97	0.03	1.500			
0.8227	52650.52	3.6240	3.6239	1.3015	25.96	0.02	1.500			
0.8265	52898.45	3.6210	3.6210	1.3019	25.96	0.02	1.500			
0.8304	53147.10	3.6180	3.6180	1.2983	25.95	0.01	1.500			
0.8343	53397.77	3.6150	3.6150	1.2931	25.95	0.01	1.500			
0.8382	53647.37	3.6120	3.6120	1.2906	25.95	0.01	1.500			
0.8421	53894.55	3.6090	3.6091	1.2868	25.94	0.00	1.500			
0.8460	54141.77	3.6060	3.6059	1.2765	25.94	0.00	1.500			
0.8498	54386.02	3.6030	3.6029	1.2613	25.94	-0.00	1.500			
0.8535	54626.21	3.6000	3.6001	1.2504	25.93	-0.01	1.500			
0.8573	54867.27	3.5970	3.5970	1.2366	25.93	-0.01	1.500			
0.8610	55102.32	3.5940	3.5939	1.2193	25.93	-0.01	1.500			
0.8646	55333.91	3.5910	3.5910	1.2053	25.93	-0.01	1.500			
0.8682	55563.50	3.5880	3.5881	1.1925	25.92	-0.02	1.500			
0.8718	55792.27	3.5850	3.5850	1.1872	25.92	-0.02	1.500			
0.8753	56017.27	3.5820	3.5820	1.1880	25.92	-0.02	1.500			
0.8788	56242.20	3.5790	3.5790	1.1845	25.93	-0.01	1.500			
0.8824	56474.85	3.5760	3.5759	1.1749	25.93	-0.01	1.500			
0.8860	56706.61	3.5730	3.5729	1.1432	25.93	-0.01	1.500			
0.8895	56930.72	3.5700	3.5701	1.0656	25.93	-0.01	1.500			
0.8928	57138.08	3.5670	3.5671	0.9475	25.94	-0.00	1.500			
0.8956	57317.60	3.5640	3.5641	0.8192	25.94	-0.00	1.500			
0.8978	57459.03	3.5610	3.5610	0.6800	25.94	0.00	1.500			
0.8995	57569.65	3.5580	3.5580	0.5424	25.94	0.00	1.500			
0.9009	57655.32	3.5550	3.5548	0.4372	25.94	0.00	1.500			
0.9019	57721.36	3.5520	3.5520	0.3596	25.94	0.00	1.500			
0.9028	57778.08	3.5490	3.5489	0.2983	25.95	0.01	1.500			
0.9036	57827.45	3.5460	3.5460	0.2565	25.95	0.01	1.500			
0.9042	57870.15	3.5430	3.5429	0.2181	25.95	0.01	1.500			
0.9048	57907.06	3.5400	3.5401	0.1937	25.95	0.01	1.500			
0.9053	57939.79	3.5370	3.5369	0.1712	25.95	0.01	1.500			
0.9058	57970.12	3.5340	3.5339	0.1518	25.95	0.01	1.500			
0.9062	57997.65	3.5310	3.5310	0.1364	25.95	0.01	1.500			
0.9066	58021.97	3.5280	3.5281	0.1202	25.95	0.01	1.500			
0.9069	58043.93	3.5250	3.5250	0.1057	25.95	0.01	1.500			
0.9072	58062.64	3.5220	3.5220	0.0902	25.95	0.01	1.500			
0.9075	58078.50	3.5190	3.5192	0.0750	25.95	0.01	1.500			
0.9077	58091.59	3.5160	3.5163	0.0592	25.95	0.01	1.500			
0.9078	58101.45	3.5130	3.5136	0.0435	25.95	0.01	1.500			
