Ah_balance (normalized)	Ah_balance (mAh)	Voltage - fit (V)	Voltage -  interpolate (V)	dQ/dV (1/V)	Temperature (°C)	Temperature - diff (°C)	Current (C)	R_DC 0ms (mOhm)	R_DC 50ms (mOhm)	R_DC 50 ms PEC (mOhm)
0.2156	13797.83	3.9130	3.9129	-0.1192	25.98	0.00	-1.500			
0.2160	13823.95	3.9100	3.9099	-0.1479	25.98	0.00	-1.500			
0.2165	13854.35	3.9070	3.9070	-0.1732	25.98	0.00	-1.500			
0.2170	13890.00	3.9040	3.9039	-0.1999	25.98	0.00	-1.500			
0.2177	13931.35	3.9010	3.9010	-0.2246	25.98	0.00	-1.500			
0.2184	13976.87	3.8980	3.8979	-0.2509	25.98	0.00	-1.500			
0.2192	14027.38	3.8950	3.8951	-0.2784	25.98	0.00	-1.500			
0.2201	14083.46	3.8920	3.8920	-0.3049	25.98	0.00	-1.500			
0.2210	14144.74	3.8890	3.8889	-0.3286	25.98	0.00	-1.500			
0.2220	14210.30	3.8860	3.8861	-0.3558	25.98	0.00	-1.500			
0.2231	14280.88	3.8830	3.8830	-0.3825	25.98	0.00	-1.500			
0.2243	14357.18	3.8800	3.8799	-0.4084	25.98	0.00	-1.500			
0.2256	14438.01	3.8770	3.8770	-0.4310	25.98	0.00	-1.500			
0.2269	14523.00	3.8740	3.8741	-0.4557	25.98	0.00	-1.500			
0.2283	14613.97	3.8710	3.8710	-0.4785	25.98	0.00	-1.500			
0.2298	14707.95	3.8680	3.8680	-0.5013	25.98	0.00	-1.500			
0.2313	14805.69	3.8650	3.8650	-0.5200	25.98	0.00	-1.500			
0.2329	14907.98	3.8620	3.8620	-0.5404	25.98	0.00	-1.500			
0.2346	15014.31	3.8590	3.8590	-0.5604	25.98	0.00	-1.500			
0.2363	15124.14	3.8560	3.8560	-0.5764	25.98	0.00	-1.500			
0.2381	15236.67	3.8530	3.8530	-0.5915	25.98	0.00	-1.500			
0.2399	15352.43	3.8500	3.8500	-0.6034	25.98	0.00	-1.500			
0.2417	15469.84	3.8470	3.8469	-0.6118	25.98	0.00	-1.500			
0.2436	15588.06	3.8440	3.8441	-0.6244	25.98	0.00	-1.500			
0.2454	15708.52	3.8410	3.8410	-0.6339	25.98	0.00	-1.500			
0.2474	15831.59	3.8380	3.8380	-0.6425	25.98	0.00	-1.500			
0.2493	15956.51	3.8350	3.8350	-0.6494	25.98	0.00	-1.500			
0.2513	16080.94	3.8320	3.8321	-0.6607	25.98	0.00	-1.500			
0.2533	16210.51	3.8290	3.8290	-0.6641	25.98	0.00	-1.500			
0.2553	16339.38	3.8260	3.8259	-0.6689	25.98	0.00	-1.500			
0.2573	16467.56	3.8230	3.8230	-0.6682	25.98	0.00	-1.500			
0.2593	16595.93	3.8200	3.8201	-0.6714	25.98	0.00	-1.500			
0.2613	16725.09	3.8170	3.8169	-0.6728	25.98	0.00	-1.500			
0.2634	16854.65	3.8140	3.8140	-0.6719	25.98	0.00	-1.500			
0.2653	16982.27	3.8110	3.8110	-0.6698	25.99	0.01	-1.500			
0.2674	17112.37	3.8080	3.8080	-0.6759	25.99	0.01	-1.500			
0.2694	17241.41	3.8050	3.8050	-0.6763	25.99	0.01	-1.500			
0.2714	17371.75	3.8020	3.8019	-0.6784	25.99	0.01	-1.500			
0.2735	17501.29	3.7990	3.7990	-0.6793	25.99	0.01	-1.500			
0.2755	17632.89	3.7960	3.7960	-0.6821	25.99	0.01	-1.500			
0.2776	17764.32	3.7930	3.7930	-0.6883	26.00	0.02	-1.500			
0.2797	17897.74	3.7900	3.7899	-0.6847	26.00	0.02	-1.500			
0.2817	18029.29	3.7870	3.7870	-0.6823	26.00	0.02	-1.500			
0.2838	18160.04	3.7840	3.7841	-0.6828	26.00	0.02	-1.500			
0.2858	18290.89	3.7810	3.7810	-0.6824	26.00	0.02	-1.500			
0.2878	18420.85	3.7780	3.7779	-0.6846	26.01	0.03	-1.500			
0.2899	18551.38	3.7750	3.7750	-0.6866	26.01	0.03	-1.500			
0.2919	18683.63	3.7720	3.7720	-0.6891	26.02	0.04	-1.500			
0.2940	18818.00	3.7690	3.7691	-0.6932	26.02	0.04	-1.500			
0.2961	18951.83	3.7660	3.7660	-0.6936	26.03	0.05	-1.500			
0.2982	19084.01	3.7630	3.7630	-0.6950	26.03	0.05	-1.500			
0.3003	19217.43	3.7600	3.7600	-0.6968	26.03	0.05	-1.500			
0.3024	19351.13	3.7570	3.7570	-0.6977	26.04	0.06	-1.500			
0.3045	19485.97	3.7540	3.7539	-0.6997	26.04	0.06	-1.500			
0.3066	19620.95	3.7510	3.7511	-0.7006	26.05	0.07	-1.500			
0.3087	19756.08	3.7480	3.7480	-0.7016	26.05	0.07	-1.500			
0.3108	19889.73	3.7450	3.7450	-0.7025	26.06	0.08	-1.500			
0.3129	20024.68	3.7420	3.7420	-0.6985	26.06	0.08	-1.500			
0.3150	20158.31	3.7390	3.7391	-0.7029	26.07	0.09	-1.500			
0.3171	20293.06	3.7360	3.7359	-0.7081	26.07	0.09	-1.500			
0.3192	20429.42	3.7330	3.7330	-0.7124	26.08	0.10	-1.500			
0.3213	20565.69	3.7300	3.7299	-0.7187	26.09	0.11	-1.500			
0.3235	20703.85	3.7270	3.7271	-0.7277	26.09	0.11	-1.500			
0.3257	20845.44	3.7240	3.7241	-0.7331	26.10	0.12	-1.500			
0.3279	20988.12	3.7210	3.7210	-0.7420	26.10	0.12	-1.500			
0.3302	21129.85	3.7180	3.7180	-0.7448	26.11	0.13	-1.500			
0.3324	21273.49	3.7150	3.7150	-0.7540	26.12	0.14	-1.500			
0.3347	21419.36	3.7120	3.7120	-0.7596	26.12	0.14	-1.500			
0.3369	21564.77	3.7090	3.7090	-0.7651	26.13	0.15	-1.500			
0.3392	21711.83	3.7060	3.7060	-0.7736	26.13	0.15	-1.500			
0.3416	21861.81	3.7030	3.7030	-0.7801	26.14	0.16	-1.500			
0.3439	22011.78	3.7000	3.6999	-0.7912	26.14	0.16	-1.500			
0.3463	22164.14	3.6970	3.6971	-0.7997	26.15	0.17	-1.500			
0.3487	22318.51	3.6940	3.6940	-0.8104	26.15	0.17	-1.500			
0.3512	22476.37	3.6910	3.6910	-0.8257	26.16	0.18	-1.500			
0.3537	22636.78	3.6880	3.6880	-0.8323	26.16	0.18	-1.500			
0.3562	22797.34	3.6850	3.6850	-0.8411	26.17	0.19	-1.500			
0.3587	22959.78	3.6820	3.6821	-0.8529	26.17	0.19	-1.500			
0.3613	23122.91	3.6790	3.6790	-0.8607	26.17	0.19	-1.500			
0.3639	23289.16	3.6760	3.6759	-0.8743	26.18	0.20	-1.500			
0.3665	23455.65	3.6730	3.6731	-0.8891	26.18	0.20	-1.500			
0.3692	23629.02	3.6700	3.6700	-0.9059	26.18	0.20	-1.500			
0.3719	23804.67	3.6670	3.6670	-0.9225	26.19	0.21	-1.500			
0.3747	23983.86	3.6640	3.6640	-0.9353	26.19	0.21	-1.500			
0.3776	24164.43	3.6610	3.6610	-0.9503	26.19	0.21	-1.500			
0.3805	24349.19	3.6580	3.6580	-0.9658	26.20	0.22	-1.500			
0.3834	24535.98	3.6550	3.6549	-0.9799	26.20	0.22	-1.500			
0.3863	24723.60	3.6520	3.6520	-0.9956	26.20	0.22	-1.500			
0.3893	24918.39	3.6490	3.6490	-1.0122	26.20	0.22	-1.500			
0.3924	25112.27	3.6460	3.6460	-1.0314	26.21	0.23	-1.500			
0.3955	25312.39	3.6430	3.6430	-1.0519	26.21	0.23	-1.500			
0.3987	25514.94	3.6400	3.6400	-1.0752	26.21	0.23	-1.500			
0.4020	25725.59	3.6370	3.6369	-1.0921	26.21	0.23	-1.500			
0.4053	25938.56	3.6340	3.6340	-1.1096	26.22	0.24	-1.500			
0.4086	26152.99	3.6310	3.6312	-1.1278	26.22	0.24	-1.500			
0.4121	26372.91	3.6280	3.6280	-1.1481	26.22	0.24	-1.500			
0.4155	26592.42	3.6250	3.6249	-1.1607	26.23	0.25	-1.500			
0.4190	26813.73	3.6220	3.6221	-1.1797	26.23	0.25	-1.500			
0.4225	27041.90	3.6190	3.6190	-1.2039	26.23	0.25	-1.500			
0.4262	27275.82	3.6160	3.6159	-1.2294	26.23	0.25	-1.500			
0.4299	27514.59	3.6130	3.6130	-1.2454	26.24	0.26	-1.500			
0.4337	27755.05	3.6100	3.6099	-1.2649	26.24	0.26	-1.500			
0.4375	28001.02	3.6070	3.6071	-1.2893	26.24	0.26	-1.500			
0.4414	28251.05	3.6040	3.6039	-1.3110	26.24	0.26	-1.500			
0.4454	28502.81	3.6010	3.6010	-1.3302	26.24	0.26	-1.500			
0.4494	28761.29	3.5980	3.5980	-1.3544	26.25	0.27	-1.500			
0.4535	29024.25	3.5950	3.5950	-1.3704	26.25	0.27	-1.500			
0.4577	29290.10	3.5920	3.5920	-1.3898	26.25	0.27	-1.500			
0.4618	29557.04	3.5890	3.5890	-1.4074	26.25	0.27	-1.500			
0.4661	29828.45	3.5860	3.5859	-1.4258	26.25	0.27	-1.500			
0.4704	30104.24	3.5830	3.5830	-1.4393	26.25	0.27	-1.500			
0.4747	30381.38	3.5800	3.5800	-1.4580	26.26	0.28	-1.500			
0.4791	30664.44	3.5770	3.5770	-1.4763	26.26	0.28	-1.500			
0.4836	30950.25	3.5740	3.5740	-1.4954	26.26	0.28	-1.500			
0.4881	31236.16	3.5710	3.5710	-1.5136	26.26	0.28	-1.500			
0.4926	31527.77	3.5680	3.5680	-1.5395	26.26	0.28	-1.500			
0.4973	31826.52	3.5650	3.5650	-1.5587	26.27	0.29	-1.500			
0.5020	32129.50	3.5620	3.5620	-1.5770	26.27	0.29	-1.500			
0.5068	32435.12	3.5590	3.5590	-1.5908	26.27	0.29	-1.500			
0.5116	32743.29	3.5560	3.5559	-1.6070	26.27	0.29	-1.500			
0.5164	33051.67	3.5530	3.5530	-1.6224	26.27	0.29	-1.500			
0.5213	33364.43	3.5500	3.5500	-1.6343	26.28	0.30	-1.500			
0.5262	33678.45	3.5470	3.5470	-1.6506	26.28	0.30	-1.500			
0.5312	33999.03	3.5440	3.5439	-1.6607	26.28	0.30	-1.500			
0.5362	34318.70	3.5410	3.5410	-1.6808	26.28	0.30	-1.500			
0.5413	34642.38	3.5380	3.5380	-1.6957	26.29	0.31	-1.500			
0.5464	34970.42	3.5350	3.5349	-1.6983	26.29	0.31	-1.500			
0.5515	35297.86	3.5320	3.5319	-1.7055	26.29	0.31	-1.500	0.374	0.518	
0.5567	35628.10	3.5290	3.5290	-1.7144	26.30	0.32	-1.500			
0.5618	35957.47	3.5260	3.5259	-1.7187	26.31	0.33	-1.500			
0.5670	36288.99	3.5230	3.5230	-1.7224	26.31	0.33	-1.500			
0.5722	36618.66	3.5200	3.5201	-1.7360	26.32	0.34	-1.500			
0.5774	36955.07	3.5170	3.5169	-1.7483	26.33	0.35	-1.500			
0.5827	37295.14	3.5140	3.5139	-1.7488	26.34	0.36	-1.500			
0.5880	37629.84	3.5110	3.5110	-1.7497	26.35	0.37	-1.500			
0.5932	37966.99	3.5080	3.5080	-1.7590	26.36	0.38	-1.500			
0.5985	38303.18	3.5050	3.5050	-1.7555	26.36	0.38	-1.500			
0.6038	38640.85	3.5020	3.5020	-1.7577	26.37	0.39	-1.500			
0.6091	38979.62	3.4990	3.4990	-1.7520	26.38	0.40	-1.500			
0.6143	39314.00	3.4960	3.4960	-1.7606	26.39	0.41	-1.500			
0.6196	39653.65	3.4930	3.4930	-1.7595	26.40	0.42	-1.500			
0.6248	39989.09	3.4900	3.4899	-1.7558	26.41	0.43	-1.500			
0.6301	40326.96	3.4870	3.4870	-1.7551	26.41	0.43	-1.500			
0.6354	40665.14	3.4840	3.4841	-1.7542	26.42	0.44	-1.500			
0.6407	41002.93	3.4810	3.4810	-1.7460	26.44	0.46	-1.500			
0.6459	41339.50	3.4780	3.4780	-1.7253	26.45	0.47	-1.500			
0.6511	41668.83	3.4750	3.4750	-1.7047	26.46	0.48	-1.500			
0.6562	41997.66	3.4720	3.4720	-1.6804	26.47	0.49	-1.500			
0.6612	42317.32	3.4690	3.4690	-1.6487	26.49	0.51	-1.500			
0.6660	42626.76	3.4660	3.4660	-1.6335	26.50	0.52	-1.500			
0.6709	42936.46	3.4630	3.4629	-1.6084	26.52	0.54	-1.500			
0.6757	43243.53	3.4600	3.4600	-1.5918	26.53	0.55	-1.500			
0.6805	43550.59	3.4570	3.4570	-1.5799	26.55	0.57	-1.500			
0.6852	43853.81	3.4540	3.4541	-1.5620	26.57	0.59	-1.500			
0.6899	44154.30	3.4510	3.4509	-1.5429	26.58	0.60	-1.500			
0.6945	44447.59	3.4480	3.4480	-1.5187	26.60	0.62	-1.500			
0.6990	44733.07	3.4450	3.4450	-1.4906	26.62	0.64	-1.500			
0.7035	45020.81	3.4420	3.4420	-1.4731	26.63	0.65	-1.500			
0.7078	45300.00	3.4390	3.4390	-1.4540	26.65	0.67	-1.500			
0.7121	45576.44	3.4360	3.4360	-1.4362	26.66	0.68	-1.500			
0.7164	45850.00	3.4330	3.4329	-1.4222	26.68	0.70	-1.500			
0.7207	46122.34	3.4300	3.4300	-1.4097	26.69	0.71	-1.500			
0.7249	46390.92	3.4270	3.4270	-1.3991	26.71	0.73	-1.500			
0.7291	46660.82	3.4240	3.4240	-1.3893	26.72	0.74	-1.500			
0.7333	46928.22	3.4210	3.4212	-1.3722	26.74	0.76	-1.500			
0.7373	47188.11	3.4180	3.4179	-1.3549	26.76	0.78	-1.500			
0.7414	47448.81	3.4150	3.4149	-1.3334	26.78	0.80	-1.500			
0.7453	47701.83	3.4120	3.4120	-1.3139	26.81	0.83	-1.500			
0.7493	47953.49	3.4090	3.4090	-1.2861	26.83	0.85	-1.500			
0.7531	48199.64	3.4060	3.4059	-1.2606	26.84	0.86	-1.500			
0.7569	48440.45	3.4030	3.4030	-1.2262	26.86	0.88	-1.500			
0.7605	48674.37	3.4000	3.4000	-1.1908	26.87	0.89	-1.500			
0.7640	48898.55	3.3970	3.3970	-1.1531	26.89	0.91	-1.500			
0.7675	49118.11	3.3940	3.3939	-1.1172	26.91	0.93	-1.500			
0.7707	49325.95	3.3910	3.3910	-1.0734	26.93	0.95	-1.500			
0.7739	49530.23	3.3880	3.3880	-1.0343	26.94	0.96	-1.500			
0.7770	49725.06	3.3850	3.3852	-0.9921	26.96	0.98	-1.500			
0.7799	49911.92	3.3820	3.3819	-0.9561	26.97	0.99	-1.500			
0.7827	50089.87	3.3790	3.3791	-0.9216	26.98	1.00	-1.500			
0.7853	50262.37	3.3760	3.3760	-0.8861	26.99	1.01	-1.500			
0.7880	50429.71	3.3730	3.3730	-0.8587	27.00	1.02	-1.500			
0.7905	50591.32	3.3700	3.3701	-0.8255	27.02	1.04	-1.500			
0.7929	50747.19	3.3670	3.3670	-0.8013	27.03	1.05	-1.500			
0.7953	50897.81	3.3640	3.3640	-0.7698	27.05	1.07	-1.500			
0.7975	51042.02	3.3610	3.3610	-0.7411	27.06	1.08	-1.500			
0.7997	51181.83	3.3580	3.3580	-0.7155	27.07	1.09	-1.500			
0.8018	51316.98	3.3550	3.3550	-0.6950	27.08	1.10	-1.500			
0.8039	51447.62	3.3520	3.3520	-0.6699	27.09	1.11	-1.500			
0.8059	51574.43	3.3490	3.3489	-0.6455	27.10	1.12	-1.500			
0.8077	51694.47	3.3460	3.3461	-0.6241	27.11	1.13	-1.500			
0.8096	51811.62	3.3430	3.3431	-0.6037	27.11	1.13	-1.500			
0.8114	51926.73	3.3400	3.3399	-0.5893	27.12	1.14	-1.500			
0.8131	52036.91	3.3370	3.3370	-0.5709	27.13	1.15	-1.500			
0.8148	52144.34	3.3340	3.3340	-0.5557	27.14	1.16	-1.500			
0.8164	52250.80	3.3310	3.3311	-0.5416	27.15	1.17	-1.500			
0.8180	52354.49	3.3280	3.3279	-0.5262	27.15	1.17	-1.500			
0.8196	52453.24	3.3250	3.3250	-0.5086	27.16	1.18	-1.500			
0.8211	52548.67	3.3220	3.3220	-0.4950	27.17	1.19	-1.500			
0.8225	52641.95	3.3190	3.3190	-0.4808	27.17	1.19	-1.500			
0.8239	52732.34	3.3160	3.3159	-0.4684	27.18	1.20	-1.500			
0.8253	52821.07	3.3130	3.3130	-0.4570	27.19	1.21	-1.500			
0.8267	52908.81	3.3100	3.3100	-0.4451	27.19	1.21	-1.500			
0.8280	52992.78	3.3070	3.3070	-0.4334	27.20	1.22	-1.500			
0.8293	53074.91	3.3040	3.3040	-0.4196	27.20	1.22	-1.500			
0.8305	53153.96	3.3010	3.3010	-0.4070	27.21	1.23	-1.500			
0.8317	53230.50	3.2980	3.2980	-0.3960	27.21	1.23	-1.500			
0.8329	53304.91	3.2950	3.2949	-0.3862	27.22	1.24	-1.500			
0.8340	53378.04	3.2920	3.2920	-0.3769	27.22	1.24	-1.500			
0.8352	53449.64	3.2890	3.2889	-0.3681	27.23	1.25	-1.500			
0.8362	53519.30	3.2860	3.2860	-0.3586	27.24	1.26	-1.500			
0.8373	53587.53	3.2830	3.2830	-0.3508	27.24	1.26	-1.500			
0.8383	53654.24	3.2800	3.2800	-0.3422	27.25	1.27	-1.500			
0.8394	53718.62	3.2770	3.2770	-0.3338	27.26	1.28	-1.500			
0.8403	53782.05	3.2740	3.2740	-0.3266	27.26	1.28	-1.500			
0.8413	53844.37	3.2710	3.2710	-0.3185	27.27	1.29	-1.500			
0.8423	53904.45	3.2680	3.2680	-0.3114	27.27	1.29	-1.500			
0.8432	53963.32	3.2650	3.2651	-0.3049	27.28	1.30	-1.500			
0.8441	54020.94	3.2620	3.2619	-0.2988	27.28	1.30	-1.500			
0.8450	54077.78	3.2590	3.2589	-0.2924	27.29	1.31	-1.500			
0.8458	54133.17	3.2560	3.2560	-0.2861	27.30	1.32	-1.500			
0.8467	54187.75	3.2530	3.2530	-0.2817	27.30	1.32	-1.500			
0.8475	54241.55	3.2500	3.2500	-0.2761	27.31	1.33	-1.500			
0.8483	54293.47	3.2470	3.2470	-0.2687	27.31	1.33	-1.500			
0.8491	54344.72	3.2440	3.2440	-0.2629	27.32	1.34	-1.500			
0.8499	54394.50	3.2410	3.2411	-0.2577	27.32	1.34	-1.500			
0.8507	54443.46	3.2380	3.2380	-0.2540	27.33	1.35	-1.500			
0.8514	54491.56	3.2350	3.2349	-0.2479	27.33	1.35	-1.500			
0.8522	54538.10	3.2320	3.2319	-0.2438	27.33	1.35	-1.500			
0.8529	54584.88	3.2290	3.2290	-0.2405	27.34	1.36	-1.500			
0.8536	54630.79	3.2260	3.2261	-0.2374	27.34	1.36	-1.500			
0.8543	54676.01	3.2230	3.2229	-0.2337	27.35	1.37	-1.500			
0.8550	54720.61	3.2200	3.2201	-0.2299	27.35	1.37	-1.500			
0.8557	54763.90	3.2170	3.2170	-0.2273	27.35	1.37	-1.500			
0.8564	54807.32	3.2140	3.2140	-0.2236	27.36	1.38	-1.500			
0.8570	54850.18	3.2110	3.2110	-0.2216	27.36	1.38	-1.500			
0.8577	54891.98	3.2080	3.2079	-0.2181	27.37	1.39	-1.500			
0.8583	54933.91	3.2050	3.2051	-0.2157	27.37	1.39	-1.500			
0.8590	54975.07	3.2020	3.2018	-0.2127	27.37	1.39	-1.500			
0.8596	55015.56	3.1990	3.1990	-0.2098	27.38	1.40	-1.500			
0.8602	55055.64	3.1960	3.1960	-0.2070	27.39	1.41	-1.500			
0.8609	55094.72	3.1930	3.1930	-0.2040	27.39	1.41	-1.500			
0.8615	55134.13	3.1900	3.1900	-0.2019	27.40	1.42	-1.500			
0.8621	55172.24	3.1870	3.1869	-0.1984	27.40	1.42	-1.500			
0.8627	55210.11	3.1840	3.1841	-0.1961	27.41	1.43	-1.500			
0.8632	55247.64	3.1810	3.1810	-0.1937	27.41	1.43	-1.500			
0.8638	55284.33	3.1780	3.1780	-0.1919	27.42	1.44	-1.500			
0.8644	55320.96	3.1750	3.1749	-0.1895	27.42	1.44	-1.500			
0.8650	55357.17	3.1720	3.1721	-0.1877	27.43	1.45	-1.500			
0.8655	55392.87	3.1690	3.1690	-0.1863	27.43	1.45	-1.500			
0.8661	55428.87	3.1660	3.1661	-0.1844	27.44	1.46	-1.500			
0.8666	55463.78	3.1630	3.1630	-0.1828	27.44	1.46	-1.500			
0.8672	55498.72	3.1600	3.1599	-0.1812	27.45	1.47	-1.500			
0.8677	55533.51	3.1570	3.1571	-0.1791	27.45	1.47	-1.500			
0.8682	55567.36	3.1540	3.1539	-0.1773	27.46	1.48	-1.500			
0.8688	55601.40	3.1510	3.1509	-0.1762	27.46	1.48	-1.500			
0.8693	55635.10	3.1480	3.1481	-0.1747	27.47	1.49	-1.500			
0.8698	55668.55	3.1450	3.1449	-0.1721	27.48	1.50	-1.500			
0.8703	55701.46	3.1420	3.1420	-0.1715	27.48	1.50	-1.500			
0.8708	55734.21	3.1390	3.1391	-0.1696	27.49	1.51	-1.500			
0.8713	55766.34	3.1360	3.1359	-0.1672	27.49	1.51	-1.500			
0.8718	55798.33	3.1330	3.1329	-0.1666	27.50	1.52	-1.500			
0.8723	55829.91	3.1300	3.1301	-0.1647	27.50	1.52	-1.500			
0.8728	55861.45	3.1270	3.1271	-0.1639	27.51	1.53	-1.500			
0.8733	55892.96	3.1240	3.1239	-0.1624	27.51	1.53	-1.500			
0.8738	55924.23	3.1210	3.1211	-0.1616	27.52	1.54	-1.500			
0.8743	55954.97	3.1180	3.1181	-0.1595	27.52	1.54	-1.500			
0.8748	55985.46	3.1150	3.1150	-0.1581	27.53	1.55	-1.500			
0.8752	56015.86	3.1120	3.1119	-0.1576	27.53	1.55	-1.500			
0.8757	56045.57	3.1090	3.1091	-0.1563	27.54	1.56	-1.500			
0.8762	56075.77	3.1060	3.1059	-0.1552	27.54	1.56	-1.500			
0.8766	56105.47	3.1030	3.1030	-0.1541	27.55	1.57	-1.500			
0.8771	56135.03	3.1000	3.1000	-0.1534	27.55	1.57	-1.500			
0.8776	56164.14	3.0970	3.0971	-0.1527	27.56	1.58	-1.500			
0.8780	56193.48	3.0940	3.0940	-0.1522	27.56	1.58	-1.500			
0.8785	56222.66	3.0910	3.0909	-0.1513	27.57	1.59	-1.500			
0.8789	56251.59	3.0880	3.0880	-0.1496	27.57	1.59	-1.500			
0.8794	56280.42	3.0850	3.0851	-0.1483	27.58	1.60	-1.500			
0.8798	56308.75	3.0820	3.0821	-0.1469	27.59	1.61	-1.500			
0.8803	56337.16	3.0790	3.0790	-0.1458	27.59	1.61	-1.500			
0.8807	56364.52	3.0760	3.0760	-0.1451	27.60	1.62	-1.500			
0.8811	56392.17	3.0730	3.0729	-0.1434	27.60	1.62	-1.500			
0.8816	56419.66	3.0700	3.0700	-0.1430	27.61	1.63	-1.500			
0.8820	56447.11	3.0670	3.0670	-0.1421	27.61	1.63	-1.500			
0.8824	56474.60	3.0640	3.0642	-0.1414	27.62	1.64	-1.500			
0.8828	56501.85	3.0610	3.0610	-0.1404	27.62	1.64	-1.500			
0.8833	56528.52	3.0580	3.0579	-0.1399	27.63	1.65	-1.500			
0.8837	56555.23	3.0550	3.0550	-0.1385	27.63	1.65	-1.500			
0.8841	56581.45	3.0520	3.0520	-0.1372	27.64	1.66	-1.500			
0.8845	56608.02	3.0490	3.0490	-0.1370	27.64	1.66	-1.500			
0.8849	56634.12	3.0460	3.0461	-0.1368	27.65	1.67	-1.500			
0.8853	56660.35	3.0430	3.0429	-0.1357	27.66	1.68	-1.500			
0.8857	56686.40	3.0400	3.0400	-0.1349	27.66	1.68	-1.500			
0.8861	56712.22	3.0370	3.0370	-0.1340	27.67	1.69	-1.500			
0.8865	56737.72	3.0340	3.0340	-0.1331	27.67	1.69	-1.500			
0.8869	56763.40	3.0310	3.0310	-0.1328	27.68	1.70	-1.500			
0.8873	56788.80	3.0280	3.0279	-0.1316	27.68	1.70	-1.500			
0.8877	56813.98	3.0250	3.0250	-0.1306	27.69	1.71	-1.500			
0.8881	56838.83	3.0220	3.0220	-0.1297	27.69	1.71	-1.500			
0.8885	56863.64	3.0190	3.0190	-0.1296	27.70	1.72	-1.500			
0.8889	56888.36	3.0160	3.0159	-0.1289	27.71	1.73	-1.500			
0.8893	56913.12	3.0130	3.0131	-0.1284	27.71	1.73	-1.500			
0.8897	56937.60	3.0100	3.0099	-0.1280	27.72	1.74	-1.500			
0.8900	56962.02	3.0070	3.0070	-0.1280	27.72	1.74	-1.500			
0.8904	56986.78	3.0040	3.0040	-0.1273	27.73	1.75	-1.500			
0.8908	57011.15	3.0010	3.0010	-0.1265	27.73	1.75	-1.501			
