Ah_balance (normalized)	Ah_balance (mAh)	Voltage - fit (V)	Voltage -  interpolate (V)	dQ/dV (1/V)	Temperature (°C)	Temperature - diff (°C)	Current (C)	R_DC 0ms (mOhm)	R_DC 50ms (mOhm)	R_DC 50 ms PEC (mOhm)
0.2744	17560.57	3.9910	3.9910	0.8257	27.14	1.16	1.500			
0.2769	17719.58	3.9880	3.9880	0.8326	27.13	1.15	1.500			
0.2794	17880.07	3.9850	3.9850	0.8412	27.13	1.15	1.500			
0.2819	18043.28	3.9820	3.9820	0.8461	27.12	1.14	1.500			
0.2845	18206.98	3.9790	3.9790	0.8489	27.12	1.14	1.500			
0.2870	18369.90	3.9760	3.9760	0.8524	27.11	1.13	1.500			
0.2896	18534.27	3.9730	3.9729	0.8537	27.11	1.13	1.500			
0.2922	18698.34	3.9700	3.9700	0.8574	27.10	1.12	1.500			
0.2947	18862.37	3.9670	3.9670	0.8602	27.10	1.12	1.500			
0.2973	19027.77	3.9640	3.9640	0.8668	27.09	1.11	1.500			
0.2999	19196.19	3.9610	3.9610	0.8722	27.09	1.11	1.500			
0.3026	19364.00	3.9580	3.9579	0.8756	27.08	1.10	1.500			
0.3052	19532.08	3.9550	3.9551	0.8765	27.08	1.10	1.500			
0.3078	19701.16	3.9520	3.9520	0.8802	27.07	1.09	1.500			
0.3105	19869.41	3.9490	3.9490	0.8825	27.06	1.08	1.500			
0.3131	20039.34	3.9460	3.9460	0.8837	27.06	1.08	1.500			
0.3158	20208.50	3.9430	3.9430	0.8886	27.05	1.07	1.500			
0.3184	20380.64	3.9400	3.9400	0.8943	27.05	1.07	1.500			
0.3211	20551.79	3.9370	3.9370	0.9017	27.04	1.06	1.500			
0.3239	20726.51	3.9340	3.9339	0.9069	27.03	1.05	1.500			
0.3266	20900.83	3.9310	3.9310	0.9131	27.03	1.05	1.500			
0.3293	21076.98	3.9280	3.9280	0.9155	27.02	1.04	1.500			
0.3321	21253.91	3.9250	3.9250	0.9189	27.01	1.03	1.500			
0.3348	21430.35	3.9220	3.9220	0.9200	27.01	1.03	1.500			
0.3376	21606.06	3.9190	3.9190	0.9299	27.00	1.02	1.500			
0.3404	21784.30	3.9160	3.9160	0.9335	26.99	1.01	1.500			
0.3432	21964.60	3.9130	3.9129	0.9459	26.99	1.01	1.500			
0.3460	22145.84	3.9100	3.9100	0.9586	26.98	1.00	1.500			
0.3489	22332.33	3.9070	3.9070	0.9726	26.97	0.99	1.500			
0.3519	22521.24	3.9040	3.9040	0.9789	26.97	0.99	1.500			
0.3549	22711.32	3.9010	3.9010	0.9841	26.96	0.98	1.500			
0.3578	22900.64	3.8980	3.8981	0.9847	26.95	0.97	1.500			
0.3608	23091.06	3.8950	3.8951	0.9920	26.94	0.96	1.500			
0.3637	23279.72	3.8920	3.8920	0.9960	26.93	0.95	1.500			
0.3667	23470.53	3.8890	3.8890	0.9997	26.92	0.94	1.500			
0.3697	23662.73	3.8860	3.8860	1.0056	26.92	0.94	1.500			
0.3727	23855.10	3.8830	3.8831	1.0203	26.91	0.93	1.500			
0.3758	24051.98	3.8800	3.8800	1.0362	26.90	0.92	1.500			
0.3790	24252.90	3.8770	3.8769	1.0477	26.89	0.91	1.500			
0.3821	24454.34	3.8740	3.8740	1.0601	26.88	0.90	1.500			
0.3853	24660.67	3.8710	3.8711	1.0724	26.87	0.89	1.500			
0.3886	24870.50	3.8680	3.8680	1.0828	26.86	0.88	1.500			
0.3919	25078.94	3.8650	3.8650	1.0886	26.85	0.87	1.500			
0.3951	25287.20	3.8620	3.8620	1.0977	26.84	0.86	1.500			
0.3984	25496.23	3.8590	3.8590	1.1117	26.84	0.86	1.500			
0.4017	25710.91	3.8560	3.8561	1.1305	26.83	0.85	1.500			
0.4051	25928.35	3.8530	3.8530	1.1474	26.82	0.84	1.500			
0.4086	26150.76	3.8500	3.8500	1.1702	26.81	0.83	1.500			
0.4122	26378.62	3.8470	3.8470	1.1910	26.80	0.82	1.500			
0.4158	26609.97	3.8440	3.8439	1.2060	26.79	0.81	1.500			
0.4194	26844.37	3.8410	3.8411	1.2208	26.78	0.80	1.500			
0.4231	27079.72	3.8380	3.8381	1.2358	26.77	0.79	1.500			
0.4268	27316.75	3.8350	3.8350	1.2562	26.76	0.78	1.500			
0.4306	27559.27	3.8320	3.8320	1.2784	26.74	0.76	1.500			
0.4344	27804.63	3.8290	3.8289	1.2989	26.73	0.75	1.500			
0.4384	28057.81	3.8260	3.8260	1.3226	26.72	0.74	1.500			
0.4424	28314.88	3.8230	3.8230	1.3552	26.70	0.72	1.500			
0.4465	28577.09	3.8200	3.8200	1.3813	26.69	0.71	1.500			
0.4507	28845.50	3.8170	3.8170	1.4049	26.67	0.69	1.500			
0.4549	29115.64	3.8140	3.8140	1.4291	26.66	0.68	1.500			
0.4593	29393.96	3.8110	3.8111	1.4553	26.64	0.66	1.500			
0.4637	29677.22	3.8080	3.8079	1.4760	26.63	0.65	1.500			
0.4682	29962.40	3.8050	3.8050	1.5009	26.61	0.63	1.500			
0.4727	30250.71	3.8020	3.8020	1.5281	26.60	0.62	1.500			
0.4773	30546.80	3.7990	3.7990	1.5628	26.59	0.61	1.500			
0.4820	30849.85	3.7960	3.7960	1.5896	26.57	0.59	1.500			
0.4869	31164.00	3.7930	3.7930	1.6120	26.56	0.58	1.500			
0.4918	31475.04	3.7900	3.7900	1.6281	26.55	0.57	1.500			
0.4966	31785.04	3.7870	3.7871	1.6571	26.54	0.56	1.500			
0.5016	32104.07	3.7840	3.7841	1.6959	26.53	0.55	1.500			
0.5068	32432.16	3.7810	3.7809	1.7170	26.51	0.53	1.500			
0.5120	32770.65	3.7780	3.7781	1.7329	26.50	0.52	1.500	0.343	0.473	
0.5174	33114.45	3.7750	3.7750	1.7628	26.48	0.50	1.500			
0.5225	33442.44	3.7720	3.7720	1.7374	26.47	0.49	1.500			
0.5277	33771.35	3.7690	3.7689	1.7373	26.45	0.47	1.500			
0.5329	34106.13	3.7660	3.7659	1.7479	26.44	0.46	1.500			
0.5382	34445.18	3.7630	3.7630	1.7422	26.43	0.45	1.500			
0.5434	34777.86	3.7600	3.7601	1.7500	26.42	0.44	1.500			
0.5487	35113.84	3.7570	3.7570	1.7596	26.40	0.42	1.500			
0.5539	35450.59	3.7540	3.7539	1.7640	26.39	0.41	1.500			
0.5592	35790.12	3.7510	3.7511	1.7824	26.38	0.40	1.500			
0.5646	36135.76	3.7480	3.7480	1.8022	26.37	0.39	1.500			
0.5700	36483.17	3.7450	3.7450	1.8231	26.36	0.38	1.500			
0.5755	36833.18	3.7420	3.7420	1.8425	26.35	0.37	1.500			
0.5811	37191.92	3.7390	3.7390	1.8913	26.33	0.35	1.500			
0.5869	37560.24	3.7360	3.7360	1.9236	26.32	0.34	1.500			
0.5927	37930.42	3.7330	3.7330	1.9846	26.31	0.33	1.500			
0.5987	38315.47	3.7300	3.7300	2.0300	26.29	0.31	1.500			
0.6049	38712.33	3.7270	3.7269	2.0904	26.28	0.30	1.500			
0.6112	39119.49	3.7240	3.7240	2.1390	26.27	0.29	1.500			
0.6178	39537.52	3.7210	3.7210	2.1855	26.26	0.28	1.500			
0.6243	39954.42	3.7180	3.7180	2.2611	26.25	0.27	1.500			
0.6312	40399.11	3.7150	3.7150	2.3393	26.24	0.26	1.500			
0.6384	40860.27	3.7120	3.7120	2.3744	26.22	0.24	1.500			
0.6456	41320.12	3.7090	3.7090	2.3857	26.21	0.23	1.500			
0.6528	41777.86	3.7060	3.7058	2.3434	26.20	0.22	1.500			
0.6598	42224.89	3.7030	3.7031	2.2764	26.19	0.21	1.500			
0.6666	42662.82	3.7000	3.7000	2.1654	26.18	0.20	1.500			
0.6730	43072.63	3.6970	3.6970	2.0286	26.17	0.19	1.500			
0.6787	43438.41	3.6940	3.6938	1.8737	26.16	0.18	1.500			
0.6841	43783.00	3.6910	3.6911	1.7452	26.15	0.17	1.500			
0.6891	44102.91	3.6880	3.6880	1.6361	26.15	0.17	1.500			
0.6938	44404.89	3.6850	3.6850	1.5506	26.14	0.16	1.500			
0.6983	44688.19	3.6820	3.6820	1.4668	26.14	0.16	1.500			
0.7025	44962.59	3.6790	3.6790	1.4106	26.13	0.15	1.500			
0.7067	45225.81	3.6760	3.6760	1.3677	26.12	0.14	1.500			
0.7107	45481.99	3.6730	3.6729	1.3247	26.12	0.14	1.500			
0.7145	45730.04	3.6700	3.6700	1.2972	26.11	0.13	1.500			
0.7184	45975.06	3.6670	3.6671	1.2768	26.10	0.12	1.500			
0.7221	46214.41	3.6640	3.6640	1.2719	26.09	0.11	1.500			
0.7259	46456.82	3.6610	3.6609	1.2747	26.09	0.11	1.500			
0.7297	46699.55	3.6580	3.6580	1.2745	26.08	0.10	1.500			
0.7335	46945.22	3.6550	3.6551	1.2800	26.07	0.09	1.500			
0.7374	47194.62	3.6520	3.6520	1.2887	26.06	0.08	1.500			
0.7413	47443.42	3.6490	3.6489	1.2828	26.05	0.07	1.500			
0.7452	47690.09	3.6460	3.6460	1.2765	26.04	0.06	1.500			
0.7490	47933.37	3.6430	3.6430	1.2691	26.03	0.05	1.500			
0.7528	48176.86	3.6400	3.6400	1.2614	26.02	0.04	1.500			
0.7565	48418.32	3.6370	3.6370	1.2595	26.02	0.04	1.500			
0.7603	48659.24	3.6340	3.6340	1.2499	26.01	0.03	1.500			
0.7640	48898.52	3.6310	3.6310	1.2403	26.00	0.02	1.500			
0.7678	49137.34	3.6280	3.6280	1.2338	26.00	0.02	1.500			
0.7714	49371.28	3.6250	3.6250	1.2294	25.99	0.01	1.500			
0.7751	49607.18	3.6220	3.6220	1.2180	25.99	0.01	1.500			
0.7788	49841.52	3.6190	3.6189	1.2048	25.98	0.00	1.500			
0.7824	50072.02	3.6160	3.6161	1.1898	25.98	-0.00	1.500			
0.7859	50300.50	3.6130	3.6131	1.1783	25.97	-0.01	1.500			
0.7895	50525.83	3.6100	3.6099	1.1620	25.97	-0.01	1.500			
0.7929	50745.75	3.6070	3.6070	1.1369	25.97	-0.01	1.500			
0.7963	50961.50	3.6040	3.6040	1.1142	25.97	-0.01	1.500			
0.7996	51176.76	3.6010	3.6011	1.0987	25.96	-0.02	1.500			
0.8029	51384.99	3.5980	3.5980	1.0744	25.96	-0.02	1.500			
0.8061	51589.16	3.5950	3.5950	1.0470	25.96	-0.02	1.500			
0.8092	51788.31	3.5920	3.5920	1.0146	25.96	-0.02	1.500			
0.8122	51983.15	3.5890	3.5890	0.9666	25.97	-0.01	1.500			
0.8152	52170.76	3.5860	3.5860	0.9142	25.97	-0.01	1.500			
0.8179	52346.07	3.5830	3.5830	0.8376	25.97	-0.01	1.500			
0.8203	52501.34	3.5800	3.5800	0.7474	25.97	-0.01	1.500			
0.8224	52636.58	3.5770	3.5770	0.6504	25.97	-0.01	1.500			
0.8242	52750.70	3.5740	3.5740	0.5535	25.98	-0.00	1.500			
0.8256	52841.55	3.5710	3.5711	0.4688	25.98	-0.00	1.500			
0.8269	52919.36	3.5680	3.5680	0.3989	25.98	-0.00	1.500			
0.8279	52986.09	3.5650	3.5649	0.3325	25.98	-0.00	1.500			
0.8288	53042.62	3.5620	3.5619	0.2894	25.98	-0.00	1.500			
0.8295	53090.44	3.5590	3.5591	0.2521	25.98	0.00	1.500			
0.8302	53134.30	3.5560	3.5560	0.2254	25.98	0.00	1.500			
0.8308	53173.49	3.5530	3.5530	0.1995	25.98	0.00	1.500			
0.8314	53208.82	3.5500	3.5500	0.1807	25.98	0.00	1.500			
0.8319	53241.42	3.5470	3.5470	0.1631	25.98	0.00	1.500			
0.8324	53270.75	3.5440	3.5440	0.1480	25.98	0.00	1.500			
0.8328	53297.78	3.5410	3.5410	0.1336	25.98	0.00	1.500			
0.8332	53322.09	3.5380	3.5380	0.1187	25.98	0.00	1.500			
0.8335	53343.50	3.5350	3.5349	0.1042	25.98	0.00	1.500			
0.8338	53362.39	3.5320	3.5320	0.0901	25.98	0.00	1.500			
0.8340	53378.25	3.5290	3.5292	0.0750	25.98	0.00	1.500			
0.8342	53391.58	3.5260	3.5263	0.0597	25.98	0.00	1.500			
0.8344	53401.53	3.5230	3.5236	0.0439	25.98	0.00	1.500			
0.8345	53408.44	3.5200	3.5210	0.0281	25.98	0.00	1.500			
