Ah_balance (normalized)	Ah_balance (mAh)	Voltage - fit (V)	Voltage -  interpolate (V)	dQ/dV (1/V)	Temperature (°C)	Temperature - diff (°C)	Current (C)	R_DC 0ms (mOhm)	R_DC 50ms (mOhm)	R_DC 50 ms PEC (mOhm)
0.2883	18448.48	3.9910	3.9910	0.8195	27.33	1.37	1.500			
0.2907	18604.55	3.9880	3.9879	0.8157	27.32	1.36	1.500			
0.2931	18760.81	3.9850	3.9851	0.8257	27.32	1.36	1.500			
0.2957	18921.87	3.9820	3.9819	0.8360	27.32	1.36	1.500			
0.2982	19084.45	3.9790	3.9790	0.8407	27.31	1.35	1.500			
0.3007	19246.41	3.9760	3.9760	0.8443	27.31	1.35	1.500			
0.3033	19409.33	3.9730	3.9731	0.8495	27.30	1.34	1.500			
0.3058	19572.86	3.9700	3.9699	0.8507	27.30	1.34	1.500			
0.3083	19734.32	3.9670	3.9670	0.8540	27.30	1.34	1.500			
0.3109	19898.14	3.9640	3.9640	0.8617	27.29	1.33	1.500			
0.3135	20065.81	3.9610	3.9610	0.8663	27.29	1.33	1.500			
0.3161	20233.01	3.9580	3.9580	0.8680	27.28	1.32	1.500			
0.3188	20400.84	3.9550	3.9551	0.8729	27.28	1.32	1.500			
0.3214	20569.71	3.9520	3.9520	0.8708	27.28	1.32	1.500			
0.3240	20735.42	3.9490	3.9490	0.8727	27.27	1.31	1.500			
0.3266	20901.19	3.9460	3.9460	0.8748	27.27	1.31	1.500			
0.3292	21068.40	3.9430	3.9431	0.8801	27.26	1.30	1.500			
0.3319	21238.69	3.9400	3.9400	0.8918	27.26	1.30	1.500			
0.3345	21411.17	3.9370	3.9370	0.8973	27.25	1.29	1.500			
0.3372	21583.94	3.9340	3.9340	0.9040	27.25	1.29	1.500			
0.3400	21759.50	3.9310	3.9310	0.9089	27.24	1.28	1.500			
0.3427	21934.39	3.9280	3.9280	0.9116	27.24	1.28	1.500			
0.3455	22110.70	3.9250	3.9250	0.9134	27.23	1.27	1.500			
0.3482	22285.79	3.9220	3.9219	0.9192	27.23	1.27	1.500			
0.3510	22461.45	3.9190	3.9190	0.9276	27.22	1.26	1.500			
0.3538	22640.23	3.9160	3.9161	0.9403	27.21	1.25	1.500			
0.3566	22821.94	3.9130	3.9128	0.9444	27.21	1.25	1.500			
0.3594	23004.17	3.9100	3.9101	0.9561	27.20	1.24	1.500			
0.3623	23188.51	3.9070	3.9070	0.9613	27.19	1.23	1.500			
0.3652	23373.94	3.9040	3.9039	0.9684	27.18	1.22	1.500			
0.3681	23560.51	3.9010	3.9010	0.9724	27.18	1.22	1.500			
0.3711	23749.17	3.8980	3.8979	0.9703	27.17	1.21	1.500			
0.3740	23935.27	3.8950	3.8950	0.9807	27.16	1.20	1.500			
0.3769	24124.14	3.8920	3.8921	0.9908	27.15	1.19	1.500			
0.3799	24312.58	3.8890	3.8889	0.9968	27.14	1.18	1.500			
0.3829	24505.63	3.8860	3.8861	1.0109	27.13	1.17	1.500			
0.3859	24699.39	3.8830	3.8830	1.0224	27.12	1.16	1.500			
0.3890	24897.53	3.8800	3.8801	1.0376	27.11	1.15	1.500			
0.3922	25101.20	3.8770	3.8770	1.0533	27.10	1.14	1.500			
0.3953	25302.02	3.8740	3.8740	1.0642	27.09	1.13	1.500			
0.3986	25508.06	3.8710	3.8710	1.0803	27.08	1.12	1.500			
0.4018	25717.31	3.8680	3.8680	1.0862	27.07	1.11	1.500			
0.4051	25927.25	3.8650	3.8650	1.0939	27.06	1.10	1.500			
0.4084	26136.78	3.8620	3.8621	1.1069	27.05	1.09	1.500			
0.4117	26349.34	3.8590	3.8589	1.1213	27.05	1.09	1.500			
0.4151	26564.98	3.8560	3.8560	1.1385	27.04	1.08	1.500			
0.4185	26785.63	3.8530	3.8529	1.1496	27.03	1.07	1.500			
0.4220	27008.05	3.8500	3.8501	1.1722	27.03	1.07	1.500			
0.4256	27237.59	3.8470	3.8471	1.1898	27.02	1.06	1.500			
0.4292	27466.62	3.8440	3.8440	1.2064	27.01	1.05	1.500			
0.4328	27698.73	3.8410	3.8411	1.2206	27.00	1.04	1.500			
0.4364	27932.36	3.8380	3.8380	1.2371	26.99	1.03	1.500			
0.4402	28171.17	3.8350	3.8350	1.2615	26.98	1.02	1.500			
0.4440	28417.30	3.8320	3.8320	1.2822	26.97	1.01	1.500			
0.4479	28662.52	3.8290	3.8290	1.3077	26.96	1.00	1.500			
0.4518	28916.97	3.8260	3.8261	1.3387	26.94	0.98	1.500			
0.4559	29176.96	3.8230	3.8228	1.3616	26.93	0.97	1.500			
0.4600	29441.35	3.8200	3.8201	1.3901	26.91	0.95	1.500			
0.4642	29711.57	3.8170	3.8170	1.4127	26.90	0.94	1.500			
0.4685	29985.24	3.8140	3.8140	1.4340	26.88	0.92	1.500			
0.4729	30262.50	3.8110	3.8110	1.4455	26.87	0.91	1.500			
0.4772	30542.46	3.8080	3.8080	1.4657	26.85	0.89	1.500			
0.4816	30824.65	3.8050	3.8050	1.4811	26.84	0.88	1.500			
0.4861	31108.09	3.8020	3.8020	1.5101	26.82	0.86	1.500			
0.4907	31401.83	3.7990	3.7990	1.5266	26.81	0.85	1.500			
0.4953	31697.39	3.7960	3.7960	1.5515	26.79	0.83	1.500			
0.4999	31994.94	3.7930	3.7931	1.5838	26.78	0.82	1.500			
0.5048	32304.46	3.7900	3.7899	1.6098	26.76	0.80	1.500			
0.5096	32616.38	3.7870	3.7869	1.6283	26.75	0.79	1.500	0.345	0.483	
0.5146	32931.94	3.7840	3.7841	1.6390	26.74	0.78	1.500			
0.5196	33252.98	3.7810	3.7810	1.6740	26.72	0.76	1.500			
0.5246	33573.88	3.7780	3.7779	1.6665	26.71	0.75	1.500			
0.5296	33891.45	3.7750	3.7749	1.6677	26.69	0.73	1.500			
0.5346	34213.85	3.7720	3.7721	1.6812	26.68	0.72	1.500			
0.5396	34537.24	3.7690	3.7690	1.6861	26.66	0.70	1.500			
0.5447	34861.76	3.7660	3.7660	1.6924	26.64	0.68	1.500			
0.5498	35184.72	3.7630	3.7630	1.6967	26.62	0.66	1.500			
0.5549	35511.75	3.7600	3.7600	1.7179	26.60	0.64	1.500			
0.5600	35843.16	3.7570	3.7569	1.7363	26.59	0.63	1.500			
0.5653	36178.14	3.7540	3.7540	1.7379	26.57	0.61	1.500			
0.5705	36513.76	3.7510	3.7511	1.7532	26.56	0.60	1.500			
0.5758	36849.29	3.7480	3.7481	1.7755	26.54	0.58	1.500			
0.5811	37190.38	3.7450	3.7449	1.8030	26.53	0.57	1.500			
0.5865	37537.95	3.7420	3.7419	1.8341	26.51	0.55	1.500			
0.5921	37894.66	3.7390	3.7390	1.8797	26.49	0.53	1.500			
0.5978	38260.30	3.7360	3.7360	1.9303	26.47	0.51	1.500			
0.6037	38636.14	3.7330	3.7330	1.9849	26.45	0.49	1.500			
0.6097	39018.08	3.7300	3.7300	2.0579	26.43	0.47	1.500			
0.6160	39422.10	3.7270	3.7270	2.1195	26.42	0.46	1.500			
0.6224	39834.13	3.7240	3.7240	2.1817	26.40	0.44	1.500			
0.6291	40261.00	3.7210	3.7210	2.2347	26.38	0.42	1.500			
0.6359	40696.19	3.7180	3.7180	2.2814	26.36	0.40	1.500			
0.6428	41137.39	3.7150	3.7150	2.2733	26.34	0.38	1.500			
0.6497	41578.95	3.7120	3.7120	2.2774	26.32	0.36	1.500			
0.6565	42016.12	3.7090	3.7089	2.2408	26.30	0.34	1.500			
0.6632	42447.85	3.7060	3.7061	2.1503	26.28	0.32	1.500			
0.6696	42855.62	3.7030	3.7030	2.0273	26.27	0.31	1.500			
0.6754	43223.35	3.7000	3.7000	1.8640	26.25	0.29	1.500			
0.6807	43563.02	3.6970	3.6969	1.7361	26.24	0.28	1.500			
0.6856	43880.99	3.6940	3.6940	1.6320	26.23	0.27	1.500			
0.6904	44183.23	3.6910	3.6910	1.5475	26.22	0.26	1.500			
0.6949	44471.16	3.6880	3.6880	1.4821	26.21	0.25	1.500			
0.6992	44747.51	3.6850	3.6850	1.4182	26.20	0.24	1.500			
0.7033	45010.46	3.6820	3.6820	1.3666	26.19	0.23	1.500			
0.7073	45267.35	3.6790	3.6790	1.3289	26.18	0.22	1.500			
0.7112	45515.49	3.6760	3.6760	1.2991	26.16	0.20	1.500			
0.7150	45759.76	3.6730	3.6729	1.2778	26.15	0.19	1.500			
0.7188	46000.85	3.6700	3.6700	1.2683	26.14	0.18	1.500			
0.7225	46242.08	3.6670	3.6670	1.2632	26.13	0.17	1.500			
0.7263	46486.20	3.6640	3.6640	1.2648	26.11	0.15	1.500			
0.7301	46729.40	3.6610	3.6609	1.2608	26.10	0.14	1.500			
0.7339	46972.25	3.6580	3.6581	1.2549	26.09	0.13	1.500			
0.7377	47213.42	3.6550	3.6550	1.2468	26.08	0.12	1.500			
0.7414	47452.78	3.6520	3.6521	1.2380	26.07	0.11	1.500			
0.7452	47689.71	3.6490	3.6490	1.2243	26.07	0.11	1.500			
0.7488	47921.35	3.6460	3.6460	1.2166	26.06	0.10	1.500			
0.7524	48153.84	3.6430	3.6430	1.2096	26.05	0.09	1.500			
0.7560	48385.93	3.6400	3.6400	1.1971	26.04	0.08	1.500			
0.7596	48614.28	3.6370	3.6370	1.1894	26.03	0.07	1.500			
0.7632	48843.10	3.6340	3.6341	1.1787	26.02	0.06	1.500			
0.7667	49068.10	3.6310	3.6309	1.1679	26.01	0.05	1.500			
0.7702	49291.70	3.6280	3.6280	1.1568	26.01	0.05	1.500			
0.7736	49512.52	3.6250	3.6250	1.1380	26.00	0.04	1.500			
0.7770	49730.74	3.6220	3.6220	1.1235	25.99	0.03	1.500			
0.7804	49946.09	3.6190	3.6191	1.1036	25.98	0.02	1.500			
0.7837	50155.50	3.6160	3.6160	1.0793	25.98	0.02	1.500			
0.7869	50361.27	3.6130	3.6130	1.0562	25.98	0.02	1.500			
0.7900	50560.64	3.6100	3.6100	1.0289	25.97	0.01	1.500			
0.7931	50756.49	3.6070	3.6070	1.0041	25.97	0.01	1.500			
0.7961	50947.45	3.6040	3.6039	0.9757	25.97	0.01	1.500			
0.7989	51132.31	3.6010	3.6010	0.9482	25.97	0.01	1.500			
0.8018	51313.88	3.5980	3.5979	0.9113	25.96	0.00	1.500			
0.8045	51488.40	3.5950	3.5950	0.8682	25.96	0.00	1.500			
0.8071	51653.99	3.5920	3.5921	0.8089	25.96	-0.00	1.500			
0.8095	51807.38	3.5890	3.5890	0.7443	25.96	-0.00	1.500			
0.8116	51945.15	3.5860	3.5861	0.6639	25.96	-0.00	1.500			
0.8135	52065.43	3.5830	3.5830	0.5792	25.95	-0.01	1.500			
0.8151	52164.93	3.5800	3.5800	0.4992	25.95	-0.01	1.500			
0.8164	52249.03	3.5770	3.5771	0.4279	25.95	-0.01	1.500			
0.8175	52321.70	3.5740	3.5739	0.3582	25.95	-0.01	1.500			
0.8185	52381.87	3.5710	3.5709	0.3085	25.95	-0.01	1.500			
0.8193	52432.97	3.5680	3.5680	0.2662	25.95	-0.01	1.500			
0.8200	52478.84	3.5650	3.5651	0.2354	25.95	-0.01	1.500			
0.8206	52520.55	3.5620	3.5620	0.2081	25.95	-0.01	1.500			
0.8212	52556.87	3.5590	3.5590	0.1863	25.95	-0.01	1.500			
0.8217	52589.48	3.5560	3.5561	0.1668	25.95	-0.01	1.500			
0.8222	52619.18	3.5530	3.5530	0.1480	25.95	-0.01	1.500			
0.8226	52645.95	3.5500	3.5499	0.1330	25.95	-0.01	1.500			
0.8230	52669.87	3.5470	3.5470	0.1175	25.95	-0.01	1.500			
0.8233	52690.89	3.5440	3.5441	0.1024	25.95	-0.01	1.500			
0.8236	52709.27	3.5410	3.5410	0.0880	25.95	-0.01	1.500			
0.8238	52724.73	3.5380	3.5382	0.0731	25.95	-0.01	1.500			
0.8240	52737.47	3.5350	3.5354	0.0582	25.95	-0.01	1.500			
0.8242	52747.20	3.5320	3.5326	0.0431	25.95	-0.01	1.500			
0.8243	52754.04	3.5290	3.5302	0.0281	25.95	-0.01	1.500			
