Ah_balance (normalized)	Ah_balance (mAh)	Voltage - fit (V)	Voltage -  interpolate (V)	dQ/dV (1/V)	Temperature (°C)	Temperature - diff (°C)	Current (C)	R_DC 0ms (mOhm)	R_DC 50ms (mOhm)	R_DC 50 ms PEC (mOhm)
0.2894	18524.47	3.9840	3.9840	0.8493	27.14	1.20	1.500			
0.2920	18689.38	3.9810	3.9811	0.8596	27.14	1.20	1.500			
0.2946	18855.98	3.9780	3.9779	0.8589	27.13	1.19	1.500			
0.2972	19019.41	3.9750	3.9751	0.8573	27.13	1.19	1.500			
0.2997	19182.85	3.9720	3.9720	0.8600	27.12	1.18	1.500			
0.3023	19348.36	3.9690	3.9690	0.8621	27.11	1.17	1.500			
0.3049	19513.07	3.9660	3.9660	0.8616	27.11	1.17	1.500			
0.3075	19677.76	3.9630	3.9630	0.8675	27.10	1.16	1.500			
0.3101	19846.08	3.9600	3.9601	0.8712	27.09	1.15	1.500			
0.3127	20014.32	3.9570	3.9569	0.8748	27.09	1.15	1.500			
0.3153	20181.73	3.9540	3.9540	0.8756	27.08	1.14	1.500			
0.3180	20350.19	3.9510	3.9510	0.8786	27.08	1.14	1.500			
0.3206	20518.98	3.9480	3.9480	0.8838	27.07	1.13	1.500			
0.3232	20687.05	3.9450	3.9451	0.8935	27.06	1.12	1.500			
0.3259	20857.69	3.9420	3.9420	0.8995	27.06	1.12	1.500			
0.3286	21033.13	3.9390	3.9388	0.9084	27.05	1.11	1.500			
0.3314	21209.22	3.9360	3.9360	0.9125	27.05	1.11	1.500			
0.3341	21385.60	3.9330	3.9331	0.9151	27.04	1.10	1.500			
0.3369	21562.61	3.9300	3.9300	0.9204	27.04	1.10	1.500			
0.3397	21737.94	3.9270	3.9270	0.9161	27.03	1.09	1.500			
0.3424	21914.03	3.9240	3.9239	0.9187	27.03	1.09	1.500			
0.3452	22090.43	3.9210	3.9210	0.9195	27.02	1.08	1.500			
0.3479	22265.05	3.9180	3.9181	0.9317	27.02	1.08	1.500			
0.3507	22444.45	3.9150	3.9150	0.9415	27.01	1.07	1.500			
0.3535	22626.65	3.9120	3.9117	0.9476	27.01	1.07	1.500			
0.3564	22809.84	3.9090	3.9091	0.9533	27.00	1.06	1.500			
0.3593	22995.53	3.9060	3.9061	0.9611	27.00	1.06	1.500			
0.3622	23182.23	3.9030	3.9030	0.9677	26.99	1.05	1.500			
0.3651	23365.17	3.9000	3.9000	0.9649	26.98	1.04	1.500			
0.3680	23550.24	3.8970	3.8970	0.9703	26.98	1.04	1.500			
0.3709	23737.91	3.8940	3.8940	0.9827	26.97	1.03	1.500			
0.3739	23927.68	3.8910	3.8910	0.9941	26.96	1.02	1.500			
0.3769	24118.79	3.8880	3.8880	1.0111	26.95	1.01	1.500			
0.3799	24315.53	3.8850	3.8850	1.0181	26.95	1.01	1.500			
0.3830	24512.60	3.8820	3.8819	1.0291	26.94	1.00	1.500			
0.3861	24711.01	3.8790	3.8790	1.0391	26.93	0.99	1.500			
0.3892	24911.50	3.8760	3.8762	1.0520	26.92	0.98	1.500			
0.3924	25114.94	3.8730	3.8729	1.0554	26.92	0.98	1.500			
0.3956	25318.84	3.8700	3.8700	1.0637	26.91	0.97	1.500			
0.3988	25521.97	3.8670	3.8671	1.0750	26.90	0.96	1.500			
0.4020	25730.18	3.8640	3.8640	1.0946	26.89	0.95	1.500			
0.4053	25938.97	3.8610	3.8610	1.1080	26.89	0.95	1.500			
0.4086	26153.40	3.8580	3.8580	1.1209	26.88	0.94	1.500			
0.4120	26370.38	3.8550	3.8550	1.1394	26.87	0.93	1.500			
0.4156	26596.51	3.8520	3.8520	1.1574	26.86	0.92	1.500			
0.4190	26816.99	3.8490	3.8490	1.1730	26.85	0.91	1.500			
0.4225	27042.41	3.8460	3.8460	1.1873	26.84	0.90	1.500			
0.4261	27270.87	3.8430	3.8431	1.2142	26.83	0.89	1.500			
0.4298	27505.36	3.8400	3.8399	1.2325	26.82	0.88	1.500			
0.4335	27746.87	3.8370	3.8370	1.2530	26.81	0.87	1.500			
0.4373	27989.02	3.8340	3.8341	1.2758	26.80	0.86	1.500			
0.4412	28235.88	3.8310	3.8311	1.2963	26.79	0.85	1.500			
0.4451	28484.41	3.8280	3.8281	1.3199	26.78	0.84	1.500			
0.4491	28739.29	3.8250	3.8249	1.3505	26.77	0.83	1.500			
0.4531	29000.84	3.8220	3.8219	1.3792	26.76	0.82	1.500			
0.4574	29271.37	3.8190	3.8191	1.4142	26.75	0.81	1.500			
0.4617	29546.01	3.8160	3.8160	1.4428	26.74	0.80	1.500			
0.4660	29825.54	3.8130	3.8130	1.4679	26.73	0.79	1.500			
0.4704	30107.22	3.8100	3.8101	1.4947	26.72	0.78	1.500			
0.4749	30396.50	3.8070	3.8070	1.5322	26.71	0.77	1.500			
0.4796	30695.36	3.8040	3.8039	1.5671	26.70	0.76	1.500			
0.4844	31000.11	3.8010	3.8010	1.6118	26.68	0.74	1.500			
0.4893	31315.80	3.7980	3.7981	1.6415	26.67	0.73	1.500			
0.4943	31636.73	3.7950	3.7950	1.6756	26.65	0.71	1.500			
0.4993	31955.33	3.7920	3.7921	1.7043	26.63	0.69	1.500			
0.5044	32283.50	3.7890	3.7889	1.7543	26.62	0.68	1.500			
0.5098	32625.11	3.7860	3.7860	1.7974	26.61	0.67	1.500			
0.5152	32975.77	3.7830	3.7830	1.8389	26.59	0.65	1.500			
0.5209	33336.30	3.7800	3.7801	1.8534	26.58	0.64	1.500			
0.5264	33692.23	3.7770	3.7770	1.8756	26.57	0.63	1.500			
0.5321	34052.91	3.7740	3.7739	1.9043	26.55	0.61	1.500			
0.5378	34418.29	3.7710	3.7711	1.9121	26.53	0.59	1.500	0.357	0.459	
0.5436	34791.91	3.7680	3.7681	1.9351	26.51	0.57	1.500			
0.5495	35169.87	3.7650	3.7650	1.9457	26.49	0.55	1.500			
0.5553	35541.53	3.7620	3.7620	1.9284	26.48	0.54	1.500			
0.5611	35908.10	3.7590	3.7590	1.9135	26.46	0.52	1.500			
0.5668	36274.44	3.7560	3.7560	1.8989	26.45	0.51	1.500			
0.5725	36636.97	3.7530	3.7530	1.8842	26.44	0.50	1.500			
0.5781	36996.41	3.7500	3.7499	1.8899	26.42	0.48	1.500			
0.5837	37358.58	3.7470	3.7470	1.8968	26.41	0.47	1.500			
0.5895	37725.84	3.7440	3.7440	1.8891	26.39	0.45	1.500			
0.5951	38088.01	3.7410	3.7411	1.9136	26.38	0.44	1.500			
0.6009	38457.84	3.7380	3.7380	1.9392	26.37	0.43	1.500			
0.6067	38826.57	3.7350	3.7351	1.9644	26.35	0.41	1.500			
0.6127	39210.89	3.7320	3.7320	2.0098	26.34	0.40	1.500			
0.6188	39605.05	3.7290	3.7289	2.0378	26.32	0.38	1.500			
0.6250	39997.28	3.7260	3.7262	2.0796	26.31	0.37	1.500			
0.6313	40401.69	3.7230	3.7230	2.1321	26.30	0.36	1.500			
0.6377	40814.56	3.7200	3.7199	2.1783	26.29	0.35	1.500			
0.6443	41233.32	3.7170	3.7170	2.2745	26.28	0.34	1.500			
0.6512	41679.02	3.7140	3.7139	2.3602	26.26	0.32	1.500			
0.6585	42141.62	3.7110	3.7111	2.4396	26.25	0.31	1.500			
0.6659	42620.25	3.7080	3.7080	2.4830	26.23	0.29	1.500			
0.6735	43101.98	3.7050	3.7050	2.5216	26.21	0.27	1.500			
0.6811	43591.81	3.7020	3.7020	2.5397	26.20	0.26	1.500			
0.6889	44087.52	3.6990	3.6990	2.4933	26.18	0.24	1.500			
0.6963	44561.56	3.6960	3.6960	2.3917	26.17	0.23	1.500			
0.7033	45010.76	3.6930	3.6928	2.2493	26.16	0.22	1.500			
0.7099	45431.88	3.6900	3.6900	2.1066	26.15	0.21	1.500			
0.7159	45819.43	3.6870	3.6870	1.9423	26.14	0.20	1.500			
0.7214	46171.69	3.6840	3.6841	1.7853	26.13	0.19	1.500			
0.7266	46499.82	3.6810	3.6809	1.6660	26.12	0.18	1.500			
0.7314	46807.17	3.6780	3.6780	1.5711	26.11	0.17	1.500			
0.7358	47092.66	3.6750	3.6751	1.4848	26.11	0.17	1.500			
0.7401	47367.80	3.6720	3.6720	1.4128	26.10	0.16	1.500			
0.7442	47631.84	3.6690	3.6689	1.3598	26.09	0.15	1.500			
0.7482	47883.96	3.6660	3.6661	1.3141	26.08	0.14	1.500			
0.7520	48128.83	3.6630	3.6630	1.2846	26.07	0.13	1.500			
0.7558	48370.39	3.6600	3.6600	1.2655	26.07	0.13	1.500			
0.7595	48607.48	3.6570	3.6570	1.2597	26.06	0.12	1.500			
0.7633	48848.02	3.6540	3.6540	1.2650	26.05	0.11	1.500			
0.7671	49091.49	3.6510	3.6509	1.2725	26.04	0.10	1.500			
0.7709	49336.54	3.6480	3.6481	1.2800	26.04	0.10	1.500			
0.7747	49582.96	3.6450	3.6450	1.2880	26.03	0.09	1.500			
0.7786	49833.21	3.6420	3.6418	1.2918	26.02	0.08	1.500			
0.7825	50082.04	3.6390	3.6391	1.2936	26.01	0.07	1.500			
0.7864	50330.80	3.6360	3.6360	1.2893	26.00	0.06	1.500			
0.7903	50581.61	3.6330	3.6330	1.2824	25.99	0.05	1.500			
0.7941	50824.30	3.6300	3.6300	1.2733	25.98	0.04	1.500			
0.7980	51069.35	3.6270	3.6270	1.2737	25.97	0.03	1.500			
0.8018	51312.60	3.6240	3.6240	1.2677	25.96	0.02	1.500			
0.8056	51556.40	3.6210	3.6210	1.2638	25.96	0.02	1.500			
0.8093	51798.33	3.6180	3.6180	1.2617	25.96	0.02	1.500			
0.8132	52042.06	3.6150	3.6150	1.2574	25.95	0.01	1.500			
0.8170	52285.08	3.6120	3.6120	1.2487	25.95	0.01	1.500			
0.8207	52522.17	3.6090	3.6090	1.2297	25.95	0.01	1.500			
0.8244	52758.66	3.6060	3.6061	1.2173	25.94	0.00	1.500			
0.8280	52990.77	3.6030	3.6030	1.2036	25.94	0.00	1.500			
0.8316	53221.60	3.6000	3.6000	1.1828	25.94	0.00	1.500			
0.8351	53445.16	3.5970	3.5970	1.1639	25.94	0.00	1.500			
0.8386	53667.43	3.5940	3.5940	1.1484	25.94	0.00	1.500			
0.8420	53886.73	3.5910	3.5910	1.1278	25.94	0.00	1.500			
0.8453	54099.94	3.5880	3.5879	1.1136	25.94	0.00	1.500			
0.8486	54311.87	3.5850	3.5850	1.0963	25.94	0.00	1.500			
0.8520	54525.12	3.5820	3.5820	1.0645	25.94	0.00	1.500			
0.8552	54731.56	3.5790	3.5789	1.0220	25.94	0.00	1.500			
0.8583	54932.62	3.5760	3.5760	0.9461	25.94	0.00	1.500			
0.8611	55111.59	3.5730	3.5731	0.8511	25.94	0.00	1.500			
0.8636	55269.91	3.5700	3.5700	0.7419	25.94	0.00	1.500			
0.8656	55397.80	3.5670	3.5669	0.6175	25.94	0.00	1.500			
0.8672	55498.01	3.5640	3.5641	0.5120	25.94	0.00	1.500			
0.8685	55581.68	3.5610	3.5609	0.4251	25.94	0.00	1.500			
0.8695	55648.26	3.5580	3.5580	0.3524	25.94	0.00	1.500			
0.8704	55707.48	3.5550	3.5550	0.3048	25.94	0.00	1.500			
0.8712	55758.17	3.5520	3.5520	0.2592	25.94	0.00	1.500			
0.8719	55803.70	3.5490	3.5490	0.2315	25.94	0.00	1.500			
0.8725	55842.75	3.5460	3.5459	0.2057	25.94	0.00	1.500			
0.8731	55878.65	3.5430	3.5430	0.1853	25.94	0.00	1.500			
0.8736	55912.33	3.5400	3.5401	0.1681	25.94	0.00	1.500			
0.8741	55942.35	3.5370	3.5370	0.1525	25.94	0.00	1.500			
0.8745	55970.17	3.5340	3.5340	0.1379	25.94	0.00	1.500			
0.8749	55995.02	3.5310	3.5309	0.1229	25.94	0.00	1.500			
0.8753	56017.29	3.5280	3.5281	0.1091	25.94	0.00	1.500			
0.8756	56036.93	3.5250	3.5251	0.0952	25.94	0.00	1.500			
0.8758	56054.03	3.5220	3.5221	0.0814	25.94	0.00	1.500			
0.8761	56068.29	3.5190	3.5192	0.0672	25.94	0.00	1.500			
0.8762	56080.00	3.5160	3.5164	0.0522	25.94	0.00	1.500			
0.8764	56088.60	3.5130	3.5135	0.0374	25.94	0.00	1.500			
