Ah_balance (normalized)	Ah_balance (mAh)	Voltage - fit (V)	Voltage -  interpolate (V)	dQ/dV (1/V)	Temperature (°C)	Temperature - diff (°C)	Current (C)	R_DC 0ms (mOhm)	R_DC 50ms (mOhm)	R_DC 50 ms PEC (mOhm)
0.1991	12739.55	3.9130	3.9127	-0.1157	25.83	0.01	-1.500			
0.1995	12765.72	3.9100	3.9099	-0.1499	25.83	0.01	-1.500			
0.2000	12796.95	3.9070	3.9070	-0.1808	25.83	0.01	-1.500			
0.2006	12835.32	3.9040	3.9040	-0.2111	25.83	0.01	-1.500			
0.2012	12879.02	3.9010	3.9010	-0.2400	25.83	0.01	-1.500			
0.2020	12928.39	3.8980	3.8979	-0.2692	25.83	0.01	-1.500			
0.2029	12982.72	3.8950	3.8951	-0.2970	25.82	0.00	-1.500			
0.2038	13042.41	3.8920	3.8920	-0.3236	25.82	0.00	-1.500			
0.2048	13107.11	3.8890	3.8889	-0.3509	25.82	0.00	-1.500			
0.2059	13176.51	3.8860	3.8861	-0.3779	25.82	-0.00	-1.500			
0.2071	13251.98	3.8830	3.8829	-0.4071	25.82	-0.00	-1.500			
0.2083	13333.04	3.8800	3.8800	-0.4348	25.82	-0.00	-1.500			
0.2097	13419.49	3.8770	3.8770	-0.4610	25.81	-0.01	-1.500			
0.2111	13510.68	3.8740	3.8741	-0.4888	25.81	-0.01	-1.500			
0.2126	13607.97	3.8710	3.8710	-0.5128	25.81	-0.01	-1.500			
0.2142	13708.93	3.8680	3.8680	-0.5365	25.81	-0.01	-1.500			
0.2158	13814.20	3.8650	3.8651	-0.5589	25.80	-0.02	-1.500			
0.2176	13923.78	3.8620	3.8620	-0.5800	25.80	-0.02	-1.500			
0.2193	14037.49	3.8590	3.8590	-0.6000	25.80	-0.02	-1.500			
0.2212	14154.88	3.8560	3.8560	-0.6181	25.80	-0.02	-1.500			
0.2231	14275.55	3.8530	3.8530	-0.6318	25.79	-0.03	-1.500			
0.2250	14399.72	3.8500	3.8500	-0.6485	25.79	-0.03	-1.500			
0.2270	14525.10	3.8470	3.8470	-0.6586	25.79	-0.03	-1.500			
0.2290	14653.21	3.8440	3.8440	-0.6687	25.78	-0.04	-1.500			
0.2310	14782.33	3.8410	3.8410	-0.6794	25.78	-0.04	-1.500			
0.2330	14913.73	3.8380	3.8380	-0.6879	25.78	-0.04	-1.500			
0.2351	15047.11	3.8350	3.8350	-0.6957	25.78	-0.04	-1.500			
0.2372	15182.54	3.8320	3.8320	-0.7025	25.79	-0.03	-1.500			
0.2393	15317.83	3.8290	3.8291	-0.7076	25.79	-0.03	-1.500			
0.2415	15454.97	3.8260	3.8260	-0.7109	25.79	-0.03	-1.500			
0.2436	15591.32	3.8230	3.8230	-0.7150	25.79	-0.03	-1.500			
0.2458	15728.57	3.8200	3.8200	-0.7164	25.79	-0.03	-1.500			
0.2479	15866.11	3.8170	3.8170	-0.7218	25.79	-0.03	-1.500			
0.2501	16005.34	3.8140	3.8140	-0.7244	25.80	-0.02	-1.500			
0.2523	16145.19	3.8110	3.8110	-0.7283	25.80	-0.02	-1.500			
0.2545	16284.96	3.8080	3.8080	-0.7304	25.80	-0.02	-1.500			
0.2567	16426.80	3.8050	3.8050	-0.7324	25.80	-0.02	-1.500			
0.2589	16566.98	3.8020	3.8020	-0.7321	25.81	-0.01	-1.500			
0.2610	16707.15	3.7990	3.7990	-0.7343	25.81	-0.01	-1.500			
0.2632	16848.00	3.7960	3.7961	-0.7355	25.81	-0.01	-1.500			
0.2655	16989.92	3.7930	3.7930	-0.7346	25.82	-0.00	-1.500			
0.2677	17131.04	3.7900	3.7900	-0.7345	25.82	-0.00	-1.500			
0.2699	17272.51	3.7870	3.7870	-0.7324	25.82	0.00	-1.500			
0.2721	17411.54	3.7840	3.7841	-0.7386	25.83	0.01	-1.500			
0.2743	17553.09	3.7810	3.7810	-0.7392	25.83	0.01	-1.500			
0.2765	17695.54	3.7780	3.7780	-0.7375	25.83	0.01	-1.500			
0.2787	17838.07	3.7750	3.7749	-0.7403	25.84	0.02	-1.500			
0.2810	17981.44	3.7720	3.7722	-0.7427	25.84	0.02	-1.500			
0.2832	18123.98	3.7690	3.7690	-0.7387	25.84	0.02	-1.500			
0.2854	18265.71	3.7660	3.7659	-0.7389	25.85	0.03	-1.500			
0.2876	18405.79	3.7630	3.7630	-0.7351	25.85	0.03	-1.500			
0.2898	18547.41	3.7600	3.7600	-0.7351	25.85	0.03	-1.500			
0.2920	18688.63	3.7570	3.7570	-0.7329	25.86	0.04	-1.500			
0.2942	18827.59	3.7540	3.7540	-0.7352	25.86	0.04	-1.500			
0.2964	18969.10	3.7510	3.7509	-0.7366	25.87	0.05	-1.500			
0.2986	19110.79	3.7480	3.7480	-0.7389	25.87	0.05	-1.500			
0.3008	19252.22	3.7450	3.7450	-0.7411	25.87	0.05	-1.500			
0.3031	19395.86	3.7420	3.7421	-0.7447	25.88	0.06	-1.500			
0.3053	19539.82	3.7390	3.7389	-0.7471	25.88	0.06	-1.500			
0.3075	19682.90	3.7360	3.7360	-0.7477	25.88	0.06	-1.500			
0.3098	19825.79	3.7330	3.7330	-0.7471	25.89	0.07	-1.500			
0.3120	19970.38	3.7300	3.7300	-0.7506	25.89	0.07	-1.500			
0.3143	20114.55	3.7270	3.7270	-0.7488	25.90	0.08	-1.500			
0.3165	20256.98	3.7240	3.7240	-0.7520	25.90	0.08	-1.500			
0.3188	20401.33	3.7210	3.7210	-0.7571	25.91	0.09	-1.500			
0.3210	20546.07	3.7180	3.7180	-0.7625	25.91	0.09	-1.500			
0.3233	20693.03	3.7150	3.7150	-0.7741	25.92	0.10	-1.500			
0.3257	20842.91	3.7120	3.7120	-0.7833	25.92	0.10	-1.500			
0.3281	20995.87	3.7090	3.7089	-0.7850	25.92	0.10	-1.500			
0.3304	21148.37	3.7060	3.7061	-0.7928	25.93	0.11	-1.500			
0.3328	21299.57	3.7030	3.7030	-0.7995	25.93	0.11	-1.500			
0.3352	21452.70	3.7000	3.6999	-0.8052	25.94	0.12	-1.500			
0.3376	21607.31	3.6970	3.6969	-0.8129	25.94	0.12	-1.500			
0.3400	21762.10	3.6940	3.6941	-0.8233	25.95	0.13	-1.500			
0.3425	21923.13	3.6910	3.6910	-0.8390	25.95	0.13	-1.500			
0.3451	22086.22	3.6880	3.6879	-0.8517	25.96	0.14	-1.500			
0.3477	22249.93	3.6850	3.6850	-0.8594	25.96	0.14	-1.500			
0.3502	22415.94	3.6820	3.6820	-0.8721	25.97	0.15	-1.500			
0.3529	22585.16	3.6790	3.6791	-0.8873	25.97	0.15	-1.500			
0.3556	22756.78	3.6760	3.6760	-0.9005	25.98	0.16	-1.500			
0.3583	22930.10	3.6730	3.6730	-0.9104	25.98	0.16	-1.500			
0.3610	23106.48	3.6700	3.6700	-0.9230	25.98	0.16	-1.500			
0.3638	23285.13	3.6670	3.6670	-0.9373	25.99	0.17	-1.500			
0.3667	23465.96	3.6640	3.6639	-0.9533	25.99	0.17	-1.500			
0.3695	23647.86	3.6610	3.6610	-0.9745	25.99	0.17	-1.500			
0.3725	23837.61	3.6580	3.6580	-0.9918	25.99	0.17	-1.500			
0.3755	24029.99	3.6550	3.6549	-1.0137	26.00	0.18	-1.500			
0.3786	24227.54	3.6520	3.6520	-1.0343	26.00	0.18	-1.500			
0.3817	24428.46	3.6490	3.6491	-1.0534	26.00	0.18	-1.500			
0.3849	24631.86	3.6460	3.6460	-1.0720	26.00	0.18	-1.500			
0.3881	24839.52	3.6430	3.6430	-1.0877	26.00	0.18	-1.500			
0.3914	25048.81	3.6400	3.6400	-1.1038	26.00	0.18	-1.500			
0.3947	25263.85	3.6370	3.6370	-1.1323	26.00	0.18	-1.500			
0.3981	25481.36	3.6340	3.6341	-1.1541	26.00	0.18	-1.500			
0.4017	25706.52	3.6310	3.6310	-1.1754	26.00	0.18	-1.500			
0.4052	25934.48	3.6280	3.6280	-1.1992	26.00	0.18	-1.500			
0.4089	26167.05	3.6250	3.6250	-1.2208	26.00	0.18	-1.500			
0.4126	26403.36	3.6220	3.6219	-1.2476	26.01	0.19	-1.500			
0.4163	26642.55	3.6190	3.6190	-1.2787	26.01	0.19	-1.500			
0.4202	26891.64	3.6160	3.6159	-1.2993	26.01	0.19	-1.500			
0.4242	27147.11	3.6130	3.6129	-1.3186	26.01	0.19	-1.500			
0.4282	27402.53	3.6100	3.6100	-1.3460	26.02	0.20	-1.500			
0.4322	27662.79	3.6070	3.6071	-1.3663	26.02	0.20	-1.500			
0.4363	27926.01	3.6040	3.6040	-1.3916	26.02	0.20	-1.500			
0.4405	28190.09	3.6010	3.6010	-1.4190	26.02	0.20	-1.500			
0.4448	28466.82	3.5980	3.5980	-1.4401	26.02	0.20	-1.500			
0.4492	28750.32	3.5950	3.5950	-1.4714	26.02	0.20	-1.500			
0.4537	29038.16	3.5920	3.5920	-1.4999	26.02	0.20	-1.500			
0.4582	29325.02	3.5890	3.5890	-1.5151	26.02	0.20	-1.500			
0.4628	29617.90	3.5860	3.5859	-1.5399	26.02	0.20	-1.500			
0.4674	29915.36	3.5830	3.5830	-1.5575	26.02	0.20	-1.500			
0.4721	30215.13	3.5800	3.5800	-1.5772	26.02	0.20	-1.500			
0.4769	30523.08	3.5770	3.5770	-1.6069	26.02	0.20	-1.500			
0.4818	30833.58	3.5740	3.5740	-1.6303	26.02	0.20	-1.500			
0.4867	31147.90	3.5710	3.5710	-1.6521	26.02	0.20	-1.500			
0.4917	31469.67	3.5680	3.5679	-1.6788	26.02	0.20	-1.500			
0.4968	31795.81	3.5650	3.5650	-1.6987	26.03	0.21	-1.500			
0.5019	32124.67	3.5620	3.5619	-1.7249	26.03	0.21	-1.500			
0.5072	32457.92	3.5590	3.5591	-1.7437	26.03	0.21	-1.500			
0.5124	32793.14	3.5560	3.5560	-1.7567	26.03	0.21	-1.500			
0.5177	33132.07	3.5530	3.5530	-1.7739	26.03	0.21	-1.500			
0.5230	33472.21	3.5500	3.5501	-1.7861	26.04	0.22	-1.500			
0.5284	33820.55	3.5470	3.5470	-1.8178	26.04	0.22	-1.500			
0.5340	34173.21	3.5440	3.5439	-1.8293	26.04	0.22	-1.500			
0.5394	34524.57	3.5410	3.5410	-1.8395	26.05	0.23	-1.500			
0.5450	34881.40	3.5380	3.5380	-1.8425	26.05	0.23	-1.500	0.388	0.515	
0.5506	35235.85	3.5350	3.5350	-1.8408	26.06	0.24	-1.500			
0.5561	35589.75	3.5320	3.5320	-1.8370	26.06	0.24	-1.500			
0.5615	35939.19	3.5290	3.5290	-1.8285	26.07	0.25	-1.500			
0.5671	36291.41	3.5260	3.5260	-1.8261	26.08	0.26	-1.500			
0.5725	36640.67	3.5230	3.5230	-1.8210	26.09	0.27	-1.500			
0.5780	36990.69	3.5200	3.5200	-1.8235	26.10	0.28	-1.500			
0.5834	37340.42	3.5170	3.5170	-1.8241	26.10	0.28	-1.500			
0.5889	37691.13	3.5140	3.5140	-1.8261	26.11	0.29	-1.500			
0.5944	38042.45	3.5110	3.5110	-1.8232	26.12	0.30	-1.500			
0.5999	38390.71	3.5080	3.5080	-1.8214	26.13	0.31	-1.500			
0.6054	38742.69	3.5050	3.5050	-1.8116	26.14	0.32	-1.500			
0.6108	39088.80	3.5020	3.5020	-1.8020	26.15	0.33	-1.500			
0.6161	39433.46	3.4990	3.4991	-1.8038	26.16	0.34	-1.500			
0.6215	39778.76	3.4960	3.4959	-1.8008	26.17	0.35	-1.500			
0.6270	40126.35	3.4930	3.4930	-1.8023	26.17	0.35	-1.500			
0.6324	40473.24	3.4900	3.4900	-1.7939	26.18	0.36	-1.500			
0.6378	40819.54	3.4870	3.4870	-1.7888	26.20	0.38	-1.500			
0.6431	41159.96	3.4840	3.4840	-1.7663	26.21	0.39	-1.500			
0.6484	41496.83	3.4810	3.4810	-1.7422	26.22	0.40	-1.500			
0.6536	41830.00	3.4780	3.4780	-1.7260	26.24	0.42	-1.500			
0.6587	42158.28	3.4750	3.4749	-1.7005	26.25	0.43	-1.500			
0.6638	42482.57	3.4720	3.4720	-1.6930	26.27	0.45	-1.500			
0.6689	42807.09	3.4690	3.4689	-1.6718	26.28	0.46	-1.500			
0.6739	43127.13	3.4660	3.4660	-1.6528	26.30	0.48	-1.500			
0.6788	43444.54	3.4630	3.4630	-1.6297	26.31	0.49	-1.500			
0.6837	43756.53	3.4600	3.4600	-1.6061	26.33	0.51	-1.500			
0.6885	44061.38	3.4570	3.4570	-1.5803	26.34	0.52	-1.500			
0.6931	44360.54	3.4540	3.4540	-1.5573	26.36	0.54	-1.500			
0.6977	44653.48	3.4510	3.4510	-1.5323	26.37	0.55	-1.500			
0.7023	44947.11	3.4480	3.4480	-1.5238	26.39	0.57	-1.500			
0.7069	45239.93	3.4450	3.4451	-1.4997	26.40	0.58	-1.500			
0.7114	45527.11	3.4420	3.4419	-1.4770	26.42	0.60	-1.500			
0.7157	45807.92	3.4390	3.4391	-1.4657	26.43	0.61	-1.500			
0.7201	46087.79	3.4360	3.4360	-1.4457	26.45	0.63	-1.500			
0.7244	46361.98	3.4330	3.4329	-1.4279	26.46	0.64	-1.500			
0.7287	46634.68	3.4300	3.4299	-1.4165	26.47	0.65	-1.500			
0.7329	46903.30	3.4270	3.4270	-1.4057	26.49	0.67	-1.500			
0.7371	47174.33	3.4240	3.4240	-1.3975	26.51	0.69	-1.500			
0.7413	47441.48	3.4210	3.4210	-1.3866	26.53	0.71	-1.500			
0.7454	47705.09	3.4180	3.4180	-1.3660	26.55	0.73	-1.500			
0.7495	47969.42	3.4150	3.4149	-1.3578	26.57	0.75	-1.500			
0.7536	48229.91	3.4120	3.4120	-1.3334	26.59	0.77	-1.500			
0.7576	48484.61	3.4090	3.4090	-1.3055	26.61	0.79	-1.500			
0.7615	48733.84	3.4060	3.4060	-1.2731	26.63	0.81	-1.500			
0.7652	48975.40	3.4030	3.4030	-1.2370	26.65	0.83	-1.500			
0.7689	49210.55	3.4000	3.4000	-1.1960	26.67	0.85	-1.500			
0.7725	49437.37	3.3970	3.3969	-1.1550	26.68	0.86	-1.500			
0.7758	49654.06	3.3940	3.3943	-1.1117	26.70	0.88	-1.500			
0.7791	49863.39	3.3910	3.3910	-1.0717	26.71	0.89	-1.500			
0.7823	50064.96	3.3880	3.3880	-1.0319	26.73	0.91	-1.500			
0.7853	50258.65	3.3850	3.3850	-0.9931	26.74	0.92	-1.500			
0.7882	50443.61	3.3820	3.3819	-0.9547	26.76	0.94	-1.500			
0.7910	50625.09	3.3790	3.3790	-0.9168	26.77	0.95	-1.500			
0.7937	50796.80	3.3760	3.3760	-0.8790	26.78	0.96	-1.500			
0.7963	50961.44	3.3730	3.3731	-0.8441	26.79	0.97	-1.500			
0.7987	51119.32	3.3700	3.3699	-0.8155	26.81	0.99	-1.500			
0.8011	51271.47	3.3670	3.3670	-0.7841	26.82	1.00	-1.500			
0.8034	51419.44	3.3640	3.3639	-0.7577	26.82	1.00	-1.500			
0.8057	51563.68	3.3610	3.3611	-0.7288	26.83	1.01	-1.500			
0.8078	51701.28	3.3580	3.3580	-0.7034	26.84	1.02	-1.500			
0.8099	51831.53	3.3550	3.3551	-0.6768	26.86	1.04	-1.500			
0.8118	51957.32	3.3520	3.3520	-0.6534	26.87	1.05	-1.500			
0.8138	52080.34	3.3490	3.3489	-0.6337	26.88	1.06	-1.500			
0.8156	52199.97	3.3460	3.3461	-0.6167	26.89	1.07	-1.500			
0.8175	52316.95	3.3430	3.3430	-0.6004	26.90	1.08	-1.500			
0.8192	52431.86	3.3400	3.3400	-0.5814	26.91	1.09	-1.500			
0.8210	52540.82	3.3370	3.3370	-0.5593	26.92	1.10	-1.500			
0.8226	52646.32	3.3340	3.3342	-0.5420	26.93	1.11	-1.500			
0.8242	52747.90	3.3310	3.3309	-0.5236	26.94	1.12	-1.500			
0.8257	52846.74	3.3280	3.3280	-0.5095	26.94	1.12	-1.500			
0.8272	52942.16	3.3250	3.3250	-0.4939	26.95	1.13	-1.500			
0.8287	53035.74	3.3220	3.3220	-0.4806	26.95	1.13	-1.500			
0.8301	53127.26	3.3190	3.3188	-0.4696	26.96	1.14	-1.500			
0.8315	53216.09	3.3160	3.3160	-0.4554	26.96	1.14	-1.500			
0.8329	53302.75	3.3130	3.3129	-0.4402	26.97	1.15	-1.500			
0.8342	53386.13	3.3100	3.3101	-0.4258	26.98	1.16	-1.500			
0.8354	53466.05	3.3070	3.3070	-0.4131	26.98	1.16	-1.500			
0.8366	53543.37	3.3040	3.3041	-0.4010	26.99	1.17	-1.500			
0.8378	53618.66	3.3010	3.3009	-0.3893	27.00	1.18	-1.500			
0.8389	53691.86	3.2980	3.2980	-0.3780	27.00	1.18	-1.500			
0.8401	53764.31	3.2950	3.2950	-0.3679	27.01	1.19	-1.500			
0.8412	53833.92	3.2920	3.2920	-0.3576	27.01	1.19	-1.500			
0.8422	53901.57	3.2890	3.2890	-0.3478	27.02	1.20	-1.500			
0.8432	53966.91	3.2860	3.2860	-0.3387	27.02	1.20	-1.500			
0.8442	54030.76	3.2830	3.2830	-0.3289	27.03	1.21	-1.500			
0.8452	54093.38	3.2800	3.2800	-0.3207	27.03	1.21	-1.500			
0.8462	54154.36	3.2770	3.2770	-0.3135	27.04	1.22	-1.500			
0.8471	54213.97	3.2740	3.2740	-0.3039	27.04	1.22	-1.500			
0.8480	54271.13	3.2710	3.2709	-0.2962	27.05	1.23	-1.500			
0.8489	54326.96	3.2680	3.2681	-0.2893	27.05	1.23	-1.500			
0.8497	54381.69	3.2650	3.2649	-0.2823	27.06	1.24	-1.500			
0.8506	54435.30	3.2620	3.2620	-0.2770	27.06	1.24	-1.500			
0.8514	54487.80	3.2590	3.2590	-0.2710	27.07	1.25	-1.500			
0.8522	54539.23	3.2560	3.2561	-0.2630	27.07	1.25	-1.500			
0.8530	54589.73	3.2530	3.2529	-0.2593	27.08	1.26	-1.500			
0.8537	54638.15	3.2500	3.2501	-0.2536	27.08	1.26	-1.500			
0.8545	54686.45	3.2470	3.2470	-0.2470	27.09	1.27	-1.500			
0.8552	54733.29	3.2440	3.2441	-0.2427	27.10	1.28	-1.500			
0.8559	54779.59	3.2410	3.2411	-0.2389	27.10	1.28	-1.500			
0.8566	54824.66	3.2380	3.2381	-0.2337	27.11	1.29	-1.500			
0.8573	54869.64	3.2350	3.2349	-0.2302	27.11	1.29	-1.500			
0.8580	54912.39	3.2320	3.2320	-0.2243	27.12	1.30	-1.500			
0.8587	54955.14	3.2290	3.2291	-0.2217	27.12	1.30	-1.500			
0.8593	54997.46	3.2260	3.2261	-0.2191	27.13	1.31	-1.500			
0.8600	55039.92	3.2230	3.2229	-0.2148	27.13	1.31	-1.500			
0.8606	55080.32	3.2200	3.2199	-0.2106	27.14	1.32	-1.500			
0.8613	55120.46	3.2170	3.2171	-0.2072	27.14	1.32	-1.500			
0.8619	55159.88	3.2140	3.2142	-0.2035	27.15	1.33	-1.500			
0.8625	55198.62	3.2110	3.2108	-0.2003	27.15	1.33	-1.500			
0.8631	55236.28	3.2080	3.2080	-0.1969	27.15	1.33	-1.500			
0.8636	55273.59	3.2050	3.2051	-0.1939	27.16	1.34	-1.500			
0.8642	55310.64	3.2020	3.2020	-0.1921	27.16	1.34	-1.500			
0.8648	55347.66	3.1990	3.1990	-0.1906	27.17	1.35	-1.500			
0.8654	55383.85	3.1960	3.1961	-0.1875	27.17	1.35	-1.500			
0.8659	55419.72	3.1930	3.1929	-0.1858	27.17	1.35	-1.500			
0.8665	55455.18	3.1900	3.1901	-0.1836	27.18	1.36	-1.500			
0.8670	55490.31	3.1870	3.1870	-0.1810	27.18	1.36	-1.500			
0.8676	55524.72	3.1840	3.1840	-0.1785	27.19	1.37	-1.500			
0.8681	55558.76	3.1810	3.1810	-0.1761	27.19	1.37	-1.500			
0.8686	55592.30	3.1780	3.1780	-0.1739	27.19	1.37	-1.500			
0.8691	55625.35	3.1750	3.1750	-0.1718	27.20	1.38	-1.500			
0.8697	55657.94	3.1720	3.1719	-0.1705	27.20	1.38	-1.500			
0.8702	55690.26	3.1690	3.1691	-0.1686	27.21	1.39	-1.500			
0.8707	55722.65	3.1660	3.1660	-0.1675	27.21	1.39	-1.500			
0.8712	55754.98	3.1630	3.1629	-0.1660	27.22	1.40	-1.500			
0.8717	55786.73	3.1600	3.1599	-0.1643	27.22	1.40	-1.500			
0.8722	55818.10	3.1570	3.1572	-0.1625	27.23	1.41	-1.500			
0.8726	55849.34	3.1540	3.1540	-0.1604	27.23	1.41	-1.500			
0.8731	55879.78	3.1510	3.1509	-0.1589	27.24	1.42	-1.500			
0.8736	55909.65	3.1480	3.1481	-0.1569	27.24	1.42	-1.500			
0.8741	55939.71	3.1450	3.1450	-0.1562	27.25	1.43	-1.500			
0.8745	55969.54	3.1420	3.1419	-0.1554	27.25	1.43	-1.500			
0.8750	55999.44	3.1390	3.1389	-0.1545	27.26	1.44	-1.500			
0.8755	56029.09	3.1360	3.1361	-0.1535	27.26	1.44	-1.500			
0.8759	56058.47	3.1330	3.1330	-0.1525	27.27	1.45	-1.500			
0.8764	56087.89	3.1300	3.1300	-0.1515	27.27	1.45	-1.500			
0.8768	56116.75	3.1270	3.1269	-0.1498	27.27	1.45	-1.500			
0.8773	56145.34	3.1240	3.1240	-0.1483	27.28	1.46	-1.500			
0.8777	56173.69	3.1210	3.1210	-0.1470	27.28	1.46	-1.500			
0.8782	56201.81	3.1180	3.1180	-0.1455	27.29	1.47	-1.500			
0.8786	56229.38	3.1150	3.1150	-0.1449	27.29	1.47	-1.500			
0.8790	56256.96	3.1120	3.1119	-0.1440	27.30	1.48	-1.500			
0.8794	56284.69	3.1090	3.1091	-0.1429	27.30	1.48	-1.500			
0.8799	56311.99	3.1060	3.1059	-0.1421	27.30	1.48	-1.500			
0.8803	56339.27	3.1030	3.1030	-0.1414	27.31	1.49	-1.500			
0.8807	56366.43	3.1000	3.1001	-0.1406	27.31	1.49	-1.500			
0.8811	56393.34	3.0970	3.0969	-0.1394	27.32	1.50	-1.500			
0.8816	56420.06	3.0940	3.0940	-0.1384	27.32	1.50	-1.500			
0.8820	56446.22	3.0910	3.0911	-0.1371	27.33	1.51	-1.500			
0.8824	56472.50	3.0880	3.0879	-0.1366	27.33	1.51	-1.500			
0.8828	56498.92	3.0850	3.0850	-0.1355	27.34	1.52	-1.500			
0.8832	56524.58	3.0820	3.0820	-0.1348	27.34	1.52	-1.500			
0.8836	56550.45	3.0790	3.0790	-0.1340	27.35	1.53	-1.500			
0.8840	56576.12	3.0760	3.0761	-0.1334	27.35	1.53	-1.500			
0.8844	56601.75	3.0730	3.0729	-0.1326	27.36	1.54	-1.500			
0.8848	56627.06	3.0700	3.0700	-0.1319	27.36	1.54	-1.500			
0.8852	56652.41	3.0670	3.0670	-0.1308	27.36	1.54	-1.500			
0.8856	56677.45	3.0640	3.0640	-0.1299	27.37	1.55	-1.500			
0.8860	56702.39	3.0610	3.0610	-0.1296	27.37	1.55	-1.500			
0.8864	56726.93	3.0580	3.0582	-0.1285	27.38	1.56	-1.500			
0.8867	56751.60	3.0550	3.0550	-0.1281	27.38	1.56	-1.500			
0.8871	56776.15	3.0520	3.0519	-0.1277	27.39	1.57	-1.500			
0.8875	56800.57	3.0490	3.0490	-0.1272	27.39	1.57	-1.500			
0.8879	56825.00	3.0460	3.0460	-0.1261	27.40	1.58	-1.500			
0.8883	56849.29	3.0430	3.0430	-0.1260	27.40	1.58	-1.500			
0.8886	56873.38	3.0400	3.0401	-0.1249	27.41	1.59	-1.500			
0.8890	56897.04	3.0370	3.0370	-0.1240	27.41	1.59	-1.500			
0.8894	56920.79	3.0340	3.0339	-0.1234	27.41	1.59	-1.500			
0.8898	56944.44	3.0310	3.0310	-0.1225	27.42	1.60	-1.500			
0.8901	56967.87	3.0280	3.0280	-0.1217	27.42	1.60	-1.500			
0.8905	56991.20	3.0250	3.0250	-0.1211	27.43	1.61	-1.500			
0.8909	57014.52	3.0220	3.0220	-0.1206	27.43	1.61	-1.500			
0.8912	57037.57	3.0190	3.0190	-0.1197	27.44	1.62	-1.500			
0.8916	57060.47	3.0160	3.0160	-0.1188	27.44	1.62	-1.500			
0.8919	57083.20	3.0130	3.0129	-0.1179	27.45	1.63	-1.500			
0.8923	57105.62	3.0100	3.0100	-0.1172	27.45	1.63	-1.500			
0.8926	57128.06	3.0070	3.0071	-0.1166	27.45	1.63	-1.500			
0.8930	57150.40	3.0040	3.0040	-0.1149	27.46	1.64	-1.500			
