Ah_balance (normalized)	Ah_balance (mAh)	Voltage - fit (V)	Voltage -  interpolate (V)	dQ/dV (1/V)	Temperature (°C)	Temperature - diff (°C)	Current (C)	R_DC 0ms (mOhm)	R_DC 50ms (mOhm)	R_DC 50 ms PEC (mOhm)
0.1961	12549.36	3.9270	3.9269	-0.0851	25.78	0.00	-1.500			
0.1964	12568.83	3.9240	3.9239	-0.1177	25.78	0.00	-1.500			
0.1968	12595.04	3.9210	3.9210	-0.1499	25.78	0.00	-1.500			
0.1973	12627.41	3.9180	3.9179	-0.1790	25.78	0.00	-1.500			
0.1979	12664.88	3.9150	3.9150	-0.2063	25.78	0.00	-1.500			
0.1986	12707.32	3.9120	3.9121	-0.2327	25.78	0.00	-1.500			
0.1993	12755.31	3.9090	3.9090	-0.2595	25.78	0.00	-1.500			
0.2001	12807.43	3.9060	3.9060	-0.2852	25.78	0.00	-1.500			
0.2010	12864.48	3.9030	3.9029	-0.3101	25.78	0.00	-1.500			
0.2020	12926.91	3.9000	3.9000	-0.3338	25.78	0.00	-1.500			
0.2030	12993.06	3.8970	3.8970	-0.3595	25.78	0.00	-1.500			
0.2041	13064.93	3.8940	3.8941	-0.3832	25.78	0.00	-1.500			
0.2053	13140.78	3.8910	3.8910	-0.4058	25.78	0.00	-1.500			
0.2066	13220.72	3.8880	3.8880	-0.4305	25.78	0.00	-1.500			
0.2079	13305.78	3.8850	3.8850	-0.4537	25.78	0.00	-1.500			
0.2093	13395.24	3.8820	3.8820	-0.4774	25.78	0.00	-1.500			
0.2108	13489.87	3.8790	3.8790	-0.4986	25.78	0.00	-1.500			
0.2123	13587.80	3.8760	3.8760	-0.5172	25.78	0.00	-1.500			
0.2139	13690.14	3.8730	3.8730	-0.5355	25.78	0.00	-1.500			
0.2155	13795.00	3.8700	3.8701	-0.5514	25.78	0.00	-1.500			
0.2172	13901.95	3.8670	3.8670	-0.5648	25.78	0.00	-1.500			
0.2189	14012.58	3.8640	3.8640	-0.5787	25.78	0.00	-1.500			
0.2207	14124.94	3.8610	3.8610	-0.5896	25.78	0.00	-1.500			
0.2225	14239.69	3.8580	3.8580	-0.6025	25.78	0.00	-1.500			
0.2243	14356.20	3.8550	3.8550	-0.6110	25.78	0.00	-1.500			
0.2262	14474.79	3.8520	3.8520	-0.6208	25.78	0.00	-1.500			
0.2280	14594.34	3.8490	3.8490	-0.6285	25.78	0.00	-1.500			
0.2299	14715.64	3.8460	3.8460	-0.6383	25.79	0.01	-1.500			
0.2319	14839.82	3.8430	3.8430	-0.6466	25.79	0.01	-1.500			
0.2338	14965.24	3.8400	3.8399	-0.6541	25.79	0.01	-1.500			
0.2358	15091.91	3.8370	3.8370	-0.6594	25.80	0.02	-1.500			
0.2378	15219.56	3.8340	3.8341	-0.6652	25.80	0.02	-1.500			
0.2398	15348.32	3.8310	3.8309	-0.6681	25.80	0.02	-1.500			
0.2418	15477.07	3.8280	3.8280	-0.6691	25.80	0.02	-1.500			
0.2438	15604.49	3.8250	3.8250	-0.6707	25.81	0.03	-1.500			
0.2458	15734.10	3.8220	3.8221	-0.6709	25.81	0.03	-1.500			
0.2479	15862.86	3.8190	3.8189	-0.6742	25.81	0.03	-1.500			
0.2499	15992.41	3.8160	3.8159	-0.6766	25.82	0.04	-1.500			
0.2519	16122.27	3.8130	3.8130	-0.6771	25.82	0.04	-1.500			
0.2539	16252.78	3.8100	3.8100	-0.6779	25.83	0.05	-1.500			
0.2560	16383.80	3.8070	3.8071	-0.6799	25.83	0.05	-1.500			
0.2580	16513.34	3.8040	3.8040	-0.6813	25.84	0.06	-1.500			
0.2601	16645.31	3.8010	3.8009	-0.6866	25.84	0.06	-1.500			
0.2621	16777.18	3.7980	3.7980	-0.6822	25.85	0.07	-1.500			
0.2642	16908.35	3.7950	3.7951	-0.6860	25.85	0.07	-1.500			
0.2663	17041.41	3.7920	3.7920	-0.6884	25.86	0.08	-1.500			
0.2683	17173.87	3.7890	3.7890	-0.6862	25.86	0.08	-1.500			
0.2704	17304.16	3.7860	3.7859	-0.6826	25.87	0.09	-1.500			
0.2724	17434.04	3.7830	3.7831	-0.6833	25.87	0.09	-1.500			
0.2745	17565.91	3.7800	3.7800	-0.6854	25.88	0.10	-1.500			
0.2765	17697.71	3.7770	3.7770	-0.6888	25.88	0.10	-1.500			
0.2786	17828.85	3.7740	3.7740	-0.6886	25.89	0.11	-1.500			
0.2807	17962.72	3.7710	3.7710	-0.6916	25.89	0.11	-1.500			
0.2827	18095.70	3.7680	3.7679	-0.6923	25.90	0.12	-1.500			
0.2848	18228.55	3.7650	3.7651	-0.6947	25.91	0.13	-1.500			
0.2869	18361.81	3.7620	3.7620	-0.6961	25.91	0.13	-1.500			
0.2890	18495.87	3.7590	3.7590	-0.6994	25.92	0.14	-1.500			
0.2911	18630.11	3.7560	3.7559	-0.7015	25.93	0.15	-1.500			
0.2932	18764.56	3.7530	3.7531	-0.7047	25.93	0.15	-1.500			
0.2953	18901.21	3.7500	3.7500	-0.7067	25.94	0.16	-1.500			
0.2974	19036.71	3.7470	3.7470	-0.7092	25.95	0.17	-1.500			
0.2996	19172.24	3.7440	3.7440	-0.7139	25.95	0.17	-1.500			
0.3017	19309.50	3.7410	3.7410	-0.7157	25.96	0.18	-1.500			
0.3039	19446.68	3.7380	3.7379	-0.7216	25.97	0.19	-1.500			
0.3060	19585.91	3.7350	3.7351	-0.7260	25.98	0.20	-1.500			
0.3082	19725.93	3.7320	3.7319	-0.7316	25.99	0.21	-1.500			
0.3104	19868.07	3.7290	3.7290	-0.7349	26.00	0.22	-1.500			
0.3126	20008.61	3.7260	3.7260	-0.7379	26.01	0.23	-1.500			
0.3148	20149.68	3.7230	3.7230	-0.7424	26.01	0.23	-1.500			
0.3171	20293.20	3.7200	3.7199	-0.7512	26.02	0.24	-1.500			
0.3193	20436.59	3.7170	3.7170	-0.7563	26.03	0.25	-1.500			
0.3216	20583.15	3.7140	3.7141	-0.7654	26.04	0.26	-1.500			
0.3239	20731.97	3.7110	3.7110	-0.7718	26.05	0.27	-1.500			
0.3263	20880.87	3.7080	3.7081	-0.7818	26.06	0.28	-1.500			
0.3286	21029.99	3.7050	3.7050	-0.7887	26.07	0.29	-1.500			
0.3310	21182.18	3.7020	3.7021	-0.7987	26.08	0.30	-1.500			
0.3334	21336.64	3.6990	3.6990	-0.8061	26.08	0.30	-1.500			
0.3358	21493.52	3.6960	3.6960	-0.8169	26.09	0.31	-1.500			
0.3383	21650.73	3.6930	3.6930	-0.8261	26.10	0.32	-1.500			
0.3408	21810.88	3.6900	3.6901	-0.8358	26.11	0.33	-1.500			
0.3433	21971.16	3.6870	3.6870	-0.8401	26.11	0.33	-1.500			
0.3458	22132.63	3.6840	3.6840	-0.8492	26.12	0.34	-1.500			
0.3484	22296.91	3.6810	3.6811	-0.8618	26.13	0.35	-1.500			
0.3510	22462.80	3.6780	3.6779	-0.8772	26.14	0.36	-1.500			
0.3536	22631.93	3.6750	3.6750	-0.8884	26.15	0.37	-1.500			
0.3563	22803.60	3.6720	3.6720	-0.8997	26.15	0.37	-1.500			
0.3590	22977.96	3.6690	3.6690	-0.9160	26.16	0.38	-1.500			
0.3618	23156.34	3.6660	3.6659	-0.9286	26.17	0.39	-1.500			
0.3646	23333.94	3.6630	3.6630	-0.9429	26.17	0.39	-1.500			
0.3674	23516.45	3.6600	3.6600	-0.9576	26.18	0.40	-1.500			
0.3703	23701.32	3.6570	3.6570	-0.9716	26.19	0.41	-1.500			
0.3733	23891.12	3.6540	3.6539	-0.9872	26.19	0.41	-1.500			
0.3763	24083.09	3.6510	3.6512	-1.0005	26.20	0.42	-1.500			
0.3793	24275.13	3.6480	3.6480	-1.0154	26.21	0.43	-1.500			
0.3824	24471.32	3.6450	3.6450	-1.0320	26.21	0.43	-1.500			
0.3855	24670.22	3.6420	3.6420	-1.0443	26.22	0.44	-1.500			
0.3886	24868.14	3.6390	3.6389	-1.0720	26.23	0.45	-1.500			
0.3918	25077.55	3.6360	3.6360	-1.0924	26.24	0.46	-1.500			
0.3952	25292.89	3.6330	3.6330	-1.1078	26.25	0.47	-1.500			
0.3985	25507.03	3.6300	3.6300	-1.1214	26.25	0.47	-1.500			
0.4019	25724.13	3.6270	3.6272	-1.1346	26.26	0.48	-1.500			
0.4054	25943.89	3.6240	3.6239	-1.1487	26.27	0.49	-1.500			
0.4088	26162.45	3.6210	3.6210	-1.1640	26.27	0.49	-1.500			
0.4123	26385.02	3.6180	3.6180	-1.1797	26.28	0.50	-1.500			
0.4159	26617.03	3.6150	3.6150	-1.2044	26.28	0.50	-1.500			
0.4195	26850.14	3.6120	3.6120	-1.2224	26.29	0.51	-1.500			
0.4232	27086.85	3.6090	3.6090	-1.2372	26.30	0.52	-1.500			
0.4270	27326.07	3.6060	3.6060	-1.2592	26.30	0.52	-1.500			
0.4308	27569.76	3.6030	3.6030	-1.2747	26.31	0.53	-1.500			
0.4346	27815.64	3.6000	3.5999	-1.2943	26.31	0.53	-1.500			
0.4385	28066.23	3.5970	3.5971	-1.3217	26.31	0.53	-1.500			
0.4426	28324.39	3.5940	3.5939	-1.3344	26.32	0.54	-1.500			
0.4466	28581.74	3.5910	3.5910	-1.3485	26.32	0.54	-1.500			
0.4507	28842.32	3.5880	3.5881	-1.3695	26.33	0.55	-1.500			
0.4548	29105.46	3.5850	3.5850	-1.3844	26.33	0.55	-1.500			
0.4590	29373.72	3.5820	3.5819	-1.4032	26.34	0.56	-1.500			
0.4632	29641.82	3.5790	3.5791	-1.4274	26.34	0.56	-1.500			
0.4675	29918.93	3.5760	3.5760	-1.4462	26.35	0.57	-1.500			
0.4720	30205.07	3.5730	3.5729	-1.4761	26.35	0.57	-1.500			
0.4764	30488.26	3.5700	3.5700	-1.4938	26.36	0.58	-1.500			
0.4809	30777.43	3.5670	3.5671	-1.5041	26.37	0.59	-1.500			
0.4854	31068.11	3.5640	3.5639	-1.5270	26.38	0.60	-1.500			
0.4900	31361.93	3.5610	3.5610	-1.5435	26.39	0.61	-1.500			
0.4947	31658.01	3.5580	3.5580	-1.5608	26.40	0.62	-1.500			
0.4994	31961.25	3.5550	3.5549	-1.5790	26.41	0.63	-1.500			
0.5042	32267.53	3.5520	3.5520	-1.5950	26.41	0.63	-1.500			
0.5090	32573.70	3.5490	3.5490	-1.6123	26.42	0.64	-1.500			
0.5139	32887.51	3.5460	3.5460	-1.6341	26.43	0.65	-1.500			
0.5187	33197.88	3.5430	3.5430	-1.6537	26.43	0.65	-1.500			
0.5237	33519.06	3.5400	3.5400	-1.6751	26.44	0.66	-1.500			
0.5288	33843.83	3.5370	3.5370	-1.6907	26.45	0.67	-1.500			
0.5339	34170.86	3.5340	3.5340	-1.7118	26.46	0.68	-1.500	0.382	0.521	
0.5391	34505.04	3.5310	3.5309	-1.7154	26.47	0.69	-1.500			
0.5443	34834.36	3.5280	3.5280	-1.7198	26.48	0.70	-1.500			
0.5495	35166.22	3.5250	3.5250	-1.7206	26.49	0.71	-1.500			
0.5546	35492.85	3.5220	3.5219	-1.7246	26.50	0.72	-1.500			
0.5597	35823.28	3.5190	3.5190	-1.7372	26.51	0.73	-1.500			
0.5650	36158.77	3.5160	3.5160	-1.7495	26.52	0.74	-1.500			
0.5703	36498.29	3.5130	3.5130	-1.7624	26.53	0.75	-1.500			
0.5756	36836.90	3.5100	3.5100	-1.7665	26.54	0.76	-1.500			
0.5809	37176.17	3.5070	3.5071	-1.7692	26.55	0.77	-1.500			
0.5862	37517.26	3.5040	3.5039	-1.7779	26.56	0.78	-1.500			
0.5915	37858.54	3.5010	3.5010	-1.7644	26.58	0.80	-1.500			
0.5968	38196.53	3.4980	3.4980	-1.7623	26.59	0.81	-1.500			
0.6022	38538.57	3.4950	3.4950	-1.7585	26.60	0.82	-1.500			
0.6074	38874.67	3.4920	3.4919	-1.7495	26.61	0.83	-1.500			
0.6126	39208.83	3.4890	3.4891	-1.7520	26.62	0.84	-1.500			
0.6179	39547.88	3.4860	3.4859	-1.7339	26.63	0.85	-1.500			
0.6231	39879.04	3.4830	3.4830	-1.7252	26.64	0.86	-1.500			
0.6283	40211.61	3.4800	3.4801	-1.7136	26.65	0.87	-1.500			
0.6334	40535.77	3.4770	3.4769	-1.7019	26.66	0.88	-1.500			
0.6385	40861.08	3.4740	3.4740	-1.6796	26.67	0.89	-1.500			
0.6435	41180.87	3.4710	3.4709	-1.6606	26.68	0.90	-1.500			
0.6485	41503.05	3.4680	3.4680	-1.6505	26.69	0.91	-1.500			
0.6534	41819.88	3.4650	3.4649	-1.6357	26.71	0.93	-1.500			
0.6583	42129.59	3.4620	3.4620	-1.6137	26.72	0.94	-1.500			
0.6631	42439.55	3.4590	3.4590	-1.5817	26.73	0.95	-1.500			
0.6678	42740.06	3.4560	3.4560	-1.5548	26.74	0.96	-1.500			
0.6725	43039.59	3.4530	3.4530	-1.5347	26.75	0.97	-1.500			
0.6770	43329.69	3.4500	3.4501	-1.5084	26.76	0.98	-1.500			
0.6815	43616.12	3.4470	3.4470	-1.4844	26.78	1.00	-1.500			
0.6859	43894.67	3.4440	3.4440	-1.4692	26.79	1.01	-1.500			
0.6903	44178.26	3.4410	3.4410	-1.4491	26.81	1.03	-1.500			
0.6946	44456.96	3.4380	3.4379	-1.4392	26.82	1.04	-1.500			
0.6989	44730.44	3.4350	3.4350	-1.4075	26.83	1.05	-1.500			
0.7031	44998.43	3.4320	3.4320	-1.3912	26.85	1.07	-1.500			
0.7072	45262.61	3.4290	3.4290	-1.3734	26.86	1.08	-1.500			
0.7113	45522.79	3.4260	3.4259	-1.3566	26.87	1.09	-1.500			
0.7153	45778.46	3.4230	3.4230	-1.3453	26.89	1.11	-1.500			
0.7194	46040.73	3.4200	3.4200	-1.3410	26.90	1.12	-1.500			
0.7234	46297.41	3.4170	3.4170	-1.3252	26.91	1.13	-1.500			
0.7274	46553.68	3.4140	3.4140	-1.3046	26.92	1.14	-1.500			
0.7313	46802.27	3.4110	3.4110	-1.2728	26.94	1.16	-1.500			
0.7351	47044.85	3.4080	3.4080	-1.2468	26.95	1.17	-1.500			
0.7388	47280.10	3.4050	3.4050	-1.2159	26.97	1.19	-1.500			
0.7424	47511.20	3.4020	3.4019	-1.1812	26.98	1.20	-1.500			
0.7459	47735.34	3.3990	3.3990	-1.1473	26.99	1.21	-1.500			
0.7493	47953.17	3.3960	3.3960	-1.1138	27.00	1.22	-1.500			
0.7526	48163.49	3.3930	3.3930	-1.0823	27.02	1.24	-1.500			
0.7558	48368.72	3.3900	3.3900	-1.0450	27.03	1.25	-1.500			
0.7588	48564.58	3.3870	3.3869	-1.0060	27.04	1.26	-1.500			
0.7618	48755.10	3.3840	3.3840	-0.9703	27.05	1.27	-1.500			
0.7647	48938.14	3.3810	3.3811	-0.9356	27.07	1.29	-1.500			
0.7674	49112.37	3.3780	3.3780	-0.9074	27.08	1.30	-1.500			
0.7701	49283.60	3.3750	3.3750	-0.8741	27.09	1.31	-1.500			
0.7726	49447.28	3.3720	3.3719	-0.8399	27.10	1.32	-1.500			
0.7751	49607.24	3.3690	3.3691	-0.8124	27.11	1.33	-1.500			
0.7775	49760.40	3.3660	3.3660	-0.7853	27.11	1.33	-1.500			
0.7798	49908.40	3.3630	3.3629	-0.7563	27.12	1.34	-1.500			
0.7820	50049.00	3.3600	3.3600	-0.7247	27.13	1.35	-1.500			
0.7841	50184.68	3.3570	3.3570	-0.7000	27.14	1.36	-1.500			
0.7862	50317.39	3.3540	3.3541	-0.6813	27.14	1.36	-1.500			
0.7882	50445.83	3.3510	3.3509	-0.6613	27.15	1.37	-1.500			
0.7902	50570.43	3.3480	3.3479	-0.6393	27.15	1.37	-1.500			
0.7920	50690.43	3.3450	3.3450	-0.6191	27.16	1.38	-1.500			
0.7939	50807.55	3.3420	3.3422	-0.6075	27.17	1.39	-1.500			
0.7957	50922.59	3.3390	3.3389	-0.5945	27.17	1.39	-1.500			
0.7974	51035.54	3.3360	3.3359	-0.5785	27.18	1.40	-1.500			
0.7991	51144.81	3.3330	3.3330	-0.5619	27.18	1.40	-1.500			
0.8008	51252.03	3.3300	3.3301	-0.5475	27.19	1.41	-1.500			
0.8025	51357.34	3.3270	3.3270	-0.5321	27.20	1.42	-1.500			
0.8040	51457.28	3.3240	3.3240	-0.5125	27.21	1.43	-1.500			
0.8055	51551.92	3.3210	3.3210	-0.4932	27.21	1.43	-1.500			
0.8070	51644.98	3.3180	3.3180	-0.4814	27.22	1.44	-1.500			
0.8084	51735.98	3.3150	3.3150	-0.4700	27.23	1.45	-1.500			
0.8098	51824.82	3.3120	3.3119	-0.4569	27.24	1.46	-1.500			
0.8111	51912.37	3.3090	3.3090	-0.4449	27.24	1.46	-1.500			
0.8125	51996.82	3.3060	3.3060	-0.4331	27.25	1.47	-1.500			
0.8137	52078.61	3.3030	3.3030	-0.4204	27.26	1.48	-1.500			
0.8150	52157.62	3.3000	3.3000	-0.4085	27.27	1.49	-1.500			
0.8161	52233.31	3.2970	3.2970	-0.3978	27.27	1.49	-1.500			
0.8173	52308.96	3.2940	3.2939	-0.3889	27.28	1.50	-1.500			
0.8185	52383.49	3.2910	3.2910	-0.3801	27.28	1.50	-1.500			
0.8196	52455.35	3.2880	3.2881	-0.3717	27.29	1.51	-1.500			
0.8207	52526.08	3.2850	3.2850	-0.3627	27.29	1.51	-1.500			
0.8218	52595.02	3.2820	3.2820	-0.3557	27.30	1.52	-1.500			
0.8228	52661.90	3.2790	3.2789	-0.3468	27.30	1.52	-1.500			
0.8239	52727.60	3.2760	3.2760	-0.3373	27.30	1.52	-1.500			
0.8249	52792.12	3.2730	3.2731	-0.3309	27.31	1.53	-1.500			
0.8259	52855.25	3.2700	3.2699	-0.3234	27.31	1.53	-1.500			
0.8268	52915.47	3.2670	3.2671	-0.3159	27.31	1.53	-1.500			
0.8277	52975.39	3.2640	3.2639	-0.3092	27.32	1.54	-1.500			
0.8287	53033.91	3.2610	3.2610	-0.3023	27.33	1.55	-1.500			
0.8296	53092.07	3.2580	3.2580	-0.2968	27.33	1.55	-1.500			
0.8304	53148.27	3.2550	3.2551	-0.2909	27.34	1.56	-1.500			
0.8313	53203.59	3.2520	3.2520	-0.2852	27.35	1.57	-1.500			
0.8322	53257.89	3.2490	3.2490	-0.2798	27.35	1.57	-1.500			
0.8330	53310.26	3.2460	3.2460	-0.2741	27.36	1.58	-1.500			
0.8338	53362.76	3.2430	3.2430	-0.2704	27.36	1.58	-1.500			
0.8346	53414.60	3.2400	3.2400	-0.2665	27.37	1.59	-1.500			
0.8354	53465.33	3.2370	3.2370	-0.2621	27.37	1.59	-1.500			
0.8362	53515.02	3.2340	3.2340	-0.2576	27.38	1.60	-1.500			
0.8369	53564.30	3.2310	3.2310	-0.2534	27.38	1.60	-1.500			
0.8377	53612.60	3.2280	3.2280	-0.2491	27.39	1.61	-1.500			
0.8384	53659.81	3.2250	3.2250	-0.2450	27.39	1.61	-1.500			
0.8392	53706.69	3.2220	3.2221	-0.2408	27.40	1.62	-1.500			
0.8399	53752.36	3.2190	3.2190	-0.2363	27.40	1.62	-1.500			
0.8406	53797.27	3.2160	3.2160	-0.2330	27.41	1.63	-1.500			
0.8413	53841.37	3.2130	3.2130	-0.2288	27.41	1.63	-1.500			
0.8419	53884.69	3.2100	3.2100	-0.2254	27.42	1.64	-1.500			
0.8426	53927.78	3.2070	3.2070	-0.2228	27.42	1.64	-1.500			
0.8433	53970.13	3.2040	3.2040	-0.2195	27.42	1.64	-1.500			
0.8439	54012.04	3.2010	3.2010	-0.2171	27.43	1.65	-1.500			
0.8446	54053.51	3.1980	3.1980	-0.2157	27.43	1.65	-1.500			
0.8452	54094.88	3.1950	3.1950	-0.2128	27.44	1.66	-1.500			
0.8459	54135.49	3.1920	3.1919	-0.2099	27.44	1.66	-1.500			
0.8465	54175.54	3.1890	3.1891	-0.2072	27.44	1.66	-1.500			
0.8471	54215.20	3.1860	3.1861	-0.2046	27.45	1.67	-1.500			
0.8477	54254.23	3.1830	3.1829	-0.2021	27.45	1.67	-1.500			
0.8483	54292.51	3.1800	3.1800	-0.1994	27.45	1.67	-1.500			
0.8489	54330.58	3.1770	3.1769	-0.1971	27.46	1.68	-1.500			
0.8495	54367.76	3.1740	3.1740	-0.1948	27.46	1.68	-1.500			
0.8501	54405.17	3.1710	3.1709	-0.1936	27.46	1.68	-1.500			
0.8507	54442.05	3.1680	3.1680	-0.1919	27.47	1.69	-1.500			
0.8512	54478.77	3.1650	3.1651	-0.1906	27.47	1.69	-1.500			
0.8518	54515.41	3.1620	3.1620	-0.1884	27.48	1.70	-1.500			
0.8524	54551.58	3.1590	3.1590	-0.1863	27.48	1.70	-1.500			
0.8529	54587.10	3.1560	3.1560	-0.1842	27.49	1.71	-1.500			
0.8535	54622.22	3.1530	3.1531	-0.1817	27.49	1.71	-1.500			
0.8540	54656.90	3.1500	3.1500	-0.1794	27.50	1.72	-1.500			
0.8545	54690.82	3.1470	3.1471	-0.1776	27.51	1.73	-1.500			
0.8551	54724.40	3.1440	3.1440	-0.1758	27.51	1.73	-1.500			
0.8556	54758.08	3.1410	3.1409	-0.1751	27.52	1.74	-1.500			
0.8561	54791.70	3.1380	3.1379	-0.1742	27.52	1.74	-1.500			
0.8566	54825.33	3.1350	3.1349	-0.1724	27.53	1.75	-1.500			
0.8572	54858.41	3.1320	3.1321	-0.1710	27.53	1.75	-1.500			
0.8577	54891.04	3.1290	3.1289	-0.1689	27.54	1.76	-1.500			
0.8582	54923.43	3.1260	3.1261	-0.1675	27.54	1.76	-1.500			
0.8587	54954.90	3.1230	3.1229	-0.1661	27.55	1.77	-1.500			
0.8592	54986.49	3.1200	3.1200	-0.1644	27.55	1.77	-1.500			
0.8597	55018.03	3.1170	3.1170	-0.1640	27.56	1.78	-1.500			
0.8601	55049.41	3.1140	3.1140	-0.1633	27.56	1.78	-1.500			
0.8606	55081.22	3.1110	3.1111	-0.1628	27.57	1.79	-1.500			
0.8611	55112.49	3.1080	3.1078	-0.1615	27.57	1.79	-1.500			
0.8616	55143.40	3.1050	3.1050	-0.1592	27.58	1.80	-1.500			
0.8621	55173.74	3.1020	3.1020	-0.1579	27.58	1.80	-1.500			
0.8626	55203.30	3.0990	3.0990	-0.1565	27.59	1.81	-1.500			
0.8630	55233.31	3.0960	3.0960	-0.1560	27.59	1.81	-1.500			
0.8635	55263.11	3.0930	3.0930	-0.1548	27.60	1.82	-1.500			
0.8639	55292.74	3.0900	3.0900	-0.1536	27.60	1.82	-1.500			
0.8644	55322.31	3.0870	3.0871	-0.1536	27.61	1.83	-1.500			
0.8649	55351.73	3.0840	3.0841	-0.1528	27.61	1.83	-1.500			
0.8653	55381.17	3.0810	3.0810	-0.1523	27.62	1.84	-1.500			
0.8658	55410.34	3.0780	3.0779	-0.1504	27.62	1.84	-1.500			
0.8662	55439.09	3.0750	3.0750	-0.1486	27.63	1.85	-1.500			
0.8667	55467.48	3.0720	3.0721	-0.1472	27.63	1.85	-1.500			
0.8671	55495.88	3.0690	3.0691	-0.1463	27.64	1.86	-1.500			
0.8676	55523.60	3.0660	3.0661	-0.1453	27.64	1.86	-1.500			
0.8680	55551.00	3.0630	3.0629	-0.1438	27.65	1.87	-1.500			
0.8684	55578.60	3.0600	3.0600	-0.1436	27.65	1.87	-1.500			
0.8688	55606.14	3.0570	3.0570	-0.1426	27.66	1.88	-1.500			
0.8693	55633.62	3.0540	3.0539	-0.1426	27.66	1.88	-1.500			
0.8697	55661.06	3.0510	3.0511	-0.1421	27.67	1.89	-1.500			
0.8701	55688.32	3.0480	3.0480	-0.1408	27.67	1.89	-1.500			
0.8706	55715.30	3.0450	3.0449	-0.1396	27.68	1.90	-1.500			
0.8710	55741.83	3.0420	3.0421	-0.1384	27.68	1.90	-1.500			
0.8714	55768.28	3.0390	3.0390	-0.1374	27.69	1.91	-1.500			
0.8718	55794.58	3.0360	3.0360	-0.1364	27.69	1.91	-1.500			
0.8722	55820.62	3.0330	3.0329	-0.1361	27.70	1.92	-1.500			
0.8726	55846.51	3.0300	3.0301	-0.1348	27.70	1.92	-1.500			
0.8730	55872.37	3.0270	3.0269	-0.1346	27.71	1.93	-1.500			
0.8734	55898.47	3.0240	3.0239	-0.1334	27.71	1.93	-1.500			
0.8738	55923.92	3.0210	3.0210	-0.1329	27.72	1.94	-1.500			
0.8742	55949.30	3.0180	3.0180	-0.1319	27.72	1.94	-1.500			
0.8746	55974.53	3.0150	3.0151	-0.1311	27.73	1.95	-1.500			
0.8750	55999.62	3.0120	3.0119	-0.1303	27.73	1.95	-1.500			
0.8754	56024.25	3.0090	3.0092	-0.1298	27.74	1.96	-1.500			
0.8758	56049.16	3.0060	3.0060	-0.1299	27.74	1.96	-1.500			
0.8762	56074.10	3.0030	3.0030	-0.1300	27.75	1.97	-1.500			
