Ah_balance (normalized)	Ah_balance (mAh)	Voltage - fit (V)	Voltage -  interpolate (V)	dQ/dV (1/V)	Temperature (°C)	Temperature - diff (°C)	Current (C)	R_DC 0ms (mOhm)	R_DC 50ms (mOhm)	R_DC 50 ms PEC (mOhm)
0.2838	18161.38	3.9870	3.9870	0.8077	27.13	1.18	1.500			
0.2863	18322.55	3.9840	3.9839	0.8479	27.13	1.18	1.500			
0.2888	18484.85	3.9810	3.9810	0.8465	27.12	1.17	1.500			
0.2913	18646.32	3.9780	3.9780	0.8537	27.12	1.17	1.500			
0.2939	18812.11	3.9750	3.9750	0.8587	27.12	1.17	1.500			
0.2965	18977.10	3.9720	3.9718	0.8635	27.11	1.16	1.500			
0.2991	19143.15	3.9690	3.9691	0.8634	27.11	1.16	1.500			
0.3017	19308.65	3.9660	3.9660	0.8680	27.11	1.16	1.500			
0.3043	19477.17	3.9630	3.9630	0.8709	27.10	1.15	1.500			
0.3070	19645.64	3.9600	3.9600	0.8675	27.10	1.15	1.500			
0.3095	19809.56	3.9570	3.9570	0.8715	27.10	1.15	1.500			
0.3122	19978.85	3.9540	3.9541	0.8771	27.10	1.15	1.500			
0.3148	20146.90	3.9510	3.9511	0.8784	27.09	1.14	1.500			
0.3174	20316.50	3.9480	3.9479	0.8840	27.09	1.14	1.500			
0.3201	20485.59	3.9450	3.9451	0.8890	27.08	1.13	1.500			
0.3228	20656.93	3.9420	3.9420	0.8981	27.08	1.13	1.500			
0.3255	20830.07	3.9390	3.9389	0.9014	27.07	1.12	1.500			
0.3282	21003.40	3.9360	3.9361	0.9032	27.06	1.11	1.500			
0.3309	21179.36	3.9330	3.9330	0.9085	27.06	1.11	1.500			
0.3337	21353.62	3.9300	3.9300	0.9096	27.05	1.10	1.500			
0.3364	21527.42	3.9270	3.9271	0.9118	27.04	1.09	1.500			
0.3391	21701.87	3.9240	3.9240	0.9166	27.04	1.09	1.500			
0.3418	21878.17	3.9210	3.9210	0.9228	27.03	1.08	1.500			
0.3446	22057.00	3.9180	3.9180	0.9309	27.02	1.07	1.500			
0.3474	22235.48	3.9150	3.9151	0.9425	27.02	1.07	1.500			
0.3503	22418.24	3.9120	3.9120	0.9505	27.01	1.06	1.500			
0.3531	22601.31	3.9090	3.9089	0.9546	27.01	1.06	1.500			
0.3560	22786.00	3.9060	3.9060	0.9584	27.00	1.05	1.500			
0.3589	22970.85	3.9030	3.9030	0.9622	27.00	1.05	1.500			
0.3618	23156.20	3.9000	3.9000	0.9713	26.99	1.04	1.500			
0.3647	23342.15	3.8970	3.8971	0.9809	26.98	1.03	1.500			
0.3677	23529.66	3.8940	3.8940	0.9841	26.98	1.03	1.500			
0.3706	23720.69	3.8910	3.8911	0.9950	26.97	1.02	1.500			
0.3736	23912.98	3.8880	3.8880	1.0031	26.97	1.02	1.500			
0.3766	24105.22	3.8850	3.8850	1.0156	26.96	1.01	1.500			
0.3797	24301.59	3.8820	3.8820	1.0246	26.95	1.00	1.500			
0.3828	24498.39	3.8790	3.8789	1.0335	26.95	1.00	1.500			
0.3859	24698.01	3.8760	3.8760	1.0437	26.94	0.99	1.500			
0.3891	24901.21	3.8730	3.8730	1.0561	26.94	0.99	1.500			
0.3923	25104.97	3.8700	3.8700	1.0665	26.93	0.98	1.500			
0.3955	25310.41	3.8670	3.8670	1.0760	26.92	0.97	1.500			
0.3987	25515.52	3.8640	3.8640	1.0842	26.90	0.95	1.500			
0.4020	25725.32	3.8610	3.8609	1.1023	26.89	0.94	1.500			
0.4053	25937.68	3.8580	3.8580	1.1178	26.88	0.93	1.500			
0.4086	26153.05	3.8550	3.8550	1.1405	26.87	0.92	1.500			
0.4121	26374.93	3.8520	3.8519	1.1602	26.86	0.91	1.500			
0.4156	26600.11	3.8490	3.8489	1.1755	26.84	0.89	1.500			
0.4192	26827.18	3.8460	3.8460	1.1937	26.83	0.88	1.500			
0.4228	27057.13	3.8430	3.8431	1.2128	26.83	0.88	1.500			
0.4264	27291.60	3.8400	3.8400	1.2295	26.82	0.87	1.500			
0.4302	27529.90	3.8370	3.8370	1.2452	26.81	0.86	1.500			
0.4339	27769.45	3.8340	3.8340	1.2659	26.80	0.85	1.500			
0.4377	28015.00	3.8310	3.8311	1.2916	26.79	0.84	1.500			
0.4416	28265.23	3.8280	3.8280	1.3119	26.78	0.83	1.500			
0.4456	28517.65	3.8250	3.8250	1.3377	26.77	0.82	1.500			
0.4496	28776.34	3.8220	3.8221	1.3696	26.75	0.80	1.500			
0.4538	29042.08	3.8190	3.8190	1.3959	26.74	0.79	1.500			
0.4580	29313.10	3.8160	3.8160	1.4260	26.73	0.78	1.500			
0.4623	29588.25	3.8130	3.8131	1.4508	26.71	0.76	1.500			
0.4667	29870.61	3.8100	3.8099	1.4848	26.70	0.75	1.500			
0.4712	30157.32	3.8070	3.8070	1.5087	26.68	0.73	1.500			
0.4758	30449.95	3.8040	3.8040	1.5371	26.66	0.71	1.500			
0.4804	30747.71	3.8010	3.8010	1.5798	26.65	0.70	1.500			
0.4852	31052.61	3.7980	3.7979	1.6123	26.63	0.68	1.500			
0.4901	31366.94	3.7950	3.7950	1.6530	26.61	0.66	1.500			
0.4951	31688.61	3.7920	3.7920	1.6808	26.59	0.64	1.500			
0.5003	32016.28	3.7890	3.7890	1.7030	26.58	0.63	1.500			
0.5054	32347.77	3.7860	3.7860	1.7371	26.57	0.62	1.500			
0.5107	32683.24	3.7830	3.7830	1.7455	26.55	0.60	1.500			
0.5159	33019.21	3.7800	3.7799	1.7783	26.54	0.59	1.500			
0.5213	33361.97	3.7770	3.7771	1.8068	26.52	0.57	1.500			
0.5268	33714.58	3.7740	3.7741	1.8160	26.50	0.55	1.500	0.348	0.461	
0.5323	34064.74	3.7710	3.7711	1.8245	26.48	0.53	1.500			
0.5378	34419.16	3.7680	3.7681	1.8302	26.46	0.51	1.500			
0.5433	34771.35	3.7650	3.7649	1.8201	26.44	0.49	1.500			
0.5487	35117.13	3.7620	3.7620	1.8075	26.42	0.47	1.500			
0.5541	35465.26	3.7590	3.7590	1.8159	26.40	0.45	1.500			
0.5595	35809.25	3.7560	3.7560	1.7950	26.39	0.44	1.500			
0.5649	36151.18	3.7530	3.7530	1.8001	26.37	0.42	1.500			
0.5703	36497.01	3.7500	3.7500	1.8108	26.36	0.41	1.500			
0.5757	36845.98	3.7470	3.7470	1.8251	26.34	0.39	1.500			
0.5812	37195.58	3.7440	3.7441	1.8601	26.33	0.38	1.500			
0.5868	37555.74	3.7410	3.7410	1.8927	26.31	0.36	1.500			
0.5925	37922.65	3.7380	3.7380	1.9180	26.30	0.35	1.500			
0.5983	38293.25	3.7350	3.7351	1.9448	26.28	0.33	1.500			
0.6042	38670.98	3.7320	3.7320	1.9842	26.26	0.31	1.500			
0.6102	39050.92	3.7290	3.7290	2.0379	26.25	0.30	1.500			
0.6163	39444.84	3.7260	3.7259	2.1108	26.23	0.28	1.500			
0.6229	39865.45	3.7230	3.7230	2.1727	26.21	0.26	1.500			
0.6295	40285.76	3.7200	3.7200	2.2242	26.20	0.25	1.500			
0.6361	40713.58	3.7170	3.7171	2.2805	26.18	0.23	1.500			
0.6431	41155.61	3.7140	3.7140	2.3600	26.17	0.22	1.500			
0.6503	41619.98	3.7110	3.7110	2.4251	26.15	0.20	1.500			
0.6577	42091.56	3.7080	3.7080	2.4667	26.14	0.19	1.500			
0.6651	42568.79	3.7050	3.7049	2.4735	26.12	0.17	1.500			
0.6727	43055.03	3.7020	3.7020	2.4256	26.11	0.16	1.500			
0.6800	43517.60	3.6990	3.6990	2.3259	26.10	0.15	1.500			
0.6868	43954.82	3.6960	3.6960	2.1752	26.09	0.14	1.500			
0.6930	44355.06	3.6930	3.6930	2.0122	26.08	0.13	1.500			
0.6988	44721.99	3.6900	3.6901	1.8543	26.07	0.12	1.500			
0.7041	45061.27	3.6870	3.6870	1.7291	26.07	0.12	1.500			
0.7090	45374.68	3.6840	3.6840	1.6081	26.07	0.12	1.500			
0.7136	45671.77	3.6810	3.6810	1.5174	26.06	0.11	1.500			
0.7180	45953.76	3.6780	3.6779	1.4472	26.06	0.11	1.500			
0.7222	46220.78	3.6750	3.6751	1.3837	26.05	0.10	1.500			
0.7263	46480.39	3.6720	3.6720	1.3389	26.04	0.09	1.500			
0.7302	46730.91	3.6690	3.6690	1.2977	26.04	0.09	1.500			
0.7339	46971.72	3.6660	3.6660	1.2763	26.03	0.08	1.500			
0.7377	47209.84	3.6630	3.6630	1.2566	26.03	0.08	1.500			
0.7414	47449.11	3.6600	3.6598	1.2584	26.02	0.07	1.500			
0.7451	47686.95	3.6570	3.6570	1.2605	26.01	0.06	1.500			
0.7489	47930.08	3.6540	3.6541	1.2741	26.01	0.06	1.500			
0.7528	48176.83	3.6510	3.6509	1.2845	26.00	0.05	1.500			
0.7566	48425.52	3.6480	3.6480	1.2916	26.00	0.05	1.500			
0.7606	48675.86	3.6450	3.6450	1.2926	25.99	0.04	1.500			
0.7645	48926.56	3.6420	3.6420	1.2941	25.98	0.03	1.500			
0.7684	49174.80	3.6390	3.6390	1.2845	25.98	0.03	1.500			
0.7722	49419.27	3.6360	3.6361	1.2768	25.97	0.02	1.500			
0.7760	49663.27	3.6330	3.6330	1.2730	25.96	0.01	1.500			
0.7798	49906.78	3.6300	3.6300	1.2697	25.96	0.01	1.500			
0.7836	50149.63	3.6270	3.6270	1.2668	25.95	0.00	1.500			
0.7874	50393.93	3.6240	3.6240	1.2639	25.95	-0.00	1.500			
0.7912	50635.98	3.6210	3.6209	1.2572	25.94	-0.01	1.500			
0.7950	50878.57	3.6180	3.6180	1.2500	25.94	-0.01	1.500			
0.7987	51117.18	3.6150	3.6150	1.2388	25.94	-0.01	1.500			
0.8024	51355.60	3.6120	3.6120	1.2234	25.94	-0.01	1.500			
0.8061	51587.70	3.6090	3.6090	1.2097	25.93	-0.02	1.500			
0.8097	51821.08	3.6060	3.6059	1.1918	25.93	-0.02	1.500			
0.8133	52049.06	3.6030	3.6030	1.1712	25.93	-0.02	1.500			
0.8167	52270.54	3.6000	3.5999	1.1516	25.93	-0.02	1.500			
0.8201	52489.55	3.5970	3.5970	1.1327	25.93	-0.02	1.500			
0.8235	52704.55	3.5940	3.5939	1.1118	25.94	-0.01	1.500			
0.8268	52916.38	3.5910	3.5910	1.0966	25.94	-0.01	1.500			
0.8301	53126.48	3.5880	3.5880	1.0663	25.94	-0.01	1.500			
0.8334	53334.69	3.5850	3.5850	1.0324	25.94	-0.01	1.500			
0.8365	53535.77	3.5820	3.5820	0.9829	25.95	-0.00	1.500			
0.8394	53724.70	3.5790	3.5790	0.8948	25.95	-0.00	1.500			
0.8421	53894.19	3.5760	3.5760	0.8041	25.95	0.00	1.500			
0.8444	54039.05	3.5730	3.5731	0.6960	25.95	0.00	1.500			
0.8463	54160.14	3.5700	3.5700	0.5844	25.95	0.00	1.500			
0.8478	54257.80	3.5670	3.5669	0.4915	25.95	0.00	1.500			
0.8490	54336.39	3.5640	3.5640	0.4067	25.96	0.01	1.500			
0.8500	54401.43	3.5610	3.5610	0.3413	25.96	0.01	1.500			
0.8509	54459.45	3.5580	3.5579	0.2972	25.96	0.01	1.500			
0.8517	54508.89	3.5550	3.5550	0.2532	25.96	0.01	1.500			
0.8524	54553.20	3.5520	3.5520	0.2254	25.96	0.01	1.500			
0.8530	54592.13	3.5490	3.5490	0.2020	25.96	0.01	1.500			
0.8536	54627.82	3.5460	3.5460	0.1823	25.96	0.01	1.500			
0.8541	54660.72	3.5430	3.5430	0.1641	25.96	0.01	1.500			
0.8545	54689.82	3.5400	3.5399	0.1485	25.96	0.01	1.500			
0.8549	54716.55	3.5370	3.5371	0.1333	25.96	0.01	1.500			
0.8553	54740.73	3.5340	3.5339	0.1188	25.96	0.01	1.500			
0.8557	54762.21	3.5310	3.5310	0.1050	25.96	0.01	1.500			
0.8560	54781.33	3.5280	3.5280	0.0915	25.96	0.01	1.500			
0.8562	54797.31	3.5250	3.5252	0.0772	25.96	0.01	1.500			
0.8564	54810.82	3.5220	3.5223	0.0635	25.96	0.01	1.500			
0.8566	54822.18	3.5190	3.5194	0.0479	25.96	0.01	1.500			
0.8567	54829.89	3.5160	3.5166	0.0325	25.96	0.01	1.500			
