Ah_balance (normalized)	Ah_balance (mAh)	Voltage - fit (V)	Voltage -  interpolate (V)	dQ/dV (1/V)	Temperature (°C)	Temperature - diff (°C)	Current (C)	R_DC 0ms (mOhm)	R_DC 50ms (mOhm)	R_DC 50 ms PEC (mOhm)
0.2789	17849.91	3.9910	3.9910	0.8154	27.27	1.30	1.500			
0.2814	18007.40	3.9880	3.9880	0.8241	27.26	1.29	1.500			
0.2839	18167.74	3.9850	3.9850	0.8337	27.26	1.29	1.500			
0.2864	18328.48	3.9820	3.9821	0.8392	27.25	1.28	1.500			
0.2889	18490.81	3.9790	3.9789	0.8435	27.25	1.28	1.500			
0.2915	18653.92	3.9760	3.9760	0.8468	27.24	1.27	1.500			
0.2940	18815.49	3.9730	3.9730	0.8488	27.24	1.27	1.500			
0.2966	18980.00	3.9700	3.9700	0.8542	27.23	1.26	1.500			
0.2991	19142.54	3.9670	3.9670	0.8552	27.23	1.26	1.500			
0.3017	19308.63	3.9640	3.9640	0.8610	27.22	1.25	1.500			
0.3043	19473.83	3.9610	3.9610	0.8645	27.22	1.25	1.500			
0.3069	19640.53	3.9580	3.9580	0.8683	27.21	1.24	1.500			
0.3095	19808.05	3.9550	3.9550	0.8734	27.21	1.24	1.500			
0.3121	19975.72	3.9520	3.9518	0.8741	27.20	1.23	1.500			
0.3147	20143.51	3.9490	3.9491	0.8811	27.20	1.23	1.500			
0.3174	20312.62	3.9460	3.9460	0.8859	27.19	1.22	1.500			
0.3201	20483.77	3.9430	3.9430	0.8911	27.19	1.22	1.500			
0.3227	20655.31	3.9400	3.9400	0.8974	27.18	1.21	1.500			
0.3255	20829.46	3.9370	3.9370	0.9005	27.17	1.20	1.500			
0.3282	21003.02	3.9340	3.9340	0.9004	27.17	1.20	1.500			
0.3309	21176.73	3.9310	3.9310	0.9037	27.16	1.19	1.500			
0.3336	21348.17	3.9280	3.9281	0.9065	27.16	1.19	1.500			
0.3363	21521.79	3.9250	3.9249	0.9133	27.15	1.18	1.500			
0.3390	21696.98	3.9220	3.9220	0.9237	27.15	1.18	1.500			
0.3418	21874.84	3.9190	3.9189	0.9284	27.14	1.17	1.500			
0.3446	22055.13	3.9160	3.9161	0.9374	27.13	1.16	1.500			
0.3475	22237.87	3.9130	3.9130	0.9447	27.13	1.16	1.500			
0.3503	22417.78	3.9100	3.9101	0.9534	27.12	1.15	1.500			
0.3532	22602.52	3.9070	3.9069	0.9555	27.11	1.14	1.500			
0.3560	22785.36	3.9040	3.9040	0.9633	27.11	1.14	1.500			
0.3589	22971.00	3.9010	3.9011	0.9725	27.10	1.13	1.500			
0.3619	23159.60	3.8980	3.8980	0.9826	27.09	1.12	1.500			
0.3648	23348.52	3.8950	3.8950	0.9874	27.09	1.12	1.500			
0.3678	23537.91	3.8920	3.8920	0.9989	27.08	1.11	1.500			
0.3708	23730.04	3.8890	3.8890	1.0062	27.07	1.10	1.500			
0.3738	23925.41	3.8860	3.8859	1.0137	27.06	1.09	1.500			
0.3769	24121.72	3.8830	3.8830	1.0198	27.06	1.09	1.500			
0.3800	24316.86	3.8800	3.8800	1.0336	27.05	1.08	1.500			
0.3831	24515.91	3.8770	3.8770	1.0466	27.04	1.07	1.500			
0.3862	24716.64	3.8740	3.8740	1.0609	27.03	1.06	1.500			
0.3894	24921.69	3.8710	3.8711	1.0723	27.02	1.05	1.500			
0.3927	25131.95	3.8680	3.8679	1.0865	27.01	1.04	1.500			
0.3960	25341.70	3.8650	3.8651	1.1005	27.00	1.03	1.500			
0.3993	25554.48	3.8620	3.8620	1.1121	26.99	1.02	1.500			
0.4026	25768.08	3.8590	3.8589	1.1170	26.98	1.01	1.500			
0.4060	25983.00	3.8560	3.8561	1.1336	26.97	1.00	1.500			
0.4094	26200.07	3.8530	3.8530	1.1464	26.96	0.99	1.500			
0.4128	26422.11	3.8500	3.8499	1.1655	26.95	0.98	1.500			
0.4163	26646.37	3.8470	3.8469	1.1902	26.94	0.97	1.500			
0.4199	26876.42	3.8440	3.8440	1.2055	26.93	0.96	1.500			
0.4237	27114.76	3.8410	3.8409	1.2172	26.92	0.95	1.500			
0.4273	27349.54	3.8380	3.8380	1.2308	26.91	0.94	1.500			
0.4310	27584.63	3.8350	3.8352	1.2502	26.90	0.93	1.500			
0.4348	27826.01	3.8320	3.8320	1.2739	26.89	0.92	1.500			
0.4386	28069.84	3.8290	3.8290	1.2927	26.88	0.91	1.500			
0.4425	28320.21	3.8260	3.8260	1.3157	26.86	0.89	1.500			
0.4466	28579.85	3.8230	3.8230	1.3444	26.85	0.88	1.500			
0.4507	28842.26	3.8200	3.8200	1.3697	26.83	0.86	1.500			
0.4548	29104.16	3.8170	3.8171	1.3803	26.82	0.85	1.500			
0.4589	29366.91	3.8140	3.8140	1.4018	26.80	0.83	1.500			
0.4631	29638.15	3.8110	3.8110	1.4318	26.79	0.82	1.500			
0.4674	29916.16	3.8080	3.8080	1.4632	26.78	0.81	1.500			
0.4719	30202.42	3.8050	3.8049	1.4872	26.76	0.79	1.500			
0.4764	30491.21	3.8020	3.8021	1.5074	26.75	0.78	1.500			
0.4810	30783.37	3.7990	3.7990	1.5308	26.73	0.76	1.500			
0.4856	31079.30	3.7960	3.7960	1.5479	26.72	0.75	1.500			
0.4903	31377.23	3.7930	3.7930	1.5666	26.70	0.73	1.500			
0.4950	31679.33	3.7900	3.7901	1.6109	26.69	0.72	1.500			
0.4999	31994.09	3.7870	3.7869	1.6310	26.68	0.71	1.500			
0.5049	32310.84	3.7840	3.7841	1.6603	26.66	0.69	1.500	0.347	0.485	
0.5099	32632.10	3.7810	3.7811	1.6725	26.65	0.68	1.500			
0.5149	32956.42	3.7780	3.7780	1.6798	26.63	0.66	1.500			
0.5200	33279.84	3.7750	3.7750	1.6780	26.62	0.65	1.500			
0.5250	33602.68	3.7720	3.7720	1.6802	26.60	0.63	1.500			
0.5301	33923.45	3.7690	3.7690	1.6860	26.58	0.61	1.500			
0.5351	34247.46	3.7660	3.7660	1.6941	26.57	0.60	1.500			
0.5402	34573.64	3.7630	3.7630	1.7080	26.55	0.58	1.500			
0.5453	34900.90	3.7600	3.7600	1.7191	26.54	0.57	1.500			
0.5505	35234.33	3.7570	3.7570	1.7162	26.52	0.55	1.500			
0.5557	35561.73	3.7540	3.7540	1.7368	26.50	0.53	1.500			
0.5609	35897.82	3.7510	3.7510	1.7528	26.49	0.52	1.500			
0.5662	36235.51	3.7480	3.7480	1.7825	26.47	0.50	1.500			
0.5716	36581.78	3.7450	3.7450	1.8085	26.46	0.49	1.500			
0.5771	36932.16	3.7420	3.7420	1.8595	26.45	0.48	1.500			
0.5826	37288.73	3.7390	3.7391	1.8906	26.43	0.46	1.500			
0.5884	37659.95	3.7360	3.7359	1.9419	26.42	0.45	1.500			
0.5943	38035.21	3.7330	3.7330	1.9792	26.40	0.43	1.500			
0.6003	38418.17	3.7300	3.7300	2.0176	26.39	0.42	1.500			
0.6064	38807.99	3.7270	3.7270	2.0678	26.37	0.40	1.500			
0.6127	39209.74	3.7240	3.7239	2.1278	26.35	0.38	1.500			
0.6191	39624.59	3.7210	3.7210	2.2222	26.33	0.36	1.500			
0.6259	40058.85	3.7180	3.7180	2.2922	26.31	0.34	1.500			
0.6330	40512.15	3.7150	3.7151	2.3081	26.29	0.32	1.500			
0.6400	40959.60	3.7120	3.7120	2.2908	26.27	0.30	1.500			
0.6468	41398.05	3.7090	3.7090	2.2309	26.26	0.29	1.500			
0.6535	41820.85	3.7060	3.7060	2.1472	26.24	0.27	1.500			
0.6598	42225.82	3.7030	3.7030	2.0294	26.23	0.26	1.500			
0.6657	42607.31	3.7000	3.7000	1.9135	26.21	0.24	1.500			
0.6712	42959.55	3.6970	3.6970	1.7855	26.20	0.23	1.500			
0.6764	43289.26	3.6940	3.6940	1.6731	26.19	0.22	1.500			
0.6811	43591.53	3.6910	3.6911	1.5807	26.18	0.21	1.500			
0.6858	43888.53	3.6880	3.6879	1.5149	26.16	0.19	1.500			
0.6902	44169.97	3.6850	3.6850	1.4518	26.15	0.18	1.500			
0.6944	44442.17	3.6820	3.6820	1.3998	26.14	0.17	1.500			
0.6985	44707.13	3.6790	3.6790	1.3546	26.13	0.16	1.500			
0.7025	44960.99	3.6760	3.6760	1.3173	26.12	0.15	1.500			
0.7063	45205.83	3.6730	3.6730	1.2910	26.12	0.15	1.500			
0.7102	45449.96	3.6700	3.6700	1.2749	26.11	0.14	1.500			
0.7139	45690.73	3.6670	3.6669	1.2652	26.10	0.13	1.500			
0.7177	45931.19	3.6640	3.6641	1.2655	26.09	0.12	1.500			
0.7215	46173.99	3.6610	3.6610	1.2674	26.08	0.11	1.500			
0.7253	46419.44	3.6580	3.6579	1.2620	26.07	0.10	1.500			
0.7291	46662.18	3.6550	3.6550	1.2565	26.06	0.09	1.500			
0.7329	46903.87	3.6520	3.6520	1.2525	26.05	0.08	1.500			
0.7367	47145.63	3.6490	3.6490	1.2444	26.04	0.07	1.500			
0.7404	47384.04	3.6460	3.6460	1.2309	26.03	0.06	1.500			
0.7440	47617.46	3.6430	3.6430	1.2154	26.03	0.06	1.500			
0.7477	47850.08	3.6400	3.6401	1.2064	26.02	0.05	1.500			
0.7512	48078.77	3.6370	3.6370	1.1979	26.01	0.04	1.500			
0.7548	48308.80	3.6340	3.6339	1.1936	26.00	0.03	1.500			
0.7584	48536.34	3.6310	3.6310	1.1845	25.99	0.02	1.500			
0.7619	48764.80	3.6280	3.6280	1.1751	25.98	0.01	1.500			
0.7655	48992.87	3.6250	3.6250	1.1650	25.98	0.01	1.500			
0.7690	49215.13	3.6220	3.6220	1.1494	25.98	0.01	1.500			
0.7724	49432.80	3.6190	3.6190	1.1314	25.97	0.00	1.500			
0.7758	49648.68	3.6160	3.6160	1.1070	25.97	-0.00	1.500			
0.7791	49860.88	3.6130	3.6130	1.0842	25.97	-0.00	1.500			
0.7823	50067.68	3.6100	3.6100	1.0592	25.96	-0.01	1.500			
0.7854	50268.00	3.6070	3.6070	1.0366	25.96	-0.01	1.500			
0.7885	50464.56	3.6040	3.6040	1.0127	25.96	-0.01	1.500			
0.7915	50656.26	3.6010	3.6009	0.9830	25.96	-0.01	1.500			
0.7944	50843.34	3.5980	3.5981	0.9521	25.96	-0.01	1.500			
0.7973	51026.65	3.5950	3.5950	0.9129	25.96	-0.01	1.500			
0.8000	51200.48	3.5920	3.5920	0.8624	25.96	-0.01	1.500			
0.8026	51365.92	3.5890	3.5889	0.7973	25.97	-0.00	1.500			
0.8049	51513.72	3.5860	3.5861	0.7188	25.97	-0.00	1.500			
0.8070	51647.27	3.5830	3.5830	0.6347	25.97	-0.00	1.500			
0.8088	51760.67	3.5800	3.5801	0.5488	25.97	-0.00	1.500			
0.8102	51855.63	3.5770	3.5770	0.4672	25.97	-0.00	1.500			
0.8115	51934.46	3.5740	3.5739	0.3971	25.97	-0.00	1.500			
0.8125	51999.40	3.5710	3.5708	0.3393	25.97	-0.00	1.500			
0.8134	52056.20	3.5680	3.5680	0.2955	25.97	0.00	1.500			
0.8142	52105.73	3.5650	3.5650	0.2589	25.97	0.00	1.500			
0.8149	52151.66	3.5620	3.5619	0.2292	25.97	0.00	1.500			
0.8155	52191.48	3.5590	3.5590	0.2037	25.97	0.00	1.500			
0.8160	52227.13	3.5560	3.5561	0.1833	25.97	0.00	1.500			
0.8166	52260.05	3.5530	3.5529	0.1642	25.97	0.00	1.500			
0.8170	52289.65	3.5500	3.5502	0.1492	25.97	0.00	1.500			
0.8174	52316.28	3.5470	3.5469	0.1333	25.97	0.00	1.500			
0.8178	52340.25	3.5440	3.5440	0.1182	25.97	0.00	1.500			
0.8182	52361.61	3.5410	3.5411	0.1041	25.97	0.00	1.500			
0.8184	52380.23	3.5380	3.5382	0.0899	25.97	0.00	1.500			
0.8187	52396.72	3.5350	3.5350	0.0759	25.97	0.00	1.500			
0.8189	52409.81	3.5320	3.5324	0.0608	25.97	0.00	1.500			
0.8191	52420.04	3.5290	3.5294	0.0458	25.97	0.00	1.500			
0.8192	52427.39	3.5260	3.5269	0.0307	25.97	0.00	1.500			
