Ah_balance (normalized)	Ah_balance (mAh)	Voltage - fit (V)	Voltage -  interpolate (V)	dQ/dV (1/V)	Temperature (°C)	Temperature - diff (°C)	Current (C)	R_DC 0ms (mOhm)	R_DC 50ms (mOhm)	R_DC 50 ms PEC (mOhm)
0.2922	18698.21	3.9850	3.9850	0.8426	27.15	1.17	1.500			
0.2947	18857.97	3.9820	3.9821	0.8322	27.15	1.17	1.500			
0.2971	19016.02	3.9790	3.9790	0.8298	27.14	1.16	1.500			
0.2996	19175.27	3.9760	3.9760	0.8325	27.14	1.16	1.500			
0.3021	19333.29	3.9730	3.9730	0.8343	27.13	1.15	1.500			
0.3046	19494.19	3.9700	3.9699	0.8414	27.12	1.14	1.500			
0.3071	19656.94	3.9670	3.9671	0.8521	27.12	1.14	1.500			
0.3097	19820.61	3.9640	3.9640	0.8593	27.11	1.13	1.500			
0.3123	19987.03	3.9610	3.9609	0.8667	27.11	1.13	1.500			
0.3149	20154.72	3.9580	3.9580	0.8726	27.10	1.12	1.500			
0.3175	20323.17	3.9550	3.9550	0.8815	27.09	1.11	1.500			
0.3202	20493.28	3.9520	3.9521	0.8824	27.09	1.11	1.500			
0.3229	20663.58	3.9490	3.9489	0.8841	27.08	1.10	1.500			
0.3255	20831.96	3.9460	3.9460	0.8885	27.07	1.09	1.500			
0.3282	21002.17	3.9430	3.9431	0.8913	27.07	1.09	1.500			
0.3308	21173.95	3.9400	3.9399	0.8955	27.06	1.08	1.500			
0.3336	21347.29	3.9370	3.9370	0.9013	27.06	1.08	1.500			
0.3362	21519.78	3.9340	3.9340	0.9094	27.05	1.07	1.500			
0.3390	21697.73	3.9310	3.9309	0.9116	27.04	1.06	1.500			
0.3418	21872.65	3.9280	3.9280	0.9102	27.04	1.06	1.500			
0.3445	22045.35	3.9250	3.9251	0.9128	27.03	1.05	1.500			
0.3472	22222.62	3.9220	3.9219	0.9133	27.03	1.05	1.500			
0.3499	22396.07	3.9190	3.9190	0.9227	27.02	1.04	1.500			
0.3527	22572.93	3.9160	3.9161	0.9300	27.02	1.04	1.500			
0.3555	22751.24	3.9130	3.9130	0.9403	27.01	1.03	1.500			
0.3584	22935.46	3.9100	3.9100	0.9541	27.00	1.02	1.500			
0.3613	23120.06	3.9070	3.9070	0.9606	27.00	1.02	1.500			
0.3642	23306.08	3.9040	3.9040	0.9657	26.99	1.01	1.500			
0.3671	23494.37	3.9010	3.9011	0.9736	26.98	1.00	1.500			
0.3700	23679.06	3.8980	3.8980	0.9727	26.97	0.99	1.500			
0.3729	23866.07	3.8950	3.8951	0.9824	26.96	0.98	1.500			
0.3758	24053.86	3.8920	3.8919	0.9891	26.96	0.98	1.500			
0.3788	24245.40	3.8890	3.8890	0.9973	26.95	0.97	1.500			
0.3819	24438.84	3.8860	3.8860	1.0072	26.94	0.96	1.500			
0.3849	24632.51	3.8830	3.8831	1.0156	26.93	0.95	1.500			
0.3879	24828.35	3.8800	3.8800	1.0281	26.92	0.94	1.500			
0.3910	25026.37	3.8770	3.8769	1.0406	26.92	0.94	1.500			
0.3942	25228.73	3.8740	3.8739	1.0439	26.91	0.93	1.500			
0.3974	25430.50	3.8710	3.8710	1.0536	26.90	0.92	1.500			
0.4005	25632.90	3.8680	3.8680	1.0732	26.89	0.91	1.500			
0.4037	25838.35	3.8650	3.8651	1.0898	26.89	0.91	1.500			
0.4070	26048.34	3.8620	3.8618	1.1009	26.88	0.90	1.500			
0.4103	26260.80	3.8590	3.8589	1.1189	26.87	0.89	1.500			
0.4137	26479.63	3.8560	3.8561	1.1344	26.86	0.88	1.500			
0.4172	26701.20	3.8530	3.8530	1.1476	26.85	0.87	1.500			
0.4207	26922.18	3.8500	3.8500	1.1630	26.84	0.86	1.500			
0.4241	27144.63	3.8470	3.8470	1.1807	26.83	0.85	1.500			
0.4277	27370.14	3.8440	3.8440	1.1999	26.82	0.84	1.500			
0.4313	27604.50	3.8410	3.8410	1.2202	26.81	0.83	1.500			
0.4350	27841.14	3.8380	3.8381	1.2411	26.80	0.82	1.500			
0.4388	28082.19	3.8350	3.8350	1.2653	26.79	0.81	1.500			
0.4427	28329.68	3.8320	3.8320	1.2790	26.78	0.80	1.500			
0.4464	28572.63	3.8290	3.8290	1.3024	26.77	0.79	1.500			
0.4504	28823.23	3.8260	3.8261	1.3336	26.76	0.78	1.500			
0.4544	29082.19	3.8230	3.8230	1.3616	26.75	0.77	1.500			
0.4586	29347.33	3.8200	3.8200	1.3951	26.73	0.75	1.500			
0.4628	29617.66	3.8170	3.8171	1.4204	26.72	0.74	1.500			
0.4671	29894.85	3.8140	3.8140	1.4410	26.71	0.73	1.500			
0.4715	30174.09	3.8110	3.8110	1.4731	26.70	0.72	1.500			
0.4759	30457.69	3.8080	3.8080	1.5019	26.69	0.71	1.500			
0.4805	30750.95	3.8050	3.8049	1.5300	26.67	0.69	1.500			
0.4851	31048.28	3.8020	3.8021	1.5640	26.66	0.68	1.500			
0.4899	31351.58	3.7990	3.7990	1.5995	26.64	0.66	1.500			
0.4947	31660.00	3.7960	3.7960	1.6355	26.62	0.64	1.500			
0.4996	31975.13	3.7930	3.7930	1.6628	26.60	0.62	1.500			
0.5047	32300.63	3.7900	3.7900	1.6992	26.59	0.61	1.500			
0.5099	32631.13	3.7870	3.7870	1.7280	26.57	0.59	1.500			
0.5151	32966.86	3.7840	3.7840	1.7440	26.56	0.58	1.500			
0.5203	33301.84	3.7810	3.7810	1.7815	26.54	0.56	1.500			
0.5257	33646.86	3.7780	3.7780	1.7997	26.53	0.55	1.500			
0.5312	33997.14	3.7750	3.7750	1.8153	26.51	0.53	1.500	0.347	0.466	
0.5367	34348.34	3.7720	3.7721	1.8218	26.50	0.52	1.500			
0.5422	34701.23	3.7690	3.7690	1.8110	26.48	0.50	1.500			
0.5475	35042.01	3.7660	3.7660	1.7818	26.46	0.48	1.500			
0.5529	35383.13	3.7630	3.7631	1.7819	26.45	0.47	1.500			
0.5582	35725.60	3.7600	3.7600	1.7854	26.43	0.45	1.500			
0.5636	36068.57	3.7570	3.7570	1.7929	26.42	0.44	1.500			
0.5689	36412.19	3.7540	3.7540	1.7846	26.40	0.42	1.500			
0.5743	36757.12	3.7510	3.7511	1.7985	26.38	0.40	1.500			
0.5797	37102.17	3.7480	3.7479	1.8168	26.37	0.39	1.500			
0.5852	37453.08	3.7450	3.7450	1.8336	26.35	0.37	1.500			
0.5907	37804.95	3.7420	3.7420	1.8494	26.34	0.36	1.500			
0.5963	38161.72	3.7390	3.7391	1.8914	26.33	0.35	1.500			
0.6020	38527.18	3.7360	3.7360	1.9309	26.32	0.34	1.500			
0.6078	38900.15	3.7330	3.7330	1.9792	26.31	0.33	1.500			
0.6139	39292.22	3.7300	3.7300	2.0118	26.29	0.31	1.500			
0.6200	39681.71	3.7270	3.7269	2.0520	26.27	0.29	1.500			
0.6261	40070.32	3.7240	3.7241	2.1096	26.25	0.27	1.500			
0.6325	40482.80	3.7210	3.7209	2.1876	26.24	0.26	1.500			
0.6393	40912.36	3.7180	3.7180	2.2561	26.22	0.24	1.500			
0.6462	41358.77	3.7150	3.7150	2.3517	26.21	0.23	1.500			
0.6532	41807.97	3.7120	3.7120	2.3903	26.20	0.22	1.500			
0.6605	42274.06	3.7090	3.7090	2.4451	26.18	0.20	1.500			
0.6680	42753.25	3.7060	3.7060	2.4849	26.17	0.19	1.500			
0.6756	43240.92	3.7030	3.7030	2.4499	26.15	0.17	1.500			
0.6829	43707.74	3.7000	3.7000	2.3669	26.14	0.16	1.500			
0.6899	44156.54	3.6970	3.6970	2.2167	26.13	0.15	1.500			
0.6964	44569.67	3.6940	3.6940	2.0492	26.12	0.14	1.500			
0.7022	44940.71	3.6910	3.6910	1.8841	26.11	0.13	1.500			
0.7075	45281.60	3.6880	3.6880	1.7451	26.10	0.12	1.500			
0.7125	45600.24	3.6850	3.6849	1.6299	26.09	0.11	1.500			
0.7172	45901.31	3.6820	3.6820	1.5303	26.08	0.10	1.500			
0.7216	46183.47	3.6790	3.6790	1.4574	26.08	0.10	1.500			
0.7258	46451.04	3.6760	3.6761	1.3996	26.07	0.09	1.500			
0.7299	46712.70	3.6730	3.6730	1.3499	26.06	0.08	1.500			
0.7338	46963.73	3.6700	3.6700	1.3137	26.06	0.08	1.500			
0.7377	47210.63	3.6670	3.6671	1.2836	26.05	0.07	1.500			
0.7415	47453.38	3.6640	3.6641	1.2706	26.04	0.06	1.500			
0.7453	47696.73	3.6610	3.6610	1.2685	26.04	0.06	1.500			
0.7490	47933.92	3.6580	3.6580	1.2596	26.03	0.05	1.500			
0.7527	48174.53	3.6550	3.6550	1.2664	26.03	0.05	1.500			
0.7566	48419.81	3.6520	3.6519	1.2766	26.02	0.04	1.500			
0.7604	48666.86	3.6490	3.6490	1.2803	26.01	0.03	1.500			
0.7643	48915.63	3.6460	3.6460	1.2843	26.01	0.03	1.500			
0.7682	49161.79	3.6430	3.6430	1.2773	26.00	0.02	1.500			
0.7720	49406.27	3.6400	3.6401	1.2730	26.00	0.02	1.500			
0.7758	49650.58	3.6370	3.6370	1.2714	25.99	0.01	1.500			
0.7796	49892.90	3.6340	3.6340	1.2685	25.98	0.00	1.500			
0.7834	50137.13	3.6310	3.6310	1.2671	25.98	-0.00	1.500			
0.7872	50382.00	3.6280	3.6280	1.2625	25.97	-0.01	1.500			
0.7910	50623.70	3.6250	3.6250	1.2551	25.96	-0.02	1.500			
0.7948	50865.11	3.6220	3.6220	1.2487	25.96	-0.02	1.500			
0.7985	51103.21	3.6190	3.6190	1.2382	25.95	-0.03	1.500			
0.8022	51339.63	3.6160	3.6160	1.2253	25.95	-0.03	1.500			
0.8058	51573.82	3.6130	3.6130	1.2138	25.94	-0.04	1.500			
0.8095	51808.45	3.6100	3.6100	1.1972	25.94	-0.04	1.500			
0.8131	52037.02	3.6070	3.6070	1.1784	25.94	-0.04	1.500			
0.8166	52261.02	3.6040	3.6040	1.1566	25.94	-0.04	1.500			
0.8200	52481.67	3.6010	3.6010	1.1316	25.94	-0.04	1.500			
0.8234	52694.90	3.5980	3.5980	1.1165	25.94	-0.04	1.500			
0.8267	52907.53	3.5950	3.5950	1.1006	25.94	-0.04	1.500			
0.8300	53117.57	3.5920	3.5920	1.0818	25.94	-0.04	1.500			
0.8332	53325.54	3.5890	3.5891	1.0602	25.94	-0.04	1.500			
0.8364	53531.90	3.5860	3.5860	1.0197	25.95	-0.03	1.500			
0.8395	53727.96	3.5830	3.5831	0.9637	25.95	-0.03	1.500			
0.8424	53915.38	3.5800	3.5799	0.8842	25.96	-0.02	1.500			
0.8449	54076.79	3.5770	3.5771	0.7837	25.96	-0.02	1.500			
0.8472	54221.22	3.5740	3.5740	0.6826	25.97	-0.01	1.500			
0.8491	54340.43	3.5710	3.5710	0.5764	25.97	-0.01	1.500			
0.8506	54436.47	3.5680	3.5680	0.4831	25.97	-0.01	1.500			
0.8518	54516.58	3.5650	3.5649	0.4054	25.97	-0.01	1.500			
0.8528	54581.38	3.5620	3.5620	0.3420	25.97	-0.01	1.500			
0.8537	54639.22	3.5590	3.5589	0.2953	25.98	-0.00	1.500			
0.8545	54687.16	3.5560	3.5560	0.2543	25.98	-0.00	1.500			
0.8552	54732.25	3.5530	3.5530	0.2245	25.98	-0.00	1.500			
0.8558	54770.43	3.5500	3.5501	0.2002	25.98	-0.00	1.500			
0.8563	54805.79	3.5470	3.5469	0.1812	25.98	-0.00	1.500			
0.8568	54838.35	3.5440	3.5439	0.1629	25.98	0.00	1.500			
0.8573	54867.20	3.5410	3.5410	0.1470	25.98	0.00	1.500			
0.8577	54893.57	3.5380	3.5380	0.1319	25.98	0.00	1.500			
0.8581	54917.77	3.5350	3.5351	0.1185	25.98	0.00	1.500			
0.8584	54939.15	3.5320	3.5320	0.1042	25.98	0.00	1.500			
0.8587	54957.60	3.5290	3.5290	0.0898	25.98	0.00	1.500			
0.8590	54973.44	3.5260	3.5261	0.0758	25.98	0.00	1.500			
0.8592	54986.67	3.5230	3.5234	0.0619	25.98	0.00	1.500			
0.8593	54997.31	3.5200	3.5205	0.0477	25.98	0.00	1.500			
0.8595	55005.11	3.5170	3.5178	0.0336	25.98	0.00	1.500			
