Ah_balance (normalized)	Ah_balance (mAh)	Voltage - fit (V)	Voltage -  interpolate (V)	dQ/dV (1/V)	Temperature (°C)	Temperature - diff (°C)	Current (C)	R_DC 0ms (mOhm)	R_DC 50ms (mOhm)	R_DC 50 ms PEC (mOhm)
0.2868	18353.26	3.9730	3.9730	0.8528	27.24	1.27	1.500			
0.2894	18518.67	3.9700	3.9699	0.8647	27.23	1.26	1.500			
0.2920	18685.80	3.9670	3.9669	0.8705	27.23	1.26	1.500			
0.2946	18853.13	3.9640	3.9641	0.8769	27.22	1.25	1.500			
0.2972	19022.12	3.9610	3.9610	0.8867	27.22	1.25	1.500			
0.2999	19194.16	3.9580	3.9579	0.8905	27.21	1.24	1.500			
0.3026	19365.01	3.9550	3.9550	0.8870	27.21	1.24	1.500			
0.3053	19536.79	3.9520	3.9521	0.8956	27.21	1.24	1.500			
0.3080	19709.28	3.9490	3.9491	0.8983	27.20	1.23	1.500			
0.3107	19881.88	3.9460	3.9459	0.8996	27.20	1.23	1.500			
0.3133	20052.73	3.9430	3.9430	0.8999	27.19	1.22	1.500			
0.3160	20225.52	3.9400	3.9401	0.9049	27.19	1.22	1.500			
0.3188	20401.89	3.9370	3.9370	0.9121	27.18	1.21	1.500			
0.3215	20577.20	3.9340	3.9340	0.9137	27.18	1.21	1.500			
0.3242	20750.00	3.9310	3.9310	0.9191	27.18	1.21	1.500			
0.3270	20927.99	3.9280	3.9279	0.9280	27.17	1.20	1.500			
0.3298	21106.94	3.9250	3.9250	0.9321	27.17	1.20	1.500			
0.3326	21286.57	3.9220	3.9220	0.9378	27.16	1.19	1.500			
0.3354	21468.62	3.9190	3.9191	0.9428	27.15	1.18	1.500			
0.3383	21649.39	3.9160	3.9160	0.9432	27.15	1.18	1.500			
0.3411	21832.08	3.9130	3.9130	0.9469	27.14	1.17	1.500			
0.3439	22011.85	3.9100	3.9100	0.9520	27.14	1.17	1.500			
0.3468	22194.33	3.9070	3.9071	0.9647	27.13	1.16	1.500			
0.3497	22381.58	3.9040	3.9040	0.9732	27.13	1.16	1.500			
0.3526	22569.18	3.9010	3.9009	0.9828	27.12	1.15	1.500			
0.3556	22759.85	3.8980	3.8980	0.9893	27.12	1.15	1.500			
0.3586	22949.82	3.8950	3.8951	0.9989	27.11	1.14	1.500			
0.3616	23142.62	3.8920	3.8920	1.0060	27.11	1.14	1.500			
0.3646	23334.84	3.8890	3.8889	1.0120	27.11	1.14	1.500			
0.3676	23529.45	3.8860	3.8860	1.0191	27.10	1.13	1.500			
0.3707	23727.45	3.8830	3.8830	1.0317	27.10	1.13	1.500			
0.3738	23926.35	3.8800	3.8800	1.0425	27.09	1.12	1.500			
0.3770	24127.65	3.8770	3.8769	1.0573	27.09	1.12	1.500			
0.3802	24330.46	3.8740	3.8740	1.0644	27.08	1.11	1.500			
0.3834	24537.42	3.8710	3.8710	1.0775	27.08	1.11	1.500			
0.3866	24745.49	3.8680	3.8681	1.0883	27.07	1.10	1.500			
0.3899	24955.06	3.8650	3.8650	1.0959	27.06	1.09	1.500			
0.3932	25166.16	3.8620	3.8620	1.1132	27.05	1.08	1.500			
0.3966	25379.36	3.8590	3.8590	1.1296	27.04	1.07	1.500			
0.4000	25597.84	3.8560	3.8560	1.1475	27.04	1.07	1.500			
0.4035	25821.75	3.8530	3.8530	1.1630	27.03	1.06	1.500			
0.4070	26046.16	3.8500	3.8501	1.1799	27.02	1.05	1.500			
0.4105	26275.04	3.8470	3.8471	1.1972	27.01	1.04	1.500			
0.4142	26506.80	3.8440	3.8439	1.2117	27.00	1.03	1.500			
0.4178	26738.59	3.8410	3.8410	1.2241	26.99	1.02	1.500			
0.4215	26975.07	3.8380	3.8380	1.2450	26.98	1.01	1.500			
0.4253	27216.07	3.8350	3.8350	1.2723	26.97	1.00	1.500			
0.4291	27461.89	3.8320	3.8321	1.3013	26.96	0.99	1.500			
0.4330	27712.02	3.8290	3.8290	1.3249	26.95	0.98	1.500			
0.4370	27971.01	3.8260	3.8260	1.3540	26.94	0.97	1.500			
0.4412	28234.87	3.8230	3.8230	1.3825	26.93	0.96	1.500			
0.4453	28502.23	3.8200	3.8200	1.4123	26.92	0.95	1.500			
0.4496	28776.63	3.8170	3.8171	1.4381	26.91	0.94	1.500			
0.4540	29053.70	3.8140	3.8139	1.4684	26.90	0.93	1.500			
0.4584	29337.36	3.8110	3.8111	1.4997	26.88	0.91	1.500			
0.4630	29630.19	3.8080	3.8080	1.5334	26.87	0.90	1.500			
0.4676	29926.89	3.8050	3.8050	1.5771	26.85	0.88	1.500			
0.4724	30231.35	3.8020	3.8020	1.6214	26.84	0.87	1.500			
0.4773	30546.11	3.7990	3.7988	1.6665	26.82	0.85	1.500			
0.4824	30870.89	3.7960	3.7960	1.7166	26.81	0.84	1.500			
0.4876	31205.02	3.7930	3.7931	1.7570	26.79	0.82	1.500			
0.4929	31547.74	3.7900	3.7900	1.7996	26.78	0.81	1.500			
0.4984	31897.83	3.7870	3.7870	1.8356	26.76	0.79	1.500			
0.5040	32253.30	3.7840	3.7840	1.8742	26.75	0.78	1.500			
0.5097	32617.87	3.7810	3.7810	1.9168	26.73	0.76	1.500			
0.5155	32988.82	3.7780	3.7780	1.9400	26.71	0.74	1.500			
0.5213	33362.85	3.7750	3.7751	1.9698	26.70	0.73	1.500			
0.5273	33746.01	3.7720	3.7718	1.9958	26.68	0.71	1.500			
0.5333	34132.13	3.7690	3.7690	2.0284	26.66	0.69	1.500			
0.5394	34524.21	3.7660	3.7660	2.0418	26.64	0.67	1.500			
0.5456	34918.71	3.7630	3.7631	2.0470	26.62	0.65	1.500	0.360	0.457	
0.5518	35314.82	3.7600	3.7599	2.0533	26.60	0.63	1.500			
0.5580	35711.10	3.7570	3.7570	2.0496	26.58	0.61	1.500			
0.5641	36102.64	3.7540	3.7540	2.0119	26.56	0.59	1.500			
0.5701	36485.18	3.7510	3.7511	1.9839	26.54	0.57	1.500			
0.5759	36860.25	3.7480	3.7479	1.9708	26.52	0.55	1.500			
0.5818	37237.60	3.7450	3.7450	1.9686	26.51	0.54	1.500			
0.5877	37615.26	3.7420	3.7420	1.9790	26.50	0.53	1.500			
0.5938	38000.21	3.7390	3.7390	1.9975	26.48	0.51	1.500			
0.5997	38383.83	3.7360	3.7359	2.0091	26.47	0.50	1.500			
0.6058	38770.08	3.7330	3.7331	2.0324	26.45	0.48	1.500			
0.6119	39163.12	3.7300	3.7300	2.0549	26.44	0.47	1.500			
0.6181	39559.83	3.7270	3.7270	2.1059	26.42	0.45	1.500			
0.6245	39967.09	3.7240	3.7240	2.1559	26.41	0.44	1.500			
0.6310	40386.60	3.7210	3.7211	2.2190	26.39	0.42	1.500			
0.6377	40814.42	3.7180	3.7180	2.2729	26.37	0.40	1.500			
0.6446	41256.65	3.7150	3.7150	2.3585	26.35	0.38	1.500			
0.6518	41715.33	3.7120	3.7118	2.4577	26.33	0.36	1.500			
0.6594	42201.45	3.7090	3.7090	2.5425	26.32	0.35	1.500			
0.6672	42699.23	3.7060	3.7061	2.6225	26.30	0.33	1.500			
0.6752	43211.11	3.7030	3.7030	2.6724	26.28	0.31	1.500			
0.6833	43728.78	3.7000	3.7000	2.6798	26.27	0.30	1.500			
0.6914	44250.89	3.6970	3.6970	2.6364	26.25	0.28	1.500			
0.6991	44744.44	3.6940	3.6940	2.4916	26.24	0.27	1.500			
0.7065	45216.51	3.6910	3.6910	2.3375	26.23	0.26	1.500			
0.7132	45646.16	3.6880	3.6881	2.1371	26.22	0.25	1.500			
0.7192	46031.50	3.6850	3.6851	1.9583	26.21	0.24	1.500			
0.7248	46387.68	3.6820	3.6819	1.8020	26.20	0.23	1.500			
0.7300	46716.92	3.6790	3.6791	1.6820	26.19	0.22	1.500			
0.7348	47027.12	3.6760	3.6760	1.5875	26.18	0.21	1.500			
0.7394	47322.87	3.6730	3.6729	1.5034	26.17	0.20	1.500			
0.7437	47598.21	3.6700	3.6701	1.4253	26.16	0.19	1.500			
0.7479	47863.35	3.6670	3.6671	1.3708	26.15	0.18	1.500			
0.7519	48120.42	3.6640	3.6639	1.3305	26.14	0.17	1.500			
0.7558	48368.14	3.6610	3.6610	1.2899	26.13	0.16	1.500			
0.7595	48610.07	3.6580	3.6580	1.2676	26.13	0.16	1.500			
0.7633	48848.15	3.6550	3.6551	1.2663	26.12	0.15	1.500			
0.7670	49088.53	3.6520	3.6520	1.2668	26.12	0.15	1.500			
0.7708	49330.22	3.6490	3.6490	1.2753	26.11	0.14	1.500			
0.7746	49577.27	3.6460	3.6460	1.2875	26.10	0.13	1.500			
0.7786	49827.22	3.6430	3.6430	1.3034	26.10	0.13	1.500			
0.7825	50080.68	3.6400	3.6400	1.3088	26.09	0.12	1.500			
0.7865	50333.87	3.6370	3.6370	1.3112	26.08	0.11	1.500			
0.7904	50585.78	3.6340	3.6340	1.3074	26.07	0.10	1.500			
0.7943	50836.50	3.6310	3.6311	1.3110	26.06	0.09	1.500			
0.7982	51086.53	3.6280	3.6280	1.3110	26.05	0.08	1.500			
0.8022	51338.52	3.6250	3.6249	1.3094	26.04	0.07	1.500			
0.8061	51588.72	3.6220	3.6221	1.3121	26.03	0.06	1.500			
0.8100	51843.17	3.6190	3.6190	1.3093	26.03	0.06	1.500			
0.8140	52096.91	3.6160	3.6159	1.3066	26.02	0.05	1.500			
0.8179	52346.75	3.6130	3.6130	1.2969	26.02	0.05	1.500			
0.8218	52595.19	3.6100	3.6101	1.2895	26.01	0.04	1.500			
0.8257	52843.72	3.6070	3.6069	1.2753	26.00	0.03	1.500			
0.8295	53087.82	3.6040	3.6040	1.2618	26.00	0.03	1.500			
0.8332	53326.71	3.6010	3.6011	1.2460	25.99	0.02	1.500			
0.8370	53566.37	3.5980	3.5980	1.2317	25.98	0.01	1.500			
0.8407	53802.49	3.5950	3.5950	1.2084	25.98	0.01	1.500			
0.8442	54030.75	3.5920	3.5921	1.1979	25.97	0.00	1.500			
0.8478	54258.54	3.5890	3.5891	1.1866	25.97	-0.00	1.500			
0.8513	54485.10	3.5860	3.5859	1.1805	25.96	-0.01	1.500			
0.8548	54709.78	3.5830	3.5830	1.1704	25.96	-0.01	1.500			
0.8584	54936.80	3.5800	3.5800	1.1460	25.96	-0.01	1.500			
0.8619	55160.92	3.5770	3.5769	1.1061	25.96	-0.01	1.500			
0.8654	55383.54	3.5740	3.5740	1.0306	25.97	-0.00	1.500			
0.8684	55578.73	3.5710	3.5711	0.9262	25.97	-0.00	1.500			
0.8711	55752.52	3.5680	3.5681	0.8094	25.97	-0.00	1.500			
0.8733	55893.19	3.5650	3.5650	0.6768	25.97	-0.00	1.500			
0.8751	56003.91	3.5620	3.5620	0.5469	25.97	-0.00	1.500			
0.8764	56090.09	3.5590	3.5589	0.4540	25.97	-0.00	1.500			
0.8775	56159.44	3.5560	3.5561	0.3728	25.97	0.00	1.500			
0.8785	56222.47	3.5530	3.5529	0.3130	25.97	0.00	1.500			
0.8793	56274.28	3.5500	3.5499	0.2708	25.97	0.00	1.500			
0.8800	56321.27	3.5470	3.5469	0.2400	25.97	0.00	1.500			
0.8807	56362.36	3.5440	3.5440	0.2134	25.97	0.00	1.500			
0.8813	56400.21	3.5410	3.5410	0.1902	25.97	0.00	1.500			
0.8818	56433.91	3.5380	3.5380	0.1724	25.97	0.00	1.500			
0.8823	56464.17	3.5350	3.5351	0.1555	25.97	0.00	1.500			
0.8827	56492.00	3.5320	3.5320	0.1395	25.97	0.00	1.500			
0.8831	56517.54	3.5290	3.5289	0.1259	25.97	0.00	1.500			
0.8834	56540.31	3.5260	3.5260	0.1121	25.97	0.00	1.500			
0.8838	56560.55	3.5230	3.5230	0.0987	25.97	0.00	1.500			
0.8840	56578.45	3.5200	3.5200	0.0854	25.97	0.00	1.500			
0.8843	56593.51	3.5170	3.5173	0.0715	25.97	0.00	1.500			
0.8845	56606.06	3.5140	3.5143	0.0571	25.97	0.00	1.500			
0.8846	56615.63	3.5110	3.5117	0.0427	25.97	0.00	1.500			
