Ah_balance (normalized)	Ah_balance (mAh)	Voltage - fit (V)	Voltage -  interpolate (V)	dQ/dV (1/V)	Temperature (°C)	Temperature - diff (°C)	Current (C)	R_DC 0ms (mOhm)	R_DC 50ms (mOhm)	R_DC 50 ms PEC (mOhm)
0.2978	19056.15	3.9750	3.9750	0.8798	27.32	1.38	1.500			
0.3004	19223.47	3.9720	3.9720	0.8697	27.32	1.38	1.500			
0.3030	19390.35	3.9690	3.9690	0.8712	27.31	1.37	1.500			
0.3056	19558.09	3.9660	3.9660	0.8712	27.31	1.37	1.500			
0.3082	19724.36	3.9630	3.9630	0.8722	27.30	1.36	1.500			
0.3108	19892.10	3.9600	3.9601	0.8792	27.30	1.36	1.500			
0.3135	20062.26	3.9570	3.9569	0.8805	27.29	1.35	1.500			
0.3161	20231.45	3.9540	3.9540	0.8839	27.29	1.35	1.500			
0.3188	20400.76	3.9510	3.9511	0.8891	27.29	1.35	1.500			
0.3214	20571.96	3.9480	3.9480	0.8944	27.28	1.34	1.500			
0.3241	20744.79	3.9450	3.9450	0.8982	27.28	1.34	1.500			
0.3268	20916.26	3.9420	3.9419	0.8997	27.27	1.33	1.500			
0.3295	21089.26	3.9390	3.9391	0.9042	27.26	1.32	1.500			
0.3323	21265.31	3.9360	3.9360	0.9102	27.26	1.32	1.500			
0.3350	21438.96	3.9330	3.9330	0.9136	27.25	1.31	1.500			
0.3377	21614.36	3.9300	3.9300	0.9194	27.24	1.30	1.500			
0.3405	21790.93	3.9270	3.9270	0.9236	27.24	1.30	1.500			
0.3433	21968.64	3.9240	3.9239	0.9324	27.23	1.29	1.500			
0.3461	22149.38	3.9210	3.9211	0.9343	27.22	1.28	1.500			
0.3489	22329.15	3.9180	3.9180	0.9386	27.22	1.28	1.500			
0.3517	22509.87	3.9150	3.9150	0.9447	27.21	1.27	1.500			
0.3545	22690.55	3.9120	3.9120	0.9525	27.21	1.27	1.500			
0.3574	22871.92	3.9090	3.9090	0.9597	27.20	1.26	1.500			
0.3603	23058.01	3.9060	3.9060	0.9679	27.19	1.25	1.500			
0.3632	23244.93	3.9030	3.9030	0.9709	27.19	1.25	1.500			
0.3661	23433.14	3.9000	3.9000	0.9806	27.18	1.24	1.500			
0.3691	23621.07	3.8970	3.8972	0.9890	27.18	1.24	1.500			
0.3721	23811.23	3.8940	3.8939	0.9985	27.17	1.23	1.500			
0.3751	24003.21	3.8910	3.8910	1.0036	27.16	1.22	1.500			
0.3781	24197.79	3.8880	3.8880	1.0151	27.15	1.21	1.500			
0.3812	24394.66	3.8850	3.8850	1.0262	27.15	1.21	1.500			
0.3843	24593.36	3.8820	3.8820	1.0292	27.14	1.20	1.500			
0.3873	24788.49	3.8790	3.8790	1.0375	27.13	1.19	1.500			
0.3904	24987.55	3.8760	3.8760	1.0490	27.12	1.18	1.500			
0.3936	25190.29	3.8730	3.8730	1.0597	27.11	1.17	1.500			
0.3968	25395.87	3.8700	3.8699	1.0720	27.10	1.16	1.500			
0.4000	25602.18	3.8670	3.8671	1.0883	27.09	1.15	1.500			
0.4033	25812.91	3.8640	3.8641	1.1039	27.09	1.15	1.500			
0.4067	26027.44	3.8610	3.8609	1.1200	27.08	1.14	1.500			
0.4101	26243.53	3.8580	3.8580	1.1250	27.07	1.13	1.500			
0.4134	26459.23	3.8550	3.8551	1.1451	27.06	1.12	1.500			
0.4169	26681.14	3.8520	3.8521	1.1628	27.05	1.11	1.500			
0.4204	26906.67	3.8490	3.8489	1.1800	27.04	1.10	1.500			
0.4240	27133.70	3.8460	3.8460	1.1936	27.04	1.10	1.500			
0.4276	27364.69	3.8430	3.8430	1.2140	27.03	1.09	1.500			
0.4312	27599.37	3.8400	3.8400	1.2351	27.02	1.08	1.500			
0.4350	27839.28	3.8370	3.8370	1.2567	27.01	1.07	1.500			
0.4387	28078.72	3.8340	3.8340	1.2763	27.00	1.06	1.500			
0.4426	28326.49	3.8310	3.8310	1.3075	26.99	1.05	1.500			
0.4466	28580.20	3.8280	3.8280	1.3372	26.98	1.04	1.500			
0.4506	28840.17	3.8250	3.8250	1.3677	26.97	1.03	1.500			
0.4548	29106.07	3.8220	3.8220	1.3948	26.96	1.02	1.500			
0.4590	29378.86	3.8190	3.8190	1.4176	26.94	1.00	1.500			
0.4633	29651.43	3.8160	3.8160	1.4500	26.93	0.99	1.500			
0.4677	29930.30	3.8130	3.8130	1.4745	26.92	0.98	1.500			
0.4721	30216.01	3.8100	3.8098	1.5066	26.90	0.96	1.500			
0.4767	30507.01	3.8070	3.8070	1.5482	26.89	0.95	1.500			
0.4814	30808.84	3.8040	3.8040	1.5821	26.87	0.93	1.500			
0.4862	31119.39	3.8010	3.8009	1.6293	26.86	0.92	1.500			
0.4911	31432.71	3.7980	3.7982	1.6603	26.84	0.90	1.500			
0.4961	31752.86	3.7950	3.7950	1.7057	26.82	0.88	1.500			
0.5013	32085.51	3.7920	3.7920	1.7544	26.81	0.87	1.500			
0.5067	32426.25	3.7890	3.7890	1.7816	26.79	0.85	1.500			
0.5121	32774.23	3.7860	3.7861	1.8361	26.77	0.83	1.500			
0.5177	33130.43	3.7830	3.7831	1.8854	26.76	0.82	1.500			
0.5234	33497.52	3.7800	3.7799	1.9192	26.74	0.80	1.500			
0.5292	33869.79	3.7770	3.7771	1.9485	26.72	0.78	1.500			
0.5352	34254.02	3.7740	3.7740	1.9609	26.70	0.76	1.500			
0.5411	34627.62	3.7710	3.7710	1.9719	26.68	0.74	1.500			
0.5469	35001.52	3.7680	3.7680	1.9961	26.66	0.72	1.500			
0.5530	35391.42	3.7650	3.7650	2.0335	26.64	0.70	1.500	0.362	0.457	
0.5592	35789.13	3.7620	3.7621	2.0324	26.62	0.68	1.500			
0.5653	36180.16	3.7590	3.7591	2.0394	26.60	0.66	1.500			
0.5714	36569.88	3.7560	3.7559	1.9927	26.57	0.63	1.500			
0.5774	36952.79	3.7530	3.7530	1.9770	26.55	0.61	1.500			
0.5833	37331.16	3.7500	3.7501	1.9548	26.54	0.60	1.500			
0.5891	37701.76	3.7470	3.7470	1.9457	26.52	0.58	1.500			
0.5949	38073.18	3.7440	3.7440	1.9461	26.50	0.56	1.500			
0.6007	38447.25	3.7410	3.7410	1.9620	26.48	0.54	1.500			
0.6067	38828.25	3.7380	3.7381	1.9709	26.46	0.52	1.500			
0.6126	39205.18	3.7350	3.7350	2.0065	26.45	0.51	1.500			
0.6186	39592.24	3.7320	3.7320	2.0351	26.43	0.49	1.500			
0.6248	39985.98	3.7290	3.7290	2.0723	26.41	0.47	1.500			
0.6311	40389.74	3.7260	3.7260	2.0971	26.39	0.45	1.500			
0.6375	40797.40	3.7230	3.7230	2.1496	26.37	0.43	1.500			
0.6438	41205.45	3.7200	3.7201	2.1910	26.35	0.41	1.500			
0.6505	41633.03	3.7170	3.7171	2.2710	26.33	0.39	1.500			
0.6574	42075.32	3.7140	3.7139	2.3582	26.32	0.38	1.500			
0.6646	42536.47	3.7110	3.7110	2.4571	26.30	0.36	1.500			
0.6722	43021.08	3.7080	3.7080	2.5556	26.28	0.34	1.500			
0.6800	43517.70	3.7050	3.7050	2.6021	26.26	0.32	1.500			
0.6880	44029.34	3.7020	3.7020	2.6426	26.24	0.30	1.500			
0.6960	44545.29	3.6990	3.6989	2.6222	26.21	0.27	1.500			
0.7039	45050.07	3.6960	3.6959	2.5178	26.20	0.26	1.500			
0.7113	45523.53	3.6930	3.6930	2.3803	26.18	0.24	1.500			
0.7182	45964.85	3.6900	3.6901	2.1942	26.17	0.23	1.500			
0.7245	46369.78	3.6870	3.6871	2.0341	26.16	0.22	1.500			
0.7303	46737.09	3.6840	3.6840	1.8681	26.15	0.21	1.500			
0.7356	47078.24	3.6810	3.6810	1.7361	26.14	0.20	1.500			
0.7405	47394.64	3.6780	3.6780	1.6201	26.13	0.19	1.500			
0.7452	47693.81	3.6750	3.6750	1.5303	26.12	0.18	1.500			
0.7497	47977.93	3.6720	3.6720	1.4599	26.12	0.18	1.500			
0.7538	48246.00	3.6690	3.6690	1.3912	26.11	0.17	1.500			
0.7579	48506.75	3.6660	3.6660	1.3435	26.10	0.16	1.500			
0.7618	48755.85	3.6630	3.6631	1.3049	26.10	0.16	1.500			
0.7656	48999.91	3.6600	3.6600	1.2770	26.09	0.15	1.500			
0.7694	49239.64	3.6570	3.6570	1.2656	26.08	0.14	1.500			
0.7731	49478.30	3.6540	3.6540	1.2582	26.08	0.14	1.500			
0.7768	49717.11	3.6510	3.6510	1.2717	26.07	0.13	1.500			
0.7807	49962.30	3.6480	3.6480	1.2805	26.06	0.12	1.500			
0.7845	50211.05	3.6450	3.6450	1.2932	26.05	0.11	1.500			
0.7885	50461.83	3.6420	3.6420	1.3016	26.04	0.10	1.500			
0.7924	50714.38	3.6390	3.6392	1.3108	26.03	0.09	1.500			
0.7964	50967.33	3.6360	3.6360	1.3132	26.02	0.08	1.500			
0.8003	51220.48	3.6330	3.6330	1.3113	26.02	0.08	1.500			
0.8042	51471.47	3.6300	3.6301	1.3052	26.01	0.07	1.500			
0.8082	51724.39	3.6270	3.6270	1.3046	26.00	0.06	1.500			
0.8121	51973.43	3.6240	3.6241	1.2936	26.00	0.06	1.500			
0.8159	52220.00	3.6210	3.6210	1.2913	25.99	0.05	1.500			
0.8198	52466.20	3.6180	3.6180	1.2867	25.98	0.04	1.500			
0.8237	52713.73	3.6150	3.6150	1.2851	25.98	0.04	1.500			
0.8275	52960.79	3.6120	3.6121	1.2794	25.97	0.03	1.500			
0.8314	53209.00	3.6090	3.6090	1.2691	25.97	0.03	1.500			
0.8352	53452.89	3.6060	3.6061	1.2495	25.96	0.02	1.500			
0.8389	53691.28	3.6030	3.6030	1.2378	25.95	0.01	1.500			
0.8426	53926.63	3.6000	3.6000	1.2178	25.95	0.01	1.500			
0.8462	54158.64	3.5970	3.5969	1.1986	25.94	0.00	1.500			
0.8498	54385.41	3.5940	3.5941	1.1866	25.94	0.00	1.500			
0.8533	54613.11	3.5910	3.5911	1.1747	25.94	0.00	1.500			
0.8568	54836.88	3.5880	3.5879	1.1667	25.94	0.00	1.500			
0.8603	55061.13	3.5850	3.5850	1.1534	25.94	0.00	1.500			
0.8638	55280.73	3.5820	3.5820	1.1361	25.94	0.00	1.500			
0.8673	55504.90	3.5790	3.5790	1.0980	25.94	0.00	1.500			
0.8706	55720.62	3.5760	3.5760	1.0454	25.94	0.00	1.500			
0.8738	55920.52	3.5730	3.5730	0.9458	25.94	0.00	1.500			
0.8766	56101.16	3.5700	3.5701	0.8426	25.94	0.00	1.500			
0.8789	56249.70	3.5670	3.5671	0.7172	25.94	0.00	1.500			
0.8808	56373.51	3.5640	3.5639	0.5940	25.94	0.00	1.500			
0.8823	56467.67	3.5610	3.5610	0.4800	25.94	0.00	1.500			
0.8835	56546.13	3.5580	3.5579	0.4022	25.94	0.00	1.500			
0.8845	56609.41	3.5550	3.5551	0.3351	25.94	0.00	1.500			
0.8854	56665.17	3.5520	3.5519	0.2903	25.94	0.00	1.500			
0.8861	56713.48	3.5490	3.5489	0.2488	25.94	0.00	1.500			
0.8868	56755.69	3.5460	3.5459	0.2216	25.94	0.00	1.500			
0.8874	56794.11	3.5430	3.5429	0.1997	25.94	0.00	1.500			
0.8880	56829.67	3.5400	3.5401	0.1814	25.94	0.00	1.500			
0.8885	56863.00	3.5370	3.5370	0.1658	25.94	0.00	1.500			
0.8889	56892.70	3.5340	3.5340	0.1510	25.94	0.00	1.500			
0.8894	56920.13	3.5310	3.5310	0.1367	25.94	0.00	1.500			
0.8898	56944.86	3.5280	3.5280	0.1225	25.94	0.00	1.500			
0.8901	56967.12	3.5250	3.5251	0.1093	25.94	0.00	1.500			
0.8904	56987.05	3.5220	3.5220	0.0964	25.94	0.00	1.500			
0.8907	57004.35	3.5190	3.5190	0.0830	25.94	0.00	1.500			
0.8909	57018.99	3.5160	3.5162	0.0694	25.94	0.00	1.500			
0.8911	57031.06	3.5130	3.5135	0.0557	25.94	0.00	1.500			
0.8913	57040.44	3.5100	3.5107	0.0420	25.94	0.00	1.500			
