Ah_balance (normalized)	Ah_balance (mAh)	Voltage - fit (V)	Voltage -  interpolate (V)	dQ/dV (1/V)	Temperature (°C)	Temperature - diff (°C)	Current (C)	R_DC 0ms (mOhm)	R_DC 50ms (mOhm)	R_DC 50 ms PEC (mOhm)
0.2672	17099.16	3.9910	3.9910	0.8482	27.28	1.32	1.500			
0.2697	17262.60	3.9880	3.9880	0.8554	27.28	1.32	1.500			
0.2723	17429.69	3.9850	3.9850	0.8620	27.28	1.32	1.500			
0.2749	17595.36	3.9820	3.9819	0.8579	27.27	1.31	1.500			
0.2775	17759.31	3.9790	3.9791	0.8565	27.27	1.31	1.500			
0.2801	17923.29	3.9760	3.9759	0.8561	27.27	1.31	1.500			
0.2826	18086.49	3.9730	3.9730	0.8583	27.26	1.30	1.500			
0.2852	18250.55	3.9700	3.9699	0.8597	27.26	1.30	1.500			
0.2877	18414.94	3.9670	3.9670	0.8633	27.26	1.30	1.500			
0.2904	18582.81	3.9640	3.9640	0.8694	27.25	1.29	1.500			
0.2930	18749.93	3.9610	3.9608	0.8751	27.25	1.29	1.500			
0.2956	18917.95	3.9580	3.9581	0.8786	27.25	1.29	1.500			
0.2982	19086.73	3.9550	3.9550	0.8826	27.24	1.28	1.500			
0.3009	19256.79	3.9520	3.9519	0.8852	27.23	1.27	1.500			
0.3036	19427.52	3.9490	3.9490	0.8902	27.23	1.27	1.500			
0.3062	19597.55	3.9460	3.9461	0.8937	27.22	1.26	1.500			
0.3089	19770.75	3.9430	3.9429	0.8941	27.21	1.25	1.500			
0.3116	19942.26	3.9400	3.9401	0.9004	27.21	1.25	1.500			
0.3143	20116.40	3.9370	3.9370	0.9058	27.20	1.24	1.500			
0.3170	20290.68	3.9340	3.9340	0.9113	27.19	1.23	1.500			
0.3198	20466.30	3.9310	3.9311	0.9150	27.19	1.23	1.500			
0.3225	20641.22	3.9280	3.9280	0.9166	27.18	1.22	1.500			
0.3253	20817.86	3.9250	3.9250	0.9198	27.18	1.22	1.500			
0.3280	20994.32	3.9220	3.9220	0.9282	27.17	1.21	1.500			
0.3308	21173.13	3.9190	3.9190	0.9325	27.17	1.21	1.500			
0.3336	21352.37	3.9160	3.9160	0.9375	27.17	1.21	1.500			
0.3365	21532.90	3.9130	3.9130	0.9467	27.16	1.20	1.500			
0.3393	21716.23	3.9100	3.9100	0.9532	27.16	1.20	1.500			
0.3422	21899.97	3.9070	3.9069	0.9590	27.15	1.19	1.500			
0.3451	22083.88	3.9040	3.9041	0.9685	27.15	1.19	1.500			
0.3480	22269.60	3.9010	3.9010	0.9732	27.14	1.18	1.500			
0.3509	22458.32	3.8980	3.8980	0.9857	27.14	1.18	1.500			
0.3539	22648.03	3.8950	3.8950	0.9941	27.13	1.17	1.500			
0.3569	22841.69	3.8920	3.8920	1.0008	27.12	1.16	1.500			
0.3599	23033.69	3.8890	3.8891	1.0107	27.12	1.16	1.500			
0.3629	23228.04	3.8860	3.8860	1.0181	27.11	1.15	1.500			
0.3660	23422.48	3.8830	3.8830	1.0287	27.11	1.15	1.500			
0.3691	23620.30	3.8800	3.8799	1.0422	27.10	1.14	1.500			
0.3722	23821.27	3.8770	3.8771	1.0562	27.09	1.13	1.500			
0.3754	24026.79	3.8740	3.8739	1.0728	27.08	1.12	1.500			
0.3787	24235.74	3.8710	3.8710	1.0837	27.07	1.11	1.500			
0.3820	24444.89	3.8680	3.8680	1.0918	27.06	1.10	1.500			
0.3853	24656.15	3.8650	3.8650	1.1020	27.05	1.09	1.500			
0.3886	24867.54	3.8620	3.8619	1.1101	27.04	1.08	1.500			
0.3919	25079.78	3.8590	3.8590	1.1186	27.03	1.07	1.500			
0.3952	25295.77	3.8560	3.8560	1.1319	27.02	1.06	1.500			
0.3987	25514.55	3.8530	3.8530	1.1473	27.01	1.05	1.500			
0.4021	25736.31	3.8500	3.8500	1.1641	27.00	1.04	1.500			
0.4056	25960.44	3.8470	3.8471	1.1810	26.99	1.03	1.500			
0.4092	26188.56	3.8440	3.8439	1.1972	26.98	1.02	1.500			
0.4128	26420.69	3.8410	3.8410	1.2146	26.97	1.01	1.500			
0.4165	26654.87	3.8380	3.8380	1.2327	26.96	1.00	1.500			
0.4202	26892.86	3.8350	3.8350	1.2529	26.94	0.98	1.500			
0.4240	27135.31	3.8320	3.8320	1.2767	26.93	0.97	1.500			
0.4279	27382.85	3.8290	3.8291	1.2978	26.92	0.96	1.500			
0.4317	27631.80	3.8260	3.8260	1.3165	26.91	0.95	1.500			
0.4357	27886.79	3.8230	3.8230	1.3420	26.90	0.94	1.500			
0.4398	28145.67	3.8200	3.8201	1.3677	26.88	0.92	1.500			
0.4439	28410.52	3.8170	3.8168	1.3932	26.87	0.91	1.500			
0.4481	28680.48	3.8140	3.8142	1.4206	26.86	0.90	1.500			
0.4524	28956.57	3.8110	3.8110	1.4479	26.85	0.89	1.500			
0.4569	29239.87	3.8080	3.8080	1.4743	26.83	0.87	1.500			
0.4613	29521.04	3.8050	3.8050	1.4941	26.81	0.85	1.500			
0.4658	29812.92	3.8020	3.8020	1.5288	26.79	0.83	1.500			
0.4704	30108.45	3.7990	3.7990	1.5572	26.77	0.81	1.500			
0.4752	30411.23	3.7960	3.7960	1.5897	26.76	0.80	1.500			
0.4800	30720.74	3.7930	3.7930	1.6087	26.75	0.79	1.500			
0.4849	31032.00	3.7900	3.7900	1.6286	26.73	0.77	1.500			
0.4898	31344.12	3.7870	3.7871	1.6609	26.72	0.76	1.500			
0.4948	31664.05	3.7840	3.7839	1.6966	26.71	0.75	1.500			
0.4999	31992.78	3.7810	3.7810	1.7225	26.69	0.73	1.500			
0.5052	32331.11	3.7780	3.7777	1.7387	26.67	0.71	1.500	0.347	0.468	
0.5104	32666.99	3.7750	3.7750	1.7485	26.66	0.70	1.500			
0.5157	33004.30	3.7720	3.7720	1.7525	26.64	0.68	1.500			
0.5209	33337.03	3.7690	3.7690	1.7490	26.62	0.66	1.500			
0.5262	33675.66	3.7660	3.7660	1.7489	26.61	0.65	1.500			
0.5315	34012.87	3.7630	3.7630	1.7684	26.59	0.63	1.500			
0.5367	34347.75	3.7600	3.7601	1.7695	26.58	0.62	1.500			
0.5420	34687.31	3.7570	3.7570	1.7892	26.56	0.60	1.500			
0.5474	35032.65	3.7540	3.7540	1.8040	26.55	0.59	1.500			
0.5529	35383.32	3.7510	3.7510	1.8050	26.54	0.58	1.500			
0.5583	35734.00	3.7480	3.7481	1.8319	26.52	0.56	1.500			
0.5638	36080.77	3.7450	3.7450	1.8416	26.51	0.55	1.500			
0.5693	36433.27	3.7420	3.7420	1.8693	26.50	0.54	1.500			
0.5749	36796.46	3.7390	3.7390	1.9167	26.48	0.52	1.500			
0.5808	37171.45	3.7360	3.7360	1.9447	26.47	0.51	1.500			
0.5866	37543.66	3.7330	3.7331	1.9770	26.45	0.49	1.500			
0.5926	37927.15	3.7300	3.7299	2.0343	26.43	0.47	1.500			
0.5988	38322.10	3.7270	3.7270	2.0924	26.42	0.46	1.500			
0.6052	38730.56	3.7240	3.7240	2.1493	26.40	0.44	1.500			
0.6118	39153.23	3.7210	3.7210	2.2041	26.39	0.43	1.500			
0.6184	39578.39	3.7180	3.7179	2.2801	26.37	0.41	1.500			
0.6253	40022.02	3.7150	3.7150	2.3321	26.36	0.40	1.500			
0.6325	40481.22	3.7120	3.7120	2.3787	26.34	0.38	1.500			
0.6397	40941.42	3.7090	3.7090	2.4094	26.33	0.37	1.500			
0.6470	41407.65	3.7060	3.7060	2.3670	26.31	0.35	1.500			
0.6542	41867.53	3.7030	3.7030	2.3057	26.29	0.33	1.500			
0.6609	42299.66	3.7000	3.6999	2.1806	26.28	0.32	1.500			
0.6673	42706.70	3.6970	3.6969	2.0413	26.26	0.30	1.500			
0.6732	43082.04	3.6940	3.6941	1.9002	26.25	0.29	1.500			
0.6787	43436.87	3.6910	3.6910	1.7755	26.24	0.28	1.500			
0.6837	43754.44	3.6880	3.6880	1.6455	26.23	0.27	1.500			
0.6885	44061.90	3.6850	3.6850	1.5678	26.22	0.26	1.500			
0.6930	44352.14	3.6820	3.6819	1.4916	26.21	0.25	1.500			
0.6974	44632.34	3.6790	3.6790	1.4266	26.20	0.24	1.500			
0.7015	44896.85	3.6760	3.6761	1.3779	26.19	0.23	1.500			
0.7055	45153.89	3.6730	3.6730	1.3357	26.18	0.22	1.500			
0.7094	45404.65	3.6700	3.6699	1.3029	26.17	0.21	1.500			
0.7132	45647.63	3.6670	3.6670	1.2898	26.16	0.20	1.500			
0.7171	45891.50	3.6640	3.6640	1.2811	26.15	0.19	1.500			
0.7209	46137.14	3.6610	3.6609	1.2816	26.14	0.18	1.500			
0.7247	46383.72	3.6580	3.6580	1.2853	26.13	0.17	1.500			
0.7286	46630.32	3.6550	3.6550	1.2847	26.12	0.16	1.500			
0.7325	46878.04	3.6520	3.6520	1.2919	26.11	0.15	1.500			
0.7364	47127.70	3.6490	3.6489	1.2916	26.10	0.14	1.500			
0.7402	47374.90	3.6460	3.6461	1.2880	26.09	0.13	1.500			
0.7441	47623.03	3.6430	3.6429	1.2852	26.08	0.12	1.500			
0.7479	47868.78	3.6400	3.6401	1.2811	26.07	0.11	1.500			
0.7518	48114.12	3.6370	3.6370	1.2774	26.06	0.10	1.500			
0.7556	48359.88	3.6340	3.6339	1.2696	26.05	0.09	1.500			
0.7594	48601.94	3.6310	3.6310	1.2664	26.04	0.08	1.500			
0.7632	48846.08	3.6280	3.6280	1.2650	26.03	0.07	1.500			
0.7670	49090.76	3.6250	3.6250	1.2568	26.02	0.06	1.500			
0.7708	49331.49	3.6220	3.6220	1.2490	26.02	0.06	1.500			
0.7745	49569.73	3.6190	3.6191	1.2393	26.01	0.05	1.500			
0.7782	49807.88	3.6160	3.6160	1.2268	26.00	0.04	1.500			
0.7819	50043.63	3.6130	3.6129	1.2081	26.00	0.04	1.500			
0.7855	50273.83	3.6100	3.6101	1.1910	25.99	0.03	1.500			
0.7891	50501.30	3.6070	3.6071	1.1751	25.99	0.03	1.500			
0.7926	50725.30	3.6040	3.6039	1.1586	25.98	0.02	1.500			
0.7960	50945.89	3.6010	3.6010	1.1335	25.98	0.02	1.500			
0.7994	51162.21	3.5980	3.5980	1.1112	25.98	0.02	1.500			
0.8027	51375.90	3.5950	3.5951	1.0911	25.97	0.01	1.500			
0.8060	51583.77	3.5920	3.5919	1.0618	25.97	0.01	1.500			
0.8092	51786.50	3.5890	3.5890	1.0198	25.97	0.01	1.500			
0.8122	51981.78	3.5860	3.5859	0.9591	25.97	0.01	1.500			
0.8151	52165.27	3.5830	3.5831	0.8790	25.96	0.00	1.500			
0.8177	52333.78	3.5800	3.5800	0.7969	25.96	0.00	1.500			
0.8200	52477.81	3.5770	3.5770	0.6941	25.96	-0.00	1.500			
0.8219	52600.29	3.5740	3.5741	0.5911	25.96	-0.00	1.500			
0.8234	52699.48	3.5710	3.5710	0.5012	25.96	-0.00	1.500			
0.8247	52782.94	3.5680	3.5679	0.4193	25.96	-0.00	1.500			
0.8258	52850.26	3.5650	3.5650	0.3497	25.95	-0.01	1.500			
0.8267	52909.84	3.5620	3.5620	0.3052	25.95	-0.01	1.500			
0.8275	52961.15	3.5590	3.5590	0.2668	25.95	-0.01	1.500			
0.8282	53007.96	3.5560	3.5560	0.2393	25.95	-0.01	1.500			
0.8289	53049.82	3.5530	3.5529	0.2132	25.95	-0.01	1.500			
0.8295	53087.65	3.5500	3.5500	0.1939	25.95	-0.01	1.500			
0.8300	53122.49	3.5470	3.5472	0.1770	25.95	-0.01	1.500			
0.8305	53155.08	3.5440	3.5440	0.1622	25.95	-0.01	1.500			
0.8310	53184.59	3.5410	3.5409	0.1484	25.95	-0.01	1.500			
0.8314	53211.44	3.5380	3.5380	0.1340	25.95	-0.01	1.500			
0.8318	53235.81	3.5350	3.5351	0.1197	25.95	-0.01	1.500			
0.8322	53257.64	3.5320	3.5319	0.1066	25.95	-0.01	1.500			
0.8324	53276.78	3.5290	3.5291	0.0928	25.95	-0.01	1.500			
0.8327	53293.45	3.5260	3.5261	0.0790	25.95	-0.01	1.500			
0.8329	53307.26	3.5230	3.5233	0.0649	25.95	-0.01	1.500			
0.8331	53318.53	3.5200	3.5207	0.0502	25.95	-0.01	1.500			
0.8332	53326.77	3.5170	3.5179	0.0356	25.95	-0.01	1.500			
