Ah_balance (normalized)	Ah_balance (mAh)	Voltage - fit (V)	Voltage -  interpolate (V)	dQ/dV (1/V)	Temperature (°C)	Temperature - diff (°C)	Current (C)	R_DC 0ms (mOhm)	R_DC 50ms (mOhm)	R_DC 50 ms PEC (mOhm)
0.2707	17323.71	3.9900	3.9900	0.8626	27.36	1.40	1.500			
0.2732	17486.48	3.9870	3.9870	0.8507	27.35	1.39	1.500			
0.2758	17650.84	3.9840	3.9840	0.8497	27.35	1.39	1.500			
0.2783	17813.61	3.9810	3.9810	0.8470	27.34	1.38	1.500			
0.2808	17974.37	3.9780	3.9780	0.8510	27.34	1.38	1.500			
0.2834	18138.20	3.9750	3.9749	0.8558	27.33	1.37	1.500			
0.2860	18303.24	3.9720	3.9719	0.8557	27.33	1.37	1.500			
0.2886	18467.81	3.9690	3.9690	0.8585	27.32	1.36	1.500			
0.2911	18632.14	3.9660	3.9661	0.8595	27.32	1.36	1.500			
0.2937	18798.23	3.9630	3.9630	0.8675	27.31	1.35	1.500			
0.2963	18963.58	3.9600	3.9599	0.8707	27.31	1.35	1.500			
0.2989	19130.70	3.9570	3.9569	0.8730	27.30	1.34	1.500			
0.3016	19299.48	3.9540	3.9541	0.8805	27.30	1.34	1.500			
0.3042	19469.81	3.9510	3.9510	0.8877	27.29	1.33	1.500			
0.3069	19642.23	3.9480	3.9480	0.8889	27.28	1.32	1.500			
0.3096	19813.45	3.9450	3.9450	0.8903	27.28	1.32	1.500			
0.3122	19982.82	3.9420	3.9420	0.8897	27.27	1.31	1.500			
0.3149	20153.81	3.9390	3.9391	0.8941	27.26	1.30	1.500			
0.3176	20324.74	3.9360	3.9359	0.8991	27.26	1.30	1.500			
0.3203	20496.38	3.9330	3.9329	0.9063	27.25	1.29	1.500			
0.3230	20670.69	3.9300	3.9300	0.9148	27.24	1.28	1.500			
0.3258	20848.78	3.9270	3.9270	0.9206	27.24	1.28	1.500			
0.3285	21026.71	3.9240	3.9240	0.9319	27.23	1.27	1.500			
0.3314	21207.10	3.9210	3.9210	0.9332	27.22	1.26	1.500			
0.3342	21385.98	3.9180	3.9179	0.9423	27.21	1.25	1.500			
0.3370	21567.31	3.9150	3.9150	0.9475	27.20	1.24	1.500			
0.3399	21750.66	3.9120	3.9120	0.9508	27.20	1.24	1.500			
0.3427	21933.73	3.9090	3.9090	0.9581	27.19	1.23	1.500			
0.3456	22118.50	3.9060	3.9059	0.9634	27.18	1.22	1.500			
0.3485	22302.31	3.9030	3.9031	0.9683	27.17	1.21	1.500			
0.3514	22490.37	3.9000	3.8999	0.9773	27.16	1.20	1.500			
0.3543	22676.62	3.8970	3.8971	0.9855	27.15	1.19	1.500			
0.3573	22867.75	3.8940	3.8940	0.9930	27.14	1.18	1.500			
0.3603	23060.30	3.8910	3.8910	1.0065	27.13	1.17	1.500			
0.3633	23252.92	3.8880	3.8880	1.0125	27.12	1.16	1.500			
0.3664	23447.70	3.8850	3.8849	1.0211	27.11	1.15	1.500			
0.3694	23644.06	3.8820	3.8821	1.0309	27.10	1.14	1.500			
0.3726	23843.64	3.8790	3.8790	1.0456	27.09	1.13	1.500			
0.3757	24045.12	3.8760	3.8760	1.0534	27.09	1.13	1.500			
0.3789	24249.17	3.8730	3.8730	1.0682	27.08	1.12	1.500			
0.3821	24455.10	3.8700	3.8700	1.0765	27.07	1.11	1.500			
0.3854	24664.26	3.8670	3.8670	1.0788	27.06	1.10	1.500			
0.3886	24871.20	3.8640	3.8640	1.0909	27.05	1.09	1.500			
0.3919	25079.66	3.8610	3.8611	1.1003	27.04	1.08	1.500			
0.3952	25289.81	3.8580	3.8579	1.1208	27.03	1.07	1.500			
0.3985	25505.75	3.8550	3.8550	1.1403	27.02	1.06	1.500			
0.4020	25725.82	3.8520	3.8520	1.1635	27.01	1.05	1.500			
0.4056	25955.58	3.8490	3.8489	1.1845	26.99	1.03	1.500			
0.4092	26186.17	3.8460	3.8460	1.1979	26.98	1.02	1.500			
0.4128	26417.39	3.8430	3.8430	1.2096	26.97	1.01	1.500			
0.4164	26651.84	3.8400	3.8400	1.2197	26.95	0.99	1.500			
0.4201	26884.56	3.8370	3.8370	1.2365	26.94	0.98	1.500			
0.4238	27121.29	3.8340	3.8340	1.2544	26.93	0.97	1.500			
0.4275	27362.57	3.8310	3.8310	1.2764	26.92	0.96	1.500			
0.4314	27612.51	3.8280	3.8280	1.3001	26.91	0.95	1.500			
0.4354	27862.87	3.8250	3.8250	1.3238	26.89	0.93	1.500			
0.4394	28119.07	3.8220	3.8220	1.3485	26.88	0.92	1.500			
0.4435	28381.28	3.8190	3.8190	1.3714	26.87	0.91	1.500			
0.4476	28645.43	3.8160	3.8160	1.3908	26.85	0.89	1.500			
0.4518	28915.49	3.8130	3.8130	1.4090	26.84	0.88	1.500			
0.4561	29189.31	3.8100	3.8100	1.4241	26.83	0.87	1.500			
0.4604	29464.04	3.8070	3.8070	1.4536	26.81	0.85	1.500			
0.4647	29742.25	3.8040	3.8040	1.4748	26.80	0.84	1.500			
0.4692	30027.37	3.8010	3.8009	1.5077	26.78	0.82	1.500			
0.4737	30319.97	3.7980	3.7981	1.5393	26.77	0.81	1.500			
0.4785	30621.10	3.7950	3.7950	1.5623	26.75	0.79	1.500			
0.4832	30922.40	3.7920	3.7920	1.5787	26.73	0.77	1.500			
0.4879	31224.92	3.7890	3.7891	1.6085	26.72	0.76	1.500			
0.4927	31531.12	3.7860	3.7860	1.6443	26.70	0.74	1.500			
0.4977	31849.72	3.7830	3.7832	1.6889	26.68	0.72	1.500	0.342	0.472	
0.5029	32182.99	3.7800	3.7801	1.7084	26.67	0.71	1.500			
0.5081	32519.30	3.7770	3.7770	1.7241	26.65	0.69	1.500			
0.5132	32842.95	3.7740	3.7741	1.7014	26.64	0.68	1.500			
0.5183	33171.17	3.7710	3.7709	1.7196	26.63	0.67	1.500			
0.5235	33501.66	3.7680	3.7680	1.7234	26.61	0.65	1.500			
0.5287	33835.35	3.7650	3.7651	1.7355	26.59	0.63	1.500			
0.5340	34173.00	3.7620	3.7620	1.7318	26.58	0.62	1.500			
0.5391	34504.15	3.7590	3.7590	1.7288	26.56	0.60	1.500			
0.5442	34831.88	3.7560	3.7559	1.7342	26.54	0.58	1.500			
0.5494	35164.29	3.7530	3.7530	1.7568	26.53	0.57	1.500			
0.5548	35506.41	3.7500	3.7500	1.7740	26.51	0.55	1.500			
0.5601	35847.79	3.7470	3.7470	1.8103	26.49	0.53	1.500			
0.5656	36196.21	3.7440	3.7441	1.8375	26.48	0.52	1.500			
0.5711	36551.55	3.7410	3.7409	1.8752	26.46	0.50	1.500			
0.5768	36914.20	3.7380	3.7380	1.9140	26.45	0.49	1.500			
0.5826	37285.82	3.7350	3.7350	1.9512	26.44	0.48	1.500			
0.5884	37659.33	3.7320	3.7321	2.0137	26.43	0.47	1.500			
0.5946	38054.17	3.7290	3.7288	2.0707	26.42	0.46	1.500			
0.6009	38457.70	3.7260	3.7261	2.1250	26.41	0.45	1.500			
0.6074	38876.12	3.7230	3.7230	2.1700	26.39	0.43	1.500			
0.6140	39296.36	3.7200	3.7200	2.2285	26.38	0.42	1.500			
0.6206	39720.42	3.7170	3.7169	2.2566	26.36	0.40	1.500			
0.6276	40168.19	3.7140	3.7141	2.2853	26.34	0.38	1.500			
0.6346	40611.69	3.7110	3.7110	2.2957	26.33	0.37	1.500			
0.6415	41053.96	3.7080	3.7080	2.2589	26.31	0.35	1.500			
0.6483	41489.28	3.7050	3.7052	2.1772	26.29	0.33	1.500			
0.6547	41903.25	3.7020	3.7020	2.0654	26.28	0.32	1.500			
0.6606	42280.68	3.6990	3.6990	1.9135	26.26	0.30	1.500			
0.6660	42626.57	3.6960	3.6960	1.7786	26.25	0.29	1.500			
0.6712	42956.66	3.6930	3.6930	1.6770	26.24	0.28	1.500			
0.6761	43267.73	3.6900	3.6900	1.5872	26.23	0.27	1.500			
0.6807	43563.87	3.6870	3.6870	1.5050	26.22	0.26	1.500			
0.6850	43840.91	3.6840	3.6840	1.4425	26.21	0.25	1.500			
0.6892	44109.16	3.6810	3.6810	1.3857	26.20	0.24	1.500			
0.6932	44363.75	3.6780	3.6781	1.3435	26.19	0.23	1.500			
0.6972	44617.67	3.6750	3.6749	1.3156	26.18	0.22	1.500			
0.7010	44865.87	3.6720	3.6721	1.2969	26.17	0.21	1.500			
0.7049	45113.37	3.6690	3.6690	1.2873	26.16	0.20	1.500			
0.7087	45359.53	3.6660	3.6661	1.2848	26.15	0.19	1.500			
0.7125	45603.13	3.6630	3.6630	1.2767	26.14	0.18	1.500			
0.7164	45847.99	3.6600	3.6600	1.2752	26.13	0.17	1.500			
0.7202	46092.57	3.6570	3.6568	1.2735	26.12	0.16	1.500			
0.7240	46337.94	3.6540	3.6541	1.2732	26.11	0.15	1.500			
0.7279	46582.59	3.6510	3.6510	1.2631	26.10	0.14	1.500			
0.7317	46825.76	3.6480	3.6480	1.2543	26.09	0.13	1.500			
0.7354	47064.88	3.6450	3.6450	1.2461	26.08	0.12	1.500			
0.7391	47301.79	3.6420	3.6420	1.2406	26.07	0.11	1.500			
0.7428	47540.04	3.6390	3.6390	1.2302	26.06	0.10	1.500			
0.7465	47774.55	3.6360	3.6360	1.2218	26.05	0.09	1.500			
0.7501	48008.50	3.6330	3.6331	1.2160	26.04	0.08	1.500			
0.7538	48242.69	3.6300	3.6300	1.2126	26.03	0.07	1.500			
0.7574	48475.42	3.6270	3.6269	1.1981	26.03	0.07	1.500			
0.7610	48704.59	3.6240	3.6240	1.1827	26.02	0.06	1.500			
0.7645	48930.55	3.6210	3.6210	1.1695	26.01	0.05	1.500			
0.7680	49155.06	3.6180	3.6181	1.1569	26.00	0.04	1.500			
0.7715	49376.04	3.6150	3.6149	1.1356	26.00	0.04	1.500			
0.7749	49592.21	3.6120	3.6120	1.1141	25.99	0.03	1.500			
0.7782	49804.73	3.6090	3.6090	1.0896	25.99	0.03	1.500			
0.7814	50012.76	3.6060	3.6061	1.0653	25.98	0.02	1.500			
0.7846	50216.30	3.6030	3.6029	1.0371	25.98	0.02	1.500			
0.7877	50412.23	3.6000	3.6000	1.0051	25.97	0.01	1.500			
0.7907	50602.08	3.5970	3.5970	0.9729	25.97	0.01	1.500			
0.7936	50788.97	3.5940	3.5940	0.9258	25.96	0.00	1.500			
0.7963	50966.25	3.5910	3.5910	0.8748	25.96	-0.00	1.500			
0.7989	51131.84	3.5880	3.5880	0.8015	25.95	-0.01	1.500			
0.8013	51282.73	3.5850	3.5851	0.7239	25.95	-0.01	1.500			
0.8034	51414.43	3.5820	3.5820	0.6351	25.95	-0.01	1.500			
0.8051	51527.53	3.5790	3.5790	0.5455	25.94	-0.02	1.500			
0.8066	51619.90	3.5760	3.5760	0.4653	25.94	-0.02	1.500			
0.8078	51699.52	3.5730	3.5730	0.3979	25.94	-0.02	1.500			
0.8088	51764.34	3.5700	3.5699	0.3396	25.94	-0.02	1.500			
0.8097	51822.51	3.5670	3.5670	0.2972	25.94	-0.02	1.500			
0.8105	51872.86	3.5640	3.5639	0.2565	25.94	-0.02	1.500			
0.8112	51917.83	3.5610	3.5609	0.2294	25.93	-0.03	1.500			
0.8118	51957.56	3.5580	3.5581	0.2055	25.93	-0.03	1.500			
0.8124	51993.63	3.5550	3.5550	0.1859	25.93	-0.03	1.500			
0.8129	52027.37	3.5520	3.5519	0.1680	25.93	-0.03	1.500			
0.8134	52057.20	3.5490	3.5490	0.1526	25.93	-0.03	1.500			
0.8138	52084.33	3.5460	3.5460	0.1369	25.93	-0.03	1.500			
0.8142	52109.58	3.5430	3.5430	0.1229	25.93	-0.03	1.500			
0.8146	52131.82	3.5400	3.5400	0.1087	25.93	-0.03	1.500			
0.8149	52151.43	3.5370	3.5371	0.0947	25.93	-0.03	1.500			
0.8151	52168.46	3.5340	3.5341	0.0805	25.93	-0.03	1.500			
0.8154	52182.51	3.5310	3.5313	0.0659	25.93	-0.03	1.500			
0.8155	52194.07	3.5280	3.5284	0.0503	25.93	-0.03	1.500			
0.8157	52202.24	3.5250	3.5258	0.0348	25.93	-0.03	1.500			
