Ah_balance (normalized)	Ah_balance (mAh)	Voltage - fit (V)	Voltage -  interpolate (V)	dQ/dV (1/V)	Temperature (°C)	Temperature - diff (°C)	Current (C)	R_DC 0ms (mOhm)	R_DC 50ms (mOhm)	R_DC 50 ms PEC (mOhm)
0.2869	18359.25	3.9850	3.9850	0.7717	27.04	1.08	1.500			
0.2893	18512.75	3.9820	3.9820	0.8185	27.04	1.08	1.500			
0.2918	18673.30	3.9790	3.9790	0.8406	27.03	1.07	1.500			
0.2943	18837.54	3.9760	3.9761	0.8511	27.03	1.07	1.500			
0.2969	19002.70	3.9730	3.9730	0.8601	27.02	1.06	1.500			
0.2995	19168.77	3.9700	3.9701	0.8679	27.02	1.06	1.500			
0.3022	19338.05	3.9670	3.9669	0.8705	27.01	1.05	1.500			
0.3047	19503.44	3.9640	3.9640	0.8689	27.01	1.05	1.500			
0.3074	19671.57	3.9610	3.9611	0.8720	27.00	1.04	1.500			
0.3100	19838.52	3.9580	3.9580	0.8768	27.00	1.04	1.500			
0.3126	20007.48	3.9550	3.9550	0.8772	26.99	1.03	1.500			
0.3152	20174.70	3.9520	3.9520	0.8765	26.99	1.03	1.500			
0.3178	20342.19	3.9490	3.9490	0.8815	26.98	1.02	1.500			
0.3205	20513.42	3.9460	3.9461	0.8920	26.98	1.02	1.500			
0.3232	20685.19	3.9430	3.9429	0.8922	26.97	1.01	1.500			
0.3259	20857.39	3.9400	3.9400	0.8983	26.97	1.01	1.500			
0.3286	21030.40	3.9370	3.9371	0.9002	26.96	1.00	1.500			
0.3313	21203.78	3.9340	3.9340	0.9126	26.96	1.00	1.500			
0.3341	21379.74	3.9310	3.9310	0.9148	26.95	0.99	1.500			
0.3368	21554.66	3.9280	3.9279	0.9173	26.95	0.99	1.500			
0.3396	21731.24	3.9250	3.9251	0.9232	26.95	0.99	1.500			
0.3424	21911.99	3.9220	3.9219	0.9277	26.94	0.98	1.500			
0.3451	22088.47	3.9190	3.9191	0.9314	26.94	0.98	1.500			
0.3479	22267.05	3.9160	3.9160	0.9362	26.93	0.97	1.500			
0.3507	22445.47	3.9130	3.9130	0.9415	26.93	0.97	1.500			
0.3536	22628.32	3.9100	3.9100	0.9514	26.92	0.96	1.500			
0.3564	22810.29	3.9070	3.9069	0.9634	26.92	0.96	1.500			
0.3593	22997.01	3.9040	3.9041	0.9700	26.91	0.95	1.500			
0.3623	23184.78	3.9010	3.9011	0.9794	26.91	0.95	1.500			
0.3652	23373.68	3.8980	3.8980	0.9827	26.90	0.94	1.500			
0.3682	23564.55	3.8950	3.8948	0.9868	26.90	0.94	1.500			
0.3711	23753.08	3.8920	3.8921	0.9923	26.89	0.93	1.500			
0.3741	23942.99	3.8890	3.8890	1.0015	26.89	0.93	1.500			
0.3771	24134.15	3.8860	3.8861	1.0097	26.88	0.92	1.500			
0.3801	24329.18	3.8830	3.8830	1.0230	26.87	0.91	1.500			
0.3832	24527.65	3.8800	3.8800	1.0346	26.86	0.90	1.500			
0.3864	24727.70	3.8770	3.8770	1.0518	26.86	0.90	1.500			
0.3896	24932.37	3.8740	3.8740	1.0624	26.85	0.89	1.500			
0.3928	25137.38	3.8710	3.8708	1.0654	26.84	0.88	1.500			
0.3960	25341.21	3.8680	3.8680	1.0742	26.83	0.87	1.500			
0.3992	25548.87	3.8650	3.8651	1.0845	26.83	0.87	1.500			
0.4024	25755.08	3.8620	3.8620	1.0999	26.82	0.86	1.500			
0.4058	25968.17	3.8590	3.8589	1.1162	26.81	0.85	1.500			
0.4091	26180.99	3.8560	3.8561	1.1328	26.81	0.85	1.500			
0.4126	26403.28	3.8530	3.8530	1.1532	26.80	0.84	1.500			
0.4161	26627.82	3.8500	3.8501	1.1760	26.79	0.83	1.500			
0.4196	26854.78	3.8470	3.8470	1.1935	26.79	0.83	1.500			
0.4232	27086.74	3.8440	3.8439	1.2073	26.78	0.82	1.500			
0.4268	27318.27	3.8410	3.8410	1.2243	26.77	0.81	1.500			
0.4306	27556.84	3.8380	3.8381	1.2318	26.76	0.80	1.500			
0.4343	27793.60	3.8350	3.8349	1.2584	26.75	0.79	1.500			
0.4381	28036.43	3.8320	3.8321	1.2831	26.73	0.77	1.500			
0.4419	28281.76	3.8290	3.8289	1.3032	26.72	0.76	1.500			
0.4458	28534.25	3.8260	3.8261	1.3339	26.71	0.75	1.500			
0.4499	28795.21	3.8230	3.8230	1.3675	26.70	0.74	1.500			
0.4541	29059.33	3.8200	3.8200	1.3945	26.69	0.73	1.500			
0.4583	29333.44	3.8170	3.8170	1.4278	26.68	0.72	1.500			
0.4626	29606.83	3.8140	3.8140	1.4534	26.67	0.71	1.500			
0.4670	29888.29	3.8110	3.8109	1.4888	26.66	0.70	1.500			
0.4715	30176.92	3.8080	3.8081	1.5193	26.65	0.69	1.500			
0.4761	30471.73	3.8050	3.8050	1.5524	26.64	0.68	1.500			
0.4808	30772.67	3.8020	3.8020	1.5937	26.63	0.67	1.500			
0.4856	31080.81	3.7990	3.7990	1.6309	26.62	0.66	1.500			
0.4906	31400.59	3.7960	3.7959	1.6733	26.61	0.65	1.500			
0.4957	31724.43	3.7930	3.7931	1.7146	26.59	0.63	1.500			
0.5009	32059.03	3.7900	3.7901	1.7507	26.58	0.62	1.500			
0.5063	32401.84	3.7870	3.7869	1.7828	26.56	0.60	1.500			
0.5117	32746.37	3.7840	3.7841	1.8109	26.55	0.59	1.500			
0.5171	33094.84	3.7810	3.7809	1.8396	26.53	0.57	1.500			
0.5227	33452.10	3.7780	3.7780	1.8666	26.52	0.56	1.500			
0.5283	33813.01	3.7750	3.7750	1.9048	26.51	0.55	1.500			
0.5341	34185.16	3.7720	3.7720	1.9447	26.49	0.53	1.500			
0.5400	34562.89	3.7690	3.7691	1.9586	26.48	0.52	1.500	0.363	0.459	
0.5460	34942.45	3.7660	3.7660	1.9595	26.46	0.50	1.500			
0.5519	35320.90	3.7630	3.7630	1.9436	26.45	0.49	1.500			
0.5576	35687.09	3.7600	3.7601	1.9271	26.44	0.48	1.500			
0.5634	36056.30	3.7570	3.7570	1.9101	26.43	0.47	1.500			
0.5691	36421.89	3.7540	3.7540	1.9075	26.42	0.46	1.500			
0.5748	36788.43	3.7510	3.7511	1.9079	26.41	0.45	1.500			
0.5805	37155.11	3.7480	3.7480	1.8932	26.40	0.44	1.500			
0.5861	37512.86	3.7450	3.7451	1.8890	26.38	0.42	1.500			
0.5918	37873.03	3.7420	3.7419	1.9032	26.37	0.41	1.500			
0.5975	38239.36	3.7390	3.7390	1.9211	26.36	0.40	1.500			
0.6033	38613.43	3.7360	3.7361	1.9329	26.35	0.39	1.500			
0.6092	38986.60	3.7330	3.7331	1.9838	26.34	0.38	1.500			
0.6151	39368.04	3.7300	3.7300	2.0385	26.33	0.37	1.500			
0.6213	39764.74	3.7270	3.7270	2.0789	26.31	0.35	1.500			
0.6277	40172.38	3.7240	3.7241	2.1206	26.30	0.34	1.500			
0.6342	40589.45	3.7210	3.7210	2.1986	26.29	0.33	1.500			
0.6408	41008.55	3.7180	3.7179	2.2385	26.27	0.31	1.500			
0.6475	41442.79	3.7150	3.7151	2.3074	26.26	0.30	1.500			
0.6546	41895.03	3.7120	3.7120	2.3986	26.25	0.29	1.500			
0.6619	42360.40	3.7090	3.7091	2.4808	26.23	0.27	1.500			
0.6695	42848.37	3.7060	3.7059	2.5626	26.22	0.26	1.500			
0.6774	43351.47	3.7030	3.7030	2.5633	26.21	0.25	1.500			
0.6850	43841.70	3.7000	3.7000	2.5587	26.19	0.23	1.500			
0.6927	44333.02	3.6970	3.6968	2.4595	26.18	0.22	1.500			
0.7001	44805.13	3.6940	3.6941	2.3498	26.17	0.21	1.500			
0.7070	45245.41	3.6910	3.6910	2.1745	26.16	0.20	1.500			
0.7131	45640.59	3.6880	3.6880	2.0043	26.15	0.19	1.500			
0.7187	45994.55	3.6850	3.6851	1.8214	26.14	0.18	1.500			
0.7239	46331.00	3.6820	3.6820	1.7134	26.13	0.17	1.500			
0.7289	46648.23	3.6790	3.6790	1.6090	26.12	0.16	1.500			
0.7335	46943.72	3.6760	3.6760	1.5333	26.12	0.16	1.500			
0.7379	47224.92	3.6730	3.6730	1.4390	26.11	0.15	1.500			
0.7421	47491.78	3.6700	3.6700	1.3803	26.10	0.14	1.500			
0.7460	47746.77	3.6670	3.6670	1.3311	26.09	0.13	1.500			
0.7499	47995.34	3.6640	3.6640	1.2946	26.08	0.12	1.500			
0.7537	48237.55	3.6610	3.6609	1.2714	26.07	0.11	1.500			
0.7575	48478.73	3.6580	3.6580	1.2678	26.07	0.11	1.500			
0.7612	48716.45	3.6550	3.6550	1.2617	26.06	0.10	1.500			
0.7650	48959.70	3.6520	3.6520	1.2697	26.05	0.09	1.500			
0.7688	49202.84	3.6490	3.6490	1.2755	26.04	0.08	1.500			
0.7727	49451.82	3.6460	3.6460	1.2803	26.03	0.07	1.500			
0.7766	49699.44	3.6430	3.6430	1.2864	26.03	0.07	1.500			
0.7804	49947.46	3.6400	3.6400	1.2853	26.02	0.06	1.500			
0.7843	50193.38	3.6370	3.6370	1.2832	26.01	0.05	1.500			
0.7881	50438.87	3.6340	3.6339	1.2782	26.01	0.05	1.500			
0.7919	50684.34	3.6310	3.6310	1.2784	26.00	0.04	1.500			
0.7958	50929.24	3.6280	3.6280	1.2746	26.00	0.04	1.500			
0.7996	51175.00	3.6250	3.6250	1.2742	25.99	0.03	1.500			
0.8034	51419.51	3.6220	3.6220	1.2644	25.98	0.02	1.500			
0.8072	51661.17	3.6190	3.6190	1.2631	25.98	0.02	1.500			
0.8110	51902.24	3.6160	3.6161	1.2593	25.97	0.01	1.500			
0.8148	52146.24	3.6130	3.6130	1.2527	25.97	0.01	1.500			
0.8185	52386.34	3.6100	3.6099	1.2431	25.96	-0.00	1.500			
0.8223	52625.65	3.6070	3.6070	1.2299	25.96	-0.00	1.500			
0.8260	52860.84	3.6040	3.6041	1.2168	25.95	-0.01	1.500			
0.8296	53094.01	3.6010	3.6009	1.1954	25.95	-0.01	1.500			
0.8331	53319.37	3.5980	3.5980	1.1721	25.95	-0.01	1.500			
0.8366	53541.84	3.5950	3.5950	1.1519	25.95	-0.01	1.500			
0.8400	53761.16	3.5920	3.5920	1.1392	25.94	-0.02	1.500			
0.8434	53977.41	3.5890	3.5890	1.1252	25.94	-0.02	1.500			
0.8468	54192.95	3.5860	3.5861	1.1097	25.94	-0.02	1.500			
0.8501	54406.21	3.5830	3.5830	1.0893	25.95	-0.01	1.500			
0.8535	54621.27	3.5800	3.5800	1.0440	25.95	-0.01	1.500			
0.8566	54822.62	3.5770	3.5770	0.9818	25.95	-0.01	1.500			
0.8596	55014.62	3.5740	3.5741	0.8952	25.95	-0.01	1.500			
0.8622	55179.08	3.5710	3.5711	0.7836	25.96	-0.00	1.500			
0.8644	55318.63	3.5680	3.5680	0.6700	25.96	-0.00	1.500			
0.8662	55433.92	3.5650	3.5650	0.5556	25.96	-0.00	1.500			
0.8675	55520.97	3.5620	3.5620	0.4588	25.96	-0.00	1.500			
0.8687	55595.70	3.5590	3.5590	0.3857	25.96	0.00	1.500			
0.8697	55658.43	3.5560	3.5560	0.3159	25.96	0.00	1.500			
0.8705	55712.15	3.5530	3.5529	0.2756	25.96	0.00	1.500			
0.8712	55757.53	3.5500	3.5500	0.2398	25.96	0.00	1.500			
0.8719	55799.17	3.5470	3.5469	0.2146	25.96	0.00	1.500			
0.8725	55837.12	3.5440	3.5440	0.1919	25.96	0.00	1.500			
0.8730	55871.19	3.5410	3.5410	0.1738	25.96	0.00	1.500			
0.8735	55902.14	3.5380	3.5380	0.1571	25.96	0.00	1.500			
0.8739	55930.52	3.5350	3.5350	0.1412	25.96	0.00	1.500			
0.8743	55956.11	3.5320	3.5320	0.1268	25.96	0.00	1.500			
0.8747	55978.80	3.5290	3.5290	0.1119	25.97	0.01	1.500			
0.8750	55999.08	3.5260	3.5260	0.0981	25.97	0.01	1.500			
0.8753	56016.55	3.5230	3.5231	0.0839	25.97	0.01	1.500			
0.8755	56031.29	3.5200	3.5201	0.0696	25.97	0.01	1.500			
0.8757	56043.37	3.5170	3.5173	0.0552	25.97	0.01	1.500			
0.8758	56052.58	3.5140	3.5147	0.0407	25.97	0.01	1.500			
