Ah_balance (normalized)	Ah_balance (mAh)	Voltage - fit (V)	Voltage -  interpolate (V)	dQ/dV (1/V)	Temperature (°C)	Temperature - diff (°C)	Current (C)	R_DC 0ms (mOhm)	R_DC 50ms (mOhm)	R_DC 50 ms PEC (mOhm)
0.2688	17200.20	3.9910	3.9910	0.8327	27.47	1.49	1.500			
0.2713	17361.46	3.9880	3.9879	0.8420	27.47	1.49	1.500			
0.2738	17523.08	3.9850	3.9850	0.8429	27.46	1.48	1.500			
0.2763	17684.91	3.9820	3.9820	0.8442	27.46	1.48	1.500			
0.2788	17846.39	3.9790	3.9790	0.8476	27.45	1.47	1.500			
0.2814	18009.54	3.9760	3.9760	0.8527	27.44	1.46	1.500			
0.2840	18173.60	3.9730	3.9730	0.8533	27.44	1.46	1.500			
0.2865	18337.66	3.9700	3.9699	0.8572	27.43	1.45	1.500			
0.2891	18503.40	3.9670	3.9671	0.8630	27.42	1.44	1.500			
0.2917	18669.35	3.9640	3.9640	0.8646	27.42	1.44	1.500			
0.2943	18835.05	3.9610	3.9609	0.8707	27.41	1.43	1.500			
0.2969	19002.74	3.9580	3.9580	0.8712	27.41	1.43	1.500			
0.2995	19170.42	3.9550	3.9550	0.8755	27.40	1.42	1.500			
0.3022	19340.08	3.9520	3.9520	0.8784	27.39	1.41	1.500			
0.3048	19507.80	3.9490	3.9491	0.8836	27.39	1.41	1.500			
0.3075	19677.78	3.9460	3.9460	0.8882	27.38	1.40	1.500			
0.3101	19849.36	3.9430	3.9430	0.8926	27.37	1.39	1.500			
0.3128	20020.38	3.9400	3.9400	0.8969	27.37	1.39	1.500			
0.3155	20193.56	3.9370	3.9371	0.9029	27.36	1.38	1.500			
0.3182	20368.00	3.9340	3.9340	0.9095	27.36	1.38	1.500			
0.3210	20543.01	3.9310	3.9310	0.9141	27.35	1.37	1.500			
0.3237	20719.01	3.9280	3.9280	0.9144	27.35	1.37	1.500			
0.3265	20895.40	3.9250	3.9250	0.9209	27.34	1.36	1.500			
0.3293	21072.77	3.9220	3.9219	0.9233	27.34	1.36	1.500			
0.3320	21249.61	3.9190	3.9190	0.9279	27.33	1.35	1.500			
0.3348	21427.32	3.9160	3.9160	0.9372	27.32	1.34	1.500			
0.3376	21607.72	3.9130	3.9130	0.9433	27.32	1.34	1.500			
0.3405	21790.46	3.9100	3.9099	0.9508	27.31	1.33	1.500			
0.3433	21974.06	3.9070	3.9070	0.9604	27.30	1.32	1.500			
0.3462	22158.40	3.9040	3.9041	0.9675	27.29	1.31	1.500			
0.3492	22345.74	3.9010	3.9010	0.9768	27.29	1.31	1.500			
0.3521	22534.04	3.8980	3.8979	0.9762	27.28	1.30	1.500			
0.3550	22720.49	3.8950	3.8951	0.9869	27.27	1.29	1.500			
0.3580	22911.55	3.8920	3.8920	0.9992	27.26	1.28	1.500			
0.3610	23104.11	3.8890	3.8889	1.0077	27.25	1.27	1.500			
0.3640	23297.79	3.8860	3.8860	1.0170	27.24	1.26	1.500			
0.3671	23494.88	3.8830	3.8831	1.0270	27.24	1.26	1.500			
0.3702	23693.29	3.8800	3.8800	1.0406	27.23	1.25	1.500			
0.3734	23895.36	3.8770	3.8770	1.0555	27.22	1.24	1.500			
0.3765	24097.11	3.8740	3.8740	1.0571	27.21	1.23	1.500			
0.3797	24302.51	3.8710	3.8710	1.0656	27.20	1.22	1.500			
0.3829	24506.67	3.8680	3.8680	1.0822	27.19	1.21	1.500			
0.3862	24715.02	3.8650	3.8650	1.0953	27.18	1.20	1.500			
0.3895	24927.52	3.8620	3.8619	1.1079	27.17	1.19	1.500			
0.3928	25140.66	3.8590	3.8590	1.1184	27.16	1.18	1.500			
0.3962	25358.17	3.8560	3.8561	1.1306	27.15	1.17	1.500			
0.3997	25577.90	3.8530	3.8530	1.1433	27.14	1.16	1.500			
0.4031	25796.11	3.8500	3.8500	1.1613	27.13	1.15	1.500			
0.4065	26017.33	3.8470	3.8470	1.1785	27.12	1.14	1.500			
0.4101	26244.78	3.8440	3.8440	1.1998	27.11	1.13	1.500			
0.4137	26478.67	3.8410	3.8410	1.2201	27.10	1.12	1.500			
0.4175	26717.69	3.8380	3.8381	1.2397	27.09	1.11	1.500			
0.4212	26958.25	3.8350	3.8350	1.2552	27.08	1.10	1.500			
0.4250	27201.88	3.8320	3.8320	1.2621	27.07	1.09	1.500			
0.4288	27442.19	3.8290	3.8290	1.2758	27.06	1.08	1.500			
0.4326	27684.43	3.8260	3.8261	1.3000	27.04	1.06	1.500			
0.4365	27935.77	3.8230	3.8229	1.3309	27.03	1.05	1.500			
0.4406	28195.29	3.8200	3.8200	1.3569	27.02	1.04	1.500			
0.4447	28459.20	3.8170	3.8170	1.3796	27.00	1.02	1.500			
0.4489	28731.43	3.8140	3.8140	1.3965	26.99	1.01	1.500			
0.4531	29000.45	3.8110	3.8111	1.4194	26.97	0.99	1.500			
0.4573	29270.38	3.8080	3.8080	1.4425	26.96	0.98	1.500			
0.4617	29546.89	3.8050	3.8050	1.4705	26.94	0.96	1.500			
0.4661	29833.16	3.8020	3.8021	1.5029	26.93	0.95	1.500			
0.4708	30131.90	3.7990	3.7990	1.5236	26.91	0.93	1.500			
0.4754	30426.04	3.7960	3.7961	1.5458	26.89	0.91	1.500			
0.4800	30720.70	3.7930	3.7931	1.5677	26.87	0.89	1.500			
0.4847	31022.47	3.7900	3.7899	1.6043	26.85	0.87	1.500			
0.4896	31331.29	3.7870	3.7870	1.6419	26.83	0.85	1.500			
0.4946	31652.75	3.7840	3.7840	1.6796	26.82	0.84	1.500	0.336	0.473	
0.4998	31984.94	3.7810	3.7811	1.6931	26.80	0.82	1.500			
0.5049	32312.84	3.7780	3.7780	1.6957	26.78	0.80	1.500			
0.5100	32637.20	3.7750	3.7749	1.6886	26.77	0.79	1.500			
0.5150	32959.75	3.7720	3.7721	1.6941	26.75	0.77	1.500			
0.5201	33287.19	3.7690	3.7690	1.7099	26.73	0.75	1.500			
0.5253	33616.84	3.7660	3.7661	1.7126	26.72	0.74	1.500			
0.5304	33947.13	3.7630	3.7630	1.7292	26.70	0.72	1.500			
0.5356	34280.66	3.7600	3.7600	1.7386	26.68	0.70	1.500			
0.5408	34613.29	3.7570	3.7570	1.7458	26.67	0.69	1.500			
0.5462	34956.28	3.7540	3.7539	1.7578	26.65	0.67	1.500			
0.5514	35291.44	3.7510	3.7511	1.7719	26.63	0.65	1.500			
0.5567	35629.94	3.7480	3.7480	1.8075	26.62	0.64	1.500			
0.5621	35977.44	3.7450	3.7449	1.8494	26.60	0.62	1.500			
0.5677	36333.21	3.7420	3.7420	1.9080	26.58	0.60	1.500			
0.5736	36708.03	3.7390	3.7389	1.9579	26.56	0.58	1.500			
0.5795	37089.87	3.7360	3.7361	1.9944	26.54	0.56	1.500			
0.5856	37480.33	3.7330	3.7330	2.0379	26.52	0.54	1.500			
0.5918	37878.16	3.7300	3.7300	2.0741	26.50	0.52	1.500			
0.5980	38274.58	3.7270	3.7271	2.0962	26.48	0.50	1.500			
0.6044	38683.29	3.7240	3.7240	2.1393	26.46	0.48	1.500			
0.6108	39093.82	3.7210	3.7210	2.1967	26.44	0.46	1.500			
0.6175	39520.46	3.7180	3.7180	2.2582	26.42	0.44	1.500			
0.6244	39960.49	3.7150	3.7150	2.2930	26.40	0.42	1.500			
0.6314	40407.66	3.7120	3.7120	2.3147	26.38	0.40	1.500			
0.6384	40855.16	3.7090	3.7089	2.2794	26.36	0.38	1.500			
0.6453	41297.29	3.7060	3.7060	2.2061	26.34	0.36	1.500			
0.6518	41715.68	3.7030	3.7030	2.0889	26.32	0.34	1.500			
0.6579	42104.08	3.7000	3.7001	1.9509	26.31	0.33	1.500			
0.6634	42458.91	3.6970	3.6970	1.8172	26.29	0.31	1.500			
0.6687	42797.55	3.6940	3.6940	1.7236	26.28	0.30	1.500			
0.6737	43117.69	3.6910	3.6909	1.6254	26.26	0.28	1.500			
0.6785	43421.64	3.6880	3.6880	1.5458	26.25	0.27	1.500			
0.6829	43706.76	3.6850	3.6851	1.4751	26.23	0.25	1.500			
0.6872	43980.66	3.6820	3.6820	1.4189	26.22	0.24	1.500			
0.6913	44245.40	3.6790	3.6789	1.3707	26.21	0.23	1.500			
0.6953	44498.33	3.6760	3.6760	1.3267	26.20	0.22	1.500			
0.6992	44749.39	3.6730	3.6730	1.3033	26.19	0.21	1.500			
0.7031	44997.26	3.6700	3.6700	1.2886	26.17	0.19	1.500			
0.7069	45239.25	3.6670	3.6670	1.2778	26.16	0.18	1.500			
0.7107	45482.22	3.6640	3.6640	1.2739	26.15	0.17	1.500			
0.7145	45724.99	3.6610	3.6610	1.2731	26.14	0.16	1.500			
0.7183	45972.77	3.6580	3.6580	1.2799	26.13	0.15	1.500			
0.7222	46221.60	3.6550	3.6550	1.2747	26.12	0.14	1.500			
0.7260	46466.69	3.6520	3.6520	1.2707	26.10	0.12	1.500			
0.7298	46709.48	3.6490	3.6491	1.2599	26.09	0.11	1.500			
0.7336	46949.76	3.6460	3.6460	1.2531	26.08	0.10	1.500			
0.7373	47188.51	3.6430	3.6430	1.2444	26.07	0.09	1.500			
0.7410	47426.53	3.6400	3.6400	1.2375	26.06	0.08	1.500			
0.7448	47664.17	3.6370	3.6371	1.2355	26.05	0.07	1.500			
0.7485	47902.04	3.6340	3.6340	1.2229	26.04	0.06	1.500			
0.7521	48135.04	3.6310	3.6310	1.2131	26.03	0.05	1.500			
0.7558	48368.39	3.6280	3.6280	1.2013	26.02	0.04	1.500			
0.7593	48597.23	3.6250	3.6249	1.1894	26.01	0.03	1.500			
0.7629	48825.41	3.6220	3.6221	1.1766	26.00	0.02	1.500			
0.7664	49049.98	3.6190	3.6190	1.1627	25.99	0.01	1.500			
0.7699	49272.36	3.6160	3.6160	1.1478	25.99	0.01	1.500			
0.7733	49493.08	3.6130	3.6130	1.1310	25.98	0.00	1.500			
0.7767	49709.11	3.6100	3.6100	1.1060	25.98	-0.00	1.500			
0.7800	49920.76	3.6070	3.6071	1.0788	25.97	-0.01	1.500			
0.7832	50124.67	3.6040	3.6040	1.0500	25.97	-0.01	1.500			
0.7863	50323.78	3.6010	3.6009	1.0200	25.96	-0.02	1.500			
0.7893	50516.40	3.5980	3.5980	0.9864	25.96	-0.02	1.500			
0.7923	50704.26	3.5950	3.5949	0.9448	25.96	-0.02	1.500			
0.7951	50886.43	3.5920	3.5920	0.8996	25.97	-0.01	1.500			
0.7978	51058.70	3.5890	3.5890	0.8333	25.97	-0.01	1.500			
0.8002	51214.64	3.5860	3.5860	0.7583	25.97	-0.01	1.500			
0.8024	51355.15	3.5830	3.5830	0.6724	25.97	-0.01	1.500			
0.8043	51475.80	3.5800	3.5800	0.5834	25.97	-0.01	1.500			
0.8059	51576.17	3.5770	3.5770	0.4982	25.98	-0.00	1.500			
0.8072	51661.53	3.5740	3.5740	0.4230	25.98	-0.00	1.500			
0.8083	51731.60	3.5710	3.5709	0.3583	25.98	-0.00	1.500			
0.8093	51792.07	3.5680	3.5678	0.3111	25.98	-0.00	1.500			
0.8101	51843.75	3.5650	3.5650	0.2700	25.98	-0.00	1.500			
0.8108	51891.09	3.5620	3.5619	0.2418	25.98	-0.00	1.500			
0.8115	51933.51	3.5590	3.5590	0.2149	25.98	-0.00	1.500			
0.8121	51972.17	3.5560	3.5560	0.1951	25.98	0.00	1.500			
0.8126	52005.98	3.5530	3.5530	0.1757	25.98	0.00	1.500			
0.8131	52038.21	3.5500	3.5500	0.1601	25.98	0.00	1.500			
0.8136	52067.27	3.5470	3.5469	0.1458	25.98	0.00	1.500			
0.8140	52093.38	3.5440	3.5441	0.1308	25.98	0.00	1.500			
0.8143	52117.19	3.5410	3.5410	0.1166	25.98	0.00	1.500			
0.8147	52138.20	3.5380	3.5380	0.1025	25.98	0.00	1.500			
0.8149	52156.54	3.5350	3.5351	0.0885	25.98	0.00	1.500			
0.8152	52172.46	3.5320	3.5321	0.0746	25.98	0.00	1.500			
0.8154	52185.52	3.5290	3.5296	0.0601	25.98	0.00	1.500			
0.8156	52195.66	3.5260	3.5265	0.0456	25.98	0.00	1.500			
0.8157	52203.01	3.5230	3.5241	0.0310	25.98	0.00	1.500			
