Ah_balance (normalized)	Ah_balance (mAh)	Voltage - fit (V)	Voltage -  interpolate (V)	dQ/dV (1/V)	Temperature (°C)	Temperature - diff (°C)	Current (C)	R_DC 0ms (mOhm)	R_DC 50ms (mOhm)	R_DC 50 ms PEC (mOhm)
0.2711	17348.26	3.9860	3.9860	0.8112	27.06	1.12	1.500			
0.2736	17507.31	3.9830	3.9829	0.8360	27.06	1.12	1.500			
0.2761	17669.63	3.9800	3.9799	0.8477	27.05	1.11	1.500			
0.2787	17833.63	3.9770	3.9771	0.8542	27.05	1.11	1.500			
0.2812	17998.50	3.9740	3.9740	0.8630	27.04	1.10	1.500			
0.2838	18165.28	3.9710	3.9710	0.8680	27.04	1.10	1.500			
0.2865	18333.35	3.9680	3.9678	0.8711	27.03	1.09	1.500			
0.2891	18500.23	3.9650	3.9650	0.8688	27.03	1.09	1.500			
0.2917	18668.06	3.9620	3.9621	0.8753	27.02	1.08	1.500			
0.2943	18835.83	3.9590	3.9590	0.8793	27.02	1.08	1.500			
0.2970	19005.80	3.9560	3.9559	0.8810	27.01	1.07	1.500			
0.2996	19173.01	3.9530	3.9529	0.8839	27.00	1.06	1.500			
0.3023	19344.45	3.9500	3.9501	0.8891	27.00	1.06	1.500			
0.3049	19516.77	3.9470	3.9470	0.8953	26.99	1.05	1.500			
0.3076	19688.01	3.9440	3.9440	0.9005	26.99	1.05	1.500			
0.3103	19860.13	3.9410	3.9411	0.9007	26.98	1.04	1.500			
0.3130	20033.99	3.9380	3.9380	0.9072	26.98	1.04	1.500			
0.3158	20210.39	3.9350	3.9350	0.9113	26.97	1.03	1.500			
0.3185	20383.90	3.9320	3.9320	0.9150	26.97	1.03	1.500			
0.3213	20561.26	3.9290	3.9290	0.9224	26.96	1.02	1.500			
0.3240	20737.88	3.9260	3.9260	0.9228	26.96	1.02	1.500			
0.3268	20915.81	3.9230	3.9230	0.9233	26.95	1.01	1.500			
0.3296	21094.35	3.9200	3.9200	0.9302	26.94	1.00	1.500			
0.3324	21272.07	3.9170	3.9170	0.9368	26.94	1.00	1.500			
0.3352	21452.14	3.9140	3.9140	0.9444	26.93	0.99	1.500			
0.3380	21632.52	3.9110	3.9110	0.9493	26.93	0.99	1.500			
0.3409	21815.85	3.9080	3.9080	0.9615	26.92	0.98	1.500			
0.3438	22002.10	3.9050	3.9050	0.9727	26.92	0.98	1.500			
0.3467	22189.64	3.9020	3.9020	0.9857	26.91	0.97	1.500			
0.3497	22380.36	3.8990	3.8990	0.9918	26.90	0.96	1.500			
0.3527	22572.62	3.8960	3.8960	0.9937	26.90	0.96	1.500			
0.3557	22764.77	3.8930	3.8930	1.0005	26.89	0.95	1.500			
0.3587	22956.75	3.8900	3.8901	1.0081	26.89	0.95	1.500			
0.3617	23150.28	3.8870	3.8869	1.0122	26.88	0.94	1.500			
0.3647	23343.65	3.8840	3.8840	1.0195	26.87	0.93	1.500			
0.3678	23539.64	3.8810	3.8810	1.0272	26.87	0.93	1.500			
0.3709	23738.90	3.8780	3.8780	1.0435	26.86	0.92	1.500			
0.3741	23940.12	3.8750	3.8750	1.0570	26.85	0.91	1.500			
0.3772	24143.79	3.8720	3.8720	1.0621	26.84	0.90	1.500			
0.3805	24349.54	3.8690	3.8690	1.0704	26.84	0.90	1.500			
0.3837	24555.66	3.8660	3.8661	1.0851	26.83	0.89	1.500			
0.3869	24764.11	3.8630	3.8630	1.1007	26.82	0.88	1.500			
0.3903	24976.24	3.8600	3.8600	1.1144	26.81	0.87	1.500			
0.3936	25190.72	3.8570	3.8569	1.1281	26.80	0.86	1.500			
0.3970	25408.64	3.8540	3.8541	1.1467	26.80	0.86	1.500			
0.4005	25635.13	3.8510	3.8509	1.1575	26.79	0.85	1.500			
0.4040	25857.46	3.8480	3.8480	1.1698	26.78	0.84	1.500			
0.4075	26080.30	3.8450	3.8451	1.1805	26.77	0.83	1.500			
0.4110	26307.20	3.8420	3.8419	1.2027	26.76	0.82	1.500			
0.4147	26540.31	3.8390	3.8390	1.2280	26.75	0.81	1.500			
0.4184	26776.80	3.8360	3.8360	1.2505	26.74	0.80	1.500			
0.4222	27019.44	3.8330	3.8330	1.2726	26.73	0.79	1.500			
0.4261	27269.96	3.8300	3.8300	1.3000	26.71	0.77	1.500			
0.4300	27519.59	3.8270	3.8270	1.3205	26.70	0.76	1.500			
0.4340	27774.59	3.8240	3.8240	1.3445	26.69	0.75	1.500			
0.4380	28034.33	3.8210	3.8210	1.3656	26.68	0.74	1.500			
0.4422	28299.04	3.8180	3.8180	1.3932	26.67	0.73	1.500			
0.4464	28570.57	3.8150	3.8150	1.4130	26.65	0.71	1.500			
0.4507	28842.28	3.8120	3.8120	1.4462	26.64	0.70	1.500			
0.4550	29122.47	3.8090	3.8090	1.4716	26.63	0.69	1.500			
0.4595	29405.02	3.8060	3.8061	1.5015	26.62	0.68	1.500			
0.4640	29696.18	3.8030	3.8030	1.5403	26.60	0.66	1.500			
0.4687	29997.53	3.8000	3.8000	1.5771	26.59	0.65	1.500			
0.4735	30304.25	3.7970	3.7970	1.6148	26.58	0.64	1.500			
0.4784	30619.76	3.7940	3.7940	1.6500	26.56	0.62	1.500			
0.4834	30938.42	3.7910	3.7911	1.6754	26.55	0.61	1.500			
0.4885	31265.32	3.7880	3.7880	1.7034	26.54	0.60	1.500			
0.4936	31593.28	3.7850	3.7850	1.7250	26.52	0.58	1.500			
0.4988	31925.84	3.7820	3.7820	1.7541	26.50	0.56	1.500			
0.5041	32264.61	3.7790	3.7790	1.7955	26.49	0.55	1.500			
0.5096	32611.47	3.7760	3.7760	1.8213	26.47	0.53	1.500			
0.5151	32966.54	3.7730	3.7730	1.8427	26.45	0.51	1.500	0.349	0.460	
0.5208	33328.26	3.7700	3.7700	1.8518	26.44	0.50	1.500			
0.5263	33683.76	3.7670	3.7670	1.8477	26.43	0.49	1.500			
0.5318	34035.95	3.7640	3.7641	1.8340	26.41	0.47	1.500			
0.5373	34387.66	3.7610	3.7609	1.8405	26.40	0.46	1.500			
0.5428	34738.78	3.7580	3.7580	1.8527	26.38	0.44	1.500			
0.5484	35095.89	3.7550	3.7550	1.8471	26.37	0.43	1.500			
0.5539	35450.76	3.7520	3.7520	1.8603	26.35	0.41	1.500			
0.5595	35807.57	3.7490	3.7491	1.8642	26.34	0.40	1.500			
0.5651	36166.10	3.7460	3.7459	1.8789	26.32	0.38	1.500			
0.5708	36528.95	3.7430	3.7431	1.8801	26.31	0.37	1.500			
0.5764	36891.74	3.7400	3.7400	1.9148	26.30	0.36	1.500			
0.5822	37261.59	3.7370	3.7370	1.9344	26.28	0.34	1.500			
0.5880	37634.46	3.7340	3.7342	1.9651	26.27	0.33	1.500			
0.5940	38017.86	3.7310	3.7310	2.0100	26.26	0.32	1.500			
0.6001	38407.42	3.7280	3.7280	2.0604	26.24	0.30	1.500			
0.6063	38804.96	3.7250	3.7251	2.1204	26.23	0.29	1.500			
0.6128	39220.01	3.7220	3.7219	2.1723	26.22	0.28	1.500			
0.6194	39642.04	3.7190	3.7191	2.2495	26.21	0.27	1.500			
0.6263	40080.34	3.7160	3.7160	2.3015	26.20	0.26	1.500			
0.6332	40523.23	3.7130	3.7130	2.3517	26.19	0.25	1.500			
0.6403	40981.62	3.7100	3.7100	2.4091	26.18	0.24	1.500			
0.6477	41452.37	3.7070	3.7070	2.4541	26.17	0.23	1.500			
0.6552	41930.99	3.7040	3.7040	2.4767	26.16	0.22	1.500			
0.6626	42407.87	3.7010	3.7010	2.4346	26.15	0.21	1.500			
0.6699	42876.19	3.6980	3.6979	2.3363	26.14	0.20	1.500			
0.6768	43318.13	3.6950	3.6950	2.2247	26.13	0.19	1.500			
0.6833	43733.02	3.6920	3.6921	2.0671	26.12	0.18	1.500			
0.6892	44110.96	3.6890	3.6890	1.9061	26.11	0.17	1.500			
0.6947	44462.48	3.6860	3.6861	1.7749	26.10	0.16	1.500			
0.6998	44784.92	3.6830	3.6829	1.6496	26.09	0.15	1.500			
0.7045	45089.38	3.6800	3.6800	1.5503	26.09	0.15	1.500			
0.7089	45366.82	3.6770	3.6771	1.4578	26.08	0.14	1.500			
0.7131	45639.05	3.6740	3.6740	1.4005	26.08	0.14	1.500			
0.7172	45901.69	3.6710	3.6710	1.3531	26.07	0.13	1.500			
0.7211	46151.97	3.6680	3.6680	1.3093	26.07	0.13	1.500			
0.7250	46399.20	3.6650	3.6651	1.2786	26.06	0.12	1.500			
0.7287	46639.97	3.6620	3.6620	1.2575	26.05	0.11	1.500			
0.7324	46874.97	3.6590	3.6590	1.2513	26.05	0.11	1.500			
0.7361	47112.45	3.6560	3.6560	1.2542	26.04	0.10	1.500			
0.7399	47352.37	3.6530	3.6530	1.2639	26.04	0.10	1.500			
0.7437	47597.16	3.6500	3.6500	1.2789	26.03	0.09	1.500			
0.7476	47847.57	3.6470	3.6470	1.2841	26.02	0.08	1.500			
0.7515	48095.32	3.6440	3.6441	1.2961	26.02	0.08	1.500			
0.7554	48343.48	3.6410	3.6410	1.2975	26.01	0.07	1.500			
0.7593	48593.17	3.6380	3.6380	1.2991	26.00	0.06	1.500			
0.7632	48842.40	3.6350	3.6350	1.3017	26.00	0.06	1.500			
0.7671	49093.36	3.6320	3.6320	1.3016	25.99	0.05	1.500			
0.7710	49345.27	3.6290	3.6290	1.3014	25.98	0.04	1.500			
0.7749	49595.82	3.6260	3.6260	1.2973	25.97	0.03	1.500			
0.7788	49842.30	3.6230	3.6231	1.2902	25.97	0.03	1.500			
0.7826	50089.12	3.6200	3.6200	1.2968	25.96	0.02	1.500			
0.7865	50338.36	3.6170	3.6170	1.2984	25.95	0.01	1.500			
0.7904	50587.83	3.6140	3.6140	1.2939	25.95	0.01	1.500			
0.7943	50837.76	3.6110	3.6110	1.2906	25.95	0.01	1.500			
0.7983	51090.20	3.6080	3.6080	1.2780	25.95	0.01	1.500			
0.8021	51333.88	3.6050	3.6050	1.2627	25.94	0.00	1.500			
0.8058	51573.81	3.6020	3.6020	1.2432	25.94	0.00	1.500			
0.8095	51808.94	3.5990	3.5991	1.2271	25.94	0.00	1.500			
0.8132	52042.52	3.5960	3.5959	1.2136	25.94	0.00	1.500			
0.8168	52275.08	3.5930	3.5930	1.1986	25.94	0.00	1.500			
0.8204	52505.59	3.5900	3.5900	1.1810	25.94	0.00	1.500			
0.8239	52731.76	3.5870	3.5870	1.1605	25.94	0.00	1.500			
0.8274	52955.45	3.5840	3.5840	1.1218	25.94	0.00	1.500			
0.8309	53175.47	3.5810	3.5809	1.0671	25.94	0.00	1.500			
0.8340	53378.63	3.5780	3.5780	0.9878	25.94	0.00	1.500			
0.8370	53568.23	3.5750	3.5750	0.8898	25.94	0.00	1.500			
0.8395	53730.01	3.5720	3.5721	0.7721	25.94	0.00	1.500			
0.8417	53866.26	3.5690	3.5691	0.6582	25.94	0.00	1.500			
0.8434	53975.71	3.5660	3.5659	0.5398	25.94	0.00	1.500			
0.8447	54061.49	3.5630	3.5630	0.4405	25.94	0.00	1.500			
0.8458	54133.77	3.5600	3.5600	0.3734	25.94	0.00	1.500			
0.8468	54193.78	3.5570	3.5570	0.3164	25.94	0.00	1.500			
0.8476	54247.67	3.5540	3.5540	0.2780	25.94	0.00	1.500			
0.8484	54294.97	3.5510	3.5509	0.2427	25.94	0.00	1.500			
0.8490	54337.73	3.5480	3.5480	0.2187	25.94	0.00	1.500			
0.8496	54376.47	3.5450	3.5451	0.1981	25.94	0.00	1.500			
0.8502	54411.81	3.5420	3.5421	0.1796	25.94	0.00	1.500			
0.8507	54444.79	3.5390	3.5390	0.1638	25.94	0.00	1.500			
0.8512	54474.00	3.5360	3.5360	0.1488	25.94	0.00	1.500			
0.8516	54500.82	3.5330	3.5330	0.1342	25.94	0.00	1.500			
0.8520	54525.49	3.5300	3.5300	0.1203	25.94	0.00	1.500			
0.8523	54547.27	3.5270	3.5270	0.1067	25.94	0.00	1.500			
0.8526	54566.71	3.5240	3.5240	0.0933	25.94	0.00	1.500			
0.8529	54583.36	3.5210	3.5212	0.0793	25.94	0.00	1.500			
0.8531	54597.23	3.5180	3.5183	0.0652	25.94	0.00	1.500			
0.8533	54608.71	3.5150	3.5154	0.0499	25.94	0.00	1.500			
0.8534	54616.83	3.5120	3.5127	0.0347	25.94	0.00	1.500			
