Ah_balance (normalized)	Ah_balance (mAh)	Voltage - fit (V)	Voltage -  interpolate (V)	dQ/dV (1/V)	Temperature (°C)	Temperature - diff (°C)	Current (C)	R_DC 0ms (mOhm)	R_DC 50ms (mOhm)	R_DC 50 ms PEC (mOhm)
0.2784	17816.05	3.9880	3.9879	0.8582	27.20	1.26	1.500			
0.2809	17976.78	3.9850	3.9849	0.8380	27.19	1.25	1.500			
0.2833	18134.25	3.9820	3.9821	0.8342	27.19	1.25	1.500			
0.2859	18294.55	3.9790	3.9791	0.8371	27.18	1.24	1.500			
0.2883	18453.24	3.9760	3.9761	0.8402	27.18	1.24	1.500			
0.2909	18616.54	3.9730	3.9729	0.8514	27.17	1.23	1.500			
0.2934	18780.29	3.9700	3.9701	0.8559	27.17	1.23	1.500			
0.2960	18947.18	3.9670	3.9670	0.8647	27.16	1.22	1.500			
0.2987	19115.06	3.9640	3.9640	0.8679	27.16	1.22	1.500			
0.3013	19281.13	3.9610	3.9609	0.8720	27.15	1.21	1.500			
0.3039	19448.58	3.9580	3.9581	0.8743	27.15	1.21	1.500			
0.3065	19616.06	3.9550	3.9550	0.8725	27.14	1.20	1.500			
0.3091	19784.57	3.9520	3.9520	0.8776	27.14	1.20	1.500			
0.3118	19953.49	3.9490	3.9490	0.8794	27.13	1.19	1.500			
0.3144	20120.58	3.9460	3.9459	0.8832	27.13	1.19	1.500			
0.3170	20290.31	3.9430	3.9431	0.8900	27.12	1.18	1.500			
0.3197	20461.64	3.9400	3.9400	0.8933	27.11	1.17	1.500			
0.3224	20634.20	3.9370	3.9369	0.9025	27.10	1.16	1.500			
0.3251	20808.67	3.9340	3.9341	0.9054	27.10	1.16	1.500			
0.3279	20983.67	3.9310	3.9310	0.9089	27.09	1.15	1.500			
0.3306	21158.91	3.9280	3.9280	0.9148	27.08	1.14	1.500			
0.3333	21334.19	3.9250	3.9251	0.9170	27.07	1.13	1.500			
0.3361	21509.70	3.9220	3.9220	0.9207	27.06	1.12	1.500			
0.3389	21687.26	3.9190	3.9190	0.9271	27.06	1.12	1.500			
0.3416	21865.22	3.9160	3.9160	0.9296	27.05	1.11	1.500			
0.3445	22045.05	3.9130	3.9130	0.9362	27.05	1.11	1.500			
0.3473	22225.34	3.9100	3.9100	0.9446	27.04	1.10	1.500			
0.3501	22406.06	3.9070	3.9070	0.9537	27.04	1.10	1.500			
0.3530	22590.22	3.9040	3.9039	0.9623	27.03	1.09	1.500			
0.3559	22776.86	3.9010	3.9010	0.9688	27.02	1.08	1.500			
0.3588	22964.15	3.8980	3.8980	0.9743	27.02	1.08	1.500			
0.3617	23150.82	3.8950	3.8950	0.9841	27.01	1.07	1.500			
0.3647	23340.72	3.8920	3.8920	0.9939	27.01	1.07	1.500			
0.3677	23530.37	3.8890	3.8889	1.0010	27.00	1.06	1.500			
0.3707	23723.52	3.8860	3.8860	1.0133	26.99	1.05	1.500			
0.3738	23920.02	3.8830	3.8831	1.0253	26.98	1.04	1.500			
0.3769	24118.68	3.8800	3.8800	1.0346	26.98	1.04	1.500			
0.3800	24318.86	3.8770	3.8770	1.0473	26.97	1.03	1.500			
0.3831	24519.96	3.8740	3.8740	1.0552	26.96	1.02	1.500			
0.3863	24722.37	3.8710	3.8710	1.0656	26.95	1.01	1.500			
0.3895	24928.44	3.8680	3.8680	1.0760	26.94	1.00	1.500			
0.3928	25136.21	3.8650	3.8650	1.0886	26.94	1.00	1.500			
0.3960	25345.87	3.8620	3.8620	1.1040	26.93	0.99	1.500			
0.3994	25559.70	3.8590	3.8591	1.1138	26.92	0.98	1.500			
0.4027	25773.25	3.8560	3.8560	1.1336	26.91	0.97	1.500			
0.4061	25993.30	3.8530	3.8530	1.1480	26.90	0.96	1.500			
0.4096	26214.76	3.8500	3.8500	1.1666	26.89	0.95	1.500			
0.4131	26440.20	3.8470	3.8470	1.1840	26.88	0.94	1.500			
0.4167	26668.99	3.8440	3.8440	1.1983	26.87	0.93	1.500			
0.4203	26900.80	3.8410	3.8410	1.2137	26.85	0.91	1.500			
0.4240	27136.48	3.8380	3.8380	1.2336	26.84	0.90	1.500			
0.4277	27371.64	3.8350	3.8351	1.2535	26.83	0.89	1.500			
0.4315	27616.69	3.8320	3.8319	1.2822	26.81	0.87	1.500			
0.4354	27863.29	3.8290	3.8290	1.3007	26.80	0.86	1.500			
0.4393	28116.13	3.8260	3.8261	1.3293	26.79	0.85	1.500			
0.4433	28374.05	3.8230	3.8230	1.3512	26.77	0.83	1.500			
0.4475	28638.13	3.8200	3.8199	1.3706	26.76	0.82	1.500			
0.4516	28901.87	3.8170	3.8170	1.3992	26.75	0.81	1.500			
0.4558	29170.60	3.8140	3.8140	1.4256	26.74	0.80	1.500			
0.4601	29449.01	3.8110	3.8110	1.4554	26.73	0.79	1.500			
0.4646	29732.01	3.8080	3.8080	1.4765	26.71	0.77	1.500			
0.4690	30017.30	3.8050	3.8051	1.5005	26.70	0.76	1.500			
0.4736	30309.50	3.8020	3.8020	1.5195	26.69	0.75	1.500			
0.4781	30600.57	3.7990	3.7990	1.5425	26.67	0.73	1.500			
0.4828	30898.33	3.7960	3.7960	1.5761	26.66	0.72	1.500			
0.4876	31205.73	3.7930	3.7928	1.6046	26.64	0.70	1.500			
0.4924	31516.43	3.7900	3.7901	1.6356	26.62	0.68	1.500			
0.4974	31834.56	3.7870	3.7870	1.6563	26.61	0.67	1.500			
0.5024	32153.05	3.7840	3.7840	1.6990	26.59	0.65	1.500			
0.5075	32482.86	3.7810	3.7810	1.7146	26.58	0.64	1.500			
0.5127	32815.77	3.7780	3.7779	1.7469	26.56	0.62	1.500	0.343	0.471	
0.5181	33156.51	3.7750	3.7751	1.7606	26.54	0.60	1.500			
0.5234	33497.88	3.7720	3.7719	1.7560	26.53	0.59	1.500			
0.5286	33833.50	3.7690	3.7691	1.7382	26.51	0.57	1.500			
0.5339	34167.25	3.7660	3.7661	1.7464	26.49	0.55	1.500			
0.5391	34501.52	3.7630	3.7630	1.7517	26.48	0.54	1.500			
0.5443	34832.74	3.7600	3.7600	1.7582	26.46	0.52	1.500			
0.5496	35174.15	3.7570	3.7570	1.7682	26.45	0.51	1.500			
0.5549	35514.08	3.7540	3.7540	1.7828	26.44	0.50	1.500			
0.5603	35858.56	3.7510	3.7510	1.8006	26.43	0.49	1.500			
0.5657	36204.86	3.7480	3.7480	1.8090	26.41	0.47	1.500			
0.5712	36554.60	3.7450	3.7450	1.8326	26.40	0.46	1.500			
0.5767	36906.67	3.7420	3.7420	1.8603	26.39	0.45	1.500			
0.5822	37262.50	3.7390	3.7390	1.8877	26.37	0.43	1.500			
0.5880	37630.79	3.7360	3.7359	1.9377	26.36	0.42	1.500			
0.5939	38009.37	3.7330	3.7330	1.9709	26.35	0.41	1.500			
0.5999	38392.01	3.7300	3.7300	2.0191	26.33	0.39	1.500			
0.6060	38783.31	3.7270	3.7270	2.0832	26.32	0.38	1.500			
0.6123	39187.34	3.7240	3.7240	2.1117	26.30	0.36	1.500			
0.6188	39600.75	3.7210	3.7211	2.1730	26.29	0.35	1.500			
0.6254	40023.26	3.7180	3.7179	2.2304	26.27	0.33	1.500			
0.6321	40451.35	3.7150	3.7151	2.2908	26.25	0.31	1.500			
0.6390	40897.96	3.7120	3.7120	2.3742	26.24	0.30	1.500			
0.6463	41361.95	3.7090	3.7090	2.3900	26.23	0.29	1.500			
0.6534	41819.76	3.7060	3.7061	2.3445	26.21	0.27	1.500			
0.6605	42270.72	3.7030	3.7029	2.2910	26.20	0.26	1.500			
0.6673	42707.71	3.7000	3.7001	2.1739	26.19	0.25	1.500			
0.6738	43122.12	3.6970	3.6970	2.0393	26.18	0.24	1.500			
0.6795	43487.23	3.6940	3.6941	1.8738	26.17	0.23	1.500			
0.6849	43831.04	3.6910	3.6910	1.7444	26.16	0.22	1.500			
0.6899	44152.56	3.6880	3.6881	1.6438	26.16	0.22	1.500			
0.6946	44455.67	3.6850	3.6850	1.5538	26.15	0.21	1.500			
0.6991	44745.07	3.6820	3.6820	1.4827	26.14	0.20	1.500			
0.7035	45021.13	3.6790	3.6790	1.4183	26.13	0.19	1.500			
0.7075	45282.29	3.6760	3.6760	1.3633	26.12	0.18	1.500			
0.7115	45536.72	3.6730	3.6730	1.3236	26.11	0.17	1.500			
0.7154	45784.55	3.6700	3.6700	1.2987	26.10	0.16	1.500			
0.7192	46028.80	3.6670	3.6670	1.2778	26.10	0.16	1.500			
0.7230	46272.51	3.6640	3.6639	1.2699	26.09	0.15	1.500			
0.7268	46515.03	3.6610	3.6610	1.2656	26.08	0.14	1.500			
0.7305	46754.94	3.6580	3.6580	1.2712	26.07	0.13	1.500			
0.7344	46999.94	3.6550	3.6550	1.2766	26.07	0.13	1.500			
0.7382	47246.91	3.6520	3.6519	1.2747	26.06	0.12	1.500			
0.7421	47492.61	3.6490	3.6491	1.2748	26.05	0.11	1.500			
0.7459	47739.56	3.6460	3.6461	1.2737	26.04	0.10	1.500			
0.7497	47983.52	3.6430	3.6430	1.2681	26.03	0.09	1.500			
0.7535	48225.39	3.6400	3.6400	1.2543	26.02	0.08	1.500			
0.7572	48463.73	3.6370	3.6370	1.2443	26.01	0.07	1.500			
0.7610	48702.41	3.6340	3.6341	1.2415	26.00	0.06	1.500			
0.7647	48939.89	3.6310	3.6310	1.2376	26.00	0.06	1.500			
0.7684	49177.14	3.6280	3.6279	1.2290	25.99	0.05	1.500			
0.7721	49412.50	3.6250	3.6250	1.2247	25.98	0.04	1.500			
0.7758	49648.77	3.6220	3.6220	1.2117	25.98	0.04	1.500			
0.7794	49880.73	3.6190	3.6190	1.2044	25.97	0.03	1.500			
0.7830	50112.05	3.6160	3.6160	1.1904	25.97	0.03	1.500			
0.7866	50339.22	3.6130	3.6130	1.1723	25.96	0.02	1.500			
0.7900	50562.94	3.6100	3.6100	1.1567	25.96	0.02	1.500			
0.7935	50784.99	3.6070	3.6070	1.1349	25.96	0.02	1.500			
0.7969	51000.46	3.6040	3.6040	1.1099	25.95	0.01	1.500			
0.8002	51211.86	3.6010	3.6011	1.0845	25.95	0.01	1.500			
0.8034	51417.15	3.5980	3.5980	1.0599	25.95	0.01	1.500			
0.8065	51618.89	3.5950	3.5950	1.0361	25.94	0.00	1.500			
0.8096	51816.18	3.5920	3.5920	1.0083	25.94	0.00	1.500			
0.8126	52008.27	3.5890	3.5889	0.9697	25.94	0.00	1.500			
0.8156	52198.70	3.5860	3.5860	0.9115	25.94	-0.00	1.500			
0.8183	52370.78	3.5830	3.5831	0.8344	25.94	-0.00	1.500			
0.8208	52529.81	3.5800	3.5801	0.7460	25.93	-0.01	1.500			
0.8229	52664.85	3.5770	3.5770	0.6464	25.93	-0.01	1.500			
0.8246	52775.48	3.5740	3.5740	0.5527	25.93	-0.01	1.500			
0.8261	52867.49	3.5710	3.5710	0.4688	25.93	-0.01	1.500			
0.8273	52946.18	3.5680	3.5679	0.3889	25.93	-0.01	1.500			
0.8283	53012.02	3.5650	3.5650	0.3350	25.93	-0.01	1.500			
0.8292	53066.08	3.5620	3.5619	0.2888	25.93	-0.01	1.500			
0.8299	53114.74	3.5590	3.5588	0.2545	25.93	-0.01	1.500			
0.8306	53157.87	3.5560	3.5560	0.2231	25.93	-0.01	1.500			
0.8312	53197.41	3.5530	3.5530	0.2011	25.93	-0.01	1.500			
0.8318	53233.67	3.5500	3.5501	0.1828	25.92	-0.02	1.500			
0.8323	53266.48	3.5470	3.5470	0.1636	25.92	-0.02	1.500			
0.8327	53295.89	3.5440	3.5439	0.1487	25.92	-0.02	1.500			
0.8332	53322.43	3.5410	3.5410	0.1327	25.92	-0.02	1.500			
0.8335	53346.08	3.5380	3.5380	0.1174	25.92	-0.02	1.500			
0.8339	53367.34	3.5350	3.5349	0.1036	25.92	-0.02	1.500			
0.8342	53385.86	3.5320	3.5321	0.0894	25.92	-0.02	1.500			
0.8344	53401.87	3.5290	3.5292	0.0753	25.92	-0.02	1.500			
0.8346	53415.43	3.5260	3.5261	0.0606	25.92	-0.02	1.500			
0.8348	53425.59	3.5230	3.5235	0.0452	25.92	-0.02	1.500			
0.8349	53432.79	3.5200	3.5211	0.0298	25.92	-0.02	1.500			
