Ah_balance (normalized)	Ah_balance (mAh)	Voltage - fit (V)	Voltage -  interpolate (V)	dQ/dV (1/V)	Temperature (°C)	Temperature - diff (°C)	Current (C)	R_DC 0ms (mOhm)	R_DC 50ms (mOhm)	R_DC 50 ms PEC (mOhm)
0.2792	17871.37	3.9850	3.9850	0.8375	27.05	1.08	1.500			
0.2817	18031.49	3.9820	3.9821	0.8385	27.04	1.07	1.500			
0.2843	18193.19	3.9790	3.9790	0.8454	27.04	1.07	1.500			
0.2868	18356.02	3.9760	3.9760	0.8530	27.03	1.06	1.500			
0.2894	18519.88	3.9730	3.9730	0.8568	27.02	1.05	1.500			
0.2920	18685.14	3.9700	3.9700	0.8635	27.02	1.05	1.500			
0.2946	18852.86	3.9670	3.9670	0.8694	27.01	1.04	1.500			
0.2972	19020.36	3.9640	3.9640	0.8725	27.01	1.04	1.500			
0.2998	19187.39	3.9610	3.9609	0.8759	27.00	1.03	1.500			
0.3025	19357.20	3.9580	3.9581	0.8767	26.99	1.02	1.500			
0.3051	19525.68	3.9550	3.9551	0.8782	26.99	1.02	1.500			
0.3077	19694.75	3.9520	3.9520	0.8809	26.98	1.01	1.500			
0.3104	19863.24	3.9490	3.9490	0.8843	26.97	1.00	1.500			
0.3130	20031.46	3.9460	3.9460	0.8907	26.97	1.00	1.500			
0.3157	20203.71	3.9430	3.9430	0.8906	26.96	0.99	1.500			
0.3184	20374.58	3.9400	3.9400	0.8971	26.96	0.99	1.500			
0.3211	20548.19	3.9370	3.9371	0.9040	26.95	0.98	1.500			
0.3238	20721.46	3.9340	3.9340	0.9100	26.94	0.97	1.500			
0.3265	20897.04	3.9310	3.9310	0.9145	26.94	0.97	1.500			
0.3293	21073.14	3.9280	3.9281	0.9148	26.93	0.96	1.500			
0.3320	21249.69	3.9250	3.9250	0.9191	26.93	0.96	1.500			
0.3348	21428.47	3.9220	3.9221	0.9230	26.92	0.95	1.500			
0.3376	21604.62	3.9190	3.9190	0.9214	26.91	0.94	1.500			
0.3403	21781.26	3.9160	3.9159	0.9242	26.91	0.94	1.500			
0.3431	21957.64	3.9130	3.9131	0.9337	26.90	0.93	1.500			
0.3459	22137.60	3.9100	3.9099	0.9440	26.90	0.93	1.500			
0.3488	22320.11	3.9070	3.9070	0.9534	26.89	0.92	1.500			
0.3516	22504.67	3.9040	3.9041	0.9615	26.89	0.92	1.500			
0.3545	22690.37	3.9010	3.9010	0.9699	26.88	0.91	1.500			
0.3575	22878.55	3.8980	3.8980	0.9743	26.87	0.90	1.500			
0.3604	23065.32	3.8950	3.8950	0.9778	26.87	0.90	1.500			
0.3633	23253.36	3.8920	3.8920	0.9820	26.86	0.89	1.500			
0.3662	23439.89	3.8890	3.8890	0.9957	26.86	0.89	1.500			
0.3692	23630.78	3.8860	3.8860	1.0084	26.85	0.88	1.500			
0.3723	23826.11	3.8830	3.8830	1.0237	26.84	0.87	1.500			
0.3754	24024.54	3.8800	3.8799	1.0390	26.84	0.87	1.500			
0.3786	24228.63	3.8770	3.8771	1.0464	26.83	0.86	1.500			
0.3817	24431.60	3.8740	3.8740	1.0547	26.82	0.85	1.500			
0.3849	24633.42	3.8710	3.8710	1.0646	26.82	0.85	1.500			
0.3881	24838.52	3.8680	3.8680	1.0622	26.81	0.84	1.500			
0.3912	25039.72	3.8650	3.8649	1.0770	26.80	0.83	1.500			
0.3945	25247.58	3.8620	3.8620	1.0919	26.79	0.82	1.500			
0.3978	25459.71	3.8590	3.8591	1.1081	26.78	0.81	1.500			
0.4012	25674.11	3.8560	3.8561	1.1283	26.78	0.81	1.500			
0.4046	25891.44	3.8530	3.8531	1.1429	26.77	0.80	1.500			
0.4080	26111.47	3.8500	3.8500	1.1636	26.76	0.79	1.500			
0.4115	26338.55	3.8470	3.8469	1.1867	26.75	0.78	1.500			
0.4151	26566.92	3.8440	3.8441	1.1969	26.74	0.77	1.500			
0.4187	26799.26	3.8410	3.8410	1.2198	26.73	0.76	1.500			
0.4224	27036.21	3.8380	3.8381	1.2393	26.72	0.75	1.500			
0.4262	27274.80	3.8350	3.8349	1.2562	26.71	0.74	1.500			
0.4299	27516.64	3.8320	3.8320	1.2751	26.70	0.73	1.500			
0.4338	27762.79	3.8290	3.8290	1.2965	26.68	0.71	1.500			
0.4377	28014.18	3.8260	3.8260	1.3159	26.67	0.70	1.500			
0.4417	28267.42	3.8230	3.8230	1.3431	26.66	0.69	1.500			
0.4457	28524.80	3.8200	3.8201	1.3694	26.65	0.68	1.500			
0.4499	28790.97	3.8170	3.8168	1.4023	26.64	0.67	1.500			
0.4541	29063.14	3.8140	3.8140	1.4279	26.63	0.66	1.500			
0.4585	29342.81	3.8110	3.8111	1.4575	26.62	0.65	1.500			
0.4629	29624.82	3.8080	3.8080	1.4945	26.60	0.63	1.500			
0.4674	29911.18	3.8050	3.8050	1.5260	26.59	0.62	1.500			
0.4720	30207.91	3.8020	3.8020	1.5592	26.58	0.61	1.500			
0.4768	30512.72	3.7990	3.7991	1.5929	26.56	0.59	1.500			
0.4816	30824.77	3.7960	3.7960	1.6316	26.55	0.58	1.500			
0.4866	31142.80	3.7930	3.7931	1.6630	26.54	0.57	1.500			
0.4916	31462.55	3.7900	3.7899	1.6829	26.52	0.55	1.500			
0.4967	31788.49	3.7870	3.7871	1.7161	26.51	0.54	1.500			
0.5019	32121.60	3.7840	3.7840	1.7392	26.49	0.52	1.500			
0.5072	32460.47	3.7810	3.7810	1.7679	26.48	0.51	1.500			
0.5125	32801.22	3.7780	3.7781	1.7856	26.46	0.49	1.500			
0.5179	33145.62	3.7750	3.7749	1.8124	26.44	0.47	1.500			
0.5234	33495.79	3.7720	3.7719	1.8281	26.42	0.45	1.500	0.348	0.461	
0.5289	33847.87	3.7690	3.7691	1.8383	26.41	0.44	1.500			
0.5345	34208.03	3.7660	3.7660	1.8397	26.40	0.43	1.500			
0.5400	34559.72	3.7630	3.7630	1.8331	26.38	0.41	1.500			
0.5454	34908.51	3.7600	3.7600	1.8157	26.37	0.40	1.500			
0.5509	35257.28	3.7570	3.7570	1.8173	26.36	0.39	1.500			
0.5563	35605.87	3.7540	3.7540	1.8104	26.34	0.37	1.500			
0.5618	35952.61	3.7510	3.7510	1.8052	26.33	0.36	1.500			
0.5671	36296.53	3.7480	3.7481	1.8234	26.32	0.35	1.500			
0.5726	36649.36	3.7450	3.7449	1.8487	26.30	0.33	1.500			
0.5782	37005.85	3.7420	3.7420	1.8775	26.29	0.32	1.500			
0.5839	37368.59	3.7390	3.7390	1.9042	26.28	0.31	1.500			
0.5897	37738.75	3.7360	3.7360	1.9359	26.26	0.29	1.500			
0.5955	38113.14	3.7330	3.7330	1.9729	26.25	0.28	1.500			
0.6015	38493.90	3.7300	3.7300	2.0108	26.24	0.27	1.500			
0.6076	38884.74	3.7270	3.7271	2.0557	26.23	0.26	1.500			
0.6138	39281.03	3.7240	3.7240	2.1170	26.22	0.25	1.500			
0.6202	39691.23	3.7210	3.7210	2.1727	26.21	0.24	1.500			
0.6268	40113.42	3.7180	3.7180	2.2505	26.19	0.22	1.500			
0.6337	40556.80	3.7150	3.7150	2.3184	26.18	0.21	1.500			
0.6408	41009.12	3.7120	3.7120	2.3876	26.16	0.19	1.500			
0.6480	41472.24	3.7090	3.7090	2.4591	26.14	0.17	1.500			
0.6555	41951.57	3.7060	3.7060	2.4780	26.13	0.16	1.500			
0.6630	42431.95	3.7030	3.7030	2.4842	26.12	0.15	1.500			
0.6704	42905.36	3.7000	3.6999	2.3984	26.11	0.14	1.500			
0.6775	43359.75	3.6970	3.6971	2.2907	26.10	0.13	1.500			
0.6843	43798.40	3.6940	3.6939	2.1603	26.08	0.11	1.500			
0.6905	44192.17	3.6910	3.6910	1.9866	26.07	0.10	1.500			
0.6961	44551.19	3.6880	3.6880	1.8227	26.07	0.10	1.500			
0.7013	44885.93	3.6850	3.6851	1.7023	26.06	0.09	1.500			
0.7062	45196.68	3.6820	3.6820	1.5821	26.05	0.08	1.500			
0.7107	45487.39	3.6790	3.6790	1.4968	26.05	0.08	1.500			
0.7150	45762.81	3.6760	3.6760	1.4318	26.05	0.08	1.500			
0.7192	46026.52	3.6730	3.6729	1.3686	26.04	0.07	1.500			
0.7231	46281.55	3.6700	3.6700	1.3211	26.04	0.07	1.500			
0.7270	46530.95	3.6670	3.6670	1.2869	26.04	0.07	1.500			
0.7308	46769.30	3.6640	3.6641	1.2654	26.03	0.06	1.500			
0.7345	47010.05	3.6610	3.6610	1.2566	26.02	0.05	1.500			
0.7382	47246.55	3.6580	3.6579	1.2467	26.02	0.05	1.500			
0.7419	47482.77	3.6550	3.6551	1.2551	26.01	0.04	1.500			
0.7457	47723.20	3.6520	3.6521	1.2702	26.01	0.04	1.500			
0.7495	47969.81	3.6490	3.6488	1.2808	26.00	0.03	1.500			
0.7534	48216.93	3.6460	3.6460	1.2923	25.99	0.02	1.500			
0.7573	48467.12	3.6430	3.6431	1.2950	25.99	0.02	1.500			
0.7613	48720.76	3.6400	3.6399	1.2975	25.98	0.01	1.500			
0.7651	48969.10	3.6370	3.6370	1.2942	25.98	0.01	1.500			
0.7690	49217.60	3.6340	3.6340	1.2888	25.97	-0.00	1.500			
0.7729	49464.17	3.6310	3.6310	1.2835	25.96	-0.01	1.500			
0.7767	49711.00	3.6280	3.6281	1.2808	25.96	-0.01	1.500			
0.7806	49955.35	3.6250	3.6250	1.2750	25.95	-0.02	1.500			
0.7844	50200.23	3.6220	3.6221	1.2756	25.94	-0.03	1.500			
0.7882	50444.93	3.6190	3.6190	1.2723	25.94	-0.03	1.500			
0.7920	50687.56	3.6160	3.6160	1.2659	25.93	-0.04	1.500			
0.7958	50932.36	3.6130	3.6130	1.2611	25.93	-0.04	1.500			
0.7996	51174.85	3.6100	3.6099	1.2480	25.92	-0.05	1.500			
0.8034	51415.19	3.6070	3.6070	1.2343	25.92	-0.05	1.500			
0.8070	51651.17	3.6040	3.6040	1.2183	25.92	-0.05	1.500			
0.8107	51883.53	3.6010	3.6011	1.1991	25.92	-0.05	1.500			
0.8142	52111.37	3.5980	3.5979	1.1764	25.92	-0.05	1.500			
0.8177	52334.98	3.5950	3.5951	1.1623	25.92	-0.05	1.500			
0.8212	52555.93	3.5920	3.5920	1.1464	25.92	-0.05	1.500			
0.8246	52775.34	3.5890	3.5888	1.1260	25.92	-0.05	1.500			
0.8280	52991.90	3.5860	3.5860	1.1023	25.93	-0.04	1.500			
0.8313	53206.26	3.5830	3.5830	1.0528	25.93	-0.04	1.500			
0.8346	53413.32	3.5800	3.5800	0.9978	25.94	-0.03	1.500			
0.8376	53605.66	3.5770	3.5770	0.9083	25.95	-0.02	1.500			
0.8402	53773.12	3.5740	3.5741	0.8021	25.95	-0.02	1.500			
0.8425	53916.93	3.5710	3.5710	0.6913	25.96	-0.01	1.500			
0.8443	54035.94	3.5680	3.5680	0.5783	25.96	-0.01	1.500			
0.8458	54129.12	3.5650	3.5651	0.4778	25.96	-0.01	1.500			
0.8470	54209.23	3.5620	3.5619	0.3977	25.96	-0.01	1.500			
0.8480	54272.75	3.5590	3.5590	0.3331	25.97	-0.00	1.500			
0.8489	54328.95	3.5560	3.5559	0.2892	25.97	-0.00	1.500			
0.8496	54376.86	3.5530	3.5531	0.2509	25.97	0.00	1.500			
0.8503	54421.52	3.5500	3.5499	0.2231	25.97	0.00	1.500			
0.8509	54459.81	3.5470	3.5470	0.2004	25.97	0.00	1.500			
0.8515	54495.70	3.5440	3.5439	0.1828	25.97	0.00	1.500			
0.8520	54528.75	3.5410	3.5410	0.1663	25.97	0.00	1.500			
0.8525	54559.16	3.5380	3.5382	0.1517	25.98	0.01	1.500			
0.8529	54586.88	3.5350	3.5349	0.1370	25.98	0.01	1.500			
0.8533	54611.54	3.5320	3.5320	0.1226	25.98	0.01	1.500			
0.8536	54633.54	3.5290	3.5290	0.1080	25.98	0.01	1.500			
0.8540	54652.94	3.5260	3.5260	0.0942	25.98	0.01	1.500			
0.8542	54669.80	3.5230	3.5231	0.0804	25.98	0.01	1.500			
0.8544	54683.93	3.5200	3.5204	0.0664	25.98	0.01	1.500			
0.8546	54695.33	3.5170	3.5175	0.0524	25.98	0.01	1.500			
0.8548	54704.04	3.5140	3.5149	0.0384	25.98	0.01	1.500			
