Ah_balance (normalized)	Ah_balance (mAh)	Voltage - fit (V)	Voltage -  interpolate (V)	dQ/dV (1/V)	Temperature (°C)	Temperature - diff (°C)	Current (C)	R_DC 0ms (mOhm)	R_DC 50ms (mOhm)	R_DC 50 ms PEC (mOhm)
0.3026	19368.79	3.9740	3.9740	0.8660	27.17	1.23	1.500			
0.3052	19535.48	3.9710	3.9710	0.8692	27.16	1.22	1.500			
0.3079	19702.72	3.9680	3.9680	0.8712	27.16	1.22	1.500			
0.3105	19869.68	3.9650	3.9650	0.8717	27.15	1.21	1.500			
0.3131	20036.26	3.9620	3.9621	0.8742	27.15	1.21	1.500			
0.3157	20206.04	3.9590	3.9590	0.8736	27.15	1.21	1.500			
0.3183	20372.26	3.9560	3.9559	0.8780	27.14	1.20	1.500			
0.3210	20541.32	3.9530	3.9531	0.8824	27.14	1.20	1.500			
0.3236	20710.54	3.9500	3.9500	0.8859	27.13	1.19	1.500			
0.3263	20881.85	3.9470	3.9470	0.8906	27.13	1.19	1.500			
0.3290	21053.48	3.9440	3.9440	0.8960	27.12	1.18	1.500			
0.3316	21224.91	3.9410	3.9409	0.9003	27.12	1.18	1.500			
0.3344	21398.70	3.9380	3.9380	0.9070	27.12	1.18	1.500			
0.3371	21572.18	3.9350	3.9350	0.9077	27.11	1.17	1.500			
0.3398	21748.27	3.9320	3.9320	0.9134	27.11	1.17	1.500			
0.3426	21924.09	3.9290	3.9289	0.9173	27.10	1.16	1.500			
0.3453	22100.61	3.9260	3.9261	0.9217	27.10	1.16	1.500			
0.3481	22277.17	3.9230	3.9230	0.9262	27.09	1.15	1.500			
0.3509	22455.29	3.9200	3.9200	0.9342	27.09	1.15	1.500			
0.3537	22634.94	3.9170	3.9171	0.9447	27.08	1.14	1.500			
0.3565	22818.45	3.9140	3.9139	0.9516	27.08	1.14	1.500			
0.3594	23002.29	3.9110	3.9110	0.9551	27.07	1.13	1.500			
0.3623	23185.86	3.9080	3.9080	0.9612	27.06	1.12	1.500			
0.3652	23370.95	3.9050	3.9051	0.9650	27.05	1.11	1.500			
0.3681	23556.01	3.9020	3.9019	0.9680	27.05	1.11	1.500			
0.3710	23741.33	3.8990	3.8990	0.9739	27.04	1.10	1.500			
0.3739	23928.14	3.8960	3.8961	0.9788	27.03	1.09	1.500			
0.3768	24117.49	3.8930	3.8929	0.9897	27.03	1.09	1.500			
0.3798	24308.44	3.8900	3.8901	1.0033	27.02	1.08	1.500			
0.3828	24501.60	3.8870	3.8870	1.0146	27.01	1.07	1.500			
0.3859	24698.75	3.8840	3.8840	1.0243	27.01	1.07	1.500			
0.3890	24896.80	3.8810	3.8810	1.0337	27.00	1.06	1.500			
0.3921	25094.80	3.8780	3.8780	1.0456	27.00	1.06	1.500			
0.3953	25297.08	3.8750	3.8750	1.0572	26.99	1.05	1.500			
0.3984	25499.70	3.8720	3.8720	1.0668	26.98	1.04	1.500			
0.4016	25704.24	3.8690	3.8691	1.0794	26.98	1.04	1.500			
0.4049	25913.79	3.8660	3.8661	1.0970	26.97	1.03	1.500			
0.4082	26126.89	3.8630	3.8630	1.1122	26.96	1.02	1.500			
0.4116	26341.18	3.8600	3.8599	1.1240	26.96	1.02	1.500			
0.4150	26557.80	3.8570	3.8571	1.1364	26.95	1.01	1.500			
0.4184	26777.71	3.8540	3.8540	1.1483	26.94	1.00	1.500			
0.4219	26999.80	3.8510	3.8510	1.1647	26.94	1.00	1.500			
0.4254	27224.37	3.8480	3.8479	1.1807	26.93	0.99	1.500			
0.4289	27450.19	3.8450	3.8450	1.1997	26.92	0.98	1.500			
0.4325	27682.55	3.8420	3.8420	1.2205	26.91	0.97	1.500			
0.4363	27920.12	3.8390	3.8390	1.2386	26.90	0.96	1.500			
0.4400	28159.79	3.8360	3.8359	1.2597	26.89	0.95	1.500			
0.4438	28403.27	3.8330	3.8331	1.2841	26.89	0.95	1.500			
0.4477	28650.27	3.8300	3.8301	1.3075	26.88	0.94	1.500			
0.4516	28902.64	3.8270	3.8269	1.3336	26.87	0.93	1.500			
0.4556	29160.04	3.8240	3.8240	1.3667	26.86	0.92	1.500			
0.4598	29426.45	3.8210	3.8210	1.3903	26.85	0.91	1.500			
0.4640	29695.04	3.8180	3.8180	1.4243	26.84	0.90	1.500			
0.4683	29971.82	3.8150	3.8150	1.4588	26.83	0.89	1.500			
0.4727	30254.78	3.8120	3.8121	1.4891	26.83	0.89	1.500			
0.4772	30543.46	3.8090	3.8089	1.5296	26.82	0.88	1.500			
0.4819	30840.56	3.8060	3.8061	1.5621	26.80	0.86	1.500			
0.4866	31145.06	3.8030	3.8030	1.5954	26.79	0.85	1.500			
0.4915	31458.12	3.8000	3.8000	1.6380	26.78	0.84	1.500			
0.4964	31770.02	3.7970	3.7971	1.6697	26.77	0.83	1.500			
0.5015	32094.43	3.7940	3.7940	1.7165	26.76	0.82	1.500			
0.5067	32431.89	3.7910	3.7910	1.7480	26.74	0.80	1.500			
0.5120	32769.47	3.7880	3.7880	1.7902	26.73	0.79	1.500			
0.5175	33118.71	3.7850	3.7851	1.8436	26.71	0.77	1.500			
0.5231	33476.36	3.7820	3.7820	1.8857	26.70	0.76	1.500			
0.5288	33841.10	3.7790	3.7790	1.9066	26.68	0.74	1.500			
0.5346	34211.97	3.7760	3.7761	1.9203	26.66	0.72	1.500			
0.5404	34583.65	3.7730	3.7730	1.9513	26.65	0.71	1.500			
0.5462	34958.54	3.7700	3.7700	1.9856	26.63	0.69	1.500			
0.5522	35342.47	3.7670	3.7670	2.0110	26.61	0.67	1.500			
0.5585	35743.27	3.7640	3.7641	2.0171	26.60	0.66	1.500	0.359	0.460	
0.5645	36127.95	3.7610	3.7610	2.0053	26.58	0.64	1.500			
0.5704	36507.72	3.7580	3.7580	1.9776	26.56	0.62	1.500			
0.5763	36883.31	3.7550	3.7549	1.9590	26.55	0.61	1.500			
0.5822	37263.39	3.7520	3.7521	1.9610	26.53	0.59	1.500			
0.5881	37639.02	3.7490	3.7490	1.9521	26.51	0.57	1.500			
0.5939	38010.05	3.7460	3.7460	1.9364	26.50	0.56	1.500			
0.5997	38378.46	3.7430	3.7429	1.9401	26.48	0.54	1.500			
0.6055	38752.72	3.7400	3.7401	1.9639	26.47	0.53	1.500			
0.6114	39132.72	3.7370	3.7370	1.9690	26.45	0.51	1.500			
0.6174	39511.75	3.7340	3.7340	1.9987	26.43	0.49	1.500			
0.6234	39896.94	3.7310	3.7310	2.0407	26.42	0.48	1.500			
0.6296	40293.38	3.7280	3.7280	2.0864	26.40	0.46	1.500			
0.6359	40697.27	3.7250	3.7250	2.1297	26.38	0.44	1.500			
0.6423	41109.14	3.7220	3.7221	2.1977	26.37	0.43	1.500			
0.6489	41531.43	3.7190	3.7190	2.2557	26.35	0.41	1.500			
0.6558	41973.89	3.7160	3.7160	2.3186	26.33	0.39	1.500			
0.6630	42428.84	3.7130	3.7131	2.4103	26.31	0.37	1.500			
0.6703	42899.99	3.7100	3.7100	2.4668	26.29	0.35	1.500			
0.6777	43373.86	3.7070	3.7070	2.5194	26.27	0.33	1.500			
0.6854	43867.82	3.7040	3.7040	2.5548	26.25	0.31	1.500			
0.6933	44369.15	3.7010	3.7010	2.5843	26.23	0.29	1.500			
0.7011	44873.03	3.6980	3.6980	2.5778	26.21	0.27	1.500			
0.7088	45366.18	3.6950	3.6950	2.4649	26.19	0.25	1.500			
0.7162	45836.40	3.6920	3.6920	2.3131	26.18	0.24	1.500			
0.7229	46262.97	3.6890	3.6890	2.1357	26.16	0.22	1.500			
0.7289	46652.06	3.6860	3.6861	1.9705	26.15	0.21	1.500			
0.7346	47012.94	3.6830	3.6830	1.8140	26.15	0.21	1.500			
0.7397	47337.79	3.6800	3.6800	1.6803	26.14	0.20	1.500			
0.7445	47646.92	3.6770	3.6770	1.5777	26.13	0.19	1.500			
0.7490	47938.83	3.6740	3.6740	1.4958	26.12	0.18	1.500			
0.7534	48214.62	3.6710	3.6710	1.4208	26.11	0.17	1.500			
0.7575	48480.17	3.6680	3.6680	1.3623	26.10	0.16	1.500			
0.7614	48732.63	3.6650	3.6650	1.3136	26.09	0.15	1.500			
0.7653	48977.26	3.6620	3.6620	1.2944	26.08	0.14	1.500			
0.7690	49218.11	3.6590	3.6590	1.2688	26.07	0.13	1.500			
0.7728	49459.41	3.6560	3.6561	1.2661	26.07	0.13	1.500			
0.7765	49699.01	3.6530	3.6530	1.2675	26.06	0.12	1.500			
0.7804	49943.46	3.6500	3.6501	1.2762	26.05	0.11	1.500			
0.7842	50189.44	3.6470	3.6470	1.2828	26.04	0.10	1.500			
0.7881	50436.68	3.6440	3.6440	1.2844	26.03	0.09	1.500			
0.7919	50683.44	3.6410	3.6410	1.2882	26.02	0.08	1.500			
0.7958	50933.03	3.6380	3.6381	1.2975	26.01	0.07	1.500			
0.7997	51182.96	3.6350	3.6348	1.2966	26.00	0.06	1.500			
0.8036	51431.61	3.6320	3.6321	1.2951	25.99	0.05	1.500			
0.8075	51682.18	3.6290	3.6290	1.2910	25.99	0.05	1.500			
0.8114	51930.43	3.6260	3.6260	1.2881	25.98	0.04	1.500			
0.8153	52176.04	3.6230	3.6230	1.2736	25.98	0.04	1.500			
0.8191	52419.34	3.6200	3.6200	1.2700	25.97	0.03	1.500			
0.8228	52662.28	3.6170	3.6170	1.2667	25.96	0.02	1.500			
0.8267	52906.53	3.6140	3.6140	1.2612	25.96	0.02	1.500			
0.8305	53149.26	3.6110	3.6110	1.2553	25.95	0.01	1.500			
0.8342	53391.43	3.6080	3.6080	1.2474	25.95	0.01	1.500			
0.8380	53631.55	3.6050	3.6051	1.2290	25.94	0.00	1.500			
0.8417	53865.92	3.6020	3.6019	1.2194	25.94	0.00	1.500			
0.8453	54097.69	3.5990	3.5991	1.1984	25.94	-0.00	1.500			
0.8488	54325.42	3.5960	3.5959	1.1815	25.93	-0.01	1.500			
0.8524	54550.67	3.5930	3.5931	1.1682	25.93	-0.01	1.500			
0.8558	54772.96	3.5900	3.5900	1.1559	25.93	-0.01	1.500			
0.8593	54992.98	3.5870	3.5870	1.1468	25.93	-0.01	1.500			
0.8627	55215.17	3.5840	3.5840	1.1353	25.93	-0.01	1.500			
0.8662	55433.80	3.5810	3.5810	1.1034	25.94	-0.00	1.500			
0.8696	55651.62	3.5780	3.5779	1.0692	25.94	-0.00	1.500			
0.8728	55859.43	3.5750	3.5750	0.9874	25.94	-0.00	1.500			
0.8758	56050.21	3.5720	3.5720	0.8956	25.94	0.00	1.500			
0.8783	56213.82	3.5690	3.5690	0.7763	25.94	0.00	1.500			
0.8805	56351.42	3.5660	3.5661	0.6534	25.94	0.00	1.500			
0.8822	56459.83	3.5630	3.5630	0.5448	25.94	0.00	1.500			
0.8836	56547.22	3.5600	3.5599	0.4478	25.94	0.00	1.500			
0.8846	56616.17	3.5570	3.5570	0.3681	25.94	0.00	1.500			
0.8856	56677.34	3.5540	3.5540	0.3159	25.94	0.00	1.500			
0.8864	56731.02	3.5510	3.5509	0.2695	25.94	0.00	1.500			
0.8871	56776.92	3.5480	3.5479	0.2375	25.94	0.00	1.500			
0.8878	56817.10	3.5450	3.5450	0.2103	25.95	0.01	1.500			
0.8883	56853.83	3.5420	3.5420	0.1892	25.95	0.01	1.500			
0.8889	56888.07	3.5390	3.5390	0.1705	25.95	0.01	1.500			
0.8893	56918.13	3.5360	3.5361	0.1545	25.95	0.01	1.500			
0.8898	56945.89	3.5330	3.5330	0.1388	25.95	0.01	1.500			
0.8902	56970.91	3.5300	3.5299	0.1238	25.95	0.01	1.500			
0.8905	56993.37	3.5270	3.5270	0.1101	25.95	0.01	1.500			
0.8908	57013.27	3.5240	3.5240	0.0965	25.95	0.01	1.500			
0.8911	57030.78	3.5210	3.5212	0.0829	25.95	0.01	1.500			
0.8913	57045.33	3.5180	3.5182	0.0687	25.95	0.01	1.500			
0.8915	57057.45	3.5150	3.5153	0.0530	25.95	0.01	1.500			
0.8917	57066.14	3.5120	3.5127	0.0376	25.95	0.01	1.500			
