Ah_balance (normalized)	Ah_balance (mAh)	Voltage - fit (V)	Voltage -  interpolate (V)	dQ/dV (1/V)	Temperature (°C)	Temperature - diff (°C)	Current (C)	R_DC 0ms (mOhm)	R_DC 50ms (mOhm)	R_DC 50 ms PEC (mOhm)
0.2759	17659.05	3.9900	3.9900	0.8335	27.34	1.39	1.500			
0.2785	17822.40	3.9870	3.9870	0.8482	27.33	1.38	1.500			
0.2810	17983.07	3.9840	3.9840	0.8462	27.33	1.38	1.500			
0.2835	18145.66	3.9810	3.9811	0.8512	27.32	1.37	1.500			
0.2861	18309.85	3.9780	3.9779	0.8529	27.31	1.36	1.500			
0.2887	18474.65	3.9750	3.9749	0.8539	27.30	1.35	1.500			
0.2912	18638.81	3.9720	3.9721	0.8565	27.30	1.35	1.500			
0.2938	18803.62	3.9690	3.9691	0.8559	27.29	1.34	1.500			
0.2964	18967.76	3.9660	3.9659	0.8583	27.28	1.33	1.500			
0.2989	19132.03	3.9630	3.9630	0.8587	27.27	1.32	1.500			
0.3015	19295.97	3.9600	3.9600	0.8619	27.27	1.32	1.500			
0.3041	19461.95	3.9570	3.9570	0.8696	27.26	1.31	1.500			
0.3067	19630.24	3.9540	3.9540	0.8740	27.25	1.30	1.500			
0.3093	19797.82	3.9510	3.9510	0.8785	27.25	1.30	1.500			
0.3120	19967.36	3.9480	3.9480	0.8877	27.24	1.29	1.500			
0.3147	20137.97	3.9450	3.9450	0.8926	27.23	1.28	1.500			
0.3174	20310.54	3.9420	3.9420	0.8977	27.23	1.28	1.500			
0.3201	20483.37	3.9390	3.9390	0.9009	27.22	1.27	1.500			
0.3228	20657.00	3.9360	3.9360	0.9049	27.21	1.26	1.500			
0.3255	20832.00	3.9330	3.9329	0.9079	27.21	1.26	1.500			
0.3282	21005.20	3.9300	3.9300	0.9112	27.20	1.25	1.500			
0.3309	21180.12	3.9270	3.9271	0.9144	27.19	1.24	1.500			
0.3337	21356.57	3.9240	3.9240	0.9189	27.19	1.24	1.500			
0.3364	21532.64	3.9210	3.9209	0.9256	27.18	1.23	1.500			
0.3392	21710.53	3.9180	3.9180	0.9307	27.17	1.22	1.500			
0.3420	21889.94	3.9150	3.9150	0.9388	27.16	1.21	1.500			
0.3449	22071.14	3.9120	3.9119	0.9483	27.16	1.21	1.500			
0.3477	22252.91	3.9090	3.9091	0.9578	27.15	1.20	1.500			
0.3506	22439.35	3.9060	3.9060	0.9695	27.14	1.19	1.500			
0.3536	22628.32	3.9030	3.9028	0.9738	27.13	1.18	1.500			
0.3565	22814.74	3.9000	3.9000	0.9779	27.12	1.17	1.500			
0.3594	23001.95	3.8970	3.8971	0.9851	27.12	1.17	1.500			
0.3624	23191.36	3.8940	3.8940	0.9884	27.11	1.16	1.500			
0.3653	23381.82	3.8910	3.8909	0.9923	27.10	1.15	1.500			
0.3683	23571.13	3.8880	3.8881	1.0030	27.09	1.14	1.500			
0.3713	23765.06	3.8850	3.8851	1.0177	27.08	1.13	1.500			
0.3744	23963.86	3.8820	3.8819	1.0286	27.07	1.12	1.500			
0.3775	24160.87	3.8790	3.8789	1.0366	27.06	1.11	1.500			
0.3806	24358.82	3.8760	3.8761	1.0519	27.05	1.10	1.500			
0.3838	24563.57	3.8730	3.8730	1.0682	27.04	1.09	1.500			
0.3870	24770.93	3.8700	3.8699	1.0802	27.03	1.08	1.500			
0.3903	24979.82	3.8670	3.8670	1.0862	27.02	1.07	1.500			
0.3936	25188.87	3.8640	3.8641	1.1001	27.00	1.05	1.500			
0.3969	25402.18	3.8610	3.8609	1.1108	26.99	1.04	1.500			
0.4002	25613.73	3.8580	3.8581	1.1228	26.98	1.03	1.500			
0.4036	25829.86	3.8550	3.8550	1.1362	26.97	1.02	1.500			
0.4070	26050.43	3.8520	3.8520	1.1554	26.96	1.01	1.500			
0.4105	26274.25	3.8490	3.8490	1.1732	26.94	0.99	1.500			
0.4141	26501.93	3.8460	3.8460	1.1931	26.93	0.98	1.500			
0.4177	26731.50	3.8430	3.8430	1.2066	26.92	0.97	1.500			
0.4213	26964.65	3.8400	3.8400	1.2278	26.91	0.96	1.500			
0.4250	27202.05	3.8370	3.8370	1.2378	26.90	0.95	1.500			
0.4288	27441.46	3.8340	3.8340	1.2576	26.88	0.93	1.500			
0.4325	27682.18	3.8310	3.8310	1.2823	26.87	0.92	1.500			
0.4364	27930.48	3.8280	3.8281	1.3004	26.86	0.91	1.500			
0.4403	28181.10	3.8250	3.8250	1.3296	26.85	0.90	1.500			
0.4444	28439.51	3.8220	3.8221	1.3575	26.83	0.88	1.500			
0.4485	28703.88	3.8190	3.8190	1.3788	26.81	0.86	1.500			
0.4527	28973.81	3.8160	3.8160	1.4069	26.80	0.85	1.500			
0.4569	29243.06	3.8130	3.8131	1.4251	26.78	0.83	1.500			
0.4612	29517.82	3.8100	3.8098	1.4518	26.76	0.81	1.500			
0.4656	29800.26	3.8070	3.8070	1.4804	26.75	0.80	1.500			
0.4701	30087.18	3.8040	3.8040	1.4914	26.73	0.78	1.500			
0.4746	30375.98	3.8010	3.8010	1.5217	26.72	0.77	1.500			
0.4792	30668.95	3.7980	3.7981	1.5478	26.70	0.75	1.500			
0.4839	30968.93	3.7950	3.7949	1.5766	26.69	0.74	1.500			
0.4886	31273.32	3.7920	3.7921	1.5982	26.67	0.72	1.500			
0.4935	31583.39	3.7890	3.7890	1.6343	26.65	0.70	1.500			
0.4985	31902.29	3.7860	3.7860	1.6654	26.63	0.68	1.500			
0.5035	32224.28	3.7830	3.7829	1.6904	26.61	0.66	1.500	0.347	0.476	
0.5086	32550.64	3.7800	3.7801	1.7023	26.59	0.64	1.500			
0.5138	32880.71	3.7770	3.7770	1.7249	26.58	0.63	1.500			
0.5189	33212.76	3.7740	3.7740	1.7363	26.55	0.60	1.500			
0.5242	33546.89	3.7710	3.7710	1.7280	26.53	0.58	1.500			
0.5294	33880.62	3.7680	3.7681	1.7260	26.51	0.56	1.500			
0.5346	34211.88	3.7650	3.7650	1.7272	26.49	0.54	1.500			
0.5397	34541.41	3.7620	3.7620	1.7228	26.47	0.52	1.500			
0.5449	34870.71	3.7590	3.7590	1.7376	26.46	0.51	1.500			
0.5501	35204.44	3.7560	3.7560	1.7457	26.45	0.50	1.500			
0.5553	35539.96	3.7530	3.7530	1.7618	26.43	0.48	1.500			
0.5606	35880.43	3.7500	3.7499	1.7915	26.42	0.47	1.500			
0.5660	36226.17	3.7470	3.7470	1.8110	26.40	0.45	1.500			
0.5715	36577.90	3.7440	3.7440	1.8184	26.38	0.43	1.500			
0.5771	36932.52	3.7410	3.7410	1.8578	26.36	0.41	1.500			
0.5826	37283.22	3.7380	3.7380	1.8941	26.34	0.39	1.500			
0.5883	37652.04	3.7350	3.7351	1.9628	26.32	0.37	1.500			
0.5943	38037.48	3.7320	3.7321	2.0108	26.30	0.35	1.500			
0.6005	38429.95	3.7290	3.7290	2.0658	26.29	0.34	1.500			
0.6067	38828.75	3.7260	3.7260	2.1159	26.27	0.32	1.500			
0.6131	39241.58	3.7230	3.7230	2.1709	26.26	0.31	1.500			
0.6197	39662.12	3.7200	3.7200	2.2214	26.24	0.29	1.500			
0.6265	40095.60	3.7170	3.7170	2.2896	26.22	0.27	1.500			
0.6334	40539.67	3.7140	3.7140	2.3218	26.21	0.26	1.500			
0.6405	40990.69	3.7110	3.7111	2.3719	26.19	0.24	1.500			
0.6477	41454.34	3.7080	3.7079	2.3236	26.18	0.23	1.500			
0.6546	41896.66	3.7050	3.7050	2.2355	26.16	0.21	1.500			
0.6612	42317.02	3.7020	3.7019	2.1173	26.15	0.20	1.500			
0.6674	42714.67	3.6990	3.6990	1.9965	26.14	0.19	1.500			
0.6732	43084.71	3.6960	3.6960	1.8695	26.13	0.18	1.500			
0.6786	43428.37	3.6930	3.6930	1.7440	26.12	0.17	1.500			
0.6835	43746.05	3.6900	3.6901	1.6346	26.11	0.16	1.500			
0.6883	44050.71	3.6870	3.6870	1.5451	26.10	0.15	1.500			
0.6927	44335.45	3.6840	3.6840	1.4698	26.09	0.14	1.500			
0.6970	44606.07	3.6810	3.6810	1.4033	26.08	0.13	1.500			
0.7011	44867.54	3.6780	3.6780	1.3587	26.08	0.13	1.500			
0.7050	45119.28	3.6750	3.6750	1.3145	26.07	0.12	1.500			
0.7088	45364.52	3.6720	3.6720	1.2952	26.06	0.11	1.500			
0.7126	45608.00	3.6690	3.6690	1.2761	26.06	0.11	1.500			
0.7164	45851.48	3.6660	3.6660	1.2780	26.05	0.10	1.500			
0.7202	46094.82	3.6630	3.6630	1.2748	26.04	0.09	1.500			
0.7241	46340.93	3.6600	3.6601	1.2763	26.03	0.08	1.500			
0.7279	46587.41	3.6570	3.6570	1.2754	26.02	0.07	1.500			
0.7318	46833.54	3.6540	3.6540	1.2737	26.01	0.06	1.500			
0.7356	47078.32	3.6510	3.6509	1.2655	26.00	0.05	1.500			
0.7394	47320.36	3.6480	3.6481	1.2593	26.00	0.05	1.500			
0.7431	47560.10	3.6450	3.6451	1.2467	25.99	0.04	1.500			
0.7469	47800.55	3.6420	3.6419	1.2406	25.98	0.03	1.500			
0.7506	48037.04	3.6390	3.6390	1.2333	25.98	0.03	1.500			
0.7542	48271.57	3.6360	3.6361	1.2265	25.97	0.02	1.500			
0.7579	48506.02	3.6330	3.6330	1.2215	25.97	0.02	1.500			
0.7616	48742.52	3.6300	3.6299	1.2179	25.96	0.01	1.500			
0.7652	48975.73	3.6270	3.6271	1.2086	25.96	0.01	1.500			
0.7689	49208.67	3.6240	3.6240	1.1984	25.95	0.00	1.500			
0.7725	49437.60	3.6210	3.6210	1.1829	25.95	-0.00	1.500			
0.7760	49663.65	3.6180	3.6180	1.1580	25.94	-0.01	1.500			
0.7794	49883.76	3.6150	3.6150	1.1402	25.94	-0.01	1.500			
0.7828	50100.62	3.6120	3.6120	1.1200	25.93	-0.02	1.500			
0.7861	50313.32	3.6090	3.6088	1.1000	25.93	-0.02	1.500			
0.7894	50522.61	3.6060	3.6060	1.0796	25.93	-0.02	1.500			
0.7926	50729.14	3.6030	3.6030	1.0579	25.94	-0.01	1.500			
0.7958	50931.69	3.6000	3.6000	1.0375	25.94	-0.01	1.500			
0.7989	51129.30	3.5970	3.5970	1.0057	25.94	-0.01	1.500			
0.8019	51322.00	3.5940	3.5940	0.9711	25.94	-0.01	1.500			
0.8048	51508.70	3.5910	3.5909	0.9256	25.94	-0.01	1.500			
0.8076	51685.03	3.5880	3.5880	0.8633	25.95	-0.00	1.500			
0.8101	51848.69	3.5850	3.5851	0.7916	25.95	-0.00	1.500			
0.8124	51994.73	3.5820	3.5820	0.7027	25.95	0.00	1.500			
0.8144	52122.51	3.5790	3.5791	0.6116	25.95	0.00	1.500			
0.8161	52228.27	3.5760	3.5761	0.5266	25.95	0.00	1.500			
0.8174	52316.11	3.5730	3.5730	0.4493	25.95	0.00	1.500			
0.8186	52391.98	3.5700	3.5699	0.3733	25.96	0.01	1.500			
0.8196	52454.62	3.5670	3.5668	0.3223	25.96	0.01	1.500			
0.8204	52508.07	3.5640	3.5640	0.2803	25.96	0.01	1.500			
0.8212	52555.85	3.5610	3.5610	0.2480	25.96	0.01	1.500			
0.8219	52599.24	3.5580	3.5580	0.2192	25.96	0.01	1.500			
0.8225	52637.93	3.5550	3.5550	0.1976	25.96	0.01	1.500			
0.8230	52672.39	3.5520	3.5520	0.1781	25.96	0.01	1.500			
0.8235	52704.42	3.5490	3.5489	0.1606	25.96	0.01	1.500			
0.8240	52733.56	3.5460	3.5461	0.1465	25.96	0.01	1.500			
0.8244	52759.85	3.5430	3.5430	0.1316	25.96	0.01	1.500			
0.8247	52783.86	3.5400	3.5400	0.1172	25.96	0.01	1.500			
0.8251	52805.13	3.5370	3.5370	0.1035	25.96	0.01	1.500			
0.8254	52823.63	3.5340	3.5341	0.0893	25.96	0.01	1.500			
0.8256	52839.65	3.5310	3.5311	0.0751	25.96	0.01	1.500			
0.8258	52852.95	3.5280	3.5282	0.0603	25.96	0.01	1.500			
0.8260	52863.07	3.5250	3.5254	0.0451	25.96	0.01	1.500			
0.8261	52870.28	3.5220	3.5230	0.0300	25.96	0.01	1.500			
