Ah_balance (normalized)	Ah_balance (mAh)	Voltage - fit (V)	Voltage -  interpolate (V)	dQ/dV (1/V)	Temperature (°C)	Temperature - diff (°C)	Current (C)	R_DC 0ms (mOhm)	R_DC 50ms (mOhm)	R_DC 50 ms PEC (mOhm)
0.2770	17731.17	3.9900	3.9900	0.8248	27.39	1.42	1.500			
0.2795	17890.84	3.9870	3.9870	0.8357	27.39	1.42	1.500			
0.2821	18053.08	3.9840	3.9839	0.8406	27.39	1.42	1.500			
0.2846	18213.77	3.9810	3.9811	0.8429	27.38	1.41	1.500			
0.2871	18375.05	3.9780	3.9781	0.8467	27.38	1.41	1.500			
0.2897	18539.10	3.9750	3.9749	0.8540	27.37	1.40	1.500			
0.2922	18703.29	3.9720	3.9720	0.8557	27.37	1.40	1.500			
0.2948	18867.35	3.9690	3.9691	0.8580	27.36	1.39	1.500			
0.2974	19033.37	3.9660	3.9660	0.8648	27.36	1.39	1.500			
0.3000	19200.22	3.9630	3.9630	0.8700	27.36	1.39	1.500			
0.3026	19366.07	3.9600	3.9600	0.8719	27.35	1.38	1.500			
0.3052	19534.64	3.9570	3.9570	0.8725	27.35	1.38	1.500			
0.3079	19704.15	3.9540	3.9540	0.8735	27.34	1.37	1.500			
0.3105	19871.05	3.9510	3.9511	0.8817	27.34	1.37	1.500			
0.3131	20040.98	3.9480	3.9479	0.8800	27.34	1.37	1.500			
0.3158	20208.90	3.9450	3.9449	0.8821	27.33	1.36	1.500			
0.3184	20377.52	3.9420	3.9421	0.8904	27.33	1.36	1.500			
0.3211	20548.05	3.9390	3.9390	0.9011	27.32	1.35	1.500			
0.3238	20723.71	3.9360	3.9359	0.9079	27.31	1.34	1.500			
0.3265	20898.99	3.9330	3.9329	0.9124	27.31	1.34	1.500			
0.3293	21074.79	3.9300	3.9301	0.9158	27.30	1.33	1.500			
0.3321	21253.34	3.9270	3.9270	0.9182	27.29	1.32	1.500			
0.3348	21428.52	3.9240	3.9240	0.9175	27.29	1.32	1.500			
0.3376	21603.23	3.9210	3.9210	0.9210	27.28	1.31	1.500			
0.3403	21778.06	3.9180	3.9180	0.9231	27.27	1.30	1.500			
0.3431	21956.54	3.9150	3.9150	0.9349	27.27	1.30	1.500			
0.3459	22137.55	3.9120	3.9120	0.9429	27.26	1.29	1.500			
0.3487	22319.78	3.9090	3.9090	0.9506	27.25	1.28	1.500			
0.3516	22503.44	3.9060	3.9060	0.9630	27.25	1.28	1.500			
0.3545	22688.18	3.9030	3.9031	0.9724	27.24	1.27	1.500			
0.3574	22875.07	3.9000	3.8999	0.9765	27.23	1.26	1.500			
0.3604	23064.81	3.8970	3.8970	0.9830	27.22	1.25	1.500			
0.3633	23252.84	3.8940	3.8941	0.9906	27.22	1.25	1.500			
0.3663	23443.84	3.8910	3.8909	1.0005	27.21	1.24	1.500			
0.3693	23636.59	3.8880	3.8880	1.0107	27.20	1.23	1.500			
0.3724	23830.56	3.8850	3.8850	1.0218	27.20	1.23	1.500			
0.3754	24028.48	3.8820	3.8820	1.0345	27.19	1.22	1.500			
0.3786	24230.53	3.8790	3.8790	1.0462	27.18	1.21	1.500			
0.3818	24432.18	3.8760	3.8760	1.0570	27.17	1.20	1.500			
0.3849	24635.00	3.8730	3.8731	1.0651	27.17	1.20	1.500			
0.3881	24841.21	3.8700	3.8699	1.0728	27.16	1.19	1.500			
0.3914	25047.04	3.8670	3.8670	1.0845	27.15	1.18	1.500			
0.3946	25255.93	3.8640	3.8640	1.0951	27.14	1.17	1.500			
0.3979	25466.98	3.8610	3.8611	1.1091	27.13	1.16	1.500			
0.4013	25681.43	3.8580	3.8579	1.1303	27.12	1.15	1.500			
0.4047	25900.84	3.8550	3.8550	1.1391	27.11	1.14	1.500			
0.4081	26120.32	3.8520	3.8519	1.1563	27.10	1.13	1.500			
0.4116	26344.07	3.8490	3.8492	1.1734	27.09	1.12	1.500			
0.4152	26570.82	3.8460	3.8459	1.1900	27.07	1.10	1.500			
0.4188	26801.20	3.8430	3.8430	1.2102	27.06	1.09	1.500			
0.4224	27033.43	3.8400	3.8400	1.2244	27.05	1.08	1.500			
0.4261	27269.70	3.8370	3.8371	1.2434	27.04	1.07	1.500			
0.4299	27514.41	3.8340	3.8340	1.2669	27.03	1.06	1.500			
0.4337	27757.17	3.8310	3.8309	1.2798	27.02	1.05	1.500			
0.4376	28004.55	3.8280	3.8281	1.2962	27.00	1.03	1.500			
0.4415	28253.89	3.8250	3.8250	1.3199	26.99	1.02	1.500			
0.4455	28508.96	3.8220	3.8220	1.3455	26.98	1.01	1.500			
0.4495	28769.66	3.8190	3.8190	1.3761	26.96	0.99	1.500			
0.4537	29033.83	3.8160	3.8160	1.4031	26.95	0.98	1.500			
0.4579	29308.45	3.8130	3.8130	1.4302	26.94	0.97	1.500			
0.4623	29588.19	3.8100	3.8100	1.4508	26.92	0.95	1.500			
0.4667	29867.67	3.8070	3.8070	1.4724	26.91	0.94	1.500			
0.4711	30150.22	3.8040	3.8041	1.4948	26.89	0.92	1.500			
0.4756	30439.64	3.8010	3.8009	1.5109	26.88	0.91	1.500			
0.4802	30730.90	3.7980	3.7980	1.5389	26.86	0.89	1.500			
0.4848	31028.15	3.7950	3.7951	1.5718	26.84	0.87	1.500			
0.4896	31336.53	3.7920	3.7919	1.6070	26.83	0.86	1.500			
0.4945	31647.41	3.7890	3.7891	1.6342	26.81	0.84	1.500			
0.4995	31967.07	3.7860	3.7859	1.6500	26.79	0.82	1.500			
0.5045	32287.36	3.7830	3.7826	1.6693	26.78	0.81	1.500	0.345	0.476	
0.5095	32606.75	3.7800	3.7801	1.6876	26.76	0.79	1.500			
0.5146	32931.63	3.7770	3.7770	1.7082	26.75	0.78	1.500			
0.5197	33261.93	3.7740	3.7740	1.7228	26.73	0.76	1.500			
0.5249	33595.86	3.7710	3.7711	1.7351	26.72	0.75	1.500			
0.5302	33933.72	3.7680	3.7680	1.7310	26.71	0.74	1.500			
0.5354	34265.10	3.7650	3.7650	1.7341	26.69	0.72	1.500			
0.5406	34597.60	3.7620	3.7621	1.7304	26.68	0.71	1.500			
0.5458	34929.13	3.7590	3.7590	1.7292	26.67	0.70	1.500			
0.5510	35261.34	3.7560	3.7560	1.7369	26.65	0.68	1.500			
0.5562	35594.21	3.7530	3.7530	1.7515	26.63	0.66	1.500			
0.5614	35928.35	3.7500	3.7500	1.7619	26.62	0.65	1.500			
0.5667	36270.57	3.7470	3.7469	1.7941	26.60	0.63	1.500			
0.5721	36615.55	3.7440	3.7440	1.8345	26.59	0.62	1.500			
0.5777	36972.75	3.7410	3.7410	1.8530	26.57	0.60	1.500			
0.5833	37333.74	3.7380	3.7380	1.9121	26.56	0.59	1.500			
0.5891	37704.62	3.7350	3.7350	1.9508	26.55	0.58	1.500			
0.5950	38082.53	3.7320	3.7321	2.0099	26.53	0.56	1.500			
0.6011	38471.72	3.7290	3.7290	2.0689	26.51	0.54	1.500			
0.6075	38880.67	3.7260	3.7260	2.1467	26.49	0.52	1.500			
0.6139	39292.12	3.7230	3.7230	2.2120	26.47	0.50	1.500			
0.6208	39730.24	3.7200	3.7200	2.2617	26.45	0.48	1.500			
0.6277	40170.09	3.7170	3.7170	2.2852	26.42	0.45	1.500			
0.6345	40608.57	3.7140	3.7140	2.3027	26.40	0.43	1.500			
0.6415	41052.91	3.7110	3.7108	2.3258	26.38	0.41	1.500			
0.6484	41499.72	3.7080	3.7080	2.3204	26.36	0.39	1.500			
0.6555	41949.57	3.7050	3.7050	2.2670	26.34	0.37	1.500			
0.6623	42384.87	3.7020	3.7020	2.1474	26.32	0.35	1.500			
0.6685	42782.31	3.6990	3.6990	2.0005	26.30	0.33	1.500			
0.6742	43148.68	3.6960	3.6960	1.8594	26.29	0.32	1.500			
0.6795	43489.13	3.6930	3.6930	1.7337	26.27	0.30	1.500			
0.6844	43804.71	3.6900	3.6900	1.6183	26.26	0.29	1.500			
0.6892	44106.08	3.6870	3.6871	1.5368	26.25	0.28	1.500			
0.6936	44391.52	3.6840	3.6840	1.4639	26.23	0.26	1.500			
0.6978	44660.72	3.6810	3.6811	1.4078	26.22	0.25	1.500			
0.7020	44925.25	3.6780	3.6779	1.3625	26.21	0.24	1.500			
0.7059	45178.10	3.6750	3.6750	1.3291	26.19	0.22	1.500			
0.7098	45428.31	3.6720	3.6720	1.3046	26.18	0.21	1.500			
0.7137	45676.25	3.6690	3.6690	1.2933	26.17	0.20	1.500			
0.7175	45922.11	3.6660	3.6659	1.2831	26.16	0.19	1.500			
0.7213	46166.39	3.6630	3.6631	1.2789	26.14	0.17	1.500			
0.7252	46411.34	3.6600	3.6601	1.2747	26.13	0.16	1.500			
0.7290	46657.51	3.6570	3.6569	1.2747	26.12	0.15	1.500			
0.7328	46900.63	3.6540	3.6540	1.2712	26.11	0.14	1.500			
0.7366	47145.42	3.6510	3.6511	1.2664	26.10	0.13	1.500			
0.7405	47388.89	3.6480	3.6479	1.2584	26.08	0.11	1.500			
0.7442	47630.09	3.6450	3.6450	1.2563	26.07	0.10	1.500			
0.7480	47871.42	3.6420	3.6420	1.2485	26.06	0.09	1.500			
0.7517	48110.86	3.6390	3.6390	1.2395	26.06	0.09	1.500			
0.7554	48347.34	3.6360	3.6360	1.2318	26.05	0.08	1.500			
0.7591	48582.31	3.6330	3.6331	1.2221	26.04	0.07	1.500			
0.7628	48816.94	3.6300	3.6299	1.2193	26.03	0.06	1.500			
0.7664	49051.49	3.6270	3.6271	1.2094	26.02	0.05	1.500			
0.7700	49281.85	3.6240	3.6240	1.1952	26.01	0.04	1.500			
0.7736	49511.44	3.6210	3.6210	1.1819	26.00	0.03	1.500			
0.7772	49739.28	3.6180	3.6180	1.1667	25.99	0.02	1.500			
0.7807	49962.90	3.6150	3.6150	1.1454	25.99	0.02	1.500			
0.7841	50180.14	3.6120	3.6120	1.1211	25.98	0.01	1.500			
0.7874	50392.66	3.6090	3.6090	1.0951	25.97	-0.00	1.500			
0.7906	50600.88	3.6060	3.6059	1.0735	25.96	-0.01	1.500			
0.7938	50803.96	3.6030	3.6031	1.0481	25.96	-0.01	1.500			
0.7969	51003.34	3.6000	3.6000	1.0237	25.96	-0.01	1.500			
0.8000	51198.72	3.5970	3.5970	0.9988	25.96	-0.01	1.500			
0.8030	51390.30	3.5940	3.5940	0.9614	25.96	-0.01	1.500			
0.8058	51572.72	3.5910	3.5910	0.9152	25.97	-0.00	1.500			
0.8086	51750.93	3.5880	3.5880	0.8514	25.97	-0.00	1.500			
0.8111	51911.16	3.5850	3.5850	0.7703	25.97	-0.00	1.500			
0.8133	52054.36	3.5820	3.5821	0.6858	25.97	-0.00	1.500			
0.8153	52176.17	3.5790	3.5791	0.5950	25.97	-0.00	1.500			
0.8169	52279.65	3.5760	3.5759	0.5041	25.97	0.00	1.500			
0.8182	52365.44	3.5730	3.5729	0.4270	25.97	0.00	1.500			
0.8193	52434.50	3.5700	3.5701	0.3609	25.97	0.00	1.500			
0.8202	52495.86	3.5670	3.5669	0.3141	25.97	0.00	1.500			
0.8211	52548.30	3.5640	3.5639	0.2726	25.97	0.00	1.500			
0.8218	52593.99	3.5610	3.5610	0.2353	25.97	0.00	1.500			
0.8224	52635.21	3.5580	3.5580	0.2114	25.97	0.00	1.500			
0.8230	52672.69	3.5550	3.5551	0.1903	25.97	0.00	1.500			
0.8235	52706.77	3.5520	3.5520	0.1700	25.97	0.00	1.500			
0.8240	52737.43	3.5490	3.5489	0.1541	25.97	0.00	1.500			
0.8245	52765.05	3.5460	3.5460	0.1375	25.97	0.00	1.500			
0.8248	52789.46	3.5430	3.5430	0.1218	25.97	0.00	1.500			
0.8252	52811.56	3.5400	3.5400	0.1077	25.97	0.00	1.500			
0.8255	52830.83	3.5370	3.5371	0.0930	25.97	0.00	1.500			
0.8257	52846.96	3.5340	3.5341	0.0783	25.97	0.00	1.500			
0.8260	52860.98	3.5310	3.5313	0.0639	25.97	0.00	1.500			
0.8261	52871.83	3.5280	3.5286	0.0491	25.97	0.00	1.500			
0.8262	52879.81	3.5250	3.5260	0.0342	25.97	0.00	1.500			
