Ah_balance (normalized)	Ah_balance (mAh)	Voltage - fit (V)	Voltage -  interpolate (V)	dQ/dV (1/V)	Temperature (°C)	Temperature - diff (°C)	Current (C)	R_DC 0ms (mOhm)	R_DC 50ms (mOhm)	R_DC 50 ms PEC (mOhm)
0.2000	12801.57	3.9370	3.9367	-0.0979	25.60	0.00	-0.750			
0.2004	12826.73	3.9340	3.9337	-0.1561	25.60	0.00	-0.750			
0.2010	12861.49	3.9310	3.9309	-0.2038	25.60	0.00	-0.750			
0.2017	12905.60	3.9280	3.9280	-0.2495	25.60	0.00	-0.750			
0.2025	12958.06	3.9250	3.9250	-0.2928	25.60	0.00	-0.750			
0.2034	13018.53	3.9220	3.9221	-0.3363	25.60	0.00	-0.750			
0.2045	13087.95	3.9190	3.9190	-0.3787	25.60	0.00	-0.750			
0.2057	13165.07	3.9160	3.9159	-0.4199	25.60	0.00	-0.750			
0.2070	13250.51	3.9130	3.9130	-0.4576	25.60	0.00	-0.750			
0.2085	13343.23	3.9100	3.9099	-0.4917	25.60	0.00	-0.750			
0.2100	13441.79	3.9070	3.9072	-0.5210	25.60	0.00	-0.750			
0.2116	13545.35	3.9040	3.9039	-0.5447	25.60	0.00	-0.750			
0.2133	13653.35	3.9010	3.9010	-0.5657	25.60	0.00	-0.750			
0.2151	13763.95	3.8980	3.8980	-0.5863	25.60	0.00	-0.750			
0.2168	13878.00	3.8950	3.8950	-0.6020	25.60	0.00	-0.750			
0.2187	13997.20	3.8920	3.8919	-0.6175	25.60	0.00	-0.750			
0.2206	14117.27	3.8890	3.8891	-0.6297	25.60	0.00	-0.750			
0.2225	14240.44	3.8860	3.8860	-0.6404	25.60	0.00	-0.750			
0.2244	14364.42	3.8830	3.8830	-0.6487	25.60	0.00	-0.750			
0.2264	14490.19	3.8800	3.8800	-0.6542	25.60	0.00	-0.750			
0.2284	14615.80	3.8770	3.8770	-0.6589	25.60	0.00	-0.750			
0.2304	14743.78	3.8740	3.8740	-0.6656	25.60	0.00	-0.750			
0.2324	14872.13	3.8710	3.8710	-0.6709	25.60	0.00	-0.750			
0.2344	15001.26	3.8680	3.8680	-0.6726	25.60	0.00	-0.750			
0.2364	15132.12	3.8650	3.8650	-0.6740	25.60	0.00	-0.750			
0.2385	15261.00	3.8620	3.8620	-0.6759	25.60	0.00	-0.750			
0.2405	15390.86	3.8590	3.8591	-0.6801	25.60	0.00	-0.750			
0.2425	15521.20	3.8560	3.8559	-0.6805	25.60	0.00	-0.750			
0.2446	15652.11	3.8530	3.8530	-0.6848	25.60	0.00	-0.750			
0.2466	15784.04	3.8500	3.8500	-0.6853	25.60	0.00	-0.750			
0.2487	15916.99	3.8470	3.8470	-0.6843	25.60	0.00	-0.750			
0.2508	16049.25	3.8440	3.8440	-0.6876	25.60	0.00	-0.750			
0.2528	16179.84	3.8410	3.8411	-0.6874	25.60	0.00	-0.750			
0.2549	16311.09	3.8380	3.8379	-0.6877	25.60	0.00	-0.750			
0.2569	16444.14	3.8350	3.8350	-0.6886	25.60	0.00	-0.750			
0.2590	16576.45	3.8320	3.8320	-0.6876	25.60	0.00	-0.750			
0.2611	16709.01	3.8290	3.8291	-0.6895	25.60	0.00	-0.750			
0.2632	16842.46	3.8260	3.8260	-0.6896	25.60	0.00	-0.750			
0.2652	16972.64	3.8230	3.8230	-0.6889	25.61	0.01	-0.750			
0.2673	17104.77	3.8200	3.8200	-0.6883	25.61	0.01	-0.750			
0.2693	17237.60	3.8170	3.8170	-0.6912	25.61	0.01	-0.750			
0.2714	17371.68	3.8140	3.8139	-0.6925	25.62	0.02	-0.750			
0.2735	17504.26	3.8110	3.8111	-0.6916	25.62	0.02	-0.750			
0.2756	17637.04	3.8080	3.8080	-0.6913	25.62	0.02	-0.750			
0.2776	17769.58	3.8050	3.8050	-0.6926	25.63	0.03	-0.750			
0.2797	17901.63	3.8020	3.8019	-0.6891	25.63	0.03	-0.750			
0.2818	18034.84	3.7990	3.7990	-0.6914	25.63	0.03	-0.750			
0.2839	18167.24	3.7960	3.7960	-0.6919	25.64	0.04	-0.750			
0.2859	18299.92	3.7930	3.7930	-0.6947	25.64	0.04	-0.750			
0.2880	18433.51	3.7900	3.7900	-0.6950	25.64	0.04	-0.750			
0.2901	18566.57	3.7870	3.7870	-0.6997	25.64	0.04	-0.750			
0.2922	18701.82	3.7840	3.7840	-0.7000	25.65	0.05	-0.750			
0.2943	18837.31	3.7810	3.7810	-0.7027	25.65	0.05	-0.750			
0.2964	18972.56	3.7780	3.7779	-0.7036	25.65	0.05	-0.750			
0.2986	19107.41	3.7750	3.7750	-0.7034	25.65	0.05	-0.750			
0.3006	19241.06	3.7720	3.7720	-0.7038	25.65	0.05	-0.750			
0.3027	19375.90	3.7690	3.7690	-0.7102	25.65	0.05	-0.750			
0.3049	19512.69	3.7660	3.7660	-0.7103	25.66	0.06	-0.750			
0.3070	19650.41	3.7630	3.7630	-0.7175	25.66	0.06	-0.750			
0.3092	19788.49	3.7600	3.7600	-0.7203	25.66	0.06	-0.750			
0.3114	19926.84	3.7570	3.7570	-0.7257	25.66	0.06	-0.750			
0.3135	20065.90	3.7540	3.7540	-0.7314	25.66	0.06	-0.750			
0.3157	20207.00	3.7510	3.7509	-0.7348	25.66	0.06	-0.750			
0.3179	20348.37	3.7480	3.7480	-0.7384	25.66	0.06	-0.750			
0.3202	20492.01	3.7450	3.7450	-0.7446	25.66	0.06	-0.750			
0.3224	20635.18	3.7420	3.7420	-0.7479	25.66	0.06	-0.750			
0.3247	20778.98	3.7390	3.7390	-0.7543	25.66	0.06	-0.750			
0.3269	20921.99	3.7360	3.7360	-0.7607	25.66	0.06	-0.750			
0.3292	21069.48	3.7330	3.7330	-0.7690	25.66	0.06	-0.750			
0.3315	21218.98	3.7300	3.7300	-0.7773	25.66	0.06	-0.750			
0.3339	21368.67	3.7270	3.7270	-0.7851	25.66	0.06	-0.750			
0.3362	21519.67	3.7240	3.7241	-0.7936	25.66	0.06	-0.750			
0.3386	21671.41	3.7210	3.7210	-0.8059	25.66	0.06	-0.750			
0.3411	21827.50	3.7180	3.7179	-0.8155	25.66	0.06	-0.750			
0.3435	21984.83	3.7150	3.7150	-0.8236	25.67	0.07	-0.750			
0.3460	22145.25	3.7120	3.7119	-0.8354	25.67	0.07	-0.750			
0.3486	22307.60	3.7090	3.7091	-0.8477	25.67	0.07	-0.750			
0.3511	22469.51	3.7060	3.7060	-0.8640	25.67	0.07	-0.750			
0.3537	22636.31	3.7030	3.7029	-0.8736	25.67	0.07	-0.750			
0.3563	22804.74	3.7000	3.6999	-0.8822	25.66	0.06	-0.750			
0.3590	22978.01	3.6970	3.6969	-0.8983	25.66	0.06	-0.750			
0.3617	23152.00	3.6940	3.6940	-0.9150	25.66	0.06	-0.750			
0.3645	23328.23	3.6910	3.6909	-0.9323	25.65	0.05	-0.750			
0.3673	23505.83	3.6880	3.6880	-0.9488	25.65	0.05	-0.750			
0.3701	23688.17	3.6850	3.6850	-0.9696	25.64	0.04	-0.750			
0.3731	23878.87	3.6820	3.6821	-1.0000	25.64	0.04	-0.750			
0.3762	24074.79	3.6790	3.6789	-1.0232	25.64	0.04	-0.750			
0.3793	24273.25	3.6760	3.6760	-1.0456	25.64	0.04	-0.750			
0.3824	24475.52	3.6730	3.6730	-1.0644	25.64	0.04	-0.750			
0.3857	24683.63	3.6700	3.6701	-1.0899	25.64	0.04	-0.750			
0.3890	24893.44	3.6670	3.6670	-1.1111	25.64	0.04	-0.750			
0.3923	25108.13	3.6640	3.6640	-1.1335	25.64	0.04	-0.750			
0.3957	25327.42	3.6610	3.6610	-1.1608	25.64	0.04	-0.750			
0.3993	25552.94	3.6580	3.6580	-1.1874	25.64	0.04	-0.750			
0.4029	25783.32	3.6550	3.6550	-1.2118	25.64	0.04	-0.750			
0.4066	26019.97	3.6520	3.6520	-1.2391	25.63	0.03	-0.750			
0.4103	26259.34	3.6490	3.6492	-1.2728	25.63	0.03	-0.750			
0.4142	26507.45	3.6460	3.6460	-1.2986	25.63	0.03	-0.750			
0.4181	26760.91	3.6430	3.6429	-1.3201	25.62	0.02	-0.750			
0.4221	27016.90	3.6400	3.6402	-1.3447	25.62	0.02	-0.750			
0.4262	27276.93	3.6370	3.6370	-1.3763	25.62	0.02	-0.750			
0.4304	27544.07	3.6340	3.6339	-1.3956	25.61	0.01	-0.750			
0.4346	27813.22	3.6310	3.6311	-1.4150	25.61	0.01	-0.750			
0.4388	28084.76	3.6280	3.6280	-1.4484	25.61	0.01	-0.750			
0.4432	28367.89	3.6250	3.6250	-1.4916	25.60	0.00	-0.750			
0.4478	28658.23	3.6220	3.6220	-1.5258	25.60	0.00	-0.750			
0.4524	28954.04	3.6190	3.6191	-1.5536	25.60	0.00	-0.750			
0.4571	29256.97	3.6160	3.6159	-1.5893	25.61	0.01	-0.750			
0.4620	29569.80	3.6130	3.6129	-1.6171	25.61	0.01	-0.750			
0.4669	29880.80	3.6100	3.6100	-1.6494	25.60	0.00	-0.750			
0.4719	30198.97	3.6070	3.6071	-1.6742	25.60	0.00	-0.750			
0.4769	30524.38	3.6040	3.6039	-1.7120	25.60	0.00	-0.750			
0.4822	30859.37	3.6010	3.6010	-1.7504	25.60	0.00	-0.750			
0.4875	31197.13	3.5980	3.5982	-1.7838	25.60	0.00	-0.750			
0.4929	31544.74	3.5950	3.5949	-1.8155	25.60	0.00	-0.750			
0.4984	31895.53	3.5920	3.5921	-1.8485	25.60	0.00	-0.750			
0.5039	32249.41	3.5890	3.5891	-1.8708	25.60	0.00	-0.750			
0.5096	32616.13	3.5860	3.5859	-1.9127	25.60	0.00	-0.750			
0.5154	32984.90	3.5830	3.5830	-1.9293	25.60	-0.00	-0.750			
0.5212	33356.82	3.5800	3.5800	-1.9556	25.59	-0.01	-0.750			
0.5271	33733.43	3.5770	3.5771	-1.9945	25.59	-0.01	-0.750			
0.5332	34121.83	3.5740	3.5739	-2.0025	25.59	-0.01	-0.750			
0.5392	34508.70	3.5710	3.5711	-2.0328	25.59	-0.01	-0.750	0.389	0.560	
0.5453	34900.66	3.5680	3.5682	-2.0469	25.58	-0.02	-0.750			
0.5515	35298.40	3.5650	3.5649	-2.0634	25.58	-0.02	-0.750			
0.5577	35690.55	3.5620	3.5620	-2.0639	25.58	-0.02	-0.750			
0.5639	36086.95	3.5590	3.5591	-2.0826	25.58	-0.02	-0.750			
0.5702	36494.51	3.5560	3.5560	-2.1018	25.58	-0.02	-0.750			
0.5765	36898.54	3.5530	3.5530	-2.1066	25.58	-0.02	-0.750			
0.5829	37302.74	3.5500	3.5501	-2.1004	25.57	-0.03	-0.750			
0.5892	37709.94	3.5470	3.5470	-2.0984	25.57	-0.03	-0.750			
0.5955	38114.01	3.5440	3.5440	-2.0744	25.58	-0.02	-0.750			
0.6017	38507.98	3.5410	3.5411	-2.0513	25.58	-0.02	-0.750			
0.6079	38903.35	3.5380	3.5380	-2.0383	25.59	-0.01	-0.750			
0.6139	39291.16	3.5350	3.5349	-2.0117	25.59	-0.01	-0.750			
0.6199	39675.92	3.5320	3.5320	-1.9771	25.60	-0.00	-0.750			
0.6259	40056.82	3.5290	3.5289	-1.9503	25.60	0.00	-0.750			
0.6317	40428.54	3.5260	3.5260	-1.9142	25.61	0.01	-0.750			
0.6373	40788.77	3.5230	3.5230	-1.8610	25.61	0.01	-0.750			
0.6429	41142.51	3.5200	3.5200	-1.8155	25.62	0.02	-0.750			
0.6482	41486.84	3.5170	3.5170	-1.7746	25.62	0.02	-0.750			
0.6535	41823.96	3.5140	3.5140	-1.7332	25.63	0.03	-0.750			
0.6586	42152.02	3.5110	3.5110	-1.6882	25.64	0.04	-0.750			
0.6636	42472.90	3.5080	3.5080	-1.6454	25.65	0.05	-0.750			
0.6685	42783.14	3.5050	3.5050	-1.5970	25.67	0.07	-0.750			
0.6732	43086.25	3.5020	3.5021	-1.5540	25.68	0.08	-0.750			
0.6778	43380.30	3.4990	3.4988	-1.5099	25.69	0.09	-0.750			
0.6822	43662.67	3.4960	3.4961	-1.4664	25.70	0.10	-0.750			
0.6866	43942.56	3.4930	3.4930	-1.4251	25.70	0.10	-0.750			
0.6908	44213.32	3.4900	3.4900	-1.3834	25.71	0.11	-0.750			
0.6949	44474.60	3.4870	3.4870	-1.3426	25.72	0.12	-0.750			
0.6988	44726.34	3.4840	3.4841	-1.2995	25.72	0.12	-0.750			
0.7027	44972.60	3.4810	3.4809	-1.2629	25.74	0.14	-0.750			
0.7064	45208.42	3.4780	3.4780	-1.2232	25.75	0.15	-0.750			
0.7100	45436.90	3.4750	3.4751	-1.1907	25.76	0.16	-0.750			
0.7135	45665.19	3.4720	3.4720	-1.1762	25.77	0.17	-0.750			
0.7170	45888.44	3.4690	3.4689	-1.1530	25.77	0.17	-0.750			
0.7204	46107.23	3.4660	3.4660	-1.1327	25.78	0.18	-0.750			
0.7238	46321.82	3.4630	3.4631	-1.1208	25.78	0.18	-0.750			
0.7271	46535.44	3.4600	3.4600	-1.1091	25.79	0.19	-0.750			
0.7304	46747.47	3.4570	3.4569	-1.0978	25.80	0.20	-0.750			
0.7337	46956.36	3.4540	3.4539	-1.0758	25.81	0.21	-0.750			
0.7369	47162.61	3.4510	3.4510	-1.0690	25.81	0.21	-0.750			
0.7401	47365.71	3.4480	3.4481	-1.0623	25.82	0.22	-0.750			
0.7432	47567.49	3.4450	3.4449	-1.0557	25.83	0.23	-0.750			
0.7464	47767.63	3.4420	3.4419	-1.0442	25.84	0.24	-0.750			
0.7495	47968.22	3.4390	3.4390	-1.0494	25.84	0.24	-0.750			
0.7527	48170.70	3.4360	3.4361	-1.0448	25.85	0.25	-0.750			
0.7558	48372.50	3.4330	3.4329	-1.0419	25.85	0.25	-0.750			
0.7589	48570.95	3.4300	3.4300	-1.0295	25.86	0.26	-0.750			
0.7620	48768.11	3.4270	3.4269	-1.0230	25.86	0.26	-0.750			
0.7651	48965.14	3.4240	3.4240	-1.0090	25.87	0.27	-0.750			
0.7681	49158.68	3.4210	3.4209	-0.9951	25.87	0.27	-0.750			
0.7710	49347.19	3.4180	3.4180	-0.9771	25.88	0.28	-0.750			
0.7740	49534.85	3.4150	3.4150	-0.9643	25.88	0.28	-0.750			
0.7768	49717.64	3.4120	3.4119	-0.9441	25.88	0.28	-0.750			
0.7796	49897.41	3.4090	3.4090	-0.9274	25.89	0.29	-0.750			
0.7824	50073.51	3.4060	3.4060	-0.9059	25.89	0.29	-0.750			
0.7851	50246.94	3.4030	3.4030	-0.8859	25.89	0.29	-0.750			
0.7877	50415.20	3.4000	3.4000	-0.8633	25.90	0.30	-0.750			
0.7903	50579.41	3.3970	3.3970	-0.8367	25.90	0.30	-0.750			
0.7928	50737.94	3.3940	3.3940	-0.8091	25.91	0.31	-0.750			
0.7952	50890.80	3.3910	3.3911	-0.7818	25.91	0.31	-0.750			
0.7975	51037.84	3.3880	3.3880	-0.7528	25.92	0.32	-0.750			
0.7997	51180.13	3.3850	3.3849	-0.7228	25.93	0.33	-0.750			
0.8018	51316.08	3.3820	3.3820	-0.6916	25.93	0.33	-0.750			
0.8038	51445.17	3.3790	3.3791	-0.6625	25.94	0.34	-0.750			
0.8058	51570.30	3.3760	3.3760	-0.6342	25.95	0.35	-0.750			
0.8076	51688.97	3.3730	3.3730	-0.6059	25.95	0.35	-0.750			
0.8094	51802.12	3.3700	3.3699	-0.5779	25.96	0.36	-0.750			
0.8111	51910.18	3.3670	3.3671	-0.5505	25.96	0.36	-0.750			
0.8127	52013.54	3.3640	3.3640	-0.5266	25.97	0.37	-0.750			
0.8143	52112.15	3.3610	3.3609	-0.5006	25.97	0.37	-0.750			
0.8157	52204.82	3.3580	3.3580	-0.4751	25.98	0.38	-0.750			
0.8171	52294.09	3.3550	3.3551	-0.4532	25.98	0.38	-0.750			
0.8184	52378.23	3.3520	3.3520	-0.4322	25.99	0.39	-0.750			
0.8197	52459.08	3.3490	3.3490	-0.4140	25.99	0.39	-0.750			
0.8209	52535.78	3.3460	3.3460	-0.3966	25.99	0.39	-0.750			
0.8220	52609.93	3.3430	3.3429	-0.3808	26.00	0.40	-0.750			
0.8232	52681.94	3.3400	3.3400	-0.3675	26.00	0.40	-0.750			
0.8242	52750.98	3.3370	3.3370	-0.3537	26.01	0.41	-0.750			
0.8253	52817.51	3.3340	3.3340	-0.3411	26.01	0.41	-0.750			
0.8263	52881.30	3.3310	3.3310	-0.3274	26.01	0.41	-0.750			
0.8272	52943.05	3.3280	3.3280	-0.3162	26.01	0.41	-0.750			
0.8282	53001.92	3.3250	3.3250	-0.3050	26.02	0.42	-0.750			
0.8291	53059.52	3.3220	3.3219	-0.2957	26.02	0.42	-0.750			
0.8299	53114.98	3.3190	3.3191	-0.2875	26.02	0.42	-0.750			
0.8308	53169.25	3.3160	3.3160	-0.2806	26.03	0.43	-0.750			
0.8316	53222.46	3.3130	3.3130	-0.2736	26.03	0.43	-0.750			
0.8324	53274.77	3.3100	3.3100	-0.2669	26.03	0.43	-0.750			
0.8332	53325.13	3.3070	3.3070	-0.2599	26.03	0.43	-0.750			
0.8340	53374.36	3.3040	3.3041	-0.2530	26.04	0.44	-0.750			
0.8347	53422.33	3.3010	3.3009	-0.2463	26.04	0.44	-0.750			
0.8354	53468.31	3.2980	3.2980	-0.2398	26.04	0.44	-0.750			
0.8361	53513.46	3.2950	3.2951	-0.2338	26.05	0.45	-0.750			
0.8368	53557.75	3.2920	3.2920	-0.2296	26.05	0.45	-0.750			
0.8375	53601.21	3.2890	3.2890	-0.2257	26.06	0.46	-0.750			
0.8382	53644.43	3.2860	3.2860	-0.2211	26.06	0.46	-0.750			
0.8389	53686.52	3.2830	3.2830	-0.2173	26.06	0.46	-0.750			
0.8395	53728.02	3.2800	3.2800	-0.2137	26.07	0.47	-0.750			
0.8401	53768.64	3.2770	3.2771	-0.2106	26.07	0.47	-0.750			
0.8408	53808.41	3.2740	3.2740	-0.2062	26.08	0.48	-0.750			
0.8414	53847.70	3.2710	3.2709	-0.2031	26.08	0.48	-0.750			
0.8420	53886.29	3.2680	3.2680	-0.1996	26.08	0.48	-0.750			
0.8426	53924.26	3.2650	3.2652	-0.1963	26.09	0.49	-0.750			
0.8432	53961.86	3.2620	3.2620	-0.1943	26.09	0.49	-0.750			
0.8437	53998.85	3.2590	3.2590	-0.1910	26.09	0.49	-0.750			
0.8443	54034.91	3.2560	3.2560	-0.1881	26.10	0.50	-0.750			
0.8449	54070.61	3.2530	3.2530	-0.1851	26.10	0.50	-0.750			
0.8454	54105.83	3.2500	3.2500	-0.1832	26.11	0.51	-0.750			
0.8460	54140.82	3.2470	3.2470	-0.1812	26.11	0.51	-0.750			
0.8465	54175.48	3.2440	3.2440	-0.1790	26.11	0.51	-0.750			
0.8470	54209.79	3.2410	3.2410	-0.1765	26.12	0.52	-0.750			
0.8476	54243.43	3.2380	3.2380	-0.1740	26.12	0.52	-0.750			
0.8481	54276.57	3.2350	3.2350	-0.1713	26.12	0.52	-0.750			
0.8486	54309.10	3.2320	3.2320	-0.1695	26.13	0.53	-0.750			
0.8491	54341.28	3.2290	3.2290	-0.1679	26.13	0.53	-0.750			
0.8496	54373.30	3.2260	3.2260	-0.1653	26.14	0.54	-0.750			
0.8501	54404.90	3.2230	3.2229	-0.1639	26.14	0.54	-0.750			
0.8506	54436.34	3.2200	3.2200	-0.1622	26.14	0.54	-0.750			
0.8511	54467.44	3.2170	3.2170	-0.1608	26.15	0.55	-0.750			
0.8515	54498.05	3.2140	3.2140	-0.1591	26.15	0.55	-0.750			
0.8520	54528.42	3.2110	3.2109	-0.1573	26.16	0.56	-0.750			
0.8525	54558.22	3.2080	3.2080	-0.1556	26.16	0.56	-0.750			
0.8529	54587.89	3.2050	3.2050	-0.1541	26.16	0.56	-0.750			
0.8534	54617.62	3.2020	3.2020	-0.1531	26.17	0.57	-0.750			
0.8539	54646.84	3.1990	3.1990	-0.1513	26.17	0.57	-0.750			
0.8543	54675.78	3.1960	3.1960	-0.1495	26.18	0.58	-0.750			
0.8548	54704.29	3.1930	3.1930	-0.1478	26.18	0.58	-0.750			
0.8552	54732.20	3.1900	3.1900	-0.1465	26.18	0.58	-0.750			
0.8556	54760.22	3.1870	3.1870	-0.1454	26.19	0.59	-0.750			
0.8561	54787.96	3.1840	3.1840	-0.1439	26.19	0.59	-0.750			
0.8565	54815.35	3.1810	3.1810	-0.1430	26.19	0.59	-0.750			
0.8569	54842.87	3.1780	3.1780	-0.1422	26.20	0.60	-0.750			
0.8573	54870.08	3.1750	3.1751	-0.1412	26.20	0.60	-0.750			
0.8578	54897.29	3.1720	3.1719	-0.1398	26.20	0.60	-0.750			
0.8582	54924.04	3.1690	3.1691	-0.1385	26.21	0.61	-0.750			
0.8586	54950.36	3.1660	3.1660	-0.1367	26.21	0.61	-0.750			
0.8590	54976.41	3.1630	3.1630	-0.1356	26.21	0.61	-0.750			
0.8594	55002.46	3.1600	3.1599	-0.1346	26.22	0.62	-0.750			
0.8598	55027.89	3.1570	3.1570	-0.1331	26.22	0.62	-0.750			
0.8602	55053.26	3.1540	3.1541	-0.1326	26.22	0.62	-0.750			
0.8606	55078.76	3.1510	3.1510	-0.1320	26.22	0.62	-0.750			
0.8610	55104.08	3.1480	3.1480	-0.1314	26.23	0.63	-0.750			
0.8614	55129.29	3.1450	3.1449	-0.1306	26.23	0.63	-0.750			
0.8618	55154.33	3.1420	3.1421	-0.1298	26.23	0.63	-0.750			
0.8622	55179.32	3.1390	3.1390	-0.1287	26.24	0.64	-0.750			
0.8626	55203.90	3.1360	3.1360	-0.1274	26.24	0.64	-0.750			
0.8629	55228.38	3.1330	3.1330	-0.1261	26.24	0.64	-0.750			
0.8633	55252.38	3.1300	3.1300	-0.1245	26.25	0.65	-0.750			
0.8637	55276.01	3.1270	3.1270	-0.1236	26.25	0.65	-0.750			
0.8641	55299.58	3.1240	3.1240	-0.1224	26.25	0.65	-0.750			
0.8644	55322.95	3.1210	3.1209	-0.1216	26.26	0.66	-0.750			
0.8648	55346.01	3.1180	3.1180	-0.1206	26.26	0.66	-0.750			
0.8651	55369.17	3.1150	3.1150	-0.1198	26.26	0.66	-0.750			
0.8655	55392.14	3.1120	3.1120	-0.1191	26.27	0.67	-0.750			
0.8659	55414.94	3.1090	3.1091	-0.1182	26.27	0.67	-0.750			
0.8662	55437.67	3.1060	3.1060	-0.1174	26.27	0.67	-0.750			
0.8666	55460.05	3.1030	3.1029	-0.1166	26.28	0.68	-0.750			
0.8669	55482.25	3.1000	3.1001	-0.1156	26.28	0.68	-0.750			
0.8673	55504.39	3.0970	3.0970	-0.1149	26.28	0.68	-0.750			
0.8676	55526.34	3.0940	3.0940	-0.1141	26.29	0.69	-0.750			
0.8679	55548.24	3.0910	3.0910	-0.1131	26.29	0.69	-0.750			
0.8683	55569.94	3.0880	3.0880	-0.1123	26.29	0.69	-0.750			
0.8686	55591.35	3.0850	3.0850	-0.1117	26.30	0.70	-0.750			
0.8689	55612.70	3.0820	3.0821	-0.1109	26.30	0.70	-0.750			
0.8693	55633.91	3.0790	3.0790	-0.1101	26.30	0.70	-0.750			
0.8696	55654.89	3.0760	3.0759	-0.1093	26.30	0.70	-0.750			
0.8699	55675.80	3.0730	3.0730	-0.1087	26.31	0.71	-0.750			
0.8703	55696.57	3.0700	3.0701	-0.1081	26.31	0.71	-0.750			
0.8706	55717.30	3.0670	3.0670	-0.1075	26.31	0.71	-0.750			
0.8709	55737.95	3.0640	3.0640	-0.1070	26.32	0.72	-0.750			
0.8712	55758.40	3.0610	3.0610	-0.1063	26.32	0.72	-0.750			
0.8715	55778.68	3.0580	3.0579	-0.1056	26.32	0.72	-0.750			
0.8719	55799.02	3.0550	3.0550	-0.1047	26.32	0.72	-0.750			
0.8722	55819.17	3.0520	3.0520	-0.1040	26.33	0.73	-0.750			
0.8725	55838.95	3.0490	3.0490	-0.1034	26.33	0.73	-0.750			
0.8728	55858.69	3.0460	3.0460	-0.1025	26.33	0.73	-0.750			
0.8731	55878.29	3.0430	3.0430	-0.1019	26.33	0.73	-0.750			
0.8734	55897.72	3.0400	3.0400	-0.1011	26.34	0.74	-0.750			
0.8737	55917.10	3.0370	3.0369	-0.1005	26.34	0.74	-0.750			
0.8740	55936.27	3.0340	3.0340	-0.0998	26.34	0.74	-0.750			
0.8743	55955.40	3.0310	3.0311	-0.0991	26.34	0.74	-0.750			
0.8746	55974.50	3.0280	3.0280	-0.0987	26.35	0.75	-0.750			
0.8749	55993.34	3.0250	3.0250	-0.0979	26.35	0.75	-0.750			
0.8752	56012.00	3.0220	3.0220	-0.0971	26.35	0.75	-0.750			
0.8755	56030.56	3.0190	3.0190	-0.0965	26.35	0.75	-0.750			
0.8758	56049.02	3.0160	3.0160	-0.0958	26.35	0.75	-0.750			
0.8761	56067.36	3.0130	3.0130	-0.0952	26.36	0.76	-0.750			
0.8763	56085.57	3.0100	3.0099	-0.0946	26.36	0.76	-0.750			
0.8766	56103.68	3.0070	3.0070	-0.0940	26.36	0.76	-0.750			
0.8769	56121.67	3.0040	3.0040	-0.0937	26.36	0.76	-0.750			
