Ah_balance (normalized)	Ah_balance (mAh)	Voltage - fit (V)	Voltage -  interpolate (V)	dQ/dV (1/V)	Temperature (°C)	Temperature - diff (°C)	Current (C)	R_DC 0ms (mOhm)	R_DC 50ms (mOhm)	R_DC 50 ms PEC (mOhm)
0.2789	17848.94	3.9730	3.9731	0.8670	27.10	1.14	1.500			
0.2815	18015.01	3.9700	3.9699	0.8703	27.09	1.13	1.500			
0.2841	18183.37	3.9670	3.9671	0.8779	27.09	1.13	1.500			
0.2868	18352.95	3.9640	3.9640	0.8830	27.09	1.13	1.500			
0.2894	18523.87	3.9610	3.9610	0.8876	27.08	1.12	1.500			
0.2921	18694.17	3.9580	3.9580	0.8895	27.08	1.12	1.500			
0.2947	18863.43	3.9550	3.9551	0.8918	27.08	1.12	1.500			
0.2975	19036.81	3.9520	3.9519	0.8980	27.07	1.11	1.500			
0.3001	19209.29	3.9490	3.9490	0.8944	27.07	1.11	1.500			
0.3028	19381.47	3.9460	3.9460	0.8998	27.07	1.11	1.500			
0.3055	19554.83	3.9430	3.9431	0.9044	27.06	1.10	1.500			
0.3082	19727.45	3.9400	3.9398	0.9121	27.06	1.10	1.500			
0.3110	19900.90	3.9370	3.9371	0.9165	27.06	1.10	1.500			
0.3137	20077.99	3.9340	3.9340	0.9261	27.05	1.09	1.500			
0.3165	20258.80	3.9310	3.9309	0.9364	27.05	1.09	1.500			
0.3194	20441.38	3.9280	3.9280	0.9373	27.05	1.09	1.500			
0.3222	20620.27	3.9250	3.9251	0.9374	27.04	1.08	1.500			
0.3250	20801.16	3.9220	3.9220	0.9418	27.04	1.08	1.500			
0.3278	20980.01	3.9190	3.9190	0.9492	27.04	1.08	1.500			
0.3306	21161.10	3.9160	3.9159	0.9546	27.03	1.07	1.500			
0.3335	21345.22	3.9130	3.9131	0.9625	27.03	1.07	1.500			
0.3365	21532.88	3.9100	3.9100	0.9712	27.03	1.07	1.500			
0.3394	21719.92	3.9070	3.9071	0.9784	27.02	1.06	1.500			
0.3423	21908.40	3.9040	3.9040	0.9821	27.02	1.06	1.500			
0.3453	22098.02	3.9010	3.9010	0.9892	27.01	1.05	1.500			
0.3482	22287.65	3.8980	3.8979	0.9893	27.01	1.05	1.500			
0.3512	22477.61	3.8950	3.8951	0.9994	27.00	1.04	1.500			
0.3542	22669.14	3.8920	3.8920	1.0120	27.00	1.04	1.500			
0.3573	22864.76	3.8890	3.8890	1.0248	26.99	1.03	1.500			
0.3603	23061.87	3.8860	3.8861	1.0359	26.99	1.03	1.500			
0.3635	23261.11	3.8830	3.8830	1.0524	26.98	1.02	1.500			
0.3667	23466.50	3.8800	3.8800	1.0613	26.97	1.01	1.500			
0.3699	23673.18	3.8770	3.8769	1.0717	26.97	1.01	1.500			
0.3731	23880.34	3.8740	3.8740	1.0736	26.96	1.00	1.500			
0.3763	24084.97	3.8710	3.8711	1.0804	26.95	0.99	1.500			
0.3796	24293.49	3.8680	3.8680	1.0893	26.95	0.99	1.500			
0.3828	24501.20	3.8650	3.8649	1.1046	26.94	0.98	1.500			
0.3861	24711.93	3.8620	3.8621	1.1187	26.93	0.97	1.500			
0.3895	24930.20	3.8590	3.8590	1.1440	26.93	0.97	1.500			
0.3930	25153.40	3.8560	3.8560	1.1613	26.92	0.96	1.500			
0.3966	25379.87	3.8530	3.8530	1.1783	26.91	0.95	1.500			
0.4001	25607.28	3.8500	3.8500	1.1930	26.90	0.94	1.500			
0.4037	25837.24	3.8470	3.8471	1.2104	26.89	0.93	1.500			
0.4073	26068.14	3.8440	3.8439	1.2265	26.88	0.92	1.500			
0.4110	26306.57	3.8410	3.8410	1.2512	26.88	0.92	1.500			
0.4148	26548.24	3.8380	3.8380	1.2731	26.87	0.91	1.500			
0.4187	26795.61	3.8350	3.8350	1.2971	26.86	0.90	1.500			
0.4226	27048.56	3.8320	3.8321	1.3258	26.85	0.89	1.500			
0.4267	27305.68	3.8290	3.8289	1.3483	26.84	0.88	1.500			
0.4307	27566.72	3.8260	3.8260	1.3693	26.84	0.88	1.500			
0.4348	27829.27	3.8230	3.8231	1.3965	26.83	0.87	1.500			
0.4391	28099.72	3.8200	3.8200	1.4290	26.82	0.86	1.500			
0.4434	28377.61	3.8170	3.8169	1.4587	26.80	0.84	1.500			
0.4478	28659.96	3.8140	3.8140	1.4907	26.79	0.83	1.500			
0.4523	28946.81	3.8110	3.8111	1.5317	26.78	0.82	1.500			
0.4570	29246.68	3.8080	3.8080	1.5744	26.77	0.81	1.500			
0.4618	29553.00	3.8050	3.8050	1.6151	26.75	0.79	1.500			
0.4667	29867.20	3.8020	3.8020	1.6434	26.73	0.77	1.500			
0.4717	30187.61	3.7990	3.7990	1.6865	26.72	0.76	1.500			
0.4768	30514.55	3.7960	3.7960	1.7401	26.70	0.74	1.500			
0.4821	30852.74	3.7930	3.7930	1.7798	26.69	0.73	1.500			
0.4874	31196.14	3.7900	3.7900	1.8315	26.67	0.71	1.500			
0.4930	31554.51	3.7870	3.7871	1.8773	26.65	0.69	1.500			
0.4988	31920.76	3.7840	3.7840	1.9251	26.63	0.67	1.500			
0.5046	32294.56	3.7810	3.7811	1.9625	26.61	0.65	1.500			
0.5106	32675.68	3.7780	3.7780	2.0096	26.59	0.63	1.500			
0.5167	33065.92	3.7750	3.7750	2.0267	26.57	0.61	1.500			
0.5228	33459.86	3.7720	3.7721	2.0429	26.56	0.60	1.500			
0.5289	33852.59	3.7690	3.7690	2.0595	26.54	0.58	1.500			
0.5351	34246.91	3.7660	3.7659	2.1007	26.52	0.56	1.500			
0.5415	34654.47	3.7630	3.7630	2.1260	26.50	0.54	1.500			
0.5480	35069.59	3.7600	3.7600	2.1570	26.47	0.51	1.500	0.356	0.453	
0.5546	35491.87	3.7570	3.7571	2.1719	26.45	0.49	1.500			
0.5611	35909.33	3.7540	3.7539	2.1416	26.43	0.47	1.500			
0.5674	36315.58	3.7510	3.7511	2.0854	26.42	0.46	1.500			
0.5736	36713.07	3.7480	3.7480	2.0524	26.40	0.44	1.500			
0.5797	37100.38	3.7450	3.7450	2.0431	26.39	0.43	1.500			
0.5858	37488.29	3.7420	3.7421	2.0555	26.38	0.42	1.500			
0.5920	37886.62	3.7390	3.7391	2.0794	26.36	0.40	1.500			
0.5983	38293.07	3.7360	3.7360	2.1006	26.35	0.39	1.500			
0.6046	38694.79	3.7330	3.7330	2.1055	26.33	0.37	1.500			
0.6109	39097.44	3.7300	3.7300	2.1286	26.31	0.35	1.500			
0.6173	39509.14	3.7270	3.7269	2.1373	26.30	0.34	1.500			
0.6237	39918.52	3.7240	3.7241	2.1877	26.28	0.32	1.500			
0.6303	40340.32	3.7210	3.7210	2.2523	26.27	0.31	1.500			
0.6372	40778.20	3.7180	3.7180	2.3162	26.25	0.29	1.500			
0.6442	41229.83	3.7150	3.7150	2.4024	26.23	0.27	1.500			
0.6516	41704.92	3.7120	3.7121	2.4905	26.22	0.26	1.500			
0.6592	42190.30	3.7090	3.7089	2.5596	26.20	0.24	1.500			
0.6670	42688.54	3.7060	3.7060	2.6145	26.18	0.22	1.500			
0.6750	43199.78	3.7030	3.7030	2.7051	26.17	0.21	1.500			
0.6833	43732.27	3.7000	3.6999	2.7500	26.15	0.19	1.500			
0.6917	44266.56	3.6970	3.6970	2.7677	26.14	0.18	1.500			
0.7000	44801.79	3.6940	3.6940	2.6570	26.12	0.16	1.500			
0.7079	45306.97	3.6910	3.6909	2.5136	26.11	0.15	1.500			
0.7151	45769.35	3.6880	3.6880	2.3031	26.10	0.14	1.500			
0.7217	46188.48	3.6850	3.6850	2.1013	26.09	0.13	1.500			
0.7276	46566.98	3.6820	3.6820	1.9406	26.09	0.13	1.500			
0.7330	46915.05	3.6790	3.6789	1.7811	26.08	0.12	1.500			
0.7381	47237.60	3.6760	3.6760	1.6594	26.07	0.11	1.500			
0.7429	47543.81	3.6730	3.6730	1.5657	26.07	0.11	1.500			
0.7474	47831.08	3.6700	3.6699	1.4790	26.06	0.10	1.500			
0.7516	48104.91	3.6670	3.6670	1.4059	26.06	0.10	1.500			
0.7558	48368.97	3.6640	3.6641	1.3443	26.05	0.09	1.500			
0.7596	48614.49	3.6610	3.6610	1.3011	26.05	0.09	1.500			
0.7634	48858.40	3.6580	3.6580	1.2681	26.04	0.08	1.500			
0.7670	49090.29	3.6550	3.6550	1.2483	26.04	0.08	1.500			
0.7708	49330.66	3.6520	3.6519	1.2419	26.04	0.08	1.500			
0.7745	49566.55	3.6490	3.6491	1.2505	26.03	0.07	1.500			
0.7782	49806.07	3.6460	3.6461	1.2696	26.03	0.07	1.500			
0.7820	50050.74	3.6430	3.6430	1.2894	26.02	0.06	1.500			
0.7859	50299.42	3.6400	3.6400	1.3038	26.01	0.05	1.500			
0.7899	50553.86	3.6370	3.6370	1.3186	26.01	0.05	1.500			
0.7939	50811.89	3.6340	3.6340	1.3147	26.00	0.04	1.500			
0.7980	51070.45	3.6310	3.6310	1.3230	25.99	0.03	1.500			
0.8019	51319.96	3.6280	3.6281	1.3126	25.98	0.02	1.500			
0.8058	51569.96	3.6250	3.6250	1.3098	25.97	0.01	1.500			
0.8097	51818.89	3.6220	3.6220	1.3049	25.96	-0.00	1.500			
0.8136	52069.42	3.6190	3.6190	1.3105	25.96	-0.00	1.500			
0.8176	52323.91	3.6160	3.6160	1.3126	25.95	-0.01	1.500			
0.8215	52575.94	3.6130	3.6130	1.3130	25.95	-0.01	1.500			
0.8254	52827.76	3.6100	3.6101	1.3076	25.95	-0.01	1.500			
0.8294	53079.85	3.6070	3.6070	1.2999	25.94	-0.02	1.500			
0.8333	53329.70	3.6040	3.6040	1.2954	25.94	-0.02	1.500			
0.8372	53578.90	3.6010	3.6011	1.2816	25.94	-0.02	1.500			
0.8410	53823.24	3.5980	3.5980	1.2668	25.94	-0.02	1.500			
0.8448	54069.07	3.5950	3.5950	1.2515	25.94	-0.02	1.500			
0.8485	54305.53	3.5920	3.5920	1.2306	25.93	-0.03	1.500			
0.8522	54538.22	3.5890	3.5890	1.2207	25.93	-0.03	1.500			
0.8558	54770.83	3.5860	3.5860	1.2116	25.93	-0.03	1.500			
0.8593	54998.03	3.5830	3.5829	1.2119	25.93	-0.03	1.500			
0.8630	55232.38	3.5800	3.5800	1.2142	25.94	-0.02	1.500			
0.8667	55470.18	3.5770	3.5769	1.2003	25.94	-0.02	1.500			
0.8704	55706.42	3.5740	3.5740	1.1639	25.94	-0.02	1.500			
0.8741	55940.70	3.5710	3.5710	1.0784	25.95	-0.01	1.500			
0.8773	56145.66	3.5680	3.5681	0.9641	25.95	-0.01	1.500			
0.8801	56327.43	3.5650	3.5652	0.8345	25.96	-0.00	1.500			
0.8824	56471.06	3.5620	3.5619	0.6844	25.96	-0.00	1.500			
0.8841	56580.38	3.5590	3.5589	0.5575	25.96	0.00	1.500			
0.8854	56668.23	3.5560	3.5560	0.4500	25.96	0.00	1.500			
0.8865	56736.77	3.5530	3.5529	0.3691	25.96	0.00	1.500			
0.8875	56797.48	3.5500	3.5499	0.3148	25.96	0.00	1.500			
0.8883	56849.25	3.5470	3.5469	0.2644	25.97	0.01	1.500			
0.8890	56893.85	3.5440	3.5438	0.2333	25.97	0.01	1.500			
0.8896	56933.56	3.5410	3.5410	0.2077	25.97	0.01	1.500			
0.8902	56969.66	3.5380	3.5381	0.1874	25.97	0.01	1.500			
0.8907	57003.42	3.5350	3.5350	0.1694	25.97	0.01	1.500			
0.8912	57033.90	3.5320	3.5320	0.1551	25.97	0.01	1.500			
0.8916	57061.61	3.5290	3.5290	0.1396	25.97	0.01	1.500			
0.8920	57087.21	3.5260	3.5259	0.1252	25.97	0.01	1.500			
0.8923	57109.93	3.5230	3.5230	0.1115	25.97	0.01	1.500			
0.8927	57130.10	3.5200	3.5202	0.0978	25.97	0.01	1.500			
0.8929	57147.99	3.5170	3.5171	0.0841	25.97	0.01	1.500			
0.8932	57162.73	3.5140	3.5142	0.0694	25.97	0.01	1.500			
0.8934	57175.07	3.5110	3.5113	0.0534	25.97	0.01	1.500			
0.8935	57183.80	3.5080	3.5087	0.0375	25.97	0.01	1.500			
