Ah_balance (normalized)	Ah_balance (mAh)	Voltage - fit (V)	Voltage -  interpolate (V)	dQ/dV (1/V)	Temperature (°C)	Temperature - diff (°C)	Current (C)	R_DC 0ms (mOhm)	R_DC 50ms (mOhm)	R_DC 50 ms PEC (mOhm)
0.2037	13039.32	3.9100	3.9099	-0.1183	25.97	-0.01	-1.500			
0.2041	13065.34	3.9070	3.9068	-0.1533	25.97	-0.01	-1.500			
0.2047	13098.43	3.9040	3.9040	-0.1885	25.97	-0.01	-1.500			
0.2053	13138.53	3.9010	3.9010	-0.2217	25.97	-0.01	-1.500			
0.2060	13184.07	3.8980	3.8980	-0.2552	25.97	-0.01	-1.500			
0.2068	13236.29	3.8950	3.8951	-0.2880	25.97	-0.01	-1.500			
0.2077	13294.83	3.8920	3.8920	-0.3220	25.97	-0.01	-1.500			
0.2087	13359.64	3.8890	3.8890	-0.3553	25.98	-0.00	-1.500			
0.2099	13430.94	3.8860	3.8860	-0.3908	25.98	-0.00	-1.500			
0.2111	13509.80	3.8830	3.8830	-0.4241	25.98	-0.00	-1.500			
0.2124	13594.30	3.8800	3.8800	-0.4595	25.98	-0.00	-1.500			
0.2138	13685.51	3.8770	3.8771	-0.4950	25.98	-0.00	-1.500			
0.2154	13784.73	3.8740	3.8739	-0.5276	25.98	0.00	-1.500			
0.2170	13889.75	3.8710	3.8709	-0.5582	25.98	0.00	-1.500			
0.2187	13999.83	3.8680	3.8681	-0.5898	25.98	0.00	-1.500			
0.2206	14116.15	3.8650	3.8651	-0.6180	25.99	0.01	-1.500			
0.2225	14239.41	3.8620	3.8619	-0.6480	25.99	0.01	-1.500			
0.2245	14366.05	3.8590	3.8590	-0.6707	25.99	0.01	-1.500			
0.2265	14497.28	3.8560	3.8561	-0.6953	25.99	0.01	-1.500			
0.2287	14633.79	3.8530	3.8531	-0.7208	25.99	0.01	-1.500			
0.2309	14775.01	3.8500	3.8499	-0.7416	25.99	0.01	-1.500			
0.2331	14920.32	3.8470	3.8470	-0.7547	26.00	0.02	-1.500			
0.2354	15067.89	3.8440	3.8440	-0.7706	26.00	0.02	-1.500			
0.2378	15217.40	3.8410	3.8410	-0.7778	26.00	0.02	-1.500			
0.2401	15368.06	3.8380	3.8380	-0.7892	26.00	0.02	-1.500			
0.2425	15520.47	3.8350	3.8350	-0.7940	26.01	0.03	-1.500			
0.2449	15672.36	3.8320	3.8319	-0.8016	26.01	0.03	-1.500			
0.2473	15827.44	3.8290	3.8290	-0.8077	26.01	0.03	-1.500			
0.2498	15985.43	3.8260	3.8261	-0.8156	26.02	0.04	-1.500			
0.2522	16142.49	3.8230	3.8229	-0.8211	26.02	0.04	-1.500			
0.2547	16301.42	3.8200	3.8201	-0.8245	26.02	0.04	-1.500			
0.2572	16457.95	3.8170	3.8170	-0.8266	26.03	0.05	-1.500			
0.2597	16618.20	3.8140	3.8140	-0.8309	26.03	0.05	-1.500			
0.2621	16777.53	3.8110	3.8110	-0.8324	26.04	0.06	-1.500			
0.2647	16938.05	3.8080	3.8080	-0.8375	26.04	0.06	-1.500			
0.2672	17100.19	3.8050	3.8050	-0.8415	26.05	0.07	-1.500			
0.2697	17260.88	3.8020	3.8020	-0.8433	26.06	0.08	-1.500			
0.2722	17423.16	3.7990	3.7990	-0.8486	26.07	0.09	-1.500			
0.2748	17587.23	3.7960	3.7960	-0.8479	26.07	0.09	-1.500			
0.2774	17751.47	3.7930	3.7930	-0.8480	26.08	0.10	-1.500			
0.2799	17912.40	3.7900	3.7901	-0.8550	26.09	0.11	-1.500			
0.2825	18077.28	3.7870	3.7870	-0.8591	26.10	0.12	-1.500			
0.2850	18243.14	3.7840	3.7839	-0.8604	26.11	0.13	-1.500			
0.2876	18407.72	3.7810	3.7809	-0.8660	26.11	0.13	-1.500			
0.2902	18574.77	3.7780	3.7781	-0.8703	26.12	0.14	-1.500			
0.2929	18745.10	3.7750	3.7749	-0.8694	26.13	0.15	-1.500			
0.2955	18912.40	3.7720	3.7720	-0.8683	26.14	0.16	-1.500			
0.2981	19075.64	3.7690	3.7691	-0.8605	26.14	0.16	-1.500			
0.3007	19241.65	3.7660	3.7661	-0.8667	26.15	0.17	-1.500			
0.3032	19407.93	3.7630	3.7628	-0.8693	26.16	0.18	-1.500			
0.3058	19573.16	3.7600	3.7599	-0.8710	26.17	0.19	-1.500			
0.3085	19742.78	3.7570	3.7570	-0.8757	26.17	0.19	-1.500			
0.3111	19912.72	3.7540	3.7541	-0.8783	26.18	0.20	-1.500			
0.3138	20082.12	3.7510	3.7510	-0.8779	26.19	0.21	-1.500			
0.3164	20250.48	3.7480	3.7480	-0.8820	26.20	0.22	-1.500			
0.3190	20418.31	3.7450	3.7450	-0.8777	26.20	0.22	-1.500			
0.3217	20587.17	3.7420	3.7419	-0.8815	26.21	0.23	-1.500			
0.3243	20757.44	3.7390	3.7390	-0.8822	26.22	0.24	-1.500			
0.3270	20927.35	3.7360	3.7360	-0.8886	26.23	0.25	-1.500			
0.3296	21097.22	3.7330	3.7331	-0.8894	26.23	0.25	-1.500			
0.3323	21267.72	3.7300	3.7299	-0.8924	26.24	0.26	-1.500			
0.3350	21439.67	3.7270	3.7270	-0.8923	26.25	0.27	-1.500			
0.3377	21613.85	3.7240	3.7240	-0.8918	26.26	0.28	-1.500			
0.3404	21783.71	3.7210	3.7211	-0.8884	26.26	0.28	-1.500			
0.3431	21955.70	3.7180	3.7181	-0.8885	26.27	0.29	-1.500			
0.3457	22124.08	3.7150	3.7150	-0.8862	26.28	0.30	-1.500			
0.3483	22292.05	3.7120	3.7119	-0.8899	26.29	0.31	-1.500			
0.3510	22462.85	3.7090	3.7090	-0.8974	26.29	0.31	-1.500			
0.3537	22637.44	3.7060	3.7059	-0.9050	26.30	0.32	-1.500			
0.3565	22813.07	3.7030	3.7030	-0.9057	26.31	0.33	-1.500			
0.3592	22987.64	3.7000	3.7000	-0.9089	26.32	0.34	-1.500			
0.3619	23162.98	3.6970	3.6971	-0.9100	26.32	0.34	-1.500			
0.3646	23335.12	3.6940	3.6940	-0.9143	26.33	0.35	-1.500			
0.3673	23510.17	3.6910	3.6910	-0.9221	26.34	0.36	-1.500			
0.3701	23687.28	3.6880	3.6880	-0.9299	26.34	0.36	-1.500			
0.3729	23868.39	3.6850	3.6850	-0.9386	26.35	0.37	-1.500			
0.3758	24049.27	3.6820	3.6820	-0.9597	26.35	0.37	-1.500			
0.3786	24233.33	3.6790	3.6790	-0.9739	26.36	0.38	-1.500			
0.3816	24422.61	3.6760	3.6760	-0.9839	26.36	0.38	-1.500			
0.3846	24611.55	3.6730	3.6730	-0.9971	26.37	0.39	-1.500			
0.3876	24805.52	3.6700	3.6701	-1.0121	26.38	0.40	-1.500			
0.3907	25002.13	3.6670	3.6669	-1.0247	26.38	0.40	-1.500			
0.3937	25199.61	3.6640	3.6640	-1.0398	26.39	0.41	-1.500			
0.3968	25396.78	3.6610	3.6610	-1.0523	26.39	0.41	-1.500			
0.4000	25599.64	3.6580	3.6581	-1.0797	26.40	0.42	-1.500			
0.4033	25811.92	3.6550	3.6549	-1.1101	26.40	0.42	-1.500			
0.4067	26026.85	3.6520	3.6519	-1.1323	26.41	0.43	-1.500			
0.4101	26247.79	3.6490	3.6490	-1.1603	26.41	0.43	-1.500			
0.4137	26473.82	3.6460	3.6461	-1.1879	26.42	0.44	-1.500			
0.4173	26704.14	3.6430	3.6428	-1.2096	26.42	0.44	-1.500			
0.4209	26935.73	3.6400	3.6400	-1.2352	26.43	0.45	-1.500			
0.4246	27173.66	3.6370	3.6370	-1.2666	26.43	0.45	-1.500			
0.4284	27420.65	3.6340	3.6340	-1.2899	26.43	0.45	-1.500			
0.4324	27674.82	3.6310	3.6310	-1.3194	26.43	0.45	-1.500			
0.4364	27927.84	3.6280	3.6281	-1.3521	26.44	0.46	-1.500			
0.4405	28189.54	3.6250	3.6250	-1.3846	26.44	0.46	-1.500			
0.4447	28458.78	3.6220	3.6220	-1.4181	26.44	0.46	-1.500			
0.4489	28732.02	3.6190	3.6190	-1.4561	26.44	0.46	-1.500			
0.4534	29019.30	3.6160	3.6161	-1.4945	26.44	0.46	-1.500			
0.4580	29313.01	3.6130	3.6129	-1.5291	26.44	0.46	-1.500			
0.4626	29609.37	3.6100	3.6099	-1.5557	26.44	0.46	-1.500			
0.4673	29907.60	3.6070	3.6070	-1.5843	26.44	0.46	-1.500			
0.4721	30212.96	3.6040	3.6039	-1.6185	26.44	0.46	-1.500			
0.4770	30527.28	3.6010	3.6010	-1.6434	26.44	0.46	-1.500			
0.4819	30843.03	3.5980	3.5981	-1.6711	26.44	0.46	-1.500			
0.4871	31173.95	3.5950	3.5950	-1.7104	26.44	0.46	-1.500			
0.4923	31504.05	3.5920	3.5919	-1.7342	26.44	0.46	-1.500			
0.4975	31836.98	3.5890	3.5890	-1.7640	26.43	0.45	-1.500			
0.5028	32177.73	3.5860	3.5861	-1.7892	26.43	0.45	-1.500			
0.5082	32526.01	3.5830	3.5829	-1.8175	26.42	0.44	-1.500			
0.5137	32879.51	3.5800	3.5799	-1.8525	26.42	0.44	-1.500			
0.5193	33235.03	3.5770	3.5770	-1.8820	26.41	0.43	-1.500			
0.5250	33602.70	3.5740	3.5740	-1.9059	26.41	0.43	-1.500			
0.5308	33968.69	3.5710	3.5710	-1.9245	26.40	0.42	-1.500			
0.5366	34340.12	3.5680	3.5680	-1.9528	26.39	0.41	-1.500			
0.5425	34717.62	3.5650	3.5649	-1.9825	26.39	0.41	-1.500			
0.5484	35098.63	3.5620	3.5620	-2.0283	26.38	0.40	-1.500			
0.5546	35492.42	3.5590	3.5590	-2.0356	26.38	0.40	-1.500			
0.5608	35888.02	3.5560	3.5560	-2.0573	26.37	0.39	-1.500			
0.5670	36286.49	3.5530	3.5530	-2.0725	26.37	0.39	-1.500	0.393	0.497	
0.5732	36685.17	3.5500	3.5498	-2.0766	26.36	0.38	-1.500			
0.5794	37080.73	3.5470	3.5470	-2.0944	26.36	0.38	-1.500			
0.5857	37484.53	3.5440	3.5440	-2.1285	26.35	0.37	-1.500			
0.5921	37893.70	3.5410	3.5410	-2.1467	26.35	0.37	-1.500			
0.5986	38307.84	3.5380	3.5381	-2.1502	26.35	0.37	-1.500			
0.6051	38725.61	3.5350	3.5350	-2.1393	26.34	0.36	-1.500			
0.6115	39134.59	3.5320	3.5320	-2.1322	26.34	0.36	-1.500			
0.6179	39543.37	3.5290	3.5290	-2.1173	26.34	0.36	-1.500			
0.6242	39951.18	3.5260	3.5259	-2.0958	26.33	0.35	-1.500			
0.6305	40351.40	3.5230	3.5231	-2.0695	26.33	0.35	-1.500			
0.6367	40746.88	3.5200	3.5200	-2.0378	26.32	0.34	-1.500			
0.6428	41141.15	3.5170	3.5169	-2.0181	26.32	0.34	-1.500			
0.6487	41519.55	3.5140	3.5140	-1.9893	26.32	0.34	-1.500			
0.6547	41898.19	3.5110	3.5109	-1.9629	26.32	0.34	-1.500			
0.6605	42274.55	3.5080	3.5080	-1.9423	26.32	0.34	-1.500			
0.6663	42643.74	3.5050	3.5051	-1.9216	26.32	0.34	-1.500			
0.6721	43015.07	3.5020	3.5020	-1.9172	26.33	0.35	-1.500			
0.6779	43383.77	3.4990	3.4989	-1.8834	26.33	0.35	-1.500			
0.6835	43740.81	3.4960	3.4959	-1.8536	26.34	0.36	-1.500			
0.6890	44095.71	3.4930	3.4934	-1.8317	26.34	0.36	-1.500			
0.6944	44444.58	3.4900	3.4899	-1.8121	26.35	0.37	-1.500			
0.6999	44790.85	3.4870	3.4869	-1.7922	26.36	0.38	-1.500			
0.7051	45129.15	3.4840	3.4840	-1.7595	26.37	0.39	-1.500			
0.7105	45471.85	3.4810	3.4809	-1.7523	26.37	0.39	-1.500			
0.7157	45806.05	3.4780	3.4781	-1.7165	26.38	0.40	-1.500			
0.7208	46129.43	3.4750	3.4750	-1.6817	26.39	0.41	-1.500			
0.7258	46448.22	3.4720	3.4719	-1.6542	26.40	0.42	-1.500			
0.7306	46757.10	3.4690	3.4691	-1.6176	26.41	0.43	-1.500			
0.7355	47070.77	3.4660	3.4660	-1.6038	26.41	0.43	-1.500			
0.7403	47376.79	3.4630	3.4630	-1.5787	26.42	0.44	-1.500			
0.7450	47677.40	3.4600	3.4599	-1.5547	26.43	0.45	-1.500			
0.7496	47972.13	3.4570	3.4570	-1.5366	26.44	0.46	-1.500			
0.7541	48265.59	3.4540	3.4539	-1.5098	26.45	0.47	-1.500			
0.7586	48551.47	3.4510	3.4510	-1.4944	26.46	0.48	-1.500			
0.7631	48837.47	3.4480	3.4480	-1.4816	26.47	0.49	-1.500			
0.7675	49120.01	3.4450	3.4449	-1.4731	26.48	0.50	-1.500			
0.7719	49400.92	3.4420	3.4419	-1.4617	26.50	0.52	-1.500			
0.7762	49678.46	3.4390	3.4390	-1.4556	26.51	0.53	-1.500			
0.7806	49958.56	3.4360	3.4360	-1.4426	26.53	0.55	-1.500			
0.7850	50239.88	3.4330	3.4329	-1.4409	26.54	0.56	-1.500			
0.7893	50513.17	3.4300	3.4302	-1.4244	26.56	0.58	-1.500			
0.7935	50784.33	3.4270	3.4269	-1.4147	26.58	0.60	-1.500			
0.7977	51054.46	3.4240	3.4240	-1.4058	26.60	0.62	-1.500			
0.8019	51323.57	3.4210	3.4210	-1.3926	26.62	0.64	-1.500			
0.8062	51595.07	3.4180	3.4179	-1.3836	26.64	0.66	-1.500			
0.8103	51860.20	3.4150	3.4151	-1.3579	26.66	0.68	-1.500			
0.8144	52119.56	3.4120	3.4119	-1.3273	26.67	0.69	-1.500			
0.8183	52371.76	3.4090	3.4090	-1.2902	26.69	0.71	-1.500			
0.8221	52616.01	3.4060	3.4060	-1.2436	26.71	0.73	-1.500			
0.8258	52850.66	3.4030	3.4030	-1.2020	26.72	0.74	-1.500			
0.8293	53076.52	3.4000	3.4000	-1.1656	26.74	0.76	-1.500			
0.8328	53297.37	3.3970	3.3970	-1.1279	26.75	0.77	-1.500			
0.8361	53510.22	3.3940	3.3939	-1.0887	26.77	0.79	-1.500			
0.8393	53717.10	3.3910	3.3911	-1.0417	26.78	0.80	-1.500			
0.8424	53915.49	3.3880	3.3881	-0.9994	26.80	0.82	-1.500			
0.8454	54103.46	3.3850	3.3849	-0.9504	26.81	0.83	-1.500			
0.8481	54278.17	3.3820	3.3820	-0.9004	26.83	0.85	-1.500			
0.8507	54442.71	3.3790	3.3790	-0.8541	26.84	0.86	-1.500			
0.8532	54602.56	3.3760	3.3760	-0.8200	26.85	0.87	-1.500			
0.8556	54756.27	3.3730	3.3729	-0.7874	26.86	0.88	-1.500			
0.8579	54905.26	3.3700	3.3700	-0.7609	26.88	0.90	-1.500			
0.8601	55048.30	3.3670	3.3670	-0.7303	26.88	0.90	-1.500			
0.8623	55185.08	3.3640	3.3640	-0.7051	26.89	0.91	-1.500			
0.8643	55315.98	3.3610	3.3610	-0.6786	26.90	0.92	-1.500			
0.8663	55445.11	3.3580	3.3579	-0.6558	26.91	0.93	-1.500			
0.8683	55568.67	3.3550	3.3550	-0.6339	26.92	0.94	-1.500			
0.8701	55688.35	3.3520	3.3521	-0.6121	26.93	0.95	-1.500			
0.8719	55803.63	3.3490	3.3491	-0.5909	26.94	0.96	-1.500			
0.8737	55915.16	3.3460	3.3459	-0.5718	26.95	0.97	-1.500			
0.8753	56020.89	3.3430	3.3431	-0.5495	26.96	0.98	-1.500			
0.8770	56125.20	3.3400	3.3400	-0.5331	26.97	0.99	-1.500			
0.8785	56226.96	3.3370	3.3370	-0.5180	26.97	0.99	-1.500			
0.8801	56324.35	3.3340	3.3340	-0.4985	26.98	1.00	-1.500			
0.8815	56418.33	3.3310	3.3311	-0.4812	26.99	1.01	-1.500			
0.8830	56508.89	3.3280	3.3280	-0.4631	27.00	1.02	-1.500			
0.8843	56595.02	3.3250	3.3251	-0.4456	27.00	1.02	-1.500			
0.8856	56679.13	3.3220	3.3219	-0.4295	27.01	1.03	-1.500			
0.8869	56759.96	3.3190	3.3190	-0.4151	27.01	1.03	-1.500			
0.8881	56837.98	3.3160	3.3159	-0.4002	27.02	1.04	-1.500			
0.8893	56913.08	3.3130	3.3132	-0.3870	27.02	1.04	-1.500			
0.8904	56986.07	3.3100	3.3100	-0.3748	27.03	1.05	-1.500			
0.8915	57056.65	3.3070	3.3069	-0.3639	27.03	1.05	-1.500			
0.8926	57125.59	3.3040	3.3039	-0.3516	27.04	1.06	-1.500			
0.8936	57191.96	3.3010	3.3010	-0.3405	27.04	1.06	-1.500			
0.8946	57256.06	3.2980	3.2980	-0.3286	27.05	1.07	-1.500			
0.8956	57318.29	3.2950	3.2951	-0.3179	27.06	1.08	-1.500			
0.8965	57378.07	3.2920	3.2920	-0.3063	27.06	1.08	-1.500			
0.8974	57435.44	3.2890	3.2890	-0.2944	27.07	1.09	-1.500			
0.8983	57490.81	3.2860	3.2859	-0.2844	27.07	1.09	-1.500			
0.8991	57544.30	3.2830	3.2831	-0.2762	27.08	1.10	-1.500			
0.8999	57596.18	3.2800	3.2800	-0.2662	27.08	1.10	-1.500			
0.9007	57646.43	3.2770	3.2769	-0.2576	27.08	1.10	-1.500			
0.9015	57695.08	3.2740	3.2740	-0.2495	27.09	1.11	-1.500			
0.9022	57741.77	3.2710	3.2711	-0.2405	27.09	1.11	-1.500			
0.9029	57787.57	3.2680	3.2680	-0.2333	27.10	1.12	-1.500			
0.9036	57831.75	3.2650	3.2650	-0.2253	27.10	1.12	-1.500			
0.9043	57873.74	3.2620	3.2620	-0.2178	27.10	1.12	-1.500			
0.9049	57914.26	3.2590	3.2590	-0.2109	27.11	1.13	-1.500			
0.9055	57954.21	3.2560	3.2560	-0.2055	27.11	1.13	-1.500			
0.9061	57993.06	3.2530	3.2530	-0.2002	27.11	1.13	-1.500			
0.9067	58030.71	3.2500	3.2500	-0.1946	27.12	1.14	-1.500			
0.9073	58067.71	3.2470	3.2470	-0.1895	27.12	1.14	-1.500			
0.9079	58103.79	3.2440	3.2440	-0.1845	27.13	1.15	-1.500			
0.9084	58138.55	3.2410	3.2410	-0.1792	27.13	1.15	-1.500			
0.9089	58172.39	3.2380	3.2380	-0.1738	27.13	1.15	-1.500			
0.9095	58205.05	3.2350	3.2350	-0.1691	27.14	1.16	-1.500			
0.9100	58236.98	3.2320	3.2320	-0.1645	27.14	1.16	-1.500			
0.9104	58268.00	3.2290	3.2290	-0.1600	27.14	1.16	-1.500			
0.9109	58298.38	3.2260	3.2259	-0.1557	27.15	1.17	-1.500			
0.9114	58327.77	3.2230	3.2230	-0.1523	27.15	1.17	-1.500			
0.9118	58356.47	3.2200	3.2200	-0.1490	27.15	1.17	-1.500			
0.9123	58384.78	3.2170	3.2170	-0.1459	27.16	1.18	-1.500			
0.9127	58412.33	3.2140	3.2139	-0.1425	27.16	1.18	-1.500			
0.9131	58439.32	3.2110	3.2110	-0.1394	27.16	1.18	-1.500			
0.9135	58465.92	3.2080	3.2080	-0.1368	27.17	1.19	-1.500			
0.9139	58491.89	3.2050	3.2051	-0.1338	27.17	1.19	-1.500			
0.9143	58517.36	3.2020	3.2020	-0.1310	27.17	1.19	-1.500			
0.9147	58542.09	3.1990	3.1990	-0.1278	27.17	1.19	-1.500			
0.9151	58566.22	3.1960	3.1961	-0.1249	27.18	1.20	-1.500			
0.9155	58589.95	3.1930	3.1929	-0.1223	27.18	1.20	-1.500			
0.9158	58613.11	3.1900	3.1901	-0.1202	27.19	1.21	-1.500			
0.9162	58635.81	3.1870	3.1869	-0.1177	27.19	1.21	-1.500			
0.9165	58658.23	3.1840	3.1839	-0.1157	27.19	1.21	-1.500			
0.9169	58680.17	3.1810	3.1810	-0.1135	27.19	1.21	-1.500			
0.9172	58701.77	3.1780	3.1780	-0.1117	27.20	1.22	-1.500			
0.9175	58723.03	3.1750	3.1750	-0.1098	27.20	1.22	-1.500			
0.9179	58743.85	3.1720	3.1719	-0.1082	27.20	1.22	-1.500			
0.9182	58764.43	3.1690	3.1690	-0.1065	27.21	1.23	-1.500			
0.9185	58784.73	3.1660	3.1661	-0.1049	27.21	1.23	-1.500			
0.9188	58804.60	3.1630	3.1628	-0.1032	27.21	1.23	-1.500			
0.9191	58824.35	3.1600	3.1600	-0.1014	27.22	1.24	-1.500			
0.9194	58843.79	3.1570	3.1571	-0.1000	27.22	1.24	-1.500			
0.9197	58862.73	3.1540	3.1540	-0.0984	27.22	1.24	-1.500			
0.9200	58881.47	3.1510	3.1511	-0.0968	27.22	1.24	-1.500			
0.9203	58899.81	3.1480	3.1479	-0.0956	27.23	1.25	-1.500			
0.9206	58917.84	3.1450	3.1449	-0.0940	27.23	1.25	-1.500			
0.9209	58935.86	3.1420	3.1421	-0.0926	27.23	1.25	-1.500			
0.9211	58953.51	3.1390	3.1390	-0.0914	27.23	1.25	-1.500			
0.9214	58970.90	3.1360	3.1360	-0.0902	27.24	1.26	-1.500			
0.9217	58988.19	3.1330	3.1330	-0.0892	27.24	1.26	-1.500			
0.9220	59005.17	3.1300	3.1300	-0.0879	27.24	1.26	-1.500			
0.9222	59021.89	3.1270	3.1270	-0.0866	27.24	1.26	-1.500			
0.9225	59038.39	3.1240	3.1240	-0.0853	27.25	1.27	-1.500			
0.9227	59054.57	3.1210	3.1211	-0.0842	27.25	1.27	-1.500			
0.9230	59070.64	3.1180	3.1180	-0.0832	27.25	1.27	-1.500			
0.9232	59086.46	3.1150	3.1150	-0.0824	27.25	1.27	-1.500			
0.9235	59102.20	3.1120	3.1119	-0.0815	27.26	1.28	-1.500			
0.9237	59117.59	3.1090	3.1090	-0.0805	27.26	1.28	-1.500			
0.9240	59133.08	3.1060	3.1060	-0.0796	27.26	1.28	-1.500			
0.9242	59148.36	3.1030	3.1029	-0.0789	27.26	1.28	-1.500			
0.9244	59163.42	3.1000	3.1001	-0.0780	27.26	1.28	-1.500			
0.9247	59178.30	3.0970	3.0971	-0.0773	27.27	1.29	-1.500			
0.9249	59193.08	3.0940	3.0940	-0.0765	27.27	1.29	-1.500			
0.9251	59207.61	3.0910	3.0909	-0.0757	27.27	1.29	-1.500			
0.9253	59222.08	3.0880	3.0880	-0.0750	27.27	1.29	-1.500			
0.9256	59236.25	3.0850	3.0850	-0.0741	27.27	1.29	-1.500			
0.9258	59250.47	3.0820	3.0820	-0.0734	27.28	1.30	-1.500			
0.9260	59264.55	3.0790	3.0790	-0.0728	27.28	1.30	-1.500			
0.9262	59278.47	3.0760	3.0760	-0.0721	27.28	1.30	-1.500			
0.9264	59292.24	3.0730	3.0731	-0.0714	27.28	1.30	-1.500			
0.9267	59305.90	3.0700	3.0699	-0.0707	27.28	1.30	-1.500			
0.9269	59319.40	3.0670	3.0670	-0.0700	27.29	1.31	-1.500			
0.9271	59332.76	3.0640	3.0640	-0.0693	27.29	1.31	-1.500			
0.9273	59345.98	3.0610	3.0610	-0.0685	27.29	1.31	-1.500			
0.9275	59358.99	3.0580	3.0581	-0.0680	27.29	1.31	-1.500			
0.9277	59372.00	3.0550	3.0550	-0.0675	27.29	1.31	-1.500			
0.9279	59384.84	3.0520	3.0518	-0.0669	27.30	1.32	-1.500			
0.9281	59397.64	3.0490	3.0490	-0.0664	27.30	1.32	-1.500			
0.9283	59410.30	3.0460	3.0461	-0.0658	27.30	1.32	-1.500			
0.9285	59422.89	3.0430	3.0431	-0.0654	27.30	1.32	-1.500			
0.9287	59435.40	3.0400	3.0401	-0.0649	27.30	1.32	-1.500			
0.9289	59447.85	3.0370	3.0369	-0.0645	27.31	1.33	-1.500			
0.9291	59460.19	3.0340	3.0339	-0.0640	27.31	1.33	-1.500			
0.9293	59472.44	3.0310	3.0310	-0.0634	27.31	1.33	-1.500			
0.9294	59484.56	3.0280	3.0280	-0.0629	27.31	1.33	-1.500			
0.9296	59496.58	3.0250	3.0251	-0.0624	27.31	1.33	-1.500			
0.9298	59508.51	3.0220	3.0219	-0.0618	27.31	1.33	-1.500			
0.9300	59520.30	3.0190	3.0191	-0.0615	27.32	1.34	-1.500			
0.9302	59532.07	3.0160	3.0159	-0.0611	27.32	1.34	-1.500			
0.9304	59543.76	3.0130	3.0131	-0.0607	27.32	1.34	-1.500			
0.9306	59555.24	3.0100	3.0100	-0.0604	27.32	1.34	-1.500			
0.9307	59566.83	3.0070	3.0069	-0.0602	27.32	1.34	-1.500			
0.9309	59578.37	3.0040	3.0041	-0.0601	27.32	1.34	-1.500			
