Ah_balance (normalized)	Ah_balance (mAh)	Voltage - fit (V)	Voltage -  interpolate (V)	dQ/dV (1/V)	Temperature (°C)	Temperature - diff (°C)	Current (C)	R_DC 0ms (mOhm)	R_DC 50ms (mOhm)	R_DC 50 ms PEC (mOhm)
0.2026	12968.17	3.9140	3.9137	-0.1023	25.72	0.00	-1.500			
0.2030	12990.43	3.9110	3.9108	-0.1325	25.72	0.00	-1.500			
0.2034	13019.24	3.9080	3.9080	-0.1654	25.72	0.00	-1.500			
0.2040	13054.56	3.9050	3.9051	-0.1963	25.72	0.00	-1.500			
0.2046	13095.90	3.9020	3.9019	-0.2239	25.72	0.00	-1.500			
0.2053	13142.11	3.8990	3.8991	-0.2538	25.72	0.00	-1.500			
0.2061	13193.38	3.8960	3.8961	-0.2806	25.72	0.00	-1.500			
0.2070	13249.82	3.8930	3.8930	-0.3078	25.72	0.00	-1.500			
0.2080	13311.77	3.8900	3.8900	-0.3344	25.72	0.00	-1.500			
0.2090	13377.88	3.8870	3.8870	-0.3618	25.72	0.00	-1.500			
0.2102	13450.31	3.8840	3.8840	-0.3896	25.72	0.00	-1.500			
0.2114	13527.88	3.8810	3.8810	-0.4162	25.72	0.00	-1.500			
0.2127	13610.42	3.8780	3.8780	-0.4417	25.72	0.00	-1.500			
0.2140	13697.43	3.8750	3.8751	-0.4701	25.72	0.00	-1.500			
0.2155	13790.46	3.8720	3.8720	-0.4984	25.72	0.00	-1.500			
0.2170	13889.98	3.8690	3.8689	-0.5215	25.72	0.00	-1.500			
0.2186	13992.52	3.8660	3.8660	-0.5433	25.72	0.00	-1.500			
0.2203	14099.84	3.8630	3.8631	-0.5657	25.72	0.00	-1.500			
0.2220	14210.56	3.8600	3.8600	-0.5849	25.72	0.00	-1.500			
0.2238	14325.05	3.8570	3.8570	-0.6021	25.72	0.00	-1.500			
0.2257	14441.85	3.8540	3.8540	-0.6167	25.72	0.00	-1.500			
0.2275	14562.45	3.8510	3.8510	-0.6332	25.72	0.00	-1.500			
0.2295	14686.61	3.8480	3.8480	-0.6480	25.72	0.00	-1.500			
0.2314	14812.14	3.8450	3.8449	-0.6593	25.72	0.00	-1.500			
0.2334	14939.88	3.8420	3.8420	-0.6694	25.72	0.00	-1.500			
0.2355	15069.61	3.8390	3.8390	-0.6789	25.72	0.00	-1.500			
0.2375	15201.44	3.8360	3.8360	-0.6865	25.72	0.00	-1.500			
0.2396	15335.24	3.8330	3.8330	-0.6923	25.73	0.01	-1.500			
0.2417	15468.46	3.8300	3.8300	-0.6967	25.73	0.01	-1.500			
0.2438	15602.26	3.8270	3.8270	-0.7030	25.73	0.01	-1.500			
0.2459	15737.36	3.8240	3.8240	-0.7075	25.73	0.01	-1.500			
0.2480	15874.21	3.8210	3.8210	-0.7111	25.74	0.02	-1.500			
0.2502	16011.54	3.8180	3.8179	-0.7160	25.74	0.02	-1.500			
0.2523	16149.16	3.8150	3.8151	-0.7222	25.74	0.02	-1.500			
0.2545	16289.78	3.8120	3.8120	-0.7258	25.74	0.02	-1.500			
0.2567	16428.78	3.8090	3.8090	-0.7252	25.75	0.03	-1.500			
0.2589	16567.94	3.8060	3.8059	-0.7253	25.75	0.03	-1.500			
0.2611	16707.50	3.8030	3.8031	-0.7288	25.75	0.03	-1.500			
0.2633	16848.40	3.8000	3.7999	-0.7288	25.76	0.04	-1.500			
0.2654	16987.59	3.7970	3.7970	-0.7255	25.76	0.04	-1.500			
0.2676	17126.47	3.7940	3.7940	-0.7247	25.76	0.04	-1.500			
0.2698	17266.94	3.7910	3.7911	-0.7289	25.77	0.05	-1.500			
0.2720	17406.75	3.7880	3.7879	-0.7272	25.77	0.05	-1.500			
0.2741	17544.92	3.7850	3.7850	-0.7278	25.77	0.05	-1.500			
0.2763	17684.55	3.7820	3.7820	-0.7312	25.78	0.06	-1.500			
0.2785	17826.36	3.7790	3.7790	-0.7370	25.78	0.06	-1.500			
0.2808	17968.68	3.7760	3.7759	-0.7341	25.78	0.06	-1.500			
0.2830	18109.67	3.7730	3.7730	-0.7312	25.79	0.07	-1.500			
0.2851	18249.46	3.7700	3.7701	-0.7317	25.79	0.07	-1.500			
0.2873	18390.09	3.7670	3.7670	-0.7308	25.80	0.08	-1.500			
0.2895	18529.16	3.7640	3.7640	-0.7287	25.80	0.08	-1.500			
0.2917	18668.71	3.7610	3.7610	-0.7310	25.81	0.09	-1.500			
0.2939	18809.48	3.7580	3.7581	-0.7318	25.82	0.10	-1.500			
0.2961	18951.42	3.7550	3.7549	-0.7314	25.82	0.10	-1.500			
0.2983	19091.49	3.7520	3.7521	-0.7324	25.83	0.11	-1.500			
0.3005	19231.59	3.7490	3.7490	-0.7317	25.83	0.11	-1.500			
0.3027	19372.05	3.7460	3.7460	-0.7361	25.84	0.12	-1.500			
0.3049	19513.52	3.7430	3.7429	-0.7379	25.85	0.13	-1.500			
0.3071	19655.00	3.7400	3.7400	-0.7392	25.85	0.13	-1.500			
0.3093	19798.06	3.7370	3.7371	-0.7410	25.86	0.14	-1.500			
0.3116	19941.07	3.7340	3.7340	-0.7452	25.86	0.14	-1.500			
0.3138	20082.92	3.7310	3.7310	-0.7479	25.87	0.15	-1.500			
0.3160	20226.41	3.7280	3.7280	-0.7490	25.88	0.16	-1.500			
0.3183	20370.18	3.7250	3.7250	-0.7505	25.88	0.16	-1.500			
0.3206	20515.31	3.7220	3.7220	-0.7554	25.89	0.17	-1.500			
0.3228	20660.30	3.7190	3.7190	-0.7607	25.89	0.17	-1.500			
0.3251	20806.11	3.7160	3.7160	-0.7678	25.90	0.18	-1.500			
0.3274	20954.10	3.7130	3.7129	-0.7717	25.90	0.18	-1.500			
0.3297	21102.38	3.7100	3.7100	-0.7768	25.91	0.19	-1.500			
0.3321	21252.55	3.7070	3.7070	-0.7892	25.91	0.19	-1.500			
0.3345	21405.15	3.7040	3.7041	-0.7989	25.92	0.20	-1.500			
0.3369	21559.45	3.7010	3.7009	-0.8054	25.92	0.20	-1.500			
0.3393	21714.37	3.6980	3.6980	-0.8123	25.93	0.21	-1.500			
0.3417	21871.14	3.6950	3.6951	-0.8234	25.93	0.21	-1.500			
0.3442	22030.46	3.6920	3.6920	-0.8327	25.94	0.22	-1.500			
0.3467	22190.83	3.6890	3.6889	-0.8426	25.94	0.22	-1.500			
0.3493	22352.74	3.6860	3.6860	-0.8512	25.94	0.22	-1.500			
0.3518	22516.64	3.6830	3.6830	-0.8665	25.95	0.23	-1.500			
0.3545	22685.01	3.6800	3.6800	-0.8793	25.95	0.23	-1.500			
0.3571	22855.07	3.6770	3.6770	-0.8927	25.96	0.24	-1.500			
0.3598	23027.86	3.6740	3.6741	-0.9023	25.96	0.24	-1.500			
0.3625	23202.85	3.6710	3.6710	-0.9169	25.96	0.24	-1.500			
0.3653	23379.72	3.6680	3.6680	-0.9290	25.97	0.25	-1.500			
0.3681	23557.41	3.6650	3.6650	-0.9467	25.97	0.25	-1.500			
0.3709	23740.19	3.6620	3.6620	-0.9636	25.98	0.26	-1.500			
0.3739	23927.22	3.6590	3.6590	-0.9857	25.98	0.26	-1.500			
0.3769	24119.59	3.6560	3.6559	-1.0024	25.99	0.27	-1.500			
0.3799	24314.67	3.6530	3.6531	-1.0215	25.99	0.27	-1.500			
0.3830	24510.77	3.6500	3.6500	-1.0424	26.00	0.28	-1.500			
0.3861	24713.03	3.6470	3.6470	-1.0624	26.00	0.28	-1.500			
0.3893	24918.00	3.6440	3.6440	-1.0777	26.01	0.29	-1.500			
0.3926	25128.24	3.6410	3.6410	-1.1002	26.01	0.29	-1.500			
0.3960	25341.08	3.6380	3.6381	-1.1234	26.02	0.30	-1.500			
0.3994	25559.73	3.6350	3.6350	-1.1461	26.02	0.30	-1.500			
0.4028	25779.91	3.6320	3.6319	-1.1644	26.03	0.31	-1.500			
0.4063	26004.44	3.6290	3.6289	-1.1879	26.03	0.31	-1.500			
0.4099	26235.73	3.6260	3.6262	-1.2128	26.04	0.32	-1.500			
0.4136	26471.31	3.6230	3.6229	-1.2357	26.04	0.32	-1.500			
0.4174	26710.77	3.6200	3.6201	-1.2617	26.04	0.32	-1.500			
0.4212	26954.49	3.6170	3.6170	-1.2907	26.04	0.32	-1.500			
0.4251	27205.09	3.6140	3.6140	-1.3164	26.05	0.33	-1.500			
0.4291	27461.57	3.6110	3.6109	-1.3370	26.05	0.33	-1.500			
0.4331	27721.26	3.6080	3.6081	-1.3568	26.05	0.33	-1.500			
0.4373	27984.01	3.6050	3.6050	-1.3776	26.05	0.33	-1.500			
0.4414	28250.06	3.6020	3.6019	-1.3982	26.05	0.33	-1.500			
0.4456	28519.15	3.5990	3.5990	-1.4220	26.05	0.33	-1.500			
0.4499	28790.54	3.5960	3.5960	-1.4430	26.06	0.34	-1.500			
0.4543	29073.31	3.5930	3.5930	-1.4759	26.06	0.34	-1.500			
0.4588	29360.34	3.5900	3.5901	-1.5012	26.06	0.34	-1.500			
0.4633	29652.12	3.5870	3.5869	-1.5248	26.06	0.34	-1.500			
0.4679	29946.02	3.5840	3.5840	-1.5449	26.07	0.35	-1.500			
0.4725	30242.57	3.5810	3.5810	-1.5633	26.07	0.35	-1.500			
0.4773	30544.29	3.5780	3.5781	-1.5855	26.07	0.35	-1.500			
0.4821	30853.26	3.5750	3.5749	-1.6093	26.08	0.36	-1.500			
0.4869	31162.73	3.5720	3.5720	-1.6378	26.08	0.36	-1.500			
0.4919	31478.83	3.5690	3.5691	-1.6661	26.09	0.37	-1.500			
0.4969	31803.45	3.5660	3.5660	-1.6846	26.09	0.37	-1.500			
0.5020	32130.23	3.5630	3.5630	-1.7075	26.09	0.37	-1.500			
0.5072	32461.22	3.5600	3.5600	-1.7263	26.10	0.38	-1.500			
0.5124	32794.60	3.5570	3.5569	-1.7439	26.10	0.38	-1.500			
0.5176	33129.37	3.5540	3.5540	-1.7716	26.10	0.38	-1.500			
0.5229	33468.58	3.5510	3.5510	-1.7724	26.11	0.39	-1.500			
0.5283	33810.70	3.5480	3.5480	-1.7939	26.11	0.39	-1.500			
0.5338	34160.84	3.5450	3.5449	-1.8116	26.11	0.39	-1.500			
0.5392	34509.69	3.5420	3.5419	-1.8225	26.12	0.40	-1.500			
0.5447	34863.22	3.5390	3.5390	-1.8257	26.12	0.40	-1.500			
0.5502	35214.28	3.5360	3.5361	-1.8201	26.13	0.41	-1.500	0.388	0.516	
0.5557	35564.09	3.5330	3.5330	-1.8216	26.14	0.42	-1.500			
0.5611	35911.52	3.5300	3.5301	-1.8127	26.14	0.42	-1.500			
0.5665	36253.98	3.5270	3.5270	-1.8215	26.15	0.43	-1.500			
0.5720	36609.26	3.5240	3.5240	-1.8247	26.16	0.44	-1.500			
0.5774	36956.57	3.5210	3.5210	-1.8173	26.17	0.45	-1.500			
0.5830	37311.32	3.5180	3.5181	-1.8193	26.18	0.46	-1.500			
0.5884	37658.26	3.5150	3.5149	-1.8077	26.19	0.47	-1.500			
0.5938	38002.07	3.5120	3.5120	-1.8059	26.19	0.47	-1.500			
0.5992	38347.32	3.5090	3.5090	-1.7995	26.20	0.48	-1.500			
0.6046	38695.25	3.5060	3.5059	-1.8058	26.21	0.49	-1.500			
0.6100	39039.37	3.5030	3.5030	-1.8058	26.22	0.50	-1.500			
0.6154	39387.40	3.5000	3.5000	-1.8024	26.23	0.51	-1.500			
0.6209	39734.58	3.4970	3.4970	-1.8015	26.25	0.53	-1.500			
0.6262	40078.46	3.4940	3.4940	-1.7903	26.26	0.54	-1.500			
0.6316	40420.71	3.4910	3.4911	-1.7775	26.27	0.55	-1.500			
0.6369	40762.58	3.4880	3.4880	-1.7703	26.29	0.57	-1.500			
0.6422	41099.48	3.4850	3.4850	-1.7628	26.30	0.58	-1.500			
0.6474	41436.22	3.4820	3.4820	-1.7480	26.31	0.59	-1.500			
0.6527	41775.20	3.4790	3.4790	-1.7417	26.32	0.60	-1.500			
0.6579	42106.48	3.4760	3.4760	-1.7249	26.34	0.62	-1.500			
0.6631	42438.55	3.4730	3.4730	-1.7058	26.35	0.63	-1.500			
0.6682	42764.87	3.4700	3.4700	-1.6949	26.36	0.64	-1.500			
0.6733	43088.96	3.4670	3.4670	-1.6692	26.37	0.65	-1.500			
0.6782	43407.74	3.4640	3.4640	-1.6418	26.38	0.66	-1.500			
0.6832	43721.76	3.4610	3.4610	-1.6203	26.40	0.68	-1.500			
0.6880	44030.43	3.4580	3.4580	-1.5978	26.41	0.69	-1.500			
0.6927	44331.94	3.4550	3.4550	-1.5725	26.43	0.71	-1.500			
0.6974	44633.03	3.4520	3.4519	-1.5492	26.44	0.72	-1.500			
0.7020	44925.96	3.4490	3.4491	-1.5228	26.46	0.74	-1.500			
0.7066	45220.54	3.4460	3.4460	-1.5087	26.47	0.75	-1.500			
0.7110	45505.91	3.4430	3.4431	-1.4870	26.49	0.77	-1.500			
0.7154	45787.39	3.4400	3.4400	-1.4646	26.50	0.78	-1.500			
0.7198	46065.39	3.4370	3.4370	-1.4555	26.52	0.80	-1.500			
0.7241	46344.56	3.4340	3.4340	-1.4376	26.54	0.82	-1.500			
0.7285	46621.60	3.4310	3.4310	-1.4255	26.56	0.84	-1.500			
0.7327	46893.65	3.4280	3.4280	-1.4159	26.57	0.85	-1.500			
0.7369	47164.64	3.4250	3.4250	-1.4032	26.59	0.87	-1.500			
0.7411	47430.38	3.4220	3.4219	-1.3869	26.61	0.89	-1.500			
0.7452	47695.75	3.4190	3.4190	-1.3804	26.62	0.90	-1.500			
0.7494	47960.92	3.4160	3.4160	-1.3605	26.64	0.92	-1.500			
0.7535	48224.27	3.4130	3.4130	-1.3441	26.66	0.94	-1.500			
0.7575	48481.78	3.4100	3.4100	-1.3218	26.68	0.96	-1.500			
0.7615	48733.45	3.4070	3.4070	-1.2860	26.70	0.98	-1.500			
0.7653	48978.48	3.4040	3.4040	-1.2500	26.72	1.00	-1.500			
0.7690	49214.72	3.4010	3.4010	-1.2101	26.73	1.01	-1.500			
0.7725	49442.90	3.3980	3.3981	-1.1707	26.75	1.03	-1.500			
0.7760	49664.72	3.3950	3.3948	-1.1295	26.76	1.04	-1.500			
0.7793	49876.52	3.3920	3.3921	-1.0876	26.78	1.06	-1.500			
0.7825	50080.88	3.3890	3.3890	-1.0456	26.79	1.07	-1.500			
0.7856	50280.28	3.3860	3.3859	-1.0062	26.81	1.09	-1.500			
0.7886	50468.55	3.3830	3.3830	-0.9629	26.82	1.10	-1.500			
0.7914	50646.52	3.3800	3.3800	-0.9232	26.84	1.12	-1.500			
0.7941	50819.81	3.3770	3.3770	-0.8884	26.85	1.13	-1.500			
0.7967	50986.31	3.3740	3.3740	-0.8519	26.86	1.14	-1.500			
0.7992	51146.06	3.3710	3.3709	-0.8221	26.88	1.16	-1.500			
0.8016	51300.62	3.3680	3.3681	-0.7965	26.89	1.17	-1.500			
0.8039	51451.76	3.3650	3.3651	-0.7663	26.90	1.18	-1.500			
0.8062	51595.39	3.3620	3.3619	-0.7377	26.91	1.19	-1.500			
0.8084	51734.73	3.3590	3.3590	-0.7111	26.92	1.20	-1.500			
0.8104	51867.60	3.3560	3.3560	-0.6829	26.92	1.20	-1.500			
0.8124	51996.28	3.3530	3.3530	-0.6634	26.93	1.21	-1.500			
0.8144	52119.27	3.3500	3.3501	-0.6395	26.94	1.22	-1.500			
0.8162	52239.36	3.3470	3.3469	-0.6179	26.95	1.23	-1.500			
0.8181	52357.43	3.3440	3.3440	-0.6014	26.96	1.24	-1.500			
0.8198	52469.95	3.3410	3.3411	-0.5820	26.97	1.25	-1.500			
0.8216	52580.67	3.3380	3.3380	-0.5648	26.98	1.26	-1.500			
0.8232	52687.17	3.3350	3.3350	-0.5494	26.98	1.26	-1.500			
0.8249	52790.42	3.3320	3.3319	-0.5315	26.99	1.27	-1.500			
0.8264	52890.71	3.3290	3.3291	-0.5159	27.00	1.28	-1.500			
0.8280	52989.11	3.3260	3.3260	-0.5010	27.00	1.28	-1.500			
0.8294	53083.19	3.3230	3.3231	-0.4885	27.01	1.29	-1.500			
0.8309	53175.87	3.3200	3.3200	-0.4729	27.02	1.30	-1.500			
0.8323	53265.28	3.3170	3.3169	-0.4585	27.02	1.30	-1.500			
0.8336	53351.31	3.3140	3.3140	-0.4439	27.03	1.31	-1.500			
0.8349	53435.25	3.3110	3.3111	-0.4316	27.03	1.31	-1.500			
0.8362	53516.63	3.3080	3.3079	-0.4182	27.04	1.32	-1.500			
0.8374	53595.68	3.3050	3.3050	-0.4060	27.05	1.33	-1.500			
0.8386	53671.59	3.3020	3.3020	-0.3938	27.05	1.33	-1.500			
0.8398	53747.16	3.2990	3.2990	-0.3840	27.06	1.34	-1.500			
0.8409	53819.31	3.2960	3.2960	-0.3733	27.07	1.35	-1.500			
0.8420	53889.56	3.2930	3.2930	-0.3627	27.07	1.35	-1.500			
0.8431	53958.24	3.2900	3.2900	-0.3538	27.08	1.36	-1.500			
0.8441	54025.36	3.2870	3.2870	-0.3445	27.09	1.37	-1.500			
0.8452	54090.62	3.2840	3.2841	-0.3348	27.09	1.37	-1.500			
0.8462	54153.85	3.2810	3.2810	-0.3253	27.10	1.38	-1.500			
0.8471	54215.66	3.2780	3.2780	-0.3158	27.10	1.38	-1.500			
0.8480	54274.55	3.2750	3.2750	-0.3076	27.11	1.39	-1.500			
0.8490	54333.18	3.2720	3.2719	-0.2993	27.11	1.39	-1.500			
0.8498	54389.65	3.2690	3.2690	-0.2917	27.12	1.40	-1.500			
0.8507	54444.97	3.2660	3.2661	-0.2857	27.12	1.40	-1.500			
0.8516	54499.33	3.2630	3.2631	-0.2794	27.13	1.41	-1.500			
0.8524	54552.26	3.2600	3.2599	-0.2738	27.13	1.41	-1.500			
0.8532	54604.15	3.2570	3.2570	-0.2675	27.14	1.42	-1.500			
0.8540	54654.46	3.2540	3.2540	-0.2619	27.14	1.42	-1.500			
0.8548	54704.52	3.2510	3.2510	-0.2569	27.15	1.43	-1.500			
0.8555	54753.41	3.2480	3.2480	-0.2514	27.15	1.43	-1.500			
0.8563	54801.12	3.2450	3.2449	-0.2464	27.15	1.43	-1.500			
0.8570	54848.25	3.2420	3.2421	-0.2409	27.16	1.44	-1.500			
0.8577	54893.61	3.2390	3.2390	-0.2361	27.16	1.44	-1.500			
0.8584	54938.20	3.2360	3.2361	-0.2328	27.16	1.44	-1.500			
0.8591	54982.63	3.2330	3.2330	-0.2284	27.17	1.45	-1.500			
0.8598	55025.69	3.2300	3.2300	-0.2240	27.17	1.45	-1.500			
0.8604	55068.72	3.2270	3.2268	-0.2210	27.18	1.46	-1.500			
0.8611	55110.73	3.2240	3.2241	-0.2176	27.18	1.46	-1.500			
0.8618	55152.34	3.2210	3.2210	-0.2137	27.19	1.47	-1.500			
0.8624	55193.30	3.2180	3.2179	-0.2099	27.19	1.47	-1.500			
0.8630	55232.71	3.2150	3.2150	-0.2064	27.20	1.48	-1.500			
0.8636	55271.84	3.2120	3.2121	-0.2027	27.20	1.48	-1.500			
0.8642	55310.72	3.2090	3.2089	-0.2002	27.21	1.49	-1.500			
0.8648	55348.84	3.2060	3.2060	-0.1968	27.21	1.49	-1.500			
0.8654	55386.08	3.2030	3.2030	-0.1940	27.22	1.50	-1.500			
0.8660	55422.84	3.2000	3.2000	-0.1913	27.22	1.50	-1.500			
0.8666	55459.38	3.1970	3.1970	-0.1893	27.23	1.51	-1.500			
0.8671	55495.50	3.1940	3.1940	-0.1870	27.23	1.51	-1.500			
0.8677	55530.95	3.1910	3.1910	-0.1846	27.24	1.52	-1.500			
0.8682	55566.10	3.1880	3.1880	-0.1837	27.24	1.52	-1.500			
0.8688	55601.41	3.1850	3.1849	-0.1817	27.25	1.53	-1.500			
0.8693	55636.12	3.1820	3.1821	-0.1799	27.25	1.53	-1.500			
0.8699	55670.60	3.1790	3.1789	-0.1773	27.26	1.54	-1.500			
0.8704	55704.60	3.1760	3.1761	-0.1751	27.26	1.54	-1.500			
0.8709	55737.95	3.1730	3.1730	-0.1729	27.27	1.55	-1.500			
0.8714	55770.90	3.1700	3.1699	-0.1703	27.27	1.55	-1.500			
0.8719	55803.29	3.1670	3.1671	-0.1682	27.28	1.56	-1.500			
0.8724	55834.83	3.1640	3.1640	-0.1660	27.28	1.56	-1.500			
0.8729	55866.84	3.1610	3.1610	-0.1649	27.29	1.57	-1.500			
0.8734	55898.35	3.1580	3.1580	-0.1634	27.29	1.57	-1.500			
0.8739	55929.55	3.1550	3.1550	-0.1622	27.29	1.57	-1.500			
0.8744	55960.45	3.1520	3.1520	-0.1612	27.30	1.58	-1.500			
0.8749	55991.23	3.1490	3.1490	-0.1602	27.30	1.58	-1.500			
0.8753	56021.91	3.1460	3.1459	-0.1594	27.31	1.59	-1.500			
0.8758	56052.50	3.1430	3.1430	-0.1581	27.31	1.59	-1.500			
0.8763	56082.85	3.1400	3.1400	-0.1565	27.32	1.60	-1.500			
0.8768	56112.93	3.1370	3.1371	-0.1555	27.32	1.60	-1.500			
0.8772	56142.62	3.1340	3.1340	-0.1537	27.33	1.61	-1.500			
0.8777	56171.86	3.1310	3.1310	-0.1524	27.33	1.61	-1.500			
0.8781	56200.82	3.1280	3.1280	-0.1510	27.33	1.61	-1.500			
0.8786	56229.67	3.1250	3.1250	-0.1497	27.34	1.62	-1.500			
0.8790	56258.31	3.1220	3.1220	-0.1487	27.34	1.62	-1.500			
0.8795	56286.90	3.1190	3.1190	-0.1473	27.35	1.63	-1.500			
0.8799	56315.10	3.1160	3.1160	-0.1462	27.35	1.63	-1.500			
0.8804	56342.86	3.1130	3.1129	-0.1451	27.35	1.63	-1.500			
0.8808	56370.62	3.1100	3.1100	-0.1441	27.36	1.64	-1.500			
0.8812	56398.01	3.1070	3.1071	-0.1438	27.36	1.64	-1.500			
0.8816	56425.57	3.1040	3.1040	-0.1428	27.37	1.65	-1.500			
0.8821	56453.10	3.1010	3.1010	-0.1421	27.37	1.65	-1.500			
0.8825	56480.30	3.0980	3.0981	-0.1413	27.37	1.65	-1.500			
0.8829	56507.55	3.0950	3.0951	-0.1403	27.38	1.66	-1.500			
0.8834	56534.41	3.0920	3.0920	-0.1391	27.38	1.66	-1.500			
0.8838	56560.67	3.0890	3.0890	-0.1382	27.38	1.66	-1.500			
0.8842	56587.14	3.0860	3.0860	-0.1376	27.39	1.67	-1.500			
0.8846	56613.36	3.0830	3.0829	-0.1363	27.39	1.67	-1.500			
0.8850	56639.52	3.0800	3.0799	-0.1360	27.40	1.68	-1.500			
0.8854	56665.77	3.0770	3.0771	-0.1350	27.40	1.68	-1.500			
0.8858	56691.58	3.0740	3.0740	-0.1339	27.41	1.69	-1.500			
0.8862	56717.24	3.0710	3.0708	-0.1332	27.41	1.69	-1.500			
0.8866	56742.68	3.0680	3.0681	-0.1325	27.42	1.70	-1.500			
0.8870	56767.77	3.0650	3.0650	-0.1315	27.42	1.70	-1.500			
0.8874	56792.99	3.0620	3.0620	-0.1312	27.43	1.71	-1.500			
0.8878	56818.30	3.0590	3.0589	-0.1306	27.43	1.71	-1.500			
0.8882	56843.22	3.0560	3.0560	-0.1298	27.44	1.72	-1.500			
0.8886	56868.44	3.0530	3.0529	-0.1294	27.44	1.72	-1.500			
0.8890	56893.17	3.0500	3.0501	-0.1282	27.45	1.73	-1.500			
0.8893	56917.58	3.0470	3.0470	-0.1273	27.45	1.73	-1.500			
0.8897	56942.00	3.0440	3.0440	-0.1261	27.46	1.74	-1.500			
0.8901	56966.09	3.0410	3.0410	-0.1249	27.46	1.74	-1.500			
0.8905	56989.80	3.0380	3.0380	-0.1246	27.47	1.75	-1.500			
0.8908	57013.58	3.0350	3.0350	-0.1239	27.47	1.75	-1.500			
0.8912	57037.19	3.0320	3.0321	-0.1233	27.48	1.76	-1.500			
0.8916	57060.89	3.0290	3.0289	-0.1232	27.48	1.76	-1.500			
0.8919	57084.58	3.0260	3.0261	-0.1225	27.49	1.77	-1.500			
0.8923	57108.01	3.0230	3.0230	-0.1220	27.49	1.77	-1.500			
0.8927	57131.45	3.0200	3.0200	-0.1212	27.50	1.78	-1.500			
0.8930	57155.02	3.0170	3.0170	-0.1206	27.50	1.78	-1.500			
0.8934	57177.81	3.0140	3.0141	-0.1196	27.51	1.79	-1.500			
0.8938	57200.72	3.0110	3.0109	-0.1191	27.51	1.79	-1.500			
0.8941	57223.48	3.0080	3.0080	-0.1185	27.52	1.80	-1.500			
0.8945	57246.19	3.0050	3.0051	-0.1181	27.52	1.80	-1.500			
0.8948	57268.84	3.0020	3.0020	-0.1183	27.53	1.81	-1.500			
