Ah_balance (normalized)	Ah_balance (mAh)	Voltage - fit (V)	Voltage -  interpolate (V)	dQ/dV (1/V)	Temperature (°C)	Temperature - diff (°C)	Current (C)	R_DC 0ms (mOhm)	R_DC 50ms (mOhm)	R_DC 50 ms PEC (mOhm)
0.2804	17942.65	3.9710	3.9710	0.8808	26.88	0.94	1.500			
0.2830	18110.56	3.9680	3.9680	0.8775	26.87	0.93	1.500			
0.2856	18279.34	3.9650	3.9650	0.8801	26.87	0.93	1.500			
0.2883	18448.12	3.9620	3.9620	0.8828	26.87	0.93	1.500			
0.2909	18616.98	3.9590	3.9590	0.8875	26.87	0.93	1.500			
0.2936	18788.86	3.9560	3.9561	0.8873	26.86	0.92	1.500			
0.2962	18959.84	3.9530	3.9529	0.8922	26.86	0.92	1.500			
0.2989	19130.33	3.9500	3.9501	0.8990	26.86	0.92	1.500			
0.3016	19302.90	3.9470	3.9470	0.9004	26.85	0.91	1.500			
0.3043	19476.33	3.9440	3.9439	0.9044	26.85	0.91	1.500			
0.3070	19651.04	3.9410	3.9410	0.9082	26.85	0.91	1.500			
0.3098	19825.66	3.9380	3.9381	0.9103	26.84	0.90	1.500			
0.3125	20001.67	3.9350	3.9349	0.9157	26.84	0.90	1.500			
0.3152	20175.50	3.9320	3.9321	0.9208	26.84	0.90	1.500			
0.3180	20353.25	3.9290	3.9290	0.9259	26.83	0.89	1.500			
0.3208	20532.78	3.9260	3.9259	0.9341	26.83	0.89	1.500			
0.3236	20712.52	3.9230	3.9230	0.9383	26.83	0.89	1.500			
0.3265	20892.96	3.9200	3.9201	0.9479	26.82	0.88	1.500			
0.3293	21075.54	3.9170	3.9170	0.9554	26.82	0.88	1.500			
0.3322	21258.95	3.9140	3.9139	0.9608	26.82	0.88	1.500			
0.3351	21443.76	3.9110	3.9110	0.9681	26.81	0.87	1.500			
0.3380	21633.18	3.9080	3.9080	0.9770	26.81	0.87	1.500			
0.3409	21820.71	3.9050	3.9050	0.9809	26.81	0.87	1.500			
0.3439	22009.16	3.9020	3.9020	0.9877	26.80	0.86	1.500			
0.3469	22198.63	3.8990	3.8990	0.9965	26.80	0.86	1.500			
0.3499	22390.65	3.8960	3.8960	1.0046	26.79	0.85	1.500			
0.3529	22584.73	3.8930	3.8930	1.0109	26.79	0.85	1.500			
0.3559	22779.67	3.8900	3.8901	1.0197	26.78	0.84	1.500			
0.3590	22978.73	3.8870	3.8870	1.0284	26.78	0.84	1.500			
0.3621	23174.80	3.8840	3.8839	1.0378	26.77	0.83	1.500			
0.3652	23373.78	3.8810	3.8810	1.0451	26.77	0.83	1.500			
0.3684	23574.44	3.8780	3.8781	1.0611	26.76	0.82	1.500			
0.3716	23781.45	3.8750	3.8751	1.0735	26.76	0.82	1.500			
0.3748	23988.83	3.8720	3.8720	1.0870	26.75	0.81	1.500			
0.3781	24198.31	3.8690	3.8690	1.0968	26.74	0.80	1.500			
0.3814	24410.42	3.8660	3.8661	1.1074	26.74	0.80	1.500			
0.3847	24623.94	3.8630	3.8629	1.1165	26.73	0.79	1.500			
0.3881	24837.89	3.8600	3.8600	1.1335	26.72	0.78	1.500			
0.3915	25054.48	3.8570	3.8571	1.1489	26.72	0.78	1.500			
0.3950	25277.75	3.8540	3.8538	1.1736	26.71	0.77	1.500			
0.3985	25506.70	3.8510	3.8509	1.1862	26.70	0.76	1.500			
0.4021	25737.22	3.8480	3.8481	1.2053	26.69	0.75	1.500			
0.4058	25971.98	3.8450	3.8450	1.2233	26.69	0.75	1.500			
0.4095	26207.77	3.8420	3.8420	1.2371	26.68	0.74	1.500			
0.4132	26442.14	3.8390	3.8390	1.2531	26.67	0.73	1.500			
0.4169	26684.22	3.8360	3.8361	1.2809	26.66	0.72	1.500			
0.4208	26932.70	3.8330	3.8329	1.3084	26.65	0.71	1.500			
0.4248	27187.99	3.8300	3.8300	1.3404	26.64	0.70	1.500			
0.4289	27447.31	3.8270	3.8270	1.3660	26.64	0.70	1.500			
0.4330	27713.00	3.8240	3.8240	1.3945	26.63	0.69	1.500			
0.4372	27982.82	3.8210	3.8210	1.4244	26.62	0.68	1.500			
0.4415	28258.73	3.8180	3.8180	1.4515	26.62	0.68	1.500			
0.4459	28539.61	3.8150	3.8151	1.4838	26.61	0.67	1.500			
0.4504	28827.60	3.8120	3.8120	1.5190	26.60	0.66	1.500			
0.4550	29121.75	3.8090	3.8090	1.5487	26.58	0.64	1.500			
0.4597	29420.56	3.8060	3.8060	1.5844	26.57	0.63	1.500			
0.4645	29727.36	3.8030	3.8031	1.6303	26.56	0.62	1.500			
0.4694	30042.31	3.8000	3.7998	1.6728	26.54	0.60	1.500			
0.4745	30369.52	3.7970	3.7971	1.7237	26.53	0.59	1.500			
0.4798	30705.28	3.7940	3.7941	1.7739	26.52	0.58	1.500			
0.4852	31053.01	3.7910	3.7910	1.8206	26.50	0.56	1.500			
0.4907	31404.77	3.7880	3.7880	1.8558	26.49	0.55	1.500			
0.4964	31766.58	3.7850	3.7850	1.9146	26.48	0.54	1.500			
0.5022	32141.07	3.7820	3.7820	1.9488	26.46	0.52	1.500			
0.5081	32516.85	3.7790	3.7790	1.9838	26.45	0.51	1.500			
0.5141	32899.87	3.7760	3.7761	2.0256	26.44	0.50	1.500			
0.5202	33289.93	3.7730	3.7729	2.0669	26.42	0.48	1.500			
0.5265	33693.44	3.7700	3.7700	2.1032	26.40	0.46	1.500			
0.5329	34104.70	3.7670	3.7670	2.1631	26.38	0.44	1.500			
0.5395	34525.69	3.7640	3.7640	2.1591	26.36	0.42	1.500			
0.5460	34943.36	3.7610	3.7612	2.1676	26.34	0.40	1.500	0.359	0.454	
0.5525	35362.46	3.7580	3.7580	2.1479	26.32	0.38	1.500			
0.5590	35773.18	3.7550	3.7550	2.1275	26.31	0.37	1.500			
0.5653	36177.37	3.7520	3.7520	2.0926	26.29	0.35	1.500			
0.5715	36578.19	3.7490	3.7491	2.0825	26.28	0.34	1.500			
0.5777	36974.79	3.7460	3.7460	2.0522	26.26	0.32	1.500			
0.5838	37365.22	3.7430	3.7430	2.0515	26.25	0.31	1.500			
0.5899	37756.22	3.7400	3.7401	2.0578	26.23	0.29	1.500			
0.5961	38153.58	3.7370	3.7369	2.0686	26.22	0.28	1.500			
0.6024	38555.43	3.7340	3.7340	2.0809	26.20	0.26	1.500			
0.6087	38956.35	3.7310	3.7310	2.1118	26.19	0.25	1.500			
0.6150	39359.86	3.7280	3.7281	2.1305	26.17	0.23	1.500			
0.6214	39772.46	3.7250	3.7249	2.1740	26.16	0.22	1.500			
0.6280	40192.72	3.7220	3.7220	2.2219	26.15	0.21	1.500			
0.6348	40625.15	3.7190	3.7190	2.2948	26.14	0.20	1.500			
0.6417	41066.69	3.7160	3.7160	2.3516	26.13	0.19	1.500			
0.6488	41524.69	3.7130	3.7130	2.4443	26.11	0.17	1.500			
0.6563	42002.12	3.7100	3.7100	2.5118	26.10	0.16	1.500			
0.6640	42494.53	3.7070	3.7071	2.6091	26.08	0.14	1.500			
0.6719	43004.37	3.7040	3.7039	2.6923	26.07	0.13	1.500			
0.6802	43531.36	3.7010	3.7011	2.7223	26.06	0.12	1.500			
0.6886	44068.21	3.6980	3.6980	2.7292	26.05	0.11	1.500			
0.6967	44589.58	3.6950	3.6951	2.6683	26.04	0.10	1.500			
0.7048	45106.74	3.6920	3.6920	2.5546	26.03	0.09	1.500			
0.7122	45580.97	3.6890	3.6890	2.3605	26.03	0.09	1.500			
0.7190	46015.66	3.6860	3.6859	2.1651	26.02	0.08	1.500			
0.7252	46411.14	3.6830	3.6830	1.9957	26.02	0.08	1.500			
0.7309	46775.28	3.6800	3.6800	1.8263	26.01	0.07	1.500			
0.7360	47102.31	3.6770	3.6770	1.6971	26.01	0.07	1.500			
0.7408	47413.30	3.6740	3.6740	1.5794	26.00	0.06	1.500			
0.7454	47704.95	3.6710	3.6709	1.4986	26.00	0.06	1.500			
0.7497	47981.33	3.6680	3.6680	1.4164	26.00	0.06	1.500			
0.7538	48242.49	3.6650	3.6650	1.3613	25.99	0.05	1.500			
0.7577	48495.12	3.6620	3.6621	1.3071	25.99	0.05	1.500			
0.7615	48736.72	3.6590	3.6590	1.2701	25.99	0.05	1.500			
0.7652	48974.91	3.6560	3.6560	1.2548	25.98	0.04	1.500			
0.7689	49210.30	3.6530	3.6531	1.2461	25.98	0.04	1.500			
0.7726	49446.00	3.6500	3.6500	1.2509	25.98	0.04	1.500			
0.7764	49686.55	3.6470	3.6470	1.2631	25.98	0.04	1.500			
0.7801	49929.46	3.6440	3.6440	1.2747	25.97	0.03	1.500			
0.7840	50177.87	3.6410	3.6410	1.2930	25.97	0.03	1.500			
0.7879	50427.22	3.6380	3.6381	1.3011	25.97	0.03	1.500			
0.7919	50680.04	3.6350	3.6350	1.3072	25.96	0.02	1.500			
0.7958	50931.95	3.6320	3.6320	1.3103	25.96	0.02	1.500			
0.7998	51184.94	3.6290	3.6290	1.3081	25.95	0.01	1.500			
0.8037	51436.19	3.6260	3.6260	1.3045	25.95	0.01	1.500			
0.8076	51684.91	3.6230	3.6230	1.3031	25.95	0.01	1.500			
0.8115	51933.26	3.6200	3.6200	1.3023	25.94	0.00	1.500			
0.8153	52181.96	3.6170	3.6170	1.3055	25.94	-0.00	1.500			
0.8193	52433.54	3.6140	3.6139	1.3098	25.93	-0.01	1.500			
0.8232	52686.74	3.6110	3.6110	1.3071	25.93	-0.01	1.500			
0.8272	52939.97	3.6080	3.6079	1.3027	25.93	-0.01	1.500			
0.8312	53193.69	3.6050	3.6051	1.2905	25.93	-0.01	1.500			
0.8350	53438.38	3.6020	3.6020	1.2755	25.92	-0.02	1.500			
0.8387	53679.99	3.5990	3.5990	1.2607	25.92	-0.02	1.500			
0.8425	53919.48	3.5960	3.5960	1.2497	25.92	-0.02	1.500			
0.8462	54157.07	3.5930	3.5930	1.2365	25.92	-0.02	1.500			
0.8499	54394.05	3.5900	3.5901	1.2244	25.92	-0.02	1.500			
0.8536	54629.43	3.5870	3.5870	1.2158	25.93	-0.01	1.500			
0.8572	54861.57	3.5840	3.5840	1.2094	25.93	-0.01	1.500			
0.8608	55091.08	3.5810	3.5809	1.2046	25.93	-0.01	1.500			
0.8644	55323.69	3.5780	3.5779	1.1943	25.94	-0.00	1.500			
0.8681	55555.81	3.5750	3.5750	1.1717	25.94	-0.00	1.500			
0.8717	55789.90	3.5720	3.5720	1.1110	25.94	0.00	1.500			
0.8751	56003.81	3.5690	3.5691	1.0192	25.94	0.00	1.500			
0.8782	56202.70	3.5660	3.5661	0.9007	25.95	0.01	1.500			
0.8807	56364.35	3.5630	3.5631	0.7567	25.95	0.01	1.500			
0.8827	56490.38	3.5600	3.5600	0.6190	25.95	0.01	1.500			
0.8842	56589.24	3.5570	3.5569	0.4999	25.95	0.01	1.500			
0.8854	56663.26	3.5540	3.5540	0.4010	25.95	0.01	1.500			
0.8864	56727.98	3.5510	3.5510	0.3372	25.95	0.01	1.500			
0.8872	56783.04	3.5480	3.5479	0.2803	25.95	0.01	1.500			
0.8880	56830.13	3.5450	3.5449	0.2458	25.95	0.01	1.500			
0.8886	56871.32	3.5420	3.5420	0.2165	25.95	0.01	1.500			
0.8892	56909.29	3.5390	3.5390	0.1951	25.96	0.02	1.500			
0.8898	56944.55	3.5360	3.5360	0.1754	25.96	0.02	1.500			
0.8902	56975.46	3.5330	3.5330	0.1589	25.96	0.02	1.500			
0.8907	57003.81	3.5300	3.5299	0.1423	25.96	0.02	1.500			
0.8911	57029.58	3.5270	3.5270	0.1274	25.96	0.02	1.500			
0.8914	57052.69	3.5240	3.5240	0.1134	25.96	0.02	1.500			
0.8918	57072.93	3.5210	3.5210	0.0991	25.96	0.02	1.500			
0.8920	57091.07	3.5180	3.5181	0.0856	25.96	0.02	1.500			
0.8923	57106.10	3.5150	3.5153	0.0710	25.96	0.02	1.500			
0.8925	57118.63	3.5120	3.5125	0.0553	25.96	0.02	1.500			
0.8926	57127.76	3.5090	3.5099	0.0398	25.96	0.02	1.500			
