Ah_balance (normalized)	Ah_balance (mAh)	Voltage - fit (V)	Voltage -  interpolate (V)	dQ/dV (1/V)	Temperature (°C)	Temperature - diff (°C)	Current (C)	R_DC 0ms (mOhm)	R_DC 50ms (mOhm)	R_DC 50 ms PEC (mOhm)
0.1998	12785.64	3.9260	3.9258	-0.0977	25.65	-0.02	-1.500			
0.2001	12807.09	3.9230	3.9229	-0.1257	25.65	-0.02	-1.500			
0.2005	12833.94	3.9200	3.9199	-0.1538	25.65	-0.02	-1.500			
0.2010	12866.45	3.9170	3.9170	-0.1811	25.65	-0.02	-1.500			
0.2016	12903.93	3.9140	3.9141	-0.2074	25.65	-0.02	-1.500			
0.2023	12946.31	3.9110	3.9110	-0.2331	25.65	-0.02	-1.500			
0.2030	12994.03	3.9080	3.9080	-0.2590	25.65	-0.02	-1.500			
0.2038	13046.22	3.9050	3.9050	-0.2844	25.65	-0.02	-1.500			
0.2047	13103.50	3.9020	3.9019	-0.3090	25.65	-0.02	-1.500			
0.2057	13165.16	3.8990	3.8990	-0.3339	25.65	-0.02	-1.500			
0.2067	13231.76	3.8960	3.8961	-0.3575	25.66	-0.01	-1.500			
0.2079	13302.96	3.8930	3.8930	-0.3818	25.66	-0.01	-1.500			
0.2090	13378.82	3.8900	3.8900	-0.4036	25.66	-0.01	-1.500			
0.2103	13458.64	3.8870	3.8870	-0.4251	25.66	-0.01	-1.500			
0.2116	13542.13	3.8840	3.8840	-0.4465	25.66	-0.01	-1.500			
0.2130	13629.66	3.8810	3.8811	-0.4709	25.66	-0.01	-1.500			
0.2144	13722.81	3.8780	3.8780	-0.4908	25.67	-0.00	-1.500			
0.2159	13819.64	3.8750	3.8749	-0.5125	25.67	-0.00	-1.500			
0.2175	13920.73	3.8720	3.8720	-0.5288	25.67	-0.00	-1.500			
0.2191	14024.69	3.8690	3.8691	-0.5474	25.67	0.00	-1.500			
0.2208	14131.30	3.8660	3.8659	-0.5623	25.67	0.00	-1.500			
0.2225	14240.60	3.8630	3.8630	-0.5757	25.67	0.00	-1.500			
0.2243	14352.34	3.8600	3.8599	-0.5881	25.68	0.01	-1.500			
0.2261	14467.70	3.8570	3.8571	-0.5999	25.68	0.01	-1.500			
0.2279	14584.27	3.8540	3.8540	-0.6100	25.68	0.01	-1.500			
0.2297	14702.71	3.8510	3.8510	-0.6200	25.68	0.01	-1.500			
0.2316	14822.30	3.8480	3.8480	-0.6272	25.69	0.02	-1.500			
0.2335	14943.35	3.8450	3.8450	-0.6363	25.69	0.02	-1.500			
0.2354	15067.61	3.8420	3.8420	-0.6427	25.69	0.02	-1.500			
0.2374	15191.98	3.8390	3.8390	-0.6483	25.69	0.02	-1.500			
0.2393	15318.17	3.8360	3.8360	-0.6533	25.70	0.03	-1.500			
0.2413	15443.19	3.8330	3.8331	-0.6553	25.70	0.03	-1.500			
0.2433	15569.54	3.8300	3.8299	-0.6551	25.70	0.03	-1.500			
0.2452	15694.59	3.8270	3.8270	-0.6604	25.70	0.03	-1.500			
0.2472	15821.74	3.8240	3.8240	-0.6620	25.71	0.04	-1.500			
0.2492	15949.78	3.8210	3.8210	-0.6649	25.71	0.04	-1.500			
0.2512	16078.36	3.8180	3.8181	-0.6667	25.72	0.05	-1.500			
0.2532	16206.36	3.8150	3.8150	-0.6678	25.72	0.05	-1.500			
0.2552	16334.43	3.8120	3.8120	-0.6683	25.72	0.05	-1.500			
0.2572	16462.25	3.8090	3.8090	-0.6724	25.73	0.06	-1.500			
0.2592	16590.75	3.8060	3.8060	-0.6718	25.73	0.06	-1.500			
0.2613	16720.94	3.8030	3.8030	-0.6779	25.74	0.07	-1.500			
0.2633	16851.85	3.8000	3.8000	-0.6786	25.74	0.07	-1.500			
0.2654	16983.25	3.7970	3.7970	-0.6793	25.74	0.07	-1.500			
0.2674	17113.34	3.7940	3.7940	-0.6803	25.75	0.08	-1.500			
0.2694	17243.83	3.7910	3.7910	-0.6793	25.75	0.08	-1.500			
0.2715	17373.45	3.7880	3.7880	-0.6795	25.76	0.09	-1.500			
0.2735	17504.61	3.7850	3.7850	-0.6799	25.76	0.09	-1.500			
0.2755	17634.66	3.7820	3.7820	-0.6778	25.77	0.10	-1.500			
0.2776	17765.14	3.7790	3.7790	-0.6780	25.78	0.11	-1.500			
0.2796	17894.74	3.7760	3.7761	-0.6798	25.78	0.11	-1.500			
0.2816	18024.70	3.7730	3.7729	-0.6801	25.79	0.12	-1.500			
0.2837	18155.32	3.7700	3.7700	-0.6847	25.79	0.12	-1.500			
0.2857	18287.18	3.7670	3.7670	-0.6877	25.80	0.13	-1.500			
0.2878	18420.04	3.7640	3.7640	-0.6928	25.80	0.13	-1.500			
0.2899	18553.41	3.7610	3.7611	-0.6964	25.81	0.14	-1.500			
0.2920	18687.32	3.7580	3.7579	-0.6990	25.82	0.15	-1.500			
0.2941	18822.54	3.7550	3.7550	-0.6976	25.82	0.15	-1.500			
0.2962	18955.97	3.7520	3.7520	-0.7000	25.83	0.16	-1.500			
0.2983	19090.36	3.7490	3.7491	-0.6988	25.84	0.17	-1.500			
0.3004	19224.39	3.7460	3.7461	-0.7022	25.84	0.17	-1.500			
0.3025	19358.52	3.7430	3.7429	-0.7050	25.85	0.18	-1.500			
0.3046	19493.26	3.7400	3.7401	-0.7073	25.86	0.19	-1.500			
0.3067	19629.87	3.7370	3.7369	-0.7136	25.86	0.19	-1.500			
0.3089	19768.87	3.7340	3.7341	-0.7210	25.87	0.20	-1.500			
0.3110	19906.44	3.7310	3.7310	-0.7245	25.88	0.21	-1.500			
0.3132	20046.60	3.7280	3.7280	-0.7319	25.88	0.21	-1.500			
0.3154	20187.36	3.7250	3.7250	-0.7362	25.89	0.22	-1.500			
0.3176	20328.81	3.7220	3.7219	-0.7393	25.90	0.23	-1.500			
0.3199	20471.70	3.7190	3.7190	-0.7487	25.90	0.23	-1.500			
0.3221	20615.20	3.7160	3.7161	-0.7576	25.91	0.24	-1.500			
0.3244	20761.73	3.7130	3.7129	-0.7654	25.92	0.25	-1.500			
0.3267	20908.27	3.7100	3.7100	-0.7729	25.93	0.26	-1.500			
0.3290	21057.99	3.7070	3.7070	-0.7851	25.93	0.26	-1.500			
0.3314	21210.65	3.7040	3.7040	-0.7912	25.94	0.27	-1.500			
0.3338	21364.74	3.7010	3.7009	-0.7994	25.95	0.28	-1.500			
0.3362	21518.06	3.6980	3.6981	-0.8025	25.96	0.29	-1.500			
0.3386	21671.75	3.6950	3.6950	-0.8070	25.96	0.29	-1.500			
0.3410	21827.03	3.6920	3.6920	-0.8179	25.97	0.30	-1.500			
0.3435	21983.88	3.6890	3.6890	-0.8289	25.98	0.31	-1.500			
0.3460	22142.25	3.6860	3.6859	-0.8418	25.99	0.32	-1.500			
0.3485	22306.31	3.6830	3.6830	-0.8544	25.99	0.32	-1.500			
0.3511	22472.58	3.6800	3.6800	-0.8640	26.00	0.33	-1.500			
0.3537	22639.86	3.6770	3.6771	-0.8813	26.00	0.33	-1.500			
0.3564	22810.16	3.6740	3.6740	-0.8929	26.01	0.34	-1.500			
0.3591	22982.07	3.6710	3.6710	-0.9000	26.02	0.35	-1.500			
0.3618	23156.63	3.6680	3.6680	-0.9100	26.02	0.35	-1.500			
0.3646	23331.20	3.6650	3.6651	-0.9223	26.03	0.36	-1.500			
0.3673	23510.02	3.6620	3.6619	-0.9380	26.04	0.37	-1.500			
0.3702	23690.73	3.6590	3.6589	-0.9501	26.04	0.37	-1.500			
0.3730	23872.58	3.6560	3.6560	-0.9607	26.05	0.38	-1.500			
0.3759	24058.81	3.6530	3.6530	-0.9783	26.05	0.38	-1.500			
0.3789	24248.66	3.6500	3.6500	-0.9993	26.06	0.39	-1.500			
0.3819	24443.41	3.6470	3.6470	-1.0143	26.06	0.39	-1.500			
0.3850	24639.84	3.6440	3.6440	-1.0337	26.07	0.40	-1.500			
0.3881	24840.60	3.6410	3.6411	-1.0513	26.07	0.40	-1.500			
0.3913	25045.37	3.6380	3.6379	-1.0649	26.08	0.41	-1.500			
0.3945	25251.16	3.6350	3.6351	-1.0775	26.08	0.41	-1.500			
0.3978	25458.09	3.6320	3.6320	-1.0924	26.09	0.42	-1.500			
0.4011	25667.70	3.6290	3.6290	-1.1089	26.09	0.42	-1.500			
0.4044	25880.66	3.6260	3.6260	-1.1202	26.10	0.43	-1.500			
0.4078	26099.77	3.6230	3.6230	-1.1453	26.10	0.43	-1.500			
0.4113	26323.17	3.6200	3.6200	-1.1613	26.11	0.44	-1.500			
0.4148	26548.64	3.6170	3.6170	-1.1767	26.11	0.44	-1.500			
0.4184	26775.17	3.6140	3.6141	-1.1922	26.12	0.45	-1.500			
0.4219	27004.72	3.6110	3.6110	-1.2076	26.12	0.45	-1.500			
0.4256	27237.59	3.6080	3.6079	-1.2220	26.13	0.46	-1.500			
0.4293	27473.71	3.6050	3.6050	-1.2439	26.13	0.46	-1.500			
0.4330	27712.61	3.6020	3.6020	-1.2638	26.13	0.46	-1.500			
0.4368	27958.29	3.5990	3.5990	-1.2863	26.13	0.46	-1.500			
0.4408	28209.45	3.5960	3.5960	-1.3031	26.14	0.47	-1.500			
0.4447	28460.21	3.5930	3.5931	-1.3219	26.14	0.47	-1.500			
0.4487	28716.76	3.5900	3.5901	-1.3359	26.14	0.47	-1.500			
0.4527	28974.47	3.5870	3.5870	-1.3571	26.15	0.48	-1.500			
0.4568	29235.07	3.5840	3.5839	-1.3737	26.15	0.48	-1.500			
0.4610	29501.37	3.5810	3.5810	-1.3924	26.15	0.48	-1.500			
0.4652	29771.67	3.5780	3.5779	-1.4086	26.16	0.49	-1.500			
0.4694	30044.75	3.5750	3.5751	-1.4216	26.16	0.49	-1.500			
0.4737	30318.11	3.5720	3.5721	-1.4346	26.16	0.49	-1.500			
0.4780	30594.33	3.5690	3.5690	-1.4566	26.17	0.50	-1.500			
0.4824	30873.79	3.5660	3.5660	-1.4754	26.17	0.50	-1.500			
0.4868	31156.45	3.5630	3.5630	-1.4967	26.17	0.50	-1.500			
0.4914	31447.93	3.5600	3.5598	-1.5145	26.18	0.51	-1.500			
0.4960	31743.44	3.5570	3.5570	-1.5383	26.18	0.51	-1.500			
0.5006	32039.72	3.5540	3.5540	-1.5579	26.19	0.52	-1.500			
0.5053	32340.01	3.5510	3.5510	-1.5761	26.19	0.52	-1.500			
0.5100	32642.40	3.5480	3.5480	-1.5835	26.19	0.52	-1.500			
0.5149	32952.10	3.5450	3.5450	-1.6001	26.20	0.53	-1.500			
0.5197	33260.92	3.5420	3.5421	-1.6164	26.20	0.53	-1.500			
0.5246	33574.07	3.5390	3.5390	-1.6256	26.20	0.53	-1.500			
0.5295	33887.30	3.5360	3.5360	-1.6525	26.21	0.54	-1.500			
0.5345	34206.82	3.5330	3.5330	-1.6669	26.21	0.54	-1.500			
0.5395	34529.39	3.5300	3.5299	-1.6781	26.22	0.55	-1.500	0.384	0.531	
0.5446	34855.32	3.5270	3.5272	-1.6930	26.22	0.55	-1.500			
0.5497	35182.47	3.5240	3.5240	-1.6999	26.23	0.56	-1.500			
0.5548	35508.67	3.5210	3.5209	-1.7108	26.23	0.56	-1.500			
0.5599	35834.27	3.5180	3.5180	-1.7057	26.23	0.56	-1.500			
0.5652	36170.35	3.5150	3.5149	-1.7233	26.24	0.57	-1.500			
0.5703	36501.57	3.5120	3.5121	-1.7259	26.24	0.57	-1.500			
0.5755	36831.82	3.5090	3.5090	-1.7329	26.25	0.58	-1.500			
0.5807	37163.58	3.5060	3.5060	-1.7397	26.26	0.59	-1.500			
0.5859	37498.38	3.5030	3.5029	-1.7330	26.28	0.61	-1.500			
0.5912	37837.62	3.5000	3.5000	-1.7449	26.29	0.62	-1.500			
0.5964	38172.15	3.4970	3.4970	-1.7369	26.30	0.63	-1.500			
0.6017	38505.76	3.4940	3.4940	-1.7305	26.31	0.64	-1.500			
0.6068	38835.15	3.4910	3.4911	-1.7274	26.32	0.65	-1.500			
0.6120	39165.65	3.4880	3.4879	-1.7208	26.33	0.66	-1.500			
0.6172	39499.07	3.4850	3.4850	-1.7220	26.34	0.67	-1.500			
0.6224	39832.03	3.4820	3.4819	-1.7111	26.35	0.68	-1.500			
0.6275	40160.34	3.4790	3.4790	-1.7084	26.35	0.68	-1.500			
0.6326	40486.74	3.4760	3.4760	-1.6865	26.36	0.69	-1.500			
0.6377	40810.22	3.4730	3.4729	-1.6734	26.37	0.70	-1.500			
0.6426	41128.62	3.4700	3.4701	-1.6467	26.38	0.71	-1.500			
0.6476	41443.69	3.4670	3.4669	-1.6236	26.39	0.72	-1.500			
0.6524	41753.05	3.4640	3.4640	-1.6015	26.40	0.73	-1.500			
0.6572	42057.66	3.4610	3.4610	-1.5803	26.41	0.74	-1.500			
0.6618	42355.49	3.4580	3.4581	-1.5528	26.42	0.75	-1.500			
0.6665	42655.89	3.4550	3.4550	-1.5418	26.44	0.77	-1.500			
0.6711	42948.85	3.4520	3.4521	-1.5226	26.45	0.78	-1.500			
0.6756	43239.20	3.4490	3.4489	-1.5062	26.46	0.79	-1.500			
0.6801	43527.02	3.4460	3.4460	-1.4865	26.48	0.81	-1.500			
0.6845	43810.94	3.4430	3.4430	-1.4653	26.49	0.82	-1.500			
0.6889	44090.31	3.4400	3.4400	-1.4493	26.51	0.84	-1.500			
0.6933	44368.26	3.4370	3.4370	-1.4320	26.52	0.85	-1.500			
0.6975	44639.85	3.4340	3.4340	-1.4142	26.53	0.86	-1.500			
0.7017	44909.29	3.4310	3.4310	-1.3981	26.55	0.88	-1.500			
0.7059	45176.80	3.4280	3.4280	-1.3856	26.56	0.89	-1.500			
0.7100	45442.92	3.4250	3.4250	-1.3690	26.57	0.90	-1.500			
0.7141	45704.44	3.4220	3.4220	-1.3535	26.59	0.92	-1.500			
0.7182	45962.48	3.4190	3.4191	-1.3322	26.60	0.93	-1.500			
0.7221	46216.60	3.4160	3.4160	-1.3128	26.62	0.95	-1.500			
0.7260	46465.90	3.4130	3.4130	-1.2926	26.63	0.96	-1.500			
0.7299	46712.20	3.4100	3.4100	-1.2764	26.65	0.98	-1.500			
0.7337	46957.49	3.4070	3.4069	-1.2473	26.67	1.00	-1.500			
0.7375	47197.77	3.4040	3.4040	-1.2241	26.68	1.01	-1.500			
0.7411	47430.80	3.4010	3.4011	-1.1876	26.70	1.03	-1.500			
0.7446	47657.06	3.3980	3.3980	-1.1551	26.71	1.04	-1.500			
0.7480	47874.58	3.3950	3.3949	-1.1168	26.72	1.05	-1.500			
0.7513	48082.97	3.3920	3.3920	-1.0766	26.74	1.07	-1.500			
0.7545	48286.63	3.3890	3.3889	-1.0459	26.75	1.08	-1.500			
0.7576	48485.51	3.3860	3.3860	-1.0089	26.77	1.10	-1.500			
0.7606	48675.72	3.3830	3.3829	-0.9707	26.78	1.11	-1.500			
0.7634	48858.75	3.3800	3.3801	-0.9346	26.80	1.13	-1.500			
0.7662	49033.82	3.3770	3.3769	-0.8961	26.81	1.14	-1.500			
0.7688	49201.58	3.3740	3.3740	-0.8632	26.81	1.14	-1.500			
0.7713	49361.96	3.3710	3.3710	-0.8304	26.82	1.15	-1.500			
0.7737	49518.05	3.3680	3.3680	-0.8038	26.83	1.16	-1.500			
0.7761	49671.29	3.3650	3.3650	-0.7801	26.84	1.17	-1.500			
0.7784	49818.56	3.3620	3.3620	-0.7559	26.85	1.18	-1.500			
0.7806	49961.01	3.3590	3.3590	-0.7323	26.86	1.19	-1.500			
0.7828	50099.15	3.3560	3.3560	-0.7083	26.87	1.20	-1.500			
0.7849	50232.84	3.3530	3.3530	-0.6847	26.88	1.21	-1.500			
0.7869	50361.07	3.3500	3.3500	-0.6646	26.89	1.22	-1.500			
0.7889	50487.37	3.3470	3.3470	-0.6429	26.89	1.22	-1.500			
0.7908	50609.06	3.3440	3.3439	-0.6221	26.90	1.23	-1.500			
0.7926	50725.91	3.3410	3.3411	-0.6025	26.91	1.24	-1.500			
0.7944	50839.08	3.3380	3.3380	-0.5849	26.92	1.25	-1.500			
0.7961	50949.45	3.3350	3.3349	-0.5712	26.93	1.26	-1.500			
0.7978	51056.91	3.3320	3.3320	-0.5542	26.94	1.27	-1.500			
0.7994	51162.31	3.3290	3.3290	-0.5390	26.95	1.28	-1.500			
0.8010	51264.55	3.3260	3.3261	-0.5261	26.96	1.29	-1.500			
0.8026	51364.08	3.3230	3.3230	-0.5117	26.96	1.29	-1.500			
0.8041	51460.58	3.3200	3.3199	-0.4976	26.97	1.30	-1.500			
0.8055	51554.18	3.3170	3.3170	-0.4820	26.98	1.31	-1.500			
0.8070	51645.23	3.3140	3.3140	-0.4710	26.98	1.31	-1.500			
0.8084	51735.11	3.3110	3.3111	-0.4619	26.99	1.32	-1.500			
0.8097	51822.76	3.3080	3.3080	-0.4497	27.00	1.33	-1.500			
0.8111	51907.32	3.3050	3.3049	-0.4366	27.00	1.33	-1.500			
0.8124	51990.45	3.3020	3.3020	-0.4274	27.01	1.34	-1.500			
0.8136	52071.67	3.2990	3.2990	-0.4153	27.02	1.35	-1.500			
0.8149	52150.69	3.2960	3.2959	-0.4036	27.02	1.35	-1.500			
0.8160	52226.42	3.2930	3.2931	-0.3911	27.03	1.36	-1.500			
0.8172	52300.24	3.2900	3.2900	-0.3822	27.03	1.36	-1.500			
0.8183	52372.73	3.2870	3.2870	-0.3721	27.04	1.37	-1.500			
0.8194	52442.54	3.2840	3.2840	-0.3640	27.05	1.38	-1.500			
0.8205	52511.47	3.2810	3.2811	-0.3547	27.05	1.38	-1.500			
0.8216	52579.25	3.2780	3.2780	-0.3494	27.06	1.39	-1.500			
0.8226	52645.39	3.2750	3.2750	-0.3417	27.06	1.39	-1.500			
0.8236	52710.21	3.2720	3.2720	-0.3343	27.07	1.40	-1.500			
0.8246	52773.76	3.2690	3.2691	-0.3273	27.08	1.41	-1.500			
0.8256	52836.66	3.2660	3.2660	-0.3203	27.08	1.41	-1.500			
0.8265	52897.16	3.2630	3.2630	-0.3118	27.09	1.42	-1.500			
0.8274	52956.23	3.2600	3.2600	-0.3067	27.09	1.42	-1.500			
0.8283	53013.73	3.2570	3.2571	-0.3000	27.10	1.43	-1.500			
0.8292	53070.63	3.2540	3.2539	-0.2947	27.10	1.43	-1.500			
0.8301	53126.63	3.2510	3.2510	-0.2899	27.11	1.44	-1.500			
0.8310	53182.01	3.2480	3.2480	-0.2845	27.11	1.44	-1.500			
0.8318	53236.32	3.2450	3.2449	-0.2791	27.12	1.45	-1.500			
0.8327	53289.66	3.2420	3.2420	-0.2735	27.12	1.45	-1.500			
0.8335	53341.15	3.2390	3.2390	-0.2688	27.13	1.46	-1.500			
0.8343	53392.30	3.2360	3.2360	-0.2630	27.13	1.46	-1.500			
0.8350	53442.23	3.2330	3.2329	-0.2594	27.14	1.47	-1.500			
0.8358	53491.17	3.2300	3.2301	-0.2559	27.14	1.47	-1.500			
0.8366	53540.34	3.2270	3.2270	-0.2520	27.15	1.48	-1.500			
0.8373	53588.24	3.2240	3.2240	-0.2481	27.15	1.48	-1.500			
0.8381	53635.69	3.2210	3.2210	-0.2444	27.16	1.49	-1.500			
0.8388	53682.18	3.2180	3.2181	-0.2396	27.16	1.49	-1.500			
0.8395	53727.77	3.2150	3.2150	-0.2379	27.17	1.50	-1.500			
0.8402	53772.70	3.2120	3.2120	-0.2326	27.17	1.50	-1.500			
0.8409	53817.09	3.2090	3.2089	-0.2298	27.17	1.50	-1.500			
0.8416	53860.77	3.2060	3.2059	-0.2267	27.18	1.51	-1.500			
0.8423	53904.28	3.2030	3.2033	-0.2247	27.18	1.51	-1.500			
0.8429	53947.02	3.2000	3.2000	-0.2216	27.19	1.52	-1.500			
0.8436	53989.32	3.1970	3.1969	-0.2190	27.19	1.52	-1.500			
0.8442	54031.39	3.1940	3.1940	-0.2160	27.20	1.53	-1.500			
0.8449	54071.96	3.1910	3.1910	-0.2129	27.20	1.53	-1.500			
0.8455	54112.98	3.1880	3.1880	-0.2113	27.21	1.54	-1.500			
0.8461	54153.28	3.1850	3.1849	-0.2086	27.22	1.55	-1.500			
0.8468	54192.95	3.1820	3.1820	-0.2061	27.22	1.55	-1.500			
0.8474	54232.15	3.1790	3.1791	-0.2037	27.23	1.56	-1.500			
0.8480	54271.15	3.1760	3.1759	-0.2015	27.23	1.56	-1.500			
0.8486	54309.63	3.1730	3.1730	-0.1993	27.24	1.57	-1.500			
0.8492	54347.91	3.1700	3.1699	-0.1966	27.24	1.57	-1.500			
0.8498	54385.13	3.1670	3.1670	-0.1942	27.25	1.58	-1.500			
0.8503	54422.14	3.1640	3.1640	-0.1923	27.25	1.58	-1.500			
0.8509	54458.87	3.1610	3.1610	-0.1903	27.26	1.59	-1.500			
0.8515	54495.01	3.1580	3.1580	-0.1888	27.27	1.60	-1.500			
0.8520	54530.88	3.1550	3.1550	-0.1876	27.27	1.60	-1.500			
0.8526	54567.05	3.1520	3.1520	-0.1861	27.28	1.61	-1.500			
0.8532	54602.64	3.1490	3.1490	-0.1846	27.28	1.61	-1.500			
0.8537	54638.21	3.1460	3.1460	-0.1828	27.29	1.62	-1.500			
0.8543	54673.09	3.1430	3.1431	-0.1811	27.29	1.62	-1.500			
0.8548	54707.61	3.1400	3.1401	-0.1794	27.30	1.63	-1.500			
0.8553	54741.88	3.1370	3.1368	-0.1776	27.30	1.63	-1.500			
0.8559	54775.62	3.1340	3.1340	-0.1763	27.31	1.64	-1.500			
0.8564	54809.29	3.1310	3.1310	-0.1743	27.31	1.64	-1.500			
0.8569	54842.99	3.1280	3.1279	-0.1730	27.32	1.65	-1.500			
0.8574	54876.01	3.1250	3.1251	-0.1709	27.32	1.65	-1.500			
0.8579	54908.49	3.1220	3.1220	-0.1704	27.33	1.66	-1.500			
0.8585	54940.89	3.1190	3.1190	-0.1692	27.33	1.66	-1.500			
0.8590	54973.46	3.1160	3.1158	-0.1675	27.34	1.67	-1.500			
0.8595	55005.50	3.1130	3.1130	-0.1662	27.34	1.67	-1.500			
0.8600	55037.21	3.1100	3.1101	-0.1654	27.35	1.68	-1.500			
0.8605	55069.11	3.1070	3.1070	-0.1646	27.35	1.68	-1.500			
0.8609	55100.63	3.1040	3.1040	-0.1635	27.36	1.69	-1.500			
0.8614	55131.87	3.1010	3.1009	-0.1619	27.36	1.69	-1.500			
0.8619	55162.35	3.0980	3.0980	-0.1606	27.37	1.70	-1.500			
0.8624	55193.32	3.0950	3.0949	-0.1595	27.37	1.70	-1.500			
0.8629	55224.14	3.0920	3.0920	-0.1588	27.38	1.71	-1.500			
0.8634	55254.45	3.0890	3.0889	-0.1570	27.38	1.71	-1.500			
0.8638	55284.34	3.0860	3.0861	-0.1549	27.39	1.72	-1.500			
0.8643	55313.88	3.0830	3.0830	-0.1539	27.39	1.72	-1.500			
0.8647	55343.03	3.0800	3.0801	-0.1527	27.40	1.73	-1.500			
0.8652	55372.28	3.0770	3.0769	-0.1520	27.40	1.73	-1.500			
0.8656	55401.14	3.0740	3.0739	-0.1511	27.40	1.73	-1.500			
0.8661	55430.37	3.0710	3.0710	-0.1501	27.41	1.74	-1.500			
0.8665	55459.03	3.0680	3.0682	-0.1495	27.41	1.74	-1.500			
0.8670	55487.67	3.0650	3.0649	-0.1487	27.42	1.75	-1.500			
0.8674	55516.31	3.0620	3.0621	-0.1479	27.42	1.75	-1.500			
0.8679	55544.31	3.0590	3.0589	-0.1473	27.43	1.76	-1.500			
0.8683	55572.64	3.0560	3.0561	-0.1460	27.43	1.76	-1.500			
0.8688	55600.59	3.0530	3.0530	-0.1452	27.44	1.77	-1.500			
0.8692	55628.49	3.0500	3.0500	-0.1446	27.44	1.77	-1.500			
0.8696	55656.26	3.0470	3.0471	-0.1445	27.45	1.78	-1.500			
0.8701	55683.95	3.0440	3.0439	-0.1429	27.46	1.79	-1.500			
0.8705	55711.28	3.0410	3.0409	-0.1419	27.46	1.79	-1.500			
0.8709	55738.42	3.0380	3.0380	-0.1416	27.47	1.80	-1.500			
0.8713	55765.45	3.0350	3.0351	-0.1405	27.47	1.80	-1.500			
0.8718	55792.70	3.0320	3.0318	-0.1401	27.48	1.81	-1.500			
0.8722	55819.48	3.0290	3.0290	-0.1388	27.49	1.82	-1.500			
0.8726	55845.80	3.0260	3.0261	-0.1382	27.49	1.82	-1.500			
0.8730	55872.35	3.0230	3.0230	-0.1367	27.50	1.83	-1.500			
0.8734	55898.84	3.0200	3.0200	-0.1360	27.51	1.84	-1.500			
0.8738	55924.70	3.0170	3.0169	-0.1349	27.51	1.84	-1.500			
0.8742	55950.00	3.0140	3.0142	-0.1346	27.52	1.85	-1.500			
0.8746	55975.76	3.0110	3.0110	-0.1345	27.52	1.85	-1.500			
0.8750	56001.35	3.0080	3.0079	-0.1349	27.53	1.86	-1.500			
0.8754	56027.33	3.0050	3.0049	-0.1357	27.54	1.87	-1.500			
0.8758	56053.92	3.0020	3.0020	-0.1440	27.54	1.87	-1.499			
