Ah_balance (normalized)	Ah_balance (mAh)	Voltage - fit (V)	Voltage -  interpolate (V)	dQ/dV (1/V)	Temperature (°C)	Temperature - diff (°C)	Current (C)	R_DC 0ms (mOhm)	R_DC 50ms (mOhm)	R_DC 50 ms PEC (mOhm)
0.2979	19066.62	3.9730	3.9730	0.8439	27.25	1.30	1.500			
0.3005	19231.03	3.9700	3.9700	0.8658	27.24	1.29	1.500			
0.3031	19400.63	3.9670	3.9670	0.8775	27.24	1.29	1.500			
0.3058	19568.77	3.9640	3.9640	0.8793	27.23	1.28	1.500			
0.3084	19737.72	3.9610	3.9611	0.8847	27.23	1.28	1.500			
0.3111	19908.23	3.9580	3.9580	0.8850	27.23	1.28	1.500			
0.3137	20078.08	3.9550	3.9549	0.8846	27.22	1.27	1.500			
0.3164	20246.55	3.9520	3.9520	0.8925	27.22	1.27	1.500			
0.3190	20418.00	3.9490	3.9491	0.8976	27.21	1.26	1.500			
0.3217	20591.82	3.9460	3.9459	0.9038	27.21	1.26	1.500			
0.3245	20765.82	3.9430	3.9430	0.9058	27.20	1.25	1.500			
0.3272	20940.26	3.9400	3.9400	0.9125	27.20	1.25	1.500			
0.3299	21116.70	3.9370	3.9370	0.9193	27.20	1.25	1.500			
0.3327	21292.84	3.9340	3.9339	0.9235	27.19	1.24	1.500			
0.3355	21469.88	3.9310	3.9310	0.9187	27.19	1.24	1.500			
0.3382	21647.14	3.9280	3.9280	0.9281	27.18	1.23	1.500			
0.3410	21825.65	3.9250	3.9251	0.9347	27.18	1.23	1.500			
0.3438	22005.33	3.9220	3.9219	0.9400	27.17	1.22	1.500			
0.3466	22184.65	3.9190	3.9190	0.9465	27.17	1.22	1.500			
0.3495	22368.19	3.9160	3.9160	0.9525	27.16	1.21	1.500			
0.3524	22551.78	3.9130	3.9130	0.9608	27.16	1.21	1.500			
0.3553	22738.02	3.9100	3.9100	0.9700	27.15	1.20	1.500			
0.3582	22923.86	3.9070	3.9070	0.9726	27.15	1.20	1.500			
0.3611	23111.35	3.9040	3.9040	0.9802	27.15	1.20	1.500			
0.3641	23300.19	3.9010	3.9010	0.9894	27.14	1.19	1.500			
0.3670	23490.43	3.8980	3.8980	0.9967	27.14	1.19	1.500			
0.3701	23683.31	3.8950	3.8950	1.0080	27.13	1.18	1.500			
0.3731	23876.35	3.8920	3.8920	1.0164	27.12	1.17	1.500			
0.3761	24072.68	3.8890	3.8891	1.0281	27.12	1.17	1.500			
0.3792	24271.73	3.8860	3.8860	1.0384	27.11	1.16	1.500			
0.3824	24471.58	3.8830	3.8829	1.0488	27.10	1.15	1.500			
0.3855	24673.44	3.8800	3.8801	1.0568	27.09	1.14	1.500			
0.3887	24877.47	3.8770	3.8770	1.0684	27.09	1.14	1.500			
0.3919	25083.99	3.8740	3.8740	1.0770	27.08	1.13	1.500			
0.3952	25291.76	3.8710	3.8709	1.0870	27.07	1.12	1.500			
0.3984	25499.81	3.8680	3.8681	1.1005	27.06	1.11	1.500			
0.4018	25712.68	3.8650	3.8649	1.1142	27.06	1.11	1.500			
0.4051	25927.68	3.8620	3.8620	1.1305	27.05	1.10	1.500			
0.4086	26147.28	3.8590	3.8590	1.1463	27.04	1.09	1.500			
0.4120	26368.04	3.8560	3.8560	1.1609	27.03	1.08	1.500			
0.4155	26593.00	3.8530	3.8531	1.1770	27.02	1.07	1.500			
0.4191	26819.23	3.8500	3.8500	1.1964	27.01	1.06	1.500			
0.4227	27050.22	3.8470	3.8470	1.2135	27.01	1.06	1.500			
0.4263	27284.48	3.8440	3.8440	1.2332	27.00	1.05	1.500			
0.4300	27522.00	3.8410	3.8411	1.2557	26.99	1.04	1.500			
0.4338	27765.57	3.8380	3.8380	1.2788	26.98	1.03	1.500			
0.4377	28012.78	3.8350	3.8349	1.3044	26.98	1.03	1.500			
0.4416	28265.46	3.8320	3.8321	1.3268	26.97	1.02	1.500			
0.4457	28521.71	3.8290	3.8288	1.3531	26.96	1.01	1.500			
0.4498	28786.00	3.8260	3.8261	1.3810	26.95	1.00	1.500			
0.4540	29053.41	3.8230	3.8230	1.4052	26.94	0.99	1.500			
0.4582	29322.58	3.8200	3.8200	1.4370	26.92	0.97	1.500			
0.4625	29598.63	3.8170	3.8171	1.4677	26.91	0.96	1.500			
0.4670	29885.45	3.8140	3.8139	1.5061	26.90	0.95	1.500			
0.4716	30179.74	3.8110	3.8110	1.5436	26.89	0.94	1.500			
0.4762	30479.26	3.8080	3.8080	1.5795	26.87	0.92	1.500			
0.4810	30786.71	3.8050	3.8050	1.6179	26.86	0.91	1.500			
0.4859	31100.08	3.8020	3.8020	1.6582	26.84	0.89	1.500			
0.4909	31417.99	3.7990	3.7990	1.6946	26.83	0.88	1.500			
0.4960	31746.83	3.7960	3.7959	1.7483	26.81	0.86	1.500			
0.5014	32087.61	3.7930	3.7931	1.8036	26.79	0.84	1.500			
0.5069	32440.38	3.7900	3.7900	1.8628	26.78	0.83	1.500			
0.5126	32804.29	3.7870	3.7870	1.9162	26.76	0.81	1.500			
0.5183	33173.89	3.7840	3.7840	1.9635	26.75	0.80	1.500			
0.5244	33561.85	3.7810	3.7810	1.9973	26.73	0.78	1.500			
0.5304	33947.94	3.7780	3.7780	2.0263	26.71	0.76	1.500			
0.5366	34341.22	3.7750	3.7750	2.0800	26.69	0.74	1.500			
0.5429	34744.79	3.7720	3.7719	2.1198	26.67	0.72	1.500			
0.5493	35155.34	3.7690	3.7691	2.1674	26.65	0.70	1.500			
0.5559	35578.96	3.7660	3.7660	2.1929	26.63	0.68	1.500			
0.5626	36004.65	3.7630	3.7630	2.1943	26.61	0.66	1.500	0.362	0.461	
0.5693	36432.91	3.7600	3.7599	2.2054	26.58	0.63	1.500			
0.5758	36852.45	3.7570	3.7570	2.1839	26.56	0.61	1.500			
0.5823	37269.61	3.7540	3.7540	2.1500	26.54	0.59	1.500			
0.5888	37680.79	3.7510	3.7510	2.1180	26.52	0.57	1.500			
0.5950	38080.33	3.7480	3.7479	2.0922	26.50	0.55	1.500			
0.6012	38478.63	3.7450	3.7450	2.0772	26.49	0.54	1.500			
0.6074	38873.81	3.7420	3.7420	2.0469	26.47	0.52	1.500			
0.6135	39265.53	3.7390	3.7391	2.0393	26.46	0.51	1.500			
0.6196	39655.23	3.7360	3.7359	2.0563	26.44	0.49	1.500			
0.6258	40049.69	3.7330	3.7330	2.0768	26.43	0.48	1.500			
0.6320	40447.72	3.7300	3.7300	2.1118	26.41	0.46	1.500			
0.6385	40860.93	3.7270	3.7270	2.1644	26.40	0.45	1.500			
0.6449	41276.45	3.7240	3.7240	2.2111	26.38	0.43	1.500			
0.6517	41707.12	3.7210	3.7210	2.2666	26.37	0.42	1.500			
0.6585	42146.86	3.7180	3.7180	2.3467	26.35	0.40	1.500			
0.6657	42605.32	3.7150	3.7150	2.4242	26.33	0.38	1.500			
0.6731	43078.49	3.7120	3.7120	2.5108	26.31	0.36	1.500			
0.6808	43568.45	3.7090	3.7090	2.5621	26.30	0.35	1.500			
0.6886	44068.56	3.7060	3.7060	2.6371	26.28	0.33	1.500			
0.6966	44585.29	3.7030	3.7029	2.7238	26.26	0.31	1.500			
0.7050	45120.17	3.7000	3.7000	2.7439	26.24	0.29	1.500			
0.7134	45659.88	3.6970	3.6970	2.7414	26.22	0.27	1.500			
0.7217	46189.95	3.6940	3.6940	2.6636	26.20	0.25	1.500			
0.7296	46694.07	3.6910	3.6910	2.4937	26.19	0.24	1.500			
0.7369	47160.61	3.6880	3.6881	2.3203	26.18	0.23	1.500			
0.7434	47580.10	3.6850	3.6849	2.0907	26.17	0.22	1.500			
0.7493	47955.80	3.6820	3.6821	1.9103	26.16	0.21	1.500			
0.7547	48301.36	3.6790	3.6790	1.7594	26.16	0.21	1.500			
0.7597	48622.56	3.6760	3.6760	1.6518	26.15	0.20	1.500			
0.7644	48923.18	3.6730	3.6731	1.5458	26.14	0.19	1.500			
0.7689	49211.44	3.6700	3.6699	1.4707	26.13	0.18	1.500			
0.7732	49484.98	3.6670	3.6670	1.4024	26.13	0.18	1.500			
0.7773	49744.95	3.6640	3.6641	1.3422	26.12	0.17	1.500			
0.7812	49994.09	3.6610	3.6610	1.2988	26.12	0.17	1.500			
0.7849	50234.16	3.6580	3.6580	1.2692	26.11	0.16	1.500			
0.7886	50469.66	3.6550	3.6550	1.2426	26.11	0.16	1.500			
0.7923	50705.05	3.6520	3.6520	1.2485	26.10	0.15	1.500			
0.7960	50943.41	3.6490	3.6490	1.2540	26.10	0.15	1.500			
0.7998	51186.30	3.6460	3.6460	1.2691	26.09	0.14	1.500			
0.8036	51429.63	3.6430	3.6430	1.2852	26.08	0.13	1.500			
0.8075	51679.99	3.6400	3.6401	1.2981	26.07	0.12	1.500			
0.8114	51931.03	3.6370	3.6370	1.3044	26.06	0.11	1.500			
0.8154	52184.65	3.6340	3.6339	1.3124	26.05	0.10	1.500			
0.8193	52436.66	3.6310	3.6310	1.3077	26.04	0.09	1.500			
0.8232	52687.65	3.6280	3.6280	1.3080	26.03	0.08	1.500			
0.8271	52937.28	3.6250	3.6250	1.3063	26.02	0.07	1.500			
0.8311	53190.57	3.6220	3.6220	1.3037	26.01	0.06	1.500			
0.8350	53440.22	3.6190	3.6190	1.3019	26.01	0.06	1.500			
0.8389	53689.26	3.6160	3.6160	1.2954	26.00	0.05	1.500			
0.8428	53938.03	3.6130	3.6130	1.2917	25.99	0.04	1.500			
0.8467	54186.82	3.6100	3.6100	1.2858	25.98	0.03	1.500			
0.8505	54432.97	3.6070	3.6070	1.2715	25.98	0.03	1.500			
0.8543	54677.05	3.6040	3.6040	1.2580	25.97	0.02	1.500			
0.8581	54919.58	3.6010	3.6010	1.2371	25.97	0.02	1.500			
0.8618	55154.59	3.5980	3.5980	1.2193	25.97	0.02	1.500			
0.8654	55385.24	3.5950	3.5951	1.2058	25.96	0.01	1.500			
0.8690	55613.88	3.5920	3.5920	1.1889	25.96	0.01	1.500			
0.8725	55839.74	3.5890	3.5890	1.1818	25.96	0.01	1.500			
0.8760	56065.12	3.5860	3.5860	1.1779	25.96	0.01	1.500			
0.8795	56289.58	3.5830	3.5831	1.1794	25.96	0.01	1.500			
0.8831	56518.16	3.5800	3.5799	1.1827	25.95	0.00	1.500			
0.8867	56750.28	3.5770	3.5769	1.1592	25.95	0.00	1.500			
0.8903	56978.05	3.5740	3.5739	1.1172	25.95	0.00	1.500			
0.8938	57205.14	3.5710	3.5710	1.0420	25.95	0.00	1.500			
0.8969	57401.95	3.5680	3.5682	0.9257	25.95	-0.00	1.500			
0.8996	57572.30	3.5650	3.5652	0.7985	25.95	-0.00	1.500			
0.9017	57708.69	3.5620	3.5620	0.6542	25.95	-0.00	1.500			
0.9032	57807.77	3.5590	3.5591	0.5245	25.95	-0.00	1.500			
0.9046	57894.29	3.5560	3.5558	0.4171	25.95	-0.00	1.500			
0.9056	57958.72	3.5530	3.5531	0.3417	25.95	-0.00	1.500			
0.9065	58015.02	3.5500	3.5499	0.2899	25.95	-0.00	1.500			
0.9072	58061.51	3.5470	3.5470	0.2468	25.95	-0.00	1.500			
0.9079	58104.63	3.5440	3.5439	0.2149	25.95	-0.00	1.500			
0.9084	58140.49	3.5410	3.5409	0.1904	25.94	-0.01	1.500			
0.9090	58174.01	3.5380	3.5380	0.1714	25.94	-0.01	1.500			
0.9094	58204.68	3.5350	3.5351	0.1531	25.94	-0.01	1.500			
0.9099	58232.37	3.5320	3.5320	0.1381	25.94	-0.01	1.500			
0.9103	58257.20	3.5290	3.5291	0.1225	25.94	-0.01	1.500			
0.9106	58279.13	3.5260	3.5260	0.1074	25.94	-0.01	1.500			
0.9109	58298.05	3.5230	3.5232	0.0924	25.94	-0.01	1.500			
0.9112	58314.43	3.5200	3.5202	0.0783	25.94	-0.01	1.500			
0.9114	58328.50	3.5170	3.5173	0.0627	25.94	-0.01	1.500			
0.9115	58339.05	3.5140	3.5145	0.0472	25.94	-0.01	1.500			
