Ah_balance (normalized)	Ah_balance (mAh)	Voltage - fit (V)	Voltage -  interpolate (V)	dQ/dV (1/V)	Temperature (°C)	Temperature - diff (°C)	Current (C)	R_DC 0ms (mOhm)	R_DC 50ms (mOhm)	R_DC 50 ms PEC (mOhm)
0.2104	13467.24	3.9070	3.9069	-0.1269	25.97	-0.01	-1.500			
0.2109	13494.57	3.9040	3.9040	-0.1615	25.97	-0.01	-1.500			
0.2114	13529.67	3.9010	3.9010	-0.1970	25.97	-0.01	-1.500			
0.2121	13571.33	3.8980	3.8980	-0.2294	25.97	-0.01	-1.500			
0.2128	13618.58	3.8950	3.8950	-0.2618	25.97	-0.01	-1.500			
0.2136	13672.29	3.8920	3.8921	-0.2953	25.98	-0.00	-1.500			
0.2146	13731.65	3.8890	3.8890	-0.3287	25.98	-0.00	-1.500			
0.2156	13798.11	3.8860	3.8860	-0.3604	25.98	-0.00	-1.500			
0.2167	13870.23	3.8830	3.8830	-0.3930	25.98	-0.00	-1.500			
0.2180	13948.82	3.8800	3.8801	-0.4249	25.98	0.00	-1.500			
0.2193	14034.59	3.8770	3.8771	-0.4573	25.98	0.00	-1.500			
0.2207	14125.00	3.8740	3.8740	-0.4874	25.98	0.00	-1.500			
0.2222	14221.04	3.8710	3.8711	-0.5179	25.99	0.01	-1.500			
0.2238	14323.13	3.8680	3.8680	-0.5505	25.99	0.01	-1.500			
0.2255	14432.96	3.8650	3.8650	-0.5801	25.99	0.01	-1.500			
0.2273	14547.54	3.8620	3.8620	-0.6065	25.99	0.01	-1.500			
0.2292	14667.25	3.8590	3.8591	-0.6345	25.99	0.01	-1.500			
0.2311	14791.96	3.8560	3.8561	-0.6584	26.00	0.02	-1.500			
0.2331	14920.90	3.8530	3.8530	-0.6793	26.00	0.02	-1.500			
0.2352	15054.00	3.8500	3.8499	-0.6991	26.00	0.02	-1.500			
0.2373	15189.75	3.8470	3.8471	-0.7174	26.00	0.02	-1.500			
0.2395	15330.92	3.8440	3.8439	-0.7347	26.01	0.03	-1.500			
0.2418	15474.55	3.8410	3.8410	-0.7488	26.01	0.03	-1.500			
0.2441	15620.06	3.8380	3.8379	-0.7562	26.01	0.03	-1.500			
0.2464	15766.90	3.8350	3.8350	-0.7651	26.02	0.04	-1.500			
0.2487	15914.27	3.8320	3.8320	-0.7695	26.02	0.04	-1.500			
0.2510	16061.42	3.8290	3.8291	-0.7733	26.02	0.04	-1.500			
0.2533	16209.65	3.8260	3.8259	-0.7779	26.03	0.05	-1.500			
0.2556	16359.97	3.8230	3.8230	-0.7835	26.03	0.05	-1.500			
0.2580	16510.13	3.8200	3.8201	-0.7927	26.03	0.05	-1.500			
0.2604	16663.75	3.8170	3.8170	-0.8003	26.04	0.06	-1.500			
0.2628	16819.76	3.8140	3.8141	-0.8041	26.04	0.06	-1.500			
0.2652	16975.22	3.8110	3.8109	-0.8075	26.05	0.07	-1.500			
0.2677	17129.71	3.8080	3.8082	-0.8114	26.05	0.07	-1.500			
0.2701	17286.16	3.8050	3.8049	-0.8138	26.06	0.08	-1.500			
0.2725	17442.71	3.8020	3.8019	-0.8150	26.06	0.08	-1.500			
0.2750	17597.53	3.7990	3.7990	-0.8178	26.07	0.09	-1.500			
0.2774	17756.00	3.7960	3.7961	-0.8216	26.08	0.10	-1.500			
0.2799	17914.41	3.7930	3.7930	-0.8234	26.08	0.10	-1.500			
0.2824	18071.05	3.7900	3.7900	-0.8283	26.09	0.11	-1.500			
0.2848	18230.35	3.7870	3.7870	-0.8320	26.10	0.12	-1.500			
0.2874	18392.61	3.7840	3.7839	-0.8311	26.11	0.13	-1.500			
0.2899	18552.50	3.7810	3.7810	-0.8288	26.11	0.13	-1.500			
0.2924	18711.13	3.7780	3.7782	-0.8254	26.12	0.14	-1.500			
0.2948	18869.36	3.7750	3.7750	-0.8287	26.12	0.14	-1.500			
0.2973	19026.90	3.7720	3.7720	-0.8271	26.13	0.15	-1.500			
0.2998	19185.02	3.7690	3.7690	-0.8265	26.13	0.15	-1.500			
0.3023	19344.50	3.7660	3.7659	-0.8332	26.14	0.16	-1.500			
0.3048	19506.56	3.7630	3.7631	-0.8368	26.14	0.16	-1.500			
0.3073	19666.95	3.7600	3.7600	-0.8362	26.15	0.17	-1.500			
0.3098	19827.11	3.7570	3.7570	-0.8362	26.15	0.17	-1.500			
0.3123	19985.70	3.7540	3.7541	-0.8370	26.16	0.18	-1.500			
0.3148	20148.15	3.7510	3.7509	-0.8385	26.16	0.18	-1.500			
0.3173	20309.15	3.7480	3.7480	-0.8431	26.17	0.19	-1.500			
0.3199	20472.31	3.7450	3.7450	-0.8353	26.18	0.20	-1.500			
0.3224	20634.93	3.7420	3.7419	-0.8332	26.18	0.20	-1.500			
0.3249	20792.10	3.7390	3.7391	-0.8359	26.19	0.21	-1.500			
0.3273	20949.83	3.7360	3.7359	-0.8355	26.20	0.22	-1.500			
0.3299	21110.44	3.7330	3.7329	-0.8385	26.20	0.22	-1.500			
0.3324	21273.08	3.7300	3.7300	-0.8424	26.21	0.23	-1.500			
0.3349	21435.21	3.7270	3.7271	-0.8458	26.22	0.24	-1.500			
0.3375	21601.22	3.7240	3.7240	-0.8464	26.23	0.25	-1.500			
0.3401	21763.76	3.7210	3.7209	-0.8434	26.23	0.25	-1.500			
0.3425	21922.67	3.7180	3.7181	-0.8444	26.24	0.26	-1.500			
0.3450	22082.87	3.7150	3.7150	-0.8512	26.25	0.27	-1.500			
0.3476	22248.15	3.7120	3.7119	-0.8551	26.25	0.27	-1.500			
0.3502	22412.99	3.7090	3.7090	-0.8616	26.26	0.28	-1.500			
0.3528	22579.96	3.7060	3.7060	-0.8673	26.26	0.28	-1.500			
0.3554	22747.52	3.7030	3.7031	-0.8724	26.27	0.29	-1.500			
0.3580	22914.44	3.7000	3.6999	-0.8746	26.28	0.30	-1.500			
0.3607	23082.01	3.6970	3.6970	-0.8768	26.28	0.30	-1.500			
0.3633	23249.52	3.6940	3.6940	-0.8822	26.29	0.31	-1.500			
0.3659	23420.03	3.6910	3.6910	-0.8980	26.30	0.32	-1.500			
0.3686	23592.81	3.6880	3.6881	-0.9078	26.30	0.32	-1.500			
0.3714	23769.27	3.6850	3.6849	-0.9176	26.31	0.33	-1.500			
0.3742	23945.91	3.6820	3.6820	-0.9289	26.31	0.33	-1.500			
0.3769	24124.06	3.6790	3.6791	-0.9445	26.32	0.34	-1.500			
0.3798	24307.75	3.6760	3.6760	-0.9613	26.32	0.34	-1.500			
0.3827	24494.57	3.6730	3.6729	-0.9700	26.32	0.34	-1.500			
0.3856	24681.14	3.6700	3.6700	-0.9847	26.33	0.35	-1.500			
0.3886	24871.01	3.6670	3.6671	-1.0052	26.33	0.35	-1.500			
0.3917	25065.63	3.6640	3.6640	-1.0257	26.34	0.36	-1.500			
0.3947	25262.85	3.6610	3.6609	-1.0409	26.34	0.36	-1.500			
0.3979	25463.57	3.6580	3.6580	-1.0647	26.34	0.36	-1.500			
0.4011	25672.10	3.6550	3.6550	-1.0891	26.34	0.36	-1.500			
0.4044	25883.38	3.6520	3.6520	-1.1156	26.34	0.36	-1.500			
0.4078	26098.86	3.6490	3.6490	-1.1357	26.35	0.37	-1.500			
0.4112	26319.32	3.6460	3.6460	-1.1574	26.35	0.37	-1.500			
0.4148	26544.01	3.6430	3.6429	-1.1791	26.35	0.37	-1.500			
0.4183	26771.87	3.6400	3.6402	-1.2045	26.35	0.37	-1.500			
0.4219	27004.31	3.6370	3.6369	-1.2250	26.35	0.37	-1.500			
0.4257	27242.36	3.6340	3.6340	-1.2544	26.35	0.37	-1.500			
0.4295	27484.80	3.6310	3.6309	-1.2796	26.35	0.37	-1.500			
0.4334	27734.52	3.6280	3.6280	-1.3116	26.36	0.38	-1.500			
0.4373	27988.84	3.6250	3.6251	-1.3435	26.36	0.38	-1.500			
0.4414	28249.87	3.6220	3.6220	-1.3739	26.36	0.38	-1.500			
0.4456	28516.02	3.6190	3.6189	-1.4042	26.36	0.38	-1.500			
0.4498	28787.52	3.6160	3.6160	-1.4369	26.36	0.38	-1.500			
0.4542	29066.17	3.6130	3.6131	-1.4736	26.36	0.38	-1.500			
0.4587	29355.07	3.6100	3.6100	-1.4977	26.36	0.38	-1.500			
0.4632	29647.07	3.6070	3.6070	-1.5308	26.36	0.38	-1.500			
0.4678	29942.36	3.6040	3.6042	-1.5591	26.36	0.38	-1.500			
0.4726	30243.95	3.6010	3.6009	-1.5869	26.36	0.38	-1.500			
0.4774	30551.35	3.5980	3.5979	-1.6161	26.35	0.37	-1.500			
0.4822	30863.12	3.5950	3.5949	-1.6386	26.35	0.37	-1.500			
0.4873	31184.56	3.5920	3.5921	-1.6710	26.34	0.36	-1.500			
0.4923	31506.59	3.5890	3.5892	-1.7007	26.34	0.36	-1.500			
0.4974	31833.61	3.5860	3.5859	-1.7230	26.34	0.36	-1.500			
0.5026	32167.98	3.5830	3.5830	-1.7568	26.33	0.35	-1.500			
0.5080	32508.89	3.5800	3.5800	-1.7756	26.33	0.35	-1.500			
0.5134	32855.73	3.5770	3.5770	-1.8034	26.32	0.34	-1.500			
0.5188	33203.52	3.5740	3.5741	-1.8177	26.32	0.34	-1.500			
0.5243	33553.54	3.5710	3.5710	-1.8518	26.32	0.34	-1.500			
0.5298	33909.12	3.5680	3.5679	-1.8691	26.32	0.34	-1.500			
0.5354	34268.31	3.5650	3.5650	-1.8932	26.32	0.34	-1.500			
0.5412	34638.04	3.5620	3.5621	-1.9306	26.32	0.34	-1.500			
0.5471	35013.07	3.5590	3.5590	-1.9504	26.32	0.34	-1.500			
0.5530	35389.93	3.5560	3.5560	-1.9831	26.32	0.34	-1.500			
0.5590	35774.22	3.5530	3.5530	-2.0014	26.32	0.34	-1.500			
0.5651	36164.29	3.5500	3.5499	-2.0238	26.32	0.34	-1.500			
0.5711	36553.36	3.5470	3.5469	-2.0391	26.32	0.34	-1.500	0.394	0.499	
0.5773	36948.32	3.5440	3.5439	-2.0480	26.32	0.34	-1.500			
0.5835	37342.22	3.5410	3.5408	-2.0582	26.32	0.34	-1.500			
0.5896	37736.61	3.5380	3.5381	-2.0559	26.32	0.34	-1.500			
0.5959	38138.51	3.5350	3.5349	-2.0733	26.32	0.34	-1.500			
0.6022	38538.13	3.5320	3.5319	-2.0669	26.33	0.35	-1.500			
0.6083	38930.14	3.5290	3.5291	-2.0508	26.33	0.35	-1.500			
0.6144	39322.77	3.5260	3.5260	-2.0478	26.34	0.36	-1.500			
0.6207	39721.86	3.5230	3.5230	-2.0303	26.34	0.36	-1.500			
0.6267	40106.83	3.5200	3.5200	-2.0094	26.35	0.37	-1.500			
0.6327	40493.46	3.5170	3.5171	-1.9902	26.35	0.37	-1.500			
0.6386	40871.19	3.5140	3.5139	-1.9761	26.36	0.38	-1.500			
0.6445	41248.06	3.5110	3.5111	-1.9542	26.36	0.38	-1.500			
0.6503	41621.08	3.5080	3.5079	-1.9465	26.37	0.39	-1.500			
0.6562	41998.63	3.5050	3.5050	-1.9356	26.38	0.40	-1.500			
0.6620	42368.40	3.5020	3.5020	-1.9099	26.39	0.41	-1.500			
0.6677	42735.67	3.4990	3.4992	-1.8872	26.40	0.42	-1.500			
0.6733	43093.63	3.4960	3.4960	-1.8644	26.41	0.43	-1.500			
0.6789	43446.59	3.4930	3.4930	-1.8404	26.42	0.44	-1.500			
0.6844	43798.60	3.4900	3.4900	-1.8218	26.43	0.45	-1.500			
0.6898	44147.30	3.4870	3.4870	-1.8060	26.44	0.46	-1.500			
0.6952	44492.66	3.4840	3.4840	-1.7891	26.45	0.47	-1.500			
0.7005	44834.93	3.4810	3.4810	-1.7780	26.46	0.48	-1.500			
0.7059	45175.95	3.4780	3.4780	-1.7582	26.47	0.49	-1.500			
0.7111	45512.33	3.4750	3.4749	-1.7247	26.48	0.50	-1.500			
0.7163	45843.94	3.4720	3.4720	-1.6982	26.50	0.52	-1.500			
0.7214	46167.37	3.4690	3.4690	-1.6702	26.51	0.53	-1.500			
0.7263	46484.00	3.4660	3.4660	-1.6427	26.52	0.54	-1.500			
0.7311	46793.35	3.4630	3.4629	-1.6121	26.53	0.55	-1.500			
0.7359	47099.40	3.4600	3.4600	-1.5866	26.54	0.56	-1.500			
0.7407	47404.07	3.4570	3.4571	-1.5734	26.56	0.58	-1.500			
0.7454	47705.46	3.4540	3.4538	-1.5516	26.57	0.59	-1.500			
0.7500	48001.84	3.4510	3.4510	-1.5268	26.58	0.60	-1.500			
0.7545	48291.07	3.4480	3.4480	-1.5097	26.60	0.62	-1.500			
0.7590	48576.56	3.4450	3.4450	-1.4890	26.61	0.63	-1.500			
0.7635	48864.17	3.4420	3.4420	-1.4728	26.63	0.65	-1.500			
0.7679	49143.73	3.4390	3.4391	-1.4640	26.64	0.66	-1.500			
0.7722	49420.93	3.4360	3.4361	-1.4574	26.66	0.68	-1.500			
0.7766	49701.77	3.4330	3.4329	-1.4638	26.68	0.70	-1.500			
0.7810	49983.87	3.4300	3.4299	-1.4581	26.70	0.72	-1.500			
0.7854	50265.46	3.4270	3.4270	-1.4535	26.72	0.74	-1.500			
0.7898	50545.70	3.4240	3.4241	-1.4404	26.74	0.76	-1.500			
0.7941	50824.65	3.4210	3.4210	-1.4312	26.76	0.78	-1.500			
0.7984	51095.76	3.4180	3.4180	-1.4042	26.78	0.80	-1.500			
0.8025	51361.43	3.4150	3.4149	-1.3695	26.80	0.82	-1.500			
0.8066	51623.45	3.4120	3.4120	-1.3532	26.81	0.83	-1.500			
0.8107	51884.22	3.4090	3.4090	-1.3214	26.83	0.85	-1.500			
0.8146	52137.02	3.4060	3.4060	-1.2853	26.85	0.87	-1.500			
0.8185	52381.21	3.4030	3.4031	-1.2387	26.87	0.89	-1.500			
0.8221	52614.30	3.4000	3.4000	-1.1904	26.88	0.90	-1.500			
0.8256	52838.81	3.3970	3.3970	-1.1418	26.90	0.92	-1.500			
0.8289	53052.45	3.3940	3.3941	-1.0947	26.92	0.94	-1.500			
0.8321	53256.11	3.3910	3.3910	-1.0452	26.93	0.95	-1.500			
0.8352	53453.18	3.3880	3.3880	-1.0060	26.95	0.97	-1.500			
0.8381	53641.59	3.3850	3.3850	-0.9625	26.96	0.98	-1.500			
0.8410	53822.16	3.3820	3.3821	-0.9210	26.97	0.99	-1.500			
0.8437	53994.69	3.3790	3.3790	-0.8841	26.99	1.01	-1.500			
0.8463	54160.65	3.3760	3.3760	-0.8500	27.00	1.02	-1.500			
0.8487	54318.19	3.3730	3.3729	-0.8158	27.01	1.03	-1.500			
0.8511	54472.68	3.3700	3.3700	-0.7877	27.02	1.04	-1.500			
0.8534	54619.39	3.3670	3.3671	-0.7604	27.03	1.05	-1.500			
0.8557	54764.40	3.3640	3.3639	-0.7353	27.04	1.06	-1.500			
0.8579	54903.22	3.3610	3.3610	-0.7076	27.04	1.06	-1.500			
0.8599	55034.31	3.3580	3.3579	-0.6823	27.05	1.07	-1.500			
0.8619	55163.77	3.3550	3.3551	-0.6628	27.06	1.08	-1.500			
0.8639	55289.80	3.3520	3.3518	-0.6367	27.07	1.09	-1.500			
0.8658	55409.54	3.3490	3.3490	-0.6161	27.08	1.10	-1.500			
0.8676	55524.86	3.3460	3.3462	-0.5931	27.09	1.11	-1.500			
0.8693	55637.04	3.3430	3.3430	-0.5772	27.10	1.12	-1.500			
0.8710	55744.83	3.3400	3.3399	-0.5599	27.11	1.13	-1.500			
0.8727	55849.63	3.3370	3.3370	-0.5433	27.11	1.13	-1.500			
0.8743	55954.64	3.3340	3.3339	-0.5324	27.12	1.14	-1.500			
0.8759	56055.90	3.3310	3.3311	-0.5146	27.13	1.15	-1.500			
0.8774	56153.02	3.3280	3.3280	-0.4962	27.14	1.16	-1.500			
0.8789	56247.16	3.3250	3.3250	-0.4787	27.14	1.16	-1.500			
0.8803	56336.41	3.3220	3.3220	-0.4594	27.15	1.17	-1.500			
0.8816	56422.26	3.3190	3.3190	-0.4445	27.15	1.17	-1.500			
0.8829	56506.34	3.3160	3.3160	-0.4301	27.16	1.18	-1.500			
0.8842	56587.20	3.3130	3.3130	-0.4167	27.17	1.19	-1.500			
0.8854	56665.69	3.3100	3.3099	-0.4058	27.17	1.19	-1.500			
0.8866	56742.51	3.3070	3.3070	-0.3921	27.18	1.20	-1.500			
0.8878	56817.09	3.3040	3.3039	-0.3808	27.18	1.20	-1.500			
0.8889	56889.11	3.3010	3.3011	-0.3673	27.19	1.21	-1.500			
0.8900	56958.29	3.2980	3.2980	-0.3538	27.19	1.21	-1.500			
0.8910	57025.19	3.2950	3.2949	-0.3423	27.19	1.21	-1.500			
0.8920	57089.27	3.2920	3.2919	-0.3284	27.19	1.21	-1.500			
0.8930	57150.50	3.2890	3.2890	-0.3179	27.19	1.21	-1.500			
0.8939	57210.91	3.2860	3.2860	-0.3084	27.20	1.22	-1.500			
0.8948	57269.01	3.2830	3.2829	-0.2977	27.21	1.23	-1.500			
0.8957	57325.30	3.2800	3.2800	-0.2889	27.21	1.23	-1.500			
0.8966	57379.88	3.2770	3.2771	-0.2797	27.22	1.24	-1.500			
0.8974	57432.33	3.2740	3.2740	-0.2707	27.22	1.24	-1.500			
0.8982	57483.64	3.2710	3.2708	-0.2629	27.23	1.25	-1.500			
0.8989	57532.40	3.2680	3.2681	-0.2537	27.23	1.25	-1.500			
0.8997	57580.66	3.2650	3.2650	-0.2472	27.24	1.26	-1.500			
0.9004	57627.59	3.2620	3.2620	-0.2405	27.24	1.26	-1.500			
0.9011	57673.08	3.2590	3.2591	-0.2331	27.25	1.27	-1.500			
0.9018	57717.00	3.2560	3.2559	-0.2257	27.25	1.27	-1.500			
0.9025	57759.71	3.2530	3.2530	-0.2192	27.26	1.28	-1.500			
0.9031	57800.91	3.2500	3.2500	-0.2124	27.26	1.28	-1.500			
0.9038	57841.05	3.2470	3.2469	-0.2062	27.26	1.28	-1.500			
0.9044	57880.04	3.2440	3.2440	-0.1999	27.27	1.29	-1.500			
0.9050	57917.33	3.2410	3.2410	-0.1956	27.27	1.29	-1.500			
0.9055	57954.19	3.2380	3.2381	-0.1908	27.28	1.30	-1.500			
0.9061	57990.30	3.2350	3.2349	-0.1870	27.28	1.30	-1.500			
0.9067	58025.98	3.2320	3.2320	-0.1831	27.28	1.30	-1.500			
0.9072	58060.66	3.2290	3.2291	-0.1791	27.29	1.31	-1.500			
0.9077	58094.94	3.2260	3.2260	-0.1751	27.29	1.31	-1.500			
0.9083	58128.40	3.2230	3.2230	-0.1709	27.29	1.31	-1.500			
0.9088	58160.38	3.2200	3.2201	-0.1672	27.30	1.32	-1.500			
0.9092	58191.67	3.2170	3.2170	-0.1628	27.30	1.32	-1.500			
0.9097	58222.51	3.2140	3.2140	-0.1599	27.31	1.33	-1.500			
0.9102	58252.80	3.2110	3.2109	-0.1561	27.31	1.33	-1.500			
0.9107	58282.49	3.2080	3.2080	-0.1535	27.31	1.33	-1.500			
0.9111	58311.71	3.2050	3.2051	-0.1508	27.32	1.34	-1.500			
0.9116	58340.54	3.2020	3.2021	-0.1479	27.32	1.34	-1.500			
0.9120	58368.75	3.1990	3.1990	-0.1451	27.33	1.35	-1.500			
0.9124	58395.94	3.1960	3.1959	-0.1415	27.33	1.35	-1.500			
0.9129	58422.88	3.1930	3.1931	-0.1391	27.33	1.35	-1.500			
0.9133	58449.35	3.1900	3.1900	-0.1366	27.34	1.36	-1.500			
0.9137	58475.26	3.1870	3.1870	-0.1349	27.34	1.36	-1.500			
0.9141	58500.66	3.1840	3.1840	-0.1323	27.34	1.36	-1.500			
0.9145	58525.92	3.1810	3.1811	-0.1309	27.35	1.37	-1.500			
0.9149	58550.90	3.1780	3.1780	-0.1295	27.35	1.37	-1.500			
0.9152	58575.74	3.1750	3.1750	-0.1276	27.35	1.37	-1.500			
0.9156	58600.17	3.1720	3.1720	-0.1259	27.36	1.38	-1.500			
0.9160	58624.24	3.1690	3.1690	-0.1236	27.36	1.38	-1.500			
0.9164	58648.03	3.1660	3.1660	-0.1216	27.36	1.38	-1.500			
0.9167	58670.72	3.1630	3.1631	-0.1197	27.36	1.38	-1.500			
0.9171	58693.56	3.1600	3.1600	-0.1181	27.37	1.39	-1.500			
0.9174	58715.79	3.1570	3.1570	-0.1163	27.37	1.39	-1.500			
0.9178	58738.04	3.1540	3.1539	-0.1154	27.37	1.39	-1.500			
0.9181	58760.24	3.1510	3.1510	-0.1140	27.38	1.40	-1.500			
0.9185	58782.01	3.1480	3.1480	-0.1127	27.38	1.40	-1.500			
0.9188	58803.75	3.1450	3.1452	-0.1116	27.38	1.40	-1.500			
0.9191	58825.00	3.1420	3.1419	-0.1097	27.39	1.41	-1.500			
0.9195	58845.67	3.1390	3.1389	-0.1082	27.39	1.41	-1.500			
0.9198	58866.33	3.1360	3.1361	-0.1070	27.39	1.41	-1.500			
0.9201	58886.60	3.1330	3.1330	-0.1057	27.40	1.42	-1.500			
0.9204	58906.81	3.1300	3.1300	-0.1049	27.40	1.42	-1.500			
0.9207	58926.80	3.1270	3.1271	-0.1040	27.40	1.42	-1.500			
0.9210	58946.71	3.1240	3.1240	-0.1033	27.41	1.43	-1.500			
0.9214	58966.52	3.1210	3.1211	-0.1025	27.41	1.43	-1.500			
0.9217	58986.12	3.1180	3.1179	-0.1016	27.41	1.43	-1.500			
0.9220	59005.57	3.1150	3.1151	-0.1007	27.41	1.43	-1.500			
0.9223	59024.82	3.1120	3.1120	-0.0998	27.42	1.44	-1.500			
0.9226	59043.94	3.1090	3.1091	-0.0990	27.42	1.44	-1.500			
0.9229	59062.85	3.1060	3.1059	-0.0980	27.42	1.44	-1.500			
0.9231	59081.52	3.1030	3.1030	-0.0970	27.43	1.45	-1.500			
0.9234	59100.06	3.1000	3.1000	-0.0961	27.43	1.45	-1.500			
0.9237	59118.32	3.0970	3.0969	-0.0954	27.43	1.45	-1.500			
0.9240	59136.58	3.0940	3.0941	-0.0948	27.43	1.45	-1.500			
0.9243	59154.65	3.0910	3.0909	-0.0942	27.44	1.46	-1.500			
0.9246	59172.70	3.0880	3.0880	-0.0938	27.44	1.46	-1.500			
0.9249	59190.70	3.0850	3.0852	-0.0932	27.44	1.46	-1.500			
0.9251	59208.54	3.0820	3.0819	-0.0927	27.44	1.46	-1.500			
0.9254	59226.55	3.0790	3.0790	-0.0919	27.45	1.47	-1.500			
0.9257	59244.09	3.0760	3.0760	-0.0907	27.45	1.47	-1.500			
0.9260	59261.33	3.0730	3.0730	-0.0899	27.45	1.47	-1.500			
0.9262	59278.50	3.0700	3.0700	-0.0890	27.45	1.47	-1.500			
0.9265	59295.39	3.0670	3.0671	-0.0887	27.46	1.48	-1.500			
0.9268	59312.17	3.0640	3.0639	-0.0880	27.46	1.48	-1.500			
0.9270	59329.14	3.0610	3.0609	-0.0871	27.46	1.48	-1.500			
0.9273	59345.76	3.0580	3.0580	-0.0864	27.46	1.48	-1.500			
0.9275	59362.19	3.0550	3.0552	-0.0863	27.47	1.49	-1.500			
0.9278	59378.81	3.0520	3.0521	-0.0860	27.47	1.49	-1.500			
0.9281	59395.35	3.0490	3.0489	-0.0853	27.47	1.49	-1.500			
0.9283	59411.65	3.0460	3.0458	-0.0847	27.47	1.49	-1.500			
0.9286	59427.80	3.0430	3.0430	-0.0843	27.48	1.50	-1.500			
0.9288	59443.83	3.0400	3.0402	-0.0837	27.48	1.50	-1.500			
0.9291	59459.88	3.0370	3.0371	-0.0835	27.48	1.50	-1.500			
0.9293	59476.06	3.0340	3.0339	-0.0833	27.48	1.50	-1.500			
0.9296	59492.00	3.0310	3.0310	-0.0828	27.49	1.51	-1.500			
0.9298	59507.73	3.0280	3.0281	-0.0818	27.49	1.51	-1.500			
0.9301	59523.40	3.0250	3.0250	-0.0814	27.49	1.51	-1.500			
0.9303	59539.26	3.0220	3.0219	-0.0812	27.49	1.51	-1.500			
0.9305	59554.67	3.0190	3.0191	-0.0808	27.50	1.52	-1.500			
0.9308	59570.03	3.0160	3.0159	-0.0801	27.50	1.52	-1.500			
0.9310	59585.36	3.0130	3.0128	-0.0796	27.50	1.52	-1.500			
0.9313	59600.60	3.0100	3.0101	-0.0792	27.50	1.52	-1.499			
0.9315	59615.64	3.0070	3.0071	-0.0793	27.51	1.53	-1.501			
0.9317	59630.88	3.0040	3.0041	-0.0794	27.51	1.53	-1.500			
