Ah_balance (normalized)	Ah_balance (mAh)	Voltage - fit (V)	Voltage -  interpolate (V)	dQ/dV (1/V)	Temperature (°C)	Temperature - diff (°C)	Current (C)	R_DC 0ms (mOhm)	R_DC 50ms (mOhm)	R_DC 50 ms PEC (mOhm)
0.2924	18715.42	3.9810	3.9809	0.8508	27.07	1.13	1.500			
0.2950	18878.72	3.9780	3.9781	0.8501	27.07	1.13	1.500			
0.2975	19041.08	3.9750	3.9749	0.8513	27.07	1.13	1.500			
0.3001	19204.15	3.9720	3.9721	0.8569	27.06	1.12	1.500			
0.3026	19367.54	3.9690	3.9690	0.8630	27.06	1.12	1.500			
0.3052	19535.01	3.9660	3.9660	0.8680	27.06	1.12	1.500			
0.3079	19702.99	3.9630	3.9630	0.8748	27.06	1.12	1.500			
0.3105	19872.64	3.9600	3.9601	0.8727	27.05	1.11	1.500			
0.3132	20042.03	3.9570	3.9570	0.8750	27.05	1.11	1.500			
0.3158	20208.00	3.9540	3.9540	0.8770	27.05	1.11	1.500			
0.3184	20375.85	3.9510	3.9510	0.8791	27.04	1.10	1.500			
0.3210	20543.54	3.9480	3.9479	0.8776	27.04	1.10	1.500			
0.3236	20712.24	3.9450	3.9450	0.8872	27.04	1.10	1.500			
0.3263	20882.53	3.9420	3.9421	0.8946	27.03	1.09	1.500			
0.3290	21055.96	3.9390	3.9388	0.9033	27.03	1.09	1.500			
0.3317	21230.38	3.9360	3.9360	0.9057	27.02	1.08	1.500			
0.3345	21404.90	3.9330	3.9330	0.9126	27.02	1.08	1.500			
0.3372	21581.39	3.9300	3.9300	0.9203	27.01	1.07	1.500			
0.3400	21758.93	3.9270	3.9270	0.9201	27.01	1.07	1.500			
0.3427	21935.78	3.9240	3.9241	0.9207	27.00	1.06	1.500			
0.3455	22112.52	3.9210	3.9210	0.9259	27.00	1.06	1.500			
0.3483	22290.49	3.9180	3.9180	0.9294	26.99	1.05	1.500			
0.3511	22469.02	3.9150	3.9149	0.9344	26.99	1.05	1.500			
0.3539	22646.85	3.9120	3.9119	0.9419	26.98	1.04	1.500			
0.3567	22828.97	3.9090	3.9090	0.9483	26.98	1.04	1.500			
0.3596	23012.39	3.9060	3.9060	0.9585	26.97	1.03	1.500			
0.3625	23197.88	3.9030	3.9030	0.9682	26.97	1.03	1.500			
0.3654	23384.28	3.9000	3.9000	0.9726	26.97	1.03	1.500			
0.3683	23572.76	3.8970	3.8970	0.9828	26.96	1.02	1.500			
0.3713	23761.45	3.8940	3.8940	0.9863	26.96	1.02	1.500			
0.3742	23950.63	3.8910	3.8911	0.9935	26.96	1.02	1.500			
0.3772	24141.80	3.8880	3.8880	1.0078	26.95	1.01	1.500			
0.3802	24335.19	3.8850	3.8849	1.0171	26.95	1.01	1.500			
0.3833	24531.44	3.8820	3.8820	1.0270	26.94	1.00	1.500			
0.3864	24730.45	3.8790	3.8790	1.0398	26.93	0.99	1.500			
0.3896	24932.95	3.8760	3.8760	1.0493	26.92	0.98	1.500			
0.3927	25135.64	3.8730	3.8730	1.0602	26.92	0.98	1.500			
0.3959	25338.82	3.8700	3.8700	1.0646	26.91	0.97	1.500			
0.3991	25542.41	3.8670	3.8670	1.0787	26.90	0.96	1.500			
0.4023	25750.08	3.8640	3.8640	1.0935	26.89	0.95	1.500			
0.4056	25961.10	3.8610	3.8609	1.1116	26.89	0.95	1.500			
0.4090	26177.04	3.8580	3.8580	1.1221	26.88	0.94	1.500			
0.4124	26394.02	3.8550	3.8550	1.1388	26.87	0.93	1.500			
0.4159	26614.58	3.8520	3.8520	1.1539	26.87	0.93	1.500			
0.4193	26837.15	3.8490	3.8490	1.1754	26.86	0.92	1.500			
0.4228	27061.53	3.8460	3.8460	1.1895	26.85	0.91	1.500			
0.4265	27293.42	3.8430	3.8430	1.2109	26.84	0.90	1.500			
0.4301	27527.23	3.8400	3.8400	1.2360	26.84	0.90	1.500			
0.4339	27768.45	3.8370	3.8370	1.2573	26.83	0.89	1.500			
0.4377	28010.87	3.8340	3.8341	1.2770	26.82	0.88	1.500			
0.4415	28259.14	3.8310	3.8309	1.2917	26.81	0.87	1.500			
0.4454	28505.18	3.8280	3.8281	1.3212	26.80	0.86	1.500			
0.4494	28760.85	3.8250	3.8250	1.3479	26.79	0.85	1.500			
0.4535	29021.31	3.8220	3.8219	1.3789	26.78	0.84	1.500			
0.4576	29288.23	3.8190	3.8190	1.4092	26.77	0.83	1.500			
0.4619	29564.09	3.8160	3.8161	1.4458	26.75	0.81	1.500			
0.4663	29846.20	3.8130	3.8129	1.4676	26.74	0.80	1.500			
0.4708	30128.56	3.8100	3.8101	1.4952	26.73	0.79	1.500			
0.4752	30413.12	3.8070	3.8071	1.5280	26.71	0.77	1.500			
0.4799	30711.29	3.8040	3.8039	1.5770	26.70	0.76	1.500			
0.4846	31017.60	3.8010	3.8010	1.6097	26.69	0.75	1.500			
0.4895	31330.85	3.7980	3.7980	1.6418	26.67	0.73	1.500			
0.4946	31652.85	3.7950	3.7951	1.6910	26.66	0.72	1.500			
0.4996	31974.97	3.7920	3.7920	1.7241	26.65	0.71	1.500			
0.5048	32309.38	3.7890	3.7889	1.7621	26.64	0.70	1.500			
0.5102	32655.75	3.7860	3.7861	1.7838	26.62	0.68	1.500			
0.5157	33004.80	3.7830	3.7830	1.8175	26.60	0.66	1.500			
0.5213	33361.28	3.7800	3.7800	1.8364	26.58	0.64	1.500			
0.5267	33707.75	3.7770	3.7770	1.8600	26.57	0.63	1.500			
0.5323	34064.49	3.7740	3.7741	1.9096	26.55	0.61	1.500			
0.5381	34435.49	3.7710	3.7705	1.9364	26.53	0.59	1.500	0.355	0.461	
0.5440	34815.30	3.7680	3.7681	1.9540	26.51	0.57	1.500			
0.5500	35199.91	3.7650	3.7651	1.9649	26.49	0.55	1.500			
0.5559	35574.67	3.7620	3.7620	1.9364	26.48	0.54	1.500			
0.5615	35937.10	3.7590	3.7590	1.9080	26.46	0.52	1.500			
0.5672	36300.97	3.7560	3.7560	1.8855	26.45	0.51	1.500			
0.5728	36657.27	3.7530	3.7531	1.8850	26.43	0.49	1.500			
0.5784	37019.18	3.7500	3.7499	1.8870	26.42	0.48	1.500			
0.5841	37383.50	3.7470	3.7470	1.8926	26.41	0.47	1.500			
0.5898	37749.46	3.7440	3.7441	1.8944	26.39	0.45	1.500			
0.5955	38114.96	3.7410	3.7410	1.9214	26.38	0.44	1.500			
0.6013	38483.52	3.7380	3.7379	1.9304	26.37	0.43	1.500			
0.6071	38853.06	3.7350	3.7350	1.9646	26.35	0.41	1.500			
0.6130	39232.74	3.7320	3.7321	2.0125	26.34	0.40	1.500			
0.6191	39624.49	3.7290	3.7290	2.0576	26.32	0.38	1.500			
0.6253	40020.83	3.7260	3.7260	2.0969	26.31	0.37	1.500			
0.6318	40432.65	3.7230	3.7229	2.1507	26.30	0.36	1.500			
0.6383	40848.41	3.7200	3.7200	2.1809	26.28	0.34	1.500			
0.6448	41265.89	3.7170	3.7171	2.2662	26.27	0.33	1.500			
0.6517	41709.46	3.7140	3.7138	2.3673	26.26	0.32	1.500			
0.6589	42171.03	3.7110	3.7111	2.4484	26.25	0.31	1.500			
0.6664	42650.57	3.7080	3.7081	2.4829	26.23	0.29	1.500			
0.6740	43136.48	3.7050	3.7050	2.5338	26.21	0.27	1.500			
0.6817	43628.96	3.7020	3.7020	2.5257	26.20	0.26	1.500			
0.6893	44118.28	3.6990	3.6991	2.4911	26.18	0.24	1.500			
0.6967	44588.88	3.6960	3.6960	2.3970	26.17	0.23	1.500			
0.7038	45042.33	3.6930	3.6929	2.2604	26.16	0.22	1.500			
0.7105	45474.18	3.6900	3.6901	2.1248	26.14	0.20	1.500			
0.7165	45858.18	3.6870	3.6870	1.9408	26.13	0.19	1.500			
0.7220	46205.30	3.6840	3.6840	1.7657	26.12	0.18	1.500			
0.7271	46532.19	3.6810	3.6809	1.6503	26.10	0.16	1.500			
0.7318	46832.45	3.6780	3.6781	1.5609	26.10	0.16	1.500			
0.7362	47118.15	3.6750	3.6750	1.4779	26.09	0.15	1.500			
0.7406	47395.49	3.6720	3.6719	1.4032	26.08	0.14	1.500			
0.7446	47655.43	3.6690	3.6691	1.3565	26.07	0.13	1.500			
0.7485	47903.62	3.6660	3.6661	1.3176	26.07	0.13	1.500			
0.7523	48150.38	3.6630	3.6630	1.2906	26.06	0.12	1.500			
0.7562	48394.23	3.6600	3.6600	1.2786	26.06	0.12	1.500			
0.7599	48635.50	3.6570	3.6571	1.2685	26.05	0.11	1.500			
0.7638	48880.43	3.6540	3.6540	1.2698	26.04	0.10	1.500			
0.7676	49126.08	3.6510	3.6509	1.2754	26.04	0.10	1.500			
0.7713	49366.18	3.6480	3.6481	1.2769	26.03	0.09	1.500			
0.7752	49611.87	3.6450	3.6450	1.2863	26.03	0.09	1.500			
0.7791	49861.33	3.6420	3.6419	1.2942	26.02	0.08	1.500			
0.7830	50112.18	3.6390	3.6391	1.2956	26.01	0.07	1.500			
0.7869	50363.81	3.6360	3.6360	1.2946	26.00	0.06	1.500			
0.7908	50612.63	3.6330	3.6330	1.2843	25.99	0.05	1.500			
0.7946	50856.11	3.6300	3.6300	1.2739	25.98	0.04	1.500			
0.7984	51098.00	3.6270	3.6270	1.2684	25.97	0.03	1.500			
0.8022	51340.45	3.6240	3.6240	1.2653	25.96	0.02	1.500			
0.8060	51583.28	3.6210	3.6210	1.2641	25.96	0.02	1.500			
0.8098	51827.34	3.6180	3.6180	1.2638	25.95	0.01	1.500			
0.8136	52071.15	3.6150	3.6150	1.2541	25.95	0.01	1.500			
0.8174	52314.27	3.6120	3.6120	1.2404	25.94	0.00	1.500			
0.8211	52550.66	3.6090	3.6090	1.2209	25.94	-0.00	1.500			
0.8247	52781.48	3.6060	3.6061	1.2068	25.93	-0.01	1.500			
0.8283	53010.68	3.6030	3.6029	1.1967	25.93	-0.01	1.500			
0.8319	53238.89	3.6000	3.6000	1.1775	25.93	-0.01	1.500			
0.8354	53463.55	3.5970	3.5970	1.1644	25.93	-0.01	1.500			
0.8389	53688.62	3.5940	3.5940	1.1538	25.93	-0.01	1.500			
0.8423	53908.87	3.5910	3.5910	1.1361	25.94	-0.00	1.500			
0.8457	54123.72	3.5880	3.5880	1.1175	25.94	-0.00	1.500			
0.8490	54336.01	3.5850	3.5850	1.0975	25.94	-0.00	1.500			
0.8523	54548.53	3.5820	3.5819	1.0636	25.94	-0.00	1.500			
0.8556	54755.44	3.5790	3.5790	1.0165	25.94	0.00	1.500			
0.8587	54954.17	3.5760	3.5760	0.9394	25.94	0.00	1.500			
0.8614	55131.09	3.5730	3.5731	0.8406	25.94	0.00	1.500			
0.8639	55286.86	3.5700	3.5701	0.7301	25.94	0.00	1.500			
0.8658	55414.02	3.5670	3.5669	0.6120	25.94	0.00	1.500			
0.8674	55513.52	3.5640	3.5641	0.5074	25.95	0.01	1.500			
0.8687	55596.62	3.5610	3.5609	0.4221	25.95	0.01	1.500			
0.8697	55663.30	3.5580	3.5579	0.3524	25.95	0.01	1.500			
0.8707	55721.63	3.5550	3.5549	0.3029	25.95	0.01	1.500			
0.8714	55772.47	3.5520	3.5520	0.2590	25.95	0.01	1.500			
0.8721	55817.43	3.5490	3.5490	0.2300	25.95	0.01	1.500			
0.8728	55856.17	3.5460	3.5459	0.2041	25.95	0.01	1.500			
0.8733	55892.22	3.5430	3.5430	0.1849	25.95	0.01	1.500			
0.8738	55925.21	3.5400	3.5400	0.1662	25.95	0.01	1.500			
0.8743	55955.01	3.5370	3.5371	0.1508	25.95	0.01	1.500			
0.8747	55982.47	3.5340	3.5340	0.1360	25.95	0.01	1.500			
0.8751	56006.87	3.5310	3.5310	0.1208	25.95	0.01	1.500			
0.8754	56028.74	3.5280	3.5280	0.1070	25.95	0.01	1.500			
0.8758	56048.11	3.5250	3.5250	0.0933	25.95	0.01	1.500			
0.8760	56064.76	3.5220	3.5221	0.0792	25.95	0.01	1.500			
0.8762	56078.61	3.5190	3.5193	0.0650	25.95	0.01	1.500			
0.8764	56089.84	3.5160	3.5164	0.0502	25.95	0.01	1.500			
0.8765	56098.07	3.5130	3.5136	0.0355	25.95	0.01	1.500			
