Ah_balance (normalized)	Ah_balance (mAh)	Voltage - fit (V)	Voltage -  interpolate (V)	dQ/dV (1/V)	Temperature (°C)	Temperature - diff (°C)	Current (C)	R_DC 0ms (mOhm)	R_DC 50ms (mOhm)	R_DC 50 ms PEC (mOhm)
0.2899	18556.21	3.9690	3.9690	0.8898	27.05	1.11	1.500			
0.2926	18725.21	3.9660	3.9660	0.8844	27.05	1.11	1.500			
0.2952	18895.76	3.9630	3.9631	0.8871	27.05	1.11	1.500			
0.2979	19066.60	3.9600	3.9600	0.8878	27.05	1.11	1.500			
0.3006	19236.97	3.9570	3.9570	0.8887	27.05	1.11	1.500			
0.3032	19407.20	3.9540	3.9540	0.8946	27.05	1.11	1.500			
0.3059	19578.00	3.9510	3.9510	0.9022	27.05	1.11	1.500			
0.3086	19752.33	3.9480	3.9480	0.9073	27.05	1.11	1.500			
0.3114	19927.12	3.9450	3.9450	0.9116	27.04	1.10	1.500			
0.3141	20104.43	3.9420	3.9420	0.9177	27.04	1.10	1.500			
0.3169	20281.93	3.9390	3.9391	0.9234	27.04	1.10	1.500			
0.3197	20459.31	3.9360	3.9361	0.9240	27.04	1.10	1.500			
0.3224	20634.97	3.9330	3.9329	0.9255	27.04	1.10	1.500			
0.3252	20813.03	3.9300	3.9301	0.9315	27.04	1.10	1.500			
0.3280	20992.27	3.9270	3.9270	0.9383	27.04	1.10	1.500			
0.3308	21171.84	3.9240	3.9240	0.9461	27.03	1.09	1.500			
0.3337	21355.45	3.9210	3.9210	0.9520	27.03	1.09	1.500			
0.3365	21538.04	3.9180	3.9180	0.9604	27.03	1.09	1.500			
0.3394	21723.99	3.9150	3.9150	0.9663	27.03	1.09	1.500			
0.3423	21909.48	3.9120	3.9119	0.9744	27.03	1.09	1.500			
0.3453	22096.91	3.9090	3.9091	0.9808	27.02	1.08	1.500			
0.3482	22285.58	3.9060	3.9059	0.9903	27.02	1.08	1.500			
0.3512	22476.60	3.9030	3.9030	0.9982	27.02	1.08	1.500			
0.3542	22670.33	3.9000	3.9000	1.0082	27.01	1.07	1.500			
0.3572	22863.82	3.8970	3.8970	1.0128	27.01	1.07	1.500			
0.3603	23059.34	3.8940	3.8940	1.0249	27.00	1.06	1.500			
0.3634	23255.83	3.8910	3.8910	1.0307	27.00	1.06	1.500			
0.3665	23454.50	3.8880	3.8880	1.0421	26.99	1.05	1.500			
0.3696	23653.14	3.8850	3.8850	1.0548	26.99	1.05	1.500			
0.3728	23858.08	3.8820	3.8820	1.0689	26.98	1.04	1.500			
0.3760	24065.85	3.8790	3.8789	1.0789	26.98	1.04	1.500			
0.3793	24274.44	3.8760	3.8760	1.0877	26.97	1.03	1.500			
0.3826	24483.34	3.8730	3.8731	1.0989	26.97	1.03	1.500			
0.3859	24696.54	3.8700	3.8700	1.1068	26.97	1.03	1.500			
0.3892	24908.93	3.8670	3.8669	1.1221	26.96	1.02	1.500			
0.3926	25123.31	3.8640	3.8640	1.1307	26.96	1.02	1.500			
0.3960	25343.09	3.8610	3.8611	1.1484	26.95	1.01	1.500			
0.3995	25565.79	3.8580	3.8580	1.1710	26.95	1.01	1.500			
0.4030	25791.14	3.8550	3.8550	1.1877	26.94	1.00	1.500			
0.4065	26018.91	3.8520	3.8520	1.2050	26.94	1.00	1.500			
0.4102	26253.44	3.8490	3.8490	1.2289	26.93	0.99	1.500			
0.4139	26490.70	3.8460	3.8460	1.2471	26.93	0.99	1.500			
0.4177	26734.00	3.8430	3.8430	1.2717	26.92	0.98	1.500			
0.4216	26980.95	3.8400	3.8400	1.2894	26.91	0.97	1.500			
0.4255	27229.47	3.8370	3.8370	1.3060	26.91	0.97	1.500			
0.4294	27481.50	3.8340	3.8341	1.3306	26.90	0.96	1.500			
0.4334	27738.12	3.8310	3.8310	1.3573	26.89	0.95	1.500			
0.4375	27999.42	3.8280	3.8279	1.3871	26.89	0.95	1.500			
0.4417	28269.35	3.8250	3.8250	1.4162	26.88	0.94	1.500			
0.4460	28543.72	3.8220	3.8220	1.4502	26.87	0.93	1.500			
0.4504	28824.59	3.8190	3.8191	1.4902	26.87	0.93	1.500			
0.4549	29114.91	3.8160	3.8160	1.5235	26.86	0.92	1.500			
0.4595	29409.91	3.8130	3.8129	1.5582	26.85	0.91	1.500			
0.4642	29710.93	3.8100	3.8100	1.5995	26.84	0.90	1.500			
0.4691	30022.91	3.8070	3.8070	1.6409	26.83	0.89	1.500			
0.4741	30344.12	3.8040	3.8039	1.6869	26.82	0.88	1.500			
0.4793	30673.34	3.8010	3.8010	1.7149	26.81	0.87	1.500			
0.4844	31002.62	3.7980	3.7980	1.7645	26.80	0.86	1.500			
0.4898	31346.87	3.7950	3.7950	1.8158	26.79	0.85	1.500			
0.4953	31697.56	3.7920	3.7920	1.8654	26.78	0.84	1.500			
0.5009	32058.90	3.7890	3.7891	1.9406	26.76	0.82	1.500			
0.5069	32439.11	3.7860	3.7860	1.9676	26.74	0.80	1.500			
0.5129	32823.10	3.7830	3.7831	2.0338	26.72	0.78	1.500			
0.5190	33215.22	3.7800	3.7800	2.0777	26.70	0.76	1.500			
0.5253	33617.51	3.7770	3.7770	2.1530	26.69	0.75	1.500			
0.5318	34037.96	3.7740	3.7740	2.1985	26.67	0.73	1.500			
0.5386	34472.90	3.7710	3.7710	2.2678	26.65	0.71	1.500			
0.5454	34905.87	3.7680	3.7681	2.2953	26.63	0.69	1.500			
0.5524	35352.55	3.7650	3.7650	2.3463	26.61	0.67	1.500			
0.5594	35803.49	3.7620	3.7619	2.3721	26.59	0.65	1.500			
0.5667	36268.76	3.7590	3.7589	2.4019	26.56	0.62	1.500	0.360	0.454	
0.5739	36731.28	3.7560	3.7559	2.3838	26.54	0.60	1.500			
0.5811	37192.41	3.7530	3.7530	2.3283	26.52	0.58	1.500			
0.5880	37633.23	3.7500	3.7500	2.2862	26.50	0.56	1.500			
0.5947	38060.40	3.7470	3.7470	2.2336	26.48	0.54	1.500			
0.6013	38482.94	3.7440	3.7440	2.1950	26.46	0.52	1.500			
0.6079	38907.43	3.7410	3.7410	2.1625	26.44	0.50	1.500			
0.6143	39317.25	3.7380	3.7380	2.1687	26.42	0.48	1.500			
0.6208	39728.10	3.7350	3.7350	2.1550	26.40	0.46	1.500			
0.6272	40141.77	3.7320	3.7320	2.1724	26.38	0.44	1.500			
0.6337	40556.96	3.7290	3.7290	2.1931	26.36	0.42	1.500			
0.6403	40982.23	3.7260	3.7260	2.2391	26.34	0.40	1.500			
0.6470	41408.71	3.7230	3.7229	2.2759	26.32	0.38	1.500			
0.6540	41855.72	3.7200	3.7200	2.3023	26.31	0.37	1.500			
0.6610	42302.40	3.7170	3.7171	2.3508	26.30	0.36	1.500			
0.6680	42750.96	3.7140	3.7141	2.4351	26.28	0.34	1.500			
0.6754	43226.47	3.7110	3.7109	2.5459	26.27	0.33	1.500			
0.6832	43722.01	3.7080	3.7080	2.6170	26.25	0.31	1.500			
0.6914	44247.37	3.7050	3.7051	2.7521	26.23	0.29	1.500			
0.6998	44785.08	3.7020	3.7019	2.8402	26.22	0.28	1.500			
0.7084	45336.44	3.6990	3.6991	2.8651	26.20	0.26	1.500			
0.7173	45906.78	3.6960	3.6960	2.8664	26.18	0.24	1.500			
0.7259	46456.86	3.6930	3.6930	2.8059	26.16	0.22	1.500			
0.7343	46994.64	3.6900	3.6900	2.6917	26.14	0.20	1.500			
0.7424	47510.63	3.6870	3.6869	2.4920	26.13	0.19	1.500			
0.7494	47964.03	3.6840	3.6841	2.2498	26.12	0.18	1.500			
0.7558	48368.07	3.6810	3.6811	2.0357	26.11	0.17	1.500			
0.7614	48729.48	3.6780	3.6779	1.8480	26.11	0.17	1.500			
0.7665	49058.71	3.6750	3.6750	1.7038	26.11	0.17	1.500			
0.7714	49370.31	3.6720	3.6720	1.5983	26.10	0.16	1.500			
0.7761	49668.20	3.6690	3.6691	1.5106	26.10	0.16	1.500			
0.7805	49949.33	3.6660	3.6660	1.4349	26.09	0.15	1.500			
0.7846	50214.98	3.6630	3.6630	1.3623	26.08	0.14	1.500			
0.7885	50464.54	3.6600	3.6600	1.3077	26.08	0.14	1.500			
0.7923	50706.84	3.6570	3.6570	1.2680	26.07	0.13	1.500			
0.7960	50941.79	3.6540	3.6540	1.2445	26.06	0.12	1.500			
0.7996	51174.21	3.6510	3.6510	1.2276	26.06	0.12	1.500			
0.8032	51406.58	3.6480	3.6480	1.2428	26.05	0.11	1.500			
0.8069	51642.51	3.6450	3.6450	1.2517	26.05	0.11	1.500			
0.8107	51887.06	3.6420	3.6419	1.2679	26.04	0.10	1.500			
0.8146	52131.27	3.6390	3.6390	1.2866	26.03	0.09	1.500			
0.8185	52382.93	3.6360	3.6361	1.2985	26.03	0.09	1.500			
0.8224	52635.28	3.6330	3.6329	1.3063	26.02	0.08	1.500			
0.8264	52887.15	3.6300	3.6301	1.3097	26.01	0.07	1.500			
0.8303	53137.09	3.6270	3.6270	1.3025	26.01	0.07	1.500			
0.8342	53388.44	3.6240	3.6240	1.3035	26.00	0.06	1.500			
0.8381	53638.53	3.6210	3.6210	1.3091	25.99	0.05	1.500			
0.8420	53888.15	3.6180	3.6180	1.3076	25.98	0.04	1.500			
0.8460	54141.07	3.6150	3.6150	1.3077	25.98	0.04	1.500			
0.8499	54392.51	3.6120	3.6120	1.3071	25.97	0.03	1.500			
0.8538	54644.02	3.6090	3.6091	1.2999	25.96	0.02	1.500			
0.8577	54894.83	3.6060	3.6060	1.2973	25.96	0.02	1.500			
0.8616	55142.78	3.6030	3.6030	1.2834	25.95	0.01	1.500			
0.8655	55389.50	3.6000	3.5999	1.2646	25.95	0.01	1.500			
0.8692	55630.66	3.5970	3.5970	1.2550	25.95	0.01	1.500			
0.8730	55870.99	3.5940	3.5940	1.2348	25.94	0.00	1.500			
0.8767	56106.47	3.5910	3.5910	1.2162	25.94	0.00	1.500			
0.8803	56337.38	3.5880	3.5880	1.2019	25.94	0.00	1.500			
0.8838	56562.70	3.5850	3.5850	1.1920	25.94	0.00	1.500			
0.8873	56789.40	3.5820	3.5820	1.1972	25.94	0.00	1.500			
0.8909	57017.71	3.5790	3.5789	1.2114	25.94	0.00	1.500			
0.8945	57249.81	3.5760	3.5760	1.2172	25.94	0.00	1.500			
0.8984	57495.18	3.5730	3.5729	1.1923	25.94	0.00	1.500			
0.9021	57735.34	3.5700	3.5699	1.1477	25.94	0.00	1.500			
0.9057	57961.71	3.5670	3.5671	1.0374	25.94	0.00	1.500			
0.9088	58163.35	3.5640	3.5641	0.9124	25.94	0.00	1.500			
0.9113	58324.05	3.5610	3.5611	0.7657	25.94	0.00	1.500			
0.9133	58450.10	3.5580	3.5580	0.6110	25.94	0.00	1.500			
0.9147	58538.81	3.5550	3.5550	0.4845	25.94	0.00	1.500			
0.9159	58614.71	3.5520	3.5520	0.3954	25.94	0.00	1.500			
0.9168	58677.51	3.5490	3.5489	0.3150	25.94	0.00	1.500			
0.9176	58729.15	3.5460	3.5459	0.2665	25.94	0.00	1.500			
0.9183	58772.83	3.5430	3.5429	0.2268	25.94	0.00	1.500			
0.9189	58810.05	3.5400	3.5401	0.1961	25.94	0.00	1.500			
0.9194	58844.03	3.5370	3.5369	0.1700	25.94	0.00	1.500			
0.9199	58873.25	3.5340	3.5341	0.1491	25.94	0.00	1.500			
0.9203	58899.79	3.5310	3.5309	0.1300	25.94	0.00	1.500			
0.9207	58922.93	3.5280	3.5281	0.1123	25.94	0.00	1.500			
0.9210	58942.84	3.5250	3.5249	0.0951	25.94	0.00	1.500			
0.9212	58959.12	3.5220	3.5223	0.0784	25.94	0.00	1.500			
0.9215	58972.89	3.5190	3.5195	0.0609	25.94	0.00	1.500			
0.9216	58982.90	3.5160	3.5168	0.0434	25.94	0.00	1.500			
