Ah_balance (normalized)	Ah_balance (mAh)	Voltage - fit (V)	Voltage -  interpolate (V)	dQ/dV (1/V)	Temperature (°C)	Temperature - diff (°C)	Current (C)	R_DC 0ms (mOhm)	R_DC 50ms (mOhm)	R_DC 50 ms PEC (mOhm)
0.1977	12653.46	3.9340	3.9340	-0.1717	25.54	0.01	-0.750			
0.1983	12690.69	3.9310	3.9310	-0.2147	25.54	0.01	-0.750			
0.1990	12735.76	3.9280	3.9280	-0.2580	25.53	0.00	-0.750			
0.1998	12789.55	3.9250	3.9251	-0.3010	25.53	0.00	-0.750			
0.2008	12851.53	3.9220	3.9220	-0.3434	25.53	0.00	-0.750			
0.2019	12921.85	3.9190	3.9190	-0.3852	25.53	0.00	-0.750			
0.2031	13000.32	3.9160	3.9160	-0.4243	25.53	0.00	-0.750			
0.2045	13085.92	3.9130	3.9130	-0.4622	25.53	0.00	-0.750			
0.2059	13179.80	3.9100	3.9100	-0.4966	25.53	-0.00	-0.750			
0.2075	13278.93	3.9070	3.9069	-0.5263	25.53	-0.00	-0.750			
0.2091	13384.22	3.9040	3.9040	-0.5542	25.53	-0.00	-0.750			
0.2108	13493.15	3.9010	3.9011	-0.5811	25.53	-0.00	-0.750			
0.2126	13609.05	3.8980	3.8979	-0.6010	25.52	-0.01	-0.750			
0.2145	13727.29	3.8950	3.8949	-0.6150	25.52	-0.01	-0.750			
0.2164	13847.69	3.8920	3.8921	-0.6280	25.52	-0.01	-0.750			
0.2183	13969.71	3.8890	3.8891	-0.6376	25.52	-0.01	-0.750			
0.2202	14093.86	3.8860	3.8858	-0.6450	25.52	-0.01	-0.750			
0.2221	14217.37	3.8830	3.8831	-0.6516	25.52	-0.01	-0.750			
0.2241	14341.54	3.8800	3.8800	-0.6586	25.52	-0.01	-0.750			
0.2261	14471.56	3.8770	3.8769	-0.6706	25.52	-0.01	-0.750			
0.2281	14601.33	3.8740	3.8740	-0.6720	25.52	-0.01	-0.750			
0.2302	14729.91	3.8710	3.8711	-0.6744	25.52	-0.01	-0.750			
0.2322	14860.68	3.8680	3.8680	-0.6783	25.52	-0.01	-0.750			
0.2342	14990.87	3.8650	3.8650	-0.6836	25.52	-0.01	-0.750			
0.2363	15121.46	3.8620	3.8620	-0.6846	25.52	-0.01	-0.750			
0.2383	15253.70	3.8590	3.8590	-0.6877	25.52	-0.01	-0.750			
0.2404	15386.12	3.8560	3.8561	-0.6911	25.52	-0.01	-0.750			
0.2425	15520.14	3.8530	3.8530	-0.6960	25.52	-0.01	-0.750			
0.2446	15653.43	3.8500	3.8499	-0.6964	25.52	-0.01	-0.750			
0.2467	15786.87	3.8470	3.8470	-0.6986	25.52	-0.01	-0.750			
0.2488	15921.37	3.8440	3.8440	-0.6977	25.53	-0.00	-0.750			
0.2509	16056.98	3.8410	3.8410	-0.6978	25.53	-0.00	-0.750			
0.2530	16190.50	3.8380	3.8380	-0.6960	25.53	-0.00	-0.750			
0.2550	16322.93	3.8350	3.8351	-0.6957	25.53	-0.00	-0.750			
0.2571	16456.55	3.8320	3.8320	-0.6938	25.53	-0.00	-0.750			
0.2592	16589.11	3.8290	3.8290	-0.6941	25.53	-0.00	-0.750			
0.2613	16722.23	3.8260	3.8260	-0.6956	25.52	-0.01	-0.750			
0.2634	16856.78	3.8230	3.8230	-0.6977	25.52	-0.01	-0.750			
0.2655	16990.56	3.8200	3.8199	-0.6980	25.52	-0.01	-0.750			
0.2676	17124.46	3.8170	3.8171	-0.6970	25.52	-0.01	-0.750			
0.2697	17258.68	3.8140	3.8140	-0.6965	25.52	-0.01	-0.750			
0.2718	17393.39	3.8110	3.8110	-0.6972	25.52	-0.01	-0.750			
0.2739	17526.71	3.8080	3.8080	-0.6935	25.53	-0.00	-0.750			
0.2759	17659.20	3.8050	3.8050	-0.6918	25.53	-0.00	-0.750			
0.2780	17791.50	3.8020	3.8020	-0.6922	25.53	-0.00	-0.750			
0.2800	17923.00	3.7990	3.7991	-0.6953	25.53	-0.00	-0.750			
0.2821	18057.04	3.7960	3.7960	-0.6982	25.53	-0.00	-0.750			
0.2842	18191.46	3.7930	3.7929	-0.7031	25.53	-0.00	-0.750			
0.2864	18327.78	3.7900	3.7900	-0.7025	25.52	-0.01	-0.750			
0.2885	18463.37	3.7870	3.7870	-0.7043	25.52	-0.01	-0.750			
0.2906	18598.95	3.7840	3.7840	-0.7013	25.52	-0.01	-0.750			
0.2927	18732.50	3.7810	3.7810	-0.7031	25.52	-0.01	-0.750			
0.2948	18867.31	3.7780	3.7780	-0.7029	25.52	-0.01	-0.750			
0.2969	19002.57	3.7750	3.7750	-0.7054	25.52	-0.01	-0.750			
0.2990	19137.44	3.7720	3.7721	-0.7074	25.51	-0.02	-0.750			
0.3012	19274.11	3.7690	3.7690	-0.7140	25.51	-0.02	-0.750			
0.3033	19410.79	3.7660	3.7660	-0.7162	25.51	-0.02	-0.750			
0.3055	19548.80	3.7630	3.7630	-0.7213	25.51	-0.02	-0.750			
0.3076	19687.02	3.7600	3.7600	-0.7232	25.51	-0.02	-0.750			
0.3098	19827.55	3.7570	3.7570	-0.7300	25.51	-0.02	-0.750			
0.3120	19968.09	3.7540	3.7540	-0.7328	25.50	-0.03	-0.750			
0.3142	20108.47	3.7510	3.7510	-0.7376	25.50	-0.03	-0.750			
0.3164	20249.33	3.7480	3.7480	-0.7422	25.50	-0.03	-0.750			
0.3186	20393.29	3.7450	3.7450	-0.7473	25.50	-0.03	-0.750			
0.3209	20537.05	3.7420	3.7420	-0.7542	25.50	-0.03	-0.750			
0.3232	20683.04	3.7390	3.7390	-0.7597	25.50	-0.03	-0.750			
0.3254	20828.49	3.7360	3.7360	-0.7672	25.49	-0.04	-0.750			
0.3277	20975.78	3.7330	3.7329	-0.7773	25.49	-0.04	-0.750			
0.3301	21126.60	3.7300	3.7301	-0.7818	25.49	-0.04	-0.750			
0.3325	21277.09	3.7270	3.7269	-0.7907	25.48	-0.05	-0.750			
0.3349	21430.69	3.7240	3.7241	-0.7989	25.48	-0.05	-0.750			
0.3373	21584.77	3.7210	3.7210	-0.8065	25.47	-0.06	-0.750			
0.3397	21739.95	3.7180	3.7179	-0.8163	25.47	-0.06	-0.750			
0.3421	21896.35	3.7150	3.7150	-0.8269	25.46	-0.07	-0.750			
0.3446	22054.60	3.7120	3.7120	-0.8385	25.46	-0.07	-0.750			
0.3472	22218.43	3.7090	3.7090	-0.8525	25.45	-0.08	-0.750			
0.3497	22383.40	3.7060	3.7060	-0.8633	25.45	-0.08	-0.750			
0.3524	22550.90	3.7030	3.7030	-0.8759	25.44	-0.09	-0.750			
0.3550	22719.72	3.7000	3.7001	-0.8878	25.44	-0.09	-0.750			
0.3577	22890.97	3.6970	3.6970	-0.9041	25.44	-0.09	-0.750			
0.3604	23065.17	3.6940	3.6940	-0.9180	25.43	-0.10	-0.750			
0.3632	23242.48	3.6910	3.6910	-0.9389	25.43	-0.10	-0.750			
0.3660	23424.48	3.6880	3.6880	-0.9594	25.42	-0.11	-0.750			
0.3689	23609.66	3.6850	3.6849	-0.9832	25.42	-0.11	-0.750			
0.3719	23802.10	3.6820	3.6820	-1.0017	25.41	-0.12	-0.750			
0.3749	23996.34	3.6790	3.6790	-1.0215	25.40	-0.13	-0.750			
0.3780	24193.17	3.6760	3.6760	-1.0442	25.39	-0.14	-0.750			
0.3812	24396.96	3.6730	3.6730	-1.0709	25.39	-0.14	-0.750			
0.3844	24604.46	3.6700	3.6699	-1.0924	25.38	-0.15	-0.750			
0.3878	24816.79	3.6670	3.6671	-1.1143	25.38	-0.15	-0.750			
0.3911	25031.64	3.6640	3.6640	-1.1370	25.37	-0.16	-0.750			
0.3946	25255.13	3.6610	3.6610	-1.1700	25.36	-0.17	-0.750			
0.3982	25481.76	3.6580	3.6579	-1.1879	25.36	-0.17	-0.750			
0.4017	25711.36	3.6550	3.6550	-1.2098	25.35	-0.18	-0.750			
0.4054	25945.87	3.6520	3.6521	-1.2350	25.34	-0.19	-0.750			
0.4092	26186.21	3.6490	3.6489	-1.2620	25.33	-0.20	-0.750			
0.4130	26429.88	3.6460	3.6460	-1.2873	25.32	-0.21	-0.750			
0.4168	26677.50	3.6430	3.6430	-1.3136	25.31	-0.22	-0.750			
0.4208	26934.27	3.6400	3.6400	-1.3496	25.30	-0.23	-0.750			
0.4250	27197.52	3.6370	3.6369	-1.3755	25.30	-0.23	-0.750			
0.4291	27463.84	3.6340	3.6341	-1.4091	25.29	-0.24	-0.750			
0.4334	27738.39	3.6310	3.6309	-1.4339	25.28	-0.25	-0.750			
0.4377	28014.66	3.6280	3.6280	-1.4710	25.28	-0.25	-0.750			
0.4422	28300.26	3.6250	3.6252	-1.5048	25.27	-0.26	-0.750			
0.4468	28593.14	3.6220	3.6219	-1.5268	25.27	-0.26	-0.750			
0.4514	28891.15	3.6190	3.6189	-1.5606	25.26	-0.27	-0.750			
0.4562	29194.09	3.6160	3.6160	-1.5880	25.26	-0.27	-0.750			
0.4610	29503.18	3.6130	3.6131	-1.6169	25.24	-0.29	-0.750			
0.4659	29816.33	3.6100	3.6100	-1.6323	25.23	-0.30	-0.750			
0.4707	30126.33	3.6070	3.6070	-1.6627	25.22	-0.31	-0.750			
0.4758	30450.08	3.6040	3.6041	-1.6966	25.22	-0.31	-0.750			
0.4809	30779.37	3.6010	3.6010	-1.7328	25.21	-0.32	-0.750			
0.4861	31111.79	3.5980	3.5980	-1.7652	25.21	-0.32	-0.750			
0.4915	31456.80	3.5950	3.5949	-1.8039	25.21	-0.32	-0.750			
0.4970	31809.39	3.5920	3.5921	-1.8471	25.20	-0.33	-0.750			
0.5026	32167.79	3.5890	3.5889	-1.8746	25.19	-0.34	-0.750			
0.5082	32525.89	3.5860	3.5860	-1.9062	25.19	-0.34	-0.750			
0.5140	32898.86	3.5830	3.5830	-1.9260	25.19	-0.34	-0.750			
0.5199	33274.58	3.5800	3.5799	-1.9618	25.19	-0.34	-0.750			
0.5257	33647.77	3.5770	3.5771	-1.9907	25.19	-0.34	-0.750			
0.5318	34035.31	3.5740	3.5739	-2.0128	25.19	-0.34	-0.750			
0.5379	34427.37	3.5710	3.5709	-2.0326	25.19	-0.34	-0.750	0.388	0.563	
0.5440	34816.81	3.5680	3.5681	-2.0646	25.19	-0.34	-0.750			
0.5503	35219.99	3.5650	3.5649	-2.0764	25.20	-0.33	-0.750			
0.5566	35619.47	3.5620	3.5619	-2.0834	25.21	-0.32	-0.750			
0.5628	36016.15	3.5590	3.5592	-2.0907	25.21	-0.32	-0.750			
0.5691	36422.97	3.5560	3.5559	-2.1119	25.22	-0.31	-0.750			
0.5755	36829.94	3.5530	3.5529	-2.1004	25.24	-0.29	-0.750			
0.5817	37229.67	3.5500	3.5501	-2.0984	25.25	-0.28	-0.750			
0.5880	37634.42	3.5470	3.5471	-2.1033	25.26	-0.27	-0.750			
0.5944	38041.20	3.5440	3.5439	-2.0991	25.27	-0.26	-0.750			
0.6007	38443.90	3.5410	3.5410	-2.0710	25.28	-0.25	-0.750			
0.6069	38839.98	3.5380	3.5381	-2.0461	25.30	-0.23	-0.750			
0.6131	39235.68	3.5350	3.5350	-2.0240	25.31	-0.22	-0.750			
0.6190	39615.93	3.5320	3.5320	-1.9809	25.33	-0.20	-0.750			
0.6249	39991.61	3.5290	3.5290	-1.9547	25.34	-0.19	-0.750			
0.6307	40365.22	3.5260	3.5261	-1.9249	25.36	-0.17	-0.750			
0.6365	40733.50	3.5230	3.5230	-1.8971	25.37	-0.16	-0.750			
0.6421	41097.10	3.5200	3.5200	-1.8564	25.37	-0.16	-0.750			
0.6476	41448.27	3.5170	3.5170	-1.8165	25.39	-0.14	-0.750			
0.6531	41798.69	3.5140	3.5140	-1.7753	25.41	-0.12	-0.750			
0.6583	42131.95	3.5110	3.5111	-1.7233	25.43	-0.10	-0.750			
0.6634	42460.65	3.5080	3.5080	-1.6725	25.45	-0.08	-0.750			
0.6684	42775.02	3.5050	3.5050	-1.6141	25.46	-0.07	-0.750			
0.6731	43078.60	3.5020	3.5022	-1.5613	25.48	-0.05	-0.750			
0.6777	43373.88	3.4990	3.4989	-1.5276	25.49	-0.04	-0.750			
0.6822	43659.46	3.4960	3.4959	-1.4782	25.51	-0.02	-0.750			
0.6866	43939.54	3.4930	3.4930	-1.4342	25.52	-0.01	-0.750			
0.6908	44210.70	3.4900	3.4900	-1.4061	25.54	0.01	-0.750			
0.6950	44478.05	3.4870	3.4870	-1.3580	25.55	0.02	-0.750			
0.6990	44736.73	3.4840	3.4839	-1.3182	25.56	0.03	-0.750			
0.7029	44983.09	3.4810	3.4810	-1.2757	25.57	0.04	-0.750			
0.7066	45221.70	3.4780	3.4780	-1.2319	25.59	0.06	-0.750			
0.7102	45455.12	3.4750	3.4750	-1.2047	25.60	0.07	-0.750			
0.7138	45682.49	3.4720	3.4719	-1.1767	25.61	0.08	-0.750			
0.7172	45901.31	3.4690	3.4690	-1.1497	25.62	0.09	-0.750			
0.7207	46122.83	3.4660	3.4660	-1.1401	25.63	0.10	-0.750			
0.7240	46338.83	3.4630	3.4630	-1.1226	25.64	0.11	-0.750			
0.7274	46553.00	3.4600	3.4600	-1.1110	25.65	0.12	-0.750			
0.7307	46763.70	3.4570	3.4570	-1.1055	25.66	0.13	-0.750			
0.7340	46975.03	3.4540	3.4540	-1.0940	25.67	0.14	-0.750			
0.7373	47184.71	3.4510	3.4509	-1.0857	25.68	0.15	-0.750			
0.7405	47391.87	3.4480	3.4480	-1.0798	25.70	0.17	-0.750			
0.7437	47599.12	3.4450	3.4449	-1.0752	25.71	0.18	-0.750			
0.7470	47805.18	3.4420	3.4420	-1.0704	25.72	0.19	-0.750			
0.7502	48010.03	3.4390	3.4390	-1.0624	25.73	0.20	-0.750			
0.7533	48211.92	3.4360	3.4360	-1.0534	25.74	0.21	-0.750			
0.7565	48416.46	3.4330	3.4330	-1.0534	25.75	0.22	-0.750			
0.7597	48617.79	3.4300	3.4300	-1.0452	25.76	0.23	-0.750			
0.7628	48817.66	3.4270	3.4270	-1.0334	25.77	0.24	-0.750			
0.7659	49017.01	3.4240	3.4240	-1.0177	25.78	0.25	-0.750			
0.7689	49211.05	3.4210	3.4209	-1.0022	25.79	0.26	-0.750			
0.7719	49402.99	3.4180	3.4180	-0.9882	25.80	0.27	-0.750			
0.7749	49590.68	3.4150	3.4149	-0.9682	25.80	0.27	-0.750			
0.7777	49774.33	3.4120	3.4120	-0.9464	25.81	0.28	-0.750			
0.7806	49955.64	3.4090	3.4091	-0.9284	25.82	0.29	-0.750			
0.7833	50132.60	3.4060	3.4060	-0.9094	25.83	0.30	-0.750			
0.7860	50305.31	3.4030	3.4030	-0.8876	25.84	0.31	-0.750			
0.7886	50472.41	3.4000	3.4000	-0.8593	25.85	0.32	-0.750			
0.7912	50636.79	3.3970	3.3970	-0.8387	25.86	0.33	-0.750			
0.7937	50795.87	3.3940	3.3940	-0.8133	25.87	0.34	-0.750			
0.7961	50949.19	3.3910	3.3910	-0.7876	25.87	0.34	-0.750			
0.7984	51098.50	3.3880	3.3880	-0.7575	25.88	0.35	-0.750			
0.8006	51240.65	3.3850	3.3850	-0.7279	25.89	0.36	-0.750			
0.8028	51378.25	3.3820	3.3820	-0.6994	25.89	0.36	-0.750			
0.8049	51510.47	3.3790	3.3791	-0.6691	25.90	0.37	-0.750			
0.8068	51635.61	3.3760	3.3759	-0.6364	25.91	0.38	-0.750			
0.8087	51753.82	3.3730	3.3731	-0.6073	25.91	0.38	-0.750			
0.8104	51867.36	3.3700	3.3700	-0.5803	25.92	0.39	-0.750			
0.8121	51975.97	3.3670	3.3669	-0.5546	25.92	0.39	-0.750			
0.8137	52079.27	3.3640	3.3639	-0.5273	25.93	0.40	-0.750			
0.8153	52177.90	3.3610	3.3611	-0.5019	25.93	0.40	-0.750			
0.8167	52271.83	3.3580	3.3580	-0.4795	25.94	0.41	-0.750			
0.8182	52361.71	3.3550	3.3550	-0.4564	25.94	0.41	-0.750			
0.8195	52446.48	3.3520	3.3519	-0.4337	25.95	0.42	-0.750			
0.8207	52526.15	3.3490	3.3490	-0.4145	25.95	0.42	-0.750			
0.8219	52604.03	3.3460	3.3460	-0.3976	25.96	0.43	-0.750			
0.8231	52678.81	3.3430	3.3429	-0.3810	25.96	0.43	-0.750			
0.8242	52750.25	3.3400	3.3400	-0.3653	25.96	0.43	-0.750			
0.8253	52817.61	3.3370	3.3371	-0.3516	25.97	0.44	-0.750			
0.8263	52884.16	3.3340	3.3339	-0.3407	25.97	0.44	-0.750			
0.8273	52947.92	3.3310	3.3310	-0.3286	25.97	0.44	-0.750			
0.8283	53009.95	3.3280	3.3280	-0.3167	25.98	0.45	-0.750			
0.8292	53070.25	3.3250	3.3250	-0.3074	25.98	0.45	-0.750			
0.8301	53128.06	3.3220	3.3220	-0.2974	25.98	0.45	-0.750			
0.8310	53183.52	3.3190	3.3190	-0.2868	25.99	0.46	-0.750			
0.8318	53237.13	3.3160	3.3160	-0.2780	25.99	0.46	-0.750			
0.8326	53289.53	3.3130	3.3130	-0.2708	26.00	0.47	-0.750			
0.8335	53340.88	3.3100	3.3100	-0.2637	26.00	0.47	-0.750			
0.8342	53391.01	3.3070	3.3070	-0.2584	26.01	0.48	-0.750			
0.8350	53439.93	3.3040	3.3040	-0.2516	26.01	0.48	-0.750			
0.8357	53487.71	3.3010	3.3010	-0.2452	26.01	0.48	-0.750			
0.8365	53534.01	3.2980	3.2979	-0.2386	26.02	0.49	-0.750			
0.8372	53578.87	3.2950	3.2951	-0.2332	26.02	0.49	-0.750			
0.8379	53623.08	3.2920	3.2920	-0.2285	26.03	0.50	-0.750			
0.8385	53666.34	3.2890	3.2889	-0.2238	26.03	0.50	-0.750			
0.8392	53708.73	3.2860	3.2860	-0.2202	26.03	0.50	-0.750			
0.8398	53750.06	3.2830	3.2831	-0.2166	26.04	0.51	-0.750			
0.8405	53792.10	3.2800	3.2799	-0.2129	26.04	0.51	-0.750			
0.8411	53832.46	3.2770	3.2770	-0.2092	26.04	0.51	-0.750			
0.8418	53872.44	3.2740	3.2740	-0.2054	26.05	0.52	-0.750			
0.8424	53911.27	3.2710	3.2711	-0.2018	26.05	0.52	-0.750			
0.8430	53949.80	3.2680	3.2679	-0.1979	26.06	0.53	-0.750			
0.8436	53987.21	3.2650	3.2650	-0.1948	26.06	0.53	-0.750			
0.8441	54023.96	3.2620	3.2621	-0.1914	26.06	0.53	-0.750			
0.8447	54060.23	3.2590	3.2591	-0.1888	26.07	0.54	-0.750			
0.8453	54096.67	3.2560	3.2559	-0.1865	26.07	0.54	-0.750			
0.8458	54131.81	3.2530	3.2529	-0.1832	26.08	0.55	-0.750			
0.8464	54166.78	3.2500	3.2501	-0.1810	26.08	0.55	-0.750			
0.8469	54201.24	3.2470	3.2471	-0.1790	26.08	0.55	-0.750			
0.8474	54235.55	3.2440	3.2439	-0.1773	26.09	0.56	-0.750			
0.8480	54269.25	3.2410	3.2410	-0.1744	26.09	0.56	-0.750			
0.8485	54302.55	3.2380	3.2380	-0.1724	26.10	0.57	-0.750			
0.8490	54335.48	3.2350	3.2350	-0.1706	26.10	0.57	-0.750			
0.8495	54368.21	3.2320	3.2320	-0.1688	26.10	0.57	-0.750			
0.8500	54400.24	3.2290	3.2290	-0.1666	26.11	0.58	-0.750			
0.8505	54432.04	3.2260	3.2260	-0.1647	26.11	0.58	-0.750			
0.8510	54463.41	3.2230	3.2230	-0.1626	26.11	0.58	-0.750			
0.8515	54494.49	3.2200	3.2200	-0.1606	26.12	0.59	-0.750			
0.8520	54525.01	3.2170	3.2171	-0.1595	26.12	0.59	-0.750			
0.8524	54555.49	3.2140	3.2140	-0.1580	26.12	0.59	-0.750			
0.8529	54585.53	3.2110	3.2110	-0.1562	26.13	0.60	-0.750			
0.8534	54615.45	3.2080	3.2080	-0.1546	26.13	0.60	-0.750			
0.8538	54645.05	3.2050	3.2050	-0.1530	26.13	0.60	-0.750			
0.8543	54674.26	3.2020	3.2020	-0.1513	26.14	0.61	-0.750			
0.8547	54703.26	3.1990	3.1990	-0.1499	26.14	0.61	-0.750			
0.8552	54731.83	3.1960	3.1960	-0.1486	26.15	0.62	-0.750			
0.8556	54759.91	3.1930	3.1930	-0.1466	26.15	0.62	-0.750			
0.8561	54787.97	3.1900	3.1900	-0.1457	26.15	0.62	-0.750			
0.8565	54815.92	3.1870	3.1870	-0.1447	26.16	0.63	-0.750			
0.8569	54843.59	3.1840	3.1840	-0.1436	26.16	0.63	-0.750			
0.8574	54871.17	3.1810	3.1810	-0.1425	26.17	0.64	-0.750			
0.8578	54898.41	3.1780	3.1781	-0.1412	26.17	0.64	-0.750			
0.8582	54925.47	3.1750	3.1750	-0.1396	26.18	0.65	-0.750			
0.8586	54952.17	3.1720	3.1720	-0.1380	26.18	0.65	-0.750			
0.8590	54978.25	3.1690	3.1690	-0.1369	26.18	0.65	-0.750			
0.8594	55004.44	3.1660	3.1661	-0.1359	26.19	0.66	-0.750			
0.8598	55030.30	3.1630	3.1630	-0.1347	26.19	0.66	-0.750			
0.8602	55056.00	3.1600	3.1600	-0.1336	26.19	0.66	-0.750			
0.8607	55081.74	3.1570	3.1570	-0.1329	26.20	0.67	-0.750			
0.8610	55107.16	3.1540	3.1541	-0.1319	26.20	0.67	-0.750			
0.8614	55132.56	3.1510	3.1510	-0.1310	26.21	0.68	-0.750			
0.8618	55157.71	3.1480	3.1480	-0.1298	26.21	0.68	-0.750			
0.8622	55182.12	3.1450	3.1451	-0.1285	26.21	0.68	-0.750			
0.8626	55206.76	3.1420	3.1419	-0.1280	26.22	0.69	-0.750			
0.8630	55231.28	3.1390	3.1390	-0.1275	26.22	0.69	-0.750			
0.8634	55255.93	3.1360	3.1359	-0.1259	26.22	0.69	-0.750			
0.8637	55279.99	3.1330	3.1330	-0.1247	26.23	0.70	-0.750			
0.8641	55303.87	3.1300	3.1302	-0.1241	26.23	0.70	-0.750			
0.8645	55327.72	3.1270	3.1270	-0.1229	26.24	0.71	-0.750			
0.8649	55351.17	3.1240	3.1238	-0.1214	26.24	0.71	-0.750			
0.8652	55373.92	3.1210	3.1210	-0.1205	26.24	0.71	-0.750			
0.8656	55396.77	3.1180	3.1181	-0.1196	26.25	0.72	-0.750			
0.8659	55419.87	3.1150	3.1151	-0.1190	26.25	0.72	-0.750			
0.8663	55442.88	3.1120	3.1119	-0.1188	26.25	0.72	-0.750			
0.8667	55465.64	3.1090	3.1092	-0.1177	26.26	0.73	-0.750			
0.8670	55488.02	3.1060	3.1060	-0.1166	26.26	0.73	-0.750			
0.8673	55510.35	3.1030	3.1030	-0.1157	26.26	0.73	-0.750			
0.8677	55532.81	3.1000	3.1000	-0.1151	26.27	0.74	-0.750			
0.8680	55554.42	3.0970	3.0970	-0.1138	26.27	0.74	-0.750			
0.8684	55576.21	3.0940	3.0940	-0.1133	26.27	0.74	-0.750			
0.8687	55597.95	3.0910	3.0910	-0.1126	26.28	0.75	-0.750			
0.8691	55619.50	3.0880	3.0880	-0.1119	26.28	0.75	-0.750			
0.8694	55640.99	3.0850	3.0850	-0.1113	26.28	0.75	-0.750			
0.8697	55662.29	3.0820	3.0820	-0.1105	26.29	0.76	-0.750			
0.8701	55683.39	3.0790	3.0790	-0.1099	26.29	0.76	-0.750			
0.8704	55704.44	3.0760	3.0760	-0.1093	26.29	0.76	-0.750			
0.8707	55725.43	3.0730	3.0730	-0.1083	26.30	0.77	-0.750			
0.8710	55746.14	3.0700	3.0700	-0.1074	26.30	0.77	-0.750			
0.8714	55766.69	3.0670	3.0671	-0.1069	26.30	0.77	-0.750			
0.8717	55787.13	3.0640	3.0640	-0.1060	26.31	0.78	-0.750			
0.8720	55807.41	3.0610	3.0610	-0.1052	26.31	0.78	-0.750			
0.8723	55827.52	3.0580	3.0579	-0.1043	26.31	0.78	-0.750			
0.8726	55847.36	3.0550	3.0551	-0.1035	26.32	0.79	-0.750			
0.8729	55867.17	3.0520	3.0520	-0.1029	26.32	0.79	-0.750			
0.8732	55886.98	3.0490	3.0489	-0.1024	26.32	0.79	-0.750			
0.8735	55906.56	3.0460	3.0460	-0.1016	26.33	0.80	-0.750			
0.8738	55925.82	3.0430	3.0430	-0.1009	26.33	0.80	-0.750			
0.8741	55945.16	3.0400	3.0400	-0.1005	26.33	0.80	-0.750			
0.8744	55964.46	3.0370	3.0368	-0.1001	26.33	0.80	-0.750			
0.8747	55983.63	3.0340	3.0341	-0.0996	26.34	0.81	-0.750			
0.8750	56002.88	3.0310	3.0310	-0.0986	26.34	0.81	-0.750			
0.8753	56021.72	3.0280	3.0280	-0.0976	26.34	0.81	-0.750			
0.8756	56040.33	3.0250	3.0251	-0.0973	26.35	0.82	-0.750			
0.8759	56058.94	3.0220	3.0220	-0.0965	26.35	0.82	-0.750			
0.8762	56077.21	3.0190	3.0189	-0.0957	26.35	0.82	-0.750			
0.8765	56095.55	3.0160	3.0159	-0.0953	26.35	0.82	-0.750			
0.8768	56113.79	3.0130	3.0130	-0.0945	26.36	0.83	-0.750			
0.8771	56131.90	3.0100	3.0101	-0.0941	26.36	0.83	-0.750			
0.8773	56150.29	3.0070	3.0070	-0.0935	26.36	0.83	-0.750			
0.8776	56168.11	3.0040	3.0041	-0.0922	26.37	0.84	-0.750			
0.8779	56185.68	3.0010	3.0010	-0.0909	26.37	0.84	-0.750			
