Ah_balance (normalized)	Ah_balance (mAh)	Voltage - fit (V)	Voltage -  interpolate (V)	dQ/dV (1/V)	Temperature (°C)	Temperature - diff (°C)	Current (C)	R_DC 0ms (mOhm)	R_DC 50ms (mOhm)	R_DC 50 ms PEC (mOhm)
0.2847	18221.59	3.9890	3.9889	0.8243	27.24	1.28	1.500			
0.2872	18382.11	3.9860	3.9860	0.8367	27.24	1.28	1.500			
0.2897	18543.72	3.9830	3.9830	0.8408	27.23	1.27	1.500			
0.2923	18705.42	3.9800	3.9801	0.8438	27.23	1.27	1.500			
0.2948	18868.01	3.9770	3.9770	0.8486	27.22	1.26	1.500			
0.2974	19031.27	3.9740	3.9740	0.8491	27.22	1.26	1.500			
0.2999	19194.27	3.9710	3.9710	0.8516	27.22	1.26	1.500			
0.3025	19358.26	3.9680	3.9680	0.8529	27.21	1.25	1.500			
0.3050	19521.44	3.9650	3.9650	0.8582	27.21	1.25	1.500			
0.3076	19686.27	3.9620	3.9620	0.8616	27.20	1.24	1.500			
0.3102	19851.62	3.9590	3.9590	0.8659	27.20	1.24	1.500			
0.3128	20018.18	3.9560	3.9559	0.8709	27.20	1.24	1.500			
0.3154	20186.95	3.9530	3.9530	0.8787	27.19	1.23	1.500			
0.3181	20355.94	3.9500	3.9500	0.8831	27.19	1.23	1.500			
0.3207	20526.98	3.9470	3.9470	0.8856	27.18	1.22	1.500			
0.3234	20695.92	3.9440	3.9440	0.8873	27.17	1.21	1.500			
0.3260	20866.99	3.9410	3.9410	0.8952	27.17	1.21	1.500			
0.3287	21039.35	3.9380	3.9381	0.8946	27.16	1.20	1.500			
0.3314	21212.23	3.9350	3.9349	0.8950	27.15	1.19	1.500			
0.3341	21383.86	3.9320	3.9321	0.9035	27.15	1.19	1.500			
0.3368	21558.07	3.9290	3.9290	0.9088	27.14	1.18	1.500			
0.3396	21732.70	3.9260	3.9260	0.9180	27.13	1.17	1.500			
0.3423	21909.57	3.9230	3.9231	0.9197	27.13	1.17	1.500			
0.3451	22086.55	3.9200	3.9200	0.9253	27.12	1.16	1.500			
0.3479	22265.60	3.9170	3.9170	0.9344	27.12	1.16	1.500			
0.3507	22444.50	3.9140	3.9140	0.9380	27.11	1.15	1.500			
0.3535	22625.25	3.9110	3.9109	0.9432	27.11	1.15	1.500			
0.3564	22807.55	3.9080	3.9080	0.9460	27.11	1.15	1.500			
0.3592	22988.00	3.9050	3.9051	0.9542	27.10	1.14	1.500			
0.3621	23173.03	3.9020	3.9021	0.9645	27.10	1.14	1.500			
0.3650	23357.77	3.8990	3.8989	0.9752	27.09	1.13	1.500			
0.3679	23545.98	3.8960	3.8960	0.9855	27.08	1.12	1.500			
0.3709	23736.16	3.8930	3.8931	0.9953	27.08	1.12	1.500			
0.3739	23928.55	3.8900	3.8901	1.0068	27.07	1.11	1.500			
0.3770	24125.94	3.8870	3.8870	1.0168	27.06	1.10	1.500			
0.3800	24320.56	3.8840	3.8839	1.0190	27.05	1.09	1.500			
0.3831	24516.24	3.8810	3.8811	1.0279	27.04	1.08	1.500			
0.3861	24713.05	3.8780	3.8780	1.0354	27.03	1.07	1.500			
0.3893	24913.35	3.8750	3.8749	1.0478	27.02	1.06	1.500			
0.3924	25115.35	3.8720	3.8720	1.0587	27.01	1.05	1.500			
0.3956	25318.69	3.8690	3.8690	1.0691	27.00	1.04	1.500			
0.3988	25525.67	3.8660	3.8660	1.0827	26.99	1.03	1.500			
0.4021	25733.27	3.8630	3.8630	1.0999	26.98	1.02	1.500			
0.4054	25946.06	3.8600	3.8600	1.1144	26.97	1.01	1.500			
0.4088	26161.40	3.8570	3.8569	1.1330	26.96	1.00	1.500			
0.4122	26380.77	3.8540	3.8540	1.1496	26.95	0.99	1.500			
0.4157	26603.64	3.8510	3.8510	1.1671	26.94	0.98	1.500			
0.4192	26830.53	3.8480	3.8480	1.1826	26.93	0.97	1.500			
0.4228	27058.73	3.8450	3.8450	1.1969	26.92	0.96	1.500			
0.4264	27287.40	3.8420	3.8420	1.2134	26.91	0.95	1.500			
0.4300	27522.51	3.8390	3.8390	1.2336	26.90	0.94	1.500			
0.4338	27760.30	3.8360	3.8360	1.2499	26.88	0.92	1.500			
0.4375	28002.27	3.8330	3.8330	1.2740	26.87	0.91	1.500			
0.4414	28249.29	3.8300	3.8299	1.2967	26.86	0.90	1.500			
0.4453	28500.41	3.8270	3.8270	1.3247	26.85	0.89	1.500			
0.4493	28756.92	3.8240	3.8240	1.3507	26.83	0.87	1.500			
0.4534	29018.59	3.8210	3.8210	1.3692	26.82	0.86	1.500			
0.4576	29284.70	3.8180	3.8181	1.3949	26.81	0.85	1.500			
0.4618	29554.56	3.8150	3.8150	1.4173	26.79	0.83	1.500			
0.4661	29827.55	3.8120	3.8118	1.4403	26.78	0.82	1.500			
0.4704	30105.16	3.8090	3.8090	1.4679	26.77	0.81	1.500			
0.4748	30390.28	3.8060	3.8060	1.4913	26.75	0.79	1.500			
0.4794	30678.88	3.8030	3.8030	1.5198	26.74	0.78	1.500			
0.4839	30972.21	3.8000	3.8001	1.5534	26.72	0.76	1.500			
0.4887	31273.92	3.7970	3.7970	1.5807	26.71	0.75	1.500			
0.4935	31581.57	3.7940	3.7940	1.5977	26.69	0.73	1.500			
0.4983	31891.95	3.7910	3.7910	1.6153	26.68	0.72	1.500			
0.5032	32202.94	3.7880	3.7880	1.6455	26.67	0.71	1.500			
0.5081	32520.15	3.7850	3.7850	1.6799	26.65	0.69	1.500			
0.5132	32842.52	3.7820	3.7819	1.7104	26.64	0.68	1.500	0.345	0.470	
0.5184	33175.39	3.7790	3.7791	1.7357	26.62	0.66	1.500			
0.5238	33520.96	3.7760	3.7759	1.7458	26.61	0.65	1.500			
0.5289	33852.46	3.7730	3.7730	1.7386	26.59	0.63	1.500			
0.5340	34177.86	3.7700	3.7701	1.7272	26.58	0.62	1.500			
0.5392	34511.71	3.7670	3.7669	1.7359	26.57	0.61	1.500			
0.5444	34844.45	3.7640	3.7641	1.7464	26.55	0.59	1.500			
0.5497	35182.01	3.7610	3.7611	1.7558	26.54	0.58	1.500			
0.5550	35523.09	3.7580	3.7580	1.7506	26.53	0.57	1.500			
0.5603	35857.55	3.7550	3.7550	1.7515	26.51	0.55	1.500			
0.5656	36195.49	3.7520	3.7519	1.7736	26.50	0.54	1.500			
0.5709	36537.31	3.7490	3.7490	1.7963	26.49	0.53	1.500			
0.5764	36887.17	3.7460	3.7460	1.7918	26.48	0.52	1.500			
0.5817	37228.61	3.7430	3.7430	1.8209	26.46	0.50	1.500			
0.5871	37574.13	3.7400	3.7400	1.8573	26.45	0.49	1.500			
0.5927	37935.18	3.7370	3.7371	1.9074	26.44	0.48	1.500			
0.5986	38309.10	3.7340	3.7340	1.9503	26.42	0.46	1.500			
0.6046	38693.14	3.7310	3.7310	2.0007	26.41	0.45	1.500			
0.6106	39075.39	3.7280	3.7280	2.0428	26.39	0.43	1.500			
0.6167	39471.47	3.7250	3.7250	2.1089	26.38	0.42	1.500			
0.6232	39886.27	3.7220	3.7220	2.1733	26.36	0.40	1.500			
0.6299	40311.57	3.7190	3.7190	2.2350	26.35	0.39	1.500			
0.6367	40745.84	3.7160	3.7161	2.3102	26.33	0.37	1.500			
0.6437	41195.15	3.7130	3.7130	2.3687	26.31	0.35	1.500			
0.6509	41660.58	3.7100	3.7100	2.4046	26.30	0.34	1.500			
0.6583	42129.92	3.7070	3.7070	2.3902	26.28	0.32	1.500			
0.6655	42591.29	3.7040	3.7039	2.3229	26.26	0.30	1.500			
0.6724	43030.54	3.7010	3.7010	2.1950	26.25	0.29	1.500			
0.6786	43433.07	3.6980	3.6980	2.0393	26.24	0.28	1.500			
0.6845	43806.99	3.6950	3.6951	1.8847	26.22	0.26	1.500			
0.6899	44151.89	3.6920	3.6919	1.7436	26.21	0.25	1.500			
0.6949	44473.41	3.6890	3.6891	1.6425	26.20	0.24	1.500			
0.6996	44776.88	3.6860	3.6860	1.5515	26.19	0.23	1.500			
0.7042	45065.96	3.6830	3.6829	1.4878	26.18	0.22	1.500			
0.7085	45341.44	3.6800	3.6801	1.4200	26.18	0.22	1.500			
0.7126	45606.69	3.6770	3.6770	1.3657	26.17	0.21	1.500			
0.7166	45864.18	3.6740	3.6740	1.3324	26.16	0.20	1.500			
0.7205	46113.35	3.6710	3.6711	1.2972	26.15	0.19	1.500			
0.7243	46355.35	3.6680	3.6679	1.2801	26.14	0.18	1.500			
0.7281	46597.99	3.6650	3.6650	1.2667	26.13	0.17	1.500			
0.7318	46836.46	3.6620	3.6620	1.2605	26.12	0.16	1.500			
0.7356	47079.05	3.6590	3.6590	1.2711	26.11	0.15	1.500			
0.7395	47326.02	3.6560	3.6560	1.2743	26.10	0.14	1.500			
0.7433	47571.09	3.6530	3.6530	1.2724	26.09	0.13	1.500			
0.7471	47817.40	3.6500	3.6500	1.2689	26.08	0.12	1.500			
0.7509	48060.53	3.6470	3.6470	1.2636	26.07	0.11	1.500			
0.7547	48302.25	3.6440	3.6440	1.2586	26.06	0.10	1.500			
0.7585	48542.15	3.6410	3.6410	1.2489	26.04	0.08	1.500			
0.7622	48780.27	3.6380	3.6380	1.2408	26.03	0.07	1.500			
0.7659	49019.35	3.6350	3.6350	1.2358	26.02	0.06	1.500			
0.7696	49256.69	3.6320	3.6321	1.2295	26.01	0.05	1.500			
0.7733	49491.90	3.6290	3.6290	1.2223	26.01	0.05	1.500			
0.7770	49725.50	3.6260	3.6260	1.2161	26.00	0.04	1.500			
0.7806	49959.54	3.6230	3.6229	1.2054	26.00	0.04	1.500			
0.7842	50191.17	3.6200	3.6200	1.1925	25.99	0.03	1.500			
0.7878	50419.04	3.6170	3.6171	1.1764	25.99	0.03	1.500			
0.7913	50644.72	3.6140	3.6140	1.1603	25.98	0.02	1.500			
0.7948	50865.41	3.6110	3.6109	1.1360	25.98	0.02	1.500			
0.7981	51080.07	3.6080	3.6080	1.1089	25.97	0.01	1.500			
0.8014	51290.22	3.6050	3.6050	1.0863	25.97	0.01	1.500			
0.8047	51498.93	3.6020	3.6020	1.0690	25.97	0.01	1.500			
0.8078	51701.75	3.5990	3.5989	1.0420	25.97	0.01	1.500			
0.8109	51898.90	3.5960	3.5960	1.0172	25.96	0.00	1.500			
0.8140	52094.00	3.5930	3.5930	0.9830	25.96	0.00	1.500			
0.8169	52282.88	3.5900	3.5900	0.9430	25.96	-0.00	1.500			
0.8197	52462.50	3.5870	3.5870	0.8823	25.96	-0.00	1.500			
0.8224	52630.43	3.5840	3.5841	0.8149	25.96	-0.00	1.500			
0.8247	52782.63	3.5810	3.5810	0.7238	25.95	-0.01	1.500			
0.8268	52915.49	3.5780	3.5780	0.6311	25.95	-0.01	1.500			
0.8285	53025.46	3.5750	3.5751	0.5405	25.95	-0.01	1.500			
0.8300	53118.97	3.5720	3.5719	0.4559	25.95	-0.01	1.500			
0.8311	53192.92	3.5690	3.5689	0.3867	25.95	-0.01	1.500			
0.8321	53256.68	3.5660	3.5661	0.3306	25.95	-0.01	1.500			
0.8330	53311.65	3.5630	3.5629	0.2793	25.95	-0.01	1.500			
0.8338	53360.65	3.5600	3.5600	0.2475	25.95	-0.01	1.500			
0.8344	53402.43	3.5570	3.5569	0.2180	25.95	-0.01	1.500			
0.8350	53439.84	3.5540	3.5540	0.1949	25.94	-0.02	1.500			
0.8355	53474.61	3.5510	3.5510	0.1745	25.94	-0.02	1.500			
0.8360	53505.64	3.5480	3.5480	0.1577	25.94	-0.02	1.500			
0.8365	53534.26	3.5450	3.5450	0.1420	25.94	-0.02	1.500			
0.8369	53559.97	3.5420	3.5420	0.1266	25.94	-0.02	1.500			
0.8372	53582.84	3.5390	3.5390	0.1117	25.94	-0.02	1.500			
0.8375	53602.75	3.5360	3.5361	0.0966	25.94	-0.02	1.500			
0.8378	53620.07	3.5330	3.5331	0.0819	25.94	-0.02	1.500			
0.8380	53634.35	3.5300	3.5301	0.0668	25.94	-0.02	1.500			
0.8382	53645.98	3.5270	3.5274	0.0509	25.94	-0.02	1.500			
0.8383	53654.24	3.5240	3.5248	0.0351	25.94	-0.02	1.500			
