Ah_balance (normalized)	Ah_balance (mAh)	Voltage - fit (V)	Voltage -  interpolate (V)	dQ/dV (1/V)	Temperature (°C)	Temperature - diff (°C)	Current (C)	R_DC 0ms (mOhm)	R_DC 50ms (mOhm)	R_DC 50 ms PEC (mOhm)
0.2129	13623.46	3.9120	3.9122	-0.1203	25.87	0.00	-1.500			
0.2133	13650.29	3.9090	3.9089	-0.1529	25.87	0.00	-1.500			
0.2138	13682.61	3.9060	3.9060	-0.1821	25.87	0.00	-1.500			
0.2144	13720.71	3.9030	3.9030	-0.2101	25.87	0.00	-1.500			
0.2151	13764.09	3.9000	3.9000	-0.2364	25.87	0.00	-1.500			
0.2158	13812.59	3.8970	3.8970	-0.2633	25.87	0.00	-1.500			
0.2167	13865.67	3.8940	3.8941	-0.2895	25.87	0.00	-1.500			
0.2176	13923.42	3.8910	3.8910	-0.3151	25.87	0.00	-1.500			
0.2185	13986.27	3.8880	3.8880	-0.3422	25.87	0.00	-1.500			
0.2196	14054.19	3.8850	3.8850	-0.3706	25.87	0.00	-1.500			
0.2207	14127.98	3.8820	3.8820	-0.3992	25.87	0.00	-1.500			
0.2220	14208.12	3.8790	3.8790	-0.4247	25.87	0.00	-1.500			
0.2233	14292.72	3.8760	3.8760	-0.4510	25.87	-0.00	-1.500			
0.2247	14381.81	3.8730	3.8731	-0.4763	25.87	-0.00	-1.500			
0.2262	14476.01	3.8700	3.8700	-0.5001	25.87	-0.00	-1.500			
0.2277	14574.01	3.8670	3.8670	-0.5221	25.87	-0.00	-1.500			
0.2293	14676.63	3.8640	3.8641	-0.5430	25.87	-0.00	-1.500			
0.2310	14783.81	3.8610	3.8610	-0.5647	25.87	-0.00	-1.500			
0.2327	14894.96	3.8580	3.8579	-0.5836	25.87	-0.00	-1.500			
0.2345	15008.46	3.8550	3.8551	-0.6010	25.87	-0.00	-1.500			
0.2363	15125.62	3.8520	3.8521	-0.6172	25.86	-0.01	-1.500			
0.2382	15247.23	3.8490	3.8489	-0.6305	25.86	-0.01	-1.500			
0.2402	15369.64	3.8460	3.8460	-0.6420	25.86	-0.01	-1.500			
0.2421	15494.38	3.8430	3.8431	-0.6513	25.86	-0.01	-1.500			
0.2441	15619.75	3.8400	3.8400	-0.6598	25.86	-0.01	-1.500			
0.2461	15748.03	3.8370	3.8370	-0.6675	25.86	-0.01	-1.500			
0.2481	15876.19	3.8340	3.8340	-0.6740	25.86	-0.01	-1.500			
0.2501	16006.76	3.8310	3.8310	-0.6822	25.86	-0.01	-1.500			
0.2522	16139.08	3.8280	3.8280	-0.6889	25.87	-0.00	-1.500			
0.2542	16271.73	3.8250	3.8250	-0.6919	25.87	0.00	-1.500			
0.2563	16405.39	3.8220	3.8220	-0.6987	25.87	0.00	-1.500			
0.2584	16540.00	3.8190	3.8190	-0.7010	25.88	0.01	-1.500			
0.2606	16676.42	3.8160	3.8160	-0.7038	25.88	0.01	-1.500			
0.2627	16811.35	3.8130	3.8130	-0.7042	25.88	0.01	-1.500			
0.2648	16946.86	3.8100	3.8100	-0.7052	25.89	0.02	-1.500			
0.2669	17081.55	3.8070	3.8071	-0.7084	25.89	0.02	-1.500			
0.2690	17216.86	3.8040	3.8039	-0.7116	25.89	0.02	-1.500			
0.2711	17353.45	3.8010	3.8010	-0.7133	25.90	0.03	-1.500			
0.2733	17491.85	3.7980	3.7980	-0.7176	25.90	0.03	-1.500			
0.2755	17630.14	3.7950	3.7950	-0.7192	25.91	0.04	-1.500			
0.2777	17770.35	3.7920	3.7920	-0.7183	25.91	0.04	-1.500			
0.2798	17908.15	3.7890	3.7890	-0.7163	25.92	0.05	-1.500			
0.2819	18043.86	3.7860	3.7860	-0.7144	25.92	0.05	-1.500			
0.2841	18181.31	3.7830	3.7831	-0.7151	25.93	0.06	-1.500			
0.2862	18318.89	3.7800	3.7799	-0.7121	25.93	0.06	-1.500			
0.2884	18454.80	3.7770	3.7770	-0.7104	25.94	0.07	-1.500			
0.2905	18590.31	3.7740	3.7741	-0.7148	25.94	0.07	-1.500			
0.2926	18728.09	3.7710	3.7709	-0.7168	25.95	0.08	-1.500			
0.2948	18866.34	3.7680	3.7680	-0.7158	25.95	0.08	-1.500			
0.2969	19003.89	3.7650	3.7650	-0.7173	25.96	0.09	-1.500			
0.2991	19142.10	3.7620	3.7621	-0.7204	25.96	0.09	-1.500			
0.3013	19281.77	3.7590	3.7589	-0.7190	25.97	0.10	-1.500			
0.3034	19418.32	3.7560	3.7560	-0.7161	25.97	0.10	-1.500			
0.3055	19555.18	3.7530	3.7530	-0.7135	25.98	0.11	-1.500			
0.3077	19691.46	3.7500	3.7501	-0.7218	25.98	0.11	-1.500			
0.3099	19831.26	3.7470	3.7469	-0.7230	25.99	0.12	-1.500			
0.3120	19970.37	3.7440	3.7439	-0.7211	25.99	0.12	-1.500			
0.3142	20108.26	3.7410	3.7410	-0.7278	26.00	0.13	-1.500			
0.3164	20249.27	3.7380	3.7382	-0.7323	26.00	0.13	-1.500			
0.3186	20389.09	3.7350	3.7348	-0.7337	26.01	0.14	-1.500			
0.3208	20530.35	3.7320	3.7320	-0.7353	26.02	0.15	-1.500			
0.3230	20670.89	3.7290	3.7291	-0.7319	26.02	0.15	-1.500			
0.3252	20811.95	3.7260	3.7260	-0.7381	26.03	0.16	-1.500			
0.3274	20954.20	3.7230	3.7231	-0.7439	26.03	0.16	-1.500			
0.3296	21095.11	3.7200	3.7199	-0.7494	26.04	0.17	-1.500			
0.3319	21240.36	3.7170	3.7170	-0.7554	26.04	0.17	-1.500			
0.3342	21386.36	3.7140	3.7139	-0.7617	26.05	0.18	-1.500			
0.3365	21533.43	3.7110	3.7111	-0.7723	26.05	0.18	-1.500			
0.3388	21682.76	3.7080	3.7080	-0.7814	26.06	0.19	-1.500			
0.3411	21831.73	3.7050	3.7050	-0.7860	26.06	0.19	-1.500			
0.3435	21983.94	3.7020	3.7019	-0.7947	26.07	0.20	-1.500			
0.3459	22136.18	3.6990	3.6991	-0.8024	26.08	0.21	-1.500			
0.3483	22291.96	3.6960	3.6961	-0.8161	26.08	0.21	-1.500			
0.3508	22450.10	3.6930	3.6930	-0.8247	26.08	0.21	-1.500			
0.3533	22608.90	3.6900	3.6900	-0.8336	26.09	0.22	-1.500			
0.3558	22770.13	3.6870	3.6870	-0.8395	26.09	0.22	-1.500			
0.3583	22932.02	3.6840	3.6840	-0.8516	26.10	0.23	-1.500			
0.3609	23095.88	3.6810	3.6811	-0.8638	26.10	0.23	-1.500			
0.3635	23261.01	3.6780	3.6780	-0.8808	26.11	0.24	-1.500			
0.3661	23432.20	3.6750	3.6750	-0.8934	26.11	0.24	-1.500			
0.3688	23606.14	3.6720	3.6720	-0.9072	26.11	0.24	-1.500			
0.3716	23781.43	3.6690	3.6690	-0.9211	26.12	0.25	-1.500			
0.3744	23960.84	3.6660	3.6660	-0.9394	26.12	0.25	-1.500			
0.3772	24141.15	3.6630	3.6629	-0.9537	26.13	0.26	-1.500			
0.3801	24324.74	3.6600	3.6599	-0.9679	26.13	0.26	-1.500			
0.3830	24511.68	3.6570	3.6570	-0.9821	26.13	0.26	-1.500			
0.3860	24703.14	3.6540	3.6541	-1.0050	26.14	0.27	-1.500			
0.3890	24897.18	3.6510	3.6510	-1.0301	26.14	0.27	-1.500			
0.3921	25095.99	3.6480	3.6479	-1.0496	26.14	0.27	-1.500			
0.3953	25297.96	3.6450	3.6450	-1.0720	26.15	0.28	-1.500			
0.3986	25507.91	3.6420	3.6421	-1.0906	26.15	0.28	-1.500			
0.4019	25722.55	3.6390	3.6388	-1.1100	26.15	0.28	-1.500			
0.4053	25936.91	3.6360	3.6361	-1.1269	26.15	0.28	-1.500			
0.4086	26152.05	3.6330	3.6331	-1.1453	26.15	0.28	-1.500			
0.4121	26372.57	3.6300	3.6300	-1.1658	26.16	0.29	-1.500			
0.4156	26600.66	3.6270	3.6269	-1.1854	26.16	0.29	-1.500			
0.4192	26828.51	3.6240	3.6241	-1.2062	26.16	0.29	-1.500			
0.4228	27062.33	3.6210	3.6211	-1.2335	26.16	0.29	-1.500			
0.4266	27302.00	3.6180	3.6179	-1.2589	26.16	0.29	-1.500			
0.4304	27545.16	3.6150	3.6149	-1.2807	26.17	0.30	-1.500			
0.4342	27791.58	3.6120	3.6120	-1.3023	26.17	0.30	-1.500			
0.4382	28047.95	3.6090	3.6091	-1.3296	26.17	0.30	-1.500			
0.4423	28304.62	3.6060	3.6060	-1.3528	26.18	0.31	-1.500			
0.4463	28565.58	3.6030	3.6030	-1.3696	26.18	0.31	-1.500			
0.4505	28829.50	3.6000	3.6000	-1.3928	26.18	0.31	-1.500			
0.4547	29098.58	3.5970	3.5969	-1.4129	26.18	0.31	-1.500			
0.4589	29372.51	3.5940	3.5941	-1.4401	26.18	0.31	-1.500			
0.4633	29651.15	3.5910	3.5910	-1.4645	26.18	0.31	-1.500			
0.4678	29936.73	3.5880	3.5880	-1.4936	26.18	0.31	-1.500			
0.4723	30225.58	3.5850	3.5851	-1.5091	26.18	0.31	-1.500			
0.4768	30516.73	3.5820	3.5820	-1.5288	26.18	0.31	-1.500			
0.4814	30809.53	3.5790	3.5790	-1.5558	26.19	0.32	-1.500			
0.4861	31111.99	3.5760	3.5760	-1.5710	26.19	0.32	-1.500			
0.4909	31414.66	3.5730	3.5729	-1.5864	26.19	0.32	-1.500			
0.4957	31721.87	3.5700	3.5701	-1.6146	26.20	0.33	-1.500			
0.5005	32035.07	3.5670	3.5670	-1.6306	26.20	0.33	-1.500			
0.5055	32350.43	3.5640	3.5639	-1.6590	26.20	0.33	-1.500			
0.5105	32671.59	3.5610	3.5610	-1.6725	26.21	0.34	-1.500			
0.5155	32992.36	3.5580	3.5580	-1.6842	26.21	0.34	-1.500			
0.5206	33321.10	3.5550	3.5550	-1.7067	26.21	0.34	-1.500			
0.5258	33649.34	3.5520	3.5520	-1.7231	26.21	0.34	-1.500			
0.5309	33979.65	3.5490	3.5490	-1.7406	26.22	0.35	-1.500			
0.5363	34320.03	3.5460	3.5460	-1.7537	26.23	0.36	-1.500			
0.5415	34657.98	3.5430	3.5430	-1.7669	26.23	0.36	-1.500			
0.5469	35003.19	3.5400	3.5400	-1.7796	26.24	0.37	-1.500			
0.5523	35345.02	3.5370	3.5369	-1.7755	26.25	0.38	-1.500			
0.5576	35685.60	3.5340	3.5340	-1.7750	26.25	0.38	-1.500	0.388	0.519	
0.5629	36025.25	3.5310	3.5310	-1.7710	26.26	0.39	-1.500			
0.5682	36363.67	3.5280	3.5280	-1.7740	26.26	0.39	-1.500			
0.5735	36703.27	3.5250	3.5251	-1.7673	26.27	0.40	-1.500			
0.5789	37048.53	3.5220	3.5219	-1.7921	26.28	0.41	-1.500			
0.5842	37391.88	3.5190	3.5190	-1.7826	26.28	0.41	-1.500			
0.5896	37733.34	3.5160	3.5161	-1.7859	26.29	0.42	-1.500			
0.5950	38080.61	3.5130	3.5129	-1.7908	26.30	0.43	-1.500			
0.6004	38422.53	3.5100	3.5099	-1.7882	26.31	0.44	-1.500			
0.6057	38763.65	3.5070	3.5071	-1.7931	26.32	0.45	-1.500			
0.6111	39110.30	3.5040	3.5039	-1.7971	26.33	0.46	-1.500			
0.6165	39454.26	3.5010	3.5010	-1.7891	26.34	0.47	-1.500			
0.6219	39799.60	3.4980	3.4980	-1.7813	26.35	0.48	-1.500			
0.6272	40142.91	3.4950	3.4950	-1.7788	26.36	0.49	-1.500			
0.6325	40482.34	3.4920	3.4920	-1.7754	26.37	0.50	-1.500			
0.6379	40824.45	3.4890	3.4890	-1.7628	26.38	0.51	-1.500			
0.6432	41161.79	3.4860	3.4860	-1.7574	26.39	0.52	-1.500			
0.6484	41499.10	3.4830	3.4832	-1.7450	26.40	0.53	-1.500			
0.6536	41833.59	3.4800	3.4799	-1.7357	26.41	0.54	-1.500			
0.6589	42167.06	3.4770	3.4770	-1.7250	26.43	0.56	-1.500			
0.6640	42496.09	3.4740	3.4740	-1.7049	26.44	0.57	-1.500			
0.6691	42825.28	3.4710	3.4709	-1.6895	26.45	0.58	-1.500			
0.6742	43149.03	3.4680	3.4680	-1.6657	26.46	0.59	-1.500			
0.6791	43462.99	3.4650	3.4650	-1.6453	26.48	0.61	-1.500			
0.6840	43777.09	3.4620	3.4620	-1.6237	26.49	0.62	-1.500			
0.6888	44084.73	3.4590	3.4589	-1.5903	26.50	0.63	-1.500			
0.6936	44392.75	3.4560	3.4560	-1.5785	26.51	0.64	-1.500			
0.6983	44690.89	3.4530	3.4531	-1.5508	26.52	0.65	-1.500			
0.7029	44986.62	3.4500	3.4499	-1.5322	26.53	0.66	-1.500			
0.7075	45277.84	3.4470	3.4470	-1.5108	26.55	0.68	-1.500			
0.7119	45562.46	3.4440	3.4440	-1.4998	26.56	0.69	-1.500			
0.7164	45850.83	3.4410	3.4410	-1.4914	26.57	0.70	-1.500			
0.7209	46137.80	3.4380	3.4378	-1.4771	26.59	0.72	-1.500			
0.7253	46419.68	3.4350	3.4351	-1.4620	26.60	0.73	-1.500			
0.7297	46699.89	3.4320	3.4320	-1.4442	26.62	0.75	-1.500			
0.7340	46975.78	3.4290	3.4290	-1.4329	26.63	0.76	-1.500			
0.7382	47247.58	3.4260	3.4260	-1.4131	26.65	0.78	-1.500			
0.7425	47517.92	3.4230	3.4229	-1.3981	26.66	0.79	-1.500			
0.7467	47786.84	3.4200	3.4201	-1.3862	26.68	0.81	-1.500			
0.7508	48051.68	3.4170	3.4170	-1.3671	26.69	0.82	-1.500			
0.7549	48312.92	3.4140	3.4140	-1.3488	26.71	0.84	-1.500			
0.7589	48570.03	3.4110	3.4110	-1.3303	26.73	0.86	-1.500			
0.7629	48823.76	3.4080	3.4080	-1.2957	26.75	0.88	-1.500			
0.7668	49074.53	3.4050	3.4049	-1.2659	26.77	0.90	-1.500			
0.7705	49314.95	3.4020	3.4020	-1.2290	26.79	0.92	-1.500			
0.7742	49547.76	3.3990	3.3990	-1.1883	26.81	0.94	-1.500			
0.7777	49771.46	3.3960	3.3960	-1.1429	26.82	0.95	-1.500			
0.7810	49984.52	3.3930	3.3930	-1.0979	26.84	0.97	-1.500			
0.7842	50190.62	3.3900	3.3901	-1.0544	26.85	0.98	-1.500			
0.7874	50391.26	3.3870	3.3870	-1.0186	26.87	1.00	-1.500			
0.7904	50582.50	3.3840	3.3840	-0.9772	26.88	1.01	-1.500			
0.7932	50765.14	3.3810	3.3810	-0.9348	26.89	1.02	-1.500			
0.7959	50939.84	3.3780	3.3780	-0.9015	26.90	1.03	-1.500			
0.7986	51109.91	3.3750	3.3749	-0.8664	26.90	1.03	-1.500			
0.8011	51271.21	3.3720	3.3721	-0.8332	26.92	1.05	-1.500			
0.8036	51428.57	3.3690	3.3690	-0.8045	26.93	1.06	-1.500			
0.8059	51579.56	3.3660	3.3660	-0.7767	26.94	1.07	-1.500			
0.8082	51726.66	3.3630	3.3630	-0.7527	26.95	1.08	-1.500			
0.8104	51866.84	3.3600	3.3600	-0.7234	26.96	1.09	-1.500			
0.8125	52002.83	3.3570	3.3570	-0.6960	26.97	1.10	-1.500			
0.8146	52134.70	3.3540	3.3540	-0.6759	26.98	1.11	-1.500			
0.8166	52260.76	3.3510	3.3510	-0.6539	26.99	1.12	-1.500			
0.8185	52384.34	3.3480	3.3481	-0.6341	27.00	1.13	-1.500			
0.8204	52504.31	3.3450	3.3449	-0.6151	27.00	1.13	-1.500			
0.8222	52620.29	3.3420	3.3420	-0.5966	27.01	1.14	-1.500			
0.8240	52733.92	3.3390	3.3390	-0.5797	27.02	1.15	-1.500			
0.8257	52843.86	3.3360	3.3360	-0.5612	27.03	1.16	-1.500			
0.8273	52948.67	3.3330	3.3329	-0.5410	27.03	1.16	-1.500			
0.8289	53049.92	3.3300	3.3300	-0.5225	27.04	1.17	-1.500			
0.8304	53148.44	3.3270	3.3270	-0.5073	27.05	1.18	-1.500			
0.8319	53244.04	3.3240	3.3240	-0.4914	27.06	1.19	-1.500			
0.8334	53336.92	3.3210	3.3210	-0.4781	27.06	1.19	-1.500			
0.8348	53427.39	3.3180	3.3180	-0.4662	27.07	1.20	-1.500			
0.8362	53515.79	3.3150	3.3150	-0.4529	27.08	1.21	-1.500			
0.8375	53601.27	3.3120	3.3120	-0.4413	27.08	1.21	-1.500			
0.8388	53684.70	3.3090	3.3090	-0.4298	27.09	1.22	-1.500			
0.8401	53766.41	3.3060	3.3059	-0.4179	27.10	1.23	-1.500			
0.8413	53845.70	3.3030	3.3030	-0.4053	27.10	1.23	-1.500			
0.8425	53922.03	3.3000	3.3001	-0.3918	27.11	1.24	-1.500			
0.8437	53995.89	3.2970	3.2970	-0.3811	27.11	1.24	-1.500			
0.8448	54068.08	3.2940	3.2939	-0.3706	27.12	1.25	-1.500			
0.8459	54136.69	3.2910	3.2910	-0.3591	27.12	1.25	-1.500			
0.8470	54204.84	3.2880	3.2879	-0.3516	27.13	1.26	-1.500			
0.8480	54272.00	3.2850	3.2851	-0.3444	27.13	1.26	-1.500			
0.8490	54337.57	3.2820	3.2819	-0.3366	27.14	1.27	-1.500			
0.8500	54401.95	3.2790	3.2790	-0.3274	27.14	1.27	-1.500			
0.8510	54463.38	3.2760	3.2760	-0.3176	27.15	1.28	-1.500			
0.8519	54523.81	3.2730	3.2730	-0.3098	27.16	1.29	-1.500			
0.8528	54581.84	3.2700	3.2700	-0.3010	27.16	1.29	-1.500			
0.8537	54638.83	3.2670	3.2669	-0.2940	27.17	1.30	-1.500			
0.8546	54694.53	3.2640	3.2641	-0.2866	27.17	1.30	-1.500			
0.8554	54748.80	3.2610	3.2610	-0.2805	27.18	1.31	-1.500			
0.8563	54802.65	3.2580	3.2581	-0.2763	27.18	1.31	-1.500			
0.8571	54854.39	3.2550	3.2549	-0.2706	27.19	1.32	-1.500			
0.8579	54905.83	3.2520	3.2520	-0.2649	27.19	1.32	-1.500			
0.8587	54956.09	3.2490	3.2490	-0.2599	27.20	1.33	-1.500			
0.8595	55006.10	3.2460	3.2460	-0.2539	27.20	1.33	-1.500			
0.8602	55054.47	3.2430	3.2431	-0.2492	27.21	1.34	-1.500			
0.8610	55101.51	3.2400	3.2401	-0.2435	27.21	1.34	-1.500			
0.8617	55147.27	3.2370	3.2369	-0.2382	27.21	1.34	-1.500			
0.8624	55192.36	3.2340	3.2341	-0.2344	27.22	1.35	-1.500			
0.8631	55236.60	3.2310	3.2311	-0.2305	27.22	1.35	-1.500			
0.8638	55280.97	3.2280	3.2280	-0.2277	27.23	1.36	-1.500			
0.8644	55324.60	3.2250	3.2250	-0.2245	27.23	1.36	-1.500			
0.8651	55367.04	3.2220	3.2220	-0.2197	27.23	1.36	-1.500			
0.8658	55408.92	3.2190	3.2191	-0.2160	27.24	1.37	-1.500			
0.8664	55450.18	3.2160	3.2160	-0.2132	27.24	1.37	-1.500			
0.8670	55490.65	3.2130	3.2130	-0.2095	27.25	1.38	-1.500			
0.8677	55530.23	3.2100	3.2100	-0.2066	27.25	1.38	-1.500			
0.8683	55569.48	3.2070	3.2070	-0.2035	27.25	1.38	-1.500			
0.8689	55608.48	3.2040	3.2040	-0.2011	27.26	1.39	-1.500			
0.8695	55646.84	3.2010	3.2010	-0.1985	27.26	1.39	-1.500			
0.8701	55684.81	3.1980	3.1981	-0.1960	27.26	1.39	-1.500			
0.8707	55722.11	3.1950	3.1949	-0.1937	27.27	1.40	-1.500			
0.8712	55758.82	3.1920	3.1920	-0.1909	27.27	1.40	-1.500			
0.8718	55795.45	3.1890	3.1891	-0.1885	27.27	1.40	-1.500			
0.8724	55831.40	3.1860	3.1859	-0.1861	27.28	1.41	-1.500			
0.8729	55867.04	3.1830	3.1830	-0.1838	27.28	1.41	-1.500			
0.8735	55902.00	3.1800	3.1800	-0.1817	27.29	1.42	-1.500			
0.8740	55936.51	3.1770	3.1770	-0.1799	27.29	1.42	-1.500			
0.8745	55970.68	3.1740	3.1739	-0.1778	27.30	1.43	-1.500			
0.8751	56004.49	3.1710	3.1710	-0.1758	27.30	1.43	-1.500			
0.8756	56038.28	3.1680	3.1680	-0.1737	27.31	1.44	-1.500			
0.8761	56071.34	3.1650	3.1650	-0.1729	27.31	1.44	-1.500			
0.8766	56104.40	3.1620	3.1620	-0.1714	27.32	1.45	-1.500			
0.8771	56137.14	3.1590	3.1590	-0.1697	27.32	1.45	-1.500			
0.8776	56169.52	3.1560	3.1559	-0.1679	27.33	1.46	-1.500			
0.8782	56201.64	3.1530	3.1530	-0.1663	27.33	1.46	-1.500			
0.8786	56233.42	3.1500	3.1501	-0.1648	27.34	1.47	-1.500			
0.8791	56265.02	3.1470	3.1470	-0.1637	27.34	1.47	-1.500			
0.8796	56296.48	3.1440	3.1440	-0.1622	27.35	1.48	-1.500			
0.8801	56327.00	3.1410	3.1410	-0.1599	27.35	1.48	-1.500			
0.8806	56357.62	3.1380	3.1380	-0.1591	27.36	1.49	-1.500			
0.8811	56388.19	3.1350	3.1350	-0.1580	27.36	1.49	-1.500			
0.8815	56418.43	3.1320	3.1320	-0.1568	27.37	1.50	-1.500			
0.8820	56448.42	3.1290	3.1290	-0.1555	27.37	1.50	-1.500			
0.8825	56478.15	3.1260	3.1260	-0.1542	27.38	1.51	-1.500			
0.8829	56507.53	3.1230	3.1229	-0.1534	27.38	1.51	-1.500			
0.8834	56537.06	3.1200	3.1200	-0.1522	27.39	1.52	-1.500			
0.8838	56565.95	3.1170	3.1170	-0.1509	27.39	1.52	-1.500			
0.8843	56594.83	3.1140	3.1140	-0.1500	27.40	1.53	-1.500			
0.8847	56623.66	3.1110	3.1111	-0.1486	27.40	1.53	-1.500			
0.8852	56652.08	3.1080	3.1079	-0.1475	27.41	1.54	-1.500			
0.8856	56680.36	3.1050	3.1050	-0.1461	27.41	1.54	-1.500			
0.8861	56708.27	3.1020	3.1020	-0.1447	27.42	1.55	-1.500			
0.8865	56735.77	3.0990	3.0990	-0.1438	27.42	1.55	-1.500			
0.8869	56763.27	3.0960	3.0961	-0.1432	27.43	1.56	-1.500			
0.8874	56790.49	3.0930	3.0930	-0.1420	27.43	1.56	-1.500			
0.8878	56817.71	3.0900	3.0899	-0.1416	27.44	1.57	-1.500			
0.8882	56844.93	3.0870	3.0870	-0.1410	27.44	1.57	-1.500			
0.8886	56871.92	3.0840	3.0840	-0.1403	27.45	1.58	-1.500			
0.8890	56898.96	3.0810	3.0809	-0.1399	27.45	1.58	-1.500			
0.8895	56925.74	3.0780	3.0780	-0.1390	27.45	1.58	-1.500			
0.8899	56952.28	3.0750	3.0750	-0.1378	27.46	1.59	-1.500			
0.8903	56978.71	3.0720	3.0720	-0.1367	27.46	1.59	-1.500			
0.8907	57004.82	3.0690	3.0691	-0.1358	27.47	1.60	-1.500			
0.8911	57030.80	3.0660	3.0659	-0.1348	27.47	1.60	-1.500			
0.8915	57056.59	3.0630	3.0630	-0.1334	27.48	1.61	-1.500			
0.8919	57081.86	3.0600	3.0600	-0.1328	27.48	1.61	-1.500			
0.8923	57107.19	3.0570	3.0570	-0.1322	27.49	1.62	-1.500			
0.8927	57132.58	3.0540	3.0541	-0.1317	27.49	1.62	-1.500			
0.8931	57157.95	3.0510	3.0509	-0.1309	27.50	1.63	-1.500			
0.8935	57183.09	3.0480	3.0481	-0.1303	27.50	1.63	-1.500			
0.8939	57208.00	3.0450	3.0450	-0.1296	27.50	1.63	-1.500			
0.8943	57232.80	3.0420	3.0421	-0.1288	27.51	1.64	-1.500			
0.8946	57257.47	3.0390	3.0390	-0.1287	27.51	1.64	-1.500			
0.8950	57281.75	3.0360	3.0359	-0.1274	27.52	1.65	-1.500			
0.8954	57306.49	3.0330	3.0330	-0.1266	27.52	1.65	-1.500			
0.8958	57330.83	3.0300	3.0300	-0.1260	27.53	1.66	-1.500			
0.8962	57354.93	3.0270	3.0270	-0.1252	27.53	1.66	-1.500			
0.8965	57379.12	3.0240	3.0242	-0.1246	27.54	1.67	-1.500			
0.8969	57402.86	3.0210	3.0209	-0.1237	27.54	1.67	-1.500			
0.8973	57426.45	3.0180	3.0180	-0.1227	27.55	1.68	-1.500			
0.8977	57449.87	3.0150	3.0151	-0.1221	27.55	1.68	-1.500			
0.8980	57472.95	3.0120	3.0120	-0.1213	27.55	1.68	-1.500			
0.8984	57496.21	3.0090	3.0090	-0.1211	27.56	1.69	-1.500			
0.8987	57519.59	3.0060	3.0060	-0.1202	27.56	1.69	-1.500			
0.8991	57542.57	3.0030	3.0030	-0.1205	27.57	1.70	-1.500			
