Ah_balance (normalized)	Ah_balance (mAh)	Voltage - fit (V)	Voltage -  interpolate (V)	dQ/dV (1/V)	Temperature (°C)	Temperature - diff (°C)	Current (C)	R_DC 0ms (mOhm)	R_DC 50ms (mOhm)	R_DC 50 ms PEC (mOhm)
0.2820	18048.97	3.9690	3.9690	0.8854	27.25	1.27	1.500			
0.2847	18220.94	3.9660	3.9660	0.8996	27.25	1.27	1.500			
0.2874	18394.34	3.9630	3.9630	0.9041	27.25	1.27	1.500			
0.2901	18568.30	3.9600	3.9600	0.9088	27.25	1.27	1.500			
0.2929	18744.27	3.9570	3.9570	0.9111	27.24	1.26	1.500			
0.2956	18919.54	3.9540	3.9540	0.9156	27.24	1.26	1.500			
0.2984	19094.43	3.9510	3.9510	0.9185	27.24	1.26	1.500			
0.3011	19270.99	3.9480	3.9480	0.9231	27.23	1.25	1.500			
0.3039	19448.62	3.9450	3.9450	0.9282	27.23	1.25	1.500			
0.3067	19627.55	3.9420	3.9420	0.9324	27.23	1.25	1.500			
0.3095	19807.04	3.9390	3.9390	0.9352	27.22	1.24	1.500			
0.3123	19988.13	3.9360	3.9360	0.9392	27.22	1.24	1.500			
0.3151	20167.67	3.9330	3.9330	0.9438	27.22	1.24	1.500			
0.3180	20349.96	3.9300	3.9300	0.9456	27.21	1.23	1.500			
0.3208	20531.85	3.9270	3.9270	0.9502	27.21	1.23	1.500			
0.3237	20713.90	3.9240	3.9241	0.9567	27.21	1.23	1.500			
0.3265	20897.61	3.9210	3.9210	0.9659	27.20	1.22	1.500			
0.3294	21083.56	3.9180	3.9180	0.9736	27.20	1.22	1.500			
0.3324	21271.27	3.9150	3.9150	0.9787	27.19	1.21	1.500			
0.3353	21459.04	3.9120	3.9121	0.9872	27.19	1.21	1.500			
0.3383	21650.96	3.9090	3.9089	1.0012	27.18	1.20	1.500			
0.3413	21844.15	3.9060	3.9060	1.0033	27.18	1.20	1.500			
0.3443	22037.09	3.9030	3.9030	1.0097	27.17	1.19	1.500			
0.3473	22230.36	3.9000	3.9001	1.0183	27.17	1.19	1.500			
0.3504	22427.27	3.8970	3.8969	1.0306	27.16	1.18	1.500			
0.3535	22625.94	3.8940	3.8939	1.0406	27.16	1.18	1.500			
0.3567	22826.25	3.8910	3.8910	1.0470	27.15	1.17	1.500			
0.3598	23028.55	3.8880	3.8881	1.0566	27.15	1.17	1.500			
0.3630	23232.91	3.8850	3.8850	1.0755	27.14	1.16	1.500			
0.3663	23440.40	3.8820	3.8820	1.0825	27.14	1.16	1.500			
0.3695	23647.54	3.8790	3.8789	1.0971	27.13	1.15	1.500			
0.3728	23860.21	3.8760	3.8761	1.1128	27.13	1.15	1.500			
0.3762	24076.50	3.8730	3.8730	1.1292	27.12	1.14	1.500			
0.3796	24295.12	3.8700	3.8701	1.1412	27.12	1.14	1.500			
0.3831	24515.66	3.8670	3.8670	1.1520	27.11	1.13	1.500			
0.3865	24735.87	3.8640	3.8640	1.1658	27.10	1.12	1.500			
0.3901	24963.23	3.8610	3.8610	1.1805	27.09	1.11	1.500			
0.3936	25189.99	3.8580	3.8580	1.1946	27.08	1.10	1.500			
0.3972	25420.27	3.8550	3.8550	1.2121	27.07	1.09	1.500			
0.4009	25654.53	3.8520	3.8520	1.2317	27.06	1.08	1.500			
0.4046	25891.28	3.8490	3.8490	1.2580	27.05	1.07	1.500			
0.4083	26134.37	3.8460	3.8460	1.2789	27.04	1.06	1.500			
0.4123	26384.49	3.8430	3.8429	1.2946	27.03	1.05	1.500			
0.4162	26635.42	3.8400	3.8400	1.3248	27.02	1.04	1.500			
0.4202	26891.26	3.8370	3.8372	1.3460	27.00	1.02	1.500			
0.4242	27149.55	3.8340	3.8340	1.3750	26.99	1.01	1.500			
0.4284	27415.18	3.8310	3.8309	1.4022	26.98	1.00	1.500			
0.4326	27687.22	3.8280	3.8281	1.4319	26.97	0.99	1.500			
0.4370	27968.21	3.8250	3.8250	1.4618	26.95	0.97	1.500			
0.4414	28250.20	3.8220	3.8221	1.4967	26.94	0.96	1.500			
0.4459	28536.96	3.8190	3.8191	1.5368	26.93	0.95	1.500			
0.4506	28835.68	3.8160	3.8160	1.5787	26.92	0.94	1.500			
0.4554	29142.45	3.8130	3.8130	1.6183	26.90	0.92	1.500			
0.4603	29460.36	3.8100	3.8101	1.6510	26.89	0.91	1.500			
0.4653	29780.83	3.8070	3.8071	1.7007	26.87	0.89	1.500			
0.4704	30108.25	3.8040	3.8040	1.7490	26.86	0.88	1.500			
0.4757	30445.54	3.8010	3.8010	1.8023	26.85	0.87	1.500			
0.4812	30796.66	3.7980	3.7981	1.8570	26.83	0.85	1.500			
0.4869	31160.86	3.7950	3.7950	1.9102	26.81	0.83	1.500			
0.4928	31536.15	3.7920	3.7921	1.9648	26.79	0.81	1.500			
0.4987	31915.09	3.7890	3.7890	2.0150	26.77	0.79	1.500			
0.5048	32305.33	3.7860	3.7860	2.0832	26.75	0.77	1.500			
0.5111	32709.88	3.7830	3.7830	2.1487	26.73	0.75	1.500			
0.5177	33134.46	3.7800	3.7800	2.2167	26.70	0.72	1.500			
0.5245	33566.66	3.7770	3.7770	2.2778	26.67	0.69	1.500			
0.5314	34012.21	3.7740	3.7740	2.3258	26.65	0.67	1.500			
0.5385	34461.50	3.7710	3.7710	2.3701	26.62	0.64	1.500			
0.5456	34918.58	3.7680	3.7680	2.4216	26.60	0.62	1.500			
0.5530	35392.17	3.7650	3.7649	2.4956	26.57	0.59	1.500			
0.5606	35877.68	3.7620	3.7620	2.5347	26.55	0.57	1.500			
0.5683	36373.36	3.7590	3.7591	2.5437	26.52	0.54	1.500	0.357	0.441	
0.5760	36863.98	3.7560	3.7559	2.5377	26.50	0.52	1.500			
0.5836	37347.60	3.7530	3.7530	2.4991	26.47	0.49	1.500			
0.5910	37826.36	3.7500	3.7500	2.4605	26.44	0.46	1.500			
0.5984	38295.09	3.7470	3.7471	2.4158	26.42	0.44	1.500			
0.6055	38752.55	3.7440	3.7439	2.3763	26.39	0.41	1.500			
0.6125	39201.18	3.7410	3.7410	2.3286	26.38	0.40	1.500			
0.6194	39640.69	3.7380	3.7380	2.3148	26.36	0.38	1.500			
0.6263	40084.37	3.7350	3.7349	2.2962	26.34	0.36	1.500			
0.6332	40526.11	3.7320	3.7320	2.2915	26.32	0.34	1.500			
0.6401	40964.79	3.7290	3.7291	2.2941	26.31	0.33	1.500			
0.6469	41403.65	3.7260	3.7260	2.3033	26.29	0.31	1.500			
0.6538	41843.61	3.7230	3.7230	2.3446	26.27	0.29	1.500			
0.6609	42295.96	3.7200	3.7200	2.4127	26.25	0.27	1.500			
0.6682	42766.75	3.7170	3.7170	2.4768	26.24	0.26	1.500			
0.6757	43246.86	3.7140	3.7141	2.5597	26.22	0.24	1.500			
0.6835	43745.33	3.7110	3.7110	2.6416	26.21	0.23	1.500			
0.6915	44256.73	3.7080	3.7079	2.7660	26.19	0.21	1.500			
0.7000	44800.11	3.7050	3.7050	2.8911	26.17	0.19	1.500			
0.7089	45370.36	3.7020	3.7021	2.9720	26.15	0.17	1.500			
0.7178	45937.87	3.6990	3.6989	3.0824	26.14	0.16	1.500			
0.7273	46549.08	3.6960	3.6959	3.1303	26.12	0.14	1.500			
0.7370	47167.57	3.6930	3.6931	3.0662	26.11	0.13	1.500			
0.7461	47751.71	3.6900	3.6900	2.8562	26.09	0.11	1.500			
0.7541	48261.55	3.6870	3.6871	2.4986	26.08	0.10	1.500			
0.7611	48712.89	3.6840	3.6840	2.2313	26.07	0.09	1.500			
0.7673	49104.42	3.6810	3.6811	2.0129	26.07	0.09	1.500			
0.7728	49459.38	3.6780	3.6780	1.8277	26.06	0.08	1.500			
0.7780	49792.01	3.6750	3.6748	1.7040	26.06	0.08	1.500			
0.7829	50105.55	3.6720	3.6720	1.5930	26.05	0.07	1.500			
0.7875	50399.68	3.6690	3.6690	1.4954	26.05	0.07	1.500			
0.7919	50678.40	3.6660	3.6660	1.4130	26.04	0.06	1.500			
0.7958	50932.76	3.6630	3.6630	1.3406	26.04	0.06	1.500			
0.7997	51181.92	3.6600	3.6600	1.2862	26.03	0.05	1.500			
0.8034	51416.92	3.6570	3.6570	1.2473	26.03	0.05	1.500			
0.8070	51650.67	3.6540	3.6540	1.2255	26.02	0.04	1.500			
0.8107	51882.26	3.6510	3.6512	1.2216	26.02	0.04	1.500			
0.8143	52116.34	3.6480	3.6479	1.2228	26.02	0.04	1.500			
0.8179	52347.73	3.6450	3.6451	1.2357	26.01	0.03	1.500			
0.8216	52584.87	3.6420	3.6420	1.2549	26.01	0.03	1.500			
0.8255	52830.63	3.6390	3.6390	1.2724	26.00	0.02	1.500			
0.8293	53077.33	3.6360	3.6360	1.2817	26.00	0.02	1.500			
0.8332	53326.74	3.6330	3.6331	1.2930	25.99	0.01	1.500			
0.8371	53576.25	3.6300	3.6300	1.2925	25.99	0.01	1.500			
0.8410	53824.62	3.6270	3.6269	1.2952	25.98	-0.00	1.500			
0.8449	54071.28	3.6240	3.6240	1.2920	25.97	-0.01	1.500			
0.8487	54318.99	3.6210	3.6210	1.2929	25.97	-0.01	1.500			
0.8526	54567.54	3.6180	3.6180	1.2995	25.96	-0.02	1.500			
0.8565	54817.99	3.6150	3.6150	1.3022	25.96	-0.02	1.500			
0.8604	55067.69	3.6120	3.6120	1.3016	25.95	-0.03	1.500			
0.8644	55319.90	3.6090	3.6090	1.2993	25.95	-0.03	1.500			
0.8683	55568.62	3.6060	3.6061	1.2926	25.94	-0.04	1.500			
0.8722	55818.24	3.6030	3.6030	1.2853	25.94	-0.04	1.500			
0.8760	56065.38	3.6000	3.6000	1.2743	25.93	-0.05	1.500			
0.8798	56307.95	3.5970	3.5970	1.2596	25.93	-0.05	1.500			
0.8836	56548.36	3.5940	3.5941	1.2473	25.93	-0.05	1.500			
0.8873	56786.19	3.5910	3.5910	1.2353	25.93	-0.05	1.500			
0.8910	57021.23	3.5880	3.5880	1.2217	25.94	-0.04	1.500			
0.8946	57253.30	3.5850	3.5850	1.2188	25.94	-0.04	1.500			
0.8982	57483.25	3.5820	3.5821	1.2260	25.94	-0.04	1.500			
0.9018	57718.22	3.5790	3.5789	1.2362	25.94	-0.04	1.500			
0.9057	57962.30	3.5760	3.5758	1.2277	25.94	-0.04	1.500			
0.9095	58205.65	3.5730	3.5729	1.1988	25.95	-0.03	1.500			
0.9133	58453.65	3.5700	3.5700	1.1264	25.96	-0.02	1.500			
0.9167	58669.70	3.5670	3.5671	1.0044	25.96	-0.02	1.500			
0.9196	58855.83	3.5640	3.5642	0.8608	25.97	-0.01	1.500			
0.9219	59001.93	3.5610	3.5610	0.6958	25.97	-0.01	1.500			
0.9236	59108.15	3.5580	3.5579	0.5407	25.97	-0.01	1.500			
0.9249	59191.40	3.5550	3.5549	0.4303	25.98	-0.00	1.500			
0.9258	59254.15	3.5520	3.5520	0.3390	25.98	-0.00	1.500			
0.9267	59310.59	3.5490	3.5489	0.2750	25.98	-0.00	1.500			
0.9274	59353.77	3.5460	3.5460	0.2288	25.98	-0.00	1.500			
0.9280	59389.87	3.5430	3.5431	0.1943	25.98	0.00	1.500			
0.9285	59422.65	3.5400	3.5401	0.1606	25.98	0.00	1.500			
0.9289	59450.57	3.5370	3.5370	0.1350	25.98	0.00	1.500			
0.9293	59474.29	3.5340	3.5339	0.1121	25.98	0.00	1.500			
0.9296	59493.26	3.5310	3.5311	0.0894	25.98	0.00	1.500			
0.9298	59508.15	3.5280	3.5283	0.0676	25.98	0.00	1.500			
0.9300	59519.05	3.5250	3.5255	0.0459	25.98	0.00	1.500			
