Ah_balance (normalized)	Ah_balance (mAh)	Voltage - fit (V)	Voltage -  interpolate (V)	dQ/dV (1/V)	Temperature (°C)	Temperature - diff (°C)	Current (C)	R_DC 0ms (mOhm)	R_DC 50ms (mOhm)	R_DC 50 ms PEC (mOhm)
0.2788	17845.98	3.9900	3.9900	0.8446	27.42	1.46	1.500			
0.2814	18009.88	3.9870	3.9870	0.8536	27.41	1.45	1.500			
0.2840	18172.99	3.9840	3.9840	0.8532	27.40	1.44	1.500			
0.2865	18337.99	3.9810	3.9810	0.8521	27.40	1.44	1.500			
0.2891	18501.75	3.9780	3.9780	0.8489	27.39	1.43	1.500			
0.2916	18665.24	3.9750	3.9750	0.8494	27.39	1.43	1.500			
0.2942	18826.20	3.9720	3.9721	0.8514	27.38	1.42	1.500			
0.2967	18988.82	3.9690	3.9690	0.8545	27.38	1.42	1.500			
0.2993	19153.41	3.9660	3.9659	0.8595	27.37	1.41	1.500			
0.3018	19318.26	3.9630	3.9630	0.8633	27.37	1.41	1.500			
0.3045	19485.74	3.9600	3.9600	0.8723	27.36	1.40	1.500			
0.3071	19654.78	3.9570	3.9569	0.8779	27.36	1.40	1.500			
0.3097	19823.63	3.9540	3.9540	0.8784	27.35	1.39	1.500			
0.3124	19992.81	3.9510	3.9511	0.8783	27.35	1.39	1.500			
0.3150	20161.47	3.9480	3.9480	0.8843	27.34	1.38	1.500			
0.3177	20332.20	3.9450	3.9450	0.8854	27.34	1.38	1.500			
0.3203	20501.46	3.9420	3.9420	0.8881	27.33	1.37	1.500			
0.3230	20670.62	3.9390	3.9391	0.8972	27.33	1.37	1.500			
0.3257	20843.01	3.9360	3.9360	0.9088	27.32	1.36	1.500			
0.3284	21019.58	3.9330	3.9329	0.9152	27.31	1.35	1.500			
0.3312	21196.90	3.9300	3.9300	0.9214	27.31	1.35	1.500			
0.3340	21375.10	3.9270	3.9271	0.9252	27.30	1.34	1.500			
0.3368	21554.89	3.9240	3.9240	0.9250	27.29	1.33	1.500			
0.3396	21731.46	3.9210	3.9210	0.9261	27.29	1.33	1.500			
0.3423	21907.41	3.9180	3.9180	0.9309	27.28	1.32	1.500			
0.3451	22085.11	3.9150	3.9150	0.9349	27.27	1.31	1.500			
0.3479	22266.12	3.9120	3.9120	0.9463	27.27	1.31	1.500			
0.3508	22448.81	3.9090	3.9090	0.9534	27.26	1.30	1.500			
0.3536	22633.03	3.9060	3.9060	0.9611	27.25	1.29	1.500			
0.3565	22819.17	3.9030	3.9030	0.9728	27.24	1.28	1.500			
0.3595	23005.47	3.9000	3.9000	0.9786	27.23	1.27	1.500			
0.3624	23193.83	3.8970	3.8969	0.9794	27.23	1.27	1.500			
0.3654	23382.57	3.8940	3.8940	0.9914	27.22	1.26	1.500			
0.3683	23572.90	3.8910	3.8911	0.9976	27.21	1.25	1.500			
0.3713	23764.91	3.8880	3.8878	1.0079	27.20	1.24	1.500			
0.3744	23959.29	3.8850	3.8850	1.0164	27.19	1.23	1.500			
0.3774	24155.26	3.8820	3.8820	1.0241	27.18	1.22	1.500			
0.3805	24353.53	3.8790	3.8790	1.0374	27.17	1.21	1.500			
0.3837	24553.66	3.8760	3.8761	1.0452	27.17	1.21	1.500			
0.3868	24753.81	3.8730	3.8730	1.0567	27.16	1.20	1.500			
0.3900	24959.07	3.8700	3.8701	1.0697	27.15	1.19	1.500			
0.3932	25165.03	3.8670	3.8670	1.0821	27.14	1.18	1.500			
0.3965	25374.04	3.8640	3.8639	1.0964	27.13	1.17	1.500			
0.3998	25585.63	3.8610	3.8611	1.1107	27.12	1.16	1.500			
0.4031	25799.76	3.8580	3.8580	1.1233	27.11	1.15	1.500			
0.4065	26017.54	3.8550	3.8550	1.1388	27.10	1.14	1.500			
0.4099	26236.02	3.8520	3.8520	1.1503	27.09	1.13	1.500			
0.4134	26459.42	3.8490	3.8490	1.1692	27.08	1.12	1.500			
0.4169	26684.39	3.8460	3.8460	1.1843	27.06	1.10	1.500			
0.4205	26912.47	3.8430	3.8430	1.2072	27.05	1.09	1.500			
0.4241	27144.49	3.8400	3.8401	1.2293	27.04	1.08	1.500			
0.4279	27384.54	3.8370	3.8369	1.2493	27.03	1.07	1.500			
0.4317	27628.99	3.8340	3.8340	1.2690	27.02	1.06	1.500			
0.4355	27874.08	3.8310	3.8310	1.2902	27.00	1.04	1.500			
0.4394	28122.63	3.8280	3.8281	1.3126	26.99	1.03	1.500			
0.4434	28376.69	3.8250	3.8250	1.3323	26.98	1.02	1.500			
0.4474	28631.62	3.8220	3.8219	1.3556	26.97	1.01	1.500			
0.4515	28894.97	3.8190	3.8190	1.3851	26.95	0.99	1.500			
0.4557	29167.93	3.8160	3.8160	1.4035	26.94	0.98	1.500			
0.4600	29437.46	3.8130	3.8131	1.4233	26.93	0.97	1.500			
0.4643	29712.17	3.8100	3.8100	1.4481	26.91	0.95	1.500			
0.4686	29990.65	3.8070	3.8070	1.4753	26.90	0.94	1.500			
0.4730	30273.69	3.8040	3.8040	1.5007	26.88	0.92	1.500			
0.4776	30567.79	3.8010	3.8011	1.5369	26.87	0.91	1.500			
0.4823	30868.46	3.7980	3.7980	1.5726	26.85	0.89	1.500			
0.4871	31175.53	3.7950	3.7949	1.5980	26.83	0.87	1.500			
0.4919	31480.73	3.7920	3.7920	1.6183	26.82	0.86	1.500			
0.4968	31794.75	3.7890	3.7890	1.6459	26.80	0.84	1.500			
0.5018	32112.27	3.7860	3.7860	1.6747	26.78	0.82	1.500			
0.5069	32439.22	3.7830	3.7830	1.6910	26.77	0.81	1.500			
0.5119	32764.38	3.7800	3.7794	1.7103	26.75	0.79	1.500	0.346	0.471	
0.5171	33096.88	3.7770	3.7770	1.7356	26.73	0.77	1.500			
0.5223	33430.36	3.7740	3.7740	1.7399	26.72	0.76	1.500			
0.5276	33766.99	3.7710	3.7710	1.7453	26.70	0.74	1.500			
0.5329	34102.59	3.7680	3.7680	1.7533	26.68	0.72	1.500			
0.5381	34437.89	3.7650	3.7650	1.7498	26.67	0.71	1.500			
0.5434	34774.89	3.7620	3.7620	1.7619	26.65	0.69	1.500			
0.5486	35113.37	3.7590	3.7590	1.7675	26.63	0.67	1.500			
0.5540	35453.42	3.7560	3.7560	1.7718	26.62	0.66	1.500			
0.5593	35793.24	3.7530	3.7530	1.7732	26.60	0.64	1.500			
0.5645	36130.94	3.7500	3.7500	1.7779	26.59	0.63	1.500			
0.5699	36470.65	3.7470	3.7470	1.8002	26.57	0.61	1.500			
0.5753	36820.32	3.7440	3.7440	1.8422	26.56	0.60	1.500			
0.5809	37176.15	3.7410	3.7410	1.8683	26.54	0.58	1.500			
0.5866	37539.59	3.7380	3.7381	1.9046	26.52	0.56	1.500			
0.5923	37908.97	3.7350	3.7349	1.9461	26.50	0.54	1.500			
0.5982	38283.93	3.7320	3.7320	2.0062	26.48	0.52	1.500			
0.6044	38678.56	3.7290	3.7290	2.0454	26.47	0.51	1.500			
0.6106	39078.86	3.7260	3.7260	2.0943	26.45	0.49	1.500			
0.6169	39484.21	3.7230	3.7232	2.1740	26.43	0.47	1.500			
0.6235	39906.40	3.7200	3.7200	2.2341	26.41	0.45	1.500			
0.6303	40339.34	3.7170	3.7171	2.3031	26.39	0.43	1.500			
0.6375	40798.02	3.7140	3.7140	2.3660	26.37	0.41	1.500			
0.6445	41250.42	3.7110	3.7110	2.3777	26.35	0.39	1.500			
0.6518	41713.30	3.7080	3.7080	2.3902	26.33	0.37	1.500			
0.6590	42173.67	3.7050	3.7050	2.3278	26.31	0.35	1.500			
0.6660	42621.66	3.7020	3.7020	2.2480	26.29	0.33	1.500			
0.6725	43040.50	3.6990	3.6989	2.1124	26.28	0.32	1.500			
0.6786	43432.91	3.6960	3.6961	1.9632	26.26	0.30	1.500			
0.6843	43794.80	3.6930	3.6930	1.8289	26.25	0.29	1.500			
0.6895	44126.15	3.6900	3.6900	1.6978	26.24	0.28	1.500			
0.6944	44442.21	3.6870	3.6869	1.6072	26.22	0.26	1.500			
0.6990	44738.78	3.6840	3.6840	1.5210	26.21	0.25	1.500			
0.7034	45019.83	3.6810	3.6811	1.4507	26.20	0.24	1.500			
0.7077	45290.70	3.6780	3.6780	1.3973	26.19	0.23	1.500			
0.7117	45549.03	3.6750	3.6750	1.3489	26.18	0.22	1.500			
0.7156	45800.82	3.6720	3.6720	1.3179	26.17	0.21	1.500			
0.7195	46048.16	3.6690	3.6690	1.2981	26.16	0.20	1.500			
0.7234	46295.12	3.6660	3.6660	1.2835	26.14	0.18	1.500			
0.7272	46539.11	3.6630	3.6630	1.2818	26.13	0.17	1.500			
0.7310	46783.84	3.6600	3.6600	1.2790	26.12	0.16	1.500			
0.7348	47027.89	3.6570	3.6570	1.2790	26.11	0.15	1.500			
0.7387	47275.15	3.6540	3.6540	1.2799	26.10	0.14	1.500			
0.7425	47521.06	3.6510	3.6510	1.2799	26.09	0.13	1.500			
0.7464	47768.09	3.6480	3.6479	1.2795	26.08	0.12	1.500			
0.7502	48014.87	3.6450	3.6450	1.2802	26.07	0.11	1.500			
0.7541	48260.31	3.6420	3.6421	1.2686	26.06	0.10	1.500			
0.7579	48505.66	3.6390	3.6389	1.2536	26.05	0.09	1.500			
0.7616	48743.40	3.6360	3.6361	1.2505	26.04	0.08	1.500			
0.7653	48981.95	3.6330	3.6330	1.2414	26.03	0.07	1.500			
0.7690	49217.64	3.6300	3.6299	1.2341	26.02	0.06	1.500			
0.7727	49453.88	3.6270	3.6272	1.2281	26.01	0.05	1.500			
0.7764	49689.09	3.6240	3.6240	1.2226	26.00	0.04	1.500			
0.7801	49927.36	3.6210	3.6210	1.2186	25.99	0.03	1.500			
0.7838	50161.50	3.6180	3.6180	1.2026	25.99	0.03	1.500			
0.7874	50390.61	3.6150	3.6150	1.1815	25.98	0.02	1.500			
0.7909	50616.89	3.6120	3.6120	1.1640	25.97	0.01	1.500			
0.7943	50837.21	3.6090	3.6091	1.1396	25.96	0.00	1.500			
0.7977	51053.66	3.6060	3.6059	1.1183	25.96	0.00	1.500			
0.8010	51266.12	3.6030	3.6030	1.0956	25.96	0.00	1.500			
0.8043	51474.89	3.6000	3.6000	1.0709	25.96	0.00	1.500			
0.8075	51679.22	3.5970	3.5969	1.0486	25.96	0.00	1.500			
0.8106	51879.99	3.5940	3.5940	1.0130	25.96	0.00	1.500			
0.8136	52072.37	3.5910	3.5909	0.9787	25.96	0.00	1.500			
0.8166	52263.28	3.5880	3.5879	0.9274	25.96	0.00	1.500			
0.8194	52439.22	3.5850	3.5850	0.8596	25.96	0.00	1.500			
0.8219	52602.60	3.5820	3.5821	0.7797	25.96	0.00	1.500			
0.8241	52744.98	3.5790	3.5791	0.6858	25.96	0.00	1.500			
0.8260	52866.21	3.5760	3.5760	0.5896	25.96	0.00	1.500			
0.8276	52968.13	3.5730	3.5730	0.4983	25.96	0.00	1.500			
0.8289	53049.10	3.5700	3.5700	0.4132	25.96	0.00	1.500			
0.8300	53118.39	3.5670	3.5670	0.3547	25.96	0.00	1.500			
0.8309	53176.48	3.5640	3.5639	0.3024	25.96	0.00	1.500			
0.8317	53228.07	3.5610	3.5610	0.2652	25.96	0.00	1.500			
0.8324	53273.52	3.5580	3.5579	0.2317	25.96	0.00	1.500			
0.8330	53314.61	3.5550	3.5550	0.2095	25.96	0.00	1.500			
0.8336	53351.29	3.5520	3.5520	0.1876	25.96	0.00	1.500			
0.8341	53385.48	3.5490	3.5490	0.1697	25.96	0.00	1.500			
0.8346	53416.02	3.5460	3.5459	0.1542	25.96	0.00	1.500			
0.8351	53443.48	3.5430	3.5431	0.1377	25.96	0.00	1.500			
0.8354	53468.35	3.5400	3.5399	0.1231	25.96	0.00	1.500			
0.8358	53490.56	3.5370	3.5370	0.1086	25.96	0.00	1.500			
0.8361	53510.04	3.5340	3.5340	0.0943	25.96	0.00	1.500			
0.8364	53526.49	3.5310	3.5312	0.0799	25.96	0.00	1.500			
0.8366	53541.09	3.5280	3.5282	0.0658	25.96	0.00	1.500			
0.8368	53552.27	3.5250	3.5255	0.0507	25.96	0.00	1.500			
0.8369	53560.55	3.5220	3.5228	0.0356	25.96	0.00	1.500			
