Ah_balance (normalized)	Ah_balance (mAh)	Voltage - fit (V)	Voltage -  interpolate (V)	dQ/dV (1/V)	Temperature (°C)	Temperature - diff (°C)	Current (C)	R_DC 0ms (mOhm)	R_DC 50ms (mOhm)	R_DC 50 ms PEC (mOhm)
0.2798	17904.10	3.9880	3.9880	0.8178	27.20	1.24	1.500			
0.2822	18059.45	3.9850	3.9851	0.8138	27.20	1.24	1.500			
0.2847	18218.23	3.9820	3.9819	0.8332	27.19	1.23	1.500			
0.2872	18381.99	3.9790	3.9790	0.8407	27.19	1.23	1.500			
0.2897	18543.39	3.9760	3.9761	0.8466	27.18	1.22	1.500			
0.2923	18707.61	3.9730	3.9731	0.8509	27.18	1.22	1.500			
0.2949	18873.89	3.9700	3.9699	0.8566	27.18	1.22	1.500			
0.2974	19035.60	3.9670	3.9670	0.8585	27.17	1.21	1.500			
0.3000	19199.81	3.9640	3.9640	0.8632	27.17	1.21	1.500			
0.3026	19367.02	3.9610	3.9610	0.8682	27.16	1.20	1.500			
0.3052	19535.26	3.9580	3.9580	0.8744	27.16	1.20	1.500			
0.3079	19702.76	3.9550	3.9551	0.8773	27.15	1.19	1.500			
0.3105	19872.27	3.9520	3.9520	0.8830	27.15	1.19	1.500			
0.3132	20042.06	3.9490	3.9490	0.8856	27.15	1.19	1.500			
0.3158	20212.49	3.9460	3.9460	0.8874	27.14	1.18	1.500			
0.3185	20384.30	3.9430	3.9430	0.8868	27.14	1.18	1.500			
0.3212	20554.31	3.9400	3.9400	0.8897	27.13	1.17	1.500			
0.3238	20723.56	3.9370	3.9371	0.8943	27.13	1.17	1.500			
0.3265	20895.97	3.9340	3.9339	0.8956	27.12	1.16	1.500			
0.3292	21068.02	3.9310	3.9310	0.9022	27.12	1.16	1.500			
0.3319	21242.69	3.9280	3.9280	0.9062	27.12	1.16	1.500			
0.3346	21417.02	3.9250	3.9250	0.9166	27.11	1.15	1.500			
0.3374	21593.96	3.9220	3.9221	0.9227	27.10	1.14	1.500			
0.3402	21770.34	3.9190	3.9189	0.9233	27.10	1.14	1.500			
0.3429	21947.88	3.9160	3.9160	0.9319	27.09	1.13	1.500			
0.3457	22127.37	3.9130	3.9131	0.9368	27.08	1.12	1.500			
0.3486	22308.86	3.9100	3.9100	0.9443	27.07	1.11	1.500			
0.3514	22492.66	3.9070	3.9070	0.9486	27.06	1.10	1.500			
0.3543	22672.82	3.9040	3.9041	0.9539	27.05	1.09	1.500			
0.3571	22856.08	3.9010	3.9010	0.9649	27.04	1.08	1.500			
0.3600	23042.20	3.8980	3.8979	0.9755	27.03	1.07	1.500			
0.3630	23229.33	3.8950	3.8951	0.9814	27.02	1.06	1.500			
0.3659	23419.51	3.8920	3.8920	0.9927	27.02	1.06	1.500			
0.3689	23611.87	3.8890	3.8890	1.0069	27.01	1.05	1.500			
0.3720	23805.92	3.8860	3.8860	1.0134	27.00	1.04	1.500			
0.3750	24001.40	3.8830	3.8829	1.0178	27.00	1.04	1.500			
0.3781	24196.80	3.8800	3.8801	1.0295	26.99	1.03	1.500			
0.3812	24395.72	3.8770	3.8770	1.0422	26.98	1.02	1.500			
0.3843	24597.81	3.8740	3.8740	1.0526	26.97	1.01	1.500			
0.3875	24799.71	3.8710	3.8710	1.0643	26.96	1.00	1.500			
0.3907	25004.18	3.8680	3.8681	1.0720	26.95	0.99	1.500			
0.3939	25211.45	3.8650	3.8650	1.0894	26.94	0.98	1.500			
0.3972	25422.02	3.8620	3.8620	1.1062	26.93	0.97	1.500			
0.4005	25634.51	3.8590	3.8590	1.1182	26.92	0.96	1.500			
0.4039	25851.08	3.8560	3.8560	1.1328	26.91	0.95	1.500			
0.4073	26070.23	3.8530	3.8530	1.1516	26.90	0.94	1.500			
0.4108	26292.79	3.8500	3.8501	1.1650	26.89	0.93	1.500			
0.4143	26518.09	3.8470	3.8470	1.1894	26.88	0.92	1.500			
0.4179	26747.71	3.8440	3.8440	1.1988	26.87	0.91	1.500			
0.4216	26979.89	3.8410	3.8410	1.2172	26.86	0.90	1.500			
0.4252	27214.02	3.8380	3.8381	1.2401	26.84	0.88	1.500			
0.4290	27456.21	3.8350	3.8350	1.2559	26.83	0.87	1.500			
0.4328	27696.68	3.8320	3.8320	1.2768	26.82	0.86	1.500			
0.4366	27942.98	3.8290	3.8291	1.2991	26.81	0.85	1.500			
0.4405	28193.36	3.8260	3.8261	1.3213	26.79	0.83	1.500			
0.4446	28451.80	3.8230	3.8229	1.3522	26.78	0.82	1.500			
0.4486	28710.40	3.8200	3.8200	1.3823	26.77	0.81	1.500			
0.4528	28978.34	3.8170	3.8170	1.4059	26.76	0.80	1.500			
0.4571	29253.59	3.8140	3.8139	1.4400	26.74	0.78	1.500			
0.4614	29532.65	3.8110	3.8111	1.4636	26.73	0.77	1.500			
0.4659	29817.18	3.8080	3.8081	1.4980	26.71	0.75	1.500			
0.4704	30108.42	3.8050	3.8049	1.5242	26.70	0.74	1.500			
0.4750	30400.56	3.8020	3.8020	1.5429	26.68	0.72	1.500			
0.4796	30697.14	3.7990	3.7990	1.5724	26.67	0.71	1.500			
0.4844	31004.45	3.7960	3.7961	1.6060	26.65	0.69	1.500			
0.4893	31315.43	3.7930	3.7931	1.6356	26.64	0.68	1.500			
0.4943	31637.13	3.7900	3.7900	1.6591	26.62	0.66	1.500			
0.4994	31959.36	3.7870	3.7870	1.6920	26.60	0.64	1.500			
0.5044	32279.35	3.7840	3.7842	1.7207	26.58	0.62	1.500			
0.5096	32612.04	3.7810	3.7808	1.7531	26.55	0.59	1.500			
0.5149	32952.99	3.7780	3.7779	1.7807	26.54	0.58	1.500	0.347	0.464	
0.5204	33303.98	3.7750	3.7751	1.8085	26.52	0.56	1.500			
0.5259	33654.86	3.7720	3.7720	1.8009	26.51	0.55	1.500			
0.5311	33991.24	3.7690	3.7690	1.7762	26.49	0.53	1.500			
0.5364	34327.93	3.7660	3.7660	1.7637	26.48	0.52	1.500			
0.5417	34667.54	3.7630	3.7630	1.7784	26.46	0.50	1.500			
0.5470	35010.15	3.7600	3.7600	1.7729	26.44	0.48	1.500			
0.5523	35349.83	3.7570	3.7570	1.7764	26.43	0.47	1.500			
0.5577	35691.12	3.7540	3.7541	1.7917	26.41	0.45	1.500			
0.5631	36036.31	3.7510	3.7509	1.7934	26.39	0.43	1.500			
0.5685	36380.90	3.7480	3.7480	1.8063	26.38	0.42	1.500			
0.5739	36727.79	3.7450	3.7451	1.8281	26.37	0.41	1.500			
0.5793	37076.90	3.7420	3.7419	1.8430	26.36	0.40	1.500			
0.5849	37430.55	3.7390	3.7388	1.9046	26.34	0.38	1.500			
0.5906	37798.88	3.7360	3.7360	1.9538	26.33	0.37	1.500			
0.5967	38186.88	3.7330	3.7330	2.0025	26.31	0.35	1.500			
0.6027	38572.76	3.7300	3.7300	2.0361	26.30	0.34	1.500			
0.6089	38968.49	3.7270	3.7270	2.0938	26.28	0.32	1.500			
0.6152	39370.37	3.7240	3.7240	2.1444	26.27	0.31	1.500			
0.6218	39794.58	3.7210	3.7210	2.2014	26.25	0.29	1.500			
0.6285	40224.19	3.7180	3.7180	2.2366	26.23	0.27	1.500			
0.6352	40654.28	3.7150	3.7149	2.3099	26.21	0.25	1.500			
0.6422	41103.11	3.7120	3.7120	2.3716	26.20	0.24	1.500			
0.6495	41566.63	3.7090	3.7091	2.4074	26.18	0.22	1.500			
0.6569	42039.10	3.7060	3.7060	2.4430	26.17	0.21	1.500			
0.6642	42510.06	3.7030	3.7031	2.3798	26.15	0.19	1.500			
0.6715	42973.78	3.7000	3.7000	2.3046	26.14	0.18	1.500			
0.6782	43404.57	3.6970	3.6969	2.1516	26.13	0.17	1.500			
0.6843	43796.55	3.6940	3.6940	1.9825	26.12	0.16	1.500			
0.6900	44161.69	3.6910	3.6910	1.8393	26.11	0.15	1.500			
0.6953	44498.88	3.6880	3.6880	1.7079	26.10	0.14	1.500			
0.7001	44806.52	3.6850	3.6850	1.5998	26.10	0.14	1.500			
0.7047	45098.46	3.6820	3.6820	1.5116	26.09	0.13	1.500			
0.7090	45378.80	3.6790	3.6789	1.4404	26.08	0.12	1.500			
0.7132	45647.39	3.6760	3.6760	1.3843	26.08	0.12	1.500			
0.7173	45906.06	3.6730	3.6731	1.3359	26.07	0.11	1.500			
0.7212	46157.42	3.6700	3.6700	1.2982	26.06	0.10	1.500			
0.7250	46400.80	3.6670	3.6670	1.2695	26.06	0.10	1.500			
0.7287	46635.39	3.6640	3.6640	1.2525	26.05	0.09	1.500			
0.7324	46873.29	3.6610	3.6610	1.2550	26.05	0.09	1.500			
0.7361	47113.53	3.6580	3.6579	1.2603	26.04	0.08	1.500			
0.7399	47356.67	3.6550	3.6551	1.2697	26.03	0.07	1.500			
0.7438	47603.44	3.6520	3.6520	1.2762	26.02	0.06	1.500			
0.7477	47850.58	3.6490	3.6490	1.2798	26.01	0.05	1.500			
0.7515	48096.87	3.6460	3.6460	1.2734	26.00	0.04	1.500			
0.7553	48341.69	3.6430	3.6430	1.2677	25.99	0.03	1.500			
0.7591	48584.63	3.6400	3.6400	1.2614	25.98	0.02	1.500			
0.7629	48826.08	3.6370	3.6371	1.2578	25.98	0.02	1.500			
0.7667	49066.45	3.6340	3.6340	1.2568	25.97	0.01	1.500			
0.7704	49307.90	3.6310	3.6310	1.2526	25.96	0.00	1.500			
0.7742	49548.15	3.6280	3.6280	1.2471	25.96	-0.00	1.500			
0.7779	49787.80	3.6250	3.6251	1.2421	25.95	-0.01	1.500			
0.7817	50027.40	3.6220	3.6220	1.2358	25.95	-0.01	1.500			
0.7854	50263.69	3.6190	3.6189	1.2248	25.94	-0.02	1.500			
0.7890	50497.14	3.6160	3.6160	1.2121	25.94	-0.02	1.500			
0.7926	50728.80	3.6130	3.6130	1.2010	25.94	-0.02	1.500			
0.7963	50961.04	3.6100	3.6100	1.1894	25.94	-0.02	1.500			
0.7998	51188.31	3.6070	3.6070	1.1662	25.93	-0.03	1.500			
0.8033	51411.41	3.6040	3.6040	1.1441	25.93	-0.03	1.500			
0.8067	51628.61	3.6010	3.6011	1.1251	25.93	-0.03	1.500			
0.8100	51841.73	3.5980	3.5979	1.1033	25.93	-0.03	1.500			
0.8133	52050.37	3.5950	3.5950	1.0819	25.93	-0.03	1.500			
0.8165	52256.32	3.5920	3.5920	1.0610	25.94	-0.02	1.500			
0.8197	52463.27	3.5890	3.5889	1.0323	25.94	-0.02	1.500			
0.8228	52661.44	3.5860	3.5860	0.9905	25.94	-0.02	1.500			
0.8258	52853.80	3.5830	3.5830	0.9284	25.95	-0.01	1.500			
0.8286	53028.41	3.5800	3.5800	0.8444	25.95	-0.01	1.500			
0.8311	53187.75	3.5770	3.5770	0.7518	25.95	-0.01	1.500			
0.8331	53321.23	3.5740	3.5741	0.6502	25.96	-0.00	1.500			
0.8349	53433.77	3.5710	3.5711	0.5485	25.96	-0.00	1.500			
0.8363	53524.68	3.5680	3.5681	0.4648	25.96	0.00	1.500			
0.8375	53598.84	3.5650	3.5651	0.3854	25.96	0.00	1.500			
0.8385	53665.30	3.5620	3.5619	0.3261	25.96	0.00	1.500			
0.8394	53719.23	3.5590	3.5589	0.2822	25.96	0.00	1.500			
0.8401	53766.59	3.5560	3.5559	0.2464	25.97	0.01	1.500			
0.8408	53808.91	3.5530	3.5530	0.2195	25.97	0.01	1.500			
0.8414	53847.77	3.5500	3.5500	0.1964	25.97	0.01	1.500			
0.8419	53883.08	3.5470	3.5470	0.1783	25.97	0.01	1.500			
0.8424	53915.28	3.5440	3.5441	0.1608	25.97	0.01	1.500			
0.8429	53944.12	3.5410	3.5410	0.1460	25.97	0.01	1.500			
0.8433	53970.79	3.5380	3.5380	0.1318	25.97	0.01	1.500			
0.8437	53994.60	3.5350	3.5350	0.1171	25.97	0.01	1.500			
0.8440	54015.77	3.5320	3.5319	0.1031	25.97	0.01	1.500			
0.8443	54034.21	3.5290	3.5291	0.0890	25.97	0.01	1.500			
0.8445	54050.01	3.5260	3.5263	0.0749	25.97	0.01	1.500			
0.8447	54063.83	3.5230	3.5230	0.0600	25.97	0.01	1.500			
0.8449	54073.83	3.5200	3.5204	0.0442	25.97	0.01	1.500			
0.8450	54080.80	3.5170	3.5181	0.0284	25.97	0.01	1.500			
