Ah_balance (normalized)	Ah_balance (mAh)	Voltage - fit (V)	Voltage -  interpolate (V)	dQ/dV (1/V)	Temperature (°C)	Temperature - diff (°C)	Current (C)	R_DC 0ms (mOhm)	R_DC 50ms (mOhm)	R_DC 50 ms PEC (mOhm)
0.3052	19531.30	3.9730	3.9730	0.8817	27.01	1.07	1.500			
0.3078	19697.50	3.9700	3.9700	0.8666	27.01	1.07	1.500			
0.3104	19863.33	3.9670	3.9671	0.8662	27.00	1.06	1.500			
0.3130	20029.04	3.9640	3.9639	0.8698	27.00	1.06	1.500			
0.3156	20196.99	3.9610	3.9610	0.8683	26.99	1.05	1.500			
0.3182	20362.41	3.9580	3.9580	0.8732	26.99	1.05	1.500			
0.3208	20530.75	3.9550	3.9550	0.8782	26.99	1.05	1.500			
0.3235	20701.09	3.9520	3.9520	0.8807	26.98	1.04	1.500			
0.3261	20869.72	3.9490	3.9490	0.8816	26.98	1.04	1.500			
0.3287	21039.19	3.9460	3.9461	0.8869	26.97	1.03	1.500			
0.3314	21209.23	3.9430	3.9430	0.8948	26.97	1.03	1.500			
0.3341	21383.21	3.9400	3.9399	0.8984	26.96	1.02	1.500			
0.3368	21553.92	3.9370	3.9370	0.9023	26.96	1.02	1.500			
0.3395	21730.42	3.9340	3.9340	0.9032	26.96	1.02	1.500			
0.3422	21903.03	3.9310	3.9310	0.9104	26.95	1.01	1.500			
0.3449	22076.13	3.9280	3.9280	0.9188	26.95	1.01	1.500			
0.3477	22251.98	3.9250	3.9251	0.9306	26.94	1.00	1.500			
0.3505	22431.30	3.9220	3.9219	0.9331	26.94	1.00	1.500			
0.3533	22613.36	3.9190	3.9190	0.9404	26.93	0.99	1.500			
0.3562	22794.40	3.9160	3.9162	0.9440	26.93	0.99	1.500			
0.3590	22977.73	3.9130	3.9128	0.9498	26.92	0.98	1.500			
0.3619	23158.89	3.9100	3.9100	0.9519	26.92	0.98	1.500			
0.3647	23339.84	3.9070	3.9070	0.9545	26.92	0.98	1.500			
0.3676	23525.66	3.9040	3.9040	0.9678	26.91	0.97	1.500			
0.3705	23713.37	3.9010	3.9010	0.9825	26.91	0.97	1.500			
0.3735	23903.40	3.8980	3.8980	0.9889	26.90	0.96	1.500			
0.3765	24093.94	3.8950	3.8950	0.9945	26.90	0.96	1.500			
0.3795	24286.35	3.8920	3.8920	1.0003	26.89	0.95	1.500			
0.3825	24478.38	3.8890	3.8890	1.0065	26.88	0.94	1.500			
0.3855	24669.92	3.8860	3.8860	1.0145	26.87	0.93	1.500			
0.3885	24867.03	3.8830	3.8830	1.0208	26.87	0.93	1.500			
0.3916	25062.16	3.8800	3.8799	1.0316	26.86	0.92	1.500			
0.3947	25262.48	3.8770	3.8770	1.0480	26.85	0.91	1.500			
0.3979	25465.06	3.8740	3.8742	1.0600	26.84	0.90	1.500			
0.4011	25669.47	3.8710	3.8710	1.0755	26.84	0.90	1.500			
0.4043	25877.46	3.8680	3.8681	1.0879	26.83	0.89	1.500			
0.4076	26088.86	3.8650	3.8649	1.0989	26.82	0.88	1.500			
0.4110	26301.95	3.8620	3.8620	1.1113	26.81	0.87	1.500			
0.4143	26514.73	3.8590	3.8590	1.1207	26.80	0.86	1.500			
0.4177	26730.08	3.8560	3.8560	1.1344	26.80	0.86	1.500			
0.4211	26947.80	3.8530	3.8530	1.1531	26.79	0.85	1.500			
0.4245	27170.55	3.8500	3.8499	1.1682	26.78	0.84	1.500			
0.4281	27395.77	3.8470	3.8470	1.1903	26.77	0.83	1.500			
0.4317	27626.79	3.8440	3.8440	1.2118	26.77	0.83	1.500			
0.4354	27862.91	3.8410	3.8411	1.2298	26.76	0.82	1.500			
0.4391	28101.08	3.8380	3.8380	1.2480	26.76	0.82	1.500			
0.4428	28341.21	3.8350	3.8351	1.2674	26.75	0.81	1.500			
0.4467	28586.11	3.8320	3.8320	1.2891	26.74	0.80	1.500			
0.4505	28835.13	3.8290	3.8291	1.3188	26.74	0.80	1.500			
0.4545	29088.61	3.8260	3.8260	1.3486	26.73	0.79	1.500			
0.4586	29351.58	3.8230	3.8230	1.3751	26.71	0.77	1.500			
0.4628	29619.13	3.8200	3.8201	1.4040	26.70	0.76	1.500			
0.4671	29891.43	3.8170	3.8170	1.4356	26.69	0.75	1.500			
0.4714	30168.99	3.8140	3.8140	1.4694	26.68	0.74	1.500			
0.4758	30452.75	3.8110	3.8110	1.5043	26.67	0.73	1.500			
0.4804	30745.11	3.8080	3.8080	1.5397	26.65	0.71	1.500			
0.4851	31044.92	3.8050	3.8050	1.5639	26.64	0.70	1.500			
0.4898	31349.38	3.8020	3.8021	1.6143	26.63	0.69	1.500			
0.4947	31661.00	3.7990	3.7990	1.6547	26.61	0.67	1.500			
0.4997	31979.46	3.7960	3.7960	1.6953	26.60	0.66	1.500			
0.5049	32312.00	3.7930	3.7930	1.7311	26.58	0.64	1.500			
0.5102	32651.49	3.7900	3.7900	1.7753	26.57	0.63	1.500			
0.5156	32995.25	3.7870	3.7870	1.8292	26.56	0.62	1.500			
0.5211	33348.37	3.7840	3.7840	1.8520	26.54	0.60	1.500			
0.5267	33707.38	3.7810	3.7809	1.8867	26.52	0.58	1.500			
0.5324	34074.55	3.7780	3.7781	1.9051	26.51	0.57	1.500			
0.5382	34445.49	3.7750	3.7749	1.9300	26.49	0.55	1.500			
0.5440	34815.67	3.7720	3.7720	1.9364	26.48	0.54	1.500			
0.5497	35183.63	3.7690	3.7690	1.9761	26.46	0.52	1.500			
0.5558	35573.53	3.7660	3.7657	2.0054	26.44	0.50	1.500	0.361	0.461	
0.5620	35966.03	3.7630	3.7631	2.0171	26.43	0.49	1.500			
0.5681	36356.91	3.7600	3.7600	2.0159	26.42	0.48	1.500			
0.5740	36736.49	3.7570	3.7570	1.9747	26.40	0.46	1.500			
0.5799	37115.82	3.7540	3.7540	1.9693	26.38	0.44	1.500			
0.5859	37495.30	3.7510	3.7511	1.9512	26.36	0.42	1.500			
0.5917	37870.86	3.7480	3.7480	1.9493	26.34	0.40	1.500			
0.5975	38240.40	3.7450	3.7450	1.9428	26.33	0.39	1.500			
0.6033	38608.53	3.7420	3.7420	1.9344	26.31	0.37	1.500			
0.6091	38984.08	3.7390	3.7390	1.9516	26.30	0.36	1.500			
0.6150	39358.26	3.7360	3.7360	1.9718	26.30	0.36	1.500			
0.6209	39739.06	3.7330	3.7330	2.0085	26.29	0.35	1.500			
0.6269	40124.14	3.7300	3.7300	2.0451	26.28	0.34	1.500			
0.6332	40527.60	3.7270	3.7270	2.0821	26.26	0.32	1.500			
0.6395	40930.32	3.7240	3.7240	2.1380	26.25	0.31	1.500			
0.6460	41341.23	3.7210	3.7210	2.1832	26.24	0.30	1.500			
0.6525	41762.55	3.7180	3.7181	2.2596	26.22	0.28	1.500			
0.6594	42199.25	3.7150	3.7150	2.3375	26.21	0.27	1.500			
0.6666	42663.12	3.7120	3.7120	2.4258	26.20	0.26	1.500			
0.6739	43132.66	3.7090	3.7090	2.5108	26.18	0.24	1.500			
0.6817	43630.34	3.7060	3.7060	2.5476	26.17	0.23	1.500			
0.6895	44127.89	3.7030	3.7030	2.6028	26.16	0.22	1.500			
0.6973	44626.08	3.7000	3.6999	2.5923	26.14	0.20	1.500			
0.7051	45128.59	3.6970	3.6970	2.5070	26.13	0.19	1.500			
0.7126	45605.21	3.6940	3.6940	2.4014	26.12	0.18	1.500			
0.7196	46055.91	3.6910	3.6910	2.2271	26.11	0.17	1.500			
0.7261	46468.91	3.6880	3.6880	2.0604	26.10	0.16	1.500			
0.7319	46843.35	3.6850	3.6850	1.8972	26.09	0.15	1.500			
0.7373	47188.69	3.6820	3.6821	1.7597	26.09	0.15	1.500			
0.7423	47506.54	3.6790	3.6790	1.6410	26.09	0.15	1.500			
0.7470	47809.33	3.6760	3.6760	1.5458	26.08	0.14	1.500			
0.7515	48096.59	3.6730	3.6730	1.4732	26.08	0.14	1.500			
0.7558	48369.40	3.6700	3.6700	1.4014	26.07	0.13	1.500			
0.7599	48630.69	3.6670	3.6670	1.3473	26.06	0.12	1.500			
0.7638	48880.72	3.6640	3.6640	1.3017	26.06	0.12	1.500			
0.7675	49121.00	3.6610	3.6610	1.2697	26.05	0.11	1.500			
0.7712	49359.47	3.6580	3.6580	1.2560	26.05	0.11	1.500			
0.7749	49596.72	3.6550	3.6549	1.2525	26.04	0.10	1.500			
0.7787	49835.42	3.6520	3.6520	1.2619	26.03	0.09	1.500			
0.7825	50078.14	3.6490	3.6490	1.2775	26.03	0.09	1.500			
0.7863	50326.29	3.6460	3.6460	1.2847	26.02	0.08	1.500			
0.7902	50574.54	3.6430	3.6430	1.2921	26.01	0.07	1.500			
0.7941	50824.43	3.6400	3.6400	1.3005	26.01	0.07	1.500			
0.7981	51075.33	3.6370	3.6370	1.3027	26.00	0.06	1.500			
0.8020	51327.00	3.6340	3.6340	1.2990	26.00	0.06	1.500			
0.8059	51575.07	3.6310	3.6310	1.2929	25.99	0.05	1.500			
0.8098	51824.13	3.6280	3.6281	1.2883	25.98	0.04	1.500			
0.8136	52072.61	3.6250	3.6250	1.2876	25.98	0.04	1.500			
0.8175	52317.04	3.6220	3.6220	1.2817	25.97	0.03	1.500			
0.8213	52562.51	3.6190	3.6190	1.2782	25.97	0.03	1.500			
0.8251	52807.43	3.6160	3.6160	1.2756	25.96	0.02	1.500			
0.8290	53053.19	3.6130	3.6130	1.2707	25.95	0.01	1.500			
0.8328	53298.38	3.6100	3.6100	1.2592	25.95	0.01	1.500			
0.8366	53540.73	3.6070	3.6070	1.2422	25.94	0.00	1.500			
0.8403	53777.39	3.6040	3.6041	1.2270	25.93	-0.01	1.500			
0.8439	54010.81	3.6010	3.6010	1.2100	25.93	-0.01	1.500			
0.8475	54241.68	3.5980	3.5980	1.1920	25.92	-0.02	1.500			
0.8511	54467.99	3.5950	3.5950	1.1771	25.92	-0.02	1.500			
0.8546	54691.26	3.5920	3.5920	1.1656	25.92	-0.02	1.500			
0.8580	54914.16	3.5890	3.5890	1.1561	25.93	-0.01	1.500			
0.8615	55138.28	3.5860	3.5859	1.1398	25.93	-0.01	1.500			
0.8649	55353.78	3.5830	3.5830	1.1216	25.93	-0.01	1.500			
0.8683	55572.98	3.5800	3.5800	1.0941	25.94	-0.00	1.500			
0.8716	55784.89	3.5770	3.5769	1.0451	25.94	-0.00	1.500			
0.8749	55990.49	3.5740	3.5738	0.9632	25.94	0.00	1.500			
0.8777	56171.07	3.5710	3.5712	0.8590	25.94	0.00	1.500			
0.8802	56329.62	3.5680	3.5681	0.7484	25.94	0.00	1.500			
0.8822	56460.63	3.5650	3.5650	0.6244	25.95	0.01	1.500			
0.8838	56560.23	3.5620	3.5619	0.5050	25.95	0.01	1.500			
0.8850	56642.57	3.5590	3.5590	0.4226	25.95	0.01	1.500			
0.8861	56709.12	3.5560	3.5560	0.3519	25.95	0.01	1.500			
0.8870	56767.72	3.5530	3.5529	0.3037	25.95	0.01	1.500			
0.8878	56817.76	3.5500	3.5499	0.2582	25.95	0.01	1.500			
0.8885	56861.64	3.5470	3.5470	0.2289	25.95	0.01	1.500			
0.8891	56901.74	3.5440	3.5440	0.2058	25.95	0.01	1.500			
0.8897	56937.69	3.5410	3.5411	0.1849	25.95	0.01	1.500			
0.8902	56971.57	3.5380	3.5380	0.1680	25.95	0.01	1.500			
0.8906	57001.23	3.5350	3.5350	0.1519	25.95	0.01	1.500			
0.8911	57028.61	3.5320	3.5320	0.1367	25.95	0.01	1.500			
0.8915	57053.27	3.5290	3.5291	0.1225	25.95	0.01	1.500			
0.8918	57075.51	3.5260	3.5260	0.1091	25.95	0.01	1.500			
0.8921	57095.34	3.5230	3.5230	0.0960	25.95	0.01	1.500			
0.8924	57112.43	3.5200	3.5201	0.0824	25.95	0.01	1.500			
0.8926	57126.95	3.5170	3.5172	0.0689	25.95	0.01	1.500			
0.8928	57138.74	3.5140	3.5146	0.0557	25.95	0.01	1.500			
0.8929	57148.18	3.5110	3.5117	0.0426	25.95	0.01	1.500			
