Ah_balance (normalized)	Ah_balance (mAh)	Voltage - fit (V)	Voltage -  interpolate (V)	dQ/dV (1/V)	Temperature (°C)	Temperature - diff (°C)	Current (C)	R_DC 0ms (mOhm)	R_DC 50ms (mOhm)	R_DC 50 ms PEC (mOhm)
0.1955	12510.89	3.9370	3.9367	-0.1137	25.69	0.00	-0.750			
0.1959	12537.69	3.9340	3.9339	-0.1645	25.69	0.00	-0.750			
0.1965	12574.35	3.9310	3.9310	-0.2136	25.69	-0.00	-0.750			
0.1972	12619.85	3.9280	3.9280	-0.2616	25.69	-0.00	-0.750			
0.1980	12674.92	3.9250	3.9251	-0.3083	25.69	-0.00	-0.750			
0.1990	12738.69	3.9220	3.9220	-0.3509	25.69	-0.00	-0.750			
0.2002	12811.06	3.9190	3.9190	-0.3960	25.68	-0.01	-0.750			
0.2014	12892.36	3.9160	3.9161	-0.4346	25.68	-0.01	-0.750			
0.2028	12979.91	3.9130	3.9128	-0.4724	25.68	-0.01	-0.750			
0.2043	13075.54	3.9100	3.9101	-0.5060	25.68	-0.01	-0.750			
0.2059	13176.54	3.9070	3.9070	-0.5349	25.67	-0.02	-0.750			
0.2076	13283.70	3.9040	3.9040	-0.5630	25.67	-0.02	-0.750			
0.2093	13395.00	3.9010	3.9010	-0.5857	25.67	-0.02	-0.750			
0.2111	13510.21	3.8980	3.8980	-0.6027	25.67	-0.02	-0.750			
0.2129	13628.57	3.8950	3.8950	-0.6195	25.67	-0.02	-0.750			
0.2148	13749.13	3.8920	3.8920	-0.6347	25.66	-0.03	-0.750			
0.2168	13872.83	3.8890	3.8890	-0.6475	25.66	-0.03	-0.750			
0.2187	13999.56	3.8860	3.8859	-0.6562	25.66	-0.03	-0.750			
0.2207	14126.10	3.8830	3.8831	-0.6626	25.66	-0.03	-0.750			
0.2227	14254.77	3.8800	3.8800	-0.6709	25.66	-0.03	-0.750			
0.2248	14384.34	3.8770	3.8770	-0.6768	25.66	-0.03	-0.750			
0.2268	14514.47	3.8740	3.8739	-0.6796	25.66	-0.03	-0.750			
0.2288	14644.91	3.8710	3.8710	-0.6838	25.66	-0.03	-0.750			
0.2309	14777.83	3.8680	3.8680	-0.6886	25.66	-0.03	-0.750			
0.2330	14910.98	3.8650	3.8650	-0.6911	25.66	-0.03	-0.750			
0.2351	15043.79	3.8620	3.8620	-0.6938	25.66	-0.03	-0.750			
0.2371	15177.23	3.8590	3.8590	-0.6950	25.66	-0.03	-0.750			
0.2392	15311.00	3.8560	3.8560	-0.6979	25.66	-0.03	-0.750			
0.2413	15445.59	3.8530	3.8530	-0.6995	25.66	-0.03	-0.750			
0.2434	15579.71	3.8500	3.8500	-0.6993	25.66	-0.03	-0.750			
0.2455	15714.21	3.8470	3.8471	-0.7004	25.66	-0.03	-0.750			
0.2476	15848.88	3.8440	3.8440	-0.7008	25.66	-0.03	-0.750			
0.2497	15982.92	3.8410	3.8409	-0.6998	25.67	-0.02	-0.750			
0.2518	16117.90	3.8380	3.8381	-0.7007	25.67	-0.02	-0.750			
0.2539	16252.45	3.8350	3.8350	-0.6986	25.67	-0.02	-0.750			
0.2561	16387.25	3.8320	3.8320	-0.6999	25.68	-0.01	-0.750			
0.2581	16521.53	3.8290	3.8291	-0.6987	25.68	-0.01	-0.750			
0.2602	16654.27	3.8260	3.8260	-0.6992	25.68	-0.01	-0.750			
0.2623	16788.86	3.8230	3.8229	-0.6990	25.68	-0.01	-0.750			
0.2644	16923.11	3.8200	3.8200	-0.6990	25.68	-0.01	-0.750			
0.2665	17057.17	3.8170	3.8170	-0.7007	25.68	-0.01	-0.750			
0.2687	17193.66	3.8140	3.8140	-0.7002	25.68	-0.01	-0.750			
0.2707	17327.74	3.8110	3.8109	-0.6964	25.68	-0.01	-0.750			
0.2728	17459.91	3.8080	3.8080	-0.6967	25.68	-0.01	-0.750			
0.2749	17593.10	3.8050	3.8050	-0.6969	25.68	-0.01	-0.750			
0.2770	17727.16	3.8020	3.8019	-0.6994	25.68	-0.01	-0.750			
0.2791	17861.48	3.7990	3.7989	-0.6990	25.68	-0.01	-0.750			
0.2812	17996.02	3.7960	3.7961	-0.6985	25.68	-0.01	-0.750			
0.2833	18130.94	3.7930	3.7929	-0.7000	25.68	-0.01	-0.750			
0.2854	18265.12	3.7900	3.7900	-0.7015	25.68	-0.01	-0.750			
0.2875	18399.31	3.7870	3.7869	-0.7014	25.68	-0.01	-0.750			
0.2896	18534.14	3.7840	3.7840	-0.7015	25.68	-0.01	-0.750			
0.2917	18668.96	3.7810	3.7810	-0.7024	25.68	-0.01	-0.750			
0.2938	18804.46	3.7780	3.7780	-0.7062	25.68	-0.01	-0.750			
0.2959	18940.06	3.7750	3.7751	-0.7070	25.68	-0.01	-0.750			
0.2980	19074.91	3.7720	3.7719	-0.7116	25.68	-0.01	-0.750			
0.3002	19211.65	3.7690	3.7690	-0.7158	25.68	-0.01	-0.750			
0.3023	19349.18	3.7660	3.7660	-0.7208	25.68	-0.01	-0.750			
0.3045	19488.68	3.7630	3.7631	-0.7245	25.68	-0.01	-0.750			
0.3067	19629.48	3.7600	3.7600	-0.7277	25.68	-0.01	-0.750			
0.3089	19768.88	3.7570	3.7570	-0.7324	25.68	-0.01	-0.750			
0.3111	19909.47	3.7540	3.7540	-0.7363	25.68	-0.01	-0.750			
0.3133	20050.06	3.7510	3.7510	-0.7436	25.68	-0.01	-0.750			
0.3155	20194.40	3.7480	3.7480	-0.7493	25.68	-0.01	-0.750			
0.3178	20338.45	3.7450	3.7450	-0.7562	25.68	-0.01	-0.750			
0.3201	20484.95	3.7420	3.7419	-0.7644	25.68	-0.01	-0.750			
0.3224	20632.86	3.7390	3.7390	-0.7715	25.68	-0.01	-0.750			
0.3247	20780.84	3.7360	3.7360	-0.7772	25.68	-0.01	-0.750			
0.3270	20930.53	3.7330	3.7330	-0.7845	25.68	-0.01	-0.750			
0.3294	21081.04	3.7300	3.7300	-0.7901	25.68	-0.01	-0.750			
0.3318	21234.88	3.7270	3.7270	-0.8002	25.68	-0.01	-0.750			
0.3342	21388.81	3.7240	3.7241	-0.8063	25.68	-0.01	-0.750			
0.3366	21544.35	3.7210	3.7210	-0.8151	25.68	-0.01	-0.750			
0.3391	21701.35	3.7180	3.7180	-0.8266	25.68	-0.01	-0.750			
0.3416	21861.21	3.7150	3.7150	-0.8365	25.68	-0.01	-0.750			
0.3441	22022.75	3.7120	3.7120	-0.8459	25.68	-0.01	-0.750			
0.3467	22185.97	3.7090	3.7090	-0.8596	25.68	-0.01	-0.750			
0.3492	22351.24	3.7060	3.7061	-0.8780	25.67	-0.02	-0.750			
0.3519	22521.73	3.7030	3.7029	-0.8907	25.67	-0.02	-0.750			
0.3546	22694.23	3.7000	3.7000	-0.9017	25.67	-0.02	-0.750			
0.3573	22869.85	3.6970	3.6970	-0.9118	25.66	-0.03	-0.750			
0.3601	23045.99	3.6940	3.6940	-0.9250	25.66	-0.03	-0.750			
0.3629	23224.46	3.6910	3.6910	-0.9443	25.65	-0.04	-0.750			
0.3657	23405.51	3.6880	3.6880	-0.9598	25.65	-0.04	-0.750			
0.3686	23589.96	3.6850	3.6849	-0.9747	25.64	-0.05	-0.750			
0.3716	23780.05	3.6820	3.6821	-1.0020	25.64	-0.05	-0.750			
0.3746	23975.46	3.6790	3.6789	-1.0242	25.63	-0.06	-0.750			
0.3777	24173.98	3.6760	3.6760	-1.0444	25.63	-0.06	-0.750			
0.3809	24375.07	3.6730	3.6730	-1.0643	25.62	-0.07	-0.750			
0.3841	24580.95	3.6700	3.6701	-1.0972	25.62	-0.07	-0.750			
0.3874	24795.83	3.6670	3.6669	-1.1193	25.62	-0.07	-0.750			
0.3908	25013.71	3.6640	3.6639	-1.1424	25.61	-0.08	-0.750			
0.3943	25234.84	3.6610	3.6610	-1.1614	25.61	-0.08	-0.750			
0.3978	25460.86	3.6580	3.6580	-1.1900	25.61	-0.08	-0.750			
0.4014	25689.97	3.6550	3.6549	-1.2172	25.60	-0.09	-0.750			
0.4051	25924.23	3.6520	3.6520	-1.2412	25.60	-0.09	-0.750			
0.4088	26164.19	3.6490	3.6491	-1.2712	25.59	-0.10	-0.750			
0.4127	26413.86	3.6460	3.6460	-1.3063	25.59	-0.10	-0.750			
0.4167	26669.24	3.6430	3.6430	-1.3335	25.58	-0.11	-0.750			
0.4208	26928.34	3.6400	3.6401	-1.3635	25.58	-0.11	-0.750			
0.4249	27192.39	3.6370	3.6370	-1.3894	25.57	-0.12	-0.750			
0.4291	27460.95	3.6340	3.6340	-1.4165	25.57	-0.12	-0.750			
0.4334	27736.03	3.6310	3.6312	-1.4468	25.56	-0.13	-0.750			
0.4377	28015.92	3.6280	3.6279	-1.4825	25.55	-0.14	-0.750			
0.4422	28303.42	3.6250	3.6250	-1.5246	25.55	-0.14	-0.750			
0.4469	28600.31	3.6220	3.6220	-1.5569	25.54	-0.15	-0.750			
0.4516	28903.85	3.6190	3.6192	-1.5943	25.54	-0.15	-0.750			
0.4565	29213.68	3.6160	3.6160	-1.6195	25.53	-0.16	-0.750			
0.4614	29526.92	3.6130	3.6129	-1.6450	25.53	-0.16	-0.750			
0.4663	29844.23	3.6100	3.6100	-1.6816	25.52	-0.17	-0.750			
0.4714	30166.77	3.6070	3.6072	-1.7199	25.52	-0.17	-0.750			
0.4766	30501.83	3.6040	3.6039	-1.7388	25.52	-0.17	-0.750			
0.4819	30839.39	3.6010	3.6010	-1.7745	25.52	-0.17	-0.750			
0.4873	31186.22	3.5980	3.5981	-1.7987	25.51	-0.18	-0.750			
0.4927	31533.10	3.5950	3.5949	-1.8394	25.51	-0.18	-0.750			
0.4982	31885.92	3.5920	3.5920	-1.8620	25.50	-0.19	-0.750			
0.5038	32244.60	3.5890	3.5890	-1.8965	25.50	-0.19	-0.750			
0.5096	32612.11	3.5860	3.5861	-1.9270	25.50	-0.19	-0.750			
0.5154	32988.53	3.5830	3.5829	-1.9640	25.50	-0.19	-0.750			
0.5214	33368.10	3.5800	3.5800	-1.9776	25.50	-0.19	-0.750			
0.5273	33749.44	3.5770	3.5771	-1.9985	25.49	-0.20	-0.750			
0.5334	34137.40	3.5740	3.5741	-2.0287	25.49	-0.20	-0.750			
0.5395	34527.46	3.5710	3.5710	-2.0454	25.49	-0.20	-0.750	0.396	0.562	
0.5456	34920.87	3.5680	3.5681	-2.0644	25.49	-0.20	-0.750			
0.5519	35320.41	3.5650	3.5651	-2.0992	25.49	-0.20	-0.750			
0.5583	35729.29	3.5620	3.5620	-2.1227	25.48	-0.21	-0.750			
0.5647	36141.80	3.5590	3.5589	-2.1096	25.48	-0.21	-0.750			
0.5711	36548.42	3.5560	3.5560	-2.1110	25.47	-0.22	-0.750			
0.5774	36951.65	3.5530	3.5531	-2.1160	25.49	-0.20	-0.750			
0.5837	37354.69	3.5500	3.5499	-2.1056	25.50	-0.19	-0.750			
0.5900	37759.84	3.5470	3.5470	-2.0986	25.49	-0.20	-0.750			
0.5963	38164.79	3.5440	3.5441	-2.0893	25.49	-0.20	-0.750			
0.6026	38567.03	3.5410	3.5411	-2.0784	25.50	-0.19	-0.750			
0.6088	38962.51	3.5380	3.5380	-2.0397	25.50	-0.19	-0.750			
0.6148	39350.14	3.5350	3.5350	-2.0255	25.51	-0.18	-0.750			
0.6209	39737.89	3.5320	3.5322	-2.0001	25.51	-0.18	-0.750			
0.6270	40124.89	3.5290	3.5288	-1.9599	25.51	-0.18	-0.750			
0.6328	40499.41	3.5260	3.5261	-1.9232	25.52	-0.17	-0.750			
0.6385	40861.15	3.5230	3.5231	-1.8716	25.53	-0.16	-0.750			
0.6441	41219.82	3.5200	3.5199	-1.8284	25.54	-0.15	-0.750			
0.6494	41561.23	3.5170	3.5171	-1.7797	25.55	-0.14	-0.750			
0.6547	41899.21	3.5140	3.5140	-1.7413	25.55	-0.14	-0.750			
0.6599	42231.43	3.5110	3.5110	-1.7011	25.56	-0.13	-0.750			
0.6649	42555.20	3.5080	3.5080	-1.6609	25.57	-0.12	-0.750			
0.6699	42870.63	3.5050	3.5049	-1.6153	25.58	-0.11	-0.750			
0.6746	43175.49	3.5020	3.5020	-1.5639	25.59	-0.10	-0.750			
0.6793	43473.05	3.4990	3.4989	-1.5200	25.61	-0.08	-0.750			
0.6837	43755.91	3.4960	3.4960	-1.4730	25.62	-0.07	-0.750			
0.6881	44037.34	3.4930	3.4929	-1.4290	25.63	-0.06	-0.750			
0.6923	44308.44	3.4900	3.4900	-1.3854	25.64	-0.05	-0.750			
0.6964	44568.66	3.4870	3.4871	-1.3437	25.65	-0.04	-0.750			
0.7004	44823.29	3.4840	3.4840	-1.3032	25.66	-0.03	-0.750			
0.7042	45068.20	3.4810	3.4809	-1.2652	25.68	-0.01	-0.750			
0.7079	45304.58	3.4780	3.4780	-1.2244	25.69	-0.00	-0.750			
0.7115	45536.14	3.4750	3.4750	-1.1972	25.70	0.01	-0.750			
0.7151	45763.52	3.4720	3.4720	-1.1720	25.71	0.02	-0.750			
0.7185	45984.83	3.4690	3.4690	-1.1457	25.71	0.02	-0.750			
0.7219	46200.70	3.4660	3.4661	-1.1290	25.72	0.03	-0.750			
0.7252	46415.91	3.4630	3.4630	-1.1136	25.73	0.04	-0.750			
0.7285	46627.08	3.4600	3.4600	-1.0999	25.74	0.05	-0.750			
0.7318	46836.61	3.4570	3.4570	-1.0938	25.75	0.06	-0.750			
0.7351	47045.49	3.4540	3.4540	-1.0903	25.76	0.07	-0.750			
0.7384	47255.24	3.4510	3.4509	-1.0806	25.77	0.08	-0.750			
0.7416	47461.93	3.4480	3.4480	-1.0751	25.77	0.08	-0.750			
0.7448	47666.79	3.4450	3.4450	-1.0684	25.78	0.09	-0.750			
0.7480	47872.01	3.4420	3.4420	-1.0707	25.79	0.10	-0.750			
0.7512	48077.00	3.4390	3.4389	-1.0637	25.80	0.11	-0.750			
0.7544	48280.84	3.4360	3.4359	-1.0573	25.81	0.12	-0.750			
0.7576	48484.12	3.4330	3.4331	-1.0527	25.82	0.13	-0.750			
0.7607	48687.59	3.4300	3.4300	-1.0476	25.82	0.13	-0.750			
0.7639	48888.75	3.4270	3.4270	-1.0359	25.83	0.14	-0.750			
0.7670	49087.22	3.4240	3.4240	-1.0225	25.83	0.14	-0.750			
0.7700	49281.49	3.4210	3.4209	-1.0011	25.84	0.15	-0.750			
0.7730	49474.12	3.4180	3.4180	-0.9896	25.85	0.16	-0.750			
0.7760	49662.18	3.4150	3.4150	-0.9682	25.86	0.17	-0.750			
0.7788	49845.55	3.4120	3.4120	-0.9474	25.87	0.18	-0.750			
0.7816	50025.19	3.4090	3.4089	-0.9258	25.87	0.18	-0.750			
0.7844	50201.85	3.4060	3.4061	-0.9063	25.88	0.19	-0.750			
0.7871	50373.70	3.4030	3.4030	-0.8859	25.89	0.20	-0.750			
0.7897	50543.31	3.4000	3.3999	-0.8647	25.89	0.20	-0.750			
0.7923	50705.53	3.3970	3.3971	-0.8367	25.89	0.20	-0.750			
0.7948	50865.67	3.3940	3.3940	-0.8110	25.90	0.21	-0.750			
0.7972	51019.56	3.3910	3.3909	-0.7832	25.90	0.21	-0.750			
0.7995	51167.41	3.3880	3.3880	-0.7537	25.91	0.22	-0.750			
0.8017	51308.46	3.3850	3.3850	-0.7238	25.91	0.22	-0.750			
0.8038	51443.60	3.3820	3.3820	-0.6936	25.91	0.22	-0.750			
0.8059	51575.09	3.3790	3.3789	-0.6656	25.92	0.23	-0.750			
0.8078	51699.71	3.3760	3.3761	-0.6360	25.92	0.23	-0.750			
0.8097	51819.48	3.3730	3.3729	-0.6069	25.92	0.23	-0.750			
0.8114	51932.57	3.3700	3.3700	-0.5786	25.93	0.24	-0.750			
0.8131	52040.68	3.3670	3.3671	-0.5509	25.93	0.24	-0.750			
0.8147	52142.64	3.3640	3.3640	-0.5225	25.94	0.25	-0.750			
0.8163	52240.52	3.3610	3.3610	-0.4981	25.94	0.25	-0.750			
0.8177	52333.96	3.3580	3.3581	-0.4766	25.95	0.26	-0.750			
0.8191	52422.77	3.3550	3.3549	-0.4530	25.95	0.26	-0.750			
0.8204	52507.15	3.3520	3.3519	-0.4330	25.96	0.27	-0.750			
0.8217	52587.60	3.3490	3.3490	-0.4129	25.96	0.27	-0.750			
0.8229	52664.58	3.3460	3.3460	-0.3964	25.97	0.28	-0.750			
0.8240	52739.14	3.3430	3.3429	-0.3806	25.97	0.28	-0.750			
0.8252	52810.04	3.3400	3.3400	-0.3657	25.98	0.29	-0.750			
0.8262	52878.94	3.3370	3.3370	-0.3519	25.98	0.29	-0.750			
0.8273	52945.29	3.3340	3.3340	-0.3392	25.99	0.30	-0.750			
0.8283	53008.87	3.3310	3.3310	-0.3259	25.99	0.30	-0.750			
0.8292	53069.85	3.3280	3.3280	-0.3135	25.99	0.30	-0.750			
0.8301	53128.40	3.3250	3.3250	-0.3029	26.00	0.31	-0.750			
0.8310	53185.23	3.3220	3.3220	-0.2928	26.00	0.31	-0.750			
0.8319	53240.19	3.3190	3.3189	-0.2842	26.00	0.31	-0.750			
0.8327	53293.87	3.3160	3.3160	-0.2762	26.01	0.32	-0.750			
0.8335	53345.88	3.3130	3.3132	-0.2696	26.01	0.32	-0.750			
0.8343	53397.16	3.3100	3.3100	-0.2629	26.01	0.32	-0.750			
0.8351	53447.23	3.3070	3.3069	-0.2564	26.02	0.33	-0.750			
0.8359	53495.29	3.3040	3.3039	-0.2488	26.02	0.33	-0.750			
0.8366	53542.58	3.3010	3.3011	-0.2433	26.03	0.34	-0.750			
0.8373	53588.20	3.2980	3.2980	-0.2375	26.03	0.34	-0.750			
0.8380	53633.30	3.2950	3.2950	-0.2323	26.04	0.35	-0.750			
0.8387	53677.33	3.2920	3.2919	-0.2269	26.04	0.35	-0.750			
0.8394	53720.02	3.2890	3.2889	-0.2213	26.04	0.35	-0.750			
0.8400	53762.09	3.2860	3.2861	-0.2179	26.05	0.36	-0.750			
0.8407	53803.53	3.2830	3.2831	-0.2138	26.05	0.36	-0.750			
0.8413	53844.02	3.2800	3.2800	-0.2106	26.05	0.36	-0.750			
0.8419	53884.06	3.2770	3.2769	-0.2065	26.06	0.37	-0.750			
0.8426	53923.21	3.2740	3.2740	-0.2027	26.06	0.37	-0.750			
0.8432	53961.84	3.2710	3.2710	-0.1997	26.06	0.37	-0.750			
0.8438	54000.14	3.2680	3.2681	-0.1971	26.07	0.38	-0.750			
0.8443	54037.78	3.2650	3.2649	-0.1937	26.07	0.38	-0.750			
0.8449	54074.26	3.2620	3.2620	-0.1902	26.07	0.38	-0.750			
0.8455	54110.57	3.2590	3.2590	-0.1873	26.08	0.39	-0.750			
0.8460	54146.12	3.2560	3.2560	-0.1843	26.08	0.39	-0.750			
0.8466	54181.39	3.2530	3.2530	-0.1822	26.08	0.39	-0.750			
0.8471	54215.90	3.2500	3.2501	-0.1796	26.09	0.40	-0.750			
0.8477	54250.15	3.2470	3.2469	-0.1774	26.09	0.40	-0.750			
0.8482	54283.90	3.2440	3.2440	-0.1753	26.09	0.40	-0.750			
0.8487	54317.50	3.2410	3.2410	-0.1730	26.10	0.41	-0.750			
0.8492	54350.35	3.2380	3.2380	-0.1708	26.10	0.41	-0.750			
0.8497	54383.25	3.2350	3.2350	-0.1688	26.10	0.41	-0.750			
0.8502	54415.39	3.2320	3.2320	-0.1660	26.11	0.42	-0.750			
0.8507	54446.88	3.2290	3.2289	-0.1639	26.11	0.42	-0.750			
0.8512	54477.86	3.2260	3.2261	-0.1622	26.11	0.42	-0.750			
0.8517	54508.70	3.2230	3.2229	-0.1606	26.12	0.43	-0.750			
0.8522	54539.42	3.2200	3.2200	-0.1595	26.12	0.43	-0.750			
0.8527	54569.95	3.2170	3.2170	-0.1581	26.12	0.43	-0.750			
0.8531	54600.22	3.2140	3.2141	-0.1565	26.13	0.44	-0.750			
0.8536	54630.51	3.2110	3.2111	-0.1556	26.13	0.44	-0.750			
0.8541	54660.17	3.2080	3.2079	-0.1533	26.13	0.44	-0.750			
0.8545	54689.33	3.2050	3.2050	-0.1516	26.13	0.44	-0.750			
0.8550	54717.97	3.2020	3.2020	-0.1500	26.14	0.45	-0.750			
0.8554	54746.58	3.1990	3.1990	-0.1486	26.14	0.45	-0.750			
0.8559	54775.03	3.1960	3.1959	-0.1477	26.14	0.45	-0.750			
0.8563	54803.36	3.1930	3.1930	-0.1461	26.15	0.46	-0.750			
0.8567	54831.39	3.1900	3.1901	-0.1449	26.15	0.46	-0.750			
0.8572	54859.21	3.1870	3.1870	-0.1436	26.15	0.46	-0.750			
0.8576	54886.60	3.1840	3.1840	-0.1417	26.15	0.46	-0.750			
0.8580	54913.46	3.1810	3.1810	-0.1405	26.16	0.47	-0.750			
0.8584	54940.10	3.1780	3.1780	-0.1391	26.16	0.47	-0.750			
0.8589	54966.62	3.1750	3.1750	-0.1382	26.16	0.47	-0.750			
0.8593	54993.18	3.1720	3.1719	-0.1371	26.17	0.48	-0.750			
0.8597	55019.39	3.1690	3.1691	-0.1366	26.17	0.48	-0.750			
0.8601	55045.49	3.1660	3.1661	-0.1358	26.18	0.49	-0.750			
0.8605	55071.61	3.1630	3.1629	-0.1340	26.18	0.49	-0.750			
0.8609	55097.44	3.1600	3.1599	-0.1327	26.18	0.49	-0.750			
0.8613	55122.72	3.1570	3.1572	-0.1309	26.19	0.50	-0.750			
0.8617	55147.65	3.1540	3.1540	-0.1299	26.19	0.50	-0.750			
0.8621	55172.41	3.1510	3.1509	-0.1288	26.19	0.50	-0.750			
0.8625	55196.96	3.1480	3.1479	-0.1277	26.20	0.51	-0.750			
0.8628	55221.08	3.1450	3.1450	-0.1261	26.20	0.51	-0.750			
0.8632	55245.25	3.1420	3.1421	-0.1258	26.21	0.52	-0.750			
0.8636	55269.50	3.1390	3.1390	-0.1256	26.21	0.52	-0.750			
0.8640	55293.59	3.1360	3.1360	-0.1248	26.21	0.52	-0.750			
0.8643	55317.47	3.1330	3.1329	-0.1240	26.22	0.53	-0.750			
0.8647	55341.20	3.1300	3.1300	-0.1229	26.22	0.53	-0.750			
0.8651	55364.85	3.1270	3.1270	-0.1222	26.22	0.53	-0.750			
0.8654	55388.18	3.1240	3.1240	-0.1212	26.23	0.54	-0.750			
0.8658	55411.45	3.1210	3.1211	-0.1203	26.23	0.54	-0.750			
0.8662	55434.41	3.1180	3.1180	-0.1193	26.23	0.54	-0.750			
0.8665	55457.07	3.1150	3.1150	-0.1181	26.24	0.55	-0.750			
0.8669	55479.62	3.1120	3.1120	-0.1174	26.24	0.55	-0.750			
0.8672	55502.06	3.1090	3.1090	-0.1167	26.24	0.55	-0.750			
0.8676	55524.41	3.1060	3.1059	-0.1159	26.25	0.56	-0.750			
0.8679	55546.59	3.1030	3.1029	-0.1151	26.25	0.56	-0.750			
0.8683	55568.65	3.1000	3.1001	-0.1141	26.25	0.56	-0.750			
0.8686	55590.50	3.0970	3.0970	-0.1133	26.26	0.57	-0.750			
0.8689	55612.14	3.0940	3.0941	-0.1125	26.26	0.57	-0.750			
0.8693	55633.71	3.0910	3.0909	-0.1117	26.26	0.57	-0.750			
0.8696	55655.07	3.0880	3.0880	-0.1109	26.27	0.58	-0.750			
0.8699	55676.10	3.0850	3.0850	-0.1101	26.27	0.58	-0.750			
0.8703	55697.16	3.0820	3.0820	-0.1095	26.27	0.58	-0.750			
0.8706	55718.26	3.0790	3.0790	-0.1086	26.28	0.59	-0.750			
0.8709	55739.12	3.0760	3.0760	-0.1080	26.28	0.59	-0.750			
0.8712	55759.67	3.0730	3.0730	-0.1073	26.28	0.59	-0.750			
0.8716	55780.16	3.0700	3.0701	-0.1065	26.29	0.60	-0.750			
0.8719	55800.50	3.0670	3.0670	-0.1059	26.29	0.60	-0.750			
0.8722	55820.76	3.0640	3.0639	-0.1053	26.29	0.60	-0.750			
0.8725	55841.11	3.0610	3.0610	-0.1042	26.29	0.60	-0.750			
0.8728	55861.04	3.0580	3.0579	-0.1033	26.30	0.61	-0.750			
0.8731	55880.65	3.0550	3.0551	-0.1028	26.30	0.61	-0.750			
0.8734	55900.44	3.0520	3.0521	-0.1023	26.30	0.61	-0.750			
0.8737	55919.99	3.0490	3.0490	-0.1015	26.31	0.62	-0.750			
0.8741	55939.27	3.0460	3.0460	-0.1005	26.31	0.62	-0.750			
0.8744	55958.47	3.0430	3.0429	-0.1000	26.31	0.62	-0.750			
0.8746	55977.51	3.0400	3.0400	-0.0994	26.32	0.63	-0.750			
0.8749	55996.64	3.0370	3.0372	-0.0989	26.32	0.63	-0.750			
0.8752	56015.79	3.0340	3.0340	-0.0987	26.32	0.63	-0.750			
0.8755	56034.66	3.0310	3.0310	-0.0979	26.32	0.63	-0.750			
0.8758	56053.26	3.0280	3.0279	-0.0969	26.33	0.64	-0.750			
0.8761	56071.81	3.0250	3.0251	-0.0962	26.33	0.64	-0.750			
0.8764	56090.34	3.0220	3.0220	-0.0957	26.33	0.64	-0.750			
0.8767	56108.51	3.0190	3.0190	-0.0952	26.34	0.65	-0.750			
0.8770	56126.57	3.0160	3.0160	-0.0944	26.34	0.65	-0.750			
0.8773	56144.65	3.0130	3.0131	-0.0940	26.34	0.65	-0.750			
0.8775	56162.55	3.0100	3.0100	-0.0937	26.34	0.65	-0.750			
0.8778	56180.54	3.0070	3.0070	-0.0936	26.35	0.66	-0.750			
0.8781	56198.51	3.0040	3.0040	-0.0940	26.35	0.66	-0.750			
