Ah_balance (normalized)	Ah_balance (mAh)	Voltage - fit (V)	Voltage -  interpolate (V)	dQ/dV (1/V)	Temperature (°C)	Temperature - diff (°C)	Current (C)	R_DC 0ms (mOhm)	R_DC 50ms (mOhm)	R_DC 50 ms PEC (mOhm)
0.2153	13776.95	3.9110	3.9108	-0.1199	25.84	0.00	-1.500			
0.2157	13802.88	3.9080	3.9080	-0.1521	25.84	0.00	-1.500			
0.2162	13835.59	3.9050	3.9051	-0.1843	25.84	0.00	-1.500			
0.2168	13874.73	3.9020	3.9019	-0.2131	25.84	0.00	-1.500			
0.2175	13918.57	3.8990	3.8991	-0.2415	25.84	0.00	-1.500			
0.2183	13968.04	3.8960	3.8960	-0.2706	25.84	0.00	-1.500			
0.2191	14022.63	3.8930	3.8931	-0.2984	25.84	0.00	-1.500			
0.2200	14082.26	3.8900	3.8900	-0.3267	25.84	0.00	-1.500			
0.2211	14147.46	3.8870	3.8869	-0.3544	25.84	0.00	-1.500			
0.2222	14218.60	3.8840	3.8841	-0.3832	25.84	0.00	-1.500			
0.2234	14295.22	3.8810	3.8810	-0.4120	25.84	0.00	-1.500			
0.2247	14377.92	3.8780	3.8780	-0.4381	25.84	0.00	-1.500			
0.2260	14464.62	3.8750	3.8750	-0.4633	25.84	0.00	-1.500			
0.2274	14555.91	3.8720	3.8720	-0.4880	25.84	0.00	-1.500			
0.2289	14651.63	3.8690	3.8690	-0.5128	25.84	0.00	-1.500			
0.2305	14752.25	3.8660	3.8660	-0.5378	25.84	0.00	-1.500			
0.2322	14858.47	3.8630	3.8629	-0.5597	25.84	0.00	-1.500			
0.2339	14968.91	3.8600	3.8600	-0.5816	25.84	0.00	-1.500			
0.2357	15083.12	3.8570	3.8570	-0.6030	25.84	0.00	-1.500			
0.2375	15201.68	3.8540	3.8540	-0.6213	25.84	0.00	-1.500			
0.2394	15322.64	3.8510	3.8509	-0.6370	25.84	0.00	-1.500			
0.2414	15447.15	3.8480	3.8480	-0.6512	25.84	0.00	-1.500			
0.2433	15574.08	3.8450	3.8450	-0.6646	25.84	0.00	-1.500			
0.2454	15703.50	3.8420	3.8420	-0.6765	25.84	0.00	-1.500			
0.2474	15834.69	3.8390	3.8390	-0.6867	25.84	0.00	-1.500			
0.2495	15967.20	3.8360	3.8360	-0.6944	25.84	0.00	-1.500			
0.2516	16102.40	3.8330	3.8330	-0.7017	25.84	0.00	-1.500			
0.2537	16237.78	3.8300	3.8300	-0.7059	25.84	0.00	-1.500			
0.2559	16374.82	3.8270	3.8271	-0.7123	25.84	0.00	-1.500			
0.2580	16511.66	3.8240	3.8240	-0.7137	25.84	0.00	-1.500			
0.2601	16648.82	3.8210	3.8210	-0.7174	25.84	0.00	-1.500			
0.2623	16786.44	3.8180	3.8181	-0.7208	25.84	0.00	-1.500			
0.2645	16924.86	3.8150	3.8150	-0.7254	25.84	0.00	-1.500			
0.2666	17064.93	3.8120	3.8120	-0.7296	25.85	0.01	-1.500			
0.2688	17205.96	3.8090	3.8090	-0.7320	25.85	0.01	-1.500			
0.2710	17346.69	3.8060	3.8060	-0.7336	25.85	0.01	-1.500			
0.2733	17488.40	3.8030	3.8030	-0.7372	25.85	0.01	-1.500			
0.2755	17629.79	3.8000	3.8000	-0.7384	25.85	0.01	-1.500			
0.2777	17770.97	3.7970	3.7970	-0.7394	25.86	0.02	-1.500			
0.2799	17913.03	3.7940	3.7940	-0.7420	25.86	0.02	-1.500			
0.2821	18055.96	3.7910	3.7910	-0.7447	25.86	0.02	-1.500			
0.2844	18199.85	3.7880	3.7879	-0.7438	25.86	0.02	-1.500			
0.2866	18343.06	3.7850	3.7850	-0.7438	25.87	0.03	-1.500			
0.2888	18485.72	3.7820	3.7820	-0.7422	25.87	0.03	-1.500			
0.2911	18628.17	3.7790	3.7791	-0.7403	25.87	0.03	-1.500			
0.2933	18770.17	3.7760	3.7760	-0.7383	25.88	0.04	-1.500			
0.2955	18910.34	3.7730	3.7730	-0.7384	25.88	0.04	-1.500			
0.2977	19051.69	3.7700	3.7700	-0.7420	25.88	0.04	-1.500			
0.2999	19194.89	3.7670	3.7670	-0.7441	25.89	0.05	-1.500			
0.3021	19337.25	3.7640	3.7640	-0.7462	25.89	0.05	-1.500			
0.3044	19481.94	3.7610	3.7610	-0.7469	25.89	0.05	-1.500			
0.3067	19625.63	3.7580	3.7580	-0.7487	25.90	0.06	-1.500			
0.3089	19769.75	3.7550	3.7550	-0.7471	25.90	0.06	-1.500			
0.3111	19912.62	3.7520	3.7520	-0.7449	25.91	0.07	-1.500			
0.3134	20055.39	3.7490	3.7490	-0.7399	25.91	0.07	-1.500			
0.3156	20196.73	3.7460	3.7460	-0.7433	25.92	0.08	-1.500			
0.3178	20337.94	3.7430	3.7431	-0.7450	25.93	0.09	-1.500			
0.3200	20481.57	3.7400	3.7399	-0.7493	25.93	0.09	-1.500			
0.3223	20625.74	3.7370	3.7370	-0.7476	25.94	0.10	-1.500			
0.3245	20770.36	3.7340	3.7340	-0.7504	25.95	0.11	-1.500			
0.3268	20914.54	3.7310	3.7311	-0.7529	25.95	0.11	-1.500			
0.3291	21059.77	3.7280	3.7278	-0.7550	25.96	0.12	-1.500			
0.3313	21202.25	3.7250	3.7250	-0.7551	25.96	0.12	-1.500			
0.3336	21348.13	3.7220	3.7220	-0.7612	25.97	0.13	-1.500			
0.3359	21495.56	3.7190	3.7190	-0.7655	25.97	0.13	-1.500			
0.3382	21643.31	3.7160	3.7159	-0.7722	25.98	0.14	-1.500			
0.3405	21790.87	3.7130	3.7130	-0.7774	25.98	0.14	-1.500			
0.3428	21939.46	3.7100	3.7100	-0.7836	25.99	0.15	-1.500			
0.3452	22091.74	3.7070	3.7070	-0.7897	25.99	0.15	-1.500			
0.3476	22243.62	3.7040	3.7040	-0.7955	25.99	0.15	-1.500			
0.3500	22397.86	3.7010	3.7010	-0.8051	26.00	0.16	-1.500			
0.3524	22553.73	3.6980	3.6981	-0.8134	26.00	0.16	-1.500			
0.3548	22709.87	3.6950	3.6949	-0.8176	26.00	0.16	-1.500			
0.3573	22867.28	3.6920	3.6920	-0.8278	26.01	0.17	-1.500			
0.3598	23026.75	3.6890	3.6889	-0.8410	26.01	0.17	-1.500			
0.3623	23189.19	3.6860	3.6859	-0.8555	26.01	0.17	-1.500			
0.3649	23353.47	3.6830	3.6832	-0.8681	26.02	0.18	-1.500			
0.3675	23521.26	3.6800	3.6800	-0.8811	26.02	0.18	-1.500			
0.3702	23693.05	3.6770	3.6769	-0.8991	26.02	0.18	-1.500			
0.3729	23865.94	3.6740	3.6741	-0.9143	26.03	0.19	-1.500			
0.3757	24043.48	3.6710	3.6710	-0.9262	26.03	0.19	-1.500			
0.3785	24223.62	3.6680	3.6680	-0.9409	26.03	0.19	-1.500			
0.3813	24405.89	3.6650	3.6649	-0.9575	26.04	0.20	-1.500			
0.3842	24590.43	3.6620	3.6621	-0.9719	26.04	0.20	-1.500			
0.3872	24778.16	3.6590	3.6589	-0.9894	26.04	0.20	-1.500			
0.3901	24968.63	3.6560	3.6560	-1.0070	26.05	0.21	-1.500			
0.3932	25162.59	3.6530	3.6530	-1.0221	26.05	0.21	-1.500			
0.3963	25362.34	3.6500	3.6500	-1.0468	26.05	0.21	-1.500			
0.3995	25566.19	3.6470	3.6470	-1.0658	26.05	0.21	-1.500			
0.4027	25772.60	3.6440	3.6440	-1.0847	26.06	0.22	-1.500			
0.4060	25982.16	3.6410	3.6410	-1.1092	26.06	0.22	-1.500			
0.4093	26197.24	3.6380	3.6380	-1.1307	26.06	0.22	-1.500			
0.4128	26416.12	3.6350	3.6350	-1.1513	26.06	0.22	-1.500			
0.4162	26639.75	3.6320	3.6320	-1.1757	26.06	0.22	-1.500			
0.4198	26868.16	3.6290	3.6290	-1.1991	26.06	0.22	-1.500			
0.4235	27100.94	3.6260	3.6260	-1.2292	26.07	0.23	-1.500			
0.4272	27340.06	3.6230	3.6230	-1.2508	26.07	0.23	-1.500			
0.4310	27582.45	3.6200	3.6199	-1.2698	26.07	0.23	-1.500			
0.4348	27828.92	3.6170	3.6171	-1.2966	26.07	0.23	-1.500			
0.4388	28080.12	3.6140	3.6140	-1.3210	26.07	0.23	-1.500			
0.4427	28334.59	3.6110	3.6110	-1.3460	26.07	0.23	-1.500			
0.4468	28595.17	3.6080	3.6079	-1.3660	26.08	0.24	-1.500			
0.4509	28860.65	3.6050	3.6050	-1.4010	26.08	0.24	-1.500			
0.4552	29133.59	3.6020	3.6020	-1.4300	26.08	0.24	-1.500			
0.4595	29411.04	3.5990	3.5990	-1.4525	26.08	0.24	-1.500			
0.4640	29692.97	3.5960	3.5959	-1.4736	26.08	0.24	-1.500			
0.4684	29977.87	3.5930	3.5930	-1.5001	26.08	0.24	-1.500			
0.4729	30266.41	3.5900	3.5901	-1.5206	26.08	0.24	-1.500			
0.4775	30562.94	3.5870	3.5870	-1.5484	26.08	0.24	-1.500			
0.4822	30861.61	3.5840	3.5839	-1.5606	26.08	0.24	-1.500			
0.4869	31163.47	3.5810	3.5810	-1.5887	26.08	0.24	-1.500			
0.4917	31470.28	3.5780	3.5780	-1.6127	26.08	0.24	-1.500			
0.4966	31781.49	3.5750	3.5750	-1.6345	26.08	0.24	-1.500			
0.5015	32096.87	3.5720	3.5720	-1.6566	26.08	0.24	-1.500			
0.5066	32419.29	3.5690	3.5690	-1.6810	26.08	0.24	-1.500			
0.5116	32744.30	3.5660	3.5660	-1.7044	26.08	0.24	-1.500			
0.5168	33073.84	3.5630	3.5630	-1.7382	26.08	0.24	-1.500			
0.5220	33408.75	3.5600	3.5600	-1.7579	26.09	0.25	-1.500			
0.5274	33750.66	3.5570	3.5569	-1.7839	26.09	0.25	-1.500			
0.5328	34096.47	3.5540	3.5540	-1.7980	26.09	0.25	-1.500			
0.5382	34441.87	3.5510	3.5510	-1.8165	26.09	0.25	-1.500			
0.5437	34793.80	3.5480	3.5480	-1.8315	26.09	0.25	-1.500			
0.5491	35144.52	3.5450	3.5450	-1.8491	26.10	0.26	-1.500			
0.5548	35504.70	3.5420	3.5419	-1.8454	26.10	0.26	-1.500			
0.5603	35860.62	3.5390	3.5390	-1.8485	26.10	0.26	-1.500	0.384	0.516	
0.5659	36215.14	3.5360	3.5361	-1.8477	26.11	0.27	-1.500			
0.5714	36570.16	3.5330	3.5329	-1.8426	26.12	0.28	-1.500			
0.5769	36919.83	3.5300	3.5299	-1.8233	26.12	0.28	-1.500			
0.5823	37269.16	3.5270	3.5272	-1.8177	26.13	0.29	-1.500			
0.5878	37620.12	3.5240	3.5240	-1.8214	26.14	0.30	-1.500			
0.5933	37969.59	3.5210	3.5208	-1.8310	26.14	0.30	-1.500			
0.5988	38320.30	3.5180	3.5180	-1.8309	26.15	0.31	-1.500			
0.6043	38673.36	3.5150	3.5150	-1.8429	26.16	0.32	-1.500			
0.6099	39031.56	3.5120	3.5120	-1.8430	26.16	0.32	-1.500			
0.6153	39382.25	3.5090	3.5089	-1.8223	26.17	0.33	-1.500			
0.6208	39729.08	3.5060	3.5061	-1.8092	26.18	0.34	-1.500			
0.6262	40073.67	3.5030	3.5029	-1.7983	26.19	0.35	-1.500			
0.6316	40421.14	3.5000	3.5000	-1.7977	26.20	0.36	-1.500			
0.6369	40764.33	3.4970	3.4970	-1.7885	26.21	0.37	-1.500			
0.6423	41107.94	3.4940	3.4940	-1.8033	26.22	0.38	-1.500			
0.6478	41457.60	3.4910	3.4910	-1.7875	26.24	0.40	-1.500			
0.6531	41800.43	3.4880	3.4879	-1.7783	26.25	0.41	-1.500			
0.6585	42143.01	3.4850	3.4852	-1.7641	26.26	0.42	-1.500			
0.6637	42479.23	3.4820	3.4819	-1.7479	26.27	0.43	-1.500			
0.6689	42812.78	3.4790	3.4790	-1.7313	26.29	0.45	-1.500			
0.6741	43142.66	3.4760	3.4760	-1.7110	26.30	0.46	-1.500			
0.6792	43469.81	3.4730	3.4730	-1.6990	26.31	0.47	-1.500			
0.6843	43796.74	3.4700	3.4700	-1.6839	26.32	0.48	-1.500			
0.6893	44116.86	3.4670	3.4670	-1.6592	26.34	0.50	-1.500			
0.6943	44433.72	3.4640	3.4640	-1.6522	26.36	0.52	-1.500			
0.6992	44749.62	3.4610	3.4609	-1.6202	26.37	0.53	-1.500			
0.7041	45061.14	3.4580	3.4579	-1.6026	26.39	0.55	-1.500			
0.7088	45365.71	3.4550	3.4552	-1.5763	26.40	0.56	-1.500			
0.7135	45666.03	3.4520	3.4519	-1.5530	26.42	0.58	-1.500			
0.7181	45961.10	3.4490	3.4490	-1.5331	26.43	0.59	-1.500			
0.7227	46249.97	3.4460	3.4460	-1.5118	26.45	0.61	-1.500			
0.7272	46538.80	3.4430	3.4430	-1.5012	26.46	0.62	-1.500			
0.7317	46828.47	3.4400	3.4400	-1.4880	26.48	0.64	-1.500			
0.7361	47111.45	3.4370	3.4370	-1.4716	26.49	0.65	-1.500			
0.7405	47393.32	3.4340	3.4340	-1.4580	26.51	0.67	-1.500			
0.7448	47669.84	3.4310	3.4311	-1.4500	26.53	0.69	-1.500			
0.7492	47946.96	3.4280	3.4280	-1.4437	26.55	0.71	-1.500			
0.7535	48223.85	3.4250	3.4250	-1.4314	26.56	0.72	-1.500			
0.7578	48498.43	3.4220	3.4222	-1.4206	26.58	0.74	-1.500			
0.7620	48770.10	3.4190	3.4190	-1.4138	26.60	0.76	-1.500			
0.7663	49043.25	3.4160	3.4159	-1.3922	26.62	0.78	-1.500			
0.7705	49310.23	3.4130	3.4130	-1.3680	26.65	0.81	-1.500			
0.7746	49571.45	3.4100	3.4100	-1.3352	26.67	0.83	-1.500			
0.7786	49827.37	3.4070	3.4070	-1.3061	26.69	0.85	-1.500			
0.7824	50076.04	3.4040	3.4040	-1.2683	26.70	0.86	-1.500			
0.7862	50315.59	3.4010	3.4010	-1.2244	26.72	0.88	-1.500			
0.7898	50546.23	3.3980	3.3979	-1.1751	26.73	0.89	-1.500			
0.7933	50769.03	3.3950	3.3951	-1.1408	26.75	0.91	-1.500			
0.7966	50983.36	3.3920	3.3921	-1.0972	26.77	0.93	-1.500			
0.7999	51190.93	3.3890	3.3889	-1.0547	26.79	0.95	-1.500			
0.8029	51388.47	3.3860	3.3861	-1.0099	26.80	0.96	-1.500			
0.8059	51577.86	3.3830	3.3830	-0.9699	26.81	0.97	-1.500			
0.8087	51759.51	3.3800	3.3800	-0.9309	26.82	0.98	-1.500			
0.8115	51934.70	3.3770	3.3770	-0.8930	26.84	1.00	-1.500			
0.8141	52100.76	3.3740	3.3740	-0.8538	26.85	1.01	-1.500			
0.8166	52260.69	3.3710	3.3710	-0.8259	26.86	1.02	-1.500			
0.8190	52414.93	3.3680	3.3681	-0.8015	26.87	1.03	-1.500			
0.8213	52566.13	3.3650	3.3650	-0.7767	26.89	1.05	-1.500			
0.8236	52713.40	3.3620	3.3619	-0.7495	26.90	1.06	-1.500			
0.8259	52855.72	3.3590	3.3590	-0.7247	26.91	1.07	-1.500			
0.8280	52992.99	3.3560	3.3562	-0.7011	26.92	1.08	-1.500			
0.8301	53124.98	3.3530	3.3530	-0.6756	26.93	1.09	-1.500			
0.8320	53250.58	3.3500	3.3500	-0.6464	26.94	1.10	-1.500			
0.8339	53371.83	3.3470	3.3470	-0.6251	26.94	1.10	-1.500			
0.8358	53489.55	3.3440	3.3441	-0.6046	26.95	1.11	-1.500			
0.8376	53604.01	3.3410	3.3410	-0.5848	26.96	1.12	-1.500			
0.8393	53713.83	3.3380	3.3380	-0.5664	26.97	1.13	-1.500			
0.8409	53819.97	3.3350	3.3350	-0.5498	26.98	1.14	-1.500			
0.8426	53923.63	3.3320	3.3320	-0.5331	26.99	1.15	-1.500			
0.8441	54024.54	3.3290	3.3290	-0.5200	27.00	1.16	-1.500			
0.8457	54122.95	3.3260	3.3260	-0.5024	27.01	1.17	-1.500			
0.8472	54218.65	3.3230	3.3230	-0.4876	27.01	1.17	-1.500			
0.8486	54310.64	3.3200	3.3200	-0.4736	27.02	1.18	-1.500			
0.8500	54399.85	3.3170	3.3170	-0.4575	27.03	1.19	-1.500			
0.8513	54485.30	3.3140	3.3140	-0.4427	27.03	1.19	-1.500			
0.8526	54569.23	3.3110	3.3110	-0.4310	27.04	1.20	-1.500			
0.8539	54650.49	3.3080	3.3081	-0.4173	27.05	1.21	-1.500			
0.8552	54729.99	3.3050	3.3049	-0.4070	27.05	1.21	-1.500			
0.8564	54806.45	3.3020	3.3020	-0.3947	27.05	1.21	-1.500			
0.8575	54881.01	3.2990	3.2990	-0.3809	27.06	1.22	-1.500			
0.8586	54953.24	3.2960	3.2960	-0.3705	27.06	1.22	-1.500			
0.8597	55023.11	3.2930	3.2930	-0.3586	27.07	1.23	-1.500			
0.8608	55090.88	3.2900	3.2900	-0.3484	27.08	1.24	-1.500			
0.8618	55156.30	3.2870	3.2869	-0.3398	27.08	1.24	-1.500			
0.8628	55220.26	3.2840	3.2840	-0.3311	27.09	1.25	-1.500			
0.8638	55282.94	3.2810	3.2809	-0.3223	27.09	1.25	-1.500			
0.8648	55344.38	3.2780	3.2781	-0.3154	27.10	1.26	-1.500			
0.8657	55404.28	3.2750	3.2750	-0.3064	27.11	1.27	-1.500			
0.8666	55462.41	3.2720	3.2720	-0.2986	27.11	1.27	-1.500			
0.8675	55518.72	3.2690	3.2690	-0.2898	27.12	1.28	-1.500			
0.8683	55573.21	3.2660	3.2660	-0.2819	27.12	1.28	-1.500			
0.8692	55626.59	3.2630	3.2631	-0.2749	27.13	1.29	-1.500			
0.8700	55678.99	3.2600	3.2599	-0.2681	27.13	1.29	-1.500			
0.8708	55729.65	3.2570	3.2571	-0.2608	27.14	1.30	-1.500			
0.8715	55779.18	3.2540	3.2540	-0.2552	27.14	1.30	-1.500			
0.8723	55827.15	3.2510	3.2511	-0.2495	27.15	1.31	-1.500			
0.8730	55874.21	3.2480	3.2479	-0.2444	27.15	1.31	-1.500			
0.8738	55920.53	3.2450	3.2450	-0.2397	27.16	1.32	-1.500			
0.8745	55965.89	3.2420	3.2420	-0.2353	27.16	1.32	-1.500			
0.8752	56011.12	3.2390	3.2390	-0.2303	27.17	1.33	-1.500			
0.8759	56055.02	3.2360	3.2361	-0.2271	27.17	1.33	-1.500			
0.8765	56098.19	3.2330	3.2330	-0.2219	27.17	1.33	-1.500			
0.8772	56140.21	3.2300	3.2300	-0.2167	27.18	1.34	-1.500			
0.8778	56180.95	3.2270	3.2269	-0.2129	27.18	1.34	-1.500			
0.8785	56221.20	3.2240	3.2241	-0.2090	27.19	1.35	-1.500			
0.8791	56261.02	3.2210	3.2211	-0.2055	27.19	1.35	-1.500			
0.8797	56300.19	3.2180	3.2179	-0.2025	27.20	1.36	-1.500			
0.8803	56339.10	3.2150	3.2150	-0.1991	27.20	1.36	-1.500			
0.8809	56376.46	3.2120	3.2121	-0.1956	27.20	1.36	-1.500			
0.8815	56414.05	3.2090	3.2090	-0.1934	27.21	1.37	-1.500			
0.8820	56450.86	3.2060	3.2059	-0.1901	27.21	1.37	-1.500			
0.8826	56486.66	3.2030	3.2029	-0.1870	27.22	1.38	-1.500			
0.8832	56522.35	3.2000	3.2001	-0.1845	27.22	1.38	-1.500			
0.8837	56557.44	3.1970	3.1970	-0.1825	27.23	1.39	-1.500			
0.8843	56592.27	3.1940	3.1941	-0.1804	27.23	1.39	-1.500			
0.8848	56626.85	3.1910	3.1910	-0.1778	27.24	1.40	-1.500			
0.8853	56660.43	3.1880	3.1879	-0.1752	27.24	1.40	-1.500			
0.8858	56694.23	3.1850	3.1850	-0.1733	27.24	1.40	-1.500			
0.8864	56727.25	3.1820	3.1821	-0.1706	27.25	1.41	-1.500			
0.8869	56759.62	3.1790	3.1789	-0.1685	27.25	1.41	-1.500			
0.8874	56791.62	3.1760	3.1760	-0.1667	27.26	1.42	-1.500			
0.8879	56823.18	3.1730	3.1731	-0.1645	27.26	1.42	-1.500			
0.8884	56854.66	3.1700	3.1699	-0.1634	27.27	1.43	-1.500			
0.8888	56886.13	3.1670	3.1670	-0.1616	27.27	1.43	-1.500			
0.8893	56916.85	3.1640	3.1640	-0.1599	27.28	1.44	-1.500			
0.8898	56947.57	3.1610	3.1611	-0.1591	27.28	1.44	-1.500			
0.8903	56977.94	3.1580	3.1580	-0.1572	27.29	1.45	-1.500			
0.8907	57007.71	3.1550	3.1549	-0.1558	27.29	1.45	-1.500			
0.8912	57037.38	3.1520	3.1521	-0.1544	27.29	1.45	-1.500			
0.8917	57066.86	3.1490	3.1489	-0.1534	27.30	1.46	-1.500			
0.8921	57096.38	3.1460	3.1461	-0.1518	27.30	1.46	-1.500			
0.8926	57125.71	3.1430	3.1430	-0.1506	27.31	1.47	-1.500			
0.8930	57154.24	3.1400	3.1400	-0.1491	27.31	1.47	-1.500			
0.8935	57182.73	3.1370	3.1370	-0.1477	27.32	1.48	-1.500			
0.8939	57210.85	3.1340	3.1340	-0.1468	27.32	1.48	-1.500			
0.8944	57238.77	3.1310	3.1310	-0.1455	27.32	1.48	-1.500			
0.8948	57266.81	3.1280	3.1280	-0.1441	27.33	1.49	-1.500			
0.8952	57294.37	3.1250	3.1250	-0.1429	27.33	1.49	-1.500			
0.8957	57321.86	3.1220	3.1221	-0.1421	27.34	1.50	-1.500			
0.8961	57349.08	3.1190	3.1190	-0.1409	27.34	1.50	-1.500			
0.8965	57375.72	3.1160	3.1159	-0.1394	27.35	1.51	-1.500			
0.8969	57402.40	3.1130	3.1130	-0.1385	27.35	1.51	-1.500			
0.8973	57428.71	3.1100	3.1101	-0.1380	27.36	1.52	-1.500			
0.8977	57455.15	3.1070	3.1070	-0.1373	27.36	1.52	-1.500			
0.8982	57481.73	3.1040	3.1040	-0.1369	27.37	1.53	-1.500			
0.8986	57507.91	3.1010	3.1009	-0.1358	27.37	1.53	-1.500			
0.8990	57533.82	3.0980	3.0980	-0.1348	27.37	1.53	-1.500			
0.8994	57559.73	3.0950	3.0950	-0.1342	27.38	1.54	-1.500			
0.8998	57585.23	3.0920	3.0920	-0.1332	27.38	1.54	-1.500			
0.9002	57610.75	3.0890	3.0890	-0.1326	27.39	1.55	-1.500			
0.9006	57636.08	3.0860	3.0860	-0.1315	27.39	1.55	-1.500			
0.9010	57661.31	3.0830	3.0830	-0.1309	27.40	1.56	-1.500			
0.9014	57686.48	3.0800	3.0802	-0.1304	27.40	1.56	-1.500			
0.9017	57711.38	3.0770	3.0770	-0.1295	27.40	1.56	-1.500			
0.9021	57736.15	3.0740	3.0740	-0.1286	27.41	1.57	-1.500			
0.9025	57760.75	3.0710	3.0710	-0.1277	27.41	1.57	-1.500			
0.9029	57785.19	3.0680	3.0680	-0.1268	27.42	1.58	-1.500			
0.9033	57809.44	3.0650	3.0649	-0.1257	27.42	1.58	-1.500			
0.9036	57833.37	3.0620	3.0621	-0.1255	27.43	1.59	-1.500			
0.9040	57857.41	3.0590	3.0590	-0.1249	27.43	1.59	-1.500			
0.9044	57881.18	3.0560	3.0560	-0.1243	27.43	1.59	-1.500			
0.9048	57905.03	3.0530	3.0529	-0.1241	27.44	1.60	-1.500			
0.9051	57928.98	3.0500	3.0500	-0.1229	27.44	1.60	-1.500			
0.9055	57952.75	3.0470	3.0471	-0.1224	27.45	1.61	-1.500			
0.9059	57976.06	3.0440	3.0441	-0.1216	27.45	1.61	-1.500			
0.9062	57999.55	3.0410	3.0410	-0.1208	27.46	1.62	-1.500			
0.9066	58022.50	3.0380	3.0380	-0.1201	27.46	1.62	-1.500			
0.9070	58045.16	3.0350	3.0349	-0.1190	27.47	1.63	-1.500			
0.9073	58067.95	3.0320	3.0321	-0.1187	27.47	1.63	-1.500			
0.9077	58090.50	3.0290	3.0290	-0.1183	27.47	1.63	-1.500			
0.9080	58113.33	3.0260	3.0260	-0.1172	27.48	1.64	-1.500			
0.9084	58136.10	3.0230	3.0230	-0.1167	27.48	1.64	-1.500			
0.9087	58158.36	3.0200	3.0200	-0.1161	27.49	1.65	-1.500			
0.9091	58180.55	3.0170	3.0171	-0.1153	27.49	1.65	-1.500			
0.9094	58202.43	3.0140	3.0139	-0.1148	27.50	1.66	-1.500			
0.9098	58224.46	3.0110	3.0110	-0.1145	27.50	1.66	-1.500			
0.9101	58246.12	3.0080	3.0080	-0.1146	27.50	1.66	-1.500			
0.9104	58268.18	3.0050	3.0050	-0.1151	27.51	1.67	-1.500			
0.9108	58290.30	3.0020	3.0020	-0.1147	27.51	1.67	-1.500			
