Ah_balance (normalized)	Ah_balance (mAh)	Voltage - fit (V)	Voltage -  interpolate (V)	dQ/dV (1/V)	Temperature (°C)	Temperature - diff (°C)	Current (C)	R_DC 0ms (mOhm)	R_DC 50ms (mOhm)	R_DC 50 ms PEC (mOhm)
0.2925	18719.62	3.9730	3.9729	0.8426	27.26	1.32	1.500			
0.2950	18881.57	3.9700	3.9700	0.8516	27.25	1.31	1.500			
0.2976	19047.37	3.9670	3.9670	0.8652	27.25	1.31	1.500			
0.3002	19215.79	3.9640	3.9640	0.8697	27.24	1.30	1.500			
0.3029	19383.38	3.9610	3.9611	0.8797	27.24	1.30	1.500			
0.3055	19554.33	3.9580	3.9580	0.8824	27.23	1.29	1.500			
0.3082	19722.26	3.9550	3.9549	0.8835	27.23	1.29	1.500			
0.3108	19892.59	3.9520	3.9520	0.8898	27.22	1.28	1.500			
0.3135	20063.35	3.9490	3.9490	0.8885	27.22	1.28	1.500			
0.3162	20235.19	3.9460	3.9459	0.8946	27.21	1.27	1.500			
0.3189	20407.68	3.9430	3.9430	0.8960	27.20	1.26	1.500			
0.3215	20578.05	3.9400	3.9400	0.8967	27.20	1.26	1.500			
0.3242	20751.56	3.9370	3.9370	0.9074	27.19	1.25	1.500			
0.3269	20924.10	3.9340	3.9340	0.9120	27.19	1.25	1.500			
0.3297	21100.95	3.9310	3.9309	0.9203	27.18	1.24	1.500			
0.3325	21280.33	3.9280	3.9281	0.9264	27.18	1.24	1.500			
0.3353	21459.38	3.9250	3.9250	0.9309	27.17	1.23	1.500			
0.3381	21638.30	3.9220	3.9221	0.9360	27.17	1.23	1.500			
0.3409	21817.06	3.9190	3.9190	0.9368	27.16	1.22	1.500			
0.3437	21997.10	3.9160	3.9160	0.9385	27.15	1.21	1.500			
0.3465	22176.70	3.9130	3.9130	0.9456	27.15	1.21	1.500			
0.3494	22358.91	3.9100	3.9101	0.9559	27.14	1.20	1.500			
0.3522	22543.86	3.9070	3.9070	0.9669	27.14	1.20	1.500			
0.3552	22730.22	3.9040	3.9040	0.9723	27.13	1.19	1.500			
0.3581	22918.27	3.9010	3.9010	0.9832	27.13	1.19	1.500			
0.3611	23107.69	3.8980	3.8980	0.9891	27.12	1.18	1.500			
0.3641	23300.65	3.8950	3.8950	0.9982	27.11	1.17	1.500			
0.3671	23491.67	3.8920	3.8921	1.0024	27.11	1.17	1.500			
0.3700	23683.20	3.8890	3.8890	1.0138	27.10	1.16	1.500			
0.3731	23879.03	3.8860	3.8861	1.0230	27.09	1.15	1.500			
0.3762	24076.09	3.8830	3.8829	1.0336	27.09	1.15	1.500			
0.3793	24274.64	3.8800	3.8800	1.0421	27.08	1.14	1.500			
0.3824	24476.59	3.8770	3.8771	1.0577	27.07	1.13	1.500			
0.3856	24681.16	3.8740	3.8740	1.0706	27.06	1.12	1.500			
0.3889	24887.40	3.8710	3.8710	1.0797	27.05	1.11	1.500			
0.3921	25094.36	3.8680	3.8680	1.0864	27.04	1.10	1.500			
0.3954	25305.65	3.8650	3.8649	1.1004	27.03	1.09	1.500			
0.3987	25516.17	3.8620	3.8621	1.1170	27.02	1.08	1.500			
0.4021	25732.13	3.8590	3.8590	1.1322	27.01	1.07	1.500			
0.4055	25950.90	3.8560	3.8560	1.1438	27.00	1.06	1.500			
0.4090	26173.23	3.8530	3.8529	1.1597	26.99	1.05	1.500			
0.4125	26397.22	3.8500	3.8501	1.1781	26.98	1.04	1.500			
0.4160	26625.14	3.8470	3.8471	1.1922	26.97	1.03	1.500			
0.4196	26854.61	3.8440	3.8439	1.2086	26.96	1.02	1.500			
0.4232	27085.87	3.8410	3.8411	1.2294	26.95	1.01	1.500			
0.4269	27323.47	3.8380	3.8380	1.2494	26.94	1.00	1.500			
0.4307	27564.99	3.8350	3.8350	1.2779	26.93	0.99	1.500			
0.4346	27813.30	3.8320	3.8320	1.3026	26.92	0.98	1.500			
0.4386	28067.23	3.8290	3.8291	1.3276	26.91	0.97	1.500			
0.4426	28323.41	3.8260	3.8261	1.3587	26.90	0.96	1.500			
0.4467	28586.25	3.8230	3.8230	1.3840	26.89	0.95	1.500			
0.4508	28853.57	3.8200	3.8200	1.4155	26.87	0.93	1.500			
0.4551	29129.48	3.8170	3.8170	1.4409	26.86	0.92	1.500			
0.4595	29407.06	3.8140	3.8141	1.4682	26.84	0.90	1.500			
0.4639	29690.75	3.8110	3.8110	1.5115	26.83	0.89	1.500			
0.4685	29984.48	3.8080	3.8082	1.5474	26.81	0.87	1.500			
0.4732	30283.30	3.8050	3.8050	1.5856	26.79	0.85	1.500			
0.4780	30594.32	3.8020	3.8020	1.6199	26.78	0.84	1.500			
0.4829	30908.13	3.7990	3.7991	1.6626	26.77	0.83	1.500			
0.4880	31229.58	3.7960	3.7960	1.7088	26.75	0.81	1.500			
0.4932	31563.08	3.7930	3.7929	1.7505	26.74	0.80	1.500			
0.4985	31901.22	3.7900	3.7900	1.7865	26.72	0.78	1.500			
0.5039	32250.30	3.7870	3.7871	1.8335	26.70	0.76	1.500			
0.5095	32607.00	3.7840	3.7840	1.8672	26.68	0.74	1.500			
0.5151	32968.07	3.7810	3.7810	1.9045	26.66	0.72	1.500			
0.5209	33334.45	3.7780	3.7778	1.9334	26.64	0.70	1.500			
0.5267	33710.92	3.7750	3.7750	1.9743	26.62	0.68	1.500			
0.5327	34090.52	3.7720	3.7721	1.9949	26.60	0.66	1.500			
0.5387	34474.23	3.7690	3.7690	2.0147	26.58	0.64	1.500			
0.5448	34868.49	3.7660	3.7659	2.0374	26.56	0.62	1.500			
0.5510	35262.97	3.7630	3.7631	2.0639	26.55	0.61	1.500	0.355	0.456	
0.5573	35664.36	3.7600	3.7600	2.0335	26.53	0.59	1.500			
0.5634	36055.75	3.7570	3.7570	2.0229	26.51	0.57	1.500			
0.5694	36439.33	3.7540	3.7540	2.0038	26.49	0.55	1.500			
0.5754	36824.59	3.7510	3.7510	1.9915	26.48	0.54	1.500			
0.5814	37208.73	3.7480	3.7480	1.9648	26.46	0.52	1.500			
0.5872	37581.47	3.7450	3.7451	1.9558	26.44	0.50	1.500			
0.5931	37955.33	3.7420	3.7420	1.9601	26.43	0.49	1.500			
0.5989	38330.89	3.7390	3.7390	1.9866	26.41	0.47	1.500			
0.6049	38715.22	3.7360	3.7360	1.9871	26.40	0.46	1.500			
0.6109	39099.43	3.7330	3.7330	2.0226	26.38	0.44	1.500			
0.6170	39486.37	3.7300	3.7300	2.0592	26.37	0.43	1.500			
0.6232	39884.15	3.7270	3.7270	2.1057	26.35	0.41	1.500			
0.6296	40293.78	3.7240	3.7240	2.1624	26.34	0.40	1.500			
0.6362	40717.60	3.7210	3.7210	2.2410	26.32	0.38	1.500			
0.6430	41149.43	3.7180	3.7180	2.2904	26.31	0.37	1.500			
0.6499	41596.61	3.7150	3.7150	2.3459	26.29	0.35	1.500			
0.6571	42056.11	3.7120	3.7120	2.4280	26.28	0.34	1.500			
0.6644	42521.53	3.7090	3.7091	2.5247	26.27	0.33	1.500			
0.6721	43017.45	3.7060	3.7059	2.6138	26.26	0.32	1.500			
0.6801	43528.39	3.7030	3.7030	2.7081	26.24	0.30	1.500			
0.6886	44068.28	3.7000	3.7000	2.6729	26.22	0.28	1.500			
0.6965	44573.20	3.6970	3.6971	2.5860	26.20	0.26	1.500			
0.7041	45061.60	3.6940	3.6939	2.4368	26.19	0.25	1.500			
0.7113	45521.31	3.6910	3.6910	2.3078	26.18	0.24	1.500			
0.7179	45944.40	3.6880	3.6880	2.1096	26.17	0.23	1.500			
0.7238	46325.49	3.6850	3.6851	1.9235	26.16	0.22	1.500			
0.7293	46673.63	3.6820	3.6820	1.7676	26.15	0.21	1.500			
0.7343	46994.76	3.6790	3.6790	1.6526	26.14	0.20	1.500			
0.7391	47299.87	3.6760	3.6760	1.5584	26.14	0.20	1.500			
0.7435	47584.02	3.6730	3.6730	1.4777	26.13	0.19	1.500			
0.7478	47859.39	3.6700	3.6701	1.4151	26.13	0.19	1.500			
0.7519	48122.32	3.6670	3.6670	1.3615	26.12	0.18	1.500			
0.7559	48378.48	3.6640	3.6640	1.3207	26.11	0.17	1.500			
0.7598	48625.91	3.6610	3.6610	1.2911	26.10	0.16	1.500			
0.7635	48865.71	3.6580	3.6579	1.2688	26.10	0.16	1.500			
0.7673	49105.96	3.6550	3.6550	1.2631	26.09	0.15	1.500			
0.7710	49345.96	3.6520	3.6520	1.2715	26.08	0.14	1.500			
0.7748	49589.20	3.6490	3.6489	1.2801	26.07	0.13	1.500			
0.7787	49836.26	3.6460	3.6460	1.2981	26.06	0.12	1.500			
0.7826	50089.03	3.6430	3.6430	1.3057	26.05	0.11	1.500			
0.7866	50341.90	3.6400	3.6400	1.3134	26.04	0.10	1.500			
0.7906	50595.85	3.6370	3.6371	1.3172	26.03	0.09	1.500			
0.7945	50848.14	3.6340	3.6340	1.3191	26.02	0.08	1.500			
0.7985	51102.16	3.6310	3.6310	1.3135	26.02	0.08	1.500			
0.8024	51354.56	3.6280	3.6280	1.3112	26.01	0.07	1.500			
0.8063	51605.78	3.6250	3.6250	1.3040	26.00	0.06	1.500			
0.8103	51857.98	3.6220	3.6220	1.3068	25.99	0.05	1.500			
0.8142	52105.94	3.6190	3.6190	1.2994	25.98	0.04	1.500			
0.8181	52355.57	3.6160	3.6160	1.2942	25.98	0.04	1.500			
0.8219	52603.54	3.6130	3.6130	1.2870	25.97	0.03	1.500			
0.8258	52851.81	3.6100	3.6100	1.2819	25.96	0.02	1.500			
0.8297	53098.27	3.6070	3.6070	1.2687	25.96	0.02	1.500			
0.8335	53341.56	3.6040	3.6040	1.2525	25.96	0.02	1.500			
0.8372	53580.08	3.6010	3.6010	1.2346	25.95	0.01	1.500			
0.8409	53816.15	3.5980	3.5980	1.2195	25.95	0.01	1.500			
0.8445	54048.36	3.5950	3.5950	1.2053	25.94	0.00	1.500			
0.8481	54277.71	3.5920	3.5921	1.1881	25.94	0.00	1.500			
0.8516	54502.80	3.5890	3.5890	1.1797	25.94	0.00	1.500			
0.8551	54728.56	3.5860	3.5860	1.1709	25.94	0.00	1.500			
0.8587	54953.82	3.5830	3.5830	1.1566	25.94	0.00	1.500			
0.8622	55178.43	3.5800	3.5800	1.1378	25.94	0.00	1.500			
0.8657	55403.46	3.5770	3.5769	1.0826	25.94	0.00	1.500			
0.8690	55615.08	3.5740	3.5739	1.0141	25.94	0.00	1.500			
0.8720	55806.92	3.5710	3.5711	0.9025	25.94	0.00	1.500			
0.8745	55970.79	3.5680	3.5681	0.7767	25.94	0.00	1.500			
0.8767	56107.40	3.5650	3.5650	0.6550	25.94	0.00	1.500			
0.8784	56216.48	3.5620	3.5619	0.5349	25.94	0.00	1.500			
0.8796	56296.39	3.5590	3.5590	0.4366	25.94	0.00	1.500			
0.8807	56366.48	3.5560	3.5560	0.3660	25.94	0.00	1.500			
0.8817	56426.90	3.5530	3.5529	0.3037	25.94	0.00	1.500			
0.8825	56479.03	3.5500	3.5500	0.2660	25.94	0.00	1.500			
0.8832	56523.55	3.5470	3.5470	0.2333	25.94	0.00	1.500			
0.8838	56564.33	3.5440	3.5439	0.2097	25.94	0.00	1.500			
0.8844	56600.80	3.5410	3.5410	0.1866	25.94	0.00	1.500			
0.8849	56633.85	3.5380	3.5380	0.1699	25.94	0.00	1.500			
0.8854	56664.60	3.5350	3.5351	0.1553	25.94	0.00	1.500			
0.8858	56692.74	3.5320	3.5320	0.1407	25.94	0.00	1.500			
0.8862	56718.66	3.5290	3.5290	0.1274	25.94	0.00	1.500			
0.8866	56741.88	3.5260	3.5260	0.1142	25.94	0.00	1.500			
0.8869	56762.62	3.5230	3.5231	0.1010	25.94	0.00	1.500			
0.8872	56780.95	3.5200	3.5201	0.0878	25.94	0.00	1.500			
0.8874	56796.47	3.5170	3.5171	0.0739	25.94	0.00	1.500			
0.8876	56809.35	3.5140	3.5142	0.0598	25.94	0.00	1.500			
0.8878	56819.49	3.5110	3.5115	0.0458	25.94	0.00	1.500			
