Ah_balance (normalized)	Ah_balance (mAh)	Voltage - fit (V)	Voltage -  interpolate (V)	dQ/dV (1/V)	Temperature (°C)	Temperature - diff (°C)	Current (C)	R_DC 0ms (mOhm)	R_DC 50ms (mOhm)	R_DC 50 ms PEC (mOhm)
0.2873	18386.50	3.9740	3.9740	0.8704	27.07	1.11	1.500			
0.2899	18552.88	3.9710	3.9710	0.8674	27.07	1.11	1.500			
0.2925	18719.15	3.9680	3.9680	0.8732	27.06	1.10	1.500			
0.2951	18888.12	3.9650	3.9650	0.8796	27.06	1.10	1.500			
0.2978	19058.69	3.9620	3.9619	0.8823	27.06	1.10	1.500			
0.3004	19228.10	3.9590	3.9591	0.8843	27.05	1.09	1.500			
0.3031	19398.29	3.9560	3.9560	0.8887	27.05	1.09	1.500			
0.3058	19568.82	3.9530	3.9530	0.8944	27.05	1.09	1.500			
0.3084	19740.43	3.9500	3.9499	0.8977	27.04	1.08	1.500			
0.3111	19913.39	3.9470	3.9470	0.9006	27.04	1.08	1.500			
0.3139	20088.40	3.9440	3.9441	0.9050	27.04	1.08	1.500			
0.3166	20262.26	3.9410	3.9410	0.9098	27.03	1.07	1.500			
0.3193	20436.96	3.9380	3.9380	0.9118	27.03	1.07	1.500			
0.3221	20611.22	3.9350	3.9350	0.9148	27.02	1.06	1.500			
0.3248	20786.81	3.9320	3.9320	0.9210	27.02	1.06	1.500			
0.3276	20965.76	3.9290	3.9290	0.9266	27.01	1.05	1.500			
0.3304	21143.42	3.9260	3.9261	0.9379	27.01	1.05	1.500			
0.3332	21325.87	3.9230	3.9229	0.9405	27.01	1.05	1.500			
0.3360	21506.06	3.9200	3.9199	0.9435	27.00	1.04	1.500			
0.3389	21687.85	3.9170	3.9170	0.9482	26.99	1.03	1.500			
0.3417	21870.24	3.9140	3.9141	0.9501	26.99	1.03	1.500			
0.3446	22053.16	3.9110	3.9109	0.9563	26.98	1.02	1.500			
0.3475	22237.19	3.9080	3.9080	0.9604	26.97	1.01	1.500			
0.3503	22419.91	3.9050	3.9050	0.9643	26.97	1.01	1.500			
0.3532	22607.46	3.9020	3.9020	0.9774	26.96	1.00	1.500			
0.3562	22796.05	3.8990	3.8990	0.9883	26.95	0.99	1.500			
0.3592	22987.62	3.8960	3.8960	0.9965	26.95	0.99	1.500			
0.3622	23180.31	3.8930	3.8929	1.0088	26.94	0.98	1.500			
0.3652	23374.37	3.8900	3.8902	1.0173	26.93	0.97	1.500			
0.3683	23570.76	3.8870	3.8869	1.0307	26.93	0.97	1.500			
0.3714	23768.79	3.8840	3.8841	1.0420	26.92	0.96	1.500			
0.3745	23970.54	3.8810	3.8810	1.0494	26.91	0.95	1.500			
0.3777	24173.02	3.8780	3.8781	1.0563	26.91	0.95	1.500			
0.3809	24379.19	3.8750	3.8750	1.0695	26.90	0.94	1.500			
0.3841	24584.05	3.8720	3.8720	1.0768	26.89	0.93	1.500			
0.3874	24790.70	3.8690	3.8689	1.0896	26.89	0.93	1.500			
0.3906	25000.00	3.8660	3.8661	1.1033	26.88	0.92	1.500			
0.3940	25213.32	3.8630	3.8630	1.1185	26.87	0.91	1.500			
0.3974	25430.72	3.8600	3.8600	1.1335	26.87	0.91	1.500			
0.4008	25650.28	3.8570	3.8570	1.1512	26.86	0.90	1.500			
0.4043	25872.42	3.8540	3.8540	1.1614	26.85	0.89	1.500			
0.4077	26095.99	3.8510	3.8510	1.1852	26.85	0.89	1.500			
0.4113	26324.95	3.8480	3.8480	1.2045	26.84	0.88	1.500			
0.4150	26557.41	3.8450	3.8450	1.2223	26.83	0.87	1.500			
0.4187	26794.87	3.8420	3.8421	1.2387	26.83	0.87	1.500			
0.4225	27037.23	3.8390	3.8390	1.2505	26.82	0.86	1.500			
0.4262	27275.97	3.8360	3.8359	1.2745	26.81	0.85	1.500			
0.4300	27521.12	3.8330	3.8331	1.2978	26.80	0.84	1.500			
0.4339	27768.31	3.8300	3.8300	1.3283	26.80	0.84	1.500			
0.4379	28026.04	3.8270	3.8271	1.3644	26.79	0.83	1.500			
0.4421	28292.93	3.8240	3.8240	1.3930	26.78	0.82	1.500			
0.4463	28566.23	3.8210	3.8209	1.4242	26.77	0.81	1.500			
0.4507	28842.44	3.8180	3.8181	1.4563	26.76	0.80	1.500			
0.4550	29122.42	3.8150	3.8149	1.4812	26.75	0.79	1.500			
0.4595	29409.94	3.8120	3.8120	1.5157	26.73	0.77	1.500			
0.4641	29703.86	3.8090	3.8090	1.5457	26.72	0.76	1.500			
0.4688	30003.10	3.8060	3.8060	1.5836	26.71	0.75	1.500			
0.4736	30311.38	3.8030	3.8030	1.6258	26.70	0.74	1.500			
0.4785	30623.11	3.8000	3.8000	1.6627	26.68	0.72	1.500			
0.4835	30946.84	3.7970	3.7970	1.7144	26.67	0.71	1.500			
0.4888	31281.04	3.7940	3.7941	1.7696	26.65	0.69	1.500			
0.4942	31630.92	3.7910	3.7909	1.7965	26.64	0.68	1.500			
0.4997	31980.65	3.7880	3.7880	1.8486	26.62	0.66	1.500			
0.5053	32336.70	3.7850	3.7851	1.9028	26.61	0.65	1.500			
0.5110	32705.66	3.7820	3.7817	1.9500	26.59	0.63	1.500			
0.5169	33083.52	3.7790	3.7791	1.9834	26.57	0.61	1.500			
0.5230	33471.04	3.7760	3.7761	2.0243	26.56	0.60	1.500			
0.5291	33860.97	3.7730	3.7731	2.0384	26.54	0.58	1.500			
0.5352	34249.62	3.7700	3.7699	2.0674	26.52	0.56	1.500			
0.5415	34659.05	3.7670	3.7670	2.1220	26.51	0.55	1.500			
0.5480	35073.28	3.7640	3.7639	2.1584	26.49	0.53	1.500	0.366	0.457	
0.5547	35500.85	3.7610	3.7611	2.1644	26.47	0.51	1.500			
0.5612	35914.39	3.7580	3.7578	2.1283	26.45	0.49	1.500			
0.5675	36321.29	3.7550	3.7550	2.0881	26.43	0.47	1.500			
0.5736	36708.98	3.7520	3.7520	2.0424	26.42	0.46	1.500			
0.5797	37099.00	3.7490	3.7490	2.0367	26.40	0.44	1.500			
0.5858	37489.40	3.7460	3.7459	2.0359	26.38	0.42	1.500			
0.5919	37880.85	3.7430	3.7430	2.0374	26.36	0.40	1.500			
0.5980	38274.45	3.7400	3.7400	2.0365	26.35	0.39	1.500			
0.6041	38663.28	3.7370	3.7371	2.0390	26.33	0.37	1.500			
0.6102	39051.01	3.7340	3.7340	2.0546	26.31	0.35	1.500			
0.6164	39448.93	3.7310	3.7310	2.0977	26.30	0.34	1.500			
0.6227	39853.67	3.7280	3.7280	2.1215	26.29	0.33	1.500			
0.6291	40264.94	3.7250	3.7250	2.1541	26.27	0.31	1.500			
0.6356	40675.86	3.7220	3.7218	2.1941	26.26	0.30	1.500			
0.6423	41104.69	3.7190	3.7190	2.2566	26.25	0.29	1.500			
0.6491	41543.45	3.7160	3.7160	2.3386	26.23	0.27	1.500			
0.6562	41996.67	3.7130	3.7132	2.4376	26.21	0.25	1.500			
0.6637	42479.30	3.7100	3.7099	2.5538	26.20	0.24	1.500			
0.6715	42978.00	3.7070	3.7070	2.6181	26.18	0.22	1.500			
0.6796	43493.68	3.7040	3.7041	2.6896	26.16	0.20	1.500			
0.6878	44017.59	3.7010	3.7009	2.7260	26.15	0.19	1.500			
0.6960	44544.56	3.6980	3.6981	2.7313	26.13	0.17	1.500			
0.7045	45084.93	3.6950	3.6950	2.6544	26.12	0.16	1.500			
0.7122	45580.27	3.6920	3.6920	2.4849	26.11	0.15	1.500			
0.7194	46043.58	3.6890	3.6890	2.2842	26.10	0.14	1.500			
0.7260	46460.92	3.6860	3.6860	2.0997	26.09	0.13	1.500			
0.7318	46836.62	3.6830	3.6831	1.9221	26.09	0.13	1.500			
0.7373	47189.60	3.6800	3.6800	1.7803	26.08	0.12	1.500			
0.7424	47513.66	3.6770	3.6770	1.6602	26.07	0.11	1.500			
0.7472	47819.15	3.6740	3.6740	1.5636	26.06	0.10	1.500			
0.7517	48108.97	3.6710	3.6709	1.4836	26.06	0.10	1.500			
0.7560	48384.26	3.6680	3.6681	1.4035	26.05	0.09	1.500			
0.7601	48644.28	3.6650	3.6649	1.3499	26.04	0.08	1.500			
0.7640	48895.78	3.6620	3.6620	1.3047	26.04	0.08	1.500			
0.7678	49136.77	3.6590	3.6589	1.2723	26.03	0.07	1.500			
0.7715	49375.07	3.6560	3.6560	1.2501	26.03	0.07	1.500			
0.7752	49610.22	3.6530	3.6530	1.2458	26.03	0.07	1.500			
0.7789	49846.87	3.6500	3.6500	1.2556	26.03	0.07	1.500			
0.7826	50086.89	3.6470	3.6470	1.2729	26.02	0.06	1.500			
0.7864	50332.50	3.6440	3.6439	1.2811	26.02	0.06	1.500			
0.7903	50580.69	3.6410	3.6409	1.2968	26.01	0.05	1.500			
0.7943	50833.59	3.6380	3.6381	1.3057	26.00	0.04	1.500			
0.7983	51088.65	3.6350	3.6349	1.3088	26.00	0.04	1.500			
0.8022	51338.55	3.6320	3.6320	1.3070	25.99	0.03	1.500			
0.8061	51589.27	3.6290	3.6291	1.3139	25.98	0.02	1.500			
0.8100	51840.47	3.6260	3.6259	1.3118	25.97	0.01	1.500			
0.8140	52095.12	3.6230	3.6230	1.3101	25.97	0.01	1.500			
0.8179	52345.98	3.6200	3.6201	1.3049	25.96	0.00	1.500			
0.8218	52597.75	3.6170	3.6170	1.2962	25.96	-0.00	1.500			
0.8257	52847.03	3.6140	3.6140	1.2899	25.95	-0.01	1.500			
0.8295	53090.75	3.6110	3.6110	1.2781	25.95	-0.01	1.500			
0.8334	53334.46	3.6080	3.6080	1.2713	25.94	-0.02	1.500			
0.8372	53580.24	3.6050	3.6050	1.2649	25.94	-0.02	1.500			
0.8410	53822.76	3.6020	3.6020	1.2547	25.94	-0.02	1.500			
0.8447	54063.20	3.5990	3.5990	1.2432	25.93	-0.03	1.500			
0.8485	54302.44	3.5960	3.5960	1.2264	25.93	-0.03	1.500			
0.8521	54535.67	3.5930	3.5930	1.2102	25.93	-0.03	1.500			
0.8557	54765.91	3.5900	3.5900	1.1972	25.92	-0.04	1.500			
0.8593	54992.57	3.5870	3.5871	1.1887	25.92	-0.04	1.500			
0.8628	55219.64	3.5840	3.5841	1.1865	25.92	-0.04	1.500			
0.8663	55445.86	3.5810	3.5809	1.1823	25.93	-0.03	1.500			
0.8700	55677.64	3.5780	3.5779	1.1614	25.93	-0.03	1.500			
0.8736	55907.61	3.5750	3.5749	1.1278	25.94	-0.02	1.500			
0.8771	56132.94	3.5720	3.5719	1.0444	25.95	-0.01	1.500			
0.8802	56331.25	3.5690	3.5691	0.9317	25.95	-0.01	1.500			
0.8829	56504.32	3.5660	3.5661	0.8048	25.95	-0.01	1.500			
0.8850	56641.80	3.5630	3.5631	0.6734	25.96	-0.00	1.500			
0.8867	56751.06	3.5600	3.5599	0.5398	25.96	0.00	1.500			
0.8881	56836.64	3.5570	3.5570	0.4459	25.96	0.00	1.500			
0.8891	56904.39	3.5540	3.5541	0.3625	25.96	0.00	1.500			
0.8901	56966.54	3.5510	3.5509	0.3044	25.97	0.01	1.500			
0.8909	57016.93	3.5480	3.5479	0.2618	25.97	0.01	1.500			
0.8916	57059.73	3.5450	3.5449	0.2270	25.97	0.01	1.500			
0.8922	57098.39	3.5420	3.5420	0.2022	25.97	0.01	1.500			
0.8927	57134.09	3.5390	3.5390	0.1804	25.97	0.01	1.500			
0.8932	57166.22	3.5360	3.5360	0.1631	25.97	0.01	1.500			
0.8937	57195.87	3.5330	3.5330	0.1470	25.97	0.01	1.500			
0.8941	57222.02	3.5300	3.5301	0.1315	25.97	0.01	1.500			
0.8945	57245.92	3.5270	3.5270	0.1175	25.97	0.01	1.500			
0.8948	57267.01	3.5240	3.5240	0.1033	25.97	0.01	1.500			
0.8951	57285.48	3.5210	3.5210	0.0894	25.97	0.01	1.500			
0.8953	57301.32	3.5180	3.5180	0.0756	25.97	0.01	1.500			
0.8955	57314.41	3.5150	3.5151	0.0622	25.97	0.01	1.500			
0.8957	57325.06	3.5120	3.5126	0.0488	25.97	0.01	1.500			
