Ah_balance (normalized)	Ah_balance (mAh)	Voltage - fit (V)	Voltage -  interpolate (V)	dQ/dV (1/V)	Temperature (°C)	Temperature - diff (°C)	Current (C)	R_DC 0ms (mOhm)	R_DC 50ms (mOhm)	R_DC 50 ms PEC (mOhm)
0.2055	13149.68	3.9110	3.9108	-0.1005	25.97	-0.03	-1.500			
0.2058	13173.63	3.9080	3.9080	-0.1457	25.97	-0.03	-1.500			
0.2064	13206.54	3.9050	3.9050	-0.1870	25.97	-0.03	-1.500			
0.2070	13246.96	3.9020	3.9019	-0.2231	25.97	-0.03	-1.500			
0.2077	13293.27	3.8990	3.8991	-0.2582	25.97	-0.03	-1.500			
0.2085	13346.39	3.8960	3.8961	-0.2911	25.97	-0.03	-1.500			
0.2095	13406.52	3.8930	3.8930	-0.3243	25.97	-0.03	-1.500			
0.2105	13471.97	3.8900	3.8900	-0.3564	25.98	-0.02	-1.500			
0.2116	13542.97	3.8870	3.8870	-0.3870	25.98	-0.02	-1.500			
0.2128	13620.12	3.8840	3.8840	-0.4209	25.98	-0.02	-1.500			
0.2141	13703.74	3.8810	3.8810	-0.4550	25.98	-0.02	-1.500			
0.2155	13794.13	3.8780	3.8780	-0.4875	25.98	-0.02	-1.500			
0.2170	13891.09	3.8750	3.8750	-0.5225	25.99	-0.01	-1.500			
0.2187	13995.14	3.8720	3.8720	-0.5558	25.99	-0.01	-1.500			
0.2204	14105.51	3.8690	3.8690	-0.5869	25.99	-0.01	-1.500			
0.2222	14221.84	3.8660	3.8660	-0.6186	25.99	-0.01	-1.500			
0.2241	14344.07	3.8630	3.8630	-0.6435	26.00	-0.00	-1.500			
0.2261	14470.82	3.8600	3.8600	-0.6691	26.00	0.00	-1.500			
0.2282	14602.01	3.8570	3.8571	-0.6936	26.00	0.00	-1.500			
0.2303	14737.58	3.8540	3.8540	-0.7128	26.01	0.01	-1.500			
0.2325	14877.07	3.8510	3.8510	-0.7307	26.01	0.01	-1.500			
0.2347	15019.66	3.8480	3.8480	-0.7454	26.01	0.01	-1.500			
0.2369	15163.84	3.8450	3.8450	-0.7592	26.02	0.02	-1.500			
0.2393	15312.75	3.8420	3.8420	-0.7738	26.02	0.02	-1.500			
0.2416	15462.13	3.8390	3.8389	-0.7811	26.03	0.03	-1.500			
0.2440	15613.87	3.8360	3.8360	-0.7883	26.03	0.03	-1.500			
0.2464	15766.53	3.8330	3.8331	-0.7953	26.03	0.03	-1.500			
0.2488	15920.09	3.8300	3.8300	-0.8012	26.04	0.04	-1.500			
0.2512	16073.63	3.8270	3.8270	-0.8091	26.04	0.04	-1.500			
0.2536	16228.42	3.8240	3.8240	-0.8128	26.05	0.05	-1.500			
0.2560	16385.22	3.8210	3.8210	-0.8213	26.06	0.06	-1.500			
0.2585	16545.23	3.8180	3.8180	-0.8273	26.07	0.07	-1.500			
0.2610	16705.37	3.8150	3.8150	-0.8333	26.07	0.07	-1.500			
0.2635	16864.89	3.8120	3.8121	-0.8375	26.08	0.08	-1.500			
0.2660	17025.87	3.8090	3.8090	-0.8396	26.09	0.09	-1.500			
0.2685	17187.10	3.8060	3.8059	-0.8420	26.10	0.10	-1.500			
0.2711	17349.88	3.8030	3.8031	-0.8414	26.11	0.11	-1.500			
0.2736	17511.52	3.8000	3.8000	-0.8379	26.11	0.11	-1.500			
0.2761	17672.68	3.7970	3.7971	-0.8440	26.12	0.12	-1.500			
0.2787	17833.83	3.7940	3.7939	-0.8450	26.13	0.13	-1.500			
0.2812	17994.38	3.7910	3.7910	-0.8480	26.14	0.14	-1.500			
0.2837	18158.54	3.7880	3.7880	-0.8550	26.15	0.15	-1.500			
0.2863	18324.17	3.7850	3.7850	-0.8558	26.15	0.15	-1.500			
0.2889	18490.09	3.7820	3.7821	-0.8567	26.16	0.16	-1.500			
0.2915	18653.89	3.7790	3.7790	-0.8610	26.17	0.17	-1.500			
0.2940	18819.00	3.7760	3.7759	-0.8565	26.18	0.18	-1.500			
0.2966	18981.78	3.7730	3.7730	-0.8614	26.19	0.19	-1.500			
0.2992	19147.39	3.7700	3.7700	-0.8656	26.20	0.20	-1.500			
0.3018	19315.46	3.7670	3.7670	-0.8690	26.20	0.20	-1.500			
0.3044	19483.23	3.7640	3.7639	-0.8726	26.21	0.21	-1.500			
0.3070	19650.01	3.7610	3.7611	-0.8748	26.22	0.22	-1.500			
0.3097	19818.04	3.7580	3.7580	-0.8740	26.23	0.23	-1.500			
0.3123	19987.89	3.7550	3.7549	-0.8748	26.24	0.24	-1.500			
0.3149	20154.31	3.7520	3.7520	-0.8706	26.25	0.25	-1.500			
0.3175	20321.90	3.7490	3.7491	-0.8802	26.25	0.25	-1.500			
0.3202	20491.72	3.7460	3.7459	-0.8837	26.26	0.26	-1.500			
0.3228	20660.94	3.7430	3.7429	-0.8851	26.27	0.27	-1.500			
0.3255	20830.85	3.7400	3.7402	-0.8872	26.28	0.28	-1.500			
0.3282	21002.50	3.7370	3.7369	-0.8916	26.29	0.29	-1.500			
0.3309	21176.79	3.7340	3.7340	-0.8915	26.30	0.30	-1.500			
0.3335	21346.73	3.7310	3.7310	-0.8858	26.31	0.31	-1.500			
0.3362	21516.43	3.7280	3.7280	-0.8847	26.32	0.32	-1.500			
0.3388	21686.02	3.7250	3.7250	-0.8806	26.33	0.33	-1.500			
0.3414	21852.69	3.7220	3.7219	-0.8784	26.34	0.34	-1.500			
0.3441	22021.23	3.7190	3.7190	-0.8797	26.35	0.35	-1.500			
0.3467	22189.45	3.7160	3.7160	-0.8840	26.36	0.36	-1.500			
0.3494	22360.97	3.7130	3.7130	-0.8873	26.37	0.37	-1.500			
0.3521	22532.01	3.7100	3.7101	-0.8899	26.38	0.38	-1.500			
0.3547	22702.53	3.7070	3.7070	-0.8954	26.39	0.39	-1.500			
0.3574	22874.58	3.7040	3.7041	-0.8997	26.39	0.39	-1.500			
0.3601	23046.67	3.7010	3.7009	-0.9045	26.40	0.40	-1.500			
0.3628	23221.87	3.6980	3.6980	-0.9073	26.41	0.41	-1.500			
0.3656	23395.92	3.6950	3.6951	-0.9153	26.42	0.42	-1.500			
0.3683	23573.29	3.6920	3.6920	-0.9193	26.43	0.43	-1.500			
0.3711	23750.14	3.6890	3.6890	-0.9248	26.44	0.44	-1.500			
0.3739	23927.77	3.6860	3.6860	-0.9330	26.45	0.45	-1.500			
0.3767	24107.25	3.6830	3.6829	-0.9397	26.46	0.46	-1.500			
0.3795	24287.31	3.6800	3.6800	-0.9528	26.47	0.47	-1.500			
0.3824	24472.15	3.6770	3.6771	-0.9667	26.48	0.48	-1.500			
0.3853	24657.12	3.6740	3.6739	-0.9774	26.49	0.49	-1.500			
0.3882	24847.53	3.6710	3.6709	-0.9977	26.50	0.50	-1.500			
0.3912	25038.43	3.6680	3.6681	-1.0171	26.50	0.50	-1.500			
0.3943	25237.20	3.6650	3.6649	-1.0296	26.51	0.51	-1.500			
0.3975	25438.45	3.6620	3.6619	-1.0479	26.52	0.52	-1.500			
0.4006	25638.65	3.6590	3.6593	-1.0688	26.53	0.53	-1.500			
0.4038	25844.58	3.6560	3.6558	-1.0914	26.54	0.54	-1.500			
0.4071	26055.95	3.6530	3.6530	-1.1130	26.54	0.54	-1.500			
0.4105	26268.93	3.6500	3.6500	-1.1380	26.55	0.55	-1.500			
0.4140	26493.17	3.6470	3.6471	-1.1767	26.56	0.56	-1.500			
0.4176	26724.12	3.6440	3.6440	-1.2024	26.56	0.56	-1.500			
0.4212	26955.63	3.6410	3.6409	-1.2266	26.57	0.57	-1.500			
0.4249	27192.51	3.6380	3.6381	-1.2515	26.58	0.58	-1.500			
0.4287	27434.85	3.6350	3.6350	-1.2783	26.58	0.58	-1.500			
0.4325	27682.76	3.6320	3.6320	-1.3087	26.59	0.59	-1.500			
0.4365	27933.44	3.6290	3.6291	-1.3461	26.59	0.59	-1.500			
0.4406	28196.86	3.6260	3.6259	-1.3849	26.60	0.60	-1.500			
0.4449	28470.85	3.6230	3.6230	-1.4190	26.60	0.60	-1.500			
0.4492	28746.94	3.6200	3.6200	-1.4443	26.61	0.61	-1.500			
0.4536	29027.38	3.6170	3.6170	-1.4800	26.61	0.61	-1.500			
0.4580	29313.97	3.6140	3.6139	-1.5117	26.62	0.62	-1.500			
0.4625	29602.76	3.6110	3.6110	-1.5484	26.62	0.62	-1.500			
0.4672	29903.48	3.6080	3.6080	-1.5844	26.62	0.62	-1.500			
0.4722	30217.68	3.6050	3.6049	-1.6203	26.63	0.63	-1.500			
0.4771	30532.78	3.6020	3.6021	-1.6483	26.63	0.63	-1.500			
0.4821	30851.94	3.5990	3.5990	-1.6810	26.63	0.63	-1.500			
0.4871	31175.64	3.5960	3.5959	-1.6995	26.63	0.63	-1.500			
0.4922	31500.58	3.5930	3.5930	-1.7155	26.64	0.64	-1.500			
0.4974	31833.61	3.5900	3.5900	-1.7617	26.64	0.64	-1.500			
0.5028	32176.66	3.5870	3.5870	-1.7972	26.64	0.64	-1.500			
0.5082	32527.47	3.5840	3.5839	-1.8405	26.64	0.64	-1.500			
0.5138	32883.56	3.5810	3.5809	-1.8663	26.63	0.63	-1.500			
0.5195	33246.47	3.5780	3.5780	-1.8948	26.63	0.63	-1.500			
0.5253	33616.13	3.5750	3.5753	-1.9197	26.63	0.63	-1.500			
0.5310	33986.08	3.5720	3.5719	-1.9523	26.63	0.63	-1.500			
0.5369	34362.25	3.5690	3.5690	-1.9669	26.63	0.63	-1.500			
0.5428	34741.18	3.5660	3.5659	-1.9729	26.63	0.63	-1.500			
0.5489	35127.88	3.5630	3.5630	-2.0209	26.63	0.63	-1.500			
0.5549	35516.78	3.5600	3.5600	-2.0233	26.63	0.63	-1.500			
0.5611	35907.23	3.5570	3.5570	-2.0578	26.63	0.63	-1.500			
0.5672	36303.57	3.5540	3.5540	-2.0749	26.62	0.62	-1.500	0.392	0.493	
0.5735	36704.58	3.5510	3.5509	-2.1025	26.62	0.62	-1.500			
0.5798	37109.33	3.5480	3.5480	-2.1284	26.62	0.62	-1.500			
0.5863	37520.63	3.5450	3.5450	-2.1213	26.62	0.62	-1.500			
0.5927	37931.28	3.5420	3.5420	-2.1331	26.62	0.62	-1.500			
0.5991	38339.45	3.5390	3.5391	-2.1381	26.62	0.62	-1.500			
0.6054	38748.34	3.5360	3.5359	-2.1613	26.62	0.62	-1.500			
0.6120	39169.87	3.5330	3.5329	-2.1262	26.63	0.63	-1.500			
0.6184	39576.71	3.5300	3.5300	-2.1064	26.63	0.63	-1.500			
0.6247	39982.58	3.5270	3.5273	-2.0909	26.64	0.64	-1.500			
0.6309	40377.79	3.5240	3.5238	-2.0573	26.64	0.64	-1.500			
0.6370	40768.88	3.5210	3.5210	-2.0387	26.65	0.65	-1.500			
0.6431	41155.50	3.5180	3.5179	-2.0199	26.65	0.65	-1.500			
0.6492	41549.63	3.5150	3.5150	-2.0153	26.66	0.66	-1.500			
0.6552	41932.41	3.5120	3.5119	-1.9926	26.67	0.67	-1.500			
0.6612	42313.98	3.5090	3.5090	-1.9756	26.68	0.68	-1.500			
0.6670	42690.92	3.5060	3.5059	-1.9400	26.69	0.69	-1.500			
0.6729	43065.00	3.5030	3.5030	-1.9209	26.70	0.70	-1.500			
0.6786	43428.16	3.5000	3.4999	-1.8855	26.71	0.71	-1.500			
0.6842	43786.02	3.4970	3.4970	-1.8745	26.72	0.72	-1.500			
0.6897	44143.20	3.4940	3.4940	-1.8431	26.73	0.73	-1.500			
0.6952	44493.16	3.4910	3.4909	-1.8132	26.75	0.75	-1.500			
0.7007	44844.43	3.4880	3.4883	-1.8001	26.76	0.76	-1.500			
0.7061	45189.33	3.4850	3.4850	-1.7785	26.77	0.77	-1.500			
0.7113	45526.17	3.4820	3.4819	-1.7559	26.79	0.79	-1.500			
0.7165	45858.21	3.4790	3.4790	-1.7237	26.80	0.80	-1.500			
0.7217	46190.21	3.4760	3.4759	-1.7071	26.81	0.81	-1.500			
0.7268	46515.55	3.4730	3.4731	-1.6866	26.82	0.82	-1.500			
0.7319	46838.46	3.4700	3.4701	-1.6639	26.84	0.84	-1.500			
0.7368	47154.77	3.4670	3.4669	-1.6379	26.86	0.86	-1.500			
0.7417	47466.98	3.4640	3.4640	-1.6045	26.87	0.87	-1.500			
0.7465	47774.33	3.4610	3.4610	-1.5776	26.89	0.89	-1.500			
0.7512	48073.79	3.4580	3.4582	-1.5492	26.90	0.90	-1.500			
0.7558	48369.50	3.4550	3.4549	-1.5186	26.92	0.92	-1.500			
0.7602	48654.27	3.4520	3.4520	-1.4998	26.94	0.94	-1.500			
0.7646	48937.53	3.4490	3.4490	-1.4801	26.96	0.96	-1.500			
0.7691	49223.31	3.4460	3.4460	-1.4702	26.98	0.98	-1.500			
0.7735	49503.34	3.4430	3.4429	-1.4573	26.99	0.99	-1.500			
0.7778	49781.96	3.4400	3.4399	-1.4474	27.01	1.01	-1.500			
0.7821	50057.39	3.4370	3.4370	-1.4399	27.03	1.03	-1.500			
0.7864	50330.17	3.4340	3.4341	-1.4390	27.05	1.05	-1.500			
0.7907	50603.61	3.4310	3.4310	-1.4323	27.07	1.07	-1.500			
0.7951	50883.56	3.4280	3.4279	-1.4389	27.09	1.09	-1.500			
0.7994	51161.56	3.4250	3.4251	-1.4353	27.10	1.10	-1.500			
0.8037	51436.70	3.4220	3.4221	-1.4208	27.13	1.13	-1.500			
0.8080	51712.16	3.4190	3.4190	-1.4049	27.15	1.15	-1.500			
0.8122	51981.24	3.4160	3.4160	-1.3787	27.17	1.17	-1.500			
0.8163	52244.68	3.4130	3.4129	-1.3397	27.19	1.19	-1.500			
0.8203	52500.73	3.4100	3.4101	-1.3047	27.21	1.21	-1.500			
0.8242	52747.11	3.4070	3.4070	-1.2601	27.23	1.23	-1.500			
0.8279	52986.10	3.4040	3.4040	-1.2172	27.24	1.24	-1.500			
0.8315	53214.71	3.4010	3.4009	-1.1738	27.26	1.26	-1.500			
0.8349	53435.21	3.3980	3.3981	-1.1243	27.28	1.28	-1.500			
0.8382	53646.45	3.3950	3.3950	-1.0783	27.30	1.30	-1.500			
0.8414	53850.22	3.3920	3.3920	-1.0392	27.32	1.32	-1.500			
0.8444	54044.78	3.3890	3.3891	-0.9934	27.33	1.33	-1.500			
0.8474	54231.18	3.3860	3.3860	-0.9488	27.34	1.34	-1.500			
0.8501	54409.10	3.3830	3.3832	-0.9087	27.35	1.35	-1.500			
0.8528	54579.33	3.3800	3.3799	-0.8678	27.36	1.36	-1.500			
0.8554	54742.57	3.3770	3.3769	-0.8311	27.37	1.37	-1.500			
0.8577	54895.50	3.3740	3.3741	-0.7984	27.39	1.39	-1.500			
0.8601	55043.68	3.3710	3.3710	-0.7642	27.40	1.40	-1.500			
0.8623	55189.80	3.3680	3.3679	-0.7404	27.41	1.41	-1.500			
0.8645	55328.96	3.3650	3.3650	-0.7198	27.42	1.42	-1.500			
0.8666	55463.63	3.3620	3.3620	-0.6957	27.43	1.43	-1.500			
0.8687	55596.69	3.3590	3.3591	-0.6716	27.44	1.44	-1.500			
0.8707	55722.91	3.3560	3.3561	-0.6478	27.45	1.45	-1.500			
0.8726	55844.65	3.3530	3.3530	-0.6239	27.45	1.45	-1.500			
0.8744	55962.65	3.3500	3.3500	-0.6012	27.46	1.46	-1.500			
0.8761	56073.57	3.3470	3.3469	-0.5824	27.46	1.46	-1.500			
0.8778	56182.04	3.3440	3.3442	-0.5654	27.47	1.47	-1.500			
0.8795	56290.90	3.3410	3.3409	-0.5453	27.48	1.48	-1.500			
0.8812	56394.86	3.3380	3.3380	-0.5306	27.49	1.49	-1.500			
0.8827	56494.66	3.3350	3.3351	-0.5097	27.49	1.49	-1.500			
0.8842	56589.46	3.3320	3.3318	-0.4891	27.50	1.50	-1.500			
0.8856	56681.49	3.3290	3.3290	-0.4750	27.51	1.51	-1.500			
0.8870	56770.15	3.3260	3.3259	-0.4577	27.51	1.51	-1.500			
0.8884	56856.10	3.3230	3.3230	-0.4452	27.52	1.52	-1.500			
0.8897	56941.85	3.3200	3.3200	-0.4319	27.52	1.52	-1.500			
0.8910	57022.65	3.3170	3.3170	-0.4157	27.53	1.53	-1.500			
0.8922	57101.82	3.3140	3.3140	-0.4028	27.53	1.53	-1.500			
0.8934	57177.28	3.3110	3.3110	-0.3876	27.54	1.54	-1.500			
0.8945	57249.56	3.3080	3.3080	-0.3744	27.54	1.54	-1.500			
0.8956	57320.08	3.3050	3.3050	-0.3622	27.55	1.55	-1.500			
0.8967	57388.04	3.3020	3.3020	-0.3491	27.55	1.55	-1.500			
0.8977	57454.53	3.2990	3.2989	-0.3378	27.56	1.56	-1.500			
0.8987	57518.00	3.2960	3.2961	-0.3249	27.56	1.56	-1.500			
0.8997	57578.99	3.2930	3.2930	-0.3135	27.57	1.57	-1.500			
0.9006	57638.12	3.2900	3.2900	-0.3026	27.57	1.57	-1.500			
0.9015	57694.60	3.2870	3.2870	-0.2913	27.58	1.58	-1.500			
0.9023	57749.24	3.2840	3.2840	-0.2814	27.58	1.58	-1.500			
0.9032	57802.44	3.2810	3.2810	-0.2726	27.59	1.59	-1.500			
0.9040	57853.81	3.2780	3.2780	-0.2643	27.59	1.59	-1.500			
0.9047	57903.76	3.2750	3.2750	-0.2547	27.60	1.60	-1.500			
0.9055	57952.07	3.2720	3.2720	-0.2460	27.60	1.60	-1.500			
0.9062	57997.88	3.2690	3.2690	-0.2377	27.61	1.61	-1.500			
0.9069	58042.75	3.2660	3.2662	-0.2302	27.61	1.61	-1.500			
0.9076	58085.93	3.2630	3.2629	-0.2227	27.62	1.62	-1.500			
0.9082	58127.85	3.2600	3.2599	-0.2155	27.62	1.62	-1.500			
0.9089	58168.21	3.2570	3.2571	-0.2094	27.62	1.62	-1.500			
0.9095	58207.61	3.2540	3.2541	-0.2035	27.63	1.63	-1.500			
0.9101	58246.67	3.2510	3.2510	-0.1984	27.63	1.63	-1.500			
0.9107	58284.14	3.2480	3.2479	-0.1920	27.64	1.64	-1.500			
0.9113	58320.18	3.2450	3.2450	-0.1858	27.64	1.64	-1.500			
0.9118	58355.23	3.2420	3.2420	-0.1809	27.64	1.64	-1.500			
0.9123	58389.09	3.2390	3.2390	-0.1757	27.65	1.65	-1.500			
0.9128	58422.38	3.2360	3.2360	-0.1711	27.65	1.65	-1.500			
0.9133	58454.37	3.2330	3.2330	-0.1664	27.65	1.65	-1.500			
0.9138	58485.99	3.2300	3.2300	-0.1620	27.66	1.66	-1.500			
0.9143	58516.74	3.2270	3.2270	-0.1590	27.66	1.66	-1.500			
0.9148	58546.89	3.2240	3.2240	-0.1551	27.66	1.66	-1.500			
0.9153	58576.27	3.2210	3.2210	-0.1511	27.67	1.67	-1.500			
0.9157	58604.71	3.2180	3.2179	-0.1472	27.67	1.67	-1.500			
0.9161	58632.52	3.2150	3.2150	-0.1436	27.67	1.67	-1.500			
0.9166	58659.79	3.2120	3.2122	-0.1404	27.67	1.67	-1.500			
0.9170	58686.40	3.2090	3.2089	-0.1377	27.68	1.68	-1.500			
0.9174	58712.66	3.2060	3.2059	-0.1348	27.68	1.68	-1.500			
0.9178	58738.01	3.2030	3.2030	-0.1313	27.68	1.68	-1.500			
0.9182	58762.94	3.2000	3.2001	-0.1288	27.68	1.68	-1.500			
0.9186	58787.56	3.1970	3.1971	-0.1265	27.69	1.69	-1.500			
0.9189	58811.55	3.1940	3.1940	-0.1237	27.69	1.69	-1.500			
0.9193	58835.04	3.1910	3.1909	-0.1211	27.69	1.69	-1.500			
0.9197	58857.89	3.1880	3.1880	-0.1190	27.69	1.69	-1.500			
0.9200	58880.33	3.1850	3.1851	-0.1167	27.70	1.70	-1.500			
0.9204	58902.59	3.1820	3.1820	-0.1149	27.70	1.70	-1.500			
0.9207	58924.48	3.1790	3.1789	-0.1130	27.70	1.70	-1.500			
0.9210	58946.02	3.1760	3.1760	-0.1106	27.70	1.70	-1.500			
0.9214	58967.06	3.1730	3.1730	-0.1086	27.70	1.70	-1.500			
0.9217	58987.66	3.1700	3.1700	-0.1073	27.71	1.71	-1.500			
0.9220	59008.09	3.1670	3.1671	-0.1056	27.71	1.71	-1.500			
0.9223	59028.04	3.1640	3.1639	-0.1035	27.71	1.71	-1.500			
0.9226	59047.76	3.1610	3.1609	-0.1020	27.71	1.71	-1.500			
0.9229	59067.23	3.1580	3.1580	-0.1003	27.71	1.71	-1.500			
0.9232	59086.34	3.1550	3.1551	-0.0987	27.72	1.72	-1.500			
0.9235	59105.14	3.1520	3.1519	-0.0979	27.72	1.72	-1.500			
0.9238	59123.80	3.1490	3.1490	-0.0965	27.72	1.72	-1.500			
0.9241	59141.98	3.1460	3.1459	-0.0946	27.72	1.72	-1.500			
0.9244	59160.05	3.1430	3.1430	-0.0936	27.72	1.72	-1.500			
0.9247	59178.01	3.1400	3.1400	-0.0922	27.72	1.72	-1.500			
0.9249	59195.73	3.1370	3.1370	-0.0911	27.73	1.73	-1.500			
0.9252	59213.05	3.1340	3.1341	-0.0899	27.73	1.73	-1.500			
0.9255	59230.29	3.1310	3.1311	-0.0886	27.73	1.73	-1.500			
0.9257	59247.09	3.1280	3.1280	-0.0874	27.73	1.73	-1.500			
0.9260	59263.58	3.1250	3.1250	-0.0859	27.74	1.74	-1.500			
0.9262	59279.97	3.1220	3.1220	-0.0848	27.74	1.74	-1.500			
0.9265	59296.03	3.1190	3.1190	-0.0841	27.74	1.74	-1.500			
0.9268	59312.10	3.1160	3.1161	-0.0833	27.74	1.74	-1.500			
0.9270	59328.14	3.1130	3.1129	-0.0822	27.75	1.75	-1.500			
0.9272	59343.82	3.1100	3.1099	-0.0811	27.75	1.75	-1.500			
0.9275	59359.35	3.1070	3.1070	-0.0801	27.75	1.75	-1.500			
0.9277	59374.50	3.1040	3.1042	-0.0794	27.76	1.76	-1.500			
0.9280	59389.69	3.1010	3.1010	-0.0786	27.76	1.76	-1.500			
0.9282	59404.70	3.0980	3.0979	-0.0777	27.76	1.76	-1.500			
0.9284	59419.47	3.0950	3.0949	-0.0772	27.76	1.76	-1.500			
0.9287	59433.94	3.0920	3.0920	-0.0763	27.77	1.77	-1.500			
0.9289	59448.79	3.0890	3.0889	-0.0754	27.77	1.77	-1.500			
0.9291	59463.21	3.0860	3.0860	-0.0748	27.77	1.77	-1.500			
0.9293	59477.79	3.0830	3.0830	-0.0742	27.77	1.77	-1.500			
0.9296	59491.80	3.0800	3.0801	-0.0736	27.78	1.78	-1.500			
0.9298	59505.78	3.0770	3.0771	-0.0727	27.78	1.78	-1.500			
0.9300	59519.67	3.0740	3.0740	-0.0720	27.78	1.78	-1.500			
0.9302	59533.45	3.0710	3.0709	-0.0713	27.78	1.78	-1.500			
0.9304	59546.95	3.0680	3.0680	-0.0705	27.79	1.79	-1.500			
0.9306	59560.43	3.0650	3.0651	-0.0700	27.79	1.79	-1.500			
0.9308	59573.82	3.0620	3.0621	-0.0695	27.79	1.79	-1.500			
0.9311	59587.22	3.0590	3.0589	-0.0690	27.79	1.79	-1.500			
0.9313	59600.38	3.0560	3.0559	-0.0685	27.80	1.80	-1.500			
0.9315	59613.36	3.0530	3.0531	-0.0677	27.80	1.80	-1.500			
0.9317	59626.32	3.0500	3.0501	-0.0673	27.80	1.80	-1.500			
0.9319	59639.24	3.0470	3.0470	-0.0668	27.80	1.80	-1.500			
0.9321	59652.09	3.0440	3.0440	-0.0664	27.81	1.81	-1.500			
0.9323	59664.77	3.0410	3.0410	-0.0658	27.81	1.81	-1.500			
0.9325	59677.34	3.0380	3.0381	-0.0652	27.81	1.81	-1.500			
0.9327	59689.78	3.0350	3.0350	-0.0646	27.81	1.81	-1.500			
0.9328	59702.10	3.0320	3.0320	-0.0641	27.81	1.81	-1.500			
0.9330	59714.35	3.0290	3.0290	-0.0636	27.82	1.82	-1.500			
0.9332	59726.51	3.0260	3.0259	-0.0631	27.82	1.82	-1.500			
0.9334	59738.57	3.0230	3.0230	-0.0627	27.82	1.82	-1.500			
0.9336	59750.53	3.0200	3.0202	-0.0622	27.82	1.82	-1.500			
0.9338	59762.44	3.0170	3.0169	-0.0618	27.82	1.82	-1.500			
0.9340	59774.20	3.0140	3.0141	-0.0620	27.83	1.83	-1.500			
0.9342	59785.94	3.0110	3.0111	-0.0619	27.83	1.83	-1.500			
0.9343	59797.84	3.0080	3.0080	-0.0620	27.83	1.83	-1.500			
0.9345	59809.76	3.0050	3.0050	-0.0622	27.83	1.83	-1.500			
0.9347	59821.77	3.0020	3.0019	-0.0643	27.84	1.84	-1.500			
