Ah_balance (normalized)	Ah_balance (mAh)	Voltage - fit (V)	Voltage -  interpolate (V)	dQ/dV (1/V)	Temperature (°C)	Temperature - diff (°C)	Current (C)	R_DC 0ms (mOhm)	R_DC 50ms (mOhm)	R_DC 50 ms PEC (mOhm)
0.2773	17749.15	3.9850	3.9850	0.8320	26.99	1.00	1.500			
0.2798	17910.27	3.9820	3.9820	0.8431	26.99	1.00	1.500			
0.2824	18073.73	3.9790	3.9790	0.8509	26.98	0.99	1.500			
0.2850	18238.41	3.9760	3.9760	0.8542	26.98	0.99	1.500			
0.2876	18404.06	3.9730	3.9730	0.8580	26.98	0.99	1.500			
0.2901	18568.84	3.9700	3.9700	0.8611	26.97	0.98	1.500			
0.2927	18733.44	3.9670	3.9671	0.8636	26.97	0.98	1.500			
0.2953	18899.25	3.9640	3.9640	0.8655	26.96	0.97	1.500			
0.2979	19065.08	3.9610	3.9610	0.8700	26.96	0.97	1.500			
0.3005	19232.77	3.9580	3.9580	0.8719	26.95	0.96	1.500			
0.3031	19400.09	3.9550	3.9549	0.8771	26.95	0.96	1.500			
0.3058	19568.72	3.9520	3.9521	0.8817	26.95	0.96	1.500			
0.3084	19738.49	3.9490	3.9489	0.8848	26.95	0.96	1.500			
0.3111	19909.04	3.9460	3.9460	0.8872	26.94	0.95	1.500			
0.3138	20080.37	3.9430	3.9429	0.8917	26.94	0.95	1.500			
0.3164	20251.04	3.9400	3.9401	0.8938	26.94	0.95	1.500			
0.3191	20424.24	3.9370	3.9369	0.8943	26.94	0.95	1.500			
0.3218	20593.86	3.9340	3.9340	0.8999	26.94	0.95	1.500			
0.3245	20767.16	3.9310	3.9310	0.9075	26.93	0.94	1.500			
0.3272	20942.29	3.9280	3.9279	0.9111	26.93	0.94	1.500			
0.3300	21117.55	3.9250	3.9251	0.9166	26.93	0.94	1.500			
0.3327	21293.59	3.9220	3.9220	0.9216	26.92	0.93	1.500			
0.3355	21471.05	3.9190	3.9190	0.9300	26.92	0.93	1.500			
0.3383	21650.17	3.9160	3.9160	0.9344	26.91	0.92	1.500			
0.3411	21829.36	3.9130	3.9130	0.9404	26.90	0.91	1.500			
0.3439	22012.70	3.9100	3.9100	0.9467	26.90	0.91	1.500			
0.3468	22195.07	3.9070	3.9070	0.9553	26.89	0.90	1.500			
0.3497	22378.24	3.9040	3.9040	0.9591	26.89	0.90	1.500			
0.3525	22562.53	3.9010	3.9009	0.9667	26.88	0.89	1.500			
0.3554	22747.85	3.8980	3.8980	0.9705	26.87	0.88	1.500			
0.3584	22934.75	3.8950	3.8951	0.9833	26.87	0.88	1.500			
0.3613	23125.53	3.8920	3.8920	0.9925	26.86	0.87	1.500			
0.3643	23316.92	3.8890	3.8890	1.0007	26.85	0.86	1.500			
0.3674	23510.98	3.8860	3.8860	1.0049	26.85	0.86	1.500			
0.3704	23705.19	3.8830	3.8830	1.0139	26.84	0.85	1.500			
0.3734	23899.11	3.8800	3.8800	1.0240	26.83	0.84	1.500			
0.3765	24096.03	3.8770	3.8770	1.0333	26.82	0.83	1.500			
0.3796	24293.33	3.8740	3.8740	1.0470	26.82	0.83	1.500			
0.3827	24495.79	3.8710	3.8710	1.0654	26.81	0.82	1.500			
0.3860	24703.22	3.8680	3.8680	1.0733	26.81	0.82	1.500			
0.3893	24912.86	3.8650	3.8650	1.0893	26.80	0.81	1.500			
0.3925	25122.63	3.8620	3.8621	1.0959	26.80	0.81	1.500			
0.3958	25331.94	3.8590	3.8590	1.1068	26.79	0.80	1.500			
0.3991	25545.15	3.8560	3.8560	1.1176	26.79	0.80	1.500			
0.4025	25759.12	3.8530	3.8529	1.1354	26.78	0.79	1.500			
0.4059	25978.10	3.8500	3.8500	1.1566	26.77	0.78	1.500			
0.4094	26203.75	3.8470	3.8470	1.1831	26.77	0.78	1.500			
0.4130	26433.11	3.8440	3.8440	1.2004	26.76	0.77	1.500			
0.4167	26666.41	3.8410	3.8410	1.2134	26.75	0.76	1.500			
0.4203	26900.66	3.8380	3.8381	1.2329	26.74	0.75	1.500			
0.4240	27137.74	3.8350	3.8351	1.2560	26.73	0.74	1.500			
0.4278	27379.82	3.8320	3.8318	1.2737	26.72	0.73	1.500			
0.4316	27625.14	3.8290	3.8290	1.2976	26.71	0.72	1.500			
0.4356	27877.15	3.8260	3.8260	1.3228	26.70	0.71	1.500			
0.4396	28136.20	3.8230	3.8231	1.3537	26.69	0.70	1.500			
0.4437	28398.90	3.8200	3.8200	1.3792	26.68	0.69	1.500			
0.4479	28663.41	3.8170	3.8170	1.4012	26.66	0.67	1.500			
0.4521	28935.05	3.8140	3.8139	1.4302	26.65	0.66	1.500			
0.4564	29212.51	3.8110	3.8110	1.4616	26.64	0.65	1.500			
0.4609	29494.80	3.8080	3.8080	1.4906	26.63	0.64	1.500			
0.4654	29785.33	3.8050	3.8050	1.5258	26.62	0.63	1.500			
0.4700	30080.73	3.8020	3.8020	1.5529	26.60	0.61	1.500			
0.4747	30382.67	3.7990	3.7990	1.5909	26.59	0.60	1.500			
0.4795	30690.84	3.7960	3.7961	1.6184	26.58	0.59	1.500			
0.4844	31004.54	3.7930	3.7930	1.6514	26.56	0.57	1.500			
0.4894	31323.60	3.7900	3.7901	1.6830	26.54	0.55	1.500			
0.4945	31649.89	3.7870	3.7870	1.7139	26.53	0.54	1.500			
0.4998	31984.92	3.7840	3.7840	1.7406	26.51	0.52	1.500			
0.5050	32319.25	3.7810	3.7811	1.7551	26.49	0.50	1.500			
0.5103	32659.72	3.7780	3.7780	1.7771	26.48	0.49	1.500			
0.5156	32999.29	3.7750	3.7750	1.8056	26.47	0.48	1.500			
0.5211	33348.33	3.7720	3.7721	1.8411	26.45	0.46	1.500	0.344	0.459	
0.5266	33705.40	3.7690	3.7690	1.8507	26.43	0.44	1.500			
0.5323	34065.07	3.7660	3.7661	1.8616	26.42	0.43	1.500			
0.5380	34428.83	3.7630	3.7630	1.8528	26.40	0.41	1.500			
0.5434	34778.03	3.7600	3.7600	1.8265	26.39	0.40	1.500			
0.5488	35122.28	3.7570	3.7571	1.8166	26.37	0.38	1.500			
0.5542	35471.76	3.7540	3.7539	1.8201	26.36	0.37	1.500			
0.5597	35819.59	3.7510	3.7510	1.8241	26.34	0.35	1.500			
0.5652	36169.98	3.7480	3.7480	1.8311	26.33	0.34	1.500			
0.5707	36525.87	3.7450	3.7450	1.8588	26.32	0.33	1.500			
0.5763	36882.13	3.7420	3.7420	1.8730	26.30	0.31	1.500			
0.5819	37241.53	3.7390	3.7391	1.8921	26.29	0.30	1.500			
0.5876	37609.14	3.7360	3.7360	1.9221	26.28	0.29	1.500			
0.5934	37977.25	3.7330	3.7330	1.9644	26.26	0.27	1.500			
0.5993	38358.26	3.7300	3.7300	2.0186	26.25	0.26	1.500			
0.6056	38757.09	3.7270	3.7270	2.0666	26.23	0.24	1.500			
0.6119	39158.53	3.7240	3.7240	2.0989	26.22	0.23	1.500			
0.6181	39560.36	3.7210	3.7211	2.1640	26.20	0.21	1.500			
0.6246	39977.60	3.7180	3.7179	2.2317	26.19	0.20	1.500			
0.6315	40415.07	3.7150	3.7150	2.3201	26.17	0.18	1.500			
0.6387	40876.39	3.7120	3.7120	2.3906	26.15	0.16	1.500			
0.6459	41338.79	3.7090	3.7090	2.4199	26.14	0.15	1.500			
0.6532	41806.54	3.7060	3.7059	2.4499	26.12	0.13	1.500			
0.6606	42277.84	3.7030	3.7030	2.4757	26.11	0.12	1.500			
0.6682	42761.99	3.7000	3.6999	2.4089	26.10	0.11	1.500			
0.6753	43219.25	3.6970	3.6970	2.3100	26.08	0.09	1.500			
0.6821	43651.90	3.6940	3.6940	2.1628	26.08	0.09	1.500			
0.6883	44052.99	3.6910	3.6910	1.9972	26.07	0.08	1.500			
0.6940	44417.69	3.6880	3.6880	1.8549	26.07	0.08	1.500			
0.6993	44754.09	3.6850	3.6850	1.7148	26.06	0.07	1.500			
0.7042	45070.98	3.6820	3.6820	1.6035	26.06	0.07	1.500			
0.7089	45368.56	3.6790	3.6790	1.5155	26.05	0.06	1.500			
0.7133	45648.15	3.6760	3.6761	1.4295	26.04	0.05	1.500			
0.7173	45906.96	3.6730	3.6730	1.3634	26.04	0.05	1.500			
0.7212	46159.98	3.6700	3.6700	1.3207	26.03	0.04	1.500			
0.7251	46407.31	3.6670	3.6670	1.2882	26.02	0.03	1.500			
0.7289	46650.48	3.6640	3.6638	1.2673	26.02	0.03	1.500			
0.7327	46890.83	3.6610	3.6611	1.2610	26.01	0.02	1.500			
0.7364	47130.66	3.6580	3.6581	1.2608	26.01	0.02	1.500			
0.7402	47374.24	3.6550	3.6550	1.2582	26.00	0.01	1.500			
0.7440	47612.93	3.6520	3.6519	1.2539	25.99	0.00	1.500			
0.7477	47853.61	3.6490	3.6491	1.2665	25.99	-0.00	1.500			
0.7515	48099.13	3.6460	3.6460	1.2775	25.98	-0.01	1.500			
0.7554	48345.90	3.6430	3.6430	1.2781	25.98	-0.01	1.500			
0.7592	48591.22	3.6400	3.6400	1.2784	25.97	-0.02	1.500			
0.7631	48839.32	3.6370	3.6371	1.2771	25.96	-0.03	1.500			
0.7670	49086.14	3.6340	3.6339	1.2805	25.96	-0.03	1.500			
0.7708	49328.30	3.6310	3.6310	1.2812	25.95	-0.04	1.500			
0.7746	49574.15	3.6280	3.6280	1.2777	25.95	-0.04	1.500			
0.7785	49822.19	3.6250	3.6249	1.2781	25.94	-0.05	1.500			
0.7823	50068.13	3.6220	3.6221	1.2761	25.94	-0.05	1.500			
0.7861	50313.09	3.6190	3.6190	1.2730	25.93	-0.06	1.500			
0.7900	50558.38	3.6160	3.6160	1.2642	25.93	-0.06	1.500			
0.7937	50798.62	3.6130	3.6129	1.2494	25.93	-0.06	1.500			
0.7974	51036.26	3.6100	3.6101	1.2443	25.92	-0.07	1.500			
0.8012	51277.90	3.6070	3.6070	1.2403	25.92	-0.07	1.500			
0.8049	51515.88	3.6040	3.6039	1.2218	25.92	-0.07	1.500			
0.8086	51748.43	3.6010	3.6010	1.2070	25.92	-0.07	1.500			
0.8122	51978.93	3.5980	3.5981	1.1906	25.92	-0.07	1.500			
0.8158	52208.81	3.5950	3.5949	1.1733	25.93	-0.06	1.500			
0.8192	52430.48	3.5920	3.5919	1.1498	25.93	-0.06	1.500			
0.8226	52648.30	3.5890	3.5891	1.1297	25.93	-0.06	1.500			
0.8260	52866.51	3.5860	3.5860	1.1109	25.93	-0.06	1.500			
0.8294	53081.55	3.5830	3.5830	1.0659	25.93	-0.06	1.500			
0.8326	53285.40	3.5800	3.5801	1.0059	25.94	-0.05	1.500			
0.8356	53481.05	3.5770	3.5770	0.9231	25.95	-0.04	1.500			
0.8383	53653.27	3.5740	3.5740	0.8221	25.95	-0.04	1.500			
0.8407	53803.70	3.5710	3.5710	0.7107	25.96	-0.03	1.500			
0.8426	53927.42	3.5680	3.5680	0.5962	25.96	-0.03	1.500			
0.8442	54025.92	3.5650	3.5650	0.4981	25.97	-0.02	1.500			
0.8454	54108.17	3.5620	3.5618	0.4157	25.97	-0.02	1.500			
0.8465	54173.50	3.5590	3.5590	0.3482	25.97	-0.02	1.500			
0.8474	54231.61	3.5560	3.5559	0.3008	25.98	-0.01	1.500			
0.8482	54281.87	3.5530	3.5529	0.2573	25.98	-0.01	1.500			
0.8489	54327.06	3.5500	3.5500	0.2305	25.98	-0.01	1.500			
0.8495	54366.44	3.5470	3.5470	0.2050	25.98	-0.01	1.500			
0.8500	54402.34	3.5440	3.5441	0.1852	25.98	-0.01	1.500			
0.8506	54435.65	3.5410	3.5410	0.1667	25.98	-0.01	1.500			
0.8510	54465.40	3.5380	3.5381	0.1517	25.98	-0.01	1.500			
0.8514	54492.56	3.5350	3.5349	0.1361	25.99	-0.00	1.500			
0.8518	54517.17	3.5320	3.5320	0.1213	25.99	-0.00	1.500			
0.8522	54539.14	3.5290	3.5290	0.1076	25.99	-0.00	1.500			
0.8525	54558.34	3.5260	3.5261	0.0937	25.99	-0.00	1.500			
0.8527	54575.81	3.5230	3.5231	0.0806	25.99	-0.00	1.500			
0.8530	54589.86	3.5200	3.5204	0.0658	25.99	-0.00	1.500			
0.8531	54601.20	3.5170	3.5175	0.0506	25.99	0.00	1.500			
0.8533	54609.46	3.5140	3.5148	0.0354	25.99	0.00	1.500			
