Ah_balance (normalized)	Ah_balance (mAh)	Voltage - fit (V)	Voltage -  interpolate (V)	dQ/dV (1/V)	Temperature (°C)	Temperature - diff (°C)	Current (C)	R_DC 0ms (mOhm)	R_DC 50ms (mOhm)	R_DC 50 ms PEC (mOhm)
0.2055	13149.55	3.9100	3.9099	-0.1390	25.72	-0.00	-1.500			
0.2059	13179.61	3.9070	3.9069	-0.1735	25.72	-0.00	-1.500			
0.2065	13216.80	3.9040	3.9040	-0.2055	25.72	-0.00	-1.500			
0.2072	13259.60	3.9010	3.9010	-0.2361	25.72	-0.00	-1.500			
0.2079	13307.78	3.8980	3.8980	-0.2671	25.72	-0.00	-1.500			
0.2088	13361.85	3.8950	3.8950	-0.3000	25.72	-0.00	-1.500			
0.2097	13422.30	3.8920	3.8921	-0.3310	25.72	-0.00	-1.500			
0.2108	13488.90	3.8890	3.8890	-0.3619	25.72	-0.00	-1.500			
0.2119	13562.11	3.8860	3.8860	-0.3914	25.71	-0.01	-1.500			
0.2131	13640.63	3.8830	3.8831	-0.4216	25.71	-0.01	-1.500			
0.2144	13724.20	3.8800	3.8801	-0.4517	25.71	-0.01	-1.500			
0.2158	13813.33	3.8770	3.8769	-0.4801	25.71	-0.01	-1.500			
0.2173	13907.43	3.8740	3.8740	-0.5082	25.71	-0.01	-1.500			
0.2189	14008.77	3.8710	3.8710	-0.5365	25.71	-0.01	-1.500			
0.2206	14116.03	3.8680	3.8680	-0.5620	25.71	-0.01	-1.500			
0.2223	14226.30	3.8650	3.8650	-0.5875	25.71	-0.01	-1.500			
0.2241	14341.28	3.8620	3.8620	-0.6106	25.71	-0.01	-1.500			
0.2259	14460.36	3.8590	3.8589	-0.6338	25.70	-0.02	-1.500			
0.2279	14584.72	3.8560	3.8560	-0.6558	25.70	-0.02	-1.500			
0.2299	14713.23	3.8530	3.8531	-0.6755	25.70	-0.02	-1.500			
0.2320	14845.83	3.8500	3.8499	-0.6942	25.70	-0.02	-1.500			
0.2341	14982.47	3.8470	3.8470	-0.7112	25.70	-0.02	-1.500			
0.2363	15120.58	3.8440	3.8440	-0.7182	25.70	-0.02	-1.500			
0.2384	15259.30	3.8410	3.8411	-0.7282	25.70	-0.02	-1.500			
0.2406	15399.92	3.8380	3.8380	-0.7390	25.70	-0.02	-1.500			
0.2429	15542.68	3.8350	3.8350	-0.7498	25.70	-0.02	-1.500			
0.2451	15687.49	3.8320	3.8319	-0.7565	25.71	-0.01	-1.500			
0.2474	15834.18	3.8290	3.8289	-0.7598	25.71	-0.01	-1.500			
0.2497	15982.60	3.8260	3.8261	-0.7641	25.71	-0.01	-1.500			
0.2520	16129.78	3.8230	3.8230	-0.7672	25.71	-0.01	-1.500			
0.2543	16275.90	3.8200	3.8201	-0.7683	25.71	-0.01	-1.500			
0.2566	16422.50	3.8170	3.8169	-0.7744	25.71	-0.01	-1.500			
0.2589	16571.28	3.8140	3.8140	-0.7786	25.71	-0.01	-1.500			
0.2613	16722.11	3.8110	3.8110	-0.7878	25.72	-0.00	-1.500			
0.2637	16875.44	3.8080	3.8080	-0.7970	25.72	-0.00	-1.500			
0.2661	17029.75	3.8050	3.8051	-0.7953	25.72	0.00	-1.500			
0.2685	17181.92	3.8020	3.8019	-0.7976	25.73	0.01	-1.500			
0.2709	17336.07	3.7990	3.7990	-0.7952	25.73	0.01	-1.500			
0.2732	17486.36	3.7960	3.7961	-0.7969	25.73	0.01	-1.500			
0.2756	17640.18	3.7930	3.7930	-0.7998	25.73	0.01	-1.500			
0.2780	17794.48	3.7900	3.7900	-0.8005	25.74	0.02	-1.500			
0.2804	17948.62	3.7870	3.7870	-0.8045	25.74	0.02	-1.500			
0.2829	18104.35	3.7840	3.7840	-0.8101	25.74	0.02	-1.500			
0.2853	18259.14	3.7810	3.7810	-0.8086	25.75	0.03	-1.500			
0.2877	18415.62	3.7780	3.7780	-0.8115	25.75	0.03	-1.500			
0.2902	18570.70	3.7750	3.7750	-0.8068	25.76	0.04	-1.500			
0.2926	18726.65	3.7720	3.7720	-0.8042	25.76	0.04	-1.500			
0.2950	18879.55	3.7690	3.7690	-0.8051	25.76	0.04	-1.500			
0.2974	19033.56	3.7660	3.7660	-0.8042	25.77	0.05	-1.500			
0.2998	19188.43	3.7630	3.7628	-0.8064	25.77	0.05	-1.500			
0.3022	19343.93	3.7600	3.7600	-0.8044	25.77	0.05	-1.500			
0.3047	19498.28	3.7570	3.7571	-0.8041	25.78	0.06	-1.500			
0.3071	19653.17	3.7540	3.7539	-0.8069	25.78	0.06	-1.500			
0.3095	19807.35	3.7510	3.7510	-0.8079	25.79	0.07	-1.500			
0.3119	19959.77	3.7480	3.7480	-0.8059	25.80	0.08	-1.500			
0.3143	20116.44	3.7450	3.7449	-0.8079	25.80	0.08	-1.500			
0.3168	20273.01	3.7420	3.7421	-0.8088	25.81	0.09	-1.500			
0.3192	20428.27	3.7390	3.7391	-0.8111	25.82	0.10	-1.500			
0.3216	20584.08	3.7360	3.7360	-0.8087	25.83	0.11	-1.500			
0.3240	20738.49	3.7330	3.7329	-0.8104	25.83	0.11	-1.500			
0.3264	20891.91	3.7300	3.7300	-0.8105	25.84	0.12	-1.500			
0.3289	21049.42	3.7270	3.7270	-0.8119	25.85	0.13	-1.500			
0.3314	21207.08	3.7240	3.7239	-0.8185	25.85	0.13	-1.500			
0.3338	21364.22	3.7210	3.7211	-0.8144	25.86	0.14	-1.500			
0.3362	21519.74	3.7180	3.7180	-0.8115	25.87	0.15	-1.500			
0.3387	21673.93	3.7150	3.7150	-0.8145	25.87	0.15	-1.500			
0.3411	21831.03	3.7120	3.7120	-0.8180	25.88	0.16	-1.500			
0.3435	21986.69	3.7090	3.7090	-0.8220	25.89	0.17	-1.500			
0.3460	22145.96	3.7060	3.7060	-0.8310	25.89	0.17	-1.500			
0.3485	22305.71	3.7030	3.7031	-0.8370	25.90	0.18	-1.500			
0.3511	22468.08	3.7000	3.7000	-0.8452	25.91	0.19	-1.500			
0.3536	22630.24	3.6970	3.6970	-0.8521	25.91	0.19	-1.500			
0.3562	22794.88	3.6940	3.6940	-0.8551	25.92	0.20	-1.500			
0.3587	22959.98	3.6910	3.6909	-0.8630	25.93	0.21	-1.500			
0.3613	23124.79	3.6880	3.6881	-0.8733	25.93	0.21	-1.500			
0.3640	23293.79	3.6850	3.6850	-0.8843	25.94	0.22	-1.500			
0.3666	23463.86	3.6820	3.6819	-0.8965	25.95	0.23	-1.500			
0.3693	23637.22	3.6790	3.6791	-0.9095	25.95	0.23	-1.500			
0.3721	23812.51	3.6760	3.6760	-0.9312	25.96	0.24	-1.500			
0.3749	23994.52	3.6730	3.6729	-0.9481	25.97	0.25	-1.500			
0.3778	24178.84	3.6700	3.6699	-0.9611	25.97	0.25	-1.500			
0.3807	24364.25	3.6670	3.6673	-0.9742	25.98	0.26	-1.500			
0.3837	24553.83	3.6640	3.6640	-0.9913	25.98	0.26	-1.500			
0.3866	24743.86	3.6610	3.6610	-1.0069	25.99	0.27	-1.500			
0.3896	24935.43	3.6580	3.6580	-1.0251	25.99	0.27	-1.500			
0.3928	25136.05	3.6550	3.6550	-1.0512	25.99	0.27	-1.500			
0.3959	25339.11	3.6520	3.6519	-1.0720	26.00	0.28	-1.500			
0.3992	25547.38	3.6490	3.6491	-1.0984	26.00	0.28	-1.500			
0.4025	25760.16	3.6460	3.6461	-1.1246	26.01	0.29	-1.500			
0.4059	25978.96	3.6430	3.6429	-1.1483	26.01	0.29	-1.500			
0.4094	26202.40	3.6400	3.6400	-1.1721	26.01	0.29	-1.500			
0.4129	26428.24	3.6370	3.6370	-1.1959	26.02	0.30	-1.500			
0.4166	26660.24	3.6340	3.6341	-1.2258	26.02	0.30	-1.500			
0.4203	26898.53	3.6310	3.6309	-1.2519	26.02	0.30	-1.500			
0.4241	27140.77	3.6280	3.6280	-1.2797	26.02	0.30	-1.500			
0.4280	27388.95	3.6250	3.6250	-1.3035	26.03	0.31	-1.500			
0.4319	27642.47	3.6220	3.6221	-1.3330	26.03	0.31	-1.500			
0.4359	27900.48	3.6190	3.6190	-1.3633	26.03	0.31	-1.500			
0.4400	28161.78	3.6160	3.6160	-1.4046	26.03	0.31	-1.500			
0.4443	28437.36	3.6130	3.6130	-1.4214	26.04	0.32	-1.500			
0.4487	28714.74	3.6100	3.6100	-1.4476	26.04	0.32	-1.500			
0.4531	28996.18	3.6070	3.6071	-1.4764	26.04	0.32	-1.500			
0.4575	29282.46	3.6040	3.6038	-1.5037	26.04	0.32	-1.500			
0.4620	29569.13	3.6010	3.6009	-1.5465	26.04	0.32	-1.500			
0.4667	29870.73	3.5980	3.5979	-1.5745	26.04	0.32	-1.500			
0.4715	30177.88	3.5950	3.5949	-1.5920	26.04	0.32	-1.500			
0.4764	30492.64	3.5920	3.5923	-1.6281	26.04	0.32	-1.500			
0.4813	30806.10	3.5890	3.5891	-1.6557	26.04	0.32	-1.500			
0.4863	31124.26	3.5860	3.5859	-1.6780	26.04	0.32	-1.500			
0.4914	31446.83	3.5830	3.5829	-1.6992	26.04	0.32	-1.500			
0.4965	31773.99	3.5800	3.5800	-1.7228	26.05	0.33	-1.500			
0.5018	32115.80	3.5770	3.5770	-1.7670	26.05	0.33	-1.500			
0.5071	32457.02	3.5740	3.5741	-1.7950	26.05	0.33	-1.500			
0.5125	32799.28	3.5710	3.5709	-1.8271	26.05	0.33	-1.500			
0.5180	33154.18	3.5680	3.5680	-1.8443	26.06	0.34	-1.500			
0.5236	33510.02	3.5650	3.5649	-1.8648	26.06	0.34	-1.500			
0.5293	33876.46	3.5620	3.5622	-1.9024	26.06	0.34	-1.500			
0.5350	34241.28	3.5590	3.5589	-1.9147	26.06	0.34	-1.500			
0.5408	34608.87	3.5560	3.5559	-1.9275	26.06	0.34	-1.500			
0.5465	34978.01	3.5530	3.5531	-1.9406	26.07	0.35	-1.500			
0.5524	35355.56	3.5500	3.5500	-1.9735	26.07	0.35	-1.500			
0.5584	35735.94	3.5470	3.5470	-1.9913	26.07	0.35	-1.500			
0.5643	36118.29	3.5440	3.5442	-2.0061	26.07	0.35	-1.500	0.387	0.503	
0.5704	36508.53	3.5410	3.5410	-2.0185	26.08	0.36	-1.500			
0.5765	36899.19	3.5380	3.5380	-2.0290	26.08	0.36	-1.500			
0.5827	37292.64	3.5350	3.5350	-2.0278	26.08	0.36	-1.500			
0.5888	37680.95	3.5320	3.5319	-2.0162	26.09	0.37	-1.500			
0.5948	38069.58	3.5290	3.5290	-1.9954	26.09	0.37	-1.500			
0.6008	38449.56	3.5260	3.5260	-1.9716	26.10	0.38	-1.500			
0.6067	38827.28	3.5230	3.5231	-1.9567	26.10	0.38	-1.500			
0.6125	39198.67	3.5200	3.5200	-1.9428	26.11	0.39	-1.500			
0.6183	39569.45	3.5170	3.5169	-1.9276	26.12	0.40	-1.500			
0.6240	39937.40	3.5140	3.5140	-1.9065	26.13	0.41	-1.500			
0.6298	40307.91	3.5110	3.5112	-1.9100	26.14	0.42	-1.500			
0.6355	40673.09	3.5080	3.5079	-1.8892	26.14	0.42	-1.500			
0.6412	41036.36	3.5050	3.5050	-1.8856	26.15	0.43	-1.500			
0.6468	41396.89	3.5020	3.5020	-1.8701	26.15	0.43	-1.500			
0.6525	41758.53	3.4990	3.4989	-1.8586	26.16	0.44	-1.500			
0.6580	42111.67	3.4960	3.4961	-1.8419	26.16	0.44	-1.500			
0.6635	42462.12	3.4930	3.4930	-1.8359	26.17	0.45	-1.500			
0.6689	42810.83	3.4900	3.4900	-1.8169	26.18	0.46	-1.500			
0.6743	43157.35	3.4870	3.4869	-1.7933	26.19	0.47	-1.500			
0.6798	43506.68	3.4840	3.4841	-1.7863	26.20	0.48	-1.500			
0.6851	43848.48	3.4810	3.4810	-1.7718	26.21	0.49	-1.500			
0.6904	44187.66	3.4780	3.4781	-1.7549	26.23	0.51	-1.500			
0.6956	44521.43	3.4750	3.4749	-1.7224	26.24	0.52	-1.500			
0.7008	44850.15	3.4720	3.4719	-1.7008	26.26	0.54	-1.500			
0.7059	45176.62	3.4690	3.4692	-1.6785	26.27	0.55	-1.500			
0.7109	45496.94	3.4660	3.4659	-1.6571	26.29	0.57	-1.500			
0.7158	45813.94	3.4630	3.4630	-1.6335	26.30	0.58	-1.500			
0.7207	46123.93	3.4600	3.4600	-1.6042	26.31	0.59	-1.500			
0.7255	46430.52	3.4570	3.4570	-1.5836	26.33	0.61	-1.500			
0.7302	46732.88	3.4540	3.4541	-1.5512	26.34	0.62	-1.500			
0.7348	47024.98	3.4510	3.4510	-1.5332	26.35	0.63	-1.500			
0.7393	47316.17	3.4480	3.4480	-1.5151	26.37	0.65	-1.500			
0.7438	47605.25	3.4450	3.4449	-1.4996	26.38	0.66	-1.500			
0.7483	47893.44	3.4420	3.4420	-1.4839	26.40	0.68	-1.500			
0.7528	48178.76	3.4390	3.4390	-1.4720	26.41	0.69	-1.500			
0.7572	48459.82	3.4360	3.4361	-1.4548	26.43	0.71	-1.500			
0.7615	48736.66	3.4330	3.4329	-1.4482	26.45	0.73	-1.500			
0.7658	49009.72	3.4300	3.4300	-1.4358	26.47	0.75	-1.500			
0.7700	49282.46	3.4270	3.4270	-1.4295	26.49	0.77	-1.500			
0.7744	49560.29	3.4240	3.4239	-1.4324	26.51	0.79	-1.500			
0.7787	49837.66	3.4210	3.4210	-1.4278	26.52	0.80	-1.500			
0.7830	50111.56	3.4180	3.4181	-1.4123	26.53	0.81	-1.500			
0.7873	50384.71	3.4150	3.4149	-1.3899	26.55	0.83	-1.500			
0.7914	50649.26	3.4120	3.4120	-1.3578	26.57	0.85	-1.500			
0.7955	50908.89	3.4090	3.4090	-1.3241	26.59	0.87	-1.500			
0.7994	51159.93	3.4060	3.4060	-1.2816	26.61	0.89	-1.500			
0.8032	51403.68	3.4030	3.4030	-1.2384	26.62	0.90	-1.500			
0.8068	51636.52	3.4000	3.4000	-1.1907	26.63	0.91	-1.500			
0.8103	51860.61	3.3970	3.3970	-1.1488	26.65	0.93	-1.500			
0.8137	52077.75	3.3940	3.3940	-1.1004	26.67	0.95	-1.500			
0.8169	52283.69	3.3910	3.3910	-1.0527	26.69	0.97	-1.500			
0.8200	52481.31	3.3880	3.3880	-1.0143	26.70	0.98	-1.500			
0.8230	52671.61	3.3850	3.3852	-0.9716	26.72	1.00	-1.500			
0.8258	52853.89	3.3820	3.3820	-0.9288	26.73	1.01	-1.500			
0.8286	53027.63	3.3790	3.3789	-0.8881	26.74	1.02	-1.500			
0.8311	53193.07	3.3760	3.3762	-0.8515	26.74	1.02	-1.500			
0.8336	53352.37	3.3730	3.3730	-0.8261	26.76	1.04	-1.500			
0.8360	53506.79	3.3700	3.3700	-0.7938	26.77	1.05	-1.500			
0.8384	53655.16	3.3670	3.3669	-0.7630	26.78	1.06	-1.500			
0.8406	53800.70	3.3640	3.3640	-0.7413	26.79	1.07	-1.500			
0.8428	53941.73	3.3610	3.3611	-0.7170	26.80	1.08	-1.500			
0.8450	54077.15	3.3580	3.3580	-0.6896	26.81	1.09	-1.500			
0.8470	54206.20	3.3550	3.3550	-0.6612	26.82	1.10	-1.500			
0.8489	54329.57	3.3520	3.3520	-0.6379	26.83	1.11	-1.500			
0.8508	54449.81	3.3490	3.3491	-0.6190	26.84	1.12	-1.500			
0.8526	54565.74	3.3460	3.3459	-0.5997	26.85	1.13	-1.500			
0.8544	54679.02	3.3430	3.3430	-0.5808	26.86	1.14	-1.500			
0.8561	54788.59	3.3400	3.3401	-0.5651	26.86	1.14	-1.500			
0.8577	54895.63	3.3370	3.3369	-0.5487	26.87	1.15	-1.500			
0.8594	54999.83	3.3340	3.3340	-0.5312	26.88	1.16	-1.500			
0.8609	55100.50	3.3310	3.3309	-0.5135	26.89	1.17	-1.500			
0.8624	55196.45	3.3280	3.3280	-0.4963	26.89	1.17	-1.500			
0.8639	55290.45	3.3250	3.3251	-0.4787	26.90	1.18	-1.500			
0.8653	55380.66	3.3220	3.3220	-0.4639	26.91	1.19	-1.500			
0.8667	55467.43	3.3190	3.3190	-0.4470	26.91	1.19	-1.500			
0.8680	55551.86	3.3160	3.3160	-0.4352	26.92	1.20	-1.500			
0.8693	55634.05	3.3130	3.3130	-0.4228	26.92	1.20	-1.500			
0.8705	55714.07	3.3100	3.3100	-0.4103	26.93	1.21	-1.500			
0.8717	55791.98	3.3070	3.3069	-0.3952	26.94	1.22	-1.500			
0.8729	55867.01	3.3040	3.3041	-0.3836	26.94	1.22	-1.500			
0.8740	55938.65	3.3010	3.3010	-0.3697	26.95	1.23	-1.500			
0.8751	56008.47	3.2980	3.2980	-0.3573	26.95	1.23	-1.500			
0.8762	56074.94	3.2950	3.2949	-0.3432	26.96	1.24	-1.500			
0.8772	56139.44	3.2920	3.2921	-0.3343	26.96	1.24	-1.500			
0.8782	56202.93	3.2890	3.2890	-0.3244	26.97	1.25	-1.500			
0.8791	56264.48	3.2860	3.2860	-0.3156	26.97	1.25	-1.500			
0.8801	56324.01	3.2830	3.2831	-0.3064	26.98	1.26	-1.500			
0.8810	56381.53	3.2800	3.2801	-0.2970	26.98	1.26	-1.500			
0.8818	56438.04	3.2770	3.2769	-0.2887	26.99	1.27	-1.500			
0.8827	56492.64	3.2740	3.2740	-0.2792	26.99	1.27	-1.500			
0.8835	56544.96	3.2710	3.2711	-0.2696	27.00	1.28	-1.500			
0.8843	56596.42	3.2680	3.2679	-0.2618	27.00	1.28	-1.500			
0.8851	56645.08	3.2650	3.2650	-0.2537	27.01	1.29	-1.500			
0.8858	56692.42	3.2620	3.2619	-0.2456	27.01	1.29	-1.500			
0.8865	56738.82	3.2590	3.2590	-0.2393	27.02	1.30	-1.500			
0.8873	56784.41	3.2560	3.2559	-0.2325	27.02	1.30	-1.500			
0.8879	56828.17	3.2530	3.2531	-0.2273	27.02	1.30	-1.500			
0.8886	56871.43	3.2500	3.2500	-0.2221	27.03	1.31	-1.500			
0.8893	56913.37	3.2470	3.2469	-0.2162	27.03	1.31	-1.500			
0.8899	56954.24	3.2440	3.2440	-0.2119	27.03	1.31	-1.500			
0.8905	56994.27	3.2410	3.2411	-0.2063	27.04	1.32	-1.500			
0.8912	57033.63	3.2380	3.2380	-0.2018	27.04	1.32	-1.500			
0.8917	57071.92	3.2350	3.2350	-0.1969	27.05	1.33	-1.500			
0.8923	57109.54	3.2320	3.2321	-0.1926	27.05	1.33	-1.500			
0.8929	57145.45	3.2290	3.2290	-0.1883	27.05	1.33	-1.500			
0.8935	57181.41	3.2260	3.2259	-0.1840	27.06	1.34	-1.500			
0.8940	57216.35	3.2230	3.2230	-0.1799	27.06	1.34	-1.500			
0.8945	57250.24	3.2200	3.2200	-0.1760	27.06	1.34	-1.500			
0.8951	57283.81	3.2170	3.2171	-0.1731	27.06	1.34	-1.500			
0.8956	57316.44	3.2140	3.2140	-0.1699	27.07	1.35	-1.500			
0.8961	57348.69	3.2110	3.2109	-0.1674	27.07	1.35	-1.500			
0.8966	57380.34	3.2080	3.2080	-0.1646	27.07	1.35	-1.500			
0.8971	57411.70	3.2050	3.2050	-0.1610	27.08	1.36	-1.500			
0.8975	57442.78	3.2020	3.2019	-0.1588	27.08	1.36	-1.500			
0.8980	57472.75	3.1990	3.1991	-0.1559	27.08	1.36	-1.500			
0.8985	57502.36	3.1960	3.1961	-0.1528	27.09	1.37	-1.500			
0.8989	57531.09	3.1930	3.1929	-0.1508	27.09	1.37	-1.500			
0.8994	57559.81	3.1900	3.1899	-0.1477	27.09	1.37	-1.500			
0.8998	57587.89	3.1870	3.1870	-0.1455	27.10	1.38	-1.500			
0.9002	57615.64	3.1840	3.1840	-0.1436	27.10	1.38	-1.500			
0.9007	57643.35	3.1810	3.1811	-0.1418	27.10	1.38	-1.500			
0.9011	57670.12	3.1780	3.1780	-0.1400	27.11	1.39	-1.500			
0.9015	57696.70	3.1750	3.1749	-0.1375	27.11	1.39	-1.500			
0.9019	57722.94	3.1720	3.1721	-0.1358	27.11	1.39	-1.500			
0.9023	57748.62	3.1690	3.1690	-0.1344	27.12	1.40	-1.500			
0.9027	57774.61	3.1660	3.1661	-0.1335	27.12	1.40	-1.500			
0.9031	57799.97	3.1630	3.1630	-0.1316	27.12	1.40	-1.500			
0.9035	57825.05	3.1600	3.1599	-0.1304	27.13	1.41	-1.500			
0.9039	57849.99	3.1570	3.1570	-0.1292	27.13	1.41	-1.500			
0.9043	57874.62	3.1540	3.1541	-0.1271	27.13	1.41	-1.500			
0.9047	57898.96	3.1510	3.1509	-0.1263	27.13	1.41	-1.500			
0.9050	57923.06	3.1480	3.1481	-0.1247	27.14	1.42	-1.500			
0.9054	57946.70	3.1450	3.1450	-0.1230	27.14	1.42	-1.500			
0.9058	57970.22	3.1420	3.1419	-0.1217	27.14	1.42	-1.500			
0.9061	57993.32	3.1390	3.1390	-0.1208	27.15	1.43	-1.500			
0.9065	58016.16	3.1360	3.1361	-0.1194	27.15	1.43	-1.500			
0.9069	58039.22	3.1330	3.1330	-0.1182	27.16	1.44	-1.500			
0.9072	58062.02	3.1300	3.1300	-0.1174	27.16	1.44	-1.500			
0.9076	58084.54	3.1270	3.1269	-0.1156	27.16	1.44	-1.500			
0.9079	58106.66	3.1240	3.1241	-0.1141	27.17	1.45	-1.500			
0.9083	58128.16	3.1210	3.1210	-0.1130	27.17	1.45	-1.500			
0.9086	58149.75	3.1180	3.1181	-0.1118	27.18	1.46	-1.500			
0.9089	58170.98	3.1150	3.1150	-0.1109	27.18	1.46	-1.500			
0.9092	58191.80	3.1120	3.1119	-0.1094	27.18	1.46	-1.500			
0.9096	58212.59	3.1090	3.1090	-0.1094	27.19	1.47	-1.500			
0.9099	58233.42	3.1060	3.1061	-0.1091	27.19	1.47	-1.500			
0.9102	58254.69	3.1030	3.1030	-0.1084	27.19	1.47	-1.500			
0.9106	58275.72	3.1000	3.0999	-0.1083	27.20	1.48	-1.500			
0.9109	58296.37	3.0970	3.0969	-0.1076	27.20	1.48	-1.500			
0.9112	58316.95	3.0940	3.0942	-0.1068	27.20	1.48	-1.500			
0.9115	58337.34	3.0910	3.0911	-0.1062	27.21	1.49	-1.500			
0.9118	58357.77	3.0880	3.0879	-0.1057	27.21	1.49	-1.500			
0.9122	58377.92	3.0850	3.0849	-0.1051	27.21	1.49	-1.500			
0.9125	58397.70	3.0820	3.0821	-0.1039	27.22	1.50	-1.500			
0.9128	58417.78	3.0790	3.0790	-0.1034	27.22	1.50	-1.500			
0.9131	58437.86	3.0760	3.0760	-0.1033	27.22	1.50	-1.500			
0.9134	58457.60	3.0730	3.0731	-0.1025	27.23	1.51	-1.500			
0.9137	58477.18	3.0700	3.0699	-0.1016	27.23	1.51	-1.500			
0.9140	58496.53	3.0670	3.0671	-0.1011	27.23	1.51	-1.500			
0.9143	58515.82	3.0640	3.0641	-0.1003	27.24	1.52	-1.500			
0.9146	58535.00	3.0610	3.0609	-0.0999	27.24	1.52	-1.500			
0.9149	58554.04	3.0580	3.0580	-0.0993	27.24	1.52	-1.500			
0.9152	58573.15	3.0550	3.0550	-0.0987	27.25	1.53	-1.500			
0.9155	58592.13	3.0520	3.0520	-0.0983	27.25	1.53	-1.500			
0.9158	58610.91	3.0490	3.0490	-0.0978	27.25	1.53	-1.500			
0.9161	58629.69	3.0460	3.0461	-0.0973	27.26	1.54	-1.500			
0.9164	58648.30	3.0430	3.0430	-0.0968	27.26	1.54	-1.500			
0.9167	58666.77	3.0400	3.0400	-0.0962	27.26	1.54	-1.500			
0.9170	58685.24	3.0370	3.0370	-0.0955	27.27	1.55	-1.500			
0.9172	58703.52	3.0340	3.0340	-0.0949	27.27	1.55	-1.500			
0.9175	58721.67	3.0310	3.0310	-0.0945	27.27	1.55	-1.500			
0.9178	58739.82	3.0280	3.0280	-0.0940	27.28	1.56	-1.500			
0.9181	58757.76	3.0250	3.0251	-0.0936	27.28	1.56	-1.500			
0.9184	58775.59	3.0220	3.0220	-0.0930	27.28	1.56	-1.500			
0.9186	58793.42	3.0190	3.0189	-0.0926	27.29	1.57	-1.500			
0.9189	58811.13	3.0160	3.0160	-0.0922	27.29	1.57	-1.500			
0.9192	58828.80	3.0130	3.0130	-0.0919	27.29	1.57	-1.500			
0.9195	58846.50	3.0100	3.0101	-0.0915	27.29	1.57	-1.500			
0.9198	58864.01	3.0070	3.0070	-0.0909	27.30	1.58	-1.500			
0.9200	58881.42	3.0040	3.0039	-0.0904	27.30	1.58	-1.500			
