Ah_balance (normalized)	Ah_balance (mAh)	Voltage - fit (V)	Voltage -  interpolate (V)	dQ/dV (1/V)	Temperature (°C)	Temperature - diff (°C)	Current (C)	R_DC 0ms (mOhm)	R_DC 50ms (mOhm)	R_DC 50 ms PEC (mOhm)
0.2173	13905.78	3.9120	3.9118	-0.0990	25.74	-0.02	-1.500			
0.2176	13927.85	3.9090	3.9088	-0.1322	25.74	-0.02	-1.500			
0.2181	13956.81	3.9060	3.9059	-0.1667	25.74	-0.02	-1.500			
0.2186	13992.39	3.9030	3.9031	-0.1994	25.74	-0.02	-1.500			
0.2193	14034.29	3.9000	3.8999	-0.2302	25.75	-0.01	-1.500			
0.2200	14081.90	3.8970	3.8970	-0.2578	25.75	-0.01	-1.500			
0.2209	14134.73	3.8940	3.8940	-0.2894	25.75	-0.01	-1.500			
0.2218	14193.05	3.8910	3.8911	-0.3176	25.75	-0.01	-1.500			
0.2228	14256.80	3.8880	3.8879	-0.3461	25.75	-0.01	-1.500			
0.2238	14325.80	3.8850	3.8849	-0.3736	25.75	-0.01	-1.500			
0.2250	14399.62	3.8820	3.8821	-0.4049	25.75	-0.01	-1.500			
0.2262	14479.94	3.8790	3.8790	-0.4376	25.75	-0.01	-1.500			
0.2276	14567.17	3.8760	3.8759	-0.4712	25.75	-0.01	-1.500			
0.2291	14661.19	3.8730	3.8729	-0.4978	25.75	-0.01	-1.500			
0.2306	14760.68	3.8700	3.8701	-0.5262	25.75	-0.01	-1.500			
0.2323	14865.35	3.8670	3.8672	-0.5504	25.76	-0.00	-1.500			
0.2340	14974.16	3.8640	3.8640	-0.5739	25.76	-0.00	-1.500			
0.2357	15085.75	3.8610	3.8609	-0.5946	25.76	-0.00	-1.500			
0.2375	15201.32	3.8580	3.8581	-0.6131	25.76	0.00	-1.500			
0.2394	15321.27	3.8550	3.8550	-0.6326	25.76	0.00	-1.500			
0.2414	15446.56	3.8520	3.8520	-0.6551	25.76	0.00	-1.500			
0.2433	15573.73	3.8490	3.8491	-0.6703	25.76	0.00	-1.500			
0.2454	15704.97	3.8460	3.8459	-0.6837	25.77	0.01	-1.500			
0.2475	15836.94	3.8430	3.8430	-0.6970	25.77	0.01	-1.500			
0.2496	15972.18	3.8400	3.8401	-0.7063	25.77	0.01	-1.500			
0.2517	16109.34	3.8370	3.8369	-0.7168	25.77	0.01	-1.500			
0.2539	16247.68	3.8340	3.8341	-0.7274	25.77	0.01	-1.500			
0.2561	16388.22	3.8310	3.8310	-0.7346	25.77	0.01	-1.500			
0.2583	16531.26	3.8280	3.8280	-0.7415	25.78	0.02	-1.500			
0.2605	16674.90	3.8250	3.8249	-0.7467	25.78	0.02	-1.500			
0.2628	16817.69	3.8220	3.8221	-0.7497	25.78	0.02	-1.500			
0.2651	16963.49	3.8190	3.8189	-0.7525	25.78	0.02	-1.500			
0.2673	17108.32	3.8160	3.8160	-0.7497	25.79	0.03	-1.500			
0.2696	17251.24	3.8130	3.8131	-0.7502	25.79	0.03	-1.500			
0.2718	17395.16	3.8100	3.8100	-0.7540	25.80	0.04	-1.500			
0.2741	17539.70	3.8070	3.8068	-0.7564	25.80	0.04	-1.500			
0.2763	17684.27	3.8040	3.8040	-0.7594	25.80	0.04	-1.500			
0.2786	17830.39	3.8010	3.8011	-0.7645	25.81	0.05	-1.500			
0.2809	17979.89	3.7980	3.7979	-0.7745	25.81	0.05	-1.500			
0.2833	18130.08	3.7950	3.7950	-0.7758	25.81	0.05	-1.500			
0.2856	18277.99	3.7920	3.7919	-0.7745	25.82	0.06	-1.500			
0.2879	18426.73	3.7890	3.7891	-0.7770	25.82	0.06	-1.500			
0.2903	18576.61	3.7860	3.7860	-0.7759	25.83	0.07	-1.500			
0.2926	18724.77	3.7830	3.7830	-0.7763	25.83	0.07	-1.500			
0.2949	18873.74	3.7800	3.7800	-0.7768	25.84	0.08	-1.500			
0.2972	19023.94	3.7770	3.7770	-0.7752	25.84	0.08	-1.500			
0.2996	19171.95	3.7740	3.7740	-0.7789	25.85	0.09	-1.500			
0.3019	19322.23	3.7710	3.7711	-0.7775	25.85	0.09	-1.500			
0.3042	19471.06	3.7680	3.7679	-0.7801	25.86	0.10	-1.500			
0.3066	19622.31	3.7650	3.7650	-0.7796	25.87	0.11	-1.500			
0.3089	19771.27	3.7620	3.7620	-0.7788	25.87	0.11	-1.500			
0.3113	19920.66	3.7590	3.7590	-0.7801	25.88	0.12	-1.500			
0.3136	20070.95	3.7560	3.7561	-0.7798	25.88	0.12	-1.500			
0.3159	20219.24	3.7530	3.7529	-0.7748	25.89	0.13	-1.500			
0.3183	20369.34	3.7500	3.7500	-0.7749	25.90	0.14	-1.500			
0.3206	20516.14	3.7470	3.7471	-0.7777	25.90	0.14	-1.500			
0.3229	20665.68	3.7440	3.7440	-0.7858	25.91	0.15	-1.500			
0.3253	20817.27	3.7410	3.7409	-0.7853	25.92	0.16	-1.500			
0.3276	20969.20	3.7380	3.7380	-0.7876	25.92	0.16	-1.500			
0.3300	21122.48	3.7350	3.7350	-0.7881	25.93	0.17	-1.500			
0.3324	21274.48	3.7320	3.7320	-0.7845	25.94	0.18	-1.500			
0.3348	21424.61	3.7290	3.7290	-0.7822	25.94	0.18	-1.500			
0.3371	21572.44	3.7260	3.7261	-0.7768	25.95	0.19	-1.500			
0.3394	21719.71	3.7230	3.7229	-0.7799	25.96	0.20	-1.500			
0.3417	21870.13	3.7200	3.7199	-0.7891	25.96	0.20	-1.500			
0.3441	22021.78	3.7170	3.7170	-0.7932	25.97	0.21	-1.500			
0.3465	22175.09	3.7140	3.7141	-0.7995	25.98	0.22	-1.500			
0.3489	22330.16	3.7110	3.7110	-0.8074	25.98	0.22	-1.500			
0.3513	22486.22	3.7080	3.7080	-0.8101	25.99	0.23	-1.500			
0.3538	22640.32	3.7050	3.7050	-0.8204	26.00	0.24	-1.500			
0.3562	22799.15	3.7020	3.7019	-0.8210	26.00	0.24	-1.500			
0.3587	22958.09	3.6990	3.6990	-0.8264	26.01	0.25	-1.500			
0.3612	23117.99	3.6960	3.6960	-0.8318	26.02	0.26	-1.500			
0.3637	23277.53	3.6930	3.6929	-0.8397	26.02	0.26	-1.500			
0.3662	23437.65	3.6900	3.6900	-0.8528	26.03	0.27	-1.500			
0.3688	23601.09	3.6870	3.6870	-0.8640	26.03	0.27	-1.500			
0.3714	23766.78	3.6840	3.6840	-0.8743	26.03	0.27	-1.500			
0.3741	23939.29	3.6810	3.6810	-0.8924	26.04	0.28	-1.500			
0.3767	24111.02	3.6780	3.6781	-0.9086	26.04	0.28	-1.500			
0.3795	24287.22	3.6750	3.6749	-0.9221	26.05	0.29	-1.500			
0.3823	24465.26	3.6720	3.6720	-0.9341	26.05	0.29	-1.500			
0.3851	24646.10	3.6690	3.6690	-0.9489	26.06	0.30	-1.500			
0.3880	24830.16	3.6660	3.6661	-0.9677	26.06	0.30	-1.500			
0.3909	25017.23	3.6630	3.6631	-0.9847	26.07	0.31	-1.500			
0.3938	25206.27	3.6600	3.6599	-1.0037	26.07	0.31	-1.500			
0.3969	25399.84	3.6570	3.6570	-1.0225	26.08	0.32	-1.500			
0.4000	25597.92	3.6540	3.6540	-1.0469	26.08	0.32	-1.500			
0.4031	25801.06	3.6510	3.6510	-1.0694	26.09	0.33	-1.500			
0.4064	26009.59	3.6480	3.6480	-1.0935	26.09	0.33	-1.500			
0.4097	26222.80	3.6450	3.6450	-1.1095	26.10	0.34	-1.500			
0.4131	26437.67	3.6420	3.6420	-1.1304	26.10	0.34	-1.500			
0.4165	26655.79	3.6390	3.6390	-1.1542	26.10	0.34	-1.500			
0.4200	26879.52	3.6360	3.6360	-1.1776	26.11	0.35	-1.500			
0.4235	27106.30	3.6330	3.6330	-1.2051	26.11	0.35	-1.500			
0.4272	27341.38	3.6300	3.6300	-1.2346	26.12	0.36	-1.500			
0.4310	27582.41	3.6270	3.6270	-1.2586	26.12	0.36	-1.500			
0.4348	27828.92	3.6240	3.6239	-1.2873	26.13	0.37	-1.500			
0.4387	28076.64	3.6210	3.6211	-1.3072	26.13	0.37	-1.500			
0.4426	28327.39	3.6180	3.6180	-1.3331	26.13	0.37	-1.500			
0.4467	28587.33	3.6150	3.6149	-1.3546	26.13	0.37	-1.500			
0.4508	28849.17	3.6120	3.6120	-1.3813	26.14	0.38	-1.500			
0.4550	29120.00	3.6090	3.6090	-1.4161	26.14	0.38	-1.500			
0.4593	29394.83	3.6060	3.6061	-1.4478	26.14	0.38	-1.500			
0.4637	29674.58	3.6030	3.6031	-1.4737	26.14	0.38	-1.500			
0.4681	29957.72	3.6000	3.6000	-1.5062	26.14	0.38	-1.500			
0.4727	30250.75	3.5970	3.5970	-1.5341	26.14	0.38	-1.500			
0.4773	30548.13	3.5940	3.5939	-1.5598	26.14	0.38	-1.500			
0.4821	30856.06	3.5910	3.5910	-1.5940	26.14	0.38	-1.500			
0.4869	31164.38	3.5880	3.5879	-1.6130	26.14	0.38	-1.500			
0.4918	31474.31	3.5850	3.5850	-1.6377	26.14	0.38	-1.500			
0.4967	31789.94	3.5820	3.5821	-1.6651	26.14	0.38	-1.500			
0.5017	32111.69	3.5790	3.5790	-1.6908	26.14	0.38	-1.500			
0.5069	32441.46	3.5760	3.5760	-1.7198	26.14	0.38	-1.500			
0.5121	32774.72	3.5730	3.5730	-1.7433	26.14	0.38	-1.500			
0.5174	33112.48	3.5700	3.5700	-1.7641	26.14	0.38	-1.500			
0.5228	33456.72	3.5670	3.5670	-1.8022	26.14	0.38	-1.500			
0.5282	33804.02	3.5640	3.5639	-1.8261	26.14	0.38	-1.500			
0.5337	34157.57	3.5610	3.5609	-1.8369	26.14	0.38	-1.500			
0.5393	34512.92	3.5580	3.5581	-1.8555	26.14	0.38	-1.500			
0.5448	34869.38	3.5550	3.5550	-1.8828	26.14	0.38	-1.500			
0.5505	35230.37	3.5520	3.5520	-1.8885	26.15	0.39	-1.500			
0.5561	35592.12	3.5490	3.5490	-1.9114	26.15	0.39	-1.500			
0.5620	35970.86	3.5460	3.5461	-1.9360	26.15	0.39	-1.500			
0.5679	36346.38	3.5430	3.5429	-1.9397	26.15	0.39	-1.500			
0.5737	36719.95	3.5400	3.5401	-1.9422	26.16	0.40	-1.500	0.385	0.512	
0.5796	37091.86	3.5370	3.5370	-1.9387	26.16	0.40	-1.500			
0.5854	37465.80	3.5340	3.5339	-1.9325	26.17	0.41	-1.500			
0.5911	37832.82	3.5310	3.5311	-1.9191	26.17	0.41	-1.500			
0.5970	38207.04	3.5280	3.5279	-1.9342	26.18	0.42	-1.500			
0.6028	38578.15	3.5250	3.5249	-1.9243	26.19	0.43	-1.500			
0.6085	38945.81	3.5220	3.5219	-1.9151	26.20	0.44	-1.500			
0.6144	39318.55	3.5190	3.5191	-1.9037	26.20	0.44	-1.500			
0.6200	39679.20	3.5160	3.5159	-1.8895	26.21	0.45	-1.500			
0.6256	40041.09	3.5130	3.5130	-1.8730	26.21	0.45	-1.500			
0.6311	40389.42	3.5100	3.5099	-1.8522	26.22	0.46	-1.500			
0.6368	40753.71	3.5070	3.5071	-1.8562	26.22	0.46	-1.500			
0.6423	41107.28	3.5040	3.5040	-1.8515	26.23	0.47	-1.500			
0.6479	41467.52	3.5010	3.5010	-1.8509	26.25	0.49	-1.500			
0.6535	41822.04	3.4980	3.4979	-1.8261	26.26	0.50	-1.500			
0.6589	42172.27	3.4950	3.4950	-1.8197	26.27	0.51	-1.500			
0.6644	42519.28	3.4920	3.4920	-1.8010	26.28	0.52	-1.500			
0.6697	42859.80	3.4890	3.4889	-1.8028	26.29	0.53	-1.500			
0.6750	43202.20	3.4860	3.4860	-1.7835	26.30	0.54	-1.500			
0.6804	43542.61	3.4830	3.4829	-1.7688	26.31	0.55	-1.500			
0.6857	43887.10	3.4800	3.4799	-1.7693	26.32	0.56	-1.500			
0.6911	44228.45	3.4770	3.4769	-1.7478	26.33	0.57	-1.500			
0.6963	44560.08	3.4740	3.4740	-1.7169	26.34	0.58	-1.500			
0.7014	44887.26	3.4710	3.4711	-1.6925	26.35	0.59	-1.500			
0.7064	45210.73	3.4680	3.4679	-1.6712	26.37	0.61	-1.500			
0.7114	45527.18	3.4650	3.4650	-1.6319	26.38	0.62	-1.500			
0.7162	45838.13	3.4620	3.4620	-1.6082	26.39	0.63	-1.500			
0.7210	46141.58	3.4590	3.4591	-1.5931	26.40	0.64	-1.500			
0.7257	46446.71	3.4560	3.4560	-1.5743	26.41	0.65	-1.500			
0.7304	46745.68	3.4530	3.4529	-1.5530	26.42	0.66	-1.500			
0.7350	47040.83	3.4500	3.4500	-1.5371	26.43	0.67	-1.500			
0.7396	47335.93	3.4470	3.4470	-1.5286	26.45	0.69	-1.500			
0.7442	47630.78	3.4440	3.4439	-1.5164	26.46	0.70	-1.500			
0.7487	47917.81	3.4410	3.4410	-1.5070	26.48	0.72	-1.500			
0.7532	48204.85	3.4380	3.4380	-1.4873	26.50	0.74	-1.500			
0.7577	48491.77	3.4350	3.4349	-1.4865	26.51	0.75	-1.500			
0.7621	48775.53	3.4320	3.4322	-1.4766	26.53	0.77	-1.500			
0.7665	49057.04	3.4290	3.4289	-1.4680	26.55	0.79	-1.500			
0.7709	49336.65	3.4260	3.4260	-1.4663	26.57	0.81	-1.500			
0.7753	49621.21	3.4230	3.4229	-1.4507	26.58	0.82	-1.500			
0.7797	49901.82	3.4200	3.4200	-1.4383	26.60	0.84	-1.500			
0.7840	50176.75	3.4170	3.4170	-1.4182	26.62	0.86	-1.500			
0.7883	50448.27	3.4140	3.4139	-1.3814	26.64	0.88	-1.500			
0.7924	50710.42	3.4110	3.4109	-1.3502	26.66	0.90	-1.500			
0.7963	50963.60	3.4080	3.4081	-1.3085	26.68	0.92	-1.500			
0.8002	51211.88	3.4050	3.4051	-1.2761	26.69	0.93	-1.500			
0.8040	51458.66	3.4020	3.4019	-1.2448	26.71	0.95	-1.500			
0.8077	51693.03	3.3990	3.3989	-1.1923	26.72	0.96	-1.500			
0.8112	51917.37	3.3960	3.3962	-1.1467	26.74	0.98	-1.500			
0.8146	52134.96	3.3930	3.3930	-1.1008	26.75	0.99	-1.500			
0.8178	52339.36	3.3900	3.3899	-1.0529	26.76	1.00	-1.500			
0.8209	52537.16	3.3870	3.3870	-1.0126	26.78	1.02	-1.500			
0.8238	52725.67	3.3840	3.3840	-0.9729	26.79	1.03	-1.500			
0.8267	52909.66	3.3810	3.3811	-0.9415	26.81	1.05	-1.500			
0.8295	53088.56	3.3780	3.3779	-0.9045	26.82	1.06	-1.500			
0.8322	53257.80	3.3750	3.3749	-0.8655	26.83	1.07	-1.500			
0.8347	53419.96	3.3720	3.3722	-0.8309	26.84	1.08	-1.500			
0.8371	53574.92	3.3690	3.3691	-0.7966	26.84	1.08	-1.500			
0.8394	53723.06	3.3660	3.3659	-0.7677	26.85	1.09	-1.500			
0.8417	53866.83	3.3630	3.3629	-0.7424	26.86	1.10	-1.500			
0.8439	54006.62	3.3600	3.3600	-0.7169	26.87	1.11	-1.500			
0.8460	54141.74	3.3570	3.3569	-0.6927	26.88	1.12	-1.500			
0.8480	54274.13	3.3540	3.3541	-0.6697	26.89	1.13	-1.500			
0.8500	54400.19	3.3510	3.3510	-0.6472	26.90	1.14	-1.500			
0.8519	54520.13	3.3480	3.3479	-0.6287	26.91	1.15	-1.500			
0.8537	54639.11	3.3450	3.3450	-0.6091	26.92	1.16	-1.500			
0.8555	54753.38	3.3420	3.3419	-0.5909	26.92	1.16	-1.500			
0.8573	54865.89	3.3390	3.3390	-0.5740	26.93	1.17	-1.500			
0.8590	54975.16	3.3360	3.3362	-0.5556	26.94	1.18	-1.500			
0.8606	55080.02	3.3330	3.3330	-0.5377	26.94	1.18	-1.500			
0.8622	55180.93	3.3300	3.3301	-0.5187	26.95	1.19	-1.500			
0.8637	55278.10	3.3270	3.3270	-0.5037	26.96	1.20	-1.500			
0.8652	55373.50	3.3240	3.3240	-0.4907	26.96	1.20	-1.500			
0.8667	55465.92	3.3210	3.3209	-0.4764	26.97	1.21	-1.500			
0.8681	55556.61	3.3180	3.3180	-0.4605	26.98	1.22	-1.500			
0.8694	55644.08	3.3150	3.3150	-0.4463	26.98	1.22	-1.500			
0.8707	55727.59	3.3120	3.3121	-0.4332	26.99	1.23	-1.500			
0.8720	55808.80	3.3090	3.3090	-0.4207	27.00	1.24	-1.500			
0.8733	55888.41	3.3060	3.3058	-0.4071	27.00	1.24	-1.500			
0.8745	55965.78	3.3030	3.3030	-0.3923	27.01	1.25	-1.500			
0.8756	56039.83	3.3000	3.3001	-0.3798	27.01	1.25	-1.500			
0.8768	56112.91	3.2970	3.2971	-0.3688	27.02	1.26	-1.500			
0.8778	56181.48	3.2940	3.2939	-0.3540	27.02	1.26	-1.500			
0.8788	56246.07	3.2910	3.2910	-0.3415	27.03	1.27	-1.500			
0.8799	56310.82	3.2880	3.2881	-0.3333	27.03	1.27	-1.500			
0.8809	56374.50	3.2850	3.2849	-0.3248	27.04	1.28	-1.500			
0.8818	56435.73	3.2820	3.2820	-0.3166	27.04	1.28	-1.500			
0.8827	56495.71	3.2790	3.2792	-0.3063	27.05	1.29	-1.500			
0.8837	56553.84	3.2760	3.2761	-0.2983	27.05	1.29	-1.500			
0.8845	56610.02	3.2730	3.2730	-0.2907	27.05	1.29	-1.500			
0.8854	56665.78	3.2700	3.2700	-0.2811	27.06	1.30	-1.500			
0.8862	56718.40	3.2670	3.2669	-0.2723	27.06	1.30	-1.500			
0.8870	56769.84	3.2640	3.2639	-0.2660	27.06	1.30	-1.500			
0.8878	56820.42	3.2610	3.2612	-0.2588	27.06	1.30	-1.500			
0.8886	56868.71	3.2580	3.2579	-0.2505	27.07	1.31	-1.500			
0.8893	56916.33	3.2550	3.2550	-0.2447	27.08	1.32	-1.500			
0.8900	56961.73	3.2520	3.2521	-0.2363	27.08	1.32	-1.500			
0.8907	57006.97	3.2490	3.2492	-0.2318	27.09	1.33	-1.500			
0.8914	57051.68	3.2460	3.2459	-0.2281	27.09	1.33	-1.500			
0.8921	57094.06	3.2430	3.2430	-0.2204	27.10	1.34	-1.500			
0.8927	57135.48	3.2400	3.2401	-0.2146	27.10	1.34	-1.500			
0.8934	57176.19	3.2370	3.2369	-0.2108	27.11	1.35	-1.500			
0.8940	57216.29	3.2340	3.2340	-0.2076	27.11	1.35	-1.500			
0.8946	57255.51	3.2310	3.2310	-0.2035	27.12	1.36	-1.500			
0.8952	57294.28	3.2280	3.2280	-0.2004	27.12	1.36	-1.500			
0.8958	57332.76	3.2250	3.2250	-0.1957	27.13	1.37	-1.500			
0.8964	57369.85	3.2220	3.2220	-0.1918	27.13	1.37	-1.500			
0.8970	57406.52	3.2190	3.2191	-0.1883	27.13	1.37	-1.500			
0.8975	57442.23	3.2160	3.2160	-0.1837	27.14	1.38	-1.500			
0.8981	57476.76	3.2130	3.2129	-0.1803	27.14	1.38	-1.500			
0.8986	57510.76	3.2100	3.2101	-0.1764	27.15	1.39	-1.500			
0.8991	57544.30	3.2070	3.2069	-0.1731	27.15	1.39	-1.500			
0.8996	57577.26	3.2040	3.2040	-0.1702	27.16	1.40	-1.500			
0.9002	57609.68	3.2010	3.2010	-0.1688	27.16	1.40	-1.500			
0.9007	57641.65	3.1980	3.1980	-0.1658	27.16	1.40	-1.500			
0.9011	57673.44	3.1950	3.1949	-0.1635	27.17	1.41	-1.500			
0.9016	57704.58	3.1920	3.1920	-0.1609	27.17	1.41	-1.500			
0.9021	57735.20	3.1890	3.1891	-0.1585	27.18	1.42	-1.500			
0.9026	57765.61	3.1860	3.1860	-0.1563	27.18	1.42	-1.500			
0.9030	57795.17	3.1830	3.1831	-0.1540	27.18	1.42	-1.500			
0.9035	57824.51	3.1800	3.1799	-0.1516	27.19	1.43	-1.500			
0.9040	57852.82	3.1770	3.1769	-0.1502	27.19	1.43	-1.500			
0.9044	57881.67	3.1740	3.1739	-0.1490	27.20	1.44	-1.500			
0.9048	57910.39	3.1710	3.1710	-0.1475	27.20	1.44	-1.500			
0.9053	57938.55	3.1680	3.1680	-0.1459	27.20	1.44	-1.500			
0.9057	57966.46	3.1650	3.1651	-0.1444	27.21	1.45	-1.500			
0.9062	57994.17	3.1620	3.1621	-0.1430	27.21	1.45	-1.500			
0.9066	58021.36	3.1590	3.1589	-0.1410	27.21	1.45	-1.500			
0.9070	58048.25	3.1560	3.1560	-0.1392	27.22	1.46	-1.500			
0.9074	58074.65	3.1530	3.1530	-0.1371	27.22	1.46	-1.500			
0.9078	58100.80	3.1500	3.1500	-0.1359	27.23	1.47	-1.500			
0.9082	58126.68	3.1470	3.1470	-0.1348	27.23	1.47	-1.500			
0.9086	58152.44	3.1440	3.1441	-0.1335	27.23	1.47	-1.500			
0.9090	58177.85	3.1410	3.1409	-0.1318	27.24	1.48	-1.500			
0.9094	58203.05	3.1380	3.1380	-0.1307	27.24	1.48	-1.500			
0.9098	58228.03	3.1350	3.1351	-0.1299	27.24	1.48	-1.500			
0.9102	58252.75	3.1320	3.1320	-0.1292	27.25	1.49	-1.500			
0.9106	58277.51	3.1290	3.1290	-0.1285	27.25	1.49	-1.500			
0.9110	58302.09	3.1260	3.1259	-0.1270	27.25	1.49	-1.500			
0.9113	58326.40	3.1230	3.1230	-0.1261	27.26	1.50	-1.500			
0.9117	58350.51	3.1200	3.1199	-0.1253	27.26	1.50	-1.500			
0.9121	58374.71	3.1170	3.1171	-0.1249	27.27	1.51	-1.500			
0.9125	58398.58	3.1140	3.1141	-0.1236	27.27	1.51	-1.500			
0.9128	58422.13	3.1110	3.1109	-0.1222	27.28	1.52	-1.500			
0.9132	58445.44	3.1080	3.1080	-0.1211	27.28	1.52	-1.500			
0.9136	58468.46	3.1050	3.1050	-0.1198	27.28	1.52	-1.500			
0.9139	58491.26	3.1020	3.1020	-0.1194	27.29	1.53	-1.500			
0.9143	58514.18	3.0990	3.0990	-0.1188	27.29	1.53	-1.500			
0.9146	58536.93	3.0960	3.0960	-0.1182	27.30	1.54	-1.500			
0.9150	58559.31	3.0930	3.0930	-0.1173	27.30	1.54	-1.500			
0.9153	58581.98	3.0900	3.0899	-0.1162	27.30	1.54	-1.500			
0.9157	58604.47	3.0870	3.0872	-0.1156	27.31	1.55	-1.500			
0.9160	58626.43	3.0840	3.0840	-0.1150	27.31	1.55	-1.500			
0.9164	58648.50	3.0810	3.0810	-0.1143	27.32	1.56	-1.500			
0.9167	58670.24	3.0780	3.0780	-0.1138	27.32	1.56	-1.500			
0.9171	58691.73	3.0750	3.0748	-0.1129	27.32	1.56	-1.500			
0.9174	58713.51	3.0720	3.0721	-0.1123	27.33	1.57	-1.500			
0.9177	58735.02	3.0690	3.0690	-0.1118	27.33	1.57	-1.500			
0.9181	58756.49	3.0660	3.0660	-0.1111	27.34	1.58	-1.500			
0.9184	58778.04	3.0630	3.0630	-0.1108	27.34	1.58	-1.500			
0.9187	58799.10	3.0600	3.0600	-0.1102	27.34	1.58	-1.500			
0.9191	58820.04	3.0570	3.0571	-0.1093	27.35	1.59	-1.500			
0.9194	58840.93	3.0540	3.0539	-0.1091	27.35	1.59	-1.500			
0.9197	58861.67	3.0510	3.0509	-0.1085	27.35	1.59	-1.500			
0.9200	58882.63	3.0480	3.0481	-0.1080	27.36	1.60	-1.500			
0.9204	58903.44	3.0450	3.0449	-0.1077	27.36	1.60	-1.500			
0.9207	58924.19	3.0420	3.0420	-0.1067	27.37	1.61	-1.500			
0.9210	58944.79	3.0390	3.0391	-0.1060	27.37	1.61	-1.500			
0.9213	58964.95	3.0360	3.0360	-0.1052	27.37	1.61	-1.500			
0.9216	58985.07	3.0330	3.0330	-0.1042	27.38	1.62	-1.500			
0.9219	59004.78	3.0300	3.0301	-0.1039	27.38	1.62	-1.500			
0.9223	59024.40	3.0270	3.0269	-0.1030	27.38	1.62	-1.500			
0.9226	59044.21	3.0240	3.0240	-0.1027	27.39	1.63	-1.500			
0.9229	59063.81	3.0210	3.0209	-0.1024	27.39	1.63	-1.500			
0.9232	59083.62	3.0180	3.0180	-0.1019	27.39	1.63	-1.500			
0.9235	59103.35	3.0150	3.0151	-0.1018	27.40	1.64	-1.500			
0.9238	59122.83	3.0120	3.0119	-0.1011	27.40	1.64	-1.500			
0.9241	59142.36	3.0090	3.0090	-0.1002	27.40	1.64	-1.500			
0.9244	59161.48	3.0060	3.0059	-0.0990	27.41	1.65	-1.500			
0.9247	59180.38	3.0030	3.0031	-0.0982	27.41	1.65	-1.501			
