Ah_balance (normalized)	Ah_balance (mAh)	Voltage - fit (V)	Voltage -  interpolate (V)	dQ/dV (1/V)	Temperature (°C)	Temperature - diff (°C)	Current (C)	R_DC 0ms (mOhm)	R_DC 50ms (mOhm)	R_DC 50 ms PEC (mOhm)
0.2134	13655.03	3.9110	3.9108	-0.1162	25.66	0.00	-1.500			
0.2138	13681.67	3.9080	3.9078	-0.1539	25.66	0.00	-1.500			
0.2143	13714.59	3.9050	3.9050	-0.1862	25.66	0.00	-1.500			
0.2149	13752.86	3.9020	3.9020	-0.2191	25.66	0.00	-1.500			
0.2156	13798.38	3.8990	3.8991	-0.2501	25.66	0.00	-1.500			
0.2164	13849.89	3.8960	3.8960	-0.2819	25.66	0.00	-1.500			
0.2173	13906.88	3.8930	3.8930	-0.3129	25.66	0.00	-1.500			
0.2183	13969.73	3.8900	3.8900	-0.3446	25.66	0.00	-1.500			
0.2194	14038.69	3.8870	3.8870	-0.3756	25.66	0.00	-1.500			
0.2205	14114.16	3.8840	3.8840	-0.4075	25.66	0.00	-1.500			
0.2218	14195.32	3.8810	3.8810	-0.4373	25.66	0.00	-1.500			
0.2232	14282.62	3.8780	3.8780	-0.4698	25.66	0.00	-1.500			
0.2246	14375.80	3.8750	3.8750	-0.5015	25.66	0.00	-1.500			
0.2262	14475.40	3.8720	3.8720	-0.5306	25.66	0.00	-1.500			
0.2278	14580.38	3.8690	3.8690	-0.5591	25.66	0.00	-1.500			
0.2295	14691.07	3.8660	3.8661	-0.5862	25.66	0.00	-1.500			
0.2314	14807.02	3.8630	3.8630	-0.6123	25.66	0.00	-1.500			
0.2332	14927.09	3.8600	3.8600	-0.6359	25.66	0.00	-1.500			
0.2352	15051.28	3.8570	3.8570	-0.6564	25.66	0.00	-1.500			
0.2372	15179.13	3.8540	3.8541	-0.6792	25.66	0.00	-1.500			
0.2393	15313.81	3.8510	3.8509	-0.6990	25.66	0.00	-1.500			
0.2414	15450.65	3.8480	3.8480	-0.7116	25.66	0.00	-1.500			
0.2436	15589.38	3.8450	3.8450	-0.7246	25.66	0.00	-1.500			
0.2458	15729.47	3.8420	3.8421	-0.7337	25.66	0.00	-1.500			
0.2480	15872.25	3.8390	3.8389	-0.7460	25.66	0.00	-1.500			
0.2503	16016.97	3.8360	3.8359	-0.7510	25.66	0.00	-1.500			
0.2525	16160.68	3.8330	3.8330	-0.7579	25.66	0.00	-1.500			
0.2548	16307.61	3.8300	3.8303	-0.7662	25.66	0.00	-1.500			
0.2571	16456.48	3.8270	3.8269	-0.7753	25.66	0.00	-1.500			
0.2595	16605.21	3.8240	3.8239	-0.7789	25.67	0.01	-1.500			
0.2618	16754.54	3.8210	3.8210	-0.7821	25.67	0.01	-1.500			
0.2642	16907.77	3.8180	3.8180	-0.7909	25.67	0.01	-1.500			
0.2666	17059.41	3.8150	3.8150	-0.7907	25.67	0.01	-1.500			
0.2689	17209.56	3.8120	3.8120	-0.7930	25.68	0.02	-1.500			
0.2713	17362.85	3.8090	3.8090	-0.7975	25.68	0.02	-1.500			
0.2737	17516.20	3.8060	3.8060	-0.7981	25.68	0.02	-1.500			
0.2761	17670.27	3.8030	3.8030	-0.8003	25.69	0.03	-1.500			
0.2785	17824.33	3.8000	3.8000	-0.8061	25.69	0.03	-1.500			
0.2809	17979.71	3.7970	3.7970	-0.8076	25.69	0.03	-1.500			
0.2833	18134.14	3.7940	3.7940	-0.8071	25.70	0.04	-1.500			
0.2858	18288.76	3.7910	3.7910	-0.8076	25.70	0.04	-1.500			
0.2882	18444.45	3.7880	3.7880	-0.8128	25.71	0.05	-1.500			
0.2906	18600.73	3.7850	3.7850	-0.8157	25.71	0.05	-1.500			
0.2931	18757.77	3.7820	3.7820	-0.8147	25.72	0.06	-1.500			
0.2955	18912.73	3.7790	3.7790	-0.8176	25.72	0.06	-1.500			
0.2980	19071.92	3.7760	3.7761	-0.8186	25.73	0.07	-1.500			
0.3005	19229.64	3.7730	3.7730	-0.8185	25.73	0.07	-1.500			
0.3029	19387.06	3.7700	3.7700	-0.8201	25.74	0.08	-1.500			
0.3054	19543.54	3.7670	3.7671	-0.8218	25.74	0.08	-1.500			
0.3078	19700.21	3.7640	3.7641	-0.8224	25.75	0.09	-1.500			
0.3103	19859.86	3.7610	3.7609	-0.8243	25.75	0.09	-1.500			
0.3128	20017.68	3.7580	3.7580	-0.8223	25.76	0.10	-1.500			
0.3153	20176.01	3.7550	3.7551	-0.8272	25.76	0.10	-1.500			
0.3177	20334.03	3.7520	3.7520	-0.8253	25.77	0.11	-1.500			
0.3202	20492.38	3.7490	3.7490	-0.8252	25.78	0.12	-1.500			
0.3227	20650.96	3.7460	3.7460	-0.8267	25.78	0.12	-1.500			
0.3252	20811.25	3.7430	3.7430	-0.8224	25.79	0.13	-1.500			
0.3276	20968.85	3.7400	3.7399	-0.8222	25.79	0.13	-1.500			
0.3301	21126.41	3.7370	3.7372	-0.8209	25.80	0.14	-1.500			
0.3325	21283.17	3.7340	3.7340	-0.8177	25.81	0.15	-1.500			
0.3350	21438.79	3.7310	3.7309	-0.8213	25.81	0.15	-1.500			
0.3374	21596.35	3.7280	3.7281	-0.8241	25.82	0.16	-1.500			
0.3399	21754.70	3.7250	3.7250	-0.8277	25.82	0.16	-1.500			
0.3424	21914.55	3.7220	3.7220	-0.8355	25.83	0.17	-1.500			
0.3449	22074.71	3.7190	3.7190	-0.8349	25.84	0.18	-1.500			
0.3474	22236.75	3.7160	3.7160	-0.8375	25.84	0.18	-1.500			
0.3500	22398.62	3.7130	3.7130	-0.8389	25.85	0.19	-1.500			
0.3525	22559.37	3.7100	3.7100	-0.8351	25.85	0.19	-1.500			
0.3550	22719.37	3.7070	3.7071	-0.8371	25.86	0.20	-1.500			
0.3575	22879.06	3.7040	3.7040	-0.8394	25.87	0.21	-1.500			
0.3600	23037.93	3.7010	3.7010	-0.8425	25.87	0.21	-1.500			
0.3625	23200.00	3.6980	3.6980	-0.8567	25.88	0.22	-1.500			
0.3651	23366.42	3.6950	3.6950	-0.8657	25.88	0.22	-1.500			
0.3677	23533.71	3.6920	3.6920	-0.8755	25.89	0.23	-1.500			
0.3704	23704.45	3.6890	3.6890	-0.8882	25.90	0.24	-1.500			
0.3731	23875.90	3.6860	3.6861	-0.8997	25.90	0.24	-1.500			
0.3758	24050.00	3.6830	3.6829	-0.9057	25.91	0.25	-1.500			
0.3785	24223.86	3.6800	3.6800	-0.9183	25.92	0.26	-1.500			
0.3812	24399.88	3.6770	3.6770	-0.9280	25.92	0.26	-1.500			
0.3841	24580.29	3.6740	3.6740	-0.9473	25.93	0.27	-1.500			
0.3869	24764.16	3.6710	3.6710	-0.9591	25.93	0.27	-1.500			
0.3898	24946.72	3.6680	3.6680	-0.9749	25.94	0.28	-1.500			
0.3928	25137.98	3.6650	3.6651	-0.9970	25.94	0.28	-1.500			
0.3958	25331.74	3.6620	3.6619	-1.0183	25.95	0.29	-1.500			
0.3989	25527.86	3.6590	3.6590	-1.0347	25.95	0.29	-1.500			
0.4020	25729.47	3.6560	3.6560	-1.0515	25.96	0.30	-1.500			
0.4052	25931.73	3.6530	3.6532	-1.0700	25.96	0.30	-1.500			
0.4084	26139.41	3.6500	3.6500	-1.0962	25.96	0.30	-1.500			
0.4117	26350.01	3.6470	3.6470	-1.1187	25.97	0.31	-1.500			
0.4151	26566.39	3.6440	3.6439	-1.1423	25.97	0.31	-1.500			
0.4186	26790.39	3.6410	3.6410	-1.1771	25.97	0.31	-1.500			
0.4222	27018.74	3.6380	3.6381	-1.2007	25.97	0.31	-1.500			
0.4259	27254.68	3.6350	3.6349	-1.2215	25.98	0.32	-1.500			
0.4295	27488.93	3.6320	3.6322	-1.2459	25.98	0.32	-1.500			
0.4332	27727.17	3.6290	3.6290	-1.2653	25.98	0.32	-1.500			
0.4370	27970.91	3.6260	3.6258	-1.3045	25.99	0.33	-1.500			
0.4410	28224.55	3.6230	3.6230	-1.3358	25.99	0.33	-1.500			
0.4451	28483.79	3.6200	3.6200	-1.3709	25.99	0.33	-1.500			
0.4493	28754.70	3.6170	3.6170	-1.4086	26.00	0.34	-1.500			
0.4536	29030.09	3.6140	3.6140	-1.4386	26.00	0.34	-1.500			
0.4579	29307.05	3.6110	3.6110	-1.4607	26.00	0.34	-1.500			
0.4623	29589.81	3.6080	3.6080	-1.5021	26.00	0.34	-1.500			
0.4669	29878.69	3.6050	3.6050	-1.5237	26.00	0.34	-1.500			
0.4715	30177.05	3.6020	3.6019	-1.5587	26.00	0.34	-1.500			
0.4762	30479.16	3.5990	3.5990	-1.5886	26.00	0.34	-1.500			
0.4811	30788.35	3.5960	3.5962	-1.6237	26.00	0.34	-1.500			
0.4860	31104.47	3.5930	3.5930	-1.6448	26.00	0.34	-1.500			
0.4910	31424.68	3.5900	3.5899	-1.6757	26.00	0.34	-1.500			
0.4961	31749.18	3.5870	3.5871	-1.6904	26.00	0.34	-1.500			
0.5012	32075.79	3.5840	3.5839	-1.7239	26.00	0.34	-1.500			
0.5064	32407.36	3.5810	3.5811	-1.7463	26.00	0.34	-1.500			
0.5116	32742.97	3.5780	3.5780	-1.7718	26.00	0.34	-1.500			
0.5170	33085.37	3.5750	3.5749	-1.7992	26.00	0.34	-1.500			
0.5224	33432.13	3.5720	3.5721	-1.8169	26.00	0.34	-1.500			
0.5279	33788.04	3.5690	3.5690	-1.8540	26.00	0.34	-1.500			
0.5336	34147.88	3.5660	3.5659	-1.8869	26.00	0.34	-1.500			
0.5392	34510.97	3.5630	3.5630	-1.9226	26.00	0.34	-1.500			
0.5451	34886.86	3.5600	3.5599	-1.9439	26.00	0.34	-1.500			
0.5510	35264.25	3.5570	3.5570	-1.9646	26.00	0.34	-1.500			
0.5570	35646.33	3.5540	3.5541	-1.9936	26.00	0.34	-1.500			
0.5630	36034.02	3.5510	3.5509	-2.0086	26.01	0.35	-1.500			
0.5691	36419.50	3.5480	3.5479	-2.0049	26.01	0.35	-1.500			
0.5751	36807.21	3.5450	3.5451	-2.0284	26.02	0.36	-1.500	0.390	0.500	
0.5812	37195.00	3.5420	3.5420	-2.0254	26.02	0.36	-1.500			
0.5872	37581.91	3.5390	3.5389	-2.0344	26.03	0.37	-1.500			
0.5933	37968.55	3.5360	3.5360	-2.0306	26.03	0.37	-1.500			
0.5995	38367.72	3.5330	3.5330	-2.0323	26.04	0.38	-1.500			
0.6057	38761.92	3.5300	3.5301	-2.0199	26.04	0.38	-1.500			
0.6117	39147.92	3.5270	3.5270	-2.0130	26.04	0.38	-1.500			
0.6177	39530.88	3.5240	3.5240	-1.9926	26.05	0.39	-1.500			
0.6236	39910.34	3.5210	3.5209	-1.9661	26.05	0.39	-1.500			
0.6295	40288.72	3.5180	3.5182	-1.9637	26.05	0.39	-1.500			
0.6354	40663.50	3.5150	3.5150	-1.9525	26.06	0.40	-1.500			
0.6413	41040.19	3.5120	3.5119	-1.9318	26.07	0.41	-1.500			
0.6470	41407.98	3.5090	3.5090	-1.8972	26.08	0.42	-1.500			
0.6527	41771.79	3.5060	3.5060	-1.8955	26.10	0.44	-1.500			
0.6583	42133.50	3.5030	3.5030	-1.8790	26.11	0.45	-1.500			
0.6639	42491.83	3.5000	3.4999	-1.8613	26.11	0.45	-1.500			
0.6695	42846.93	3.4970	3.4969	-1.8451	26.12	0.46	-1.500			
0.6750	43199.82	3.4940	3.4941	-1.8336	26.13	0.47	-1.500			
0.6805	43553.25	3.4910	3.4911	-1.8287	26.14	0.48	-1.500			
0.6860	43901.60	3.4880	3.4880	-1.8301	26.15	0.49	-1.500			
0.6915	44253.03	3.4850	3.4849	-1.8113	26.17	0.51	-1.500			
0.6968	44598.23	3.4820	3.4820	-1.7980	26.18	0.52	-1.500			
0.7023	44945.00	3.4790	3.4790	-1.7899	26.19	0.53	-1.500			
0.7076	45288.46	3.4760	3.4757	-1.7612	26.21	0.55	-1.500			
0.7129	45626.61	3.4730	3.4730	-1.7331	26.22	0.56	-1.500			
0.7181	45955.48	3.4700	3.4700	-1.7008	26.24	0.58	-1.500			
0.7231	46276.69	3.4670	3.4671	-1.6694	26.25	0.59	-1.500			
0.7281	46598.35	3.4640	3.4639	-1.6450	26.26	0.60	-1.500			
0.7329	46907.08	3.4610	3.4610	-1.6080	26.28	0.62	-1.500			
0.7377	47209.93	3.4580	3.4581	-1.5943	26.29	0.63	-1.500			
0.7424	47515.80	3.4550	3.4548	-1.5758	26.31	0.65	-1.500			
0.7471	47814.15	3.4520	3.4520	-1.5553	26.33	0.67	-1.500			
0.7518	48112.27	3.4490	3.4490	-1.5399	26.34	0.68	-1.500			
0.7564	48407.56	3.4460	3.4461	-1.5253	26.36	0.70	-1.500			
0.7609	48699.50	3.4430	3.4430	-1.5126	26.38	0.72	-1.500			
0.7654	48987.05	3.4400	3.4400	-1.5002	26.39	0.73	-1.500			
0.7699	49271.66	3.4370	3.4370	-1.4773	26.41	0.75	-1.500			
0.7743	49556.93	3.4340	3.4339	-1.4756	26.43	0.77	-1.500			
0.7787	49837.93	3.4310	3.4312	-1.4623	26.45	0.79	-1.500			
0.7831	50118.52	3.4280	3.4279	-1.4498	26.47	0.81	-1.500			
0.7874	50393.85	3.4250	3.4250	-1.4458	26.49	0.83	-1.500			
0.7917	50670.86	3.4220	3.4220	-1.4346	26.51	0.85	-1.500			
0.7960	50944.31	3.4190	3.4189	-1.4175	26.53	0.87	-1.500			
0.8003	51221.77	3.4160	3.4160	-1.4057	26.55	0.89	-1.500			
0.8045	51489.39	3.4130	3.4130	-1.3756	26.56	0.90	-1.500			
0.8087	51755.25	3.4100	3.4100	-1.3470	26.58	0.92	-1.500			
0.8127	52012.27	3.4070	3.4070	-1.3048	26.61	0.95	-1.500			
0.8165	52256.97	3.4040	3.4040	-1.2514	26.63	0.97	-1.500			
0.8202	52495.03	3.4010	3.4010	-1.2083	26.65	0.99	-1.500			
0.8238	52722.14	3.3980	3.3979	-1.1619	26.67	1.01	-1.500			
0.8272	52939.20	3.3950	3.3949	-1.1087	26.69	1.03	-1.500			
0.8304	53146.17	3.3920	3.3920	-1.0634	26.70	1.04	-1.500			
0.8335	53344.76	3.3890	3.3890	-1.0149	26.72	1.06	-1.500			
0.8365	53537.72	3.3860	3.3860	-0.9759	26.73	1.07	-1.500			
0.8394	53720.68	3.3830	3.3829	-0.9315	26.75	1.09	-1.500			
0.8421	53892.25	3.3800	3.3802	-0.8974	26.76	1.10	-1.500			
0.8447	54060.79	3.3770	3.3769	-0.8649	26.77	1.11	-1.500			
0.8473	54224.70	3.3740	3.3739	-0.8343	26.79	1.13	-1.500			
0.8497	54381.34	3.3710	3.3710	-0.8026	26.80	1.14	-1.500			
0.8521	54533.04	3.3680	3.3680	-0.7769	26.81	1.15	-1.500			
0.8544	54678.83	3.3650	3.3650	-0.7475	26.82	1.16	-1.500			
0.8565	54818.06	3.3620	3.3619	-0.7207	26.83	1.17	-1.500			
0.8586	54951.93	3.3590	3.3590	-0.6947	26.84	1.18	-1.500			
0.8607	55084.01	3.3560	3.3560	-0.6725	26.85	1.19	-1.500			
0.8627	55211.06	3.3530	3.3530	-0.6505	26.86	1.20	-1.500			
0.8646	55334.33	3.3500	3.3501	-0.6291	26.87	1.21	-1.500			
0.8665	55453.10	3.3470	3.3469	-0.6061	26.88	1.22	-1.500			
0.8682	55566.77	3.3440	3.3440	-0.5845	26.89	1.23	-1.500			
0.8699	55676.24	3.3410	3.3410	-0.5668	26.90	1.24	-1.500			
0.8716	55782.64	3.3380	3.3380	-0.5489	26.91	1.25	-1.500			
0.8732	55886.75	3.3350	3.3349	-0.5338	26.92	1.26	-1.500			
0.8748	55987.07	3.3320	3.3320	-0.5158	26.92	1.26	-1.500			
0.8763	56084.90	3.3290	3.3290	-0.4988	26.93	1.27	-1.500			
0.8778	56179.95	3.3260	3.3260	-0.4826	26.93	1.27	-1.500			
0.8792	56269.71	3.3230	3.3231	-0.4677	26.94	1.28	-1.500			
0.8806	56357.50	3.3200	3.3200	-0.4532	26.94	1.28	-1.500			
0.8819	56442.83	3.3170	3.3169	-0.4384	26.95	1.29	-1.500			
0.8832	56525.77	3.3140	3.3140	-0.4251	26.96	1.30	-1.500			
0.8845	56606.57	3.3110	3.3111	-0.4121	26.97	1.31	-1.500			
0.8857	56684.42	3.3080	3.3079	-0.3980	26.98	1.32	-1.500			
0.8869	56759.00	3.3050	3.3050	-0.3838	26.98	1.32	-1.500			
0.8880	56830.46	3.3020	3.3019	-0.3700	26.99	1.33	-1.500			
0.8891	56900.15	3.2990	3.2991	-0.3583	27.00	1.34	-1.500			
0.8901	56968.05	3.2960	3.2958	-0.3474	27.00	1.34	-1.500			
0.8911	57033.52	3.2930	3.2931	-0.3361	27.01	1.35	-1.500			
0.8921	57097.40	3.2900	3.2899	-0.3242	27.02	1.36	-1.500			
0.8931	57158.24	3.2870	3.2871	-0.3143	27.02	1.36	-1.500			
0.8940	57217.56	3.2840	3.2840	-0.3039	27.03	1.37	-1.500			
0.8949	57273.92	3.2810	3.2810	-0.2941	27.03	1.37	-1.500			
0.8958	57329.53	3.2780	3.2780	-0.2861	27.04	1.38	-1.500			
0.8966	57383.40	3.2750	3.2750	-0.2768	27.04	1.38	-1.500			
0.8974	57435.88	3.2720	3.2720	-0.2684	27.05	1.39	-1.500			
0.8982	57487.13	3.2690	3.2691	-0.2606	27.05	1.39	-1.500			
0.8990	57535.65	3.2660	3.2660	-0.2514	27.06	1.40	-1.500			
0.8997	57582.78	3.2630	3.2631	-0.2446	27.06	1.40	-1.500			
0.9004	57628.24	3.2600	3.2600	-0.2366	27.06	1.40	-1.500			
0.9011	57673.31	3.2570	3.2569	-0.2299	27.07	1.41	-1.500			
0.9018	57717.25	3.2540	3.2540	-0.2238	27.07	1.41	-1.500			
0.9025	57759.46	3.2510	3.2511	-0.2170	27.08	1.42	-1.500			
0.9031	57800.17	3.2480	3.2481	-0.2113	27.08	1.42	-1.500			
0.9038	57840.14	3.2450	3.2449	-0.2053	27.08	1.42	-1.500			
0.9044	57878.63	3.2420	3.2420	-0.1997	27.09	1.43	-1.500			
0.9049	57916.17	3.2390	3.2390	-0.1937	27.09	1.43	-1.500			
0.9055	57952.82	3.2360	3.2360	-0.1899	27.10	1.44	-1.500			
0.9061	57989.08	3.2330	3.2331	-0.1861	27.10	1.44	-1.500			
0.9066	58024.40	3.2300	3.2300	-0.1820	27.10	1.44	-1.500			
0.9072	58058.77	3.2270	3.2269	-0.1781	27.11	1.45	-1.500			
0.9077	58092.25	3.2240	3.2240	-0.1742	27.11	1.45	-1.500			
0.9082	58125.45	3.2210	3.2212	-0.1715	27.12	1.46	-1.500			
0.9087	58158.26	3.2180	3.2179	-0.1682	27.12	1.46	-1.500			
0.9092	58190.52	3.2150	3.2150	-0.1648	27.13	1.47	-1.500			
0.9097	58221.67	3.2120	3.2121	-0.1608	27.13	1.47	-1.500			
0.9102	58252.19	3.2090	3.2090	-0.1572	27.14	1.48	-1.500			
0.9107	58282.06	3.2060	3.2060	-0.1544	27.14	1.48	-1.500			
0.9111	58311.28	3.2030	3.2029	-0.1506	27.14	1.48	-1.500			
0.9116	58339.61	3.2000	3.2000	-0.1472	27.15	1.49	-1.500			
0.9120	58367.63	3.1970	3.1970	-0.1447	27.15	1.49	-1.500			
0.9124	58395.15	3.1940	3.1941	-0.1425	27.15	1.49	-1.500			
0.9128	58422.08	3.1910	3.1909	-0.1407	27.16	1.50	-1.500			
0.9133	58448.95	3.1880	3.1880	-0.1385	27.16	1.50	-1.500			
0.9137	58475.37	3.1850	3.1849	-0.1367	27.17	1.51	-1.500			
0.9141	58501.46	3.1820	3.1820	-0.1345	27.17	1.51	-1.500			
0.9145	58527.43	3.1790	3.1791	-0.1330	27.17	1.51	-1.500			
0.9149	58552.65	3.1760	3.1761	-0.1309	27.18	1.52	-1.500			
0.9153	58577.52	3.1730	3.1729	-0.1287	27.18	1.52	-1.500			
0.9157	58601.97	3.1700	3.1699	-0.1265	27.18	1.52	-1.500			
0.9160	58625.82	3.1670	3.1671	-0.1245	27.19	1.53	-1.500			
0.9164	58649.47	3.1640	3.1641	-0.1234	27.19	1.53	-1.500			
0.9168	58673.03	3.1610	3.1609	-0.1222	27.19	1.53	-1.500			
0.9171	58696.69	3.1580	3.1580	-0.1204	27.20	1.54	-1.500			
0.9175	58719.63	3.1550	3.1549	-0.1185	27.20	1.54	-1.500			
0.9178	58742.03	3.1520	3.1519	-0.1172	27.20	1.54	-1.500			
0.9182	58764.44	3.1490	3.1491	-0.1158	27.21	1.55	-1.500			
0.9185	58786.37	3.1460	3.1461	-0.1146	27.21	1.55	-1.500			
0.9189	58808.11	3.1430	3.1428	-0.1132	27.21	1.55	-1.500			
0.9192	58829.77	3.1400	3.1400	-0.1121	27.22	1.56	-1.500			
0.9195	58850.87	3.1370	3.1370	-0.1107	27.22	1.56	-1.500			
0.9199	58872.15	3.1340	3.1341	-0.1099	27.22	1.56	-1.500			
0.9202	58893.55	3.1310	3.1310	-0.1096	27.23	1.57	-1.500			
0.9205	58914.53	3.1280	3.1279	-0.1080	27.23	1.57	-1.500			
0.9209	58935.07	3.1250	3.1250	-0.1065	27.23	1.57	-1.500			
0.9212	58955.32	3.1220	3.1221	-0.1052	27.23	1.57	-1.500			
0.9215	58975.42	3.1190	3.1191	-0.1040	27.24	1.58	-1.500			
0.9218	58995.10	3.1160	3.1160	-0.1032	27.24	1.58	-1.500			
0.9221	59014.72	3.1130	3.1129	-0.1021	27.24	1.58	-1.500			
0.9224	59034.18	3.1100	3.1100	-0.1016	27.25	1.59	-1.500			
0.9227	59053.36	3.1070	3.1069	-0.1006	27.25	1.59	-1.500			
0.9230	59072.78	3.1040	3.1040	-0.1000	27.25	1.59	-1.500			
0.9233	59092.10	3.1010	3.1011	-0.0998	27.25	1.59	-1.500			
0.9236	59111.19	3.0980	3.0980	-0.0990	27.26	1.60	-1.500			
0.9239	59130.22	3.0950	3.0951	-0.0984	27.26	1.60	-1.500			
0.9242	59149.05	3.0920	3.0919	-0.0975	27.26	1.60	-1.500			
0.9245	59167.68	3.0890	3.0890	-0.0965	27.27	1.61	-1.500			
0.9248	59186.04	3.0860	3.0860	-0.0959	27.27	1.61	-1.500			
0.9251	59204.31	3.0830	3.0830	-0.0951	27.27	1.61	-1.500			
0.9254	59222.56	3.0800	3.0800	-0.0943	27.27	1.61	-1.500			
0.9256	59240.62	3.0770	3.0770	-0.0936	27.28	1.62	-1.500			
0.9259	59258.47	3.0740	3.0739	-0.0930	27.28	1.62	-1.500			
0.9262	59276.21	3.0710	3.0711	-0.0922	27.28	1.62	-1.500			
0.9265	59293.80	3.0680	3.0680	-0.0919	27.29	1.63	-1.500			
0.9267	59311.39	3.0650	3.0650	-0.0914	27.29	1.63	-1.500			
0.9270	59328.94	3.0620	3.0618	-0.0909	27.29	1.63	-1.500			
0.9273	59346.25	3.0590	3.0590	-0.0903	27.29	1.63	-1.500			
0.9276	59363.60	3.0560	3.0560	-0.0898	27.30	1.64	-1.500			
0.9278	59380.92	3.0530	3.0529	-0.0895	27.30	1.64	-1.500			
0.9281	59398.09	3.0500	3.0502	-0.0887	27.31	1.65	-1.500			
0.9284	59415.11	3.0470	3.0469	-0.0881	27.31	1.65	-1.500			
0.9286	59431.86	3.0440	3.0442	-0.0874	27.31	1.65	-1.500			
0.9289	59448.51	3.0410	3.0410	-0.0866	27.32	1.66	-1.500			
0.9291	59465.02	3.0380	3.0381	-0.0862	27.32	1.66	-1.500			
0.9294	59481.49	3.0350	3.0349	-0.0857	27.32	1.66	-1.500			
0.9297	59497.89	3.0320	3.0320	-0.0853	27.33	1.67	-1.500			
0.9299	59514.13	3.0290	3.0290	-0.0848	27.33	1.67	-1.500			
0.9302	59530.39	3.0260	3.0260	-0.0846	27.33	1.67	-1.500			
0.9304	59546.71	3.0230	3.0230	-0.0843	27.34	1.68	-1.500			
0.9307	59562.87	3.0200	3.0200	-0.0839	27.34	1.68	-1.500			
0.9309	59578.97	3.0170	3.0170	-0.0836	27.34	1.68	-1.500			
0.9312	59594.95	3.0140	3.0140	-0.0832	27.35	1.69	-1.500			
0.9314	59610.88	3.0110	3.0110	-0.0829	27.35	1.69	-1.500			
0.9317	59626.76	3.0080	3.0081	-0.0825	27.35	1.69	-1.500			
0.9319	59642.57	3.0050	3.0048	-0.0822	27.36	1.70	-1.500			
0.9322	59658.33	3.0020	3.0020	-0.0824	27.36	1.70	-1.500			
