Ah_balance (normalized)	Ah_balance (mAh)	Voltage - fit (V)	Voltage -  interpolate (V)	dQ/dV (1/V)	Temperature (°C)	Temperature - diff (°C)	Current (C)	R_DC 0ms (mOhm)	R_DC 50ms (mOhm)	R_DC 50 ms PEC (mOhm)
0.2893	18517.60	3.9860	3.9859	0.8419	27.20	1.20	1.500			
0.2919	18679.31	3.9830	3.9831	0.8447	27.20	1.20	1.500			
0.2944	18841.68	3.9800	3.9800	0.8477	27.19	1.19	1.500			
0.2970	19005.07	3.9770	3.9769	0.8495	27.19	1.19	1.500			
0.2995	19167.87	3.9740	3.9741	0.8528	27.19	1.19	1.500			
0.3021	19332.16	3.9710	3.9710	0.8568	27.18	1.18	1.500			
0.3046	19497.34	3.9680	3.9680	0.8602	27.18	1.18	1.500			
0.3072	19663.39	3.9650	3.9650	0.8585	27.17	1.17	1.500			
0.3098	19828.32	3.9620	3.9621	0.8614	27.17	1.17	1.500			
0.3124	19994.88	3.9590	3.9590	0.8654	27.17	1.17	1.500			
0.3150	20161.49	3.9560	3.9560	0.8675	27.16	1.16	1.500			
0.3176	20326.78	3.9530	3.9530	0.8700	27.16	1.16	1.500			
0.3202	20494.73	3.9500	3.9501	0.8739	27.15	1.15	1.500			
0.3229	20662.54	3.9470	3.9470	0.8809	27.15	1.15	1.500			
0.3255	20832.52	3.9440	3.9439	0.8876	27.14	1.14	1.500			
0.3282	21002.60	3.9410	3.9410	0.8903	27.14	1.14	1.500			
0.3308	21173.87	3.9380	3.9380	0.8972	27.13	1.13	1.500			
0.3336	21347.34	3.9350	3.9351	0.9011	27.13	1.13	1.500			
0.3363	21520.58	3.9320	3.9319	0.9080	27.12	1.12	1.500			
0.3390	21697.31	3.9290	3.9290	0.9096	27.12	1.12	1.500			
0.3417	21871.72	3.9260	3.9259	0.9098	27.11	1.11	1.500			
0.3445	22046.25	3.9230	3.9231	0.9143	27.11	1.11	1.500			
0.3472	22222.07	3.9200	3.9200	0.9187	27.10	1.10	1.500			
0.3499	22396.41	3.9170	3.9170	0.9296	27.09	1.09	1.500			
0.3528	22576.62	3.9140	3.9140	0.9361	27.09	1.09	1.500			
0.3556	22755.93	3.9110	3.9110	0.9445	27.08	1.08	1.500			
0.3584	22939.97	3.9080	3.9080	0.9565	27.07	1.07	1.500			
0.3613	23124.69	3.9050	3.9050	0.9623	27.07	1.07	1.500			
0.3642	23309.94	3.9020	3.9020	0.9676	27.06	1.06	1.500			
0.3671	23496.23	3.8990	3.8990	0.9731	27.05	1.05	1.500			
0.3700	23682.76	3.8960	3.8959	0.9797	27.05	1.05	1.500			
0.3730	23872.23	3.8930	3.8930	0.9916	27.04	1.04	1.500			
0.3760	24062.41	3.8900	3.8901	0.9971	27.03	1.03	1.500			
0.3790	24254.44	3.8870	3.8869	1.0088	27.02	1.02	1.500			
0.3820	24450.37	3.8840	3.8840	1.0162	27.02	1.02	1.500			
0.3851	24647.70	3.8810	3.8810	1.0186	27.01	1.01	1.500			
0.3882	24842.49	3.8780	3.8780	1.0292	27.00	1.00	1.500			
0.3912	25039.90	3.8750	3.8751	1.0390	26.99	0.99	1.500			
0.3944	25239.06	3.8720	3.8720	1.0550	26.99	0.99	1.500			
0.3975	25441.63	3.8690	3.8690	1.0704	26.98	0.98	1.500			
0.4008	25648.65	3.8660	3.8660	1.0857	26.97	0.97	1.500			
0.4041	25862.56	3.8630	3.8630	1.1041	26.96	0.96	1.500			
0.4074	26076.13	3.8600	3.8600	1.1159	26.95	0.95	1.500			
0.4108	26290.46	3.8570	3.8570	1.1215	26.94	0.94	1.500			
0.4142	26506.68	3.8540	3.8540	1.1379	26.93	0.93	1.500			
0.4176	26724.65	3.8510	3.8511	1.1616	26.91	0.91	1.500			
0.4211	26948.90	3.8480	3.8479	1.1792	26.90	0.90	1.500			
0.4247	27178.23	3.8450	3.8450	1.1991	26.89	0.89	1.500			
0.4283	27412.21	3.8420	3.8420	1.2194	26.88	0.88	1.500			
0.4320	27648.00	3.8390	3.8390	1.2328	26.87	0.87	1.500			
0.4357	27886.52	3.8360	3.8360	1.2553	26.86	0.86	1.500			
0.4395	28127.82	3.8330	3.8331	1.2722	26.85	0.85	1.500			
0.4433	28370.32	3.8300	3.8300	1.2928	26.84	0.84	1.500			
0.4472	28622.59	3.8270	3.8269	1.3222	26.83	0.83	1.500			
0.4512	28878.88	3.8240	3.8240	1.3523	26.82	0.82	1.500			
0.4553	29141.01	3.8210	3.8210	1.3811	26.80	0.80	1.500			
0.4595	29411.09	3.8180	3.8180	1.4047	26.79	0.79	1.500			
0.4638	29683.05	3.8150	3.8150	1.4241	26.78	0.78	1.500			
0.4681	29957.77	3.8120	3.8121	1.4579	26.76	0.76	1.500			
0.4725	30239.60	3.8090	3.8089	1.4835	26.75	0.75	1.500			
0.4770	30526.58	3.8060	3.8060	1.5156	26.73	0.73	1.500			
0.4816	30822.80	3.8030	3.8031	1.5335	26.72	0.72	1.500			
0.4862	31119.60	3.8000	3.8000	1.5645	26.70	0.70	1.500			
0.4910	31421.46	3.7970	3.7971	1.6041	26.68	0.68	1.500			
0.4958	31732.70	3.7940	3.7939	1.6367	26.66	0.66	1.500			
0.5008	32049.73	3.7910	3.7910	1.6607	26.65	0.65	1.500			
0.5059	32374.65	3.7880	3.7881	1.6757	26.63	0.63	1.500			
0.5109	32698.38	3.7850	3.7850	1.7104	26.62	0.62	1.500			
0.5160	33026.09	3.7820	3.7820	1.7271	26.60	0.60	1.500			
0.5213	33360.33	3.7790	3.7783	1.7499	26.58	0.58	1.500	0.340	0.469	
0.5266	33700.48	3.7760	3.7761	1.7631	26.57	0.57	1.500			
0.5319	34044.35	3.7730	3.7730	1.7731	26.55	0.55	1.500			
0.5372	34383.46	3.7700	3.7700	1.7662	26.53	0.53	1.500			
0.5425	34719.45	3.7670	3.7670	1.7606	26.51	0.51	1.500			
0.5478	35058.30	3.7640	3.7640	1.7691	26.50	0.50	1.500			
0.5531	35400.33	3.7610	3.7610	1.7757	26.49	0.49	1.500			
0.5585	35741.19	3.7580	3.7579	1.7650	26.47	0.47	1.500			
0.5637	36077.66	3.7550	3.7551	1.7690	26.46	0.46	1.500			
0.5690	36416.87	3.7520	3.7520	1.7779	26.45	0.45	1.500			
0.5744	36759.64	3.7490	3.7490	1.7903	26.43	0.43	1.500			
0.5797	37102.11	3.7460	3.7460	1.8121	26.42	0.42	1.500			
0.5852	37454.43	3.7430	3.7430	1.8343	26.41	0.41	1.500			
0.5907	37804.64	3.7400	3.7400	1.8591	26.40	0.40	1.500			
0.5963	38162.85	3.7370	3.7370	1.8996	26.38	0.38	1.500			
0.6021	38533.37	3.7340	3.7339	1.9486	26.37	0.37	1.500			
0.6080	38913.81	3.7310	3.7310	1.9762	26.35	0.35	1.500			
0.6140	39295.25	3.7280	3.7281	2.0595	26.34	0.34	1.500			
0.6203	39697.90	3.7250	3.7249	2.1614	26.32	0.32	1.500			
0.6269	40121.08	3.7220	3.7220	2.2187	26.31	0.31	1.500			
0.6337	40559.64	3.7190	3.7191	2.2836	26.29	0.29	1.500			
0.6406	40998.85	3.7160	3.7160	2.3183	26.28	0.28	1.500			
0.6476	41446.34	3.7130	3.7130	2.3588	26.26	0.26	1.500			
0.6548	41906.67	3.7100	3.7100	2.4263	26.25	0.25	1.500			
0.6622	42380.46	3.7070	3.7069	2.4248	26.24	0.24	1.500			
0.6694	42844.15	3.7040	3.7040	2.4025	26.22	0.22	1.500			
0.6767	43309.85	3.7010	3.7009	2.3007	26.21	0.21	1.500			
0.6834	43739.28	3.6980	3.6980	2.1340	26.19	0.19	1.500			
0.6895	44130.76	3.6950	3.6950	1.9846	26.18	0.18	1.500			
0.6952	44494.17	3.6920	3.6919	1.8323	26.16	0.16	1.500			
0.7004	44825.21	3.6890	3.6890	1.7007	26.15	0.15	1.500			
0.7053	45138.01	3.6860	3.6861	1.5980	26.15	0.15	1.500			
0.7099	45434.85	3.6830	3.6830	1.5201	26.14	0.14	1.500			
0.7143	45713.74	3.6800	3.6800	1.4471	26.13	0.13	1.500			
0.7185	45982.88	3.6770	3.6770	1.3928	26.13	0.13	1.500			
0.7225	46241.78	3.6740	3.6739	1.3537	26.12	0.12	1.500			
0.7265	46497.77	3.6710	3.6710	1.3216	26.11	0.11	1.500			
0.7304	46745.89	3.6680	3.6680	1.2937	26.10	0.10	1.500			
0.7342	46991.48	3.6650	3.6650	1.2767	26.09	0.09	1.500			
0.7380	47231.83	3.6620	3.6621	1.2715	26.08	0.08	1.500			
0.7418	47475.32	3.6590	3.6589	1.2732	26.07	0.07	1.500			
0.7456	47717.53	3.6560	3.6560	1.2745	26.06	0.06	1.500			
0.7494	47964.13	3.6530	3.6531	1.2765	26.06	0.06	1.500			
0.7533	48212.01	3.6500	3.6500	1.2816	26.05	0.05	1.500			
0.7572	48459.93	3.6470	3.6470	1.2762	26.04	0.04	1.500			
0.7610	48704.91	3.6440	3.6440	1.2720	26.04	0.04	1.500			
0.7648	48947.69	3.6410	3.6410	1.2635	26.03	0.03	1.500			
0.7686	49189.14	3.6380	3.6380	1.2568	26.03	0.03	1.500			
0.7723	49428.77	3.6350	3.6350	1.2471	26.02	0.02	1.500			
0.7761	49668.36	3.6320	3.6320	1.2406	26.01	0.01	1.500			
0.7798	49906.22	3.6290	3.6289	1.2324	26.00	0.00	1.500			
0.7835	50141.86	3.6260	3.6261	1.2285	25.99	-0.01	1.500			
0.7871	50376.85	3.6230	3.6230	1.2188	25.98	-0.02	1.500			
0.7908	50611.93	3.6200	3.6200	1.2111	25.98	-0.02	1.500			
0.7944	50844.49	3.6170	3.6171	1.1986	25.97	-0.03	1.500			
0.7980	51074.15	3.6140	3.6140	1.1860	25.96	-0.04	1.500			
0.8016	51301.37	3.6110	3.6110	1.1666	25.96	-0.04	1.500			
0.8051	51523.27	3.6080	3.6080	1.1456	25.95	-0.05	1.500			
0.8084	51740.53	3.6050	3.6050	1.1220	25.95	-0.05	1.500			
0.8118	51954.72	3.6020	3.6021	1.1048	25.95	-0.05	1.500			
0.8151	52164.21	3.5990	3.5990	1.0855	25.95	-0.05	1.500			
0.8183	52371.75	3.5960	3.5960	1.0615	25.94	-0.06	1.500			
0.8215	52573.55	3.5930	3.5930	1.0364	25.94	-0.06	1.500			
0.8246	52774.04	3.5900	3.5900	1.0038	25.95	-0.05	1.500			
0.8276	52965.53	3.5870	3.5870	0.9562	25.95	-0.05	1.500			
0.8305	53151.26	3.5840	3.5839	0.8911	25.96	-0.04	1.500			
0.8331	53317.84	3.5810	3.5810	0.8066	25.97	-0.03	1.500			
0.8354	53468.20	3.5780	3.5781	0.7149	25.97	-0.03	1.500			
0.8375	53596.86	3.5750	3.5750	0.6151	25.98	-0.02	1.500			
0.8391	53701.16	3.5720	3.5720	0.5196	25.98	-0.02	1.500			
0.8404	53788.49	3.5690	3.5690	0.4373	25.98	-0.02	1.500			
0.8415	53858.28	3.5660	3.5660	0.3657	25.99	-0.01	1.500			
0.8425	53919.50	3.5630	3.5630	0.3152	25.99	-0.01	1.500			
0.8433	53972.28	3.5600	3.5599	0.2675	25.99	-0.01	1.500			
0.8440	54018.04	3.5570	3.5570	0.2366	25.99	-0.01	1.500			
0.8447	54058.42	3.5540	3.5539	0.2106	25.99	-0.01	1.500			
0.8452	54095.93	3.5510	3.5510	0.1883	26.00	-0.00	1.500			
0.8458	54129.62	3.5480	3.5480	0.1708	26.00	-0.00	1.500			
0.8462	54159.78	3.5450	3.5451	0.1542	26.00	-0.00	1.500			
0.8467	54187.68	3.5420	3.5420	0.1386	26.00	-0.00	1.500			
0.8471	54212.52	3.5390	3.5389	0.1229	26.00	-0.00	1.500			
0.8474	54234.77	3.5360	3.5360	0.1089	26.00	0.00	1.500			
0.8477	54254.34	3.5330	3.5330	0.0948	26.00	0.00	1.500			
0.8480	54271.57	3.5300	3.5301	0.0811	26.00	0.00	1.500			
0.8482	54285.72	3.5270	3.5271	0.0664	26.00	0.00	1.500			
0.8484	54297.20	3.5240	3.5243	0.0512	26.00	0.00	1.500			
0.8485	54305.58	3.5210	3.5216	0.0361	26.00	0.00	1.500			
