Ah_balance (normalized)	Ah_balance (mAh)	Voltage - fit (V)	Voltage -  interpolate (V)	dQ/dV (1/V)	Temperature (°C)	Temperature - diff (°C)	Current (C)	R_DC 0ms (mOhm)	R_DC 50ms (mOhm)	R_DC 50 ms PEC (mOhm)
0.2210	14145.38	3.9140	3.9137	-0.0849	25.79	-0.01	-1.500			
0.2213	14165.44	3.9110	3.9108	-0.1208	25.79	-0.01	-1.500			
0.2217	14191.90	3.9080	3.9080	-0.1525	25.79	-0.01	-1.500			
0.2223	14224.47	3.9050	3.9050	-0.1827	25.79	-0.01	-1.500			
0.2229	14262.80	3.9020	3.9020	-0.2102	25.79	-0.01	-1.500			
0.2235	14306.02	3.8990	3.8991	-0.2370	25.79	-0.01	-1.500			
0.2243	14355.56	3.8960	3.8959	-0.2621	25.79	-0.01	-1.500			
0.2251	14408.12	3.8930	3.8930	-0.2872	25.79	-0.01	-1.500			
0.2260	14464.99	3.8900	3.8901	-0.3132	25.79	-0.01	-1.500			
0.2270	14527.32	3.8870	3.8871	-0.3383	25.79	-0.01	-1.500			
0.2280	14594.76	3.8840	3.8839	-0.3641	25.79	-0.01	-1.500			
0.2292	14667.38	3.8810	3.8810	-0.3905	25.79	-0.01	-1.500			
0.2304	14745.52	3.8780	3.8781	-0.4154	25.80	-0.00	-1.500			
0.2317	14827.80	3.8750	3.8750	-0.4404	25.80	-0.00	-1.500			
0.2331	14915.41	3.8720	3.8720	-0.4602	25.80	-0.00	-1.500			
0.2345	15005.80	3.8690	3.8691	-0.4813	25.80	-0.00	-1.500			
0.2359	15100.26	3.8660	3.8660	-0.5032	25.80	-0.00	-1.500			
0.2375	15198.81	3.8630	3.8630	-0.5227	25.80	0.00	-1.500			
0.2391	15301.25	3.8600	3.8600	-0.5415	25.80	0.00	-1.500			
0.2407	15407.29	3.8570	3.8570	-0.5595	25.80	0.00	-1.500			
0.2425	15517.49	3.8540	3.8540	-0.5739	25.80	0.00	-1.500			
0.2442	15629.76	3.8510	3.8510	-0.5896	25.81	0.01	-1.500			
0.2460	15743.87	3.8480	3.8480	-0.6023	25.81	0.01	-1.500			
0.2478	15860.65	3.8450	3.8450	-0.6155	25.81	0.01	-1.500			
0.2497	15980.96	3.8420	3.8420	-0.6238	25.81	0.01	-1.500			
0.2516	16101.98	3.8390	3.8390	-0.6313	25.81	0.01	-1.500			
0.2535	16224.51	3.8360	3.8361	-0.6398	25.81	0.01	-1.500			
0.2554	16348.18	3.8330	3.8329	-0.6481	25.82	0.02	-1.500			
0.2574	16472.63	3.8300	3.8300	-0.6519	25.82	0.02	-1.500			
0.2594	16598.93	3.8270	3.8269	-0.6544	25.82	0.02	-1.500			
0.2613	16725.23	3.8240	3.8241	-0.6592	25.82	0.02	-1.500			
0.2633	16852.62	3.8210	3.8210	-0.6636	25.82	0.02	-1.500			
0.2653	16980.02	3.8180	3.8179	-0.6658	25.82	0.02	-1.500			
0.2673	17108.15	3.8150	3.8150	-0.6651	25.82	0.02	-1.500			
0.2693	17234.71	3.8120	3.8120	-0.6671	25.83	0.03	-1.500			
0.2713	17364.28	3.8090	3.8091	-0.6708	25.83	0.03	-1.500			
0.2733	17493.55	3.8060	3.8060	-0.6724	25.83	0.03	-1.500			
0.2753	17621.69	3.8030	3.8030	-0.6731	25.83	0.03	-1.500			
0.2774	17751.29	3.8000	3.7999	-0.6753	25.83	0.03	-1.500			
0.2794	17880.78	3.7970	3.7970	-0.6765	25.83	0.03	-1.500			
0.2814	18010.94	3.7940	3.7940	-0.6790	25.84	0.04	-1.500			
0.2835	18141.54	3.7910	3.7910	-0.6786	25.84	0.04	-1.500			
0.2855	18272.55	3.7880	3.7879	-0.6782	25.84	0.04	-1.500			
0.2875	18402.12	3.7850	3.7850	-0.6790	25.84	0.04	-1.500			
0.2896	18532.45	3.7820	3.7821	-0.6799	25.84	0.04	-1.500			
0.2916	18663.29	3.7790	3.7789	-0.6796	25.85	0.05	-1.500			
0.2937	18793.95	3.7760	3.7760	-0.6792	25.85	0.05	-1.500			
0.2957	18925.26	3.7730	3.7730	-0.6772	25.85	0.05	-1.500			
0.2977	19054.44	3.7700	3.7700	-0.6799	25.86	0.06	-1.500			
0.2998	19184.61	3.7670	3.7671	-0.6809	25.86	0.06	-1.500			
0.3018	19313.78	3.7640	3.7639	-0.6811	25.86	0.06	-1.500			
0.3038	19444.93	3.7610	3.7609	-0.6866	25.87	0.07	-1.500			
0.3059	19577.59	3.7580	3.7581	-0.6920	25.87	0.07	-1.500			
0.3080	19711.48	3.7550	3.7550	-0.6922	25.87	0.07	-1.500			
0.3101	19846.05	3.7520	3.7519	-0.6980	25.88	0.08	-1.500			
0.3122	19979.40	3.7490	3.7491	-0.6963	25.88	0.08	-1.500			
0.3143	20112.73	3.7460	3.7460	-0.6970	25.89	0.09	-1.500			
0.3163	20245.90	3.7430	3.7430	-0.7015	25.89	0.09	-1.500			
0.3184	20380.28	3.7400	3.7400	-0.7060	25.90	0.10	-1.500			
0.3206	20517.27	3.7370	3.7370	-0.7104	25.90	0.10	-1.500			
0.3227	20654.34	3.7340	3.7340	-0.7165	25.91	0.11	-1.500			
0.3249	20792.16	3.7310	3.7310	-0.7189	25.91	0.11	-1.500			
0.3271	20931.63	3.7280	3.7280	-0.7231	25.92	0.12	-1.500			
0.3292	21070.48	3.7250	3.7250	-0.7279	25.92	0.12	-1.500			
0.3314	21209.77	3.7220	3.7220	-0.7330	25.93	0.13	-1.500			
0.3336	21350.42	3.7190	3.7190	-0.7392	25.93	0.13	-1.500			
0.3358	21493.14	3.7160	3.7160	-0.7465	25.94	0.14	-1.500			
0.3381	21638.04	3.7130	3.7130	-0.7465	25.94	0.14	-1.500			
0.3403	21781.37	3.7100	3.7100	-0.7567	25.95	0.15	-1.500			
0.3426	21926.26	3.7070	3.7070	-0.7669	25.95	0.15	-1.500			
0.3449	22074.39	3.7040	3.7039	-0.7727	25.95	0.15	-1.500			
0.3472	22222.67	3.7010	3.7010	-0.7844	25.96	0.16	-1.500			
0.3496	22374.06	3.6980	3.6981	-0.7927	25.96	0.16	-1.500			
0.3520	22527.43	3.6950	3.6950	-0.8060	25.96	0.16	-1.500			
0.3544	22684.67	3.6920	3.6920	-0.8199	25.97	0.17	-1.500			
0.3569	22841.63	3.6890	3.6888	-0.8238	25.97	0.17	-1.500			
0.3594	23000.18	3.6860	3.6861	-0.8363	25.98	0.18	-1.500			
0.3619	23163.38	3.6830	3.6831	-0.8492	25.98	0.18	-1.500			
0.3645	23327.59	3.6800	3.6799	-0.8550	25.98	0.18	-1.500			
0.3671	23492.62	3.6770	3.6770	-0.8707	25.99	0.19	-1.500			
0.3697	23658.45	3.6740	3.6741	-0.8796	25.99	0.19	-1.500			
0.3723	23828.84	3.6710	3.6710	-0.8947	26.00	0.20	-1.500			
0.3750	24002.10	3.6680	3.6680	-0.9085	26.00	0.20	-1.500			
0.3778	24177.53	3.6650	3.6650	-0.9203	26.01	0.21	-1.500			
0.3806	24356.02	3.6620	3.6619	-0.9380	26.01	0.21	-1.500			
0.3834	24538.44	3.6590	3.6590	-0.9555	26.01	0.21	-1.500			
0.3863	24721.89	3.6560	3.6561	-0.9681	26.02	0.22	-1.500			
0.3892	24909.92	3.6530	3.6529	-0.9877	26.02	0.22	-1.500			
0.3922	25101.24	3.6500	3.6500	-1.0043	26.02	0.22	-1.500			
0.3952	25294.80	3.6470	3.6470	-1.0200	26.03	0.23	-1.500			
0.3983	25491.59	3.6440	3.6441	-1.0399	26.03	0.23	-1.500			
0.4015	25693.33	3.6410	3.6410	-1.0562	26.03	0.23	-1.500			
0.4047	25898.03	3.6380	3.6379	-1.0757	26.03	0.23	-1.500			
0.4079	26107.50	3.6350	3.6350	-1.0909	26.04	0.24	-1.500			
0.4112	26318.35	3.6320	3.6320	-1.1067	26.04	0.24	-1.500			
0.4146	26532.91	3.6290	3.6290	-1.1244	26.04	0.24	-1.500			
0.4180	26749.81	3.6260	3.6260	-1.1423	26.05	0.25	-1.500			
0.4214	26968.69	3.6230	3.6230	-1.1594	26.05	0.25	-1.500			
0.4249	27192.91	3.6200	3.6200	-1.1876	26.05	0.25	-1.500			
0.4285	27422.62	3.6170	3.6170	-1.2106	26.05	0.25	-1.500			
0.4322	27659.58	3.6140	3.6140	-1.2290	26.06	0.26	-1.500			
0.4359	27898.80	3.6110	3.6110	-1.2488	26.06	0.26	-1.500			
0.4397	28140.52	3.6080	3.6080	-1.2678	26.06	0.26	-1.500			
0.4435	28384.51	3.6050	3.6049	-1.2847	26.06	0.26	-1.500			
0.4474	28631.71	3.6020	3.6020	-1.3076	26.06	0.26	-1.500			
0.4513	28883.84	3.5990	3.5990	-1.3207	26.06	0.26	-1.500			
0.4553	29141.71	3.5960	3.5960	-1.3432	26.06	0.26	-1.500			
0.4594	29401.64	3.5930	3.5930	-1.3656	26.06	0.26	-1.500			
0.4635	29664.82	3.5900	3.5899	-1.3826	26.06	0.26	-1.500			
0.4677	29932.40	3.5870	3.5870	-1.3957	26.06	0.26	-1.500			
0.4719	30200.68	3.5840	3.5840	-1.4173	26.07	0.27	-1.500			
0.4762	30474.51	3.5810	3.5810	-1.4354	26.07	0.27	-1.500			
0.4805	30754.38	3.5780	3.5779	-1.4578	26.08	0.28	-1.500			
0.4849	31034.88	3.5750	3.5750	-1.4754	26.08	0.28	-1.500			
0.4894	31320.22	3.5720	3.5720	-1.4868	26.08	0.28	-1.500			
0.4939	31607.71	3.5690	3.5690	-1.5108	26.08	0.28	-1.500			
0.4985	31900.95	3.5660	3.5660	-1.5274	26.08	0.28	-1.500			
0.5030	32191.90	3.5630	3.5630	-1.5429	26.08	0.28	-1.500			
0.5077	32492.88	3.5600	3.5600	-1.5580	26.08	0.28	-1.500			
0.5124	32792.88	3.5570	3.5570	-1.5774	26.08	0.28	-1.500			
0.5172	33097.80	3.5540	3.5540	-1.5908	26.08	0.28	-1.500			
0.5220	33406.82	3.5510	3.5511	-1.6128	26.09	0.29	-1.500			
0.5268	33717.32	3.5480	3.5480	-1.6218	26.09	0.29	-1.500			
0.5317	34031.52	3.5450	3.5450	-1.6406	26.10	0.30	-1.500			
0.5367	34346.70	3.5420	3.5421	-1.6518	26.10	0.30	-1.500			
0.5417	34666.05	3.5390	3.5390	-1.6721	26.10	0.30	-1.500			
0.5467	34986.70	3.5360	3.5359	-1.6802	26.11	0.31	-1.500			
0.5518	35312.70	3.5330	3.5330	-1.6874	26.11	0.31	-1.500			
0.5568	35638.10	3.5300	3.5300	-1.6970	26.12	0.32	-1.500	0.387	0.530	
0.5619	35964.11	3.5270	3.5271	-1.7019	26.12	0.32	-1.500			
0.5671	36291.38	3.5240	3.5239	-1.7069	26.12	0.32	-1.500			
0.5722	36618.03	3.5210	3.5210	-1.7198	26.13	0.33	-1.500			
0.5773	36948.54	3.5180	3.5180	-1.7271	26.13	0.33	-1.500			
0.5826	37284.94	3.5150	3.5150	-1.7376	26.14	0.34	-1.500			
0.5878	37619.69	3.5120	3.5120	-1.7418	26.14	0.34	-1.500			
0.5930	37953.70	3.5090	3.5090	-1.7454	26.15	0.35	-1.500			
0.5983	38289.96	3.5060	3.5060	-1.7392	26.15	0.35	-1.500			
0.6035	38622.47	3.5030	3.5030	-1.7329	26.16	0.36	-1.500			
0.6087	38954.03	3.5000	3.5000	-1.7341	26.17	0.37	-1.500			
0.6139	39287.92	3.4970	3.4970	-1.7419	26.17	0.37	-1.500			
0.6191	39623.65	3.4940	3.4939	-1.7425	26.19	0.39	-1.500			
0.6243	39957.44	3.4910	3.4910	-1.7352	26.20	0.40	-1.500			
0.6296	40291.22	3.4880	3.4881	-1.7316	26.21	0.41	-1.500			
0.6348	40625.68	3.4850	3.4850	-1.7262	26.22	0.42	-1.500			
0.6399	40954.20	3.4820	3.4819	-1.7161	26.23	0.43	-1.500			
0.6450	41282.59	3.4790	3.4790	-1.7047	26.23	0.43	-1.500			
0.6502	41611.51	3.4760	3.4760	-1.6904	26.24	0.44	-1.500			
0.6553	41936.57	3.4730	3.4730	-1.6713	26.25	0.45	-1.500			
0.6602	42254.21	3.4700	3.4700	-1.6528	26.26	0.46	-1.500			
0.6652	42570.07	3.4670	3.4669	-1.6340	26.27	0.47	-1.500			
0.6700	42880.05	3.4640	3.4640	-1.6224	26.28	0.48	-1.500			
0.6748	43189.69	3.4610	3.4610	-1.5955	26.29	0.49	-1.500			
0.6796	43495.30	3.4580	3.4580	-1.5794	26.30	0.50	-1.500			
0.6844	43800.52	3.4550	3.4550	-1.5540	26.31	0.51	-1.500			
0.6890	44096.55	3.4520	3.4519	-1.5262	26.33	0.53	-1.500			
0.6935	44384.05	3.4490	3.4490	-1.5039	26.34	0.54	-1.500			
0.6980	44670.74	3.4460	3.4459	-1.4869	26.36	0.56	-1.500			
0.7024	44951.13	3.4430	3.4429	-1.4652	26.37	0.57	-1.500			
0.7068	45235.05	3.4400	3.4400	-1.4528	26.38	0.58	-1.500			
0.7111	45510.60	3.4370	3.4371	-1.4416	26.40	0.60	-1.500			
0.7154	45787.27	3.4340	3.4339	-1.4306	26.41	0.61	-1.500			
0.7197	46059.02	3.4310	3.4310	-1.4148	26.43	0.63	-1.500			
0.7239	46328.97	3.4280	3.4280	-1.4026	26.44	0.64	-1.500			
0.7281	46597.46	3.4250	3.4249	-1.3884	26.46	0.66	-1.500			
0.7323	46865.70	3.4220	3.4220	-1.3783	26.47	0.67	-1.500			
0.7364	47129.64	3.4190	3.4191	-1.3597	26.49	0.69	-1.500			
0.7405	47388.93	3.4160	3.4159	-1.3364	26.51	0.71	-1.500			
0.7445	47645.06	3.4130	3.4130	-1.3199	26.52	0.72	-1.500			
0.7484	47894.87	3.4100	3.4100	-1.3015	26.54	0.74	-1.500			
0.7523	48145.33	3.4070	3.4070	-1.2668	26.56	0.76	-1.500			
0.7561	48388.92	3.4040	3.4039	-1.2375	26.58	0.78	-1.500			
0.7597	48622.52	3.4010	3.4011	-1.2020	26.59	0.79	-1.500			
0.7633	48851.80	3.3980	3.3979	-1.1644	26.61	0.81	-1.500			
0.7667	49070.56	3.3950	3.3949	-1.1259	26.62	0.82	-1.500			
0.7700	49281.56	3.3920	3.3920	-1.0851	26.64	0.84	-1.500			
0.7732	49485.22	3.3890	3.3891	-1.0535	26.65	0.85	-1.500			
0.7764	49687.17	3.3860	3.3860	-1.0187	26.66	0.86	-1.500			
0.7793	49878.07	3.3830	3.3830	-0.9755	26.68	0.88	-1.500			
0.7822	50061.08	3.3800	3.3800	-0.9388	26.69	0.89	-1.500			
0.7850	50237.57	3.3770	3.3772	-0.9064	26.70	0.90	-1.500			
0.7876	50407.21	3.3740	3.3739	-0.8705	26.71	0.91	-1.500			
0.7902	50570.62	3.3710	3.3710	-0.8376	26.72	0.92	-1.500			
0.7926	50728.39	3.3680	3.3680	-0.8052	26.73	0.93	-1.500			
0.7950	50881.09	3.3650	3.3651	-0.7809	26.74	0.94	-1.500			
0.7973	51026.88	3.3620	3.3620	-0.7519	26.76	0.96	-1.500			
0.7995	51167.61	3.3590	3.3590	-0.7270	26.77	0.97	-1.500			
0.8016	51305.51	3.3560	3.3559	-0.7017	26.78	0.98	-1.500			
0.8037	51437.37	3.3530	3.3530	-0.6783	26.79	0.99	-1.500			
0.8057	51565.39	3.3500	3.3502	-0.6604	26.80	1.00	-1.500			
0.8077	51690.21	3.3470	3.3469	-0.6397	26.81	1.01	-1.500			
0.8095	51810.63	3.3440	3.3439	-0.6164	26.81	1.01	-1.500			
0.8114	51927.40	3.3410	3.3411	-0.5961	26.82	1.02	-1.500			
0.8131	52039.63	3.3380	3.3381	-0.5829	26.83	1.03	-1.500			
0.8148	52150.21	3.3350	3.3350	-0.5643	26.84	1.04	-1.500			
0.8165	52255.15	3.3320	3.3319	-0.5454	26.84	1.04	-1.500			
0.8181	52357.95	3.3290	3.3290	-0.5298	26.85	1.05	-1.500			
0.8197	52458.74	3.3260	3.3261	-0.5181	26.86	1.06	-1.500			
0.8212	52557.17	3.3230	3.3230	-0.5043	26.86	1.06	-1.500			
0.8227	52653.10	3.3200	3.3200	-0.4877	26.87	1.07	-1.500			
0.8241	52744.32	3.3170	3.3170	-0.4720	26.88	1.08	-1.500			
0.8255	52833.75	3.3140	3.3141	-0.4620	26.88	1.08	-1.500			
0.8269	52920.64	3.3110	3.3109	-0.4490	26.89	1.09	-1.500			
0.8282	53005.60	3.3080	3.3079	-0.4364	26.90	1.10	-1.500			
0.8295	53088.10	3.3050	3.3050	-0.4243	26.90	1.10	-1.500			
0.8308	53169.19	3.3020	3.3020	-0.4129	26.91	1.11	-1.500			
0.8320	53247.38	3.2990	3.2990	-0.4029	26.91	1.11	-1.500			
0.8332	53322.63	3.2960	3.2960	-0.3908	26.92	1.12	-1.500			
0.8343	53396.49	3.2930	3.2929	-0.3791	26.92	1.12	-1.500			
0.8354	53467.72	3.2900	3.2900	-0.3715	26.93	1.13	-1.500			
0.8365	53538.23	3.2870	3.2871	-0.3644	26.93	1.13	-1.500			
0.8376	53607.61	3.2840	3.2840	-0.3583	26.94	1.14	-1.500			
0.8387	53676.03	3.2810	3.2809	-0.3504	26.94	1.14	-1.500			
0.8397	53742.45	3.2780	3.2780	-0.3407	26.95	1.15	-1.500			
0.8407	53807.47	3.2750	3.2751	-0.3318	26.96	1.16	-1.500			
0.8417	53870.72	3.2720	3.2720	-0.3244	26.96	1.16	-1.500			
0.8427	53931.39	3.2690	3.2689	-0.3145	26.97	1.17	-1.500			
0.8436	53990.34	3.2660	3.2660	-0.3068	26.98	1.18	-1.500			
0.8445	54048.05	3.2630	3.2630	-0.3015	26.98	1.18	-1.500			
0.8454	54105.61	3.2600	3.2600	-0.2983	26.99	1.19	-1.500			
0.8463	54162.71	3.2570	3.2570	-0.2932	26.99	1.19	-1.500			
0.8472	54218.96	3.2540	3.2539	-0.2874	27.00	1.20	-1.500			
0.8480	54273.70	3.2510	3.2511	-0.2807	27.00	1.20	-1.500			
0.8489	54327.36	3.2480	3.2480	-0.2748	27.01	1.21	-1.500			
0.8497	54379.30	3.2450	3.2449	-0.2678	27.01	1.21	-1.500			
0.8505	54428.98	3.2420	3.2420	-0.2611	27.02	1.22	-1.500			
0.8512	54478.05	3.2390	3.2390	-0.2582	27.03	1.23	-1.500			
0.8520	54527.57	3.2360	3.2360	-0.2552	27.03	1.23	-1.500			
0.8528	54576.27	3.2330	3.2330	-0.2525	27.03	1.23	-1.500			
0.8535	54624.80	3.2300	3.2301	-0.2482	27.04	1.24	-1.500			
0.8543	54672.42	3.2270	3.2270	-0.2440	27.04	1.24	-1.500			
0.8550	54718.83	3.2240	3.2240	-0.2397	27.05	1.25	-1.500			
0.8557	54764.24	3.2210	3.2210	-0.2345	27.05	1.25	-1.500			
0.8564	54808.32	3.2180	3.2179	-0.2311	27.06	1.26	-1.500			
0.8571	54852.20	3.2150	3.2150	-0.2280	27.06	1.26	-1.500			
0.8577	54895.72	3.2120	3.2119	-0.2250	27.07	1.27	-1.500			
0.8584	54938.69	3.2090	3.2091	-0.2226	27.07	1.27	-1.500			
0.8591	54981.55	3.2060	3.2059	-0.2188	27.07	1.27	-1.500			
0.8597	55023.25	3.2030	3.2030	-0.2160	27.08	1.28	-1.500			
0.8604	55064.21	3.2000	3.2001	-0.2128	27.08	1.28	-1.500			
0.8610	55104.74	3.1970	3.1969	-0.2100	27.09	1.29	-1.500			
0.8616	55144.52	3.1940	3.1940	-0.2069	27.09	1.29	-1.500			
0.8622	55183.89	3.1910	3.1910	-0.2046	27.10	1.30	-1.500			
0.8629	55223.10	3.1880	3.1880	-0.2019	27.10	1.30	-1.500			
0.8635	55261.51	3.1850	3.1850	-0.2004	27.11	1.31	-1.500			
0.8641	55299.76	3.1820	3.1820	-0.1981	27.11	1.31	-1.500			
0.8646	55337.24	3.1790	3.1790	-0.1961	27.12	1.32	-1.500			
0.8652	55374.78	3.1760	3.1760	-0.1941	27.12	1.32	-1.500			
0.8658	55412.16	3.1730	3.1730	-0.1921	27.13	1.33	-1.500			
0.8664	55448.82	3.1700	3.1699	-0.1897	27.13	1.33	-1.500			
0.8670	55485.10	3.1670	3.1670	-0.1877	27.14	1.34	-1.500			
0.8675	55520.93	3.1640	3.1640	-0.1862	27.14	1.34	-1.500			
0.8681	55556.24	3.1610	3.1610	-0.1830	27.15	1.35	-1.500			
0.8686	55591.20	3.1580	3.1578	-0.1812	27.15	1.35	-1.500			
0.8691	55625.58	3.1550	3.1550	-0.1800	27.16	1.36	-1.500			
0.8697	55659.92	3.1520	3.1520	-0.1791	27.16	1.36	-1.500			
0.8702	55694.59	3.1490	3.1490	-0.1779	27.17	1.37	-1.500			
0.8708	55728.58	3.1460	3.1459	-0.1761	27.17	1.37	-1.500			
0.8713	55762.12	3.1430	3.1430	-0.1749	27.18	1.38	-1.500			
0.8718	55795.53	3.1400	3.1402	-0.1736	27.18	1.38	-1.500			
0.8723	55829.26	3.1370	3.1369	-0.1724	27.19	1.39	-1.500			
0.8728	55862.11	3.1340	3.1339	-0.1698	27.19	1.39	-1.500			
0.8733	55894.30	3.1310	3.1310	-0.1676	27.20	1.40	-1.500			
0.8738	55926.27	3.1280	3.1280	-0.1657	27.21	1.41	-1.500			
0.8743	55957.64	3.1250	3.1250	-0.1651	27.21	1.41	-1.500			
0.8748	55989.22	3.1220	3.1220	-0.1639	27.22	1.42	-1.500			
0.8753	56020.09	3.1190	3.1190	-0.1624	27.22	1.42	-1.500			
0.8758	56051.11	3.1160	3.1159	-0.1618	27.23	1.43	-1.500			
0.8763	56082.55	3.1130	3.1130	-0.1619	27.23	1.43	-1.500			
0.8768	56113.54	3.1100	3.1101	-0.1609	27.24	1.44	-1.500			
0.8773	56144.59	3.1070	3.1069	-0.1589	27.24	1.44	-1.500			
0.8777	56175.08	3.1040	3.1040	-0.1578	27.25	1.45	-1.500			
0.8782	56204.73	3.1010	3.1010	-0.1557	27.25	1.45	-1.500			
0.8787	56234.53	3.0980	3.0982	-0.1547	27.26	1.46	-1.500			
0.8791	56264.16	3.0950	3.0949	-0.1538	27.26	1.46	-1.500			
0.8796	56293.33	3.0920	3.0921	-0.1527	27.27	1.47	-1.500			
0.8800	56322.56	3.0890	3.0890	-0.1523	27.27	1.47	-1.500			
0.8805	56351.89	3.0860	3.0860	-0.1511	27.28	1.48	-1.500			
0.8810	56381.10	3.0830	3.0830	-0.1507	27.28	1.48	-1.500			
0.8814	56409.90	3.0800	3.0800	-0.1492	27.29	1.49	-1.500			
0.8818	56438.40	3.0770	3.0769	-0.1479	27.29	1.49	-1.500			
0.8823	56466.63	3.0740	3.0740	-0.1469	27.30	1.50	-1.500			
0.8827	56494.63	3.0710	3.0711	-0.1462	27.30	1.50	-1.500			
0.8832	56522.62	3.0680	3.0679	-0.1449	27.31	1.51	-1.500			
0.8836	56550.38	3.0650	3.0650	-0.1442	27.31	1.51	-1.500			
0.8840	56578.09	3.0620	3.0620	-0.1433	27.32	1.52	-1.500			
0.8845	56605.39	3.0590	3.0591	-0.1425	27.32	1.52	-1.500			
0.8849	56632.77	3.0560	3.0559	-0.1419	27.33	1.53	-1.500			
0.8853	56659.95	3.0530	3.0530	-0.1409	27.33	1.53	-1.500			
0.8857	56686.98	3.0500	3.0500	-0.1394	27.34	1.54	-1.500			
0.8861	56713.55	3.0470	3.0470	-0.1381	27.34	1.54	-1.500			
0.8866	56739.95	3.0440	3.0441	-0.1369	27.35	1.55	-1.500			
0.8870	56766.14	3.0410	3.0410	-0.1367	27.35	1.55	-1.500			
0.8874	56792.21	3.0380	3.0380	-0.1356	27.36	1.56	-1.500			
0.8878	56817.93	3.0350	3.0349	-0.1346	27.36	1.56	-1.500			
0.8882	56843.79	3.0320	3.0320	-0.1343	27.37	1.57	-1.500			
0.8886	56869.58	3.0290	3.0291	-0.1339	27.37	1.57	-1.500			
0.8890	56895.54	3.0260	3.0260	-0.1335	27.38	1.58	-1.500			
0.8894	56921.07	3.0230	3.0229	-0.1324	27.38	1.58	-1.500			
0.8898	56946.40	3.0200	3.0200	-0.1315	27.39	1.59	-1.500			
0.8902	56971.37	3.0170	3.0171	-0.1306	27.39	1.59	-1.500			
0.8906	56996.49	3.0140	3.0140	-0.1302	27.40	1.60	-1.500			
0.8910	57021.40	3.0110	3.0109	-0.1294	27.40	1.60	-1.500			
0.8913	57046.05	3.0080	3.0079	-0.1287	27.41	1.61	-1.500			
0.8917	57070.64	3.0050	3.0050	-0.1289	27.41	1.61	-1.500			
0.8921	57095.33	3.0020	3.0020	-0.1277	27.42	1.62	-1.500			
