Ah_balance (normalized)	Ah_balance (mAh)	Voltage - fit (V)	Voltage -  interpolate (V)	dQ/dV (1/V)	Temperature (°C)	Temperature - diff (°C)	Current (C)	R_DC 0ms (mOhm)	R_DC 50ms (mOhm)	R_DC 50 ms PEC (mOhm)
0.2041	13060.34	3.9110	3.9108	-0.1136	25.98	0.00	-1.500			
0.2045	13085.32	3.9080	3.9079	-0.1448	25.98	0.00	-1.500			
0.2049	13116.45	3.9050	3.9050	-0.1746	25.98	0.00	-1.500			
0.2055	13152.70	3.9020	3.9020	-0.2037	25.98	0.00	-1.500			
0.2062	13194.77	3.8990	3.8990	-0.2332	25.98	0.00	-1.500			
0.2069	13242.64	3.8960	3.8960	-0.2625	25.98	0.00	-1.500			
0.2078	13296.06	3.8930	3.8929	-0.2891	25.98	0.00	-1.500			
0.2087	13354.36	3.8900	3.8901	-0.3156	25.98	0.00	-1.500			
0.2097	13418.21	3.8870	3.8870	-0.3400	25.98	0.00	-1.500			
0.2107	13485.91	3.8840	3.8841	-0.3658	25.98	0.00	-1.500			
0.2118	13557.68	3.8810	3.8810	-0.3929	25.98	0.00	-1.500			
0.2131	13635.44	3.8780	3.8780	-0.4192	25.98	0.00	-1.500			
0.2144	13718.58	3.8750	3.8749	-0.4455	25.98	0.00	-1.500			
0.2157	13807.30	3.8720	3.8720	-0.4706	25.98	0.00	-1.500			
0.2172	13901.63	3.8690	3.8690	-0.4928	25.98	0.00	-1.500			
0.2187	13998.54	3.8660	3.8660	-0.5147	25.98	0.00	-1.500			
0.2203	14098.78	3.8630	3.8631	-0.5361	25.98	0.00	-1.500			
0.2219	14203.73	3.8600	3.8600	-0.5565	25.98	0.00	-1.500			
0.2236	14313.34	3.8570	3.8569	-0.5747	25.98	0.00	-1.500			
0.2254	14425.82	3.8540	3.8540	-0.5909	25.98	0.00	-1.500			
0.2272	14542.30	3.8510	3.8511	-0.6086	25.98	0.00	-1.500			
0.2291	14661.00	3.8480	3.8480	-0.6205	25.98	0.00	-1.500			
0.2310	14780.80	3.8450	3.8449	-0.6306	25.98	0.00	-1.500			
0.2329	14902.74	3.8420	3.8420	-0.6421	25.98	0.00	-1.500			
0.2348	15027.64	3.8390	3.8390	-0.6503	25.98	0.00	-1.500			
0.2368	15153.40	3.8360	3.8360	-0.6592	25.98	0.00	-1.500			
0.2388	15280.90	3.8330	3.8330	-0.6675	25.98	0.00	-1.500			
0.2408	15409.93	3.8300	3.8299	-0.6725	25.98	0.00	-1.500			
0.2428	15540.63	3.8270	3.8270	-0.6773	25.98	0.00	-1.500			
0.2449	15670.42	3.8240	3.8240	-0.6823	25.98	0.00	-1.500			
0.2469	15802.19	3.8210	3.8211	-0.6870	25.98	0.00	-1.500			
0.2490	15935.16	3.8180	3.8179	-0.6924	25.99	0.01	-1.500			
0.2511	16067.38	3.8150	3.8149	-0.6913	25.99	0.01	-1.500			
0.2531	16200.33	3.8120	3.8120	-0.6951	25.99	0.01	-1.500			
0.2552	16334.82	3.8090	3.8091	-0.6978	26.00	0.02	-1.500			
0.2573	16468.85	3.8060	3.8059	-0.6980	26.00	0.02	-1.500			
0.2594	16602.17	3.8030	3.8031	-0.6982	26.00	0.02	-1.500			
0.2615	16736.87	3.8000	3.8000	-0.7015	26.01	0.03	-1.500			
0.2636	16871.85	3.7970	3.7970	-0.7025	26.01	0.03	-1.500			
0.2657	17007.66	3.7940	3.7940	-0.7035	26.01	0.03	-1.500			
0.2678	17141.94	3.7910	3.7910	-0.7027	26.02	0.04	-1.500			
0.2700	17277.38	3.7880	3.7880	-0.7037	26.02	0.04	-1.500			
0.2721	17411.96	3.7850	3.7850	-0.7032	26.03	0.05	-1.500			
0.2742	17547.36	3.7820	3.7820	-0.7000	26.03	0.05	-1.500			
0.2763	17681.41	3.7790	3.7790	-0.7014	26.04	0.06	-1.500			
0.2784	17816.19	3.7760	3.7760	-0.7015	26.04	0.06	-1.500			
0.2805	17950.29	3.7730	3.7730	-0.7026	26.05	0.07	-1.500			
0.2826	18084.71	3.7700	3.7700	-0.7045	26.05	0.07	-1.500			
0.2847	18220.14	3.7670	3.7670	-0.7070	26.06	0.08	-1.500			
0.2868	18356.79	3.7640	3.7640	-0.7106	26.06	0.08	-1.500			
0.2890	18495.79	3.7610	3.7610	-0.7135	26.07	0.09	-1.500			
0.2911	18632.30	3.7580	3.7580	-0.7086	26.07	0.09	-1.500			
0.2933	18769.14	3.7550	3.7550	-0.7064	26.08	0.10	-1.500			
0.2954	18902.74	3.7520	3.7520	-0.7063	26.08	0.10	-1.500			
0.2974	19035.82	3.7490	3.7490	-0.7071	26.09	0.11	-1.500			
0.2995	19171.01	3.7460	3.7460	-0.7141	26.09	0.11	-1.500			
0.3017	19308.67	3.7430	3.7430	-0.7185	26.10	0.12	-1.500			
0.3039	19449.63	3.7400	3.7400	-0.7277	26.10	0.12	-1.500			
0.3061	19590.00	3.7370	3.7371	-0.7299	26.11	0.13	-1.500			
0.3083	19730.80	3.7340	3.7340	-0.7346	26.11	0.13	-1.500			
0.3105	19870.43	3.7310	3.7310	-0.7380	26.12	0.14	-1.500			
0.3127	20012.13	3.7280	3.7278	-0.7374	26.12	0.14	-1.500			
0.3149	20155.28	3.7250	3.7250	-0.7409	26.13	0.15	-1.500			
0.3172	20297.74	3.7220	3.7221	-0.7475	26.14	0.16	-1.500			
0.3194	20442.25	3.7190	3.7192	-0.7505	26.14	0.16	-1.500			
0.3217	20586.39	3.7160	3.7160	-0.7549	26.15	0.17	-1.500			
0.3239	20729.22	3.7130	3.7130	-0.7622	26.15	0.17	-1.500			
0.3262	20876.16	3.7100	3.7100	-0.7734	26.16	0.18	-1.500			
0.3285	21026.97	3.7070	3.7069	-0.7853	26.16	0.18	-1.500			
0.3309	21178.97	3.7040	3.7040	-0.7897	26.17	0.19	-1.500			
0.3333	21331.46	3.7010	3.7010	-0.7978	26.17	0.19	-1.500			
0.3357	21486.71	3.6980	3.6980	-0.8055	26.18	0.20	-1.500			
0.3381	21639.84	3.6950	3.6950	-0.8149	26.19	0.21	-1.500			
0.3406	21796.27	3.6920	3.6921	-0.8261	26.19	0.21	-1.500			
0.3431	21955.70	3.6890	3.6889	-0.8360	26.20	0.22	-1.500			
0.3456	22117.67	3.6860	3.6860	-0.8490	26.20	0.22	-1.500			
0.3482	22282.98	3.6830	3.6831	-0.8629	26.21	0.23	-1.500			
0.3508	22449.01	3.6800	3.6800	-0.8722	26.21	0.23	-1.500			
0.3534	22618.29	3.6770	3.6770	-0.8859	26.22	0.24	-1.500			
0.3561	22788.28	3.6740	3.6740	-0.8992	26.22	0.24	-1.500			
0.3588	22961.23	3.6710	3.6710	-0.9165	26.22	0.24	-1.500			
0.3616	23140.55	3.6680	3.6680	-0.9261	26.23	0.25	-1.500			
0.3644	23319.61	3.6650	3.6650	-0.9390	26.23	0.25	-1.500			
0.3672	23500.56	3.6620	3.6620	-0.9549	26.24	0.26	-1.500			
0.3701	23685.39	3.6590	3.6589	-0.9673	26.24	0.26	-1.500			
0.3730	23871.39	3.6560	3.6560	-0.9830	26.24	0.26	-1.500			
0.3759	24060.35	3.6530	3.6531	-0.9990	26.25	0.27	-1.500			
0.3790	24253.83	3.6500	3.6500	-1.0184	26.25	0.27	-1.500			
0.3821	24453.25	3.6470	3.6470	-1.0436	26.26	0.28	-1.500			
0.3852	24652.76	3.6440	3.6440	-1.0622	26.26	0.28	-1.500			
0.3884	24859.45	3.6410	3.6410	-1.0796	26.26	0.28	-1.500			
0.3917	25070.68	3.6380	3.6380	-1.1010	26.27	0.29	-1.500			
0.3950	25282.68	3.6350	3.6351	-1.1208	26.27	0.29	-1.500			
0.3984	25500.46	3.6320	3.6320	-1.1387	26.27	0.29	-1.500			
0.4019	25720.59	3.6290	3.6290	-1.1586	26.27	0.29	-1.500			
0.4054	25943.69	3.6260	3.6261	-1.1782	26.27	0.29	-1.500			
0.4090	26174.17	3.6230	3.6230	-1.2028	26.28	0.30	-1.500			
0.4126	26408.21	3.6200	3.6200	-1.2261	26.28	0.30	-1.500			
0.4163	26645.58	3.6170	3.6170	-1.2448	26.28	0.30	-1.500			
0.4201	26886.22	3.6140	3.6141	-1.2619	26.28	0.30	-1.500			
0.4239	27130.82	3.6110	3.6109	-1.2856	26.28	0.30	-1.500			
0.4278	27378.22	3.6080	3.6080	-1.3046	26.28	0.30	-1.500			
0.4317	27627.46	3.6050	3.6051	-1.3269	26.29	0.31	-1.500			
0.4358	27891.07	3.6020	3.6020	-1.3538	26.29	0.31	-1.500			
0.4399	28152.12	3.5990	3.5990	-1.3747	26.29	0.31	-1.500			
0.4440	28418.05	3.5960	3.5962	-1.3971	26.29	0.31	-1.500			
0.4483	28688.88	3.5930	3.5929	-1.4128	26.29	0.31	-1.500			
0.4525	28959.51	3.5900	3.5899	-1.4312	26.29	0.31	-1.500			
0.4568	29234.65	3.5870	3.5870	-1.4501	26.29	0.31	-1.500			
0.4612	29518.32	3.5840	3.5841	-1.4724	26.29	0.31	-1.500			
0.4657	29802.93	3.5810	3.5809	-1.4915	26.29	0.31	-1.500			
0.4701	30087.63	3.5780	3.5781	-1.5120	26.29	0.31	-1.500			
0.4747	30381.98	3.5750	3.5750	-1.5336	26.29	0.31	-1.500			
0.4794	30679.13	3.5720	3.5719	-1.5562	26.29	0.31	-1.500			
0.4840	30978.44	3.5690	3.5690	-1.5742	26.30	0.32	-1.500			
0.4888	31282.42	3.5660	3.5661	-1.5956	26.30	0.32	-1.500			
0.4936	31591.82	3.5630	3.5629	-1.6137	26.30	0.32	-1.500			
0.4985	31901.95	3.5600	3.5600	-1.6285	26.30	0.32	-1.500			
0.5034	32215.97	3.5570	3.5569	-1.6526	26.30	0.32	-1.500			
0.5084	32538.13	3.5540	3.5540	-1.6713	26.30	0.32	-1.500			
0.5134	32860.63	3.5510	3.5509	-1.6824	26.30	0.32	-1.500			
0.5185	33186.41	3.5480	3.5481	-1.6933	26.30	0.32	-1.500			
0.5236	33513.16	3.5450	3.5450	-1.7048	26.31	0.33	-1.500			
0.5288	33840.95	3.5420	3.5420	-1.7232	26.31	0.33	-1.500			
0.5339	34171.25	3.5390	3.5390	-1.7402	26.32	0.34	-1.500			
0.5392	34507.63	3.5360	3.5360	-1.7472	26.32	0.34	-1.500			
0.5444	34844.35	3.5330	3.5338	-1.7585	26.33	0.35	-1.500	0.380	0.515	
0.5497	35183.75	3.5300	3.5301	-1.7655	26.34	0.36	-1.500			
0.5551	35523.60	3.5270	3.5269	-1.7721	26.34	0.36	-1.500			
0.5604	35862.81	3.5240	3.5240	-1.7744	26.35	0.37	-1.500			
0.5657	36204.65	3.5210	3.5210	-1.7795	26.36	0.38	-1.500			
0.5711	36549.65	3.5180	3.5180	-1.7807	26.36	0.38	-1.500			
0.5764	36890.38	3.5150	3.5150	-1.7788	26.37	0.39	-1.500			
0.5817	37229.64	3.5120	3.5120	-1.7773	26.38	0.40	-1.500			
0.5870	37569.20	3.5090	3.5090	-1.7800	26.38	0.40	-1.500			
0.5924	37912.65	3.5060	3.5059	-1.7810	26.39	0.41	-1.500			
0.5978	38257.39	3.5030	3.5030	-1.7807	26.39	0.41	-1.500			
0.6031	38600.27	3.5000	3.5000	-1.7837	26.40	0.42	-1.500			
0.6085	38942.67	3.4970	3.4970	-1.7748	26.41	0.43	-1.500			
0.6138	39280.28	3.4940	3.4940	-1.7640	26.41	0.43	-1.500			
0.6190	39618.51	3.4910	3.4911	-1.7644	26.42	0.44	-1.500			
0.6243	39957.88	3.4880	3.4880	-1.7522	26.43	0.45	-1.500			
0.6296	40293.48	3.4850	3.4850	-1.7506	26.45	0.47	-1.500			
0.6348	40629.11	3.4820	3.4820	-1.7401	26.46	0.48	-1.500			
0.6401	40963.86	3.4790	3.4789	-1.7328	26.47	0.49	-1.500			
0.6453	41297.54	3.4760	3.4761	-1.7121	26.48	0.50	-1.500			
0.6504	41624.27	3.4730	3.4730	-1.6906	26.50	0.52	-1.500			
0.6554	41947.54	3.4700	3.4701	-1.6766	26.51	0.53	-1.500			
0.6604	42268.01	3.4670	3.4669	-1.6525	26.52	0.54	-1.500			
0.6654	42585.63	3.4640	3.4639	-1.6302	26.53	0.55	-1.500			
0.6702	42895.78	3.4610	3.4611	-1.6045	26.54	0.56	-1.500			
0.6750	43201.86	3.4580	3.4580	-1.5805	26.55	0.57	-1.500			
0.6797	43503.24	3.4550	3.4549	-1.5615	26.57	0.59	-1.500			
0.6843	43796.01	3.4520	3.4521	-1.5305	26.58	0.60	-1.500			
0.6889	44091.60	3.4490	3.4490	-1.5184	26.59	0.61	-1.500			
0.6934	44380.53	3.4460	3.4461	-1.4994	26.60	0.62	-1.500			
0.6979	44666.74	3.4430	3.4430	-1.4788	26.62	0.64	-1.500			
0.7023	44947.89	3.4400	3.4399	-1.4571	26.64	0.66	-1.500			
0.7066	45225.51	3.4370	3.4370	-1.4373	26.65	0.67	-1.500			
0.7109	45498.68	3.4340	3.4340	-1.4192	26.67	0.69	-1.500			
0.7151	45769.19	3.4310	3.4310	-1.4091	26.69	0.71	-1.500			
0.7194	46038.96	3.4280	3.4280	-1.3938	26.70	0.72	-1.500			
0.7235	46303.83	3.4250	3.4250	-1.3821	26.72	0.74	-1.500			
0.7276	46568.98	3.4220	3.4220	-1.3725	26.74	0.76	-1.500			
0.7317	46831.95	3.4190	3.4190	-1.3627	26.75	0.77	-1.500			
0.7358	47094.20	3.4160	3.4159	-1.3461	26.77	0.79	-1.500			
0.7399	47352.47	3.4130	3.4130	-1.3207	26.79	0.81	-1.500			
0.7438	47604.50	3.4100	3.4101	-1.2910	26.80	0.82	-1.500			
0.7477	47851.19	3.4070	3.4070	-1.2646	26.82	0.84	-1.500			
0.7514	48089.79	3.4040	3.4040	-1.2277	26.83	0.85	-1.500			
0.7551	48323.51	3.4010	3.4009	-1.1904	26.85	0.87	-1.500			
0.7586	48547.37	3.3980	3.3981	-1.1532	26.87	0.89	-1.500			
0.7620	48767.52	3.3950	3.3950	-1.1182	26.88	0.90	-1.500			
0.7653	48978.52	3.3920	3.3920	-1.0801	26.90	0.92	-1.500			
0.7685	49182.11	3.3890	3.3889	-1.0402	26.91	0.93	-1.500			
0.7715	49376.84	3.3860	3.3861	-1.0029	26.92	0.94	-1.500			
0.7745	49566.48	3.3830	3.3831	-0.9665	26.94	0.96	-1.500			
0.7773	49748.57	3.3800	3.3799	-0.9308	26.95	0.97	-1.500			
0.7801	49924.03	3.3770	3.3770	-0.8950	26.97	0.99	-1.500			
0.7827	50092.07	3.3740	3.3740	-0.8588	26.98	1.00	-1.500			
0.7852	50252.31	3.3710	3.3710	-0.8269	27.00	1.02	-1.500			
0.7876	50408.31	3.3680	3.3680	-0.7950	27.01	1.03	-1.500			
0.7900	50557.15	3.3650	3.3650	-0.7635	27.02	1.04	-1.500			
0.7922	50700.96	3.3620	3.3620	-0.7383	27.02	1.04	-1.500			
0.7944	50839.27	3.3590	3.3591	-0.7139	27.03	1.05	-1.500			
0.7965	50973.81	3.3560	3.3560	-0.6912	27.04	1.06	-1.500			
0.7985	51104.08	3.3530	3.3530	-0.6686	27.05	1.07	-1.500			
0.8005	51229.53	3.3500	3.3501	-0.6479	27.06	1.08	-1.500			
0.8024	51352.48	3.3470	3.3470	-0.6297	27.07	1.09	-1.500			
0.8042	51471.44	3.3440	3.3439	-0.6097	27.08	1.10	-1.500			
0.8060	51585.35	3.3410	3.3410	-0.5921	27.09	1.11	-1.500			
0.8078	51697.68	3.3380	3.3380	-0.5764	27.10	1.12	-1.500			
0.8095	51807.46	3.3350	3.3349	-0.5595	27.11	1.13	-1.500			
0.8111	51913.45	3.3320	3.3321	-0.5434	27.12	1.14	-1.500			
0.8127	52015.91	3.3290	3.3290	-0.5238	27.13	1.15	-1.500			
0.8143	52114.68	3.3260	3.3260	-0.5088	27.13	1.15	-1.500			
0.8158	52209.75	3.3230	3.3230	-0.4936	27.14	1.16	-1.500			
0.8172	52302.41	3.3200	3.3199	-0.4788	27.14	1.16	-1.500			
0.8186	52393.43	3.3170	3.3170	-0.4666	27.15	1.17	-1.500			
0.8200	52482.07	3.3140	3.3140	-0.4537	27.16	1.18	-1.500			
0.8214	52567.79	3.3110	3.3110	-0.4420	27.16	1.18	-1.500			
0.8227	52651.94	3.3080	3.3080	-0.4308	27.17	1.19	-1.500			
0.8239	52732.37	3.3050	3.3050	-0.4170	27.18	1.20	-1.500			
0.8252	52811.58	3.3020	3.3020	-0.4039	27.19	1.21	-1.500			
0.8264	52888.15	3.2990	3.2990	-0.3939	27.19	1.21	-1.500			
0.8275	52962.42	3.2960	3.2960	-0.3835	27.20	1.22	-1.500			
0.8287	53034.96	3.2930	3.2929	-0.3724	27.21	1.23	-1.500			
0.8298	53104.92	3.2900	3.2900	-0.3617	27.21	1.23	-1.500			
0.8308	53173.32	3.2870	3.2870	-0.3550	27.22	1.24	-1.500			
0.8319	53240.33	3.2840	3.2841	-0.3487	27.23	1.25	-1.500			
0.8329	53307.19	3.2810	3.2809	-0.3409	27.23	1.25	-1.500			
0.8339	53371.72	3.2780	3.2779	-0.3311	27.24	1.26	-1.500			
0.8349	53434.68	3.2750	3.2751	-0.3241	27.25	1.27	-1.500			
0.8359	53496.11	3.2720	3.2721	-0.3173	27.25	1.27	-1.500			
0.8368	53555.97	3.2690	3.2690	-0.3091	27.26	1.28	-1.500			
0.8377	53614.00	3.2660	3.2660	-0.2995	27.26	1.28	-1.500			
0.8386	53671.14	3.2630	3.2629	-0.2926	27.26	1.28	-1.500			
0.8395	53726.96	3.2600	3.2601	-0.2881	27.27	1.29	-1.500			
0.8403	53781.53	3.2570	3.2569	-0.2817	27.27	1.29	-1.500			
0.8412	53834.66	3.2540	3.2540	-0.2752	27.28	1.30	-1.500			
0.8420	53886.95	3.2510	3.2510	-0.2705	27.28	1.30	-1.500			
0.8428	53938.45	3.2480	3.2480	-0.2654	27.28	1.30	-1.500			
0.8436	53988.98	3.2450	3.2451	-0.2612	27.29	1.31	-1.500			
0.8444	54038.70	3.2420	3.2419	-0.2560	27.29	1.31	-1.500			
0.8451	54086.80	3.2390	3.2391	-0.2505	27.30	1.32	-1.500			
0.8459	54134.61	3.2360	3.2360	-0.2460	27.31	1.33	-1.500			
0.8466	54181.04	3.2330	3.2331	-0.2421	27.31	1.33	-1.500			
0.8473	54227.15	3.2300	3.2300	-0.2390	27.32	1.34	-1.500			
0.8480	54272.39	3.2270	3.2271	-0.2352	27.32	1.34	-1.500			
0.8487	54317.55	3.2240	3.2239	-0.2314	27.33	1.35	-1.500			
0.8494	54361.41	3.2210	3.2211	-0.2275	27.33	1.35	-1.500			
0.8501	54404.99	3.2180	3.2180	-0.2252	27.34	1.36	-1.500			
0.8507	54447.75	3.2150	3.2151	-0.2215	27.35	1.37	-1.500			
0.8514	54490.17	3.2120	3.2119	-0.2179	27.35	1.37	-1.500			
0.8520	54531.19	3.2090	3.2090	-0.2138	27.36	1.38	-1.500			
0.8527	54571.99	3.2060	3.2060	-0.2110	27.36	1.38	-1.500			
0.8533	54612.24	3.2030	3.2031	-0.2082	27.37	1.39	-1.500			
0.8539	54652.16	3.2000	3.1999	-0.2057	27.37	1.39	-1.500			
0.8545	54691.11	3.1970	3.1970	-0.2025	27.38	1.40	-1.500			
0.8551	54729.47	3.1940	3.1939	-0.1998	27.38	1.40	-1.500			
0.8557	54767.66	3.1910	3.1912	-0.1980	27.39	1.41	-1.500			
0.8563	54805.62	3.1880	3.1878	-0.1959	27.39	1.41	-1.500			
0.8569	54843.04	3.1850	3.1850	-0.1932	27.40	1.42	-1.500			
0.8575	54879.95	3.1820	3.1820	-0.1910	27.40	1.42	-1.500			
0.8581	54916.38	3.1790	3.1790	-0.1885	27.41	1.43	-1.500			
0.8586	54952.35	3.1760	3.1760	-0.1863	27.41	1.43	-1.500			
0.8592	54987.68	3.1730	3.1730	-0.1846	27.42	1.44	-1.500			
0.8597	55022.54	3.1700	3.1700	-0.1829	27.42	1.44	-1.500			
0.8603	55057.58	3.1670	3.1670	-0.1822	27.43	1.45	-1.500			
0.8608	55092.57	3.1640	3.1639	-0.1802	27.43	1.45	-1.500			
0.8614	55127.35	3.1610	3.1610	-0.1786	27.44	1.46	-1.500			
0.8619	55161.57	3.1580	3.1581	-0.1768	27.44	1.46	-1.500			
0.8624	55195.27	3.1550	3.1550	-0.1743	27.44	1.46	-1.500			
0.8629	55228.52	3.1520	3.1519	-0.1729	27.45	1.47	-1.500			
0.8635	55261.08	3.1490	3.1490	-0.1713	27.45	1.47	-1.500			
0.8640	55293.90	3.1460	3.1460	-0.1692	27.46	1.48	-1.500			
0.8645	55326.27	3.1430	3.1430	-0.1681	27.46	1.48	-1.500			
0.8650	55358.75	3.1400	3.1400	-0.1669	27.47	1.49	-1.500			
0.8655	55390.65	3.1370	3.1371	-0.1656	27.47	1.49	-1.500			
0.8660	55422.33	3.1340	3.1340	-0.1639	27.47	1.49	-1.500			
0.8665	55453.58	3.1310	3.1309	-0.1624	27.48	1.50	-1.500			
0.8669	55484.32	3.1280	3.1280	-0.1612	27.48	1.50	-1.500			
0.8674	55515.04	3.1250	3.1250	-0.1597	27.49	1.51	-1.500			
0.8679	55545.98	3.1220	3.1220	-0.1593	27.49	1.51	-1.500			
0.8684	55576.42	3.1190	3.1190	-0.1578	27.50	1.52	-1.500			
0.8689	55606.46	3.1160	3.1160	-0.1568	27.51	1.53	-1.500			
0.8693	55636.50	3.1130	3.1130	-0.1555	27.51	1.53	-1.500			
0.8698	55666.27	3.1100	3.1099	-0.1543	27.52	1.54	-1.500			
0.8702	55695.78	3.1070	3.1070	-0.1530	27.53	1.55	-1.500			
0.8707	55724.89	3.1040	3.1041	-0.1520	27.53	1.55	-1.500			
0.8712	55753.96	3.1010	3.1010	-0.1514	27.54	1.56	-1.500			
0.8716	55782.93	3.0980	3.0980	-0.1506	27.54	1.56	-1.500			
0.8721	55811.77	3.0950	3.0950	-0.1499	27.55	1.57	-1.500			
0.8725	55840.35	3.0920	3.0920	-0.1488	27.55	1.57	-1.500			
0.8730	55869.20	3.0890	3.0890	-0.1479	27.56	1.58	-1.500			
0.8734	55897.35	3.0860	3.0860	-0.1471	27.56	1.58	-1.500			
0.8738	55925.47	3.0830	3.0831	-0.1458	27.57	1.59	-1.500			
0.8743	55953.26	3.0800	3.0800	-0.1447	27.57	1.59	-1.500			
0.8747	55980.90	3.0770	3.0770	-0.1434	27.58	1.60	-1.500			
0.8751	56008.32	3.0740	3.0739	-0.1425	27.58	1.60	-1.500			
0.8756	56035.61	3.0710	3.0712	-0.1415	27.59	1.61	-1.500			
0.8760	56062.83	3.0680	3.0680	-0.1403	27.59	1.61	-1.500			
0.8764	56089.76	3.0650	3.0649	-0.1395	27.60	1.62	-1.500			
0.8768	56116.18	3.0620	3.0620	-0.1377	27.60	1.62	-1.500			
0.8772	56142.36	3.0590	3.0591	-0.1378	27.61	1.63	-1.500			
0.8776	56168.86	3.0560	3.0559	-0.1369	27.61	1.63	-1.500			
0.8780	56195.09	3.0530	3.0530	-0.1363	27.62	1.64	-1.500			
0.8785	56221.21	3.0500	3.0500	-0.1358	27.63	1.65	-1.500			
0.8789	56247.25	3.0470	3.0470	-0.1352	27.63	1.65	-1.500			
0.8793	56273.49	3.0440	3.0440	-0.1342	27.64	1.66	-1.500			
0.8797	56298.85	3.0410	3.0409	-0.1333	27.64	1.66	-1.500			
0.8801	56324.37	3.0380	3.0380	-0.1324	27.65	1.67	-1.500			
0.8805	56349.39	3.0350	3.0351	-0.1316	27.65	1.67	-1.500			
0.8809	56374.73	3.0320	3.0319	-0.1316	27.66	1.68	-1.500			
0.8812	56399.89	3.0290	3.0290	-0.1304	27.66	1.68	-1.500			
0.8816	56424.99	3.0260	3.0261	-0.1296	27.67	1.69	-1.500			
0.8820	56450.03	3.0230	3.0230	-0.1287	27.67	1.69	-1.500			
0.8824	56474.98	3.0200	3.0200	-0.1280	27.68	1.70	-1.500			
0.8828	56499.21	3.0170	3.0170	-0.1269	27.68	1.70	-1.500			
0.8832	56523.05	3.0140	3.0140	-0.1260	27.69	1.71	-1.500			
0.8835	56546.89	3.0110	3.0110	-0.1253	27.69	1.71	-1.500			
0.8839	56570.97	3.0080	3.0080	-0.1256	27.70	1.72	-1.500			
0.8843	56595.02	3.0050	3.0049	-0.1262	27.70	1.72	-1.500			
0.8847	56619.33	3.0020	3.0020	-0.1293	27.71	1.73	-1.499			
