Ah_balance (normalized)	Ah_balance (mAh)	Voltage - fit (V)	Voltage -  interpolate (V)	dQ/dV (1/V)	Temperature (°C)	Temperature - diff (°C)	Current (C)	R_DC 0ms (mOhm)	R_DC 50ms (mOhm)	R_DC 50 ms PEC (mOhm)
0.2899	18553.43	3.9720	3.9720	0.8815	26.91	0.95	1.500			
0.2925	18722.67	3.9690	3.9690	0.8829	26.91	0.95	1.500			
0.2952	18892.42	3.9660	3.9660	0.8823	26.90	0.94	1.500			
0.2978	19061.37	3.9630	3.9630	0.8809	26.90	0.94	1.500			
0.3005	19229.64	3.9600	3.9602	0.8834	26.90	0.94	1.500			
0.3031	19399.97	3.9570	3.9569	0.8850	26.90	0.94	1.500			
0.3058	19569.70	3.9540	3.9539	0.8857	26.89	0.93	1.500			
0.3084	19738.55	3.9510	3.9511	0.8908	26.89	0.93	1.500			
0.3111	19909.76	3.9480	3.9481	0.8959	26.89	0.93	1.500			
0.3138	20083.69	3.9450	3.9449	0.9039	26.88	0.92	1.500			
0.3165	20257.88	3.9420	3.9420	0.9090	26.88	0.92	1.500			
0.3193	20432.20	3.9390	3.9391	0.9133	26.88	0.92	1.500			
0.3220	20609.26	3.9360	3.9360	0.9201	26.87	0.91	1.500			
0.3248	20786.43	3.9330	3.9330	0.9252	26.87	0.91	1.500			
0.3276	20964.31	3.9300	3.9300	0.9271	26.86	0.90	1.500			
0.3303	21142.17	3.9270	3.9270	0.9332	26.86	0.90	1.500			
0.3331	21321.26	3.9240	3.9240	0.9384	26.85	0.89	1.500			
0.3360	21501.97	3.9210	3.9211	0.9438	26.85	0.89	1.500			
0.3388	21684.17	3.9180	3.9179	0.9477	26.84	0.88	1.500			
0.3417	21866.97	3.9150	3.9151	0.9584	26.84	0.88	1.500			
0.3446	22052.13	3.9120	3.9120	0.9641	26.83	0.87	1.500			
0.3475	22237.66	3.9090	3.9090	0.9728	26.82	0.86	1.500			
0.3504	22424.17	3.9060	3.9061	0.9796	26.82	0.86	1.500			
0.3533	22612.25	3.9030	3.9030	0.9880	26.81	0.85	1.500			
0.3563	22803.44	3.9000	3.8999	0.9972	26.81	0.85	1.500			
0.3593	22996.84	3.8970	3.8970	1.0027	26.80	0.84	1.500			
0.3624	23190.62	3.8940	3.8940	1.0083	26.80	0.84	1.500			
0.3654	23383.50	3.8910	3.8911	1.0188	26.79	0.83	1.500			
0.3684	23578.32	3.8880	3.8880	1.0280	26.79	0.83	1.500			
0.3715	23777.53	3.8850	3.8850	1.0399	26.78	0.82	1.500			
0.3746	23977.02	3.8820	3.8820	1.0528	26.78	0.82	1.500			
0.3778	24181.75	3.8790	3.8790	1.0638	26.77	0.81	1.500			
0.3811	24389.03	3.8760	3.8761	1.0801	26.77	0.81	1.500			
0.3843	24595.66	3.8730	3.8729	1.0935	26.76	0.80	1.500			
0.3876	24806.27	3.8700	3.8700	1.1005	26.75	0.79	1.500			
0.3909	25018.07	3.8670	3.8670	1.1158	26.75	0.79	1.500			
0.3943	25234.82	3.8640	3.8640	1.1297	26.74	0.78	1.500			
0.3977	25453.03	3.8610	3.8610	1.1474	26.73	0.77	1.500			
0.4012	25675.90	3.8580	3.8580	1.1602	26.73	0.77	1.500			
0.4047	25899.29	3.8550	3.8550	1.1701	26.72	0.76	1.500			
0.4082	26124.13	3.8520	3.8520	1.1909	26.71	0.75	1.500			
0.4118	26356.60	3.8490	3.8489	1.2029	26.70	0.74	1.500			
0.4154	26585.56	3.8460	3.8460	1.2220	26.70	0.74	1.500			
0.4191	26821.69	3.8430	3.8431	1.2450	26.69	0.73	1.500			
0.4228	27061.93	3.8400	3.8400	1.2658	26.68	0.72	1.500			
0.4267	27308.74	3.8370	3.8370	1.2928	26.67	0.71	1.500			
0.4306	27558.38	3.8340	3.8341	1.3159	26.66	0.70	1.500			
0.4346	27812.43	3.8310	3.8310	1.3409	26.66	0.70	1.500			
0.4387	28074.20	3.8280	3.8280	1.3688	26.65	0.69	1.500			
0.4428	28337.71	3.8250	3.8250	1.3996	26.64	0.68	1.500			
0.4470	28608.07	3.8220	3.8220	1.4317	26.63	0.67	1.500			
0.4514	28887.38	3.8190	3.8190	1.4630	26.62	0.66	1.500			
0.4558	29172.03	3.8160	3.8159	1.4961	26.61	0.65	1.500			
0.4603	29461.57	3.8130	3.8130	1.5300	26.60	0.64	1.500			
0.4649	29755.90	3.8100	3.8101	1.5681	26.59	0.63	1.500			
0.4697	30059.01	3.8070	3.8070	1.6107	26.58	0.62	1.500			
0.4746	30372.99	3.8040	3.8040	1.6469	26.57	0.61	1.500			
0.4796	30695.05	3.8010	3.8010	1.6874	26.55	0.59	1.500			
0.4847	31023.65	3.7980	3.7980	1.7344	26.54	0.58	1.500			
0.4900	31358.51	3.7950	3.7950	1.7790	26.53	0.57	1.500			
0.4953	31700.88	3.7920	3.7919	1.8241	26.51	0.55	1.500			
0.5009	32054.65	3.7890	3.7891	1.8773	26.50	0.54	1.500			
0.5066	32423.21	3.7860	3.7860	1.9468	26.48	0.52	1.500			
0.5126	32803.52	3.7830	3.7830	1.9868	26.47	0.51	1.500			
0.5185	33186.85	3.7800	3.7800	2.0258	26.45	0.49	1.500			
0.5247	33579.14	3.7770	3.7771	2.0799	26.44	0.48	1.500			
0.5311	33991.91	3.7740	3.7739	2.1041	26.42	0.46	1.500			
0.5374	34393.58	3.7710	3.7711	2.1291	26.40	0.44	1.500			
0.5438	34801.20	3.7680	3.7681	2.1806	26.38	0.42	1.500			
0.5503	35221.90	3.7650	3.7650	2.2264	26.36	0.40	1.500			
0.5571	35653.84	3.7620	3.7616	2.2385	26.34	0.38	1.500	0.359	0.456	
0.5641	36100.33	3.7590	3.7591	2.2519	26.32	0.36	1.500			
0.5708	36530.96	3.7560	3.7561	2.2232	26.31	0.35	1.500			
0.5773	36950.27	3.7530	3.7530	2.1556	26.29	0.33	1.500			
0.5837	37358.11	3.7500	3.7500	2.1201	26.28	0.32	1.500			
0.5901	37764.91	3.7470	3.7470	2.1066	26.26	0.30	1.500			
0.5963	38163.20	3.7440	3.7440	2.0792	26.25	0.29	1.500			
0.6025	38558.86	3.7410	3.7411	2.0666	26.23	0.27	1.500			
0.6087	38957.04	3.7380	3.7380	2.0786	26.22	0.26	1.500			
0.6149	39352.97	3.7350	3.7350	2.0919	26.20	0.24	1.500			
0.6212	39756.27	3.7320	3.7320	2.1185	26.19	0.23	1.500			
0.6276	40165.87	3.7290	3.7290	2.1608	26.17	0.21	1.500			
0.6342	40588.52	3.7260	3.7259	2.1590	26.16	0.20	1.500			
0.6406	41001.51	3.7230	3.7231	2.2088	26.14	0.18	1.500			
0.6473	41427.09	3.7200	3.7199	2.2658	26.12	0.16	1.500			
0.6542	41866.50	3.7170	3.7170	2.3202	26.11	0.15	1.500			
0.6612	42316.38	3.7140	3.7140	2.4007	26.10	0.14	1.500			
0.6686	42787.96	3.7110	3.7111	2.5137	26.09	0.13	1.500			
0.6763	43280.84	3.7080	3.7079	2.6122	26.08	0.12	1.500			
0.6843	43793.10	3.7050	3.7051	2.6800	26.06	0.10	1.500			
0.6926	44324.78	3.7020	3.7020	2.7582	26.05	0.09	1.500			
0.7009	44858.12	3.6990	3.6990	2.7791	26.04	0.08	1.500			
0.7094	45401.17	3.6960	3.6960	2.7118	26.03	0.07	1.500			
0.7176	45925.31	3.6930	3.6931	2.6243	26.02	0.06	1.500			
0.7254	46424.87	3.6900	3.6898	2.4927	26.01	0.05	1.500			
0.7326	46888.37	3.6870	3.6870	2.2910	26.00	0.04	1.500			
0.7393	47312.50	3.6840	3.6840	2.0945	26.00	0.04	1.500			
0.7451	47684.97	3.6810	3.6811	1.8972	25.99	0.03	1.500			
0.7505	48029.44	3.6780	3.6780	1.7493	25.99	0.03	1.500			
0.7554	48345.67	3.6750	3.6750	1.6330	25.99	0.03	1.500			
0.7601	48648.28	3.6720	3.6720	1.5387	25.99	0.03	1.500			
0.7646	48931.67	3.6690	3.6690	1.4595	25.98	0.02	1.500			
0.7688	49204.90	3.6660	3.6661	1.3910	25.98	0.02	1.500			
0.7728	49462.02	3.6630	3.6630	1.3326	25.98	0.02	1.500			
0.7767	49709.71	3.6600	3.6600	1.2851	25.98	0.02	1.500			
0.7804	49945.84	3.6570	3.6570	1.2545	25.97	0.01	1.500			
0.7841	50181.10	3.6540	3.6540	1.2415	25.97	0.01	1.500			
0.7878	50416.47	3.6510	3.6510	1.2356	25.97	0.01	1.500			
0.7914	50650.91	3.6480	3.6480	1.2418	25.97	0.01	1.500			
0.7951	50888.10	3.6450	3.6451	1.2600	25.96	0.00	1.500			
0.7989	51132.62	3.6420	3.6419	1.2759	25.96	0.00	1.500			
0.8028	51379.09	3.6390	3.6390	1.2915	25.96	-0.00	1.500			
0.8067	51630.82	3.6360	3.6360	1.2974	25.95	-0.01	1.500			
0.8107	51884.08	3.6330	3.6331	1.3020	25.95	-0.01	1.500			
0.8146	52136.09	3.6300	3.6300	1.3030	25.94	-0.02	1.500			
0.8185	52384.15	3.6270	3.6270	1.3003	25.94	-0.02	1.500			
0.8224	52630.67	3.6240	3.6240	1.2938	25.93	-0.03	1.500			
0.8263	52880.80	3.6210	3.6211	1.2935	25.93	-0.03	1.500			
0.8301	53128.10	3.6180	3.6180	1.2944	25.93	-0.03	1.500			
0.8340	53378.37	3.6150	3.6151	1.2922	25.92	-0.04	1.500			
0.8379	53625.83	3.6120	3.6120	1.2856	25.92	-0.04	1.500			
0.8418	53872.20	3.6090	3.6090	1.2799	25.92	-0.04	1.500			
0.8456	54116.50	3.6060	3.6061	1.2721	25.91	-0.05	1.500			
0.8494	54360.99	3.6030	3.6028	1.2623	25.91	-0.05	1.500			
0.8532	54603.46	3.6000	3.6002	1.2517	25.91	-0.05	1.500			
0.8569	54842.85	3.5970	3.5970	1.2352	25.91	-0.05	1.500			
0.8607	55081.73	3.5940	3.5940	1.2193	25.91	-0.05	1.500			
0.8642	55311.26	3.5910	3.5910	1.1999	25.92	-0.04	1.500			
0.8678	55537.00	3.5880	3.5881	1.1937	25.92	-0.04	1.500			
0.8713	55764.67	3.5850	3.5850	1.1870	25.92	-0.04	1.500			
0.8749	55991.15	3.5820	3.5819	1.1879	25.92	-0.04	1.500			
0.8784	56218.86	3.5790	3.5791	1.1881	25.93	-0.03	1.500			
0.8821	56453.92	3.5760	3.5759	1.1755	25.93	-0.03	1.500			
0.8857	56684.08	3.5730	3.5729	1.1388	25.94	-0.02	1.500			
0.8893	56913.51	3.5700	3.5699	1.0636	25.94	-0.02	1.500			
0.8924	57116.08	3.5670	3.5671	0.9556	25.95	-0.01	1.500			
0.8953	57296.74	3.5640	3.5641	0.8351	25.95	-0.01	1.500			
0.8975	57440.57	3.5610	3.5611	0.6866	25.96	-0.00	1.500			
0.8992	57549.39	3.5580	3.5580	0.5477	25.96	0.00	1.500			
0.9006	57635.32	3.5550	3.5549	0.4460	25.96	0.00	1.500			
0.9016	57702.42	3.5520	3.5520	0.3578	25.96	0.00	1.500			
0.9025	57762.41	3.5490	3.5489	0.2961	25.97	0.01	1.500			
0.9033	57809.96	3.5460	3.5459	0.2524	25.97	0.01	1.500			
0.9039	57852.63	3.5430	3.5430	0.2213	25.97	0.01	1.500			
0.9045	57890.68	3.5400	3.5399	0.1968	25.97	0.01	1.500			
0.9051	57925.48	3.5370	3.5369	0.1738	25.97	0.01	1.500			
0.9056	57955.65	3.5340	3.5339	0.1551	25.97	0.01	1.500			
0.9060	57982.98	3.5310	3.5310	0.1377	25.97	0.01	1.500			
0.9064	58007.93	3.5280	3.5279	0.1221	25.97	0.01	1.500			
0.9067	58029.86	3.5250	3.5251	0.1064	25.97	0.01	1.500			
0.9070	58048.63	3.5220	3.5220	0.0907	25.97	0.01	1.500			
0.9073	58064.62	3.5190	3.5191	0.0752	25.97	0.01	1.500			
0.9075	58077.20	3.5160	3.5165	0.0607	25.97	0.01	1.500			
0.9076	58087.47	3.5130	3.5138	0.0463	25.97	0.01	1.500			
