Ah_balance (normalized)	Ah_balance (mAh)	Voltage - fit (V)	Voltage -  interpolate (V)	dQ/dV (1/V)	Temperature (°C)	Temperature - diff (°C)	Current (C)	R_DC 0ms (mOhm)	R_DC 50ms (mOhm)	R_DC 50 ms PEC (mOhm)
0.2814	18008.66	3.9750	3.9750	0.8113	27.14	1.21	1.500			
0.2839	18171.07	3.9720	3.9719	0.8661	27.13	1.20	1.500			
0.2865	18338.51	3.9690	3.9690	0.8750	27.13	1.20	1.500			
0.2892	18508.09	3.9660	3.9660	0.8786	27.12	1.19	1.500			
0.2918	18677.57	3.9630	3.9630	0.8820	27.12	1.19	1.500			
0.2945	18848.00	3.9600	3.9600	0.8848	27.11	1.18	1.500			
0.2971	19017.07	3.9570	3.9569	0.8835	27.11	1.18	1.500			
0.2998	19186.15	3.9540	3.9540	0.8807	27.11	1.18	1.500			
0.3024	19355.57	3.9510	3.9510	0.8888	27.10	1.17	1.500			
0.3051	19526.09	3.9480	3.9480	0.8918	27.10	1.17	1.500			
0.3078	19697.82	3.9450	3.9450	0.8979	27.09	1.16	1.500			
0.3105	19869.85	3.9420	3.9421	0.9034	27.09	1.16	1.500			
0.3132	20044.13	3.9390	3.9390	0.9079	27.08	1.15	1.500			
0.3159	20219.57	3.9360	3.9360	0.9136	27.08	1.15	1.500			
0.3187	20395.09	3.9330	3.9330	0.9191	27.07	1.14	1.500			
0.3214	20571.48	3.9300	3.9300	0.9194	27.07	1.14	1.500			
0.3242	20750.23	3.9270	3.9270	0.9219	27.06	1.13	1.500			
0.3270	20925.79	3.9240	3.9240	0.9284	27.06	1.13	1.500			
0.3298	21104.34	3.9210	3.9211	0.9317	27.05	1.12	1.500			
0.3325	21283.03	3.9180	3.9179	0.9420	27.04	1.11	1.500			
0.3354	21463.89	3.9150	3.9150	0.9485	27.04	1.11	1.500			
0.3382	21647.49	3.9120	3.9121	0.9561	27.03	1.10	1.500			
0.3411	21832.95	3.9090	3.9089	0.9663	27.03	1.10	1.500			
0.3440	22019.04	3.9060	3.9061	0.9750	27.02	1.09	1.500			
0.3470	22205.97	3.9030	3.9030	0.9792	27.02	1.09	1.500			
0.3499	22396.61	3.9000	3.8999	0.9846	27.01	1.08	1.500			
0.3529	22584.87	3.8970	3.8970	0.9858	27.00	1.07	1.500			
0.3558	22773.48	3.8940	3.8940	0.9962	27.00	1.07	1.500			
0.3588	22964.99	3.8910	3.8909	1.0041	26.99	1.06	1.500			
0.3618	23156.93	3.8880	3.8880	1.0124	26.98	1.05	1.500			
0.3649	23351.79	3.8850	3.8850	1.0255	26.98	1.05	1.500			
0.3680	23552.31	3.8820	3.8820	1.0383	26.97	1.04	1.500			
0.3712	23753.77	3.8790	3.8790	1.0508	26.96	1.03	1.500			
0.3743	23954.74	3.8760	3.8761	1.0588	26.95	1.02	1.500			
0.3775	24158.66	3.8730	3.8729	1.0672	26.95	1.02	1.500			
0.3807	24364.05	3.8700	3.8700	1.0809	26.94	1.01	1.500			
0.3839	24572.60	3.8670	3.8669	1.0933	26.93	1.00	1.500			
0.3873	24784.01	3.8640	3.8640	1.1079	26.92	0.99	1.500			
0.3906	24998.43	3.8610	3.8610	1.1260	26.91	0.98	1.500			
0.3940	25215.12	3.8580	3.8580	1.1389	26.90	0.97	1.500			
0.3975	25437.88	3.8550	3.8550	1.1450	26.89	0.96	1.500			
0.4009	25657.52	3.8520	3.8520	1.1643	26.88	0.95	1.500			
0.4044	25880.61	3.8490	3.8491	1.1808	26.87	0.94	1.500			
0.4079	26107.88	3.8460	3.8460	1.2025	26.86	0.93	1.500			
0.4116	26339.79	3.8430	3.8430	1.2267	26.86	0.93	1.500			
0.4153	26578.57	3.8400	3.8400	1.2407	26.85	0.92	1.500			
0.4191	26819.80	3.8370	3.8371	1.2659	26.84	0.91	1.500			
0.4229	27068.32	3.8340	3.8340	1.2875	26.83	0.90	1.500			
0.4268	27312.05	3.8310	3.8310	1.3036	26.82	0.89	1.500			
0.4307	27562.94	3.8280	3.8280	1.3268	26.81	0.88	1.500			
0.4347	27819.17	3.8250	3.8249	1.3565	26.80	0.87	1.500			
0.4388	28082.31	3.8220	3.8220	1.3854	26.79	0.86	1.500			
0.4430	28352.48	3.8190	3.8190	1.4179	26.78	0.85	1.500			
0.4473	28624.76	3.8160	3.8160	1.4536	26.76	0.83	1.500			
0.4517	28908.35	3.8130	3.8130	1.4827	26.75	0.82	1.500			
0.4562	29196.14	3.8100	3.8099	1.5241	26.74	0.81	1.500			
0.4608	29492.20	3.8070	3.8070	1.5644	26.73	0.80	1.500			
0.4656	29796.73	3.8040	3.8041	1.6016	26.71	0.78	1.500			
0.4705	30109.39	3.8010	3.8010	1.6364	26.70	0.77	1.500			
0.4754	30425.44	3.7980	3.7980	1.6816	26.69	0.76	1.500			
0.4805	30750.90	3.7950	3.7950	1.7109	26.67	0.74	1.500			
0.4857	31085.29	3.7920	3.7919	1.7517	26.66	0.73	1.500			
0.4910	31424.42	3.7890	3.7891	1.7872	26.64	0.71	1.500			
0.4964	31770.66	3.7860	3.7860	1.8263	26.63	0.70	1.500			
0.5020	32125.25	3.7830	3.7830	1.8802	26.61	0.68	1.500			
0.5076	32488.54	3.7800	3.7800	1.9173	26.60	0.67	1.500			
0.5135	32864.30	3.7770	3.7770	1.9705	26.58	0.65	1.500			
0.5195	33249.07	3.7740	3.7740	1.9746	26.56	0.63	1.500			
0.5255	33628.92	3.7710	3.7711	2.0032	26.55	0.62	1.500			
0.5314	34010.75	3.7680	3.7681	2.0464	26.53	0.60	1.500			
0.5376	34408.97	3.7650	3.7653	2.0792	26.51	0.58	1.500			
0.5439	34811.19	3.7620	3.7621	2.0796	26.49	0.56	1.500	0.351	0.452	
0.5503	35221.56	3.7590	3.7590	2.0750	26.47	0.54	1.500			
0.5565	35616.86	3.7560	3.7560	2.0432	26.45	0.52	1.500			
0.5626	36004.22	3.7530	3.7530	2.0120	26.43	0.50	1.500			
0.5686	36391.86	3.7500	3.7500	2.0088	26.41	0.48	1.500			
0.5746	36775.73	3.7470	3.7470	1.9913	26.39	0.46	1.500			
0.5806	37155.75	3.7440	3.7441	1.9837	26.37	0.44	1.500			
0.5865	37534.33	3.7410	3.7411	1.9921	26.36	0.43	1.500			
0.5924	37916.04	3.7380	3.7379	1.9878	26.34	0.41	1.500			
0.5984	38296.17	3.7350	3.7350	2.0036	26.33	0.40	1.500			
0.6044	38683.34	3.7320	3.7321	2.0562	26.31	0.38	1.500			
0.6106	39078.67	3.7290	3.7289	2.1113	26.30	0.37	1.500			
0.6170	39490.84	3.7260	3.7260	2.1312	26.28	0.35	1.500			
0.6236	39907.78	3.7230	3.7231	2.1913	26.27	0.34	1.500			
0.6302	40330.89	3.7200	3.7200	2.2395	26.25	0.32	1.500			
0.6369	40762.40	3.7170	3.7171	2.2972	26.24	0.31	1.500			
0.6438	41200.43	3.7140	3.7140	2.3812	26.22	0.29	1.500			
0.6511	41671.20	3.7110	3.7110	2.5043	26.21	0.28	1.500			
0.6588	42164.93	3.7080	3.7079	2.5647	26.19	0.26	1.500			
0.6668	42673.24	3.7050	3.7051	2.6146	26.18	0.25	1.500			
0.6746	43177.58	3.7020	3.7020	2.6497	26.16	0.23	1.500			
0.6826	43687.42	3.6990	3.6989	2.6395	26.14	0.21	1.500			
0.6907	44207.75	3.6960	3.6960	2.6000	26.13	0.20	1.500			
0.6984	44699.84	3.6930	3.6930	2.4727	26.12	0.19	1.500			
0.7057	45162.56	3.6900	3.6900	2.3057	26.11	0.18	1.500			
0.7122	45582.87	3.6870	3.6870	2.1058	26.10	0.17	1.500			
0.7183	45970.87	3.6840	3.6840	1.9341	26.09	0.16	1.500			
0.7236	46313.21	3.6810	3.6811	1.7779	26.08	0.15	1.500			
0.7288	46640.08	3.6780	3.6779	1.6633	26.08	0.15	1.500			
0.7334	46938.48	3.6750	3.6749	1.5539	26.07	0.14	1.500			
0.7379	47228.56	3.6720	3.6721	1.4751	26.07	0.14	1.500			
0.7423	47504.49	3.6690	3.6690	1.4128	26.06	0.13	1.500			
0.7464	47770.60	3.6660	3.6660	1.3552	26.06	0.13	1.500			
0.7503	48019.10	3.6630	3.6631	1.3021	26.05	0.12	1.500			
0.7541	48263.65	3.6600	3.6600	1.2748	26.05	0.12	1.500			
0.7578	48500.15	3.6570	3.6570	1.2609	26.04	0.11	1.500			
0.7616	48739.95	3.6540	3.6540	1.2535	26.04	0.11	1.500			
0.7653	48978.31	3.6510	3.6510	1.2657	26.03	0.10	1.500			
0.7691	49221.32	3.6480	3.6481	1.2743	26.02	0.09	1.500			
0.7729	49468.25	3.6450	3.6449	1.2839	26.01	0.08	1.500			
0.7768	49715.28	3.6420	3.6420	1.2948	26.01	0.08	1.500			
0.7807	49964.12	3.6390	3.6391	1.3076	26.00	0.07	1.500			
0.7846	50217.09	3.6360	3.6358	1.3143	25.99	0.06	1.500			
0.7887	50473.97	3.6330	3.6331	1.3172	25.99	0.06	1.500			
0.7926	50726.44	3.6300	3.6300	1.3100	25.98	0.05	1.500			
0.7966	50981.79	3.6270	3.6270	1.3013	25.98	0.05	1.500			
0.8004	51227.77	3.6240	3.6240	1.2919	25.97	0.04	1.500			
0.8043	51473.50	3.6210	3.6210	1.2888	25.97	0.04	1.500			
0.8081	51717.84	3.6180	3.6180	1.2861	25.96	0.03	1.500			
0.8120	51966.53	3.6150	3.6150	1.2861	25.96	0.03	1.500			
0.8158	52214.31	3.6120	3.6120	1.2904	25.95	0.02	1.500			
0.8198	52464.54	3.6090	3.6090	1.2793	25.94	0.01	1.500			
0.8236	52712.61	3.6060	3.6060	1.2766	25.94	0.01	1.500			
0.8274	52955.15	3.6030	3.6030	1.2618	25.93	0.00	1.500			
0.8312	53196.60	3.6000	3.6001	1.2472	25.93	-0.00	1.500			
0.8349	53433.98	3.5970	3.5968	1.2293	25.92	-0.01	1.500			
0.8386	53669.45	3.5940	3.5940	1.2163	25.92	-0.01	1.500			
0.8422	53899.53	3.5910	3.5911	1.1995	25.92	-0.01	1.500			
0.8458	54129.92	3.5880	3.5880	1.1889	25.92	-0.01	1.500			
0.8493	54354.92	3.5850	3.5850	1.1766	25.93	-0.00	1.500			
0.8528	54579.00	3.5820	3.5819	1.1689	25.93	-0.00	1.500			
0.8564	54808.29	3.5790	3.5790	1.1462	25.93	-0.00	1.500			
0.8599	55033.09	3.5760	3.5758	1.1126	25.93	0.00	1.500			
0.8633	55251.19	3.5730	3.5730	1.0308	25.93	0.00	1.500			
0.8665	55453.00	3.5700	3.5701	0.9415	25.93	0.00	1.500			
0.8692	55625.67	3.5670	3.5671	0.8143	25.93	0.00	1.500			
0.8714	55768.27	3.5640	3.5640	0.6786	25.93	0.00	1.500			
0.8731	55876.20	3.5610	3.5611	0.5515	25.94	0.01	1.500			
0.8745	55965.55	3.5580	3.5579	0.4532	25.94	0.01	1.500			
0.8755	56034.99	3.5550	3.5551	0.3698	25.94	0.01	1.500			
0.8765	56096.59	3.5520	3.5519	0.3168	25.94	0.01	1.500			
0.8773	56149.27	3.5490	3.5490	0.2676	25.94	0.01	1.500			
0.8781	56195.40	3.5460	3.5460	0.2369	25.94	0.01	1.500			
0.8787	56235.61	3.5430	3.5431	0.2103	25.94	0.01	1.500			
0.8793	56272.89	3.5400	3.5400	0.1908	25.94	0.01	1.500			
0.8798	56307.07	3.5370	3.5370	0.1716	25.94	0.01	1.500			
0.8803	56337.62	3.5340	3.5340	0.1556	25.94	0.01	1.500			
0.8807	56365.80	3.5310	3.5310	0.1406	25.94	0.01	1.500			
0.8811	56391.33	3.5280	3.5280	0.1264	25.94	0.01	1.500			
0.8815	56414.29	3.5250	3.5249	0.1127	25.94	0.01	1.500			
0.8818	56434.62	3.5220	3.5220	0.0991	25.94	0.01	1.500			
0.8821	56452.35	3.5190	3.5190	0.0854	25.94	0.01	1.500			
0.8823	56467.44	3.5160	3.5163	0.0717	25.94	0.01	1.500			
0.8825	56480.05	3.5130	3.5133	0.0575	25.94	0.01	1.500			
0.8827	56489.73	3.5100	3.5107	0.0433	25.94	0.01	1.500			
