Ah_balance (normalized)	Ah_balance (mAh)	Voltage - fit (V)	Voltage -  interpolate (V)	dQ/dV (1/V)	Temperature (°C)	Temperature - diff (°C)	Current (C)	R_DC 0ms (mOhm)	R_DC 50ms (mOhm)	R_DC 50 ms PEC (mOhm)
0.2719	17403.24	3.9890	3.9890	0.8243	27.29	1.32	1.500			
0.2744	17564.07	3.9860	3.9860	0.8384	27.28	1.31	1.500			
0.2769	17724.55	3.9830	3.9830	0.8424	27.27	1.30	1.500			
0.2795	17887.18	3.9800	3.9800	0.8475	27.26	1.29	1.500			
0.2820	18049.09	3.9770	3.9771	0.8537	27.26	1.29	1.500			
0.2846	18214.81	3.9740	3.9740	0.8622	27.25	1.28	1.500			
0.2872	18382.01	3.9710	3.9710	0.8581	27.24	1.27	1.500			
0.2898	18546.14	3.9680	3.9680	0.8593	27.24	1.27	1.500			
0.2924	18711.82	3.9650	3.9652	0.8647	27.23	1.26	1.500			
0.2949	18876.20	3.9620	3.9619	0.8676	27.22	1.25	1.500			
0.2975	19042.77	3.9590	3.9590	0.8701	27.22	1.25	1.500			
0.3002	19209.75	3.9560	3.9560	0.8745	27.21	1.24	1.500			
0.3028	19378.81	3.9530	3.9530	0.8816	27.21	1.24	1.500			
0.3055	19550.43	3.9500	3.9500	0.8876	27.20	1.23	1.500			
0.3081	19718.56	3.9470	3.9470	0.8886	27.19	1.22	1.500			
0.3108	19889.89	3.9440	3.9439	0.8933	27.19	1.22	1.500			
0.3135	20061.21	3.9410	3.9411	0.8983	27.18	1.21	1.500			
0.3162	20236.04	3.9380	3.9380	0.9047	27.18	1.21	1.500			
0.3189	20410.59	3.9350	3.9350	0.9078	27.17	1.20	1.500			
0.3216	20585.03	3.9320	3.9321	0.9119	27.17	1.20	1.500			
0.3244	20759.47	3.9290	3.9290	0.9159	27.16	1.19	1.500			
0.3271	20935.11	3.9260	3.9259	0.9185	27.15	1.18	1.500			
0.3299	21111.54	3.9230	3.9230	0.9228	27.14	1.17	1.500			
0.3326	21289.28	3.9200	3.9200	0.9283	27.13	1.16	1.500			
0.3354	21468.68	3.9170	3.9170	0.9298	27.12	1.15	1.500			
0.3382	21646.97	3.9140	3.9140	0.9381	27.11	1.14	1.500			
0.3410	21826.90	3.9110	3.9110	0.9446	27.10	1.13	1.500			
0.3439	22008.16	3.9080	3.9081	0.9510	27.10	1.13	1.500			
0.3468	22192.14	3.9050	3.9050	0.9616	27.09	1.12	1.500			
0.3497	22377.69	3.9020	3.9021	0.9714	27.08	1.11	1.500			
0.3526	22565.13	3.8990	3.8990	0.9823	27.07	1.10	1.500			
0.3556	22755.21	3.8960	3.8960	0.9922	27.06	1.09	1.500			
0.3585	22945.01	3.8930	3.8930	0.9980	27.05	1.08	1.500			
0.3615	23138.76	3.8900	3.8900	1.0086	27.04	1.07	1.500			
0.3646	23334.53	3.8870	3.8870	1.0155	27.03	1.06	1.500			
0.3677	23529.66	3.8840	3.8840	1.0222	27.02	1.05	1.500			
0.3707	23724.64	3.8810	3.8810	1.0348	27.01	1.04	1.500			
0.3738	23924.33	3.8780	3.8779	1.0448	27.00	1.03	1.500			
0.3770	24125.64	3.8750	3.8750	1.0571	26.99	1.02	1.500			
0.3802	24330.80	3.8720	3.8720	1.0646	26.98	1.01	1.500			
0.3834	24538.46	3.8690	3.8690	1.0741	26.97	1.00	1.500			
0.3866	24744.34	3.8660	3.8660	1.0866	26.96	0.99	1.500			
0.3899	24951.85	3.8630	3.8630	1.0963	26.95	0.98	1.500			
0.3932	25162.55	3.8600	3.8600	1.1113	26.94	0.97	1.500			
0.3965	25376.79	3.8570	3.8570	1.1302	26.93	0.96	1.500			
0.3999	25595.38	3.8540	3.8540	1.1435	26.92	0.95	1.500			
0.4034	25818.64	3.8510	3.8510	1.1652	26.90	0.93	1.500			
0.4069	26044.08	3.8480	3.8480	1.1780	26.89	0.92	1.500			
0.4105	26269.71	3.8450	3.8449	1.1930	26.88	0.91	1.500			
0.4141	26500.69	3.8420	3.8420	1.2092	26.87	0.90	1.500			
0.4177	26734.24	3.8390	3.8391	1.2265	26.86	0.89	1.500			
0.4214	26971.54	3.8360	3.8359	1.2441	26.85	0.88	1.500			
0.4252	27212.43	3.8330	3.8331	1.2657	26.83	0.86	1.500			
0.4290	27454.27	3.8300	3.8300	1.2863	26.82	0.85	1.500			
0.4329	27706.49	3.8270	3.8270	1.3007	26.81	0.84	1.500			
0.4368	27957.14	3.8240	3.8240	1.3290	26.79	0.82	1.500			
0.4408	28213.40	3.8210	3.8211	1.3574	26.78	0.81	1.500			
0.4449	28475.84	3.8180	3.8181	1.3862	26.76	0.79	1.500			
0.4491	28744.00	3.8150	3.8149	1.4148	26.75	0.78	1.500			
0.4534	29019.04	3.8120	3.8120	1.4374	26.73	0.76	1.500			
0.4578	29298.64	3.8090	3.8090	1.4594	26.72	0.75	1.500			
0.4623	29586.16	3.8060	3.8060	1.4855	26.70	0.73	1.500			
0.4667	29867.95	3.8030	3.8030	1.4988	26.68	0.71	1.500			
0.4712	30156.26	3.8000	3.8000	1.5265	26.66	0.69	1.500			
0.4758	30450.29	3.7970	3.7970	1.5588	26.64	0.67	1.500			
0.4806	30756.17	3.7940	3.7940	1.5789	26.63	0.66	1.500			
0.4853	31061.55	3.7910	3.7910	1.6120	26.61	0.64	1.500			
0.4902	31371.84	3.7880	3.7881	1.6504	26.60	0.63	1.500			
0.4952	31690.81	3.7850	3.7848	1.6846	26.58	0.61	1.500			
0.5003	32018.72	3.7820	3.7817	1.7065	26.56	0.59	1.500	0.344	0.475	
0.5055	32352.87	3.7790	3.7791	1.7243	26.55	0.58	1.500			
0.5107	32686.78	3.7760	3.7761	1.7204	26.53	0.56	1.500			
0.5158	33012.49	3.7730	3.7730	1.7091	26.51	0.54	1.500			
0.5209	33340.23	3.7700	3.7700	1.7131	26.50	0.53	1.500			
0.5261	33669.34	3.7670	3.7670	1.7258	26.49	0.52	1.500			
0.5313	34001.66	3.7640	3.7640	1.7307	26.47	0.50	1.500			
0.5365	34334.52	3.7610	3.7610	1.7398	26.46	0.49	1.500			
0.5417	34669.31	3.7580	3.7580	1.7467	26.45	0.48	1.500			
0.5470	35005.61	3.7550	3.7551	1.7540	26.44	0.47	1.500			
0.5522	35342.85	3.7520	3.7520	1.7820	26.42	0.45	1.500			
0.5576	35689.34	3.7490	3.7489	1.7837	26.40	0.43	1.500			
0.5629	36028.45	3.7460	3.7461	1.8179	26.38	0.41	1.500			
0.5685	36383.08	3.7430	3.7429	1.8542	26.37	0.40	1.500			
0.5741	36742.39	3.7400	3.7400	1.8957	26.35	0.38	1.500			
0.5798	37109.95	3.7370	3.7371	1.9237	26.33	0.36	1.500			
0.5857	37485.52	3.7340	3.7340	1.9625	26.31	0.34	1.500			
0.5917	37866.15	3.7310	3.7310	2.0087	26.29	0.32	1.500			
0.5977	38253.80	3.7280	3.7280	2.0665	26.28	0.31	1.500			
0.6040	38653.85	3.7250	3.7250	2.1201	26.26	0.29	1.500			
0.6105	39073.99	3.7220	3.7220	2.1938	26.25	0.28	1.500			
0.6172	39498.29	3.7190	3.7190	2.2424	26.24	0.27	1.500			
0.6240	39935.98	3.7160	3.7160	2.2974	26.22	0.25	1.500			
0.6309	40379.01	3.7130	3.7130	2.3120	26.20	0.23	1.500			
0.6379	40826.59	3.7100	3.7101	2.3218	26.19	0.22	1.500			
0.6450	41279.26	3.7070	3.7068	2.2985	26.17	0.20	1.500			
0.6519	41723.12	3.7040	3.7041	2.2307	26.16	0.19	1.500			
0.6586	42148.03	3.7010	3.7010	2.1252	26.15	0.18	1.500			
0.6647	42542.23	3.6980	3.6980	1.9668	26.14	0.17	1.500			
0.6704	42903.90	3.6950	3.6951	1.8478	26.13	0.16	1.500			
0.6757	43244.42	3.6920	3.6919	1.7260	26.12	0.15	1.500			
0.6807	43561.76	3.6890	3.6890	1.6140	26.11	0.14	1.500			
0.6853	43859.89	3.6860	3.6861	1.5360	26.10	0.13	1.500			
0.6897	44142.99	3.6830	3.6830	1.4650	26.09	0.12	1.500			
0.6940	44415.77	3.6800	3.6799	1.4083	26.08	0.11	1.500			
0.6981	44676.60	3.6770	3.6771	1.3628	26.08	0.11	1.500			
0.7020	44930.49	3.6740	3.6740	1.3256	26.07	0.10	1.500			
0.7060	45184.06	3.6710	3.6709	1.2991	26.06	0.09	1.500			
0.7098	45429.73	3.6680	3.6680	1.2800	26.06	0.09	1.500			
0.7136	45667.80	3.6650	3.6650	1.2763	26.05	0.08	1.500			
0.7174	45911.40	3.6620	3.6621	1.2776	26.04	0.07	1.500			
0.7212	46155.70	3.6590	3.6587	1.2778	26.04	0.07	1.500			
0.7250	46402.57	3.6560	3.6560	1.2837	26.03	0.06	1.500			
0.7289	46650.72	3.6530	3.6531	1.2877	26.02	0.05	1.500			
0.7328	46900.92	3.6500	3.6500	1.2801	26.01	0.04	1.500			
0.7367	47147.20	3.6470	3.6470	1.2659	26.00	0.03	1.500			
0.7404	47388.66	3.6440	3.6440	1.2550	25.99	0.02	1.500			
0.7442	47628.63	3.6410	3.6411	1.2472	25.98	0.01	1.500			
0.7479	47866.35	3.6380	3.6380	1.2406	25.98	0.01	1.500			
0.7516	48103.88	3.6350	3.6350	1.2303	25.97	0.00	1.500			
0.7553	48338.54	3.6320	3.6320	1.2254	25.97	-0.00	1.500			
0.7590	48574.67	3.6290	3.6290	1.2175	25.96	-0.01	1.500			
0.7626	48807.18	3.6260	3.6260	1.2105	25.96	-0.01	1.500			
0.7662	49038.46	3.6230	3.6229	1.2014	25.96	-0.01	1.500			
0.7698	49268.54	3.6200	3.6199	1.1922	25.95	-0.02	1.500			
0.7734	49498.48	3.6170	3.6170	1.1748	25.95	-0.02	1.500			
0.7769	49723.76	3.6140	3.6140	1.1610	25.95	-0.02	1.500			
0.7804	49945.73	3.6110	3.6111	1.1393	25.95	-0.02	1.500			
0.7838	50164.63	3.6080	3.6080	1.1153	25.94	-0.03	1.500			
0.7871	50374.98	3.6050	3.6049	1.0885	25.94	-0.03	1.500			
0.7903	50581.65	3.6020	3.6020	1.0642	25.94	-0.03	1.500			
0.7935	50783.21	3.5990	3.5990	1.0383	25.94	-0.03	1.500			
0.7966	50980.57	3.5960	3.5960	1.0146	25.94	-0.03	1.500			
0.7996	51175.17	3.5930	3.5929	0.9763	25.95	-0.02	1.500			
0.8025	51362.48	3.5900	3.5899	0.9333	25.95	-0.02	1.500			
0.8054	51544.58	3.5870	3.5870	0.8745	25.95	-0.02	1.500			
0.8079	51707.19	3.5840	3.5841	0.7931	25.96	-0.01	1.500			
0.8102	51855.95	3.5810	3.5810	0.7082	25.96	-0.01	1.500			
0.8122	51982.49	3.5780	3.5780	0.6125	25.96	-0.01	1.500			
0.8139	52086.44	3.5750	3.5750	0.5198	25.96	-0.01	1.500			
0.8152	52175.91	3.5720	3.5720	0.4414	25.96	-0.01	1.500			
0.8164	52248.49	3.5690	3.5690	0.3714	25.97	-0.00	1.500			
0.8174	52311.24	3.5660	3.5660	0.3214	25.97	-0.00	1.500			
0.8182	52364.84	3.5630	3.5629	0.2783	25.97	-0.00	1.500			
0.8190	52413.25	3.5600	3.5600	0.2471	25.97	-0.00	1.500			
0.8196	52456.19	3.5570	3.5570	0.2181	25.97	-0.00	1.500			
0.8202	52494.87	3.5540	3.5540	0.1975	25.97	-0.00	1.500			
0.8208	52529.69	3.5510	3.5511	0.1780	25.97	0.00	1.500			
0.8213	52562.18	3.5480	3.5480	0.1618	25.97	0.00	1.500			
0.8217	52591.55	3.5450	3.5449	0.1474	25.97	0.00	1.500			
0.8222	52618.10	3.5420	3.5420	0.1325	25.97	0.00	1.500			
0.8225	52642.11	3.5390	3.5390	0.1177	25.97	0.00	1.500			
0.8229	52663.64	3.5360	3.5360	0.1046	25.97	0.00	1.500			
0.8232	52682.34	3.5330	3.5331	0.0902	25.97	0.00	1.500			
0.8234	52698.28	3.5300	3.5301	0.0758	25.97	0.00	1.500			
0.8236	52711.71	3.5270	3.5274	0.0613	25.97	0.00	1.500			
0.8238	52722.06	3.5240	3.5246	0.0464	25.97	0.00	1.500			
0.8239	52729.54	3.5210	3.5220	0.0315	25.97	0.00	1.500			
