Ah_balance (normalized)	Ah_balance (mAh)	Voltage - fit (V)	Voltage -  interpolate (V)	dQ/dV (1/V)	Temperature (°C)	Temperature - diff (°C)	Current (C)	R_DC 0ms (mOhm)	R_DC 50ms (mOhm)	R_DC 50 ms PEC (mOhm)
0.2751	17606.42	3.9890	3.9890	0.8477	27.25	1.28	1.500			
0.2777	17769.87	3.9860	3.9859	0.8478	27.24	1.27	1.500			
0.2802	17931.65	3.9830	3.9831	0.8454	27.24	1.27	1.500			
0.2827	18093.37	3.9800	3.9801	0.8463	27.23	1.26	1.500			
0.2852	18255.48	3.9770	3.9769	0.8504	27.23	1.26	1.500			
0.2878	18417.38	3.9740	3.9740	0.8503	27.22	1.25	1.500			
0.2903	18581.62	3.9710	3.9710	0.8583	27.22	1.25	1.500			
0.2930	18749.17	3.9680	3.9680	0.8633	27.21	1.24	1.500			
0.2956	18915.92	3.9650	3.9650	0.8641	27.20	1.23	1.500			
0.2981	19080.46	3.9620	3.9620	0.8679	27.20	1.23	1.500			
0.3007	19247.64	3.9590	3.9590	0.8702	27.19	1.22	1.500			
0.3033	19413.64	3.9560	3.9560	0.8702	27.19	1.22	1.500			
0.3060	19581.09	3.9530	3.9530	0.8766	27.18	1.21	1.500			
0.3086	19750.13	3.9500	3.9501	0.8807	27.18	1.21	1.500			
0.3112	19919.95	3.9470	3.9470	0.8879	27.17	1.20	1.500			
0.3139	20090.94	3.9440	3.9440	0.8943	27.17	1.20	1.500			
0.3166	20263.46	3.9410	3.9410	0.8951	27.16	1.19	1.500			
0.3193	20437.22	3.9380	3.9379	0.8985	27.16	1.19	1.500			
0.3220	20608.34	3.9350	3.9351	0.9025	27.15	1.18	1.500			
0.3247	20780.49	3.9320	3.9321	0.9056	27.15	1.18	1.500			
0.3274	20955.36	3.9290	3.9288	0.9115	27.14	1.17	1.500			
0.3302	21129.84	3.9260	3.9260	0.9155	27.13	1.16	1.500			
0.3329	21306.40	3.9230	3.9231	0.9235	27.13	1.16	1.500			
0.3357	21487.07	3.9200	3.9201	0.9350	27.12	1.15	1.500			
0.3385	21665.30	3.9170	3.9169	0.9340	27.11	1.14	1.500			
0.3413	21846.29	3.9140	3.9139	0.9430	27.11	1.14	1.500			
0.3442	22027.94	3.9110	3.9110	0.9461	27.10	1.13	1.500			
0.3470	22209.24	3.9080	3.9081	0.9567	27.09	1.12	1.500			
0.3499	22393.87	3.9050	3.9050	0.9641	27.09	1.12	1.500			
0.3528	22579.56	3.9020	3.9018	0.9714	27.08	1.11	1.500			
0.3557	22767.01	3.8990	3.8991	0.9752	27.07	1.10	1.500			
0.3587	22954.53	3.8960	3.8961	0.9832	27.07	1.10	1.500			
0.3616	23144.11	3.8930	3.8930	0.9948	27.06	1.09	1.500			
0.3646	23334.56	3.8900	3.8900	1.0015	27.06	1.09	1.500			
0.3676	23528.56	3.8870	3.8869	1.0088	27.05	1.08	1.500			
0.3707	23723.23	3.8840	3.8841	1.0268	27.04	1.07	1.500			
0.3738	23922.01	3.8810	3.8810	1.0384	27.04	1.07	1.500			
0.3769	24123.60	3.8780	3.8779	1.0508	27.03	1.06	1.500			
0.3801	24324.83	3.8750	3.8751	1.0607	27.02	1.05	1.500			
0.3833	24528.84	3.8720	3.8719	1.0686	27.02	1.05	1.500			
0.3865	24736.16	3.8690	3.8690	1.0778	27.01	1.04	1.500			
0.3898	24945.07	3.8660	3.8659	1.0875	27.00	1.03	1.500			
0.3930	25151.92	3.8630	3.8631	1.0960	26.99	1.02	1.500			
0.3963	25362.88	3.8600	3.8600	1.1144	26.98	1.01	1.500			
0.3997	25577.66	3.8570	3.8570	1.1268	26.97	1.00	1.500			
0.4031	25795.58	3.8540	3.8539	1.1418	26.96	0.99	1.500			
0.4065	26016.60	3.8510	3.8510	1.1624	26.95	0.98	1.500			
0.4100	26241.15	3.8480	3.8481	1.1821	26.94	0.97	1.500			
0.4136	26471.06	3.8450	3.8449	1.1980	26.93	0.96	1.500			
0.4172	26701.49	3.8420	3.8420	1.2123	26.93	0.96	1.500			
0.4209	26935.50	3.8390	3.8390	1.2297	26.92	0.95	1.500			
0.4246	27173.19	3.8360	3.8361	1.2568	26.91	0.94	1.500			
0.4284	27415.69	3.8330	3.8329	1.2795	26.90	0.93	1.500			
0.4322	27663.97	3.8300	3.8300	1.2972	26.89	0.92	1.500			
0.4362	27914.85	3.8270	3.8270	1.3199	26.87	0.90	1.500			
0.4402	28172.99	3.8240	3.8241	1.3352	26.86	0.89	1.500			
0.4442	28430.01	3.8210	3.8210	1.3596	26.85	0.88	1.500			
0.4483	28692.37	3.8180	3.8180	1.3793	26.83	0.86	1.500			
0.4525	28958.35	3.8150	3.8149	1.4003	26.82	0.85	1.500			
0.4567	29229.09	3.8120	3.8121	1.4208	26.81	0.84	1.500			
0.4610	29504.64	3.8090	3.8090	1.4519	26.80	0.83	1.500			
0.4654	29785.89	3.8060	3.8061	1.4756	26.79	0.82	1.500			
0.4699	30071.04	3.8030	3.8029	1.4988	26.77	0.80	1.500			
0.4744	30358.40	3.8000	3.8001	1.5313	26.76	0.79	1.500			
0.4790	30657.22	3.7970	3.7969	1.5579	26.75	0.78	1.500			
0.4838	30961.72	3.7940	3.7940	1.5890	26.73	0.76	1.500			
0.4886	31269.39	3.7910	3.7910	1.6057	26.72	0.75	1.500			
0.4934	31580.48	3.7880	3.7879	1.6319	26.71	0.74	1.500			
0.4983	31891.01	3.7850	3.7851	1.6667	26.69	0.72	1.500			
0.5034	32214.74	3.7820	3.7812	1.6935	26.68	0.71	1.500	0.353	0.474	
0.5085	32544.06	3.7790	3.7790	1.7249	26.67	0.70	1.500			
0.5138	32884.30	3.7760	3.7760	1.7257	26.66	0.69	1.500			
0.5189	33212.18	3.7730	3.7730	1.7089	26.65	0.68	1.500			
0.5240	33536.50	3.7700	3.7700	1.7171	26.64	0.67	1.500			
0.5291	33864.01	3.7670	3.7670	1.7237	26.63	0.66	1.500			
0.5343	34195.71	3.7640	3.7641	1.7352	26.61	0.64	1.500			
0.5396	34535.47	3.7610	3.7610	1.7429	26.60	0.63	1.500			
0.5448	34866.85	3.7580	3.7580	1.7391	26.59	0.62	1.500			
0.5500	35200.47	3.7550	3.7551	1.7530	26.58	0.61	1.500			
0.5553	35539.03	3.7520	3.7519	1.7714	26.57	0.60	1.500			
0.5606	35881.02	3.7490	3.7490	1.7895	26.55	0.58	1.500			
0.5660	36224.12	3.7460	3.7460	1.8198	26.54	0.57	1.500			
0.5714	36572.57	3.7430	3.7430	1.8467	26.53	0.56	1.500			
0.5770	36926.50	3.7400	3.7399	1.8811	26.52	0.55	1.500			
0.5827	37294.29	3.7370	3.7371	1.9298	26.51	0.54	1.500			
0.5886	37672.23	3.7340	3.7340	1.9504	26.49	0.52	1.500			
0.5945	38049.77	3.7310	3.7311	2.0136	26.47	0.50	1.500			
0.6006	38438.53	3.7280	3.7279	2.0665	26.46	0.49	1.500			
0.6069	38843.35	3.7250	3.7251	2.1348	26.44	0.47	1.500			
0.6135	39261.79	3.7220	3.7220	2.2020	26.42	0.45	1.500			
0.6201	39689.54	3.7190	3.7190	2.2733	26.40	0.43	1.500			
0.6270	40126.86	3.7160	3.7159	2.3056	26.38	0.41	1.500			
0.6340	40577.49	3.7130	3.7131	2.3445	26.37	0.40	1.500			
0.6412	41036.33	3.7100	3.7100	2.3365	26.35	0.38	1.500			
0.6482	41483.92	3.7070	3.7070	2.2835	26.33	0.36	1.500			
0.6551	41924.51	3.7040	3.7040	2.2232	26.31	0.34	1.500			
0.6617	42349.08	3.7010	3.7009	2.1126	26.30	0.33	1.500			
0.6678	42740.35	3.6980	3.6981	1.9637	26.28	0.31	1.500			
0.6734	43098.46	3.6950	3.6950	1.8231	26.27	0.30	1.500			
0.6786	43429.95	3.6920	3.6920	1.6974	26.26	0.29	1.500			
0.6834	43740.77	3.6890	3.6890	1.6019	26.25	0.28	1.500			
0.6881	44038.73	3.6860	3.6859	1.5227	26.24	0.27	1.500			
0.6926	44325.08	3.6830	3.6830	1.4621	26.22	0.25	1.500			
0.6968	44597.27	3.6800	3.6800	1.4027	26.21	0.24	1.500			
0.7009	44858.62	3.6770	3.6770	1.3613	26.20	0.23	1.500			
0.7049	45115.53	3.6740	3.6740	1.3216	26.20	0.23	1.500			
0.7088	45361.28	3.6710	3.6709	1.2965	26.19	0.22	1.500			
0.7126	45607.18	3.6680	3.6681	1.2781	26.18	0.21	1.500			
0.7164	45849.24	3.6650	3.6649	1.2720	26.17	0.20	1.500			
0.7202	46090.35	3.6620	3.6621	1.2739	26.16	0.19	1.500			
0.7240	46333.16	3.6590	3.6590	1.2741	26.15	0.18	1.500			
0.7278	46579.22	3.6560	3.6560	1.2758	26.14	0.17	1.500			
0.7317	46827.63	3.6530	3.6530	1.2835	26.13	0.16	1.500			
0.7355	47074.29	3.6500	3.6501	1.2798	26.12	0.15	1.500			
0.7394	47324.77	3.6470	3.6470	1.2727	26.10	0.13	1.500			
0.7432	47565.80	3.6440	3.6439	1.2644	26.09	0.12	1.500			
0.7470	47807.40	3.6410	3.6411	1.2532	26.08	0.11	1.500			
0.7507	48047.60	3.6380	3.6380	1.2424	26.07	0.10	1.500			
0.7545	48284.80	3.6350	3.6350	1.2336	26.06	0.09	1.500			
0.7581	48519.72	3.6320	3.6321	1.2232	26.05	0.08	1.500			
0.7618	48754.24	3.6290	3.6290	1.2162	26.04	0.07	1.500			
0.7655	48990.14	3.6260	3.6260	1.2078	26.03	0.06	1.500			
0.7690	49217.50	3.6230	3.6230	1.1925	26.02	0.05	1.500			
0.7726	49447.68	3.6200	3.6200	1.1853	26.01	0.04	1.500			
0.7762	49675.44	3.6170	3.6170	1.1708	26.00	0.03	1.500			
0.7797	49898.69	3.6140	3.6140	1.1497	26.00	0.03	1.500			
0.7831	50117.82	3.6110	3.6111	1.1327	25.99	0.02	1.500			
0.7865	50334.94	3.6080	3.6081	1.1093	25.99	0.02	1.500			
0.7898	50547.73	3.6050	3.6049	1.0860	25.99	0.02	1.500			
0.7930	50752.21	3.6020	3.6020	1.0535	25.98	0.01	1.500			
0.7961	50952.24	3.5990	3.5991	1.0279	25.98	0.01	1.500			
0.7992	51147.27	3.5960	3.5960	1.0016	25.97	0.00	1.500			
0.8022	51337.92	3.5930	3.5929	0.9642	25.97	0.00	1.500			
0.8051	51523.85	3.5900	3.5900	0.9095	25.97	-0.00	1.500			
0.8078	51697.50	3.5870	3.5870	0.8478	25.96	-0.01	1.500			
0.8103	51860.61	3.5840	3.5841	0.7700	25.96	-0.01	1.500			
0.8125	52000.87	3.5810	3.5810	0.6752	25.96	-0.01	1.500			
0.8144	52118.56	3.5780	3.5780	0.5793	25.96	-0.01	1.500			
0.8159	52218.17	3.5750	3.5750	0.4897	25.95	-0.02	1.500			
0.8172	52299.86	3.5720	3.5720	0.4128	25.95	-0.02	1.500			
0.8183	52369.15	3.5690	3.5689	0.3542	25.95	-0.02	1.500			
0.8192	52426.93	3.5660	3.5660	0.3024	25.95	-0.02	1.500			
0.8200	52478.60	3.5630	3.5630	0.2665	25.95	-0.02	1.500			
0.8207	52523.78	3.5600	3.5599	0.2323	25.95	-0.02	1.500			
0.8213	52564.98	3.5570	3.5570	0.2091	25.95	-0.02	1.500			
0.8219	52601.43	3.5540	3.5540	0.1875	25.95	-0.02	1.500			
0.8224	52635.50	3.5510	3.5510	0.1692	25.95	-0.02	1.500			
0.8229	52665.97	3.5480	3.5480	0.1537	25.95	-0.02	1.500			
0.8233	52693.49	3.5450	3.5449	0.1373	25.95	-0.02	1.500			
0.8237	52718.04	3.5420	3.5420	0.1224	25.95	-0.02	1.500			
0.8241	52739.86	3.5390	3.5390	0.1072	25.94	-0.03	1.500			
0.8244	52759.11	3.5360	3.5361	0.0933	25.94	-0.03	1.500			
0.8246	52775.99	3.5330	3.5331	0.0795	25.94	-0.03	1.500			
0.8248	52790.19	3.5300	3.5304	0.0650	25.94	-0.03	1.500			
0.8250	52801.23	3.5270	3.5275	0.0500	25.94	-0.03	1.500			
0.8251	52809.40	3.5240	3.5250	0.0351	25.94	-0.03	1.500			
