Ah_balance (normalized)	Ah_balance (mAh)	Voltage - fit (V)	Voltage -  interpolate (V)	dQ/dV (1/V)	Temperature (°C)	Temperature - diff (°C)	Current (C)	R_DC 0ms (mOhm)	R_DC 50ms (mOhm)	R_DC 50 ms PEC (mOhm)
0.2822	18060.19	3.9840	3.9840	0.8423	27.24	1.28	1.500			
0.2847	18222.19	3.9810	3.9809	0.8454	27.23	1.27	1.500			
0.2873	18384.79	3.9780	3.9781	0.8501	27.23	1.27	1.500			
0.2898	18547.75	3.9750	3.9749	0.8572	27.22	1.26	1.500			
0.2924	18713.71	3.9720	3.9720	0.8623	27.22	1.26	1.500			
0.2950	18879.53	3.9690	3.9690	0.8669	27.21	1.25	1.500			
0.2976	19045.37	3.9660	3.9660	0.8720	27.20	1.24	1.500			
0.3002	19214.70	3.9630	3.9630	0.8738	27.20	1.24	1.500			
0.3029	19383.51	3.9600	3.9600	0.8772	27.19	1.23	1.500			
0.3055	19552.04	3.9570	3.9570	0.8771	27.19	1.23	1.500			
0.3081	19719.90	3.9540	3.9541	0.8805	27.18	1.22	1.500			
0.3108	19890.34	3.9510	3.9510	0.8848	27.18	1.22	1.500			
0.3134	20058.60	3.9480	3.9480	0.8880	27.17	1.21	1.500			
0.3161	20229.48	3.9450	3.9450	0.8946	27.17	1.21	1.500			
0.3188	20403.16	3.9420	3.9420	0.9004	27.16	1.20	1.500			
0.3215	20576.05	3.9390	3.9390	0.9020	27.16	1.20	1.500			
0.3242	20749.11	3.9360	3.9361	0.9108	27.15	1.19	1.500			
0.3269	20923.99	3.9330	3.9330	0.9161	27.15	1.19	1.500			
0.3297	21102.76	3.9300	3.9299	0.9149	27.14	1.18	1.500			
0.3325	21277.44	3.9270	3.9270	0.9191	27.13	1.17	1.500			
0.3352	21453.14	3.9240	3.9241	0.9256	27.13	1.17	1.500			
0.3380	21631.26	3.9210	3.9210	0.9340	27.12	1.16	1.500			
0.3408	21810.66	3.9180	3.9179	0.9360	27.12	1.16	1.500			
0.3436	21989.49	3.9150	3.9149	0.9450	27.11	1.15	1.500			
0.3465	22174.36	3.9120	3.9121	0.9481	27.10	1.14	1.500			
0.3493	22357.13	3.9090	3.9090	0.9589	27.10	1.14	1.500			
0.3522	22540.58	3.9060	3.9060	0.9588	27.09	1.13	1.500			
0.3551	22726.08	3.9030	3.9029	0.9638	27.08	1.12	1.500			
0.3579	22908.58	3.9000	3.9000	0.9764	27.08	1.12	1.500			
0.3609	23097.94	3.8970	3.8970	0.9881	27.07	1.11	1.500			
0.3639	23288.62	3.8940	3.8939	0.9962	27.06	1.10	1.500			
0.3669	23482.43	3.8910	3.8910	1.0109	27.05	1.09	1.500			
0.3699	23676.12	3.8880	3.8881	1.0137	27.05	1.09	1.500			
0.3730	23873.70	3.8850	3.8851	1.0251	27.04	1.08	1.500			
0.3761	24071.13	3.8820	3.8820	1.0287	27.03	1.07	1.500			
0.3792	24267.14	3.8790	3.8788	1.0335	27.02	1.06	1.500			
0.3823	24466.14	3.8760	3.8761	1.0466	27.01	1.05	1.500			
0.3854	24666.86	3.8730	3.8729	1.0601	27.00	1.04	1.500			
0.3886	24872.18	3.8700	3.8700	1.0705	26.99	1.03	1.500			
0.3919	25079.52	3.8670	3.8670	1.0890	26.99	1.03	1.500			
0.3952	25289.91	3.8640	3.8640	1.1009	26.98	1.02	1.500			
0.3985	25503.82	3.8610	3.8610	1.1127	26.97	1.01	1.500			
0.4018	25718.06	3.8580	3.8580	1.1226	26.96	1.00	1.500			
0.4052	25933.82	3.8550	3.8551	1.1351	26.95	0.99	1.500			
0.4086	26151.75	3.8520	3.8520	1.1501	26.95	0.99	1.500			
0.4121	26374.30	3.8490	3.8490	1.1696	26.94	0.98	1.500			
0.4156	26598.62	3.8460	3.8461	1.1870	26.93	0.97	1.500			
0.4192	26829.28	3.8430	3.8430	1.2141	26.92	0.96	1.500			
0.4229	27065.99	3.8400	3.8400	1.2363	26.91	0.95	1.500			
0.4267	27307.00	3.8370	3.8370	1.2494	26.90	0.94	1.500			
0.4304	27547.82	3.8340	3.8340	1.2714	26.89	0.93	1.500			
0.4343	27793.34	3.8310	3.8311	1.2921	26.88	0.92	1.500			
0.4381	28040.62	3.8280	3.8280	1.3177	26.87	0.91	1.500			
0.4421	28295.05	3.8250	3.8250	1.3471	26.85	0.89	1.500			
0.4462	28555.83	3.8220	3.8220	1.3747	26.85	0.89	1.500			
0.4504	28824.75	3.8190	3.8190	1.4045	26.83	0.87	1.500			
0.4547	29099.60	3.8160	3.8160	1.4443	26.82	0.86	1.500			
0.4590	29378.37	3.8130	3.8130	1.4682	26.81	0.85	1.500			
0.4635	29662.91	3.8100	3.8099	1.4998	26.80	0.84	1.500			
0.4680	29952.08	3.8070	3.8071	1.5414	26.79	0.83	1.500			
0.4727	30251.87	3.8040	3.8040	1.5733	26.78	0.82	1.500			
0.4775	30557.72	3.8010	3.8009	1.6120	26.76	0.80	1.500			
0.4823	30870.27	3.7980	3.7981	1.6471	26.75	0.79	1.500			
0.4874	31191.22	3.7950	3.7950	1.6922	26.74	0.78	1.500			
0.4925	31521.49	3.7920	3.7920	1.7317	26.72	0.76	1.500			
0.4978	31858.01	3.7890	3.7890	1.7559	26.71	0.75	1.500			
0.5031	32199.50	3.7860	3.7860	1.7945	26.69	0.73	1.500			
0.5086	32547.35	3.7830	3.7830	1.8280	26.68	0.72	1.500			
0.5140	32897.33	3.7800	3.7799	1.8711	26.66	0.70	1.500			
0.5196	33257.39	3.7770	3.7770	1.9285	26.64	0.68	1.500			
0.5256	33635.98	3.7740	3.7740	1.9842	26.63	0.67	1.500			
0.5317	34030.17	3.7710	3.7709	1.9985	26.61	0.65	1.500	0.354	0.459	
0.5378	34417.68	3.7680	3.7680	1.9994	26.59	0.63	1.500			
0.5438	34801.96	3.7650	3.7650	1.9714	26.57	0.61	1.500			
0.5496	35176.79	3.7620	3.7620	1.9289	26.55	0.59	1.500			
0.5554	35543.86	3.7590	3.7590	1.9208	26.54	0.58	1.500			
0.5611	35909.15	3.7560	3.7560	1.9066	26.52	0.56	1.500			
0.5668	36275.80	3.7530	3.7530	1.9072	26.50	0.54	1.500			
0.5725	36641.28	3.7500	3.7500	1.9008	26.49	0.53	1.500			
0.5782	37005.69	3.7470	3.7470	1.9135	26.47	0.51	1.500			
0.5839	37370.48	3.7440	3.7440	1.9248	26.46	0.50	1.500			
0.5897	37741.77	3.7410	3.7409	1.9386	26.44	0.48	1.500			
0.5956	38117.28	3.7380	3.7380	1.9710	26.43	0.47	1.500			
0.6015	38499.20	3.7350	3.7350	1.9899	26.41	0.45	1.500			
0.6075	38879.34	3.7320	3.7320	2.0034	26.40	0.44	1.500			
0.6135	39264.36	3.7290	3.7290	2.0581	26.38	0.42	1.500			
0.6198	39666.17	3.7260	3.7260	2.1220	26.37	0.41	1.500			
0.6262	40077.32	3.7230	3.7230	2.1641	26.35	0.39	1.500			
0.6328	40499.68	3.7200	3.7201	2.2318	26.34	0.38	1.500			
0.6396	40931.21	3.7170	3.7169	2.2888	26.32	0.36	1.500			
0.6465	41377.46	3.7140	3.7140	2.3285	26.30	0.34	1.500			
0.6536	41829.31	3.7110	3.7111	2.4321	26.29	0.33	1.500			
0.6610	42301.84	3.7080	3.7081	2.5002	26.27	0.31	1.500			
0.6686	42788.53	3.7050	3.7050	2.5758	26.25	0.29	1.500			
0.6764	43292.63	3.7020	3.7021	2.5814	26.23	0.27	1.500			
0.6844	43804.14	3.6990	3.6990	2.5537	26.21	0.25	1.500			
0.6921	44293.04	3.6960	3.6960	2.4598	26.20	0.24	1.500			
0.6994	44760.69	3.6930	3.6931	2.3239	26.18	0.22	1.500			
0.7062	45198.65	3.6900	3.6899	2.1547	26.17	0.21	1.500			
0.7122	45582.72	3.6870	3.6871	1.9612	26.16	0.20	1.500			
0.7177	45935.69	3.6840	3.6840	1.8104	26.15	0.19	1.500			
0.7229	46265.13	3.6810	3.6810	1.6803	26.14	0.18	1.500			
0.7278	46577.02	3.6780	3.6780	1.5837	26.13	0.17	1.500			
0.7323	46866.18	3.6750	3.6750	1.5012	26.13	0.17	1.500			
0.7366	47145.19	3.6720	3.6720	1.4306	26.12	0.16	1.500			
0.7408	47408.82	3.6690	3.6689	1.3664	26.11	0.15	1.500			
0.7448	47665.10	3.6660	3.6660	1.3211	26.10	0.14	1.500			
0.7486	47909.10	3.6630	3.6631	1.2843	26.09	0.13	1.500			
0.7524	48152.56	3.6600	3.6599	1.2599	26.09	0.13	1.500			
0.7560	48386.70	3.6570	3.6570	1.2584	26.08	0.12	1.500			
0.7598	48626.70	3.6540	3.6540	1.2631	26.07	0.11	1.500			
0.7636	48868.79	3.6510	3.6509	1.2721	26.06	0.10	1.500			
0.7674	49114.69	3.6480	3.6481	1.2876	26.05	0.09	1.500			
0.7713	49363.99	3.6450	3.6451	1.2994	26.05	0.09	1.500			
0.7753	49617.86	3.6420	3.6419	1.3000	26.04	0.08	1.500			
0.7792	49870.14	3.6390	3.6390	1.3016	26.03	0.07	1.500			
0.7831	50117.92	3.6360	3.6361	1.2914	26.02	0.06	1.500			
0.7870	50365.85	3.6330	3.6331	1.2919	26.02	0.06	1.500			
0.7908	50612.57	3.6300	3.6299	1.2872	26.01	0.05	1.500			
0.7947	50858.54	3.6270	3.6270	1.2825	26.00	0.04	1.500			
0.7985	51104.68	3.6240	3.6240	1.2802	25.99	0.03	1.500			
0.8024	51351.72	3.6210	3.6210	1.2747	25.99	0.03	1.500			
0.8062	51596.58	3.6180	3.6180	1.2705	25.98	0.02	1.500			
0.8100	51840.16	3.6150	3.6150	1.2684	25.97	0.01	1.500			
0.8138	52083.46	3.6120	3.6119	1.2589	25.96	0.00	1.500			
0.8176	52324.25	3.6090	3.6090	1.2501	25.96	-0.00	1.500			
0.8213	52565.52	3.6060	3.6060	1.2350	25.95	-0.01	1.500			
0.8251	52803.21	3.6030	3.6031	1.2234	25.95	-0.01	1.500			
0.8287	53036.14	3.6000	3.6000	1.2006	25.95	-0.01	1.500			
0.8322	53263.22	3.5970	3.5970	1.1832	25.95	-0.01	1.500			
0.8357	53487.22	3.5940	3.5940	1.1656	25.94	-0.02	1.500			
0.8392	53709.41	3.5910	3.5910	1.1566	25.94	-0.02	1.500			
0.8427	53931.08	3.5880	3.5880	1.1436	25.94	-0.02	1.500			
0.8461	54151.95	3.5850	3.5850	1.1275	25.94	-0.02	1.500			
0.8495	54369.15	3.5820	3.5819	1.1015	25.95	-0.01	1.500			
0.8529	54586.57	3.5790	3.5790	1.0572	25.95	-0.01	1.500			
0.8561	54789.08	3.5760	3.5760	0.9849	25.95	-0.01	1.500			
0.8591	54980.54	3.5730	3.5730	0.8925	25.96	-0.00	1.500			
0.8616	55143.85	3.5700	3.5701	0.7748	25.96	-0.00	1.500			
0.8638	55280.82	3.5670	3.5671	0.6590	25.96	-0.00	1.500			
0.8655	55391.72	3.5640	3.5639	0.5412	25.96	0.00	1.500			
0.8668	55475.66	3.5610	3.5610	0.4442	25.96	0.00	1.500			
0.8679	55547.31	3.5580	3.5581	0.3722	25.96	0.00	1.500			
0.8689	55609.04	3.5550	3.5549	0.3102	25.96	0.00	1.500			
0.8697	55662.61	3.5520	3.5519	0.2718	25.96	0.00	1.500			
0.8704	55707.62	3.5490	3.5490	0.2375	25.96	0.00	1.500			
0.8711	55748.59	3.5460	3.5459	0.2123	25.96	0.00	1.500			
0.8717	55785.75	3.5430	3.5431	0.1890	25.97	0.01	1.500			
0.8722	55819.55	3.5400	3.5400	0.1719	25.97	0.01	1.500			
0.8727	55850.29	3.5370	3.5370	0.1560	25.97	0.01	1.500			
0.8731	55878.60	3.5340	3.5340	0.1410	25.97	0.01	1.500			
0.8735	55904.39	3.5310	3.5310	0.1269	25.97	0.01	1.500			
0.8739	55927.33	3.5280	3.5280	0.1126	25.97	0.01	1.500			
0.8742	55947.64	3.5250	3.5249	0.0986	25.97	0.01	1.500			
0.8745	55965.37	3.5220	3.5221	0.0847	25.97	0.01	1.500			
0.8747	55980.26	3.5190	3.5192	0.0704	25.97	0.01	1.500			
0.8749	55992.66	3.5160	3.5163	0.0553	25.97	0.01	1.500			
0.8750	56001.83	3.5130	3.5134	0.0401	25.97	0.01	1.500			
