Ah_balance (normalized)	Ah_balance (mAh)	Voltage - fit (V)	Voltage -  interpolate (V)	dQ/dV (1/V)	Temperature (°C)	Temperature - diff (°C)	Current (C)	R_DC 0ms (mOhm)	R_DC 50ms (mOhm)	R_DC 50 ms PEC (mOhm)
0.2032	13003.53	3.9130	3.9127	-0.1094	25.97	-0.01	-1.500			
0.2035	13026.95	3.9100	3.9098	-0.1376	25.97	-0.01	-1.500			
0.2040	13056.77	3.9070	3.9070	-0.1681	25.97	-0.01	-1.500			
0.2046	13091.79	3.9040	3.9041	-0.1975	25.97	-0.01	-1.500			
0.2052	13132.61	3.9010	3.9009	-0.2266	25.97	-0.01	-1.500			
0.2059	13179.14	3.8980	3.8981	-0.2524	25.97	-0.01	-1.500			
0.2067	13230.87	3.8950	3.8950	-0.2796	25.97	-0.01	-1.500			
0.2076	13286.91	3.8920	3.8921	-0.3066	25.97	-0.01	-1.500			
0.2086	13348.17	3.8890	3.8889	-0.3344	25.97	-0.01	-1.500			
0.2096	13415.01	3.8860	3.8860	-0.3591	25.97	-0.01	-1.500			
0.2107	13486.43	3.8830	3.8829	-0.3865	25.97	-0.01	-1.500			
0.2119	13563.56	3.8800	3.8801	-0.4126	25.97	-0.01	-1.500			
0.2132	13645.69	3.8770	3.8770	-0.4389	25.97	-0.01	-1.500			
0.2146	13732.69	3.8740	3.8739	-0.4639	25.98	-0.00	-1.500			
0.2160	13824.00	3.8710	3.8710	-0.4891	25.98	-0.00	-1.500			
0.2175	13920.77	3.8680	3.8679	-0.5098	25.98	-0.00	-1.500			
0.2191	14021.57	3.8650	3.8651	-0.5310	25.98	-0.00	-1.500			
0.2207	14125.40	3.8620	3.8620	-0.5510	25.98	0.00	-1.500			
0.2224	14233.61	3.8590	3.8590	-0.5688	25.98	0.00	-1.500			
0.2241	14344.80	3.8560	3.8559	-0.5857	25.98	0.00	-1.500			
0.2259	14458.81	3.8530	3.8531	-0.6019	25.98	0.00	-1.500			
0.2278	14576.64	3.8500	3.8500	-0.6160	25.99	0.01	-1.500			
0.2296	14696.94	3.8470	3.8470	-0.6311	25.99	0.01	-1.500			
0.2316	14820.03	3.8440	3.8440	-0.6392	25.99	0.01	-1.500			
0.2335	14943.84	3.8410	3.8410	-0.6458	25.99	0.01	-1.500			
0.2354	15068.80	3.8380	3.8381	-0.6562	25.99	0.01	-1.500			
0.2374	15195.26	3.8350	3.8350	-0.6617	25.99	0.01	-1.500			
0.2394	15323.46	3.8320	3.8320	-0.6711	26.00	0.02	-1.500			
0.2415	15454.21	3.8290	3.8289	-0.6739	26.00	0.02	-1.500			
0.2435	15583.94	3.8260	3.8260	-0.6800	26.00	0.02	-1.500			
0.2456	15715.55	3.8230	3.8232	-0.6855	26.00	0.02	-1.500			
0.2476	15847.58	3.8200	3.8199	-0.6870	26.00	0.02	-1.500			
0.2497	15978.52	3.8170	3.8170	-0.6900	26.01	0.03	-1.500			
0.2517	16111.23	3.8140	3.8140	-0.6920	26.01	0.03	-1.500			
0.2538	16245.81	3.8110	3.8110	-0.6969	26.01	0.03	-1.500			
0.2559	16379.83	3.8080	3.8080	-0.6971	26.02	0.04	-1.500			
0.2580	16512.96	3.8050	3.8050	-0.6948	26.02	0.04	-1.500			
0.2601	16646.70	3.8020	3.8020	-0.6965	26.02	0.04	-1.500			
0.2622	16779.75	3.7990	3.7990	-0.6998	26.03	0.05	-1.500			
0.2643	16913.71	3.7960	3.7960	-0.7018	26.03	0.05	-1.500			
0.2664	17050.10	3.7930	3.7930	-0.7035	26.03	0.05	-1.500			
0.2685	17184.91	3.7900	3.7901	-0.7051	26.04	0.06	-1.500			
0.2706	17320.70	3.7870	3.7870	-0.7065	26.04	0.06	-1.500			
0.2728	17457.35	3.7840	3.7839	-0.7039	26.04	0.06	-1.500			
0.2749	17591.71	3.7810	3.7810	-0.7022	26.05	0.07	-1.500			
0.2770	17725.62	3.7780	3.7781	-0.7020	26.05	0.07	-1.500			
0.2791	17859.88	3.7750	3.7750	-0.7042	26.06	0.08	-1.500			
0.2812	17995.56	3.7720	3.7720	-0.7063	26.06	0.08	-1.500			
0.2833	18131.21	3.7690	3.7690	-0.7029	26.07	0.09	-1.500			
0.2854	18266.31	3.7660	3.7659	-0.7065	26.07	0.09	-1.500			
0.2875	18402.70	3.7630	3.7632	-0.7111	26.07	0.09	-1.500			
0.2897	18539.16	3.7600	3.7600	-0.7098	26.08	0.10	-1.500			
0.2918	18675.34	3.7570	3.7569	-0.7105	26.08	0.10	-1.500			
0.2939	18812.24	3.7540	3.7540	-0.7116	26.09	0.11	-1.500			
0.2961	18949.08	3.7510	3.7511	-0.7126	26.09	0.11	-1.500			
0.2982	19086.23	3.7480	3.7479	-0.7125	26.10	0.12	-1.500			
0.3003	19221.83	3.7450	3.7450	-0.7099	26.10	0.12	-1.500			
0.3024	19356.64	3.7420	3.7420	-0.7136	26.11	0.13	-1.500			
0.3046	19494.58	3.7390	3.7390	-0.7215	26.12	0.14	-1.500			
0.3068	19634.15	3.7360	3.7359	-0.7244	26.12	0.14	-1.500			
0.3090	19773.96	3.7330	3.7330	-0.7304	26.13	0.15	-1.500			
0.3112	19915.43	3.7300	3.7300	-0.7362	26.13	0.15	-1.500			
0.3134	20057.01	3.7270	3.7270	-0.7410	26.14	0.16	-1.500			
0.3156	20199.15	3.7240	3.7240	-0.7440	26.15	0.17	-1.500			
0.3178	20341.80	3.7210	3.7210	-0.7477	26.15	0.17	-1.500			
0.3201	20486.32	3.7180	3.7180	-0.7556	26.16	0.18	-1.500			
0.3224	20632.26	3.7150	3.7150	-0.7625	26.16	0.18	-1.500			
0.3247	20778.83	3.7120	3.7120	-0.7677	26.17	0.19	-1.500			
0.3270	20926.87	3.7090	3.7090	-0.7751	26.18	0.20	-1.500			
0.3293	21076.54	3.7060	3.7059	-0.7800	26.18	0.20	-1.500			
0.3317	21226.20	3.7030	3.7030	-0.7904	26.19	0.21	-1.500			
0.3340	21378.36	3.7000	3.7000	-0.8014	26.19	0.21	-1.500			
0.3364	21532.61	3.6970	3.6970	-0.8123	26.20	0.22	-1.500			
0.3389	21691.19	3.6940	3.6940	-0.8199	26.20	0.22	-1.500			
0.3414	21849.66	3.6910	3.6910	-0.8297	26.21	0.23	-1.500			
0.3439	22009.30	3.6880	3.6880	-0.8421	26.22	0.24	-1.500			
0.3464	22172.56	3.6850	3.6850	-0.8524	26.22	0.24	-1.500			
0.3490	22335.80	3.6820	3.6819	-0.8615	26.23	0.25	-1.500			
0.3516	22501.17	3.6790	3.6791	-0.8757	26.23	0.25	-1.500			
0.3542	22670.72	3.6760	3.6760	-0.8892	26.23	0.25	-1.500			
0.3569	22844.42	3.6730	3.6729	-0.9058	26.24	0.26	-1.500			
0.3597	23018.29	3.6700	3.6700	-0.9212	26.24	0.26	-1.500			
0.3625	23196.89	3.6670	3.6670	-0.9352	26.25	0.27	-1.500			
0.3653	23380.33	3.6640	3.6639	-0.9492	26.25	0.27	-1.500			
0.3682	23563.02	3.6610	3.6610	-0.9631	26.26	0.28	-1.500			
0.3711	23748.39	3.6580	3.6581	-0.9766	26.26	0.28	-1.500			
0.3740	23937.49	3.6550	3.6551	-0.9942	26.26	0.28	-1.500			
0.3770	24129.77	3.6520	3.6519	-1.0099	26.27	0.29	-1.500			
0.3801	24324.43	3.6490	3.6490	-1.0263	26.27	0.29	-1.500			
0.3832	24523.86	3.6460	3.6460	-1.0439	26.27	0.29	-1.500			
0.3863	24724.88	3.6430	3.6430	-1.0644	26.27	0.29	-1.500			
0.3895	24929.67	3.6400	3.6400	-1.0832	26.28	0.30	-1.500			
0.3928	25140.05	3.6370	3.6369	-1.1060	26.28	0.30	-1.500			
0.3962	25355.12	3.6340	3.6340	-1.1253	26.28	0.30	-1.500			
0.3996	25574.22	3.6310	3.6310	-1.1444	26.28	0.30	-1.500			
0.4031	25796.47	3.6280	3.6281	-1.1677	26.29	0.31	-1.500			
0.4066	26022.54	3.6250	3.6250	-1.1902	26.29	0.31	-1.500			
0.4102	26251.01	3.6220	3.6219	-1.2095	26.29	0.31	-1.500			
0.4139	26486.55	3.6190	3.6190	-1.2314	26.29	0.31	-1.500			
0.4176	26724.86	3.6160	3.6160	-1.2541	26.30	0.32	-1.500			
0.4214	26968.25	3.6130	3.6130	-1.2731	26.30	0.32	-1.500			
0.4252	27215.43	3.6100	3.6100	-1.2948	26.30	0.32	-1.500			
0.4291	27463.75	3.6070	3.6070	-1.3202	26.31	0.33	-1.500			
0.4331	27719.30	3.6040	3.6040	-1.3437	26.31	0.33	-1.500			
0.4372	27982.37	3.6010	3.6009	-1.3626	26.31	0.33	-1.500			
0.4414	28246.54	3.5980	3.5981	-1.3796	26.32	0.34	-1.500			
0.4455	28512.43	3.5950	3.5951	-1.4041	26.32	0.34	-1.500			
0.4498	28784.63	3.5920	3.5919	-1.4224	26.32	0.34	-1.500			
0.4540	29056.82	3.5890	3.5890	-1.4401	26.32	0.34	-1.500			
0.4584	29334.51	3.5860	3.5860	-1.4630	26.32	0.34	-1.500			
0.4628	29621.05	3.5830	3.5830	-1.4890	26.32	0.34	-1.500			
0.4673	29909.35	3.5800	3.5799	-1.5099	26.32	0.34	-1.500			
0.4719	30199.81	3.5770	3.5771	-1.5262	26.32	0.34	-1.500			
0.4765	30493.10	3.5740	3.5740	-1.5450	26.32	0.34	-1.500			
0.4812	30794.54	3.5710	3.5709	-1.5634	26.33	0.35	-1.500			
0.4859	31094.68	3.5680	3.5680	-1.5771	26.33	0.35	-1.500			
0.4906	31398.63	3.5650	3.5651	-1.6013	26.34	0.36	-1.500			
0.4955	31709.70	3.5620	3.5620	-1.6240	26.34	0.36	-1.500			
0.5004	32022.69	3.5590	3.5590	-1.6390	26.34	0.36	-1.500			
0.5053	32340.10	3.5560	3.5559	-1.6565	26.35	0.37	-1.500			
0.5103	32660.04	3.5530	3.5530	-1.6741	26.35	0.37	-1.500			
0.5154	32986.39	3.5500	3.5500	-1.6925	26.36	0.38	-1.500			
0.5205	33309.65	3.5470	3.5472	-1.6979	26.36	0.38	-1.500			
0.5255	33634.05	3.5440	3.5440	-1.7142	26.36	0.38	-1.500			
0.5307	33966.46	3.5410	3.5410	-1.7381	26.37	0.39	-1.500			
0.5360	34304.04	3.5380	3.5378	-1.7452	26.37	0.39	-1.500			
0.5413	34644.25	3.5350	3.5350	-1.7579	26.38	0.40	-1.500	0.375	0.515	
0.5466	34980.82	3.5320	3.5321	-1.7592	26.38	0.40	-1.500			
0.5519	35321.82	3.5290	3.5290	-1.7685	26.39	0.41	-1.500			
0.5572	35660.92	3.5260	3.5259	-1.7648	26.40	0.42	-1.500			
0.5624	35992.87	3.5230	3.5230	-1.7646	26.41	0.43	-1.500			
0.5677	36335.12	3.5200	3.5200	-1.7837	26.42	0.44	-1.500			
0.5731	36680.25	3.5170	3.5170	-1.7874	26.42	0.44	-1.500			
0.5785	37023.88	3.5140	3.5140	-1.7842	26.43	0.45	-1.500			
0.5839	37366.64	3.5110	3.5111	-1.7806	26.44	0.46	-1.500			
0.5892	37708.25	3.5080	3.5080	-1.7785	26.45	0.47	-1.500			
0.5945	38048.24	3.5050	3.5050	-1.7767	26.46	0.48	-1.500			
0.5998	38388.77	3.5020	3.5020	-1.7729	26.47	0.49	-1.500			
0.6051	38729.23	3.4990	3.4990	-1.7871	26.48	0.50	-1.500			
0.6105	39072.50	3.4960	3.4960	-1.7952	26.48	0.50	-1.500			
0.6160	39421.91	3.4930	3.4929	-1.7854	26.49	0.51	-1.500			
0.6213	39765.02	3.4900	3.4901	-1.7705	26.50	0.52	-1.500			
0.6266	40104.79	3.4870	3.4871	-1.7561	26.52	0.54	-1.500			
0.6319	40438.64	3.4840	3.4839	-1.7486	26.53	0.55	-1.500			
0.6371	40773.98	3.4810	3.4809	-1.7275	26.55	0.57	-1.500			
0.6422	41103.56	3.4780	3.4779	-1.7149	26.56	0.58	-1.500			
0.6474	41430.69	3.4750	3.4751	-1.7034	26.58	0.60	-1.500			
0.6525	41759.08	3.4720	3.4719	-1.6903	26.59	0.61	-1.500			
0.6575	42081.09	3.4690	3.4690	-1.6674	26.60	0.62	-1.500			
0.6625	42397.80	3.4660	3.4661	-1.6429	26.62	0.64	-1.500			
0.6674	42716.61	3.4630	3.4630	-1.6291	26.63	0.65	-1.500			
0.6723	43028.63	3.4600	3.4600	-1.6048	26.65	0.67	-1.500			
0.6771	43332.12	3.4570	3.4570	-1.5785	26.66	0.68	-1.500			
0.6817	43631.31	3.4540	3.4540	-1.5574	26.67	0.69	-1.500			
0.6864	43927.96	3.4510	3.4510	-1.5363	26.69	0.71	-1.500			
0.6910	44221.23	3.4480	3.4480	-1.5183	26.70	0.72	-1.500			
0.6955	44512.88	3.4450	3.4450	-1.4945	26.71	0.73	-1.500			
0.7000	44797.96	3.4420	3.4420	-1.4732	26.73	0.75	-1.500			
0.7044	45078.60	3.4390	3.4390	-1.4539	26.74	0.76	-1.500			
0.7087	45355.49	3.4360	3.4360	-1.4281	26.76	0.78	-1.500			
0.7129	45624.70	3.4330	3.4329	-1.4104	26.77	0.79	-1.500			
0.7171	45894.01	3.4300	3.4300	-1.3977	26.79	0.81	-1.500			
0.7213	46160.08	3.4270	3.4270	-1.3869	26.80	0.82	-1.500			
0.7254	46425.98	3.4240	3.4240	-1.3805	26.82	0.84	-1.500			
0.7295	46690.32	3.4210	3.4210	-1.3699	26.84	0.86	-1.500			
0.7337	46954.27	3.4180	3.4180	-1.3493	26.86	0.88	-1.500			
0.7377	47214.17	3.4150	3.4150	-1.3343	26.88	0.90	-1.500			
0.7417	47467.51	3.4120	3.4122	-1.3072	26.90	0.92	-1.500			
0.7456	47716.76	3.4090	3.4088	-1.2861	26.92	0.94	-1.500			
0.7494	47960.88	3.4060	3.4060	-1.2540	26.94	0.96	-1.500			
0.7531	48198.07	3.4030	3.4030	-1.2218	26.95	0.97	-1.500			
0.7568	48434.03	3.4000	3.4000	-1.1920	26.97	0.99	-1.500			
0.7603	48658.98	3.3970	3.3969	-1.1470	26.99	1.01	-1.500			
0.7637	48875.34	3.3940	3.3940	-1.1093	27.00	1.02	-1.500			
0.7670	49085.31	3.3910	3.3909	-1.0668	27.01	1.03	-1.500			
0.7701	49285.16	3.3880	3.3881	-1.0235	27.03	1.05	-1.500			
0.7731	49479.11	3.3850	3.3850	-0.9856	27.04	1.06	-1.500			
0.7760	49663.27	3.3820	3.3820	-0.9449	27.06	1.08	-1.500			
0.7787	49839.18	3.3790	3.3790	-0.9097	27.07	1.09	-1.500			
0.7814	50010.67	3.3760	3.3761	-0.8751	27.08	1.10	-1.500			
0.7840	50173.56	3.3730	3.3730	-0.8460	27.09	1.11	-1.500			
0.7865	50333.74	3.3700	3.3701	-0.8201	27.10	1.12	-1.500			
0.7889	50489.46	3.3670	3.3669	-0.7878	27.11	1.13	-1.500			
0.7912	50637.97	3.3640	3.3639	-0.7599	27.12	1.14	-1.500			
0.7935	50781.82	3.3610	3.3611	-0.7306	27.13	1.15	-1.500			
0.7956	50918.34	3.3580	3.3580	-0.7042	27.14	1.16	-1.500			
0.7977	51051.28	3.3550	3.3550	-0.6803	27.15	1.17	-1.500			
0.7996	51176.19	3.3520	3.3520	-0.6539	27.16	1.18	-1.500			
0.8016	51300.60	3.3490	3.3490	-0.6396	27.17	1.19	-1.500			
0.8035	51423.19	3.3460	3.3459	-0.6213	27.18	1.20	-1.500			
0.8053	51539.12	3.3430	3.3430	-0.6006	27.19	1.21	-1.500			
0.8071	51653.32	3.3400	3.3400	-0.5854	27.19	1.21	-1.500			
0.8088	51763.57	3.3370	3.3370	-0.5674	27.20	1.22	-1.500			
0.8105	51870.41	3.3340	3.3339	-0.5513	27.21	1.23	-1.500			
0.8121	51974.86	3.3310	3.3310	-0.5346	27.22	1.24	-1.500			
0.8137	52076.08	3.3280	3.3280	-0.5192	27.23	1.25	-1.500			
0.8152	52175.17	3.3250	3.3250	-0.5042	27.23	1.25	-1.500			
0.8167	52269.94	3.3220	3.3220	-0.4864	27.24	1.26	-1.500			
0.8181	52361.00	3.3190	3.3190	-0.4730	27.24	1.26	-1.500			
0.8195	52450.28	3.3160	3.3160	-0.4589	27.25	1.27	-1.500			
0.8209	52536.87	3.3130	3.3129	-0.4456	27.25	1.27	-1.500			
0.8222	52621.31	3.3100	3.3100	-0.4344	27.26	1.28	-1.500			
0.8235	52703.44	3.3070	3.3071	-0.4240	27.27	1.29	-1.500			
0.8248	52784.55	3.3040	3.3039	-0.4124	27.28	1.30	-1.500			
0.8260	52862.26	3.3010	3.3010	-0.4010	27.28	1.30	-1.500			
0.8271	52937.35	3.2980	3.2980	-0.3886	27.29	1.31	-1.500			
0.8283	53011.28	3.2950	3.2950	-0.3803	27.30	1.32	-1.500			
0.8294	53083.30	3.2920	3.2919	-0.3698	27.30	1.32	-1.500			
0.8305	53152.67	3.2890	3.2891	-0.3613	27.31	1.33	-1.500			
0.8316	53221.78	3.2860	3.2860	-0.3514	27.31	1.33	-1.500			
0.8326	53288.89	3.2830	3.2830	-0.3435	27.32	1.34	-1.500			
0.8336	53353.40	3.2800	3.2800	-0.3341	27.33	1.35	-1.500			
0.8346	53416.78	3.2770	3.2771	-0.3264	27.33	1.35	-1.500			
0.8356	53478.36	3.2740	3.2739	-0.3188	27.34	1.36	-1.500			
0.8366	53539.22	3.2710	3.2710	-0.3109	27.34	1.36	-1.500			
0.8375	53597.55	3.2680	3.2680	-0.3026	27.35	1.37	-1.500			
0.8384	53655.35	3.2650	3.2650	-0.2977	27.35	1.37	-1.500			
0.8392	53711.81	3.2620	3.2620	-0.2904	27.36	1.38	-1.500			
0.8401	53766.75	3.2590	3.2589	-0.2841	27.36	1.38	-1.500			
0.8409	53820.60	3.2560	3.2560	-0.2776	27.36	1.38	-1.500			
0.8418	53873.14	3.2530	3.2531	-0.2725	27.37	1.39	-1.500			
0.8426	53925.33	3.2500	3.2500	-0.2680	27.37	1.39	-1.500			
0.8434	53975.96	3.2470	3.2470	-0.2620	27.37	1.39	-1.500			
0.8442	54025.79	3.2440	3.2440	-0.2564	27.38	1.40	-1.500			
0.8449	54074.50	3.2410	3.2411	-0.2526	27.38	1.40	-1.500			
0.8457	54122.20	3.2380	3.2381	-0.2482	27.38	1.40	-1.500			
0.8464	54169.49	3.2350	3.2349	-0.2446	27.39	1.41	-1.500			
0.8471	54216.05	3.2320	3.2319	-0.2393	27.39	1.41	-1.500			
0.8478	54261.48	3.2290	3.2290	-0.2355	27.40	1.42	-1.500			
0.8485	54306.61	3.2260	3.2261	-0.2323	27.41	1.43	-1.500			
0.8492	54350.83	3.2230	3.2230	-0.2282	27.41	1.43	-1.500			
0.8499	54394.39	3.2200	3.2200	-0.2246	27.42	1.44	-1.500			
0.8506	54436.50	3.2170	3.2170	-0.2212	27.42	1.44	-1.500			
0.8512	54478.72	3.2140	3.2141	-0.2176	27.43	1.45	-1.500			
0.8519	54520.25	3.2110	3.2109	-0.2149	27.43	1.45	-1.500			
0.8525	54561.70	3.2080	3.2080	-0.2115	27.44	1.46	-1.500			
0.8532	54601.71	3.2050	3.2051	-0.2083	27.44	1.46	-1.500			
0.8538	54641.15	3.2020	3.2021	-0.2059	27.45	1.47	-1.500			
0.8544	54680.46	3.1990	3.1988	-0.2035	27.45	1.47	-1.500			
0.8550	54718.98	3.1960	3.1960	-0.2017	27.46	1.48	-1.500			
0.8556	54757.46	3.1930	3.1930	-0.1983	27.46	1.48	-1.500			
0.8562	54795.82	3.1900	3.1900	-0.1968	27.46	1.48	-1.500			
0.8568	54833.31	3.1870	3.1870	-0.1938	27.47	1.49	-1.500			
0.8574	54870.45	3.1840	3.1841	-0.1921	27.47	1.49	-1.500			
0.8579	54906.91	3.1810	3.1809	-0.1892	27.48	1.50	-1.500			
0.8585	54942.90	3.1780	3.1779	-0.1859	27.48	1.50	-1.500			
0.8590	54978.36	3.1750	3.1750	-0.1835	27.49	1.51	-1.500			
0.8596	55013.17	3.1720	3.1721	-0.1817	27.49	1.51	-1.500			
0.8601	55047.83	3.1690	3.1691	-0.1814	27.50	1.52	-1.500			
0.8607	55082.68	3.1660	3.1659	-0.1789	27.50	1.52	-1.500			
0.8612	55116.85	3.1630	3.1629	-0.1771	27.51	1.53	-1.500			
0.8617	55150.46	3.1600	3.1599	-0.1756	27.51	1.53	-1.500			
0.8623	55184.15	3.1570	3.1571	-0.1750	27.52	1.54	-1.500			
0.8628	55218.00	3.1540	3.1539	-0.1737	27.52	1.54	-1.500			
0.8633	55251.14	3.1510	3.1509	-0.1715	27.52	1.54	-1.500			
0.8638	55283.69	3.1480	3.1480	-0.1694	27.53	1.55	-1.500			
0.8643	55315.86	3.1450	3.1452	-0.1674	27.53	1.55	-1.500			
0.8648	55348.25	3.1420	3.1420	-0.1670	27.54	1.56	-1.500			
0.8653	55380.10	3.1390	3.1389	-0.1647	27.54	1.56	-1.500			
0.8658	55411.13	3.1360	3.1360	-0.1632	27.55	1.57	-1.500			
0.8663	55442.07	3.1330	3.1331	-0.1619	27.55	1.57	-1.500			
0.8668	55473.28	3.1300	3.1300	-0.1614	27.55	1.57	-1.500			
0.8673	55504.18	3.1270	3.1270	-0.1604	27.56	1.58	-1.500			
0.8677	55534.90	3.1240	3.1239	-0.1592	27.56	1.58	-1.500			
0.8682	55565.41	3.1210	3.1210	-0.1582	27.57	1.59	-1.500			
0.8687	55595.73	3.1180	3.1180	-0.1571	27.57	1.59	-1.500			
0.8692	55625.78	3.1150	3.1150	-0.1556	27.57	1.59	-1.500			
0.8696	55655.48	3.1120	3.1121	-0.1543	27.58	1.60	-1.500			
0.8701	55684.94	3.1090	3.1090	-0.1530	27.59	1.61	-1.500			
0.8705	55714.22	3.1060	3.1059	-0.1518	27.59	1.61	-1.500			
0.8710	55743.34	3.1030	3.1030	-0.1500	27.60	1.62	-1.500			
0.8714	55771.85	3.1000	3.1000	-0.1491	27.60	1.62	-1.500			
0.8719	55800.24	3.0970	3.0971	-0.1478	27.61	1.63	-1.500			
0.8723	55828.45	3.0940	3.0940	-0.1476	27.61	1.63	-1.500			
0.8728	55856.83	3.0910	3.0909	-0.1462	27.62	1.64	-1.500			
0.8732	55884.74	3.0880	3.0880	-0.1454	27.62	1.64	-1.500			
0.8736	55912.58	3.0850	3.0850	-0.1447	27.63	1.65	-1.500			
0.8741	55940.39	3.0820	3.0822	-0.1437	27.63	1.65	-1.500			
0.8745	55968.03	3.0790	3.0789	-0.1432	27.64	1.66	-1.500			
0.8749	55995.18	3.0760	3.0761	-0.1417	27.64	1.66	-1.500			
0.8753	56022.32	3.0730	3.0730	-0.1410	27.65	1.67	-1.500			
0.8758	56049.28	3.0700	3.0700	-0.1398	27.65	1.67	-1.500			
0.8762	56076.23	3.0670	3.0670	-0.1396	27.66	1.68	-1.500			
0.8766	56102.86	3.0640	3.0639	-0.1381	27.66	1.68	-1.500			
0.8770	56129.29	3.0610	3.0610	-0.1371	27.67	1.69	-1.500			
0.8774	56155.55	3.0580	3.0581	-0.1364	27.67	1.69	-1.500			
0.8778	56181.46	3.0550	3.0551	-0.1356	27.68	1.70	-1.500			
0.8782	56207.42	3.0520	3.0521	-0.1351	27.68	1.70	-1.500			
0.8786	56233.35	3.0490	3.0489	-0.1344	27.69	1.71	-1.500			
0.8790	56259.12	3.0460	3.0461	-0.1340	27.69	1.71	-1.500			
0.8794	56284.75	3.0430	3.0430	-0.1330	27.70	1.72	-1.500			
0.8799	56310.44	3.0400	3.0400	-0.1327	27.70	1.72	-1.500			
0.8802	56335.81	3.0370	3.0369	-0.1318	27.70	1.72	-1.500			
0.8806	56361.06	3.0340	3.0340	-0.1308	27.71	1.73	-1.500			
0.8810	56386.04	3.0310	3.0310	-0.1297	27.71	1.73	-1.500			
0.8814	56410.81	3.0280	3.0280	-0.1288	27.72	1.74	-1.500			
0.8818	56435.49	3.0250	3.0250	-0.1279	27.72	1.74	-1.500			
0.8822	56459.87	3.0220	3.0220	-0.1269	27.73	1.75	-1.500			
0.8826	56484.19	3.0190	3.0189	-0.1261	27.73	1.75	-1.500			
0.8829	56508.32	3.0160	3.0161	-0.1252	27.74	1.76	-1.500			
0.8833	56532.20	3.0130	3.0129	-0.1244	27.74	1.76	-1.500			
0.8837	56556.06	3.0100	3.0100	-0.1237	27.74	1.76	-1.500			
0.8841	56579.73	3.0070	3.0070	-0.1229	27.75	1.77	-1.500			
0.8844	56603.18	3.0040	3.0039	-0.1224	27.75	1.77	-1.500			
0.8848	56626.64	3.0010	3.0010	-0.1220	27.76	1.78	-1.501			
