Ah_balance (normalized)	Ah_balance (mAh)	Voltage - fit (V)	Voltage -  interpolate (V)	dQ/dV (1/V)	Temperature (°C)	Temperature - diff (°C)	Current (C)	R_DC 0ms (mOhm)	R_DC 50ms (mOhm)	R_DC 50 ms PEC (mOhm)
0.2908	18612.84	3.9690	3.9690	0.9000	26.97	1.03	1.500			
0.2935	18785.66	3.9660	3.9660	0.9002	26.97	1.03	1.500			
0.2963	18960.07	3.9630	3.9630	0.8970	26.97	1.03	1.500			
0.2989	19131.17	3.9600	3.9601	0.8921	26.96	1.02	1.500			
0.3016	19301.88	3.9570	3.9570	0.8900	26.96	1.02	1.500			
0.3042	19471.63	3.9540	3.9540	0.8905	26.96	1.02	1.500			
0.3069	19639.86	3.9510	3.9510	0.8917	26.96	1.02	1.500			
0.3095	19811.13	3.9480	3.9480	0.9005	26.95	1.01	1.500			
0.3123	19985.85	3.9450	3.9450	0.9079	26.95	1.01	1.500			
0.3150	20161.97	3.9420	3.9420	0.9180	26.95	1.01	1.500			
0.3178	20341.41	3.9390	3.9390	0.9192	26.95	1.01	1.500			
0.3206	20518.04	3.9360	3.9360	0.9237	26.95	1.01	1.500			
0.3233	20693.54	3.9330	3.9330	0.9304	26.94	1.00	1.500			
0.3261	20873.36	3.9300	3.9301	0.9331	26.94	1.00	1.500			
0.3289	21052.68	3.9270	3.9268	0.9368	26.94	1.00	1.500			
0.3318	21233.32	3.9240	3.9240	0.9415	26.94	1.00	1.500			
0.3346	21414.47	3.9210	3.9211	0.9493	26.93	0.99	1.500			
0.3375	21597.73	3.9180	3.9181	0.9580	26.93	0.99	1.500			
0.3403	21781.54	3.9150	3.9149	0.9606	26.93	0.99	1.500			
0.3432	21966.58	3.9120	3.9121	0.9707	26.93	0.99	1.500			
0.3462	22155.34	3.9090	3.9090	0.9798	26.93	0.99	1.500			
0.3491	22343.39	3.9060	3.9060	0.9847	26.92	0.98	1.500			
0.3521	22533.08	3.9030	3.9030	0.9959	26.92	0.98	1.500			
0.3551	22724.69	3.9000	3.9000	1.0020	26.92	0.98	1.500			
0.3581	22917.85	3.8970	3.8970	1.0114	26.91	0.97	1.500			
0.3611	23112.43	3.8940	3.8941	1.0259	26.91	0.97	1.500			
0.3642	23310.44	3.8910	3.8910	1.0382	26.90	0.96	1.500			
0.3674	23512.81	3.8880	3.8879	1.0468	26.90	0.96	1.500			
0.3706	23715.64	3.8850	3.8850	1.0545	26.89	0.95	1.500			
0.3737	23918.47	3.8820	3.8822	1.0601	26.89	0.95	1.500			
0.3769	24124.10	3.8790	3.8789	1.0729	26.88	0.94	1.500			
0.3801	24328.63	3.8760	3.8760	1.0830	26.88	0.94	1.500			
0.3834	24534.79	3.8730	3.8730	1.0890	26.87	0.93	1.500			
0.3867	24746.24	3.8700	3.8701	1.1026	26.87	0.93	1.500			
0.3900	24962.36	3.8670	3.8669	1.1206	26.87	0.93	1.500			
0.3934	25177.02	3.8640	3.8641	1.1330	26.86	0.92	1.500			
0.3968	25394.75	3.8610	3.8610	1.1505	26.86	0.92	1.500			
0.4003	25616.53	3.8580	3.8580	1.1666	26.85	0.91	1.500			
0.4038	25840.33	3.8550	3.8550	1.1864	26.85	0.91	1.500			
0.4074	26072.48	3.8520	3.8521	1.2104	26.85	0.91	1.500			
0.4111	26309.20	3.8490	3.8490	1.2305	26.84	0.90	1.500			
0.4148	26547.78	3.8460	3.8460	1.2400	26.84	0.90	1.500			
0.4185	26784.26	3.8430	3.8432	1.2609	26.83	0.89	1.500			
0.4223	27027.98	3.8400	3.8400	1.2819	26.83	0.89	1.500			
0.4262	27274.04	3.8370	3.8370	1.3099	26.82	0.88	1.500			
0.4301	27527.35	3.8340	3.8339	1.3380	26.82	0.88	1.500			
0.4342	27788.88	3.8310	3.8311	1.3702	26.81	0.87	1.500			
0.4384	28055.87	3.8280	3.8280	1.3978	26.80	0.86	1.500			
0.4426	28327.35	3.8250	3.8251	1.4337	26.80	0.86	1.500			
0.4469	28603.97	3.8220	3.8220	1.4551	26.79	0.85	1.500			
0.4514	28887.14	3.8190	3.8189	1.4847	26.78	0.84	1.500			
0.4558	29172.82	3.8160	3.8160	1.5160	26.77	0.83	1.500			
0.4605	29469.23	3.8130	3.8130	1.5433	26.76	0.82	1.500			
0.4651	29764.80	3.8100	3.8100	1.5861	26.75	0.81	1.500			
0.4699	30070.86	3.8070	3.8070	1.6288	26.74	0.80	1.500			
0.4748	30384.65	3.8040	3.8041	1.6721	26.73	0.79	1.500			
0.4799	30713.11	3.8010	3.8009	1.7211	26.72	0.78	1.500			
0.4851	31048.99	3.7980	3.7981	1.7770	26.70	0.76	1.500			
0.4906	31395.69	3.7950	3.7950	1.8333	26.69	0.75	1.500			
0.4962	31756.78	3.7920	3.7919	1.8773	26.68	0.74	1.500			
0.5018	32115.52	3.7890	3.7890	1.9297	26.66	0.72	1.500			
0.5077	32492.80	3.7860	3.7860	1.9864	26.65	0.71	1.500			
0.5138	32882.04	3.7830	3.7829	2.0054	26.64	0.70	1.500			
0.5198	33266.33	3.7800	3.7801	2.0698	26.63	0.69	1.500			
0.5261	33669.41	3.7770	3.7769	2.1473	26.61	0.67	1.500			
0.5326	34087.28	3.7740	3.7740	2.2187	26.60	0.66	1.500			
0.5394	34523.30	3.7710	3.7710	2.2217	26.58	0.64	1.500			
0.5462	34959.91	3.7680	3.7681	2.2657	26.56	0.62	1.500			
0.5529	35385.47	3.7650	3.7649	2.3010	26.54	0.60	1.500			
0.5599	35832.73	3.7620	3.7618	2.3429	26.52	0.58	1.500			
0.5670	36286.92	3.7590	3.7591	2.3865	26.51	0.57	1.500	0.355	0.451	
0.5744	36759.00	3.7560	3.7561	2.4023	26.49	0.55	1.500			
0.5817	37225.86	3.7530	3.7530	2.3639	26.47	0.53	1.500			
0.5886	37667.83	3.7500	3.7500	2.2948	26.45	0.51	1.500			
0.5954	38105.51	3.7470	3.7470	2.2545	26.43	0.49	1.500			
0.6020	38526.98	3.7440	3.7440	2.2130	26.40	0.46	1.500			
0.6086	38951.53	3.7410	3.7410	2.1843	26.39	0.45	1.500			
0.6151	39364.62	3.7380	3.7381	2.1623	26.37	0.43	1.500			
0.6215	39774.84	3.7350	3.7350	2.1597	26.36	0.42	1.500			
0.6278	40182.23	3.7320	3.7318	2.1593	26.34	0.40	1.500			
0.6344	40601.54	3.7290	3.7290	2.1705	26.33	0.39	1.500			
0.6410	41027.10	3.7260	3.7260	2.2188	26.31	0.37	1.500			
0.6476	41447.83	3.7230	3.7231	2.2431	26.29	0.35	1.500			
0.6544	41880.11	3.7200	3.7200	2.3035	26.28	0.34	1.500			
0.6614	42327.57	3.7170	3.7170	2.3583	26.26	0.32	1.500			
0.6686	42788.62	3.7140	3.7141	2.4354	26.24	0.30	1.500			
0.6759	43260.79	3.7110	3.7110	2.5388	26.23	0.29	1.500			
0.6837	43758.43	3.7080	3.7079	2.6591	26.21	0.27	1.500			
0.6918	44272.31	3.7050	3.7051	2.7432	26.20	0.26	1.500			
0.7002	44815.85	3.7020	3.7020	2.8393	26.18	0.24	1.500			
0.7089	45367.92	3.6990	3.6991	2.8790	26.17	0.23	1.500			
0.7176	45926.15	3.6960	3.6960	2.8978	26.15	0.21	1.500			
0.7264	46492.02	3.6930	3.6929	2.8107	26.13	0.19	1.500			
0.7348	47028.53	3.6900	3.6901	2.6642	26.12	0.18	1.500			
0.7425	47522.02	3.6870	3.6870	2.5010	26.11	0.17	1.500			
0.7497	47978.30	3.6840	3.6841	2.2630	26.10	0.16	1.500			
0.7560	48381.86	3.6810	3.6811	2.0321	26.10	0.16	1.500			
0.7617	48750.93	3.6780	3.6781	1.8603	26.09	0.15	1.500			
0.7668	49078.17	3.6750	3.6750	1.7079	26.08	0.14	1.500			
0.7717	49386.26	3.6720	3.6720	1.5869	26.07	0.13	1.500			
0.7762	49679.20	3.6690	3.6689	1.5004	26.06	0.12	1.500			
0.7806	49958.88	3.6660	3.6661	1.4324	26.06	0.12	1.500			
0.7848	50229.27	3.6630	3.6630	1.3696	26.05	0.11	1.500			
0.7888	50483.00	3.6600	3.6600	1.3113	26.05	0.11	1.500			
0.7926	50727.34	3.6570	3.6570	1.2642	26.05	0.11	1.500			
0.7962	50957.48	3.6540	3.6541	1.2319	26.05	0.11	1.500			
0.7998	51189.28	3.6510	3.6509	1.2230	26.04	0.10	1.500			
0.8034	51418.01	3.6480	3.6479	1.2284	26.04	0.10	1.500			
0.8071	51654.64	3.6450	3.6451	1.2445	26.03	0.09	1.500			
0.8109	51897.51	3.6420	3.6419	1.2672	26.02	0.08	1.500			
0.8147	52143.74	3.6390	3.6390	1.2794	26.01	0.07	1.500			
0.8186	52391.73	3.6360	3.6360	1.2899	26.00	0.06	1.500			
0.8225	52641.07	3.6330	3.6330	1.2979	25.99	0.05	1.500			
0.8264	52891.89	3.6300	3.6300	1.3023	25.98	0.04	1.500			
0.8303	53142.33	3.6270	3.6270	1.3007	25.98	0.04	1.500			
0.8343	53393.91	3.6240	3.6240	1.3021	25.98	0.04	1.500			
0.8382	53643.58	3.6210	3.6210	1.2999	25.97	0.03	1.500			
0.8421	53893.78	3.6180	3.6180	1.2984	25.97	0.03	1.500			
0.8460	54141.77	3.6150	3.6150	1.2966	25.97	0.03	1.500			
0.8498	54389.70	3.6120	3.6121	1.2952	25.96	0.02	1.500			
0.8537	54637.93	3.6090	3.6090	1.2946	25.96	0.02	1.500			
0.8576	54888.17	3.6060	3.6060	1.2880	25.96	0.02	1.500			
0.8615	55136.88	3.6030	3.6030	1.2792	25.95	0.01	1.500			
0.8653	55381.20	3.6000	3.5999	1.2678	25.95	0.01	1.500			
0.8691	55624.90	3.5970	3.5971	1.2545	25.95	0.01	1.500			
0.8729	55863.47	3.5940	3.5941	1.2389	25.94	0.00	1.500			
0.8766	56099.71	3.5910	3.5910	1.2236	25.94	0.00	1.500			
0.8802	56333.76	3.5880	3.5880	1.2085	25.94	0.00	1.500			
0.8838	56564.34	3.5850	3.5849	1.1976	25.94	0.00	1.500			
0.8873	56789.13	3.5820	3.5821	1.1995	25.94	0.00	1.500			
0.8909	57017.91	3.5790	3.5790	1.1988	25.94	0.00	1.500			
0.8945	57248.85	3.5760	3.5759	1.2024	25.94	0.00	1.500			
0.8982	57487.11	3.5730	3.5730	1.1805	25.94	0.00	1.500			
0.9019	57723.37	3.5700	3.5699	1.1404	25.94	0.00	1.500			
0.9055	57949.62	3.5670	3.5670	1.0374	25.94	0.00	1.500			
0.9086	58152.78	3.5640	3.5641	0.9243	25.94	0.00	1.500			
0.9112	58316.26	3.5610	3.5613	0.7771	25.94	0.00	1.500			
0.9132	58447.39	3.5580	3.5580	0.6347	25.94	0.00	1.500			
0.9147	58541.57	3.5550	3.5550	0.4961	25.94	0.00	1.500			
0.9159	58618.46	3.5520	3.5519	0.4000	25.94	0.00	1.500			
0.9169	58681.95	3.5490	3.5490	0.3181	25.94	0.00	1.500			
0.9177	58733.25	3.5460	3.5459	0.2681	25.94	0.00	1.500			
0.9184	58775.44	3.5430	3.5429	0.2264	25.94	0.00	1.500			
0.9190	58813.19	3.5400	3.5400	0.1969	25.94	0.00	1.500			
0.9195	58847.63	3.5370	3.5369	0.1715	25.94	0.00	1.500			
0.9200	58877.28	3.5340	3.5340	0.1512	25.94	0.00	1.500			
0.9204	58904.18	3.5310	3.5309	0.1318	25.94	0.00	1.500			
0.9207	58927.60	3.5280	3.5281	0.1137	25.94	0.00	1.500			
0.9211	58947.77	3.5250	3.5250	0.0964	25.94	0.00	1.500			
0.9213	58964.31	3.5220	3.5221	0.0792	25.94	0.00	1.500			
0.9215	58977.93	3.5190	3.5193	0.0625	25.94	0.00	1.500			
0.9217	58988.31	3.5160	3.5166	0.0457	25.94	0.00	1.500			
