Ah_balance (normalized)	Ah_balance (mAh)	Voltage - fit (V)	Voltage -  interpolate (V)	dQ/dV (1/V)	Temperature (°C)	Temperature - diff (°C)	Current (C)	R_DC 0ms (mOhm)	R_DC 50ms (mOhm)	R_DC 50 ms PEC (mOhm)
0.2796	17895.67	3.9830	3.9830	0.8774	27.20	1.22	1.500			
0.2822	18063.77	3.9800	3.9800	0.8722	27.19	1.21	1.500			
0.2848	18230.09	3.9770	3.9770	0.8671	27.19	1.21	1.500			
0.2874	18395.80	3.9740	3.9740	0.8653	27.19	1.21	1.500			
0.2900	18560.79	3.9710	3.9710	0.8656	27.18	1.20	1.500			
0.2926	18726.96	3.9680	3.9681	0.8676	27.18	1.20	1.500			
0.2952	18893.22	3.9650	3.9650	0.8685	27.17	1.19	1.500			
0.2978	19060.82	3.9620	3.9619	0.8696	27.17	1.19	1.500			
0.3004	19228.08	3.9590	3.9591	0.8744	27.17	1.19	1.500			
0.3031	19395.52	3.9560	3.9560	0.8781	27.16	1.18	1.500			
0.3057	19564.17	3.9530	3.9530	0.8830	27.16	1.18	1.500			
0.3084	19734.41	3.9500	3.9500	0.8882	27.15	1.17	1.500			
0.3110	19904.67	3.9470	3.9470	0.8914	27.15	1.17	1.500			
0.3137	20076.78	3.9440	3.9439	0.8953	27.14	1.16	1.500			
0.3164	20249.77	3.9410	3.9411	0.9015	27.14	1.16	1.500			
0.3191	20421.87	3.9380	3.9379	0.9069	27.14	1.16	1.500			
0.3218	20596.91	3.9350	3.9350	0.9108	27.13	1.15	1.500			
0.3246	20772.91	3.9320	3.9320	0.9145	27.13	1.15	1.500			
0.3273	20948.98	3.9290	3.9290	0.9206	27.12	1.14	1.500			
0.3301	21126.51	3.9260	3.9260	0.9245	27.12	1.14	1.500			
0.3329	21302.98	3.9230	3.9230	0.9261	27.11	1.13	1.500			
0.3356	21480.90	3.9200	3.9200	0.9334	27.11	1.13	1.500			
0.3384	21660.13	3.9170	3.9170	0.9346	27.11	1.13	1.500			
0.3413	21840.94	3.9140	3.9140	0.9454	27.10	1.12	1.500			
0.3441	22023.19	3.9110	3.9110	0.9528	27.10	1.12	1.500			
0.3470	22206.14	3.9080	3.9080	0.9596	27.09	1.11	1.500			
0.3499	22391.31	3.9050	3.9051	0.9671	27.09	1.11	1.500			
0.3528	22577.17	3.9020	3.9020	0.9787	27.08	1.10	1.500			
0.3557	22766.06	3.8990	3.8990	0.9798	27.07	1.09	1.500			
0.3587	22954.25	3.8960	3.8959	0.9908	27.07	1.09	1.500			
0.3617	23146.10	3.8930	3.8931	0.9978	27.06	1.08	1.500			
0.3647	23338.96	3.8900	3.8899	1.0057	27.06	1.08	1.500			
0.3677	23531.91	3.8870	3.8870	1.0148	27.05	1.07	1.500			
0.3707	23727.26	3.8840	3.8840	1.0258	27.04	1.06	1.500			
0.3738	23924.37	3.8810	3.8809	1.0301	27.04	1.06	1.500			
0.3769	24124.44	3.8780	3.8780	1.0431	27.03	1.05	1.500			
0.3801	24323.82	3.8750	3.8750	1.0490	27.02	1.04	1.500			
0.3832	24527.91	3.8720	3.8721	1.0633	27.01	1.03	1.500			
0.3865	24734.74	3.8690	3.8689	1.0671	27.01	1.03	1.500			
0.3896	24937.46	3.8660	3.8660	1.0794	27.00	1.02	1.500			
0.3929	25144.93	3.8630	3.8631	1.0987	26.99	1.01	1.500			
0.3962	25358.20	3.8600	3.8599	1.1149	26.98	1.00	1.500			
0.3996	25572.47	3.8570	3.8570	1.1270	26.98	1.00	1.500			
0.4030	25790.17	3.8540	3.8541	1.1454	26.97	0.99	1.500			
0.4064	26012.01	3.8510	3.8511	1.1639	26.96	0.98	1.500			
0.4100	26241.18	3.8480	3.8479	1.1789	26.96	0.98	1.500			
0.4135	26465.23	3.8450	3.8450	1.1902	26.95	0.97	1.500			
0.4171	26693.74	3.8420	3.8421	1.2124	26.94	0.96	1.500			
0.4208	26929.54	3.8390	3.8390	1.2359	26.93	0.95	1.500			
0.4245	27167.94	3.8360	3.8360	1.2608	26.92	0.94	1.500			
0.4283	27410.47	3.8330	3.8330	1.2839	26.91	0.93	1.500			
0.4322	27661.84	3.8300	3.8300	1.3074	26.90	0.92	1.500			
0.4362	27916.27	3.8270	3.8270	1.3380	26.89	0.91	1.500			
0.4402	28172.76	3.8240	3.8240	1.3580	26.87	0.89	1.500			
0.4443	28434.69	3.8210	3.8210	1.3900	26.86	0.88	1.500			
0.4485	28703.88	3.8180	3.8179	1.4208	26.85	0.87	1.500			
0.4528	28979.39	3.8150	3.8151	1.4477	26.83	0.85	1.500			
0.4573	29264.92	3.8120	3.8120	1.4704	26.82	0.84	1.500			
0.4617	29549.00	3.8090	3.8091	1.5039	26.81	0.83	1.500			
0.4662	29837.81	3.8060	3.8060	1.5406	26.79	0.81	1.500			
0.4708	30133.21	3.8030	3.8030	1.5805	26.78	0.80	1.500			
0.4756	30439.59	3.8000	3.8000	1.6276	26.76	0.78	1.500			
0.4806	30759.01	3.7970	3.7970	1.6630	26.75	0.77	1.500			
0.4857	31084.80	3.7940	3.7940	1.6986	26.73	0.75	1.500			
0.4909	31415.45	3.7910	3.7911	1.7359	26.72	0.74	1.500			
0.4961	31750.89	3.7880	3.7880	1.7758	26.70	0.72	1.500			
0.5015	32093.95	3.7850	3.7850	1.8163	26.69	0.71	1.500			
0.5070	32446.73	3.7820	3.7820	1.8326	26.67	0.69	1.500			
0.5125	32802.24	3.7790	3.7791	1.8668	26.65	0.67	1.500			
0.5181	33160.51	3.7760	3.7760	1.8991	26.64	0.66	1.500			
0.5239	33530.27	3.7730	3.7729	1.9495	26.62	0.64	1.500			
0.5298	33906.20	3.7700	3.7700	1.9837	26.60	0.62	1.500	0.349	0.453	
0.5359	34296.76	3.7670	3.7671	1.9926	26.58	0.60	1.500			
0.5419	34680.47	3.7640	3.7640	1.9816	26.56	0.58	1.500			
0.5478	35059.18	3.7610	3.7609	1.9652	26.54	0.56	1.500			
0.5537	35433.94	3.7580	3.7581	1.9443	26.52	0.54	1.500			
0.5595	35807.82	3.7550	3.7550	1.9128	26.50	0.52	1.500			
0.5652	36172.42	3.7520	3.7521	1.9228	26.48	0.50	1.500			
0.5709	36540.62	3.7490	3.7489	1.9224	26.47	0.49	1.500			
0.5767	36910.85	3.7460	3.7461	1.9225	26.45	0.47	1.500			
0.5825	37280.86	3.7430	3.7431	1.9187	26.44	0.46	1.500			
0.5883	37650.20	3.7400	3.7400	1.9382	26.42	0.44	1.500			
0.5940	38016.43	3.7370	3.7370	1.9522	26.41	0.43	1.500			
0.5999	38394.42	3.7340	3.7341	2.0111	26.39	0.41	1.500			
0.6061	38791.29	3.7310	3.7310	2.0349	26.38	0.40	1.500			
0.6123	39184.46	3.7280	3.7280	2.0804	26.37	0.39	1.500			
0.6185	39583.16	3.7250	3.7250	2.1151	26.35	0.37	1.500			
0.6249	39994.05	3.7220	3.7221	2.1829	26.33	0.35	1.500			
0.6315	40417.73	3.7190	3.7190	2.2401	26.32	0.34	1.500			
0.6384	40856.68	3.7160	3.7160	2.3160	26.30	0.32	1.500			
0.6453	41301.64	3.7130	3.7130	2.3682	26.29	0.31	1.500			
0.6526	41764.23	3.7100	3.7100	2.4516	26.27	0.29	1.500			
0.6600	42241.81	3.7070	3.7070	2.4864	26.25	0.27	1.500			
0.6676	42727.61	3.7040	3.7041	2.5840	26.23	0.25	1.500			
0.6755	43234.36	3.7010	3.7009	2.6013	26.22	0.24	1.500			
0.6834	43738.27	3.6980	3.6981	2.5535	26.20	0.22	1.500			
0.6910	44225.57	3.6950	3.6950	2.4365	26.19	0.21	1.500			
0.6981	44680.41	3.6920	3.6920	2.2925	26.18	0.20	1.500			
0.7048	45108.82	3.6890	3.6890	2.1257	26.17	0.19	1.500			
0.7108	45493.21	3.6860	3.6861	1.9556	26.15	0.17	1.500			
0.7164	45851.19	3.6830	3.6830	1.8038	26.14	0.16	1.500			
0.7216	46182.67	3.6800	3.6799	1.6886	26.13	0.15	1.500			
0.7264	46487.08	3.6770	3.6771	1.5800	26.12	0.14	1.500			
0.7309	46779.58	3.6740	3.6740	1.4971	26.12	0.14	1.500			
0.7353	47056.90	3.6710	3.6710	1.4251	26.11	0.13	1.500			
0.7394	47322.79	3.6680	3.6680	1.3662	26.10	0.12	1.500			
0.7433	47573.67	3.6650	3.6650	1.3208	26.10	0.12	1.500			
0.7472	47822.41	3.6620	3.6620	1.2909	26.09	0.11	1.500			
0.7510	48063.81	3.6590	3.6590	1.2683	26.08	0.10	1.500			
0.7547	48303.60	3.6560	3.6560	1.2571	26.08	0.10	1.500			
0.7585	48542.23	3.6530	3.6530	1.2562	26.07	0.09	1.500			
0.7622	48782.57	3.6500	3.6500	1.2634	26.06	0.08	1.500			
0.7660	49023.57	3.6470	3.6470	1.2718	26.05	0.07	1.500			
0.7698	49268.82	3.6440	3.6440	1.2816	26.05	0.07	1.500			
0.7737	49516.67	3.6410	3.6410	1.2940	26.04	0.06	1.500			
0.7776	49767.91	3.6380	3.6380	1.2991	26.03	0.05	1.500			
0.7816	50019.62	3.6350	3.6350	1.3034	26.02	0.04	1.500			
0.7855	50270.81	3.6320	3.6320	1.2982	26.01	0.03	1.500			
0.7894	50520.55	3.6290	3.6290	1.2908	26.01	0.03	1.500			
0.7932	50766.12	3.6260	3.6260	1.2860	26.00	0.02	1.500			
0.7971	51012.21	3.6230	3.6229	1.2853	25.99	0.01	1.500			
0.8009	51257.99	3.6200	3.6200	1.2796	25.98	0.00	1.500			
0.8047	51503.22	3.6170	3.6170	1.2838	25.98	-0.00	1.500			
0.8086	51752.40	3.6140	3.6140	1.2807	25.97	-0.01	1.500			
0.8125	52000.84	3.6110	3.6109	1.2706	25.97	-0.01	1.500			
0.8163	52245.06	3.6080	3.6080	1.2577	25.96	-0.02	1.500			
0.8201	52483.95	3.6050	3.6052	1.2413	25.95	-0.03	1.500			
0.8238	52720.16	3.6020	3.6019	1.2228	25.95	-0.03	1.500			
0.8274	52952.69	3.5990	3.5990	1.2093	25.95	-0.03	1.500			
0.8309	53180.16	3.5960	3.5960	1.1905	25.95	-0.03	1.500			
0.8345	53410.11	3.5930	3.5930	1.1778	25.95	-0.03	1.500			
0.8381	53637.19	3.5900	3.5900	1.1688	25.94	-0.04	1.500			
0.8416	53859.37	3.5870	3.5870	1.1554	25.94	-0.04	1.500			
0.8450	54079.83	3.5840	3.5841	1.1432	25.94	-0.04	1.500			
0.8484	54300.07	3.5810	3.5809	1.1211	25.94	-0.04	1.500			
0.8519	54518.53	3.5780	3.5779	1.0642	25.95	-0.03	1.500			
0.8551	54727.94	3.5750	3.5751	1.0010	25.95	-0.03	1.500			
0.8581	54919.40	3.5720	3.5721	0.8935	25.96	-0.02	1.500			
0.8607	55084.71	3.5690	3.5690	0.7744	25.96	-0.02	1.500			
0.8628	55219.74	3.5660	3.5660	0.6547	25.96	-0.02	1.500			
0.8645	55329.55	3.5630	3.5630	0.5393	25.97	-0.01	1.500			
0.8658	55413.66	3.5600	3.5599	0.4476	25.97	-0.01	1.500			
0.8670	55486.60	3.5570	3.5570	0.3781	25.97	-0.01	1.500			
0.8679	55548.54	3.5540	3.5539	0.3131	25.97	-0.01	1.500			
0.8688	55601.99	3.5510	3.5509	0.2732	25.97	-0.01	1.500			
0.8695	55647.77	3.5480	3.5480	0.2393	25.97	-0.01	1.500			
0.8701	55689.19	3.5450	3.5450	0.2141	25.98	-0.00	1.500			
0.8707	55726.39	3.5420	3.5420	0.1902	25.98	-0.00	1.500			
0.8713	55760.29	3.5390	3.5389	0.1730	25.98	-0.00	1.500			
0.8717	55791.35	3.5360	3.5360	0.1572	25.98	-0.00	1.500			
0.8722	55819.90	3.5330	3.5330	0.1422	25.98	-0.00	1.500			
0.8726	55845.91	3.5300	3.5300	0.1282	25.98	-0.00	1.500			
0.8730	55869.20	3.5270	3.5271	0.1143	25.98	0.00	1.500			
0.8733	55889.73	3.5240	3.5240	0.1002	25.98	0.00	1.500			
0.8736	55907.77	3.5210	3.5211	0.0864	25.98	0.00	1.500			
0.8738	55922.99	3.5180	3.5181	0.0722	25.98	0.00	1.500			
0.8740	55935.57	3.5150	3.5154	0.0578	25.98	0.00	1.500			
0.8741	55945.30	3.5120	3.5128	0.0435	25.98	0.00	1.500			
