Ah_balance (normalized)	Ah_balance (mAh)	Voltage - fit (V)	Voltage -  interpolate (V)	dQ/dV (1/V)	Temperature (°C)	Temperature - diff (°C)	Current (C)	R_DC 0ms (mOhm)	R_DC 50ms (mOhm)	R_DC 50 ms PEC (mOhm)
0.2760	17666.88	3.9870	3.9870	0.8447	27.31	1.32	1.500			
0.2785	17827.02	3.9840	3.9840	0.8402	27.30	1.31	1.500			
0.2811	17989.81	3.9810	3.9810	0.8480	27.30	1.31	1.500			
0.2837	18154.29	3.9780	3.9779	0.8485	27.29	1.30	1.500			
0.2862	18317.62	3.9750	3.9750	0.8481	27.29	1.30	1.500			
0.2888	18480.04	3.9720	3.9721	0.8533	27.28	1.29	1.500			
0.2913	18644.37	3.9690	3.9690	0.8588	27.27	1.28	1.500			
0.2939	18808.96	3.9660	3.9659	0.8597	27.27	1.28	1.500			
0.2965	18973.12	3.9630	3.9631	0.8658	27.26	1.27	1.500			
0.2991	19141.27	3.9600	3.9600	0.8694	27.26	1.27	1.500			
0.3017	19308.95	3.9570	3.9570	0.8750	27.25	1.26	1.500			
0.3043	19477.34	3.9540	3.9540	0.8790	27.24	1.25	1.500			
0.3070	19645.77	3.9510	3.9510	0.8789	27.24	1.25	1.500			
0.3096	19815.58	3.9480	3.9480	0.8817	27.23	1.24	1.500			
0.3123	19985.16	3.9450	3.9451	0.8864	27.22	1.23	1.500			
0.3149	20154.19	3.9420	3.9420	0.8889	27.22	1.23	1.500			
0.3176	20325.55	3.9390	3.9389	0.8992	27.21	1.22	1.500			
0.3203	20497.35	3.9360	3.9360	0.9031	27.20	1.21	1.500			
0.3230	20672.75	3.9330	3.9330	0.9097	27.20	1.21	1.500			
0.3258	20850.28	3.9300	3.9300	0.9172	27.19	1.20	1.500			
0.3285	21026.90	3.9270	3.9270	0.9163	27.18	1.19	1.500			
0.3313	21201.96	3.9240	3.9241	0.9192	27.18	1.19	1.500			
0.3340	21377.59	3.9210	3.9210	0.9196	27.17	1.18	1.500			
0.3368	21553.55	3.9180	3.9179	0.9239	27.17	1.18	1.500			
0.3396	21731.25	3.9150	3.9150	0.9306	27.16	1.17	1.500			
0.3424	21911.07	3.9120	3.9120	0.9376	27.15	1.16	1.500			
0.3452	22092.82	3.9090	3.9090	0.9482	27.14	1.15	1.500			
0.3481	22276.04	3.9060	3.9061	0.9559	27.14	1.15	1.500			
0.3509	22458.24	3.9030	3.9029	0.9609	27.13	1.14	1.500			
0.3538	22644.11	3.9000	3.9000	0.9729	27.12	1.13	1.500			
0.3567	22831.84	3.8970	3.8970	0.9767	27.12	1.13	1.500			
0.3597	23019.57	3.8940	3.8940	0.9864	27.11	1.12	1.500			
0.3627	23210.90	3.8910	3.8910	0.9942	27.10	1.11	1.500			
0.3657	23401.95	3.8880	3.8880	0.9994	27.10	1.11	1.500			
0.3687	23594.50	3.8850	3.8850	1.0078	27.09	1.10	1.500			
0.3717	23787.83	3.8820	3.8820	1.0194	27.08	1.09	1.500			
0.3747	23983.64	3.8790	3.8790	1.0304	27.07	1.08	1.500			
0.3779	24183.07	3.8760	3.8760	1.0473	27.07	1.08	1.500			
0.3810	24386.67	3.8730	3.8730	1.0526	27.06	1.07	1.500			
0.3842	24589.90	3.8700	3.8700	1.0672	27.05	1.06	1.500			
0.3875	24797.09	3.8670	3.8670	1.0763	27.04	1.05	1.500			
0.3907	25004.09	3.8640	3.8641	1.0859	27.04	1.05	1.500			
0.3939	25211.70	3.8610	3.8609	1.0973	27.03	1.04	1.500			
0.3972	25423.35	3.8580	3.8581	1.1158	27.02	1.03	1.500			
0.4006	25637.61	3.8550	3.8550	1.1309	27.01	1.02	1.500			
0.4040	25858.30	3.8520	3.8519	1.1491	27.00	1.01	1.500			
0.4075	26080.39	3.8490	3.8491	1.1669	26.99	1.00	1.500			
0.4110	26306.72	3.8460	3.8460	1.1883	26.98	0.99	1.500			
0.4146	26535.13	3.8430	3.8430	1.2073	26.97	0.98	1.500			
0.4183	26769.59	3.8400	3.8400	1.2179	26.96	0.97	1.500			
0.4220	27004.84	3.8370	3.8370	1.2379	26.95	0.96	1.500			
0.4257	27245.21	3.8340	3.8341	1.2621	26.94	0.95	1.500			
0.4295	27490.64	3.8310	3.8309	1.2768	26.92	0.93	1.500			
0.4334	27734.47	3.8280	3.8280	1.3021	26.91	0.92	1.500			
0.4373	27986.11	3.8250	3.8251	1.3304	26.90	0.91	1.500			
0.4413	28243.31	3.8220	3.8219	1.3576	26.89	0.90	1.500			
0.4454	28508.73	3.8190	3.8191	1.3870	26.87	0.88	1.500			
0.4496	28777.12	3.8160	3.8160	1.4067	26.86	0.87	1.500			
0.4539	29049.15	3.8130	3.8131	1.4377	26.85	0.86	1.500			
0.4583	29329.93	3.8100	3.8100	1.4668	26.83	0.84	1.500			
0.4627	29611.17	3.8070	3.8070	1.4944	26.82	0.83	1.500			
0.4672	29900.81	3.8040	3.8040	1.5151	26.80	0.81	1.500			
0.4718	30195.87	3.8010	3.8010	1.5465	26.79	0.80	1.500			
0.4765	30496.43	3.7980	3.7981	1.5714	26.78	0.79	1.500			
0.4813	30800.52	3.7950	3.7949	1.5983	26.76	0.77	1.500			
0.4860	31106.38	3.7920	3.7920	1.6321	26.75	0.76	1.500			
0.4910	31422.79	3.7890	3.7890	1.6622	26.74	0.75	1.500			
0.4960	31746.20	3.7860	3.7860	1.6999	26.72	0.73	1.500			
0.5012	32074.84	3.7830	3.7830	1.7326	26.70	0.71	1.500			
0.5064	32411.61	3.7800	3.7800	1.7582	26.68	0.69	1.500			
0.5117	32751.97	3.7770	3.7770	1.7816	26.66	0.67	1.500			
0.5171	33095.83	3.7740	3.7739	1.7891	26.64	0.65	1.500	0.344	0.462	
0.5225	33442.38	3.7710	3.7711	1.8065	26.63	0.64	1.500			
0.5280	33788.93	3.7680	3.7680	1.7947	26.61	0.62	1.500			
0.5333	34131.79	3.7650	3.7651	1.7857	26.60	0.61	1.500			
0.5387	34475.03	3.7620	3.7620	1.7843	26.58	0.59	1.500			
0.5440	34818.09	3.7590	3.7591	1.7864	26.57	0.58	1.500			
0.5494	35159.86	3.7560	3.7561	1.7896	26.55	0.56	1.500			
0.5548	35504.78	3.7530	3.7530	1.7842	26.54	0.55	1.500			
0.5601	35845.03	3.7500	3.7501	1.7910	26.52	0.53	1.500			
0.5655	36191.42	3.7470	3.7470	1.8134	26.51	0.52	1.500			
0.5710	36542.03	3.7440	3.7440	1.8412	26.49	0.50	1.500			
0.5765	36896.53	3.7410	3.7411	1.8627	26.47	0.48	1.500			
0.5822	37258.66	3.7380	3.7380	1.9088	26.45	0.46	1.500			
0.5879	37623.31	3.7350	3.7350	1.9412	26.44	0.45	1.500			
0.5938	38005.01	3.7320	3.7319	1.9957	26.42	0.43	1.500			
0.5999	38393.17	3.7290	3.7290	2.0409	26.40	0.41	1.500			
0.6061	38789.84	3.7260	3.7260	2.0939	26.39	0.40	1.500			
0.6124	39192.47	3.7230	3.7230	2.1386	26.37	0.38	1.500			
0.6189	39608.60	3.7200	3.7200	2.2214	26.36	0.37	1.500			
0.6257	40044.49	3.7170	3.7169	2.2791	26.34	0.35	1.500			
0.6326	40487.10	3.7140	3.7141	2.3351	26.31	0.32	1.500			
0.6397	40940.74	3.7110	3.7110	2.3800	26.29	0.30	1.500			
0.6469	41399.68	3.7080	3.7080	2.4040	26.27	0.28	1.500			
0.6542	41871.97	3.7050	3.7050	2.4117	26.25	0.26	1.500			
0.6615	42338.92	3.7020	3.7020	2.3884	26.24	0.25	1.500			
0.6687	42797.39	3.6990	3.6989	2.3076	26.22	0.23	1.500			
0.6755	43232.92	3.6960	3.6960	2.1513	26.21	0.22	1.500			
0.6816	43623.39	3.6930	3.6931	1.9924	26.20	0.21	1.500			
0.6873	43985.30	3.6900	3.6900	1.8335	26.19	0.20	1.500			
0.6925	44318.71	3.6870	3.6869	1.7005	26.18	0.19	1.500			
0.6974	44633.65	3.6840	3.6841	1.6080	26.17	0.18	1.500			
0.7021	44935.00	3.6810	3.6810	1.5218	26.16	0.17	1.500			
0.7065	45217.33	3.6780	3.6779	1.4465	26.15	0.16	1.500			
0.7106	45479.95	3.6750	3.6750	1.3815	26.14	0.15	1.500			
0.7147	45738.01	3.6720	3.6721	1.3344	26.13	0.14	1.500			
0.7186	45987.91	3.6690	3.6688	1.3020	26.12	0.13	1.500			
0.7224	46232.65	3.6660	3.6660	1.2810	26.11	0.12	1.500			
0.7262	46473.87	3.6630	3.6631	1.2662	26.10	0.11	1.500			
0.7299	46715.91	3.6600	3.6600	1.2679	26.10	0.11	1.500			
0.7337	46956.27	3.6570	3.6570	1.2623	26.09	0.10	1.500			
0.7375	47199.30	3.6540	3.6539	1.2686	26.08	0.09	1.500			
0.7413	47443.99	3.6510	3.6510	1.2780	26.07	0.08	1.500			
0.7452	47690.26	3.6480	3.6480	1.2806	26.06	0.07	1.500			
0.7490	47937.49	3.6450	3.6450	1.2805	26.05	0.06	1.500			
0.7529	48184.78	3.6420	3.6420	1.2814	26.04	0.05	1.500			
0.7567	48429.20	3.6390	3.6390	1.2743	26.03	0.04	1.500			
0.7605	48675.11	3.6360	3.6360	1.2697	26.02	0.03	1.500			
0.7643	48917.91	3.6330	3.6330	1.2647	26.01	0.02	1.500			
0.7681	49159.32	3.6300	3.6298	1.2602	26.00	0.01	1.500			
0.7719	49400.95	3.6270	3.6270	1.2577	25.99	0.00	1.500			
0.7757	49642.52	3.6240	3.6240	1.2505	25.99	-0.00	1.500			
0.7794	49883.33	3.6210	3.6210	1.2430	25.98	-0.01	1.500			
0.7832	50122.16	3.6180	3.6180	1.2352	25.98	-0.01	1.500			
0.7869	50358.80	3.6150	3.6150	1.2237	25.97	-0.02	1.500			
0.7905	50591.21	3.6120	3.6121	1.2128	25.96	-0.03	1.500			
0.7941	50823.16	3.6090	3.6091	1.1985	25.96	-0.03	1.500			
0.7977	51052.71	3.6060	3.6060	1.1840	25.96	-0.03	1.500			
0.8013	51280.74	3.6030	3.6030	1.1645	25.95	-0.04	1.500			
0.8047	51502.22	3.6000	3.6001	1.1414	25.95	-0.04	1.500			
0.8081	51719.39	3.5970	3.5970	1.1197	25.95	-0.04	1.500			
0.8114	51932.16	3.5940	3.5939	1.0969	25.95	-0.04	1.500			
0.8147	52138.98	3.5910	3.5910	1.0709	25.94	-0.05	1.500			
0.8179	52344.23	3.5880	3.5878	1.0458	25.94	-0.05	1.500			
0.8211	52548.13	3.5850	3.5850	1.0035	25.95	-0.04	1.500			
0.8241	52741.11	3.5820	3.5820	0.9442	25.95	-0.04	1.500			
0.8270	52925.03	3.5790	3.5790	0.8610	25.96	-0.03	1.500			
0.8294	53084.69	3.5760	3.5760	0.7595	25.96	-0.03	1.500			
0.8316	53221.05	3.5730	3.5731	0.6569	25.97	-0.02	1.500			
0.8333	53334.19	3.5700	3.5700	0.5500	25.97	-0.02	1.500			
0.8347	53422.84	3.5670	3.5669	0.4580	25.97	-0.02	1.500			
0.8359	53498.37	3.5640	3.5640	0.3852	25.98	-0.01	1.500			
0.8369	53560.31	3.5610	3.5611	0.3268	25.98	-0.01	1.500			
0.8378	53616.16	3.5580	3.5579	0.2864	25.98	-0.01	1.500			
0.8385	53665.25	3.5550	3.5550	0.2481	25.98	-0.01	1.500			
0.8392	53708.21	3.5520	3.5519	0.2225	25.98	-0.01	1.500			
0.8398	53747.09	3.5490	3.5490	0.2010	25.98	-0.01	1.500			
0.8404	53783.14	3.5460	3.5459	0.1831	25.98	-0.01	1.500			
0.8409	53816.14	3.5430	3.5430	0.1657	25.99	-0.00	1.500			
0.8413	53846.14	3.5400	3.5401	0.1509	25.99	-0.00	1.500			
0.8418	53873.53	3.5370	3.5370	0.1360	25.99	-0.00	1.500			
0.8422	53898.16	3.5340	3.5340	0.1217	25.99	-0.00	1.500			
0.8425	53920.17	3.5310	3.5310	0.1076	25.99	-0.00	1.500			
0.8428	53939.33	3.5280	3.5280	0.0934	25.99	-0.00	1.500			
0.8431	53956.01	3.5250	3.5252	0.0796	25.99	0.00	1.500			
0.8433	53969.96	3.5220	3.5221	0.0657	25.99	0.00	1.500			
0.8435	53981.56	3.5190	3.5193	0.0508	25.99	0.00	1.500			
0.8436	53989.90	3.5160	3.5168	0.0360	25.99	0.00	1.500			
