Ah_balance (normalized)	Ah_balance (mAh)	Voltage - fit (V)	Voltage -  interpolate (V)	dQ/dV (1/V)	Temperature (°C)	Temperature - diff (°C)	Current (C)	R_DC 0ms (mOhm)	R_DC 50ms (mOhm)	R_DC 50 ms PEC (mOhm)
0.2852	18255.85	3.9700	3.9700	0.9050	26.96	1.04	1.500			
0.2880	18428.95	3.9670	3.9668	0.8970	26.96	1.04	1.500			
0.2906	18598.56	3.9640	3.9641	0.8878	26.96	1.04	1.500			
0.2932	18766.24	3.9610	3.9611	0.8927	26.96	1.04	1.500			
0.2959	18939.19	3.9580	3.9579	0.8984	26.96	1.04	1.500			
0.2986	19112.23	3.9550	3.9549	0.8996	26.96	1.04	1.500			
0.3013	19284.59	3.9520	3.9520	0.9028	26.96	1.04	1.500			
0.3041	19459.40	3.9490	3.9492	0.9109	26.96	1.04	1.500			
0.3068	19635.52	3.9460	3.9460	0.9156	26.96	1.04	1.500			
0.3095	19810.18	3.9430	3.9429	0.9159	26.96	1.04	1.500			
0.3123	19986.40	3.9400	3.9400	0.9158	26.96	1.04	1.500			
0.3151	20164.18	3.9370	3.9370	0.9222	26.96	1.04	1.500			
0.3178	20340.53	3.9340	3.9340	0.9255	26.96	1.04	1.500			
0.3206	20516.68	3.9310	3.9311	0.9305	26.96	1.04	1.500			
0.3234	20695.52	3.9280	3.9280	0.9351	26.96	1.04	1.500			
0.3262	20875.01	3.9250	3.9250	0.9443	26.96	1.04	1.500			
0.3290	21057.50	3.9220	3.9220	0.9559	26.95	1.03	1.500			
0.3319	21243.34	3.9190	3.9191	0.9685	26.95	1.03	1.500			
0.3348	21429.84	3.9160	3.9159	0.9753	26.95	1.03	1.500			
0.3378	21617.37	3.9130	3.9131	0.9786	26.95	1.03	1.500			
0.3407	21806.36	3.9100	3.9100	0.9863	26.95	1.03	1.500			
0.3437	21997.06	3.9070	3.9071	0.9946	26.94	1.02	1.500			
0.3467	22188.10	3.9040	3.9038	0.9970	26.94	1.02	1.500			
0.3497	22379.87	3.9010	3.9011	1.0010	26.94	1.02	1.500			
0.3527	22572.57	3.8980	3.8980	1.0064	26.94	1.02	1.500			
0.3557	22765.73	3.8950	3.8950	1.0150	26.93	1.01	1.500			
0.3588	22961.07	3.8920	3.8920	1.0251	26.93	1.01	1.500			
0.3618	23156.37	3.8890	3.8890	1.0355	26.93	1.01	1.500			
0.3649	23356.17	3.8860	3.8861	1.0515	26.93	1.01	1.500			
0.3681	23560.96	3.8830	3.8829	1.0644	26.92	1.00	1.500			
0.3714	23767.35	3.8800	3.8799	1.0731	26.92	1.00	1.500			
0.3746	23974.18	3.8770	3.8771	1.0853	26.92	1.00	1.500			
0.3779	24182.72	3.8740	3.8740	1.0970	26.91	0.99	1.500			
0.3812	24394.17	3.8710	3.8710	1.1079	26.91	0.99	1.500			
0.3845	24607.68	3.8680	3.8680	1.1153	26.90	0.98	1.500			
0.3879	24823.60	3.8650	3.8650	1.1323	26.89	0.97	1.500			
0.3913	25043.76	3.8620	3.8620	1.1498	26.89	0.97	1.500			
0.3948	25264.39	3.8590	3.8590	1.1674	26.88	0.96	1.500			
0.3982	25487.26	3.8560	3.8561	1.1849	26.88	0.96	1.500			
0.4018	25716.67	3.8530	3.8530	1.2112	26.87	0.95	1.500			
0.4055	25953.20	3.8500	3.8500	1.2286	26.87	0.95	1.500			
0.4093	26192.42	3.8470	3.8469	1.2448	26.87	0.95	1.500			
0.4130	26432.53	3.8440	3.8441	1.2678	26.86	0.94	1.500			
0.4168	26678.22	3.8410	3.8410	1.2862	26.86	0.94	1.500			
0.4207	26924.67	3.8380	3.8379	1.3070	26.85	0.93	1.500			
0.4247	27178.71	3.8350	3.8350	1.3288	26.84	0.92	1.500			
0.4287	27435.64	3.8320	3.8320	1.3502	26.84	0.92	1.500			
0.4328	27699.04	3.8290	3.8290	1.3732	26.83	0.91	1.500			
0.4369	27962.90	3.8260	3.8260	1.4051	26.82	0.90	1.500			
0.4411	28231.38	3.8230	3.8231	1.4405	26.81	0.89	1.500			
0.4455	28510.59	3.8200	3.8199	1.4789	26.80	0.88	1.500			
0.4500	28798.94	3.8170	3.8170	1.5109	26.79	0.87	1.500			
0.4546	29095.25	3.8140	3.8140	1.5506	26.79	0.87	1.500			
0.4593	29396.24	3.8110	3.8111	1.5864	26.78	0.86	1.500			
0.4641	29704.41	3.8080	3.8080	1.6286	26.77	0.85	1.500			
0.4690	30017.58	3.8050	3.8050	1.6631	26.76	0.84	1.500			
0.4740	30338.92	3.8020	3.8020	1.7140	26.75	0.83	1.500			
0.4793	30674.26	3.7990	3.7990	1.7628	26.74	0.82	1.500			
0.4846	31017.23	3.7960	3.7960	1.8036	26.72	0.80	1.500			
0.4901	31365.73	3.7930	3.7931	1.8549	26.71	0.79	1.500			
0.4957	31723.61	3.7900	3.7899	1.9187	26.70	0.78	1.500			
0.5015	32095.87	3.7870	3.7871	1.9833	26.69	0.77	1.500			
0.5075	32482.44	3.7840	3.7840	2.0336	26.67	0.75	1.500			
0.5139	32888.35	3.7810	3.7811	2.1143	26.65	0.73	1.500			
0.5202	33291.58	3.7780	3.7780	2.1383	26.63	0.71	1.500			
0.5267	33708.70	3.7750	3.7751	2.2000	26.61	0.69	1.500			
0.5333	34132.27	3.7720	3.7720	2.2306	26.59	0.67	1.500			
0.5402	34569.83	3.7690	3.7690	2.2733	26.58	0.66	1.500			
0.5470	35005.22	3.7660	3.7659	2.3185	26.56	0.64	1.500			
0.5540	35458.74	3.7630	3.7630	2.3536	26.54	0.62	1.500			
0.5612	35915.43	3.7600	3.7597	2.3968	26.51	0.59	1.500	0.355	0.448	
0.5685	36383.06	3.7570	3.7570	2.4067	26.49	0.57	1.500			
0.5758	36852.66	3.7540	3.7541	2.3750	26.47	0.55	1.500			
0.5829	37302.78	3.7510	3.7510	2.3019	26.45	0.53	1.500			
0.5896	37733.33	3.7480	3.7480	2.2476	26.43	0.51	1.500			
0.5961	38152.25	3.7450	3.7449	2.2228	26.41	0.49	1.500			
0.6028	38580.85	3.7420	3.7420	2.2047	26.39	0.47	1.500			
0.6094	39001.51	3.7390	3.7390	2.2049	26.38	0.46	1.500			
0.6160	39425.71	3.7360	3.7360	2.1929	26.36	0.44	1.500			
0.6226	39846.48	3.7330	3.7329	2.1898	26.34	0.42	1.500			
0.6292	40270.32	3.7300	3.7300	2.1649	26.32	0.40	1.500			
0.6356	40681.19	3.7270	3.7271	2.1947	26.31	0.39	1.500			
0.6421	41095.84	3.7240	3.7240	2.2124	26.29	0.37	1.500			
0.6488	41525.79	3.7210	3.7211	2.2784	26.28	0.36	1.500			
0.6558	41968.86	3.7180	3.7181	2.3515	26.26	0.34	1.500			
0.6630	42429.20	3.7150	3.7150	2.4473	26.24	0.32	1.500			
0.6703	42900.09	3.7120	3.7120	2.5172	26.22	0.30	1.500			
0.6781	43397.39	3.7090	3.7091	2.6388	26.21	0.29	1.500			
0.6861	43913.53	3.7060	3.7059	2.7035	26.19	0.27	1.500			
0.6943	44434.51	3.7030	3.7030	2.8436	26.18	0.26	1.500			
0.7031	45000.53	3.7000	3.6999	2.9187	26.16	0.24	1.500			
0.7120	45570.53	3.6970	3.6972	2.9118	26.13	0.21	1.500			
0.7209	46137.41	3.6940	3.6939	2.8744	26.11	0.19	1.500			
0.7293	46676.62	3.6910	3.6910	2.6967	26.10	0.18	1.500			
0.7373	47190.09	3.6880	3.6881	2.5605	26.09	0.17	1.500			
0.7449	47675.10	3.6850	3.6850	2.3650	26.07	0.15	1.500			
0.7516	48104.34	3.6820	3.6820	2.1450	26.06	0.14	1.500			
0.7575	48483.20	3.6790	3.6790	1.9291	26.06	0.14	1.500			
0.7630	48833.40	3.6760	3.6761	1.7790	26.05	0.13	1.500			
0.7680	49152.96	3.6730	3.6730	1.6608	26.04	0.12	1.500			
0.7727	49451.70	3.6700	3.6699	1.5455	26.04	0.12	1.500			
0.7772	49738.71	3.6670	3.6670	1.4638	26.03	0.11	1.500			
0.7814	50012.00	3.6640	3.6641	1.3897	26.03	0.11	1.500			
0.7855	50271.75	3.6610	3.6610	1.3290	26.02	0.10	1.500			
0.7893	50514.98	3.6580	3.6580	1.2711	26.01	0.09	1.500			
0.7929	50746.34	3.6550	3.6550	1.2376	26.01	0.09	1.500			
0.7965	50978.24	3.6520	3.6518	1.2211	26.00	0.08	1.500			
0.8001	51208.65	3.6490	3.6491	1.2216	26.00	0.08	1.500			
0.8038	51443.33	3.6460	3.6460	1.2352	25.99	0.07	1.500			
0.8075	51682.85	3.6430	3.6430	1.2524	25.98	0.06	1.500			
0.8113	51924.74	3.6400	3.6400	1.2668	25.98	0.06	1.500			
0.8151	52167.46	3.6370	3.6370	1.2789	25.97	0.05	1.500			
0.8190	52416.38	3.6340	3.6340	1.2914	25.96	0.04	1.500			
0.8229	52667.03	3.6310	3.6310	1.3005	25.96	0.04	1.500			
0.8268	52917.36	3.6280	3.6280	1.2997	25.96	0.04	1.500			
0.8308	53168.72	3.6250	3.6250	1.3011	25.95	0.03	1.500			
0.8347	53418.63	3.6220	3.6220	1.2987	25.95	0.03	1.500			
0.8385	53666.60	3.6190	3.6189	1.2948	25.95	0.03	1.500			
0.8424	53913.45	3.6160	3.6161	1.2961	25.94	0.02	1.500			
0.8463	54162.53	3.6130	3.6130	1.3001	25.94	0.02	1.500			
0.8502	54413.96	3.6100	3.6100	1.3032	25.94	0.02	1.500			
0.8541	54665.59	3.6070	3.6070	1.3016	25.93	0.01	1.500			
0.8581	54918.91	3.6040	3.6040	1.2903	25.93	0.01	1.500			
0.8620	55166.34	3.6010	3.6010	1.2777	25.93	0.01	1.500			
0.8658	55409.74	3.5980	3.5980	1.2608	25.93	0.01	1.500			
0.8695	55649.10	3.5950	3.5951	1.2417	25.92	0.00	1.500			
0.8732	55885.00	3.5920	3.5921	1.2267	25.92	0.00	1.500			
0.8768	56117.53	3.5890	3.5890	1.2185	25.92	0.00	1.500			
0.8804	56348.02	3.5860	3.5860	1.2145	25.92	0.00	1.500			
0.8841	56580.09	3.5830	3.5830	1.2193	25.92	0.00	1.500			
0.8877	56813.76	3.5800	3.5800	1.2266	25.92	0.00	1.500			
0.8914	57051.11	3.5770	3.5769	1.2345	25.92	0.00	1.500			
0.8953	57296.49	3.5740	3.5740	1.2213	25.92	0.00	1.500			
0.8990	57536.49	3.5710	3.5710	1.1828	25.92	0.00	1.500			
0.9028	57777.74	3.5680	3.5679	1.0989	25.92	0.00	1.500			
0.9061	57987.26	3.5650	3.5651	0.9783	25.92	0.00	1.500			
0.9089	58167.70	3.5620	3.5621	0.8400	25.92	0.00	1.500			
0.9111	58308.96	3.5590	3.5591	0.6877	25.92	0.00	1.500			
0.9127	58414.74	3.5560	3.5560	0.5456	25.92	0.00	1.500			
0.9141	58499.49	3.5530	3.5529	0.4395	25.92	0.00	1.500			
0.9151	58566.75	3.5500	3.5500	0.3420	25.92	0.00	1.500			
0.9160	58622.69	3.5470	3.5469	0.2878	25.92	0.00	1.500			
0.9167	58667.14	3.5440	3.5440	0.2406	25.92	0.00	1.500			
0.9173	58707.12	3.5410	3.5410	0.2085	25.92	0.00	1.500			
0.9179	58743.31	3.5380	3.5380	0.1797	25.92	0.00	1.500			
0.9183	58773.55	3.5350	3.5350	0.1570	25.92	0.00	1.500			
0.9188	58801.27	3.5320	3.5320	0.1359	25.92	0.00	1.500			
0.9191	58825.28	3.5290	3.5290	0.1168	25.92	0.00	1.500			
0.9195	58845.98	3.5260	3.5261	0.0989	25.92	0.00	1.500			
0.9197	58863.13	3.5230	3.5231	0.0811	25.92	0.00	1.500			
0.9199	58876.78	3.5200	3.5204	0.0640	25.92	0.00	1.500			
0.9201	58887.46	3.5170	3.5177	0.0471	25.92	0.00	1.500			
