Ah_balance (normalized)	Ah_balance (mAh)	Voltage - fit (V)	Voltage -  interpolate (V)	dQ/dV (1/V)	Temperature (°C)	Temperature - diff (°C)	Current (C)	R_DC 0ms (mOhm)	R_DC 50ms (mOhm)	R_DC 50 ms PEC (mOhm)
0.2744	17562.14	3.9910	3.9910	0.8154	27.39	1.43	1.500			
0.2769	17720.56	3.9880	3.9880	0.8321	27.39	1.43	1.500			
0.2794	17881.47	3.9850	3.9850	0.8396	27.38	1.42	1.500			
0.2819	18042.85	3.9820	3.9820	0.8455	27.38	1.42	1.500			
0.2845	18206.40	3.9790	3.9790	0.8530	27.37	1.41	1.500			
0.2870	18370.78	3.9760	3.9760	0.8564	27.36	1.40	1.500			
0.2896	18537.33	3.9730	3.9729	0.8570	27.36	1.40	1.500			
0.2922	18701.69	3.9700	3.9701	0.8539	27.35	1.39	1.500			
0.2948	18865.71	3.9670	3.9670	0.8565	27.34	1.38	1.500			
0.2973	19029.34	3.9640	3.9640	0.8563	27.34	1.38	1.500			
0.2999	19192.07	3.9610	3.9610	0.8587	27.33	1.37	1.500			
0.3024	19356.72	3.9580	3.9581	0.8650	27.33	1.37	1.500			
0.3051	19524.52	3.9550	3.9550	0.8728	27.32	1.36	1.500			
0.3077	19693.77	3.9520	3.9520	0.8779	27.31	1.35	1.500			
0.3104	19863.33	3.9490	3.9490	0.8830	27.31	1.35	1.500			
0.3130	20032.37	3.9460	3.9460	0.8876	27.30	1.34	1.500			
0.3157	20204.95	3.9430	3.9430	0.8879	27.29	1.33	1.500			
0.3184	20374.59	3.9400	3.9400	0.8918	27.29	1.33	1.500			
0.3210	20545.94	3.9370	3.9370	0.8959	27.28	1.32	1.500			
0.3237	20717.81	3.9340	3.9341	0.9047	27.28	1.32	1.500			
0.3265	20892.93	3.9310	3.9310	0.9086	27.27	1.31	1.500			
0.3292	21066.99	3.9280	3.9280	0.9144	27.26	1.30	1.500			
0.3319	21243.85	3.9250	3.9251	0.9191	27.25	1.29	1.500			
0.3347	21421.60	3.9220	3.9220	0.9253	27.25	1.29	1.500			
0.3375	21598.70	3.9190	3.9190	0.9283	27.24	1.28	1.500			
0.3403	21777.93	3.9160	3.9160	0.9300	27.23	1.27	1.500			
0.3431	21955.71	3.9130	3.9129	0.9373	27.22	1.26	1.500			
0.3459	22137.23	3.9100	3.9101	0.9484	27.21	1.25	1.500			
0.3487	22319.54	3.9070	3.9070	0.9543	27.21	1.25	1.500			
0.3516	22504.32	3.9040	3.9040	0.9637	27.20	1.24	1.500			
0.3545	22689.64	3.9010	3.9010	0.9726	27.19	1.23	1.500			
0.3575	22877.10	3.8980	3.8981	0.9809	27.18	1.22	1.500			
0.3604	23066.78	3.8950	3.8949	0.9903	27.17	1.21	1.500			
0.3634	23256.56	3.8920	3.8920	0.9951	27.17	1.21	1.500			
0.3664	23448.42	3.8890	3.8890	1.0021	27.16	1.20	1.500			
0.3694	23641.34	3.8860	3.8860	1.0136	27.15	1.19	1.500			
0.3724	23836.65	3.8830	3.8830	1.0248	27.14	1.18	1.500			
0.3755	24033.35	3.8800	3.8799	1.0390	27.13	1.17	1.500			
0.3787	24234.94	3.8770	3.8770	1.0502	27.12	1.16	1.500			
0.3818	24438.30	3.8740	3.8740	1.0601	27.11	1.15	1.500			
0.3851	24644.23	3.8710	3.8710	1.0715	27.10	1.14	1.500			
0.3883	24850.46	3.8680	3.8681	1.0791	27.09	1.13	1.500			
0.3915	25059.17	3.8650	3.8649	1.0875	27.07	1.11	1.500			
0.3948	25267.50	3.8620	3.8620	1.0981	27.06	1.10	1.500			
0.3981	25477.55	3.8590	3.8591	1.1185	27.05	1.09	1.500			
0.4015	25694.78	3.8560	3.8560	1.1366	27.04	1.08	1.500			
0.4049	25914.22	3.8530	3.8529	1.1537	27.03	1.07	1.500			
0.4084	26138.81	3.8500	3.8500	1.1652	27.02	1.06	1.500			
0.4119	26364.10	3.8470	3.8471	1.1782	27.01	1.05	1.500			
0.4155	26591.38	3.8440	3.8440	1.1989	27.00	1.04	1.500			
0.4191	26821.01	3.8410	3.8411	1.2119	26.99	1.03	1.500			
0.4227	27054.83	3.8380	3.8380	1.2317	26.98	1.02	1.500			
0.4265	27294.70	3.8350	3.8350	1.2536	26.97	1.01	1.500			
0.4303	27537.61	3.8320	3.8321	1.2714	26.95	0.99	1.500			
0.4342	27786.15	3.8290	3.8290	1.2982	26.94	0.98	1.500			
0.4381	28035.20	3.8260	3.8260	1.3138	26.93	0.97	1.500			
0.4420	28286.78	3.8230	3.8230	1.3336	26.91	0.95	1.500			
0.4460	28543.99	3.8200	3.8200	1.3600	26.90	0.94	1.500			
0.4501	28806.84	3.8170	3.8170	1.3891	26.88	0.92	1.500			
0.4543	29078.18	3.8140	3.8140	1.4170	26.87	0.91	1.500			
0.4586	29353.06	3.8110	3.8110	1.4403	26.86	0.90	1.500			
0.4630	29632.96	3.8080	3.8080	1.4544	26.84	0.88	1.500			
0.4674	29913.92	3.8050	3.8051	1.4792	26.83	0.87	1.500			
0.4718	30195.74	3.8020	3.8020	1.5071	26.81	0.85	1.500			
0.4764	30489.10	3.7990	3.7988	1.5370	26.80	0.84	1.500			
0.4810	30786.63	3.7960	3.7960	1.5640	26.78	0.82	1.500			
0.4859	31096.59	3.7930	3.7931	1.5848	26.77	0.81	1.500			
0.4907	31404.90	3.7900	3.7900	1.6215	26.75	0.79	1.500			
0.4955	31710.82	3.7870	3.7871	1.6449	26.74	0.78	1.500			
0.5004	32027.33	3.7840	3.7838	1.6821	26.72	0.76	1.500			
0.5056	32359.38	3.7810	3.7811	1.7077	26.70	0.74	1.500	0.348	0.477	
0.5109	32695.93	3.7780	3.7781	1.7286	26.69	0.73	1.500			
0.5161	33030.28	3.7750	3.7750	1.7231	26.67	0.71	1.500			
0.5211	33350.61	3.7720	3.7720	1.7104	26.66	0.70	1.500			
0.5262	33678.84	3.7690	3.7689	1.7154	26.64	0.68	1.500			
0.5314	34008.18	3.7660	3.7661	1.7342	26.63	0.67	1.500			
0.5367	34346.81	3.7630	3.7630	1.7388	26.61	0.65	1.500			
0.5418	34677.95	3.7600	3.7600	1.7398	26.60	0.64	1.500			
0.5471	35012.39	3.7570	3.7569	1.7463	26.59	0.63	1.500			
0.5523	35345.95	3.7540	3.7540	1.7649	26.57	0.61	1.500			
0.5576	35688.18	3.7510	3.7510	1.7788	26.55	0.59	1.500			
0.5630	36030.81	3.7480	3.7480	1.8086	26.53	0.57	1.500			
0.5684	36377.71	3.7450	3.7451	1.8314	26.51	0.55	1.500			
0.5740	36735.11	3.7420	3.7420	1.8619	26.49	0.53	1.500			
0.5796	37093.51	3.7390	3.7390	1.8902	26.47	0.51	1.500			
0.5853	37457.14	3.7360	3.7361	1.9167	26.46	0.50	1.500			
0.5910	37824.11	3.7330	3.7330	1.9684	26.44	0.48	1.500			
0.5970	38207.78	3.7300	3.7300	2.0333	26.43	0.47	1.500			
0.6032	38607.90	3.7270	3.7269	2.1070	26.41	0.45	1.500			
0.6098	39025.45	3.7240	3.7240	2.1370	26.39	0.43	1.500			
0.6162	39437.73	3.7210	3.7211	2.2055	26.37	0.41	1.500			
0.6228	39862.19	3.7180	3.7179	2.2567	26.35	0.39	1.500			
0.6296	40297.30	3.7150	3.7151	2.2990	26.33	0.37	1.500			
0.6368	40756.74	3.7120	3.7120	2.3618	26.31	0.35	1.500			
0.6440	41216.71	3.7090	3.7090	2.3209	26.30	0.34	1.500			
0.6510	41661.07	3.7060	3.7060	2.2931	26.28	0.32	1.500			
0.6578	42099.25	3.7030	3.7029	2.1910	26.27	0.31	1.500			
0.6643	42514.26	3.7000	3.7000	2.0546	26.26	0.30	1.500			
0.6701	42889.55	3.6970	3.6971	1.8998	26.25	0.29	1.500			
0.6756	43237.50	3.6940	3.6939	1.7734	26.24	0.28	1.500			
0.6806	43560.66	3.6910	3.6910	1.6612	26.23	0.27	1.500			
0.6855	43874.84	3.6880	3.6880	1.5838	26.21	0.25	1.500			
0.6901	44165.50	3.6850	3.6850	1.5112	26.20	0.24	1.500			
0.6945	44446.15	3.6820	3.6820	1.4434	26.19	0.23	1.500			
0.6987	44714.30	3.6790	3.6790	1.3896	26.18	0.22	1.500			
0.7027	44974.33	3.6760	3.6762	1.3508	26.16	0.20	1.500			
0.7067	45227.39	3.6730	3.6730	1.3184	26.15	0.19	1.500			
0.7106	45478.13	3.6700	3.6700	1.2976	26.14	0.18	1.500			
0.7144	45724.61	3.6670	3.6670	1.2835	26.13	0.17	1.500			
0.7182	45964.28	3.6640	3.6640	1.2700	26.12	0.16	1.500			
0.7220	46207.85	3.6610	3.6610	1.2727	26.11	0.15	1.500			
0.7258	46451.78	3.6580	3.6579	1.2770	26.10	0.14	1.500			
0.7296	46696.86	3.6550	3.6550	1.2800	26.09	0.13	1.500			
0.7335	46946.20	3.6520	3.6519	1.2764	26.08	0.12	1.500			
0.7374	47194.76	3.6490	3.6490	1.2710	26.07	0.11	1.500			
0.7412	47438.32	3.6460	3.6460	1.2583	26.06	0.10	1.500			
0.7450	47677.24	3.6430	3.6430	1.2445	26.05	0.09	1.500			
0.7486	47913.33	3.6400	3.6400	1.2292	26.05	0.09	1.500			
0.7523	48146.62	3.6370	3.6370	1.2259	26.04	0.08	1.500			
0.7560	48381.03	3.6340	3.6340	1.2233	26.03	0.07	1.500			
0.7597	48619.00	3.6310	3.6310	1.2169	26.02	0.06	1.500			
0.7634	48854.58	3.6280	3.6280	1.2059	26.01	0.05	1.500			
0.7669	49084.40	3.6250	3.6250	1.1969	26.00	0.04	1.500			
0.7705	49312.34	3.6220	3.6220	1.1887	25.99	0.03	1.500			
0.7740	49538.52	3.6190	3.6189	1.1732	25.98	0.02	1.500			
0.7775	49761.99	3.6160	3.6160	1.1578	25.98	0.02	1.500			
0.7810	49985.58	3.6130	3.6130	1.1445	25.98	0.02	1.500			
0.7845	50206.67	3.6100	3.6100	1.1233	25.97	0.01	1.500			
0.7878	50421.28	3.6070	3.6070	1.1002	25.97	0.01	1.500			
0.7911	50628.71	3.6040	3.6040	1.0674	25.97	0.01	1.500			
0.7942	50830.15	3.6010	3.6010	1.0386	25.97	0.01	1.500			
0.7973	51026.53	3.5980	3.5980	1.0129	25.96	0.00	1.500			
0.8003	51219.42	3.5950	3.5950	0.9772	25.96	0.00	1.500			
0.8032	51406.57	3.5920	3.5919	0.9427	25.96	-0.00	1.500			
0.8061	51587.22	3.5890	3.5890	0.8868	25.96	-0.00	1.500			
0.8087	51757.27	3.5860	3.5860	0.8237	25.95	-0.01	1.500			
0.8112	51913.63	3.5830	3.5830	0.7418	25.95	-0.01	1.500			
0.8133	52048.63	3.5800	3.5800	0.6500	25.95	-0.01	1.500			
0.8150	52162.03	3.5770	3.5771	0.5583	25.95	-0.01	1.500			
0.8165	52259.06	3.5740	3.5739	0.4731	25.95	-0.01	1.500			
0.8177	52335.80	3.5710	3.5709	0.3953	25.95	-0.01	1.500			
0.8188	52402.15	3.5680	3.5679	0.3400	25.95	-0.01	1.500			
0.8197	52458.38	3.5650	3.5650	0.2932	25.94	-0.02	1.500			
0.8205	52509.04	3.5620	3.5620	0.2591	25.94	-0.02	1.500			
0.8211	52553.55	3.5590	3.5590	0.2269	25.94	-0.02	1.500			
0.8218	52593.68	3.5560	3.5559	0.2054	25.94	-0.02	1.500			
0.8223	52629.83	3.5530	3.5531	0.1849	25.94	-0.02	1.500			
0.8229	52663.23	3.5500	3.5499	0.1666	25.94	-0.02	1.500			
0.8233	52693.46	3.5470	3.5470	0.1514	25.94	-0.02	1.500			
0.8238	52720.83	3.5440	3.5441	0.1357	25.94	-0.02	1.500			
0.8241	52745.01	3.5410	3.5410	0.1207	25.94	-0.02	1.500			
0.8245	52766.90	3.5380	3.5379	0.1067	25.94	-0.02	1.500			
0.8248	52786.02	3.5350	3.5350	0.0924	25.94	-0.02	1.500			
0.8250	52801.96	3.5320	3.5321	0.0780	25.94	-0.02	1.500			
0.8252	52815.96	3.5290	3.5293	0.0642	25.94	-0.02	1.500			
0.8254	52826.91	3.5260	3.5265	0.0498	25.94	-0.02	1.500			
0.8255	52835.10	3.5230	3.5241	0.0355	25.94	-0.02	1.500			
