Ah_balance (normalized)	Ah_balance (mAh)	Voltage - fit (V)	Voltage -  interpolate (V)	dQ/dV (1/V)	Temperature (°C)	Temperature - diff (°C)	Current (C)	R_DC 0ms (mOhm)	R_DC 50ms (mOhm)	R_DC 50 ms PEC (mOhm)
0.2881	18440.46	3.9820	3.9821	0.8079	27.10	1.14	1.500			
0.2906	18600.65	3.9790	3.9790	0.8398	27.09	1.13	1.500			
0.2932	18763.82	3.9760	3.9760	0.8494	27.09	1.13	1.500			
0.2957	18927.36	3.9730	3.9729	0.8567	27.08	1.12	1.500			
0.2983	19092.27	3.9700	3.9701	0.8626	27.08	1.12	1.500			
0.3010	19261.39	3.9670	3.9670	0.8677	27.07	1.11	1.500			
0.3035	19427.18	3.9640	3.9640	0.8705	27.07	1.11	1.500			
0.3062	19594.36	3.9610	3.9610	0.8730	27.06	1.10	1.500			
0.3088	19763.40	3.9580	3.9580	0.8734	27.06	1.10	1.500			
0.3114	19928.98	3.9550	3.9551	0.8771	27.05	1.09	1.500			
0.3140	20096.95	3.9520	3.9520	0.8788	27.05	1.09	1.500			
0.3167	20266.41	3.9490	3.9488	0.8816	27.04	1.08	1.500			
0.3193	20435.67	3.9460	3.9460	0.8897	27.03	1.07	1.500			
0.3220	20606.29	3.9430	3.9431	0.8943	27.03	1.07	1.500			
0.3247	20779.65	3.9400	3.9399	0.9037	27.02	1.06	1.500			
0.3274	20953.85	3.9370	3.9370	0.9083	27.01	1.05	1.500			
0.3301	21128.89	3.9340	3.9340	0.9123	27.01	1.05	1.500			
0.3329	21307.61	3.9310	3.9310	0.9132	27.00	1.04	1.500			
0.3356	21481.56	3.9280	3.9280	0.9162	26.99	1.03	1.500			
0.3384	21655.37	3.9250	3.9251	0.9173	26.99	1.03	1.500			
0.3411	21831.66	3.9220	3.9218	0.9264	26.98	1.02	1.500			
0.3439	22009.09	3.9190	3.9190	0.9319	26.98	1.02	1.500			
0.3467	22189.25	3.9160	3.9162	0.9427	26.97	1.01	1.500			
0.3496	22373.43	3.9130	3.9129	0.9554	26.96	1.00	1.500			
0.3525	22559.23	3.9100	3.9100	0.9620	26.96	1.00	1.500			
0.3553	22741.63	3.9070	3.9070	0.9596	26.95	0.99	1.500			
0.3582	22927.45	3.9040	3.9040	0.9653	26.95	0.99	1.500			
0.3612	23114.01	3.9010	3.9010	0.9693	26.94	0.98	1.500			
0.3641	23300.70	3.8980	3.8981	0.9733	26.94	0.98	1.500			
0.3670	23486.99	3.8950	3.8949	0.9781	26.93	0.97	1.500			
0.3699	23674.27	3.8920	3.8920	0.9869	26.92	0.96	1.500			
0.3729	23862.73	3.8890	3.8890	0.9968	26.92	0.96	1.500			
0.3759	24054.45	3.8860	3.8860	1.0118	26.91	0.95	1.500			
0.3789	24252.04	3.8830	3.8829	1.0272	26.91	0.95	1.500			
0.3820	24451.02	3.8800	3.8800	1.0365	26.90	0.94	1.500			
0.3852	24652.08	3.8770	3.8770	1.0452	26.89	0.93	1.500			
0.3883	24853.54	3.8740	3.8740	1.0560	26.89	0.93	1.500			
0.3915	25057.01	3.8710	3.8709	1.0654	26.88	0.92	1.500			
0.3947	25260.75	3.8680	3.8680	1.0759	26.87	0.91	1.500			
0.3979	25467.92	3.8650	3.8650	1.0899	26.87	0.91	1.500			
0.4012	25679.61	3.8620	3.8620	1.1056	26.86	0.90	1.500			
0.4046	25893.51	3.8590	3.8590	1.1188	26.85	0.89	1.500			
0.4080	26108.94	3.8560	3.8560	1.1385	26.84	0.88	1.500			
0.4114	26328.58	3.8530	3.8530	1.1535	26.83	0.87	1.500			
0.4149	26552.51	3.8500	3.8499	1.1684	26.82	0.86	1.500			
0.4184	26777.60	3.8470	3.8470	1.1860	26.82	0.86	1.500			
0.4220	27006.75	3.8440	3.8441	1.2053	26.81	0.85	1.500			
0.4256	27239.89	3.8410	3.8410	1.2256	26.80	0.84	1.500			
0.4293	27476.89	3.8380	3.8379	1.2420	26.79	0.83	1.500			
0.4331	27715.68	3.8350	3.8350	1.2613	26.79	0.83	1.500			
0.4369	27959.63	3.8320	3.8321	1.2899	26.78	0.82	1.500			
0.4408	28209.24	3.8290	3.8289	1.3187	26.77	0.81	1.500			
0.4448	28464.86	3.8260	3.8260	1.3424	26.76	0.80	1.500			
0.4488	28725.95	3.8230	3.8230	1.3719	26.75	0.79	1.500			
0.4530	28993.07	3.8200	3.8200	1.3976	26.74	0.78	1.500			
0.4573	29264.61	3.8170	3.8170	1.4245	26.73	0.77	1.500			
0.4615	29537.44	3.8140	3.8140	1.4569	26.71	0.75	1.500			
0.4659	29819.28	3.8110	3.8109	1.4896	26.70	0.74	1.500			
0.4704	30107.07	3.8080	3.8080	1.5251	26.69	0.73	1.500			
0.4751	30404.91	3.8050	3.8051	1.5643	26.68	0.72	1.500			
0.4799	30710.80	3.8020	3.8020	1.6023	26.66	0.70	1.500			
0.4847	31021.71	3.7990	3.7989	1.6337	26.65	0.69	1.500			
0.4896	31337.41	3.7960	3.7961	1.6758	26.64	0.68	1.500			
0.4947	31663.87	3.7930	3.7931	1.7129	26.62	0.66	1.500			
0.5000	31997.36	3.7900	3.7899	1.7379	26.61	0.65	1.500			
0.5052	32333.70	3.7870	3.7871	1.7715	26.59	0.63	1.500			
0.5106	32678.00	3.7840	3.7840	1.8099	26.58	0.62	1.500			
0.5161	33030.47	3.7810	3.7809	1.8488	26.56	0.60	1.500			
0.5216	33385.39	3.7780	3.7779	1.8747	26.55	0.59	1.500			
0.5274	33750.49	3.7750	3.7751	1.9175	26.53	0.57	1.500			
0.5331	34121.04	3.7720	3.7719	1.9485	26.52	0.56	1.500			
0.5391	34503.74	3.7690	3.7690	1.9644	26.51	0.55	1.500	0.344	0.453	
0.5450	34881.34	3.7660	3.7661	1.9633	26.49	0.53	1.500			
0.5510	35266.56	3.7630	3.7630	1.9438	26.47	0.51	1.500			
0.5568	35632.55	3.7600	3.7600	1.9191	26.45	0.49	1.500			
0.5624	35993.10	3.7570	3.7571	1.8987	26.43	0.47	1.500			
0.5681	36359.09	3.7540	3.7539	1.9022	26.42	0.46	1.500			
0.5738	36724.35	3.7510	3.7510	1.9140	26.40	0.44	1.500			
0.5796	37092.75	3.7480	3.7480	1.9177	26.39	0.43	1.500			
0.5853	37461.71	3.7450	3.7450	1.9231	26.38	0.42	1.500			
0.5911	37830.80	3.7420	3.7419	1.9274	26.36	0.40	1.500			
0.5969	38200.65	3.7390	3.7390	1.9417	26.35	0.39	1.500			
0.6028	38576.48	3.7360	3.7360	1.9451	26.33	0.37	1.500			
0.6085	38945.73	3.7330	3.7330	1.9916	26.31	0.35	1.500			
0.6146	39332.84	3.7300	3.7300	2.0403	26.30	0.34	1.500			
0.6208	39728.74	3.7270	3.7270	2.0916	26.28	0.32	1.500			
0.6271	40134.93	3.7240	3.7241	2.1354	26.27	0.31	1.500			
0.6335	40547.18	3.7210	3.7210	2.2015	26.26	0.30	1.500			
0.6401	40967.11	3.7180	3.7179	2.2625	26.24	0.28	1.500			
0.6471	41415.76	3.7150	3.7150	2.3332	26.23	0.27	1.500			
0.6542	41871.30	3.7120	3.7121	2.4070	26.21	0.25	1.500			
0.6616	42340.82	3.7090	3.7090	2.4698	26.19	0.23	1.500			
0.6691	42822.53	3.7060	3.7060	2.5280	26.17	0.21	1.500			
0.6769	43320.43	3.7030	3.7030	2.5549	26.16	0.20	1.500			
0.6846	43815.88	3.7000	3.7000	2.5433	26.14	0.18	1.500			
0.6922	44302.67	3.6970	3.6969	2.4776	26.12	0.16	1.500			
0.6997	44777.92	3.6940	3.6940	2.3557	26.11	0.15	1.500			
0.7065	45218.44	3.6910	3.6910	2.1778	26.10	0.14	1.500			
0.7127	45613.89	3.6880	3.6881	2.0033	26.09	0.13	1.500			
0.7184	45977.93	3.6850	3.6850	1.8414	26.08	0.12	1.500			
0.7237	46315.57	3.6820	3.6820	1.7061	26.07	0.11	1.500			
0.7286	46629.62	3.6790	3.6790	1.6084	26.06	0.10	1.500			
0.7332	46923.69	3.6760	3.6760	1.5200	26.05	0.09	1.500			
0.7376	47206.01	3.6730	3.6729	1.4445	26.05	0.09	1.500			
0.7417	47470.44	3.6700	3.6700	1.3800	26.04	0.08	1.500			
0.7457	47727.33	3.6670	3.6671	1.3348	26.04	0.08	1.500			
0.7496	47977.15	3.6640	3.6640	1.3061	26.03	0.07	1.500			
0.7535	48226.05	3.6610	3.6609	1.2743	26.03	0.07	1.500			
0.7572	48463.72	3.6580	3.6580	1.2578	26.02	0.06	1.500			
0.7610	48702.53	3.6550	3.6551	1.2544	26.02	0.06	1.500			
0.7647	48941.42	3.6520	3.6520	1.2620	26.01	0.05	1.500			
0.7685	49182.75	3.6490	3.6490	1.2723	26.01	0.05	1.500			
0.7723	49427.06	3.6460	3.6460	1.2795	26.00	0.04	1.500			
0.7762	49675.58	3.6430	3.6431	1.2912	25.99	0.03	1.500			
0.7802	49931.24	3.6400	3.6400	1.2948	25.98	0.02	1.500			
0.7840	50174.32	3.6370	3.6371	1.2951	25.98	0.02	1.500			
0.7879	50423.32	3.6340	3.6341	1.2959	25.97	0.01	1.500			
0.7918	50672.23	3.6310	3.6307	1.2945	25.96	-0.00	1.500			
0.7956	50920.38	3.6280	3.6281	1.2952	25.96	-0.00	1.500			
0.7996	51171.23	3.6250	3.6251	1.2907	25.95	-0.01	1.500			
0.8035	51423.15	3.6220	3.6220	1.2852	25.95	-0.01	1.500			
0.8073	51666.35	3.6190	3.6190	1.2730	25.95	-0.01	1.500			
0.8111	51909.71	3.6160	3.6160	1.2620	25.94	-0.02	1.500			
0.8149	52152.90	3.6130	3.6130	1.2550	25.94	-0.02	1.500			
0.8186	52393.29	3.6100	3.6101	1.2405	25.94	-0.02	1.500			
0.8224	52630.78	3.6070	3.6070	1.2263	25.94	-0.02	1.500			
0.8260	52866.11	3.6040	3.6040	1.2121	25.94	-0.02	1.500			
0.8296	53097.18	3.6010	3.6010	1.1925	25.93	-0.03	1.500			
0.8332	53322.22	3.5980	3.5980	1.1746	25.93	-0.03	1.500			
0.8367	53547.37	3.5950	3.5950	1.1577	25.93	-0.03	1.500			
0.8401	53767.38	3.5920	3.5920	1.1437	25.93	-0.03	1.500			
0.8435	53985.27	3.5890	3.5890	1.1299	25.93	-0.03	1.500			
0.8469	54200.94	3.5860	3.5860	1.1154	25.94	-0.02	1.500			
0.8502	54415.42	3.5830	3.5829	1.0941	25.94	-0.02	1.500			
0.8536	54632.34	3.5800	3.5799	1.0516	25.94	-0.02	1.500			
0.8568	54834.45	3.5770	3.5770	0.9875	25.95	-0.01	1.500			
0.8598	55029.07	3.5740	3.5740	0.9018	25.95	-0.01	1.500			
0.8624	55193.93	3.5710	3.5710	0.7857	25.95	-0.01	1.500			
0.8646	55332.74	3.5680	3.5681	0.6695	25.96	-0.00	1.500			
0.8663	55445.70	3.5650	3.5649	0.5520	25.96	-0.00	1.500			
0.8677	55534.21	3.5620	3.5620	0.4503	25.96	0.00	1.500			
0.8689	55607.35	3.5590	3.5589	0.3775	25.96	0.00	1.500			
0.8698	55666.52	3.5560	3.5560	0.3151	25.96	0.00	1.500			
0.8706	55720.12	3.5530	3.5530	0.2760	25.96	0.00	1.500			
0.8713	55766.26	3.5500	3.5499	0.2383	25.97	0.01	1.500			
0.8720	55808.00	3.5470	3.5469	0.2137	25.97	0.01	1.500			
0.8726	55845.64	3.5440	3.5441	0.1923	25.97	0.01	1.500			
0.8731	55880.59	3.5410	3.5411	0.1737	25.97	0.01	1.500			
0.8736	55911.85	3.5380	3.5381	0.1582	25.97	0.01	1.500			
0.8741	55940.42	3.5350	3.5349	0.1419	25.97	0.01	1.500			
0.8745	55965.53	3.5320	3.5321	0.1259	25.97	0.01	1.500			
0.8748	55988.30	3.5290	3.5289	0.1117	25.97	0.01	1.500			
0.8751	56008.39	3.5260	3.5261	0.0977	25.97	0.01	1.500			
0.8754	56026.08	3.5230	3.5231	0.0838	25.97	0.01	1.500			
0.8756	56041.13	3.5200	3.5202	0.0692	25.97	0.01	1.500			
0.8758	56052.97	3.5170	3.5175	0.0541	25.97	0.01	1.500			
0.8760	56061.89	3.5140	3.5148	0.0389	25.97	0.01	1.500			
