Ah_balance (normalized)	Ah_balance (mAh)	Voltage - fit (V)	Voltage -  interpolate (V)	dQ/dV (1/V)	Temperature (°C)	Temperature - diff (°C)	Current (C)	R_DC 0ms (mOhm)	R_DC 50ms (mOhm)	R_DC 50 ms PEC (mOhm)
0.1849	11836.25	3.9300	3.9298	-0.0834	25.75	-0.02	-1.500			
0.1852	11854.85	3.9270	3.9268	-0.1103	25.75	-0.02	-1.500			
0.1856	11878.81	3.9240	3.9239	-0.1371	25.75	-0.02	-1.500			
0.1861	11908.03	3.9210	3.9210	-0.1623	25.75	-0.02	-1.500			
0.1866	11941.62	3.9180	3.9179	-0.1868	25.75	-0.02	-1.500			
0.1872	11980.01	3.9150	3.9151	-0.2105	25.75	-0.02	-1.500			
0.1879	12023.38	3.9120	3.9120	-0.2342	25.75	-0.02	-1.500			
0.1886	12070.43	3.9090	3.9090	-0.2570	25.75	-0.02	-1.500			
0.1894	12122.17	3.9060	3.9060	-0.2791	25.75	-0.02	-1.500			
0.1903	12178.01	3.9030	3.9030	-0.3002	25.75	-0.02	-1.500			
0.1912	12238.06	3.9000	3.9000	-0.3203	25.75	-0.02	-1.500			
0.1922	12301.13	3.8970	3.8971	-0.3419	25.76	-0.01	-1.500			
0.1933	12369.07	3.8940	3.8940	-0.3617	25.76	-0.01	-1.500			
0.1944	12440.42	3.8910	3.8910	-0.3820	25.76	-0.01	-1.500			
0.1956	12515.52	3.8880	3.8879	-0.4025	25.76	-0.01	-1.500			
0.1968	12595.07	3.8850	3.8852	-0.4222	25.76	-0.01	-1.500			
0.1981	12678.12	3.8820	3.8820	-0.4417	25.76	-0.01	-1.500			
0.1995	12765.88	3.8790	3.8790	-0.4599	25.76	-0.01	-1.500			
0.2009	12855.57	3.8760	3.8760	-0.4752	25.77	-0.00	-1.500			
0.2023	12949.19	3.8730	3.8730	-0.4908	25.77	-0.00	-1.500			
0.2038	13044.40	3.8700	3.8700	-0.5033	25.77	-0.00	-1.500			
0.2053	13142.13	3.8670	3.8670	-0.5163	25.77	0.00	-1.500			
0.2069	13242.70	3.8640	3.8640	-0.5292	25.77	0.00	-1.500			
0.2085	13345.45	3.8610	3.8610	-0.5387	25.78	0.01	-1.500			
0.2102	13450.13	3.8580	3.8580	-0.5501	25.78	0.01	-1.500			
0.2118	13556.92	3.8550	3.8551	-0.5613	25.78	0.01	-1.500			
0.2135	13666.46	3.8520	3.8519	-0.5695	25.78	0.01	-1.500			
0.2153	13777.01	3.8490	3.8490	-0.5762	25.78	0.01	-1.500			
0.2170	13888.45	3.8460	3.8461	-0.5828	25.79	0.02	-1.500			
0.2188	14001.17	3.8430	3.8430	-0.5884	25.79	0.02	-1.500			
0.2206	14115.23	3.8400	3.8400	-0.5917	25.79	0.02	-1.500			
0.2223	14227.77	3.8370	3.8370	-0.5962	25.79	0.02	-1.500			
0.2241	14342.79	3.8340	3.8340	-0.6001	25.79	0.02	-1.500			
0.2259	14459.12	3.8310	3.8310	-0.6063	25.80	0.03	-1.500			
0.2277	14575.76	3.8280	3.8280	-0.6088	25.80	0.03	-1.500			
0.2296	14692.78	3.8250	3.8251	-0.6133	25.80	0.03	-1.500			
0.2314	14811.37	3.8220	3.8220	-0.6170	25.81	0.04	-1.500			
0.2333	14930.96	3.8190	3.8190	-0.6194	25.81	0.04	-1.500			
0.2351	15049.43	3.8160	3.8160	-0.6202	25.81	0.04	-1.500			
0.2370	15169.39	3.8130	3.8130	-0.6225	25.82	0.05	-1.500			
0.2389	15288.58	3.8100	3.8100	-0.6230	25.82	0.05	-1.500			
0.2408	15408.01	3.8070	3.8070	-0.6254	25.83	0.06	-1.500			
0.2426	15527.58	3.8040	3.8040	-0.6288	25.83	0.06	-1.500			
0.2445	15648.63	3.8010	3.8010	-0.6324	25.84	0.07	-1.500			
0.2464	15770.40	3.7980	3.7980	-0.6360	25.84	0.07	-1.500			
0.2483	15893.44	3.7950	3.7950	-0.6380	25.85	0.08	-1.500			
0.2503	16016.86	3.7920	3.7920	-0.6382	25.85	0.08	-1.500			
0.2522	16139.37	3.7890	3.7890	-0.6407	25.86	0.09	-1.500			
0.2541	16262.45	3.7860	3.7860	-0.6413	25.86	0.09	-1.500			
0.2560	16384.81	3.7830	3.7830	-0.6428	25.86	0.09	-1.500			
0.2579	16508.35	3.7800	3.7801	-0.6473	25.87	0.10	-1.500			
0.2599	16633.33	3.7770	3.7770	-0.6486	25.87	0.10	-1.500			
0.2619	16758.55	3.7740	3.7740	-0.6501	25.88	0.11	-1.500			
0.2638	16883.57	3.7710	3.7710	-0.6561	25.88	0.11	-1.500			
0.2658	17008.98	3.7680	3.7680	-0.6602	25.89	0.12	-1.500			
0.2678	17136.67	3.7650	3.7649	-0.6630	25.89	0.12	-1.500			
0.2698	17264.22	3.7620	3.7621	-0.6657	25.90	0.13	-1.500			
0.2718	17392.23	3.7590	3.7590	-0.6700	25.90	0.13	-1.500			
0.2738	17521.82	3.7560	3.7560	-0.6742	25.91	0.14	-1.500			
0.2758	17651.22	3.7530	3.7530	-0.6783	25.91	0.14	-1.500			
0.2778	17780.53	3.7500	3.7501	-0.6838	25.92	0.15	-1.500			
0.2799	17912.95	3.7470	3.7470	-0.6886	25.92	0.15	-1.500			
0.2820	18046.34	3.7440	3.7440	-0.6948	25.93	0.16	-1.500			
0.2841	18180.50	3.7410	3.7410	-0.6993	25.93	0.16	-1.500			
0.2862	18315.27	3.7380	3.7381	-0.7053	25.94	0.17	-1.500			
0.2883	18451.07	3.7350	3.7349	-0.7095	25.94	0.17	-1.500			
0.2904	18587.06	3.7320	3.7320	-0.7125	25.95	0.18	-1.500			
0.2926	18724.11	3.7290	3.7290	-0.7189	25.95	0.18	-1.500			
0.2947	18863.23	3.7260	3.7260	-0.7286	25.96	0.19	-1.500			
0.2969	19004.11	3.7230	3.7230	-0.7314	25.96	0.19	-1.500			
0.2991	19144.97	3.7200	3.7199	-0.7379	25.97	0.20	-1.500			
0.3014	19287.16	3.7170	3.7170	-0.7440	25.97	0.20	-1.500			
0.3036	19429.85	3.7140	3.7141	-0.7522	25.98	0.21	-1.500			
0.3059	19574.55	3.7110	3.7109	-0.7604	25.98	0.21	-1.500			
0.3082	19721.89	3.7080	3.7081	-0.7664	25.99	0.22	-1.500			
0.3105	19869.98	3.7050	3.7049	-0.7744	26.00	0.23	-1.500			
0.3128	20019.95	3.7020	3.7020	-0.7817	26.00	0.23	-1.500			
0.3152	20170.72	3.6990	3.6991	-0.7874	26.01	0.24	-1.500			
0.3175	20321.85	3.6960	3.6960	-0.7962	26.01	0.24	-1.500			
0.3199	20474.56	3.6930	3.6930	-0.8037	26.02	0.25	-1.500			
0.3224	20630.91	3.6900	3.6900	-0.8116	26.02	0.25	-1.500			
0.3248	20787.70	3.6870	3.6870	-0.8197	26.03	0.26	-1.500			
0.3273	20945.02	3.6840	3.6840	-0.8278	26.04	0.27	-1.500			
0.3298	21104.37	3.6810	3.6811	-0.8402	26.04	0.27	-1.500			
0.3323	21266.55	3.6780	3.6779	-0.8506	26.05	0.28	-1.500			
0.3349	21430.44	3.6750	3.6750	-0.8570	26.05	0.28	-1.500			
0.3375	21597.17	3.6720	3.6720	-0.8661	26.05	0.28	-1.500			
0.3401	21765.53	3.6690	3.6691	-0.8783	26.06	0.29	-1.500			
0.3427	21934.74	3.6660	3.6659	-0.8825	26.06	0.29	-1.500			
0.3454	22103.61	3.6630	3.6630	-0.8891	26.07	0.30	-1.500			
0.3480	22274.12	3.6600	3.6601	-0.9009	26.07	0.30	-1.500			
0.3508	22448.31	3.6570	3.6570	-0.9119	26.07	0.30	-1.500			
0.3535	22625.49	3.6540	3.6541	-0.9201	26.08	0.31	-1.500			
0.3563	22802.26	3.6510	3.6509	-0.9312	26.08	0.31	-1.500			
0.3591	22981.69	3.6480	3.6481	-0.9395	26.09	0.32	-1.500			
0.3619	23163.85	3.6450	3.6450	-0.9513	26.09	0.32	-1.500			
0.3648	23346.30	3.6420	3.6419	-0.9624	26.10	0.33	-1.500			
0.3677	23530.95	3.6390	3.6391	-0.9725	26.10	0.33	-1.500			
0.3706	23719.61	3.6360	3.6361	-0.9894	26.11	0.34	-1.500			
0.3736	23912.46	3.6330	3.6329	-1.0030	26.11	0.34	-1.500			
0.3766	24105.57	3.6300	3.6299	-1.0128	26.12	0.35	-1.500			
0.3797	24301.68	3.6270	3.6271	-1.0248	26.12	0.35	-1.500			
0.3828	24498.77	3.6240	3.6240	-1.0359	26.13	0.36	-1.500			
0.3859	24699.09	3.6210	3.6210	-1.0471	26.13	0.36	-1.500			
0.3891	24901.28	3.6180	3.6180	-1.0612	26.14	0.37	-1.500			
0.3923	25104.41	3.6150	3.6150	-1.0758	26.14	0.37	-1.500			
0.3955	25313.98	3.6120	3.6120	-1.0880	26.15	0.38	-1.500			
0.3988	25524.57	3.6090	3.6090	-1.1007	26.15	0.38	-1.500			
0.4021	25736.86	3.6060	3.6059	-1.1146	26.16	0.39	-1.500			
0.4055	25952.07	3.6030	3.6030	-1.1255	26.16	0.39	-1.500			
0.4089	26169.51	3.6000	3.5999	-1.1393	26.17	0.40	-1.500			
0.4123	26388.56	3.5970	3.5970	-1.1528	26.17	0.40	-1.500			
0.4158	26609.60	3.5940	3.5940	-1.1683	26.17	0.40	-1.500			
0.4193	26838.12	3.5910	3.5910	-1.1886	26.18	0.41	-1.500			
0.4229	27066.66	3.5880	3.5880	-1.2070	26.18	0.41	-1.500			
0.4266	27301.61	3.5850	3.5850	-1.2214	26.19	0.42	-1.500			
0.4303	27538.88	3.5820	3.5820	-1.2393	26.19	0.42	-1.500			
0.4340	27777.92	3.5790	3.5789	-1.2523	26.20	0.43	-1.500			
0.4378	28018.83	3.5760	3.5761	-1.2708	26.20	0.43	-1.500			
0.4416	28262.99	3.5730	3.5729	-1.2916	26.21	0.44	-1.500			
0.4455	28514.47	3.5700	3.5700	-1.3135	26.21	0.44	-1.500			
0.4495	28769.68	3.5670	3.5670	-1.3272	26.21	0.44	-1.500			
0.4536	29028.11	3.5640	3.5641	-1.3455	26.22	0.45	-1.500			
0.4576	29288.78	3.5610	3.5610	-1.3656	26.23	0.46	-1.500			
0.4618	29552.54	3.5580	3.5580	-1.3766	26.23	0.46	-1.500			
0.4659	29817.57	3.5550	3.5549	-1.3869	26.24	0.47	-1.500			
0.4700	30082.87	3.5520	3.5521	-1.4013	26.25	0.48	-1.500			
0.4743	30355.63	3.5490	3.5490	-1.4213	26.25	0.48	-1.500			
0.4786	30628.62	3.5460	3.5459	-1.4428	26.26	0.49	-1.500			
0.4829	30906.20	3.5430	3.5430	-1.4639	26.26	0.49	-1.500			
0.4873	31188.28	3.5400	3.5400	-1.4871	26.27	0.50	-1.500			
0.4919	31478.80	3.5370	3.5370	-1.5170	26.28	0.51	-1.500			
0.4965	31773.23	3.5340	3.5340	-1.5383	26.28	0.51	-1.500			
0.5011	32073.39	3.5310	3.5310	-1.5516	26.29	0.52	-1.500			
0.5058	32373.29	3.5280	3.5280	-1.5656	26.29	0.52	-1.500			
0.5106	32675.25	3.5250	3.5253	-1.5752	26.30	0.53	-1.500	0.367	0.541	
0.5153	32978.75	3.5220	3.5220	-1.5933	26.30	0.53	-1.500			
0.5201	33283.85	3.5190	3.5190	-1.6063	26.31	0.54	-1.500			
0.5249	33596.11	3.5160	3.5160	-1.6180	26.32	0.55	-1.500			
0.5298	33908.86	3.5130	3.5131	-1.6339	26.32	0.55	-1.500			
0.5348	34225.42	3.5100	3.5100	-1.6331	26.33	0.56	-1.500			
0.5397	34539.15	3.5070	3.5070	-1.6508	26.35	0.58	-1.500			
0.5446	34857.23	3.5040	3.5040	-1.6498	26.36	0.59	-1.500			
0.5496	35175.90	3.5010	3.5009	-1.6582	26.37	0.60	-1.500			
0.5546	35495.52	3.4980	3.4982	-1.6572	26.38	0.61	-1.500			
0.5596	35816.49	3.4950	3.4950	-1.6641	26.39	0.62	-1.500			
0.5646	36133.84	3.4920	3.4920	-1.6609	26.41	0.64	-1.500			
0.5696	36452.69	3.4890	3.4889	-1.6593	26.42	0.65	-1.500			
0.5745	36769.86	3.4860	3.4860	-1.6569	26.43	0.66	-1.500			
0.5795	37090.13	3.4830	3.4830	-1.6504	26.44	0.67	-1.500			
0.5845	37407.18	3.4800	3.4800	-1.6497	26.45	0.68	-1.500			
0.5895	37725.10	3.4770	3.4770	-1.6453	26.46	0.69	-1.500			
0.5944	38042.06	3.4740	3.4739	-1.6275	26.48	0.71	-1.500			
0.5993	38352.59	3.4710	3.4710	-1.6118	26.49	0.72	-1.500			
0.6041	38660.58	3.4680	3.4682	-1.5929	26.50	0.73	-1.500			
0.6088	38963.19	3.4650	3.4649	-1.5773	26.52	0.75	-1.500			
0.6135	39264.45	3.4620	3.4620	-1.5602	26.53	0.76	-1.500			
0.6181	39558.64	3.4590	3.4590	-1.5406	26.55	0.78	-1.500			
0.6228	39856.88	3.4560	3.4560	-1.5315	26.57	0.80	-1.500			
0.6273	40149.84	3.4530	3.4530	-1.5115	26.58	0.81	-1.500			
0.6318	40437.55	3.4500	3.4500	-1.4867	26.60	0.83	-1.500			
0.6363	40720.69	3.4470	3.4470	-1.4706	26.62	0.85	-1.500			
0.6406	40999.13	3.4440	3.4439	-1.4416	26.64	0.87	-1.500			
0.6449	41274.51	3.4410	3.4410	-1.4249	26.66	0.89	-1.500			
0.6492	41545.65	3.4380	3.4380	-1.4063	26.68	0.91	-1.500			
0.6534	41814.73	3.4350	3.4350	-1.3889	26.69	0.92	-1.500			
0.6575	42078.80	3.4320	3.4320	-1.3730	26.71	0.94	-1.500			
0.6616	42340.50	3.4290	3.4290	-1.3551	26.72	0.95	-1.500			
0.6656	42598.08	3.4260	3.4260	-1.3381	26.74	0.97	-1.500			
0.6696	42857.19	3.4230	3.4230	-1.3193	26.76	0.99	-1.500			
0.6736	43107.23	3.4200	3.4200	-1.2975	26.78	1.01	-1.500			
0.6774	43354.38	3.4170	3.4170	-1.2772	26.80	1.03	-1.500			
0.6812	43598.76	3.4140	3.4140	-1.2504	26.81	1.04	-1.500			
0.6849	43836.11	3.4110	3.4109	-1.2185	26.83	1.06	-1.500			
0.6886	44067.47	3.4080	3.4081	-1.1924	26.85	1.08	-1.500			
0.6921	44292.07	3.4050	3.4051	-1.1691	26.87	1.10	-1.500			
0.6956	44515.61	3.4020	3.4019	-1.1387	26.88	1.11	-1.500			
0.6989	44730.56	3.3990	3.3990	-1.1047	26.90	1.13	-1.500			
0.7022	44940.55	3.3960	3.3960	-1.0748	26.92	1.15	-1.500			
0.7054	45146.25	3.3930	3.3930	-1.0488	26.94	1.17	-1.500			
0.7085	45343.94	3.3900	3.3899	-1.0168	26.95	1.18	-1.500			
0.7115	45533.48	3.3870	3.3870	-0.9828	26.97	1.20	-1.500			
0.7144	45718.64	3.3840	3.3840	-0.9545	26.98	1.21	-1.500			
0.7172	45901.95	3.3810	3.3810	-0.9313	27.00	1.23	-1.500			
0.7200	46077.82	3.3780	3.3779	-0.9048	27.01	1.24	-1.500			
0.7226	46248.94	3.3750	3.3750	-0.8771	27.02	1.25	-1.500			
0.7252	46414.03	3.3720	3.3720	-0.8504	27.03	1.26	-1.500			
0.7277	46575.24	3.3690	3.3690	-0.8247	27.04	1.27	-1.500			
0.7302	46730.86	3.3660	3.3661	-0.8000	27.05	1.28	-1.500			
0.7325	46882.15	3.3630	3.3629	-0.7756	27.06	1.29	-1.500			
0.7348	47028.88	3.3600	3.3600	-0.7520	27.07	1.30	-1.500			
0.7370	47170.12	3.3570	3.3569	-0.7288	27.08	1.31	-1.500			
0.7392	47308.00	3.3540	3.3540	-0.7082	27.09	1.32	-1.500			
0.7413	47441.13	3.3510	3.3510	-0.6881	27.10	1.33	-1.500			
0.7433	47571.23	3.3480	3.3480	-0.6716	27.11	1.34	-1.500			
0.7453	47697.75	3.3450	3.3450	-0.6554	27.12	1.35	-1.500			
0.7472	47823.01	3.3420	3.3419	-0.6391	27.13	1.36	-1.500			
0.7491	47944.97	3.3390	3.3390	-0.6240	27.14	1.37	-1.500			
0.7510	48063.32	3.3360	3.3360	-0.6069	27.15	1.38	-1.500			
0.7528	48178.89	3.3330	3.3330	-0.5901	27.16	1.39	-1.500			
0.7545	48289.97	3.3300	3.3301	-0.5725	27.17	1.40	-1.500			
0.7562	48397.48	3.3270	3.3270	-0.5553	27.18	1.41	-1.500			
0.7579	48502.46	3.3240	3.3240	-0.5409	27.19	1.42	-1.500			
0.7594	48604.22	3.3210	3.3209	-0.5249	27.20	1.43	-1.500			
0.7610	48704.24	3.3180	3.3180	-0.5161	27.21	1.44	-1.500			
0.7625	48802.02	3.3150	3.3151	-0.5042	27.22	1.45	-1.500			
0.7640	48897.77	3.3120	3.3119	-0.4925	27.23	1.46	-1.500			
0.7655	48991.35	3.3090	3.3090	-0.4806	27.24	1.47	-1.500			
0.7669	49082.06	3.3060	3.3060	-0.4695	27.24	1.47	-1.500			
0.7683	49171.05	3.3030	3.3030	-0.4574	27.25	1.48	-1.500			
0.7697	49258.19	3.3000	3.3000	-0.4464	27.26	1.49	-1.500			
0.7710	49342.21	3.2970	3.2970	-0.4351	27.27	1.50	-1.500			
0.7723	49424.79	3.2940	3.2939	-0.4251	27.27	1.50	-1.500			
0.7735	49505.55	3.2910	3.2910	-0.4153	27.28	1.51	-1.500			
0.7748	49584.30	3.2880	3.2880	-0.4059	27.29	1.52	-1.500			
0.7760	49661.50	3.2850	3.2850	-0.3955	27.29	1.52	-1.500			
0.7771	49736.87	3.2820	3.2820	-0.3858	27.30	1.53	-1.500			
0.7783	49809.22	3.2790	3.2790	-0.3759	27.31	1.54	-1.500			
0.7794	49880.39	3.2760	3.2761	-0.3665	27.31	1.54	-1.500			
0.7805	49949.50	3.2730	3.2730	-0.3576	27.32	1.55	-1.500			
0.7815	50016.95	3.2700	3.2700	-0.3502	27.33	1.56	-1.500			
0.7826	50083.32	3.2670	3.2671	-0.3429	27.33	1.56	-1.500			
0.7836	50149.02	3.2640	3.2640	-0.3364	27.34	1.57	-1.500			
0.7846	50212.94	3.2610	3.2609	-0.3303	27.35	1.58	-1.500			
0.7856	50275.75	3.2580	3.2580	-0.3239	27.35	1.58	-1.500			
0.7865	50337.41	3.2550	3.2551	-0.3174	27.36	1.59	-1.500			
0.7875	50397.70	3.2520	3.2519	-0.3099	27.36	1.59	-1.500			
0.7884	50456.05	3.2490	3.2491	-0.3034	27.37	1.60	-1.500			
0.7893	50513.97	3.2460	3.2460	-0.2969	27.38	1.61	-1.500			
0.7902	50570.05	3.2430	3.2429	-0.2917	27.38	1.61	-1.500			
0.7910	50625.32	3.2400	3.2400	-0.2851	27.39	1.62	-1.500			
0.7919	50679.61	3.2370	3.2370	-0.2800	27.39	1.62	-1.500			
0.7927	50733.16	3.2340	3.2340	-0.2751	27.40	1.63	-1.500			
0.7935	50785.43	3.2310	3.2310	-0.2702	27.40	1.63	-1.500			
0.7943	50836.31	3.2280	3.2280	-0.2646	27.41	1.64	-1.500			
0.7951	50886.75	3.2250	3.2250	-0.2616	27.41	1.64	-1.500			
0.7959	50936.07	3.2220	3.2220	-0.2566	27.42	1.65	-1.500			
0.7966	50985.37	3.2190	3.2190	-0.2543	27.43	1.66	-1.500			
0.7974	51034.04	3.2160	3.2159	-0.2498	27.43	1.66	-1.500			
0.7981	51081.42	3.2130	3.2131	-0.2467	27.44	1.67	-1.500			
0.7989	51128.73	3.2100	3.2100	-0.2428	27.44	1.67	-1.500			
0.7996	51175.13	3.2070	3.2070	-0.2389	27.45	1.68	-1.500			
0.8003	51220.24	3.2040	3.2039	-0.2359	27.45	1.68	-1.500			
0.8010	51265.04	3.2010	3.2011	-0.2317	27.46	1.69	-1.500			
0.8017	51309.38	3.1980	3.1979	-0.2290	27.46	1.69	-1.500			
0.8024	51353.04	3.1950	3.1950	-0.2258	27.47	1.70	-1.500			
0.8031	51396.40	3.1920	3.1921	-0.2223	27.47	1.70	-1.500			
0.8037	51438.18	3.1890	3.1889	-0.2190	27.48	1.71	-1.500			
0.8044	51480.10	3.1860	3.1860	-0.2169	27.48	1.71	-1.500			
0.8050	51521.49	3.1830	3.1830	-0.2141	27.49	1.72	-1.500			
0.8057	51561.91	3.1800	3.1799	-0.2110	27.49	1.72	-1.500			
0.8063	51602.49	3.1770	3.1770	-0.2089	27.50	1.73	-1.500			
0.8069	51642.09	3.1740	3.1741	-0.2068	27.51	1.74	-1.500			
0.8075	51681.61	3.1710	3.1710	-0.2048	27.51	1.74	-1.500			
0.8081	51720.81	3.1680	3.1680	-0.2031	27.52	1.75	-1.500			
0.8087	51759.31	3.1650	3.1650	-0.2007	27.52	1.75	-1.500			
0.8093	51798.08	3.1620	3.1620	-0.1986	27.53	1.76	-1.500			
0.8099	51835.98	3.1590	3.1590	-0.1962	27.53	1.76	-1.500			
0.8105	51873.56	3.1560	3.1560	-0.1947	27.54	1.77	-1.500			
0.8111	51910.80	3.1530	3.1531	-0.1924	27.55	1.78	-1.500			
0.8117	51947.21	3.1500	3.1499	-0.1896	27.55	1.78	-1.500			
0.8122	51983.44	3.1470	3.1470	-0.1878	27.56	1.79	-1.500			
0.8128	52019.32	3.1440	3.1441	-0.1856	27.56	1.79	-1.500			
0.8134	52054.68	3.1410	3.1410	-0.1838	27.57	1.80	-1.500			
0.8139	52090.02	3.1380	3.1380	-0.1823	27.57	1.80	-1.500			
0.8144	52124.77	3.1350	3.1350	-0.1803	27.58	1.81	-1.500			
0.8150	52158.88	3.1320	3.1320	-0.1782	27.58	1.81	-1.500			
0.8155	52192.88	3.1290	3.1290	-0.1772	27.59	1.82	-1.500			
0.8160	52226.65	3.1260	3.1261	-0.1758	27.59	1.82	-1.500			
0.8166	52260.32	3.1230	3.1230	-0.1749	27.60	1.83	-1.500			
0.8171	52293.97	3.1200	3.1200	-0.1735	27.61	1.84	-1.500			
0.8176	52327.09	3.1170	3.1170	-0.1723	27.61	1.84	-1.500			
0.8181	52360.06	3.1140	3.1141	-0.1711	27.62	1.85	-1.500			
0.8186	52393.00	3.1110	3.1110	-0.1695	27.62	1.85	-1.500			
0.8191	52425.48	3.1080	3.1079	-0.1679	27.63	1.86	-1.500			
0.8196	52457.46	3.1050	3.1050	-0.1658	27.63	1.86	-1.500			
0.8201	52489.11	3.1020	3.1020	-0.1639	27.64	1.87	-1.500			
0.8206	52520.31	3.0990	3.0990	-0.1628	27.65	1.88	-1.500			
0.8211	52551.40	3.0960	3.0960	-0.1617	27.65	1.88	-1.500			
0.8216	52582.06	3.0930	3.0930	-0.1603	27.66	1.89	-1.500			
0.8221	52612.79	3.0900	3.0900	-0.1598	27.66	1.89	-1.500			
0.8226	52643.44	3.0870	3.0871	-0.1592	27.67	1.90	-1.500			
0.8230	52674.07	3.0840	3.0840	-0.1582	27.67	1.90	-1.500			
0.8235	52704.44	3.0810	3.0810	-0.1574	27.68	1.91	-1.500			
0.8240	52734.55	3.0780	3.0779	-0.1562	27.68	1.91	-1.500			
0.8244	52764.34	3.0750	3.0750	-0.1551	27.69	1.92	-1.500			
0.8249	52794.08	3.0720	3.0719	-0.1541	27.70	1.93	-1.500			
0.8254	52823.53	3.0690	3.0690	-0.1527	27.70	1.93	-1.500			
0.8258	52852.74	3.0660	3.0660	-0.1516	27.71	1.94	-1.500			
0.8263	52881.70	3.0630	3.0630	-0.1506	27.71	1.94	-1.500			
0.8267	52910.51	3.0600	3.0600	-0.1500	27.72	1.95	-1.500			
0.8272	52939.24	3.0570	3.0570	-0.1486	27.73	1.96	-1.500			
0.8276	52967.68	3.0540	3.0539	-0.1476	27.73	1.96	-1.500			
0.8281	52995.85	3.0510	3.0510	-0.1469	27.74	1.97	-1.500			
0.8285	53024.11	3.0480	3.0480	-0.1459	27.74	1.97	-1.500			
0.8289	53052.05	3.0450	3.0449	-0.1450	27.75	1.98	-1.500			
0.8294	53079.79	3.0420	3.0420	-0.1439	27.75	1.98	-1.500			
0.8298	53107.31	3.0390	3.0390	-0.1425	27.76	1.99	-1.500			
0.8302	53134.52	3.0360	3.0359	-0.1413	27.77	2.00	-1.500			
0.8306	53161.44	3.0330	3.0330	-0.1407	27.77	2.00	-1.500			
0.8311	53188.37	3.0300	3.0300	-0.1399	27.78	2.01	-1.500			
0.8315	53214.90	3.0270	3.0270	-0.1390	27.78	2.01	-1.500			
0.8319	53241.54	3.0240	3.0239	-0.1387	27.79	2.02	-1.500			
0.8323	53268.28	3.0210	3.0210	-0.1379	27.79	2.02	-1.500			
0.8327	53294.69	3.0180	3.0180	-0.1372	27.80	2.03	-1.500			
0.8331	53321.17	3.0150	3.0150	-0.1366	27.80	2.03	-1.500			
0.8336	53347.41	3.0120	3.0120	-0.1356	27.81	2.04	-1.500			
0.8340	53373.20	3.0090	3.0090	-0.1343	27.81	2.04	-1.500			
0.8344	53398.88	3.0060	3.0060	-0.1332	27.82	2.05	-1.500			
0.8348	53424.36	3.0030	3.0031	-0.1321	27.82	2.05	-1.500			
