Ah_balance (normalized)	Ah_balance (mAh)	Voltage - fit (V)	Voltage -  interpolate (V)	dQ/dV (1/V)	Temperature (°C)	Temperature - diff (°C)	Current (C)	R_DC 0ms (mOhm)	R_DC 50ms (mOhm)	R_DC 50 ms PEC (mOhm)
0.2934	18776.63	3.9710	3.9710	0.9096	26.92	0.96	1.500			
0.2961	18948.78	3.9680	3.9680	0.8926	26.91	0.95	1.500			
0.2987	19117.53	3.9650	3.9651	0.8883	26.91	0.95	1.500			
0.3014	19287.96	3.9620	3.9620	0.8935	26.91	0.95	1.500			
0.3041	19460.67	3.9590	3.9589	0.8894	26.91	0.95	1.500			
0.3067	19629.69	3.9560	3.9559	0.8938	26.91	0.95	1.500			
0.3094	19801.74	3.9530	3.9532	0.8973	26.90	0.94	1.500			
0.3121	19976.42	3.9500	3.9499	0.9021	26.90	0.94	1.500			
0.3148	20148.95	3.9470	3.9470	0.9040	26.90	0.94	1.500			
0.3175	20321.46	3.9440	3.9441	0.9055	26.90	0.94	1.500			
0.3203	20496.00	3.9410	3.9410	0.9186	26.89	0.93	1.500			
0.3230	20674.63	3.9380	3.9379	0.9260	26.89	0.93	1.500			
0.3258	20851.74	3.9350	3.9350	0.9279	26.89	0.93	1.500			
0.3287	21033.61	3.9320	3.9320	0.9264	26.89	0.93	1.500			
0.3314	21209.57	3.9290	3.9290	0.9342	26.89	0.93	1.500			
0.3342	21389.00	3.9260	3.9261	0.9360	26.88	0.92	1.500			
0.3370	21568.19	3.9230	3.9230	0.9447	26.88	0.92	1.500			
0.3398	21748.63	3.9200	3.9200	0.9488	26.88	0.92	1.500			
0.3427	21932.72	3.9170	3.9171	0.9605	26.88	0.92	1.500			
0.3456	22118.70	3.9140	3.9141	0.9713	26.87	0.91	1.500			
0.3485	22306.46	3.9110	3.9110	0.9801	26.87	0.91	1.500			
0.3515	22493.58	3.9080	3.9079	0.9830	26.87	0.91	1.500			
0.3544	22684.47	3.9050	3.9050	0.9922	26.87	0.91	1.500			
0.3574	22875.19	3.9020	3.9019	0.9965	26.87	0.91	1.500			
0.3605	23068.84	3.8990	3.8991	1.0041	26.86	0.90	1.500			
0.3635	23261.46	3.8960	3.8960	1.0097	26.86	0.90	1.500			
0.3665	23454.65	3.8930	3.8930	1.0161	26.86	0.90	1.500			
0.3695	23650.17	3.8900	3.8900	1.0253	26.85	0.89	1.500			
0.3726	23845.63	3.8870	3.8870	1.0433	26.85	0.89	1.500			
0.3758	24048.18	3.8840	3.8839	1.0568	26.84	0.88	1.500			
0.3790	24253.26	3.8810	3.8810	1.0702	26.84	0.88	1.500			
0.3822	24460.51	3.8780	3.8781	1.0838	26.83	0.87	1.500			
0.3855	24669.03	3.8750	3.8750	1.1026	26.83	0.87	1.500			
0.3888	24884.93	3.8720	3.8719	1.1085	26.82	0.86	1.500			
0.3921	25097.54	3.8690	3.8690	1.1175	26.81	0.85	1.500			
0.3955	25312.10	3.8660	3.8660	1.1252	26.81	0.85	1.500			
0.3989	25531.49	3.8630	3.8631	1.1394	26.80	0.84	1.500			
0.4023	25747.47	3.8600	3.8599	1.1475	26.80	0.84	1.500			
0.4058	25968.24	3.8570	3.8570	1.1630	26.79	0.83	1.500			
0.4092	26189.93	3.8540	3.8540	1.1837	26.79	0.83	1.500			
0.4129	26422.82	3.8510	3.8509	1.2137	26.78	0.82	1.500			
0.4165	26657.28	3.8480	3.8481	1.2346	26.78	0.82	1.500			
0.4203	26897.69	3.8450	3.8450	1.2630	26.77	0.81	1.500			
0.4242	27146.15	3.8420	3.8420	1.2805	26.76	0.80	1.500			
0.4280	27392.45	3.8390	3.8390	1.2968	26.76	0.80	1.500			
0.4319	27640.18	3.8360	3.8361	1.3201	26.75	0.79	1.500			
0.4358	27894.17	3.8330	3.8330	1.3414	26.74	0.78	1.500			
0.4399	28153.32	3.8300	3.8299	1.3684	26.74	0.78	1.500			
0.4440	28417.09	3.8270	3.8271	1.4016	26.73	0.77	1.500			
0.4483	28691.07	3.8240	3.8240	1.4283	26.72	0.76	1.500			
0.4527	28969.64	3.8210	3.8210	1.4648	26.71	0.75	1.500			
0.4571	29252.45	3.8180	3.8181	1.5013	26.70	0.74	1.500			
0.4616	29540.96	3.8150	3.8150	1.5337	26.69	0.73	1.500			
0.4663	29841.01	3.8120	3.8120	1.5763	26.69	0.73	1.500			
0.4711	30149.03	3.8090	3.8090	1.6018	26.68	0.72	1.500			
0.4759	30458.77	3.8060	3.8060	1.6372	26.67	0.71	1.500			
0.4809	30776.64	3.8030	3.8031	1.6763	26.66	0.70	1.500			
0.4859	31099.88	3.8000	3.8001	1.7221	26.65	0.69	1.500			
0.4911	31431.63	3.7970	3.7970	1.7679	26.63	0.67	1.500			
0.4965	31774.90	3.7940	3.7940	1.8358	26.62	0.66	1.500			
0.5020	32130.63	3.7910	3.7911	1.8871	26.61	0.65	1.500			
0.5078	32501.83	3.7880	3.7880	1.9495	26.59	0.63	1.500			
0.5137	32879.00	3.7850	3.7846	2.0047	26.58	0.62	1.500			
0.5198	33267.90	3.7820	3.7821	2.0701	26.57	0.61	1.500			
0.5261	33669.63	3.7790	3.7790	2.0990	26.55	0.59	1.500			
0.5325	34081.28	3.7760	3.7761	2.1635	26.54	0.58	1.500			
0.5389	34486.53	3.7730	3.7728	2.2100	26.52	0.56	1.500			
0.5457	34925.03	3.7700	3.7700	2.2272	26.50	0.54	1.500			
0.5524	35355.94	3.7670	3.7671	2.2733	26.48	0.52	1.500			
0.5594	35801.90	3.7640	3.7640	2.3392	26.46	0.50	1.500			
0.5665	36255.05	3.7610	3.7607	2.3693	26.44	0.48	1.500	0.354	0.452	
0.5737	36715.97	3.7580	3.7582	2.3546	26.43	0.47	1.500			
0.5810	37184.31	3.7550	3.7550	2.3711	26.41	0.45	1.500			
0.5878	37621.44	3.7520	3.7519	2.2690	26.39	0.43	1.500			
0.5947	38058.78	3.7490	3.7491	2.2319	26.37	0.41	1.500			
0.6012	38479.80	3.7460	3.7460	2.1915	26.36	0.40	1.500			
0.6077	38893.25	3.7430	3.7430	2.1519	26.34	0.38	1.500			
0.6141	39300.49	3.7400	3.7399	2.1249	26.32	0.36	1.500			
0.6206	39716.53	3.7370	3.7370	2.1269	26.31	0.35	1.500			
0.6268	40116.56	3.7340	3.7340	2.1524	26.30	0.34	1.500			
0.6333	40529.59	3.7310	3.7310	2.1551	26.29	0.33	1.500			
0.6398	40947.02	3.7280	3.7279	2.1986	26.28	0.32	1.500			
0.6465	41375.88	3.7250	3.7252	2.2264	26.27	0.31	1.500			
0.6533	41809.30	3.7220	3.7220	2.2706	26.26	0.30	1.500			
0.6600	42238.68	3.7190	3.7190	2.2748	26.25	0.29	1.500			
0.6669	42679.21	3.7160	3.7160	2.3476	26.24	0.28	1.500			
0.6740	43134.68	3.7130	3.7130	2.4465	26.22	0.26	1.500			
0.6814	43610.30	3.7100	3.7101	2.5789	26.21	0.25	1.500			
0.6894	44118.85	3.7070	3.7068	2.7130	26.20	0.24	1.500			
0.6977	44654.66	3.7040	3.7040	2.7820	26.19	0.23	1.500			
0.7064	45206.94	3.7010	3.7010	2.8504	26.17	0.21	1.500			
0.7150	45760.06	3.6980	3.6979	2.8929	26.16	0.20	1.500			
0.7238	46320.10	3.6950	3.6950	2.8411	26.15	0.19	1.500			
0.7324	46871.11	3.6920	3.6920	2.7087	26.15	0.19	1.500			
0.7403	47381.92	3.6890	3.6889	2.5482	26.14	0.18	1.500			
0.7477	47853.79	3.6860	3.6859	2.3236	26.13	0.17	1.500			
0.7543	48273.27	3.6830	3.6830	2.1173	26.12	0.16	1.500			
0.7602	48654.23	3.6800	3.6801	1.9285	26.11	0.15	1.500			
0.7657	49006.51	3.6770	3.6770	1.7779	26.10	0.14	1.500			
0.7708	49332.32	3.6740	3.6739	1.6704	26.10	0.14	1.500			
0.7755	49632.21	3.6710	3.6710	1.5626	26.10	0.14	1.500			
0.7800	49921.29	3.6680	3.6679	1.4729	26.09	0.13	1.500			
0.7843	50195.35	3.6650	3.6651	1.4025	26.09	0.13	1.500			
0.7884	50456.36	3.6620	3.6620	1.3407	26.09	0.13	1.500			
0.7922	50702.54	3.6590	3.6590	1.2934	26.08	0.12	1.500			
0.7960	50943.56	3.6560	3.6559	1.2565	26.08	0.12	1.500			
0.7996	51175.93	3.6530	3.6530	1.2333	26.07	0.11	1.500			
0.8032	51407.14	3.6500	3.6500	1.2369	26.06	0.10	1.500			
0.8069	51641.62	3.6470	3.6470	1.2436	26.05	0.09	1.500			
0.8107	51882.79	3.6440	3.6440	1.2607	26.05	0.09	1.500			
0.8145	52124.80	3.6410	3.6409	1.2754	26.04	0.08	1.500			
0.8183	52373.67	3.6380	3.6382	1.2879	26.03	0.07	1.500			
0.8223	52624.91	3.6350	3.6350	1.3029	26.03	0.07	1.500			
0.8262	52876.55	3.6320	3.6320	1.3035	26.02	0.06	1.500			
0.8301	53125.58	3.6290	3.6290	1.3075	26.01	0.05	1.500			
0.8340	53377.37	3.6260	3.6260	1.3079	26.01	0.05	1.500			
0.8379	53628.69	3.6230	3.6229	1.3098	26.00	0.04	1.500			
0.8419	53880.47	3.6200	3.6201	1.3063	26.00	0.04	1.500			
0.8458	54131.68	3.6170	3.6170	1.3079	25.99	0.03	1.500			
0.8498	54385.23	3.6140	3.6140	1.2987	25.98	0.02	1.500			
0.8537	54634.28	3.6110	3.6109	1.2926	25.98	0.02	1.500			
0.8575	54878.25	3.6080	3.6081	1.2849	25.97	0.01	1.500			
0.8613	55126.23	3.6050	3.6050	1.2831	25.96	0.00	1.500			
0.8652	55371.86	3.6020	3.6020	1.2717	25.96	-0.00	1.500			
0.8690	55615.76	3.5990	3.5990	1.2644	25.96	-0.00	1.500			
0.8728	55858.44	3.5960	3.5960	1.2458	25.95	-0.01	1.500			
0.8765	56098.29	3.5930	3.5930	1.2297	25.95	-0.01	1.500			
0.8802	56330.94	3.5900	3.5901	1.2116	25.95	-0.01	1.500			
0.8838	56560.66	3.5870	3.5869	1.1988	25.94	-0.02	1.500			
0.8873	56786.19	3.5840	3.5840	1.1945	25.94	-0.02	1.500			
0.8908	57013.77	3.5810	3.5810	1.1995	25.94	-0.02	1.500			
0.8944	57243.17	3.5780	3.5780	1.2051	25.94	-0.02	1.500			
0.8981	57479.93	3.5750	3.5749	1.2051	25.95	-0.01	1.500			
0.9019	57724.69	3.5720	3.5719	1.1642	25.95	-0.01	1.500			
0.9055	57952.59	3.5690	3.5691	1.0895	25.95	-0.01	1.500			
0.9089	58169.85	3.5660	3.5661	0.9815	25.96	-0.00	1.500			
0.9117	58348.66	3.5630	3.5631	0.8353	25.96	-0.00	1.500			
0.9139	58489.47	3.5600	3.5601	0.6886	25.96	0.00	1.500			
0.9156	58599.59	3.5570	3.5569	0.5511	25.96	0.00	1.500			
0.9169	58681.63	3.5540	3.5540	0.4356	25.96	0.00	1.500			
0.9180	58750.60	3.5510	3.5510	0.3582	25.96	0.00	1.500			
0.9189	58807.55	3.5480	3.5480	0.2883	25.96	0.00	1.500			
0.9196	58855.64	3.5450	3.5448	0.2480	25.96	0.00	1.500			
0.9202	58894.64	3.5420	3.5420	0.2121	25.97	0.01	1.500			
0.9208	58930.99	3.5390	3.5390	0.1866	25.97	0.01	1.500			
0.9213	58964.24	3.5360	3.5359	0.1652	25.97	0.01	1.500			
0.9218	58993.53	3.5330	3.5330	0.1473	25.97	0.01	1.500			
0.9222	59019.75	3.5300	3.5300	0.1286	25.97	0.01	1.500			
0.9225	59042.72	3.5270	3.5270	0.1114	25.97	0.01	1.500			
0.9229	59062.49	3.5240	3.5241	0.0945	25.97	0.01	1.500			
0.9231	59078.81	3.5210	3.5211	0.0778	25.97	0.01	1.500			
0.9233	59091.56	3.5180	3.5186	0.0631	25.97	0.01	1.500			
0.9235	59102.29	3.5150	3.5156	0.0487	25.97	0.01	1.500			
