Ah_balance (normalized)	Ah_balance (mAh)	Voltage - fit (V)	Voltage -  interpolate (V)	dQ/dV (1/V)	Temperature (°C)	Temperature - diff (°C)	Current (C)	R_DC 0ms (mOhm)	R_DC 50ms (mOhm)	R_DC 50 ms PEC (mOhm)
0.2045	13084.89	3.9080	3.9079	-0.1208	25.98	-0.02	-1.500			
0.2049	13111.07	3.9050	3.9050	-0.1552	25.98	-0.02	-1.500			
0.2054	13145.40	3.9020	3.9019	-0.1916	25.98	-0.02	-1.500			
0.2060	13185.81	3.8990	3.8990	-0.2249	25.98	-0.02	-1.500			
0.2068	13232.20	3.8960	3.8960	-0.2576	25.98	-0.02	-1.500			
0.2076	13284.82	3.8930	3.8931	-0.2927	25.99	-0.01	-1.500			
0.2085	13344.09	3.8900	3.8900	-0.3252	25.99	-0.01	-1.500			
0.2095	13409.91	3.8870	3.8869	-0.3586	25.99	-0.01	-1.500			
0.2107	13482.00	3.8840	3.8840	-0.3907	25.99	-0.01	-1.500			
0.2119	13560.63	3.8810	3.8810	-0.4268	25.99	-0.01	-1.500			
0.2132	13645.66	3.8780	3.8780	-0.4605	26.00	-0.00	-1.500			
0.2146	13737.49	3.8750	3.8749	-0.4942	26.00	-0.00	-1.500			
0.2162	13835.73	3.8720	3.8722	-0.5261	26.00	-0.00	-1.500			
0.2178	13939.99	3.8690	3.8690	-0.5612	26.00	0.00	-1.500			
0.2195	14050.98	3.8660	3.8660	-0.5937	26.01	0.01	-1.500			
0.2214	14168.33	3.8630	3.8630	-0.6256	26.01	0.01	-1.500			
0.2233	14292.67	3.8600	3.8599	-0.6565	26.01	0.01	-1.500			
0.2253	14421.71	3.8570	3.8570	-0.6816	26.01	0.01	-1.500			
0.2275	14556.96	3.8540	3.8540	-0.7061	26.02	0.02	-1.500			
0.2296	14695.49	3.8510	3.8510	-0.7256	26.02	0.02	-1.500			
0.2318	14836.70	3.8480	3.8480	-0.7412	26.02	0.02	-1.500			
0.2341	14981.30	3.8450	3.8450	-0.7564	26.03	0.03	-1.500			
0.2364	15128.95	3.8420	3.8421	-0.7653	26.03	0.03	-1.500			
0.2387	15276.61	3.8390	3.8390	-0.7774	26.04	0.04	-1.500			
0.2411	15427.47	3.8360	3.8360	-0.7874	26.04	0.04	-1.500			
0.2434	15578.78	3.8330	3.8329	-0.7987	26.05	0.05	-1.500			
0.2458	15733.12	3.8300	3.8301	-0.8056	26.05	0.05	-1.500			
0.2483	15888.99	3.8270	3.8270	-0.8122	26.06	0.06	-1.500			
0.2507	16047.17	3.8240	3.8240	-0.8198	26.07	0.07	-1.500			
0.2532	16205.39	3.8210	3.8210	-0.8232	26.08	0.08	-1.500			
0.2557	16361.87	3.8180	3.8179	-0.8280	26.09	0.09	-1.500			
0.2581	16521.12	3.8150	3.8150	-0.8367	26.09	0.09	-1.500			
0.2607	16682.46	3.8120	3.8120	-0.8412	26.10	0.10	-1.500			
0.2632	16846.73	3.8090	3.8090	-0.8447	26.11	0.11	-1.500			
0.2658	17009.88	3.8060	3.8060	-0.8420	26.12	0.12	-1.500			
0.2683	17170.77	3.8030	3.8030	-0.8488	26.13	0.13	-1.500			
0.2708	17333.86	3.8000	3.7999	-0.8471	26.13	0.13	-1.500			
0.2733	17494.13	3.7970	3.7970	-0.8470	26.14	0.14	-1.500			
0.2759	17657.25	3.7940	3.7940	-0.8512	26.15	0.15	-1.500			
0.2785	17822.87	3.7910	3.7911	-0.8581	26.16	0.16	-1.500			
0.2811	17988.52	3.7880	3.7880	-0.8602	26.17	0.17	-1.500			
0.2837	18154.78	3.7850	3.7850	-0.8613	26.18	0.18	-1.500			
0.2862	18318.50	3.7820	3.7820	-0.8584	26.18	0.18	-1.500			
0.2888	18484.15	3.7790	3.7790	-0.8623	26.19	0.19	-1.500			
0.2914	18648.87	3.7760	3.7761	-0.8637	26.20	0.20	-1.500			
0.2940	18815.60	3.7730	3.7729	-0.8639	26.21	0.21	-1.500			
0.2966	18980.60	3.7700	3.7701	-0.8660	26.22	0.22	-1.500			
0.2992	19146.55	3.7670	3.7671	-0.8718	26.23	0.23	-1.500			
0.3018	19316.88	3.7640	3.7639	-0.8746	26.24	0.24	-1.500			
0.3044	19484.65	3.7610	3.7609	-0.8720	26.25	0.25	-1.500			
0.3070	19649.78	3.7580	3.7581	-0.8758	26.26	0.26	-1.500			
0.3097	19818.73	3.7550	3.7551	-0.8772	26.27	0.27	-1.500			
0.3123	19988.90	3.7520	3.7518	-0.8828	26.28	0.28	-1.500			
0.3150	20157.29	3.7490	3.7490	-0.8817	26.29	0.29	-1.500			
0.3176	20326.10	3.7460	3.7461	-0.8833	26.29	0.29	-1.500			
0.3203	20497.22	3.7430	3.7430	-0.8894	26.30	0.30	-1.500			
0.3229	20668.78	3.7400	3.7399	-0.8868	26.31	0.31	-1.500			
0.3256	20837.28	3.7370	3.7370	-0.8861	26.32	0.32	-1.500			
0.3283	21009.35	3.7340	3.7340	-0.8865	26.33	0.33	-1.500			
0.3309	21179.01	3.7310	3.7310	-0.8894	26.34	0.34	-1.500			
0.3336	21350.84	3.7280	3.7279	-0.8881	26.35	0.35	-1.500			
0.3362	21519.88	3.7250	3.7250	-0.8886	26.36	0.36	-1.500			
0.3389	21690.30	3.7220	3.7220	-0.8907	26.37	0.37	-1.500			
0.3416	21863.12	3.7190	3.7191	-0.8920	26.38	0.38	-1.500			
0.3443	22033.92	3.7160	3.7159	-0.8897	26.39	0.39	-1.500			
0.3469	22203.25	3.7130	3.7131	-0.8979	26.40	0.40	-1.500			
0.3496	22374.87	3.7100	3.7101	-0.9005	26.41	0.41	-1.500			
0.3523	22549.27	3.7070	3.7069	-0.9056	26.42	0.42	-1.500			
0.3550	22722.90	3.7040	3.7039	-0.9082	26.42	0.42	-1.500			
0.3578	22897.01	3.7010	3.7012	-0.9191	26.43	0.43	-1.500			
0.3606	23075.86	3.6980	3.6979	-0.9221	26.44	0.44	-1.500			
0.3634	23254.52	3.6950	3.6950	-0.9245	26.45	0.45	-1.500			
0.3661	23430.98	3.6920	3.6922	-0.9263	26.46	0.46	-1.500			
0.3689	23608.49	3.6890	3.6890	-0.9365	26.47	0.47	-1.500			
0.3717	23789.02	3.6860	3.6860	-0.9428	26.48	0.48	-1.500			
0.3745	23968.29	3.6830	3.6830	-0.9516	26.49	0.49	-1.500			
0.3774	24152.13	3.6800	3.6800	-0.9671	26.50	0.50	-1.500			
0.3803	24338.87	3.6770	3.6770	-0.9895	26.51	0.51	-1.500			
0.3833	24530.61	3.6740	3.6741	-1.0022	26.51	0.51	-1.500			
0.3863	24724.21	3.6710	3.6709	-1.0159	26.52	0.52	-1.500			
0.3894	24921.15	3.6680	3.6679	-1.0307	26.53	0.53	-1.500			
0.3925	25121.02	3.6650	3.6650	-1.0470	26.54	0.54	-1.500			
0.3957	25322.40	3.6620	3.6620	-1.0615	26.55	0.55	-1.500			
0.3989	25526.42	3.6590	3.6590	-1.0815	26.55	0.55	-1.500			
0.4021	25733.74	3.6560	3.6560	-1.0967	26.55	0.55	-1.500			
0.4054	25948.28	3.6530	3.6530	-1.1310	26.56	0.56	-1.500			
0.4089	26167.16	3.6500	3.6500	-1.1558	26.56	0.56	-1.500			
0.4124	26392.27	3.6470	3.6470	-1.1821	26.57	0.57	-1.500			
0.4160	26622.31	3.6440	3.6441	-1.2107	26.57	0.57	-1.500			
0.4197	26857.83	3.6410	3.6410	-1.2331	26.58	0.58	-1.500			
0.4234	27095.38	3.6380	3.6380	-1.2580	26.58	0.58	-1.500			
0.4272	27338.23	3.6350	3.6350	-1.2975	26.59	0.59	-1.500			
0.4311	27589.90	3.6320	3.6319	-1.3204	26.59	0.59	-1.500			
0.4351	27847.07	3.6290	3.6290	-1.3583	26.60	0.60	-1.500			
0.4392	28110.99	3.6260	3.6260	-1.3931	26.61	0.61	-1.500			
0.4435	28383.47	3.6230	3.6230	-1.4228	26.61	0.61	-1.500			
0.4478	28660.61	3.6200	3.6199	-1.4572	26.61	0.61	-1.500			
0.4522	28942.39	3.6170	3.6170	-1.4809	26.61	0.61	-1.500			
0.4567	29227.07	3.6140	3.6140	-1.5106	26.60	0.60	-1.500			
0.4613	29523.44	3.6110	3.6110	-1.5474	26.60	0.60	-1.500			
0.4660	29822.21	3.6080	3.6080	-1.5690	26.60	0.60	-1.500			
0.4707	30126.04	3.6050	3.6050	-1.6057	26.60	0.60	-1.500			
0.4756	30436.71	3.6020	3.6021	-1.6503	26.60	0.60	-1.500			
0.4806	30755.28	3.5990	3.5989	-1.6901	26.61	0.61	-1.500			
0.4857	31086.28	3.5960	3.5960	-1.7208	26.61	0.61	-1.500			
0.4909	31419.84	3.5930	3.5931	-1.7528	26.61	0.61	-1.500			
0.4963	31761.16	3.5900	3.5901	-1.7854	26.61	0.61	-1.500			
0.5017	32111.70	3.5870	3.5869	-1.8073	26.61	0.61	-1.500			
0.5072	32459.36	3.5840	3.5840	-1.8167	26.61	0.61	-1.500			
0.5126	32805.77	3.5810	3.5811	-1.8449	26.61	0.61	-1.500			
0.5182	33162.61	3.5780	3.5780	-1.8745	26.61	0.61	-1.500			
0.5238	33526.31	3.5750	3.5749	-1.9112	26.61	0.61	-1.500			
0.5297	33898.36	3.5720	3.5720	-1.9269	26.60	0.60	-1.500			
0.5355	34270.72	3.5690	3.5690	-1.9526	26.60	0.60	-1.500			
0.5414	34649.74	3.5660	3.5662	-1.9777	26.60	0.60	-1.500			
0.5473	35028.09	3.5630	3.5630	-2.0134	26.60	0.60	-1.500			
0.5534	35414.77	3.5600	3.5599	-2.0317	26.60	0.60	-1.500			
0.5595	35809.20	3.5570	3.5570	-2.0519	26.60	0.60	-1.500			
0.5658	36210.08	3.5540	3.5542	-2.0860	26.60	0.60	-1.500			
0.5721	36617.45	3.5510	3.5509	-2.1059	26.60	0.60	-1.500	0.402	0.495	
0.5784	37019.75	3.5480	3.5479	-2.1054	26.60	0.60	-1.500			
0.5847	37419.91	3.5450	3.5450	-2.0985	26.60	0.60	-1.500			
0.5911	37828.34	3.5420	3.5421	-2.1345	26.60	0.60	-1.500			
0.5975	38242.73	3.5390	3.5389	-2.1573	26.61	0.61	-1.500			
0.6041	38660.88	3.5360	3.5359	-2.1488	26.61	0.61	-1.500			
0.6106	39076.06	3.5330	3.5330	-2.1419	26.62	0.62	-1.500			
0.6171	39491.36	3.5300	3.5302	-2.1299	26.62	0.62	-1.500			
0.6233	39893.79	3.5270	3.5268	-2.1164	26.63	0.63	-1.500			
0.6296	40293.23	3.5240	3.5240	-2.1113	26.63	0.63	-1.500			
0.6359	40696.87	3.5210	3.5209	-2.0896	26.64	0.64	-1.500			
0.6423	41107.32	3.5180	3.5182	-2.0946	26.64	0.64	-1.500			
0.6486	41512.42	3.5150	3.5151	-2.0688	26.65	0.65	-1.500			
0.6548	41904.78	3.5120	3.5120	-2.0279	26.66	0.66	-1.500			
0.6608	42290.03	3.5090	3.5090	-1.9883	26.66	0.66	-1.500			
0.6667	42669.24	3.5060	3.5062	-1.9585	26.67	0.67	-1.500			
0.6725	43039.13	3.5030	3.5030	-1.9349	26.68	0.68	-1.500			
0.6783	43408.85	3.5000	3.5000	-1.9086	26.69	0.69	-1.500			
0.6839	43769.94	3.4970	3.4970	-1.8729	26.71	0.71	-1.500			
0.6896	44131.39	3.4940	3.4940	-1.8691	26.72	0.72	-1.500			
0.6951	44488.35	3.4910	3.4910	-1.8422	26.73	0.73	-1.500			
0.7006	44841.00	3.4880	3.4880	-1.8141	26.74	0.74	-1.500			
0.7061	45187.50	3.4850	3.4850	-1.7856	26.74	0.74	-1.500			
0.7114	45526.65	3.4820	3.4820	-1.7545	26.75	0.75	-1.500			
0.7166	45861.09	3.4790	3.4791	-1.7357	26.76	0.76	-1.500			
0.7217	46190.24	3.4760	3.4760	-1.7083	26.78	0.78	-1.500			
0.7268	46515.77	3.4730	3.4729	-1.6827	26.79	0.79	-1.500			
0.7319	46838.70	3.4700	3.4700	-1.6611	26.81	0.81	-1.500			
0.7368	47155.66	3.4670	3.4670	-1.6334	26.83	0.83	-1.500			
0.7417	47465.85	3.4640	3.4641	-1.6052	26.84	0.84	-1.500			
0.7464	47771.73	3.4610	3.4609	-1.5783	26.86	0.86	-1.500			
0.7511	48070.89	3.4580	3.4580	-1.5548	26.87	0.87	-1.500			
0.7557	48366.32	3.4550	3.4550	-1.5318	26.89	0.89	-1.500			
0.7603	48659.70	3.4520	3.4519	-1.5215	26.90	0.90	-1.500			
0.7648	48948.65	3.4490	3.4490	-1.5016	26.92	0.92	-1.500			
0.7693	49234.93	3.4460	3.4459	-1.4856	26.93	0.93	-1.500			
0.7737	49518.98	3.4430	3.4430	-1.4625	26.95	0.95	-1.500			
0.7781	49798.51	3.4400	3.4400	-1.4472	26.96	0.96	-1.500			
0.7824	50073.02	3.4370	3.4370	-1.4351	26.98	0.98	-1.500			
0.7867	50348.04	3.4340	3.4340	-1.4284	26.99	0.99	-1.500			
0.7909	50619.66	3.4310	3.4311	-1.4207	27.01	1.01	-1.500			
0.7952	50891.70	3.4280	3.4279	-1.4173	27.02	1.02	-1.500			
0.7995	51164.96	3.4250	3.4250	-1.4111	27.04	1.04	-1.500			
0.8037	51438.89	3.4220	3.4220	-1.4033	27.05	1.05	-1.500			
0.8079	51706.76	3.4190	3.4190	-1.3802	27.06	1.06	-1.500			
0.8121	51972.94	3.4160	3.4160	-1.3579	27.08	1.08	-1.500			
0.8161	52232.92	3.4130	3.4132	-1.3266	27.09	1.09	-1.500			
0.8201	52486.10	3.4100	3.4100	-1.2917	27.10	1.10	-1.500			
0.8239	52731.79	3.4070	3.4070	-1.2472	27.12	1.12	-1.500			
0.8276	52967.91	3.4040	3.4040	-1.2058	27.13	1.13	-1.500			
0.8312	53196.62	3.4010	3.4010	-1.1660	27.14	1.14	-1.500			
0.8346	53415.46	3.3980	3.3980	-1.1141	27.16	1.16	-1.500			
0.8379	53624.95	3.3950	3.3949	-1.0670	27.17	1.17	-1.500			
0.8410	53824.63	3.3920	3.3922	-1.0218	27.18	1.18	-1.500			
0.8440	54015.99	3.3890	3.3890	-0.9772	27.19	1.19	-1.500			
0.8469	54199.08	3.3860	3.3859	-0.9339	27.20	1.20	-1.500			
0.8495	54370.83	3.3830	3.3831	-0.8909	27.21	1.21	-1.500			
0.8522	54538.96	3.3800	3.3800	-0.8610	27.22	1.22	-1.500			
0.8547	54700.30	3.3770	3.3770	-0.8249	27.22	1.22	-1.500			
0.8571	54854.41	3.3740	3.3740	-0.7937	27.23	1.23	-1.500			
0.8594	55003.86	3.3710	3.3710	-0.7643	27.24	1.24	-1.500			
0.8617	55148.00	3.3680	3.3681	-0.7397	27.25	1.25	-1.500			
0.8639	55288.34	3.3650	3.3650	-0.7125	27.25	1.25	-1.500			
0.8660	55421.02	3.3620	3.3621	-0.6847	27.26	1.26	-1.500			
0.8680	55550.23	3.3590	3.3590	-0.6627	27.27	1.27	-1.500			
0.8699	55674.32	3.3560	3.3560	-0.6401	27.27	1.27	-1.500			
0.8718	55794.29	3.3530	3.3530	-0.6171	27.28	1.28	-1.500			
0.8736	55911.40	3.3500	3.3499	-0.5951	27.28	1.28	-1.500			
0.8754	56023.22	3.3470	3.3471	-0.5739	27.29	1.29	-1.500			
0.8771	56131.86	3.3440	3.3440	-0.5565	27.29	1.29	-1.500			
0.8787	56236.08	3.3410	3.3410	-0.5369	27.30	1.30	-1.500			
0.8803	56337.29	3.3380	3.3379	-0.5205	27.31	1.31	-1.500			
0.8818	56434.76	3.3350	3.3350	-0.5030	27.31	1.31	-1.500			
0.8833	56530.21	3.3320	3.3321	-0.4879	27.31	1.31	-1.500			
0.8847	56623.01	3.3290	3.3289	-0.4732	27.32	1.32	-1.500			
0.8861	56711.86	3.3260	3.3260	-0.4551	27.32	1.32	-1.500			
0.8875	56796.97	3.3230	3.3230	-0.4395	27.33	1.33	-1.500			
0.8888	56880.12	3.3200	3.3199	-0.4237	27.33	1.33	-1.500			
0.8900	56959.84	3.3170	3.3170	-0.4084	27.34	1.34	-1.500			
0.8912	57037.12	3.3140	3.3141	-0.3933	27.34	1.34	-1.500			
0.8924	57110.99	3.3110	3.3109	-0.3786	27.34	1.34	-1.500			
0.8935	57181.87	3.3080	3.3081	-0.3653	27.35	1.35	-1.500			
0.8945	57249.68	3.3050	3.3050	-0.3533	27.35	1.35	-1.500			
0.8956	57316.90	3.3020	3.3019	-0.3406	27.36	1.36	-1.500			
0.8966	57381.19	3.2990	3.2989	-0.3297	27.36	1.36	-1.500			
0.8975	57442.92	3.2960	3.2960	-0.3181	27.37	1.37	-1.500			
0.8985	57502.97	3.2930	3.2930	-0.3086	27.37	1.37	-1.500			
0.8994	57560.98	3.2900	3.2899	-0.2978	27.37	1.37	-1.500			
0.9003	57617.18	3.2870	3.2870	-0.2873	27.38	1.38	-1.500			
0.9011	57671.02	3.2840	3.2839	-0.2768	27.38	1.38	-1.500			
0.9019	57723.88	3.2810	3.2811	-0.2696	27.38	1.38	-1.500			
0.9027	57773.89	3.2780	3.2780	-0.2590	27.39	1.39	-1.500			
0.9035	57822.71	3.2750	3.2749	-0.2510	27.39	1.39	-1.500			
0.9042	57869.76	3.2720	3.2720	-0.2422	27.39	1.39	-1.500			
0.9049	57915.85	3.2690	3.2691	-0.2356	27.40	1.40	-1.500			
0.9056	57960.48	3.2660	3.2660	-0.2281	27.40	1.40	-1.500			
0.9063	58003.66	3.2630	3.2630	-0.2211	27.40	1.40	-1.500			
0.9070	58045.34	3.2600	3.2601	-0.2134	27.40	1.40	-1.500			
0.9076	58085.20	3.2570	3.2570	-0.2066	27.41	1.41	-1.500			
0.9082	58124.06	3.2540	3.2539	-0.2007	27.41	1.41	-1.500			
0.9088	58161.89	3.2510	3.2510	-0.1943	27.41	1.41	-1.500			
0.9094	58198.67	3.2480	3.2480	-0.1888	27.41	1.41	-1.500			
0.9099	58234.33	3.2450	3.2450	-0.1833	27.42	1.42	-1.500			
0.9105	58269.01	3.2420	3.2421	-0.1785	27.42	1.42	-1.500			
0.9110	58302.60	3.2390	3.2390	-0.1735	27.42	1.42	-1.500			
0.9115	58335.46	3.2360	3.2360	-0.1688	27.42	1.42	-1.500			
0.9120	58367.29	3.2330	3.2330	-0.1639	27.42	1.42	-1.500			
0.9125	58398.03	3.2300	3.2300	-0.1599	27.43	1.43	-1.500			
0.9129	58428.40	3.2270	3.2270	-0.1563	27.43	1.43	-1.500			
0.9134	58458.06	3.2240	3.2241	-0.1526	27.43	1.43	-1.500			
0.9139	58486.98	3.2210	3.2209	-0.1488	27.43	1.43	-1.500			
0.9143	58514.90	3.2180	3.2182	-0.1456	27.43	1.43	-1.500			
0.9147	58542.48	3.2150	3.2149	-0.1425	27.44	1.44	-1.500			
0.9152	58569.71	3.2120	3.2121	-0.1391	27.44	1.44	-1.500			
0.9156	58596.09	3.2090	3.2089	-0.1365	27.44	1.44	-1.500			
0.9160	58621.78	3.2060	3.2060	-0.1332	27.45	1.45	-1.500			
0.9164	58647.17	3.2030	3.2031	-0.1304	27.45	1.45	-1.500			
0.9168	58672.03	3.2000	3.1999	-0.1278	27.45	1.45	-1.500			
0.9171	58696.32	3.1970	3.1970	-0.1251	27.46	1.46	-1.500			
0.9175	58719.81	3.1940	3.1941	-0.1219	27.46	1.46	-1.500			
0.9179	58742.97	3.1910	3.1911	-0.1196	27.46	1.46	-1.500			
0.9182	58765.93	3.1880	3.1880	-0.1175	27.47	1.47	-1.500			
0.9186	58788.15	3.1850	3.1849	-0.1153	27.47	1.47	-1.500			
0.9189	58809.77	3.1820	3.1820	-0.1127	27.47	1.47	-1.500			
0.9192	58831.13	3.1790	3.1790	-0.1113	27.47	1.47	-1.500			
0.9196	58852.24	3.1760	3.1760	-0.1096	27.48	1.48	-1.500			
0.9199	58873.16	3.1730	3.1730	-0.1079	27.48	1.48	-1.500			
0.9202	58893.68	3.1700	3.1700	-0.1063	27.48	1.48	-1.500			
0.9205	58913.99	3.1670	3.1671	-0.1044	27.48	1.48	-1.500			
0.9208	58933.94	3.1640	3.1640	-0.1027	27.49	1.49	-1.500			
0.9211	58953.38	3.1610	3.1611	-0.1014	27.49	1.49	-1.500			
0.9214	58972.73	3.1580	3.1579	-0.0999	27.49	1.49	-1.500			
0.9217	58991.77	3.1550	3.1549	-0.0983	27.49	1.49	-1.500			
0.9220	59010.31	3.1520	3.1520	-0.0966	27.49	1.49	-1.500			
0.9223	59028.73	3.1490	3.1491	-0.0952	27.50	1.50	-1.500			
0.9226	59046.92	3.1460	3.1460	-0.0938	27.50	1.50	-1.500			
0.9229	59064.79	3.1430	3.1430	-0.0924	27.50	1.50	-1.500			
0.9232	59082.50	3.1400	3.1400	-0.0911	27.50	1.50	-1.500			
0.9234	59099.84	3.1370	3.1368	-0.0895	27.50	1.50	-1.500			
0.9237	59116.75	3.1340	3.1341	-0.0879	27.51	1.51	-1.500			
0.9240	59133.40	3.1310	3.1310	-0.0870	27.51	1.51	-1.500			
0.9242	59150.00	3.1280	3.1281	-0.0859	27.51	1.51	-1.500			
0.9245	59166.31	3.1250	3.1249	-0.0853	27.51	1.51	-1.500			
0.9247	59182.42	3.1220	3.1219	-0.0843	27.51	1.51	-1.500			
0.9250	59198.65	3.1190	3.1191	-0.0833	27.52	1.52	-1.500			
0.9252	59214.57	3.1160	3.1160	-0.0825	27.52	1.52	-1.500			
0.9255	59230.33	3.1130	3.1131	-0.0817	27.52	1.52	-1.500			
0.9257	59246.15	3.1100	3.1100	-0.0809	27.52	1.52	-1.500			
0.9260	59261.58	3.1070	3.1070	-0.0797	27.52	1.52	-1.500			
0.9262	59276.76	3.1040	3.1039	-0.0785	27.53	1.53	-1.500			
0.9264	59291.67	3.1010	3.1011	-0.0777	27.53	1.53	-1.500			
0.9267	59306.36	3.0980	3.0981	-0.0765	27.53	1.53	-1.500			
0.9269	59320.94	3.0950	3.0951	-0.0758	27.53	1.53	-1.500			
0.9271	59335.42	3.0920	3.0920	-0.0750	27.53	1.53	-1.500			
0.9273	59349.71	3.0890	3.0890	-0.0742	27.53	1.53	-1.500			
0.9276	59363.87	3.0860	3.0860	-0.0736	27.54	1.54	-1.500			
0.9278	59377.89	3.0830	3.0830	-0.0728	27.54	1.54	-1.500			
0.9280	59391.82	3.0800	3.0800	-0.0722	27.54	1.54	-1.500			
0.9282	59405.63	3.0770	3.0770	-0.0716	27.54	1.54	-1.500			
0.9284	59419.32	3.0740	3.0741	-0.0710	27.54	1.54	-1.500			
0.9286	59432.84	3.0710	3.0710	-0.0704	27.54	1.54	-1.500			
0.9288	59446.31	3.0680	3.0680	-0.0698	27.55	1.55	-1.500			
0.9291	59459.62	3.0650	3.0650	-0.0692	27.55	1.55	-1.500			
0.9293	59472.91	3.0620	3.0620	-0.0686	27.55	1.55	-1.500			
0.9295	59486.03	3.0590	3.0589	-0.0680	27.55	1.55	-1.500			
0.9297	59499.02	3.0560	3.0559	-0.0673	27.55	1.55	-1.500			
0.9299	59511.84	3.0530	3.0531	-0.0669	27.55	1.55	-1.500			
0.9301	59524.62	3.0500	3.0501	-0.0663	27.55	1.55	-1.500			
0.9303	59537.30	3.0470	3.0469	-0.0658	27.56	1.56	-1.500			
0.9305	59549.88	3.0440	3.0439	-0.0652	27.56	1.56	-1.500			
0.9307	59562.30	3.0410	3.0411	-0.0647	27.56	1.56	-1.500			
0.9309	59574.67	3.0380	3.0381	-0.0642	27.56	1.56	-1.500			
0.9310	59586.98	3.0350	3.0351	-0.0638	27.56	1.56	-1.500			
0.9312	59599.19	3.0320	3.0319	-0.0633	27.56	1.56	-1.500			
0.9314	59611.30	3.0290	3.0290	-0.0628	27.56	1.56	-1.500			
0.9316	59623.33	3.0260	3.0260	-0.0622	27.57	1.57	-1.500			
0.9318	59635.22	3.0230	3.0230	-0.0616	27.57	1.57	-1.500			
0.9320	59647.00	3.0200	3.0200	-0.0611	27.57	1.57	-1.500			
0.9322	59658.76	3.0170	3.0172	-0.0606	27.57	1.57	-1.500			
0.9323	59670.33	3.0140	3.0139	-0.0600	27.57	1.57	-1.500			
0.9325	59681.78	3.0110	3.0109	-0.0593	27.57	1.57	-1.500			
0.9327	59693.05	3.0080	3.0080	-0.0587	27.57	1.57	-1.500			
0.9329	59704.26	3.0050	3.0051	-0.0581	27.58	1.58	-1.500			
0.9331	59715.37	3.0020	3.0020	-0.0576	27.58	1.58	-1.500			
