Ah_balance (normalized)	Ah_balance (mAh)	Voltage - fit (V)	Voltage -  interpolate (V)	dQ/dV (1/V)	Temperature (°C)	Temperature - diff (°C)	Current (C)	R_DC 0ms (mOhm)	R_DC 50ms (mOhm)	R_DC 50 ms PEC (mOhm)
0.2907	18607.71	3.9700	3.9700	0.9205	27.15	1.19	1.500			
0.2934	18780.67	3.9670	3.9671	0.8976	27.15	1.19	1.500			
0.2961	18951.85	3.9640	3.9641	0.8940	27.15	1.19	1.500			
0.2988	19122.92	3.9610	3.9610	0.8938	27.15	1.19	1.500			
0.3015	19293.03	3.9580	3.9580	0.8953	27.14	1.18	1.500			
0.3042	19466.04	3.9550	3.9550	0.8964	27.14	1.18	1.500			
0.3068	19637.67	3.9520	3.9520	0.9053	27.14	1.18	1.500			
0.3096	19811.58	3.9490	3.9490	0.9104	27.14	1.18	1.500			
0.3123	19986.79	3.9460	3.9461	0.9154	27.13	1.17	1.500			
0.3150	20163.10	3.9430	3.9429	0.9183	27.13	1.17	1.500			
0.3178	20340.17	3.9400	3.9397	0.9237	27.13	1.17	1.500			
0.3206	20517.24	3.9370	3.9372	0.9269	27.13	1.17	1.500			
0.3234	20695.51	3.9340	3.9339	0.9361	27.13	1.17	1.500			
0.3262	20875.44	3.9310	3.9310	0.9406	27.12	1.16	1.500			
0.3290	21056.78	3.9280	3.9279	0.9449	27.12	1.16	1.500			
0.3319	21242.50	3.9250	3.9250	0.9523	27.12	1.16	1.500			
0.3348	21425.39	3.9220	3.9221	0.9605	27.12	1.16	1.500			
0.3376	21609.32	3.9190	3.9190	0.9658	27.11	1.15	1.500			
0.3406	21795.56	3.9160	3.9160	0.9679	27.11	1.15	1.500			
0.3434	21979.27	3.9130	3.9130	0.9734	27.11	1.15	1.500			
0.3464	22167.63	3.9100	3.9101	0.9839	27.10	1.14	1.500			
0.3493	22357.39	3.9070	3.9069	0.9946	27.10	1.14	1.500			
0.3523	22549.75	3.9040	3.9040	1.0021	27.09	1.13	1.500			
0.3553	22742.14	3.9010	3.9011	1.0070	27.09	1.13	1.500			
0.3584	22937.62	3.8980	3.8980	1.0191	27.09	1.13	1.500			
0.3615	23134.97	3.8950	3.8949	1.0278	27.08	1.12	1.500			
0.3645	23330.72	3.8920	3.8920	1.0343	27.08	1.12	1.500			
0.3677	23530.92	3.8890	3.8890	1.0468	27.07	1.11	1.500			
0.3708	23732.39	3.8860	3.8860	1.0607	27.07	1.11	1.500			
0.3740	23938.29	3.8830	3.8830	1.0741	27.06	1.10	1.500			
0.3773	24145.82	3.8800	3.8800	1.0854	27.06	1.10	1.500			
0.3806	24358.07	3.8770	3.8769	1.0909	27.05	1.09	1.500			
0.3839	24567.25	3.8740	3.8740	1.1050	27.05	1.09	1.500			
0.3872	24778.64	3.8710	3.8710	1.1150	27.05	1.09	1.500			
0.3905	24993.53	3.8680	3.8681	1.1278	27.04	1.08	1.500			
0.3939	25209.61	3.8650	3.8651	1.1425	27.04	1.08	1.500			
0.3974	25431.14	3.8620	3.8621	1.1633	27.03	1.07	1.500			
0.4009	25656.56	3.8590	3.8590	1.1839	27.03	1.07	1.500			
0.4045	25887.60	3.8560	3.8560	1.1981	27.02	1.06	1.500			
0.4081	26118.42	3.8530	3.8531	1.2128	27.02	1.06	1.500			
0.4117	26351.63	3.8500	3.8500	1.2373	27.01	1.05	1.500			
0.4155	26589.19	3.8470	3.8471	1.2617	27.00	1.04	1.500			
0.4193	26834.41	3.8440	3.8439	1.2826	27.00	1.04	1.500			
0.4232	27083.02	3.8410	3.8410	1.3097	26.99	1.03	1.500			
0.4272	27340.49	3.8380	3.8381	1.3296	26.98	1.02	1.500			
0.4312	27598.25	3.8350	3.8350	1.3541	26.97	1.01	1.500			
0.4353	27858.69	3.8320	3.8320	1.3737	26.97	1.01	1.500			
0.4394	28123.61	3.8290	3.8291	1.3992	26.96	1.00	1.500			
0.4436	28392.30	3.8260	3.8260	1.4254	26.95	0.99	1.500			
0.4479	28668.76	3.8230	3.8230	1.4667	26.94	0.98	1.500			
0.4524	28953.17	3.8200	3.8200	1.4987	26.93	0.97	1.500			
0.4569	29244.78	3.8170	3.8170	1.5385	26.92	0.96	1.500			
0.4616	29543.67	3.8140	3.8140	1.5743	26.91	0.95	1.500			
0.4664	29851.10	3.8110	3.8110	1.6128	26.89	0.93	1.500			
0.4713	30161.94	3.8080	3.8080	1.6574	26.88	0.92	1.500			
0.4763	30486.24	3.8050	3.8050	1.6865	26.87	0.91	1.500			
0.4814	30809.97	3.8020	3.8020	1.7468	26.86	0.90	1.500			
0.4867	31151.24	3.7990	3.7990	1.8044	26.84	0.88	1.500			
0.4922	31501.05	3.7960	3.7958	1.8546	26.83	0.87	1.500			
0.4979	31866.02	3.7930	3.7931	1.8985	26.82	0.86	1.500			
0.5037	32236.40	3.7900	3.7900	1.9617	26.80	0.84	1.500			
0.5096	32615.42	3.7870	3.7871	2.0328	26.78	0.82	1.500			
0.5158	33008.17	3.7840	3.7839	2.0819	26.77	0.81	1.500			
0.5221	33414.91	3.7810	3.7811	2.1515	26.75	0.79	1.500			
0.5287	33835.40	3.7780	3.7781	2.2021	26.73	0.77	1.500			
0.5354	34266.52	3.7750	3.7750	2.2627	26.71	0.75	1.500			
0.5422	34701.34	3.7720	3.7719	2.3042	26.69	0.73	1.500			
0.5492	35150.45	3.7690	3.7690	2.3509	26.67	0.71	1.500			
0.5564	35608.00	3.7660	3.7660	2.4166	26.65	0.69	1.500			
0.5637	36078.28	3.7630	3.7630	2.4497	26.62	0.66	1.500			
0.5712	36558.22	3.7600	3.7597	2.4733	26.60	0.64	1.500	0.369	0.451	
0.5787	37036.60	3.7570	3.7571	2.4831	26.58	0.62	1.500			
0.5863	37523.09	3.7540	3.7539	2.4490	26.56	0.60	1.500			
0.5935	37982.42	3.7510	3.7510	2.3811	26.54	0.58	1.500			
0.6006	38439.80	3.7480	3.7480	2.3186	26.52	0.56	1.500			
0.6073	38869.51	3.7450	3.7450	2.2687	26.49	0.53	1.500			
0.6141	39301.44	3.7420	3.7420	2.2462	26.47	0.51	1.500			
0.6208	39732.48	3.7390	3.7390	2.2450	26.45	0.49	1.500			
0.6275	40162.78	3.7360	3.7360	2.2044	26.44	0.48	1.500			
0.6342	40586.18	3.7330	3.7330	2.2321	26.42	0.46	1.500			
0.6408	41009.33	3.7300	3.7299	2.2297	26.41	0.45	1.500			
0.6475	41439.64	3.7270	3.7270	2.2545	26.39	0.43	1.500			
0.6543	41873.93	3.7240	3.7240	2.2870	26.37	0.41	1.500			
0.6612	42314.30	3.7210	3.7210	2.3172	26.36	0.40	1.500			
0.6682	42765.64	3.7180	3.7180	2.3925	26.34	0.38	1.500			
0.6754	43227.94	3.7150	3.7150	2.4565	26.33	0.37	1.500			
0.6829	43704.39	3.7120	3.7120	2.5616	26.32	0.36	1.500			
0.6907	44202.01	3.7090	3.7090	2.6767	26.30	0.34	1.500			
0.6989	44732.55	3.7060	3.7060	2.7720	26.29	0.33	1.500			
0.7075	45280.72	3.7030	3.7030	2.8876	26.28	0.32	1.500			
0.7164	45849.05	3.7000	3.6999	2.9604	26.26	0.30	1.500			
0.7254	46427.50	3.6970	3.6969	2.9827	26.24	0.28	1.500			
0.7346	47013.80	3.6940	3.6940	2.9157	26.22	0.26	1.500			
0.7433	47572.21	3.6910	3.6909	2.7943	26.20	0.24	1.500			
0.7514	48089.33	3.6880	3.6880	2.5351	26.19	0.23	1.500			
0.7585	48545.32	3.6850	3.6851	2.3204	26.19	0.23	1.500			
0.7652	48969.75	3.6820	3.6820	2.1143	26.18	0.22	1.500			
0.7712	49356.45	3.6790	3.6790	1.9489	26.17	0.21	1.500			
0.7768	49712.20	3.6760	3.6761	1.7901	26.17	0.21	1.500			
0.7818	50035.77	3.6730	3.6730	1.6616	26.16	0.20	1.500			
0.7866	50340.44	3.6700	3.6700	1.5497	26.15	0.19	1.500			
0.7909	50616.49	3.6670	3.6669	1.4545	26.14	0.18	1.500			
0.7951	50886.32	3.6640	3.6640	1.3825	26.14	0.18	1.500			
0.7991	51141.95	3.6610	3.6610	1.3301	26.13	0.17	1.500			
0.8030	51391.24	3.6580	3.6580	1.2865	26.12	0.16	1.500			
0.8067	51631.98	3.6550	3.6550	1.2539	26.12	0.16	1.500			
0.8104	51864.53	3.6520	3.6520	1.2416	26.11	0.15	1.500			
0.8140	52097.67	3.6490	3.6491	1.2355	26.11	0.15	1.500			
0.8177	52332.94	3.6460	3.6459	1.2453	26.10	0.14	1.500			
0.8214	52572.31	3.6430	3.6430	1.2631	26.09	0.13	1.500			
0.8253	52816.44	3.6400	3.6401	1.2781	26.09	0.13	1.500			
0.8292	53068.85	3.6370	3.6370	1.2889	26.08	0.12	1.500			
0.8331	53317.89	3.6340	3.6340	1.2980	26.08	0.12	1.500			
0.8370	53567.09	3.6310	3.6311	1.3036	26.07	0.11	1.500			
0.8409	53817.08	3.6280	3.6280	1.3083	26.06	0.10	1.500			
0.8448	54068.66	3.6250	3.6251	1.3110	26.06	0.10	1.500			
0.8488	54320.05	3.6220	3.6220	1.3127	26.05	0.09	1.500			
0.8528	54576.29	3.6190	3.6190	1.3077	26.04	0.08	1.500			
0.8567	54831.01	3.6160	3.6160	1.3081	26.03	0.07	1.500			
0.8606	55077.20	3.6130	3.6130	1.3026	26.02	0.06	1.500			
0.8645	55325.34	3.6100	3.6101	1.2990	26.02	0.06	1.500			
0.8683	55573.78	3.6070	3.6068	1.2913	26.01	0.05	1.500			
0.8722	55822.33	3.6040	3.6040	1.2865	26.00	0.04	1.500			
0.8761	56071.91	3.6010	3.6011	1.2795	26.00	0.04	1.500			
0.8800	56319.58	3.5980	3.5980	1.2655	26.00	0.04	1.500			
0.8838	56561.27	3.5950	3.5950	1.2455	25.99	0.03	1.500			
0.8874	56796.29	3.5920	3.5920	1.2308	25.99	0.03	1.500			
0.8911	57029.20	3.5890	3.5890	1.2161	25.98	0.02	1.500			
0.8947	57260.94	3.5860	3.5860	1.2104	25.98	0.02	1.500			
0.8983	57488.73	3.5830	3.5830	1.2147	25.98	0.02	1.500			
0.9019	57720.18	3.5800	3.5801	1.2286	25.97	0.01	1.500			
0.9056	57961.29	3.5770	3.5769	1.2317	25.97	0.01	1.500			
0.9094	58202.44	3.5740	3.5739	1.2183	25.97	0.01	1.500			
0.9133	58451.53	3.5710	3.5709	1.1622	25.96	0.00	1.500			
0.9169	58679.13	3.5680	3.5681	1.0681	25.96	0.00	1.500			
0.9201	58886.20	3.5650	3.5651	0.9389	25.96	-0.00	1.500			
0.9227	59051.14	3.5620	3.5622	0.7762	25.96	-0.00	1.500			
0.9246	59173.88	3.5590	3.5591	0.6245	25.95	-0.01	1.500			
0.9261	59271.37	3.5560	3.5560	0.5036	25.95	-0.01	1.500			
0.9273	59348.22	3.5530	3.5529	0.3835	25.95	-0.01	1.500			
0.9283	59408.61	3.5500	3.5499	0.3157	25.95	-0.01	1.500			
0.9290	59457.79	3.5470	3.5470	0.2614	25.95	-0.01	1.500			
0.9297	59500.27	3.5440	3.5440	0.2238	25.95	-0.01	1.500			
0.9303	59537.31	3.5410	3.5409	0.1883	25.95	-0.01	1.500			
0.9308	59569.40	3.5380	3.5381	0.1649	25.95	-0.01	1.500			
0.9312	59598.34	3.5350	3.5350	0.1415	25.95	-0.01	1.500			
0.9316	59623.11	3.5320	3.5320	0.1203	25.95	-0.01	1.500			
0.9319	59644.33	3.5290	3.5290	0.1008	25.95	-0.01	1.500			
0.9322	59661.32	3.5260	3.5261	0.0818	25.95	-0.01	1.500			
0.9324	59675.22	3.5230	3.5234	0.0635	25.95	-0.01	1.500			
0.9326	59685.64	3.5200	3.5206	0.0451	25.95	-0.01	1.500			
