Ah_balance (normalized)	Ah_balance (mAh)	Voltage - fit (V)	Voltage -  interpolate (V)	dQ/dV (1/V)	Temperature (°C)	Temperature - diff (°C)	Current (C)	R_DC 0ms (mOhm)	R_DC 50ms (mOhm)	R_DC 50 ms PEC (mOhm)
0.1989	12732.45	3.9130	3.9128	-0.1162	25.88	-0.02	-1.500			
0.1994	12758.40	3.9100	3.9098	-0.1491	25.88	-0.02	-1.500			
0.1998	12789.97	3.9070	3.9070	-0.1797	25.88	-0.02	-1.500			
0.2004	12828.11	3.9040	3.9040	-0.2077	25.88	-0.02	-1.500			
0.2011	12870.88	3.9010	3.9010	-0.2350	25.88	-0.02	-1.500			
0.2019	12918.78	3.8980	3.8980	-0.2647	25.88	-0.02	-1.500			
0.2027	12972.11	3.8950	3.8950	-0.2913	25.89	-0.01	-1.500			
0.2036	13030.97	3.8920	3.8920	-0.3181	25.89	-0.01	-1.500			
0.2046	13094.62	3.8890	3.8890	-0.3450	25.89	-0.01	-1.500			
0.2057	13163.66	3.8860	3.8861	-0.3722	25.89	-0.01	-1.500			
0.2068	13237.94	3.8830	3.8830	-0.3999	25.89	-0.01	-1.500			
0.2081	13317.07	3.8800	3.8799	-0.4263	25.89	-0.01	-1.500			
0.2094	13401.42	3.8770	3.8770	-0.4514	25.89	-0.01	-1.500			
0.2108	13491.34	3.8740	3.8739	-0.4769	25.89	-0.01	-1.500			
0.2123	13586.07	3.8710	3.8710	-0.4983	25.89	-0.01	-1.500			
0.2138	13684.09	3.8680	3.8680	-0.5199	25.89	-0.01	-1.500			
0.2154	13785.57	3.8650	3.8650	-0.5403	25.90	-0.00	-1.500			
0.2170	13890.94	3.8620	3.8620	-0.5599	25.90	-0.00	-1.500			
0.2188	14000.76	3.8590	3.8589	-0.5781	25.90	-0.00	-1.500			
0.2205	14113.73	3.8560	3.8560	-0.5976	25.90	-0.00	-1.500			
0.2224	14231.30	3.8530	3.8530	-0.6110	25.90	0.00	-1.500			
0.2243	14352.00	3.8500	3.8500	-0.6253	25.90	0.00	-1.500			
0.2261	14472.13	3.8470	3.8470	-0.6352	25.90	0.00	-1.500			
0.2280	14594.47	3.8440	3.8440	-0.6459	25.91	0.01	-1.500			
0.2300	14719.72	3.8410	3.8410	-0.6536	25.91	0.01	-1.500			
0.2320	14846.03	3.8380	3.8380	-0.6640	25.91	0.01	-1.500			
0.2340	14974.72	3.8350	3.8351	-0.6711	25.91	0.01	-1.500			
0.2360	15105.30	3.8320	3.8319	-0.6796	25.91	0.01	-1.500			
0.2381	15236.82	3.8290	3.8290	-0.6847	25.91	0.01	-1.500			
0.2401	15367.98	3.8260	3.8260	-0.6900	25.92	0.02	-1.500			
0.2422	15501.16	3.8230	3.8230	-0.6933	25.92	0.02	-1.500			
0.2443	15635.67	3.8200	3.8199	-0.6965	25.92	0.02	-1.500			
0.2464	15769.08	3.8170	3.8170	-0.6964	25.92	0.02	-1.500			
0.2485	15903.37	3.8140	3.8140	-0.6986	25.92	0.02	-1.500			
0.2506	16037.59	3.8110	3.8110	-0.7006	25.93	0.03	-1.500			
0.2527	16172.18	3.8080	3.8080	-0.7023	25.93	0.03	-1.500			
0.2548	16306.52	3.8050	3.8050	-0.7034	25.93	0.03	-1.500			
0.2569	16442.74	3.8020	3.8020	-0.7058	25.94	0.04	-1.500			
0.2591	16579.20	3.7990	3.7990	-0.7055	25.94	0.04	-1.500			
0.2612	16714.70	3.7960	3.7961	-0.7030	25.94	0.04	-1.500			
0.2633	16848.73	3.7930	3.7930	-0.7041	25.95	0.05	-1.500			
0.2654	16983.07	3.7900	3.7900	-0.7067	25.95	0.05	-1.500			
0.2675	17118.86	3.7870	3.7869	-0.7069	25.95	0.05	-1.500			
0.2696	17255.26	3.7840	3.7839	-0.7073	25.96	0.06	-1.500			
0.2718	17392.45	3.7810	3.7811	-0.7085	25.96	0.06	-1.500			
0.2739	17528.43	3.7780	3.7780	-0.7098	25.97	0.07	-1.500			
0.2760	17664.77	3.7750	3.7750	-0.7103	25.97	0.07	-1.500			
0.2781	17799.88	3.7720	3.7720	-0.7077	25.98	0.08	-1.500			
0.2803	17936.38	3.7690	3.7690	-0.7095	25.99	0.09	-1.500			
0.2824	18073.53	3.7660	3.7660	-0.7145	25.99	0.09	-1.500			
0.2845	18210.91	3.7630	3.7631	-0.7149	26.00	0.10	-1.500			
0.2867	18349.44	3.7600	3.7599	-0.7135	26.00	0.10	-1.500			
0.2888	18485.58	3.7570	3.7570	-0.7124	26.01	0.11	-1.500			
0.2910	18622.06	3.7540	3.7540	-0.7119	26.02	0.12	-1.500			
0.2931	18758.37	3.7510	3.7510	-0.7138	26.02	0.12	-1.500			
0.2952	18895.70	3.7480	3.7480	-0.7148	26.03	0.13	-1.500			
0.2974	19032.06	3.7450	3.7450	-0.7173	26.03	0.13	-1.500			
0.2995	19170.64	3.7420	3.7420	-0.7229	26.04	0.14	-1.500			
0.3017	19310.65	3.7390	3.7390	-0.7246	26.04	0.14	-1.500			
0.3039	19449.71	3.7360	3.7360	-0.7237	26.05	0.15	-1.500			
0.3061	19589.17	3.7330	3.7331	-0.7292	26.05	0.15	-1.500			
0.3083	19728.83	3.7300	3.7300	-0.7334	26.05	0.15	-1.500			
0.3105	19869.88	3.7270	3.7270	-0.7373	26.06	0.16	-1.500			
0.3127	20010.29	3.7240	3.7240	-0.7468	26.06	0.16	-1.500			
0.3149	20155.94	3.7210	3.7210	-0.7495	26.07	0.17	-1.500			
0.3172	20301.18	3.7180	3.7179	-0.7555	26.07	0.17	-1.500			
0.3195	20445.68	3.7150	3.7150	-0.7652	26.08	0.18	-1.500			
0.3218	20592.56	3.7120	3.7120	-0.7702	26.08	0.18	-1.500			
0.3241	20741.08	3.7090	3.7089	-0.7774	26.09	0.19	-1.500			
0.3264	20892.19	3.7060	3.7060	-0.7828	26.09	0.19	-1.500			
0.3288	21041.93	3.7030	3.7031	-0.7881	26.10	0.20	-1.500			
0.3312	21196.62	3.7000	3.6999	-0.7972	26.10	0.20	-1.500			
0.3336	21347.42	3.6970	3.6971	-0.8061	26.11	0.21	-1.500			
0.3360	21501.94	3.6940	3.6940	-0.8160	26.12	0.22	-1.500			
0.3384	21660.43	3.6910	3.6910	-0.8297	26.12	0.22	-1.500			
0.3410	21821.12	3.6880	3.6880	-0.8420	26.13	0.23	-1.500			
0.3435	21985.07	3.6850	3.6851	-0.8562	26.13	0.23	-1.500			
0.3461	22149.76	3.6820	3.6821	-0.8677	26.14	0.24	-1.500			
0.3487	22319.00	3.6790	3.6789	-0.8783	26.14	0.24	-1.500			
0.3513	22486.15	3.6760	3.6760	-0.8895	26.15	0.25	-1.500			
0.3540	22659.07	3.6730	3.6730	-0.9006	26.15	0.25	-1.500			
0.3568	22833.41	3.6700	3.6700	-0.9176	26.16	0.26	-1.500			
0.3595	23011.02	3.6670	3.6670	-0.9260	26.16	0.26	-1.500			
0.3623	23189.36	3.6640	3.6641	-0.9429	26.17	0.27	-1.500			
0.3652	23371.10	3.6610	3.6610	-0.9604	26.17	0.27	-1.500			
0.3681	23558.12	3.6580	3.6579	-0.9793	26.18	0.28	-1.500			
0.3710	23747.13	3.6550	3.6551	-0.9932	26.18	0.28	-1.500			
0.3741	23940.21	3.6520	3.6520	-1.0150	26.18	0.28	-1.500			
0.3771	24135.54	3.6490	3.6490	-1.0321	26.19	0.29	-1.500			
0.3803	24336.77	3.6460	3.6460	-1.0524	26.19	0.29	-1.500			
0.3834	24539.35	3.6430	3.6429	-1.0734	26.19	0.29	-1.500			
0.3867	24747.07	3.6400	3.6401	-1.0909	26.19	0.29	-1.500			
0.3900	24959.70	3.6370	3.6369	-1.1131	26.20	0.30	-1.500			
0.3934	25175.82	3.6340	3.6340	-1.1296	26.20	0.30	-1.500			
0.3968	25393.21	3.6310	3.6310	-1.1509	26.20	0.30	-1.500			
0.4003	25616.13	3.6280	3.6280	-1.1732	26.20	0.30	-1.500			
0.4038	25844.07	3.6250	3.6250	-1.1958	26.20	0.30	-1.500			
0.4074	26075.93	3.6220	3.6220	-1.2143	26.20	0.30	-1.500			
0.4111	26312.31	3.6190	3.6190	-1.2387	26.21	0.31	-1.500			
0.4149	26551.68	3.6160	3.6161	-1.2577	26.21	0.31	-1.500			
0.4187	26794.61	3.6130	3.6130	-1.2826	26.21	0.31	-1.500			
0.4225	27042.09	3.6100	3.6100	-1.3010	26.21	0.31	-1.500			
0.4265	27294.28	3.6070	3.6070	-1.3235	26.21	0.31	-1.500			
0.4305	27550.13	3.6040	3.6040	-1.3479	26.21	0.31	-1.500			
0.4346	27811.87	3.6010	3.6011	-1.3687	26.22	0.32	-1.500			
0.4387	28078.72	3.5980	3.5980	-1.3889	26.22	0.32	-1.500			
0.4429	28346.36	3.5950	3.5950	-1.4081	26.22	0.32	-1.500			
0.4472	28618.54	3.5920	3.5920	-1.4243	26.22	0.32	-1.500			
0.4515	28894.37	3.5890	3.5890	-1.4458	26.22	0.32	-1.500			
0.4558	29172.90	3.5860	3.5860	-1.4703	26.22	0.32	-1.500			
0.4603	29457.01	3.5830	3.5830	-1.4910	26.22	0.32	-1.500			
0.4648	29746.10	3.5800	3.5799	-1.5158	26.22	0.32	-1.500			
0.4694	30039.12	3.5770	3.5771	-1.5426	26.22	0.32	-1.500			
0.4740	30337.64	3.5740	3.5739	-1.5651	26.22	0.32	-1.500			
0.4788	30640.40	3.5710	3.5710	-1.5948	26.23	0.33	-1.500			
0.4836	30951.17	3.5680	3.5680	-1.6034	26.23	0.33	-1.500			
0.4884	31260.46	3.5650	3.5650	-1.6206	26.23	0.33	-1.500			
0.4934	31575.96	3.5620	3.5620	-1.6405	26.24	0.34	-1.500			
0.4983	31891.27	3.5590	3.5590	-1.6506	26.24	0.34	-1.500			
0.5032	32205.73	3.5560	3.5559	-1.6677	26.24	0.34	-1.500			
0.5083	32529.28	3.5530	3.5530	-1.6871	26.24	0.34	-1.500			
0.5133	32854.30	3.5500	3.5500	-1.7062	26.25	0.35	-1.500			
0.5186	33188.96	3.5470	3.5470	-1.7240	26.25	0.35	-1.500			
0.5237	33517.51	3.5440	3.5441	-1.7393	26.25	0.35	-1.500			
0.5289	33851.35	3.5410	3.5410	-1.7692	26.26	0.36	-1.500			
0.5343	34196.51	3.5380	3.5378	-1.7619	26.27	0.37	-1.500			
0.5396	34535.36	3.5350	3.5351	-1.7603	26.27	0.37	-1.500	0.377	0.515	
0.5449	34875.32	3.5320	3.5322	-1.7601	26.28	0.38	-1.500			
0.5502	35215.22	3.5290	3.5289	-1.7569	26.28	0.38	-1.500			
0.5554	35548.11	3.5260	3.5259	-1.7627	26.29	0.39	-1.500			
0.5607	35885.92	3.5230	3.5230	-1.7675	26.29	0.39	-1.500			
0.5661	36230.31	3.5200	3.5199	-1.7955	26.30	0.40	-1.500			
0.5715	36575.34	3.5170	3.5172	-1.7895	26.30	0.40	-1.500			
0.5769	36919.46	3.5140	3.5140	-1.7874	26.31	0.41	-1.500			
0.5822	37263.68	3.5110	3.5110	-1.7882	26.32	0.42	-1.500			
0.5875	37601.45	3.5080	3.5080	-1.7817	26.33	0.43	-1.500			
0.5929	37948.79	3.5050	3.5049	-1.7948	26.34	0.44	-1.500			
0.5983	38293.86	3.5020	3.5020	-1.7837	26.34	0.44	-1.500			
0.6037	38634.03	3.4990	3.4991	-1.7868	26.35	0.45	-1.500			
0.6091	38981.19	3.4960	3.4960	-1.7827	26.36	0.46	-1.500			
0.6144	39321.53	3.4930	3.4929	-1.7675	26.37	0.47	-1.500			
0.6197	39659.06	3.4900	3.4901	-1.7611	26.38	0.48	-1.500			
0.6250	39997.60	3.4870	3.4870	-1.7556	26.39	0.49	-1.500			
0.6303	40336.15	3.4840	3.4839	-1.7598	26.40	0.50	-1.500			
0.6355	40670.43	3.4810	3.4810	-1.7467	26.42	0.52	-1.500			
0.6408	41008.79	3.4780	3.4779	-1.7333	26.43	0.53	-1.500			
0.6460	41343.53	3.4750	3.4751	-1.7131	26.44	0.54	-1.500			
0.6511	41669.19	3.4720	3.4720	-1.6866	26.45	0.55	-1.500			
0.6561	41990.28	3.4690	3.4690	-1.6682	26.46	0.56	-1.500			
0.6610	42305.60	3.4660	3.4660	-1.6388	26.48	0.58	-1.500			
0.6659	42619.32	3.4630	3.4629	-1.6201	26.49	0.59	-1.500			
0.6708	42928.20	3.4600	3.4603	-1.5990	26.50	0.60	-1.500			
0.6755	43235.09	3.4570	3.4569	-1.5828	26.52	0.62	-1.500			
0.6803	43536.70	3.4540	3.4540	-1.5591	26.53	0.63	-1.500			
0.6849	43833.27	3.4510	3.4510	-1.5273	26.55	0.65	-1.500			
0.6895	44126.88	3.4480	3.4480	-1.5100	26.56	0.66	-1.500			
0.6940	44413.16	3.4450	3.4451	-1.4847	26.57	0.67	-1.500			
0.6984	44694.52	3.4420	3.4420	-1.4607	26.59	0.69	-1.500			
0.7027	44970.78	3.4390	3.4389	-1.4430	26.60	0.70	-1.500			
0.7069	45244.55	3.4360	3.4361	-1.4300	26.62	0.72	-1.500			
0.7112	45520.00	3.4330	3.4329	-1.4207	26.64	0.74	-1.500			
0.7155	45791.15	3.4300	3.4300	-1.4089	26.65	0.75	-1.500			
0.7197	46061.48	3.4270	3.4271	-1.3940	26.67	0.77	-1.500			
0.7239	46328.10	3.4240	3.4240	-1.3771	26.68	0.78	-1.500			
0.7280	46591.52	3.4210	3.4209	-1.3610	26.70	0.80	-1.500			
0.7320	46849.87	3.4180	3.4181	-1.3485	26.72	0.82	-1.500			
0.7360	47107.19	3.4150	3.4150	-1.3282	26.73	0.83	-1.500			
0.7401	47364.69	3.4120	3.4119	-1.3111	26.75	0.85	-1.500			
0.7440	47614.98	3.4090	3.4090	-1.2797	26.77	0.87	-1.500			
0.7478	47859.68	3.4060	3.4060	-1.2539	26.77	0.87	-1.500			
0.7515	48096.70	3.4030	3.4030	-1.2176	26.79	0.89	-1.500			
0.7551	48326.86	3.4000	3.4000	-1.1773	26.81	0.91	-1.500			
0.7586	48548.87	3.3970	3.3970	-1.1401	26.82	0.92	-1.500			
0.7620	48765.35	3.3940	3.3939	-1.1053	26.84	0.94	-1.500			
0.7652	48975.69	3.3910	3.3911	-1.0631	26.86	0.96	-1.500			
0.7684	49175.61	3.3880	3.3879	-1.0203	26.87	0.97	-1.500			
0.7713	49366.33	3.3850	3.3851	-0.9807	26.88	0.98	-1.500			
0.7742	49550.95	3.3820	3.3819	-0.9438	26.89	0.99	-1.500			
0.7770	49725.99	3.3790	3.3790	-0.9104	26.91	1.01	-1.500			
0.7796	49896.07	3.3760	3.3760	-0.8751	26.92	1.02	-1.500			
0.7822	50063.43	3.3730	3.3730	-0.8481	26.93	1.03	-1.500			
0.7847	50222.95	3.3700	3.3700	-0.8165	26.94	1.04	-1.500			
0.7871	50375.52	3.3670	3.3670	-0.7847	26.95	1.05	-1.500			
0.7894	50523.03	3.3640	3.3640	-0.7545	26.96	1.06	-1.500			
0.7916	50663.49	3.3610	3.3610	-0.7306	26.96	1.06	-1.500			
0.7938	50801.23	3.3580	3.3579	-0.7059	26.97	1.07	-1.500			
0.7959	50934.92	3.3550	3.3552	-0.6826	26.98	1.08	-1.500			
0.7979	51063.47	3.3520	3.3520	-0.6588	26.99	1.09	-1.500			
0.7998	51187.22	3.3490	3.3491	-0.6379	27.00	1.10	-1.500			
0.8017	51307.88	3.3460	3.3459	-0.6181	27.01	1.11	-1.500			
0.8035	51423.54	3.3430	3.3430	-0.5975	27.01	1.11	-1.500			
0.8052	51535.03	3.3400	3.3400	-0.5797	27.02	1.12	-1.500			
0.8070	51645.50	3.3370	3.3370	-0.5653	27.03	1.13	-1.500			
0.8086	51752.63	3.3340	3.3339	-0.5489	27.04	1.14	-1.500			
0.8103	51856.15	3.3310	3.3310	-0.5308	27.05	1.15	-1.500			
0.8118	51956.37	3.3280	3.3280	-0.5133	27.05	1.15	-1.500			
0.8133	52053.45	3.3250	3.3251	-0.4994	27.06	1.16	-1.500			
0.8148	52147.45	3.3220	3.3220	-0.4856	27.07	1.17	-1.500			
0.8162	52238.27	3.3190	3.3189	-0.4701	27.07	1.17	-1.500			
0.8176	52327.95	3.3160	3.3160	-0.4584	27.08	1.18	-1.500			
0.8190	52414.69	3.3130	3.3130	-0.4455	27.08	1.18	-1.500			
0.8203	52499.09	3.3100	3.3101	-0.4337	27.09	1.19	-1.500			
0.8216	52580.84	3.3070	3.3070	-0.4212	27.09	1.19	-1.500			
0.8228	52660.16	3.3040	3.3040	-0.4073	27.10	1.20	-1.500			
0.8240	52737.16	3.3010	3.3010	-0.3952	27.11	1.21	-1.500			
0.8252	52812.00	3.2980	3.2980	-0.3853	27.11	1.21	-1.500			
0.8263	52884.59	3.2950	3.2950	-0.3761	27.12	1.22	-1.500			
0.8274	52955.55	3.2920	3.2920	-0.3662	27.13	1.23	-1.500			
0.8285	53024.93	3.2890	3.2890	-0.3564	27.13	1.23	-1.500			
0.8296	53092.71	3.2860	3.2860	-0.3473	27.14	1.24	-1.500			
0.8306	53158.72	3.2830	3.2829	-0.3399	27.14	1.24	-1.500			
0.8316	53223.03	3.2800	3.2800	-0.3308	27.15	1.25	-1.500			
0.8326	53285.58	3.2770	3.2770	-0.3218	27.16	1.26	-1.500			
0.8335	53345.90	3.2740	3.2740	-0.3146	27.16	1.26	-1.500			
0.8345	53405.89	3.2710	3.2710	-0.3089	27.17	1.27	-1.500			
0.8354	53464.37	3.2680	3.2679	-0.3022	27.17	1.27	-1.500			
0.8363	53521.63	3.2650	3.2650	-0.2952	27.18	1.28	-1.500			
0.8372	53577.61	3.2620	3.2621	-0.2883	27.18	1.28	-1.500			
0.8380	53632.55	3.2590	3.2589	-0.2830	27.19	1.29	-1.500			
0.8388	53686.36	3.2560	3.2560	-0.2767	27.19	1.29	-1.500			
0.8397	53738.60	3.2530	3.2530	-0.2699	27.19	1.29	-1.500			
0.8405	53789.75	3.2500	3.2500	-0.2648	27.20	1.30	-1.500			
0.8412	53839.97	3.2470	3.2471	-0.2611	27.20	1.30	-1.500			
0.8420	53889.59	3.2440	3.2439	-0.2558	27.20	1.30	-1.500			
0.8428	53938.27	3.2410	3.2410	-0.2509	27.21	1.31	-1.500			
0.8435	53986.13	3.2380	3.2380	-0.2464	27.21	1.31	-1.500			
0.8443	54032.97	3.2350	3.2351	-0.2419	27.21	1.31	-1.500			
0.8450	54078.94	3.2320	3.2319	-0.2381	27.22	1.32	-1.500			
0.8457	54124.19	3.2290	3.2290	-0.2325	27.22	1.32	-1.500			
0.8464	54168.39	3.2260	3.2259	-0.2279	27.22	1.32	-1.500			
0.8471	54211.26	3.2230	3.2231	-0.2243	27.23	1.33	-1.500			
0.8477	54254.02	3.2200	3.2201	-0.2220	27.24	1.34	-1.500			
0.8484	54296.11	3.2170	3.2170	-0.2186	27.24	1.34	-1.500			
0.8490	54337.84	3.2140	3.2139	-0.2161	27.25	1.35	-1.500			
0.8497	54378.90	3.2110	3.2110	-0.2132	27.25	1.35	-1.500			
0.8503	54419.89	3.2080	3.2081	-0.2098	27.26	1.36	-1.500			
0.8509	54460.28	3.2050	3.2050	-0.2079	27.26	1.36	-1.500			
0.8516	54499.80	3.2020	3.2020	-0.2038	27.27	1.37	-1.500			
0.8522	54538.35	3.1990	3.1990	-0.2002	27.27	1.37	-1.500			
0.8528	54576.11	3.1960	3.1959	-0.1971	27.28	1.38	-1.500			
0.8533	54613.45	3.1930	3.1930	-0.1945	27.28	1.38	-1.500			
0.8539	54650.62	3.1900	3.1900	-0.1926	27.29	1.39	-1.500			
0.8545	54687.23	3.1870	3.1870	-0.1906	27.29	1.39	-1.500			
0.8551	54723.82	3.1840	3.1840	-0.1891	27.29	1.39	-1.500			
0.8556	54759.80	3.1810	3.1810	-0.1870	27.30	1.40	-1.500			
0.8562	54795.57	3.1780	3.1781	-0.1855	27.30	1.40	-1.500			
0.8567	54831.17	3.1750	3.1750	-0.1836	27.31	1.41	-1.500			
0.8573	54866.26	3.1720	3.1720	-0.1815	27.31	1.41	-1.500			
0.8578	54900.82	3.1690	3.1692	-0.1797	27.32	1.42	-1.500			
0.8584	54935.15	3.1660	3.1659	-0.1779	27.32	1.42	-1.500			
0.8589	54969.10	3.1630	3.1630	-0.1763	27.33	1.43	-1.500			
0.8594	55002.74	3.1600	3.1600	-0.1744	27.33	1.43	-1.500			
0.8599	55036.09	3.1570	3.1570	-0.1726	27.34	1.44	-1.500			
0.8605	55069.06	3.1540	3.1540	-0.1709	27.34	1.44	-1.500			
0.8610	55101.81	3.1510	3.1510	-0.1693	27.34	1.44	-1.500			
0.8615	55134.01	3.1480	3.1479	-0.1680	27.35	1.45	-1.500			
0.8620	55166.04	3.1450	3.1451	-0.1661	27.35	1.45	-1.500			
0.8625	55197.81	3.1420	3.1419	-0.1649	27.36	1.46	-1.500			
0.8630	55229.26	3.1390	3.1390	-0.1637	27.36	1.46	-1.500			
0.8634	55260.72	3.1360	3.1361	-0.1623	27.37	1.47	-1.500			
0.8639	55291.69	3.1330	3.1330	-0.1613	27.37	1.47	-1.500			
0.8644	55322.53	3.1300	3.1299	-0.1600	27.38	1.48	-1.500			
0.8649	55353.20	3.1270	3.1270	-0.1583	27.38	1.48	-1.500			
0.8654	55383.33	3.1240	3.1239	-0.1567	27.39	1.49	-1.500			
0.8658	55413.16	3.1210	3.1211	-0.1560	27.39	1.49	-1.500			
0.8663	55443.03	3.1180	3.1180	-0.1551	27.39	1.49	-1.500			
0.8668	55472.63	3.1150	3.1150	-0.1539	27.40	1.50	-1.500			
0.8672	55502.36	3.1120	3.1120	-0.1526	27.40	1.50	-1.500			
0.8677	55531.48	3.1090	3.1090	-0.1510	27.41	1.51	-1.500			
0.8681	55560.19	3.1060	3.1061	-0.1507	27.41	1.51	-1.500			
0.8686	55589.33	3.1030	3.1030	-0.1497	27.42	1.52	-1.500			
0.8690	55617.91	3.1000	3.1000	-0.1483	27.42	1.52	-1.500			
0.8695	55646.03	3.0970	3.0969	-0.1468	27.42	1.52	-1.500			
0.8699	55674.08	3.0940	3.0941	-0.1463	27.42	1.52	-1.500			
0.8703	55702.27	3.0910	3.0909	-0.1457	27.43	1.53	-1.500			
0.8708	55730.32	3.0880	3.0880	-0.1451	27.43	1.53	-1.500			
0.8712	55758.08	3.0850	3.0850	-0.1440	27.44	1.54	-1.500			
0.8716	55785.46	3.0820	3.0821	-0.1424	27.44	1.54	-1.500			
0.8721	55812.79	3.0790	3.0790	-0.1423	27.45	1.55	-1.500			
0.8725	55840.01	3.0760	3.0761	-0.1412	27.46	1.56	-1.500			
0.8729	55866.93	3.0730	3.0730	-0.1403	27.46	1.56	-1.500			
0.8733	55893.72	3.0700	3.0699	-0.1389	27.47	1.57	-1.500			
0.8738	55920.40	3.0670	3.0670	-0.1383	27.47	1.57	-1.500			
0.8742	55946.86	3.0640	3.0642	-0.1374	27.48	1.58	-1.500			
0.8746	55973.25	3.0610	3.0610	-0.1365	27.49	1.59	-1.500			
0.8750	55999.28	3.0580	3.0580	-0.1359	27.49	1.59	-1.500			
0.8754	56025.00	3.0550	3.0550	-0.1346	27.50	1.60	-1.500			
0.8758	56050.93	3.0520	3.0520	-0.1338	27.50	1.60	-1.500			
0.8762	56076.58	3.0490	3.0490	-0.1332	27.51	1.61	-1.500			
0.8766	56102.19	3.0460	3.0461	-0.1327	27.52	1.62	-1.500			
0.8770	56127.60	3.0430	3.0430	-0.1316	27.52	1.62	-1.500			
0.8774	56152.79	3.0400	3.0400	-0.1307	27.53	1.63	-1.500			
0.8778	56177.73	3.0370	3.0371	-0.1300	27.53	1.63	-1.500			
0.8782	56202.49	3.0340	3.0339	-0.1290	27.54	1.64	-1.500			
0.8786	56227.21	3.0310	3.0310	-0.1285	27.54	1.64	-1.500			
0.8789	56251.86	3.0280	3.0280	-0.1283	27.55	1.65	-1.500			
0.8793	56276.59	3.0250	3.0250	-0.1272	27.56	1.66	-1.500			
0.8797	56301.07	3.0220	3.0219	-0.1267	27.56	1.66	-1.500			
0.8801	56325.18	3.0190	3.0191	-0.1259	27.57	1.67	-1.500			
0.8805	56349.32	3.0160	3.0161	-0.1251	27.57	1.67	-1.500			
0.8808	56373.17	3.0130	3.0131	-0.1240	27.58	1.68	-1.500			
0.8812	56396.85	3.0100	3.0099	-0.1232	27.58	1.68	-1.500			
0.8816	56420.43	3.0070	3.0069	-0.1224	27.59	1.69	-1.500			
0.8819	56443.78	3.0040	3.0041	-0.1255	27.59	1.69	-1.500			
