Ah_balance (normalized)	Ah_balance (mAh)	Voltage - fit (V)	Voltage -  interpolate (V)	dQ/dV (1/V)	Temperature (°C)	Temperature - diff (°C)	Current (C)	R_DC 0ms (mOhm)	R_DC 50ms (mOhm)	R_DC 50 ms PEC (mOhm)
0.2719	17404.75	3.9900	3.9900	0.8336	27.33	1.35	1.500			
0.2745	17565.72	3.9870	3.9870	0.8395	27.33	1.35	1.500			
0.2770	17727.36	3.9840	3.9840	0.8430	27.32	1.34	1.500			
0.2795	17889.17	3.9810	3.9810	0.8473	27.32	1.34	1.500			
0.2821	18053.31	3.9780	3.9780	0.8508	27.31	1.33	1.500			
0.2846	18215.90	3.9750	3.9750	0.8524	27.31	1.33	1.500			
0.2872	18381.00	3.9720	3.9719	0.8569	27.30	1.32	1.500			
0.2898	18545.36	3.9690	3.9691	0.8589	27.30	1.32	1.500			
0.2924	18710.90	3.9660	3.9659	0.8631	27.29	1.31	1.500			
0.2949	18876.63	3.9630	3.9630	0.8648	27.28	1.30	1.500			
0.2975	19042.68	3.9600	3.9601	0.8671	27.28	1.30	1.500			
0.3002	19209.68	3.9570	3.9569	0.8719	27.27	1.29	1.500			
0.3028	19377.64	3.9540	3.9540	0.8738	27.27	1.29	1.500			
0.3054	19545.69	3.9510	3.9510	0.8774	27.26	1.28	1.500			
0.3080	19715.10	3.9480	3.9480	0.8745	27.26	1.28	1.500			
0.3107	19881.92	3.9450	3.9451	0.8829	27.25	1.27	1.500			
0.3133	20051.54	3.9420	3.9420	0.8901	27.25	1.27	1.500			
0.3160	20222.18	3.9390	3.9390	0.8969	27.24	1.26	1.500			
0.3187	20396.02	3.9360	3.9360	0.9027	27.24	1.26	1.500			
0.3214	20570.85	3.9330	3.9331	0.9126	27.23	1.25	1.500			
0.3242	20747.39	3.9300	3.9300	0.9179	27.23	1.25	1.500			
0.3270	20925.93	3.9270	3.9270	0.9232	27.22	1.24	1.500			
0.3297	21101.04	3.9240	3.9240	0.9203	27.22	1.24	1.500			
0.3325	21280.01	3.9210	3.9210	0.9220	27.21	1.23	1.500			
0.3352	21455.35	3.9180	3.9180	0.9287	27.20	1.22	1.500			
0.3380	21633.62	3.9150	3.9151	0.9375	27.20	1.22	1.500			
0.3408	21813.39	3.9120	3.9119	0.9434	27.19	1.21	1.500			
0.3437	21995.79	3.9090	3.9090	0.9538	27.19	1.21	1.500			
0.3466	22181.40	3.9060	3.9061	0.9596	27.18	1.20	1.500			
0.3495	22366.25	3.9030	3.9031	0.9665	27.17	1.19	1.500			
0.3524	22553.62	3.9000	3.9000	0.9776	27.17	1.19	1.500			
0.3553	22740.41	3.8970	3.8970	0.9779	27.16	1.18	1.500			
0.3582	22926.63	3.8940	3.8940	0.9870	27.15	1.17	1.500			
0.3612	23117.43	3.8910	3.8911	1.0003	27.14	1.16	1.500			
0.3642	23311.44	3.8880	3.8880	1.0106	27.14	1.16	1.500			
0.3673	23507.20	3.8850	3.8848	1.0227	27.13	1.15	1.500			
0.3704	23704.55	3.8820	3.8821	1.0305	27.12	1.14	1.500			
0.3735	23903.66	3.8790	3.8789	1.0431	27.11	1.13	1.500			
0.3767	24107.03	3.8760	3.8760	1.0530	27.10	1.12	1.500			
0.3798	24308.87	3.8730	3.8729	1.0509	27.09	1.11	1.500			
0.3830	24510.80	3.8700	3.8701	1.0640	27.08	1.10	1.500			
0.3862	24715.38	3.8670	3.8670	1.0780	27.07	1.09	1.500			
0.3894	24922.18	3.8640	3.8640	1.0901	27.06	1.08	1.500			
0.3927	25132.36	3.8610	3.8609	1.1049	27.05	1.07	1.500			
0.3960	25345.51	3.8580	3.8580	1.1209	27.04	1.06	1.500			
0.3994	25564.74	3.8550	3.8551	1.1441	27.03	1.05	1.500			
0.4029	25786.49	3.8520	3.8520	1.1604	27.02	1.04	1.500			
0.4064	26010.34	3.8490	3.8490	1.1679	27.01	1.03	1.500			
0.4099	26235.81	3.8460	3.8460	1.1881	27.00	1.02	1.500			
0.4135	26465.27	3.8430	3.8430	1.2025	26.99	1.01	1.500			
0.4172	26697.64	3.8400	3.8399	1.2171	26.98	1.00	1.500			
0.4208	26931.61	3.8370	3.8370	1.2369	26.97	0.99	1.500			
0.4245	27170.26	3.8340	3.8341	1.2550	26.96	0.98	1.500			
0.4284	27415.12	3.8310	3.8310	1.2718	26.95	0.97	1.500			
0.4322	27658.90	3.8280	3.8280	1.2966	26.94	0.96	1.500			
0.4361	27908.61	3.8250	3.8251	1.3227	26.93	0.95	1.500			
0.4401	28165.89	3.8220	3.8220	1.3514	26.92	0.94	1.500			
0.4442	28428.01	3.8190	3.8190	1.3764	26.90	0.92	1.500			
0.4484	28694.99	3.8160	3.8161	1.3975	26.89	0.91	1.500			
0.4526	28967.71	3.8130	3.8131	1.4227	26.88	0.90	1.500			
0.4569	29244.67	3.8100	3.8100	1.4487	26.86	0.88	1.500			
0.4613	29521.07	3.8070	3.8070	1.4622	26.85	0.87	1.500			
0.4657	29803.44	3.8040	3.8039	1.4943	26.84	0.86	1.500			
0.4702	30094.14	3.8010	3.8011	1.5278	26.82	0.84	1.500			
0.4749	30393.31	3.7980	3.7979	1.5487	26.81	0.83	1.500			
0.4796	30692.52	3.7950	3.7950	1.5715	26.79	0.81	1.500			
0.4843	30996.22	3.7920	3.7921	1.5907	26.78	0.80	1.500			
0.4891	31303.04	3.7890	3.7889	1.6152	26.76	0.78	1.500			
0.4939	31610.37	3.7860	3.7860	1.6391	26.74	0.76	1.500			
0.4989	31928.58	3.7830	3.7830	1.6760	26.73	0.75	1.500			
0.5040	32258.62	3.7800	3.7801	1.6991	26.71	0.73	1.500	0.343	0.474	
0.5092	32586.19	3.7770	3.7771	1.7130	26.70	0.72	1.500			
0.5144	32918.84	3.7740	3.7741	1.7220	26.68	0.70	1.500			
0.5195	33246.98	3.7710	3.7711	1.7277	26.66	0.68	1.500			
0.5247	33581.41	3.7680	3.7680	1.7410	26.64	0.66	1.500			
0.5300	33917.65	3.7650	3.7650	1.7497	26.62	0.64	1.500			
0.5352	34251.65	3.7620	3.7621	1.7433	26.61	0.63	1.500			
0.5404	34585.26	3.7590	3.7589	1.7492	26.59	0.61	1.500			
0.5456	34920.06	3.7560	3.7561	1.7554	26.57	0.59	1.500			
0.5509	35260.00	3.7530	3.7530	1.7718	26.56	0.58	1.500			
0.5563	35603.05	3.7500	3.7500	1.7953	26.55	0.57	1.500			
0.5616	35940.48	3.7470	3.7471	1.7998	26.53	0.55	1.500			
0.5670	36289.63	3.7440	3.7438	1.8301	26.52	0.54	1.500			
0.5726	36644.28	3.7410	3.7410	1.8675	26.51	0.53	1.500			
0.5783	37008.05	3.7380	3.7380	1.8860	26.49	0.51	1.500			
0.5839	37371.45	3.7350	3.7350	1.9365	26.47	0.49	1.500			
0.5898	37748.29	3.7320	3.7320	2.0114	26.46	0.48	1.500			
0.5959	38138.09	3.7290	3.7291	2.0676	26.44	0.46	1.500			
0.6023	38546.79	3.7260	3.7260	2.1311	26.42	0.44	1.500			
0.6088	38962.86	3.7230	3.7229	2.1866	26.40	0.42	1.500			
0.6154	39383.83	3.7200	3.7200	2.2283	26.39	0.41	1.500			
0.6222	39819.90	3.7170	3.7170	2.2851	26.37	0.39	1.500			
0.6291	40259.22	3.7140	3.7141	2.3105	26.35	0.37	1.500			
0.6361	40708.81	3.7110	3.7110	2.3240	26.33	0.35	1.500			
0.6431	41158.73	3.7080	3.7080	2.3232	26.32	0.34	1.500			
0.6503	41616.57	3.7050	3.7050	2.2713	26.30	0.32	1.500			
0.6570	42045.72	3.7020	3.7020	2.1689	26.28	0.30	1.500			
0.6633	42452.03	3.6990	3.6991	2.0260	26.27	0.29	1.500			
0.6691	42824.14	3.6960	3.6960	1.8851	26.26	0.28	1.500			
0.6745	43170.79	3.6930	3.6930	1.7580	26.24	0.26	1.500			
0.6796	43492.74	3.6900	3.6900	1.6569	26.23	0.25	1.500			
0.6844	43800.69	3.6870	3.6870	1.5733	26.22	0.24	1.500			
0.6889	44092.01	3.6840	3.6840	1.4922	26.21	0.23	1.500			
0.6933	44369.14	3.6810	3.6810	1.4291	26.20	0.22	1.500			
0.6974	44635.35	3.6780	3.6780	1.3806	26.19	0.21	1.500			
0.7014	44890.93	3.6750	3.6749	1.3435	26.18	0.20	1.500			
0.7054	45144.41	3.6720	3.6719	1.3114	26.17	0.19	1.500			
0.7092	45389.83	3.6690	3.6690	1.2894	26.16	0.18	1.500			
0.7130	45633.68	3.6660	3.6661	1.2831	26.15	0.17	1.500			
0.7169	45880.18	3.6630	3.6629	1.2809	26.14	0.16	1.500			
0.7207	46122.14	3.6600	3.6599	1.2773	26.13	0.15	1.500			
0.7245	46368.49	3.6570	3.6570	1.2803	26.12	0.14	1.500			
0.7284	46614.81	3.6540	3.6541	1.2783	26.10	0.12	1.500			
0.7323	46864.06	3.6510	3.6509	1.2838	26.09	0.11	1.500			
0.7361	47110.14	3.6480	3.6480	1.2757	26.08	0.10	1.500			
0.7399	47353.32	3.6450	3.6450	1.2634	26.07	0.09	1.500			
0.7437	47596.41	3.6420	3.6420	1.2562	26.06	0.08	1.500			
0.7474	47835.63	3.6390	3.6390	1.2430	26.05	0.07	1.500			
0.7511	48073.24	3.6360	3.6360	1.2397	26.04	0.06	1.500			
0.7549	48310.89	3.6330	3.6330	1.2300	26.03	0.05	1.500			
0.7585	48545.14	3.6300	3.6300	1.2227	26.03	0.05	1.500			
0.7622	48780.06	3.6270	3.6270	1.2180	26.02	0.04	1.500			
0.7658	49013.93	3.6240	3.6240	1.2094	26.01	0.03	1.500			
0.7695	49245.64	3.6210	3.6210	1.1985	26.01	0.03	1.500			
0.7731	49475.36	3.6180	3.6180	1.1835	26.00	0.02	1.500			
0.7766	49701.47	3.6150	3.6149	1.1653	26.00	0.02	1.500			
0.7801	49926.93	3.6120	3.6120	1.1428	25.99	0.01	1.500			
0.7835	50142.91	3.6090	3.6089	1.1180	25.98	0.00	1.500			
0.7868	50353.79	3.6060	3.6061	1.0983	25.98	-0.00	1.500			
0.7900	50563.18	3.6030	3.6030	1.0739	25.97	-0.01	1.500			
0.7932	50766.57	3.6000	3.6000	1.0499	25.97	-0.01	1.500			
0.7964	50966.69	3.5970	3.5970	1.0245	25.97	-0.01	1.500			
0.7994	51163.43	3.5940	3.5941	0.9907	25.97	-0.01	1.500			
0.8024	51353.08	3.5910	3.5910	0.9466	25.97	-0.01	1.500			
0.8052	51535.64	3.5880	3.5880	0.8879	25.98	-0.00	1.500			
0.8079	51702.95	3.5850	3.5849	0.8134	25.98	-0.00	1.500			
0.8103	51857.00	3.5820	3.5821	0.7326	25.98	-0.00	1.500			
0.8123	51988.70	3.5790	3.5791	0.6355	25.98	-0.00	1.500			
0.8141	52099.72	3.5760	3.5761	0.5466	25.98	-0.00	1.500			
0.8155	52193.59	3.5730	3.5730	0.4611	25.98	-0.00	1.500			
0.8167	52268.29	3.5700	3.5699	0.3857	25.98	-0.00	1.500			
0.8177	52332.28	3.5670	3.5670	0.3315	25.98	0.00	1.500			
0.8186	52387.72	3.5640	3.5640	0.2875	25.98	0.00	1.500			
0.8193	52437.73	3.5610	3.5610	0.2512	25.98	0.00	1.500			
0.8200	52481.53	3.5580	3.5578	0.2247	25.98	0.00	1.500			
0.8206	52520.88	3.5550	3.5550	0.2020	25.98	0.00	1.500			
0.8212	52556.59	3.5520	3.5520	0.1832	25.98	0.00	1.500			
0.8217	52589.75	3.5490	3.5490	0.1658	25.98	0.00	1.500			
0.8222	52619.93	3.5460	3.5461	0.1514	25.98	0.00	1.500			
0.8226	52647.21	3.5430	3.5429	0.1365	25.98	0.00	1.500			
0.8230	52672.18	3.5400	3.5400	0.1218	25.98	0.00	1.500			
0.8233	52694.21	3.5370	3.5371	0.1076	25.98	0.00	1.500			
0.8237	52713.71	3.5340	3.5341	0.0936	25.98	0.00	1.500			
0.8239	52730.76	3.5310	3.5311	0.0794	25.98	0.00	1.500			
0.8241	52744.54	3.5280	3.5281	0.0642	25.98	0.00	1.500			
0.8243	52755.39	3.5250	3.5254	0.0491	25.98	0.00	1.500			
0.8244	52763.36	3.5220	3.5228	0.0340	25.98	0.00	1.500			
