Ah_balance (normalized)	Ah_balance (mAh)	Voltage - fit (V)	Voltage -  interpolate (V)	dQ/dV (1/V)	Temperature (°C)	Temperature - diff (°C)	Current (C)	R_DC 0ms (mOhm)	R_DC 50ms (mOhm)	R_DC 50 ms PEC (mOhm)
0.1931	12358.01	3.9250	3.9249	-0.1124	25.80	-0.02	-1.500			
0.1935	12383.17	3.9220	3.9218	-0.1439	25.80	-0.02	-1.500			
0.1940	12414.10	3.9190	3.9191	-0.1723	25.80	-0.02	-1.500			
0.1945	12450.00	3.9160	3.9160	-0.1993	25.80	-0.02	-1.500			
0.1952	12491.20	3.9130	3.9130	-0.2240	25.80	-0.02	-1.500			
0.1959	12537.07	3.9100	3.9101	-0.2518	25.80	-0.02	-1.500			
0.1967	12586.92	3.9070	3.9071	-0.2776	25.81	-0.01	-1.500			
0.1975	12642.88	3.9040	3.9040	-0.3045	25.81	-0.01	-1.500			
0.1985	12704.05	3.9010	3.9009	-0.3298	25.81	-0.01	-1.500			
0.1995	12770.28	3.8980	3.8981	-0.3544	25.81	-0.01	-1.500			
0.2006	12841.12	3.8950	3.8950	-0.3799	25.81	-0.01	-1.500			
0.2018	12917.31	3.8920	3.8921	-0.4047	25.81	-0.01	-1.500			
0.2031	12996.79	3.8890	3.8890	-0.4262	25.81	-0.01	-1.500			
0.2044	13080.43	3.8860	3.8860	-0.4492	25.81	-0.01	-1.500			
0.2058	13169.27	3.8830	3.8831	-0.4731	25.81	-0.01	-1.500			
0.2072	13263.01	3.8800	3.8799	-0.4941	25.81	-0.01	-1.500			
0.2087	13359.91	3.8770	3.8770	-0.5134	25.82	-0.00	-1.500			
0.2103	13460.37	3.8740	3.8740	-0.5321	25.82	-0.00	-1.500			
0.2119	13564.78	3.8710	3.8710	-0.5495	25.82	-0.00	-1.500			
0.2136	13672.26	3.8680	3.8680	-0.5661	25.82	-0.00	-1.500			
0.2154	13782.75	3.8650	3.8651	-0.5787	25.82	0.00	-1.500			
0.2171	13896.10	3.8620	3.8620	-0.5920	25.82	0.00	-1.500			
0.2189	14011.44	3.8590	3.8590	-0.6039	25.82	0.00	-1.500			
0.2207	14127.77	3.8560	3.8560	-0.6166	25.82	0.00	-1.500			
0.2226	14247.46	3.8530	3.8530	-0.6236	25.83	0.01	-1.500			
0.2245	14367.95	3.8500	3.8500	-0.6345	25.83	0.01	-1.500			
0.2264	14491.25	3.8470	3.8470	-0.6438	25.83	0.01	-1.500			
0.2284	14616.40	3.8440	3.8439	-0.6520	25.83	0.01	-1.500			
0.2303	14742.22	3.8410	3.8410	-0.6593	25.83	0.01	-1.500			
0.2323	14869.85	3.8380	3.8381	-0.6628	25.83	0.01	-1.500			
0.2343	14997.62	3.8350	3.8350	-0.6672	25.84	0.02	-1.500			
0.2364	15127.84	3.8320	3.8319	-0.6693	25.84	0.02	-1.500			
0.2384	15255.30	3.8290	3.8291	-0.6704	25.84	0.02	-1.500			
0.2404	15383.99	3.8260	3.8261	-0.6762	25.84	0.02	-1.500			
0.2424	15514.50	3.8230	3.8229	-0.6783	25.84	0.02	-1.500			
0.2445	15645.04	3.8200	3.8199	-0.6800	25.85	0.03	-1.500			
0.2465	15776.20	3.8170	3.8171	-0.6835	25.85	0.03	-1.500			
0.2486	15908.55	3.8140	3.8140	-0.6832	25.85	0.03	-1.500			
0.2506	16039.62	3.8110	3.8110	-0.6840	25.86	0.04	-1.500			
0.2527	16170.03	3.8080	3.8080	-0.6813	25.86	0.04	-1.500			
0.2547	16300.66	3.8050	3.8050	-0.6819	25.86	0.04	-1.500			
0.2568	16432.10	3.8020	3.8020	-0.6858	25.87	0.05	-1.500			
0.2588	16563.55	3.7990	3.7991	-0.6866	25.87	0.05	-1.500			
0.2609	16696.02	3.7960	3.7959	-0.6875	25.87	0.05	-1.500			
0.2629	16828.31	3.7930	3.7930	-0.6906	25.88	0.06	-1.500			
0.2650	16960.00	3.7900	3.7900	-0.6916	25.88	0.06	-1.500			
0.2671	17094.66	3.7870	3.7870	-0.6908	25.89	0.07	-1.500			
0.2692	17227.22	3.7840	3.7839	-0.6927	25.89	0.07	-1.500			
0.2712	17359.67	3.7810	3.7811	-0.6924	25.90	0.08	-1.500			
0.2733	17493.17	3.7780	3.7781	-0.6931	25.91	0.09	-1.500			
0.2754	17625.81	3.7750	3.7749	-0.6955	25.91	0.09	-1.500			
0.2775	17758.50	3.7720	3.7719	-0.6956	25.92	0.10	-1.500			
0.2796	17892.91	3.7690	3.7690	-0.6988	25.93	0.11	-1.500			
0.2817	18028.60	3.7660	3.7660	-0.6991	25.93	0.11	-1.500			
0.2838	18162.83	3.7630	3.7630	-0.6985	25.94	0.12	-1.500			
0.2859	18296.76	3.7600	3.7601	-0.7028	25.95	0.13	-1.500			
0.2880	18431.10	3.7570	3.7570	-0.7039	25.95	0.13	-1.500			
0.2901	18565.54	3.7540	3.7539	-0.7057	25.96	0.14	-1.500			
0.2922	18701.46	3.7510	3.7510	-0.7083	25.97	0.15	-1.500			
0.2943	18838.22	3.7480	3.7481	-0.7111	25.97	0.15	-1.500			
0.2965	18977.34	3.7450	3.7449	-0.7123	25.98	0.16	-1.500			
0.2986	19112.92	3.7420	3.7421	-0.7118	25.98	0.16	-1.500			
0.3008	19248.32	3.7390	3.7390	-0.7205	25.99	0.17	-1.500			
0.3029	19386.74	3.7360	3.7360	-0.7271	25.99	0.17	-1.500			
0.3051	19527.56	3.7330	3.7329	-0.7325	26.00	0.18	-1.500			
0.3073	19668.56	3.7300	3.7301	-0.7410	26.00	0.18	-1.500			
0.3096	19812.20	3.7270	3.7270	-0.7436	26.01	0.19	-1.500			
0.3118	19956.53	3.7240	3.7240	-0.7452	26.01	0.19	-1.500			
0.3140	20098.57	3.7210	3.7210	-0.7495	26.02	0.20	-1.500			
0.3163	20241.99	3.7180	3.7179	-0.7536	26.02	0.20	-1.500			
0.3185	20387.18	3.7150	3.7150	-0.7615	26.03	0.21	-1.500			
0.3208	20533.59	3.7120	3.7121	-0.7715	26.03	0.21	-1.500			
0.3232	20682.36	3.7090	3.7090	-0.7782	26.04	0.22	-1.500			
0.3255	20833.35	3.7060	3.7059	-0.7905	26.05	0.23	-1.500			
0.3279	20985.93	3.7030	3.7030	-0.8012	26.05	0.23	-1.500			
0.3303	21140.31	3.7000	3.7000	-0.8076	26.06	0.24	-1.500			
0.3328	21297.99	3.6970	3.6970	-0.8176	26.06	0.24	-1.500			
0.3352	21455.68	3.6940	3.6941	-0.8239	26.07	0.25	-1.500			
0.3377	21613.93	3.6910	3.6910	-0.8307	26.07	0.25	-1.500			
0.3402	21774.15	3.6880	3.6881	-0.8396	26.08	0.26	-1.500			
0.3427	21934.31	3.6850	3.6850	-0.8478	26.09	0.27	-1.500			
0.3453	22097.84	3.6820	3.6820	-0.8619	26.09	0.27	-1.500			
0.3479	22264.70	3.6790	3.6790	-0.8763	26.10	0.28	-1.500			
0.3505	22435.08	3.6760	3.6760	-0.8915	26.11	0.29	-1.500			
0.3532	22607.22	3.6730	3.6731	-0.9039	26.11	0.29	-1.500			
0.3560	22782.78	3.6700	3.6700	-0.9193	26.12	0.30	-1.500			
0.3588	22961.21	3.6670	3.6670	-0.9310	26.13	0.31	-1.500			
0.3616	23140.14	3.6640	3.6640	-0.9429	26.13	0.31	-1.500			
0.3644	23322.78	3.6610	3.6611	-0.9544	26.14	0.32	-1.500			
0.3673	23508.58	3.6580	3.6579	-0.9649	26.14	0.32	-1.500			
0.3702	23694.23	3.6550	3.6550	-0.9760	26.14	0.32	-1.500			
0.3731	23880.00	3.6520	3.6521	-0.9868	26.15	0.33	-1.500			
0.3761	24069.19	3.6490	3.6490	-1.0062	26.15	0.33	-1.500			
0.3791	24264.21	3.6460	3.6460	-1.0249	26.15	0.33	-1.500			
0.3822	24463.88	3.6430	3.6428	-1.0404	26.15	0.33	-1.500			
0.3854	24667.40	3.6400	3.6401	-1.0579	26.16	0.34	-1.500			
0.3886	24872.28	3.6370	3.6369	-1.0780	26.16	0.34	-1.500			
0.3919	25080.48	3.6340	3.6341	-1.0988	26.16	0.34	-1.500			
0.3952	25293.77	3.6310	3.6309	-1.1173	26.16	0.34	-1.500			
0.3986	25507.22	3.6280	3.6281	-1.1326	26.17	0.35	-1.500			
0.4020	25726.41	3.6250	3.6250	-1.1536	26.17	0.35	-1.500			
0.4055	25953.05	3.6220	3.6220	-1.1727	26.17	0.35	-1.500			
0.4091	26180.27	3.6190	3.6190	-1.1916	26.18	0.36	-1.500			
0.4127	26410.18	3.6160	3.6160	-1.2013	26.18	0.36	-1.500			
0.4163	26642.12	3.6130	3.6130	-1.2176	26.18	0.36	-1.500			
0.4200	26878.47	3.6100	3.6099	-1.2355	26.18	0.36	-1.500			
0.4237	27116.26	3.6070	3.6070	-1.2519	26.19	0.37	-1.500			
0.4275	27356.93	3.6040	3.6039	-1.2726	26.19	0.37	-1.500			
0.4313	27604.74	3.6010	3.6010	-1.2935	26.19	0.37	-1.500			
0.4352	27854.64	3.5980	3.5979	-1.3101	26.20	0.38	-1.500			
0.4392	28109.59	3.5950	3.5951	-1.3317	26.20	0.38	-1.500			
0.4432	28366.42	3.5920	3.5920	-1.3485	26.20	0.38	-1.500			
0.4473	28626.94	3.5890	3.5890	-1.3697	26.20	0.38	-1.500			
0.4514	28891.60	3.5860	3.5860	-1.3864	26.20	0.38	-1.500			
0.4556	29159.37	3.5830	3.5830	-1.4061	26.20	0.38	-1.500			
0.4599	29433.25	3.5800	3.5800	-1.4255	26.20	0.38	-1.500			
0.4642	29708.22	3.5770	3.5770	-1.4406	26.20	0.38	-1.500			
0.4685	29985.94	3.5740	3.5740	-1.4607	26.20	0.38	-1.500			
0.4729	30268.16	3.5710	3.5709	-1.4756	26.21	0.39	-1.500			
0.4774	30553.25	3.5680	3.5680	-1.4936	26.21	0.39	-1.500			
0.4819	30841.49	3.5650	3.5651	-1.5175	26.21	0.39	-1.500			
0.4865	31135.36	3.5620	3.5620	-1.5426	26.22	0.40	-1.500			
0.4912	31434.75	3.5590	3.5590	-1.5599	26.22	0.40	-1.500			
0.4958	31733.52	3.5560	3.5560	-1.5817	26.22	0.40	-1.500			
0.5006	32039.28	3.5530	3.5531	-1.6037	26.23	0.41	-1.500			
0.5055	32353.74	3.5500	3.5499	-1.6212	26.23	0.41	-1.500			
0.5104	32666.64	3.5470	3.5470	-1.6411	26.24	0.42	-1.500			
0.5153	32981.48	3.5440	3.5441	-1.6568	26.24	0.42	-1.500			
0.5203	33301.30	3.5410	3.5410	-1.6742	26.25	0.43	-1.500			
0.5254	33626.71	3.5380	3.5379	-1.6874	26.25	0.43	-1.500			
0.5305	33950.29	3.5350	3.5350	-1.6946	26.26	0.44	-1.500			
0.5356	34280.27	3.5320	3.5322	-1.7067	26.26	0.44	-1.500	0.374	0.522	
0.5408	34608.66	3.5290	3.5291	-1.7123	26.27	0.45	-1.500			
0.5459	34935.93	3.5260	3.5260	-1.7212	26.28	0.46	-1.500			
0.5510	35266.15	3.5230	3.5230	-1.7294	26.29	0.47	-1.500			
0.5562	35599.95	3.5200	3.5200	-1.7387	26.30	0.48	-1.500			
0.5615	35937.42	3.5170	3.5171	-1.7435	26.30	0.48	-1.500			
0.5667	36271.23	3.5140	3.5140	-1.7562	26.31	0.49	-1.500			
0.5720	36610.44	3.5110	3.5110	-1.7634	26.32	0.50	-1.500			
0.5773	36947.79	3.5080	3.5080	-1.7670	26.33	0.51	-1.500			
0.5826	37289.57	3.5050	3.5051	-1.7738	26.34	0.52	-1.500			
0.5880	37629.66	3.5020	3.5020	-1.7720	26.35	0.53	-1.500			
0.5933	37973.60	3.4990	3.4990	-1.7644	26.36	0.54	-1.500			
0.5986	38311.79	3.4960	3.4960	-1.7658	26.37	0.55	-1.500			
0.6039	38648.46	3.4930	3.4930	-1.7551	26.38	0.56	-1.500			
0.6091	38983.67	3.4900	3.4899	-1.7476	26.39	0.57	-1.500			
0.6144	39319.20	3.4870	3.4869	-1.7371	26.40	0.58	-1.500			
0.6196	39653.27	3.4840	3.4840	-1.7260	26.41	0.59	-1.500			
0.6247	39983.09	3.4810	3.4810	-1.7195	26.42	0.60	-1.500			
0.6299	40313.66	3.4780	3.4780	-1.7038	26.44	0.62	-1.500			
0.6350	40639.18	3.4750	3.4749	-1.6920	26.45	0.63	-1.500			
0.6400	40961.21	3.4720	3.4722	-1.6728	26.46	0.64	-1.500			
0.6451	41283.64	3.4690	3.4689	-1.6533	26.48	0.66	-1.500			
0.6500	41599.32	3.4660	3.4661	-1.6430	26.50	0.68	-1.500			
0.6549	41913.65	3.4630	3.4629	-1.6172	26.51	0.69	-1.500			
0.6597	42221.24	3.4600	3.4600	-1.5939	26.53	0.71	-1.500			
0.6644	42524.78	3.4570	3.4572	-1.5729	26.55	0.73	-1.500			
0.6691	42824.54	3.4540	3.4540	-1.5494	26.56	0.74	-1.500			
0.6737	43119.07	3.4510	3.4509	-1.5256	26.58	0.76	-1.500			
0.6783	43410.60	3.4480	3.4480	-1.5037	26.59	0.77	-1.500			
0.6827	43694.78	3.4450	3.4450	-1.4752	26.61	0.79	-1.500			
0.6872	43978.85	3.4420	3.4420	-1.4612	26.62	0.80	-1.500			
0.6915	44256.05	3.4390	3.4390	-1.4389	26.64	0.82	-1.500			
0.6957	44527.26	3.4360	3.4360	-1.4174	26.66	0.84	-1.500			
0.7000	44797.37	3.4330	3.4329	-1.4080	26.67	0.85	-1.500			
0.7042	45066.71	3.4300	3.4301	-1.3905	26.69	0.87	-1.500			
0.7084	45334.46	3.4270	3.4270	-1.3810	26.71	0.89	-1.500			
0.7125	45599.01	3.4240	3.4240	-1.3681	26.73	0.91	-1.500			
0.7166	45860.40	3.4210	3.4210	-1.3506	26.75	0.93	-1.500			
0.7206	46117.21	3.4180	3.4179	-1.3291	26.77	0.95	-1.500			
0.7246	46371.32	3.4150	3.4150	-1.3095	26.78	0.96	-1.500			
0.7285	46621.17	3.4120	3.4120	-1.2900	26.80	0.98	-1.500			
0.7323	46869.71	3.4090	3.4090	-1.2623	26.82	1.00	-1.500			
0.7361	47109.11	3.4060	3.4060	-1.2348	26.84	1.02	-1.500			
0.7397	47342.89	3.4030	3.4031	-1.2064	26.85	1.03	-1.500			
0.7433	47572.43	3.4000	3.3999	-1.1719	26.86	1.04	-1.500			
0.7468	47794.65	3.3970	3.3969	-1.1352	26.88	1.06	-1.500			
0.7501	48008.17	3.3940	3.3941	-1.0974	26.89	1.07	-1.500			
0.7534	48215.69	3.3910	3.3910	-1.0713	26.91	1.09	-1.500			
0.7566	48419.34	3.3880	3.3879	-1.0331	26.92	1.10	-1.500			
0.7596	48613.41	3.3850	3.3849	-0.9865	26.93	1.11	-1.500			
0.7625	48799.71	3.3820	3.3820	-0.9497	26.95	1.13	-1.500			
0.7653	48978.91	3.3790	3.3792	-0.9153	26.95	1.13	-1.500			
0.7680	49150.39	3.3760	3.3759	-0.8812	26.96	1.14	-1.500			
0.7705	49314.45	3.3730	3.3729	-0.8487	26.98	1.16	-1.500			
0.7730	49470.92	3.3700	3.3700	-0.8189	26.99	1.17	-1.500			
0.7754	49627.05	3.3670	3.3670	-0.8011	27.00	1.18	-1.500			
0.7778	49779.45	3.3640	3.3639	-0.7741	27.01	1.19	-1.500			
0.7801	49925.82	3.3610	3.3610	-0.7477	27.02	1.20	-1.500			
0.7823	50067.27	3.3580	3.3580	-0.7199	27.03	1.21	-1.500			
0.7844	50202.14	3.3550	3.3550	-0.6941	27.04	1.22	-1.500			
0.7864	50332.51	3.3520	3.3520	-0.6732	27.05	1.23	-1.500			
0.7884	50457.60	3.3490	3.3490	-0.6485	27.06	1.24	-1.500			
0.7903	50579.78	3.3460	3.3459	-0.6300	27.06	1.24	-1.500			
0.7922	50699.84	3.3430	3.3430	-0.6151	27.07	1.25	-1.500			
0.7940	50816.08	3.3400	3.3400	-0.5940	27.08	1.26	-1.500			
0.7958	50928.08	3.3370	3.3370	-0.5763	27.09	1.27	-1.500			
0.7974	51035.93	3.3340	3.3341	-0.5618	27.10	1.28	-1.500			
0.7991	51142.46	3.3310	3.3309	-0.5469	27.11	1.29	-1.500			
0.8007	51246.06	3.3280	3.3280	-0.5312	27.12	1.30	-1.500			
0.8023	51347.16	3.3250	3.3250	-0.5137	27.13	1.31	-1.500			
0.8038	51444.62	3.3220	3.3221	-0.5006	27.14	1.32	-1.500			
0.8053	51539.69	3.3190	3.3189	-0.4870	27.15	1.33	-1.500			
0.8067	51630.05	3.3160	3.3161	-0.4700	27.16	1.34	-1.500			
0.8081	51718.18	3.3130	3.3129	-0.4586	27.17	1.35	-1.500			
0.8095	51805.71	3.3100	3.3101	-0.4492	27.17	1.35	-1.500			
0.8108	51891.37	3.3070	3.3069	-0.4377	27.18	1.36	-1.500			
0.8121	51973.88	3.3040	3.3041	-0.4253	27.19	1.37	-1.500			
0.8133	52054.18	3.3010	3.3010	-0.4142	27.19	1.37	-1.500			
0.8146	52132.88	3.2980	3.2980	-0.4045	27.20	1.38	-1.500			
0.8158	52209.69	3.2950	3.2949	-0.3930	27.20	1.38	-1.500			
0.8169	52283.42	3.2920	3.2920	-0.3839	27.21	1.39	-1.500			
0.8181	52356.92	3.2890	3.2891	-0.3742	27.22	1.40	-1.500			
0.8192	52427.50	3.2860	3.2860	-0.3661	27.22	1.40	-1.500			
0.8203	52496.62	3.2830	3.2829	-0.3578	27.23	1.41	-1.500			
0.8213	52564.26	3.2800	3.2800	-0.3505	27.24	1.42	-1.500			
0.8224	52630.62	3.2770	3.2769	-0.3444	27.24	1.42	-1.500			
0.8234	52696.65	3.2740	3.2740	-0.3375	27.25	1.43	-1.500			
0.8244	52761.13	3.2710	3.2710	-0.3295	27.25	1.43	-1.500			
0.8254	52824.58	3.2680	3.2679	-0.3219	27.26	1.44	-1.500			
0.8263	52884.95	3.2650	3.2652	-0.3118	27.26	1.44	-1.500			
0.8273	52944.06	3.2620	3.2620	-0.3035	27.27	1.45	-1.500			
0.8281	53000.79	3.2590	3.2590	-0.2960	27.27	1.45	-1.500			
0.8290	53056.42	3.2560	3.2560	-0.2907	27.28	1.46	-1.500			
0.8299	53111.43	3.2530	3.2530	-0.2862	27.28	1.46	-1.500			
0.8307	53165.97	3.2500	3.2500	-0.2806	27.29	1.47	-1.500			
0.8316	53220.11	3.2470	3.2469	-0.2768	27.29	1.47	-1.500			
0.8324	53272.70	3.2440	3.2441	-0.2712	27.30	1.48	-1.500			
0.8332	53324.20	3.2410	3.2409	-0.2667	27.30	1.48	-1.500			
0.8340	53374.47	3.2380	3.2381	-0.2619	27.31	1.49	-1.500			
0.8348	53424.13	3.2350	3.2349	-0.2567	27.31	1.49	-1.500			
0.8355	53473.47	3.2320	3.2320	-0.2533	27.32	1.50	-1.500			
0.8363	53521.87	3.2290	3.2291	-0.2498	27.32	1.50	-1.500			
0.8370	53569.27	3.2260	3.2260	-0.2452	27.33	1.51	-1.500			
0.8378	53616.16	3.2230	3.2230	-0.2414	27.33	1.51	-1.500			
0.8385	53661.89	3.2200	3.2200	-0.2356	27.34	1.52	-1.500			
0.8392	53706.63	3.2170	3.2170	-0.2322	27.34	1.52	-1.500			
0.8399	53750.57	3.2140	3.2140	-0.2295	27.35	1.53	-1.500			
0.8405	53794.24	3.2110	3.2111	-0.2266	27.36	1.54	-1.500			
0.8412	53837.33	3.2080	3.2079	-0.2240	27.36	1.54	-1.500			
0.8419	53880.01	3.2050	3.2050	-0.2205	27.37	1.55	-1.500			
0.8425	53922.27	3.2020	3.2021	-0.2179	27.37	1.55	-1.500			
0.8432	53964.09	3.1990	3.1990	-0.2153	27.38	1.56	-1.500			
0.8438	54005.46	3.1960	3.1961	-0.2128	27.38	1.56	-1.500			
0.8445	54045.45	3.1930	3.1929	-0.2100	27.39	1.57	-1.500			
0.8451	54085.41	3.1900	3.1899	-0.2066	27.39	1.57	-1.500			
0.8457	54124.87	3.1870	3.1870	-0.2045	27.40	1.58	-1.500			
0.8463	54163.92	3.1840	3.1840	-0.2024	27.40	1.58	-1.500			
0.8469	54202.75	3.1810	3.1811	-0.2009	27.41	1.59	-1.500			
0.8475	54241.12	3.1780	3.1780	-0.1982	27.41	1.59	-1.500			
0.8481	54278.94	3.1750	3.1749	-0.1958	27.42	1.60	-1.500			
0.8487	54316.30	3.1720	3.1720	-0.1933	27.42	1.60	-1.500			
0.8493	54353.03	3.1690	3.1691	-0.1909	27.43	1.61	-1.500			
0.8498	54389.55	3.1660	3.1660	-0.1897	27.43	1.61	-1.500			
0.8504	54425.78	3.1630	3.1630	-0.1876	27.44	1.62	-1.500			
0.8510	54461.37	3.1600	3.1600	-0.1854	27.44	1.62	-1.500			
0.8515	54496.61	3.1570	3.1570	-0.1839	27.45	1.63	-1.500			
0.8521	54532.01	3.1540	3.1541	-0.1826	27.45	1.63	-1.500			
0.8526	54566.91	3.1510	3.1510	-0.1808	27.46	1.64	-1.500			
0.8531	54601.53	3.1480	3.1480	-0.1791	27.46	1.64	-1.500			
0.8537	54635.76	3.1450	3.1450	-0.1774	27.47	1.65	-1.500			
0.8542	54669.29	3.1420	3.1420	-0.1762	27.47	1.65	-1.500			
0.8547	54703.53	3.1390	3.1390	-0.1745	27.48	1.66	-1.500			
0.8553	54736.83	3.1360	3.1359	-0.1724	27.48	1.66	-1.500			
0.8558	54769.81	3.1330	3.1329	-0.1697	27.49	1.67	-1.500			
0.8563	54801.95	3.1300	3.1303	-0.1690	27.49	1.67	-1.500			
0.8568	54834.03	3.1270	3.1271	-0.1674	27.50	1.68	-1.500			
0.8573	54866.06	3.1240	3.1238	-0.1663	27.50	1.68	-1.500			
0.8578	54897.78	3.1210	3.1209	-0.1642	27.51	1.69	-1.500			
0.8583	54928.67	3.1180	3.1182	-0.1634	27.51	1.69	-1.500			
0.8588	54960.72	3.1150	3.1150	-0.1637	27.52	1.70	-1.500			
0.8592	54992.00	3.1120	3.1120	-0.1621	27.52	1.70	-1.500			
0.8597	55023.07	3.1090	3.1088	-0.1609	27.52	1.70	-1.500			
0.8602	55053.32	3.1060	3.1062	-0.1594	27.53	1.71	-1.500			
0.8607	55083.98	3.1030	3.1030	-0.1591	27.53	1.71	-1.500			
0.8612	55114.52	3.1000	3.1000	-0.1578	27.54	1.72	-1.500			
0.8616	55144.93	3.0970	3.0969	-0.1568	27.54	1.72	-1.500			
0.8621	55174.55	3.0940	3.0941	-0.1550	27.55	1.73	-1.500			
0.8626	55204.46	3.0910	3.0911	-0.1549	27.55	1.73	-1.500			
0.8630	55234.07	3.0880	3.0879	-0.1536	27.56	1.74	-1.500			
0.8635	55263.33	3.0850	3.0850	-0.1523	27.56	1.74	-1.500			
0.8639	55292.29	3.0820	3.0821	-0.1511	27.57	1.75	-1.500			
0.8644	55321.34	3.0790	3.0789	-0.1506	27.57	1.75	-1.500			
0.8648	55350.19	3.0760	3.0760	-0.1494	27.58	1.76	-1.500			
0.8653	55378.94	3.0730	3.0730	-0.1477	27.58	1.76	-1.500			
0.8657	55406.98	3.0700	3.0700	-0.1468	27.59	1.77	-1.500			
0.8662	55435.06	3.0670	3.0671	-0.1456	27.60	1.78	-1.500			
0.8666	55462.80	3.0640	3.0640	-0.1447	27.60	1.78	-1.500			
0.8670	55490.23	3.0610	3.0609	-0.1445	27.61	1.79	-1.500			
0.8675	55518.07	3.0580	3.0580	-0.1433	27.61	1.79	-1.500			
0.8679	55545.55	3.0550	3.0550	-0.1429	27.62	1.80	-1.500			
0.8683	55573.10	3.0520	3.0520	-0.1423	27.62	1.80	-1.500			
0.8688	55600.71	3.0490	3.0491	-0.1415	27.63	1.81	-1.500			
0.8692	55627.54	3.0460	3.0460	-0.1400	27.63	1.81	-1.500			
0.8696	55654.29	3.0430	3.0429	-0.1387	27.64	1.82	-1.500			
0.8700	55680.84	3.0400	3.0400	-0.1376	27.64	1.82	-1.500			
0.8704	55706.77	3.0370	3.0370	-0.1366	27.65	1.83	-1.500			
0.8708	55733.03	3.0340	3.0340	-0.1367	27.65	1.83	-1.500			
0.8712	55759.24	3.0310	3.0311	-0.1363	27.66	1.84	-1.500			
0.8716	55785.30	3.0280	3.0279	-0.1352	27.66	1.84	-1.500			
0.8721	55811.38	3.0250	3.0251	-0.1347	27.67	1.85	-1.500			
0.8725	55837.23	3.0220	3.0220	-0.1339	27.67	1.85	-1.500			
0.8729	55862.92	3.0190	3.0190	-0.1324	27.68	1.86	-1.500			
0.8733	55888.32	3.0160	3.0159	-0.1315	27.68	1.86	-1.500			
0.8736	55913.08	3.0130	3.0131	-0.1305	27.68	1.86	-1.500			
0.8740	55937.85	3.0100	3.0101	-0.1296	27.69	1.87	-1.500			
0.8744	55962.74	3.0070	3.0069	-0.1296	27.69	1.87	-1.500			
0.8748	55987.57	3.0040	3.0039	-0.1299	27.70	1.88	-1.500			
0.8752	56012.55	3.0010	3.0010	-0.1343	27.70	1.88	-1.500			
