Ah_balance (normalized)	Ah_balance (mAh)	Voltage - fit (V)	Voltage -  interpolate (V)	dQ/dV (1/V)	Temperature (°C)	Temperature - diff (°C)	Current (C)	R_DC 0ms (mOhm)	R_DC 50ms (mOhm)	R_DC 50 ms PEC (mOhm)
0.2731	17478.30	3.9860	3.9860	0.8546	27.04	1.12	1.500			
0.2756	17641.41	3.9830	3.9830	0.8485	27.04	1.12	1.500			
0.2782	17803.54	3.9800	3.9800	0.8515	27.03	1.11	1.500			
0.2808	17968.03	3.9770	3.9770	0.8563	27.03	1.11	1.500			
0.2833	18132.88	3.9740	3.9739	0.8614	27.02	1.10	1.500			
0.2859	18298.23	3.9710	3.9710	0.8688	27.02	1.10	1.500			
0.2885	18466.50	3.9680	3.9680	0.8739	27.01	1.09	1.500			
0.2912	18635.43	3.9650	3.9650	0.8791	27.01	1.09	1.500			
0.2938	18805.45	3.9620	3.9621	0.8775	27.00	1.08	1.500			
0.2965	18973.49	3.9590	3.9590	0.8740	27.00	1.08	1.500			
0.2991	19141.11	3.9560	3.9560	0.8774	26.99	1.07	1.500			
0.3017	19307.58	3.9530	3.9531	0.8783	26.99	1.07	1.500			
0.3043	19475.52	3.9500	3.9497	0.8824	26.98	1.06	1.500			
0.3070	19646.68	3.9470	3.9471	0.8871	26.97	1.05	1.500			
0.3096	19817.39	3.9440	3.9440	0.8921	26.97	1.05	1.500			
0.3124	19991.16	3.9410	3.9410	0.8998	26.96	1.04	1.500			
0.3150	20161.54	3.9380	3.9380	0.8998	26.96	1.04	1.500			
0.3177	20335.26	3.9350	3.9350	0.9094	26.95	1.03	1.500			
0.3205	20511.06	3.9320	3.9320	0.9135	26.95	1.03	1.500			
0.3233	20688.23	3.9290	3.9290	0.9172	26.94	1.02	1.500			
0.3260	20865.33	3.9260	3.9261	0.9232	26.94	1.02	1.500			
0.3288	21042.22	3.9230	3.9230	0.9233	26.93	1.01	1.500			
0.3315	21218.54	3.9200	3.9200	0.9306	26.93	1.01	1.500			
0.3343	21397.05	3.9170	3.9170	0.9364	26.92	1.00	1.500			
0.3371	21577.21	3.9140	3.9140	0.9433	26.91	0.99	1.500			
0.3400	21760.35	3.9110	3.9110	0.9512	26.91	0.99	1.500			
0.3429	21944.48	3.9080	3.9081	0.9613	26.90	0.98	1.500			
0.3458	22129.17	3.9050	3.9050	0.9654	26.90	0.98	1.500			
0.3487	22315.36	3.9020	3.9020	0.9702	26.89	0.97	1.500			
0.3516	22500.95	3.8990	3.8990	0.9748	26.89	0.97	1.500			
0.3545	22689.42	3.8960	3.8960	0.9793	26.88	0.96	1.500			
0.3575	22877.38	3.8930	3.8930	0.9877	26.87	0.95	1.500			
0.3604	23066.96	3.8900	3.8900	0.9998	26.87	0.95	1.500			
0.3634	23259.35	3.8870	3.8870	1.0094	26.86	0.94	1.500			
0.3665	23455.07	3.8840	3.8840	1.0197	26.85	0.93	1.500			
0.3696	23651.39	3.8810	3.8810	1.0303	26.84	0.92	1.500			
0.3727	23849.97	3.8780	3.8781	1.0408	26.84	0.92	1.500			
0.3758	24051.15	3.8750	3.8750	1.0537	26.83	0.91	1.500			
0.3790	24253.89	3.8720	3.8718	1.0588	26.82	0.90	1.500			
0.3822	24457.72	3.8690	3.8691	1.0671	26.81	0.89	1.500			
0.3854	24664.23	3.8660	3.8660	1.0818	26.80	0.88	1.500			
0.3886	24873.24	3.8630	3.8631	1.0989	26.79	0.87	1.500			
0.3919	25084.62	3.8600	3.8600	1.1039	26.78	0.86	1.500			
0.3953	25297.12	3.8570	3.8569	1.1267	26.78	0.86	1.500			
0.3987	25515.62	3.8540	3.8541	1.1453	26.77	0.85	1.500			
0.4022	25738.78	3.8510	3.8510	1.1643	26.76	0.84	1.500			
0.4057	25963.43	3.8480	3.8481	1.1773	26.75	0.83	1.500			
0.4092	26190.80	3.8450	3.8450	1.1908	26.74	0.82	1.500			
0.4128	26420.66	3.8420	3.8420	1.2049	26.73	0.81	1.500			
0.4165	26654.25	3.8390	3.8390	1.2231	26.72	0.80	1.500			
0.4201	26887.78	3.8360	3.8360	1.2378	26.71	0.79	1.500			
0.4239	27127.30	3.8330	3.8330	1.2656	26.70	0.78	1.500			
0.4277	27371.45	3.8300	3.8300	1.2919	26.68	0.76	1.500			
0.4316	27621.82	3.8270	3.8270	1.3200	26.67	0.75	1.500			
0.4356	27878.37	3.8240	3.8240	1.3477	26.66	0.74	1.500			
0.4397	28140.88	3.8210	3.8210	1.3731	26.65	0.73	1.500			
0.4439	28407.09	3.8180	3.8180	1.3989	26.63	0.71	1.500			
0.4481	28677.79	3.8150	3.8150	1.4272	26.62	0.70	1.500			
0.4524	28952.71	3.8120	3.8120	1.4533	26.61	0.69	1.500			
0.4568	29235.21	3.8090	3.8089	1.4784	26.59	0.67	1.500			
0.4613	29522.50	3.8060	3.8060	1.5059	26.57	0.65	1.500			
0.4658	29812.09	3.8030	3.8031	1.5408	26.56	0.64	1.500			
0.4705	30111.07	3.8000	3.8000	1.5772	26.54	0.62	1.500			
0.4753	30416.34	3.7970	3.7969	1.6054	26.52	0.60	1.500			
0.4801	30728.12	3.7940	3.7940	1.6384	26.51	0.59	1.500			
0.4851	31046.77	3.7910	3.7911	1.6751	26.49	0.57	1.500			
0.4902	31375.38	3.7880	3.7879	1.6999	26.47	0.55	1.500			
0.4954	31703.46	3.7850	3.7850	1.7216	26.46	0.54	1.500			
0.5005	32032.16	3.7820	3.7821	1.7613	26.44	0.52	1.500			
0.5059	32375.06	3.7790	3.7790	1.7951	26.43	0.51	1.500			
0.5113	32725.28	3.7760	3.7760	1.8238	26.41	0.49	1.500			
0.5169	33079.38	3.7730	3.7730	1.8433	26.39	0.47	1.500	0.351	0.459	
0.5224	33436.42	3.7700	3.7700	1.8487	26.38	0.46	1.500			
0.5280	33793.33	3.7670	3.7670	1.8493	26.36	0.44	1.500			
0.5336	34147.45	3.7640	3.7640	1.8457	26.35	0.43	1.500			
0.5391	34502.31	3.7610	3.7610	1.8437	26.33	0.41	1.500			
0.5446	34857.00	3.7580	3.7580	1.8463	26.31	0.39	1.500			
0.5502	35212.43	3.7550	3.7550	1.8437	26.29	0.37	1.500			
0.5557	35566.57	3.7520	3.7520	1.8431	26.28	0.36	1.500			
0.5613	35920.17	3.7490	3.7489	1.8472	26.26	0.34	1.500			
0.5667	36269.44	3.7460	3.7460	1.8581	26.25	0.33	1.500			
0.5723	36624.05	3.7430	3.7430	1.8763	26.24	0.32	1.500			
0.5780	36988.88	3.7400	3.7399	1.9108	26.22	0.30	1.500			
0.5838	37360.71	3.7370	3.7371	1.9496	26.21	0.29	1.500			
0.5897	37740.09	3.7340	3.7340	1.9622	26.19	0.27	1.500			
0.5956	38118.82	3.7310	3.7311	2.0044	26.18	0.26	1.500			
0.6016	38504.37	3.7280	3.7280	2.0503	26.17	0.25	1.500			
0.6078	38901.37	3.7250	3.7251	2.1220	26.15	0.23	1.500			
0.6143	39317.47	3.7220	3.7220	2.1871	26.14	0.22	1.500			
0.6211	39747.95	3.7190	3.7190	2.2416	26.13	0.21	1.500			
0.6278	40179.25	3.7160	3.7161	2.2932	26.12	0.20	1.500			
0.6347	40623.46	3.7130	3.7130	2.3560	26.11	0.19	1.500			
0.6419	41078.48	3.7100	3.7100	2.3915	26.09	0.17	1.500			
0.6492	41545.80	3.7070	3.7071	2.4544	26.07	0.15	1.500			
0.6566	42021.88	3.7040	3.7040	2.4786	26.06	0.14	1.500			
0.6641	42503.90	3.7010	3.7010	2.4297	26.05	0.13	1.500			
0.6714	42968.11	3.6980	3.6980	2.3383	26.05	0.13	1.500			
0.6783	43410.09	3.6950	3.6949	2.2079	26.04	0.12	1.500			
0.6847	43819.05	3.6920	3.6921	2.0554	26.04	0.12	1.500			
0.6906	44199.72	3.6890	3.6890	1.9055	26.03	0.11	1.500			
0.6961	44547.33	3.6860	3.6860	1.7616	26.03	0.11	1.500			
0.7010	44864.84	3.6830	3.6830	1.6329	26.02	0.10	1.500			
0.7057	45163.71	3.6800	3.6800	1.5377	26.02	0.10	1.500			
0.7101	45447.39	3.6770	3.6770	1.4580	26.01	0.09	1.500			
0.7143	45715.65	3.6740	3.6740	1.3893	26.00	0.08	1.500			
0.7184	45975.58	3.6710	3.6709	1.3373	26.00	0.08	1.500			
0.7222	46220.96	3.6680	3.6681	1.3012	25.99	0.07	1.500			
0.7260	46465.44	3.6650	3.6650	1.2830	25.99	0.07	1.500			
0.7298	46707.05	3.6620	3.6619	1.2734	25.98	0.06	1.500			
0.7336	46950.40	3.6590	3.6591	1.2696	25.98	0.06	1.500			
0.7374	47193.84	3.6560	3.6560	1.2686	25.97	0.05	1.500			
0.7412	47438.93	3.6530	3.6529	1.2718	25.97	0.05	1.500			
0.7450	47681.00	3.6500	3.6501	1.2800	25.97	0.05	1.500			
0.7488	47926.23	3.6470	3.6470	1.2876	25.96	0.04	1.500			
0.7527	48175.61	3.6440	3.6439	1.2927	25.96	0.04	1.500			
0.7567	48426.18	3.6410	3.6410	1.2980	25.96	0.04	1.500			
0.7606	48677.77	3.6380	3.6381	1.3012	25.95	0.03	1.500			
0.7645	48929.15	3.6350	3.6350	1.2966	25.94	0.02	1.500			
0.7684	49178.08	3.6320	3.6320	1.2889	25.94	0.02	1.500			
0.7722	49422.43	3.6290	3.6290	1.2841	25.93	0.01	1.500			
0.7761	49668.19	3.6260	3.6261	1.2857	25.93	0.01	1.500			
0.7799	49915.03	3.6230	3.6229	1.2891	25.92	-0.00	1.500			
0.7838	50161.62	3.6200	3.6201	1.2889	25.92	-0.00	1.500			
0.7877	50411.38	3.6170	3.6170	1.2881	25.92	-0.00	1.500			
0.7916	50660.37	3.6140	3.6140	1.2781	25.92	-0.00	1.500			
0.7954	50906.46	3.6110	3.6110	1.2740	25.91	-0.01	1.500			
0.7992	51150.10	3.6080	3.6081	1.2616	25.91	-0.01	1.500			
0.8030	51391.39	3.6050	3.6049	1.2491	25.91	-0.01	1.500			
0.8067	51630.33	3.6020	3.6020	1.2349	25.91	-0.01	1.500			
0.8104	51866.66	3.5990	3.5990	1.2181	25.91	-0.01	1.500			
0.8141	52099.40	3.5960	3.5960	1.2018	25.91	-0.01	1.500			
0.8177	52331.34	3.5930	3.5930	1.1811	25.92	-0.00	1.500			
0.8211	52552.86	3.5900	3.5900	1.1625	25.92	-0.00	1.500			
0.8246	52777.32	3.5870	3.5870	1.1361	25.92	-0.00	1.500			
0.8281	52995.71	3.5840	3.5839	1.1025	25.92	-0.00	1.500			
0.8314	53208.84	3.5810	3.5811	1.0399	25.92	0.00	1.500			
0.8345	53410.41	3.5780	3.5781	0.9715	25.92	0.00	1.500			
0.8374	53593.20	3.5750	3.5750	0.8671	25.92	0.00	1.500			
0.8399	53755.36	3.5720	3.5720	0.7575	25.92	0.00	1.500			
0.8420	53886.46	3.5690	3.5690	0.6393	25.93	0.01	1.500			
0.8437	53996.09	3.5660	3.5660	0.5327	25.93	0.01	1.500			
0.8450	54082.05	3.5630	3.5630	0.4379	25.93	0.01	1.500			
0.8462	54153.91	3.5600	3.5598	0.3704	25.93	0.01	1.500			
0.8471	54212.27	3.5570	3.5570	0.3123	25.93	0.01	1.500			
0.8479	54265.18	3.5540	3.5540	0.2742	25.93	0.01	1.500			
0.8486	54312.09	3.5510	3.5509	0.2397	25.93	0.01	1.500			
0.8493	54354.24	3.5480	3.5479	0.2157	25.93	0.01	1.500			
0.8499	54390.90	3.5450	3.5450	0.1931	25.93	0.01	1.500			
0.8504	54425.89	3.5420	3.5421	0.1768	25.93	0.01	1.500			
0.8509	54458.35	3.5390	3.5389	0.1613	25.93	0.01	1.500			
0.8514	54487.26	3.5360	3.5359	0.1467	25.93	0.01	1.500			
0.8518	54513.66	3.5330	3.5330	0.1321	25.93	0.01	1.500			
0.8522	54537.88	3.5300	3.5300	0.1180	25.93	0.01	1.500			
0.8525	54559.22	3.5270	3.5271	0.1042	25.93	0.01	1.500			
0.8528	54578.23	3.5240	3.5241	0.0907	25.93	0.01	1.500			
0.8530	54594.30	3.5210	3.5211	0.0765	25.93	0.01	1.500			
0.8532	54607.62	3.5180	3.5183	0.0623	25.93	0.01	1.500			
0.8534	54618.47	3.5150	3.5154	0.0469	25.93	0.01	1.500			
0.8535	54626.02	3.5120	3.5128	0.0317	25.93	0.01	1.500			
