Ah_balance (normalized)	Ah_balance (mAh)	Voltage - fit (V)	Voltage -  interpolate (V)	dQ/dV (1/V)	Temperature (°C)	Temperature - diff (°C)	Current (C)	R_DC 0ms (mOhm)	R_DC 50ms (mOhm)	R_DC 50 ms PEC (mOhm)
0.1957	12524.65	3.9370	3.9367	-0.1088	25.58	0.02	-0.750			
0.1961	12551.38	3.9340	3.9338	-0.1633	25.58	0.02	-0.750			
0.1967	12587.18	3.9310	3.9309	-0.2112	25.57	0.01	-0.750			
0.1974	12633.40	3.9280	3.9280	-0.2565	25.57	0.01	-0.750			
0.1982	12686.81	3.9250	3.9251	-0.3015	25.57	0.01	-0.750			
0.1992	12749.05	3.9220	3.9220	-0.3474	25.57	0.01	-0.750			
0.2003	12820.97	3.9190	3.9190	-0.3894	25.57	0.01	-0.750			
0.2016	12900.13	3.9160	3.9159	-0.4311	25.57	0.01	-0.750			
0.2029	12987.48	3.9130	3.9131	-0.4675	25.56	0.00	-0.750			
0.2044	13081.77	3.9100	3.9100	-0.5037	25.56	0.00	-0.750			
0.2060	13182.84	3.9070	3.9070	-0.5317	25.56	-0.00	-0.750			
0.2076	13288.11	3.9040	3.9040	-0.5589	25.56	-0.00	-0.750			
0.2093	13398.28	3.9010	3.9011	-0.5821	25.55	-0.01	-0.750			
0.2111	13513.57	3.8980	3.8979	-0.6047	25.55	-0.01	-0.750			
0.2130	13632.23	3.8950	3.8950	-0.6212	25.55	-0.01	-0.750			
0.2149	13754.05	3.8920	3.8920	-0.6352	25.54	-0.02	-0.750			
0.2168	13878.07	3.8890	3.8890	-0.6488	25.54	-0.02	-0.750			
0.2188	14005.01	3.8860	3.8860	-0.6583	25.54	-0.02	-0.750			
0.2208	14132.44	3.8830	3.8830	-0.6624	25.54	-0.02	-0.750			
0.2228	14260.11	3.8800	3.8800	-0.6685	25.54	-0.02	-0.750			
0.2248	14388.70	3.8770	3.8771	-0.6743	25.55	-0.01	-0.750			
0.2269	14518.68	3.8740	3.8740	-0.6807	25.55	-0.01	-0.750			
0.2289	14649.82	3.8710	3.8709	-0.6858	25.55	-0.01	-0.750			
0.2310	14782.09	3.8680	3.8680	-0.6879	25.55	-0.01	-0.750			
0.2331	14916.30	3.8650	3.8650	-0.6925	25.55	-0.01	-0.750			
0.2351	15048.86	3.8620	3.8620	-0.6967	25.55	-0.01	-0.750			
0.2372	15183.00	3.8590	3.8590	-0.6955	25.55	-0.01	-0.750			
0.2393	15315.84	3.8560	3.8560	-0.6953	25.55	-0.01	-0.750			
0.2414	15449.20	3.8530	3.8530	-0.6972	25.55	-0.01	-0.750			
0.2435	15583.94	3.8500	3.8501	-0.6984	25.55	-0.01	-0.750			
0.2456	15718.20	3.8470	3.8469	-0.6999	25.55	-0.01	-0.750			
0.2477	15851.88	3.8440	3.8440	-0.7036	25.55	-0.01	-0.750			
0.2498	15987.95	3.8410	3.8411	-0.7000	25.55	-0.01	-0.750			
0.2519	16123.73	3.8380	3.8379	-0.7012	25.55	-0.01	-0.750			
0.2540	16257.58	3.8350	3.8350	-0.6996	25.55	-0.01	-0.750			
0.2561	16390.95	3.8320	3.8321	-0.6985	25.55	-0.01	-0.750			
0.2582	16525.29	3.8290	3.8289	-0.6974	25.55	-0.01	-0.750			
0.2603	16658.42	3.8260	3.8260	-0.6971	25.55	-0.01	-0.750			
0.2624	16791.72	3.8230	3.8230	-0.6949	25.54	-0.02	-0.750			
0.2645	16927.09	3.8200	3.8200	-0.6996	25.54	-0.02	-0.750			
0.2666	17061.12	3.8170	3.8169	-0.6973	25.54	-0.02	-0.750			
0.2687	17194.54	3.8140	3.8140	-0.6956	25.54	-0.02	-0.750			
0.2707	17327.80	3.8110	3.8110	-0.6951	25.54	-0.02	-0.750			
0.2728	17460.89	3.8080	3.8080	-0.6985	25.55	-0.01	-0.750			
0.2749	17595.19	3.8050	3.8050	-0.6964	25.55	-0.01	-0.750			
0.2770	17729.74	3.8020	3.8020	-0.6975	25.55	-0.01	-0.750			
0.2791	17863.61	3.7990	3.7990	-0.6967	25.56	-0.00	-0.750			
0.2812	17997.38	3.7960	3.7960	-0.6966	25.56	0.00	-0.750			
0.2833	18130.80	3.7930	3.7930	-0.6956	25.56	0.00	-0.750			
0.2854	18263.18	3.7900	3.7899	-0.6980	25.56	0.00	-0.750			
0.2875	18396.99	3.7870	3.7870	-0.6971	25.56	0.00	-0.750			
0.2896	18532.29	3.7840	3.7840	-0.7019	25.56	0.00	-0.750			
0.2917	18667.35	3.7810	3.7809	-0.7047	25.56	0.00	-0.750			
0.2938	18802.70	3.7780	3.7781	-0.7074	25.56	0.00	-0.750			
0.2959	18937.97	3.7750	3.7749	-0.7107	25.56	0.00	-0.750			
0.2980	19075.05	3.7720	3.7720	-0.7168	25.56	0.00	-0.750			
0.3002	19212.50	3.7690	3.7689	-0.7191	25.56	0.00	-0.750			
0.3024	19352.74	3.7660	3.7660	-0.7240	25.56	0.00	-0.750			
0.3046	19492.85	3.7630	3.7630	-0.7263	25.56	0.00	-0.750			
0.3068	19632.65	3.7600	3.7599	-0.7241	25.56	-0.00	-0.750			
0.3089	19771.11	3.7570	3.7570	-0.7254	25.55	-0.01	-0.750			
0.3111	19909.47	3.7540	3.7540	-0.7300	25.55	-0.01	-0.750			
0.3133	20048.06	3.7510	3.7510	-0.7360	25.55	-0.01	-0.750			
0.3155	20191.00	3.7480	3.7480	-0.7446	25.54	-0.02	-0.750			
0.3177	20335.08	3.7450	3.7451	-0.7535	25.54	-0.02	-0.750			
0.3200	20481.54	3.7420	3.7420	-0.7626	25.54	-0.02	-0.750			
0.3223	20629.02	3.7390	3.7389	-0.7703	25.54	-0.02	-0.750			
0.3246	20776.97	3.7360	3.7360	-0.7754	25.53	-0.03	-0.750			
0.3270	20925.86	3.7330	3.7331	-0.7821	25.53	-0.03	-0.750			
0.3293	21077.12	3.7300	3.7300	-0.7898	25.53	-0.03	-0.750			
0.3317	21229.95	3.7270	3.7270	-0.7985	25.53	-0.03	-0.750			
0.3341	21383.19	3.7240	3.7240	-0.8070	25.53	-0.03	-0.750			
0.3366	21539.31	3.7210	3.7210	-0.8136	25.53	-0.03	-0.750			
0.3390	21696.33	3.7180	3.7180	-0.8227	25.52	-0.04	-0.750			
0.3415	21854.45	3.7150	3.7150	-0.8356	25.52	-0.04	-0.750			
0.3440	22015.02	3.7120	3.7120	-0.8469	25.52	-0.04	-0.750			
0.3466	22179.46	3.7090	3.7089	-0.8605	25.52	-0.04	-0.750			
0.3492	22346.53	3.7060	3.7060	-0.8717	25.52	-0.04	-0.750			
0.3518	22514.67	3.7030	3.7030	-0.8838	25.51	-0.05	-0.750			
0.3545	22685.87	3.7000	3.7000	-0.8984	25.51	-0.05	-0.750			
0.3572	22857.77	3.6970	3.6970	-0.9116	25.51	-0.05	-0.750			
0.3599	23033.60	3.6940	3.6939	-0.9272	25.50	-0.06	-0.750			
0.3627	23212.96	3.6910	3.6911	-0.9417	25.50	-0.06	-0.750			
0.3656	23395.60	3.6880	3.6880	-0.9602	25.49	-0.07	-0.750			
0.3685	23583.08	3.6850	3.6851	-0.9838	25.49	-0.07	-0.750			
0.3715	23773.52	3.6820	3.6819	-1.0004	25.48	-0.08	-0.750			
0.3745	23965.50	3.6790	3.6790	-1.0174	25.48	-0.08	-0.750			
0.3775	24162.47	3.6760	3.6761	-1.0394	25.47	-0.09	-0.750			
0.3807	24363.44	3.6730	3.6731	-1.0651	25.47	-0.09	-0.750			
0.3839	24571.20	3.6700	3.6699	-1.0866	25.47	-0.09	-0.750			
0.3872	24780.25	3.6670	3.6670	-1.1109	25.46	-0.10	-0.750			
0.3906	24995.24	3.6640	3.6640	-1.1376	25.46	-0.10	-0.750			
0.3940	25217.23	3.6610	3.6610	-1.1683	25.46	-0.10	-0.750			
0.3976	25444.79	3.6580	3.6579	-1.1943	25.45	-0.11	-0.750			
0.4012	25676.43	3.6550	3.6550	-1.2206	25.45	-0.11	-0.750			
0.4049	25913.31	3.6520	3.6520	-1.2510	25.44	-0.12	-0.750			
0.4087	26158.96	3.6490	3.6489	-1.2794	25.43	-0.13	-0.750			
0.4126	26406.54	3.6460	3.6460	-1.2990	25.43	-0.13	-0.750			
0.4165	26657.70	3.6430	3.6431	-1.3270	25.42	-0.14	-0.750			
0.4205	26914.04	3.6400	3.6399	-1.3524	25.42	-0.14	-0.750			
0.4246	27176.45	3.6370	3.6369	-1.3814	25.42	-0.14	-0.750			
0.4288	27443.06	3.6340	3.6340	-1.4132	25.42	-0.14	-0.750			
0.4331	27716.09	3.6310	3.6310	-1.4408	25.41	-0.15	-0.750			
0.4375	27999.19	3.6280	3.6280	-1.4863	25.40	-0.16	-0.750			
0.4420	28288.99	3.6250	3.6250	-1.5162	25.39	-0.17	-0.750			
0.4466	28582.45	3.6220	3.6219	-1.5479	25.39	-0.17	-0.750			
0.4513	28884.26	3.6190	3.6191	-1.5819	25.39	-0.17	-0.750			
0.4561	29192.22	3.6160	3.6160	-1.6126	25.39	-0.17	-0.750			
0.4610	29504.75	3.6130	3.6131	-1.6428	25.38	-0.18	-0.750			
0.4660	29823.98	3.6100	3.6099	-1.6734	25.37	-0.19	-0.750			
0.4710	30145.78	3.6070	3.6072	-1.7021	25.37	-0.19	-0.750			
0.4762	30477.46	3.6040	3.6041	-1.7426	25.37	-0.19	-0.750			
0.4815	30813.15	3.6010	3.6010	-1.7654	25.37	-0.19	-0.750			
0.4868	31156.74	3.5980	3.5980	-1.7928	25.37	-0.19	-0.750			
0.4923	31506.89	3.5950	3.5950	-1.8289	25.37	-0.19	-0.750			
0.4978	31859.76	3.5920	3.5920	-1.8580	25.37	-0.19	-0.750			
0.5034	32216.29	3.5890	3.5890	-1.8885	25.37	-0.19	-0.750			
0.5091	32581.11	3.5860	3.5861	-1.9121	25.37	-0.19	-0.750			
0.5148	32949.90	3.5830	3.5830	-1.9490	25.37	-0.19	-0.750			
0.5207	33327.97	3.5800	3.5801	-1.9916	25.37	-0.19	-0.750			
0.5268	33717.42	3.5770	3.5769	-2.0089	25.37	-0.19	-0.750			
0.5329	34107.51	3.5740	3.5740	-2.0369	25.37	-0.19	-0.750			
0.5390	34497.77	3.5710	3.5711	-2.0615	25.38	-0.18	-0.750	0.387	0.546	
0.5453	34897.97	3.5680	3.5679	-2.0772	25.39	-0.17	-0.750			
0.5515	35296.46	3.5650	3.5650	-2.0915	25.40	-0.16	-0.750			
0.5579	35703.03	3.5620	3.5621	-2.1116	25.40	-0.16	-0.750			
0.5642	36110.65	3.5590	3.5590	-2.1141	25.41	-0.15	-0.750			
0.5706	36520.71	3.5560	3.5560	-2.1188	25.42	-0.14	-0.750			
0.5770	36925.49	3.5530	3.5530	-2.1130	25.42	-0.14	-0.750			
0.5833	37330.50	3.5500	3.5500	-2.1043	25.42	-0.14	-0.750			
0.5896	37736.86	3.5470	3.5468	-2.1038	25.43	-0.13	-0.750			
0.5959	38139.29	3.5440	3.5440	-2.0930	25.45	-0.11	-0.750			
0.6022	38541.91	3.5410	3.5411	-2.0756	25.46	-0.10	-0.750			
0.6085	38942.35	3.5380	3.5379	-2.0699	25.48	-0.08	-0.750			
0.6146	39335.95	3.5350	3.5350	-2.0333	25.49	-0.07	-0.750			
0.6207	39722.61	3.5320	3.5320	-1.9917	25.50	-0.06	-0.750			
0.6267	40106.53	3.5290	3.5290	-1.9715	25.51	-0.05	-0.750			
0.6325	40480.30	3.5260	3.5260	-1.9253	25.52	-0.04	-0.750			
0.6382	40846.91	3.5230	3.5229	-1.8851	25.53	-0.03	-0.750			
0.6438	41200.67	3.5200	3.5202	-1.8439	25.54	-0.02	-0.750			
0.6493	41554.65	3.5170	3.5170	-1.8070	25.55	-0.01	-0.750			
0.6546	41896.99	3.5140	3.5140	-1.7577	25.56	-0.00	-0.750			
0.6598	42229.73	3.5110	3.5110	-1.7092	25.57	0.01	-0.750			
0.6650	42556.85	3.5080	3.5079	-1.6661	25.59	0.03	-0.750			
0.6699	42870.82	3.5050	3.5050	-1.6134	25.61	0.05	-0.750			
0.6746	43174.59	3.5020	3.5020	-1.5611	25.62	0.06	-0.750			
0.6792	43466.97	3.4990	3.4990	-1.5119	25.64	0.08	-0.750			
0.6836	43752.94	3.4960	3.4960	-1.4686	25.65	0.09	-0.750			
0.6880	44032.25	3.4930	3.4930	-1.4294	25.66	0.10	-0.750			
0.6922	44301.69	3.4900	3.4900	-1.3887	25.68	0.12	-0.750			
0.6963	44564.46	3.4870	3.4870	-1.3495	25.69	0.13	-0.750			
0.7003	44820.34	3.4840	3.4840	-1.3079	25.69	0.13	-0.750			
0.7042	45067.59	3.4810	3.4810	-1.2687	25.70	0.14	-0.750			
0.7079	45305.95	3.4780	3.4780	-1.2333	25.71	0.15	-0.750			
0.7115	45538.89	3.4750	3.4750	-1.2000	25.72	0.16	-0.750			
0.7151	45765.60	3.4720	3.4719	-1.1700	25.73	0.17	-0.750			
0.7185	45984.59	3.4690	3.4691	-1.1482	25.74	0.18	-0.750			
0.7219	46202.65	3.4660	3.4659	-1.1305	25.75	0.19	-0.750			
0.7253	46418.83	3.4630	3.4630	-1.1144	25.76	0.20	-0.750			
0.7286	46630.52	3.4600	3.4599	-1.0966	25.77	0.21	-0.750			
0.7319	46839.70	3.4570	3.4571	-1.0910	25.77	0.21	-0.750			
0.7351	47047.80	3.4540	3.4540	-1.0859	25.78	0.22	-0.750			
0.7383	47253.88	3.4510	3.4509	-1.0799	25.79	0.23	-0.750			
0.7415	47459.01	3.4480	3.4480	-1.0715	25.80	0.24	-0.750			
0.7448	47666.55	3.4450	3.4451	-1.0763	25.80	0.24	-0.750			
0.7480	47875.13	3.4420	3.4420	-1.0760	25.81	0.25	-0.750			
0.7513	48082.08	3.4390	3.4389	-1.0677	25.81	0.25	-0.750			
0.7545	48285.43	3.4360	3.4360	-1.0566	25.82	0.26	-0.750			
0.7576	48488.41	3.4330	3.4330	-1.0505	25.82	0.26	-0.750			
0.7608	48689.80	3.4300	3.4300	-1.0419	25.83	0.27	-0.750			
0.7639	48889.81	3.4270	3.4269	-1.0284	25.83	0.27	-0.750			
0.7670	49085.68	3.4240	3.4240	-1.0121	25.84	0.28	-0.750			
0.7700	49279.72	3.4210	3.4210	-1.0010	25.85	0.29	-0.750			
0.7730	49470.57	3.4180	3.4180	-0.9844	25.86	0.30	-0.750			
0.7759	49658.19	3.4150	3.4149	-0.9659	25.87	0.31	-0.750			
0.7788	49841.38	3.4120	3.4120	-0.9467	25.87	0.31	-0.750			
0.7816	50021.76	3.4090	3.4091	-0.9293	25.88	0.32	-0.750			
0.7844	50199.41	3.4060	3.4060	-0.9103	25.88	0.32	-0.750			
0.7871	50372.67	3.4030	3.4029	-0.8896	25.89	0.33	-0.750			
0.7897	50541.74	3.4000	3.4001	-0.8622	25.89	0.33	-0.750			
0.7923	50705.78	3.3970	3.3970	-0.8390	25.89	0.33	-0.750			
0.7948	50865.65	3.3940	3.3940	-0.8129	25.89	0.33	-0.750			
0.7972	51019.15	3.3910	3.3910	-0.7830	25.90	0.34	-0.750			
0.7995	51165.64	3.3880	3.3880	-0.7522	25.90	0.34	-0.750			
0.8017	51307.29	3.3850	3.3850	-0.7219	25.90	0.34	-0.750			
0.8038	51443.21	3.3820	3.3820	-0.6906	25.91	0.35	-0.750			
0.8058	51572.86	3.3790	3.3790	-0.6626	25.91	0.35	-0.750			
0.8078	51696.60	3.3760	3.3760	-0.6313	25.92	0.36	-0.750			
0.8096	51815.45	3.3730	3.3730	-0.6021	25.92	0.36	-0.750			
0.8114	51928.13	3.3700	3.3700	-0.5726	25.92	0.36	-0.750			
0.8130	52034.65	3.3670	3.3671	-0.5463	25.93	0.37	-0.750			
0.8146	52136.82	3.3640	3.3640	-0.5206	25.93	0.37	-0.750			
0.8162	52233.70	3.3610	3.3609	-0.4964	25.94	0.38	-0.750			
0.8176	52325.84	3.3580	3.3580	-0.4735	25.94	0.38	-0.750			
0.8190	52414.59	3.3550	3.3550	-0.4520	25.94	0.38	-0.750			
0.8203	52499.12	3.3520	3.3520	-0.4328	25.94	0.38	-0.750			
0.8216	52580.07	3.3490	3.3490	-0.4137	25.95	0.39	-0.750			
0.8228	52657.24	3.3460	3.3459	-0.3954	25.95	0.39	-0.750			
0.8239	52731.45	3.3430	3.3430	-0.3793	25.95	0.39	-0.750			
0.8250	52802.43	3.3400	3.3400	-0.3643	25.95	0.39	-0.750			
0.8261	52870.23	3.3370	3.3370	-0.3508	25.95	0.39	-0.750			
0.8271	52936.59	3.3340	3.3340	-0.3386	25.95	0.39	-0.750			
0.8281	52999.85	3.3310	3.3309	-0.3247	25.96	0.40	-0.750			
0.8291	53061.26	3.3280	3.3280	-0.3135	25.96	0.40	-0.750			
0.8300	53120.16	3.3250	3.3250	-0.3028	25.96	0.40	-0.750			
0.8309	53176.88	3.3220	3.3220	-0.2932	25.96	0.40	-0.750			
0.8317	53231.87	3.3190	3.3190	-0.2831	25.97	0.41	-0.750			
0.8326	53285.23	3.3160	3.3161	-0.2751	25.97	0.41	-0.750			
0.8334	53337.09	3.3130	3.3130	-0.2686	25.97	0.41	-0.750			
0.8342	53388.15	3.3100	3.3100	-0.2623	25.98	0.42	-0.750			
0.8350	53437.69	3.3070	3.3070	-0.2555	25.98	0.42	-0.750			
0.8357	53486.08	3.3040	3.3040	-0.2489	25.98	0.42	-0.750			
0.8365	53533.30	3.3010	3.3011	-0.2425	25.98	0.42	-0.750			
0.8372	53579.38	3.2980	3.2980	-0.2373	25.99	0.43	-0.750			
0.8379	53624.40	3.2950	3.2950	-0.2312	25.99	0.43	-0.750			
0.8386	53667.85	3.2920	3.2920	-0.2264	25.99	0.43	-0.750			
0.8392	53710.31	3.2890	3.2890	-0.2216	26.00	0.44	-0.750			
0.8399	53752.58	3.2860	3.2860	-0.2176	26.00	0.44	-0.750			
0.8405	53793.99	3.2830	3.2830	-0.2138	26.00	0.44	-0.750			
0.8412	53834.67	3.2800	3.2800	-0.2104	26.00	0.44	-0.750			
0.8418	53874.78	3.2770	3.2770	-0.2069	26.01	0.45	-0.750			
0.8424	53914.17	3.2740	3.2739	-0.2029	26.01	0.45	-0.750			
0.8430	53952.77	3.2710	3.2710	-0.1991	26.01	0.45	-0.750			
0.8436	53990.52	3.2680	3.2681	-0.1958	26.02	0.46	-0.750			
0.8442	54027.69	3.2650	3.2650	-0.1927	26.02	0.46	-0.750			
0.8448	54064.28	3.2620	3.2620	-0.1899	26.02	0.46	-0.750			
0.8453	54100.48	3.2590	3.2590	-0.1872	26.03	0.47	-0.750			
0.8459	54135.86	3.2560	3.2561	-0.1846	26.03	0.47	-0.750			
0.8464	54171.19	3.2530	3.2530	-0.1821	26.04	0.48	-0.750			
0.8470	54206.10	3.2500	3.2500	-0.1799	26.04	0.48	-0.750			
0.8475	54240.36	3.2470	3.2470	-0.1771	26.04	0.48	-0.750			
0.8480	54274.01	3.2440	3.2440	-0.1748	26.05	0.49	-0.750			
0.8486	54307.33	3.2410	3.2410	-0.1723	26.05	0.49	-0.750			
0.8491	54339.90	3.2380	3.2380	-0.1701	26.05	0.49	-0.750			
0.8496	54372.41	3.2350	3.2350	-0.1685	26.06	0.50	-0.750			
0.8501	54404.50	3.2320	3.2320	-0.1664	26.06	0.50	-0.750			
0.8506	54436.30	3.2290	3.2290	-0.1651	26.07	0.51	-0.750			
0.8511	54467.92	3.2260	3.2260	-0.1634	26.07	0.51	-0.750			
0.8515	54499.12	3.2230	3.2231	-0.1616	26.07	0.51	-0.750			
0.8520	54530.01	3.2200	3.2200	-0.1597	26.08	0.52	-0.750			
0.8525	54560.68	3.2170	3.2171	-0.1578	26.08	0.52	-0.750			
0.8530	54590.50	3.2140	3.2141	-0.1557	26.08	0.52	-0.750			
0.8534	54620.24	3.2110	3.2109	-0.1541	26.09	0.53	-0.750			
0.8539	54649.58	3.2080	3.2080	-0.1529	26.09	0.53	-0.750			
0.8544	54678.59	3.2050	3.2050	-0.1512	26.09	0.53	-0.750			
0.8548	54707.50	3.2020	3.2020	-0.1502	26.10	0.54	-0.750			
0.8553	54736.33	3.1990	3.1990	-0.1489	26.10	0.54	-0.750			
0.8557	54764.98	3.1960	3.1961	-0.1475	26.10	0.54	-0.750			
0.8561	54793.20	3.1930	3.1930	-0.1464	26.11	0.55	-0.750			
0.8566	54821.14	3.1900	3.1900	-0.1447	26.11	0.55	-0.750			
0.8570	54848.65	3.1870	3.1870	-0.1432	26.11	0.55	-0.750			
0.8574	54876.00	3.1840	3.1839	-0.1415	26.12	0.56	-0.750			
0.8579	54903.03	3.1810	3.1810	-0.1401	26.12	0.56	-0.750			
0.8583	54929.80	3.1780	3.1780	-0.1387	26.12	0.56	-0.750			
0.8587	54956.17	3.1750	3.1750	-0.1380	26.13	0.57	-0.750			
0.8591	54982.58	3.1720	3.1720	-0.1368	26.13	0.57	-0.750			
0.8595	55008.55	3.1690	3.1689	-0.1356	26.13	0.57	-0.750			
0.8599	55034.55	3.1660	3.1660	-0.1351	26.14	0.58	-0.750			
0.8603	55060.50	3.1630	3.1631	-0.1341	26.14	0.58	-0.750			
0.8607	55086.38	3.1600	3.1600	-0.1334	26.14	0.58	-0.750			
0.8611	55111.95	3.1570	3.1570	-0.1322	26.15	0.59	-0.750			
0.8615	55137.21	3.1540	3.1540	-0.1307	26.15	0.59	-0.750			
0.8619	55162.03	3.1510	3.1510	-0.1292	26.15	0.59	-0.750			
0.8623	55186.84	3.1480	3.1480	-0.1282	26.16	0.60	-0.750			
0.8627	55211.21	3.1450	3.1450	-0.1272	26.16	0.60	-0.750			
0.8631	55235.29	3.1420	3.1420	-0.1261	26.16	0.60	-0.750			
0.8634	55259.38	3.1390	3.1390	-0.1254	26.17	0.61	-0.750			
0.8638	55283.32	3.1360	3.1360	-0.1248	26.17	0.61	-0.750			
0.8642	55307.36	3.1330	3.1330	-0.1236	26.17	0.61	-0.750			
0.8645	55331.19	3.1300	3.1300	-0.1228	26.17	0.61	-0.750			
0.8649	55354.63	3.1270	3.1271	-0.1218	26.18	0.62	-0.750			
0.8653	55377.98	3.1240	3.1240	-0.1207	26.18	0.62	-0.750			
0.8656	55400.82	3.1210	3.1210	-0.1199	26.18	0.62	-0.750			
0.8660	55423.79	3.1180	3.1180	-0.1193	26.19	0.63	-0.750			
0.8664	55446.52	3.1150	3.1150	-0.1181	26.19	0.63	-0.750			
0.8667	55469.26	3.1120	3.1120	-0.1173	26.19	0.63	-0.750			
0.8671	55491.87	3.1090	3.1090	-0.1168	26.19	0.63	-0.750			
0.8674	55514.20	3.1060	3.1061	-0.1157	26.20	0.64	-0.750			
0.8678	55536.32	3.1030	3.1030	-0.1149	26.20	0.64	-0.750			
0.8681	55558.29	3.1000	3.1001	-0.1139	26.20	0.64	-0.750			
0.8684	55579.96	3.0970	3.0970	-0.1126	26.21	0.65	-0.750			
0.8688	55601.50	3.0940	3.0941	-0.1117	26.21	0.65	-0.750			
0.8691	55622.78	3.0910	3.0911	-0.1114	26.21	0.65	-0.750			
0.8694	55644.10	3.0880	3.0880	-0.1108	26.22	0.66	-0.750			
0.8698	55665.24	3.0850	3.0850	-0.1101	26.22	0.66	-0.750			
0.8701	55686.34	3.0820	3.0819	-0.1097	26.22	0.66	-0.750			
0.8704	55707.49	3.0790	3.0790	-0.1087	26.22	0.66	-0.750			
0.8708	55728.27	3.0760	3.0760	-0.1078	26.23	0.67	-0.750			
0.8711	55749.04	3.0730	3.0731	-0.1073	26.23	0.67	-0.750			
0.8714	55769.53	3.0700	3.0700	-0.1062	26.23	0.67	-0.750			
0.8717	55789.60	3.0670	3.0669	-0.1053	26.24	0.68	-0.750			
0.8720	55809.77	3.0640	3.0640	-0.1048	26.24	0.68	-0.750			
0.8723	55829.70	3.0610	3.0611	-0.1041	26.24	0.68	-0.750			
0.8727	55849.65	3.0580	3.0579	-0.1037	26.25	0.69	-0.750			
0.8730	55869.73	3.0550	3.0550	-0.1032	26.25	0.69	-0.750			
0.8733	55889.46	3.0520	3.0520	-0.1023	26.25	0.69	-0.750			
0.8736	55909.02	3.0490	3.0490	-0.1017	26.26	0.70	-0.750			
0.8739	55928.48	3.0460	3.0460	-0.1009	26.26	0.70	-0.750			
0.8742	55947.72	3.0430	3.0430	-0.1003	26.26	0.70	-0.750			
0.8745	55966.92	3.0400	3.0399	-0.0997	26.26	0.70	-0.750			
0.8748	55986.04	3.0370	3.0370	-0.0987	26.27	0.71	-0.750			
0.8751	56004.93	3.0340	3.0340	-0.0980	26.27	0.71	-0.750			
0.8754	56023.64	3.0310	3.0311	-0.0977	26.27	0.71	-0.750			
0.8757	56042.35	3.0280	3.0280	-0.0971	26.28	0.72	-0.750			
0.8760	56060.83	3.0250	3.0250	-0.0966	26.28	0.72	-0.750			
0.8762	56079.33	3.0220	3.0219	-0.0962	26.28	0.72	-0.750			
0.8765	56097.82	3.0190	3.0191	-0.0955	26.28	0.72	-0.750			
0.8768	56116.11	3.0160	3.0159	-0.0950	26.29	0.73	-0.750			
0.8771	56134.59	3.0130	3.0130	-0.0944	26.29	0.73	-0.750			
0.8774	56152.60	3.0100	3.0100	-0.0932	26.29	0.73	-0.750			
0.8777	56170.41	3.0070	3.0070	-0.0920	26.30	0.74	-0.750			
0.8779	56187.96	3.0040	3.0040	-0.0908	26.30	0.74	-0.750			
0.8782	56205.26	3.0010	3.0010	-0.0891	26.30	0.74	-0.750			
