Ah_balance (normalized)	Ah_balance (mAh)	Voltage - fit (V)	Voltage -  interpolate (V)	dQ/dV (1/V)	Temperature (°C)	Temperature - diff (°C)	Current (C)	R_DC 0ms (mOhm)	R_DC 50ms (mOhm)	R_DC 50 ms PEC (mOhm)
0.3008	19254.16	3.9690	3.9690	0.8639	27.08	1.12	1.500			
0.3035	19420.81	3.9660	3.9660	0.8742	27.07	1.11	1.500			
0.3061	19590.81	3.9630	3.9629	0.8821	27.07	1.11	1.500			
0.3088	19761.38	3.9600	3.9600	0.8842	27.06	1.10	1.500			
0.3114	19932.27	3.9570	3.9570	0.8886	27.06	1.10	1.500			
0.3141	20103.31	3.9540	3.9540	0.8943	27.05	1.09	1.500			
0.3168	20274.92	3.9510	3.9510	0.8942	27.05	1.09	1.500			
0.3195	20446.31	3.9480	3.9481	0.8961	27.05	1.09	1.500			
0.3222	20617.92	3.9450	3.9450	0.9018	27.04	1.08	1.500			
0.3249	20792.07	3.9420	3.9420	0.9066	27.04	1.08	1.500			
0.3276	20966.63	3.9390	3.9389	0.9126	27.03	1.07	1.500			
0.3303	21140.74	3.9360	3.9361	0.9191	27.03	1.07	1.500			
0.3331	21318.25	3.9330	3.9329	0.9244	27.03	1.07	1.500			
0.3359	21498.10	3.9300	3.9300	0.9318	27.02	1.06	1.500			
0.3387	21677.29	3.9270	3.9270	0.9378	27.02	1.06	1.500			
0.3415	21857.48	3.9240	3.9240	0.9393	27.02	1.06	1.500			
0.3444	22039.14	3.9210	3.9210	0.9433	27.01	1.05	1.500			
0.3472	22219.79	3.9180	3.9180	0.9445	27.01	1.05	1.500			
0.3500	22400.78	3.9150	3.9150	0.9499	27.01	1.05	1.500			
0.3529	22583.75	3.9120	3.9120	0.9547	27.00	1.04	1.500			
0.3557	22766.25	3.9090	3.9090	0.9635	27.00	1.04	1.500			
0.3586	22950.31	3.9060	3.9060	0.9761	26.99	1.03	1.500			
0.3616	23141.14	3.9030	3.9030	0.9831	26.98	1.02	1.500			
0.3646	23331.56	3.9000	3.9000	0.9915	26.98	1.02	1.500			
0.3675	23522.40	3.8970	3.8970	1.0024	26.97	1.01	1.500			
0.3706	23716.17	3.8940	3.8941	1.0069	26.97	1.01	1.500			
0.3736	23909.83	3.8910	3.8909	1.0159	26.96	1.00	1.500			
0.3766	24103.10	3.8880	3.8880	1.0255	26.96	1.00	1.500			
0.3797	24300.50	3.8850	3.8851	1.0335	26.95	0.99	1.500			
0.3828	24502.16	3.8820	3.8820	1.0508	26.95	0.99	1.500			
0.3860	24706.40	3.8790	3.8790	1.0576	26.94	0.98	1.500			
0.3892	24909.33	3.8760	3.8760	1.0669	26.94	0.98	1.500			
0.3924	25116.38	3.8730	3.8730	1.0806	26.94	0.98	1.500			
0.3957	25322.15	3.8700	3.8701	1.0950	26.93	0.97	1.500			
0.3990	25533.01	3.8670	3.8669	1.1053	26.93	0.97	1.500			
0.4023	25748.28	3.8640	3.8640	1.1242	26.92	0.96	1.500			
0.4057	25964.32	3.8610	3.8611	1.1416	26.92	0.96	1.500			
0.4092	26186.59	3.8580	3.8580	1.1566	26.91	0.95	1.500			
0.4127	26411.29	3.8550	3.8550	1.1685	26.90	0.94	1.500			
0.4162	26635.74	3.8520	3.8519	1.1849	26.89	0.93	1.500			
0.4197	26863.31	3.8490	3.8490	1.2016	26.89	0.93	1.500			
0.4234	27096.93	3.8460	3.8460	1.2272	26.88	0.92	1.500			
0.4271	27333.85	3.8430	3.8431	1.2440	26.87	0.91	1.500			
0.4309	27574.80	3.8400	3.8399	1.2684	26.86	0.90	1.500			
0.4347	27821.34	3.8370	3.8371	1.2891	26.85	0.89	1.500			
0.4386	28069.13	3.8340	3.8340	1.3164	26.84	0.88	1.500			
0.4426	28323.73	3.8310	3.8309	1.3345	26.83	0.87	1.500			
0.4466	28582.56	3.8280	3.8281	1.3586	26.82	0.86	1.500			
0.4507	28844.35	3.8250	3.8251	1.3856	26.81	0.85	1.500			
0.4549	29114.89	3.8220	3.8219	1.4151	26.80	0.84	1.500			
0.4592	29387.64	3.8190	3.8190	1.4476	26.79	0.83	1.500			
0.4635	29665.13	3.8160	3.8159	1.4896	26.78	0.82	1.500			
0.4680	29954.65	3.8130	3.8131	1.5299	26.77	0.81	1.500			
0.4727	30255.76	3.8100	3.8100	1.5712	26.76	0.80	1.500			
0.4775	30562.39	3.8070	3.8071	1.6064	26.75	0.79	1.500			
0.4824	30875.32	3.8040	3.8040	1.6373	26.74	0.78	1.500			
0.4874	31192.88	3.8010	3.8010	1.6783	26.73	0.77	1.500			
0.4924	31516.04	3.7980	3.7979	1.7121	26.71	0.75	1.500			
0.4976	31846.46	3.7950	3.7950	1.7586	26.70	0.74	1.500			
0.5029	32186.89	3.7920	3.7920	1.8127	26.69	0.73	1.500			
0.5085	32542.63	3.7890	3.7890	1.8664	26.67	0.71	1.500			
0.5141	32904.42	3.7860	3.7860	1.9305	26.66	0.70	1.500			
0.5200	33281.53	3.7830	3.7830	1.9898	26.64	0.68	1.500			
0.5261	33673.04	3.7800	3.7800	2.0261	26.62	0.66	1.500			
0.5323	34069.51	3.7770	3.7770	2.0430	26.60	0.64	1.500			
0.5384	34459.79	3.7740	3.7740	2.0924	26.59	0.63	1.500			
0.5447	34859.21	3.7710	3.7710	2.1313	26.57	0.61	1.500			
0.5512	35275.74	3.7680	3.7681	2.1777	26.55	0.59	1.500			
0.5579	35705.83	3.7650	3.7650	2.2081	26.53	0.57	1.500			
0.5646	36137.59	3.7620	3.7620	2.2190	26.51	0.55	1.500	0.358	0.461	
0.5712	36556.61	3.7590	3.7590	2.1855	26.50	0.54	1.500			
0.5778	36977.57	3.7560	3.7560	2.1598	26.48	0.52	1.500			
0.5842	37388.36	3.7530	3.7530	2.1025	26.46	0.50	1.500			
0.5904	37786.02	3.7500	3.7500	2.0992	26.44	0.48	1.500			
0.5966	38185.04	3.7470	3.7469	2.0886	26.42	0.46	1.500			
0.6029	38583.37	3.7440	3.7440	2.0697	26.41	0.45	1.500			
0.6091	38982.66	3.7410	3.7411	2.0694	26.39	0.43	1.500			
0.6153	39379.54	3.7380	3.7379	2.0789	26.38	0.42	1.500			
0.6214	39769.92	3.7350	3.7350	2.0630	26.36	0.40	1.500			
0.6276	40169.22	3.7320	3.7320	2.0980	26.35	0.39	1.500			
0.6340	40574.03	3.7290	3.7290	2.1248	26.34	0.38	1.500			
0.6404	40985.78	3.7260	3.7260	2.1598	26.33	0.37	1.500			
0.6469	41399.96	3.7230	3.7230	2.2081	26.31	0.35	1.500			
0.6537	41833.97	3.7200	3.7200	2.2526	26.30	0.34	1.500			
0.6604	42268.71	3.7170	3.7170	2.3087	26.29	0.33	1.500			
0.6674	42712.04	3.7140	3.7140	2.4207	26.27	0.31	1.500			
0.6747	43182.95	3.7110	3.7109	2.5351	26.26	0.30	1.500			
0.6825	43682.02	3.7080	3.7080	2.6274	26.24	0.28	1.500			
0.6908	44210.61	3.7050	3.7050	2.7203	26.23	0.27	1.500			
0.6990	44734.46	3.7020	3.7019	2.7504	26.21	0.25	1.500			
0.7072	45263.44	3.6990	3.6991	2.7635	26.20	0.24	1.500			
0.7158	45808.36	3.6960	3.6960	2.7146	26.18	0.22	1.500			
0.7238	46324.69	3.6930	3.6930	2.6039	26.17	0.21	1.500			
0.7315	46816.70	3.6900	3.6899	2.4423	26.16	0.20	1.500			
0.7385	47266.17	3.6870	3.6870	2.2370	26.15	0.19	1.500			
0.7449	47671.53	3.6840	3.6841	2.0416	26.14	0.18	1.500			
0.7506	48036.49	3.6810	3.6810	1.8549	26.14	0.18	1.500			
0.7558	48373.59	3.6780	3.6780	1.7180	26.13	0.17	1.500			
0.7608	48691.23	3.6750	3.6750	1.6113	26.12	0.16	1.500			
0.7654	48982.58	3.6720	3.6719	1.5162	26.11	0.15	1.500			
0.7697	49263.29	3.6690	3.6691	1.4449	26.11	0.15	1.500			
0.7739	49532.38	3.6660	3.6658	1.3791	26.10	0.14	1.500			
0.7779	49787.35	3.6630	3.6630	1.3259	26.09	0.13	1.500			
0.7818	50033.41	3.6600	3.6601	1.2847	26.09	0.13	1.500			
0.7856	50276.22	3.6570	3.6570	1.2578	26.08	0.12	1.500			
0.7892	50510.39	3.6540	3.6540	1.2464	26.07	0.11	1.500			
0.7929	50747.67	3.6510	3.6510	1.2476	26.07	0.11	1.500			
0.7966	50984.01	3.6480	3.6480	1.2560	26.06	0.10	1.500			
0.8004	51227.99	3.6450	3.6451	1.2721	26.06	0.10	1.500			
0.8042	51471.27	3.6420	3.6420	1.2879	26.05	0.09	1.500			
0.8082	51724.03	3.6390	3.6390	1.2990	26.04	0.08	1.500			
0.8121	51976.25	3.6360	3.6360	1.3089	26.04	0.08	1.500			
0.8161	52228.80	3.6330	3.6330	1.3117	26.03	0.07	1.500			
0.8200	52481.54	3.6300	3.6301	1.3141	26.03	0.07	1.500			
0.8239	52732.79	3.6270	3.6270	1.3100	26.02	0.06	1.500			
0.8279	52985.08	3.6240	3.6240	1.3094	26.01	0.05	1.500			
0.8318	53235.53	3.6210	3.6210	1.3002	26.00	0.04	1.500			
0.8357	53485.71	3.6180	3.6181	1.3019	25.99	0.03	1.500			
0.8396	53735.22	3.6150	3.6150	1.2953	25.98	0.02	1.500			
0.8435	53984.72	3.6120	3.6120	1.2897	25.97	0.01	1.500			
0.8474	54232.17	3.6090	3.6089	1.2764	25.96	0.00	1.500			
0.8512	54476.17	3.6060	3.6061	1.2651	25.96	-0.00	1.500			
0.8550	54717.40	3.6030	3.6030	1.2553	25.95	-0.01	1.500			
0.8587	54958.45	3.6000	3.6000	1.2452	25.95	-0.01	1.500			
0.8624	55195.16	3.5970	3.5970	1.2251	25.95	-0.01	1.500			
0.8661	55428.35	3.5940	3.5940	1.2076	25.95	-0.01	1.500			
0.8697	55659.49	3.5910	3.5911	1.2001	25.94	-0.02	1.500			
0.8733	55888.43	3.5880	3.5879	1.1887	25.94	-0.02	1.500			
0.8768	56113.46	3.5850	3.5850	1.1797	25.94	-0.02	1.500			
0.8803	56337.56	3.5820	3.5820	1.1795	25.95	-0.01	1.500			
0.8838	56563.71	3.5790	3.5790	1.1781	25.95	-0.01	1.500			
0.8875	56799.78	3.5760	3.5758	1.1499	25.95	-0.01	1.500			
0.8910	57025.71	3.5730	3.5729	1.0987	25.95	-0.01	1.500			
0.8944	57242.75	3.5700	3.5701	1.0200	25.96	-0.00	1.500			
0.8974	57436.72	3.5670	3.5671	0.8923	25.96	-0.00	1.500			
0.9000	57598.92	3.5640	3.5641	0.7525	25.96	0.00	1.500			
0.9019	57723.36	3.5610	3.5610	0.6152	25.96	0.00	1.500			
0.9034	57818.93	3.5580	3.5579	0.4834	25.96	0.00	1.500			
0.9046	57897.03	3.5550	3.5548	0.3931	25.97	0.01	1.500			
0.9056	57959.15	3.5520	3.5519	0.3285	25.97	0.01	1.500			
0.9064	58010.47	3.5490	3.5489	0.2766	25.97	0.01	1.500			
0.9071	58057.20	3.5460	3.5458	0.2415	25.97	0.01	1.500			
0.9078	58097.09	3.5430	3.5430	0.2083	25.97	0.01	1.500			
0.9083	58133.54	3.5400	3.5400	0.1874	25.97	0.01	1.500			
0.9088	58166.21	3.5370	3.5371	0.1681	25.97	0.01	1.500			
0.9093	58196.71	3.5340	3.5339	0.1512	25.97	0.01	1.500			
0.9097	58223.89	3.5310	3.5310	0.1362	25.97	0.01	1.500			
0.9101	58248.03	3.5280	3.5279	0.1200	25.97	0.01	1.500			
0.9105	58269.50	3.5250	3.5250	0.1053	25.97	0.01	1.500			
0.9108	58288.57	3.5220	3.5221	0.0912	25.97	0.01	1.500			
0.9110	58304.68	3.5190	3.5193	0.0766	25.97	0.01	1.500			
0.9112	58318.17	3.5160	3.5162	0.0612	25.97	0.01	1.500			
0.9114	58328.45	3.5130	3.5135	0.0458	25.97	0.01	1.500			
