Ah_balance (normalized)	Ah_balance (mAh)	Voltage - fit (V)	Voltage -  interpolate (V)	dQ/dV (1/V)	Temperature (°C)	Temperature - diff (°C)	Current (C)	R_DC 0ms (mOhm)	R_DC 50ms (mOhm)	R_DC 50 ms PEC (mOhm)
0.2910	18622.19	3.9720	3.9720	0.8749	27.05	1.11	1.500			
0.2936	18790.35	3.9690	3.9691	0.8789	27.05	1.11	1.500			
0.2963	18960.08	3.9660	3.9660	0.8838	27.05	1.11	1.500			
0.2989	19129.98	3.9630	3.9630	0.8856	27.05	1.11	1.500			
0.3016	19300.36	3.9600	3.9600	0.8884	27.04	1.10	1.500			
0.3042	19471.79	3.9570	3.9570	0.8895	27.04	1.10	1.500			
0.3069	19642.56	3.9540	3.9539	0.8898	27.04	1.10	1.500			
0.3096	19812.94	3.9510	3.9511	0.8914	27.04	1.10	1.500			
0.3122	19983.93	3.9480	3.9481	0.8971	27.03	1.09	1.500			
0.3149	20156.54	3.9450	3.9449	0.9041	27.03	1.09	1.500			
0.3177	20331.03	3.9420	3.9419	0.9086	27.03	1.09	1.500			
0.3204	20505.26	3.9390	3.9391	0.9143	27.03	1.09	1.500			
0.3231	20681.50	3.9360	3.9360	0.9233	27.02	1.08	1.500			
0.3259	20860.67	3.9330	3.9330	0.9265	27.01	1.07	1.500			
0.3287	21038.66	3.9300	3.9300	0.9277	27.01	1.07	1.500			
0.3315	21216.93	3.9270	3.9271	0.9320	27.00	1.06	1.500			
0.3343	21396.74	3.9240	3.9240	0.9369	27.00	1.06	1.500			
0.3371	21576.97	3.9210	3.9210	0.9452	26.99	1.05	1.500			
0.3400	21757.97	3.9180	3.9180	0.9496	26.99	1.05	1.500			
0.3428	21941.33	3.9150	3.9149	0.9550	26.98	1.04	1.500			
0.3457	22126.26	3.9120	3.9121	0.9664	26.98	1.04	1.500			
0.3486	22311.65	3.9090	3.9090	0.9736	26.97	1.03	1.500			
0.3516	22499.47	3.9060	3.9060	0.9815	26.97	1.03	1.500			
0.3545	22687.32	3.9030	3.9030	0.9910	26.96	1.02	1.500			
0.3575	22879.36	3.9000	3.9000	0.9984	26.96	1.02	1.500			
0.3605	23073.71	3.8970	3.8970	1.0055	26.95	1.01	1.500			
0.3635	23266.13	3.8940	3.8941	1.0157	26.95	1.01	1.500			
0.3666	23462.61	3.8910	3.8911	1.0180	26.94	1.00	1.500			
0.3697	23657.91	3.8880	3.8879	1.0292	26.94	1.00	1.500			
0.3727	23855.51	3.8850	3.8850	1.0367	26.93	0.99	1.500			
0.3759	24054.52	3.8820	3.8822	1.0487	26.92	0.98	1.500			
0.3790	24258.88	3.8790	3.8789	1.0632	26.91	0.97	1.500			
0.3822	24463.39	3.8760	3.8760	1.0706	26.91	0.97	1.500			
0.3855	24669.22	3.8730	3.8730	1.0818	26.90	0.96	1.500			
0.3887	24878.83	3.8700	3.8701	1.0978	26.89	0.95	1.500			
0.3920	25088.08	3.8670	3.8670	1.1102	26.88	0.94	1.500			
0.3954	25303.29	3.8640	3.8640	1.1248	26.88	0.94	1.500			
0.3988	25520.21	3.8610	3.8609	1.1406	26.87	0.93	1.500			
0.4022	25741.82	3.8580	3.8580	1.1594	26.87	0.93	1.500			
0.4057	25967.42	3.8550	3.8550	1.1687	26.86	0.92	1.500			
0.4092	26191.16	3.8520	3.8520	1.1891	26.85	0.91	1.500			
0.4128	26421.20	3.8490	3.8490	1.2073	26.85	0.91	1.500			
0.4164	26651.98	3.8460	3.8460	1.2270	26.84	0.90	1.500			
0.4202	26891.25	3.8430	3.8431	1.2514	26.83	0.89	1.500			
0.4240	27133.91	3.8400	3.8400	1.2718	26.83	0.89	1.500			
0.4278	27381.85	3.8370	3.8370	1.2917	26.82	0.88	1.500			
0.4318	27632.51	3.8340	3.8341	1.3180	26.81	0.87	1.500			
0.4357	27885.08	3.8310	3.8310	1.3354	26.80	0.86	1.500			
0.4397	28142.90	3.8280	3.8281	1.3669	26.79	0.85	1.500			
0.4439	28406.41	3.8250	3.8250	1.3903	26.78	0.84	1.500			
0.4481	28675.75	3.8220	3.8220	1.4235	26.77	0.83	1.500			
0.4524	28954.53	3.8190	3.8190	1.4505	26.76	0.82	1.500			
0.4568	29233.89	3.8160	3.8161	1.4860	26.75	0.81	1.500			
0.4613	29521.26	3.8130	3.8129	1.5218	26.74	0.80	1.500			
0.4659	29816.92	3.8100	3.8101	1.5612	26.72	0.78	1.500			
0.4706	30120.07	3.8070	3.8070	1.5961	26.71	0.77	1.500			
0.4755	30432.27	3.8040	3.8041	1.6417	26.70	0.76	1.500			
0.4805	30751.05	3.8010	3.8010	1.6867	26.69	0.75	1.500			
0.4856	31077.64	3.7980	3.7979	1.7307	26.68	0.74	1.500			
0.4908	31412.36	3.7950	3.7950	1.7826	26.67	0.73	1.500			
0.4963	31761.59	3.7920	3.7920	1.8317	26.65	0.71	1.500			
0.5019	32119.99	3.7890	3.7890	1.8812	26.63	0.69	1.500			
0.5075	32482.76	3.7860	3.7860	1.9325	26.61	0.67	1.500			
0.5134	32858.87	3.7830	3.7830	1.9798	26.59	0.65	1.500			
0.5194	33243.97	3.7800	3.7800	2.0269	26.58	0.64	1.500			
0.5256	33639.40	3.7770	3.7771	2.0824	26.56	0.62	1.500			
0.5320	34044.85	3.7740	3.7740	2.1376	26.54	0.60	1.500			
0.5384	34458.75	3.7710	3.7710	2.1689	26.51	0.57	1.500			
0.5450	34879.60	3.7680	3.7680	2.2015	26.49	0.55	1.500			
0.5517	35308.54	3.7650	3.7650	2.1998	26.47	0.53	1.500			
0.5583	35730.25	3.7620	3.7618	2.2163	26.45	0.51	1.500	0.374	0.457	
0.5649	36154.72	3.7590	3.7591	2.2327	26.43	0.49	1.500			
0.5717	36587.89	3.7560	3.7561	2.2137	26.41	0.47	1.500			
0.5783	37014.05	3.7530	3.7530	2.1808	26.39	0.45	1.500			
0.5849	37432.52	3.7500	3.7500	2.1540	26.37	0.43	1.500			
0.5912	37834.50	3.7470	3.7469	2.1047	26.35	0.41	1.500			
0.5974	38231.53	3.7440	3.7440	2.0848	26.34	0.40	1.500			
0.6037	38634.14	3.7410	3.7410	2.0739	26.32	0.38	1.500			
0.6099	39033.39	3.7380	3.7380	2.0899	26.30	0.36	1.500			
0.6161	39429.84	3.7350	3.7349	2.0878	26.29	0.35	1.500			
0.6224	39830.70	3.7320	3.7321	2.1150	26.27	0.33	1.500			
0.6287	40235.25	3.7290	3.7290	2.1130	26.25	0.31	1.500			
0.6350	40640.83	3.7260	3.7261	2.1593	26.24	0.30	1.500			
0.6415	41053.90	3.7230	3.7229	2.2053	26.22	0.28	1.500			
0.6482	41481.98	3.7200	3.7200	2.2700	26.21	0.27	1.500			
0.6551	41924.00	3.7170	3.7171	2.3647	26.20	0.26	1.500			
0.6624	42391.08	3.7140	3.7140	2.4349	26.18	0.24	1.500			
0.6698	42865.89	3.7110	3.7110	2.5152	26.17	0.23	1.500			
0.6775	43358.41	3.7080	3.7080	2.6410	26.15	0.21	1.500			
0.6856	43877.76	3.7050	3.7049	2.7111	26.13	0.19	1.500			
0.6939	44410.42	3.7020	3.7021	2.7869	26.11	0.17	1.500			
0.7024	44954.05	3.6990	3.6989	2.7627	26.10	0.16	1.500			
0.7107	45484.54	3.6960	3.6961	2.7382	26.09	0.15	1.500			
0.7190	46013.28	3.6930	3.6930	2.6522	26.08	0.14	1.500			
0.7267	46510.20	3.6900	3.6900	2.4833	26.07	0.13	1.500			
0.7340	46978.44	3.6870	3.6870	2.3143	26.06	0.12	1.500			
0.7406	47397.61	3.6840	3.6840	2.0828	26.05	0.11	1.500			
0.7464	47769.69	3.6810	3.6810	1.8885	26.05	0.11	1.500			
0.7518	48112.96	3.6780	3.6780	1.7509	26.04	0.10	1.500			
0.7566	48422.96	3.6750	3.6750	1.6285	26.03	0.09	1.500			
0.7613	48722.59	3.6720	3.6720	1.5355	26.03	0.09	1.500			
0.7657	49004.81	3.6690	3.6691	1.4514	26.02	0.08	1.500			
0.7700	49277.60	3.6660	3.6660	1.3887	26.02	0.08	1.500			
0.7740	49536.89	3.6630	3.6631	1.3323	26.02	0.08	1.500			
0.7779	49782.80	3.6600	3.6600	1.2820	26.01	0.07	1.500			
0.7816	50019.60	3.6570	3.6570	1.2522	26.01	0.07	1.500			
0.7852	50250.65	3.6540	3.6540	1.2375	26.01	0.07	1.500			
0.7888	50485.01	3.6510	3.6510	1.2344	26.00	0.06	1.500			
0.7925	50720.75	3.6480	3.6478	1.2482	26.00	0.06	1.500			
0.7963	50960.30	3.6450	3.6452	1.2658	25.99	0.05	1.500			
0.8001	51206.80	3.6420	3.6420	1.2833	25.99	0.05	1.500			
0.8040	51457.92	3.6390	3.6389	1.2917	25.98	0.04	1.500			
0.8079	51705.10	3.6360	3.6361	1.2939	25.98	0.04	1.500			
0.8118	51957.91	3.6330	3.6331	1.3054	25.97	0.03	1.500			
0.8158	52212.11	3.6300	3.6300	1.3083	25.96	0.02	1.500			
0.8197	52461.83	3.6270	3.6270	1.3011	25.96	0.02	1.500			
0.8236	52708.58	3.6240	3.6241	1.2981	25.96	0.02	1.500			
0.8275	52958.75	3.6210	3.6210	1.2978	25.95	0.01	1.500			
0.8314	53209.67	3.6180	3.6180	1.2990	25.95	0.01	1.500			
0.8352	53455.31	3.6150	3.6150	1.2939	25.95	0.01	1.500			
0.8392	53705.66	3.6120	3.6120	1.2916	25.94	0.00	1.500			
0.8431	53956.52	3.6090	3.6090	1.2901	25.94	-0.00	1.500			
0.8469	54203.70	3.6060	3.6060	1.2782	25.94	-0.00	1.500			
0.8508	54448.32	3.6030	3.6031	1.2650	25.93	-0.01	1.500			
0.8546	54693.17	3.6000	3.5999	1.2446	25.93	-0.01	1.500			
0.8583	54929.03	3.5970	3.5970	1.2275	25.93	-0.01	1.500			
0.8619	55160.19	3.5940	3.5941	1.2118	25.92	-0.02	1.500			
0.8655	55391.35	3.5910	3.5910	1.2015	25.92	-0.02	1.500			
0.8691	55620.01	3.5880	3.5880	1.1913	25.92	-0.02	1.500			
0.8726	55847.10	3.5850	3.5850	1.1877	25.92	-0.02	1.500			
0.8762	56073.93	3.5820	3.5820	1.1883	25.93	-0.01	1.500			
0.8797	56303.40	3.5790	3.5790	1.1918	25.93	-0.01	1.500			
0.8834	56535.46	3.5760	3.5759	1.1712	25.93	-0.01	1.500			
0.8870	56767.24	3.5730	3.5729	1.1363	25.94	-0.00	1.500			
0.8905	56993.14	3.5700	3.5701	1.0449	25.94	-0.00	1.500			
0.8937	57198.56	3.5670	3.5671	0.9416	25.94	0.00	1.500			
0.8964	57369.96	3.5640	3.5642	0.8032	25.94	0.00	1.500			
0.8986	57509.94	3.5610	3.5610	0.6593	25.94	0.00	1.500			
0.9002	57613.11	3.5580	3.5580	0.5398	25.95	0.01	1.500			
0.9015	57693.98	3.5550	3.5549	0.4349	25.95	0.01	1.500			
0.9025	57762.58	3.5520	3.5519	0.3453	25.95	0.01	1.500			
0.9034	57819.33	3.5490	3.5489	0.2931	25.95	0.01	1.500			
0.9042	57866.39	3.5460	3.5459	0.2501	25.95	0.01	1.500			
0.9048	57907.75	3.5430	3.5430	0.2190	25.95	0.01	1.500			
0.9054	57945.09	3.5400	3.5400	0.1909	25.95	0.01	1.500			
0.9059	57978.54	3.5370	3.5370	0.1712	25.95	0.01	1.500			
0.9064	58009.25	3.5340	3.5340	0.1527	25.95	0.01	1.500			
0.9068	58036.30	3.5310	3.5310	0.1357	25.95	0.01	1.500			
0.9072	58060.87	3.5280	3.5280	0.1203	25.95	0.01	1.500			
0.9075	58082.28	3.5250	3.5250	0.1047	25.95	0.01	1.500			
0.9078	58100.95	3.5220	3.5221	0.0896	25.95	0.01	1.500			
0.9081	58116.69	3.5190	3.5192	0.0744	25.95	0.01	1.500			
0.9083	58129.62	3.5160	3.5164	0.0589	25.95	0.01	1.500			
0.9084	58139.44	3.5130	3.5137	0.0435	25.95	0.01	1.500			
