Ah_balance (normalized)	Ah_balance (mAh)	Voltage - fit (V)	Voltage -  interpolate (V)	dQ/dV (1/V)	Temperature (°C)	Temperature - diff (°C)	Current (C)	R_DC 0ms (mOhm)	R_DC 50ms (mOhm)	R_DC 50 ms PEC (mOhm)
0.1977	12650.28	3.9150	3.9148	-0.0931	25.90	0.00	-1.500			
0.1980	12671.77	3.9120	3.9118	-0.1284	25.90	0.00	-1.500			
0.1984	12700.12	3.9090	3.9088	-0.1606	25.90	0.00	-1.500			
0.1990	12733.80	3.9060	3.9060	-0.1906	25.90	0.00	-1.500			
0.1996	12773.51	3.9030	3.9031	-0.2197	25.90	0.00	-1.500			
0.2003	12818.62	3.9000	3.9001	-0.2472	25.90	0.00	-1.500			
0.2011	12869.30	3.8970	3.8970	-0.2766	25.90	0.00	-1.500			
0.2020	12924.86	3.8940	3.8941	-0.3040	25.90	0.00	-1.500			
0.2029	12986.16	3.8910	3.8909	-0.3311	25.90	0.00	-1.500			
0.2039	13052.56	3.8880	3.8880	-0.3582	25.90	0.00	-1.500			
0.2051	13124.48	3.8850	3.8851	-0.3838	25.90	0.00	-1.500			
0.2063	13201.00	3.8820	3.8820	-0.4093	25.90	0.00	-1.500			
0.2075	13281.63	3.8790	3.8790	-0.4344	25.90	0.00	-1.500			
0.2089	13367.17	3.8760	3.8760	-0.4567	25.90	0.00	-1.500			
0.2103	13457.04	3.8730	3.8729	-0.4815	25.90	0.00	-1.500			
0.2118	13552.15	3.8700	3.8700	-0.5056	25.90	0.00	-1.500			
0.2133	13651.72	3.8670	3.8671	-0.5270	25.90	0.00	-1.500			
0.2149	13755.81	3.8640	3.8639	-0.5516	25.90	0.00	-1.500			
0.2166	13864.04	3.8610	3.8610	-0.5703	25.90	0.00	-1.500			
0.2184	13975.17	3.8580	3.8580	-0.5887	25.90	0.00	-1.500			
0.2202	14090.94	3.8550	3.8550	-0.6059	25.90	0.00	-1.500			
0.2220	14209.45	3.8520	3.8520	-0.6203	25.90	0.00	-1.500			
0.2239	14330.35	3.8490	3.8490	-0.6325	25.90	0.00	-1.500			
0.2258	14453.29	3.8460	3.8460	-0.6421	25.90	0.00	-1.500			
0.2278	14577.56	3.8430	3.8430	-0.6493	25.90	0.00	-1.500			
0.2297	14703.16	3.8400	3.8400	-0.6600	25.90	0.00	-1.500			
0.2317	14830.51	3.8370	3.8370	-0.6672	25.90	0.00	-1.500			
0.2337	14959.55	3.8340	3.8339	-0.6758	25.90	0.00	-1.500			
0.2358	15090.20	3.8310	3.8310	-0.6833	25.90	0.00	-1.500			
0.2379	15222.54	3.8280	3.8280	-0.6881	25.90	0.00	-1.500			
0.2399	15356.27	3.8250	3.8250	-0.6931	25.90	0.00	-1.500			
0.2420	15489.93	3.8220	3.8220	-0.6959	25.90	0.00	-1.500			
0.2441	15623.08	3.8190	3.8190	-0.6973	25.90	0.00	-1.500			
0.2462	15757.75	3.8160	3.8160	-0.6999	25.91	0.01	-1.500			
0.2483	15892.40	3.8130	3.8130	-0.6999	25.91	0.01	-1.500			
0.2504	16027.25	3.8100	3.8100	-0.7016	25.91	0.01	-1.500			
0.2525	16161.82	3.8070	3.8071	-0.7038	25.91	0.01	-1.500			
0.2546	16296.58	3.8040	3.8040	-0.7058	25.91	0.01	-1.500			
0.2568	16433.28	3.8010	3.8010	-0.7043	25.91	0.01	-1.500			
0.2589	16568.62	3.7980	3.7980	-0.7044	25.92	0.02	-1.500			
0.2610	16703.49	3.7950	3.7950	-0.7061	25.92	0.02	-1.500			
0.2631	16839.96	3.7920	3.7921	-0.7070	25.92	0.02	-1.500			
0.2652	16974.95	3.7890	3.7888	-0.7069	25.92	0.02	-1.500			
0.2673	17109.89	3.7860	3.7860	-0.7062	25.93	0.03	-1.500			
0.2695	17245.81	3.7830	3.7831	-0.7088	25.93	0.03	-1.500			
0.2716	17382.69	3.7800	3.7800	-0.7114	25.94	0.04	-1.500			
0.2737	17519.75	3.7770	3.7770	-0.7114	25.94	0.04	-1.500			
0.2759	17656.85	3.7740	3.7740	-0.7104	25.95	0.05	-1.500			
0.2780	17793.14	3.7710	3.7710	-0.7132	25.95	0.05	-1.500			
0.2802	17930.00	3.7680	3.7680	-0.7103	25.96	0.06	-1.500			
0.2823	18065.74	3.7650	3.7651	-0.7129	25.96	0.06	-1.500			
0.2844	18202.58	3.7620	3.7620	-0.7141	25.97	0.07	-1.500			
0.2866	18340.39	3.7590	3.7589	-0.7117	25.97	0.07	-1.500			
0.2887	18477.46	3.7560	3.7561	-0.7114	25.98	0.08	-1.500			
0.2908	18613.60	3.7530	3.7531	-0.7143	25.98	0.08	-1.500			
0.2930	18750.12	3.7500	3.7500	-0.7160	25.99	0.09	-1.500			
0.2951	18888.34	3.7470	3.7469	-0.7197	25.99	0.09	-1.500			
0.2973	19024.98	3.7440	3.7440	-0.7226	25.99	0.09	-1.500			
0.2995	19165.16	3.7410	3.7410	-0.7264	26.00	0.10	-1.500			
0.3017	19305.87	3.7380	3.7379	-0.7290	26.00	0.10	-1.500			
0.3038	19446.14	3.7350	3.7350	-0.7308	26.00	0.10	-1.500			
0.3060	19585.70	3.7320	3.7320	-0.7343	26.01	0.11	-1.500			
0.3082	19726.52	3.7290	3.7290	-0.7369	26.01	0.11	-1.500			
0.3105	19868.85	3.7260	3.7260	-0.7395	26.01	0.11	-1.500			
0.3127	20010.23	3.7230	3.7230	-0.7439	26.02	0.12	-1.500			
0.3149	20153.53	3.7200	3.7200	-0.7527	26.02	0.12	-1.500			
0.3172	20298.58	3.7170	3.7170	-0.7592	26.03	0.13	-1.500			
0.3194	20444.77	3.7140	3.7140	-0.7657	26.04	0.14	-1.500			
0.3218	20592.02	3.7110	3.7110	-0.7740	26.04	0.14	-1.500			
0.3241	20742.30	3.7080	3.7080	-0.7846	26.05	0.15	-1.500			
0.3265	20895.24	3.7050	3.7049	-0.7870	26.06	0.16	-1.500			
0.3288	21045.80	3.7020	3.7021	-0.7911	26.06	0.16	-1.500			
0.3312	21196.63	3.6990	3.6991	-0.7985	26.07	0.17	-1.500			
0.3336	21351.22	3.6960	3.6959	-0.8059	26.08	0.18	-1.500			
0.3360	21504.99	3.6930	3.6929	-0.8161	26.08	0.18	-1.500			
0.3385	21661.38	3.6900	3.6901	-0.8314	26.09	0.19	-1.500			
0.3410	21822.61	3.6870	3.6871	-0.8461	26.09	0.19	-1.500			
0.3436	21988.36	3.6840	3.6839	-0.8615	26.10	0.20	-1.500			
0.3462	22154.60	3.6810	3.6810	-0.8722	26.10	0.20	-1.500			
0.3488	22323.99	3.6780	3.6780	-0.8845	26.11	0.21	-1.500			
0.3515	22494.96	3.6750	3.6751	-0.8995	26.12	0.22	-1.500			
0.3542	22667.24	3.6720	3.6720	-0.9127	26.12	0.22	-1.500			
0.3569	22843.38	3.6690	3.6690	-0.9243	26.13	0.23	-1.500			
0.3597	23023.67	3.6660	3.6659	-0.9383	26.13	0.23	-1.500			
0.3626	23205.93	3.6630	3.6631	-0.9514	26.14	0.24	-1.500			
0.3654	23388.59	3.6600	3.6601	-0.9671	26.14	0.24	-1.500			
0.3684	23574.77	3.6570	3.6570	-0.9848	26.14	0.24	-1.500			
0.3713	23765.07	3.6540	3.6539	-0.9998	26.15	0.25	-1.500			
0.3743	23957.39	3.6510	3.6510	-1.0171	26.15	0.25	-1.500			
0.3774	24154.77	3.6480	3.6480	-1.0435	26.15	0.25	-1.500			
0.3806	24359.23	3.6450	3.6450	-1.0652	26.15	0.25	-1.500			
0.3838	24565.71	3.6420	3.6420	-1.0832	26.16	0.26	-1.500			
0.3871	24774.65	3.6390	3.6390	-1.0972	26.16	0.26	-1.500			
0.3904	24987.35	3.6360	3.6361	-1.1198	26.16	0.26	-1.500			
0.3938	25203.86	3.6330	3.6330	-1.1452	26.16	0.26	-1.500			
0.3973	25425.18	3.6300	3.6299	-1.1645	26.17	0.27	-1.500			
0.4008	25649.62	3.6270	3.6270	-1.1856	26.17	0.27	-1.500			
0.4044	25883.97	3.6240	3.6240	-1.1989	26.17	0.27	-1.500			
0.4081	26118.92	3.6210	3.6210	-1.2127	26.18	0.28	-1.500			
0.4117	26351.18	3.6180	3.6181	-1.2288	26.18	0.28	-1.500			
0.4154	26584.97	3.6150	3.6150	-1.2411	26.18	0.28	-1.500			
0.4191	26822.16	3.6120	3.6119	-1.2649	26.18	0.28	-1.500			
0.4229	27064.46	3.6090	3.6090	-1.2928	26.18	0.28	-1.500			
0.4268	27315.72	3.6060	3.6060	-1.3304	26.19	0.29	-1.500			
0.4309	27578.96	3.6030	3.6029	-1.3614	26.19	0.29	-1.500			
0.4351	27845.66	3.6000	3.6000	-1.3870	26.19	0.29	-1.500			
0.4393	28114.12	3.5970	3.5971	-1.4039	26.19	0.29	-1.500			
0.4435	28386.28	3.5940	3.5940	-1.4242	26.19	0.29	-1.500			
0.4478	28659.01	3.5910	3.5910	-1.4514	26.19	0.29	-1.500			
0.4522	28939.36	3.5880	3.5880	-1.4625	26.20	0.30	-1.500			
0.4566	29222.55	3.5850	3.5849	-1.4876	26.20	0.30	-1.500			
0.4611	29512.15	3.5820	3.5819	-1.5019	26.20	0.30	-1.500			
0.4657	29803.35	3.5790	3.5791	-1.5212	26.20	0.30	-1.500			
0.4702	30094.69	3.5760	3.5759	-1.5408	26.20	0.30	-1.500			
0.4748	30389.20	3.5730	3.5731	-1.5586	26.20	0.30	-1.500			
0.4795	30688.45	3.5700	3.5699	-1.5727	26.20	0.30	-1.500			
0.4843	30997.06	3.5670	3.5669	-1.6094	26.20	0.30	-1.500			
0.4892	31308.21	3.5640	3.5643	-1.6308	26.20	0.30	-1.500			
0.4942	31626.02	3.5610	3.5610	-1.6551	26.20	0.30	-1.500			
0.4992	31947.91	3.5580	3.5580	-1.6736	26.21	0.31	-1.500			
0.5042	32271.70	3.5550	3.5550	-1.6878	26.21	0.31	-1.500			
0.5093	32596.85	3.5520	3.5520	-1.7015	26.22	0.32	-1.500			
0.5145	32925.18	3.5490	3.5491	-1.7163	26.22	0.32	-1.500			
0.5196	33254.67	3.5460	3.5460	-1.7232	26.22	0.32	-1.500			
0.5248	33587.32	3.5430	3.5430	-1.7489	26.23	0.33	-1.500			
0.5301	33927.93	3.5400	3.5400	-1.7568	26.23	0.33	-1.500			
0.5355	34269.91	3.5370	3.5369	-1.7692	26.24	0.34	-1.500			
0.5408	34608.84	3.5340	3.5340	-1.7737	26.24	0.34	-1.500	0.385	0.519	
0.5461	34949.62	3.5310	3.5310	-1.7711	26.25	0.35	-1.500			
0.5514	35287.89	3.5280	3.5280	-1.7743	26.25	0.35	-1.500			
0.5567	35626.39	3.5250	3.5251	-1.7771	26.25	0.35	-1.500			
0.5620	35970.05	3.5220	3.5219	-1.7898	26.26	0.36	-1.500			
0.5674	36315.02	3.5190	3.5190	-1.7844	26.27	0.37	-1.500			
0.5728	36658.22	3.5160	3.5160	-1.7921	26.27	0.37	-1.500			
0.5782	37003.43	3.5130	3.5130	-1.7997	26.28	0.38	-1.500			
0.5836	37348.16	3.5100	3.5099	-1.7882	26.29	0.39	-1.500			
0.5889	37691.22	3.5070	3.5071	-1.7837	26.30	0.40	-1.500			
0.5942	38031.78	3.5040	3.5041	-1.7915	26.31	0.41	-1.500			
0.5996	38377.47	3.5010	3.5009	-1.7900	26.32	0.42	-1.500			
0.6050	38717.74	3.4980	3.4980	-1.7833	26.33	0.43	-1.500			
0.6104	39064.10	3.4950	3.4950	-1.7867	26.33	0.43	-1.500			
0.6158	39411.11	3.4920	3.4920	-1.7831	26.34	0.44	-1.500			
0.6211	39751.16	3.4890	3.4891	-1.7656	26.35	0.45	-1.500			
0.6263	40085.93	3.4860	3.4860	-1.7579	26.36	0.46	-1.500			
0.6316	40423.61	3.4830	3.4829	-1.7463	26.37	0.47	-1.500			
0.6369	40759.62	3.4800	3.4799	-1.7312	26.38	0.48	-1.500			
0.6421	41091.59	3.4770	3.4771	-1.7229	26.39	0.49	-1.500			
0.6472	41423.72	3.4740	3.4740	-1.7106	26.40	0.50	-1.500			
0.6524	41750.87	3.4710	3.4709	-1.6832	26.42	0.52	-1.500			
0.6574	42070.68	3.4680	3.4680	-1.6479	26.43	0.53	-1.500			
0.6623	42386.40	3.4650	3.4649	-1.6274	26.45	0.55	-1.500			
0.6671	42695.98	3.4620	3.4620	-1.6082	26.46	0.56	-1.500			
0.6719	43000.03	3.4590	3.4589	-1.5889	26.47	0.57	-1.500			
0.6766	43300.89	3.4560	3.4560	-1.5621	26.49	0.59	-1.500			
0.6812	43598.74	3.4530	3.4530	-1.5398	26.50	0.60	-1.500			
0.6859	43898.92	3.4500	3.4499	-1.5258	26.51	0.61	-1.500			
0.6905	44189.59	3.4470	3.4471	-1.4988	26.53	0.63	-1.500			
0.6949	44471.62	3.4440	3.4439	-1.4717	26.54	0.64	-1.500			
0.6992	44748.53	3.4410	3.4410	-1.4563	26.55	0.65	-1.500			
0.7035	45024.80	3.4380	3.4380	-1.4374	26.57	0.67	-1.500			
0.7078	45302.21	3.4350	3.4349	-1.4273	26.58	0.68	-1.500			
0.7122	45577.75	3.4320	3.4320	-1.4140	26.59	0.69	-1.500			
0.7164	45848.08	3.4290	3.4290	-1.4006	26.61	0.71	-1.500			
0.7206	46115.25	3.4260	3.4259	-1.3826	26.63	0.73	-1.500			
0.7246	46377.60	3.4230	3.4231	-1.3708	26.65	0.75	-1.500			
0.7287	46637.38	3.4200	3.4200	-1.3534	26.66	0.76	-1.500			
0.7328	46901.10	3.4170	3.4169	-1.3433	26.68	0.78	-1.500			
0.7369	47158.48	3.4140	3.4140	-1.3201	26.70	0.80	-1.500			
0.7408	47410.33	3.4110	3.4111	-1.2969	26.71	0.81	-1.500			
0.7446	47654.86	3.4080	3.4080	-1.2697	26.73	0.83	-1.500			
0.7484	47898.69	3.4050	3.4049	-1.2434	26.74	0.84	-1.500			
0.7521	48132.82	3.4020	3.4020	-1.2125	26.76	0.86	-1.500			
0.7557	48365.56	3.3990	3.3990	-1.1697	26.78	0.88	-1.500			
0.7592	48590.65	3.3960	3.3960	-1.1339	26.79	0.89	-1.500			
0.7625	48802.62	3.3930	3.3929	-1.0890	26.80	0.90	-1.500			
0.7657	49005.79	3.3900	3.3900	-1.0422	26.81	0.91	-1.500			
0.7687	49199.29	3.3870	3.3869	-1.0050	26.83	0.93	-1.500			
0.7717	49387.45	3.3840	3.3839	-0.9673	26.84	0.94	-1.500			
0.7745	49570.59	3.3810	3.3810	-0.9360	26.86	0.96	-1.500			
0.7773	49748.90	3.3780	3.3780	-0.9052	26.87	0.97	-1.500			
0.7800	49919.87	3.3750	3.3750	-0.8699	26.88	0.98	-1.500			
0.7826	50083.34	3.3720	3.3720	-0.8384	26.90	1.00	-1.500			
0.7850	50240.41	3.3690	3.3690	-0.8055	26.91	1.01	-1.500			
0.7874	50390.57	3.3660	3.3660	-0.7772	26.92	1.02	-1.500			
0.7896	50536.73	3.3630	3.3630	-0.7508	26.93	1.03	-1.500			
0.7918	50677.62	3.3600	3.3600	-0.7217	26.94	1.04	-1.500			
0.7940	50814.23	3.3570	3.3570	-0.6994	26.95	1.05	-1.500			
0.7960	50945.95	3.3540	3.3541	-0.6752	26.96	1.06	-1.500			
0.7980	51071.98	3.3510	3.3510	-0.6540	26.97	1.07	-1.500			
0.7999	51194.91	3.3480	3.3480	-0.6348	26.98	1.08	-1.500			
0.8018	51314.95	3.3450	3.3449	-0.6152	26.99	1.09	-1.500			
0.8036	51431.99	3.3420	3.3420	-0.5971	26.99	1.09	-1.500			
0.8054	51545.03	3.3390	3.3391	-0.5806	27.00	1.10	-1.500			
0.8071	51654.71	3.3360	3.3361	-0.5611	27.01	1.11	-1.500			
0.8088	51761.21	3.3330	3.3329	-0.5426	27.02	1.12	-1.500			
0.8103	51861.93	3.3300	3.3300	-0.5223	27.02	1.12	-1.500			
0.8119	51959.69	3.3270	3.3272	-0.5080	27.03	1.13	-1.500			
0.8134	52055.94	3.3240	3.3239	-0.4939	27.03	1.13	-1.500			
0.8148	52149.59	3.3210	3.3209	-0.4810	27.04	1.14	-1.500			
0.8163	52240.24	3.3180	3.3181	-0.4669	27.04	1.14	-1.500			
0.8176	52329.06	3.3150	3.3150	-0.4547	27.05	1.15	-1.500			
0.8190	52415.37	3.3120	3.3120	-0.4414	27.06	1.16	-1.500			
0.8203	52498.27	3.3090	3.3090	-0.4264	27.07	1.17	-1.500			
0.8215	52578.36	3.3060	3.3060	-0.4132	27.08	1.18	-1.500			
0.8228	52656.55	3.3030	3.3030	-0.4029	27.08	1.18	-1.500			
0.8239	52732.42	3.3000	3.3000	-0.3912	27.09	1.19	-1.500			
0.8251	52806.13	3.2970	3.2970	-0.3827	27.10	1.20	-1.500			
0.8262	52878.96	3.2940	3.2940	-0.3733	27.10	1.20	-1.500			
0.8273	52949.99	3.2910	3.2909	-0.3649	27.11	1.21	-1.500			
0.8284	53019.54	3.2880	3.2880	-0.3555	27.12	1.22	-1.500			
0.8295	53086.78	3.2850	3.2850	-0.3461	27.12	1.22	-1.500			
0.8305	53151.97	3.2820	3.2820	-0.3381	27.13	1.23	-1.500			
0.8315	53216.25	3.2790	3.2791	-0.3311	27.13	1.23	-1.500			
0.8325	53278.50	3.2760	3.2759	-0.3220	27.14	1.24	-1.500			
0.8334	53340.14	3.2730	3.2730	-0.3147	27.14	1.24	-1.500			
0.8344	53399.81	3.2700	3.2700	-0.3067	27.15	1.25	-1.500			
0.8353	53458.01	3.2670	3.2670	-0.2990	27.15	1.25	-1.500			
0.8362	53514.50	3.2640	3.2640	-0.2925	27.16	1.26	-1.500			
0.8370	53569.72	3.2610	3.2608	-0.2855	27.16	1.26	-1.500			
0.8379	53623.63	3.2580	3.2580	-0.2793	27.17	1.27	-1.500			
0.8387	53676.73	3.2550	3.2550	-0.2743	27.17	1.27	-1.500			
0.8395	53729.01	3.2520	3.2520	-0.2691	27.18	1.28	-1.500			
0.8403	53780.23	3.2490	3.2490	-0.2636	27.18	1.28	-1.500			
0.8411	53830.16	3.2460	3.2460	-0.2578	27.19	1.29	-1.500			
0.8419	53878.80	3.2430	3.2431	-0.2530	27.19	1.29	-1.500			
0.8426	53927.56	3.2400	3.2400	-0.2482	27.20	1.30	-1.500			
0.8433	53974.12	3.2370	3.2370	-0.2437	27.20	1.30	-1.500			
0.8441	54020.38	3.2340	3.2340	-0.2396	27.21	1.31	-1.500			
0.8448	54065.57	3.2310	3.2311	-0.2371	27.21	1.31	-1.500			
0.8455	54111.44	3.2280	3.2278	-0.2315	27.22	1.32	-1.500			
0.8462	54155.44	3.2250	3.2250	-0.2283	27.23	1.33	-1.500			
0.8469	54198.66	3.2220	3.2222	-0.2253	27.23	1.33	-1.500			
0.8475	54241.57	3.2190	3.2191	-0.2212	27.24	1.34	-1.500			
0.8482	54284.09	3.2160	3.2159	-0.2180	27.24	1.34	-1.500			
0.8488	54324.77	3.2130	3.2129	-0.2144	27.25	1.35	-1.500			
0.8495	54365.89	3.2100	3.2101	-0.2115	27.25	1.35	-1.500			
0.8501	54406.06	3.2070	3.2070	-0.2091	27.25	1.35	-1.500			
0.8507	54446.84	3.2040	3.2039	-0.2071	27.26	1.36	-1.500			
0.8513	54485.76	3.2010	3.2011	-0.2029	27.26	1.36	-1.500			
0.8519	54524.35	3.1980	3.1979	-0.2003	27.27	1.37	-1.500			
0.8525	54562.67	3.1950	3.1951	-0.1984	27.27	1.37	-1.500			
0.8531	54600.53	3.1920	3.1919	-0.1955	27.28	1.38	-1.500			
0.8537	54637.51	3.1890	3.1890	-0.1925	27.28	1.38	-1.500			
0.8543	54674.36	3.1860	3.1860	-0.1906	27.29	1.39	-1.500			
0.8549	54710.42	3.1830	3.1830	-0.1881	27.29	1.39	-1.500			
0.8554	54746.63	3.1800	3.1800	-0.1867	27.30	1.40	-1.500			
0.8560	54782.25	3.1770	3.1769	-0.1843	27.30	1.40	-1.500			
0.8565	54817.06	3.1740	3.1740	-0.1829	27.31	1.41	-1.500			
0.8571	54852.20	3.1710	3.1710	-0.1806	27.31	1.41	-1.500			
0.8576	54886.96	3.1680	3.1679	-0.1791	27.32	1.42	-1.500			
0.8581	54921.01	3.1650	3.1650	-0.1774	27.32	1.42	-1.500			
0.8587	54954.94	3.1620	3.1621	-0.1747	27.33	1.43	-1.500			
0.8592	54988.08	3.1590	3.1589	-0.1730	27.33	1.43	-1.500			
0.8597	55021.12	3.1560	3.1560	-0.1712	27.34	1.44	-1.500			
0.8602	55053.78	3.1530	3.1531	-0.1697	27.34	1.44	-1.500			
0.8607	55086.04	3.1500	3.1499	-0.1671	27.35	1.45	-1.500			
0.8612	55117.92	3.1470	3.1470	-0.1668	27.35	1.45	-1.500			
0.8617	55149.83	3.1440	3.1440	-0.1656	27.36	1.46	-1.500			
0.8622	55181.21	3.1410	3.1411	-0.1646	27.36	1.46	-1.500			
0.8627	55213.06	3.1380	3.1378	-0.1634	27.36	1.46	-1.500			
0.8632	55244.06	3.1350	3.1351	-0.1618	27.37	1.47	-1.500			
0.8637	55275.23	3.1320	3.1321	-0.1603	27.37	1.47	-1.500			
0.8642	55306.08	3.1290	3.1289	-0.1590	27.37	1.47	-1.500			
0.8646	55336.62	3.1260	3.1260	-0.1586	27.38	1.48	-1.500			
0.8651	55366.40	3.1230	3.1231	-0.1566	27.38	1.48	-1.500			
0.8656	55396.66	3.1200	3.1199	-0.1556	27.39	1.49	-1.500			
0.8660	55426.44	3.1170	3.1169	-0.1545	27.39	1.49	-1.500			
0.8665	55456.13	3.1140	3.1141	-0.1536	27.40	1.50	-1.500			
0.8670	55485.42	3.1110	3.1111	-0.1524	27.40	1.50	-1.500			
0.8674	55514.65	3.1080	3.1079	-0.1519	27.41	1.51	-1.500			
0.8679	55543.69	3.1050	3.1050	-0.1506	27.41	1.51	-1.500			
0.8683	55572.28	3.1020	3.1020	-0.1485	27.42	1.52	-1.500			
0.8688	55600.73	3.0990	3.0990	-0.1476	27.42	1.52	-1.500			
0.8692	55628.99	3.0960	3.0961	-0.1471	27.42	1.52	-1.500			
0.8696	55657.12	3.0930	3.0931	-0.1459	27.43	1.53	-1.500			
0.8701	55684.88	3.0900	3.0899	-0.1446	27.43	1.53	-1.500			
0.8705	55712.50	3.0870	3.0870	-0.1434	27.44	1.54	-1.500			
0.8709	55739.81	3.0840	3.0840	-0.1426	27.44	1.54	-1.500			
0.8714	55767.14	3.0810	3.0811	-0.1421	27.45	1.55	-1.500			
0.8718	55794.55	3.0780	3.0779	-0.1416	27.45	1.55	-1.500			
0.8722	55821.55	3.0750	3.0749	-0.1405	27.45	1.55	-1.500			
0.8726	55848.37	3.0720	3.0721	-0.1396	27.46	1.56	-1.500			
0.8730	55875.17	3.0690	3.0690	-0.1387	27.46	1.56	-1.500			
0.8735	55901.90	3.0660	3.0660	-0.1380	27.47	1.57	-1.500			
0.8739	55928.38	3.0630	3.0630	-0.1370	27.47	1.57	-1.500			
0.8743	55954.34	3.0600	3.0601	-0.1361	27.48	1.58	-1.500			
0.8747	55980.45	3.0570	3.0570	-0.1353	27.48	1.58	-1.500			
0.8751	56006.51	3.0540	3.0539	-0.1343	27.49	1.59	-1.500			
0.8755	56032.19	3.0510	3.0510	-0.1332	27.49	1.59	-1.500			
0.8759	56057.69	3.0480	3.0481	-0.1325	27.50	1.60	-1.500			
0.8763	56083.04	3.0450	3.0450	-0.1318	27.51	1.61	-1.500			
0.8767	56108.18	3.0420	3.0420	-0.1310	27.51	1.61	-1.500			
0.8771	56133.26	3.0390	3.0389	-0.1303	27.52	1.62	-1.500			
0.8775	56158.04	3.0360	3.0360	-0.1296	27.52	1.62	-1.500			
0.8779	56182.90	3.0330	3.0330	-0.1293	27.53	1.63	-1.500			
0.8782	56207.91	3.0300	3.0300	-0.1290	27.53	1.63	-1.500			
0.8786	56232.59	3.0270	3.0270	-0.1281	27.54	1.64	-1.500			
0.8790	56257.15	3.0240	3.0240	-0.1269	27.54	1.64	-1.500			
0.8794	56281.53	3.0210	3.0210	-0.1259	27.55	1.65	-1.500			
0.8798	56305.52	3.0180	3.0181	-0.1253	27.55	1.65	-1.500			
0.8801	56329.43	3.0150	3.0149	-0.1247	27.56	1.66	-1.500			
0.8805	56353.17	3.0120	3.0120	-0.1239	27.57	1.67	-1.500			
0.8809	56376.71	3.0090	3.0089	-0.1235	27.57	1.67	-1.500			
0.8813	56400.43	3.0060	3.0060	-0.1236	27.58	1.68	-1.500			
0.8816	56424.18	3.0030	3.0031	-0.1241	27.58	1.68	-1.500			
