Ah_balance (normalized)	Ah_balance (mAh)	Voltage - fit (V)	Voltage -  interpolate (V)	dQ/dV (1/V)	Temperature (°C)	Temperature - diff (°C)	Current (C)	R_DC 0ms (mOhm)	R_DC 50ms (mOhm)	R_DC 50 ms PEC (mOhm)
0.2030	12993.78	3.9110	3.9109	-0.1325	25.90	0.00	-1.500			
0.2035	13022.48	3.9080	3.9080	-0.1654	25.90	0.00	-1.500			
0.2040	13057.90	3.9050	3.9050	-0.1979	25.90	0.00	-1.500			
0.2047	13098.72	3.9020	3.9020	-0.2292	25.90	0.00	-1.500			
0.2054	13145.44	3.8990	3.8989	-0.2626	25.90	0.00	-1.500			
0.2062	13198.73	3.8960	3.8961	-0.2964	25.90	0.00	-1.500			
0.2072	13258.90	3.8930	3.8928	-0.3283	25.90	0.00	-1.500			
0.2082	13325.35	3.8900	3.8900	-0.3603	25.90	0.00	-1.500			
0.2093	13397.51	3.8870	3.8870	-0.3936	25.90	0.00	-1.500			
0.2106	13476.20	3.8840	3.8840	-0.4275	25.90	0.00	-1.500			
0.2119	13561.59	3.8810	3.8810	-0.4605	25.90	0.00	-1.500			
0.2133	13652.72	3.8780	3.8780	-0.4946	25.90	0.00	-1.500			
0.2149	13751.53	3.8750	3.8751	-0.5273	25.90	-0.00	-1.500			
0.2165	13857.03	3.8720	3.8720	-0.5599	25.90	-0.00	-1.500			
0.2182	13967.90	3.8690	3.8690	-0.5869	25.90	-0.00	-1.500			
0.2200	14083.14	3.8660	3.8661	-0.6151	25.90	-0.00	-1.500			
0.2219	14203.18	3.8630	3.8630	-0.6471	25.90	-0.00	-1.500			
0.2239	14330.75	3.8600	3.8599	-0.6727	25.90	-0.00	-1.500			
0.2260	14463.41	3.8570	3.8570	-0.6957	25.90	-0.00	-1.500			
0.2281	14601.01	3.8540	3.8540	-0.7161	25.89	-0.01	-1.500			
0.2303	14741.04	3.8510	3.8512	-0.7395	25.89	-0.01	-1.500			
0.2326	14885.63	3.8480	3.8480	-0.7549	25.89	-0.01	-1.500			
0.2349	15031.05	3.8450	3.8450	-0.7658	25.89	-0.01	-1.500			
0.2372	15179.93	3.8420	3.8419	-0.7751	25.89	-0.01	-1.500			
0.2395	15331.05	3.8390	3.8392	-0.7885	25.89	-0.01	-1.500			
0.2419	15483.78	3.8360	3.8360	-0.7929	25.89	-0.01	-1.500			
0.2443	15635.75	3.8330	3.8331	-0.8032	25.89	-0.01	-1.500			
0.2467	15789.92	3.8300	3.8299	-0.8063	25.89	-0.01	-1.500			
0.2491	15945.36	3.8270	3.8271	-0.8149	25.89	-0.01	-1.500			
0.2516	16103.40	3.8240	3.8239	-0.8189	25.89	-0.01	-1.500			
0.2541	16262.05	3.8210	3.8212	-0.8263	25.90	-0.00	-1.500			
0.2566	16420.35	3.8180	3.8180	-0.8323	25.90	-0.00	-1.500			
0.2591	16581.46	3.8150	3.8151	-0.8369	25.90	-0.00	-1.500			
0.2616	16741.49	3.8120	3.8119	-0.8372	25.90	-0.00	-1.500			
0.2641	16903.18	3.8090	3.8090	-0.8424	25.90	-0.00	-1.500			
0.2666	17064.90	3.8060	3.8060	-0.8434	25.90	0.00	-1.500			
0.2692	17227.68	3.8030	3.8029	-0.8470	25.91	0.01	-1.500			
0.2717	17389.05	3.8000	3.8000	-0.8458	25.91	0.01	-1.500			
0.2742	17550.17	3.7970	3.7971	-0.8452	25.92	0.02	-1.500			
0.2768	17714.14	3.7940	3.7940	-0.8529	25.92	0.02	-1.500			
0.2793	17877.75	3.7910	3.7910	-0.8566	25.92	0.02	-1.500			
0.2819	18042.74	3.7880	3.7880	-0.8570	25.93	0.03	-1.500			
0.2845	18208.58	3.7850	3.7849	-0.8554	25.93	0.03	-1.500			
0.2871	18372.80	3.7820	3.7821	-0.8581	25.94	0.04	-1.500			
0.2896	18537.50	3.7790	3.7790	-0.8609	25.94	0.04	-1.500			
0.2922	18701.74	3.7760	3.7760	-0.8674	25.94	0.04	-1.500			
0.2948	18868.64	3.7730	3.7728	-0.8690	25.95	0.05	-1.500			
0.2974	19035.79	3.7700	3.7700	-0.8713	25.95	0.05	-1.500			
0.3001	19204.82	3.7670	3.7671	-0.8792	25.96	0.06	-1.500			
0.3027	19374.37	3.7640	3.7640	-0.8817	25.96	0.06	-1.500			
0.3054	19543.70	3.7610	3.7609	-0.8848	25.97	0.07	-1.500			
0.3080	19712.92	3.7580	3.7580	-0.8825	25.97	0.07	-1.500			
0.3107	19883.03	3.7550	3.7551	-0.8797	25.97	0.07	-1.500			
0.3134	20054.73	3.7520	3.7519	-0.8822	25.98	0.08	-1.500			
0.3160	20222.92	3.7490	3.7491	-0.8789	25.98	0.08	-1.500			
0.3186	20388.23	3.7460	3.7460	-0.8842	25.99	0.09	-1.500			
0.3212	20558.13	3.7430	3.7431	-0.8900	26.00	0.10	-1.500			
0.3239	20728.59	3.7400	3.7399	-0.8939	26.00	0.10	-1.500			
0.3266	20902.06	3.7370	3.7371	-0.9028	26.01	0.11	-1.500			
0.3293	21077.05	3.7340	3.7341	-0.9111	26.02	0.12	-1.500			
0.3321	21252.77	3.7310	3.7309	-0.9110	26.02	0.12	-1.500			
0.3348	21429.52	3.7280	3.7280	-0.9096	26.03	0.13	-1.500			
0.3376	21603.26	3.7250	3.7248	-0.9088	26.04	0.14	-1.500			
0.3403	21779.31	3.7220	3.7221	-0.9086	26.04	0.14	-1.500			
0.3430	21953.71	3.7190	3.7190	-0.9032	26.05	0.15	-1.500			
0.3457	22125.35	3.7160	3.7160	-0.9033	26.05	0.15	-1.500			
0.3484	22295.08	3.7130	3.7131	-0.8998	26.06	0.16	-1.500			
0.3511	22471.28	3.7100	3.7099	-0.9087	26.07	0.17	-1.500			
0.3538	22646.39	3.7070	3.7069	-0.9100	26.07	0.17	-1.500			
0.3566	22820.75	3.7040	3.7041	-0.9195	26.08	0.18	-1.500			
0.3594	22999.20	3.7010	3.7011	-0.9240	26.09	0.19	-1.500			
0.3622	23178.41	3.6980	3.6978	-0.9270	26.09	0.19	-1.500			
0.3649	23355.69	3.6950	3.6952	-0.9275	26.10	0.20	-1.500			
0.3677	23532.06	3.6920	3.6920	-0.9328	26.11	0.21	-1.500			
0.3705	23712.07	3.6890	3.6890	-0.9399	26.11	0.21	-1.500			
0.3733	23892.44	3.6860	3.6859	-0.9476	26.12	0.22	-1.500			
0.3762	24074.26	3.6830	3.6830	-0.9563	26.13	0.23	-1.500			
0.3791	24259.32	3.6800	3.6801	-0.9687	26.13	0.23	-1.500			
0.3820	24446.61	3.6770	3.6770	-0.9832	26.14	0.24	-1.500			
0.3849	24636.40	3.6740	3.6739	-0.9946	26.15	0.25	-1.500			
0.3879	24827.68	3.6710	3.6710	-1.0031	26.16	0.26	-1.500			
0.3910	25021.86	3.6680	3.6681	-1.0203	26.16	0.26	-1.500			
0.3940	25217.93	3.6650	3.6650	-1.0382	26.17	0.27	-1.500			
0.3972	25419.05	3.6620	3.6620	-1.0581	26.18	0.28	-1.500			
0.4003	25622.05	3.6590	3.6589	-1.0752	26.19	0.29	-1.500			
0.4036	25830.93	3.6560	3.6560	-1.0961	26.19	0.29	-1.500			
0.4069	26043.25	3.6530	3.6531	-1.1244	26.20	0.30	-1.500			
0.4103	26262.28	3.6500	3.6500	-1.1461	26.21	0.31	-1.500			
0.4138	26483.46	3.6470	3.6470	-1.1694	26.22	0.32	-1.500			
0.4173	26709.58	3.6440	3.6440	-1.1979	26.22	0.32	-1.500			
0.4210	26942.10	3.6410	3.6410	-1.2262	26.23	0.33	-1.500			
0.4247	27179.03	3.6380	3.6380	-1.2606	26.24	0.34	-1.500			
0.4285	27423.39	3.6350	3.6350	-1.2933	26.24	0.34	-1.500			
0.4324	27674.63	3.6320	3.6321	-1.3223	26.25	0.35	-1.500			
0.4365	27934.26	3.6290	3.6289	-1.3570	26.25	0.35	-1.500			
0.4406	28199.08	3.6260	3.6261	-1.3753	26.26	0.36	-1.500			
0.4448	28466.81	3.6230	3.6229	-1.3926	26.26	0.36	-1.500			
0.4490	28733.46	3.6200	3.6201	-1.4236	26.27	0.37	-1.500			
0.4532	29006.30	3.6170	3.6170	-1.4523	26.27	0.37	-1.500			
0.4576	29285.66	3.6140	3.6139	-1.4850	26.27	0.37	-1.500			
0.4621	29573.60	3.6110	3.6109	-1.5207	26.28	0.38	-1.500			
0.4667	29868.33	3.6080	3.6080	-1.5622	26.28	0.38	-1.500			
0.4714	30172.71	3.6050	3.6051	-1.6150	26.29	0.39	-1.500			
0.4764	30487.84	3.6020	3.6019	-1.6564	26.29	0.39	-1.500			
0.4814	30807.94	3.5990	3.5990	-1.6872	26.29	0.39	-1.500			
0.4866	31142.68	3.5960	3.5960	-1.7185	26.30	0.40	-1.500			
0.4918	31477.86	3.5930	3.5930	-1.7508	26.30	0.40	-1.500			
0.4971	31816.08	3.5900	3.5901	-1.7854	26.30	0.40	-1.500			
0.5025	32157.62	3.5870	3.5870	-1.8083	26.30	0.40	-1.500			
0.5079	32505.68	3.5840	3.5839	-1.8313	26.30	0.40	-1.500			
0.5135	32862.56	3.5810	3.5811	-1.8595	26.30	0.40	-1.500			
0.5191	33220.14	3.5780	3.5780	-1.9020	26.30	0.40	-1.500			
0.5249	33591.49	3.5750	3.5749	-1.9333	26.31	0.41	-1.500			
0.5307	33963.71	3.5720	3.5720	-1.9477	26.31	0.41	-1.500			
0.5366	34339.97	3.5690	3.5689	-1.9908	26.32	0.42	-1.500			
0.5425	34722.17	3.5660	3.5661	-2.0364	26.32	0.42	-1.500			
0.5487	35119.65	3.5630	3.5629	-2.0618	26.33	0.43	-1.500			
0.5550	35522.04	3.5600	3.5599	-2.0636	26.33	0.43	-1.500			
0.5612	35917.82	3.5570	3.5570	-2.0517	26.34	0.44	-1.500			
0.5675	36319.11	3.5540	3.5542	-2.0730	26.34	0.44	-1.500	0.408	0.513	
0.5737	36716.33	3.5510	3.5509	-2.0851	26.35	0.45	-1.500			
0.5798	37105.59	3.5480	3.5479	-2.0928	26.35	0.45	-1.500			
0.5861	37510.88	3.5450	3.5450	-2.1380	26.36	0.46	-1.500			
0.5926	37927.39	3.5420	3.5420	-2.1683	26.36	0.46	-1.500			
0.5992	38347.66	3.5390	3.5390	-2.1763	26.37	0.47	-1.500			
0.6058	38770.64	3.5360	3.5360	-2.1615	26.37	0.47	-1.500			
0.6122	39182.04	3.5330	3.5331	-2.1501	26.38	0.48	-1.500			
0.6187	39597.50	3.5300	3.5300	-2.1576	26.39	0.49	-1.500			
0.6252	40011.53	3.5270	3.5269	-2.1267	26.40	0.50	-1.500			
0.6316	40421.88	3.5240	3.5240	-2.1006	26.41	0.51	-1.500			
0.6379	40826.64	3.5210	3.5211	-2.0839	26.42	0.52	-1.500			
0.6441	41222.87	3.5180	3.5180	-2.0477	26.43	0.53	-1.500			
0.6501	41607.32	3.5150	3.5149	-2.0143	26.44	0.54	-1.500			
0.6562	41993.65	3.5120	3.5120	-1.9840	26.45	0.55	-1.500			
0.6621	42373.03	3.5090	3.5090	-1.9780	26.46	0.56	-1.500			
0.6681	42755.25	3.5060	3.5059	-1.9443	26.47	0.57	-1.500			
0.6738	43125.87	3.5030	3.5029	-1.9253	26.47	0.57	-1.500			
0.6796	43491.86	3.5000	3.5001	-1.8830	26.48	0.58	-1.500			
0.6851	43846.82	3.4970	3.4969	-1.8462	26.49	0.59	-1.500			
0.6907	44202.66	3.4940	3.4942	-1.8278	26.50	0.60	-1.500			
0.6961	44548.83	3.4910	3.4909	-1.8121	26.52	0.62	-1.500			
0.7014	44889.81	3.4880	3.4880	-1.7867	26.53	0.63	-1.500			
0.7068	45234.55	3.4850	3.4850	-1.7643	26.54	0.64	-1.500			
0.7121	45572.76	3.4820	3.4820	-1.7400	26.55	0.65	-1.500			
0.7173	45907.02	3.4790	3.4790	-1.7050	26.57	0.67	-1.500			
0.7223	46227.48	3.4760	3.4761	-1.6896	26.58	0.68	-1.500			
0.7273	46549.62	3.4730	3.4729	-1.6589	26.60	0.70	-1.500			
0.7322	46862.34	3.4700	3.4699	-1.6286	26.62	0.72	-1.500			
0.7371	47177.04	3.4670	3.4671	-1.6092	26.63	0.73	-1.500			
0.7420	47486.12	3.4640	3.4639	-1.5928	26.65	0.75	-1.500			
0.7467	47786.70	3.4610	3.4610	-1.5724	26.67	0.77	-1.500			
0.7513	48085.02	3.4580	3.4580	-1.5488	26.69	0.79	-1.500			
0.7559	48380.20	3.4550	3.4549	-1.5212	26.71	0.81	-1.500			
0.7605	48672.68	3.4520	3.4520	-1.5049	26.72	0.82	-1.500			
0.7649	48956.41	3.4490	3.4492	-1.4954	26.74	0.84	-1.500			
0.7694	49242.34	3.4460	3.4461	-1.4807	26.76	0.86	-1.500			
0.7738	49522.52	3.4430	3.4428	-1.4731	26.78	0.88	-1.500			
0.7782	49804.14	3.4400	3.4401	-1.4712	26.80	0.90	-1.500			
0.7826	50088.00	3.4370	3.4370	-1.4705	26.82	0.92	-1.500			
0.7871	50372.51	3.4340	3.4339	-1.4565	26.83	0.93	-1.500			
0.7914	50650.47	3.4310	3.4310	-1.4510	26.85	0.95	-1.500			
0.7957	50927.07	3.4280	3.4281	-1.4375	26.87	0.97	-1.500			
0.8000	51203.13	3.4250	3.4249	-1.4375	26.90	1.00	-1.500			
0.8044	51479.05	3.4220	3.4219	-1.4196	26.92	1.02	-1.500			
0.8086	51752.57	3.4190	3.4191	-1.4040	26.94	1.04	-1.500			
0.8129	52026.33	3.4160	3.4159	-1.3783	26.96	1.06	-1.500			
0.8170	52290.15	3.4130	3.4131	-1.3382	26.98	1.08	-1.500			
0.8209	52538.64	3.4100	3.4100	-1.3001	27.00	1.10	-1.500			
0.8248	52786.75	3.4070	3.4070	-1.2665	27.03	1.13	-1.500			
0.8285	53025.86	3.4040	3.4039	-1.2140	27.05	1.15	-1.500			
0.8321	53257.34	3.4010	3.4009	-1.1717	27.07	1.17	-1.500			
0.8356	53480.10	3.3980	3.3980	-1.1270	27.09	1.19	-1.500			
0.8389	53692.18	3.3950	3.3950	-1.0802	27.11	1.21	-1.500			
0.8421	53891.59	3.3920	3.3920	-1.0323	27.12	1.22	-1.500			
0.8450	54081.48	3.3890	3.3891	-0.9831	27.14	1.24	-1.500			
0.8480	54269.90	3.3860	3.3859	-0.9489	27.16	1.26	-1.500			
0.8508	54449.97	3.3830	3.3830	-0.9078	27.18	1.28	-1.500			
0.8534	54620.23	3.3800	3.3801	-0.8688	27.19	1.29	-1.500			
0.8560	54780.81	3.3770	3.3771	-0.8334	27.21	1.31	-1.500			
0.8584	54935.64	3.3740	3.3739	-0.7994	27.22	1.32	-1.500			
0.8607	55085.86	3.3710	3.3710	-0.7720	27.23	1.33	-1.500			
0.8630	55231.23	3.3680	3.3679	-0.7436	27.24	1.34	-1.500			
0.8652	55371.98	3.3650	3.3652	-0.7164	27.25	1.35	-1.500			
0.8673	55509.16	3.3620	3.3620	-0.6939	27.27	1.37	-1.500			
0.8693	55638.20	3.3590	3.3590	-0.6648	27.28	1.38	-1.500			
0.8713	55760.97	3.3560	3.3560	-0.6380	27.29	1.39	-1.500			
0.8732	55882.01	3.3530	3.3530	-0.6190	27.30	1.40	-1.500			
0.8750	55998.20	3.3500	3.3499	-0.5986	27.31	1.41	-1.500			
0.8767	56111.43	3.3470	3.3471	-0.5810	27.32	1.42	-1.500			
0.8785	56222.39	3.3440	3.3440	-0.5606	27.33	1.43	-1.500			
0.8801	56327.45	3.3410	3.3410	-0.5393	27.34	1.44	-1.500			
0.8817	56428.27	3.3380	3.3380	-0.5194	27.35	1.45	-1.500			
0.8832	56525.81	3.3350	3.3349	-0.5014	27.35	1.45	-1.500			
0.8847	56620.58	3.3320	3.3320	-0.4852	27.36	1.46	-1.500			
0.8861	56711.83	3.3290	3.3289	-0.4688	27.37	1.47	-1.500			
0.8875	56800.32	3.3260	3.3261	-0.4526	27.38	1.48	-1.500			
0.8889	56886.53	3.3230	3.3230	-0.4381	27.39	1.49	-1.500			
0.8901	56968.59	3.3200	3.3201	-0.4212	27.39	1.49	-1.500			
0.8914	57047.67	3.3170	3.3169	-0.4063	27.40	1.50	-1.500			
0.8926	57123.64	3.3140	3.3139	-0.3909	27.41	1.51	-1.500			
0.8937	57197.15	3.3110	3.3111	-0.3761	27.41	1.51	-1.500			
0.8948	57267.69	3.3080	3.3080	-0.3633	27.42	1.52	-1.500			
0.8959	57336.53	3.3050	3.3051	-0.3525	27.43	1.53	-1.500			
0.8969	57403.02	3.3020	3.3020	-0.3408	27.43	1.53	-1.500			
0.8979	57467.11	3.2990	3.2989	-0.3285	27.44	1.54	-1.500			
0.8989	57528.94	3.2960	3.2961	-0.3183	27.44	1.54	-1.500			
0.8998	57589.26	3.2930	3.2930	-0.3076	27.45	1.55	-1.500			
0.9007	57646.97	3.2900	3.2900	-0.2975	27.46	1.56	-1.500			
0.9016	57702.67	3.2870	3.2869	-0.2867	27.46	1.56	-1.500			
0.9024	57756.75	3.2840	3.2841	-0.2775	27.47	1.57	-1.500			
0.9033	57809.44	3.2810	3.2809	-0.2682	27.47	1.57	-1.500			
0.9041	57860.09	3.2780	3.2781	-0.2590	27.47	1.57	-1.500			
0.9048	57908.66	3.2750	3.2749	-0.2492	27.48	1.58	-1.500			
0.9056	57955.54	3.2720	3.2721	-0.2418	27.48	1.58	-1.500			
0.9063	58000.52	3.2690	3.2689	-0.2322	27.49	1.59	-1.500			
0.9069	58044.71	3.2660	3.2659	-0.2247	27.49	1.59	-1.500			
0.9076	58087.20	3.2630	3.2630	-0.2172	27.50	1.60	-1.500			
0.9082	58127.93	3.2600	3.2600	-0.2105	27.50	1.60	-1.500			
0.9089	58167.77	3.2570	3.2572	-0.2038	27.50	1.60	-1.500			
0.9095	58205.94	3.2540	3.2540	-0.1978	27.51	1.61	-1.500			
0.9100	58242.96	3.2510	3.2509	-0.1922	27.51	1.61	-1.500			
0.9106	58279.31	3.2480	3.2480	-0.1857	27.52	1.62	-1.500			
0.9112	58314.51	3.2450	3.2450	-0.1810	27.52	1.62	-1.500			
0.9117	58349.07	3.2420	3.2420	-0.1768	27.52	1.62	-1.500			
0.9122	58382.49	3.2390	3.2392	-0.1721	27.53	1.63	-1.500			
0.9127	58414.82	3.2360	3.2359	-0.1668	27.53	1.63	-1.500			
0.9132	58446.43	3.2330	3.2329	-0.1622	27.53	1.63	-1.500			
0.9137	58476.98	3.2300	3.2300	-0.1579	27.53	1.63	-1.500			
0.9142	58506.66	3.2270	3.2271	-0.1537	27.54	1.64	-1.500			
0.9146	58536.07	3.2240	3.2240	-0.1505	27.54	1.64	-1.500			
0.9151	58564.48	3.2210	3.2210	-0.1468	27.55	1.65	-1.500			
0.9155	58592.14	3.2180	3.2180	-0.1422	27.55	1.65	-1.500			
0.9159	58619.05	3.2150	3.2150	-0.1387	27.55	1.65	-1.500			
0.9163	58645.34	3.2120	3.2120	-0.1351	27.56	1.66	-1.500			
0.9167	58670.80	3.2090	3.2091	-0.1323	27.56	1.66	-1.500			
0.9171	58695.72	3.2060	3.2060	-0.1289	27.57	1.67	-1.500			
0.9175	58719.80	3.2030	3.2030	-0.1260	27.57	1.67	-1.500			
0.9179	58743.81	3.2000	3.2000	-0.1241	27.57	1.67	-1.500			
0.9182	58767.72	3.1970	3.1970	-0.1211	27.58	1.68	-1.500			
0.9186	58791.10	3.1940	3.1939	-0.1191	27.58	1.68	-1.500			
0.9190	58813.36	3.1910	3.1910	-0.1168	27.58	1.68	-1.500			
0.9193	58835.51	3.1880	3.1882	-0.1141	27.59	1.69	-1.500			
0.9196	58857.11	3.1850	3.1850	-0.1118	27.59	1.69	-1.500			
0.9200	58878.19	3.1820	3.1818	-0.1093	27.59	1.69	-1.500			
0.9203	58898.88	3.1790	3.1789	-0.1075	27.60	1.70	-1.500			
0.9206	58918.98	3.1760	3.1761	-0.1052	27.60	1.70	-1.500			
0.9209	58939.21	3.1730	3.1731	-0.1032	27.60	1.70	-1.500			
0.9212	58959.27	3.1700	3.1700	-0.1019	27.61	1.71	-1.500			
0.9215	58978.41	3.1670	3.1670	-0.1002	27.61	1.71	-1.500			
0.9218	58997.17	3.1640	3.1641	-0.0979	27.61	1.71	-1.500			
0.9221	59015.72	3.1610	3.1609	-0.0968	27.62	1.72	-1.500			
0.9224	59034.10	3.1580	3.1579	-0.0954	27.62	1.72	-1.500			
0.9227	59052.43	3.1550	3.1551	-0.0939	27.62	1.72	-1.500			
0.9230	59070.23	3.1520	3.1521	-0.0924	27.62	1.72	-1.500			
0.9232	59087.97	3.1490	3.1489	-0.0907	27.63	1.73	-1.500			
0.9235	59105.52	3.1460	3.1459	-0.0896	27.63	1.73	-1.500			
0.9238	59122.54	3.1430	3.1431	-0.0876	27.63	1.73	-1.500			
0.9240	59139.01	3.1400	3.1399	-0.0864	27.63	1.73	-1.500			
0.9243	59155.45	3.1370	3.1372	-0.0849	27.64	1.74	-1.500			
0.9246	59171.36	3.1340	3.1340	-0.0833	27.64	1.74	-1.500			
0.9248	59187.26	3.1310	3.1309	-0.0823	27.64	1.74	-1.500			
0.9250	59202.98	3.1280	3.1280	-0.0814	27.64	1.74	-1.500			
0.9253	59218.56	3.1250	3.1250	-0.0802	27.65	1.75	-1.500			
0.9255	59233.96	3.1220	3.1221	-0.0793	27.65	1.75	-1.500			
0.9258	59249.06	3.1190	3.1190	-0.0780	27.65	1.75	-1.500			
0.9260	59263.85	3.1160	3.1160	-0.0771	27.65	1.75	-1.500			
0.9262	59278.44	3.1130	3.1129	-0.0759	27.66	1.76	-1.500			
0.9265	59292.93	3.1100	3.1100	-0.0749	27.66	1.76	-1.500			
0.9267	59307.20	3.1070	3.1070	-0.0739	27.66	1.76	-1.500			
0.9269	59321.26	3.1040	3.1039	-0.0729	27.66	1.76	-1.500			
0.9271	59335.06	3.1010	3.1011	-0.0723	27.67	1.77	-1.500			
0.9273	59348.79	3.0980	3.0981	-0.0714	27.67	1.77	-1.500			
0.9275	59362.44	3.0950	3.0952	-0.0708	27.67	1.77	-1.500			
0.9277	59375.99	3.0920	3.0919	-0.0700	27.67	1.77	-1.500			
0.9280	59389.30	3.0890	3.0889	-0.0693	27.67	1.77	-1.500			
0.9282	59402.64	3.0860	3.0860	-0.0684	27.68	1.78	-1.500			
0.9284	59415.71	3.0830	3.0831	-0.0677	27.68	1.78	-1.500			
0.9286	59428.82	3.0800	3.0799	-0.0670	27.68	1.78	-1.500			
0.9288	59441.48	3.0770	3.0771	-0.0663	27.68	1.78	-1.500			
0.9290	59454.04	3.0740	3.0741	-0.0653	27.68	1.78	-1.500			
0.9292	59466.52	3.0710	3.0710	-0.0647	27.69	1.79	-1.500			
0.9294	59478.87	3.0680	3.0679	-0.0640	27.69	1.79	-1.500			
0.9295	59491.06	3.0650	3.0651	-0.0633	27.69	1.79	-1.500			
0.9297	59503.15	3.0620	3.0619	-0.0627	27.69	1.79	-1.500			
0.9299	59515.12	3.0590	3.0591	-0.0622	27.69	1.79	-1.500			
0.9301	59527.02	3.0560	3.0561	-0.0616	27.70	1.80	-1.500			
0.9303	59538.80	3.0530	3.0531	-0.0610	27.70	1.80	-1.500			
0.9305	59550.46	3.0500	3.0498	-0.0604	27.70	1.80	-1.500			
0.9307	59562.04	3.0470	3.0472	-0.0597	27.70	1.80	-1.500			
0.9308	59573.43	3.0440	3.0440	-0.0590	27.70	1.80	-1.500			
0.9310	59584.69	3.0410	3.0412	-0.0583	27.70	1.80	-1.500			
0.9312	59595.64	3.0380	3.0380	-0.0579	27.71	1.81	-1.500			
0.9314	59606.73	3.0350	3.0350	-0.0576	27.71	1.81	-1.500			
0.9315	59617.74	3.0320	3.0319	-0.0572	27.71	1.81	-1.500			
0.9317	59628.35	3.0290	3.0293	-0.0566	27.71	1.81	-1.500			
0.9319	59639.43	3.0260	3.0259	-0.0562	27.71	1.81	-1.500			
0.9320	59650.18	3.0230	3.0231	-0.0559	27.71	1.81	-1.500			
0.9322	59660.88	3.0200	3.0201	-0.0556	27.72	1.82	-1.500			
0.9324	59671.89	3.0170	3.0170	-0.0549	27.72	1.82	-1.500			
0.9325	59682.34	3.0140	3.0140	-0.0540	27.72	1.82	-1.500			
0.9327	59692.63	3.0110	3.0108	-0.0531	27.72	1.82	-1.500			
0.9329	59702.87	3.0080	3.0081	-0.0520	27.72	1.82	-1.500			
0.9330	59712.75	3.0050	3.0050	-0.0508	27.72	1.82	-1.500			
0.9332	59722.39	3.0020	3.0020	-0.0496	27.73	1.83	-1.501			
