Ah_balance (normalized)	Ah_balance (mAh)	Voltage - fit (V)	Voltage -  interpolate (V)	dQ/dV (1/V)	Temperature (°C)	Temperature - diff (°C)	Current (C)	R_DC 0ms (mOhm)	R_DC 50ms (mOhm)	R_DC 50 ms PEC (mOhm)
0.2891	18499.94	3.9890	3.9890	0.8255	27.28	1.28	1.500			
0.2915	18658.37	3.9860	3.9860	0.8313	27.27	1.27	1.500			
0.2941	18820.31	3.9830	3.9830	0.8385	27.27	1.27	1.500			
0.2966	18981.79	3.9800	3.9800	0.8419	27.26	1.26	1.500			
0.2991	19143.78	3.9770	3.9770	0.8461	27.26	1.26	1.500			
0.3017	19306.99	3.9740	3.9740	0.8487	27.25	1.25	1.500			
0.3042	19470.08	3.9710	3.9710	0.8520	27.25	1.25	1.500			
0.3068	19633.03	3.9680	3.9680	0.8550	27.24	1.24	1.500			
0.3093	19796.47	3.9650	3.9650	0.8598	27.24	1.24	1.500			
0.3119	19963.61	3.9620	3.9620	0.8643	27.23	1.23	1.500			
0.3145	20130.31	3.9590	3.9590	0.8672	27.23	1.23	1.500			
0.3172	20298.58	3.9560	3.9560	0.8662	27.22	1.22	1.500			
0.3198	20464.69	3.9530	3.9530	0.8693	27.22	1.22	1.500			
0.3223	20629.28	3.9500	3.9500	0.8741	27.21	1.21	1.500			
0.3249	20796.67	3.9470	3.9470	0.8825	27.20	1.20	1.500			
0.3276	20967.22	3.9440	3.9439	0.8843	27.20	1.20	1.500			
0.3303	21138.75	3.9410	3.9410	0.8910	27.19	1.19	1.500			
0.3330	21310.84	3.9380	3.9381	0.8990	27.19	1.19	1.500			
0.3357	21484.77	3.9350	3.9350	0.9019	27.18	1.18	1.500			
0.3384	21656.46	3.9320	3.9319	0.9013	27.18	1.18	1.500			
0.3411	21830.00	3.9290	3.9290	0.9059	27.17	1.17	1.500			
0.3438	22004.35	3.9260	3.9261	0.9106	27.17	1.17	1.500			
0.3466	22180.41	3.9230	3.9231	0.9189	27.16	1.16	1.500			
0.3493	22356.97	3.9200	3.9200	0.9242	27.16	1.16	1.500			
0.3521	22534.53	3.9170	3.9170	0.9299	27.15	1.15	1.500			
0.3549	22714.10	3.9140	3.9140	0.9357	27.14	1.14	1.500			
0.3577	22893.40	3.9110	3.9110	0.9448	27.14	1.14	1.500			
0.3606	23075.73	3.9080	3.9080	0.9542	27.13	1.13	1.500			
0.3634	23260.39	3.9050	3.9050	0.9580	27.13	1.13	1.500			
0.3663	23444.64	3.9020	3.9020	0.9643	27.12	1.12	1.500			
0.3692	23630.39	3.8990	3.8991	0.9738	27.12	1.12	1.500			
0.3721	23817.29	3.8960	3.8960	0.9864	27.11	1.11	1.500			
0.3751	24008.07	3.8930	3.8929	0.9955	27.10	1.10	1.500			
0.3781	24198.60	3.8900	3.8901	1.0048	27.10	1.10	1.500			
0.3812	24393.95	3.8870	3.8871	1.0173	27.09	1.09	1.500			
0.3843	24592.90	3.8840	3.8840	1.0265	27.08	1.08	1.500			
0.3873	24789.05	3.8810	3.8810	1.0339	27.08	1.08	1.500			
0.3904	24987.76	3.8780	3.8781	1.0391	27.07	1.07	1.500			
0.3935	25186.58	3.8750	3.8749	1.0544	27.06	1.06	1.500			
0.3967	25390.10	3.8720	3.8720	1.0692	27.05	1.05	1.500			
0.3999	25596.38	3.8690	3.8690	1.0814	27.05	1.05	1.500			
0.4032	25806.89	3.8660	3.8660	1.0976	27.04	1.04	1.500			
0.4066	26019.65	3.8630	3.8630	1.1100	27.03	1.03	1.500			
0.4099	26233.92	3.8600	3.8600	1.1189	27.02	1.02	1.500			
0.4133	26450.03	3.8570	3.8571	1.1349	27.00	1.00	1.500			
0.4167	26666.64	3.8540	3.8540	1.1473	26.99	0.99	1.500			
0.4201	26889.49	3.8510	3.8511	1.1655	26.98	0.98	1.500			
0.4237	27114.21	3.8480	3.8480	1.1825	26.97	0.97	1.500			
0.4272	27342.87	3.8450	3.8450	1.1987	26.96	0.96	1.500			
0.4309	27574.77	3.8420	3.8420	1.2212	26.95	0.95	1.500			
0.4345	27810.88	3.8390	3.8390	1.2424	26.94	0.94	1.500			
0.4383	28051.00	3.8360	3.8360	1.2613	26.93	0.93	1.500			
0.4421	28295.73	3.8330	3.8329	1.2823	26.92	0.92	1.500			
0.4460	28544.58	3.8300	3.8300	1.3062	26.91	0.91	1.500			
0.4500	28798.35	3.8270	3.8270	1.3232	26.90	0.90	1.500			
0.4540	29053.54	3.8240	3.8240	1.3434	26.88	0.88	1.500			
0.4580	29312.66	3.8210	3.8210	1.3601	26.87	0.87	1.500			
0.4621	29576.81	3.8180	3.8180	1.3797	26.85	0.85	1.500			
0.4663	29843.17	3.8150	3.8150	1.4013	26.84	0.84	1.500			
0.4705	30112.19	3.8120	3.8121	1.4274	26.82	0.82	1.500			
0.4748	30389.78	3.8090	3.8090	1.4522	26.81	0.81	1.500			
0.4793	30672.04	3.8060	3.8060	1.4782	26.79	0.79	1.500			
0.4837	30956.58	3.8030	3.8031	1.5076	26.78	0.78	1.500			
0.4883	31251.43	3.8000	3.8000	1.5241	26.76	0.76	1.500			
0.4929	31547.18	3.7970	3.7970	1.5481	26.74	0.74	1.500			
0.4976	31845.52	3.7940	3.7941	1.5656	26.73	0.73	1.500			
0.5023	32147.93	3.7910	3.7908	1.5981	26.71	0.71	1.500			
0.5071	32455.76	3.7880	3.7880	1.6307	26.69	0.69	1.500			
0.5121	32773.17	3.7850	3.7844	1.6540	26.68	0.68	1.500	0.346	0.481	
0.5172	33099.01	3.7820	3.7819	1.6868	26.66	0.66	1.500			
0.5222	33423.01	3.7790	3.7791	1.6882	26.65	0.65	1.500			
0.5274	33750.95	3.7760	3.7759	1.6884	26.63	0.63	1.500			
0.5324	34072.00	3.7730	3.7730	1.6906	26.61	0.61	1.500			
0.5374	34396.10	3.7700	3.7700	1.6980	26.60	0.60	1.500			
0.5425	34721.53	3.7670	3.7670	1.7126	26.58	0.58	1.500			
0.5477	35051.19	3.7640	3.7640	1.7253	26.56	0.56	1.500			
0.5529	35384.97	3.7610	3.7610	1.7334	26.55	0.55	1.500			
0.5581	35718.10	3.7580	3.7580	1.7466	26.53	0.53	1.500			
0.5634	36054.45	3.7550	3.7550	1.7379	26.52	0.52	1.500			
0.5685	36385.45	3.7520	3.7520	1.7361	26.50	0.50	1.500			
0.5737	36715.34	3.7490	3.7490	1.7665	26.49	0.49	1.500			
0.5790	37055.88	3.7460	3.7460	1.7935	26.48	0.48	1.500			
0.5844	37404.80	3.7430	3.7430	1.8310	26.46	0.46	1.500			
0.5900	37762.99	3.7400	3.7401	1.8851	26.45	0.45	1.500			
0.5957	38124.78	3.7370	3.7370	1.9223	26.44	0.44	1.500			
0.6015	38496.25	3.7340	3.7339	1.9657	26.42	0.42	1.500			
0.6075	38878.08	3.7310	3.7310	2.0132	26.41	0.41	1.500			
0.6137	39273.92	3.7280	3.7280	2.0579	26.39	0.39	1.500			
0.6198	39666.77	3.7250	3.7251	2.1239	26.38	0.38	1.500			
0.6262	40080.00	3.7220	3.7218	2.2098	26.36	0.36	1.500			
0.6330	40514.93	3.7190	3.7191	2.2799	26.35	0.35	1.500			
0.6401	40965.24	3.7160	3.7161	2.3217	26.33	0.33	1.500			
0.6471	41411.66	3.7130	3.7130	2.3096	26.32	0.32	1.500			
0.6540	41858.72	3.7100	3.7100	2.3039	26.31	0.31	1.500			
0.6611	42308.65	3.7070	3.7070	2.2359	26.29	0.29	1.500			
0.6678	42738.99	3.7040	3.7040	2.1504	26.27	0.27	1.500			
0.6740	43133.45	3.7010	3.7011	2.0040	26.26	0.26	1.500			
0.6798	43506.14	3.6980	3.6980	1.8714	26.24	0.24	1.500			
0.6852	43851.28	3.6950	3.6951	1.7563	26.23	0.23	1.500			
0.6902	44175.39	3.6920	3.6920	1.6511	26.22	0.22	1.500			
0.6950	44479.48	3.6890	3.6890	1.5588	26.21	0.21	1.500			
0.6995	44766.69	3.6860	3.6861	1.4869	26.20	0.20	1.500			
0.7038	45044.43	3.6830	3.6831	1.4304	26.19	0.19	1.500			
0.7080	45313.24	3.6800	3.6800	1.3842	26.18	0.18	1.500			
0.7121	45571.70	3.6770	3.6770	1.3401	26.17	0.17	1.500			
0.7160	45823.31	3.6740	3.6740	1.3086	26.16	0.16	1.500			
0.7198	46067.11	3.6710	3.6710	1.2842	26.15	0.15	1.500			
0.7236	46311.10	3.6680	3.6680	1.2738	26.14	0.14	1.500			
0.7273	46549.40	3.6650	3.6649	1.2684	26.13	0.13	1.500			
0.7312	46794.16	3.6620	3.6620	1.2724	26.12	0.12	1.500			
0.7350	47039.80	3.6590	3.6590	1.2720	26.11	0.11	1.500			
0.7389	47288.21	3.6560	3.6560	1.2662	26.10	0.10	1.500			
0.7427	47532.03	3.6530	3.6532	1.2618	26.09	0.09	1.500			
0.7465	47774.23	3.6500	3.6500	1.2489	26.08	0.08	1.500			
0.7502	48011.50	3.6470	3.6471	1.2326	26.07	0.07	1.500			
0.7538	48245.05	3.6440	3.6441	1.2208	26.06	0.06	1.500			
0.7575	48478.27	3.6410	3.6410	1.2126	26.05	0.05	1.500			
0.7611	48709.80	3.6380	3.6380	1.2061	26.04	0.04	1.500			
0.7647	48942.82	3.6350	3.6350	1.1972	26.03	0.03	1.500			
0.7683	49169.90	3.6320	3.6320	1.1876	26.02	0.02	1.500			
0.7718	49397.47	3.6290	3.6290	1.1829	26.01	0.01	1.500			
0.7754	49623.32	3.6260	3.6260	1.1746	26.00	0.00	1.500			
0.7789	49848.28	3.6230	3.6230	1.1651	26.00	-0.00	1.500			
0.7824	50072.82	3.6200	3.6200	1.1520	25.99	-0.01	1.500			
0.7859	50294.53	3.6170	3.6170	1.1284	25.99	-0.01	1.500			
0.7893	50512.42	3.6140	3.6140	1.1091	25.98	-0.02	1.500			
0.7925	50721.36	3.6110	3.6110	1.0787	25.98	-0.02	1.500			
0.7957	50924.83	3.6080	3.6080	1.0530	25.97	-0.03	1.500			
0.7988	51123.39	3.6050	3.6050	1.0255	25.97	-0.03	1.500			
0.8019	51318.42	3.6020	3.6020	0.9982	25.96	-0.04	1.500			
0.8048	51509.21	3.5990	3.5990	0.9739	25.96	-0.04	1.500			
0.8077	51694.71	3.5960	3.5960	0.9404	25.97	-0.03	1.500			
0.8105	51874.15	3.5930	3.5930	0.8990	25.97	-0.03	1.500			
0.8132	52046.82	3.5900	3.5899	0.8412	25.98	-0.02	1.500			
0.8157	52205.31	3.5870	3.5871	0.7724	25.98	-0.02	1.500			
0.8180	52351.36	3.5840	3.5840	0.6938	25.99	-0.01	1.500			
0.8200	52477.21	3.5810	3.5810	0.6052	25.99	-0.01	1.500			
0.8216	52582.69	3.5780	3.5781	0.5189	25.99	-0.01	1.500			
0.8230	52670.71	3.5750	3.5750	0.4415	25.99	-0.01	1.500			
0.8241	52743.94	3.5720	3.5720	0.3745	26.00	-0.00	1.500			
0.8251	52807.35	3.5690	3.5689	0.3228	26.00	-0.00	1.500			
0.8259	52860.33	3.5660	3.5660	0.2775	26.00	-0.00	1.500			
0.8267	52909.01	3.5630	3.5630	0.2420	26.00	-0.00	1.500			
0.8273	52950.22	3.5600	3.5600	0.2142	26.00	0.00	1.500			
0.8279	52987.57	3.5570	3.5570	0.1921	26.00	0.00	1.500			
0.8285	53021.71	3.5540	3.5539	0.1706	26.00	0.00	1.500			
0.8289	53051.36	3.5510	3.5511	0.1533	26.00	0.00	1.500			
0.8294	53078.97	3.5480	3.5480	0.1373	26.00	0.00	1.500			
0.8297	53103.69	3.5450	3.5450	0.1216	26.00	0.00	1.500			
0.8301	53125.62	3.5420	3.5420	0.1068	26.00	0.00	1.500			
0.8304	53144.71	3.5390	3.5390	0.0920	26.01	0.01	1.500			
0.8306	53161.17	3.5360	3.5362	0.0773	26.01	0.01	1.500			
0.8309	53175.04	3.5330	3.5331	0.0619	26.01	0.01	1.500			
0.8310	53185.37	3.5300	3.5303	0.0457	26.01	0.01	1.500			
0.8311	53192.59	3.5270	3.5280	0.0295	26.01	0.01	1.500			
