Ah_balance (normalized)	Ah_balance (mAh)	Voltage - fit (V)	Voltage -  interpolate (V)	dQ/dV (1/V)	Temperature (°C)	Temperature - diff (°C)	Current (C)	R_DC 0ms (mOhm)	R_DC 50ms (mOhm)	R_DC 50 ms PEC (mOhm)
0.2767	17706.07	3.9900	3.9899	0.8228	27.32	1.36	1.500			
0.2792	17868.52	3.9870	3.9870	0.8431	27.32	1.36	1.500			
0.2817	18029.71	3.9840	3.9840	0.8411	27.31	1.35	1.500			
0.2842	18189.95	3.9810	3.9811	0.8460	27.31	1.35	1.500			
0.2868	18353.25	3.9780	3.9780	0.8477	27.30	1.34	1.500			
0.2893	18515.98	3.9750	3.9749	0.8491	27.30	1.34	1.500			
0.2918	18678.21	3.9720	3.9721	0.8506	27.29	1.33	1.500			
0.2944	18842.58	3.9690	3.9689	0.8540	27.29	1.33	1.500			
0.2970	19007.14	3.9660	3.9660	0.8611	27.28	1.32	1.500			
0.2996	19172.51	3.9630	3.9630	0.8621	27.27	1.31	1.500			
0.3021	19336.46	3.9600	3.9600	0.8668	27.27	1.31	1.500			
0.3048	19505.49	3.9570	3.9569	0.8738	27.26	1.30	1.500			
0.3074	19673.31	3.9540	3.9540	0.8771	27.26	1.30	1.500			
0.3100	19841.99	3.9510	3.9511	0.8811	27.25	1.29	1.500			
0.3127	20012.32	3.9480	3.9480	0.8859	27.25	1.29	1.500			
0.3154	20182.60	3.9450	3.9450	0.8851	27.24	1.28	1.500			
0.3180	20352.29	3.9420	3.9420	0.8901	27.24	1.28	1.500			
0.3207	20522.50	3.9390	3.9390	0.8925	27.23	1.27	1.500			
0.3234	20694.65	3.9360	3.9360	0.8968	27.23	1.27	1.500			
0.3260	20866.48	3.9330	3.9330	0.9048	27.22	1.26	1.500			
0.3288	21040.34	3.9300	3.9300	0.9083	27.22	1.26	1.500			
0.3315	21215.85	3.9270	3.9269	0.9131	27.21	1.25	1.500			
0.3342	21391.70	3.9240	3.9241	0.9211	27.21	1.25	1.500			
0.3370	21568.48	3.9210	3.9210	0.9253	27.20	1.24	1.500			
0.3398	21747.18	3.9180	3.9180	0.9315	27.19	1.23	1.500			
0.3426	21926.12	3.9150	3.9149	0.9408	27.19	1.23	1.500			
0.3454	22105.13	3.9120	3.9121	0.9467	27.18	1.22	1.500			
0.3483	22289.30	3.9090	3.9090	0.9567	27.18	1.22	1.500			
0.3512	22474.25	3.9060	3.9060	0.9656	27.17	1.21	1.500			
0.3541	22660.48	3.9030	3.9029	0.9706	27.17	1.21	1.500			
0.3570	22848.25	3.9000	3.9000	0.9773	27.16	1.20	1.500			
0.3599	23036.53	3.8970	3.8970	0.9810	27.15	1.19	1.500			
0.3629	23223.53	3.8940	3.8940	0.9879	27.15	1.19	1.500			
0.3658	23414.34	3.8910	3.8910	0.9976	27.14	1.18	1.500			
0.3688	23605.57	3.8880	3.8880	1.0046	27.13	1.17	1.500			
0.3718	23798.09	3.8850	3.8850	1.0166	27.13	1.17	1.500			
0.3750	23997.91	3.8820	3.8821	1.0222	27.12	1.16	1.500			
0.3780	24193.90	3.8790	3.8790	1.0321	27.11	1.15	1.500			
0.3811	24392.89	3.8760	3.8760	1.0413	27.10	1.14	1.500			
0.3842	24591.69	3.8730	3.8731	1.0549	27.10	1.14	1.500			
0.3874	24794.36	3.8700	3.8699	1.0703	27.09	1.13	1.500			
0.3907	25002.33	3.8670	3.8670	1.0840	27.08	1.12	1.500			
0.3939	25211.09	3.8640	3.8641	1.0981	27.07	1.11	1.500			
0.3973	25426.15	3.8610	3.8610	1.1130	27.07	1.11	1.500			
0.4006	25641.59	3.8580	3.8580	1.1141	27.06	1.10	1.500			
0.4040	25855.73	3.8550	3.8550	1.1385	27.05	1.09	1.500			
0.4074	26074.62	3.8520	3.8520	1.1555	27.04	1.08	1.500			
0.4109	26298.18	3.8490	3.8488	1.1740	27.03	1.07	1.500			
0.4145	26526.63	3.8460	3.8461	1.1903	27.02	1.06	1.500			
0.4181	26757.38	3.8430	3.8430	1.2079	27.01	1.05	1.500			
0.4218	26992.30	3.8400	3.8401	1.2204	27.00	1.04	1.500			
0.4254	27225.37	3.8370	3.8370	1.2319	26.99	1.03	1.500			
0.4291	27463.87	3.8340	3.8340	1.2558	26.98	1.02	1.500			
0.4329	27705.58	3.8310	3.8310	1.2770	26.96	1.00	1.500			
0.4368	27952.35	3.8280	3.8279	1.3042	26.95	0.99	1.500			
0.4407	28206.70	3.8250	3.8250	1.3346	26.94	0.98	1.500			
0.4448	28465.95	3.8220	3.8220	1.3557	26.93	0.97	1.500			
0.4489	28729.84	3.8190	3.8190	1.3732	26.92	0.96	1.500			
0.4531	28995.74	3.8160	3.8160	1.4026	26.91	0.95	1.500			
0.4573	29266.71	3.8130	3.8130	1.4251	26.89	0.93	1.500			
0.4616	29542.54	3.8100	3.8099	1.4448	26.88	0.92	1.500			
0.4659	29820.07	3.8070	3.8072	1.4733	26.87	0.91	1.500			
0.4704	30108.21	3.8040	3.8040	1.4913	26.85	0.89	1.500			
0.4750	30398.16	3.8010	3.8009	1.5143	26.84	0.88	1.500			
0.4795	30685.97	3.7980	3.7981	1.5362	26.82	0.86	1.500			
0.4842	30986.64	3.7950	3.7949	1.5632	26.81	0.85	1.500			
0.4889	31290.37	3.7920	3.7920	1.5838	26.80	0.84	1.500			
0.4936	31591.59	3.7890	3.7891	1.6162	26.78	0.82	1.500			
0.4985	31905.76	3.7860	3.7860	1.6563	26.77	0.81	1.500			
0.5036	32227.42	3.7830	3.7829	1.6878	26.76	0.80	1.500	0.351	0.477	
0.5086	32553.12	3.7800	3.7802	1.7033	26.75	0.79	1.500			
0.5139	32887.67	3.7770	3.7771	1.7374	26.73	0.77	1.500			
0.5191	33224.30	3.7740	3.7739	1.7292	26.72	0.76	1.500			
0.5243	33552.74	3.7710	3.7710	1.7099	26.71	0.75	1.500			
0.5294	33881.63	3.7680	3.7681	1.7185	26.69	0.73	1.500			
0.5345	34210.36	3.7650	3.7649	1.7195	26.68	0.72	1.500			
0.5396	34537.48	3.7620	3.7621	1.7143	26.66	0.70	1.500			
0.5448	34870.12	3.7590	3.7590	1.7380	26.65	0.69	1.500			
0.5501	35205.36	3.7560	3.7560	1.7328	26.64	0.68	1.500			
0.5553	35537.71	3.7530	3.7530	1.7552	26.63	0.67	1.500			
0.5605	35873.90	3.7500	3.7500	1.7758	26.61	0.65	1.500			
0.5659	36219.20	3.7470	3.7470	1.8021	26.60	0.64	1.500			
0.5714	36571.37	3.7440	3.7440	1.8222	26.58	0.62	1.500			
0.5769	36923.54	3.7410	3.7410	1.8681	26.57	0.61	1.500			
0.5825	37281.44	3.7380	3.7381	1.8983	26.55	0.59	1.500			
0.5882	37647.49	3.7350	3.7351	1.9426	26.54	0.58	1.500			
0.5942	38028.51	3.7320	3.7320	1.9926	26.52	0.56	1.500			
0.6002	38413.06	3.7290	3.7290	2.0488	26.51	0.55	1.500			
0.6064	38810.31	3.7260	3.7260	2.1017	26.49	0.53	1.500			
0.6128	39222.26	3.7230	3.7230	2.1734	26.48	0.52	1.500			
0.6194	39644.36	3.7200	3.7200	2.2547	26.46	0.50	1.500			
0.6263	40084.96	3.7170	3.7170	2.2966	26.45	0.49	1.500			
0.6333	40530.69	3.7140	3.7141	2.3261	26.43	0.47	1.500			
0.6403	40979.86	3.7110	3.7111	2.3457	26.41	0.45	1.500			
0.6474	41431.37	3.7080	3.7080	2.3308	26.39	0.43	1.500			
0.6544	41884.32	3.7050	3.7050	2.2672	26.37	0.41	1.500			
0.6613	42321.75	3.7020	3.7020	2.1825	26.35	0.39	1.500			
0.6676	42724.92	3.6990	3.6990	2.0262	26.33	0.37	1.500			
0.6734	43095.72	3.6960	3.6960	1.8748	26.32	0.36	1.500			
0.6787	43437.46	3.6930	3.6930	1.7367	26.30	0.34	1.500			
0.6836	43750.57	3.6900	3.6900	1.6265	26.29	0.33	1.500			
0.6884	44055.80	3.6870	3.6871	1.5518	26.28	0.32	1.500			
0.6929	44344.55	3.6840	3.6839	1.4806	26.26	0.30	1.500			
0.6972	44620.83	3.6810	3.6810	1.4158	26.25	0.29	1.500			
0.7013	44882.81	3.6780	3.6780	1.3640	26.23	0.27	1.500			
0.7053	45139.09	3.6750	3.6750	1.3307	26.22	0.26	1.500			
0.7092	45388.42	3.6720	3.6720	1.3075	26.21	0.25	1.500			
0.7130	45632.67	3.6690	3.6689	1.2863	26.20	0.24	1.500			
0.7169	45879.07	3.6660	3.6661	1.2873	26.18	0.22	1.500			
0.7207	46125.77	3.6630	3.6630	1.2888	26.17	0.21	1.500			
0.7246	46373.61	3.6600	3.6599	1.2854	26.16	0.20	1.500			
0.7284	46619.62	3.6570	3.6571	1.2802	26.15	0.19	1.500			
0.7323	46866.84	3.6540	3.6540	1.2812	26.14	0.18	1.500			
0.7361	47113.33	3.6510	3.6509	1.2765	26.12	0.16	1.500			
0.7400	47358.37	3.6480	3.6480	1.2676	26.11	0.15	1.500			
0.7438	47600.72	3.6450	3.6450	1.2544	26.10	0.14	1.500			
0.7475	47842.78	3.6420	3.6420	1.2441	26.09	0.13	1.500			
0.7513	48080.92	3.6390	3.6390	1.2327	26.07	0.11	1.500			
0.7549	48313.18	3.6360	3.6360	1.2221	26.06	0.10	1.500			
0.7585	48545.28	3.6330	3.6330	1.2183	26.05	0.09	1.500			
0.7622	48779.15	3.6300	3.6299	1.2153	26.04	0.08	1.500			
0.7658	49013.14	3.6270	3.6270	1.2117	26.03	0.07	1.500			
0.7695	49248.93	3.6240	3.6240	1.2046	26.02	0.06	1.500			
0.7731	49480.42	3.6210	3.6210	1.1877	26.01	0.05	1.500			
0.7767	49708.18	3.6180	3.6180	1.1619	26.00	0.04	1.500			
0.7801	49927.32	3.6150	3.6150	1.1435	26.00	0.04	1.500			
0.7835	50142.24	3.6120	3.6120	1.1238	25.99	0.03	1.500			
0.7868	50357.06	3.6090	3.6087	1.1039	25.98	0.02	1.500			
0.7901	50568.05	3.6060	3.6061	1.0842	25.98	0.02	1.500			
0.7934	50775.14	3.6030	3.6030	1.0620	25.97	0.01	1.500			
0.7966	50980.07	3.6000	3.6000	1.0384	25.97	0.01	1.500			
0.7996	51176.21	3.5970	3.5970	1.0023	25.97	0.01	1.500			
0.8026	51366.57	3.5940	3.5940	0.9659	25.97	0.01	1.500			
0.8055	51551.78	3.5910	3.5910	0.9207	25.97	0.01	1.500			
0.8083	51728.75	3.5880	3.5880	0.8562	25.96	0.00	1.500			
0.8108	51891.72	3.5850	3.5850	0.7846	25.96	0.00	1.500			
0.8131	52036.47	3.5820	3.5820	0.6926	25.96	-0.00	1.500			
0.8150	52161.63	3.5790	3.5791	0.6017	25.96	-0.00	1.500			
0.8166	52264.30	3.5760	3.5760	0.5154	25.96	-0.00	1.500			
0.8180	52349.91	3.5730	3.5730	0.4356	25.96	-0.00	1.500			
0.8191	52425.18	3.5700	3.5699	0.3668	25.95	-0.01	1.500			
0.8201	52487.10	3.5670	3.5669	0.3169	25.95	-0.01	1.500			
0.8209	52539.00	3.5640	3.5639	0.2743	25.95	-0.01	1.500			
0.8217	52586.14	3.5610	3.5610	0.2440	25.95	-0.01	1.500			
0.8223	52627.35	3.5580	3.5580	0.2138	25.95	-0.01	1.500			
0.8229	52665.56	3.5550	3.5550	0.1934	25.95	-0.01	1.500			
0.8234	52700.03	3.5520	3.5520	0.1747	25.95	-0.01	1.500			
0.8239	52731.43	3.5490	3.5491	0.1566	25.95	-0.01	1.500			
0.8244	52759.67	3.5460	3.5460	0.1419	25.95	-0.01	1.500			
0.8248	52785.12	3.5430	3.5430	0.1264	25.95	-0.01	1.500			
0.8251	52807.78	3.5400	3.5399	0.1114	25.95	-0.01	1.500			
0.8254	52827.66	3.5370	3.5370	0.0966	25.95	-0.01	1.500			
0.8257	52844.83	3.5340	3.5342	0.0823	25.95	-0.01	1.500			
0.8259	52859.50	3.5310	3.5312	0.0681	25.95	-0.01	1.500			
0.8261	52871.81	3.5280	3.5282	0.0531	25.95	-0.01	1.500			
0.8263	52880.48	3.5250	3.5256	0.0372	25.95	-0.01	1.500			
0.8263	52886.11	3.5220	3.5233	0.0214	25.95	-0.01	1.500			
