Ah_balance (normalized)	Ah_balance (mAh)	Voltage - fit (V)	Voltage -  interpolate (V)	dQ/dV (1/V)	Temperature (°C)	Temperature - diff (°C)	Current (C)	R_DC 0ms (mOhm)	R_DC 50ms (mOhm)	R_DC 50 ms PEC (mOhm)
0.2683	17171.82	3.9910	3.9910	0.8234	27.28	1.32	1.500			
0.2708	17331.65	3.9880	3.9880	0.8347	27.28	1.32	1.500			
0.2733	17492.79	3.9850	3.9850	0.8403	27.27	1.31	1.500			
0.2759	17654.65	3.9820	3.9820	0.8462	27.27	1.31	1.500			
0.2784	17817.45	3.9790	3.9790	0.8542	27.26	1.30	1.500			
0.2810	17981.72	3.9760	3.9760	0.8569	27.26	1.30	1.500			
0.2836	18148.98	3.9730	3.9730	0.8622	27.25	1.29	1.500			
0.2862	18314.09	3.9700	3.9699	0.8614	27.25	1.29	1.500			
0.2888	18480.14	3.9670	3.9670	0.8654	27.24	1.28	1.500			
0.2913	18646.11	3.9640	3.9640	0.8652	27.24	1.28	1.500			
0.2939	18811.43	3.9610	3.9610	0.8655	27.23	1.27	1.500			
0.2965	18976.81	3.9580	3.9580	0.8696	27.23	1.27	1.500			
0.2991	19145.07	3.9550	3.9549	0.8773	27.22	1.26	1.500			
0.3018	19315.13	3.9520	3.9520	0.8812	27.21	1.25	1.500			
0.3044	19484.24	3.9490	3.9491	0.8834	27.21	1.25	1.500			
0.3071	19653.88	3.9460	3.9460	0.8899	27.20	1.24	1.500			
0.3098	19825.79	3.9430	3.9430	0.8955	27.19	1.23	1.500			
0.3125	19997.20	3.9400	3.9399	0.8983	27.18	1.22	1.500			
0.3151	20168.90	3.9370	3.9370	0.9066	27.18	1.22	1.500			
0.3179	20345.01	3.9340	3.9340	0.9148	27.17	1.21	1.500			
0.3207	20522.73	3.9310	3.9310	0.9166	27.16	1.20	1.500			
0.3234	20698.42	3.9280	3.9280	0.9231	27.15	1.19	1.500			
0.3262	20876.18	3.9250	3.9250	0.9254	27.15	1.19	1.500			
0.3290	21054.51	3.9220	3.9219	0.9293	27.14	1.18	1.500			
0.3318	21232.82	3.9190	3.9190	0.9335	27.13	1.17	1.500			
0.3346	21411.21	3.9160	3.9161	0.9388	27.13	1.17	1.500			
0.3374	21592.59	3.9130	3.9130	0.9502	27.12	1.16	1.500			
0.3403	21776.80	3.9100	3.9100	0.9538	27.11	1.15	1.500			
0.3431	21958.04	3.9070	3.9070	0.9598	27.11	1.15	1.500			
0.3460	22144.12	3.9040	3.9040	0.9725	27.10	1.14	1.500			
0.3489	22332.78	3.9010	3.9010	0.9789	27.09	1.13	1.500			
0.3519	22520.80	3.8980	3.8980	0.9882	27.08	1.12	1.500			
0.3549	22711.55	3.8950	3.8951	0.9941	27.07	1.11	1.500			
0.3579	22903.44	3.8920	3.8920	1.0025	27.06	1.10	1.500			
0.3609	23097.00	3.8890	3.8889	1.0157	27.05	1.09	1.500			
0.3639	23291.83	3.8860	3.8860	1.0196	27.04	1.08	1.500			
0.3670	23487.94	3.8830	3.8830	1.0280	27.04	1.08	1.500			
0.3701	23686.08	3.8800	3.8800	1.0402	27.03	1.07	1.500			
0.3732	23885.76	3.8770	3.8771	1.0509	27.02	1.06	1.500			
0.3764	24089.94	3.8740	3.8740	1.0618	27.01	1.05	1.500			
0.3796	24293.85	3.8710	3.8710	1.0749	26.99	1.03	1.500			
0.3828	24502.06	3.8680	3.8680	1.0835	26.98	1.02	1.500			
0.3861	24712.48	3.8650	3.8650	1.0962	26.97	1.01	1.500			
0.3894	24923.56	3.8620	3.8620	1.1056	26.96	1.00	1.500			
0.3927	25135.76	3.8590	3.8590	1.1159	26.95	0.99	1.500			
0.3961	25349.21	3.8560	3.8560	1.1317	26.94	0.98	1.500			
0.3995	25568.40	3.8530	3.8530	1.1494	26.93	0.97	1.500			
0.4030	25789.19	3.8500	3.8499	1.1644	26.92	0.96	1.500			
0.4065	26016.13	3.8470	3.8470	1.1838	26.91	0.95	1.500			
0.4101	26245.42	3.8440	3.8440	1.2009	26.90	0.94	1.500			
0.4137	26477.48	3.8410	3.8410	1.2168	26.89	0.93	1.500			
0.4174	26711.53	3.8380	3.8380	1.2372	26.87	0.91	1.500			
0.4211	26948.89	3.8350	3.8350	1.2537	26.86	0.90	1.500			
0.4249	27192.40	3.8320	3.8318	1.2766	26.85	0.89	1.500			
0.4287	27439.29	3.8290	3.8290	1.2993	26.84	0.88	1.500			
0.4327	27690.95	3.8260	3.8260	1.3236	26.83	0.87	1.500			
0.4367	27949.66	3.8230	3.8230	1.3369	26.81	0.85	1.500			
0.4407	28205.78	3.8200	3.8200	1.3582	26.80	0.84	1.500			
0.4448	28467.03	3.8170	3.8171	1.3809	26.79	0.83	1.500			
0.4490	28735.08	3.8140	3.8139	1.4083	26.77	0.81	1.500			
0.4532	29007.55	3.8110	3.8111	1.4325	26.76	0.80	1.500			
0.4576	29285.32	3.8080	3.8080	1.4550	26.74	0.78	1.500			
0.4620	29567.06	3.8050	3.8050	1.4812	26.73	0.77	1.500			
0.4665	29853.76	3.8020	3.8021	1.4996	26.71	0.75	1.500			
0.4710	30142.96	3.7990	3.7990	1.5284	26.69	0.73	1.500			
0.4756	30437.87	3.7960	3.7960	1.5587	26.68	0.72	1.500			
0.4803	30739.82	3.7930	3.7930	1.5997	26.66	0.70	1.500			
0.4852	31050.96	3.7900	3.7900	1.6336	26.65	0.69	1.500			
0.4902	31370.77	3.7870	3.7869	1.6633	26.63	0.67	1.500			
0.4952	31693.13	3.7840	3.7840	1.6777	26.61	0.65	1.500	0.344	0.476	
0.5003	32020.27	3.7810	3.7810	1.6893	26.60	0.64	1.500			
0.5054	32344.90	3.7780	3.7780	1.6936	26.58	0.62	1.500			
0.5104	32668.38	3.7750	3.7750	1.6892	26.56	0.60	1.500			
0.5155	32993.21	3.7720	3.7720	1.6979	26.54	0.58	1.500			
0.5206	33317.97	3.7690	3.7690	1.7074	26.53	0.57	1.500			
0.5257	33645.18	3.7660	3.7660	1.7187	26.51	0.55	1.500			
0.5309	33977.69	3.7630	3.7630	1.7377	26.49	0.53	1.500			
0.5361	34312.83	3.7600	3.7600	1.7393	26.48	0.52	1.500			
0.5414	34646.65	3.7570	3.7570	1.7481	26.46	0.50	1.500			
0.5466	34980.45	3.7540	3.7541	1.7651	26.45	0.49	1.500			
0.5519	35319.58	3.7510	3.7510	1.7874	26.44	0.48	1.500			
0.5573	35664.58	3.7480	3.7480	1.8255	26.42	0.46	1.500			
0.5629	36022.78	3.7450	3.7450	1.8565	26.41	0.45	1.500			
0.5684	36376.35	3.7420	3.7420	1.8612	26.40	0.44	1.500			
0.5740	36734.91	3.7390	3.7388	1.9017	26.38	0.42	1.500			
0.5797	37100.74	3.7360	3.7360	1.9411	26.37	0.41	1.500			
0.5856	37478.60	3.7330	3.7330	1.9802	26.35	0.39	1.500			
0.5916	37861.55	3.7300	3.7301	2.0225	26.33	0.37	1.500			
0.5978	38257.99	3.7270	3.7270	2.1018	26.32	0.36	1.500			
0.6041	38665.16	3.7240	3.7240	2.1487	26.30	0.34	1.500			
0.6107	39084.29	3.7210	3.7211	2.2096	26.29	0.33	1.500			
0.6175	39517.05	3.7180	3.7180	2.2741	26.27	0.31	1.500			
0.6243	39957.49	3.7150	3.7149	2.2847	26.26	0.30	1.500			
0.6313	40401.47	3.7120	3.7121	2.3208	26.25	0.29	1.500			
0.6383	40850.46	3.7090	3.7089	2.2624	26.23	0.27	1.500			
0.6450	41279.67	3.7060	3.7061	2.1880	26.22	0.26	1.500			
0.6515	41693.72	3.7030	3.7029	2.0882	26.21	0.25	1.500			
0.6576	42089.42	3.7000	3.7000	1.9613	26.19	0.23	1.500			
0.6633	42450.55	3.6970	3.6971	1.8471	26.18	0.22	1.500			
0.6686	42788.74	3.6940	3.6940	1.7128	26.17	0.21	1.500			
0.6735	43101.20	3.6910	3.6910	1.6102	26.16	0.20	1.500			
0.6781	43396.96	3.6880	3.6879	1.5263	26.15	0.19	1.500			
0.6825	43682.04	3.6850	3.6850	1.4650	26.14	0.18	1.500			
0.6868	43954.79	3.6820	3.6820	1.4060	26.14	0.18	1.500			
0.6909	44217.43	3.6790	3.6790	1.3566	26.13	0.17	1.500			
0.6948	44469.45	3.6760	3.6760	1.3229	26.12	0.16	1.500			
0.6988	44720.39	3.6730	3.6729	1.2999	26.11	0.15	1.500			
0.7026	44963.25	3.6700	3.6700	1.2830	26.10	0.14	1.500			
0.7064	45207.96	3.6670	3.6670	1.2784	26.10	0.14	1.500			
0.7102	45453.38	3.6640	3.6640	1.2765	26.09	0.13	1.500			
0.7141	45699.32	3.6610	3.6610	1.2788	26.08	0.12	1.500			
0.7179	45943.83	3.6580	3.6580	1.2763	26.07	0.11	1.500			
0.7217	46188.80	3.6550	3.6550	1.2724	26.07	0.11	1.500			
0.7256	46435.70	3.6520	3.6520	1.2664	26.06	0.10	1.500			
0.7293	46677.06	3.6490	3.6490	1.2578	26.05	0.09	1.500			
0.7331	46918.77	3.6460	3.6461	1.2500	26.04	0.08	1.500			
0.7368	47158.37	3.6430	3.6430	1.2376	26.03	0.07	1.500			
0.7405	47393.43	3.6400	3.6400	1.2266	26.02	0.06	1.500			
0.7442	47627.31	3.6370	3.6370	1.2218	26.01	0.05	1.500			
0.7478	47861.20	3.6340	3.6340	1.2162	26.00	0.04	1.500			
0.7515	48093.65	3.6310	3.6310	1.2134	26.00	0.04	1.500			
0.7551	48326.18	3.6280	3.6280	1.2042	25.99	0.03	1.500			
0.7587	48558.94	3.6250	3.6250	1.1958	25.99	0.03	1.500			
0.7624	48790.46	3.6220	3.6220	1.1835	25.98	0.02	1.500			
0.7659	49015.63	3.6190	3.6191	1.1670	25.97	0.01	1.500			
0.7693	49238.24	3.6160	3.6160	1.1449	25.97	0.01	1.500			
0.7728	49456.55	3.6130	3.6130	1.1266	25.96	0.00	1.500			
0.7761	49670.52	3.6100	3.6100	1.1027	25.96	0.00	1.500			
0.7794	49880.85	3.6070	3.6070	1.0808	25.96	0.00	1.500			
0.7826	50086.01	3.6040	3.6041	1.0542	25.96	0.00	1.500			
0.7857	50286.67	3.6010	3.6010	1.0272	25.96	0.00	1.500			
0.7888	50481.24	3.5980	3.5979	0.9916	25.96	0.00	1.500			
0.7917	50671.75	3.5950	3.5950	0.9519	25.96	0.00	1.500			
0.7946	50851.28	3.5920	3.5920	0.9015	25.96	0.00	1.500			
0.7973	51025.38	3.5890	3.5890	0.8393	25.96	0.00	1.500			
0.7997	51182.31	3.5860	3.5860	0.7644	25.96	0.00	1.500			
0.8019	51324.51	3.5830	3.5830	0.6804	25.96	0.00	1.500			
0.8039	51446.90	3.5800	3.5800	0.5908	25.96	0.00	1.500			
0.8055	51549.06	3.5770	3.5770	0.5102	25.96	0.00	1.500			
0.8068	51634.55	3.5740	3.5740	0.4357	25.96	0.00	1.500			
0.8079	51708.02	3.5710	3.5709	0.3636	25.96	0.00	1.500			
0.8089	51769.90	3.5680	3.5679	0.3160	25.96	0.00	1.500			
0.8097	51821.36	3.5650	3.5650	0.2736	25.96	0.00	1.500			
0.8104	51868.62	3.5620	3.5620	0.2443	25.96	0.00	1.500			
0.8111	51910.94	3.5590	3.5589	0.2165	25.96	0.00	1.500			
0.8117	51949.29	3.5560	3.5560	0.1962	25.96	0.00	1.500			
0.8123	51984.64	3.5530	3.5530	0.1789	25.96	0.00	1.500			
0.8128	52017.02	3.5500	3.5500	0.1617	25.96	0.00	1.500			
0.8132	52046.32	3.5470	3.5469	0.1475	25.96	0.00	1.500			
0.8136	52072.80	3.5440	3.5440	0.1325	25.96	0.00	1.500			
0.8140	52096.89	3.5410	3.5410	0.1181	25.96	0.00	1.500			
0.8143	52118.24	3.5380	3.5379	0.1041	25.96	0.00	1.500			
0.8146	52136.88	3.5350	3.5351	0.0900	25.96	0.00	1.500			
0.8149	52152.90	3.5320	3.5322	0.0759	25.96	0.00	1.500			
0.8151	52166.61	3.5290	3.5292	0.0613	25.96	0.00	1.500			
0.8153	52176.91	3.5260	3.5265	0.0460	25.96	0.00	1.500			
0.8154	52184.26	3.5230	3.5239	0.0306	25.96	0.00	1.500			
