Ah_balance (normalized)	Ah_balance (mAh)	Voltage - fit (V)	Voltage -  interpolate (V)	dQ/dV (1/V)	Temperature (°C)	Temperature - diff (°C)	Current (C)	R_DC 0ms (mOhm)	R_DC 50ms (mOhm)	R_DC 50 ms PEC (mOhm)
0.2031	12995.41	3.9130	3.9130	-0.1081	25.86	0.01	-1.500			
0.2034	13020.78	3.9100	3.9098	-0.1457	25.86	0.01	-1.500			
0.2039	13051.68	3.9070	3.9069	-0.1764	25.86	0.01	-1.500			
0.2045	13088.40	3.9040	3.9040	-0.2075	25.86	0.01	-1.500			
0.2052	13132.01	3.9010	3.9011	-0.2354	25.86	0.01	-1.500			
0.2060	13180.89	3.8980	3.8979	-0.2649	25.85	0.00	-1.500			
0.2068	13234.30	3.8950	3.8950	-0.2909	25.85	0.00	-1.500			
0.2077	13292.80	3.8920	3.8921	-0.3164	25.85	0.00	-1.500			
0.2087	13355.94	3.8890	3.8890	-0.3434	25.85	0.00	-1.500			
0.2098	13424.40	3.8860	3.8860	-0.3709	25.85	0.00	-1.500			
0.2109	13497.39	3.8830	3.8830	-0.3981	25.85	0.00	-1.500			
0.2121	13576.70	3.8800	3.8800	-0.4276	25.85	0.00	-1.500			
0.2135	13661.81	3.8770	3.8770	-0.4551	25.85	0.00	-1.500			
0.2149	13752.44	3.8740	3.8740	-0.4819	25.85	0.00	-1.500			
0.2164	13848.45	3.8710	3.8710	-0.5063	25.85	0.00	-1.500			
0.2179	13948.10	3.8680	3.8680	-0.5272	25.85	0.00	-1.500			
0.2196	14051.32	3.8650	3.8650	-0.5514	25.85	-0.00	-1.500			
0.2212	14159.56	3.8620	3.8620	-0.5717	25.85	-0.00	-1.500			
0.2230	14271.70	3.8590	3.8589	-0.5903	25.85	-0.00	-1.500			
0.2248	14387.55	3.8560	3.8561	-0.6065	25.85	-0.00	-1.500			
0.2267	14506.15	3.8530	3.8530	-0.6235	25.85	-0.00	-1.500			
0.2286	14627.37	3.8500	3.8500	-0.6389	25.85	-0.00	-1.500			
0.2305	14751.82	3.8470	3.8470	-0.6513	25.84	-0.01	-1.500			
0.2325	14877.39	3.8440	3.8440	-0.6629	25.84	-0.01	-1.500			
0.2345	15007.20	3.8410	3.8410	-0.6718	25.84	-0.01	-1.500			
0.2365	15137.17	3.8380	3.8380	-0.6827	25.84	-0.01	-1.500			
0.2386	15269.99	3.8350	3.8350	-0.6916	25.84	-0.01	-1.500			
0.2407	15403.50	3.8320	3.8318	-0.6952	25.84	-0.01	-1.500			
0.2428	15537.49	3.8290	3.8292	-0.6994	25.84	-0.01	-1.500			
0.2449	15672.54	3.8260	3.8260	-0.7053	25.84	-0.01	-1.500			
0.2470	15808.50	3.8230	3.8230	-0.7111	25.85	-0.00	-1.500			
0.2492	15946.06	3.8200	3.8199	-0.7150	25.85	-0.00	-1.500			
0.2513	16081.68	3.8170	3.8170	-0.7170	25.85	0.00	-1.500			
0.2535	16221.59	3.8140	3.8140	-0.7207	25.86	0.01	-1.500			
0.2556	16360.75	3.8110	3.8110	-0.7223	25.86	0.01	-1.500			
0.2578	16499.78	3.8080	3.8080	-0.7250	25.86	0.01	-1.500			
0.2600	16638.93	3.8050	3.8050	-0.7239	25.87	0.02	-1.500			
0.2621	16776.84	3.8020	3.8020	-0.7271	25.87	0.02	-1.500			
0.2643	16917.53	3.7990	3.7990	-0.7289	25.87	0.02	-1.500			
0.2665	17057.62	3.7960	3.7960	-0.7296	25.88	0.03	-1.500			
0.2687	17198.08	3.7930	3.7930	-0.7310	25.88	0.03	-1.500			
0.2709	17339.37	3.7900	3.7901	-0.7294	25.89	0.04	-1.500			
0.2731	17478.85	3.7870	3.7870	-0.7297	25.89	0.04	-1.500			
0.2753	17618.77	3.7840	3.7840	-0.7293	25.89	0.04	-1.500			
0.2775	17758.11	3.7810	3.7810	-0.7308	25.90	0.05	-1.500			
0.2797	17898.87	3.7780	3.7780	-0.7322	25.90	0.05	-1.500			
0.2819	18040.05	3.7750	3.7750	-0.7348	25.91	0.06	-1.500			
0.2841	18181.37	3.7720	3.7720	-0.7359	25.91	0.06	-1.500			
0.2863	18323.85	3.7690	3.7690	-0.7348	25.92	0.07	-1.500			
0.2885	18464.08	3.7660	3.7660	-0.7327	25.92	0.07	-1.500			
0.2907	18605.19	3.7630	3.7630	-0.7302	25.93	0.08	-1.500			
0.2929	18745.03	3.7600	3.7600	-0.7284	25.93	0.08	-1.500			
0.2951	18884.31	3.7570	3.7570	-0.7287	25.94	0.09	-1.500			
0.2972	19023.53	3.7540	3.7540	-0.7278	25.94	0.09	-1.500			
0.2994	19162.96	3.7510	3.7510	-0.7318	25.95	0.10	-1.500			
0.3016	19303.95	3.7480	3.7480	-0.7357	25.95	0.10	-1.500			
0.3038	19444.85	3.7450	3.7450	-0.7350	25.96	0.11	-1.500			
0.3060	19586.62	3.7420	3.7421	-0.7382	25.97	0.12	-1.500			
0.3083	19728.74	3.7390	3.7390	-0.7393	25.97	0.12	-1.500			
0.3105	19870.30	3.7360	3.7358	-0.7429	25.98	0.13	-1.500			
0.3127	20013.35	3.7330	3.7331	-0.7423	25.99	0.14	-1.500			
0.3149	20155.22	3.7300	3.7300	-0.7452	25.99	0.14	-1.500			
0.3172	20299.55	3.7270	3.7270	-0.7502	26.00	0.15	-1.500			
0.3194	20444.62	3.7240	3.7241	-0.7539	26.00	0.15	-1.500			
0.3217	20588.95	3.7210	3.7209	-0.7555	26.01	0.16	-1.500			
0.3240	20734.02	3.7180	3.7181	-0.7611	26.01	0.16	-1.500			
0.3262	20879.49	3.7150	3.7150	-0.7655	26.02	0.17	-1.500			
0.3285	21026.78	3.7120	3.7120	-0.7762	26.03	0.18	-1.500			
0.3309	21175.92	3.7090	3.7090	-0.7835	26.03	0.18	-1.500			
0.3332	21326.96	3.7060	3.7060	-0.7969	26.04	0.19	-1.500			
0.3357	21482.75	3.7030	3.7030	-0.8025	26.04	0.19	-1.500			
0.3381	21637.20	3.7000	3.7000	-0.8111	26.05	0.20	-1.500			
0.3405	21793.58	3.6970	3.6971	-0.8187	26.05	0.20	-1.500			
0.3430	21951.91	3.6940	3.6940	-0.8253	26.06	0.21	-1.500			
0.3455	22109.54	3.6910	3.6909	-0.8319	26.06	0.21	-1.500			
0.3480	22270.45	3.6880	3.6881	-0.8420	26.07	0.22	-1.500			
0.3505	22431.60	3.6850	3.6850	-0.8551	26.07	0.22	-1.500			
0.3531	22598.60	3.6820	3.6820	-0.8724	26.08	0.23	-1.500			
0.3557	22766.62	3.6790	3.6790	-0.8827	26.08	0.23	-1.500			
0.3584	22937.94	3.6760	3.6761	-0.8943	26.08	0.23	-1.500			
0.3611	23111.51	3.6730	3.6730	-0.9082	26.09	0.24	-1.500			
0.3638	23285.87	3.6700	3.6700	-0.9201	26.09	0.24	-1.500			
0.3666	23462.94	3.6670	3.6670	-0.9375	26.10	0.25	-1.500			
0.3694	23643.21	3.6640	3.6640	-0.9545	26.10	0.25	-1.500			
0.3723	23828.43	3.6610	3.6609	-0.9719	26.11	0.26	-1.500			
0.3753	24017.61	3.6580	3.6581	-0.9898	26.11	0.26	-1.500			
0.3783	24209.34	3.6550	3.6550	-1.0134	26.12	0.27	-1.500			
0.3813	24404.35	3.6520	3.6520	-1.0351	26.12	0.27	-1.500			
0.3845	24604.86	3.6490	3.6490	-1.0535	26.13	0.28	-1.500			
0.3877	24810.08	3.6460	3.6460	-1.0714	26.13	0.28	-1.500			
0.3909	25018.70	3.6430	3.6430	-1.0950	26.14	0.29	-1.500			
0.3943	25232.17	3.6400	3.6400	-1.1124	26.14	0.29	-1.500			
0.3976	25446.62	3.6370	3.6370	-1.1310	26.14	0.29	-1.500			
0.4010	25663.83	3.6340	3.6340	-1.1478	26.15	0.30	-1.500			
0.4044	25884.72	3.6310	3.6311	-1.1664	26.15	0.30	-1.500			
0.4080	26111.77	3.6280	3.6279	-1.1904	26.15	0.30	-1.500			
0.4116	26342.35	3.6250	3.6251	-1.2157	26.15	0.30	-1.500			
0.4153	26576.34	3.6220	3.6220	-1.2396	26.16	0.31	-1.500			
0.4190	26818.65	3.6190	3.6190	-1.2671	26.16	0.31	-1.500			
0.4229	27064.69	3.6160	3.6160	-1.2857	26.16	0.31	-1.500			
0.4268	27312.78	3.6130	3.6130	-1.3082	26.17	0.32	-1.500			
0.4307	27565.60	3.6100	3.6100	-1.3395	26.17	0.32	-1.500			
0.4347	27823.92	3.6070	3.6070	-1.3668	26.17	0.32	-1.500			
0.4389	28089.66	3.6040	3.6038	-1.3902	26.18	0.33	-1.500			
0.4431	28358.80	3.6010	3.6012	-1.4190	26.18	0.33	-1.500			
0.4474	28635.75	3.5980	3.5980	-1.4442	26.18	0.33	-1.500			
0.4518	28916.12	3.5950	3.5950	-1.4781	26.18	0.33	-1.500			
0.4563	29202.28	3.5920	3.5920	-1.4962	26.18	0.33	-1.500			
0.4608	29491.56	3.5890	3.5890	-1.5155	26.18	0.33	-1.500			
0.4654	29785.18	3.5860	3.5859	-1.5298	26.18	0.33	-1.500			
0.4700	30082.84	3.5830	3.5830	-1.5476	26.18	0.33	-1.500			
0.4746	30377.08	3.5800	3.5800	-1.5681	26.19	0.34	-1.500			
0.4794	30678.95	3.5770	3.5769	-1.5893	26.19	0.34	-1.500			
0.4841	30983.36	3.5740	3.5740	-1.6021	26.19	0.34	-1.500			
0.4890	31297.74	3.5710	3.5710	-1.6384	26.20	0.35	-1.500			
0.4940	31615.51	3.5680	3.5681	-1.6664	26.20	0.35	-1.500			
0.4990	31937.98	3.5650	3.5650	-1.6929	26.20	0.35	-1.500			
0.5041	32265.22	3.5620	3.5619	-1.7214	26.20	0.35	-1.500			
0.5093	32598.08	3.5590	3.5590	-1.7418	26.20	0.35	-1.500			
0.5147	32938.32	3.5560	3.5560	-1.7588	26.20	0.35	-1.500			
0.5200	33279.55	3.5530	3.5530	-1.7780	26.20	0.35	-1.500			
0.5253	33618.65	3.5500	3.5501	-1.7990	26.21	0.36	-1.500			
0.5307	33966.84	3.5470	3.5469	-1.7978	26.22	0.37	-1.500			
0.5361	34312.59	3.5440	3.5439	-1.7978	26.22	0.37	-1.500			
0.5416	34661.24	3.5410	3.5412	-1.8066	26.23	0.38	-1.500			
0.5470	35007.59	3.5380	3.5379	-1.8131	26.23	0.38	-1.500	0.383	0.514	
0.5524	35356.48	3.5350	3.5349	-1.8155	26.24	0.39	-1.500			
0.5578	35702.01	3.5320	3.5320	-1.8075	26.24	0.39	-1.500			
0.5633	36048.02	3.5290	3.5289	-1.8114	26.25	0.40	-1.500			
0.5687	36398.76	3.5260	3.5261	-1.8172	26.25	0.40	-1.500			
0.5742	36749.77	3.5230	3.5230	-1.8254	26.26	0.41	-1.500			
0.5797	37100.01	3.5200	3.5200	-1.8202	26.27	0.42	-1.500			
0.5851	37448.99	3.5170	3.5170	-1.8195	26.28	0.43	-1.500			
0.5906	37800.87	3.5140	3.5140	-1.8167	26.29	0.44	-1.500			
0.5961	38148.54	3.5110	3.5109	-1.8105	26.29	0.44	-1.500			
0.6014	38492.63	3.5080	3.5081	-1.8176	26.30	0.45	-1.500			
0.6069	38843.18	3.5050	3.5049	-1.8069	26.31	0.46	-1.500			
0.6123	39189.03	3.5020	3.5019	-1.8027	26.31	0.46	-1.500			
0.6178	39536.13	3.4990	3.4992	-1.7978	26.32	0.47	-1.500			
0.6232	39882.91	3.4960	3.4959	-1.8010	26.33	0.48	-1.500			
0.6286	40228.11	3.4930	3.4930	-1.7873	26.35	0.50	-1.500			
0.6339	40567.30	3.4900	3.4900	-1.7652	26.36	0.51	-1.500			
0.6392	40908.41	3.4870	3.4871	-1.7691	26.37	0.52	-1.500			
0.6445	41248.79	3.4840	3.4840	-1.7544	26.38	0.53	-1.500			
0.6497	41583.15	3.4810	3.4810	-1.7459	26.39	0.54	-1.500			
0.6549	41915.44	3.4780	3.4780	-1.7328	26.40	0.55	-1.500			
0.6601	42249.42	3.4750	3.4749	-1.7226	26.41	0.56	-1.500			
0.6653	42581.19	3.4720	3.4720	-1.7016	26.42	0.57	-1.500			
0.6704	42906.98	3.4690	3.4690	-1.6717	26.44	0.59	-1.500			
0.6754	43223.14	3.4660	3.4660	-1.6510	26.45	0.60	-1.500			
0.6803	43538.11	3.4630	3.4631	-1.6314	26.47	0.62	-1.500			
0.6851	43847.77	3.4600	3.4599	-1.6077	26.49	0.64	-1.500			
0.6899	44155.81	3.4570	3.4569	-1.5810	26.50	0.65	-1.500			
0.6946	44457.21	3.4540	3.4541	-1.5576	26.52	0.67	-1.500			
0.6993	44754.21	3.4510	3.4510	-1.5420	26.53	0.68	-1.500			
0.7039	45049.89	3.4480	3.4480	-1.5222	26.55	0.70	-1.500			
0.7084	45334.95	3.4450	3.4449	-1.4929	26.56	0.71	-1.500			
0.7128	45622.24	3.4420	3.4420	-1.4816	26.57	0.72	-1.500			
0.7173	45908.08	3.4390	3.4390	-1.4595	26.59	0.74	-1.500			
0.7217	46185.88	3.4360	3.4359	-1.4437	26.60	0.75	-1.500			
0.7259	46460.14	3.4330	3.4331	-1.4193	26.62	0.77	-1.500			
0.7301	46727.12	3.4300	3.4300	-1.4117	26.63	0.78	-1.500			
0.7343	46996.08	3.4270	3.4270	-1.4047	26.65	0.80	-1.500			
0.7385	47265.66	3.4240	3.4240	-1.3960	26.66	0.81	-1.500			
0.7427	47534.40	3.4210	3.4210	-1.3885	26.68	0.83	-1.500			
0.7470	47805.86	3.4180	3.4180	-1.3770	26.70	0.85	-1.500			
0.7510	48066.80	3.4150	3.4151	-1.3580	26.72	0.87	-1.500			
0.7551	48327.45	3.4120	3.4119	-1.3402	26.74	0.89	-1.500			
0.7591	48581.64	3.4090	3.4089	-1.3108	26.76	0.91	-1.500			
0.7630	48833.38	3.4060	3.4061	-1.2788	26.78	0.93	-1.500			
0.7668	49076.78	3.4030	3.4029	-1.2407	26.80	0.95	-1.500			
0.7705	49314.23	3.4000	3.4000	-1.2059	26.81	0.96	-1.500			
0.7741	49542.06	3.3970	3.3970	-1.1603	26.83	0.98	-1.500			
0.7775	49758.13	3.3940	3.3940	-1.1169	26.85	1.00	-1.500			
0.7807	49967.89	3.3910	3.3910	-1.0735	26.86	1.01	-1.500			
0.7839	50172.24	3.3880	3.3880	-1.0301	26.88	1.03	-1.500			
0.7870	50365.79	3.3850	3.3849	-0.9870	26.89	1.04	-1.500			
0.7898	50549.99	3.3820	3.3820	-0.9498	26.90	1.05	-1.500			
0.7926	50726.80	3.3790	3.3789	-0.9121	26.91	1.06	-1.500			
0.7953	50898.26	3.3760	3.3759	-0.8762	26.92	1.07	-1.500			
0.7978	51061.76	3.3730	3.3730	-0.8417	26.93	1.08	-1.500			
0.8003	51221.25	3.3700	3.3701	-0.8153	26.95	1.10	-1.500			
0.8028	51376.09	3.3670	3.3669	-0.7877	26.96	1.11	-1.500			
0.8050	51522.80	3.3640	3.3640	-0.7560	26.97	1.12	-1.500			
0.8073	51664.91	3.3610	3.3610	-0.7258	26.98	1.13	-1.500			
0.8094	51801.92	3.3580	3.3580	-0.7003	26.99	1.14	-1.500			
0.8115	51934.08	3.3550	3.3550	-0.6778	27.00	1.15	-1.500			
0.8134	52060.00	3.3520	3.3520	-0.6555	27.01	1.16	-1.500			
0.8154	52183.25	3.3490	3.3491	-0.6355	27.02	1.17	-1.500			
0.8172	52303.57	3.3460	3.3459	-0.6168	27.03	1.18	-1.500			
0.8191	52420.58	3.3430	3.3430	-0.5983	27.04	1.19	-1.500			
0.8208	52534.37	3.3400	3.3400	-0.5799	27.05	1.20	-1.500			
0.8225	52642.85	3.3370	3.3371	-0.5614	27.05	1.20	-1.500			
0.8242	52748.07	3.3340	3.3340	-0.5440	27.06	1.21	-1.500			
0.8258	52851.01	3.3310	3.3309	-0.5281	27.07	1.22	-1.500			
0.8274	52950.69	3.3280	3.3280	-0.5102	27.08	1.23	-1.500			
0.8289	53047.08	3.3250	3.3250	-0.4947	27.09	1.24	-1.500			
0.8303	53140.74	3.3220	3.3221	-0.4832	27.09	1.24	-1.500			
0.8318	53232.48	3.3190	3.3188	-0.4674	27.10	1.25	-1.500			
0.8331	53319.27	3.3160	3.3160	-0.4537	27.11	1.26	-1.500			
0.8345	53405.67	3.3130	3.3131	-0.4416	27.11	1.26	-1.500			
0.8358	53490.01	3.3100	3.3100	-0.4294	27.12	1.27	-1.500			
0.8371	53571.59	3.3070	3.3069	-0.4156	27.13	1.28	-1.500			
0.8383	53648.70	3.3040	3.3041	-0.4030	27.13	1.28	-1.500			
0.8394	53724.36	3.3010	3.3010	-0.3911	27.14	1.29	-1.500			
0.8406	53799.01	3.2980	3.2979	-0.3810	27.14	1.29	-1.500			
0.8417	53870.48	3.2950	3.2950	-0.3694	27.15	1.30	-1.500			
0.8428	53941.02	3.2920	3.2920	-0.3602	27.15	1.30	-1.500			
0.8439	54009.19	3.2890	3.2890	-0.3504	27.16	1.31	-1.500			
0.8449	54075.60	3.2860	3.2861	-0.3398	27.16	1.31	-1.500			
0.8459	54139.12	3.2830	3.2829	-0.3303	27.17	1.32	-1.500			
0.8469	54201.25	3.2800	3.2801	-0.3233	27.17	1.32	-1.500			
0.8479	54262.74	3.2770	3.2769	-0.3152	27.18	1.33	-1.500			
0.8488	54322.43	3.2740	3.2740	-0.3067	27.19	1.34	-1.500			
0.8497	54380.95	3.2710	3.2710	-0.2991	27.19	1.34	-1.500			
0.8506	54437.17	3.2680	3.2680	-0.2919	27.20	1.35	-1.500			
0.8514	54492.57	3.2650	3.2650	-0.2852	27.20	1.35	-1.500			
0.8523	54546.28	3.2620	3.2619	-0.2781	27.21	1.36	-1.500			
0.8531	54598.89	3.2590	3.2590	-0.2708	27.21	1.36	-1.500			
0.8539	54650.71	3.2560	3.2561	-0.2661	27.22	1.37	-1.500			
0.8547	54701.54	3.2530	3.2530	-0.2604	27.22	1.37	-1.500			
0.8555	54750.63	3.2500	3.2499	-0.2556	27.23	1.38	-1.500			
0.8562	54798.72	3.2470	3.2469	-0.2502	27.23	1.38	-1.500			
0.8570	54846.14	3.2440	3.2440	-0.2443	27.24	1.39	-1.500			
0.8577	54892.94	3.2410	3.2410	-0.2395	27.24	1.39	-1.500			
0.8584	54938.67	3.2380	3.2381	-0.2345	27.25	1.40	-1.500			
0.8591	54983.24	3.2350	3.2351	-0.2315	27.25	1.40	-1.500			
0.8598	55026.92	3.2320	3.2319	-0.2262	27.25	1.40	-1.500			
0.8605	55069.77	3.2290	3.2289	-0.2229	27.26	1.41	-1.500			
0.8611	55111.61	3.2260	3.2260	-0.2192	27.26	1.41	-1.500			
0.8618	55153.52	3.2230	3.2231	-0.2161	27.27	1.42	-1.500			
0.8624	55195.21	3.2200	3.2199	-0.2129	27.27	1.42	-1.500			
0.8631	55235.86	3.2170	3.2170	-0.2092	27.28	1.43	-1.500			
0.8637	55275.61	3.2140	3.2140	-0.2049	27.28	1.43	-1.500			
0.8643	55314.20	3.2110	3.2111	-0.2013	27.29	1.44	-1.500			
0.8649	55352.65	3.2080	3.2080	-0.1984	27.29	1.44	-1.500			
0.8655	55389.71	3.2050	3.2050	-0.1953	27.29	1.44	-1.500			
0.8660	55427.04	3.2020	3.2020	-0.1936	27.30	1.45	-1.500			
0.8666	55463.92	3.1990	3.1991	-0.1914	27.30	1.45	-1.500			
0.8672	55500.56	3.1960	3.1959	-0.1897	27.31	1.46	-1.500			
0.8678	55536.90	3.1930	3.1931	-0.1881	27.31	1.46	-1.500			
0.8683	55572.82	3.1900	3.1900	-0.1862	27.31	1.46	-1.500			
0.8689	55608.66	3.1870	3.1870	-0.1829	27.32	1.47	-1.500			
0.8694	55643.50	3.1840	3.1840	-0.1809	27.32	1.47	-1.500			
0.8700	55677.76	3.1810	3.1811	-0.1778	27.33	1.48	-1.500			
0.8705	55711.68	3.1780	3.1780	-0.1756	27.33	1.48	-1.500			
0.8710	55745.15	3.1750	3.1749	-0.1739	27.34	1.49	-1.500			
0.8715	55778.22	3.1720	3.1721	-0.1714	27.34	1.49	-1.500			
0.8720	55810.99	3.1690	3.1690	-0.1693	27.35	1.50	-1.500			
0.8726	55843.32	3.1660	3.1659	-0.1674	27.35	1.50	-1.500			
0.8731	55875.60	3.1630	3.1630	-0.1660	27.36	1.51	-1.500			
0.8735	55906.79	3.1600	3.1600	-0.1641	27.36	1.51	-1.500			
0.8740	55938.14	3.1570	3.1570	-0.1628	27.36	1.51	-1.500			
0.8745	55969.28	3.1540	3.1539	-0.1616	27.37	1.52	-1.500			
0.8750	56000.02	3.1510	3.1510	-0.1602	27.37	1.52	-1.500			
0.8755	56030.76	3.1480	3.1479	-0.1597	27.38	1.53	-1.500			
0.8760	56061.51	3.1450	3.1451	-0.1587	27.38	1.53	-1.500			
0.8764	56091.85	3.1420	3.1420	-0.1574	27.39	1.54	-1.500			
0.8769	56122.01	3.1390	3.1389	-0.1559	27.39	1.54	-1.500			
0.8774	56151.73	3.1360	3.1361	-0.1543	27.39	1.54	-1.500			
0.8778	56181.35	3.1330	3.1330	-0.1531	27.40	1.55	-1.500			
0.8783	56210.58	3.1300	3.1299	-0.1514	27.40	1.55	-1.500			
0.8787	56239.50	3.1270	3.1270	-0.1497	27.41	1.56	-1.500			
0.8792	56267.78	3.1240	3.1241	-0.1484	27.41	1.56	-1.500			
0.8796	56296.07	3.1210	3.1211	-0.1477	27.42	1.57	-1.500			
0.8801	56324.37	3.1180	3.1179	-0.1471	27.42	1.57	-1.500			
0.8805	56352.42	3.1150	3.1150	-0.1465	27.43	1.58	-1.500			
0.8809	56380.58	3.1120	3.1120	-0.1457	27.43	1.58	-1.500			
0.8814	56408.72	3.1090	3.1091	-0.1453	27.44	1.59	-1.500			
0.8818	56436.52	3.1060	3.1059	-0.1443	27.44	1.59	-1.500			
0.8823	56464.33	3.1030	3.1030	-0.1433	27.45	1.60	-1.500			
0.8827	56491.68	3.1000	3.1001	-0.1417	27.45	1.60	-1.500			
0.8831	56518.59	3.0970	3.0970	-0.1405	27.46	1.61	-1.500			
0.8835	56545.46	3.0940	3.0940	-0.1394	27.46	1.61	-1.500			
0.8839	56572.01	3.0910	3.0910	-0.1383	27.46	1.61	-1.500			
0.8844	56598.52	3.0880	3.0880	-0.1373	27.47	1.62	-1.500			
0.8848	56624.69	3.0850	3.0851	-0.1364	27.47	1.62	-1.500			
0.8852	56650.81	3.0820	3.0819	-0.1356	27.48	1.63	-1.500			
0.8856	56676.75	3.0790	3.0790	-0.1350	27.48	1.63	-1.500			
0.8860	56702.60	3.0760	3.0760	-0.1345	27.49	1.64	-1.500			
0.8864	56728.21	3.0730	3.0729	-0.1337	27.49	1.64	-1.500			
0.8868	56753.87	3.0700	3.0701	-0.1333	27.50	1.65	-1.500			
0.8872	56779.52	3.0670	3.0670	-0.1329	27.50	1.65	-1.500			
0.8876	56805.27	3.0640	3.0640	-0.1321	27.51	1.66	-1.500			
0.8880	56830.58	3.0610	3.0610	-0.1310	27.51	1.66	-1.500			
0.8884	56855.58	3.0580	3.0580	-0.1298	27.52	1.67	-1.500			
0.8888	56880.31	3.0550	3.0550	-0.1290	27.52	1.67	-1.500			
0.8891	56904.90	3.0520	3.0520	-0.1279	27.52	1.67	-1.500			
0.8895	56929.35	3.0490	3.0490	-0.1273	27.53	1.68	-1.500			
0.8899	56953.55	3.0460	3.0460	-0.1265	27.53	1.68	-1.500			
0.8903	56977.77	3.0430	3.0431	-0.1256	27.54	1.69	-1.500			
0.8907	57001.90	3.0400	3.0400	-0.1256	27.54	1.69	-1.500			
0.8910	57025.95	3.0370	3.0371	-0.1250	27.55	1.70	-1.500			
0.8914	57049.85	3.0340	3.0339	-0.1243	27.55	1.70	-1.500			
0.8918	57073.58	3.0310	3.0310	-0.1236	27.56	1.71	-1.500			
0.8921	57097.37	3.0280	3.0281	-0.1229	27.56	1.71	-1.500			
0.8925	57121.00	3.0250	3.0250	-0.1224	27.57	1.72	-1.500			
0.8929	57144.51	3.0220	3.0220	-0.1212	27.57	1.72	-1.500			
0.8932	57167.93	3.0190	3.0190	-0.1203	27.57	1.72	-1.500			
0.8936	57190.69	3.0160	3.0160	-0.1200	27.58	1.73	-1.500			
0.8940	57213.41	3.0130	3.0131	-0.1191	27.58	1.73	-1.500			
0.8943	57236.25	3.0100	3.0099	-0.1187	27.59	1.74	-1.500			
0.8947	57258.89	3.0070	3.0070	-0.1192	27.59	1.74	-1.500			
0.8950	57281.79	3.0040	3.0040	-0.1194	27.60	1.75	-1.500			
