Ah_balance (normalized)	Ah_balance (mAh)	Voltage - fit (V)	Voltage -  interpolate (V)	dQ/dV (1/V)	Temperature (°C)	Temperature - diff (°C)	Current (C)	R_DC 0ms (mOhm)	R_DC 50ms (mOhm)	R_DC 50 ms PEC (mOhm)
0.2886	18468.95	3.9860	3.9860	0.8593	27.21	1.25	1.500			
0.2911	18631.12	3.9830	3.9830	0.8432	27.20	1.24	1.500			
0.2936	18791.30	3.9800	3.9800	0.8373	27.20	1.24	1.500			
0.2961	18950.12	3.9770	3.9772	0.8416	27.19	1.23	1.500			
0.2986	19111.54	3.9740	3.9739	0.8463	27.19	1.23	1.500			
0.3011	19273.35	3.9710	3.9710	0.8500	27.18	1.22	1.500			
0.3037	19436.64	3.9680	3.9680	0.8563	27.18	1.22	1.500			
0.3063	19603.46	3.9650	3.9651	0.8635	27.17	1.21	1.500			
0.3089	19770.37	3.9620	3.9621	0.8696	27.17	1.21	1.500			
0.3115	19938.34	3.9590	3.9590	0.8715	27.16	1.20	1.500			
0.3142	20106.30	3.9560	3.9559	0.8692	27.16	1.20	1.500			
0.3168	20272.81	3.9530	3.9531	0.8730	27.15	1.19	1.500			
0.3194	20439.99	3.9500	3.9500	0.8772	27.15	1.19	1.500			
0.3220	20609.14	3.9470	3.9470	0.8806	27.14	1.18	1.500			
0.3247	20778.31	3.9440	3.9440	0.8865	27.14	1.18	1.500			
0.3273	20947.18	3.9410	3.9410	0.8931	27.13	1.17	1.500			
0.3300	21121.61	3.9380	3.9380	0.8987	27.13	1.17	1.500			
0.3327	21295.34	3.9350	3.9350	0.9070	27.12	1.16	1.500			
0.3355	21469.35	3.9320	3.9319	0.9079	27.12	1.16	1.500			
0.3382	21644.97	3.9290	3.9290	0.9072	27.11	1.15	1.500			
0.3409	21818.37	3.9260	3.9259	0.9123	27.10	1.14	1.500			
0.3436	21991.76	3.9230	3.9231	0.9178	27.10	1.14	1.500			
0.3464	22168.04	3.9200	3.9201	0.9242	27.09	1.13	1.500			
0.3492	22348.24	3.9170	3.9169	0.9336	27.09	1.13	1.500			
0.3520	22528.60	3.9140	3.9140	0.9359	27.08	1.12	1.500			
0.3549	22710.42	3.9110	3.9111	0.9421	27.08	1.12	1.500			
0.3577	22890.32	3.9080	3.9080	0.9509	27.07	1.11	1.500			
0.3605	23072.48	3.9050	3.9049	0.9545	27.07	1.11	1.500			
0.3633	23253.88	3.9020	3.9020	0.9591	27.06	1.10	1.500			
0.3662	23439.84	3.8990	3.8990	0.9716	27.05	1.09	1.500			
0.3692	23630.41	3.8960	3.8961	0.9830	27.05	1.09	1.500			
0.3722	23820.25	3.8930	3.8930	0.9922	27.04	1.08	1.500			
0.3752	24012.08	3.8900	3.8900	0.9972	27.04	1.08	1.500			
0.3782	24202.65	3.8870	3.8869	1.0030	27.03	1.07	1.500			
0.3812	24394.99	3.8840	3.8841	1.0139	27.03	1.07	1.500			
0.3842	24590.82	3.8810	3.8809	1.0196	27.02	1.06	1.500			
0.3873	24786.80	3.8780	3.8780	1.0313	27.02	1.06	1.500			
0.3904	24985.90	3.8750	3.8750	1.0439	27.01	1.05	1.500			
0.3935	25185.97	3.8720	3.8720	1.0564	27.01	1.05	1.500			
0.3967	25391.72	3.8690	3.8690	1.0718	27.00	1.04	1.500			
0.4000	25598.20	3.8660	3.8660	1.0853	27.00	1.04	1.500			
0.4033	25808.11	3.8630	3.8630	1.0979	26.99	1.03	1.500			
0.4066	26021.54	3.8600	3.8600	1.1122	26.98	1.02	1.500			
0.4099	26235.11	3.8570	3.8570	1.1249	26.97	1.01	1.500			
0.4133	26452.29	3.8540	3.8540	1.1412	26.96	1.00	1.500			
0.4168	26672.10	3.8510	3.8510	1.1574	26.96	1.00	1.500			
0.4202	26895.94	3.8480	3.8480	1.1771	26.95	0.99	1.500			
0.4238	27124.47	3.8450	3.8451	1.1919	26.94	0.98	1.500			
0.4274	27354.75	3.8420	3.8420	1.2128	26.93	0.97	1.500			
0.4311	27589.36	3.8390	3.8390	1.2332	26.92	0.96	1.500			
0.4348	27828.20	3.8360	3.8359	1.2481	26.91	0.95	1.500			
0.4386	28068.88	3.8330	3.8330	1.2724	26.90	0.94	1.500			
0.4424	28314.76	3.8300	3.8301	1.2974	26.89	0.93	1.500			
0.4463	28565.17	3.8270	3.8270	1.3246	26.88	0.92	1.500			
0.4504	28823.67	3.8240	3.8240	1.3477	26.87	0.91	1.500			
0.4544	29082.30	3.8210	3.8210	1.3740	26.86	0.90	1.500			
0.4586	29350.50	3.8180	3.8180	1.3982	26.85	0.89	1.500			
0.4629	29622.80	3.8150	3.8150	1.4252	26.84	0.88	1.500			
0.4671	29895.87	3.8120	3.8120	1.4514	26.83	0.87	1.500			
0.4715	30176.77	3.8090	3.8090	1.4795	26.82	0.86	1.500			
0.4760	30463.49	3.8060	3.8059	1.5067	26.81	0.85	1.500			
0.4806	30757.57	3.8030	3.8030	1.5396	26.80	0.84	1.500			
0.4852	31054.23	3.8000	3.8000	1.5572	26.78	0.82	1.500			
0.4899	31356.33	3.7970	3.7970	1.5996	26.77	0.81	1.500			
0.4947	31663.07	3.7940	3.7940	1.6262	26.75	0.79	1.500			
0.4997	31979.09	3.7910	3.7909	1.6543	26.73	0.77	1.500			
0.5047	32302.88	3.7880	3.7882	1.6809	26.72	0.76	1.500			
0.5098	32630.36	3.7850	3.7850	1.7152	26.70	0.74	1.500			
0.5150	32962.33	3.7820	3.7819	1.7399	26.69	0.73	1.500			
0.5202	33294.66	3.7790	3.7787	1.7415	26.67	0.71	1.500	0.344	0.469	
0.5255	33634.15	3.7760	3.7761	1.7654	26.65	0.69	1.500			
0.5309	33976.41	3.7730	3.7731	1.7754	26.64	0.68	1.500			
0.5362	34317.12	3.7700	3.7700	1.7666	26.63	0.67	1.500			
0.5415	34653.57	3.7670	3.7670	1.7682	26.62	0.66	1.500			
0.5468	34995.12	3.7640	3.7639	1.7676	26.60	0.64	1.500			
0.5521	35333.78	3.7610	3.7610	1.7717	26.59	0.63	1.500			
0.5574	35675.24	3.7580	3.7580	1.7635	26.57	0.61	1.500			
0.5627	36011.78	3.7550	3.7550	1.7694	26.55	0.59	1.500			
0.5679	36346.28	3.7520	3.7521	1.7741	26.54	0.58	1.500			
0.5732	36687.25	3.7490	3.7489	1.7951	26.52	0.56	1.500			
0.5786	37033.47	3.7460	3.7460	1.8108	26.51	0.55	1.500			
0.5841	37383.05	3.7430	3.7430	1.8241	26.49	0.53	1.500			
0.5896	37734.19	3.7400	3.7401	1.8643	26.48	0.52	1.500			
0.5952	38095.65	3.7370	3.7370	1.9066	26.47	0.51	1.500			
0.6010	38462.16	3.7340	3.7340	1.9434	26.45	0.49	1.500			
0.6069	38844.64	3.7310	3.7311	2.0033	26.44	0.48	1.500			
0.6130	39234.74	3.7280	3.7279	2.0450	26.42	0.46	1.500			
0.6192	39631.94	3.7250	3.7251	2.0892	26.41	0.45	1.500			
0.6256	40036.93	3.7220	3.7220	2.1602	26.39	0.43	1.500			
0.6321	40457.50	3.7190	3.7190	2.2292	26.37	0.41	1.500			
0.6388	40883.75	3.7160	3.7161	2.2825	26.36	0.40	1.500			
0.6458	41328.60	3.7130	3.7129	2.3583	26.34	0.38	1.500			
0.6530	41789.58	3.7100	3.7100	2.4273	26.32	0.36	1.500			
0.6604	42266.86	3.7070	3.7071	2.4518	26.31	0.35	1.500			
0.6678	42740.14	3.7040	3.7040	2.3943	26.29	0.33	1.500			
0.6749	43195.42	3.7010	3.7010	2.2960	26.28	0.32	1.500			
0.6818	43635.66	3.6980	3.6980	2.1864	26.26	0.30	1.500			
0.6881	44037.28	3.6950	3.6950	2.0220	26.25	0.29	1.500			
0.6938	44404.25	3.6920	3.6920	1.8564	26.24	0.28	1.500			
0.6991	44739.59	3.6890	3.6890	1.7263	26.23	0.27	1.500			
0.7040	45056.75	3.6860	3.6860	1.6232	26.21	0.25	1.500			
0.7087	45356.33	3.6830	3.6830	1.5305	26.20	0.24	1.500			
0.7132	45641.60	3.6800	3.6800	1.4649	26.19	0.23	1.500			
0.7174	45914.30	3.6770	3.6771	1.4008	26.18	0.22	1.500			
0.7215	46176.01	3.6740	3.6740	1.3562	26.16	0.20	1.500			
0.7255	46429.46	3.6710	3.6710	1.3105	26.15	0.19	1.500			
0.7292	46671.18	3.6680	3.6680	1.2804	26.15	0.19	1.500			
0.7330	46913.88	3.6650	3.6650	1.2678	26.14	0.18	1.500			
0.7368	47154.08	3.6620	3.6620	1.2619	26.13	0.17	1.500			
0.7405	47393.66	3.6590	3.6590	1.2645	26.12	0.16	1.500			
0.7443	47635.58	3.6560	3.6560	1.2691	26.11	0.15	1.500			
0.7481	47880.23	3.6530	3.6529	1.2762	26.10	0.14	1.500			
0.7520	48128.87	3.6500	3.6501	1.2810	26.09	0.13	1.500			
0.7559	48376.00	3.6470	3.6470	1.2766	26.08	0.12	1.500			
0.7598	48624.03	3.6440	3.6440	1.2672	26.07	0.11	1.500			
0.7635	48865.33	3.6410	3.6411	1.2572	26.06	0.10	1.500			
0.7673	49104.34	3.6380	3.6380	1.2521	26.05	0.09	1.500			
0.7710	49343.58	3.6350	3.6350	1.2452	26.04	0.08	1.500			
0.7747	49581.35	3.6320	3.6320	1.2410	26.04	0.08	1.500			
0.7784	49819.80	3.6290	3.6290	1.2416	26.03	0.07	1.500			
0.7822	50059.10	3.6260	3.6260	1.2312	26.02	0.06	1.500			
0.7859	50298.49	3.6230	3.6229	1.2204	26.01	0.05	1.500			
0.7895	50530.31	3.6200	3.6201	1.2110	26.00	0.04	1.500			
0.7932	50762.20	3.6170	3.6170	1.1965	25.99	0.03	1.500			
0.7968	50992.08	3.6140	3.6139	1.1787	25.98	0.02	1.500			
0.8002	51215.91	3.6110	3.6111	1.1618	25.98	0.02	1.500			
0.8037	51437.39	3.6080	3.6080	1.1441	25.98	0.02	1.500			
0.8071	51656.44	3.6050	3.6050	1.1268	25.97	0.01	1.500			
0.8105	51870.20	3.6020	3.6019	1.0986	25.97	0.01	1.500			
0.8138	52080.05	3.5990	3.5991	1.0815	25.97	0.01	1.500			
0.8170	52286.91	3.5960	3.5960	1.0623	25.96	0.00	1.500			
0.8201	52488.55	3.5930	3.5930	1.0398	25.96	0.00	1.500			
0.8232	52687.84	3.5900	3.5899	1.0002	25.96	-0.00	1.500			
0.8262	52878.92	3.5870	3.5870	0.9601	25.96	-0.00	1.500			
0.8292	53066.36	3.5840	3.5840	0.9000	25.96	-0.00	1.500			
0.8318	53236.42	3.5810	3.5810	0.8212	25.95	-0.01	1.500			
0.8342	53389.38	3.5780	3.5780	0.7266	25.95	-0.01	1.500			
0.8362	53519.83	3.5750	3.5750	0.6258	25.95	-0.01	1.500			
0.8379	53627.29	3.5720	3.5721	0.5301	25.95	-0.01	1.500			
0.8393	53717.55	3.5690	3.5689	0.4471	25.95	-0.01	1.500			
0.8404	53788.26	3.5660	3.5660	0.3717	25.95	-0.01	1.500			
0.8414	53850.53	3.5630	3.5630	0.3198	25.95	-0.01	1.500			
0.8422	53903.33	3.5600	3.5599	0.2695	25.94	-0.02	1.500			
0.8430	53949.65	3.5570	3.5569	0.2383	25.94	-0.02	1.500			
0.8436	53989.71	3.5540	3.5539	0.2103	25.94	-0.02	1.500			
0.8442	54026.51	3.5510	3.5511	0.1891	25.94	-0.02	1.500			
0.8447	54060.63	3.5480	3.5480	0.1696	25.94	-0.02	1.500			
0.8452	54090.54	3.5450	3.5451	0.1527	25.94	-0.02	1.500			
0.8456	54118.00	3.5420	3.5419	0.1363	25.94	-0.02	1.500			
0.8460	54142.34	3.5390	3.5389	0.1206	25.94	-0.02	1.500			
0.8463	54164.11	3.5360	3.5361	0.1061	25.94	-0.02	1.500			
0.8466	54182.97	3.5330	3.5331	0.0915	25.94	-0.02	1.500			
0.8469	54199.54	3.5300	3.5300	0.0774	25.94	-0.02	1.500			
0.8471	54212.96	3.5270	3.5271	0.0625	25.94	-0.02	1.500			
0.8472	54223.58	3.5240	3.5246	0.0473	25.94	-0.02	1.500			
0.8474	54231.21	3.5210	3.5218	0.0321	25.94	-0.02	1.500			
