Ah_balance (normalized)	Ah_balance (mAh)	Voltage - fit (V)	Voltage -  interpolate (V)	dQ/dV (1/V)	Temperature (°C)	Temperature - diff (°C)	Current (C)	R_DC 0ms (mOhm)	R_DC 50ms (mOhm)	R_DC 50 ms PEC (mOhm)
0.2785	17825.64	3.9910	3.9910	0.8351	27.37	1.41	1.500			
0.2810	17986.46	3.9880	3.9880	0.8384	27.37	1.41	1.500			
0.2836	18148.22	3.9850	3.9851	0.8396	27.36	1.40	1.500			
0.2861	18308.88	3.9820	3.9820	0.8416	27.36	1.40	1.500			
0.2886	18472.32	3.9790	3.9790	0.8453	27.35	1.39	1.500			
0.2911	18633.02	3.9760	3.9760	0.8436	27.35	1.39	1.500			
0.2937	18794.06	3.9730	3.9730	0.8467	27.34	1.38	1.500			
0.2962	18958.26	3.9700	3.9701	0.8517	27.34	1.38	1.500			
0.2988	19121.13	3.9670	3.9669	0.8561	27.33	1.37	1.500			
0.3013	19285.41	3.9640	3.9639	0.8641	27.33	1.37	1.500			
0.3039	19452.24	3.9610	3.9610	0.8636	27.32	1.36	1.500			
0.3065	19619.10	3.9580	3.9580	0.8681	27.32	1.36	1.500			
0.3092	19786.72	3.9550	3.9551	0.8761	27.31	1.35	1.500			
0.3118	19955.74	3.9520	3.9520	0.8795	27.31	1.35	1.500			
0.3145	20125.30	3.9490	3.9489	0.8817	27.30	1.34	1.500			
0.3171	20294.33	3.9460	3.9461	0.8826	27.30	1.34	1.500			
0.3198	20464.03	3.9430	3.9430	0.8845	27.30	1.34	1.500			
0.3224	20634.30	3.9400	3.9400	0.8923	27.29	1.33	1.500			
0.3251	20804.38	3.9370	3.9370	0.8949	27.29	1.33	1.500			
0.3278	20976.35	3.9340	3.9341	0.8994	27.28	1.32	1.500			
0.3305	21149.85	3.9310	3.9309	0.9119	27.28	1.32	1.500			
0.3332	21326.79	3.9280	3.9281	0.9204	27.27	1.31	1.500			
0.3360	21506.04	3.9250	3.9250	0.9237	27.26	1.30	1.500			
0.3388	21684.12	3.9220	3.9219	0.9246	27.26	1.30	1.500			
0.3416	21861.23	3.9190	3.9192	0.9292	27.25	1.29	1.500			
0.3444	22040.21	3.9160	3.9159	0.9321	27.24	1.28	1.500			
0.3472	22218.81	3.9130	3.9129	0.9379	27.23	1.27	1.500			
0.3500	22397.43	3.9100	3.9100	0.9407	27.22	1.26	1.500			
0.3528	22580.02	3.9070	3.9071	0.9490	27.22	1.26	1.500			
0.3557	22764.93	3.9040	3.9040	0.9620	27.21	1.25	1.500			
0.3586	22949.43	3.9010	3.9010	0.9679	27.20	1.24	1.500			
0.3615	23134.12	3.8980	3.8980	0.9723	27.19	1.23	1.500			
0.3644	23322.42	3.8950	3.8950	0.9833	27.19	1.23	1.500			
0.3674	23511.95	3.8920	3.8920	0.9923	27.18	1.22	1.500			
0.3704	23703.99	3.8890	3.8890	1.0006	27.17	1.21	1.500			
0.3734	23895.76	3.8860	3.8860	1.0131	27.17	1.21	1.500			
0.3764	24089.13	3.8830	3.8831	1.0280	27.16	1.20	1.500			
0.3795	24290.07	3.8800	3.8799	1.0389	27.15	1.19	1.500			
0.3827	24491.34	3.8770	3.8770	1.0529	27.14	1.18	1.500			
0.3859	24695.35	3.8740	3.8741	1.0619	27.13	1.17	1.500			
0.3891	24901.57	3.8710	3.8710	1.0710	27.12	1.16	1.500			
0.3923	25107.30	3.8680	3.8680	1.0767	27.11	1.15	1.500			
0.3955	25312.97	3.8650	3.8650	1.0904	27.10	1.14	1.500			
0.3988	25521.16	3.8620	3.8620	1.1010	27.09	1.13	1.500			
0.4021	25735.40	3.8590	3.8590	1.1241	27.08	1.12	1.500			
0.4055	25952.38	3.8560	3.8559	1.1382	27.07	1.11	1.500			
0.4090	26173.67	3.8530	3.8531	1.1563	27.06	1.10	1.500			
0.4125	26398.03	3.8500	3.8500	1.1740	27.04	1.08	1.500			
0.4160	26625.09	3.8470	3.8470	1.1867	27.03	1.07	1.500			
0.4196	26854.15	3.8440	3.8440	1.2005	27.02	1.06	1.500			
0.4232	27085.24	3.8410	3.8410	1.2169	27.00	1.04	1.500			
0.4269	27319.17	3.8380	3.8380	1.2342	26.99	1.03	1.500			
0.4306	27557.69	3.8350	3.8350	1.2577	26.98	1.02	1.500			
0.4344	27801.06	3.8320	3.8320	1.2779	26.97	1.01	1.500			
0.4383	28048.51	3.8290	3.8290	1.3003	26.96	1.00	1.500			
0.4422	28301.77	3.8260	3.8260	1.3182	26.95	0.99	1.500			
0.4462	28556.73	3.8230	3.8231	1.3407	26.94	0.98	1.500			
0.4502	28814.87	3.8200	3.8200	1.3628	26.93	0.97	1.500			
0.4543	29076.28	3.8170	3.8169	1.3871	26.92	0.96	1.500			
0.4585	29345.48	3.8140	3.8139	1.4118	26.91	0.95	1.500			
0.4628	29620.25	3.8110	3.8110	1.4374	26.89	0.93	1.500			
0.4672	29899.87	3.8080	3.8080	1.4623	26.87	0.91	1.500			
0.4716	30182.37	3.8050	3.8051	1.4877	26.85	0.89	1.500			
0.4761	30470.58	3.8020	3.8020	1.5072	26.84	0.88	1.500			
0.4807	30762.19	3.7990	3.7990	1.5319	26.82	0.86	1.500			
0.4853	31059.09	3.7960	3.7960	1.5522	26.80	0.84	1.500			
0.4900	31359.58	3.7930	3.7930	1.5922	26.78	0.82	1.500			
0.4948	31667.87	3.7900	3.7900	1.6233	26.77	0.81	1.500			
0.4998	31984.16	3.7870	3.7868	1.6368	26.75	0.79	1.500			
0.5047	32303.22	3.7840	3.7841	1.6590	26.73	0.77	1.500	0.347	0.486	
0.5097	32623.29	3.7810	3.7810	1.6729	26.71	0.75	1.500			
0.5148	32946.11	3.7780	3.7779	1.6726	26.69	0.73	1.500			
0.5198	33264.02	3.7750	3.7750	1.6732	26.68	0.72	1.500			
0.5248	33586.25	3.7720	3.7721	1.6888	26.66	0.70	1.500			
0.5299	33912.81	3.7690	3.7689	1.7020	26.64	0.68	1.500			
0.5350	34241.55	3.7660	3.7660	1.7009	26.62	0.66	1.500			
0.5401	34566.45	3.7630	3.7631	1.7101	26.61	0.65	1.500			
0.5452	34895.92	3.7600	3.7600	1.7187	26.59	0.63	1.500			
0.5504	35224.93	3.7570	3.7570	1.7280	26.57	0.61	1.500			
0.5556	35559.66	3.7540	3.7541	1.7516	26.56	0.60	1.500			
0.5610	35901.71	3.7510	3.7510	1.7765	26.54	0.58	1.500			
0.5663	36244.01	3.7480	3.7480	1.7760	26.52	0.56	1.500			
0.5715	36578.09	3.7450	3.7451	1.7975	26.50	0.54	1.500			
0.5770	36925.79	3.7420	3.7420	1.8427	26.48	0.52	1.500			
0.5826	37283.91	3.7390	3.7390	1.8991	26.46	0.50	1.500			
0.5884	37654.95	3.7360	3.7360	1.9356	26.45	0.49	1.500			
0.5943	38033.74	3.7330	3.7330	1.9863	26.43	0.47	1.500			
0.6003	38418.07	3.7300	3.7300	2.0315	26.41	0.45	1.500			
0.6064	38811.43	3.7270	3.7270	2.0986	26.39	0.43	1.500			
0.6128	39220.39	3.7240	3.7240	2.1581	26.37	0.41	1.500			
0.6195	39645.52	3.7210	3.7210	2.2334	26.35	0.39	1.500			
0.6262	40077.84	3.7180	3.7180	2.2684	26.32	0.36	1.500			
0.6331	40521.14	3.7150	3.7150	2.3040	26.30	0.34	1.500			
0.6401	40966.85	3.7120	3.7120	2.2953	26.28	0.32	1.500			
0.6471	41411.27	3.7090	3.7090	2.2544	26.26	0.30	1.500			
0.6538	41844.30	3.7060	3.7059	2.1879	26.24	0.28	1.500			
0.6602	42252.53	3.7030	3.7030	2.0623	26.23	0.27	1.500			
0.6662	42638.07	3.7000	3.7000	1.9190	26.22	0.26	1.500			
0.6717	42987.78	3.6970	3.6971	1.7813	26.21	0.25	1.500			
0.6768	43312.83	3.6940	3.6940	1.6709	26.20	0.24	1.500			
0.6815	43618.12	3.6910	3.6909	1.5733	26.19	0.23	1.500			
0.6861	43909.52	3.6880	3.6881	1.5016	26.17	0.21	1.500			
0.6905	44190.63	3.6850	3.6850	1.4452	26.16	0.20	1.500			
0.6947	44462.09	3.6820	3.6820	1.4020	26.15	0.19	1.500			
0.6988	44724.73	3.6790	3.6790	1.3528	26.14	0.18	1.500			
0.7028	44978.30	3.6760	3.6760	1.3201	26.13	0.17	1.500			
0.7067	45225.92	3.6730	3.6730	1.2970	26.12	0.16	1.500			
0.7105	45470.09	3.6700	3.6701	1.2779	26.11	0.15	1.500			
0.7143	45712.88	3.6670	3.6669	1.2681	26.10	0.14	1.500			
0.7180	45953.38	3.6640	3.6640	1.2674	26.09	0.13	1.500			
0.7218	46197.00	3.6610	3.6610	1.2658	26.08	0.12	1.500			
0.7257	46442.81	3.6580	3.6580	1.2640	26.07	0.11	1.500			
0.7295	46685.13	3.6550	3.6549	1.2549	26.06	0.10	1.500			
0.7332	46923.89	3.6520	3.6522	1.2489	26.05	0.09	1.500			
0.7370	47165.23	3.6490	3.6489	1.2423	26.04	0.08	1.500			
0.7407	47402.76	3.6460	3.6460	1.2305	26.03	0.07	1.500			
0.7443	47637.26	3.6430	3.6430	1.2192	26.03	0.07	1.500			
0.7480	47870.52	3.6400	3.6401	1.2135	26.02	0.06	1.500			
0.7516	48103.10	3.6370	3.6370	1.2025	26.01	0.05	1.500			
0.7552	48332.26	3.6340	3.6340	1.1898	26.00	0.04	1.500			
0.7587	48558.16	3.6310	3.6310	1.1802	25.99	0.03	1.500			
0.7623	48785.04	3.6280	3.6280	1.1747	25.99	0.03	1.500			
0.7658	49009.78	3.6250	3.6250	1.1634	25.98	0.02	1.500			
0.7693	49233.70	3.6220	3.6220	1.1444	25.98	0.02	1.500			
0.7727	49452.16	3.6190	3.6190	1.1273	25.97	0.01	1.500			
0.7761	49668.80	3.6160	3.6161	1.1093	25.97	0.01	1.500			
0.7794	49879.09	3.6130	3.6128	1.0866	25.96	0.00	1.500			
0.7826	50084.36	3.6100	3.6100	1.0601	25.96	0.00	1.500			
0.7857	50286.75	3.6070	3.6070	1.0359	25.96	0.00	1.500			
0.7888	50484.94	3.6040	3.6040	1.0094	25.96	0.00	1.500			
0.7918	50676.91	3.6010	3.6010	0.9816	25.96	0.00	1.500			
0.7947	50862.63	3.5980	3.5980	0.9443	25.96	0.00	1.500			
0.7975	51041.69	3.5950	3.5949	0.9049	25.96	0.00	1.500			
0.8002	51214.91	3.5920	3.5919	0.8526	25.96	0.00	1.500			
0.8027	51375.76	3.5890	3.5890	0.7933	25.96	0.00	1.500			
0.8051	51527.03	3.5860	3.5860	0.7180	25.96	0.00	1.500			
0.8072	51658.02	3.5830	3.5831	0.6312	25.96	0.00	1.500			
0.8089	51769.77	3.5800	3.5801	0.5438	25.96	0.00	1.500			
0.8104	51864.43	3.5770	3.5769	0.4623	25.96	0.00	1.500			
0.8116	51941.88	3.5740	3.5739	0.3913	25.96	0.00	1.500			
0.8126	52007.41	3.5710	3.5709	0.3366	25.96	0.00	1.500			
0.8135	52062.40	3.5680	3.5680	0.2895	25.96	0.00	1.500			
0.8143	52113.18	3.5650	3.5650	0.2572	25.96	0.00	1.500			
0.8150	52157.05	3.5620	3.5620	0.2245	25.96	0.00	1.500			
0.8156	52196.53	3.5590	3.5589	0.2026	25.96	0.00	1.500			
0.8161	52231.61	3.5560	3.5560	0.1816	25.96	0.00	1.500			
0.8166	52264.29	3.5530	3.5529	0.1635	25.96	0.00	1.500			
0.8171	52294.00	3.5500	3.5500	0.1483	25.96	0.00	1.500			
0.8175	52320.76	3.5470	3.5470	0.1327	25.96	0.00	1.500			
0.8179	52344.49	3.5440	3.5441	0.1179	25.96	0.00	1.500			
0.8182	52365.81	3.5410	3.5410	0.1036	25.96	0.00	1.500			
0.8185	52384.32	3.5380	3.5380	0.0891	25.96	0.00	1.500			
0.8187	52399.66	3.5350	3.5350	0.0746	25.96	0.00	1.500			
0.8190	52412.87	3.5320	3.5323	0.0605	25.96	0.00	1.500			
0.8191	52423.09	3.5290	3.5297	0.0460	25.96	0.00	1.500			
0.8192	52430.54	3.5260	3.5272	0.0316	25.96	0.00	1.500			
