Ah_balance (normalized)	Ah_balance (mAh)	Voltage - fit (V)	Voltage -  interpolate (V)	dQ/dV (1/V)	Temperature (°C)	Temperature - diff (°C)	Current (C)	R_DC 0ms (mOhm)	R_DC 50ms (mOhm)	R_DC 50 ms PEC (mOhm)
0.2843	18195.19	3.9680	3.9681	0.8807	27.22	1.25	1.500			
0.2870	18370.39	3.9650	3.9649	0.9018	27.22	1.25	1.500			
0.2897	18540.90	3.9620	3.9620	0.8957	27.22	1.25	1.500			
0.2924	18711.21	3.9590	3.9591	0.9009	27.21	1.24	1.500			
0.2951	18884.88	3.9560	3.9562	0.9059	27.21	1.24	1.500			
0.2978	19057.96	3.9530	3.9530	0.9117	27.21	1.24	1.500			
0.3005	19234.16	3.9500	3.9501	0.9141	27.21	1.24	1.500			
0.3033	19410.37	3.9470	3.9470	0.9165	27.20	1.23	1.500			
0.3061	19590.55	3.9440	3.9440	0.9242	27.20	1.23	1.500			
0.3088	19764.40	3.9410	3.9411	0.9206	27.20	1.23	1.500			
0.3116	19941.49	3.9380	3.9379	0.9166	27.20	1.23	1.500			
0.3143	20115.54	3.9350	3.9351	0.9272	27.20	1.23	1.500			
0.3171	20293.26	3.9320	3.9320	0.9364	27.19	1.22	1.500			
0.3199	20475.17	3.9290	3.9290	0.9529	27.19	1.22	1.500			
0.3228	20659.96	3.9260	3.9260	0.9582	27.19	1.22	1.500			
0.3257	20845.26	3.9230	3.9231	0.9675	27.19	1.22	1.500			
0.3286	21032.12	3.9200	3.9200	0.9718	27.18	1.21	1.500			
0.3316	21221.49	3.9170	3.9169	0.9769	27.18	1.21	1.500			
0.3344	21404.25	3.9140	3.9140	0.9757	27.18	1.21	1.500			
0.3374	21593.44	3.9110	3.9111	0.9830	27.18	1.21	1.500			
0.3404	21782.53	3.9080	3.9080	0.9932	27.17	1.20	1.500			
0.3434	21975.08	3.9050	3.9050	1.0071	27.17	1.20	1.500			
0.3464	22168.58	3.9020	3.9020	1.0146	27.17	1.20	1.500			
0.3495	22365.47	3.8990	3.8990	1.0212	27.17	1.20	1.500			
0.3525	22562.69	3.8960	3.8960	1.0263	27.16	1.19	1.500			
0.3556	22758.12	3.8930	3.8931	1.0401	27.16	1.19	1.500			
0.3587	22959.52	3.8900	3.8899	1.0559	27.16	1.19	1.500			
0.3619	23162.30	3.8870	3.8869	1.0570	27.15	1.18	1.500			
0.3651	23366.13	3.8840	3.8841	1.0695	27.15	1.18	1.500			
0.3683	23572.88	3.8810	3.8811	1.0853	27.14	1.17	1.500			
0.3716	23782.84	3.8780	3.8777	1.0990	27.14	1.17	1.500			
0.3749	23994.00	3.8750	3.8750	1.1098	27.14	1.17	1.500			
0.3782	24207.01	3.8720	3.8720	1.1222	27.13	1.16	1.500			
0.3816	24425.48	3.8690	3.8690	1.1431	27.13	1.16	1.500			
0.3851	24646.91	3.8660	3.8660	1.1497	27.12	1.15	1.500			
0.3886	24869.64	3.8630	3.8630	1.1631	27.12	1.15	1.500			
0.3921	25091.98	3.8600	3.8600	1.1800	27.12	1.15	1.500			
0.3956	25320.06	3.8570	3.8569	1.2005	27.11	1.14	1.500			
0.3992	25551.74	3.8540	3.8540	1.2210	27.10	1.13	1.500			
0.4029	25788.02	3.8510	3.8510	1.2443	27.10	1.13	1.500			
0.4067	26031.18	3.8480	3.8480	1.2625	27.09	1.12	1.500			
0.4106	26277.00	3.8450	3.8450	1.2838	27.08	1.11	1.500			
0.4144	26523.44	3.8420	3.8420	1.2990	27.07	1.10	1.500			
0.4183	26772.34	3.8390	3.8389	1.3202	27.07	1.10	1.500			
0.4223	27027.10	3.8360	3.8360	1.3413	27.06	1.09	1.500			
0.4263	27285.81	3.8330	3.8330	1.3702	27.05	1.08	1.500			
0.4305	27552.45	3.8300	3.8300	1.3990	27.04	1.07	1.500			
0.4348	27824.26	3.8270	3.8270	1.4341	27.03	1.06	1.500			
0.4391	28101.33	3.8240	3.8240	1.4656	27.02	1.05	1.500			
0.4435	28384.35	3.8210	3.8211	1.5055	27.02	1.05	1.500			
0.4481	28677.17	3.8180	3.8180	1.5440	27.01	1.04	1.500			
0.4528	28978.10	3.8150	3.8150	1.5847	26.99	1.02	1.500			
0.4576	29284.38	3.8120	3.8121	1.6157	26.98	1.01	1.500			
0.4625	29597.78	3.8090	3.8091	1.6591	26.97	1.00	1.500			
0.4675	29919.16	3.8060	3.8060	1.6979	26.96	0.99	1.500			
0.4726	30247.80	3.8030	3.8029	1.7474	26.95	0.98	1.500			
0.4779	30586.91	3.8000	3.8000	1.7903	26.93	0.96	1.500			
0.4834	30937.30	3.7970	3.7970	1.8453	26.92	0.95	1.500			
0.4890	31297.49	3.7940	3.7941	1.9078	26.91	0.94	1.500			
0.4947	31662.42	3.7910	3.7909	1.9596	26.89	0.92	1.500			
0.5007	32044.09	3.7880	3.7880	2.0325	26.88	0.91	1.500			
0.5069	32439.59	3.7850	3.7850	2.0868	26.86	0.89	1.500			
0.5132	32845.59	3.7820	3.7821	2.1666	26.84	0.87	1.500			
0.5199	33273.97	3.7790	3.7789	2.2164	26.82	0.85	1.500			
0.5266	33701.00	3.7760	3.7760	2.2590	26.81	0.84	1.500			
0.5334	34137.40	3.7730	3.7732	2.3068	26.79	0.82	1.500			
0.5404	34583.06	3.7700	3.7700	2.3554	26.77	0.80	1.500			
0.5475	35040.78	3.7670	3.7671	2.4197	26.76	0.79	1.500			
0.5550	35519.48	3.7640	3.7641	2.4988	26.73	0.76	1.500			
0.5626	36006.47	3.7610	3.7610	2.5301	26.71	0.74	1.500	0.372	0.447	
0.5703	36496.14	3.7580	3.7580	2.5038	26.68	0.71	1.500			
0.5778	36980.94	3.7550	3.7550	2.4871	26.66	0.69	1.500			
0.5853	37457.71	3.7520	3.7520	2.4546	26.64	0.67	1.500			
0.5925	37922.82	3.7490	3.7490	2.4031	26.62	0.65	1.500			
0.5997	38378.21	3.7460	3.7460	2.3690	26.60	0.63	1.500			
0.6067	38830.91	3.7430	3.7430	2.3325	26.58	0.61	1.500			
0.6136	39271.60	3.7400	3.7401	2.2994	26.56	0.59	1.500			
0.6204	39708.01	3.7370	3.7368	2.2797	26.54	0.57	1.500			
0.6273	40147.44	3.7340	3.7340	2.2456	26.53	0.56	1.500			
0.6339	40572.66	3.7310	3.7311	2.2484	26.51	0.54	1.500			
0.6406	41000.25	3.7280	3.7280	2.2460	26.49	0.52	1.500			
0.6474	41436.13	3.7250	3.7250	2.2959	26.48	0.51	1.500			
0.6544	41879.43	3.7220	3.7221	2.3295	26.46	0.49	1.500			
0.6615	42332.91	3.7190	3.7190	2.4061	26.45	0.48	1.500			
0.6687	42796.79	3.7160	3.7160	2.4694	26.44	0.47	1.500			
0.6762	43278.95	3.7130	3.7130	2.5400	26.42	0.45	1.500			
0.6839	43772.70	3.7100	3.7101	2.6693	26.40	0.43	1.500			
0.6922	44300.95	3.7070	3.7070	2.7647	26.38	0.41	1.500			
0.7006	44836.98	3.7040	3.7041	2.9426	26.36	0.39	1.500			
0.7097	45419.03	3.7010	3.7008	3.0115	26.34	0.37	1.500			
0.7189	46011.14	3.6980	3.6980	3.0457	26.32	0.35	1.500			
0.7282	46607.91	3.6950	3.6949	2.9893	26.31	0.34	1.500			
0.7369	47161.27	3.6920	3.6921	2.8733	26.29	0.32	1.500			
0.7456	47715.93	3.6890	3.6888	2.7274	26.27	0.30	1.500			
0.7535	48226.72	3.6860	3.6860	2.4956	26.26	0.29	1.500			
0.7606	48679.25	3.6830	3.6831	2.2588	26.25	0.28	1.500			
0.7668	49075.58	3.6800	3.6801	1.9990	26.25	0.28	1.500			
0.7725	49439.70	3.6770	3.6770	1.8425	26.24	0.27	1.500			
0.7777	49771.23	3.6740	3.6739	1.7056	26.23	0.26	1.500			
0.7825	50079.93	3.6710	3.6709	1.5733	26.22	0.25	1.500			
0.7870	50366.91	3.6680	3.6681	1.4804	26.21	0.24	1.500			
0.7912	50639.73	3.6650	3.6650	1.3949	26.20	0.23	1.500			
0.7952	50895.43	3.6620	3.6620	1.3346	26.19	0.22	1.500			
0.7991	51142.76	3.6590	3.6590	1.2783	26.18	0.21	1.500			
0.8028	51376.59	3.6560	3.6560	1.2390	26.17	0.20	1.500			
0.8064	51610.69	3.6530	3.6531	1.2208	26.16	0.19	1.500			
0.8100	51839.50	3.6500	3.6500	1.2081	26.15	0.18	1.500			
0.8136	52068.65	3.6470	3.6470	1.2125	26.14	0.17	1.500			
0.8172	52298.54	3.6440	3.6440	1.2276	26.13	0.16	1.500			
0.8208	52534.36	3.6410	3.6408	1.2492	26.12	0.15	1.500			
0.8247	52779.29	3.6380	3.6380	1.2692	26.11	0.14	1.500			
0.8285	53025.76	3.6350	3.6351	1.2836	26.10	0.13	1.500			
0.8325	53280.80	3.6320	3.6319	1.2822	26.09	0.12	1.500			
0.8363	53526.30	3.6290	3.6289	1.2819	26.08	0.11	1.500			
0.8401	53768.89	3.6260	3.6261	1.2743	26.07	0.10	1.500			
0.8439	54011.64	3.6230	3.6230	1.2772	26.07	0.10	1.500			
0.8477	54254.93	3.6200	3.6200	1.2844	26.06	0.09	1.500			
0.8516	54502.64	3.6170	3.6170	1.2919	26.05	0.08	1.500			
0.8555	54751.42	3.6140	3.6141	1.3000	26.04	0.07	1.500			
0.8595	55005.46	3.6110	3.6110	1.3058	26.03	0.06	1.500			
0.8634	55256.39	3.6080	3.6079	1.3022	26.02	0.05	1.500			
0.8673	55507.98	3.6050	3.6050	1.3014	26.01	0.04	1.500			
0.8712	55758.03	3.6020	3.6020	1.2910	26.00	0.03	1.500			
0.8751	56006.21	3.5990	3.5989	1.2766	25.99	0.02	1.500			
0.8789	56251.89	3.5960	3.5960	1.2613	25.99	0.02	1.500			
0.8827	56493.02	3.5930	3.5930	1.2405	25.98	0.01	1.500			
0.8864	56727.81	3.5900	3.5900	1.2193	25.98	0.01	1.500			
0.8900	56958.64	3.5870	3.5871	1.2051	25.97	0.00	1.500			
0.8935	57185.72	3.5840	3.5841	1.2026	25.96	-0.01	1.500			
0.8971	57413.79	3.5810	3.5809	1.2085	25.96	-0.01	1.500			
0.9007	57645.47	3.5780	3.5780	1.2248	25.96	-0.01	1.500			
0.9044	57883.14	3.5750	3.5749	1.2312	25.96	-0.01	1.500			
0.9083	58131.86	3.5720	3.5719	1.1850	25.96	-0.01	1.500			
0.9120	58369.72	3.5690	3.5691	1.1118	25.97	-0.00	1.500			
0.9155	58591.01	3.5660	3.5661	1.0007	25.97	-0.00	1.500			
0.9184	58775.51	3.5630	3.5631	0.8470	25.97	-0.00	1.500			
0.9206	58920.49	3.5600	3.5600	0.6896	25.97	-0.00	1.500			
0.9223	59027.84	3.5570	3.5569	0.5518	25.97	0.00	1.500			
0.9236	59108.13	3.5540	3.5541	0.4312	25.97	0.00	1.500			
0.9247	59178.36	3.5510	3.5507	0.3389	25.97	0.00	1.500			
0.9254	59227.80	3.5480	3.5479	0.2724	25.97	0.00	1.500			
0.9261	59270.27	3.5450	3.5450	0.2269	25.97	0.00	1.500			
0.9267	59308.71	3.5420	3.5420	0.1885	25.97	0.00	1.500			
0.9272	59339.56	3.5390	3.5389	0.1622	25.97	0.00	1.500			
0.9276	59366.50	3.5360	3.5360	0.1331	25.97	0.00	1.500			
0.9279	59388.65	3.5330	3.5329	0.1081	25.97	0.00	1.500			
0.9282	59406.61	3.5300	3.5301	0.0858	25.97	0.00	1.500			
0.9285	59421.04	3.5270	3.5272	0.0645	25.97	0.00	1.500			
0.9286	59431.37	3.5240	3.5244	0.0455	25.97	0.00	1.500			
