Ah_balance (normalized)	Ah_balance (mAh)	Voltage - fit (V)	Voltage -  interpolate (V)	dQ/dV (1/V)	Temperature (°C)	Temperature - diff (°C)	Current (C)	R_DC 0ms (mOhm)	R_DC 50ms (mOhm)	R_DC 50 ms PEC (mOhm)
0.2040	13058.38	3.9070	3.9065	-0.1314	26.00	-0.00	-1.500			
0.2045	13086.11	3.9040	3.9040	-0.1668	26.00	-0.00	-1.500			
0.2050	13122.18	3.9010	3.9010	-0.2054	26.00	-0.00	-1.500			
0.2057	13166.06	3.8980	3.8981	-0.2404	26.00	-0.00	-1.500			
0.2065	13215.77	3.8950	3.8949	-0.2749	26.00	-0.00	-1.500			
0.2074	13272.80	3.8920	3.8921	-0.3087	26.00	0.00	-1.500			
0.2084	13335.10	3.8890	3.8890	-0.3417	26.00	0.00	-1.500			
0.2094	13404.20	3.8860	3.8860	-0.3737	26.00	0.00	-1.500			
0.2106	13478.09	3.8830	3.8830	-0.4064	26.00	0.00	-1.500			
0.2119	13559.46	3.8800	3.8800	-0.4400	26.00	0.00	-1.500			
0.2132	13647.23	3.8770	3.8770	-0.4743	26.00	0.00	-1.500			
0.2147	13740.83	3.8740	3.8741	-0.5097	26.00	0.00	-1.500			
0.2163	13842.56	3.8710	3.8710	-0.5442	26.00	0.00	-1.500			
0.2180	13950.36	3.8680	3.8679	-0.5775	26.00	0.00	-1.500			
0.2198	14065.49	3.8650	3.8650	-0.6104	26.01	0.01	-1.500			
0.2216	14185.57	3.8620	3.8621	-0.6416	26.01	0.01	-1.500			
0.2237	14313.67	3.8590	3.8590	-0.6699	26.01	0.01	-1.500			
0.2257	14445.74	3.8560	3.8560	-0.6916	26.01	0.01	-1.500			
0.2278	14580.98	3.8530	3.8530	-0.7118	26.01	0.01	-1.500			
0.2300	14720.40	3.8500	3.8501	-0.7299	26.01	0.01	-1.500			
0.2322	14862.24	3.8470	3.8470	-0.7472	26.01	0.01	-1.500			
0.2345	15006.58	3.8440	3.8440	-0.7641	26.02	0.02	-1.500			
0.2368	15156.18	3.8410	3.8410	-0.7716	26.02	0.02	-1.500			
0.2392	15305.91	3.8380	3.8380	-0.7834	26.03	0.03	-1.500			
0.2416	15459.77	3.8350	3.8351	-0.7934	26.04	0.04	-1.500			
0.2439	15612.25	3.8320	3.8320	-0.7980	26.04	0.04	-1.500			
0.2463	15764.69	3.8290	3.8289	-0.8089	26.05	0.05	-1.500			
0.2488	15921.21	3.8260	3.8261	-0.8154	26.06	0.06	-1.500			
0.2512	16078.73	3.8230	3.8229	-0.8218	26.06	0.06	-1.500			
0.2537	16238.87	3.8200	3.8200	-0.8294	26.07	0.07	-1.500			
0.2562	16398.24	3.8170	3.8171	-0.8320	26.08	0.08	-1.500			
0.2587	16558.73	3.8140	3.8139	-0.8357	26.09	0.09	-1.500			
0.2612	16719.72	3.8110	3.8109	-0.8350	26.09	0.09	-1.500			
0.2637	16879.27	3.8080	3.8080	-0.8348	26.10	0.10	-1.500			
0.2662	17039.10	3.8050	3.8051	-0.8428	26.11	0.11	-1.500			
0.2688	17202.49	3.8020	3.8020	-0.8487	26.12	0.12	-1.500			
0.2713	17365.94	3.7990	3.7989	-0.8516	26.13	0.13	-1.500			
0.2739	17529.40	3.7960	3.7959	-0.8577	26.13	0.13	-1.500			
0.2765	17696.18	3.7930	3.7931	-0.8580	26.14	0.14	-1.500			
0.2791	17862.59	3.7900	3.7899	-0.8620	26.15	0.15	-1.500			
0.2817	18027.66	3.7870	3.7871	-0.8593	26.16	0.16	-1.500			
0.2842	18190.98	3.7840	3.7840	-0.8550	26.17	0.17	-1.500			
0.2868	18355.53	3.7810	3.7810	-0.8569	26.18	0.18	-1.500			
0.2894	18519.24	3.7780	3.7780	-0.8615	26.18	0.18	-1.500			
0.2920	18684.90	3.7750	3.7750	-0.8620	26.19	0.19	-1.500			
0.2946	18853.12	3.7720	3.7719	-0.8663	26.20	0.20	-1.500			
0.2972	19018.06	3.7690	3.7691	-0.8674	26.21	0.21	-1.500			
0.2998	19185.42	3.7660	3.7660	-0.8726	26.22	0.22	-1.500			
0.3024	19352.92	3.7630	3.7630	-0.8773	26.23	0.23	-1.500			
0.3050	19521.05	3.7600	3.7599	-0.8828	26.23	0.23	-1.500			
0.3077	19691.20	3.7570	3.7570	-0.8839	26.24	0.24	-1.500			
0.3104	19863.48	3.7540	3.7539	-0.8874	26.25	0.25	-1.500			
0.3130	20033.64	3.7510	3.7511	-0.8822	26.27	0.27	-1.500			
0.3157	20201.91	3.7480	3.7480	-0.8823	26.28	0.28	-1.500			
0.3183	20372.14	3.7450	3.7450	-0.8817	26.29	0.29	-1.500			
0.3209	20539.91	3.7420	3.7419	-0.8779	26.30	0.30	-1.500			
0.3236	20709.75	3.7390	3.7390	-0.8865	26.31	0.31	-1.500			
0.3263	20881.66	3.7360	3.7360	-0.8892	26.32	0.32	-1.500			
0.3290	21053.51	3.7330	3.7329	-0.8930	26.33	0.33	-1.500			
0.3316	21225.27	3.7300	3.7301	-0.8932	26.34	0.34	-1.500			
0.3343	21395.41	3.7270	3.7269	-0.8887	26.35	0.35	-1.500			
0.3370	21566.71	3.7240	3.7240	-0.8897	26.35	0.35	-1.500			
0.3396	21734.71	3.7210	3.7211	-0.8831	26.36	0.36	-1.500			
0.3423	21907.40	3.7180	3.7179	-0.8892	26.37	0.37	-1.500			
0.3450	22077.32	3.7150	3.7150	-0.8934	26.38	0.38	-1.500			
0.3476	22248.26	3.7120	3.7120	-0.9003	26.38	0.38	-1.500			
0.3503	22422.16	3.7090	3.7090	-0.9050	26.39	0.39	-1.500			
0.3531	22597.32	3.7060	3.7060	-0.9089	26.40	0.40	-1.500			
0.3558	22773.10	3.7030	3.7031	-0.9106	26.41	0.41	-1.500			
0.3586	22948.88	3.7000	3.6999	-0.9137	26.41	0.41	-1.500			
0.3613	23124.01	3.6970	3.6969	-0.9162	26.42	0.42	-1.500			
0.3640	23297.08	3.6940	3.6941	-0.9227	26.43	0.43	-1.500			
0.3668	23472.79	3.6910	3.6911	-0.9284	26.43	0.43	-1.500			
0.3696	23654.33	3.6880	3.6878	-0.9426	26.44	0.44	-1.500			
0.3724	23835.89	3.6850	3.6850	-0.9549	26.45	0.45	-1.500			
0.3753	24021.19	3.6820	3.6821	-0.9645	26.45	0.45	-1.500			
0.3782	24205.99	3.6790	3.6790	-0.9753	26.46	0.46	-1.500			
0.3812	24394.42	3.6760	3.6760	-0.9888	26.47	0.47	-1.500			
0.3841	24585.48	3.6730	3.6730	-0.9987	26.47	0.47	-1.500			
0.3872	24778.37	3.6700	3.6700	-1.0140	26.48	0.48	-1.500			
0.3902	24973.34	3.6670	3.6671	-1.0316	26.48	0.48	-1.500			
0.3933	25171.65	3.6640	3.6640	-1.0509	26.48	0.48	-1.500			
0.3965	25375.89	3.6610	3.6610	-1.0753	26.49	0.49	-1.500			
0.3997	25583.09	3.6580	3.6580	-1.0973	26.49	0.49	-1.500			
0.4031	25796.42	3.6550	3.6550	-1.1198	26.50	0.50	-1.500			
0.4065	26014.78	3.6520	3.6520	-1.1477	26.50	0.50	-1.500			
0.4100	26236.94	3.6490	3.6490	-1.1694	26.50	0.50	-1.500			
0.4135	26463.54	3.6460	3.6459	-1.1923	26.50	0.50	-1.500			
0.4171	26694.03	3.6430	3.6430	-1.2181	26.50	0.50	-1.500			
0.4208	26930.53	3.6400	3.6401	-1.2448	26.50	0.50	-1.500			
0.4246	27171.45	3.6370	3.6369	-1.2740	26.50	0.50	-1.500			
0.4284	27418.87	3.6340	3.6340	-1.3056	26.50	0.50	-1.500			
0.4324	27671.11	3.6310	3.6311	-1.3312	26.50	0.50	-1.500			
0.4364	27929.91	3.6280	3.6280	-1.3645	26.50	0.50	-1.500			
0.4405	28194.43	3.6250	3.6250	-1.4009	26.50	0.50	-1.500			
0.4448	28466.70	3.6220	3.6220	-1.4332	26.49	0.49	-1.500			
0.4491	28745.50	3.6190	3.6190	-1.4630	26.49	0.49	-1.500			
0.4536	29029.00	3.6160	3.6160	-1.4953	26.49	0.49	-1.500			
0.4581	29320.96	3.6130	3.6131	-1.5239	26.49	0.49	-1.500			
0.4628	29617.12	3.6100	3.6100	-1.5536	26.49	0.49	-1.500			
0.4675	29917.61	3.6070	3.6070	-1.5819	26.48	0.48	-1.500			
0.4722	30223.38	3.6040	3.6040	-1.6126	26.48	0.48	-1.500			
0.4771	30536.21	3.6010	3.6010	-1.6460	26.47	0.47	-1.500			
0.4821	30855.08	3.5980	3.5981	-1.6749	26.47	0.47	-1.500			
0.4872	31178.69	3.5950	3.5950	-1.7054	26.46	0.46	-1.500			
0.4924	31510.45	3.5920	3.5920	-1.7444	26.46	0.46	-1.500			
0.4976	31847.06	3.5890	3.5889	-1.7752	26.45	0.45	-1.500			
0.5030	32193.41	3.5860	3.5860	-1.8134	26.44	0.44	-1.500			
0.5085	32545.31	3.5830	3.5830	-1.8399	26.44	0.44	-1.500			
0.5141	32902.62	3.5800	3.5799	-1.8596	26.43	0.43	-1.500			
0.5197	33262.74	3.5770	3.5770	-1.8771	26.42	0.42	-1.500			
0.5253	33621.54	3.5740	3.5741	-1.8898	26.41	0.41	-1.500			
0.5310	33986.97	3.5710	3.5710	-1.9297	26.40	0.40	-1.500			
0.5369	34358.41	3.5680	3.5680	-1.9541	26.40	0.40	-1.500			
0.5427	34733.37	3.5650	3.5650	-1.9856	26.39	0.39	-1.500			
0.5488	35120.33	3.5620	3.5620	-2.0234	26.39	0.39	-1.500			
0.5549	35515.36	3.5590	3.5590	-2.0441	26.38	0.38	-1.500			
0.5611	35911.54	3.5560	3.5560	-2.0467	26.38	0.38	-1.500			
0.5673	36304.57	3.5530	3.5530	-2.0625	26.37	0.37	-1.500	0.392	0.492	
0.5734	36699.71	3.5500	3.5500	-2.0704	26.37	0.37	-1.500			
0.5797	37098.23	3.5470	3.5469	-2.0841	26.36	0.36	-1.500			
0.5859	37499.41	3.5440	3.5441	-2.1050	26.36	0.36	-1.500			
0.5923	37908.21	3.5410	3.5410	-2.1223	26.35	0.35	-1.500			
0.5987	38318.86	3.5380	3.5380	-2.1337	26.35	0.35	-1.500			
0.6051	38729.22	3.5350	3.5350	-2.1321	26.34	0.34	-1.500			
0.6115	39138.88	3.5320	3.5320	-2.1404	26.34	0.34	-1.500			
0.6180	39553.44	3.5290	3.5290	-2.1257	26.33	0.33	-1.500			
0.6244	39959.74	3.5260	3.5260	-2.1059	26.33	0.33	-1.500			
0.6307	40363.71	3.5230	3.5231	-2.0866	26.32	0.32	-1.500			
0.6369	40761.56	3.5200	3.5200	-2.0612	26.32	0.32	-1.500			
0.6431	41156.94	3.5170	3.5170	-2.0392	26.33	0.33	-1.500			
0.6491	41545.27	3.5140	3.5140	-2.0180	26.33	0.33	-1.500			
0.6552	41932.18	3.5110	3.5110	-1.9968	26.34	0.34	-1.500			
0.6611	42313.28	3.5080	3.5079	-1.9734	26.34	0.34	-1.500			
0.6670	42687.99	3.5050	3.5050	-1.9436	26.35	0.35	-1.500			
0.6728	43058.13	3.5020	3.5020	-1.9129	26.35	0.35	-1.500			
0.6785	43423.89	3.4990	3.4990	-1.8944	26.36	0.36	-1.500			
0.6841	43784.02	3.4960	3.4960	-1.8672	26.36	0.36	-1.500			
0.6897	44138.66	3.4930	3.4930	-1.8386	26.37	0.37	-1.500			
0.6952	44489.75	3.4900	3.4900	-1.8189	26.38	0.38	-1.500			
0.7006	44838.85	3.4870	3.4869	-1.7899	26.38	0.38	-1.500			
0.7059	45179.23	3.4840	3.4840	-1.7625	26.39	0.39	-1.500			
0.7112	45515.05	3.4810	3.4810	-1.7389	26.40	0.40	-1.500			
0.7163	45844.39	3.4780	3.4780	-1.7132	26.41	0.41	-1.500			
0.7214	46170.51	3.4750	3.4749	-1.6853	26.42	0.42	-1.500			
0.7265	46493.03	3.4720	3.4720	-1.6577	26.43	0.43	-1.500			
0.7314	46809.54	3.4690	3.4690	-1.6302	26.44	0.44	-1.500			
0.7363	47122.35	3.4660	3.4660	-1.5946	26.45	0.45	-1.500			
0.7410	47423.97	3.4630	3.4630	-1.5622	26.47	0.47	-1.500			
0.7456	47719.90	3.4600	3.4600	-1.5301	26.48	0.48	-1.500			
0.7501	48008.26	3.4570	3.4569	-1.5024	26.49	0.49	-1.500			
0.7545	48291.17	3.4540	3.4540	-1.4895	26.50	0.50	-1.500			
0.7590	48573.86	3.4510	3.4510	-1.4817	26.52	0.52	-1.500			
0.7634	48858.28	3.4480	3.4480	-1.4723	26.53	0.53	-1.500			
0.7679	49143.25	3.4450	3.4449	-1.4672	26.55	0.55	-1.500			
0.7723	49424.28	3.4420	3.4421	-1.4544	26.57	0.57	-1.500			
0.7766	49703.96	3.4390	3.4391	-1.4497	26.58	0.58	-1.500			
0.7810	49981.96	3.4360	3.4360	-1.4303	26.60	0.60	-1.500			
0.7852	50252.54	3.4330	3.4329	-1.4223	26.62	0.62	-1.500			
0.7894	50521.38	3.4300	3.4300	-1.4128	26.64	0.64	-1.500			
0.7936	50792.74	3.4270	3.4270	-1.4134	26.66	0.66	-1.500			
0.7979	51064.90	3.4240	3.4240	-1.4067	26.68	0.68	-1.500			
0.8021	51337.14	3.4210	3.4210	-1.4012	26.70	0.70	-1.500			
0.8063	51605.57	3.4180	3.4181	-1.3890	26.72	0.72	-1.500			
0.8106	51875.84	3.4150	3.4149	-1.3695	26.74	0.74	-1.500			
0.8146	52136.09	3.4120	3.4120	-1.3289	26.76	0.76	-1.500			
0.8186	52389.85	3.4090	3.4091	-1.3003	26.78	0.78	-1.500			
0.8225	52637.31	3.4060	3.4059	-1.2553	26.79	0.79	-1.500			
0.8262	52877.39	3.4030	3.4029	-1.2119	26.81	0.81	-1.500			
0.8297	53103.88	3.4000	3.4001	-1.1626	26.83	0.83	-1.500			
0.8332	53322.41	3.3970	3.3970	-1.1150	26.85	0.85	-1.500			
0.8364	53532.32	3.3940	3.3939	-1.0711	26.87	0.87	-1.500			
0.8395	53730.45	3.3910	3.3910	-1.0190	26.89	0.89	-1.500			
0.8426	53924.95	3.3880	3.3880	-0.9756	26.90	0.90	-1.500			
0.8454	54107.72	3.3850	3.3850	-0.9364	26.92	0.92	-1.500			
0.8482	54282.42	3.3820	3.3820	-0.8987	26.94	0.94	-1.500			
0.8508	54449.72	3.3790	3.3790	-0.8621	26.94	0.94	-1.500			
0.8533	54610.17	3.3760	3.3759	-0.8287	26.95	0.95	-1.500			
0.8557	54766.42	3.3730	3.3730	-0.7981	26.96	0.96	-1.500			
0.8581	54917.73	3.3700	3.3700	-0.7697	26.97	0.97	-1.500			
0.8604	55064.97	3.3670	3.3670	-0.7434	26.98	0.98	-1.500			
0.8625	55202.10	3.3640	3.3641	-0.7098	26.99	0.99	-1.500			
0.8646	55333.92	3.3610	3.3610	-0.6826	27.00	1.00	-1.500			
0.8666	55463.50	3.3580	3.3579	-0.6589	27.02	1.02	-1.500			
0.8685	55585.83	3.3550	3.3550	-0.6385	27.03	1.03	-1.500			
0.8704	55706.79	3.3520	3.3521	-0.6172	27.04	1.04	-1.500			
0.8723	55824.33	3.3490	3.3489	-0.5966	27.05	1.05	-1.500			
0.8740	55936.84	3.3460	3.3460	-0.5761	27.06	1.06	-1.500			
0.8757	56044.30	3.3430	3.3431	-0.5559	27.07	1.07	-1.500			
0.8773	56149.09	3.3400	3.3399	-0.5381	27.08	1.08	-1.500			
0.8789	56250.61	3.3370	3.3370	-0.5210	27.08	1.08	-1.500			
0.8804	56348.02	3.3340	3.3340	-0.5027	27.09	1.09	-1.500			
0.8819	56444.40	3.3310	3.3311	-0.4885	27.10	1.10	-1.500			
0.8834	56536.42	3.3280	3.3279	-0.4706	27.11	1.11	-1.500			
0.8848	56624.94	3.3250	3.3251	-0.4524	27.12	1.12	-1.500			
0.8861	56709.99	3.3220	3.3220	-0.4356	27.13	1.13	-1.500			
0.8874	56791.62	3.3190	3.3190	-0.4204	27.13	1.13	-1.500			
0.8886	56870.41	3.3160	3.3160	-0.4067	27.14	1.14	-1.500			
0.8898	56946.56	3.3130	3.3129	-0.3922	27.15	1.15	-1.500			
0.8909	57020.70	3.3100	3.3100	-0.3788	27.15	1.15	-1.500			
0.8921	57092.47	3.3070	3.3070	-0.3665	27.16	1.16	-1.500			
0.8932	57161.92	3.3040	3.3040	-0.3531	27.17	1.17	-1.500			
0.8942	57228.12	3.3010	3.3010	-0.3410	27.17	1.17	-1.500			
0.8952	57292.12	3.2980	3.2980	-0.3290	27.18	1.18	-1.500			
0.8961	57353.16	3.2950	3.2950	-0.3183	27.18	1.18	-1.500			
0.8971	57414.06	3.2920	3.2919	-0.3079	27.19	1.19	-1.500			
0.8980	57472.00	3.2890	3.2890	-0.2983	27.19	1.19	-1.500			
0.8989	57528.46	3.2860	3.2862	-0.2869	27.20	1.20	-1.500			
0.8997	57583.24	3.2830	3.2830	-0.2774	27.21	1.21	-1.500			
0.9005	57634.34	3.2800	3.2799	-0.2680	27.21	1.21	-1.500			
0.9013	57684.57	3.2770	3.2771	-0.2585	27.22	1.22	-1.500			
0.9021	57732.83	3.2740	3.2739	-0.2496	27.22	1.22	-1.500			
0.9028	57780.50	3.2710	3.2710	-0.2433	27.23	1.23	-1.500			
0.9035	57826.73	3.2680	3.2681	-0.2355	27.23	1.23	-1.500			
0.9042	57870.83	3.2650	3.2651	-0.2274	27.23	1.23	-1.500			
0.9049	57913.77	3.2620	3.2619	-0.2207	27.24	1.24	-1.500			
0.9055	57955.13	3.2590	3.2591	-0.2132	27.24	1.24	-1.500			
0.9062	57995.20	3.2560	3.2560	-0.2061	27.25	1.25	-1.500			
0.9068	58034.36	3.2530	3.2530	-0.2012	27.25	1.25	-1.500			
0.9074	58072.45	3.2500	3.2500	-0.1955	27.26	1.26	-1.500			
0.9080	58109.22	3.2470	3.2472	-0.1898	27.26	1.26	-1.500			
0.9085	58145.47	3.2440	3.2439	-0.1846	27.26	1.26	-1.500			
0.9091	58180.04	3.2410	3.2409	-0.1791	27.27	1.27	-1.500			
0.9096	58213.95	3.2380	3.2381	-0.1740	27.27	1.27	-1.500			
0.9101	58246.62	3.2350	3.2351	-0.1690	27.28	1.28	-1.500			
0.9106	58278.60	3.2320	3.2320	-0.1653	27.28	1.28	-1.500			
0.9111	58309.54	3.2290	3.2291	-0.1611	27.29	1.29	-1.500			
0.9116	58340.15	3.2260	3.2260	-0.1578	27.29	1.29	-1.500			
0.9120	58370.13	3.2230	3.2229	-0.1537	27.29	1.29	-1.500			
0.9125	58399.50	3.2200	3.2200	-0.1500	27.30	1.30	-1.500			
0.9129	58427.80	3.2170	3.2170	-0.1463	27.30	1.30	-1.500			
0.9134	58455.53	3.2140	3.2141	-0.1425	27.30	1.30	-1.500			
0.9138	58482.60	3.2110	3.2110	-0.1393	27.31	1.31	-1.500			
0.9142	58508.48	3.2080	3.2080	-0.1365	27.31	1.31	-1.500			
0.9146	58534.37	3.2050	3.2051	-0.1335	27.31	1.31	-1.500			
0.9150	58559.80	3.2020	3.2020	-0.1314	27.32	1.32	-1.500			
0.9154	58585.07	3.1990	3.1989	-0.1288	27.32	1.32	-1.500			
0.9158	58609.69	3.1960	3.1960	-0.1263	27.32	1.32	-1.500			
0.9161	58633.54	3.1930	3.1931	-0.1239	27.33	1.33	-1.500			
0.9165	58657.08	3.1900	3.1900	-0.1213	27.33	1.33	-1.500			
0.9169	58680.11	3.1870	3.1870	-0.1188	27.33	1.33	-1.500			
0.9172	58702.34	3.1840	3.1840	-0.1159	27.34	1.34	-1.500			
0.9176	58724.42	3.1810	3.1810	-0.1138	27.34	1.34	-1.500			
0.9179	58746.17	3.1780	3.1781	-0.1119	27.34	1.34	-1.500			
0.9182	58767.36	3.1750	3.1751	-0.1102	27.34	1.34	-1.500			
0.9186	58788.34	3.1720	3.1719	-0.1083	27.35	1.35	-1.500			
0.9189	58808.92	3.1690	3.1689	-0.1065	27.35	1.35	-1.500			
0.9192	58828.96	3.1660	3.1660	-0.1046	27.35	1.35	-1.500			
0.9195	58848.90	3.1630	3.1631	-0.1032	27.36	1.36	-1.500			
0.9198	58868.65	3.1600	3.1600	-0.1018	27.36	1.36	-1.500			
0.9201	58888.10	3.1570	3.1570	-0.1001	27.36	1.36	-1.500			
0.9204	58907.16	3.1540	3.1540	-0.0984	27.37	1.37	-1.500			
0.9207	58925.76	3.1510	3.1512	-0.0969	27.37	1.37	-1.500			
0.9210	58944.25	3.1480	3.1480	-0.0956	27.37	1.37	-1.500			
0.9213	58962.46	3.1450	3.1450	-0.0943	27.38	1.38	-1.500			
0.9216	58980.43	3.1420	3.1419	-0.0929	27.38	1.38	-1.500			
0.9218	58998.01	3.1390	3.1391	-0.0917	27.38	1.38	-1.500			
0.9221	59015.51	3.1360	3.1360	-0.0907	27.39	1.39	-1.500			
0.9224	59032.96	3.1330	3.1330	-0.0897	27.39	1.39	-1.500			
0.9227	59050.06	3.1300	3.1299	-0.0884	27.39	1.39	-1.500			
0.9229	59066.90	3.1270	3.1271	-0.0871	27.39	1.39	-1.500			
0.9232	59083.56	3.1240	3.1241	-0.0858	27.40	1.40	-1.500			
0.9234	59100.02	3.1210	3.1209	-0.0846	27.40	1.40	-1.500			
0.9237	59115.81	3.1180	3.1180	-0.0838	27.40	1.40	-1.500			
0.9239	59131.81	3.1150	3.1150	-0.0829	27.41	1.41	-1.500			
0.9242	59147.34	3.1120	3.1121	-0.0819	27.41	1.41	-1.500			
0.9244	59163.10	3.1090	3.1088	-0.0809	27.41	1.41	-1.500			
0.9247	59178.56	3.1060	3.1061	-0.0802	27.41	1.41	-1.500			
0.9249	59193.95	3.1030	3.1031	-0.0794	27.42	1.42	-1.500			
0.9251	59209.11	3.1000	3.1000	-0.0785	27.42	1.42	-1.500			
0.9254	59224.34	3.0970	3.0970	-0.0779	27.42	1.42	-1.500			
0.9256	59239.16	3.0940	3.0940	-0.0768	27.42	1.42	-1.500			
0.9258	59253.68	3.0910	3.0910	-0.0755	27.43	1.43	-1.500			
0.9261	59268.09	3.0880	3.0879	-0.0745	27.43	1.43	-1.500			
0.9263	59282.21	3.0850	3.0851	-0.0743	27.43	1.43	-1.500			
0.9265	59296.31	3.0820	3.0821	-0.0735	27.43	1.43	-1.500			
0.9267	59310.48	3.0790	3.0789	-0.0727	27.44	1.44	-1.500			
0.9269	59324.38	3.0760	3.0759	-0.0720	27.44	1.44	-1.500			
0.9272	59338.11	3.0730	3.0731	-0.0713	27.44	1.44	-1.500			
0.9274	59351.73	3.0700	3.0700	-0.0707	27.44	1.44	-1.500			
0.9276	59365.40	3.0670	3.0672	-0.0703	27.45	1.45	-1.500			
0.9278	59378.82	3.0640	3.0640	-0.0695	27.45	1.45	-1.500			
0.9280	59392.04	3.0610	3.0608	-0.0689	27.45	1.45	-1.500			
0.9282	59405.00	3.0580	3.0581	-0.0680	27.45	1.45	-1.500			
0.9284	59418.02	3.0550	3.0550	-0.0676	27.45	1.45	-1.500			
0.9286	59430.95	3.0520	3.0520	-0.0671	27.46	1.46	-1.500			
0.9288	59443.86	3.0490	3.0490	-0.0667	27.46	1.46	-1.500			
0.9290	59456.64	3.0460	3.0460	-0.0661	27.46	1.46	-1.500			
0.9292	59469.26	3.0430	3.0430	-0.0655	27.46	1.46	-1.500			
0.9294	59481.79	3.0400	3.0399	-0.0650	27.46	1.46	-1.500			
0.9296	59494.20	3.0370	3.0371	-0.0646	27.47	1.47	-1.500			
0.9298	59506.57	3.0340	3.0341	-0.0641	27.47	1.47	-1.500			
0.9300	59518.77	3.0310	3.0310	-0.0637	27.47	1.47	-1.500			
0.9302	59530.96	3.0280	3.0280	-0.0632	27.47	1.47	-1.500			
0.9304	59542.97	3.0250	3.0249	-0.0627	27.47	1.47	-1.500			
0.9305	59555.04	3.0220	3.0222	-0.0623	27.48	1.48	-1.500			
0.9307	59567.01	3.0190	3.0189	-0.0620	27.48	1.48	-1.500			
0.9309	59578.87	3.0160	3.0162	-0.0615	27.48	1.48	-1.500			
0.9311	59590.63	3.0130	3.0131	-0.0610	27.48	1.48	-1.500			
0.9313	59602.34	3.0100	3.0099	-0.0604	27.48	1.48	-1.500			
0.9315	59613.89	3.0070	3.0069	-0.0598	27.49	1.49	-1.500			
0.9316	59625.32	3.0040	3.0041	-0.0592	27.49	1.49	-1.500			
