Ah_balance (normalized)	Ah_balance (mAh)	Voltage - fit (V)	Voltage -  interpolate (V)	dQ/dV (1/V)	Temperature (°C)	Temperature - diff (°C)	Current (C)	R_DC 0ms (mOhm)	R_DC 50ms (mOhm)	R_DC 50 ms PEC (mOhm)
0.2831	18118.82	3.9710	3.9710	0.8988	26.96	1.01	1.500			
0.2858	18288.25	3.9680	3.9680	0.8814	26.95	1.00	1.500			
0.2884	18457.02	3.9650	3.9651	0.8840	26.95	1.00	1.500			
0.2910	18626.95	3.9620	3.9619	0.8889	26.94	0.99	1.500			
0.2937	18797.23	3.9590	3.9590	0.8925	26.94	0.99	1.500			
0.2964	18969.87	3.9560	3.9560	0.8992	26.94	0.99	1.500			
0.2991	19143.24	3.9530	3.9530	0.9035	26.93	0.98	1.500			
0.3019	19318.57	3.9500	3.9500	0.9109	26.93	0.98	1.500			
0.3046	19493.97	3.9470	3.9471	0.9094	26.92	0.97	1.500			
0.3073	19668.75	3.9440	3.9440	0.9143	26.92	0.97	1.500			
0.3101	19844.87	3.9410	3.9411	0.9170	26.91	0.96	1.500			
0.3128	20020.17	3.9380	3.9379	0.9222	26.91	0.96	1.500			
0.3156	20197.70	3.9350	3.9350	0.9233	26.90	0.95	1.500			
0.3184	20375.46	3.9320	3.9320	0.9309	26.90	0.95	1.500			
0.3212	20553.74	3.9290	3.9291	0.9384	26.90	0.95	1.500			
0.3240	20736.19	3.9260	3.9259	0.9461	26.89	0.94	1.500			
0.3268	20917.17	3.9230	3.9231	0.9524	26.89	0.94	1.500			
0.3297	21101.02	3.9200	3.9200	0.9616	26.88	0.93	1.500			
0.3326	21287.08	3.9170	3.9170	0.9645	26.88	0.93	1.500			
0.3355	21473.50	3.9140	3.9140	0.9748	26.88	0.93	1.500			
0.3385	21660.82	3.9110	3.9110	0.9795	26.87	0.92	1.500			
0.3414	21849.06	3.9080	3.9080	0.9842	26.87	0.92	1.500			
0.3444	22038.50	3.9050	3.9049	0.9917	26.87	0.92	1.500			
0.3473	22227.99	3.9020	3.9020	1.0004	26.86	0.91	1.500			
0.3503	22421.58	3.8990	3.8990	1.0097	26.86	0.91	1.500			
0.3534	22617.47	3.8960	3.8960	1.0189	26.86	0.91	1.500			
0.3565	22813.37	3.8930	3.8930	1.0230	26.85	0.90	1.500			
0.3596	23011.44	3.8900	3.8901	1.0330	26.85	0.90	1.500			
0.3627	23210.64	3.8870	3.8870	1.0424	26.84	0.89	1.500			
0.3658	23410.79	3.8840	3.8840	1.0506	26.84	0.89	1.500			
0.3689	23610.34	3.8810	3.8810	1.0655	26.84	0.89	1.500			
0.3721	23817.32	3.8780	3.8781	1.0844	26.83	0.88	1.500			
0.3755	24029.82	3.8750	3.8750	1.0982	26.83	0.88	1.500			
0.3788	24242.92	3.8720	3.8721	1.1078	26.82	0.87	1.500			
0.3821	24456.04	3.8690	3.8691	1.1227	26.82	0.87	1.500			
0.3855	24672.70	3.8660	3.8661	1.1326	26.81	0.86	1.500			
0.3889	24890.90	3.8630	3.8629	1.1383	26.80	0.85	1.500			
0.3923	25106.68	3.8600	3.8601	1.1564	26.80	0.85	1.500			
0.3958	25331.12	3.8570	3.8571	1.1762	26.79	0.84	1.500			
0.3993	25558.28	3.8540	3.8538	1.2026	26.78	0.83	1.500			
0.4030	25793.16	3.8510	3.8511	1.2186	26.78	0.83	1.500			
0.4067	26028.43	3.8480	3.8480	1.2348	26.77	0.82	1.500			
0.4105	26269.73	3.8450	3.8450	1.2601	26.77	0.82	1.500			
0.4143	26512.28	3.8420	3.8420	1.2818	26.76	0.81	1.500			
0.4180	26754.77	3.8390	3.8390	1.2986	26.76	0.81	1.500			
0.4220	27008.80	3.8360	3.8360	1.3228	26.75	0.80	1.500			
0.4260	27262.15	3.8330	3.8330	1.3548	26.75	0.80	1.500			
0.4301	27528.38	3.8300	3.8300	1.3858	26.74	0.79	1.500			
0.4343	27798.35	3.8270	3.8269	1.4107	26.73	0.78	1.500			
0.4386	28070.49	3.8240	3.8240	1.4428	26.72	0.77	1.500			
0.4430	28349.15	3.8210	3.8211	1.4746	26.71	0.76	1.500			
0.4474	28636.57	3.8180	3.8179	1.5015	26.70	0.75	1.500			
0.4520	28928.74	3.8150	3.8150	1.5319	26.69	0.74	1.500			
0.4566	29223.20	3.8120	3.8120	1.5549	26.68	0.73	1.500			
0.4613	29523.48	3.8090	3.8090	1.6031	26.67	0.72	1.500			
0.4662	29833.85	3.8060	3.8060	1.6424	26.66	0.71	1.500			
0.4711	30150.22	3.8030	3.8031	1.6851	26.65	0.70	1.500			
0.4762	30478.42	3.8000	3.7999	1.7390	26.64	0.69	1.500			
0.4816	30820.24	3.7970	3.7971	1.7893	26.62	0.67	1.500			
0.4870	31165.59	3.7940	3.7940	1.8464	26.61	0.66	1.500			
0.4926	31528.74	3.7910	3.7910	1.9077	26.60	0.65	1.500			
0.4983	31893.74	3.7880	3.7879	1.9600	26.58	0.63	1.500			
0.5044	32280.17	3.7850	3.7850	2.0124	26.57	0.62	1.500			
0.5105	32671.76	3.7820	3.7820	2.0717	26.55	0.60	1.500			
0.5168	33074.63	3.7790	3.7791	2.1207	26.54	0.59	1.500			
0.5231	33479.44	3.7760	3.7759	2.1815	26.52	0.57	1.500			
0.5299	33912.77	3.7730	3.7730	2.2337	26.51	0.56	1.500			
0.5367	34346.44	3.7700	3.7700	2.2817	26.49	0.54	1.500			
0.5436	34793.47	3.7670	3.7671	2.3020	26.47	0.52	1.500			
0.5505	35232.89	3.7640	3.7639	2.3706	26.46	0.51	1.500			
0.5577	35691.80	3.7610	3.7609	2.3687	26.44	0.49	1.500			
0.5650	36159.03	3.7580	3.7580	2.3990	26.42	0.47	1.500	0.360	0.449	
0.5723	36627.47	3.7550	3.7551	2.3859	26.41	0.46	1.500			
0.5794	37083.84	3.7520	3.7520	2.3473	26.39	0.44	1.500			
0.5863	37525.09	3.7490	3.7490	2.2998	26.37	0.42	1.500			
0.5932	37966.17	3.7460	3.7459	2.2579	26.36	0.41	1.500			
0.5999	38394.95	3.7430	3.7430	2.2314	26.34	0.39	1.500			
0.6067	38829.82	3.7400	3.7400	2.2004	26.33	0.38	1.500			
0.6131	39240.23	3.7370	3.7370	2.1918	26.31	0.36	1.500			
0.6196	39654.55	3.7340	3.7341	2.1780	26.30	0.35	1.500			
0.6261	40073.57	3.7310	3.7309	2.1977	26.29	0.34	1.500			
0.6328	40499.68	3.7280	3.7281	2.1990	26.27	0.32	1.500			
0.6394	40921.24	3.7250	3.7250	2.2547	26.26	0.31	1.500			
0.6461	41348.42	3.7220	3.7220	2.2741	26.25	0.30	1.500			
0.6530	41792.50	3.7190	3.7190	2.3503	26.23	0.28	1.500			
0.6602	42249.78	3.7160	3.7161	2.4049	26.22	0.27	1.500			
0.6675	42720.08	3.7130	3.7130	2.4804	26.21	0.26	1.500			
0.6750	43199.52	3.7100	3.7099	2.5763	26.20	0.25	1.500			
0.6828	43701.94	3.7070	3.7070	2.6410	26.19	0.24	1.500			
0.6910	44221.45	3.7040	3.7040	2.7832	26.17	0.22	1.500			
0.6995	44770.88	3.7010	3.7008	2.8996	26.16	0.21	1.500			
0.7085	45341.00	3.6980	3.6980	2.9740	26.15	0.20	1.500			
0.7175	45920.74	3.6950	3.6950	2.9027	26.13	0.18	1.500			
0.7262	46474.46	3.6920	3.6921	2.7843	26.12	0.17	1.500			
0.7344	47003.13	3.6890	3.6890	2.6430	26.11	0.16	1.500			
0.7421	47492.19	3.6860	3.6859	2.4443	26.11	0.16	1.500			
0.7489	47929.00	3.6830	3.6828	2.1919	26.10	0.15	1.500			
0.7551	48326.89	3.6800	3.6800	1.9999	26.10	0.15	1.500			
0.7606	48680.28	3.6770	3.6770	1.8075	26.09	0.14	1.500			
0.7658	49012.33	3.6740	3.6741	1.6877	26.09	0.14	1.500			
0.7706	49319.76	3.6710	3.6710	1.5705	26.08	0.13	1.500			
0.7751	49609.39	3.6680	3.6678	1.4829	26.08	0.13	1.500			
0.7794	49883.69	3.6650	3.6650	1.4110	26.08	0.13	1.500			
0.7835	50145.60	3.6620	3.6620	1.3481	26.07	0.12	1.500			
0.7875	50399.58	3.6590	3.6590	1.2927	26.07	0.12	1.500			
0.7912	50636.30	3.6560	3.6560	1.2522	26.07	0.12	1.500			
0.7948	50870.31	3.6530	3.6531	1.2381	26.06	0.11	1.500			
0.7985	51101.93	3.6500	3.6499	1.2248	26.06	0.11	1.500			
0.8021	51334.74	3.6470	3.6470	1.2287	26.06	0.11	1.500			
0.8057	51567.83	3.6440	3.6441	1.2380	26.05	0.10	1.500			
0.8095	51808.42	3.6410	3.6410	1.2597	26.04	0.09	1.500			
0.8133	52052.90	3.6380	3.6380	1.2806	26.04	0.09	1.500			
0.8172	52299.30	3.6350	3.6350	1.2943	26.03	0.08	1.500			
0.8211	52552.32	3.6320	3.6321	1.3029	26.03	0.08	1.500			
0.8251	52807.68	3.6290	3.6289	1.3092	26.02	0.07	1.500			
0.8290	53058.60	3.6260	3.6261	1.3091	26.01	0.06	1.500			
0.8330	53309.02	3.6230	3.6231	1.3036	26.00	0.05	1.500			
0.8368	53558.02	3.6200	3.6200	1.3017	26.00	0.05	1.500			
0.8407	53807.02	3.6170	3.6169	1.3019	25.99	0.04	1.500			
0.8446	54055.75	3.6140	3.6141	1.3009	25.98	0.03	1.500			
0.8486	54307.48	3.6110	3.6110	1.3020	25.97	0.02	1.500			
0.8525	54559.64	3.6080	3.6080	1.3036	25.97	0.02	1.500			
0.8564	54807.85	3.6050	3.6049	1.2978	25.96	0.01	1.500			
0.8603	55058.98	3.6020	3.6020	1.2885	25.96	0.01	1.500			
0.8641	55305.50	3.5990	3.5990	1.2765	25.96	0.01	1.500			
0.8680	55549.50	3.5960	3.5960	1.2647	25.96	0.01	1.500			
0.8718	55792.31	3.5930	3.5930	1.2490	25.95	0.00	1.500			
0.8755	56030.80	3.5900	3.5900	1.2307	25.95	0.00	1.500			
0.8791	56263.26	3.5870	3.5870	1.2172	25.95	0.00	1.500			
0.8827	56493.29	3.5840	3.5840	1.2086	25.95	0.00	1.500			
0.8863	56724.99	3.5810	3.5810	1.2093	25.95	0.00	1.500			
0.8899	56953.10	3.5780	3.5780	1.2199	25.95	0.00	1.500			
0.8935	57187.04	3.5750	3.5750	1.2252	25.95	0.00	1.500			
0.8974	57432.03	3.5720	3.5719	1.1906	25.95	0.00	1.500			
0.9011	57670.03	3.5690	3.5689	1.1385	25.95	0.00	1.500			
0.9046	57891.38	3.5660	3.5663	1.0169	25.95	0.00	1.500			
0.9076	58089.42	3.5630	3.5632	0.8888	25.95	0.00	1.500			
0.9101	58244.17	3.5600	3.5600	0.7392	25.95	0.00	1.500			
0.9118	58356.30	3.5570	3.5572	0.5783	25.95	0.00	1.500			
0.9133	58452.46	3.5540	3.5538	0.4551	25.95	0.00	1.500			
0.9144	58523.86	3.5510	3.5507	0.3712	25.95	0.00	1.500			
0.9153	58577.62	3.5480	3.5478	0.3011	25.95	0.00	1.500			
0.9160	58625.48	3.5450	3.5449	0.2545	25.95	0.00	1.500			
0.9167	58666.63	3.5420	3.5420	0.2129	25.95	0.00	1.500			
0.9172	58703.20	3.5390	3.5390	0.1869	25.95	0.00	1.500			
0.9177	58734.40	3.5360	3.5361	0.1625	25.95	0.00	1.500			
0.9182	58762.78	3.5330	3.5329	0.1392	25.95	0.00	1.500			
0.9186	58787.65	3.5300	3.5300	0.1199	25.95	0.00	1.500			
0.9189	58808.23	3.5270	3.5270	0.1005	25.95	0.00	1.500			
0.9192	58825.63	3.5240	3.5242	0.0823	25.95	0.00	1.500			
0.9194	58839.87	3.5210	3.5213	0.0635	25.95	0.00	1.500			
0.9195	58850.25	3.5180	3.5186	0.0447	25.95	0.00	1.500			
