Ah_balance (normalized)	Ah_balance (mAh)	Voltage - fit (V)	Voltage -  interpolate (V)	dQ/dV (1/V)	Temperature (°C)	Temperature - diff (°C)	Current (C)	R_DC 0ms (mOhm)	R_DC 50ms (mOhm)	R_DC 50 ms PEC (mOhm)
0.1912	12235.79	3.9290	3.9287	-0.0683	25.75	-0.01	-1.500			
0.1914	12251.67	3.9260	3.9258	-0.0972	25.75	-0.01	-1.500			
0.1918	12274.25	3.9230	3.9229	-0.1254	25.75	-0.01	-1.500			
0.1922	12301.13	3.9200	3.9199	-0.1490	25.75	-0.01	-1.500			
0.1927	12332.11	3.9170	3.9170	-0.1717	25.75	-0.01	-1.500			
0.1932	12367.28	3.9140	3.9142	-0.1942	25.75	-0.01	-1.500			
0.1939	12407.80	3.9110	3.9110	-0.2159	25.75	-0.01	-1.500			
0.1946	12451.31	3.9080	3.9079	-0.2361	25.75	-0.01	-1.500			
0.1953	12498.51	3.9050	3.9050	-0.2556	25.75	-0.01	-1.500			
0.1961	12549.58	3.9020	3.9021	-0.2752	25.75	-0.01	-1.500			
0.1969	12604.77	3.8990	3.8990	-0.2941	25.75	-0.01	-1.500			
0.1979	12662.80	3.8960	3.8960	-0.3138	25.75	-0.01	-1.500			
0.1988	12724.88	3.8930	3.8930	-0.3323	25.75	-0.01	-1.500			
0.1998	12790.20	3.8900	3.8900	-0.3525	25.76	-0.00	-1.500			
0.2009	12859.76	3.8870	3.8870	-0.3716	25.76	-0.00	-1.500			
0.2021	12933.46	3.8840	3.8840	-0.3899	25.76	-0.00	-1.500			
0.2033	13010.88	3.8810	3.8809	-0.4054	25.76	-0.00	-1.500			
0.2045	13090.83	3.8780	3.8781	-0.4220	25.76	-0.00	-1.500			
0.2058	13172.47	3.8750	3.8751	-0.4382	25.76	0.00	-1.500			
0.2072	13258.70	3.8720	3.8720	-0.4524	25.76	0.00	-1.500			
0.2085	13346.89	3.8690	3.8689	-0.4646	25.76	0.00	-1.500			
0.2100	13437.55	3.8660	3.8661	-0.4757	25.76	0.00	-1.500			
0.2114	13531.02	3.8630	3.8631	-0.4894	25.76	0.00	-1.500			
0.2129	13626.03	3.8600	3.8600	-0.5003	25.77	0.01	-1.500			
0.2144	13722.88	3.8570	3.8570	-0.5086	25.77	0.01	-1.500			
0.2160	13821.06	3.8540	3.8540	-0.5186	25.77	0.01	-1.500			
0.2175	13922.42	3.8510	3.8510	-0.5295	25.77	0.01	-1.500			
0.2191	14024.66	3.8480	3.8480	-0.5388	25.77	0.01	-1.500			
0.2208	14130.29	3.8450	3.8450	-0.5442	25.77	0.01	-1.500			
0.2224	14234.64	3.8420	3.8420	-0.5500	25.77	0.01	-1.500			
0.2241	14340.51	3.8390	3.8391	-0.5582	25.77	0.01	-1.500			
0.2258	14448.92	3.8360	3.8360	-0.5641	25.78	0.02	-1.500			
0.2275	14557.75	3.8330	3.8329	-0.5692	25.78	0.02	-1.500			
0.2292	14667.98	3.8300	3.8300	-0.5744	25.78	0.02	-1.500			
0.2309	14778.92	3.8270	3.8271	-0.5765	25.78	0.02	-1.500			
0.2327	14891.14	3.8240	3.8240	-0.5782	25.78	0.02	-1.500			
0.2344	15000.34	3.8210	3.8211	-0.5821	25.79	0.03	-1.500			
0.2361	15112.34	3.8180	3.8179	-0.5870	25.79	0.03	-1.500			
0.2379	15225.54	3.8150	3.8150	-0.5913	25.80	0.04	-1.500			
0.2397	15339.50	3.8120	3.8121	-0.5939	25.80	0.04	-1.500			
0.2415	15454.83	3.8090	3.8091	-0.5977	25.81	0.05	-1.500			
0.2433	15569.75	3.8060	3.8059	-0.6037	25.81	0.05	-1.500			
0.2451	15686.05	3.8030	3.8030	-0.6035	25.81	0.05	-1.500			
0.2469	15800.89	3.8000	3.7999	-0.6038	25.82	0.06	-1.500			
0.2487	15916.72	3.7970	3.7971	-0.6119	25.82	0.06	-1.500			
0.2506	16035.50	3.7940	3.7940	-0.6162	25.83	0.07	-1.500			
0.2524	16154.68	3.7910	3.7909	-0.6204	25.83	0.07	-1.500			
0.2543	16273.90	3.7880	3.7880	-0.6223	25.84	0.08	-1.500			
0.2561	16393.15	3.7850	3.7851	-0.6235	25.84	0.08	-1.500			
0.2580	16514.20	3.7820	3.7820	-0.6289	25.85	0.09	-1.500			
0.2599	16634.41	3.7790	3.7789	-0.6292	25.85	0.09	-1.500			
0.2618	16753.88	3.7760	3.7761	-0.6304	25.85	0.09	-1.500			
0.2637	16876.63	3.7730	3.7730	-0.6370	25.86	0.10	-1.500			
0.2656	16999.87	3.7700	3.7700	-0.6412	25.86	0.10	-1.500			
0.2675	17123.15	3.7670	3.7670	-0.6456	25.87	0.11	-1.500			
0.2695	17247.13	3.7640	3.7641	-0.6496	25.87	0.11	-1.500			
0.2714	17372.42	3.7610	3.7610	-0.6521	25.88	0.12	-1.500			
0.2734	17497.30	3.7580	3.7580	-0.6587	25.88	0.12	-1.500			
0.2754	17624.08	3.7550	3.7550	-0.6634	25.89	0.13	-1.500			
0.2774	17751.91	3.7520	3.7520	-0.6697	25.89	0.13	-1.500			
0.2794	17881.48	3.7490	3.7490	-0.6755	25.90	0.14	-1.500			
0.2814	18012.12	3.7460	3.7460	-0.6786	25.90	0.14	-1.500			
0.2835	18142.82	3.7430	3.7430	-0.6833	25.91	0.15	-1.500			
0.2855	18274.76	3.7400	3.7400	-0.6859	25.91	0.15	-1.500			
0.2876	18405.17	3.7370	3.7371	-0.6899	25.92	0.16	-1.500			
0.2897	18538.66	3.7340	3.7339	-0.6969	25.92	0.16	-1.500			
0.2918	18672.78	3.7310	3.7311	-0.7001	25.93	0.17	-1.500			
0.2939	18807.27	3.7280	3.7280	-0.7090	25.93	0.17	-1.500			
0.2960	18945.46	3.7250	3.7251	-0.7147	25.94	0.18	-1.500			
0.2982	19082.53	3.7220	3.7220	-0.7206	25.94	0.18	-1.500			
0.3003	19221.79	3.7190	3.7190	-0.7259	25.95	0.19	-1.500			
0.3025	19360.77	3.7160	3.7160	-0.7314	25.95	0.19	-1.500			
0.3047	19502.37	3.7130	3.7130	-0.7375	25.96	0.20	-1.500			
0.3070	19644.92	3.7100	3.7101	-0.7415	25.96	0.20	-1.500			
0.3092	19785.72	3.7070	3.7070	-0.7488	25.97	0.21	-1.500			
0.3114	19931.76	3.7040	3.7040	-0.7567	25.97	0.21	-1.500			
0.3137	20077.20	3.7010	3.7009	-0.7565	25.98	0.22	-1.500			
0.3160	20223.13	3.6980	3.6980	-0.7644	25.98	0.22	-1.500			
0.3183	20370.31	3.6950	3.6951	-0.7702	25.99	0.23	-1.500			
0.3206	20518.34	3.6920	3.6920	-0.7820	26.00	0.24	-1.500			
0.3230	20668.93	3.6890	3.6889	-0.7914	26.00	0.24	-1.500			
0.3253	20821.68	3.6860	3.6860	-0.7974	26.01	0.25	-1.500			
0.3278	20976.31	3.6830	3.6830	-0.8124	26.01	0.25	-1.500			
0.3302	21133.90	3.6800	3.6800	-0.8213	26.02	0.26	-1.500			
0.3327	21292.56	3.6770	3.6769	-0.8251	26.03	0.27	-1.500			
0.3352	21452.21	3.6740	3.6740	-0.8298	26.03	0.27	-1.500			
0.3377	21610.88	3.6710	3.6711	-0.8333	26.04	0.28	-1.500			
0.3402	21771.78	3.6680	3.6680	-0.8419	26.04	0.28	-1.500			
0.3427	21934.51	3.6650	3.6650	-0.8488	26.05	0.29	-1.500			
0.3453	22096.17	3.6620	3.6620	-0.8548	26.06	0.30	-1.500			
0.3478	22260.56	3.6590	3.6590	-0.8697	26.06	0.30	-1.500			
0.3505	22429.74	3.6560	3.6559	-0.8810	26.07	0.31	-1.500			
0.3531	22600.34	3.6530	3.6530	-0.8926	26.07	0.31	-1.500			
0.3558	22774.10	3.6500	3.6501	-0.8953	26.08	0.32	-1.500			
0.3586	22947.48	3.6470	3.6470	-0.9012	26.08	0.32	-1.500			
0.3613	23120.35	3.6440	3.6440	-0.9103	26.09	0.33	-1.500			
0.3640	23294.08	3.6410	3.6410	-0.9133	26.09	0.33	-1.500			
0.3667	23468.26	3.6380	3.6379	-0.9238	26.10	0.34	-1.500			
0.3695	23647.52	3.6350	3.6350	-0.9343	26.10	0.34	-1.500			
0.3723	23828.19	3.6320	3.6320	-0.9500	26.11	0.35	-1.500			
0.3752	24013.91	3.6290	3.6290	-0.9614	26.11	0.35	-1.500			
0.3781	24199.51	3.6260	3.6260	-0.9693	26.12	0.36	-1.500			
0.3810	24386.02	3.6230	3.6231	-0.9783	26.12	0.36	-1.500			
0.3840	24575.23	3.6200	3.6200	-0.9904	26.13	0.37	-1.500			
0.3870	24764.96	3.6170	3.6170	-1.0013	26.14	0.38	-1.500			
0.3900	24957.45	3.6140	3.6141	-1.0167	26.14	0.38	-1.500			
0.3931	25155.40	3.6110	3.6110	-1.0276	26.15	0.39	-1.500			
0.3961	25353.22	3.6080	3.6080	-1.0462	26.16	0.40	-1.500			
0.3993	25556.73	3.6050	3.6050	-1.0555	26.16	0.40	-1.500			
0.4025	25760.25	3.6020	3.6019	-1.0674	26.17	0.41	-1.500			
0.4057	25966.20	3.5990	3.5992	-1.0804	26.18	0.42	-1.500			
0.4090	26175.09	3.5960	3.5960	-1.0913	26.19	0.43	-1.500			
0.4123	26384.43	3.5930	3.5930	-1.1074	26.19	0.43	-1.500			
0.4156	26599.51	3.5900	3.5900	-1.1230	26.20	0.44	-1.500			
0.4190	26815.68	3.5870	3.5870	-1.1374	26.20	0.44	-1.500			
0.4225	27036.87	3.5840	3.5840	-1.1566	26.21	0.45	-1.500			
0.4259	27259.62	3.5810	3.5810	-1.1699	26.21	0.45	-1.500			
0.4295	27484.83	3.5780	3.5780	-1.1901	26.22	0.46	-1.500			
0.4331	27716.25	3.5750	3.5749	-1.2058	26.22	0.46	-1.500			
0.4367	27948.61	3.5720	3.5720	-1.2183	26.23	0.47	-1.500			
0.4404	28185.26	3.5690	3.5690	-1.2374	26.24	0.48	-1.500			
0.4441	28423.59	3.5660	3.5661	-1.2521	26.25	0.49	-1.500			
0.4479	28665.92	3.5630	3.5629	-1.2691	26.25	0.49	-1.500			
0.4517	28910.93	3.5600	3.5599	-1.2861	26.26	0.50	-1.500			
0.4556	29157.70	3.5570	3.5571	-1.3028	26.27	0.51	-1.500			
0.4595	29410.86	3.5540	3.5541	-1.3288	26.28	0.52	-1.500			
0.4636	29670.58	3.5510	3.5509	-1.3479	26.29	0.53	-1.500			
0.4677	29931.02	3.5480	3.5480	-1.3627	26.29	0.53	-1.500			
0.4718	30193.78	3.5450	3.5450	-1.3785	26.30	0.54	-1.500			
0.4759	30459.44	3.5420	3.5421	-1.3932	26.31	0.55	-1.500			
0.4801	30728.02	3.5390	3.5389	-1.4101	26.32	0.56	-1.500			
0.4844	30999.24	3.5360	3.5360	-1.4274	26.33	0.57	-1.500			
0.4887	31275.61	3.5330	3.5329	-1.4435	26.34	0.58	-1.500			
0.4930	31554.94	3.5300	3.5300	-1.4694	26.35	0.59	-1.500			
0.4975	31840.85	3.5270	3.5270	-1.4871	26.36	0.60	-1.500			
0.5020	32128.92	3.5240	3.5240	-1.5029	26.37	0.61	-1.500			
0.5066	32420.00	3.5210	3.5209	-1.5153	26.38	0.62	-1.500	0.374	0.563	
0.5111	32710.95	3.5180	3.5180	-1.5296	26.40	0.64	-1.500			
0.5157	33005.70	3.5150	3.5150	-1.5486	26.41	0.65	-1.500			
0.5204	33305.41	3.5120	3.5120	-1.5592	26.42	0.66	-1.500			
0.5251	33606.13	3.5090	3.5090	-1.5658	26.43	0.67	-1.500			
0.5299	33910.93	3.5060	3.5060	-1.5717	26.45	0.69	-1.500			
0.5346	34212.01	3.5030	3.5030	-1.5764	26.46	0.70	-1.500			
0.5393	34514.80	3.5000	3.5000	-1.5824	26.47	0.71	-1.500			
0.5440	34817.83	3.4970	3.4970	-1.5807	26.49	0.73	-1.500			
0.5487	35119.98	3.4940	3.4940	-1.5838	26.50	0.74	-1.500			
0.5535	35426.39	3.4910	3.4911	-1.5979	26.51	0.75	-1.500			
0.5583	35733.72	3.4880	3.4880	-1.6028	26.53	0.77	-1.500			
0.5632	36043.76	3.4850	3.4849	-1.6065	26.54	0.78	-1.500			
0.5680	36352.55	3.4820	3.4821	-1.5967	26.55	0.79	-1.500			
0.5728	36660.52	3.4790	3.4790	-1.5888	26.57	0.81	-1.500			
0.5776	36965.84	3.4760	3.4760	-1.5853	26.58	0.82	-1.500			
0.5823	37268.27	3.4730	3.4730	-1.5699	26.60	0.84	-1.500			
0.5870	37566.74	3.4700	3.4700	-1.5594	26.61	0.85	-1.500			
0.5917	37866.14	3.4670	3.4670	-1.5485	26.63	0.87	-1.500			
0.5963	38163.05	3.4640	3.4640	-1.5331	26.65	0.89	-1.500			
0.6009	38459.45	3.4610	3.4610	-1.5152	26.66	0.90	-1.500			
0.6054	38747.26	3.4580	3.4581	-1.5013	26.68	0.92	-1.500			
0.6099	39030.66	3.4550	3.4550	-1.4861	26.70	0.94	-1.500			
0.6143	39314.17	3.4520	3.4521	-1.4758	26.71	0.95	-1.500			
0.6187	39596.86	3.4490	3.4489	-1.4619	26.73	0.97	-1.500			
0.6231	39879.31	3.4460	3.4460	-1.4499	26.74	0.98	-1.500			
0.6275	40157.96	3.4430	3.4430	-1.4289	26.76	1.00	-1.500			
0.6317	40431.88	3.4400	3.4400	-1.4142	26.78	1.02	-1.500			
0.6359	40698.38	3.4370	3.4370	-1.3832	26.79	1.03	-1.500			
0.6400	40959.32	3.4340	3.4340	-1.3622	26.81	1.05	-1.500			
0.6441	41220.00	3.4310	3.4311	-1.3482	26.83	1.07	-1.500			
0.6481	41477.74	3.4280	3.4280	-1.3352	26.85	1.09	-1.500			
0.6521	41732.92	3.4250	3.4250	-1.3138	26.86	1.10	-1.500			
0.6560	41984.68	3.4220	3.4220	-1.2981	26.87	1.11	-1.500			
0.6599	42231.21	3.4190	3.4190	-1.2769	26.89	1.13	-1.500			
0.6637	42476.44	3.4160	3.4160	-1.2569	26.91	1.15	-1.500			
0.6674	42715.06	3.4130	3.4130	-1.2345	26.93	1.17	-1.500			
0.6711	42951.54	3.4100	3.4100	-1.2086	26.95	1.19	-1.500			
0.6747	43180.25	3.4070	3.4070	-1.1823	26.96	1.20	-1.500			
0.6782	43405.99	3.4040	3.4039	-1.1592	26.97	1.21	-1.500			
0.6816	43624.65	3.4010	3.4010	-1.1238	26.99	1.23	-1.500			
0.6850	43838.06	3.3980	3.3979	-1.0926	27.00	1.24	-1.500			
0.6882	44044.21	3.3950	3.3951	-1.0616	27.02	1.26	-1.500			
0.6913	44245.92	3.3920	3.3919	-1.0326	27.04	1.28	-1.500			
0.6944	44441.36	3.3890	3.3890	-1.0054	27.05	1.29	-1.500			
0.6974	44630.98	3.3860	3.3861	-0.9800	27.07	1.31	-1.500			
0.7003	44816.18	3.3830	3.3829	-0.9516	27.08	1.32	-1.500			
0.7031	44997.28	3.3800	3.3799	-0.9287	27.10	1.34	-1.500			
0.7058	45172.19	3.3770	3.3771	-0.9036	27.11	1.35	-1.500			
0.7085	45343.10	3.3740	3.3741	-0.8775	27.12	1.36	-1.500			
0.7111	45510.48	3.3710	3.3709	-0.8532	27.14	1.38	-1.500			
0.7136	45671.51	3.3680	3.3680	-0.8273	27.15	1.39	-1.500			
0.7160	45826.53	3.3650	3.3650	-0.8020	27.16	1.40	-1.500			
0.7184	45979.13	3.3620	3.3620	-0.7789	27.17	1.41	-1.500			
0.7207	46125.05	3.3590	3.3590	-0.7576	27.18	1.42	-1.500			
0.7230	46269.21	3.3560	3.3560	-0.7343	27.19	1.43	-1.500			
0.7251	46408.71	3.3530	3.3530	-0.7143	27.20	1.44	-1.500			
0.7272	46543.22	3.3500	3.3501	-0.6942	27.21	1.45	-1.500			
0.7293	46673.77	3.3470	3.3469	-0.6759	27.22	1.46	-1.500			
0.7313	46801.69	3.3440	3.3440	-0.6583	27.22	1.46	-1.500			
0.7332	46925.97	3.3410	3.3409	-0.6435	27.23	1.47	-1.500			
0.7351	47047.51	3.3380	3.3381	-0.6289	27.24	1.48	-1.500			
0.7370	47167.98	3.3350	3.3350	-0.6162	27.25	1.49	-1.500			
0.7388	47284.63	3.3320	3.3319	-0.6019	27.26	1.50	-1.500			
0.7406	47398.74	3.3290	3.3291	-0.5873	27.27	1.51	-1.500			
0.7424	47510.86	3.3260	3.3260	-0.5714	27.28	1.52	-1.500			
0.7441	47620.12	3.3230	3.3229	-0.5584	27.29	1.53	-1.500			
0.7457	47725.39	3.3200	3.3200	-0.5397	27.30	1.54	-1.500			
0.7473	47826.35	3.3170	3.3170	-0.5247	27.31	1.55	-1.500			
0.7488	47925.38	3.3140	3.3140	-0.5107	27.31	1.55	-1.500			
0.7503	48021.88	3.3110	3.3109	-0.4996	27.32	1.56	-1.500			
0.7518	48116.29	3.3080	3.3080	-0.4866	27.33	1.57	-1.500			
0.7533	48208.94	3.3050	3.3050	-0.4758	27.34	1.58	-1.500			
0.7547	48299.37	3.3020	3.3019	-0.4640	27.35	1.59	-1.500			
0.7561	48387.40	3.2990	3.2991	-0.4532	27.35	1.59	-1.500			
0.7574	48473.32	3.2960	3.2959	-0.4406	27.36	1.60	-1.500			
0.7587	48556.51	3.2930	3.2930	-0.4298	27.37	1.61	-1.500			
0.7600	48637.18	3.2900	3.2900	-0.4192	27.38	1.62	-1.500			
0.7612	48717.38	3.2870	3.2870	-0.4113	27.38	1.62	-1.500			
0.7624	48795.31	3.2840	3.2839	-0.4020	27.39	1.63	-1.500			
0.7636	48871.33	3.2810	3.2811	-0.3947	27.40	1.64	-1.500			
0.7648	48946.70	3.2780	3.2780	-0.3855	27.41	1.65	-1.500			
0.7659	49020.67	3.2750	3.2749	-0.3768	27.41	1.65	-1.500			
0.7671	49091.28	3.2720	3.2720	-0.3673	27.42	1.66	-1.500			
0.7681	49160.80	3.2690	3.2691	-0.3592	27.43	1.67	-1.500			
0.7692	49229.21	3.2660	3.2660	-0.3521	27.43	1.67	-1.500			
0.7702	49295.64	3.2630	3.2629	-0.3448	27.44	1.68	-1.500			
0.7713	49360.66	3.2600	3.2601	-0.3366	27.45	1.69	-1.500			
0.7723	49425.24	3.2570	3.2570	-0.3319	27.45	1.69	-1.500			
0.7733	49488.81	3.2540	3.2540	-0.3248	27.46	1.70	-1.500			
0.7742	49550.02	3.2510	3.2510	-0.3167	27.47	1.71	-1.500			
0.7752	49610.16	3.2480	3.2480	-0.3092	27.47	1.71	-1.500			
0.7761	49668.64	3.2450	3.2449	-0.3026	27.48	1.72	-1.500			
0.7770	49725.42	3.2420	3.2420	-0.2969	27.49	1.73	-1.500			
0.7778	49781.85	3.2390	3.2390	-0.2932	27.49	1.73	-1.500			
0.7787	49837.40	3.2360	3.2360	-0.2889	27.50	1.74	-1.500			
0.7796	49893.17	3.2330	3.2330	-0.2840	27.50	1.74	-1.500			
0.7804	49947.34	3.2300	3.2300	-0.2793	27.51	1.75	-1.500			
0.7813	50000.83	3.2270	3.2271	-0.2740	27.52	1.76	-1.500			
0.7821	50052.44	3.2240	3.2240	-0.2681	27.52	1.76	-1.500			
0.7829	50103.03	3.2210	3.2210	-0.2638	27.53	1.77	-1.500			
0.7836	50153.20	3.2180	3.2181	-0.2601	27.53	1.77	-1.500			
0.7844	50202.34	3.2150	3.2149	-0.2565	27.54	1.78	-1.500			
0.7852	50251.75	3.2120	3.2119	-0.2532	27.55	1.79	-1.500			
0.7859	50299.93	3.2090	3.2091	-0.2495	27.55	1.79	-1.500			
0.7867	50347.70	3.2060	3.2061	-0.2465	27.56	1.80	-1.500			
0.7874	50394.63	3.2030	3.2029	-0.2424	27.56	1.80	-1.500			
0.7881	50440.83	3.2000	3.2000	-0.2381	27.57	1.81	-1.500			
0.7888	50485.82	3.1970	3.1970	-0.2342	27.57	1.81	-1.500			
0.7895	50530.35	3.1940	3.1941	-0.2311	27.58	1.82	-1.500			
0.7902	50574.43	3.1910	3.1910	-0.2281	27.59	1.83	-1.500			
0.7909	50617.91	3.1880	3.1879	-0.2251	27.59	1.83	-1.500			
0.7916	50660.64	3.1850	3.1850	-0.2219	27.60	1.84	-1.500			
0.7922	50702.92	3.1820	3.1820	-0.2195	27.60	1.84	-1.500			
0.7929	50744.81	3.1790	3.1791	-0.2173	27.61	1.85	-1.500			
0.7935	50786.42	3.1760	3.1760	-0.2151	27.61	1.85	-1.500			
0.7942	50827.35	3.1730	3.1730	-0.2125	27.62	1.86	-1.500			
0.7948	50867.98	3.1700	3.1700	-0.2100	27.62	1.86	-1.500			
0.7954	50908.05	3.1670	3.1670	-0.2078	27.63	1.87	-1.500			
0.7961	50947.83	3.1640	3.1641	-0.2056	27.64	1.88	-1.500			
0.7967	50987.14	3.1610	3.1610	-0.2032	27.64	1.88	-1.500			
0.7973	51025.68	3.1580	3.1580	-0.2011	27.65	1.89	-1.500			
0.7979	51063.96	3.1550	3.1551	-0.1992	27.65	1.89	-1.500			
0.7985	51102.06	3.1520	3.1520	-0.1977	27.66	1.90	-1.500			
0.7991	51140.03	3.1490	3.1489	-0.1950	27.67	1.91	-1.500			
0.7996	51177.42	3.1460	3.1460	-0.1930	27.67	1.91	-1.500			
0.8002	51213.99	3.1430	3.1431	-0.1910	27.68	1.92	-1.500			
0.8008	51250.49	3.1400	3.1400	-0.1891	27.68	1.92	-1.500			
0.8014	51286.68	3.1370	3.1369	-0.1869	27.69	1.93	-1.500			
0.8019	51322.18	3.1340	3.1340	-0.1845	27.69	1.93	-1.500			
0.8025	51357.21	3.1310	3.1311	-0.1831	27.70	1.94	-1.500			
0.8030	51392.34	3.1280	3.1281	-0.1818	27.71	1.95	-1.500			
0.8036	51427.34	3.1250	3.1249	-0.1808	27.71	1.95	-1.500			
0.8041	51461.79	3.1220	3.1219	-0.1790	27.72	1.96	-1.500			
0.8046	51495.82	3.1190	3.1191	-0.1775	27.72	1.96	-1.500			
0.8052	51529.89	3.1160	3.1161	-0.1764	27.73	1.97	-1.500			
0.8057	51563.86	3.1130	3.1129	-0.1754	27.73	1.97	-1.500			
0.8062	51597.33	3.1100	3.1100	-0.1746	27.74	1.98	-1.500			
0.8067	51630.69	3.1070	3.1070	-0.1726	27.74	1.98	-1.500			
0.8073	51664.07	3.1040	3.1041	-0.1712	27.75	1.99	-1.500			
0.8078	51696.75	3.1010	3.1009	-0.1691	27.76	2.00	-1.500			
0.8083	51729.05	3.0980	3.0981	-0.1680	27.76	2.00	-1.500			
0.8088	51761.04	3.0950	3.0950	-0.1662	27.77	2.01	-1.500			
0.8093	51792.59	3.0920	3.0919	-0.1649	27.77	2.01	-1.500			
0.8098	51824.16	3.0890	3.0890	-0.1639	27.78	2.02	-1.500			
0.8102	51855.17	3.0860	3.0861	-0.1631	27.79	2.03	-1.500			
0.8107	51886.81	3.0830	3.0829	-0.1620	27.79	2.03	-1.500			
0.8112	51917.78	3.0800	3.0801	-0.1616	27.80	2.04	-1.500			
0.8117	51948.69	3.0770	3.0770	-0.1605	27.80	2.04	-1.500			
0.8122	51979.36	3.0740	3.0739	-0.1588	27.81	2.05	-1.500			
0.8127	52009.97	3.0710	3.0709	-0.1574	27.82	2.06	-1.500			
0.8131	52039.75	3.0680	3.0680	-0.1559	27.82	2.06	-1.500			
0.8136	52069.58	3.0650	3.0652	-0.1548	27.83	2.07	-1.500			
0.8140	52099.01	3.0620	3.0620	-0.1540	27.83	2.07	-1.500			
0.8145	52128.62	3.0590	3.0589	-0.1533	27.84	2.08	-1.500			
0.8150	52157.72	3.0560	3.0559	-0.1518	27.84	2.08	-1.500			
0.8154	52186.84	3.0530	3.0531	-0.1515	27.85	2.09	-1.500			
0.8159	52216.23	3.0500	3.0500	-0.1505	27.86	2.10	-1.500			
0.8163	52245.13	3.0470	3.0469	-0.1498	27.86	2.10	-1.500			
0.8168	52273.48	3.0440	3.0441	-0.1485	27.87	2.11	-1.500			
0.8172	52301.92	3.0410	3.0410	-0.1478	27.87	2.11	-1.500			
0.8177	52330.17	3.0380	3.0379	-0.1467	27.88	2.12	-1.500			
0.8181	52358.31	3.0350	3.0351	-0.1460	27.88	2.12	-1.500			
0.8185	52386.30	3.0320	3.0320	-0.1451	27.89	2.13	-1.500			
0.8190	52414.09	3.0290	3.0291	-0.1443	27.89	2.13	-1.500			
0.8194	52441.94	3.0260	3.0260	-0.1432	27.90	2.14	-1.500			
0.8198	52469.26	3.0230	3.0230	-0.1418	27.91	2.15	-1.500			
0.8203	52496.30	3.0200	3.0201	-0.1403	27.91	2.15	-1.500			
0.8207	52522.97	3.0170	3.0169	-0.1403	27.92	2.16	-1.500			
0.8211	52549.90	3.0140	3.0140	-0.1395	27.92	2.16	-1.500			
0.8215	52576.48	3.0110	3.0109	-0.1388	27.93	2.17	-1.500			
0.8219	52603.04	3.0080	3.0080	-0.1386	27.93	2.17	-1.500			
0.8223	52629.65	3.0050	3.0051	-0.1385	27.94	2.18	-1.500			
0.8228	52656.10	3.0020	3.0020	-0.1361	27.94	2.18	-1.500			
