Ah_balance (normalized)	Ah_balance (mAh)	Voltage - fit (V)	Voltage -  interpolate (V)	dQ/dV (1/V)	Temperature (°C)	Temperature - diff (°C)	Current (C)	R_DC 0ms (mOhm)	R_DC 50ms (mOhm)	R_DC 50 ms PEC (mOhm)
0.2912	18635.38	3.9730	3.9730	0.8613	27.00	1.04	1.500			
0.2938	18801.39	3.9700	3.9700	0.8678	27.00	1.04	1.500			
0.2964	18970.08	3.9670	3.9670	0.8745	26.99	1.03	1.500			
0.2990	19138.17	3.9640	3.9640	0.8740	26.99	1.03	1.500			
0.3016	19305.24	3.9610	3.9610	0.8807	26.99	1.03	1.500			
0.3043	19475.83	3.9580	3.9581	0.8774	26.99	1.03	1.500			
0.3069	19643.24	3.9550	3.9549	0.8800	26.99	1.03	1.500			
0.3096	19811.81	3.9520	3.9521	0.8863	26.98	1.02	1.500			
0.3122	19981.11	3.9490	3.9491	0.8935	26.98	1.02	1.500			
0.3149	20154.42	3.9460	3.9460	0.9003	26.98	1.02	1.500			
0.3176	20328.97	3.9430	3.9429	0.9057	26.98	1.02	1.500			
0.3204	20502.95	3.9400	3.9401	0.9096	26.97	1.01	1.500			
0.3231	20680.93	3.9370	3.9371	0.9193	26.97	1.01	1.500			
0.3259	20857.01	3.9340	3.9339	0.9167	26.97	1.01	1.500			
0.3286	21032.88	3.9310	3.9310	0.9146	26.97	1.01	1.500			
0.3313	21205.72	3.9280	3.9281	0.9195	26.97	1.01	1.500			
0.3341	21383.60	3.9250	3.9250	0.9259	26.96	1.00	1.500			
0.3369	21562.61	3.9220	3.9219	0.9318	26.96	1.00	1.500			
0.3397	21741.95	3.9190	3.9191	0.9350	26.96	1.00	1.500			
0.3425	21921.82	3.9160	3.9160	0.9448	26.95	0.99	1.500			
0.3454	22103.73	3.9130	3.9130	0.9583	26.95	0.99	1.500			
0.3483	22288.54	3.9100	3.9099	0.9639	26.95	0.99	1.500			
0.3512	22473.71	3.9070	3.9070	0.9685	26.94	0.98	1.500			
0.3541	22661.90	3.9040	3.9040	0.9807	26.94	0.98	1.500			
0.3570	22850.88	3.9010	3.9011	0.9868	26.94	0.98	1.500			
0.3600	23041.71	3.8980	3.8979	0.9951	26.93	0.97	1.500			
0.3630	23232.13	3.8950	3.8947	0.9992	26.93	0.97	1.500			
0.3660	23424.04	3.8920	3.8921	1.0063	26.92	0.96	1.500			
0.3690	23618.96	3.8890	3.8891	1.0216	26.92	0.96	1.500			
0.3722	23818.28	3.8860	3.8859	1.0290	26.91	0.95	1.500			
0.3752	24015.92	3.8830	3.8831	1.0347	26.91	0.95	1.500			
0.3783	24214.33	3.8800	3.8800	1.0434	26.90	0.94	1.500			
0.3815	24415.01	3.8770	3.8771	1.0515	26.89	0.93	1.500			
0.3846	24616.94	3.8740	3.8739	1.0631	26.89	0.93	1.500			
0.3878	24821.36	3.8710	3.8709	1.0743	26.88	0.92	1.500			
0.3911	25027.81	3.8680	3.8680	1.0892	26.88	0.92	1.500			
0.3944	25239.37	3.8650	3.8650	1.1103	26.87	0.91	1.500			
0.3977	25455.28	3.8620	3.8620	1.1237	26.86	0.90	1.500			
0.4012	25675.32	3.8590	3.8589	1.1290	26.86	0.90	1.500			
0.4046	25891.28	3.8560	3.8561	1.1504	26.85	0.89	1.500			
0.4080	26112.11	3.8530	3.8531	1.1682	26.85	0.89	1.500			
0.4115	26338.50	3.8500	3.8500	1.1816	26.84	0.88	1.500			
0.4151	26566.27	3.8470	3.8470	1.1964	26.84	0.88	1.500			
0.4187	26797.55	3.8440	3.8441	1.2157	26.83	0.87	1.500			
0.4224	27033.46	3.8410	3.8410	1.2398	26.82	0.86	1.500			
0.4262	27274.70	3.8380	3.8379	1.2677	26.81	0.85	1.500			
0.4299	27516.79	3.8350	3.8350	1.2797	26.80	0.84	1.500			
0.4338	27764.67	3.8320	3.8320	1.3070	26.79	0.83	1.500			
0.4378	28019.68	3.8290	3.8291	1.3368	26.78	0.82	1.500			
0.4419	28279.03	3.8260	3.8260	1.3617	26.77	0.81	1.500			
0.4460	28541.67	3.8230	3.8230	1.3891	26.76	0.80	1.500			
0.4502	28809.98	3.8200	3.8201	1.4168	26.76	0.80	1.500			
0.4545	29085.57	3.8170	3.8169	1.4480	26.75	0.79	1.500			
0.4589	29366.98	3.8140	3.8140	1.4785	26.74	0.78	1.500			
0.4633	29650.50	3.8110	3.8110	1.5120	26.73	0.77	1.500			
0.4679	29943.08	3.8080	3.8080	1.5538	26.72	0.76	1.500			
0.4726	30246.29	3.8050	3.8050	1.5920	26.71	0.75	1.500			
0.4774	30554.73	3.8020	3.8020	1.6368	26.70	0.74	1.500			
0.4824	30873.01	3.7990	3.7991	1.6871	26.69	0.73	1.500			
0.4875	31201.86	3.7960	3.7960	1.7333	26.68	0.72	1.500			
0.4928	31540.30	3.7930	3.7930	1.7755	26.67	0.71	1.500			
0.4982	31883.92	3.7900	3.7901	1.8111	26.65	0.69	1.500			
0.5037	32236.36	3.7870	3.7870	1.8597	26.63	0.67	1.500			
0.5094	32599.46	3.7840	3.7840	1.8979	26.61	0.65	1.500			
0.5151	32965.68	3.7810	3.7810	1.9398	26.60	0.64	1.500			
0.5210	33343.44	3.7780	3.7780	1.9778	26.58	0.62	1.500			
0.5270	33728.57	3.7750	3.7750	2.0291	26.57	0.61	1.500			
0.5332	34121.97	3.7720	3.7720	2.0587	26.55	0.59	1.500			
0.5394	34521.25	3.7690	3.7690	2.1054	26.54	0.58	1.500			
0.5458	34933.68	3.7660	3.7660	2.1158	26.52	0.56	1.500			
0.5522	35343.38	3.7630	3.7626	2.1240	26.50	0.54	1.500	0.367	0.457	
0.5586	35751.01	3.7600	3.7601	2.1185	26.47	0.51	1.500			
0.5650	36157.90	3.7570	3.7571	2.1092	26.46	0.50	1.500			
0.5713	36562.59	3.7540	3.7540	2.0706	26.44	0.48	1.500			
0.5775	36960.40	3.7510	3.7511	2.0672	26.43	0.47	1.500			
0.5837	37354.65	3.7480	3.7480	2.0401	26.41	0.45	1.500			
0.5898	37744.22	3.7450	3.7451	2.0277	26.40	0.44	1.500			
0.5958	38132.15	3.7420	3.7420	2.0134	26.38	0.42	1.500			
0.6018	38518.04	3.7390	3.7390	2.0067	26.36	0.40	1.500			
0.6078	38899.96	3.7360	3.7360	2.0144	26.35	0.39	1.500			
0.6139	39287.13	3.7330	3.7329	2.0325	26.33	0.37	1.500			
0.6200	39677.85	3.7300	3.7300	2.0550	26.32	0.36	1.500			
0.6261	40071.98	3.7270	3.7270	2.1192	26.30	0.34	1.500			
0.6326	40485.15	3.7240	3.7240	2.1733	26.29	0.33	1.500			
0.6392	40907.44	3.7210	3.7210	2.2417	26.28	0.32	1.500			
0.6461	41347.81	3.7180	3.7181	2.3000	26.26	0.30	1.500			
0.6530	41793.85	3.7150	3.7150	2.3813	26.24	0.28	1.500			
0.6602	42254.35	3.7120	3.7120	2.4539	26.23	0.27	1.500			
0.6677	42733.68	3.7090	3.7090	2.5469	26.21	0.25	1.500			
0.6755	43231.07	3.7060	3.7060	2.6102	26.19	0.23	1.500			
0.6834	43737.94	3.7030	3.7030	2.6654	26.17	0.21	1.500			
0.6915	44256.01	3.7000	3.7000	2.7125	26.15	0.19	1.500			
0.6997	44783.45	3.6970	3.6970	2.6609	26.14	0.18	1.500			
0.7079	45303.28	3.6940	3.6941	2.5832	26.13	0.17	1.500			
0.7156	45796.58	3.6910	3.6909	2.4465	26.12	0.16	1.500			
0.7227	46250.22	3.6880	3.6881	2.2663	26.11	0.15	1.500			
0.7292	46665.70	3.6850	3.6851	2.0920	26.10	0.14	1.500			
0.7350	47040.64	3.6820	3.6819	1.8861	26.09	0.13	1.500			
0.7403	47381.02	3.6790	3.6790	1.7338	26.09	0.13	1.500			
0.7453	47698.29	3.6760	3.6759	1.6290	26.08	0.12	1.500			
0.7499	47995.04	3.6730	3.6730	1.5326	26.07	0.11	1.500			
0.7543	48277.95	3.6700	3.6700	1.4497	26.06	0.10	1.500			
0.7586	48548.41	3.6670	3.6671	1.3875	26.06	0.10	1.500			
0.7626	48806.17	3.6640	3.6639	1.3321	26.05	0.09	1.500			
0.7664	49050.51	3.6610	3.6610	1.2884	26.05	0.09	1.500			
0.7702	49290.39	3.6580	3.6579	1.2625	26.04	0.08	1.500			
0.7739	49528.10	3.6550	3.6550	1.2485	26.04	0.08	1.500			
0.7776	49763.96	3.6520	3.6520	1.2519	26.03	0.07	1.500			
0.7813	50003.36	3.6490	3.6490	1.2603	26.03	0.07	1.500			
0.7851	50245.82	3.6460	3.6461	1.2752	26.02	0.06	1.500			
0.7889	50491.00	3.6430	3.6429	1.2869	26.02	0.06	1.500			
0.7928	50741.52	3.6400	3.6401	1.2987	26.01	0.05	1.500			
0.7968	50993.51	3.6370	3.6370	1.3054	26.00	0.04	1.500			
0.8007	51246.49	3.6340	3.6340	1.3064	26.00	0.04	1.500			
0.8047	51497.67	3.6310	3.6310	1.3024	25.99	0.03	1.500			
0.8085	51747.13	3.6280	3.6280	1.3033	25.98	0.02	1.500			
0.8125	51996.86	3.6250	3.6249	1.2994	25.97	0.01	1.500			
0.8163	52245.94	3.6220	3.6220	1.2979	25.97	0.01	1.500			
0.8202	52494.56	3.6190	3.6191	1.2995	25.96	0.00	1.500			
0.8242	52747.03	3.6160	3.6160	1.2965	25.96	-0.00	1.500			
0.8280	52994.68	3.6130	3.6130	1.2880	25.95	-0.01	1.500			
0.8319	53241.50	3.6100	3.6100	1.2845	25.95	-0.01	1.500			
0.8357	53487.64	3.6070	3.6071	1.2775	25.94	-0.02	1.500			
0.8396	53733.89	3.6040	3.6040	1.2682	25.94	-0.02	1.500			
0.8434	53976.49	3.6010	3.6010	1.2531	25.94	-0.02	1.500			
0.8471	54215.94	3.5980	3.5980	1.2366	25.94	-0.02	1.500			
0.8508	54453.44	3.5950	3.5950	1.2194	25.93	-0.03	1.500			
0.8545	54684.96	3.5920	3.5920	1.2008	25.93	-0.03	1.500			
0.8580	54912.47	3.5890	3.5890	1.1876	25.93	-0.03	1.500			
0.8615	55137.67	3.5860	3.5860	1.1794	25.93	-0.03	1.500			
0.8650	55362.69	3.5830	3.5830	1.1770	25.93	-0.03	1.500			
0.8686	55589.12	3.5800	3.5799	1.1697	25.94	-0.02	1.500			
0.8722	55818.49	3.5770	3.5769	1.1427	25.94	-0.02	1.500			
0.8757	56045.06	3.5740	3.5739	1.1007	25.94	-0.02	1.500			
0.8791	56264.24	3.5710	3.5710	1.0181	25.95	-0.01	1.500			
0.8821	56455.40	3.5680	3.5681	0.9039	25.95	-0.01	1.500			
0.8847	56620.77	3.5650	3.5652	0.7752	25.96	-0.00	1.500			
0.8868	56753.51	3.5620	3.5620	0.6388	25.96	-0.00	1.500			
0.8884	56856.11	3.5590	3.5589	0.5138	25.96	0.00	1.500			
0.8897	56938.35	3.5560	3.5558	0.4187	25.96	0.00	1.500			
0.8907	57004.33	3.5530	3.5529	0.3440	25.96	0.00	1.500			
0.8916	57060.61	3.5500	3.5499	0.2940	25.96	0.00	1.500			
0.8923	57108.64	3.5470	3.5469	0.2536	25.96	0.00	1.500			
0.8930	57152.26	3.5440	3.5440	0.2248	25.97	0.01	1.500			
0.8936	57190.53	3.5410	3.5409	0.1966	25.97	0.01	1.500			
0.8942	57225.79	3.5380	3.5381	0.1790	25.97	0.01	1.500			
0.8946	57257.12	3.5350	3.5350	0.1608	25.97	0.01	1.500			
0.8951	57286.34	3.5320	3.5320	0.1455	25.97	0.01	1.500			
0.8955	57312.89	3.5290	3.5289	0.1314	25.97	0.01	1.500			
0.8959	57336.50	3.5260	3.5261	0.1168	25.97	0.01	1.500			
0.8962	57357.75	3.5230	3.5230	0.1032	25.97	0.01	1.500			
0.8965	57376.42	3.5200	3.5201	0.0894	25.97	0.01	1.500			
0.8968	57392.21	3.5170	3.5171	0.0751	25.97	0.01	1.500			
0.8970	57405.36	3.5140	3.5144	0.0604	25.97	0.01	1.500			
0.8971	57415.53	3.5110	3.5114	0.0456	25.97	0.01	1.500			
