Ah_balance (normalized)	Ah_balance (mAh)	Voltage - fit (V)	Voltage -  interpolate (V)	dQ/dV (1/V)	Temperature (°C)	Temperature - diff (°C)	Current (C)	R_DC 0ms (mOhm)	R_DC 50ms (mOhm)	R_DC 50 ms PEC (mOhm)
0.2067	13227.10	3.9120	3.9117	-0.1025	25.98	0.00	-1.500			
0.2070	13250.15	3.9090	3.9090	-0.1364	25.98	0.00	-1.500			
0.2075	13280.76	3.9060	3.9058	-0.1684	25.98	0.00	-1.500			
0.2081	13316.18	3.9030	3.9029	-0.1964	25.98	0.00	-1.500			
0.2087	13356.76	3.9000	3.9001	-0.2238	25.98	0.00	-1.500			
0.2094	13403.05	3.8970	3.8971	-0.2521	25.98	0.00	-1.500			
0.2102	13453.75	3.8940	3.8940	-0.2790	25.98	0.00	-1.500			
0.2111	13509.77	3.8910	3.8910	-0.3056	25.98	0.00	-1.500			
0.2120	13570.62	3.8880	3.8880	-0.3318	25.98	0.00	-1.500			
0.2131	13636.67	3.8850	3.8851	-0.3597	25.98	0.00	-1.500			
0.2142	13708.67	3.8820	3.8820	-0.3876	25.98	0.00	-1.500			
0.2154	13785.89	3.8790	3.8789	-0.4115	25.98	0.00	-1.500			
0.2167	13867.89	3.8760	3.8760	-0.4361	25.98	0.00	-1.500			
0.2180	13953.81	3.8730	3.8730	-0.4607	25.98	0.00	-1.500			
0.2195	14044.85	3.8700	3.8699	-0.4850	25.98	0.00	-1.500			
0.2210	14140.92	3.8670	3.8670	-0.5054	25.98	0.00	-1.500			
0.2225	14239.44	3.8640	3.8640	-0.5268	25.98	0.00	-1.500			
0.2241	14343.36	3.8610	3.8611	-0.5474	25.98	0.00	-1.500			
0.2258	14451.19	3.8580	3.8580	-0.5668	25.98	0.00	-1.500			
0.2275	14561.33	3.8550	3.8550	-0.5849	25.98	0.00	-1.500			
0.2293	14675.54	3.8520	3.8520	-0.5997	25.98	0.00	-1.500			
0.2311	14793.03	3.8490	3.8490	-0.6135	25.98	0.00	-1.500			
0.2330	14912.78	3.8460	3.8460	-0.6259	25.98	0.00	-1.500			
0.2349	15033.79	3.8430	3.8431	-0.6369	25.98	0.00	-1.500			
0.2368	15157.04	3.8400	3.8399	-0.6510	25.98	0.00	-1.500			
0.2388	15284.20	3.8370	3.8370	-0.6566	25.98	0.00	-1.500			
0.2408	15411.37	3.8340	3.8340	-0.6618	25.98	0.00	-1.500			
0.2428	15540.10	3.8310	3.8310	-0.6692	25.98	0.00	-1.500			
0.2448	15668.43	3.8280	3.8280	-0.6749	25.98	0.00	-1.500			
0.2468	15797.80	3.8250	3.8249	-0.6764	25.99	0.01	-1.500			
0.2489	15927.63	3.8220	3.8220	-0.6785	25.99	0.01	-1.500			
0.2509	16057.95	3.8190	3.8191	-0.6827	25.99	0.01	-1.500			
0.2530	16191.19	3.8160	3.8159	-0.6883	26.00	0.02	-1.500			
0.2551	16323.54	3.8130	3.8130	-0.6915	26.00	0.02	-1.500			
0.2571	16456.52	3.8100	3.8100	-0.6917	26.01	0.03	-1.500			
0.2592	16589.26	3.8070	3.8070	-0.6904	26.01	0.03	-1.500			
0.2613	16722.59	3.8040	3.8040	-0.6943	26.01	0.03	-1.500			
0.2634	16855.29	3.8010	3.8010	-0.6950	26.02	0.04	-1.500			
0.2654	16988.34	3.7980	3.7979	-0.6953	26.02	0.04	-1.500			
0.2675	17122.66	3.7950	3.7950	-0.6973	26.03	0.05	-1.500			
0.2696	17256.42	3.7920	3.7920	-0.6979	26.03	0.05	-1.500			
0.2717	17391.05	3.7890	3.7890	-0.7006	26.04	0.06	-1.500			
0.2738	17525.57	3.7860	3.7860	-0.7012	26.04	0.06	-1.500			
0.2759	17658.49	3.7830	3.7830	-0.7026	26.05	0.07	-1.500			
0.2780	17794.41	3.7800	3.7799	-0.7052	26.06	0.08	-1.500			
0.2802	17930.63	3.7770	3.7771	-0.7049	26.06	0.08	-1.500			
0.2823	18065.87	3.7740	3.7740	-0.7060	26.07	0.09	-1.500			
0.2844	18203.31	3.7710	3.7711	-0.7047	26.07	0.09	-1.500			
0.2865	18337.79	3.7680	3.7679	-0.7048	26.08	0.10	-1.500			
0.2886	18471.41	3.7650	3.7650	-0.7029	26.09	0.11	-1.500			
0.2907	18606.15	3.7620	3.7620	-0.7024	26.09	0.11	-1.500			
0.2928	18742.19	3.7590	3.7589	-0.7055	26.10	0.12	-1.500			
0.2950	18877.77	3.7560	3.7560	-0.7051	26.10	0.12	-1.500			
0.2971	19012.28	3.7530	3.7530	-0.7056	26.11	0.13	-1.500			
0.2992	19148.52	3.7500	3.7500	-0.7077	26.11	0.13	-1.500			
0.3013	19282.79	3.7470	3.7470	-0.7091	26.12	0.14	-1.500			
0.3034	19420.29	3.7440	3.7440	-0.7139	26.12	0.14	-1.500			
0.3056	19558.04	3.7410	3.7410	-0.7158	26.13	0.15	-1.500			
0.3077	19695.14	3.7380	3.7380	-0.7197	26.13	0.15	-1.500			
0.3099	19834.23	3.7350	3.7351	-0.7256	26.14	0.16	-1.500			
0.3121	19973.26	3.7320	3.7320	-0.7317	26.14	0.16	-1.500			
0.3143	20115.23	3.7290	3.7289	-0.7348	26.15	0.17	-1.500			
0.3165	20255.99	3.7260	3.7262	-0.7386	26.15	0.17	-1.500			
0.3187	20398.72	3.7230	3.7230	-0.7461	26.16	0.18	-1.500			
0.3210	20542.52	3.7200	3.7200	-0.7473	26.17	0.19	-1.500			
0.3232	20684.51	3.7170	3.7169	-0.7510	26.17	0.19	-1.500			
0.3254	20828.76	3.7140	3.7141	-0.7590	26.18	0.20	-1.500			
0.3277	20975.94	3.7110	3.7109	-0.7665	26.19	0.21	-1.500			
0.3301	21125.02	3.7080	3.7080	-0.7764	26.19	0.21	-1.500			
0.3324	21273.80	3.7050	3.7050	-0.7851	26.20	0.22	-1.500			
0.3348	21424.83	3.7020	3.7020	-0.7937	26.20	0.22	-1.500			
0.3372	21579.17	3.6990	3.6990	-0.8034	26.21	0.23	-1.500			
0.3396	21733.02	3.6960	3.6960	-0.8091	26.22	0.24	-1.500			
0.3420	21889.27	3.6930	3.6930	-0.8202	26.22	0.24	-1.500			
0.3445	22048.34	3.6900	3.6900	-0.8277	26.23	0.25	-1.500			
0.3470	22206.87	3.6870	3.6870	-0.8397	26.24	0.26	-1.500			
0.3495	22368.24	3.6840	3.6840	-0.8516	26.24	0.26	-1.500			
0.3521	22533.66	3.6810	3.6809	-0.8660	26.25	0.27	-1.500			
0.3547	22702.06	3.6780	3.6780	-0.8776	26.25	0.27	-1.500			
0.3574	22871.91	3.6750	3.6750	-0.8896	26.26	0.28	-1.500			
0.3601	23043.35	3.6720	3.6720	-0.9076	26.26	0.28	-1.500			
0.3628	23220.11	3.6690	3.6691	-0.9201	26.27	0.29	-1.500			
0.3656	23396.07	3.6660	3.6659	-0.9311	26.27	0.29	-1.500			
0.3684	23576.28	3.6630	3.6629	-0.9503	26.28	0.30	-1.500			
0.3713	23760.76	3.6600	3.6600	-0.9654	26.28	0.30	-1.500			
0.3742	23948.08	3.6570	3.6569	-0.9784	26.29	0.31	-1.500			
0.3771	24136.55	3.6540	3.6541	-0.9958	26.29	0.31	-1.500			
0.3801	24327.63	3.6510	3.6511	-1.0178	26.30	0.32	-1.500			
0.3832	24526.50	3.6480	3.6479	-1.0438	26.30	0.32	-1.500			
0.3864	24730.27	3.6450	3.6449	-1.0587	26.31	0.33	-1.500			
0.3896	24935.50	3.6420	3.6420	-1.0756	26.31	0.33	-1.500			
0.3929	25145.06	3.6390	3.6390	-1.0923	26.32	0.34	-1.500			
0.3962	25356.47	3.6360	3.6360	-1.1150	26.32	0.34	-1.500			
0.3995	25571.14	3.6330	3.6329	-1.1267	26.33	0.35	-1.500			
0.4029	25785.56	3.6300	3.6300	-1.1435	26.33	0.35	-1.500			
0.4063	26005.63	3.6270	3.6271	-1.1747	26.34	0.36	-1.500			
0.4100	26238.13	3.6240	3.6240	-1.1982	26.35	0.37	-1.500			
0.4136	26469.59	3.6210	3.6209	-1.2133	26.35	0.37	-1.500			
0.4173	26704.40	3.6180	3.6180	-1.2355	26.36	0.38	-1.500			
0.4210	26942.53	3.6150	3.6149	-1.2539	26.36	0.38	-1.500			
0.4248	27187.63	3.6120	3.6119	-1.2740	26.36	0.38	-1.500			
0.4286	27431.39	3.6090	3.6090	-1.2936	26.37	0.39	-1.500			
0.4325	27680.08	3.6060	3.6060	-1.3118	26.37	0.39	-1.500			
0.4365	27937.51	3.6030	3.6030	-1.3383	26.37	0.39	-1.500			
0.4406	28196.57	3.6000	3.6000	-1.3547	26.38	0.40	-1.500			
0.4446	28457.21	3.5970	3.5970	-1.3790	26.38	0.40	-1.500			
0.4488	28724.97	3.5940	3.5941	-1.3998	26.38	0.40	-1.500			
0.4531	28995.95	3.5910	3.5909	-1.4232	26.39	0.41	-1.500			
0.4573	29269.59	3.5880	3.5881	-1.4418	26.39	0.41	-1.500			
0.4617	29549.54	3.5850	3.5850	-1.4679	26.39	0.41	-1.500			
0.4662	29834.33	3.5820	3.5820	-1.4850	26.40	0.42	-1.500			
0.4707	30121.97	3.5790	3.5790	-1.5090	26.40	0.42	-1.500			
0.4752	30412.15	3.5760	3.5760	-1.5219	26.40	0.42	-1.500			
0.4798	30708.36	3.5730	3.5730	-1.5421	26.40	0.42	-1.500			
0.4845	31005.54	3.5700	3.5699	-1.5601	26.41	0.43	-1.500			
0.4892	31306.63	3.5670	3.5670	-1.5751	26.41	0.43	-1.500			
0.4939	31609.05	3.5640	3.5642	-1.5946	26.41	0.43	-1.500			
0.4987	31916.94	3.5610	3.5610	-1.6195	26.41	0.43	-1.500			
0.5036	32230.07	3.5580	3.5580	-1.6386	26.42	0.44	-1.500			
0.5086	32549.53	3.5550	3.5550	-1.6612	26.42	0.44	-1.500			
0.5136	32871.24	3.5520	3.5520	-1.6731	26.43	0.45	-1.500			
0.5186	33193.10	3.5490	3.5491	-1.6873	26.43	0.45	-1.500			
0.5238	33520.01	3.5460	3.5460	-1.6988	26.44	0.46	-1.500			
0.5288	33841.78	3.5430	3.5430	-1.7339	26.44	0.46	-1.500			
0.5341	34179.44	3.5400	3.5399	-1.7387	26.45	0.47	-1.500			
0.5394	34519.96	3.5370	3.5368	-1.7503	26.45	0.47	-1.500			
0.5446	34857.11	3.5340	3.5342	-1.7504	26.46	0.48	-1.500	0.376	0.516	
0.5499	35195.82	3.5310	3.5309	-1.7552	26.46	0.48	-1.500			
0.5551	35528.66	3.5280	3.5279	-1.7545	26.47	0.49	-1.500			
0.5603	35861.61	3.5250	3.5250	-1.7558	26.47	0.49	-1.500			
0.5657	36204.13	3.5220	3.5220	-1.7717	26.48	0.50	-1.500			
0.5710	36544.99	3.5190	3.5190	-1.7701	26.48	0.50	-1.500			
0.5763	36885.09	3.5160	3.5160	-1.7744	26.49	0.51	-1.500			
0.5816	37223.27	3.5130	3.5130	-1.7678	26.50	0.52	-1.500			
0.5869	37559.96	3.5100	3.5100	-1.7701	26.51	0.53	-1.500			
0.5922	37902.21	3.5070	3.5070	-1.7760	26.52	0.54	-1.500			
0.5976	38243.28	3.5040	3.5039	-1.7814	26.52	0.54	-1.500			
0.6029	38588.71	3.5010	3.5010	-1.7914	26.53	0.55	-1.500			
0.6083	38933.01	3.4980	3.4981	-1.7892	26.53	0.55	-1.500			
0.6137	39279.63	3.4950	3.4949	-1.7858	26.54	0.56	-1.500			
0.6191	39620.01	3.4920	3.4922	-1.7646	26.54	0.56	-1.500			
0.6244	39958.74	3.4890	3.4890	-1.7510	26.55	0.57	-1.500			
0.6296	40292.89	3.4860	3.4860	-1.7505	26.56	0.58	-1.500			
0.6348	40624.90	3.4830	3.4830	-1.7338	26.57	0.59	-1.500			
0.6400	40958.94	3.4800	3.4799	-1.7296	26.58	0.60	-1.500			
0.6452	41291.19	3.4770	3.4771	-1.7169	26.59	0.61	-1.500			
0.6504	41622.86	3.4740	3.4740	-1.7039	26.60	0.62	-1.500			
0.6555	41949.88	3.4710	3.4710	-1.6843	26.61	0.63	-1.500			
0.6605	42271.74	3.4680	3.4680	-1.6543	26.62	0.64	-1.500			
0.6654	42584.45	3.4650	3.4650	-1.6303	26.63	0.65	-1.500			
0.6703	42896.15	3.4620	3.4620	-1.6052	26.64	0.66	-1.500			
0.6750	43200.22	3.4590	3.4590	-1.5889	26.65	0.67	-1.500			
0.6797	43502.92	3.4560	3.4560	-1.5699	26.66	0.68	-1.500			
0.6844	43802.48	3.4530	3.4530	-1.5442	26.67	0.69	-1.500			
0.6891	44099.83	3.4500	3.4500	-1.5294	26.68	0.70	-1.500			
0.6936	44392.26	3.4470	3.4471	-1.5085	26.69	0.71	-1.500			
0.6981	44678.59	3.4440	3.4440	-1.4807	26.70	0.72	-1.500			
0.7025	44959.44	3.4410	3.4410	-1.4626	26.71	0.73	-1.500			
0.7068	45235.72	3.4380	3.4380	-1.4381	26.73	0.75	-1.500			
0.7111	45512.36	3.4350	3.4350	-1.4195	26.74	0.76	-1.500			
0.7154	45782.89	3.4320	3.4319	-1.4032	26.75	0.77	-1.500			
0.7195	46048.09	3.4290	3.4291	-1.3902	26.76	0.78	-1.500			
0.7237	46313.77	3.4260	3.4260	-1.3781	26.78	0.80	-1.500			
0.7278	46577.25	3.4230	3.4229	-1.3677	26.79	0.81	-1.500			
0.7319	46839.09	3.4200	3.4200	-1.3595	26.80	0.82	-1.500			
0.7360	47102.17	3.4170	3.4170	-1.3457	26.82	0.84	-1.500			
0.7400	47360.98	3.4140	3.4139	-1.3241	26.83	0.85	-1.500			
0.7440	47613.97	3.4110	3.4112	-1.2978	26.84	0.86	-1.500			
0.7478	47860.28	3.4080	3.4080	-1.2708	26.86	0.88	-1.500			
0.7516	48103.13	3.4050	3.4050	-1.2393	26.88	0.90	-1.500			
0.7553	48337.63	3.4020	3.4020	-1.2075	26.89	0.91	-1.500			
0.7589	48567.67	3.3990	3.3990	-1.1785	26.91	0.93	-1.500			
0.7624	48792.39	3.3960	3.3960	-1.1347	26.92	0.94	-1.500			
0.7657	49007.22	3.3930	3.3932	-1.0949	26.94	0.96	-1.500			
0.7689	49211.65	3.3900	3.3901	-1.0531	26.94	0.96	-1.500			
0.7720	49408.30	3.3870	3.3870	-1.0089	26.95	0.97	-1.500			
0.7750	49598.21	3.3840	3.3839	-0.9701	26.96	0.98	-1.500			
0.7778	49780.76	3.3810	3.3810	-0.9312	26.98	1.00	-1.500			
0.7805	49954.53	3.3780	3.3781	-0.8979	26.99	1.01	-1.500			
0.7832	50123.72	3.3750	3.3750	-0.8669	27.00	1.02	-1.500			
0.7857	50285.38	3.3720	3.3720	-0.8315	27.01	1.03	-1.500			
0.7882	50441.60	3.3690	3.3689	-0.8013	27.02	1.04	-1.500			
0.7905	50592.21	3.3660	3.3661	-0.7771	27.03	1.05	-1.500			
0.7928	50738.98	3.3630	3.3630	-0.7501	27.04	1.06	-1.500			
0.7950	50880.89	3.3600	3.3599	-0.7249	27.04	1.06	-1.500			
0.7971	51015.87	3.3570	3.3571	-0.6999	27.05	1.07	-1.500			
0.7992	51148.18	3.3540	3.3539	-0.6755	27.06	1.08	-1.500			
0.8012	51276.06	3.3510	3.3510	-0.6560	27.07	1.09	-1.500			
0.8031	51399.98	3.3480	3.3480	-0.6334	27.07	1.09	-1.500			
0.8050	51518.11	3.3450	3.3450	-0.6123	27.08	1.10	-1.500			
0.8068	51634.38	3.3420	3.3420	-0.5953	27.09	1.11	-1.500			
0.8085	51745.65	3.3390	3.3390	-0.5770	27.09	1.11	-1.500			
0.8102	51854.40	3.3360	3.3360	-0.5609	27.10	1.12	-1.500			
0.8119	51961.05	3.3330	3.3330	-0.5463	27.11	1.13	-1.500			
0.8135	52063.61	3.3300	3.3300	-0.5305	27.11	1.13	-1.500			
0.8151	52165.22	3.3270	3.3270	-0.5149	27.12	1.14	-1.500			
0.8166	52262.37	3.3240	3.3240	-0.4979	27.12	1.14	-1.500			
0.8181	52356.21	3.3210	3.3210	-0.4810	27.13	1.15	-1.500			
0.8195	52446.66	3.3180	3.3180	-0.4662	27.13	1.15	-1.500			
0.8208	52533.40	3.3150	3.3150	-0.4549	27.14	1.16	-1.500			
0.8222	52619.71	3.3120	3.3119	-0.4427	27.15	1.17	-1.500			
0.8235	52703.23	3.3090	3.3090	-0.4310	27.15	1.17	-1.500			
0.8248	52785.58	3.3060	3.3061	-0.4210	27.16	1.18	-1.500			
0.8260	52865.68	3.3030	3.3030	-0.4095	27.17	1.19	-1.500			
0.8272	52942.98	3.3000	3.3000	-0.4000	27.17	1.19	-1.500			
0.8284	53017.82	3.2970	3.2970	-0.3874	27.18	1.20	-1.500			
0.8295	53091.06	3.2940	3.2938	-0.3768	27.18	1.20	-1.500			
0.8307	53163.02	3.2910	3.2911	-0.3692	27.19	1.21	-1.500			
0.8318	53232.77	3.2880	3.2880	-0.3590	27.20	1.22	-1.500			
0.8328	53300.88	3.2850	3.2850	-0.3515	27.20	1.22	-1.500			
0.8339	53367.66	3.2820	3.2819	-0.3424	27.21	1.23	-1.500			
0.8349	53431.56	3.2790	3.2790	-0.3327	27.21	1.23	-1.500			
0.8359	53495.40	3.2760	3.2761	-0.3257	27.22	1.24	-1.500			
0.8368	53557.64	3.2730	3.2729	-0.3168	27.22	1.24	-1.500			
0.8378	53617.11	3.2700	3.2700	-0.3081	27.23	1.25	-1.500			
0.8387	53674.86	3.2670	3.2670	-0.3006	27.23	1.25	-1.500			
0.8396	53731.22	3.2640	3.2640	-0.2950	27.23	1.25	-1.500			
0.8404	53787.30	3.2610	3.2609	-0.2898	27.24	1.26	-1.500			
0.8413	53842.54	3.2580	3.2580	-0.2840	27.24	1.26	-1.500			
0.8421	53897.01	3.2550	3.2550	-0.2782	27.24	1.26	-1.500			
0.8430	53950.46	3.2520	3.2520	-0.2731	27.25	1.27	-1.500			
0.8438	54001.82	3.2490	3.2491	-0.2669	27.25	1.27	-1.500			
0.8446	54051.72	3.2460	3.2460	-0.2611	27.26	1.28	-1.500			
0.8453	54101.38	3.2430	3.2430	-0.2562	27.26	1.28	-1.500			
0.8461	54150.07	3.2400	3.2399	-0.2520	27.27	1.29	-1.500			
0.8468	54198.34	3.2370	3.2370	-0.2486	27.27	1.29	-1.500			
0.8476	54245.72	3.2340	3.2341	-0.2446	27.28	1.30	-1.500			
0.8483	54292.40	3.2310	3.2309	-0.2400	27.28	1.30	-1.500			
0.8490	54337.51	3.2280	3.2280	-0.2371	27.29	1.31	-1.500			
0.8497	54382.74	3.2250	3.2249	-0.2326	27.29	1.31	-1.500			
0.8504	54426.95	3.2220	3.2220	-0.2291	27.29	1.31	-1.500			
0.8511	54470.89	3.2190	3.2189	-0.2263	27.30	1.32	-1.500			
0.8518	54514.10	3.2160	3.2162	-0.2220	27.30	1.32	-1.500			
0.8524	54555.98	3.2130	3.2129	-0.2192	27.31	1.33	-1.500			
0.8531	54597.84	3.2100	3.2100	-0.2158	27.31	1.33	-1.500			
0.8537	54638.93	3.2070	3.2071	-0.2125	27.32	1.34	-1.500			
0.8544	54678.89	3.2040	3.2039	-0.2085	27.32	1.34	-1.500			
0.8550	54719.14	3.2010	3.2011	-0.2070	27.32	1.34	-1.500			
0.8556	54758.43	3.1980	3.1980	-0.2037	27.33	1.35	-1.500			
0.8562	54797.26	3.1950	3.1950	-0.2012	27.33	1.35	-1.500			
0.8568	54835.82	3.1920	3.1920	-0.1988	27.34	1.36	-1.500			
0.8574	54873.36	3.1890	3.1891	-0.1950	27.34	1.36	-1.500			
0.8580	54910.44	3.1860	3.1860	-0.1943	27.34	1.36	-1.500			
0.8586	54947.66	3.1830	3.1830	-0.1924	27.35	1.37	-1.500			
0.8591	54984.33	3.1800	3.1799	-0.1905	27.35	1.37	-1.500			
0.8597	55020.77	3.1770	3.1769	-0.1880	27.36	1.38	-1.500			
0.8603	55056.72	3.1740	3.1741	-0.1857	27.36	1.38	-1.500			
0.8608	55092.26	3.1710	3.1711	-0.1841	27.37	1.39	-1.500			
0.8614	55127.38	3.1680	3.1680	-0.1817	27.37	1.39	-1.500			
0.8619	55162.01	3.1650	3.1650	-0.1804	27.38	1.40	-1.500			
0.8624	55195.86	3.1620	3.1621	-0.1778	27.38	1.40	-1.500			
0.8630	55230.29	3.1590	3.1589	-0.1769	27.38	1.40	-1.500			
0.8635	55264.11	3.1560	3.1560	-0.1755	27.39	1.41	-1.500			
0.8640	55297.88	3.1530	3.1530	-0.1741	27.39	1.41	-1.500			
0.8645	55331.07	3.1500	3.1501	-0.1728	27.40	1.42	-1.500			
0.8651	55363.98	3.1470	3.1470	-0.1710	27.40	1.42	-1.500			
0.8656	55396.66	3.1440	3.1439	-0.1697	27.40	1.42	-1.500			
0.8661	55428.87	3.1410	3.1410	-0.1685	27.41	1.43	-1.500			
0.8666	55461.37	3.1380	3.1380	-0.1670	27.41	1.43	-1.500			
0.8671	55493.33	3.1350	3.1350	-0.1654	27.42	1.44	-1.500			
0.8676	55525.22	3.1320	3.1321	-0.1640	27.42	1.44	-1.500			
0.8681	55556.60	3.1290	3.1291	-0.1621	27.42	1.44	-1.500			
0.8686	55587.32	3.1260	3.1260	-0.1604	27.43	1.45	-1.500			
0.8690	55617.92	3.1230	3.1230	-0.1591	27.43	1.45	-1.500			
0.8695	55648.25	3.1200	3.1200	-0.1577	27.44	1.46	-1.500			
0.8700	55678.24	3.1170	3.1169	-0.1563	27.44	1.46	-1.500			
0.8704	55708.34	3.1140	3.1140	-0.1556	27.45	1.47	-1.500			
0.8709	55738.02	3.1110	3.1110	-0.1542	27.45	1.47	-1.500			
0.8714	55767.53	3.1080	3.1080	-0.1531	27.46	1.48	-1.500			
0.8718	55796.82	3.1050	3.1050	-0.1526	27.46	1.48	-1.500			
0.8723	55825.99	3.1020	3.1020	-0.1513	27.47	1.49	-1.500			
0.8727	55854.93	3.0990	3.0990	-0.1505	27.47	1.49	-1.500			
0.8732	55883.74	3.0960	3.0961	-0.1496	27.48	1.50	-1.500			
0.8736	55912.52	3.0930	3.0930	-0.1484	27.48	1.50	-1.500			
0.8741	55940.80	3.0900	3.0900	-0.1477	27.49	1.51	-1.500			
0.8745	55969.11	3.0870	3.0870	-0.1467	27.49	1.51	-1.500			
0.8750	55997.19	3.0840	3.0840	-0.1457	27.49	1.51	-1.500			
0.8754	56024.94	3.0810	3.0809	-0.1449	27.50	1.52	-1.500			
0.8758	56052.93	3.0780	3.0780	-0.1438	27.50	1.52	-1.500			
0.8763	56080.33	3.0750	3.0750	-0.1428	27.51	1.53	-1.500			
0.8767	56107.64	3.0720	3.0720	-0.1417	27.51	1.53	-1.500			
0.8771	56134.77	3.0690	3.0691	-0.1413	27.52	1.54	-1.500			
0.8775	56161.60	3.0660	3.0659	-0.1401	27.52	1.54	-1.500			
0.8779	56188.53	3.0630	3.0630	-0.1396	27.53	1.55	-1.500			
0.8784	56215.26	3.0600	3.0601	-0.1389	27.53	1.55	-1.500			
0.8788	56241.90	3.0570	3.0570	-0.1378	27.54	1.56	-1.500			
0.8792	56268.55	3.0540	3.0539	-0.1370	27.54	1.56	-1.500			
0.8796	56294.46	3.0510	3.0510	-0.1359	27.55	1.57	-1.500			
0.8800	56320.47	3.0480	3.0481	-0.1351	27.55	1.57	-1.500			
0.8804	56346.18	3.0450	3.0450	-0.1341	27.56	1.58	-1.500			
0.8808	56371.85	3.0420	3.0419	-0.1335	27.56	1.58	-1.500			
0.8812	56397.38	3.0390	3.0390	-0.1330	27.57	1.59	-1.500			
0.8816	56422.95	3.0360	3.0362	-0.1322	27.57	1.59	-1.500			
0.8820	56448.41	3.0330	3.0330	-0.1316	27.58	1.60	-1.500			
0.8824	56473.74	3.0300	3.0301	-0.1309	27.58	1.60	-1.500			
0.8828	56498.57	3.0270	3.0270	-0.1297	27.59	1.61	-1.500			
0.8832	56523.34	3.0240	3.0240	-0.1291	27.59	1.61	-1.500			
0.8836	56548.12	3.0210	3.0210	-0.1285	27.60	1.62	-1.500			
0.8839	56572.67	3.0180	3.0180	-0.1277	27.60	1.62	-1.500			
0.8843	56597.30	3.0150	3.0150	-0.1264	27.61	1.63	-1.500			
0.8847	56621.69	3.0120	3.0120	-0.1255	27.62	1.64	-1.500			
0.8851	56645.84	3.0090	3.0091	-0.1239	27.62	1.64	-1.500			
0.8855	56669.43	3.0060	3.0060	-0.1218	27.63	1.65	-1.499			
0.8858	56692.60	3.0030	3.0031	-0.1177	27.63	1.65	-1.501			
