Ah_balance (normalized)	Ah_balance (mAh)	Voltage - fit (V)	Voltage -  interpolate (V)	dQ/dV (1/V)	Temperature (°C)	Temperature - diff (°C)	Current (C)	R_DC 0ms (mOhm)	R_DC 50ms (mOhm)	R_DC 50 ms PEC (mOhm)
0.3028	19381.17	3.9750	3.9750	0.8508	26.99	1.05	1.500			
0.3054	19544.95	3.9720	3.9720	0.8559	26.99	1.05	1.500			
0.3080	19710.52	3.9690	3.9690	0.8629	26.98	1.04	1.500			
0.3106	19877.01	3.9660	3.9660	0.8661	26.98	1.04	1.500			
0.3132	20043.94	3.9630	3.9630	0.8710	26.97	1.03	1.500			
0.3158	20210.79	3.9600	3.9601	0.8779	26.97	1.03	1.500			
0.3185	20381.15	3.9570	3.9569	0.8779	26.96	1.02	1.500			
0.3211	20549.08	3.9540	3.9540	0.8809	26.96	1.02	1.500			
0.3237	20718.76	3.9510	3.9510	0.8818	26.95	1.01	1.500			
0.3264	20887.53	3.9480	3.9481	0.8848	26.94	1.00	1.500			
0.3290	21057.16	3.9450	3.9449	0.8902	26.94	1.00	1.500			
0.3317	21227.42	3.9420	3.9421	0.8953	26.94	1.00	1.500			
0.3344	21399.32	3.9390	3.9389	0.9021	26.93	0.99	1.500			
0.3371	21575.71	3.9360	3.9360	0.9125	26.93	0.99	1.500			
0.3399	21752.29	3.9330	3.9330	0.9151	26.92	0.98	1.500			
0.3427	21930.09	3.9300	3.9300	0.9205	26.92	0.98	1.500			
0.3454	22106.13	3.9270	3.9270	0.9233	26.91	0.97	1.500			
0.3481	22281.30	3.9240	3.9241	0.9278	26.91	0.97	1.500			
0.3509	22460.34	3.9210	3.9209	0.9336	26.90	0.96	1.500			
0.3537	22639.41	3.9180	3.9180	0.9405	26.90	0.96	1.500			
0.3566	22821.64	3.9150	3.9150	0.9475	26.89	0.95	1.500			
0.3595	23004.88	3.9120	3.9119	0.9524	26.89	0.95	1.500			
0.3623	23189.28	3.9090	3.9090	0.9554	26.88	0.94	1.500			
0.3652	23372.03	3.9060	3.9061	0.9602	26.88	0.94	1.500			
0.3681	23556.24	3.9030	3.9030	0.9628	26.87	0.93	1.500			
0.3710	23741.54	3.9000	3.9000	0.9735	26.87	0.93	1.500			
0.3739	23927.48	3.8970	3.8970	0.9812	26.86	0.92	1.500			
0.3768	24117.07	3.8940	3.8940	0.9911	26.85	0.91	1.500			
0.3798	24308.26	3.8910	3.8911	1.0059	26.85	0.91	1.500			
0.3829	24503.21	3.8880	3.8880	1.0168	26.84	0.90	1.500			
0.3859	24699.92	3.8850	3.8850	1.0238	26.84	0.90	1.500			
0.3890	24897.78	3.8820	3.8820	1.0365	26.83	0.89	1.500			
0.3921	25097.57	3.8790	3.8791	1.0439	26.82	0.88	1.500			
0.3953	25298.96	3.8760	3.8760	1.0549	26.82	0.88	1.500			
0.3985	25502.69	3.8730	3.8730	1.0649	26.81	0.87	1.500			
0.4017	25706.37	3.8700	3.8700	1.0730	26.80	0.86	1.500			
0.4049	25913.95	3.8670	3.8671	1.0904	26.80	0.86	1.500			
0.4082	26126.08	3.8640	3.8640	1.1025	26.79	0.85	1.500			
0.4115	26336.56	3.8610	3.8610	1.1154	26.78	0.84	1.500			
0.4149	26552.91	3.8580	3.8580	1.1301	26.78	0.84	1.500			
0.4183	26770.72	3.8550	3.8550	1.1445	26.77	0.83	1.500			
0.4217	26991.21	3.8520	3.8520	1.1619	26.76	0.82	1.500			
0.4252	27215.33	3.8490	3.8491	1.1798	26.76	0.82	1.500			
0.4288	27442.46	3.8460	3.8460	1.2032	26.75	0.81	1.500			
0.4325	27677.82	3.8430	3.8429	1.2258	26.74	0.80	1.500			
0.4362	27914.69	3.8400	3.8400	1.2391	26.73	0.79	1.500			
0.4400	28157.16	3.8370	3.8370	1.2561	26.72	0.78	1.500			
0.4437	28399.25	3.8340	3.8341	1.2774	26.71	0.77	1.500			
0.4476	28645.01	3.8310	3.8310	1.2972	26.70	0.76	1.500			
0.4514	28891.61	3.8280	3.8280	1.3259	26.70	0.76	1.500			
0.4554	29148.46	3.8250	3.8250	1.3556	26.69	0.75	1.500			
0.4596	29413.51	3.8220	3.8220	1.3958	26.67	0.73	1.500			
0.4639	29687.98	3.8190	3.8191	1.4182	26.66	0.72	1.500			
0.4682	29964.65	3.8160	3.8160	1.4540	26.65	0.71	1.500			
0.4726	30243.46	3.8130	3.8130	1.4800	26.64	0.70	1.500			
0.4770	30528.47	3.8100	3.8100	1.5144	26.62	0.68	1.500			
0.4816	30820.21	3.8070	3.8071	1.5568	26.61	0.67	1.500			
0.4863	31124.99	3.8040	3.8039	1.5893	26.60	0.66	1.500			
0.4911	31432.99	3.8010	3.8010	1.6249	26.59	0.65	1.500			
0.4961	31748.66	3.7980	3.7981	1.6661	26.58	0.64	1.500			
0.5012	32074.99	3.7950	3.7949	1.7119	26.57	0.63	1.500			
0.5063	32404.37	3.7920	3.7920	1.7578	26.55	0.61	1.500			
0.5116	32744.86	3.7890	3.7890	1.8052	26.54	0.60	1.500			
0.5172	33099.54	3.7860	3.7860	1.8362	26.52	0.58	1.500			
0.5227	33455.14	3.7830	3.7831	1.8698	26.51	0.57	1.500			
0.5284	33815.63	3.7800	3.7799	1.9027	26.49	0.55	1.500			
0.5341	34184.39	3.7770	3.7770	1.9318	26.47	0.53	1.500			
0.5400	34557.94	3.7740	3.7740	1.9362	26.46	0.52	1.500			
0.5458	34931.66	3.7710	3.7711	1.9749	26.44	0.50	1.500			
0.5518	35313.16	3.7680	3.7679	2.0120	26.43	0.49	1.500			
0.5579	35702.75	3.7650	3.7651	2.0200	26.41	0.47	1.500	0.364	0.462	
0.5640	36096.90	3.7620	3.7621	2.0088	26.39	0.45	1.500			
0.5701	36488.52	3.7590	3.7590	2.0116	26.37	0.43	1.500			
0.5760	36862.56	3.7560	3.7560	1.9644	26.36	0.42	1.500			
0.5819	37239.64	3.7530	3.7530	1.9542	26.34	0.40	1.500			
0.5877	37614.81	3.7500	3.7500	1.9407	26.33	0.39	1.500			
0.5935	37986.03	3.7470	3.7470	1.9513	26.31	0.37	1.500			
0.5994	38358.57	3.7440	3.7440	1.9515	26.30	0.36	1.500			
0.6052	38732.82	3.7410	3.7411	1.9662	26.29	0.35	1.500			
0.6112	39117.97	3.7380	3.7380	1.9767	26.27	0.33	1.500			
0.6171	39496.50	3.7350	3.7350	1.9848	26.25	0.31	1.500			
0.6230	39873.10	3.7320	3.7321	2.0030	26.24	0.30	1.500			
0.6291	40259.50	3.7290	3.7288	2.0548	26.22	0.28	1.500			
0.6353	40657.53	3.7260	3.7260	2.0942	26.21	0.27	1.500			
0.6417	41066.52	3.7230	3.7230	2.1723	26.20	0.26	1.500			
0.6483	41488.84	3.7200	3.7200	2.2384	26.19	0.25	1.500			
0.6551	41925.52	3.7170	3.7171	2.3265	26.18	0.24	1.500			
0.6622	42380.61	3.7140	3.7140	2.3968	26.17	0.23	1.500			
0.6694	42843.85	3.7110	3.7110	2.4686	26.15	0.21	1.500			
0.6769	43323.11	3.7080	3.7079	2.5322	26.14	0.20	1.500			
0.6846	43815.56	3.7050	3.7051	2.5957	26.13	0.19	1.500			
0.6925	44322.14	3.7020	3.7020	2.6378	26.12	0.18	1.500			
0.7003	44819.03	3.6990	3.6990	2.5859	26.11	0.17	1.500			
0.7081	45320.09	3.6960	3.6960	2.4817	26.10	0.16	1.500			
0.7156	45798.00	3.6930	3.6931	2.3513	26.09	0.15	1.500			
0.7224	46233.05	3.6900	3.6900	2.1679	26.09	0.15	1.500			
0.7284	46617.71	3.6870	3.6868	1.9582	26.08	0.14	1.500			
0.7340	46974.29	3.6840	3.6841	1.8179	26.07	0.13	1.500			
0.7392	47310.70	3.6810	3.6810	1.6979	26.06	0.12	1.500			
0.7441	47619.49	3.6780	3.6780	1.5973	26.06	0.12	1.500			
0.7486	47911.35	3.6750	3.6751	1.5009	26.05	0.11	1.500			
0.7530	48191.27	3.6720	3.6720	1.4382	26.04	0.10	1.500			
0.7572	48459.87	3.6690	3.6690	1.3778	26.04	0.10	1.500			
0.7612	48716.95	3.6660	3.6660	1.3316	26.03	0.09	1.500			
0.7651	48964.57	3.6630	3.6630	1.2913	26.03	0.09	1.500			
0.7688	49205.86	3.6600	3.6601	1.2659	26.02	0.08	1.500			
0.7726	49444.47	3.6570	3.6570	1.2556	26.02	0.08	1.500			
0.7762	49679.72	3.6540	3.6540	1.2589	26.01	0.07	1.500			
0.7800	49921.17	3.6510	3.6510	1.2742	26.01	0.07	1.500			
0.7839	50168.93	3.6480	3.6479	1.2852	26.00	0.06	1.500			
0.7878	50417.75	3.6450	3.6450	1.2978	26.00	0.06	1.500			
0.7917	50671.01	3.6420	3.6420	1.2992	25.99	0.05	1.500			
0.7956	50920.02	3.6390	3.6390	1.3010	25.99	0.05	1.500			
0.7995	51170.09	3.6360	3.6360	1.2974	25.98	0.04	1.500			
0.8034	51418.33	3.6330	3.6329	1.2936	25.98	0.04	1.500			
0.8073	51665.51	3.6300	3.6301	1.2951	25.97	0.03	1.500			
0.8112	51916.08	3.6270	3.6270	1.2937	25.97	0.03	1.500			
0.8151	52165.20	3.6240	3.6240	1.2853	25.96	0.02	1.500			
0.8189	52411.51	3.6210	3.6210	1.2834	25.96	0.02	1.500			
0.8228	52656.56	3.6180	3.6181	1.2778	25.95	0.01	1.500			
0.8266	52902.71	3.6150	3.6150	1.2750	25.94	0.00	1.500			
0.8304	53146.92	3.6120	3.6121	1.2656	25.94	-0.00	1.500			
0.8342	53388.61	3.6090	3.6090	1.2550	25.94	-0.00	1.500			
0.8380	53631.75	3.6060	3.6060	1.2431	25.93	-0.01	1.500			
0.8417	53871.46	3.6030	3.6029	1.2226	25.93	-0.01	1.500			
0.8454	54102.59	3.6000	3.6000	1.2066	25.93	-0.01	1.500			
0.8489	54332.33	3.5970	3.5970	1.1902	25.92	-0.02	1.500			
0.8525	54557.92	3.5940	3.5939	1.1764	25.92	-0.02	1.500			
0.8560	54781.87	3.5910	3.5911	1.1668	25.92	-0.02	1.500			
0.8594	55004.26	3.5880	3.5880	1.1553	25.92	-0.02	1.500			
0.8629	55225.73	3.5850	3.5850	1.1474	25.93	-0.01	1.500			
0.8664	55450.10	3.5820	3.5819	1.1209	25.93	-0.01	1.500			
0.8698	55669.33	3.5790	3.5789	1.0771	25.93	-0.01	1.500			
0.8732	55881.62	3.5760	3.5759	1.0192	25.94	-0.00	1.500			
0.8762	56076.72	3.5730	3.5731	0.9155	25.94	-0.00	1.500			
0.8789	56248.38	3.5700	3.5700	0.8059	25.94	0.00	1.500			
0.8811	56389.88	3.5670	3.5671	0.6836	25.94	0.00	1.500			
0.8829	56503.15	3.5640	3.5640	0.5585	25.94	0.00	1.500			
0.8843	56594.75	3.5610	3.5609	0.4619	25.94	0.00	1.500			
0.8854	56668.32	3.5580	3.5579	0.3850	25.95	0.01	1.500			
0.8864	56729.22	3.5550	3.5549	0.3233	25.95	0.01	1.500			
0.8872	56783.90	3.5520	3.5521	0.2820	25.95	0.01	1.500			
0.8880	56831.49	3.5490	3.5489	0.2439	25.95	0.01	1.500			
0.8887	56874.12	3.5460	3.5459	0.2187	25.95	0.01	1.500			
0.8892	56911.99	3.5430	3.5431	0.1956	25.95	0.01	1.500			
0.8898	56946.82	3.5400	3.5400	0.1778	25.95	0.01	1.500			
0.8903	56979.48	3.5370	3.5371	0.1624	25.95	0.01	1.500			
0.8908	57008.69	3.5340	3.5340	0.1480	25.95	0.01	1.500			
0.8912	57035.03	3.5310	3.5310	0.1329	25.95	0.01	1.500			
0.8916	57059.64	3.5280	3.5279	0.1198	25.95	0.01	1.500			
0.8919	57081.36	3.5250	3.5252	0.1065	25.95	0.01	1.500			
0.8922	57100.75	3.5220	3.5219	0.0934	25.95	0.01	1.500			
0.8925	57117.55	3.5190	3.5191	0.0798	25.95	0.01	1.500			
0.8927	57131.52	3.5160	3.5163	0.0657	25.95	0.01	1.500			
0.8929	57142.82	3.5130	3.5136	0.0516	25.95	0.01	1.500			
0.8930	57151.36	3.5100	3.5107	0.0374	25.95	0.01	1.500			
