Ah_balance (normalized)	Ah_balance (mAh)	Voltage - fit (V)	Voltage -  interpolate (V)	dQ/dV (1/V)	Temperature (°C)	Temperature - diff (°C)	Current (C)	R_DC 0ms (mOhm)	R_DC 50ms (mOhm)	R_DC 50 ms PEC (mOhm)
0.2686	17193.21	3.9920	3.9919	0.8525	27.15	1.19	1.500			
0.2712	17356.16	3.9890	3.9890	0.8503	27.14	1.18	1.500			
0.2737	17519.93	3.9860	3.9860	0.8517	27.14	1.18	1.500			
0.2763	17683.76	3.9830	3.9830	0.8508	27.13	1.17	1.500			
0.2789	17846.80	3.9800	3.9800	0.8485	27.12	1.16	1.500			
0.2814	18010.66	3.9770	3.9770	0.8495	27.12	1.16	1.500			
0.2840	18173.01	3.9740	3.9740	0.8504	27.11	1.15	1.500			
0.2865	18336.86	3.9710	3.9710	0.8537	27.11	1.15	1.500			
0.2890	18499.09	3.9680	3.9680	0.8601	27.10	1.14	1.500			
0.2916	18664.87	3.9650	3.9650	0.8688	27.09	1.13	1.500			
0.2943	18832.73	3.9620	3.9620	0.8750	27.09	1.13	1.500			
0.2969	19001.45	3.9590	3.9591	0.8815	27.08	1.12	1.500			
0.2996	19173.27	3.9560	3.9560	0.8813	27.08	1.12	1.500			
0.3022	19342.24	3.9530	3.9530	0.8833	27.07	1.11	1.500			
0.3049	19511.46	3.9500	3.9501	0.8855	27.06	1.10	1.500			
0.3075	19680.81	3.9470	3.9469	0.8864	27.06	1.10	1.500			
0.3102	19850.66	3.9440	3.9440	0.8918	27.05	1.09	1.500			
0.3129	20022.72	3.9410	3.9410	0.8976	27.04	1.08	1.500			
0.3155	20194.69	3.9380	3.9380	0.9093	27.04	1.08	1.500			
0.3183	20372.14	3.9350	3.9350	0.9105	27.03	1.07	1.500			
0.3210	20546.17	3.9320	3.9320	0.9142	27.02	1.06	1.500			
0.3238	20722.69	3.9290	3.9291	0.9191	27.02	1.06	1.500			
0.3266	20900.09	3.9260	3.9259	0.9213	27.01	1.05	1.500			
0.3293	21075.98	3.9230	3.9230	0.9267	27.00	1.04	1.500			
0.3321	21253.98	3.9200	3.9200	0.9328	27.00	1.04	1.500			
0.3349	21432.21	3.9170	3.9170	0.9368	26.99	1.03	1.500			
0.3377	21614.82	3.9140	3.9140	0.9481	26.98	1.02	1.500			
0.3406	21796.27	3.9110	3.9110	0.9527	26.98	1.02	1.500			
0.3435	21981.08	3.9080	3.9078	0.9585	26.97	1.01	1.500			
0.3463	22165.60	3.9050	3.9050	0.9677	26.96	1.00	1.500			
0.3492	22351.06	3.9020	3.9020	0.9739	26.96	1.00	1.500			
0.3522	22539.26	3.8990	3.8990	0.9827	26.95	0.99	1.500			
0.3551	22727.44	3.8960	3.8960	0.9873	26.94	0.98	1.500			
0.3581	22919.59	3.8930	3.8930	0.9942	26.93	0.97	1.500			
0.3611	23110.53	3.8900	3.8900	1.0098	26.93	0.97	1.500			
0.3642	23306.68	3.8870	3.8870	1.0167	26.92	0.96	1.500			
0.3672	23501.84	3.8840	3.8840	1.0244	26.91	0.95	1.500			
0.3703	23699.89	3.8810	3.8811	1.0356	26.90	0.94	1.500			
0.3734	23899.18	3.8780	3.8780	1.0474	26.89	0.93	1.500			
0.3766	24101.91	3.8750	3.8749	1.0575	26.88	0.92	1.500			
0.3798	24305.74	3.8720	3.8720	1.0692	26.87	0.91	1.500			
0.3830	24511.15	3.8690	3.8690	1.0765	26.86	0.90	1.500			
0.3862	24719.85	3.8660	3.8661	1.0887	26.85	0.89	1.500			
0.3895	24928.76	3.8630	3.8630	1.0992	26.84	0.88	1.500			
0.3928	25139.80	3.8600	3.8600	1.1144	26.83	0.87	1.500			
0.3962	25354.13	3.8570	3.8570	1.1258	26.82	0.86	1.500			
0.3996	25572.56	3.8540	3.8540	1.1414	26.81	0.85	1.500			
0.4030	25793.49	3.8510	3.8510	1.1576	26.80	0.84	1.500			
0.4065	26018.12	3.8480	3.8481	1.1741	26.79	0.83	1.500			
0.4101	26245.12	3.8450	3.8450	1.1887	26.78	0.82	1.500			
0.4136	26472.29	3.8420	3.8420	1.2041	26.77	0.81	1.500			
0.4173	26706.42	3.8390	3.8390	1.2193	26.76	0.80	1.500			
0.4210	26942.40	3.8360	3.8360	1.2390	26.75	0.79	1.500			
0.4247	27181.95	3.8330	3.8330	1.2535	26.74	0.78	1.500			
0.4285	27424.62	3.8300	3.8300	1.2683	26.73	0.77	1.500			
0.4323	27665.96	3.8270	3.8271	1.2960	26.72	0.76	1.500			
0.4362	27914.64	3.8240	3.8240	1.3209	26.71	0.75	1.500			
0.4402	28172.43	3.8210	3.8210	1.3455	26.70	0.74	1.500			
0.4443	28435.70	3.8180	3.8179	1.3728	26.69	0.73	1.500			
0.4485	28701.55	3.8150	3.8152	1.3914	26.68	0.72	1.500			
0.4527	28975.01	3.8120	3.8120	1.4083	26.66	0.70	1.500			
0.4570	29245.99	3.8090	3.8089	1.4228	26.65	0.69	1.500			
0.4612	29516.26	3.8060	3.8060	1.4433	26.64	0.68	1.500			
0.4655	29792.36	3.8030	3.8030	1.4783	26.63	0.67	1.500			
0.4700	30081.04	3.8000	3.8000	1.5139	26.61	0.65	1.500			
0.4746	30376.96	3.7970	3.7970	1.5413	26.60	0.64	1.500			
0.4793	30677.00	3.7940	3.7940	1.5727	26.58	0.62	1.500			
0.4841	30979.79	3.7910	3.7910	1.5982	26.57	0.61	1.500			
0.4889	31287.17	3.7880	3.7880	1.6173	26.55	0.59	1.500			
0.4938	31600.80	3.7850	3.7850	1.6419	26.54	0.58	1.500	0.344	0.481	
0.4988	31920.60	3.7820	3.7821	1.6586	26.52	0.56	1.500			
0.5038	32245.42	3.7790	3.7790	1.6739	26.51	0.55	1.500			
0.5088	32564.47	3.7760	3.7760	1.6660	26.50	0.54	1.500			
0.5138	32881.00	3.7730	3.7730	1.6818	26.48	0.52	1.500			
0.5188	33206.20	3.7700	3.7700	1.6939	26.47	0.51	1.500			
0.5239	33531.95	3.7670	3.7670	1.7074	26.45	0.49	1.500			
0.5291	33862.49	3.7640	3.7641	1.7091	26.44	0.48	1.500			
0.5342	34191.89	3.7610	3.7610	1.7089	26.43	0.47	1.500			
0.5393	34515.20	3.7580	3.7580	1.7186	26.41	0.45	1.500			
0.5445	34848.61	3.7550	3.7549	1.7304	26.40	0.44	1.500			
0.5497	35180.40	3.7520	3.7521	1.7533	26.38	0.42	1.500			
0.5550	35522.07	3.7490	3.7490	1.7758	26.37	0.41	1.500			
0.5603	35860.74	3.7460	3.7460	1.8046	26.36	0.40	1.500			
0.5658	36211.24	3.7430	3.7430	1.8448	26.35	0.39	1.500			
0.5714	36570.50	3.7400	3.7400	1.8851	26.33	0.37	1.500			
0.5772	36941.15	3.7370	3.7370	1.9174	26.32	0.36	1.500			
0.5830	37311.31	3.7340	3.7340	1.9488	26.30	0.34	1.500			
0.5888	37685.40	3.7310	3.7311	2.0087	26.29	0.33	1.500			
0.5949	38076.21	3.7280	3.7279	2.0925	26.28	0.32	1.500			
0.6014	38488.13	3.7250	3.7250	2.1316	26.26	0.30	1.500			
0.6080	38909.38	3.7220	3.7220	2.2082	26.24	0.28	1.500			
0.6146	39331.90	3.7190	3.7190	2.2147	26.23	0.27	1.500			
0.6212	39757.19	3.7160	3.7160	2.2414	26.21	0.25	1.500			
0.6279	40188.64	3.7130	3.7130	2.2924	26.20	0.24	1.500			
0.6349	40632.40	3.7100	3.7100	2.1990	26.19	0.23	1.500			
0.6414	41050.32	3.7070	3.7070	2.1265	26.17	0.21	1.500			
0.6477	41451.43	3.7040	3.7040	2.0093	26.16	0.20	1.500			
0.6535	41823.55	3.7010	3.7011	1.8751	26.15	0.19	1.500			
0.6590	42173.89	3.6980	3.6980	1.7781	26.14	0.18	1.500			
0.6639	42491.53	3.6950	3.6951	1.6503	26.13	0.17	1.500			
0.6688	42801.31	3.6920	3.6920	1.5824	26.12	0.16	1.500			
0.6734	43096.58	3.6890	3.6890	1.5068	26.11	0.15	1.500			
0.6778	43379.08	3.6860	3.6860	1.4437	26.10	0.14	1.500			
0.6820	43649.29	3.6830	3.6831	1.3917	26.10	0.14	1.500			
0.6860	43906.73	3.6800	3.6800	1.3518	26.09	0.13	1.500			
0.6900	44159.34	3.6770	3.6770	1.3187	26.09	0.13	1.500			
0.6938	44403.93	3.6740	3.6739	1.2942	26.08	0.12	1.500			
0.6977	44651.77	3.6710	3.6710	1.2945	26.07	0.11	1.500			
0.7016	44902.15	3.6680	3.6680	1.2866	26.06	0.10	1.500			
0.7055	45149.70	3.6650	3.6649	1.2744	26.05	0.09	1.500			
0.7093	45392.21	3.6620	3.6621	1.2668	26.04	0.08	1.500			
0.7131	45635.66	3.6590	3.6589	1.2592	26.03	0.07	1.500			
0.7168	45875.37	3.6560	3.6560	1.2565	26.02	0.06	1.500			
0.7206	46115.34	3.6530	3.6530	1.2529	26.01	0.05	1.500			
0.7243	46354.59	3.6500	3.6500	1.2463	26.01	0.05	1.500			
0.7281	46596.29	3.6470	3.6470	1.2435	26.00	0.04	1.500			
0.7318	46835.01	3.6440	3.6440	1.2272	25.99	0.03	1.500			
0.7355	47069.62	3.6410	3.6410	1.2225	25.98	0.02	1.500			
0.7391	47303.60	3.6380	3.6381	1.2134	25.97	0.01	1.500			
0.7427	47534.15	3.6350	3.6349	1.2015	25.96	0.00	1.500			
0.7463	47763.13	3.6320	3.6320	1.1938	25.96	-0.00	1.500			
0.7499	47992.64	3.6290	3.6290	1.1876	25.95	-0.01	1.500			
0.7535	48222.33	3.6260	3.6260	1.1770	25.95	-0.01	1.500			
0.7570	48448.43	3.6230	3.6230	1.1593	25.95	-0.01	1.500			
0.7604	48667.03	3.6200	3.6200	1.1403	25.95	-0.01	1.500			
0.7638	48886.05	3.6170	3.6170	1.1238	25.94	-0.02	1.500			
0.7672	49099.76	3.6140	3.6139	1.1023	25.94	-0.02	1.500			
0.7705	49309.83	3.6110	3.6110	1.0762	25.94	-0.02	1.500			
0.7737	49515.42	3.6080	3.6080	1.0497	25.94	-0.02	1.500			
0.7768	49714.68	3.6050	3.6050	1.0228	25.95	-0.01	1.500			
0.7798	49908.91	3.6020	3.6020	0.9941	25.95	-0.01	1.500			
0.7828	50096.64	3.5990	3.5990	0.9586	25.95	-0.01	1.500			
0.7856	50280.54	3.5960	3.5959	0.9127	25.95	-0.01	1.500			
0.7883	50453.70	3.5930	3.5930	0.8610	25.96	-0.00	1.500			
0.7909	50620.12	3.5900	3.5900	0.7978	25.96	-0.00	1.500			
0.7932	50767.88	3.5870	3.5870	0.7186	25.96	-0.00	1.500			
0.7953	50899.35	3.5840	3.5840	0.6357	25.96	0.00	1.500			
0.7971	51012.87	3.5810	3.5811	0.5502	25.96	0.00	1.500			
0.7985	51106.84	3.5780	3.5780	0.4734	25.96	0.00	1.500			
0.7998	51187.27	3.5750	3.5750	0.4026	25.97	0.01	1.500			
0.8008	51253.71	3.5720	3.5720	0.3424	25.97	0.01	1.500			
0.8018	51312.77	3.5690	3.5689	0.3002	25.97	0.01	1.500			
0.8026	51364.12	3.5660	3.5660	0.2639	25.97	0.01	1.500			
0.8033	51410.42	3.5630	3.5630	0.2362	25.97	0.01	1.500			
0.8039	51452.55	3.5600	3.5600	0.2111	25.97	0.01	1.500			
0.8045	51489.55	3.5570	3.5569	0.1911	25.97	0.01	1.500			
0.8051	51523.28	3.5540	3.5541	0.1725	25.97	0.01	1.500			
0.8055	51554.94	3.5510	3.5510	0.1578	25.97	0.01	1.500			
0.8060	51583.73	3.5480	3.5480	0.1438	25.97	0.01	1.500			
0.8064	51609.97	3.5450	3.5450	0.1297	25.97	0.01	1.500			
0.8068	51633.44	3.5420	3.5420	0.1153	25.97	0.01	1.500			
0.8071	51654.36	3.5390	3.5390	0.1017	25.97	0.01	1.500			
0.8074	51672.54	3.5360	3.5361	0.0876	25.97	0.01	1.500			
0.8076	51687.93	3.5330	3.5331	0.0735	25.97	0.01	1.500			
0.8078	51700.69	3.5300	3.5304	0.0595	25.97	0.01	1.500			
0.8080	51711.06	3.5270	3.5275	0.0444	25.97	0.01	1.500			
0.8081	51718.17	3.5240	3.5248	0.0295	25.97	0.01	1.500			
