Ah_balance (normalized)	Ah_balance (mAh)	Voltage - fit (V)	Voltage -  interpolate (V)	dQ/dV (1/V)	Temperature (°C)	Temperature - diff (°C)	Current (C)	R_DC 0ms (mOhm)	R_DC 50ms (mOhm)	R_DC 50 ms PEC (mOhm)
0.2735	17503.06	3.9860	3.9860	0.8564	27.05	1.13	1.500			
0.2760	17665.19	3.9830	3.9830	0.8499	27.04	1.12	1.500			
0.2786	17829.18	3.9800	3.9800	0.8572	27.04	1.12	1.500			
0.2812	17995.35	3.9770	3.9769	0.8590	27.03	1.11	1.500			
0.2838	18160.33	3.9740	3.9741	0.8616	27.03	1.11	1.500			
0.2864	18327.10	3.9710	3.9711	0.8636	27.02	1.10	1.500			
0.2889	18492.67	3.9680	3.9680	0.8682	27.01	1.09	1.500			
0.2915	18659.10	3.9650	3.9650	0.8688	27.01	1.09	1.500			
0.2941	18825.50	3.9620	3.9620	0.8718	27.00	1.08	1.500			
0.2968	18993.67	3.9590	3.9590	0.8732	27.00	1.08	1.500			
0.2994	19163.44	3.9560	3.9560	0.8740	26.99	1.07	1.500			
0.3020	19329.76	3.9530	3.9531	0.8776	26.98	1.06	1.500			
0.3047	19498.39	3.9500	3.9500	0.8805	26.98	1.06	1.500			
0.3073	19666.38	3.9470	3.9468	0.8843	26.97	1.05	1.500			
0.3099	19836.54	3.9440	3.9442	0.8902	26.97	1.05	1.500			
0.3126	20007.77	3.9410	3.9410	0.8948	26.96	1.04	1.500			
0.3153	20182.07	3.9380	3.9379	0.9032	26.96	1.04	1.500			
0.3180	20353.96	3.9350	3.9351	0.9056	26.95	1.03	1.500			
0.3208	20528.28	3.9320	3.9320	0.9127	26.95	1.03	1.500			
0.3235	20706.70	3.9290	3.9290	0.9177	26.94	1.02	1.500			
0.3263	20883.52	3.9260	3.9260	0.9202	26.94	1.02	1.500			
0.3291	21060.92	3.9230	3.9231	0.9218	26.94	1.02	1.500			
0.3318	21237.51	3.9200	3.9200	0.9250	26.93	1.01	1.500			
0.3346	21413.75	3.9170	3.9170	0.9291	26.92	1.00	1.500			
0.3374	21591.64	3.9140	3.9139	0.9372	26.92	1.00	1.500			
0.3402	21772.19	3.9110	3.9110	0.9443	26.91	0.99	1.500			
0.3430	21954.51	3.9080	3.9080	0.9554	26.90	0.98	1.500			
0.3459	22140.06	3.9050	3.9050	0.9660	26.89	0.97	1.500			
0.3489	22327.34	3.9020	3.9020	0.9728	26.88	0.96	1.500			
0.3518	22514.18	3.8990	3.8989	0.9761	26.88	0.96	1.500			
0.3547	22701.70	3.8960	3.8961	0.9843	26.87	0.95	1.500			
0.3577	22891.46	3.8930	3.8930	0.9873	26.86	0.94	1.500			
0.3606	23081.53	3.8900	3.8900	0.9944	26.85	0.93	1.500			
0.3636	23271.36	3.8870	3.8870	1.0005	26.85	0.93	1.500			
0.3666	23463.62	3.8840	3.8840	1.0130	26.84	0.92	1.500			
0.3697	23660.18	3.8810	3.8810	1.0256	26.84	0.92	1.500			
0.3728	23857.98	3.8780	3.8780	1.0382	26.83	0.91	1.500			
0.3759	24058.56	3.8750	3.8750	1.0494	26.82	0.90	1.500			
0.3791	24263.35	3.8720	3.8720	1.0619	26.82	0.90	1.500			
0.3823	24467.83	3.8690	3.8689	1.0694	26.81	0.89	1.500			
0.3855	24672.98	3.8660	3.8660	1.0813	26.80	0.88	1.500			
0.3888	24880.67	3.8630	3.8630	1.0888	26.79	0.87	1.500			
0.3920	25091.13	3.8600	3.8599	1.1053	26.78	0.86	1.500			
0.3954	25304.72	3.8570	3.8570	1.1173	26.77	0.85	1.500			
0.3988	25520.37	3.8540	3.8540	1.1357	26.76	0.84	1.500			
0.4022	25740.00	3.8510	3.8511	1.1518	26.75	0.83	1.500			
0.4057	25962.65	3.8480	3.8479	1.1697	26.74	0.82	1.500			
0.4092	26188.24	3.8450	3.8450	1.1877	26.74	0.82	1.500			
0.4128	26418.23	3.8420	3.8420	1.2083	26.73	0.81	1.500			
0.4164	26651.16	3.8390	3.8390	1.2256	26.72	0.80	1.500			
0.4202	26890.25	3.8360	3.8360	1.2450	26.71	0.79	1.500			
0.4239	27128.92	3.8330	3.8331	1.2671	26.70	0.78	1.500			
0.4277	27374.09	3.8300	3.8300	1.2925	26.69	0.77	1.500			
0.4316	27624.78	3.8270	3.8269	1.3140	26.68	0.76	1.500			
0.4356	27878.87	3.8240	3.8240	1.3416	26.67	0.75	1.500			
0.4397	28139.55	3.8210	3.8211	1.3678	26.66	0.74	1.500			
0.4439	28406.49	3.8180	3.8179	1.3970	26.64	0.72	1.500			
0.4481	28677.67	3.8150	3.8150	1.4204	26.63	0.71	1.500			
0.4523	28948.96	3.8120	3.8120	1.4421	26.62	0.70	1.500			
0.4567	29228.54	3.8090	3.8090	1.4746	26.60	0.68	1.500			
0.4612	29515.57	3.8060	3.8060	1.5025	26.59	0.67	1.500			
0.4657	29804.77	3.8030	3.8029	1.5362	26.57	0.65	1.500			
0.4703	30102.30	3.8000	3.8001	1.5770	26.56	0.64	1.500			
0.4752	30410.32	3.7970	3.7969	1.6097	26.54	0.62	1.500			
0.4800	30722.56	3.7940	3.7940	1.6442	26.53	0.61	1.500			
0.4850	31040.33	3.7910	3.7911	1.6768	26.51	0.59	1.500			
0.4901	31367.31	3.7880	3.7879	1.7071	26.50	0.58	1.500			
0.4953	31699.03	3.7850	3.7850	1.7289	26.48	0.56	1.500			
0.5005	32033.69	3.7820	3.7820	1.7477	26.47	0.55	1.500			
0.5058	32370.06	3.7790	3.7790	1.7780	26.45	0.53	1.500			
0.5111	32709.08	3.7760	3.7760	1.8042	26.44	0.52	1.500			
0.5165	33058.55	3.7730	3.7730	1.8253	26.42	0.50	1.500	0.355	0.459	
0.5221	33412.05	3.7700	3.7702	1.8569	26.41	0.49	1.500			
0.5278	33778.08	3.7670	3.7671	1.8740	26.39	0.47	1.500			
0.5335	34142.46	3.7640	3.7639	1.8622	26.38	0.46	1.500			
0.5390	34497.27	3.7610	3.7611	1.8429	26.36	0.44	1.500			
0.5446	34851.95	3.7580	3.7580	1.8317	26.34	0.42	1.500			
0.5500	35201.49	3.7550	3.7549	1.8205	26.32	0.40	1.500			
0.5554	35546.43	3.7520	3.7521	1.8177	26.31	0.39	1.500			
0.5609	35896.22	3.7490	3.7490	1.8282	26.29	0.37	1.500			
0.5664	36250.12	3.7460	3.7460	1.8396	26.28	0.36	1.500			
0.5719	36600.02	3.7430	3.7430	1.8696	26.26	0.34	1.500			
0.5776	36964.20	3.7400	3.7400	1.9028	26.25	0.33	1.500			
0.5833	37330.18	3.7370	3.7370	1.9363	26.24	0.32	1.500			
0.5891	37705.37	3.7340	3.7341	1.9627	26.22	0.30	1.500			
0.5951	38084.62	3.7310	3.7310	1.9983	26.21	0.29	1.500			
0.6011	38469.78	3.7280	3.7280	2.0436	26.19	0.27	1.500			
0.6073	38865.33	3.7250	3.7249	2.1030	26.18	0.26	1.500			
0.6137	39277.97	3.7220	3.7220	2.1471	26.17	0.25	1.500			
0.6203	39697.20	3.7190	3.7190	2.2199	26.16	0.24	1.500			
0.6269	40122.01	3.7160	3.7160	2.2808	26.15	0.23	1.500			
0.6339	40568.24	3.7130	3.7130	2.3695	26.14	0.22	1.500			
0.6412	41036.52	3.7100	3.7100	2.4227	26.12	0.20	1.500			
0.6485	41502.92	3.7070	3.7070	2.4370	26.10	0.18	1.500			
0.6558	41971.76	3.7040	3.7039	2.4568	26.08	0.16	1.500			
0.6633	42451.91	3.7010	3.7010	2.4268	26.08	0.16	1.500			
0.6706	42921.05	3.6980	3.6980	2.3544	26.07	0.15	1.500			
0.6776	43366.56	3.6950	3.6950	2.2179	26.06	0.14	1.500			
0.6841	43780.35	3.6920	3.6920	2.0687	26.06	0.14	1.500			
0.6900	44162.06	3.6890	3.6890	1.9136	26.05	0.13	1.500			
0.6955	44514.74	3.6860	3.6860	1.7828	26.04	0.12	1.500			
0.7006	44837.84	3.6830	3.6831	1.6507	26.03	0.11	1.500			
0.7053	45142.30	3.6800	3.6801	1.5540	26.02	0.10	1.500			
0.7098	45426.86	3.6770	3.6770	1.4683	26.02	0.10	1.500			
0.7140	45696.69	3.6740	3.6740	1.3943	26.01	0.09	1.500			
0.7181	45955.24	3.6710	3.6710	1.3381	26.00	0.08	1.500			
0.7220	46207.29	3.6680	3.6680	1.3019	26.00	0.08	1.500			
0.7257	46446.69	3.6650	3.6650	1.2729	25.99	0.07	1.500			
0.7295	46687.07	3.6620	3.6620	1.2591	25.98	0.06	1.500			
0.7332	46923.55	3.6590	3.6589	1.2505	25.98	0.06	1.500			
0.7369	47163.93	3.6560	3.6560	1.2524	25.97	0.05	1.500			
0.7407	47403.59	3.6530	3.6530	1.2607	25.97	0.05	1.500			
0.7445	47648.00	3.6500	3.6499	1.2629	25.96	0.04	1.500			
0.7483	47888.68	3.6470	3.6470	1.2737	25.95	0.03	1.500			
0.7521	48134.64	3.6440	3.6440	1.2825	25.95	0.03	1.500			
0.7560	48382.36	3.6410	3.6410	1.2918	25.94	0.02	1.500			
0.7599	48632.73	3.6380	3.6380	1.2960	25.94	0.02	1.500			
0.7638	48883.46	3.6350	3.6350	1.2977	25.93	0.01	1.500			
0.7677	49134.90	3.6320	3.6320	1.2853	25.92	0.00	1.500			
0.7716	49383.95	3.6290	3.6290	1.2804	25.92	-0.00	1.500			
0.7754	49624.23	3.6260	3.6260	1.2736	25.91	-0.01	1.500			
0.7792	49868.21	3.6230	3.6231	1.2738	25.90	-0.02	1.500			
0.7830	50110.73	3.6200	3.6198	1.2714	25.90	-0.02	1.500			
0.7868	50354.76	3.6170	3.6171	1.2759	25.90	-0.02	1.500			
0.7906	50601.51	3.6140	3.6140	1.2772	25.90	-0.02	1.500			
0.7945	50849.57	3.6110	3.6110	1.2702	25.90	-0.02	1.500			
0.7983	51093.92	3.6080	3.6080	1.2577	25.90	-0.02	1.500			
0.8021	51333.49	3.6050	3.6050	1.2469	25.90	-0.02	1.500			
0.8058	51573.00	3.6020	3.6020	1.2328	25.90	-0.02	1.500			
0.8095	51808.65	3.5990	3.5990	1.2156	25.90	-0.02	1.500			
0.8131	52040.28	3.5960	3.5960	1.1981	25.90	-0.02	1.500			
0.8167	52269.49	3.5930	3.5931	1.1824	25.91	-0.01	1.500			
0.8203	52497.46	3.5900	3.5899	1.1627	25.91	-0.01	1.500			
0.8237	52718.01	3.5870	3.5870	1.1358	25.91	-0.01	1.500			
0.8271	52936.15	3.5840	3.5840	1.1004	25.92	-0.00	1.500			
0.8305	53149.91	3.5810	3.5809	1.0565	25.92	-0.00	1.500			
0.8336	53352.72	3.5780	3.5780	0.9757	25.92	0.00	1.500			
0.8365	53539.00	3.5750	3.5751	0.8879	25.92	0.00	1.500			
0.8391	53701.86	3.5720	3.5721	0.7766	25.93	0.01	1.500			
0.8413	53842.29	3.5690	3.5690	0.6620	25.93	0.01	1.500			
0.8430	53952.24	3.5660	3.5660	0.5508	25.93	0.01	1.500			
0.8444	54043.30	3.5630	3.5630	0.4540	25.93	0.01	1.500			
0.8456	54116.10	3.5600	3.5600	0.3765	25.93	0.01	1.500			
0.8465	54178.22	3.5570	3.5569	0.3230	25.93	0.01	1.500			
0.8474	54230.87	3.5540	3.5539	0.2778	25.93	0.01	1.500			
0.8481	54278.57	3.5510	3.5510	0.2463	25.93	0.01	1.500			
0.8488	54321.85	3.5480	3.5479	0.2192	25.93	0.01	1.500			
0.8494	54360.58	3.5450	3.5450	0.1989	25.93	0.01	1.500			
0.8499	54395.48	3.5420	3.5420	0.1801	25.93	0.01	1.500			
0.8504	54428.39	3.5390	3.5390	0.1643	25.93	0.01	1.500			
0.8509	54458.35	3.5360	3.5360	0.1501	25.93	0.01	1.500			
0.8513	54485.38	3.5330	3.5330	0.1355	25.94	0.02	1.500			
0.8517	54510.22	3.5300	3.5301	0.1212	25.94	0.02	1.500			
0.8521	54532.29	3.5270	3.5270	0.1075	25.94	0.02	1.500			
0.8524	54551.54	3.5240	3.5240	0.0930	25.94	0.02	1.500			
0.8526	54568.10	3.5210	3.5212	0.0787	25.94	0.02	1.500			
0.8528	54582.02	3.5180	3.5182	0.0640	25.94	0.02	1.500			
0.8530	54592.86	3.5150	3.5156	0.0490	25.94	0.02	1.500			
0.8531	54600.83	3.5120	3.5130	0.0340	25.94	0.02	1.500			
