Ah_balance (normalized)	Ah_balance (mAh)	Voltage - fit (V)	Voltage -  interpolate (V)	dQ/dV (1/V)	Temperature (°C)	Temperature - diff (°C)	Current (C)	R_DC 0ms (mOhm)	R_DC 50ms (mOhm)	R_DC 50 ms PEC (mOhm)
0.2022	12939.98	3.9140	3.9138	-0.1044	25.84	0.00	-1.500			
0.2025	12962.76	3.9110	3.9108	-0.1353	25.84	0.00	-1.500			
0.2030	12992.04	3.9080	3.9080	-0.1684	25.84	0.00	-1.500			
0.2036	13028.53	3.9050	3.9049	-0.1983	25.84	0.00	-1.500			
0.2042	13069.54	3.9020	3.9020	-0.2262	25.84	0.00	-1.500			
0.2049	13115.76	3.8990	3.8992	-0.2542	25.84	0.00	-1.500			
0.2057	13167.64	3.8960	3.8961	-0.2835	25.84	-0.00	-1.500			
0.2066	13224.68	3.8930	3.8929	-0.3108	25.84	-0.00	-1.500			
0.2076	13286.51	3.8900	3.8900	-0.3404	25.84	-0.00	-1.500			
0.2087	13354.38	3.8870	3.8870	-0.3689	25.84	-0.00	-1.500			
0.2098	13429.12	3.8840	3.8840	-0.3973	25.84	-0.00	-1.500			
0.2111	13507.96	3.8810	3.8810	-0.4244	25.84	-0.00	-1.500			
0.2124	13592.37	3.8780	3.8781	-0.4507	25.83	-0.01	-1.500			
0.2138	13681.36	3.8750	3.8750	-0.4758	25.83	-0.01	-1.500			
0.2152	13775.18	3.8720	3.8720	-0.5015	25.83	-0.01	-1.500			
0.2168	13873.66	3.8690	3.8690	-0.5250	25.83	-0.01	-1.500			
0.2184	13978.18	3.8660	3.8660	-0.5469	25.83	-0.01	-1.500			
0.2201	14085.62	3.8630	3.8630	-0.5673	25.83	-0.01	-1.500			
0.2218	14196.33	3.8600	3.8601	-0.5876	25.83	-0.01	-1.500			
0.2236	14311.19	3.8570	3.8570	-0.6072	25.83	-0.01	-1.500			
0.2255	14430.53	3.8540	3.8539	-0.6213	25.82	-0.02	-1.500			
0.2274	14551.48	3.8510	3.8511	-0.6351	25.82	-0.02	-1.500			
0.2293	14675.27	3.8480	3.8480	-0.6506	25.82	-0.02	-1.500			
0.2313	14801.91	3.8450	3.8450	-0.6631	25.82	-0.02	-1.500			
0.2333	14929.83	3.8420	3.8420	-0.6708	25.82	-0.02	-1.500			
0.2353	15058.94	3.8390	3.8390	-0.6810	25.82	-0.02	-1.500			
0.2374	15192.05	3.8360	3.8361	-0.6902	25.83	-0.01	-1.500			
0.2395	15326.66	3.8330	3.8330	-0.6958	25.83	-0.01	-1.500			
0.2416	15460.71	3.8300	3.8300	-0.6996	25.83	-0.01	-1.500			
0.2437	15594.46	3.8270	3.8271	-0.7047	25.83	-0.01	-1.500			
0.2458	15730.37	3.8240	3.8240	-0.7090	25.83	-0.01	-1.500			
0.2479	15866.95	3.8210	3.8210	-0.7132	25.83	-0.01	-1.500			
0.2501	16003.57	3.8180	3.8180	-0.7168	25.84	-0.00	-1.500			
0.2522	16143.43	3.8150	3.8150	-0.7201	25.84	-0.00	-1.500			
0.2544	16281.95	3.8120	3.8119	-0.7224	25.84	-0.00	-1.500			
0.2566	16420.44	3.8090	3.8090	-0.7239	25.84	0.00	-1.500			
0.2587	16559.98	3.8060	3.8061	-0.7221	25.84	0.00	-1.500			
0.2609	16698.49	3.8030	3.8030	-0.7251	25.84	0.00	-1.500			
0.2631	16837.14	3.8000	3.8000	-0.7265	25.85	0.01	-1.500			
0.2653	16976.85	3.7970	3.7970	-0.7307	25.85	0.01	-1.500			
0.2675	17118.84	3.7940	3.7939	-0.7328	25.85	0.01	-1.500			
0.2697	17258.38	3.7910	3.7911	-0.7335	25.85	0.01	-1.500			
0.2719	17400.64	3.7880	3.7879	-0.7341	25.85	0.01	-1.500			
0.2741	17542.06	3.7850	3.7850	-0.7353	25.85	0.01	-1.500			
0.2763	17681.94	3.7820	3.7819	-0.7311	25.86	0.02	-1.500			
0.2785	17822.93	3.7790	3.7790	-0.7287	25.86	0.02	-1.500			
0.2807	17963.25	3.7760	3.7760	-0.7290	25.86	0.02	-1.500			
0.2829	18102.66	3.7730	3.7731	-0.7315	25.86	0.02	-1.500			
0.2850	18242.36	3.7700	3.7700	-0.7287	25.87	0.03	-1.500			
0.2872	18383.57	3.7670	3.7669	-0.7297	25.87	0.03	-1.500			
0.2894	18523.02	3.7640	3.7640	-0.7300	25.87	0.03	-1.500			
0.2916	18663.48	3.7610	3.7611	-0.7317	25.88	0.04	-1.500			
0.2938	18804.52	3.7580	3.7580	-0.7366	25.88	0.04	-1.500			
0.2960	18945.40	3.7550	3.7550	-0.7337	25.88	0.04	-1.500			
0.2982	19085.80	3.7520	3.7519	-0.7334	25.89	0.05	-1.500			
0.3004	19227.62	3.7490	3.7491	-0.7383	25.89	0.05	-1.500			
0.3027	19370.71	3.7460	3.7459	-0.7389	25.90	0.06	-1.500			
0.3049	19511.65	3.7430	3.7430	-0.7392	25.90	0.06	-1.500			
0.3071	19654.11	3.7400	3.7400	-0.7404	25.90	0.06	-1.500			
0.3093	19795.50	3.7370	3.7370	-0.7405	25.91	0.07	-1.500			
0.3115	19938.47	3.7340	3.7339	-0.7450	25.91	0.07	-1.500			
0.3138	20081.28	3.7310	3.7311	-0.7437	25.92	0.08	-1.500			
0.3160	20224.82	3.7280	3.7279	-0.7451	25.92	0.08	-1.500			
0.3182	20367.77	3.7250	3.7250	-0.7486	25.93	0.09	-1.500			
0.3205	20510.10	3.7220	3.7220	-0.7498	25.94	0.10	-1.500			
0.3227	20654.59	3.7190	3.7190	-0.7568	25.94	0.10	-1.500			
0.3250	20800.49	3.7160	3.7159	-0.7662	25.95	0.11	-1.500			
0.3273	20947.96	3.7130	3.7130	-0.7713	25.95	0.11	-1.500			
0.3296	21097.47	3.7100	3.7099	-0.7789	25.96	0.12	-1.500			
0.3320	21247.77	3.7070	3.7071	-0.7878	25.96	0.12	-1.500			
0.3344	21399.59	3.7040	3.7040	-0.7963	25.96	0.12	-1.500			
0.3368	21553.19	3.7010	3.7009	-0.8018	25.97	0.13	-1.500			
0.3392	21707.30	3.6980	3.6980	-0.8076	25.97	0.13	-1.500			
0.3416	21862.98	3.6950	3.6951	-0.8157	25.97	0.13	-1.500			
0.3441	22022.11	3.6920	3.6920	-0.8263	25.98	0.14	-1.500			
0.3466	22180.44	3.6890	3.6890	-0.8349	25.98	0.14	-1.500			
0.3491	22339.21	3.6860	3.6860	-0.8466	25.98	0.14	-1.500			
0.3516	22502.48	3.6830	3.6831	-0.8655	25.99	0.15	-1.500			
0.3542	22670.60	3.6800	3.6800	-0.8845	25.99	0.15	-1.500			
0.3569	22842.43	3.6770	3.6770	-0.9007	25.99	0.15	-1.500			
0.3596	23016.97	3.6740	3.6740	-0.9192	25.99	0.15	-1.500			
0.3624	23196.40	3.6710	3.6710	-0.9322	26.00	0.16	-1.500			
0.3653	23377.07	3.6680	3.6681	-0.9459	26.00	0.16	-1.500			
0.3681	23559.92	3.6650	3.6650	-0.9576	26.00	0.16	-1.500			
0.3710	23744.22	3.6620	3.6621	-0.9722	26.01	0.17	-1.500			
0.3740	23933.22	3.6590	3.6589	-0.9861	26.01	0.17	-1.500			
0.3769	24122.97	3.6560	3.6560	-1.0039	26.02	0.18	-1.500			
0.3800	24316.81	3.6530	3.6530	-1.0195	26.02	0.18	-1.500			
0.3830	24514.66	3.6500	3.6500	-1.0423	26.02	0.18	-1.500			
0.3862	24716.26	3.6470	3.6470	-1.0564	26.02	0.18	-1.500			
0.3894	24919.75	3.6440	3.6440	-1.0799	26.02	0.18	-1.500			
0.3926	25128.62	3.6410	3.6410	-1.1011	26.02	0.18	-1.500			
0.3960	25343.93	3.6380	3.6380	-1.1224	26.02	0.18	-1.500			
0.3994	25560.30	3.6350	3.6350	-1.1423	26.02	0.18	-1.500			
0.4029	25782.47	3.6320	3.6320	-1.1644	26.02	0.18	-1.500			
0.4064	26007.00	3.6290	3.6290	-1.1884	26.02	0.18	-1.500			
0.4100	26237.80	3.6260	3.6260	-1.2132	26.02	0.18	-1.500			
0.4136	26471.67	3.6230	3.6230	-1.2306	26.02	0.18	-1.500			
0.4174	26710.73	3.6200	3.6200	-1.2594	26.02	0.18	-1.500			
0.4212	26956.17	3.6170	3.6170	-1.2784	26.02	0.18	-1.500			
0.4250	27201.88	3.6140	3.6139	-1.3034	26.02	0.18	-1.500			
0.4290	27454.61	3.6110	3.6110	-1.3262	26.02	0.18	-1.500			
0.4330	27711.44	3.6080	3.6079	-1.3459	26.02	0.18	-1.500			
0.4371	27971.51	3.6050	3.6050	-1.3750	26.02	0.18	-1.500			
0.4412	28239.08	3.6020	3.6020	-1.3994	26.02	0.18	-1.500			
0.4455	28509.75	3.5990	3.5990	-1.4166	26.02	0.18	-1.500			
0.4498	28785.42	3.5960	3.5960	-1.4411	26.02	0.18	-1.500			
0.4541	29061.13	3.5930	3.5931	-1.4657	26.02	0.18	-1.500			
0.4585	29346.34	3.5900	3.5900	-1.4946	26.02	0.18	-1.500			
0.4631	29635.79	3.5870	3.5869	-1.5221	26.02	0.18	-1.500			
0.4677	29930.11	3.5840	3.5841	-1.5418	26.02	0.18	-1.500			
0.4724	30230.70	3.5810	3.5810	-1.5674	26.02	0.18	-1.500			
0.4771	30536.33	3.5780	3.5780	-1.5747	26.02	0.18	-1.500			
0.4819	30839.59	3.5750	3.5750	-1.5877	26.02	0.18	-1.500			
0.4866	31144.07	3.5720	3.5721	-1.5998	26.02	0.18	-1.500			
0.4914	31450.21	3.5690	3.5690	-1.6397	26.02	0.18	-1.500			
0.4964	31767.80	3.5660	3.5660	-1.6616	26.02	0.18	-1.500			
0.5014	32090.06	3.5630	3.5629	-1.6892	26.02	0.18	-1.500			
0.5065	32417.91	3.5600	3.5603	-1.7113	26.02	0.18	-1.500			
0.5118	32755.10	3.5570	3.5569	-1.7387	26.02	0.18	-1.500			
0.5170	33088.96	3.5540	3.5540	-1.7519	26.02	0.18	-1.500			
0.5223	33424.95	3.5510	3.5510	-1.7601	26.02	0.18	-1.500			
0.5276	33765.53	3.5480	3.5480	-1.7734	26.02	0.18	-1.500			
0.5329	34108.03	3.5450	3.5450	-1.7923	26.02	0.18	-1.500			
0.5383	34453.82	3.5420	3.5419	-1.8073	26.03	0.19	-1.500			
0.5438	34803.05	3.5390	3.5389	-1.8159	26.03	0.19	-1.500			
0.5492	35151.39	3.5360	3.5364	-1.8255	26.03	0.19	-1.500	0.385	0.516	
0.5548	35506.47	3.5330	3.5330	-1.8198	26.04	0.20	-1.500			
0.5602	35855.85	3.5300	3.5300	-1.8181	26.04	0.20	-1.500			
0.5657	36201.76	3.5270	3.5271	-1.8119	26.05	0.21	-1.500			
0.5712	36553.74	3.5240	3.5239	-1.8150	26.05	0.21	-1.500			
0.5766	36901.29	3.5210	3.5210	-1.8046	26.06	0.22	-1.500			
0.5820	37245.85	3.5180	3.5181	-1.8070	26.06	0.22	-1.500			
0.5874	37593.57	3.5150	3.5150	-1.8181	26.07	0.23	-1.500			
0.5928	37941.81	3.5120	3.5119	-1.8175	26.08	0.24	-1.500			
0.5983	38290.22	3.5090	3.5090	-1.8078	26.09	0.25	-1.500			
0.6037	38638.77	3.5060	3.5060	-1.8115	26.10	0.26	-1.500			
0.6092	38988.96	3.5030	3.5030	-1.8002	26.10	0.26	-1.500			
0.6146	39331.73	3.5000	3.5000	-1.7850	26.11	0.27	-1.500			
0.6199	39673.39	3.4970	3.4971	-1.7795	26.12	0.28	-1.500			
0.6252	40014.79	3.4940	3.4940	-1.7732	26.12	0.28	-1.500			
0.6305	40354.56	3.4910	3.4910	-1.7694	26.13	0.29	-1.500			
0.6358	40691.10	3.4880	3.4880	-1.7609	26.14	0.30	-1.500			
0.6411	41031.55	3.4850	3.4850	-1.7594	26.16	0.32	-1.500			
0.6464	41369.83	3.4820	3.4820	-1.7483	26.17	0.33	-1.500			
0.6517	41705.90	3.4790	3.4790	-1.7387	26.18	0.34	-1.500			
0.6569	42038.51	3.4760	3.4761	-1.7236	26.19	0.35	-1.500			
0.6620	42369.96	3.4730	3.4730	-1.7087	26.21	0.37	-1.500			
0.6671	42695.42	3.4700	3.4700	-1.6888	26.22	0.38	-1.500			
0.6722	43017.98	3.4670	3.4670	-1.6645	26.24	0.40	-1.500			
0.6771	43335.21	3.4640	3.4640	-1.6485	26.25	0.41	-1.500			
0.6820	43649.99	3.4610	3.4610	-1.6222	26.26	0.42	-1.500			
0.6869	43959.60	3.4580	3.4578	-1.5996	26.28	0.44	-1.500			
0.6916	44264.79	3.4550	3.4551	-1.5723	26.30	0.46	-1.500			
0.6963	44564.37	3.4520	3.4520	-1.5459	26.31	0.47	-1.500			
0.7009	44860.57	3.4490	3.4490	-1.5268	26.33	0.49	-1.500			
0.7055	45150.68	3.4460	3.4460	-1.5036	26.34	0.50	-1.500			
0.7099	45433.38	3.4430	3.4430	-1.4779	26.36	0.52	-1.500			
0.7143	45716.02	3.4400	3.4400	-1.4637	26.37	0.53	-1.500			
0.7187	45994.81	3.4370	3.4370	-1.4497	26.39	0.55	-1.500			
0.7230	46272.76	3.4340	3.4340	-1.4349	26.40	0.56	-1.500			
0.7273	46545.97	3.4310	3.4310	-1.4242	26.42	0.58	-1.500			
0.7315	46817.84	3.4280	3.4281	-1.4145	26.43	0.59	-1.500			
0.7358	47088.77	3.4250	3.4250	-1.4016	26.45	0.61	-1.500			
0.7400	47356.88	3.4220	3.4220	-1.3932	26.47	0.63	-1.500			
0.7441	47622.84	3.4190	3.4191	-1.3809	26.49	0.65	-1.500			
0.7483	47890.94	3.4160	3.4159	-1.3630	26.51	0.67	-1.500			
0.7524	48151.06	3.4130	3.4129	-1.3410	26.53	0.69	-1.500			
0.7563	48405.86	3.4100	3.4101	-1.3125	26.54	0.70	-1.500			
0.7603	48656.43	3.4070	3.4071	-1.2846	26.56	0.72	-1.500			
0.7641	48900.75	3.4040	3.4039	-1.2580	26.58	0.74	-1.500			
0.7678	49138.48	3.4010	3.4009	-1.2236	26.60	0.76	-1.500			
0.7714	49372.35	3.3980	3.3980	-1.1836	26.61	0.77	-1.500			
0.7750	49597.75	3.3950	3.3949	-1.1428	26.63	0.79	-1.500			
0.7784	49814.72	3.3920	3.3920	-1.0963	26.64	0.80	-1.500			
0.7816	50021.51	3.3890	3.3890	-1.0477	26.66	0.82	-1.500			
0.7846	50215.27	3.3860	3.3860	-1.0038	26.67	0.83	-1.500			
0.7875	50400.07	3.3830	3.3830	-0.9552	26.69	0.85	-1.500			
0.7903	50579.56	3.3800	3.3800	-0.9192	26.71	0.87	-1.500			
0.7930	50753.77	3.3770	3.3770	-0.8894	26.72	0.88	-1.500			
0.7956	50920.98	3.3740	3.3740	-0.8565	26.74	0.90	-1.500			
0.7982	51082.16	3.3710	3.3710	-0.8291	26.75	0.91	-1.500			
0.8006	51238.76	3.3680	3.3680	-0.7982	26.76	0.92	-1.500			
0.8029	51388.19	3.3650	3.3650	-0.7673	26.77	0.93	-1.500			
0.8052	51533.11	3.3620	3.3621	-0.7400	26.78	0.94	-1.500			
0.8074	51673.19	3.3590	3.3590	-0.7114	26.79	0.95	-1.500			
0.8095	51806.42	3.3560	3.3560	-0.6848	26.80	0.96	-1.500			
0.8115	51933.89	3.3530	3.3530	-0.6585	26.81	0.97	-1.500			
0.8134	52056.73	3.3500	3.3501	-0.6375	26.82	0.98	-1.500			
0.8153	52177.47	3.3470	3.3469	-0.6198	26.83	0.99	-1.500			
0.8171	52294.15	3.3440	3.3440	-0.6011	26.84	1.00	-1.500			
0.8189	52407.34	3.3410	3.3410	-0.5857	26.85	1.01	-1.500			
0.8206	52518.89	3.3380	3.3380	-0.5699	26.86	1.02	-1.500			
0.8223	52626.62	3.3350	3.3350	-0.5537	26.87	1.03	-1.500			
0.8239	52732.18	3.3320	3.3320	-0.5377	26.88	1.04	-1.500			
0.8255	52833.47	3.3290	3.3290	-0.5198	26.88	1.04	-1.500			
0.8271	52932.21	3.3260	3.3260	-0.5034	26.89	1.05	-1.500			
0.8285	53026.73	3.3230	3.3231	-0.4871	26.89	1.05	-1.500			
0.8300	53117.76	3.3200	3.3199	-0.4712	26.90	1.06	-1.500			
0.8314	53206.48	3.3170	3.3170	-0.4583	26.90	1.06	-1.500			
0.8327	53293.01	3.3140	3.3140	-0.4438	26.91	1.07	-1.500			
0.8340	53377.62	3.3110	3.3108	-0.4306	26.92	1.08	-1.500			
0.8353	53458.77	3.3080	3.3081	-0.4175	26.93	1.09	-1.500			
0.8365	53537.59	3.3050	3.3051	-0.4054	26.93	1.09	-1.500			
0.8377	53613.53	3.3020	3.3019	-0.3934	26.94	1.10	-1.500			
0.8389	53687.96	3.2990	3.2990	-0.3833	26.95	1.11	-1.500			
0.8400	53759.49	3.2960	3.2960	-0.3728	26.95	1.11	-1.500			
0.8411	53830.64	3.2930	3.2929	-0.3644	26.96	1.12	-1.500			
0.8422	53900.28	3.2900	3.2900	-0.3551	26.96	1.12	-1.500			
0.8432	53967.44	3.2870	3.2870	-0.3432	26.97	1.13	-1.500			
0.8443	54032.02	3.2840	3.2840	-0.3348	26.98	1.14	-1.500			
0.8452	54095.42	3.2810	3.2809	-0.3263	26.98	1.14	-1.500			
0.8462	54156.59	3.2780	3.2780	-0.3171	26.99	1.15	-1.500			
0.8471	54216.50	3.2750	3.2750	-0.3103	26.99	1.15	-1.500			
0.8481	54275.78	3.2720	3.2721	-0.3022	27.00	1.16	-1.500			
0.8490	54333.04	3.2690	3.2689	-0.2952	27.00	1.16	-1.500			
0.8498	54389.12	3.2660	3.2660	-0.2884	27.01	1.17	-1.500			
0.8507	54443.23	3.2630	3.2630	-0.2802	27.01	1.17	-1.500			
0.8515	54496.34	3.2600	3.2599	-0.2736	27.02	1.18	-1.500			
0.8523	54548.22	3.2570	3.2570	-0.2675	27.02	1.18	-1.500			
0.8531	54598.37	3.2540	3.2540	-0.2613	27.03	1.19	-1.500			
0.8539	54648.32	3.2510	3.2510	-0.2568	27.03	1.19	-1.500			
0.8546	54696.70	3.2480	3.2479	-0.2508	27.03	1.19	-1.500			
0.8554	54744.49	3.2450	3.2450	-0.2469	27.04	1.20	-1.500			
0.8561	54791.67	3.2420	3.2420	-0.2418	27.04	1.20	-1.500			
0.8568	54837.57	3.2390	3.2390	-0.2374	27.05	1.21	-1.500			
0.8575	54882.68	3.2360	3.2360	-0.2325	27.06	1.22	-1.500			
0.8582	54926.80	3.2330	3.2331	-0.2281	27.06	1.22	-1.500			
0.8589	54969.65	3.2300	3.2299	-0.2236	27.07	1.23	-1.500			
0.8596	55012.40	3.2270	3.2270	-0.2201	27.07	1.23	-1.500			
0.8602	55054.32	3.2240	3.2240	-0.2166	27.08	1.24	-1.500			
0.8609	55095.30	3.2210	3.2210	-0.2132	27.08	1.24	-1.500			
0.8615	55136.17	3.2180	3.2181	-0.2109	27.09	1.25	-1.500			
0.8621	55176.08	3.2150	3.2150	-0.2072	27.09	1.25	-1.500			
0.8627	55215.62	3.2120	3.2119	-0.2043	27.10	1.26	-1.500			
0.8634	55254.49	3.2090	3.2090	-0.2019	27.10	1.26	-1.500			
0.8640	55293.13	3.2060	3.2059	-0.1987	27.11	1.27	-1.500			
0.8646	55331.28	3.2030	3.2030	-0.1962	27.11	1.27	-1.500			
0.8651	55368.63	3.2000	3.1999	-0.1925	27.12	1.28	-1.500			
0.8657	55404.92	3.1970	3.1971	-0.1906	27.12	1.28	-1.500			
0.8663	55441.22	3.1940	3.1940	-0.1879	27.13	1.29	-1.500			
0.8668	55477.23	3.1910	3.1909	-0.1850	27.13	1.29	-1.500			
0.8674	55512.51	3.1880	3.1879	-0.1824	27.14	1.30	-1.500			
0.8679	55547.08	3.1850	3.1852	-0.1803	27.14	1.30	-1.500			
0.8685	55581.70	3.1820	3.1820	-0.1788	27.15	1.31	-1.500			
0.8690	55615.76	3.1790	3.1789	-0.1767	27.15	1.31	-1.500			
0.8695	55649.42	3.1760	3.1759	-0.1744	27.16	1.32	-1.500			
0.8700	55682.19	3.1730	3.1730	-0.1725	27.16	1.32	-1.500			
0.8706	55715.34	3.1700	3.1700	-0.1719	27.17	1.33	-1.500			
0.8711	55748.40	3.1670	3.1669	-0.1708	27.17	1.33	-1.500			
0.8716	55781.05	3.1640	3.1640	-0.1693	27.17	1.33	-1.500			
0.8721	55813.38	3.1610	3.1609	-0.1670	27.18	1.34	-1.500			
0.8726	55845.42	3.1580	3.1580	-0.1654	27.18	1.34	-1.500			
0.8731	55877.02	3.1550	3.1551	-0.1639	27.19	1.35	-1.500			
0.8736	55908.28	3.1520	3.1520	-0.1618	27.19	1.35	-1.500			
0.8740	55938.98	3.1490	3.1489	-0.1601	27.20	1.36	-1.500			
0.8745	55969.43	3.1460	3.1460	-0.1581	27.20	1.36	-1.500			
0.8750	55999.33	3.1430	3.1431	-0.1574	27.21	1.37	-1.500			
0.8755	56029.51	3.1400	3.1400	-0.1569	27.21	1.37	-1.500			
0.8759	56059.77	3.1370	3.1370	-0.1555	27.21	1.37	-1.500			
0.8764	56089.54	3.1340	3.1339	-0.1540	27.22	1.38	-1.500			
0.8769	56118.97	3.1310	3.1311	-0.1529	27.22	1.38	-1.500			
0.8773	56148.20	3.1280	3.1282	-0.1516	27.23	1.39	-1.500			
0.8778	56177.20	3.1250	3.1250	-0.1506	27.23	1.39	-1.500			
0.8782	56206.03	3.1220	3.1219	-0.1495	27.23	1.39	-1.500			
0.8787	56234.17	3.1190	3.1191	-0.1476	27.24	1.40	-1.500			
0.8791	56262.53	3.1160	3.1159	-0.1470	27.24	1.40	-1.500			
0.8795	56290.95	3.1130	3.1130	-0.1467	27.25	1.41	-1.500			
0.8800	56319.02	3.1100	3.1100	-0.1456	27.25	1.41	-1.500			
0.8804	56346.92	3.1070	3.1070	-0.1444	27.26	1.42	-1.500			
0.8809	56374.55	3.1040	3.1039	-0.1434	27.26	1.42	-1.500			
0.8813	56401.97	3.1010	3.1010	-0.1425	27.27	1.43	-1.500			
0.8817	56429.31	3.0980	3.0980	-0.1417	27.27	1.43	-1.500			
0.8821	56456.38	3.0950	3.0951	-0.1405	27.28	1.44	-1.500			
0.8826	56483.22	3.0920	3.0919	-0.1398	27.28	1.44	-1.500			
0.8830	56509.88	3.0890	3.0890	-0.1389	27.29	1.45	-1.500			
0.8834	56536.59	3.0860	3.0860	-0.1380	27.29	1.45	-1.500			
0.8838	56563.10	3.0830	3.0830	-0.1372	27.30	1.46	-1.500			
0.8842	56589.32	3.0800	3.0799	-0.1359	27.30	1.46	-1.500			
0.8846	56615.17	3.0770	3.0770	-0.1351	27.31	1.47	-1.500			
0.8850	56640.96	3.0740	3.0739	-0.1345	27.31	1.47	-1.500			
0.8854	56666.72	3.0710	3.0710	-0.1338	27.32	1.48	-1.500			
0.8858	56692.24	3.0680	3.0680	-0.1330	27.32	1.48	-1.500			
0.8862	56717.73	3.0650	3.0650	-0.1323	27.33	1.49	-1.500			
0.8866	56743.13	3.0620	3.0621	-0.1321	27.33	1.49	-1.500			
0.8870	56768.43	3.0590	3.0590	-0.1315	27.34	1.50	-1.500			
0.8874	56793.72	3.0560	3.0559	-0.1306	27.34	1.50	-1.500			
0.8878	56818.61	3.0530	3.0530	-0.1296	27.35	1.51	-1.500			
0.8882	56843.45	3.0500	3.0502	-0.1289	27.35	1.51	-1.500			
0.8886	56868.12	3.0470	3.0470	-0.1282	27.36	1.52	-1.500			
0.8889	56892.73	3.0440	3.0440	-0.1274	27.36	1.52	-1.500			
0.8893	56917.09	3.0410	3.0411	-0.1265	27.37	1.53	-1.500			
0.8897	56941.33	3.0380	3.0379	-0.1255	27.37	1.53	-1.500			
0.8901	56965.27	3.0350	3.0349	-0.1245	27.37	1.53	-1.500			
0.8905	56989.12	3.0320	3.0321	-0.1241	27.38	1.54	-1.500			
0.8908	57012.88	3.0290	3.0290	-0.1234	27.38	1.54	-1.500			
0.8912	57036.34	3.0260	3.0261	-0.1228	27.39	1.55	-1.500			
0.8916	57059.74	3.0230	3.0229	-0.1222	27.39	1.55	-1.500			
0.8919	57083.33	3.0200	3.0201	-0.1215	27.40	1.56	-1.500			
0.8923	57106.68	3.0170	3.0169	-0.1210	27.40	1.56	-1.500			
0.8927	57129.91	3.0140	3.0141	-0.1207	27.41	1.57	-1.500			
0.8930	57153.02	3.0110	3.0110	-0.1200	27.41	1.57	-1.500			
0.8934	57175.90	3.0080	3.0080	-0.1193	27.41	1.57	-1.500			
0.8937	57198.75	3.0050	3.0049	-0.1187	27.42	1.58	-1.500			
0.8941	57221.48	3.0020	3.0021	-0.1204	27.42	1.58	-1.499			
