Ah_balance (normalized)	Ah_balance (mAh)	Voltage - fit (V)	Voltage -  interpolate (V)	dQ/dV (1/V)	Temperature (°C)	Temperature - diff (°C)	Current (C)	R_DC 0ms (mOhm)	R_DC 50ms (mOhm)	R_DC 50 ms PEC (mOhm)
0.2868	18354.72	3.9690	3.9690	0.8700	27.12	1.13	1.500			
0.2894	18522.67	3.9660	3.9660	0.8808	27.12	1.13	1.500			
0.2921	18692.98	3.9630	3.9631	0.8926	27.12	1.13	1.500			
0.2948	18866.34	3.9600	3.9600	0.8997	27.12	1.13	1.500			
0.2975	19040.11	3.9570	3.9570	0.9077	27.11	1.12	1.500			
0.3003	19216.06	3.9540	3.9540	0.9147	27.11	1.12	1.500			
0.3030	19390.67	3.9510	3.9509	0.9198	27.11	1.12	1.500			
0.3058	19568.82	3.9480	3.9479	0.9233	27.11	1.12	1.500			
0.3085	19746.54	3.9450	3.9450	0.9260	27.11	1.12	1.500			
0.3113	19924.20	3.9420	3.9420	0.9333	27.10	1.11	1.500			
0.3141	20103.56	3.9390	3.9390	0.9361	27.10	1.11	1.500			
0.3170	20286.30	3.9360	3.9359	0.9367	27.10	1.11	1.500			
0.3198	20465.36	3.9330	3.9330	0.9431	27.10	1.11	1.500			
0.3226	20646.15	3.9300	3.9301	0.9466	27.09	1.10	1.500			
0.3255	20829.44	3.9270	3.9270	0.9536	27.09	1.10	1.500			
0.3283	21010.61	3.9240	3.9239	0.9654	27.09	1.10	1.500			
0.3312	21196.56	3.9210	3.9210	0.9739	27.08	1.09	1.500			
0.3342	21386.58	3.9180	3.9179	0.9879	27.08	1.09	1.500			
0.3372	21578.19	3.9150	3.9151	0.9993	27.08	1.09	1.500			
0.3402	21770.81	3.9120	3.9120	0.9970	27.07	1.08	1.500			
0.3432	21966.03	3.9090	3.9090	0.9939	27.07	1.08	1.500			
0.3462	22155.59	3.9060	3.9061	1.0025	27.06	1.07	1.500			
0.3492	22345.80	3.9030	3.9030	1.0078	27.06	1.07	1.500			
0.3522	22539.55	3.9000	3.8998	1.0185	27.05	1.06	1.500			
0.3552	22734.69	3.8970	3.8971	1.0276	27.05	1.06	1.500			
0.3583	22932.34	3.8940	3.8941	1.0435	27.04	1.05	1.500			
0.3615	23135.66	3.8910	3.8910	1.0604	27.04	1.05	1.500			
0.3647	23342.59	3.8880	3.8879	1.0751	27.04	1.05	1.500			
0.3679	23548.37	3.8850	3.8850	1.0757	27.03	1.04	1.500			
0.3712	23755.72	3.8820	3.8820	1.0935	27.03	1.04	1.500			
0.3745	23967.23	3.8790	3.8791	1.1042	27.02	1.03	1.500			
0.3778	24179.89	3.8760	3.8758	1.1189	27.02	1.03	1.500			
0.3812	24394.79	3.8730	3.8731	1.1288	27.01	1.02	1.500			
0.3846	24613.35	3.8700	3.8700	1.1433	27.01	1.02	1.500			
0.3880	24834.71	3.8670	3.8670	1.1594	27.00	1.01	1.500			
0.3915	25057.22	3.8640	3.8641	1.1687	27.00	1.01	1.500			
0.3950	25280.24	3.8610	3.8610	1.1899	26.99	1.00	1.500			
0.3986	25511.72	3.8580	3.8581	1.2140	26.99	1.00	1.500			
0.4023	25746.41	3.8550	3.8549	1.2342	26.98	0.99	1.500			
0.4060	25986.86	3.8520	3.8520	1.2589	26.98	0.99	1.500			
0.4099	26231.05	3.8490	3.8491	1.2795	26.97	0.98	1.500			
0.4137	26479.12	3.8460	3.8459	1.3003	26.96	0.97	1.500			
0.4176	26729.42	3.8430	3.8431	1.3137	26.96	0.97	1.500			
0.4216	26983.17	3.8400	3.8400	1.3412	26.95	0.96	1.500			
0.4257	27242.51	3.8370	3.8370	1.3687	26.94	0.95	1.500			
0.4298	27506.98	3.8340	3.8340	1.3975	26.94	0.95	1.500			
0.4340	27778.05	3.8310	3.8311	1.4246	26.93	0.94	1.500			
0.4384	28054.58	3.8280	3.8279	1.4516	26.92	0.93	1.500			
0.4427	28334.07	3.8250	3.8250	1.4871	26.90	0.91	1.500			
0.4472	28622.17	3.8220	3.8221	1.5181	26.89	0.90	1.500			
0.4518	28914.80	3.8190	3.8189	1.5570	26.88	0.89	1.500			
0.4565	29218.31	3.8160	3.8160	1.5988	26.87	0.88	1.500			
0.4614	29531.87	3.8130	3.8130	1.6290	26.87	0.88	1.500			
0.4664	29847.67	3.8100	3.8100	1.6817	26.86	0.87	1.500			
0.4714	30171.81	3.8070	3.8071	1.7228	26.85	0.86	1.500			
0.4767	30505.72	3.8040	3.8039	1.7718	26.84	0.85	1.500			
0.4821	30852.31	3.8010	3.8011	1.8325	26.83	0.84	1.500			
0.4876	31208.77	3.7980	3.7979	1.8851	26.82	0.83	1.500			
0.4935	31581.37	3.7950	3.7950	1.9569	26.80	0.81	1.500			
0.4993	31956.44	3.7920	3.7922	2.0064	26.79	0.80	1.500			
0.5054	32347.05	3.7890	3.7889	2.0814	26.77	0.78	1.500			
0.5117	32750.89	3.7860	3.7860	2.1480	26.76	0.77	1.500			
0.5182	33167.95	3.7830	3.7830	2.2175	26.74	0.75	1.500			
0.5251	33607.45	3.7800	3.7800	2.2944	26.73	0.74	1.500			
0.5322	34058.75	3.7770	3.7770	2.3376	26.71	0.72	1.500			
0.5392	34509.52	3.7740	3.7740	2.3809	26.69	0.70	1.500			
0.5464	34970.51	3.7710	3.7711	2.4443	26.68	0.69	1.500			
0.5539	35447.79	3.7680	3.7679	2.4471	26.66	0.67	1.500			
0.5613	35925.89	3.7650	3.7651	2.5214	26.64	0.65	1.500			
0.5691	36419.31	3.7620	3.7618	2.5948	26.62	0.63	1.500	0.369	0.448	
0.5769	36919.58	3.7590	3.7590	2.6012	26.60	0.61	1.500			
0.5848	37426.10	3.7560	3.7561	2.6069	26.58	0.59	1.500			
0.5926	37924.51	3.7530	3.7530	2.5697	26.56	0.57	1.500			
0.6004	38425.03	3.7500	3.7500	2.5292	26.55	0.56	1.500			
0.6079	38904.27	3.7470	3.7470	2.4701	26.53	0.54	1.500			
0.6152	39371.52	3.7440	3.7440	2.3983	26.51	0.52	1.500			
0.6222	39820.93	3.7410	3.7410	2.3558	26.49	0.50	1.500			
0.6292	40268.90	3.7380	3.7380	2.3297	26.48	0.49	1.500			
0.6362	40716.20	3.7350	3.7350	2.2909	26.46	0.47	1.500			
0.6429	41148.07	3.7320	3.7321	2.3046	26.44	0.45	1.500			
0.6499	41590.74	3.7290	3.7290	2.3201	26.43	0.44	1.500			
0.6568	42035.21	3.7260	3.7260	2.3441	26.41	0.42	1.500			
0.6639	42486.94	3.7230	3.7231	2.3919	26.40	0.41	1.500			
0.6712	42954.41	3.7200	3.7200	2.4522	26.38	0.39	1.500			
0.6786	43430.06	3.7170	3.7170	2.5245	26.37	0.38	1.500			
0.6863	43924.74	3.7140	3.7141	2.6044	26.36	0.37	1.500			
0.6942	44430.48	3.7110	3.7110	2.7137	26.35	0.36	1.500			
0.7025	44957.41	3.7080	3.7079	2.8401	26.34	0.35	1.500			
0.7112	45518.88	3.7050	3.7051	2.9623	26.32	0.33	1.500			
0.7203	46098.90	3.7020	3.7020	3.0664	26.30	0.31	1.500			
0.7297	46697.72	3.6990	3.6988	3.1117	26.28	0.29	1.500			
0.7392	47310.99	3.6960	3.6961	3.0790	26.27	0.28	1.500			
0.7484	47898.14	3.6930	3.6930	2.9301	26.26	0.27	1.500			
0.7567	48431.91	3.6900	3.6901	2.6751	26.25	0.26	1.500			
0.7647	48940.01	3.6870	3.6870	2.4567	26.24	0.25	1.500			
0.7716	49379.99	3.6840	3.6841	2.2077	26.23	0.24	1.500			
0.7776	49767.19	3.6810	3.6810	1.9787	26.22	0.23	1.500			
0.7832	50121.76	3.6780	3.6780	1.8056	26.22	0.23	1.500			
0.7884	50455.85	3.6750	3.6749	1.6656	26.21	0.22	1.500			
0.7930	50752.56	3.6720	3.6720	1.5510	26.21	0.22	1.500			
0.7975	51038.73	3.6690	3.6691	1.4552	26.20	0.21	1.500			
0.8016	51302.47	3.6660	3.6659	1.3725	26.20	0.21	1.500			
0.8056	51557.50	3.6630	3.6630	1.3070	26.20	0.21	1.500			
0.8093	51795.31	3.6600	3.6601	1.2558	26.19	0.20	1.500			
0.8130	52029.78	3.6570	3.6571	1.2254	26.18	0.19	1.500			
0.8165	52259.12	3.6540	3.6540	1.2065	26.18	0.19	1.500			
0.8201	52487.76	3.6510	3.6510	1.2037	26.17	0.18	1.500			
0.8237	52716.77	3.6480	3.6480	1.2067	26.17	0.18	1.500			
0.8273	52947.51	3.6450	3.6450	1.2210	26.16	0.17	1.500			
0.8310	53184.06	3.6420	3.6420	1.2390	26.15	0.16	1.500			
0.8348	53424.57	3.6390	3.6389	1.2474	26.14	0.15	1.500			
0.8386	53667.64	3.6360	3.6359	1.2570	26.13	0.14	1.500			
0.8424	53911.13	3.6330	3.6331	1.2563	26.13	0.14	1.500			
0.8461	54153.27	3.6300	3.6300	1.2604	26.12	0.13	1.500			
0.8499	54395.67	3.6270	3.6270	1.2558	26.11	0.12	1.500			
0.8536	54632.69	3.6240	3.6240	1.2531	26.10	0.11	1.500			
0.8574	54872.69	3.6210	3.6210	1.2606	26.09	0.10	1.500			
0.8612	55116.74	3.6180	3.6180	1.2677	26.09	0.10	1.500			
0.8650	55360.76	3.6150	3.6150	1.2647	26.08	0.09	1.500			
0.8688	55606.16	3.6120	3.6120	1.2737	26.07	0.08	1.500			
0.8727	55850.58	3.6090	3.6090	1.2696	26.07	0.08	1.500			
0.8765	56096.66	3.6060	3.6059	1.2654	26.06	0.07	1.500			
0.8803	56338.20	3.6030	3.6031	1.2547	26.05	0.06	1.500			
0.8841	56579.43	3.6000	3.6000	1.2407	26.05	0.06	1.500			
0.8878	56817.50	3.5970	3.5970	1.2265	26.04	0.05	1.500			
0.8914	57049.97	3.5940	3.5940	1.2121	26.03	0.04	1.500			
0.8950	57281.06	3.5910	3.5910	1.2021	26.02	0.03	1.500			
0.8986	57509.89	3.5880	3.5880	1.1966	26.01	0.02	1.500			
0.9021	57736.84	3.5850	3.5850	1.2020	26.00	0.01	1.500			
0.9057	57964.48	3.5820	3.5820	1.2169	26.00	0.01	1.500			
0.9094	58201.50	3.5790	3.5789	1.2295	26.00	0.01	1.500			
0.9133	58449.41	3.5760	3.5758	1.2005	26.00	0.01	1.500			
0.9170	58685.61	3.5730	3.5730	1.1403	25.99	0.00	1.500			
0.9206	58917.61	3.5700	3.5701	1.0343	25.99	0.00	1.500			
0.9236	59110.20	3.5670	3.5671	0.8881	25.99	0.00	1.500			
0.9260	59266.63	3.5640	3.5641	0.7286	25.99	0.00	1.500			
0.9278	59380.50	3.5610	3.5610	0.5869	25.99	0.00	1.500			
0.9291	59465.35	3.5580	3.5580	0.4538	25.99	-0.00	1.500			
0.9303	59538.93	3.5550	3.5548	0.3538	25.99	-0.00	1.500			
0.9311	59590.28	3.5520	3.5519	0.2823	25.99	-0.00	1.500			
0.9318	59633.09	3.5490	3.5491	0.2297	25.99	-0.00	1.500			
0.9324	59672.09	3.5460	3.5459	0.1893	25.99	-0.00	1.500			
0.9329	59702.80	3.5430	3.5431	0.1521	25.99	-0.00	1.500			
0.9333	59728.75	3.5400	3.5399	0.1222	25.99	-0.00	1.500			
0.9336	59749.05	3.5370	3.5370	0.0939	25.99	-0.00	1.500			
0.9338	59763.63	3.5340	3.5342	0.0691	25.99	-0.00	1.500			
0.9340	59774.56	3.5310	3.5315	0.0449	25.99	-0.00	1.500			
