Ah_balance (normalized)	Ah_balance (mAh)	Voltage - fit (V)	Voltage -  interpolate (V)	dQ/dV (1/V)	Temperature (°C)	Temperature - diff (°C)	Current (C)	R_DC 0ms (mOhm)	R_DC 50ms (mOhm)	R_DC 50 ms PEC (mOhm)
0.2744	17562.16	3.9900	3.9900	0.8023	27.41	1.45	1.500			
0.2769	17720.18	3.9870	3.9870	0.8305	27.41	1.45	1.500			
0.2794	17880.10	3.9840	3.9840	0.8403	27.41	1.45	1.500			
0.2819	18042.96	3.9810	3.9810	0.8499	27.40	1.44	1.500			
0.2845	18207.85	3.9780	3.9780	0.8571	27.40	1.44	1.500			
0.2871	18373.59	3.9750	3.9750	0.8603	27.39	1.43	1.500			
0.2897	18540.23	3.9720	3.9720	0.8635	27.39	1.43	1.500			
0.2923	18705.74	3.9690	3.9690	0.8639	27.38	1.42	1.500			
0.2949	18871.87	3.9660	3.9660	0.8672	27.38	1.42	1.500			
0.2974	19036.58	3.9630	3.9630	0.8689	27.38	1.42	1.500			
0.3001	19203.87	3.9600	3.9600	0.8732	27.37	1.41	1.500			
0.3027	19372.83	3.9570	3.9570	0.8740	27.37	1.41	1.500			
0.3053	19541.71	3.9540	3.9539	0.8704	27.36	1.40	1.500			
0.3079	19708.69	3.9510	3.9511	0.8745	27.36	1.40	1.500			
0.3106	19875.53	3.9480	3.9480	0.8816	27.36	1.40	1.500			
0.3132	20044.38	3.9450	3.9449	0.8846	27.35	1.39	1.500			
0.3159	20215.07	3.9420	3.9420	0.8896	27.35	1.39	1.500			
0.3185	20386.11	3.9390	3.9391	0.8964	27.34	1.38	1.500			
0.3212	20559.74	3.9360	3.9360	0.9033	27.33	1.37	1.500			
0.3240	20734.44	3.9330	3.9330	0.9124	27.33	1.37	1.500			
0.3267	20908.39	3.9300	3.9300	0.9120	27.32	1.36	1.500			
0.3294	21084.45	3.9270	3.9270	0.9137	27.31	1.35	1.500			
0.3322	21261.70	3.9240	3.9240	0.9220	27.31	1.35	1.500			
0.3350	21439.14	3.9210	3.9210	0.9239	27.30	1.34	1.500			
0.3377	21615.68	3.9180	3.9180	0.9311	27.29	1.33	1.500			
0.3405	21794.98	3.9150	3.9150	0.9357	27.29	1.33	1.500			
0.3433	21974.15	3.9120	3.9120	0.9420	27.28	1.32	1.500			
0.3462	22156.59	3.9090	3.9091	0.9556	27.27	1.31	1.500			
0.3491	22341.26	3.9060	3.9060	0.9676	27.27	1.31	1.500			
0.3520	22527.30	3.9030	3.9029	0.9746	27.26	1.30	1.500			
0.3549	22716.75	3.9000	3.9000	0.9798	27.25	1.29	1.500			
0.3579	22905.38	3.8970	3.8971	0.9820	27.24	1.28	1.500			
0.3609	23096.19	3.8940	3.8940	0.9888	27.24	1.28	1.500			
0.3638	23284.67	3.8910	3.8910	0.9943	27.23	1.27	1.500			
0.3668	23472.93	3.8880	3.8880	1.0022	27.22	1.26	1.500			
0.3698	23665.99	3.8850	3.8849	1.0162	27.22	1.26	1.500			
0.3729	23863.21	3.8820	3.8820	1.0275	27.21	1.25	1.500			
0.3760	24062.95	3.8790	3.8790	1.0379	27.20	1.24	1.500			
0.3791	24262.75	3.8760	3.8761	1.0549	27.19	1.23	1.500			
0.3823	24466.28	3.8730	3.8730	1.0664	27.19	1.23	1.500			
0.3855	24671.83	3.8700	3.8700	1.0723	27.18	1.22	1.500			
0.3887	24879.70	3.8670	3.8669	1.0815	27.17	1.21	1.500			
0.3920	25087.29	3.8640	3.8642	1.0989	27.16	1.20	1.500			
0.3953	25300.06	3.8610	3.8611	1.1135	27.15	1.19	1.500			
0.3987	25515.16	3.8580	3.8579	1.1263	27.15	1.19	1.500			
0.4021	25731.80	3.8550	3.8550	1.1357	27.14	1.18	1.500			
0.4055	25949.92	3.8520	3.8521	1.1542	27.13	1.17	1.500			
0.4090	26173.41	3.8490	3.8490	1.1731	27.12	1.16	1.500			
0.4125	26400.42	3.8460	3.8459	1.1908	27.11	1.15	1.500			
0.4161	26629.88	3.8430	3.8429	1.2028	27.10	1.14	1.500			
0.4197	26862.98	3.8400	3.8401	1.2230	27.09	1.13	1.500			
0.4234	27099.72	3.8370	3.8370	1.2423	27.08	1.12	1.500			
0.4272	27340.40	3.8340	3.8340	1.2604	27.06	1.10	1.500			
0.4310	27582.90	3.8310	3.8310	1.2765	27.05	1.09	1.500			
0.4348	27828.09	3.8280	3.8280	1.2981	27.04	1.08	1.500			
0.4387	28079.06	3.8250	3.8249	1.3247	27.02	1.06	1.500			
0.4428	28336.71	3.8220	3.8220	1.3494	27.01	1.05	1.500			
0.4468	28597.70	3.8190	3.8190	1.3691	26.99	1.03	1.500			
0.4510	28864.77	3.8160	3.8160	1.3805	26.98	1.02	1.500			
0.4552	29130.66	3.8130	3.8131	1.4126	26.97	1.01	1.500			
0.4594	29404.26	3.8100	3.8100	1.4409	26.95	0.99	1.500			
0.4638	29682.43	3.8070	3.8068	1.4656	26.94	0.98	1.500			
0.4682	29965.73	3.8040	3.8041	1.4975	26.92	0.96	1.500			
0.4728	30261.05	3.8010	3.8010	1.5263	26.91	0.95	1.500			
0.4775	30557.57	3.7980	3.7980	1.5513	26.89	0.93	1.500			
0.4821	30854.71	3.7950	3.7950	1.5787	26.87	0.91	1.500			
0.4869	31161.36	3.7920	3.7921	1.6090	26.86	0.90	1.500			
0.4918	31473.00	3.7890	3.7890	1.6349	26.84	0.88	1.500			
0.4967	31789.42	3.7860	3.7861	1.6589	26.83	0.87	1.500			
0.5018	32112.43	3.7830	3.7830	1.6818	26.81	0.85	1.500			
0.5068	32437.88	3.7800	3.7801	1.7024	26.79	0.83	1.500	0.344	0.471	
0.5120	32767.04	3.7770	3.7770	1.7110	26.78	0.82	1.500			
0.5172	33099.80	3.7740	3.7740	1.7255	26.76	0.80	1.500			
0.5224	33431.52	3.7710	3.7711	1.7114	26.75	0.79	1.500			
0.5275	33759.74	3.7680	3.7680	1.7241	26.73	0.77	1.500			
0.5326	34088.25	3.7650	3.7651	1.7284	26.72	0.76	1.500			
0.5378	34420.12	3.7620	3.7619	1.7380	26.70	0.74	1.500			
0.5431	34755.47	3.7590	3.7591	1.7561	26.69	0.73	1.500			
0.5484	35100.58	3.7560	3.7560	1.7634	26.67	0.71	1.500			
0.5537	35435.11	3.7530	3.7530	1.7592	26.65	0.69	1.500			
0.5589	35771.09	3.7500	3.7501	1.7759	26.63	0.67	1.500			
0.5643	36112.08	3.7470	3.7469	1.8046	26.61	0.65	1.500			
0.5697	36460.61	3.7440	3.7440	1.8485	26.59	0.63	1.500			
0.5753	36820.47	3.7410	3.7410	1.8771	26.58	0.62	1.500			
0.5810	37187.10	3.7380	3.7381	1.9140	26.56	0.60	1.500			
0.5868	37557.79	3.7350	3.7349	1.9643	26.55	0.59	1.500			
0.5927	37935.23	3.7320	3.7320	2.0083	26.53	0.57	1.500			
0.5989	38326.56	3.7290	3.7290	2.0491	26.51	0.55	1.500			
0.6052	38729.86	3.7260	3.7260	2.1267	26.49	0.53	1.500			
0.6116	39140.72	3.7230	3.7230	2.1770	26.47	0.51	1.500			
0.6182	39564.46	3.7200	3.7200	2.2439	26.45	0.49	1.500			
0.6250	40000.94	3.7170	3.7170	2.3033	26.43	0.47	1.500			
0.6320	40449.24	3.7140	3.7140	2.3293	26.41	0.45	1.500			
0.6391	40902.81	3.7110	3.7110	2.3611	26.39	0.43	1.500			
0.6462	41357.13	3.7080	3.7080	2.3582	26.37	0.41	1.500			
0.6535	41822.82	3.7050	3.7049	2.3054	26.35	0.39	1.500			
0.6602	42251.83	3.7020	3.7020	2.1572	26.33	0.37	1.500			
0.6664	42649.03	3.6990	3.6990	1.9943	26.31	0.35	1.500			
0.6721	43011.22	3.6960	3.6959	1.8529	26.30	0.34	1.500			
0.6773	43348.51	3.6930	3.6930	1.7266	26.28	0.32	1.500			
0.6823	43664.13	3.6900	3.6900	1.6313	26.27	0.31	1.500			
0.6870	43967.34	3.6870	3.6870	1.5521	26.26	0.30	1.500			
0.6915	44257.58	3.6840	3.6840	1.4863	26.24	0.28	1.500			
0.6958	44532.66	3.6810	3.6810	1.4249	26.23	0.27	1.500			
0.7000	44800.65	3.6780	3.6780	1.3736	26.21	0.25	1.500			
0.7040	45055.50	3.6750	3.6750	1.3368	26.20	0.24	1.500			
0.7079	45305.92	3.6720	3.6720	1.3065	26.18	0.22	1.500			
0.7117	45550.66	3.6690	3.6690	1.2874	26.17	0.21	1.500			
0.7156	45795.55	3.6660	3.6660	1.2831	26.16	0.20	1.500			
0.7194	46039.59	3.6630	3.6630	1.2788	26.14	0.18	1.500			
0.7232	46285.65	3.6600	3.6600	1.2820	26.13	0.17	1.500			
0.7271	46533.24	3.6570	3.6570	1.2838	26.12	0.16	1.500			
0.7309	46779.18	3.6540	3.6540	1.2794	26.11	0.15	1.500			
0.7348	47026.36	3.6510	3.6510	1.2780	26.10	0.14	1.500			
0.7386	47271.94	3.6480	3.6479	1.2709	26.09	0.13	1.500			
0.7424	47514.99	3.6450	3.6450	1.2610	26.08	0.12	1.500			
0.7462	47756.91	3.6420	3.6420	1.2532	26.07	0.11	1.500			
0.7500	47997.61	3.6390	3.6390	1.2412	26.06	0.10	1.500			
0.7537	48233.61	3.6360	3.6360	1.2344	26.05	0.09	1.500			
0.7573	48468.82	3.6330	3.6330	1.2276	26.04	0.08	1.500			
0.7610	48703.44	3.6300	3.6300	1.2221	26.03	0.07	1.500			
0.7647	48938.30	3.6270	3.6269	1.2140	26.02	0.06	1.500			
0.7683	49170.97	3.6240	3.6240	1.2061	26.01	0.05	1.500			
0.7719	49402.93	3.6210	3.6210	1.1973	26.00	0.04	1.500			
0.7755	49633.68	3.6180	3.6180	1.1794	25.99	0.03	1.500			
0.7790	49858.83	3.6150	3.6150	1.1577	25.98	0.02	1.500			
0.7825	50079.52	3.6120	3.6120	1.1365	25.98	0.02	1.500			
0.7859	50295.08	3.6090	3.6090	1.1147	25.97	0.01	1.500			
0.7892	50507.81	3.6060	3.6060	1.0924	25.96	0.00	1.500			
0.7924	50714.19	3.6030	3.6030	1.0655	25.96	0.00	1.500			
0.7956	50916.82	3.6000	3.6000	1.0428	25.96	0.00	1.500			
0.7987	51117.66	3.5970	3.5970	1.0109	25.96	0.00	1.500			
0.8017	51310.17	3.5940	3.5940	0.9734	25.96	0.00	1.500			
0.8047	51498.26	3.5910	3.5910	0.9246	25.96	0.00	1.500			
0.8074	51672.93	3.5880	3.5880	0.8625	25.96	0.00	1.500			
0.8099	51836.49	3.5850	3.5849	0.7909	25.96	0.00	1.500			
0.8122	51982.46	3.5820	3.5821	0.6998	25.96	0.00	1.500			
0.8142	52109.21	3.5790	3.5790	0.6078	25.96	0.00	1.500			
0.8159	52215.15	3.5760	3.5761	0.5222	25.96	0.00	1.500			
0.8172	52303.06	3.5730	3.5729	0.4372	25.96	0.00	1.500			
0.8184	52376.65	3.5700	3.5699	0.3708	25.96	0.00	1.500			
0.8194	52439.07	3.5670	3.5670	0.3216	25.96	0.00	1.500			
0.8202	52491.96	3.5640	3.5639	0.2784	25.96	0.00	1.500			
0.8209	52540.47	3.5610	3.5609	0.2472	25.96	0.00	1.500			
0.8216	52583.17	3.5580	3.5580	0.2169	25.96	0.00	1.500			
0.8222	52620.98	3.5550	3.5550	0.1958	25.96	0.00	1.500			
0.8227	52655.49	3.5520	3.5520	0.1765	25.96	0.00	1.500			
0.8232	52687.48	3.5490	3.5489	0.1593	25.96	0.00	1.500			
0.8237	52716.25	3.5460	3.5459	0.1452	25.96	0.00	1.500			
0.8241	52741.99	3.5430	3.5431	0.1300	25.96	0.00	1.500			
0.8245	52765.90	3.5400	3.5399	0.1157	25.96	0.00	1.500			
0.8248	52786.88	3.5370	3.5370	0.1018	25.96	0.00	1.500			
0.8251	52805.03	3.5340	3.5341	0.0873	25.96	0.00	1.500			
0.8253	52820.26	3.5310	3.5312	0.0727	25.96	0.00	1.500			
0.8255	52833.73	3.5280	3.5281	0.0579	25.96	0.00	1.500			
0.8257	52843.32	3.5250	3.5254	0.0419	25.96	0.00	1.500			
0.8258	52849.83	3.5220	3.5230	0.0259	25.96	0.00	1.500			
