Ah_balance (normalized)	Ah_balance (mAh)	Voltage - fit (V)	Voltage -  interpolate (V)	dQ/dV (1/V)	Temperature (°C)	Temperature - diff (°C)	Current (C)	R_DC 0ms (mOhm)	R_DC 50ms (mOhm)	R_DC 50 ms PEC (mOhm)
0.2960	18942.89	3.9740	3.9740	0.8286	27.07	1.11	1.500			
0.2985	19105.64	3.9710	3.9710	0.8547	27.06	1.10	1.500			
0.3011	19271.13	3.9680	3.9680	0.8657	27.06	1.10	1.500			
0.3038	19440.05	3.9650	3.9650	0.8698	27.06	1.10	1.500			
0.3064	19608.33	3.9620	3.9620	0.8751	27.05	1.09	1.500			
0.3090	19776.00	3.9590	3.9590	0.8788	27.05	1.09	1.500			
0.3116	19944.93	3.9560	3.9560	0.8845	27.04	1.08	1.500			
0.3143	20113.58	3.9530	3.9529	0.8862	27.04	1.08	1.500			
0.3170	20284.97	3.9500	3.9500	0.8915	27.04	1.08	1.500			
0.3196	20457.44	3.9470	3.9470	0.8950	27.03	1.07	1.500			
0.3224	20630.52	3.9440	3.9440	0.8988	27.03	1.07	1.500			
0.3250	20802.92	3.9410	3.9410	0.8979	27.02	1.06	1.500			
0.3277	20974.19	3.9380	3.9380	0.9032	27.02	1.06	1.500			
0.3304	21146.99	3.9350	3.9350	0.9062	27.01	1.05	1.500			
0.3332	21321.99	3.9320	3.9320	0.9128	27.01	1.05	1.500			
0.3359	21498.21	3.9290	3.9290	0.9205	27.00	1.04	1.500			
0.3387	21675.80	3.9260	3.9259	0.9259	27.00	1.04	1.500			
0.3415	21853.59	3.9230	3.9230	0.9335	27.00	1.04	1.500			
0.3443	22033.91	3.9200	3.9200	0.9392	26.99	1.03	1.500			
0.3471	22212.99	3.9170	3.9170	0.9455	26.98	1.02	1.500			
0.3499	22396.64	3.9140	3.9140	0.9559	26.98	1.02	1.500			
0.3529	22582.85	3.9110	3.9110	0.9592	26.97	1.01	1.500			
0.3557	22766.45	3.9080	3.9080	0.9656	26.97	1.01	1.500			
0.3586	22952.19	3.9050	3.9050	0.9725	26.96	1.00	1.500			
0.3615	23138.73	3.9020	3.9020	0.9798	26.95	0.99	1.500			
0.3645	23327.30	3.8990	3.8990	0.9858	26.95	0.99	1.500			
0.3674	23516.50	3.8960	3.8961	0.9927	26.94	0.98	1.500			
0.3705	23708.88	3.8930	3.8931	1.0053	26.94	0.98	1.500			
0.3735	23903.29	3.8900	3.8900	1.0158	26.93	0.97	1.500			
0.3765	24099.05	3.8870	3.8870	1.0176	26.92	0.96	1.500			
0.3796	24294.52	3.8840	3.8840	1.0259	26.92	0.96	1.500			
0.3827	24492.23	3.8810	3.8811	1.0343	26.91	0.95	1.500			
0.3858	24690.11	3.8780	3.8780	1.0488	26.91	0.95	1.500			
0.3889	24892.05	3.8750	3.8749	1.0608	26.90	0.94	1.500			
0.3921	25095.94	3.8720	3.8721	1.0726	26.90	0.94	1.500			
0.3954	25304.19	3.8690	3.8690	1.0878	26.89	0.93	1.500			
0.3987	25516.45	3.8660	3.8661	1.1066	26.88	0.92	1.500			
0.4020	25729.79	3.8630	3.8630	1.1128	26.88	0.92	1.500			
0.4054	25944.19	3.8600	3.8600	1.1332	26.87	0.91	1.500			
0.4088	26162.74	3.8570	3.8570	1.1469	26.87	0.91	1.500			
0.4123	26384.18	3.8540	3.8540	1.1640	26.86	0.90	1.500			
0.4158	26608.92	3.8510	3.8510	1.1821	26.86	0.90	1.500			
0.4193	26837.80	3.8480	3.8480	1.2013	26.85	0.89	1.500			
0.4230	27069.92	3.8450	3.8449	1.2173	26.84	0.88	1.500			
0.4267	27305.63	3.8420	3.8420	1.2362	26.83	0.87	1.500			
0.4303	27541.72	3.8390	3.8391	1.2535	26.82	0.86	1.500			
0.4342	27785.75	3.8360	3.8360	1.2788	26.81	0.85	1.500			
0.4380	28033.84	3.8330	3.8329	1.2983	26.80	0.84	1.500			
0.4419	28284.48	3.8300	3.8300	1.3165	26.79	0.83	1.500			
0.4459	28539.00	3.8270	3.8271	1.3438	26.78	0.82	1.500			
0.4500	28801.14	3.8240	3.8240	1.3663	26.77	0.81	1.500			
0.4541	29063.30	3.8210	3.8209	1.4019	26.76	0.80	1.500			
0.4583	29333.03	3.8180	3.8181	1.4361	26.75	0.79	1.500			
0.4627	29611.05	3.8150	3.8149	1.4754	26.74	0.78	1.500			
0.4672	29898.71	3.8120	3.8121	1.5169	26.73	0.77	1.500			
0.4718	30196.77	3.8090	3.8090	1.5496	26.72	0.76	1.500			
0.4765	30497.15	3.8060	3.8060	1.5840	26.71	0.75	1.500			
0.4813	30802.95	3.8030	3.8031	1.6195	26.70	0.74	1.500			
0.4862	31116.23	3.8000	3.8000	1.6689	26.69	0.73	1.500			
0.4913	31441.17	3.7970	3.7970	1.7058	26.67	0.71	1.500			
0.4965	31773.13	3.7940	3.7940	1.7478	26.66	0.70	1.500			
0.5018	32114.83	3.7910	3.7911	1.7970	26.64	0.68	1.500			
0.5073	32464.47	3.7880	3.7879	1.8484	26.62	0.66	1.500			
0.5128	32822.25	3.7850	3.7850	1.8846	26.60	0.64	1.500			
0.5185	33185.99	3.7820	3.7820	1.9283	26.59	0.63	1.500			
0.5245	33567.19	3.7790	3.7790	1.9470	26.57	0.61	1.500			
0.5303	33938.75	3.7760	3.7760	1.9967	26.55	0.59	1.500			
0.5364	34327.56	3.7730	3.7730	2.0357	26.53	0.57	1.500			
0.5425	34721.54	3.7700	3.7700	2.0470	26.51	0.55	1.500			
0.5488	35123.76	3.7670	3.7671	2.1063	26.49	0.53	1.500			
0.5552	35533.14	3.7640	3.7637	2.1269	26.47	0.51	1.500	0.356	0.456	
0.5616	35943.98	3.7610	3.7612	2.1051	26.45	0.49	1.500			
0.5680	36352.44	3.7580	3.7580	2.1090	26.43	0.47	1.500			
0.5743	36755.99	3.7550	3.7549	2.0630	26.42	0.46	1.500			
0.5804	37142.93	3.7520	3.7521	2.0499	26.40	0.44	1.500			
0.5865	37535.32	3.7490	3.7490	2.0259	26.39	0.43	1.500			
0.5925	37921.63	3.7460	3.7460	2.0201	26.37	0.41	1.500			
0.5986	38308.51	3.7430	3.7431	2.0071	26.36	0.40	1.500			
0.6046	38694.82	3.7400	3.7400	1.9927	26.34	0.38	1.500			
0.6105	39074.44	3.7370	3.7370	2.0061	26.33	0.37	1.500			
0.6165	39456.91	3.7340	3.7340	2.0490	26.31	0.35	1.500			
0.6227	39855.32	3.7310	3.7309	2.0421	26.30	0.34	1.500			
0.6289	40249.31	3.7280	3.7281	2.1000	26.28	0.32	1.500			
0.6353	40657.91	3.7250	3.7251	2.1554	26.26	0.30	1.500			
0.6418	41075.10	3.7220	3.7220	2.1915	26.24	0.28	1.500			
0.6483	41493.33	3.7190	3.7192	2.2480	26.23	0.27	1.500			
0.6553	41940.41	3.7160	3.7160	2.3584	26.21	0.25	1.500			
0.6623	42388.22	3.7130	3.7129	2.4095	26.19	0.23	1.500			
0.6697	42861.98	3.7100	3.7100	2.5245	26.18	0.22	1.500			
0.6775	43357.64	3.7070	3.7070	2.5721	26.16	0.20	1.500			
0.6852	43853.50	3.7040	3.7041	2.6275	26.15	0.19	1.500			
0.6932	44362.73	3.7010	3.7011	2.6822	26.13	0.17	1.500			
0.7014	44890.23	3.6980	3.6980	2.6618	26.12	0.16	1.500			
0.7094	45402.60	3.6950	3.6951	2.5889	26.11	0.15	1.500			
0.7172	45900.62	3.6920	3.6921	2.4690	26.09	0.13	1.500			
0.7244	46361.47	3.6890	3.6890	2.2847	26.08	0.12	1.500			
0.7310	46785.78	3.6860	3.6860	2.1114	26.07	0.11	1.500			
0.7369	47161.26	3.6830	3.6830	1.9069	26.06	0.10	1.500			
0.7422	47502.42	3.6800	3.6801	1.7478	26.06	0.10	1.500			
0.7473	47825.84	3.6770	3.6769	1.6475	26.05	0.09	1.500			
0.7520	48129.15	3.6740	3.6740	1.5526	26.05	0.09	1.500			
0.7565	48415.64	3.6710	3.6710	1.4679	26.05	0.09	1.500			
0.7607	48687.15	3.6680	3.6681	1.3988	26.04	0.08	1.500			
0.7648	48946.39	3.6650	3.6650	1.3449	26.04	0.08	1.500			
0.7687	49195.91	3.6620	3.6619	1.2960	26.03	0.07	1.500			
0.7724	49435.05	3.6590	3.6590	1.2668	26.03	0.07	1.500			
0.7762	49674.72	3.6560	3.6560	1.2461	26.02	0.06	1.500			
0.7799	49910.59	3.6530	3.6530	1.2458	26.01	0.05	1.500			
0.7835	50146.17	3.6500	3.6501	1.2570	26.01	0.05	1.500			
0.7873	50384.78	3.6470	3.6470	1.2658	26.00	0.04	1.500			
0.7911	50631.25	3.6440	3.6440	1.2809	26.00	0.04	1.500			
0.7950	50880.22	3.6410	3.6410	1.2985	25.99	0.03	1.500			
0.7989	51132.68	3.6380	3.6381	1.3013	25.98	0.02	1.500			
0.8029	51387.69	3.6350	3.6350	1.3078	25.98	0.02	1.500			
0.8068	51637.61	3.6320	3.6320	1.2993	25.97	0.01	1.500			
0.8107	51885.77	3.6290	3.6290	1.2967	25.97	0.01	1.500			
0.8146	52134.15	3.6260	3.6260	1.2931	25.96	-0.00	1.500			
0.8185	52382.12	3.6230	3.6230	1.2901	25.96	-0.00	1.500			
0.8223	52629.62	3.6200	3.6200	1.2854	25.95	-0.01	1.500			
0.8262	52878.04	3.6170	3.6170	1.2794	25.95	-0.01	1.500			
0.8300	53122.43	3.6140	3.6140	1.2748	25.95	-0.01	1.500			
0.8339	53366.98	3.6110	3.6110	1.2677	25.94	-0.02	1.500			
0.8377	53609.90	3.6080	3.6079	1.2575	25.94	-0.02	1.500			
0.8414	53850.82	3.6050	3.6050	1.2514	25.94	-0.02	1.500			
0.8452	54091.84	3.6020	3.6020	1.2372	25.94	-0.02	1.500			
0.8489	54328.35	3.5990	3.5990	1.2237	25.93	-0.03	1.500			
0.8525	54562.45	3.5960	3.5959	1.2038	25.93	-0.03	1.500			
0.8561	54791.44	3.5930	3.5931	1.1895	25.93	-0.03	1.500			
0.8596	55017.04	3.5900	3.5900	1.1758	25.92	-0.04	1.500			
0.8631	55239.57	3.5870	3.5869	1.1690	25.92	-0.04	1.500			
0.8666	55462.53	3.5840	3.5841	1.1612	25.92	-0.04	1.500			
0.8701	55686.31	3.5810	3.5810	1.1623	25.93	-0.03	1.500			
0.8737	55914.92	3.5780	3.5779	1.1443	25.94	-0.02	1.500			
0.8772	56140.09	3.5750	3.5749	1.1041	25.94	-0.02	1.500			
0.8806	56359.72	3.5720	3.5719	1.0261	25.95	-0.01	1.500			
0.8837	56554.62	3.5690	3.5691	0.9182	25.95	-0.01	1.500			
0.8863	56724.80	3.5660	3.5663	0.7939	25.96	-0.00	1.500			
0.8885	56862.87	3.5630	3.5630	0.6587	25.96	-0.00	1.500			
0.8901	56965.12	3.5600	3.5600	0.5342	25.96	0.00	1.500			
0.8914	57050.18	3.5570	3.5571	0.4408	25.96	0.00	1.500			
0.8925	57121.14	3.5540	3.5539	0.3560	25.97	0.01	1.500			
0.8934	57180.16	3.5510	3.5509	0.3040	25.97	0.01	1.500			
0.8942	57229.64	3.5480	3.5480	0.2607	25.97	0.01	1.500			
0.8949	57273.68	3.5450	3.5450	0.2296	25.97	0.01	1.500			
0.8955	57313.09	3.5420	3.5420	0.2011	25.97	0.01	1.500			
0.8961	57348.77	3.5390	3.5390	0.1822	25.97	0.01	1.500			
0.8966	57380.81	3.5360	3.5360	0.1640	25.97	0.01	1.500			
0.8970	57410.23	3.5330	3.5329	0.1470	25.97	0.01	1.500			
0.8975	57436.92	3.5300	3.5301	0.1327	25.97	0.01	1.500			
0.8978	57460.81	3.5270	3.5270	0.1180	25.97	0.01	1.500			
0.8982	57482.12	3.5240	3.5240	0.1040	25.97	0.01	1.500			
0.8984	57500.80	3.5210	3.5210	0.0900	25.98	0.02	1.500			
0.8987	57516.72	3.5180	3.5182	0.0759	25.98	0.02	1.500			
0.8989	57529.88	3.5150	3.5154	0.0619	25.98	0.02	1.500			
0.8991	57540.42	3.5120	3.5126	0.0479	25.98	0.02	1.500			
