Ah_balance (normalized)	Ah_balance (mAh)	Voltage - fit (V)	Voltage -  interpolate (V)	dQ/dV (1/V)	Temperature (°C)	Temperature - diff (°C)	Current (C)	R_DC 0ms (mOhm)	R_DC 50ms (mOhm)	R_DC 50 ms PEC (mOhm)
0.2059	13176.03	3.9110	3.9108	-0.1195	25.98	0.00	-1.500			
0.2063	13202.24	3.9080	3.9080	-0.1510	25.98	0.00	-1.500			
0.2068	13234.50	3.9050	3.9050	-0.1808	25.98	0.00	-1.500			
0.2074	13271.80	3.9020	3.9020	-0.2108	25.98	0.00	-1.500			
0.2081	13315.55	3.8990	3.8990	-0.2386	25.98	0.00	-1.500			
0.2088	13364.76	3.8960	3.8960	-0.2672	25.98	0.00	-1.500			
0.2097	13419.07	3.8930	3.8930	-0.2936	25.98	0.00	-1.500			
0.2106	13477.84	3.8900	3.8901	-0.3197	25.98	0.00	-1.500			
0.2116	13541.69	3.8870	3.8871	-0.3470	25.98	0.00	-1.500			
0.2127	13610.97	3.8840	3.8840	-0.3728	25.98	0.00	-1.500			
0.2138	13684.89	3.8810	3.8809	-0.3973	25.98	0.00	-1.500			
0.2151	13764.04	3.8780	3.8780	-0.4229	25.98	0.00	-1.500			
0.2164	13847.91	3.8750	3.8751	-0.4478	25.98	0.00	-1.500			
0.2178	13936.13	3.8720	3.8720	-0.4708	25.98	0.00	-1.500			
0.2192	14028.34	3.8690	3.8691	-0.4941	25.98	0.00	-1.500			
0.2207	14125.89	3.8660	3.8660	-0.5156	25.98	0.00	-1.500			
0.2223	14227.28	3.8630	3.8630	-0.5400	25.98	0.00	-1.500			
0.2240	14334.10	3.8600	3.8600	-0.5581	25.98	0.00	-1.500			
0.2257	14442.87	3.8570	3.8570	-0.5757	25.98	0.00	-1.500			
0.2274	14556.03	3.8540	3.8540	-0.5937	25.98	0.00	-1.500			
0.2292	14671.79	3.8510	3.8510	-0.6090	25.98	0.00	-1.500			
0.2311	14790.57	3.8480	3.8479	-0.6222	25.98	0.00	-1.500			
0.2330	14911.96	3.8450	3.8450	-0.6341	25.98	0.00	-1.500			
0.2349	15035.11	3.8420	3.8420	-0.6434	25.98	0.00	-1.500			
0.2369	15160.63	3.8390	3.8391	-0.6516	25.98	0.00	-1.500			
0.2389	15286.85	3.8360	3.8360	-0.6560	25.98	0.00	-1.500			
0.2408	15412.77	3.8330	3.8330	-0.6647	25.98	0.00	-1.500			
0.2428	15540.84	3.8300	3.8300	-0.6711	25.98	0.00	-1.500			
0.2449	15671.42	3.8270	3.8269	-0.6780	25.99	0.01	-1.500			
0.2469	15801.68	3.8240	3.8241	-0.6813	25.99	0.01	-1.500			
0.2490	15933.94	3.8210	3.8210	-0.6853	25.99	0.01	-1.500			
0.2510	16065.95	3.8180	3.8180	-0.6877	25.99	0.01	-1.500			
0.2531	16198.04	3.8150	3.8150	-0.6907	25.99	0.01	-1.500			
0.2552	16329.84	3.8120	3.8121	-0.6911	25.99	0.01	-1.500			
0.2572	16463.79	3.8090	3.8089	-0.6935	26.00	0.02	-1.500			
0.2593	16597.33	3.8060	3.8060	-0.6934	26.00	0.02	-1.500			
0.2614	16730.22	3.8030	3.8031	-0.6943	26.00	0.02	-1.500			
0.2635	16863.78	3.8000	3.8000	-0.6937	26.00	0.02	-1.500			
0.2656	16997.25	3.7970	3.7969	-0.6919	26.01	0.03	-1.500			
0.2676	17129.56	3.7940	3.7940	-0.6941	26.01	0.03	-1.500			
0.2697	17262.72	3.7910	3.7910	-0.6957	26.01	0.03	-1.500			
0.2718	17397.28	3.7880	3.7879	-0.6984	26.02	0.04	-1.500			
0.2739	17531.79	3.7850	3.7851	-0.6976	26.02	0.04	-1.500			
0.2760	17665.43	3.7820	3.7820	-0.6989	26.02	0.04	-1.500			
0.2781	17800.19	3.7790	3.7791	-0.7000	26.03	0.05	-1.500			
0.2802	17934.98	3.7760	3.7759	-0.6998	26.03	0.05	-1.500			
0.2823	18068.15	3.7730	3.7731	-0.7002	26.03	0.05	-1.500			
0.2844	18202.69	3.7700	3.7700	-0.7026	26.04	0.06	-1.500			
0.2865	18337.84	3.7670	3.7671	-0.7036	26.04	0.06	-1.500			
0.2887	18473.77	3.7640	3.7640	-0.7070	26.04	0.06	-1.500			
0.2908	18609.70	3.7610	3.7610	-0.7045	26.05	0.07	-1.500			
0.2929	18745.76	3.7580	3.7580	-0.7047	26.06	0.08	-1.500			
0.2950	18880.78	3.7550	3.7551	-0.7043	26.06	0.08	-1.500			
0.2971	19014.87	3.7520	3.7520	-0.7074	26.07	0.09	-1.500			
0.2992	19151.05	3.7490	3.7490	-0.7098	26.07	0.09	-1.500			
0.3014	19287.15	3.7460	3.7460	-0.7132	26.08	0.10	-1.500			
0.3035	19424.15	3.7430	3.7430	-0.7167	26.08	0.10	-1.500			
0.3057	19564.04	3.7400	3.7400	-0.7224	26.09	0.11	-1.500			
0.3079	19702.47	3.7370	3.7370	-0.7246	26.09	0.11	-1.500			
0.3100	19841.36	3.7340	3.7340	-0.7281	26.10	0.12	-1.500			
0.3122	19981.33	3.7310	3.7310	-0.7317	26.10	0.12	-1.500			
0.3144	20122.91	3.7280	3.7280	-0.7356	26.11	0.13	-1.500			
0.3166	20264.60	3.7250	3.7250	-0.7363	26.11	0.13	-1.500			
0.3188	20405.55	3.7220	3.7221	-0.7441	26.11	0.13	-1.500			
0.3211	20548.37	3.7190	3.7190	-0.7494	26.12	0.14	-1.500			
0.3233	20692.26	3.7160	3.7160	-0.7564	26.12	0.14	-1.500			
0.3256	20837.67	3.7130	3.7130	-0.7627	26.13	0.15	-1.500			
0.3279	20985.05	3.7100	3.7100	-0.7731	26.13	0.15	-1.500			
0.3302	21135.39	3.7070	3.7070	-0.7807	26.14	0.16	-1.500			
0.3326	21286.34	3.7040	3.7040	-0.7862	26.14	0.16	-1.500			
0.3349	21436.32	3.7010	3.7010	-0.7933	26.15	0.17	-1.500			
0.3374	21590.64	3.6980	3.6980	-0.8032	26.15	0.17	-1.500			
0.3398	21745.22	3.6950	3.6950	-0.8094	26.16	0.18	-1.500			
0.3422	21900.74	3.6920	3.6920	-0.8229	26.16	0.18	-1.500			
0.3447	22059.28	3.6890	3.6890	-0.8346	26.17	0.19	-1.500			
0.3472	22220.58	3.6860	3.6859	-0.8455	26.17	0.19	-1.500			
0.3497	22383.75	3.6830	3.6830	-0.8618	26.18	0.20	-1.500			
0.3524	22550.43	3.6800	3.6801	-0.8707	26.18	0.20	-1.500			
0.3550	22719.31	3.6770	3.6770	-0.8871	26.19	0.21	-1.500			
0.3577	22891.51	3.6740	3.6740	-0.8990	26.19	0.21	-1.500			
0.3604	23064.19	3.6710	3.6709	-0.9089	26.20	0.22	-1.500			
0.3631	23240.15	3.6680	3.6680	-0.9236	26.20	0.22	-1.500			
0.3659	23418.92	3.6650	3.6651	-0.9342	26.21	0.23	-1.500			
0.3687	23597.95	3.6620	3.6619	-0.9479	26.21	0.23	-1.500			
0.3716	23780.19	3.6590	3.6591	-0.9658	26.22	0.24	-1.500			
0.3745	23967.42	3.6560	3.6559	-0.9851	26.22	0.24	-1.500			
0.3775	24158.26	3.6530	3.6530	-1.0093	26.23	0.25	-1.500			
0.3806	24355.50	3.6500	3.6499	-1.0271	26.23	0.25	-1.500			
0.3837	24555.72	3.6470	3.6470	-1.0438	26.24	0.26	-1.500			
0.3868	24758.32	3.6440	3.6440	-1.0629	26.24	0.26	-1.500			
0.3901	24963.54	3.6410	3.6410	-1.0738	26.24	0.26	-1.500			
0.3933	25169.36	3.6380	3.6380	-1.0948	26.25	0.27	-1.500			
0.3966	25379.66	3.6350	3.6350	-1.1143	26.25	0.27	-1.500			
0.3999	25595.48	3.6320	3.6320	-1.1310	26.25	0.27	-1.500			
0.4034	25815.39	3.6290	3.6290	-1.1543	26.25	0.27	-1.500			
0.4069	26039.14	3.6260	3.6261	-1.1805	26.26	0.28	-1.500			
0.4104	26266.59	3.6230	3.6230	-1.2057	26.26	0.28	-1.500			
0.4141	26502.30	3.6200	3.6199	-1.2293	26.26	0.28	-1.500			
0.4178	26740.20	3.6170	3.6170	-1.2451	26.26	0.28	-1.500			
0.4216	26983.64	3.6140	3.6140	-1.2650	26.27	0.29	-1.500			
0.4255	27229.70	3.6110	3.6110	-1.2913	26.27	0.29	-1.500			
0.4294	27479.64	3.6080	3.6079	-1.3016	26.27	0.29	-1.500			
0.4333	27729.09	3.6050	3.6049	-1.3162	26.28	0.30	-1.500			
0.4372	27983.76	3.6020	3.6022	-1.3335	26.28	0.30	-1.500			
0.4413	28242.26	3.5990	3.5990	-1.3547	26.28	0.30	-1.500			
0.4453	28501.00	3.5960	3.5960	-1.3849	26.29	0.31	-1.500			
0.4495	28767.09	3.5930	3.5930	-1.4073	26.29	0.31	-1.500			
0.4538	29042.37	3.5900	3.5899	-1.4350	26.29	0.31	-1.500			
0.4581	29320.87	3.5870	3.5870	-1.4554	26.30	0.32	-1.500			
0.4625	29602.83	3.5840	3.5842	-1.4768	26.30	0.32	-1.500			
0.4670	29889.69	3.5810	3.5809	-1.4962	26.30	0.32	-1.500			
0.4715	30178.43	3.5780	3.5780	-1.5137	26.30	0.32	-1.500			
0.4761	30469.62	3.5750	3.5750	-1.5301	26.30	0.32	-1.500			
0.4807	30765.80	3.5720	3.5720	-1.5531	26.30	0.32	-1.500			
0.4854	31065.93	3.5690	3.5690	-1.5705	26.30	0.32	-1.500			
0.4901	31369.19	3.5660	3.5660	-1.5878	26.30	0.32	-1.500			
0.4949	31674.52	3.5630	3.5630	-1.6082	26.31	0.33	-1.500			
0.4998	31988.15	3.5600	3.5600	-1.6196	26.31	0.33	-1.500			
0.5047	32298.58	3.5570	3.5570	-1.6375	26.31	0.33	-1.500			
0.5096	32616.07	3.5540	3.5540	-1.6574	26.32	0.34	-1.500			
0.5146	32935.86	3.5510	3.5511	-1.6731	26.32	0.34	-1.500			
0.5196	33257.24	3.5480	3.5479	-1.6864	26.33	0.35	-1.500			
0.5247	33583.98	3.5450	3.5450	-1.7069	26.33	0.35	-1.500			
0.5299	33913.19	3.5420	3.5420	-1.7267	26.33	0.35	-1.500			
0.5352	34252.29	3.5390	3.5389	-1.7436	26.34	0.36	-1.500			
0.5404	34585.70	3.5360	3.5359	-1.7379	26.34	0.36	-1.500			
0.5457	34921.99	3.5330	3.5336	-1.7469	26.35	0.37	-1.500	0.380	0.517	
0.5509	35257.23	3.5300	3.5300	-1.7467	26.36	0.38	-1.500			
0.5561	35590.33	3.5270	3.5270	-1.7468	26.36	0.38	-1.500			
0.5613	35924.54	3.5240	3.5240	-1.7532	26.37	0.39	-1.500			
0.5666	36262.30	3.5210	3.5210	-1.7713	26.38	0.40	-1.500			
0.5720	36605.84	3.5180	3.5180	-1.7744	26.39	0.41	-1.500			
0.5773	36947.01	3.5150	3.5150	-1.7787	26.40	0.42	-1.500			
0.5827	37290.67	3.5120	3.5120	-1.7809	26.40	0.42	-1.500			
0.5880	37632.26	3.5090	3.5091	-1.7802	26.41	0.43	-1.500			
0.5933	37973.38	3.5060	3.5060	-1.7773	26.42	0.44	-1.500			
0.5987	38314.37	3.5030	3.5030	-1.7769	26.43	0.45	-1.500			
0.6040	38656.90	3.5000	3.5000	-1.7715	26.44	0.46	-1.500			
0.6093	38997.68	3.4970	3.4970	-1.7702	26.45	0.47	-1.500			
0.6146	39337.40	3.4940	3.4940	-1.7663	26.46	0.48	-1.500			
0.6200	39678.63	3.4910	3.4909	-1.7610	26.47	0.49	-1.500			
0.6252	40015.78	3.4880	3.4880	-1.7577	26.48	0.50	-1.500			
0.6305	40351.94	3.4850	3.4850	-1.7541	26.49	0.51	-1.500			
0.6358	40690.70	3.4820	3.4819	-1.7489	26.50	0.52	-1.500			
0.6410	41026.87	3.4790	3.4790	-1.7356	26.51	0.53	-1.500			
0.6462	41358.94	3.4760	3.4760	-1.7179	26.53	0.55	-1.500			
0.6514	41686.68	3.4730	3.4730	-1.6979	26.55	0.57	-1.500			
0.6564	42012.75	3.4700	3.4700	-1.6749	26.56	0.58	-1.500			
0.6614	42332.21	3.4670	3.4671	-1.6447	26.58	0.60	-1.500			
0.6663	42642.66	3.4640	3.4640	-1.6241	26.60	0.62	-1.500			
0.6711	42951.64	3.4610	3.4610	-1.6064	26.61	0.63	-1.500			
0.6759	43260.28	3.4580	3.4579	-1.5845	26.63	0.65	-1.500			
0.6807	43561.80	3.4550	3.4550	-1.5636	26.64	0.66	-1.500			
0.6853	43861.85	3.4520	3.4522	-1.5474	26.66	0.68	-1.500			
0.6900	44158.32	3.4490	3.4489	-1.5257	26.67	0.69	-1.500			
0.6945	44449.65	3.4460	3.4460	-1.4981	26.69	0.71	-1.500			
0.6989	44731.64	3.4430	3.4430	-1.4785	26.70	0.72	-1.500			
0.7033	45012.18	3.4400	3.4400	-1.4537	26.71	0.73	-1.500			
0.7077	45293.36	3.4370	3.4370	-1.4401	26.73	0.75	-1.500			
0.7120	45564.85	3.4340	3.4341	-1.4215	26.74	0.76	-1.500			
0.7162	45835.30	3.4310	3.4310	-1.4100	26.76	0.78	-1.500			
0.7204	46104.74	3.4280	3.4280	-1.4017	26.79	0.81	-1.500			
0.7246	46372.32	3.4250	3.4250	-1.3897	26.81	0.83	-1.500			
0.7287	46639.50	3.4220	3.4220	-1.3769	26.83	0.85	-1.500			
0.7329	46904.47	3.4190	3.4190	-1.3647	26.84	0.86	-1.500			
0.7370	47165.73	3.4160	3.4162	-1.3470	26.85	0.87	-1.500			
0.7410	47422.44	3.4130	3.4130	-1.3240	26.87	0.89	-1.500			
0.7449	47674.46	3.4100	3.4100	-1.2982	26.89	0.91	-1.500			
0.7488	47923.03	3.4070	3.4070	-1.2700	26.91	0.93	-1.500			
0.7526	48164.08	3.4040	3.4041	-1.2409	26.93	0.95	-1.500			
0.7563	48400.14	3.4010	3.4010	-1.2040	26.95	0.97	-1.500			
0.7598	48629.18	3.3980	3.3980	-1.1654	26.96	0.98	-1.500			
0.7633	48849.90	3.3950	3.3949	-1.1224	26.97	0.99	-1.500			
0.7666	49061.46	3.3920	3.3921	-1.0804	26.99	1.01	-1.500			
0.7698	49264.42	3.3890	3.3890	-1.0421	27.01	1.03	-1.500			
0.7728	49459.91	3.3860	3.3860	-1.0015	27.03	1.05	-1.500			
0.7757	49646.96	3.3830	3.3830	-0.9627	27.04	1.06	-1.500			
0.7786	49828.20	3.3800	3.3802	-0.9288	27.06	1.08	-1.500			
0.7813	50002.87	3.3770	3.3769	-0.8922	27.07	1.09	-1.500			
0.7839	50171.31	3.3740	3.3740	-0.8594	27.08	1.10	-1.500			
0.7864	50331.66	3.3710	3.3711	-0.8276	27.09	1.11	-1.500			
0.7889	50488.07	3.3680	3.3679	-0.8000	27.10	1.12	-1.500			
0.7912	50638.76	3.3650	3.3650	-0.7693	27.12	1.14	-1.500			
0.7935	50781.49	3.3620	3.3620	-0.7412	27.13	1.15	-1.500			
0.7956	50920.94	3.3590	3.3591	-0.7208	27.14	1.16	-1.500			
0.7978	51057.36	3.3560	3.3559	-0.6993	27.15	1.17	-1.500			
0.7998	51189.73	3.3530	3.3530	-0.6740	27.16	1.18	-1.500			
0.8018	51316.71	3.3500	3.3500	-0.6498	27.17	1.19	-1.500			
0.8037	51438.77	3.3470	3.3470	-0.6322	27.18	1.20	-1.500			
0.8056	51558.17	3.3440	3.3440	-0.6135	27.19	1.21	-1.500			
0.8074	51673.85	3.3410	3.3409	-0.5917	27.20	1.22	-1.500			
0.8091	51784.69	3.3380	3.3379	-0.5713	27.20	1.22	-1.500			
0.8108	51893.26	3.3350	3.3352	-0.5560	27.21	1.23	-1.500			
0.8125	51999.31	3.3320	3.3320	-0.5388	27.22	1.24	-1.500			
0.8141	52099.90	3.3290	3.3289	-0.5234	27.22	1.24	-1.500			
0.8156	52198.25	3.3260	3.3260	-0.5058	27.23	1.25	-1.500			
0.8171	52293.12	3.3230	3.3230	-0.4932	27.24	1.26	-1.500			
0.8185	52386.99	3.3200	3.3201	-0.4831	27.25	1.27	-1.500			
0.8200	52478.38	3.3170	3.3170	-0.4703	27.25	1.27	-1.500			
0.8214	52567.97	3.3140	3.3139	-0.4552	27.26	1.28	-1.500			
0.8227	52654.23	3.3110	3.3110	-0.4437	27.27	1.29	-1.500			
0.8240	52737.70	3.3080	3.3080	-0.4292	27.28	1.30	-1.500			
0.8253	52818.81	3.3050	3.3050	-0.4204	27.28	1.30	-1.500			
0.8265	52897.96	3.3020	3.3020	-0.4072	27.29	1.31	-1.500			
0.8277	52974.49	3.2990	3.2990	-0.3960	27.30	1.32	-1.500			
0.8289	53049.96	3.2960	3.2960	-0.3859	27.30	1.32	-1.500			
0.8301	53123.74	3.2930	3.2932	-0.3767	27.31	1.33	-1.500			
0.8312	53194.10	3.2900	3.2900	-0.3656	27.31	1.33	-1.500			
0.8322	53263.26	3.2870	3.2869	-0.3568	27.32	1.34	-1.500			
0.8333	53330.34	3.2840	3.2840	-0.3476	27.32	1.34	-1.500			
0.8343	53396.15	3.2810	3.2811	-0.3389	27.33	1.35	-1.500			
0.8353	53461.29	3.2780	3.2779	-0.3311	27.33	1.35	-1.500			
0.8363	53524.02	3.2750	3.2750	-0.3234	27.34	1.36	-1.500			
0.8373	53584.72	3.2720	3.2720	-0.3158	27.34	1.36	-1.500			
0.8382	53644.56	3.2690	3.2690	-0.3077	27.35	1.37	-1.500			
0.8391	53702.67	3.2660	3.2659	-0.3007	27.36	1.38	-1.500			
0.8400	53759.91	3.2630	3.2630	-0.2939	27.36	1.38	-1.500			
0.8409	53815.83	3.2600	3.2601	-0.2892	27.37	1.39	-1.500			
0.8417	53870.76	3.2570	3.2570	-0.2828	27.37	1.39	-1.500			
0.8426	53924.16	3.2540	3.2540	-0.2767	27.38	1.40	-1.500			
0.8434	53976.91	3.2510	3.2510	-0.2718	27.38	1.40	-1.500			
0.8442	54028.83	3.2480	3.2481	-0.2671	27.39	1.41	-1.500			
0.8450	54079.39	3.2450	3.2449	-0.2611	27.39	1.41	-1.500			
0.8458	54129.01	3.2420	3.2422	-0.2564	27.40	1.42	-1.500			
0.8465	54177.20	3.2390	3.2390	-0.2505	27.40	1.42	-1.500			
0.8473	54225.28	3.2360	3.2360	-0.2470	27.41	1.43	-1.500			
0.8480	54272.43	3.2330	3.2329	-0.2416	27.41	1.43	-1.500			
0.8487	54317.82	3.2300	3.2300	-0.2368	27.42	1.44	-1.500			
0.8494	54362.77	3.2270	3.2270	-0.2335	27.42	1.44	-1.500			
0.8501	54407.30	3.2240	3.2241	-0.2301	27.43	1.45	-1.500			
0.8508	54451.10	3.2210	3.2210	-0.2266	27.43	1.45	-1.500			
0.8515	54493.96	3.2180	3.2179	-0.2235	27.43	1.45	-1.500			
0.8521	54536.69	3.2150	3.2151	-0.2208	27.44	1.46	-1.500			
0.8528	54579.33	3.2120	3.2120	-0.2182	27.44	1.46	-1.500			
0.8534	54620.75	3.2090	3.2090	-0.2141	27.45	1.47	-1.500			
0.8541	54661.42	3.2060	3.2060	-0.2110	27.45	1.47	-1.500			
0.8547	54701.41	3.2030	3.2030	-0.2084	27.46	1.48	-1.500			
0.8553	54741.13	3.2000	3.2000	-0.2058	27.46	1.48	-1.500			
0.8559	54780.40	3.1970	3.1969	-0.2033	27.47	1.49	-1.500			
0.8565	54818.98	3.1940	3.1940	-0.2002	27.47	1.49	-1.500			
0.8571	54857.13	3.1910	3.1911	-0.1983	27.48	1.50	-1.500			
0.8577	54895.15	3.1880	3.1879	-0.1966	27.48	1.50	-1.500			
0.8583	54932.68	3.1850	3.1851	-0.1943	27.49	1.51	-1.500			
0.8589	54969.66	3.1820	3.1819	-0.1915	27.49	1.51	-1.500			
0.8595	55006.13	3.1790	3.1790	-0.1890	27.49	1.51	-1.500			
0.8600	55042.17	3.1760	3.1761	-0.1874	27.50	1.52	-1.500			
0.8606	55077.96	3.1730	3.1730	-0.1854	27.50	1.52	-1.500			
0.8611	55113.51	3.1700	3.1700	-0.1831	27.51	1.53	-1.500			
0.8617	55148.21	3.1670	3.1670	-0.1806	27.51	1.53	-1.500			
0.8622	55182.67	3.1640	3.1641	-0.1788	27.52	1.54	-1.500			
0.8628	55216.82	3.1610	3.1610	-0.1770	27.52	1.54	-1.500			
0.8633	55250.64	3.1580	3.1580	-0.1758	27.53	1.55	-1.500			
0.8638	55284.05	3.1550	3.1550	-0.1744	27.54	1.56	-1.500			
0.8643	55317.26	3.1520	3.1520	-0.1728	27.54	1.56	-1.500			
0.8648	55350.37	3.1490	3.1490	-0.1720	27.55	1.57	-1.500			
0.8654	55383.58	3.1460	3.1459	-0.1706	27.55	1.57	-1.500			
0.8659	55416.38	3.1430	3.1430	-0.1688	27.56	1.58	-1.500			
0.8664	55448.62	3.1400	3.1401	-0.1671	27.57	1.59	-1.500			
0.8669	55480.51	3.1370	3.1370	-0.1650	27.57	1.59	-1.500			
0.8674	55511.83	3.1340	3.1339	-0.1638	27.58	1.60	-1.500			
0.8679	55543.10	3.1310	3.1310	-0.1618	27.58	1.60	-1.500			
0.8683	55573.91	3.1280	3.1280	-0.1604	27.59	1.61	-1.500			
0.8688	55604.59	3.1250	3.1250	-0.1592	27.59	1.61	-1.500			
0.8693	55634.92	3.1220	3.1221	-0.1591	27.60	1.62	-1.500			
0.8698	55665.49	3.1190	3.1189	-0.1580	27.60	1.62	-1.500			
0.8702	55695.81	3.1160	3.1160	-0.1567	27.61	1.63	-1.500			
0.8707	55725.79	3.1130	3.1130	-0.1556	27.61	1.63	-1.500			
0.8712	55755.55	3.1100	3.1101	-0.1546	27.62	1.64	-1.500			
0.8716	55785.36	3.1070	3.1070	-0.1540	27.63	1.65	-1.500			
0.8721	55814.79	3.1040	3.1039	-0.1522	27.63	1.65	-1.500			
0.8726	55843.87	3.1010	3.1010	-0.1507	27.64	1.66	-1.500			
0.8730	55872.38	3.0980	3.0980	-0.1494	27.64	1.66	-1.500			
0.8735	55901.13	3.0950	3.0951	-0.1488	27.65	1.67	-1.500			
0.8739	55929.59	3.0920	3.0918	-0.1477	27.65	1.67	-1.500			
0.8743	55957.84	3.0890	3.0890	-0.1466	27.66	1.68	-1.500			
0.8748	55985.71	3.0860	3.0860	-0.1457	27.66	1.68	-1.500			
0.8752	56013.63	3.0830	3.0830	-0.1445	27.67	1.69	-1.500			
0.8756	56041.40	3.0800	3.0800	-0.1441	27.67	1.69	-1.500			
0.8761	56068.97	3.0770	3.0769	-0.1431	27.68	1.70	-1.500			
0.8765	56096.21	3.0740	3.0740	-0.1421	27.68	1.70	-1.500			
0.8769	56123.36	3.0710	3.0709	-0.1414	27.69	1.71	-1.500			
0.8774	56150.43	3.0680	3.0680	-0.1408	27.69	1.71	-1.500			
0.8778	56177.43	3.0650	3.0650	-0.1401	27.70	1.72	-1.500			
0.8782	56204.36	3.0620	3.0619	-0.1390	27.70	1.72	-1.500			
0.8786	56231.17	3.0590	3.0591	-0.1382	27.71	1.73	-1.500			
0.8790	56257.56	3.0560	3.0560	-0.1370	27.71	1.73	-1.500			
0.8794	56283.61	3.0530	3.0530	-0.1362	27.71	1.73	-1.500			
0.8798	56309.72	3.0500	3.0499	-0.1351	27.72	1.74	-1.500			
0.8802	56335.45	3.0470	3.0470	-0.1339	27.72	1.74	-1.500			
0.8806	56361.07	3.0440	3.0440	-0.1332	27.73	1.75	-1.500			
0.8810	56386.29	3.0410	3.0411	-0.1334	27.73	1.75	-1.500			
0.8814	56412.20	3.0380	3.0379	-0.1328	27.74	1.76	-1.500			
0.8818	56437.64	3.0350	3.0350	-0.1321	27.74	1.76	-1.500			
0.8822	56463.01	3.0320	3.0318	-0.1310	27.75	1.77	-1.500			
0.8826	56488.03	3.0290	3.0292	-0.1303	27.75	1.77	-1.500			
0.8830	56513.14	3.0260	3.0261	-0.1298	27.76	1.78	-1.500			
0.8834	56537.96	3.0230	3.0229	-0.1286	27.76	1.78	-1.500			
0.8838	56562.42	3.0200	3.0199	-0.1276	27.76	1.78	-1.500			
0.8842	56586.48	3.0170	3.0170	-0.1263	27.77	1.79	-1.500			
0.8845	56611.19	3.0140	3.0141	-0.1257	27.77	1.79	-1.500			
0.8849	56635.18	3.0110	3.0109	-0.1242	27.78	1.80	-1.500			
0.8853	56659.04	3.0080	3.0079	-0.1224	27.78	1.80	-1.500			
0.8857	56682.32	3.0050	3.0052	-0.1206	27.79	1.81	-1.500			
0.8860	56705.29	3.0020	3.0020	-0.1187	27.79	1.81	-1.500			
