Ah_balance (normalized)	Ah_balance (mAh)	Voltage - fit (V)	Voltage -  interpolate (V)	dQ/dV (1/V)	Temperature (°C)	Temperature - diff (°C)	Current (C)	R_DC 0ms (mOhm)	R_DC 50ms (mOhm)	R_DC 50 ms PEC (mOhm)
0.2932	18766.06	3.9740	3.9740	0.8745	27.21	1.23	1.500			
0.2959	18934.85	3.9710	3.9710	0.8758	27.20	1.22	1.500			
0.2985	19101.26	3.9680	3.9680	0.8706	27.20	1.22	1.500			
0.3011	19267.86	3.9650	3.9651	0.8731	27.20	1.22	1.500			
0.3037	19435.14	3.9620	3.9619	0.8754	27.19	1.21	1.500			
0.3063	19602.52	3.9590	3.9589	0.8805	27.19	1.21	1.500			
0.3089	19772.29	3.9560	3.9561	0.8866	27.18	1.20	1.500			
0.3116	19945.58	3.9530	3.9529	0.8825	27.18	1.20	1.500			
0.3143	20115.26	3.9500	3.9500	0.8810	27.18	1.20	1.500			
0.3169	20281.10	3.9470	3.9472	0.8845	27.17	1.19	1.500			
0.3195	20449.85	3.9440	3.9439	0.8919	27.17	1.19	1.500			
0.3222	20621.22	3.9410	3.9409	0.8986	27.16	1.18	1.500			
0.3249	20795.02	3.9380	3.9380	0.9050	27.16	1.18	1.500			
0.3277	20970.48	3.9350	3.9351	0.9172	27.15	1.17	1.500			
0.3305	21150.02	3.9320	3.9320	0.9249	27.15	1.17	1.500			
0.3332	21327.07	3.9290	3.9290	0.9250	27.14	1.16	1.500			
0.3360	21503.95	3.9260	3.9259	0.9278	27.14	1.16	1.500			
0.3388	21682.55	3.9230	3.9231	0.9283	27.14	1.16	1.500			
0.3416	21861.05	3.9200	3.9200	0.9347	27.13	1.15	1.500			
0.3444	22041.41	3.9170	3.9170	0.9419	27.13	1.15	1.500			
0.3472	22221.49	3.9140	3.9140	0.9453	27.12	1.14	1.500			
0.3500	22402.16	3.9110	3.9110	0.9561	27.12	1.14	1.500			
0.3529	22586.37	3.9080	3.9080	0.9654	27.11	1.13	1.500			
0.3558	22773.00	3.9050	3.9050	0.9743	27.11	1.13	1.500			
0.3588	22963.11	3.9020	3.9019	0.9760	27.10	1.12	1.500			
0.3617	23149.99	3.8990	3.8990	0.9817	27.10	1.12	1.500			
0.3647	23338.84	3.8960	3.8961	0.9911	27.09	1.11	1.500			
0.3677	23529.64	3.8930	3.8929	0.9951	27.09	1.11	1.500			
0.3706	23720.23	3.8900	3.8900	1.0031	27.08	1.10	1.500			
0.3736	23913.26	3.8870	3.8870	1.0139	27.08	1.10	1.500			
0.3767	24108.68	3.8840	3.8840	1.0269	27.08	1.10	1.500			
0.3798	24308.49	3.8810	3.8810	1.0359	27.07	1.09	1.500			
0.3829	24506.06	3.8780	3.8780	1.0417	27.07	1.09	1.500			
0.3861	24707.77	3.8750	3.8749	1.0527	27.06	1.08	1.500			
0.3892	24911.24	3.8720	3.8721	1.0672	27.06	1.08	1.500			
0.3924	25115.75	3.8690	3.8689	1.0802	27.05	1.07	1.500			
0.3957	25324.14	3.8660	3.8661	1.0934	27.05	1.07	1.500			
0.3990	25535.72	3.8630	3.8630	1.1035	27.04	1.06	1.500			
0.4023	25750.14	3.8600	3.8600	1.1263	27.04	1.06	1.500			
0.4057	25966.97	3.8570	3.8571	1.1393	27.04	1.06	1.500			
0.4092	26186.77	3.8540	3.8540	1.1550	27.03	1.05	1.500			
0.4126	26409.44	3.8510	3.8510	1.1708	27.03	1.05	1.500			
0.4162	26635.33	3.8480	3.8480	1.1863	27.02	1.04	1.500			
0.4198	26866.05	3.8450	3.8450	1.2066	27.01	1.03	1.500			
0.4235	27101.36	3.8420	3.8420	1.2218	27.01	1.03	1.500			
0.4271	27333.94	3.8390	3.8390	1.2381	27.00	1.02	1.500			
0.4308	27573.61	3.8360	3.8361	1.2660	26.99	1.01	1.500			
0.4346	27817.45	3.8330	3.8330	1.2861	26.98	1.00	1.500			
0.4385	28066.31	3.8300	3.8299	1.3120	26.98	1.00	1.500			
0.4425	28321.18	3.8270	3.8271	1.3392	26.97	0.99	1.500			
0.4466	28581.01	3.8240	3.8240	1.3658	26.96	0.98	1.500			
0.4507	28847.60	3.8210	3.8210	1.3934	26.95	0.97	1.500			
0.4549	29116.08	3.8180	3.8180	1.4165	26.94	0.96	1.500			
0.4592	29388.09	3.8150	3.8150	1.4447	26.93	0.95	1.500			
0.4636	29669.37	3.8120	3.8120	1.4790	26.93	0.95	1.500			
0.4680	29954.40	3.8090	3.8090	1.5150	26.92	0.94	1.500			
0.4726	30247.65	3.8060	3.8060	1.5497	26.91	0.93	1.500			
0.4773	30548.07	3.8030	3.8030	1.5962	26.90	0.92	1.500			
0.4821	30857.45	3.8000	3.8000	1.6406	26.89	0.91	1.500			
0.4872	31178.68	3.7970	3.7971	1.6841	26.88	0.90	1.500			
0.4923	31510.04	3.7940	3.7940	1.7218	26.87	0.89	1.500			
0.4976	31844.10	3.7910	3.7910	1.7584	26.85	0.87	1.500			
0.5029	32186.87	3.7880	3.7880	1.8149	26.84	0.86	1.500			
0.5083	32532.85	3.7850	3.7850	1.8456	26.83	0.85	1.500			
0.5139	32890.10	3.7820	3.7821	1.8917	26.81	0.83	1.500			
0.5197	33262.09	3.7790	3.7790	1.9267	26.80	0.82	1.500			
0.5256	33635.51	3.7760	3.7760	1.9519	26.78	0.80	1.500			
0.5314	34008.38	3.7730	3.7730	1.9684	26.76	0.78	1.500			
0.5374	34390.47	3.7700	3.7700	2.0096	26.75	0.77	1.500			
0.5434	34778.49	3.7670	3.7670	2.0431	26.73	0.75	1.500			
0.5496	35175.85	3.7640	3.7640	2.0295	26.72	0.74	1.500	0.356	0.457	
0.5557	35567.78	3.7610	3.7611	2.0282	26.70	0.72	1.500			
0.5618	35953.39	3.7580	3.7579	2.0124	26.69	0.71	1.500			
0.5677	36334.99	3.7550	3.7550	1.9935	26.67	0.69	1.500			
0.5737	36715.39	3.7520	3.7520	1.9737	26.66	0.68	1.500			
0.5796	37092.27	3.7490	3.7491	1.9742	26.64	0.66	1.500			
0.5855	37469.03	3.7460	3.7457	1.9692	26.62	0.64	1.500			
0.5914	37849.82	3.7430	3.7430	1.9774	26.60	0.62	1.500			
0.5973	38229.12	3.7400	3.7401	1.9772	26.58	0.60	1.500			
0.6033	38610.24	3.7370	3.7370	1.9811	26.57	0.59	1.500			
0.6093	38992.38	3.7340	3.7339	2.0147	26.55	0.57	1.500			
0.6153	39380.57	3.7310	3.7310	2.0535	26.53	0.55	1.500			
0.6216	39780.09	3.7280	3.7280	2.0732	26.51	0.53	1.500			
0.6278	40180.73	3.7250	3.7251	2.1407	26.49	0.51	1.500			
0.6343	40594.56	3.7220	3.7219	2.1956	26.48	0.50	1.500			
0.6409	41019.74	3.7190	3.7191	2.2457	26.46	0.48	1.500			
0.6478	41457.16	3.7160	3.7160	2.3309	26.44	0.46	1.500			
0.6549	41912.66	3.7130	3.7130	2.4177	26.42	0.44	1.500			
0.6623	42384.77	3.7100	3.7099	2.5133	26.40	0.42	1.500			
0.6701	42883.32	3.7070	3.7071	2.6000	26.38	0.40	1.500			
0.6779	43387.86	3.7040	3.7040	2.6431	26.36	0.38	1.500			
0.6859	43898.20	3.7010	3.7009	2.6229	26.34	0.36	1.500			
0.6939	44407.66	3.6980	3.6980	2.6340	26.32	0.34	1.500			
0.7017	44905.90	3.6950	3.6950	2.5206	26.30	0.32	1.500			
0.7091	45383.85	3.6920	3.6920	2.3732	26.28	0.30	1.500			
0.7161	45827.85	3.6890	3.6891	2.1966	26.27	0.29	1.500			
0.7223	46227.86	3.6860	3.6859	2.0015	26.25	0.27	1.500			
0.7280	46592.33	3.6830	3.6830	1.8492	26.24	0.26	1.500			
0.7332	46921.68	3.6800	3.6801	1.7158	26.23	0.25	1.500			
0.7381	47235.83	3.6770	3.6769	1.6106	26.22	0.24	1.500			
0.7427	47531.60	3.6740	3.6741	1.5193	26.20	0.22	1.500			
0.7472	47817.65	3.6710	3.6710	1.4509	26.19	0.21	1.500			
0.7514	48086.64	3.6680	3.6680	1.3915	26.18	0.20	1.500			
0.7554	48344.52	3.6650	3.6650	1.3314	26.17	0.19	1.500			
0.7592	48590.49	3.6620	3.6620	1.2963	26.16	0.18	1.500			
0.7630	48833.50	3.6590	3.6589	1.2701	26.16	0.18	1.500			
0.7667	49071.43	3.6560	3.6560	1.2593	26.15	0.17	1.500			
0.7705	49310.59	3.6530	3.6530	1.2656	26.14	0.16	1.500			
0.7743	49553.55	3.6500	3.6500	1.2696	26.13	0.15	1.500			
0.7781	49797.06	3.6470	3.6470	1.2817	26.12	0.14	1.500			
0.7820	50045.26	3.6440	3.6440	1.2944	26.11	0.13	1.500			
0.7859	50294.71	3.6410	3.6409	1.3042	26.10	0.12	1.500			
0.7898	50547.30	3.6380	3.6381	1.3126	26.09	0.11	1.500			
0.7937	50799.98	3.6350	3.6350	1.3135	26.08	0.10	1.500			
0.7977	51055.59	3.6320	3.6320	1.3056	26.07	0.09	1.500			
0.8016	51304.54	3.6290	3.6291	1.3065	26.06	0.08	1.500			
0.8055	51554.41	3.6260	3.6260	1.3051	26.05	0.07	1.500			
0.8095	51805.25	3.6230	3.6230	1.3030	26.03	0.05	1.500			
0.8134	52054.77	3.6200	3.6200	1.3000	26.03	0.05	1.500			
0.8173	52304.96	3.6170	3.6170	1.3003	26.02	0.04	1.500			
0.8212	52557.04	3.6140	3.6140	1.2906	26.01	0.03	1.500			
0.8251	52805.97	3.6110	3.6110	1.2883	26.00	0.02	1.500			
0.8289	53048.68	3.6080	3.6081	1.2693	25.99	0.01	1.500			
0.8327	53293.52	3.6050	3.6050	1.2584	25.99	0.01	1.500			
0.8365	53534.14	3.6020	3.6019	1.2431	25.98	-0.00	1.500			
0.8402	53770.93	3.5990	3.5990	1.2249	25.98	-0.00	1.500			
0.8438	54004.99	3.5960	3.5960	1.2086	25.97	-0.01	1.500			
0.8474	54235.83	3.5930	3.5930	1.1941	25.97	-0.01	1.500			
0.8510	54461.34	3.5900	3.5900	1.1738	25.97	-0.01	1.500			
0.8544	54683.82	3.5870	3.5870	1.1657	25.97	-0.01	1.500			
0.8579	54907.02	3.5840	3.5840	1.1599	25.96	-0.02	1.500			
0.8614	55132.17	3.5810	3.5809	1.1398	25.96	-0.02	1.500			
0.8649	55353.18	3.5780	3.5779	1.1038	25.96	-0.02	1.500			
0.8683	55573.79	3.5750	3.5750	1.0360	25.97	-0.01	1.500			
0.8714	55770.90	3.5720	3.5721	0.9365	25.97	-0.01	1.500			
0.8742	55947.17	3.5690	3.5691	0.8198	25.97	-0.01	1.500			
0.8764	56091.01	3.5660	3.5660	0.6875	25.97	-0.01	1.500			
0.8782	56203.60	3.5630	3.5630	0.5662	25.97	-0.01	1.500			
0.8796	56297.00	3.5600	3.5599	0.4614	25.97	-0.01	1.500			
0.8807	56366.94	3.5570	3.5571	0.3817	25.98	-0.00	1.500			
0.8817	56429.50	3.5540	3.5541	0.3253	25.98	-0.00	1.500			
0.8826	56483.46	3.5510	3.5508	0.2733	25.98	-0.00	1.500			
0.8833	56530.54	3.5480	3.5479	0.2410	25.98	-0.00	1.500			
0.8839	56571.02	3.5450	3.5451	0.2129	25.98	-0.00	1.500			
0.8845	56609.35	3.5420	3.5419	0.1913	25.98	-0.00	1.500			
0.8851	56643.21	3.5390	3.5390	0.1738	25.98	-0.00	1.500			
0.8855	56673.86	3.5360	3.5360	0.1570	25.98	-0.00	1.500			
0.8860	56702.22	3.5330	3.5330	0.1421	25.98	-0.00	1.500			
0.8864	56728.33	3.5300	3.5300	0.1283	25.98	0.00	1.500			
0.8867	56751.67	3.5270	3.5270	0.1148	25.98	0.00	1.500			
0.8871	56772.56	3.5240	3.5241	0.1015	25.98	0.00	1.500			
0.8874	56790.96	3.5210	3.5211	0.0879	25.98	0.00	1.500			
0.8876	56806.49	3.5180	3.5181	0.0738	25.98	0.00	1.500			
0.8878	56819.37	3.5150	3.5153	0.0594	25.98	0.00	1.500			
0.8880	56829.41	3.5120	3.5126	0.0451	25.98	0.00	1.500			
