Ah_balance (normalized)	Ah_balance (mAh)	Voltage - fit (V)	Voltage -  interpolate (V)	dQ/dV (1/V)	Temperature (°C)	Temperature - diff (°C)	Current (C)	R_DC 0ms (mOhm)	R_DC 50ms (mOhm)	R_DC 50 ms PEC (mOhm)
0.2846	18216.34	3.9690	3.9690	0.9204	27.05	1.06	1.500			
0.2873	18388.20	3.9660	3.9660	0.8980	27.05	1.06	1.500			
0.2900	18557.83	3.9630	3.9632	0.9045	27.05	1.06	1.500			
0.2927	18733.96	3.9600	3.9599	0.9123	27.05	1.06	1.500			
0.2955	18910.51	3.9570	3.9569	0.9146	27.05	1.06	1.500			
0.2982	19086.51	3.9540	3.9541	0.9166	27.05	1.06	1.500			
0.3010	19262.77	3.9510	3.9511	0.9225	27.05	1.06	1.500			
0.3038	19442.37	3.9480	3.9479	0.9307	27.05	1.06	1.500			
0.3065	19618.36	3.9450	3.9450	0.9304	27.05	1.06	1.500			
0.3093	19797.97	3.9420	3.9420	0.9271	27.05	1.06	1.500			
0.3122	19978.80	3.9390	3.9390	0.9374	27.05	1.06	1.500			
0.3150	20157.58	3.9360	3.9360	0.9448	27.05	1.06	1.500			
0.3178	20338.84	3.9330	3.9329	0.9489	27.05	1.06	1.500			
0.3206	20521.11	3.9300	3.9300	0.9525	27.05	1.06	1.500			
0.3235	20703.84	3.9270	3.9270	0.9609	27.05	1.06	1.500			
0.3264	20889.88	3.9240	3.9241	0.9719	27.05	1.06	1.500			
0.3294	21079.51	3.9210	3.9210	0.9808	27.05	1.06	1.500			
0.3323	21267.70	3.9180	3.9179	0.9830	27.04	1.05	1.500			
0.3353	21456.03	3.9150	3.9150	0.9872	27.04	1.05	1.500			
0.3382	21646.36	3.9120	3.9121	0.9987	27.04	1.05	1.500			
0.3412	21838.68	3.9090	3.9090	1.0063	27.04	1.05	1.500			
0.3442	22031.42	3.9060	3.9059	1.0144	27.04	1.05	1.500			
0.3473	22228.04	3.9030	3.9031	1.0219	27.04	1.05	1.500			
0.3504	22425.27	3.9000	3.9000	1.0344	27.04	1.05	1.500			
0.3535	22625.09	3.8970	3.8971	1.0404	27.04	1.05	1.500			
0.3567	22826.23	3.8940	3.8940	1.0463	27.03	1.04	1.500			
0.3598	23026.16	3.8910	3.8910	1.0575	27.03	1.04	1.500			
0.3630	23229.72	3.8880	3.8881	1.0695	27.03	1.04	1.500			
0.3662	23434.78	3.8850	3.8850	1.0872	27.03	1.04	1.500			
0.3695	23646.69	3.8820	3.8819	1.1026	27.03	1.04	1.500			
0.3728	23859.74	3.8790	3.8790	1.1141	27.02	1.03	1.500			
0.3762	24076.66	3.8760	3.8760	1.1307	27.01	1.02	1.500			
0.3796	24294.32	3.8730	3.8731	1.1410	27.01	1.02	1.500			
0.3830	24514.19	3.8700	3.8700	1.1497	27.00	1.01	1.500			
0.3865	24735.20	3.8670	3.8670	1.1625	26.99	1.00	1.500			
0.3900	24958.55	3.8640	3.8640	1.1767	26.99	1.00	1.500			
0.3935	25185.49	3.8610	3.8611	1.2023	26.98	0.99	1.500			
0.3971	25417.36	3.8580	3.8580	1.2237	26.98	0.99	1.500			
0.4009	25656.30	3.8550	3.8550	1.2440	26.97	0.98	1.500			
0.4047	25899.83	3.8520	3.8520	1.2585	26.97	0.98	1.500			
0.4085	26143.78	3.8490	3.8490	1.2816	26.96	0.97	1.500			
0.4123	26390.28	3.8460	3.8460	1.2973	26.96	0.97	1.500			
0.4162	26639.85	3.8430	3.8430	1.3111	26.95	0.96	1.500			
0.4202	26890.60	3.8400	3.8401	1.3387	26.95	0.96	1.500			
0.4242	27149.25	3.8370	3.8370	1.3695	26.94	0.95	1.500			
0.4285	27421.96	3.8340	3.8339	1.3834	26.93	0.94	1.500			
0.4326	27686.44	3.8310	3.8311	1.4233	26.93	0.94	1.500			
0.4369	27960.21	3.8280	3.8281	1.4616	26.92	0.93	1.500			
0.4413	28243.09	3.8250	3.8251	1.5051	26.91	0.92	1.500			
0.4459	28535.28	3.8220	3.8220	1.5383	26.91	0.92	1.500			
0.4505	28832.07	3.8190	3.8191	1.5868	26.90	0.91	1.500			
0.4554	29144.66	3.8160	3.8160	1.6203	26.89	0.90	1.500			
0.4604	29462.82	3.8130	3.8130	1.6563	26.88	0.89	1.500			
0.4653	29780.48	3.8100	3.8101	1.6907	26.88	0.89	1.500			
0.4705	30110.29	3.8070	3.8070	1.7324	26.87	0.88	1.500			
0.4757	30446.64	3.8040	3.8040	1.7714	26.86	0.87	1.500			
0.4810	30785.33	3.8010	3.8011	1.8274	26.85	0.86	1.500			
0.4866	31144.31	3.7980	3.7980	1.8957	26.84	0.85	1.500			
0.4924	31510.63	3.7950	3.7948	1.9580	26.83	0.84	1.500			
0.4983	31892.92	3.7920	3.7920	2.0214	26.82	0.83	1.500			
0.5045	32289.22	3.7890	3.7891	2.0827	26.81	0.82	1.500			
0.5108	32691.52	3.7860	3.7861	2.1585	26.80	0.81	1.500			
0.5174	33111.72	3.7830	3.7828	2.2006	26.78	0.79	1.500			
0.5241	33545.17	3.7800	3.7800	2.2748	26.77	0.78	1.500			
0.5311	33988.14	3.7770	3.7772	2.3409	26.75	0.76	1.500			
0.5382	34445.78	3.7740	3.7739	2.3901	26.73	0.74	1.500			
0.5455	34909.36	3.7710	3.7711	2.4380	26.72	0.73	1.500			
0.5529	35385.87	3.7680	3.7680	2.5585	26.70	0.71	1.500			
0.5608	35889.12	3.7650	3.7649	2.6273	26.68	0.69	1.500			
0.5688	36401.12	3.7620	3.7620	2.6587	26.66	0.67	1.500	0.379	0.449	
0.5769	36923.30	3.7590	3.7590	2.6758	26.64	0.65	1.500			
0.5849	37436.04	3.7560	3.7560	2.6236	26.62	0.63	1.500			
0.5927	37933.48	3.7530	3.7530	2.5593	26.60	0.61	1.500			
0.6003	38419.92	3.7500	3.7500	2.4824	26.58	0.59	1.500			
0.6075	38881.99	3.7470	3.7470	2.4552	26.57	0.58	1.500			
0.6148	39348.07	3.7440	3.7440	2.4422	26.55	0.56	1.500			
0.6222	39818.03	3.7410	3.7410	2.4147	26.53	0.54	1.500			
0.6294	40280.62	3.7380	3.7381	2.3866	26.52	0.53	1.500			
0.6365	40735.58	3.7350	3.7350	2.3690	26.50	0.51	1.500			
0.6434	41179.31	3.7320	3.7319	2.3365	26.49	0.50	1.500			
0.6505	41630.48	3.7290	3.7290	2.3241	26.48	0.49	1.500			
0.6575	42078.93	3.7260	3.7260	2.3673	26.46	0.47	1.500			
0.6645	42528.40	3.7230	3.7231	2.3949	26.45	0.46	1.500			
0.6717	42988.34	3.7200	3.7200	2.4550	26.43	0.44	1.500			
0.6792	43470.85	3.7170	3.7170	2.5413	26.41	0.42	1.500			
0.6870	43969.29	3.7140	3.7140	2.6241	26.40	0.41	1.500			
0.6949	44472.59	3.7110	3.7110	2.6979	26.38	0.39	1.500			
0.7031	44996.80	3.7080	3.7079	2.7540	26.36	0.37	1.500			
0.7116	45539.75	3.7050	3.7051	2.8840	26.34	0.35	1.500			
0.7203	46098.04	3.7020	3.7019	3.0478	26.33	0.34	1.500			
0.7295	46690.38	3.6990	3.6991	3.1135	26.31	0.32	1.500			
0.7393	47314.19	3.6960	3.6962	3.1178	26.30	0.31	1.500			
0.7485	47902.19	3.6930	3.6932	2.9664	26.28	0.29	1.500			
0.7572	48462.95	3.6900	3.6901	2.7107	26.27	0.28	1.500			
0.7651	48963.89	3.6870	3.6870	2.4449	26.26	0.27	1.500			
0.7720	49407.62	3.6840	3.6841	2.2032	26.25	0.26	1.500			
0.7782	49804.41	3.6810	3.6810	1.9707	26.24	0.25	1.500			
0.7837	50156.22	3.6780	3.6780	1.8060	26.24	0.25	1.500			
0.7887	50474.30	3.6750	3.6749	1.6575	26.23	0.24	1.500			
0.7933	50772.71	3.6720	3.6718	1.5321	26.22	0.23	1.500			
0.7977	51051.08	3.6690	3.6691	1.4375	26.21	0.22	1.500			
0.8019	51318.67	3.6660	3.6661	1.3606	26.21	0.22	1.500			
0.8058	51572.07	3.6630	3.6629	1.2876	26.20	0.21	1.500			
0.8095	51809.49	3.6600	3.6599	1.2396	26.19	0.20	1.500			
0.8130	52032.42	3.6570	3.6571	1.1988	26.19	0.20	1.500			
0.8165	52258.38	3.6540	3.6540	1.1827	26.18	0.19	1.500			
0.8200	52480.59	3.6510	3.6511	1.1799	26.18	0.19	1.500			
0.8235	52705.75	3.6480	3.6480	1.1831	26.17	0.18	1.500			
0.8271	52932.56	3.6450	3.6450	1.1964	26.17	0.18	1.500			
0.8307	53164.24	3.6420	3.6420	1.2102	26.16	0.17	1.500			
0.8343	53397.49	3.6390	3.6390	1.2204	26.15	0.16	1.500			
0.8381	53635.29	3.6360	3.6361	1.2314	26.15	0.16	1.500			
0.8418	53874.84	3.6330	3.6330	1.2346	26.14	0.15	1.500			
0.8455	54112.11	3.6300	3.6301	1.2335	26.13	0.14	1.500			
0.8492	54349.55	3.6270	3.6270	1.2377	26.12	0.13	1.500			
0.8529	54586.08	3.6240	3.6240	1.2349	26.11	0.12	1.500			
0.8566	54822.17	3.6210	3.6210	1.2361	26.10	0.11	1.500			
0.8603	55058.14	3.6180	3.6181	1.2427	26.09	0.10	1.500			
0.8640	55299.00	3.6150	3.6150	1.2533	26.08	0.09	1.500			
0.8678	55541.13	3.6120	3.6119	1.2586	26.07	0.08	1.500			
0.8716	55783.10	3.6090	3.6090	1.2650	26.06	0.07	1.500			
0.8754	56028.67	3.6060	3.6061	1.2578	26.06	0.07	1.500			
0.8793	56274.38	3.6030	3.6029	1.2515	26.05	0.06	1.500			
0.8830	56512.79	3.6000	3.6000	1.2346	26.04	0.05	1.500			
0.8867	56745.75	3.5970	3.5971	1.2170	26.03	0.04	1.500			
0.8903	56977.02	3.5940	3.5940	1.2077	26.03	0.04	1.500			
0.8939	57207.57	3.5910	3.5909	1.2017	26.02	0.03	1.500			
0.8974	57433.28	3.5880	3.5881	1.2053	26.02	0.03	1.500			
0.9010	57664.94	3.5850	3.5850	1.2241	26.01	0.02	1.500			
0.9047	57903.30	3.5820	3.5819	1.2322	26.01	0.02	1.500			
0.9085	58142.77	3.5790	3.5789	1.2245	26.00	0.01	1.500			
0.9124	58395.66	3.5760	3.5759	1.1855	26.00	0.01	1.500			
0.9161	58628.04	3.5730	3.5730	1.1075	25.99	0.00	1.500			
0.9195	58848.44	3.5700	3.5702	0.9913	25.99	-0.00	1.500			
0.9223	59028.13	3.5670	3.5671	0.8378	25.99	-0.00	1.500			
0.9245	59169.13	3.5640	3.5641	0.6883	25.98	-0.01	1.500			
0.9262	59277.09	3.5610	3.5611	0.5540	25.98	-0.01	1.500			
0.9275	59360.16	3.5580	3.5579	0.4113	25.98	-0.01	1.500			
0.9285	59422.83	3.5550	3.5549	0.3298	25.98	-0.01	1.500			
0.9292	59469.06	3.5520	3.5520	0.2588	25.98	-0.01	1.500			
0.9299	59513.13	3.5490	3.5490	0.2125	25.98	-0.01	1.500			
0.9304	59546.82	3.5460	3.5461	0.1675	25.98	-0.01	1.500			
0.9309	59575.01	3.5430	3.5430	0.1331	25.98	-0.01	1.500			
0.9312	59596.95	3.5400	3.5400	0.1011	25.97	-0.02	1.500			
0.9314	59612.78	3.5370	3.5372	0.0721	25.97	-0.02	1.500			
0.9316	59623.88	3.5340	3.5344	0.0435	25.97	-0.02	1.500			
