Ah_balance (normalized)	Ah_balance (mAh)	Voltage - fit (V)	Voltage -  interpolate (V)	dQ/dV (1/V)	Temperature (°C)	Temperature - diff (°C)	Current (C)	R_DC 0ms (mOhm)	R_DC 50ms (mOhm)	R_DC 50 ms PEC (mOhm)
0.1849	11831.27	3.9290	3.9289	-0.0996	25.59	-0.03	-1.500			
0.1852	11852.89	3.9260	3.9259	-0.1255	25.59	-0.03	-1.500			
0.1856	11879.90	3.9230	3.9229	-0.1510	25.59	-0.03	-1.500			
0.1861	11910.96	3.9200	3.9201	-0.1757	25.59	-0.03	-1.500			
0.1867	11947.12	3.9170	3.9171	-0.2007	25.59	-0.03	-1.500			
0.1873	11988.32	3.9140	3.9139	-0.2239	25.60	-0.02	-1.500			
0.1880	12033.75	3.9110	3.9110	-0.2490	25.60	-0.02	-1.500			
0.1888	12083.97	3.9080	3.9081	-0.2713	25.60	-0.02	-1.500			
0.1897	12138.59	3.9050	3.9050	-0.2946	25.60	-0.02	-1.500			
0.1906	12197.62	3.9020	3.9020	-0.3166	25.60	-0.02	-1.500			
0.1916	12260.35	3.8990	3.8990	-0.3377	25.60	-0.02	-1.500			
0.1926	12327.35	3.8960	3.8960	-0.3591	25.60	-0.02	-1.500			
0.1937	12398.71	3.8930	3.8930	-0.3788	25.61	-0.01	-1.500			
0.1949	12472.45	3.8900	3.8900	-0.4012	25.61	-0.01	-1.500			
0.1961	12551.83	3.8870	3.8870	-0.4246	25.61	-0.01	-1.500			
0.1974	12635.61	3.8840	3.8839	-0.4451	25.61	-0.01	-1.500			
0.1988	12723.74	3.8810	3.8810	-0.4644	25.61	-0.01	-1.500			
0.2002	12815.22	3.8780	3.8781	-0.4842	25.62	-0.00	-1.500			
0.2017	12910.75	3.8750	3.8750	-0.4997	25.62	-0.00	-1.500			
0.2033	13009.08	3.8720	3.8719	-0.5153	25.62	0.00	-1.500			
0.2048	13109.21	3.8690	3.8690	-0.5248	25.62	0.00	-1.500			
0.2064	13211.59	3.8660	3.8660	-0.5372	25.63	0.01	-1.500			
0.2081	13315.48	3.8630	3.8630	-0.5493	25.63	0.01	-1.500			
0.2097	13421.55	3.8600	3.8601	-0.5605	25.63	0.01	-1.500			
0.2114	13530.38	3.8570	3.8569	-0.5689	25.63	0.01	-1.500			
0.2131	13640.93	3.8540	3.8539	-0.5801	25.64	0.02	-1.500			
0.2149	13753.70	3.8510	3.8511	-0.5880	25.64	0.02	-1.500			
0.2167	13868.15	3.8480	3.8480	-0.5952	25.64	0.02	-1.500			
0.2185	13983.21	3.8450	3.8450	-0.6018	25.65	0.03	-1.500			
0.2203	14099.32	3.8420	3.8420	-0.6063	25.65	0.03	-1.500			
0.2221	14215.93	3.8390	3.8390	-0.6117	25.65	0.03	-1.500			
0.2240	14334.84	3.8360	3.8359	-0.6145	25.65	0.03	-1.500			
0.2258	14452.53	3.8330	3.8331	-0.6176	25.66	0.04	-1.500			
0.2277	14571.64	3.8300	3.8301	-0.6220	25.66	0.04	-1.500			
0.2296	14691.46	3.8270	3.8269	-0.6254	25.66	0.04	-1.500			
0.2314	14811.66	3.8240	3.8240	-0.6263	25.67	0.05	-1.500			
0.2333	14932.07	3.8210	3.8210	-0.6281	25.67	0.05	-1.500			
0.2352	15053.41	3.8180	3.8180	-0.6332	25.68	0.06	-1.500			
0.2371	15175.26	3.8150	3.8150	-0.6351	25.68	0.06	-1.500			
0.2390	15296.02	3.8120	3.8120	-0.6360	25.69	0.07	-1.500			
0.2409	15418.82	3.8090	3.8090	-0.6392	25.69	0.07	-1.500			
0.2429	15542.58	3.8060	3.8060	-0.6406	25.70	0.08	-1.500			
0.2448	15666.01	3.8030	3.8030	-0.6426	25.70	0.08	-1.500			
0.2467	15789.22	3.8000	3.8000	-0.6439	25.71	0.09	-1.500			
0.2486	15912.69	3.7970	3.7970	-0.6435	25.71	0.09	-1.500			
0.2506	16035.36	3.7940	3.7940	-0.6471	25.72	0.10	-1.500			
0.2525	16159.88	3.7910	3.7910	-0.6497	25.72	0.10	-1.500			
0.2545	16285.92	3.7880	3.7880	-0.6524	25.73	0.11	-1.500			
0.2564	16412.13	3.7850	3.7850	-0.6513	25.73	0.11	-1.500			
0.2584	16536.98	3.7820	3.7820	-0.6537	25.74	0.12	-1.500			
0.2603	16662.38	3.7790	3.7791	-0.6561	25.75	0.13	-1.500			
0.2623	16788.07	3.7760	3.7759	-0.6587	25.75	0.13	-1.500			
0.2643	16914.27	3.7730	3.7730	-0.6596	25.76	0.14	-1.500			
0.2663	17041.28	3.7700	3.7700	-0.6647	25.76	0.14	-1.500			
0.2683	17169.18	3.7670	3.7671	-0.6690	25.77	0.15	-1.500			
0.2703	17298.75	3.7640	3.7639	-0.6731	25.78	0.16	-1.500			
0.2723	17427.62	3.7610	3.7610	-0.6735	25.78	0.16	-1.500			
0.2743	17557.51	3.7580	3.7580	-0.6758	25.79	0.17	-1.500			
0.2764	17687.45	3.7550	3.7550	-0.6794	25.80	0.18	-1.500			
0.2784	17818.17	3.7520	3.7520	-0.6856	25.80	0.18	-1.500			
0.2805	17949.67	3.7490	3.7490	-0.6880	25.81	0.19	-1.500			
0.2825	18081.53	3.7460	3.7460	-0.6927	25.82	0.20	-1.500			
0.2846	18214.93	3.7430	3.7430	-0.7001	25.82	0.20	-1.500			
0.2867	18350.91	3.7400	3.7400	-0.7056	25.83	0.21	-1.500			
0.2889	18488.03	3.7370	3.7370	-0.7093	25.84	0.22	-1.500			
0.2910	18623.72	3.7340	3.7340	-0.7138	25.84	0.22	-1.500			
0.2931	18760.81	3.7310	3.7311	-0.7164	25.85	0.23	-1.500			
0.2953	18899.21	3.7280	3.7279	-0.7249	25.86	0.24	-1.500			
0.2975	19037.75	3.7250	3.7249	-0.7290	25.86	0.24	-1.500			
0.2997	19178.89	3.7220	3.7220	-0.7342	25.87	0.25	-1.500			
0.3019	19321.23	3.7190	3.7190	-0.7446	25.88	0.26	-1.500			
0.3041	19464.92	3.7160	3.7160	-0.7508	25.88	0.26	-1.500			
0.3064	19608.95	3.7130	3.7131	-0.7546	25.89	0.27	-1.500			
0.3087	19754.94	3.7100	3.7099	-0.7614	25.90	0.28	-1.500			
0.3109	19900.37	3.7070	3.7071	-0.7682	25.90	0.28	-1.500			
0.3133	20049.05	3.7040	3.7040	-0.7769	25.91	0.29	-1.500			
0.3156	20198.74	3.7010	3.7009	-0.7866	25.92	0.30	-1.500			
0.3180	20349.51	3.6980	3.6980	-0.7958	25.92	0.30	-1.500			
0.3204	20504.34	3.6950	3.6950	-0.8073	25.93	0.31	-1.500			
0.3228	20662.21	3.6920	3.6920	-0.8165	25.94	0.32	-1.500			
0.3253	20820.34	3.6890	3.6890	-0.8218	25.94	0.32	-1.500			
0.3278	20977.14	3.6860	3.6861	-0.8295	25.95	0.33	-1.500			
0.3303	21137.14	3.6830	3.6830	-0.8409	25.96	0.34	-1.500			
0.3328	21299.01	3.6800	3.6800	-0.8487	25.96	0.34	-1.500			
0.3354	21463.11	3.6770	3.6770	-0.8582	25.97	0.35	-1.500			
0.3380	21630.02	3.6740	3.6740	-0.8697	25.98	0.36	-1.500			
0.3406	21797.63	3.6710	3.6711	-0.8802	25.99	0.37	-1.500			
0.3432	21966.53	3.6680	3.6680	-0.8953	25.99	0.37	-1.500			
0.3459	22139.60	3.6650	3.6650	-0.9042	26.00	0.38	-1.500			
0.3487	22315.48	3.6620	3.6619	-0.9110	26.01	0.39	-1.500			
0.3514	22491.50	3.6590	3.6590	-0.9220	26.02	0.40	-1.500			
0.3542	22669.88	3.6560	3.6561	-0.9361	26.02	0.40	-1.500			
0.3570	22849.68	3.6530	3.6529	-0.9469	26.03	0.41	-1.500			
0.3599	23030.94	3.6500	3.6499	-0.9561	26.04	0.42	-1.500			
0.3627	23215.40	3.6470	3.6471	-0.9645	26.04	0.42	-1.500			
0.3657	23404.50	3.6440	3.6440	-0.9846	26.05	0.43	-1.500			
0.3687	23594.97	3.6410	3.6410	-0.9947	26.06	0.44	-1.500			
0.3716	23785.18	3.6380	3.6380	-1.0046	26.07	0.45	-1.500			
0.3747	23978.95	3.6350	3.6350	-1.0171	26.07	0.45	-1.500			
0.3778	24177.14	3.6320	3.6320	-1.0301	26.08	0.46	-1.500			
0.3809	24376.70	3.6290	3.6290	-1.0416	26.09	0.47	-1.500			
0.3840	24577.06	3.6260	3.6260	-1.0546	26.10	0.48	-1.500			
0.3872	24779.43	3.6230	3.6230	-1.0664	26.10	0.48	-1.500			
0.3904	24983.45	3.6200	3.6200	-1.0877	26.11	0.49	-1.500			
0.3937	25196.18	3.6170	3.6169	-1.0970	26.12	0.50	-1.500			
0.3970	25409.57	3.6140	3.6140	-1.1132	26.13	0.51	-1.500			
0.4004	25624.92	3.6110	3.6111	-1.1263	26.13	0.51	-1.500			
0.4038	25843.29	3.6080	3.6080	-1.1402	26.14	0.52	-1.500			
0.4072	26061.38	3.6050	3.6049	-1.1521	26.15	0.53	-1.500			
0.4106	26280.79	3.6020	3.6020	-1.1633	26.16	0.54	-1.500			
0.4141	26503.91	3.5990	3.5990	-1.1844	26.16	0.54	-1.500			
0.4178	26736.71	3.5960	3.5959	-1.2093	26.17	0.55	-1.500			
0.4214	26970.20	3.5930	3.5931	-1.2251	26.18	0.56	-1.500			
0.4251	27207.70	3.5900	3.5899	-1.2411	26.19	0.57	-1.500			
0.4289	27449.05	3.5870	3.5870	-1.2555	26.19	0.57	-1.500			
0.4327	27691.20	3.5840	3.5840	-1.2709	26.20	0.58	-1.500			
0.4365	27934.41	3.5810	3.5810	-1.2864	26.21	0.59	-1.500			
0.4403	28181.13	3.5780	3.5781	-1.3023	26.22	0.60	-1.500			
0.4443	28436.56	3.5750	3.5749	-1.3212	26.22	0.60	-1.500			
0.4483	28692.44	3.5720	3.5720	-1.3368	26.23	0.61	-1.500			
0.4524	28950.62	3.5690	3.5691	-1.3544	26.24	0.62	-1.500			
0.4564	29212.65	3.5660	3.5659	-1.3735	26.25	0.63	-1.500			
0.4606	29476.31	3.5630	3.5630	-1.3879	26.25	0.63	-1.500			
0.4647	29742.23	3.5600	3.5600	-1.4033	26.26	0.64	-1.500			
0.4690	30015.54	3.5570	3.5571	-1.4273	26.27	0.65	-1.500			
0.4733	30291.23	3.5540	3.5540	-1.4488	26.27	0.65	-1.500			
0.4777	30569.80	3.5510	3.5510	-1.4714	26.28	0.66	-1.500			
0.4821	30853.01	3.5480	3.5479	-1.4910	26.29	0.67	-1.500			
0.4866	31141.35	3.5450	3.5450	-1.5198	26.30	0.68	-1.500			
0.4912	31437.07	3.5420	3.5420	-1.5380	26.31	0.69	-1.500			
0.4959	31736.72	3.5390	3.5390	-1.5589	26.32	0.70	-1.500			
0.5006	32039.44	3.5360	3.5360	-1.5829	26.34	0.72	-1.500			
0.5054	32345.02	3.5330	3.5329	-1.5931	26.34	0.72	-1.500			
0.5102	32650.40	3.5300	3.5300	-1.6146	26.35	0.73	-1.500			
0.5151	32964.68	3.5270	3.5275	-1.6255	26.36	0.74	-1.500	0.372	0.534	
0.5200	33278.16	3.5240	3.5239	-1.6322	26.37	0.75	-1.500			
0.5249	33591.19	3.5210	3.5209	-1.6427	26.38	0.76	-1.500			
0.5298	33907.10	3.5180	3.5180	-1.6545	26.39	0.77	-1.500			
0.5348	34227.52	3.5150	3.5150	-1.6675	26.40	0.78	-1.500			
0.5398	34549.81	3.5120	3.5119	-1.6749	26.41	0.79	-1.500			
0.5448	34869.92	3.5090	3.5091	-1.6745	26.42	0.80	-1.500			
0.5500	35197.29	3.5060	3.5060	-1.6874	26.43	0.81	-1.500			
0.5550	35521.47	3.5030	3.5029	-1.6872	26.45	0.83	-1.500			
0.5601	35843.66	3.5000	3.5000	-1.6904	26.46	0.84	-1.500			
0.5651	36167.60	3.4970	3.4970	-1.6963	26.47	0.85	-1.500			
0.5702	36493.79	3.4940	3.4940	-1.6980	26.48	0.86	-1.500			
0.5754	36823.55	3.4910	3.4910	-1.7030	26.49	0.87	-1.500			
0.5805	37152.04	3.4880	3.4880	-1.6964	26.50	0.88	-1.500			
0.5856	37477.83	3.4850	3.4850	-1.6854	26.51	0.89	-1.500			
0.5907	37802.43	3.4820	3.4820	-1.6749	26.53	0.91	-1.500			
0.5957	38122.42	3.4790	3.4790	-1.6559	26.54	0.92	-1.500			
0.6006	38438.85	3.4760	3.4760	-1.6480	26.55	0.93	-1.500			
0.6055	38754.04	3.4730	3.4729	-1.6333	26.57	0.95	-1.500			
0.6104	39064.70	3.4700	3.4699	-1.6237	26.58	0.96	-1.500			
0.6153	39378.07	3.4670	3.4671	-1.6059	26.59	0.97	-1.500			
0.6201	39684.63	3.4640	3.4640	-1.5825	26.60	0.98	-1.500			
0.6248	39989.47	3.4610	3.4610	-1.5688	26.61	0.99	-1.500			
0.6295	40288.36	3.4580	3.4580	-1.5438	26.63	1.01	-1.500			
0.6341	40581.13	3.4550	3.4549	-1.5202	26.65	1.03	-1.500			
0.6386	40869.93	3.4520	3.4520	-1.4986	26.66	1.04	-1.500			
0.6430	41153.99	3.4490	3.4490	-1.4739	26.68	1.06	-1.500			
0.6474	41436.51	3.4460	3.4460	-1.4617	26.70	1.08	-1.500			
0.6518	41714.66	3.4430	3.4431	-1.4451	26.72	1.10	-1.500			
0.6561	41989.32	3.4400	3.4400	-1.4286	26.73	1.11	-1.500			
0.6604	42263.68	3.4370	3.4369	-1.4145	26.75	1.13	-1.500			
0.6646	42534.61	3.4340	3.4340	-1.4027	26.76	1.14	-1.500			
0.6688	42802.91	3.4310	3.4310	-1.3822	26.78	1.16	-1.500			
0.6730	43069.78	3.4280	3.4280	-1.3651	26.79	1.17	-1.500			
0.6770	43329.39	3.4250	3.4252	-1.3389	26.81	1.19	-1.500			
0.6810	43583.21	3.4220	3.4219	-1.3181	26.82	1.20	-1.500			
0.6849	43834.40	3.4190	3.4191	-1.2943	26.84	1.22	-1.500			
0.6887	44078.86	3.4160	3.4160	-1.2748	26.86	1.24	-1.500			
0.6925	44321.70	3.4130	3.4131	-1.2488	26.87	1.25	-1.500			
0.6963	44563.06	3.4100	3.4100	-1.2275	26.89	1.27	-1.500			
0.6999	44795.93	3.4070	3.4070	-1.1972	26.90	1.28	-1.500			
0.7035	45024.26	3.4040	3.4040	-1.1678	26.93	1.31	-1.500			
0.7069	45244.77	3.4010	3.4010	-1.1362	26.94	1.32	-1.500			
0.7103	45460.47	3.3980	3.3980	-1.1046	26.96	1.34	-1.500			
0.7136	45667.96	3.3950	3.3950	-1.0715	26.98	1.36	-1.500			
0.7168	45872.47	3.3920	3.3920	-1.0468	26.99	1.37	-1.500			
0.7198	46069.63	3.3890	3.3890	-1.0122	27.01	1.39	-1.500			
0.7228	46262.04	3.3860	3.3860	-0.9811	27.02	1.40	-1.500			
0.7257	46446.90	3.3830	3.3829	-0.9498	27.03	1.41	-1.500			
0.7285	46625.69	3.3800	3.3800	-0.9178	27.05	1.43	-1.500			
0.7312	46798.37	3.3770	3.3770	-0.8912	27.06	1.44	-1.500			
0.7338	46966.20	3.3740	3.3739	-0.8622	27.07	1.45	-1.500			
0.7364	47127.97	3.3710	3.3711	-0.8322	27.08	1.46	-1.500			
0.7389	47286.47	3.3680	3.3680	-0.8108	27.09	1.47	-1.500			
0.7412	47439.70	3.3650	3.3651	-0.7878	27.10	1.48	-1.500			
0.7436	47588.11	3.3620	3.3619	-0.7635	27.11	1.49	-1.500			
0.7458	47731.83	3.3590	3.3590	-0.7432	27.12	1.50	-1.500			
0.7480	47872.32	3.3560	3.3560	-0.7216	27.13	1.51	-1.500			
0.7501	48009.31	3.3530	3.3530	-0.7035	27.14	1.52	-1.500			
0.7522	48142.83	3.3500	3.3501	-0.6813	27.15	1.53	-1.500			
0.7542	48271.23	3.3470	3.3469	-0.6603	27.16	1.54	-1.500			
0.7562	48395.26	3.3440	3.3440	-0.6395	27.17	1.55	-1.500			
0.7581	48516.22	3.3410	3.3410	-0.6227	27.18	1.56	-1.500			
0.7599	48632.79	3.3380	3.3380	-0.6036	27.19	1.57	-1.500			
0.7617	48748.30	3.3350	3.3350	-0.5884	27.20	1.58	-1.500			
0.7634	48859.45	3.3320	3.3321	-0.5718	27.21	1.59	-1.500			
0.7651	48967.51	3.3290	3.3290	-0.5597	27.22	1.60	-1.500			
0.7668	49072.91	3.3260	3.3260	-0.5461	27.23	1.61	-1.500			
0.7684	49176.26	3.3230	3.3229	-0.5316	27.24	1.62	-1.500			
0.7700	49277.38	3.3200	3.3200	-0.5182	27.25	1.63	-1.500			
0.7715	49375.96	3.3170	3.3170	-0.5076	27.25	1.63	-1.500			
0.7730	49472.36	3.3140	3.3140	-0.4939	27.26	1.64	-1.500			
0.7745	49566.01	3.3110	3.3109	-0.4801	27.26	1.64	-1.500			
0.7759	49656.22	3.3080	3.3080	-0.4675	27.27	1.65	-1.500			
0.7773	49744.45	3.3050	3.3051	-0.4558	27.27	1.65	-1.500			
0.7786	49831.25	3.3020	3.3019	-0.4458	27.28	1.66	-1.500			
0.7799	49916.05	3.2990	3.2990	-0.4346	27.29	1.67	-1.500			
0.7812	49997.95	3.2960	3.2960	-0.4234	27.29	1.67	-1.500			
0.7825	50078.61	3.2930	3.2931	-0.4131	27.30	1.68	-1.500			
0.7837	50156.86	3.2900	3.2900	-0.4039	27.31	1.69	-1.500			
0.7849	50232.88	3.2870	3.2871	-0.3950	27.32	1.70	-1.500			
0.7861	50307.83	3.2840	3.2839	-0.3855	27.32	1.70	-1.500			
0.7872	50380.88	3.2810	3.2809	-0.3776	27.33	1.71	-1.500			
0.7883	50453.15	3.2780	3.2781	-0.3685	27.34	1.72	-1.500			
0.7894	50522.97	3.2750	3.2750	-0.3591	27.34	1.72	-1.500			
0.7905	50591.41	3.2720	3.2720	-0.3526	27.35	1.73	-1.500			
0.7915	50657.99	3.2690	3.2690	-0.3435	27.36	1.74	-1.500			
0.7925	50722.58	3.2660	3.2659	-0.3350	27.36	1.74	-1.500			
0.7935	50786.47	3.2630	3.2631	-0.3281	27.37	1.75	-1.500			
0.7945	50848.89	3.2600	3.2600	-0.3205	27.38	1.76	-1.500			
0.7955	50910.03	3.2570	3.2569	-0.3132	27.38	1.76	-1.500			
0.7964	50968.62	3.2540	3.2540	-0.3072	27.39	1.77	-1.500			
0.7973	51026.67	3.2510	3.2511	-0.3010	27.39	1.77	-1.500			
0.7982	51084.48	3.2480	3.2479	-0.2961	27.40	1.78	-1.500			
0.7991	51140.76	3.2450	3.2450	-0.2909	27.41	1.79	-1.500			
0.7999	51196.04	3.2420	3.2421	-0.2853	27.41	1.79	-1.500			
0.8008	51250.38	3.2390	3.2390	-0.2794	27.42	1.80	-1.500			
0.8016	51303.76	3.2360	3.2360	-0.2743	27.42	1.80	-1.500			
0.8024	51355.23	3.2330	3.2331	-0.2686	27.43	1.81	-1.500			
0.8032	51406.19	3.2300	3.2300	-0.2649	27.44	1.82	-1.500			
0.8040	51456.64	3.2270	3.2269	-0.2606	27.44	1.82	-1.500			
0.8048	51506.23	3.2240	3.2240	-0.2567	27.45	1.83	-1.500			
0.8055	51555.06	3.2210	3.2210	-0.2527	27.45	1.83	-1.500			
0.8063	51603.52	3.2180	3.2180	-0.2487	27.46	1.84	-1.500			
0.8070	51650.70	3.2150	3.2150	-0.2451	27.47	1.85	-1.500			
0.8078	51697.61	3.2120	3.2120	-0.2411	27.47	1.85	-1.500			
0.8085	51743.06	3.2090	3.2089	-0.2380	27.48	1.86	-1.500			
0.8092	51788.26	3.2060	3.2061	-0.2350	27.48	1.86	-1.500			
0.8099	51833.35	3.2030	3.2030	-0.2312	27.49	1.87	-1.500			
0.8106	51877.32	3.2000	3.1999	-0.2290	27.49	1.87	-1.500			
0.8113	51920.95	3.1970	3.1972	-0.2262	27.50	1.88	-1.500			
0.8119	51964.26	3.1940	3.1939	-0.2232	27.50	1.88	-1.500			
0.8126	52006.62	3.1910	3.1911	-0.2202	27.51	1.89	-1.500			
0.8133	52049.07	3.1880	3.1879	-0.2176	27.51	1.89	-1.500			
0.8139	52090.36	3.1850	3.1851	-0.2138	27.52	1.90	-1.500			
0.8146	52131.50	3.1820	3.1820	-0.2112	27.52	1.90	-1.500			
0.8152	52171.15	3.1790	3.1790	-0.2077	27.53	1.91	-1.500			
0.8158	52210.86	3.1760	3.1760	-0.2050	27.53	1.91	-1.500			
0.8164	52249.96	3.1730	3.1729	-0.2023	27.54	1.92	-1.500			
0.8170	52288.53	3.1700	3.1700	-0.1996	27.55	1.93	-1.500			
0.8176	52326.41	3.1670	3.1671	-0.1974	27.55	1.93	-1.500			
0.8182	52364.08	3.1640	3.1640	-0.1959	27.56	1.94	-1.500			
0.8188	52401.38	3.1610	3.1610	-0.1939	27.56	1.94	-1.500			
0.8194	52438.47	3.1580	3.1579	-0.1924	27.57	1.95	-1.500			
0.8199	52475.18	3.1550	3.1550	-0.1900	27.57	1.95	-1.500			
0.8205	52511.73	3.1520	3.1520	-0.1887	27.58	1.96	-1.500			
0.8211	52547.82	3.1490	3.1490	-0.1869	27.58	1.96	-1.500			
0.8216	52583.50	3.1460	3.1460	-0.1847	27.59	1.97	-1.500			
0.8222	52618.64	3.1430	3.1429	-0.1828	27.59	1.97	-1.500			
0.8227	52653.30	3.1400	3.1400	-0.1811	27.60	1.98	-1.500			
0.8233	52688.00	3.1370	3.1370	-0.1795	27.60	1.98	-1.500			
0.8238	52722.35	3.1340	3.1340	-0.1782	27.61	1.99	-1.500			
0.8243	52756.58	3.1310	3.1310	-0.1771	27.61	1.99	-1.500			
0.8249	52790.41	3.1280	3.1282	-0.1753	27.62	2.00	-1.500			
0.8254	52823.85	3.1250	3.1249	-0.1742	27.62	2.00	-1.500			
0.8259	52857.16	3.1220	3.1221	-0.1728	27.63	2.01	-1.500			
0.8264	52890.23	3.1190	3.1190	-0.1710	27.63	2.01	-1.500			
0.8269	52922.75	3.1160	3.1161	-0.1697	27.64	2.02	-1.500			
0.8274	52955.53	3.1130	3.1130	-0.1683	27.64	2.02	-1.500			
0.8279	52987.65	3.1100	3.1100	-0.1664	27.65	2.03	-1.500			
0.8284	53019.36	3.1070	3.1069	-0.1652	27.65	2.03	-1.500			
0.8289	53050.84	3.1040	3.1041	-0.1641	27.66	2.04	-1.500			
0.8294	53082.20	3.1010	3.1009	-0.1623	27.66	2.04	-1.500			
0.8299	53113.26	3.0980	3.0979	-0.1612	27.67	2.05	-1.500			
0.8304	53144.09	3.0950	3.0951	-0.1608	27.68	2.06	-1.500			
0.8309	53174.76	3.0920	3.0921	-0.1596	27.68	2.06	-1.500			
0.8313	53205.71	3.0890	3.0888	-0.1589	27.69	2.07	-1.500			
0.8318	53236.07	3.0860	3.0860	-0.1573	27.70	2.08	-1.500			
0.8323	53266.02	3.0830	3.0831	-0.1559	27.70	2.08	-1.500			
0.8327	53295.77	3.0800	3.0801	-0.1549	27.71	2.09	-1.500			
0.8332	53325.42	3.0770	3.0771	-0.1543	27.71	2.09	-1.500			
0.8337	53354.95	3.0740	3.0739	-0.1533	27.72	2.10	-1.500			
0.8341	53383.99	3.0710	3.0710	-0.1521	27.72	2.10	-1.500			
0.8346	53413.31	3.0680	3.0680	-0.1510	27.73	2.11	-1.500			
0.8350	53442.48	3.0650	3.0651	-0.1500	27.74	2.12	-1.500			
0.8355	53470.94	3.0620	3.0620	-0.1488	27.74	2.12	-1.500			
0.8359	53499.38	3.0590	3.0590	-0.1474	27.75	2.13	-1.500			
0.8364	53527.34	3.0560	3.0560	-0.1465	27.75	2.13	-1.500			
0.8368	53555.33	3.0530	3.0530	-0.1452	27.76	2.14	-1.500			
0.8372	53583.12	3.0500	3.0499	-0.1446	27.76	2.14	-1.500			
0.8377	53610.84	3.0470	3.0471	-0.1441	27.77	2.15	-1.500			
0.8381	53638.56	3.0440	3.0441	-0.1435	27.77	2.15	-1.500			
0.8385	53666.09	3.0410	3.0410	-0.1429	27.78	2.16	-1.500			
0.8390	53693.36	3.0380	3.0379	-0.1416	27.78	2.16	-1.500			
0.8394	53720.48	3.0350	3.0351	-0.1409	27.79	2.17	-1.500			
0.8398	53747.53	3.0320	3.0320	-0.1397	27.80	2.18	-1.500			
0.8402	53774.31	3.0290	3.0290	-0.1393	27.80	2.18	-1.500			
0.8406	53800.79	3.0260	3.0260	-0.1381	27.81	2.19	-1.500			
0.8411	53827.25	3.0230	3.0230	-0.1375	27.81	2.19	-1.500			
0.8415	53853.64	3.0200	3.0200	-0.1364	27.82	2.20	-1.500			
0.8419	53879.80	3.0170	3.0170	-0.1353	27.82	2.20	-1.500			
0.8423	53905.84	3.0140	3.0140	-0.1344	27.83	2.21	-1.500			
0.8427	53931.49	3.0110	3.0110	-0.1329	27.83	2.21	-1.500			
0.8431	53957.04	3.0080	3.0080	-0.1312	27.84	2.22	-1.500			
0.8435	53981.94	3.0050	3.0050	-0.1297	27.84	2.22	-1.500			
0.8439	54006.72	3.0020	3.0020	-0.1290	27.85	2.23	-1.500			
