Ah_balance (normalized)	Ah_balance (mAh)	Voltage - fit (V)	Voltage -  interpolate (V)	dQ/dV (1/V)	Temperature (°C)	Temperature - diff (°C)	Current (C)	R_DC 0ms (mOhm)	R_DC 50ms (mOhm)	R_DC 50 ms PEC (mOhm)
0.2914	18650.38	3.9830	3.9831	0.8690	27.14	1.17	1.500			
0.2940	18815.77	3.9800	3.9797	0.8577	27.13	1.16	1.500			
0.2966	18981.75	3.9770	3.9771	0.8616	27.13	1.16	1.500			
0.2992	19147.29	3.9740	3.9741	0.8599	27.12	1.15	1.500			
0.3018	19312.47	3.9710	3.9709	0.8622	27.12	1.15	1.500			
0.3043	19475.50	3.9680	3.9681	0.8630	27.11	1.14	1.500			
0.3069	19641.50	3.9650	3.9650	0.8684	27.10	1.13	1.500			
0.3095	19810.81	3.9620	3.9620	0.8738	27.10	1.13	1.500			
0.3122	19979.83	3.9590	3.9590	0.8760	27.09	1.12	1.500			
0.3148	20149.65	3.9560	3.9560	0.8763	27.09	1.12	1.500			
0.3175	20317.31	3.9530	3.9530	0.8769	27.08	1.11	1.500			
0.3201	20483.76	3.9500	3.9500	0.8778	27.08	1.11	1.500			
0.3227	20651.90	3.9470	3.9469	0.8833	27.07	1.10	1.500			
0.3253	20821.45	3.9440	3.9440	0.8900	27.07	1.10	1.500			
0.3280	20993.30	3.9410	3.9409	0.8943	27.06	1.09	1.500			
0.3307	21166.58	3.9380	3.9381	0.8971	27.06	1.09	1.500			
0.3334	21339.93	3.9350	3.9350	0.9082	27.05	1.08	1.500			
0.3361	21513.41	3.9320	3.9320	0.9125	27.05	1.08	1.500			
0.3389	21688.89	3.9290	3.9290	0.9131	27.04	1.07	1.500			
0.3416	21865.58	3.9260	3.9260	0.9175	27.04	1.07	1.500			
0.3444	22043.04	3.9230	3.9230	0.9231	27.03	1.06	1.500			
0.3472	22220.42	3.9200	3.9200	0.9294	27.02	1.05	1.500			
0.3500	22398.17	3.9170	3.9170	0.9346	27.02	1.05	1.500			
0.3528	22576.11	3.9140	3.9140	0.9384	27.01	1.04	1.500			
0.3556	22757.80	3.9110	3.9110	0.9490	27.01	1.04	1.500			
0.3585	22941.88	3.9080	3.9080	0.9623	27.00	1.03	1.500			
0.3614	23129.36	3.9050	3.9050	0.9685	27.00	1.03	1.500			
0.3643	23314.97	3.9020	3.9020	0.9746	26.99	1.02	1.500			
0.3672	23503.70	3.8990	3.8990	0.9763	26.98	1.01	1.500			
0.3702	23692.19	3.8960	3.8960	0.9788	26.98	1.01	1.500			
0.3731	23878.51	3.8930	3.8930	0.9827	26.97	1.00	1.500			
0.3760	24065.64	3.8900	3.8901	0.9933	26.97	1.00	1.500			
0.3790	24255.80	3.8870	3.8870	1.0047	26.96	0.99	1.500			
0.3821	24451.36	3.8840	3.8838	1.0195	26.95	0.98	1.500			
0.3851	24647.62	3.8810	3.8811	1.0245	26.95	0.98	1.500			
0.3882	24847.85	3.8780	3.8780	1.0409	26.94	0.97	1.500			
0.3914	25046.85	3.8750	3.8751	1.0521	26.94	0.97	1.500			
0.3945	25248.64	3.8720	3.8719	1.0571	26.93	0.96	1.500			
0.3977	25452.01	3.8690	3.8691	1.0738	26.92	0.95	1.500			
0.4009	25660.31	3.8660	3.8660	1.0898	26.91	0.94	1.500			
0.4043	25872.95	3.8630	3.8630	1.1078	26.91	0.94	1.500			
0.4076	26087.10	3.8600	3.8600	1.1134	26.90	0.93	1.500			
0.4110	26303.15	3.8570	3.8570	1.1286	26.89	0.92	1.500			
0.4144	26519.62	3.8540	3.8541	1.1440	26.88	0.91	1.500			
0.4178	26740.38	3.8510	3.8510	1.1591	26.87	0.90	1.500			
0.4213	26962.47	3.8480	3.8480	1.1765	26.86	0.89	1.500			
0.4248	27189.71	3.8450	3.8450	1.1963	26.85	0.88	1.500			
0.4285	27421.85	3.8420	3.8420	1.2125	26.84	0.87	1.500			
0.4322	27657.89	3.8390	3.8390	1.2315	26.83	0.86	1.500			
0.4359	27895.95	3.8360	3.8360	1.2533	26.82	0.85	1.500			
0.4396	28135.33	3.8330	3.8331	1.2757	26.81	0.84	1.500			
0.4435	28383.52	3.8300	3.8299	1.3038	26.80	0.83	1.500			
0.4474	28634.07	3.8270	3.8270	1.3311	26.79	0.82	1.500			
0.4515	28893.94	3.8240	3.8240	1.3651	26.78	0.81	1.500			
0.4557	29161.80	3.8210	3.8210	1.3990	26.77	0.80	1.500			
0.4599	29432.63	3.8180	3.8180	1.4241	26.76	0.79	1.500			
0.4642	29708.72	3.8150	3.8150	1.4452	26.75	0.78	1.500			
0.4686	29988.33	3.8120	3.8120	1.4704	26.74	0.77	1.500			
0.4730	30271.83	3.8090	3.8090	1.5065	26.73	0.76	1.500			
0.4775	30562.14	3.8060	3.8060	1.5344	26.72	0.75	1.500			
0.4822	30859.77	3.8030	3.8029	1.5744	26.71	0.74	1.500			
0.4870	31165.84	3.8000	3.8001	1.6156	26.70	0.73	1.500			
0.4919	31479.79	3.7970	3.7970	1.6585	26.69	0.72	1.500			
0.4969	31803.88	3.7940	3.7940	1.7017	26.67	0.70	1.500			
0.5021	32135.37	3.7910	3.7910	1.7226	26.65	0.68	1.500			
0.5073	32470.28	3.7880	3.7880	1.7654	26.64	0.67	1.500			
0.5127	32811.15	3.7850	3.7850	1.7923	26.62	0.65	1.500			
0.5181	33157.81	3.7820	3.7819	1.8263	26.60	0.63	1.500			
0.5236	33509.23	3.7790	3.7791	1.8652	26.59	0.62	1.500			
0.5293	33872.97	3.7760	3.7760	1.9072	26.58	0.61	1.500			
0.5351	34247.30	3.7730	3.7729	1.9221	26.56	0.59	1.500			
0.5409	34619.78	3.7700	3.7701	1.9286	26.55	0.58	1.500	0.349	0.460	
0.5468	34992.85	3.7670	3.7670	1.9290	26.53	0.56	1.500			
0.5525	35361.94	3.7640	3.7639	1.9070	26.51	0.54	1.500			
0.5582	35723.54	3.7610	3.7611	1.9040	26.50	0.53	1.500			
0.5639	36089.83	3.7580	3.7580	1.9099	26.48	0.51	1.500			
0.5696	36457.14	3.7550	3.7549	1.9097	26.46	0.49	1.500			
0.5754	36823.42	3.7520	3.7521	1.9020	26.45	0.48	1.500			
0.5811	37190.75	3.7490	3.7490	1.8851	26.43	0.46	1.500			
0.5867	37550.38	3.7460	3.7460	1.8958	26.42	0.45	1.500			
0.5924	37912.06	3.7430	3.7429	1.8935	26.40	0.43	1.500			
0.5981	38275.70	3.7400	3.7400	1.9169	26.39	0.42	1.500			
0.6039	38646.59	3.7370	3.7371	1.9380	26.38	0.41	1.500			
0.6097	39019.07	3.7340	3.7340	1.9711	26.37	0.40	1.500			
0.6156	39401.38	3.7310	3.7311	2.0083	26.36	0.39	1.500			
0.6218	39793.44	3.7280	3.7280	2.0594	26.34	0.37	1.500			
0.6281	40195.72	3.7250	3.7250	2.0684	26.33	0.36	1.500			
0.6342	40590.01	3.7220	3.7220	2.1527	26.31	0.34	1.500			
0.6407	41006.85	3.7190	3.7190	2.2210	26.30	0.33	1.500			
0.6475	41442.71	3.7160	3.7161	2.3074	26.28	0.31	1.500			
0.6546	41895.10	3.7130	3.7131	2.3908	26.27	0.30	1.500			
0.6620	42367.32	3.7100	3.7100	2.4611	26.25	0.28	1.500			
0.6694	42842.89	3.7070	3.7071	2.5053	26.24	0.27	1.500			
0.6772	43340.94	3.7040	3.7040	2.5393	26.22	0.25	1.500			
0.6847	43823.66	3.7010	3.7010	2.5246	26.20	0.23	1.500			
0.6924	44313.15	3.6980	3.6979	2.4716	26.18	0.21	1.500			
0.6997	44779.52	3.6950	3.6951	2.3453	26.17	0.20	1.500			
0.7066	45224.55	3.6920	3.6921	2.2031	26.16	0.19	1.500			
0.7130	45634.74	3.6890	3.6889	2.0407	26.15	0.18	1.500			
0.7188	46000.36	3.6860	3.6859	1.8796	26.14	0.17	1.500			
0.7242	46346.90	3.6830	3.6829	1.7427	26.13	0.16	1.500			
0.7292	46668.76	3.6800	3.6800	1.6336	26.12	0.15	1.500			
0.7338	46965.56	3.6770	3.6770	1.5346	26.11	0.14	1.500			
0.7382	47245.98	3.6740	3.6739	1.4485	26.10	0.13	1.500			
0.7424	47513.09	3.6710	3.6711	1.3859	26.09	0.12	1.500			
0.7464	47771.30	3.6680	3.6679	1.3337	26.09	0.12	1.500			
0.7503	48019.48	3.6650	3.6651	1.3000	26.08	0.11	1.500			
0.7541	48264.25	3.6620	3.6620	1.2787	26.07	0.10	1.500			
0.7579	48505.31	3.6590	3.6590	1.2680	26.06	0.09	1.500			
0.7616	48744.25	3.6560	3.6560	1.2677	26.06	0.09	1.500			
0.7654	48984.56	3.6530	3.6530	1.2714	26.05	0.08	1.500			
0.7692	49230.52	3.6500	3.6499	1.2792	26.04	0.07	1.500			
0.7731	49478.71	3.6470	3.6471	1.2875	26.03	0.06	1.500			
0.7770	49725.98	3.6440	3.6440	1.2943	26.02	0.05	1.500			
0.7809	49978.27	3.6410	3.6410	1.2891	26.02	0.05	1.500			
0.7848	50225.22	3.6380	3.6380	1.2846	26.01	0.04	1.500			
0.7886	50471.92	3.6350	3.6350	1.2759	26.00	0.03	1.500			
0.7924	50716.47	3.6320	3.6321	1.2711	25.99	0.02	1.500			
0.7962	50959.64	3.6290	3.6290	1.2658	25.99	0.02	1.500			
0.8000	51201.00	3.6260	3.6260	1.2606	25.98	0.01	1.500			
0.8038	51441.29	3.6230	3.6230	1.2589	25.97	0.00	1.500			
0.8076	51686.13	3.6200	3.6200	1.2596	25.97	-0.00	1.500			
0.8113	51926.28	3.6170	3.6170	1.2480	25.96	-0.01	1.500			
0.8151	52167.28	3.6140	3.6140	1.2460	25.96	-0.01	1.500			
0.8188	52405.94	3.6110	3.6110	1.2322	25.95	-0.02	1.500			
0.8225	52642.29	3.6080	3.6080	1.2190	25.95	-0.02	1.500			
0.8262	52875.62	3.6050	3.6050	1.2026	25.95	-0.02	1.500			
0.8298	53105.21	3.6020	3.6020	1.1833	25.95	-0.02	1.500			
0.8333	53331.11	3.5990	3.5990	1.1683	25.94	-0.03	1.500			
0.8368	53552.29	3.5960	3.5961	1.1486	25.94	-0.03	1.500			
0.8401	53769.11	3.5930	3.5930	1.1333	25.94	-0.03	1.500			
0.8435	53986.65	3.5900	3.5899	1.1178	25.94	-0.03	1.500			
0.8469	54199.93	3.5870	3.5870	1.1030	25.94	-0.03	1.500			
0.8502	54412.44	3.5840	3.5840	1.0805	25.95	-0.02	1.500			
0.8535	54622.91	3.5810	3.5809	1.0494	25.95	-0.02	1.500			
0.8567	54826.43	3.5780	3.5779	0.9807	25.95	-0.02	1.500			
0.8596	55012.67	3.5750	3.5752	0.8957	25.96	-0.01	1.500			
0.8622	55183.74	3.5720	3.5720	0.7911	25.96	-0.01	1.500			
0.8645	55326.90	3.5690	3.5690	0.6760	25.96	-0.01	1.500			
0.8663	55440.14	3.5660	3.5661	0.5675	25.97	-0.00	1.500			
0.8677	55533.36	3.5630	3.5629	0.4705	25.97	-0.00	1.500			
0.8689	55606.82	3.5600	3.5599	0.3889	25.97	-0.00	1.500			
0.8699	55670.42	3.5570	3.5569	0.3321	25.97	0.00	1.500			
0.8707	55724.90	3.5540	3.5540	0.2793	25.97	0.00	1.500			
0.8715	55773.01	3.5510	3.5509	0.2462	25.97	0.00	1.500			
0.8721	55814.00	3.5480	3.5479	0.2162	25.97	0.00	1.500			
0.8727	55852.06	3.5450	3.5450	0.1918	25.97	0.00	1.500			
0.8732	55885.97	3.5420	3.5421	0.1733	25.97	0.00	1.500			
0.8737	55916.84	3.5390	3.5390	0.1567	25.98	0.01	1.500			
0.8741	55945.08	3.5360	3.5360	0.1404	25.98	0.01	1.500			
0.8745	55970.43	3.5330	3.5330	0.1259	25.98	0.01	1.500			
0.8749	55992.79	3.5300	3.5299	0.1106	25.98	0.01	1.500			
0.8752	56012.78	3.5270	3.5271	0.0966	25.98	0.01	1.500			
0.8755	56030.05	3.5240	3.5241	0.0824	25.98	0.01	1.500			
0.8757	56044.50	3.5210	3.5211	0.0680	25.98	0.01	1.500			
0.8759	56056.27	3.5180	3.5185	0.0534	25.98	0.01	1.500			
0.8760	56065.10	3.5150	3.5157	0.0387	25.98	0.01	1.500			
