Ah_balance (normalized)	Ah_balance (mAh)	Voltage - fit (V)	Voltage -  interpolate (V)	dQ/dV (1/V)	Temperature (°C)	Temperature - diff (°C)	Current (C)	R_DC 0ms (mOhm)	R_DC 50ms (mOhm)	R_DC 50 ms PEC (mOhm)
0.2874	18395.97	3.9700	3.9700	0.8570	26.98	1.04	1.500			
0.2901	18566.63	3.9670	3.9669	0.8858	26.97	1.03	1.500			
0.2927	18735.17	3.9640	3.9640	0.8846	26.97	1.03	1.500			
0.2954	18904.68	3.9610	3.9610	0.8912	26.97	1.03	1.500			
0.2981	19077.25	3.9580	3.9580	0.8939	26.97	1.03	1.500			
0.3008	19249.45	3.9550	3.9549	0.8957	26.97	1.03	1.500			
0.3034	19420.56	3.9520	3.9521	0.8997	26.96	1.02	1.500			
0.3062	19593.71	3.9490	3.9490	0.9021	26.96	1.02	1.500			
0.3089	19767.82	3.9460	3.9460	0.9109	26.96	1.02	1.500			
0.3116	19941.39	3.9430	3.9430	0.9106	26.96	1.02	1.500			
0.3143	20117.08	3.9400	3.9400	0.9147	26.95	1.01	1.500			
0.3171	20294.93	3.9370	3.9369	0.9221	26.95	1.01	1.500			
0.3199	20470.95	3.9340	3.9341	0.9306	26.95	1.01	1.500			
0.3227	20650.73	3.9310	3.9310	0.9339	26.95	1.01	1.500			
0.3255	20831.33	3.9280	3.9279	0.9401	26.95	1.01	1.500			
0.3283	21011.22	3.9250	3.9251	0.9436	26.94	1.00	1.500			
0.3311	21192.20	3.9220	3.9221	0.9522	26.94	1.00	1.500			
0.3340	21375.67	3.9190	3.9190	0.9582	26.94	1.00	1.500			
0.3369	21559.19	3.9160	3.9159	0.9633	26.94	1.00	1.500			
0.3398	21744.62	3.9130	3.9131	0.9699	26.94	1.00	1.500			
0.3427	21934.91	3.9100	3.9100	0.9792	26.94	1.00	1.500			
0.3457	22121.85	3.9070	3.9070	0.9863	26.93	0.99	1.500			
0.3486	22311.98	3.9040	3.9040	0.9973	26.93	0.99	1.500			
0.3516	22502.11	3.9010	3.9010	1.0020	26.93	0.99	1.500			
0.3546	22695.82	3.8980	3.8980	1.0143	26.93	0.99	1.500			
0.3577	22891.48	3.8950	3.8950	1.0235	26.93	0.99	1.500			
0.3608	23088.23	3.8920	3.8920	1.0385	26.92	0.98	1.500			
0.3639	23290.99	3.8890	3.8890	1.0457	26.92	0.98	1.500			
0.3670	23490.92	3.8860	3.8860	1.0534	26.91	0.97	1.500			
0.3703	23696.47	3.8830	3.8830	1.0549	26.90	0.96	1.500			
0.3734	23899.33	3.8800	3.8800	1.0651	26.90	0.96	1.500			
0.3766	24102.39	3.8770	3.8770	1.0747	26.89	0.95	1.500			
0.3798	24308.85	3.8740	3.8740	1.0886	26.89	0.95	1.500			
0.3831	24516.86	3.8710	3.8709	1.1003	26.88	0.94	1.500			
0.3864	24731.81	3.8680	3.8680	1.1210	26.87	0.93	1.500			
0.3898	24948.14	3.8650	3.8650	1.1342	26.87	0.93	1.500			
0.3933	25169.16	3.8620	3.8620	1.1540	26.86	0.92	1.500			
0.3967	25390.56	3.8590	3.8590	1.1589	26.86	0.92	1.500			
0.4002	25614.33	3.8560	3.8560	1.1778	26.85	0.91	1.500			
0.4038	25840.14	3.8530	3.8531	1.1967	26.85	0.91	1.500			
0.4074	26071.08	3.8500	3.8498	1.2235	26.84	0.90	1.500			
0.4111	26308.07	3.8470	3.8470	1.2468	26.83	0.89	1.500			
0.4148	26549.59	3.8440	3.8440	1.2715	26.83	0.89	1.500			
0.4187	26796.88	3.8410	3.8410	1.2964	26.82	0.88	1.500			
0.4226	27049.15	3.8380	3.8380	1.3148	26.82	0.88	1.500			
0.4266	27304.23	3.8350	3.8349	1.3379	26.81	0.87	1.500			
0.4307	27562.74	3.8320	3.8321	1.3565	26.80	0.86	1.500			
0.4348	27824.71	3.8290	3.8290	1.3811	26.79	0.85	1.500			
0.4389	28090.45	3.8260	3.8260	1.4155	26.78	0.84	1.500			
0.4432	28365.38	3.8230	3.8229	1.4385	26.77	0.83	1.500			
0.4475	28642.97	3.8200	3.8200	1.4709	26.75	0.81	1.500			
0.4520	28928.31	3.8170	3.8170	1.5048	26.74	0.80	1.500			
0.4566	29219.49	3.8140	3.8140	1.5453	26.72	0.78	1.500			
0.4613	29520.75	3.8110	3.8110	1.5843	26.71	0.77	1.500			
0.4661	29829.14	3.8080	3.8079	1.6129	26.70	0.76	1.500			
0.4710	30140.90	3.8050	3.8051	1.6554	26.69	0.75	1.500			
0.4760	30462.44	3.8020	3.8020	1.7077	26.68	0.74	1.500			
0.4812	30794.25	3.7990	3.7989	1.7639	26.67	0.73	1.500			
0.4865	31136.81	3.7960	3.7960	1.8130	26.66	0.72	1.500			
0.4921	31492.36	3.7930	3.7931	1.8650	26.64	0.70	1.500			
0.4978	31856.30	3.7900	3.7901	1.9092	26.63	0.69	1.500			
0.5035	32225.78	3.7870	3.7870	1.9504	26.61	0.67	1.500			
0.5095	32604.94	3.7840	3.7841	2.0124	26.59	0.65	1.500			
0.5155	32994.98	3.7810	3.7810	2.0419	26.58	0.64	1.500			
0.5218	33392.23	3.7780	3.7781	2.1264	26.56	0.62	1.500			
0.5282	33803.28	3.7750	3.7751	2.1910	26.54	0.60	1.500			
0.5349	34234.38	3.7720	3.7720	2.2587	26.52	0.58	1.500			
0.5418	34678.15	3.7690	3.7690	2.2684	26.50	0.56	1.500			
0.5487	35115.37	3.7660	3.7662	2.3264	26.47	0.53	1.500			
0.5556	35556.62	3.7630	3.7629	2.3449	26.45	0.51	1.500			
0.5627	36011.98	3.7600	3.7596	2.3633	26.43	0.49	1.500	0.349	0.448	
0.5698	36468.40	3.7570	3.7573	2.3967	26.41	0.47	1.500			
0.5773	36947.46	3.7540	3.7541	2.3881	26.39	0.45	1.500			
0.5843	37392.34	3.7510	3.7510	2.2796	26.37	0.43	1.500			
0.5911	37832.75	3.7480	3.7480	2.2359	26.35	0.41	1.500			
0.5977	38252.04	3.7450	3.7449	2.2264	26.33	0.39	1.500			
0.6042	38671.50	3.7420	3.7421	2.2007	26.31	0.37	1.500			
0.6108	39093.13	3.7390	3.7391	2.1962	26.29	0.35	1.500			
0.6175	39520.39	3.7360	3.7360	2.1950	26.28	0.34	1.500			
0.6240	39937.85	3.7330	3.7331	2.1895	26.26	0.32	1.500			
0.6305	40349.94	3.7300	3.7299	2.1803	26.24	0.30	1.500			
0.6370	40768.90	3.7270	3.7270	2.1992	26.23	0.29	1.500			
0.6436	41188.36	3.7240	3.7241	2.2336	26.21	0.27	1.500			
0.6504	41625.58	3.7210	3.7210	2.3002	26.20	0.26	1.500			
0.6573	42065.85	3.7180	3.7179	2.3499	26.18	0.24	1.500			
0.6645	42525.26	3.7150	3.7150	2.3963	26.16	0.22	1.500			
0.6718	42995.32	3.7120	3.7119	2.5005	26.15	0.21	1.500			
0.6794	43479.00	3.7090	3.7090	2.6117	26.13	0.19	1.500			
0.6873	43987.89	3.7060	3.7061	2.7539	26.11	0.17	1.500			
0.6957	44527.57	3.7030	3.7031	2.8270	26.10	0.16	1.500			
0.7044	45084.70	3.7000	3.7000	2.8588	26.09	0.15	1.500			
0.7132	45646.24	3.6970	3.6971	2.8509	26.08	0.14	1.500			
0.7217	46191.63	3.6940	3.6940	2.8220	26.07	0.13	1.500			
0.7302	46735.08	3.6910	3.6909	2.7287	26.05	0.11	1.500			
0.7384	47260.51	3.6880	3.6880	2.5753	26.05	0.11	1.500			
0.7458	47728.72	3.6850	3.6851	2.3487	26.04	0.10	1.500			
0.7524	48152.20	3.6820	3.6821	2.1161	26.03	0.09	1.500			
0.7583	48532.39	3.6790	3.6789	1.9268	26.03	0.09	1.500			
0.7638	48885.69	3.6760	3.6760	1.7862	26.02	0.08	1.500			
0.7688	49205.99	3.6730	3.6730	1.6501	26.02	0.08	1.500			
0.7736	49510.05	3.6700	3.6700	1.5414	26.02	0.08	1.500			
0.7780	49789.69	3.6670	3.6670	1.4493	26.01	0.07	1.500			
0.7821	50057.03	3.6640	3.6638	1.3743	26.01	0.07	1.500			
0.7861	50309.68	3.6610	3.6609	1.3170	26.01	0.07	1.500			
0.7899	50553.50	3.6580	3.6580	1.2723	26.00	0.06	1.500			
0.7936	50792.24	3.6550	3.6550	1.2450	26.00	0.06	1.500			
0.7972	51022.88	3.6520	3.6520	1.2338	25.99	0.05	1.500			
0.8009	51256.13	3.6490	3.6490	1.2384	25.99	0.05	1.500			
0.8046	51492.47	3.6460	3.6460	1.2535	25.98	0.04	1.500			
0.8083	51733.93	3.6430	3.6429	1.2708	25.98	0.04	1.500			
0.8122	51980.99	3.6400	3.6401	1.2896	25.97	0.03	1.500			
0.8162	52233.93	3.6370	3.6370	1.3053	25.97	0.03	1.500			
0.8201	52487.54	3.6340	3.6340	1.3099	25.96	0.02	1.500			
0.8241	52739.42	3.6310	3.6310	1.3092	25.96	0.02	1.500			
0.8280	52990.20	3.6280	3.6281	1.3088	25.96	0.02	1.500			
0.8319	53242.37	3.6250	3.6249	1.3063	25.95	0.01	1.500			
0.8358	53493.81	3.6220	3.6220	1.3022	25.95	0.01	1.500			
0.8397	53741.81	3.6190	3.6191	1.3010	25.94	0.00	1.500			
0.8436	53993.21	3.6160	3.6160	1.2984	25.94	0.00	1.500			
0.8475	54240.70	3.6130	3.6130	1.2901	25.94	-0.00	1.500			
0.8514	54488.50	3.6100	3.6100	1.2883	25.93	-0.01	1.500			
0.8552	54734.63	3.6070	3.6071	1.2894	25.93	-0.01	1.500			
0.8591	54983.41	3.6040	3.6040	1.2868	25.93	-0.01	1.500			
0.8630	55232.15	3.6010	3.6009	1.2776	25.93	-0.01	1.500			
0.8668	55476.87	3.5980	3.5980	1.2628	25.93	-0.01	1.500			
0.8706	55720.27	3.5950	3.5951	1.2508	25.92	-0.02	1.500			
0.8743	55957.33	3.5920	3.5920	1.2323	25.92	-0.02	1.500			
0.8780	56191.13	3.5890	3.5890	1.2143	25.92	-0.02	1.500			
0.8816	56420.89	3.5860	3.5860	1.2021	25.92	-0.02	1.500			
0.8852	56649.82	3.5830	3.5830	1.1967	25.92	-0.02	1.500			
0.8887	56876.58	3.5800	3.5800	1.2060	25.93	-0.01	1.500			
0.8923	57106.11	3.5770	3.5770	1.2159	25.93	-0.01	1.500			
0.8960	57344.28	3.5740	3.5739	1.2067	25.93	-0.01	1.500			
0.8998	57588.03	3.5710	3.5709	1.1621	25.93	-0.01	1.500			
0.9035	57822.26	3.5680	3.5680	1.0999	25.94	-0.00	1.500			
0.9068	58033.82	3.5650	3.5650	0.9712	25.94	-0.00	1.500			
0.9096	58215.56	3.5620	3.5621	0.8335	25.94	0.00	1.500			
0.9118	58353.14	3.5590	3.5591	0.6831	25.94	0.00	1.500			
0.9134	58456.43	3.5560	3.5561	0.5414	25.94	0.00	1.500			
0.9147	58543.94	3.5530	3.5529	0.4206	25.95	0.01	1.500			
0.9158	58611.24	3.5500	3.5497	0.3466	25.95	0.01	1.500			
0.9166	58661.99	3.5470	3.5470	0.2820	25.95	0.01	1.500			
0.9173	58708.28	3.5440	3.5439	0.2415	25.95	0.01	1.500			
0.9179	58748.14	3.5410	3.5410	0.2042	25.95	0.01	1.500			
0.9185	58783.48	3.5380	3.5379	0.1803	25.95	0.01	1.500			
0.9190	58813.98	3.5350	3.5351	0.1574	25.95	0.01	1.500			
0.9194	58841.81	3.5320	3.5320	0.1362	25.95	0.01	1.500			
0.9198	58866.23	3.5290	3.5289	0.1182	25.95	0.01	1.500			
0.9201	58886.90	3.5260	3.5261	0.1001	25.95	0.01	1.500			
0.9204	58904.21	3.5230	3.5231	0.0827	25.95	0.01	1.500			
0.9206	58918.85	3.5200	3.5202	0.0647	25.95	0.01	1.500			
0.9208	58929.52	3.5170	3.5175	0.0464	25.95	0.01	1.500			
