Ah_balance (normalized)	Ah_balance (mAh)	Voltage - fit (V)	Voltage -  interpolate (V)	dQ/dV (1/V)	Temperature (°C)	Temperature - diff (°C)	Current (C)	R_DC 0ms (mOhm)	R_DC 50ms (mOhm)	R_DC 50 ms PEC (mOhm)
0.1891	12101.86	3.9260	3.9259	-0.1029	25.70	-0.00	-1.500			
0.1895	12125.61	3.9230	3.9228	-0.1371	25.70	-0.00	-1.500			
0.1899	12155.15	3.9200	3.9199	-0.1665	25.70	-0.00	-1.500			
0.1905	12190.02	3.9170	3.9169	-0.1948	25.70	-0.00	-1.500			
0.1911	12230.41	3.9140	3.9141	-0.2215	25.70	-0.00	-1.500			
0.1918	12276.41	3.9110	3.9110	-0.2500	25.70	-0.00	-1.500			
0.1926	12326.88	3.9080	3.9080	-0.2754	25.70	-0.00	-1.500			
0.1935	12382.48	3.9050	3.9050	-0.2992	25.70	-0.00	-1.500			
0.1944	12442.23	3.9020	3.9021	-0.3246	25.70	-0.00	-1.500			
0.1954	12507.16	3.8990	3.8990	-0.3487	25.70	0.00	-1.500			
0.1965	12576.32	3.8960	3.8960	-0.3726	25.70	0.00	-1.500			
0.1977	12649.78	3.8930	3.8930	-0.3988	25.70	0.00	-1.500			
0.1989	12728.24	3.8900	3.8900	-0.4241	25.70	0.00	-1.500			
0.2002	12813.60	3.8870	3.8869	-0.4474	25.70	0.00	-1.500			
0.2016	12902.50	3.8840	3.8840	-0.4688	25.71	0.01	-1.500			
0.2030	12994.41	3.8810	3.8810	-0.4919	25.71	0.01	-1.500			
0.2045	13091.14	3.8780	3.8781	-0.5142	25.71	0.01	-1.500			
0.2061	13191.50	3.8750	3.8749	-0.5345	25.71	0.01	-1.500			
0.2078	13296.29	3.8720	3.8720	-0.5526	25.71	0.01	-1.500			
0.2095	13405.85	3.8690	3.8690	-0.5691	25.71	0.01	-1.500			
0.2112	13517.55	3.8660	3.8661	-0.5848	25.71	0.01	-1.500			
0.2130	13631.67	3.8630	3.8630	-0.5995	25.71	0.01	-1.500			
0.2148	13747.44	3.8600	3.8599	-0.6087	25.72	0.02	-1.500			
0.2166	13864.79	3.8570	3.8570	-0.6203	25.72	0.02	-1.500			
0.2185	13985.62	3.8540	3.8540	-0.6289	25.72	0.02	-1.500			
0.2204	14108.60	3.8510	3.8510	-0.6408	25.72	0.02	-1.500			
0.2224	14232.56	3.8480	3.8480	-0.6487	25.72	0.02	-1.500			
0.2243	14357.78	3.8450	3.8449	-0.6537	25.73	0.03	-1.500			
0.2263	14483.96	3.8420	3.8420	-0.6586	25.73	0.03	-1.500			
0.2283	14611.16	3.8390	3.8390	-0.6657	25.73	0.03	-1.500			
0.2303	14739.17	3.8360	3.8360	-0.6707	25.74	0.04	-1.500			
0.2323	14869.99	3.8330	3.8330	-0.6739	25.74	0.04	-1.500			
0.2344	14998.93	3.8300	3.8300	-0.6744	25.74	0.04	-1.500			
0.2364	15128.67	3.8270	3.8270	-0.6759	25.75	0.05	-1.500			
0.2384	15258.74	3.8240	3.8241	-0.6825	25.75	0.05	-1.500			
0.2405	15389.62	3.8210	3.8209	-0.6862	25.75	0.05	-1.500			
0.2425	15521.83	3.8180	3.8180	-0.6875	25.76	0.06	-1.500			
0.2446	15655.29	3.8150	3.8152	-0.6898	25.76	0.06	-1.500			
0.2467	15789.92	3.8120	3.8120	-0.6935	25.76	0.06	-1.500			
0.2488	15921.54	3.8090	3.8091	-0.6943	25.77	0.07	-1.500			
0.2509	16054.64	3.8060	3.8060	-0.6900	25.77	0.07	-1.500			
0.2529	16186.67	3.8030	3.8029	-0.6909	25.78	0.08	-1.500			
0.2550	16318.81	3.8000	3.8000	-0.6907	25.78	0.08	-1.500			
0.2571	16452.17	3.7970	3.7971	-0.6929	25.79	0.09	-1.500			
0.2591	16584.49	3.7940	3.7940	-0.6952	25.79	0.09	-1.500			
0.2612	16718.47	3.7910	3.7910	-0.6953	25.80	0.10	-1.500			
0.2633	16851.39	3.7880	3.7880	-0.7002	25.80	0.10	-1.500			
0.2654	16988.25	3.7850	3.7850	-0.7056	25.81	0.11	-1.500			
0.2676	17123.45	3.7820	3.7819	-0.7036	25.81	0.11	-1.500			
0.2697	17259.33	3.7790	3.7792	-0.7035	25.82	0.12	-1.500			
0.2718	17394.23	3.7760	3.7759	-0.7040	25.83	0.13	-1.500			
0.2739	17528.72	3.7730	3.7730	-0.7033	25.84	0.14	-1.500			
0.2760	17663.14	3.7700	3.7700	-0.7044	25.84	0.14	-1.500			
0.2781	17799.55	3.7670	3.7669	-0.7040	25.85	0.15	-1.500			
0.2802	17934.70	3.7640	3.7640	-0.7013	25.86	0.16	-1.500			
0.2823	18067.96	3.7610	3.7611	-0.7041	25.87	0.17	-1.500			
0.2844	18202.94	3.7580	3.7580	-0.7048	25.87	0.17	-1.500			
0.2865	18336.67	3.7550	3.7549	-0.7098	25.88	0.18	-1.500			
0.2887	18474.27	3.7520	3.7520	-0.7154	25.89	0.19	-1.500			
0.2908	18612.46	3.7490	3.7491	-0.7191	25.90	0.20	-1.500			
0.2930	18752.18	3.7460	3.7460	-0.7251	25.90	0.20	-1.500			
0.2952	18892.17	3.7430	3.7430	-0.7269	25.91	0.21	-1.500			
0.2974	19031.63	3.7400	3.7399	-0.7238	25.92	0.22	-1.500			
0.2995	19170.05	3.7370	3.7370	-0.7272	25.92	0.22	-1.500			
0.3017	19308.15	3.7340	3.7340	-0.7318	25.93	0.23	-1.500			
0.3039	19449.82	3.7310	3.7310	-0.7392	25.94	0.24	-1.500			
0.3061	19592.24	3.7280	3.7280	-0.7423	25.94	0.24	-1.500			
0.3083	19734.39	3.7250	3.7250	-0.7514	25.95	0.25	-1.500			
0.3106	19879.87	3.7220	3.7220	-0.7604	25.95	0.25	-1.500			
0.3129	20028.03	3.7190	3.7189	-0.7659	25.96	0.26	-1.500			
0.3152	20174.24	3.7160	3.7160	-0.7708	25.97	0.27	-1.500			
0.3175	20322.47	3.7130	3.7131	-0.7762	25.97	0.27	-1.500			
0.3199	20472.99	3.7100	3.7100	-0.7833	25.98	0.28	-1.500			
0.3223	20624.38	3.7070	3.7069	-0.7888	25.99	0.29	-1.500			
0.3246	20774.15	3.7040	3.7041	-0.7979	26.00	0.30	-1.500			
0.3270	20928.66	3.7010	3.7010	-0.8067	26.00	0.30	-1.500			
0.3295	21085.71	3.6980	3.6979	-0.8135	26.01	0.31	-1.500			
0.3319	21241.24	3.6950	3.6950	-0.8223	26.02	0.32	-1.500			
0.3344	21399.38	3.6920	3.6921	-0.8352	26.03	0.33	-1.500			
0.3369	21561.23	3.6890	3.6889	-0.8456	26.04	0.34	-1.500			
0.3394	21724.69	3.6860	3.6859	-0.8549	26.04	0.34	-1.500			
0.3420	21889.63	3.6830	3.6831	-0.8616	26.05	0.35	-1.500			
0.3446	22056.94	3.6800	3.6802	-0.8778	26.06	0.36	-1.500			
0.3473	22226.01	3.6770	3.6770	-0.8887	26.07	0.37	-1.500			
0.3499	22395.15	3.6740	3.6740	-0.8948	26.07	0.37	-1.500			
0.3526	22568.55	3.6710	3.6710	-0.9087	26.08	0.38	-1.500			
0.3554	22745.64	3.6680	3.6680	-0.9239	26.09	0.39	-1.500			
0.3582	22923.95	3.6650	3.6650	-0.9376	26.09	0.39	-1.500			
0.3610	23105.21	3.6620	3.6621	-0.9576	26.10	0.40	-1.500			
0.3639	23290.39	3.6590	3.6590	-0.9692	26.11	0.41	-1.500			
0.3668	23478.01	3.6560	3.6559	-0.9857	26.11	0.41	-1.500			
0.3698	23669.84	3.6530	3.6531	-1.0028	26.12	0.42	-1.500			
0.3729	23863.94	3.6500	3.6499	-1.0186	26.13	0.43	-1.500			
0.3759	24060.77	3.6470	3.6470	-1.0330	26.13	0.43	-1.500			
0.3791	24260.24	3.6440	3.6441	-1.0422	26.14	0.44	-1.500			
0.3822	24460.14	3.6410	3.6410	-1.0667	26.14	0.44	-1.500			
0.3854	24667.38	3.6380	3.6381	-1.0861	26.15	0.45	-1.500			
0.3887	24877.19	3.6350	3.6349	-1.1013	26.15	0.45	-1.500			
0.3920	25090.84	3.6320	3.6320	-1.1180	26.16	0.46	-1.500			
0.3954	25308.43	3.6290	3.6291	-1.1357	26.16	0.46	-1.500			
0.3989	25527.67	3.6260	3.6260	-1.1546	26.17	0.47	-1.500			
0.4024	25751.04	3.6230	3.6230	-1.1764	26.17	0.47	-1.500			
0.4059	25976.05	3.6200	3.6200	-1.1946	26.17	0.47	-1.500			
0.4095	26209.02	3.6170	3.6170	-1.2180	26.18	0.48	-1.500			
0.4132	26446.02	3.6140	3.6140	-1.2319	26.18	0.48	-1.500			
0.4170	26686.33	3.6110	3.6110	-1.2475	26.19	0.49	-1.500			
0.4207	26926.15	3.6080	3.6080	-1.2634	26.19	0.49	-1.500			
0.4245	27169.15	3.6050	3.6049	-1.2749	26.19	0.49	-1.500			
0.4283	27414.25	3.6020	3.6020	-1.2986	26.19	0.49	-1.500			
0.4323	27664.75	3.5990	3.5990	-1.3156	26.20	0.50	-1.500			
0.4362	27919.90	3.5960	3.5960	-1.3441	26.20	0.50	-1.500			
0.4403	28181.53	3.5930	3.5931	-1.3635	26.20	0.50	-1.500			
0.4445	28445.89	3.5900	3.5899	-1.3790	26.20	0.50	-1.500			
0.4486	28711.72	3.5870	3.5870	-1.3988	26.20	0.50	-1.500			
0.4529	28983.21	3.5840	3.5840	-1.4139	26.21	0.51	-1.500			
0.4571	29254.72	3.5810	3.5810	-1.4417	26.21	0.51	-1.500			
0.4615	29537.33	3.5780	3.5780	-1.4573	26.22	0.52	-1.500			
0.4659	29817.61	3.5750	3.5749	-1.4688	26.23	0.53	-1.500			
0.4703	30101.71	3.5720	3.5722	-1.4937	26.23	0.53	-1.500			
0.4748	30390.14	3.5690	3.5690	-1.5160	26.23	0.53	-1.500			
0.4794	30680.63	3.5660	3.5659	-1.5384	26.24	0.54	-1.500			
0.4840	30977.86	3.5630	3.5630	-1.5603	26.24	0.54	-1.500			
0.4888	31283.11	3.5600	3.5600	-1.5793	26.25	0.55	-1.500			
0.4936	31588.93	3.5570	3.5569	-1.5955	26.25	0.55	-1.500			
0.4984	31898.22	3.5540	3.5540	-1.6123	26.25	0.55	-1.500			
0.5032	32205.57	3.5510	3.5509	-1.6283	26.26	0.56	-1.500			
0.5081	32517.75	3.5480	3.5480	-1.6451	26.27	0.57	-1.500			
0.5130	32833.16	3.5450	3.5451	-1.6662	26.27	0.57	-1.500			
0.5181	33159.75	3.5420	3.5419	-1.6954	26.28	0.58	-1.500			
0.5233	33489.21	3.5390	3.5391	-1.7128	26.28	0.58	-1.500			
0.5285	33821.07	3.5360	3.5360	-1.7294	26.29	0.59	-1.500			
0.5337	34155.97	3.5330	3.5328	-1.7361	26.29	0.59	-1.500	0.378	0.516	
0.5389	34491.61	3.5300	3.5299	-1.7434	26.30	0.60	-1.500			
0.5442	34827.15	3.5270	3.5271	-1.7461	26.30	0.60	-1.500			
0.5494	35159.78	3.5240	3.5239	-1.7449	26.31	0.61	-1.500			
0.5546	35496.28	3.5210	3.5210	-1.7588	26.31	0.61	-1.500			
0.5599	35834.31	3.5180	3.5180	-1.7625	26.32	0.62	-1.500			
0.5652	36173.38	3.5150	3.5149	-1.7799	26.32	0.62	-1.500			
0.5706	36516.01	3.5120	3.5120	-1.7837	26.33	0.63	-1.500			
0.5759	36858.50	3.5090	3.5089	-1.7862	26.34	0.64	-1.500			
0.5813	37203.33	3.5060	3.5060	-1.7880	26.35	0.65	-1.500			
0.5866	37545.40	3.5030	3.5030	-1.7839	26.36	0.66	-1.500			
0.5920	37889.96	3.5000	3.4999	-1.7775	26.37	0.67	-1.500			
0.5974	38230.77	3.4970	3.4970	-1.7680	26.38	0.68	-1.500			
0.6026	38567.89	3.4940	3.4940	-1.7682	26.39	0.69	-1.500			
0.6080	38908.99	3.4910	3.4909	-1.7638	26.40	0.70	-1.500			
0.6132	39244.12	3.4880	3.4880	-1.7572	26.41	0.71	-1.500			
0.6185	39584.00	3.4850	3.4849	-1.7468	26.42	0.72	-1.500			
0.6237	39919.55	3.4820	3.4820	-1.7388	26.43	0.73	-1.500			
0.6290	40255.25	3.4790	3.4790	-1.7232	26.44	0.74	-1.500			
0.6341	40583.79	3.4760	3.4759	-1.7020	26.45	0.75	-1.500			
0.6392	40907.35	3.4730	3.4730	-1.6846	26.47	0.77	-1.500			
0.6442	41229.69	3.4700	3.4701	-1.6642	26.48	0.78	-1.500			
0.6492	41546.58	3.4670	3.4669	-1.6382	26.49	0.79	-1.500			
0.6541	41859.41	3.4640	3.4640	-1.6237	26.51	0.81	-1.500			
0.6589	42170.57	3.4610	3.4610	-1.5949	26.53	0.83	-1.500			
0.6637	42475.07	3.4580	3.4579	-1.5689	26.54	0.84	-1.500			
0.6684	42775.15	3.4550	3.4551	-1.5447	26.56	0.86	-1.500			
0.6729	43068.45	3.4520	3.4520	-1.5204	26.57	0.87	-1.500			
0.6774	43356.80	3.4490	3.4489	-1.4999	26.59	0.89	-1.500			
0.6819	43641.46	3.4460	3.4460	-1.4859	26.60	0.90	-1.500			
0.6863	43923.21	3.4430	3.4430	-1.4619	26.61	0.91	-1.500			
0.6907	44207.93	3.4400	3.4399	-1.4556	26.63	0.93	-1.500			
0.6951	44484.55	3.4370	3.4371	-1.4311	26.64	0.94	-1.500			
0.6993	44757.15	3.4340	3.4340	-1.4138	26.66	0.96	-1.500			
0.7035	45026.32	3.4310	3.4309	-1.3955	26.68	0.98	-1.500			
0.7076	45288.67	3.4280	3.4280	-1.3831	26.70	1.00	-1.500			
0.7118	45556.27	3.4250	3.4250	-1.3680	26.71	1.01	-1.500			
0.7159	45818.31	3.4220	3.4220	-1.3511	26.73	1.03	-1.500			
0.7200	46077.23	3.4190	3.4192	-1.3364	26.75	1.05	-1.500			
0.7240	46333.35	3.4160	3.4160	-1.3137	26.77	1.07	-1.500			
0.7278	46581.63	3.4130	3.4129	-1.2926	26.79	1.09	-1.500			
0.7317	46827.82	3.4100	3.4100	-1.2674	26.80	1.10	-1.500			
0.7355	47070.68	3.4070	3.4070	-1.2424	26.82	1.12	-1.500			
0.7392	47308.62	3.4040	3.4040	-1.2151	26.84	1.14	-1.500			
0.7428	47540.23	3.4010	3.4010	-1.1769	26.85	1.15	-1.500			
0.7463	47761.59	3.3980	3.3980	-1.1407	26.87	1.17	-1.500			
0.7496	47977.04	3.3950	3.3950	-1.1075	26.89	1.19	-1.500			
0.7529	48184.25	3.3920	3.3919	-1.0675	26.90	1.20	-1.500			
0.7560	48386.67	3.3890	3.3890	-1.0378	26.92	1.22	-1.500			
0.7591	48584.69	3.3860	3.3859	-0.9972	26.93	1.23	-1.500			
0.7621	48773.48	3.3830	3.3831	-0.9594	26.95	1.25	-1.500			
0.7649	48953.48	3.3800	3.3801	-0.9265	26.96	1.26	-1.500			
0.7676	49125.18	3.3770	3.3769	-0.8873	26.97	1.27	-1.500			
0.7702	49292.03	3.3740	3.3739	-0.8578	26.98	1.28	-1.500			
0.7727	49451.65	3.3710	3.3710	-0.8302	27.00	1.30	-1.500			
0.7752	49609.79	3.3680	3.3680	-0.8046	27.01	1.31	-1.500			
0.7775	49762.83	3.3650	3.3650	-0.7798	27.02	1.32	-1.500			
0.7798	49909.37	3.3620	3.3620	-0.7516	27.03	1.33	-1.500			
0.7820	50050.52	3.3590	3.3590	-0.7226	27.04	1.34	-1.500			
0.7842	50186.43	3.3560	3.3560	-0.6990	27.05	1.35	-1.500			
0.7862	50317.66	3.3530	3.3531	-0.6769	27.06	1.36	-1.500			
0.7882	50443.94	3.3500	3.3500	-0.6565	27.07	1.37	-1.500			
0.7901	50569.05	3.3470	3.3469	-0.6356	27.08	1.38	-1.500			
0.7920	50688.57	3.3440	3.3440	-0.6155	27.09	1.39	-1.500			
0.7938	50805.10	3.3410	3.3411	-0.5977	27.10	1.40	-1.500			
0.7956	50918.41	3.3380	3.3379	-0.5810	27.11	1.41	-1.500			
0.7973	51027.22	3.3350	3.3350	-0.5622	27.11	1.41	-1.500			
0.7990	51133.27	3.3320	3.3320	-0.5477	27.12	1.42	-1.500			
0.8006	51236.55	3.3290	3.3290	-0.5327	27.13	1.43	-1.500			
0.8022	51338.59	3.3260	3.3259	-0.5199	27.14	1.44	-1.500			
0.8037	51436.91	3.3230	3.3230	-0.5032	27.15	1.45	-1.500			
0.8052	51532.14	3.3200	3.3201	-0.4875	27.16	1.46	-1.500			
0.8066	51624.08	3.3170	3.3170	-0.4733	27.16	1.46	-1.500			
0.8080	51713.61	3.3140	3.3139	-0.4591	27.17	1.47	-1.500			
0.8094	51799.22	3.3110	3.3110	-0.4457	27.18	1.48	-1.500			
0.8107	51883.55	3.3080	3.3081	-0.4344	27.19	1.49	-1.500			
0.8120	51965.70	3.3050	3.3050	-0.4260	27.19	1.49	-1.500			
0.8132	52046.74	3.3020	3.3019	-0.4168	27.20	1.50	-1.500			
0.8145	52125.96	3.2990	3.2990	-0.4046	27.21	1.51	-1.500			
0.8157	52202.49	3.2960	3.2961	-0.3942	27.21	1.51	-1.500			
0.8168	52277.54	3.2930	3.2931	-0.3843	27.22	1.52	-1.500			
0.8180	52349.74	3.2900	3.2899	-0.3755	27.22	1.52	-1.500			
0.8191	52420.58	3.2870	3.2870	-0.3657	27.23	1.53	-1.500			
0.8201	52489.39	3.2840	3.2839	-0.3574	27.23	1.53	-1.500			
0.8212	52558.07	3.2810	3.2810	-0.3494	27.24	1.54	-1.500			
0.8223	52624.91	3.2780	3.2780	-0.3405	27.25	1.55	-1.500			
0.8233	52689.16	3.2750	3.2750	-0.3310	27.25	1.55	-1.500			
0.8242	52751.59	3.2720	3.2721	-0.3230	27.26	1.56	-1.500			
0.8252	52811.87	3.2690	3.2689	-0.3140	27.26	1.56	-1.500			
0.8261	52871.63	3.2660	3.2659	-0.3085	27.27	1.57	-1.500			
0.8270	52929.80	3.2630	3.2630	-0.3022	27.28	1.58	-1.500			
0.8279	52987.70	3.2600	3.2601	-0.2971	27.28	1.58	-1.500			
0.8288	53044.67	3.2570	3.2569	-0.2920	27.29	1.59	-1.500			
0.8297	53100.11	3.2540	3.2540	-0.2861	27.29	1.59	-1.500			
0.8305	53154.07	3.2510	3.2511	-0.2797	27.30	1.60	-1.500			
0.8314	53207.49	3.2480	3.2480	-0.2745	27.30	1.60	-1.500			
0.8322	53259.58	3.2450	3.2449	-0.2683	27.31	1.61	-1.500			
0.8330	53310.29	3.2420	3.2420	-0.2641	27.31	1.61	-1.500			
0.8338	53360.74	3.2390	3.2390	-0.2593	27.32	1.62	-1.500			
0.8345	53409.90	3.2360	3.2360	-0.2552	27.32	1.62	-1.500			
0.8353	53458.24	3.2330	3.2329	-0.2509	27.33	1.63	-1.500			
0.8360	53506.17	3.2300	3.2300	-0.2468	27.33	1.63	-1.500			
0.8368	53553.32	3.2270	3.2270	-0.2433	27.34	1.64	-1.500			
0.8375	53599.74	3.2240	3.2240	-0.2392	27.34	1.64	-1.500			
0.8382	53644.80	3.2210	3.2210	-0.2354	27.35	1.65	-1.500			
0.8389	53689.80	3.2180	3.2180	-0.2331	27.35	1.65	-1.500			
0.8396	53734.20	3.2150	3.2149	-0.2289	27.36	1.66	-1.500			
0.8403	53777.85	3.2120	3.2120	-0.2258	27.36	1.66	-1.500			
0.8410	53821.03	3.2090	3.2090	-0.2224	27.37	1.67	-1.500			
0.8416	53863.55	3.2060	3.2060	-0.2195	27.37	1.67	-1.500			
0.8423	53905.26	3.2030	3.2029	-0.2161	27.37	1.67	-1.500			
0.8429	53946.12	3.2000	3.2000	-0.2137	27.38	1.68	-1.500			
0.8435	53986.55	3.1970	3.1969	-0.2110	27.38	1.68	-1.500			
0.8442	54026.81	3.1940	3.1941	-0.2077	27.39	1.69	-1.500			
0.8448	54066.74	3.1910	3.1910	-0.2056	27.39	1.69	-1.500			
0.8454	54105.98	3.1880	3.1881	-0.2024	27.40	1.70	-1.500			
0.8460	54144.69	3.1850	3.1850	-0.1993	27.40	1.70	-1.500			
0.8466	54182.57	3.1820	3.1819	-0.1968	27.41	1.71	-1.500			
0.8472	54219.82	3.1790	3.1790	-0.1947	27.41	1.71	-1.500			
0.8478	54256.46	3.1760	3.1760	-0.1925	27.42	1.72	-1.500			
0.8483	54293.34	3.1730	3.1730	-0.1917	27.42	1.72	-1.500			
0.8489	54330.36	3.1700	3.1699	-0.1892	27.43	1.73	-1.500			
0.8495	54366.40	3.1670	3.1670	-0.1878	27.44	1.74	-1.500			
0.8500	54402.55	3.1640	3.1640	-0.1864	27.44	1.74	-1.500			
0.8506	54438.12	3.1610	3.1610	-0.1842	27.45	1.75	-1.500			
0.8511	54473.13	3.1580	3.1579	-0.1827	27.45	1.75	-1.500			
0.8517	54508.14	3.1550	3.1550	-0.1800	27.46	1.76	-1.500			
0.8522	54542.45	3.1520	3.1520	-0.1779	27.46	1.76	-1.500			
0.8528	54576.41	3.1490	3.1490	-0.1759	27.47	1.77	-1.500			
0.8533	54610.27	3.1460	3.1460	-0.1747	27.47	1.77	-1.500			
0.8538	54643.12	3.1430	3.1429	-0.1729	27.48	1.78	-1.500			
0.8543	54675.90	3.1400	3.1400	-0.1721	27.48	1.78	-1.500			
0.8548	54708.92	3.1370	3.1370	-0.1718	27.48	1.78	-1.500			
0.8553	54741.86	3.1340	3.1339	-0.1694	27.49	1.79	-1.500			
0.8559	54774.70	3.1310	3.1310	-0.1689	27.49	1.79	-1.500			
0.8564	54806.96	3.1280	3.1282	-0.1674	27.50	1.80	-1.500			
0.8569	54838.92	3.1250	3.1250	-0.1656	27.51	1.81	-1.500			
0.8574	54870.43	3.1220	3.1219	-0.1645	27.51	1.81	-1.500			
0.8578	54901.75	3.1190	3.1191	-0.1629	27.52	1.82	-1.500			
0.8583	54932.82	3.1160	3.1160	-0.1613	27.52	1.82	-1.500			
0.8588	54963.71	3.1130	3.1130	-0.1605	27.53	1.83	-1.500			
0.8593	54994.97	3.1100	3.1100	-0.1592	27.53	1.83	-1.500			
0.8598	55025.20	3.1070	3.1070	-0.1574	27.54	1.84	-1.500			
0.8602	55055.13	3.1040	3.1041	-0.1561	27.54	1.84	-1.500			
0.8607	55084.96	3.1010	3.1009	-0.1547	27.55	1.85	-1.500			
0.8612	55114.29	3.0980	3.0980	-0.1535	27.55	1.85	-1.500			
0.8616	55143.62	3.0950	3.0950	-0.1528	27.56	1.86	-1.500			
0.8621	55172.93	3.0920	3.0920	-0.1519	27.56	1.86	-1.500			
0.8625	55202.02	3.0890	3.0890	-0.1512	27.57	1.87	-1.500			
0.8630	55231.11	3.0860	3.0860	-0.1505	27.57	1.87	-1.500			
0.8634	55259.89	3.0830	3.0831	-0.1497	27.58	1.88	-1.500			
0.8639	55288.52	3.0800	3.0800	-0.1487	27.58	1.88	-1.500			
0.8643	55316.98	3.0770	3.0770	-0.1478	27.59	1.89	-1.500			
0.8648	55345.34	3.0740	3.0740	-0.1467	27.59	1.89	-1.500			
0.8652	55373.46	3.0710	3.0710	-0.1453	27.60	1.90	-1.500			
0.8656	55401.31	3.0680	3.0680	-0.1443	27.60	1.90	-1.500			
0.8661	55428.89	3.0650	3.0650	-0.1429	27.61	1.91	-1.500			
0.8665	55455.95	3.0620	3.0620	-0.1426	27.61	1.91	-1.500			
0.8669	55483.23	3.0590	3.0591	-0.1413	27.62	1.92	-1.500			
0.8673	55510.39	3.0560	3.0559	-0.1404	27.62	1.92	-1.500			
0.8678	55537.25	3.0530	3.0530	-0.1395	27.63	1.93	-1.500			
0.8682	55563.99	3.0500	3.0501	-0.1389	27.63	1.93	-1.500			
0.8686	55590.72	3.0470	3.0470	-0.1382	27.64	1.94	-1.500			
0.8690	55617.01	3.0440	3.0440	-0.1373	27.64	1.94	-1.500			
0.8694	55643.41	3.0410	3.0409	-0.1361	27.65	1.95	-1.500			
0.8698	55669.13	3.0380	3.0381	-0.1352	27.65	1.95	-1.500			
0.8702	55695.25	3.0350	3.0350	-0.1350	27.66	1.96	-1.500			
0.8706	55721.09	3.0320	3.0320	-0.1343	27.66	1.96	-1.500			
0.8710	55746.80	3.0290	3.0289	-0.1335	27.67	1.97	-1.500			
0.8714	55772.37	3.0260	3.0259	-0.1323	27.67	1.97	-1.500			
0.8718	55797.69	3.0230	3.0230	-0.1315	27.68	1.98	-1.500			
0.8722	55822.90	3.0200	3.0201	-0.1306	27.68	1.98	-1.500			
0.8726	55847.98	3.0170	3.0170	-0.1302	27.69	1.99	-1.500			
0.8730	55872.54	3.0140	3.0139	-0.1293	27.69	1.99	-1.500			
0.8734	55897.34	3.0110	3.0110	-0.1291	27.70	2.00	-1.500			
0.8738	55921.98	3.0080	3.0079	-0.1292	27.70	2.00	-1.500			
0.8742	55946.69	3.0050	3.0050	-0.1303	27.71	2.01	-1.500			
0.8746	55971.81	3.0020	3.0020	-0.1313	27.71	2.01	-1.500			
