Ah_balance (normalized)	Ah_balance (mAh)	Voltage - fit (V)	Voltage -  interpolate (V)	dQ/dV (1/V)	Temperature (°C)	Temperature - diff (°C)	Current (C)	R_DC 0ms (mOhm)	R_DC 50ms (mOhm)	R_DC 50 ms PEC (mOhm)
0.2703	17296.66	3.9930	3.9931	0.8212	27.40	1.41	1.500			
0.2727	17455.65	3.9900	3.9899	0.8338	27.40	1.41	1.500			
0.2753	17616.42	3.9870	3.9871	0.8406	27.39	1.40	1.500			
0.2778	17779.80	3.9840	3.9840	0.8451	27.39	1.40	1.500			
0.2804	17944.12	3.9810	3.9810	0.8478	27.39	1.40	1.500			
0.2829	18105.79	3.9780	3.9780	0.8493	27.38	1.39	1.500			
0.2854	18267.90	3.9750	3.9752	0.8502	27.38	1.39	1.500			
0.2880	18431.09	3.9720	3.9720	0.8537	27.37	1.38	1.500			
0.2906	18595.61	3.9690	3.9689	0.8554	27.37	1.38	1.500			
0.2931	18759.93	3.9660	3.9660	0.8602	27.37	1.38	1.500			
0.2957	18926.63	3.9630	3.9630	0.8638	27.36	1.37	1.500			
0.2983	19091.46	3.9600	3.9600	0.8674	27.36	1.37	1.500			
0.3009	19257.04	3.9570	3.9570	0.8699	27.35	1.36	1.500			
0.3035	19425.37	3.9540	3.9540	0.8741	27.35	1.36	1.500			
0.3062	19594.16	3.9510	3.9510	0.8766	27.34	1.35	1.500			
0.3088	19763.16	3.9480	3.9480	0.8843	27.34	1.35	1.500			
0.3115	19932.84	3.9450	3.9450	0.8882	27.34	1.35	1.500			
0.3141	20104.67	3.9420	3.9420	0.8924	27.33	1.34	1.500			
0.3168	20275.72	3.9390	3.9391	0.8949	27.33	1.34	1.500			
0.3195	20448.17	3.9360	3.9360	0.9000	27.32	1.33	1.500			
0.3222	20621.86	3.9330	3.9330	0.9038	27.31	1.32	1.500			
0.3249	20794.67	3.9300	3.9300	0.9096	27.31	1.32	1.500			
0.3276	20969.39	3.9270	3.9269	0.9120	27.30	1.31	1.500			
0.3304	21144.98	3.9240	3.9240	0.9174	27.29	1.30	1.500			
0.3331	21321.38	3.9210	3.9210	0.9267	27.29	1.30	1.500			
0.3359	21498.83	3.9180	3.9181	0.9366	27.28	1.29	1.500			
0.3388	21680.84	3.9150	3.9149	0.9424	27.27	1.28	1.500			
0.3416	21862.71	3.9120	3.9120	0.9508	27.27	1.28	1.500			
0.3445	22045.95	3.9090	3.9091	0.9535	27.26	1.27	1.500			
0.3473	22230.36	3.9060	3.9059	0.9632	27.25	1.26	1.500			
0.3502	22415.43	3.9030	3.9030	0.9716	27.25	1.26	1.500			
0.3532	22602.47	3.9000	3.9000	0.9765	27.24	1.25	1.500			
0.3561	22790.31	3.8970	3.8970	0.9842	27.23	1.24	1.500			
0.3591	22981.16	3.8940	3.8941	0.9944	27.23	1.24	1.500			
0.3621	23172.75	3.8910	3.8910	1.0012	27.22	1.23	1.500			
0.3651	23366.04	3.8880	3.8880	1.0099	27.21	1.22	1.500			
0.3681	23558.94	3.8850	3.8850	1.0195	27.20	1.21	1.500			
0.3712	23755.15	3.8820	3.8821	1.0347	27.19	1.20	1.500			
0.3743	23956.28	3.8790	3.8789	1.0438	27.18	1.19	1.500			
0.3775	24157.41	3.8760	3.8760	1.0522	27.18	1.19	1.500			
0.3806	24360.92	3.8730	3.8731	1.0615	27.17	1.18	1.500			
0.3838	24565.99	3.8700	3.8699	1.0697	27.16	1.17	1.500			
0.3870	24770.52	3.8670	3.8670	1.0827	27.15	1.16	1.500			
0.3903	24978.40	3.8640	3.8639	1.0967	27.14	1.15	1.500			
0.3936	25189.86	3.8610	3.8610	1.1107	27.13	1.14	1.500			
0.3970	25406.80	3.8580	3.8579	1.1255	27.12	1.13	1.500			
0.4004	25624.74	3.8550	3.8550	1.1376	27.11	1.12	1.500			
0.4038	25843.82	3.8520	3.8521	1.1491	27.10	1.11	1.500			
0.4073	26065.07	3.8490	3.8490	1.1661	27.09	1.10	1.500			
0.4107	26286.29	3.8460	3.8460	1.1816	27.07	1.08	1.500			
0.4143	26516.85	3.8430	3.8430	1.2045	27.06	1.07	1.500			
0.4180	26750.84	3.8400	3.8400	1.2241	27.05	1.06	1.500			
0.4217	26988.19	3.8370	3.8370	1.2455	27.04	1.05	1.500			
0.4255	27231.38	3.8340	3.8341	1.2624	27.03	1.04	1.500			
0.4293	27474.11	3.8310	3.8309	1.2790	27.02	1.03	1.500			
0.4331	27719.92	3.8280	3.8280	1.2924	27.00	1.01	1.500			
0.4370	27968.83	3.8250	3.8250	1.3150	26.99	1.00	1.500			
0.4410	28223.57	3.8220	3.8220	1.3405	26.98	0.99	1.500			
0.4450	28482.41	3.8190	3.8190	1.3640	26.96	0.97	1.500			
0.4492	28747.11	3.8160	3.8160	1.3842	26.95	0.96	1.500			
0.4534	29016.36	3.8130	3.8130	1.4120	26.93	0.94	1.500			
0.4576	29286.28	3.8100	3.8100	1.4432	26.92	0.93	1.500			
0.4620	29567.15	3.8070	3.8070	1.4731	26.90	0.91	1.500			
0.4664	29851.53	3.8040	3.8040	1.5029	26.89	0.90	1.500			
0.4710	30145.59	3.8010	3.8011	1.5293	26.87	0.88	1.500			
0.4757	30443.38	3.7980	3.7980	1.5482	26.85	0.86	1.500			
0.4804	30745.16	3.7950	3.7950	1.5784	26.84	0.85	1.500			
0.4851	31047.55	3.7920	3.7920	1.5885	26.82	0.83	1.500			
0.4899	31353.58	3.7890	3.7889	1.6267	26.80	0.81	1.500			
0.4948	31668.70	3.7860	3.7860	1.6513	26.79	0.80	1.500			
0.4999	31992.31	3.7830	3.7831	1.6656	26.77	0.78	1.500	0.345	0.476	
0.5050	32317.32	3.7800	3.7800	1.6844	26.75	0.76	1.500			
0.5100	32639.30	3.7770	3.7771	1.6867	26.74	0.75	1.500			
0.5150	32963.19	3.7740	3.7738	1.6914	26.72	0.73	1.500			
0.5201	33287.27	3.7710	3.7710	1.7059	26.70	0.71	1.500			
0.5253	33619.50	3.7680	3.7680	1.7115	26.69	0.70	1.500			
0.5305	33950.53	3.7650	3.7650	1.7159	26.67	0.68	1.500			
0.5356	34276.81	3.7620	3.7620	1.7176	26.66	0.67	1.500			
0.5407	34605.30	3.7590	3.7589	1.7305	26.64	0.65	1.500			
0.5459	34938.04	3.7560	3.7560	1.7497	26.62	0.63	1.500			
0.5512	35278.00	3.7530	3.7530	1.7511	26.61	0.62	1.500			
0.5565	35614.36	3.7500	3.7501	1.7758	26.59	0.60	1.500			
0.5618	35953.49	3.7470	3.7469	1.7962	26.57	0.58	1.500			
0.5672	36299.74	3.7440	3.7440	1.8292	26.55	0.56	1.500			
0.5727	36652.50	3.7410	3.7410	1.8837	26.54	0.55	1.500			
0.5785	37020.86	3.7380	3.7380	1.9154	26.52	0.53	1.500			
0.5842	37388.77	3.7350	3.7351	1.9628	26.50	0.51	1.500			
0.5902	37771.36	3.7320	3.7318	2.0198	26.48	0.49	1.500			
0.5963	38165.48	3.7290	3.7290	2.0710	26.46	0.47	1.500			
0.6026	38568.75	3.7260	3.7260	2.1169	26.44	0.45	1.500			
0.6091	38981.85	3.7230	3.7230	2.1695	26.42	0.43	1.500			
0.6157	39401.78	3.7200	3.7200	2.2188	26.40	0.41	1.500			
0.6224	39833.29	3.7170	3.7171	2.2853	26.38	0.39	1.500			
0.6294	40279.37	3.7140	3.7140	2.3349	26.35	0.36	1.500			
0.6364	40730.41	3.7110	3.7110	2.3425	26.33	0.34	1.500			
0.6436	41188.45	3.7080	3.7080	2.2780	26.31	0.32	1.500			
0.6502	41614.04	3.7050	3.7050	2.1546	26.30	0.31	1.500			
0.6565	42016.22	3.7020	3.7019	2.0341	26.28	0.29	1.500			
0.6624	42391.24	3.6990	3.6990	1.9047	26.27	0.28	1.500			
0.6679	42746.39	3.6960	3.6961	1.7926	26.25	0.26	1.500			
0.6730	43075.00	3.6930	3.6930	1.6768	26.24	0.25	1.500			
0.6778	43381.39	3.6900	3.6900	1.5828	26.22	0.23	1.500			
0.6824	43674.02	3.6870	3.6869	1.5026	26.21	0.22	1.500			
0.6867	43951.92	3.6840	3.6841	1.4420	26.20	0.21	1.500			
0.6910	44221.68	3.6810	3.6810	1.3893	26.19	0.20	1.500			
0.6950	44483.14	3.6780	3.6780	1.3517	26.18	0.19	1.500			
0.6990	44733.40	3.6750	3.6750	1.3208	26.17	0.18	1.500			
0.7029	44983.05	3.6720	3.6720	1.3007	26.15	0.16	1.500			
0.7067	45229.18	3.6690	3.6690	1.2861	26.14	0.15	1.500			
0.7105	45474.65	3.6660	3.6660	1.2793	26.13	0.14	1.500			
0.7144	45719.12	3.6630	3.6630	1.2760	26.12	0.13	1.500			
0.7182	45965.22	3.6600	3.6600	1.2751	26.11	0.12	1.500			
0.7220	46209.59	3.6570	3.6570	1.2718	26.10	0.11	1.500			
0.7258	46453.30	3.6540	3.6540	1.2578	26.09	0.10	1.500			
0.7296	46696.20	3.6510	3.6510	1.2585	26.08	0.09	1.500			
0.7334	46936.81	3.6480	3.6480	1.2493	26.07	0.08	1.500			
0.7371	47174.97	3.6450	3.6450	1.2439	26.06	0.07	1.500			
0.7408	47411.82	3.6420	3.6420	1.2364	26.05	0.06	1.500			
0.7445	47649.05	3.6390	3.6390	1.2306	26.04	0.05	1.500			
0.7482	47885.99	3.6360	3.6360	1.2222	26.03	0.04	1.500			
0.7519	48121.91	3.6330	3.6330	1.2097	26.02	0.03	1.500			
0.7555	48352.08	3.6300	3.6300	1.1952	26.01	0.02	1.500			
0.7591	48580.67	3.6270	3.6270	1.1853	26.00	0.01	1.500			
0.7626	48806.49	3.6240	3.6239	1.1726	25.99	-0.00	1.500			
0.7661	49030.48	3.6210	3.6210	1.1568	25.98	-0.01	1.500			
0.7696	49251.76	3.6180	3.6180	1.1443	25.98	-0.01	1.500			
0.7730	49472.52	3.6150	3.6150	1.1283	25.97	-0.02	1.500			
0.7764	49687.66	3.6120	3.6119	1.1060	25.97	-0.02	1.500			
0.7796	49897.57	3.6090	3.6090	1.0805	25.97	-0.02	1.500			
0.7829	50103.38	3.6060	3.6060	1.0519	25.97	-0.02	1.500			
0.7860	50302.99	3.6030	3.6030	1.0259	25.96	-0.03	1.500			
0.7890	50498.83	3.6000	3.6000	0.9967	25.96	-0.03	1.500			
0.7920	50686.49	3.5970	3.5970	0.9619	25.96	-0.03	1.500			
0.7949	50872.51	3.5940	3.5939	0.9166	25.97	-0.02	1.500			
0.7976	51045.72	3.5910	3.5910	0.8600	25.97	-0.02	1.500			
0.8002	51210.37	3.5880	3.5880	0.7930	25.97	-0.02	1.500			
0.8025	51357.73	3.5850	3.5850	0.7132	25.97	-0.02	1.500			
0.8045	51487.78	3.5820	3.5820	0.6268	25.98	-0.01	1.500			
0.8062	51599.26	3.5790	3.5791	0.5393	25.98	-0.01	1.500			
0.8077	51690.99	3.5760	3.5760	0.4607	25.98	-0.01	1.500			
0.8089	51769.85	3.5730	3.5730	0.3944	25.98	-0.01	1.500			
0.8099	51833.82	3.5700	3.5700	0.3356	25.98	-0.01	1.500			
0.8108	51890.80	3.5670	3.5670	0.2926	25.98	-0.01	1.500			
0.8116	51940.86	3.5640	3.5639	0.2535	25.99	-0.00	1.500			
0.8123	51985.30	3.5610	3.5609	0.2271	25.99	-0.00	1.500			
0.8129	52024.74	3.5580	3.5580	0.2042	25.99	-0.00	1.500			
0.8134	52060.71	3.5550	3.5550	0.1842	25.99	-0.00	1.500			
0.8140	52094.19	3.5520	3.5520	0.1667	25.99	-0.00	1.500			
0.8144	52123.85	3.5490	3.5490	0.1511	25.99	-0.00	1.500			
0.8149	52151.05	3.5460	3.5460	0.1358	25.99	-0.00	1.500			
0.8152	52175.89	3.5430	3.5429	0.1216	25.99	-0.00	1.500			
0.8156	52197.85	3.5400	3.5400	0.1072	25.99	0.00	1.500			
0.8159	52216.99	3.5370	3.5371	0.0928	25.99	0.00	1.500			
0.8161	52233.44	3.5340	3.5341	0.0785	25.99	0.00	1.500			
0.8164	52247.13	3.5310	3.5313	0.0641	25.99	0.00	1.500			
0.8165	52258.51	3.5280	3.5284	0.0484	25.99	0.00	1.500			
0.8167	52266.31	3.5250	3.5258	0.0328	25.99	0.00	1.500			
