Ah_balance (normalized)	Ah_balance (mAh)	Voltage - fit (V)	Voltage -  interpolate (V)	dQ/dV (1/V)	Temperature (°C)	Temperature - diff (°C)	Current (C)	R_DC 0ms (mOhm)	R_DC 50ms (mOhm)	R_DC 50 ms PEC (mOhm)
0.2917	18671.62	3.9880	3.9879	0.7997	27.35	1.37	1.500			
0.2942	18828.61	3.9850	3.9849	0.8242	27.35	1.37	1.500			
0.2967	18989.18	3.9820	3.9820	0.8358	27.34	1.36	1.500			
0.2992	19150.65	3.9790	3.9790	0.8427	27.34	1.36	1.500			
0.3018	19314.92	3.9760	3.9760	0.8496	27.34	1.36	1.500			
0.3043	19476.90	3.9730	3.9730	0.8527	27.33	1.35	1.500			
0.3069	19640.19	3.9700	3.9700	0.8562	27.33	1.35	1.500			
0.3095	19806.35	3.9670	3.9669	0.8601	27.32	1.34	1.500			
0.3121	19971.95	3.9640	3.9640	0.8662	27.32	1.34	1.500			
0.3147	20138.70	3.9610	3.9610	0.8689	27.32	1.34	1.500			
0.3173	20306.27	3.9580	3.9581	0.8712	27.31	1.33	1.500			
0.3199	20473.91	3.9550	3.9550	0.8729	27.31	1.33	1.500			
0.3225	20640.36	3.9520	3.9521	0.8733	27.30	1.32	1.500			
0.3251	20808.73	3.9490	3.9489	0.8788	27.30	1.32	1.500			
0.3278	20976.38	3.9460	3.9461	0.8859	27.30	1.32	1.500			
0.3304	21146.28	3.9430	3.9430	0.8899	27.29	1.31	1.500			
0.3331	21320.73	3.9400	3.9400	0.8923	27.29	1.31	1.500			
0.3358	21492.12	3.9370	3.9370	0.8970	27.28	1.30	1.500			
0.3385	21663.30	3.9340	3.9342	0.9027	27.28	1.30	1.500			
0.3412	21835.86	3.9310	3.9310	0.9112	27.27	1.29	1.500			
0.3439	22010.78	3.9280	3.9279	0.9141	27.27	1.29	1.500			
0.3467	22187.11	3.9250	3.9250	0.9203	27.27	1.29	1.500			
0.3495	22366.59	3.9220	3.9220	0.9260	27.26	1.28	1.500			
0.3523	22545.76	3.9190	3.9191	0.9315	27.26	1.28	1.500			
0.3551	22723.67	3.9160	3.9160	0.9317	27.26	1.28	1.500			
0.3578	22902.31	3.9130	3.9130	0.9347	27.25	1.27	1.500			
0.3607	23082.05	3.9100	3.9101	0.9432	27.25	1.27	1.500			
0.3635	23263.81	3.9070	3.9069	0.9519	27.25	1.27	1.500			
0.3664	23446.83	3.9040	3.9040	0.9567	27.24	1.26	1.500			
0.3692	23631.27	3.9010	3.9010	0.9685	27.24	1.26	1.500			
0.3721	23817.18	3.8980	3.8980	0.9735	27.23	1.25	1.500			
0.3751	24005.82	3.8950	3.8949	0.9822	27.23	1.25	1.500			
0.3780	24194.90	3.8920	3.8920	0.9926	27.22	1.24	1.500			
0.3810	24386.39	3.8890	3.8890	0.9993	27.21	1.23	1.500			
0.3841	24579.83	3.8860	3.8860	1.0089	27.21	1.23	1.500			
0.3871	24774.02	3.8830	3.8830	1.0204	27.20	1.22	1.500			
0.3901	24969.24	3.8800	3.8800	1.0283	27.20	1.22	1.500			
0.3933	25168.86	3.8770	3.8769	1.0392	27.19	1.21	1.500			
0.3964	25368.63	3.8740	3.8741	1.0541	27.18	1.20	1.500			
0.3996	25572.26	3.8710	3.8710	1.0662	27.18	1.20	1.500			
0.4028	25779.43	3.8680	3.8679	1.0797	27.17	1.19	1.500			
0.4061	25988.04	3.8650	3.8650	1.0876	27.16	1.18	1.500			
0.4093	26197.36	3.8620	3.8621	1.1027	27.15	1.17	1.500			
0.4127	26410.14	3.8590	3.8590	1.1194	27.14	1.16	1.500			
0.4160	26626.10	3.8560	3.8561	1.1355	27.14	1.16	1.500			
0.4194	26844.07	3.8530	3.8530	1.1480	27.13	1.15	1.500			
0.4229	27067.45	3.8500	3.8500	1.1678	27.12	1.14	1.500			
0.4265	27294.57	3.8470	3.8470	1.1844	27.11	1.13	1.500			
0.4301	27523.82	3.8440	3.8440	1.2005	27.10	1.12	1.500			
0.4337	27754.22	3.8410	3.8410	1.2197	27.09	1.11	1.500			
0.4373	27990.12	3.8380	3.8380	1.2409	27.08	1.10	1.500			
0.4411	28229.26	3.8350	3.8351	1.2625	27.07	1.09	1.500			
0.4449	28474.22	3.8320	3.8320	1.2887	27.06	1.08	1.500			
0.4488	28725.59	3.8290	3.8290	1.3138	27.05	1.07	1.500			
0.4528	28981.35	3.8260	3.8260	1.3320	27.03	1.05	1.500			
0.4569	29238.77	3.8230	3.8230	1.3560	27.02	1.04	1.500			
0.4609	29498.27	3.8200	3.8200	1.3759	27.01	1.03	1.500			
0.4651	29765.30	3.8170	3.8170	1.4035	27.00	1.02	1.500			
0.4693	30035.46	3.8140	3.8140	1.4274	26.99	1.01	1.500			
0.4736	30311.52	3.8110	3.8111	1.4597	26.97	0.99	1.500			
0.4781	30597.88	3.8080	3.8079	1.4837	26.96	0.98	1.500			
0.4826	30885.38	3.8050	3.8050	1.5149	26.94	0.96	1.500			
0.4872	31178.65	3.8020	3.8020	1.5413	26.92	0.94	1.500			
0.4918	31477.33	3.7990	3.7989	1.5730	26.91	0.93	1.500			
0.4966	31782.19	3.7960	3.7961	1.6064	26.89	0.91	1.500			
0.5015	32097.09	3.7930	3.7929	1.6267	26.88	0.90	1.500			
0.5064	32412.14	3.7900	3.7900	1.6554	26.86	0.88	1.500			
0.5114	32728.45	3.7870	3.7871	1.6884	26.85	0.87	1.500			
0.5165	33055.68	3.7840	3.7840	1.7341	26.84	0.86	1.500			
0.5218	33393.23	3.7810	3.7810	1.7506	26.82	0.84	1.500			
0.5271	33734.76	3.7780	3.7781	1.7710	26.81	0.83	1.500	0.352	0.468	
0.5325	34080.94	3.7750	3.7750	1.7746	26.79	0.81	1.500			
0.5377	34413.77	3.7720	3.7720	1.7639	26.78	0.80	1.500			
0.5430	34750.51	3.7690	3.7688	1.7557	26.76	0.78	1.500			
0.5483	35089.41	3.7660	3.7661	1.7604	26.74	0.76	1.500			
0.5536	35429.06	3.7630	3.7630	1.7602	26.73	0.75	1.500			
0.5588	35762.80	3.7600	3.7600	1.7479	26.71	0.73	1.500			
0.5640	36097.61	3.7570	3.7570	1.7557	26.69	0.71	1.500			
0.5693	36434.43	3.7540	3.7539	1.7730	26.68	0.70	1.500			
0.5746	36777.28	3.7510	3.7511	1.7938	26.66	0.68	1.500			
0.5801	37123.86	3.7480	3.7480	1.8129	26.64	0.66	1.500			
0.5855	37471.79	3.7450	3.7450	1.8335	26.63	0.65	1.500			
0.5911	37827.99	3.7420	3.7420	1.8672	26.61	0.63	1.500			
0.5967	38191.19	3.7390	3.7390	1.8944	26.59	0.61	1.500			
0.6025	38557.20	3.7360	3.7360	1.9232	26.57	0.59	1.500			
0.6083	38929.68	3.7330	3.7330	1.9673	26.55	0.57	1.500			
0.6142	39307.42	3.7300	3.7300	2.0005	26.53	0.55	1.500			
0.6202	39695.40	3.7270	3.7270	2.0762	26.52	0.54	1.500			
0.6267	40106.67	3.7240	3.7239	2.1278	26.50	0.52	1.500			
0.6332	40521.67	3.7210	3.7210	2.1956	26.48	0.50	1.500			
0.6398	40945.92	3.7180	3.7182	2.2565	26.47	0.49	1.500			
0.6467	41385.86	3.7150	3.7150	2.3502	26.45	0.47	1.500			
0.6538	41845.95	3.7120	3.7120	2.3904	26.44	0.46	1.500			
0.6612	42316.53	3.7090	3.7091	2.4361	26.42	0.44	1.500			
0.6686	42792.63	3.7060	3.7058	2.4340	26.40	0.42	1.500			
0.6760	43265.15	3.7030	3.7030	2.3438	26.38	0.40	1.500			
0.6830	43710.23	3.7000	3.7000	2.2296	26.37	0.39	1.500			
0.6895	44126.57	3.6970	3.6971	2.0708	26.35	0.37	1.500			
0.6954	44504.22	3.6940	3.6940	1.9110	26.34	0.36	1.500			
0.7009	44858.18	3.6910	3.6910	1.7849	26.32	0.34	1.500			
0.7059	45180.75	3.6880	3.6880	1.6645	26.31	0.33	1.500			
0.7108	45490.05	3.6850	3.6850	1.5763	26.30	0.32	1.500			
0.7153	45776.24	3.6820	3.6820	1.4899	26.29	0.31	1.500			
0.7196	46053.76	3.6790	3.6789	1.4268	26.28	0.30	1.500			
0.7238	46321.00	3.6760	3.6761	1.3805	26.26	0.28	1.500			
0.7278	46579.00	3.6730	3.6730	1.3324	26.25	0.27	1.500			
0.7317	46830.28	3.6700	3.6700	1.3059	26.24	0.26	1.500			
0.7355	47073.82	3.6670	3.6670	1.2847	26.23	0.25	1.500			
0.7393	47314.02	3.6640	3.6640	1.2736	26.21	0.23	1.500			
0.7431	47556.96	3.6610	3.6610	1.2734	26.20	0.22	1.500			
0.7469	47800.00	3.6580	3.6580	1.2766	26.19	0.21	1.500			
0.7507	48046.61	3.6550	3.6550	1.2822	26.18	0.20	1.500			
0.7546	48296.03	3.6520	3.6520	1.2884	26.16	0.18	1.500			
0.7585	48544.03	3.6490	3.6490	1.2842	26.15	0.17	1.500			
0.7624	48790.74	3.6460	3.6460	1.2788	26.14	0.16	1.500			
0.7662	49035.50	3.6430	3.6430	1.2715	26.13	0.15	1.500			
0.7700	49279.22	3.6400	3.6400	1.2658	26.12	0.14	1.500			
0.7737	49519.59	3.6370	3.6370	1.2578	26.10	0.12	1.500			
0.7775	49761.08	3.6340	3.6340	1.2506	26.09	0.11	1.500			
0.7813	50002.85	3.6310	3.6309	1.2411	26.08	0.10	1.500			
0.7850	50240.34	3.6280	3.6280	1.2292	26.07	0.09	1.500			
0.7886	50473.54	3.6250	3.6251	1.2219	26.06	0.08	1.500			
0.7923	50707.39	3.6220	3.6220	1.2112	26.04	0.06	1.500			
0.7959	50939.24	3.6190	3.6189	1.2023	26.04	0.06	1.500			
0.7995	51168.95	3.6160	3.6160	1.1894	26.03	0.05	1.500			
0.8031	51398.53	3.6130	3.6130	1.1728	26.02	0.04	1.500			
0.8067	51626.20	3.6100	3.6100	1.1538	26.02	0.04	1.500			
0.8101	51844.81	3.6070	3.6070	1.1291	26.01	0.03	1.500			
0.8134	52056.73	3.6040	3.6040	1.1058	26.01	0.03	1.500			
0.8167	52266.89	3.6010	3.6010	1.0832	26.00	0.02	1.500			
0.8199	52472.56	3.5980	3.5981	1.0569	26.00	0.02	1.500			
0.8231	52675.58	3.5950	3.5949	1.0325	26.00	0.02	1.500			
0.8261	52873.45	3.5920	3.5921	0.9994	25.99	0.01	1.500			
0.8292	53066.11	3.5890	3.5889	0.9602	25.99	0.01	1.500			
0.8321	53251.54	3.5860	3.5859	0.9007	25.99	0.01	1.500			
0.8347	53420.56	3.5830	3.5830	0.8238	25.99	0.01	1.500			
0.8371	53575.94	3.5800	3.5800	0.7396	25.99	0.01	1.500			
0.8392	53708.79	3.5770	3.5771	0.6420	25.98	0.00	1.500			
0.8410	53821.39	3.5740	3.5739	0.5443	25.98	0.00	1.500			
0.8424	53912.45	3.5710	3.5709	0.4558	25.98	0.00	1.500			
0.8435	53986.45	3.5680	3.5679	0.3825	25.98	-0.00	1.500			
0.8445	54050.85	3.5650	3.5650	0.3287	25.98	-0.00	1.500			
0.8454	54105.29	3.5620	3.5621	0.2815	25.98	-0.00	1.500			
0.8462	54155.03	3.5590	3.5589	0.2454	25.98	-0.00	1.500			
0.8468	54196.96	3.5560	3.5559	0.2169	25.98	-0.00	1.500			
0.8474	54233.55	3.5530	3.5530	0.1932	25.98	-0.00	1.500			
0.8479	54267.89	3.5500	3.5500	0.1720	25.98	-0.00	1.500			
0.8484	54298.93	3.5470	3.5469	0.1563	25.98	-0.00	1.500			
0.8489	54326.57	3.5440	3.5439	0.1395	25.98	-0.00	1.500			
0.8492	54351.79	3.5410	3.5411	0.1239	25.98	-0.00	1.500			
0.8496	54374.40	3.5380	3.5381	0.1099	25.98	-0.00	1.500			
0.8499	54394.06	3.5350	3.5351	0.0949	25.97	-0.01	1.500			
0.8502	54411.21	3.5320	3.5320	0.0799	25.97	-0.01	1.500			
0.8504	54424.80	3.5290	3.5294	0.0645	25.97	-0.01	1.500			
0.8506	54435.73	3.5260	3.5267	0.0494	25.97	-0.01	1.500			
0.8507	54443.77	3.5230	3.5240	0.0343	25.97	-0.01	1.500			
