Ah_balance (normalized)	Ah_balance (mAh)	Voltage - fit (V)	Voltage -  interpolate (V)	dQ/dV (1/V)	Temperature (°C)	Temperature - diff (°C)	Current (C)	R_DC 0ms (mOhm)	R_DC 50ms (mOhm)	R_DC 50 ms PEC (mOhm)
0.2097	13419.84	3.9120	3.9117	-0.1038	25.97	-0.01	-1.500			
0.2100	13442.93	3.9090	3.9088	-0.1356	25.97	-0.01	-1.500			
0.2105	13471.84	3.9060	3.9060	-0.1666	25.97	-0.01	-1.500			
0.2110	13507.18	3.9030	3.9030	-0.1969	25.97	-0.01	-1.500			
0.2117	13548.29	3.9000	3.9000	-0.2257	25.97	-0.01	-1.500			
0.2124	13595.18	3.8970	3.8970	-0.2546	25.97	-0.01	-1.500			
0.2132	13647.12	3.8940	3.8940	-0.2787	25.97	-0.01	-1.500			
0.2141	13703.42	3.8910	3.8910	-0.3043	25.97	-0.01	-1.500			
0.2151	13763.83	3.8880	3.8880	-0.3314	25.97	-0.01	-1.500			
0.2161	13829.69	3.8850	3.8850	-0.3568	25.97	-0.01	-1.500			
0.2172	13900.46	3.8820	3.8819	-0.3829	25.97	-0.01	-1.500			
0.2184	13976.33	3.8790	3.8790	-0.4100	25.98	-0.00	-1.500			
0.2197	14058.70	3.8760	3.8760	-0.4371	25.98	-0.00	-1.500			
0.2210	14145.52	3.8730	3.8730	-0.4632	25.98	-0.00	-1.500			
0.2225	14237.22	3.8700	3.8699	-0.4860	25.98	-0.00	-1.500			
0.2240	14332.94	3.8670	3.8671	-0.5064	25.98	-0.00	-1.500			
0.2255	14432.68	3.8640	3.8639	-0.5273	25.98	0.00	-1.500			
0.2271	14535.73	3.8610	3.8610	-0.5453	25.98	0.00	-1.500			
0.2288	14642.29	3.8580	3.8580	-0.5622	25.98	0.00	-1.500			
0.2305	14752.25	3.8550	3.8549	-0.5782	25.98	0.00	-1.500			
0.2323	14865.12	3.8520	3.8521	-0.5948	25.99	0.01	-1.500			
0.2341	14981.24	3.8490	3.8490	-0.6108	25.99	0.01	-1.500			
0.2360	15100.96	3.8460	3.8460	-0.6235	25.99	0.01	-1.500			
0.2378	15221.78	3.8430	3.8430	-0.6348	25.99	0.01	-1.500			
0.2398	15344.93	3.8400	3.8400	-0.6436	25.99	0.01	-1.500			
0.2417	15469.65	3.8370	3.8370	-0.6512	25.99	0.01	-1.500			
0.2437	15595.66	3.8340	3.8340	-0.6601	26.00	0.02	-1.500			
0.2457	15723.27	3.8310	3.8310	-0.6621	26.00	0.02	-1.500			
0.2477	15851.12	3.8280	3.8280	-0.6688	26.00	0.02	-1.500			
0.2497	15980.01	3.8250	3.8250	-0.6752	26.00	0.02	-1.500			
0.2517	16110.01	3.8220	3.8220	-0.6768	26.00	0.02	-1.500			
0.2538	16240.70	3.8190	3.8189	-0.6812	26.01	0.03	-1.500			
0.2558	16371.64	3.8160	3.8160	-0.6827	26.01	0.03	-1.500			
0.2579	16503.50	3.8130	3.8130	-0.6841	26.01	0.03	-1.500			
0.2599	16635.71	3.8100	3.8100	-0.6868	26.02	0.04	-1.500			
0.2620	16766.49	3.8070	3.8070	-0.6867	26.02	0.04	-1.500			
0.2640	16898.30	3.8040	3.8040	-0.6906	26.02	0.04	-1.500			
0.2661	17031.76	3.8010	3.8009	-0.6934	26.03	0.05	-1.500			
0.2682	17164.46	3.7980	3.7980	-0.6953	26.03	0.05	-1.500			
0.2703	17299.04	3.7950	3.7950	-0.6956	26.03	0.05	-1.500			
0.2724	17433.10	3.7920	3.7920	-0.6937	26.04	0.06	-1.500			
0.2745	17565.88	3.7890	3.7891	-0.6953	26.04	0.06	-1.500			
0.2766	17699.27	3.7860	3.7860	-0.6947	26.05	0.07	-1.500			
0.2786	17831.82	3.7830	3.7830	-0.6944	26.05	0.07	-1.500			
0.2807	17965.59	3.7800	3.7800	-0.6969	26.06	0.08	-1.500			
0.2828	18099.22	3.7770	3.7770	-0.6971	26.06	0.08	-1.500			
0.2849	18233.77	3.7740	3.7740	-0.7011	26.07	0.09	-1.500			
0.2870	18368.45	3.7710	3.7710	-0.7016	26.07	0.09	-1.500			
0.2891	18502.62	3.7680	3.7679	-0.7006	26.08	0.10	-1.500			
0.2912	18637.27	3.7650	3.7650	-0.7043	26.08	0.10	-1.500			
0.2933	18773.12	3.7620	3.7620	-0.7035	26.09	0.11	-1.500			
0.2954	18908.65	3.7590	3.7590	-0.7036	26.09	0.11	-1.500			
0.2976	19043.60	3.7560	3.7559	-0.7043	26.10	0.12	-1.500			
0.2997	19178.18	3.7530	3.7531	-0.7028	26.10	0.12	-1.500			
0.3018	19313.19	3.7500	3.7500	-0.7054	26.11	0.13	-1.500			
0.3039	19447.80	3.7470	3.7470	-0.7086	26.11	0.13	-1.500			
0.3060	19583.48	3.7440	3.7440	-0.7143	26.12	0.14	-1.500			
0.3082	19722.00	3.7410	3.7410	-0.7172	26.13	0.15	-1.500			
0.3103	19859.42	3.7380	3.7380	-0.7214	26.14	0.16	-1.500			
0.3125	19999.12	3.7350	3.7351	-0.7234	26.14	0.16	-1.500			
0.3147	20138.71	3.7320	3.7319	-0.7267	26.15	0.17	-1.500			
0.3168	20277.83	3.7290	3.7290	-0.7293	26.16	0.18	-1.500			
0.3190	20417.90	3.7260	3.7260	-0.7322	26.16	0.18	-1.500			
0.3212	20558.01	3.7230	3.7230	-0.7374	26.17	0.19	-1.500			
0.3234	20700.45	3.7200	3.7200	-0.7470	26.18	0.20	-1.500			
0.3257	20842.63	3.7170	3.7169	-0.7548	26.18	0.20	-1.500			
0.3280	20989.36	3.7140	3.7140	-0.7624	26.19	0.21	-1.500			
0.3303	21137.03	3.7110	3.7110	-0.7692	26.19	0.21	-1.500			
0.3326	21286.41	3.7080	3.7081	-0.7766	26.19	0.21	-1.500			
0.3349	21436.46	3.7050	3.7049	-0.7834	26.20	0.22	-1.500			
0.3373	21586.33	3.7020	3.7020	-0.7923	26.20	0.22	-1.500			
0.3397	21739.29	3.6990	3.6991	-0.7992	26.20	0.22	-1.500			
0.3421	21892.85	3.6960	3.6959	-0.8084	26.21	0.23	-1.500			
0.3445	22050.05	3.6930	3.6931	-0.8209	26.21	0.23	-1.500			
0.3470	22208.40	3.6900	3.6900	-0.8287	26.22	0.24	-1.500			
0.3495	22367.71	3.6870	3.6870	-0.8404	26.22	0.24	-1.500			
0.3520	22530.18	3.6840	3.6841	-0.8510	26.23	0.25	-1.500			
0.3546	22694.34	3.6810	3.6809	-0.8628	26.23	0.25	-1.500			
0.3572	22862.43	3.6780	3.6780	-0.8755	26.24	0.26	-1.500			
0.3598	23030.08	3.6750	3.6750	-0.8884	26.24	0.26	-1.500			
0.3625	23201.70	3.6720	3.6720	-0.9031	26.25	0.27	-1.500			
0.3653	23376.90	3.6690	3.6690	-0.9215	26.25	0.27	-1.500			
0.3680	23555.04	3.6660	3.6660	-0.9351	26.26	0.28	-1.500			
0.3709	23737.68	3.6630	3.6630	-0.9506	26.26	0.28	-1.500			
0.3738	23922.01	3.6600	3.6601	-0.9631	26.27	0.29	-1.500			
0.3767	24107.78	3.6570	3.6570	-0.9818	26.27	0.29	-1.500			
0.3796	24296.16	3.6540	3.6540	-0.9980	26.28	0.30	-1.500			
0.3826	24489.00	3.6510	3.6509	-1.0140	26.28	0.30	-1.500			
0.3857	24685.30	3.6480	3.6480	-1.0322	26.28	0.30	-1.500			
0.3889	24886.45	3.6450	3.6450	-1.0547	26.29	0.31	-1.500			
0.3920	25090.75	3.6420	3.6420	-1.0738	26.29	0.31	-1.500			
0.3953	25299.50	3.6390	3.6389	-1.0903	26.30	0.32	-1.500			
0.3986	25509.02	3.6360	3.6358	-1.1076	26.30	0.32	-1.500			
0.4019	25723.92	3.6330	3.6331	-1.1219	26.30	0.32	-1.500			
0.4053	25940.61	3.6300	3.6300	-1.1443	26.30	0.32	-1.500			
0.4088	26162.53	3.6270	3.6270	-1.1639	26.31	0.33	-1.500			
0.4123	26387.12	3.6240	3.6239	-1.1886	26.31	0.33	-1.500			
0.4159	26618.08	3.6210	3.6210	-1.2081	26.31	0.33	-1.500			
0.4196	26853.08	3.6180	3.6181	-1.2277	26.32	0.34	-1.500			
0.4233	27090.94	3.6150	3.6150	-1.2486	26.32	0.34	-1.500			
0.4271	27333.20	3.6120	3.6120	-1.2711	26.32	0.34	-1.500			
0.4309	27575.74	3.6090	3.6089	-1.2860	26.32	0.34	-1.500			
0.4348	27825.02	3.6060	3.6060	-1.3071	26.32	0.34	-1.500			
0.4387	28077.36	3.6030	3.6031	-1.3270	26.33	0.35	-1.500			
0.4428	28337.82	3.6000	3.6000	-1.3556	26.33	0.35	-1.500			
0.4469	28599.51	3.5970	3.5969	-1.3741	26.33	0.35	-1.500			
0.4510	28863.54	3.5940	3.5941	-1.3955	26.33	0.35	-1.500			
0.4552	29134.41	3.5910	3.5910	-1.4159	26.33	0.35	-1.500			
0.4595	29408.85	3.5880	3.5880	-1.4371	26.34	0.36	-1.500			
0.4639	29686.50	3.5850	3.5850	-1.4523	26.34	0.36	-1.500			
0.4682	29967.19	3.5820	3.5820	-1.4738	26.35	0.37	-1.500			
0.4727	30252.54	3.5790	3.5790	-1.4907	26.35	0.37	-1.500			
0.4772	30541.08	3.5760	3.5759	-1.5037	26.35	0.37	-1.500			
0.4817	30828.44	3.5730	3.5731	-1.5253	26.36	0.38	-1.500			
0.4863	31124.36	3.5700	3.5699	-1.5508	26.36	0.38	-1.500			
0.4910	31424.33	3.5670	3.5670	-1.5686	26.36	0.38	-1.500			
0.4957	31727.25	3.5640	3.5640	-1.5943	26.37	0.39	-1.500			
0.5006	32035.25	3.5610	3.5610	-1.6163	26.37	0.39	-1.500			
0.5055	32350.24	3.5580	3.5579	-1.6343	26.38	0.40	-1.500			
0.5104	32668.25	3.5550	3.5550	-1.6526	26.38	0.40	-1.500			
0.5154	32985.75	3.5520	3.5521	-1.6606	26.39	0.41	-1.500			
0.5204	33308.12	3.5490	3.5489	-1.6725	26.40	0.42	-1.500			
0.5254	33628.77	3.5460	3.5461	-1.6887	26.40	0.42	-1.500			
0.5305	33951.25	3.5430	3.5430	-1.6905	26.41	0.43	-1.500			
0.5356	34276.91	3.5400	3.5400	-1.7175	26.41	0.43	-1.500			
0.5408	34611.31	3.5370	3.5369	-1.7267	26.42	0.44	-1.500			
0.5461	34948.27	3.5340	3.5340	-1.7309	26.43	0.45	-1.500			
0.5512	35279.72	3.5310	3.5311	-1.7454	26.43	0.45	-1.500	0.383	0.517	
0.5565	35615.55	3.5280	3.5280	-1.7474	26.44	0.46	-1.500			
0.5617	35947.13	3.5250	3.5249	-1.7512	26.45	0.47	-1.500			
0.5669	36283.28	3.5220	3.5221	-1.7558	26.47	0.49	-1.500			
0.5723	36627.02	3.5190	3.5190	-1.7747	26.48	0.50	-1.500			
0.5776	36969.36	3.5160	3.5160	-1.7849	26.49	0.51	-1.500			
0.5830	37313.02	3.5130	3.5130	-1.7896	26.49	0.51	-1.500			
0.5884	37654.49	3.5100	3.5100	-1.7850	26.50	0.52	-1.500			
0.5937	37998.74	3.5070	3.5070	-1.7830	26.51	0.53	-1.500			
0.5991	38341.53	3.5040	3.5039	-1.7768	26.52	0.54	-1.500			
0.6044	38681.64	3.5010	3.5010	-1.7746	26.53	0.55	-1.500			
0.6097	39019.74	3.4980	3.4980	-1.7722	26.54	0.56	-1.500			
0.6150	39359.69	3.4950	3.4950	-1.7675	26.56	0.58	-1.500			
0.6203	39699.53	3.4920	3.4920	-1.7744	26.57	0.59	-1.500			
0.6257	40042.42	3.4890	3.4890	-1.7670	26.58	0.60	-1.500			
0.6310	40383.79	3.4860	3.4860	-1.7663	26.60	0.62	-1.500			
0.6363	40721.15	3.4830	3.4830	-1.7497	26.61	0.63	-1.500			
0.6415	41057.35	3.4800	3.4799	-1.7343	26.62	0.64	-1.500			
0.6467	41389.59	3.4770	3.4771	-1.7133	26.63	0.65	-1.500			
0.6518	41717.58	3.4740	3.4740	-1.6994	26.65	0.67	-1.500			
0.6569	42038.88	3.4710	3.4711	-1.6870	26.66	0.68	-1.500			
0.6619	42363.33	3.4680	3.4679	-1.6620	26.68	0.70	-1.500			
0.6669	42682.44	3.4650	3.4650	-1.6468	26.70	0.72	-1.500			
0.6718	42998.11	3.4620	3.4620	-1.6183	26.71	0.73	-1.500			
0.6767	43307.69	3.4590	3.4589	-1.5968	26.73	0.75	-1.500			
0.6814	43609.37	3.4560	3.4560	-1.5755	26.74	0.76	-1.500			
0.6860	43906.83	3.4530	3.4529	-1.5497	26.75	0.77	-1.500			
0.6907	44201.74	3.4500	3.4500	-1.5231	26.77	0.79	-1.500			
0.6952	44494.76	3.4470	3.4470	-1.5088	26.78	0.80	-1.500			
0.6997	44782.12	3.4440	3.4441	-1.4854	26.79	0.81	-1.500			
0.7042	45065.92	3.4410	3.4409	-1.4672	26.81	0.83	-1.500			
0.7085	45341.40	3.4380	3.4380	-1.4490	26.82	0.84	-1.500			
0.7128	45619.05	3.4350	3.4350	-1.4288	26.84	0.86	-1.500			
0.7171	45892.75	3.4320	3.4320	-1.4156	26.85	0.87	-1.500			
0.7213	46163.34	3.4290	3.4290	-1.4004	26.87	0.89	-1.500			
0.7255	46429.83	3.4260	3.4260	-1.3801	26.88	0.90	-1.500			
0.7296	46693.34	3.4230	3.4230	-1.3656	26.90	0.92	-1.500			
0.7336	46949.94	3.4200	3.4200	-1.3579	26.92	0.94	-1.500			
0.7377	47210.95	3.4170	3.4170	-1.3482	26.94	0.96	-1.500			
0.7418	47474.61	3.4140	3.4139	-1.3332	26.95	0.97	-1.500			
0.7458	47730.34	3.4110	3.4110	-1.3103	26.97	0.99	-1.500			
0.7497	47980.38	3.4080	3.4082	-1.2811	26.98	1.00	-1.500			
0.7535	48225.64	3.4050	3.4048	-1.2463	27.00	1.02	-1.500			
0.7572	48458.88	3.4020	3.4020	-1.2064	27.02	1.04	-1.500			
0.7607	48684.78	3.3990	3.3990	-1.1621	27.04	1.06	-1.500			
0.7642	48908.37	3.3960	3.3960	-1.1348	27.05	1.07	-1.500			
0.7675	49122.20	3.3930	3.3930	-1.0899	27.07	1.09	-1.500			
0.7707	49325.84	3.3900	3.3900	-1.0511	27.08	1.10	-1.500			
0.7738	49523.66	3.3870	3.3870	-1.0121	27.09	1.11	-1.500			
0.7768	49714.86	3.3840	3.3840	-0.9737	27.10	1.12	-1.500			
0.7796	49896.85	3.3810	3.3811	-0.9370	27.12	1.14	-1.500			
0.7824	50073.33	3.3780	3.3780	-0.9015	27.13	1.15	-1.500			
0.7850	50242.12	3.3750	3.3750	-0.8684	27.14	1.16	-1.500			
0.7876	50405.26	3.3720	3.3720	-0.8362	27.16	1.18	-1.500			
0.7900	50561.58	3.3690	3.3690	-0.8037	27.17	1.19	-1.500			
0.7924	50713.81	3.3660	3.3660	-0.7778	27.18	1.20	-1.500			
0.7947	50860.46	3.3630	3.3631	-0.7509	27.19	1.21	-1.500			
0.7969	51000.76	3.3600	3.3599	-0.7249	27.20	1.22	-1.500			
0.7990	51137.78	3.3570	3.3570	-0.7035	27.20	1.22	-1.500			
0.8011	51269.13	3.3540	3.3540	-0.6794	27.21	1.23	-1.500			
0.8031	51398.61	3.3510	3.3510	-0.6578	27.22	1.24	-1.500			
0.8050	51522.71	3.3480	3.3480	-0.6389	27.23	1.25	-1.500			
0.8069	51643.47	3.3450	3.3450	-0.6167	27.24	1.26	-1.500			
0.8087	51759.30	3.3420	3.3420	-0.5974	27.24	1.26	-1.500			
0.8105	51871.55	3.3390	3.3389	-0.5797	27.25	1.27	-1.500			
0.8122	51980.35	3.3360	3.3361	-0.5632	27.26	1.28	-1.500			
0.8139	52087.05	3.3330	3.3330	-0.5497	27.27	1.29	-1.500			
0.8155	52192.43	3.3300	3.3300	-0.5333	27.27	1.29	-1.500			
0.8171	52292.06	3.3270	3.3270	-0.5170	27.28	1.30	-1.500			
0.8186	52390.76	3.3240	3.3240	-0.5018	27.29	1.31	-1.500			
0.8201	52484.77	3.3210	3.3210	-0.4849	27.30	1.32	-1.500			
0.8215	52575.33	3.3180	3.3180	-0.4705	27.30	1.32	-1.500			
0.8229	52664.20	3.3150	3.3151	-0.4573	27.31	1.33	-1.500			
0.8242	52750.55	3.3120	3.3119	-0.4446	27.31	1.33	-1.500			
0.8256	52835.40	3.3090	3.3090	-0.4338	27.32	1.34	-1.500			
0.8268	52917.00	3.3060	3.3060	-0.4205	27.33	1.35	-1.500			
0.8281	52996.97	3.3030	3.3030	-0.4121	27.33	1.35	-1.500			
0.8293	53074.79	3.3000	3.3000	-0.3993	27.34	1.36	-1.500			
0.8305	53149.72	3.2970	3.2970	-0.3878	27.35	1.37	-1.500			
0.8316	53223.36	3.2940	3.2940	-0.3799	27.35	1.37	-1.500			
0.8327	53295.25	3.2910	3.2910	-0.3710	27.36	1.38	-1.500			
0.8338	53365.54	3.2880	3.2880	-0.3618	27.37	1.39	-1.500			
0.8349	53434.42	3.2850	3.2850	-0.3525	27.37	1.39	-1.500			
0.8360	53501.12	3.2820	3.2821	-0.3422	27.38	1.40	-1.500			
0.8370	53566.38	3.2790	3.2790	-0.3338	27.38	1.40	-1.500			
0.8380	53628.87	3.2760	3.2760	-0.3254	27.39	1.41	-1.500			
0.8389	53689.59	3.2730	3.2730	-0.3169	27.40	1.42	-1.500			
0.8398	53749.79	3.2700	3.2699	-0.3111	27.40	1.42	-1.500			
0.8408	53809.15	3.2670	3.2670	-0.3053	27.41	1.43	-1.500			
0.8417	53867.47	3.2640	3.2640	-0.2991	27.41	1.43	-1.500			
0.8426	53924.52	3.2610	3.2610	-0.2938	27.42	1.44	-1.500			
0.8434	53980.29	3.2580	3.2580	-0.2869	27.42	1.44	-1.500			
0.8443	54033.95	3.2550	3.2550	-0.2801	27.42	1.44	-1.500			
0.8451	54087.45	3.2520	3.2519	-0.2751	27.43	1.45	-1.500			
0.8459	54139.66	3.2490	3.2491	-0.2695	27.43	1.45	-1.500			
0.8467	54190.97	3.2460	3.2460	-0.2643	27.44	1.46	-1.500			
0.8475	54241.55	3.2430	3.2431	-0.2597	27.44	1.46	-1.500			
0.8483	54290.83	3.2400	3.2400	-0.2537	27.45	1.47	-1.500			
0.8490	54338.74	3.2370	3.2370	-0.2492	27.45	1.47	-1.500			
0.8498	54385.74	3.2340	3.2340	-0.2444	27.45	1.47	-1.500			
0.8505	54431.86	3.2310	3.2310	-0.2401	27.46	1.48	-1.500			
0.8512	54477.75	3.2280	3.2279	-0.2372	27.46	1.48	-1.500			
0.8519	54522.99	3.2250	3.2250	-0.2337	27.47	1.49	-1.500			
0.8526	54567.76	3.2220	3.2221	-0.2301	27.47	1.49	-1.500			
0.8533	54611.81	3.2190	3.2190	-0.2266	27.48	1.50	-1.500			
0.8540	54654.86	3.2160	3.2160	-0.2224	27.48	1.50	-1.500			
0.8546	54697.01	3.2130	3.2130	-0.2186	27.49	1.51	-1.500			
0.8553	54738.23	3.2100	3.2100	-0.2155	27.49	1.51	-1.500			
0.8559	54779.34	3.2070	3.2070	-0.2127	27.50	1.52	-1.500			
0.8566	54819.73	3.2040	3.2039	-0.2092	27.50	1.52	-1.500			
0.8572	54859.55	3.2010	3.2010	-0.2068	27.51	1.53	-1.500			
0.8578	54898.95	3.1980	3.1980	-0.2049	27.51	1.53	-1.500			
0.8584	54938.09	3.1950	3.1951	-0.2028	27.52	1.54	-1.500			
0.8590	54976.79	3.1920	3.1919	-0.2010	27.52	1.54	-1.500			
0.8596	55015.22	3.1890	3.1890	-0.1985	27.53	1.55	-1.500			
0.8602	55053.16	3.1860	3.1861	-0.1959	27.53	1.55	-1.500			
0.8608	55090.55	3.1830	3.1830	-0.1937	27.53	1.55	-1.500			
0.8614	55127.92	3.1800	3.1799	-0.1915	27.54	1.56	-1.500			
0.8619	55164.31	3.1770	3.1770	-0.1886	27.54	1.56	-1.500			
0.8625	55200.02	3.1740	3.1740	-0.1859	27.55	1.57	-1.500			
0.8631	55235.49	3.1710	3.1711	-0.1836	27.55	1.57	-1.500			
0.8636	55270.46	3.1680	3.1680	-0.1811	27.56	1.58	-1.500			
0.8641	55304.96	3.1650	3.1650	-0.1795	27.56	1.58	-1.500			
0.8647	55338.98	3.1620	3.1620	-0.1778	27.57	1.59	-1.500			
0.8652	55373.00	3.1590	3.1590	-0.1766	27.57	1.59	-1.500			
0.8657	55406.67	3.1560	3.1559	-0.1752	27.58	1.60	-1.500			
0.8663	55440.25	3.1530	3.1529	-0.1739	27.58	1.60	-1.500			
0.8668	55473.70	3.1500	3.1500	-0.1724	27.58	1.60	-1.500			
0.8673	55506.64	3.1470	3.1470	-0.1708	27.59	1.61	-1.500			
0.8678	55539.43	3.1440	3.1440	-0.1697	27.59	1.61	-1.500			
0.8683	55571.65	3.1410	3.1411	-0.1681	27.60	1.62	-1.500			
0.8688	55603.76	3.1380	3.1379	-0.1663	27.60	1.62	-1.500			
0.8693	55635.57	3.1350	3.1350	-0.1651	27.61	1.63	-1.500			
0.8698	55667.18	3.1320	3.1320	-0.1639	27.61	1.63	-1.500			
0.8703	55698.51	3.1290	3.1290	-0.1627	27.62	1.64	-1.500			
0.8708	55729.86	3.1260	3.1260	-0.1615	27.62	1.64	-1.500			
0.8713	55760.70	3.1230	3.1229	-0.1597	27.63	1.65	-1.500			
0.8717	55791.05	3.1200	3.1200	-0.1582	27.63	1.65	-1.500			
0.8722	55821.15	3.1170	3.1171	-0.1571	27.63	1.65	-1.500			
0.8727	55851.25	3.1140	3.1140	-0.1562	27.64	1.66	-1.500			
0.8731	55881.13	3.1110	3.1110	-0.1552	27.64	1.66	-1.500			
0.8736	55910.68	3.1080	3.1080	-0.1541	27.65	1.67	-1.500			
0.8741	55940.11	3.1050	3.1050	-0.1533	27.65	1.67	-1.500			
0.8745	55969.79	3.1020	3.1021	-0.1526	27.65	1.67	-1.500			
0.8750	55998.85	3.0990	3.0990	-0.1516	27.66	1.68	-1.500			
0.8754	56027.91	3.0960	3.0960	-0.1502	27.66	1.68	-1.500			
0.8759	56056.60	3.0930	3.0930	-0.1489	27.67	1.69	-1.500			
0.8763	56085.05	3.0900	3.0899	-0.1480	27.68	1.70	-1.500			
0.8768	56113.48	3.0870	3.0871	-0.1466	27.68	1.70	-1.500			
0.8772	56141.44	3.0840	3.0839	-0.1453	27.69	1.71	-1.500			
0.8776	56169.22	3.0810	3.0811	-0.1441	27.69	1.71	-1.500			
0.8781	56196.76	3.0780	3.0780	-0.1433	27.70	1.72	-1.500			
0.8785	56223.90	3.0750	3.0749	-0.1424	27.70	1.72	-1.500			
0.8789	56251.26	3.0720	3.0720	-0.1420	27.71	1.73	-1.500			
0.8794	56278.47	3.0690	3.0690	-0.1415	27.71	1.73	-1.500			
0.8798	56305.54	3.0660	3.0660	-0.1405	27.72	1.74	-1.500			
0.8802	56332.66	3.0630	3.0630	-0.1401	27.73	1.75	-1.500			
0.8806	56359.50	3.0600	3.0600	-0.1392	27.73	1.75	-1.500			
0.8810	56386.13	3.0570	3.0570	-0.1381	27.74	1.76	-1.500			
0.8814	56412.53	3.0540	3.0540	-0.1370	27.74	1.76	-1.500			
0.8819	56438.66	3.0510	3.0511	-0.1359	27.75	1.77	-1.500			
0.8823	56464.69	3.0480	3.0480	-0.1350	27.75	1.77	-1.500			
0.8827	56490.48	3.0450	3.0449	-0.1343	27.76	1.78	-1.500			
0.8831	56516.21	3.0420	3.0420	-0.1333	27.76	1.78	-1.500			
0.8835	56541.66	3.0390	3.0390	-0.1323	27.77	1.79	-1.500			
0.8839	56566.89	3.0360	3.0360	-0.1321	27.77	1.79	-1.500			
0.8843	56592.31	3.0330	3.0330	-0.1313	27.78	1.80	-1.500			
0.8846	56617.48	3.0300	3.0299	-0.1306	27.78	1.80	-1.500			
0.8850	56642.45	3.0270	3.0270	-0.1300	27.79	1.81	-1.500			
0.8854	56667.34	3.0240	3.0241	-0.1293	27.79	1.81	-1.500			
0.8858	56692.10	3.0210	3.0211	-0.1287	27.80	1.82	-1.500			
0.8862	56716.74	3.0180	3.0179	-0.1280	27.80	1.82	-1.500			
0.8866	56741.36	3.0150	3.0150	-0.1273	27.81	1.83	-1.500			
0.8870	56765.51	3.0120	3.0120	-0.1263	27.81	1.83	-1.500			
0.8873	56789.72	3.0090	3.0090	-0.1258	27.82	1.84	-1.500			
0.8877	56814.01	3.0060	3.0060	-0.1244	27.82	1.84	-1.500			
0.8881	56837.78	3.0030	3.0031	-0.1231	27.82	1.84	-1.500			
