Ah_balance (normalized)	Ah_balance (mAh)	Voltage - fit (V)	Voltage -  interpolate (V)	dQ/dV (1/V)	Temperature (°C)	Temperature - diff (°C)	Current (C)	R_DC 0ms (mOhm)	R_DC 50ms (mOhm)	R_DC 50 ms PEC (mOhm)
0.2150	13760.67	3.9750	3.9748	232.5290	26.92	1.02	0.387			
0.2724	17433.84	3.9720	3.9741	1.5827	27.14	1.24	1.459			
0.2771	17731.79	3.9690	3.9703	1.2482	27.13	1.23	1.500			
0.2803	17941.39	3.9660	3.9665	1.1325	27.13	1.23	1.500			
0.2835	18141.63	3.9630	3.9630	0.8879	27.13	1.23	1.500			
0.2861	18313.37	3.9600	3.9600	0.8879	27.12	1.22	1.500			
0.2888	18485.27	3.9570	3.9570	0.8944	27.12	1.22	1.500			
0.2915	18656.09	3.9540	3.9540	0.8970	27.12	1.22	1.500			
0.2942	18829.05	3.9510	3.9509	0.8929	27.12	1.22	1.500			
0.2969	18999.13	3.9480	3.9481	0.8960	27.12	1.22	1.500			
0.2995	19170.61	3.9450	3.9450	0.9034	27.11	1.21	1.500			
0.3023	19344.54	3.9420	3.9421	0.9103	27.11	1.21	1.500			
0.3050	19520.13	3.9390	3.9391	0.9172	27.11	1.21	1.500			
0.3077	19695.98	3.9360	3.9360	0.9205	27.11	1.21	1.500			
0.3105	19873.99	3.9330	3.9331	0.9288	27.10	1.20	1.500			
0.3134	20054.44	3.9300	3.9300	0.9384	27.10	1.20	1.500			
0.3162	20235.81	3.9270	3.9270	0.9413	27.10	1.20	1.500			
0.3190	20417.86	3.9240	3.9240	0.9392	27.09	1.19	1.500			
0.3218	20596.93	3.9210	3.9210	0.9446	27.09	1.19	1.500			
0.3246	20776.90	3.9180	3.9181	0.9531	27.09	1.19	1.500			
0.3275	20960.35	3.9150	3.9150	0.9594	27.08	1.18	1.500			
0.3304	21144.57	3.9120	3.9120	0.9683	27.08	1.18	1.500			
0.3333	21331.64	3.9090	3.9090	0.9797	27.07	1.17	1.500			
0.3363	21522.79	3.9060	3.9061	0.9902	27.07	1.17	1.500			
0.3393	21714.32	3.9030	3.9030	0.9973	27.06	1.16	1.500			
0.3423	21906.38	3.9000	3.9000	0.9989	27.06	1.16	1.500			
0.3453	22099.22	3.8970	3.8970	1.0008	27.05	1.15	1.500			
0.3483	22290.32	3.8940	3.8940	1.0127	27.05	1.15	1.500			
0.3513	22484.58	3.8910	3.8910	1.0187	27.04	1.14	1.500			
0.3544	22680.69	3.8880	3.8880	1.0290	27.04	1.14	1.500			
0.3575	22879.43	3.8850	3.8850	1.0417	27.04	1.14	1.500			
0.3606	23081.50	3.8820	3.8820	1.0533	27.03	1.13	1.500			
0.3638	23285.71	3.8790	3.8790	1.0649	27.03	1.13	1.500			
0.3671	23492.01	3.8760	3.8760	1.0726	27.02	1.12	1.500			
0.3703	23696.78	3.8730	3.8730	1.0809	27.02	1.12	1.500			
0.3735	23906.61	3.8700	3.8700	1.0912	27.02	1.12	1.500			
0.3768	24115.06	3.8670	3.8670	1.1040	27.01	1.11	1.500			
0.3801	24327.07	3.8640	3.8640	1.1196	27.01	1.11	1.500			
0.3835	24543.93	3.8610	3.8609	1.1335	27.00	1.10	1.500			
0.3869	24762.27	3.8580	3.8580	1.1514	26.99	1.09	1.500			
0.3904	24986.51	3.8550	3.8551	1.1669	26.99	1.09	1.500			
0.3939	25211.66	3.8520	3.8520	1.1839	26.98	1.08	1.500			
0.3975	25442.45	3.8490	3.8490	1.2053	26.97	1.07	1.500			
0.4012	25673.63	3.8460	3.8461	1.2243	26.97	1.07	1.500			
0.4048	25910.38	3.8430	3.8429	1.2370	26.96	1.06	1.500			
0.4086	26150.10	3.8400	3.8400	1.2595	26.95	1.05	1.500			
0.4124	26392.44	3.8370	3.8371	1.2768	26.94	1.04	1.500			
0.4163	26641.89	3.8340	3.8339	1.2883	26.93	1.03	1.500			
0.4201	26886.57	3.8310	3.8311	1.3227	26.92	1.02	1.500			
0.4241	27143.62	3.8280	3.8280	1.3528	26.91	1.01	1.500			
0.4282	27405.72	3.8250	3.8248	1.3785	26.90	1.00	1.500			
0.4324	27674.39	3.8220	3.8221	1.4157	26.89	0.99	1.500			
0.4367	27949.58	3.8190	3.8191	1.4432	26.88	0.98	1.500			
0.4411	28231.23	3.8160	3.8160	1.4770	26.86	0.96	1.500			
0.4456	28517.05	3.8130	3.8129	1.5037	26.85	0.95	1.500			
0.4501	28806.99	3.8100	3.8101	1.5350	26.83	0.93	1.500			
0.4548	29107.72	3.8070	3.8069	1.5771	26.82	0.92	1.500			
0.4596	29415.05	3.8040	3.8039	1.6088	26.81	0.91	1.500			
0.4644	29723.25	3.8010	3.8011	1.6475	26.80	0.90	1.500			
0.4694	30043.38	3.7980	3.7980	1.6942	26.78	0.88	1.500			
0.4746	30371.80	3.7950	3.7951	1.7420	26.77	0.87	1.500			
0.4798	30708.25	3.7920	3.7919	1.7964	26.76	0.86	1.500			
0.4853	31061.54	3.7890	3.7890	1.8420	26.74	0.84	1.500			
0.4910	31421.04	3.7860	3.7860	1.9030	26.72	0.82	1.500			
0.4968	31792.51	3.7830	3.7830	1.9540	26.70	0.80	1.500			
0.5027	32173.11	3.7800	3.7799	1.9965	26.68	0.78	1.500			
0.5088	32563.83	3.7770	3.7770	2.0348	26.67	0.77	1.500			
0.5150	32959.92	3.7740	3.7740	2.0724	26.65	0.75	1.500			
0.5213	33361.58	3.7710	3.7710	2.0962	26.63	0.73	1.500			
0.5276	33768.14	3.7680	3.7680	2.1104	26.61	0.71	1.500			
0.5340	34177.07	3.7650	3.7651	2.1173	26.58	0.68	1.500			
0.5404	34585.61	3.7620	3.7620	2.1263	26.56	0.66	1.500			
0.5468	34994.65	3.7590	3.7590	2.1305	26.54	0.64	1.500			
0.5532	35404.36	3.7560	3.7559	2.1170	26.52	0.62	1.500			
0.5596	35812.41	3.7530	3.7530	2.1118	26.50	0.60	1.500			
0.5659	36216.87	3.7500	3.7500	2.0964	26.48	0.58	1.500			
0.5722	36618.10	3.7470	3.7470	2.0818	26.46	0.56	1.500			
0.5783	37013.27	3.7440	3.7440	2.0750	26.44	0.54	1.500			
0.5846	37411.43	3.7410	3.7410	2.0706	26.43	0.53	1.500			
0.5907	37806.51	3.7380	3.7380	2.0887	26.41	0.51	1.500			
0.5970	38207.59	3.7350	3.7350	2.1107	26.40	0.50	1.500			
0.6033	38613.90	3.7320	3.7319	2.1391	26.38	0.48	1.500			
0.6098	39027.84	3.7290	3.7290	2.1614	26.37	0.47	1.500			
0.6163	39443.85	3.7260	3.7260	2.1900	26.35	0.45	1.500			
0.6229	39863.77	3.7230	3.7231	2.2200	26.34	0.44	1.500			
0.6296	40293.29	3.7200	3.7199	2.3037	26.32	0.42	1.500			
0.6366	40741.29	3.7170	3.7170	2.3413	26.30	0.40	1.500			
0.6437	41197.40	3.7140	3.7140	2.4416	26.28	0.38	1.500			
0.6512	41674.60	3.7110	3.7111	2.5248	26.26	0.36	1.500			
0.6590	42172.97	3.7080	3.7081	2.6066	26.24	0.34	1.500			
0.6668	42676.70	3.7050	3.7050	2.6904	26.22	0.32	1.500			
0.6752	43213.36	3.7020	3.7020	2.7688	26.21	0.31	1.500			
0.6836	43749.21	3.6990	3.6991	2.7687	26.19	0.29	1.500			
0.6920	44290.77	3.6960	3.6960	2.7505	26.17	0.27	1.500			
0.7003	44820.55	3.6930	3.6930	2.6399	26.16	0.26	1.500			
0.7081	45319.98	3.6900	3.6901	2.4580	26.14	0.24	1.500			
0.7152	45773.76	3.6870	3.6870	2.2608	26.13	0.23	1.500			
0.7215	46179.01	3.6840	3.6841	2.0522	26.12	0.22	1.500			
0.7274	46552.33	3.6810	3.6809	1.8827	26.11	0.21	1.500			
0.7327	46889.82	3.6780	3.6780	1.7425	26.11	0.21	1.500			
0.7375	47203.18	3.6750	3.6749	1.6242	26.10	0.20	1.500			
0.7422	47500.75	3.6720	3.6720	1.5258	26.09	0.19	1.500			
0.7466	47780.19	3.6690	3.6690	1.4483	26.09	0.19	1.500			
0.7508	48051.21	3.6660	3.6661	1.3897	26.08	0.18	1.500			
0.7548	48309.05	3.6630	3.6631	1.3304	26.08	0.18	1.500			
0.7587	48556.82	3.6600	3.6600	1.2910	26.07	0.17	1.500			
0.7624	48795.88	3.6570	3.6570	1.2631	26.06	0.16	1.500			
0.7662	49035.11	3.6540	3.6540	1.2449	26.05	0.15	1.500			
0.7698	49269.16	3.6510	3.6509	1.2505	26.04	0.14	1.500			
0.7735	49506.52	3.6480	3.6481	1.2602	26.03	0.13	1.500			
0.7773	49749.36	3.6450	3.6450	1.2754	26.02	0.12	1.500			
0.7812	49998.06	3.6420	3.6421	1.2920	26.02	0.12	1.500			
0.7851	50248.06	3.6390	3.6390	1.3032	26.01	0.11	1.500			
0.7891	50502.71	3.6360	3.6361	1.3101	26.00	0.10	1.500			
0.7931	50756.03	3.6330	3.6330	1.3175	25.99	0.09	1.500			
0.7970	51006.59	3.6300	3.6300	1.3176	25.98	0.08	1.500			
0.8009	51260.48	3.6270	3.6270	1.3246	25.98	0.08	1.500			
0.8049	51514.89	3.6240	3.6239	1.3259	25.97	0.07	1.500			
0.8089	51770.65	3.6210	3.6210	1.3211	25.96	0.06	1.500			
0.8129	52025.79	3.6180	3.6180	1.3179	25.95	0.05	1.500			
0.8168	52278.23	3.6150	3.6151	1.3125	25.94	0.04	1.500			
0.8208	52528.51	3.6120	3.6120	1.3080	25.94	0.04	1.500			
0.8246	52776.99	3.6090	3.6090	1.3060	25.93	0.03	1.500			
0.8286	53028.52	3.6060	3.6059	1.3042	25.92	0.02	1.500			
0.8325	53280.60	3.6030	3.6030	1.3007	25.92	0.02	1.500			
0.8364	53531.14	3.6000	3.6001	1.2946	25.91	0.01	1.500			
0.8403	53781.90	3.5970	3.5970	1.2797	25.91	0.01	1.500			
0.8441	54024.40	3.5940	3.5939	1.2654	25.91	0.01	1.500			
0.8479	54263.44	3.5910	3.5911	1.2480	25.91	0.01	1.500			
0.8516	54501.29	3.5880	3.5880	1.2373	25.90	0.00	1.500			
0.8553	54737.52	3.5850	3.5850	1.2330	25.90	0.00	1.500			
0.8589	54972.31	3.5820	3.5821	1.2325	25.90	0.00	1.500			
0.8626	55207.47	3.5790	3.5789	1.2304	25.90	0.00	1.500			
0.8664	55449.15	3.5760	3.5759	1.2113	25.90	0.00	1.500			
0.8701	55687.90	3.5730	3.5730	1.1637	25.90	0.00	1.500			
0.8738	55925.85	3.5700	3.5699	1.0817	25.90	0.00	1.500			
0.8771	56131.38	3.5670	3.5672	0.9596	25.90	0.00	1.500			
0.8798	56308.62	3.5640	3.5642	0.8248	25.90	0.00	1.500			
0.8820	56450.30	3.5610	3.5610	0.6745	25.90	0.00	1.500			
0.8837	56553.66	3.5580	3.5580	0.5406	25.90	0.00	1.500			
0.8849	56636.78	3.5550	3.5549	0.4368	25.90	0.00	1.500			
0.8860	56700.85	3.5520	3.5520	0.3517	25.90	0.00	1.500			
0.8869	56761.31	3.5490	3.5489	0.2981	25.90	0.00	1.500			
0.8877	56811.13	3.5460	3.5460	0.2591	25.90	0.00	1.500			
0.8884	56855.78	3.5430	3.5430	0.2296	25.90	0.00	1.500			
0.8890	56895.14	3.5400	3.5401	0.2048	25.90	0.00	1.500			
0.8896	56932.17	3.5370	3.5370	0.1849	25.90	0.00	1.500			
0.8901	56964.99	3.5340	3.5339	0.1686	25.90	0.00	1.500			
0.8905	56995.13	3.5310	3.5310	0.1536	25.90	0.00	1.500			
0.8910	57022.86	3.5280	3.5280	0.1391	25.90	0.00	1.500			
0.8914	57048.70	3.5250	3.5250	0.1254	25.90	0.00	1.500			
0.8917	57071.63	3.5220	3.5220	0.1121	25.90	0.00	1.500			
0.8921	57092.16	3.5190	3.5190	0.0987	25.90	0.00	1.500			
0.8923	57109.90	3.5160	3.5162	0.0845	25.90	0.00	1.500			
0.8926	57124.73	3.5130	3.5132	0.0699	25.90	0.00	1.500			
0.8928	57137.04	3.5100	3.5105	0.0541	25.90	0.00	1.500			
0.8929	57145.93	3.5070	3.5079	0.0384	25.90	0.00	1.500			
