Ah_balance (normalized)	Ah_balance (mAh)	Voltage - fit (V)	Voltage -  interpolate (V)	dQ/dV (1/V)	Temperature (°C)	Temperature - diff (°C)	Current (C)	R_DC 0ms (mOhm)	R_DC 50ms (mOhm)	R_DC 50 ms PEC (mOhm)
0.2980	19073.64	3.9730	3.9731	0.8839	26.96	1.02	1.500			
0.3007	19243.34	3.9700	3.9700	0.8813	26.96	1.02	1.500			
0.3033	19409.24	3.9670	3.9670	0.8721	26.96	1.02	1.500			
0.3059	19575.54	3.9640	3.9640	0.8781	26.95	1.01	1.500			
0.3085	19743.74	3.9610	3.9610	0.8843	26.95	1.01	1.500			
0.3112	19915.30	3.9580	3.9579	0.8912	26.95	1.01	1.500			
0.3139	20087.65	3.9550	3.9550	0.8963	26.95	1.01	1.500			
0.3166	20261.45	3.9520	3.9521	0.9025	26.94	1.00	1.500			
0.3193	20435.81	3.9490	3.9491	0.9083	26.94	1.00	1.500			
0.3220	20609.96	3.9460	3.9459	0.9080	26.94	1.00	1.500			
0.3247	20782.53	3.9430	3.9430	0.9088	26.94	1.00	1.500			
0.3275	20958.28	3.9400	3.9400	0.9137	26.93	0.99	1.500			
0.3302	21135.49	3.9370	3.9370	0.9192	26.93	0.99	1.500			
0.3330	21311.30	3.9340	3.9339	0.9188	26.92	0.98	1.500			
0.3357	21487.47	3.9310	3.9310	0.9252	26.92	0.98	1.500			
0.3385	21664.86	3.9280	3.9280	0.9256	26.91	0.97	1.500			
0.3413	21842.44	3.9250	3.9250	0.9340	26.91	0.97	1.500			
0.3441	22022.02	3.9220	3.9220	0.9403	26.91	0.97	1.500			
0.3469	22203.89	3.9190	3.9189	0.9501	26.90	0.96	1.500			
0.3498	22387.92	3.9160	3.9160	0.9555	26.90	0.96	1.500			
0.3527	22570.94	3.9130	3.9130	0.9669	26.89	0.95	1.500			
0.3556	22758.26	3.9100	3.9100	0.9709	26.89	0.95	1.500			
0.3585	22946.76	3.9070	3.9069	0.9782	26.88	0.94	1.500			
0.3615	23133.80	3.9040	3.9040	0.9788	26.88	0.94	1.500			
0.3644	23322.11	3.9010	3.9010	0.9876	26.87	0.93	1.500			
0.3674	23512.25	3.8980	3.8980	0.9946	26.87	0.93	1.500			
0.3704	23703.44	3.8950	3.8950	1.0046	26.86	0.92	1.500			
0.3733	23893.95	3.8920	3.8920	1.0147	26.86	0.92	1.500			
0.3765	24092.81	3.8890	3.8890	1.0266	26.85	0.91	1.500			
0.3795	24290.91	3.8860	3.8860	1.0378	26.84	0.90	1.500			
0.3827	24492.11	3.8830	3.8830	1.0446	26.84	0.90	1.500			
0.3858	24693.49	3.8800	3.8800	1.0528	26.83	0.89	1.500			
0.3890	24896.72	3.8770	3.8769	1.0659	26.82	0.88	1.500			
0.3922	25100.99	3.8740	3.8740	1.0747	26.81	0.87	1.500			
0.3954	25307.71	3.8710	3.8711	1.0920	26.81	0.87	1.500			
0.3988	25520.24	3.8680	3.8680	1.1096	26.80	0.86	1.500			
0.4021	25734.66	3.8650	3.8649	1.1177	26.79	0.85	1.500			
0.4055	25950.71	3.8620	3.8620	1.1352	26.79	0.85	1.500			
0.4089	26170.07	3.8590	3.8590	1.1439	26.78	0.84	1.500			
0.4123	26389.96	3.8560	3.8560	1.1607	26.78	0.84	1.500			
0.4158	26612.28	3.8530	3.8529	1.1806	26.77	0.83	1.500			
0.4194	26839.89	3.8500	3.8501	1.2020	26.77	0.83	1.500			
0.4230	27074.46	3.8470	3.8469	1.2268	26.76	0.82	1.500			
0.4268	27312.96	3.8440	3.8439	1.2496	26.75	0.81	1.500			
0.4305	27555.19	3.8410	3.8411	1.2681	26.74	0.80	1.500			
0.4344	27803.43	3.8380	3.8381	1.2828	26.73	0.79	1.500			
0.4383	28048.98	3.8350	3.8350	1.3016	26.72	0.78	1.500			
0.4422	28300.04	3.8320	3.8320	1.3275	26.71	0.77	1.500			
0.4462	28554.76	3.8290	3.8290	1.3527	26.70	0.76	1.500			
0.4503	28817.04	3.8260	3.8260	1.3795	26.69	0.75	1.500			
0.4544	29084.26	3.8230	3.8230	1.4142	26.68	0.74	1.500			
0.4587	29359.97	3.8200	3.8200	1.4425	26.67	0.73	1.500			
0.4631	29639.78	3.8170	3.8170	1.4837	26.66	0.72	1.500			
0.4676	29926.08	3.8140	3.8140	1.5113	26.65	0.71	1.500			
0.4722	30220.30	3.8110	3.8109	1.5453	26.64	0.70	1.500			
0.4769	30518.61	3.8080	3.8081	1.5863	26.63	0.69	1.500			
0.4817	30827.83	3.8050	3.8051	1.6211	26.62	0.68	1.500			
0.4866	31140.64	3.8020	3.8019	1.6673	26.61	0.67	1.500			
0.4916	31465.18	3.7990	3.7990	1.7117	26.59	0.65	1.500			
0.4968	31796.93	3.7960	3.7960	1.7615	26.58	0.64	1.500			
0.5022	32143.05	3.7930	3.7930	1.8178	26.57	0.63	1.500			
0.5077	32495.18	3.7900	3.7900	1.8615	26.56	0.62	1.500			
0.5134	32859.41	3.7870	3.7870	1.9205	26.54	0.60	1.500			
0.5192	33230.99	3.7840	3.7840	1.9631	26.53	0.59	1.500			
0.5252	33612.68	3.7810	3.7810	2.0141	26.51	0.57	1.500			
0.5314	34008.58	3.7780	3.7780	2.0366	26.49	0.55	1.500			
0.5375	34402.82	3.7750	3.7750	2.0880	26.47	0.53	1.500			
0.5438	34803.00	3.7720	3.7721	2.1224	26.45	0.51	1.500			
0.5502	35215.09	3.7690	3.7690	2.1479	26.43	0.49	1.500			
0.5567	35631.38	3.7660	3.7660	2.1680	26.41	0.47	1.500			
0.5634	36055.65	3.7630	3.7627	2.2023	26.39	0.45	1.500	0.366	0.463	
0.5699	36471.27	3.7600	3.7600	2.1992	26.37	0.43	1.500			
0.5766	36899.87	3.7570	3.7570	2.1853	26.35	0.41	1.500			
0.5831	37321.30	3.7540	3.7540	2.1525	26.33	0.39	1.500			
0.5895	37729.67	3.7510	3.7510	2.1225	26.32	0.38	1.500			
0.5958	38128.11	3.7480	3.7480	2.0874	26.30	0.36	1.500			
0.6020	38526.67	3.7450	3.7450	2.0615	26.29	0.35	1.500			
0.6082	38924.71	3.7420	3.7420	2.0340	26.27	0.33	1.500			
0.6143	39313.29	3.7390	3.7391	2.0544	26.26	0.32	1.500			
0.6204	39706.16	3.7360	3.7359	2.0553	26.25	0.31	1.500			
0.6266	40099.27	3.7330	3.7331	2.0755	26.23	0.29	1.500			
0.6328	40501.21	3.7300	3.7300	2.0845	26.22	0.28	1.500			
0.6392	40907.54	3.7270	3.7270	2.1412	26.21	0.27	1.500			
0.6455	41314.66	3.7240	3.7240	2.1698	26.20	0.26	1.500			
0.6522	41738.46	3.7210	3.7210	2.2401	26.19	0.25	1.500			
0.6589	42172.18	3.7180	3.7180	2.3151	26.17	0.23	1.500			
0.6660	42621.93	3.7150	3.7151	2.4001	26.16	0.22	1.500			
0.6734	43095.25	3.7120	3.7119	2.5145	26.14	0.20	1.500			
0.6811	43591.28	3.7090	3.7090	2.5736	26.13	0.19	1.500			
0.6889	44091.64	3.7060	3.7060	2.6742	26.12	0.18	1.500			
0.6971	44614.18	3.7030	3.7028	2.7143	26.11	0.17	1.500			
0.7054	45145.22	3.7000	3.7001	2.7377	26.10	0.16	1.500			
0.7137	45675.94	3.6970	3.6970	2.7090	26.09	0.15	1.500			
0.7218	46195.81	3.6940	3.6939	2.6135	26.08	0.14	1.500			
0.7296	46696.78	3.6910	3.6910	2.4712	26.07	0.13	1.500			
0.7368	47157.23	3.6880	3.6880	2.2662	26.07	0.13	1.500			
0.7433	47568.35	3.6850	3.6851	2.0748	26.06	0.12	1.500			
0.7490	47938.24	3.6820	3.6820	1.8804	26.06	0.12	1.500			
0.7545	48285.36	3.6790	3.6791	1.7559	26.05	0.11	1.500			
0.7595	48605.11	3.6760	3.6760	1.6367	26.05	0.11	1.500			
0.7642	48906.06	3.6730	3.6730	1.5424	26.05	0.11	1.500			
0.7686	49190.95	3.6700	3.6700	1.4593	26.04	0.10	1.500			
0.7728	49459.66	3.6670	3.6670	1.3880	26.04	0.10	1.500			
0.7768	49716.35	3.6640	3.6640	1.3278	26.04	0.10	1.500			
0.7806	49959.04	3.6610	3.6610	1.2809	26.03	0.09	1.500			
0.7844	50200.91	3.6580	3.6580	1.2535	26.03	0.09	1.500			
0.7880	50433.27	3.6550	3.6550	1.2420	26.03	0.09	1.500			
0.7917	50668.98	3.6520	3.6520	1.2428	26.02	0.08	1.500			
0.7954	50906.06	3.6490	3.6490	1.2489	26.02	0.08	1.500			
0.7992	51147.19	3.6460	3.6460	1.2685	26.02	0.08	1.500			
0.8030	51393.51	3.6430	3.6431	1.2802	26.01	0.07	1.500			
0.8069	51642.35	3.6400	3.6399	1.2921	26.00	0.06	1.500			
0.8108	51893.33	3.6370	3.6370	1.3027	26.00	0.06	1.500			
0.8147	52142.49	3.6340	3.6341	1.3017	25.99	0.05	1.500			
0.8187	52395.09	3.6310	3.6310	1.3063	25.99	0.05	1.500			
0.8226	52645.85	3.6280	3.6280	1.3032	25.98	0.04	1.500			
0.8265	52895.02	3.6250	3.6251	1.3007	25.98	0.04	1.500			
0.8304	53146.37	3.6220	3.6220	1.2989	25.97	0.03	1.500			
0.8343	53393.34	3.6190	3.6189	1.2933	25.97	0.03	1.500			
0.8381	53640.64	3.6160	3.6161	1.2916	25.96	0.02	1.500			
0.8420	53889.04	3.6130	3.6129	1.2900	25.96	0.02	1.500			
0.8459	54140.04	3.6100	3.6100	1.2792	25.95	0.01	1.500			
0.8498	54385.74	3.6070	3.6070	1.2640	25.95	0.01	1.500			
0.8536	54627.77	3.6040	3.6041	1.2519	25.95	0.01	1.500			
0.8573	54867.53	3.6010	3.6010	1.2343	25.94	0.00	1.500			
0.8609	55100.42	3.5980	3.5979	1.2117	25.94	-0.00	1.500			
0.8645	55330.03	3.5950	3.5951	1.1955	25.94	-0.00	1.500			
0.8681	55556.90	3.5920	3.5920	1.1877	25.93	-0.01	1.500			
0.8716	55785.12	3.5890	3.5889	1.1800	25.93	-0.01	1.500			
0.8751	56008.65	3.5860	3.5860	1.1753	25.93	-0.01	1.500			
0.8786	56231.54	3.5830	3.5831	1.1787	25.93	-0.01	1.500			
0.8822	56461.42	3.5800	3.5799	1.1818	25.93	-0.01	1.500			
0.8858	56691.73	3.5770	3.5769	1.1708	25.94	-0.00	1.500			
0.8894	56923.15	3.5740	3.5739	1.1296	25.94	-0.00	1.500			
0.8929	57143.05	3.5710	3.5710	1.0575	25.94	-0.00	1.500			
0.8962	57354.17	3.5680	3.5680	0.9493	25.94	-0.00	1.500			
0.8989	57526.69	3.5650	3.5652	0.8108	25.94	0.00	1.500			
0.9011	57667.26	3.5620	3.5621	0.6753	25.94	0.00	1.500			
0.9028	57780.12	3.5590	3.5588	0.5447	25.94	0.00	1.500			
0.9041	57860.54	3.5560	3.5559	0.4400	25.94	0.00	1.500			
0.9052	57930.15	3.5530	3.5531	0.3651	25.94	0.00	1.500			
0.9061	57989.58	3.5500	3.5499	0.2988	25.94	0.00	1.500			
0.9069	58039.98	3.5470	3.5469	0.2587	25.94	0.00	1.500			
0.9075	58081.26	3.5440	3.5439	0.2228	25.94	0.00	1.500			
0.9081	58119.39	3.5410	3.5409	0.1981	25.94	0.00	1.500			
0.9087	58154.38	3.5380	3.5380	0.1759	25.94	0.00	1.500			
0.9091	58185.31	3.5350	3.5351	0.1585	25.94	0.00	1.500			
0.9096	58213.96	3.5320	3.5320	0.1420	25.94	0.00	1.500			
0.9100	58239.24	3.5290	3.5290	0.1262	25.94	0.00	1.500			
0.9103	58262.06	3.5260	3.5259	0.1116	25.95	0.01	1.500			
0.9107	58281.88	3.5230	3.5230	0.0968	25.95	0.01	1.500			
0.9109	58299.10	3.5200	3.5202	0.0824	25.95	0.01	1.500			
0.9111	58313.55	3.5170	3.5174	0.0681	25.95	0.01	1.500			
0.9113	58325.70	3.5140	3.5146	0.0519	25.95	0.01	1.500			
0.9115	58334.14	3.5110	3.5118	0.0360	25.95	0.01	1.500			
