Ah_balance (normalized)	Ah_balance (mAh)	Voltage - fit (V)	Voltage -  interpolate (V)	dQ/dV (1/V)	Temperature (°C)	Temperature - diff (°C)	Current (C)	R_DC 0ms (mOhm)	R_DC 50ms (mOhm)	R_DC 50 ms PEC (mOhm)
0.2891	18504.72	3.9730	3.9730	0.8611	27.15	1.21	1.500			
0.2917	18670.69	3.9700	3.9698	0.8650	27.14	1.20	1.500			
0.2943	18836.87	3.9670	3.9670	0.8674	27.14	1.20	1.500			
0.2969	19003.09	3.9640	3.9640	0.8725	27.13	1.19	1.500			
0.2995	19170.66	3.9610	3.9610	0.8770	27.12	1.18	1.500			
0.3022	19340.19	3.9580	3.9580	0.8837	27.12	1.18	1.500			
0.3048	19509.65	3.9550	3.9550	0.8872	27.11	1.17	1.500			
0.3075	19682.41	3.9520	3.9520	0.8882	27.11	1.17	1.500			
0.3102	19853.50	3.9490	3.9490	0.8941	27.10	1.16	1.500			
0.3129	20024.24	3.9460	3.9461	0.8983	27.10	1.16	1.500			
0.3156	20196.39	3.9430	3.9430	0.8992	27.09	1.15	1.500			
0.3183	20369.21	3.9400	3.9400	0.9062	27.09	1.15	1.500			
0.3210	20543.23	3.9370	3.9370	0.9106	27.08	1.14	1.500			
0.3237	20719.11	3.9340	3.9341	0.9153	27.07	1.13	1.500			
0.3265	20897.22	3.9310	3.9310	0.9245	27.07	1.13	1.500			
0.3293	21073.26	3.9280	3.9281	0.9248	27.06	1.12	1.500			
0.3321	21251.74	3.9250	3.9250	0.9296	27.05	1.11	1.500			
0.3348	21430.10	3.9220	3.9220	0.9358	27.05	1.11	1.500			
0.3376	21609.40	3.9190	3.9190	0.9422	27.04	1.10	1.500			
0.3405	21791.05	3.9160	3.9161	0.9487	27.03	1.09	1.500			
0.3433	21973.76	3.9130	3.9128	0.9569	27.03	1.09	1.500			
0.3462	22158.36	3.9100	3.9101	0.9585	27.02	1.08	1.500			
0.3491	22343.86	3.9070	3.9070	0.9638	27.02	1.08	1.500			
0.3520	22529.86	3.9040	3.9040	0.9692	27.01	1.07	1.500			
0.3549	22715.28	3.9010	3.9009	0.9750	27.00	1.06	1.500			
0.3578	22900.59	3.8980	3.8980	0.9806	27.00	1.06	1.500			
0.3608	23089.41	3.8950	3.8950	0.9932	26.99	1.05	1.500			
0.3638	23280.25	3.8920	3.8920	1.0031	26.99	1.05	1.500			
0.3668	23475.53	3.8890	3.8889	1.0147	26.98	1.04	1.500			
0.3699	23671.06	3.8860	3.8861	1.0260	26.97	1.03	1.500			
0.3730	23869.34	3.8830	3.8830	1.0351	26.97	1.03	1.500			
0.3761	24068.38	3.8800	3.8800	1.0465	26.96	1.02	1.500			
0.3792	24271.56	3.8770	3.8771	1.0557	26.96	1.02	1.500			
0.3824	24473.92	3.8740	3.8740	1.0623	26.95	1.01	1.500			
0.3856	24678.94	3.8710	3.8710	1.0752	26.94	1.00	1.500			
0.3888	24886.05	3.8680	3.8680	1.0858	26.94	1.00	1.500			
0.3921	25093.41	3.8650	3.8649	1.1039	26.93	0.99	1.500			
0.3954	25306.65	3.8620	3.8621	1.1225	26.92	0.98	1.500			
0.3988	25524.57	3.8590	3.8590	1.1376	26.92	0.98	1.500			
0.4023	25746.24	3.8560	3.8560	1.1588	26.91	0.97	1.500			
0.4058	25970.43	3.8530	3.8531	1.1662	26.90	0.96	1.500			
0.4093	26195.93	3.8500	3.8500	1.1822	26.90	0.96	1.500			
0.4129	26423.44	3.8470	3.8470	1.1988	26.89	0.95	1.500			
0.4165	26653.47	3.8440	3.8440	1.2170	26.88	0.94	1.500			
0.4201	26888.56	3.8410	3.8410	1.2354	26.87	0.93	1.500			
0.4239	27128.02	3.8380	3.8380	1.2574	26.86	0.92	1.500			
0.4277	27372.01	3.8350	3.8351	1.2794	26.85	0.91	1.500			
0.4315	27619.09	3.8320	3.8320	1.3076	26.83	0.89	1.500			
0.4355	27871.98	3.8290	3.8290	1.3315	26.82	0.88	1.500			
0.4395	28127.30	3.8260	3.8260	1.3577	26.81	0.87	1.500			
0.4436	28391.23	3.8230	3.8230	1.3913	26.80	0.86	1.500			
0.4479	28664.16	3.8200	3.8200	1.4245	26.79	0.85	1.500			
0.4522	28942.88	3.8170	3.8169	1.4397	26.78	0.84	1.500			
0.4566	29220.12	3.8140	3.8141	1.4748	26.77	0.83	1.500			
0.4610	29503.48	3.8110	3.8111	1.5125	26.75	0.81	1.500			
0.4656	29796.37	3.8080	3.8079	1.5495	26.74	0.80	1.500			
0.4703	30096.03	3.8050	3.8051	1.5950	26.73	0.79	1.500			
0.4751	30407.66	3.8020	3.8021	1.6287	26.72	0.78	1.500			
0.4801	30725.60	3.7990	3.7990	1.6689	26.71	0.77	1.500			
0.4852	31050.04	3.7960	3.7961	1.7060	26.70	0.76	1.500			
0.4903	31380.86	3.7930	3.7930	1.7461	26.68	0.74	1.500			
0.4956	31720.32	3.7900	3.7900	1.7883	26.67	0.73	1.500			
0.5010	32064.88	3.7870	3.7871	1.8345	26.64	0.70	1.500			
0.5066	32423.90	3.7840	3.7840	1.8844	26.62	0.68	1.500			
0.5124	32791.68	3.7810	3.7809	1.9216	26.60	0.66	1.500			
0.5182	33164.02	3.7780	3.7780	1.9520	26.58	0.64	1.500			
0.5241	33543.77	3.7750	3.7750	1.9894	26.56	0.62	1.500			
0.5301	33929.30	3.7720	3.7720	1.9919	26.54	0.60	1.500			
0.5361	34309.23	3.7690	3.7691	2.0387	26.52	0.58	1.500			
0.5423	34705.92	3.7660	3.7659	2.0517	26.50	0.56	1.500			
0.5485	35102.25	3.7630	3.7631	2.0415	26.48	0.54	1.500	0.363	0.459	
0.5546	35496.85	3.7600	3.7601	2.0372	26.46	0.52	1.500			
0.5607	35887.79	3.7570	3.7570	2.0277	26.45	0.51	1.500			
0.5667	36268.27	3.7540	3.7539	1.9817	26.43	0.49	1.500			
0.5727	36651.64	3.7510	3.7511	1.9744	26.41	0.47	1.500			
0.5786	37030.74	3.7480	3.7481	1.9773	26.39	0.45	1.500			
0.5844	37403.00	3.7450	3.7449	1.9605	26.37	0.43	1.500			
0.5903	37776.60	3.7420	3.7420	1.9612	26.36	0.42	1.500			
0.5962	38157.80	3.7390	3.7390	1.9933	26.34	0.40	1.500			
0.6023	38545.96	3.7360	3.7360	2.0014	26.33	0.39	1.500			
0.6082	38927.79	3.7330	3.7330	2.0257	26.32	0.38	1.500			
0.6144	39319.23	3.7300	3.7300	2.0632	26.31	0.37	1.500			
0.6206	39717.68	3.7270	3.7271	2.1189	26.29	0.35	1.500			
0.6270	40129.97	3.7240	3.7240	2.1705	26.28	0.34	1.500			
0.6336	40552.92	3.7210	3.7210	2.2339	26.26	0.32	1.500			
0.6403	40981.55	3.7180	3.7180	2.3049	26.24	0.30	1.500			
0.6474	41431.08	3.7150	3.7150	2.3941	26.23	0.29	1.500			
0.6547	41899.46	3.7120	3.7120	2.4722	26.22	0.28	1.500			
0.6623	42386.66	3.7090	3.7090	2.5517	26.21	0.27	1.500			
0.6700	42882.87	3.7060	3.7060	2.5955	26.19	0.25	1.500			
0.6779	43384.49	3.7030	3.7030	2.6154	26.18	0.24	1.500			
0.6858	43890.03	3.7000	3.7000	2.6376	26.16	0.22	1.500			
0.6938	44401.13	3.6970	3.6970	2.5986	26.15	0.21	1.500			
0.7016	44904.91	3.6940	3.6940	2.4893	26.14	0.20	1.500			
0.7088	45365.12	3.6910	3.6910	2.3026	26.13	0.19	1.500			
0.7154	45783.30	3.6880	3.6879	2.1055	26.12	0.18	1.500			
0.7214	46166.70	3.6850	3.6850	1.9371	26.12	0.18	1.500			
0.7270	46525.85	3.6820	3.6820	1.7956	26.11	0.17	1.500			
0.7320	46846.55	3.6790	3.6790	1.6741	26.11	0.17	1.500			
0.7368	47154.67	3.6760	3.6761	1.5731	26.10	0.16	1.500			
0.7413	47445.50	3.6730	3.6729	1.4876	26.10	0.16	1.500			
0.7457	47722.86	3.6700	3.6700	1.4204	26.09	0.15	1.500			
0.7498	47985.37	3.6670	3.6671	1.3638	26.09	0.15	1.500			
0.7538	48242.29	3.6640	3.6640	1.3140	26.08	0.14	1.500			
0.7576	48484.63	3.6610	3.6610	1.2745	26.08	0.14	1.500			
0.7613	48720.73	3.6580	3.6580	1.2635	26.07	0.13	1.500			
0.7650	48957.66	3.6550	3.6551	1.2587	26.06	0.12	1.500			
0.7687	49199.24	3.6520	3.6520	1.2694	26.06	0.12	1.500			
0.7725	49442.86	3.6490	3.6490	1.2804	26.05	0.11	1.500			
0.7765	49693.33	3.6460	3.6461	1.2915	26.04	0.10	1.500			
0.7804	49946.27	3.6430	3.6430	1.3055	26.04	0.10	1.500			
0.7843	50194.99	3.6400	3.6400	1.3107	26.03	0.09	1.500			
0.7882	50447.83	3.6370	3.6370	1.3094	26.03	0.09	1.500			
0.7922	50699.59	3.6340	3.6339	1.3094	26.02	0.08	1.500			
0.7961	50951.55	3.6310	3.6311	1.3070	26.01	0.07	1.500			
0.8000	51202.21	3.6280	3.6280	1.3083	26.01	0.07	1.500			
0.8040	51454.05	3.6250	3.6251	1.3038	26.00	0.06	1.500			
0.8079	51703.10	3.6220	3.6219	1.3002	25.99	0.05	1.500			
0.8117	51951.63	3.6190	3.6190	1.2982	25.99	0.05	1.500			
0.8157	52202.83	3.6160	3.6160	1.2987	25.98	0.04	1.500			
0.8196	52451.64	3.6130	3.6130	1.2887	25.98	0.04	1.500			
0.8234	52700.65	3.6100	3.6100	1.2809	25.97	0.03	1.500			
0.8273	52945.90	3.6070	3.6071	1.2674	25.97	0.03	1.500			
0.8311	53189.23	3.6040	3.6039	1.2559	25.96	0.02	1.500			
0.8348	53428.42	3.6010	3.6011	1.2419	25.96	0.02	1.500			
0.8385	53665.29	3.5980	3.5980	1.2253	25.95	0.01	1.500			
0.8422	53899.13	3.5950	3.5949	1.2130	25.95	0.01	1.500			
0.8458	54131.15	3.5920	3.5921	1.1970	25.95	0.01	1.500			
0.8493	54358.08	3.5890	3.5890	1.1833	25.95	0.01	1.500			
0.8529	54583.18	3.5860	3.5860	1.1703	25.95	0.01	1.500			
0.8564	54806.70	3.5830	3.5830	1.1569	25.94	0.00	1.500			
0.8598	55028.80	3.5800	3.5800	1.1376	25.94	0.00	1.500			
0.8634	55254.59	3.5770	3.5769	1.0927	25.94	0.00	1.500			
0.8666	55465.24	3.5740	3.5739	1.0210	25.94	0.00	1.500			
0.8698	55666.10	3.5710	3.5711	0.9203	25.94	-0.00	1.500			
0.8724	55834.80	3.5680	3.5682	0.7942	25.94	-0.00	1.500			
0.8746	55975.03	3.5650	3.5650	0.6704	25.94	-0.00	1.500			
0.8764	56087.26	3.5620	3.5619	0.5457	25.94	-0.00	1.500			
0.8776	56169.56	3.5590	3.5589	0.4465	25.94	-0.00	1.500			
0.8788	56240.56	3.5560	3.5561	0.3733	25.94	-0.00	1.500			
0.8797	56301.97	3.5530	3.5529	0.3084	25.93	-0.01	1.500			
0.8805	56354.30	3.5500	3.5499	0.2692	25.93	-0.01	1.500			
0.8812	56398.55	3.5470	3.5469	0.2349	25.93	-0.01	1.500			
0.8819	56439.08	3.5440	3.5440	0.2104	25.93	-0.01	1.500			
0.8824	56476.11	3.5410	3.5410	0.1882	25.93	-0.01	1.500			
0.8830	56509.70	3.5380	3.5380	0.1711	25.93	-0.01	1.500			
0.8834	56540.43	3.5350	3.5350	0.1563	25.93	-0.01	1.500			
0.8839	56568.50	3.5320	3.5321	0.1407	25.93	-0.01	1.500			
0.8843	56594.31	3.5290	3.5290	0.1271	25.93	-0.01	1.500			
0.8846	56617.28	3.5260	3.5259	0.1133	25.93	-0.01	1.500			
0.8850	56637.88	3.5230	3.5230	0.1001	25.93	-0.01	1.500			
0.8852	56655.92	3.5200	3.5202	0.0867	25.93	-0.01	1.500			
0.8855	56671.23	3.5170	3.5171	0.0729	25.93	-0.01	1.500			
0.8857	56684.29	3.5140	3.5144	0.0579	25.93	-0.01	1.500			
0.8858	56693.97	3.5110	3.5114	0.0429	25.93	-0.01	1.500			
