Ah_balance (normalized)	Ah_balance (mAh)	Voltage - fit (V)	Voltage -  interpolate (V)	dQ/dV (1/V)	Temperature (°C)	Temperature - diff (°C)	Current (C)	R_DC 0ms (mOhm)	R_DC 50ms (mOhm)	R_DC 50 ms PEC (mOhm)
0.2892	18509.00	3.9930	3.9930	0.8230	27.27	1.31	1.500			
0.2917	18668.67	3.9900	3.9900	0.8361	27.27	1.31	1.500			
0.2942	18828.60	3.9870	3.9870	0.8365	27.26	1.30	1.500			
0.2967	18989.88	3.9840	3.9841	0.8390	27.26	1.30	1.500			
0.2992	19151.75	3.9810	3.9810	0.8425	27.25	1.29	1.500			
0.3018	19313.40	3.9780	3.9780	0.8387	27.25	1.29	1.500			
0.3043	19474.17	3.9750	3.9750	0.8431	27.24	1.28	1.500			
0.3068	19635.41	3.9720	3.9720	0.8469	27.24	1.28	1.500			
0.3094	19799.29	3.9690	3.9689	0.8517	27.23	1.27	1.500			
0.3119	19962.58	3.9660	3.9660	0.8553	27.23	1.27	1.500			
0.3145	20127.85	3.9630	3.9630	0.8607	27.22	1.26	1.500			
0.3171	20293.87	3.9600	3.9600	0.8632	27.22	1.26	1.500			
0.3197	20460.58	3.9570	3.9569	0.8670	27.21	1.25	1.500			
0.3223	20625.17	3.9540	3.9541	0.8690	27.21	1.25	1.500			
0.3249	20792.06	3.9510	3.9510	0.8724	27.20	1.24	1.500			
0.3275	20960.80	3.9480	3.9479	0.8778	27.20	1.24	1.500			
0.3302	21130.26	3.9450	3.9450	0.8780	27.19	1.23	1.500			
0.3328	21298.37	3.9420	3.9421	0.8852	27.19	1.23	1.500			
0.3355	21469.05	3.9390	3.9390	0.8944	27.18	1.22	1.500			
0.3381	21641.28	3.9360	3.9360	0.9006	27.17	1.21	1.500			
0.3408	21812.96	3.9330	3.9329	0.9062	27.17	1.21	1.500			
0.3436	21989.62	3.9300	3.9300	0.9120	27.16	1.20	1.500			
0.3464	22166.54	3.9270	3.9270	0.9192	27.16	1.20	1.500			
0.3491	22343.67	3.9240	3.9240	0.9214	27.15	1.19	1.500			
0.3519	22519.46	3.9210	3.9210	0.9208	27.14	1.18	1.500			
0.3546	22695.60	3.9180	3.9180	0.9257	27.14	1.18	1.500			
0.3574	22873.58	3.9150	3.9150	0.9351	27.13	1.17	1.500			
0.3602	23053.83	3.9120	3.9120	0.9406	27.12	1.16	1.500			
0.3631	23235.45	3.9090	3.9090	0.9527	27.12	1.16	1.500			
0.3659	23418.85	3.9060	3.9060	0.9605	27.11	1.15	1.500			
0.3688	23605.12	3.9030	3.9030	0.9689	27.10	1.14	1.500			
0.3717	23791.82	3.9000	3.9000	0.9780	27.09	1.13	1.500			
0.3747	23980.96	3.8970	3.8971	0.9846	27.08	1.12	1.500			
0.3776	24169.02	3.8940	3.8940	0.9968	27.08	1.12	1.500			
0.3807	24363.05	3.8910	3.8909	1.0049	27.07	1.11	1.500			
0.3837	24556.16	3.8880	3.8880	1.0090	27.06	1.10	1.500			
0.3867	24749.95	3.8850	3.8849	1.0207	27.05	1.09	1.500			
0.3898	24946.81	3.8820	3.8821	1.0300	27.04	1.08	1.500			
0.3929	25143.83	3.8790	3.8790	1.0406	27.03	1.07	1.500			
0.3960	25345.66	3.8760	3.8760	1.0509	27.03	1.07	1.500			
0.3992	25547.53	3.8730	3.8730	1.0592	27.02	1.06	1.500			
0.4024	25753.40	3.8700	3.8700	1.0798	27.01	1.05	1.500			
0.4057	25962.29	3.8670	3.8670	1.0876	27.00	1.04	1.500			
0.4089	26171.14	3.8640	3.8640	1.0996	27.00	1.04	1.500			
0.4122	26383.66	3.8610	3.8611	1.1119	26.99	1.03	1.500			
0.4156	26597.57	3.8580	3.8579	1.1289	26.98	1.02	1.500			
0.4190	26816.36	3.8550	3.8550	1.1455	26.97	1.01	1.500			
0.4225	27037.27	3.8520	3.8520	1.1588	26.96	1.00	1.500			
0.4259	27259.72	3.8490	3.8490	1.1763	26.95	0.99	1.500			
0.4295	27488.66	3.8460	3.8460	1.1906	26.94	0.98	1.500			
0.4331	27718.53	3.8430	3.8430	1.2088	26.93	0.97	1.500			
0.4368	27952.37	3.8400	3.8400	1.2265	26.92	0.96	1.500			
0.4404	28188.49	3.8370	3.8369	1.2473	26.91	0.95	1.500			
0.4442	28429.75	3.8340	3.8340	1.2710	26.90	0.94	1.500			
0.4481	28676.47	3.8310	3.8310	1.2905	26.88	0.92	1.500			
0.4520	28926.76	3.8280	3.8281	1.3107	26.87	0.91	1.500			
0.4560	29181.42	3.8250	3.8250	1.3284	26.85	0.89	1.500			
0.4600	29437.33	3.8220	3.8221	1.3514	26.84	0.88	1.500			
0.4640	29698.37	3.8190	3.8190	1.3731	26.83	0.87	1.500			
0.4682	29963.61	3.8160	3.8160	1.3907	26.81	0.85	1.500			
0.4724	30231.81	3.8130	3.8130	1.4135	26.80	0.84	1.500			
0.4767	30506.78	3.8100	3.8101	1.4306	26.78	0.82	1.500			
0.4810	30782.94	3.8070	3.8070	1.4592	26.77	0.81	1.500			
0.4854	31065.80	3.8040	3.8040	1.4889	26.76	0.80	1.500			
0.4899	31350.84	3.8010	3.8009	1.5165	26.74	0.78	1.500			
0.4945	31648.40	3.7980	3.7980	1.5438	26.73	0.77	1.500			
0.4992	31951.69	3.7950	3.7950	1.5705	26.71	0.75	1.500			
0.5040	32253.93	3.7920	3.7921	1.5920	26.70	0.74	1.500			
0.5088	32560.36	3.7890	3.7889	1.6262	26.68	0.72	1.500	0.346	0.490	
0.5137	32876.51	3.7860	3.7860	1.6467	26.67	0.71	1.500			
0.5187	33193.94	3.7830	3.7831	1.6652	26.65	0.69	1.500			
0.5238	33520.26	3.7800	3.7801	1.6663	26.63	0.67	1.500			
0.5287	33838.77	3.7770	3.7770	1.6615	26.62	0.66	1.500			
0.5337	34155.03	3.7740	3.7740	1.6640	26.60	0.64	1.500			
0.5387	34473.70	3.7710	3.7710	1.6702	26.59	0.63	1.500			
0.5437	34796.92	3.7680	3.7680	1.6820	26.57	0.61	1.500			
0.5488	35120.76	3.7650	3.7650	1.6890	26.56	0.60	1.500			
0.5538	35443.02	3.7620	3.7620	1.7004	26.54	0.58	1.500			
0.5589	35768.26	3.7590	3.7589	1.7129	26.53	0.57	1.500			
0.5640	36097.88	3.7560	3.7559	1.7305	26.51	0.55	1.500			
0.5693	36432.48	3.7530	3.7531	1.7561	26.50	0.54	1.500			
0.5746	36774.06	3.7500	3.7500	1.7701	26.48	0.52	1.500			
0.5799	37115.92	3.7470	3.7470	1.7946	26.46	0.50	1.500			
0.5853	37458.32	3.7440	3.7440	1.8223	26.45	0.49	1.500			
0.5908	37809.73	3.7410	3.7409	1.8641	26.43	0.47	1.500			
0.5964	38170.83	3.7380	3.7380	1.9040	26.41	0.45	1.500			
0.6022	38539.72	3.7350	3.7350	1.9607	26.40	0.44	1.500			
0.6081	38920.33	3.7320	3.7321	2.0141	26.38	0.42	1.500			
0.6143	39312.59	3.7290	3.7290	2.0602	26.36	0.40	1.500			
0.6206	39715.62	3.7260	3.7261	2.1279	26.35	0.39	1.500			
0.6270	40129.78	3.7230	3.7230	2.1609	26.33	0.37	1.500			
0.6335	40545.33	3.7200	3.7200	2.2146	26.31	0.35	1.500			
0.6402	40974.54	3.7170	3.7167	2.2617	26.29	0.33	1.500			
0.6471	41415.59	3.7140	3.7141	2.2928	26.27	0.31	1.500			
0.6541	41859.46	3.7110	3.7110	2.2790	26.26	0.30	1.500			
0.6610	42303.99	3.7080	3.7080	2.2002	26.24	0.28	1.500			
0.6675	42717.22	3.7050	3.7050	2.0841	26.23	0.27	1.500			
0.6736	43111.17	3.7020	3.7020	1.9632	26.21	0.25	1.500			
0.6792	43471.24	3.6990	3.6990	1.8244	26.20	0.24	1.500			
0.6844	43803.06	3.6960	3.6961	1.6902	26.19	0.23	1.500			
0.6893	44114.94	3.6930	3.6930	1.5948	26.18	0.22	1.500			
0.6939	44411.89	3.6900	3.6900	1.5175	26.17	0.21	1.500			
0.6983	44691.84	3.6870	3.6870	1.4507	26.16	0.20	1.500			
0.7025	44961.41	3.6840	3.6839	1.3960	26.15	0.19	1.500			
0.7066	45224.09	3.6810	3.6810	1.3525	26.14	0.18	1.500			
0.7106	45475.80	3.6780	3.6781	1.3167	26.13	0.17	1.500			
0.7144	45723.81	3.6750	3.6749	1.2892	26.12	0.16	1.500			
0.7182	45966.49	3.6720	3.6720	1.2815	26.11	0.15	1.500			
0.7220	46208.63	3.6690	3.6690	1.2660	26.10	0.14	1.500			
0.7258	46451.32	3.6660	3.6660	1.2562	26.10	0.14	1.500			
0.7296	46693.39	3.6630	3.6630	1.2563	26.09	0.13	1.500			
0.7333	46934.21	3.6600	3.6601	1.2515	26.08	0.12	1.500			
0.7371	47173.81	3.6570	3.6569	1.2440	26.07	0.11	1.500			
0.7408	47411.87	3.6540	3.6539	1.2335	26.06	0.10	1.500			
0.7445	47647.36	3.6510	3.6510	1.2207	26.05	0.09	1.500			
0.7482	47883.24	3.6480	3.6480	1.2186	26.04	0.08	1.500			
0.7518	48116.63	3.6450	3.6450	1.2024	26.03	0.07	1.500			
0.7554	48344.12	3.6420	3.6420	1.1880	26.02	0.06	1.500			
0.7589	48570.29	3.6390	3.6390	1.1805	26.02	0.06	1.500			
0.7624	48796.19	3.6360	3.6360	1.1745	26.01	0.05	1.500			
0.7660	49021.58	3.6330	3.6329	1.1644	26.00	0.04	1.500			
0.7694	49244.39	3.6300	3.6300	1.1538	25.99	0.03	1.500			
0.7729	49465.92	3.6270	3.6270	1.1407	25.99	0.03	1.500			
0.7763	49684.82	3.6240	3.6240	1.1287	25.98	0.02	1.500			
0.7797	49900.61	3.6210	3.6210	1.1051	25.98	0.02	1.500			
0.7830	50110.80	3.6180	3.6180	1.0853	25.97	0.01	1.500			
0.7862	50318.77	3.6150	3.6150	1.0614	25.97	0.01	1.500			
0.7894	50521.18	3.6120	3.6120	1.0404	25.96	0.00	1.500			
0.7925	50717.87	3.6090	3.6091	1.0136	25.96	0.00	1.500			
0.7955	50910.92	3.6060	3.6060	0.9859	25.96	0.00	1.500			
0.7984	51096.83	3.6030	3.6029	0.9569	25.96	0.00	1.500			
0.8012	51279.42	3.6000	3.6000	0.9276	25.96	0.00	1.500			
0.8040	51456.90	3.5970	3.5969	0.8888	25.96	0.00	1.500			
0.8066	51625.53	3.5940	3.5939	0.8397	25.96	0.00	1.500			
0.8092	51786.27	3.5910	3.5910	0.7769	25.96	0.00	1.500			
0.8114	51931.58	3.5880	3.5881	0.7068	25.96	0.00	1.500			
0.8135	52063.68	3.5850	3.5850	0.6308	25.96	0.00	1.500			
0.8152	52175.47	3.5820	3.5820	0.5467	25.96	0.00	1.500			
0.8167	52270.64	3.5790	3.5790	0.4654	25.96	0.00	1.500			
0.8179	52348.50	3.5760	3.5760	0.3997	25.96	0.00	1.500			
0.8190	52414.72	3.5730	3.5730	0.3400	25.96	0.00	1.500			
0.8199	52473.48	3.5700	3.5699	0.2896	25.96	0.00	1.500			
0.8207	52522.62	3.5670	3.5669	0.2536	25.96	0.00	1.500			
0.8213	52565.55	3.5640	3.5641	0.2229	25.96	0.00	1.500			
0.8219	52604.59	3.5610	3.5611	0.1994	25.96	0.00	1.500			
0.8225	52640.08	3.5580	3.5579	0.1770	25.96	0.00	1.500			
0.8230	52671.00	3.5550	3.5550	0.1587	25.96	0.00	1.500			
0.8234	52699.19	3.5520	3.5520	0.1407	25.96	0.00	1.500			
0.8238	52724.35	3.5490	3.5489	0.1248	25.96	0.00	1.500			
0.8242	52746.86	3.5460	3.5460	0.1097	25.96	0.00	1.500			
0.8245	52766.21	3.5430	3.5430	0.0944	25.96	0.00	1.500			
0.8247	52783.03	3.5400	3.5403	0.0798	25.96	0.00	1.500			
0.8250	52796.91	3.5370	3.5373	0.0649	25.96	0.00	1.500			
0.8251	52808.40	3.5340	3.5344	0.0488	25.96	0.00	1.500			
0.8253	52816.22	3.5310	3.5318	0.0327	25.96	0.00	1.500			
