Ah_balance (normalized)	Ah_balance (mAh)	Voltage - fit (V)	Voltage -  interpolate (V)	dQ/dV (1/V)	Temperature (°C)	Temperature - diff (°C)	Current (C)	R_DC 0ms (mOhm)	R_DC 50ms (mOhm)	R_DC 50 ms PEC (mOhm)
0.1869	11963.02	3.9270	3.9269	-0.0963	25.87	-0.01	-1.500			
0.1873	11985.76	3.9240	3.9238	-0.1268	25.87	-0.01	-1.500			
0.1877	12012.87	3.9210	3.9210	-0.1519	25.88	-0.00	-1.500			
0.1882	12044.41	3.9180	3.9180	-0.1766	25.88	-0.00	-1.500			
0.1888	12080.74	3.9150	3.9152	-0.2002	25.88	-0.00	-1.500			
0.1894	12122.57	3.9120	3.9119	-0.2220	25.88	-0.00	-1.500			
0.1901	12167.62	3.9090	3.9090	-0.2422	25.88	-0.00	-1.500			
0.1909	12215.38	3.9060	3.9061	-0.2643	25.88	-0.00	-1.500			
0.1917	12268.06	3.9030	3.9030	-0.2843	25.88	-0.00	-1.500			
0.1926	12325.01	3.9000	3.9000	-0.3039	25.88	-0.00	-1.500			
0.1935	12384.92	3.8970	3.8969	-0.3244	25.88	-0.00	-1.500			
0.1945	12449.16	3.8940	3.8942	-0.3449	25.88	0.00	-1.500			
0.1956	12517.82	3.8910	3.8909	-0.3644	25.88	0.00	-1.500			
0.1967	12589.64	3.8880	3.8880	-0.3849	25.88	0.00	-1.500			
0.1979	12665.14	3.8850	3.8850	-0.4044	25.88	0.00	-1.500			
0.1991	12745.14	3.8820	3.8820	-0.4234	25.88	0.00	-1.500			
0.2004	12828.42	3.8790	3.8790	-0.4411	25.89	0.01	-1.500			
0.2018	12915.08	3.8760	3.8760	-0.4555	25.89	0.01	-1.500			
0.2032	13004.38	3.8730	3.8729	-0.4711	25.89	0.01	-1.500			
0.2046	13096.79	3.8700	3.8700	-0.4855	25.89	0.01	-1.500			
0.2061	13191.06	3.8670	3.8670	-0.4968	25.89	0.01	-1.500			
0.2076	13288.30	3.8640	3.8640	-0.5073	25.89	0.01	-1.500			
0.2092	13387.05	3.8610	3.8610	-0.5173	25.89	0.01	-1.500			
0.2107	13487.29	3.8580	3.8580	-0.5265	25.89	0.01	-1.500			
0.2123	13588.88	3.8550	3.8550	-0.5380	25.90	0.02	-1.500			
0.2139	13692.66	3.8520	3.8520	-0.5461	25.90	0.02	-1.500			
0.2156	13798.78	3.8490	3.8490	-0.5530	25.90	0.02	-1.500			
0.2173	13906.41	3.8460	3.8460	-0.5613	25.90	0.02	-1.500			
0.2190	14014.97	3.8430	3.8431	-0.5690	25.90	0.02	-1.500			
0.2207	14125.39	3.8400	3.8399	-0.5741	25.91	0.03	-1.500			
0.2224	14236.52	3.8370	3.8370	-0.5782	25.91	0.03	-1.500			
0.2242	14347.46	3.8340	3.8340	-0.5815	25.91	0.03	-1.500			
0.2259	14460.39	3.8310	3.8310	-0.5880	25.92	0.04	-1.500			
0.2277	14573.81	3.8280	3.8281	-0.5924	25.92	0.04	-1.500			
0.2295	14687.38	3.8250	3.8249	-0.5956	25.93	0.05	-1.500			
0.2313	14802.00	3.8220	3.8220	-0.5989	25.93	0.05	-1.500			
0.2331	14917.65	3.8190	3.8190	-0.6031	25.93	0.05	-1.500			
0.2349	15033.69	3.8160	3.8160	-0.6051	25.94	0.06	-1.500			
0.2367	15149.45	3.8130	3.8130	-0.6115	25.94	0.06	-1.500			
0.2386	15268.02	3.8100	3.8099	-0.6141	25.95	0.07	-1.500			
0.2404	15386.48	3.8070	3.8070	-0.6178	25.95	0.07	-1.500			
0.2423	15506.02	3.8040	3.8039	-0.6201	25.96	0.08	-1.500			
0.2442	15626.22	3.8010	3.8011	-0.6224	25.96	0.08	-1.500			
0.2460	15745.44	3.7980	3.7979	-0.6239	25.97	0.09	-1.500			
0.2479	15864.94	3.7950	3.7950	-0.6246	25.97	0.09	-1.500			
0.2497	15983.29	3.7920	3.7920	-0.6226	25.98	0.10	-1.500			
0.2516	16104.52	3.7890	3.7890	-0.6279	25.98	0.10	-1.500			
0.2535	16225.08	3.7860	3.7861	-0.6291	25.99	0.11	-1.500			
0.2554	16345.71	3.7830	3.7830	-0.6338	25.99	0.11	-1.500			
0.2573	16468.34	3.7800	3.7800	-0.6370	26.00	0.12	-1.500			
0.2592	16590.24	3.7770	3.7769	-0.6420	26.00	0.12	-1.500			
0.2612	16714.24	3.7740	3.7740	-0.6457	26.01	0.13	-1.500			
0.2631	16839.24	3.7710	3.7711	-0.6484	26.01	0.13	-1.500			
0.2651	16964.81	3.7680	3.7678	-0.6530	26.02	0.14	-1.500			
0.2670	17089.97	3.7650	3.7650	-0.6550	26.03	0.15	-1.500			
0.2690	17214.18	3.7620	3.7620	-0.6577	26.03	0.15	-1.500			
0.2710	17341.49	3.7590	3.7591	-0.6626	26.04	0.16	-1.500			
0.2730	17468.88	3.7560	3.7559	-0.6669	26.04	0.16	-1.500			
0.2750	17598.79	3.7530	3.7531	-0.6717	26.05	0.17	-1.500			
0.2770	17728.16	3.7500	3.7500	-0.6775	26.05	0.17	-1.500			
0.2790	17857.82	3.7470	3.7470	-0.6822	26.06	0.18	-1.500			
0.2811	17989.62	3.7440	3.7440	-0.6839	26.07	0.19	-1.500			
0.2831	18120.45	3.7410	3.7410	-0.6914	26.07	0.19	-1.500			
0.2852	18254.02	3.7380	3.7380	-0.7009	26.08	0.20	-1.500			
0.2873	18388.93	3.7350	3.7350	-0.7081	26.08	0.20	-1.500			
0.2895	18527.75	3.7320	3.7319	-0.7122	26.09	0.21	-1.500			
0.2916	18664.61	3.7290	3.7291	-0.7130	26.09	0.21	-1.500			
0.2938	18802.04	3.7260	3.7262	-0.7193	26.10	0.22	-1.500			
0.2959	18940.66	3.7230	3.7230	-0.7249	26.11	0.23	-1.500			
0.2981	19077.64	3.7200	3.7199	-0.7278	26.11	0.23	-1.500			
0.3003	19218.25	3.7170	3.7171	-0.7363	26.12	0.24	-1.500			
0.3025	19361.36	3.7140	3.7139	-0.7452	26.13	0.25	-1.500			
0.3048	19506.47	3.7110	3.7110	-0.7530	26.14	0.26	-1.500			
0.3070	19651.16	3.7080	3.7080	-0.7599	26.14	0.26	-1.500			
0.3093	19797.00	3.7050	3.7050	-0.7652	26.15	0.27	-1.500			
0.3116	19944.35	3.7020	3.7020	-0.7755	26.16	0.28	-1.500			
0.3140	20094.86	3.6990	3.6990	-0.7808	26.17	0.29	-1.500			
0.3164	20246.57	3.6960	3.6960	-0.7883	26.17	0.29	-1.500			
0.3187	20397.98	3.6930	3.6932	-0.7953	26.18	0.30	-1.500			
0.3211	20551.66	3.6900	3.6899	-0.8017	26.19	0.31	-1.500			
0.3235	20705.00	3.6870	3.6870	-0.8077	26.19	0.31	-1.500			
0.3259	20859.95	3.6840	3.6840	-0.8140	26.19	0.31	-1.500			
0.3284	21017.94	3.6810	3.6811	-0.8236	26.20	0.32	-1.500			
0.3309	21177.38	3.6780	3.6780	-0.8316	26.20	0.32	-1.500			
0.3334	21336.25	3.6750	3.6751	-0.8397	26.21	0.33	-1.500			
0.3359	21497.26	3.6720	3.6720	-0.8513	26.21	0.33	-1.500			
0.3385	21662.19	3.6690	3.6690	-0.8601	26.22	0.34	-1.500			
0.3411	21828.81	3.6660	3.6659	-0.8685	26.23	0.35	-1.500			
0.3437	21997.41	3.6630	3.6631	-0.8780	26.23	0.35	-1.500			
0.3463	22166.28	3.6600	3.6600	-0.8880	26.24	0.36	-1.500			
0.3490	22337.41	3.6570	3.6570	-0.8967	26.24	0.36	-1.500			
0.3517	22509.64	3.6540	3.6540	-0.9065	26.25	0.37	-1.500			
0.3544	22683.78	3.6510	3.6510	-0.9124	26.25	0.37	-1.500			
0.3572	22861.45	3.6480	3.6481	-0.9235	26.26	0.38	-1.500			
0.3600	23040.07	3.6450	3.6450	-0.9349	26.26	0.38	-1.500			
0.3628	23219.97	3.6420	3.6420	-0.9423	26.27	0.39	-1.500			
0.3656	23401.54	3.6390	3.6390	-0.9456	26.27	0.39	-1.500			
0.3685	23583.85	3.6360	3.6361	-0.9564	26.28	0.40	-1.500			
0.3714	23767.38	3.6330	3.6330	-0.9670	26.28	0.40	-1.500			
0.3743	23954.12	3.6300	3.6300	-0.9835	26.29	0.41	-1.500			
0.3772	24142.83	3.6270	3.6270	-0.9966	26.29	0.41	-1.500			
0.3802	24335.29	3.6240	3.6239	-1.0146	26.30	0.42	-1.500			
0.3833	24533.49	3.6210	3.6211	-1.0244	26.30	0.42	-1.500			
0.3865	24733.67	3.6180	3.6180	-1.0389	26.31	0.43	-1.500			
0.3896	24932.31	3.6150	3.6150	-1.0474	26.31	0.43	-1.500			
0.3927	25134.36	3.6120	3.6119	-1.0584	26.32	0.44	-1.500			
0.3959	25337.04	3.6090	3.6090	-1.0657	26.32	0.44	-1.500			
0.3991	25542.73	3.6060	3.6060	-1.0793	26.33	0.45	-1.500			
0.4024	25750.88	3.6030	3.6030	-1.0910	26.33	0.45	-1.500			
0.4057	25962.03	3.6000	3.6000	-1.1074	26.34	0.46	-1.500			
0.4090	26174.75	3.5970	3.5970	-1.1209	26.34	0.46	-1.500			
0.4123	26390.36	3.5940	3.5940	-1.1382	26.35	0.47	-1.500			
0.4158	26610.68	3.5910	3.5910	-1.1574	26.36	0.48	-1.500			
0.4193	26835.73	3.5880	3.5880	-1.1746	26.36	0.48	-1.500			
0.4229	27064.57	3.5850	3.5850	-1.1881	26.37	0.49	-1.500			
0.4265	27293.31	3.5820	3.5821	-1.2056	26.37	0.49	-1.500			
0.4301	27524.26	3.5790	3.5790	-1.2217	26.38	0.50	-1.500			
0.4338	27760.97	3.5760	3.5760	-1.2368	26.38	0.50	-1.500			
0.4375	27999.52	3.5730	3.5729	-1.2548	26.39	0.51	-1.500			
0.4413	28242.94	3.5700	3.5701	-1.2724	26.40	0.52	-1.500			
0.4451	28489.40	3.5670	3.5671	-1.2913	26.40	0.52	-1.500			
0.4490	28738.59	3.5640	3.5639	-1.3128	26.41	0.53	-1.500			
0.4530	28991.01	3.5610	3.5610	-1.3293	26.42	0.54	-1.500			
0.4570	29247.06	3.5580	3.5580	-1.3509	26.42	0.54	-1.500			
0.4611	29510.86	3.5550	3.5549	-1.3673	26.43	0.55	-1.500			
0.4653	29776.60	3.5520	3.5520	-1.3795	26.43	0.55	-1.500			
0.4694	30042.47	3.5490	3.5491	-1.3994	26.44	0.56	-1.500			
0.4736	30311.64	3.5460	3.5459	-1.4164	26.45	0.57	-1.500			
0.4779	30584.19	3.5430	3.5430	-1.4357	26.45	0.57	-1.500			
0.4822	30859.71	3.5400	3.5401	-1.4534	26.46	0.58	-1.500			
0.4866	31144.58	3.5370	3.5370	-1.4760	26.47	0.59	-1.500			
0.4911	31429.60	3.5340	3.5340	-1.4958	26.48	0.60	-1.500			
0.4956	31718.90	3.5310	3.5310	-1.5121	26.48	0.60	-1.500			
0.5001	32009.55	3.5280	3.5280	-1.5223	26.49	0.61	-1.500			
0.5048	32304.88	3.5250	3.5250	-1.5382	26.50	0.62	-1.500	0.375	0.554	
0.5094	32602.84	3.5220	3.5221	-1.5477	26.51	0.63	-1.500			
0.5141	32901.65	3.5190	3.5190	-1.5574	26.51	0.63	-1.500			
0.5188	33201.18	3.5160	3.5162	-1.5678	26.52	0.64	-1.500			
0.5234	33498.72	3.5130	3.5129	-1.5775	26.53	0.65	-1.500			
0.5282	33803.75	3.5100	3.5100	-1.6031	26.54	0.66	-1.500			
0.5330	34113.67	3.5070	3.5069	-1.6167	26.55	0.67	-1.500			
0.5380	34429.34	3.5040	3.5039	-1.6371	26.57	0.69	-1.500			
0.5429	34745.31	3.5010	3.5012	-1.6416	26.58	0.70	-1.500			
0.5479	35064.34	3.4980	3.4979	-1.6408	26.59	0.71	-1.500			
0.5528	35377.82	3.4950	3.4949	-1.6397	26.60	0.72	-1.500			
0.5576	35688.84	3.4920	3.4921	-1.6281	26.61	0.73	-1.500			
0.5626	36003.92	3.4890	3.4890	-1.6372	26.63	0.75	-1.500			
0.5675	36317.96	3.4860	3.4859	-1.6277	26.64	0.76	-1.500			
0.5723	36628.92	3.4830	3.4830	-1.6211	26.65	0.77	-1.500			
0.5772	36938.78	3.4800	3.4800	-1.6198	26.66	0.78	-1.500			
0.5821	37252.14	3.4770	3.4770	-1.6065	26.67	0.79	-1.500			
0.5869	37560.01	3.4740	3.4740	-1.5928	26.68	0.80	-1.500			
0.5917	37865.70	3.4710	3.4710	-1.5835	26.70	0.82	-1.500			
0.5964	38168.04	3.4680	3.4681	-1.5665	26.71	0.83	-1.500			
0.6010	38466.69	3.4650	3.4649	-1.5556	26.72	0.84	-1.500			
0.6057	38762.70	3.4620	3.4620	-1.5396	26.74	0.86	-1.500			
0.6103	39056.12	3.4590	3.4590	-1.5239	26.75	0.87	-1.500			
0.6148	39348.97	3.4560	3.4560	-1.5197	26.77	0.89	-1.500			
0.6194	39640.34	3.4530	3.4531	-1.5055	26.78	0.90	-1.500			
0.6239	39928.97	3.4500	3.4500	-1.4892	26.80	0.92	-1.500			
0.6284	40214.61	3.4470	3.4470	-1.4758	26.82	0.94	-1.500			
0.6328	40498.01	3.4440	3.4440	-1.4494	26.83	0.95	-1.500			
0.6371	40774.66	3.4410	3.4410	-1.4304	26.85	0.97	-1.500			
0.6414	41047.06	3.4380	3.4380	-1.4040	26.86	0.98	-1.500			
0.6455	41312.36	3.4350	3.4350	-1.3771	26.88	1.00	-1.500			
0.6496	41573.68	3.4320	3.4320	-1.3623	26.89	1.01	-1.500			
0.6536	41832.72	3.4290	3.4290	-1.3445	26.91	1.03	-1.500			
0.6576	42089.31	3.4260	3.4259	-1.3267	26.93	1.05	-1.500			
0.6616	42344.77	3.4230	3.4230	-1.3098	26.94	1.06	-1.500			
0.6655	42594.86	3.4200	3.4201	-1.2850	26.96	1.08	-1.500			
0.6694	42841.08	3.4170	3.4170	-1.2645	26.97	1.09	-1.500			
0.6731	43081.33	3.4140	3.4140	-1.2403	26.99	1.11	-1.500			
0.6768	43315.68	3.4110	3.4110	-1.2164	27.01	1.13	-1.500			
0.6804	43546.70	3.4080	3.4081	-1.1928	27.03	1.15	-1.500			
0.6840	43776.62	3.4050	3.4049	-1.1671	27.05	1.17	-1.500			
0.6875	43998.07	3.4020	3.4019	-1.1329	27.06	1.18	-1.500			
0.6908	44213.94	3.3990	3.3990	-1.1031	27.08	1.20	-1.500			
0.6941	44421.59	3.3960	3.3960	-1.0714	27.09	1.21	-1.500			
0.6972	44623.78	3.3930	3.3930	-1.0380	27.11	1.23	-1.500			
0.7003	44818.16	3.3900	3.3900	-1.0078	27.12	1.24	-1.500			
0.7033	45009.36	3.3870	3.3871	-0.9829	27.14	1.26	-1.500			
0.7062	45197.84	3.3840	3.3839	-0.9576	27.15	1.27	-1.500			
0.7090	45377.50	3.3810	3.3810	-0.9285	27.17	1.29	-1.500			
0.7118	45552.68	3.3780	3.3781	-0.9000	27.18	1.30	-1.500			
0.7144	45722.34	3.3750	3.3750	-0.8756	27.19	1.31	-1.500			
0.7170	45888.60	3.3720	3.3720	-0.8533	27.20	1.32	-1.500			
0.7195	46050.21	3.3690	3.3689	-0.8264	27.20	1.32	-1.500			
0.7220	46206.44	3.3660	3.3660	-0.8031	27.22	1.34	-1.500			
0.7244	46359.25	3.3630	3.3630	-0.7791	27.23	1.35	-1.500			
0.7267	46505.74	3.3600	3.3600	-0.7563	27.24	1.36	-1.500			
0.7289	46648.70	3.3570	3.3569	-0.7330	27.25	1.37	-1.500			
0.7310	46785.09	3.3540	3.3540	-0.7105	27.26	1.38	-1.500			
0.7331	46919.18	3.3510	3.3511	-0.6945	27.27	1.39	-1.500			
0.7352	47051.84	3.3480	3.3479	-0.6789	27.28	1.40	-1.500			
0.7372	47180.36	3.3450	3.3449	-0.6587	27.29	1.41	-1.500			
0.7391	47304.99	3.3420	3.3420	-0.6438	27.30	1.42	-1.500			
0.7410	47426.45	3.3390	3.3391	-0.6268	27.30	1.42	-1.500			
0.7429	47546.51	3.3360	3.3359	-0.6110	27.31	1.43	-1.500			
0.7447	47662.10	3.3330	3.3329	-0.5908	27.32	1.44	-1.500			
0.7465	47773.35	3.3300	3.3301	-0.5745	27.33	1.45	-1.500			
0.7482	47882.68	3.3270	3.3271	-0.5601	27.34	1.46	-1.500			
0.7498	47987.75	3.3240	3.3239	-0.5480	27.34	1.46	-1.500			
0.7514	48090.06	3.3210	3.3211	-0.5325	27.35	1.47	-1.500			
0.7530	48191.78	3.3180	3.3179	-0.5221	27.36	1.48	-1.500			
0.7546	48291.40	3.3150	3.3151	-0.5100	27.37	1.49	-1.500			
0.7561	48389.01	3.3120	3.3120	-0.5006	27.38	1.50	-1.500			
0.7576	48483.65	3.3090	3.3090	-0.4863	27.39	1.51	-1.500			
0.7590	48576.14	3.3060	3.3060	-0.4735	27.39	1.51	-1.500			
0.7604	48665.06	3.3030	3.3031	-0.4619	27.40	1.52	-1.500			
0.7618	48753.29	3.3000	3.3000	-0.4505	27.41	1.53	-1.500			
0.7631	48838.51	3.2970	3.2969	-0.4390	27.41	1.53	-1.500			
0.7644	48921.43	3.2940	3.2940	-0.4288	27.42	1.54	-1.500			
0.7657	49001.93	3.2910	3.2910	-0.4184	27.42	1.54	-1.500			
0.7669	49081.67	3.2880	3.2880	-0.4112	27.43	1.55	-1.500			
0.7681	49159.83	3.2850	3.2850	-0.4015	27.43	1.55	-1.500			
0.7693	49236.36	3.2820	3.2819	-0.3905	27.44	1.56	-1.500			
0.7705	49311.01	3.2790	3.2790	-0.3823	27.44	1.56	-1.500			
0.7716	49383.24	3.2760	3.2761	-0.3715	27.45	1.57	-1.500			
0.7727	49452.96	3.2730	3.2730	-0.3615	27.46	1.58	-1.500			
0.7738	49520.82	3.2700	3.2700	-0.3527	27.47	1.59	-1.500			
0.7748	49587.57	3.2670	3.2670	-0.3460	27.47	1.59	-1.500			
0.7758	49654.12	3.2640	3.2639	-0.3391	27.48	1.60	-1.500			
0.7769	49718.43	3.2610	3.2610	-0.3325	27.49	1.61	-1.500			
0.7778	49781.28	3.2580	3.2580	-0.3252	27.49	1.61	-1.500			
0.7788	49843.24	3.2550	3.2550	-0.3193	27.50	1.62	-1.500			
0.7797	49903.39	3.2520	3.2519	-0.3121	27.51	1.63	-1.500			
0.7807	49962.75	3.2490	3.2490	-0.3064	27.51	1.63	-1.500			
0.7816	50021.31	3.2460	3.2460	-0.3009	27.52	1.64	-1.500			
0.7825	50078.65	3.2430	3.2429	-0.2957	27.53	1.65	-1.500			
0.7833	50133.90	3.2400	3.2402	-0.2889	27.53	1.65	-1.500			
0.7842	50189.09	3.2370	3.2369	-0.2843	27.54	1.66	-1.500			
0.7851	50243.25	3.2340	3.2339	-0.2789	27.54	1.66	-1.500			
0.7859	50296.40	3.2310	3.2311	-0.2740	27.55	1.67	-1.500			
0.7867	50348.69	3.2280	3.2280	-0.2696	27.55	1.67	-1.500			
0.7875	50399.92	3.2250	3.2250	-0.2655	27.56	1.68	-1.500			
0.7883	50450.49	3.2220	3.2219	-0.2608	27.57	1.69	-1.500			
0.7891	50499.44	3.2190	3.2190	-0.2563	27.57	1.69	-1.500			
0.7898	50548.36	3.2160	3.2160	-0.2518	27.58	1.70	-1.500			
0.7906	50596.54	3.2130	3.2130	-0.2494	27.58	1.70	-1.500			
0.7913	50644.12	3.2100	3.2100	-0.2457	27.59	1.71	-1.500			
0.7920	50690.93	3.2070	3.2071	-0.2419	27.59	1.71	-1.500			
0.7928	50737.19	3.2040	3.2039	-0.2386	27.60	1.72	-1.500			
0.7935	50782.51	3.2010	3.2011	-0.2345	27.60	1.72	-1.500			
0.7942	50827.07	3.1980	3.1980	-0.2319	27.61	1.73	-1.500			
0.7949	50871.14	3.1950	3.1951	-0.2290	27.61	1.73	-1.500			
0.7955	50915.10	3.1920	3.1920	-0.2265	27.62	1.74	-1.500			
0.7962	50957.82	3.1890	3.1889	-0.2231	27.62	1.74	-1.500			
0.7969	51000.74	3.1860	3.1860	-0.2203	27.63	1.75	-1.500			
0.7975	51042.69	3.1830	3.1830	-0.2180	27.63	1.75	-1.500			
0.7982	51084.36	3.1800	3.1801	-0.2154	27.64	1.76	-1.500			
0.7988	51125.59	3.1770	3.1769	-0.2112	27.64	1.76	-1.500			
0.7995	51165.38	3.1740	3.1740	-0.2087	27.65	1.77	-1.500			
0.8001	51205.13	3.1710	3.1710	-0.2062	27.65	1.77	-1.500			
0.8007	51244.45	3.1680	3.1680	-0.2039	27.66	1.78	-1.500			
0.8013	51283.32	3.1650	3.1650	-0.2023	27.66	1.78	-1.500			
0.8019	51322.11	3.1620	3.1620	-0.1996	27.67	1.79	-1.500			
0.8025	51359.98	3.1590	3.1592	-0.1974	27.67	1.79	-1.500			
0.8031	51397.70	3.1560	3.1560	-0.1956	27.68	1.80	-1.500			
0.8037	51435.44	3.1530	3.1530	-0.1947	27.68	1.80	-1.500			
0.8043	51472.33	3.1500	3.1499	-0.1919	27.69	1.81	-1.500			
0.8048	51509.01	3.1470	3.1470	-0.1906	27.69	1.81	-1.500			
0.8054	51545.53	3.1440	3.1441	-0.1887	27.70	1.82	-1.500			
0.8060	51581.53	3.1410	3.1410	-0.1869	27.70	1.82	-1.500			
0.8065	51617.48	3.1380	3.1379	-0.1857	27.71	1.83	-1.500			
0.8071	51652.87	3.1350	3.1351	-0.1832	27.72	1.84	-1.500			
0.8076	51687.90	3.1320	3.1320	-0.1809	27.72	1.84	-1.500			
0.8082	51722.44	3.1290	3.1289	-0.1788	27.73	1.85	-1.500			
0.8087	51756.73	3.1260	3.1261	-0.1774	27.73	1.85	-1.500			
0.8092	51790.16	3.1230	3.1231	-0.1757	27.74	1.86	-1.500			
0.8097	51823.68	3.1200	3.1200	-0.1745	27.74	1.86	-1.500			
0.8103	51857.11	3.1170	3.1169	-0.1737	27.75	1.87	-1.500			
0.8108	51890.26	3.1140	3.1140	-0.1721	27.75	1.87	-1.500			
0.8113	51923.51	3.1110	3.1110	-0.1713	27.76	1.88	-1.500			
0.8118	51956.29	3.1080	3.1081	-0.1704	27.77	1.89	-1.500			
0.8123	51988.87	3.1050	3.1050	-0.1689	27.77	1.89	-1.500			
0.8128	52021.12	3.1020	3.1020	-0.1672	27.78	1.90	-1.500			
0.8133	52053.02	3.0990	3.0989	-0.1653	27.78	1.90	-1.500			
0.8138	52084.66	3.0960	3.0961	-0.1638	27.79	1.91	-1.500			
0.8143	52115.96	3.0930	3.0930	-0.1622	27.79	1.91	-1.500			
0.8148	52147.03	3.0900	3.0900	-0.1611	27.80	1.92	-1.500			
0.8153	52177.68	3.0870	3.0870	-0.1597	27.80	1.92	-1.500			
0.8157	52207.87	3.0840	3.0840	-0.1584	27.81	1.93	-1.500			
0.8162	52238.27	3.0810	3.0810	-0.1582	27.81	1.93	-1.500			
0.8167	52268.70	3.0780	3.0780	-0.1572	27.82	1.94	-1.500			
0.8172	52298.86	3.0750	3.0750	-0.1567	27.82	1.94	-1.500			
0.8176	52329.09	3.0720	3.0720	-0.1555	27.83	1.95	-1.500			
0.8181	52358.67	3.0690	3.0690	-0.1547	27.84	1.96	-1.500			
0.8186	52388.26	3.0660	3.0660	-0.1537	27.84	1.96	-1.500			
0.8190	52417.70	3.0630	3.0630	-0.1525	27.85	1.97	-1.500			
0.8195	52446.88	3.0600	3.0600	-0.1508	27.85	1.97	-1.500			
0.8199	52475.57	3.0570	3.0570	-0.1504	27.86	1.98	-1.500			
0.8204	52504.37	3.0540	3.0541	-0.1496	27.86	1.98	-1.500			
0.8208	52532.94	3.0510	3.0511	-0.1481	27.87	1.99	-1.500			
0.8213	52561.52	3.0480	3.0479	-0.1471	27.88	2.00	-1.500			
0.8217	52589.19	3.0450	3.0451	-0.1458	27.88	2.00	-1.500			
0.8221	52617.14	3.0420	3.0420	-0.1454	27.89	2.01	-1.500			
0.8226	52645.30	3.0390	3.0390	-0.1439	27.89	2.01	-1.500			
0.8230	52672.70	3.0360	3.0360	-0.1435	27.90	2.02	-1.500			
0.8234	52699.96	3.0330	3.0331	-0.1417	27.90	2.02	-1.500			
0.8239	52727.11	3.0300	3.0301	-0.1412	27.91	2.03	-1.500			
0.8243	52754.38	3.0270	3.0268	-0.1407	27.91	2.03	-1.500			
0.8247	52781.33	3.0240	3.0241	-0.1398	27.92	2.04	-1.500			
0.8251	52807.80	3.0210	3.0210	-0.1385	27.92	2.04	-1.500			
0.8255	52834.36	3.0180	3.0180	-0.1382	27.93	2.05	-1.500			
0.8260	52861.01	3.0150	3.0150	-0.1385	27.93	2.05	-1.500			
0.8264	52887.08	3.0120	3.0121	-0.1378	27.94	2.06	-1.500			
0.8268	52913.66	3.0090	3.0089	-0.1384	27.94	2.06	-1.500			
0.8272	52940.28	3.0060	3.0060	-0.1389	27.95	2.07	-1.500			
0.8276	52967.07	3.0030	3.0030	-0.1414	27.96	2.08	-1.500			
