Ah_balance (normalized)	Ah_balance (mAh)	Voltage - fit (V)	Voltage -  interpolate (V)	dQ/dV (1/V)	Temperature (°C)	Temperature - diff (°C)	Current (C)	R_DC 0ms (mOhm)	R_DC 50ms (mOhm)	R_DC 50 ms PEC (mOhm)
0.2806	17958.54	3.9710	3.9710	0.8542	26.95	0.96	1.500			
0.2832	18125.15	3.9680	3.9680	0.8778	26.95	0.96	1.500			
0.2859	18295.83	3.9650	3.9649	0.8872	26.95	0.96	1.500			
0.2885	18466.49	3.9620	3.9620	0.8901	26.95	0.96	1.500			
0.2912	18638.11	3.9590	3.9591	0.8920	26.94	0.95	1.500			
0.2939	18809.82	3.9560	3.9560	0.8950	26.94	0.95	1.500			
0.2965	18978.98	3.9530	3.9530	0.8989	26.94	0.95	1.500			
0.2993	19152.48	3.9500	3.9499	0.9074	26.94	0.95	1.500			
0.3020	19327.02	3.9470	3.9470	0.9158	26.93	0.94	1.500			
0.3048	19505.06	3.9440	3.9440	0.9210	26.93	0.94	1.500			
0.3076	19684.41	3.9410	3.9411	0.9254	26.93	0.94	1.500			
0.3104	19863.98	3.9380	3.9380	0.9223	26.93	0.94	1.500			
0.3131	20039.35	3.9350	3.9350	0.9279	26.93	0.94	1.500			
0.3159	20216.80	3.9320	3.9321	0.9291	26.92	0.93	1.500			
0.3187	20393.98	3.9290	3.9289	0.9345	26.92	0.93	1.500			
0.3215	20573.65	3.9260	3.9261	0.9399	26.92	0.93	1.500			
0.3243	20756.14	3.9230	3.9230	0.9487	26.92	0.93	1.500			
0.3272	20937.79	3.9200	3.9200	0.9581	26.91	0.92	1.500			
0.3301	21123.96	3.9170	3.9170	0.9659	26.91	0.92	1.500			
0.3329	21308.22	3.9140	3.9140	0.9726	26.91	0.92	1.500			
0.3359	21497.14	3.9110	3.9110	0.9804	26.91	0.92	1.500			
0.3388	21685.71	3.9080	3.9080	0.9890	26.90	0.91	1.500			
0.3418	21876.97	3.9050	3.9050	0.9967	26.90	0.91	1.500			
0.3448	22068.52	3.9020	3.9020	1.0023	26.90	0.91	1.500			
0.3478	22260.92	3.8990	3.8990	1.0082	26.90	0.91	1.500			
0.3509	22455.06	3.8960	3.8960	1.0215	26.89	0.90	1.500			
0.3539	22650.53	3.8930	3.8930	1.0321	26.89	0.90	1.500			
0.3571	22851.35	3.8900	3.8900	1.0419	26.88	0.89	1.500			
0.3602	23051.89	3.8870	3.8870	1.0499	26.88	0.89	1.500			
0.3634	23256.01	3.8840	3.8841	1.0612	26.87	0.88	1.500			
0.3665	23459.07	3.8810	3.8810	1.0752	26.87	0.88	1.500			
0.3698	23665.59	3.8780	3.8780	1.0862	26.86	0.87	1.500			
0.3731	23875.30	3.8750	3.8750	1.0984	26.86	0.87	1.500			
0.3764	24088.12	3.8720	3.8720	1.1106	26.85	0.86	1.500			
0.3797	24303.58	3.8690	3.8691	1.1269	26.85	0.86	1.500			
0.3831	24521.07	3.8660	3.8660	1.1336	26.84	0.85	1.500			
0.3866	24739.58	3.8630	3.8630	1.1495	26.84	0.85	1.500			
0.3900	24959.74	3.8600	3.8600	1.1639	26.84	0.85	1.500			
0.3935	25183.07	3.8570	3.8570	1.1855	26.83	0.84	1.500			
0.3971	25413.54	3.8540	3.8541	1.2024	26.83	0.84	1.500			
0.4007	25647.99	3.8510	3.8510	1.2235	26.82	0.83	1.500			
0.4044	25884.42	3.8480	3.8480	1.2389	26.81	0.82	1.500			
0.4082	26124.74	3.8450	3.8450	1.2559	26.80	0.81	1.500			
0.4119	26363.68	3.8420	3.8421	1.2787	26.80	0.81	1.500			
0.4158	26609.95	3.8390	3.8390	1.3017	26.79	0.80	1.500			
0.4197	26862.11	3.8360	3.8359	1.3293	26.78	0.79	1.500			
0.4238	27121.00	3.8330	3.8330	1.3611	26.77	0.78	1.500			
0.4279	27385.35	3.8300	3.8301	1.3851	26.77	0.78	1.500			
0.4322	27657.84	3.8270	3.8270	1.4104	26.76	0.77	1.500			
0.4364	27927.85	3.8240	3.8240	1.4372	26.75	0.76	1.500			
0.4407	28204.54	3.8210	3.8211	1.4676	26.75	0.76	1.500			
0.4451	28488.64	3.8180	3.8180	1.5013	26.74	0.75	1.500			
0.4497	28779.68	3.8150	3.8150	1.5383	26.73	0.74	1.500			
0.4544	29079.83	3.8120	3.8120	1.5661	26.72	0.73	1.500			
0.4591	29382.40	3.8090	3.8091	1.6089	26.71	0.72	1.500			
0.4640	29694.13	3.8060	3.8060	1.6593	26.69	0.70	1.500			
0.4690	30013.89	3.8030	3.8028	1.7035	26.68	0.69	1.500			
0.4742	30345.76	3.8000	3.8000	1.7519	26.67	0.68	1.500			
0.4795	30687.69	3.7970	3.7971	1.8157	26.66	0.67	1.500			
0.4851	31043.54	3.7940	3.7940	1.8739	26.64	0.65	1.500			
0.4908	31408.08	3.7910	3.7910	1.9091	26.63	0.64	1.500			
0.4965	31778.51	3.7880	3.7881	1.9640	26.62	0.63	1.500			
0.5026	32164.84	3.7850	3.7850	2.0029	26.60	0.61	1.500			
0.5086	32549.50	3.7820	3.7820	2.0721	26.58	0.59	1.500			
0.5148	32947.97	3.7790	3.7791	2.1337	26.56	0.57	1.500			
0.5214	33367.80	3.7760	3.7759	2.2183	26.55	0.56	1.500			
0.5282	33804.69	3.7730	3.7730	2.1929	26.53	0.54	1.500			
0.5349	34231.94	3.7700	3.7701	2.2726	26.51	0.52	1.500			
0.5416	34662.65	3.7670	3.7670	2.2821	26.49	0.50	1.500			
0.5485	35101.75	3.7640	3.7641	2.3720	26.47	0.48	1.500			
0.5556	35560.57	3.7610	3.7610	2.4124	26.45	0.46	1.500			
0.5632	36044.37	3.7580	3.7582	2.4835	26.44	0.45	1.500	0.351	0.451	
0.5706	36519.89	3.7550	3.7548	2.4244	26.42	0.43	1.500			
0.5780	36991.55	3.7520	3.7521	2.3526	26.39	0.40	1.500			
0.5848	37428.12	3.7490	3.7490	2.3095	26.37	0.38	1.500			
0.5915	37854.59	3.7460	3.7460	2.2622	26.35	0.36	1.500			
0.5982	38287.77	3.7430	3.7431	2.2458	26.33	0.34	1.500			
0.6051	38729.35	3.7400	3.7400	2.1928	26.32	0.33	1.500			
0.6116	39143.08	3.7370	3.7371	2.2202	26.30	0.31	1.500			
0.6181	39561.55	3.7340	3.7338	2.1986	26.28	0.29	1.500			
0.6247	39983.97	3.7310	3.7311	2.2197	26.27	0.28	1.500			
0.6314	40409.01	3.7280	3.7281	2.2327	26.26	0.27	1.500			
0.6382	40846.96	3.7250	3.7250	2.2677	26.25	0.26	1.500			
0.6449	41273.74	3.7220	3.7219	2.2907	26.24	0.25	1.500			
0.6518	41715.71	3.7190	3.7191	2.3490	26.23	0.24	1.500			
0.6589	42171.69	3.7160	3.7160	2.4228	26.21	0.22	1.500			
0.6663	42643.82	3.7130	3.7130	2.4974	26.20	0.21	1.500			
0.6739	43130.66	3.7100	3.7099	2.5961	26.18	0.19	1.500			
0.6819	43640.01	3.7070	3.7070	2.6943	26.17	0.18	1.500			
0.6902	44170.79	3.7040	3.7040	2.7850	26.16	0.17	1.500			
0.6986	44708.65	3.7010	3.7010	2.8616	26.14	0.15	1.500			
0.7073	45267.93	3.6980	3.6980	2.9093	26.12	0.13	1.500			
0.7162	45835.72	3.6950	3.6950	2.9128	26.11	0.12	1.500			
0.7250	46397.28	3.6920	3.6920	2.8327	26.10	0.11	1.500			
0.7335	46943.38	3.6890	3.6890	2.6763	26.09	0.10	1.500			
0.7413	47442.98	3.6860	3.6860	2.4518	26.08	0.09	1.500			
0.7482	47886.80	3.6830	3.6831	2.2172	26.08	0.09	1.500			
0.7543	48276.28	3.6800	3.6800	1.9869	26.07	0.08	1.500			
0.7600	48639.33	3.6770	3.6770	1.8345	26.07	0.08	1.500			
0.7651	48967.58	3.6740	3.6740	1.6947	26.06	0.07	1.500			
0.7700	49278.34	3.6710	3.6709	1.5865	26.06	0.07	1.500			
0.7745	49570.14	3.6680	3.6681	1.4975	26.05	0.06	1.500			
0.7789	49847.89	3.6650	3.6650	1.4170	26.05	0.06	1.500			
0.7830	50109.89	3.6620	3.6619	1.3503	26.04	0.05	1.500			
0.7868	50358.04	3.6590	3.6590	1.2916	26.03	0.04	1.500			
0.7906	50597.10	3.6560	3.6560	1.2562	26.03	0.04	1.500			
0.7942	50831.93	3.6530	3.6529	1.2357	26.02	0.03	1.500			
0.7978	51061.52	3.6500	3.6501	1.2272	26.02	0.03	1.500			
0.8015	51296.15	3.6470	3.6470	1.2323	26.01	0.02	1.500			
0.8052	51532.47	3.6440	3.6440	1.2469	26.01	0.02	1.500			
0.8090	51773.66	3.6410	3.6410	1.2631	26.01	0.02	1.500			
0.8128	52016.53	3.6380	3.6380	1.2791	26.01	0.02	1.500			
0.8166	52264.99	3.6350	3.6349	1.2943	26.00	0.01	1.500			
0.8206	52515.38	3.6320	3.6320	1.3057	26.00	0.01	1.500			
0.8245	52768.98	3.6290	3.6290	1.3116	25.99	0.00	1.500			
0.8285	53022.90	3.6260	3.6260	1.3189	25.99	-0.00	1.500			
0.8324	53276.44	3.6230	3.6230	1.3137	25.98	-0.01	1.500			
0.8364	53527.84	3.6200	3.6200	1.3114	25.97	-0.02	1.500			
0.8403	53778.07	3.6170	3.6170	1.3090	25.97	-0.02	1.500			
0.8442	54028.74	3.6140	3.6139	1.3121	25.96	-0.03	1.500			
0.8481	54279.59	3.6110	3.6110	1.3183	25.96	-0.03	1.500			
0.8521	54535.95	3.6080	3.6080	1.3148	25.95	-0.04	1.500			
0.8561	54791.12	3.6050	3.6050	1.3074	25.95	-0.04	1.500			
0.8600	55042.51	3.6020	3.6020	1.3003	25.94	-0.05	1.500			
0.8640	55292.82	3.5990	3.5990	1.2891	25.94	-0.05	1.500			
0.8678	55538.74	3.5960	3.5959	1.2704	25.93	-0.06	1.500			
0.8716	55779.65	3.5930	3.5931	1.2552	25.93	-0.06	1.500			
0.8753	56017.82	3.5900	3.5901	1.2363	25.93	-0.06	1.500			
0.8790	56255.41	3.5870	3.5870	1.2292	25.93	-0.06	1.500			
0.8826	56487.81	3.5840	3.5839	1.2129	25.93	-0.06	1.500			
0.8862	56719.78	3.5810	3.5810	1.2192	25.93	-0.06	1.500			
0.8899	56950.66	3.5780	3.5780	1.2320	25.93	-0.06	1.500			
0.8936	57189.77	3.5750	3.5749	1.2414	25.93	-0.06	1.500			
0.8975	57441.31	3.5720	3.5719	1.2104	25.94	-0.05	1.500			
0.9013	57681.78	3.5690	3.5690	1.1510	25.95	-0.04	1.500			
0.9048	57907.80	3.5660	3.5662	1.0276	25.95	-0.04	1.500			
0.9079	58107.88	3.5630	3.5632	0.8973	25.96	-0.03	1.500			
0.9104	58262.56	3.5600	3.5600	0.7420	25.97	-0.02	1.500			
0.9122	58380.90	3.5570	3.5569	0.5830	25.97	-0.02	1.500			
0.9136	58467.28	3.5540	3.5540	0.4523	25.98	-0.01	1.500			
0.9147	58538.50	3.5510	3.5509	0.3695	25.98	-0.01	1.500			
0.9155	58594.82	3.5480	3.5479	0.2995	25.98	-0.01	1.500			
0.9163	58643.66	3.5450	3.5448	0.2533	25.98	-0.01	1.500			
0.9169	58684.45	3.5420	3.5420	0.2105	25.98	-0.01	1.500			
0.9175	58720.02	3.5390	3.5390	0.1843	25.98	-0.01	1.500			
0.9180	58751.08	3.5360	3.5360	0.1593	25.99	-0.00	1.500			
0.9184	58779.66	3.5330	3.5331	0.1395	25.99	-0.00	1.500			
0.9188	58804.66	3.5300	3.5299	0.1209	25.99	-0.00	1.500			
0.9191	58825.56	3.5270	3.5270	0.1022	25.99	-0.00	1.500			
0.9194	58843.80	3.5240	3.5241	0.0843	25.99	-0.00	1.500			
0.9197	58858.14	3.5210	3.5212	0.0662	25.99	-0.00	1.500			
0.9198	58869.11	3.5180	3.5185	0.0481	25.99	0.00	1.500			
