Ah_balance (normalized)	Ah_balance (mAh)	Voltage - fit (V)	Voltage -  interpolate (V)	dQ/dV (1/V)	Temperature (°C)	Temperature - diff (°C)	Current (C)	R_DC 0ms (mOhm)	R_DC 50ms (mOhm)	R_DC 50 ms PEC (mOhm)
0.2090	13376.03	3.9100	3.9100	-0.1408	25.56	0.00	-1.500			
0.2095	13406.02	3.9070	3.9070	-0.1709	25.56	0.00	-1.500			
0.2100	13441.35	3.9040	3.9041	-0.2012	25.56	0.00	-1.500			
0.2107	13483.22	3.9010	3.9009	-0.2315	25.56	0.00	-1.500			
0.2114	13531.05	3.8980	3.8980	-0.2608	25.56	0.00	-1.500			
0.2122	13583.86	3.8950	3.8950	-0.2897	25.56	0.00	-1.500			
0.2132	13642.56	3.8920	3.8921	-0.3183	25.56	0.00	-1.500			
0.2142	13705.94	3.8890	3.8891	-0.3493	25.56	0.00	-1.500			
0.2152	13775.72	3.8860	3.8859	-0.3793	25.56	-0.00	-1.500			
0.2164	13850.94	3.8830	3.8830	-0.4091	25.56	-0.00	-1.500			
0.2177	13932.90	3.8800	3.8799	-0.4393	25.56	-0.00	-1.500			
0.2191	14020.49	3.8770	3.8771	-0.4699	25.56	-0.00	-1.500			
0.2205	14114.07	3.8740	3.8740	-0.4988	25.56	-0.00	-1.500			
0.2221	14212.60	3.8710	3.8710	-0.5270	25.56	-0.00	-1.500			
0.2237	14316.50	3.8680	3.8680	-0.5513	25.56	-0.00	-1.500			
0.2254	14425.49	3.8650	3.8650	-0.5788	25.56	-0.00	-1.500			
0.2272	14541.14	3.8620	3.8620	-0.5968	25.55	-0.01	-1.500			
0.2290	14657.82	3.8590	3.8590	-0.6145	25.55	-0.01	-1.500			
0.2309	14776.47	3.8560	3.8561	-0.6337	25.55	-0.01	-1.500			
0.2328	14900.24	3.8530	3.8530	-0.6510	25.55	-0.01	-1.500			
0.2348	15025.89	3.8500	3.8499	-0.6679	25.55	-0.01	-1.500			
0.2368	15156.78	3.8470	3.8471	-0.6860	25.55	-0.01	-1.500			
0.2389	15290.82	3.8440	3.8440	-0.7000	25.55	-0.01	-1.500			
0.2411	15429.71	3.8410	3.8409	-0.7169	25.55	-0.01	-1.500			
0.2432	15567.32	3.8380	3.8381	-0.7245	25.55	-0.01	-1.500			
0.2454	15705.94	3.8350	3.8350	-0.7343	25.55	-0.01	-1.500			
0.2476	15848.24	3.8320	3.8320	-0.7451	25.56	-0.00	-1.500			
0.2499	15993.42	3.8290	3.8289	-0.7494	25.56	-0.00	-1.500			
0.2522	16138.38	3.8260	3.8260	-0.7564	25.56	0.00	-1.500			
0.2544	16284.69	3.8230	3.8231	-0.7660	25.56	0.00	-1.500			
0.2567	16431.53	3.8200	3.8200	-0.7733	25.56	0.00	-1.500			
0.2591	16581.12	3.8170	3.8169	-0.7771	25.57	0.01	-1.500			
0.2614	16731.92	3.8140	3.8139	-0.7785	25.57	0.01	-1.500			
0.2638	16882.88	3.8110	3.8111	-0.7823	25.57	0.01	-1.500			
0.2662	17033.68	3.8080	3.8080	-0.7853	25.57	0.01	-1.500			
0.2685	17184.08	3.8050	3.8049	-0.7820	25.58	0.02	-1.500			
0.2708	17332.51	3.8020	3.8020	-0.7845	25.58	0.02	-1.500			
0.2732	17482.23	3.7990	3.7990	-0.7851	25.59	0.03	-1.500			
0.2756	17635.67	3.7960	3.7960	-0.7911	25.59	0.03	-1.500			
0.2779	17788.13	3.7930	3.7930	-0.7915	25.60	0.04	-1.500			
0.2803	17938.68	3.7900	3.7900	-0.7959	25.60	0.04	-1.500			
0.2827	18091.83	3.7870	3.7870	-0.7973	25.61	0.05	-1.500			
0.2851	18246.38	3.7840	3.7839	-0.7948	25.61	0.05	-1.500			
0.2875	18397.36	3.7810	3.7810	-0.7956	25.62	0.06	-1.500			
0.2899	18551.44	3.7780	3.7782	-0.7973	25.62	0.06	-1.500			
0.2923	18704.47	3.7750	3.7749	-0.7950	25.63	0.07	-1.500			
0.2946	18856.96	3.7720	3.7720	-0.7969	25.63	0.07	-1.500			
0.2970	19009.06	3.7690	3.7690	-0.7973	25.64	0.08	-1.500			
0.2994	19163.33	3.7660	3.7660	-0.8000	25.64	0.08	-1.500			
0.3018	19317.16	3.7630	3.7631	-0.8020	25.65	0.09	-1.500			
0.3042	19470.57	3.7600	3.7600	-0.7957	25.66	0.10	-1.500			
0.3066	19623.83	3.7570	3.7570	-0.7993	25.66	0.10	-1.500			
0.3090	19777.37	3.7540	3.7540	-0.7977	25.67	0.11	-1.500			
0.3114	19930.15	3.7510	3.7509	-0.7963	25.67	0.11	-1.500			
0.3138	20083.18	3.7480	3.7480	-0.7983	25.68	0.12	-1.500			
0.3162	20236.37	3.7450	3.7450	-0.7996	25.69	0.13	-1.500			
0.3186	20389.32	3.7420	3.7421	-0.8001	25.69	0.13	-1.500			
0.3210	20543.65	3.7390	3.7389	-0.8037	25.70	0.14	-1.500			
0.3234	20696.43	3.7360	3.7360	-0.8032	25.71	0.15	-1.500			
0.3258	20852.69	3.7330	3.7331	-0.8032	25.72	0.16	-1.500			
0.3282	21006.37	3.7300	3.7300	-0.8024	25.72	0.16	-1.500			
0.3306	21160.66	3.7270	3.7271	-0.8038	25.73	0.17	-1.500			
0.3330	21314.68	3.7240	3.7240	-0.8067	25.74	0.18	-1.500			
0.3354	21468.76	3.7210	3.7210	-0.8077	25.75	0.19	-1.500			
0.3379	21624.61	3.7180	3.7179	-0.8088	25.76	0.20	-1.500			
0.3403	21780.18	3.7150	3.7150	-0.8120	25.76	0.20	-1.500			
0.3428	21936.89	3.7120	3.7121	-0.8156	25.77	0.21	-1.500			
0.3452	22092.33	3.7090	3.7090	-0.8183	25.78	0.22	-1.500			
0.3476	22248.06	3.7060	3.7060	-0.8190	25.78	0.22	-1.500			
0.3501	22406.99	3.7030	3.7030	-0.8282	25.79	0.23	-1.500			
0.3526	22566.76	3.7000	3.7000	-0.8336	25.80	0.24	-1.500			
0.3551	22727.22	3.6970	3.6970	-0.8430	25.80	0.24	-1.500			
0.3577	22889.76	3.6940	3.6941	-0.8508	25.81	0.25	-1.500			
0.3602	23053.27	3.6910	3.6909	-0.8621	25.82	0.26	-1.500			
0.3628	23218.64	3.6880	3.6880	-0.8700	25.83	0.27	-1.500			
0.3654	23387.31	3.6850	3.6851	-0.8842	25.83	0.27	-1.500			
0.3681	23557.94	3.6820	3.6820	-0.8973	25.84	0.28	-1.500			
0.3708	23732.20	3.6790	3.6790	-0.9079	25.85	0.29	-1.500			
0.3735	23906.32	3.6760	3.6760	-0.9197	25.86	0.30	-1.500			
0.3763	24083.72	3.6730	3.6730	-0.9385	25.86	0.30	-1.500			
0.3791	24263.33	3.6700	3.6701	-0.9587	25.87	0.31	-1.500			
0.3821	24451.39	3.6670	3.6670	-0.9777	25.88	0.32	-1.500			
0.3850	24641.58	3.6640	3.6639	-0.9932	25.89	0.33	-1.500			
0.3880	24834.84	3.6610	3.6610	-1.0062	25.90	0.34	-1.500			
0.3911	25030.04	3.6580	3.6580	-1.0232	25.90	0.34	-1.500			
0.3941	25225.31	3.6550	3.6550	-1.0423	25.91	0.35	-1.500			
0.3972	25423.74	3.6520	3.6519	-1.0619	25.91	0.35	-1.500			
0.4004	25628.79	3.6490	3.6490	-1.0865	25.92	0.36	-1.500			
0.4038	25843.56	3.6460	3.6461	-1.1197	25.92	0.36	-1.500			
0.4072	26062.89	3.6430	3.6430	-1.1464	25.93	0.37	-1.500			
0.4107	26287.36	3.6400	3.6399	-1.1626	25.93	0.37	-1.500			
0.4142	26511.50	3.6370	3.6371	-1.1837	25.94	0.38	-1.500			
0.4178	26739.50	3.6340	3.6340	-1.2110	25.94	0.38	-1.500			
0.4215	26973.51	3.6310	3.6310	-1.2357	25.95	0.39	-1.500			
0.4252	27212.83	3.6280	3.6279	-1.2641	25.95	0.39	-1.500			
0.4290	27457.02	3.6250	3.6251	-1.2922	25.95	0.39	-1.500			
0.4330	27709.62	3.6220	3.6220	-1.3242	25.95	0.39	-1.500			
0.4370	27967.58	3.6190	3.6189	-1.3517	25.96	0.40	-1.500			
0.4411	28229.22	3.6160	3.6160	-1.3729	25.96	0.40	-1.500			
0.4452	28494.44	3.6130	3.6130	-1.4042	25.96	0.40	-1.500			
0.4495	28768.26	3.6100	3.6100	-1.4331	25.97	0.41	-1.500			
0.4538	29044.13	3.6070	3.6070	-1.4647	25.97	0.41	-1.500			
0.4583	29330.91	3.6040	3.6040	-1.4900	25.98	0.42	-1.500			
0.4628	29620.51	3.6010	3.6010	-1.5162	25.98	0.42	-1.500			
0.4674	29913.49	3.5980	3.5981	-1.5476	25.98	0.42	-1.500			
0.4720	30210.63	3.5950	3.5950	-1.5854	25.98	0.42	-1.500			
0.4768	30517.97	3.5920	3.5919	-1.6163	25.98	0.42	-1.500			
0.4818	30832.61	3.5890	3.5890	-1.6491	25.98	0.42	-1.500			
0.4868	31152.97	3.5860	3.5859	-1.6675	25.98	0.42	-1.500			
0.4919	31481.92	3.5830	3.5831	-1.7007	25.98	0.42	-1.500			
0.4970	31807.81	3.5800	3.5800	-1.7279	25.99	0.43	-1.500			
0.5022	32141.06	3.5770	3.5768	-1.7357	25.99	0.43	-1.500			
0.5074	32472.22	3.5740	3.5740	-1.7542	25.99	0.43	-1.500			
0.5127	32814.49	3.5710	3.5710	-1.7858	26.00	0.44	-1.500			
0.5181	33160.98	3.5680	3.5679	-1.8158	26.00	0.44	-1.500			
0.5237	33513.98	3.5650	3.5649	-1.8556	26.00	0.44	-1.500			
0.5292	33871.17	3.5620	3.5620	-1.8744	26.01	0.45	-1.500			
0.5350	34239.62	3.5590	3.5589	-1.9088	26.01	0.45	-1.500			
0.5408	34608.20	3.5560	3.5561	-1.9165	26.01	0.45	-1.500			
0.5465	34975.13	3.5530	3.5530	-1.9372	26.01	0.45	-1.500			
0.5523	35347.22	3.5500	3.5500	-1.9532	26.02	0.46	-1.500			
0.5581	35719.64	3.5470	3.5470	-1.9600	26.02	0.46	-1.500			
0.5641	36104.53	3.5440	3.5441	-1.9777	26.02	0.46	-1.500	0.388	0.511	
0.5701	36487.13	3.5410	3.5410	-1.9783	26.02	0.46	-1.500			
0.5761	36871.08	3.5380	3.5380	-1.9893	26.03	0.47	-1.500			
0.5820	37249.94	3.5350	3.5350	-1.9881	26.03	0.47	-1.500			
0.5880	37634.54	3.5320	3.5318	-1.9788	26.04	0.48	-1.500			
0.5940	38013.51	3.5290	3.5290	-1.9750	26.05	0.49	-1.500			
0.5999	38393.36	3.5260	3.5260	-1.9694	26.05	0.49	-1.500			
0.6058	38771.73	3.5230	3.5229	-1.9511	26.06	0.50	-1.500			
0.6116	39143.00	3.5200	3.5200	-1.9425	26.07	0.51	-1.500			
0.6174	39515.94	3.5170	3.5170	-1.9317	26.07	0.51	-1.500			
0.6232	39883.57	3.5140	3.5140	-1.9234	26.08	0.52	-1.500			
0.6290	40254.60	3.5110	3.5109	-1.9099	26.09	0.53	-1.500			
0.6347	40619.58	3.5080	3.5080	-1.8890	26.09	0.53	-1.500			
0.6404	40982.48	3.5050	3.5051	-1.8700	26.10	0.54	-1.500			
0.6459	41340.41	3.5020	3.5019	-1.8715	26.12	0.56	-1.500			
0.6515	41696.24	3.4990	3.4990	-1.8525	26.13	0.57	-1.500			
0.6570	42047.99	3.4960	3.4959	-1.8330	26.14	0.58	-1.500			
0.6626	42404.10	3.4930	3.4931	-1.8299	26.16	0.60	-1.500			
0.6681	42755.71	3.4900	3.4900	-1.8116	26.17	0.61	-1.500			
0.6735	43102.41	3.4870	3.4870	-1.7965	26.17	0.61	-1.500			
0.6788	43443.66	3.4840	3.4840	-1.7738	26.18	0.62	-1.500			
0.6841	43779.93	3.4810	3.4810	-1.7458	26.19	0.63	-1.500			
0.6893	44115.11	3.4780	3.4780	-1.7332	26.20	0.64	-1.500			
0.6944	44444.38	3.4750	3.4751	-1.7156	26.22	0.66	-1.500			
0.6996	44773.39	3.4720	3.4720	-1.7025	26.23	0.67	-1.500			
0.7047	45099.69	3.4690	3.4689	-1.6783	26.25	0.69	-1.500			
0.7097	45419.50	3.4660	3.4659	-1.6588	26.26	0.70	-1.500			
0.7146	45735.48	3.4630	3.4631	-1.6428	26.28	0.72	-1.500			
0.7195	46050.44	3.4600	3.4599	-1.6228	26.30	0.74	-1.500			
0.7244	46359.88	3.4570	3.4569	-1.6015	26.31	0.75	-1.500			
0.7292	46667.01	3.4540	3.4540	-1.5755	26.33	0.77	-1.500			
0.7339	46967.95	3.4510	3.4510	-1.5569	26.34	0.78	-1.500			
0.7385	47264.88	3.4480	3.4481	-1.5271	26.36	0.80	-1.500			
0.7430	47551.91	3.4450	3.4450	-1.5032	26.37	0.81	-1.500			
0.7475	47837.41	3.4420	3.4419	-1.4832	26.39	0.83	-1.500			
0.7519	48119.86	3.4390	3.4390	-1.4808	26.41	0.85	-1.500			
0.7563	48402.82	3.4360	3.4361	-1.4746	26.43	0.87	-1.500			
0.7608	48689.17	3.4330	3.4329	-1.4731	26.45	0.89	-1.500			
0.7652	48971.30	3.4300	3.4302	-1.4596	26.46	0.90	-1.500			
0.7695	49251.11	3.4270	3.4270	-1.4525	26.48	0.92	-1.500			
0.7738	49525.97	3.4240	3.4240	-1.4451	26.50	0.94	-1.500			
0.7782	49803.60	3.4210	3.4209	-1.4209	26.52	0.96	-1.500			
0.7825	50081.34	3.4180	3.4179	-1.4149	26.53	0.97	-1.500			
0.7867	50351.32	3.4150	3.4150	-1.3860	26.55	0.99	-1.500			
0.7909	50618.78	3.4120	3.4121	-1.3595	26.57	1.01	-1.500			
0.7949	50876.22	3.4090	3.4089	-1.3307	26.59	1.03	-1.500			
0.7989	51128.15	3.4060	3.4059	-1.2866	26.61	1.05	-1.500			
0.8027	51372.40	3.4030	3.4030	-1.2460	26.63	1.07	-1.500			
0.8064	51610.80	3.4000	3.4000	-1.2057	26.65	1.09	-1.500			
0.8100	51839.96	3.3970	3.3970	-1.1597	26.67	1.11	-1.500			
0.8134	52057.14	3.3940	3.3940	-1.1104	26.68	1.12	-1.500			
0.8166	52263.13	3.3910	3.3909	-1.0643	26.69	1.13	-1.500			
0.8197	52460.49	3.3880	3.3880	-1.0197	26.71	1.15	-1.500			
0.8227	52653.97	3.3850	3.3849	-0.9786	26.72	1.16	-1.500			
0.8256	52835.28	3.3820	3.3821	-0.9402	26.73	1.17	-1.500			
0.8284	53014.97	3.3790	3.3791	-0.9070	26.75	1.19	-1.500			
0.8310	53184.67	3.3760	3.3759	-0.8723	26.76	1.20	-1.500			
0.8336	53348.23	3.3730	3.3729	-0.8369	26.77	1.21	-1.500			
0.8360	53506.22	3.3700	3.3701	-0.8034	26.78	1.22	-1.500			
0.8384	53658.14	3.3670	3.3669	-0.7722	26.80	1.24	-1.500			
0.8407	53803.64	3.3640	3.3641	-0.7426	26.81	1.25	-1.500			
0.8428	53939.02	3.3610	3.3610	-0.7146	26.82	1.26	-1.500			
0.8449	54074.13	3.3580	3.3580	-0.6941	26.83	1.27	-1.500			
0.8469	54204.22	3.3550	3.3549	-0.6699	26.83	1.27	-1.500			
0.8489	54331.40	3.3520	3.3521	-0.6530	26.84	1.28	-1.500			
0.8509	54457.47	3.3490	3.3490	-0.6335	26.85	1.29	-1.500			
0.8528	54576.76	3.3460	3.3459	-0.6121	26.86	1.30	-1.500			
0.8545	54691.08	3.3430	3.3430	-0.5909	26.87	1.31	-1.500			
0.8563	54802.18	3.3400	3.3400	-0.5701	26.88	1.32	-1.500			
0.8580	54909.80	3.3370	3.3369	-0.5542	26.89	1.33	-1.500			
0.8596	55014.63	3.3340	3.3340	-0.5360	26.89	1.33	-1.500			
0.8612	55115.15	3.3310	3.3311	-0.5195	26.90	1.34	-1.500			
0.8627	55214.01	3.3280	3.3279	-0.5032	26.91	1.35	-1.500			
0.8642	55308.52	3.3250	3.3251	-0.4868	26.92	1.36	-1.500			
0.8656	55400.81	3.3220	3.3220	-0.4712	26.93	1.37	-1.500			
0.8670	55489.92	3.3190	3.3190	-0.4565	26.93	1.37	-1.500			
0.8684	55575.64	3.3160	3.3159	-0.4399	26.94	1.38	-1.500			
0.8697	55658.04	3.3130	3.3130	-0.4266	26.95	1.39	-1.500			
0.8709	55738.41	3.3100	3.3100	-0.4129	26.95	1.39	-1.500			
0.8721	55816.66	3.3070	3.3070	-0.4010	26.96	1.40	-1.500			
0.8733	55892.08	3.3040	3.3040	-0.3881	26.96	1.40	-1.500			
0.8745	55965.72	3.3010	3.3011	-0.3771	26.97	1.41	-1.500			
0.8756	56037.20	3.2980	3.2980	-0.3631	26.97	1.41	-1.500			
0.8766	56105.52	3.2950	3.2950	-0.3515	26.98	1.42	-1.500			
0.8777	56171.38	3.2920	3.2921	-0.3381	26.98	1.42	-1.500			
0.8787	56235.28	3.2890	3.2888	-0.3280	26.99	1.43	-1.500			
0.8796	56296.94	3.2860	3.2860	-0.3174	26.99	1.43	-1.500			
0.8806	56356.49	3.2830	3.2831	-0.3092	27.00	1.44	-1.500			
0.8815	56414.78	3.2800	3.2799	-0.3015	27.00	1.44	-1.500			
0.8824	56472.54	3.2770	3.2769	-0.2939	27.01	1.45	-1.500			
0.8832	56527.71	3.2740	3.2740	-0.2840	27.01	1.45	-1.500			
0.8841	56581.72	3.2710	3.2711	-0.2767	27.01	1.45	-1.500			
0.8849	56634.31	3.2680	3.2680	-0.2680	27.02	1.46	-1.500			
0.8857	56684.96	3.2650	3.2649	-0.2598	27.02	1.46	-1.500			
0.8865	56733.00	3.2620	3.2620	-0.2502	27.03	1.47	-1.500			
0.8872	56780.05	3.2590	3.2591	-0.2445	27.03	1.47	-1.500			
0.8879	56826.45	3.2560	3.2561	-0.2390	27.03	1.47	-1.500			
0.8886	56871.92	3.2530	3.2530	-0.2337	27.04	1.48	-1.500			
0.8893	56916.30	3.2500	3.2500	-0.2272	27.04	1.48	-1.500			
0.8900	56959.25	3.2470	3.2471	-0.2209	27.04	1.48	-1.500			
0.8906	57001.09	3.2440	3.2441	-0.2150	27.05	1.49	-1.500			
0.8913	57042.15	3.2410	3.2410	-0.2093	27.05	1.49	-1.500			
0.8919	57081.70	3.2380	3.2379	-0.2036	27.06	1.50	-1.500			
0.8925	57119.49	3.2350	3.2350	-0.1983	27.06	1.50	-1.500			
0.8931	57156.80	3.2320	3.2320	-0.1943	27.07	1.51	-1.500			
0.8937	57193.80	3.2290	3.2290	-0.1911	27.07	1.51	-1.500			
0.8942	57230.16	3.2260	3.2260	-0.1872	27.08	1.52	-1.500			
0.8948	57265.60	3.2230	3.2231	-0.1840	27.08	1.52	-1.500			
0.8953	57300.81	3.2200	3.2199	-0.1809	27.09	1.53	-1.500			
0.8959	57335.21	3.2170	3.2171	-0.1775	27.09	1.53	-1.500			
0.8964	57369.18	3.2140	3.2140	-0.1739	27.09	1.53	-1.500			
0.8969	57401.84	3.2110	3.2110	-0.1709	27.10	1.54	-1.500			
0.8974	57434.33	3.2080	3.2080	-0.1675	27.10	1.54	-1.500			
0.8979	57466.23	3.2050	3.2050	-0.1647	27.11	1.55	-1.500			
0.8984	57497.68	3.2020	3.2019	-0.1619	27.11	1.55	-1.500			
0.8989	57528.21	3.1990	3.1991	-0.1589	27.11	1.55	-1.500			
0.8994	57558.62	3.1960	3.1960	-0.1567	27.12	1.56	-1.500			
0.8998	57588.44	3.1930	3.1930	-0.1540	27.12	1.56	-1.500			
0.9003	57617.80	3.1900	3.1900	-0.1514	27.12	1.56	-1.500			
0.9007	57646.19	3.1870	3.1870	-0.1489	27.13	1.57	-1.500			
0.9012	57674.68	3.1840	3.1840	-0.1472	27.13	1.57	-1.500			
0.9016	57702.77	3.1810	3.1810	-0.1453	27.13	1.57	-1.500			
0.9020	57730.31	3.1780	3.1780	-0.1437	27.14	1.58	-1.500			
0.9025	57757.71	3.1750	3.1750	-0.1418	27.14	1.58	-1.500			
0.9029	57784.87	3.1720	3.1720	-0.1405	27.15	1.59	-1.500			
0.9033	57811.80	3.1690	3.1690	-0.1384	27.15	1.59	-1.500			
0.9037	57838.36	3.1660	3.1660	-0.1367	27.15	1.59	-1.500			
0.9041	57864.34	3.1630	3.1630	-0.1344	27.16	1.60	-1.500			
0.9045	57889.87	3.1600	3.1600	-0.1326	27.16	1.60	-1.500			
0.9049	57914.94	3.1570	3.1571	-0.1311	27.16	1.60	-1.500			
0.9053	57939.71	3.1540	3.1538	-0.1292	27.17	1.61	-1.500			
0.9057	57964.38	3.1510	3.1510	-0.1281	27.17	1.61	-1.500			
0.9061	57988.91	3.1480	3.1481	-0.1273	27.18	1.62	-1.500			
0.9065	58013.36	3.1450	3.1450	-0.1263	27.18	1.62	-1.500			
0.9068	58037.52	3.1420	3.1420	-0.1253	27.18	1.62	-1.500			
0.9072	58061.56	3.1390	3.1390	-0.1244	27.19	1.63	-1.500			
0.9076	58085.36	3.1360	3.1360	-0.1233	27.19	1.63	-1.500			
0.9080	58108.93	3.1330	3.1329	-0.1220	27.19	1.63	-1.500			
0.9083	58132.21	3.1300	3.1301	-0.1208	27.20	1.64	-1.500			
0.9087	58155.28	3.1270	3.1270	-0.1196	27.20	1.64	-1.500			
0.9090	58178.14	3.1240	3.1239	-0.1184	27.20	1.64	-1.500			
0.9094	58200.74	3.1210	3.1211	-0.1173	27.21	1.65	-1.500			
0.9097	58223.18	3.1180	3.1179	-0.1162	27.21	1.65	-1.500			
0.9101	58245.22	3.1150	3.1150	-0.1157	27.21	1.65	-1.500			
0.9104	58267.14	3.1120	3.1120	-0.1147	27.22	1.66	-1.500			
0.9108	58289.27	3.1090	3.1090	-0.1137	27.22	1.66	-1.500			
0.9111	58311.08	3.1060	3.1059	-0.1130	27.22	1.66	-1.500			
0.9114	58332.61	3.1030	3.1031	-0.1125	27.22	1.66	-1.500			
0.9118	58354.16	3.1000	3.1000	-0.1118	27.23	1.67	-1.500			
0.9121	58375.59	3.0970	3.0970	-0.1111	27.23	1.67	-1.500			
0.9125	58396.90	3.0940	3.0939	-0.1104	27.23	1.67	-1.500			
0.9128	58418.01	3.0910	3.0909	-0.1095	27.24	1.68	-1.500			
0.9131	58438.82	3.0880	3.0881	-0.1086	27.24	1.68	-1.500			
0.9134	58459.58	3.0850	3.0852	-0.1081	27.24	1.68	-1.500			
0.9138	58480.43	3.0820	3.0820	-0.1078	27.25	1.69	-1.500			
0.9141	58501.09	3.0790	3.0790	-0.1069	27.25	1.69	-1.500			
0.9144	58521.40	3.0760	3.0759	-0.1059	27.25	1.69	-1.500			
0.9147	58541.66	3.0730	3.0730	-0.1053	27.25	1.69	-1.500			
0.9150	58561.89	3.0700	3.0700	-0.1048	27.26	1.70	-1.500			
0.9153	58581.92	3.0670	3.0670	-0.1041	27.26	1.70	-1.500			
0.9157	58601.86	3.0640	3.0639	-0.1034	27.27	1.71	-1.500			
0.9160	58621.60	3.0610	3.0611	-0.1028	27.27	1.71	-1.500			
0.9163	58641.14	3.0580	3.0580	-0.1021	27.28	1.72	-1.500			
0.9166	58660.72	3.0550	3.0550	-0.1016	27.28	1.72	-1.500			
0.9169	58680.26	3.0520	3.0521	-0.1012	27.28	1.72	-1.500			
0.9172	58699.60	3.0490	3.0490	-0.1007	27.29	1.73	-1.500			
0.9175	58718.83	3.0460	3.0459	-0.1001	27.29	1.73	-1.500			
0.9178	58738.01	3.0430	3.0430	-0.0998	27.30	1.74	-1.500			
0.9181	58757.13	3.0400	3.0401	-0.0994	27.30	1.74	-1.500			
0.9184	58776.22	3.0370	3.0369	-0.0988	27.30	1.74	-1.500			
0.9187	58795.16	3.0340	3.0341	-0.0983	27.31	1.75	-1.500			
0.9190	58813.96	3.0310	3.0309	-0.0978	27.31	1.75	-1.500			
0.9193	58832.72	3.0280	3.0282	-0.0974	27.32	1.76	-1.500			
0.9196	58851.35	3.0250	3.0250	-0.0968	27.32	1.76	-1.500			
0.9198	58869.88	3.0220	3.0218	-0.0963	27.32	1.76	-1.500			
0.9201	58888.25	3.0190	3.0189	-0.0961	27.33	1.77	-1.500			
0.9204	58906.56	3.0160	3.0160	-0.0956	27.33	1.77	-1.500			
0.9207	58924.91	3.0130	3.0132	-0.0955	27.33	1.77	-1.500			
0.9210	58943.23	3.0100	3.0101	-0.0953	27.34	1.78	-1.500			
0.9213	58961.51	3.0070	3.0070	-0.0951	27.34	1.78	-1.500			
0.9216	58979.74	3.0040	3.0041	-0.0959	27.35	1.79	-1.499			
