Ah_balance (normalized)	Ah_balance (mAh)	Voltage - fit (V)	Voltage -  interpolate (V)	dQ/dV (1/V)	Temperature (°C)	Temperature - diff (°C)	Current (C)	R_DC 0ms (mOhm)	R_DC 50ms (mOhm)	R_DC 50 ms PEC (mOhm)
0.2924	18713.83	3.9710	3.9710	0.8693	26.92	0.94	1.500			
0.2950	18880.79	3.9680	3.9680	0.8731	26.91	0.93	1.500			
0.2977	19050.31	3.9650	3.9649	0.8786	26.91	0.93	1.500			
0.3003	19218.29	3.9620	3.9621	0.8829	26.91	0.93	1.500			
0.3029	19388.05	3.9590	3.9590	0.8860	26.91	0.93	1.500			
0.3056	19559.53	3.9560	3.9560	0.8907	26.90	0.92	1.500			
0.3083	19730.61	3.9530	3.9530	0.8922	26.90	0.92	1.500			
0.3110	19901.66	3.9500	3.9500	0.8952	26.90	0.92	1.500			
0.3136	20073.03	3.9470	3.9470	0.8976	26.89	0.91	1.500			
0.3164	20246.52	3.9440	3.9440	0.9043	26.89	0.91	1.500			
0.3191	20419.60	3.9410	3.9410	0.9069	26.89	0.91	1.500			
0.3218	20594.88	3.9380	3.9380	0.9154	26.88	0.90	1.500			
0.3246	20771.52	3.9350	3.9350	0.9200	26.88	0.90	1.500			
0.3273	20948.25	3.9320	3.9320	0.9261	26.88	0.90	1.500			
0.3301	21126.75	3.9290	3.9291	0.9308	26.87	0.89	1.500			
0.3329	21304.99	3.9260	3.9259	0.9367	26.87	0.89	1.500			
0.3357	21485.51	3.9230	3.9229	0.9414	26.87	0.89	1.500			
0.3385	21666.96	3.9200	3.9201	0.9475	26.86	0.88	1.500			
0.3414	21849.20	3.9170	3.9170	0.9521	26.86	0.88	1.500			
0.3443	22033.74	3.9140	3.9140	0.9604	26.86	0.88	1.500			
0.3472	22219.02	3.9110	3.9110	0.9627	26.85	0.87	1.500			
0.3501	22403.65	3.9080	3.9080	0.9709	26.85	0.87	1.500			
0.3530	22590.23	3.9050	3.9050	0.9770	26.85	0.87	1.500			
0.3559	22777.17	3.9020	3.9020	0.9892	26.84	0.86	1.500			
0.3589	22968.17	3.8990	3.8991	0.9968	26.84	0.86	1.500			
0.3619	23160.72	3.8960	3.8959	1.0085	26.83	0.85	1.500			
0.3649	23355.64	3.8930	3.8930	1.0171	26.83	0.85	1.500			
0.3680	23553.00	3.8900	3.8901	1.0273	26.82	0.84	1.500			
0.3711	23750.40	3.8870	3.8870	1.0307	26.82	0.84	1.500			
0.3742	23948.08	3.8840	3.8840	1.0431	26.81	0.83	1.500			
0.3773	24148.59	3.8810	3.8810	1.0525	26.81	0.83	1.500			
0.3805	24351.93	3.8780	3.8780	1.0658	26.80	0.82	1.500			
0.3837	24557.26	3.8750	3.8750	1.0752	26.80	0.82	1.500			
0.3870	24765.22	3.8720	3.8721	1.0968	26.79	0.81	1.500			
0.3903	24977.29	3.8690	3.8690	1.1137	26.79	0.81	1.500			
0.3937	25194.30	3.8660	3.8659	1.1265	26.78	0.80	1.500			
0.3970	25410.99	3.8630	3.8630	1.1363	26.78	0.80	1.500			
0.4005	25631.74	3.8600	3.8600	1.1514	26.77	0.79	1.500			
0.4040	25853.11	3.8570	3.8571	1.1664	26.77	0.79	1.500			
0.4075	26077.04	3.8540	3.8539	1.1822	26.76	0.78	1.500			
0.4110	26302.45	3.8510	3.8510	1.1984	26.75	0.77	1.500			
0.4146	26536.09	3.8480	3.8480	1.2180	26.75	0.77	1.500			
0.4184	26774.80	3.8450	3.8450	1.2380	26.74	0.76	1.500			
0.4221	27014.11	3.8420	3.8419	1.2606	26.74	0.76	1.500			
0.4259	27256.68	3.8390	3.8390	1.2780	26.73	0.75	1.500			
0.4297	27503.61	3.8360	3.8362	1.2949	26.72	0.74	1.500			
0.4336	27752.53	3.8330	3.8329	1.3177	26.72	0.74	1.500			
0.4376	28008.25	3.8300	3.8301	1.3427	26.71	0.73	1.500			
0.4417	28267.91	3.8270	3.8270	1.3684	26.70	0.72	1.500			
0.4458	28531.37	3.8240	3.8240	1.3988	26.69	0.71	1.500			
0.4501	28804.04	3.8210	3.8210	1.4275	26.68	0.70	1.500			
0.4544	29080.30	3.8180	3.8179	1.4658	26.68	0.70	1.500			
0.4588	29366.30	3.8150	3.8150	1.5001	26.67	0.69	1.500			
0.4634	29656.17	3.8120	3.8120	1.5306	26.66	0.68	1.500			
0.4680	29953.30	3.8090	3.8091	1.5719	26.65	0.67	1.500			
0.4728	30257.43	3.8060	3.8060	1.6139	26.64	0.66	1.500			
0.4777	30570.69	3.8030	3.8030	1.6604	26.63	0.65	1.500			
0.4827	30893.95	3.8000	3.8000	1.7026	26.62	0.64	1.500			
0.4880	31231.45	3.7970	3.7970	1.7371	26.61	0.63	1.500			
0.4932	31565.22	3.7940	3.7940	1.7882	26.59	0.61	1.500			
0.4986	31907.98	3.7910	3.7911	1.8371	26.58	0.60	1.500			
0.5041	32263.92	3.7880	3.7880	1.8893	26.57	0.59	1.500			
0.5099	32630.93	3.7850	3.7852	1.9535	26.55	0.57	1.500			
0.5159	33015.80	3.7820	3.7821	1.9930	26.54	0.56	1.500			
0.5219	33403.96	3.7790	3.7790	2.0524	26.52	0.54	1.500			
0.5281	33800.10	3.7760	3.7760	2.0754	26.51	0.53	1.500			
0.5344	34204.60	3.7730	3.7731	2.1375	26.49	0.51	1.500			
0.5410	34621.97	3.7700	3.7700	2.1613	26.48	0.50	1.500			
0.5476	35043.95	3.7670	3.7671	2.2068	26.46	0.48	1.500			
0.5541	35465.32	3.7640	3.7640	2.2273	26.45	0.47	1.500			
0.5610	35901.22	3.7610	3.7610	2.2356	26.43	0.45	1.500	0.366	0.458	
0.5677	36332.45	3.7580	3.7580	2.2301	26.41	0.43	1.500			
0.5744	36760.30	3.7550	3.7550	2.1910	26.39	0.41	1.500			
0.5808	37173.95	3.7520	3.7519	2.1501	26.37	0.39	1.500			
0.5872	37579.86	3.7490	3.7491	2.1210	26.36	0.38	1.500			
0.5935	37985.78	3.7460	3.7460	2.1034	26.35	0.37	1.500			
0.5998	38386.31	3.7430	3.7430	2.0868	26.33	0.35	1.500			
0.6060	38784.23	3.7400	3.7399	2.0858	26.32	0.34	1.500			
0.6122	39182.78	3.7370	3.7370	2.0877	26.31	0.33	1.500			
0.6185	39581.45	3.7340	3.7340	2.0834	26.29	0.31	1.500			
0.6248	39984.26	3.7310	3.7310	2.0980	26.28	0.30	1.500			
0.6310	40383.72	3.7280	3.7279	2.1205	26.26	0.28	1.500			
0.6374	40792.74	3.7250	3.7250	2.1631	26.25	0.27	1.500			
0.6439	41211.90	3.7220	3.7220	2.2248	26.23	0.25	1.500			
0.6507	41643.38	3.7190	3.7190	2.2920	26.22	0.24	1.500			
0.6576	42088.35	3.7160	3.7161	2.3741	26.20	0.22	1.500			
0.6649	42553.71	3.7130	3.7130	2.4619	26.19	0.21	1.500			
0.6724	43032.99	3.7100	3.7101	2.5643	26.18	0.20	1.500			
0.6802	43534.65	3.7070	3.7069	2.6653	26.16	0.18	1.500			
0.6885	44061.00	3.7040	3.7040	2.7285	26.15	0.17	1.500			
0.6968	44596.70	3.7010	3.7010	2.7807	26.13	0.15	1.500			
0.7052	45133.28	3.6980	3.6980	2.7871	26.11	0.13	1.500			
0.7136	45669.66	3.6950	3.6950	2.7600	26.10	0.12	1.500			
0.7219	46203.39	3.6920	3.6920	2.6389	26.09	0.11	1.500			
0.7295	46687.19	3.6890	3.6890	2.4102	26.08	0.10	1.500			
0.7364	47131.16	3.6860	3.6860	2.2050	26.08	0.10	1.500			
0.7426	47525.69	3.6830	3.6830	1.9982	26.07	0.09	1.500			
0.7483	47889.79	3.6800	3.6801	1.8364	26.07	0.09	1.500			
0.7535	48221.66	3.6770	3.6769	1.7116	26.06	0.08	1.500			
0.7582	48525.77	3.6740	3.6740	1.5926	26.06	0.08	1.500			
0.7628	48820.53	3.6710	3.6710	1.5055	26.05	0.07	1.500			
0.7672	49100.53	3.6680	3.6680	1.4329	26.05	0.07	1.500			
0.7714	49367.98	3.6650	3.6650	1.3678	26.04	0.06	1.500			
0.7753	49618.39	3.6620	3.6621	1.3121	26.04	0.06	1.500			
0.7791	49863.10	3.6590	3.6590	1.2732	26.03	0.05	1.500			
0.7828	50097.29	3.6560	3.6560	1.2470	26.03	0.05	1.500			
0.7865	50333.17	3.6530	3.6530	1.2401	26.02	0.04	1.500			
0.7901	50568.54	3.6500	3.6500	1.2429	26.02	0.04	1.500			
0.7939	50807.26	3.6470	3.6470	1.2513	26.02	0.04	1.500			
0.7976	51047.08	3.6440	3.6440	1.2668	26.01	0.03	1.500			
0.8015	51293.02	3.6410	3.6410	1.2821	26.01	0.03	1.500			
0.8053	51540.64	3.6380	3.6380	1.2960	26.00	0.02	1.500			
0.8093	51792.04	3.6350	3.6350	1.3029	26.00	0.02	1.500			
0.8132	52045.73	3.6320	3.6320	1.3064	25.99	0.01	1.500			
0.8172	52297.64	3.6290	3.6290	1.3026	25.98	0.00	1.500			
0.8210	52546.53	3.6260	3.6260	1.3020	25.98	-0.00	1.500			
0.8249	52794.83	3.6230	3.6230	1.2951	25.97	-0.01	1.500			
0.8288	53042.43	3.6200	3.6199	1.2955	25.97	-0.01	1.500			
0.8327	53291.33	3.6170	3.6170	1.2936	25.96	-0.02	1.500			
0.8366	53541.57	3.6140	3.6139	1.2896	25.96	-0.02	1.500			
0.8405	53790.80	3.6110	3.6110	1.2873	25.95	-0.03	1.500			
0.8443	54037.99	3.6080	3.6080	1.2719	25.95	-0.03	1.500			
0.8481	54279.81	3.6050	3.6050	1.2556	25.95	-0.03	1.500			
0.8519	54519.82	3.6020	3.6020	1.2483	25.94	-0.04	1.500			
0.8556	54756.32	3.5990	3.5990	1.2313	25.94	-0.04	1.500			
0.8593	54992.37	3.5960	3.5960	1.2186	25.94	-0.04	1.500			
0.8629	55226.77	3.5930	3.5930	1.2063	25.94	-0.04	1.500			
0.8665	55455.38	3.5900	3.5901	1.1933	25.94	-0.04	1.500			
0.8701	55684.97	3.5870	3.5870	1.1828	25.94	-0.04	1.500			
0.8735	55906.10	3.5840	3.5840	1.1790	25.94	-0.04	1.500			
0.8770	56130.73	3.5810	3.5810	1.1830	25.94	-0.04	1.500			
0.8806	56360.11	3.5780	3.5779	1.1790	25.94	-0.04	1.500			
0.8842	56590.86	3.5750	3.5749	1.1610	25.94	-0.04	1.500			
0.8879	56827.77	3.5720	3.5719	1.1075	25.95	-0.03	1.500			
0.8913	57041.60	3.5690	3.5690	1.0184	25.95	-0.03	1.500			
0.8944	57240.91	3.5660	3.5661	0.9056	25.96	-0.02	1.500			
0.8969	57400.64	3.5630	3.5631	0.7588	25.96	-0.02	1.500			
0.8988	57523.97	3.5600	3.5601	0.6231	25.97	-0.01	1.500			
0.9003	57622.31	3.5570	3.5570	0.5080	25.97	-0.01	1.500			
0.9016	57702.06	3.5540	3.5539	0.3967	25.97	-0.01	1.500			
0.9026	57765.72	3.5510	3.5509	0.3305	25.97	-0.01	1.500			
0.9034	57817.10	3.5480	3.5480	0.2759	25.97	-0.01	1.500			
0.9041	57863.45	3.5450	3.5449	0.2415	25.98	-0.00	1.500			
0.9047	57903.68	3.5420	3.5421	0.2066	25.98	-0.00	1.500			
0.9053	57939.82	3.5390	3.5390	0.1848	25.98	-0.00	1.500			
0.9058	57972.95	3.5360	3.5361	0.1641	25.98	-0.00	1.500			
0.9063	58001.38	3.5330	3.5331	0.1456	25.98	-0.00	1.500			
0.9067	58027.83	3.5300	3.5299	0.1299	25.98	-0.00	1.500			
0.9070	58050.78	3.5270	3.5270	0.1136	25.98	-0.00	1.500			
0.9074	58070.56	3.5240	3.5241	0.0981	25.98	0.00	1.500			
0.9076	58088.05	3.5210	3.5212	0.0841	25.98	0.00	1.500			
0.9079	58102.98	3.5180	3.5184	0.0698	25.98	0.00	1.500			
0.9080	58114.99	3.5150	3.5156	0.0554	25.98	0.00	1.500			
