Ah_balance (normalized)	Ah_balance (mAh)	Voltage - fit (V)	Voltage -  interpolate (V)	dQ/dV (1/V)	Temperature (°C)	Temperature - diff (°C)	Current (C)	R_DC 0ms (mOhm)	R_DC 50ms (mOhm)	R_DC 50 ms PEC (mOhm)
0.2732	17482.42	3.9870	3.9870	0.8709	27.17	1.23	1.500			
0.2758	17648.97	3.9840	3.9840	0.8588	27.17	1.23	1.500			
0.2783	17809.06	3.9810	3.9811	0.8519	27.16	1.22	1.500			
0.2808	17972.06	3.9780	3.9780	0.8540	27.16	1.22	1.500			
0.2834	18134.91	3.9750	3.9749	0.8540	27.15	1.21	1.500			
0.2859	18299.11	3.9720	3.9720	0.8593	27.15	1.21	1.500			
0.2885	18464.69	3.9690	3.9691	0.8644	27.14	1.20	1.500			
0.2911	18631.78	3.9660	3.9660	0.8707	27.14	1.20	1.500			
0.2938	18800.20	3.9630	3.9630	0.8693	27.13	1.19	1.500			
0.2964	18967.34	3.9600	3.9600	0.8753	27.13	1.19	1.500			
0.2990	19135.17	3.9570	3.9571	0.8750	27.12	1.18	1.500			
0.3016	19302.94	3.9540	3.9540	0.8815	27.12	1.18	1.500			
0.3043	19472.62	3.9510	3.9510	0.8848	27.11	1.17	1.500			
0.3069	19643.51	3.9480	3.9480	0.8880	27.10	1.16	1.500			
0.3096	19814.28	3.9450	3.9449	0.8922	27.10	1.16	1.500			
0.3123	19986.73	3.9420	3.9420	0.8963	27.09	1.15	1.500			
0.3150	20158.05	3.9390	3.9390	0.8958	27.09	1.15	1.500			
0.3177	20330.85	3.9360	3.9360	0.9014	27.08	1.14	1.500			
0.3203	20502.35	3.9330	3.9330	0.9025	27.07	1.13	1.500			
0.3231	20676.44	3.9300	3.9300	0.9129	27.07	1.13	1.500			
0.3258	20853.09	3.9270	3.9270	0.9168	27.06	1.12	1.500			
0.3286	21028.77	3.9240	3.9240	0.9243	27.05	1.11	1.500			
0.3314	21207.72	3.9210	3.9210	0.9306	27.05	1.11	1.500			
0.3342	21387.74	3.9180	3.9180	0.9342	27.04	1.10	1.500			
0.3370	21566.42	3.9150	3.9150	0.9410	27.03	1.09	1.500			
0.3398	21748.03	3.9120	3.9120	0.9465	27.03	1.09	1.500			
0.3426	21929.56	3.9090	3.9090	0.9543	27.02	1.08	1.500			
0.3455	22114.60	3.9060	3.9060	0.9633	27.01	1.07	1.500			
0.3484	22300.33	3.9030	3.9030	0.9667	27.01	1.07	1.500			
0.3514	22487.06	3.9000	3.9000	0.9762	27.00	1.06	1.500			
0.3543	22675.84	3.8970	3.8970	0.9833	26.99	1.05	1.500			
0.3572	22863.41	3.8940	3.8941	0.9912	26.99	1.05	1.500			
0.3602	23054.37	3.8910	3.8910	1.0018	26.98	1.04	1.500			
0.3632	23246.93	3.8880	3.8880	1.0106	26.97	1.03	1.500			
0.3663	23442.88	3.8850	3.8850	1.0206	26.96	1.02	1.500			
0.3694	23640.01	3.8820	3.8821	1.0297	26.96	1.02	1.500			
0.3725	23839.17	3.8790	3.8790	1.0382	26.95	1.01	1.500			
0.3756	24039.71	3.8760	3.8759	1.0474	26.94	1.00	1.500			
0.3787	24239.58	3.8730	3.8731	1.0564	26.93	0.99	1.500			
0.3819	24444.14	3.8700	3.8700	1.0686	26.93	0.99	1.500			
0.3852	24651.00	3.8670	3.8671	1.0820	26.92	0.98	1.500			
0.3884	24859.72	3.8640	3.8640	1.0959	26.91	0.97	1.500			
0.3917	25070.20	3.8610	3.8610	1.1110	26.90	0.96	1.500			
0.3951	25285.67	3.8580	3.8580	1.1225	26.89	0.95	1.500			
0.3985	25501.93	3.8550	3.8550	1.1391	26.88	0.94	1.500			
0.4019	25721.71	3.8520	3.8521	1.1548	26.87	0.93	1.500			
0.4054	25945.87	3.8490	3.8490	1.1721	26.86	0.92	1.500			
0.4089	26172.27	3.8460	3.8459	1.1858	26.85	0.91	1.500			
0.4125	26400.60	3.8430	3.8431	1.2015	26.84	0.90	1.500			
0.4161	26632.67	3.8400	3.8400	1.2204	26.83	0.89	1.500			
0.4199	26870.67	3.8370	3.8370	1.2393	26.82	0.88	1.500			
0.4236	27108.38	3.8340	3.8340	1.2545	26.81	0.87	1.500			
0.4273	27348.63	3.8310	3.8310	1.2812	26.80	0.86	1.500			
0.4312	27596.36	3.8280	3.8280	1.3111	26.79	0.85	1.500			
0.4352	27852.31	3.8250	3.8250	1.3316	26.78	0.84	1.500			
0.4392	28109.99	3.8220	3.8221	1.3562	26.76	0.82	1.500			
0.4434	28376.14	3.8190	3.8190	1.3741	26.75	0.81	1.500			
0.4475	28641.78	3.8160	3.8159	1.3979	26.74	0.80	1.500			
0.4517	28908.01	3.8130	3.8130	1.4214	26.72	0.78	1.500			
0.4560	29181.37	3.8100	3.8100	1.4501	26.71	0.77	1.500			
0.4603	29462.07	3.8070	3.8071	1.4824	26.70	0.76	1.500			
0.4649	29751.34	3.8040	3.8040	1.5153	26.68	0.74	1.500			
0.4695	30048.98	3.8010	3.8010	1.5323	26.67	0.73	1.500			
0.4742	30346.69	3.7980	3.7980	1.5547	26.65	0.71	1.500			
0.4789	30647.23	3.7950	3.7951	1.5795	26.64	0.70	1.500			
0.4836	30949.82	3.7920	3.7919	1.6027	26.62	0.68	1.500			
0.4884	31260.05	3.7890	3.7890	1.6289	26.61	0.67	1.500			
0.4934	31575.56	3.7860	3.7860	1.6615	26.59	0.65	1.500			
0.4984	31900.10	3.7830	3.7830	1.7101	26.58	0.64	1.500			
0.5036	32229.64	3.7800	3.7800	1.7293	26.57	0.63	1.500			
0.5088	32566.08	3.7770	3.7768	1.7542	26.55	0.61	1.500	0.345	0.470	
0.5142	32906.13	3.7740	3.7741	1.7671	26.54	0.60	1.500			
0.5195	33250.66	3.7710	3.7710	1.7672	26.52	0.58	1.500			
0.5248	33587.36	3.7680	3.7680	1.7679	26.51	0.57	1.500			
0.5301	33924.67	3.7650	3.7651	1.7564	26.49	0.55	1.500			
0.5353	34262.35	3.7620	3.7620	1.7611	26.48	0.54	1.500			
0.5407	34605.49	3.7590	3.7590	1.7675	26.46	0.52	1.500			
0.5460	34942.32	3.7560	3.7559	1.7650	26.45	0.51	1.500			
0.5512	35277.60	3.7530	3.7531	1.7724	26.44	0.50	1.500			
0.5566	35619.33	3.7500	3.7500	1.7955	26.43	0.49	1.500			
0.5620	35964.87	3.7470	3.7470	1.8145	26.41	0.47	1.500			
0.5674	36313.67	3.7440	3.7440	1.8500	26.40	0.46	1.500			
0.5730	36671.16	3.7410	3.7410	1.8786	26.39	0.45	1.500			
0.5786	37033.06	3.7380	3.7380	1.9076	26.37	0.43	1.500			
0.5844	37401.07	3.7350	3.7348	1.9570	26.36	0.42	1.500			
0.5904	37783.34	3.7320	3.7321	2.0126	26.35	0.41	1.500			
0.5965	38175.06	3.7290	3.7291	2.0527	26.33	0.39	1.500			
0.6027	38574.43	3.7260	3.7260	2.0951	26.32	0.38	1.500			
0.6091	38980.18	3.7230	3.7229	2.1744	26.30	0.36	1.500			
0.6157	39405.68	3.7200	3.7200	2.2308	26.29	0.35	1.500			
0.6225	39842.22	3.7170	3.7170	2.2905	26.27	0.33	1.500			
0.6295	40286.70	3.7140	3.7140	2.3303	26.26	0.32	1.500			
0.6365	40738.25	3.7110	3.7110	2.3739	26.25	0.31	1.500			
0.6438	41204.07	3.7080	3.7080	2.3872	26.23	0.29	1.500			
0.6510	41663.09	3.7050	3.7050	2.3593	26.22	0.28	1.500			
0.6580	42114.42	3.7020	3.7019	2.2850	26.20	0.26	1.500			
0.6648	42550.06	3.6990	3.6990	2.1741	26.19	0.25	1.500			
0.6712	42958.10	3.6960	3.6960	2.0316	26.18	0.24	1.500			
0.6771	43331.72	3.6930	3.6931	1.8767	26.17	0.23	1.500			
0.6824	43675.52	3.6900	3.6899	1.7371	26.16	0.22	1.500			
0.6874	43993.13	3.6870	3.6870	1.6273	26.15	0.21	1.500			
0.6920	44289.83	3.6840	3.6840	1.5362	26.14	0.20	1.500			
0.6964	44572.25	3.6810	3.6810	1.4623	26.13	0.19	1.500			
0.7007	44843.23	3.6780	3.6780	1.4060	26.12	0.18	1.500			
0.7048	45105.25	3.6750	3.6750	1.3619	26.11	0.17	1.500			
0.7088	45361.57	3.6720	3.6719	1.3214	26.10	0.16	1.500			
0.7126	45607.95	3.6690	3.6690	1.2984	26.09	0.15	1.500			
0.7165	45854.71	3.6660	3.6660	1.2863	26.09	0.15	1.500			
0.7203	46099.10	3.6630	3.6629	1.2724	26.08	0.14	1.500			
0.7241	46340.42	3.6600	3.6600	1.2759	26.07	0.13	1.500			
0.7279	46582.43	3.6570	3.6571	1.2784	26.06	0.12	1.500			
0.7317	46830.59	3.6540	3.6540	1.2861	26.06	0.12	1.500			
0.7356	47079.83	3.6510	3.6510	1.2908	26.05	0.11	1.500			
0.7395	47327.59	3.6480	3.6480	1.2851	26.04	0.10	1.500			
0.7434	47576.01	3.6450	3.6451	1.2847	26.03	0.09	1.500			
0.7472	47822.72	3.6420	3.6420	1.2827	26.02	0.08	1.500			
0.7510	48066.04	3.6390	3.6390	1.2724	26.02	0.08	1.500			
0.7548	48310.29	3.6360	3.6360	1.2658	26.01	0.07	1.500			
0.7586	48552.91	3.6330	3.6330	1.2641	26.00	0.06	1.500			
0.7624	48795.53	3.6300	3.6300	1.2652	26.00	0.06	1.500			
0.7662	49039.12	3.6270	3.6269	1.2602	25.99	0.05	1.500			
0.7700	49281.50	3.6240	3.6240	1.2500	25.98	0.04	1.500			
0.7738	49520.83	3.6210	3.6210	1.2410	25.98	0.04	1.500			
0.7775	49759.87	3.6180	3.6181	1.2314	25.97	0.03	1.500			
0.7812	49996.05	3.6150	3.6149	1.2159	25.97	0.03	1.500			
0.7848	50226.97	3.6120	3.6120	1.1940	25.96	0.02	1.500			
0.7884	50454.61	3.6090	3.6090	1.1723	25.96	0.02	1.500			
0.7919	50679.61	3.6060	3.6060	1.1537	25.95	0.01	1.500			
0.7953	50897.87	3.6030	3.6030	1.1339	25.95	0.01	1.500			
0.7986	51112.71	3.6000	3.6000	1.1080	25.95	0.01	1.500			
0.8019	51322.76	3.5970	3.5970	1.0914	25.95	0.01	1.500			
0.8052	51530.89	3.5940	3.5940	1.0700	25.94	0.00	1.500			
0.8084	51738.72	3.5910	3.5909	1.0363	25.94	0.00	1.500			
0.8115	51937.20	3.5880	3.5880	0.9907	25.94	-0.00	1.500			
0.8145	52130.66	3.5850	3.5851	0.9256	25.94	-0.00	1.500			
0.8173	52304.92	3.5820	3.5821	0.8419	25.93	-0.01	1.500			
0.8197	52463.49	3.5790	3.5790	0.7473	25.93	-0.01	1.500			
0.8218	52595.76	3.5760	3.5760	0.6417	25.93	-0.01	1.500			
0.8235	52705.42	3.5730	3.5731	0.5462	25.93	-0.01	1.500			
0.8250	52797.73	3.5700	3.5700	0.4615	25.93	-0.01	1.500			
0.8261	52872.40	3.5670	3.5670	0.3881	25.93	-0.01	1.500			
0.8272	52937.82	3.5640	3.5640	0.3349	25.93	-0.01	1.500			
0.8280	52994.12	3.5610	3.5610	0.2849	25.93	-0.01	1.500			
0.8288	53043.52	3.5580	3.5579	0.2532	25.92	-0.02	1.500			
0.8295	53086.52	3.5550	3.5550	0.2249	25.92	-0.02	1.500			
0.8301	53125.89	3.5520	3.5520	0.2037	25.92	-0.02	1.500			
0.8307	53162.67	3.5490	3.5490	0.1849	25.92	-0.02	1.500			
0.8312	53195.85	3.5460	3.5460	0.1692	25.92	-0.02	1.500			
0.8317	53226.35	3.5430	3.5430	0.1537	25.92	-0.02	1.500			
0.8321	53254.55	3.5400	3.5400	0.1401	25.92	-0.02	1.500			
0.8325	53280.35	3.5370	3.5371	0.1262	25.92	-0.02	1.500			
0.8329	53303.33	3.5340	3.5341	0.1126	25.92	-0.02	1.500			
0.8332	53323.82	3.5310	3.5309	0.0990	25.92	-0.02	1.500			
0.8335	53341.29	3.5280	3.5280	0.0844	25.92	-0.02	1.500			
0.8337	53356.14	3.5250	3.5252	0.0703	25.92	-0.02	1.500			
0.8339	53368.44	3.5220	3.5224	0.0561	25.92	-0.02	1.500			
0.8340	53377.82	3.5190	3.5197	0.0417	25.92	-0.02	1.500			
0.8341	53384.45	3.5160	3.5173	0.0273	25.92	-0.02	1.500			
