Ah_balance (normalized)	Ah_balance (mAh)	Voltage - fit (V)	Voltage -  interpolate (V)	dQ/dV (1/V)	Temperature (°C)	Temperature - diff (°C)	Current (C)	R_DC 0ms (mOhm)	R_DC 50ms (mOhm)	R_DC 50 ms PEC (mOhm)
0.2777	17772.30	3.9870	3.9870	0.8308	27.17	1.21	1.500			
0.2802	17931.22	3.9840	3.9841	0.8335	27.17	1.21	1.500			
0.2827	18091.85	3.9810	3.9810	0.8420	27.16	1.20	1.500			
0.2852	18254.31	3.9780	3.9778	0.8508	27.16	1.20	1.500			
0.2878	18418.36	3.9750	3.9750	0.8546	27.16	1.20	1.500			
0.2904	18583.74	3.9720	3.9720	0.8586	27.15	1.19	1.500			
0.2930	18751.28	3.9690	3.9690	0.8655	27.15	1.19	1.500			
0.2956	18917.19	3.9660	3.9660	0.8644	27.14	1.18	1.500			
0.2982	19083.03	3.9630	3.9630	0.8659	27.14	1.18	1.500			
0.3008	19249.84	3.9600	3.9600	0.8661	27.14	1.18	1.500			
0.3034	19415.48	3.9570	3.9570	0.8688	27.13	1.17	1.500			
0.3060	19582.88	3.9540	3.9541	0.8729	27.13	1.17	1.500			
0.3086	19750.25	3.9510	3.9510	0.8778	27.12	1.16	1.500			
0.3112	19918.26	3.9480	3.9480	0.8817	27.12	1.16	1.500			
0.3139	20088.43	3.9450	3.9450	0.8865	27.11	1.15	1.500			
0.3165	20259.07	3.9420	3.9420	0.8934	27.11	1.15	1.500			
0.3193	20433.15	3.9390	3.9390	0.9012	27.10	1.14	1.500			
0.3220	20606.54	3.9360	3.9360	0.9016	27.10	1.14	1.500			
0.3247	20780.01	3.9330	3.9329	0.9035	27.09	1.13	1.500			
0.3274	20953.40	3.9300	3.9301	0.9039	27.09	1.13	1.500			
0.3301	21125.93	3.9270	3.9270	0.9054	27.08	1.12	1.500			
0.3328	21299.35	3.9240	3.9239	0.9126	27.07	1.11	1.500			
0.3355	21473.99	3.9210	3.9211	0.9180	27.07	1.11	1.500			
0.3383	21651.53	3.9180	3.9180	0.9231	27.07	1.11	1.500			
0.3411	21831.04	3.9150	3.9151	0.9317	27.06	1.10	1.500			
0.3439	22009.90	3.9120	3.9120	0.9434	27.06	1.10	1.500			
0.3467	22190.88	3.9090	3.9089	0.9491	27.05	1.09	1.500			
0.3496	22374.58	3.9060	3.9060	0.9543	27.05	1.09	1.500			
0.3525	22558.29	3.9030	3.9031	0.9603	27.04	1.08	1.500			
0.3554	22743.13	3.9000	3.9000	0.9722	27.04	1.08	1.500			
0.3583	22931.20	3.8970	3.8970	0.9814	27.03	1.07	1.500			
0.3612	23119.61	3.8940	3.8940	0.9857	27.03	1.07	1.500			
0.3642	23309.00	3.8910	3.8909	0.9909	27.02	1.06	1.500			
0.3672	23500.80	3.8880	3.8881	1.0065	27.02	1.06	1.500			
0.3702	23695.19	3.8850	3.8850	1.0164	27.01	1.05	1.500			
0.3733	23891.46	3.8820	3.8819	1.0246	27.00	1.04	1.500			
0.3764	24088.16	3.8790	3.8790	1.0343	27.00	1.04	1.500			
0.3795	24287.46	3.8760	3.8761	1.0458	26.99	1.03	1.500			
0.3827	24489.61	3.8730	3.8730	1.0557	26.99	1.03	1.500			
0.3858	24694.34	3.8700	3.8700	1.0627	26.98	1.02	1.500			
0.3890	24897.62	3.8670	3.8670	1.0723	26.97	1.01	1.500			
0.3923	25104.74	3.8640	3.8639	1.0842	26.96	1.00	1.500			
0.3955	25313.10	3.8610	3.8610	1.0995	26.96	1.00	1.500			
0.3988	25526.36	3.8580	3.8580	1.1066	26.95	0.99	1.500			
0.4022	25739.07	3.8550	3.8550	1.1292	26.94	0.98	1.500			
0.4056	25957.47	3.8520	3.8520	1.1487	26.93	0.97	1.500			
0.4091	26179.97	3.8490	3.8489	1.1678	26.92	0.96	1.500			
0.4126	26405.00	3.8460	3.8461	1.1866	26.91	0.95	1.500			
0.4162	26635.90	3.8430	3.8430	1.2079	26.90	0.94	1.500			
0.4198	26869.80	3.8400	3.8400	1.2264	26.89	0.93	1.500			
0.4236	27107.27	3.8370	3.8369	1.2347	26.88	0.92	1.500			
0.4273	27345.52	3.8340	3.8341	1.2521	26.87	0.91	1.500			
0.4310	27586.19	3.8310	3.8311	1.2764	26.86	0.90	1.500			
0.4349	27832.37	3.8280	3.8277	1.3029	26.85	0.89	1.500			
0.4388	28083.54	3.8250	3.8251	1.3288	26.84	0.88	1.500			
0.4429	28342.42	3.8220	3.8221	1.3579	26.83	0.87	1.500			
0.4470	28608.17	3.8190	3.8190	1.3905	26.82	0.86	1.500			
0.4512	28879.47	3.8160	3.8160	1.4202	26.81	0.85	1.500			
0.4555	29152.28	3.8130	3.8130	1.4413	26.79	0.83	1.500			
0.4598	29429.96	3.8100	3.8100	1.4715	26.78	0.82	1.500			
0.4643	29714.68	3.8070	3.8070	1.5010	26.77	0.81	1.500			
0.4689	30006.91	3.8040	3.8040	1.5277	26.75	0.79	1.500			
0.4735	30303.28	3.8010	3.8010	1.5586	26.74	0.78	1.500			
0.4782	30604.36	3.7980	3.7980	1.5830	26.72	0.76	1.500			
0.4830	30911.60	3.7950	3.7950	1.6076	26.71	0.75	1.500			
0.4879	31222.94	3.7920	3.7920	1.6472	26.69	0.73	1.500			
0.4929	31543.08	3.7890	3.7890	1.6696	26.68	0.72	1.500			
0.4979	31867.49	3.7860	3.7860	1.6925	26.67	0.71	1.500			
0.5030	32193.66	3.7830	3.7831	1.7185	26.66	0.70	1.500			
0.5082	32525.63	3.7800	3.7800	1.7430	26.64	0.68	1.500			
0.5135	32862.32	3.7770	3.7768	1.7722	26.63	0.67	1.500	0.345	0.463	
0.5188	33203.60	3.7740	3.7740	1.7759	26.61	0.65	1.500			
0.5243	33553.29	3.7710	3.7710	1.7960	26.60	0.64	1.500			
0.5296	33894.88	3.7680	3.7680	1.7921	26.58	0.62	1.500			
0.5350	34238.21	3.7650	3.7649	1.7880	26.56	0.60	1.500			
0.5403	34580.06	3.7620	3.7620	1.7830	26.55	0.59	1.500			
0.5457	34922.44	3.7590	3.7591	1.7779	26.53	0.57	1.500			
0.5509	35258.33	3.7560	3.7560	1.7773	26.52	0.56	1.500			
0.5562	35599.68	3.7530	3.7529	1.7838	26.51	0.55	1.500			
0.5616	35942.44	3.7500	3.7500	1.7935	26.50	0.54	1.500			
0.5670	36286.60	3.7470	3.7471	1.8144	26.48	0.52	1.500			
0.5725	36639.54	3.7440	3.7440	1.8482	26.46	0.50	1.500			
0.5780	36993.32	3.7410	3.7409	1.8593	26.44	0.48	1.500			
0.5836	37353.23	3.7380	3.7380	1.9019	26.43	0.47	1.500			
0.5894	37719.55	3.7350	3.7350	1.9396	26.41	0.45	1.500			
0.5952	38095.53	3.7320	3.7320	1.9919	26.40	0.44	1.500			
0.6012	38479.88	3.7290	3.7290	2.0306	26.38	0.42	1.500			
0.6075	38878.85	3.7260	3.7260	2.0936	26.37	0.41	1.500			
0.6138	39284.05	3.7230	3.7230	2.1457	26.35	0.39	1.500			
0.6203	39697.62	3.7200	3.7200	2.1981	26.34	0.38	1.500			
0.6270	40125.70	3.7170	3.7170	2.2731	26.32	0.36	1.500			
0.6339	40572.79	3.7140	3.7139	2.3447	26.30	0.34	1.500			
0.6411	41031.77	3.7110	3.7110	2.3938	26.29	0.33	1.500			
0.6483	41491.67	3.7080	3.7080	2.3956	26.27	0.31	1.500			
0.6555	41954.69	3.7050	3.7050	2.4167	26.25	0.29	1.500			
0.6629	42427.81	3.7020	3.7019	2.3673	26.23	0.27	1.500			
0.6701	42885.12	3.6990	3.6991	2.2601	26.22	0.26	1.500			
0.6768	43313.09	3.6960	3.6960	2.1439	26.20	0.24	1.500			
0.6829	43702.50	3.6930	3.6929	1.9718	26.19	0.23	1.500			
0.6884	44060.31	3.6900	3.6901	1.8209	26.17	0.21	1.500			
0.6937	44397.09	3.6870	3.6870	1.7065	26.16	0.20	1.500			
0.6986	44710.48	3.6840	3.6841	1.6064	26.15	0.19	1.500			
0.7033	45008.20	3.6810	3.6810	1.5176	26.14	0.18	1.500			
0.7076	45283.34	3.6780	3.6780	1.4411	26.14	0.18	1.500			
0.7117	45551.93	3.6750	3.6750	1.3856	26.13	0.17	1.500			
0.7158	45809.32	3.6720	3.6720	1.3419	26.12	0.16	1.500			
0.7197	46062.05	3.6690	3.6690	1.3078	26.11	0.15	1.500			
0.7236	46309.02	3.6660	3.6660	1.2777	26.10	0.14	1.500			
0.7273	46547.40	3.6630	3.6630	1.2671	26.10	0.14	1.500			
0.7310	46786.17	3.6600	3.6600	1.2584	26.09	0.13	1.500			
0.7348	47024.91	3.6570	3.6568	1.2634	26.08	0.12	1.500			
0.7385	47267.09	3.6540	3.6541	1.2727	26.07	0.11	1.500			
0.7424	47514.34	3.6510	3.6510	1.2816	26.06	0.10	1.500			
0.7463	47765.06	3.6480	3.6480	1.2929	26.05	0.09	1.500			
0.7502	48014.86	3.6450	3.6450	1.2867	26.04	0.08	1.500			
0.7541	48262.24	3.6420	3.6420	1.2810	26.03	0.07	1.500			
0.7579	48508.06	3.6390	3.6390	1.2790	26.03	0.07	1.500			
0.7618	48752.87	3.6360	3.6360	1.2674	26.02	0.06	1.500			
0.7655	48994.55	3.6330	3.6330	1.2565	26.01	0.05	1.500			
0.7693	49233.75	3.6300	3.6300	1.2548	26.00	0.04	1.500			
0.7730	49474.28	3.6270	3.6271	1.2504	25.99	0.03	1.500			
0.7768	49714.81	3.6240	3.6239	1.2482	25.99	0.03	1.500			
0.7805	49954.90	3.6210	3.6210	1.2416	25.98	0.02	1.500			
0.7843	50193.40	3.6180	3.6180	1.2311	25.97	0.01	1.500			
0.7880	50431.08	3.6150	3.6150	1.2268	25.97	0.01	1.500			
0.7916	50665.25	3.6120	3.6120	1.2118	25.96	0.00	1.500			
0.7952	50894.12	3.6090	3.6090	1.1922	25.96	-0.00	1.500			
0.7988	51123.49	3.6060	3.6060	1.1774	25.95	-0.01	1.500			
0.8023	51347.06	3.6030	3.6031	1.1584	25.95	-0.01	1.500			
0.8058	51570.09	3.6000	3.6000	1.1410	25.95	-0.01	1.500			
0.8092	51786.35	3.5970	3.5970	1.1191	25.94	-0.02	1.500			
0.8125	51997.72	3.5940	3.5939	1.0980	25.94	-0.02	1.500			
0.8158	52208.76	3.5910	3.5910	1.0733	25.94	-0.02	1.500			
0.8190	52414.30	3.5880	3.5879	1.0421	25.95	-0.01	1.500			
0.8221	52617.28	3.5850	3.5850	0.9959	25.95	-0.01	1.500			
0.8251	52807.42	3.5820	3.5821	0.9282	25.95	-0.01	1.500			
0.8279	52986.79	3.5790	3.5789	0.8436	25.95	-0.01	1.500			
0.8303	53141.59	3.5760	3.5762	0.7407	25.96	-0.00	1.500			
0.8324	53272.72	3.5730	3.5730	0.6381	25.96	-0.00	1.500			
0.8341	53383.66	3.5700	3.5699	0.5369	25.96	-0.00	1.500			
0.8355	53471.37	3.5670	3.5670	0.4459	25.96	0.00	1.500			
0.8366	53544.57	3.5640	3.5640	0.3782	25.96	0.00	1.500			
0.8376	53606.77	3.5610	3.5610	0.3229	25.96	0.00	1.500			
0.8385	53660.96	3.5580	3.5579	0.2810	25.96	0.00	1.500			
0.8392	53708.04	3.5550	3.5549	0.2424	25.96	0.00	1.500			
0.8398	53749.90	3.5520	3.5520	0.2173	25.96	0.00	1.500			
0.8404	53788.05	3.5490	3.5490	0.1965	25.96	0.00	1.500			
0.8410	53822.84	3.5460	3.5459	0.1772	25.96	0.00	1.500			
0.8415	53855.36	3.5430	3.5431	0.1616	25.97	0.01	1.500			
0.8419	53884.36	3.5400	3.5400	0.1466	25.97	0.01	1.500			
0.8424	53910.90	3.5370	3.5370	0.1319	25.97	0.01	1.500			
0.8427	53934.86	3.5340	3.5340	0.1180	25.97	0.01	1.500			
0.8431	53956.19	3.5310	3.5311	0.1042	25.97	0.01	1.500			
0.8434	53974.84	3.5280	3.5281	0.0904	25.97	0.01	1.500			
0.8436	53990.93	3.5250	3.5250	0.0767	25.97	0.01	1.500			
0.8438	54004.33	3.5220	3.5223	0.0629	25.97	0.01	1.500			
0.8440	54015.19	3.5190	3.5195	0.0487	25.97	0.01	1.500			
0.8441	54023.19	3.5160	3.5169	0.0346	25.97	0.01	1.500			
