Ah_balance (normalized)	Ah_balance (mAh)	Voltage - fit (V)	Voltage -  interpolate (V)	dQ/dV (1/V)	Temperature (°C)	Temperature - diff (°C)	Current (C)	R_DC 0ms (mOhm)	R_DC 50ms (mOhm)	R_DC 50 ms PEC (mOhm)
0.2924	18713.79	3.9820	3.9819	0.8403	26.94	0.98	1.500			
0.2949	18875.86	3.9790	3.9791	0.8471	26.94	0.98	1.500			
0.2975	19039.63	3.9760	3.9760	0.8522	26.93	0.97	1.500			
0.3001	19203.58	3.9730	3.9729	0.8554	26.93	0.97	1.500			
0.3026	19367.98	3.9700	3.9700	0.8606	26.92	0.96	1.500			
0.3052	19533.40	3.9670	3.9670	0.8652	26.92	0.96	1.500			
0.3078	19700.35	3.9640	3.9639	0.8658	26.92	0.96	1.500			
0.3104	19866.80	3.9610	3.9610	0.8674	26.91	0.95	1.500			
0.3130	20034.02	3.9580	3.9581	0.8697	26.91	0.95	1.500			
0.3156	20201.03	3.9550	3.9550	0.8754	26.90	0.94	1.500			
0.3183	20369.06	3.9520	3.9520	0.8776	26.90	0.94	1.500			
0.3209	20536.83	3.9490	3.9490	0.8800	26.90	0.94	1.500			
0.3235	20707.01	3.9460	3.9460	0.8878	26.89	0.93	1.500			
0.3262	20878.28	3.9430	3.9430	0.8935	26.89	0.93	1.500			
0.3289	21049.61	3.9400	3.9400	0.8996	26.89	0.93	1.500			
0.3316	21223.95	3.9370	3.9370	0.9036	26.88	0.92	1.500			
0.3343	21397.34	3.9340	3.9340	0.9064	26.88	0.92	1.500			
0.3371	21572.40	3.9310	3.9310	0.9137	26.88	0.92	1.500			
0.3398	21748.20	3.9280	3.9281	0.9153	26.87	0.91	1.500			
0.3426	21924.10	3.9250	3.9249	0.9189	26.87	0.91	1.500			
0.3453	22101.12	3.9220	3.9220	0.9206	26.86	0.90	1.500			
0.3481	22277.27	3.9190	3.9189	0.9214	26.86	0.90	1.500			
0.3508	22454.12	3.9160	3.9161	0.9332	26.85	0.89	1.500			
0.3537	22634.28	3.9130	3.9130	0.9415	26.85	0.89	1.500			
0.3565	22814.97	3.9100	3.9099	0.9463	26.84	0.88	1.500			
0.3593	22998.26	3.9070	3.9071	0.9564	26.84	0.88	1.500			
0.3622	23182.56	3.9040	3.9040	0.9639	26.83	0.87	1.500			
0.3651	23368.89	3.9010	3.9010	0.9719	26.82	0.86	1.500			
0.3681	23555.66	3.8980	3.8980	0.9779	26.82	0.86	1.500			
0.3710	23742.85	3.8950	3.8950	0.9851	26.81	0.85	1.500			
0.3740	23933.74	3.8920	3.8920	0.9961	26.81	0.85	1.500			
0.3770	24126.02	3.8890	3.8890	1.0050	26.80	0.84	1.500			
0.3800	24319.79	3.8860	3.8860	1.0129	26.79	0.83	1.500			
0.3830	24514.65	3.8830	3.8830	1.0214	26.79	0.83	1.500			
0.3861	24710.34	3.8800	3.8800	1.0350	26.78	0.82	1.500			
0.3892	24908.79	3.8770	3.8770	1.0469	26.78	0.82	1.500			
0.3924	25111.36	3.8740	3.8739	1.0600	26.77	0.81	1.500			
0.3956	25317.18	3.8710	3.8710	1.0686	26.76	0.80	1.500			
0.3988	25523.59	3.8680	3.8680	1.0814	26.76	0.80	1.500			
0.4021	25733.57	3.8650	3.8651	1.0925	26.75	0.79	1.500			
0.4054	25943.78	3.8620	3.8619	1.0988	26.74	0.78	1.500			
0.4086	26152.58	3.8590	3.8590	1.1109	26.74	0.78	1.500			
0.4120	26368.72	3.8560	3.8560	1.1279	26.73	0.77	1.500			
0.4154	26585.99	3.8530	3.8530	1.1478	26.72	0.76	1.500			
0.4189	26807.67	3.8500	3.8500	1.1702	26.72	0.76	1.500			
0.4224	27032.84	3.8470	3.8470	1.1860	26.71	0.75	1.500			
0.4260	27263.51	3.8440	3.8439	1.2090	26.70	0.74	1.500			
0.4297	27500.05	3.8410	3.8410	1.2204	26.69	0.73	1.500			
0.4333	27733.87	3.8380	3.8381	1.2439	26.68	0.72	1.500			
0.4371	27975.32	3.8350	3.8350	1.2656	26.67	0.71	1.500			
0.4409	28217.70	3.8320	3.8320	1.2905	26.66	0.70	1.500			
0.4448	28467.74	3.8290	3.8291	1.3195	26.65	0.69	1.500			
0.4488	28724.21	3.8260	3.8260	1.3455	26.64	0.68	1.500			
0.4529	28987.11	3.8230	3.8230	1.3614	26.63	0.67	1.500			
0.4570	29248.81	3.8200	3.8201	1.3947	26.62	0.66	1.500			
0.4613	29520.38	3.8170	3.8170	1.4259	26.61	0.65	1.500			
0.4656	29796.08	3.8140	3.8140	1.4585	26.60	0.64	1.500			
0.4700	30077.99	3.8110	3.8111	1.4914	26.60	0.64	1.500			
0.4745	30368.20	3.8080	3.8081	1.5273	26.59	0.63	1.500			
0.4791	30665.56	3.8050	3.8050	1.5689	26.58	0.62	1.500			
0.4839	30972.55	3.8020	3.8020	1.6048	26.57	0.61	1.500			
0.4888	31280.47	3.7990	3.7990	1.6323	26.57	0.61	1.500			
0.4937	31598.65	3.7960	3.7960	1.6697	26.56	0.60	1.500			
0.4987	31919.93	3.7930	3.7930	1.7183	26.54	0.58	1.500			
0.5040	32253.62	3.7900	3.7900	1.7460	26.52	0.56	1.500			
0.5093	32593.80	3.7870	3.7870	1.7742	26.51	0.55	1.500			
0.5147	32940.99	3.7840	3.7842	1.8080	26.49	0.53	1.500			
0.5202	33289.84	3.7810	3.7811	1.8296	26.47	0.51	1.500			
0.5257	33641.75	3.7780	3.7780	1.8350	26.46	0.50	1.500			
0.5311	33987.67	3.7750	3.7751	1.8806	26.45	0.49	1.500			
0.5368	34355.46	3.7720	3.7719	1.9079	26.43	0.47	1.500	0.349	0.462	
0.5427	34732.29	3.7690	3.7689	1.9489	26.42	0.46	1.500			
0.5486	35110.38	3.7660	3.7661	1.9649	26.40	0.44	1.500			
0.5546	35496.04	3.7630	3.7630	1.9589	26.39	0.43	1.500			
0.5603	35857.81	3.7600	3.7600	1.9085	26.38	0.42	1.500			
0.5660	36223.62	3.7570	3.7570	1.9057	26.36	0.40	1.500			
0.5717	36588.47	3.7540	3.7540	1.9105	26.35	0.39	1.500			
0.5775	36957.36	3.7510	3.7511	1.9035	26.34	0.38	1.500			
0.5831	37321.30	3.7480	3.7480	1.9050	26.32	0.36	1.500			
0.5888	37685.92	3.7450	3.7451	1.8972	26.31	0.35	1.500			
0.5945	38048.42	3.7420	3.7419	1.9020	26.29	0.33	1.500			
0.6002	38413.48	3.7390	3.7391	1.9023	26.28	0.32	1.500			
0.6059	38778.83	3.7360	3.7360	1.9346	26.27	0.31	1.500			
0.6117	39150.90	3.7330	3.7330	1.9592	26.25	0.29	1.500			
0.6177	39531.70	3.7300	3.7299	2.0066	26.24	0.28	1.500			
0.6238	39923.90	3.7270	3.7270	2.0558	26.23	0.27	1.500			
0.6300	40321.52	3.7240	3.7240	2.1273	26.22	0.26	1.500			
0.6365	40733.39	3.7210	3.7210	2.1841	26.21	0.25	1.500			
0.6432	41161.85	3.7180	3.7179	2.2600	26.20	0.24	1.500			
0.6501	41605.24	3.7150	3.7150	2.3179	26.18	0.22	1.500			
0.6571	42054.08	3.7120	3.7120	2.3994	26.16	0.20	1.500			
0.6643	42517.14	3.7090	3.7090	2.4668	26.15	0.19	1.500			
0.6718	42997.43	3.7060	3.7060	2.5178	26.13	0.17	1.500			
0.6795	43489.56	3.7030	3.7030	2.5251	26.12	0.16	1.500			
0.6871	43976.62	3.7000	3.7001	2.5056	26.11	0.15	1.500			
0.6947	44463.53	3.6970	3.6969	2.4263	26.10	0.14	1.500			
0.7020	44928.78	3.6940	3.6941	2.2914	26.09	0.13	1.500			
0.7087	45355.30	3.6910	3.6911	2.1502	26.09	0.13	1.500			
0.7147	45740.48	3.6880	3.6880	1.9580	26.08	0.12	1.500			
0.7202	46095.40	3.6850	3.6850	1.8091	26.08	0.12	1.500			
0.7255	46432.55	3.6820	3.6820	1.7001	26.07	0.11	1.500			
0.7304	46745.45	3.6790	3.6791	1.6018	26.06	0.10	1.500			
0.7350	47042.58	3.6760	3.6760	1.5134	26.05	0.09	1.500			
0.7393	47317.87	3.6730	3.6730	1.4320	26.04	0.08	1.500			
0.7435	47582.51	3.6700	3.6700	1.3682	26.04	0.08	1.500			
0.7474	47835.41	3.6670	3.6670	1.3227	26.04	0.08	1.500			
0.7513	48082.25	3.6640	3.6640	1.2920	26.03	0.07	1.500			
0.7551	48325.17	3.6610	3.6610	1.2709	26.03	0.07	1.500			
0.7588	48563.99	3.6580	3.6580	1.2580	26.03	0.07	1.500			
0.7625	48801.50	3.6550	3.6550	1.2605	26.02	0.06	1.500			
0.7663	49044.35	3.6520	3.6520	1.2663	26.02	0.06	1.500			
0.7701	49288.19	3.6490	3.6490	1.2731	26.02	0.06	1.500			
0.7740	49534.12	3.6460	3.6461	1.2819	26.01	0.05	1.500			
0.7779	49782.45	3.6430	3.6430	1.2848	26.00	0.04	1.500			
0.7817	50030.92	3.6400	3.6399	1.2866	26.00	0.04	1.500			
0.7856	50277.50	3.6370	3.6370	1.2813	25.99	0.03	1.500			
0.7894	50522.57	3.6340	3.6340	1.2780	25.98	0.02	1.500			
0.7933	50769.38	3.6310	3.6310	1.2770	25.98	0.02	1.500			
0.7971	51014.06	3.6280	3.6280	1.2670	25.97	0.01	1.500			
0.8009	51256.08	3.6250	3.6250	1.2611	25.97	0.01	1.500			
0.8047	51498.27	3.6220	3.6221	1.2533	25.96	0.00	1.500			
0.8084	51737.71	3.6190	3.6190	1.2465	25.95	-0.01	1.500			
0.8121	51975.97	3.6160	3.6161	1.2416	25.95	-0.01	1.500			
0.8158	52213.44	3.6130	3.6130	1.2338	25.94	-0.02	1.500			
0.8195	52450.39	3.6100	3.6100	1.2244	25.94	-0.02	1.500			
0.8232	52687.07	3.6070	3.6070	1.2134	25.94	-0.02	1.500			
0.8269	52918.96	3.6040	3.6040	1.1966	25.93	-0.03	1.500			
0.8305	53149.35	3.6010	3.6009	1.1804	25.93	-0.03	1.500			
0.8339	53372.09	3.5980	3.5980	1.1603	25.93	-0.03	1.500			
0.8374	53593.11	3.5950	3.5951	1.1442	25.92	-0.04	1.500			
0.8408	53811.11	3.5920	3.5919	1.1278	25.92	-0.04	1.500			
0.8442	54025.72	3.5890	3.5890	1.1154	25.92	-0.04	1.500			
0.8475	54238.82	3.5860	3.5860	1.1006	25.93	-0.03	1.500			
0.8508	54449.40	3.5830	3.5830	1.0771	25.93	-0.03	1.500			
0.8541	54661.93	3.5800	3.5799	1.0301	25.94	-0.02	1.500			
0.8572	54861.39	3.5770	3.5770	0.9677	25.94	-0.02	1.500			
0.8601	55046.72	3.5740	3.5740	0.8692	25.95	-0.01	1.500			
0.8626	55208.85	3.5710	3.5711	0.7633	25.95	-0.01	1.500			
0.8647	55341.70	3.5680	3.5680	0.6418	25.96	-0.00	1.500			
0.8664	55450.30	3.5650	3.5650	0.5346	25.96	-0.00	1.500			
0.8678	55536.78	3.5620	3.5618	0.4405	25.96	0.00	1.500			
0.8689	55608.70	3.5590	3.5589	0.3745	25.96	0.00	1.500			
0.8698	55667.23	3.5560	3.5561	0.3141	25.96	0.00	1.500			
0.8707	55721.77	3.5530	3.5528	0.2702	25.97	0.01	1.500			
0.8714	55767.69	3.5500	3.5500	0.2385	25.97	0.01	1.500			
0.8720	55807.82	3.5470	3.5469	0.2101	25.97	0.01	1.500			
0.8726	55844.57	3.5440	3.5439	0.1885	25.97	0.01	1.500			
0.8731	55878.25	3.5410	3.5409	0.1692	25.97	0.01	1.500			
0.8736	55908.43	3.5380	3.5381	0.1523	25.97	0.01	1.500			
0.8740	55936.52	3.5350	3.5351	0.1380	25.97	0.01	1.500			
0.8744	55961.31	3.5320	3.5320	0.1233	25.97	0.01	1.500			
0.8747	55983.59	3.5290	3.5290	0.1087	25.97	0.01	1.500			
0.8750	56002.75	3.5260	3.5260	0.0939	25.97	0.01	1.500			
0.8753	56019.28	3.5230	3.5231	0.0797	25.97	0.01	1.500			
0.8755	56033.25	3.5200	3.5203	0.0658	25.97	0.01	1.500			
0.8757	56044.63	3.5170	3.5177	0.0516	25.97	0.01	1.500			
0.8758	56053.18	3.5140	3.5147	0.0375	25.97	0.01	1.500			
