Ah_balance (normalized)	Ah_balance (mAh)	Voltage - fit (V)	Voltage -  interpolate (V)	dQ/dV (1/V)	Temperature (°C)	Temperature - diff (°C)	Current (C)	R_DC 0ms (mOhm)	R_DC 50ms (mOhm)	R_DC 50 ms PEC (mOhm)
0.2778	17776.67	3.9900	3.9900	0.7999	27.28	1.33	1.500			
0.2803	17936.09	3.9870	3.9870	0.8314	27.27	1.32	1.500			
0.2828	18097.71	3.9840	3.9839	0.8416	27.27	1.32	1.500			
0.2853	18261.08	3.9810	3.9811	0.8443	27.27	1.32	1.500			
0.2879	18425.86	3.9780	3.9780	0.8506	27.26	1.31	1.500			
0.2904	18588.34	3.9750	3.9750	0.8515	27.26	1.31	1.500			
0.2930	18749.36	3.9720	3.9720	0.8528	27.25	1.30	1.500			
0.2955	18914.45	3.9690	3.9689	0.8566	27.25	1.30	1.500			
0.2981	19080.20	3.9660	3.9660	0.8592	27.24	1.29	1.500			
0.3007	19245.60	3.9630	3.9630	0.8635	27.24	1.29	1.500			
0.3033	19411.40	3.9600	3.9600	0.8687	27.24	1.29	1.500			
0.3059	19578.07	3.9570	3.9570	0.8706	27.23	1.28	1.500			
0.3085	19745.69	3.9540	3.9539	0.8728	27.23	1.28	1.500			
0.3111	19912.29	3.9510	3.9511	0.8771	27.22	1.27	1.500			
0.3138	20082.63	3.9480	3.9480	0.8867	27.21	1.26	1.500			
0.3165	20253.37	3.9450	3.9450	0.8956	27.21	1.26	1.500			
0.3191	20425.49	3.9420	3.9420	0.9013	27.20	1.25	1.500			
0.3219	20599.16	3.9390	3.9390	0.9044	27.19	1.24	1.500			
0.3246	20774.29	3.9360	3.9361	0.9116	27.19	1.24	1.500			
0.3273	20950.14	3.9330	3.9330	0.9195	27.18	1.23	1.500			
0.3301	21126.37	3.9300	3.9300	0.9235	27.18	1.23	1.500			
0.3329	21304.40	3.9270	3.9270	0.9252	27.17	1.22	1.500			
0.3357	21482.20	3.9240	3.9240	0.9286	27.16	1.21	1.500			
0.3385	21660.91	3.9210	3.9211	0.9367	27.16	1.21	1.500			
0.3413	21841.90	3.9180	3.9180	0.9410	27.15	1.20	1.500			
0.3441	22021.99	3.9150	3.9149	0.9430	27.14	1.19	1.500			
0.3469	22203.84	3.9120	3.9120	0.9447	27.13	1.18	1.500			
0.3498	22386.19	3.9090	3.9091	0.9476	27.13	1.18	1.500			
0.3526	22567.17	3.9060	3.9060	0.9590	27.12	1.17	1.500			
0.3555	22750.00	3.9030	3.9031	0.9677	27.11	1.16	1.500			
0.3584	22937.11	3.9000	3.8999	0.9775	27.11	1.16	1.500			
0.3614	23127.70	3.8970	3.8970	0.9881	27.10	1.15	1.500			
0.3644	23319.23	3.8940	3.8940	0.9939	27.09	1.14	1.500			
0.3674	23511.81	3.8910	3.8911	1.0035	27.08	1.13	1.500			
0.3704	23703.50	3.8880	3.8880	1.0078	27.07	1.12	1.500			
0.3734	23895.00	3.8850	3.8849	1.0157	27.06	1.11	1.500			
0.3764	24091.10	3.8820	3.8820	1.0251	27.05	1.10	1.500			
0.3795	24290.23	3.8790	3.8791	1.0392	27.04	1.09	1.500			
0.3827	24492.63	3.8760	3.8760	1.0545	27.03	1.08	1.500			
0.3859	24695.70	3.8730	3.8730	1.0659	27.02	1.07	1.500			
0.3891	24900.66	3.8700	3.8700	1.0728	27.01	1.06	1.500			
0.3923	25107.31	3.8670	3.8670	1.0857	27.00	1.05	1.500			
0.3956	25317.46	3.8640	3.8641	1.0947	26.99	1.04	1.500			
0.3989	25529.47	3.8610	3.8610	1.1146	26.98	1.03	1.500			
0.4022	25743.64	3.8580	3.8580	1.1289	26.97	1.02	1.500			
0.4056	25961.60	3.8550	3.8550	1.1434	26.96	1.01	1.500			
0.4091	26182.90	3.8520	3.8521	1.1559	26.95	1.00	1.500			
0.4126	26408.24	3.8490	3.8490	1.1722	26.94	0.99	1.500			
0.4161	26633.20	3.8460	3.8460	1.1854	26.93	0.98	1.500			
0.4197	26863.13	3.8430	3.8429	1.1961	26.92	0.97	1.500			
0.4233	27090.11	3.8400	3.8401	1.2201	26.91	0.96	1.500			
0.4270	27327.83	3.8370	3.8370	1.2390	26.90	0.95	1.500			
0.4308	27568.36	3.8340	3.8340	1.2622	26.88	0.93	1.500			
0.4346	27812.99	3.8310	3.8311	1.2865	26.87	0.92	1.500			
0.4385	28062.04	3.8280	3.8281	1.3091	26.86	0.91	1.500			
0.4425	28317.08	3.8250	3.8250	1.3250	26.85	0.90	1.500			
0.4464	28570.78	3.8220	3.8219	1.3486	26.83	0.88	1.500			
0.4505	28832.27	3.8190	3.8190	1.3732	26.82	0.87	1.500			
0.4547	29099.72	3.8160	3.8160	1.4049	26.81	0.86	1.500			
0.4589	29370.47	3.8130	3.8131	1.4249	26.79	0.84	1.500			
0.4632	29646.82	3.8100	3.8100	1.4479	26.78	0.83	1.500			
0.4676	29926.96	3.8070	3.8070	1.4811	26.76	0.81	1.500			
0.4721	30213.23	3.8040	3.8040	1.5009	26.74	0.79	1.500			
0.4766	30505.38	3.8010	3.8009	1.5293	26.72	0.77	1.500			
0.4813	30803.42	3.7980	3.7981	1.5549	26.70	0.75	1.500			
0.4860	31105.16	3.7950	3.7950	1.5842	26.69	0.74	1.500			
0.4908	31410.71	3.7920	3.7920	1.6067	26.68	0.73	1.500			
0.4956	31715.56	3.7890	3.7890	1.6324	26.66	0.71	1.500			
0.5006	32035.65	3.7860	3.7860	1.6682	26.65	0.70	1.500			
0.5056	32361.17	3.7830	3.7824	1.6936	26.63	0.68	1.500	0.349	0.478	
0.5108	32691.37	3.7800	3.7801	1.7059	26.62	0.67	1.500			
0.5160	33021.46	3.7770	3.7770	1.7034	26.60	0.65	1.500			
0.5211	33347.68	3.7740	3.7741	1.7037	26.59	0.64	1.500			
0.5261	33671.22	3.7710	3.7710	1.7093	26.57	0.62	1.500			
0.5313	34000.80	3.7680	3.7679	1.7256	26.55	0.60	1.500			
0.5364	34332.18	3.7650	3.7650	1.7314	26.54	0.59	1.500			
0.5417	34670.37	3.7620	3.7620	1.7461	26.52	0.57	1.500			
0.5469	35004.53	3.7590	3.7590	1.7462	26.50	0.55	1.500			
0.5522	35340.57	3.7560	3.7560	1.7504	26.49	0.54	1.500			
0.5575	35677.61	3.7530	3.7529	1.7604	26.47	0.52	1.500			
0.5627	36014.53	3.7500	3.7500	1.7742	26.45	0.50	1.500			
0.5681	36355.51	3.7470	3.7470	1.7846	26.44	0.49	1.500			
0.5734	36697.19	3.7440	3.7440	1.8155	26.42	0.47	1.500			
0.5789	37049.38	3.7410	3.7411	1.8665	26.41	0.46	1.500			
0.5846	37411.65	3.7380	3.7380	1.9189	26.39	0.44	1.500			
0.5904	37788.39	3.7350	3.7350	1.9578	26.38	0.43	1.500			
0.5964	38166.47	3.7320	3.7321	2.0081	26.37	0.42	1.500			
0.6024	38556.67	3.7290	3.7290	2.0639	26.35	0.40	1.500			
0.6087	38957.12	3.7260	3.7260	2.1198	26.34	0.39	1.500			
0.6152	39372.35	3.7230	3.7230	2.1853	26.32	0.37	1.500			
0.6219	39801.68	3.7200	3.7200	2.2566	26.30	0.35	1.500			
0.6287	40236.82	3.7170	3.7170	2.3004	26.29	0.34	1.500			
0.6357	40685.04	3.7140	3.7140	2.3364	26.27	0.32	1.500			
0.6429	41143.08	3.7110	3.7110	2.3345	26.25	0.30	1.500			
0.6498	41587.16	3.7080	3.7080	2.2999	26.24	0.29	1.500			
0.6567	42026.86	3.7050	3.7049	2.2261	26.22	0.27	1.500			
0.6633	42451.57	3.7020	3.7021	2.1245	26.21	0.26	1.500			
0.6696	42851.98	3.6990	3.6990	2.0083	26.19	0.24	1.500			
0.6753	43218.01	3.6960	3.6960	1.8487	26.18	0.23	1.500			
0.6805	43553.57	3.6930	3.6930	1.7217	26.16	0.21	1.500			
0.6855	43873.20	3.6900	3.6900	1.6219	26.15	0.20	1.500			
0.6901	44169.05	3.6870	3.6870	1.5278	26.15	0.20	1.500			
0.6946	44453.04	3.6840	3.6841	1.4585	26.14	0.19	1.500			
0.6988	44721.81	3.6810	3.6810	1.4016	26.13	0.18	1.500			
0.7029	44985.92	3.6780	3.6780	1.3572	26.13	0.18	1.500			
0.7069	45239.27	3.6750	3.6749	1.3174	26.12	0.17	1.500			
0.7107	45485.70	3.6720	3.6721	1.2951	26.11	0.16	1.500			
0.7146	45731.86	3.6690	3.6690	1.2771	26.10	0.15	1.500			
0.7183	45973.31	3.6660	3.6660	1.2696	26.09	0.14	1.500			
0.7221	46213.97	3.6630	3.6630	1.2658	26.08	0.13	1.500			
0.7259	46456.95	3.6600	3.6600	1.2663	26.08	0.13	1.500			
0.7297	46702.37	3.6570	3.6570	1.2720	26.07	0.12	1.500			
0.7336	46948.46	3.6540	3.6541	1.2707	26.06	0.11	1.500			
0.7374	47192.47	3.6510	3.6510	1.2684	26.05	0.10	1.500			
0.7412	47437.82	3.6480	3.6480	1.2647	26.04	0.09	1.500			
0.7450	47679.75	3.6450	3.6449	1.2523	26.03	0.08	1.500			
0.7487	47919.27	3.6420	3.6420	1.2372	26.02	0.07	1.500			
0.7524	48156.03	3.6390	3.6390	1.2276	26.01	0.06	1.500			
0.7561	48388.99	3.6360	3.6360	1.2154	26.00	0.05	1.500			
0.7597	48621.32	3.6330	3.6330	1.2092	26.00	0.05	1.500			
0.7633	48851.37	3.6300	3.6301	1.2008	25.99	0.04	1.500			
0.7669	49082.65	3.6270	3.6270	1.1937	25.98	0.03	1.500			
0.7705	49311.93	3.6240	3.6239	1.1853	25.98	0.03	1.500			
0.7741	49540.22	3.6210	3.6210	1.1724	25.97	0.02	1.500			
0.7776	49763.64	3.6180	3.6180	1.1552	25.97	0.02	1.500			
0.7810	49985.20	3.6150	3.6150	1.1369	25.96	0.01	1.500			
0.7844	50201.61	3.6120	3.6120	1.1183	25.96	0.01	1.500			
0.7877	50414.47	3.6090	3.6090	1.0970	25.96	0.01	1.500			
0.7910	50623.31	3.6060	3.6060	1.0759	25.96	0.01	1.500			
0.7942	50828.32	3.6030	3.6030	1.0495	25.96	0.01	1.500			
0.7973	51028.40	3.6000	3.6000	1.0206	25.95	0.00	1.500			
0.8004	51223.42	3.5970	3.5970	0.9875	25.95	0.00	1.500			
0.8033	51410.69	3.5940	3.5940	0.9490	25.95	0.00	1.500			
0.8061	51592.50	3.5910	3.5910	0.8985	25.95	0.00	1.500			
0.8088	51762.89	3.5880	3.5880	0.8394	25.95	-0.00	1.500			
0.8113	51923.64	3.5850	3.5850	0.7643	25.95	-0.00	1.500			
0.8135	52065.02	3.5820	3.5820	0.6801	25.95	-0.00	1.500			
0.8154	52187.89	3.5790	3.5791	0.5952	25.95	-0.00	1.500			
0.8171	52291.42	3.5760	3.5760	0.5062	25.95	-0.00	1.500			
0.8184	52375.80	3.5730	3.5730	0.4254	25.95	-0.00	1.500			
0.8195	52447.39	3.5700	3.5699	0.3634	25.95	-0.00	1.500			
0.8204	52506.98	3.5670	3.5671	0.3098	25.94	-0.01	1.500			
0.8213	52560.33	3.5640	3.5640	0.2722	25.94	-0.01	1.500			
0.8220	52606.91	3.5610	3.5610	0.2359	25.94	-0.01	1.500			
0.8226	52647.57	3.5580	3.5579	0.2109	25.94	-0.01	1.500			
0.8232	52684.12	3.5550	3.5550	0.1889	25.94	-0.01	1.500			
0.8237	52718.18	3.5520	3.5521	0.1701	25.94	-0.01	1.500			
0.8242	52749.11	3.5490	3.5489	0.1547	25.94	-0.01	1.500			
0.8246	52777.27	3.5460	3.5460	0.1390	25.94	-0.01	1.500			
0.8250	52802.00	3.5430	3.5429	0.1233	25.94	-0.01	1.500			
0.8254	52824.37	3.5400	3.5401	0.1091	25.94	-0.01	1.500			
0.8257	52843.91	3.5370	3.5370	0.0945	25.94	-0.01	1.500			
0.8259	52860.43	3.5340	3.5341	0.0798	25.94	-0.01	1.500			
0.8262	52874.37	3.5310	3.5312	0.0655	25.94	-0.01	1.500			
0.8263	52885.76	3.5280	3.5285	0.0506	25.94	-0.01	1.500			
0.8265	52894.06	3.5250	3.5259	0.0358	25.94	-0.01	1.500			
