Ah_balance (normalized)	Ah_balance (mAh)	Voltage - fit (V)	Voltage -  interpolate (V)	dQ/dV (1/V)	Temperature (°C)	Temperature - diff (°C)	Current (C)	R_DC 0ms (mOhm)	R_DC 50ms (mOhm)	R_DC 50 ms PEC (mOhm)
0.3041	19463.28	3.9730	3.9730	0.8338	27.03	1.09	1.500			
0.3066	19624.71	3.9700	3.9700	0.8487	27.03	1.09	1.500			
0.3092	19790.65	3.9670	3.9670	0.8633	27.02	1.08	1.500			
0.3118	19957.82	3.9640	3.9640	0.8694	27.02	1.08	1.500			
0.3145	20125.70	3.9610	3.9610	0.8783	27.01	1.07	1.500			
0.3171	20295.30	3.9580	3.9581	0.8791	27.01	1.07	1.500			
0.3198	20464.56	3.9550	3.9549	0.8837	27.00	1.06	1.500			
0.3224	20634.21	3.9520	3.9521	0.8858	27.00	1.06	1.500			
0.3251	20804.20	3.9490	3.9488	0.8894	26.99	1.05	1.500			
0.3277	20975.79	3.9460	3.9461	0.8945	26.99	1.05	1.500			
0.3304	21147.97	3.9430	3.9430	0.8964	26.98	1.04	1.500			
0.3331	21319.16	3.9400	3.9400	0.9003	26.97	1.03	1.500			
0.3358	21493.76	3.9370	3.9369	0.9064	26.97	1.03	1.500			
0.3385	21666.29	3.9340	3.9340	0.9073	26.96	1.02	1.500			
0.3413	21841.73	3.9310	3.9310	0.9094	26.96	1.02	1.500			
0.3440	22016.71	3.9280	3.9280	0.9153	26.95	1.01	1.500			
0.3468	22192.57	3.9250	3.9250	0.9231	26.95	1.01	1.500			
0.3495	22369.84	3.9220	3.9219	0.9280	26.94	1.00	1.500			
0.3523	22547.81	3.9190	3.9190	0.9366	26.94	1.00	1.500			
0.3551	22729.17	3.9160	3.9160	0.9437	26.93	0.99	1.500			
0.3580	22911.59	3.9130	3.9130	0.9510	26.93	0.99	1.500			
0.3609	23095.39	3.9100	3.9100	0.9598	26.92	0.98	1.500			
0.3637	23279.39	3.9070	3.9071	0.9640	26.92	0.98	1.500			
0.3666	23465.12	3.9040	3.9039	0.9662	26.91	0.97	1.500			
0.3695	23650.95	3.9010	3.9010	0.9768	26.91	0.97	1.500			
0.3725	23838.04	3.8980	3.8981	0.9801	26.90	0.96	1.500			
0.3754	24027.18	3.8950	3.8949	0.9890	26.90	0.96	1.500			
0.3784	24218.02	3.8920	3.8920	0.9965	26.90	0.96	1.500			
0.3814	24409.40	3.8890	3.8889	1.0083	26.89	0.95	1.500			
0.3844	24604.46	3.8860	3.8860	1.0180	26.89	0.95	1.500			
0.3875	24800.89	3.8830	3.8830	1.0311	26.88	0.94	1.500			
0.3906	24998.22	3.8800	3.8800	1.0390	26.88	0.94	1.500			
0.3938	25200.36	3.8770	3.8769	1.0539	26.87	0.93	1.500			
0.3969	25403.13	3.8740	3.8740	1.0647	26.87	0.93	1.500			
0.4001	25608.67	3.8710	3.8709	1.0771	26.86	0.92	1.500			
0.4034	25817.17	3.8680	3.8680	1.0849	26.85	0.91	1.500			
0.4067	26026.70	3.8650	3.8650	1.0999	26.84	0.90	1.500			
0.4100	26237.62	3.8620	3.8620	1.1104	26.84	0.90	1.500			
0.4133	26453.08	3.8590	3.8589	1.1229	26.83	0.89	1.500			
0.4167	26668.18	3.8560	3.8560	1.1370	26.82	0.88	1.500			
0.4201	26887.95	3.8530	3.8530	1.1515	26.81	0.87	1.500			
0.4236	27109.49	3.8500	3.8500	1.1699	26.80	0.86	1.500			
0.4271	27336.08	3.8470	3.8470	1.1902	26.80	0.86	1.500			
0.4307	27564.60	3.8440	3.8441	1.2052	26.79	0.85	1.500			
0.4344	27799.01	3.8410	3.8409	1.2278	26.79	0.85	1.500			
0.4381	28037.02	3.8380	3.8381	1.2474	26.78	0.84	1.500			
0.4418	28277.35	3.8350	3.8350	1.2673	26.77	0.83	1.500			
0.4456	28520.58	3.8320	3.8321	1.2980	26.77	0.83	1.500			
0.4496	28771.83	3.8290	3.8289	1.3261	26.76	0.82	1.500			
0.4536	29029.45	3.8260	3.8260	1.3530	26.75	0.81	1.500			
0.4577	29292.65	3.8230	3.8230	1.3857	26.74	0.80	1.500			
0.4619	29562.77	3.8200	3.8201	1.4124	26.73	0.79	1.500			
0.4662	29835.72	3.8170	3.8170	1.4439	26.72	0.78	1.500			
0.4705	30112.33	3.8140	3.8140	1.4723	26.71	0.77	1.500			
0.4750	30397.89	3.8110	3.8109	1.4996	26.70	0.76	1.500			
0.4795	30689.29	3.8080	3.8080	1.5373	26.69	0.75	1.500			
0.4842	30988.92	3.8050	3.8050	1.5674	26.68	0.74	1.500			
0.4889	31292.47	3.8020	3.8020	1.6072	26.67	0.73	1.500			
0.4938	31603.34	3.7990	3.7991	1.6467	26.66	0.72	1.500			
0.4988	31922.43	3.7960	3.7959	1.6941	26.64	0.70	1.500			
0.5039	32252.56	3.7930	3.7931	1.7367	26.63	0.69	1.500			
0.5092	32591.89	3.7900	3.7900	1.7771	26.61	0.67	1.500			
0.5147	32938.88	3.7870	3.7870	1.8206	26.59	0.65	1.500			
0.5202	33289.75	3.7840	3.7840	1.8560	26.58	0.64	1.500			
0.5258	33650.96	3.7810	3.7809	1.8947	26.56	0.62	1.500			
0.5315	34018.30	3.7780	3.7780	1.9281	26.54	0.60	1.500			
0.5374	34393.45	3.7750	3.7750	1.9489	26.52	0.58	1.500			
0.5432	34765.02	3.7720	3.7721	1.9653	26.50	0.56	1.500			
0.5492	35147.06	3.7690	3.7689	1.9933	26.48	0.54	1.500			
0.5552	35534.89	3.7660	3.7658	2.0053	26.47	0.53	1.500	0.360	0.463	
0.5613	35924.64	3.7630	3.7631	2.0008	26.45	0.51	1.500			
0.5674	36312.12	3.7600	3.7600	1.9990	26.44	0.50	1.500			
0.5733	36690.13	3.7570	3.7569	1.9773	26.42	0.48	1.500			
0.5792	37067.98	3.7540	3.7540	1.9681	26.41	0.47	1.500			
0.5852	37449.71	3.7510	3.7510	1.9403	26.40	0.46	1.500			
0.5910	37820.88	3.7480	3.7480	1.9325	26.38	0.44	1.500			
0.5966	38182.93	3.7450	3.7451	1.9249	26.37	0.43	1.500			
0.6024	38553.75	3.7420	3.7420	1.9478	26.36	0.42	1.500			
0.6083	38930.83	3.7390	3.7390	1.9657	26.34	0.40	1.500			
0.6142	39310.72	3.7360	3.7360	2.0048	26.33	0.39	1.500			
0.6203	39696.77	3.7330	3.7330	2.0339	26.32	0.38	1.500			
0.6264	40092.70	3.7300	3.7299	2.0683	26.31	0.37	1.500			
0.6327	40495.78	3.7270	3.7270	2.0935	26.29	0.35	1.500			
0.6390	40898.08	3.7240	3.7240	2.1419	26.28	0.34	1.500			
0.6454	41308.19	3.7210	3.7210	2.1895	26.26	0.32	1.500			
0.6521	41735.34	3.7180	3.7181	2.2708	26.25	0.31	1.500			
0.6590	42178.17	3.7150	3.7150	2.3571	26.23	0.29	1.500			
0.6663	42641.04	3.7120	3.7120	2.4420	26.22	0.28	1.500			
0.6736	43112.88	3.7090	3.7089	2.5384	26.20	0.26	1.500			
0.6814	43610.40	3.7060	3.7061	2.5923	26.19	0.25	1.500			
0.6893	44117.53	3.7030	3.7031	2.6223	26.17	0.23	1.500			
0.6971	44616.58	3.7000	3.6999	2.5721	26.15	0.21	1.500			
0.7050	45117.46	3.6970	3.6971	2.4937	26.13	0.19	1.500			
0.7124	45594.72	3.6940	3.6940	2.3984	26.12	0.18	1.500			
0.7194	46039.35	3.6910	3.6910	2.2157	26.11	0.17	1.500			
0.7258	46448.26	3.6880	3.6879	2.0434	26.10	0.16	1.500			
0.7316	46823.99	3.6850	3.6850	1.8961	26.09	0.15	1.500			
0.7370	47165.04	3.6820	3.6820	1.7502	26.08	0.14	1.500			
0.7419	47483.21	3.6790	3.6790	1.6344	26.07	0.13	1.500			
0.7466	47779.90	3.6760	3.6761	1.5379	26.07	0.13	1.500			
0.7511	48067.66	3.6730	3.6729	1.4661	26.06	0.12	1.500			
0.7553	48340.96	3.6700	3.6700	1.4020	26.05	0.11	1.500			
0.7594	48601.15	3.6670	3.6671	1.3495	26.05	0.11	1.500			
0.7633	48854.32	3.6640	3.6640	1.3115	26.04	0.10	1.500			
0.7671	49096.86	3.6610	3.6609	1.2835	26.03	0.09	1.500			
0.7709	49335.41	3.6580	3.6580	1.2630	26.03	0.09	1.500			
0.7746	49575.74	3.6550	3.6550	1.2662	26.02	0.08	1.500			
0.7784	49819.11	3.6520	3.6520	1.2751	26.01	0.07	1.500			
0.7823	50065.18	3.6490	3.6490	1.2813	26.01	0.07	1.500			
0.7861	50311.94	3.6460	3.6460	1.2867	26.00	0.06	1.500			
0.7900	50561.47	3.6430	3.6430	1.2907	26.00	0.06	1.500			
0.7939	50809.77	3.6400	3.6400	1.2946	25.99	0.05	1.500			
0.7978	51058.70	3.6370	3.6370	1.2960	25.98	0.04	1.500			
0.8017	51307.54	3.6340	3.6340	1.2956	25.98	0.04	1.500			
0.8056	51557.18	3.6310	3.6310	1.2941	25.97	0.03	1.500			
0.8095	51806.85	3.6280	3.6280	1.2891	25.97	0.03	1.500			
0.8133	52052.59	3.6250	3.6250	1.2882	25.96	0.02	1.500			
0.8172	52299.49	3.6220	3.6220	1.2845	25.95	0.01	1.500			
0.8210	52544.88	3.6190	3.6190	1.2784	25.95	0.01	1.500			
0.8249	52790.99	3.6160	3.6160	1.2724	25.94	0.00	1.500			
0.8287	53035.52	3.6130	3.6130	1.2689	25.94	-0.00	1.500			
0.8325	53279.77	3.6100	3.6100	1.2591	25.93	-0.01	1.500			
0.8363	53524.03	3.6070	3.6070	1.2451	25.93	-0.01	1.500			
0.8400	53759.88	3.6040	3.6040	1.2255	25.93	-0.01	1.500			
0.8437	53993.97	3.6010	3.6011	1.2118	25.93	-0.01	1.500			
0.8473	54225.18	3.5980	3.5980	1.1928	25.92	-0.02	1.500			
0.8508	54450.10	3.5950	3.5950	1.1808	25.92	-0.02	1.500			
0.8543	54674.04	3.5920	3.5920	1.1665	25.92	-0.02	1.500			
0.8578	54898.49	3.5890	3.5890	1.1559	25.93	-0.01	1.500			
0.8612	55119.66	3.5860	3.5859	1.1427	25.93	-0.01	1.500			
0.8647	55338.84	3.5830	3.5831	1.1276	25.93	-0.01	1.500			
0.8681	55560.34	3.5800	3.5799	1.0931	25.93	-0.01	1.500			
0.8715	55774.55	3.5770	3.5769	1.0467	25.94	-0.00	1.500			
0.8746	55976.47	3.5740	3.5739	0.9527	25.94	-0.00	1.500			
0.8775	56158.80	3.5710	3.5712	0.8582	25.94	0.00	1.500			
0.8799	56312.83	3.5680	3.5680	0.7382	25.94	0.00	1.500			
0.8819	56439.63	3.5650	3.5650	0.6130	25.95	0.01	1.500			
0.8834	56536.54	3.5620	3.5620	0.4985	25.95	0.01	1.500			
0.8847	56619.08	3.5590	3.5589	0.4156	25.95	0.01	1.500			
0.8857	56684.78	3.5560	3.5562	0.3449	25.95	0.01	1.500			
0.8866	56743.01	3.5530	3.5530	0.2989	25.95	0.01	1.500			
0.8874	56793.11	3.5500	3.5500	0.2541	25.95	0.01	1.500			
0.8881	56836.95	3.5470	3.5469	0.2266	25.95	0.01	1.500			
0.8887	56875.33	3.5440	3.5439	0.2019	25.95	0.01	1.500			
0.8892	56911.60	3.5410	3.5410	0.1840	25.95	0.01	1.500			
0.8898	56944.84	3.5380	3.5380	0.1665	25.95	0.01	1.500			
0.8902	56974.97	3.5350	3.5351	0.1520	25.95	0.01	1.500			
0.8907	57002.47	3.5320	3.5320	0.1369	25.95	0.01	1.500			
0.8910	57027.10	3.5290	3.5289	0.1225	25.95	0.01	1.500			
0.8914	57049.32	3.5260	3.5261	0.1091	25.95	0.01	1.500			
0.8917	57068.77	3.5230	3.5230	0.0954	25.95	0.01	1.500			
0.8920	57086.00	3.5200	3.5201	0.0824	25.95	0.01	1.500			
0.8922	57100.52	3.5170	3.5174	0.0689	25.95	0.01	1.500			
0.8924	57112.68	3.5140	3.5145	0.0547	25.95	0.01	1.500			
0.8925	57121.82	3.5110	3.5117	0.0405	25.95	0.01	1.500			
