Ah_balance (normalized)	Ah_balance (mAh)	Voltage - fit (V)	Voltage -  interpolate (V)	dQ/dV (1/V)	Temperature (°C)	Temperature - diff (°C)	Current (C)	R_DC 0ms (mOhm)	R_DC 50ms (mOhm)	R_DC 50 ms PEC (mOhm)
0.2791	17859.98	3.9900	3.9899	0.8432	27.35	1.38	1.500			
0.2816	18021.18	3.9870	3.9871	0.8381	27.34	1.37	1.500			
0.2841	18180.92	3.9840	3.9840	0.8350	27.34	1.37	1.500			
0.2866	18340.91	3.9810	3.9810	0.8339	27.33	1.36	1.500			
0.2891	18499.85	3.9780	3.9781	0.8374	27.33	1.36	1.500			
0.2916	18660.20	3.9750	3.9750	0.8411	27.32	1.35	1.500			
0.2941	18821.90	3.9720	3.9719	0.8481	27.31	1.34	1.500			
0.2966	18984.91	3.9690	3.9690	0.8530	27.31	1.34	1.500			
0.2992	19150.39	3.9660	3.9660	0.8570	27.30	1.33	1.500			
0.3018	19316.26	3.9630	3.9630	0.8622	27.30	1.33	1.500			
0.3044	19482.08	3.9600	3.9601	0.8691	27.29	1.32	1.500			
0.3070	19648.46	3.9570	3.9570	0.8690	27.28	1.31	1.500			
0.3096	19816.69	3.9540	3.9539	0.8724	27.28	1.31	1.500			
0.3122	19982.91	3.9510	3.9510	0.8738	27.27	1.30	1.500			
0.3149	20150.96	3.9480	3.9481	0.8807	27.26	1.29	1.500			
0.3175	20322.50	3.9450	3.9450	0.8877	27.26	1.29	1.500			
0.3202	20491.63	3.9420	3.9419	0.8934	27.25	1.28	1.500			
0.3229	20662.95	3.9390	3.9391	0.8983	27.25	1.28	1.500			
0.3256	20837.84	3.9360	3.9360	0.9085	27.24	1.27	1.500			
0.3283	21013.83	3.9330	3.9330	0.9138	27.23	1.26	1.500			
0.3311	21189.48	3.9300	3.9300	0.9153	27.23	1.26	1.500			
0.3338	21365.06	3.9270	3.9270	0.9173	27.22	1.25	1.500			
0.3366	21542.35	3.9240	3.9239	0.9156	27.21	1.24	1.500			
0.3393	21716.66	3.9210	3.9211	0.9183	27.21	1.24	1.500			
0.3421	21893.29	3.9180	3.9180	0.9249	27.20	1.23	1.500			
0.3449	22070.57	3.9150	3.9150	0.9315	27.19	1.22	1.500			
0.3476	22249.59	3.9120	3.9120	0.9434	27.18	1.21	1.500			
0.3505	22430.72	3.9090	3.9090	0.9546	27.18	1.21	1.500			
0.3534	22616.71	3.9060	3.9059	0.9618	27.17	1.20	1.500			
0.3563	22804.29	3.9030	3.9030	0.9723	27.16	1.19	1.500			
0.3592	22991.12	3.9000	3.9000	0.9777	27.15	1.18	1.500			
0.3622	23179.59	3.8970	3.8970	0.9847	27.14	1.17	1.500			
0.3651	23368.93	3.8940	3.8939	0.9884	27.13	1.16	1.500			
0.3681	23558.46	3.8910	3.8911	0.9940	27.12	1.15	1.500			
0.3711	23749.26	3.8880	3.8879	1.0047	27.11	1.14	1.500			
0.3741	23942.97	3.8850	3.8850	1.0198	27.10	1.13	1.500			
0.3772	24139.71	3.8820	3.8820	1.0291	27.09	1.12	1.500			
0.3803	24338.88	3.8790	3.8790	1.0397	27.08	1.11	1.500			
0.3835	24540.83	3.8760	3.8760	1.0538	27.07	1.10	1.500			
0.3866	24744.81	3.8730	3.8731	1.0667	27.06	1.09	1.500			
0.3899	24950.42	3.8700	3.8699	1.0792	27.05	1.08	1.500			
0.3931	25159.81	3.8670	3.8670	1.0824	27.04	1.07	1.500			
0.3964	25367.20	3.8640	3.8640	1.0926	27.03	1.06	1.500			
0.3997	25577.70	3.8610	3.8611	1.1087	27.02	1.05	1.500			
0.4030	25792.12	3.8580	3.8580	1.1256	27.00	1.03	1.500			
0.4064	26008.45	3.8550	3.8549	1.1396	26.99	1.02	1.500			
0.4098	26228.79	3.8520	3.8520	1.1477	26.98	1.01	1.500			
0.4133	26450.05	3.8490	3.8491	1.1656	26.97	1.00	1.500			
0.4168	26677.28	3.8460	3.8460	1.1928	26.95	0.98	1.500			
0.4204	26905.30	3.8430	3.8428	1.2084	26.94	0.97	1.500			
0.4240	27138.07	3.8400	3.8400	1.2249	26.93	0.96	1.500			
0.4278	27376.35	3.8370	3.8370	1.2461	26.92	0.95	1.500			
0.4316	27621.28	3.8340	3.8340	1.2678	26.91	0.94	1.500			
0.4354	27866.71	3.8310	3.8310	1.2882	26.89	0.92	1.500			
0.4392	28111.81	3.8280	3.8280	1.3031	26.88	0.91	1.500			
0.4432	28362.66	3.8250	3.8250	1.3258	26.87	0.90	1.500			
0.4472	28618.09	3.8220	3.8220	1.3502	26.86	0.89	1.500			
0.4512	28879.44	3.8190	3.8190	1.3827	26.84	0.87	1.500			
0.4555	29150.64	3.8160	3.8160	1.4032	26.82	0.85	1.500			
0.4597	29422.08	3.8130	3.8130	1.4280	26.81	0.84	1.500			
0.4640	29698.04	3.8100	3.8101	1.4544	26.79	0.82	1.500			
0.4684	29978.94	3.8070	3.8070	1.4813	26.77	0.80	1.500			
0.4729	30264.71	3.8040	3.8040	1.5071	26.75	0.78	1.500			
0.4775	30559.03	3.8010	3.8010	1.5316	26.74	0.77	1.500			
0.4822	30859.14	3.7980	3.7980	1.5532	26.72	0.75	1.500			
0.4869	31158.83	3.7950	3.7950	1.5736	26.71	0.74	1.500			
0.4916	31459.79	3.7920	3.7920	1.5892	26.69	0.72	1.500			
0.4963	31762.59	3.7890	3.7889	1.6009	26.68	0.71	1.500			
0.5011	32068.72	3.7860	3.7862	1.6424	26.66	0.69	1.500			
0.5061	32389.00	3.7830	3.7827	1.6865	26.64	0.67	1.500	0.352	0.480	
0.5112	32717.28	3.7800	3.7802	1.7169	26.62	0.65	1.500			
0.5164	33051.83	3.7770	3.7771	1.7267	26.60	0.63	1.500			
0.5218	33394.64	3.7740	3.7739	1.7494	26.58	0.61	1.500			
0.5268	33718.04	3.7710	3.7710	1.7210	26.56	0.59	1.500			
0.5321	34053.10	3.7680	3.7680	1.7193	26.54	0.57	1.500			
0.5372	34381.66	3.7650	3.7650	1.7165	26.53	0.56	1.500			
0.5423	34707.48	3.7620	3.7621	1.7241	26.51	0.54	1.500			
0.5475	35039.62	3.7590	3.7590	1.7358	26.50	0.53	1.500			
0.5527	35369.71	3.7560	3.7560	1.7473	26.48	0.51	1.500			
0.5579	35708.43	3.7530	3.7530	1.7582	26.47	0.50	1.500			
0.5633	36050.07	3.7500	3.7500	1.7906	26.45	0.48	1.500			
0.5687	36394.32	3.7470	3.7470	1.8100	26.44	0.47	1.500			
0.5741	36743.53	3.7440	3.7440	1.8365	26.42	0.45	1.500			
0.5797	37101.32	3.7410	3.7410	1.8634	26.40	0.43	1.500			
0.5853	37459.33	3.7380	3.7380	1.9097	26.39	0.42	1.500			
0.5911	37827.49	3.7350	3.7350	1.9617	26.37	0.40	1.500			
0.5971	38211.66	3.7320	3.7319	2.0309	26.36	0.39	1.500			
0.6033	38612.58	3.7290	3.7291	2.0709	26.34	0.37	1.500			
0.6096	39014.59	3.7260	3.7260	2.1260	26.33	0.36	1.500			
0.6160	39425.02	3.7230	3.7230	2.1704	26.32	0.35	1.500			
0.6226	39848.46	3.7200	3.7201	2.2302	26.31	0.34	1.500			
0.6294	40279.36	3.7170	3.7170	2.2775	26.29	0.32	1.500			
0.6363	40725.44	3.7140	3.7139	2.3294	26.27	0.30	1.500			
0.6434	41175.37	3.7110	3.7110	2.3386	26.26	0.29	1.500			
0.6505	41631.60	3.7080	3.7080	2.3068	26.24	0.27	1.500			
0.6574	42074.98	3.7050	3.7050	2.2336	26.23	0.26	1.500			
0.6640	42496.14	3.7020	3.7020	2.1286	26.21	0.24	1.500			
0.6702	42894.99	3.6990	3.6989	1.9818	26.20	0.23	1.500			
0.6759	43258.65	3.6960	3.6961	1.8451	26.19	0.22	1.500			
0.6813	43600.24	3.6930	3.6930	1.7207	26.17	0.20	1.500			
0.6861	43912.41	3.6900	3.6899	1.6172	26.16	0.19	1.500			
0.6908	44209.61	3.6870	3.6871	1.5293	26.15	0.18	1.500			
0.6952	44493.82	3.6840	3.6839	1.4648	26.14	0.17	1.500			
0.6995	44768.25	3.6810	3.6810	1.4083	26.13	0.16	1.500			
0.7036	45031.07	3.6780	3.6779	1.3587	26.12	0.15	1.500			
0.7076	45285.27	3.6750	3.6750	1.3148	26.12	0.15	1.500			
0.7114	45528.78	3.6720	3.6721	1.2890	26.11	0.14	1.500			
0.7152	45773.39	3.6690	3.6690	1.2801	26.10	0.13	1.500			
0.7190	46014.30	3.6660	3.6660	1.2757	26.09	0.12	1.500			
0.7228	46259.57	3.6630	3.6630	1.2797	26.08	0.11	1.500			
0.7267	46507.20	3.6600	3.6600	1.2793	26.07	0.10	1.500			
0.7305	46755.11	3.6570	3.6571	1.2768	26.06	0.09	1.500			
0.7344	47000.80	3.6540	3.6540	1.2721	26.05	0.08	1.500			
0.7382	47242.82	3.6510	3.6510	1.2581	26.04	0.07	1.500			
0.7419	47482.59	3.6480	3.6480	1.2513	26.03	0.06	1.500			
0.7457	47721.92	3.6450	3.6449	1.2432	26.02	0.05	1.500			
0.7494	47960.92	3.6420	3.6421	1.2368	26.01	0.04	1.500			
0.7531	48198.06	3.6390	3.6390	1.2306	26.01	0.04	1.500			
0.7568	48434.28	3.6360	3.6360	1.2231	26.00	0.03	1.500			
0.7604	48667.67	3.6330	3.6330	1.2112	26.00	0.03	1.500			
0.7641	48900.50	3.6300	3.6300	1.2020	25.99	0.02	1.500			
0.7676	49128.79	3.6270	3.6270	1.1914	25.98	0.01	1.500			
0.7712	49357.23	3.6240	3.6241	1.1842	25.98	0.01	1.500			
0.7748	49584.12	3.6210	3.6210	1.1710	25.98	0.01	1.500			
0.7783	49808.76	3.6180	3.6179	1.1538	25.97	0.00	1.500			
0.7817	50029.83	3.6150	3.6150	1.1359	25.97	-0.00	1.500			
0.7851	50248.65	3.6120	3.6121	1.1140	25.96	-0.01	1.500			
0.7884	50459.12	3.6090	3.6090	1.0940	25.96	-0.01	1.500			
0.7916	50665.47	3.6060	3.6060	1.0666	25.95	-0.02	1.500			
0.7948	50868.46	3.6030	3.6029	1.0450	25.95	-0.02	1.500			
0.7980	51069.41	3.6000	3.6000	1.0207	25.95	-0.02	1.500			
0.8010	51264.06	3.5970	3.5970	0.9894	25.95	-0.02	1.500			
0.8039	51452.45	3.5940	3.5940	0.9496	25.96	-0.01	1.500			
0.8068	51635.17	3.5910	3.5910	0.9053	25.96	-0.01	1.500			
0.8095	51808.10	3.5880	3.5879	0.8394	25.96	-0.01	1.500			
0.8120	51965.66	3.5850	3.5850	0.7655	25.96	-0.01	1.500			
0.8142	52108.11	3.5820	3.5821	0.6826	25.96	-0.01	1.500			
0.8161	52230.31	3.5790	3.5790	0.5923	25.97	-0.00	1.500			
0.8177	52333.05	3.5760	3.5760	0.5032	25.97	-0.00	1.500			
0.8190	52417.90	3.5730	3.5730	0.4254	25.97	-0.00	1.500			
0.8201	52487.63	3.5700	3.5701	0.3599	25.97	-0.00	1.500			
0.8211	52548.50	3.5670	3.5669	0.3124	25.97	0.00	1.500			
0.8219	52601.02	3.5640	3.5640	0.2668	25.97	0.00	1.500			
0.8226	52647.59	3.5610	3.5610	0.2370	25.97	0.00	1.500			
0.8233	52688.78	3.5580	3.5579	0.2121	25.97	0.00	1.500			
0.8238	52725.84	3.5550	3.5551	0.1915	25.97	0.00	1.500			
0.8244	52759.94	3.5520	3.5520	0.1715	25.97	0.00	1.500			
0.8248	52790.37	3.5490	3.5489	0.1550	25.97	0.00	1.500			
0.8253	52818.29	3.5460	3.5460	0.1389	25.97	0.00	1.500			
0.8257	52843.18	3.5430	3.5430	0.1235	25.97	0.00	1.500			
0.8260	52865.50	3.5400	3.5401	0.1091	25.97	0.00	1.500			
0.8263	52885.27	3.5370	3.5370	0.0950	25.97	0.00	1.500			
0.8266	52902.08	3.5340	3.5341	0.0803	25.97	0.00	1.500			
0.8268	52916.11	3.5310	3.5313	0.0658	25.97	0.00	1.500			
0.8270	52927.33	3.5280	3.5285	0.0512	25.97	0.00	1.500			
0.8271	52935.77	3.5250	3.5259	0.0366	25.98	0.01	1.500			
