Ah_balance (normalized)	Ah_balance (mAh)	Voltage - fit (V)	Voltage -  interpolate (V)	dQ/dV (1/V)	Temperature (°C)	Temperature - diff (°C)	Current (C)	R_DC 0ms (mOhm)	R_DC 50ms (mOhm)	R_DC 50 ms PEC (mOhm)
0.2844	18201.43	3.9850	3.9850	0.8407	27.00	1.06	1.500			
0.2870	18364.91	3.9820	3.9820	0.8490	26.99	1.05	1.500			
0.2895	18528.28	3.9790	3.9790	0.8496	26.99	1.05	1.500			
0.2921	18691.36	3.9760	3.9761	0.8504	26.99	1.05	1.500			
0.2946	18854.87	3.9730	3.9730	0.8536	26.98	1.04	1.500			
0.2972	19018.71	3.9700	3.9700	0.8575	26.98	1.04	1.500			
0.2997	19182.63	3.9670	3.9670	0.8602	26.98	1.04	1.500			
0.3023	19348.81	3.9640	3.9640	0.8623	26.97	1.03	1.500			
0.3049	19515.55	3.9610	3.9611	0.8619	26.97	1.03	1.500			
0.3075	19681.22	3.9580	3.9580	0.8673	26.97	1.03	1.500			
0.3101	19847.27	3.9550	3.9550	0.8718	26.96	1.02	1.500			
0.3127	20013.80	3.9520	3.9520	0.8746	26.96	1.02	1.500			
0.3153	20182.10	3.9490	3.9490	0.8789	26.96	1.02	1.500			
0.3180	20351.31	3.9460	3.9461	0.8880	26.95	1.01	1.500			
0.3207	20523.29	3.9430	3.9430	0.8956	26.94	1.00	1.500			
0.3234	20696.18	3.9400	3.9399	0.9025	26.94	1.00	1.500			
0.3261	20870.05	3.9370	3.9370	0.9014	26.93	0.99	1.500			
0.3288	21043.99	3.9340	3.9340	0.9031	26.92	0.98	1.500			
0.3316	21219.22	3.9310	3.9311	0.9080	26.92	0.98	1.500			
0.3343	21393.30	3.9280	3.9280	0.9099	26.91	0.97	1.500			
0.3370	21565.10	3.9250	3.9250	0.9124	26.90	0.96	1.500			
0.3397	21741.25	3.9220	3.9221	0.9205	26.90	0.96	1.500			
0.3425	21918.44	3.9190	3.9190	0.9260	26.89	0.95	1.500			
0.3453	22097.97	3.9160	3.9160	0.9339	26.89	0.95	1.500			
0.3481	22277.61	3.9130	3.9131	0.9401	26.88	0.94	1.500			
0.3509	22459.09	3.9100	3.9100	0.9454	26.88	0.94	1.500			
0.3538	22641.13	3.9070	3.9069	0.9458	26.87	0.93	1.500			
0.3566	22821.11	3.9040	3.9041	0.9524	26.86	0.92	1.500			
0.3595	23005.41	3.9010	3.9010	0.9635	26.86	0.92	1.500			
0.3624	23191.55	3.8980	3.8980	0.9727	26.85	0.91	1.500			
0.3653	23379.32	3.8950	3.8950	0.9771	26.85	0.91	1.500			
0.3682	23566.47	3.8920	3.8921	0.9911	26.84	0.90	1.500			
0.3712	23758.95	3.8890	3.8890	1.0028	26.83	0.89	1.500			
0.3743	23953.08	3.8860	3.8859	1.0099	26.82	0.88	1.500			
0.3773	24147.31	3.8830	3.8830	1.0143	26.82	0.88	1.500			
0.3804	24343.22	3.8800	3.8801	1.0257	26.81	0.87	1.500			
0.3835	24541.05	3.8770	3.8770	1.0396	26.80	0.86	1.500			
0.3866	24741.58	3.8740	3.8740	1.0501	26.79	0.85	1.500			
0.3897	24941.84	3.8710	3.8711	1.0579	26.79	0.85	1.500			
0.3929	25147.54	3.8680	3.8680	1.0753	26.78	0.84	1.500			
0.3962	25357.23	3.8650	3.8650	1.0867	26.77	0.83	1.500			
0.3995	25566.41	3.8620	3.8620	1.0961	26.76	0.82	1.500			
0.4028	25778.33	3.8590	3.8590	1.1071	26.75	0.81	1.500			
0.4061	25989.34	3.8560	3.8560	1.1218	26.74	0.80	1.500			
0.4095	26205.70	3.8530	3.8530	1.1381	26.73	0.79	1.500			
0.4129	26425.38	3.8500	3.8499	1.1599	26.72	0.78	1.500			
0.4164	26650.06	3.8470	3.8470	1.1840	26.71	0.77	1.500			
0.4200	26881.18	3.8440	3.8440	1.2029	26.70	0.76	1.500			
0.4237	27114.75	3.8410	3.8411	1.2211	26.70	0.76	1.500			
0.4273	27350.09	3.8380	3.8380	1.2368	26.69	0.75	1.500			
0.4311	27588.23	3.8350	3.8349	1.2593	26.68	0.74	1.500			
0.4349	27831.36	3.8320	3.8320	1.2828	26.67	0.73	1.500			
0.4387	28078.61	3.8290	3.8289	1.3074	26.66	0.72	1.500			
0.4427	28332.06	3.8260	3.8260	1.3333	26.65	0.71	1.500			
0.4468	28592.38	3.8230	3.8230	1.3593	26.63	0.69	1.500			
0.4509	28855.50	3.8200	3.8200	1.3824	26.62	0.68	1.500			
0.4550	29122.86	3.8170	3.8169	1.4080	26.61	0.67	1.500			
0.4593	29392.74	3.8140	3.8141	1.4352	26.59	0.65	1.500			
0.4636	29671.62	3.8110	3.8109	1.4650	26.58	0.64	1.500			
0.4681	29955.55	3.8080	3.8080	1.4955	26.57	0.63	1.500			
0.4726	30244.08	3.8050	3.8050	1.5304	26.55	0.61	1.500			
0.4772	30543.84	3.8020	3.8020	1.5638	26.54	0.60	1.500			
0.4820	30845.43	3.7990	3.7990	1.5945	26.52	0.58	1.500			
0.4868	31155.82	3.7960	3.7960	1.6222	26.51	0.57	1.500			
0.4917	31471.62	3.7930	3.7930	1.6588	26.49	0.55	1.500			
0.4968	31794.85	3.7900	3.7900	1.6758	26.48	0.54	1.500			
0.5018	32116.69	3.7870	3.7870	1.7027	26.46	0.52	1.500			
0.5070	32446.54	3.7840	3.7840	1.7371	26.45	0.51	1.500			
0.5122	32781.51	3.7810	3.7809	1.7742	26.43	0.49	1.500			
0.5176	33125.20	3.7780	3.7781	1.8074	26.42	0.48	1.500			
0.5231	33479.01	3.7750	3.7749	1.8194	26.40	0.46	1.500	0.358	0.469	
0.5286	33830.25	3.7720	3.7720	1.8397	26.38	0.44	1.500			
0.5341	34185.18	3.7690	3.7691	1.8353	26.36	0.42	1.500			
0.5397	34538.29	3.7660	3.7659	1.8336	26.35	0.41	1.500			
0.5451	34889.30	3.7630	3.7630	1.8137	26.34	0.40	1.500			
0.5506	35237.06	3.7600	3.7600	1.7959	26.33	0.39	1.500			
0.5559	35579.44	3.7570	3.7570	1.8014	26.32	0.38	1.500			
0.5612	35919.98	3.7540	3.7540	1.7947	26.30	0.36	1.500			
0.5666	36262.69	3.7510	3.7509	1.8019	26.29	0.35	1.500			
0.5720	36609.14	3.7480	3.7481	1.8232	26.28	0.34	1.500			
0.5775	36960.89	3.7450	3.7450	1.8298	26.27	0.33	1.500			
0.5829	37308.53	3.7420	3.7421	1.8540	26.25	0.31	1.500			
0.5885	37666.26	3.7390	3.7387	1.8854	26.24	0.30	1.500			
0.5943	38032.68	3.7360	3.7360	1.9276	26.23	0.29	1.500			
0.6001	38408.74	3.7330	3.7331	1.9606	26.21	0.27	1.500			
0.6060	38786.60	3.7300	3.7299	1.9913	26.20	0.26	1.500			
0.6120	39166.55	3.7270	3.7270	2.0339	26.18	0.24	1.500			
0.6182	39563.28	3.7240	3.7240	2.1113	26.17	0.23	1.500			
0.6247	39979.56	3.7210	3.7210	2.1725	26.16	0.22	1.500			
0.6313	40404.88	3.7180	3.7180	2.2471	26.15	0.21	1.500			
0.6381	40837.92	3.7150	3.7148	2.3209	26.14	0.20	1.500			
0.6452	41295.17	3.7120	3.7120	2.3569	26.13	0.19	1.500			
0.6525	41757.37	3.7090	3.7090	2.4264	26.12	0.18	1.500			
0.6597	42219.39	3.7060	3.7059	2.4341	26.11	0.17	1.500			
0.6671	42692.01	3.7030	3.7031	2.4659	26.10	0.16	1.500			
0.6746	43175.08	3.7000	3.7000	2.4059	26.09	0.15	1.500			
0.6817	43626.98	3.6970	3.6971	2.2649	26.08	0.14	1.500			
0.6883	44052.40	3.6940	3.6939	2.1228	26.07	0.13	1.500			
0.6944	44443.33	3.6910	3.6910	1.9578	26.06	0.12	1.500			
0.7000	44797.24	3.6880	3.6880	1.8048	26.06	0.12	1.500			
0.7051	45127.06	3.6850	3.6851	1.6721	26.05	0.11	1.500			
0.7099	45431.80	3.6820	3.6820	1.5676	26.04	0.10	1.500			
0.7144	45719.47	3.6790	3.6789	1.4791	26.04	0.10	1.500			
0.7187	45994.97	3.6760	3.6760	1.4138	26.03	0.09	1.500			
0.7228	46257.06	3.6730	3.6730	1.3574	26.03	0.09	1.500			
0.7267	46508.87	3.6700	3.6700	1.3196	26.02	0.08	1.500			
0.7306	46756.63	3.6670	3.6670	1.2856	26.01	0.07	1.500			
0.7343	46996.21	3.6640	3.6640	1.2661	26.01	0.07	1.500			
0.7381	47236.43	3.6610	3.6610	1.2585	26.00	0.06	1.500			
0.7418	47474.96	3.6580	3.6580	1.2572	25.99	0.05	1.500			
0.7456	47716.98	3.6550	3.6549	1.2605	25.99	0.05	1.500			
0.7494	47959.61	3.6520	3.6520	1.2598	25.98	0.04	1.500			
0.7531	48201.11	3.6490	3.6490	1.2661	25.98	0.04	1.500			
0.7570	48446.05	3.6460	3.6460	1.2734	25.97	0.03	1.500			
0.7608	48690.21	3.6430	3.6431	1.2755	25.96	0.02	1.500			
0.7646	48934.66	3.6400	3.6399	1.2766	25.96	0.02	1.500			
0.7684	49180.58	3.6370	3.6370	1.2777	25.95	0.01	1.500			
0.7723	49427.94	3.6340	3.6340	1.2774	25.95	0.01	1.500			
0.7762	49674.00	3.6310	3.6310	1.2692	25.94	0.00	1.500			
0.7800	49916.89	3.6280	3.6280	1.2635	25.94	0.00	1.500			
0.7837	50158.34	3.6250	3.6251	1.2586	25.94	-0.00	1.500			
0.7875	50399.37	3.6220	3.6219	1.2531	25.93	-0.01	1.500			
0.7912	50638.54	3.6190	3.6190	1.2522	25.93	-0.01	1.500			
0.7950	50880.11	3.6160	3.6160	1.2434	25.93	-0.01	1.500			
0.7987	51118.40	3.6130	3.6130	1.2364	25.93	-0.01	1.500			
0.8025	51358.44	3.6100	3.6100	1.2242	25.92	-0.02	1.500			
0.8061	51591.25	3.6070	3.6070	1.2065	25.92	-0.02	1.500			
0.8097	51821.90	3.6040	3.6040	1.1874	25.92	-0.02	1.500			
0.8132	52047.51	3.6010	3.6010	1.1738	25.92	-0.02	1.500			
0.8167	52269.94	3.5980	3.5980	1.1550	25.92	-0.02	1.500			
0.8202	52492.29	3.5950	3.5950	1.1360	25.93	-0.01	1.500			
0.8236	52708.25	3.5920	3.5921	1.1176	25.93	-0.01	1.500			
0.8269	52923.77	3.5890	3.5890	1.0930	25.93	-0.01	1.500			
0.8302	53132.51	3.5860	3.5859	1.0583	25.93	-0.01	1.500			
0.8334	53336.01	3.5830	3.5830	1.0177	25.94	-0.00	1.500			
0.8364	53531.35	3.5800	3.5800	0.9451	25.94	-0.00	1.500			
0.8393	53713.97	3.5770	3.5770	0.8690	25.94	0.00	1.500			
0.8418	53875.57	3.5740	3.5741	0.7659	25.94	0.00	1.500			
0.8440	54013.87	3.5710	3.5711	0.6574	25.94	0.00	1.500			
0.8457	54126.85	3.5680	3.5680	0.5570	25.95	0.01	1.500			
0.8472	54218.78	3.5650	3.5649	0.4588	25.95	0.01	1.500			
0.8483	54291.38	3.5620	3.5620	0.3784	25.95	0.01	1.500			
0.8493	54354.63	3.5590	3.5589	0.3253	25.95	0.01	1.500			
0.8501	54408.39	3.5560	3.5560	0.2806	25.95	0.01	1.500			
0.8509	54456.61	3.5530	3.5530	0.2479	25.95	0.01	1.500			
0.8515	54499.17	3.5500	3.5499	0.2176	25.95	0.01	1.500			
0.8521	54537.29	3.5470	3.5470	0.1971	25.95	0.01	1.500			
0.8527	54572.07	3.5440	3.5440	0.1781	25.95	0.01	1.500			
0.8532	54604.53	3.5410	3.5410	0.1616	25.95	0.01	1.500			
0.8537	54633.74	3.5380	3.5379	0.1476	25.95	0.01	1.500			
0.8541	54660.25	3.5350	3.5351	0.1328	25.95	0.01	1.500			
0.8544	54684.45	3.5320	3.5319	0.1186	25.95	0.01	1.500			
0.8548	54705.97	3.5290	3.5289	0.1050	25.95	0.01	1.500			
0.8551	54724.79	3.5260	3.5261	0.0910	25.95	0.01	1.500			
0.8553	54740.72	3.5230	3.5232	0.0770	25.95	0.01	1.500			
0.8556	54755.21	3.5200	3.5203	0.0628	25.95	0.01	1.500			
0.8557	54765.75	3.5170	3.5174	0.0470	25.95	0.01	1.500			
0.8558	54773.26	3.5140	3.5150	0.0312	25.95	0.01	1.500			
