Ah_balance (normalized)	Ah_balance (mAh)	Voltage - fit (V)	Voltage -  interpolate (V)	dQ/dV (1/V)	Temperature (°C)	Temperature - diff (°C)	Current (C)	R_DC 0ms (mOhm)	R_DC 50ms (mOhm)	R_DC 50 ms PEC (mOhm)
0.2868	18357.90	3.9730	3.9730	0.8601	27.01	1.07	1.500			
0.2894	18523.49	3.9700	3.9701	0.8668	27.00	1.06	1.500			
0.2921	18691.96	3.9670	3.9669	0.8726	27.00	1.06	1.500			
0.2947	18860.88	3.9640	3.9639	0.8710	27.00	1.06	1.500			
0.2973	19026.95	3.9610	3.9611	0.8763	26.99	1.05	1.500			
0.2999	19195.43	3.9580	3.9580	0.8822	26.99	1.05	1.500			
0.3026	19365.45	3.9550	3.9550	0.8859	26.98	1.04	1.500			
0.3053	19536.36	3.9520	3.9520	0.8913	26.98	1.04	1.500			
0.3079	19707.52	3.9490	3.9490	0.8965	26.97	1.03	1.500			
0.3106	19881.46	3.9460	3.9461	0.9032	26.97	1.03	1.500			
0.3134	20055.90	3.9430	3.9429	0.9050	26.97	1.03	1.500			
0.3161	20228.51	3.9400	3.9400	0.9064	26.96	1.02	1.500			
0.3188	20402.93	3.9370	3.9370	0.9116	26.96	1.02	1.500			
0.3215	20578.66	3.9340	3.9341	0.9153	26.95	1.01	1.500			
0.3243	20754.29	3.9310	3.9310	0.9254	26.95	1.01	1.500			
0.3271	20932.69	3.9280	3.9280	0.9313	26.94	1.00	1.500			
0.3299	21112.10	3.9250	3.9250	0.9402	26.94	1.00	1.500			
0.3327	21294.53	3.9220	3.9220	0.9442	26.93	0.99	1.500			
0.3356	21475.94	3.9190	3.9190	0.9505	26.93	0.99	1.500			
0.3384	21659.21	3.9160	3.9160	0.9579	26.92	0.98	1.500			
0.3413	21844.03	3.9130	3.9130	0.9627	26.92	0.98	1.500			
0.3442	22028.89	3.9100	3.9099	0.9620	26.91	0.97	1.500			
0.3471	22214.45	3.9070	3.9071	0.9715	26.90	0.96	1.500			
0.3500	22400.73	3.9040	3.9041	0.9767	26.90	0.96	1.500			
0.3530	22589.87	3.9010	3.9009	0.9851	26.89	0.95	1.500			
0.3559	22778.07	3.8980	3.8980	0.9897	26.89	0.95	1.500			
0.3589	22967.60	3.8950	3.8951	0.9986	26.88	0.94	1.500			
0.3619	23160.81	3.8920	3.8920	1.0097	26.87	0.93	1.500			
0.3650	23357.28	3.8890	3.8890	1.0227	26.86	0.92	1.500			
0.3680	23552.86	3.8860	3.8860	1.0317	26.85	0.91	1.500			
0.3711	23752.06	3.8830	3.8830	1.0421	26.84	0.90	1.500			
0.3743	23953.86	3.8800	3.8801	1.0520	26.83	0.89	1.500			
0.3774	24156.53	3.8770	3.8769	1.0595	26.82	0.88	1.500			
0.3806	24360.35	3.8740	3.8740	1.0715	26.82	0.88	1.500			
0.3839	24567.06	3.8710	3.8710	1.0827	26.81	0.87	1.500			
0.3871	24775.12	3.8680	3.8680	1.0964	26.80	0.86	1.500			
0.3904	24987.84	3.8650	3.8650	1.1075	26.80	0.86	1.500			
0.3938	25200.40	3.8620	3.8620	1.1211	26.79	0.85	1.500			
0.3972	25417.63	3.8590	3.8590	1.1366	26.78	0.84	1.500			
0.4006	25636.29	3.8560	3.8560	1.1570	26.78	0.84	1.500			
0.4041	25860.19	3.8530	3.8528	1.1722	26.77	0.83	1.500			
0.4076	26086.95	3.8500	3.8501	1.1924	26.76	0.82	1.500			
0.4112	26318.39	3.8470	3.8471	1.2089	26.75	0.81	1.500			
0.4149	26554.77	3.8440	3.8440	1.2276	26.74	0.80	1.500			
0.4186	26790.01	3.8410	3.8410	1.2403	26.73	0.79	1.500			
0.4223	27028.90	3.8380	3.8380	1.2613	26.72	0.78	1.500			
0.4261	27270.60	3.8350	3.8350	1.2844	26.71	0.77	1.500			
0.4300	27520.42	3.8320	3.8321	1.3106	26.70	0.76	1.500			
0.4339	27772.74	3.8290	3.8290	1.3387	26.69	0.75	1.500			
0.4380	28034.20	3.8260	3.8260	1.3680	26.68	0.74	1.500			
0.4422	28297.97	3.8230	3.8230	1.4024	26.67	0.73	1.500			
0.4464	28568.30	3.8200	3.8200	1.4386	26.66	0.72	1.500			
0.4508	28848.58	3.8170	3.8170	1.4755	26.65	0.71	1.500			
0.4552	29135.64	3.8140	3.8140	1.5108	26.64	0.70	1.500			
0.4599	29430.76	3.8110	3.8109	1.5495	26.63	0.69	1.500			
0.4646	29733.04	3.8080	3.8080	1.5781	26.61	0.67	1.500			
0.4694	30040.75	3.8050	3.8050	1.6098	26.60	0.66	1.500			
0.4742	30349.79	3.8020	3.8020	1.6377	26.59	0.65	1.500			
0.4791	30664.76	3.7990	3.7989	1.6833	26.58	0.64	1.500			
0.4843	30992.97	3.7960	3.7959	1.7347	26.56	0.62	1.500			
0.4895	31330.96	3.7930	3.7930	1.7720	26.55	0.61	1.500			
0.4949	31674.71	3.7900	3.7901	1.8222	26.53	0.59	1.500			
0.5005	32030.09	3.7870	3.7871	1.8806	26.51	0.57	1.500			
0.5062	32394.34	3.7840	3.7840	1.9182	26.50	0.56	1.500			
0.5120	32767.56	3.7810	3.7810	1.9684	26.48	0.54	1.500			
0.5180	33151.51	3.7780	3.7781	2.0061	26.47	0.53	1.500			
0.5241	33540.64	3.7750	3.7750	2.0368	26.45	0.51	1.500			
0.5302	33935.94	3.7720	3.7721	2.0669	26.44	0.50	1.500			
0.5365	34334.85	3.7690	3.7690	2.0946	26.42	0.48	1.500			
0.5427	34735.72	3.7660	3.7660	2.1284	26.41	0.47	1.500			
0.5492	35149.27	3.7630	3.7628	2.1450	26.39	0.45	1.500	0.355	0.458	
0.5557	35563.71	3.7600	3.7602	2.1537	26.38	0.44	1.500			
0.5623	35987.00	3.7570	3.7570	2.1390	26.35	0.41	1.500			
0.5687	36395.67	3.7540	3.7540	2.1044	26.33	0.39	1.500			
0.5748	36787.96	3.7510	3.7510	2.0609	26.31	0.37	1.500			
0.5810	37181.24	3.7480	3.7480	2.0526	26.30	0.36	1.500			
0.5871	37571.24	3.7450	3.7450	2.0334	26.28	0.34	1.500			
0.5932	37961.96	3.7420	3.7420	2.0291	26.27	0.33	1.500			
0.5992	38347.16	3.7390	3.7390	2.0372	26.25	0.31	1.500			
0.6053	38740.07	3.7360	3.7360	2.0550	26.24	0.30	1.500			
0.6115	39134.85	3.7330	3.7330	2.0546	26.23	0.29	1.500			
0.6177	39530.20	3.7300	3.7301	2.0969	26.21	0.27	1.500			
0.6240	39933.13	3.7270	3.7269	2.1312	26.20	0.26	1.500			
0.6304	40345.03	3.7240	3.7240	2.1743	26.19	0.25	1.500			
0.6371	40771.57	3.7210	3.7210	2.2201	26.17	0.23	1.500			
0.6437	41197.20	3.7180	3.7180	2.2868	26.16	0.22	1.500			
0.6506	41639.23	3.7150	3.7151	2.3651	26.15	0.21	1.500			
0.6578	42098.01	3.7120	3.7120	2.4730	26.13	0.19	1.500			
0.6654	42583.68	3.7090	3.7091	2.5412	26.12	0.18	1.500			
0.6732	43085.29	3.7060	3.7061	2.6586	26.11	0.17	1.500			
0.6813	43605.53	3.7030	3.7030	2.7293	26.10	0.16	1.500			
0.6897	44140.44	3.7000	3.7000	2.7402	26.08	0.14	1.500			
0.6981	44676.99	3.6970	3.6970	2.6884	26.07	0.13	1.500			
0.7060	45185.89	3.6940	3.6940	2.5809	26.06	0.12	1.500			
0.7136	45672.55	3.6910	3.6910	2.4182	26.06	0.12	1.500			
0.7208	46130.00	3.6880	3.6880	2.2580	26.05	0.11	1.500			
0.7272	46540.67	3.6850	3.6850	2.0526	26.05	0.11	1.500			
0.7330	46909.41	3.6820	3.6820	1.8746	26.05	0.11	1.500			
0.7383	47252.84	3.6790	3.6790	1.7425	26.05	0.11	1.500			
0.7432	47563.74	3.6760	3.6760	1.6200	26.04	0.10	1.500			
0.7478	47861.51	3.6730	3.6730	1.5274	26.04	0.10	1.500			
0.7523	48144.92	3.6700	3.6700	1.4537	26.04	0.10	1.500			
0.7565	48415.18	3.6670	3.6670	1.3952	26.04	0.10	1.500			
0.7606	48675.40	3.6640	3.6640	1.3370	26.03	0.09	1.500			
0.7644	48924.59	3.6610	3.6610	1.2971	26.03	0.09	1.500			
0.7682	49167.71	3.6580	3.6580	1.2662	26.02	0.08	1.500			
0.7719	49402.34	3.6550	3.6551	1.2484	26.02	0.08	1.500			
0.7756	49639.34	3.6520	3.6520	1.2454	26.01	0.07	1.500			
0.7793	49875.36	3.6490	3.6489	1.2514	26.01	0.07	1.500			
0.7831	50116.62	3.6460	3.6460	1.2657	26.01	0.07	1.500			
0.7869	50362.02	3.6430	3.6430	1.2885	26.00	0.06	1.500			
0.7908	50611.66	3.6400	3.6400	1.2970	26.00	0.06	1.500			
0.7947	50863.40	3.6370	3.6370	1.3056	25.99	0.05	1.500			
0.7987	51116.09	3.6340	3.6342	1.3104	25.99	0.05	1.500			
0.8027	51370.01	3.6310	3.6309	1.3109	25.98	0.04	1.500			
0.8066	51621.44	3.6280	3.6280	1.3054	25.98	0.04	1.500			
0.8105	51870.62	3.6250	3.6250	1.3027	25.97	0.03	1.500			
0.8144	52118.72	3.6220	3.6221	1.3024	25.97	0.03	1.500			
0.8183	52371.75	3.6190	3.6190	1.3049	25.96	0.02	1.500			
0.8222	52620.66	3.6160	3.6160	1.3064	25.96	0.02	1.500			
0.8261	52873.25	3.6130	3.6130	1.3044	25.95	0.01	1.500			
0.8301	53126.91	3.6100	3.6100	1.2948	25.95	0.01	1.500			
0.8340	53374.66	3.6070	3.6071	1.2835	25.95	0.01	1.500			
0.8378	53620.05	3.6040	3.6040	1.2667	25.95	0.01	1.500			
0.8416	53862.17	3.6010	3.6009	1.2473	25.95	0.01	1.500			
0.8453	54098.98	3.5980	3.5980	1.2361	25.94	0.00	1.500			
0.8490	54333.59	3.5950	3.5950	1.2218	25.94	0.00	1.500			
0.8527	54569.70	3.5920	3.5919	1.2127	25.94	0.00	1.500			
0.8563	54801.13	3.5890	3.5891	1.2005	25.94	0.00	1.500			
0.8598	55028.26	3.5860	3.5861	1.1889	25.94	0.00	1.500			
0.8634	55255.06	3.5830	3.5830	1.1888	25.94	0.00	1.500			
0.8669	55482.79	3.5800	3.5799	1.1806	25.94	0.00	1.500			
0.8705	55712.67	3.5770	3.5769	1.1586	25.94	0.00	1.500			
0.8741	55943.65	3.5740	3.5739	1.0976	25.94	0.00	1.500			
0.8775	56163.06	3.5710	3.5710	1.0275	25.94	0.00	1.500			
0.8806	56356.80	3.5680	3.5681	0.9064	25.94	0.00	1.500			
0.8832	56523.35	3.5650	3.5651	0.7784	25.94	0.00	1.500			
0.8852	56654.60	3.5620	3.5621	0.6452	25.94	0.00	1.500			
0.8868	56756.04	3.5590	3.5589	0.5194	25.94	0.00	1.500			
0.8881	56835.25	3.5560	3.5562	0.4170	25.94	0.00	1.500			
0.8891	56903.26	3.5530	3.5530	0.3508	25.94	0.00	1.500			
0.8900	56960.92	3.5500	3.5498	0.2903	25.94	0.00	1.500			
0.8908	57009.29	3.5470	3.5469	0.2523	25.94	0.00	1.500			
0.8914	57050.50	3.5440	3.5440	0.2198	25.94	0.00	1.500			
0.8920	57090.28	3.5410	3.5410	0.1971	25.94	0.00	1.500			
0.8926	57125.07	3.5380	3.5380	0.1786	25.94	0.00	1.500			
0.8931	57156.45	3.5350	3.5350	0.1609	25.94	0.00	1.500			
0.8935	57185.46	3.5320	3.5319	0.1447	25.94	0.00	1.500			
0.8939	57211.76	3.5290	3.5290	0.1302	25.94	0.00	1.500			
0.8943	57235.13	3.5260	3.5261	0.1153	25.94	0.00	1.500			
0.8946	57255.87	3.5230	3.5230	0.1010	25.94	0.00	1.500			
0.8949	57274.25	3.5200	3.5201	0.0871	25.94	0.00	1.500			
0.8951	57289.56	3.5170	3.5172	0.0723	25.94	0.00	1.500			
0.8953	57301.97	3.5140	3.5145	0.0578	25.94	0.00	1.500			
0.8955	57311.66	3.5110	3.5117	0.0432	25.94	0.00	1.500			
