Ah_balance (normalized)	Ah_balance (mAh)	Voltage - fit (V)	Voltage -  interpolate (V)	dQ/dV (1/V)	Temperature (°C)	Temperature - diff (°C)	Current (C)	R_DC 0ms (mOhm)	R_DC 50ms (mOhm)	R_DC 50 ms PEC (mOhm)
0.0000	0.00	4.1990	4.2041	-0.0000	25.36	0.25	-0.035			
0.1087	6958.94	4.1960	4.1985	1.6337	26.56	1.45	1.477			
0.1128	7218.94	4.1930	4.1938	1.1128	26.55	1.44	1.500			
0.1158	7408.98	4.1900	4.1900	0.9839	26.55	1.44	1.500			
0.1180	7554.98	4.1870	4.1869	0.7673	26.54	1.43	1.500			
0.1204	7703.82	4.1840	4.1840	0.7715	26.54	1.43	1.500			
0.1227	7852.20	4.1810	4.1810	0.7708	26.53	1.42	1.500			
0.1250	8000.35	4.1780	4.1780	0.7727	26.52	1.41	1.500			
0.1273	8149.08	4.1750	4.1750	0.7702	26.52	1.41	1.500			
0.1296	8295.78	4.1720	4.1720	0.7715	26.51	1.40	1.500			
0.1319	8444.17	4.1690	4.1691	0.7722	26.51	1.40	1.500			
0.1343	8593.08	4.1660	4.1659	0.7729	26.50	1.39	1.500			
0.1366	8741.47	4.1630	4.1629	0.7724	26.50	1.39	1.500			
0.1389	8889.66	4.1600	4.1601	0.7744	26.49	1.38	1.500			
0.1412	9037.97	4.1570	4.1571	0.7749	26.48	1.37	1.500			
0.1436	9188.35	4.1540	4.1539	0.7771	26.47	1.36	1.500			
0.1459	9336.87	4.1510	4.1510	0.7749	26.47	1.36	1.500			
0.1482	9485.70	4.1480	4.1480	0.7756	26.46	1.35	1.500			
0.1505	9634.20	4.1450	4.1450	0.7760	26.45	1.34	1.500			
0.1529	9783.76	4.1420	4.1420	0.7755	26.44	1.33	1.500			
0.1552	9931.32	4.1390	4.1390	0.7777	26.44	1.33	1.500			
0.1575	10080.54	4.1360	4.1360	0.7799	26.43	1.32	1.500			
0.1598	10230.30	4.1330	4.1329	0.7857	26.42	1.31	1.500			
0.1622	10381.81	4.1300	4.1300	0.7895	26.41	1.30	1.500			
0.1646	10534.21	4.1270	4.1271	0.7916	26.41	1.30	1.500			
0.1670	10688.70	4.1240	4.1240	0.7904	26.40	1.29	1.500			
0.1694	10839.84	4.1210	4.1210	0.7884	26.39	1.28	1.500			
0.1717	10991.13	4.1180	4.1180	0.7878	26.39	1.28	1.500			
0.1741	11141.51	4.1150	4.1150	0.7882	26.38	1.27	1.500			
0.1764	11292.72	4.1120	4.1119	0.7871	26.37	1.26	1.500			
0.1788	11444.06	4.1090	4.1090	0.7902	26.37	1.26	1.500			
0.1812	11596.32	4.1060	4.1060	0.7929	26.36	1.25	1.500			
0.1836	11748.60	4.1030	4.1031	0.7935	26.35	1.24	1.500			
0.1859	11900.58	4.1000	4.1000	0.7931	26.35	1.24	1.500			
0.1883	12053.29	4.0970	4.0970	0.7967	26.34	1.23	1.500			
0.1907	12205.76	4.0940	4.0939	0.7981	26.33	1.22	1.500			
0.1931	12360.18	4.0910	4.0910	0.7975	26.32	1.21	1.500			
0.1955	12513.46	4.0880	4.0881	0.7985	26.32	1.21	1.500			
0.1979	12667.37	4.0850	4.0850	0.8021	26.31	1.20	1.500			
0.2003	12822.07	4.0820	4.0819	0.8012	26.30	1.19	1.500			
0.2027	12975.16	4.0790	4.0790	0.7990	26.29	1.18	1.500			
0.2051	13127.91	4.0760	4.0761	0.7997	26.29	1.18	1.500			
0.2075	13281.37	4.0730	4.0730	0.8027	26.28	1.17	1.500			
0.2099	13435.74	4.0700	4.0699	0.8068	26.27	1.16	1.500			
0.2123	13589.83	4.0670	4.0670	0.8062	26.26	1.15	1.500			
0.2148	13744.84	4.0640	4.0640	0.8110	26.26	1.15	1.500			
0.2172	13902.81	4.0610	4.0610	0.8153	26.25	1.14	1.500			
0.2197	14059.15	4.0580	4.0580	0.8183	26.24	1.13	1.500			
0.2221	14216.12	4.0550	4.0550	0.8184	26.24	1.13	1.500			
0.2246	14373.65	4.0520	4.0520	0.8201	26.23	1.12	1.500			
0.2270	14530.94	4.0490	4.0490	0.8218	26.22	1.11	1.500			
0.2295	14689.66	4.0460	4.0460	0.8234	26.22	1.11	1.500			
0.2320	14847.80	4.0430	4.0430	0.8238	26.21	1.10	1.500			
0.2345	15005.92	4.0400	4.0400	0.8265	26.20	1.09	1.500			
0.2369	15163.80	4.0370	4.0370	0.8255	26.19	1.08	1.500			
0.2394	15323.21	4.0340	4.0340	0.8282	26.19	1.08	1.500			
0.2419	15482.11	4.0310	4.0309	0.8281	26.18	1.07	1.500			
0.2444	15640.95	4.0280	4.0280	0.8288	26.17	1.06	1.500			
0.2469	15800.52	4.0250	4.0251	0.8309	26.16	1.05	1.500			
0.2494	15959.95	4.0220	4.0219	0.8304	26.15	1.04	1.500			
0.2519	16119.47	4.0190	4.0190	0.8302	26.15	1.04	1.500			
0.2544	16278.51	4.0160	4.0160	0.8371	26.14	1.03	1.500			
0.2569	16439.36	4.0130	4.0130	0.8405	26.13	1.02	1.500			
0.2594	16600.87	4.0100	4.0100	0.8473	26.12	1.01	1.500			
0.2619	16764.48	4.0070	4.0070	0.8476	26.12	1.01	1.500			
0.2645	16927.78	4.0040	4.0040	0.8507	26.11	1.00	1.500			
0.2671	17093.32	4.0010	4.0010	0.8518	26.10	0.99	1.500			
0.2696	17256.30	3.9980	3.9980	0.8493	26.09	0.98	1.500			
0.2721	17417.17	3.9950	3.9950	0.8481	26.07	0.96	1.500			
0.2747	17580.48	3.9920	3.9920	0.8541	26.06	0.95	1.500			
0.2772	17743.72	3.9890	3.9890	0.8532	26.05	0.94	1.500			
0.2798	17908.33	3.9860	3.9860	0.8605	26.04	0.93	1.500			
0.2824	18073.84	3.9830	3.9830	0.8631	26.03	0.92	1.500			
0.2850	18241.06	3.9800	3.9799	0.8653	26.02	0.91	1.500			
0.2876	18407.76	3.9770	3.9770	0.8667	26.02	0.91	1.500			
0.2902	18574.15	3.9740	3.9740	0.8678	26.02	0.91	1.500			
0.2928	18740.06	3.9710	3.9711	0.8729	26.00	0.89	1.500			
0.2955	18909.01	3.9680	3.9680	0.8726	25.99	0.88	1.500			
0.2981	19076.18	3.9650	3.9649	0.8748	25.98	0.87	1.500			
0.3007	19245.23	3.9620	3.9620	0.8774	25.97	0.86	1.500			
0.3033	19414.02	3.9590	3.9591	0.8829	25.95	0.84	1.500			
0.3060	19583.22	3.9560	3.9560	0.8833	25.94	0.83	1.500			
0.3086	19753.01	3.9530	3.9530	0.8861	25.93	0.82	1.500			
0.3113	19922.78	3.9500	3.9501	0.8901	25.91	0.80	1.500			
0.3140	20095.52	3.9470	3.9468	0.8989	25.90	0.79	1.500			
0.3167	20266.90	3.9440	3.9441	0.9036	25.89	0.78	1.500			
0.3194	20441.53	3.9410	3.9410	0.9097	25.88	0.77	1.500			
0.3221	20616.46	3.9380	3.9380	0.9137	25.86	0.75	1.500			
0.3249	20794.37	3.9350	3.9350	0.9159	25.85	0.74	1.500			
0.3276	20968.83	3.9320	3.9321	0.9219	25.84	0.73	1.500			
0.3304	21145.61	3.9290	3.9290	0.9270	25.82	0.71	1.500			
0.3332	21324.60	3.9260	3.9259	0.9315	25.81	0.70	1.500			
0.3360	21502.97	3.9230	3.9229	0.9368	25.80	0.69	1.500			
0.3388	21684.04	3.9200	3.9201	0.9430	25.78	0.67	1.500			
0.3417	21866.85	3.9170	3.9171	0.9532	25.77	0.66	1.500			
0.3445	22050.59	3.9140	3.9139	0.9611	25.76	0.65	1.500			
0.3474	22234.49	3.9110	3.9109	0.9638	25.74	0.63	1.500			
0.3503	22419.56	3.9080	3.9080	0.9712	25.72	0.61	1.500			
0.3532	22607.40	3.9050	3.9050	0.9791	25.70	0.59	1.500			
0.3562	22796.55	3.9020	3.9020	0.9882	25.68	0.57	1.500			
0.3592	22987.57	3.8990	3.8990	0.9944	25.67	0.56	1.500			
0.3621	23177.32	3.8960	3.8960	0.9990	25.65	0.54	1.500			
0.3652	23370.23	3.8930	3.8930	1.0075	25.64	0.53	1.500			
0.3682	23564.59	3.8900	3.8900	1.0176	25.62	0.51	1.500			
0.3712	23759.60	3.8870	3.8870	1.0273	25.61	0.50	1.500			
0.3743	23958.19	3.8840	3.8840	1.0358	25.59	0.48	1.500			
0.3775	24159.16	3.8810	3.8810	1.0497	25.57	0.46	1.500			
0.3807	24362.86	3.8780	3.8779	1.0615	25.55	0.44	1.500			
0.3839	24567.11	3.8750	3.8750	1.0708	25.53	0.42	1.500			
0.3871	24773.54	3.8720	3.8721	1.0837	25.51	0.40	1.500			
0.3903	24981.93	3.8690	3.8689	1.0936	25.49	0.38	1.500			
0.3936	25193.11	3.8660	3.8659	1.1041	25.47	0.36	1.500			
0.3969	25404.27	3.8630	3.8631	1.1122	25.45	0.34	1.500			
0.4003	25621.09	3.8600	3.8600	1.1305	25.43	0.32	1.500			
0.4037	25839.99	3.8570	3.8570	1.1428	25.41	0.30	1.500			
0.4072	26059.99	3.8540	3.8540	1.1576	25.39	0.28	1.500			
0.4107	26282.03	3.8510	3.8510	1.1723	25.37	0.26	1.500			
0.4142	26509.61	3.8480	3.8480	1.1892	25.35	0.24	1.500			
0.4178	26741.32	3.8450	3.8450	1.1992	25.33	0.22	1.500			
0.4215	26973.30	3.8420	3.8420	1.2020	25.31	0.20	1.500			
0.4251	27205.96	3.8390	3.8390	1.2064	25.29	0.18	1.500			
0.4287	27437.93	3.8360	3.8360	1.2048	25.27	0.16	1.500			
0.4323	27667.74	3.8330	3.8329	1.2079	25.25	0.14	1.500			
0.4359	27900.25	3.8300	3.8300	1.2056	25.23	0.12	1.500			
0.4396	28134.03	3.8270	3.8269	1.1982	25.21	0.10	1.500			
0.4433	28368.17	3.8240	3.8240	1.1813	25.19	0.08	1.500			
0.4468	28594.65	3.8210	3.8210	1.1494	25.18	0.07	1.500			
0.4503	28816.98	3.8180	3.8180	1.1017	25.16	0.05	1.500			
0.4535	29025.06	3.8150	3.8150	1.0417	25.14	0.03	1.500			
0.4566	29222.40	3.8120	3.8120	0.9762	25.13	0.02	1.500			
0.4594	29404.22	3.8090	3.8089	0.8995	25.11	0.00	1.500			
0.4620	29568.90	3.8060	3.8061	0.8206	25.10	-0.01	1.500			
0.4644	29718.66	3.8030	3.8030	0.7424	25.09	-0.02	1.500			
0.4664	29852.72	3.8000	3.8000	0.6662	25.08	-0.03	1.500			
0.4683	29971.73	3.7970	3.7970	0.5950	25.07	-0.04	1.500			
0.4700	30077.76	3.7940	3.7940	0.5320	25.06	-0.05	1.500			
0.4714	30171.57	3.7910	3.7910	0.4803	25.05	-0.06	1.500			
0.4728	30257.14	3.7880	3.7879	0.4344	25.05	-0.06	1.500			
0.4740	30333.40	3.7850	3.7850	0.3954	25.04	-0.07	1.500			
0.4751	30405.72	3.7820	3.7819	0.3651	25.04	-0.07	1.500			
0.4761	30471.56	3.7790	3.7791	0.3389	25.03	-0.08	1.500			
0.4771	30534.19	3.7760	3.7760	0.3171	25.03	-0.08	1.500			
0.4780	30591.70	3.7730	3.7730	0.2979	25.02	-0.09	1.500			
0.4789	30646.84	3.7700	3.7699	0.2805	25.02	-0.09	1.500			
0.4797	30698.55	3.7670	3.7670	0.2640	25.01	-0.10	1.500			
0.4804	30747.96	3.7640	3.7640	0.2484	25.01	-0.10	1.500			
0.4812	30794.61	3.7610	3.7611	0.2339	25.00	-0.11	1.500			
0.4818	30838.05	3.7580	3.7580	0.2172	25.00	-0.11	1.500			
0.4825	30878.35	3.7550	3.7549	0.2010	25.00	-0.11	1.500			
0.4831	30915.78	3.7520	3.7519	0.1817	25.00	-0.11	1.500			
0.4836	30948.95	3.7490	3.7491	0.1630	24.99	-0.12	1.500			
0.4841	30979.21	3.7460	3.7461	0.1435	24.99	-0.12	1.500			
0.4844	31004.71	3.7430	3.7432	0.1221	24.99	-0.12	1.500			
0.4848	31025.93	3.7400	3.7402	0.0946	24.99	-0.12	1.500			
