Ah_balance (normalized)	Ah_balance (mAh)	Voltage - fit (V)	Voltage -  interpolate (V)	dQ/dV (1/V)	Temperature (°C)	Temperature - diff (°C)	Current (C)	R_DC 0ms (mOhm)	R_DC 50ms (mOhm)	R_DC 50 ms PEC (mOhm)
0.2888	18486.26	3.9820	3.9820	0.8314	27.06	1.13	1.500			
0.2914	18647.97	3.9790	3.9789	0.8479	27.06	1.13	1.500			
0.2940	18813.68	3.9760	3.9760	0.8577	27.05	1.12	1.500			
0.2966	18979.42	3.9730	3.9730	0.8621	27.05	1.12	1.500			
0.2992	19146.53	3.9700	3.9700	0.8647	27.04	1.11	1.500			
0.3018	19314.51	3.9670	3.9671	0.8660	27.04	1.11	1.500			
0.3044	19479.34	3.9640	3.9640	0.8663	27.04	1.11	1.500			
0.3069	19644.44	3.9610	3.9610	0.8679	27.03	1.10	1.500			
0.3095	19810.71	3.9580	3.9580	0.8712	27.03	1.10	1.500			
0.3122	19978.79	3.9550	3.9550	0.8757	27.02	1.09	1.500			
0.3148	20148.79	3.9520	3.9519	0.8789	27.02	1.09	1.500			
0.3175	20317.88	3.9490	3.9490	0.8813	27.02	1.09	1.500			
0.3201	20487.00	3.9460	3.9460	0.8887	27.01	1.08	1.500			
0.3228	20657.74	3.9430	3.9430	0.8891	27.01	1.08	1.500			
0.3254	20828.33	3.9400	3.9399	0.8934	27.00	1.07	1.500			
0.3281	20999.93	3.9370	3.9371	0.9028	27.00	1.07	1.500			
0.3308	21174.13	3.9340	3.9340	0.9096	26.99	1.06	1.500			
0.3336	21349.68	3.9310	3.9310	0.9153	26.98	1.05	1.500			
0.3363	21526.02	3.9280	3.9280	0.9190	26.98	1.05	1.500			
0.3391	21703.06	3.9250	3.9250	0.9204	26.97	1.04	1.500			
0.3419	21882.99	3.9220	3.9220	0.9262	26.96	1.03	1.500			
0.3447	22059.98	3.9190	3.9190	0.9262	26.96	1.03	1.500			
0.3474	22235.73	3.9160	3.9160	0.9313	26.95	1.02	1.500			
0.3502	22415.25	3.9130	3.9131	0.9435	26.94	1.01	1.500			
0.3531	22596.22	3.9100	3.9099	0.9537	26.94	1.01	1.500			
0.3559	22780.33	3.9070	3.9069	0.9649	26.93	1.00	1.500			
0.3589	22968.26	3.9040	3.9041	0.9751	26.93	1.00	1.500			
0.3618	23156.39	3.9010	3.9010	0.9786	26.92	0.99	1.500			
0.3648	23347.29	3.8980	3.8980	0.9801	26.92	0.99	1.500			
0.3677	23533.36	3.8950	3.8951	0.9795	26.92	0.99	1.500			
0.3706	23720.18	3.8920	3.8919	0.9902	26.91	0.98	1.500			
0.3736	23909.87	3.8890	3.8891	1.0017	26.91	0.98	1.500			
0.3766	24103.63	3.8860	3.8858	1.0161	26.90	0.97	1.500			
0.3797	24302.42	3.8830	3.8831	1.0269	26.89	0.96	1.500			
0.3828	24500.92	3.8800	3.8801	1.0397	26.89	0.96	1.500			
0.3860	24702.73	3.8770	3.8770	1.0530	26.88	0.95	1.500			
0.3891	24904.17	3.8740	3.8740	1.0606	26.87	0.94	1.500			
0.3923	25106.05	3.8710	3.8709	1.0616	26.86	0.93	1.500			
0.3955	25310.16	3.8680	3.8680	1.0783	26.86	0.93	1.500			
0.3987	25519.15	3.8650	3.8651	1.0929	26.85	0.92	1.500			
0.4020	25730.25	3.8620	3.8619	1.1098	26.84	0.91	1.500			
0.4054	25943.03	3.8590	3.8590	1.1256	26.83	0.90	1.500			
0.4088	26162.08	3.8560	3.8560	1.1459	26.82	0.89	1.500			
0.4123	26384.57	3.8530	3.8530	1.1628	26.82	0.89	1.500			
0.4158	26611.24	3.8500	3.8500	1.1758	26.81	0.88	1.500			
0.4193	26836.37	3.8470	3.8471	1.1912	26.80	0.87	1.500			
0.4229	27066.12	3.8440	3.8440	1.2107	26.79	0.86	1.500			
0.4266	27300.13	3.8410	3.8409	1.2257	26.78	0.85	1.500			
0.4302	27535.10	3.8380	3.8380	1.2456	26.77	0.84	1.500			
0.4340	27776.69	3.8350	3.8351	1.2692	26.76	0.83	1.500			
0.4379	28024.83	3.8320	3.8320	1.2927	26.75	0.82	1.500			
0.4418	28273.63	3.8290	3.8289	1.3207	26.74	0.81	1.500			
0.4458	28528.61	3.8260	3.8260	1.3499	26.74	0.81	1.500			
0.4498	28789.97	3.8230	3.8230	1.3783	26.73	0.80	1.500			
0.4540	29059.09	3.8200	3.8201	1.4074	26.71	0.78	1.500			
0.4583	29332.19	3.8170	3.8170	1.4345	26.70	0.77	1.500			
0.4627	29611.99	3.8140	3.8140	1.4609	26.69	0.76	1.500			
0.4671	29894.03	3.8110	3.8110	1.4902	26.67	0.74	1.500			
0.4715	30179.10	3.8080	3.8080	1.5232	26.66	0.73	1.500			
0.4761	30472.93	3.8050	3.8050	1.5619	26.64	0.71	1.500			
0.4809	30777.65	3.8020	3.8020	1.6067	26.63	0.70	1.500			
0.4858	31093.09	3.7990	3.7989	1.6347	26.61	0.68	1.500			
0.4908	31412.66	3.7960	3.7961	1.6789	26.60	0.67	1.500			
0.4959	31736.09	3.7930	3.7931	1.7118	26.58	0.65	1.500			
0.5011	32067.44	3.7900	3.7899	1.7499	26.56	0.63	1.500			
0.5063	32404.09	3.7870	3.7870	1.7847	26.55	0.62	1.500			
0.5118	32753.85	3.7840	3.7840	1.8102	26.54	0.61	1.500			
0.5173	33106.08	3.7810	3.7811	1.8446	26.52	0.59	1.500			
0.5228	33459.37	3.7780	3.7781	1.8727	26.51	0.58	1.500			
0.5284	33818.81	3.7750	3.7750	1.9189	26.50	0.57	1.500			
0.5343	34197.85	3.7720	3.7719	1.9437	26.48	0.55	1.500	0.355	0.461	
0.5403	34576.91	3.7690	3.7691	1.9632	26.46	0.53	1.500			
0.5462	34959.02	3.7660	3.7661	1.9596	26.44	0.51	1.500			
0.5521	35335.83	3.7630	3.7628	1.9411	26.42	0.49	1.500			
0.5578	35701.08	3.7600	3.7600	1.9239	26.41	0.48	1.500			
0.5636	36070.05	3.7570	3.7570	1.9110	26.39	0.46	1.500			
0.5694	36439.42	3.7540	3.7540	1.9055	26.38	0.45	1.500			
0.5751	36805.08	3.7510	3.7510	1.9122	26.36	0.43	1.500			
0.5808	37172.23	3.7480	3.7480	1.9089	26.35	0.42	1.500			
0.5866	37539.81	3.7450	3.7450	1.8938	26.34	0.41	1.500			
0.5922	37902.48	3.7420	3.7421	1.9074	26.32	0.39	1.500			
0.5979	38267.27	3.7390	3.7390	1.9308	26.31	0.38	1.500			
0.6037	38639.47	3.7360	3.7361	1.9619	26.30	0.37	1.500			
0.6097	39018.99	3.7330	3.7330	2.0010	26.28	0.35	1.500			
0.6157	39407.17	3.7300	3.7300	2.0500	26.27	0.34	1.500			
0.6220	39805.91	3.7270	3.7270	2.0867	26.25	0.32	1.500			
0.6283	40209.99	3.7240	3.7240	2.1229	26.24	0.31	1.500			
0.6348	40624.60	3.7210	3.7210	2.1633	26.22	0.29	1.500			
0.6412	41035.38	3.7180	3.7180	2.2402	26.21	0.28	1.500			
0.6480	41473.34	3.7150	3.7151	2.3327	26.19	0.26	1.500			
0.6552	41932.23	3.7120	3.7121	2.4316	26.18	0.25	1.500			
0.6627	42410.30	3.7090	3.7091	2.4929	26.16	0.23	1.500			
0.6703	42897.65	3.7060	3.7060	2.5184	26.15	0.22	1.500			
0.6779	43387.54	3.7030	3.7031	2.5563	26.14	0.21	1.500			
0.6858	43890.63	3.7000	3.7000	2.5532	26.13	0.20	1.500			
0.6935	44381.94	3.6970	3.6970	2.4787	26.11	0.18	1.500			
0.7007	44846.26	3.6940	3.6939	2.3116	26.10	0.17	1.500			
0.7074	45275.59	3.6910	3.6910	2.1534	26.09	0.16	1.500			
0.7136	45668.77	3.6880	3.6881	1.9783	26.09	0.16	1.500			
0.7192	46028.19	3.6850	3.6850	1.8157	26.08	0.15	1.500			
0.7244	46363.96	3.6820	3.6820	1.6959	26.07	0.14	1.500			
0.7293	46676.66	3.6790	3.6790	1.5987	26.07	0.14	1.500			
0.7339	46968.13	3.6760	3.6760	1.5113	26.06	0.13	1.500			
0.7383	47248.15	3.6730	3.6729	1.4334	26.05	0.12	1.500			
0.7424	47512.44	3.6700	3.6700	1.3741	26.04	0.11	1.500			
0.7464	47768.30	3.6670	3.6670	1.3272	26.03	0.10	1.500			
0.7502	48014.46	3.6640	3.6640	1.2966	26.02	0.09	1.500			
0.7541	48259.63	3.6610	3.6610	1.2755	26.02	0.09	1.500			
0.7578	48499.01	3.6580	3.6580	1.2658	26.01	0.08	1.500			
0.7616	48739.33	3.6550	3.6550	1.2694	26.00	0.07	1.500			
0.7654	48983.91	3.6520	3.6520	1.2742	26.00	0.07	1.500			
0.7692	49228.67	3.6490	3.6490	1.2784	25.99	0.06	1.500			
0.7731	49475.69	3.6460	3.6460	1.2820	25.99	0.06	1.500			
0.7769	49722.81	3.6430	3.6430	1.2854	25.98	0.05	1.500			
0.7808	49971.33	3.6400	3.6400	1.2877	25.97	0.04	1.500			
0.7847	50217.86	3.6370	3.6370	1.2866	25.97	0.04	1.500			
0.7885	50465.27	3.6340	3.6340	1.2788	25.96	0.03	1.500			
0.7924	50710.63	3.6310	3.6310	1.2821	25.96	0.03	1.500			
0.7962	50956.68	3.6280	3.6280	1.2778	25.95	0.02	1.500			
0.8000	51201.60	3.6250	3.6250	1.2773	25.94	0.01	1.500			
0.8038	51445.40	3.6220	3.6220	1.2761	25.94	0.01	1.500			
0.8077	51692.64	3.6190	3.6190	1.2687	25.94	0.01	1.500			
0.8115	51936.26	3.6160	3.6160	1.2601	25.93	0.00	1.500			
0.8153	52180.06	3.6130	3.6130	1.2535	25.93	-0.00	1.500			
0.8190	52417.02	3.6100	3.6101	1.2370	25.93	-0.00	1.500			
0.8227	52654.84	3.6070	3.6069	1.2243	25.92	-0.01	1.500			
0.8264	52887.78	3.6040	3.6039	1.2058	25.92	-0.01	1.500			
0.8300	53116.96	3.6010	3.6011	1.1891	25.92	-0.01	1.500			
0.8335	53345.44	3.5980	3.5980	1.1758	25.92	-0.01	1.500			
0.8370	53570.00	3.5950	3.5950	1.1593	25.92	-0.01	1.500			
0.8405	53790.30	3.5920	3.5920	1.1439	25.93	-0.00	1.500			
0.8439	54006.55	3.5890	3.5890	1.1265	25.93	-0.00	1.500			
0.8472	54222.48	3.5860	3.5860	1.1134	25.93	-0.00	1.500			
0.8506	54439.64	3.5830	3.5829	1.0843	25.93	-0.00	1.500			
0.8539	54647.74	3.5800	3.5800	1.0425	25.93	0.00	1.500			
0.8571	54854.29	3.5770	3.5770	0.9739	25.93	0.00	1.500			
0.8600	55038.90	3.5740	3.5741	0.8812	25.93	0.00	1.500			
0.8626	55204.94	3.5710	3.5710	0.7779	25.93	0.00	1.500			
0.8647	55341.12	3.5680	3.5681	0.6573	25.94	0.01	1.500			
0.8664	55449.07	3.5650	3.5650	0.5440	25.94	0.01	1.500			
0.8678	55538.85	3.5620	3.5620	0.4516	25.94	0.01	1.500			
0.8689	55609.52	3.5590	3.5591	0.3714	25.94	0.01	1.500			
0.8699	55672.41	3.5560	3.5560	0.3210	25.94	0.01	1.500			
0.8707	55725.83	3.5530	3.5530	0.2704	25.94	0.01	1.500			
0.8714	55772.42	3.5500	3.5499	0.2386	25.94	0.01	1.500			
0.8721	55812.81	3.5470	3.5470	0.2110	25.94	0.01	1.500			
0.8727	55851.06	3.5440	3.5440	0.1898	25.94	0.01	1.500			
0.8732	55884.65	3.5410	3.5411	0.1715	25.94	0.01	1.500			
0.8737	55915.03	3.5380	3.5380	0.1554	25.94	0.01	1.500			
0.8741	55942.75	3.5350	3.5350	0.1390	25.94	0.01	1.500			
0.8745	55968.13	3.5320	3.5320	0.1249	25.94	0.01	1.500			
0.8749	55990.58	3.5290	3.5290	0.1106	25.94	0.01	1.500			
0.8752	56010.65	3.5260	3.5260	0.0970	25.94	0.01	1.500			
0.8754	56027.93	3.5230	3.5232	0.0829	25.94	0.01	1.500			
0.8757	56042.50	3.5200	3.5203	0.0689	25.94	0.01	1.500			
0.8759	56054.76	3.5170	3.5173	0.0534	25.94	0.01	1.500			
0.8760	56063.55	3.5140	3.5145	0.0381	25.94	0.01	1.500			
