Ah_balance (normalized)	Ah_balance (mAh)	Voltage - fit (V)	Voltage -  interpolate (V)	dQ/dV (1/V)	Temperature (°C)	Temperature - diff (°C)	Current (C)	R_DC 0ms (mOhm)	R_DC 50ms (mOhm)	R_DC 50 ms PEC (mOhm)
0.2915	18656.85	3.9860	3.9860	0.8411	27.04	1.09	1.500			
0.2940	18817.99	3.9830	3.9830	0.8422	27.04	1.09	1.500			
0.2966	18980.20	3.9800	3.9801	0.8456	27.04	1.09	1.500			
0.2991	19142.80	3.9770	3.9769	0.8497	27.03	1.08	1.500			
0.3017	19306.94	3.9740	3.9740	0.8499	27.03	1.08	1.500			
0.3042	19470.16	3.9710	3.9709	0.8499	27.03	1.08	1.500			
0.3068	19633.46	3.9680	3.9681	0.8538	27.02	1.07	1.500			
0.3093	19797.72	3.9650	3.9649	0.8568	27.02	1.07	1.500			
0.3119	19960.60	3.9620	3.9620	0.8617	27.02	1.07	1.500			
0.3145	20127.01	3.9590	3.9591	0.8682	27.01	1.06	1.500			
0.3171	20293.80	3.9560	3.9560	0.8721	27.01	1.06	1.500			
0.3197	20463.36	3.9530	3.9529	0.8753	27.01	1.06	1.500			
0.3224	20630.85	3.9500	3.9501	0.8806	27.00	1.05	1.500			
0.3250	20800.12	3.9470	3.9470	0.8828	27.00	1.05	1.500			
0.3277	20969.84	3.9440	3.9440	0.8875	26.99	1.04	1.500			
0.3303	21140.52	3.9410	3.9409	0.8908	26.99	1.04	1.500			
0.3330	21313.39	3.9380	3.9381	0.8920	26.98	1.03	1.500			
0.3357	21484.37	3.9350	3.9350	0.8974	26.97	1.02	1.500			
0.3384	21656.52	3.9320	3.9321	0.9037	26.97	1.02	1.500			
0.3411	21829.18	3.9290	3.9290	0.9075	26.96	1.01	1.500			
0.3438	22003.80	3.9260	3.9260	0.9133	26.96	1.01	1.500			
0.3466	22179.55	3.9230	3.9230	0.9222	26.95	1.00	1.500			
0.3494	22358.41	3.9200	3.9200	0.9296	26.95	1.00	1.500			
0.3522	22537.95	3.9170	3.9170	0.9347	26.95	1.00	1.500			
0.3550	22717.71	3.9140	3.9141	0.9372	26.94	0.99	1.500			
0.3578	22899.27	3.9110	3.9110	0.9407	26.94	0.99	1.500			
0.3606	23079.72	3.9080	3.9080	0.9463	26.93	0.98	1.500			
0.3635	23261.00	3.9050	3.9050	0.9527	26.93	0.98	1.500			
0.3663	23443.59	3.9020	3.9021	0.9581	26.92	0.97	1.500			
0.3692	23628.55	3.8990	3.8991	0.9685	26.92	0.97	1.500			
0.3721	23814.47	3.8960	3.8960	0.9798	26.91	0.96	1.500			
0.3751	24003.87	3.8930	3.8930	0.9852	26.91	0.96	1.500			
0.3780	24193.76	3.8900	3.8899	0.9950	26.90	0.95	1.500			
0.3810	24387.11	3.8870	3.8871	1.0037	26.89	0.94	1.500			
0.3841	24579.66	3.8840	3.8840	1.0137	26.89	0.94	1.500			
0.3871	24774.35	3.8810	3.8810	1.0259	26.88	0.93	1.500			
0.3902	24972.42	3.8780	3.8780	1.0368	26.88	0.93	1.500			
0.3933	25172.38	3.8750	3.8749	1.0457	26.87	0.92	1.500			
0.3965	25375.51	3.8720	3.8720	1.0626	26.86	0.91	1.500			
0.3997	25579.60	3.8690	3.8691	1.0727	26.86	0.91	1.500			
0.4029	25787.11	3.8660	3.8660	1.0849	26.85	0.90	1.500			
0.4062	25997.20	3.8630	3.8630	1.0919	26.84	0.89	1.500			
0.4095	26206.49	3.8600	3.8600	1.1036	26.84	0.89	1.500			
0.4128	26418.94	3.8570	3.8571	1.1230	26.83	0.88	1.500			
0.4162	26635.95	3.8540	3.8540	1.1390	26.82	0.87	1.500			
0.4196	26855.24	3.8510	3.8510	1.1543	26.82	0.87	1.500			
0.4231	27079.36	3.8480	3.8480	1.1726	26.81	0.86	1.500			
0.4267	27306.36	3.8450	3.8450	1.1944	26.80	0.85	1.500			
0.4303	27539.95	3.8420	3.8420	1.2114	26.80	0.85	1.500			
0.4339	27771.34	3.8390	3.8390	1.2295	26.79	0.84	1.500			
0.4376	28008.18	3.8360	3.8360	1.2548	26.78	0.83	1.500			
0.4414	28252.01	3.8330	3.8330	1.2763	26.77	0.82	1.500			
0.4453	28499.33	3.8300	3.8300	1.2985	26.77	0.82	1.500			
0.4492	28751.01	3.8270	3.8270	1.3249	26.76	0.81	1.500			
0.4532	29007.82	3.8240	3.8240	1.3450	26.75	0.80	1.500			
0.4573	29267.79	3.8210	3.8210	1.3776	26.74	0.79	1.500			
0.4615	29533.11	3.8180	3.8180	1.4000	26.73	0.78	1.500			
0.4657	29805.54	3.8150	3.8150	1.4273	26.72	0.77	1.500			
0.4701	30084.04	3.8120	3.8120	1.4568	26.72	0.77	1.500			
0.4745	30365.54	3.8090	3.8090	1.4863	26.70	0.75	1.500			
0.4790	30654.80	3.8060	3.8060	1.5004	26.69	0.74	1.500			
0.4835	30942.73	3.8030	3.8030	1.5348	26.68	0.73	1.500			
0.4881	31237.75	3.8000	3.8001	1.5792	26.67	0.72	1.500			
0.4929	31545.34	3.7970	3.7968	1.6180	26.66	0.71	1.500			
0.4978	31861.28	3.7940	3.7940	1.6570	26.65	0.70	1.500			
0.5029	32187.48	3.7910	3.7910	1.6980	26.64	0.69	1.500			
0.5081	32517.06	3.7880	3.7879	1.7263	26.62	0.67	1.500			
0.5132	32847.39	3.7850	3.7850	1.7375	26.61	0.66	1.500			
0.5185	33183.55	3.7820	3.7820	1.7574	26.60	0.65	1.500			
0.5238	33523.72	3.7790	3.7790	1.7778	26.59	0.64	1.500			
0.5292	33866.13	3.7760	3.7761	1.7972	26.57	0.62	1.500	0.352	0.468	
0.5346	34214.58	3.7730	3.7730	1.8041	26.56	0.61	1.500			
0.5400	34560.88	3.7700	3.7700	1.8097	26.55	0.60	1.500			
0.5455	34909.22	3.7670	3.7670	1.8083	26.53	0.58	1.500			
0.5509	35256.62	3.7640	3.7640	1.8034	26.52	0.57	1.500			
0.5562	35598.91	3.7610	3.7610	1.7910	26.50	0.55	1.500			
0.5616	35941.71	3.7580	3.7581	1.7841	26.49	0.54	1.500			
0.5670	36285.51	3.7550	3.7549	1.7892	26.47	0.52	1.500			
0.5723	36626.99	3.7520	3.7520	1.7955	26.46	0.51	1.500			
0.5777	36973.37	3.7490	3.7490	1.7977	26.45	0.50	1.500			
0.5832	37321.77	3.7460	3.7460	1.8229	26.43	0.48	1.500			
0.5886	37667.46	3.7430	3.7431	1.8350	26.42	0.47	1.500			
0.5941	38023.19	3.7400	3.7399	1.8756	26.41	0.46	1.500			
0.5998	38385.88	3.7370	3.7370	1.9059	26.40	0.45	1.500			
0.6055	38753.23	3.7340	3.7340	1.9437	26.39	0.44	1.500			
0.6114	39130.64	3.7310	3.7310	1.9836	26.37	0.42	1.500			
0.6174	39514.38	3.7280	3.7279	2.0501	26.36	0.41	1.500			
0.6237	39917.71	3.7250	3.7250	2.1052	26.34	0.39	1.500			
0.6301	40326.18	3.7220	3.7221	2.1746	26.33	0.38	1.500			
0.6367	40745.84	3.7190	3.7190	2.2270	26.31	0.36	1.500			
0.6435	41181.14	3.7160	3.7159	2.3091	26.29	0.34	1.500			
0.6505	41631.17	3.7130	3.7131	2.3559	26.28	0.33	1.500			
0.6577	42093.31	3.7100	3.7100	2.4220	26.26	0.31	1.500			
0.6650	42563.13	3.7070	3.7069	2.4566	26.25	0.30	1.500			
0.6725	43039.09	3.7040	3.7041	2.4713	26.23	0.28	1.500			
0.6800	43522.40	3.7010	3.7010	2.4126	26.21	0.26	1.500			
0.6872	43978.51	3.6980	3.6980	2.2877	26.19	0.24	1.500			
0.6938	44404.38	3.6950	3.6951	2.1333	26.18	0.23	1.500			
0.6999	44796.16	3.6920	3.6920	1.9602	26.17	0.22	1.500			
0.7055	45150.41	3.6890	3.6891	1.8056	26.16	0.21	1.500			
0.7106	45478.46	3.6860	3.6860	1.6741	26.15	0.20	1.500			
0.7154	45787.13	3.6830	3.6831	1.5671	26.14	0.19	1.500			
0.7199	46074.80	3.6800	3.6800	1.4901	26.13	0.18	1.500			
0.7242	46347.54	3.6770	3.6770	1.4180	26.12	0.17	1.500			
0.7283	46612.73	3.6740	3.6740	1.3682	26.11	0.16	1.500			
0.7323	46868.69	3.6710	3.6710	1.3280	26.10	0.15	1.500			
0.7362	47115.35	3.6680	3.6680	1.2915	26.09	0.14	1.500			
0.7400	47360.70	3.6650	3.6650	1.2723	26.09	0.14	1.500			
0.7438	47601.12	3.6620	3.6620	1.2612	26.08	0.13	1.500			
0.7475	47839.40	3.6590	3.6590	1.2509	26.07	0.12	1.500			
0.7512	48075.82	3.6560	3.6560	1.2568	26.06	0.11	1.500			
0.7550	48318.08	3.6530	3.6530	1.2660	26.05	0.10	1.500			
0.7588	48561.99	3.6500	3.6500	1.2731	26.04	0.09	1.500			
0.7626	48808.43	3.6470	3.6470	1.2837	26.03	0.08	1.500			
0.7665	49057.83	3.6440	3.6441	1.2872	26.02	0.07	1.500			
0.7704	49306.45	3.6410	3.6410	1.2843	26.02	0.07	1.500			
0.7743	49554.81	3.6380	3.6380	1.2779	26.01	0.06	1.500			
0.7781	49798.48	3.6350	3.6350	1.2676	26.00	0.05	1.500			
0.7819	50040.75	3.6320	3.6320	1.2591	25.99	0.04	1.500			
0.7856	50280.63	3.6290	3.6290	1.2490	25.98	0.03	1.500			
0.7894	50518.41	3.6260	3.6260	1.2410	25.98	0.03	1.500			
0.7931	50755.61	3.6230	3.6229	1.2395	25.97	0.02	1.500			
0.7968	50993.71	3.6200	3.6200	1.2356	25.97	0.02	1.500			
0.8005	51231.26	3.6170	3.6170	1.2267	25.96	0.01	1.500			
0.8042	51467.57	3.6140	3.6140	1.2162	25.96	0.01	1.500			
0.8078	51701.21	3.6110	3.6110	1.1949	25.95	0.00	1.500			
0.8114	51927.94	3.6080	3.6080	1.1812	25.95	-0.00	1.500			
0.8149	52153.52	3.6050	3.6050	1.1586	25.94	-0.01	1.500			
0.8183	52373.28	3.6020	3.6018	1.1384	25.94	-0.01	1.500			
0.8217	52589.83	3.5990	3.5990	1.1192	25.94	-0.01	1.500			
0.8251	52803.43	3.5960	3.5961	1.0982	25.94	-0.01	1.500			
0.8283	53013.48	3.5930	3.5929	1.0809	25.94	-0.01	1.500			
0.8315	53218.79	3.5900	3.5900	1.0536	25.95	-0.00	1.500			
0.8347	53422.49	3.5870	3.5870	1.0188	25.95	-0.00	1.500			
0.8378	53620.94	3.5840	3.5839	0.9789	25.95	-0.00	1.500			
0.8408	53809.01	3.5810	3.5810	0.9034	25.95	-0.00	1.500			
0.8435	53981.63	3.5780	3.5780	0.8246	25.95	0.00	1.500			
0.8458	54132.65	3.5750	3.5750	0.7221	25.95	0.00	1.500			
0.8478	54260.94	3.5720	3.5721	0.6153	25.95	0.00	1.500			
0.8494	54364.02	3.5690	3.5690	0.5212	25.95	0.00	1.500			
0.8508	54448.83	3.5660	3.5660	0.4378	25.95	0.00	1.500			
0.8519	54520.71	3.5630	3.5630	0.3573	25.95	0.00	1.500			
0.8528	54580.30	3.5600	3.5599	0.3062	25.95	0.00	1.500			
0.8536	54630.33	3.5570	3.5571	0.2631	25.95	0.00	1.500			
0.8543	54675.61	3.5540	3.5539	0.2339	25.95	0.00	1.500			
0.8549	54715.91	3.5510	3.5511	0.2061	25.95	0.00	1.500			
0.8555	54752.50	3.5480	3.5480	0.1859	25.95	0.00	1.500			
0.8560	54785.35	3.5450	3.5450	0.1676	25.96	0.01	1.500			
0.8565	54815.61	3.5420	3.5420	0.1505	25.96	0.01	1.500			
0.8569	54843.04	3.5390	3.5391	0.1353	25.96	0.01	1.500			
0.8573	54867.36	3.5360	3.5359	0.1207	25.96	0.01	1.500			
0.8576	54888.92	3.5330	3.5330	0.1056	25.96	0.01	1.500			
0.8579	54907.65	3.5300	3.5301	0.0910	25.96	0.01	1.500			
0.8582	54923.78	3.5270	3.5273	0.0770	25.96	0.01	1.500			
0.8584	54937.58	3.5240	3.5241	0.0628	25.96	0.01	1.500			
0.8586	54948.24	3.5210	3.5215	0.0482	25.96	0.01	1.500			
0.8587	54956.08	3.5180	3.5188	0.0335	25.96	0.01	1.500			
