Ah_balance (normalized)	Ah_balance (mAh)	Voltage - fit (V)	Voltage -  interpolate (V)	dQ/dV (1/V)	Temperature (°C)	Temperature - diff (°C)	Current (C)	R_DC 0ms (mOhm)	R_DC 50ms (mOhm)	R_DC 50 ms PEC (mOhm)
0.2822	18058.20	3.9920	3.9921	0.8515	27.25	1.30	1.500			
0.2847	18218.43	3.9890	3.9890	0.8269	27.24	1.29	1.500			
0.2871	18375.98	3.9860	3.9861	0.8316	27.24	1.29	1.500			
0.2897	18538.43	3.9830	3.9831	0.8403	27.23	1.28	1.500			
0.2922	18701.25	3.9800	3.9798	0.8455	27.23	1.28	1.500			
0.2947	18863.50	3.9770	3.9770	0.8483	27.22	1.27	1.500			
0.2973	19027.20	3.9740	3.9741	0.8490	27.22	1.27	1.500			
0.2999	19190.67	3.9710	3.9710	0.8528	27.21	1.26	1.500			
0.3024	19353.79	3.9680	3.9679	0.8517	27.21	1.26	1.500			
0.3050	19517.02	3.9650	3.9651	0.8532	27.20	1.25	1.500			
0.3076	19683.64	3.9620	3.9620	0.8562	27.20	1.25	1.500			
0.3101	19848.00	3.9590	3.9590	0.8626	27.19	1.24	1.500			
0.3127	20012.84	3.9560	3.9561	0.8678	27.19	1.24	1.500			
0.3153	20179.77	3.9530	3.9529	0.8730	27.18	1.23	1.500			
0.3179	20347.45	3.9500	3.9500	0.8743	27.18	1.23	1.500			
0.3206	20515.42	3.9470	3.9469	0.8797	27.17	1.22	1.500			
0.3232	20684.93	3.9440	3.9441	0.8849	27.17	1.22	1.500			
0.3259	20856.08	3.9410	3.9410	0.8921	27.16	1.21	1.500			
0.3285	21025.48	3.9380	3.9379	0.8942	27.16	1.21	1.500			
0.3312	21199.42	3.9350	3.9351	0.8970	27.15	1.20	1.500			
0.3339	21372.74	3.9320	3.9320	0.9052	27.15	1.20	1.500			
0.3367	21547.88	3.9290	3.9291	0.9113	27.14	1.19	1.500			
0.3394	21722.15	3.9260	3.9261	0.9161	27.13	1.18	1.500			
0.3422	21897.77	3.9230	3.9229	0.9202	27.13	1.18	1.500			
0.3449	22074.63	3.9200	3.9200	0.9267	27.12	1.17	1.500			
0.3477	22252.58	3.9170	3.9170	0.9336	27.12	1.17	1.500			
0.3505	22433.61	3.9140	3.9140	0.9427	27.11	1.16	1.500			
0.3534	22615.43	3.9110	3.9110	0.9484	27.11	1.16	1.500			
0.3562	22799.15	3.9080	3.9080	0.9536	27.10	1.15	1.500			
0.3591	22981.61	3.9050	3.9050	0.9596	27.10	1.15	1.500			
0.3620	23166.78	3.9020	3.9020	0.9678	27.09	1.14	1.500			
0.3649	23351.66	3.8990	3.8990	0.9748	27.08	1.13	1.500			
0.3678	23538.91	3.8960	3.8961	0.9856	27.08	1.13	1.500			
0.3708	23729.56	3.8930	3.8930	0.9995	27.07	1.12	1.500			
0.3738	23922.94	3.8900	3.8900	1.0086	27.06	1.11	1.500			
0.3768	24118.29	3.8870	3.8869	1.0188	27.05	1.10	1.500			
0.3799	24316.38	3.8840	3.8841	1.0265	27.04	1.09	1.500			
0.3830	24513.17	3.8810	3.8810	1.0384	27.03	1.08	1.500			
0.3861	24712.26	3.8780	3.8780	1.0482	27.03	1.08	1.500			
0.3893	24915.13	3.8750	3.8750	1.0587	27.02	1.07	1.500			
0.3925	25119.18	3.8720	3.8720	1.0659	27.01	1.06	1.500			
0.3957	25324.84	3.8690	3.8691	1.0788	27.00	1.05	1.500			
0.3990	25533.12	3.8660	3.8660	1.0889	26.99	1.04	1.500			
0.4022	25742.32	3.8630	3.8629	1.1015	26.98	1.03	1.500			
0.4055	25952.07	3.8600	3.8600	1.1100	26.97	1.02	1.500			
0.4089	26167.02	3.8570	3.8570	1.1321	26.96	1.01	1.500			
0.4123	26387.42	3.8540	3.8540	1.1541	26.95	1.00	1.500			
0.4158	26611.53	3.8510	3.8510	1.1734	26.94	0.99	1.500			
0.4194	26838.59	3.8480	3.8480	1.1879	26.93	0.98	1.500			
0.4230	27069.57	3.8450	3.8450	1.2056	26.92	0.97	1.500			
0.4266	27301.71	3.8420	3.8420	1.2200	26.91	0.96	1.500			
0.4303	27537.76	3.8390	3.8390	1.2362	26.90	0.95	1.500			
0.4340	27775.82	3.8360	3.8360	1.2511	26.89	0.94	1.500			
0.4378	28016.53	3.8330	3.8330	1.2704	26.88	0.93	1.500			
0.4416	28262.42	3.8300	3.8300	1.2886	26.87	0.92	1.500			
0.4455	28511.64	3.8270	3.8270	1.3116	26.86	0.91	1.500			
0.4495	28764.83	3.8240	3.8240	1.3314	26.84	0.89	1.500			
0.4535	29022.05	3.8210	3.8210	1.3534	26.83	0.88	1.500			
0.4576	29283.62	3.8180	3.8180	1.3837	26.81	0.86	1.500			
0.4617	29551.19	3.8150	3.8150	1.4095	26.80	0.85	1.500			
0.4660	29825.18	3.8120	3.8118	1.4351	26.78	0.83	1.500			
0.4704	30104.43	3.8090	3.8091	1.4647	26.77	0.82	1.500			
0.4748	30387.80	3.8060	3.8060	1.4901	26.75	0.80	1.500			
0.4793	30677.88	3.8030	3.8030	1.5120	26.74	0.79	1.500			
0.4839	30967.32	3.8000	3.8000	1.5251	26.73	0.78	1.500			
0.4885	31263.98	3.7970	3.7971	1.5580	26.71	0.76	1.500			
0.4932	31564.68	3.7940	3.7940	1.5830	26.70	0.75	1.500			
0.4980	31871.26	3.7910	3.7910	1.6165	26.68	0.73	1.500			
0.5029	32183.86	3.7880	3.7880	1.6419	26.66	0.71	1.500			
0.5079	32503.01	3.7850	3.7849	1.6751	26.65	0.70	1.500	0.346	0.482	
0.5130	32829.80	3.7820	3.7821	1.6884	26.63	0.68	1.500			
0.5181	33158.53	3.7790	3.7790	1.6933	26.62	0.67	1.500			
0.5231	33481.49	3.7760	3.7761	1.6954	26.60	0.65	1.500			
0.5282	33807.00	3.7730	3.7730	1.6942	26.58	0.63	1.500			
0.5333	34132.31	3.7700	3.7699	1.7010	26.57	0.62	1.500			
0.5384	34456.71	3.7670	3.7671	1.7061	26.55	0.60	1.500			
0.5435	34786.46	3.7640	3.7640	1.7259	26.53	0.58	1.500			
0.5488	35120.42	3.7610	3.7609	1.7336	26.52	0.57	1.500			
0.5539	35451.69	3.7580	3.7580	1.7263	26.50	0.55	1.500			
0.5591	35784.96	3.7550	3.7551	1.7426	26.48	0.53	1.500			
0.5644	36120.94	3.7520	3.7519	1.7524	26.47	0.52	1.500			
0.5696	36455.30	3.7490	3.7490	1.7772	26.45	0.50	1.500			
0.5750	36797.70	3.7460	3.7460	1.8007	26.43	0.48	1.500			
0.5804	37145.78	3.7430	3.7430	1.8331	26.42	0.47	1.500			
0.5859	37496.28	3.7400	3.7401	1.8758	26.40	0.45	1.500			
0.5916	37862.48	3.7370	3.7368	1.9184	26.38	0.43	1.500			
0.5974	38234.62	3.7340	3.7340	1.9711	26.37	0.42	1.500			
0.6035	38621.83	3.7310	3.7310	2.0066	26.35	0.40	1.500			
0.6095	39006.00	3.7280	3.7280	2.0495	26.34	0.39	1.500			
0.6156	39399.01	3.7250	3.7249	2.1164	26.32	0.37	1.500			
0.6221	39815.44	3.7220	3.7221	2.2091	26.30	0.35	1.500			
0.6289	40250.96	3.7190	3.7190	2.2340	26.28	0.33	1.500			
0.6356	40681.24	3.7160	3.7161	2.2684	26.26	0.31	1.500			
0.6425	41123.12	3.7130	3.7128	2.3336	26.24	0.29	1.500			
0.6497	41579.84	3.7100	3.7100	2.3083	26.22	0.27	1.500			
0.6568	42035.69	3.7070	3.7071	2.2929	26.20	0.25	1.500			
0.6636	42469.16	3.7040	3.7039	2.1794	26.19	0.24	1.500			
0.6700	42878.36	3.7010	3.7011	2.0630	26.17	0.22	1.500			
0.6760	43263.22	3.6980	3.6980	1.9274	26.17	0.22	1.500			
0.6815	43616.63	3.6950	3.6951	1.7922	26.16	0.21	1.500			
0.6866	43941.57	3.6920	3.6921	1.6602	26.15	0.20	1.500			
0.6914	44249.25	3.6890	3.6889	1.5828	26.14	0.19	1.500			
0.6960	44543.82	3.6860	3.6860	1.5035	26.13	0.18	1.500			
0.7003	44821.21	3.6830	3.6830	1.4394	26.12	0.17	1.500			
0.7046	45092.02	3.6800	3.6800	1.3839	26.11	0.16	1.500			
0.7086	45350.08	3.6770	3.6770	1.3385	26.10	0.15	1.500			
0.7125	45598.61	3.6740	3.6740	1.3003	26.09	0.14	1.500			
0.7163	45843.19	3.6710	3.6708	1.2767	26.08	0.13	1.500			
0.7200	46081.73	3.6680	3.6681	1.2656	26.07	0.12	1.500			
0.7238	46323.53	3.6650	3.6650	1.2704	26.06	0.11	1.500			
0.7276	46567.92	3.6620	3.6619	1.2671	26.05	0.10	1.500			
0.7315	46814.26	3.6590	3.6590	1.2667	26.04	0.09	1.500			
0.7352	47055.10	3.6560	3.6561	1.2604	26.04	0.09	1.500			
0.7390	47297.96	3.6530	3.6530	1.2624	26.03	0.08	1.500			
0.7428	47540.56	3.6500	3.6500	1.2545	26.02	0.07	1.500			
0.7466	47780.11	3.6470	3.6470	1.2470	26.01	0.06	1.500			
0.7503	48019.05	3.6440	3.6440	1.2343	26.00	0.05	1.500			
0.7540	48258.06	3.6410	3.6411	1.2227	26.00	0.05	1.500			
0.7577	48490.51	3.6380	3.6379	1.2173	25.99	0.04	1.500			
0.7613	48721.38	3.6350	3.6350	1.2067	25.98	0.03	1.500			
0.7648	48950.27	3.6320	3.6320	1.1957	25.97	0.02	1.500			
0.7684	49179.95	3.6290	3.6290	1.1949	25.97	0.02	1.500			
0.7721	49412.14	3.6260	3.6261	1.1831	25.96	0.01	1.500			
0.7756	49639.83	3.6230	3.6230	1.1740	25.96	0.01	1.500			
0.7792	49866.61	3.6200	3.6200	1.1542	25.96	0.01	1.500			
0.7826	50083.76	3.6170	3.6170	1.1320	25.95	0.00	1.500			
0.7859	50299.53	3.6140	3.6140	1.1129	25.95	-0.00	1.500			
0.7892	50511.41	3.6110	3.6110	1.0914	25.94	-0.01	1.500			
0.7925	50718.65	3.6080	3.6081	1.0682	25.94	-0.01	1.500			
0.7957	50922.56	3.6050	3.6051	1.0491	25.94	-0.01	1.500			
0.7988	51121.40	3.6020	3.6020	1.0225	25.94	-0.01	1.500			
0.8018	51317.63	3.5990	3.5989	0.9955	25.94	-0.01	1.500			
0.8048	51507.13	3.5960	3.5960	0.9598	25.95	-0.00	1.500			
0.8077	51689.96	3.5930	3.5930	0.9199	25.95	-0.00	1.500			
0.8104	51866.65	3.5900	3.5900	0.8721	25.95	-0.00	1.500			
0.8130	52032.30	3.5870	3.5869	0.7996	25.95	-0.00	1.500			
0.8153	52181.78	3.5840	3.5841	0.7220	25.95	-0.00	1.500			
0.8174	52313.64	3.5810	3.5811	0.6343	25.95	0.00	1.500			
0.8192	52427.27	3.5780	3.5780	0.5470	25.95	0.00	1.500			
0.8206	52519.79	3.5750	3.5749	0.4662	25.95	0.00	1.500			
0.8218	52597.70	3.5720	3.5719	0.3958	25.95	0.00	1.500			
0.8229	52662.48	3.5690	3.5690	0.3364	25.95	0.00	1.500			
0.8238	52720.07	3.5660	3.5659	0.2938	25.95	0.00	1.500			
0.8245	52770.28	3.5630	3.5630	0.2526	25.95	0.00	1.500			
0.8252	52814.41	3.5600	3.5600	0.2249	25.95	0.00	1.500			
0.8258	52852.43	3.5570	3.5569	0.1995	25.95	0.00	1.500			
0.8264	52887.29	3.5540	3.5540	0.1800	25.95	0.00	1.500			
0.8269	52919.32	3.5510	3.5510	0.1614	25.95	0.00	1.500			
0.8273	52948.20	3.5480	3.5481	0.1460	25.95	0.00	1.500			
0.8277	52974.90	3.5450	3.5449	0.1315	25.95	0.00	1.500			
0.8281	52998.39	3.5420	3.5420	0.1165	25.95	0.00	1.500			
0.8284	53019.42	3.5390	3.5391	0.1026	25.95	0.00	1.500			
0.8287	53037.80	3.5360	3.5360	0.0887	25.95	0.00	1.500			
0.8290	53053.74	3.5330	3.5331	0.0749	25.95	0.00	1.500			
0.8292	53066.75	3.5300	3.5302	0.0606	25.95	0.00	1.500			
0.8293	53076.97	3.5270	3.5273	0.0465	25.96	0.01	1.500			
0.8294	53084.54	3.5240	3.5250	0.0323	25.96	0.01	1.500			
