Ah_balance (normalized)	Ah_balance (mAh)	Voltage - fit (V)	Voltage -  interpolate (V)	dQ/dV (1/V)	Temperature (°C)	Temperature - diff (°C)	Current (C)	R_DC 0ms (mOhm)	R_DC 50ms (mOhm)	R_DC 50 ms PEC (mOhm)
0.1928	12336.22	3.9290	3.9287	-0.0634	25.80	-0.04	-1.500			
0.1930	12352.53	3.9260	3.9258	-0.0990	25.80	-0.04	-1.500			
0.1934	12374.58	3.9230	3.9228	-0.1256	25.80	-0.04	-1.500			
0.1938	12401.64	3.9200	3.9199	-0.1497	25.80	-0.04	-1.500			
0.1943	12432.62	3.9170	3.9171	-0.1731	25.80	-0.04	-1.500			
0.1948	12468.17	3.9140	3.9140	-0.1946	25.81	-0.03	-1.500			
0.1954	12508.64	3.9110	3.9110	-0.2162	25.81	-0.03	-1.500			
0.1961	12552.12	3.9080	3.9080	-0.2358	25.81	-0.03	-1.500			
0.1969	12599.11	3.9050	3.9050	-0.2558	25.81	-0.03	-1.500			
0.1977	12650.41	3.9020	3.9020	-0.2745	25.81	-0.03	-1.500			
0.1985	12704.97	3.8990	3.8990	-0.2933	25.81	-0.03	-1.500			
0.1994	12763.18	3.8960	3.8959	-0.3125	25.81	-0.03	-1.500			
0.2004	12824.99	3.8930	3.8931	-0.3321	25.81	-0.03	-1.500			
0.2014	12890.54	3.8900	3.8900	-0.3513	25.82	-0.02	-1.500			
0.2025	12959.93	3.8870	3.8870	-0.3700	25.82	-0.02	-1.500			
0.2036	13032.85	3.8840	3.8841	-0.3883	25.82	-0.02	-1.500			
0.2048	13109.61	3.8810	3.8810	-0.4066	25.82	-0.02	-1.500			
0.2061	13189.27	3.8780	3.8780	-0.4231	25.82	-0.02	-1.500			
0.2074	13272.58	3.8750	3.8750	-0.4378	25.83	-0.01	-1.500			
0.2087	13358.03	3.8720	3.8720	-0.4526	25.83	-0.01	-1.500			
0.2101	13446.79	3.8690	3.8690	-0.4665	25.83	-0.01	-1.500			
0.2115	13537.82	3.8660	3.8660	-0.4791	25.83	-0.01	-1.500			
0.2130	13630.95	3.8630	3.8630	-0.4911	25.83	-0.01	-1.500			
0.2145	13727.25	3.8600	3.8600	-0.4991	25.84	-0.00	-1.500			
0.2160	13824.34	3.8570	3.8570	-0.5085	25.84	-0.00	-1.500			
0.2175	13922.89	3.8540	3.8541	-0.5173	25.84	0.00	-1.500			
0.2191	14022.84	3.8510	3.8510	-0.5256	25.84	0.00	-1.500			
0.2207	14124.33	3.8480	3.8479	-0.5356	25.85	0.01	-1.500			
0.2223	14227.75	3.8450	3.8450	-0.5422	25.85	0.01	-1.500			
0.2240	14333.03	3.8420	3.8421	-0.5493	25.85	0.01	-1.500			
0.2256	14439.55	3.8390	3.8390	-0.5590	25.85	0.01	-1.500			
0.2273	14547.50	3.8360	3.8359	-0.5639	25.86	0.02	-1.500			
0.2290	14656.76	3.8330	3.8330	-0.5658	25.86	0.02	-1.500			
0.2307	14765.56	3.8300	3.8301	-0.5711	25.86	0.02	-1.500			
0.2324	14875.74	3.8270	3.8271	-0.5757	25.87	0.03	-1.500			
0.2342	14987.08	3.8240	3.8238	-0.5825	25.87	0.03	-1.500			
0.2359	15099.17	3.8210	3.8210	-0.5859	25.87	0.03	-1.500			
0.2377	15211.58	3.8180	3.8180	-0.5897	25.87	0.03	-1.500			
0.2395	15325.91	3.8150	3.8150	-0.5965	25.88	0.04	-1.500			
0.2413	15441.53	3.8120	3.8120	-0.6002	25.88	0.04	-1.500			
0.2431	15556.39	3.8090	3.8089	-0.5989	25.88	0.04	-1.500			
0.2449	15671.70	3.8060	3.8060	-0.6011	25.89	0.05	-1.500			
0.2467	15786.96	3.8030	3.8031	-0.6033	25.89	0.05	-1.500			
0.2485	15903.63	3.8000	3.7999	-0.6045	25.89	0.05	-1.500			
0.2503	16019.42	3.7970	3.7970	-0.6095	25.89	0.05	-1.500			
0.2521	16136.77	3.7940	3.7941	-0.6124	25.90	0.06	-1.500			
0.2540	16255.14	3.7910	3.7909	-0.6151	25.90	0.06	-1.500			
0.2558	16373.83	3.7880	3.7881	-0.6182	25.90	0.06	-1.500			
0.2577	16491.58	3.7850	3.7850	-0.6219	25.91	0.07	-1.500			
0.2595	16610.72	3.7820	3.7820	-0.6286	25.91	0.07	-1.500			
0.2615	16732.91	3.7790	3.7789	-0.6318	25.91	0.07	-1.500			
0.2633	16853.75	3.7760	3.7760	-0.6345	25.91	0.07	-1.500			
0.2653	16977.80	3.7730	3.7730	-0.6395	25.92	0.08	-1.500			
0.2672	17100.93	3.7700	3.7701	-0.6419	25.92	0.08	-1.500			
0.2691	17224.17	3.7670	3.7670	-0.6417	25.93	0.09	-1.500			
0.2710	17346.69	3.7640	3.7640	-0.6438	25.93	0.09	-1.500			
0.2730	17469.86	3.7610	3.7610	-0.6458	25.94	0.10	-1.500			
0.2749	17594.86	3.7580	3.7580	-0.6518	25.94	0.10	-1.500			
0.2769	17719.82	3.7550	3.7550	-0.6558	25.95	0.11	-1.500			
0.2788	17846.09	3.7520	3.7520	-0.6631	25.95	0.11	-1.500			
0.2808	17974.16	3.7490	3.7490	-0.6666	25.96	0.12	-1.500			
0.2829	18102.75	3.7460	3.7460	-0.6741	25.97	0.13	-1.500			
0.2849	18231.66	3.7430	3.7430	-0.6805	25.97	0.13	-1.500			
0.2869	18363.25	3.7400	3.7400	-0.6899	25.98	0.14	-1.500			
0.2890	18497.29	3.7370	3.7369	-0.6957	25.98	0.14	-1.500			
0.2911	18631.87	3.7340	3.7340	-0.7012	25.99	0.15	-1.500			
0.2933	18768.39	3.7310	3.7310	-0.7039	25.99	0.15	-1.500			
0.2954	18904.14	3.7280	3.7281	-0.7086	26.00	0.16	-1.500			
0.2975	19038.88	3.7250	3.7250	-0.7121	26.00	0.16	-1.500			
0.2996	19175.64	3.7220	3.7220	-0.7177	26.01	0.17	-1.500			
0.3018	19313.37	3.7190	3.7189	-0.7216	26.01	0.17	-1.500			
0.3040	19452.92	3.7160	3.7161	-0.7284	26.01	0.17	-1.500			
0.3062	19593.83	3.7130	3.7130	-0.7363	26.02	0.18	-1.500			
0.3084	19736.00	3.7100	3.7099	-0.7429	26.02	0.18	-1.500			
0.3106	19877.58	3.7070	3.7070	-0.7467	26.03	0.19	-1.500			
0.3128	20021.42	3.7040	3.7040	-0.7557	26.03	0.19	-1.500			
0.3151	20169.01	3.7010	3.7010	-0.7638	26.04	0.20	-1.500			
0.3175	20317.04	3.6980	3.6979	-0.7708	26.04	0.20	-1.500			
0.3198	20465.74	3.6950	3.6951	-0.7765	26.05	0.21	-1.500			
0.3221	20614.82	3.6920	3.6921	-0.7825	26.05	0.21	-1.500			
0.3245	20765.27	3.6890	3.6889	-0.7900	26.06	0.22	-1.500			
0.3268	20917.65	3.6860	3.6860	-0.7964	26.06	0.22	-1.500			
0.3292	21070.35	3.6830	3.6830	-0.8021	26.07	0.23	-1.500			
0.3316	21225.10	3.6800	3.6801	-0.8117	26.08	0.24	-1.500			
0.3341	21381.88	3.6770	3.6770	-0.8244	26.08	0.24	-1.500			
0.3366	21542.39	3.6740	3.6739	-0.8298	26.09	0.25	-1.500			
0.3391	21702.82	3.6710	3.6709	-0.8337	26.09	0.25	-1.500			
0.3416	21862.76	3.6680	3.6682	-0.8433	26.10	0.26	-1.500			
0.3441	22025.33	3.6650	3.6650	-0.8535	26.11	0.27	-1.500			
0.3467	22190.04	3.6620	3.6619	-0.8585	26.11	0.27	-1.500			
0.3493	22353.92	3.6590	3.6590	-0.8647	26.12	0.28	-1.500			
0.3519	22521.62	3.6560	3.6561	-0.8736	26.12	0.28	-1.500			
0.3546	22691.22	3.6530	3.6530	-0.8829	26.13	0.29	-1.500			
0.3572	22860.92	3.6500	3.6500	-0.8931	26.13	0.29	-1.500			
0.3599	23031.25	3.6470	3.6469	-0.9029	26.14	0.30	-1.500			
0.3626	23205.34	3.6440	3.6440	-0.9146	26.14	0.30	-1.500			
0.3654	23384.32	3.6410	3.6410	-0.9217	26.15	0.31	-1.500			
0.3682	23562.09	3.6380	3.6379	-0.9300	26.15	0.31	-1.500			
0.3710	23741.76	3.6350	3.6351	-0.9375	26.16	0.32	-1.500			
0.3738	23920.25	3.6320	3.6319	-0.9454	26.16	0.32	-1.500			
0.3766	24100.83	3.6290	3.6290	-0.9541	26.17	0.33	-1.500			
0.3794	24284.09	3.6260	3.6259	-0.9670	26.18	0.34	-1.500			
0.3824	24472.53	3.6230	3.6231	-0.9864	26.18	0.34	-1.500			
0.3854	24665.27	3.6200	3.6198	-0.9975	26.19	0.35	-1.500			
0.3884	24858.08	3.6170	3.6170	-1.0067	26.19	0.35	-1.500			
0.3915	25052.94	3.6140	3.6140	-1.0186	26.20	0.36	-1.500			
0.3945	25248.81	3.6110	3.6110	-1.0258	26.20	0.36	-1.500			
0.3976	25447.36	3.6080	3.6080	-1.0352	26.21	0.37	-1.500			
0.4007	25644.35	3.6050	3.6050	-1.0489	26.21	0.37	-1.500			
0.4039	25846.65	3.6020	3.6020	-1.0634	26.22	0.38	-1.500			
0.4071	26053.15	3.5990	3.5990	-1.0831	26.22	0.38	-1.500			
0.4103	26262.37	3.5960	3.5961	-1.0974	26.23	0.39	-1.500			
0.4137	26475.71	3.5930	3.5930	-1.1095	26.24	0.40	-1.500			
0.4170	26691.05	3.5900	3.5900	-1.1209	26.24	0.40	-1.500			
0.4204	26907.38	3.5870	3.5871	-1.1311	26.24	0.40	-1.500			
0.4238	27123.58	3.5840	3.5840	-1.1457	26.25	0.41	-1.500			
0.4273	27344.81	3.5810	3.5809	-1.1587	26.25	0.41	-1.500			
0.4307	27567.81	3.5780	3.5780	-1.1726	26.26	0.42	-1.500			
0.4343	27793.58	3.5750	3.5751	-1.1965	26.26	0.42	-1.500			
0.4379	28027.17	3.5720	3.5720	-1.2194	26.27	0.43	-1.500			
0.4416	28263.81	3.5690	3.5690	-1.2358	26.27	0.43	-1.500			
0.4453	28501.86	3.5660	3.5660	-1.2539	26.28	0.44	-1.500			
0.4491	28744.46	3.5630	3.5631	-1.2683	26.29	0.45	-1.500			
0.4530	28990.78	3.5600	3.5600	-1.2889	26.29	0.45	-1.500			
0.4569	29240.37	3.5570	3.5569	-1.3020	26.30	0.46	-1.500			
0.4608	29489.76	3.5540	3.5540	-1.3138	26.31	0.47	-1.500			
0.4648	29744.66	3.5510	3.5510	-1.3360	26.32	0.48	-1.500			
0.4688	30002.79	3.5480	3.5481	-1.3522	26.32	0.48	-1.500			
0.4729	30263.03	3.5450	3.5449	-1.3724	26.33	0.49	-1.500			
0.4770	30530.73	3.5420	3.5421	-1.3946	26.34	0.50	-1.500			
0.4813	30800.86	3.5390	3.5389	-1.4059	26.34	0.50	-1.500			
0.4855	31072.21	3.5360	3.5360	-1.4267	26.35	0.51	-1.500			
0.4898	31348.04	3.5330	3.5331	-1.4413	26.36	0.52	-1.500			
0.4941	31623.60	3.5300	3.5299	-1.4669	26.36	0.52	-1.500			
0.4986	31907.66	3.5270	3.5269	-1.4849	26.37	0.53	-1.500			
0.5031	32195.43	3.5240	3.5240	-1.4990	26.38	0.54	-1.500			
0.5076	32486.92	3.5210	3.5209	-1.5123	26.39	0.55	-1.500	0.376	0.564	
0.5122	32783.04	3.5180	3.5180	-1.5311	26.39	0.55	-1.500			
0.5168	33074.93	3.5150	3.5151	-1.5357	26.40	0.56	-1.500			
0.5214	33370.14	3.5120	3.5119	-1.5421	26.41	0.57	-1.500			
0.5260	33664.46	3.5090	3.5090	-1.5488	26.42	0.58	-1.500			
0.5307	33965.18	3.5060	3.5060	-1.5685	26.43	0.59	-1.500			
0.5354	34268.67	3.5030	3.5030	-1.5808	26.45	0.61	-1.500			
0.5402	34574.17	3.5000	3.4999	-1.5804	26.46	0.62	-1.500			
0.5450	34879.06	3.4970	3.4970	-1.5806	26.47	0.63	-1.500			
0.5497	35182.45	3.4940	3.4940	-1.5796	26.47	0.63	-1.500			
0.5545	35485.23	3.4910	3.4911	-1.5801	26.48	0.64	-1.500			
0.5592	35787.30	3.4880	3.4880	-1.5761	26.49	0.65	-1.500			
0.5639	36088.68	3.4850	3.4850	-1.5773	26.50	0.66	-1.500			
0.5686	36393.03	3.4820	3.4820	-1.5797	26.51	0.67	-1.500			
0.5734	36697.48	3.4790	3.4790	-1.5842	26.52	0.68	-1.500			
0.5782	37001.97	3.4760	3.4760	-1.5760	26.53	0.69	-1.500			
0.5829	37305.67	3.4730	3.4730	-1.5661	26.55	0.71	-1.500			
0.5876	37605.82	3.4700	3.4700	-1.5551	26.56	0.72	-1.500			
0.5923	37904.90	3.4670	3.4671	-1.5379	26.57	0.73	-1.500			
0.5968	38196.88	3.4640	3.4640	-1.5221	26.59	0.75	-1.500			
0.6014	38488.21	3.4610	3.4610	-1.5076	26.60	0.76	-1.500			
0.6059	38775.39	3.4580	3.4580	-1.4905	26.61	0.77	-1.500			
0.6103	39060.04	3.4550	3.4549	-1.4801	26.62	0.78	-1.500			
0.6147	39343.42	3.4520	3.4520	-1.4625	26.64	0.80	-1.500			
0.6191	39622.83	3.4490	3.4490	-1.4454	26.65	0.81	-1.500			
0.6234	39899.33	3.4460	3.4460	-1.4286	26.67	0.83	-1.500			
0.6277	40171.55	3.4430	3.4431	-1.4148	26.69	0.85	-1.500			
0.6319	40441.57	3.4400	3.4399	-1.4007	26.71	0.87	-1.500			
0.6361	40710.51	3.4370	3.4369	-1.3822	26.72	0.88	-1.500			
0.6402	40973.69	3.4340	3.4341	-1.3644	26.74	0.90	-1.500			
0.6443	41235.59	3.4310	3.4310	-1.3460	26.75	0.91	-1.500			
0.6483	41493.34	3.4280	3.4279	-1.3287	26.77	0.93	-1.500			
0.6523	41744.84	3.4250	3.4250	-1.3184	26.79	0.95	-1.500			
0.6562	41996.38	3.4220	3.4220	-1.2964	26.80	0.96	-1.500			
0.6601	42245.84	3.4190	3.4188	-1.2780	26.82	0.98	-1.500			
0.6639	42491.55	3.4160	3.4162	-1.2531	26.84	1.00	-1.500			
0.6676	42728.97	3.4130	3.4130	-1.2266	26.85	1.01	-1.500			
0.6713	42961.89	3.4100	3.4100	-1.1989	26.86	1.02	-1.500			
0.6748	43186.18	3.4070	3.4070	-1.1681	26.88	1.04	-1.500			
0.6782	43407.89	3.4040	3.4040	-1.1483	26.90	1.06	-1.500			
0.6817	43627.05	3.4010	3.4010	-1.1301	26.91	1.07	-1.500			
0.6851	43843.45	3.3980	3.3979	-1.1054	26.93	1.09	-1.500			
0.6884	44054.53	3.3950	3.3950	-1.0780	26.94	1.10	-1.500			
0.6915	44258.30	3.3920	3.3920	-1.0468	26.95	1.11	-1.500			
0.6946	44457.43	3.3890	3.3890	-1.0167	26.96	1.12	-1.500			
0.6976	44648.23	3.3860	3.3860	-0.9841	26.98	1.14	-1.500			
0.7005	44833.63	3.3830	3.3830	-0.9565	26.99	1.15	-1.500			
0.7033	45014.05	3.3800	3.3800	-0.9260	27.00	1.16	-1.500			
0.7061	45189.15	3.3770	3.3770	-0.9021	27.01	1.17	-1.500			
0.7087	45359.84	3.3740	3.3740	-0.8761	27.03	1.19	-1.500			
0.7113	45525.43	3.3710	3.3710	-0.8497	27.04	1.20	-1.500			
0.7138	45685.80	3.3680	3.3679	-0.8248	27.05	1.21	-1.500			
0.7163	45841.06	3.3650	3.3652	-0.8007	27.06	1.22	-1.500			
0.7186	45992.89	3.3620	3.3620	-0.7790	27.07	1.23	-1.500			
0.7209	46140.31	3.3590	3.3588	-0.7582	27.08	1.24	-1.500			
0.7232	46282.55	3.3560	3.3561	-0.7342	27.09	1.25	-1.500			
0.7253	46421.48	3.3530	3.3530	-0.7182	27.11	1.27	-1.500			
0.7275	46557.51	3.3500	3.3500	-0.7022	27.12	1.28	-1.500			
0.7295	46690.84	3.3470	3.3468	-0.6856	27.13	1.29	-1.500			
0.7316	46820.37	3.3440	3.3440	-0.6666	27.14	1.30	-1.500			
0.7335	46947.12	3.3410	3.3411	-0.6496	27.15	1.31	-1.500			
0.7355	47071.21	3.3380	3.3380	-0.6317	27.16	1.32	-1.500			
0.7374	47190.67	3.3350	3.3350	-0.6135	27.16	1.32	-1.500			
0.7391	47305.00	3.3320	3.3320	-0.5930	27.17	1.33	-1.500			
0.7409	47416.70	3.3290	3.3290	-0.5779	27.18	1.34	-1.500			
0.7426	47525.34	3.3260	3.3259	-0.5648	27.19	1.35	-1.500			
0.7443	47632.87	3.3230	3.3230	-0.5522	27.19	1.35	-1.500			
0.7459	47737.39	3.3200	3.3200	-0.5390	27.20	1.36	-1.500			
0.7475	47840.17	3.3170	3.3170	-0.5274	27.21	1.37	-1.500			
0.7491	47940.94	3.3140	3.3141	-0.5123	27.22	1.38	-1.500			
0.7506	48037.52	3.3110	3.3110	-0.5027	27.23	1.39	-1.500			
0.7521	48131.88	3.3080	3.3081	-0.4891	27.23	1.39	-1.500			
0.7535	48224.81	3.3050	3.3049	-0.4764	27.24	1.40	-1.500			
0.7549	48315.38	3.3020	3.3020	-0.4661	27.25	1.41	-1.500			
0.7563	48403.68	3.2990	3.2991	-0.4548	27.26	1.42	-1.500			
0.7577	48489.80	3.2960	3.2959	-0.4438	27.26	1.42	-1.500			
0.7590	48574.39	3.2930	3.2930	-0.4338	27.27	1.43	-1.500			
0.7602	48655.61	3.2900	3.2901	-0.4222	27.28	1.44	-1.500			
0.7615	48736.12	3.2870	3.2869	-0.4131	27.28	1.44	-1.500			
0.7627	48814.83	3.2840	3.2840	-0.4045	27.29	1.45	-1.500			
0.7639	48891.01	3.2810	3.2810	-0.3946	27.30	1.46	-1.500			
0.7651	48966.05	3.2780	3.2780	-0.3865	27.30	1.46	-1.500			
0.7662	49039.25	3.2750	3.2751	-0.3770	27.31	1.47	-1.500			
0.7673	49110.05	3.2720	3.2720	-0.3677	27.32	1.48	-1.500			
0.7684	49179.78	3.2690	3.2689	-0.3592	27.32	1.48	-1.500			
0.7695	49247.85	3.2660	3.2661	-0.3520	27.33	1.49	-1.500			
0.7705	49314.55	3.2630	3.2629	-0.3438	27.34	1.50	-1.500			
0.7716	49380.25	3.2600	3.2601	-0.3375	27.34	1.50	-1.500			
0.7726	49444.49	3.2570	3.2570	-0.3312	27.35	1.51	-1.500			
0.7735	49507.16	3.2540	3.2540	-0.3251	27.36	1.52	-1.500			
0.7745	49569.08	3.2510	3.2510	-0.3190	27.36	1.52	-1.500			
0.7755	49629.55	3.2480	3.2480	-0.3123	27.37	1.53	-1.500			
0.7764	49688.91	3.2450	3.2450	-0.3049	27.38	1.54	-1.500			
0.7773	49746.80	3.2420	3.2420	-0.2996	27.38	1.54	-1.500			
0.7782	49803.40	3.2390	3.2390	-0.2930	27.39	1.55	-1.500			
0.7790	49858.84	3.2360	3.2360	-0.2874	27.39	1.55	-1.500			
0.7799	49913.49	3.2330	3.2330	-0.2828	27.40	1.56	-1.500			
0.7807	49967.32	3.2300	3.2301	-0.2784	27.41	1.57	-1.500			
0.7816	50020.49	3.2270	3.2270	-0.2744	27.41	1.57	-1.500			
0.7824	50072.96	3.2240	3.2240	-0.2706	27.42	1.58	-1.500			
0.7832	50124.15	3.2210	3.2210	-0.2661	27.42	1.58	-1.500			
0.7840	50174.76	3.2180	3.2180	-0.2623	27.43	1.59	-1.500			
0.7848	50224.57	3.2150	3.2149	-0.2585	27.44	1.60	-1.500			
0.7855	50274.22	3.2120	3.2120	-0.2537	27.44	1.60	-1.500			
0.7863	50322.70	3.2090	3.2090	-0.2507	27.45	1.61	-1.500			
0.7870	50369.95	3.2060	3.2060	-0.2470	27.45	1.61	-1.500			
0.7878	50416.87	3.2030	3.2031	-0.2435	27.46	1.62	-1.500			
0.7885	50463.17	3.2000	3.1999	-0.2409	27.47	1.63	-1.500			
0.7892	50509.40	3.1970	3.1971	-0.2365	27.47	1.63	-1.500			
0.7899	50554.50	3.1940	3.1940	-0.2334	27.48	1.64	-1.500			
0.7906	50599.19	3.1910	3.1910	-0.2303	27.48	1.64	-1.500			
0.7913	50643.57	3.1880	3.1881	-0.2280	27.49	1.65	-1.500			
0.7920	50686.40	3.1850	3.1849	-0.2237	27.49	1.65	-1.500			
0.7926	50728.61	3.1820	3.1821	-0.2200	27.50	1.66	-1.500			
0.7933	50770.66	3.1790	3.1790	-0.2180	27.51	1.67	-1.500			
0.7939	50812.22	3.1760	3.1761	-0.2159	27.51	1.67	-1.500			
0.7946	50853.96	3.1730	3.1730	-0.2142	27.52	1.68	-1.500			
0.7952	50894.61	3.1700	3.1700	-0.2110	27.52	1.68	-1.500			
0.7959	50934.88	3.1670	3.1670	-0.2086	27.53	1.69	-1.500			
0.7965	50974.65	3.1640	3.1641	-0.2065	27.53	1.69	-1.500			
0.7971	51014.25	3.1610	3.1610	-0.2040	27.54	1.70	-1.500			
0.7977	51053.02	3.1580	3.1580	-0.2015	27.55	1.71	-1.500			
0.7983	51091.49	3.1550	3.1550	-0.1992	27.55	1.71	-1.500			
0.7989	51129.31	3.1520	3.1520	-0.1976	27.56	1.72	-1.500			
0.7995	51167.03	3.1490	3.1490	-0.1960	27.56	1.72	-1.500			
0.8001	51204.46	3.1460	3.1460	-0.1944	27.57	1.73	-1.500			
0.8007	51241.67	3.1430	3.1429	-0.1932	27.57	1.73	-1.500			
0.8012	51278.67	3.1400	3.1400	-0.1908	27.58	1.74	-1.500			
0.8018	51315.45	3.1370	3.1371	-0.1893	27.58	1.74	-1.500			
0.8024	51351.45	3.1340	3.1339	-0.1873	27.59	1.75	-1.500			
0.8029	51387.07	3.1310	3.1309	-0.1857	27.59	1.75	-1.500			
0.8035	51422.35	3.1280	3.1280	-0.1839	27.60	1.76	-1.500			
0.8040	51457.32	3.1250	3.1250	-0.1828	27.61	1.77	-1.500			
0.8046	51492.40	3.1220	3.1220	-0.1814	27.61	1.77	-1.500			
0.8051	51527.50	3.1190	3.1189	-0.1804	27.62	1.78	-1.500			
0.8057	51561.96	3.1160	3.1161	-0.1786	27.63	1.79	-1.500			
0.8062	51596.24	3.1130	3.1130	-0.1764	27.63	1.79	-1.500			
0.8067	51629.95	3.1100	3.1101	-0.1744	27.64	1.80	-1.500			
0.8072	51662.78	3.1070	3.1070	-0.1726	27.64	1.80	-1.500			
0.8077	51695.78	3.1040	3.1039	-0.1712	27.65	1.81	-1.500			
0.8083	51728.33	3.1010	3.1010	-0.1692	27.66	1.82	-1.500			
0.8088	51760.62	3.0980	3.0980	-0.1683	27.66	1.82	-1.500			
0.8093	51792.93	3.0950	3.0950	-0.1673	27.67	1.83	-1.500			
0.8098	51824.95	3.0920	3.0921	-0.1662	27.68	1.84	-1.500			
0.8103	51856.95	3.0890	3.0889	-0.1648	27.68	1.84	-1.500			
0.8108	51888.41	3.0860	3.0861	-0.1636	27.69	1.85	-1.500			
0.8112	51919.43	3.0830	3.0829	-0.1620	27.69	1.85	-1.500			
0.8117	51950.45	3.0800	3.0801	-0.1612	27.70	1.86	-1.500			
0.8122	51981.33	3.0770	3.0770	-0.1611	27.70	1.86	-1.500			
0.8127	52012.18	3.0740	3.0740	-0.1595	27.71	1.87	-1.500			
0.8132	52042.91	3.0710	3.0710	-0.1587	27.71	1.87	-1.500			
0.8136	52073.28	3.0680	3.0679	-0.1575	27.71	1.87	-1.500			
0.8141	52103.55	3.0650	3.0651	-0.1568	27.72	1.88	-1.500			
0.8146	52133.51	3.0620	3.0619	-0.1555	27.72	1.88	-1.500			
0.8151	52163.34	3.0590	3.0590	-0.1539	27.73	1.89	-1.500			
0.8155	52192.74	3.0560	3.0559	-0.1524	27.73	1.89	-1.500			
0.8160	52221.66	3.0530	3.0531	-0.1511	27.74	1.90	-1.500			
0.8164	52250.70	3.0500	3.0500	-0.1507	27.74	1.90	-1.500			
0.8169	52279.38	3.0470	3.0470	-0.1494	27.75	1.91	-1.500			
0.8173	52307.97	3.0440	3.0439	-0.1487	27.75	1.91	-1.500			
0.8178	52336.20	3.0410	3.0410	-0.1480	27.76	1.92	-1.500			
0.8182	52364.75	3.0380	3.0380	-0.1473	27.77	1.93	-1.500			
0.8186	52392.97	3.0350	3.0350	-0.1466	27.77	1.93	-1.500			
0.8191	52421.30	3.0320	3.0320	-0.1458	27.78	1.94	-1.500			
0.8195	52449.10	3.0290	3.0291	-0.1448	27.78	1.94	-1.500			
0.8199	52476.71	3.0260	3.0261	-0.1439	27.79	1.95	-1.500			
0.8204	52504.28	3.0230	3.0229	-0.1432	27.80	1.96	-1.500			
0.8208	52531.69	3.0200	3.0200	-0.1422	27.80	1.96	-1.500			
0.8212	52558.91	3.0170	3.0170	-0.1411	27.81	1.97	-1.500			
0.8217	52586.10	3.0140	3.0140	-0.1403	27.81	1.97	-1.500			
0.8221	52612.91	3.0110	3.0110	-0.1390	27.82	1.98	-1.500			
0.8225	52639.54	3.0080	3.0080	-0.1376	27.83	1.99	-1.500			
0.8229	52665.82	3.0050	3.0050	-0.1361	27.83	1.99	-1.500			
0.8233	52691.80	3.0020	3.0020	-0.1352	27.84	2.00	-1.500			
