Ah_balance (normalized)	Ah_balance (mAh)	Voltage - fit (V)	Voltage -  interpolate (V)	dQ/dV (1/V)	Temperature (°C)	Temperature - diff (°C)	Current (C)	R_DC 0ms (mOhm)	R_DC 50ms (mOhm)	R_DC 50 ms PEC (mOhm)
0.1905	12195.15	3.9280	3.9278	-0.0987	25.73	-0.00	-1.500			
0.1909	12217.29	3.9250	3.9247	-0.1273	25.73	-0.00	-1.500			
0.1913	12244.21	3.9220	3.9220	-0.1532	25.73	-0.00	-1.500			
0.1918	12276.21	3.9190	3.9190	-0.1786	25.73	-0.00	-1.500			
0.1924	12313.16	3.9160	3.9160	-0.2031	25.73	-0.00	-1.500			
0.1931	12355.24	3.9130	3.9130	-0.2275	25.73	-0.00	-1.500			
0.1938	12401.03	3.9100	3.9100	-0.2506	25.73	-0.00	-1.500			
0.1946	12451.48	3.9070	3.9070	-0.2731	25.73	-0.00	-1.500			
0.1954	12505.97	3.9040	3.9040	-0.2968	25.73	-0.00	-1.500			
0.1963	12565.34	3.9010	3.9010	-0.3190	25.73	0.00	-1.500			
0.1973	12628.69	3.8980	3.8980	-0.3407	25.73	0.00	-1.500			
0.1984	12696.18	3.8950	3.8950	-0.3634	25.73	0.00	-1.500			
0.1995	12768.48	3.8920	3.8920	-0.3845	25.73	0.00	-1.500			
0.2007	12844.34	3.8890	3.8889	-0.4052	25.73	0.00	-1.500			
0.2020	12924.81	3.8860	3.8860	-0.4237	25.73	0.00	-1.500			
0.2032	13007.69	3.8830	3.8830	-0.4431	25.73	0.00	-1.500			
0.2046	13095.24	3.8800	3.8800	-0.4612	25.73	0.00	-1.500			
0.2060	13185.65	3.8770	3.8770	-0.4764	25.73	0.00	-1.500			
0.2075	13278.39	3.8740	3.8740	-0.4929	25.73	0.00	-1.500			
0.2090	13374.95	3.8710	3.8710	-0.5084	25.74	0.01	-1.500			
0.2105	13474.19	3.8680	3.8680	-0.5239	25.74	0.01	-1.500			
0.2121	13576.58	3.8650	3.8650	-0.5379	25.74	0.01	-1.500			
0.2138	13681.61	3.8620	3.8620	-0.5478	25.74	0.01	-1.500			
0.2154	13788.55	3.8590	3.8591	-0.5613	25.74	0.01	-1.500			
0.2172	13898.91	3.8560	3.8560	-0.5695	25.74	0.01	-1.500			
0.2189	14008.67	3.8530	3.8530	-0.5756	25.74	0.01	-1.500			
0.2206	14119.77	3.8500	3.8502	-0.5839	25.74	0.01	-1.500			
0.2224	14232.27	3.8470	3.8470	-0.5895	25.74	0.01	-1.500			
0.2242	14346.10	3.8440	3.8439	-0.5975	25.75	0.02	-1.500			
0.2260	14461.79	3.8410	3.8410	-0.6029	25.75	0.02	-1.500			
0.2278	14578.48	3.8380	3.8381	-0.6093	25.75	0.02	-1.500			
0.2296	14696.96	3.8350	3.8350	-0.6113	25.75	0.02	-1.500			
0.2315	14814.12	3.8320	3.8320	-0.6136	25.76	0.03	-1.500			
0.2333	14931.72	3.8290	3.8290	-0.6161	25.76	0.03	-1.500			
0.2352	15050.03	3.8260	3.8261	-0.6166	25.76	0.03	-1.500			
0.2370	15168.10	3.8230	3.8229	-0.6180	25.77	0.04	-1.500			
0.2389	15287.11	3.8200	3.8201	-0.6243	25.77	0.04	-1.500			
0.2408	15408.12	3.8170	3.8170	-0.6258	25.77	0.04	-1.500			
0.2426	15529.16	3.8140	3.8140	-0.6302	25.78	0.05	-1.500			
0.2445	15649.37	3.8110	3.8110	-0.6317	25.78	0.05	-1.500			
0.2464	15770.42	3.8080	3.8081	-0.6353	25.78	0.05	-1.500			
0.2483	15893.48	3.8050	3.8049	-0.6386	25.79	0.06	-1.500			
0.2503	16016.34	3.8020	3.8020	-0.6368	25.79	0.06	-1.500			
0.2522	16137.98	3.7990	3.7990	-0.6355	25.80	0.07	-1.500			
0.2541	16260.98	3.7960	3.7960	-0.6385	25.80	0.07	-1.500			
0.2560	16382.52	3.7930	3.7931	-0.6401	25.80	0.07	-1.500			
0.2579	16505.25	3.7900	3.7899	-0.6425	25.81	0.08	-1.500			
0.2598	16628.78	3.7870	3.7870	-0.6442	25.81	0.08	-1.500			
0.2618	16753.90	3.7840	3.7840	-0.6466	25.82	0.09	-1.500			
0.2637	16879.33	3.7810	3.7810	-0.6505	25.82	0.09	-1.500			
0.2657	17003.01	3.7780	3.7780	-0.6503	25.83	0.10	-1.500			
0.2676	17127.40	3.7750	3.7750	-0.6499	25.83	0.10	-1.500			
0.2696	17251.37	3.7720	3.7720	-0.6544	25.84	0.11	-1.500			
0.2715	17377.63	3.7690	3.7689	-0.6583	25.84	0.11	-1.500			
0.2735	17504.80	3.7660	3.7661	-0.6618	25.85	0.12	-1.500			
0.2755	17633.11	3.7630	3.7630	-0.6664	25.85	0.12	-1.500			
0.2775	17761.21	3.7600	3.7600	-0.6677	25.85	0.12	-1.500			
0.2795	17889.90	3.7570	3.7569	-0.6698	25.86	0.13	-1.500			
0.2815	18017.43	3.7540	3.7540	-0.6740	25.86	0.13	-1.500			
0.2835	18146.28	3.7510	3.7511	-0.6778	25.87	0.14	-1.500			
0.2856	18277.80	3.7480	3.7479	-0.6844	25.87	0.14	-1.500			
0.2877	18409.83	3.7450	3.7450	-0.6884	25.87	0.14	-1.500			
0.2897	18542.98	3.7420	3.7420	-0.6918	25.88	0.15	-1.500			
0.2918	18676.15	3.7390	3.7390	-0.6945	25.88	0.15	-1.500			
0.2939	18809.61	3.7360	3.7360	-0.6999	25.89	0.16	-1.500			
0.2960	18943.59	3.7330	3.7331	-0.7053	25.89	0.16	-1.500			
0.2981	19078.83	3.7300	3.7299	-0.7112	25.90	0.17	-1.500			
0.3003	19216.68	3.7270	3.7270	-0.7182	25.90	0.17	-1.500			
0.3024	19355.57	3.7240	3.7241	-0.7257	25.91	0.18	-1.500			
0.3046	19496.12	3.7210	3.7210	-0.7376	25.92	0.19	-1.500			
0.3068	19637.60	3.7180	3.7180	-0.7448	25.92	0.19	-1.500			
0.3091	19780.71	3.7150	3.7149	-0.7498	25.93	0.20	-1.500			
0.3114	19926.58	3.7120	3.7120	-0.7557	25.93	0.20	-1.500			
0.3136	20072.82	3.7090	3.7091	-0.7633	25.94	0.21	-1.500			
0.3159	20219.88	3.7060	3.7061	-0.7695	25.95	0.22	-1.500			
0.3182	20367.46	3.7030	3.7030	-0.7786	25.95	0.22	-1.500			
0.3206	20517.60	3.7000	3.7000	-0.7837	25.96	0.23	-1.500			
0.3230	20668.90	3.6970	3.6970	-0.7909	25.97	0.24	-1.500			
0.3253	20821.62	3.6940	3.6941	-0.8029	25.97	0.24	-1.500			
0.3278	20977.99	3.6910	3.6910	-0.8119	25.98	0.25	-1.500			
0.3302	21133.88	3.6880	3.6880	-0.8169	25.98	0.25	-1.500			
0.3327	21290.93	3.6850	3.6850	-0.8236	25.99	0.26	-1.500			
0.3351	21449.37	3.6820	3.6820	-0.8314	25.99	0.26	-1.500			
0.3377	21610.71	3.6790	3.6790	-0.8435	26.00	0.27	-1.500			
0.3402	21772.62	3.6760	3.6760	-0.8513	26.01	0.28	-1.500			
0.3428	21936.41	3.6730	3.6730	-0.8612	26.01	0.28	-1.500			
0.3454	22103.54	3.6700	3.6700	-0.8754	26.02	0.29	-1.500			
0.3480	22273.29	3.6670	3.6670	-0.8859	26.02	0.29	-1.500			
0.3507	22444.43	3.6640	3.6640	-0.8964	26.03	0.30	-1.500			
0.3534	22616.80	3.6610	3.6610	-0.9109	26.04	0.31	-1.500			
0.3561	22792.84	3.6580	3.6580	-0.9228	26.04	0.31	-1.500			
0.3589	22972.07	3.6550	3.6549	-0.9331	26.05	0.32	-1.500			
0.3618	23152.62	3.6520	3.6520	-0.9412	26.05	0.32	-1.500			
0.3646	23334.40	3.6490	3.6491	-0.9531	26.06	0.33	-1.500			
0.3675	23518.90	3.6460	3.6460	-0.9634	26.06	0.33	-1.500			
0.3704	23704.44	3.6430	3.6430	-0.9714	26.07	0.34	-1.500			
0.3733	23890.54	3.6400	3.6400	-0.9815	26.07	0.34	-1.500			
0.3762	24079.91	3.6370	3.6371	-0.9959	26.08	0.35	-1.500			
0.3792	24271.55	3.6340	3.6340	-1.0133	26.08	0.35	-1.500			
0.3823	24468.09	3.6310	3.6309	-1.0269	26.09	0.36	-1.500			
0.3854	24666.23	3.6280	3.6280	-1.0389	26.09	0.36	-1.500			
0.3886	24868.41	3.6250	3.6250	-1.0529	26.10	0.37	-1.500			
0.3918	25073.42	3.6220	3.6221	-1.0637	26.10	0.37	-1.500			
0.3950	25278.12	3.6190	3.6189	-1.0739	26.11	0.38	-1.500			
0.3982	25483.31	3.6160	3.6160	-1.0838	26.11	0.38	-1.500			
0.4014	25691.01	3.6130	3.6129	-1.1011	26.12	0.39	-1.500			
0.4048	25904.49	3.6100	3.6100	-1.1167	26.12	0.39	-1.500			
0.4081	26120.55	3.6070	3.6070	-1.1306	26.13	0.40	-1.500			
0.4116	26340.24	3.6040	3.6040	-1.1488	26.14	0.41	-1.500			
0.4150	26562.55	3.6010	3.6010	-1.1635	26.14	0.41	-1.500			
0.4185	26785.52	3.5980	3.5980	-1.1785	26.15	0.42	-1.500			
0.4221	27014.20	3.5950	3.5950	-1.1926	26.15	0.42	-1.500			
0.4257	27244.79	3.5920	3.5920	-1.2006	26.15	0.42	-1.500			
0.4293	27477.21	3.5890	3.5890	-1.2177	26.16	0.43	-1.500			
0.4330	27712.34	3.5860	3.5861	-1.2353	26.16	0.43	-1.500			
0.4367	27950.97	3.5830	3.5830	-1.2452	26.16	0.43	-1.500			
0.4405	28189.61	3.5800	3.5799	-1.2605	26.17	0.44	-1.500			
0.4443	28432.10	3.5770	3.5771	-1.2801	26.17	0.44	-1.500			
0.4481	28680.71	3.5740	3.5740	-1.3047	26.17	0.44	-1.500			
0.4521	28934.11	3.5710	3.5710	-1.3214	26.18	0.45	-1.500			
0.4561	29188.49	3.5680	3.5680	-1.3367	26.19	0.46	-1.500			
0.4601	29448.30	3.5650	3.5650	-1.3651	26.19	0.46	-1.500			
0.4643	29716.38	3.5620	3.5620	-1.3861	26.20	0.47	-1.500			
0.4685	29982.88	3.5590	3.5589	-1.3983	26.21	0.48	-1.500			
0.4727	30253.42	3.5560	3.5560	-1.4124	26.21	0.48	-1.500			
0.4770	30525.27	3.5530	3.5530	-1.4319	26.22	0.49	-1.500			
0.4813	30801.48	3.5500	3.5500	-1.4488	26.22	0.49	-1.500			
0.4856	31078.53	3.5470	3.5470	-1.4584	26.23	0.50	-1.500			
0.4901	31363.55	3.5440	3.5440	-1.4850	26.23	0.50	-1.500			
0.4946	31651.67	3.5410	3.5410	-1.5042	26.24	0.51	-1.500			
0.4990	31937.69	3.5380	3.5380	-1.5340	26.25	0.52	-1.500			
0.5036	32233.08	3.5350	3.5350	-1.5561	26.25	0.52	-1.500			
0.5084	32537.68	3.5320	3.5320	-1.5709	26.26	0.53	-1.500			
0.5132	32844.61	3.5290	3.5289	-1.5836	26.27	0.54	-1.500			
0.5180	33151.88	3.5260	3.5261	-1.6035	26.28	0.55	-1.500	0.375	0.540	
0.5228	33461.10	3.5230	3.5230	-1.6066	26.29	0.56	-1.500			
0.5276	33767.94	3.5200	3.5199	-1.6216	26.30	0.57	-1.500			
0.5325	34077.96	3.5170	3.5170	-1.6285	26.31	0.58	-1.500			
0.5374	34390.94	3.5140	3.5140	-1.6409	26.32	0.59	-1.500			
0.5424	34711.62	3.5110	3.5110	-1.6609	26.33	0.60	-1.500			
0.5474	35031.83	3.5080	3.5080	-1.6633	26.34	0.61	-1.500			
0.5523	35348.38	3.5050	3.5051	-1.6700	26.35	0.62	-1.500			
0.5574	35673.57	3.5020	3.5020	-1.6742	26.36	0.63	-1.500			
0.5624	35993.54	3.4990	3.4990	-1.6728	26.37	0.64	-1.500			
0.5674	36315.52	3.4960	3.4960	-1.6779	26.37	0.64	-1.500			
0.5725	36639.63	3.4930	3.4929	-1.6788	26.39	0.66	-1.500			
0.5775	36962.11	3.4900	3.4900	-1.6721	26.40	0.67	-1.500			
0.5826	37284.60	3.4870	3.4870	-1.6711	26.42	0.69	-1.500			
0.5876	37604.01	3.4840	3.4840	-1.6669	26.43	0.70	-1.500			
0.5926	37925.48	3.4810	3.4809	-1.6593	26.45	0.72	-1.500			
0.5976	38243.67	3.4780	3.4780	-1.6451	26.46	0.73	-1.500			
0.6025	38557.06	3.4750	3.4749	-1.6370	26.48	0.75	-1.500			
0.6074	38872.71	3.4720	3.4720	-1.6288	26.49	0.76	-1.500			
0.6122	39182.90	3.4690	3.4689	-1.6066	26.50	0.77	-1.500			
0.6171	39492.87	3.4660	3.4660	-1.5937	26.51	0.78	-1.500			
0.6218	39798.30	3.4630	3.4630	-1.5681	26.52	0.79	-1.500			
0.6265	40097.23	3.4600	3.4600	-1.5476	26.54	0.81	-1.500			
0.6311	40391.78	3.4570	3.4570	-1.5344	26.55	0.82	-1.500			
0.6357	40682.77	3.4540	3.4540	-1.5130	26.57	0.84	-1.500			
0.6402	40975.10	3.4510	3.4509	-1.4942	26.58	0.85	-1.500			
0.6447	41258.67	3.4480	3.4481	-1.4767	26.60	0.87	-1.500			
0.6491	41541.24	3.4450	3.4450	-1.4549	26.61	0.88	-1.500			
0.6534	41818.08	3.4420	3.4419	-1.4357	26.63	0.90	-1.500			
0.6577	42089.98	3.4390	3.4390	-1.4203	26.65	0.92	-1.500			
0.6619	42361.53	3.4360	3.4360	-1.4018	26.67	0.94	-1.500			
0.6661	42632.76	3.4330	3.4329	-1.3885	26.69	0.96	-1.500			
0.6703	42898.62	3.4300	3.4301	-1.3657	26.70	0.97	-1.500			
0.6743	43156.29	3.4270	3.4269	-1.3459	26.72	0.99	-1.500			
0.6784	43415.12	3.4240	3.4240	-1.3253	26.73	1.00	-1.500			
0.6822	43662.83	3.4210	3.4210	-1.3078	26.75	1.02	-1.500			
0.6862	43915.00	3.4180	3.4180	-1.2908	26.77	1.04	-1.500			
0.6901	44163.88	3.4150	3.4150	-1.2689	26.78	1.05	-1.500			
0.6938	44404.23	3.4120	3.4120	-1.2449	26.80	1.07	-1.500			
0.6975	44642.06	3.4090	3.4090	-1.2217	26.81	1.08	-1.500			
0.7011	44873.01	3.4060	3.4060	-1.1933	26.83	1.10	-1.500			
0.7047	45101.16	3.4030	3.4030	-1.1688	26.85	1.12	-1.500			
0.7082	45321.71	3.4000	3.4000	-1.1383	26.86	1.13	-1.500			
0.7116	45539.46	3.3970	3.3970	-1.1099	26.88	1.15	-1.500			
0.7148	45750.37	3.3940	3.3940	-1.0793	26.90	1.17	-1.500			
0.7180	45953.74	3.3910	3.3910	-1.0419	26.90	1.17	-1.500			
0.7211	46150.60	3.3880	3.3880	-1.0081	26.90	1.17	-1.500			
0.7241	46340.72	3.3850	3.3850	-0.9737	26.92	1.19	-1.500			
0.7269	46522.71	3.3820	3.3820	-0.9463	26.93	1.20	-1.500			
0.7297	46701.38	3.3790	3.3790	-0.9176	26.95	1.22	-1.500			
0.7324	46874.25	3.3760	3.3760	-0.8880	26.96	1.23	-1.500			
0.7350	47042.60	3.3730	3.3730	-0.8611	26.98	1.25	-1.500			
0.7376	47206.65	3.3700	3.3701	-0.8362	26.99	1.26	-1.500			
0.7401	47363.57	3.3670	3.3669	-0.8110	27.00	1.27	-1.500			
0.7424	47516.44	3.3640	3.3640	-0.7839	27.02	1.29	-1.500			
0.7447	47663.45	3.3610	3.3610	-0.7576	27.03	1.30	-1.500			
0.7470	47807.25	3.3580	3.3579	-0.7366	27.04	1.31	-1.500			
0.7492	47945.93	3.3550	3.3551	-0.7166	27.05	1.32	-1.500			
0.7513	48081.30	3.3520	3.3520	-0.6951	27.06	1.33	-1.500			
0.7533	48211.96	3.3490	3.3490	-0.6757	27.07	1.34	-1.500			
0.7553	48339.86	3.3460	3.3460	-0.6579	27.08	1.35	-1.500			
0.7573	48464.41	3.3430	3.3430	-0.6402	27.09	1.36	-1.500			
0.7591	48585.19	3.3400	3.3400	-0.6244	27.10	1.37	-1.500			
0.7610	48703.77	3.3370	3.3370	-0.6060	27.11	1.38	-1.500			
0.7628	48818.09	3.3340	3.3340	-0.5897	27.12	1.39	-1.500			
0.7645	48929.50	3.3310	3.3310	-0.5768	27.12	1.39	-1.500			
0.7662	49038.59	3.3280	3.3280	-0.5606	27.13	1.40	-1.500			
0.7679	49144.96	3.3250	3.3249	-0.5455	27.13	1.40	-1.500			
0.7695	49248.36	3.3220	3.3220	-0.5310	27.14	1.41	-1.500			
0.7711	49348.61	3.3190	3.3190	-0.5143	27.14	1.41	-1.500			
0.7726	49446.22	3.3160	3.3160	-0.5023	27.15	1.42	-1.500			
0.7741	49539.84	3.3130	3.3130	-0.4887	27.16	1.43	-1.500			
0.7755	49632.34	3.3100	3.3100	-0.4778	27.17	1.44	-1.500			
0.7769	49723.67	3.3070	3.3070	-0.4689	27.18	1.45	-1.500			
0.7783	49812.68	3.3040	3.3039	-0.4585	27.18	1.45	-1.500			
0.7797	49899.88	3.3010	3.3011	-0.4478	27.19	1.46	-1.500			
0.7810	49985.27	3.2980	3.2980	-0.4370	27.20	1.47	-1.500			
0.7823	50067.72	3.2950	3.2950	-0.4247	27.21	1.48	-1.500			
0.7836	50148.28	3.2920	3.2920	-0.4139	27.21	1.48	-1.500			
0.7848	50226.29	3.2890	3.2890	-0.4044	27.22	1.49	-1.500			
0.7860	50302.44	3.2860	3.2859	-0.3957	27.23	1.50	-1.500			
0.7871	50377.58	3.2830	3.2830	-0.3872	27.23	1.50	-1.500			
0.7883	50451.23	3.2800	3.2801	-0.3791	27.24	1.51	-1.500			
0.7894	50523.72	3.2770	3.2769	-0.3704	27.24	1.51	-1.500			
0.7905	50594.16	3.2740	3.2740	-0.3611	27.25	1.52	-1.500			
0.7916	50662.17	3.2710	3.2711	-0.3535	27.25	1.52	-1.500			
0.7926	50729.12	3.2680	3.2680	-0.3445	27.26	1.53	-1.500			
0.7937	50794.24	3.2650	3.2649	-0.3367	27.26	1.53	-1.500			
0.7947	50858.29	3.2620	3.2621	-0.3305	27.27	1.54	-1.500			
0.7956	50920.74	3.2590	3.2590	-0.3244	27.27	1.54	-1.500			
0.7966	50982.39	3.2560	3.2560	-0.3205	27.28	1.55	-1.500			
0.7976	51043.39	3.2530	3.2529	-0.3149	27.29	1.56	-1.500			
0.7985	51103.46	3.2500	3.2500	-0.3074	27.29	1.56	-1.500			
0.7994	51162.67	3.2470	3.2471	-0.3035	27.30	1.57	-1.500			
0.8003	51220.02	3.2440	3.2440	-0.2970	27.31	1.58	-1.500			
0.8012	51276.48	3.2410	3.2409	-0.2899	27.31	1.58	-1.500			
0.8020	51330.91	3.2380	3.2381	-0.2847	27.32	1.59	-1.500			
0.8029	51384.60	3.2350	3.2349	-0.2807	27.33	1.60	-1.500			
0.8037	51438.60	3.2320	3.2320	-0.2766	27.33	1.60	-1.500			
0.8046	51491.57	3.2290	3.2290	-0.2724	27.34	1.61	-1.500			
0.8054	51543.36	3.2260	3.2260	-0.2672	27.35	1.62	-1.500			
0.8062	51594.01	3.2230	3.2230	-0.2625	27.35	1.62	-1.500			
0.8069	51644.34	3.2200	3.2200	-0.2591	27.36	1.63	-1.500			
0.8077	51693.18	3.2170	3.2170	-0.2544	27.37	1.64	-1.500			
0.8085	51741.67	3.2140	3.2139	-0.2494	27.37	1.64	-1.500			
0.8092	51789.29	3.2110	3.2110	-0.2456	27.38	1.65	-1.500			
0.8099	51835.92	3.2080	3.2081	-0.2412	27.38	1.65	-1.500			
0.8107	51882.00	3.2050	3.2049	-0.2371	27.39	1.66	-1.500			
0.8114	51926.80	3.2020	3.2020	-0.2336	27.40	1.67	-1.500			
0.8120	51970.53	3.1990	3.1990	-0.2297	27.40	1.67	-1.500			
0.8127	52014.33	3.1960	3.1960	-0.2281	27.41	1.68	-1.500			
0.8134	52058.01	3.1930	3.1931	-0.2269	27.41	1.68	-1.500			
0.8141	52101.93	3.1900	3.1900	-0.2238	27.42	1.69	-1.500			
0.8148	52144.66	3.1870	3.1871	-0.2213	27.42	1.69	-1.500			
0.8154	52187.24	3.1840	3.1840	-0.2185	27.43	1.70	-1.500			
0.8161	52228.83	3.1810	3.1811	-0.2147	27.44	1.71	-1.500			
0.8167	52269.32	3.1780	3.1779	-0.2130	27.44	1.71	-1.500			
0.8173	52309.62	3.1750	3.1751	-0.2105	27.45	1.72	-1.500			
0.8180	52350.06	3.1720	3.1720	-0.2073	27.45	1.72	-1.500			
0.8186	52389.76	3.1690	3.1689	-0.2050	27.46	1.73	-1.500			
0.8192	52429.46	3.1660	3.1661	-0.2031	27.46	1.73	-1.500			
0.8198	52467.75	3.1630	3.1630	-0.2016	27.47	1.74	-1.500			
0.8204	52506.54	3.1600	3.1600	-0.1996	27.47	1.74	-1.500			
0.8210	52544.54	3.1570	3.1570	-0.1973	27.47	1.74	-1.500			
0.8216	52581.61	3.1540	3.1540	-0.1945	27.48	1.75	-1.500			
0.8222	52619.09	3.1510	3.1511	-0.1926	27.48	1.75	-1.500			
0.8228	52656.20	3.1480	3.1480	-0.1916	27.49	1.76	-1.500			
0.8233	52692.34	3.1450	3.1450	-0.1893	27.50	1.77	-1.500			
0.8239	52728.52	3.1420	3.1419	-0.1877	27.50	1.77	-1.500			
0.8244	52763.99	3.1390	3.1390	-0.1857	27.51	1.78	-1.500			
0.8250	52799.95	3.1360	3.1360	-0.1842	27.51	1.78	-1.500			
0.8255	52835.11	3.1330	3.1330	-0.1824	27.52	1.79	-1.500			
0.8261	52869.94	3.1300	3.1300	-0.1804	27.52	1.79	-1.500			
0.8266	52904.54	3.1270	3.1271	-0.1789	27.53	1.80	-1.500			
0.8272	52938.59	3.1240	3.1239	-0.1766	27.53	1.80	-1.500			
0.8277	52972.03	3.1210	3.1209	-0.1748	27.54	1.81	-1.500			
0.8282	53005.48	3.1180	3.1181	-0.1736	27.54	1.81	-1.500			
0.8287	53038.77	3.1150	3.1150	-0.1719	27.55	1.82	-1.500			
0.8292	53071.60	3.1120	3.1120	-0.1711	27.55	1.82	-1.500			
0.8298	53104.34	3.1090	3.1091	-0.1693	27.56	1.83	-1.500			
0.8303	53136.72	3.1060	3.1059	-0.1680	27.56	1.83	-1.500			
0.8308	53168.87	3.1030	3.1029	-0.1667	27.57	1.84	-1.500			
0.8313	53200.75	3.1000	3.1001	-0.1663	27.57	1.84	-1.500			
0.8318	53232.44	3.0970	3.0970	-0.1647	27.58	1.85	-1.500			
0.8323	53264.06	3.0940	3.0940	-0.1638	27.59	1.86	-1.500			
0.8327	53295.52	3.0910	3.0910	-0.1629	27.59	1.86	-1.500			
0.8332	53326.58	3.0880	3.0881	-0.1614	27.60	1.87	-1.500			
0.8337	53357.72	3.0850	3.0850	-0.1608	27.61	1.88	-1.500			
0.8342	53388.46	3.0820	3.0820	-0.1591	27.61	1.88	-1.500			
0.8347	53418.86	3.0790	3.0790	-0.1575	27.62	1.89	-1.500			
0.8351	53448.69	3.0760	3.0760	-0.1565	27.63	1.90	-1.500			
0.8356	53478.68	3.0730	3.0730	-0.1557	27.63	1.90	-1.500			
0.8361	53508.52	3.0700	3.0700	-0.1546	27.64	1.91	-1.500			
0.8365	53538.10	3.0670	3.0669	-0.1536	27.65	1.92	-1.500			
0.8370	53567.56	3.0640	3.0640	-0.1524	27.65	1.92	-1.500			
0.8374	53596.79	3.0610	3.0609	-0.1511	27.66	1.93	-1.500			
0.8379	53625.86	3.0580	3.0581	-0.1499	27.67	1.94	-1.500			
0.8383	53654.26	3.0550	3.0550	-0.1494	27.67	1.94	-1.500			
0.8388	53682.56	3.0520	3.0520	-0.1483	27.68	1.95	-1.500			
0.8392	53711.10	3.0490	3.0490	-0.1473	27.68	1.95	-1.500			
0.8397	53739.39	3.0460	3.0459	-0.1467	27.69	1.96	-1.500			
0.8401	53767.46	3.0430	3.0431	-0.1459	27.69	1.96	-1.500			
0.8406	53795.40	3.0400	3.0401	-0.1455	27.70	1.97	-1.500			
0.8410	53823.34	3.0370	3.0369	-0.1448	27.70	1.97	-1.500			
0.8414	53851.07	3.0340	3.0340	-0.1439	27.71	1.98	-1.500			
0.8419	53878.50	3.0310	3.0309	-0.1422	27.71	1.98	-1.500			
0.8423	53905.71	3.0280	3.0281	-0.1418	27.72	1.99	-1.500			
0.8427	53932.93	3.0250	3.0250	-0.1414	27.72	1.99	-1.500			
0.8431	53959.98	3.0220	3.0220	-0.1404	27.73	2.00	-1.500			
0.8435	53986.84	3.0190	3.0188	-0.1387	27.74	2.01	-1.500			
0.8440	54013.21	3.0160	3.0160	-0.1377	27.74	2.01	-1.500			
0.8444	54039.68	3.0130	3.0131	-0.1371	27.74	2.01	-1.500			
0.8448	54065.89	3.0100	3.0101	-0.1360	27.75	2.02	-1.500			
0.8452	54092.09	3.0070	3.0069	-0.1340	27.75	2.02	-1.500			
0.8456	54117.70	3.0040	3.0040	-0.1356	27.76	2.03	-1.500			
