Ah_balance (normalized)	Ah_balance (mAh)	Voltage - fit (V)	Voltage -  interpolate (V)	dQ/dV (1/V)	Temperature (°C)	Temperature - diff (°C)	Current (C)	R_DC 0ms (mOhm)	R_DC 50ms (mOhm)	R_DC 50 ms PEC (mOhm)
0.2865	18335.77	3.9820	3.9820	0.8392	27.21	1.23	1.500			
0.2890	18497.63	3.9790	3.9791	0.8471	27.21	1.23	1.500			
0.2916	18662.65	3.9760	3.9759	0.8549	27.20	1.22	1.500			
0.2942	18827.94	3.9730	3.9730	0.8564	27.20	1.22	1.500			
0.2968	18992.17	3.9700	3.9700	0.8581	27.19	1.21	1.500			
0.2993	19156.90	3.9670	3.9672	0.8641	27.19	1.21	1.500			
0.3019	19322.91	3.9640	3.9640	0.8712	27.18	1.20	1.500			
0.3045	19490.08	3.9610	3.9609	0.8708	27.18	1.20	1.500			
0.3072	19658.37	3.9580	3.9580	0.8781	27.17	1.19	1.500			
0.3098	19828.94	3.9550	3.9550	0.8824	27.17	1.19	1.500			
0.3125	19998.28	3.9520	3.9521	0.8824	27.16	1.18	1.500			
0.3151	20166.81	3.9490	3.9489	0.8855	27.16	1.18	1.500			
0.3178	20336.28	3.9460	3.9460	0.8889	27.15	1.17	1.500			
0.3204	20506.37	3.9430	3.9430	0.8918	27.15	1.17	1.500			
0.3231	20679.34	3.9400	3.9399	0.8994	27.14	1.16	1.500			
0.3258	20852.64	3.9370	3.9371	0.9072	27.14	1.16	1.500			
0.3286	21028.10	3.9340	3.9340	0.9166	27.13	1.15	1.500			
0.3313	21205.40	3.9310	3.9309	0.9183	27.13	1.15	1.500			
0.3341	21382.67	3.9280	3.9280	0.9177	27.12	1.14	1.500			
0.3369	21559.28	3.9250	3.9250	0.9187	27.12	1.14	1.500			
0.3396	21734.61	3.9220	3.9221	0.9242	27.12	1.14	1.500			
0.3424	21911.06	3.9190	3.9189	0.9305	27.11	1.13	1.500			
0.3451	22088.64	3.9160	3.9159	0.9394	27.11	1.13	1.500			
0.3480	22270.17	3.9130	3.9130	0.9452	27.10	1.12	1.500			
0.3508	22454.30	3.9100	3.9100	0.9549	27.09	1.11	1.500			
0.3537	22639.93	3.9070	3.9070	0.9655	27.08	1.10	1.500			
0.3566	22825.28	3.9040	3.9040	0.9708	27.07	1.09	1.500			
0.3595	23009.73	3.9010	3.9010	0.9736	27.07	1.09	1.500			
0.3625	23197.99	3.8980	3.8980	0.9830	27.06	1.08	1.500			
0.3654	23387.05	3.8950	3.8951	0.9896	27.05	1.07	1.500			
0.3684	23579.25	3.8920	3.8917	0.9975	27.04	1.06	1.500			
0.3714	23771.89	3.8890	3.8891	1.0059	27.03	1.05	1.500			
0.3745	23965.06	3.8860	3.8860	1.0121	27.03	1.05	1.500			
0.3775	24159.45	3.8830	3.8830	1.0251	27.02	1.04	1.500			
0.3806	24357.37	3.8800	3.8801	1.0391	27.01	1.03	1.500			
0.3837	24558.04	3.8770	3.8769	1.0479	27.00	1.02	1.500			
0.3869	24760.22	3.8740	3.8741	1.0609	27.00	1.02	1.500			
0.3901	24966.27	3.8710	3.8710	1.0713	26.99	1.01	1.500			
0.3933	25172.42	3.8680	3.8679	1.0785	26.98	1.00	1.500			
0.3965	25378.93	3.8650	3.8650	1.0944	26.97	0.99	1.500			
0.3998	25589.60	3.8620	3.8621	1.1055	26.96	0.98	1.500			
0.4032	25803.21	3.8590	3.8589	1.1225	26.95	0.97	1.500			
0.4066	26021.73	3.8560	3.8560	1.1368	26.94	0.96	1.500			
0.4100	26241.46	3.8530	3.8531	1.1489	26.93	0.95	1.500			
0.4135	26463.27	3.8500	3.8500	1.1690	26.92	0.94	1.500			
0.4170	26689.02	3.8470	3.8470	1.1869	26.91	0.93	1.500			
0.4206	26917.43	3.8440	3.8440	1.2035	26.90	0.92	1.500			
0.4242	27150.44	3.8410	3.8410	1.2252	26.89	0.91	1.500			
0.4279	27386.03	3.8380	3.8380	1.2495	26.88	0.90	1.500			
0.4317	27630.12	3.8350	3.8350	1.2683	26.87	0.89	1.500			
0.4355	27873.19	3.8320	3.8320	1.2944	26.86	0.88	1.500			
0.4394	28122.10	3.8290	3.8291	1.3189	26.85	0.87	1.500			
0.4434	28379.10	3.8260	3.8258	1.3479	26.84	0.86	1.500			
0.4475	28640.82	3.8230	3.8230	1.3777	26.83	0.85	1.500			
0.4517	28909.82	3.8200	3.8200	1.3977	26.82	0.84	1.500			
0.4559	29180.40	3.8170	3.8170	1.4253	26.81	0.83	1.500			
0.4602	29454.91	3.8140	3.8140	1.4537	26.79	0.81	1.500			
0.4646	29735.31	3.8110	3.8110	1.4848	26.78	0.80	1.500			
0.4691	30022.13	3.8080	3.8079	1.5225	26.77	0.79	1.500			
0.4737	30318.05	3.8050	3.8050	1.5663	26.76	0.78	1.500			
0.4785	30623.49	3.8020	3.8020	1.6022	26.74	0.76	1.500			
0.4834	30936.90	3.7990	3.7990	1.6459	26.73	0.75	1.500			
0.4884	31254.48	3.7960	3.7960	1.6813	26.71	0.73	1.500			
0.4934	31580.10	3.7930	3.7929	1.7210	26.70	0.72	1.500			
0.4987	31915.18	3.7900	3.7900	1.7567	26.68	0.70	1.500			
0.5040	32256.98	3.7870	3.7870	1.7971	26.67	0.69	1.500			
0.5095	32609.22	3.7840	3.7840	1.8361	26.65	0.67	1.500			
0.5151	32963.23	3.7810	3.7809	1.8597	26.63	0.65	1.500			
0.5207	33324.99	3.7780	3.7781	1.8743	26.61	0.63	1.500			
0.5264	33686.92	3.7750	3.7750	1.8979	26.60	0.62	1.500			
0.5321	34052.61	3.7720	3.7720	1.9284	26.58	0.60	1.500			
0.5379	34426.21	3.7690	3.7691	1.9523	26.57	0.59	1.500	0.356	0.460	
0.5438	34802.92	3.7660	3.7659	1.9559	26.55	0.57	1.500			
0.5497	35181.98	3.7630	3.7631	1.9535	26.53	0.55	1.500			
0.5556	35557.61	3.7600	3.7600	1.9409	26.52	0.54	1.500			
0.5614	35927.79	3.7570	3.7570	1.9241	26.50	0.52	1.500			
0.5671	36294.98	3.7540	3.7540	1.9132	26.48	0.50	1.500			
0.5728	36661.64	3.7510	3.7510	1.9118	26.47	0.49	1.500			
0.5786	37028.04	3.7480	3.7480	1.9190	26.46	0.48	1.500			
0.5843	37396.38	3.7450	3.7450	1.9197	26.45	0.47	1.500			
0.5901	37766.61	3.7420	3.7420	1.9351	26.45	0.47	1.500			
0.5959	38138.35	3.7390	3.7390	1.9516	26.43	0.45	1.500			
0.6018	38516.53	3.7360	3.7359	1.9546	26.42	0.44	1.500			
0.6077	38891.20	3.7330	3.7330	1.9680	26.41	0.43	1.500			
0.6135	39265.97	3.7300	3.7301	2.0268	26.39	0.41	1.500			
0.6197	39658.58	3.7270	3.7269	2.0871	26.38	0.40	1.500			
0.6261	40068.40	3.7240	3.7240	2.1120	26.36	0.38	1.500			
0.6325	40479.57	3.7210	3.7211	2.1778	26.35	0.37	1.500			
0.6391	40900.64	3.7180	3.7180	2.2279	26.33	0.35	1.500			
0.6458	41331.45	3.7150	3.7151	2.3179	26.32	0.34	1.500			
0.6530	41789.28	3.7120	3.7120	2.3988	26.30	0.32	1.500			
0.6602	42252.51	3.7090	3.7091	2.4689	26.29	0.31	1.500			
0.6676	42726.78	3.7060	3.7058	2.5359	26.27	0.29	1.500			
0.6753	43220.43	3.7030	3.7031	2.5574	26.26	0.28	1.500			
0.6833	43732.79	3.7000	3.7000	2.6223	26.24	0.26	1.500			
0.6911	44231.56	3.6970	3.6969	2.5063	26.22	0.24	1.500			
0.6985	44704.28	3.6940	3.6940	2.3562	26.21	0.23	1.500			
0.7055	45149.06	3.6910	3.6910	2.2015	26.20	0.22	1.500			
0.7117	45548.86	3.6880	3.6880	2.0043	26.19	0.21	1.500			
0.7173	45906.20	3.6850	3.6850	1.8334	26.18	0.20	1.500			
0.7226	46243.55	3.6820	3.6820	1.7116	26.17	0.19	1.500			
0.7275	46558.58	3.6790	3.6790	1.6016	26.16	0.18	1.500			
0.7321	46852.44	3.6760	3.6760	1.5222	26.15	0.17	1.500			
0.7365	47133.43	3.6730	3.6730	1.4447	26.14	0.16	1.500			
0.7406	47400.24	3.6700	3.6700	1.3839	26.14	0.16	1.500			
0.7447	47658.68	3.6670	3.6670	1.3352	26.13	0.15	1.500			
0.7486	47908.19	3.6640	3.6641	1.3039	26.12	0.14	1.500			
0.7524	48152.02	3.6610	3.6610	1.2757	26.11	0.13	1.500			
0.7561	48392.84	3.6580	3.6580	1.2673	26.10	0.12	1.500			
0.7598	48629.63	3.6550	3.6550	1.2617	26.10	0.12	1.500			
0.7636	48871.56	3.6520	3.6520	1.2700	26.09	0.11	1.500			
0.7674	49116.28	3.6490	3.6489	1.2825	26.08	0.10	1.500			
0.7713	49364.82	3.6460	3.6461	1.2937	26.07	0.09	1.500			
0.7752	49614.84	3.6430	3.6430	1.3033	26.06	0.08	1.500			
0.7792	49869.07	3.6400	3.6400	1.3040	26.05	0.07	1.500			
0.7831	50117.73	3.6370	3.6370	1.2951	26.04	0.06	1.500			
0.7870	50367.99	3.6340	3.6340	1.2911	26.04	0.06	1.500			
0.7909	50614.85	3.6310	3.6310	1.2893	26.03	0.05	1.500			
0.7947	50861.18	3.6280	3.6280	1.2799	26.02	0.04	1.500			
0.7985	51105.87	3.6250	3.6250	1.2766	26.01	0.03	1.500			
0.8023	51350.02	3.6220	3.6220	1.2732	26.00	0.02	1.500			
0.8062	51595.36	3.6190	3.6191	1.2709	25.99	0.01	1.500			
0.8100	51838.92	3.6160	3.6160	1.2659	25.99	0.01	1.500			
0.8138	52082.93	3.6130	3.6130	1.2628	25.98	-0.00	1.500			
0.8176	52324.87	3.6100	3.6100	1.2492	25.97	-0.01	1.500			
0.8213	52565.96	3.6070	3.6070	1.2379	25.97	-0.01	1.500			
0.8250	52801.46	3.6040	3.6040	1.2201	25.96	-0.02	1.500			
0.8287	53035.33	3.6010	3.6010	1.2020	25.96	-0.02	1.500			
0.8322	53263.60	3.5980	3.5980	1.1799	25.95	-0.03	1.500			
0.8358	53488.05	3.5950	3.5950	1.1617	25.95	-0.03	1.500			
0.8392	53708.32	3.5920	3.5920	1.1463	25.95	-0.03	1.500			
0.8426	53926.85	3.5890	3.5890	1.1346	25.94	-0.04	1.500			
0.8460	54143.29	3.5860	3.5860	1.1213	25.94	-0.04	1.500			
0.8494	54359.44	3.5830	3.5830	1.0937	25.95	-0.03	1.500			
0.8527	54572.51	3.5800	3.5800	1.0629	25.95	-0.03	1.500			
0.8559	54780.01	3.5770	3.5770	0.9900	25.96	-0.02	1.500			
0.8589	54968.59	3.5740	3.5741	0.9004	25.96	-0.02	1.500			
0.8615	55139.07	3.5710	3.5711	0.7907	25.97	-0.01	1.500			
0.8638	55280.02	3.5680	3.5681	0.6712	25.97	-0.01	1.500			
0.8655	55391.78	3.5650	3.5650	0.5632	25.98	-0.00	1.500			
0.8669	55484.36	3.5620	3.5619	0.4674	25.98	-0.00	1.500			
0.8681	55555.82	3.5590	3.5589	0.3846	25.98	-0.00	1.500			
0.8691	55621.47	3.5560	3.5558	0.3237	25.98	0.00	1.500			
0.8699	55674.44	3.5530	3.5531	0.2782	25.98	0.00	1.500			
0.8707	55722.46	3.5500	3.5499	0.2461	25.98	0.00	1.500			
0.8713	55763.95	3.5470	3.5469	0.2164	25.98	0.00	1.500			
0.8719	55802.28	3.5440	3.5439	0.1918	25.99	0.01	1.500			
0.8724	55835.52	3.5410	3.5410	0.1721	25.99	0.01	1.500			
0.8729	55866.32	3.5380	3.5381	0.1562	25.99	0.01	1.500			
0.8733	55894.32	3.5350	3.5350	0.1397	25.99	0.01	1.500			
0.8737	55919.65	3.5320	3.5320	0.1255	25.99	0.01	1.500			
0.8741	55942.31	3.5290	3.5290	0.1111	25.99	0.01	1.500			
0.8744	55961.85	3.5260	3.5260	0.0964	25.99	0.01	1.500			
0.8747	55979.38	3.5230	3.5231	0.0831	25.99	0.01	1.500			
0.8749	55993.97	3.5200	3.5202	0.0689	25.99	0.01	1.500			
0.8751	56006.01	3.5170	3.5173	0.0542	25.99	0.01	1.500			
0.8752	56015.00	3.5140	3.5145	0.0395	25.99	0.01	1.500			
