Ah_balance (normalized)	Ah_balance (mAh)	Voltage - fit (V)	Voltage -  interpolate (V)	dQ/dV (1/V)	Temperature (°C)	Temperature - diff (°C)	Current (C)	R_DC 0ms (mOhm)	R_DC 50ms (mOhm)	R_DC 50 ms PEC (mOhm)
0.2821	18052.88	3.9740	3.9741	0.8708	27.18	1.22	1.500			
0.2847	18218.88	3.9710	3.9711	0.8636	27.18	1.22	1.500			
0.2872	18382.28	3.9680	3.9680	0.8643	27.17	1.21	1.500			
0.2898	18549.95	3.9650	3.9650	0.8661	27.17	1.21	1.500			
0.2924	18714.83	3.9620	3.9620	0.8702	27.16	1.20	1.500			
0.2950	18881.91	3.9590	3.9590	0.8811	27.16	1.20	1.500			
0.2977	19053.38	3.9560	3.9561	0.8855	27.15	1.19	1.500			
0.3004	19224.08	3.9530	3.9530	0.8916	27.15	1.19	1.500			
0.3031	19395.94	3.9500	3.9500	0.8959	27.14	1.18	1.500			
0.3057	19567.52	3.9470	3.9470	0.9009	27.14	1.18	1.500			
0.3085	19743.21	3.9440	3.9439	0.9056	27.13	1.17	1.500			
0.3112	19915.98	3.9410	3.9410	0.9019	27.13	1.17	1.500			
0.3139	20088.07	3.9380	3.9380	0.9050	27.12	1.16	1.500			
0.3166	20262.77	3.9350	3.9350	0.9137	27.12	1.16	1.500			
0.3193	20437.60	3.9320	3.9320	0.9157	27.11	1.15	1.500			
0.3221	20613.45	3.9290	3.9290	0.9247	27.10	1.14	1.500			
0.3249	20792.32	3.9260	3.9261	0.9289	27.10	1.14	1.500			
0.3277	20973.19	3.9230	3.9229	0.9345	27.09	1.13	1.500			
0.3305	21152.23	3.9200	3.9200	0.9414	27.09	1.13	1.500			
0.3333	21332.49	3.9170	3.9170	0.9459	27.08	1.12	1.500			
0.3362	21513.73	3.9140	3.9140	0.9509	27.08	1.12	1.500			
0.3390	21698.25	3.9110	3.9109	0.9566	27.07	1.11	1.500			
0.3419	21880.84	3.9080	3.9081	0.9637	27.06	1.10	1.500			
0.3448	22067.94	3.9050	3.9050	0.9755	27.06	1.10	1.500			
0.3478	22256.98	3.9020	3.9020	0.9818	27.05	1.09	1.500			
0.3507	22445.53	3.8990	3.8990	0.9862	27.05	1.09	1.500			
0.3537	22635.03	3.8960	3.8961	0.9942	27.04	1.08	1.500			
0.3567	22826.24	3.8930	3.8930	1.0062	27.03	1.07	1.500			
0.3597	23020.74	3.8900	3.8900	1.0153	27.02	1.06	1.500			
0.3628	23216.11	3.8870	3.8869	1.0156	27.02	1.06	1.500			
0.3658	23411.76	3.8840	3.8840	1.0260	27.01	1.05	1.500			
0.3689	23609.78	3.8810	3.8811	1.0390	27.00	1.04	1.500			
0.3720	23810.07	3.8780	3.8780	1.0454	27.00	1.04	1.500			
0.3752	24011.01	3.8750	3.8750	1.0523	26.99	1.03	1.500			
0.3783	24213.22	3.8720	3.8720	1.0642	26.98	1.02	1.500			
0.3815	24418.99	3.8690	3.8692	1.0796	26.97	1.01	1.500			
0.3848	24627.75	3.8660	3.8660	1.0945	26.96	1.00	1.500			
0.3881	24838.12	3.8630	3.8630	1.1079	26.96	1.00	1.500			
0.3914	25052.34	3.8600	3.8600	1.1254	26.95	0.99	1.500			
0.3948	25270.13	3.8570	3.8570	1.1466	26.94	0.98	1.500			
0.3983	25492.13	3.8540	3.8539	1.1619	26.93	0.97	1.500			
0.4018	25716.05	3.8510	3.8510	1.1805	26.92	0.96	1.500			
0.4054	25945.25	3.8480	3.8480	1.1945	26.91	0.95	1.500			
0.4090	26176.66	3.8450	3.8450	1.2098	26.90	0.94	1.500			
0.4126	26408.99	3.8420	3.8420	1.2248	26.89	0.93	1.500			
0.4163	26645.46	3.8390	3.8389	1.2471	26.88	0.92	1.500			
0.4201	26886.05	3.8360	3.8360	1.2673	26.87	0.91	1.500			
0.4239	27131.40	3.8330	3.8329	1.2934	26.86	0.90	1.500			
0.4278	27381.42	3.8300	3.8300	1.3164	26.85	0.89	1.500			
0.4319	27638.62	3.8270	3.8270	1.3433	26.84	0.88	1.500			
0.4359	27896.86	3.8240	3.8240	1.3711	26.82	0.86	1.500			
0.4400	28161.69	3.8210	3.8210	1.4013	26.81	0.85	1.500			
0.4443	28432.68	3.8180	3.8180	1.4295	26.80	0.84	1.500			
0.4486	28710.22	3.8150	3.8149	1.4656	26.78	0.82	1.500			
0.4530	28994.83	3.8120	3.8121	1.4983	26.77	0.81	1.500			
0.4576	29287.87	3.8090	3.8090	1.5290	26.76	0.80	1.500			
0.4623	29584.97	3.8060	3.8060	1.5635	26.75	0.79	1.500			
0.4669	29883.60	3.8030	3.8030	1.5978	26.74	0.78	1.500			
0.4718	30194.65	3.8000	3.8000	1.6418	26.73	0.77	1.500			
0.4768	30513.40	3.7970	3.7970	1.6906	26.71	0.75	1.500			
0.4819	30843.01	3.7940	3.7940	1.7337	26.70	0.74	1.500			
0.4872	31182.38	3.7910	3.7910	1.7796	26.68	0.72	1.500			
0.4927	31530.06	3.7880	3.7880	1.8254	26.66	0.70	1.500			
0.4982	31883.94	3.7850	3.7850	1.8613	26.64	0.68	1.500			
0.5038	32244.68	3.7820	3.7820	1.9014	26.63	0.67	1.500			
0.5096	32613.35	3.7790	3.7790	1.9221	26.61	0.65	1.500			
0.5154	32987.29	3.7760	3.7760	1.9622	26.59	0.63	1.500			
0.5214	33366.60	3.7730	3.7730	1.9947	26.57	0.61	1.500			
0.5274	33751.57	3.7700	3.7700	2.0212	26.55	0.59	1.500			
0.5335	34146.74	3.7670	3.7670	2.0431	26.53	0.57	1.500			
0.5397	34541.98	3.7640	3.7639	2.0617	26.52	0.56	1.500	0.359	0.452	
0.5460	34942.20	3.7610	3.7610	2.0559	26.50	0.54	1.500			
0.5521	35335.51	3.7580	3.7581	2.0488	26.48	0.52	1.500			
0.5583	35730.53	3.7550	3.7549	2.0225	26.46	0.50	1.500			
0.5643	36114.90	3.7520	3.7520	2.0013	26.45	0.49	1.500			
0.5703	36496.04	3.7490	3.7491	2.0034	26.43	0.47	1.500			
0.5762	36879.81	3.7460	3.7460	1.9972	26.42	0.46	1.500			
0.5822	37260.26	3.7430	3.7430	1.9892	26.40	0.44	1.500			
0.5882	37644.59	3.7400	3.7401	1.9995	26.39	0.43	1.500			
0.5942	38029.55	3.7370	3.7370	2.0107	26.37	0.41	1.500			
0.6002	38413.83	3.7340	3.7340	2.0245	26.36	0.40	1.500			
0.6064	38806.54	3.7310	3.7310	2.0522	26.34	0.38	1.500			
0.6125	39200.23	3.7280	3.7280	2.0994	26.33	0.37	1.500			
0.6188	39605.86	3.7250	3.7250	2.1435	26.31	0.35	1.500			
0.6253	40021.46	3.7220	3.7220	2.2068	26.30	0.34	1.500			
0.6321	40454.50	3.7190	3.7190	2.2480	26.28	0.32	1.500			
0.6389	40887.58	3.7160	3.7161	2.3348	26.27	0.31	1.500			
0.6459	41338.83	3.7130	3.7130	2.4143	26.26	0.30	1.500			
0.6533	41810.76	3.7100	3.7100	2.5202	26.24	0.28	1.500			
0.6610	42303.18	3.7070	3.7071	2.5631	26.23	0.27	1.500			
0.6689	42807.47	3.7040	3.7041	2.6229	26.21	0.25	1.500			
0.6769	43319.23	3.7010	3.7010	2.6612	26.20	0.24	1.500			
0.6849	43835.34	3.6980	3.6980	2.6333	26.19	0.23	1.500			
0.6930	44351.85	3.6950	3.6950	2.5601	26.18	0.22	1.500			
0.7006	44835.22	3.6920	3.6920	2.4221	26.17	0.21	1.500			
0.7076	45286.34	3.6890	3.6890	2.2294	26.16	0.20	1.500			
0.7140	45696.34	3.6860	3.6860	2.0555	26.15	0.19	1.500			
0.7197	46063.08	3.6830	3.6831	1.8748	26.15	0.19	1.500			
0.7251	46406.14	3.6800	3.6800	1.7436	26.14	0.18	1.500			
0.7301	46725.47	3.6770	3.6770	1.6348	26.13	0.17	1.500			
0.7348	47029.75	3.6740	3.6739	1.5364	26.12	0.16	1.500			
0.7393	47313.15	3.6710	3.6710	1.4585	26.12	0.16	1.500			
0.7435	47583.12	3.6680	3.6681	1.3884	26.11	0.15	1.500			
0.7475	47838.16	3.6650	3.6650	1.3427	26.10	0.14	1.500			
0.7514	48090.72	3.6620	3.6619	1.3005	26.10	0.14	1.500			
0.7552	48330.53	3.6590	3.6590	1.2718	26.09	0.13	1.500			
0.7589	48572.45	3.6560	3.6560	1.2583	26.08	0.12	1.500			
0.7627	48813.82	3.6530	3.6530	1.2604	26.07	0.11	1.500			
0.7664	49051.05	3.6500	3.6500	1.2652	26.07	0.11	1.500			
0.7702	49291.57	3.6470	3.6470	1.2752	26.06	0.10	1.500			
0.7740	49537.81	3.6440	3.6440	1.2880	26.05	0.09	1.500			
0.7780	49788.87	3.6410	3.6410	1.3063	26.04	0.08	1.500			
0.7819	50041.05	3.6380	3.6380	1.3118	26.03	0.07	1.500			
0.7859	50298.13	3.6350	3.6350	1.3133	26.03	0.07	1.500			
0.7898	50549.58	3.6320	3.6320	1.3145	26.02	0.06	1.500			
0.7938	50800.13	3.6290	3.6290	1.3129	26.01	0.05	1.500			
0.7977	51051.43	3.6260	3.6260	1.3134	26.00	0.04	1.500			
0.8016	51304.27	3.6230	3.6230	1.3119	26.00	0.04	1.500			
0.8056	51555.29	3.6200	3.6200	1.3129	25.99	0.03	1.500			
0.8095	51809.70	3.6170	3.6170	1.3077	25.98	0.02	1.500			
0.8135	52062.45	3.6140	3.6139	1.3080	25.98	0.02	1.500			
0.8174	52312.83	3.6110	3.6110	1.2928	25.97	0.01	1.500			
0.8213	52560.67	3.6080	3.6080	1.2824	25.96	0.00	1.500			
0.8251	52806.28	3.6050	3.6050	1.2712	25.96	-0.00	1.500			
0.8289	53049.66	3.6020	3.6020	1.2570	25.96	-0.00	1.500			
0.8326	53287.56	3.5990	3.5989	1.2434	25.95	-0.01	1.500			
0.8364	53527.17	3.5960	3.5960	1.2272	25.95	-0.01	1.500			
0.8400	53760.05	3.5930	3.5930	1.2124	25.95	-0.01	1.500			
0.8436	53991.73	3.5900	3.5900	1.2048	25.94	-0.02	1.500			
0.8472	54221.12	3.5870	3.5871	1.1909	25.94	-0.02	1.500			
0.8508	54448.20	3.5840	3.5839	1.1823	25.94	-0.02	1.500			
0.8543	54676.54	3.5810	3.5810	1.1703	25.94	-0.02	1.500			
0.8579	54903.08	3.5780	3.5780	1.1431	25.95	-0.01	1.500			
0.8615	55133.60	3.5750	3.5749	1.0944	25.95	-0.01	1.500			
0.8647	55342.18	3.5720	3.5721	1.0034	25.95	-0.01	1.500			
0.8677	55535.54	3.5690	3.5691	0.8955	25.95	-0.01	1.500			
0.8703	55698.11	3.5660	3.5660	0.7644	25.96	-0.00	1.500			
0.8723	55827.11	3.5630	3.5631	0.6336	25.96	-0.00	1.500			
0.8739	55930.67	3.5600	3.5599	0.5169	25.96	-0.00	1.500			
0.8752	56011.32	3.5570	3.5570	0.4219	25.96	0.00	1.500			
0.8762	56079.61	3.5540	3.5539	0.3540	25.96	0.00	1.500			
0.8771	56137.36	3.5510	3.5509	0.2940	25.96	0.00	1.500			
0.8779	56186.68	3.5480	3.5478	0.2572	25.96	0.00	1.500			
0.8786	56228.79	3.5450	3.5450	0.2275	25.96	0.00	1.500			
0.8792	56268.93	3.5420	3.5420	0.2056	25.96	0.00	1.500			
0.8798	56305.65	3.5390	3.5389	0.1853	25.96	0.00	1.500			
0.8803	56339.02	3.5360	3.5358	0.1691	25.96	0.00	1.500			
0.8808	56369.10	3.5330	3.5331	0.1531	25.97	0.01	1.500			
0.8812	56397.02	3.5300	3.5300	0.1385	25.97	0.01	1.500			
0.8816	56422.13	3.5270	3.5270	0.1247	25.97	0.01	1.500			
0.8819	56444.66	3.5240	3.5240	0.1107	25.97	0.01	1.500			
0.8823	56464.21	3.5210	3.5210	0.0964	25.97	0.01	1.500			
0.8825	56481.77	3.5180	3.5181	0.0834	25.97	0.01	1.500			
0.8828	56496.46	3.5150	3.5153	0.0696	25.97	0.01	1.500			
0.8829	56508.55	3.5120	3.5124	0.0557	25.97	0.01	1.500			
0.8831	56517.90	3.5090	3.5096	0.0417	25.97	0.01	1.500			
