Ah_balance (normalized)	Ah_balance (mAh)	Voltage - fit (V)	Voltage -  interpolate (V)	dQ/dV (1/V)	Temperature (°C)	Temperature - diff (°C)	Current (C)	R_DC 0ms (mOhm)	R_DC 50ms (mOhm)	R_DC 50 ms PEC (mOhm)
0.1874	11990.92	3.9300	3.9296	-0.0784	25.86	0.00	-1.500			
0.1876	12008.52	3.9270	3.9267	-0.1049	25.86	0.00	-1.500			
0.1880	12031.16	3.9240	3.9240	-0.1316	25.86	0.00	-1.500			
0.1884	12059.25	3.9210	3.9210	-0.1578	25.86	0.00	-1.500			
0.1889	12092.29	3.9180	3.9180	-0.1827	25.86	0.00	-1.500			
0.1895	12129.77	3.9150	3.9150	-0.2081	25.86	0.00	-1.500			
0.1902	12172.85	3.9120	3.9120	-0.2315	25.86	0.00	-1.500			
0.1909	12219.69	3.9090	3.9090	-0.2548	25.86	0.00	-1.500			
0.1917	12271.16	3.9060	3.9060	-0.2771	25.86	0.00	-1.500			
0.1926	12326.46	3.9030	3.9030	-0.2981	25.86	0.00	-1.500			
0.1935	12385.68	3.9000	3.9000	-0.3194	25.86	0.00	-1.500			
0.1945	12449.33	3.8970	3.8970	-0.3396	25.86	0.00	-1.500			
0.1956	12516.22	3.8940	3.8940	-0.3606	25.86	0.00	-1.500			
0.1967	12587.63	3.8910	3.8910	-0.3820	25.86	0.00	-1.500			
0.1979	12663.29	3.8880	3.8880	-0.4009	25.86	0.00	-1.500			
0.1991	12742.34	3.8850	3.8850	-0.4205	25.86	0.00	-1.500			
0.2004	12825.28	3.8820	3.8820	-0.4394	25.86	0.00	-1.500			
0.2017	12911.74	3.8790	3.8790	-0.4557	25.86	0.00	-1.500			
0.2031	13001.18	3.8760	3.8759	-0.4720	25.86	0.00	-1.500			
0.2046	13092.81	3.8730	3.8730	-0.4867	25.86	0.00	-1.500			
0.2061	13187.95	3.8700	3.8700	-0.5010	25.86	0.00	-1.500			
0.2076	13286.04	3.8670	3.8669	-0.5140	25.86	0.00	-1.500			
0.2092	13385.90	3.8640	3.8640	-0.5267	25.86	0.00	-1.500			
0.2108	13489.00	3.8610	3.8610	-0.5364	25.86	0.00	-1.500			
0.2124	13593.35	3.8580	3.8580	-0.5490	25.86	0.00	-1.500			
0.2141	13699.85	3.8550	3.8550	-0.5568	25.86	0.00	-1.500			
0.2157	13807.50	3.8520	3.8520	-0.5645	25.86	0.00	-1.500			
0.2174	13916.62	3.8490	3.8490	-0.5743	25.86	0.00	-1.500			
0.2192	14027.76	3.8460	3.8460	-0.5817	25.87	0.01	-1.500			
0.2209	14140.18	3.8430	3.8430	-0.5872	25.87	0.01	-1.500			
0.2227	14254.56	3.8400	3.8400	-0.5941	25.87	0.01	-1.500			
0.2245	14368.85	3.8370	3.8370	-0.5945	25.88	0.02	-1.500			
0.2263	14484.20	3.8340	3.8341	-0.5988	25.88	0.02	-1.500			
0.2281	14598.95	3.8310	3.8310	-0.5997	25.89	0.03	-1.500			
0.2299	14713.24	3.8280	3.8280	-0.6020	25.89	0.03	-1.500			
0.2317	14829.25	3.8250	3.8249	-0.6075	25.89	0.03	-1.500			
0.2335	14945.96	3.8220	3.8220	-0.6117	25.90	0.04	-1.500			
0.2354	15063.63	3.8190	3.8190	-0.6176	25.90	0.04	-1.500			
0.2373	15184.50	3.8160	3.8160	-0.6222	25.90	0.04	-1.500			
0.2391	15304.66	3.8130	3.8130	-0.6206	25.91	0.05	-1.500			
0.2410	15423.58	3.8100	3.8100	-0.6235	25.91	0.05	-1.500			
0.2429	15543.12	3.8070	3.8071	-0.6236	25.92	0.06	-1.500			
0.2447	15662.25	3.8040	3.8039	-0.6243	25.92	0.06	-1.500			
0.2466	15782.44	3.8010	3.8010	-0.6250	25.93	0.07	-1.500			
0.2485	15901.93	3.7980	3.7980	-0.6280	25.93	0.07	-1.500			
0.2504	16023.72	3.7950	3.7950	-0.6304	25.94	0.08	-1.500			
0.2523	16145.85	3.7920	3.7920	-0.6343	25.94	0.08	-1.500			
0.2542	16266.64	3.7890	3.7890	-0.6355	25.95	0.09	-1.500			
0.2561	16389.26	3.7860	3.7860	-0.6391	25.95	0.09	-1.500			
0.2580	16512.22	3.7830	3.7831	-0.6421	25.96	0.10	-1.500			
0.2599	16636.41	3.7800	3.7799	-0.6450	25.96	0.10	-1.500			
0.2619	16760.16	3.7770	3.7770	-0.6442	25.97	0.11	-1.500			
0.2638	16883.92	3.7740	3.7740	-0.6492	25.98	0.12	-1.500			
0.2658	17008.08	3.7710	3.7711	-0.6506	25.98	0.12	-1.500			
0.2677	17133.48	3.7680	3.7679	-0.6536	25.99	0.13	-1.500			
0.2697	17259.24	3.7650	3.7650	-0.6590	25.99	0.13	-1.500			
0.2717	17385.96	3.7620	3.7621	-0.6631	25.99	0.13	-1.500			
0.2737	17514.42	3.7590	3.7590	-0.6692	26.00	0.14	-1.500			
0.2757	17642.87	3.7560	3.7560	-0.6745	26.00	0.14	-1.500			
0.2777	17771.43	3.7530	3.7530	-0.6785	26.01	0.15	-1.500			
0.2797	17903.11	3.7500	3.7499	-0.6862	26.01	0.15	-1.500			
0.2818	18035.89	3.7470	3.7470	-0.6917	26.02	0.16	-1.500			
0.2839	18169.31	3.7440	3.7440	-0.6965	26.02	0.16	-1.500			
0.2860	18305.22	3.7410	3.7410	-0.7000	26.03	0.17	-1.500			
0.2881	18439.49	3.7380	3.7380	-0.7023	26.03	0.17	-1.500			
0.2902	18573.56	3.7350	3.7350	-0.7031	26.04	0.18	-1.500			
0.2923	18708.31	3.7320	3.7320	-0.7090	26.04	0.18	-1.500			
0.2945	18844.91	3.7290	3.7290	-0.7118	26.05	0.19	-1.500			
0.2966	18981.68	3.7260	3.7260	-0.7183	26.05	0.19	-1.500			
0.2987	19119.83	3.7230	3.7230	-0.7267	26.06	0.20	-1.500			
0.3010	19261.11	3.7200	3.7200	-0.7359	26.07	0.21	-1.500			
0.3032	19402.46	3.7170	3.7170	-0.7419	26.07	0.21	-1.500			
0.3054	19546.01	3.7140	3.7139	-0.7474	26.08	0.22	-1.500			
0.3076	19689.19	3.7110	3.7111	-0.7584	26.08	0.22	-1.500			
0.3100	19837.09	3.7080	3.7079	-0.7648	26.09	0.23	-1.500			
0.3122	19983.56	3.7050	3.7049	-0.7695	26.09	0.23	-1.500			
0.3146	20131.76	3.7020	3.7020	-0.7781	26.10	0.24	-1.500			
0.3169	20282.78	3.6990	3.6990	-0.7832	26.10	0.24	-1.500			
0.3193	20433.91	3.6960	3.6959	-0.7947	26.11	0.25	-1.500			
0.3217	20587.79	3.6930	3.6931	-0.8010	26.11	0.25	-1.500			
0.3241	20740.94	3.6900	3.6899	-0.8065	26.12	0.26	-1.500			
0.3265	20898.11	3.6870	3.6871	-0.8182	26.13	0.27	-1.500			
0.3290	21055.54	3.6840	3.6840	-0.8256	26.13	0.27	-1.500			
0.3315	21214.41	3.6810	3.6811	-0.8347	26.14	0.28	-1.500			
0.3340	21376.49	3.6780	3.6780	-0.8471	26.14	0.28	-1.500			
0.3365	21538.80	3.6750	3.6750	-0.8536	26.15	0.29	-1.500			
0.3391	21704.72	3.6720	3.6720	-0.8641	26.16	0.30	-1.500			
0.3417	21870.91	3.6690	3.6690	-0.8717	26.16	0.30	-1.500			
0.3444	22038.88	3.6660	3.6660	-0.8797	26.17	0.31	-1.500			
0.3470	22208.86	3.6630	3.6629	-0.8873	26.17	0.31	-1.500			
0.3497	22378.99	3.6600	3.6601	-0.8968	26.18	0.32	-1.500			
0.3524	22552.59	3.6570	3.6569	-0.9039	26.18	0.32	-1.500			
0.3551	22726.59	3.6540	3.6541	-0.9182	26.19	0.33	-1.500			
0.3579	22904.26	3.6510	3.6510	-0.9297	26.19	0.33	-1.500			
0.3607	23083.13	3.6480	3.6481	-0.9417	26.20	0.34	-1.500			
0.3635	23266.30	3.6450	3.6449	-0.9513	26.21	0.35	-1.500			
0.3664	23449.47	3.6420	3.6421	-0.9646	26.21	0.35	-1.500			
0.3693	23635.02	3.6390	3.6390	-0.9761	26.21	0.35	-1.500			
0.3723	23825.09	3.6360	3.6360	-0.9867	26.22	0.36	-1.500			
0.3752	24012.55	3.6330	3.6329	-0.9912	26.22	0.36	-1.500			
0.3782	24206.28	3.6300	3.6300	-1.0042	26.23	0.37	-1.500			
0.3813	24400.13	3.6270	3.6271	-1.0202	26.23	0.37	-1.500			
0.3843	24597.77	3.6240	3.6239	-1.0326	26.23	0.37	-1.500			
0.3874	24795.61	3.6210	3.6210	-1.0430	26.24	0.38	-1.500			
0.3906	24998.69	3.6180	3.6182	-1.0545	26.24	0.38	-1.500			
0.3938	25203.70	3.6150	3.6149	-1.0672	26.25	0.39	-1.500			
0.3970	25407.48	3.6120	3.6120	-1.0743	26.25	0.39	-1.500			
0.4002	25613.96	3.6090	3.6091	-1.0866	26.26	0.40	-1.500			
0.4035	25822.61	3.6060	3.6060	-1.1037	26.26	0.40	-1.500			
0.4068	26035.04	3.6030	3.6029	-1.1209	26.27	0.41	-1.500			
0.4102	26250.87	3.6000	3.6001	-1.1382	26.27	0.41	-1.500			
0.4137	26474.03	3.5970	3.5970	-1.1553	26.28	0.42	-1.500			
0.4172	26698.92	3.5940	3.5940	-1.1733	26.28	0.42	-1.500			
0.4207	26926.05	3.5910	3.5910	-1.1859	26.29	0.43	-1.500			
0.4243	27153.08	3.5880	3.5880	-1.1987	26.29	0.43	-1.500			
0.4279	27384.14	3.5850	3.5849	-1.2149	26.30	0.44	-1.500			
0.4316	27619.62	3.5820	3.5820	-1.2324	26.31	0.45	-1.500			
0.4353	27857.25	3.5790	3.5789	-1.2527	26.31	0.45	-1.500			
0.4391	28101.01	3.5760	3.5760	-1.2629	26.32	0.46	-1.500			
0.4429	28344.89	3.5730	3.5729	-1.2768	26.32	0.46	-1.500			
0.4467	28591.06	3.5700	3.5700	-1.2936	26.33	0.47	-1.500			
0.4506	28837.46	3.5670	3.5669	-1.3122	26.33	0.47	-1.500			
0.4546	29092.51	3.5640	3.5640	-1.3386	26.34	0.48	-1.500			
0.4587	29354.76	3.5610	3.5610	-1.3638	26.34	0.48	-1.500			
0.4628	29619.53	3.5580	3.5580	-1.3774	26.35	0.49	-1.500			
0.4670	29887.97	3.5550	3.5550	-1.3954	26.35	0.49	-1.500			
0.4712	30154.69	3.5520	3.5520	-1.4170	26.36	0.50	-1.500			
0.4754	30427.03	3.5490	3.5490	-1.4405	26.36	0.50	-1.500			
0.4797	30703.43	3.5460	3.5459	-1.4502	26.37	0.51	-1.500			
0.4842	30987.62	3.5430	3.5430	-1.4758	26.37	0.51	-1.500			
0.4887	31273.79	3.5400	3.5401	-1.4959	26.38	0.52	-1.500			
0.4932	31563.73	3.5370	3.5369	-1.5089	26.38	0.52	-1.500			
0.4977	31852.64	3.5340	3.5340	-1.5311	26.39	0.53	-1.500			
0.5023	32147.44	3.5310	3.5309	-1.5490	26.40	0.54	-1.500			
0.5070	32449.18	3.5280	3.5279	-1.5644	26.41	0.55	-1.500			
0.5118	32753.36	3.5250	3.5255	-1.5848	26.41	0.55	-1.498	0.371	0.546	
0.5166	33059.55	3.5220	3.5221	-1.5972	26.42	0.56	-1.500			
0.5214	33367.01	3.5190	3.5189	-1.6074	26.43	0.57	-1.500			
0.5262	33676.19	3.5160	3.5160	-1.6182	26.44	0.58	-1.500			
0.5311	33987.96	3.5130	3.5129	-1.6290	26.44	0.58	-1.500			
0.5360	34305.19	3.5100	3.5100	-1.6376	26.45	0.59	-1.500			
0.5409	34619.22	3.5070	3.5071	-1.6431	26.46	0.60	-1.500			
0.5459	34934.71	3.5040	3.5040	-1.6476	26.47	0.61	-1.500			
0.5508	35251.92	3.5010	3.5010	-1.6565	26.48	0.62	-1.500			
0.5558	35569.53	3.4980	3.4980	-1.6526	26.50	0.64	-1.500			
0.5608	35890.45	3.4950	3.4950	-1.6652	26.51	0.65	-1.500			
0.5658	36209.40	3.4920	3.4921	-1.6587	26.52	0.66	-1.500			
0.5708	36528.71	3.4890	3.4890	-1.6601	26.53	0.67	-1.500			
0.5757	36845.67	3.4860	3.4860	-1.6533	26.54	0.68	-1.500			
0.5807	37163.77	3.4830	3.4830	-1.6465	26.56	0.70	-1.500			
0.5857	37481.73	3.4800	3.4800	-1.6426	26.57	0.71	-1.500			
0.5906	37796.44	3.4770	3.4771	-1.6355	26.58	0.72	-1.500			
0.5955	38110.30	3.4740	3.4740	-1.6190	26.59	0.73	-1.500			
0.6003	38420.04	3.4710	3.4710	-1.6104	26.60	0.74	-1.500			
0.6051	38727.66	3.4680	3.4680	-1.5903	26.62	0.76	-1.500			
0.6099	39034.30	3.4650	3.4650	-1.5770	26.63	0.77	-1.500			
0.6146	39334.42	3.4620	3.4621	-1.5540	26.64	0.78	-1.500			
0.6192	39630.62	3.4590	3.4590	-1.5342	26.65	0.79	-1.500			
0.6238	39920.96	3.4560	3.4560	-1.5153	26.67	0.81	-1.500			
0.6283	40212.80	3.4530	3.4529	-1.5025	26.68	0.82	-1.500			
0.6328	40498.54	3.4500	3.4499	-1.4804	26.70	0.84	-1.500			
0.6373	40784.25	3.4470	3.4470	-1.4680	26.71	0.85	-1.500			
0.6416	41064.17	3.4440	3.4441	-1.4432	26.72	0.86	-1.500			
0.6459	41340.19	3.4410	3.4409	-1.4210	26.74	0.88	-1.500			
0.6501	41609.14	3.4380	3.4380	-1.4023	26.76	0.90	-1.500			
0.6543	41872.50	3.4350	3.4350	-1.3748	26.78	0.92	-1.500			
0.6584	42137.60	3.4320	3.4320	-1.3672	26.79	0.93	-1.500			
0.6625	42399.29	3.4290	3.4290	-1.3517	26.81	0.95	-1.500			
0.6665	42655.72	3.4260	3.4260	-1.3301	26.82	0.96	-1.500			
0.6705	42909.82	3.4230	3.4230	-1.3168	26.84	0.98	-1.500			
0.6744	43161.99	3.4200	3.4200	-1.2920	26.85	0.99	-1.500			
0.6783	43408.61	3.4170	3.4169	-1.2680	26.87	1.01	-1.500			
0.6821	43651.43	3.4140	3.4141	-1.2449	26.88	1.02	-1.500			
0.6857	43886.19	3.4110	3.4110	-1.2206	26.89	1.03	-1.500			
0.6894	44118.90	3.4080	3.4080	-1.1958	26.91	1.05	-1.500			
0.6929	44346.54	3.4050	3.4049	-1.1710	26.92	1.06	-1.500			
0.6964	44567.31	3.4020	3.4020	-1.1428	26.94	1.08	-1.500			
0.6998	44786.37	3.3990	3.3990	-1.1179	26.96	1.10	-1.500			
0.7031	44999.28	3.3960	3.3960	-1.0847	26.98	1.12	-1.500			
0.7063	45206.22	3.3930	3.3929	-1.0522	27.00	1.14	-1.500			
0.7094	45403.20	3.3900	3.3900	-1.0172	27.01	1.15	-1.500			
0.7124	45595.35	3.3870	3.3870	-0.9853	27.02	1.16	-1.500			
0.7153	45780.12	3.3840	3.3841	-0.9536	27.03	1.17	-1.500			
0.7181	45960.08	3.3810	3.3810	-0.9271	27.04	1.18	-1.500			
0.7208	46134.40	3.3780	3.3779	-0.8986	27.05	1.19	-1.500			
0.7235	46304.53	3.3750	3.3750	-0.8738	27.07	1.21	-1.500			
0.7261	46469.44	3.3720	3.3720	-0.8496	27.08	1.22	-1.500			
0.7286	46630.64	3.3690	3.3690	-0.8263	27.09	1.23	-1.500			
0.7311	46788.16	3.3660	3.3660	-0.8030	27.10	1.24	-1.500			
0.7334	46938.93	3.3630	3.3630	-0.7796	27.11	1.25	-1.500			
0.7357	47086.84	3.3600	3.3600	-0.7565	27.12	1.26	-1.500			
0.7380	47230.25	3.3570	3.3570	-0.7337	27.13	1.27	-1.500			
0.7401	47368.17	3.3540	3.3541	-0.7116	27.13	1.27	-1.500			
0.7422	47501.60	3.3510	3.3510	-0.6916	27.14	1.28	-1.500			
0.7443	47632.43	3.3480	3.3480	-0.6724	27.15	1.29	-1.500			
0.7462	47759.52	3.3450	3.3450	-0.6540	27.16	1.30	-1.500			
0.7482	47882.70	3.3420	3.3420	-0.6356	27.16	1.30	-1.500			
0.7501	48004.34	3.3390	3.3391	-0.6196	27.17	1.31	-1.500			
0.7519	48121.00	3.3360	3.3360	-0.6043	27.18	1.32	-1.500			
0.7537	48234.68	3.3330	3.3330	-0.5859	27.19	1.33	-1.500			
0.7554	48345.92	3.3300	3.3300	-0.5709	27.20	1.34	-1.500			
0.7571	48453.75	3.3270	3.3270	-0.5573	27.20	1.34	-1.500			
0.7587	48558.99	3.3240	3.3240	-0.5441	27.21	1.35	-1.500			
0.7603	48662.35	3.3210	3.3210	-0.5306	27.22	1.36	-1.500			
0.7619	48763.18	3.3180	3.3179	-0.5170	27.22	1.36	-1.500			
0.7634	48860.55	3.3150	3.3151	-0.5021	27.23	1.37	-1.500			
0.7649	48956.63	3.3120	3.3120	-0.4903	27.23	1.37	-1.500			
0.7664	49048.62	3.3090	3.3090	-0.4789	27.24	1.38	-1.500			
0.7678	49138.60	3.3060	3.3060	-0.4687	27.24	1.38	-1.500			
0.7692	49227.24	3.3030	3.3030	-0.4571	27.25	1.39	-1.500			
0.7705	49314.53	3.3000	3.3000	-0.4487	27.26	1.40	-1.500			
0.7719	49400.59	3.2970	3.2970	-0.4397	27.27	1.41	-1.500			
0.7732	49484.15	3.2940	3.2941	-0.4289	27.27	1.41	-1.500			
0.7745	49565.86	3.2910	3.2909	-0.4158	27.28	1.42	-1.500			
0.7757	49643.48	3.2880	3.2880	-0.4044	27.29	1.43	-1.500			
0.7769	49719.65	3.2850	3.2851	-0.3922	27.30	1.44	-1.500			
0.7780	49794.12	3.2820	3.2820	-0.3838	27.30	1.44	-1.500			
0.7792	49866.60	3.2790	3.2791	-0.3760	27.31	1.45	-1.500			
0.7803	49938.35	3.2760	3.2760	-0.3676	27.31	1.45	-1.500			
0.7814	50007.73	3.2730	3.2730	-0.3584	27.32	1.46	-1.500			
0.7824	50076.44	3.2700	3.2700	-0.3524	27.33	1.47	-1.500			
0.7835	50142.78	3.2670	3.2671	-0.3440	27.33	1.47	-1.500			
0.7845	50208.18	3.2640	3.2639	-0.3378	27.34	1.48	-1.500			
0.7855	50271.83	3.2610	3.2610	-0.3316	27.34	1.48	-1.500			
0.7865	50334.58	3.2580	3.2580	-0.3234	27.35	1.49	-1.500			
0.7874	50396.58	3.2550	3.2549	-0.3182	27.35	1.49	-1.500			
0.7884	50457.26	3.2520	3.2521	-0.3125	27.36	1.50	-1.500			
0.7893	50516.69	3.2490	3.2489	-0.3045	27.36	1.50	-1.500			
0.7902	50574.76	3.2460	3.2460	-0.2975	27.37	1.51	-1.500			
0.7911	50630.50	3.2430	3.2430	-0.2919	27.37	1.51	-1.500			
0.7920	50685.31	3.2400	3.2401	-0.2855	27.38	1.52	-1.500			
0.7928	50739.73	3.2370	3.2369	-0.2829	27.39	1.53	-1.500			
0.7936	50793.38	3.2340	3.2339	-0.2781	27.40	1.54	-1.500			
0.7945	50846.54	3.2310	3.2311	-0.2738	27.40	1.54	-1.500			
0.7953	50899.25	3.2280	3.2280	-0.2707	27.41	1.55	-1.500			
0.7961	50951.18	3.2250	3.2250	-0.2660	27.42	1.56	-1.500			
0.7969	51001.54	3.2220	3.2220	-0.2598	27.42	1.56	-1.500			
0.7977	51050.69	3.2190	3.2190	-0.2547	27.43	1.57	-1.500			
0.7984	51098.80	3.2160	3.2160	-0.2488	27.43	1.57	-1.500			
0.7992	51145.98	3.2130	3.2130	-0.2456	27.44	1.58	-1.500			
0.7999	51192.63	3.2100	3.2100	-0.2421	27.45	1.59	-1.500			
0.8006	51238.64	3.2070	3.2070	-0.2388	27.45	1.59	-1.500			
0.8013	51283.98	3.2040	3.2040	-0.2357	27.46	1.60	-1.500			
0.8020	51329.01	3.2010	3.2011	-0.2335	27.46	1.60	-1.500			
0.8027	51373.73	3.1980	3.1980	-0.2306	27.47	1.61	-1.500			
0.8034	51417.67	3.1950	3.1950	-0.2282	27.47	1.61	-1.500			
0.8041	51461.41	3.1920	3.1920	-0.2257	27.48	1.62	-1.500			
0.8048	51504.15	3.1890	3.1890	-0.2225	27.48	1.62	-1.500			
0.8054	51547.24	3.1860	3.1859	-0.2187	27.49	1.63	-1.500			
0.8061	51588.62	3.1830	3.1830	-0.2159	27.49	1.63	-1.500			
0.8067	51629.75	3.1800	3.1801	-0.2125	27.50	1.64	-1.500			
0.8073	51669.92	3.1770	3.1770	-0.2106	27.50	1.64	-1.500			
0.8080	51710.05	3.1740	3.1738	-0.2081	27.51	1.65	-1.500			
0.8086	51749.68	3.1710	3.1710	-0.2049	27.51	1.65	-1.500			
0.8092	51788.85	3.1680	3.1680	-0.2030	27.51	1.65	-1.500			
0.8098	51827.90	3.1650	3.1650	-0.2004	27.52	1.66	-1.500			
0.8104	51866.54	3.1620	3.1620	-0.1990	27.52	1.66	-1.500			
0.8110	51903.81	3.1590	3.1590	-0.1956	27.53	1.67	-1.500			
0.8116	51941.20	3.1560	3.1560	-0.1938	27.53	1.67	-1.500			
0.8122	51977.82	3.1530	3.1529	-0.1926	27.54	1.68	-1.500			
0.8127	52014.89	3.1500	3.1500	-0.1909	27.54	1.68	-1.500			
0.8133	52051.66	3.1470	3.1471	-0.1896	27.54	1.68	-1.500			
0.8139	52087.88	3.1440	3.1440	-0.1877	27.55	1.69	-1.500			
0.8144	52123.92	3.1410	3.1410	-0.1859	27.55	1.69	-1.500			
0.8150	52159.27	3.1380	3.1380	-0.1842	27.56	1.70	-1.500			
0.8155	52194.56	3.1350	3.1350	-0.1818	27.56	1.70	-1.500			
0.8161	52229.21	3.1320	3.1320	-0.1799	27.57	1.71	-1.500			
0.8166	52263.42	3.1290	3.1290	-0.1779	27.57	1.71	-1.500			
0.8171	52297.54	3.1260	3.1261	-0.1766	27.58	1.72	-1.500			
0.8177	52330.91	3.1230	3.1230	-0.1755	27.59	1.73	-1.500			
0.8182	52364.75	3.1200	3.1200	-0.1736	27.59	1.73	-1.500			
0.8187	52397.94	3.1170	3.1169	-0.1721	27.60	1.74	-1.500			
0.8192	52430.86	3.1140	3.1140	-0.1704	27.60	1.74	-1.500			
0.8197	52463.52	3.1110	3.1111	-0.1700	27.61	1.75	-1.500			
0.8202	52495.94	3.1080	3.1080	-0.1683	27.61	1.75	-1.500			
0.8208	52528.14	3.1050	3.1050	-0.1670	27.62	1.76	-1.500			
0.8213	52560.05	3.1020	3.1019	-0.1650	27.63	1.77	-1.500			
0.8217	52591.34	3.0990	3.0991	-0.1634	27.63	1.77	-1.500			
0.8222	52622.80	3.0960	3.0961	-0.1637	27.64	1.78	-1.500			
0.8227	52654.12	3.0930	3.0930	-0.1625	27.64	1.78	-1.500			
0.8232	52685.06	3.0900	3.0899	-0.1611	27.65	1.79	-1.500			
0.8237	52715.59	3.0870	3.0870	-0.1599	27.65	1.79	-1.500			
0.8242	52746.54	3.0840	3.0840	-0.1595	27.66	1.80	-1.500			
0.8246	52777.08	3.0810	3.0811	-0.1586	27.67	1.81	-1.500			
0.8251	52807.79	3.0780	3.0779	-0.1572	27.67	1.81	-1.500			
0.8256	52837.86	3.0750	3.0750	-0.1552	27.68	1.82	-1.500			
0.8260	52867.16	3.0720	3.0721	-0.1536	27.68	1.82	-1.500			
0.8265	52896.52	3.0690	3.0690	-0.1523	27.69	1.83	-1.500			
0.8270	52925.61	3.0660	3.0660	-0.1514	27.70	1.84	-1.500			
0.8274	52954.29	3.0630	3.0629	-0.1501	27.70	1.84	-1.500			
0.8279	52983.05	3.0600	3.0601	-0.1495	27.71	1.85	-1.500			
0.8283	53011.72	3.0570	3.0570	-0.1491	27.71	1.85	-1.500			
0.8288	53040.43	3.0540	3.0540	-0.1485	27.72	1.86	-1.500			
0.8292	53069.03	3.0510	3.0510	-0.1478	27.73	1.87	-1.500			
0.8296	53097.14	3.0480	3.0480	-0.1467	27.73	1.87	-1.500			
0.8301	53125.25	3.0450	3.0450	-0.1461	27.74	1.88	-1.500			
0.8305	53153.25	3.0420	3.0421	-0.1454	27.74	1.88	-1.500			
0.8310	53181.24	3.0390	3.0389	-0.1442	27.75	1.89	-1.500			
0.8314	53208.72	3.0360	3.0360	-0.1434	27.76	1.90	-1.500			
0.8318	53236.17	3.0330	3.0331	-0.1425	27.76	1.90	-1.500			
0.8322	53263.56	3.0300	3.0300	-0.1410	27.77	1.91	-1.500			
0.8327	53290.43	3.0270	3.0270	-0.1403	27.77	1.91	-1.500			
0.8331	53317.15	3.0240	3.0239	-0.1391	27.78	1.92	-1.500			
0.8335	53343.80	3.0210	3.0211	-0.1384	27.78	1.92	-1.500			
0.8339	53370.30	3.0180	3.0179	-0.1375	27.79	1.93	-1.500			
0.8343	53396.71	3.0150	3.0150	-0.1368	27.79	1.93	-1.500			
0.8347	53422.75	3.0120	3.0120	-0.1358	27.80	1.94	-1.500			
0.8351	53448.76	3.0090	3.0090	-0.1352	27.81	1.95	-1.500			
0.8355	53474.81	3.0060	3.0060	-0.1335	27.81	1.95	-1.500			
0.8359	53500.38	3.0030	3.0030	-0.1342	27.82	1.96	-1.500			
