Ah_balance (normalized)	Ah_balance (mAh)	Voltage - fit (V)	Voltage -  interpolate (V)	dQ/dV (1/V)	Temperature (°C)	Temperature - diff (°C)	Current (C)	R_DC 0ms (mOhm)	R_DC 50ms (mOhm)	R_DC 50 ms PEC (mOhm)
0.2696	17254.88	3.9910	3.9909	0.8523	27.50	1.55	1.500			
0.2721	17416.30	3.9880	3.9881	0.8455	27.49	1.54	1.500			
0.2747	17579.77	3.9850	3.9850	0.8495	27.48	1.53	1.500			
0.2772	17743.60	3.9820	3.9820	0.8491	27.48	1.53	1.500			
0.2798	17906.28	3.9790	3.9790	0.8480	27.47	1.52	1.500			
0.2823	18069.05	3.9760	3.9761	0.8503	27.46	1.51	1.500			
0.2849	18233.65	3.9730	3.9730	0.8512	27.46	1.51	1.500			
0.2874	18395.97	3.9700	3.9700	0.8553	27.45	1.50	1.500			
0.2900	18558.74	3.9670	3.9670	0.8559	27.44	1.49	1.500			
0.2926	18724.14	3.9640	3.9641	0.8634	27.43	1.48	1.500			
0.2952	18891.37	3.9610	3.9609	0.8695	27.43	1.48	1.500			
0.2978	19058.51	3.9580	3.9581	0.8736	27.42	1.47	1.500			
0.3004	19227.18	3.9550	3.9550	0.8758	27.42	1.47	1.500			
0.3031	19395.84	3.9520	3.9520	0.8810	27.41	1.46	1.500			
0.3057	19564.79	3.9490	3.9490	0.8871	27.40	1.45	1.500			
0.3084	19735.66	3.9460	3.9460	0.8918	27.40	1.45	1.500			
0.3111	19907.31	3.9430	3.9430	0.8971	27.39	1.44	1.500			
0.3138	20080.74	3.9400	3.9401	0.8991	27.38	1.43	1.500			
0.3165	20254.27	3.9370	3.9370	0.9041	27.38	1.43	1.500			
0.3192	20428.48	3.9340	3.9340	0.9076	27.37	1.42	1.500			
0.3219	20601.62	3.9310	3.9310	0.9116	27.36	1.41	1.500			
0.3246	20777.04	3.9280	3.9280	0.9172	27.35	1.40	1.500			
0.3274	20954.59	3.9250	3.9250	0.9233	27.34	1.39	1.500			
0.3302	21132.60	3.9220	3.9220	0.9275	27.34	1.39	1.500			
0.3330	21311.15	3.9190	3.9191	0.9332	27.33	1.38	1.500			
0.3358	21489.41	3.9160	3.9160	0.9377	27.32	1.37	1.500			
0.3386	21669.68	3.9130	3.9129	0.9457	27.31	1.36	1.500			
0.3414	21850.41	3.9100	3.9100	0.9544	27.30	1.35	1.500			
0.3443	22035.95	3.9070	3.9068	0.9626	27.29	1.34	1.500			
0.3472	22222.99	3.9040	3.9040	0.9719	27.28	1.33	1.500			
0.3502	22410.22	3.9010	3.9010	0.9805	27.28	1.33	1.500			
0.3531	22598.82	3.8980	3.8981	0.9870	27.27	1.32	1.500			
0.3561	22787.97	3.8950	3.8950	0.9899	27.26	1.31	1.500			
0.3591	22980.04	3.8920	3.8920	1.0012	27.25	1.30	1.500			
0.3621	23172.08	3.8890	3.8891	1.0075	27.25	1.30	1.500			
0.3651	23366.86	3.8860	3.8860	1.0170	27.24	1.29	1.500			
0.3682	23563.09	3.8830	3.8830	1.0251	27.23	1.28	1.500			
0.3713	23760.78	3.8800	3.8799	1.0310	27.22	1.27	1.500			
0.3744	23959.17	3.8770	3.8770	1.0400	27.21	1.26	1.500			
0.3775	24159.09	3.8740	3.8740	1.0497	27.20	1.25	1.500			
0.3806	24360.97	3.8710	3.8710	1.0596	27.19	1.24	1.500			
0.3838	24564.64	3.8680	3.8680	1.0678	27.18	1.23	1.500			
0.3870	24770.85	3.8650	3.8650	1.0809	27.17	1.22	1.500			
0.3903	24978.26	3.8620	3.8621	1.0995	27.16	1.21	1.500			
0.3936	25190.95	3.8590	3.8589	1.1205	27.15	1.20	1.500			
0.3970	25407.25	3.8560	3.8560	1.1366	27.14	1.19	1.500			
0.4005	25629.31	3.8530	3.8530	1.1492	27.13	1.18	1.500			
0.4039	25851.94	3.8500	3.8500	1.1689	27.12	1.17	1.500			
0.4075	26080.20	3.8470	3.8469	1.1740	27.10	1.15	1.500			
0.4110	26303.97	3.8440	3.8440	1.1903	27.09	1.14	1.500			
0.4146	26531.83	3.8410	3.8411	1.2044	27.08	1.13	1.500			
0.4182	26763.59	3.8380	3.8379	1.2206	27.06	1.11	1.500			
0.4219	27000.04	3.8350	3.8350	1.2416	27.05	1.10	1.500			
0.4256	27240.16	3.8320	3.8320	1.2665	27.04	1.09	1.500			
0.4295	27485.49	3.8290	3.8290	1.2792	27.03	1.08	1.500			
0.4334	27734.76	3.8260	3.8260	1.3102	27.02	1.07	1.500			
0.4373	27985.97	3.8230	3.8230	1.3254	27.00	1.05	1.500			
0.4413	28243.68	3.8200	3.8200	1.3516	26.99	1.04	1.500			
0.4454	28504.72	3.8170	3.8169	1.3752	26.98	1.03	1.500			
0.4495	28771.13	3.8140	3.8140	1.3955	26.96	1.01	1.500			
0.4538	29042.31	3.8110	3.8110	1.4113	26.94	0.99	1.500			
0.4581	29315.60	3.8080	3.8080	1.4359	26.93	0.98	1.500			
0.4624	29591.06	3.8050	3.8050	1.4603	26.91	0.96	1.500			
0.4668	29873.78	3.8020	3.8020	1.4899	26.89	0.94	1.500			
0.4713	30162.39	3.7990	3.7990	1.5152	26.87	0.92	1.500			
0.4759	30456.75	3.7960	3.7960	1.5388	26.86	0.91	1.500			
0.4806	30755.24	3.7930	3.7930	1.5683	26.84	0.89	1.500			
0.4853	31058.10	3.7900	3.7900	1.6003	26.82	0.87	1.500			
0.4901	31364.71	3.7870	3.7870	1.6280	26.81	0.86	1.500			
0.4950	31681.62	3.7840	3.7839	1.6578	26.79	0.84	1.500	0.341	0.482	
0.5001	32004.68	3.7810	3.7811	1.6744	26.77	0.82	1.500			
0.5052	32335.09	3.7780	3.7780	1.6805	26.75	0.80	1.500			
0.5102	32652.99	3.7750	3.7750	1.6719	26.73	0.78	1.500			
0.5152	32970.06	3.7720	3.7721	1.6731	26.71	0.76	1.500			
0.5202	33292.54	3.7690	3.7690	1.6892	26.69	0.74	1.500			
0.5253	33619.04	3.7660	3.7660	1.7106	26.67	0.72	1.500			
0.5305	33948.94	3.7630	3.7630	1.7201	26.65	0.70	1.500			
0.5356	34281.46	3.7600	3.7600	1.7315	26.63	0.68	1.500			
0.5409	34616.88	3.7570	3.7570	1.7498	26.61	0.66	1.500			
0.5461	34953.32	3.7540	3.7540	1.7562	26.59	0.64	1.500			
0.5514	35290.78	3.7510	3.7510	1.7726	26.57	0.62	1.500			
0.5568	35632.81	3.7480	3.7480	1.7728	26.56	0.61	1.500			
0.5621	35971.65	3.7450	3.7450	1.8169	26.54	0.59	1.500			
0.5676	36323.28	3.7420	3.7420	1.8610	26.52	0.57	1.500			
0.5732	36684.60	3.7390	3.7390	1.9161	26.50	0.55	1.500			
0.5791	37059.85	3.7360	3.7360	1.9555	26.47	0.52	1.500			
0.5850	37439.04	3.7330	3.7330	1.9798	26.45	0.50	1.500			
0.5910	37820.80	3.7300	3.7301	2.0271	26.43	0.48	1.500			
0.5970	38210.33	3.7270	3.7270	2.0801	26.41	0.46	1.500			
0.6034	38616.02	3.7240	3.7241	2.1264	26.39	0.44	1.500			
0.6100	39040.00	3.7210	3.7209	2.2110	26.36	0.41	1.500			
0.6166	39464.40	3.7180	3.7180	2.2418	26.33	0.38	1.500			
0.6235	39901.04	3.7150	3.7151	2.2558	26.31	0.36	1.500			
0.6303	40339.86	3.7120	3.7120	2.2468	26.28	0.33	1.500			
0.6371	40776.27	3.7090	3.7090	2.1970	26.26	0.31	1.500			
0.6436	41192.20	3.7060	3.7060	2.1107	26.24	0.29	1.500			
0.6498	41589.34	3.7030	3.7030	1.9897	26.22	0.27	1.500			
0.6556	41958.71	3.7000	3.7000	1.8644	26.20	0.25	1.500			
0.6609	42299.92	3.6970	3.6971	1.7443	26.19	0.24	1.500			
0.6659	42620.42	3.6940	3.6940	1.6461	26.17	0.22	1.500			
0.6708	42928.45	3.6910	3.6909	1.5681	26.16	0.21	1.500			
0.6753	43217.33	3.6880	3.6881	1.4848	26.15	0.20	1.500			
0.6796	43497.44	3.6850	3.6850	1.4290	26.14	0.19	1.500			
0.6838	43761.58	3.6820	3.6821	1.3845	26.13	0.18	1.500			
0.6878	44017.06	3.6790	3.6789	1.3395	26.12	0.17	1.500			
0.6917	44268.98	3.6760	3.6760	1.3125	26.11	0.16	1.500			
0.6956	44518.21	3.6730	3.6730	1.2953	26.10	0.15	1.500			
0.6995	44765.84	3.6700	3.6700	1.2849	26.09	0.14	1.500			
0.7033	45010.76	3.6670	3.6670	1.2768	26.07	0.12	1.500			
0.7071	45254.88	3.6640	3.6640	1.2664	26.06	0.11	1.500			
0.7108	45494.13	3.6610	3.6610	1.2651	26.05	0.10	1.500			
0.7146	45737.50	3.6580	3.6580	1.2631	26.04	0.09	1.500			
0.7185	45980.92	3.6550	3.6549	1.2620	26.03	0.08	1.500			
0.7222	46223.53	3.6520	3.6520	1.2585	26.02	0.07	1.500			
0.7260	46464.96	3.6490	3.6491	1.2521	26.02	0.07	1.500			
0.7298	46705.45	3.6460	3.6460	1.2446	26.01	0.06	1.500			
0.7335	46944.21	3.6430	3.6430	1.2280	26.00	0.05	1.500			
0.7372	47177.64	3.6400	3.6400	1.2178	25.99	0.04	1.500			
0.7408	47411.17	3.6370	3.6371	1.2112	25.99	0.04	1.500			
0.7444	47641.62	3.6340	3.6338	1.2054	25.98	0.03	1.500			
0.7480	47872.27	3.6310	3.6310	1.1953	25.97	0.02	1.500			
0.7516	48101.52	3.6280	3.6280	1.1878	25.97	0.02	1.500			
0.7552	48330.59	3.6250	3.6251	1.1778	25.96	0.01	1.500			
0.7587	48555.99	3.6220	3.6220	1.1599	25.96	0.01	1.500			
0.7622	48778.08	3.6190	3.6190	1.1446	25.95	0.00	1.500			
0.7656	48997.13	3.6160	3.6160	1.1233	25.95	-0.00	1.500			
0.7689	49210.32	3.6130	3.6130	1.1011	25.94	-0.01	1.500			
0.7722	49422.17	3.6100	3.6100	1.0750	25.94	-0.01	1.500			
0.7754	49625.07	3.6070	3.6070	1.0445	25.94	-0.01	1.500			
0.7785	49823.48	3.6040	3.6040	1.0172	25.94	-0.01	1.500			
0.7815	50015.57	3.6010	3.6010	0.9852	25.94	-0.01	1.500			
0.7844	50203.18	3.5980	3.5980	0.9459	25.95	-0.00	1.500			
0.7873	50384.04	3.5950	3.5949	0.8994	25.95	-0.00	1.500			
0.7899	50556.15	3.5920	3.5921	0.8475	25.95	-0.00	1.500			
0.7925	50717.75	3.5890	3.5890	0.7732	25.95	-0.00	1.500			
0.7947	50861.82	3.5860	3.5860	0.6953	25.95	0.00	1.500			
0.7967	50986.84	3.5830	3.5830	0.6101	25.95	0.00	1.500			
0.7983	51093.38	3.5800	3.5800	0.5249	25.95	0.00	1.500			
0.7998	51184.29	3.5770	3.5769	0.4488	25.95	0.00	1.500			
0.8009	51260.20	3.5740	3.5739	0.3833	25.95	0.00	1.500			
0.8019	51324.29	3.5710	3.5710	0.3281	25.95	0.00	1.500			
0.8028	51381.24	3.5680	3.5679	0.2891	25.95	0.00	1.500			
0.8036	51428.68	3.5650	3.5649	0.2523	25.95	0.00	1.500			
0.8043	51472.82	3.5620	3.5620	0.2277	25.95	0.00	1.500			
0.8049	51512.56	3.5590	3.5591	0.2038	25.95	0.00	1.500			
0.8055	51549.72	3.5560	3.5559	0.1866	25.95	0.00	1.500			
0.8060	51583.03	3.5530	3.5529	0.1700	25.95	0.00	1.500			
0.8065	51614.10	3.5500	3.5501	0.1552	25.95	0.00	1.500			
0.8069	51642.45	3.5470	3.5471	0.1419	25.96	0.01	1.500			
0.8073	51668.27	3.5440	3.5440	0.1283	25.96	0.01	1.500			
0.8077	51691.80	3.5410	3.5410	0.1144	25.96	0.01	1.500			
0.8080	51712.42	3.5380	3.5380	0.1006	25.96	0.01	1.500			
0.8083	51730.41	3.5350	3.5352	0.0868	25.96	0.01	1.500			
0.8085	51746.31	3.5320	3.5321	0.0733	25.96	0.01	1.500			
0.8087	51759.22	3.5290	3.5293	0.0586	25.96	0.01	1.500			
0.8089	51769.03	3.5260	3.5265	0.0436	25.96	0.01	1.500			
0.8090	51775.94	3.5230	3.5240	0.0285	25.96	0.01	1.500			
