Ah_balance (normalized)	Ah_balance (mAh)	Voltage - fit (V)	Voltage -  interpolate (V)	dQ/dV (1/V)	Temperature (°C)	Temperature - diff (°C)	Current (C)	R_DC 0ms (mOhm)	R_DC 50ms (mOhm)	R_DC 50 ms PEC (mOhm)
0.2168	13874.32	3.9100	3.9097	-0.1218	25.73	0.00	-1.500			
0.2172	13900.25	3.9070	3.9070	-0.1540	25.73	0.00	-1.500			
0.2177	13933.65	3.9040	3.9040	-0.1875	25.73	0.00	-1.500			
0.2183	13973.16	3.9010	3.9010	-0.2177	25.73	0.00	-1.500			
0.2190	14017.96	3.8980	3.8982	-0.2484	25.73	0.00	-1.500			
0.2198	14069.06	3.8950	3.8950	-0.2786	25.73	0.00	-1.500			
0.2207	14125.24	3.8920	3.8919	-0.3085	25.73	0.00	-1.500			
0.2217	14187.43	3.8890	3.8890	-0.3370	25.73	0.00	-1.500			
0.2227	14254.06	3.8860	3.8860	-0.3674	25.73	0.00	-1.500			
0.2239	14328.44	3.8830	3.8830	-0.3979	25.73	0.00	-1.500			
0.2251	14408.18	3.8800	3.8799	-0.4270	25.73	0.00	-1.500			
0.2264	14492.70	3.8770	3.8770	-0.4561	25.73	0.00	-1.500			
0.2279	14583.19	3.8740	3.8741	-0.4849	25.73	0.00	-1.500			
0.2294	14679.42	3.8710	3.8709	-0.5112	25.73	0.00	-1.500			
0.2309	14780.38	3.8680	3.8679	-0.5381	25.73	0.00	-1.500			
0.2326	14886.33	3.8650	3.8651	-0.5591	25.73	0.00	-1.500			
0.2343	14996.77	3.8620	3.8620	-0.5823	25.73	0.00	-1.500			
0.2361	15111.74	3.8590	3.8590	-0.6044	25.73	0.00	-1.500			
0.2380	15229.02	3.8560	3.8561	-0.6255	25.73	0.00	-1.500			
0.2399	15351.37	3.8530	3.8529	-0.6428	25.73	0.00	-1.500			
0.2418	15476.88	3.8500	3.8500	-0.6613	25.73	0.00	-1.500			
0.2438	15605.13	3.8470	3.8470	-0.6788	25.73	0.00	-1.500			
0.2459	15739.27	3.8440	3.8440	-0.6954	25.73	0.00	-1.500			
0.2481	15876.05	3.8410	3.8409	-0.7066	25.73	0.00	-1.500			
0.2502	16012.89	3.8380	3.8380	-0.7143	25.73	0.00	-1.500			
0.2524	16151.34	3.8350	3.8352	-0.7211	25.73	0.00	-1.500			
0.2545	16290.69	3.8320	3.8318	-0.7300	25.73	0.00	-1.500			
0.2567	16429.68	3.8290	3.8290	-0.7358	25.73	0.00	-1.500			
0.2589	16571.70	3.8260	3.8260	-0.7423	25.74	0.01	-1.500			
0.2612	16714.31	3.8230	3.8230	-0.7504	25.74	0.01	-1.500			
0.2635	16863.40	3.8200	3.8199	-0.7562	25.74	0.01	-1.500			
0.2658	17008.57	3.8170	3.8171	-0.7564	25.75	0.02	-1.500			
0.2680	17154.19	3.8140	3.8140	-0.7579	25.75	0.02	-1.500			
0.2703	17298.69	3.8110	3.8110	-0.7582	25.75	0.02	-1.500			
0.2726	17443.52	3.8080	3.8079	-0.7562	25.75	0.02	-1.500			
0.2748	17588.83	3.8050	3.8050	-0.7611	25.76	0.03	-1.500			
0.2771	17734.40	3.8020	3.8020	-0.7690	25.76	0.03	-1.500			
0.2794	17883.52	3.7990	3.7990	-0.7789	25.76	0.03	-1.500			
0.2818	18034.77	3.7960	3.7959	-0.7786	25.77	0.04	-1.500			
0.2842	18185.82	3.7930	3.7930	-0.7773	25.77	0.04	-1.500			
0.2865	18335.11	3.7900	3.7901	-0.7779	25.78	0.05	-1.500			
0.2888	18484.96	3.7870	3.7870	-0.7782	25.79	0.06	-1.500			
0.2911	18633.25	3.7840	3.7839	-0.7742	25.79	0.06	-1.500			
0.2934	18780.75	3.7810	3.7810	-0.7732	25.80	0.07	-1.500			
0.2958	18928.36	3.7780	3.7780	-0.7784	25.80	0.07	-1.500			
0.2981	19079.63	3.7750	3.7750	-0.7813	25.81	0.08	-1.500			
0.3005	19230.34	3.7720	3.7719	-0.7817	25.81	0.08	-1.500			
0.3028	19379.90	3.7690	3.7690	-0.7784	25.82	0.09	-1.500			
0.3051	19529.03	3.7660	3.7661	-0.7830	25.82	0.09	-1.500			
0.3075	19679.86	3.7630	3.7629	-0.7853	25.83	0.10	-1.500			
0.3099	19831.67	3.7600	3.7599	-0.7803	25.84	0.11	-1.500			
0.3122	19980.59	3.7570	3.7571	-0.7796	25.84	0.11	-1.500			
0.3145	20131.00	3.7540	3.7541	-0.7835	25.85	0.12	-1.500			
0.3169	20281.73	3.7510	3.7509	-0.7791	25.85	0.12	-1.500			
0.3192	20428.85	3.7480	3.7479	-0.7851	25.86	0.13	-1.500			
0.3215	20579.02	3.7450	3.7451	-0.7857	25.86	0.13	-1.500			
0.3239	20731.94	3.7420	3.7419	-0.7865	25.87	0.14	-1.500			
0.3263	20884.33	3.7390	3.7390	-0.7861	25.88	0.15	-1.500			
0.3287	21035.17	3.7360	3.7361	-0.7818	25.88	0.15	-1.500			
0.3310	21184.76	3.7330	3.7329	-0.7815	25.89	0.16	-1.500			
0.3334	21334.68	3.7300	3.7300	-0.7830	25.89	0.16	-1.500			
0.3357	21482.47	3.7270	3.7270	-0.7829	25.90	0.17	-1.500			
0.3380	21634.55	3.7240	3.7240	-0.7845	25.91	0.18	-1.500			
0.3404	21785.03	3.7210	3.7211	-0.7872	25.91	0.18	-1.500			
0.3428	21936.14	3.7180	3.7180	-0.7913	25.92	0.19	-1.500			
0.3451	22088.25	3.7150	3.7148	-0.7956	25.93	0.20	-1.500			
0.3475	22240.02	3.7120	3.7120	-0.7996	25.93	0.20	-1.500			
0.3499	22394.58	3.7090	3.7090	-0.8067	25.94	0.21	-1.500			
0.3524	22551.25	3.7060	3.7060	-0.8127	25.95	0.22	-1.500			
0.3548	22707.69	3.7030	3.7029	-0.8239	25.95	0.22	-1.500			
0.3573	22865.62	3.7000	3.7001	-0.8260	25.96	0.23	-1.500			
0.3598	23024.16	3.6970	3.6970	-0.8352	25.97	0.24	-1.500			
0.3623	23185.33	3.6940	3.6940	-0.8419	25.97	0.24	-1.500			
0.3648	23347.76	3.6910	3.6912	-0.8486	25.98	0.25	-1.500			
0.3674	23511.42	3.6880	3.6879	-0.8592	25.98	0.25	-1.500			
0.3700	23677.31	3.6850	3.6851	-0.8735	25.99	0.26	-1.500			
0.3726	23845.17	3.6820	3.6819	-0.8850	26.00	0.27	-1.500			
0.3753	24016.54	3.6790	3.6790	-0.9043	26.00	0.27	-1.500			
0.3780	24191.14	3.6760	3.6761	-0.9184	26.01	0.28	-1.500			
0.3808	24369.96	3.6730	3.6730	-0.9371	26.01	0.28	-1.500			
0.3836	24552.16	3.6700	3.6700	-0.9483	26.02	0.29	-1.500			
0.3865	24733.98	3.6670	3.6670	-0.9660	26.02	0.29	-1.500			
0.3894	24919.88	3.6640	3.6640	-0.9834	26.03	0.30	-1.500			
0.3924	25110.48	3.6610	3.6609	-1.0038	26.03	0.30	-1.500			
0.3954	25305.73	3.6580	3.6580	-1.0181	26.04	0.31	-1.500			
0.3985	25503.08	3.6550	3.6550	-1.0385	26.04	0.31	-1.500			
0.4016	25703.44	3.6520	3.6520	-1.0598	26.05	0.32	-1.500			
0.4048	25909.13	3.6490	3.6490	-1.0823	26.05	0.32	-1.500			
0.4081	26117.64	3.6460	3.6459	-1.1028	26.06	0.33	-1.500			
0.4114	26330.77	3.6430	3.6430	-1.1304	26.06	0.33	-1.500			
0.4148	26549.71	3.6400	3.6401	-1.1540	26.06	0.33	-1.500			
0.4184	26776.10	3.6370	3.6371	-1.1815	26.07	0.34	-1.500			
0.4220	27006.48	3.6340	3.6340	-1.1993	26.07	0.34	-1.500			
0.4256	27238.29	3.6310	3.6309	-1.2205	26.08	0.35	-1.500			
0.4293	27473.58	3.6280	3.6281	-1.2417	26.08	0.35	-1.500			
0.4330	27713.33	3.6250	3.6250	-1.2654	26.08	0.35	-1.500			
0.4368	27955.94	3.6220	3.6219	-1.2937	26.08	0.35	-1.500			
0.4407	28205.24	3.6190	3.6191	-1.3253	26.09	0.36	-1.500			
0.4448	28466.82	3.6160	3.6160	-1.3596	26.09	0.36	-1.500			
0.4490	28733.58	3.6130	3.6129	-1.3952	26.09	0.36	-1.500			
0.4532	29005.91	3.6100	3.6101	-1.4109	26.09	0.36	-1.500			
0.4575	29277.93	3.6070	3.6069	-1.4376	26.09	0.36	-1.500			
0.4618	29552.16	3.6040	3.6041	-1.4764	26.09	0.36	-1.500			
0.4662	29837.84	3.6010	3.6010	-1.4952	26.10	0.37	-1.500			
0.4708	30131.96	3.5980	3.5978	-1.5272	26.10	0.37	-1.500			
0.4755	30428.81	3.5950	3.5950	-1.5541	26.10	0.37	-1.500			
0.4802	30729.88	3.5920	3.5921	-1.5815	26.10	0.37	-1.500			
0.4849	31035.38	3.5890	3.5889	-1.6107	26.10	0.37	-1.500			
0.4897	31341.07	3.5860	3.5860	-1.6248	26.10	0.37	-1.500			
0.4946	31654.66	3.5830	3.5830	-1.6558	26.10	0.37	-1.500			
0.4997	31981.23	3.5800	3.5799	-1.6938	26.10	0.37	-1.500			
0.5049	32311.78	3.5770	3.5771	-1.7200	26.10	0.37	-1.500			
0.5100	32642.74	3.5740	3.5740	-1.7455	26.10	0.37	-1.500			
0.5153	32980.55	3.5710	3.5710	-1.7661	26.10	0.37	-1.500			
0.5206	33320.62	3.5680	3.5680	-1.7780	26.10	0.37	-1.500			
0.5260	33665.51	3.5650	3.5650	-1.8056	26.10	0.37	-1.500			
0.5315	34013.46	3.5620	3.5620	-1.8293	26.10	0.37	-1.500			
0.5370	34365.48	3.5590	3.5589	-1.8655	26.10	0.37	-1.500			
0.5427	34733.31	3.5560	3.5559	-1.8822	26.10	0.37	-1.500			
0.5484	35096.49	3.5530	3.5529	-1.8936	26.10	0.37	-1.500			
0.5542	35466.98	3.5500	3.5502	-1.9150	26.10	0.37	-1.500			
0.5599	35834.76	3.5470	3.5469	-1.9314	26.11	0.38	-1.500			
0.5657	36203.03	3.5440	3.5439	-1.9292	26.11	0.38	-1.500			
0.5714	36572.29	3.5410	3.5414	-1.9377	26.11	0.38	-1.500	0.389	0.512	
0.5773	36949.38	3.5380	3.5380	-1.9402	26.12	0.39	-1.500			
0.5832	37323.74	3.5350	3.5350	-1.9389	26.12	0.39	-1.500			
0.5890	37696.52	3.5320	3.5320	-1.9318	26.13	0.40	-1.500			
0.5948	38068.97	3.5290	3.5289	-1.9270	26.13	0.40	-1.500			
0.6006	38438.43	3.5260	3.5260	-1.9184	26.14	0.41	-1.500			
0.6063	38805.29	3.5230	3.5230	-1.8993	26.15	0.42	-1.500			
0.6120	39167.60	3.5200	3.5200	-1.9113	26.15	0.42	-1.500			
0.6177	39535.65	3.5170	3.5170	-1.8916	26.16	0.43	-1.500			
0.6234	39896.74	3.5140	3.5139	-1.8714	26.17	0.44	-1.500			
0.6291	40259.23	3.5110	3.5113	-1.8723	26.18	0.45	-1.500			
0.6346	40614.94	3.5080	3.5079	-1.8619	26.19	0.46	-1.500			
0.6402	40971.33	3.5050	3.5049	-1.8506	26.20	0.47	-1.500			
0.6456	41319.17	3.5020	3.5021	-1.8275	26.21	0.48	-1.500			
0.6512	41675.94	3.4990	3.4990	-1.8360	26.22	0.49	-1.500			
0.6567	42030.39	3.4960	3.4960	-1.8242	26.23	0.50	-1.500			
0.6622	42379.31	3.4930	3.4930	-1.8161	26.23	0.50	-1.500			
0.6676	42725.54	3.4900	3.4899	-1.7980	26.24	0.51	-1.500			
0.6730	43071.53	3.4870	3.4870	-1.7821	26.25	0.52	-1.500			
0.6783	43412.74	3.4840	3.4840	-1.7708	26.26	0.53	-1.500			
0.6836	43750.94	3.4810	3.4811	-1.7539	26.27	0.54	-1.500			
0.6889	44087.53	3.4780	3.4779	-1.7399	26.29	0.56	-1.500			
0.6941	44420.13	3.4750	3.4749	-1.7212	26.30	0.57	-1.500			
0.6992	44748.55	3.4720	3.4720	-1.6980	26.31	0.58	-1.500			
0.7043	45072.19	3.4690	3.4691	-1.6835	26.32	0.59	-1.500			
0.7093	45396.38	3.4660	3.4659	-1.6600	26.34	0.61	-1.500			
0.7142	45711.07	3.4630	3.4630	-1.6346	26.35	0.62	-1.500			
0.7191	46022.02	3.4600	3.4600	-1.6099	26.36	0.63	-1.500			
0.7239	46331.70	3.4570	3.4570	-1.5951	26.37	0.64	-1.500			
0.7287	46633.70	3.4540	3.4541	-1.5704	26.38	0.65	-1.500			
0.7333	46933.28	3.4510	3.4510	-1.5453	26.40	0.67	-1.500			
0.7379	47226.46	3.4480	3.4480	-1.5302	26.41	0.68	-1.500			
0.7425	47519.00	3.4450	3.4450	-1.5181	26.43	0.70	-1.500			
0.7470	47809.13	3.4420	3.4420	-1.5037	26.44	0.71	-1.500			
0.7515	48095.37	3.4390	3.4390	-1.4891	26.45	0.72	-1.500			
0.7559	48378.91	3.4360	3.4359	-1.4804	26.47	0.74	-1.500			
0.7604	48662.63	3.4330	3.4330	-1.4721	26.49	0.76	-1.500			
0.7648	48944.25	3.4300	3.4299	-1.4730	26.51	0.78	-1.500			
0.7692	49228.09	3.4270	3.4270	-1.4600	26.53	0.80	-1.500			
0.7736	49510.93	3.4240	3.4240	-1.4543	26.55	0.82	-1.500			
0.7780	49790.58	3.4210	3.4213	-1.4380	26.56	0.83	-1.500			
0.7823	50066.44	3.4180	3.4179	-1.4158	26.58	0.85	-1.500			
0.7865	50336.06	3.4150	3.4149	-1.3931	26.60	0.87	-1.500			
0.7906	50600.34	3.4120	3.4120	-1.3646	26.62	0.89	-1.500			
0.7947	50863.85	3.4090	3.4089	-1.3413	26.64	0.91	-1.500			
0.7987	51118.08	3.4060	3.4062	-1.2986	26.66	0.93	-1.500			
0.8026	51364.42	3.4030	3.4030	-1.2541	26.68	0.95	-1.500			
0.8063	51601.41	3.4000	3.4000	-1.2073	26.69	0.96	-1.500			
0.8098	51827.56	3.3970	3.3970	-1.1600	26.71	0.98	-1.500			
0.8132	52044.46	3.3940	3.3940	-1.1220	26.73	1.00	-1.500			
0.8165	52254.70	3.3910	3.3909	-1.0779	26.74	1.01	-1.500			
0.8197	52459.05	3.3880	3.3880	-1.0359	26.75	1.02	-1.500			
0.8227	52655.20	3.3850	3.3850	-0.9904	26.77	1.04	-1.500			
0.8257	52842.17	3.3820	3.3822	-0.9483	26.78	1.05	-1.500			
0.8284	53018.04	3.3790	3.3790	-0.9100	26.79	1.06	-1.500			
0.8310	53186.71	3.3760	3.3760	-0.8660	26.80	1.07	-1.500			
0.8336	53347.54	3.3730	3.3729	-0.8347	26.82	1.09	-1.500			
0.8360	53503.69	3.3700	3.3700	-0.8061	26.83	1.10	-1.500			
0.8384	53655.89	3.3670	3.3671	-0.7808	26.84	1.11	-1.500			
0.8407	53803.95	3.3640	3.3640	-0.7550	26.85	1.12	-1.500			
0.8429	53946.75	3.3610	3.3610	-0.7285	26.86	1.13	-1.500			
0.8451	54083.44	3.3580	3.3580	-0.7031	26.87	1.14	-1.500			
0.8471	54216.18	3.3550	3.3550	-0.6857	26.88	1.15	-1.500			
0.8491	54345.01	3.3520	3.3519	-0.6612	26.89	1.16	-1.500			
0.8511	54470.08	3.3490	3.3489	-0.6410	26.89	1.16	-1.500			
0.8530	54591.22	3.3460	3.3463	-0.6192	26.90	1.17	-1.500			
0.8548	54708.77	3.3430	3.3429	-0.5991	26.91	1.18	-1.500			
0.8566	54820.25	3.3400	3.3400	-0.5807	26.92	1.19	-1.500			
0.8583	54928.54	3.3370	3.3370	-0.5595	26.93	1.20	-1.500			
0.8599	55035.41	3.3340	3.3340	-0.5454	26.94	1.21	-1.500			
0.8615	55138.49	3.3310	3.3310	-0.5275	26.94	1.21	-1.500			
0.8631	55237.92	3.3280	3.3281	-0.5106	26.95	1.22	-1.500			
0.8646	55334.39	3.3250	3.3250	-0.4952	26.96	1.23	-1.500			
0.8661	55427.45	3.3220	3.3219	-0.4780	26.97	1.24	-1.500			
0.8674	55516.62	3.3190	3.3190	-0.4623	26.98	1.25	-1.500			
0.8688	55604.07	3.3160	3.3160	-0.4492	26.98	1.25	-1.500			
0.8701	55689.05	3.3130	3.3130	-0.4355	26.99	1.26	-1.500			
0.8714	55771.72	3.3100	3.3099	-0.4235	27.00	1.27	-1.500			
0.8727	55851.49	3.3070	3.3070	-0.4111	27.00	1.27	-1.500			
0.8739	55929.07	3.3040	3.3041	-0.3968	27.01	1.28	-1.500			
0.8751	56004.34	3.3010	3.3010	-0.3844	27.01	1.28	-1.500			
0.8762	56076.52	3.2980	3.2980	-0.3707	27.02	1.29	-1.500			
0.8773	56146.50	3.2950	3.2949	-0.3599	27.03	1.30	-1.500			
0.8783	56213.74	3.2920	3.2920	-0.3494	27.03	1.30	-1.500			
0.8794	56279.59	3.2890	3.2889	-0.3384	27.04	1.31	-1.500			
0.8804	56343.70	3.2860	3.2860	-0.3292	27.05	1.32	-1.500			
0.8814	56406.65	3.2830	3.2831	-0.3208	27.05	1.32	-1.500			
0.8823	56467.64	3.2800	3.2799	-0.3087	27.06	1.33	-1.500			
0.8832	56525.96	3.2770	3.2769	-0.2982	27.06	1.33	-1.500			
0.8841	56581.28	3.2740	3.2741	-0.2874	27.07	1.34	-1.500			
0.8849	56635.01	3.2710	3.2710	-0.2795	27.07	1.34	-1.500			
0.8857	56687.72	3.2680	3.2679	-0.2728	27.08	1.35	-1.500			
0.8865	56739.05	3.2650	3.2650	-0.2660	27.09	1.36	-1.500			
0.8873	56789.36	3.2620	3.2620	-0.2596	27.09	1.36	-1.500			
0.8881	56839.07	3.2590	3.2591	-0.2540	27.10	1.37	-1.500			
0.8889	56887.83	3.2560	3.2560	-0.2480	27.10	1.37	-1.500			
0.8896	56934.98	3.2530	3.2529	-0.2418	27.11	1.38	-1.500			
0.8903	56980.29	3.2500	3.2500	-0.2347	27.11	1.38	-1.500			
0.8910	57024.83	3.2470	3.2470	-0.2288	27.11	1.38	-1.500			
0.8917	57068.10	3.2440	3.2440	-0.2234	27.12	1.39	-1.500			
0.8923	57110.36	3.2410	3.2410	-0.2178	27.12	1.39	-1.500			
0.8930	57151.64	3.2380	3.2381	-0.2123	27.13	1.40	-1.500			
0.8936	57191.61	3.2350	3.2350	-0.2080	27.13	1.40	-1.500			
0.8942	57231.03	3.2320	3.2320	-0.2043	27.13	1.40	-1.500			
0.8948	57269.58	3.2290	3.2290	-0.2003	27.14	1.41	-1.500			
0.8954	57307.76	3.2260	3.2259	-0.1956	27.14	1.41	-1.500			
0.8960	57345.14	3.2230	3.2230	-0.1915	27.15	1.42	-1.500			
0.8966	57381.28	3.2200	3.2200	-0.1880	27.15	1.42	-1.500			
0.8971	57417.01	3.2170	3.2171	-0.1841	27.15	1.42	-1.500			
0.8977	57452.01	3.2140	3.2138	-0.1809	27.16	1.43	-1.500			
0.8982	57485.98	3.2110	3.2109	-0.1770	27.16	1.43	-1.500			
0.8987	57519.68	3.2080	3.2080	-0.1738	27.16	1.43	-1.500			
0.8993	57552.78	3.2050	3.2050	-0.1710	27.17	1.44	-1.500			
0.8998	57585.59	3.2020	3.2021	-0.1688	27.17	1.44	-1.500			
0.9003	57617.69	3.1990	3.1990	-0.1659	27.17	1.44	-1.500			
0.9008	57648.80	3.1960	3.1959	-0.1630	27.18	1.45	-1.500			
0.9012	57679.92	3.1930	3.1930	-0.1612	27.18	1.45	-1.500			
0.9017	57710.61	3.1900	3.1901	-0.1592	27.18	1.45	-1.500			
0.9022	57741.08	3.1870	3.1870	-0.1572	27.18	1.45	-1.500			
0.9027	57771.21	3.1840	3.1840	-0.1553	27.19	1.46	-1.500			
0.9031	57800.82	3.1810	3.1810	-0.1531	27.19	1.46	-1.500			
0.9036	57830.02	3.1780	3.1779	-0.1507	27.20	1.47	-1.500			
0.9040	57858.77	3.1750	3.1751	-0.1489	27.20	1.47	-1.500			
0.9045	57886.78	3.1720	3.1721	-0.1467	27.20	1.47	-1.500			
0.9049	57914.80	3.1690	3.1689	-0.1453	27.21	1.48	-1.500			
0.9054	57942.43	3.1660	3.1660	-0.1440	27.21	1.48	-1.500			
0.9058	57970.00	3.1630	3.1630	-0.1425	27.22	1.49	-1.500			
0.9062	57997.52	3.1600	3.1600	-0.1409	27.22	1.49	-1.500			
0.9066	58024.37	3.1570	3.1569	-0.1389	27.23	1.50	-1.500			
0.9070	58050.82	3.1540	3.1541	-0.1380	27.23	1.50	-1.500			
0.9075	58077.06	3.1510	3.1511	-0.1362	27.23	1.50	-1.500			
0.9079	58102.87	3.1480	3.1480	-0.1344	27.24	1.51	-1.500			
0.9083	58128.57	3.1450	3.1449	-0.1334	27.24	1.51	-1.500			
0.9087	58153.92	3.1420	3.1421	-0.1322	27.25	1.52	-1.500			
0.9091	58179.35	3.1390	3.1390	-0.1312	27.25	1.52	-1.500			
0.9094	58204.44	3.1360	3.1360	-0.1301	27.25	1.52	-1.500			
0.9098	58229.56	3.1330	3.1330	-0.1291	27.26	1.53	-1.500			
0.9102	58254.19	3.1300	3.1300	-0.1274	27.26	1.53	-1.500			
0.9106	58278.21	3.1270	3.1272	-0.1264	27.27	1.54	-1.500			
0.9110	58302.39	3.1240	3.1239	-0.1256	27.27	1.54	-1.500			
0.9113	58326.34	3.1210	3.1211	-0.1251	27.27	1.54	-1.500			
0.9117	58350.14	3.1180	3.1179	-0.1244	27.28	1.55	-1.500			
0.9121	58374.28	3.1150	3.1151	-0.1233	27.28	1.55	-1.500			
0.9125	58397.84	3.1120	3.1119	-0.1222	27.28	1.55	-1.500			
0.9128	58421.42	3.1090	3.1091	-0.1216	27.29	1.56	-1.500			
0.9132	58444.63	3.1060	3.1060	-0.1201	27.29	1.56	-1.500			
0.9136	58467.36	3.1030	3.1029	-0.1189	27.30	1.57	-1.500			
0.9139	58490.09	3.1000	3.1000	-0.1179	27.30	1.57	-1.500			
0.9143	58512.22	3.0970	3.0970	-0.1170	27.30	1.57	-1.500			
0.9146	58534.69	3.0940	3.0941	-0.1170	27.31	1.58	-1.500			
0.9150	58557.24	3.0910	3.0911	-0.1168	27.31	1.58	-1.500			
0.9153	58579.64	3.0880	3.0879	-0.1165	27.32	1.59	-1.500			
0.9157	58602.29	3.0850	3.0850	-0.1155	27.32	1.59	-1.500			
0.9160	58624.36	3.0820	3.0820	-0.1144	27.32	1.59	-1.500			
0.9163	58646.31	3.0790	3.0791	-0.1140	27.33	1.60	-1.500			
0.9167	58668.07	3.0760	3.0760	-0.1127	27.33	1.60	-1.500			
0.9170	58689.27	3.0730	3.0730	-0.1118	27.34	1.61	-1.500			
0.9174	58710.71	3.0700	3.0699	-0.1114	27.34	1.61	-1.500			
0.9177	58732.05	3.0670	3.0671	-0.1103	27.34	1.61	-1.500			
0.9180	58753.18	3.0640	3.0640	-0.1098	27.35	1.62	-1.500			
0.9183	58774.27	3.0610	3.0610	-0.1100	27.35	1.62	-1.500			
0.9187	58795.33	3.0580	3.0581	-0.1095	27.35	1.62	-1.500			
0.9190	58816.19	3.0550	3.0549	-0.1087	27.36	1.63	-1.500			
0.9193	58837.04	3.0520	3.0519	-0.1084	27.36	1.63	-1.500			
0.9197	58858.08	3.0490	3.0490	-0.1072	27.37	1.64	-1.500			
0.9200	58878.57	3.0460	3.0461	-0.1062	27.37	1.64	-1.500			
0.9203	58898.89	3.0430	3.0431	-0.1064	27.37	1.64	-1.500			
0.9206	58919.22	3.0400	3.0401	-0.1055	27.38	1.65	-1.500			
0.9209	58939.24	3.0370	3.0370	-0.1054	27.38	1.65	-1.500			
0.9212	58958.99	3.0340	3.0338	-0.1048	27.38	1.65	-1.500			
0.9216	58979.27	3.0310	3.0309	-0.1042	27.39	1.66	-1.500			
0.9219	58999.20	3.0280	3.0281	-0.1040	27.39	1.66	-1.500			
0.9222	59019.27	3.0250	3.0251	-0.1031	27.39	1.66	-1.500			
0.9225	59039.54	3.0220	3.0221	-0.1029	27.40	1.67	-1.500			
0.9228	59059.02	3.0190	3.0189	-0.1025	27.40	1.67	-1.500			
0.9231	59078.43	3.0160	3.0160	-0.1016	27.40	1.67	-1.500			
0.9234	59097.84	3.0130	3.0129	-0.1014	27.41	1.68	-1.500			
0.9237	59116.96	3.0100	3.0100	-0.1010	27.41	1.68	-1.500			
0.9240	59136.37	3.0070	3.0070	-0.1012	27.42	1.69	-1.500			
0.9243	59155.78	3.0040	3.0040	-0.1016	27.42	1.69	-1.500			
0.9246	59175.32	3.0010	3.0010	-0.1019	27.42	1.69	-1.501			
