Ah_balance (normalized)	Ah_balance (mAh)	Voltage - fit (V)	Voltage -  interpolate (V)	dQ/dV (1/V)	Temperature (°C)	Temperature - diff (°C)	Current (C)	R_DC 0ms (mOhm)	R_DC 50ms (mOhm)	R_DC 50 ms PEC (mOhm)
0.2884	18455.31	3.9900	3.9900	0.8261	27.23	1.29	1.500			
0.2909	18616.17	3.9870	3.9870	0.8431	27.23	1.29	1.500			
0.2934	18778.00	3.9840	3.9839	0.8441	27.22	1.28	1.500			
0.2959	18939.26	3.9810	3.9812	0.8480	27.21	1.27	1.500			
0.2985	19102.76	3.9780	3.9780	0.8505	27.20	1.26	1.500			
0.3011	19267.62	3.9750	3.9749	0.8522	27.20	1.26	1.500			
0.3036	19430.44	3.9720	3.9720	0.8491	27.19	1.25	1.500			
0.3062	19594.32	3.9690	3.9691	0.8571	27.18	1.24	1.500			
0.3087	19758.89	3.9660	3.9660	0.8585	27.18	1.24	1.500			
0.3113	19922.99	3.9630	3.9630	0.8637	27.17	1.23	1.500			
0.3139	20088.95	3.9600	3.9600	0.8697	27.16	1.22	1.500			
0.3165	20258.24	3.9570	3.9570	0.8743	27.15	1.21	1.500			
0.3192	20427.17	3.9540	3.9540	0.8752	27.15	1.21	1.500			
0.3218	20596.29	3.9510	3.9510	0.8741	27.14	1.20	1.500			
0.3244	20762.58	3.9480	3.9481	0.8732	27.13	1.19	1.500			
0.3270	20928.73	3.9450	3.9450	0.8776	27.13	1.19	1.500			
0.3296	21096.39	3.9420	3.9420	0.8807	27.12	1.18	1.500			
0.3323	21266.47	3.9390	3.9389	0.8872	27.12	1.18	1.500			
0.3350	21438.42	3.9360	3.9360	0.8970	27.11	1.17	1.500			
0.3377	21613.11	3.9330	3.9330	0.9041	27.10	1.16	1.500			
0.3404	21786.80	3.9300	3.9300	0.9102	27.10	1.16	1.500			
0.3431	21960.99	3.9270	3.9270	0.9128	27.09	1.15	1.500			
0.3459	22137.30	3.9240	3.9240	0.9144	27.08	1.14	1.500			
0.3486	22312.61	3.9210	3.9210	0.9226	27.07	1.13	1.500			
0.3514	22489.54	3.9180	3.9181	0.9324	27.07	1.13	1.500			
0.3542	22669.93	3.9150	3.9149	0.9383	27.06	1.12	1.500			
0.3571	22854.31	3.9120	3.9119	0.9413	27.05	1.11	1.500			
0.3599	23033.79	3.9090	3.9092	0.9488	27.04	1.10	1.500			
0.3628	23216.36	3.9060	3.9060	0.9571	27.03	1.09	1.500			
0.3656	23400.28	3.9030	3.9030	0.9701	27.03	1.09	1.500			
0.3685	23584.80	3.9000	3.9000	0.9726	27.02	1.08	1.500			
0.3715	23772.96	3.8970	3.8970	0.9839	27.01	1.07	1.500			
0.3745	23966.95	3.8940	3.8941	0.9950	27.00	1.06	1.500			
0.3775	24159.07	3.8910	3.8910	1.0011	26.99	1.05	1.500			
0.3805	24350.65	3.8880	3.8880	1.0004	26.98	1.04	1.500			
0.3835	24542.90	3.8850	3.8850	1.0089	26.98	1.04	1.500			
0.3865	24736.76	3.8820	3.8821	1.0169	26.97	1.03	1.500			
0.3896	24932.72	3.8790	3.8789	1.0308	26.96	1.02	1.500			
0.3927	25131.02	3.8760	3.8759	1.0459	26.95	1.01	1.500			
0.3958	25333.97	3.8730	3.8731	1.0600	26.94	1.00	1.500			
0.3990	25537.80	3.8700	3.8700	1.0753	26.94	1.00	1.500			
0.4023	25748.22	3.8670	3.8671	1.0880	26.93	0.99	1.500			
0.4056	25958.98	3.8640	3.8639	1.0927	26.92	0.98	1.500			
0.4089	26168.69	3.8610	3.8611	1.1094	26.91	0.97	1.500			
0.4122	26380.78	3.8580	3.8580	1.1216	26.90	0.96	1.500			
0.4156	26597.19	3.8550	3.8550	1.1386	26.90	0.96	1.500			
0.4190	26818.31	3.8520	3.8520	1.1512	26.89	0.95	1.500			
0.4225	27039.76	3.8490	3.8490	1.1666	26.88	0.94	1.500			
0.4260	27266.90	3.8460	3.8461	1.1908	26.87	0.93	1.500			
0.4297	27498.25	3.8430	3.8429	1.2016	26.86	0.92	1.500			
0.4332	27727.29	3.8400	3.8400	1.2242	26.85	0.91	1.500			
0.4370	27966.37	3.8370	3.8370	1.2474	26.84	0.90	1.500			
0.4407	28207.16	3.8340	3.8340	1.2755	26.83	0.89	1.500			
0.4446	28456.38	3.8310	3.8311	1.2931	26.81	0.87	1.500			
0.4485	28704.64	3.8280	3.8280	1.3145	26.80	0.86	1.500			
0.4525	28958.42	3.8250	3.8250	1.3411	26.79	0.85	1.500			
0.4566	29219.84	3.8220	3.8219	1.3672	26.78	0.84	1.500			
0.4607	29484.07	3.8190	3.8190	1.3870	26.76	0.82	1.500			
0.4649	29754.30	3.8160	3.8161	1.4168	26.75	0.81	1.500			
0.4692	30027.95	3.8130	3.8130	1.4365	26.74	0.80	1.500			
0.4735	30306.38	3.8100	3.8100	1.4642	26.72	0.78	1.500			
0.4779	30588.30	3.8070	3.8070	1.4813	26.71	0.77	1.500			
0.4824	30875.07	3.8040	3.8040	1.5131	26.69	0.75	1.500			
0.4870	31168.67	3.8010	3.8010	1.5473	26.68	0.74	1.500			
0.4917	31469.74	3.7980	3.7980	1.5741	26.66	0.72	1.500			
0.4965	31773.60	3.7950	3.7951	1.6003	26.65	0.71	1.500			
0.5014	32088.57	3.7920	3.7920	1.6117	26.63	0.69	1.500			
0.5062	32397.22	3.7890	3.7890	1.6380	26.62	0.68	1.500			
0.5111	32709.58	3.7860	3.7861	1.6692	26.60	0.66	1.500			
0.5162	33034.63	3.7830	3.7828	1.7047	26.59	0.65	1.500	0.344	0.474	
0.5213	33366.34	3.7800	3.7802	1.7184	26.57	0.63	1.500			
0.5266	33702.08	3.7770	3.7771	1.7229	26.55	0.61	1.500			
0.5318	34037.19	3.7740	3.7740	1.7325	26.54	0.60	1.500			
0.5370	34365.70	3.7710	3.7710	1.7317	26.52	0.58	1.500			
0.5421	34694.12	3.7680	3.7678	1.7314	26.50	0.56	1.500			
0.5473	35027.65	3.7650	3.7650	1.7446	26.49	0.55	1.500			
0.5526	35369.15	3.7620	3.7620	1.7531	26.48	0.54	1.500			
0.5578	35702.10	3.7590	3.7590	1.7387	26.46	0.52	1.500			
0.5630	36033.76	3.7560	3.7561	1.7414	26.45	0.51	1.500			
0.5683	36369.83	3.7530	3.7529	1.7593	26.44	0.50	1.500			
0.5736	36708.69	3.7500	3.7500	1.7790	26.42	0.48	1.500			
0.5789	37051.14	3.7470	3.7471	1.7917	26.40	0.46	1.500			
0.5844	37399.14	3.7440	3.7440	1.8292	26.39	0.45	1.500			
0.5899	37751.47	3.7410	3.7410	1.8468	26.37	0.43	1.500			
0.5954	38108.03	3.7380	3.7381	1.8875	26.35	0.41	1.500			
0.6012	38475.89	3.7350	3.7350	1.9356	26.34	0.40	1.500			
0.6071	38851.73	3.7320	3.7319	1.9866	26.33	0.39	1.500			
0.6131	39239.49	3.7290	3.7291	2.0478	26.31	0.37	1.500			
0.6193	39636.59	3.7260	3.7259	2.0902	26.30	0.36	1.500			
0.6257	40047.49	3.7230	3.7230	2.1353	26.28	0.34	1.500			
0.6322	40458.82	3.7200	3.7200	2.2286	26.26	0.32	1.500			
0.6389	40891.09	3.7170	3.7171	2.2963	26.24	0.30	1.500			
0.6460	41340.84	3.7140	3.7141	2.3589	26.22	0.28	1.500			
0.6531	41801.00	3.7110	3.7111	2.3866	26.21	0.27	1.500			
0.6603	42256.31	3.7080	3.7080	2.3312	26.20	0.26	1.500			
0.6673	42709.09	3.7050	3.7046	2.3127	26.18	0.24	1.500			
0.6743	43155.75	3.7020	3.7021	2.2307	26.17	0.23	1.500			
0.6809	43578.61	3.6990	3.6990	2.1441	26.15	0.21	1.500			
0.6869	43962.27	3.6960	3.6960	1.9281	26.14	0.20	1.500			
0.6921	44295.84	3.6930	3.6929	1.7541	26.13	0.19	1.500			
0.6972	44621.78	3.6900	3.6901	1.6531	26.12	0.18	1.500			
0.7020	44929.26	3.6870	3.6870	1.5630	26.11	0.17	1.500			
0.7066	45219.50	3.6840	3.6841	1.4923	26.10	0.16	1.500			
0.7109	45495.12	3.6810	3.6810	1.4221	26.09	0.15	1.500			
0.7150	45758.13	3.6780	3.6780	1.3702	26.09	0.15	1.500			
0.7190	46013.30	3.6750	3.6750	1.3299	26.08	0.14	1.500			
0.7229	46264.12	3.6720	3.6720	1.3016	26.07	0.13	1.500			
0.7267	46510.84	3.6690	3.6690	1.2838	26.07	0.13	1.500			
0.7305	46754.04	3.6660	3.6660	1.2711	26.06	0.12	1.500			
0.7343	46993.30	3.6630	3.6630	1.2628	26.05	0.11	1.500			
0.7380	47233.33	3.6600	3.6600	1.2641	26.05	0.11	1.500			
0.7418	47477.04	3.6570	3.6570	1.2688	26.04	0.10	1.500			
0.7457	47723.23	3.6540	3.6540	1.2678	26.03	0.09	1.500			
0.7495	47968.50	3.6510	3.6511	1.2688	26.02	0.08	1.500			
0.7534	48214.55	3.6480	3.6480	1.2602	26.01	0.07	1.500			
0.7571	48455.27	3.6450	3.6450	1.2525	26.01	0.07	1.500			
0.7608	48691.70	3.6420	3.6420	1.2385	26.00	0.06	1.500			
0.7645	48928.95	3.6390	3.6391	1.2289	25.99	0.05	1.500			
0.7682	49164.23	3.6360	3.6359	1.2238	25.98	0.04	1.500			
0.7719	49398.92	3.6330	3.6330	1.2146	25.97	0.03	1.500			
0.7755	49630.43	3.6300	3.6300	1.2054	25.97	0.03	1.500			
0.7791	49863.25	3.6270	3.6270	1.1976	25.96	0.02	1.500			
0.7827	50091.71	3.6240	3.6240	1.1849	25.96	0.02	1.500			
0.7862	50319.41	3.6210	3.6210	1.1782	25.95	0.01	1.500			
0.7898	50546.58	3.6180	3.6181	1.1638	25.94	0.00	1.500			
0.7933	50768.39	3.6150	3.6148	1.1475	25.94	0.00	1.500			
0.7967	50988.22	3.6120	3.6121	1.1291	25.94	0.00	1.500			
0.8000	51202.33	3.6090	3.6090	1.1046	25.94	0.00	1.500			
0.8033	51412.32	3.6060	3.6060	1.0819	25.94	0.00	1.500			
0.8066	51619.21	3.6030	3.6030	1.0565	25.94	0.00	1.500			
0.8097	51819.41	3.6000	3.6000	1.0300	25.94	0.00	1.500			
0.8128	52016.74	3.5970	3.5970	1.0066	25.94	0.00	1.500			
0.8157	52207.05	3.5940	3.5940	0.9741	25.94	0.00	1.500			
0.8187	52394.68	3.5910	3.5909	0.9345	25.94	0.00	1.500			
0.8215	52572.81	3.5880	3.5880	0.8830	25.94	0.00	1.500			
0.8241	52743.60	3.5850	3.5850	0.8142	25.94	0.00	1.500			
0.8265	52895.34	3.5820	3.5820	0.7334	25.94	0.00	1.500			
0.8286	53031.02	3.5790	3.5791	0.6459	25.94	0.00	1.500			
0.8304	53144.60	3.5760	3.5760	0.5514	25.94	0.00	1.500			
0.8318	53236.62	3.5730	3.5730	0.4678	25.94	0.00	1.500			
0.8330	53314.24	3.5700	3.5700	0.3980	25.94	0.00	1.500			
0.8341	53380.68	3.5670	3.5669	0.3314	25.94	0.00	1.500			
0.8350	53437.13	3.5640	3.5639	0.2882	25.94	0.00	1.500			
0.8357	53484.53	3.5610	3.5610	0.2496	25.94	0.00	1.500			
0.8364	53528.14	3.5580	3.5579	0.2228	25.94	0.00	1.500			
0.8370	53567.07	3.5550	3.5551	0.1971	25.94	0.00	1.500			
0.8375	53602.02	3.5520	3.5520	0.1781	25.94	0.00	1.500			
0.8380	53633.52	3.5490	3.5491	0.1604	25.94	0.00	1.500			
0.8385	53662.37	3.5460	3.5460	0.1436	25.94	0.00	1.500			
0.8389	53688.54	3.5430	3.5429	0.1287	25.94	0.00	1.500			
0.8392	53711.71	3.5400	3.5400	0.1135	25.94	0.00	1.500			
0.8396	53732.09	3.5370	3.5370	0.0988	25.94	0.00	1.500			
0.8398	53749.94	3.5340	3.5341	0.0846	25.94	0.00	1.500			
0.8401	53764.72	3.5310	3.5312	0.0693	25.94	0.00	1.500			
0.8403	53776.79	3.5280	3.5283	0.0539	25.94	0.00	1.500			
0.8404	53785.64	3.5250	3.5257	0.0383	25.94	0.00	1.500			
0.8405	53791.49	3.5220	3.5235	0.0226	25.94	0.00	1.500			
