Ah_balance (normalized)	Ah_balance (mAh)	Voltage - fit (V)	Voltage -  interpolate (V)	dQ/dV (1/V)	Temperature (°C)	Temperature - diff (°C)	Current (C)	R_DC 0ms (mOhm)	R_DC 50ms (mOhm)	R_DC 50 ms PEC (mOhm)
0.2872	18378.95	3.9720	3.9720	0.8803	26.90	0.95	1.500			
0.2898	18547.77	3.9690	3.9690	0.8773	26.90	0.95	1.500			
0.2924	18714.32	3.9660	3.9660	0.8760	26.89	0.94	1.500			
0.2950	18882.68	3.9630	3.9631	0.8813	26.89	0.94	1.500			
0.2977	19052.42	3.9600	3.9599	0.8858	26.89	0.94	1.500			
0.3004	19223.12	3.9570	3.9570	0.8888	26.88	0.93	1.500			
0.3030	19394.98	3.9540	3.9540	0.8938	26.88	0.93	1.500			
0.3057	19566.81	3.9510	3.9510	0.8955	26.88	0.93	1.500			
0.3084	19740.03	3.9480	3.9480	0.9005	26.87	0.92	1.500			
0.3111	19912.63	3.9450	3.9450	0.8988	26.87	0.92	1.500			
0.3138	20084.51	3.9420	3.9420	0.9053	26.87	0.92	1.500			
0.3165	20258.13	3.9390	3.9391	0.9146	26.86	0.91	1.500			
0.3193	20435.19	3.9360	3.9359	0.9185	26.86	0.91	1.500			
0.3221	20612.17	3.9330	3.9329	0.9209	26.86	0.91	1.500			
0.3248	20790.04	3.9300	3.9301	0.9282	26.85	0.90	1.500			
0.3276	20968.31	3.9270	3.9271	0.9332	26.85	0.90	1.500			
0.3305	21149.40	3.9240	3.9239	0.9398	26.84	0.89	1.500			
0.3333	21328.80	3.9210	3.9210	0.9418	26.84	0.89	1.500			
0.3361	21508.53	3.9180	3.9180	0.9486	26.83	0.88	1.500			
0.3389	21692.51	3.9150	3.9150	0.9605	26.83	0.88	1.500			
0.3418	21877.73	3.9120	3.9120	0.9696	26.83	0.88	1.500			
0.3448	22064.66	3.9090	3.9090	0.9729	26.82	0.87	1.500			
0.3477	22252.82	3.9060	3.9060	0.9823	26.82	0.87	1.500			
0.3507	22442.62	3.9030	3.9030	0.9897	26.81	0.86	1.500			
0.3536	22633.20	3.9000	3.9000	0.9957	26.81	0.86	1.500			
0.3566	22824.21	3.8970	3.8970	1.0012	26.80	0.85	1.500			
0.3597	23018.11	3.8940	3.8940	1.0059	26.80	0.85	1.500			
0.3627	23211.72	3.8910	3.8910	1.0170	26.79	0.84	1.500			
0.3657	23407.27	3.8880	3.8881	1.0310	26.79	0.84	1.500			
0.3688	23604.01	3.8850	3.8850	1.0450	26.78	0.83	1.500			
0.3720	23806.85	3.8820	3.8820	1.0594	26.78	0.83	1.500			
0.3752	24012.22	3.8790	3.8790	1.0729	26.77	0.82	1.500			
0.3785	24221.13	3.8760	3.8760	1.0812	26.77	0.82	1.500			
0.3817	24431.88	3.8730	3.8730	1.0919	26.76	0.81	1.500			
0.3850	24641.44	3.8700	3.8700	1.0989	26.76	0.81	1.500			
0.3883	24851.34	3.8670	3.8670	1.1088	26.75	0.80	1.500			
0.3916	25062.74	3.8640	3.8640	1.1207	26.75	0.80	1.500			
0.3950	25280.29	3.8610	3.8609	1.1365	26.74	0.79	1.500			
0.3984	25500.04	3.8580	3.8581	1.1533	26.73	0.78	1.500			
0.4019	25723.23	3.8550	3.8550	1.1718	26.73	0.78	1.500			
0.4055	25949.46	3.8520	3.8520	1.1907	26.72	0.77	1.500			
0.4090	26178.47	3.8490	3.8490	1.2063	26.72	0.77	1.500			
0.4127	26411.42	3.8460	3.8460	1.2292	26.71	0.76	1.500			
0.4164	26650.45	3.8430	3.8430	1.2476	26.71	0.76	1.500			
0.4202	26892.25	3.8400	3.8398	1.2714	26.70	0.75	1.500			
0.4240	27137.70	3.8370	3.8371	1.2907	26.69	0.74	1.500			
0.4279	27386.74	3.8340	3.8340	1.3161	26.68	0.73	1.500			
0.4319	27640.92	3.8310	3.8310	1.3448	26.67	0.72	1.500			
0.4359	27899.96	3.8280	3.8279	1.3716	26.66	0.71	1.500			
0.4401	28167.12	3.8250	3.8250	1.4045	26.65	0.70	1.500			
0.4444	28441.17	3.8220	3.8220	1.4368	26.64	0.69	1.500			
0.4488	28720.15	3.8190	3.8190	1.4686	26.63	0.68	1.500			
0.4532	29006.71	3.8160	3.8160	1.5000	26.62	0.67	1.500			
0.4577	29294.60	3.8130	3.8130	1.5319	26.61	0.66	1.500			
0.4623	29589.94	3.8100	3.8100	1.5710	26.60	0.65	1.500			
0.4671	29895.22	3.8070	3.8071	1.6128	26.59	0.64	1.500			
0.4720	30208.32	3.8040	3.8040	1.6559	26.58	0.63	1.500			
0.4770	30529.57	3.8010	3.8009	1.6979	26.57	0.62	1.500			
0.4822	30859.42	3.7980	3.7981	1.7425	26.56	0.61	1.500			
0.4875	31200.57	3.7950	3.7950	1.7896	26.55	0.60	1.500			
0.4929	31546.19	3.7920	3.7920	1.8352	26.53	0.58	1.500			
0.4985	31902.18	3.7890	3.7890	1.8867	26.52	0.57	1.500			
0.5042	32269.71	3.7860	3.7860	1.9406	26.51	0.56	1.500			
0.5101	32647.68	3.7830	3.7830	1.9955	26.49	0.54	1.500			
0.5162	33035.41	3.7800	3.7800	2.0367	26.48	0.53	1.500			
0.5224	33431.22	3.7770	3.7770	2.0882	26.46	0.51	1.500			
0.5287	33839.72	3.7740	3.7740	2.1203	26.45	0.50	1.500			
0.5352	34252.86	3.7710	3.7710	2.1527	26.43	0.48	1.500			
0.5417	34667.39	3.7680	3.7680	2.1793	26.41	0.46	1.500			
0.5482	35084.51	3.7650	3.7650	2.2300	26.39	0.44	1.500			
0.5550	35518.87	3.7620	3.7615	2.2340	26.37	0.42	1.500	0.373	0.457	
0.5618	35956.12	3.7590	3.7591	2.2514	26.35	0.40	1.500			
0.5686	36391.20	3.7560	3.7559	2.2299	26.33	0.38	1.500			
0.5751	36809.46	3.7530	3.7530	2.1682	26.32	0.37	1.500			
0.5816	37222.34	3.7500	3.7501	2.1494	26.30	0.35	1.500			
0.5881	37637.84	3.7470	3.7469	2.1355	26.28	0.33	1.500			
0.5943	38036.47	3.7440	3.7440	2.1056	26.26	0.31	1.500			
0.6007	38441.79	3.7410	3.7410	2.0992	26.25	0.30	1.500			
0.6069	38843.30	3.7380	3.7380	2.0872	26.24	0.29	1.500			
0.6132	39241.95	3.7350	3.7351	2.0879	26.22	0.27	1.500			
0.6194	39638.71	3.7320	3.7319	2.1156	26.21	0.26	1.500			
0.6258	40048.04	3.7290	3.7290	2.1425	26.20	0.25	1.500			
0.6322	40462.29	3.7260	3.7260	2.1696	26.19	0.24	1.500			
0.6387	40878.64	3.7230	3.7231	2.2221	26.17	0.22	1.500			
0.6454	41305.94	3.7200	3.7198	2.2729	26.16	0.21	1.500			
0.6523	41747.62	3.7170	3.7170	2.3349	26.15	0.20	1.500			
0.6594	42204.55	3.7140	3.7140	2.4309	26.14	0.19	1.500			
0.6668	42675.59	3.7110	3.7110	2.5157	26.13	0.18	1.500			
0.6744	43164.76	3.7080	3.7081	2.6271	26.11	0.16	1.500			
0.6826	43683.56	3.7050	3.7050	2.7115	26.10	0.15	1.500			
0.6908	44212.78	3.7020	3.7020	2.7702	26.09	0.14	1.500			
0.6992	44751.88	3.6990	3.6990	2.8168	26.07	0.12	1.500			
0.7078	45300.53	3.6960	3.6960	2.7694	26.06	0.11	1.500			
0.7161	45831.25	3.6930	3.6930	2.6726	26.05	0.10	1.500			
0.7240	46338.33	3.6900	3.6900	2.5161	26.04	0.09	1.500			
0.7314	46808.80	3.6870	3.6870	2.3199	26.03	0.08	1.500			
0.7380	47231.10	3.6840	3.6841	2.1143	26.03	0.08	1.500			
0.7438	47603.49	3.6810	3.6809	1.9052	26.02	0.07	1.500			
0.7492	47947.73	3.6780	3.6781	1.7475	26.02	0.07	1.500			
0.7542	48270.22	3.6750	3.6749	1.6450	26.02	0.07	1.500			
0.7589	48571.36	3.6720	3.6720	1.5405	26.01	0.06	1.500			
0.7634	48855.69	3.6690	3.6690	1.4648	26.01	0.06	1.500			
0.7676	49127.05	3.6660	3.6661	1.3907	26.01	0.06	1.500			
0.7716	49384.10	3.6630	3.6629	1.3330	26.01	0.06	1.500			
0.7755	49629.98	3.6600	3.6600	1.2802	26.01	0.06	1.500			
0.7792	49868.49	3.6570	3.6571	1.2535	26.00	0.05	1.500			
0.7829	50104.76	3.6540	3.6539	1.2330	26.00	0.05	1.500			
0.7865	50337.16	3.6510	3.6510	1.2308	26.00	0.05	1.500			
0.7902	50569.71	3.6480	3.6480	1.2399	25.99	0.04	1.500			
0.7939	50807.57	3.6450	3.6450	1.2553	25.99	0.04	1.500			
0.7976	51049.48	3.6420	3.6420	1.2760	25.99	0.04	1.500			
0.8015	51297.05	3.6390	3.6390	1.2952	25.98	0.03	1.500			
0.8055	51549.34	3.6360	3.6360	1.3048	25.98	0.03	1.500			
0.8094	51804.14	3.6330	3.6330	1.3099	25.97	0.02	1.500			
0.8134	52056.50	3.6300	3.6301	1.3125	25.97	0.02	1.500			
0.8173	52308.02	3.6270	3.6270	1.3058	25.96	0.01	1.500			
0.8212	52558.12	3.6240	3.6240	1.3026	25.96	0.01	1.500			
0.8251	52806.72	3.6210	3.6210	1.2984	25.95	0.00	1.500			
0.8290	53055.18	3.6180	3.6179	1.2969	25.95	-0.00	1.500			
0.8329	53304.74	3.6150	3.6150	1.2931	25.94	-0.01	1.500			
0.8368	53553.66	3.6120	3.6120	1.2915	25.93	-0.02	1.500			
0.8406	53800.87	3.6090	3.6090	1.2860	25.93	-0.02	1.500			
0.8445	54048.64	3.6060	3.6059	1.2811	25.92	-0.03	1.500			
0.8483	54293.16	3.6030	3.6030	1.2690	25.92	-0.03	1.500			
0.8521	54536.97	3.6000	3.6000	1.2559	25.92	-0.03	1.500			
0.8559	54777.05	3.5970	3.5970	1.2451	25.92	-0.03	1.500			
0.8596	55014.85	3.5940	3.5940	1.2201	25.92	-0.03	1.500			
0.8632	55246.96	3.5910	3.5910	1.2070	25.92	-0.03	1.500			
0.8668	55476.34	3.5880	3.5881	1.1919	25.92	-0.03	1.500			
0.8703	55702.26	3.5850	3.5848	1.1866	25.92	-0.03	1.500			
0.8739	55927.29	3.5820	3.5820	1.1845	25.92	-0.03	1.500			
0.8774	56153.79	3.5790	3.5790	1.1904	25.93	-0.02	1.500			
0.8810	56383.74	3.5760	3.5760	1.1876	25.93	-0.02	1.500			
0.8847	56622.60	3.5730	3.5729	1.1533	25.94	-0.01	1.500			
0.8883	56854.18	3.5700	3.5700	1.0755	25.94	-0.01	1.500			
0.8917	57067.37	3.5670	3.5671	0.9857	25.95	-0.00	1.500			
0.8945	57248.21	3.5640	3.5641	0.8430	25.95	-0.00	1.500			
0.8968	57395.19	3.5610	3.5610	0.6998	25.95	0.00	1.500			
0.8986	57509.75	3.5580	3.5579	0.5563	25.95	0.00	1.500			
0.8999	57593.39	3.5550	3.5549	0.4411	25.96	0.01	1.500			
0.9010	57662.88	3.5520	3.5520	0.3616	25.96	0.01	1.500			
0.9019	57721.70	3.5490	3.5488	0.3039	25.96	0.01	1.500			
0.9027	57769.98	3.5460	3.5461	0.2553	25.96	0.01	1.500			
0.9034	57814.55	3.5430	3.5430	0.2207	25.96	0.01	1.500			
0.9039	57851.77	3.5400	3.5399	0.1960	25.96	0.01	1.500			
0.9045	57885.25	3.5370	3.5371	0.1742	25.96	0.01	1.500			
0.9049	57915.77	3.5340	3.5340	0.1534	25.96	0.01	1.500			
0.9054	57943.48	3.5310	3.5310	0.1380	25.96	0.01	1.500			
0.9058	57968.24	3.5280	3.5280	0.1221	25.96	0.01	1.500			
0.9061	57990.01	3.5250	3.5250	0.1067	25.96	0.01	1.500			
0.9064	58009.39	3.5220	3.5220	0.0922	25.96	0.01	1.500			
0.9067	58025.62	3.5190	3.5192	0.0769	25.96	0.01	1.500			
0.9069	58038.76	3.5160	3.5165	0.0620	25.96	0.01	1.500			
0.9070	58049.24	3.5130	3.5137	0.0472	25.96	0.01	1.500			
