Ah_balance (normalized)	Ah_balance (mAh)	Voltage - fit (V)	Voltage -  interpolate (V)	dQ/dV (1/V)	Temperature (°C)	Temperature - diff (°C)	Current (C)	R_DC 0ms (mOhm)	R_DC 50ms (mOhm)	R_DC 50 ms PEC (mOhm)
0.1955	12512.05	3.9370	3.9368	-0.1061	25.52	0.00	-0.750			
0.1959	12538.81	3.9340	3.9339	-0.1644	25.52	0.00	-0.750			
0.1965	12575.34	3.9310	3.9309	-0.2140	25.52	0.00	-0.750			
0.1972	12622.06	3.9280	3.9280	-0.2606	25.52	-0.00	-0.750			
0.1981	12676.89	3.9250	3.9251	-0.3047	25.52	-0.00	-0.750			
0.1991	12739.79	3.9220	3.9220	-0.3481	25.52	-0.00	-0.750			
0.2002	12811.78	3.9190	3.9190	-0.3920	25.51	-0.01	-0.750			
0.2014	12891.12	3.9160	3.9160	-0.4323	25.51	-0.01	-0.750			
0.2028	12978.53	3.9130	3.9130	-0.4692	25.51	-0.01	-0.750			
0.2043	13073.43	3.9100	3.9100	-0.5046	25.51	-0.01	-0.750			
0.2058	13174.32	3.9070	3.9070	-0.5371	25.51	-0.01	-0.750			
0.2075	13282.27	3.9040	3.9040	-0.5638	25.50	-0.02	-0.750			
0.2093	13393.21	3.9010	3.9010	-0.5865	25.50	-0.02	-0.750			
0.2111	13509.19	3.8980	3.8980	-0.6044	25.50	-0.02	-0.750			
0.2129	13627.66	3.8950	3.8950	-0.6190	25.49	-0.03	-0.750			
0.2148	13748.47	3.8920	3.8920	-0.6349	25.49	-0.03	-0.750			
0.2167	13871.56	3.8890	3.8889	-0.6439	25.48	-0.04	-0.750			
0.2187	13996.84	3.8860	3.8860	-0.6530	25.48	-0.04	-0.750			
0.2207	14123.65	3.8830	3.8830	-0.6610	25.47	-0.05	-0.750			
0.2227	14251.20	3.8800	3.8800	-0.6691	25.47	-0.05	-0.750			
0.2247	14380.85	3.8770	3.8770	-0.6759	25.47	-0.05	-0.750			
0.2267	14510.79	3.8740	3.8740	-0.6814	25.47	-0.05	-0.750			
0.2288	14642.15	3.8710	3.8710	-0.6850	25.47	-0.05	-0.750			
0.2309	14774.63	3.8680	3.8680	-0.6904	25.47	-0.05	-0.750			
0.2329	14908.26	3.8650	3.8650	-0.6937	25.47	-0.05	-0.750			
0.2350	15041.49	3.8620	3.8620	-0.6944	25.47	-0.05	-0.750			
0.2371	15174.47	3.8590	3.8590	-0.6952	25.47	-0.05	-0.750			
0.2392	15308.49	3.8560	3.8560	-0.6982	25.47	-0.05	-0.750			
0.2413	15442.93	3.8530	3.8530	-0.6972	25.46	-0.06	-0.750			
0.2434	15577.20	3.8500	3.8500	-0.7004	25.46	-0.06	-0.750			
0.2455	15711.36	3.8470	3.8471	-0.7006	25.46	-0.06	-0.750			
0.2476	15846.41	3.8440	3.8439	-0.7020	25.46	-0.06	-0.750			
0.2497	15980.91	3.8410	3.8410	-0.7037	25.46	-0.06	-0.750			
0.2518	16115.58	3.8380	3.8380	-0.7037	25.46	-0.06	-0.750			
0.2539	16251.18	3.8350	3.8350	-0.7038	25.47	-0.05	-0.750			
0.2561	16387.46	3.8320	3.8320	-0.7041	25.47	-0.05	-0.750			
0.2582	16521.78	3.8290	3.8289	-0.7009	25.47	-0.05	-0.750			
0.2603	16656.52	3.8260	3.8261	-0.7004	25.47	-0.05	-0.750			
0.2624	16790.92	3.8230	3.8230	-0.6979	25.47	-0.05	-0.750			
0.2644	16923.75	3.8200	3.8200	-0.6983	25.47	-0.05	-0.750			
0.2665	17057.86	3.8170	3.8170	-0.6947	25.47	-0.05	-0.750			
0.2686	17192.26	3.8140	3.8140	-0.6946	25.47	-0.05	-0.750			
0.2707	17325.49	3.8110	3.8110	-0.6950	25.47	-0.05	-0.750			
0.2728	17458.15	3.8080	3.8080	-0.6957	25.47	-0.05	-0.750			
0.2749	17591.09	3.8050	3.8050	-0.6957	25.47	-0.05	-0.750			
0.2770	17724.88	3.8020	3.8019	-0.6984	25.47	-0.05	-0.750			
0.2790	17858.98	3.7990	3.7990	-0.6975	25.48	-0.04	-0.750			
0.2812	17994.73	3.7960	3.7960	-0.7004	25.48	-0.04	-0.750			
0.2833	18129.34	3.7930	3.7930	-0.7012	25.48	-0.04	-0.750			
0.2854	18263.10	3.7900	3.7901	-0.7000	25.48	-0.04	-0.750			
0.2874	18395.87	3.7870	3.7870	-0.7013	25.48	-0.04	-0.750			
0.2895	18530.74	3.7840	3.7840	-0.7072	25.49	-0.03	-0.750			
0.2917	18667.77	3.7810	3.7810	-0.7066	25.49	-0.03	-0.750			
0.2938	18804.20	3.7780	3.7780	-0.7089	25.49	-0.03	-0.750			
0.2960	18941.38	3.7750	3.7751	-0.7107	25.50	-0.02	-0.750			
0.2981	19077.40	3.7720	3.7720	-0.7103	25.50	-0.02	-0.750			
0.3002	19212.08	3.7690	3.7690	-0.7120	25.50	-0.02	-0.750			
0.3023	19348.68	3.7660	3.7660	-0.7160	25.50	-0.02	-0.750			
0.3045	19486.59	3.7630	3.7630	-0.7202	25.50	-0.02	-0.750			
0.3067	19626.25	3.7600	3.7600	-0.7270	25.50	-0.02	-0.750			
0.3088	19766.20	3.7570	3.7571	-0.7315	25.50	-0.02	-0.750			
0.3111	19907.32	3.7540	3.7540	-0.7361	25.50	-0.02	-0.750			
0.3133	20048.75	3.7510	3.7510	-0.7403	25.50	-0.02	-0.750			
0.3155	20190.77	3.7480	3.7480	-0.7512	25.50	-0.02	-0.750			
0.3178	20336.14	3.7450	3.7450	-0.7557	25.50	-0.02	-0.750			
0.3200	20482.94	3.7420	3.7419	-0.7642	25.50	-0.02	-0.750			
0.3223	20629.85	3.7390	3.7392	-0.7706	25.50	-0.02	-0.750			
0.3247	20778.47	3.7360	3.7359	-0.7767	25.50	-0.02	-0.750			
0.3270	20927.97	3.7330	3.7330	-0.7862	25.50	-0.02	-0.750			
0.3294	21078.70	3.7300	3.7300	-0.7912	25.50	-0.02	-0.750			
0.3318	21232.27	3.7270	3.7270	-0.8002	25.50	-0.02	-0.750			
0.3342	21387.18	3.7240	3.7241	-0.8086	25.50	-0.02	-0.750			
0.3366	21542.05	3.7210	3.7210	-0.8188	25.50	-0.02	-0.750			
0.3391	21700.15	3.7180	3.7179	-0.8298	25.50	-0.02	-0.750			
0.3416	21860.46	3.7150	3.7150	-0.8398	25.49	-0.03	-0.750			
0.3441	22022.49	3.7120	3.7121	-0.8504	25.49	-0.03	-0.750			
0.3467	22187.94	3.7090	3.7091	-0.8669	25.49	-0.03	-0.750			
0.3493	22354.93	3.7060	3.7059	-0.8807	25.49	-0.03	-0.750			
0.3520	22524.92	3.7030	3.7030	-0.8895	25.49	-0.03	-0.750			
0.3546	22696.88	3.7000	3.7000	-0.8982	25.48	-0.04	-0.750			
0.3574	22870.51	3.6970	3.6970	-0.9125	25.48	-0.04	-0.750			
0.3601	23047.29	3.6940	3.6941	-0.9285	25.48	-0.04	-0.750			
0.3629	23225.86	3.6910	3.6910	-0.9461	25.47	-0.05	-0.750			
0.3657	23407.62	3.6880	3.6880	-0.9626	25.47	-0.05	-0.750			
0.3687	23594.99	3.6850	3.6850	-0.9840	25.47	-0.05	-0.750			
0.3717	23787.44	3.6820	3.6821	-1.0045	25.46	-0.06	-0.750			
0.3747	23981.89	3.6790	3.6790	-1.0273	25.46	-0.06	-0.750			
0.3778	24180.15	3.6760	3.6760	-1.0476	25.46	-0.06	-0.750			
0.3810	24383.55	3.6730	3.6729	-1.0691	25.46	-0.06	-0.750			
0.3842	24589.84	3.6700	3.6702	-1.0926	25.46	-0.06	-0.750			
0.3876	24803.35	3.6670	3.6670	-1.1179	25.46	-0.06	-0.750			
0.3909	25020.68	3.6640	3.6640	-1.1390	25.45	-0.07	-0.750			
0.3944	25241.45	3.6610	3.6610	-1.1641	25.44	-0.08	-0.750			
0.3979	25465.53	3.6580	3.6581	-1.1897	25.44	-0.08	-0.750			
0.4015	25697.75	3.6550	3.6550	-1.2146	25.43	-0.09	-0.750			
0.4052	25933.07	3.6520	3.6520	-1.2439	25.43	-0.09	-0.750			
0.4090	26173.58	3.6490	3.6490	-1.2720	25.42	-0.10	-0.750			
0.4128	26421.92	3.6460	3.6460	-1.3069	25.41	-0.11	-0.750			
0.4168	26675.67	3.6430	3.6430	-1.3336	25.41	-0.11	-0.750			
0.4209	26934.46	3.6400	3.6400	-1.3602	25.40	-0.12	-0.750			
0.4250	27199.34	3.6370	3.6369	-1.3859	25.40	-0.12	-0.750			
0.4292	27469.01	3.6340	3.6340	-1.4193	25.39	-0.13	-0.750			
0.4335	27742.65	3.6310	3.6310	-1.4471	25.39	-0.13	-0.750			
0.4379	28023.18	3.6280	3.6279	-1.4779	25.38	-0.14	-0.750			
0.4423	28309.28	3.6250	3.6250	-1.5132	25.38	-0.14	-0.750			
0.4470	28604.99	3.6220	3.6220	-1.5483	25.37	-0.15	-0.750			
0.4516	28904.76	3.6190	3.6191	-1.5852	25.37	-0.15	-0.750			
0.4565	29216.28	3.6160	3.6158	-1.6170	25.36	-0.16	-0.750			
0.4613	29526.30	3.6130	3.6131	-1.6485	25.36	-0.16	-0.750			
0.4664	29846.78	3.6100	3.6099	-1.6780	25.35	-0.17	-0.750			
0.4714	30171.14	3.6070	3.6072	-1.7073	25.35	-0.17	-0.750			
0.4766	30502.23	3.6040	3.6038	-1.7388	25.35	-0.17	-0.750			
0.4819	30838.65	3.6010	3.6012	-1.7696	25.34	-0.18	-0.750			
0.4872	31182.00	3.5980	3.5980	-1.8013	25.34	-0.18	-0.750			
0.4927	31534.97	3.5950	3.5950	-1.8449	25.34	-0.18	-0.750			
0.4983	31890.12	3.5920	3.5920	-1.8630	25.34	-0.18	-0.750			
0.5039	32251.17	3.5890	3.5891	-1.8948	25.34	-0.18	-0.750			
0.5096	32617.13	3.5860	3.5860	-1.9174	25.34	-0.18	-0.750			
0.5154	32986.51	3.5830	3.5830	-1.9433	25.34	-0.18	-0.750			
0.5213	33361.63	3.5800	3.5800	-1.9654	25.34	-0.18	-0.750			
0.5272	33741.08	3.5770	3.5770	-1.9987	25.34	-0.18	-0.750			
0.5333	34129.06	3.5740	3.5740	-2.0336	25.34	-0.18	-0.750			
0.5394	34523.89	3.5710	3.5711	-2.0607	25.34	-0.18	-0.750	0.382	0.552	
0.5457	34924.42	3.5680	3.5680	-2.0866	25.34	-0.18	-0.750			
0.5520	35329.02	3.5650	3.5650	-2.0966	25.34	-0.18	-0.750			
0.5583	35731.97	3.5620	3.5620	-2.1048	25.35	-0.17	-0.750			
0.5646	36136.67	3.5590	3.5590	-2.1029	25.35	-0.17	-0.750			
0.5709	36540.14	3.5560	3.5560	-2.0907	25.36	-0.16	-0.750			
0.5772	36942.99	3.5530	3.5531	-2.1058	25.36	-0.16	-0.750			
0.5835	37342.04	3.5500	3.5500	-2.1063	25.36	-0.16	-0.750			
0.5898	37747.36	3.5470	3.5469	-2.1091	25.36	-0.16	-0.750			
0.5962	38158.55	3.5440	3.5440	-2.0986	25.37	-0.15	-0.750			
0.6025	38562.44	3.5410	3.5411	-2.0847	25.37	-0.15	-0.750			
0.6088	38960.94	3.5380	3.5381	-2.0649	25.37	-0.15	-0.750			
0.6149	39352.12	3.5350	3.5349	-2.0187	25.38	-0.14	-0.750			
0.6209	39737.16	3.5320	3.5320	-1.9860	25.39	-0.13	-0.750			
0.6268	40117.74	3.5290	3.5291	-1.9560	25.40	-0.12	-0.750			
0.6327	40492.43	3.5260	3.5260	-1.9275	25.42	-0.10	-0.750			
0.6384	40855.95	3.5230	3.5229	-1.8853	25.43	-0.09	-0.750			
0.6440	41213.97	3.5200	3.5200	-1.8446	25.45	-0.07	-0.750			
0.6495	41570.40	3.5170	3.5170	-1.8043	25.46	-0.06	-0.750			
0.6549	41913.07	3.5140	3.5140	-1.7530	25.47	-0.05	-0.750			
0.6600	42242.75	3.5110	3.5111	-1.7010	25.48	-0.04	-0.750			
0.6651	42565.58	3.5080	3.5080	-1.6530	25.50	-0.02	-0.750			
0.6699	42876.77	3.5050	3.5049	-1.6056	25.52	0.00	-0.750			
0.6747	43179.78	3.5020	3.5021	-1.5581	25.54	0.02	-0.750			
0.6793	43475.63	3.4990	3.4990	-1.5158	25.55	0.03	-0.750			
0.6838	43762.84	3.4960	3.4960	-1.4762	25.56	0.04	-0.750			
0.6881	44040.75	3.4930	3.4929	-1.4332	25.58	0.06	-0.750			
0.6924	44311.33	3.4900	3.4900	-1.3900	25.60	0.08	-0.750			
0.6965	44574.62	3.4870	3.4871	-1.3535	25.62	0.10	-0.750			
0.7005	44830.32	3.4840	3.4840	-1.3118	25.63	0.11	-0.750			
0.7044	45080.29	3.4810	3.4809	-1.2729	25.64	0.12	-0.750			
0.7081	45319.44	3.4780	3.4780	-1.2358	25.66	0.14	-0.750			
0.7117	45551.09	3.4750	3.4749	-1.2031	25.67	0.15	-0.750			
0.7153	45779.06	3.4720	3.4720	-1.1718	25.68	0.16	-0.750			
0.7188	46001.16	3.4690	3.4690	-1.1473	25.70	0.18	-0.750			
0.7221	46215.35	3.4660	3.4661	-1.1308	25.71	0.19	-0.750			
0.7255	46431.18	3.4630	3.4630	-1.1178	25.72	0.20	-0.750			
0.7288	46643.33	3.4600	3.4599	-1.1037	25.74	0.22	-0.750			
0.7321	46853.18	3.4570	3.4569	-1.0936	25.75	0.23	-0.750			
0.7353	47062.15	3.4540	3.4541	-1.0883	25.76	0.24	-0.750			
0.7386	47270.96	3.4510	3.4511	-1.0849	25.77	0.25	-0.750			
0.7418	47477.62	3.4480	3.4479	-1.0768	25.78	0.26	-0.750			
0.7450	47682.08	3.4450	3.4450	-1.0659	25.79	0.27	-0.750			
0.7483	47888.86	3.4420	3.4420	-1.0728	25.80	0.28	-0.750			
0.7515	48095.35	3.4390	3.4390	-1.0680	25.81	0.29	-0.750			
0.7547	48299.70	3.4360	3.4360	-1.0621	25.82	0.30	-0.750			
0.7579	48503.38	3.4330	3.4330	-1.0536	25.83	0.31	-0.750			
0.7610	48704.56	3.4300	3.4301	-1.0483	25.84	0.32	-0.750			
0.7642	48906.97	3.4270	3.4269	-1.0360	25.85	0.33	-0.750			
0.7673	49104.58	3.4240	3.4240	-1.0232	25.85	0.33	-0.750			
0.7703	49300.00	3.4210	3.4210	-1.0022	25.86	0.34	-0.750			
0.7733	49491.74	3.4180	3.4180	-0.9862	25.86	0.34	-0.750			
0.7762	49679.33	3.4150	3.4150	-0.9699	25.87	0.35	-0.750			
0.7791	49863.98	3.4120	3.4120	-0.9521	25.88	0.36	-0.750			
0.7820	50045.35	3.4090	3.4089	-0.9277	25.89	0.37	-0.750			
0.7847	50222.78	3.4060	3.4061	-0.9094	25.90	0.38	-0.750			
0.7874	50394.70	3.4030	3.4030	-0.8866	25.91	0.39	-0.750			
0.7901	50563.77	3.4000	3.4000	-0.8649	25.91	0.39	-0.750			
0.7926	50727.18	3.3970	3.3970	-0.8366	25.92	0.40	-0.750			
0.7951	50885.89	3.3940	3.3940	-0.8117	25.93	0.41	-0.750			
0.7975	51039.38	3.3910	3.3910	-0.7831	25.93	0.41	-0.750			
0.7998	51189.01	3.3880	3.3880	-0.7558	25.94	0.42	-0.750			
0.8020	51329.25	3.3850	3.3850	-0.7248	25.95	0.43	-0.750			
0.8042	51465.75	3.3820	3.3820	-0.6921	25.95	0.43	-0.750			
0.8062	51595.68	3.3790	3.3790	-0.6616	25.96	0.44	-0.750			
0.8081	51719.68	3.3760	3.3760	-0.6332	25.97	0.45	-0.750			
0.8100	51838.07	3.3730	3.3730	-0.6039	25.97	0.45	-0.750			
0.8117	51951.17	3.3700	3.3700	-0.5759	25.98	0.46	-0.750			
0.8134	52058.76	3.3670	3.3670	-0.5487	25.98	0.46	-0.750			
0.8150	52160.68	3.3640	3.3640	-0.5217	25.99	0.47	-0.750			
0.8166	52259.42	3.3610	3.3610	-0.5000	25.99	0.47	-0.750			
0.8180	52352.24	3.3580	3.3580	-0.4740	26.00	0.48	-0.750			
0.8194	52440.31	3.3550	3.3550	-0.4515	26.00	0.48	-0.750			
0.8207	52524.40	3.3520	3.3520	-0.4304	26.01	0.49	-0.750			
0.8219	52604.66	3.3490	3.3490	-0.4121	26.01	0.49	-0.750			
0.8231	52681.20	3.3460	3.3460	-0.3943	26.02	0.50	-0.750			
0.8243	52755.17	3.3430	3.3430	-0.3792	26.02	0.50	-0.750			
0.8254	52826.59	3.3400	3.3400	-0.3654	26.03	0.51	-0.750			
0.8265	52895.49	3.3370	3.3370	-0.3516	26.03	0.51	-0.750			
0.8275	52961.42	3.3340	3.3340	-0.3379	26.04	0.52	-0.750			
0.8285	53024.79	3.3310	3.3310	-0.3249	26.04	0.52	-0.750			
0.8295	53085.51	3.3280	3.3280	-0.3135	26.05	0.53	-0.750			
0.8304	53144.52	3.3250	3.3249	-0.3026	26.05	0.53	-0.750			
0.8313	53201.10	3.3220	3.3220	-0.2927	26.05	0.53	-0.750			
0.8321	53256.13	3.3190	3.3190	-0.2848	26.06	0.54	-0.750			
0.8330	53309.90	3.3160	3.3160	-0.2777	26.06	0.54	-0.750			
0.8338	53362.65	3.3130	3.3129	-0.2696	26.07	0.55	-0.750			
0.8346	53413.51	3.3100	3.3100	-0.2625	26.07	0.55	-0.750			
0.8354	53463.14	3.3070	3.3071	-0.2561	26.08	0.56	-0.750			
0.8361	53511.77	3.3040	3.3040	-0.2498	26.08	0.56	-0.750			
0.8369	53558.91	3.3010	3.3009	-0.2435	26.09	0.57	-0.750			
0.8376	53604.40	3.2980	3.2980	-0.2367	26.09	0.57	-0.750			
0.8383	53649.30	3.2950	3.2951	-0.2319	26.09	0.57	-0.750			
0.8390	53693.40	3.2920	3.2920	-0.2274	26.10	0.58	-0.750			
0.8396	53736.95	3.2890	3.2890	-0.2227	26.10	0.58	-0.750			
0.8403	53778.93	3.2860	3.2860	-0.2177	26.11	0.59	-0.750			
0.8409	53820.10	3.2830	3.2830	-0.2130	26.11	0.59	-0.750			
0.8416	53860.61	3.2800	3.2801	-0.2089	26.12	0.60	-0.750			
0.8422	53900.14	3.2770	3.2770	-0.2060	26.12	0.60	-0.750			
0.8428	53939.30	3.2740	3.2740	-0.2022	26.12	0.60	-0.750			
0.8434	53977.69	3.2710	3.2710	-0.1987	26.13	0.61	-0.750			
0.8440	54015.57	3.2680	3.2680	-0.1958	26.13	0.61	-0.750			
0.8446	54052.88	3.2650	3.2651	-0.1937	26.13	0.61	-0.750			
0.8452	54089.87	3.2620	3.2620	-0.1907	26.14	0.62	-0.750			
0.8457	54126.23	3.2590	3.2590	-0.1879	26.14	0.62	-0.750			
0.8463	54162.04	3.2560	3.2560	-0.1851	26.15	0.63	-0.750			
0.8468	54197.10	3.2530	3.2531	-0.1824	26.15	0.63	-0.750			
0.8474	54232.08	3.2500	3.2499	-0.1802	26.15	0.63	-0.750			
0.8479	54266.29	3.2470	3.2471	-0.1776	26.16	0.64	-0.750			
0.8484	54300.15	3.2440	3.2439	-0.1751	26.16	0.64	-0.750			
0.8490	54333.35	3.2410	3.2411	-0.1725	26.16	0.64	-0.750			
0.8495	54366.32	3.2380	3.2380	-0.1709	26.17	0.65	-0.750			
0.8500	54398.84	3.2350	3.2351	-0.1688	26.17	0.65	-0.750			
0.8505	54431.06	3.2320	3.2319	-0.1669	26.18	0.66	-0.750			
0.8510	54462.86	3.2290	3.2290	-0.1649	26.18	0.66	-0.750			
0.8515	54494.39	3.2260	3.2260	-0.1630	26.18	0.66	-0.750			
0.8520	54525.53	3.2230	3.2230	-0.1612	26.19	0.67	-0.750			
0.8524	54556.30	3.2200	3.2200	-0.1593	26.19	0.67	-0.750			
0.8529	54586.74	3.2170	3.2170	-0.1577	26.19	0.67	-0.750			
0.8534	54616.63	3.2140	3.2140	-0.1560	26.20	0.68	-0.750			
0.8539	54646.47	3.2110	3.2109	-0.1545	26.20	0.68	-0.750			
0.8543	54676.01	3.2080	3.2080	-0.1532	26.20	0.68	-0.750			
0.8548	54705.28	3.2050	3.2050	-0.1519	26.21	0.69	-0.750			
0.8552	54734.28	3.2020	3.2021	-0.1508	26.21	0.69	-0.750			
0.8557	54763.26	3.1990	3.1989	-0.1494	26.21	0.69	-0.750			
0.8561	54791.81	3.1960	3.1960	-0.1480	26.22	0.70	-0.750			
0.8566	54820.18	3.1930	3.1930	-0.1460	26.22	0.70	-0.750			
0.8570	54847.90	3.1900	3.1901	-0.1447	26.22	0.70	-0.750			
0.8574	54875.55	3.1870	3.1870	-0.1434	26.23	0.71	-0.750			
0.8579	54902.95	3.1840	3.1840	-0.1420	26.23	0.71	-0.750			
0.8583	54929.98	3.1810	3.1809	-0.1405	26.23	0.71	-0.750			
0.8587	54956.67	3.1780	3.1781	-0.1391	26.23	0.71	-0.750			
0.8591	54983.46	3.1750	3.1750	-0.1382	26.24	0.72	-0.750			
0.8595	55009.82	3.1720	3.1721	-0.1372	26.24	0.72	-0.750			
0.8599	55036.10	3.1690	3.1689	-0.1362	26.25	0.73	-0.750			
0.8603	55061.91	3.1660	3.1660	-0.1348	26.25	0.73	-0.750			
0.8607	55087.74	3.1630	3.1631	-0.1339	26.25	0.73	-0.750			
0.8611	55113.41	3.1600	3.1600	-0.1330	26.26	0.74	-0.750			
0.8615	55138.99	3.1570	3.1570	-0.1319	26.26	0.74	-0.750			
0.8619	55164.19	3.1540	3.1540	-0.1306	26.27	0.75	-0.750			
0.8623	55189.16	3.1510	3.1510	-0.1295	26.27	0.75	-0.750			
0.8627	55213.77	3.1480	3.1480	-0.1286	26.28	0.76	-0.750			
0.8631	55238.33	3.1450	3.1451	-0.1276	26.28	0.76	-0.750			
0.8635	55262.83	3.1420	3.1419	-0.1262	26.28	0.76	-0.750			
0.8639	55286.87	3.1390	3.1390	-0.1254	26.29	0.77	-0.750			
0.8642	55310.83	3.1360	3.1361	-0.1245	26.29	0.77	-0.750			
0.8646	55334.72	3.1330	3.1331	-0.1238	26.30	0.78	-0.750			
0.8650	55358.39	3.1300	3.1299	-0.1228	26.30	0.78	-0.750			
0.8653	55381.83	3.1270	3.1270	-0.1218	26.30	0.78	-0.750			
0.8657	55405.04	3.1240	3.1240	-0.1208	26.31	0.79	-0.750			
0.8661	55428.18	3.1210	3.1210	-0.1200	26.31	0.79	-0.750			
0.8664	55451.37	3.1180	3.1180	-0.1194	26.32	0.80	-0.750			
0.8668	55474.17	3.1150	3.1150	-0.1184	26.32	0.80	-0.750			
0.8671	55496.66	3.1120	3.1120	-0.1173	26.32	0.80	-0.750			
0.8675	55519.14	3.1090	3.1091	-0.1162	26.33	0.81	-0.750			
0.8678	55541.44	3.1060	3.1060	-0.1153	26.33	0.81	-0.750			
0.8682	55563.36	3.1030	3.1030	-0.1149	26.34	0.82	-0.750			
0.8685	55585.28	3.1000	3.1000	-0.1142	26.34	0.82	-0.750			
0.8689	55607.15	3.0970	3.0969	-0.1137	26.34	0.82	-0.750			
0.8692	55628.77	3.0940	3.0939	-0.1131	26.35	0.83	-0.750			
0.8695	55650.58	3.0910	3.0911	-0.1118	26.35	0.83	-0.750			
0.8699	55672.15	3.0880	3.0880	-0.1111	26.35	0.83	-0.750			
0.8702	55693.52	3.0850	3.0850	-0.1106	26.35	0.83	-0.750			
0.8705	55714.62	3.0820	3.0821	-0.1093	26.36	0.84	-0.750			
0.8709	55735.23	3.0790	3.0790	-0.1081	26.36	0.84	-0.750			
0.8712	55755.92	3.0760	3.0759	-0.1074	26.36	0.84	-0.750			
0.8715	55776.33	3.0730	3.0729	-0.1066	26.37	0.85	-0.750			
0.8718	55796.77	3.0700	3.0701	-0.1063	26.37	0.85	-0.750			
0.8721	55817.27	3.0670	3.0670	-0.1058	26.37	0.85	-0.750			
0.8725	55837.52	3.0640	3.0640	-0.1051	26.37	0.85	-0.750			
0.8728	55857.67	3.0610	3.0610	-0.1042	26.38	0.86	-0.750			
0.8731	55877.66	3.0580	3.0580	-0.1034	26.38	0.86	-0.750			
0.8734	55897.35	3.0550	3.0550	-0.1029	26.38	0.86	-0.750			
0.8737	55917.04	3.0520	3.0520	-0.1022	26.39	0.87	-0.750			
0.8740	55936.57	3.0490	3.0490	-0.1013	26.39	0.87	-0.750			
0.8743	55955.97	3.0460	3.0459	-0.1007	26.39	0.87	-0.750			
0.8746	55975.20	3.0430	3.0430	-0.1002	26.39	0.87	-0.750			
0.8749	55994.39	3.0400	3.0401	-0.0997	26.40	0.88	-0.750			
0.8752	56013.56	3.0370	3.0370	-0.0992	26.40	0.88	-0.750			
0.8755	56032.55	3.0340	3.0339	-0.0986	26.40	0.88	-0.750			
0.8758	56051.42	3.0310	3.0310	-0.0978	26.40	0.88	-0.750			
0.8761	56070.08	3.0280	3.0280	-0.0971	26.41	0.89	-0.750			
0.8764	56088.68	3.0250	3.0250	-0.0964	26.41	0.89	-0.750			
0.8767	56107.24	3.0220	3.0220	-0.0958	26.41	0.89	-0.750			
0.8770	56125.51	3.0190	3.0190	-0.0953	26.42	0.90	-0.750			
0.8772	56143.65	3.0160	3.0160	-0.0946	26.42	0.90	-0.750			
0.8775	56161.79	3.0130	3.0130	-0.0939	26.42	0.90	-0.750			
0.8778	56179.76	3.0100	3.0100	-0.0933	26.42	0.90	-0.750			
0.8781	56197.62	3.0070	3.0071	-0.0927	26.43	0.91	-0.750			
0.8784	56215.39	3.0040	3.0040	-0.0919	26.43	0.91	-0.750			
0.8786	56232.97	3.0010	3.0010	-0.0912	26.43	0.91	-0.750			
