Ah_balance (normalized)	Ah_balance (mAh)	Voltage - fit (V)	Voltage -  interpolate (V)	dQ/dV (1/V)	Temperature (°C)	Temperature - diff (°C)	Current (C)	R_DC 0ms (mOhm)	R_DC 50ms (mOhm)	R_DC 50 ms PEC (mOhm)
0.2987	19117.94	3.9710	3.9710	0.8601	26.94	1.00	1.500			
0.3014	19286.92	3.9680	3.9681	0.8840	26.94	1.00	1.500			
0.3040	19457.74	3.9650	3.9649	0.8877	26.94	1.00	1.500			
0.3067	19628.44	3.9620	3.9621	0.8891	26.94	1.00	1.500			
0.3094	19800.56	3.9590	3.9590	0.8885	26.93	0.99	1.500			
0.3120	19970.26	3.9560	3.9560	0.8911	26.93	0.99	1.500			
0.3147	20140.20	3.9530	3.9530	0.8938	26.93	0.99	1.500			
0.3174	20311.34	3.9500	3.9500	0.8930	26.93	0.99	1.500			
0.3200	20482.54	3.9470	3.9470	0.9036	26.92	0.98	1.500			
0.3228	20657.32	3.9440	3.9440	0.9060	26.92	0.98	1.500			
0.3255	20831.09	3.9410	3.9409	0.9126	26.92	0.98	1.500			
0.3283	21009.07	3.9380	3.9380	0.9180	26.92	0.98	1.500			
0.3310	21184.12	3.9350	3.9350	0.9206	26.91	0.97	1.500			
0.3337	21359.84	3.9320	3.9320	0.9293	26.91	0.97	1.500			
0.3366	21541.01	3.9290	3.9290	0.9361	26.90	0.96	1.500			
0.3394	21719.96	3.9260	3.9260	0.9386	26.90	0.96	1.500			
0.3422	21902.31	3.9230	3.9230	0.9501	26.89	0.95	1.500			
0.3451	22083.73	3.9200	3.9201	0.9535	26.89	0.95	1.500			
0.3479	22267.79	3.9170	3.9169	0.9628	26.89	0.95	1.500			
0.3508	22452.62	3.9140	3.9140	0.9685	26.88	0.94	1.500			
0.3537	22638.39	3.9110	3.9109	0.9742	26.88	0.94	1.500			
0.3567	22828.17	3.9080	3.9080	0.9792	26.87	0.93	1.500			
0.3596	23017.11	3.9050	3.9051	0.9843	26.87	0.93	1.500			
0.3626	23204.35	3.9020	3.9020	0.9929	26.87	0.93	1.500			
0.3656	23396.03	3.8990	3.8989	1.0023	26.86	0.92	1.500			
0.3686	23587.60	3.8960	3.8960	1.0096	26.86	0.92	1.500			
0.3716	23783.19	3.8930	3.8930	1.0212	26.86	0.92	1.500			
0.3747	23981.78	3.8900	3.8901	1.0353	26.85	0.91	1.500			
0.3778	24182.34	3.8870	3.8870	1.0460	26.85	0.91	1.500			
0.3810	24382.69	3.8840	3.8840	1.0535	26.84	0.90	1.500			
0.3841	24585.53	3.8810	3.8810	1.0631	26.84	0.90	1.500			
0.3873	24790.28	3.8780	3.8780	1.0750	26.83	0.89	1.500			
0.3906	24998.56	3.8750	3.8750	1.0836	26.83	0.89	1.500			
0.3938	25205.25	3.8720	3.8720	1.0967	26.82	0.88	1.500			
0.3971	25416.77	3.8690	3.8690	1.1104	26.82	0.88	1.500			
0.4005	25632.00	3.8660	3.8659	1.1237	26.81	0.87	1.500			
0.4039	25847.95	3.8630	3.8630	1.1391	26.80	0.86	1.500			
0.4073	26068.24	3.8600	3.8601	1.1586	26.80	0.86	1.500			
0.4108	26293.31	3.8570	3.8570	1.1758	26.79	0.85	1.500			
0.4144	26521.30	3.8540	3.8539	1.1880	26.78	0.84	1.500			
0.4180	26749.34	3.8510	3.8511	1.2063	26.78	0.84	1.500			
0.4216	26982.49	3.8480	3.8481	1.2274	26.77	0.83	1.500			
0.4253	27219.82	3.8450	3.8449	1.2493	26.76	0.82	1.500			
0.4291	27460.57	3.8420	3.8420	1.2653	26.76	0.82	1.500			
0.4329	27705.61	3.8390	3.8390	1.2888	26.75	0.81	1.500			
0.4368	27958.08	3.8360	3.8360	1.3104	26.74	0.80	1.500			
0.4408	28210.48	3.8330	3.8330	1.3316	26.74	0.80	1.500			
0.4448	28465.27	3.8300	3.8300	1.3615	26.73	0.79	1.500			
0.4489	28727.33	3.8270	3.8270	1.3949	26.72	0.78	1.500			
0.4531	28999.01	3.8240	3.8240	1.4281	26.72	0.78	1.500			
0.4574	29276.59	3.8210	3.8211	1.4681	26.71	0.77	1.500			
0.4619	29562.20	3.8180	3.8180	1.4939	26.70	0.76	1.500			
0.4665	29854.19	3.8150	3.8150	1.5297	26.69	0.75	1.500			
0.4711	30147.70	3.8120	3.8121	1.5608	26.68	0.74	1.500			
0.4757	30447.50	3.8090	3.8088	1.6052	26.67	0.73	1.500			
0.4806	30758.94	3.8060	3.8061	1.6463	26.66	0.72	1.500			
0.4856	31080.49	3.8030	3.8030	1.6884	26.65	0.71	1.500			
0.4908	31408.47	3.8000	3.8000	1.7451	26.63	0.69	1.500			
0.4961	31749.52	3.7970	3.7971	1.7847	26.62	0.68	1.500			
0.5015	32098.59	3.7940	3.7939	1.8286	26.61	0.67	1.500			
0.5071	32453.76	3.7910	3.7911	1.8723	26.60	0.66	1.500			
0.5128	32817.31	3.7880	3.7880	1.9240	26.58	0.64	1.500			
0.5186	33189.58	3.7850	3.7849	1.9724	26.57	0.63	1.500			
0.5245	33569.34	3.7820	3.7820	2.0256	26.55	0.61	1.500			
0.5308	33969.27	3.7790	3.7790	2.0876	26.54	0.60	1.500			
0.5371	34375.95	3.7760	3.7761	2.1324	26.52	0.58	1.500			
0.5435	34786.51	3.7730	3.7730	2.1810	26.50	0.56	1.500			
0.5502	35210.17	3.7700	3.7698	2.2101	26.48	0.54	1.500			
0.5568	35637.02	3.7670	3.7671	2.2613	26.47	0.53	1.500			
0.5637	36074.75	3.7640	3.7641	2.3133	26.45	0.51	1.500			
0.5708	36528.38	3.7610	3.7615	2.3522	26.43	0.49	1.500	0.356	0.453	
0.5778	36979.25	3.7580	3.7580	2.3250	26.41	0.47	1.500			
0.5849	37431.31	3.7550	3.7552	2.3002	26.39	0.45	1.500			
0.5918	37873.89	3.7520	3.7519	2.2682	26.37	0.43	1.500			
0.5983	38293.98	3.7490	3.7490	2.1990	26.35	0.41	1.500			
0.6049	38716.25	3.7460	3.7460	2.1884	26.33	0.39	1.500			
0.6115	39138.27	3.7430	3.7429	2.1333	26.32	0.38	1.500			
0.6178	39538.58	3.7400	3.7401	2.1353	26.31	0.37	1.500			
0.6241	39944.02	3.7370	3.7369	2.1233	26.29	0.35	1.500			
0.6305	40350.08	3.7340	3.7340	2.1281	26.28	0.34	1.500			
0.6368	40756.34	3.7310	3.7311	2.1573	26.27	0.33	1.500			
0.6434	41176.09	3.7280	3.7279	2.1857	26.26	0.32	1.500			
0.6499	41592.39	3.7250	3.7250	2.2003	26.24	0.30	1.500			
0.6566	42022.49	3.7220	3.7220	2.2507	26.23	0.29	1.500			
0.6633	42454.02	3.7190	3.7190	2.2868	26.22	0.28	1.500			
0.6702	42892.28	3.7160	3.7161	2.3692	26.21	0.27	1.500			
0.6774	43350.83	3.7130	3.7129	2.4671	26.20	0.26	1.500			
0.6849	43836.38	3.7100	3.7100	2.5709	26.19	0.25	1.500			
0.6928	44338.83	3.7070	3.7071	2.6946	26.17	0.23	1.500			
0.7011	44870.02	3.7040	3.7037	2.7969	26.16	0.22	1.500			
0.7097	45418.52	3.7010	3.7010	2.8576	26.15	0.21	1.500			
0.7185	45984.17	3.6980	3.6980	2.8235	26.13	0.19	1.500			
0.7270	46524.87	3.6950	3.6950	2.7822	26.12	0.18	1.500			
0.7353	47056.27	3.6920	3.6920	2.6509	26.11	0.17	1.500			
0.7430	47551.81	3.6890	3.6891	2.4868	26.10	0.16	1.500			
0.7502	48010.10	3.6860	3.6858	2.2876	26.09	0.15	1.500			
0.7567	48431.45	3.6830	3.6831	2.0940	26.08	0.14	1.500			
0.7626	48806.07	3.6800	3.6800	1.9106	26.08	0.14	1.500			
0.7680	49155.05	3.6770	3.6770	1.7645	26.07	0.13	1.500			
0.7731	49475.90	3.6740	3.6739	1.6524	26.06	0.12	1.500			
0.7777	49771.64	3.6710	3.6711	1.5434	26.06	0.12	1.500			
0.7821	50057.49	3.6680	3.6680	1.4635	26.06	0.12	1.500			
0.7864	50328.67	3.6650	3.6650	1.3916	26.05	0.11	1.500			
0.7905	50590.44	3.6620	3.6620	1.3307	26.05	0.11	1.500			
0.7943	50832.77	3.6590	3.6590	1.2822	26.05	0.11	1.500			
0.7980	51072.14	3.6560	3.6560	1.2545	26.04	0.10	1.500			
0.8016	51304.90	3.6530	3.6529	1.2360	26.04	0.10	1.500			
0.8053	51538.76	3.6500	3.6500	1.2341	26.03	0.09	1.500			
0.8090	51773.71	3.6470	3.6470	1.2396	26.03	0.09	1.500			
0.8127	52013.71	3.6440	3.6440	1.2528	26.02	0.08	1.500			
0.8165	52254.17	3.6410	3.6410	1.2742	26.02	0.08	1.500			
0.8203	52499.41	3.6380	3.6380	1.2920	26.01	0.07	1.500			
0.8242	52751.37	3.6350	3.6350	1.3061	26.00	0.06	1.500			
0.8282	53007.24	3.6320	3.6320	1.3091	26.00	0.06	1.500			
0.8322	53261.52	3.6290	3.6291	1.3118	25.99	0.05	1.500			
0.8362	53514.64	3.6260	3.6261	1.3038	25.98	0.04	1.500			
0.8401	53764.23	3.6230	3.6229	1.2927	25.98	0.04	1.500			
0.8438	54006.05	3.6200	3.6200	1.2847	25.97	0.03	1.500			
0.8477	54251.27	3.6170	3.6170	1.2909	25.97	0.03	1.500			
0.8516	54501.67	3.6140	3.6139	1.2930	25.96	0.02	1.500			
0.8555	54751.26	3.6110	3.6110	1.2914	25.96	0.02	1.500			
0.8594	55001.09	3.6080	3.6080	1.2835	25.95	0.01	1.500			
0.8633	55248.73	3.6050	3.6050	1.2720	25.95	0.01	1.500			
0.8671	55491.85	3.6020	3.6020	1.2536	25.95	0.01	1.500			
0.8707	55727.82	3.5990	3.5991	1.2409	25.94	0.00	1.500			
0.8744	55963.56	3.5960	3.5960	1.2242	25.94	0.00	1.500			
0.8781	56198.40	3.5930	3.5929	1.2165	25.94	0.00	1.500			
0.8817	56432.00	3.5900	3.5900	1.1996	25.94	0.00	1.500			
0.8853	56661.09	3.5870	3.5871	1.1883	25.94	0.00	1.500			
0.8889	56889.00	3.5840	3.5840	1.1779	25.94	0.00	1.500			
0.8923	57109.72	3.5810	3.5810	1.1792	25.94	0.00	1.500			
0.8959	57334.45	3.5780	3.5780	1.1877	25.94	0.00	1.500			
0.8995	57565.51	3.5750	3.5748	1.1856	25.94	0.00	1.500			
0.9032	57802.32	3.5720	3.5720	1.1333	25.94	0.00	1.500			
0.9068	58033.04	3.5690	3.5691	1.0757	25.94	0.00	1.500			
0.9100	58239.21	3.5660	3.5662	0.9479	25.94	0.00	1.500			
0.9128	58417.92	3.5630	3.5631	0.8107	25.94	0.00	1.500			
0.9148	58549.21	3.5600	3.5600	0.6629	25.94	0.00	1.500			
0.9165	58652.80	3.5570	3.5571	0.5365	25.94	0.00	1.500			
0.9178	58736.92	3.5540	3.5539	0.4166	25.94	0.00	1.500			
0.9188	58803.65	3.5510	3.5508	0.3453	25.94	0.00	1.500			
0.9196	58856.34	3.5480	3.5480	0.2851	25.94	0.00	1.500			
0.9203	58901.92	3.5450	3.5449	0.2443	25.94	0.00	1.500			
0.9210	58942.91	3.5420	3.5421	0.2084	25.94	0.00	1.500			
0.9215	58978.78	3.5390	3.5391	0.1855	25.94	0.00	1.500			
0.9221	59011.22	3.5360	3.5359	0.1621	25.94	0.00	1.500			
0.9225	59039.28	3.5330	3.5330	0.1427	25.94	0.00	1.500			
0.9229	59065.09	3.5300	3.5300	0.1262	25.94	0.00	1.500			
0.9232	59087.20	3.5270	3.5270	0.1092	25.94	0.00	1.500			
0.9235	59106.86	3.5240	3.5241	0.0935	25.94	0.00	1.500			
0.9238	59123.27	3.5210	3.5212	0.0774	25.94	0.00	1.500			
0.9240	59136.74	3.5180	3.5185	0.0606	25.94	0.00	1.500			
0.9242	59146.78	3.5150	3.5156	0.0440	25.94	0.00	1.500			
