Ah_balance (normalized)	Ah_balance (mAh)	Voltage - fit (V)	Voltage -  interpolate (V)	dQ/dV (1/V)	Temperature (°C)	Temperature - diff (°C)	Current (C)	R_DC 0ms (mOhm)	R_DC 50ms (mOhm)	R_DC 50 ms PEC (mOhm)
0.1941	12425.48	3.9270	3.9268	-0.0952	25.80	-0.00	-1.500			
0.1945	12446.56	3.9240	3.9239	-0.1244	25.80	-0.00	-1.500			
0.1949	12473.37	3.9210	3.9210	-0.1536	25.80	-0.00	-1.500			
0.1954	12505.86	3.9180	3.9181	-0.1819	25.80	-0.00	-1.500			
0.1960	12543.92	3.9150	3.9150	-0.2081	25.80	-0.00	-1.500			
0.1967	12586.37	3.9120	3.9120	-0.2353	25.80	-0.00	-1.500			
0.1974	12634.96	3.9090	3.9090	-0.2616	25.80	-0.00	-1.500			
0.1983	12688.13	3.9060	3.9060	-0.2854	25.80	-0.00	-1.500			
0.1992	12745.60	3.9030	3.9029	-0.3087	25.80	0.00	-1.500			
0.2001	12806.63	3.9000	3.9001	-0.3332	25.80	0.00	-1.500			
0.2011	12872.44	3.8970	3.8970	-0.3596	25.80	0.00	-1.500			
0.2022	12943.68	3.8940	3.8939	-0.3853	25.80	0.00	-1.500			
0.2034	13020.04	3.8910	3.8909	-0.4088	25.80	0.00	-1.500			
0.2047	13101.59	3.8880	3.8881	-0.4329	25.80	0.00	-1.500			
0.2061	13188.48	3.8850	3.8850	-0.4580	25.80	0.00	-1.500			
0.2075	13278.47	3.8820	3.8820	-0.4795	25.80	0.00	-1.500			
0.2089	13371.94	3.8790	3.8790	-0.4974	25.80	0.00	-1.500			
0.2105	13469.16	3.8760	3.8760	-0.5186	25.80	0.00	-1.500			
0.2121	13571.88	3.8730	3.8730	-0.5359	25.81	0.01	-1.500			
0.2137	13676.62	3.8700	3.8699	-0.5539	25.81	0.01	-1.500			
0.2154	13785.12	3.8670	3.8671	-0.5694	25.81	0.01	-1.500			
0.2171	13895.27	3.8640	3.8640	-0.5848	25.81	0.01	-1.500			
0.2189	14009.55	3.8610	3.8610	-0.5984	25.81	0.01	-1.500			
0.2207	14126.59	3.8580	3.8579	-0.6110	25.81	0.01	-1.500			
0.2226	14244.86	3.8550	3.8550	-0.6205	25.81	0.01	-1.500			
0.2245	14366.15	3.8520	3.8520	-0.6295	25.81	0.01	-1.500			
0.2264	14487.62	3.8490	3.8490	-0.6364	25.81	0.01	-1.500			
0.2283	14610.67	3.8460	3.8460	-0.6441	25.82	0.02	-1.500			
0.2302	14734.84	3.8430	3.8430	-0.6464	25.82	0.02	-1.500			
0.2322	14859.96	3.8400	3.8400	-0.6520	25.82	0.02	-1.500			
0.2342	14985.80	3.8370	3.8370	-0.6585	25.82	0.02	-1.500			
0.2361	15112.72	3.8340	3.8340	-0.6623	25.83	0.03	-1.500			
0.2381	15240.30	3.8310	3.8309	-0.6658	25.83	0.03	-1.500			
0.2401	15367.78	3.8280	3.8281	-0.6699	25.83	0.03	-1.500			
0.2421	15497.49	3.8250	3.8250	-0.6724	25.83	0.03	-1.500			
0.2442	15627.38	3.8220	3.8219	-0.6768	25.83	0.03	-1.500			
0.2462	15757.68	3.8190	3.8190	-0.6776	25.84	0.04	-1.500			
0.2482	15887.83	3.8160	3.8161	-0.6783	25.84	0.04	-1.500			
0.2503	16018.94	3.8130	3.8129	-0.6802	25.84	0.04	-1.500			
0.2523	16149.58	3.8100	3.8100	-0.6799	25.85	0.05	-1.500			
0.2544	16279.45	3.8070	3.8070	-0.6792	25.85	0.05	-1.500			
0.2564	16410.07	3.8040	3.8040	-0.6812	25.86	0.06	-1.500			
0.2584	16540.49	3.8010	3.8010	-0.6845	25.86	0.06	-1.500			
0.2605	16672.43	3.7980	3.7981	-0.6882	25.87	0.07	-1.500			
0.2626	16805.29	3.7950	3.7949	-0.6891	25.87	0.07	-1.500			
0.2647	16938.10	3.7920	3.7920	-0.6893	25.88	0.08	-1.500			
0.2667	17070.96	3.7890	3.7890	-0.6899	25.88	0.08	-1.500			
0.2688	17203.42	3.7860	3.7860	-0.6887	25.89	0.09	-1.500			
0.2709	17334.92	3.7830	3.7830	-0.6900	25.89	0.09	-1.500			
0.2729	17466.97	3.7800	3.7800	-0.6907	25.90	0.10	-1.500			
0.2750	17600.30	3.7770	3.7770	-0.6913	25.90	0.10	-1.500			
0.2771	17733.68	3.7740	3.7740	-0.6914	25.91	0.11	-1.500			
0.2792	17866.38	3.7710	3.7711	-0.6918	25.92	0.12	-1.500			
0.2812	17998.42	3.7680	3.7681	-0.6934	25.92	0.12	-1.500			
0.2833	18131.54	3.7650	3.7650	-0.6934	25.93	0.13	-1.500			
0.2854	18264.11	3.7620	3.7619	-0.6946	25.93	0.13	-1.500			
0.2875	18398.13	3.7590	3.7591	-0.6962	25.94	0.14	-1.500			
0.2896	18531.32	3.7560	3.7560	-0.7024	25.95	0.15	-1.500			
0.2917	18666.45	3.7530	3.7530	-0.7097	25.95	0.15	-1.500			
0.2938	18803.85	3.7500	3.7499	-0.7123	25.96	0.16	-1.500			
0.2960	18940.82	3.7470	3.7469	-0.7125	25.96	0.16	-1.500			
0.2981	19078.62	3.7440	3.7441	-0.7179	25.97	0.17	-1.500			
0.3003	19217.51	3.7410	3.7411	-0.7198	25.98	0.18	-1.500			
0.3024	19355.52	3.7380	3.7379	-0.7225	25.98	0.18	-1.500			
0.3046	19492.29	3.7350	3.7350	-0.7215	25.99	0.19	-1.500			
0.3067	19631.07	3.7320	3.7321	-0.7307	25.99	0.19	-1.500			
0.3090	19773.43	3.7290	3.7289	-0.7360	26.00	0.20	-1.500			
0.3112	19914.97	3.7260	3.7260	-0.7391	26.01	0.21	-1.500			
0.3134	20056.59	3.7230	3.7230	-0.7417	26.01	0.21	-1.500			
0.3156	20199.25	3.7200	3.7200	-0.7499	26.02	0.22	-1.500			
0.3179	20342.99	3.7170	3.7170	-0.7566	26.02	0.22	-1.500			
0.3201	20489.54	3.7140	3.7140	-0.7642	26.03	0.23	-1.500			
0.3225	20636.81	3.7110	3.7110	-0.7690	26.04	0.24	-1.500			
0.3248	20786.44	3.7080	3.7080	-0.7783	26.04	0.24	-1.500			
0.3271	20935.47	3.7050	3.7050	-0.7884	26.05	0.25	-1.500			
0.3295	21087.95	3.7020	3.7020	-0.7950	26.06	0.26	-1.500			
0.3319	21239.98	3.6990	3.6990	-0.8033	26.07	0.27	-1.500			
0.3343	21395.43	3.6960	3.6961	-0.8158	26.07	0.27	-1.500			
0.3368	21554.11	3.6930	3.6930	-0.8258	26.08	0.28	-1.500			
0.3393	21713.18	3.6900	3.6900	-0.8375	26.09	0.29	-1.500			
0.3418	21874.65	3.6870	3.6870	-0.8448	26.10	0.30	-1.500			
0.3443	22037.51	3.6840	3.6840	-0.8537	26.11	0.31	-1.500			
0.3469	22203.67	3.6810	3.6810	-0.8638	26.12	0.32	-1.500			
0.3495	22368.87	3.6780	3.6780	-0.8738	26.12	0.32	-1.500			
0.3521	22536.65	3.6750	3.6751	-0.8893	26.13	0.33	-1.500			
0.3548	22708.87	3.6720	3.6720	-0.9056	26.13	0.33	-1.500			
0.3576	22883.36	3.6690	3.6689	-0.9194	26.13	0.33	-1.500			
0.3604	23062.96	3.6660	3.6661	-0.9374	26.14	0.34	-1.500			
0.3632	23245.32	3.6630	3.6630	-0.9498	26.14	0.34	-1.500			
0.3661	23429.91	3.6600	3.6600	-0.9580	26.15	0.35	-1.500			
0.3690	23612.91	3.6570	3.6570	-0.9678	26.15	0.35	-1.500			
0.3718	23798.14	3.6540	3.6540	-0.9836	26.16	0.36	-1.500			
0.3748	23988.50	3.6510	3.6510	-0.9964	26.16	0.36	-1.500			
0.3778	24181.02	3.6480	3.6480	-1.0145	26.16	0.36	-1.500			
0.3809	24378.30	3.6450	3.6450	-1.0314	26.17	0.37	-1.500			
0.3840	24577.24	3.6420	3.6421	-1.0503	26.17	0.37	-1.500			
0.3872	24781.54	3.6390	3.6390	-1.0740	26.17	0.37	-1.500			
0.3905	24988.85	3.6360	3.6360	-1.0874	26.17	0.37	-1.500			
0.3938	25200.78	3.6330	3.6330	-1.1033	26.18	0.38	-1.500			
0.3971	25415.52	3.6300	3.6301	-1.1198	26.18	0.38	-1.500			
0.4005	25630.73	3.6270	3.6270	-1.1322	26.18	0.38	-1.500			
0.4039	25849.72	3.6240	3.6240	-1.1505	26.19	0.39	-1.500			
0.4074	26070.43	3.6210	3.6210	-1.1648	26.19	0.39	-1.500			
0.4108	26293.44	3.6180	3.6180	-1.1867	26.20	0.40	-1.500			
0.4145	26525.44	3.6150	3.6150	-1.2057	26.21	0.41	-1.500			
0.4181	26759.83	3.6120	3.6120	-1.2260	26.21	0.41	-1.500			
0.4218	26996.78	3.6090	3.6090	-1.2424	26.22	0.42	-1.500			
0.4256	27236.87	3.6060	3.6060	-1.2604	26.22	0.42	-1.500			
0.4294	27480.55	3.6030	3.6030	-1.2767	26.22	0.42	-1.500			
0.4332	27726.48	3.6000	3.6000	-1.2968	26.22	0.42	-1.500			
0.4371	27976.30	3.5970	3.5970	-1.3139	26.22	0.42	-1.500			
0.4411	28232.51	3.5940	3.5939	-1.3345	26.22	0.42	-1.500			
0.4452	28490.44	3.5910	3.5910	-1.3505	26.22	0.42	-1.500			
0.4492	28751.40	3.5880	3.5880	-1.3681	26.22	0.42	-1.500			
0.4534	29015.53	3.5850	3.5849	-1.3845	26.22	0.42	-1.500			
0.4576	29283.42	3.5820	3.5820	-1.4030	26.23	0.43	-1.500			
0.4618	29552.15	3.5790	3.5790	-1.4226	26.23	0.43	-1.500			
0.4661	29828.57	3.5760	3.5760	-1.4422	26.23	0.43	-1.500			
0.4704	30107.14	3.5730	3.5730	-1.4622	26.24	0.44	-1.500			
0.4748	30389.52	3.5700	3.5700	-1.4783	26.24	0.44	-1.500			
0.4793	30675.01	3.5670	3.5669	-1.4954	26.25	0.45	-1.500			
0.4838	30962.47	3.5640	3.5641	-1.5223	26.25	0.45	-1.500			
0.4884	31256.99	3.5610	3.5609	-1.5435	26.26	0.46	-1.500			
0.4931	31556.92	3.5580	3.5580	-1.5576	26.26	0.46	-1.500			
0.4978	31859.16	3.5550	3.5551	-1.5784	26.27	0.47	-1.500			
0.5026	32163.33	3.5520	3.5520	-1.5951	26.27	0.47	-1.500			
0.5074	32471.63	3.5490	3.5490	-1.6162	26.27	0.47	-1.500			
0.5122	32781.83	3.5460	3.5460	-1.6299	26.28	0.48	-1.500			
0.5171	33094.70	3.5430	3.5430	-1.6469	26.28	0.48	-1.500			
0.5221	33415.40	3.5400	3.5401	-1.6696	26.28	0.48	-1.500			
0.5272	33738.80	3.5370	3.5370	-1.6854	26.29	0.49	-1.500			
0.5322	34063.77	3.5340	3.5339	-1.7020	26.29	0.49	-1.500	0.380	0.525	
0.5374	34393.39	3.5310	3.5311	-1.7121	26.30	0.50	-1.500			
0.5425	34722.10	3.5280	3.5280	-1.7161	26.31	0.51	-1.500			
0.5477	35053.75	3.5250	3.5251	-1.7288	26.32	0.52	-1.500			
0.5529	35385.38	3.5220	3.5220	-1.7318	26.33	0.53	-1.500			
0.5581	35720.12	3.5190	3.5188	-1.7472	26.34	0.54	-1.500			
0.5634	36057.69	3.5160	3.5160	-1.7503	26.34	0.54	-1.500			
0.5687	36395.38	3.5130	3.5130	-1.7605	26.35	0.55	-1.500			
0.5740	36735.66	3.5100	3.5102	-1.7598	26.36	0.56	-1.500			
0.5792	37071.42	3.5070	3.5069	-1.7498	26.37	0.57	-1.500			
0.5845	37406.92	3.5040	3.5040	-1.7574	26.39	0.59	-1.500			
0.5897	37743.77	3.5010	3.5010	-1.7522	26.40	0.60	-1.500			
0.5951	38084.88	3.4980	3.4979	-1.7615	26.41	0.61	-1.500			
0.6003	38421.59	3.4950	3.4951	-1.7564	26.42	0.62	-1.500			
0.6056	38759.66	3.4920	3.4920	-1.7538	26.44	0.64	-1.500			
0.6109	39098.22	3.4890	3.4890	-1.7488	26.45	0.65	-1.500			
0.6161	39431.38	3.4860	3.4860	-1.7310	26.46	0.66	-1.500			
0.6214	39766.78	3.4830	3.4830	-1.7252	26.48	0.68	-1.500			
0.6265	40096.92	3.4800	3.4799	-1.7092	26.49	0.69	-1.500			
0.6316	40421.95	3.4770	3.4770	-1.7030	26.50	0.70	-1.500			
0.6367	40746.92	3.4740	3.4740	-1.6823	26.51	0.71	-1.500			
0.6417	41070.79	3.4710	3.4709	-1.6627	26.52	0.72	-1.500			
0.6467	41390.37	3.4680	3.4680	-1.6480	26.53	0.73	-1.500			
0.6516	41704.99	3.4650	3.4649	-1.6269	26.54	0.74	-1.500			
0.6565	42013.63	3.4620	3.4620	-1.6102	26.55	0.75	-1.500			
0.6613	42320.82	3.4590	3.4589	-1.5823	26.57	0.77	-1.500			
0.6659	42620.40	3.4560	3.4560	-1.5615	26.58	0.78	-1.500			
0.6706	42920.70	3.4530	3.4530	-1.5416	26.59	0.79	-1.500			
0.6752	43215.49	3.4500	3.4500	-1.5196	26.61	0.81	-1.500			
0.6798	43505.02	3.4470	3.4470	-1.4959	26.63	0.83	-1.500			
0.6842	43789.58	3.4440	3.4440	-1.4769	26.65	0.85	-1.500			
0.6886	44069.82	3.4410	3.4410	-1.4499	26.66	0.86	-1.500			
0.6929	44348.02	3.4380	3.4380	-1.4368	26.68	0.88	-1.500			
0.6972	44620.05	3.4350	3.4350	-1.4167	26.70	0.90	-1.500			
0.7014	44890.90	3.4320	3.4320	-1.4061	26.71	0.91	-1.500			
0.7056	45159.44	3.4290	3.4289	-1.3888	26.73	0.93	-1.500			
0.7098	45426.16	3.4260	3.4260	-1.3756	26.75	0.95	-1.500			
0.7139	45689.70	3.4230	3.4230	-1.3587	26.77	0.97	-1.500			
0.7180	45949.91	3.4200	3.4200	-1.3488	26.79	0.99	-1.500			
0.7220	46206.86	3.4170	3.4171	-1.3235	26.80	1.00	-1.500			
0.7259	46458.23	3.4140	3.4138	-1.2978	26.81	1.01	-1.500			
0.7298	46705.22	3.4110	3.4110	-1.2743	26.83	1.03	-1.500			
0.7336	46948.78	3.4080	3.4081	-1.2507	26.85	1.05	-1.500			
0.7373	47187.42	3.4050	3.4049	-1.2300	26.86	1.06	-1.500			
0.7410	47424.55	3.4020	3.4020	-1.1967	26.88	1.08	-1.500			
0.7445	47649.95	3.3990	3.3990	-1.1612	26.90	1.10	-1.500			
0.7480	47872.27	3.3960	3.3961	-1.1280	26.90	1.10	-1.500			
0.7513	48084.40	3.3930	3.3929	-1.0900	26.92	1.12	-1.500			
0.7545	48287.59	3.3900	3.3900	-1.0514	26.93	1.13	-1.500			
0.7576	48485.89	3.3870	3.3870	-1.0114	26.95	1.15	-1.500			
0.7606	48676.72	3.3840	3.3841	-0.9717	26.97	1.17	-1.500			
0.7635	48862.10	3.3810	3.3810	-0.9458	26.98	1.18	-1.500			
0.7662	49038.69	3.3780	3.3780	-0.9086	27.00	1.20	-1.500			
0.7689	49209.21	3.3750	3.3749	-0.8783	27.01	1.21	-1.500			
0.7715	49373.72	3.3720	3.3719	-0.8462	27.02	1.22	-1.500			
0.7740	49533.45	3.3690	3.3691	-0.8163	27.03	1.23	-1.500			
0.7764	49688.88	3.3660	3.3661	-0.7888	27.04	1.24	-1.500			
0.7787	49837.74	3.3630	3.3630	-0.7623	27.06	1.26	-1.500			
0.7809	49979.48	3.3600	3.3600	-0.7314	27.07	1.27	-1.500			
0.7831	50116.64	3.3570	3.3570	-0.7093	27.08	1.28	-1.500			
0.7852	50249.91	3.3540	3.3541	-0.6876	27.09	1.29	-1.500			
0.7872	50379.93	3.3510	3.3509	-0.6680	27.10	1.30	-1.500			
0.7892	50506.44	3.3480	3.3480	-0.6468	27.11	1.31	-1.500			
0.7911	50628.83	3.3450	3.3450	-0.6273	27.12	1.32	-1.500			
0.7929	50746.94	3.3420	3.3420	-0.6082	27.12	1.32	-1.500			
0.7947	50862.18	3.3390	3.3390	-0.5917	27.13	1.33	-1.500			
0.7965	50973.52	3.3360	3.3360	-0.5730	27.14	1.34	-1.500			
0.7981	51081.30	3.3330	3.3330	-0.5565	27.14	1.34	-1.500			
0.7998	51187.06	3.3300	3.3300	-0.5387	27.15	1.35	-1.500			
0.8014	51289.47	3.3270	3.3269	-0.5230	27.16	1.36	-1.500			
0.8029	51387.10	3.3240	3.3241	-0.5108	27.16	1.36	-1.500			
0.8044	51483.64	3.3210	3.3210	-0.4957	27.17	1.37	-1.500			
0.8059	51577.92	3.3180	3.3179	-0.4807	27.18	1.38	-1.500			
0.8073	51669.15	3.3150	3.3151	-0.4692	27.18	1.38	-1.500			
0.8087	51757.58	3.3120	3.3121	-0.4566	27.19	1.39	-1.500			
0.8101	51844.06	3.3090	3.3091	-0.4467	27.20	1.40	-1.500			
0.8114	51927.97	3.3060	3.3059	-0.4338	27.20	1.40	-1.500			
0.8126	52009.59	3.3030	3.3030	-0.4224	27.21	1.41	-1.500			
0.8139	52090.77	3.3000	3.3000	-0.4138	27.22	1.42	-1.500			
0.8151	52169.09	3.2970	3.2970	-0.4025	27.22	1.42	-1.500			
0.8163	52245.72	3.2940	3.2940	-0.3903	27.23	1.43	-1.500			
0.8175	52319.73	3.2910	3.2910	-0.3798	27.23	1.43	-1.500			
0.8186	52390.47	3.2880	3.2881	-0.3689	27.24	1.44	-1.500			
0.8197	52460.59	3.2850	3.2850	-0.3614	27.25	1.45	-1.500			
0.8208	52528.68	3.2820	3.2820	-0.3535	27.25	1.45	-1.500			
0.8218	52595.76	3.2790	3.2790	-0.3460	27.26	1.46	-1.500			
0.8228	52661.61	3.2760	3.2760	-0.3383	27.27	1.47	-1.500			
0.8238	52726.07	3.2730	3.2730	-0.3324	27.27	1.47	-1.500			
0.8248	52789.03	3.2700	3.2701	-0.3253	27.28	1.48	-1.500			
0.8258	52850.63	3.2670	3.2670	-0.3175	27.29	1.49	-1.500			
0.8267	52911.11	3.2640	3.2640	-0.3103	27.29	1.49	-1.500			
0.8277	52969.78	3.2610	3.2610	-0.3048	27.30	1.50	-1.500			
0.8286	53027.74	3.2580	3.2580	-0.2983	27.30	1.50	-1.500			
0.8294	53084.27	3.2550	3.2549	-0.2926	27.31	1.51	-1.500			
0.8303	53139.25	3.2520	3.2520	-0.2864	27.32	1.52	-1.500			
0.8312	53194.19	3.2490	3.2490	-0.2812	27.32	1.52	-1.500			
0.8320	53247.96	3.2460	3.2460	-0.2762	27.33	1.53	-1.500			
0.8328	53300.43	3.2430	3.2429	-0.2711	27.33	1.53	-1.500			
0.8336	53351.72	3.2400	3.2401	-0.2655	27.34	1.54	-1.500			
0.8344	53401.75	3.2370	3.2369	-0.2598	27.34	1.54	-1.500			
0.8352	53451.32	3.2340	3.2340	-0.2564	27.35	1.55	-1.500			
0.8359	53499.89	3.2310	3.2310	-0.2507	27.35	1.55	-1.500			
0.8367	53547.45	3.2280	3.2280	-0.2469	27.36	1.56	-1.500			
0.8374	53594.41	3.2250	3.2250	-0.2441	27.36	1.56	-1.500			
0.8381	53640.73	3.2220	3.2221	-0.2406	27.37	1.57	-1.500			
0.8389	53686.41	3.2190	3.2189	-0.2373	27.37	1.57	-1.500			
0.8396	53731.79	3.2160	3.2160	-0.2342	27.38	1.58	-1.500			
0.8403	53776.64	3.2130	3.2131	-0.2309	27.38	1.58	-1.500			
0.8410	53820.83	3.2100	3.2100	-0.2275	27.38	1.58	-1.500			
0.8416	53864.63	3.2070	3.2070	-0.2242	27.39	1.59	-1.500			
0.8423	53906.77	3.2040	3.2040	-0.2206	27.39	1.59	-1.500			
0.8429	53948.48	3.2010	3.2010	-0.2173	27.40	1.60	-1.500			
0.8436	53989.69	3.1980	3.1980	-0.2147	27.40	1.60	-1.500			
0.8442	54030.73	3.1950	3.1950	-0.2128	27.40	1.60	-1.500			
0.8449	54071.47	3.1920	3.1920	-0.2099	27.41	1.61	-1.500			
0.8455	54111.88	3.1890	3.1891	-0.2072	27.41	1.61	-1.500			
0.8461	54151.63	3.1860	3.1859	-0.2043	27.42	1.62	-1.500			
0.8467	54190.23	3.1830	3.1831	-0.2026	27.42	1.62	-1.500			
0.8473	54228.81	3.1800	3.1800	-0.1995	27.42	1.62	-1.500			
0.8479	54266.81	3.1770	3.1768	-0.1971	27.43	1.63	-1.500			
0.8485	54304.21	3.1740	3.1741	-0.1945	27.43	1.63	-1.500			
0.8491	54341.30	3.1710	3.1711	-0.1934	27.44	1.64	-1.500			
0.8497	54378.50	3.1680	3.1679	-0.1918	27.44	1.64	-1.500			
0.8502	54415.10	3.1650	3.1649	-0.1903	27.45	1.65	-1.500			
0.8508	54451.48	3.1620	3.1620	-0.1886	27.45	1.65	-1.500			
0.8514	54487.12	3.1590	3.1591	-0.1869	27.46	1.66	-1.500			
0.8519	54523.51	3.1560	3.1559	-0.1850	27.47	1.67	-1.500			
0.8525	54558.90	3.1530	3.1531	-0.1827	27.47	1.67	-1.500			
0.8530	54593.71	3.1500	3.1500	-0.1799	27.48	1.68	-1.500			
0.8536	54627.77	3.1470	3.1471	-0.1785	27.48	1.68	-1.500			
0.8541	54661.81	3.1440	3.1439	-0.1770	27.49	1.69	-1.500			
0.8546	54695.45	3.1410	3.1410	-0.1747	27.49	1.69	-1.500			
0.8551	54728.87	3.1380	3.1379	-0.1734	27.50	1.70	-1.500			
0.8557	54761.90	3.1350	3.1351	-0.1726	27.50	1.70	-1.500			
0.8562	54795.32	3.1320	3.1320	-0.1715	27.51	1.71	-1.500			
0.8567	54827.99	3.1290	3.1291	-0.1703	27.51	1.71	-1.500			
0.8572	54860.53	3.1260	3.1259	-0.1690	27.52	1.72	-1.500			
0.8577	54892.64	3.1230	3.1230	-0.1676	27.52	1.72	-1.500			
0.8582	54924.75	3.1200	3.1200	-0.1667	27.53	1.73	-1.500			
0.8587	54956.88	3.1170	3.1171	-0.1655	27.53	1.73	-1.500			
0.8592	54988.49	3.1140	3.1140	-0.1641	27.54	1.74	-1.500			
0.8597	55019.74	3.1110	3.1110	-0.1625	27.55	1.75	-1.500			
0.8602	55051.02	3.1080	3.1080	-0.1613	27.55	1.75	-1.500			
0.8606	55081.59	3.1050	3.1049	-0.1599	27.56	1.76	-1.500			
0.8611	55112.21	3.1020	3.1020	-0.1586	27.56	1.76	-1.500			
0.8616	55142.56	3.0990	3.0991	-0.1575	27.57	1.77	-1.500			
0.8621	55172.58	3.0960	3.0960	-0.1564	27.57	1.77	-1.500			
0.8625	55202.66	3.0930	3.0931	-0.1555	27.58	1.78	-1.500			
0.8630	55232.39	3.0900	3.0900	-0.1542	27.58	1.78	-1.500			
0.8635	55261.88	3.0870	3.0869	-0.1530	27.59	1.79	-1.500			
0.8639	55291.15	3.0840	3.0840	-0.1519	27.59	1.79	-1.500			
0.8644	55320.07	3.0810	3.0809	-0.1507	27.60	1.80	-1.500			
0.8648	55348.97	3.0780	3.0781	-0.1499	27.60	1.80	-1.500			
0.8653	55377.69	3.0750	3.0749	-0.1486	27.61	1.81	-1.500			
0.8657	55406.10	3.0720	3.0720	-0.1473	27.61	1.81	-1.500			
0.8662	55434.01	3.0690	3.0691	-0.1469	27.62	1.82	-1.500			
0.8666	55462.04	3.0660	3.0660	-0.1462	27.62	1.82	-1.500			
0.8670	55490.28	3.0630	3.0630	-0.1449	27.63	1.83	-1.500			
0.8675	55517.92	3.0600	3.0599	-0.1443	27.64	1.84	-1.500			
0.8679	55545.52	3.0570	3.0571	-0.1436	27.64	1.84	-1.500			
0.8683	55573.04	3.0540	3.0541	-0.1431	27.65	1.85	-1.500			
0.8688	55600.64	3.0510	3.0508	-0.1421	27.65	1.85	-1.500			
0.8692	55627.85	3.0480	3.0480	-0.1413	27.66	1.86	-1.500			
0.8696	55654.73	3.0450	3.0451	-0.1396	27.66	1.86	-1.500			
0.8700	55681.46	3.0420	3.0420	-0.1388	27.67	1.87	-1.500			
0.8704	55708.28	3.0390	3.0389	-0.1387	27.67	1.87	-1.500			
0.8709	55734.68	3.0360	3.0360	-0.1371	27.68	1.88	-1.500			
0.8713	55760.67	3.0330	3.0330	-0.1366	27.68	1.88	-1.500			
0.8717	55786.86	3.0300	3.0300	-0.1363	27.69	1.89	-1.500			
0.8721	55813.15	3.0270	3.0271	-0.1352	27.69	1.89	-1.500			
0.8725	55839.03	3.0240	3.0239	-0.1343	27.70	1.90	-1.500			
0.8729	55864.89	3.0210	3.0211	-0.1336	27.70	1.90	-1.500			
0.8733	55890.38	3.0180	3.0181	-0.1326	27.71	1.91	-1.500			
0.8737	55915.56	3.0150	3.0150	-0.1319	27.71	1.91	-1.500			
0.8741	55940.94	3.0120	3.0120	-0.1313	27.72	1.92	-1.500			
0.8745	55965.58	3.0090	3.0090	-0.1308	27.72	1.92	-1.500			
0.8749	55990.77	3.0060	3.0060	-0.1315	27.73	1.93	-1.500			
0.8752	56015.98	3.0030	3.0030	-0.1301	27.73	1.93	-1.500			
