Ah_balance (normalized)	Ah_balance (mAh)	Voltage - fit (V)	Voltage -  interpolate (V)	dQ/dV (1/V)	Temperature (°C)	Temperature - diff (°C)	Current (C)	R_DC 0ms (mOhm)	R_DC 50ms (mOhm)	R_DC 50 ms PEC (mOhm)
0.2843	18195.35	3.9910	3.9910	0.8339	27.30	1.34	1.500			
0.2868	18355.39	3.9880	3.9880	0.8351	27.30	1.34	1.500			
0.2893	18515.61	3.9850	3.9850	0.8377	27.29	1.33	1.500			
0.2918	18676.98	3.9820	3.9821	0.8391	27.29	1.33	1.500			
0.2944	18838.75	3.9790	3.9790	0.8432	27.28	1.32	1.500			
0.2969	19000.89	3.9760	3.9760	0.8441	27.28	1.32	1.500			
0.2994	19161.09	3.9730	3.9730	0.8428	27.27	1.31	1.500			
0.3019	19324.71	3.9700	3.9700	0.8508	27.27	1.31	1.500			
0.3045	19486.35	3.9670	3.9670	0.8522	27.26	1.30	1.500			
0.3070	19650.47	3.9640	3.9639	0.8569	27.26	1.30	1.500			
0.3096	19816.13	3.9610	3.9610	0.8617	27.25	1.29	1.500			
0.3122	19980.83	3.9580	3.9579	0.8670	27.25	1.29	1.500			
0.3148	20149.05	3.9550	3.9551	0.8710	27.24	1.28	1.500			
0.3175	20317.24	3.9520	3.9519	0.8721	27.24	1.28	1.500			
0.3201	20484.17	3.9490	3.9490	0.8756	27.23	1.27	1.500			
0.3227	20651.42	3.9460	3.9460	0.8859	27.22	1.26	1.500			
0.3253	20821.20	3.9430	3.9430	0.8927	27.22	1.26	1.500			
0.3280	20994.59	3.9400	3.9399	0.8949	27.21	1.25	1.500			
0.3307	21166.78	3.9370	3.9370	0.8989	27.21	1.25	1.500			
0.3334	21340.30	3.9340	3.9341	0.9075	27.20	1.24	1.500			
0.3362	21515.18	3.9310	3.9309	0.9134	27.20	1.24	1.500			
0.3389	21689.95	3.9280	3.9279	0.9134	27.19	1.23	1.500			
0.3416	21864.23	3.9250	3.9250	0.9146	27.18	1.22	1.500			
0.3444	22041.61	3.9220	3.9221	0.9229	27.18	1.22	1.500			
0.3472	22219.34	3.9190	3.9189	0.9325	27.17	1.21	1.500			
0.3500	22397.85	3.9160	3.9161	0.9362	27.16	1.20	1.500			
0.3528	22578.56	3.9130	3.9130	0.9383	27.16	1.20	1.500			
0.3556	22758.35	3.9100	3.9100	0.9497	27.15	1.19	1.500			
0.3585	22942.77	3.9070	3.9070	0.9583	27.14	1.18	1.500			
0.3614	23126.95	3.9040	3.9040	0.9628	27.14	1.18	1.500			
0.3643	23312.58	3.9010	3.9009	0.9650	27.13	1.17	1.500			
0.3671	23497.38	3.8980	3.8981	0.9711	27.13	1.17	1.500			
0.3701	23686.00	3.8950	3.8950	0.9779	27.12	1.16	1.500			
0.3730	23873.94	3.8920	3.8919	0.9905	27.11	1.15	1.500			
0.3760	24062.54	3.8890	3.8891	1.0004	27.11	1.15	1.500			
0.3790	24255.71	3.8860	3.8859	1.0132	27.10	1.14	1.500			
0.3821	24452.42	3.8830	3.8831	1.0245	27.09	1.13	1.500			
0.3852	24651.46	3.8800	3.8800	1.0370	27.09	1.13	1.500			
0.3883	24850.86	3.8770	3.8771	1.0431	27.08	1.12	1.500			
0.3914	25052.36	3.8740	3.8740	1.0551	27.07	1.11	1.500			
0.3946	25254.76	3.8710	3.8710	1.0604	27.06	1.10	1.500			
0.3978	25457.30	3.8680	3.8680	1.0743	27.05	1.09	1.500			
0.4010	25664.38	3.8650	3.8651	1.0898	27.04	1.08	1.500			
0.4043	25874.71	3.8620	3.8619	1.1081	27.03	1.07	1.500			
0.4077	26090.48	3.8590	3.8591	1.1227	27.02	1.06	1.500			
0.4111	26308.09	3.8560	3.8560	1.1407	27.01	1.05	1.500			
0.4145	26528.24	3.8530	3.8530	1.1544	27.00	1.04	1.500			
0.4180	26749.97	3.8500	3.8500	1.1683	26.99	1.03	1.500			
0.4215	26976.96	3.8470	3.8470	1.1808	26.98	1.02	1.500			
0.4251	27205.03	3.8440	3.8439	1.2029	26.97	1.01	1.500			
0.4287	27436.93	3.8410	3.8411	1.2205	26.96	1.00	1.500			
0.4324	27674.11	3.8380	3.8379	1.2403	26.95	0.99	1.500			
0.4361	27912.55	3.8350	3.8350	1.2614	26.94	0.98	1.500			
0.4400	28159.75	3.8320	3.8320	1.2782	26.93	0.97	1.500			
0.4438	28406.15	3.8290	3.8290	1.2987	26.92	0.96	1.500			
0.4478	28657.86	3.8260	3.8259	1.3222	26.90	0.94	1.500			
0.4517	28911.85	3.8230	3.8231	1.3401	26.89	0.93	1.500			
0.4558	29169.32	3.8200	3.8198	1.3737	26.88	0.92	1.500			
0.4599	29435.53	3.8170	3.8170	1.4041	26.86	0.90	1.500			
0.4642	29710.15	3.8140	3.8140	1.4191	26.85	0.89	1.500			
0.4685	29987.00	3.8110	3.8110	1.4432	26.84	0.88	1.500			
0.4729	30267.44	3.8080	3.8081	1.4610	26.82	0.86	1.500			
0.4773	30550.38	3.8050	3.8050	1.4797	26.81	0.85	1.500			
0.4818	30834.82	3.8020	3.8020	1.4995	26.80	0.84	1.500			
0.4862	31119.10	3.7990	3.7991	1.5277	26.78	0.82	1.500			
0.4909	31418.16	3.7960	3.7960	1.5581	26.77	0.81	1.500			
0.4957	31721.67	3.7930	3.7930	1.5927	26.76	0.80	1.500			
0.5004	32027.42	3.7900	3.7901	1.6375	26.74	0.78	1.500			
0.5054	32347.13	3.7870	3.7869	1.6583	26.73	0.77	1.500			
0.5105	32669.96	3.7840	3.7833	1.6793	26.71	0.75	1.499	0.351	0.483	
0.5156	32996.60	3.7810	3.7810	1.6914	26.70	0.74	1.500			
0.5207	33325.34	3.7780	3.7779	1.7001	26.68	0.72	1.500			
0.5257	33647.99	3.7750	3.7750	1.6827	26.66	0.70	1.500			
0.5308	33970.28	3.7720	3.7720	1.6892	26.65	0.69	1.500			
0.5359	34296.05	3.7690	3.7690	1.7005	26.63	0.67	1.500			
0.5410	34621.79	3.7660	3.7659	1.6994	26.62	0.66	1.500			
0.5461	34948.05	3.7630	3.7630	1.7040	26.61	0.65	1.500			
0.5512	35275.48	3.7600	3.7601	1.7144	26.59	0.63	1.500			
0.5563	35605.88	3.7570	3.7570	1.7272	26.58	0.62	1.500			
0.5615	35937.41	3.7540	3.7540	1.7384	26.56	0.60	1.500			
0.5668	36273.32	3.7510	3.7510	1.7508	26.55	0.59	1.500			
0.5720	36607.90	3.7480	3.7480	1.7786	26.53	0.57	1.500			
0.5774	36955.50	3.7450	3.7450	1.8123	26.52	0.56	1.500			
0.5829	37306.24	3.7420	3.7420	1.8352	26.50	0.54	1.500			
0.5885	37663.96	3.7390	3.7391	1.8616	26.49	0.53	1.500			
0.5941	38021.93	3.7360	3.7360	1.9005	26.47	0.51	1.500			
0.5997	38382.66	3.7330	3.7330	1.9467	26.45	0.49	1.500			
0.6057	38763.63	3.7300	3.7299	2.0322	26.44	0.48	1.500			
0.6120	39170.95	3.7270	3.7270	2.0872	26.42	0.46	1.500			
0.6184	39576.99	3.7240	3.7240	2.1381	26.40	0.44	1.500			
0.6248	39988.10	3.7210	3.7211	2.2105	26.38	0.42	1.500			
0.6315	40418.27	3.7180	3.7180	2.2705	26.36	0.40	1.500			
0.6385	40860.83	3.7150	3.7151	2.3223	26.33	0.37	1.500			
0.6455	41314.77	3.7120	3.7120	2.3175	26.31	0.35	1.500			
0.6525	41759.59	3.7090	3.7090	2.3291	26.29	0.33	1.500			
0.6596	42213.21	3.7060	3.7060	2.2804	26.27	0.31	1.500			
0.6664	42651.19	3.7030	3.7030	2.1615	26.25	0.29	1.500			
0.6727	43055.86	3.7000	3.7000	2.0250	26.24	0.28	1.500			
0.6785	43425.58	3.6970	3.6969	1.8610	26.22	0.26	1.500			
0.6838	43764.43	3.6940	3.6941	1.7375	26.21	0.25	1.500			
0.6888	44083.40	3.6910	3.6909	1.6280	26.20	0.24	1.500			
0.6934	44380.18	3.6880	3.6881	1.5411	26.19	0.23	1.500			
0.6979	44665.86	3.6850	3.6850	1.4677	26.18	0.22	1.500			
0.7022	44941.18	3.6820	3.6820	1.4132	26.17	0.21	1.500			
0.7063	45205.07	3.6790	3.6789	1.3633	26.16	0.20	1.500			
0.7103	45458.45	3.6760	3.6761	1.3318	26.15	0.19	1.500			
0.7142	45708.84	3.6730	3.6730	1.3008	26.14	0.18	1.500			
0.7181	45955.38	3.6700	3.6699	1.2835	26.13	0.17	1.500			
0.7218	46197.32	3.6670	3.6670	1.2696	26.12	0.16	1.500			
0.7256	46439.01	3.6640	3.6641	1.2655	26.11	0.15	1.500			
0.7294	46682.27	3.6610	3.6609	1.2645	26.10	0.14	1.500			
0.7332	46924.74	3.6580	3.6580	1.2586	26.09	0.13	1.500			
0.7370	47166.01	3.6550	3.6550	1.2551	26.08	0.12	1.500			
0.7408	47410.57	3.6520	3.6520	1.2501	26.07	0.11	1.500			
0.7445	47648.06	3.6490	3.6490	1.2427	26.07	0.11	1.500			
0.7482	47884.64	3.6460	3.6460	1.2322	26.06	0.10	1.500			
0.7519	48120.50	3.6430	3.6430	1.2249	26.05	0.09	1.500			
0.7555	48354.94	3.6400	3.6399	1.2155	26.04	0.08	1.500			
0.7592	48587.15	3.6370	3.6371	1.2095	26.03	0.07	1.500			
0.7628	48818.85	3.6340	3.6340	1.2015	26.02	0.06	1.500			
0.7664	49050.34	3.6310	3.6310	1.1920	26.01	0.05	1.500			
0.7700	49277.67	3.6280	3.6280	1.1778	26.00	0.04	1.500			
0.7735	49504.20	3.6250	3.6251	1.1696	26.00	0.04	1.500			
0.7770	49728.48	3.6220	3.6220	1.1549	25.99	0.03	1.500			
0.7804	49948.77	3.6190	3.6189	1.1436	25.98	0.02	1.500			
0.7839	50166.86	3.6160	3.6161	1.1240	25.98	0.02	1.500			
0.7872	50382.32	3.6130	3.6129	1.1022	25.97	0.01	1.500			
0.7905	50592.18	3.6100	3.6100	1.0782	25.97	0.01	1.500			
0.7937	50796.65	3.6070	3.6071	1.0544	25.97	0.01	1.500			
0.7968	50996.85	3.6040	3.6039	1.0264	25.97	0.01	1.500			
0.7999	51192.05	3.6010	3.6010	1.0005	25.96	0.00	1.500			
0.8028	51380.91	3.5980	3.5980	0.9699	25.96	0.00	1.500			
0.8057	51566.25	3.5950	3.5950	0.9427	25.96	-0.00	1.500			
0.8085	51746.76	3.5920	3.5919	0.8984	25.96	-0.00	1.500			
0.8112	51918.33	3.5890	3.5889	0.8461	25.96	-0.00	1.500			
0.8137	52079.50	3.5860	3.5860	0.7691	25.95	-0.01	1.500			
0.8160	52224.07	3.5830	3.5832	0.6892	25.95	-0.01	1.500			
0.8180	52349.41	3.5800	3.5800	0.6027	25.95	-0.01	1.500			
0.8196	52455.53	3.5770	3.5770	0.5121	25.95	-0.01	1.500			
0.8209	52540.49	3.5740	3.5739	0.4306	25.95	-0.01	1.500			
0.8221	52612.92	3.5710	3.5710	0.3691	25.95	-0.01	1.500			
0.8230	52673.98	3.5680	3.5680	0.3153	25.95	-0.01	1.500			
0.8239	52727.60	3.5650	3.5650	0.2760	25.94	-0.02	1.500			
0.8246	52773.72	3.5620	3.5619	0.2375	25.94	-0.02	1.500			
0.8252	52815.05	3.5590	3.5591	0.2119	25.94	-0.02	1.500			
0.8258	52852.00	3.5560	3.5559	0.1905	25.94	-0.02	1.500			
0.8263	52885.68	3.5530	3.5531	0.1689	25.94	-0.02	1.500			
0.8268	52916.16	3.5500	3.5500	0.1529	25.94	-0.02	1.500			
0.8272	52943.36	3.5470	3.5469	0.1359	25.94	-0.02	1.500			
0.8276	52967.80	3.5440	3.5440	0.1207	25.94	-0.02	1.500			
0.8280	52989.17	3.5410	3.5410	0.1046	25.94	-0.02	1.500			
0.8282	53007.85	3.5380	3.5381	0.0899	25.94	-0.02	1.500			
0.8285	53024.00	3.5350	3.5351	0.0753	25.94	-0.02	1.500			
0.8287	53037.11	3.5320	3.5321	0.0601	25.94	-0.02	1.500			
0.8289	53047.16	3.5290	3.5296	0.0447	25.94	-0.02	1.500			
0.8290	53054.27	3.5260	3.5272	0.0293	25.94	-0.02	1.500			
