Ah_balance (normalized)	Ah_balance (mAh)	Voltage - fit (V)	Voltage -  interpolate (V)	dQ/dV (1/V)	Temperature (°C)	Temperature - diff (°C)	Current (C)	R_DC 0ms (mOhm)	R_DC 50ms (mOhm)	R_DC 50 ms PEC (mOhm)
0.2044	13079.22	3.9120	3.9119	-0.1119	25.76	0.00	-1.500			
0.2048	13104.44	3.9090	3.9088	-0.1485	25.76	0.00	-1.500			
0.2053	13137.03	3.9060	3.9060	-0.1826	25.76	0.00	-1.500			
0.2059	13175.98	3.9030	3.9030	-0.2133	25.76	-0.00	-1.500			
0.2066	13220.23	3.9000	3.9000	-0.2426	25.76	-0.00	-1.500			
0.2074	13270.53	3.8970	3.8970	-0.2728	25.76	-0.00	-1.500			
0.2082	13325.29	3.8940	3.8941	-0.3006	25.76	-0.00	-1.500			
0.2091	13385.57	3.8910	3.8911	-0.3284	25.76	-0.00	-1.500			
0.2102	13450.74	3.8880	3.8880	-0.3570	25.76	-0.00	-1.500			
0.2113	13522.19	3.8850	3.8850	-0.3860	25.76	-0.00	-1.500			
0.2125	13599.05	3.8820	3.8820	-0.4161	25.75	-0.01	-1.500			
0.2138	13681.68	3.8790	3.8790	-0.4445	25.75	-0.01	-1.500			
0.2152	13770.19	3.8760	3.8760	-0.4732	25.75	-0.01	-1.500			
0.2166	13863.50	3.8730	3.8730	-0.5028	25.75	-0.01	-1.500			
0.2182	13963.47	3.8700	3.8700	-0.5296	25.75	-0.01	-1.500			
0.2198	14068.28	3.8670	3.8669	-0.5543	25.75	-0.01	-1.500			
0.2215	14177.97	3.8640	3.8640	-0.5795	25.75	-0.01	-1.500			
0.2233	14291.64	3.8610	3.8611	-0.6010	25.75	-0.01	-1.500			
0.2252	14410.74	3.8580	3.8579	-0.6189	25.74	-0.02	-1.500			
0.2270	14531.15	3.8550	3.8550	-0.6353	25.74	-0.02	-1.500			
0.2290	14654.04	3.8520	3.8520	-0.6482	25.74	-0.02	-1.500			
0.2309	14780.40	3.8490	3.8490	-0.6628	25.74	-0.02	-1.500			
0.2330	14909.08	3.8460	3.8460	-0.6771	25.74	-0.02	-1.500			
0.2350	15040.05	3.8430	3.8430	-0.6883	25.74	-0.02	-1.500			
0.2371	15174.18	3.8400	3.8400	-0.6996	25.75	-0.01	-1.500			
0.2392	15310.87	3.8370	3.8370	-0.7107	25.75	-0.01	-1.500			
0.2414	15448.02	3.8340	3.8340	-0.7155	25.75	-0.01	-1.500			
0.2435	15587.17	3.8310	3.8310	-0.7220	25.75	-0.01	-1.500			
0.2457	15725.58	3.8280	3.8280	-0.7280	25.75	-0.01	-1.500			
0.2479	15864.73	3.8250	3.8250	-0.7344	25.75	-0.01	-1.500			
0.2501	16007.35	3.8220	3.8220	-0.7389	25.76	-0.00	-1.500			
0.2524	16150.46	3.8190	3.8190	-0.7435	25.76	-0.00	-1.500			
0.2546	16293.65	3.8160	3.8161	-0.7460	25.76	-0.00	-1.500			
0.2569	16438.76	3.8130	3.8130	-0.7473	25.76	0.00	-1.500			
0.2591	16581.76	3.8100	3.8100	-0.7474	25.77	0.01	-1.500			
0.2613	16723.45	3.8070	3.8071	-0.7482	25.77	0.01	-1.500			
0.2636	16867.52	3.8040	3.8040	-0.7516	25.77	0.01	-1.500			
0.2658	17012.75	3.8010	3.8010	-0.7549	25.78	0.02	-1.500			
0.2681	17157.47	3.7980	3.7980	-0.7574	25.78	0.02	-1.500			
0.2704	17303.13	3.7950	3.7950	-0.7605	25.78	0.02	-1.500			
0.2727	17451.11	3.7920	3.7920	-0.7623	25.79	0.03	-1.500			
0.2750	17597.09	3.7890	3.7890	-0.7611	25.79	0.03	-1.500			
0.2772	17742.77	3.7860	3.7861	-0.7611	25.79	0.03	-1.500			
0.2795	17889.50	3.7830	3.7830	-0.7607	25.80	0.04	-1.500			
0.2818	18035.71	3.7800	3.7800	-0.7605	25.80	0.04	-1.500			
0.2841	18180.75	3.7770	3.7770	-0.7634	25.81	0.05	-1.500			
0.2864	18327.06	3.7740	3.7740	-0.7642	25.81	0.05	-1.500			
0.2887	18474.72	3.7710	3.7710	-0.7655	25.81	0.05	-1.500			
0.2910	18621.56	3.7680	3.7681	-0.7630	25.82	0.06	-1.500			
0.2932	18767.94	3.7650	3.7651	-0.7667	25.82	0.06	-1.500			
0.2956	18915.63	3.7620	3.7619	-0.7691	25.82	0.06	-1.500			
0.2979	19063.07	3.7590	3.7590	-0.7662	25.83	0.07	-1.500			
0.3002	19210.11	3.7560	3.7560	-0.7640	25.83	0.07	-1.500			
0.3025	19358.33	3.7530	3.7531	-0.7653	25.84	0.08	-1.500			
0.3048	19505.26	3.7500	3.7499	-0.7620	25.84	0.08	-1.500			
0.3070	19650.73	3.7470	3.7470	-0.7592	25.84	0.08	-1.500			
0.3093	19794.69	3.7440	3.7440	-0.7575	25.85	0.09	-1.500			
0.3116	19939.87	3.7410	3.7410	-0.7582	25.85	0.09	-1.500			
0.3138	20085.87	3.7380	3.7380	-0.7629	25.86	0.10	-1.500			
0.3161	20232.05	3.7350	3.7350	-0.7671	25.86	0.10	-1.500			
0.3184	20380.28	3.7320	3.7320	-0.7679	25.87	0.11	-1.500			
0.3208	20528.38	3.7290	3.7291	-0.7702	25.87	0.11	-1.500			
0.3231	20676.15	3.7260	3.7260	-0.7747	25.88	0.12	-1.500			
0.3254	20825.62	3.7230	3.7229	-0.7754	25.88	0.12	-1.500			
0.3277	20974.63	3.7200	3.7200	-0.7785	25.88	0.12	-1.500			
0.3301	21123.34	3.7170	3.7171	-0.7827	25.89	0.13	-1.500			
0.3324	21273.54	3.7140	3.7140	-0.7888	25.89	0.13	-1.500			
0.3348	21426.27	3.7110	3.7110	-0.7957	25.90	0.14	-1.500			
0.3372	21578.53	3.7080	3.7080	-0.8017	25.90	0.14	-1.500			
0.3396	21732.94	3.7050	3.7050	-0.8081	25.91	0.15	-1.500			
0.3420	21890.72	3.7020	3.7020	-0.8150	25.91	0.15	-1.500			
0.3445	22046.90	3.6990	3.6990	-0.8191	25.92	0.16	-1.500			
0.3469	22204.11	3.6960	3.6961	-0.8242	25.92	0.16	-1.500			
0.3494	22362.14	3.6930	3.6929	-0.8352	25.93	0.17	-1.500			
0.3519	22523.06	3.6900	3.6900	-0.8431	25.93	0.17	-1.500			
0.3544	22684.63	3.6870	3.6869	-0.8569	25.94	0.18	-1.500			
0.3570	22850.42	3.6840	3.6840	-0.8725	25.94	0.18	-1.500			
0.3597	23020.52	3.6810	3.6810	-0.8859	25.95	0.19	-1.500			
0.3624	23191.15	3.6780	3.6779	-0.9007	25.95	0.19	-1.500			
0.3651	23365.38	3.6750	3.6751	-0.9124	25.96	0.20	-1.500			
0.3678	23541.97	3.6720	3.6721	-0.9295	25.96	0.20	-1.500			
0.3707	23722.44	3.6690	3.6689	-0.9499	25.96	0.20	-1.500			
0.3735	23905.56	3.6660	3.6659	-0.9654	25.97	0.21	-1.500			
0.3765	24093.06	3.6630	3.6630	-0.9791	25.97	0.21	-1.500			
0.3794	24282.64	3.6600	3.6599	-0.9959	25.98	0.22	-1.500			
0.3824	24475.56	3.6570	3.6570	-1.0121	25.98	0.22	-1.500			
0.3855	24671.63	3.6540	3.6540	-1.0301	25.98	0.22	-1.500			
0.3886	24868.87	3.6510	3.6509	-1.0470	25.98	0.22	-1.500			
0.3917	25070.61	3.6480	3.6480	-1.0654	25.98	0.22	-1.500			
0.3950	25278.13	3.6450	3.6450	-1.0979	25.99	0.23	-1.500			
0.3983	25494.25	3.6420	3.6420	-1.1171	25.99	0.23	-1.500			
0.4017	25710.11	3.6390	3.6389	-1.1424	25.99	0.23	-1.500			
0.4052	25931.67	3.6360	3.6362	-1.1676	25.99	0.23	-1.500			
0.4087	26158.41	3.6330	3.6329	-1.1898	25.99	0.23	-1.500			
0.4123	26388.23	3.6300	3.6301	-1.2154	26.00	0.24	-1.500			
0.4160	26623.16	3.6270	3.6270	-1.2396	26.00	0.24	-1.500			
0.4197	26862.86	3.6240	3.6241	-1.2647	26.00	0.24	-1.500			
0.4236	27112.36	3.6210	3.6210	-1.2945	26.00	0.24	-1.500			
0.4275	27359.98	3.6180	3.6180	-1.3172	26.01	0.25	-1.500			
0.4315	27616.74	3.6150	3.6151	-1.3406	26.01	0.25	-1.500			
0.4356	27876.66	3.6120	3.6119	-1.3671	26.01	0.25	-1.500			
0.4397	28139.72	3.6090	3.6090	-1.3959	26.01	0.25	-1.500			
0.4439	28412.03	3.6060	3.6060	-1.4236	26.00	0.24	-1.500			
0.4483	28689.38	3.6030	3.6029	-1.4486	26.00	0.24	-1.500			
0.4526	28969.58	3.6000	3.5999	-1.4747	26.00	0.24	-1.500			
0.4571	29254.04	3.5970	3.5971	-1.4986	26.00	0.24	-1.500			
0.4616	29544.79	3.5940	3.5939	-1.5284	26.00	0.24	-1.500			
0.4663	29841.25	3.5910	3.5910	-1.5489	26.00	0.24	-1.500			
0.4709	30140.35	3.5880	3.5880	-1.5688	26.00	0.24	-1.500			
0.4757	30445.38	3.5850	3.5850	-1.5980	26.00	0.24	-1.500			
0.4806	30755.99	3.5820	3.5820	-1.6243	26.00	0.24	-1.500			
0.4854	31068.22	3.5790	3.5790	-1.6465	26.00	0.24	-1.500			
0.4904	31385.92	3.5760	3.5759	-1.6723	25.99	0.23	-1.500			
0.4955	31711.05	3.5730	3.5730	-1.6932	25.99	0.23	-1.500			
0.5006	32040.47	3.5700	3.5700	-1.7199	25.98	0.22	-1.500			
0.5058	32371.35	3.5670	3.5671	-1.7414	25.98	0.22	-1.500			
0.5110	32705.34	3.5640	3.5640	-1.7768	25.98	0.22	-1.500			
0.5164	33049.51	3.5610	3.5609	-1.8079	25.98	0.22	-1.500			
0.5219	33400.74	3.5580	3.5580	-1.8246	25.98	0.22	-1.500			
0.5275	33758.34	3.5550	3.5550	-1.8432	25.98	0.22	-1.500			
0.5330	34115.06	3.5520	3.5521	-1.8601	25.98	0.22	-1.500			
0.5386	34470.84	3.5490	3.5490	-1.8705	25.99	0.23	-1.500			
0.5442	34828.39	3.5460	3.5459	-1.8727	25.99	0.23	-1.500			
0.5498	35189.56	3.5430	3.5430	-1.8820	26.00	0.24	-1.500			
0.5556	35557.03	3.5400	3.5401	-1.8970	26.00	0.24	-1.500	0.389	0.514	
0.5613	35922.95	3.5370	3.5370	-1.8955	26.00	0.24	-1.500			
0.5670	36287.54	3.5340	3.5340	-1.8898	26.01	0.25	-1.500			
0.5726	36644.78	3.5310	3.5310	-1.8860	26.01	0.25	-1.500			
0.5783	37008.76	3.5280	3.5280	-1.8903	26.02	0.26	-1.500			
0.5840	37373.32	3.5250	3.5250	-1.8909	26.02	0.26	-1.500			
0.5897	37738.26	3.5220	3.5220	-1.8917	26.03	0.27	-1.500			
0.5954	38105.13	3.5190	3.5189	-1.8794	26.03	0.27	-1.500			
0.6010	38463.29	3.5160	3.5160	-1.8599	26.04	0.28	-1.500			
0.6065	38818.77	3.5130	3.5131	-1.8434	26.04	0.28	-1.500			
0.6120	39168.56	3.5100	3.5099	-1.8460	26.05	0.29	-1.500			
0.6175	39521.64	3.5070	3.5070	-1.8367	26.06	0.30	-1.500			
0.6230	39872.23	3.5040	3.5040	-1.8148	26.07	0.31	-1.500			
0.6285	40224.21	3.5010	3.5011	-1.8147	26.08	0.32	-1.500			
0.6339	40571.35	3.4980	3.4980	-1.8069	26.09	0.33	-1.500			
0.6393	40915.62	3.4950	3.4949	-1.8012	26.10	0.34	-1.500			
0.6447	41260.30	3.4920	3.4920	-1.7917	26.11	0.35	-1.500			
0.6501	41603.39	3.4890	3.4890	-1.7930	26.13	0.37	-1.500			
0.6555	41948.97	3.4860	3.4861	-1.7853	26.14	0.38	-1.500			
0.6608	42292.67	3.4830	3.4829	-1.7701	26.15	0.39	-1.500			
0.6661	42631.80	3.4800	3.4800	-1.7551	26.16	0.40	-1.500			
0.6713	42965.67	3.4770	3.4770	-1.7315	26.17	0.41	-1.500			
0.6765	43298.16	3.4740	3.4740	-1.7167	26.18	0.42	-1.500			
0.6816	43624.50	3.4710	3.4711	-1.6956	26.19	0.43	-1.500			
0.6867	43946.46	3.4680	3.4679	-1.6759	26.21	0.45	-1.500			
0.6917	44267.14	3.4650	3.4650	-1.6596	26.22	0.46	-1.500			
0.6967	44586.21	3.4620	3.4620	-1.6319	26.24	0.48	-1.500			
0.7016	44899.51	3.4590	3.4590	-1.6106	26.25	0.49	-1.500			
0.7063	45205.24	3.4560	3.4561	-1.5815	26.26	0.50	-1.500			
0.7110	45506.13	3.4530	3.4529	-1.5486	26.28	0.52	-1.500			
0.7156	45798.37	3.4500	3.4500	-1.5314	26.29	0.53	-1.500			
0.7201	46087.52	3.4470	3.4470	-1.5072	26.31	0.55	-1.500			
0.7246	46377.38	3.4440	3.4440	-1.4931	26.32	0.56	-1.500			
0.7291	46662.69	3.4410	3.4409	-1.4726	26.34	0.58	-1.500			
0.7335	46941.29	3.4380	3.4380	-1.4607	26.35	0.59	-1.500			
0.7378	47220.22	3.4350	3.4350	-1.4511	26.37	0.61	-1.500			
0.7421	47495.98	3.4320	3.4320	-1.4527	26.39	0.63	-1.500			
0.7465	47775.32	3.4290	3.4289	-1.4350	26.41	0.65	-1.500			
0.7509	48055.11	3.4260	3.4260	-1.4376	26.43	0.67	-1.500			
0.7552	48330.87	3.4230	3.4233	-1.4224	26.44	0.68	-1.500			
0.7594	48603.89	3.4200	3.4199	-1.4073	26.46	0.70	-1.500			
0.7636	48871.08	3.4170	3.4170	-1.3829	26.48	0.72	-1.500			
0.7677	49132.32	3.4140	3.4140	-1.3560	26.50	0.74	-1.500			
0.7718	49395.17	3.4110	3.4110	-1.3453	26.52	0.76	-1.500			
0.7758	49652.82	3.4080	3.4080	-1.3160	26.53	0.77	-1.500			
0.7797	49903.14	3.4050	3.4049	-1.2779	26.55	0.79	-1.500			
0.7836	50147.20	3.4020	3.4020	-1.2352	26.57	0.81	-1.500			
0.7872	50378.33	3.3990	3.3990	-1.1933	26.59	0.83	-1.500			
0.7907	50603.51	3.3960	3.3960	-1.1498	26.61	0.85	-1.500			
0.7941	50820.64	3.3930	3.3930	-1.1009	26.62	0.86	-1.500			
0.7973	51027.45	3.3900	3.3899	-1.0590	26.64	0.88	-1.500			
0.8004	51226.74	3.3870	3.3871	-1.0138	26.66	0.90	-1.500			
0.8034	51418.55	3.3840	3.3839	-0.9699	26.67	0.91	-1.500			
0.8062	51598.74	3.3810	3.3811	-0.9311	26.68	0.92	-1.500			
0.8089	51769.76	3.3780	3.3779	-0.8909	26.70	0.94	-1.500			
0.8115	51938.38	3.3750	3.3750	-0.8624	26.71	0.95	-1.500			
0.8141	52101.61	3.3720	3.3720	-0.8304	26.72	0.96	-1.500			
0.8165	52258.53	3.3690	3.3690	-0.8004	26.73	0.97	-1.500			
0.8189	52409.65	3.3660	3.3661	-0.7733	26.74	0.98	-1.500			
0.8212	52555.02	3.3630	3.3629	-0.7456	26.75	0.99	-1.500			
0.8233	52693.68	3.3600	3.3600	-0.7179	26.76	1.00	-1.500			
0.8254	52827.82	3.3570	3.3569	-0.6906	26.77	1.01	-1.500			
0.8275	52958.56	3.3540	3.3541	-0.6677	26.78	1.02	-1.500			
0.8294	53084.78	3.3510	3.3510	-0.6476	26.79	1.03	-1.500			
0.8313	53205.99	3.3480	3.3480	-0.6258	26.80	1.04	-1.500			
0.8332	53323.51	3.3450	3.3450	-0.6056	26.81	1.05	-1.500			
0.8350	53438.33	3.3420	3.3419	-0.5886	26.82	1.06	-1.500			
0.8367	53549.37	3.3390	3.3390	-0.5688	26.83	1.07	-1.500			
0.8384	53657.35	3.3360	3.3361	-0.5544	26.83	1.07	-1.500			
0.8400	53762.46	3.3330	3.3329	-0.5349	26.84	1.08	-1.500			
0.8416	53863.25	3.3300	3.3299	-0.5145	26.85	1.09	-1.500			
0.8431	53959.11	3.3270	3.3271	-0.4981	26.86	1.10	-1.500			
0.8446	54052.91	3.3240	3.3240	-0.4829	26.86	1.10	-1.500			
0.8460	54144.16	3.3210	3.3209	-0.4690	26.87	1.11	-1.500			
0.8474	54232.80	3.3180	3.3180	-0.4562	26.87	1.11	-1.500			
0.8487	54318.24	3.3150	3.3150	-0.4418	26.88	1.12	-1.500			
0.8500	54402.96	3.3120	3.3119	-0.4311	26.89	1.13	-1.500			
0.8513	54484.69	3.3090	3.3090	-0.4183	26.89	1.13	-1.500			
0.8525	54563.02	3.3060	3.3060	-0.4047	26.90	1.14	-1.500			
0.8537	54639.98	3.3030	3.3030	-0.3936	26.90	1.14	-1.500			
0.8549	54714.42	3.3000	3.3001	-0.3813	26.91	1.15	-1.500			
0.8560	54786.03	3.2970	3.2969	-0.3689	26.91	1.15	-1.500			
0.8571	54855.89	3.2940	3.2940	-0.3575	26.92	1.16	-1.500			
0.8582	54923.21	3.2910	3.2910	-0.3467	26.93	1.17	-1.500			
0.8592	54988.48	3.2880	3.2880	-0.3352	26.94	1.18	-1.500			
0.8602	55052.11	3.2850	3.2850	-0.3267	26.94	1.18	-1.500			
0.8611	55113.03	3.2820	3.2820	-0.3175	26.95	1.19	-1.500			
0.8621	55173.36	3.2790	3.2789	-0.3092	26.96	1.20	-1.500			
0.8630	55232.17	3.2760	3.2760	-0.3006	26.96	1.20	-1.500			
0.8639	55288.90	3.2730	3.2731	-0.2929	26.97	1.21	-1.500			
0.8648	55344.42	3.2700	3.2700	-0.2848	26.97	1.21	-1.500			
0.8656	55398.65	3.2670	3.2670	-0.2772	26.98	1.22	-1.500			
0.8664	55450.28	3.2640	3.2639	-0.2679	26.99	1.23	-1.500			
0.8672	55500.78	3.2610	3.2611	-0.2615	26.99	1.23	-1.500			
0.8680	55550.37	3.2580	3.2580	-0.2557	27.00	1.24	-1.500			
0.8687	55598.69	3.2550	3.2550	-0.2494	27.00	1.24	-1.500			
0.8695	55646.27	3.2520	3.2519	-0.2437	27.01	1.25	-1.500			
0.8702	55691.58	3.2490	3.2491	-0.2389	27.01	1.25	-1.500			
0.8709	55737.34	3.2460	3.2460	-0.2342	27.01	1.25	-1.500			
0.8716	55782.04	3.2430	3.2430	-0.2301	27.02	1.26	-1.500			
0.8723	55826.14	3.2400	3.2401	-0.2250	27.02	1.26	-1.500			
0.8729	55868.76	3.2370	3.2370	-0.2195	27.03	1.27	-1.500			
0.8736	55910.47	3.2340	3.2339	-0.2155	27.03	1.27	-1.500			
0.8742	55951.22	3.2310	3.2311	-0.2112	27.03	1.27	-1.500			
0.8749	55990.72	3.2280	3.2279	-0.2061	27.04	1.28	-1.500			
0.8755	56030.02	3.2250	3.2250	-0.2033	27.04	1.28	-1.500			
0.8761	56068.90	3.2220	3.2221	-0.2003	27.04	1.28	-1.500			
0.8767	56107.01	3.2190	3.2190	-0.1964	27.05	1.29	-1.500			
0.8773	56144.64	3.2160	3.2160	-0.1943	27.05	1.29	-1.500			
0.8778	56181.59	3.2130	3.2131	-0.1906	27.05	1.29	-1.500			
0.8784	56217.71	3.2100	3.2100	-0.1863	27.06	1.30	-1.500			
0.8790	56253.05	3.2070	3.2070	-0.1836	27.06	1.30	-1.500			
0.8795	56287.72	3.2040	3.2040	-0.1806	27.06	1.30	-1.500			
0.8800	56322.19	3.2010	3.2011	-0.1782	27.07	1.31	-1.500			
0.8806	56356.07	3.1980	3.1979	-0.1758	27.07	1.31	-1.500			
0.8811	56389.64	3.1950	3.1950	-0.1737	27.08	1.32	-1.500			
0.8816	56422.75	3.1920	3.1920	-0.1709	27.08	1.32	-1.500			
0.8821	56455.47	3.1890	3.1891	-0.1695	27.09	1.33	-1.500			
0.8826	56487.77	3.1860	3.1859	-0.1670	27.09	1.33	-1.500			
0.8831	56519.33	3.1830	3.1830	-0.1647	27.10	1.34	-1.500			
0.8836	56550.85	3.1800	3.1799	-0.1624	27.10	1.34	-1.500			
0.8841	56581.97	3.1770	3.1770	-0.1602	27.11	1.35	-1.500			
0.8846	56612.48	3.1740	3.1741	-0.1577	27.11	1.35	-1.500			
0.8850	56642.30	3.1710	3.1711	-0.1567	27.12	1.36	-1.500			
0.8855	56672.14	3.1680	3.1680	-0.1554	27.12	1.36	-1.500			
0.8860	56701.74	3.1650	3.1649	-0.1534	27.13	1.37	-1.500			
0.8864	56731.10	3.1620	3.1619	-0.1524	27.13	1.37	-1.500			
0.8869	56760.33	3.1590	3.1591	-0.1509	27.13	1.37	-1.500			
0.8873	56789.42	3.1560	3.1560	-0.1500	27.14	1.38	-1.500			
0.8878	56818.12	3.1530	3.1530	-0.1487	27.14	1.38	-1.500			
0.8882	56846.49	3.1500	3.1500	-0.1468	27.15	1.39	-1.500			
0.8887	56874.11	3.1470	3.1470	-0.1451	27.15	1.39	-1.500			
0.8891	56901.78	3.1440	3.1442	-0.1443	27.16	1.40	-1.500			
0.8895	56929.50	3.1410	3.1410	-0.1436	27.16	1.40	-1.500			
0.8900	56956.99	3.1380	3.1380	-0.1427	27.17	1.41	-1.500			
0.8904	56984.47	3.1350	3.1350	-0.1408	27.17	1.41	-1.500			
0.8908	57011.39	3.1320	3.1321	-0.1395	27.17	1.41	-1.500			
0.8912	57037.98	3.1290	3.1290	-0.1384	27.18	1.42	-1.500			
0.8916	57064.41	3.1260	3.1261	-0.1369	27.18	1.42	-1.500			
0.8920	57090.36	3.1230	3.1230	-0.1360	27.19	1.43	-1.500			
0.8924	57116.20	3.1200	3.1200	-0.1347	27.19	1.43	-1.500			
0.8928	57141.94	3.1170	3.1170	-0.1341	27.19	1.43	-1.500			
0.8932	57167.65	3.1140	3.1140	-0.1337	27.20	1.44	-1.500			
0.8936	57193.54	3.1110	3.1110	-0.1330	27.20	1.44	-1.500			
0.8940	57219.08	3.1080	3.1080	-0.1316	27.21	1.45	-1.500			
0.8944	57244.20	3.1050	3.1049	-0.1306	27.21	1.45	-1.500			
0.8948	57269.15	3.1020	3.1022	-0.1293	27.22	1.46	-1.500			
0.8952	57293.76	3.0990	3.0990	-0.1286	27.22	1.46	-1.500			
0.8956	57318.23	3.0960	3.0960	-0.1280	27.22	1.46	-1.500			
0.8960	57342.51	3.0930	3.0930	-0.1272	27.23	1.47	-1.500			
0.8964	57367.10	3.0900	3.0899	-0.1262	27.23	1.47	-1.500			
0.8967	57391.34	3.0870	3.0870	-0.1259	27.24	1.48	-1.500			
0.8971	57415.61	3.0840	3.0841	-0.1254	27.24	1.48	-1.500			
0.8975	57439.48	3.0810	3.0810	-0.1246	27.24	1.48	-1.500			
0.8979	57463.35	3.0780	3.0779	-0.1240	27.25	1.49	-1.500			
0.8982	57487.12	3.0750	3.0750	-0.1228	27.25	1.49	-1.500			
0.8986	57510.57	3.0720	3.0720	-0.1219	27.26	1.50	-1.500			
0.8990	57533.84	3.0690	3.0691	-0.1214	27.26	1.50	-1.500			
0.8993	57557.13	3.0660	3.0660	-0.1212	27.26	1.50	-1.500			
0.8997	57580.34	3.0630	3.0629	-0.1206	27.27	1.51	-1.500			
0.9001	57603.34	3.0600	3.0600	-0.1196	27.27	1.51	-1.500			
0.9004	57626.25	3.0570	3.0570	-0.1191	27.28	1.52	-1.500			
0.9008	57649.11	3.0540	3.0540	-0.1184	27.28	1.52	-1.500			
0.9011	57671.79	3.0510	3.0510	-0.1178	27.29	1.53	-1.500			
0.9015	57694.68	3.0480	3.0481	-0.1172	27.29	1.53	-1.500			
0.9018	57717.05	3.0450	3.0450	-0.1160	27.30	1.54	-1.500			
0.9022	57738.99	3.0420	3.0420	-0.1155	27.30	1.54	-1.500			
0.9025	57760.92	3.0390	3.0391	-0.1145	27.31	1.55	-1.500			
0.9029	57782.87	3.0360	3.0360	-0.1142	27.31	1.55	-1.500			
0.9032	57804.69	3.0330	3.0329	-0.1138	27.32	1.56	-1.500			
0.9035	57826.60	3.0300	3.0300	-0.1133	27.32	1.56	-1.500			
0.9039	57848.31	3.0270	3.0270	-0.1129	27.33	1.57	-1.500			
0.9042	57870.01	3.0240	3.0240	-0.1125	27.33	1.57	-1.500			
0.9046	57891.78	3.0210	3.0210	-0.1123	27.34	1.58	-1.500			
0.9049	57913.25	3.0180	3.0179	-0.1115	27.34	1.58	-1.500			
0.9052	57934.50	3.0150	3.0150	-0.1106	27.35	1.59	-1.500			
0.9056	57955.67	3.0120	3.0119	-0.1099	27.35	1.59	-1.500			
0.9059	57976.73	3.0090	3.0091	-0.1093	27.36	1.60	-1.500			
0.9062	57997.64	3.0060	3.0061	-0.1086	27.36	1.60	-1.500			
0.9065	58018.40	3.0030	3.0031	-0.1071	27.37	1.61	-1.500			
