Ah_balance (normalized)	Ah_balance (mAh)	Voltage - fit (V)	Voltage -  interpolate (V)	dQ/dV (1/V)	Temperature (°C)	Temperature - diff (°C)	Current (C)	R_DC 0ms (mOhm)	R_DC 50ms (mOhm)	R_DC 50 ms PEC (mOhm)
0.2914	18646.53	3.9920	3.9920	0.8502	27.23	1.29	1.500			
0.2939	18808.31	3.9890	3.9889	0.8403	27.23	1.29	1.500			
0.2964	18968.31	3.9860	3.9860	0.8372	27.22	1.28	1.500			
0.2989	19129.92	3.9830	3.9830	0.8352	27.21	1.27	1.500			
0.3014	19288.44	3.9800	3.9800	0.8356	27.21	1.27	1.500			
0.3039	19447.79	3.9770	3.9770	0.8405	27.20	1.26	1.500			
0.3064	19609.59	3.9740	3.9740	0.8454	27.20	1.26	1.500			
0.3090	19772.91	3.9710	3.9709	0.8529	27.19	1.25	1.500			
0.3115	19937.50	3.9680	3.9680	0.8552	27.18	1.24	1.500			
0.3141	20102.92	3.9650	3.9651	0.8606	27.18	1.24	1.500			
0.3167	20269.65	3.9620	3.9620	0.8641	27.17	1.23	1.500			
0.3193	20434.81	3.9590	3.9590	0.8623	27.16	1.22	1.500			
0.3219	20599.11	3.9560	3.9560	0.8628	27.16	1.22	1.500			
0.3245	20766.84	3.9530	3.9530	0.8641	27.15	1.21	1.500			
0.3271	20931.38	3.9500	3.9501	0.8709	27.15	1.21	1.500			
0.3297	21099.28	3.9470	3.9470	0.8767	27.14	1.20	1.500			
0.3323	21267.60	3.9440	3.9440	0.8823	27.13	1.19	1.500			
0.3350	21438.27	3.9410	3.9410	0.8891	27.13	1.19	1.500			
0.3376	21608.61	3.9380	3.9381	0.8973	27.12	1.18	1.500			
0.3404	21782.45	3.9350	3.9350	0.9026	27.11	1.17	1.500			
0.3431	21957.69	3.9320	3.9319	0.9082	27.11	1.17	1.500			
0.3458	22130.29	3.9290	3.9290	0.9088	27.10	1.16	1.500			
0.3485	22306.94	3.9260	3.9261	0.9112	27.09	1.15	1.500			
0.3513	22480.46	3.9230	3.9230	0.9193	27.09	1.15	1.500			
0.3540	22656.63	3.9200	3.9200	0.9281	27.08	1.14	1.500			
0.3568	22835.48	3.9170	3.9170	0.9360	27.07	1.13	1.500			
0.3596	23017.19	3.9140	3.9139	0.9460	27.07	1.13	1.500			
0.3625	23200.06	3.9110	3.9110	0.9497	27.06	1.12	1.500			
0.3654	23383.11	3.9080	3.9081	0.9563	27.05	1.11	1.500			
0.3682	23567.82	3.9050	3.9050	0.9634	27.05	1.11	1.500			
0.3711	23751.35	3.9020	3.9019	0.9650	27.04	1.10	1.500			
0.3740	23936.96	3.8990	3.8990	0.9728	27.03	1.09	1.500			
0.3770	24125.18	3.8960	3.8961	0.9832	27.03	1.09	1.500			
0.3799	24316.09	3.8930	3.8929	0.9941	27.02	1.08	1.500			
0.3829	24507.80	3.8900	3.8900	1.0024	27.01	1.07	1.500			
0.3859	24698.84	3.8870	3.8870	1.0111	27.00	1.06	1.500			
0.3890	24894.49	3.8840	3.8840	1.0212	27.00	1.06	1.500			
0.3920	25091.14	3.8810	3.8809	1.0331	26.99	1.05	1.500			
0.3952	25290.36	3.8780	3.8780	1.0461	26.98	1.04	1.500			
0.3983	25493.48	3.8750	3.8751	1.0560	26.97	1.03	1.500			
0.4015	25696.37	3.8720	3.8720	1.0702	26.96	1.02	1.500			
0.4048	25904.07	3.8690	3.8690	1.0820	26.95	1.01	1.500			
0.4080	26112.21	3.8660	3.8659	1.0968	26.94	1.00	1.500			
0.4113	26324.94	3.8630	3.8630	1.1111	26.93	0.99	1.500			
0.4147	26538.78	3.8600	3.8601	1.1233	26.93	0.99	1.500			
0.4181	26756.28	3.8570	3.8569	1.1391	26.92	0.98	1.500			
0.4215	26977.36	3.8540	3.8540	1.1522	26.91	0.97	1.500			
0.4250	27197.43	3.8510	3.8510	1.1622	26.90	0.96	1.500			
0.4285	27422.20	3.8480	3.8480	1.1804	26.89	0.95	1.500			
0.4320	27649.85	3.8450	3.8450	1.1958	26.88	0.94	1.500			
0.4356	27880.85	3.8420	3.8420	1.2200	26.87	0.93	1.500			
0.4393	28116.04	3.8390	3.8390	1.2385	26.86	0.92	1.500			
0.4431	28356.45	3.8360	3.8360	1.2594	26.84	0.90	1.500			
0.4469	28602.56	3.8330	3.8330	1.2714	26.83	0.89	1.500			
0.4507	28847.44	3.8300	3.8300	1.2858	26.81	0.87	1.500			
0.4546	29093.15	3.8270	3.8271	1.3111	26.80	0.86	1.500			
0.4585	29345.89	3.8240	3.8238	1.3387	26.78	0.84	1.500			
0.4626	29603.32	3.8210	3.8210	1.3593	26.77	0.83	1.500			
0.4667	29869.04	3.8180	3.8180	1.3880	26.76	0.82	1.500			
0.4709	30139.07	3.8150	3.8151	1.4049	26.75	0.81	1.500			
0.4752	30414.65	3.8120	3.8120	1.4285	26.73	0.79	1.500			
0.4795	30689.71	3.8090	3.8090	1.4521	26.72	0.78	1.500			
0.4839	30967.89	3.8060	3.8059	1.4753	26.71	0.77	1.500			
0.4883	31254.32	3.8030	3.8030	1.5015	26.70	0.76	1.500			
0.4929	31548.37	3.8000	3.8000	1.5191	26.68	0.74	1.500			
0.4975	31841.88	3.7970	3.7970	1.5462	26.67	0.73	1.500			
0.5021	32137.43	3.7940	3.7940	1.5795	26.65	0.71	1.500			
0.5069	32444.28	3.7910	3.7909	1.6120	26.64	0.70	1.500			
0.5118	32756.06	3.7880	3.7881	1.6304	26.62	0.68	1.500	0.348	0.490	
0.5169	33079.38	3.7850	3.7850	1.6474	26.60	0.66	1.500			
0.5218	33397.64	3.7820	3.7820	1.6497	26.58	0.64	1.500			
0.5267	33708.73	3.7790	3.7791	1.6472	26.57	0.63	1.500			
0.5316	34025.18	3.7760	3.7760	1.6581	26.55	0.61	1.500			
0.5366	34344.72	3.7730	3.7731	1.6734	26.53	0.59	1.500			
0.5417	34667.28	3.7700	3.7700	1.6762	26.52	0.58	1.500			
0.5468	34993.90	3.7670	3.7670	1.6719	26.50	0.56	1.500			
0.5517	35311.60	3.7640	3.7640	1.6744	26.49	0.55	1.500			
0.5567	35630.85	3.7610	3.7610	1.7027	26.48	0.54	1.500			
0.5619	35959.11	3.7580	3.7581	1.7147	26.46	0.52	1.500			
0.5671	36292.79	3.7550	3.7550	1.7367	26.45	0.51	1.500			
0.5723	36628.26	3.7520	3.7520	1.7506	26.43	0.49	1.500			
0.5776	36965.26	3.7490	3.7490	1.7699	26.42	0.48	1.500			
0.5829	37303.53	3.7460	3.7460	1.7917	26.40	0.46	1.500			
0.5884	37654.64	3.7430	3.7430	1.8378	26.39	0.45	1.500			
0.5939	38010.87	3.7400	3.7400	1.8688	26.37	0.43	1.500			
0.5996	38373.16	3.7370	3.7370	1.9129	26.36	0.42	1.500			
0.6053	38742.06	3.7340	3.7340	1.9630	26.34	0.40	1.500			
0.6113	39123.39	3.7310	3.7310	2.0162	26.32	0.38	1.500			
0.6175	39518.48	3.7280	3.7280	2.0683	26.31	0.37	1.500			
0.6238	39920.78	3.7250	3.7250	2.1343	26.29	0.35	1.500			
0.6302	40333.40	3.7220	3.7221	2.1979	26.27	0.33	1.500			
0.6369	40760.76	3.7190	3.7190	2.2620	26.25	0.31	1.500			
0.6439	41208.32	3.7160	3.7160	2.2897	26.24	0.30	1.500			
0.6509	41655.17	3.7130	3.7130	2.2833	26.22	0.28	1.500			
0.6576	42089.45	3.7100	3.7099	2.2412	26.20	0.26	1.500			
0.6644	42521.27	3.7070	3.7070	2.1490	26.19	0.25	1.500			
0.6707	42926.86	3.7040	3.7040	2.0103	26.18	0.24	1.500			
0.6765	43297.42	3.7010	3.7011	1.8800	26.17	0.23	1.500			
0.6819	43642.54	3.6980	3.6979	1.7501	26.16	0.22	1.500			
0.6869	43961.23	3.6950	3.6950	1.6403	26.15	0.21	1.500			
0.6917	44269.58	3.6920	3.6920	1.5684	26.14	0.20	1.500			
0.6963	44563.96	3.6890	3.6890	1.5022	26.13	0.19	1.500			
0.7007	44842.05	3.6860	3.6861	1.4320	26.12	0.18	1.500			
0.7048	45108.53	3.6830	3.6829	1.3750	26.11	0.17	1.500			
0.7088	45363.38	3.6800	3.6801	1.3328	26.10	0.16	1.500			
0.7127	45612.41	3.6770	3.6770	1.2986	26.09	0.15	1.500			
0.7165	45858.38	3.6740	3.6739	1.2790	26.08	0.14	1.500			
0.7203	46100.13	3.6710	3.6710	1.2586	26.07	0.13	1.500			
0.7241	46339.48	3.6680	3.6680	1.2535	26.06	0.12	1.500			
0.7278	46578.07	3.6650	3.6650	1.2491	26.05	0.11	1.500			
0.7315	46815.66	3.6620	3.6620	1.2502	26.05	0.11	1.500			
0.7353	47056.56	3.6590	3.6590	1.2468	26.04	0.10	1.500			
0.7390	47298.21	3.6560	3.6560	1.2466	26.03	0.09	1.500			
0.7428	47539.13	3.6530	3.6530	1.2374	26.02	0.08	1.500			
0.7465	47776.77	3.6500	3.6500	1.2264	26.01	0.07	1.500			
0.7502	48010.22	3.6470	3.6470	1.2126	26.00	0.06	1.500			
0.7538	48241.04	3.6440	3.6440	1.2017	25.99	0.05	1.500			
0.7573	48468.47	3.6410	3.6410	1.1839	25.98	0.04	1.500			
0.7609	48695.69	3.6380	3.6379	1.1780	25.98	0.04	1.500			
0.7644	48921.01	3.6350	3.6351	1.1668	25.97	0.03	1.500			
0.7679	49143.99	3.6320	3.6319	1.1586	25.97	0.03	1.500			
0.7714	49367.04	3.6290	3.6290	1.1425	25.96	0.02	1.500			
0.7748	49585.27	3.6260	3.6260	1.1288	25.96	0.02	1.500			
0.7781	49800.39	3.6230	3.6230	1.1124	25.96	0.02	1.500			
0.7815	50014.00	3.6200	3.6200	1.0962	25.95	0.01	1.500			
0.7847	50220.95	3.6170	3.6169	1.0761	25.95	0.01	1.500			
0.7879	50427.26	3.6140	3.6140	1.0534	25.95	0.01	1.500			
0.7911	50627.72	3.6110	3.6110	1.0288	25.95	0.01	1.500			
0.7941	50824.50	3.6080	3.6079	1.0057	25.95	0.01	1.500			
0.7971	51015.83	3.6050	3.6050	0.9762	25.94	0.00	1.500			
0.8000	51200.92	3.6020	3.6019	0.9454	25.94	0.00	1.500			
0.8028	51380.01	3.5990	3.5990	0.9101	25.94	0.00	1.500			
0.8055	51552.47	3.5960	3.5960	0.8714	25.94	0.00	1.500			
0.8081	51719.90	3.5930	3.5929	0.8187	25.94	0.00	1.500			
0.8106	51875.59	3.5900	3.5900	0.7581	25.94	-0.00	1.500			
0.8128	52016.38	3.5870	3.5870	0.6807	25.94	-0.00	1.500			
0.8147	52142.44	3.5840	3.5840	0.6033	25.94	-0.00	1.500			
0.8164	52248.75	3.5810	3.5810	0.5214	25.94	-0.00	1.500			
0.8178	52339.11	3.5780	3.5780	0.4465	25.94	-0.00	1.500			
0.8190	52412.96	3.5750	3.5750	0.3792	25.94	-0.00	1.500			
0.8200	52477.53	3.5720	3.5719	0.3281	25.94	-0.00	1.500			
0.8208	52532.41	3.5690	3.5689	0.2771	25.94	-0.00	1.500			
0.8216	52579.67	3.5660	3.5659	0.2442	25.93	-0.01	1.500			
0.8222	52620.51	3.5630	3.5630	0.2150	25.93	-0.01	1.500			
0.8228	52658.16	3.5600	3.5599	0.1930	25.93	-0.01	1.500			
0.8233	52692.67	3.5570	3.5570	0.1721	25.93	-0.01	1.500			
0.8238	52723.00	3.5540	3.5541	0.1546	25.93	-0.01	1.500			
0.8242	52750.72	3.5510	3.5510	0.1375	25.93	-0.01	1.500			
0.8246	52775.15	3.5480	3.5479	0.1219	25.93	-0.01	1.500			
0.8250	52797.11	3.5450	3.5450	0.1069	25.93	-0.01	1.500			
0.8252	52815.81	3.5420	3.5421	0.0916	25.93	-0.01	1.500			
0.8255	52832.17	3.5390	3.5391	0.0773	25.93	-0.01	1.500			
0.8257	52845.60	3.5360	3.5362	0.0626	25.93	-0.01	1.500			
0.8259	52856.30	3.5330	3.5335	0.0478	25.93	-0.01	1.500			
0.8260	52864.04	3.5300	3.5309	0.0329	25.93	-0.01	1.500			
