Ah_balance (normalized)	Ah_balance (mAh)	Voltage - fit (V)	Voltage -  interpolate (V)	dQ/dV (1/V)	Temperature (°C)	Temperature - diff (°C)	Current (C)	R_DC 0ms (mOhm)	R_DC 50ms (mOhm)	R_DC 50 ms PEC (mOhm)
0.1758	11252.28	4.1000	4.1000	0.8045	27.31	1.32	1.500			
0.1782	11404.70	4.0970	4.0970	0.7916	27.31	1.32	1.500			
0.1806	11555.72	4.0940	4.0940	0.7907	27.31	1.32	1.500			
0.1829	11707.79	4.0910	4.0909	0.7927	27.31	1.32	1.500			
0.1853	11859.27	4.0880	4.0880	0.7946	27.31	1.32	1.500			
0.1877	12013.05	4.0850	4.0849	0.7987	27.31	1.32	1.500			
0.1901	12167.23	4.0820	4.0820	0.7966	27.31	1.32	1.500			
0.1925	12321.58	4.0790	4.0790	0.7954	27.31	1.32	1.500			
0.1949	12472.95	4.0760	4.0761	0.7946	27.31	1.32	1.500			
0.1973	12624.56	4.0730	4.0731	0.7955	27.31	1.32	1.500			
0.1996	12777.42	4.0700	4.0699	0.8001	27.31	1.32	1.500			
0.2020	12930.46	4.0670	4.0670	0.8009	27.31	1.32	1.500			
0.2045	13085.51	4.0640	4.0640	0.8037	27.31	1.32	1.500			
0.2069	13242.02	4.0610	4.0611	0.8098	27.30	1.31	1.500			
0.2093	13397.17	4.0580	4.0580	0.8097	27.30	1.31	1.500			
0.2118	13552.10	4.0550	4.0549	0.8071	27.30	1.31	1.500			
0.2142	13706.51	4.0520	4.0520	0.8064	27.30	1.31	1.500			
0.2166	13861.43	4.0490	4.0491	0.8079	27.30	1.31	1.500			
0.2190	14016.86	4.0460	4.0460	0.8115	27.29	1.30	1.500			
0.2214	14172.32	4.0430	4.0430	0.8146	27.29	1.30	1.500			
0.2239	14327.29	4.0400	4.0400	0.8180	27.29	1.30	1.500			
0.2263	14485.95	4.0370	4.0369	0.8214	27.29	1.30	1.500			
0.2288	14645.65	4.0340	4.0341	0.8251	27.29	1.30	1.500			
0.2313	14804.42	4.0310	4.0310	0.8251	27.29	1.30	1.500			
0.2338	14963.43	4.0280	4.0281	0.8279	27.28	1.29	1.500			
0.2363	15122.28	4.0250	4.0250	0.8272	27.28	1.29	1.500			
0.2387	15279.40	4.0220	4.0220	0.8278	27.28	1.29	1.500			
0.2412	15438.39	4.0190	4.0191	0.8313	27.28	1.29	1.500			
0.2437	15599.43	4.0160	4.0159	0.8362	27.28	1.29	1.500			
0.2462	15759.74	4.0130	4.0130	0.8364	27.27	1.28	1.500			
0.2488	15920.34	4.0100	4.0100	0.8385	27.27	1.28	1.500			
0.2513	16081.22	4.0070	4.0071	0.8396	27.27	1.28	1.500			
0.2538	16243.35	4.0040	4.0040	0.8420	27.27	1.28	1.500			
0.2563	16404.46	4.0010	4.0009	0.8444	27.27	1.28	1.500			
0.2589	16567.46	3.9980	3.9980	0.8443	27.26	1.27	1.500			
0.2614	16729.81	3.9950	3.9950	0.8460	27.26	1.27	1.500			
0.2639	16891.74	3.9920	3.9920	0.8536	27.26	1.27	1.500			
0.2665	17057.13	3.9890	3.9890	0.8523	27.26	1.27	1.500			
0.2691	17220.47	3.9860	3.9859	0.8570	27.25	1.26	1.500			
0.2716	17385.17	3.9830	3.9831	0.8601	27.25	1.26	1.500			
0.2742	17550.92	3.9800	3.9800	0.8616	27.25	1.26	1.500			
0.2768	17717.46	3.9770	3.9770	0.8638	27.25	1.26	1.500			
0.2794	17883.14	3.9740	3.9740	0.8640	27.24	1.25	1.500			
0.2820	18047.64	3.9710	3.9710	0.8672	27.24	1.25	1.500			
0.2846	18215.55	3.9680	3.9680	0.8756	27.24	1.25	1.500			
0.2872	18382.73	3.9650	3.9650	0.8739	27.24	1.25	1.500			
0.2899	18553.39	3.9620	3.9619	0.8760	27.23	1.24	1.500			
0.2925	18721.42	3.9590	3.9590	0.8804	27.23	1.24	1.500			
0.2951	18888.87	3.9560	3.9561	0.8872	27.23	1.24	1.500			
0.2978	19059.07	3.9530	3.9530	0.8930	27.22	1.23	1.500			
0.3005	19230.69	3.9500	3.9498	0.8956	27.22	1.23	1.500			
0.3032	19404.44	3.9470	3.9469	0.9029	27.22	1.23	1.500			
0.3059	19580.07	3.9440	3.9441	0.9093	27.21	1.22	1.500			
0.3087	19754.93	3.9410	3.9410	0.9111	27.21	1.22	1.500			
0.3114	19928.17	3.9380	3.9380	0.9146	27.21	1.22	1.500			
0.3141	20104.14	3.9350	3.9349	0.9239	27.20	1.21	1.500			
0.3169	20282.67	3.9320	3.9320	0.9216	27.20	1.21	1.500			
0.3197	20460.45	3.9290	3.9291	0.9236	27.20	1.21	1.500			
0.3225	20638.16	3.9260	3.9261	0.9297	27.19	1.20	1.500			
0.3252	20815.70	3.9230	3.9228	0.9376	27.19	1.20	1.500			
0.3280	20995.16	3.9200	3.9199	0.9381	27.19	1.20	1.500			
0.3309	21175.67	3.9170	3.9169	0.9428	27.18	1.19	1.500			
0.3337	21358.07	3.9140	3.9141	0.9520	27.18	1.19	1.500			
0.3366	21542.59	3.9110	3.9111	0.9633	27.17	1.18	1.500			
0.3395	21728.33	3.9080	3.9079	0.9690	27.17	1.18	1.500			
0.3424	21913.95	3.9050	3.9049	0.9687	27.16	1.17	1.500			
0.3453	22099.85	3.9020	3.9021	0.9826	27.16	1.17	1.500			
0.3483	22291.76	3.8990	3.8990	0.9948	27.15	1.16	1.500			
0.3513	22482.94	3.8960	3.8959	0.9993	27.15	1.16	1.500			
0.3543	22675.15	3.8930	3.8931	1.0053	27.14	1.15	1.500			
0.3573	22869.21	3.8900	3.8900	1.0133	27.13	1.14	1.500			
0.3604	23066.31	3.8870	3.8870	1.0204	27.13	1.14	1.500			
0.3635	23262.80	3.8840	3.8840	1.0291	27.12	1.13	1.500			
0.3665	23458.14	3.8810	3.8812	1.0371	27.11	1.12	1.500			
0.3697	23659.75	3.8780	3.8779	1.0475	27.10	1.11	1.500			
0.3728	23860.67	3.8750	3.8750	1.0602	27.10	1.11	1.500			
0.3760	24064.92	3.8720	3.8720	1.0709	27.09	1.10	1.500			
0.3792	24271.25	3.8690	3.8690	1.0862	27.08	1.09	1.500			
0.3826	24483.34	3.8660	3.8660	1.1006	27.08	1.09	1.500			
0.3859	24695.38	3.8630	3.8630	1.1104	27.07	1.08	1.500			
0.3892	24908.71	3.8600	3.8600	1.1227	27.06	1.07	1.500			
0.3926	25126.28	3.8570	3.8570	1.1395	27.06	1.07	1.500			
0.3960	25343.61	3.8540	3.8541	1.1531	27.05	1.06	1.500			
0.3995	25567.56	3.8510	3.8509	1.1715	27.04	1.05	1.500			
0.4030	25794.26	3.8480	3.8481	1.1883	27.03	1.04	1.500			
0.4066	26025.28	3.8450	3.8450	1.2098	27.03	1.04	1.500			
0.4103	26260.27	3.8420	3.8420	1.2266	27.02	1.03	1.500			
0.4140	26496.44	3.8390	3.8390	1.2398	27.01	1.02	1.500			
0.4177	26732.70	3.8360	3.8361	1.2608	27.01	1.02	1.500			
0.4215	26975.55	3.8330	3.8330	1.2833	27.00	1.01	1.500			
0.4254	27224.12	3.8300	3.8298	1.3106	26.99	1.00	1.500			
0.4293	27477.66	3.8270	3.8270	1.3364	26.98	0.99	1.500			
0.4334	27738.22	3.8240	3.8241	1.3594	26.97	0.98	1.500			
0.4376	28003.98	3.8210	3.8210	1.3917	26.96	0.97	1.500			
0.4417	28271.18	3.8180	3.8181	1.4155	26.95	0.96	1.500			
0.4460	28545.29	3.8150	3.8150	1.4483	26.94	0.95	1.500			
0.4504	28825.65	3.8120	3.8119	1.4819	26.93	0.94	1.500			
0.4549	29114.06	3.8090	3.8090	1.5156	26.92	0.93	1.500			
0.4595	29408.73	3.8060	3.8060	1.5498	26.90	0.91	1.500			
0.4642	29708.68	3.8030	3.8030	1.5872	26.89	0.90	1.500			
0.4690	30016.17	3.8000	3.8000	1.6173	26.88	0.89	1.500			
0.4739	30330.10	3.7970	3.7969	1.6551	26.86	0.87	1.500			
0.4789	30650.20	3.7940	3.7940	1.6988	26.85	0.86	1.500			
0.4841	30981.80	3.7910	3.7910	1.7281	26.84	0.85	1.500			
0.4893	31316.80	3.7880	3.7880	1.7700	26.82	0.83	1.500			
0.4947	31659.25	3.7850	3.7850	1.8034	26.81	0.82	1.500			
0.5001	32008.69	3.7820	3.7817	1.8440	26.79	0.80	1.500			
0.5058	32368.53	3.7790	3.7790	1.8746	26.77	0.78	1.500			
0.5114	32730.96	3.7760	3.7760	1.9038	26.76	0.77	1.500			
0.5172	33102.32	3.7730	3.7730	1.9251	26.74	0.75	1.500			
0.5231	33475.43	3.7700	3.7700	1.9402	26.73	0.74	1.500			
0.5289	33851.17	3.7670	3.7670	1.9522	26.71	0.72	1.500			
0.5348	34229.05	3.7640	3.7640	1.9620	26.69	0.70	1.500			
0.5407	34606.50	3.7610	3.7610	1.9666	26.67	0.68	1.500			
0.5467	34986.19	3.7580	3.7581	1.9681	26.65	0.66	1.500			
0.5526	35363.78	3.7550	3.7550	1.9670	26.63	0.64	1.500			
0.5585	35741.02	3.7520	3.7520	1.9643	26.61	0.62	1.500			
0.5643	36116.09	3.7490	3.7490	1.9689	26.59	0.60	1.500			
0.5702	36493.52	3.7460	3.7460	1.9768	26.58	0.59	1.500			
0.5762	36874.81	3.7430	3.7431	1.9966	26.56	0.57	1.500			
0.5822	37257.87	3.7400	3.7400	2.0077	26.54	0.55	1.500			
0.5882	37645.44	3.7370	3.7371	2.0315	26.53	0.54	1.500			
0.5943	38034.49	3.7340	3.7340	2.0592	26.51	0.52	1.500			
0.6005	38433.08	3.7310	3.7309	2.1019	26.50	0.51	1.500			
0.6068	38837.34	3.7280	3.7280	2.1488	26.48	0.49	1.500			
0.6134	39257.54	3.7250	3.7250	2.1956	26.47	0.48	1.500			
0.6200	39681.01	3.7220	3.7220	2.2460	26.45	0.46	1.500			
0.6268	40116.93	3.7190	3.7190	2.3016	26.44	0.45	1.500			
0.6338	40561.63	3.7160	3.7159	2.3547	26.42	0.43	1.500			
0.6409	41019.41	3.7130	3.7131	2.4234	26.40	0.41	1.500			
0.6483	41491.33	3.7100	3.7099	2.5112	26.38	0.39	1.500			
0.6560	41982.06	3.7070	3.7070	2.5884	26.37	0.38	1.500			
0.6639	42489.95	3.7040	3.7040	2.6352	26.35	0.36	1.500			
0.6720	43005.05	3.7010	3.7010	2.6467	26.34	0.35	1.500			
0.6800	43523.16	3.6980	3.6979	2.5761	26.32	0.33	1.500			
0.6877	44010.75	3.6950	3.6950	2.4676	26.31	0.32	1.500			
0.6950	44481.49	3.6920	3.6920	2.3230	26.29	0.30	1.500			
0.7018	44912.39	3.6890	3.6889	2.1489	26.28	0.29	1.500			
0.7079	45305.44	3.6860	3.6861	1.9747	26.27	0.28	1.500			
0.7134	45657.88	3.6830	3.6830	1.8302	26.26	0.27	1.500			
0.7186	45992.52	3.6800	3.6800	1.7004	26.25	0.26	1.500			
0.7234	46298.67	3.6770	3.6769	1.5814	26.24	0.25	1.500			
0.7280	46590.44	3.6740	3.6741	1.4942	26.23	0.24	1.500			
0.7323	46865.68	3.6710	3.6710	1.4271	26.22	0.23	1.500			
0.7364	47132.49	3.6680	3.6679	1.3655	26.21	0.22	1.500			
0.7403	47380.64	3.6650	3.6650	1.3162	26.20	0.21	1.500			
0.7442	47628.86	3.6620	3.6620	1.2937	26.19	0.20	1.500			
0.7480	47872.24	3.6590	3.6591	1.2806	26.19	0.20	1.500			
0.7518	48116.45	3.6560	3.6560	1.2734	26.18	0.19	1.500			
0.7556	48356.72	3.6530	3.6531	1.2770	26.17	0.18	1.500			
0.7594	48601.96	3.6500	3.6499	1.2876	26.16	0.17	1.500			
0.7633	48854.24	3.6470	3.6470	1.2905	26.15	0.16	1.500			
0.7672	49098.97	3.6440	3.6440	1.2972	26.14	0.15	1.500			
0.7711	49348.13	3.6410	3.6412	1.3144	26.13	0.14	1.500			
0.7750	49602.75	3.6380	3.6377	1.3225	26.12	0.13	1.500			
0.7790	49857.80	3.6350	3.6350	1.3261	26.11	0.12	1.500			
0.7830	50113.71	3.6320	3.6321	1.3190	26.09	0.10	1.500			
0.7871	50371.84	3.6290	3.6290	1.3158	26.08	0.09	1.500			
0.7910	50621.82	3.6260	3.6260	1.3114	26.07	0.08	1.500			
0.7949	50870.51	3.6230	3.6230	1.3112	26.06	0.07	1.500			
0.7987	51118.59	3.6200	3.6199	1.3114	26.04	0.05	1.500			
0.8027	51372.92	3.6170	3.6170	1.3163	26.03	0.04	1.500			
0.8067	51628.58	3.6140	3.6141	1.3184	26.02	0.03	1.500			
0.8107	51883.86	3.6110	3.6110	1.3114	26.01	0.02	1.500			
0.8146	52137.27	3.6080	3.6080	1.3024	26.01	0.02	1.500			
0.8185	52383.54	3.6050	3.6050	1.2833	26.00	0.01	1.500			
0.8223	52628.79	3.6020	3.6020	1.2746	25.99	-0.00	1.500			
0.8261	52872.38	3.5990	3.5990	1.2605	25.98	-0.01	1.500			
0.8299	53113.87	3.5960	3.5960	1.2486	25.97	-0.02	1.500			
0.8336	53353.06	3.5930	3.5930	1.2370	25.97	-0.02	1.500			
0.8373	53588.61	3.5900	3.5900	1.2245	25.97	-0.02	1.500			
0.8410	53822.13	3.5870	3.5870	1.2162	25.96	-0.03	1.500			
0.8446	54054.67	3.5840	3.5840	1.2079	25.96	-0.03	1.500			
0.8483	54290.05	3.5810	3.5808	1.1820	25.95	-0.04	1.500			
0.8519	54520.93	3.5780	3.5780	1.1417	25.95	-0.04	1.500			
0.8555	54750.20	3.5750	3.5749	1.0660	25.96	-0.03	1.500			
0.8586	54952.01	3.5720	3.5721	0.9570	25.96	-0.03	1.500			
0.8614	55131.10	3.5690	3.5692	0.8351	25.97	-0.02	1.500			
0.8637	55275.66	3.5660	3.5660	0.6936	25.97	-0.02	1.500			
0.8654	55387.79	3.5630	3.5630	0.5606	25.97	-0.02	1.500			
0.8668	55477.70	3.5600	3.5600	0.4624	25.98	-0.01	1.500			
0.8679	55548.63	3.5570	3.5569	0.3776	25.98	-0.01	1.500			
0.8690	55613.07	3.5540	3.5539	0.3171	25.98	-0.01	1.500			
0.8697	55663.64	3.5510	3.5509	0.2733	25.98	-0.01	1.500			
0.8705	55710.06	3.5480	3.5480	0.2437	25.98	-0.01	1.500			
0.8711	55752.45	3.5450	3.5450	0.2185	25.98	-0.01	1.500			
0.8717	55791.81	3.5420	3.5420	0.1983	25.98	-0.01	1.500			
0.8723	55828.08	3.5390	3.5390	0.1831	25.99	-0.00	1.500			
0.8728	55861.29	3.5360	3.5360	0.1679	25.99	-0.00	1.500			
0.8733	55891.87	3.5330	3.5329	0.1530	25.99	-0.00	1.500			
0.8737	55919.78	3.5300	3.5300	0.1402	25.99	-0.00	1.500			
0.8741	55945.44	3.5270	3.5270	0.1265	25.99	-0.00	1.500			
0.8745	55968.44	3.5240	3.5240	0.1131	25.99	-0.00	1.500			
0.8748	55989.03	3.5210	3.5209	0.1001	25.99	-0.00	1.500			
0.8751	56006.94	3.5180	3.5181	0.0865	25.99	-0.00	1.500			
0.8753	56022.23	3.5150	3.5153	0.0729	25.99	0.00	1.500			
0.8756	56035.77	3.5120	3.5123	0.0587	25.99	0.00	1.500			
0.8757	56045.59	3.5090	3.5094	0.0436	25.99	0.00	1.500			
0.8758	56052.50	3.5060	3.5070	0.0284	25.99	0.00	1.500			
