Ah_balance (normalized)	Ah_balance (mAh)	Voltage - fit (V)	Voltage -  interpolate (V)	dQ/dV (1/V)	Temperature (°C)	Temperature - diff (°C)	Current (C)	R_DC 0ms (mOhm)	R_DC 50ms (mOhm)	R_DC 50 ms PEC (mOhm)
0.2784	17817.14	3.9900	3.9900	0.8447	27.33	1.37	1.500			
0.2809	17979.93	3.9870	3.9870	0.8460	27.33	1.37	1.500			
0.2834	18140.34	3.9840	3.9840	0.8469	27.32	1.36	1.500			
0.2860	18304.32	3.9810	3.9810	0.8491	27.32	1.36	1.500			
0.2886	18468.40	3.9780	3.9779	0.8500	27.31	1.35	1.500			
0.2911	18631.42	3.9750	3.9751	0.8528	27.31	1.35	1.500			
0.2937	18794.66	3.9720	3.9721	0.8531	27.31	1.35	1.500			
0.2962	18959.55	3.9690	3.9690	0.8569	27.30	1.34	1.500			
0.2988	19123.07	3.9660	3.9659	0.8613	27.30	1.34	1.500			
0.3014	19287.30	3.9630	3.9631	0.8653	27.29	1.33	1.500			
0.3040	19456.28	3.9600	3.9600	0.8719	27.29	1.33	1.500			
0.3066	19624.12	3.9570	3.9570	0.8731	27.28	1.32	1.500			
0.3093	19792.07	3.9540	3.9541	0.8751	27.28	1.32	1.500			
0.3119	19961.26	3.9510	3.9510	0.8767	27.27	1.31	1.500			
0.3145	20128.49	3.9480	3.9480	0.8794	27.26	1.30	1.500			
0.3171	20296.15	3.9450	3.9450	0.8834	27.26	1.30	1.500			
0.3198	20466.47	3.9420	3.9421	0.8830	27.25	1.29	1.500			
0.3224	20635.89	3.9390	3.9389	0.8951	27.24	1.28	1.500			
0.3251	20808.56	3.9360	3.9361	0.9037	27.24	1.28	1.500			
0.3279	20983.60	3.9330	3.9329	0.9085	27.23	1.27	1.500			
0.3306	21159.91	3.9300	3.9299	0.9157	27.23	1.27	1.500			
0.3334	21335.10	3.9270	3.9271	0.9217	27.22	1.26	1.500			
0.3361	21512.44	3.9240	3.9240	0.9264	27.21	1.25	1.500			
0.3389	21690.10	3.9210	3.9210	0.9292	27.21	1.25	1.500			
0.3417	21870.10	3.9180	3.9180	0.9345	27.20	1.24	1.500			
0.3445	22049.54	3.9150	3.9151	0.9401	27.19	1.23	1.500			
0.3473	22229.59	3.9120	3.9120	0.9525	27.18	1.22	1.500			
0.3502	22413.31	3.9090	3.9091	0.9584	27.18	1.22	1.500			
0.3531	22597.50	3.9060	3.9059	0.9662	27.17	1.21	1.500			
0.3560	22784.66	3.9030	3.9031	0.9783	27.16	1.20	1.500			
0.3590	22974.49	3.9000	3.9001	0.9799	27.15	1.19	1.500			
0.3619	23164.36	3.8970	3.8969	0.9857	27.15	1.19	1.500			
0.3649	23351.29	3.8940	3.8941	0.9895	27.14	1.18	1.500			
0.3678	23541.31	3.8910	3.8909	0.9938	27.13	1.17	1.500			
0.3708	23733.15	3.8880	3.8880	1.0068	27.12	1.16	1.500			
0.3739	23926.78	3.8850	3.8850	1.0165	27.11	1.15	1.500			
0.3769	24122.73	3.8820	3.8820	1.0295	27.10	1.14	1.500			
0.3800	24322.98	3.8790	3.8791	1.0426	27.10	1.14	1.500			
0.3832	24522.72	3.8760	3.8760	1.0538	27.09	1.13	1.500			
0.3864	24726.77	3.8730	3.8729	1.0606	27.08	1.12	1.500			
0.3896	24931.39	3.8700	3.8700	1.0737	27.07	1.11	1.500			
0.3928	25137.80	3.8670	3.8670	1.0850	27.06	1.10	1.500			
0.3960	25345.72	3.8640	3.8640	1.1007	27.05	1.09	1.500			
0.3994	25558.82	3.8610	3.8609	1.1156	27.04	1.08	1.500			
0.4027	25775.50	3.8580	3.8580	1.1306	27.03	1.07	1.500			
0.4062	25993.84	3.8550	3.8550	1.1430	27.02	1.06	1.500			
0.4096	26216.42	3.8520	3.8520	1.1593	27.01	1.05	1.500			
0.4131	26438.81	3.8490	3.8490	1.1704	27.00	1.04	1.500			
0.4166	26663.07	3.8460	3.8460	1.1860	26.98	1.02	1.500			
0.4202	26891.96	3.8430	3.8430	1.2053	26.97	1.01	1.500			
0.4238	27125.23	3.8400	3.8400	1.2293	26.96	1.00	1.500			
0.4276	27364.42	3.8370	3.8370	1.2491	26.94	0.98	1.500			
0.4314	27606.63	3.8340	3.8340	1.2734	26.93	0.97	1.500			
0.4352	27853.77	3.8310	3.8310	1.2922	26.92	0.96	1.500			
0.4391	28104.74	3.8280	3.8280	1.3070	26.91	0.95	1.500			
0.4430	28354.89	3.8250	3.8250	1.3299	26.90	0.94	1.500			
0.4471	28612.03	3.8220	3.8221	1.3559	26.89	0.93	1.500			
0.4512	28874.43	3.8190	3.8189	1.3792	26.88	0.92	1.500			
0.4554	29142.91	3.8160	3.8160	1.4025	26.86	0.90	1.500			
0.4596	29414.18	3.8130	3.8131	1.4253	26.85	0.89	1.500			
0.4639	29692.26	3.8100	3.8100	1.4453	26.83	0.87	1.500			
0.4683	29969.87	3.8070	3.8070	1.4687	26.82	0.86	1.500			
0.4727	30254.29	3.8040	3.8041	1.4952	26.80	0.84	1.500			
0.4773	30544.71	3.8010	3.8009	1.5264	26.78	0.82	1.500			
0.4819	30841.81	3.7980	3.7981	1.5532	26.77	0.81	1.500			
0.4866	31144.88	3.7950	3.7950	1.5731	26.75	0.79	1.500			
0.4914	31448.62	3.7920	3.7921	1.5999	26.74	0.78	1.500			
0.4962	31754.73	3.7890	3.7890	1.6329	26.72	0.76	1.500			
0.5011	32072.43	3.7860	3.7859	1.6658	26.71	0.75	1.500			
0.5062	32395.69	3.7830	3.7826	1.6838	26.69	0.73	1.500	0.344	0.472	
0.5113	32726.24	3.7800	3.7800	1.7101	26.68	0.72	1.500			
0.5165	33057.58	3.7770	3.7770	1.7038	26.66	0.70	1.500			
0.5216	33380.24	3.7740	3.7740	1.7007	26.64	0.68	1.500			
0.5267	33708.05	3.7710	3.7710	1.7072	26.63	0.67	1.500			
0.5318	34035.91	3.7680	3.7680	1.7213	26.61	0.65	1.500			
0.5370	34367.17	3.7650	3.7650	1.7284	26.60	0.64	1.500			
0.5422	34702.16	3.7620	3.7620	1.7395	26.58	0.62	1.500			
0.5474	35036.28	3.7590	3.7590	1.7363	26.57	0.61	1.500			
0.5527	35369.76	3.7560	3.7558	1.7442	26.55	0.59	1.500			
0.5578	35700.82	3.7530	3.7531	1.7601	26.54	0.58	1.500			
0.5632	36046.12	3.7500	3.7500	1.7755	26.52	0.56	1.500			
0.5685	36385.24	3.7470	3.7470	1.8072	26.51	0.55	1.500			
0.5740	36733.01	3.7440	3.7441	1.8423	26.49	0.53	1.500			
0.5795	37089.98	3.7410	3.7410	1.8722	26.48	0.52	1.500			
0.5852	37453.03	3.7380	3.7380	1.9133	26.46	0.50	1.500			
0.5910	37823.73	3.7350	3.7351	1.9562	26.45	0.49	1.500			
0.5969	38201.58	3.7320	3.7320	1.9929	26.44	0.48	1.500			
0.6030	38588.87	3.7290	3.7290	2.0620	26.42	0.46	1.500			
0.6093	38995.32	3.7260	3.7260	2.1234	26.41	0.45	1.500			
0.6157	39407.14	3.7230	3.7230	2.1736	26.39	0.43	1.500			
0.6223	39829.25	3.7200	3.7201	2.2318	26.37	0.41	1.500			
0.6291	40261.86	3.7170	3.7169	2.3041	26.36	0.40	1.500			
0.6360	40707.05	3.7140	3.7140	2.3575	26.34	0.38	1.500			
0.6432	41167.54	3.7110	3.7111	2.3537	26.32	0.36	1.500			
0.6504	41623.37	3.7080	3.7080	2.3328	26.31	0.35	1.500			
0.6574	42073.61	3.7050	3.7050	2.2428	26.29	0.33	1.500			
0.6640	42495.45	3.7020	3.7021	2.1304	26.27	0.31	1.500			
0.6704	42902.80	3.6990	3.6990	2.0156	26.26	0.30	1.500			
0.6760	43266.63	3.6960	3.6959	1.8548	26.25	0.29	1.500			
0.6814	43606.77	3.6930	3.6931	1.7370	26.23	0.27	1.500			
0.6864	43928.68	3.6900	3.6899	1.6287	26.22	0.26	1.500			
0.6910	44225.57	3.6870	3.6870	1.5272	26.21	0.25	1.500			
0.6955	44509.07	3.6840	3.6840	1.4568	26.20	0.24	1.500			
0.6997	44780.54	3.6810	3.6810	1.3982	26.19	0.23	1.500			
0.7037	45037.49	3.6780	3.6779	1.3519	26.18	0.22	1.500			
0.7077	45291.60	3.6750	3.6750	1.3265	26.17	0.21	1.500			
0.7116	45542.43	3.6720	3.6720	1.3014	26.15	0.19	1.500			
0.7155	45792.23	3.6690	3.6690	1.2859	26.14	0.18	1.500			
0.7193	46035.39	3.6660	3.6660	1.2778	26.13	0.17	1.500			
0.7231	46278.68	3.6630	3.6630	1.2749	26.12	0.16	1.500			
0.7269	46520.35	3.6600	3.6599	1.2755	26.11	0.15	1.500			
0.7307	46765.26	3.6570	3.6571	1.2745	26.09	0.13	1.500			
0.7345	47010.62	3.6540	3.6540	1.2789	26.09	0.13	1.500			
0.7384	47259.64	3.6510	3.6510	1.2789	26.08	0.12	1.500			
0.7423	47506.81	3.6480	3.6480	1.2704	26.07	0.11	1.500			
0.7461	47749.67	3.6450	3.6450	1.2604	26.06	0.10	1.500			
0.7498	47989.74	3.6420	3.6420	1.2486	26.05	0.09	1.500			
0.7535	48226.27	3.6390	3.6389	1.2354	26.04	0.08	1.500			
0.7573	48464.20	3.6360	3.6360	1.2274	26.03	0.07	1.500			
0.7609	48697.92	3.6330	3.6330	1.2177	26.02	0.06	1.500			
0.7646	48932.39	3.6300	3.6300	1.2114	26.01	0.05	1.500			
0.7682	49163.87	3.6270	3.6270	1.2000	26.00	0.04	1.500			
0.7718	49393.35	3.6240	3.6240	1.1888	26.00	0.04	1.500			
0.7753	49621.22	3.6210	3.6210	1.1753	25.99	0.03	1.500			
0.7789	49846.68	3.6180	3.6180	1.1608	25.98	0.02	1.500			
0.7823	50069.47	3.6150	3.6150	1.1432	25.98	0.02	1.500			
0.7857	50286.89	3.6120	3.6120	1.1197	25.97	0.01	1.500			
0.7891	50499.65	3.6090	3.6090	1.0982	25.97	0.01	1.500			
0.7923	50709.13	3.6060	3.6060	1.0730	25.97	0.01	1.500			
0.7955	50912.87	3.6030	3.6030	1.0490	25.97	0.01	1.500			
0.7986	51112.43	3.6000	3.6000	1.0215	25.96	0.00	1.500			
0.8017	51307.40	3.5970	3.5970	0.9880	25.96	0.00	1.500			
0.8046	51494.45	3.5940	3.5940	0.9518	25.96	-0.00	1.500			
0.8075	51677.93	3.5910	3.5910	0.9011	25.96	-0.00	1.500			
0.8101	51847.95	3.5880	3.5879	0.8365	25.95	-0.01	1.500			
0.8126	52008.03	3.5850	3.5850	0.7584	25.95	-0.01	1.500			
0.8148	52145.47	3.5820	3.5821	0.6677	25.95	-0.01	1.500			
0.8167	52265.88	3.5790	3.5790	0.5805	25.95	-0.01	1.500			
0.8182	52367.12	3.5760	3.5759	0.4914	25.95	-0.01	1.500			
0.8195	52447.69	3.5730	3.5730	0.4125	25.95	-0.01	1.500			
0.8206	52517.75	3.5700	3.5700	0.3547	25.95	-0.01	1.500			
0.8215	52576.18	3.5670	3.5669	0.3051	25.95	-0.01	1.500			
0.8223	52628.33	3.5640	3.5640	0.2679	25.94	-0.02	1.500			
0.8230	52672.72	3.5610	3.5610	0.2316	25.94	-0.02	1.500			
0.8237	52713.64	3.5580	3.5579	0.2082	25.94	-0.02	1.500			
0.8242	52750.21	3.5550	3.5551	0.1875	25.94	-0.02	1.500			
0.8247	52783.72	3.5520	3.5520	0.1675	25.94	-0.02	1.500			
0.8252	52813.95	3.5490	3.5490	0.1521	25.94	-0.02	1.500			
0.8256	52841.27	3.5460	3.5459	0.1358	25.94	-0.02	1.500			
0.8260	52865.38	3.5430	3.5430	0.1200	25.94	-0.02	1.500			
0.8264	52887.14	3.5400	3.5400	0.1058	25.94	-0.02	1.500			
0.8267	52906.04	3.5370	3.5370	0.0911	25.94	-0.02	1.500			
0.8269	52922.26	3.5340	3.5343	0.0764	25.94	-0.02	1.500			
0.8271	52935.79	3.5310	3.5313	0.0613	25.94	-0.02	1.500			
0.8273	52946.08	3.5280	3.5286	0.0459	25.94	-0.02	1.500			
0.8274	52953.40	3.5250	3.5262	0.0304	25.94	-0.02	1.500			
