Ah_balance (normalized)	Ah_balance (mAh)	Voltage - fit (V)	Voltage -  interpolate (V)	dQ/dV (1/V)	Temperature (°C)	Temperature - diff (°C)	Current (C)	R_DC 0ms (mOhm)	R_DC 50ms (mOhm)	R_DC 50 ms PEC (mOhm)
0.2822	18060.88	3.9900	3.9900	0.7990	27.34	1.36	1.500			
0.2846	18216.02	3.9870	3.9870	0.8182	27.33	1.35	1.500			
0.2872	18378.90	3.9840	3.9839	0.8373	27.33	1.35	1.500			
0.2897	18539.92	3.9810	3.9809	0.8398	27.32	1.34	1.500			
0.2922	18702.24	3.9780	3.9781	0.8436	27.32	1.34	1.500			
0.2948	18864.25	3.9750	3.9750	0.8463	27.32	1.34	1.500			
0.2973	19026.44	3.9720	3.9719	0.8483	27.31	1.33	1.500			
0.2998	19189.56	3.9690	3.9690	0.8490	27.31	1.33	1.500			
0.3024	19350.90	3.9660	3.9661	0.8546	27.30	1.32	1.500			
0.3050	19517.54	3.9630	3.9630	0.8630	27.30	1.32	1.500			
0.3075	19682.99	3.9600	3.9599	0.8677	27.30	1.32	1.500			
0.3102	19850.24	3.9570	3.9570	0.8725	27.29	1.31	1.500			
0.3128	20018.01	3.9540	3.9541	0.8791	27.29	1.31	1.500			
0.3154	20188.41	3.9510	3.9509	0.8824	27.28	1.30	1.500			
0.3181	20359.21	3.9480	3.9480	0.8831	27.28	1.30	1.500			
0.3207	20526.89	3.9450	3.9451	0.8843	27.27	1.29	1.500			
0.3234	20697.80	3.9420	3.9419	0.8876	27.27	1.29	1.500			
0.3261	20868.67	3.9390	3.9390	0.8898	27.26	1.28	1.500			
0.3287	21039.90	3.9360	3.9360	0.8928	27.26	1.28	1.500			
0.3314	21210.93	3.9330	3.9330	0.8966	27.25	1.27	1.500			
0.3341	21384.25	3.9300	3.9300	0.9022	27.24	1.26	1.500			
0.3368	21557.23	3.9270	3.9270	0.9103	27.23	1.25	1.500			
0.3396	21733.00	3.9240	3.9240	0.9079	27.23	1.25	1.500			
0.3423	21907.92	3.9210	3.9210	0.9199	27.22	1.24	1.500			
0.3451	22084.21	3.9180	3.9181	0.9282	27.21	1.23	1.500			
0.3479	22263.59	3.9150	3.9149	0.9353	27.20	1.22	1.500			
0.3507	22443.61	3.9120	3.9121	0.9457	27.20	1.22	1.500			
0.3535	22625.09	3.9090	3.9090	0.9568	27.19	1.21	1.500			
0.3564	22810.00	3.9060	3.9060	0.9643	27.18	1.20	1.500			
0.3594	22998.43	3.9030	3.9030	0.9776	27.17	1.19	1.500			
0.3623	23186.09	3.9000	3.9000	0.9827	27.17	1.19	1.500			
0.3652	23375.37	3.8970	3.8969	0.9900	27.16	1.18	1.500			
0.3682	23566.30	3.8940	3.8940	0.9971	27.15	1.17	1.500			
0.3712	23756.55	3.8910	3.8910	1.0083	27.15	1.17	1.500			
0.3742	23951.40	3.8880	3.8880	1.0151	27.14	1.16	1.500			
0.3773	24147.81	3.8850	3.8850	1.0276	27.13	1.15	1.500			
0.3804	24345.50	3.8820	3.8820	1.0360	27.12	1.14	1.500			
0.3835	24546.24	3.8790	3.8789	1.0464	27.11	1.13	1.500			
0.3867	24748.34	3.8760	3.8760	1.0516	27.10	1.12	1.500			
0.3899	24950.75	3.8730	3.8731	1.0606	27.09	1.11	1.500			
0.3930	25153.69	3.8700	3.8700	1.0667	27.08	1.10	1.500			
0.3963	25360.56	3.8670	3.8669	1.0791	27.07	1.09	1.500			
0.3995	25565.37	3.8640	3.8641	1.0942	27.06	1.08	1.500			
0.4028	25776.90	3.8610	3.8610	1.1132	27.05	1.07	1.500			
0.4061	25993.10	3.8580	3.8580	1.1290	27.04	1.06	1.500			
0.4096	26212.51	3.8550	3.8550	1.1455	27.02	1.04	1.500			
0.4130	26432.77	3.8520	3.8521	1.1585	27.01	1.03	1.500			
0.4165	26656.95	3.8490	3.8490	1.1788	27.00	1.02	1.500			
0.4201	26884.57	3.8460	3.8460	1.1936	26.99	1.01	1.500			
0.4237	27114.70	3.8430	3.8428	1.2088	26.98	1.00	1.500			
0.4273	27347.97	3.8400	3.8401	1.2298	26.97	0.99	1.500			
0.4310	27586.45	3.8370	3.8370	1.2501	26.96	0.98	1.500			
0.4349	27831.13	3.8340	3.8339	1.2611	26.95	0.97	1.500			
0.4386	28070.17	3.8310	3.8310	1.2779	26.94	0.96	1.500			
0.4425	28317.36	3.8280	3.8281	1.3055	26.93	0.95	1.500			
0.4464	28571.05	3.8250	3.8251	1.3317	26.92	0.94	1.500			
0.4505	28829.26	3.8220	3.8220	1.3557	26.90	0.92	1.500			
0.4546	29092.11	3.8190	3.8191	1.3785	26.89	0.91	1.500			
0.4588	29360.39	3.8160	3.8160	1.4059	26.87	0.89	1.500			
0.4630	29634.28	3.8130	3.8130	1.4387	26.86	0.88	1.500			
0.4673	29909.09	3.8100	3.8100	1.4541	26.84	0.86	1.500			
0.4717	30191.52	3.8070	3.8070	1.4801	26.83	0.85	1.500			
0.4763	30480.23	3.8040	3.8041	1.5068	26.81	0.83	1.500			
0.4808	30772.05	3.8010	3.8010	1.5297	26.79	0.81	1.500			
0.4854	31068.78	3.7980	3.7980	1.5475	26.78	0.80	1.500			
0.4901	31365.09	3.7950	3.7951	1.5689	26.76	0.78	1.500			
0.4948	31666.44	3.7920	3.7920	1.5993	26.74	0.76	1.500			
0.4996	31973.95	3.7890	3.7890	1.6348	26.73	0.75	1.500			
0.5046	32292.78	3.7860	3.7860	1.6661	26.71	0.73	1.500			
0.5097	32619.03	3.7830	3.7831	1.6880	26.70	0.72	1.500	0.343	0.476	
0.5148	32948.12	3.7800	3.7800	1.6939	26.68	0.70	1.500			
0.5199	33275.67	3.7770	3.7772	1.7033	26.67	0.69	1.500			
0.5250	33600.14	3.7740	3.7740	1.6950	26.66	0.68	1.500			
0.5301	33928.40	3.7710	3.7710	1.7062	26.64	0.66	1.500			
0.5352	34253.33	3.7680	3.7680	1.7102	26.62	0.64	1.500			
0.5404	34585.71	3.7650	3.7650	1.7246	26.61	0.63	1.500			
0.5456	34918.69	3.7620	3.7619	1.7264	26.59	0.61	1.500			
0.5508	35250.61	3.7590	3.7590	1.7305	26.57	0.59	1.500			
0.5560	35581.55	3.7560	3.7561	1.7369	26.56	0.58	1.500			
0.5612	35919.48	3.7530	3.7529	1.7309	26.54	0.56	1.500			
0.5663	36244.08	3.7500	3.7501	1.7659	26.53	0.55	1.500			
0.5717	36585.81	3.7470	3.7470	1.8063	26.52	0.54	1.500			
0.5772	36938.44	3.7440	3.7440	1.8510	26.50	0.52	1.500			
0.5828	37297.99	3.7410	3.7411	1.8836	26.48	0.50	1.500			
0.5885	37665.20	3.7380	3.7380	1.9203	26.47	0.49	1.500			
0.5943	38034.52	3.7350	3.7350	1.9474	26.45	0.47	1.500			
0.6001	38409.59	3.7320	3.7321	2.0046	26.43	0.45	1.500			
0.6063	38803.89	3.7290	3.7289	2.0540	26.42	0.44	1.500			
0.6126	39203.38	3.7260	3.7260	2.1140	26.40	0.42	1.500			
0.6190	39614.49	3.7230	3.7230	2.1753	26.37	0.39	1.500			
0.6256	40036.79	3.7200	3.7201	2.2325	26.36	0.38	1.500			
0.6324	40475.84	3.7170	3.7170	2.2915	26.34	0.36	1.500			
0.6394	40923.73	3.7140	3.7140	2.3254	26.32	0.34	1.500			
0.6465	41375.64	3.7110	3.7110	2.3398	26.30	0.32	1.500			
0.6535	41826.76	3.7080	3.7080	2.2987	26.29	0.31	1.500			
0.6604	42267.62	3.7050	3.7050	2.2237	26.27	0.29	1.500			
0.6671	42692.26	3.7020	3.7020	2.1083	26.26	0.28	1.500			
0.6732	43084.69	3.6990	3.6990	1.9713	26.24	0.26	1.500			
0.6788	43444.17	3.6960	3.6960	1.8235	26.23	0.25	1.500			
0.6841	43780.19	3.6930	3.6930	1.7067	26.21	0.23	1.500			
0.6889	44088.76	3.6900	3.6900	1.5966	26.20	0.22	1.500			
0.6935	44385.38	3.6870	3.6870	1.5269	26.19	0.21	1.500			
0.6979	44668.61	3.6840	3.6840	1.4532	26.18	0.20	1.500			
0.7022	44942.14	3.6810	3.6810	1.3983	26.17	0.19	1.500			
0.7063	45201.72	3.6780	3.6780	1.3532	26.16	0.18	1.500			
0.7102	45455.50	3.6750	3.6750	1.3125	26.15	0.17	1.500			
0.7141	45699.56	3.6720	3.6720	1.2890	26.14	0.16	1.500			
0.7179	45943.44	3.6690	3.6690	1.2752	26.13	0.15	1.500			
0.7216	46182.25	3.6660	3.6660	1.2693	26.12	0.14	1.500			
0.7254	46427.69	3.6630	3.6630	1.2783	26.12	0.14	1.500			
0.7293	46672.92	3.6600	3.6600	1.2791	26.11	0.13	1.500			
0.7331	46919.92	3.6570	3.6570	1.2763	26.10	0.12	1.500			
0.7370	47168.28	3.6540	3.6540	1.2750	26.09	0.11	1.500			
0.7408	47411.60	3.6510	3.6510	1.2640	26.08	0.10	1.500			
0.7446	47653.10	3.6480	3.6481	1.2581	26.07	0.09	1.500			
0.7483	47893.19	3.6450	3.6449	1.2485	26.06	0.08	1.500			
0.7521	48131.71	3.6420	3.6420	1.2391	26.05	0.07	1.500			
0.7558	48369.72	3.6390	3.6390	1.2312	26.04	0.06	1.500			
0.7595	48607.15	3.6360	3.6360	1.2222	26.03	0.05	1.500			
0.7631	48839.17	3.6330	3.6330	1.2093	26.03	0.05	1.500			
0.7667	49070.40	3.6300	3.6301	1.2008	26.02	0.04	1.500			
0.7703	49299.94	3.6270	3.6270	1.1900	26.01	0.03	1.500			
0.7739	49527.95	3.6240	3.6240	1.1813	26.00	0.02	1.500			
0.7774	49754.41	3.6210	3.6210	1.1696	25.99	0.01	1.500			
0.7809	49978.39	3.6180	3.6180	1.1557	25.99	0.01	1.500			
0.7844	50199.28	3.6150	3.6150	1.1373	25.98	0.00	1.500			
0.7878	50416.73	3.6120	3.6120	1.1119	25.98	-0.00	1.500			
0.7911	50628.90	3.6090	3.6090	1.0885	25.97	-0.01	1.500			
0.7943	50835.42	3.6060	3.6060	1.0653	25.97	-0.01	1.500			
0.7975	51037.29	3.6030	3.6030	1.0391	25.96	-0.02	1.500			
0.8005	51234.76	3.6000	3.6000	1.0108	25.96	-0.02	1.500			
0.8036	51427.43	3.5970	3.5970	0.9796	25.96	-0.02	1.500			
0.8065	51613.68	3.5940	3.5940	0.9429	25.97	-0.01	1.500			
0.8093	51796.79	3.5910	3.5910	0.8946	25.97	-0.01	1.500			
0.8120	51965.43	3.5880	3.5880	0.8283	25.97	-0.01	1.500			
0.8144	52122.52	3.5850	3.5850	0.7492	25.97	-0.01	1.500			
0.8166	52260.38	3.5820	3.5821	0.6616	25.97	-0.01	1.500			
0.8184	52378.64	3.5790	3.5790	0.5741	25.98	-0.00	1.500			
0.8200	52477.58	3.5760	3.5759	0.4862	25.98	-0.00	1.500			
0.8212	52557.76	3.5730	3.5730	0.4093	25.98	-0.00	1.500			
0.8223	52626.44	3.5700	3.5698	0.3521	25.98	-0.00	1.500			
0.8232	52684.58	3.5670	3.5671	0.3024	25.98	-0.00	1.500			
0.8240	52737.47	3.5640	3.5639	0.2624	25.98	0.00	1.500			
0.8247	52781.86	3.5610	3.5609	0.2320	25.98	0.00	1.500			
0.8254	52822.51	3.5580	3.5580	0.2083	25.98	0.00	1.500			
0.8259	52858.32	3.5550	3.5551	0.1864	25.98	0.00	1.500			
0.8264	52891.92	3.5520	3.5519	0.1673	25.98	0.00	1.500			
0.8269	52922.12	3.5490	3.5490	0.1518	25.98	0.00	1.500			
0.8273	52949.14	3.5460	3.5460	0.1354	25.98	0.00	1.500			
0.8277	52973.55	3.5430	3.5430	0.1208	25.98	0.00	1.500			
0.8281	52995.38	3.5400	3.5400	0.1065	25.98	0.00	1.500			
0.8283	53014.40	3.5370	3.5370	0.0922	25.98	0.00	1.500			
0.8286	53030.66	3.5340	3.5341	0.0780	25.98	0.00	1.500			
0.8288	53044.28	3.5310	3.5313	0.0639	25.98	0.00	1.500			
0.8290	53055.27	3.5280	3.5285	0.0496	25.98	0.00	1.500			
0.8291	53063.41	3.5250	3.5259	0.0353	25.98	0.00	1.500			
