Ah_balance (normalized)	Ah_balance (mAh)	Voltage - fit (V)	Voltage -  interpolate (V)	dQ/dV (1/V)	Temperature (°C)	Temperature - diff (°C)	Current (C)	R_DC 0ms (mOhm)	R_DC 50ms (mOhm)	R_DC 50 ms PEC (mOhm)
0.2778	17782.01	3.9830	3.9830	0.8568	27.12	1.18	1.500			
0.2804	17946.53	3.9800	3.9800	0.8574	27.12	1.18	1.500			
0.2830	18111.01	3.9770	3.9770	0.8594	27.11	1.17	1.500			
0.2856	18276.13	3.9740	3.9740	0.8613	27.10	1.16	1.500			
0.2881	18441.06	3.9710	3.9710	0.8634	27.10	1.16	1.500			
0.2907	18607.46	3.9680	3.9680	0.8647	27.09	1.15	1.500			
0.2934	18774.61	3.9650	3.9649	0.8688	27.09	1.15	1.500			
0.2959	18939.73	3.9620	3.9621	0.8735	27.08	1.14	1.500			
0.2986	19109.08	3.9590	3.9590	0.8763	27.08	1.14	1.500			
0.3012	19276.61	3.9560	3.9560	0.8831	27.07	1.13	1.500			
0.3039	19447.60	3.9530	3.9530	0.8879	27.07	1.13	1.500			
0.3065	19618.12	3.9500	3.9502	0.8928	27.06	1.12	1.500			
0.3092	19790.97	3.9470	3.9470	0.8977	27.06	1.12	1.500			
0.3119	19964.13	3.9440	3.9440	0.8987	27.05	1.11	1.500			
0.3146	20136.45	3.9410	3.9410	0.9003	27.05	1.11	1.500			
0.3173	20309.09	3.9380	3.9380	0.9074	27.04	1.10	1.500			
0.3200	20482.74	3.9350	3.9350	0.9100	27.04	1.10	1.500			
0.3228	20658.83	3.9320	3.9319	0.9168	27.03	1.09	1.500			
0.3256	20835.23	3.9290	3.9289	0.9178	27.02	1.08	1.500			
0.3283	21012.48	3.9260	3.9261	0.9254	27.02	1.08	1.500			
0.3311	21191.68	3.9230	3.9229	0.9318	27.01	1.07	1.500			
0.3339	21370.59	3.9200	3.9199	0.9321	27.01	1.07	1.500			
0.3367	21548.16	3.9170	3.9172	0.9328	27.00	1.06	1.500			
0.3395	21728.06	3.9140	3.9140	0.9400	27.00	1.06	1.500			
0.3423	21910.26	3.9110	3.9110	0.9492	26.99	1.05	1.500			
0.3452	22091.38	3.9080	3.9080	0.9587	26.99	1.05	1.500			
0.3481	22275.60	3.9050	3.9051	0.9629	26.98	1.04	1.500			
0.3510	22462.75	3.9020	3.9020	0.9741	26.97	1.03	1.500			
0.3539	22651.45	3.8990	3.8990	0.9824	26.97	1.03	1.500			
0.3569	22840.92	3.8960	3.8960	0.9875	26.96	1.02	1.500			
0.3598	23030.11	3.8930	3.8931	0.9978	26.96	1.02	1.500			
0.3628	23221.70	3.8900	3.8900	1.0045	26.95	1.01	1.500			
0.3659	23415.28	3.8870	3.8869	1.0132	26.94	1.00	1.500			
0.3689	23612.23	3.8840	3.8840	1.0253	26.93	0.99	1.500			
0.3720	23809.53	3.8810	3.8810	1.0294	26.93	0.99	1.500			
0.3751	24009.37	3.8780	3.8780	1.0452	26.92	0.98	1.500			
0.3783	24210.74	3.8750	3.8750	1.0552	26.91	0.97	1.500			
0.3814	24412.70	3.8720	3.8719	1.0627	26.90	0.96	1.500			
0.3847	24618.33	3.8690	3.8691	1.0790	26.90	0.96	1.500			
0.3879	24827.02	3.8660	3.8660	1.0869	26.89	0.95	1.500			
0.3912	25035.16	3.8630	3.8630	1.1014	26.88	0.94	1.500			
0.3945	25247.98	3.8600	3.8600	1.1101	26.87	0.93	1.500			
0.3979	25463.97	3.8570	3.8570	1.1305	26.86	0.92	1.500			
0.4013	25681.54	3.8540	3.8539	1.1425	26.86	0.92	1.500			
0.4047	25902.41	3.8510	3.8511	1.1613	26.85	0.91	1.500			
0.4082	26126.26	3.8480	3.8480	1.1813	26.84	0.90	1.500			
0.4118	26356.24	3.8450	3.8450	1.2020	26.83	0.89	1.500			
0.4154	26586.90	3.8420	3.8421	1.2127	26.82	0.88	1.500			
0.4191	26824.31	3.8390	3.8390	1.2314	26.80	0.86	1.500			
0.4228	27060.70	3.8360	3.8360	1.2591	26.79	0.85	1.500			
0.4266	27302.53	3.8330	3.8330	1.2817	26.78	0.84	1.500			
0.4305	27549.01	3.8300	3.8301	1.3120	26.77	0.83	1.500			
0.4344	27802.76	3.8270	3.8269	1.3437	26.76	0.82	1.500			
0.4385	28067.12	3.8240	3.8241	1.3685	26.75	0.81	1.500			
0.4427	28334.52	3.8210	3.8210	1.3983	26.74	0.80	1.500			
0.4469	28604.24	3.8180	3.8181	1.4255	26.73	0.79	1.500			
0.4513	28880.56	3.8150	3.8150	1.4443	26.72	0.78	1.500			
0.4556	29159.96	3.8120	3.8119	1.4685	26.71	0.77	1.500			
0.4600	29441.70	3.8090	3.8090	1.4993	26.69	0.75	1.500			
0.4645	29729.97	3.8060	3.8061	1.5408	26.68	0.74	1.500			
0.4692	30030.68	3.8030	3.8029	1.5762	26.66	0.72	1.500			
0.4740	30334.49	3.8000	3.7999	1.6167	26.65	0.71	1.500			
0.4789	30648.86	3.7970	3.7971	1.6631	26.63	0.69	1.500			
0.4840	30975.09	3.7940	3.7940	1.7144	26.62	0.68	1.500			
0.4892	31311.21	3.7910	3.7910	1.7475	26.60	0.66	1.500			
0.4945	31648.79	3.7880	3.7880	1.7762	26.59	0.65	1.500			
0.5000	31997.31	3.7850	3.7850	1.8224	26.58	0.64	1.500			
0.5054	32348.01	3.7820	3.7820	1.8393	26.57	0.63	1.500			
0.5110	32703.33	3.7790	3.7790	1.8650	26.55	0.61	1.500			
0.5166	33060.84	3.7760	3.7761	1.8948	26.53	0.59	1.500			
0.5223	33427.45	3.7730	3.7730	1.9357	26.51	0.57	1.500			
0.5282	33803.54	3.7700	3.7699	1.9533	26.50	0.56	1.500			
0.5342	34186.45	3.7670	3.7671	1.9865	26.48	0.54	1.500	0.360	0.452	
0.5402	34571.64	3.7640	3.7641	1.9861	26.46	0.52	1.500			
0.5462	34955.16	3.7610	3.7610	1.9783	26.45	0.51	1.500			
0.5520	35329.24	3.7580	3.7580	1.9479	26.43	0.49	1.500			
0.5578	35701.00	3.7550	3.7549	1.9401	26.42	0.48	1.500			
0.5637	36074.72	3.7520	3.7520	1.9376	26.41	0.47	1.500			
0.5695	36446.01	3.7490	3.7490	1.9156	26.39	0.45	1.500			
0.5752	36810.79	3.7460	3.7461	1.9313	26.38	0.44	1.500			
0.5810	37183.08	3.7430	3.7429	1.9523	26.36	0.42	1.500			
0.5869	37560.14	3.7400	3.7400	1.9646	26.35	0.41	1.500			
0.5928	37940.38	3.7370	3.7370	1.9755	26.34	0.40	1.500			
0.5987	38318.11	3.7340	3.7340	2.0061	26.33	0.39	1.500			
0.6048	38708.51	3.7310	3.7310	2.0455	26.32	0.38	1.500			
0.6110	39104.79	3.7280	3.7280	2.0906	26.31	0.37	1.500			
0.6174	39513.44	3.7250	3.7250	2.1267	26.30	0.36	1.500			
0.6239	39926.93	3.7220	3.7220	2.1862	26.28	0.34	1.500			
0.6304	40345.85	3.7190	3.7190	2.2373	26.27	0.33	1.500			
0.6372	40783.80	3.7160	3.7160	2.3001	26.25	0.31	1.500			
0.6442	41228.00	3.7130	3.7130	2.3753	26.25	0.31	1.500			
0.6514	41690.95	3.7100	3.7101	2.4493	26.24	0.30	1.500			
0.6589	42170.34	3.7070	3.7069	2.5430	26.23	0.29	1.500			
0.6667	42669.04	3.7040	3.7040	2.5444	26.22	0.28	1.500			
0.6745	43170.97	3.7010	3.7010	2.6036	26.20	0.26	1.500			
0.6823	43668.85	3.6980	3.6978	2.5607	26.19	0.25	1.500			
0.6900	44161.69	3.6950	3.6950	2.4564	26.18	0.24	1.500			
0.6974	44633.00	3.6920	3.6920	2.3385	26.17	0.23	1.500			
0.7040	45055.91	3.6890	3.6891	2.1131	26.16	0.22	1.500			
0.7100	45441.10	3.6860	3.6861	1.9434	26.16	0.22	1.500			
0.7155	45791.36	3.6830	3.6830	1.7912	26.15	0.21	1.500			
0.7206	46118.14	3.6800	3.6800	1.6781	26.14	0.20	1.500			
0.7255	46431.08	3.6770	3.6769	1.5809	26.13	0.19	1.500			
0.7300	46722.30	3.6740	3.6741	1.4971	26.12	0.18	1.500			
0.7344	47001.19	3.6710	3.6710	1.4256	26.12	0.18	1.500			
0.7385	47264.56	3.6680	3.6680	1.3666	26.11	0.17	1.500			
0.7425	47519.00	3.6650	3.6650	1.3162	26.10	0.16	1.500			
0.7463	47763.36	3.6620	3.6620	1.2838	26.09	0.15	1.500			
0.7500	48002.60	3.6590	3.6591	1.2640	26.09	0.15	1.500			
0.7538	48241.90	3.6560	3.6559	1.2604	26.08	0.14	1.500			
0.7575	48480.71	3.6530	3.6530	1.2596	26.07	0.13	1.500			
0.7613	48720.90	3.6500	3.6500	1.2654	26.06	0.12	1.500			
0.7651	48964.00	3.6470	3.6470	1.2796	26.06	0.12	1.500			
0.7690	49214.77	3.6440	3.6440	1.2875	26.05	0.11	1.500			
0.7729	49463.09	3.6410	3.6410	1.2956	26.04	0.10	1.500			
0.7768	49712.75	3.6380	3.6380	1.2971	26.03	0.09	1.500			
0.7807	49961.85	3.6350	3.6352	1.2959	26.02	0.08	1.500			
0.7846	50211.48	3.6320	3.6320	1.2977	26.02	0.08	1.500			
0.7884	50458.88	3.6290	3.6290	1.2953	26.01	0.07	1.500			
0.7923	50707.82	3.6260	3.6259	1.2935	26.00	0.06	1.500			
0.7962	50958.47	3.6230	3.6230	1.2970	25.99	0.05	1.500			
0.8001	51205.86	3.6200	3.6200	1.2883	25.99	0.05	1.500			
0.8040	51453.35	3.6170	3.6170	1.2909	25.98	0.04	1.500			
0.8078	51701.01	3.6140	3.6140	1.2884	25.97	0.03	1.500			
0.8117	51948.74	3.6110	3.6110	1.2770	25.97	0.03	1.500			
0.8155	52194.26	3.6080	3.6081	1.2646	25.96	0.02	1.500			
0.8193	52437.15	3.6050	3.6050	1.2537	25.96	0.02	1.500			
0.8231	52676.15	3.6020	3.6020	1.2355	25.95	0.01	1.500			
0.8267	52911.50	3.5990	3.5990	1.2196	25.95	0.01	1.500			
0.8303	53141.84	3.5960	3.5960	1.2061	25.94	0.00	1.500			
0.8340	53372.86	3.5930	3.5930	1.1896	25.94	0.00	1.500			
0.8375	53600.80	3.5900	3.5900	1.1780	25.94	0.00	1.500			
0.8410	53826.09	3.5870	3.5870	1.1654	25.94	0.00	1.500			
0.8445	54048.11	3.5840	3.5839	1.1507	25.94	0.00	1.500			
0.8480	54269.45	3.5810	3.5809	1.1262	25.94	0.00	1.500			
0.8514	54488.74	3.5780	3.5780	1.0777	25.94	0.00	1.500			
0.8547	54699.57	3.5750	3.5749	1.0111	25.94	0.00	1.500			
0.8577	54893.53	3.5720	3.5720	0.9061	25.94	0.00	1.500			
0.8604	55063.20	3.5690	3.5692	0.7912	25.94	0.00	1.500			
0.8625	55202.09	3.5660	3.5660	0.6669	25.94	0.00	1.500			
0.8643	55314.00	3.5630	3.5629	0.5444	25.94	0.00	1.500			
0.8656	55401.07	3.5600	3.5599	0.4432	25.94	0.00	1.500			
0.8668	55473.27	3.5570	3.5568	0.3710	25.94	0.00	1.500			
0.8677	55533.34	3.5540	3.5538	0.3124	25.94	0.00	1.500			
0.8685	55585.41	3.5510	3.5509	0.2711	25.94	0.00	1.500			
0.8692	55630.27	3.5480	3.5480	0.2383	25.94	0.00	1.500			
0.8699	55671.71	3.5450	3.5449	0.2140	25.94	0.00	1.500			
0.8705	55709.13	3.5420	3.5419	0.1905	25.94	0.00	1.500			
0.8710	55742.83	3.5390	3.5390	0.1726	25.94	0.00	1.500			
0.8715	55773.60	3.5360	3.5360	0.1561	25.94	0.00	1.500			
0.8719	55802.49	3.5330	3.5330	0.1428	25.94	0.00	1.500			
0.8723	55828.47	3.5300	3.5301	0.1286	25.94	0.00	1.500			
0.8727	55851.72	3.5270	3.5271	0.1142	25.94	0.00	1.500			
0.8730	55872.18	3.5240	3.5239	0.0999	25.94	0.00	1.500			
0.8733	55889.98	3.5210	3.5210	0.0859	25.94	0.00	1.500			
0.8735	55905.13	3.5180	3.5182	0.0719	25.94	0.00	1.500			
0.8737	55917.83	3.5150	3.5153	0.0572	25.94	0.00	1.500			
0.8739	55927.41	3.5120	3.5124	0.0425	25.94	0.00	1.500			
