Ah_balance (normalized)	Ah_balance (mAh)	Voltage - fit (V)	Voltage -  interpolate (V)	dQ/dV (1/V)	Temperature (°C)	Temperature - diff (°C)	Current (C)	R_DC 0ms (mOhm)	R_DC 50ms (mOhm)	R_DC 50 ms PEC (mOhm)
0.2676	17128.25	3.9910	3.9910	0.8423	27.39	1.42	1.500			
0.2701	17288.57	3.9880	3.9880	0.8363	27.38	1.41	1.500			
0.2726	17449.48	3.9850	3.9850	0.8410	27.38	1.41	1.500			
0.2752	17610.93	3.9820	3.9819	0.8468	27.37	1.40	1.500			
0.2777	17774.19	3.9790	3.9791	0.8505	27.36	1.39	1.500			
0.2803	17938.16	3.9760	3.9760	0.8576	27.36	1.39	1.500			
0.2829	18103.54	3.9730	3.9730	0.8617	27.35	1.38	1.500			
0.2855	18269.62	3.9700	3.9700	0.8651	27.35	1.38	1.500			
0.2881	18436.32	3.9670	3.9670	0.8648	27.34	1.37	1.500			
0.2907	18604.20	3.9640	3.9640	0.8660	27.33	1.36	1.500			
0.2933	18768.83	3.9610	3.9610	0.8714	27.33	1.36	1.500			
0.2959	18935.47	3.9580	3.9580	0.8767	27.32	1.35	1.500			
0.2985	19104.08	3.9550	3.9550	0.8784	27.31	1.34	1.500			
0.3012	19273.86	3.9520	3.9519	0.8816	27.31	1.34	1.500			
0.3038	19443.38	3.9490	3.9491	0.8858	27.30	1.33	1.500			
0.3065	19614.46	3.9460	3.9460	0.8948	27.30	1.33	1.500			
0.3092	19786.03	3.9430	3.9430	0.8955	27.29	1.32	1.500			
0.3118	19957.38	3.9400	3.9400	0.8967	27.28	1.31	1.500			
0.3145	20129.78	3.9370	3.9370	0.9027	27.28	1.31	1.500			
0.3173	20305.16	3.9340	3.9339	0.9082	27.27	1.30	1.500			
0.3200	20480.41	3.9310	3.9310	0.9131	27.26	1.29	1.500			
0.3227	20655.03	3.9280	3.9280	0.9168	27.26	1.29	1.500			
0.3255	20831.28	3.9250	3.9250	0.9189	27.25	1.28	1.500			
0.3283	21009.42	3.9220	3.9219	0.9289	27.24	1.27	1.500			
0.3310	21187.03	3.9190	3.9191	0.9327	27.24	1.27	1.500			
0.3338	21366.27	3.9160	3.9160	0.9390	27.23	1.26	1.500			
0.3367	21547.49	3.9130	3.9131	0.9481	27.22	1.25	1.500			
0.3395	21730.55	3.9100	3.9099	0.9523	27.22	1.25	1.500			
0.3424	21913.48	3.9070	3.9070	0.9619	27.21	1.24	1.500			
0.3453	22099.50	3.9040	3.9040	0.9702	27.20	1.23	1.500			
0.3482	22285.75	3.9010	3.9011	0.9762	27.20	1.23	1.500			
0.3512	22474.89	3.8980	3.8981	0.9856	27.19	1.22	1.500			
0.3541	22664.57	3.8950	3.8949	0.9946	27.18	1.21	1.500			
0.3571	22855.89	3.8920	3.8921	1.0011	27.17	1.20	1.500			
0.3601	23048.73	3.8890	3.8890	1.0128	27.16	1.19	1.500			
0.3632	23244.33	3.8860	3.8860	1.0202	27.15	1.18	1.500			
0.3663	23442.30	3.8830	3.8829	1.0276	27.14	1.17	1.500			
0.3694	23639.41	3.8800	3.8800	1.0356	27.13	1.16	1.500			
0.3725	23837.77	3.8770	3.8770	1.0466	27.12	1.15	1.500			
0.3756	24039.20	3.8740	3.8740	1.0587	27.11	1.14	1.500			
0.3788	24244.39	3.8710	3.8709	1.0717	27.10	1.13	1.500			
0.3820	24450.31	3.8680	3.8680	1.0821	27.09	1.12	1.500			
0.3853	24661.10	3.8650	3.8651	1.0948	27.08	1.11	1.500			
0.3886	24873.25	3.8620	3.8620	1.1046	27.07	1.10	1.500			
0.3920	25085.01	3.8590	3.8590	1.1166	27.06	1.09	1.500			
0.3953	25299.74	3.8560	3.8560	1.1305	27.05	1.08	1.500			
0.3987	25516.15	3.8530	3.8530	1.1469	27.04	1.07	1.500			
0.4022	25738.41	3.8500	3.8500	1.1664	27.03	1.06	1.500			
0.4057	25964.47	3.8470	3.8470	1.1854	27.02	1.05	1.500			
0.4093	26194.82	3.8440	3.8440	1.2029	27.01	1.04	1.500			
0.4130	26428.84	3.8410	3.8410	1.2154	27.00	1.03	1.500			
0.4166	26663.26	3.8380	3.8380	1.2307	26.99	1.02	1.500			
0.4203	26899.63	3.8350	3.8351	1.2449	26.98	1.01	1.500			
0.4240	27138.82	3.8320	3.8320	1.2644	26.97	1.00	1.500			
0.4279	27382.76	3.8290	3.8290	1.2861	26.96	0.99	1.500			
0.4317	27631.03	3.8260	3.8260	1.3078	26.95	0.98	1.500			
0.4357	27884.77	3.8230	3.8230	1.3309	26.94	0.97	1.500			
0.4398	28144.48	3.8200	3.8200	1.3545	26.93	0.96	1.500			
0.4438	28405.22	3.8170	3.8170	1.3805	26.92	0.95	1.500			
0.4480	28671.93	3.8140	3.8141	1.4060	26.91	0.94	1.500			
0.4523	28944.02	3.8110	3.8110	1.4365	26.89	0.92	1.500			
0.4566	29223.76	3.8080	3.8080	1.4579	26.88	0.91	1.500			
0.4611	29508.42	3.8050	3.8050	1.4718	26.87	0.90	1.500			
0.4655	29792.86	3.8020	3.8021	1.5021	26.85	0.88	1.500			
0.4700	30082.86	3.7990	3.7990	1.5275	26.84	0.87	1.500			
0.4746	30376.69	3.7960	3.7958	1.5494	26.82	0.85	1.500			
0.4793	30675.45	3.7930	3.7931	1.5746	26.81	0.84	1.500			
0.4841	30983.88	3.7900	3.7900	1.6076	26.79	0.82	1.500			
0.4890	31295.45	3.7870	3.7870	1.6400	26.78	0.81	1.500			
0.4939	31610.68	3.7840	3.7836	1.6560	26.76	0.79	1.500	0.347	0.478	
0.4990	31933.50	3.7810	3.7810	1.6759	26.74	0.77	1.500			
0.5041	32260.86	3.7780	3.7780	1.6973	26.73	0.76	1.500			
0.5092	32587.23	3.7750	3.7750	1.6964	26.71	0.74	1.500			
0.5143	32912.34	3.7720	3.7720	1.6988	26.70	0.73	1.500			
0.5193	33235.48	3.7690	3.7690	1.7054	26.68	0.71	1.500			
0.5245	33564.94	3.7660	3.7659	1.7130	26.66	0.69	1.500			
0.5296	33894.97	3.7630	3.7630	1.7308	26.65	0.68	1.500			
0.5348	34228.64	3.7600	3.7601	1.7423	26.64	0.67	1.500			
0.5401	34565.83	3.7570	3.7569	1.7505	26.62	0.65	1.500			
0.5453	34899.69	3.7540	3.7541	1.7612	26.61	0.64	1.500			
0.5506	35240.48	3.7510	3.7510	1.7808	26.60	0.63	1.500			
0.5560	35582.39	3.7480	3.7480	1.7981	26.58	0.61	1.500			
0.5615	35932.98	3.7450	3.7450	1.8131	26.56	0.59	1.500			
0.5669	36283.11	3.7420	3.7420	1.8594	26.55	0.58	1.500			
0.5725	36640.36	3.7390	3.7390	1.9042	26.53	0.56	1.500			
0.5783	37010.90	3.7360	3.7361	1.9574	26.51	0.54	1.500			
0.5843	37394.56	3.7330	3.7329	1.9946	26.49	0.52	1.500			
0.5904	37782.74	3.7300	3.7300	2.0330	26.47	0.50	1.500			
0.5965	38174.76	3.7270	3.7271	2.0862	26.45	0.48	1.500			
0.6028	38579.27	3.7240	3.7240	2.1403	26.43	0.46	1.500			
0.6094	39000.13	3.7210	3.7210	2.1877	26.41	0.44	1.500			
0.6161	39430.13	3.7180	3.7180	2.2643	26.39	0.42	1.500			
0.6229	39865.98	3.7150	3.7149	2.3082	26.37	0.40	1.500			
0.6299	40311.49	3.7120	3.7121	2.3127	26.35	0.38	1.500			
0.6369	40762.14	3.7090	3.7091	2.2783	26.33	0.36	1.500			
0.6437	41196.56	3.7060	3.7060	2.1963	26.32	0.35	1.500			
0.6502	41612.27	3.7030	3.7028	2.0958	26.30	0.33	1.500			
0.6563	42005.67	3.7000	3.7000	1.9889	26.29	0.32	1.500			
0.6622	42379.77	3.6970	3.6970	1.8558	26.27	0.30	1.500			
0.6675	42719.10	3.6940	3.6940	1.7349	26.26	0.29	1.500			
0.6724	43033.14	3.6910	3.6911	1.6317	26.25	0.28	1.500			
0.6771	43337.43	3.6880	3.6879	1.5494	26.24	0.27	1.500			
0.6817	43627.85	3.6850	3.6851	1.4808	26.22	0.25	1.500			
0.6860	43903.90	3.6820	3.6821	1.4322	26.21	0.24	1.500			
0.6902	44175.40	3.6790	3.6789	1.3953	26.20	0.23	1.500			
0.6943	44432.80	3.6760	3.6759	1.3495	26.19	0.22	1.500			
0.6982	44686.44	3.6730	3.6731	1.3223	26.18	0.21	1.500			
0.7021	44936.74	3.6700	3.6700	1.3047	26.17	0.20	1.500			
0.7060	45186.06	3.6670	3.6670	1.2945	26.16	0.19	1.500			
0.7099	45431.97	3.6640	3.6640	1.2843	26.15	0.18	1.500			
0.7137	45676.32	3.6610	3.6610	1.2785	26.14	0.17	1.500			
0.7175	45920.64	3.6580	3.6580	1.2741	26.12	0.15	1.500			
0.7213	46164.96	3.6550	3.6550	1.2718	26.11	0.14	1.500			
0.7251	46409.23	3.6520	3.6520	1.2734	26.10	0.13	1.500			
0.7290	46654.89	3.6490	3.6490	1.2639	26.09	0.12	1.500			
0.7328	46897.78	3.6460	3.6460	1.2568	26.08	0.11	1.500			
0.7366	47140.25	3.6430	3.6430	1.2400	26.07	0.10	1.500			
0.7402	47375.30	3.6400	3.6400	1.2342	26.06	0.09	1.500			
0.7439	47609.61	3.6370	3.6370	1.2244	26.05	0.08	1.500			
0.7475	47842.41	3.6340	3.6340	1.2193	26.04	0.07	1.500			
0.7512	48075.18	3.6310	3.6309	1.2105	26.03	0.06	1.500			
0.7548	48309.43	3.6280	3.6281	1.2050	26.02	0.05	1.500			
0.7585	48541.65	3.6250	3.6250	1.1971	26.01	0.04	1.500			
0.7621	48772.88	3.6220	3.6221	1.1820	26.00	0.03	1.500			
0.7656	48996.84	3.6190	3.6189	1.1594	25.99	0.02	1.500			
0.7690	49218.24	3.6160	3.6160	1.1434	25.98	0.01	1.500			
0.7724	49436.27	3.6130	3.6130	1.1241	25.98	0.01	1.500			
0.7758	49650.61	3.6100	3.6100	1.1064	25.97	0.00	1.500			
0.7791	49861.36	3.6070	3.6070	1.0808	25.97	0.00	1.500			
0.7823	50067.40	3.6040	3.6040	1.0528	25.97	0.00	1.500			
0.7854	50267.90	3.6010	3.6010	1.0241	25.97	0.00	1.500			
0.7885	50461.64	3.5980	3.5980	0.9940	25.97	0.00	1.500			
0.7914	50650.96	3.5950	3.5949	0.9520	25.97	0.00	1.500			
0.7943	50832.07	3.5920	3.5919	0.9053	25.97	0.00	1.500			
0.7969	51004.63	3.5890	3.5890	0.8394	25.97	0.00	1.500			
0.7995	51165.04	3.5860	3.5860	0.7691	25.97	0.00	1.500			
0.8017	51306.63	3.5830	3.5830	0.6800	25.97	0.00	1.500			
0.8036	51429.31	3.5800	3.5800	0.5895	25.97	0.00	1.500			
0.8052	51530.97	3.5770	3.5770	0.5046	25.97	0.00	1.500			
0.8065	51617.50	3.5740	3.5739	0.4280	25.97	0.00	1.500			
0.8076	51686.83	3.5710	3.5710	0.3604	25.97	0.00	1.500			
0.8086	51748.55	3.5680	3.5679	0.3143	25.97	0.00	1.500			
0.8094	51801.39	3.5650	3.5650	0.2750	25.97	0.00	1.500			
0.8101	51849.13	3.5620	3.5620	0.2444	25.97	0.00	1.500			
0.8108	51891.58	3.5590	3.5589	0.2159	25.97	0.00	1.500			
0.8114	51929.83	3.5560	3.5559	0.1957	25.97	0.00	1.500			
0.8119	51963.95	3.5530	3.5531	0.1765	25.97	0.00	1.500			
0.8124	51995.99	3.5500	3.5500	0.1602	25.97	0.00	1.500			
0.8129	52025.19	3.5470	3.5469	0.1459	25.97	0.00	1.500			
0.8133	52051.62	3.5440	3.5440	0.1313	25.97	0.00	1.500			
0.8137	52075.37	3.5410	3.5411	0.1166	25.97	0.00	1.500			
0.8140	52096.62	3.5380	3.5380	0.1031	25.97	0.00	1.500			
0.8143	52115.02	3.5350	3.5350	0.0886	25.97	0.00	1.500			
0.8145	52130.60	3.5320	3.5322	0.0741	25.97	0.00	1.500			
0.8147	52143.67	3.5290	3.5293	0.0596	25.97	0.00	1.500			
0.8149	52153.70	3.5260	3.5266	0.0448	25.97	0.00	1.500			
0.8150	52160.87	3.5230	3.5241	0.0300	25.97	0.00	1.500			
