Ah_balance (normalized)	Ah_balance (mAh)	Voltage - fit (V)	Voltage -  interpolate (V)	dQ/dV (1/V)	Temperature (°C)	Temperature - diff (°C)	Current (C)	R_DC 0ms (mOhm)	R_DC 50ms (mOhm)	R_DC 50 ms PEC (mOhm)
0.2800	17918.35	3.9700	3.9700	0.9097	27.31	1.33	1.500			
0.2827	18092.25	3.9670	3.9671	0.9043	27.30	1.32	1.500			
0.2854	18265.81	3.9640	3.9639	0.9032	27.30	1.32	1.500			
0.2881	18438.07	3.9610	3.9610	0.9056	27.30	1.32	1.500			
0.2908	18612.79	3.9580	3.9580	0.9031	27.30	1.32	1.500			
0.2935	18786.81	3.9550	3.9550	0.9068	27.30	1.32	1.500			
0.2963	18960.93	3.9520	3.9520	0.9114	27.29	1.31	1.500			
0.2990	19135.62	3.9490	3.9490	0.9121	27.29	1.31	1.500			
0.3017	19309.90	3.9460	3.9461	0.9189	27.29	1.31	1.500			
0.3045	19486.27	3.9430	3.9430	0.9256	27.29	1.31	1.500			
0.3072	19663.98	3.9400	3.9400	0.9343	27.28	1.30	1.500			
0.3101	19845.87	3.9370	3.9369	0.9367	27.28	1.30	1.500			
0.3129	20026.78	3.9340	3.9340	0.9406	27.28	1.30	1.500			
0.3157	20208.00	3.9310	3.9311	0.9450	27.28	1.30	1.500			
0.3186	20390.40	3.9280	3.9279	0.9505	27.27	1.29	1.500			
0.3214	20571.18	3.9250	3.9250	0.9487	27.27	1.29	1.500			
0.3243	20753.47	3.9220	3.9219	0.9586	27.27	1.29	1.500			
0.3272	20938.02	3.9190	3.9191	0.9663	27.27	1.29	1.500			
0.3301	21125.22	3.9160	3.9159	0.9783	27.26	1.28	1.500			
0.3330	21313.95	3.9130	3.9130	0.9836	27.26	1.28	1.500			
0.3360	21502.35	3.9100	3.9101	0.9875	27.25	1.27	1.500			
0.3390	21694.45	3.9070	3.9070	0.9984	27.25	1.27	1.500			
0.3420	21887.06	3.9040	3.9040	1.0123	27.24	1.26	1.500			
0.3450	22081.99	3.9010	3.9010	1.0188	27.24	1.26	1.500			
0.3481	22279.13	3.8980	3.8979	1.0289	27.23	1.25	1.500			
0.3512	22477.71	3.8950	3.8951	1.0354	27.23	1.25	1.500			
0.3543	22678.07	3.8920	3.8920	1.0472	27.22	1.24	1.500			
0.3575	22878.88	3.8890	3.8891	1.0529	27.21	1.23	1.500			
0.3606	23081.58	3.8860	3.8860	1.0603	27.21	1.23	1.500			
0.3638	23284.70	3.8830	3.8831	1.0683	27.20	1.22	1.500			
0.3671	23491.81	3.8800	3.8800	1.0889	27.20	1.22	1.500			
0.3703	23701.67	3.8770	3.8769	1.1056	27.19	1.21	1.500			
0.3737	23915.56	3.8740	3.8739	1.1251	27.18	1.20	1.500			
0.3771	24134.29	3.8710	3.8711	1.1332	27.18	1.20	1.500			
0.3805	24354.70	3.8680	3.8681	1.1505	27.17	1.19	1.500			
0.3840	24576.82	3.8650	3.8650	1.1615	27.17	1.19	1.500			
0.3875	24801.10	3.8620	3.8619	1.1651	27.16	1.18	1.500			
0.3910	25023.66	3.8590	3.8590	1.1829	27.16	1.18	1.500			
0.3945	25249.40	3.8560	3.8560	1.2017	27.16	1.18	1.500			
0.3981	25481.60	3.8530	3.8530	1.2234	27.15	1.17	1.500			
0.4019	25719.68	3.8500	3.8500	1.2527	27.15	1.17	1.500			
0.4056	25960.94	3.8470	3.8470	1.2757	27.14	1.16	1.500			
0.4096	26212.74	3.8440	3.8440	1.2942	27.13	1.15	1.500			
0.4135	26462.98	3.8410	3.8410	1.3233	27.12	1.14	1.500			
0.4175	26716.91	3.8380	3.8381	1.3416	27.11	1.13	1.500			
0.4215	26975.45	3.8350	3.8350	1.3702	27.10	1.12	1.500			
0.4256	27240.89	3.8320	3.8319	1.3954	27.09	1.11	1.500			
0.4299	27511.40	3.8290	3.8290	1.4206	27.08	1.10	1.500			
0.4342	27789.66	3.8260	3.8260	1.4425	27.07	1.09	1.500			
0.4386	28067.97	3.8230	3.8231	1.4803	27.06	1.08	1.500			
0.4430	28351.37	3.8200	3.8200	1.5120	27.05	1.07	1.500			
0.4476	28645.11	3.8170	3.8169	1.5497	27.04	1.06	1.500			
0.4523	28945.39	3.8140	3.8141	1.5928	27.02	1.04	1.500			
0.4571	29257.57	3.8110	3.8111	1.6345	27.01	1.03	1.500			
0.4621	29575.02	3.8080	3.8080	1.6788	27.00	1.02	1.500			
0.4671	29897.44	3.8050	3.8051	1.7177	26.98	1.00	1.500			
0.4724	30231.27	3.8020	3.8020	1.7747	26.97	0.99	1.500			
0.4778	30577.05	3.7990	3.7990	1.8236	26.95	0.97	1.500			
0.4833	30933.56	3.7960	3.7960	1.8725	26.94	0.96	1.500			
0.4890	31298.02	3.7930	3.7931	1.9271	26.93	0.95	1.500			
0.4949	31672.08	3.7900	3.7900	1.9843	26.91	0.93	1.500			
0.5009	32057.14	3.7870	3.7868	2.0477	26.90	0.92	1.500			
0.5071	32454.33	3.7840	3.7840	2.0999	26.87	0.89	1.500			
0.5135	32866.71	3.7810	3.7810	2.1665	26.85	0.87	1.500			
0.5201	33287.56	3.7780	3.7781	2.2255	26.82	0.84	1.500			
0.5269	33722.84	3.7750	3.7750	2.2877	26.79	0.81	1.500			
0.5339	34166.82	3.7720	3.7721	2.3430	26.77	0.79	1.500			
0.5409	34620.46	3.7690	3.7690	2.4073	26.75	0.77	1.500			
0.5483	35088.03	3.7660	3.7660	2.4706	26.72	0.74	1.500			
0.5558	35572.84	3.7630	3.7630	2.5229	26.70	0.72	1.500			
0.5636	36070.07	3.7600	3.7591	2.5903	26.67	0.69	1.500	0.369	0.439	
0.5715	36574.37	3.7570	3.7569	2.5573	26.63	0.65	1.500			
0.5792	37065.73	3.7540	3.7541	2.5016	26.61	0.63	1.500			
0.5865	37532.90	3.7510	3.7510	2.4326	26.58	0.60	1.500			
0.5937	37995.12	3.7480	3.7480	2.3883	26.56	0.58	1.500			
0.6008	38453.44	3.7450	3.7449	2.3820	26.54	0.56	1.500			
0.6080	38915.17	3.7420	3.7420	2.3410	26.51	0.53	1.500			
0.6149	39354.40	3.7390	3.7390	2.3268	26.49	0.51	1.500			
0.6218	39795.60	3.7360	3.7360	2.3010	26.46	0.48	1.500			
0.6287	40236.77	3.7330	3.7330	2.2989	26.44	0.46	1.500			
0.6356	40677.90	3.7300	3.7301	2.3014	26.42	0.44	1.500			
0.6425	41117.90	3.7270	3.7270	2.3241	26.40	0.42	1.500			
0.6494	41558.77	3.7240	3.7239	2.3375	26.38	0.40	1.500			
0.6565	42019.00	3.7210	3.7210	2.3479	26.36	0.38	1.500			
0.6637	42476.84	3.7180	3.7181	2.4312	26.34	0.36	1.500			
0.6710	42941.49	3.7150	3.7151	2.4834	26.31	0.33	1.500			
0.6784	43419.91	3.7120	3.7121	2.5577	26.29	0.31	1.500			
0.6862	43914.75	3.7090	3.7091	2.7041	26.28	0.30	1.500			
0.6946	44457.58	3.7060	3.7060	2.8810	26.26	0.28	1.500			
0.7034	45017.93	3.7030	3.7030	2.9581	26.24	0.26	1.500			
0.7125	45598.00	3.7000	3.7001	3.0186	26.22	0.24	1.500			
0.7216	46183.18	3.6970	3.6969	3.0141	26.21	0.23	1.500			
0.7306	46760.90	3.6940	3.6941	2.9592	26.19	0.21	1.500			
0.7396	47333.98	3.6910	3.6910	2.8668	26.18	0.20	1.500			
0.7481	47875.49	3.6880	3.6879	2.6549	26.16	0.18	1.500			
0.7557	48363.94	3.6850	3.6850	2.4019	26.16	0.18	1.500			
0.7624	48795.07	3.6820	3.6821	2.1628	26.15	0.17	1.500			
0.7684	49175.17	3.6790	3.6791	1.9419	26.15	0.17	1.500			
0.7739	49528.87	3.6760	3.6758	1.7808	26.14	0.16	1.500			
0.7787	49839.79	3.6730	3.6730	1.6315	26.14	0.16	1.500			
0.7835	50141.75	3.6700	3.6700	1.5291	26.13	0.15	1.500			
0.7879	50422.48	3.6670	3.6670	1.4393	26.13	0.15	1.500			
0.7920	50688.36	3.6640	3.6640	1.3622	26.13	0.15	1.500			
0.7958	50932.90	3.6610	3.6611	1.2939	26.12	0.14	1.500			
0.7996	51175.28	3.6580	3.6579	1.2504	26.12	0.14	1.500			
0.8032	51405.91	3.6550	3.6550	1.2171	26.11	0.13	1.500			
0.8068	51633.88	3.6520	3.6520	1.2005	26.11	0.13	1.500			
0.8103	51859.94	3.6490	3.6491	1.2017	26.10	0.12	1.500			
0.8139	52089.59	3.6460	3.6459	1.2049	26.10	0.12	1.500			
0.8175	52318.74	3.6430	3.6430	1.2183	26.09	0.11	1.500			
0.8212	52555.85	3.6400	3.6400	1.2345	26.09	0.11	1.500			
0.8249	52795.95	3.6370	3.6370	1.2514	26.08	0.10	1.500			
0.8287	53038.69	3.6340	3.6340	1.2589	26.07	0.09	1.500			
0.8325	53282.30	3.6310	3.6311	1.2614	26.06	0.08	1.500			
0.8364	53526.43	3.6280	3.6280	1.2551	26.06	0.08	1.500			
0.8401	53767.19	3.6250	3.6251	1.2580	26.05	0.07	1.500			
0.8438	54005.32	3.6220	3.6220	1.2581	26.04	0.06	1.500			
0.8476	54245.97	3.6190	3.6191	1.2669	26.03	0.05	1.500			
0.8514	54488.48	3.6160	3.6160	1.2766	26.03	0.05	1.500			
0.8552	54735.75	3.6130	3.6130	1.2862	26.02	0.04	1.500			
0.8591	54985.56	3.6100	3.6100	1.2910	26.02	0.04	1.500			
0.8631	55236.72	3.6070	3.6070	1.2931	26.01	0.03	1.500			
0.8669	55482.60	3.6040	3.6040	1.2824	26.01	0.03	1.500			
0.8708	55728.65	3.6010	3.6011	1.2727	26.00	0.02	1.500			
0.8746	55972.57	3.5980	3.5978	1.2645	26.00	0.02	1.500			
0.8784	56214.52	3.5950	3.5951	1.2502	26.00	0.02	1.500			
0.8821	56454.24	3.5920	3.5920	1.2399	25.99	0.01	1.500			
0.8858	56692.93	3.5890	3.5890	1.2275	25.99	0.01	1.500			
0.8894	56924.54	3.5860	3.5860	1.2092	25.98	0.00	1.500			
0.8930	57154.29	3.5830	3.5830	1.2052	25.98	-0.00	1.500			
0.8966	57382.94	3.5800	3.5801	1.2151	25.97	-0.01	1.500			
0.9002	57614.62	3.5770	3.5769	1.2215	25.97	-0.01	1.500			
0.9040	57856.69	3.5740	3.5739	1.2091	25.97	-0.01	1.500			
0.9078	58097.62	3.5710	3.5710	1.1732	25.97	-0.01	1.500			
0.9114	58331.80	3.5680	3.5680	1.0738	25.97	-0.01	1.500			
0.9147	58538.40	3.5650	3.5653	0.9483	25.98	-0.00	1.500			
0.9174	58715.04	3.5620	3.5620	0.8006	25.98	-0.00	1.500			
0.9195	58850.06	3.5590	3.5591	0.6390	25.98	-0.00	1.500			
0.9211	58947.57	3.5560	3.5558	0.4960	25.98	-0.00	1.500			
0.9222	59023.30	3.5530	3.5528	0.3937	25.98	-0.00	1.500			
0.9231	59081.36	3.5500	3.5498	0.3120	25.98	-0.00	1.500			
0.9239	59129.25	3.5470	3.5470	0.2558	25.98	-0.00	1.500			
0.9245	59170.12	3.5440	3.5438	0.2066	25.98	-0.00	1.500			
0.9251	59203.82	3.5410	3.5411	0.1758	25.98	0.00	1.500			
0.9255	59232.83	3.5380	3.5379	0.1424	25.98	0.00	1.500			
0.9259	59257.16	3.5350	3.5349	0.1154	25.98	0.00	1.500			
0.9262	59275.91	3.5320	3.5320	0.0900	25.98	0.00	1.500			
0.9264	59290.94	3.5290	3.5292	0.0666	25.98	0.00	1.500			
0.9266	59301.35	3.5260	3.5265	0.0468	25.98	0.00	1.500			
