Ah_balance (normalized)	Ah_balance (mAh)	Voltage - fit (V)	Voltage -  interpolate (V)	dQ/dV (1/V)	Temperature (°C)	Temperature - diff (°C)	Current (C)	R_DC 0ms (mOhm)	R_DC 50ms (mOhm)	R_DC 50 ms PEC (mOhm)
0.2918	18678.02	3.9720	3.9719	0.9031	27.02	1.08	1.500			
0.2945	18848.44	3.9690	3.9690	0.8855	27.01	1.07	1.500			
0.2972	19017.94	3.9660	3.9660	0.8818	27.01	1.07	1.500			
0.2998	19186.68	3.9630	3.9630	0.8792	27.01	1.07	1.500			
0.3024	19354.57	3.9600	3.9600	0.8804	27.00	1.06	1.500			
0.3050	19522.30	3.9570	3.9570	0.8808	27.00	1.06	1.500			
0.3077	19691.22	3.9540	3.9540	0.8879	27.00	1.06	1.500			
0.3104	19862.55	3.9510	3.9510	0.8943	26.99	1.05	1.500			
0.3130	20035.05	3.9480	3.9480	0.8967	26.99	1.05	1.500			
0.3157	20207.61	3.9450	3.9450	0.9060	26.99	1.05	1.500			
0.3185	20382.73	3.9420	3.9421	0.9103	26.98	1.04	1.500			
0.3212	20557.83	3.9390	3.9390	0.9119	26.98	1.04	1.500			
0.3240	20733.12	3.9360	3.9359	0.9186	26.98	1.04	1.500			
0.3267	20908.85	3.9330	3.9331	0.9256	26.97	1.03	1.500			
0.3295	21087.61	3.9300	3.9300	0.9307	26.97	1.03	1.500			
0.3323	21267.14	3.9270	3.9270	0.9359	26.97	1.03	1.500			
0.3351	21447.12	3.9240	3.9240	0.9358	26.96	1.02	1.500			
0.3379	21627.08	3.9210	3.9209	0.9484	26.96	1.02	1.500			
0.3408	21810.08	3.9180	3.9181	0.9539	26.96	1.02	1.500			
0.3436	21992.29	3.9150	3.9149	0.9619	26.95	1.01	1.500			
0.3465	22178.89	3.9120	3.9120	0.9662	26.95	1.01	1.500			
0.3495	22366.46	3.9090	3.9090	0.9751	26.95	1.01	1.500			
0.3524	22554.21	3.9060	3.9060	0.9806	26.94	1.00	1.500			
0.3554	22743.28	3.9030	3.9029	0.9839	26.94	1.00	1.500			
0.3583	22929.75	3.9000	3.9000	0.9870	26.94	1.00	1.500			
0.3613	23121.24	3.8970	3.8971	0.9963	26.93	0.99	1.500			
0.3643	23312.12	3.8940	3.8940	1.0050	26.93	0.99	1.500			
0.3673	23506.74	3.8910	3.8910	1.0197	26.92	0.98	1.500			
0.3703	23701.68	3.8880	3.8880	1.0305	26.92	0.98	1.500			
0.3735	23901.71	3.8850	3.8850	1.0415	26.91	0.97	1.500			
0.3766	24104.38	3.8820	3.8820	1.0511	26.90	0.96	1.500			
0.3798	24306.53	3.8790	3.8790	1.0619	26.90	0.96	1.500			
0.3830	24511.88	3.8760	3.8760	1.0729	26.89	0.95	1.500			
0.3862	24717.97	3.8730	3.8730	1.0837	26.88	0.94	1.500			
0.3895	24925.84	3.8700	3.8700	1.0962	26.88	0.94	1.500			
0.3928	25138.48	3.8670	3.8670	1.1098	26.87	0.93	1.500			
0.3961	25353.58	3.8640	3.8640	1.1265	26.86	0.92	1.500			
0.3995	25570.13	3.8610	3.8610	1.1418	26.85	0.91	1.500			
0.4030	25790.31	3.8580	3.8580	1.1545	26.85	0.91	1.500			
0.4065	26012.94	3.8550	3.8549	1.1731	26.84	0.90	1.500			
0.4100	26238.97	3.8520	3.8520	1.1928	26.83	0.89	1.500			
0.4136	26470.67	3.8490	3.8490	1.2088	26.82	0.88	1.500			
0.4173	26705.46	3.8460	3.8460	1.2274	26.81	0.87	1.500			
0.4210	26942.01	3.8430	3.8430	1.2457	26.81	0.87	1.500			
0.4247	27183.70	3.8400	3.8400	1.2609	26.80	0.86	1.500			
0.4285	27426.34	3.8370	3.8370	1.2857	26.80	0.86	1.500			
0.4324	27673.21	3.8340	3.8340	1.3105	26.79	0.85	1.500			
0.4363	27926.34	3.8310	3.8311	1.3374	26.78	0.84	1.500			
0.4404	28187.43	3.8280	3.8280	1.3671	26.78	0.84	1.500			
0.4446	28453.88	3.8250	3.8250	1.3939	26.77	0.83	1.500			
0.4488	28723.97	3.8220	3.8220	1.4203	26.76	0.82	1.500			
0.4531	28999.04	3.8190	3.8190	1.4567	26.75	0.81	1.500			
0.4575	29279.19	3.8160	3.8161	1.4857	26.74	0.80	1.500			
0.4620	29566.04	3.8130	3.8129	1.5264	26.73	0.79	1.500			
0.4666	29863.57	3.8100	3.8101	1.5616	26.72	0.78	1.500			
0.4714	30169.42	3.8070	3.8069	1.5951	26.71	0.77	1.500			
0.4762	30478.63	3.8040	3.8040	1.6327	26.70	0.76	1.500			
0.4811	30792.90	3.8010	3.8010	1.6785	26.69	0.75	1.500			
0.4863	31120.20	3.7980	3.7980	1.7312	26.68	0.74	1.500			
0.4915	31455.53	3.7950	3.7950	1.7792	26.67	0.73	1.500			
0.4969	31803.63	3.7920	3.7920	1.8395	26.66	0.72	1.500			
0.5025	32161.60	3.7890	3.7890	1.8909	26.64	0.70	1.500			
0.5083	32530.71	3.7860	3.7860	1.9259	26.62	0.68	1.500			
0.5141	32904.52	3.7830	3.7831	1.9676	26.61	0.67	1.500			
0.5201	33287.44	3.7800	3.7800	2.0220	26.59	0.65	1.500			
0.5262	33679.79	3.7770	3.7770	2.0741	26.57	0.63	1.500			
0.5325	34082.07	3.7740	3.7741	2.1170	26.56	0.62	1.500			
0.5390	34498.16	3.7710	3.7709	2.1632	26.54	0.60	1.500			
0.5456	34915.62	3.7680	3.7680	2.1911	26.52	0.58	1.500			
0.5521	35336.32	3.7650	3.7651	2.2173	26.50	0.56	1.500			
0.5589	35767.69	3.7620	3.7616	2.2326	26.47	0.53	1.500	0.361	0.455	
0.5657	36203.82	3.7590	3.7590	2.2399	26.45	0.51	1.500			
0.5725	36638.35	3.7560	3.7560	2.2104	26.43	0.49	1.500			
0.5790	37054.03	3.7530	3.7531	2.1625	26.42	0.48	1.500			
0.5854	37467.06	3.7500	3.7499	2.1291	26.40	0.46	1.500			
0.5917	37869.37	3.7470	3.7471	2.0948	26.38	0.44	1.500			
0.5979	38268.41	3.7440	3.7440	2.0689	26.37	0.43	1.500			
0.6041	38663.51	3.7410	3.7410	2.0741	26.36	0.42	1.500			
0.6103	39056.98	3.7380	3.7380	2.0709	26.35	0.41	1.500			
0.6165	39456.56	3.7350	3.7350	2.0912	26.33	0.39	1.500			
0.6228	39861.67	3.7320	3.7320	2.0984	26.32	0.38	1.500			
0.6291	40265.19	3.7290	3.7289	2.1258	26.30	0.36	1.500			
0.6355	40671.45	3.7260	3.7261	2.1499	26.29	0.35	1.500			
0.6420	41086.24	3.7230	3.7230	2.2087	26.27	0.33	1.500			
0.6486	41511.90	3.7200	3.7200	2.2643	26.26	0.32	1.500			
0.6555	41951.63	3.7170	3.7170	2.3411	26.24	0.30	1.500			
0.6626	42408.72	3.7140	3.7139	2.4280	26.22	0.28	1.500			
0.6701	42884.68	3.7110	3.7110	2.5078	26.21	0.27	1.500			
0.6777	43372.22	3.7080	3.7081	2.6156	26.19	0.25	1.500			
0.6858	43888.34	3.7050	3.7049	2.7175	26.18	0.24	1.500			
0.6940	44415.25	3.7020	3.7021	2.7908	26.16	0.22	1.500			
0.7025	44961.82	3.6990	3.6990	2.8022	26.14	0.20	1.500			
0.7109	45497.59	3.6960	3.6960	2.7593	26.13	0.19	1.500			
0.7193	46036.79	3.6930	3.6930	2.6455	26.12	0.18	1.500			
0.7271	46532.43	3.6900	3.6900	2.4847	26.11	0.17	1.500			
0.7343	46993.76	3.6870	3.6871	2.2856	26.10	0.16	1.500			
0.7407	47406.90	3.6840	3.6840	2.0726	26.10	0.16	1.500			
0.7465	47776.31	3.6810	3.6812	1.8866	26.09	0.15	1.500			
0.7518	48118.06	3.6780	3.6779	1.7445	26.08	0.14	1.500			
0.7568	48435.22	3.6750	3.6750	1.6204	26.08	0.14	1.500			
0.7615	48733.72	3.6720	3.6720	1.5262	26.07	0.13	1.500			
0.7659	49015.14	3.6690	3.6690	1.4546	26.07	0.13	1.500			
0.7701	49287.38	3.6660	3.6660	1.3907	26.06	0.12	1.500			
0.7741	49544.16	3.6630	3.6630	1.3331	26.06	0.12	1.500			
0.7780	49792.60	3.6600	3.6600	1.2900	26.05	0.11	1.500			
0.7818	50032.69	3.6570	3.6571	1.2632	26.05	0.11	1.500			
0.7855	50271.74	3.6540	3.6540	1.2492	26.04	0.10	1.500			
0.7892	50506.61	3.6510	3.6509	1.2392	26.04	0.10	1.500			
0.7928	50741.88	3.6480	3.6480	1.2437	26.03	0.09	1.500			
0.7966	50979.26	3.6450	3.6450	1.2592	26.03	0.09	1.500			
0.8004	51224.22	3.6420	3.6419	1.2675	26.02	0.08	1.500			
0.8042	51467.77	3.6390	3.6390	1.2900	26.01	0.07	1.500			
0.8081	51717.79	3.6360	3.6361	1.3066	26.01	0.07	1.500			
0.8121	51972.57	3.6330	3.6329	1.3185	26.00	0.06	1.500			
0.8161	52229.62	3.6300	3.6301	1.3162	26.00	0.06	1.500			
0.8201	52483.52	3.6270	3.6271	1.3102	25.99	0.05	1.500			
0.8240	52734.47	3.6240	3.6241	1.3085	25.98	0.04	1.500			
0.8279	52987.05	3.6210	3.6210	1.3049	25.98	0.04	1.500			
0.8318	53232.92	3.6180	3.6179	1.2923	25.97	0.03	1.500			
0.8356	53481.03	3.6150	3.6151	1.2900	25.96	0.02	1.500			
0.8395	53729.87	3.6120	3.6120	1.2864	25.96	0.02	1.500			
0.8434	53976.55	3.6090	3.6090	1.2833	25.96	0.02	1.500			
0.8472	54222.40	3.6060	3.6060	1.2749	25.95	0.01	1.500			
0.8510	54467.13	3.6030	3.6029	1.2557	25.95	0.01	1.500			
0.8548	54709.13	3.6000	3.6000	1.2469	25.95	0.01	1.500			
0.8585	54947.05	3.5970	3.5970	1.2343	25.94	0.00	1.500			
0.8622	55183.29	3.5940	3.5939	1.2176	25.94	0.00	1.500			
0.8659	55414.81	3.5910	3.5910	1.2018	25.94	0.00	1.500			
0.8694	55641.41	3.5880	3.5880	1.1870	25.94	0.00	1.500			
0.8729	55867.73	3.5850	3.5850	1.1864	25.94	0.00	1.500			
0.8765	56095.34	3.5820	3.5819	1.1854	25.94	0.00	1.500			
0.8800	56320.77	3.5790	3.5790	1.1890	25.94	0.00	1.500			
0.8837	56553.64	3.5760	3.5760	1.1684	25.94	0.00	1.500			
0.8873	56785.21	3.5730	3.5729	1.1359	25.94	0.00	1.500			
0.8908	57008.62	3.5700	3.5701	1.0421	25.94	0.00	1.500			
0.8939	57212.62	3.5670	3.5671	0.9377	25.94	0.00	1.500			
0.8966	57383.64	3.5640	3.5641	0.7980	25.94	0.00	1.500			
0.8988	57524.10	3.5610	3.5611	0.6556	25.94	0.00	1.500			
0.9004	57624.07	3.5580	3.5579	0.5288	25.94	0.00	1.500			
0.9017	57706.44	3.5550	3.5550	0.4335	25.94	0.00	1.500			
0.9027	57773.63	3.5520	3.5519	0.3431	25.94	0.00	1.500			
0.9036	57830.16	3.5490	3.5488	0.2916	25.94	0.00	1.500			
0.9043	57877.40	3.5460	3.5459	0.2495	25.94	0.00	1.500			
0.9050	57918.96	3.5430	3.5431	0.2193	25.94	0.00	1.500			
0.9056	57956.65	3.5400	3.5400	0.1917	25.94	0.00	1.500			
0.9061	57990.26	3.5370	3.5370	0.1724	25.94	0.00	1.500			
0.9066	58020.92	3.5340	3.5339	0.1530	25.94	0.00	1.500			
0.9070	58047.73	3.5310	3.5311	0.1352	25.94	0.00	1.500			
0.9074	58072.24	3.5280	3.5280	0.1201	25.94	0.00	1.500			
0.9077	58094.07	3.5250	3.5250	0.1053	25.94	0.00	1.500			
0.9080	58112.72	3.5220	3.5221	0.0899	25.94	0.00	1.500			
0.9083	58128.53	3.5190	3.5192	0.0747	25.94	0.00	1.500			
0.9085	58141.55	3.5160	3.5164	0.0589	25.94	0.00	1.500			
0.9086	58151.36	3.5130	3.5136	0.0432	25.94	0.00	1.500			
