Ah_balance (normalized)	Ah_balance (mAh)	Voltage - fit (V)	Voltage -  interpolate (V)	dQ/dV (1/V)	Temperature (°C)	Temperature - diff (°C)	Current (C)	R_DC 0ms (mOhm)	R_DC 50ms (mOhm)	R_DC 50 ms PEC (mOhm)
0.1993	12753.48	3.9350	3.9348	-0.1402	25.65	0.00	-0.750			
0.1998	12785.53	3.9320	3.9319	-0.1908	25.65	-0.00	-0.750			
0.2004	12827.98	3.9290	3.9290	-0.2383	25.65	-0.00	-0.750			
0.2012	12878.23	3.9260	3.9260	-0.2835	25.65	-0.00	-0.750			
0.2021	12937.13	3.9230	3.9230	-0.3273	25.64	-0.01	-0.750			
0.2032	13005.23	3.9200	3.9201	-0.3706	25.64	-0.01	-0.750			
0.2044	13080.50	3.9170	3.9170	-0.4113	25.64	-0.01	-0.750			
0.2057	13164.02	3.9140	3.9140	-0.4487	25.63	-0.02	-0.750			
0.2071	13254.74	3.9110	3.9110	-0.4819	25.63	-0.02	-0.750			
0.2086	13352.05	3.9080	3.9080	-0.5146	25.63	-0.02	-0.750			
0.2102	13453.70	3.9050	3.9050	-0.5420	25.62	-0.03	-0.750			
0.2119	13561.80	3.9020	3.9021	-0.5660	25.62	-0.03	-0.750			
0.2136	13673.04	3.8990	3.8990	-0.5863	25.62	-0.03	-0.750			
0.2155	13789.36	3.8960	3.8960	-0.6023	25.61	-0.04	-0.750			
0.2173	13907.03	3.8930	3.8930	-0.6166	25.61	-0.04	-0.750			
0.2192	14027.69	3.8900	3.8900	-0.6290	25.61	-0.04	-0.750			
0.2211	14148.93	3.8870	3.8871	-0.6362	25.61	-0.04	-0.750			
0.2230	14271.47	3.8840	3.8839	-0.6438	25.60	-0.05	-0.750			
0.2249	14395.87	3.8810	3.8811	-0.6534	25.60	-0.05	-0.750			
0.2269	14522.72	3.8780	3.8780	-0.6593	25.60	-0.05	-0.750			
0.2289	14649.77	3.8750	3.8750	-0.6681	25.60	-0.05	-0.750			
0.2309	14778.94	3.8720	3.8720	-0.6746	25.60	-0.05	-0.750			
0.2330	14910.17	3.8690	3.8690	-0.6768	25.60	-0.05	-0.750			
0.2350	15041.39	3.8660	3.8659	-0.6784	25.60	-0.05	-0.750			
0.2371	15171.57	3.8630	3.8632	-0.6777	25.60	-0.05	-0.750			
0.2391	15301.00	3.8600	3.8600	-0.6777	25.60	-0.05	-0.750			
0.2411	15430.76	3.8570	3.8570	-0.6805	25.60	-0.05	-0.750			
0.2431	15560.94	3.8540	3.8539	-0.6821	25.60	-0.05	-0.750			
0.2452	15691.83	3.8510	3.8510	-0.6846	25.60	-0.05	-0.750			
0.2473	15824.70	3.8480	3.8480	-0.6878	25.60	-0.05	-0.750			
0.2493	15957.30	3.8450	3.8452	-0.6903	25.60	-0.05	-0.750			
0.2514	16090.29	3.8420	3.8420	-0.6893	25.60	-0.05	-0.750			
0.2535	16222.04	3.8390	3.8390	-0.6891	25.60	-0.05	-0.750			
0.2555	16354.31	3.8360	3.8360	-0.6892	25.60	-0.05	-0.750			
0.2576	16486.20	3.8330	3.8330	-0.6894	25.60	-0.05	-0.750			
0.2597	16618.50	3.8300	3.8300	-0.6906	25.60	-0.05	-0.750			
0.2618	16752.01	3.8270	3.8270	-0.6906	25.60	-0.05	-0.750			
0.2638	16884.30	3.8240	3.8240	-0.6898	25.60	-0.05	-0.750			
0.2659	17016.93	3.8210	3.8210	-0.6915	25.60	-0.05	-0.750			
0.2680	17149.37	3.8180	3.8180	-0.6914	25.60	-0.05	-0.750			
0.2700	17282.12	3.8150	3.8150	-0.6924	25.60	-0.05	-0.750			
0.2721	17415.11	3.8120	3.8120	-0.6923	25.60	-0.05	-0.750			
0.2742	17548.21	3.8090	3.8090	-0.6938	25.60	-0.05	-0.750			
0.2763	17681.95	3.8060	3.8060	-0.6942	25.60	-0.05	-0.750			
0.2784	17815.02	3.8030	3.8029	-0.6928	25.61	-0.04	-0.750			
0.2804	17947.58	3.8000	3.8000	-0.6914	25.61	-0.04	-0.750			
0.2825	18080.45	3.7970	3.7970	-0.6910	25.61	-0.04	-0.750			
0.2846	18213.13	3.7940	3.7940	-0.6928	25.62	-0.03	-0.750			
0.2867	18346.35	3.7910	3.7909	-0.6933	25.62	-0.03	-0.750			
0.2887	18478.98	3.7880	3.7880	-0.6936	25.62	-0.03	-0.750			
0.2908	18612.15	3.7850	3.7851	-0.6975	25.62	-0.03	-0.750			
0.2929	18746.53	3.7820	3.7820	-0.6986	25.62	-0.03	-0.750			
0.2950	18881.14	3.7790	3.7789	-0.6986	25.63	-0.02	-0.750			
0.2971	19015.70	3.7760	3.7760	-0.6970	25.63	-0.02	-0.750			
0.2992	19149.18	3.7730	3.7731	-0.6949	25.63	-0.02	-0.750			
0.3013	19282.02	3.7700	3.7700	-0.6994	25.63	-0.02	-0.750			
0.3034	19415.62	3.7670	3.7669	-0.7039	25.63	-0.02	-0.750			
0.3055	19549.72	3.7640	3.7640	-0.7089	25.63	-0.02	-0.750			
0.3076	19687.55	3.7610	3.7610	-0.7157	25.63	-0.02	-0.750			
0.3098	19827.11	3.7580	3.7580	-0.7222	25.63	-0.02	-0.750			
0.3120	19966.36	3.7550	3.7551	-0.7293	25.63	-0.02	-0.750			
0.3142	20107.22	3.7520	3.7520	-0.7326	25.63	-0.02	-0.750			
0.3164	20246.90	3.7490	3.7490	-0.7395	25.63	-0.02	-0.750			
0.3186	20388.98	3.7460	3.7460	-0.7441	25.62	-0.03	-0.750			
0.3208	20533.50	3.7430	3.7430	-0.7531	25.62	-0.03	-0.750			
0.3231	20678.44	3.7400	3.7400	-0.7585	25.62	-0.03	-0.750			
0.3254	20824.77	3.7370	3.7370	-0.7658	25.62	-0.03	-0.750			
0.3277	20971.90	3.7340	3.7340	-0.7694	25.62	-0.03	-0.750			
0.3300	21121.44	3.7310	3.7310	-0.7737	25.62	-0.03	-0.750			
0.3323	21269.00	3.7280	3.7280	-0.7781	25.63	-0.02	-0.750			
0.3347	21418.88	3.7250	3.7250	-0.7879	25.63	-0.02	-0.750			
0.3370	21570.06	3.7220	3.7220	-0.7967	25.63	-0.02	-0.750			
0.3394	21723.45	3.7190	3.7190	-0.8082	25.63	-0.02	-0.750			
0.3419	21879.49	3.7160	3.7160	-0.8222	25.63	-0.02	-0.750			
0.3444	22040.10	3.7130	3.7130	-0.8347	25.62	-0.03	-0.750			
0.3469	22202.16	3.7100	3.7099	-0.8497	25.62	-0.03	-0.750			
0.3495	22365.83	3.7070	3.7072	-0.8603	25.62	-0.03	-0.750			
0.3521	22531.22	3.7040	3.7039	-0.8729	25.62	-0.03	-0.750			
0.3547	22700.92	3.7010	3.7010	-0.8852	25.62	-0.03	-0.750			
0.3574	22871.35	3.6980	3.6980	-0.8973	25.62	-0.03	-0.750			
0.3601	23046.59	3.6950	3.6949	-0.9124	25.62	-0.03	-0.750			
0.3628	23221.71	3.6920	3.6921	-0.9252	25.62	-0.03	-0.750			
0.3656	23397.80	3.6890	3.6890	-0.9444	25.62	-0.03	-0.750			
0.3685	23581.04	3.6860	3.6859	-0.9653	25.62	-0.03	-0.750			
0.3714	23767.62	3.6830	3.6830	-0.9867	25.62	-0.03	-0.750			
0.3744	23958.92	3.6800	3.6801	-1.0177	25.62	-0.03	-0.750			
0.3775	24158.01	3.6770	3.6770	-1.0438	25.62	-0.03	-0.750			
0.3807	24362.93	3.6740	3.6740	-1.0642	25.62	-0.03	-0.750			
0.3839	24569.16	3.6710	3.6709	-1.0798	25.62	-0.03	-0.750			
0.3872	24777.74	3.6680	3.6682	-1.1042	25.62	-0.03	-0.750			
0.3905	24991.91	3.6650	3.6650	-1.1279	25.62	-0.03	-0.750			
0.3939	25208.93	3.6620	3.6620	-1.1467	25.62	-0.03	-0.750			
0.3973	25429.29	3.6590	3.6590	-1.1744	25.62	-0.03	-0.750			
0.4009	25658.14	3.6560	3.6560	-1.2051	25.62	-0.03	-0.750			
0.4046	25893.31	3.6530	3.6530	-1.2317	25.62	-0.03	-0.750			
0.4083	26133.21	3.6500	3.6500	-1.2565	25.62	-0.03	-0.750			
0.4121	26374.49	3.6470	3.6472	-1.2886	25.62	-0.03	-0.750			
0.4160	26626.94	3.6440	3.6440	-1.3147	25.62	-0.03	-0.750			
0.4200	26882.94	3.6410	3.6409	-1.3396	25.63	-0.02	-0.750			
0.4241	27142.33	3.6380	3.6382	-1.3651	25.63	-0.02	-0.750			
0.4283	27408.12	3.6350	3.6350	-1.3901	25.63	-0.02	-0.750			
0.4324	27674.04	3.6320	3.6320	-1.4264	25.62	-0.03	-0.750			
0.4367	27946.90	3.6290	3.6292	-1.4637	25.62	-0.03	-0.750			
0.4411	28233.07	3.6260	3.6259	-1.4963	25.62	-0.03	-0.750			
0.4457	28527.10	3.6230	3.6229	-1.5306	25.63	-0.02	-0.750			
0.4504	28824.53	3.6200	3.6201	-1.5621	25.63	-0.02	-0.750			
0.4552	29130.92	3.6170	3.6169	-1.5991	25.63	-0.02	-0.750			
0.4600	29439.06	3.6140	3.6139	-1.6205	25.63	-0.02	-0.750			
0.4648	29748.10	3.6110	3.6109	-1.6409	25.63	-0.02	-0.750			
0.4698	30065.63	3.6080	3.6081	-1.6783	25.63	-0.02	-0.750			
0.4749	30396.49	3.6050	3.6049	-1.7029	25.63	-0.02	-0.750			
0.4801	30725.21	3.6020	3.6021	-1.7423	25.63	-0.02	-0.750			
0.4853	31061.97	3.5990	3.5990	-1.7739	25.64	-0.01	-0.750			
0.4907	31405.19	3.5960	3.5960	-1.8092	25.64	-0.01	-0.750			
0.4962	31756.42	3.5930	3.5932	-1.8354	25.64	-0.01	-0.750			
0.5018	32114.83	3.5900	3.5901	-1.8735	25.64	-0.01	-0.750			
0.5074	32475.65	3.5870	3.5870	-1.8964	25.64	-0.01	-0.750			
0.5132	32843.91	3.5840	3.5839	-1.9320	25.64	-0.01	-0.750			
0.5190	33215.30	3.5810	3.5811	-1.9628	25.64	-0.01	-0.750			
0.5249	33595.69	3.5780	3.5779	-1.9872	25.64	-0.01	-0.750			
0.5310	33982.87	3.5750	3.5751	-2.0007	25.64	-0.01	-0.750			
0.5370	34365.58	3.5720	3.5720	-2.0198	25.64	-0.01	-0.750	0.393	0.553	
0.5430	34754.93	3.5690	3.5690	-2.0275	25.64	-0.01	-0.750			
0.5492	35145.64	3.5660	3.5660	-2.0520	25.64	-0.01	-0.750			
0.5553	35541.06	3.5630	3.5631	-2.0952	25.64	-0.01	-0.750			
0.5617	35951.23	3.5600	3.5600	-2.1006	25.65	0.00	-0.750			
0.5681	36357.00	3.5570	3.5568	-2.1013	25.66	0.01	-0.750			
0.5744	36758.49	3.5540	3.5543	-2.1074	25.66	0.01	-0.750			
0.5807	37164.72	3.5510	3.5510	-2.0924	25.67	0.02	-0.750			
0.5870	37569.89	3.5480	3.5478	-2.0952	25.68	0.03	-0.750			
0.5932	37966.75	3.5450	3.5451	-2.0777	25.68	0.03	-0.750			
0.5996	38371.50	3.5420	3.5419	-2.0663	25.68	0.03	-0.750			
0.6057	38767.41	3.5390	3.5388	-2.0448	25.69	0.04	-0.750			
0.6118	39156.69	3.5360	3.5361	-2.0213	25.70	0.05	-0.750			
0.6179	39544.14	3.5330	3.5329	-1.9934	25.71	0.06	-0.750			
0.6239	39928.03	3.5300	3.5299	-1.9694	25.72	0.07	-0.750			
0.6297	40300.11	3.5270	3.5270	-1.9215	25.72	0.07	-0.750			
0.6355	40671.05	3.5240	3.5240	-1.8891	25.73	0.08	-0.750			
0.6410	41025.95	3.5210	3.5211	-1.8359	25.73	0.08	-0.750			
0.6465	41374.93	3.5180	3.5180	-1.7902	25.74	0.09	-0.750			
0.6517	41711.88	3.5150	3.5151	-1.7452	25.75	0.10	-0.750			
0.6569	42044.15	3.5120	3.5119	-1.7008	25.76	0.11	-0.750			
0.6620	42367.06	3.5090	3.5091	-1.6635	25.78	0.13	-0.750			
0.6669	42680.64	3.5060	3.5061	-1.6162	25.79	0.14	-0.750			
0.6717	42986.70	3.5030	3.5029	-1.5734	25.80	0.15	-0.750			
0.6763	43284.38	3.5000	3.4999	-1.5274	25.81	0.16	-0.750			
0.6809	43575.69	3.4970	3.4971	-1.4828	25.82	0.17	-0.750			
0.6852	43853.79	3.4940	3.4939	-1.4388	25.83	0.18	-0.750			
0.6895	44128.51	3.4910	3.4910	-1.3938	25.83	0.18	-0.750			
0.6936	44391.99	3.4880	3.4880	-1.3519	25.84	0.19	-0.750			
0.6976	44645.18	3.4850	3.4849	-1.3107	25.85	0.20	-0.750			
0.7014	44891.26	3.4820	3.4820	-1.2681	25.86	0.21	-0.750			
0.7052	45131.13	3.4790	3.4790	-1.2391	25.86	0.21	-0.750			
0.7088	45366.15	3.4760	3.4759	-1.2081	25.87	0.22	-0.750			
0.7124	45591.65	3.4730	3.4731	-1.1838	25.88	0.23	-0.750			
0.7159	45818.33	3.4700	3.4700	-1.1629	25.89	0.24	-0.750			
0.7194	46038.92	3.4670	3.4670	-1.1414	25.89	0.24	-0.750			
0.7228	46256.01	3.4640	3.4640	-1.1263	25.90	0.25	-0.750			
0.7261	46469.46	3.4610	3.4609	-1.1133	25.91	0.26	-0.750			
0.7294	46681.13	3.4580	3.4580	-1.1002	25.92	0.27	-0.750			
0.7327	46890.45	3.4550	3.4549	-1.0923	25.93	0.28	-0.750			
0.7359	47098.19	3.4520	3.4520	-1.0841	25.94	0.29	-0.750			
0.7392	47307.91	3.4490	3.4490	-1.0816	25.94	0.29	-0.750			
0.7424	47514.76	3.4460	3.4460	-1.0736	25.95	0.30	-0.750			
0.7456	47720.25	3.4430	3.4430	-1.0646	25.95	0.30	-0.750			
0.7488	47923.47	3.4400	3.4400	-1.0567	25.96	0.31	-0.750			
0.7519	48124.74	3.4370	3.4370	-1.0558	25.96	0.31	-0.750			
0.7551	48327.06	3.4340	3.4339	-1.0485	25.97	0.32	-0.750			
0.7583	48529.13	3.4310	3.4309	-1.0398	25.97	0.32	-0.750			
0.7614	48728.32	3.4280	3.4281	-1.0307	25.98	0.33	-0.750			
0.7645	48927.33	3.4250	3.4250	-1.0178	25.98	0.33	-0.750			
0.7675	49120.93	3.4220	3.4220	-1.0040	25.99	0.34	-0.750			
0.7705	49310.90	3.4190	3.4190	-0.9852	25.99	0.34	-0.750			
0.7734	49497.61	3.4160	3.4159	-0.9693	26.00	0.35	-0.750			
0.7763	49683.63	3.4130	3.4130	-0.9568	26.00	0.35	-0.750			
0.7792	49865.77	3.4100	3.4100	-0.9399	26.01	0.36	-0.750			
0.7820	50046.18	3.4070	3.4070	-0.9197	26.01	0.36	-0.750			
0.7847	50221.43	3.4040	3.4040	-0.8989	26.02	0.37	-0.750			
0.7874	50392.67	3.4010	3.4010	-0.8722	26.02	0.37	-0.750			
0.7900	50558.69	3.3980	3.3979	-0.8483	26.03	0.38	-0.750			
0.7925	50718.71	3.3950	3.3950	-0.8217	26.03	0.38	-0.750			
0.7949	50874.17	3.3920	3.3920	-0.7925	26.04	0.39	-0.750			
0.7972	51023.42	3.3890	3.3889	-0.7655	26.05	0.40	-0.750			
0.7995	51168.04	3.3860	3.3861	-0.7350	26.05	0.40	-0.750			
0.8017	51305.92	3.3830	3.3829	-0.7044	26.06	0.41	-0.750			
0.8037	51439.05	3.3800	3.3800	-0.6728	26.06	0.41	-0.750			
0.8057	51564.33	3.3770	3.3770	-0.6408	26.07	0.42	-0.750			
0.8076	51685.26	3.3740	3.3740	-0.6134	26.07	0.42	-0.750			
0.8094	51799.33	3.3710	3.3710	-0.5823	26.07	0.42	-0.750			
0.8110	51906.87	3.3680	3.3680	-0.5536	26.08	0.43	-0.750			
0.8127	52010.95	3.3650	3.3650	-0.5288	26.08	0.43	-0.750			
0.8142	52109.46	3.3620	3.3620	-0.5031	26.09	0.44	-0.750			
0.8157	52203.89	3.3590	3.3590	-0.4797	26.09	0.44	-0.750			
0.8171	52292.82	3.3560	3.3560	-0.4573	26.10	0.45	-0.750			
0.8184	52378.67	3.3530	3.3530	-0.4369	26.10	0.45	-0.750			
0.8197	52459.68	3.3500	3.3500	-0.4182	26.11	0.46	-0.750			
0.8209	52537.92	3.3470	3.3469	-0.4011	26.11	0.46	-0.750			
0.8221	52612.73	3.3440	3.3440	-0.3862	26.11	0.46	-0.750			
0.8232	52685.45	3.3410	3.3410	-0.3723	26.12	0.47	-0.750			
0.8243	52755.48	3.3380	3.3381	-0.3581	26.12	0.47	-0.750			
0.8254	52822.90	3.3350	3.3350	-0.3445	26.13	0.48	-0.750			
0.8264	52887.56	3.3320	3.3320	-0.3328	26.13	0.48	-0.750			
0.8273	52950.28	3.3290	3.3289	-0.3194	26.14	0.49	-0.750			
0.8283	53009.86	3.3260	3.3260	-0.3083	26.14	0.49	-0.750			
0.8292	53067.58	3.3230	3.3231	-0.2979	26.14	0.49	-0.750			
0.8301	53123.89	3.3200	3.3200	-0.2879	26.15	0.50	-0.750			
0.8309	53178.18	3.3170	3.3170	-0.2798	26.15	0.50	-0.750			
0.8317	53230.36	3.3140	3.3141	-0.2724	26.16	0.51	-0.750			
0.8325	53281.90	3.3110	3.3110	-0.2649	26.16	0.51	-0.750			
0.8333	53332.45	3.3080	3.3079	-0.2595	26.16	0.51	-0.750			
0.8341	53381.13	3.3050	3.3051	-0.2527	26.17	0.52	-0.750			
0.8348	53429.01	3.3020	3.3020	-0.2471	26.17	0.52	-0.750			
0.8356	53475.97	3.2990	3.2989	-0.2419	26.17	0.52	-0.750			
0.8363	53521.82	3.2960	3.2959	-0.2355	26.18	0.53	-0.750			
0.8370	53566.38	3.2930	3.2930	-0.2303	26.18	0.53	-0.750			
0.8377	53610.19	3.2900	3.2901	-0.2260	26.19	0.54	-0.750			
0.8383	53653.30	3.2870	3.2870	-0.2230	26.19	0.54	-0.750			
0.8390	53695.48	3.2840	3.2840	-0.2182	26.19	0.54	-0.750			
0.8396	53736.99	3.2810	3.2809	-0.2138	26.20	0.55	-0.750			
0.8403	53777.69	3.2780	3.2780	-0.2101	26.20	0.55	-0.750			
0.8409	53817.62	3.2750	3.2751	-0.2072	26.21	0.56	-0.750			
0.8415	53857.26	3.2720	3.2720	-0.2038	26.21	0.56	-0.750			
0.8421	53895.88	3.2690	3.2690	-0.2000	26.21	0.56	-0.750			
0.8427	53933.95	3.2660	3.2659	-0.1965	26.22	0.57	-0.750			
0.8433	53971.07	3.2630	3.2631	-0.1929	26.22	0.57	-0.750			
0.8439	54007.94	3.2600	3.2600	-0.1905	26.23	0.58	-0.750			
0.8444	54044.03	3.2570	3.2571	-0.1878	26.23	0.58	-0.750			
0.8450	54079.85	3.2540	3.2539	-0.1853	26.23	0.58	-0.750			
0.8455	54114.90	3.2510	3.2510	-0.1822	26.24	0.59	-0.750			
0.8461	54149.84	3.2480	3.2480	-0.1800	26.24	0.59	-0.750			
0.8466	54184.07	3.2450	3.2450	-0.1778	26.24	0.59	-0.750			
0.8472	54217.98	3.2420	3.2421	-0.1755	26.25	0.60	-0.750			
0.8477	54251.42	3.2390	3.2390	-0.1735	26.25	0.60	-0.750			
0.8482	54284.42	3.2360	3.2360	-0.1712	26.25	0.60	-0.750			
0.8487	54317.00	3.2330	3.2330	-0.1691	26.26	0.61	-0.750			
0.8492	54349.31	3.2300	3.2300	-0.1675	26.26	0.61	-0.750			
0.8497	54381.43	3.2270	3.2270	-0.1661	26.26	0.61	-0.750			
0.8502	54413.21	3.2240	3.2240	-0.1642	26.27	0.62	-0.750			
0.8507	54444.39	3.2210	3.2210	-0.1624	26.27	0.62	-0.750			
0.8512	54475.42	3.2180	3.2180	-0.1609	26.28	0.63	-0.750			
0.8517	54506.14	3.2150	3.2150	-0.1592	26.28	0.63	-0.750			
0.8521	54536.73	3.2120	3.2119	-0.1575	26.28	0.63	-0.750			
0.8526	54566.72	3.2090	3.2090	-0.1557	26.29	0.64	-0.750			
0.8531	54596.45	3.2060	3.2060	-0.1540	26.29	0.64	-0.750			
0.8535	54625.71	3.2030	3.2030	-0.1528	26.29	0.64	-0.750			
0.8540	54655.02	3.2000	3.1999	-0.1513	26.30	0.65	-0.750			
0.8544	54683.85	3.1970	3.1969	-0.1494	26.30	0.65	-0.750			
0.8549	54712.41	3.1940	3.1940	-0.1481	26.31	0.66	-0.750			
0.8553	54740.83	3.1910	3.1911	-0.1466	26.31	0.66	-0.750			
0.8558	54768.87	3.1880	3.1880	-0.1454	26.31	0.66	-0.750			
0.8562	54796.52	3.1850	3.1849	-0.1436	26.32	0.67	-0.750			
0.8566	54823.96	3.1820	3.1820	-0.1422	26.32	0.67	-0.750			
0.8570	54850.94	3.1790	3.1790	-0.1409	26.32	0.67	-0.750			
0.8575	54877.91	3.1760	3.1760	-0.1402	26.33	0.68	-0.750			
0.8579	54904.67	3.1730	3.1730	-0.1392	26.33	0.68	-0.750			
0.8583	54931.29	3.1700	3.1700	-0.1387	26.33	0.68	-0.750			
0.8587	54957.94	3.1670	3.1670	-0.1376	26.34	0.69	-0.750			
0.8591	54984.31	3.1640	3.1640	-0.1365	26.34	0.69	-0.750			
0.8595	55010.57	3.1610	3.1610	-0.1356	26.34	0.69	-0.750			
0.8599	55036.47	3.1580	3.1580	-0.1342	26.35	0.70	-0.750			
0.8603	55062.12	3.1550	3.1550	-0.1328	26.35	0.70	-0.750			
0.8607	55087.44	3.1520	3.1520	-0.1313	26.35	0.70	-0.750			
0.8611	55112.47	3.1490	3.1490	-0.1304	26.36	0.71	-0.750			
0.8615	55137.21	3.1460	3.1460	-0.1294	26.36	0.71	-0.750			
0.8619	55162.02	3.1430	3.1430	-0.1287	26.36	0.71	-0.750			
0.8623	55186.67	3.1400	3.1400	-0.1276	26.37	0.72	-0.750			
0.8627	55211.09	3.1370	3.1371	-0.1268	26.37	0.72	-0.750			
0.8631	55235.47	3.1340	3.1340	-0.1256	26.37	0.72	-0.750			
0.8634	55259.62	3.1310	3.1310	-0.1245	26.38	0.73	-0.750			
0.8638	55283.32	3.1280	3.1280	-0.1235	26.38	0.73	-0.750			
0.8642	55306.84	3.1250	3.1250	-0.1222	26.38	0.73	-0.750			
0.8645	55330.08	3.1220	3.1220	-0.1212	26.39	0.74	-0.750			
0.8649	55353.27	3.1190	3.1190	-0.1204	26.39	0.74	-0.750			
0.8653	55376.27	3.1160	3.1160	-0.1196	26.39	0.74	-0.750			
0.8656	55399.16	3.1130	3.1130	-0.1189	26.40	0.75	-0.750			
0.8660	55421.93	3.1100	3.1100	-0.1182	26.40	0.75	-0.750			
0.8663	55444.56	3.1070	3.1070	-0.1175	26.40	0.75	-0.750			
0.8667	55467.12	3.1040	3.1040	-0.1165	26.41	0.76	-0.750			
0.8670	55489.40	3.1010	3.1010	-0.1156	26.41	0.76	-0.750			
0.8674	55511.51	3.0980	3.0980	-0.1148	26.41	0.76	-0.750			
0.8677	55533.46	3.0950	3.0951	-0.1138	26.42	0.77	-0.750			
0.8681	55555.21	3.0920	3.0919	-0.1129	26.42	0.77	-0.750			
0.8684	55576.81	3.0890	3.0891	-0.1120	26.42	0.77	-0.750			
0.8687	55598.10	3.0860	3.0860	-0.1112	26.43	0.78	-0.750			
0.8691	55619.40	3.0830	3.0831	-0.1106	26.43	0.78	-0.750			
0.8694	55640.58	3.0800	3.0800	-0.1101	26.43	0.78	-0.750			
0.8697	55661.67	3.0770	3.0770	-0.1096	26.44	0.79	-0.750			
0.8700	55682.68	3.0740	3.0740	-0.1088	26.44	0.79	-0.750			
0.8704	55703.50	3.0710	3.0710	-0.1081	26.44	0.79	-0.750			
0.8707	55724.36	3.0680	3.0680	-0.1073	26.45	0.80	-0.750			
0.8710	55744.87	3.0650	3.0650	-0.1063	26.45	0.80	-0.750			
0.8713	55765.11	3.0620	3.0620	-0.1055	26.45	0.80	-0.750			
0.8716	55785.29	3.0590	3.0590	-0.1047	26.46	0.81	-0.750			
0.8720	55805.14	3.0560	3.0560	-0.1040	26.46	0.81	-0.750			
0.8723	55825.06	3.0530	3.0530	-0.1035	26.46	0.81	-0.750			
0.8726	55844.92	3.0500	3.0500	-0.1028	26.46	0.81	-0.750			
0.8729	55864.60	3.0470	3.0470	-0.1022	26.46	0.81	-0.750			
0.8732	55884.32	3.0440	3.0440	-0.1015	26.46	0.81	-0.750			
0.8735	55903.73	3.0410	3.0410	-0.1006	26.46	0.81	-0.750			
0.8738	55922.82	3.0380	3.0380	-0.1000	26.46	0.81	-0.750			
0.8741	55941.97	3.0350	3.0350	-0.0994	26.46	0.81	-0.750			
0.8744	55960.87	3.0320	3.0320	-0.0988	26.46	0.81	-0.750			
0.8747	55979.80	3.0290	3.0289	-0.0985	26.46	0.81	-0.750			
0.8750	55998.77	3.0260	3.0261	-0.0979	26.46	0.81	-0.750			
0.8753	56017.50	3.0230	3.0230	-0.0973	26.46	0.81	-0.750			
0.8756	56036.35	3.0200	3.0200	-0.0967	26.46	0.81	-0.750			
0.8759	56054.80	3.0170	3.0170	-0.0956	26.46	0.81	-0.750			
0.8761	56072.85	3.0140	3.0141	-0.0950	26.46	0.81	-0.750			
0.8764	56091.04	3.0110	3.0110	-0.0945	26.46	0.81	-0.750			
0.8767	56108.93	3.0080	3.0080	-0.0941	26.46	0.81	-0.750			
0.8770	56126.99	3.0050	3.0049	-0.0941	26.46	0.81	-0.750			
0.8773	56145.06	3.0020	3.0021	-0.0963	26.46	0.81	-0.750			
