Ah_balance (normalized)	Ah_balance (mAh)	Voltage - fit (V)	Voltage -  interpolate (V)	dQ/dV (1/V)	Temperature (°C)	Temperature - diff (°C)	Current (C)	R_DC 0ms (mOhm)	R_DC 50ms (mOhm)	R_DC 50 ms PEC (mOhm)
0.2038	13046.36	3.9120	3.9119	-0.1152	25.72	0.00	-1.500			
0.2043	13072.40	3.9090	3.9089	-0.1507	25.72	0.00	-1.500			
0.2048	13104.56	3.9060	3.9060	-0.1832	25.72	0.00	-1.500			
0.2054	13142.74	3.9030	3.9030	-0.2158	25.72	0.00	-1.500			
0.2061	13187.97	3.9000	3.9000	-0.2438	25.72	0.00	-1.500			
0.2068	13238.04	3.8970	3.8969	-0.2756	25.72	0.00	-1.500			
0.2077	13293.54	3.8940	3.8941	-0.3043	25.72	0.00	-1.500			
0.2087	13355.29	3.8910	3.8909	-0.3293	25.72	0.00	-1.500			
0.2097	13421.10	3.8880	3.8880	-0.3548	25.72	0.00	-1.500			
0.2108	13491.82	3.8850	3.8849	-0.3806	25.72	0.00	-1.500			
0.2120	13565.48	3.8820	3.8822	-0.4106	25.72	0.00	-1.500			
0.2132	13646.83	3.8790	3.8789	-0.4441	25.72	0.00	-1.500			
0.2146	13734.16	3.8760	3.8760	-0.4734	25.72	0.00	-1.500			
0.2161	13829.22	3.8730	3.8727	-0.5065	25.72	0.00	-1.500			
0.2177	13931.88	3.8700	3.8702	-0.5364	25.72	0.00	-1.500			
0.2193	14038.36	3.8670	3.8670	-0.5595	25.72	0.00	-1.500			
0.2211	14149.22	3.8640	3.8640	-0.5816	25.72	0.00	-1.500			
0.2228	14261.93	3.8610	3.8610	-0.6014	25.72	0.00	-1.500			
0.2247	14378.18	3.8580	3.8580	-0.6185	25.72	0.00	-1.500			
0.2266	14499.36	3.8550	3.8550	-0.6365	25.72	0.00	-1.500			
0.2285	14624.07	3.8520	3.8520	-0.6524	25.72	0.00	-1.500			
0.2305	14751.01	3.8490	3.8491	-0.6679	25.72	0.00	-1.500			
0.2325	14881.38	3.8460	3.8460	-0.6802	25.72	0.00	-1.500			
0.2346	15013.52	3.8430	3.8430	-0.6922	25.72	0.00	-1.500			
0.2367	15147.86	3.8400	3.8400	-0.7003	25.72	0.00	-1.500			
0.2388	15283.66	3.8370	3.8370	-0.7086	25.72	0.00	-1.500			
0.2409	15420.58	3.8340	3.8340	-0.7139	25.72	0.00	-1.500			
0.2431	15558.05	3.8310	3.8310	-0.7215	25.72	0.00	-1.500			
0.2453	15696.08	3.8280	3.8279	-0.7294	25.72	0.00	-1.500			
0.2475	15837.83	3.8250	3.8250	-0.7347	25.72	0.00	-1.500			
0.2497	15979.46	3.8220	3.8220	-0.7386	25.72	0.00	-1.500			
0.2519	16123.59	3.8190	3.8190	-0.7451	25.72	0.00	-1.500			
0.2542	16266.82	3.8160	3.8160	-0.7480	25.73	0.01	-1.500			
0.2564	16410.66	3.8130	3.8129	-0.7520	25.73	0.01	-1.500			
0.2587	16555.29	3.8100	3.8101	-0.7505	25.73	0.01	-1.500			
0.2609	16699.10	3.8070	3.8069	-0.7496	25.73	0.01	-1.500			
0.2632	16843.51	3.8040	3.8041	-0.7532	25.74	0.02	-1.500			
0.2654	16988.04	3.8010	3.8010	-0.7545	25.74	0.02	-1.500			
0.2677	17132.27	3.7980	3.7979	-0.7572	25.74	0.02	-1.500			
0.2700	17277.11	3.7950	3.7950	-0.7616	25.74	0.02	-1.500			
0.2723	17424.41	3.7920	3.7920	-0.7665	25.75	0.03	-1.500			
0.2746	17574.46	3.7890	3.7890	-0.7705	25.75	0.03	-1.500			
0.2769	17722.39	3.7860	3.7860	-0.7694	25.75	0.03	-1.500			
0.2792	17869.65	3.7830	3.7831	-0.7684	25.76	0.04	-1.500			
0.2815	18017.31	3.7800	3.7800	-0.7678	25.76	0.04	-1.500			
0.2838	18164.68	3.7770	3.7769	-0.7618	25.76	0.04	-1.500			
0.2861	18311.41	3.7740	3.7740	-0.7527	25.76	0.04	-1.500			
0.2884	18454.57	3.7710	3.7711	-0.7528	25.77	0.05	-1.500			
0.2906	18597.28	3.7680	3.7681	-0.7608	25.77	0.05	-1.500			
0.2929	18743.26	3.7650	3.7648	-0.7619	25.77	0.05	-1.500			
0.2951	18888.96	3.7620	3.7619	-0.7640	25.77	0.05	-1.500			
0.2975	19037.12	3.7590	3.7591	-0.7697	25.78	0.06	-1.500			
0.2998	19188.95	3.7560	3.7561	-0.7737	25.78	0.06	-1.500			
0.3022	19337.62	3.7530	3.7529	-0.7718	25.79	0.07	-1.500			
0.3044	19483.46	3.7500	3.7500	-0.7624	25.79	0.07	-1.500			
0.3067	19628.73	3.7470	3.7470	-0.7615	25.80	0.08	-1.500			
0.3090	19774.83	3.7440	3.7440	-0.7643	25.80	0.08	-1.500			
0.3113	19920.41	3.7410	3.7410	-0.7655	25.81	0.09	-1.500			
0.3136	20068.34	3.7380	3.7380	-0.7675	25.81	0.09	-1.500			
0.3159	20216.84	3.7350	3.7350	-0.7694	25.82	0.10	-1.500			
0.3182	20364.36	3.7320	3.7320	-0.7712	25.82	0.10	-1.500			
0.3205	20514.06	3.7290	3.7290	-0.7714	25.83	0.11	-1.500			
0.3228	20660.99	3.7260	3.7260	-0.7699	25.84	0.12	-1.500			
0.3251	20808.51	3.7230	3.7230	-0.7742	25.84	0.12	-1.500			
0.3274	20956.68	3.7200	3.7200	-0.7738	25.84	0.12	-1.500			
0.3298	21106.00	3.7170	3.7169	-0.7757	25.85	0.13	-1.500			
0.3321	21254.97	3.7140	3.7141	-0.7786	25.85	0.13	-1.500			
0.3344	21403.38	3.7110	3.7110	-0.7854	25.86	0.14	-1.500			
0.3368	21554.89	3.7080	3.7079	-0.7941	25.86	0.14	-1.500			
0.3392	21707.11	3.7050	3.7050	-0.7981	25.86	0.14	-1.500			
0.3416	21860.98	3.7020	3.7020	-0.8085	25.87	0.15	-1.500			
0.3441	22019.35	3.6990	3.6990	-0.8230	25.87	0.15	-1.500			
0.3465	22178.52	3.6960	3.6960	-0.8307	25.87	0.15	-1.500			
0.3490	22338.05	3.6930	3.6929	-0.8364	25.88	0.16	-1.500			
0.3515	22497.98	3.6900	3.6900	-0.8488	25.88	0.16	-1.500			
0.3541	22661.65	3.6870	3.6870	-0.8604	25.89	0.17	-1.500			
0.3567	22828.52	3.6840	3.6840	-0.8719	25.89	0.17	-1.500			
0.3593	22996.83	3.6810	3.6810	-0.8838	25.90	0.18	-1.500			
0.3620	23169.24	3.6780	3.6781	-0.8937	25.90	0.18	-1.500			
0.3647	23341.96	3.6750	3.6750	-0.8994	25.90	0.18	-1.500			
0.3674	23511.41	3.6720	3.6721	-0.9189	25.91	0.19	-1.500			
0.3701	23687.82	3.6690	3.6691	-0.9369	25.91	0.19	-1.500			
0.3729	23868.55	3.6660	3.6657	-0.9621	25.92	0.20	-1.500			
0.3759	24058.06	3.6630	3.6631	-0.9820	25.92	0.20	-1.500			
0.3789	24249.29	3.6600	3.6601	-1.0036	25.92	0.20	-1.500			
0.3820	24447.54	3.6570	3.6570	-1.0268	25.93	0.21	-1.500			
0.3851	24645.86	3.6540	3.6540	-1.0308	25.93	0.21	-1.500			
0.3882	24841.71	3.6510	3.6510	-1.0484	25.93	0.21	-1.500			
0.3913	25045.13	3.6480	3.6480	-1.0729	25.93	0.21	-1.500			
0.3946	25252.00	3.6450	3.6450	-1.0934	25.94	0.22	-1.500			
0.3979	25465.40	3.6420	3.6420	-1.1160	25.94	0.22	-1.500			
0.4013	25681.18	3.6390	3.6390	-1.1413	25.94	0.22	-1.500			
0.4047	25903.31	3.6360	3.6360	-1.1665	25.94	0.22	-1.500			
0.4083	26131.65	3.6330	3.6330	-1.1893	25.94	0.22	-1.500			
0.4118	26358.33	3.6300	3.6300	-1.2164	25.94	0.22	-1.500			
0.4156	26596.59	3.6270	3.6270	-1.2408	25.95	0.23	-1.500			
0.4194	26839.08	3.6240	3.6239	-1.2624	25.95	0.23	-1.500			
0.4232	27083.13	3.6210	3.6209	-1.2837	25.95	0.23	-1.500			
0.4270	27329.73	3.6180	3.6181	-1.3075	25.95	0.23	-1.500			
0.4310	27584.01	3.6150	3.6149	-1.3349	25.95	0.23	-1.500			
0.4350	27841.30	3.6120	3.6119	-1.3623	25.95	0.23	-1.500			
0.4391	28103.17	3.6090	3.6091	-1.3786	25.95	0.23	-1.500			
0.4433	28373.09	3.6060	3.6061	-1.4131	25.95	0.23	-1.500			
0.4476	28648.85	3.6030	3.6030	-1.4454	25.95	0.23	-1.500			
0.4520	28927.38	3.6000	3.5998	-1.4741	25.95	0.23	-1.500			
0.4564	29210.47	3.5970	3.5971	-1.5003	25.95	0.23	-1.500			
0.4610	29502.66	3.5940	3.5941	-1.5359	25.95	0.23	-1.500			
0.4657	29803.12	3.5910	3.5910	-1.5648	25.96	0.24	-1.500			
0.4705	30109.80	3.5880	3.5879	-1.5894	25.96	0.24	-1.500			
0.4752	30414.97	3.5850	3.5851	-1.6072	25.96	0.24	-1.500			
0.4801	30725.15	3.5820	3.5820	-1.6267	25.96	0.24	-1.500			
0.4850	31040.19	3.5790	3.5790	-1.6562	25.96	0.24	-1.500			
0.4900	31362.14	3.5760	3.5759	-1.6755	25.95	0.23	-1.500			
0.4951	31684.38	3.5730	3.5730	-1.6976	25.95	0.23	-1.500			
0.5002	32012.59	3.5700	3.5703	-1.7289	25.95	0.23	-1.500			
0.5055	32349.30	3.5670	3.5669	-1.7523	25.95	0.23	-1.500			
0.5107	32686.84	3.5640	3.5639	-1.7753	25.95	0.23	-1.500			
0.5161	33028.31	3.5610	3.5611	-1.7842	25.96	0.24	-1.500			
0.5215	33374.93	3.5580	3.5580	-1.8140	25.96	0.24	-1.500			
0.5269	33723.12	3.5550	3.5551	-1.8311	25.96	0.24	-1.500			
0.5324	34073.27	3.5520	3.5518	-1.8562	25.96	0.24	-1.500			
0.5380	34433.24	3.5490	3.5491	-1.8851	25.96	0.24	-1.500			
0.5438	34800.58	3.5460	3.5460	-1.9066	25.96	0.24	-1.500			
0.5497	35177.83	3.5430	3.5430	-1.9249	25.96	0.24	-1.500			
0.5553	35541.83	3.5400	3.5405	-1.9037	25.96	0.24	-1.500	0.385	0.510	
0.5611	35911.61	3.5370	3.5370	-1.9101	25.97	0.25	-1.500			
0.5668	36276.95	3.5340	3.5339	-1.8915	25.97	0.25	-1.500			
0.5725	36637.00	3.5310	3.5310	-1.8734	25.98	0.26	-1.500			
0.5781	36998.14	3.5280	3.5279	-1.8781	25.98	0.26	-1.500			
0.5837	37356.39	3.5250	3.5250	-1.8728	25.99	0.27	-1.500			
0.5893	37713.53	3.5220	3.5220	-1.8656	26.00	0.28	-1.500			
0.5948	38069.32	3.5190	3.5190	-1.8519	26.00	0.28	-1.500			
0.6005	38429.40	3.5160	3.5161	-1.8389	26.01	0.29	-1.500			
0.6059	38777.67	3.5130	3.5131	-1.8398	26.02	0.30	-1.500			
0.6114	39131.02	3.5100	3.5099	-1.8308	26.02	0.30	-1.500			
0.6169	39479.85	3.5070	3.5069	-1.8244	26.03	0.31	-1.500			
0.6224	39831.79	3.5040	3.5040	-1.8247	26.04	0.32	-1.500			
0.6279	40183.47	3.5010	3.5010	-1.8201	26.04	0.32	-1.500			
0.6334	40538.10	3.4980	3.4979	-1.8118	26.05	0.33	-1.500			
0.6388	40880.83	3.4950	3.4950	-1.7974	26.06	0.34	-1.500			
0.6441	41222.03	3.4920	3.4920	-1.7789	26.07	0.35	-1.500			
0.6495	41565.33	3.4890	3.4890	-1.7732	26.08	0.36	-1.500			
0.6547	41903.63	3.4860	3.4859	-1.7574	26.09	0.37	-1.500			
0.6600	42238.35	3.4830	3.4831	-1.7554	26.10	0.38	-1.500			
0.6652	42575.93	3.4800	3.4800	-1.7470	26.12	0.40	-1.500			
0.6705	42913.25	3.4770	3.4770	-1.7443	26.13	0.41	-1.500			
0.6757	43245.84	3.4740	3.4741	-1.7166	26.14	0.42	-1.500			
0.6809	43576.51	3.4710	3.4710	-1.7063	26.15	0.43	-1.500			
0.6860	43903.03	3.4680	3.4680	-1.6875	26.17	0.45	-1.500			
0.6910	44224.00	3.4650	3.4649	-1.6595	26.18	0.46	-1.500			
0.6959	44540.48	3.4620	3.4620	-1.6287	26.19	0.47	-1.500			
0.7008	44851.32	3.4590	3.4591	-1.6040	26.20	0.48	-1.500			
0.7056	45157.44	3.4560	3.4559	-1.5780	26.22	0.50	-1.500			
0.7103	45457.73	3.4530	3.4530	-1.5556	26.23	0.51	-1.500			
0.7148	45748.08	3.4500	3.4500	-1.5323	26.25	0.53	-1.500			
0.7194	46043.22	3.4470	3.4470	-1.5210	26.26	0.54	-1.500			
0.7240	46333.89	3.4440	3.4440	-1.5011	26.28	0.56	-1.500			
0.7285	46621.78	3.4410	3.4410	-1.4816	26.30	0.58	-1.500			
0.7329	46902.95	3.4380	3.4381	-1.4609	26.31	0.59	-1.500			
0.7372	47179.73	3.4350	3.4350	-1.4550	26.33	0.61	-1.500			
0.7415	47457.08	3.4320	3.4319	-1.4465	26.35	0.63	-1.500			
0.7458	47733.80	3.4290	3.4289	-1.4304	26.37	0.65	-1.500			
0.7501	48009.38	3.4260	3.4261	-1.4276	26.38	0.66	-1.500			
0.7545	48285.45	3.4230	3.4231	-1.4229	26.40	0.68	-1.500			
0.7587	48558.50	3.4200	3.4200	-1.4118	26.42	0.70	-1.500			
0.7629	48828.18	3.4170	3.4170	-1.3889	26.44	0.72	-1.500			
0.7671	49094.03	3.4140	3.4139	-1.3665	26.46	0.74	-1.500			
0.7712	49355.61	3.4110	3.4111	-1.3443	26.48	0.76	-1.500			
0.7752	49614.19	3.4080	3.4080	-1.3186	26.48	0.76	-1.500			
0.7791	49859.87	3.4050	3.4051	-1.2893	26.50	0.78	-1.500			
0.7829	50108.59	3.4020	3.4019	-1.2470	26.53	0.81	-1.500			
0.7866	50345.56	3.3990	3.3989	-1.2007	26.55	0.83	-1.500			
0.7902	50575.71	3.3960	3.3960	-1.1596	26.57	0.85	-1.500			
0.7936	50791.84	3.3930	3.3931	-1.1086	26.58	0.86	-1.500			
0.7969	50999.81	3.3900	3.3899	-1.0596	26.59	0.87	-1.500			
0.8000	51197.19	3.3870	3.3870	-1.0147	26.60	0.88	-1.500			
0.8029	51382.79	3.3840	3.3840	-0.9677	26.62	0.90	-1.500			
0.8058	51569.00	3.3810	3.3810	-0.9394	26.64	0.92	-1.500			
0.8085	51746.21	3.3780	3.3780	-0.9042	26.65	0.93	-1.500			
0.8112	51915.97	3.3750	3.3749	-0.8668	26.67	0.95	-1.500			
0.8137	52078.64	3.3720	3.3720	-0.8318	26.68	0.96	-1.500			
0.8162	52234.46	3.3690	3.3690	-0.7968	26.70	0.98	-1.500			
0.8185	52383.60	3.3660	3.3659	-0.7674	26.70	0.98	-1.500			
0.8207	52526.40	3.3630	3.3629	-0.7389	26.71	0.99	-1.500			
0.8229	52665.03	3.3600	3.3600	-0.7174	26.72	1.00	-1.500			
0.8250	52800.88	3.3570	3.3571	-0.6922	26.72	1.00	-1.500			
0.8271	52932.98	3.3540	3.3540	-0.6731	26.73	1.01	-1.500			
0.8291	53059.62	3.3510	3.3510	-0.6516	26.74	1.02	-1.500			
0.8310	53182.32	3.3480	3.3481	-0.6285	26.75	1.03	-1.500			
0.8328	53300.13	3.3450	3.3449	-0.6095	26.76	1.04	-1.500			
0.8346	53414.63	3.3420	3.3419	-0.5887	26.77	1.05	-1.500			
0.8363	53525.28	3.3390	3.3391	-0.5688	26.78	1.06	-1.500			
0.8380	53633.33	3.3360	3.3360	-0.5540	26.79	1.07	-1.500			
0.8397	53738.27	3.3330	3.3331	-0.5351	26.80	1.08	-1.500			
0.8412	53839.49	3.3300	3.3300	-0.5181	26.81	1.09	-1.500			
0.8428	53937.32	3.3270	3.3271	-0.5009	26.82	1.10	-1.500			
0.8442	54030.88	3.3240	3.3240	-0.4847	26.82	1.10	-1.500			
0.8457	54121.89	3.3210	3.3211	-0.4727	26.83	1.11	-1.500			
0.8471	54211.58	3.3180	3.3180	-0.4576	26.83	1.11	-1.500			
0.8484	54297.95	3.3150	3.3149	-0.4443	26.84	1.12	-1.500			
0.8497	54382.41	3.3120	3.3122	-0.4332	26.84	1.12	-1.500			
0.8510	54464.42	3.3090	3.3089	-0.4193	26.85	1.13	-1.500			
0.8522	54543.63	3.3060	3.3059	-0.4064	26.86	1.14	-1.500			
0.8534	54619.40	3.3030	3.3030	-0.3914	26.86	1.14	-1.500			
0.8546	54693.64	3.3000	3.3001	-0.3821	26.87	1.15	-1.500			
0.8557	54766.33	3.2970	3.2970	-0.3698	26.88	1.16	-1.500			
0.8568	54835.32	3.2940	3.2939	-0.3569	26.88	1.16	-1.500			
0.8579	54902.53	3.2910	3.2911	-0.3461	26.89	1.17	-1.500			
0.8589	54968.04	3.2880	3.2879	-0.3371	26.90	1.18	-1.500			
0.8599	55031.23	3.2850	3.2850	-0.3278	26.90	1.18	-1.500			
0.8608	55093.51	3.2820	3.2819	-0.3194	26.91	1.19	-1.500			
0.8618	55153.94	3.2790	3.2790	-0.3095	26.92	1.20	-1.500			
0.8627	55213.05	3.2760	3.2760	-0.3013	26.92	1.20	-1.500			
0.8636	55269.96	3.2730	3.2730	-0.2923	26.93	1.21	-1.500			
0.8645	55325.36	3.2700	3.2700	-0.2832	26.93	1.21	-1.500			
0.8653	55377.83	3.2670	3.2669	-0.2759	26.94	1.22	-1.500			
0.8661	55430.02	3.2640	3.2641	-0.2693	26.94	1.22	-1.500			
0.8669	55480.83	3.2610	3.2609	-0.2633	26.95	1.23	-1.500			
0.8677	55530.93	3.2580	3.2579	-0.2574	26.96	1.24	-1.500			
0.8684	55579.92	3.2550	3.2551	-0.2515	26.96	1.24	-1.500			
0.8692	55627.80	3.2520	3.2520	-0.2459	26.97	1.25	-1.500			
0.8699	55674.74	3.2490	3.2490	-0.2400	26.97	1.25	-1.500			
0.8706	55719.84	3.2460	3.2459	-0.2341	26.98	1.26	-1.500			
0.8713	55763.83	3.2430	3.2430	-0.2278	26.98	1.26	-1.500			
0.8720	55807.01	3.2400	3.2401	-0.2241	26.99	1.27	-1.500			
0.8727	55849.67	3.2370	3.2369	-0.2196	26.99	1.27	-1.500			
0.8733	55891.05	3.2340	3.2341	-0.2156	27.00	1.28	-1.500			
0.8739	55931.90	3.2310	3.2309	-0.2116	27.00	1.28	-1.500			
0.8746	55972.32	3.2280	3.2280	-0.2075	27.01	1.29	-1.500			
0.8752	56011.73	3.2250	3.2250	-0.2039	27.01	1.29	-1.500			
0.8758	56050.50	3.2220	3.2220	-0.2002	27.02	1.30	-1.500			
0.8764	56088.77	3.2190	3.2190	-0.1968	27.02	1.30	-1.500			
0.8770	56125.82	3.2160	3.2160	-0.1928	27.03	1.31	-1.500			
0.8775	56162.60	3.2130	3.2129	-0.1901	27.03	1.31	-1.500			
0.8781	56198.73	3.2100	3.2100	-0.1862	27.04	1.32	-1.500			
0.8787	56234.18	3.2070	3.2071	-0.1832	27.04	1.32	-1.500			
0.8792	56269.18	3.2040	3.2040	-0.1809	27.04	1.32	-1.500			
0.8797	56303.21	3.2010	3.2011	-0.1783	27.05	1.33	-1.500			
0.8803	56337.30	3.1980	3.1979	-0.1759	27.05	1.33	-1.500			
0.8808	56370.86	3.1950	3.1950	-0.1738	27.06	1.34	-1.500			
0.8813	56403.94	3.1920	3.1920	-0.1717	27.06	1.34	-1.500			
0.8818	56436.85	3.1890	3.1890	-0.1693	27.06	1.34	-1.500			
0.8823	56469.50	3.1860	3.1860	-0.1675	27.07	1.35	-1.500			
0.8828	56501.26	3.1830	3.1830	-0.1648	27.07	1.35	-1.500			
0.8833	56532.41	3.1800	3.1800	-0.1625	27.08	1.36	-1.500			
0.8838	56563.14	3.1770	3.1769	-0.1603	27.08	1.36	-1.500			
0.8843	56593.76	3.1740	3.1741	-0.1587	27.08	1.36	-1.500			
0.8848	56624.15	3.1710	3.1708	-0.1570	27.09	1.37	-1.500			
0.8852	56653.97	3.1680	3.1680	-0.1553	27.09	1.37	-1.500			
0.8857	56683.85	3.1650	3.1651	-0.1540	27.09	1.37	-1.500			
0.8861	56713.25	3.1620	3.1619	-0.1523	27.10	1.38	-1.500			
0.8866	56742.39	3.1590	3.1590	-0.1501	27.10	1.38	-1.500			
0.8870	56770.77	3.1560	3.1560	-0.1489	27.11	1.39	-1.500			
0.8875	56799.11	3.1530	3.1530	-0.1475	27.11	1.39	-1.500			
0.8879	56827.30	3.1500	3.1501	-0.1466	27.11	1.39	-1.500			
0.8884	56855.29	3.1470	3.1469	-0.1454	27.12	1.40	-1.500			
0.8888	56883.24	3.1440	3.1440	-0.1439	27.12	1.40	-1.500			
0.8892	56910.94	3.1410	3.1410	-0.1429	27.13	1.41	-1.500			
0.8897	56938.14	3.1380	3.1380	-0.1418	27.13	1.41	-1.500			
0.8901	56965.42	3.1350	3.1350	-0.1408	27.14	1.42	-1.500			
0.8905	56991.88	3.1320	3.1319	-0.1391	27.14	1.42	-1.500			
0.8909	57018.53	3.1290	3.1290	-0.1385	27.14	1.42	-1.500			
0.8913	57045.08	3.1260	3.1260	-0.1372	27.15	1.43	-1.500			
0.8917	57071.37	3.1230	3.1230	-0.1364	27.15	1.43	-1.500			
0.8921	57097.59	3.1200	3.1201	-0.1357	27.16	1.44	-1.500			
0.8926	57123.53	3.1170	3.1170	-0.1345	27.16	1.44	-1.500			
0.8930	57149.12	3.1140	3.1139	-0.1332	27.17	1.45	-1.500			
0.8934	57174.54	3.1110	3.1110	-0.1324	27.17	1.45	-1.500			
0.8937	57199.93	3.1080	3.1080	-0.1311	27.17	1.45	-1.500			
0.8941	57225.00	3.1050	3.1049	-0.1301	27.18	1.46	-1.500			
0.8945	57250.02	3.1020	3.1020	-0.1294	27.18	1.46	-1.500			
0.8949	57274.70	3.0990	3.0991	-0.1282	27.19	1.47	-1.500			
0.8953	57299.01	3.0960	3.0961	-0.1277	27.19	1.47	-1.500			
0.8957	57323.66	3.0930	3.0928	-0.1269	27.19	1.47	-1.500			
0.8961	57347.96	3.0900	3.0899	-0.1261	27.20	1.48	-1.500			
0.8964	57371.97	3.0870	3.0870	-0.1254	27.20	1.48	-1.500			
0.8968	57396.00	3.0840	3.0841	-0.1250	27.21	1.49	-1.500			
0.8972	57420.11	3.0810	3.0810	-0.1247	27.21	1.49	-1.500			
0.8976	57443.93	3.0780	3.0780	-0.1239	27.21	1.49	-1.500			
0.8979	57467.70	3.0750	3.0750	-0.1230	27.22	1.50	-1.500			
0.8983	57491.08	3.0720	3.0720	-0.1221	27.22	1.50	-1.500			
0.8987	57514.51	3.0690	3.0691	-0.1214	27.22	1.50	-1.500			
0.8990	57538.06	3.0660	3.0660	-0.1209	27.22	1.50	-1.500			
0.8994	57561.12	3.0630	3.0629	-0.1202	27.23	1.51	-1.500			
0.8997	57583.97	3.0600	3.0600	-0.1192	27.23	1.51	-1.500			
0.9001	57606.76	3.0570	3.0570	-0.1187	27.24	1.52	-1.500			
0.9005	57629.39	3.0540	3.0541	-0.1180	27.24	1.52	-1.500			
0.9008	57652.02	3.0510	3.0510	-0.1176	27.25	1.53	-1.500			
0.9012	57674.57	3.0480	3.0480	-0.1171	27.25	1.53	-1.500			
0.9015	57697.11	3.0450	3.0449	-0.1163	27.26	1.54	-1.500			
0.9019	57719.35	3.0420	3.0421	-0.1155	27.26	1.54	-1.500			
0.9022	57741.49	3.0390	3.0390	-0.1149	27.27	1.55	-1.500			
0.9026	57763.47	3.0360	3.0361	-0.1141	27.27	1.55	-1.500			
0.9029	57785.04	3.0330	3.0330	-0.1138	27.28	1.56	-1.500			
0.9032	57806.87	3.0300	3.0300	-0.1137	27.28	1.56	-1.500			
0.9036	57828.53	3.0270	3.0269	-0.1132	27.29	1.57	-1.500			
0.9039	57850.28	3.0240	3.0240	-0.1134	27.29	1.57	-1.500			
0.9043	57872.27	3.0210	3.0211	-0.1132	27.30	1.58	-1.500			
0.9046	57893.97	3.0180	3.0180	-0.1128	27.30	1.58	-1.500			
0.9049	57915.84	3.0150	3.0152	-0.1123	27.31	1.59	-1.500			
0.9053	57937.30	3.0120	3.0119	-0.1112	27.31	1.59	-1.500			
0.9056	57958.58	3.0090	3.0090	-0.1102	27.32	1.60	-1.500			
0.9059	57979.64	3.0060	3.0060	-0.1091	27.32	1.60	-1.500			
0.9063	58000.49	3.0030	3.0031	-0.1076	27.33	1.61	-1.498			
