Ah_balance (normalized)	Ah_balance (mAh)	Voltage - fit (V)	Voltage -  interpolate (V)	dQ/dV (1/V)	Temperature (°C)	Temperature - diff (°C)	Current (C)	R_DC 0ms (mOhm)	R_DC 50ms (mOhm)	R_DC 50 ms PEC (mOhm)
0.2045	13090.69	3.9120	3.9116	-0.1129	25.65	0.00	-1.500			
0.2049	13115.48	3.9090	3.9089	-0.1463	25.65	0.00	-1.500			
0.2054	13146.64	3.9060	3.9060	-0.1807	25.65	0.00	-1.500			
0.2060	13185.76	3.9030	3.9030	-0.2110	25.65	0.00	-1.500			
0.2067	13229.36	3.9000	3.9000	-0.2409	25.65	0.00	-1.500			
0.2075	13279.63	3.8970	3.8969	-0.2703	25.65	0.00	-1.500			
0.2083	13333.76	3.8940	3.8941	-0.2993	25.65	0.00	-1.500			
0.2093	13393.98	3.8910	3.8910	-0.3272	25.65	0.00	-1.500			
0.2103	13458.80	3.8880	3.8880	-0.3555	25.65	0.00	-1.500			
0.2114	13529.81	3.8850	3.8849	-0.3844	25.65	0.00	-1.500			
0.2126	13607.31	3.8820	3.8822	-0.4140	25.65	-0.00	-1.500			
0.2139	13690.05	3.8790	3.8790	-0.4408	25.65	-0.00	-1.500			
0.2153	13776.97	3.8760	3.8761	-0.4692	25.65	-0.00	-1.500			
0.2167	13869.79	3.8730	3.8730	-0.4960	25.65	-0.00	-1.500			
0.2182	13967.78	3.8700	3.8700	-0.5224	25.65	-0.00	-1.500			
0.2199	14070.47	3.8670	3.8670	-0.5480	25.65	-0.00	-1.500			
0.2215	14178.76	3.8640	3.8640	-0.5734	25.65	-0.00	-1.500			
0.2233	14292.14	3.8610	3.8610	-0.5941	25.65	-0.00	-1.500			
0.2251	14409.18	3.8580	3.8579	-0.6149	25.64	-0.01	-1.500			
0.2270	14528.72	3.8550	3.8550	-0.6307	25.64	-0.01	-1.500			
0.2289	14651.88	3.8520	3.8521	-0.6473	25.64	-0.01	-1.500			
0.2309	14777.41	3.8490	3.8490	-0.6624	25.64	-0.01	-1.500			
0.2329	14906.61	3.8460	3.8460	-0.6757	25.64	-0.01	-1.500			
0.2350	15038.27	3.8430	3.8430	-0.6892	25.64	-0.01	-1.500			
0.2371	15172.68	3.8400	3.8400	-0.7023	25.64	-0.01	-1.500			
0.2392	15308.38	3.8370	3.8370	-0.7082	25.64	-0.01	-1.500			
0.2413	15445.76	3.8340	3.8341	-0.7172	25.64	-0.01	-1.500			
0.2435	15584.13	3.8310	3.8310	-0.7221	25.64	-0.01	-1.500			
0.2457	15723.21	3.8280	3.8279	-0.7255	25.65	-0.00	-1.500			
0.2479	15862.84	3.8250	3.8251	-0.7316	25.65	-0.00	-1.500			
0.2500	16002.96	3.8220	3.8220	-0.7370	25.65	-0.00	-1.500			
0.2523	16146.11	3.8190	3.8190	-0.7437	25.65	0.00	-1.500			
0.2545	16290.37	3.8160	3.8160	-0.7474	25.65	0.00	-1.500			
0.2568	16434.15	3.8130	3.8130	-0.7493	25.66	0.01	-1.500			
0.2590	16578.83	3.8100	3.8100	-0.7523	25.66	0.01	-1.500			
0.2613	16723.74	3.8070	3.8070	-0.7531	25.66	0.01	-1.500			
0.2636	16867.62	3.8040	3.8040	-0.7519	25.66	0.01	-1.500			
0.2658	17011.98	3.8010	3.8010	-0.7511	25.67	0.02	-1.500			
0.2681	17156.03	3.7980	3.7981	-0.7533	25.67	0.02	-1.500			
0.2703	17301.68	3.7950	3.7949	-0.7556	25.67	0.02	-1.500			
0.2726	17446.13	3.7920	3.7920	-0.7562	25.68	0.03	-1.500			
0.2749	17591.03	3.7890	3.7890	-0.7588	25.68	0.03	-1.500			
0.2771	17737.50	3.7860	3.7861	-0.7607	25.68	0.03	-1.500			
0.2794	17884.07	3.7830	3.7829	-0.7620	25.69	0.04	-1.500			
0.2817	18030.97	3.7800	3.7800	-0.7615	25.69	0.04	-1.500			
0.2840	18176.32	3.7770	3.7770	-0.7616	25.69	0.04	-1.500			
0.2863	18322.72	3.7740	3.7739	-0.7626	25.70	0.05	-1.500			
0.2886	18468.50	3.7710	3.7710	-0.7650	25.70	0.05	-1.500			
0.2909	18616.86	3.7680	3.7680	-0.7623	25.71	0.06	-1.500			
0.2932	18763.78	3.7650	3.7650	-0.7662	25.71	0.06	-1.500			
0.2955	18910.83	3.7620	3.7620	-0.7606	25.72	0.07	-1.500			
0.2978	19057.53	3.7590	3.7590	-0.7626	25.72	0.07	-1.500			
0.3000	19202.19	3.7560	3.7559	-0.7616	25.73	0.08	-1.500			
0.3023	19348.81	3.7530	3.7530	-0.7628	25.74	0.09	-1.500			
0.3046	19494.30	3.7500	3.7500	-0.7623	25.74	0.09	-1.500			
0.3069	19642.53	3.7470	3.7470	-0.7660	25.75	0.10	-1.500			
0.3092	19788.79	3.7440	3.7441	-0.7653	25.75	0.10	-1.500			
0.3115	19938.05	3.7410	3.7409	-0.7642	25.76	0.11	-1.500			
0.3138	20084.13	3.7380	3.7380	-0.7610	25.76	0.11	-1.500			
0.3161	20229.23	3.7350	3.7350	-0.7639	25.77	0.12	-1.500			
0.3184	20375.41	3.7320	3.7321	-0.7652	25.77	0.12	-1.500			
0.3206	20521.50	3.7290	3.7289	-0.7665	25.78	0.13	-1.500			
0.3230	20668.89	3.7260	3.7260	-0.7711	25.78	0.13	-1.500			
0.3253	20818.12	3.7230	3.7231	-0.7725	25.79	0.14	-1.500			
0.3276	20967.17	3.7200	3.7199	-0.7787	25.80	0.15	-1.500			
0.3299	21116.75	3.7170	3.7171	-0.7820	25.80	0.15	-1.500			
0.3323	21266.70	3.7140	3.7140	-0.7864	25.81	0.16	-1.500			
0.3347	21418.22	3.7110	3.7109	-0.7932	25.81	0.16	-1.500			
0.3371	21571.24	3.7080	3.7080	-0.7989	25.82	0.17	-1.500			
0.3395	21725.07	3.7050	3.7050	-0.8066	25.82	0.17	-1.500			
0.3419	21881.25	3.7020	3.7020	-0.8128	25.83	0.18	-1.500			
0.3443	22036.42	3.6990	3.6990	-0.8205	25.84	0.19	-1.500			
0.3468	22195.57	3.6960	3.6961	-0.8282	25.84	0.19	-1.500			
0.3493	22354.61	3.6930	3.6929	-0.8391	25.85	0.20	-1.500			
0.3518	22516.11	3.6900	3.6900	-0.8522	25.85	0.20	-1.500			
0.3544	22680.58	3.6870	3.6870	-0.8643	25.86	0.21	-1.500			
0.3570	22848.19	3.6840	3.6839	-0.8739	25.87	0.22	-1.500			
0.3597	23017.92	3.6810	3.6810	-0.8873	25.87	0.22	-1.500			
0.3623	23188.13	3.6780	3.6781	-0.9014	25.88	0.23	-1.500			
0.3650	23363.13	3.6750	3.6750	-0.9156	25.89	0.24	-1.500			
0.3678	23539.27	3.6720	3.6719	-0.9257	25.89	0.24	-1.500			
0.3706	23717.31	3.6690	3.6691	-0.9398	25.90	0.25	-1.500			
0.3734	23899.82	3.6660	3.6659	-0.9570	25.90	0.25	-1.500			
0.3763	24085.18	3.6630	3.6630	-0.9796	25.91	0.26	-1.500			
0.3793	24274.51	3.6600	3.6600	-0.9932	25.91	0.26	-1.500			
0.3823	24465.49	3.6570	3.6570	-1.0105	25.92	0.27	-1.500			
0.3853	24662.03	3.6540	3.6540	-1.0360	25.93	0.28	-1.500			
0.3885	24863.81	3.6510	3.6510	-1.0529	25.93	0.28	-1.500			
0.3917	25068.12	3.6480	3.6480	-1.0658	25.93	0.28	-1.500			
0.3949	25273.43	3.6450	3.6451	-1.0905	25.94	0.29	-1.500			
0.3982	25482.30	3.6420	3.6421	-1.1146	25.94	0.29	-1.500			
0.4016	25700.11	3.6390	3.6389	-1.1453	25.95	0.30	-1.500			
0.4050	25920.32	3.6360	3.6360	-1.1681	25.95	0.30	-1.500			
0.4086	26148.21	3.6330	3.6331	-1.1948	25.96	0.31	-1.500			
0.4122	26383.11	3.6300	3.6300	-1.2190	25.96	0.31	-1.500			
0.4160	26621.79	3.6270	3.6270	-1.2430	25.96	0.31	-1.500			
0.4197	26859.69	3.6240	3.6240	-1.2630	25.97	0.32	-1.500			
0.4234	27100.76	3.6210	3.6210	-1.2944	25.97	0.32	-1.500			
0.4274	27354.74	3.6180	3.6179	-1.3156	25.97	0.32	-1.500			
0.4314	27609.76	3.6150	3.6150	-1.3430	25.98	0.33	-1.500			
0.4355	27870.77	3.6120	3.6120	-1.3673	25.98	0.33	-1.500			
0.4396	28137.16	3.6090	3.6089	-1.3983	25.98	0.33	-1.500			
0.4439	28406.59	3.6060	3.6059	-1.4218	25.99	0.34	-1.500			
0.4481	28680.30	3.6030	3.6030	-1.4443	25.99	0.34	-1.500			
0.4525	28959.41	3.6000	3.6000	-1.4684	25.99	0.34	-1.500			
0.4570	29247.67	3.5970	3.5970	-1.5045	26.00	0.35	-1.500			
0.4615	29537.81	3.5940	3.5940	-1.5277	26.00	0.35	-1.500			
0.4662	29834.57	3.5910	3.5910	-1.5523	26.00	0.35	-1.500			
0.4708	30133.13	3.5880	3.5880	-1.5797	26.01	0.36	-1.500			
0.4756	30441.07	3.5850	3.5850	-1.6051	26.01	0.36	-1.500			
0.4805	30751.38	3.5820	3.5820	-1.6325	26.01	0.36	-1.500			
0.4854	31068.15	3.5790	3.5790	-1.6574	26.02	0.37	-1.500			
0.4904	31388.56	3.5760	3.5760	-1.6768	26.02	0.37	-1.500			
0.4955	31713.04	3.5730	3.5730	-1.7032	26.02	0.37	-1.500			
0.5007	32042.57	3.5700	3.5700	-1.7264	26.02	0.37	-1.500			
0.5058	32374.38	3.5670	3.5670	-1.7479	26.02	0.37	-1.500			
0.5112	32713.98	3.5640	3.5640	-1.7735	26.02	0.37	-1.500			
0.5165	33056.72	3.5610	3.5610	-1.7941	26.02	0.37	-1.500			
0.5219	33403.88	3.5580	3.5580	-1.8311	26.03	0.38	-1.500			
0.5275	33759.76	3.5550	3.5550	-1.8559	26.03	0.38	-1.500			
0.5331	34120.20	3.5520	3.5519	-1.8724	26.04	0.39	-1.500			
0.5388	34480.40	3.5490	3.5492	-1.8904	26.04	0.39	-1.500			
0.5445	34846.37	3.5460	3.5460	-1.8967	26.05	0.40	-1.500			
0.5502	35211.92	3.5430	3.5429	-1.9008	26.05	0.40	-1.500			
0.5559	35574.60	3.5400	3.5405	-1.8847	26.05	0.40	-1.500	0.379	0.510	
0.5616	35940.38	3.5370	3.5369	-1.8969	26.06	0.41	-1.500			
0.5673	36304.64	3.5340	3.5340	-1.8967	26.07	0.42	-1.500			
0.5729	36666.37	3.5310	3.5309	-1.8888	26.08	0.43	-1.500			
0.5786	37031.33	3.5280	3.5280	-1.8914	26.09	0.44	-1.500			
0.5843	37395.23	3.5250	3.5250	-1.8892	26.09	0.44	-1.500			
0.5900	37759.00	3.5220	3.5220	-1.8829	26.10	0.45	-1.500			
0.5956	38118.22	3.5190	3.5190	-1.8766	26.11	0.46	-1.500			
0.6012	38477.61	3.5160	3.5160	-1.8629	26.12	0.47	-1.500			
0.6068	38832.74	3.5130	3.5130	-1.8525	26.13	0.48	-1.500			
0.6123	39187.85	3.5100	3.5101	-1.8503	26.14	0.49	-1.500			
0.6178	39542.23	3.5070	3.5070	-1.8441	26.15	0.50	-1.500			
0.6234	39897.32	3.5040	3.5040	-1.8316	26.16	0.51	-1.500			
0.6289	40248.43	3.5010	3.5010	-1.8224	26.17	0.52	-1.500			
0.6343	40598.17	3.4980	3.4979	-1.8180	26.17	0.52	-1.500			
0.6398	40944.43	3.4950	3.4950	-1.8070	26.19	0.54	-1.500			
0.6451	41288.14	3.4920	3.4920	-1.8136	26.20	0.55	-1.500			
0.6506	41636.28	3.4890	3.4890	-1.7941	26.21	0.56	-1.500			
0.6560	41981.93	3.4860	3.4860	-1.7838	26.22	0.57	-1.500			
0.6614	42326.83	3.4830	3.4832	-1.7746	26.24	0.59	-1.500			
0.6667	42666.82	3.4800	3.4799	-1.7528	26.25	0.60	-1.500			
0.6719	42999.22	3.4770	3.4770	-1.7358	26.26	0.61	-1.500			
0.6770	43326.72	3.4740	3.4740	-1.7160	26.27	0.62	-1.500			
0.6821	43655.85	3.4710	3.4709	-1.6956	26.29	0.64	-1.500			
0.6873	43985.61	3.4680	3.4680	-1.6784	26.30	0.65	-1.500			
0.6923	44305.13	3.4650	3.4651	-1.6500	26.32	0.67	-1.500			
0.6972	44620.70	3.4620	3.4621	-1.6339	26.33	0.68	-1.500			
0.7021	44932.75	3.4590	3.4589	-1.6067	26.35	0.70	-1.500			
0.7068	45235.27	3.4560	3.4560	-1.5796	26.36	0.71	-1.500			
0.7115	45535.86	3.4530	3.4531	-1.5548	26.38	0.73	-1.500			
0.7162	45833.88	3.4500	3.4500	-1.5334	26.39	0.74	-1.500			
0.7208	46128.26	3.4470	3.4470	-1.5134	26.41	0.76	-1.500			
0.7252	46415.01	3.4440	3.4440	-1.4905	26.42	0.77	-1.500			
0.7296	46695.73	3.4410	3.4410	-1.4707	26.43	0.78	-1.500			
0.7340	46977.04	3.4380	3.4379	-1.4622	26.45	0.80	-1.500			
0.7384	47255.22	3.4350	3.4351	-1.4549	26.46	0.81	-1.500			
0.7427	47534.26	3.4320	3.4320	-1.4500	26.48	0.83	-1.500			
0.7471	47811.85	3.4290	3.4290	-1.4483	26.50	0.85	-1.500			
0.7514	48091.71	3.4260	3.4260	-1.4377	26.52	0.87	-1.500			
0.7558	48370.21	3.4230	3.4230	-1.4313	26.54	0.89	-1.500			
0.7601	48644.56	3.4200	3.4201	-1.4051	26.56	0.91	-1.500			
0.7643	48912.65	3.4170	3.4170	-1.3841	26.57	0.92	-1.500			
0.7684	49174.69	3.4140	3.4140	-1.3659	26.59	0.94	-1.500			
0.7724	49432.83	3.4110	3.4110	-1.3421	26.61	0.96	-1.500			
0.7764	49691.49	3.4080	3.4079	-1.3141	26.63	0.98	-1.500			
0.7804	49943.75	3.4050	3.4050	-1.2733	26.65	1.00	-1.500			
0.7842	50187.32	3.4020	3.4020	-1.2361	26.66	1.01	-1.500			
0.7878	50421.27	3.3990	3.3992	-1.1905	26.67	1.02	-1.500			
0.7913	50642.09	3.3960	3.3959	-1.1396	26.69	1.04	-1.500			
0.7946	50853.72	3.3930	3.3930	-1.0940	26.71	1.06	-1.500			
0.7978	51061.40	3.3900	3.3900	-1.0573	26.72	1.07	-1.500			
0.8010	51263.19	3.3870	3.3870	-1.0211	26.74	1.09	-1.500			
0.8040	51454.91	3.3840	3.3840	-0.9757	26.75	1.10	-1.500			
0.8068	51637.38	3.3810	3.3811	-0.9340	26.77	1.12	-1.500			
0.8096	51812.14	3.3780	3.3779	-0.8953	26.78	1.13	-1.500			
0.8121	51977.46	3.3750	3.3750	-0.8542	26.80	1.15	-1.500			
0.8146	52137.54	3.3720	3.3720	-0.8199	26.81	1.16	-1.500			
0.8171	52291.27	3.3690	3.3690	-0.7886	26.82	1.17	-1.500			
0.8194	52439.43	3.3660	3.3661	-0.7644	26.83	1.18	-1.500			
0.8216	52582.95	3.3630	3.3629	-0.7394	26.84	1.19	-1.500			
0.8238	52721.53	3.3600	3.3600	-0.7148	26.85	1.20	-1.500			
0.8259	52857.55	3.3570	3.3570	-0.6938	26.86	1.21	-1.500			
0.8279	52988.47	3.3540	3.3540	-0.6736	26.87	1.22	-1.500			
0.8299	53116.75	3.3510	3.3510	-0.6509	26.88	1.23	-1.500			
0.8319	53238.57	3.3480	3.3480	-0.6283	26.89	1.24	-1.500			
0.8337	53356.47	3.3450	3.3450	-0.6045	26.89	1.24	-1.500			
0.8355	53470.04	3.3420	3.3420	-0.5858	26.90	1.25	-1.500			
0.8372	53580.84	3.3390	3.3391	-0.5657	26.90	1.25	-1.500			
0.8389	53687.11	3.3360	3.3360	-0.5485	26.91	1.26	-1.500			
0.8405	53789.64	3.3330	3.3330	-0.5339	26.92	1.27	-1.500			
0.8421	53891.40	3.3300	3.3301	-0.5174	26.92	1.27	-1.500			
0.8436	53988.75	3.3270	3.3270	-0.5016	26.93	1.28	-1.500			
0.8451	54084.03	3.3240	3.3240	-0.4874	26.94	1.29	-1.500			
0.8465	54175.72	3.3210	3.3210	-0.4718	26.95	1.30	-1.500			
0.8479	54264.89	3.3180	3.3179	-0.4577	26.95	1.30	-1.500			
0.8492	54350.52	3.3150	3.3150	-0.4422	26.96	1.31	-1.500			
0.8505	54433.74	3.3120	3.3121	-0.4276	26.97	1.32	-1.500			
0.8518	54515.57	3.3090	3.3089	-0.4168	26.97	1.32	-1.500			
0.8530	54593.83	3.3060	3.3060	-0.4037	26.98	1.33	-1.500			
0.8542	54670.55	3.3030	3.3031	-0.3913	26.99	1.34	-1.500			
0.8554	54744.38	3.3000	3.2999	-0.3779	26.99	1.34	-1.500			
0.8565	54815.56	3.2970	3.2970	-0.3671	27.00	1.35	-1.500			
0.8576	54884.30	3.2940	3.2941	-0.3545	27.00	1.35	-1.500			
0.8586	54950.95	3.2910	3.2909	-0.3447	27.01	1.36	-1.500			
0.8596	55015.98	3.2880	3.2880	-0.3351	27.01	1.36	-1.500			
0.8606	55079.39	3.2850	3.2850	-0.3256	27.02	1.37	-1.500			
0.8616	55141.37	3.2820	3.2820	-0.3172	27.03	1.38	-1.500			
0.8625	55201.40	3.2790	3.2790	-0.3096	27.03	1.38	-1.500			
0.8634	55259.78	3.2760	3.2760	-0.3008	27.04	1.39	-1.500			
0.8643	55317.06	3.2730	3.2730	-0.2930	27.04	1.39	-1.500			
0.8652	55372.39	3.2700	3.2699	-0.2841	27.05	1.40	-1.500			
0.8660	55426.00	3.2670	3.2671	-0.2765	27.05	1.40	-1.500			
0.8668	55478.31	3.2640	3.2640	-0.2701	27.06	1.41	-1.500			
0.8676	55529.50	3.2610	3.2610	-0.2628	27.06	1.41	-1.500			
0.8684	55578.88	3.2580	3.2579	-0.2557	27.07	1.42	-1.500			
0.8692	55627.02	3.2550	3.2550	-0.2492	27.07	1.42	-1.500			
0.8699	55674.60	3.2520	3.2521	-0.2442	27.08	1.43	-1.500			
0.8706	55720.90	3.2490	3.2490	-0.2393	27.08	1.43	-1.500			
0.8713	55766.34	3.2460	3.2459	-0.2340	27.09	1.44	-1.500			
0.8720	55810.40	3.2430	3.2430	-0.2284	27.09	1.44	-1.500			
0.8727	55853.62	3.2400	3.2400	-0.2238	27.10	1.45	-1.500			
0.8734	55896.45	3.2370	3.2370	-0.2199	27.10	1.45	-1.500			
0.8740	55938.14	3.2340	3.2341	-0.2151	27.11	1.46	-1.500			
0.8747	55978.89	3.2310	3.2310	-0.2115	27.11	1.46	-1.500			
0.8753	56019.08	3.2280	3.2280	-0.2074	27.12	1.47	-1.500			
0.8759	56058.42	3.2250	3.2249	-0.2033	27.12	1.47	-1.500			
0.8765	56097.11	3.2220	3.2221	-0.1998	27.12	1.47	-1.500			
0.8771	56135.20	3.2190	3.2190	-0.1967	27.13	1.48	-1.500			
0.8777	56172.73	3.2160	3.2160	-0.1923	27.13	1.48	-1.500			
0.8783	56209.18	3.2130	3.2130	-0.1890	27.14	1.49	-1.500			
0.8788	56245.10	3.2100	3.2101	-0.1852	27.14	1.49	-1.500			
0.8794	56279.95	3.2070	3.2071	-0.1829	27.14	1.49	-1.500			
0.8799	56314.80	3.2040	3.2039	-0.1802	27.15	1.50	-1.500			
0.8805	56349.14	3.2010	3.2010	-0.1773	27.15	1.50	-1.500			
0.8810	56382.95	3.1980	3.1980	-0.1749	27.15	1.50	-1.500			
0.8815	56416.15	3.1950	3.1952	-0.1729	27.16	1.51	-1.500			
0.8820	56449.58	3.1920	3.1920	-0.1708	27.16	1.51	-1.500			
0.8825	56481.90	3.1890	3.1889	-0.1680	27.17	1.52	-1.500			
0.8830	56513.92	3.1860	3.1860	-0.1655	27.17	1.52	-1.500			
0.8835	56545.17	3.1830	3.1831	-0.1640	27.17	1.52	-1.500			
0.8840	56576.60	3.1800	3.1800	-0.1623	27.18	1.53	-1.500			
0.8845	56607.60	3.1770	3.1769	-0.1606	27.18	1.53	-1.500			
0.8850	56638.28	3.1740	3.1740	-0.1589	27.18	1.53	-1.500			
0.8854	56668.48	3.1710	3.1711	-0.1570	27.19	1.54	-1.500			
0.8859	56698.59	3.1680	3.1680	-0.1561	27.19	1.54	-1.500			
0.8864	56728.35	3.1650	3.1650	-0.1544	27.19	1.54	-1.500			
0.8868	56757.93	3.1620	3.1619	-0.1522	27.20	1.55	-1.500			
0.8873	56786.70	3.1590	3.1590	-0.1510	27.20	1.55	-1.500			
0.8877	56815.82	3.1560	3.1560	-0.1493	27.20	1.55	-1.500			
0.8882	56844.37	3.1530	3.1531	-0.1476	27.21	1.56	-1.500			
0.8886	56872.42	3.1500	3.1498	-0.1467	27.21	1.56	-1.500			
0.8891	56900.49	3.1470	3.1471	-0.1450	27.22	1.57	-1.500			
0.8895	56928.18	3.1440	3.1439	-0.1431	27.22	1.57	-1.500			
0.8899	56955.51	3.1410	3.1410	-0.1416	27.23	1.58	-1.500			
0.8904	56982.60	3.1380	3.1381	-0.1413	27.23	1.58	-1.500			
0.8908	57009.35	3.1350	3.1350	-0.1398	27.24	1.59	-1.500			
0.8912	57036.39	3.1320	3.1319	-0.1390	27.24	1.59	-1.500			
0.8916	57062.95	3.1290	3.1290	-0.1377	27.25	1.60	-1.500			
0.8920	57089.11	3.1260	3.1261	-0.1361	27.25	1.60	-1.500			
0.8924	57115.16	3.1230	3.1230	-0.1360	27.25	1.60	-1.500			
0.8928	57141.16	3.1200	3.1201	-0.1351	27.26	1.61	-1.500			
0.8932	57167.02	3.1170	3.1169	-0.1343	27.26	1.61	-1.500			
0.8936	57192.49	3.1140	3.1139	-0.1328	27.27	1.62	-1.500			
0.8940	57218.09	3.1110	3.1111	-0.1324	27.27	1.62	-1.500			
0.8944	57243.67	3.1080	3.1081	-0.1316	27.28	1.63	-1.500			
0.8948	57268.67	3.1050	3.1050	-0.1308	27.28	1.63	-1.500			
0.8952	57293.71	3.1020	3.1020	-0.1297	27.28	1.63	-1.500			
0.8956	57318.20	3.0990	3.0990	-0.1285	27.29	1.64	-1.500			
0.8960	57342.90	3.0960	3.0960	-0.1276	27.29	1.64	-1.500			
0.8964	57367.43	3.0930	3.0930	-0.1270	27.30	1.65	-1.500			
0.8967	57391.83	3.0900	3.0900	-0.1265	27.30	1.65	-1.500			
0.8971	57415.95	3.0870	3.0871	-0.1257	27.31	1.66	-1.500			
0.8975	57439.99	3.0840	3.0840	-0.1249	27.31	1.66	-1.500			
0.8979	57463.80	3.0810	3.0809	-0.1239	27.31	1.66	-1.500			
0.8982	57487.54	3.0780	3.0780	-0.1234	27.32	1.67	-1.500			
0.8986	57511.24	3.0750	3.0751	-0.1227	27.32	1.67	-1.500			
0.8990	57534.83	3.0720	3.0719	-0.1221	27.33	1.68	-1.500			
0.8993	57558.19	3.0690	3.0691	-0.1212	27.33	1.68	-1.500			
0.8997	57581.38	3.0660	3.0659	-0.1203	27.33	1.68	-1.500			
0.9001	57604.38	3.0630	3.0629	-0.1196	27.34	1.69	-1.500			
0.9004	57627.21	3.0600	3.0600	-0.1188	27.34	1.69	-1.500			
0.9008	57649.95	3.0570	3.0568	-0.1181	27.35	1.70	-1.500			
0.9011	57672.39	3.0540	3.0542	-0.1178	27.35	1.70	-1.500			
0.9015	57694.98	3.0510	3.0510	-0.1175	27.36	1.71	-1.500			
0.9018	57717.48	3.0480	3.0480	-0.1168	27.36	1.71	-1.500			
0.9022	57739.90	3.0450	3.0448	-0.1165	27.36	1.71	-1.500			
0.9025	57762.35	3.0420	3.0421	-0.1158	27.37	1.72	-1.500			
0.9029	57784.63	3.0390	3.0391	-0.1153	27.37	1.72	-1.500			
0.9032	57806.71	3.0360	3.0360	-0.1145	27.38	1.73	-1.500			
0.9036	57828.78	3.0330	3.0330	-0.1139	27.38	1.73	-1.500			
0.9039	57850.38	3.0300	3.0300	-0.1133	27.38	1.73	-1.500			
0.9042	57871.80	3.0270	3.0270	-0.1122	27.39	1.74	-1.500			
0.9046	57893.35	3.0240	3.0240	-0.1117	27.39	1.74	-1.500			
0.9049	57914.75	3.0210	3.0210	-0.1112	27.39	1.74	-1.500			
0.9053	57936.14	3.0180	3.0179	-0.1105	27.40	1.75	-1.500			
0.9056	57957.37	3.0150	3.0150	-0.1100	27.40	1.75	-1.500			
0.9059	57978.41	3.0120	3.0121	-0.1092	27.41	1.76	-1.500			
0.9062	57999.45	3.0090	3.0090	-0.1082	27.41	1.76	-1.500			
0.9066	58020.12	3.0060	3.0060	-0.1070	27.41	1.76	-1.500			
0.9069	58040.56	3.0030	3.0030	-0.1062	27.42	1.77	-1.500			
