Ah_balance (normalized)	Ah_balance (mAh)	Voltage - fit (V)	Voltage -  interpolate (V)	dQ/dV (1/V)	Temperature (°C)	Temperature - diff (°C)	Current (C)	R_DC 0ms (mOhm)	R_DC 50ms (mOhm)	R_DC 50 ms PEC (mOhm)
0.2149	13756.70	3.9080	3.9077	-0.1313	25.96	-0.02	-1.500			
0.2154	13785.79	3.9050	3.9049	-0.1656	25.96	-0.02	-1.500			
0.2159	13820.26	3.9020	3.9020	-0.1982	25.96	-0.02	-1.500			
0.2166	13862.27	3.8990	3.8991	-0.2291	25.96	-0.02	-1.500			
0.2173	13909.20	3.8960	3.8960	-0.2603	25.96	-0.02	-1.500			
0.2182	13962.65	3.8930	3.8930	-0.2917	25.96	-0.02	-1.500			
0.2191	14021.95	3.8900	3.8901	-0.3197	25.96	-0.02	-1.500			
0.2201	14085.47	3.8870	3.8869	-0.3517	25.96	-0.02	-1.500			
0.2212	14156.05	3.8840	3.8841	-0.3815	25.97	-0.01	-1.500			
0.2224	14231.87	3.8810	3.8810	-0.4096	25.97	-0.01	-1.500			
0.2236	14313.51	3.8780	3.8780	-0.4407	25.97	-0.01	-1.500			
0.2250	14400.94	3.8750	3.8751	-0.4709	25.97	-0.01	-1.500			
0.2265	14494.34	3.8720	3.8719	-0.5018	25.97	-0.01	-1.500			
0.2280	14594.73	3.8690	3.8690	-0.5288	25.97	-0.01	-1.500			
0.2297	14698.21	3.8660	3.8661	-0.5539	25.97	-0.01	-1.500			
0.2314	14807.69	3.8630	3.8630	-0.5823	25.97	-0.01	-1.500			
0.2332	14922.37	3.8600	3.8599	-0.6062	25.98	-0.00	-1.500			
0.2350	15041.29	3.8570	3.8570	-0.6248	25.98	-0.00	-1.500			
0.2369	15163.09	3.8540	3.8540	-0.6465	25.98	-0.00	-1.500			
0.2389	15290.42	3.8510	3.8512	-0.6646	25.98	-0.00	-1.500			
0.2410	15420.87	3.8480	3.8479	-0.6810	25.98	0.00	-1.500			
0.2430	15551.92	3.8450	3.8450	-0.6946	25.98	0.00	-1.500			
0.2451	15686.76	3.8420	3.8420	-0.7086	25.98	0.00	-1.500			
0.2473	15825.25	3.8390	3.8390	-0.7201	25.99	0.01	-1.500			
0.2495	15965.60	3.8360	3.8360	-0.7282	25.99	0.01	-1.500			
0.2517	16106.18	3.8330	3.8330	-0.7340	25.99	0.01	-1.500			
0.2539	16248.69	3.8300	3.8300	-0.7431	25.99	0.01	-1.500			
0.2561	16390.76	3.8270	3.8270	-0.7487	25.99	0.01	-1.500			
0.2584	16534.69	3.8240	3.8239	-0.7525	26.00	0.02	-1.500			
0.2606	16679.96	3.8210	3.8211	-0.7584	26.00	0.02	-1.500			
0.2629	16826.76	3.8180	3.8179	-0.7621	26.00	0.02	-1.500			
0.2652	16973.65	3.8150	3.8150	-0.7666	26.00	0.02	-1.500			
0.2675	17120.94	3.8120	3.8120	-0.7662	26.01	0.03	-1.500			
0.2698	17267.41	3.8090	3.8089	-0.7694	26.01	0.03	-1.500			
0.2721	17415.81	3.8060	3.8061	-0.7708	26.01	0.03	-1.500			
0.2744	17564.47	3.8030	3.8029	-0.7746	26.02	0.04	-1.500			
0.2768	17712.69	3.8000	3.8000	-0.7785	26.02	0.04	-1.500			
0.2791	17863.27	3.7970	3.7970	-0.7791	26.02	0.04	-1.500			
0.2814	18012.44	3.7940	3.7940	-0.7810	26.03	0.05	-1.500			
0.2838	18163.26	3.7910	3.7909	-0.7844	26.03	0.05	-1.500			
0.2862	18314.24	3.7880	3.7881	-0.7818	26.04	0.06	-1.500			
0.2885	18464.76	3.7850	3.7849	-0.7832	26.04	0.06	-1.500			
0.2908	18614.13	3.7820	3.7820	-0.7867	26.05	0.07	-1.500			
0.2932	18765.55	3.7790	3.7790	-0.7884	26.05	0.07	-1.500			
0.2956	18917.28	3.7760	3.7759	-0.7900	26.06	0.08	-1.500			
0.2979	19068.42	3.7730	3.7731	-0.7892	26.07	0.09	-1.500			
0.3003	19220.52	3.7700	3.7701	-0.7894	26.08	0.10	-1.500			
0.3027	19372.29	3.7670	3.7670	-0.7913	26.08	0.10	-1.500			
0.3050	19522.37	3.7640	3.7640	-0.7924	26.09	0.11	-1.500			
0.3074	19675.39	3.7610	3.7609	-0.7898	26.10	0.12	-1.500			
0.3098	19828.82	3.7580	3.7580	-0.7888	26.11	0.13	-1.500			
0.3122	19980.17	3.7550	3.7550	-0.7865	26.11	0.13	-1.500			
0.3145	20130.68	3.7520	3.7521	-0.7885	26.12	0.14	-1.500			
0.3169	20281.84	3.7490	3.7489	-0.7885	26.13	0.15	-1.500			
0.3192	20431.65	3.7460	3.7459	-0.7856	26.13	0.15	-1.500			
0.3216	20582.84	3.7430	3.7431	-0.7868	26.14	0.16	-1.500			
0.3240	20735.98	3.7400	3.7400	-0.7923	26.14	0.16	-1.500			
0.3264	20887.29	3.7370	3.7371	-0.7906	26.15	0.17	-1.500			
0.3287	21038.42	3.7340	3.7339	-0.7899	26.16	0.18	-1.500			
0.3311	21189.16	3.7310	3.7310	-0.7927	26.16	0.18	-1.500			
0.3335	21341.84	3.7280	3.7280	-0.7955	26.17	0.19	-1.500			
0.3359	21495.77	3.7250	3.7250	-0.7961	26.17	0.19	-1.500			
0.3383	21649.10	3.7220	3.7220	-0.7994	26.18	0.20	-1.500			
0.3407	21801.98	3.7190	3.7191	-0.8013	26.19	0.21	-1.500			
0.3431	21955.63	3.7160	3.7160	-0.8045	26.19	0.21	-1.500			
0.3455	22110.27	3.7130	3.7129	-0.8062	26.20	0.22	-1.500			
0.3479	22264.49	3.7100	3.7100	-0.8095	26.21	0.23	-1.500			
0.3503	22420.18	3.7070	3.7071	-0.8186	26.22	0.24	-1.500			
0.3528	22578.33	3.7040	3.7039	-0.8257	26.22	0.24	-1.500			
0.3552	22735.52	3.7010	3.7011	-0.8358	26.23	0.25	-1.500			
0.3578	22898.03	3.6980	3.6980	-0.8483	26.24	0.26	-1.500			
0.3604	23062.57	3.6950	3.6950	-0.8582	26.25	0.27	-1.500			
0.3630	23229.51	3.6920	3.6919	-0.8699	26.26	0.28	-1.500			
0.3656	23396.85	3.6890	3.6891	-0.8771	26.26	0.28	-1.500			
0.3682	23565.80	3.6860	3.6859	-0.8834	26.27	0.29	-1.500			
0.3709	23735.94	3.6830	3.6831	-0.8937	26.27	0.29	-1.500			
0.3735	23906.86	3.6800	3.6800	-0.9050	26.28	0.30	-1.500			
0.3763	24081.07	3.6770	3.6769	-0.9226	26.28	0.30	-1.500			
0.3791	24259.92	3.6740	3.6740	-0.9405	26.29	0.31	-1.500			
0.3819	24442.59	3.6710	3.6711	-0.9527	26.30	0.32	-1.500			
0.3848	24628.17	3.6680	3.6680	-0.9717	26.30	0.32	-1.500			
0.3878	24816.48	3.6650	3.6650	-0.9865	26.31	0.33	-1.500			
0.3907	25006.65	3.6620	3.6620	-0.9976	26.31	0.33	-1.500			
0.3937	25198.46	3.6590	3.6590	-1.0161	26.32	0.34	-1.500			
0.3968	25393.43	3.6560	3.6560	-1.0366	26.33	0.35	-1.500			
0.3999	25594.67	3.6530	3.6530	-1.0585	26.33	0.35	-1.500			
0.4031	25800.69	3.6500	3.6500	-1.0897	26.34	0.36	-1.500			
0.4064	26012.39	3.6470	3.6470	-1.1123	26.34	0.36	-1.500			
0.4098	26230.17	3.6440	3.6439	-1.1366	26.35	0.37	-1.500			
0.4133	26453.01	3.6410	3.6411	-1.1547	26.36	0.38	-1.500			
0.4168	26674.56	3.6380	3.6380	-1.1719	26.36	0.38	-1.500			
0.4203	26899.91	3.6350	3.6351	-1.1906	26.36	0.38	-1.500			
0.4239	27128.08	3.6320	3.6320	-1.2217	26.36	0.38	-1.500			
0.4275	27361.44	3.6290	3.6289	-1.2490	26.36	0.38	-1.500			
0.4314	27607.82	3.6260	3.6260	-1.2756	26.36	0.38	-1.500			
0.4352	27854.89	3.6230	3.6230	-1.3085	26.36	0.38	-1.500			
0.4393	28112.17	3.6200	3.6202	-1.3451	26.36	0.38	-1.500			
0.4433	28373.33	3.6170	3.6169	-1.3676	26.36	0.38	-1.500			
0.4475	28636.94	3.6140	3.6139	-1.3926	26.37	0.39	-1.500			
0.4517	28906.52	3.6110	3.6111	-1.4159	26.37	0.39	-1.500			
0.4559	29180.76	3.6080	3.6080	-1.4461	26.37	0.39	-1.500			
0.4603	29462.02	3.6050	3.6050	-1.4759	26.38	0.40	-1.500			
0.4648	29744.05	3.6020	3.6020	-1.5009	26.38	0.40	-1.500			
0.4693	30035.81	3.5990	3.5990	-1.5353	26.38	0.40	-1.500			
0.4740	30336.76	3.5960	3.5960	-1.5703	26.38	0.40	-1.500			
0.4788	30642.32	3.5930	3.5930	-1.5927	26.38	0.40	-1.500			
0.4836	30953.47	3.5900	3.5900	-1.6133	26.38	0.40	-1.500			
0.4885	31264.28	3.5870	3.5871	-1.6293	26.38	0.40	-1.500			
0.4934	31575.54	3.5840	3.5840	-1.6577	26.38	0.40	-1.500			
0.4984	31894.70	3.5810	3.5809	-1.6937	26.38	0.40	-1.500			
0.5035	32225.37	3.5780	3.5779	-1.7127	26.37	0.39	-1.500			
0.5087	32557.84	3.5750	3.5750	-1.7358	26.37	0.39	-1.500			
0.5140	32897.18	3.5720	3.5723	-1.7684	26.37	0.39	-1.500			
0.5193	33236.58	3.5690	3.5690	-1.7968	26.37	0.39	-1.500			
0.5247	33582.55	3.5660	3.5659	-1.8149	26.37	0.39	-1.500			
0.5301	33928.10	3.5630	3.5630	-1.8377	26.36	0.38	-1.500			
0.5358	34289.24	3.5600	3.5600	-1.8738	26.36	0.38	-1.500			
0.5415	34655.84	3.5570	3.5570	-1.8957	26.36	0.38	-1.500			
0.5472	35020.07	3.5540	3.5540	-1.9054	26.36	0.38	-1.500			
0.5529	35382.97	3.5510	3.5510	-1.9127	26.36	0.38	-1.500			
0.5586	35750.17	3.5480	3.5480	-1.9328	26.36	0.38	-1.500			
0.5645	36126.53	3.5450	3.5449	-1.9527	26.36	0.38	-1.500			
0.5703	36500.55	3.5420	3.5423	-1.9720	26.36	0.38	-1.500	0.388	0.509	
0.5764	36886.56	3.5390	3.5390	-1.9730	26.36	0.38	-1.500			
0.5823	37267.50	3.5360	3.5360	-1.9678	26.37	0.39	-1.500			
0.5882	37644.17	3.5330	3.5329	-1.9546	26.37	0.39	-1.500			
0.5940	38018.02	3.5300	3.5299	-1.9432	26.37	0.39	-1.500			
0.5998	38389.88	3.5270	3.5270	-1.9417	26.38	0.40	-1.500			
0.6056	38760.85	3.5240	3.5240	-1.9338	26.38	0.40	-1.500			
0.6115	39134.44	3.5210	3.5210	-1.9306	26.39	0.41	-1.500			
0.6173	39505.92	3.5180	3.5179	-1.9142	26.39	0.41	-1.500			
0.6230	39871.68	3.5150	3.5150	-1.9004	26.40	0.42	-1.500			
0.6287	40234.63	3.5120	3.5120	-1.8856	26.41	0.43	-1.500			
0.6343	40592.92	3.5090	3.5090	-1.8659	26.41	0.43	-1.500			
0.6399	40953.07	3.5060	3.5061	-1.8606	26.42	0.44	-1.500			
0.6454	41304.74	3.5030	3.5030	-1.8541	26.43	0.45	-1.500			
0.6510	41661.92	3.5000	3.5000	-1.8387	26.43	0.45	-1.500			
0.6565	42013.87	3.4970	3.4970	-1.8239	26.44	0.46	-1.500			
0.6619	42364.38	3.4940	3.4940	-1.8211	26.45	0.47	-1.500			
0.6674	42712.57	3.4910	3.4910	-1.8076	26.46	0.48	-1.500			
0.6728	43060.31	3.4880	3.4880	-1.7959	26.47	0.49	-1.500			
0.6782	43403.22	3.4850	3.4849	-1.7787	26.48	0.50	-1.500			
0.6834	43739.79	3.4820	3.4821	-1.7588	26.49	0.51	-1.500			
0.6888	44081.73	3.4790	3.4791	-1.7535	26.50	0.52	-1.500			
0.6940	44416.26	3.4760	3.4759	-1.7312	26.51	0.53	-1.500			
0.6991	44745.37	3.4730	3.4730	-1.7137	26.52	0.54	-1.500			
0.7043	45074.41	3.4700	3.4700	-1.6954	26.54	0.56	-1.500			
0.7094	45401.22	3.4670	3.4670	-1.6796	26.55	0.57	-1.500			
0.7144	45720.30	3.4640	3.4640	-1.6483	26.56	0.58	-1.500			
0.7193	46032.87	3.4610	3.4610	-1.6214	26.57	0.59	-1.500			
0.7241	46342.37	3.4580	3.4581	-1.6030	26.58	0.60	-1.500			
0.7289	46647.10	3.4550	3.4549	-1.5800	26.60	0.62	-1.500			
0.7336	46948.46	3.4520	3.4520	-1.5555	26.61	0.63	-1.500			
0.7382	47246.53	3.4490	3.4491	-1.5316	26.62	0.64	-1.500			
0.7428	47537.70	3.4460	3.4460	-1.5114	26.63	0.65	-1.500			
0.7473	47824.95	3.4430	3.4430	-1.4888	26.65	0.67	-1.500			
0.7516	48104.16	3.4400	3.4400	-1.4785	26.66	0.68	-1.500			
0.7561	48387.54	3.4370	3.4369	-1.4691	26.67	0.69	-1.500			
0.7605	48671.38	3.4340	3.4339	-1.4612	26.69	0.71	-1.500			
0.7649	48951.00	3.4310	3.4312	-1.4622	26.70	0.72	-1.500			
0.7693	49232.32	3.4280	3.4280	-1.4595	26.72	0.74	-1.500			
0.7736	49512.02	3.4250	3.4249	-1.4465	26.73	0.75	-1.500			
0.7779	49787.24	3.4220	3.4220	-1.4349	26.75	0.77	-1.500			
0.7823	50064.11	3.4190	3.4191	-1.4238	26.77	0.79	-1.500			
0.7865	50338.48	3.4160	3.4159	-1.3984	26.78	0.80	-1.500			
0.7907	50607.85	3.4130	3.4130	-1.3729	26.80	0.82	-1.500			
0.7948	50865.01	3.4100	3.4101	-1.3488	26.81	0.83	-1.500			
0.7988	51122.66	3.4070	3.4070	-1.3215	26.83	0.85	-1.500			
0.8027	51375.56	3.4040	3.4039	-1.2853	26.85	0.87	-1.500			
0.8066	51622.58	3.4010	3.4010	-1.2376	26.86	0.88	-1.500			
0.8103	51859.87	3.3980	3.3981	-1.1955	26.88	0.90	-1.500			
0.8138	52083.88	3.3950	3.3951	-1.1421	26.89	0.91	-1.500			
0.8171	52296.01	3.3920	3.3920	-1.0835	26.90	0.92	-1.500			
0.8202	52495.19	3.3890	3.3889	-1.0265	26.91	0.93	-1.500			
0.8232	52686.60	3.3860	3.3860	-0.9820	26.92	0.94	-1.500			
0.8261	52870.21	3.3830	3.3831	-0.9456	26.93	0.95	-1.500			
0.8289	53047.99	3.3800	3.3800	-0.9116	26.94	0.96	-1.500			
0.8315	53219.12	3.3770	3.3769	-0.8754	26.95	0.97	-1.500			
0.8341	53383.42	3.3740	3.3740	-0.8455	26.96	0.98	-1.500			
0.8366	53542.59	3.3710	3.3711	-0.8111	26.97	0.99	-1.500			
0.8390	53696.76	3.3680	3.3680	-0.7820	26.98	1.00	-1.500			
0.8413	53843.18	3.3650	3.3650	-0.7514	26.99	1.01	-1.500			
0.8435	53981.57	3.3620	3.3621	-0.7254	27.00	1.02	-1.500			
0.8456	54118.48	3.3590	3.3589	-0.7034	27.01	1.03	-1.500			
0.8477	54251.99	3.3560	3.3559	-0.6783	27.02	1.04	-1.500			
0.8497	54379.16	3.3530	3.3531	-0.6570	27.02	1.04	-1.500			
0.8516	54504.56	3.3500	3.3501	-0.6407	27.03	1.05	-1.500			
0.8535	54624.82	3.3470	3.3470	-0.6187	27.04	1.06	-1.500			
0.8553	54740.53	3.3440	3.3439	-0.5959	27.05	1.07	-1.500			
0.8571	54851.65	3.3410	3.3410	-0.5803	27.06	1.08	-1.500			
0.8588	54962.78	3.3380	3.3381	-0.5658	27.06	1.08	-1.500			
0.8605	55070.28	3.3350	3.3350	-0.5508	27.07	1.09	-1.500			
0.8621	55173.93	3.3320	3.3319	-0.5327	27.08	1.10	-1.500			
0.8637	55275.38	3.3290	3.3290	-0.5172	27.08	1.10	-1.500			
0.8652	55372.81	3.3260	3.3260	-0.5000	27.09	1.11	-1.500			
0.8667	55467.36	3.3230	3.3230	-0.4825	27.09	1.11	-1.500			
0.8681	55557.78	3.3200	3.3201	-0.4630	27.10	1.12	-1.500			
0.8695	55646.43	3.3170	3.3170	-0.4456	27.10	1.12	-1.500			
0.8708	55729.15	3.3140	3.3140	-0.4293	27.11	1.13	-1.500			
0.8720	55809.43	3.3110	3.3110	-0.4157	27.11	1.13	-1.500			
0.8732	55886.71	3.3080	3.3080	-0.4033	27.12	1.14	-1.500			
0.8744	55962.87	3.3050	3.3050	-0.3922	27.12	1.14	-1.500			
0.8756	56037.03	3.3020	3.3020	-0.3821	27.13	1.15	-1.500			
0.8767	56110.01	3.2990	3.2990	-0.3713	27.13	1.15	-1.500			
0.8778	56181.32	3.2960	3.2961	-0.3626	27.14	1.16	-1.500			
0.8789	56249.08	3.2930	3.2929	-0.3488	27.14	1.16	-1.500			
0.8799	56314.35	3.2900	3.2901	-0.3377	27.15	1.17	-1.500			
0.8809	56378.43	3.2870	3.2870	-0.3274	27.15	1.17	-1.500			
0.8819	56440.07	3.2840	3.2839	-0.3187	27.15	1.17	-1.500			
0.8828	56500.47	3.2810	3.2809	-0.3082	27.16	1.18	-1.500			
0.8837	56558.74	3.2780	3.2781	-0.2993	27.16	1.18	-1.500			
0.8846	56614.65	3.2750	3.2751	-0.2906	27.17	1.19	-1.500			
0.8855	56669.97	3.2720	3.2720	-0.2830	27.17	1.19	-1.500			
0.8863	56723.55	3.2690	3.2690	-0.2739	27.17	1.19	-1.500			
0.8871	56774.96	3.2660	3.2659	-0.2659	27.18	1.20	-1.500			
0.8879	56824.77	3.2630	3.2631	-0.2575	27.18	1.20	-1.500			
0.8887	56874.19	3.2600	3.2600	-0.2522	27.19	1.21	-1.500			
0.8894	56921.08	3.2570	3.2569	-0.2444	27.19	1.21	-1.500			
0.8901	56967.44	3.2540	3.2539	-0.2385	27.20	1.22	-1.500			
0.8908	57012.04	3.2510	3.2511	-0.2322	27.20	1.22	-1.500			
0.8915	57056.31	3.2480	3.2480	-0.2270	27.21	1.23	-1.500			
0.8922	57099.90	3.2450	3.2449	-0.2221	27.21	1.23	-1.500			
0.8928	57141.57	3.2420	3.2421	-0.2161	27.22	1.24	-1.500			
0.8935	57182.54	3.2390	3.2389	-0.2106	27.22	1.24	-1.500			
0.8941	57222.16	3.2360	3.2360	-0.2060	27.22	1.24	-1.500			
0.8947	57260.89	3.2330	3.2330	-0.2014	27.23	1.25	-1.500			
0.8953	57299.27	3.2300	3.2299	-0.1975	27.23	1.25	-1.500			
0.8959	57336.83	3.2270	3.2271	-0.1938	27.24	1.26	-1.500			
0.8965	57373.51	3.2240	3.2240	-0.1906	27.24	1.26	-1.500			
0.8970	57409.99	3.2210	3.2210	-0.1873	27.24	1.26	-1.500			
0.8976	57445.50	3.2180	3.2180	-0.1834	27.25	1.27	-1.500			
0.8981	57480.47	3.2150	3.2149	-0.1793	27.25	1.27	-1.500			
0.8987	57514.31	3.2120	3.2121	-0.1766	27.25	1.27	-1.500			
0.8992	57547.90	3.2090	3.2091	-0.1732	27.26	1.28	-1.500			
0.8997	57580.88	3.2060	3.2059	-0.1702	27.26	1.28	-1.500			
0.9002	57613.27	3.2030	3.2029	-0.1670	27.26	1.28	-1.500			
0.9007	57644.69	3.2000	3.2001	-0.1642	27.27	1.29	-1.500			
0.9012	57675.98	3.1970	3.1970	-0.1622	27.27	1.29	-1.500			
0.9017	57706.92	3.1940	3.1940	-0.1600	27.27	1.29	-1.500			
0.9021	57737.50	3.1910	3.1909	-0.1576	27.28	1.30	-1.500			
0.9026	57767.30	3.1880	3.1880	-0.1546	27.28	1.30	-1.500			
0.9031	57797.02	3.1850	3.1850	-0.1528	27.28	1.30	-1.500			
0.9035	57826.11	3.1820	3.1820	-0.1502	27.28	1.30	-1.500			
0.9040	57854.70	3.1790	3.1790	-0.1485	27.29	1.31	-1.500			
0.9044	57882.66	3.1760	3.1760	-0.1465	27.29	1.31	-1.500			
0.9049	57910.60	3.1730	3.1730	-0.1444	27.29	1.31	-1.500			
0.9053	57938.18	3.1700	3.1699	-0.1429	27.30	1.32	-1.500			
0.9057	57965.48	3.1670	3.1671	-0.1419	27.30	1.32	-1.500			
0.9061	57992.64	3.1640	3.1640	-0.1407	27.30	1.32	-1.500			
0.9066	58019.61	3.1610	3.1609	-0.1391	27.31	1.33	-1.500			
0.9070	58046.17	3.1580	3.1580	-0.1375	27.31	1.33	-1.500			
0.9074	58072.39	3.1550	3.1549	-0.1356	27.31	1.33	-1.500			
0.9078	58098.30	3.1520	3.1521	-0.1340	27.32	1.34	-1.500			
0.9082	58123.84	3.1490	3.1490	-0.1329	27.32	1.34	-1.500			
0.9086	58149.20	3.1460	3.1460	-0.1312	27.32	1.34	-1.500			
0.9090	58173.95	3.1430	3.1430	-0.1298	27.32	1.34	-1.500			
0.9094	58198.75	3.1400	3.1400	-0.1287	27.33	1.35	-1.500			
0.9097	58223.41	3.1370	3.1370	-0.1279	27.33	1.35	-1.500			
0.9101	58247.90	3.1340	3.1340	-0.1269	27.33	1.35	-1.500			
0.9105	58272.26	3.1310	3.1311	-0.1260	27.34	1.36	-1.500			
0.9109	58296.46	3.1280	3.1279	-0.1248	27.34	1.36	-1.500			
0.9113	58320.27	3.1250	3.1250	-0.1234	27.34	1.36	-1.500			
0.9116	58343.69	3.1220	3.1220	-0.1225	27.34	1.36	-1.500			
0.9120	58367.08	3.1190	3.1190	-0.1215	27.35	1.37	-1.500			
0.9123	58390.32	3.1160	3.1160	-0.1207	27.35	1.37	-1.500			
0.9127	58413.33	3.1130	3.1130	-0.1197	27.35	1.37	-1.500			
0.9131	58436.25	3.1100	3.1102	-0.1190	27.35	1.37	-1.500			
0.9134	58458.96	3.1070	3.1070	-0.1183	27.36	1.38	-1.500			
0.9138	58481.68	3.1040	3.1040	-0.1173	27.36	1.38	-1.500			
0.9141	58504.32	3.1010	3.1011	-0.1165	27.36	1.38	-1.500			
0.9145	58526.36	3.0980	3.0981	-0.1157	27.37	1.39	-1.500			
0.9148	58548.53	3.0950	3.0949	-0.1152	27.37	1.39	-1.500			
0.9152	58570.63	3.0920	3.0920	-0.1144	27.38	1.40	-1.500			
0.9155	58592.53	3.0890	3.0889	-0.1137	27.38	1.40	-1.500			
0.9158	58614.29	3.0860	3.0860	-0.1129	27.38	1.40	-1.500			
0.9162	58635.89	3.0830	3.0831	-0.1122	27.39	1.41	-1.500			
0.9165	58657.41	3.0800	3.0800	-0.1117	27.39	1.41	-1.500			
0.9169	58678.80	3.0770	3.0771	-0.1110	27.40	1.42	-1.500			
0.9172	58699.91	3.0740	3.0740	-0.1100	27.40	1.42	-1.500			
0.9175	58720.98	3.0710	3.0710	-0.1094	27.40	1.42	-1.500			
0.9178	58742.01	3.0680	3.0680	-0.1088	27.41	1.43	-1.500			
0.9182	58762.83	3.0650	3.0651	-0.1081	27.41	1.43	-1.500			
0.9185	58783.47	3.0620	3.0620	-0.1075	27.42	1.44	-1.500			
0.9188	58804.05	3.0590	3.0590	-0.1069	27.42	1.44	-1.500			
0.9191	58824.41	3.0560	3.0560	-0.1062	27.42	1.44	-1.500			
0.9194	58844.77	3.0530	3.0530	-0.1058	27.43	1.45	-1.500			
0.9198	58865.06	3.0500	3.0501	-0.1054	27.43	1.45	-1.500			
0.9201	58885.27	3.0470	3.0469	-0.1050	27.43	1.45	-1.500			
0.9204	58905.42	3.0440	3.0440	-0.1046	27.44	1.46	-1.500			
0.9207	58925.45	3.0410	3.0410	-0.1041	27.44	1.46	-1.500			
0.9210	58945.45	3.0380	3.0380	-0.1034	27.45	1.47	-1.500			
0.9213	58965.23	3.0350	3.0350	-0.1027	27.45	1.47	-1.500			
0.9216	58984.88	3.0320	3.0321	-0.1022	27.45	1.47	-1.500			
0.9219	59004.44	3.0290	3.0290	-0.1015	27.46	1.48	-1.500			
0.9222	59023.80	3.0260	3.0259	-0.1009	27.46	1.48	-1.500			
0.9225	59043.14	3.0230	3.0230	-0.1005	27.46	1.48	-1.500			
0.9229	59062.46	3.0200	3.0199	-0.0996	27.47	1.49	-1.500			
0.9231	59081.52	3.0170	3.0170	-0.0989	27.47	1.49	-1.500			
0.9234	59100.56	3.0140	3.0139	-0.0984	27.47	1.49	-1.500			
0.9237	59119.36	3.0110	3.0111	-0.0975	27.48	1.50	-1.500			
0.9240	59138.00	3.0080	3.0080	-0.0965	27.48	1.50	-1.500			
0.9243	59156.44	3.0050	3.0049	-0.0956	27.49	1.51	-1.501			
0.9246	59174.71	3.0020	3.0020	-0.0947	27.49	1.51	-1.500			
