Ah_balance (normalized)	Ah_balance (mAh)	Voltage - fit (V)	Voltage -  interpolate (V)	dQ/dV (1/V)	Temperature (°C)	Temperature - diff (°C)	Current (C)	R_DC 0ms (mOhm)	R_DC 50ms (mOhm)	R_DC 50 ms PEC (mOhm)
0.1999	12794.55	3.9270	3.9268	-0.0916	25.71	-0.03	-1.500			
0.2002	12814.67	3.9240	3.9237	-0.1180	25.71	-0.03	-1.500			
0.2006	12839.50	3.9210	3.9210	-0.1446	25.71	-0.03	-1.500			
0.2011	12869.71	3.9180	3.9180	-0.1731	25.71	-0.03	-1.500			
0.2017	12906.21	3.9150	3.9149	-0.1996	25.71	-0.03	-1.500			
0.2023	12947.20	3.9120	3.9119	-0.2260	25.71	-0.03	-1.500			
0.2030	12993.58	3.9090	3.9091	-0.2519	25.72	-0.02	-1.500			
0.2038	13044.54	3.9060	3.9060	-0.2775	25.72	-0.02	-1.500			
0.2047	13100.28	3.9030	3.9030	-0.3021	25.72	-0.02	-1.500			
0.2056	13161.05	3.9000	3.9000	-0.3252	25.72	-0.02	-1.500			
0.2066	13224.98	3.8970	3.8970	-0.3520	25.72	-0.02	-1.500			
0.2077	13295.54	3.8940	3.8940	-0.3762	25.72	-0.02	-1.500			
0.2089	13370.34	3.8910	3.8909	-0.3992	25.73	-0.01	-1.500			
0.2101	13449.30	3.8880	3.8881	-0.4225	25.73	-0.01	-1.500			
0.2115	13532.93	3.8850	3.8851	-0.4454	25.73	-0.01	-1.500			
0.2128	13620.62	3.8820	3.8820	-0.4686	25.73	-0.01	-1.500			
0.2143	13713.36	3.8790	3.8790	-0.4891	25.73	-0.01	-1.500			
0.2158	13809.09	3.8760	3.8760	-0.5056	25.74	-0.00	-1.500			
0.2173	13909.03	3.8730	3.8730	-0.5263	25.74	-0.00	-1.500			
0.2189	14011.61	3.8700	3.8701	-0.5426	25.74	0.00	-1.500			
0.2206	14117.32	3.8670	3.8670	-0.5569	25.74	0.00	-1.500			
0.2223	14225.61	3.8640	3.8639	-0.5721	25.75	0.01	-1.500			
0.2240	14337.09	3.8610	3.8611	-0.5847	25.75	0.01	-1.500			
0.2258	14451.75	3.8580	3.8579	-0.5962	25.75	0.01	-1.500			
0.2276	14568.24	3.8550	3.8550	-0.6086	25.76	0.02	-1.500			
0.2295	14685.38	3.8520	3.8520	-0.6170	25.76	0.02	-1.500			
0.2313	14804.64	3.8490	3.8490	-0.6263	25.76	0.02	-1.500			
0.2332	14926.18	3.8460	3.8460	-0.6349	25.76	0.02	-1.500			
0.2351	15048.79	3.8430	3.8430	-0.6410	25.77	0.03	-1.500			
0.2371	15173.49	3.8400	3.8400	-0.6461	25.77	0.03	-1.500			
0.2390	15298.79	3.8370	3.8370	-0.6524	25.77	0.03	-1.500			
0.2410	15423.49	3.8340	3.8340	-0.6547	25.78	0.04	-1.500			
0.2430	15549.77	3.8310	3.8311	-0.6556	25.78	0.04	-1.500			
0.2449	15675.69	3.8280	3.8280	-0.6587	25.78	0.04	-1.500			
0.2469	15802.42	3.8250	3.8250	-0.6620	25.79	0.05	-1.500			
0.2489	15929.97	3.8220	3.8220	-0.6633	25.79	0.05	-1.500			
0.2509	16057.37	3.8190	3.8190	-0.6656	25.80	0.06	-1.500			
0.2529	16185.27	3.8160	3.8160	-0.6677	25.80	0.06	-1.500			
0.2549	16313.95	3.8130	3.8129	-0.6712	25.80	0.06	-1.500			
0.2569	16443.75	3.8100	3.8100	-0.6737	25.81	0.07	-1.500			
0.2590	16572.94	3.8070	3.8070	-0.6730	25.81	0.07	-1.500			
0.2610	16702.03	3.8040	3.8040	-0.6766	25.82	0.08	-1.500			
0.2630	16832.42	3.8010	3.8010	-0.6787	25.82	0.08	-1.500			
0.2650	16962.96	3.7980	3.7979	-0.6769	25.82	0.08	-1.500			
0.2671	17092.65	3.7950	3.7950	-0.6782	25.83	0.09	-1.500			
0.2691	17222.63	3.7920	3.7920	-0.6808	25.83	0.09	-1.500			
0.2712	17354.21	3.7890	3.7890	-0.6800	25.84	0.10	-1.500			
0.2732	17484.92	3.7860	3.7859	-0.6802	25.84	0.10	-1.500			
0.2752	17614.67	3.7830	3.7831	-0.6822	25.85	0.11	-1.500			
0.2773	17746.41	3.7800	3.7800	-0.6843	25.86	0.12	-1.500			
0.2793	17878.21	3.7770	3.7769	-0.6859	25.86	0.12	-1.500			
0.2814	18009.60	3.7740	3.7741	-0.6830	25.87	0.13	-1.500			
0.2834	18140.57	3.7710	3.7710	-0.6835	25.87	0.13	-1.500			
0.2855	18272.34	3.7680	3.7679	-0.6862	25.88	0.14	-1.500			
0.2875	18403.14	3.7650	3.7651	-0.6861	25.88	0.14	-1.500			
0.2896	18534.63	3.7620	3.7620	-0.6879	25.89	0.15	-1.500			
0.2917	18667.86	3.7590	3.7590	-0.6919	25.90	0.16	-1.500			
0.2938	18800.82	3.7560	3.7560	-0.6964	25.90	0.16	-1.500			
0.2959	18935.37	3.7530	3.7530	-0.6980	25.91	0.17	-1.500			
0.2980	19068.90	3.7500	3.7500	-0.6991	25.92	0.18	-1.500			
0.3000	19202.92	3.7470	3.7471	-0.7026	25.92	0.18	-1.500			
0.3022	19337.83	3.7440	3.7440	-0.7097	25.93	0.19	-1.500			
0.3043	19474.60	3.7410	3.7410	-0.7156	25.94	0.20	-1.500			
0.3065	19612.91	3.7380	3.7380	-0.7195	25.94	0.20	-1.500			
0.3086	19751.13	3.7350	3.7351	-0.7259	25.95	0.21	-1.500			
0.3108	19892.59	3.7320	3.7320	-0.7304	25.96	0.22	-1.500			
0.3130	20032.46	3.7290	3.7290	-0.7326	25.96	0.22	-1.500			
0.3152	20172.73	3.7260	3.7260	-0.7331	25.97	0.23	-1.500			
0.3174	20313.39	3.7230	3.7229	-0.7369	25.98	0.24	-1.500			
0.3196	20454.89	3.7200	3.7200	-0.7440	25.98	0.24	-1.500			
0.3219	20598.43	3.7170	3.7170	-0.7498	25.99	0.25	-1.500			
0.3241	20741.70	3.7140	3.7140	-0.7580	26.00	0.26	-1.500			
0.3264	20888.13	3.7110	3.7110	-0.7667	26.00	0.26	-1.500			
0.3287	21037.19	3.7080	3.7081	-0.7778	26.01	0.27	-1.500			
0.3311	21188.27	3.7050	3.7050	-0.7885	26.02	0.28	-1.500			
0.3335	21340.81	3.7020	3.7020	-0.7929	26.02	0.28	-1.500			
0.3358	21493.64	3.6990	3.6990	-0.8019	26.03	0.29	-1.500			
0.3383	21648.42	3.6960	3.6960	-0.8089	26.04	0.30	-1.500			
0.3407	21802.82	3.6930	3.6930	-0.8163	26.04	0.30	-1.500			
0.3431	21959.71	3.6900	3.6902	-0.8258	26.05	0.31	-1.500			
0.3456	22119.06	3.6870	3.6869	-0.8365	26.05	0.31	-1.500			
0.3481	22281.07	3.6840	3.6840	-0.8487	26.06	0.32	-1.500			
0.3507	22445.40	3.6810	3.6810	-0.8627	26.07	0.33	-1.500			
0.3533	22613.15	3.6780	3.6780	-0.8762	26.07	0.33	-1.500			
0.3560	22782.99	3.6750	3.6750	-0.8841	26.08	0.34	-1.500			
0.3586	22951.96	3.6720	3.6720	-0.8937	26.08	0.34	-1.500			
0.3613	23124.69	3.6690	3.6691	-0.9094	26.09	0.35	-1.500			
0.3641	23299.86	3.6660	3.6660	-0.9224	26.09	0.35	-1.500			
0.3668	23478.33	3.6630	3.6629	-0.9331	26.10	0.36	-1.500			
0.3697	23658.67	3.6600	3.6601	-0.9461	26.10	0.36	-1.500			
0.3725	23841.39	3.6570	3.6570	-0.9629	26.11	0.37	-1.500			
0.3754	24028.23	3.6540	3.6539	-0.9784	26.11	0.37	-1.500			
0.3784	24215.60	3.6510	3.6510	-0.9930	26.11	0.37	-1.500			
0.3814	24408.36	3.6480	3.6480	-1.0085	26.12	0.38	-1.500			
0.3845	24604.93	3.6450	3.6450	-1.0275	26.12	0.38	-1.500			
0.3876	24806.07	3.6420	3.6420	-1.0364	26.12	0.38	-1.500			
0.3907	25006.19	3.6390	3.6390	-1.0468	26.13	0.39	-1.500			
0.3939	25206.51	3.6360	3.6361	-1.0635	26.13	0.39	-1.500			
0.3970	25410.64	3.6330	3.6330	-1.0784	26.13	0.39	-1.500			
0.4003	25617.56	3.6300	3.6299	-1.0972	26.14	0.40	-1.500			
0.4036	25829.12	3.6270	3.6270	-1.1187	26.14	0.40	-1.500			
0.4070	26048.34	3.6240	3.6240	-1.1407	26.14	0.40	-1.500			
0.4105	26270.95	3.6210	3.6209	-1.1558	26.14	0.40	-1.500			
0.4140	26494.66	3.6180	3.6181	-1.1724	26.15	0.41	-1.500			
0.4175	26720.64	3.6150	3.6151	-1.1873	26.15	0.41	-1.500			
0.4211	26949.40	3.6120	3.6119	-1.2084	26.15	0.41	-1.500			
0.4247	27183.05	3.6090	3.6090	-1.2264	26.15	0.41	-1.500			
0.4284	27419.08	3.6060	3.6060	-1.2443	26.15	0.41	-1.500			
0.4322	27660.82	3.6030	3.6030	-1.2609	26.16	0.42	-1.500			
0.4360	27906.12	3.6000	3.6000	-1.2824	26.16	0.42	-1.500			
0.4399	28152.98	3.5970	3.5970	-1.2960	26.16	0.42	-1.500			
0.4438	28404.30	3.5940	3.5941	-1.3106	26.16	0.42	-1.500			
0.4478	28656.93	3.5910	3.5910	-1.3242	26.16	0.42	-1.500			
0.4518	28913.02	3.5880	3.5881	-1.3403	26.16	0.42	-1.500			
0.4558	29170.79	3.5850	3.5850	-1.3606	26.17	0.43	-1.500			
0.4599	29433.68	3.5820	3.5820	-1.3810	26.17	0.43	-1.500			
0.4641	29700.03	3.5790	3.5790	-1.3976	26.17	0.43	-1.500			
0.4683	29970.71	3.5760	3.5761	-1.4182	26.17	0.43	-1.500			
0.4726	30244.67	3.5730	3.5730	-1.4411	26.17	0.43	-1.500			
0.4769	30523.98	3.5700	3.5701	-1.4626	26.17	0.43	-1.500			
0.4814	30807.86	3.5670	3.5670	-1.4767	26.17	0.43	-1.500			
0.4858	31092.03	3.5640	3.5640	-1.4960	26.17	0.43	-1.500			
0.4904	31382.45	3.5610	3.5610	-1.5103	26.17	0.43	-1.500			
0.4949	31673.48	3.5580	3.5580	-1.5279	26.17	0.43	-1.500			
0.4995	31967.26	3.5550	3.5550	-1.5386	26.18	0.44	-1.500			
0.5041	32262.50	3.5520	3.5521	-1.5517	26.18	0.44	-1.500			
0.5088	32563.00	3.5490	3.5490	-1.5694	26.19	0.45	-1.500			
0.5135	32866.79	3.5460	3.5459	-1.5896	26.19	0.45	-1.500			
0.5183	33171.91	3.5430	3.5432	-1.6037	26.20	0.46	-1.500			
0.5232	33483.99	3.5400	3.5400	-1.6252	26.20	0.46	-1.500			
0.5281	33797.55	3.5370	3.5369	-1.6472	26.20	0.46	-1.500			
0.5331	34119.01	3.5340	3.5340	-1.6611	26.21	0.47	-1.500			
0.5381	34439.52	3.5310	3.5304	-1.6665	26.21	0.47	-1.500	0.381	0.529	
0.5431	34759.80	3.5280	3.5283	-1.6739	26.21	0.47	-1.500			
0.5481	35080.88	3.5250	3.5250	-1.6832	26.21	0.47	-1.500			
0.5532	35404.20	3.5220	3.5220	-1.6984	26.21	0.47	-1.500			
0.5583	35730.90	3.5190	3.5189	-1.7057	26.22	0.48	-1.500			
0.5635	36060.89	3.5160	3.5160	-1.7228	26.22	0.48	-1.500			
0.5687	36393.77	3.5130	3.5132	-1.7305	26.22	0.48	-1.500			
0.5739	36729.14	3.5100	3.5099	-1.7366	26.23	0.49	-1.500			
0.5791	37061.42	3.5070	3.5070	-1.7348	26.24	0.50	-1.500			
0.5842	37391.94	3.5040	3.5040	-1.7294	26.25	0.51	-1.500			
0.5895	37728.16	3.5010	3.5010	-1.7354	26.25	0.51	-1.500			
0.5947	38061.05	3.4980	3.4980	-1.7274	26.26	0.52	-1.500			
0.5999	38392.71	3.4950	3.4950	-1.7159	26.27	0.53	-1.500			
0.6050	38721.84	3.4920	3.4920	-1.7173	26.28	0.54	-1.500			
0.6102	39049.69	3.4890	3.4890	-1.7117	26.29	0.55	-1.500			
0.6153	39377.31	3.4860	3.4859	-1.7102	26.30	0.56	-1.500			
0.6204	39706.73	3.4830	3.4830	-1.7019	26.30	0.56	-1.500			
0.6255	40034.87	3.4800	3.4800	-1.6989	26.31	0.57	-1.500			
0.6307	40362.24	3.4770	3.4770	-1.6861	26.32	0.58	-1.500			
0.6357	40682.10	3.4740	3.4740	-1.6698	26.33	0.59	-1.500			
0.6407	41004.20	3.4710	3.4710	-1.6603	26.34	0.60	-1.500			
0.6457	41321.90	3.4680	3.4680	-1.6442	26.35	0.61	-1.500			
0.6506	41635.45	3.4650	3.4650	-1.6265	26.36	0.62	-1.500			
0.6554	41948.68	3.4620	3.4621	-1.6106	26.37	0.63	-1.500			
0.6602	42254.37	3.4590	3.4590	-1.5899	26.38	0.64	-1.500			
0.6650	42559.47	3.4560	3.4559	-1.5653	26.39	0.65	-1.500			
0.6696	42855.92	3.4530	3.4530	-1.5384	26.40	0.66	-1.500			
0.6742	43150.15	3.4500	3.4500	-1.5133	26.42	0.68	-1.500			
0.6787	43438.19	3.4470	3.4471	-1.4952	26.43	0.69	-1.500			
0.6832	43722.04	3.4440	3.4439	-1.4658	26.45	0.71	-1.500			
0.6875	44003.02	3.4410	3.4409	-1.4454	26.46	0.72	-1.500			
0.6918	44276.76	3.4380	3.4380	-1.4229	26.48	0.74	-1.500			
0.6961	44548.11	3.4350	3.4351	-1.4131	26.49	0.75	-1.500			
0.7003	44816.81	3.4320	3.4320	-1.3981	26.50	0.76	-1.500			
0.7045	45085.95	3.4290	3.4289	-1.3842	26.52	0.78	-1.500			
0.7086	45347.21	3.4260	3.4261	-1.3663	26.53	0.79	-1.500			
0.7127	45612.26	3.4230	3.4230	-1.3600	26.54	0.80	-1.500			
0.7168	45872.45	3.4200	3.4200	-1.3415	26.56	0.82	-1.500			
0.7207	46127.12	3.4170	3.4169	-1.3223	26.57	0.83	-1.500			
0.7247	46379.49	3.4140	3.4140	-1.2997	26.59	0.85	-1.500			
0.7286	46628.38	3.4110	3.4111	-1.2801	26.60	0.86	-1.500			
0.7324	46873.26	3.4080	3.4080	-1.2612	26.62	0.88	-1.500			
0.7362	47115.29	3.4050	3.4050	-1.2281	26.63	0.89	-1.500			
0.7398	47348.34	3.4020	3.4019	-1.1955	26.65	0.91	-1.500			
0.7434	47574.68	3.3990	3.3991	-1.1614	26.66	0.92	-1.500			
0.7468	47794.66	3.3960	3.3959	-1.1233	26.68	0.94	-1.500			
0.7501	48006.64	3.3930	3.3930	-1.0886	26.69	0.95	-1.500			
0.7533	48210.97	3.3900	3.3900	-1.0463	26.71	0.97	-1.500			
0.7564	48409.43	3.3870	3.3871	-1.0154	26.72	0.98	-1.500			
0.7594	48600.91	3.3840	3.3840	-0.9850	26.73	0.99	-1.500			
0.7623	48785.03	3.3810	3.3811	-0.9491	26.75	1.01	-1.500			
0.7651	48964.82	3.3780	3.3779	-0.9150	26.76	1.02	-1.500			
0.7678	49138.52	3.3750	3.3751	-0.8810	26.77	1.03	-1.500			
0.7704	49303.37	3.3720	3.3720	-0.8487	26.78	1.04	-1.500			
0.7729	49464.02	3.3690	3.3690	-0.8171	26.79	1.05	-1.500			
0.7752	49615.28	3.3660	3.3659	-0.7888	26.80	1.06	-1.500			
0.7775	49761.83	3.3630	3.3630	-0.7608	26.81	1.07	-1.500			
0.7798	49905.87	3.3600	3.3600	-0.7386	26.82	1.08	-1.500			
0.7820	50046.51	3.3570	3.3570	-0.7138	26.83	1.09	-1.500			
0.7841	50181.14	3.3540	3.3540	-0.6948	26.84	1.10	-1.500			
0.7861	50311.40	3.3510	3.3510	-0.6726	26.85	1.11	-1.500			
0.7881	50438.90	3.3480	3.3479	-0.6526	26.85	1.11	-1.500			
0.7900	50561.75	3.3450	3.3450	-0.6297	26.86	1.12	-1.500			
0.7919	50681.41	3.3420	3.3421	-0.6080	26.87	1.13	-1.500			
0.7937	50796.17	3.3390	3.3391	-0.5854	26.87	1.13	-1.500			
0.7954	50905.43	3.3360	3.3360	-0.5697	26.88	1.14	-1.500			
0.7971	51011.21	3.3330	3.3329	-0.5498	26.89	1.15	-1.500			
0.7986	51113.54	3.3300	3.3301	-0.5345	26.90	1.16	-1.500			
0.8002	51215.64	3.3270	3.3270	-0.5220	26.91	1.17	-1.500			
0.8018	51316.69	3.3240	3.3241	-0.5105	26.91	1.17	-1.500			
0.8033	51413.26	3.3210	3.3210	-0.5000	26.92	1.18	-1.500			
0.8048	51507.54	3.3180	3.3181	-0.4853	26.93	1.19	-1.500			
0.8062	51598.38	3.3150	3.3149	-0.4740	26.94	1.20	-1.500			
0.8076	51688.32	3.3120	3.3120	-0.4626	26.94	1.20	-1.500			
0.8090	51776.51	3.3090	3.3090	-0.4502	26.95	1.21	-1.500			
0.8103	51862.09	3.3060	3.3062	-0.4399	26.96	1.22	-1.500			
0.8117	51946.21	3.3030	3.3029	-0.4289	26.96	1.22	-1.500			
0.8129	52026.40	3.3000	3.2999	-0.4166	26.97	1.23	-1.500			
0.8141	52105.15	3.2970	3.2969	-0.4068	26.98	1.24	-1.500			
0.8153	52181.43	3.2940	3.2941	-0.3970	26.98	1.24	-1.500			
0.8165	52257.63	3.2910	3.2909	-0.3889	26.99	1.25	-1.500			
0.8177	52331.28	3.2880	3.2880	-0.3783	27.00	1.26	-1.500			
0.8188	52402.70	3.2850	3.2850	-0.3690	27.00	1.26	-1.500			
0.8199	52472.79	3.2820	3.2821	-0.3597	27.01	1.27	-1.500			
0.8209	52540.64	3.2790	3.2789	-0.3515	27.02	1.28	-1.500			
0.8220	52607.33	3.2760	3.2761	-0.3443	27.02	1.28	-1.500			
0.8230	52672.76	3.2730	3.2729	-0.3361	27.03	1.29	-1.500			
0.8240	52736.93	3.2700	3.2700	-0.3297	27.03	1.29	-1.500			
0.8250	52799.39	3.2670	3.2671	-0.3239	27.04	1.30	-1.500			
0.8259	52860.52	3.2640	3.2640	-0.3169	27.04	1.30	-1.500			
0.8269	52921.14	3.2610	3.2610	-0.3106	27.05	1.31	-1.500			
0.8278	52979.40	3.2580	3.2580	-0.3036	27.05	1.31	-1.500			
0.8287	53037.32	3.2550	3.2550	-0.2984	27.06	1.32	-1.500			
0.8296	53094.37	3.2520	3.2520	-0.2937	27.06	1.32	-1.500			
0.8305	53149.86	3.2490	3.2490	-0.2877	27.07	1.33	-1.500			
0.8313	53204.44	3.2460	3.2460	-0.2806	27.07	1.33	-1.500			
0.8322	53258.08	3.2430	3.2430	-0.2760	27.08	1.34	-1.500			
0.8330	53310.68	3.2400	3.2400	-0.2705	27.08	1.34	-1.500			
0.8338	53361.79	3.2370	3.2370	-0.2655	27.09	1.35	-1.500			
0.8346	53411.98	3.2340	3.2340	-0.2611	27.09	1.35	-1.500			
0.8353	53461.50	3.2310	3.2310	-0.2574	27.09	1.35	-1.500			
0.8361	53510.72	3.2280	3.2279	-0.2534	27.10	1.36	-1.500			
0.8369	53559.35	3.2250	3.2250	-0.2499	27.10	1.36	-1.500			
0.8376	53606.88	3.2220	3.2220	-0.2454	27.11	1.37	-1.500			
0.8383	53653.63	3.2190	3.2190	-0.2421	27.11	1.37	-1.500			
0.8391	53699.36	3.2160	3.2160	-0.2383	27.12	1.38	-1.500			
0.8398	53744.65	3.2130	3.2130	-0.2350	27.13	1.39	-1.500			
0.8405	53789.51	3.2100	3.2100	-0.2323	27.13	1.39	-1.500			
0.8412	53834.11	3.2070	3.2070	-0.2291	27.14	1.40	-1.500			
0.8418	53878.15	3.2040	3.2040	-0.2263	27.14	1.40	-1.500			
0.8425	53921.33	3.2010	3.2009	-0.2232	27.15	1.41	-1.500			
0.8432	53963.76	3.1980	3.1981	-0.2197	27.15	1.41	-1.500			
0.8438	54005.40	3.1950	3.1950	-0.2166	27.16	1.42	-1.500			
0.8445	54046.53	3.1920	3.1919	-0.2134	27.16	1.42	-1.500			
0.8451	54086.84	3.1890	3.1890	-0.2109	27.17	1.43	-1.500			
0.8457	54127.05	3.1860	3.1860	-0.2085	27.17	1.43	-1.500			
0.8464	54167.32	3.1830	3.1831	-0.2075	27.18	1.44	-1.500			
0.8470	54206.92	3.1800	3.1799	-0.2051	27.18	1.44	-1.500			
0.8476	54245.96	3.1770	3.1771	-0.2026	27.19	1.45	-1.500			
0.8482	54284.80	3.1740	3.1741	-0.2005	27.20	1.46	-1.500			
0.8488	54322.87	3.1710	3.1710	-0.1982	27.20	1.46	-1.500			
0.8494	54360.72	3.1680	3.1680	-0.1962	27.21	1.47	-1.500			
0.8500	54398.04	3.1650	3.1650	-0.1943	27.21	1.47	-1.500			
0.8505	54435.16	3.1620	3.1619	-0.1926	27.22	1.48	-1.500			
0.8511	54472.11	3.1590	3.1590	-0.1906	27.22	1.48	-1.500			
0.8517	54508.51	3.1560	3.1560	-0.1886	27.23	1.49	-1.500			
0.8523	54544.65	3.1530	3.1530	-0.1868	27.23	1.49	-1.500			
0.8528	54580.34	3.1500	3.1500	-0.1849	27.24	1.50	-1.500			
0.8534	54615.53	3.1470	3.1470	-0.1826	27.24	1.50	-1.500			
0.8539	54650.32	3.1440	3.1439	-0.1813	27.25	1.51	-1.500			
0.8544	54684.80	3.1410	3.1410	-0.1799	27.25	1.51	-1.500			
0.8550	54719.10	3.1380	3.1379	-0.1787	27.26	1.52	-1.500			
0.8555	54753.39	3.1350	3.1351	-0.1780	27.26	1.52	-1.500			
0.8561	54787.61	3.1320	3.1320	-0.1761	27.27	1.53	-1.500			
0.8566	54821.25	3.1290	3.1290	-0.1750	27.27	1.53	-1.500			
0.8571	54854.86	3.1260	3.1260	-0.1735	27.28	1.54	-1.500			
0.8576	54888.00	3.1230	3.1230	-0.1718	27.28	1.54	-1.500			
0.8581	54920.71	3.1200	3.1198	-0.1704	27.29	1.55	-1.500			
0.8586	54953.34	3.1170	3.1171	-0.1685	27.29	1.55	-1.500			
0.8591	54985.36	3.1140	3.1140	-0.1671	27.30	1.56	-1.500			
0.8596	55017.33	3.1110	3.1110	-0.1659	27.30	1.56	-1.500			
0.8601	55049.20	3.1080	3.1080	-0.1647	27.31	1.57	-1.500			
0.8606	55080.47	3.1050	3.1049	-0.1630	27.31	1.57	-1.500			
0.8611	55111.76	3.1020	3.1020	-0.1620	27.32	1.58	-1.500			
0.8616	55142.73	3.0990	3.0991	-0.1607	27.32	1.58	-1.500			
0.8621	55173.31	3.0960	3.0960	-0.1599	27.33	1.59	-1.500			
0.8626	55204.07	3.0930	3.0929	-0.1590	27.33	1.59	-1.500			
0.8630	55234.27	3.0900	3.0900	-0.1577	27.34	1.60	-1.500			
0.8635	55264.49	3.0870	3.0870	-0.1571	27.34	1.60	-1.500			
0.8640	55294.68	3.0840	3.0841	-0.1562	27.35	1.61	-1.500			
0.8644	55324.69	3.0810	3.0809	-0.1553	27.35	1.61	-1.500			
0.8649	55354.49	3.0780	3.0780	-0.1542	27.36	1.62	-1.500			
0.8654	55383.96	3.0750	3.0750	-0.1528	27.36	1.62	-1.500			
0.8658	55413.02	3.0720	3.0720	-0.1520	27.37	1.63	-1.500			
0.8663	55442.27	3.0690	3.0690	-0.1508	27.37	1.63	-1.500			
0.8667	55470.98	3.0660	3.0661	-0.1495	27.38	1.64	-1.500			
0.8672	55499.58	3.0630	3.0629	-0.1485	27.38	1.64	-1.500			
0.8676	55527.98	3.0600	3.0601	-0.1476	27.39	1.65	-1.500			
0.8681	55556.25	3.0570	3.0569	-0.1466	27.39	1.65	-1.500			
0.8685	55584.32	3.0540	3.0540	-0.1456	27.40	1.66	-1.500			
0.8689	55612.15	3.0510	3.0510	-0.1449	27.40	1.66	-1.500			
0.8694	55639.84	3.0480	3.0480	-0.1435	27.41	1.67	-1.500			
0.8698	55667.34	3.0450	3.0449	-0.1432	27.41	1.67	-1.500			
0.8702	55694.73	3.0420	3.0421	-0.1422	27.42	1.68	-1.500			
0.8707	55721.86	3.0390	3.0390	-0.1412	27.42	1.68	-1.500			
0.8711	55748.84	3.0360	3.0360	-0.1405	27.43	1.69	-1.500			
0.8715	55775.54	3.0330	3.0331	-0.1403	27.44	1.70	-1.500			
0.8719	55802.48	3.0300	3.0300	-0.1403	27.44	1.70	-1.500			
0.8723	55829.41	3.0270	3.0269	-0.1393	27.45	1.71	-1.500			
0.8728	55856.45	3.0240	3.0239	-0.1384	27.45	1.71	-1.500			
0.8732	55882.94	3.0210	3.0211	-0.1371	27.46	1.72	-1.500			
0.8736	55909.13	3.0180	3.0181	-0.1357	27.46	1.72	-1.500			
0.8740	55935.14	3.0150	3.0150	-0.1350	27.47	1.73	-1.500			
0.8744	55960.85	3.0120	3.0119	-0.1336	27.47	1.73	-1.500			
0.8748	55985.89	3.0090	3.0089	-0.1330	27.48	1.74	-1.500			
0.8752	56011.46	3.0060	3.0062	-0.1334	27.48	1.74	-1.498			
0.8756	56037.13	3.0030	3.0030	-0.1341	27.49	1.75	-1.501			
