Ah_balance (normalized)	Ah_balance (mAh)	Voltage - fit (V)	Voltage -  interpolate (V)	dQ/dV (1/V)	Temperature (°C)	Temperature - diff (°C)	Current (C)	R_DC 0ms (mOhm)	R_DC 50ms (mOhm)	R_DC 50 ms PEC (mOhm)
0.2822	18062.79	3.9910	3.9910	0.8260	27.29	1.32	1.500			
0.2847	18223.29	3.9880	3.9880	0.8369	27.29	1.32	1.500			
0.2872	18383.66	3.9850	3.9849	0.8385	27.28	1.31	1.500			
0.2898	18545.12	3.9820	3.9820	0.8408	27.28	1.31	1.500			
0.2923	18706.67	3.9790	3.9791	0.8444	27.27	1.30	1.500			
0.2948	18868.00	3.9760	3.9760	0.8472	27.26	1.29	1.500			
0.2973	19030.36	3.9730	3.9730	0.8522	27.26	1.29	1.500			
0.2999	19195.56	3.9700	3.9699	0.8566	27.25	1.28	1.500			
0.3025	19361.69	3.9670	3.9670	0.8621	27.25	1.28	1.500			
0.3051	19527.27	3.9640	3.9640	0.8640	27.24	1.27	1.500			
0.3077	19693.87	3.9610	3.9611	0.8705	27.23	1.26	1.500			
0.3103	19861.32	3.9580	3.9580	0.8703	27.23	1.26	1.500			
0.3129	20027.13	3.9550	3.9550	0.8725	27.22	1.25	1.500			
0.3155	20194.96	3.9520	3.9520	0.8766	27.21	1.24	1.500			
0.3182	20364.31	3.9490	3.9489	0.8847	27.21	1.24	1.500			
0.3208	20533.09	3.9460	3.9460	0.8913	27.20	1.23	1.500			
0.3235	20705.30	3.9430	3.9430	0.8944	27.20	1.23	1.500			
0.3262	20877.78	3.9400	3.9400	0.8960	27.19	1.22	1.500			
0.3289	21051.08	3.9370	3.9370	0.9018	27.18	1.21	1.500			
0.3316	21223.54	3.9340	3.9341	0.9035	27.18	1.21	1.500			
0.3343	21397.38	3.9310	3.9308	0.9080	27.17	1.20	1.500			
0.3370	21570.74	3.9280	3.9281	0.9135	27.16	1.19	1.500			
0.3398	21746.97	3.9250	3.9250	0.9192	27.16	1.19	1.500			
0.3426	21925.33	3.9220	3.9220	0.9298	27.15	1.18	1.500			
0.3454	22103.62	3.9190	3.9190	0.9319	27.14	1.17	1.500			
0.3482	22284.07	3.9160	3.9160	0.9407	27.14	1.17	1.500			
0.3510	22464.93	3.9130	3.9130	0.9493	27.13	1.16	1.500			
0.3539	22647.60	3.9100	3.9100	0.9544	27.12	1.15	1.500			
0.3567	22831.71	3.9070	3.9070	0.9587	27.12	1.15	1.500			
0.3596	23016.99	3.9040	3.9039	0.9661	27.11	1.14	1.500			
0.3625	23201.78	3.9010	3.9011	0.9744	27.10	1.13	1.500			
0.3655	23389.69	3.8980	3.8980	0.9829	27.09	1.12	1.500			
0.3684	23578.70	3.8950	3.8950	0.9888	27.08	1.11	1.500			
0.3714	23769.25	3.8920	3.8921	1.0002	27.08	1.11	1.500			
0.3744	23962.68	3.8890	3.8890	1.0101	27.07	1.10	1.500			
0.3775	24157.06	3.8860	3.8859	1.0214	27.06	1.09	1.500			
0.3805	24353.01	3.8830	3.8830	1.0312	27.05	1.08	1.500			
0.3836	24552.30	3.8800	3.8799	1.0397	27.04	1.07	1.500			
0.3868	24754.50	3.8770	3.8770	1.0531	27.03	1.06	1.500			
0.3900	24957.93	3.8740	3.8740	1.0664	27.02	1.05	1.500			
0.3932	25161.91	3.8710	3.8710	1.0779	27.01	1.04	1.500			
0.3964	25372.27	3.8680	3.8679	1.0818	27.00	1.03	1.500			
0.3997	25580.26	3.8650	3.8650	1.0950	26.99	1.02	1.500			
0.4030	25790.81	3.8620	3.8620	1.1087	26.98	1.01	1.500			
0.4063	26005.50	3.8590	3.8590	1.1228	26.97	1.00	1.500			
0.4097	26221.44	3.8560	3.8559	1.1330	26.96	0.99	1.500			
0.4131	26438.16	3.8530	3.8530	1.1517	26.95	0.98	1.500			
0.4166	26661.04	3.8500	3.8501	1.1720	26.94	0.97	1.500			
0.4202	26891.78	3.8470	3.8469	1.1895	26.93	0.96	1.500			
0.4237	27119.17	3.8440	3.8440	1.2049	26.92	0.95	1.500			
0.4274	27351.98	3.8410	3.8411	1.2269	26.91	0.94	1.500			
0.4311	27590.17	3.8380	3.8380	1.2497	26.90	0.93	1.500			
0.4349	27832.37	3.8350	3.8349	1.2700	26.89	0.92	1.500			
0.4387	28078.09	3.8320	3.8321	1.2855	26.88	0.91	1.500			
0.4426	28327.66	3.8290	3.8290	1.3070	26.86	0.89	1.500			
0.4466	28581.21	3.8260	3.8260	1.3266	26.85	0.88	1.500			
0.4506	28835.63	3.8230	3.8230	1.3466	26.84	0.87	1.500			
0.4546	29094.45	3.8200	3.8200	1.3692	26.82	0.85	1.500			
0.4588	29360.87	3.8170	3.8170	1.3895	26.81	0.84	1.500			
0.4630	29630.28	3.8140	3.8139	1.4143	26.80	0.83	1.500			
0.4673	29904.64	3.8110	3.8111	1.4374	26.78	0.81	1.500			
0.4716	30182.98	3.8080	3.8080	1.4596	26.77	0.80	1.500			
0.4760	30463.97	3.8050	3.8050	1.4853	26.76	0.79	1.500			
0.4805	30749.88	3.8020	3.8020	1.5016	26.74	0.77	1.500			
0.4850	31042.15	3.7990	3.7990	1.5336	26.73	0.76	1.500			
0.4897	31341.26	3.7960	3.7960	1.5501	26.71	0.74	1.500			
0.4944	31642.52	3.7930	3.7929	1.5796	26.70	0.73	1.500			
0.4992	31946.18	3.7900	3.7901	1.6117	26.69	0.72	1.500			
0.5040	32259.10	3.7870	3.7869	1.6347	26.67	0.70	1.500	0.349	0.485	
0.5090	32576.44	3.7840	3.7839	1.6637	26.66	0.69	1.500			
0.5140	32897.63	3.7810	3.7811	1.6805	26.64	0.67	1.500			
0.5191	33225.08	3.7780	3.7780	1.6744	26.63	0.66	1.500			
0.5242	33546.20	3.7750	3.7751	1.6678	26.61	0.64	1.500			
0.5291	33865.32	3.7720	3.7720	1.6703	26.60	0.63	1.500			
0.5342	34185.96	3.7690	3.7689	1.6772	26.58	0.61	1.500			
0.5392	34506.05	3.7660	3.7661	1.6891	26.57	0.60	1.500			
0.5443	34835.52	3.7630	3.7630	1.7102	26.55	0.58	1.500			
0.5495	35165.94	3.7600	3.7600	1.7155	26.54	0.57	1.500			
0.5546	35495.57	3.7570	3.7570	1.7253	26.52	0.55	1.500			
0.5598	35826.64	3.7540	3.7540	1.7382	26.51	0.54	1.500			
0.5650	36157.85	3.7510	3.7510	1.7522	26.50	0.53	1.500			
0.5703	36498.58	3.7480	3.7479	1.7714	26.48	0.51	1.500			
0.5756	36839.08	3.7450	3.7450	1.8174	26.47	0.50	1.500			
0.5811	37191.48	3.7420	3.7421	1.8603	26.46	0.49	1.500			
0.5868	37555.18	3.7390	3.7390	1.9039	26.44	0.47	1.500			
0.5926	37926.37	3.7360	3.7360	1.9380	26.43	0.46	1.500			
0.5984	38299.49	3.7330	3.7330	2.0011	26.41	0.44	1.500			
0.6045	38686.24	3.7300	3.7300	2.0505	26.39	0.42	1.500			
0.6107	39086.97	3.7270	3.7270	2.1147	26.38	0.41	1.500			
0.6173	39504.29	3.7240	3.7240	2.1586	26.36	0.39	1.500			
0.6237	39919.87	3.7210	3.7210	2.2192	26.35	0.38	1.500			
0.6304	40344.76	3.7180	3.7180	2.2692	26.33	0.36	1.500			
0.6373	40789.85	3.7150	3.7150	2.3250	26.31	0.34	1.500			
0.6445	41246.03	3.7120	3.7120	2.3101	26.30	0.33	1.500			
0.6514	41688.97	3.7090	3.7090	2.2344	26.28	0.31	1.500			
0.6580	42111.41	3.7060	3.7059	2.1347	26.26	0.29	1.500			
0.6643	42514.32	3.7030	3.7031	2.0165	26.25	0.28	1.500			
0.6702	42891.49	3.7000	3.7000	1.8969	26.23	0.26	1.500			
0.6756	43239.34	3.6970	3.6970	1.7655	26.22	0.25	1.500			
0.6806	43559.83	3.6940	3.6940	1.6486	26.21	0.24	1.500			
0.6854	43866.12	3.6910	3.6909	1.5639	26.20	0.23	1.500			
0.6899	44153.48	3.6880	3.6880	1.4845	26.19	0.22	1.500			
0.6942	44430.84	3.6850	3.6850	1.4228	26.18	0.21	1.500			
0.6984	44695.37	3.6820	3.6820	1.3706	26.17	0.20	1.500			
0.7023	44949.98	3.6790	3.6790	1.3267	26.16	0.19	1.500			
0.7062	45198.66	3.6760	3.6759	1.2993	26.15	0.18	1.500			
0.7100	45441.23	3.6730	3.6730	1.2835	26.14	0.17	1.500			
0.7138	45685.25	3.6700	3.6699	1.2752	26.13	0.16	1.500			
0.7177	45930.81	3.6670	3.6670	1.2696	26.12	0.15	1.500			
0.7215	46175.06	3.6640	3.6640	1.2617	26.11	0.14	1.500			
0.7253	46416.90	3.6610	3.6610	1.2613	26.10	0.13	1.500			
0.7291	46659.76	3.6580	3.6580	1.2590	26.08	0.11	1.500			
0.7328	46900.04	3.6550	3.6549	1.2508	26.07	0.10	1.500			
0.7366	47139.58	3.6520	3.6521	1.2462	26.06	0.09	1.500			
0.7403	47379.45	3.6490	3.6489	1.2408	26.06	0.09	1.500			
0.7440	47617.59	3.6460	3.6460	1.2321	26.05	0.08	1.500			
0.7477	47852.00	3.6430	3.6430	1.2158	26.04	0.07	1.500			
0.7514	48086.46	3.6400	3.6400	1.2073	26.03	0.06	1.500			
0.7550	48316.93	3.6370	3.6370	1.1974	26.02	0.05	1.500			
0.7585	48545.48	3.6340	3.6340	1.1883	26.01	0.04	1.500			
0.7621	48773.05	3.6310	3.6310	1.1772	26.01	0.04	1.500			
0.7656	48998.65	3.6280	3.6280	1.1674	26.00	0.03	1.500			
0.7691	49222.99	3.6250	3.6250	1.1563	25.99	0.02	1.500			
0.7726	49445.09	3.6220	3.6220	1.1392	25.99	0.02	1.500			
0.7760	49663.66	3.6190	3.6189	1.1215	25.98	0.01	1.500			
0.7793	49876.84	3.6160	3.6160	1.0960	25.98	0.01	1.500			
0.7826	50084.92	3.6130	3.6130	1.0727	25.97	0.00	1.500			
0.7858	50288.43	3.6100	3.6101	1.0480	25.97	0.00	1.500			
0.7889	50487.03	3.6070	3.6070	1.0228	25.97	0.00	1.500			
0.7919	50681.08	3.6040	3.6039	0.9962	25.97	0.00	1.500			
0.7949	50871.87	3.6010	3.6010	0.9659	25.97	0.00	1.500			
0.7977	51055.58	3.5980	3.5980	0.9327	25.97	0.00	1.500			
0.8005	51233.12	3.5950	3.5950	0.8855	25.97	0.00	1.500			
0.8032	51401.93	3.5920	3.5920	0.8326	25.97	0.00	1.500			
0.8056	51559.52	3.5890	3.5890	0.7616	25.97	0.00	1.500			
0.8078	51701.60	3.5860	3.5860	0.6854	25.97	0.00	1.500			
0.8098	51825.84	3.5830	3.5831	0.6021	25.97	0.00	1.500			
0.8114	51932.63	3.5800	3.5800	0.5173	25.97	0.00	1.500			
0.8128	52020.76	3.5770	3.5769	0.4390	25.97	0.00	1.500			
0.8140	52095.15	3.5740	3.5739	0.3764	25.97	0.00	1.500			
0.8149	52156.40	3.5710	3.5710	0.3204	25.97	0.00	1.500			
0.8158	52210.85	3.5680	3.5680	0.2799	25.97	0.00	1.500			
0.8165	52258.15	3.5650	3.5650	0.2413	25.97	0.00	1.500			
0.8172	52299.72	3.5620	3.5619	0.2153	25.97	0.00	1.500			
0.8178	52337.15	3.5590	3.5590	0.1924	25.97	0.00	1.500			
0.8183	52371.61	3.5560	3.5560	0.1718	25.97	0.00	1.500			
0.8188	52402.52	3.5530	3.5530	0.1557	25.97	0.00	1.500			
0.8192	52430.40	3.5500	3.5500	0.1387	25.97	0.00	1.500			
0.8196	52455.10	3.5470	3.5470	0.1230	25.97	0.00	1.500			
0.8200	52477.13	3.5440	3.5440	0.1076	25.97	0.00	1.500			
0.8203	52496.37	3.5410	3.5410	0.0928	25.97	0.00	1.500			
0.8205	52512.68	3.5380	3.5382	0.0781	25.97	0.00	1.500			
0.8207	52526.84	3.5350	3.5352	0.0631	25.97	0.00	1.500			
0.8209	52537.43	3.5320	3.5324	0.0472	25.97	0.00	1.500			
0.8210	52544.98	3.5290	3.5300	0.0314	25.97	0.00	1.500			
