Ah_balance (normalized)	Ah_balance (mAh)	Voltage - fit (V)	Voltage -  interpolate (V)	dQ/dV (1/V)	Temperature (°C)	Temperature - diff (°C)	Current (C)	R_DC 0ms (mOhm)	R_DC 50ms (mOhm)	R_DC 50 ms PEC (mOhm)
0.2779	17783.34	3.9880	3.9880	0.8319	27.17	1.23	1.500			
0.2804	17943.56	3.9850	3.9849	0.8380	27.17	1.23	1.500			
0.2829	18106.14	3.9820	3.9820	0.8416	27.16	1.22	1.500			
0.2854	18267.57	3.9790	3.9789	0.8442	27.16	1.22	1.500			
0.2880	18429.63	3.9760	3.9761	0.8445	27.16	1.22	1.500			
0.2905	18591.65	3.9730	3.9730	0.8499	27.15	1.21	1.500			
0.2930	18754.34	3.9700	3.9700	0.8621	27.15	1.21	1.500			
0.2956	18919.75	3.9670	3.9669	0.8656	27.14	1.20	1.500			
0.2983	19088.39	3.9640	3.9640	0.8708	27.14	1.20	1.500			
0.3009	19257.63	3.9610	3.9611	0.8736	27.14	1.20	1.500			
0.3035	19426.97	3.9580	3.9581	0.8745	27.13	1.19	1.500			
0.3062	19595.17	3.9550	3.9549	0.8753	27.13	1.19	1.500			
0.3088	19760.67	3.9520	3.9520	0.8758	27.12	1.18	1.500			
0.3114	19928.60	3.9490	3.9491	0.8770	27.12	1.18	1.500			
0.3140	20098.19	3.9460	3.9460	0.8814	27.11	1.17	1.500			
0.3167	20266.96	3.9430	3.9430	0.8873	27.11	1.17	1.500			
0.3193	20437.89	3.9400	3.9400	0.8909	27.10	1.16	1.500			
0.3220	20609.23	3.9370	3.9369	0.8939	27.09	1.15	1.500			
0.3247	20780.68	3.9340	3.9340	0.8986	27.09	1.15	1.500			
0.3274	20953.61	3.9310	3.9310	0.9053	27.08	1.14	1.500			
0.3301	21128.96	3.9280	3.9280	0.9124	27.08	1.14	1.500			
0.3329	21304.83	3.9250	3.9250	0.9091	27.07	1.13	1.500			
0.3356	21477.83	3.9220	3.9220	0.9137	27.07	1.13	1.500			
0.3384	21654.48	3.9190	3.9191	0.9176	27.06	1.12	1.500			
0.3411	21829.81	3.9160	3.9158	0.9236	27.06	1.12	1.500			
0.3439	22007.43	3.9130	3.9130	0.9278	27.05	1.11	1.500			
0.3467	22186.36	3.9100	3.9099	0.9390	27.05	1.11	1.500			
0.3495	22368.12	3.9070	3.9070	0.9506	27.04	1.10	1.500			
0.3524	22553.15	3.9040	3.9040	0.9598	27.03	1.09	1.500			
0.3553	22736.52	3.9010	3.9011	0.9633	27.03	1.09	1.500			
0.3582	22923.54	3.8980	3.8980	0.9728	27.02	1.08	1.500			
0.3611	23109.43	3.8950	3.8951	0.9787	27.01	1.07	1.500			
0.3640	23297.65	3.8920	3.8920	0.9891	27.00	1.06	1.500			
0.3670	23486.81	3.8890	3.8890	1.0013	26.99	1.05	1.500			
0.3700	23680.57	3.8860	3.8860	1.0115	26.99	1.05	1.500			
0.3731	23876.48	3.8830	3.8829	1.0254	26.98	1.04	1.500			
0.3762	24076.13	3.8800	3.8801	1.0373	26.97	1.03	1.500			
0.3793	24276.65	3.8770	3.8769	1.0452	26.96	1.02	1.500			
0.3825	24478.20	3.8740	3.8741	1.0561	26.95	1.01	1.500			
0.3857	24681.99	3.8710	3.8710	1.0653	26.95	1.01	1.500			
0.3888	24885.20	3.8680	3.8679	1.0772	26.94	1.00	1.500			
0.3921	25095.20	3.8650	3.8650	1.0828	26.93	0.99	1.500			
0.3954	25303.75	3.8620	3.8620	1.0933	26.92	0.98	1.500			
0.3987	25515.30	3.8590	3.8590	1.1081	26.91	0.97	1.500			
0.4020	25728.67	3.8560	3.8561	1.1229	26.91	0.97	1.500			
0.4054	25943.33	3.8530	3.8530	1.1374	26.90	0.96	1.500			
0.4088	26162.98	3.8500	3.8500	1.1602	26.89	0.95	1.500			
0.4123	26386.18	3.8470	3.8471	1.1807	26.88	0.94	1.500			
0.4159	26618.62	3.8440	3.8440	1.2013	26.87	0.93	1.500			
0.4196	26852.24	3.8410	3.8410	1.2158	26.86	0.92	1.500			
0.4232	27085.92	3.8380	3.8381	1.2345	26.85	0.91	1.500			
0.4270	27324.90	3.8350	3.8351	1.2525	26.85	0.91	1.500			
0.4307	27566.23	3.8320	3.8319	1.2718	26.84	0.90	1.500			
0.4345	27811.01	3.8290	3.8290	1.2983	26.83	0.89	1.500			
0.4385	28062.18	3.8260	3.8260	1.3201	26.81	0.87	1.500			
0.4425	28318.29	3.8230	3.8230	1.3473	26.80	0.86	1.500			
0.4466	28579.49	3.8200	3.8200	1.3771	26.79	0.85	1.500			
0.4507	28845.95	3.8170	3.8170	1.4073	26.78	0.84	1.500			
0.4550	29119.91	3.8140	3.8140	1.4359	26.77	0.83	1.500			
0.4593	29397.43	3.8110	3.8110	1.4696	26.75	0.81	1.500			
0.4638	29684.20	3.8080	3.8080	1.4835	26.74	0.80	1.500			
0.4683	29972.03	3.8050	3.8050	1.5128	26.73	0.79	1.500			
0.4728	30260.80	3.8020	3.8021	1.5414	26.71	0.77	1.500			
0.4775	30558.13	3.7990	3.7989	1.5753	26.70	0.76	1.500			
0.4823	30864.23	3.7960	3.7960	1.6095	26.68	0.74	1.500			
0.4872	31177.64	3.7930	3.7930	1.6408	26.67	0.73	1.500			
0.4922	31501.08	3.7900	3.7900	1.6726	26.65	0.71	1.500			
0.4972	31822.58	3.7870	3.7870	1.6941	26.64	0.70	1.500			
0.5023	32148.42	3.7840	3.7840	1.7139	26.63	0.69	1.500			
0.5075	32478.75	3.7810	3.7809	1.7412	26.61	0.67	1.500			
0.5128	32816.83	3.7780	3.7783	1.7638	26.59	0.65	1.500			
0.5181	33160.50	3.7750	3.7750	1.7826	26.58	0.64	1.500	0.347	0.468	
0.5235	33503.63	3.7720	3.7720	1.7901	26.56	0.62	1.500			
0.5288	33846.30	3.7690	3.7688	1.7825	26.54	0.60	1.500			
0.5342	34186.97	3.7660	3.7661	1.7819	26.53	0.59	1.500			
0.5395	34529.96	3.7630	3.7629	1.7787	26.51	0.57	1.500			
0.5448	34869.22	3.7600	3.7601	1.7823	26.50	0.56	1.500			
0.5502	35211.61	3.7570	3.7570	1.7861	26.48	0.54	1.500			
0.5556	35555.69	3.7540	3.7539	1.7967	26.47	0.53	1.500			
0.5610	35902.25	3.7510	3.7511	1.7943	26.45	0.51	1.500			
0.5664	36248.47	3.7480	3.7480	1.7989	26.43	0.49	1.500			
0.5717	36590.92	3.7450	3.7451	1.8044	26.41	0.47	1.500			
0.5771	36934.96	3.7420	3.7420	1.8427	26.40	0.46	1.500			
0.5827	37291.88	3.7390	3.7390	1.8891	26.38	0.44	1.500			
0.5884	37660.59	3.7360	3.7360	1.9252	26.37	0.43	1.500			
0.5943	38037.58	3.7330	3.7331	1.9733	26.35	0.41	1.500			
0.6003	38419.12	3.7300	3.7300	2.0269	26.34	0.40	1.500			
0.6064	38810.53	3.7270	3.7270	2.0639	26.33	0.39	1.500			
0.6128	39216.74	3.7240	3.7240	2.1175	26.31	0.37	1.500			
0.6192	39629.46	3.7210	3.7210	2.1853	26.30	0.36	1.500			
0.6258	40049.12	3.7180	3.7180	2.2682	26.29	0.35	1.500			
0.6327	40490.51	3.7150	3.7150	2.3243	26.27	0.33	1.500			
0.6398	40948.63	3.7120	3.7121	2.3882	26.25	0.31	1.500			
0.6471	41412.21	3.7090	3.7090	2.4122	26.24	0.30	1.500			
0.6543	41875.53	3.7060	3.7059	2.4131	26.22	0.28	1.500			
0.6616	42342.27	3.7030	3.7030	2.4184	26.21	0.27	1.500			
0.6689	42809.91	3.7000	3.7000	2.3191	26.19	0.25	1.500			
0.6757	43245.04	3.6970	3.6971	2.1886	26.18	0.24	1.500			
0.6820	43650.98	3.6940	3.6940	2.0259	26.16	0.22	1.500			
0.6878	44020.02	3.6910	3.6910	1.8638	26.15	0.21	1.500			
0.6931	44356.33	3.6880	3.6880	1.7290	26.14	0.20	1.500			
0.6980	44672.67	3.6850	3.6850	1.6158	26.13	0.19	1.500			
0.7026	44968.14	3.6820	3.6820	1.5274	26.12	0.18	1.500			
0.7071	45251.34	3.6790	3.6790	1.4594	26.11	0.17	1.500			
0.7113	45523.12	3.6760	3.6760	1.3950	26.11	0.17	1.500			
0.7154	45784.37	3.6730	3.6730	1.3466	26.10	0.16	1.500			
0.7193	46033.92	3.6700	3.6700	1.3136	26.09	0.15	1.500			
0.7231	46277.19	3.6670	3.6670	1.2828	26.08	0.14	1.500			
0.7269	46521.24	3.6640	3.6640	1.2724	26.07	0.13	1.500			
0.7306	46759.80	3.6610	3.6610	1.2628	26.07	0.13	1.500			
0.7344	47002.26	3.6580	3.6581	1.2709	26.06	0.12	1.500			
0.7382	47247.67	3.6550	3.6550	1.2777	26.05	0.11	1.500			
0.7421	47494.36	3.6520	3.6519	1.2785	26.04	0.10	1.500			
0.7459	47740.43	3.6490	3.6490	1.2772	26.03	0.09	1.500			
0.7498	47986.11	3.6460	3.6461	1.2806	26.02	0.08	1.500			
0.7536	48232.45	3.6430	3.6430	1.2810	26.01	0.07	1.500			
0.7575	48479.27	3.6400	3.6399	1.2694	26.00	0.06	1.500			
0.7613	48721.47	3.6370	3.6370	1.2660	26.00	0.06	1.500			
0.7651	48965.14	3.6340	3.6341	1.2589	25.99	0.05	1.500			
0.7688	49205.77	3.6310	3.6310	1.2514	25.98	0.04	1.500			
0.7726	49446.14	3.6280	3.6279	1.2440	25.97	0.03	1.500			
0.7763	49682.68	3.6250	3.6251	1.2381	25.97	0.03	1.500			
0.7800	49918.54	3.6220	3.6220	1.2350	25.96	0.02	1.500			
0.7837	50157.29	3.6190	3.6190	1.2320	25.96	0.02	1.500			
0.7874	50393.33	3.6160	3.6160	1.2198	25.95	0.01	1.500			
0.7911	50628.69	3.6130	3.6130	1.2097	25.95	0.01	1.500			
0.7947	50861.03	3.6100	3.6101	1.1945	25.95	0.01	1.500			
0.7983	51089.03	3.6070	3.6069	1.1800	25.94	0.00	1.500			
0.8018	51314.09	3.6040	3.6039	1.1584	25.94	0.00	1.500			
0.8052	51533.79	3.6010	3.6010	1.1382	25.94	0.00	1.500			
0.8086	51750.82	3.5980	3.5981	1.1203	25.94	0.00	1.500			
0.8120	51966.33	3.5950	3.5950	1.0997	25.94	0.00	1.500			
0.8152	52175.15	3.5920	3.5920	1.0735	25.94	0.00	1.500			
0.8184	52380.54	3.5890	3.5890	1.0389	25.94	0.00	1.500			
0.8216	52580.16	3.5860	3.5859	0.9917	25.94	0.00	1.500			
0.8246	52773.06	3.5830	3.5830	0.9393	25.94	0.00	1.500			
0.8274	52951.56	3.5800	3.5800	0.8541	25.94	0.00	1.500			
0.8299	53112.73	3.5770	3.5770	0.7658	25.94	0.00	1.500			
0.8320	53250.59	3.5740	3.5741	0.6645	25.94	0.00	1.500			
0.8338	53366.29	3.5710	3.5710	0.5607	25.94	0.00	1.500			
0.8353	53461.72	3.5680	3.5679	0.4666	25.94	0.00	1.500			
0.8365	53536.78	3.5650	3.5649	0.3879	25.94	0.00	1.500			
0.8375	53599.47	3.5620	3.5620	0.3290	25.94	0.00	1.500			
0.8384	53655.66	3.5590	3.5589	0.2863	25.94	0.00	1.500			
0.8391	53703.75	3.5560	3.5561	0.2500	25.94	0.00	1.500			
0.8398	53748.09	3.5530	3.5530	0.2216	25.94	0.00	1.500			
0.8404	53787.07	3.5500	3.5500	0.2005	25.94	0.00	1.500			
0.8410	53822.30	3.5470	3.5469	0.1807	25.94	0.00	1.500			
0.8415	53854.68	3.5440	3.5440	0.1624	25.94	0.00	1.500			
0.8419	53884.18	3.5410	3.5410	0.1478	25.94	0.00	1.500			
0.8424	53910.54	3.5380	3.5381	0.1324	25.94	0.00	1.500			
0.8427	53934.77	3.5350	3.5350	0.1186	25.94	0.00	1.500			
0.8431	53956.03	3.5320	3.5320	0.1039	25.94	0.00	1.500			
0.8434	53974.61	3.5290	3.5290	0.0896	25.94	0.00	1.500			
0.8436	53990.15	3.5260	3.5263	0.0754	25.94	0.00	1.500			
0.8438	54003.76	3.5230	3.5234	0.0612	25.94	0.00	1.500			
0.8440	54014.10	3.5200	3.5207	0.0464	25.94	0.00	1.500			
0.8441	54021.60	3.5170	3.5182	0.0317	25.94	0.00	1.500			
