Ah_balance (normalized)	Ah_balance (mAh)	Voltage - fit (V)	Voltage -  interpolate (V)	dQ/dV (1/V)	Temperature (°C)	Temperature - diff (°C)	Current (C)	R_DC 0ms (mOhm)	R_DC 50ms (mOhm)	R_DC 50 ms PEC (mOhm)
0.2902	18571.87	3.9830	3.9832	0.8748	27.13	1.18	1.500			
0.2928	18739.19	3.9800	3.9800	0.8686	27.12	1.17	1.500			
0.2954	18905.10	3.9770	3.9770	0.8645	27.12	1.17	1.500			
0.2980	19070.79	3.9740	3.9740	0.8607	27.12	1.17	1.500			
0.3005	19235.09	3.9710	3.9710	0.8595	27.11	1.16	1.500			
0.3031	19399.85	3.9680	3.9681	0.8589	27.11	1.16	1.500			
0.3057	19564.50	3.9650	3.9650	0.8572	27.10	1.15	1.500			
0.3082	19726.41	3.9620	3.9621	0.8616	27.10	1.15	1.500			
0.3108	19891.12	3.9590	3.9590	0.8697	27.09	1.14	1.500			
0.3134	20058.48	3.9560	3.9558	0.8793	27.09	1.14	1.500			
0.3161	20229.84	3.9530	3.9530	0.8856	27.09	1.14	1.500			
0.3188	20401.21	3.9500	3.9500	0.8907	27.08	1.13	1.500			
0.3215	20575.35	3.9470	3.9470	0.8940	27.07	1.12	1.500			
0.3242	20745.89	3.9440	3.9441	0.8925	27.07	1.12	1.500			
0.3268	20916.53	3.9410	3.9410	0.8966	27.06	1.11	1.500			
0.3295	21088.56	3.9380	3.9379	0.8986	27.06	1.11	1.500			
0.3322	21261.19	3.9350	3.9350	0.9053	27.05	1.10	1.500			
0.3349	21436.32	3.9320	3.9320	0.9096	27.05	1.10	1.500			
0.3377	21611.63	3.9290	3.9290	0.9177	27.04	1.09	1.500			
0.3404	21788.65	3.9260	3.9260	0.9227	27.04	1.09	1.500			
0.3432	21965.66	3.9230	3.9230	0.9239	27.03	1.08	1.500			
0.3460	22143.61	3.9200	3.9199	0.9302	27.02	1.07	1.500			
0.3488	22322.52	3.9170	3.9171	0.9364	27.02	1.07	1.500			
0.3516	22503.35	3.9140	3.9140	0.9428	27.01	1.06	1.500			
0.3545	22685.73	3.9110	3.9109	0.9479	27.00	1.05	1.500			
0.3573	22866.06	3.9080	3.9081	0.9544	27.00	1.05	1.500			
0.3602	23049.77	3.9050	3.9050	0.9630	26.99	1.04	1.500			
0.3631	23235.84	3.9020	3.9019	0.9700	26.98	1.03	1.500			
0.3660	23422.30	3.8990	3.8990	0.9779	26.98	1.03	1.500			
0.3689	23612.00	3.8960	3.8961	0.9852	26.97	1.02	1.500			
0.3719	23803.76	3.8930	3.8930	0.9941	26.97	1.02	1.500			
0.3749	23993.48	3.8900	3.8900	0.9973	26.96	1.01	1.500			
0.3779	24186.81	3.8870	3.8871	1.0020	26.96	1.01	1.500			
0.3809	24378.91	3.8840	3.8839	1.0186	26.95	1.00	1.500			
0.3840	24576.00	3.8810	3.8810	1.0274	26.95	1.00	1.500			
0.3871	24773.15	3.8780	3.8780	1.0376	26.94	0.99	1.500			
0.3902	24974.19	3.8750	3.8752	1.0495	26.94	0.99	1.500			
0.3934	25177.63	3.8720	3.8720	1.0626	26.93	0.98	1.500			
0.3966	25382.22	3.8690	3.8690	1.0756	26.92	0.97	1.500			
0.3998	25589.56	3.8660	3.8660	1.0884	26.91	0.96	1.500			
0.4031	25799.56	3.8630	3.8630	1.1024	26.91	0.96	1.500			
0.4065	26013.59	3.8600	3.8600	1.1156	26.90	0.95	1.500			
0.4098	26227.71	3.8570	3.8570	1.1326	26.89	0.94	1.500			
0.4132	26447.26	3.8540	3.8540	1.1460	26.88	0.93	1.500			
0.4167	26667.31	3.8510	3.8510	1.1631	26.87	0.92	1.500			
0.4202	26891.87	3.8480	3.8480	1.1815	26.86	0.91	1.500			
0.4238	27121.10	3.8450	3.8449	1.1997	26.86	0.91	1.500			
0.4274	27353.80	3.8420	3.8420	1.2161	26.85	0.90	1.500			
0.4311	27588.81	3.8390	3.8390	1.2322	26.84	0.89	1.500			
0.4348	27824.52	3.8360	3.8361	1.2543	26.83	0.88	1.500			
0.4386	28067.93	3.8330	3.8328	1.2842	26.82	0.87	1.500			
0.4424	28315.02	3.8300	3.8300	1.3062	26.81	0.86	1.500			
0.4464	28569.40	3.8270	3.8270	1.3365	26.80	0.85	1.500			
0.4505	28829.51	3.8240	3.8240	1.3654	26.80	0.85	1.500			
0.4546	29095.03	3.8210	3.8210	1.3923	26.79	0.84	1.500			
0.4588	29364.47	3.8180	3.8180	1.4197	26.78	0.83	1.500			
0.4631	29637.70	3.8150	3.8150	1.4491	26.77	0.82	1.500			
0.4675	29917.50	3.8120	3.8120	1.4793	26.76	0.81	1.500			
0.4720	30207.30	3.8090	3.8090	1.5107	26.75	0.80	1.500			
0.4765	30497.62	3.8060	3.8060	1.5495	26.73	0.78	1.500			
0.4812	30798.01	3.8030	3.8030	1.5825	26.72	0.77	1.500			
0.4860	31105.52	3.8000	3.8000	1.6232	26.71	0.76	1.500			
0.4910	31421.05	3.7970	3.7970	1.6564	26.69	0.74	1.500			
0.4960	31744.53	3.7940	3.7940	1.6871	26.68	0.73	1.500			
0.5011	32072.86	3.7910	3.7910	1.7258	26.66	0.71	1.500			
0.5063	32406.01	3.7880	3.7880	1.7649	26.64	0.69	1.500			
0.5117	32746.64	3.7850	3.7850	1.8080	26.63	0.68	1.500			
0.5172	33099.30	3.7820	3.7820	1.8426	26.61	0.66	1.500			
0.5228	33459.91	3.7790	3.7790	1.8638	26.59	0.64	1.500			
0.5284	33817.81	3.7760	3.7761	1.8845	26.57	0.62	1.500			
0.5340	34178.98	3.7730	3.7731	1.9037	26.55	0.60	1.500			
0.5398	34547.49	3.7700	3.7701	1.9345	26.54	0.59	1.500	0.360	0.461	
0.5457	34922.90	3.7670	3.7671	1.9414	26.52	0.57	1.500			
0.5516	35301.03	3.7640	3.7641	1.9355	26.51	0.56	1.500			
0.5573	35669.30	3.7610	3.7611	1.9111	26.49	0.54	1.500			
0.5630	36033.53	3.7580	3.7579	1.8996	26.48	0.53	1.500			
0.5687	36397.35	3.7550	3.7551	1.9005	26.46	0.51	1.500			
0.5745	36764.86	3.7520	3.7520	1.8834	26.45	0.50	1.500			
0.5801	37125.91	3.7490	3.7490	1.8796	26.43	0.48	1.500			
0.5857	37484.58	3.7460	3.7461	1.8843	26.41	0.46	1.500			
0.5913	37846.35	3.7430	3.7431	1.9126	26.39	0.44	1.500			
0.5971	38214.56	3.7400	3.7400	1.9312	26.38	0.43	1.500			
0.6030	38590.69	3.7370	3.7370	1.9582	26.37	0.42	1.500			
0.6089	38969.54	3.7340	3.7340	1.9781	26.35	0.40	1.500			
0.6149	39352.61	3.7310	3.7310	2.0104	26.34	0.39	1.500			
0.6209	39738.49	3.7280	3.7280	2.0376	26.32	0.37	1.500			
0.6271	40133.84	3.7250	3.7250	2.0961	26.31	0.36	1.500			
0.6334	40540.14	3.7220	3.7220	2.1647	26.29	0.34	1.500			
0.6400	40960.28	3.7190	3.7190	2.2403	26.28	0.33	1.500			
0.6469	41401.64	3.7160	3.7160	2.2934	26.26	0.31	1.500			
0.6539	41849.21	3.7130	3.7130	2.3835	26.25	0.30	1.500			
0.6611	42308.95	3.7100	3.7100	2.4769	26.23	0.28	1.500			
0.6686	42791.57	3.7070	3.7071	2.5624	26.22	0.27	1.500			
0.6765	43298.44	3.7040	3.7040	2.6374	26.19	0.24	1.500			
0.6844	43799.81	3.7010	3.7010	2.5821	26.17	0.22	1.500			
0.6922	44298.59	3.6980	3.6980	2.4947	26.15	0.20	1.500			
0.6996	44775.61	3.6950	3.6950	2.3677	26.14	0.19	1.500			
0.7065	45213.22	3.6920	3.6920	2.1948	26.13	0.18	1.500			
0.7126	45606.88	3.6890	3.6889	2.0030	26.12	0.17	1.500			
0.7184	45975.78	3.6860	3.6860	1.8624	26.11	0.16	1.500			
0.7237	46319.04	3.6830	3.6829	1.7305	26.10	0.15	1.500			
0.7287	46635.15	3.6800	3.6800	1.6197	26.10	0.15	1.500			
0.7333	46930.37	3.6770	3.6771	1.5293	26.09	0.14	1.500			
0.7377	47212.92	3.6740	3.6739	1.4546	26.08	0.13	1.500			
0.7419	47481.32	3.6710	3.6710	1.3889	26.07	0.12	1.500			
0.7459	47740.59	3.6680	3.6681	1.3437	26.07	0.12	1.500			
0.7499	47994.64	3.6650	3.6650	1.3040	26.06	0.11	1.500			
0.7537	48237.50	3.6620	3.6619	1.2804	26.05	0.10	1.500			
0.7574	48475.28	3.6590	3.6591	1.2592	26.04	0.09	1.500			
0.7611	48712.98	3.6560	3.6560	1.2605	26.03	0.08	1.500			
0.7649	48953.52	3.6530	3.6530	1.2669	26.03	0.08	1.500			
0.7687	49198.41	3.6500	3.6500	1.2786	26.02	0.07	1.500			
0.7726	49444.76	3.6470	3.6470	1.2862	26.01	0.06	1.500			
0.7765	49696.24	3.6440	3.6440	1.2881	26.00	0.05	1.500			
0.7804	49943.12	3.6410	3.6411	1.2880	26.00	0.05	1.500			
0.7842	50191.38	3.6380	3.6380	1.2862	25.99	0.04	1.500			
0.7881	50437.55	3.6350	3.6349	1.2828	25.98	0.03	1.500			
0.7919	50683.23	3.6320	3.6320	1.2735	25.97	0.02	1.500			
0.7957	50926.72	3.6290	3.6289	1.2728	25.97	0.02	1.500			
0.7996	51172.45	3.6260	3.6261	1.2696	25.96	0.01	1.500			
0.8034	51416.37	3.6230	3.6229	1.2660	25.96	0.01	1.500			
0.8072	51657.68	3.6200	3.6200	1.2569	25.95	0.00	1.500			
0.8109	51899.50	3.6170	3.6170	1.2530	25.94	-0.01	1.500			
0.8147	52139.15	3.6140	3.6141	1.2458	25.94	-0.01	1.500			
0.8184	52378.81	3.6110	3.6109	1.2363	25.94	-0.01	1.500			
0.8221	52614.84	3.6080	3.6080	1.2201	25.94	-0.01	1.500			
0.8258	52850.71	3.6050	3.6050	1.1961	25.94	-0.01	1.500			
0.8293	53077.80	3.6020	3.6020	1.1778	25.93	-0.02	1.500			
0.8328	53302.20	3.5990	3.5990	1.1631	25.93	-0.02	1.500			
0.8363	53521.94	3.5960	3.5960	1.1495	25.93	-0.02	1.500			
0.8397	53740.20	3.5930	3.5929	1.1336	25.93	-0.02	1.500			
0.8431	53956.60	3.5900	3.5900	1.1239	25.93	-0.02	1.500			
0.8465	54173.80	3.5870	3.5870	1.1109	25.94	-0.01	1.500			
0.8498	54387.99	3.5840	3.5840	1.0895	25.94	-0.01	1.500			
0.8531	54598.78	3.5810	3.5809	1.0418	25.94	-0.01	1.500			
0.8562	54798.85	3.5780	3.5780	0.9836	25.94	-0.01	1.500			
0.8592	54990.39	3.5750	3.5750	0.8957	25.95	-0.00	1.500			
0.8618	55157.87	3.5720	3.5721	0.7922	25.95	-0.00	1.500			
0.8641	55301.81	3.5690	3.5691	0.6816	25.95	0.00	1.500			
0.8659	55419.96	3.5660	3.5660	0.5682	25.95	0.00	1.500			
0.8673	55510.32	3.5630	3.5630	0.4728	25.95	0.00	1.500			
0.8685	55586.82	3.5600	3.5599	0.3972	25.95	0.00	1.500			
0.8695	55650.72	3.5570	3.5570	0.3248	25.95	0.00	1.500			
0.8704	55706.05	3.5540	3.5540	0.2832	25.96	0.01	1.500			
0.8711	55752.90	3.5510	3.5509	0.2464	25.96	0.01	1.500			
0.8718	55795.30	3.5480	3.5479	0.2190	25.96	0.01	1.500			
0.8724	55833.27	3.5450	3.5450	0.1938	25.96	0.01	1.500			
0.8729	55867.43	3.5420	3.5421	0.1751	25.96	0.01	1.500			
0.8734	55898.76	3.5390	3.5390	0.1588	25.96	0.01	1.500			
0.8739	55927.18	3.5360	3.5360	0.1419	25.96	0.01	1.500			
0.8743	55952.95	3.5330	3.5329	0.1275	25.96	0.01	1.500			
0.8746	55975.69	3.5300	3.5300	0.1124	25.96	0.01	1.500			
0.8749	55996.09	3.5270	3.5271	0.0986	25.96	0.01	1.500			
0.8752	56013.85	3.5240	3.5241	0.0845	25.96	0.01	1.500			
0.8754	56028.67	3.5210	3.5212	0.0699	25.96	0.01	1.500			
0.8756	56040.75	3.5180	3.5183	0.0550	25.96	0.01	1.500			
0.8758	56049.88	3.5150	3.5156	0.0401	25.96	0.01	1.500			
