Ah_balance (normalized)	Ah_balance (mAh)	Voltage - fit (V)	Voltage -  interpolate (V)	dQ/dV (1/V)	Temperature (°C)	Temperature - diff (°C)	Current (C)	R_DC 0ms (mOhm)	R_DC 50ms (mOhm)	R_DC 50 ms PEC (mOhm)
0.2018	12917.23	3.9140	3.9138	-0.0863	25.82	0.00	-1.500			
0.2021	12937.35	3.9110	3.9108	-0.1233	25.82	0.00	-1.500			
0.2026	12965.09	3.9080	3.9080	-0.1601	25.82	0.00	-1.500			
0.2031	12999.89	3.9050	3.9048	-0.1935	25.82	0.00	-1.500			
0.2038	13040.42	3.9020	3.9021	-0.2252	25.82	0.00	-1.500			
0.2045	13087.29	3.8990	3.8990	-0.2540	25.82	0.00	-1.500			
0.2053	13139.97	3.8960	3.8960	-0.2838	25.82	-0.00	-1.500			
0.2062	13196.88	3.8930	3.8931	-0.3135	25.82	-0.00	-1.500			
0.2072	13259.28	3.8900	3.8901	-0.3419	25.82	-0.00	-1.500			
0.2082	13327.62	3.8870	3.8869	-0.3710	25.82	-0.00	-1.500			
0.2094	13402.10	3.8840	3.8840	-0.3994	25.82	-0.00	-1.500			
0.2107	13481.75	3.8810	3.8810	-0.4288	25.82	-0.00	-1.500			
0.2120	13567.16	3.8780	3.8780	-0.4574	25.81	-0.01	-1.500			
0.2134	13657.97	3.8750	3.8751	-0.4855	25.81	-0.01	-1.500			
0.2149	13753.69	3.8720	3.8720	-0.5115	25.81	-0.01	-1.500			
0.2165	13855.45	3.8690	3.8689	-0.5368	25.81	-0.01	-1.500			
0.2181	13960.99	3.8660	3.8660	-0.5621	25.81	-0.01	-1.500			
0.2199	14070.70	3.8630	3.8630	-0.5876	25.81	-0.01	-1.500			
0.2217	14185.96	3.8600	3.8600	-0.6086	25.81	-0.01	-1.500			
0.2235	14305.50	3.8570	3.8569	-0.6331	25.81	-0.01	-1.500			
0.2255	14429.52	3.8540	3.8540	-0.6544	25.80	-0.02	-1.500			
0.2275	14559.46	3.8510	3.8511	-0.6706	25.80	-0.02	-1.500			
0.2295	14690.79	3.8480	3.8481	-0.6813	25.80	-0.02	-1.500			
0.2316	14822.94	3.8450	3.8450	-0.6907	25.80	-0.02	-1.500			
0.2337	14956.18	3.8420	3.8420	-0.6985	25.80	-0.02	-1.500			
0.2358	15089.81	3.8390	3.8390	-0.7072	25.80	-0.02	-1.500			
0.2379	15225.67	3.8360	3.8359	-0.7132	25.80	-0.02	-1.500			
0.2401	15364.98	3.8330	3.8331	-0.7208	25.80	-0.02	-1.500			
0.2423	15504.71	3.8300	3.8300	-0.7292	25.80	-0.02	-1.500			
0.2445	15646.24	3.8270	3.8271	-0.7366	25.81	-0.01	-1.500			
0.2467	15787.57	3.8240	3.8240	-0.7409	25.81	-0.01	-1.500			
0.2489	15930.47	3.8210	3.8209	-0.7414	25.81	-0.01	-1.500			
0.2511	16072.88	3.8180	3.8180	-0.7447	25.81	-0.01	-1.500			
0.2534	16216.14	3.8150	3.8150	-0.7507	25.81	-0.01	-1.500			
0.2556	16360.73	3.8120	3.8120	-0.7500	25.81	-0.01	-1.500			
0.2579	16504.12	3.8090	3.8090	-0.7513	25.81	-0.01	-1.500			
0.2601	16648.82	3.8060	3.8061	-0.7545	25.82	-0.00	-1.500			
0.2624	16794.15	3.8030	3.8029	-0.7578	25.82	-0.00	-1.500			
0.2647	16941.34	3.8000	3.8000	-0.7621	25.82	0.00	-1.500			
0.2670	17087.08	3.7970	3.7970	-0.7625	25.82	0.00	-1.500			
0.2693	17232.81	3.7940	3.7940	-0.7660	25.83	0.01	-1.500			
0.2716	17381.79	3.7910	3.7911	-0.7665	25.83	0.01	-1.500			
0.2739	17528.90	3.7880	3.7879	-0.7671	25.83	0.01	-1.500			
0.2762	17676.60	3.7850	3.7849	-0.7665	25.84	0.02	-1.500			
0.2785	17823.73	3.7820	3.7820	-0.7665	25.84	0.02	-1.500			
0.2808	17970.70	3.7790	3.7790	-0.7658	25.84	0.02	-1.500			
0.2831	18117.73	3.7760	3.7760	-0.7656	25.85	0.03	-1.500			
0.2854	18264.32	3.7730	3.7730	-0.7660	25.85	0.03	-1.500			
0.2877	18410.30	3.7700	3.7701	-0.7649	25.86	0.04	-1.500			
0.2900	18558.68	3.7670	3.7670	-0.7703	25.86	0.04	-1.500			
0.2923	18707.44	3.7640	3.7640	-0.7699	25.86	0.04	-1.500			
0.2946	18854.57	3.7610	3.7610	-0.7714	25.87	0.05	-1.500			
0.2969	19003.05	3.7580	3.7581	-0.7728	25.87	0.05	-1.500			
0.2992	19151.65	3.7550	3.7550	-0.7716	25.88	0.06	-1.500			
0.3016	19299.86	3.7520	3.7519	-0.7705	25.88	0.06	-1.500			
0.3039	19447.27	3.7490	3.7490	-0.7703	25.89	0.07	-1.500			
0.3062	19594.35	3.7460	3.7460	-0.7694	25.89	0.07	-1.500			
0.3085	19742.74	3.7430	3.7430	-0.7675	25.90	0.08	-1.500			
0.3108	19888.82	3.7400	3.7399	-0.7667	25.90	0.08	-1.500			
0.3131	20036.36	3.7370	3.7371	-0.7692	25.91	0.09	-1.500			
0.3154	20184.39	3.7340	3.7340	-0.7706	25.92	0.10	-1.500			
0.3177	20332.37	3.7310	3.7310	-0.7713	25.92	0.10	-1.500			
0.3200	20479.90	3.7280	3.7279	-0.7756	25.93	0.11	-1.500			
0.3223	20629.48	3.7250	3.7251	-0.7785	25.93	0.11	-1.500			
0.3247	20779.43	3.7220	3.7220	-0.7835	25.94	0.12	-1.500			
0.3270	20929.53	3.7190	3.7190	-0.7858	25.94	0.12	-1.500			
0.3294	21081.38	3.7160	3.7160	-0.7920	25.95	0.13	-1.500			
0.3318	21233.60	3.7130	3.7129	-0.7926	25.95	0.13	-1.500			
0.3342	21385.84	3.7100	3.7100	-0.7952	25.96	0.14	-1.500			
0.3365	21537.03	3.7070	3.7071	-0.8013	25.96	0.14	-1.500			
0.3389	21691.73	3.7040	3.7039	-0.8112	25.97	0.15	-1.500			
0.3414	21848.79	3.7010	3.7010	-0.8151	25.97	0.15	-1.500			
0.3439	22006.69	3.6980	3.6981	-0.8219	25.98	0.16	-1.500			
0.3463	22164.39	3.6950	3.6950	-0.8339	25.98	0.16	-1.500			
0.3488	22325.95	3.6920	3.6919	-0.8458	25.99	0.17	-1.500			
0.3514	22487.71	3.6890	3.6890	-0.8520	25.99	0.17	-1.500			
0.3539	22651.92	3.6860	3.6860	-0.8606	26.00	0.18	-1.500			
0.3565	22818.83	3.6830	3.6830	-0.8764	26.00	0.18	-1.500			
0.3592	22988.81	3.6800	3.6800	-0.8928	26.01	0.19	-1.500			
0.3619	23160.18	3.6770	3.6770	-0.9068	26.01	0.19	-1.500			
0.3646	23335.39	3.6740	3.6740	-0.9174	26.02	0.20	-1.500			
0.3674	23513.82	3.6710	3.6710	-0.9340	26.02	0.20	-1.500			
0.3702	23694.47	3.6680	3.6680	-0.9571	26.02	0.20	-1.500			
0.3731	23879.93	3.6650	3.6650	-0.9744	26.03	0.21	-1.500			
0.3761	24068.51	3.6620	3.6619	-0.9874	26.03	0.21	-1.500			
0.3791	24259.84	3.6590	3.6590	-1.0057	26.04	0.22	-1.500			
0.3821	24455.15	3.6560	3.6560	-1.0230	26.04	0.22	-1.500			
0.3852	24653.62	3.6530	3.6530	-1.0417	26.05	0.23	-1.500			
0.3883	24853.28	3.6500	3.6500	-1.0618	26.05	0.23	-1.500			
0.3915	25056.70	3.6470	3.6470	-1.0836	26.06	0.24	-1.500			
0.3948	25268.86	3.6440	3.6439	-1.1162	26.06	0.24	-1.500			
0.3983	25488.18	3.6410	3.6410	-1.1367	26.07	0.25	-1.500			
0.4017	25709.13	3.6380	3.6380	-1.1591	26.07	0.25	-1.500			
0.4052	25933.04	3.6350	3.6352	-1.1828	26.08	0.26	-1.500			
0.4088	26161.89	3.6320	3.6319	-1.2022	26.08	0.26	-1.500			
0.4124	26393.45	3.6290	3.6290	-1.2209	26.09	0.27	-1.500			
0.4161	26627.48	3.6260	3.6260	-1.2427	26.09	0.27	-1.500			
0.4199	26870.61	3.6230	3.6231	-1.2763	26.09	0.27	-1.500			
0.4237	27117.67	3.6200	3.6199	-1.3060	26.10	0.28	-1.500			
0.4277	27370.54	3.6170	3.6170	-1.3294	26.10	0.28	-1.500			
0.4317	27629.05	3.6140	3.6140	-1.3558	26.10	0.28	-1.500			
0.4358	27891.41	3.6110	3.6110	-1.3867	26.10	0.28	-1.500			
0.4400	28160.08	3.6080	3.6080	-1.4187	26.10	0.28	-1.500			
0.4443	28433.87	3.6050	3.6050	-1.4417	26.09	0.27	-1.500			
0.4486	28712.55	3.6020	3.6019	-1.4742	26.09	0.27	-1.500			
0.4531	28999.60	3.5990	3.5991	-1.4949	26.09	0.27	-1.500			
0.4577	29291.12	3.5960	3.5959	-1.5204	26.09	0.27	-1.500			
0.4623	29584.04	3.5930	3.5931	-1.5538	26.09	0.27	-1.500			
0.4670	29885.20	3.5900	3.5899	-1.5767	26.09	0.27	-1.500			
0.4717	30189.38	3.5870	3.5869	-1.5980	26.09	0.27	-1.500			
0.4766	30500.86	3.5840	3.5840	-1.6236	26.09	0.27	-1.500			
0.4815	30813.77	3.5810	3.5811	-1.6478	26.09	0.27	-1.500			
0.4865	31133.37	3.5780	3.5780	-1.6810	26.09	0.27	-1.500			
0.4915	31456.18	3.5750	3.5750	-1.7028	26.09	0.27	-1.500			
0.4966	31784.00	3.5720	3.5719	-1.7240	26.09	0.27	-1.500			
0.5019	32120.95	3.5690	3.5690	-1.7507	26.09	0.27	-1.500			
0.5072	32460.87	3.5660	3.5660	-1.7775	26.09	0.27	-1.500			
0.5125	32802.43	3.5630	3.5631	-1.8081	26.09	0.27	-1.500			
0.5180	33150.38	3.5600	3.5600	-1.8263	26.10	0.28	-1.500			
0.5235	33504.63	3.5570	3.5569	-1.8387	26.10	0.28	-1.500			
0.5291	33860.97	3.5540	3.5541	-1.8644	26.10	0.28	-1.500			
0.5347	34223.54	3.5510	3.5510	-1.8801	26.10	0.28	-1.500			
0.5404	34585.38	3.5480	3.5479	-1.9039	26.10	0.28	-1.500			
0.5462	34953.63	3.5450	3.5450	-1.9080	26.11	0.29	-1.500			
0.5519	35323.24	3.5420	3.5419	-1.9229	26.11	0.29	-1.500	0.389	0.511	
0.5577	35695.26	3.5390	3.5390	-1.9303	26.11	0.29	-1.500			
0.5635	36064.33	3.5360	3.5359	-1.9175	26.11	0.29	-1.500			
0.5692	36431.04	3.5330	3.5330	-1.9025	26.12	0.30	-1.500			
0.5749	36793.03	3.5300	3.5300	-1.8954	26.12	0.30	-1.500			
0.5806	37156.52	3.5270	3.5270	-1.8960	26.12	0.30	-1.500			
0.5862	37518.98	3.5240	3.5240	-1.8860	26.13	0.31	-1.500			
0.5919	37881.46	3.5210	3.5209	-1.8796	26.14	0.32	-1.500			
0.5976	38243.69	3.5180	3.5181	-1.8758	26.15	0.33	-1.500			
0.6032	38601.67	3.5150	3.5150	-1.8694	26.16	0.34	-1.500			
0.6088	38960.67	3.5120	3.5120	-1.8636	26.16	0.34	-1.500			
0.6143	39316.43	3.5090	3.5090	-1.8520	26.17	0.35	-1.500			
0.6199	39673.69	3.5060	3.5059	-1.8382	26.17	0.35	-1.500			
0.6254	40025.99	3.5030	3.5030	-1.8292	26.18	0.36	-1.500			
0.6309	40377.61	3.5000	3.5001	-1.8199	26.18	0.36	-1.500			
0.6363	40723.43	3.4970	3.4969	-1.8157	26.19	0.37	-1.500			
0.6417	41070.05	3.4940	3.4940	-1.8004	26.20	0.38	-1.500			
0.6471	41416.16	3.4910	3.4910	-1.7959	26.21	0.39	-1.500			
0.6526	41763.31	3.4880	3.4880	-1.7925	26.22	0.40	-1.500			
0.6579	42107.11	3.4850	3.4850	-1.7816	26.22	0.40	-1.500			
0.6633	42448.70	3.4820	3.4819	-1.7584	26.23	0.41	-1.500			
0.6685	42784.07	3.4790	3.4791	-1.7428	26.24	0.42	-1.500			
0.6737	43115.98	3.4760	3.4760	-1.7243	26.25	0.43	-1.500			
0.6788	43446.11	3.4730	3.4729	-1.7098	26.26	0.44	-1.500			
0.6840	43772.85	3.4700	3.4699	-1.6845	26.27	0.45	-1.500			
0.6890	44094.86	3.4670	3.4670	-1.6675	26.28	0.46	-1.500			
0.6940	44414.18	3.4640	3.4640	-1.6409	26.29	0.47	-1.500			
0.6989	44727.02	3.4610	3.4610	-1.6144	26.31	0.49	-1.500			
0.7037	45034.27	3.4580	3.4580	-1.5859	26.32	0.50	-1.500			
0.7084	45335.37	3.4550	3.4550	-1.5641	26.33	0.51	-1.500			
0.7130	45632.09	3.4520	3.4519	-1.5376	26.35	0.53	-1.500			
0.7176	45925.72	3.4490	3.4491	-1.5172	26.36	0.54	-1.500			
0.7221	46212.47	3.4460	3.4460	-1.4956	26.37	0.55	-1.500			
0.7266	46500.37	3.4430	3.4431	-1.4831	26.39	0.57	-1.500			
0.7310	46781.83	3.4400	3.4400	-1.4696	26.40	0.58	-1.500			
0.7353	47060.10	3.4370	3.4370	-1.4624	26.42	0.60	-1.500			
0.7397	47339.79	3.4340	3.4340	-1.4572	26.43	0.61	-1.500			
0.7441	47620.48	3.4310	3.4310	-1.4490	26.45	0.63	-1.500			
0.7484	47899.53	3.4280	3.4280	-1.4387	26.46	0.64	-1.500			
0.7527	48174.92	3.4250	3.4250	-1.4306	26.47	0.65	-1.500			
0.7570	48450.15	3.4220	3.4220	-1.4138	26.49	0.67	-1.500			
0.7612	48718.40	3.4190	3.4189	-1.3994	26.51	0.69	-1.500			
0.7654	48985.25	3.4160	3.4161	-1.3758	26.53	0.71	-1.500			
0.7695	49250.16	3.4130	3.4130	-1.3546	26.55	0.73	-1.500			
0.7736	49510.48	3.4100	3.4100	-1.3307	26.57	0.75	-1.500			
0.7776	49765.78	3.4070	3.4070	-1.2931	26.59	0.77	-1.500			
0.7814	50010.11	3.4040	3.4040	-1.2491	26.61	0.79	-1.500			
0.7851	50248.47	3.4010	3.4010	-1.2094	26.62	0.80	-1.500			
0.7886	50473.30	3.3980	3.3980	-1.1633	26.64	0.82	-1.500			
0.7920	50690.90	3.3950	3.3950	-1.1195	26.65	0.83	-1.500			
0.7954	50904.27	3.3920	3.3919	-1.0828	26.67	0.85	-1.500			
0.7986	51108.04	3.3890	3.3890	-1.0378	26.68	0.86	-1.500			
0.8016	51303.83	3.3860	3.3860	-1.0003	26.69	0.87	-1.500			
0.8046	51493.09	3.3830	3.3829	-0.9582	26.70	0.88	-1.500			
0.8074	51672.05	3.3800	3.3799	-0.9166	26.71	0.89	-1.500			
0.8100	51840.44	3.3770	3.3770	-0.8755	26.72	0.90	-1.500			
0.8126	52004.64	3.3740	3.3741	-0.8435	26.73	0.91	-1.500			
0.8151	52163.90	3.3710	3.3710	-0.8163	26.74	0.92	-1.500			
0.8175	52318.24	3.3680	3.3680	-0.7857	26.75	0.93	-1.500			
0.8198	52464.92	3.3650	3.3649	-0.7564	26.76	0.94	-1.500			
0.8220	52608.17	3.3620	3.3621	-0.7339	26.77	0.95	-1.500			
0.8242	52746.32	3.3590	3.3590	-0.7080	26.78	0.96	-1.500			
0.8262	52879.15	3.3560	3.3559	-0.6832	26.79	0.97	-1.500			
0.8283	53009.07	3.3530	3.3531	-0.6587	26.80	0.98	-1.500			
0.8302	53132.28	3.3500	3.3500	-0.6373	26.80	0.98	-1.500			
0.8321	53252.70	3.3470	3.3471	-0.6178	26.81	0.99	-1.500			
0.8339	53368.06	3.3440	3.3439	-0.5959	26.82	1.00	-1.500			
0.8356	53480.06	3.3410	3.3410	-0.5782	26.83	1.01	-1.500			
0.8373	53589.49	3.3380	3.3380	-0.5600	26.83	1.01	-1.500			
0.8390	53695.26	3.3350	3.3350	-0.5428	26.84	1.02	-1.500			
0.8406	53799.06	3.3320	3.3320	-0.5268	26.85	1.03	-1.500			
0.8421	53897.22	3.3290	3.3290	-0.5085	26.86	1.04	-1.500			
0.8436	53993.10	3.3260	3.3260	-0.4935	26.86	1.04	-1.500			
0.8451	54086.66	3.3230	3.3230	-0.4793	26.87	1.05	-1.500			
0.8465	54176.95	3.3200	3.3199	-0.4646	26.88	1.06	-1.500			
0.8479	54265.25	3.3170	3.3171	-0.4514	26.88	1.06	-1.500			
0.8492	54350.24	3.3140	3.3139	-0.4379	26.89	1.07	-1.500			
0.8505	54432.80	3.3110	3.3110	-0.4256	26.90	1.08	-1.500			
0.8518	54513.25	3.3080	3.3080	-0.4093	26.90	1.08	-1.500			
0.8530	54590.36	3.3050	3.3050	-0.3966	26.90	1.08	-1.500			
0.8542	54665.62	3.3020	3.3020	-0.3849	26.90	1.08	-1.500			
0.8553	54737.84	3.2990	3.2991	-0.3736	26.90	1.08	-1.500			
0.8564	54808.38	3.2960	3.2959	-0.3622	26.91	1.09	-1.500			
0.8574	54876.62	3.2930	3.2930	-0.3517	26.92	1.10	-1.500			
0.8585	54942.61	3.2900	3.2900	-0.3417	26.92	1.10	-1.500			
0.8595	55008.06	3.2870	3.2870	-0.3337	26.93	1.11	-1.500			
0.8605	55071.05	3.2840	3.2839	-0.3223	26.94	1.12	-1.500			
0.8614	55131.81	3.2810	3.2810	-0.3133	26.94	1.12	-1.500			
0.8624	55190.88	3.2780	3.2781	-0.3035	26.95	1.13	-1.500			
0.8633	55248.70	3.2750	3.2749	-0.2944	26.95	1.13	-1.500			
0.8641	55304.05	3.2720	3.2720	-0.2859	26.96	1.14	-1.500			
0.8650	55358.06	3.2690	3.2691	-0.2779	26.96	1.14	-1.500			
0.8658	55410.50	3.2660	3.2659	-0.2706	26.97	1.15	-1.500			
0.8666	55461.81	3.2630	3.2630	-0.2635	26.97	1.15	-1.500			
0.8674	55510.69	3.2600	3.2600	-0.2574	26.98	1.16	-1.500			
0.8681	55560.19	3.2570	3.2570	-0.2519	26.98	1.16	-1.500			
0.8689	55607.98	3.2540	3.2539	-0.2472	26.99	1.17	-1.500			
0.8696	55654.83	3.2510	3.2511	-0.2404	26.99	1.17	-1.500			
0.8703	55700.22	3.2480	3.2480	-0.2363	27.00	1.18	-1.500			
0.8710	55745.24	3.2450	3.2449	-0.2313	27.00	1.18	-1.500			
0.8717	55789.10	3.2420	3.2420	-0.2262	27.01	1.19	-1.500			
0.8724	55831.70	3.2390	3.2390	-0.2204	27.01	1.19	-1.500			
0.8730	55873.71	3.2360	3.2363	-0.2165	27.02	1.20	-1.500			
0.8737	55915.60	3.2330	3.2330	-0.2126	27.02	1.20	-1.500			
0.8743	55955.79	3.2300	3.2299	-0.2071	27.02	1.20	-1.500			
0.8749	55995.37	3.2270	3.2269	-0.2026	27.03	1.21	-1.500			
0.8755	56032.87	3.2240	3.2240	-0.1973	27.03	1.21	-1.500			
0.8761	56070.14	3.2210	3.2211	-0.1945	27.04	1.22	-1.500			
0.8767	56107.22	3.2180	3.2180	-0.1917	27.04	1.22	-1.500			
0.8772	56143.30	3.2150	3.2149	-0.1889	27.04	1.22	-1.500			
0.8778	56179.43	3.2120	3.2120	-0.1857	27.05	1.23	-1.500			
0.8784	56215.21	3.2090	3.2090	-0.1844	27.05	1.23	-1.500			
0.8789	56250.33	3.2060	3.2061	-0.1814	27.05	1.23	-1.500			
0.8795	56285.09	3.2030	3.2030	-0.1786	27.06	1.24	-1.500			
0.8800	56318.87	3.2000	3.1999	-0.1754	27.06	1.24	-1.500			
0.8805	56351.87	3.1970	3.1971	-0.1726	27.07	1.25	-1.500			
0.8810	56384.84	3.1940	3.1940	-0.1708	27.07	1.25	-1.500			
0.8815	56417.51	3.1910	3.1909	-0.1682	27.07	1.25	-1.500			
0.8820	56449.74	3.1880	3.1880	-0.1665	27.08	1.26	-1.500			
0.8825	56481.34	3.1850	3.1850	-0.1639	27.08	1.26	-1.500			
0.8830	56512.61	3.1820	3.1821	-0.1619	27.09	1.27	-1.500			
0.8835	56543.46	3.1790	3.1789	-0.1607	27.09	1.27	-1.500			
0.8840	56574.12	3.1760	3.1760	-0.1587	27.10	1.28	-1.500			
0.8844	56604.34	3.1730	3.1729	-0.1566	27.10	1.28	-1.500			
0.8849	56634.28	3.1700	3.1701	-0.1552	27.10	1.28	-1.500			
0.8854	56664.24	3.1670	3.1671	-0.1536	27.11	1.29	-1.500			
0.8858	56693.48	3.1640	3.1640	-0.1516	27.11	1.29	-1.500			
0.8863	56722.38	3.1610	3.1610	-0.1500	27.12	1.30	-1.500			
0.8867	56750.99	3.1580	3.1580	-0.1481	27.12	1.30	-1.500			
0.8872	56778.92	3.1550	3.1550	-0.1466	27.12	1.30	-1.500			
0.8876	56807.23	3.1520	3.1520	-0.1448	27.13	1.31	-1.500			
0.8880	56834.62	3.1490	3.1490	-0.1435	27.13	1.31	-1.500			
0.8885	56862.06	3.1460	3.1460	-0.1423	27.14	1.32	-1.500			
0.8889	56889.22	3.1430	3.1431	-0.1413	27.14	1.32	-1.500			
0.8893	56916.10	3.1400	3.1399	-0.1403	27.14	1.32	-1.500			
0.8897	56942.84	3.1370	3.1369	-0.1395	27.15	1.33	-1.500			
0.8902	56969.70	3.1340	3.1342	-0.1384	27.15	1.33	-1.500			
0.8906	56996.22	3.1310	3.1310	-0.1374	27.15	1.33	-1.500			
0.8910	57022.95	3.1280	3.1280	-0.1368	27.16	1.34	-1.500			
0.8914	57048.70	3.1250	3.1250	-0.1353	27.16	1.34	-1.500			
0.8918	57074.58	3.1220	3.1220	-0.1346	27.17	1.35	-1.500			
0.8922	57100.38	3.1190	3.1190	-0.1337	27.17	1.35	-1.500			
0.8926	57125.87	3.1160	3.1160	-0.1328	27.18	1.36	-1.500			
0.8930	57151.36	3.1130	3.1130	-0.1319	27.18	1.36	-1.500			
0.8934	57176.82	3.1100	3.1100	-0.1308	27.19	1.37	-1.500			
0.8938	57201.90	3.1070	3.1070	-0.1296	27.19	1.37	-1.500			
0.8942	57226.57	3.1040	3.1040	-0.1285	27.19	1.37	-1.500			
0.8945	57250.96	3.1010	3.1010	-0.1276	27.20	1.38	-1.500			
0.8949	57275.24	3.0980	3.0980	-0.1266	27.20	1.38	-1.500			
0.8953	57299.50	3.0950	3.0949	-0.1256	27.21	1.39	-1.500			
0.8957	57323.49	3.0920	3.0920	-0.1250	27.21	1.39	-1.500			
0.8961	57347.40	3.0890	3.0889	-0.1244	27.22	1.40	-1.500			
0.8964	57371.35	3.0860	3.0861	-0.1235	27.22	1.40	-1.500			
0.8968	57394.98	3.0830	3.0829	-0.1226	27.22	1.40	-1.500			
0.8972	57418.38	3.0800	3.0801	-0.1218	27.23	1.41	-1.500			
0.8975	57441.60	3.0770	3.0771	-0.1208	27.23	1.41	-1.500			
0.8979	57464.64	3.0740	3.0740	-0.1207	27.24	1.42	-1.500			
0.8982	57487.79	3.0710	3.0709	-0.1204	27.24	1.42	-1.500			
0.8986	57510.73	3.0680	3.0680	-0.1195	27.25	1.43	-1.500			
0.8990	57533.69	3.0650	3.0649	-0.1193	27.25	1.43	-1.500			
0.8993	57556.67	3.0620	3.0621	-0.1193	27.25	1.43	-1.500			
0.8997	57579.76	3.0590	3.0589	-0.1184	27.26	1.44	-1.500			
0.9000	57602.60	3.0560	3.0560	-0.1179	27.26	1.44	-1.500			
0.9004	57625.02	3.0530	3.0528	-0.1170	27.27	1.45	-1.500			
0.9007	57647.36	3.0500	3.0501	-0.1160	27.27	1.45	-1.500			
0.9011	57669.47	3.0470	3.0471	-0.1153	27.28	1.46	-1.500			
0.9014	57691.52	3.0440	3.0439	-0.1145	27.28	1.46	-1.500			
0.9018	57713.48	3.0410	3.0410	-0.1137	27.29	1.47	-1.500			
0.9021	57735.07	3.0380	3.0380	-0.1126	27.29	1.47	-1.500			
0.9024	57756.64	3.0350	3.0351	-0.1120	27.30	1.48	-1.500			
0.9028	57778.27	3.0320	3.0320	-0.1117	27.30	1.48	-1.500			
0.9031	57799.64	3.0290	3.0290	-0.1108	27.31	1.49	-1.500			
0.9034	57820.57	3.0260	3.0260	-0.1106	27.31	1.49	-1.500			
0.9038	57841.79	3.0230	3.0229	-0.1104	27.31	1.49	-1.500			
0.9041	57862.96	3.0200	3.0200	-0.1097	27.32	1.50	-1.500			
0.9044	57883.99	3.0170	3.0169	-0.1094	27.32	1.50	-1.500			
0.9048	57905.20	3.0140	3.0141	-0.1090	27.33	1.51	-1.500			
0.9051	57926.04	3.0110	3.0111	-0.1081	27.33	1.51	-1.500			
0.9054	57946.90	3.0080	3.0080	-0.1071	27.34	1.52	-1.500			
0.9057	57967.33	3.0050	3.0050	-0.1057	27.34	1.52	-1.500			
0.9061	57987.58	3.0020	3.0020	-0.1064	27.35	1.53	-1.500			
