Ah_balance (normalized)	Ah_balance (mAh)	Voltage - fit (V)	Voltage -  interpolate (V)	dQ/dV (1/V)	Temperature (°C)	Temperature - diff (°C)	Current (C)	R_DC 0ms (mOhm)	R_DC 50ms (mOhm)	R_DC 50 ms PEC (mOhm)
0.4512	28877.16	3.7800	3.7802	1.3412	26.34	0.97	0.750			
0.4552	29134.17	3.7770	3.7771	1.3426	26.34	0.97	0.750			
0.4593	29392.34	3.7740	3.7741	1.3576	26.33	0.96	0.750			
0.4633	29654.30	3.7710	3.7710	1.3746	26.32	0.95	0.750			
0.4675	29920.84	3.7680	3.7681	1.3890	26.32	0.95	0.750			
0.4717	30189.73	3.7650	3.7651	1.4184	26.31	0.94	0.750			
0.4760	30464.12	3.7620	3.7619	1.4463	26.30	0.93	0.750			
0.4804	30742.71	3.7590	3.7590	1.4583	26.30	0.93	0.750			
0.4848	31025.55	3.7560	3.7561	1.4965	26.28	0.91	0.750			
0.4894	31318.53	3.7530	3.7529	1.5360	26.27	0.90	0.750			
0.4940	31615.30	3.7500	3.7501	1.5572	26.26	0.89	0.750			
0.4987	31917.01	3.7470	3.7470	1.5835	26.25	0.88	0.750			
0.5036	32227.33	3.7440	3.7439	1.6231	26.24	0.87	0.750			
0.5084	32537.23	3.7410	3.7410	1.6603	26.22	0.85	0.750			
0.5134	32860.32	3.7380	3.7381	1.6956	26.21	0.84	0.750			
0.5186	33192.79	3.7350	3.7350	1.7449	26.19	0.82	0.750			
0.5239	33530.65	3.7320	3.7320	1.7871	26.17	0.80	0.750			
0.5294	33882.17	3.7290	3.7291	1.8394	26.16	0.79	0.750			
0.5350	34238.48	3.7260	3.7260	1.8559	26.15	0.78	0.750			
0.5405	34594.83	3.7230	3.7231	1.9287	26.14	0.77	0.750			
0.5465	34973.91	3.7200	3.7198	1.9871	26.12	0.75	0.750			
0.5526	35366.04	3.7170	3.7171	2.0278	26.09	0.72	0.750			
0.5587	35759.10	3.7140	3.7140	2.1007	26.08	0.71	0.750			
0.5650	36157.80	3.7110	3.7109	2.1614	26.06	0.69	0.750			
0.5717	36588.00	3.7080	3.7080	2.2259	26.05	0.68	0.750			
0.5785	37024.78	3.7050	3.7051	2.2524	26.03	0.66	0.750			
0.5852	37451.18	3.7020	3.7020	2.3135	26.02	0.65	0.750			
0.5922	37898.23	3.6990	3.6989	2.3849	26.01	0.64	0.750			
0.5996	38374.26	3.6960	3.6960	2.4467	25.99	0.62	0.750			
0.6070	38848.16	3.6930	3.6930	2.4641	25.97	0.60	0.750			
0.6144	39321.58	3.6900	3.6900	2.5216	25.96	0.59	0.750			
0.6221	39812.00	3.6870	3.6870	2.5848	25.95	0.58	0.750			
0.6299	40313.06	3.6840	3.6840	2.4942	25.94	0.57	0.750			
0.6373	40789.26	3.6810	3.6810	2.4085	25.91	0.54	0.750			
0.6443	41237.22	3.6780	3.6781	2.3016	25.90	0.53	0.750			
0.6512	41676.61	3.6750	3.6749	2.1740	25.89	0.52	0.750			
0.6574	42073.38	3.6720	3.6721	1.9992	25.89	0.52	0.750			
0.6631	42441.26	3.6690	3.6690	1.8497	25.88	0.51	0.750			
0.6684	42777.79	3.6660	3.6661	1.7041	25.87	0.50	0.750			
0.6733	43092.55	3.6630	3.6629	1.6000	25.86	0.49	0.750			
0.6779	43385.30	3.6600	3.6599	1.4974	25.85	0.48	0.750			
0.6822	43663.62	3.6570	3.6570	1.4244	25.84	0.47	0.750			
0.6864	43931.90	3.6540	3.6540	1.3744	25.84	0.47	0.750			
0.6904	44188.45	3.6510	3.6510	1.3240	25.83	0.46	0.750			
0.6943	44434.41	3.6480	3.6480	1.2823	25.82	0.45	0.750			
0.6980	44674.44	3.6450	3.6450	1.2582	25.81	0.44	0.750			
0.7018	44913.85	3.6420	3.6419	1.2428	25.80	0.43	0.750			
0.7055	45149.45	3.6390	3.6390	1.2289	25.80	0.43	0.750			
0.7091	45383.60	3.6360	3.6360	1.2234	25.79	0.42	0.750			
0.7128	45618.05	3.6330	3.6330	1.2192	25.79	0.42	0.750			
0.7164	45852.60	3.6300	3.6300	1.2138	25.78	0.41	0.750			
0.7200	46082.80	3.6270	3.6270	1.2078	25.77	0.40	0.750			
0.7237	46314.39	3.6240	3.6240	1.2083	25.76	0.39	0.750			
0.7273	46547.88	3.6210	3.6210	1.2081	25.75	0.38	0.750			
0.7309	46777.99	3.6180	3.6180	1.2077	25.74	0.37	0.750			
0.7345	47008.92	3.6150	3.6150	1.2158	25.74	0.37	0.750			
0.7382	47241.71	3.6120	3.6121	1.2308	25.73	0.36	0.750			
0.7419	47479.56	3.6090	3.6089	1.2430	25.72	0.35	0.750			
0.7456	47717.80	3.6060	3.6061	1.2776	25.71	0.34	0.750			
0.7495	47965.26	3.6030	3.6030	1.3170	25.69	0.32	0.750			
0.7535	48223.45	3.6000	3.5998	1.3602	25.68	0.31	0.750			
0.7576	48485.50	3.5970	3.5970	1.4074	25.66	0.29	0.750			
0.7619	48761.19	3.5940	3.5940	1.4637	25.65	0.28	0.750			
0.7664	49046.79	3.5910	3.5910	1.5005	25.63	0.26	0.750			
0.7709	49340.19	3.5880	3.5880	1.5627	25.61	0.24	0.750			
0.7757	49644.95	3.5850	3.5851	1.5916	25.59	0.22	0.750			
0.7806	49956.08	3.5820	3.5821	1.6190	25.57	0.20	0.750			
0.7854	50268.23	3.5790	3.5789	1.6630	25.55	0.18	0.750			
0.7905	50590.72	3.5760	3.5759	1.6844	25.52	0.15	0.750			
0.7956	50915.56	3.5730	3.5730	1.6950	25.50	0.13	0.750			
0.8007	51247.00	3.5700	3.5699	1.7032	25.47	0.10	0.750			
0.8059	51575.40	3.5670	3.5670	1.7097	25.45	0.08	0.750			
0.8110	51901.24	3.5640	3.5641	1.6906	25.42	0.05	0.750			
0.8161	52230.85	3.5610	3.5610	1.6751	25.40	0.03	0.750			
0.8212	52553.75	3.5580	3.5580	1.6284	25.38	0.01	0.750			
0.8261	52873.39	3.5550	3.5550	1.5309	25.36	-0.01	0.750			
0.8306	53158.60	3.5520	3.5520	1.3419	25.34	-0.03	0.750			
0.8345	53409.20	3.5490	3.5491	1.1522	25.33	-0.04	0.750			
0.8377	53611.07	3.5460	3.5461	0.9450	25.32	-0.05	0.750			
0.8400	53761.24	3.5430	3.5431	0.7599	25.31	-0.06	0.750			
0.8419	53879.75	3.5400	3.5398	0.5984	25.31	-0.06	0.750			
0.8432	53964.74	3.5370	3.5369	0.4851	25.31	-0.06	0.750			
0.8444	54042.96	3.5340	3.5338	0.4114	25.31	-0.06	0.750			
0.8455	54109.51	3.5310	3.5310	0.3654	25.31	-0.06	0.750			
0.8465	54174.63	3.5280	3.5279	0.3384	25.31	-0.06	0.750			
0.8474	54234.96	3.5250	3.5250	0.3185	25.31	-0.06	0.750			
0.8483	54294.32	3.5220	3.5219	0.3050	25.31	-0.06	0.750			
0.8492	54350.72	3.5190	3.5190	0.2932	25.31	-0.06	0.750			
0.8501	54405.91	3.5160	3.5161	0.2844	25.31	-0.06	0.750			
0.8509	54459.32	3.5130	3.5130	0.2777	25.31	-0.06	0.750			
0.8517	54511.69	3.5100	3.5100	0.2710	25.31	-0.06	0.750			
0.8525	54562.46	3.5070	3.5070	0.2644	25.31	-0.06	0.750			
0.8533	54612.75	3.5040	3.5041	0.2606	25.31	-0.06	0.750			
0.8541	54662.51	3.5010	3.5010	0.2564	25.31	-0.06	0.750			
0.8549	54711.33	3.4980	3.4980	0.2524	25.31	-0.06	0.750			
0.8556	54759.37	3.4950	3.4950	0.2479	25.31	-0.06	0.750			
0.8564	54806.48	3.4920	3.4920	0.2437	25.31	-0.06	0.750			
0.8571	54852.94	3.4890	3.4890	0.2410	25.31	-0.06	0.750			
0.8578	54898.90	3.4860	3.4860	0.2370	25.31	-0.06	0.750			
0.8585	54943.92	3.4830	3.4830	0.2330	25.31	-0.06	0.750			
0.8592	54988.34	3.4800	3.4800	0.2297	25.31	-0.06	0.750			
0.8599	55032.29	3.4770	3.4771	0.2262	25.31	-0.06	0.750			
0.8606	55075.30	3.4740	3.4740	0.2229	25.31	-0.06	0.750			
0.8612	55117.66	3.4710	3.4710	0.2198	25.31	-0.06	0.750			
0.8619	55159.57	3.4680	3.4680	0.2167	25.31	-0.06	0.750			
0.8625	55200.48	3.4650	3.4650	0.2134	25.31	-0.06	0.750			
0.8631	55241.51	3.4620	3.4620	0.2107	25.31	-0.06	0.750			
0.8638	55281.40	3.4590	3.4591	0.2083	25.31	-0.06	0.750			
0.8644	55321.30	3.4560	3.4560	0.2056	25.31	-0.06	0.750			
0.8650	55360.59	3.4530	3.4530	0.2030	25.31	-0.06	0.750			
0.8656	55399.28	3.4500	3.4499	0.2000	25.31	-0.06	0.750			
0.8662	55437.28	3.4470	3.4471	0.1976	25.31	-0.06	0.750			
0.8668	55474.98	3.4440	3.4440	0.1952	25.31	-0.06	0.750			
0.8674	55512.24	3.4410	3.4410	0.1929	25.31	-0.06	0.750			
0.8680	55549.10	3.4380	3.4380	0.1904	25.31	-0.06	0.750			
0.8685	55585.13	3.4350	3.4350	0.1875	25.32	-0.05	0.750			
0.8691	55621.06	3.4320	3.4321	0.1862	25.32	-0.05	0.750			
0.8696	55656.62	3.4290	3.4290	0.1841	25.32	-0.05	0.750			
0.8702	55691.88	3.4260	3.4260	0.1811	25.32	-0.05	0.750			
0.8707	55726.07	3.4230	3.4230	0.1793	25.32	-0.05	0.750			
0.8713	55760.44	3.4200	3.4200	0.1773	25.32	-0.05	0.750			
0.8718	55794.29	3.4170	3.4171	0.1753	25.32	-0.05	0.750			
0.8723	55827.97	3.4140	3.4138	0.1723	25.33	-0.04	0.750			
0.8728	55860.82	3.4110	3.4111	0.1697	25.33	-0.04	0.750			
0.8733	55893.03	3.4080	3.4080	0.1671	25.33	-0.04	0.750			
0.8738	55924.88	3.4050	3.4050	0.1646	25.33	-0.04	0.750			
0.8743	55956.26	3.4020	3.4020	0.1636	25.33	-0.04	0.750			
0.8748	55987.01	3.3990	3.3990	0.1608	25.33	-0.04	0.750			
0.8753	56017.81	3.3960	3.3960	0.1597	25.33	-0.04	0.750			
0.8758	56048.35	3.3930	3.3930	0.1585	25.33	-0.04	0.750			
0.8762	56078.90	3.3900	3.3900	0.1569	25.33	-0.04	0.750			
0.8767	56108.91	3.3870	3.3869	0.1550	25.34	-0.03	0.750			
0.8772	56138.49	3.3840	3.3841	0.1532	25.34	-0.03	0.750			
0.8776	56167.73	3.3810	3.3810	0.1513	25.34	-0.03	0.750			
0.8781	56196.38	3.3780	3.3780	0.1493	25.34	-0.03	0.750			
0.8785	56225.19	3.3750	3.3750	0.1476	25.34	-0.03	0.750			
0.8790	56253.22	3.3720	3.3719	0.1452	25.34	-0.03	0.750			
0.8794	56280.79	3.3690	3.3690	0.1439	25.34	-0.03	0.750			
0.8798	56308.26	3.3660	3.3660	0.1424	25.34	-0.03	0.750			
0.8802	56335.49	3.3630	3.3630	0.1407	25.34	-0.03	0.750			
0.8807	56362.35	3.3600	3.3599	0.1391	25.35	-0.02	0.750			
0.8811	56388.94	3.3570	3.3570	0.1372	25.35	-0.02	0.750			
0.8815	56415.09	3.3540	3.3541	0.1357	25.35	-0.02	0.750			
0.8819	56441.11	3.3510	3.3510	0.1343	25.35	-0.02	0.750			
0.8823	56466.70	3.3480	3.3479	0.1323	25.35	-0.02	0.750			
0.8827	56491.71	3.3450	3.3450	0.1303	25.35	-0.02	0.750			
0.8831	56516.53	3.3420	3.3421	0.1288	25.35	-0.02	0.750			
0.8835	56541.15	3.3390	3.3390	0.1274	25.35	-0.02	0.750			
0.8838	56565.50	3.3360	3.3361	0.1258	25.35	-0.02	0.750			
0.8842	56589.54	3.3330	3.3330	0.1243	25.35	-0.02	0.750			
0.8846	56613.15	3.3300	3.3299	0.1225	25.35	-0.02	0.750			
0.8849	56636.60	3.3270	3.3270	0.1212	25.36	-0.01	0.750			
0.8853	56659.51	3.3240	3.3240	0.1200	25.36	-0.01	0.750			
0.8857	56682.36	3.3210	3.3210	0.1186	25.36	-0.01	0.750			
0.8860	56705.15	3.3180	3.3180	0.1172	25.36	-0.01	0.750			
0.8864	56727.45	3.3150	3.3149	0.1157	25.36	-0.01	0.750			
0.8867	56749.58	3.3120	3.3120	0.1144	25.36	-0.01	0.750			
0.8871	56771.54	3.3090	3.3091	0.1133	25.36	-0.01	0.750			
0.8874	56793.16	3.3060	3.3061	0.1118	25.36	-0.01	0.750			
0.8877	56814.58	3.3030	3.3029	0.1105	25.36	-0.01	0.750			
0.8881	56835.63	3.3000	3.3000	0.1088	25.36	-0.01	0.750			
0.8884	56856.24	3.2970	3.2970	0.1070	25.36	-0.01	0.750			
0.8887	56876.56	3.2940	3.2941	0.1058	25.36	-0.01	0.750			
0.8890	56896.81	3.2910	3.2911	0.1046	25.37	-0.00	0.750			
0.8893	56916.71	3.2880	3.2880	0.1034	25.37	-0.00	0.750			
0.8896	56936.31	3.2850	3.2850	0.1020	25.37	-0.00	0.750			
0.8899	56955.79	3.2820	3.2820	0.1010	25.37	-0.00	0.750			
0.8902	56975.12	3.2790	3.2790	0.0997	25.37	-0.00	0.750			
0.8905	56994.14	3.2760	3.2761	0.0985	25.37	-0.00	0.750			
0.8908	57013.14	3.2730	3.2730	0.0973	25.37	-0.00	0.750			
0.8911	57031.66	3.2700	3.2700	0.0957	25.37	0.00	0.750			
0.8914	57049.75	3.2670	3.2670	0.0945	25.37	0.00	0.750			
0.8917	57067.77	3.2640	3.2640	0.0933	25.37	0.00	0.750			
0.8920	57085.56	3.2610	3.2609	0.0918	25.37	0.00	0.750			
0.8922	57103.06	3.2580	3.2580	0.0905	25.37	0.00	0.750			
0.8925	57120.29	3.2550	3.2551	0.0893	25.37	0.00	0.750			
0.8928	57137.33	3.2520	3.2520	0.0881	25.37	0.00	0.750			
0.8930	57154.16	3.2490	3.2490	0.0870	25.38	0.01	0.750			
0.8933	57170.75	3.2460	3.2459	0.0857	25.38	0.01	0.750			
0.8935	57186.96	3.2430	3.2430	0.0843	25.38	0.01	0.750			
0.8938	57203.05	3.2400	3.2401	0.0833	25.38	0.01	0.750			
0.8940	57219.02	3.2370	3.2370	0.0824	25.38	0.01	0.750			
0.8943	57234.75	3.2340	3.2340	0.0812	25.38	0.01	0.750			
0.8945	57250.23	3.2310	3.2310	0.0800	25.38	0.01	0.750			
0.8948	57265.44	3.2280	3.2280	0.0788	25.38	0.01	0.750			
0.8950	57280.49	3.2250	3.2249	0.0776	25.38	0.01	0.750			
0.8952	57295.35	3.2220	3.2220	0.0765	25.38	0.01	0.750			
0.8955	57309.91	3.2190	3.2190	0.0752	25.38	0.01	0.750			
0.8957	57324.15	3.2160	3.2160	0.0741	25.38	0.01	0.750			
0.8959	57338.18	3.2130	3.2131	0.0728	25.38	0.01	0.750			
0.8961	57352.11	3.2100	3.2100	0.0717	25.38	0.01	0.750			
0.8963	57365.77	3.2070	3.2069	0.0706	25.38	0.01	0.750			
0.8966	57379.22	3.2040	3.2040	0.0695	25.38	0.01	0.750			
0.8968	57392.46	3.2010	3.2011	0.0684	25.38	0.01	0.750			
0.8970	57405.52	3.1980	3.1980	0.0674	25.38	0.01	0.750			
0.8972	57418.34	3.1950	3.1950	0.0662	25.38	0.01	0.750			
0.8974	57430.91	3.1920	3.1920	0.0651	25.39	0.02	0.750			
0.8976	57443.25	3.1890	3.1891	0.0639	25.39	0.02	0.750			
0.8977	57455.41	3.1860	3.1860	0.0628	25.39	0.02	0.750			
0.8979	57467.36	3.1830	3.1831	0.0617	25.39	0.02	0.750			
0.8981	57479.12	3.1800	3.1800	0.0607	25.39	0.02	0.750			
0.8983	57490.66	3.1770	3.1771	0.0596	25.39	0.02	0.750			
0.8985	57501.99	3.1740	3.1740	0.0585	25.39	0.02	0.750			
0.8986	57513.17	3.1710	3.1710	0.0572	25.39	0.02	0.750			
0.8988	57524.04	3.1680	3.1680	0.0560	25.39	0.02	0.750			
0.8990	57534.68	3.1650	3.1651	0.0548	25.39	0.02	0.750			
0.8991	57545.25	3.1620	3.1620	0.0536	25.39	0.02	0.750			
0.8993	57555.41	3.1590	3.1591	0.0522	25.39	0.02	0.750			
0.8995	57565.29	3.1560	3.1560	0.0508	25.39	0.02	0.750			
0.8996	57574.95	3.1530	3.1531	0.0494	25.39	0.02	0.750			
0.8998	57584.29	3.1500	3.1500	0.0479	25.39	0.02	0.750			
0.8999	57594.08	3.1470	3.1469	0.0443	25.39	0.02	0.750			
0.9000	57602.34	3.1440	3.1441	0.0417	25.39	0.02	0.750			
0.9002	57610.81	3.1410	3.1410	0.0404	25.39	0.02	0.750			
0.9003	57618.26	3.1380	3.1382	0.0371	25.39	0.02	0.750			
0.9004	57625.07	3.1350	3.1355	0.0338	25.39	0.02	0.750			
0.9005	57631.26	3.1320	3.1329	0.0306	25.39	0.02	0.750			
0.9006	57636.81	3.1290	3.1305	0.0273	25.39	0.02	0.750			
0.9007	57641.72	3.1260	3.1278	0.0240	25.39	0.02	0.750			
0.9007	57646.01	3.1230	3.1255	0.0207	25.39	0.02	0.750			
0.9008	57649.66	3.1200	3.1230	0.0174	25.39	0.02	0.750			
