Ah_balance (normalized)	Ah_balance (mAh)	Voltage - fit (V)	Voltage -  interpolate (V)	dQ/dV (1/V)	Temperature (°C)	Temperature - diff (°C)	Current (C)	R_DC 0ms (mOhm)	R_DC 50ms (mOhm)	R_DC 50 ms PEC (mOhm)
0.2786	17829.27	3.9850	3.9850	0.8418	26.89	0.93	1.500			
0.2811	17990.57	3.9820	3.9820	0.8429	26.88	0.92	1.500			
0.2836	18153.12	3.9790	3.9790	0.8467	26.87	0.91	1.500			
0.2862	18316.07	3.9760	3.9760	0.8486	26.87	0.91	1.500			
0.2887	18479.71	3.9730	3.9730	0.8523	26.86	0.90	1.500			
0.2913	18642.59	3.9700	3.9700	0.8533	26.85	0.89	1.500			
0.2938	18805.95	3.9670	3.9670	0.8585	26.85	0.89	1.500			
0.2964	18971.43	3.9640	3.9640	0.8649	26.84	0.88	1.500			
0.2990	19136.91	3.9610	3.9609	0.8702	26.84	0.88	1.500			
0.3017	19305.68	3.9580	3.9580	0.8754	26.83	0.87	1.500			
0.3043	19474.56	3.9550	3.9549	0.8803	26.82	0.86	1.500			
0.3069	19644.68	3.9520	3.9520	0.8828	26.82	0.86	1.500			
0.3096	19814.90	3.9490	3.9490	0.8850	26.81	0.85	1.500			
0.3122	19983.70	3.9460	3.9460	0.8881	26.80	0.84	1.500			
0.3149	20154.01	3.9430	3.9430	0.8959	26.80	0.84	1.500			
0.3176	20325.35	3.9400	3.9400	0.9008	26.79	0.83	1.500			
0.3203	20500.45	3.9370	3.9370	0.9035	26.79	0.83	1.500			
0.3230	20675.13	3.9340	3.9340	0.9073	26.78	0.82	1.500			
0.3258	20849.90	3.9310	3.9311	0.9112	26.77	0.81	1.500			
0.3285	21024.44	3.9280	3.9280	0.9154	26.77	0.81	1.500			
0.3313	21200.07	3.9250	3.9249	0.9179	26.77	0.81	1.500			
0.3340	21375.72	3.9220	3.9220	0.9228	26.76	0.80	1.500			
0.3368	21554.86	3.9190	3.9190	0.9279	26.76	0.80	1.500			
0.3396	21733.02	3.9160	3.9160	0.9386	26.75	0.79	1.500			
0.3424	21913.87	3.9130	3.9130	0.9444	26.75	0.79	1.500			
0.3452	22095.66	3.9100	3.9100	0.9489	26.74	0.78	1.500			
0.3481	22278.76	3.9070	3.9069	0.9511	26.74	0.78	1.500			
0.3510	22461.73	3.9040	3.9041	0.9604	26.73	0.77	1.500			
0.3538	22646.16	3.9010	3.9009	0.9653	26.72	0.76	1.500			
0.3568	22832.44	3.8980	3.8981	0.9724	26.72	0.76	1.500			
0.3597	23018.76	3.8950	3.8950	0.9761	26.71	0.75	1.500			
0.3626	23208.66	3.8920	3.8920	0.9851	26.70	0.74	1.500			
0.3656	23397.81	3.8890	3.8890	0.9958	26.70	0.74	1.500			
0.3686	23588.49	3.8860	3.8860	1.0086	26.69	0.73	1.500			
0.3716	23781.64	3.8830	3.8829	1.0194	26.68	0.72	1.500			
0.3747	23979.10	3.8800	3.8800	1.0325	26.67	0.71	1.500			
0.3778	24179.06	3.8770	3.8771	1.0465	26.67	0.71	1.500			
0.3810	24382.92	3.8740	3.8740	1.0599	26.66	0.70	1.500			
0.3842	24588.60	3.8710	3.8709	1.0658	26.65	0.69	1.500			
0.3874	24791.74	3.8680	3.8680	1.0711	26.64	0.68	1.500			
0.3906	24997.64	3.8650	3.8650	1.0864	26.64	0.68	1.500			
0.3939	25206.51	3.8620	3.8620	1.1009	26.63	0.67	1.500			
0.3972	25419.56	3.8590	3.8589	1.1148	26.62	0.66	1.500			
0.4005	25635.14	3.8560	3.8560	1.1271	26.61	0.65	1.500			
0.4039	25852.62	3.8530	3.8530	1.1450	26.61	0.65	1.500			
0.4074	26075.38	3.8500	3.8500	1.1603	26.60	0.64	1.500			
0.4109	26297.22	3.8470	3.8470	1.1726	26.59	0.63	1.500			
0.4144	26522.32	3.8440	3.8440	1.1910	26.59	0.63	1.500			
0.4180	26752.73	3.8410	3.8411	1.2120	26.58	0.62	1.500			
0.4217	26988.41	3.8380	3.8379	1.2338	26.57	0.61	1.500			
0.4254	27227.74	3.8350	3.8350	1.2541	26.56	0.60	1.500			
0.4292	27469.38	3.8320	3.8321	1.2735	26.55	0.59	1.500			
0.4331	27717.51	3.8290	3.8290	1.2956	26.54	0.58	1.500			
0.4370	27965.09	3.8260	3.8260	1.3144	26.54	0.58	1.500			
0.4409	28219.45	3.8230	3.8230	1.3457	26.53	0.57	1.500			
0.4450	28479.07	3.8200	3.8200	1.3757	26.52	0.56	1.500			
0.4492	28746.71	3.8170	3.8170	1.4080	26.51	0.55	1.500			
0.4535	29021.44	3.8140	3.8140	1.4372	26.50	0.54	1.500			
0.4579	29302.45	3.8110	3.8110	1.4533	26.49	0.53	1.500			
0.4622	29583.63	3.8080	3.8080	1.4898	26.48	0.52	1.500			
0.4667	29868.62	3.8050	3.8051	1.5190	26.47	0.51	1.500			
0.4713	30162.63	3.8020	3.8018	1.5501	26.46	0.50	1.500			
0.4760	30463.61	3.7990	3.7991	1.5848	26.45	0.49	1.500			
0.4809	30774.50	3.7960	3.7961	1.6107	26.44	0.48	1.500			
0.4858	31089.71	3.7930	3.7930	1.6504	26.43	0.47	1.500			
0.4907	31405.66	3.7900	3.7900	1.6793	26.42	0.46	1.500			
0.4958	31730.97	3.7870	3.7870	1.7172	26.40	0.44	1.500			
0.5010	32063.44	3.7840	3.7841	1.7559	26.39	0.43	1.500			
0.5064	32406.70	3.7810	3.7810	1.7921	26.38	0.42	1.500			
0.5118	32753.86	3.7780	3.7780	1.8306	26.37	0.41	1.500			
0.5174	33111.09	3.7750	3.7750	1.8445	26.35	0.39	1.500			
0.5229	33467.20	3.7720	3.7719	1.8570	26.34	0.38	1.500	0.350	0.465	
0.5286	33827.91	3.7690	3.7690	1.8568	26.33	0.37	1.500			
0.5341	34182.22	3.7660	3.7660	1.8277	26.31	0.35	1.500			
0.5395	34530.00	3.7630	3.7631	1.8085	26.30	0.34	1.500			
0.5449	34876.08	3.7600	3.7600	1.8035	26.29	0.33	1.500			
0.5503	35218.26	3.7570	3.7570	1.8020	26.28	0.32	1.500			
0.5557	35562.66	3.7540	3.7540	1.8108	26.27	0.31	1.500			
0.5611	35910.67	3.7510	3.7510	1.8238	26.26	0.30	1.500			
0.5666	36262.33	3.7480	3.7480	1.8368	26.25	0.29	1.500			
0.5721	36616.16	3.7450	3.7449	1.8564	26.24	0.28	1.500			
0.5777	36973.70	3.7420	3.7420	1.8778	26.23	0.27	1.500			
0.5834	37335.62	3.7390	3.7390	1.9065	26.21	0.25	1.500			
0.5891	37704.30	3.7360	3.7360	1.9286	26.20	0.24	1.500			
0.5950	38078.69	3.7330	3.7330	1.9639	26.19	0.23	1.500			
0.6009	38457.76	3.7300	3.7300	2.0163	26.18	0.22	1.500			
0.6070	38850.92	3.7270	3.7270	2.0401	26.17	0.21	1.500			
0.6132	39245.05	3.7240	3.7240	2.1102	26.16	0.20	1.500			
0.6196	39657.43	3.7210	3.7210	2.1756	26.15	0.19	1.500			
0.6262	40079.96	3.7180	3.7181	2.2408	26.14	0.18	1.500			
0.6331	40515.71	3.7150	3.7150	2.2959	26.13	0.17	1.500			
0.6401	40967.49	3.7120	3.7120	2.3493	26.12	0.16	1.500			
0.6472	41420.03	3.7090	3.7088	2.4206	26.11	0.15	1.500			
0.6545	41890.64	3.7060	3.7061	2.4724	26.10	0.14	1.500			
0.6621	42376.35	3.7030	3.7030	2.4453	26.09	0.13	1.500			
0.6695	42847.01	3.7000	3.7000	2.3950	26.08	0.12	1.500			
0.6766	43302.72	3.6970	3.6971	2.2903	26.08	0.12	1.500			
0.6834	43737.17	3.6940	3.6940	2.1549	26.07	0.11	1.500			
0.6897	44141.63	3.6910	3.6910	1.9981	26.07	0.11	1.500			
0.6953	44500.63	3.6880	3.6880	1.8325	26.06	0.10	1.500			
0.7005	44831.77	3.6850	3.6850	1.6942	26.05	0.09	1.500			
0.7053	45141.49	3.6820	3.6819	1.5808	26.05	0.09	1.500			
0.7099	45434.89	3.6790	3.6790	1.5037	26.04	0.08	1.500			
0.7142	45709.46	3.6760	3.6760	1.4305	26.03	0.07	1.500			
0.7184	45977.97	3.6730	3.6730	1.3748	26.03	0.07	1.500			
0.7224	46233.55	3.6700	3.6700	1.3225	26.02	0.06	1.500			
0.7262	46479.64	3.6670	3.6670	1.2886	26.02	0.06	1.500			
0.7300	46720.27	3.6640	3.6640	1.2637	26.01	0.05	1.500			
0.7338	46961.61	3.6610	3.6609	1.2455	26.01	0.05	1.500			
0.7374	47196.06	3.6580	3.6579	1.2457	26.01	0.05	1.500			
0.7411	47431.92	3.6550	3.6551	1.2471	26.00	0.04	1.500			
0.7449	47672.70	3.6520	3.6521	1.2620	26.00	0.04	1.500			
0.7487	47915.40	3.6490	3.6490	1.2703	26.00	0.04	1.500			
0.7525	48161.02	3.6460	3.6460	1.2798	25.99	0.03	1.500			
0.7564	48408.33	3.6430	3.6431	1.2872	25.98	0.02	1.500			
0.7603	48657.73	3.6400	3.6400	1.2926	25.97	0.01	1.500			
0.7641	48905.29	3.6370	3.6370	1.2884	25.97	0.01	1.500			
0.7680	49154.66	3.6340	3.6340	1.2845	25.96	-0.00	1.500			
0.7719	49400.89	3.6310	3.6309	1.2790	25.95	-0.01	1.500			
0.7757	49646.91	3.6280	3.6281	1.2758	25.95	-0.01	1.500			
0.7795	49890.07	3.6250	3.6249	1.2736	25.94	-0.02	1.500			
0.7834	50135.26	3.6220	3.6220	1.2685	25.94	-0.02	1.500			
0.7872	50378.50	3.6190	3.6190	1.2639	25.93	-0.03	1.500			
0.7910	50620.83	3.6160	3.6160	1.2605	25.93	-0.03	1.500			
0.7947	50862.93	3.6130	3.6131	1.2588	25.92	-0.04	1.500			
0.7985	51104.02	3.6100	3.6100	1.2514	25.92	-0.04	1.500			
0.8023	51344.19	3.6070	3.6070	1.2383	25.92	-0.04	1.500			
0.8060	51581.59	3.6040	3.6041	1.2218	25.92	-0.04	1.500			
0.8096	51817.17	3.6010	3.6010	1.2062	25.92	-0.04	1.500			
0.8132	52047.66	3.5980	3.5980	1.1871	25.92	-0.04	1.500			
0.8168	52272.68	3.5950	3.5950	1.1682	25.92	-0.04	1.500			
0.8202	52494.40	3.5920	3.5921	1.1484	25.92	-0.04	1.500			
0.8237	52714.91	3.5890	3.5890	1.1263	25.92	-0.04	1.500			
0.8271	52931.63	3.5860	3.5859	1.0949	25.93	-0.03	1.500			
0.8304	53143.87	3.5830	3.5830	1.0556	25.93	-0.03	1.500			
0.8335	53344.71	3.5800	3.5801	0.9927	25.94	-0.02	1.500			
0.8365	53538.24	3.5770	3.5769	0.9041	25.94	-0.02	1.500			
0.8392	53707.67	3.5740	3.5741	0.8037	25.95	-0.01	1.500			
0.8414	53851.71	3.5710	3.5711	0.6926	25.95	-0.01	1.500			
0.8433	53972.31	3.5680	3.5680	0.5811	25.95	-0.01	1.500			
0.8448	54068.31	3.5650	3.5649	0.4818	25.96	-0.00	1.500			
0.8460	54145.53	3.5620	3.5621	0.4007	25.96	-0.00	1.500			
0.8471	54212.32	3.5590	3.5589	0.3417	25.96	-0.00	1.500			
0.8480	54269.20	3.5560	3.5560	0.2960	25.96	0.00	1.500			
0.8487	54317.76	3.5530	3.5529	0.2522	25.96	0.00	1.500			
0.8494	54360.87	3.5500	3.5499	0.2254	25.96	0.00	1.500			
0.8500	54399.65	3.5470	3.5470	0.2022	25.96	0.00	1.500			
0.8506	54435.49	3.5440	3.5439	0.1824	25.97	0.01	1.500			
0.8511	54468.96	3.5410	3.5411	0.1663	25.97	0.01	1.500			
0.8515	54498.79	3.5380	3.5380	0.1506	25.97	0.01	1.500			
0.8520	54526.24	3.5350	3.5351	0.1357	25.97	0.01	1.500			
0.8524	54550.75	3.5320	3.5319	0.1212	25.97	0.01	1.500			
0.8527	54572.63	3.5290	3.5291	0.1068	25.97	0.01	1.500			
0.8530	54591.68	3.5260	3.5260	0.0924	25.97	0.01	1.500			
0.8532	54607.90	3.5230	3.5230	0.0781	25.97	0.01	1.500			
0.8535	54621.55	3.5200	3.5203	0.0641	25.97	0.01	1.500			
0.8536	54632.63	3.5170	3.5175	0.0497	25.97	0.01	1.500			
0.8538	54640.81	3.5140	3.5148	0.0354	25.97	0.01	1.500			
