Ah_balance (normalized)	Ah_balance (mAh)	Voltage - fit (V)	Voltage -  interpolate (V)	dQ/dV (1/V)	Temperature (°C)	Temperature - diff (°C)	Current (C)	R_DC 0ms (mOhm)	R_DC 50ms (mOhm)	R_DC 50 ms PEC (mOhm)
0.2874	18393.02	3.9900	3.9900	0.8385	27.23	1.27	1.500			
0.2899	18552.92	3.9870	3.9870	0.8339	27.23	1.27	1.500			
0.2924	18713.25	3.9840	3.9840	0.8394	27.22	1.26	1.500			
0.2949	18875.54	3.9810	3.9810	0.8441	27.21	1.25	1.500			
0.2975	19038.66	3.9780	3.9780	0.8422	27.21	1.25	1.500			
0.3000	19200.19	3.9750	3.9750	0.8446	27.20	1.24	1.500			
0.3025	19361.68	3.9720	3.9721	0.8502	27.20	1.24	1.500			
0.3051	19524.87	3.9690	3.9689	0.8534	27.19	1.23	1.500			
0.3076	19687.99	3.9660	3.9659	0.8565	27.18	1.22	1.500			
0.3102	19853.20	3.9630	3.9630	0.8633	27.18	1.22	1.500			
0.3128	20021.36	3.9600	3.9601	0.8691	27.17	1.21	1.500			
0.3155	20189.00	3.9570	3.9570	0.8734	27.17	1.21	1.500			
0.3181	20357.35	3.9540	3.9540	0.8734	27.16	1.20	1.500			
0.3207	20525.53	3.9510	3.9510	0.8733	27.15	1.19	1.500			
0.3233	20692.35	3.9480	3.9480	0.8779	27.15	1.19	1.500			
0.3259	20860.57	3.9450	3.9451	0.8811	27.14	1.18	1.500			
0.3286	21029.42	3.9420	3.9419	0.8857	27.13	1.17	1.500			
0.3312	21199.84	3.9390	3.9390	0.8928	27.13	1.17	1.500			
0.3339	21371.84	3.9360	3.9360	0.8970	27.12	1.16	1.500			
0.3366	21545.44	3.9330	3.9330	0.9050	27.11	1.15	1.500			
0.3394	21720.27	3.9300	3.9300	0.9113	27.11	1.15	1.500			
0.3421	21894.98	3.9270	3.9270	0.9158	27.10	1.14	1.500			
0.3449	22071.91	3.9240	3.9240	0.9210	27.09	1.13	1.500			
0.3476	22248.51	3.9210	3.9210	0.9304	27.09	1.13	1.500			
0.3504	22428.08	3.9180	3.9180	0.9343	27.08	1.12	1.500			
0.3533	22608.80	3.9150	3.9150	0.9377	27.07	1.11	1.500			
0.3561	22788.80	3.9120	3.9120	0.9440	27.07	1.11	1.500			
0.3589	22970.03	3.9090	3.9091	0.9504	27.06	1.10	1.500			
0.3618	23152.39	3.9060	3.9059	0.9574	27.05	1.09	1.500			
0.3646	23337.46	3.9030	3.9030	0.9652	27.04	1.08	1.500			
0.3676	23523.32	3.9000	3.9000	0.9683	27.04	1.08	1.500			
0.3705	23711.73	3.8970	3.8970	0.9800	27.03	1.07	1.500			
0.3734	23899.86	3.8940	3.8941	0.9847	27.02	1.06	1.500			
0.3764	24086.94	3.8910	3.8910	0.9913	27.01	1.05	1.500			
0.3793	24278.23	3.8880	3.8879	1.0039	27.00	1.04	1.500			
0.3824	24471.51	3.8850	3.8851	1.0118	26.99	1.03	1.500			
0.3854	24666.65	3.8820	3.8820	1.0277	26.99	1.03	1.500			
0.3886	24867.96	3.8790	3.8790	1.0423	26.98	1.02	1.500			
0.3917	25068.58	3.8760	3.8760	1.0509	26.97	1.01	1.500			
0.3948	25270.11	3.8730	3.8729	1.0605	26.96	1.00	1.500			
0.3980	25473.88	3.8700	3.8700	1.0744	26.95	0.99	1.500			
0.4013	25681.99	3.8670	3.8670	1.0844	26.94	0.98	1.500			
0.4046	25891.21	3.8640	3.8640	1.0986	26.93	0.97	1.500			
0.4078	26102.31	3.8610	3.8611	1.1154	26.92	0.96	1.500			
0.4112	26318.79	3.8580	3.8580	1.1368	26.91	0.95	1.500			
0.4147	26539.75	3.8550	3.8549	1.1471	26.90	0.94	1.500			
0.4182	26762.42	3.8520	3.8521	1.1562	26.89	0.93	1.500			
0.4216	26984.97	3.8490	3.8491	1.1718	26.88	0.92	1.500			
0.4252	27211.13	3.8460	3.8460	1.1914	26.87	0.91	1.500			
0.4287	27438.08	3.8430	3.8429	1.2073	26.85	0.89	1.500			
0.4324	27671.63	3.8400	3.8400	1.2268	26.84	0.88	1.500			
0.4361	27909.36	3.8370	3.8370	1.2516	26.83	0.87	1.500			
0.4399	28154.47	3.8340	3.8339	1.2741	26.82	0.86	1.500			
0.4438	28402.98	3.8310	3.8310	1.2861	26.81	0.85	1.500			
0.4476	28646.78	3.8280	3.8280	1.3085	26.80	0.84	1.500			
0.4515	28896.97	3.8250	3.8251	1.3398	26.79	0.83	1.500			
0.4556	29156.54	3.8220	3.8218	1.3612	26.78	0.82	1.500			
0.4597	29422.31	3.8190	3.8190	1.3932	26.77	0.81	1.500			
0.4640	29695.55	3.8160	3.8161	1.4222	26.75	0.79	1.500			
0.4683	29973.57	3.8130	3.8130	1.4504	26.74	0.78	1.500			
0.4727	30253.08	3.8100	3.8100	1.4650	26.72	0.76	1.500			
0.4771	30532.62	3.8070	3.8071	1.4874	26.71	0.75	1.500			
0.4816	30820.96	3.8040	3.8040	1.5146	26.70	0.74	1.500			
0.4862	31117.55	3.8010	3.8010	1.5408	26.68	0.72	1.500			
0.4909	31416.43	3.7980	3.7980	1.5562	26.67	0.71	1.500			
0.4956	31715.88	3.7950	3.7950	1.5851	26.65	0.69	1.500			
0.5003	32021.68	3.7920	3.7920	1.6062	26.64	0.68	1.500			
0.5052	32331.12	3.7890	3.7889	1.6408	26.62	0.66	1.500			
0.5101	32645.74	3.7860	3.7860	1.6762	26.61	0.65	1.500			
0.5153	32976.80	3.7830	3.7829	1.7017	26.59	0.63	1.500			
0.5204	33305.76	3.7800	3.7801	1.7150	26.58	0.62	1.500	0.349	0.474	
0.5256	33635.79	3.7770	3.7770	1.7263	26.56	0.60	1.500			
0.5308	33968.96	3.7740	3.7740	1.7360	26.55	0.59	1.500			
0.5359	34300.06	3.7710	3.7710	1.7245	26.53	0.57	1.500			
0.5412	34634.07	3.7680	3.7681	1.7374	26.52	0.56	1.500			
0.5463	34966.16	3.7650	3.7650	1.7457	26.50	0.54	1.500			
0.5516	35301.58	3.7620	3.7620	1.7406	26.49	0.53	1.500			
0.5568	35635.92	3.7590	3.7591	1.7426	26.48	0.52	1.500			
0.5621	35974.59	3.7560	3.7559	1.7532	26.46	0.50	1.500			
0.5673	36307.73	3.7530	3.7530	1.7446	26.45	0.49	1.500			
0.5724	36634.66	3.7500	3.7501	1.7560	26.44	0.48	1.500			
0.5778	36976.40	3.7470	3.7470	1.7987	26.43	0.47	1.500			
0.5831	37321.06	3.7440	3.7440	1.8328	26.41	0.45	1.500			
0.5887	37679.72	3.7410	3.7410	1.8924	26.40	0.44	1.500			
0.5945	38049.66	3.7380	3.7379	1.9063	26.39	0.43	1.500			
0.6001	38407.53	3.7350	3.7352	1.9432	26.37	0.41	1.500			
0.6060	38783.86	3.7320	3.7321	1.9933	26.36	0.40	1.500			
0.6121	39176.94	3.7290	3.7290	2.0278	26.34	0.38	1.500			
0.6183	39569.13	3.7260	3.7261	2.0925	26.33	0.37	1.500			
0.6246	39975.54	3.7230	3.7230	2.1411	26.31	0.35	1.500			
0.6311	40389.15	3.7200	3.7199	2.2123	26.30	0.34	1.500			
0.6378	40821.29	3.7170	3.7171	2.2950	26.28	0.32	1.500			
0.6449	41274.00	3.7140	3.7140	2.3453	26.26	0.30	1.500			
0.6520	41731.13	3.7110	3.7110	2.3834	26.25	0.29	1.500			
0.6593	42194.94	3.7080	3.7081	2.3948	26.23	0.27	1.500			
0.6666	42660.65	3.7050	3.7050	2.3234	26.22	0.26	1.500			
0.6734	43099.70	3.7020	3.7020	2.1976	26.21	0.25	1.500			
0.6799	43511.97	3.6990	3.6989	2.0536	26.20	0.24	1.500			
0.6858	43891.43	3.6960	3.6960	1.9087	26.19	0.23	1.500			
0.6912	44237.59	3.6930	3.6930	1.7727	26.18	0.22	1.500			
0.6963	44562.36	3.6900	3.6900	1.6577	26.17	0.21	1.500			
0.7011	44868.61	3.6870	3.6870	1.5691	26.17	0.21	1.500			
0.7056	45160.36	3.6840	3.6840	1.4961	26.16	0.20	1.500			
0.7100	45439.27	3.6810	3.6810	1.4391	26.15	0.19	1.500			
0.7142	45707.10	3.6780	3.6780	1.3772	26.14	0.18	1.500			
0.7182	45965.52	3.6750	3.6749	1.3333	26.13	0.17	1.500			
0.7221	46213.82	3.6720	3.6721	1.2983	26.12	0.16	1.500			
0.7259	46455.29	3.6690	3.6690	1.2852	26.11	0.15	1.500			
0.7297	46698.53	3.6660	3.6659	1.2787	26.10	0.14	1.500			
0.7335	46941.07	3.6630	3.6630	1.2735	26.09	0.13	1.500			
0.7373	47186.30	3.6600	3.6600	1.2786	26.09	0.13	1.500			
0.7412	47437.25	3.6570	3.6570	1.2837	26.08	0.12	1.500			
0.7451	47683.47	3.6540	3.6540	1.2801	26.07	0.11	1.500			
0.7489	47927.98	3.6510	3.6510	1.2721	26.06	0.10	1.500			
0.7527	48171.46	3.6480	3.6480	1.2657	26.05	0.09	1.500			
0.7565	48414.73	3.6450	3.6451	1.2548	26.05	0.09	1.500			
0.7602	48654.87	3.6420	3.6421	1.2464	26.04	0.08	1.500			
0.7640	48893.42	3.6390	3.6390	1.2377	26.03	0.07	1.500			
0.7677	49129.85	3.6360	3.6359	1.2287	26.02	0.06	1.500			
0.7713	49363.61	3.6330	3.6330	1.2173	26.02	0.06	1.500			
0.7750	49597.26	3.6300	3.6301	1.2086	26.01	0.05	1.500			
0.7786	49829.33	3.6270	3.6270	1.2013	26.00	0.04	1.500			
0.7822	50059.93	3.6240	3.6240	1.1920	26.00	0.04	1.500			
0.7857	50286.21	3.6210	3.6210	1.1777	25.99	0.03	1.500			
0.7892	50511.66	3.6180	3.6180	1.1653	25.99	0.03	1.500			
0.7927	50735.33	3.6150	3.6150	1.1497	25.98	0.02	1.500			
0.7962	50955.63	3.6120	3.6120	1.1303	25.97	0.01	1.500			
0.7996	51172.69	3.6090	3.6090	1.1097	25.97	0.01	1.500			
0.8029	51383.03	3.6060	3.6060	1.0891	25.96	0.00	1.500			
0.8061	51589.74	3.6030	3.6030	1.0671	25.96	0.00	1.500			
0.8093	51792.79	3.6000	3.6000	1.0430	25.96	0.00	1.500			
0.8123	51990.14	3.5970	3.5971	1.0210	25.96	0.00	1.500			
0.8154	52185.71	3.5940	3.5939	0.9899	25.96	0.00	1.500			
0.8184	52376.38	3.5910	3.5909	0.9542	25.96	0.00	1.500			
0.8213	52562.10	3.5880	3.5879	0.8977	25.96	0.00	1.500			
0.8239	52730.20	3.5850	3.5851	0.8269	25.96	0.00	1.500			
0.8264	52888.43	3.5820	3.5820	0.7463	25.96	0.00	1.500			
0.8285	53023.65	3.5790	3.5790	0.6525	25.96	0.00	1.500			
0.8303	53136.95	3.5760	3.5760	0.5575	25.96	0.00	1.500			
0.8318	53233.77	3.5730	3.5730	0.4731	25.96	0.00	1.500			
0.8330	53312.48	3.5700	3.5700	0.3980	25.96	0.00	1.500			
0.8341	53380.10	3.5670	3.5669	0.3423	25.96	0.00	1.500			
0.8350	53436.81	3.5640	3.5639	0.2945	25.96	0.00	1.500			
0.8357	53486.96	3.5610	3.5610	0.2590	25.96	0.00	1.500			
0.8364	53530.55	3.5580	3.5579	0.2251	25.96	0.00	1.500			
0.8370	53570.46	3.5550	3.5548	0.2024	25.96	0.00	1.500			
0.8376	53605.19	3.5520	3.5520	0.1812	25.96	0.00	1.500			
0.8381	53638.06	3.5490	3.5491	0.1636	25.96	0.00	1.500			
0.8386	53667.67	3.5460	3.5459	0.1487	25.96	0.00	1.500			
0.8390	53694.37	3.5430	3.5430	0.1330	25.96	0.00	1.500			
0.8393	53718.23	3.5400	3.5400	0.1179	25.96	0.00	1.500			
0.8397	53739.40	3.5370	3.5370	0.1033	25.96	0.00	1.500			
0.8400	53757.85	3.5340	3.5341	0.0890	25.96	0.00	1.500			
0.8402	53774.00	3.5310	3.5311	0.0747	25.96	0.00	1.500			
0.8404	53787.03	3.5280	3.5282	0.0597	25.96	0.00	1.500			
0.8406	53797.04	3.5250	3.5255	0.0445	25.96	0.00	1.500			
0.8407	53804.14	3.5220	3.5231	0.0294	25.96	0.00	1.500			
