Ah_balance (normalized)	Ah_balance (mAh)	Voltage - fit (V)	Voltage -  interpolate (V)	dQ/dV (1/V)	Temperature (°C)	Temperature - diff (°C)	Current (C)	R_DC 0ms (mOhm)	R_DC 50ms (mOhm)	R_DC 50 ms PEC (mOhm)
0.2802	17929.92	3.9740	3.9741	0.8484	27.07	1.11	1.500			
0.2827	18094.45	3.9710	3.9710	0.8603	27.07	1.11	1.500			
0.2853	18260.75	3.9680	3.9680	0.8677	27.06	1.10	1.500			
0.2879	18427.86	3.9650	3.9650	0.8747	27.06	1.10	1.500			
0.2906	18598.12	3.9620	3.9620	0.8799	27.05	1.09	1.500			
0.2932	18766.34	3.9590	3.9590	0.8818	27.05	1.09	1.500			
0.2959	18935.90	3.9560	3.9560	0.8846	27.05	1.09	1.500			
0.2985	19105.16	3.9530	3.9530	0.8866	27.04	1.08	1.500			
0.3012	19275.90	3.9500	3.9500	0.8935	27.04	1.08	1.500			
0.3039	19447.89	3.9470	3.9470	0.8985	27.03	1.07	1.500			
0.3066	19620.82	3.9440	3.9440	0.9022	27.03	1.07	1.500			
0.3093	19795.73	3.9410	3.9410	0.9065	27.02	1.06	1.500			
0.3120	19968.80	3.9380	3.9381	0.9102	27.02	1.06	1.500			
0.3148	20144.43	3.9350	3.9349	0.9153	27.02	1.06	1.500			
0.3175	20319.85	3.9320	3.9320	0.9196	27.01	1.05	1.500			
0.3203	20496.66	3.9290	3.9290	0.9242	27.01	1.05	1.500			
0.3231	20675.52	3.9260	3.9260	0.9289	27.00	1.04	1.500			
0.3258	20854.32	3.9230	3.9230	0.9347	27.00	1.04	1.500			
0.3287	21033.78	3.9200	3.9201	0.9402	26.99	1.03	1.500			
0.3315	21214.59	3.9170	3.9170	0.9428	26.99	1.03	1.500			
0.3343	21394.75	3.9140	3.9140	0.9516	26.98	1.02	1.500			
0.3372	21578.30	3.9110	3.9110	0.9587	26.97	1.01	1.500			
0.3400	21762.90	3.9080	3.9080	0.9648	26.97	1.01	1.500			
0.3429	21948.68	3.9050	3.9050	0.9737	26.96	1.00	1.500			
0.3459	22136.83	3.9020	3.9021	0.9785	26.96	1.00	1.500			
0.3488	22325.92	3.8990	3.8988	0.9856	26.95	0.99	1.500			
0.3518	22514.95	3.8960	3.8961	0.9939	26.94	0.98	1.500			
0.3548	22705.64	3.8930	3.8930	0.9994	26.94	0.98	1.500			
0.3578	22898.64	3.8900	3.8900	1.0101	26.93	0.97	1.500			
0.3608	23092.96	3.8870	3.8869	1.0210	26.92	0.96	1.500			
0.3639	23288.93	3.8840	3.8841	1.0277	26.91	0.95	1.500			
0.3670	23488.41	3.8810	3.8810	1.0390	26.91	0.95	1.500			
0.3701	23688.32	3.8780	3.8780	1.0508	26.90	0.94	1.500			
0.3733	23890.62	3.8750	3.8750	1.0633	26.89	0.93	1.500			
0.3765	24095.78	3.8720	3.8720	1.0738	26.88	0.92	1.500			
0.3797	24302.71	3.8690	3.8690	1.0865	26.88	0.92	1.500			
0.3830	24513.22	3.8660	3.8660	1.0977	26.87	0.91	1.500			
0.3863	24725.20	3.8630	3.8630	1.1083	26.86	0.90	1.500			
0.3897	24939.13	3.8600	3.8600	1.1223	26.85	0.89	1.500			
0.3930	25154.11	3.8570	3.8570	1.1359	26.84	0.88	1.500			
0.3965	25373.54	3.8540	3.8539	1.1551	26.84	0.88	1.500			
0.3999	25596.57	3.8510	3.8511	1.1774	26.83	0.87	1.500			
0.4035	25824.34	3.8480	3.8480	1.1974	26.82	0.86	1.500			
0.4072	26058.47	3.8450	3.8450	1.2151	26.81	0.85	1.500			
0.4108	26293.65	3.8420	3.8420	1.2306	26.80	0.84	1.500			
0.4145	26530.51	3.8390	3.8391	1.2465	26.79	0.83	1.500			
0.4183	26770.05	3.8360	3.8359	1.2668	26.78	0.82	1.500			
0.4221	27013.88	3.8330	3.8330	1.2868	26.78	0.82	1.500			
0.4260	27262.36	3.8300	3.8300	1.3116	26.76	0.80	1.500			
0.4299	27516.79	3.8270	3.8270	1.3424	26.75	0.79	1.500			
0.4340	27778.85	3.8240	3.8241	1.3701	26.74	0.78	1.500			
0.4382	28041.99	3.8210	3.8210	1.3996	26.73	0.77	1.500			
0.4424	28312.99	3.8180	3.8180	1.4324	26.71	0.75	1.500			
0.4467	28589.83	3.8150	3.8151	1.4628	26.70	0.74	1.500			
0.4512	28875.59	3.8120	3.8120	1.4968	26.68	0.72	1.500			
0.4557	29167.11	3.8090	3.8091	1.5322	26.67	0.71	1.500			
0.4604	29463.92	3.8060	3.8060	1.5680	26.66	0.70	1.500			
0.4651	29767.16	3.8030	3.8030	1.6139	26.65	0.69	1.500			
0.4699	30076.76	3.8000	3.8000	1.6510	26.63	0.67	1.500			
0.4750	30399.85	3.7970	3.7970	1.7009	26.62	0.66	1.500			
0.4803	30736.76	3.7940	3.7940	1.7358	26.60	0.64	1.500			
0.4855	31074.75	3.7910	3.7910	1.7664	26.58	0.62	1.500			
0.4908	31412.61	3.7880	3.7881	1.8154	26.57	0.61	1.500			
0.4963	31762.27	3.7850	3.7849	1.8606	26.55	0.59	1.500			
0.5019	32121.89	3.7820	3.7820	1.8989	26.53	0.57	1.500			
0.5077	32495.14	3.7790	3.7791	1.9329	26.51	0.55	1.500			
0.5136	32872.06	3.7760	3.7760	1.9741	26.48	0.52	1.500			
0.5196	33252.07	3.7730	3.7730	1.9923	26.46	0.50	1.500			
0.5256	33636.45	3.7700	3.7700	2.0083	26.44	0.48	1.500			
0.5318	34033.48	3.7670	3.7671	2.0559	26.42	0.46	1.500			
0.5380	34430.31	3.7640	3.7637	2.0661	26.41	0.45	1.500	0.359	0.460	
0.5442	34825.75	3.7610	3.7611	2.0582	26.39	0.43	1.500			
0.5504	35222.81	3.7580	3.7581	2.0606	26.38	0.42	1.500			
0.5566	35619.67	3.7550	3.7550	2.0390	26.36	0.40	1.500			
0.5627	36010.97	3.7520	3.7520	2.0275	26.34	0.38	1.500			
0.5688	36400.78	3.7490	3.7490	2.0150	26.32	0.36	1.500			
0.5748	36784.78	3.7460	3.7460	1.9921	26.30	0.34	1.500			
0.5807	37163.71	3.7430	3.7430	1.9794	26.28	0.32	1.500			
0.5865	37539.13	3.7400	3.7401	1.9901	26.27	0.31	1.500			
0.5925	37922.88	3.7370	3.7370	2.0155	26.26	0.30	1.500			
0.5986	38312.08	3.7340	3.7339	2.0354	26.24	0.28	1.500			
0.6047	38702.79	3.7310	3.7311	2.0663	26.23	0.27	1.500			
0.6110	39103.84	3.7280	3.7280	2.1072	26.22	0.26	1.500			
0.6174	39510.44	3.7250	3.7250	2.1493	26.21	0.25	1.500			
0.6238	39925.12	3.7220	3.7220	2.2012	26.20	0.24	1.500			
0.6305	40355.01	3.7190	3.7190	2.2722	26.19	0.23	1.500			
0.6374	40795.96	3.7160	3.7160	2.3399	26.17	0.21	1.500			
0.6445	41250.34	3.7130	3.7131	2.4189	26.16	0.20	1.500			
0.6519	41723.35	3.7100	3.7100	2.4933	26.15	0.19	1.500			
0.6595	42209.36	3.7070	3.7070	2.5680	26.14	0.18	1.500			
0.6674	42715.10	3.7040	3.7040	2.6687	26.13	0.17	1.500			
0.6755	43234.78	3.7010	3.7010	2.7409	26.12	0.16	1.500			
0.6838	43765.93	3.6980	3.6980	2.6656	26.10	0.14	1.500			
0.6919	44281.94	3.6950	3.6950	2.5623	26.09	0.13	1.500			
0.6995	44765.13	3.6920	3.6920	2.4206	26.08	0.12	1.500			
0.7065	45213.12	3.6890	3.6890	2.2358	26.07	0.11	1.500			
0.7129	45626.19	3.6860	3.6861	2.0571	26.07	0.11	1.500			
0.7187	45998.69	3.6830	3.6830	1.8781	26.06	0.10	1.500			
0.7240	46337.54	3.6800	3.6799	1.7495	26.06	0.10	1.500			
0.7290	46654.83	3.6770	3.6770	1.6302	26.05	0.09	1.500			
0.7336	46953.33	3.6740	3.6740	1.5317	26.05	0.09	1.500			
0.7381	47236.59	3.6710	3.6709	1.4539	26.04	0.08	1.500			
0.7423	47504.68	3.6680	3.6681	1.3865	26.04	0.08	1.500			
0.7463	47764.98	3.6650	3.6650	1.3341	26.03	0.07	1.500			
0.7502	48011.21	3.6620	3.6620	1.2973	26.03	0.07	1.500			
0.7540	48254.22	3.6590	3.6590	1.2701	26.02	0.06	1.500			
0.7576	48489.57	3.6560	3.6560	1.2564	26.02	0.06	1.500			
0.7614	48730.92	3.6530	3.6530	1.2535	26.02	0.06	1.500			
0.7651	48967.80	3.6500	3.6500	1.2618	26.01	0.05	1.500			
0.7689	49211.50	3.6470	3.6469	1.2759	26.01	0.05	1.500			
0.7728	49458.06	3.6440	3.6440	1.2895	26.00	0.04	1.500			
0.7767	49706.88	3.6410	3.6411	1.2971	26.00	0.04	1.500			
0.7806	49958.99	3.6380	3.6380	1.3048	25.99	0.03	1.500			
0.7845	50210.52	3.6350	3.6350	1.3109	25.98	0.02	1.500			
0.7885	50464.35	3.6320	3.6319	1.3091	25.98	0.02	1.500			
0.7924	50714.47	3.6290	3.6290	1.3044	25.97	0.01	1.500			
0.7963	50964.62	3.6260	3.6260	1.3019	25.96	0.00	1.500			
0.8002	51214.12	3.6230	3.6230	1.3003	25.96	-0.00	1.500			
0.8041	51464.10	3.6200	3.6199	1.2973	25.95	-0.01	1.500			
0.8080	51712.51	3.6170	3.6169	1.2932	25.95	-0.01	1.500			
0.8119	51959.93	3.6140	3.6140	1.2862	25.94	-0.02	1.500			
0.8158	52208.95	3.6110	3.6110	1.2802	25.94	-0.02	1.500			
0.8196	52454.05	3.6080	3.6080	1.2718	25.94	-0.02	1.500			
0.8234	52696.93	3.6050	3.6050	1.2647	25.93	-0.03	1.500			
0.8271	52937.57	3.6020	3.6020	1.2542	25.93	-0.03	1.500			
0.8309	53178.20	3.5990	3.5990	1.2440	25.93	-0.03	1.500			
0.8346	53416.58	3.5960	3.5960	1.2355	25.93	-0.03	1.500			
0.8383	53654.38	3.5930	3.5930	1.2166	25.92	-0.04	1.500			
0.8420	53885.86	3.5900	3.5900	1.2042	25.92	-0.04	1.500			
0.8455	54114.22	3.5870	3.5871	1.1897	25.92	-0.04	1.500			
0.8491	54340.61	3.5840	3.5839	1.1808	25.92	-0.04	1.500			
0.8526	54566.28	3.5810	3.5810	1.1702	25.93	-0.03	1.500			
0.8562	54794.50	3.5780	3.5780	1.1424	25.93	-0.03	1.500			
0.8597	55018.66	3.5750	3.5750	1.1038	25.94	-0.02	1.500			
0.8631	55240.88	3.5720	3.5719	1.0265	25.94	-0.02	1.500			
0.8662	55434.29	3.5690	3.5691	0.9132	25.95	-0.01	1.500			
0.8688	55603.50	3.5660	3.5661	0.7904	25.95	-0.01	1.500			
0.8709	55739.86	3.5630	3.5630	0.6508	25.95	-0.01	1.500			
0.8725	55841.82	3.5600	3.5600	0.5267	25.96	-0.00	1.500			
0.8738	55925.81	3.5570	3.5569	0.4298	25.96	-0.00	1.500			
0.8749	55991.56	3.5540	3.5540	0.3517	25.96	0.00	1.500			
0.8758	56050.91	3.5510	3.5510	0.3044	25.96	0.00	1.500			
0.8766	56102.36	3.5480	3.5479	0.2604	25.96	0.00	1.500			
0.8773	56147.28	3.5450	3.5449	0.2309	25.97	0.01	1.500			
0.8779	56187.00	3.5420	3.5420	0.2064	25.97	0.01	1.500			
0.8785	56223.30	3.5390	3.5390	0.1871	25.97	0.01	1.500			
0.8790	56257.08	3.5360	3.5361	0.1690	25.97	0.01	1.500			
0.8795	56287.20	3.5330	3.5329	0.1535	25.97	0.01	1.500			
0.8799	56314.81	3.5300	3.5300	0.1383	25.97	0.01	1.500			
0.8803	56339.93	3.5270	3.5270	0.1239	25.97	0.01	1.500			
0.8807	56362.41	3.5240	3.5240	0.1103	25.97	0.01	1.500			
0.8810	56382.60	3.5210	3.5211	0.0971	25.97	0.01	1.500			
0.8812	56399.97	3.5180	3.5180	0.0832	25.97	0.01	1.500			
0.8815	56414.59	3.5150	3.5153	0.0691	25.97	0.01	1.500			
0.8817	56426.55	3.5120	3.5124	0.0549	25.97	0.01	1.500			
0.8818	56435.72	3.5090	3.5096	0.0407	25.97	0.01	1.500			
