Ah_balance (normalized)	Ah_balance (mAh)	Voltage - fit (V)	Voltage -  interpolate (V)	dQ/dV (1/V)	Temperature (°C)	Temperature - diff (°C)	Current (C)	R_DC 0ms (mOhm)	R_DC 50ms (mOhm)	R_DC 50 ms PEC (mOhm)
0.2002	12810.46	3.9360	3.9360	-0.1351	25.65	0.00	-0.750			
0.2006	12841.11	3.9330	3.9330	-0.1807	25.65	0.00	-0.750			
0.2012	12879.86	3.9300	3.9300	-0.2245	25.65	0.00	-0.750			
0.2020	12926.99	3.9270	3.9270	-0.2687	25.65	0.00	-0.750			
0.2029	12983.05	3.9240	3.9239	-0.3122	25.65	0.00	-0.750			
0.2039	13047.86	3.9210	3.9210	-0.3530	25.65	0.00	-0.750			
0.2050	13120.03	3.9180	3.9180	-0.3946	25.65	-0.00	-0.750			
0.2063	13200.59	3.9150	3.9151	-0.4324	25.65	-0.00	-0.750			
0.2076	13287.97	3.9120	3.9120	-0.4682	25.65	-0.00	-0.750			
0.2091	13382.39	3.9090	3.9089	-0.4992	25.65	-0.00	-0.750			
0.2106	13481.28	3.9060	3.9061	-0.5293	25.65	-0.00	-0.750			
0.2123	13586.93	3.9030	3.9030	-0.5557	25.64	-0.01	-0.750			
0.2140	13696.97	3.9000	3.9000	-0.5768	25.64	-0.01	-0.750			
0.2158	13810.39	3.8970	3.8969	-0.5937	25.64	-0.01	-0.750			
0.2176	13926.89	3.8940	3.8942	-0.6077	25.64	-0.01	-0.750			
0.2195	14045.87	3.8910	3.8910	-0.6206	25.64	-0.01	-0.750			
0.2213	14166.04	3.8880	3.8879	-0.6304	25.64	-0.01	-0.750			
0.2232	14287.02	3.8850	3.8851	-0.6394	25.64	-0.01	-0.750			
0.2252	14411.29	3.8820	3.8820	-0.6509	25.64	-0.01	-0.750			
0.2272	14538.58	3.8790	3.8789	-0.6599	25.64	-0.01	-0.750			
0.2292	14666.68	3.8760	3.8760	-0.6640	25.64	-0.01	-0.750			
0.2312	14795.52	3.8730	3.8730	-0.6683	25.64	-0.01	-0.750			
0.2332	14923.92	3.8700	3.8700	-0.6677	25.64	-0.01	-0.750			
0.2352	15051.50	3.8670	3.8670	-0.6703	25.64	-0.01	-0.750			
0.2372	15179.88	3.8640	3.8640	-0.6721	25.64	-0.01	-0.750			
0.2392	15308.94	3.8610	3.8610	-0.6767	25.64	-0.01	-0.750			
0.2412	15439.55	3.8580	3.8580	-0.6805	25.64	-0.01	-0.750			
0.2433	15571.53	3.8550	3.8550	-0.6837	25.64	-0.01	-0.750			
0.2454	15702.82	3.8520	3.8520	-0.6856	25.64	-0.01	-0.750			
0.2474	15835.01	3.8490	3.8490	-0.6875	25.64	-0.01	-0.750			
0.2495	15966.78	3.8460	3.8460	-0.6851	25.65	-0.00	-0.750			
0.2515	16098.93	3.8430	3.8430	-0.6849	25.65	-0.00	-0.750			
0.2536	16229.90	3.8400	3.8400	-0.6845	25.65	-0.00	-0.750			
0.2556	16361.04	3.8370	3.8370	-0.6874	25.65	0.00	-0.750			
0.2577	16492.63	3.8340	3.8340	-0.6886	25.65	0.00	-0.750			
0.2598	16624.30	3.8310	3.8310	-0.6917	25.65	0.00	-0.750			
0.2618	16758.14	3.8280	3.8280	-0.6927	25.66	0.01	-0.750			
0.2639	16892.25	3.8250	3.8249	-0.6936	25.66	0.01	-0.750			
0.2660	17025.96	3.8220	3.8220	-0.6930	25.66	0.01	-0.750			
0.2681	17158.47	3.8190	3.8191	-0.6921	25.66	0.01	-0.750			
0.2702	17290.77	3.8160	3.8160	-0.6889	25.66	0.01	-0.750			
0.2722	17422.92	3.8130	3.8130	-0.6905	25.66	0.01	-0.750			
0.2743	17554.71	3.8100	3.8100	-0.6868	25.66	0.01	-0.750			
0.2764	17687.00	3.8070	3.8069	-0.6874	25.66	0.01	-0.750			
0.2784	17818.33	3.8040	3.8040	-0.6899	25.66	0.01	-0.750			
0.2805	17950.90	3.8010	3.8010	-0.6904	25.66	0.01	-0.750			
0.2825	18082.88	3.7980	3.7980	-0.6921	25.66	0.01	-0.750			
0.2846	18216.34	3.7950	3.7950	-0.6970	25.67	0.02	-0.750			
0.2867	18350.22	3.7920	3.7921	-0.6963	25.67	0.02	-0.750			
0.2888	18485.40	3.7890	3.7889	-0.6983	25.67	0.02	-0.750			
0.2909	18619.45	3.7860	3.7860	-0.6988	25.68	0.03	-0.750			
0.2930	18753.65	3.7830	3.7830	-0.6968	25.68	0.03	-0.750			
0.2951	18887.02	3.7800	3.7800	-0.6983	25.68	0.03	-0.750			
0.2972	19020.17	3.7770	3.7770	-0.6999	25.68	0.03	-0.750			
0.2993	19153.80	3.7740	3.7740	-0.7010	25.68	0.03	-0.750			
0.3014	19289.04	3.7710	3.7709	-0.7071	25.68	0.03	-0.750			
0.3035	19424.57	3.7680	3.7680	-0.7117	25.68	0.03	-0.750			
0.3057	19561.73	3.7650	3.7649	-0.7159	25.68	0.03	-0.750			
0.3078	19700.93	3.7620	3.7620	-0.7199	25.68	0.03	-0.750			
0.3100	19839.05	3.7590	3.7590	-0.7226	25.68	0.03	-0.750			
0.3122	19977.64	3.7560	3.7560	-0.7255	25.68	0.03	-0.750			
0.3143	20117.53	3.7530	3.7529	-0.7303	25.68	0.03	-0.750			
0.3165	20257.21	3.7500	3.7500	-0.7320	25.68	0.03	-0.750			
0.3187	20398.26	3.7470	3.7470	-0.7371	25.68	0.03	-0.750			
0.3209	20540.04	3.7440	3.7440	-0.7448	25.68	0.03	-0.750			
0.3232	20683.51	3.7410	3.7410	-0.7523	25.68	0.03	-0.750			
0.3254	20828.12	3.7380	3.7380	-0.7583	25.68	0.03	-0.750			
0.3277	20975.53	3.7350	3.7349	-0.7618	25.68	0.03	-0.750			
0.3300	21121.76	3.7320	3.7321	-0.7706	25.68	0.03	-0.750			
0.3324	21270.43	3.7290	3.7290	-0.7782	25.68	0.03	-0.750			
0.3347	21419.69	3.7260	3.7259	-0.7892	25.68	0.03	-0.750			
0.3371	21572.40	3.7230	3.7230	-0.7935	25.67	0.02	-0.750			
0.3395	21725.82	3.7200	3.7200	-0.8035	25.67	0.02	-0.750			
0.3419	21881.35	3.7170	3.7172	-0.8140	25.67	0.02	-0.750			
0.3444	22039.29	3.7140	3.7140	-0.8267	25.67	0.02	-0.750			
0.3468	22197.23	3.7110	3.7109	-0.8347	25.67	0.02	-0.750			
0.3493	22357.75	3.7080	3.7080	-0.8458	25.66	0.01	-0.750			
0.3519	22521.87	3.7050	3.7049	-0.8605	25.66	0.01	-0.750			
0.3545	22688.65	3.7020	3.7020	-0.8754	25.66	0.01	-0.750			
0.3571	22855.65	3.6990	3.6990	-0.8930	25.66	0.01	-0.750			
0.3598	23029.94	3.6960	3.6960	-0.9074	25.65	0.00	-0.750			
0.3626	23206.36	3.6930	3.6930	-0.9242	25.65	-0.00	-0.750			
0.3654	23385.26	3.6900	3.6899	-0.9425	25.64	-0.01	-0.750			
0.3683	23568.01	3.6870	3.6871	-0.9580	25.64	-0.01	-0.750			
0.3711	23753.43	3.6840	3.6839	-0.9824	25.64	-0.01	-0.750			
0.3741	23943.97	3.6810	3.6809	-0.9994	25.63	-0.02	-0.750			
0.3771	24136.53	3.6780	3.6780	-1.0164	25.63	-0.02	-0.750			
0.3802	24334.70	3.6750	3.6752	-1.0490	25.63	-0.02	-0.750			
0.3834	24538.60	3.6720	3.6720	-1.0697	25.63	-0.02	-0.750			
0.3867	24746.26	3.6690	3.6689	-1.0903	25.62	-0.03	-0.750			
0.3899	24954.78	3.6660	3.6660	-1.1109	25.62	-0.03	-0.750			
0.3933	25173.97	3.6630	3.6630	-1.1474	25.62	-0.03	-0.750			
0.3969	25398.56	3.6600	3.6599	-1.1705	25.62	-0.03	-0.750			
0.4004	25624.16	3.6570	3.6570	-1.1941	25.61	-0.04	-0.750			
0.4039	25852.37	3.6540	3.6541	-1.2248	25.61	-0.04	-0.750			
0.4077	26094.07	3.6510	3.6509	-1.2487	25.61	-0.04	-0.750			
0.4115	26337.45	3.6480	3.6480	-1.2682	25.60	-0.05	-0.750			
0.4153	26579.79	3.6450	3.6451	-1.2949	25.60	-0.05	-0.750			
0.4192	26831.04	3.6420	3.6419	-1.3181	25.60	-0.05	-0.750			
0.4232	27087.42	3.6390	3.6389	-1.3475	25.60	-0.05	-0.750			
0.4273	27344.99	3.6360	3.6359	-1.3830	25.60	-0.05	-0.750			
0.4315	27612.86	3.6330	3.6330	-1.4111	25.60	-0.05	-0.750			
0.4358	27891.76	3.6300	3.6299	-1.4480	25.58	-0.07	-0.750			
0.4402	28174.25	3.6270	3.6270	-1.4778	25.57	-0.08	-0.750			
0.4447	28458.67	3.6240	3.6240	-1.5009	25.57	-0.08	-0.750			
0.4492	28750.49	3.6210	3.6210	-1.5392	25.56	-0.09	-0.750			
0.4538	29046.28	3.6180	3.6179	-1.5657	25.56	-0.09	-0.750			
0.4586	29348.02	3.6150	3.6150	-1.5928	25.56	-0.09	-0.750			
0.4634	29659.34	3.6120	3.6119	-1.6314	25.56	-0.09	-0.750			
0.4684	29977.48	3.6090	3.6090	-1.6593	25.56	-0.09	-0.750			
0.4734	30297.80	3.6060	3.6058	-1.6884	25.56	-0.09	-0.750			
0.4785	30626.86	3.6030	3.6031	-1.7203	25.56	-0.09	-0.750			
0.4837	30958.83	3.6000	3.6000	-1.7437	25.56	-0.09	-0.750			
0.4890	31298.65	3.5970	3.5971	-1.7788	25.56	-0.09	-0.750			
0.4944	31640.58	3.5940	3.5940	-1.8043	25.56	-0.09	-0.750			
0.4999	31991.63	3.5910	3.5910	-1.8466	25.55	-0.10	-0.750			
0.5055	32349.73	3.5880	3.5879	-1.8805	25.55	-0.10	-0.750			
0.5111	32712.35	3.5850	3.5850	-1.9194	25.56	-0.09	-0.750			
0.5170	33087.51	3.5820	3.5821	-1.9380	25.56	-0.09	-0.750			
0.5229	33465.12	3.5790	3.5790	-1.9654	25.56	-0.09	-0.750			
0.5287	33839.91	3.5760	3.5762	-1.9976	25.56	-0.09	-0.750			
0.5348	34227.67	3.5730	3.5729	-2.0061	25.56	-0.09	-0.750			
0.5409	34616.64	3.5700	3.5699	-2.0267	25.56	-0.09	-0.750	0.377	0.545	
0.5469	35001.95	3.5670	3.5672	-2.0447	25.56	-0.09	-0.750			
0.5532	35405.32	3.5640	3.5639	-2.0774	25.57	-0.08	-0.750			
0.5594	35804.27	3.5610	3.5609	-2.0781	25.57	-0.08	-0.750			
0.5657	36203.70	3.5580	3.5581	-2.0785	25.58	-0.07	-0.750			
0.5720	36607.16	3.5550	3.5550	-2.0833	25.58	-0.07	-0.750			
0.5782	37005.72	3.5520	3.5520	-2.0778	25.58	-0.07	-0.750			
0.5843	37397.52	3.5490	3.5490	-2.0634	25.58	-0.07	-0.750			
0.5906	37799.15	3.5460	3.5460	-2.0812	25.58	-0.07	-0.750			
0.5969	38201.72	3.5430	3.5430	-2.0837	25.59	-0.06	-0.750			
0.6032	38601.82	3.5400	3.5400	-2.0649	25.60	-0.05	-0.750			
0.6094	39003.10	3.5370	3.5370	-2.0482	25.60	-0.05	-0.750			
0.6155	39393.80	3.5340	3.5340	-2.0104	25.60	-0.05	-0.750			
0.6215	39774.09	3.5310	3.5310	-1.9723	25.61	-0.04	-0.750			
0.6273	40149.22	3.5280	3.5280	-1.9332	25.62	-0.03	-0.750			
0.6331	40518.72	3.5250	3.5251	-1.8889	25.62	-0.03	-0.750			
0.6387	40875.91	3.5220	3.5221	-1.8470	25.63	-0.02	-0.750			
0.6442	41228.34	3.5190	3.5190	-1.8081	25.63	-0.02	-0.750			
0.6495	41571.08	3.5160	3.5160	-1.7734	25.64	-0.01	-0.750			
0.6548	41907.24	3.5130	3.5131	-1.7336	25.64	-0.01	-0.750			
0.6599	42235.41	3.5100	3.5101	-1.6826	25.65	0.00	-0.750			
0.6649	42554.07	3.5070	3.5070	-1.6388	25.67	0.02	-0.750			
0.6698	42868.68	3.5040	3.5038	-1.5935	25.68	0.03	-0.750			
0.6745	43168.32	3.5010	3.5010	-1.5385	25.69	0.04	-0.750			
0.6790	43456.33	3.4980	3.4981	-1.4881	25.70	0.05	-0.750			
0.6834	43736.58	3.4950	3.4950	-1.4409	25.71	0.06	-0.750			
0.6876	44006.21	3.4920	3.4919	-1.3964	25.72	0.07	-0.750			
0.6918	44273.84	3.4890	3.4890	-1.3653	25.73	0.08	-0.750			
0.6958	44529.88	3.4860	3.4860	-1.3289	25.74	0.09	-0.750			
0.6998	44785.48	3.4830	3.4830	-1.2987	25.75	0.10	-0.750			
0.7036	45031.09	3.4800	3.4800	-1.2630	25.76	0.11	-0.750			
0.7073	45268.77	3.4770	3.4769	-1.2297	25.77	0.12	-0.750			
0.7110	45501.37	3.4740	3.4740	-1.2007	25.78	0.13	-0.750			
0.7145	45728.72	3.4710	3.4709	-1.1719	25.78	0.13	-0.750			
0.7180	45949.37	3.4680	3.4680	-1.1530	25.79	0.14	-0.750			
0.7214	46168.32	3.4650	3.4650	-1.1284	25.80	0.15	-0.750			
0.7247	46383.37	3.4620	3.4620	-1.1119	25.81	0.16	-0.750			
0.7280	46593.40	3.4590	3.4590	-1.1008	25.82	0.17	-0.750			
0.7313	46803.55	3.4560	3.4559	-1.0940	25.82	0.17	-0.750			
0.7346	47012.45	3.4530	3.4529	-1.0856	25.83	0.18	-0.750			
0.7378	47220.49	3.4500	3.4500	-1.0789	25.83	0.18	-0.750			
0.7410	47425.98	3.4470	3.4471	-1.0711	25.84	0.19	-0.750			
0.7443	47632.99	3.4440	3.4440	-1.0745	25.84	0.19	-0.750			
0.7475	47838.75	3.4410	3.4410	-1.0666	25.85	0.20	-0.750			
0.7507	48043.01	3.4380	3.4379	-1.0561	25.85	0.20	-0.750			
0.7538	48245.87	3.4350	3.4351	-1.0457	25.86	0.21	-0.750			
0.7570	48446.61	3.4320	3.4320	-1.0406	25.86	0.21	-0.750			
0.7601	48645.34	3.4290	3.4290	-1.0275	25.87	0.22	-0.750			
0.7631	48841.01	3.4260	3.4260	-1.0118	25.87	0.22	-0.750			
0.7661	49033.19	3.4230	3.4231	-0.9975	25.88	0.23	-0.750			
0.7691	49225.28	3.4200	3.4200	-0.9883	25.88	0.23	-0.750			
0.7721	49414.60	3.4170	3.4169	-0.9719	25.89	0.24	-0.750			
0.7750	49600.26	3.4140	3.4140	-0.9533	25.89	0.24	-0.750			
0.7778	49780.54	3.4110	3.4110	-0.9331	25.90	0.25	-0.750			
0.7806	49959.76	3.4080	3.4081	-0.9176	25.90	0.25	-0.750			
0.7834	50134.72	3.4050	3.4049	-0.8953	25.90	0.25	-0.750			
0.7860	50304.18	3.4020	3.4020	-0.8714	25.90	0.25	-0.750			
0.7886	50468.56	3.3990	3.3990	-0.8458	25.90	0.25	-0.750			
0.7911	50630.66	3.3960	3.3960	-0.8203	25.90	0.25	-0.750			
0.7935	50786.06	3.3930	3.3929	-0.7933	25.90	0.25	-0.750			
0.7959	50935.37	3.3900	3.3900	-0.7612	25.91	0.26	-0.750			
0.7981	51078.30	3.3870	3.3871	-0.7338	25.91	0.26	-0.750			
0.8003	51216.41	3.3840	3.3839	-0.7059	25.91	0.26	-0.750			
0.8023	51349.36	3.3810	3.3811	-0.6765	25.92	0.27	-0.750			
0.8043	51476.72	3.3780	3.3781	-0.6476	25.92	0.27	-0.750			
0.8062	51599.00	3.3750	3.3750	-0.6235	25.92	0.27	-0.750			
0.8080	51715.07	3.3720	3.3720	-0.5943	25.93	0.28	-0.750			
0.8098	51826.17	3.3690	3.3689	-0.5658	25.93	0.28	-0.750			
0.8114	51931.65	3.3660	3.3660	-0.5394	25.94	0.29	-0.750			
0.8130	52033.21	3.3630	3.3631	-0.5145	25.94	0.29	-0.750			
0.8145	52129.54	3.3600	3.3600	-0.4902	25.94	0.29	-0.750			
0.8160	52221.17	3.3570	3.3570	-0.4668	25.95	0.30	-0.750			
0.8173	52307.51	3.3540	3.3540	-0.4448	25.95	0.30	-0.750			
0.8186	52389.99	3.3510	3.3510	-0.4255	25.95	0.30	-0.750			
0.8198	52469.75	3.3480	3.3480	-0.4092	25.96	0.31	-0.750			
0.8210	52546.10	3.3450	3.3449	-0.3920	25.96	0.31	-0.750			
0.8222	52620.05	3.3420	3.3420	-0.3774	25.96	0.31	-0.750			
0.8233	52690.94	3.3390	3.3390	-0.3634	25.97	0.32	-0.750			
0.8244	52759.19	3.3360	3.3360	-0.3492	25.97	0.32	-0.750			
0.8254	52824.90	3.3330	3.3329	-0.3362	25.97	0.32	-0.750			
0.8264	52887.28	3.3300	3.3300	-0.3244	25.97	0.32	-0.750			
0.8273	52948.42	3.3270	3.3269	-0.3139	25.97	0.32	-0.750			
0.8282	53007.70	3.3240	3.3240	-0.3036	25.98	0.33	-0.750			
0.8291	53064.92	3.3210	3.3210	-0.2946	25.98	0.33	-0.750			
0.8300	53120.40	3.3180	3.3181	-0.2854	25.98	0.33	-0.750			
0.8309	53174.58	3.3150	3.3150	-0.2778	25.99	0.34	-0.750			
0.8317	53226.44	3.3120	3.3119	-0.2704	25.99	0.34	-0.750			
0.8325	53277.59	3.3090	3.3090	-0.2626	25.99	0.34	-0.750			
0.8332	53327.15	3.3060	3.3061	-0.2568	26.00	0.35	-0.750			
0.8340	53376.05	3.3030	3.3030	-0.2508	26.00	0.35	-0.750			
0.8347	53423.52	3.3000	3.3000	-0.2453	26.01	0.36	-0.750			
0.8355	53469.88	3.2970	3.2970	-0.2395	26.01	0.36	-0.750			
0.8362	53515.16	3.2940	3.2940	-0.2336	26.01	0.36	-0.750			
0.8369	53559.44	3.2910	3.2910	-0.2292	26.02	0.37	-0.750			
0.8375	53603.00	3.2880	3.2880	-0.2238	26.02	0.37	-0.750			
0.8382	53645.81	3.2850	3.2850	-0.2190	26.02	0.37	-0.750			
0.8389	53686.88	3.2820	3.2820	-0.2149	26.03	0.38	-0.750			
0.8395	53727.75	3.2790	3.2791	-0.2114	26.03	0.38	-0.750			
0.8401	53767.73	3.2760	3.2759	-0.2074	26.03	0.38	-0.750			
0.8407	53807.24	3.2730	3.2730	-0.2042	26.03	0.38	-0.750			
0.8413	53846.12	3.2700	3.2700	-0.2011	26.04	0.39	-0.750			
0.8419	53884.25	3.2670	3.2670	-0.1980	26.04	0.39	-0.750			
0.8425	53922.15	3.2640	3.2640	-0.1959	26.04	0.39	-0.750			
0.8431	53959.48	3.2610	3.2610	-0.1929	26.05	0.40	-0.750			
0.8437	53995.99	3.2580	3.2580	-0.1897	26.05	0.40	-0.750			
0.8443	54032.21	3.2550	3.2549	-0.1872	26.06	0.41	-0.750			
0.8448	54067.96	3.2520	3.2520	-0.1846	26.06	0.41	-0.750			
0.8454	54103.11	3.2490	3.2491	-0.1821	26.06	0.41	-0.750			
0.8459	54137.85	3.2460	3.2460	-0.1793	26.07	0.42	-0.750			
0.8464	54171.82	3.2430	3.2429	-0.1771	26.07	0.42	-0.750			
0.8470	54205.46	3.2400	3.2400	-0.1747	26.08	0.43	-0.750			
0.8475	54238.80	3.2370	3.2371	-0.1732	26.08	0.43	-0.750			
0.8480	54271.85	3.2340	3.2339	-0.1716	26.08	0.43	-0.750			
0.8485	54304.80	3.2310	3.2310	-0.1694	26.09	0.44	-0.750			
0.8490	54337.13	3.2280	3.2280	-0.1674	26.09	0.44	-0.750			
0.8495	54369.19	3.2250	3.2250	-0.1654	26.09	0.44	-0.750			
0.8500	54400.81	3.2220	3.2221	-0.1638	26.10	0.45	-0.750			
0.8505	54431.84	3.2190	3.2190	-0.1616	26.10	0.45	-0.750			
0.8510	54462.70	3.2160	3.2159	-0.1599	26.11	0.46	-0.750			
0.8515	54493.10	3.2130	3.2130	-0.1582	26.11	0.46	-0.750			
0.8519	54523.31	3.2100	3.2100	-0.1565	26.11	0.46	-0.750			
0.8524	54553.47	3.2070	3.2070	-0.1553	26.12	0.47	-0.750			
0.8529	54583.09	3.2040	3.2040	-0.1532	26.12	0.47	-0.750			
0.8533	54612.22	3.2010	3.2010	-0.1520	26.12	0.47	-0.750			
0.8538	54641.11	3.1980	3.1980	-0.1503	26.13	0.48	-0.750			
0.8542	54669.80	3.1950	3.1950	-0.1490	26.13	0.48	-0.750			
0.8547	54698.31	3.1920	3.1919	-0.1477	26.13	0.48	-0.750			
0.8551	54726.43	3.1890	3.1890	-0.1467	26.14	0.49	-0.750			
0.8555	54754.68	3.1860	3.1860	-0.1454	26.14	0.49	-0.750			
0.8560	54782.58	3.1830	3.1830	-0.1442	26.14	0.49	-0.750			
0.8564	54810.04	3.1800	3.1800	-0.1429	26.15	0.50	-0.750			
0.8568	54837.18	3.1770	3.1770	-0.1416	26.15	0.50	-0.750			
0.8573	54864.32	3.1740	3.1739	-0.1406	26.15	0.50	-0.750			
0.8577	54891.20	3.1710	3.1710	-0.1394	26.16	0.51	-0.750			
0.8581	54917.84	3.1680	3.1680	-0.1383	26.16	0.51	-0.750			
0.8585	54944.24	3.1650	3.1650	-0.1369	26.16	0.51	-0.750			
0.8589	54970.54	3.1620	3.1620	-0.1362	26.17	0.52	-0.750			
0.8593	54996.57	3.1590	3.1591	-0.1349	26.17	0.52	-0.750			
0.8597	55022.33	3.1560	3.1560	-0.1331	26.17	0.52	-0.750			
0.8601	55047.63	3.1530	3.1530	-0.1320	26.18	0.53	-0.750			
0.8605	55072.76	3.1500	3.1500	-0.1311	26.18	0.53	-0.750			
0.8609	55097.84	3.1470	3.1471	-0.1302	26.18	0.53	-0.750			
0.8613	55122.68	3.1440	3.1439	-0.1293	26.19	0.54	-0.750			
0.8617	55147.51	3.1410	3.1409	-0.1283	26.19	0.54	-0.750			
0.8621	55172.05	3.1380	3.1380	-0.1274	26.19	0.54	-0.750			
0.8624	55196.44	3.1350	3.1351	-0.1265	26.20	0.55	-0.750			
0.8628	55220.89	3.1320	3.1320	-0.1257	26.20	0.55	-0.750			
0.8632	55244.82	3.1290	3.1290	-0.1244	26.20	0.55	-0.750			
0.8636	55268.54	3.1260	3.1260	-0.1231	26.21	0.56	-0.750			
0.8639	55291.99	3.1230	3.1230	-0.1225	26.21	0.56	-0.750			
0.8643	55315.35	3.1200	3.1200	-0.1216	26.21	0.56	-0.750			
0.8647	55338.69	3.1170	3.1169	-0.1207	26.21	0.56	-0.750			
0.8650	55361.83	3.1140	3.1140	-0.1199	26.22	0.57	-0.750			
0.8654	55384.62	3.1110	3.1110	-0.1193	26.22	0.57	-0.750			
0.8657	55407.47	3.1080	3.1081	-0.1188	26.22	0.57	-0.750			
0.8661	55430.53	3.1050	3.1050	-0.1177	26.23	0.58	-0.750			
0.8665	55452.91	3.1020	3.1019	-0.1166	26.23	0.58	-0.750			
0.8668	55475.16	3.0990	3.0990	-0.1154	26.22	0.57	-0.750			
0.8671	55497.12	3.0960	3.0961	-0.1145	26.22	0.57	-0.750			
0.8675	55519.02	3.0930	3.0929	-0.1137	26.23	0.58	-0.750			
0.8678	55540.65	3.0900	3.0901	-0.1130	26.23	0.58	-0.750			
0.8682	55562.02	3.0870	3.0870	-0.1119	26.24	0.59	-0.750			
0.8685	55583.62	3.0840	3.0840	-0.1115	26.24	0.59	-0.750			
0.8688	55605.15	3.0810	3.0810	-0.1114	26.24	0.59	-0.750			
0.8692	55626.47	3.0780	3.0781	-0.1107	26.25	0.60	-0.750			
0.8695	55647.78	3.0750	3.0750	-0.1096	26.25	0.60	-0.750			
0.8698	55668.72	3.0720	3.0720	-0.1085	26.26	0.61	-0.750			
0.8701	55689.47	3.0690	3.0690	-0.1079	26.26	0.61	-0.750			
0.8705	55710.09	3.0660	3.0660	-0.1069	26.26	0.61	-0.750			
0.8708	55730.34	3.0630	3.0630	-0.1062	26.27	0.62	-0.750			
0.8711	55750.68	3.0600	3.0600	-0.1057	26.27	0.62	-0.750			
0.8714	55770.94	3.0570	3.0570	-0.1048	26.28	0.63	-0.750			
0.8717	55791.00	3.0540	3.0540	-0.1042	26.28	0.63	-0.750			
0.8720	55811.12	3.0510	3.0510	-0.1036	26.28	0.63	-0.750			
0.8724	55830.92	3.0480	3.0481	-0.1027	26.29	0.64	-0.750			
0.8727	55850.40	3.0450	3.0450	-0.1022	26.29	0.64	-0.750			
0.8730	55869.97	3.0420	3.0420	-0.1017	26.30	0.65	-0.750			
0.8733	55889.38	3.0390	3.0390	-0.1008	26.30	0.65	-0.750			
0.8736	55908.68	3.0360	3.0359	-0.1003	26.30	0.65	-0.750			
0.8739	55928.02	3.0330	3.0331	-0.0998	26.31	0.66	-0.750			
0.8742	55947.11	3.0300	3.0300	-0.0991	26.31	0.66	-0.750			
0.8745	55966.13	3.0270	3.0270	-0.0984	26.32	0.67	-0.750			
0.8748	55984.95	3.0240	3.0239	-0.0976	26.32	0.67	-0.750			
0.8751	56003.43	3.0210	3.0210	-0.0969	26.32	0.67	-0.750			
0.8753	56021.98	3.0180	3.0180	-0.0964	26.33	0.68	-0.750			
0.8756	56040.50	3.0150	3.0150	-0.0958	26.33	0.68	-0.750			
0.8759	56058.83	3.0120	3.0120	-0.0952	26.33	0.68	-0.750			
0.8762	56077.07	3.0090	3.0090	-0.0946	26.34	0.69	-0.750			
0.8765	56095.17	3.0060	3.0060	-0.0939	26.34	0.69	-0.750			
0.8768	56113.14	3.0030	3.0029	-0.0921	26.34	0.69	-0.750			
