Ah_balance (normalized)	Ah_balance (mAh)	Voltage - fit (V)	Voltage -  interpolate (V)	dQ/dV (1/V)	Temperature (°C)	Temperature - diff (°C)	Current (C)	R_DC 0ms (mOhm)	R_DC 50ms (mOhm)	R_DC 50 ms PEC (mOhm)
0.2032	13001.60	3.9240	3.9237	-0.1131	25.70	-0.02	-1.500			
0.2035	13026.67	3.9210	3.9209	-0.1429	25.70	-0.02	-1.500			
0.2040	13057.13	3.9180	3.9179	-0.1700	25.70	-0.02	-1.500			
0.2046	13092.34	3.9150	3.9151	-0.1965	25.70	-0.02	-1.500			
0.2052	13132.58	3.9120	3.9120	-0.2233	25.70	-0.02	-1.500			
0.2059	13178.78	3.9090	3.9090	-0.2485	25.70	-0.02	-1.500			
0.2067	13228.52	3.9060	3.9060	-0.2742	25.70	-0.02	-1.500			
0.2076	13283.84	3.9030	3.9030	-0.2980	25.71	-0.01	-1.500			
0.2085	13343.69	3.9000	3.9000	-0.3211	25.71	-0.01	-1.500			
0.2095	13407.42	3.8970	3.8970	-0.3470	25.71	-0.01	-1.500			
0.2106	13476.58	3.8940	3.8940	-0.3707	25.71	-0.01	-1.500			
0.2117	13550.22	3.8910	3.8910	-0.3924	25.71	-0.01	-1.500			
0.2129	13627.53	3.8880	3.8880	-0.4168	25.71	-0.01	-1.500			
0.2142	13710.08	3.8850	3.8851	-0.4377	25.72	-0.00	-1.500			
0.2156	13796.87	3.8820	3.8820	-0.4593	25.72	-0.00	-1.500			
0.2170	13886.80	3.8790	3.8790	-0.4815	25.72	0.00	-1.500			
0.2185	13980.83	3.8760	3.8762	-0.5014	25.72	0.00	-1.500			
0.2200	14079.99	3.8730	3.8729	-0.5227	25.73	0.01	-1.500			
0.2216	14182.92	3.8700	3.8699	-0.5407	25.73	0.01	-1.500			
0.2233	14289.14	3.8670	3.8670	-0.5539	25.73	0.01	-1.500			
0.2250	14398.53	3.8640	3.8640	-0.5694	25.73	0.01	-1.500			
0.2267	14508.20	3.8610	3.8610	-0.5808	25.74	0.02	-1.500			
0.2284	14619.45	3.8580	3.8581	-0.5922	25.74	0.02	-1.500			
0.2302	14734.90	3.8550	3.8549	-0.6014	25.74	0.02	-1.500			
0.2321	14851.76	3.8520	3.8520	-0.6113	25.75	0.03	-1.500			
0.2339	14969.94	3.8490	3.8491	-0.6198	25.75	0.03	-1.500			
0.2358	15090.05	3.8460	3.8458	-0.6295	25.75	0.03	-1.500			
0.2377	15212.64	3.8430	3.8430	-0.6333	25.75	0.03	-1.500			
0.2396	15334.42	3.8400	3.8399	-0.6388	25.76	0.04	-1.500			
0.2415	15457.68	3.8370	3.8371	-0.6436	25.76	0.04	-1.500			
0.2435	15582.97	3.8340	3.8340	-0.6495	25.76	0.04	-1.500			
0.2454	15706.98	3.8310	3.8309	-0.6546	25.77	0.05	-1.500			
0.2474	15833.09	3.8280	3.8280	-0.6586	25.77	0.05	-1.500			
0.2494	15959.83	3.8250	3.8250	-0.6603	25.77	0.05	-1.500			
0.2514	16087.86	3.8220	3.8220	-0.6644	25.78	0.06	-1.500			
0.2534	16215.56	3.8190	3.8191	-0.6649	25.78	0.06	-1.500			
0.2554	16343.55	3.8160	3.8160	-0.6668	25.78	0.06	-1.500			
0.2574	16471.44	3.8130	3.8130	-0.6665	25.79	0.07	-1.500			
0.2594	16598.90	3.8100	3.8100	-0.6670	25.79	0.07	-1.500			
0.2614	16727.73	3.8070	3.8070	-0.6686	25.79	0.07	-1.500			
0.2634	16856.38	3.8040	3.8040	-0.6696	25.80	0.08	-1.500			
0.2654	16984.83	3.8010	3.8010	-0.6672	25.80	0.08	-1.500			
0.2674	17112.58	3.7980	3.7980	-0.6672	25.80	0.08	-1.500			
0.2694	17240.09	3.7950	3.7950	-0.6689	25.81	0.09	-1.500			
0.2714	17368.14	3.7920	3.7919	-0.6737	25.82	0.10	-1.500			
0.2734	17498.10	3.7890	3.7890	-0.6740	25.82	0.10	-1.500			
0.2754	17628.46	3.7860	3.7861	-0.6759	25.83	0.11	-1.500			
0.2775	17759.22	3.7830	3.7830	-0.6781	25.84	0.12	-1.500			
0.2795	17890.03	3.7800	3.7800	-0.6789	25.84	0.12	-1.500			
0.2816	18019.27	3.7770	3.7770	-0.6764	25.85	0.13	-1.500			
0.2836	18148.52	3.7740	3.7740	-0.6761	25.85	0.13	-1.500			
0.2856	18278.20	3.7710	3.7710	-0.6773	25.86	0.14	-1.500			
0.2876	18408.66	3.7680	3.7680	-0.6833	25.87	0.15	-1.500			
0.2897	18540.13	3.7650	3.7649	-0.6861	25.87	0.15	-1.500			
0.2918	18672.49	3.7620	3.7620	-0.6868	25.88	0.16	-1.500			
0.2938	18804.72	3.7590	3.7590	-0.6894	25.89	0.17	-1.500			
0.2959	18937.43	3.7560	3.7561	-0.6922	25.89	0.17	-1.500			
0.2980	19070.70	3.7530	3.7530	-0.6931	25.90	0.18	-1.500			
0.3001	19203.43	3.7500	3.7499	-0.6981	25.91	0.19	-1.500			
0.3021	19336.99	3.7470	3.7470	-0.7008	25.91	0.19	-1.500			
0.3043	19472.22	3.7440	3.7440	-0.7042	25.92	0.20	-1.500			
0.3064	19607.63	3.7410	3.7410	-0.7103	25.93	0.21	-1.500			
0.3085	19743.83	3.7380	3.7381	-0.7160	25.93	0.21	-1.500			
0.3107	19882.25	3.7350	3.7350	-0.7205	25.94	0.22	-1.500			
0.3128	20021.94	3.7320	3.7320	-0.7247	25.95	0.23	-1.500			
0.3150	20161.17	3.7290	3.7290	-0.7275	25.96	0.24	-1.500			
0.3172	20301.57	3.7260	3.7260	-0.7328	25.96	0.24	-1.500			
0.3194	20442.22	3.7230	3.7231	-0.7391	25.97	0.25	-1.500			
0.3216	20583.25	3.7200	3.7200	-0.7421	25.98	0.26	-1.500			
0.3239	20726.59	3.7170	3.7170	-0.7483	25.98	0.26	-1.500			
0.3261	20871.97	3.7140	3.7140	-0.7583	25.99	0.27	-1.500			
0.3284	21018.06	3.7110	3.7110	-0.7660	26.00	0.28	-1.500			
0.3307	21165.53	3.7080	3.7081	-0.7719	26.01	0.29	-1.500			
0.3330	21314.38	3.7050	3.7049	-0.7776	26.01	0.29	-1.500			
0.3354	21463.70	3.7020	3.7020	-0.7843	26.02	0.30	-1.500			
0.3377	21614.01	3.6990	3.6991	-0.7950	26.03	0.31	-1.500			
0.3401	21767.71	3.6960	3.6960	-0.8056	26.04	0.32	-1.500			
0.3426	21923.91	3.6930	3.6929	-0.8170	26.04	0.32	-1.500			
0.3450	22081.86	3.6900	3.6900	-0.8287	26.05	0.33	-1.500			
0.3475	22241.64	3.6870	3.6871	-0.8426	26.05	0.33	-1.500			
0.3501	22405.17	3.6840	3.6839	-0.8547	26.06	0.34	-1.500			
0.3527	22570.49	3.6810	3.6809	-0.8640	26.07	0.35	-1.500			
0.3552	22735.93	3.6780	3.6781	-0.8733	26.07	0.35	-1.500			
0.3579	22905.70	3.6750	3.6750	-0.8865	26.08	0.36	-1.500			
0.3606	23077.89	3.6720	3.6720	-0.8988	26.09	0.37	-1.500			
0.3633	23251.09	3.6690	3.6690	-0.9095	26.09	0.37	-1.500			
0.3660	23426.14	3.6660	3.6661	-0.9179	26.10	0.38	-1.500			
0.3688	23603.33	3.6630	3.6630	-0.9333	26.10	0.38	-1.500			
0.3716	23782.44	3.6600	3.6600	-0.9498	26.11	0.39	-1.500			
0.3745	23966.61	3.6570	3.6570	-0.9627	26.11	0.39	-1.500			
0.3774	24152.63	3.6540	3.6539	-0.9790	26.12	0.40	-1.500			
0.3803	24342.32	3.6510	3.6511	-0.9967	26.12	0.40	-1.500			
0.3834	24536.48	3.6480	3.6480	-1.0086	26.13	0.41	-1.500			
0.3865	24732.94	3.6450	3.6449	-1.0198	26.13	0.41	-1.500			
0.3895	24928.63	3.6420	3.6420	-1.0298	26.14	0.42	-1.500			
0.3926	25125.60	3.6390	3.6390	-1.0411	26.14	0.42	-1.500			
0.3957	25326.71	3.6360	3.6360	-1.0606	26.15	0.43	-1.500			
0.3989	25529.75	3.6330	3.6330	-1.0783	26.15	0.43	-1.500			
0.4022	25738.05	3.6300	3.6300	-1.0995	26.16	0.44	-1.500			
0.4055	25954.75	3.6270	3.6270	-1.1250	26.16	0.44	-1.500			
0.4090	26173.75	3.6240	3.6240	-1.1462	26.17	0.45	-1.500			
0.4124	26396.02	3.6210	3.6211	-1.1570	26.17	0.45	-1.500			
0.4160	26621.00	3.6180	3.6180	-1.1684	26.18	0.46	-1.500			
0.4195	26845.67	3.6150	3.6150	-1.1791	26.18	0.46	-1.500			
0.4230	27070.41	3.6120	3.6120	-1.1898	26.19	0.47	-1.500			
0.4266	27299.24	3.6090	3.6090	-1.2070	26.19	0.47	-1.500			
0.4302	27532.87	3.6060	3.6060	-1.2327	26.19	0.47	-1.500			
0.4340	27774.28	3.6030	3.6030	-1.2467	26.19	0.47	-1.500			
0.4377	28015.75	3.6000	3.6000	-1.2683	26.20	0.48	-1.500			
0.4416	28261.40	3.5970	3.5972	-1.2863	26.20	0.48	-1.500			
0.4455	28509.53	3.5940	3.5940	-1.3012	26.20	0.48	-1.500			
0.4494	28760.59	3.5910	3.5909	-1.3127	26.21	0.49	-1.500			
0.4533	29013.05	3.5880	3.5880	-1.3326	26.21	0.49	-1.500			
0.4574	29271.57	3.5850	3.5850	-1.3518	26.21	0.49	-1.500			
0.4614	29532.46	3.5820	3.5820	-1.3703	26.22	0.50	-1.500			
0.4656	29795.97	3.5790	3.5790	-1.3821	26.22	0.50	-1.500			
0.4697	30063.68	3.5760	3.5760	-1.4020	26.22	0.50	-1.500			
0.4740	30334.65	3.5730	3.5730	-1.4176	26.23	0.51	-1.500			
0.4782	30608.00	3.5700	3.5701	-1.4465	26.23	0.51	-1.500			
0.4826	30888.30	3.5670	3.5670	-1.4609	26.23	0.51	-1.500			
0.4871	31173.34	3.5640	3.5639	-1.4840	26.24	0.52	-1.500			
0.4916	31459.57	3.5610	3.5612	-1.4989	26.24	0.52	-1.500			
0.4961	31749.04	3.5580	3.5580	-1.5197	26.24	0.52	-1.500			
0.5007	32042.30	3.5550	3.5550	-1.5379	26.25	0.53	-1.500			
0.5053	32338.11	3.5520	3.5519	-1.5524	26.25	0.53	-1.500			
0.5100	32640.12	3.5490	3.5490	-1.5663	26.25	0.53	-1.500			
0.5147	32942.58	3.5460	3.5460	-1.5781	26.26	0.54	-1.500			
0.5195	33244.99	3.5430	3.5430	-1.5966	26.26	0.54	-1.500			
0.5242	33550.82	3.5400	3.5399	-1.6234	26.27	0.55	-1.500			
0.5291	33863.75	3.5370	3.5370	-1.6334	26.27	0.55	-1.500			
0.5341	34181.48	3.5340	3.5339	-1.6457	26.27	0.55	-1.500			
0.5391	34504.44	3.5310	3.5311	-1.6633	26.28	0.56	-1.500	0.382	0.525	
0.5441	34825.25	3.5280	3.5280	-1.6753	26.28	0.56	-1.500			
0.5491	35145.24	3.5250	3.5249	-1.6803	26.29	0.57	-1.500			
0.5541	35464.92	3.5220	3.5220	-1.6913	26.30	0.58	-1.500			
0.5592	35789.32	3.5190	3.5190	-1.7043	26.31	0.59	-1.500			
0.5644	36123.07	3.5160	3.5160	-1.7164	26.32	0.60	-1.500			
0.5696	36454.51	3.5130	3.5130	-1.7225	26.33	0.61	-1.500			
0.5748	36784.67	3.5100	3.5100	-1.7252	26.33	0.61	-1.500			
0.5799	37116.34	3.5070	3.5069	-1.7319	26.34	0.62	-1.500			
0.5852	37451.16	3.5040	3.5039	-1.7328	26.35	0.63	-1.500			
0.5904	37783.75	3.5010	3.5010	-1.7344	26.36	0.64	-1.500			
0.5956	38118.74	3.4980	3.4980	-1.7296	26.37	0.65	-1.500			
0.6008	38449.00	3.4950	3.4950	-1.7333	26.38	0.66	-1.500			
0.6059	38780.37	3.4920	3.4920	-1.7315	26.38	0.66	-1.500			
0.6112	39115.56	3.4890	3.4889	-1.7264	26.39	0.67	-1.500			
0.6163	39446.03	3.4860	3.4861	-1.7209	26.40	0.68	-1.500			
0.6215	39776.70	3.4830	3.4830	-1.7125	26.41	0.69	-1.500			
0.6266	40104.99	3.4800	3.4799	-1.6988	26.42	0.70	-1.500			
0.6317	40429.25	3.4770	3.4770	-1.6813	26.44	0.72	-1.500			
0.6368	40753.49	3.4740	3.4740	-1.6695	26.45	0.73	-1.500			
0.6418	41073.79	3.4710	3.4711	-1.6518	26.46	0.74	-1.500			
0.6467	41389.12	3.4680	3.4680	-1.6304	26.47	0.75	-1.500			
0.6515	41697.89	3.4650	3.4650	-1.6160	26.49	0.77	-1.500			
0.6563	42006.25	3.4620	3.4620	-1.6015	26.50	0.78	-1.500			
0.6612	42315.76	3.4590	3.4589	-1.5852	26.52	0.80	-1.500			
0.6659	42617.14	3.4560	3.4561	-1.5609	26.53	0.81	-1.500			
0.6706	42917.97	3.4530	3.4530	-1.5424	26.55	0.83	-1.500			
0.6752	43212.18	3.4500	3.4500	-1.5091	26.56	0.84	-1.500			
0.6797	43498.70	3.4470	3.4469	-1.4932	26.58	0.86	-1.500			
0.6841	43782.16	3.4440	3.4440	-1.4697	26.59	0.87	-1.500			
0.6885	44063.55	3.4410	3.4409	-1.4506	26.61	0.89	-1.500			
0.6928	44340.53	3.4380	3.4381	-1.4303	26.63	0.91	-1.500			
0.6971	44612.64	3.4350	3.4350	-1.4131	26.64	0.92	-1.500			
0.7013	44880.30	3.4320	3.4320	-1.4026	26.66	0.94	-1.500			
0.7054	45146.16	3.4290	3.4290	-1.3719	26.67	0.95	-1.500			
0.7096	45413.41	3.4260	3.4260	-1.3738	26.69	0.97	-1.500			
0.7137	45676.62	3.4230	3.4230	-1.3564	26.70	0.98	-1.500			
0.7177	45935.87	3.4200	3.4201	-1.3387	26.72	1.00	-1.500			
0.7217	46191.52	3.4170	3.4169	-1.3202	26.73	1.01	-1.500			
0.7257	46441.70	3.4140	3.4140	-1.3026	26.75	1.03	-1.500			
0.7295	46689.52	3.4110	3.4110	-1.2820	26.77	1.05	-1.500			
0.7334	46938.30	3.4080	3.4080	-1.2625	26.79	1.07	-1.500			
0.7372	47179.66	3.4050	3.4049	-1.2304	26.80	1.08	-1.500			
0.7408	47414.19	3.4020	3.4020	-1.2003	26.82	1.10	-1.500			
0.7444	47641.17	3.3990	3.3989	-1.1661	26.83	1.11	-1.500			
0.7478	47861.40	3.3960	3.3959	-1.1264	26.85	1.13	-1.500			
0.7511	48071.66	3.3930	3.3930	-1.0886	26.87	1.15	-1.500			
0.7544	48278.59	3.3900	3.3901	-1.0534	26.88	1.16	-1.500			
0.7575	48480.13	3.3870	3.3870	-1.0245	26.89	1.17	-1.500			
0.7605	48673.20	3.3840	3.3840	-0.9839	26.91	1.19	-1.500			
0.7634	48857.75	3.3810	3.3811	-0.9458	26.92	1.20	-1.500			
0.7662	49035.98	3.3780	3.3782	-0.9088	26.93	1.21	-1.500			
0.7689	49206.82	3.3750	3.3750	-0.8782	26.94	1.22	-1.500			
0.7714	49370.69	3.3720	3.3720	-0.8446	26.95	1.23	-1.500			
0.7739	49528.74	3.3690	3.3690	-0.8171	26.97	1.25	-1.500			
0.7763	49681.77	3.3660	3.3660	-0.7898	26.98	1.26	-1.500			
0.7786	49832.62	3.3630	3.3630	-0.7673	26.99	1.27	-1.500			
0.7809	49977.07	3.3600	3.3600	-0.7437	27.00	1.28	-1.500			
0.7831	50117.61	3.3570	3.3570	-0.7223	27.01	1.29	-1.500			
0.7852	50253.80	3.3540	3.3540	-0.6977	27.02	1.30	-1.500			
0.7873	50385.48	3.3510	3.3510	-0.6761	27.03	1.31	-1.500			
0.7893	50513.07	3.3480	3.3480	-0.6545	27.03	1.31	-1.500			
0.7912	50636.85	3.3450	3.3449	-0.6345	27.04	1.32	-1.500			
0.7931	50756.00	3.3420	3.3420	-0.6156	27.05	1.33	-1.500			
0.7949	50871.61	3.3390	3.3390	-0.5959	27.06	1.34	-1.500			
0.7966	50984.40	3.3360	3.3360	-0.5775	27.06	1.34	-1.500			
0.7983	51093.87	3.3330	3.3330	-0.5624	27.07	1.35	-1.500			
0.8000	51199.87	3.3300	3.3300	-0.5446	27.08	1.36	-1.500			
0.8016	51302.48	3.3270	3.3270	-0.5307	27.09	1.37	-1.500			
0.8032	51402.50	3.3240	3.3240	-0.5160	27.09	1.37	-1.500			
0.8047	51500.29	3.3210	3.3210	-0.5025	27.10	1.38	-1.500			
0.8062	51595.66	3.3180	3.3179	-0.4899	27.11	1.39	-1.500			
0.8076	51688.39	3.3150	3.3150	-0.4774	27.11	1.39	-1.500			
0.8090	51778.23	3.3120	3.3120	-0.4650	27.12	1.40	-1.500			
0.8104	51866.78	3.3090	3.3090	-0.4539	27.13	1.41	-1.500			
0.8118	51952.28	3.3060	3.3060	-0.4414	27.13	1.41	-1.500			
0.8131	52036.46	3.3030	3.3030	-0.4313	27.14	1.42	-1.500			
0.8144	52118.47	3.3000	3.3000	-0.4202	27.14	1.42	-1.500			
0.8156	52197.70	3.2970	3.2970	-0.4094	27.15	1.43	-1.500			
0.8168	52274.78	3.2940	3.2940	-0.3982	27.15	1.43	-1.500			
0.8180	52350.54	3.2910	3.2910	-0.3868	27.16	1.44	-1.500			
0.8191	52423.46	3.2880	3.2880	-0.3786	27.17	1.45	-1.500			
0.8202	52495.00	3.2850	3.2850	-0.3694	27.17	1.45	-1.500			
0.8213	52565.02	3.2820	3.2820	-0.3602	27.18	1.46	-1.500			
0.8224	52633.22	3.2790	3.2789	-0.3532	27.19	1.47	-1.500			
0.8234	52699.86	3.2760	3.2761	-0.3461	27.19	1.47	-1.500			
0.8245	52765.78	3.2730	3.2729	-0.3402	27.20	1.48	-1.500			
0.8255	52830.89	3.2700	3.2700	-0.3328	27.21	1.49	-1.500			
0.8265	52893.78	3.2670	3.2670	-0.3231	27.21	1.49	-1.500			
0.8274	52955.46	3.2640	3.2641	-0.3175	27.22	1.50	-1.500			
0.8284	53015.70	3.2610	3.2609	-0.3109	27.22	1.50	-1.500			
0.8293	53073.88	3.2580	3.2580	-0.3033	27.23	1.51	-1.500			
0.8302	53131.36	3.2550	3.2550	-0.2991	27.24	1.52	-1.500			
0.8311	53188.13	3.2520	3.2520	-0.2942	27.24	1.52	-1.500			
0.8319	53244.51	3.2490	3.2488	-0.2903	27.25	1.53	-1.500			
0.8328	53300.21	3.2460	3.2460	-0.2842	27.25	1.53	-1.500			
0.8337	53354.24	3.2430	3.2430	-0.2767	27.25	1.53	-1.500			
0.8345	53406.95	3.2400	3.2400	-0.2707	27.26	1.54	-1.500			
0.8353	53458.41	3.2370	3.2370	-0.2644	27.26	1.54	-1.500			
0.8360	53507.11	3.2340	3.2340	-0.2588	27.27	1.55	-1.500			
0.8368	53556.19	3.2310	3.2309	-0.2554	27.27	1.55	-1.500			
0.8376	53604.51	3.2280	3.2280	-0.2522	27.27	1.55	-1.500			
0.8383	53653.04	3.2250	3.2250	-0.2494	27.28	1.56	-1.500			
0.8391	53700.75	3.2220	3.2221	-0.2467	27.28	1.56	-1.500			
0.8398	53748.46	3.2190	3.2190	-0.2434	27.28	1.56	-1.500			
0.8405	53794.84	3.2160	3.2160	-0.2391	27.29	1.57	-1.500			
0.8413	53840.07	3.2130	3.2129	-0.2356	27.29	1.57	-1.500			
0.8419	53884.71	3.2100	3.2101	-0.2322	27.30	1.58	-1.500			
0.8426	53929.19	3.2070	3.2069	-0.2284	27.30	1.58	-1.500			
0.8433	53972.71	3.2040	3.2039	-0.2249	27.31	1.59	-1.500			
0.8440	54015.42	3.2010	3.2011	-0.2228	27.31	1.59	-1.500			
0.8447	54057.78	3.1980	3.1980	-0.2195	27.32	1.60	-1.500			
0.8453	54099.91	3.1950	3.1949	-0.2175	27.32	1.60	-1.500			
0.8460	54141.38	3.1920	3.1920	-0.2145	27.33	1.61	-1.500			
0.8466	54182.08	3.1890	3.1890	-0.2110	27.33	1.61	-1.500			
0.8472	54222.23	3.1860	3.1860	-0.2089	27.34	1.62	-1.500			
0.8478	54262.31	3.1830	3.1830	-0.2071	27.35	1.63	-1.500			
0.8485	54301.80	3.1800	3.1800	-0.2043	27.35	1.63	-1.500			
0.8491	54340.37	3.1770	3.1769	-0.2010	27.36	1.64	-1.500			
0.8497	54378.75	3.1740	3.1740	-0.1996	27.36	1.64	-1.500			
0.8503	54416.82	3.1710	3.1711	-0.1976	27.37	1.65	-1.500			
0.8509	54454.59	3.1680	3.1679	-0.1958	27.37	1.65	-1.500			
0.8514	54492.07	3.1650	3.1649	-0.1942	27.38	1.66	-1.500			
0.8520	54529.28	3.1620	3.1620	-0.1911	27.38	1.66	-1.500			
0.8526	54565.78	3.1590	3.1591	-0.1897	27.39	1.67	-1.500			
0.8532	54601.98	3.1560	3.1560	-0.1874	27.39	1.67	-1.500			
0.8537	54637.71	3.1530	3.1531	-0.1863	27.40	1.68	-1.500			
0.8543	54672.92	3.1500	3.1499	-0.1843	27.40	1.68	-1.500			
0.8548	54708.36	3.1470	3.1469	-0.1827	27.41	1.69	-1.500			
0.8554	54743.31	3.1440	3.1441	-0.1814	27.41	1.69	-1.500			
0.8559	54778.07	3.1410	3.1410	-0.1798	27.42	1.70	-1.500			
0.8564	54812.66	3.1380	3.1381	-0.1795	27.42	1.70	-1.500			
0.8570	54846.75	3.1350	3.1349	-0.1773	27.43	1.71	-1.500			
0.8575	54880.66	3.1320	3.1320	-0.1760	27.43	1.71	-1.500			
0.8580	54914.25	3.1290	3.1290	-0.1739	27.44	1.72	-1.500			
0.8586	54947.61	3.1260	3.1260	-0.1727	27.44	1.72	-1.500			
0.8591	54980.94	3.1230	3.1230	-0.1714	27.45	1.73	-1.500			
0.8596	55013.62	3.1200	3.1200	-0.1690	27.45	1.73	-1.500			
0.8601	55045.69	3.1170	3.1170	-0.1677	27.46	1.74	-1.500			
0.8606	55077.36	3.1140	3.1140	-0.1660	27.46	1.74	-1.500			
0.8611	55109.31	3.1110	3.1110	-0.1649	27.47	1.75	-1.500			
0.8616	55140.86	3.1080	3.1079	-0.1637	27.47	1.75	-1.500			
0.8621	55172.26	3.1050	3.1050	-0.1625	27.48	1.76	-1.500			
0.8625	55203.18	3.1020	3.1020	-0.1615	27.48	1.76	-1.500			
0.8630	55234.18	3.0990	3.0989	-0.1608	27.49	1.77	-1.500			
0.8635	55264.95	3.0960	3.0960	-0.1597	27.49	1.77	-1.500			
0.8640	55295.40	3.0930	3.0930	-0.1578	27.50	1.78	-1.500			
0.8645	55325.57	3.0900	3.0900	-0.1569	27.50	1.78	-1.500			
0.8649	55355.72	3.0870	3.0870	-0.1561	27.51	1.79	-1.500			
0.8654	55385.55	3.0840	3.0841	-0.1547	27.51	1.79	-1.500			
0.8659	55415.00	3.0810	3.0809	-0.1537	27.51	1.79	-1.500			
0.8663	55444.38	3.0780	3.0780	-0.1521	27.52	1.80	-1.500			
0.8668	55473.53	3.0750	3.0750	-0.1511	27.52	1.80	-1.500			
0.8672	55502.31	3.0720	3.0720	-0.1507	27.53	1.81	-1.500			
0.8677	55531.42	3.0690	3.0690	-0.1495	27.54	1.82	-1.500			
0.8681	55559.76	3.0660	3.0660	-0.1484	27.54	1.82	-1.500			
0.8686	55588.17	3.0630	3.0629	-0.1476	27.55	1.83	-1.500			
0.8690	55616.35	3.0600	3.0601	-0.1474	27.55	1.83	-1.500			
0.8694	55644.55	3.0570	3.0569	-0.1465	27.56	1.84	-1.500			
0.8699	55672.84	3.0540	3.0540	-0.1461	27.56	1.84	-1.500			
0.8703	55700.81	3.0510	3.0510	-0.1452	27.57	1.85	-1.500			
0.8708	55728.59	3.0480	3.0481	-0.1436	27.57	1.85	-1.500			
0.8712	55756.28	3.0450	3.0449	-0.1433	27.58	1.86	-1.500			
0.8716	55783.39	3.0420	3.0420	-0.1419	27.58	1.86	-1.500			
0.8720	55810.57	3.0390	3.0390	-0.1412	27.59	1.87	-1.500			
0.8725	55837.43	3.0360	3.0359	-0.1402	27.59	1.87	-1.500			
0.8729	55864.44	3.0330	3.0331	-0.1393	27.60	1.88	-1.500			
0.8733	55891.16	3.0300	3.0300	-0.1385	27.60	1.88	-1.500			
0.8737	55917.68	3.0270	3.0270	-0.1373	27.61	1.89	-1.500			
0.8741	55944.01	3.0240	3.0240	-0.1368	27.61	1.89	-1.500			
0.8745	55969.95	3.0210	3.0210	-0.1354	27.62	1.90	-1.500			
0.8749	55995.85	3.0180	3.0180	-0.1342	27.62	1.90	-1.500			
0.8753	56021.60	3.0150	3.0150	-0.1332	27.63	1.91	-1.500			
0.8757	56047.12	3.0120	3.0119	-0.1322	27.63	1.91	-1.500			
0.8761	56072.55	3.0090	3.0091	-0.1310	27.64	1.92	-1.500			
0.8765	56097.56	3.0060	3.0061	-0.1295	27.64	1.92	-1.500			
0.8769	56122.21	3.0030	3.0030	-0.1263	27.65	1.93	-1.501			
