Ah_balance (normalized)	Ah_balance (mAh)	Voltage - fit (V)	Voltage -  interpolate (V)	dQ/dV (1/V)	Temperature (°C)	Temperature - diff (°C)	Current (C)	R_DC 0ms (mOhm)	R_DC 50ms (mOhm)	R_DC 50 ms PEC (mOhm)
0.2858	18288.94	3.9910	3.9910	0.8022	27.35	1.38	1.500			
0.2882	18446.70	3.9880	3.9879	0.8281	27.34	1.37	1.500			
0.2907	18606.35	3.9850	3.9850	0.8331	27.33	1.36	1.500			
0.2932	18766.62	3.9820	3.9820	0.8380	27.33	1.36	1.500			
0.2958	18929.13	3.9790	3.9790	0.8438	27.32	1.35	1.500			
0.2983	19090.60	3.9760	3.9760	0.8425	27.31	1.34	1.500			
0.3008	19253.61	3.9730	3.9730	0.8473	27.30	1.33	1.500			
0.3034	19415.18	3.9700	3.9700	0.8482	27.30	1.33	1.500			
0.3059	19578.98	3.9670	3.9670	0.8542	27.29	1.32	1.500			
0.3085	19742.59	3.9640	3.9640	0.8592	27.28	1.31	1.500			
0.3111	19908.27	3.9610	3.9609	0.8624	27.28	1.31	1.500			
0.3137	20074.83	3.9580	3.9581	0.8685	27.27	1.30	1.500			
0.3163	20242.31	3.9550	3.9550	0.8740	27.26	1.29	1.500			
0.3189	20411.17	3.9520	3.9520	0.8762	27.26	1.29	1.500			
0.3216	20579.99	3.9490	3.9490	0.8777	27.25	1.28	1.500			
0.3242	20747.28	3.9460	3.9460	0.8817	27.25	1.28	1.500			
0.3268	20915.71	3.9430	3.9430	0.8907	27.24	1.27	1.500			
0.3295	21087.81	3.9400	3.9400	0.8963	27.24	1.27	1.500			
0.3322	21259.94	3.9370	3.9370	0.9023	27.23	1.26	1.500			
0.3349	21435.58	3.9340	3.9340	0.9078	27.23	1.26	1.500			
0.3377	21610.85	3.9310	3.9310	0.9114	27.22	1.25	1.500			
0.3404	21786.51	3.9280	3.9280	0.9130	27.21	1.24	1.500			
0.3431	21960.22	3.9250	3.9250	0.9152	27.21	1.24	1.500			
0.3459	22134.63	3.9220	3.9219	0.9165	27.20	1.23	1.500			
0.3486	22311.28	3.9190	3.9191	0.9244	27.19	1.22	1.500			
0.3514	22489.19	3.9160	3.9160	0.9350	27.19	1.22	1.500			
0.3542	22671.72	3.9130	3.9130	0.9419	27.18	1.21	1.500			
0.3571	22851.42	3.9100	3.9100	0.9531	27.17	1.20	1.500			
0.3599	23035.75	3.9070	3.9070	0.9585	27.17	1.20	1.500			
0.3628	23220.85	3.9040	3.9039	0.9628	27.16	1.19	1.500			
0.3657	23405.83	3.9010	3.9010	0.9710	27.15	1.18	1.500			
0.3686	23591.85	3.8980	3.8982	0.9808	27.14	1.17	1.500			
0.3716	23781.70	3.8950	3.8950	0.9900	27.14	1.17	1.500			
0.3746	23972.25	3.8920	3.8919	0.9967	27.13	1.16	1.500			
0.3776	24164.81	3.8890	3.8891	1.0016	27.12	1.15	1.500			
0.3806	24359.37	3.8860	3.8860	1.0178	27.11	1.14	1.500			
0.3837	24554.68	3.8830	3.8829	1.0284	27.10	1.13	1.500			
0.3867	24751.53	3.8800	3.8801	1.0386	27.09	1.12	1.500			
0.3899	24952.83	3.8770	3.8770	1.0497	27.08	1.11	1.500			
0.3931	25157.56	3.8740	3.8741	1.0644	27.07	1.10	1.500			
0.3963	25363.13	3.8710	3.8709	1.0749	27.06	1.09	1.500			
0.3995	25570.92	3.8680	3.8680	1.0850	27.05	1.08	1.500			
0.4028	25778.06	3.8650	3.8650	1.0907	27.04	1.07	1.500			
0.4060	25987.18	3.8620	3.8620	1.1022	27.03	1.06	1.500			
0.4094	26200.19	3.8590	3.8590	1.1151	27.02	1.05	1.500			
0.4127	26415.71	3.8560	3.8558	1.1338	27.01	1.04	1.500			
0.4162	26634.79	3.8530	3.8531	1.1500	27.00	1.03	1.500			
0.4196	26857.35	3.8500	3.8500	1.1677	26.99	1.02	1.500			
0.4232	27084.12	3.8470	3.8470	1.1864	26.98	1.01	1.500			
0.4268	27312.34	3.8440	3.8440	1.1956	26.97	1.00	1.500			
0.4304	27544.28	3.8410	3.8410	1.2196	26.95	0.98	1.500			
0.4341	27779.61	3.8380	3.8380	1.2400	26.94	0.97	1.500			
0.4378	28018.91	3.8350	3.8349	1.2585	26.93	0.96	1.500			
0.4416	28263.00	3.8320	3.8320	1.2784	26.92	0.95	1.500			
0.4455	28509.88	3.8290	3.8291	1.3024	26.91	0.94	1.500			
0.4494	28764.13	3.8260	3.8259	1.3201	26.89	0.92	1.500			
0.4534	29018.67	3.8230	3.8230	1.3385	26.88	0.91	1.500			
0.4574	29276.21	3.8200	3.8200	1.3591	26.87	0.90	1.500			
0.4615	29538.04	3.8170	3.8170	1.3842	26.86	0.89	1.500			
0.4657	29806.65	3.8140	3.8140	1.4097	26.84	0.87	1.500			
0.4700	30078.79	3.8110	3.8110	1.4362	26.83	0.86	1.500			
0.4743	30357.86	3.8080	3.8080	1.4509	26.81	0.84	1.500			
0.4788	30641.08	3.8050	3.8050	1.4870	26.80	0.83	1.500			
0.4833	30928.03	3.8020	3.8020	1.5082	26.79	0.82	1.500			
0.4878	31219.62	3.7990	3.7988	1.5316	26.77	0.80	1.500			
0.4924	31516.47	3.7960	3.7960	1.5526	26.75	0.78	1.500			
0.4972	31818.11	3.7930	3.7930	1.5784	26.74	0.77	1.500			
0.5019	32122.98	3.7900	3.7900	1.6126	26.72	0.75	1.500			
0.5068	32433.93	3.7870	3.7868	1.6400	26.70	0.73	1.500	0.347	0.482	
0.5118	32755.18	3.7840	3.7839	1.6549	26.68	0.71	1.500			
0.5168	33075.07	3.7810	3.7811	1.6683	26.67	0.70	1.500			
0.5218	33397.50	3.7780	3.7781	1.6714	26.66	0.69	1.500			
0.5268	33715.94	3.7750	3.7750	1.6727	26.64	0.67	1.500			
0.5318	34034.87	3.7720	3.7719	1.6717	26.63	0.66	1.500			
0.5368	34357.89	3.7690	3.7690	1.6736	26.61	0.64	1.500			
0.5419	34680.16	3.7660	3.7660	1.6943	26.60	0.63	1.500			
0.5470	35006.21	3.7630	3.7630	1.7062	26.59	0.62	1.500			
0.5521	35331.84	3.7600	3.7599	1.7134	26.57	0.60	1.500			
0.5572	35659.89	3.7570	3.7572	1.7400	26.56	0.59	1.500			
0.5625	35998.84	3.7540	3.7538	1.7560	26.54	0.57	1.500			
0.5678	36337.78	3.7510	3.7511	1.7639	26.53	0.56	1.500			
0.5731	36678.24	3.7480	3.7480	1.7864	26.51	0.54	1.500			
0.5785	37021.46	3.7450	3.7450	1.8216	26.49	0.52	1.500			
0.5838	37365.88	3.7420	3.7420	1.8526	26.47	0.50	1.500			
0.5895	37730.56	3.7390	3.7390	1.9024	26.46	0.49	1.500			
0.5954	38103.65	3.7360	3.7360	1.9465	26.44	0.47	1.500			
0.6012	38479.53	3.7330	3.7331	1.9828	26.42	0.45	1.500			
0.6072	38860.22	3.7300	3.7300	2.0234	26.40	0.43	1.500			
0.6133	39252.57	3.7270	3.7269	2.0878	26.38	0.41	1.500			
0.6197	39661.14	3.7240	3.7240	2.1651	26.36	0.39	1.500			
0.6263	40082.02	3.7210	3.7210	2.2245	26.35	0.38	1.500			
0.6331	40519.29	3.7180	3.7180	2.2748	26.33	0.36	1.500			
0.6400	40961.39	3.7150	3.7150	2.2966	26.31	0.34	1.500			
0.6469	41403.40	3.7120	3.7120	2.2941	26.29	0.32	1.500			
0.6539	41848.51	3.7090	3.7090	2.2362	26.27	0.30	1.500			
0.6605	42272.94	3.7060	3.7060	2.1417	26.25	0.28	1.500			
0.6668	42675.60	3.7030	3.7030	2.0239	26.23	0.26	1.500			
0.6727	43051.88	3.7000	3.7000	1.8910	26.22	0.25	1.500			
0.6781	43395.80	3.6970	3.6970	1.7581	26.20	0.23	1.500			
0.6831	43718.24	3.6940	3.6941	1.6442	26.19	0.22	1.500			
0.6878	44020.70	3.6910	3.6908	1.5628	26.18	0.21	1.500			
0.6924	44311.36	3.6880	3.6879	1.4862	26.17	0.20	1.500			
0.6967	44587.76	3.6850	3.6850	1.4222	26.16	0.19	1.500			
0.7008	44852.83	3.6820	3.6821	1.3739	26.15	0.18	1.500			
0.7049	45111.62	3.6790	3.6790	1.3349	26.14	0.17	1.500			
0.7087	45357.20	3.6760	3.6760	1.2980	26.13	0.16	1.500			
0.7125	45603.15	3.6730	3.6729	1.2806	26.12	0.15	1.500			
0.7163	45844.22	3.6700	3.6700	1.2700	26.11	0.14	1.500			
0.7201	46088.89	3.6670	3.6671	1.2655	26.10	0.13	1.500			
0.7239	46331.99	3.6640	3.6639	1.2566	26.09	0.12	1.500			
0.7277	46571.15	3.6610	3.6610	1.2551	26.08	0.11	1.500			
0.7314	46811.60	3.6580	3.6581	1.2464	26.07	0.10	1.500			
0.7352	47050.43	3.6550	3.6550	1.2415	26.06	0.09	1.500			
0.7389	47289.15	3.6520	3.6520	1.2370	26.05	0.08	1.500			
0.7426	47526.49	3.6490	3.6491	1.2273	26.04	0.07	1.500			
0.7463	47762.53	3.6460	3.6460	1.2220	26.03	0.06	1.500			
0.7499	47995.93	3.6430	3.6430	1.2120	26.03	0.06	1.500			
0.7535	48226.65	3.6400	3.6400	1.1974	26.02	0.05	1.500			
0.7571	48457.11	3.6370	3.6370	1.1922	26.01	0.04	1.500			
0.7607	48684.04	3.6340	3.6340	1.1802	26.00	0.03	1.500			
0.7642	48910.20	3.6310	3.6310	1.1695	26.00	0.03	1.500			
0.7677	49134.27	3.6280	3.6280	1.1594	25.99	0.02	1.500			
0.7712	49356.24	3.6250	3.6250	1.1462	25.99	0.02	1.500			
0.7746	49576.11	3.6220	3.6220	1.1311	25.98	0.01	1.500			
0.7780	49793.61	3.6190	3.6189	1.1119	25.98	0.01	1.500			
0.7813	50005.79	3.6160	3.6160	1.0861	25.97	0.00	1.500			
0.7846	50212.09	3.6130	3.6130	1.0618	25.97	-0.00	1.500			
0.7877	50413.04	3.6100	3.6100	1.0359	25.96	-0.01	1.500			
0.7908	50609.28	3.6070	3.6070	1.0077	25.96	-0.01	1.500			
0.7937	50799.66	3.6040	3.6039	0.9815	25.96	-0.01	1.500			
0.7967	50986.15	3.6010	3.6010	0.9556	25.96	-0.01	1.500			
0.7995	51169.33	3.5980	3.5980	0.9223	25.96	-0.01	1.500			
0.8023	51345.36	3.5950	3.5949	0.8804	25.97	-0.00	1.500			
0.8049	51515.62	3.5920	3.5920	0.8254	25.97	-0.00	1.500			
0.8074	51670.84	3.5890	3.5890	0.7598	25.97	-0.00	1.500			
0.8096	51813.42	3.5860	3.5861	0.6858	25.97	-0.00	1.500			
0.8115	51936.98	3.5830	3.5830	0.6008	25.97	-0.00	1.500			
0.8132	52042.46	3.5800	3.5801	0.5171	25.97	0.00	1.500			
0.8146	52132.25	3.5770	3.5771	0.4409	25.97	0.00	1.500			
0.8157	52206.16	3.5740	3.5740	0.3753	25.97	0.00	1.500			
0.8167	52269.41	3.5710	3.5709	0.3231	25.97	0.00	1.500			
0.8175	52322.99	3.5680	3.5679	0.2799	25.97	0.00	1.500			
0.8183	52369.70	3.5650	3.5649	0.2412	25.97	0.00	1.500			
0.8189	52411.26	3.5620	3.5619	0.2155	25.97	0.00	1.500			
0.8195	52448.39	3.5590	3.5590	0.1920	25.97	0.00	1.500			
0.8201	52483.63	3.5560	3.5560	0.1741	25.97	0.00	1.500			
0.8205	52514.96	3.5530	3.5530	0.1578	25.97	0.00	1.500			
0.8210	52543.30	3.5500	3.5500	0.1405	25.97	0.00	1.500			
0.8214	52567.98	3.5470	3.5470	0.1244	25.97	0.00	1.500			
0.8217	52590.27	3.5440	3.5441	0.1090	25.97	0.00	1.500			
0.8220	52609.80	3.5410	3.5411	0.0944	25.97	0.00	1.500			
0.8223	52626.41	3.5380	3.5381	0.0798	25.97	0.00	1.500			
0.8225	52640.48	3.5350	3.5353	0.0654	25.97	0.00	1.500			
0.8227	52651.64	3.5320	3.5326	0.0508	25.97	0.00	1.500			
0.8228	52659.99	3.5290	3.5300	0.0362	25.97	0.00	1.500			
0.8229	52665.53	3.5260	3.5277	0.0215	25.97	0.00	1.500			
