Ah_balance (normalized)	Ah_balance (mAh)	Voltage - fit (V)	Voltage -  interpolate (V)	dQ/dV (1/V)	Temperature (°C)	Temperature - diff (°C)	Current (C)	R_DC 0ms (mOhm)	R_DC 50ms (mOhm)	R_DC 50 ms PEC (mOhm)
0.2800	17919.94	3.9700	3.9700	0.8694	27.10	1.12	1.500			
0.2826	18088.91	3.9670	3.9670	0.8837	27.09	1.11	1.500			
0.2853	18259.19	3.9640	3.9640	0.8873	27.09	1.11	1.500			
0.2880	18429.66	3.9610	3.9611	0.8923	27.09	1.11	1.500			
0.2907	18601.93	3.9580	3.9580	0.8980	27.08	1.10	1.500			
0.2934	18774.42	3.9550	3.9549	0.9010	27.08	1.10	1.500			
0.2961	18947.28	3.9520	3.9521	0.9088	27.08	1.10	1.500			
0.2988	19122.79	3.9490	3.9490	0.9141	27.07	1.09	1.500			
0.3016	19299.60	3.9460	3.9460	0.9149	27.07	1.09	1.500			
0.3043	19475.92	3.9430	3.9430	0.9181	27.07	1.09	1.500			
0.3071	19651.46	3.9400	3.9401	0.9203	27.06	1.08	1.500			
0.3098	19827.96	3.9370	3.9369	0.9233	27.06	1.08	1.500			
0.3126	20005.05	3.9340	3.9340	0.9278	27.06	1.08	1.500			
0.3153	20181.57	3.9310	3.9311	0.9318	27.06	1.08	1.500			
0.3182	20362.79	3.9280	3.9279	0.9400	27.05	1.07	1.500			
0.3210	20545.87	3.9250	3.9251	0.9515	27.05	1.07	1.500			
0.3239	20728.09	3.9220	3.9220	0.9584	27.05	1.07	1.500			
0.3268	20913.21	3.9190	3.9190	0.9607	27.05	1.07	1.500			
0.3297	21098.15	3.9160	3.9160	0.9682	27.05	1.07	1.500			
0.3325	21282.62	3.9130	3.9130	0.9765	27.04	1.06	1.500			
0.3355	21470.27	3.9100	3.9099	0.9855	27.04	1.06	1.500			
0.3385	21660.95	3.9070	3.9070	0.9948	27.04	1.06	1.500			
0.3414	21851.73	3.9040	3.9040	1.0013	27.03	1.05	1.500			
0.3445	22045.34	3.9010	3.9009	1.0130	27.03	1.05	1.500			
0.3475	22242.35	3.8980	3.8981	1.0186	27.03	1.05	1.500			
0.3506	22439.88	3.8950	3.8949	1.0171	27.02	1.04	1.500			
0.3536	22632.84	3.8920	3.8921	1.0291	27.02	1.04	1.500			
0.3567	22831.07	3.8890	3.8890	1.0429	27.02	1.04	1.500			
0.3599	23032.23	3.8860	3.8859	1.0502	27.01	1.03	1.500			
0.3630	23234.00	3.8830	3.8830	1.0624	27.01	1.03	1.500			
0.3662	23438.63	3.8800	3.8801	1.0767	27.00	1.02	1.500			
0.3695	23647.65	3.8770	3.8770	1.0954	27.00	1.02	1.500			
0.3728	23859.86	3.8740	3.8739	1.1030	27.00	1.02	1.500			
0.3761	24072.90	3.8710	3.8710	1.1068	26.99	1.01	1.500			
0.3795	24287.30	3.8680	3.8680	1.1188	26.99	1.01	1.500			
0.3829	24502.86	3.8650	3.8651	1.1331	26.98	1.00	1.500			
0.3862	24718.55	3.8620	3.8618	1.1411	26.98	1.00	1.500			
0.3896	24937.00	3.8590	3.8590	1.1632	26.97	0.99	1.500			
0.3932	25162.25	3.8560	3.8560	1.1888	26.97	0.99	1.500			
0.3968	25395.73	3.8530	3.8529	1.2093	26.96	0.98	1.500			
0.4005	25629.27	3.8500	3.8500	1.2300	26.96	0.98	1.500			
0.4042	25869.27	3.8470	3.8471	1.2537	26.95	0.97	1.500			
0.4080	26111.18	3.8440	3.8441	1.2757	26.94	0.96	1.500			
0.4119	26358.82	3.8410	3.8410	1.2939	26.94	0.96	1.500			
0.4158	26608.86	3.8380	3.8380	1.3120	26.93	0.95	1.500			
0.4197	26861.19	3.8350	3.8350	1.3374	26.92	0.94	1.500			
0.4238	27120.91	3.8320	3.8321	1.3619	26.91	0.93	1.500			
0.4279	27382.84	3.8290	3.8289	1.3866	26.91	0.93	1.500			
0.4321	27652.03	3.8260	3.8260	1.4154	26.90	0.92	1.500			
0.4363	27924.86	3.8230	3.8231	1.4451	26.89	0.91	1.500			
0.4407	28205.10	3.8200	3.8200	1.4883	26.88	0.90	1.500			
0.4453	28496.40	3.8170	3.8169	1.5204	26.87	0.89	1.500			
0.4498	28790.24	3.8140	3.8140	1.5512	26.86	0.88	1.500			
0.4546	29091.88	3.8110	3.8111	1.5889	26.85	0.87	1.500			
0.4594	29399.15	3.8080	3.8081	1.6249	26.83	0.85	1.500			
0.4643	29713.86	3.8050	3.8049	1.6668	26.82	0.84	1.500			
0.4693	30037.78	3.8020	3.8020	1.7006	26.81	0.83	1.500			
0.4745	30364.91	3.7990	3.7990	1.7601	26.80	0.82	1.500			
0.4798	30709.78	3.7960	3.7960	1.8189	26.78	0.80	1.500			
0.4854	31062.84	3.7930	3.7929	1.8670	26.77	0.79	1.500			
0.4911	31427.32	3.7900	3.7901	1.9381	26.76	0.78	1.500			
0.4970	31806.08	3.7870	3.7870	1.9896	26.74	0.76	1.500			
0.5031	32196.37	3.7840	3.7839	2.0395	26.72	0.74	1.500			
0.5092	32587.04	3.7810	3.7810	2.0884	26.71	0.73	1.500			
0.5155	32994.57	3.7780	3.7780	2.1425	26.69	0.71	1.500			
0.5220	33410.40	3.7750	3.7749	2.1934	26.66	0.68	1.500			
0.5287	33836.40	3.7720	3.7721	2.2494	26.64	0.66	1.500			
0.5355	34271.51	3.7690	3.7689	2.3016	26.62	0.64	1.500			
0.5425	34720.50	3.7660	3.7661	2.3531	26.60	0.62	1.500			
0.5497	35182.63	3.7630	3.7630	2.4006	26.58	0.60	1.500			
0.5570	35644.97	3.7600	3.7599	2.4225	26.55	0.57	1.500	0.367	0.447	
0.5643	36116.17	3.7570	3.7571	2.4415	26.53	0.55	1.500			
0.5717	36586.32	3.7540	3.7539	2.3923	26.51	0.53	1.500			
0.5788	37043.24	3.7510	3.7511	2.3459	26.48	0.50	1.500			
0.5858	37489.48	3.7480	3.7478	2.3023	26.46	0.48	1.500			
0.5926	37927.56	3.7450	3.7450	2.2385	26.45	0.47	1.500			
0.5993	38354.82	3.7420	3.7421	2.2210	26.44	0.46	1.500			
0.6058	38772.65	3.7390	3.7391	2.2008	26.43	0.45	1.500			
0.6124	39192.64	3.7360	3.7359	2.2033	26.42	0.44	1.500			
0.6191	39621.98	3.7330	3.7330	2.1967	26.40	0.42	1.500			
0.6256	40041.11	3.7300	3.7300	2.2485	26.38	0.40	1.500			
0.6323	40468.12	3.7270	3.7271	2.2478	26.37	0.39	1.500			
0.6391	40904.37	3.7240	3.7241	2.2877	26.35	0.37	1.500			
0.6460	41343.02	3.7210	3.7211	2.3062	26.34	0.36	1.500			
0.6530	41793.58	3.7180	3.7180	2.3791	26.32	0.34	1.500			
0.6601	42244.13	3.7150	3.7149	2.4460	26.30	0.32	1.500			
0.6675	42719.96	3.7120	3.7121	2.5645	26.29	0.31	1.500			
0.6754	43226.03	3.7090	3.7090	2.5903	26.28	0.30	1.500			
0.6832	43722.35	3.7060	3.7061	2.7346	26.26	0.28	1.500			
0.6915	44257.81	3.7030	3.7029	2.9163	26.25	0.27	1.500			
0.7004	44828.18	3.7000	3.7003	2.9601	26.24	0.26	1.500			
0.7098	45425.52	3.6970	3.6969	3.0372	26.22	0.24	1.500			
0.7186	45988.73	3.6940	3.6940	2.8457	26.21	0.23	1.500			
0.7271	46536.18	3.6910	3.6911	2.7713	26.20	0.22	1.500			
0.7354	47064.00	3.6880	3.6878	2.5999	26.19	0.21	1.500			
0.7429	47542.42	3.6850	3.6851	2.3804	26.18	0.20	1.500			
0.7496	47974.25	3.6820	3.6820	2.1630	26.17	0.19	1.500			
0.7557	48364.99	3.6790	3.6790	1.9636	26.17	0.19	1.500			
0.7611	48709.97	3.6760	3.6758	1.7892	26.16	0.18	1.500			
0.7662	49034.63	3.6730	3.6730	1.6683	26.15	0.17	1.500			
0.7710	49341.52	3.6700	3.6699	1.5614	26.14	0.16	1.500			
0.7754	49627.29	3.6670	3.6670	1.4633	26.14	0.16	1.500			
0.7796	49895.30	3.6640	3.6641	1.3906	26.13	0.15	1.500			
0.7837	50156.41	3.6610	3.6611	1.3323	26.12	0.14	1.500			
0.7875	50402.34	3.6580	3.6579	1.2857	26.12	0.14	1.500			
0.7912	50637.96	3.6550	3.6550	1.2470	26.11	0.13	1.500			
0.7949	50872.41	3.6520	3.6521	1.2385	26.11	0.13	1.500			
0.7986	51108.92	3.6490	3.6490	1.2289	26.10	0.12	1.500			
0.8022	51342.51	3.6460	3.6460	1.2379	26.09	0.11	1.500			
0.8059	51578.20	3.6430	3.6429	1.2453	26.09	0.11	1.500			
0.8097	51818.44	3.6400	3.6400	1.2637	26.08	0.10	1.500			
0.8135	52063.05	3.6370	3.6371	1.2785	26.07	0.09	1.500			
0.8173	52310.15	3.6340	3.6339	1.2924	26.06	0.08	1.500			
0.8213	52562.21	3.6310	3.6310	1.2996	26.06	0.08	1.500			
0.8252	52814.92	3.6280	3.6280	1.3058	26.05	0.07	1.500			
0.8291	53065.45	3.6250	3.6250	1.3058	26.04	0.06	1.500			
0.8331	53316.10	3.6220	3.6220	1.3058	26.03	0.05	1.500			
0.8369	53564.00	3.6190	3.6190	1.3064	26.02	0.04	1.500			
0.8409	53814.90	3.6160	3.6160	1.3125	26.01	0.03	1.500			
0.8448	54067.58	3.6130	3.6130	1.3146	26.01	0.03	1.500			
0.8488	54321.91	3.6100	3.6100	1.3134	26.00	0.02	1.500			
0.8527	54575.27	3.6070	3.6071	1.3128	25.99	0.01	1.500			
0.8567	54828.54	3.6040	3.6040	1.3053	25.99	0.01	1.500			
0.8606	55078.85	3.6010	3.6008	1.2945	25.98	0.00	1.500			
0.8645	55325.78	3.5980	3.5980	1.2787	25.98	-0.00	1.500			
0.8683	55570.63	3.5950	3.5950	1.2670	25.97	-0.01	1.500			
0.8721	55815.82	3.5920	3.5920	1.2506	25.97	-0.01	1.500			
0.8758	56052.24	3.5890	3.5890	1.2367	25.97	-0.01	1.500			
0.8795	56286.96	3.5860	3.5860	1.2184	25.97	-0.01	1.500			
0.8831	56517.53	3.5830	3.5831	1.2163	25.96	-0.02	1.500			
0.8867	56746.96	3.5800	3.5799	1.2142	25.96	-0.02	1.500			
0.8903	56979.39	3.5770	3.5771	1.2249	25.96	-0.02	1.500			
0.8940	57218.23	3.5740	3.5739	1.2234	25.97	-0.01	1.500			
0.8979	57466.21	3.5710	3.5709	1.1739	25.97	-0.01	1.500			
0.9016	57700.89	3.5680	3.5680	1.0971	25.97	-0.01	1.500			
0.9050	57920.41	3.5650	3.5652	0.9936	25.98	-0.00	1.500			
0.9078	58099.74	3.5620	3.5621	0.8387	25.98	-0.00	1.500			
0.9100	58241.73	3.5590	3.5589	0.6828	25.98	-0.00	1.500			
0.9117	58348.81	3.5560	3.5559	0.5417	25.98	0.00	1.500			
0.9130	58429.11	3.5530	3.5530	0.4232	25.98	0.00	1.500			
0.9140	58495.32	3.5500	3.5499	0.3451	25.98	0.00	1.500			
0.9148	58550.15	3.5470	3.5468	0.2876	25.98	0.00	1.500			
0.9155	58593.82	3.5440	3.5440	0.2310	25.98	0.00	1.500			
0.9161	58632.62	3.5410	3.5409	0.2000	25.98	0.00	1.500			
0.9166	58665.19	3.5380	3.5380	0.1739	25.98	0.00	1.500			
0.9171	58695.01	3.5350	3.5350	0.1480	25.98	0.00	1.500			
0.9175	58720.59	3.5320	3.5320	0.1260	25.99	0.01	1.500			
0.9179	58742.53	3.5290	3.5291	0.1062	25.99	0.01	1.500			
0.9181	58760.83	3.5260	3.5261	0.0873	25.99	0.01	1.500			
0.9184	58775.73	3.5230	3.5233	0.0691	25.99	0.01	1.500			
0.9186	58787.25	3.5200	3.5207	0.0509	25.99	0.01	1.500			
