Ah_balance (normalized)	Ah_balance (mAh)	Voltage - fit (V)	Voltage -  interpolate (V)	dQ/dV (1/V)	Temperature (°C)	Temperature - diff (°C)	Current (C)	R_DC 0ms (mOhm)	R_DC 50ms (mOhm)	R_DC 50 ms PEC (mOhm)
0.2171	13896.06	3.9110	3.9108	-0.1142	25.90	0.00	-1.500			
0.2175	13922.94	3.9080	3.9078	-0.1520	25.90	0.00	-1.500			
0.2181	13955.58	3.9050	3.9048	-0.1821	25.90	0.00	-1.500			
0.2186	13993.46	3.9020	3.9021	-0.2114	25.90	0.00	-1.500			
0.2193	14036.89	3.8990	3.8992	-0.2403	25.90	0.00	-1.500			
0.2201	14086.19	3.8960	3.8960	-0.2707	25.90	0.00	-1.500			
0.2210	14140.94	3.8930	3.8930	-0.2979	25.90	0.00	-1.500			
0.2219	14201.09	3.8900	3.8899	-0.3232	25.90	0.00	-1.500			
0.2229	14265.48	3.8870	3.8871	-0.3508	25.90	0.00	-1.500			
0.2240	14335.58	3.8840	3.8841	-0.3793	25.90	-0.00	-1.500			
0.2252	14410.79	3.8810	3.8809	-0.4058	25.90	-0.00	-1.500			
0.2264	14491.36	3.8780	3.8780	-0.4319	25.90	-0.00	-1.500			
0.2278	14576.92	3.8750	3.8750	-0.4579	25.90	-0.00	-1.500			
0.2292	14668.13	3.8720	3.8721	-0.4865	25.90	-0.00	-1.500			
0.2307	14764.23	3.8690	3.8690	-0.5130	25.89	-0.01	-1.500			
0.2323	14864.86	3.8660	3.8660	-0.5372	25.89	-0.01	-1.500			
0.2339	14971.14	3.8630	3.8630	-0.5604	25.89	-0.01	-1.500			
0.2357	15081.74	3.8600	3.8600	-0.5837	25.89	-0.01	-1.500			
0.2374	15196.28	3.8570	3.8571	-0.6039	25.89	-0.01	-1.500			
0.2393	15315.02	3.8540	3.8540	-0.6215	25.89	-0.01	-1.500			
0.2412	15436.44	3.8510	3.8510	-0.6328	25.89	-0.01	-1.500			
0.2431	15559.08	3.8480	3.8480	-0.6474	25.88	-0.02	-1.500			
0.2451	15685.04	3.8450	3.8450	-0.6587	25.88	-0.02	-1.500			
0.2471	15813.57	3.8420	3.8420	-0.6677	25.88	-0.02	-1.500			
0.2491	15941.58	3.8390	3.8390	-0.6765	25.88	-0.02	-1.500			
0.2511	16071.87	3.8360	3.8362	-0.6867	25.88	-0.02	-1.500			
0.2532	16204.97	3.8330	3.8329	-0.6975	25.88	-0.02	-1.500			
0.2553	16341.58	3.8300	3.8300	-0.7052	25.89	-0.01	-1.500			
0.2575	16477.02	3.8270	3.8270	-0.7091	25.89	-0.01	-1.500			
0.2596	16615.28	3.8240	3.8241	-0.7168	25.89	-0.01	-1.500			
0.2618	16753.57	3.8210	3.8210	-0.7195	25.89	-0.01	-1.500			
0.2639	16890.37	3.8180	3.8179	-0.7199	25.89	-0.01	-1.500			
0.2661	17028.67	3.8150	3.8150	-0.7246	25.89	-0.01	-1.500			
0.2683	17168.20	3.8120	3.8120	-0.7284	25.90	-0.00	-1.500			
0.2705	17309.35	3.8090	3.8090	-0.7308	25.90	-0.00	-1.500			
0.2727	17449.97	3.8060	3.8060	-0.7324	25.90	-0.00	-1.500			
0.2749	17591.06	3.8030	3.8030	-0.7335	25.90	0.00	-1.500			
0.2771	17732.29	3.8000	3.8000	-0.7335	25.90	0.00	-1.500			
0.2793	17872.57	3.7970	3.7970	-0.7339	25.91	0.01	-1.500			
0.2815	18012.86	3.7940	3.7941	-0.7363	25.91	0.01	-1.500			
0.2837	18155.77	3.7910	3.7909	-0.7356	25.91	0.01	-1.500			
0.2859	18296.95	3.7880	3.7880	-0.7355	25.92	0.02	-1.500			
0.2881	18437.54	3.7850	3.7850	-0.7360	25.92	0.02	-1.500			
0.2903	18579.02	3.7820	3.7821	-0.7365	25.92	0.02	-1.500			
0.2925	18720.09	3.7790	3.7789	-0.7385	25.92	0.02	-1.500			
0.2947	18861.41	3.7760	3.7760	-0.7408	25.93	0.03	-1.500			
0.2969	19003.99	3.7730	3.7730	-0.7380	25.93	0.03	-1.500			
0.2992	19146.81	3.7700	3.7700	-0.7405	25.93	0.03	-1.500			
0.3014	19288.79	3.7670	3.7671	-0.7404	25.94	0.04	-1.500			
0.3036	19430.49	3.7640	3.7639	-0.7423	25.94	0.04	-1.500			
0.3058	19573.00	3.7610	3.7610	-0.7434	25.95	0.05	-1.500			
0.3081	19716.27	3.7580	3.7580	-0.7415	25.95	0.05	-1.500			
0.3103	19858.86	3.7550	3.7550	-0.7400	25.95	0.05	-1.500			
0.3125	20001.50	3.7520	3.7520	-0.7412	25.96	0.06	-1.500			
0.3147	20141.26	3.7490	3.7491	-0.7421	25.96	0.06	-1.500			
0.3169	20283.67	3.7460	3.7458	-0.7434	25.97	0.07	-1.500			
0.3192	20426.44	3.7430	3.7430	-0.7413	25.97	0.07	-1.500			
0.3214	20569.61	3.7400	3.7400	-0.7444	25.98	0.08	-1.500			
0.3237	20714.27	3.7370	3.7371	-0.7480	25.98	0.08	-1.500			
0.3259	20857.43	3.7340	3.7339	-0.7481	25.99	0.09	-1.500			
0.3281	20998.58	3.7310	3.7310	-0.7485	25.99	0.09	-1.500			
0.3304	21142.44	3.7280	3.7280	-0.7521	26.00	0.10	-1.500			
0.3326	21287.51	3.7250	3.7250	-0.7597	26.00	0.10	-1.500			
0.3349	21434.87	3.7220	3.7220	-0.7606	26.01	0.11	-1.500			
0.3372	21580.87	3.7190	3.7190	-0.7630	26.01	0.11	-1.500			
0.3395	21727.59	3.7160	3.7160	-0.7664	26.02	0.12	-1.500			
0.3418	21873.66	3.7130	3.7130	-0.7726	26.02	0.12	-1.500			
0.3441	22023.03	3.7100	3.7099	-0.7779	26.03	0.13	-1.500			
0.3464	22172.16	3.7070	3.7070	-0.7868	26.04	0.14	-1.500			
0.3488	22323.65	3.7040	3.7040	-0.7960	26.04	0.14	-1.500			
0.3512	22478.74	3.7010	3.7011	-0.8080	26.05	0.15	-1.500			
0.3537	22634.39	3.6980	3.6979	-0.8140	26.05	0.15	-1.500			
0.3561	22790.02	3.6950	3.6951	-0.8231	26.05	0.15	-1.500			
0.3586	22950.50	3.6920	3.6920	-0.8357	26.06	0.16	-1.500			
0.3611	23110.77	3.6890	3.6890	-0.8494	26.06	0.16	-1.500			
0.3637	23274.32	3.6860	3.6860	-0.8592	26.06	0.16	-1.500			
0.3663	23440.46	3.6830	3.6830	-0.8717	26.07	0.17	-1.500			
0.3689	23609.67	3.6800	3.6800	-0.8842	26.07	0.17	-1.500			
0.3716	23782.66	3.6770	3.6770	-0.8954	26.08	0.18	-1.500			
0.3743	23953.92	3.6740	3.6740	-0.9060	26.08	0.18	-1.500			
0.3770	24128.82	3.6710	3.6710	-0.9184	26.09	0.19	-1.500			
0.3798	24304.69	3.6680	3.6681	-0.9313	26.09	0.19	-1.500			
0.3826	24484.28	3.6650	3.6649	-0.9507	26.10	0.20	-1.500			
0.3854	24668.07	3.6620	3.6621	-0.9701	26.10	0.20	-1.500			
0.3884	24856.61	3.6590	3.6589	-0.9903	26.10	0.20	-1.500			
0.3914	25049.32	3.6560	3.6560	-1.0088	26.11	0.21	-1.500			
0.3945	25244.89	3.6530	3.6531	-1.0278	26.11	0.21	-1.500			
0.3976	25444.96	3.6500	3.6501	-1.0491	26.12	0.22	-1.500			
0.4007	25647.95	3.6470	3.6469	-1.0668	26.12	0.22	-1.500			
0.4040	25854.54	3.6440	3.6440	-1.0856	26.12	0.22	-1.500			
0.4072	26063.71	3.6410	3.6410	-1.1061	26.12	0.22	-1.500			
0.4106	26277.05	3.6380	3.6380	-1.1338	26.13	0.23	-1.500			
0.4140	26497.99	3.6350	3.6350	-1.1574	26.13	0.23	-1.500			
0.4175	26722.60	3.6320	3.6319	-1.1775	26.13	0.23	-1.500			
0.4211	26951.79	3.6290	3.6290	-1.1993	26.13	0.23	-1.500			
0.4248	27184.11	3.6260	3.6261	-1.2223	26.13	0.23	-1.500			
0.4285	27420.92	3.6230	3.6230	-1.2460	26.13	0.23	-1.500			
0.4322	27661.27	3.6200	3.6199	-1.2692	26.13	0.23	-1.500			
0.4360	27904.12	3.6170	3.6170	-1.2961	26.14	0.24	-1.500			
0.4400	28158.64	3.6140	3.6140	-1.3205	26.14	0.24	-1.500			
0.4440	28416.28	3.6110	3.6110	-1.3478	26.14	0.24	-1.500			
0.4481	28677.44	3.6080	3.6081	-1.3677	26.14	0.24	-1.500			
0.4522	28941.29	3.6050	3.6049	-1.3880	26.14	0.24	-1.500			
0.4564	29207.92	3.6020	3.6021	-1.4174	26.14	0.24	-1.500			
0.4606	29481.25	3.5990	3.5990	-1.4389	26.14	0.24	-1.500			
0.4650	29761.44	3.5960	3.5959	-1.4678	26.14	0.24	-1.500			
0.4695	30046.87	3.5930	3.5930	-1.5001	26.14	0.24	-1.500			
0.4740	30335.88	3.5900	3.5901	-1.5197	26.14	0.24	-1.500			
0.4786	30630.26	3.5870	3.5870	-1.5472	26.14	0.24	-1.500			
0.4833	30930.13	3.5840	3.5840	-1.5760	26.14	0.24	-1.500			
0.4881	31236.82	3.5810	3.5808	-1.5897	26.14	0.24	-1.500			
0.4929	31546.44	3.5780	3.5780	-1.6125	26.14	0.24	-1.500			
0.4978	31856.12	3.5750	3.5753	-1.6327	26.14	0.24	-1.500			
0.5027	32171.34	3.5720	3.5718	-1.6488	26.14	0.24	-1.500			
0.5077	32489.92	3.5690	3.5690	-1.6788	26.14	0.24	-1.500			
0.5127	32811.70	3.5660	3.5660	-1.6932	26.14	0.24	-1.500			
0.5179	33143.26	3.5630	3.5629	-1.7304	26.14	0.24	-1.500			
0.5231	33478.19	3.5600	3.5601	-1.7501	26.14	0.24	-1.500			
0.5283	33813.57	3.5570	3.5570	-1.7660	26.14	0.24	-1.500			
0.5336	34152.83	3.5540	3.5539	-1.7851	26.15	0.25	-1.500			
0.5390	34497.88	3.5510	3.5510	-1.7887	26.15	0.25	-1.500			
0.5445	34846.28	3.5480	3.5480	-1.8060	26.16	0.26	-1.500			
0.5500	35197.45	3.5450	3.5450	-1.8343	26.16	0.26	-1.500			
0.5554	35547.65	3.5420	3.5419	-1.8430	26.16	0.26	-1.500			
0.5610	35905.37	3.5390	3.5389	-1.8458	26.17	0.27	-1.500			
0.5666	36259.85	3.5360	3.5360	-1.8439	26.17	0.27	-1.500	0.384	0.519	
0.5721	36614.88	3.5330	3.5330	-1.8445	26.17	0.27	-1.500			
0.5776	36969.21	3.5300	3.5299	-1.8388	26.18	0.28	-1.500			
0.5831	37319.02	3.5270	3.5270	-1.8214	26.19	0.29	-1.500			
0.5886	37671.52	3.5240	3.5240	-1.8257	26.19	0.29	-1.500			
0.5941	38022.59	3.5210	3.5210	-1.8268	26.20	0.30	-1.500			
0.5996	38372.31	3.5180	3.5180	-1.8138	26.21	0.31	-1.500			
0.6050	38716.96	3.5150	3.5150	-1.8137	26.22	0.32	-1.500			
0.6104	39066.32	3.5120	3.5120	-1.8127	26.23	0.33	-1.500			
0.6159	39416.09	3.5090	3.5089	-1.8067	26.25	0.35	-1.500			
0.6213	39762.88	3.5060	3.5060	-1.8074	26.26	0.36	-1.500			
0.6267	40107.77	3.5030	3.5030	-1.8049	26.27	0.37	-1.500			
0.6321	40454.94	3.5000	3.4999	-1.8051	26.27	0.37	-1.500			
0.6375	40801.37	3.4970	3.4970	-1.7904	26.28	0.38	-1.500			
0.6429	41145.33	3.4940	3.4940	-1.7925	26.29	0.39	-1.500			
0.6483	41488.66	3.4910	3.4910	-1.7834	26.30	0.40	-1.500			
0.6536	41828.05	3.4880	3.4880	-1.7728	26.31	0.41	-1.500			
0.6589	42169.51	3.4850	3.4850	-1.7669	26.33	0.43	-1.500			
0.6642	42508.11	3.4820	3.4820	-1.7562	26.34	0.44	-1.500			
0.6695	42847.44	3.4790	3.4790	-1.7441	26.35	0.45	-1.500			
0.6747	43182.03	3.4760	3.4761	-1.7300	26.36	0.46	-1.500			
0.6798	43510.01	3.4730	3.4730	-1.7055	26.38	0.48	-1.500			
0.6849	43836.51	3.4700	3.4700	-1.6861	26.39	0.49	-1.500			
0.6899	44156.67	3.4670	3.4670	-1.6645	26.40	0.50	-1.500			
0.6949	44476.36	3.4640	3.4639	-1.6437	26.41	0.51	-1.500			
0.6998	44790.34	3.4610	3.4611	-1.6234	26.43	0.53	-1.500			
0.7047	45098.00	3.4580	3.4580	-1.6106	26.44	0.54	-1.500			
0.7094	45403.65	3.4550	3.4550	-1.5905	26.46	0.56	-1.500			
0.7142	45709.24	3.4520	3.4519	-1.5603	26.47	0.57	-1.500			
0.7189	46010.31	3.4490	3.4490	-1.5382	26.49	0.59	-1.500			
0.7235	46302.97	3.4460	3.4462	-1.5154	26.50	0.60	-1.500			
0.7280	46590.65	3.4430	3.4430	-1.4970	26.52	0.62	-1.500			
0.7324	46871.34	3.4400	3.4400	-1.4787	26.54	0.64	-1.500			
0.7368	47153.38	3.4370	3.4369	-1.4631	26.56	0.66	-1.500			
0.7412	47433.81	3.4340	3.4340	-1.4577	26.57	0.67	-1.500			
0.7455	47714.46	3.4310	3.4310	-1.4512	26.59	0.69	-1.500			
0.7499	47993.93	3.4280	3.4281	-1.4440	26.61	0.71	-1.500			
0.7542	48268.28	3.4250	3.4249	-1.4313	26.63	0.73	-1.500			
0.7584	48538.15	3.4220	3.4220	-1.4229	26.65	0.75	-1.500			
0.7627	48812.38	3.4190	3.4190	-1.4069	26.66	0.76	-1.500			
0.7670	49085.52	3.4160	3.4160	-1.3919	26.68	0.78	-1.500			
0.7712	49354.03	3.4130	3.4130	-1.3701	26.70	0.80	-1.500			
0.7752	49615.16	3.4100	3.4099	-1.3415	26.71	0.81	-1.500			
0.7792	49870.74	3.4070	3.4070	-1.3083	26.73	0.83	-1.500			
0.7831	50118.54	3.4040	3.4040	-1.2708	26.74	0.84	-1.500			
0.7868	50358.34	3.4010	3.4010	-1.2287	26.76	0.86	-1.500			
0.7905	50593.43	3.3980	3.3980	-1.1914	26.78	0.88	-1.500			
0.7941	50819.75	3.3950	3.3949	-1.1428	26.79	0.89	-1.500			
0.7974	51033.50	3.3920	3.3920	-1.0890	26.81	0.91	-1.500			
0.8006	51236.49	3.3890	3.3890	-1.0448	26.82	0.92	-1.500			
0.8036	51431.58	3.3860	3.3860	-1.0035	26.84	0.94	-1.500			
0.8065	51619.19	3.3830	3.3829	-0.9601	26.85	0.95	-1.500			
0.8094	51799.08	3.3800	3.3800	-0.9228	26.86	0.96	-1.500			
0.8121	51973.38	3.3770	3.3770	-0.8864	26.88	0.98	-1.500			
0.8147	52140.03	3.3740	3.3740	-0.8601	26.89	0.99	-1.500			
0.8172	52301.48	3.3710	3.3709	-0.8276	26.90	1.00	-1.500			
0.8196	52456.11	3.3680	3.3679	-0.7973	26.91	1.01	-1.500			
0.8220	52606.57	3.3650	3.3650	-0.7672	26.93	1.03	-1.500			
0.8243	52752.28	3.3620	3.3620	-0.7397	26.94	1.04	-1.500			
0.8264	52891.38	3.3590	3.3590	-0.7138	26.95	1.05	-1.500			
0.8285	53025.42	3.3560	3.3560	-0.6870	26.96	1.06	-1.500			
0.8305	53152.22	3.3530	3.3530	-0.6620	26.96	1.06	-1.500			
0.8325	53278.19	3.3500	3.3500	-0.6426	26.97	1.07	-1.500			
0.8344	53399.01	3.3470	3.3470	-0.6243	26.98	1.08	-1.500			
0.8362	53517.57	3.3440	3.3440	-0.6074	26.99	1.09	-1.500			
0.8380	53633.30	3.3410	3.3409	-0.5875	27.00	1.10	-1.500			
0.8397	53743.43	3.3380	3.3381	-0.5701	27.01	1.11	-1.500			
0.8414	53851.24	3.3350	3.3350	-0.5528	27.01	1.11	-1.500			
0.8431	53955.32	3.3320	3.3321	-0.5355	27.02	1.12	-1.500			
0.8446	54056.46	3.3290	3.3291	-0.5194	27.03	1.13	-1.500			
0.8462	54154.10	3.3260	3.3260	-0.5015	27.03	1.13	-1.500			
0.8476	54248.81	3.3230	3.3231	-0.4879	27.04	1.14	-1.500			
0.8491	54341.12	3.3200	3.3200	-0.4746	27.05	1.15	-1.500			
0.8505	54430.99	3.3170	3.3170	-0.4602	27.05	1.15	-1.500			
0.8519	54518.41	3.3140	3.3139	-0.4461	27.06	1.16	-1.500			
0.8532	54602.02	3.3110	3.3111	-0.4324	27.07	1.17	-1.500			
0.8544	54683.55	3.3080	3.3080	-0.4207	27.07	1.17	-1.500			
0.8557	54763.11	3.3050	3.3049	-0.4096	27.08	1.18	-1.500			
0.8569	54840.17	3.3020	3.3020	-0.3959	27.09	1.19	-1.500			
0.8581	54915.40	3.2990	3.2990	-0.3858	27.09	1.19	-1.500			
0.8592	54989.36	3.2960	3.2960	-0.3755	27.10	1.20	-1.500			
0.8603	55060.40	3.2930	3.2930	-0.3641	27.10	1.20	-1.500			
0.8614	55128.65	3.2900	3.2900	-0.3498	27.11	1.21	-1.500			
0.8624	55194.27	3.2870	3.2870	-0.3390	27.12	1.22	-1.500			
0.8634	55257.64	3.2840	3.2840	-0.3294	27.12	1.22	-1.500			
0.8644	55320.01	3.2810	3.2810	-0.3208	27.13	1.23	-1.500			
0.8653	55380.55	3.2780	3.2779	-0.3117	27.13	1.23	-1.500			
0.8662	55439.75	3.2750	3.2751	-0.3049	27.14	1.24	-1.500			
0.8672	55497.77	3.2720	3.2720	-0.2973	27.14	1.24	-1.500			
0.8680	55554.55	3.2690	3.2689	-0.2904	27.14	1.24	-1.500			
0.8689	55608.79	3.2660	3.2661	-0.2821	27.15	1.25	-1.500			
0.8697	55662.15	3.2630	3.2630	-0.2765	27.15	1.25	-1.500			
0.8705	55715.11	3.2600	3.2598	-0.2704	27.16	1.26	-1.500			
0.8714	55766.49	3.2570	3.2570	-0.2639	27.16	1.26	-1.500			
0.8721	55816.29	3.2540	3.2541	-0.2570	27.17	1.27	-1.500			
0.8729	55865.63	3.2510	3.2511	-0.2509	27.17	1.27	-1.500			
0.8736	55913.04	3.2480	3.2480	-0.2451	27.17	1.27	-1.500			
0.8744	55958.75	3.2450	3.2450	-0.2390	27.18	1.28	-1.500			
0.8751	56003.86	3.2420	3.2420	-0.2349	27.19	1.29	-1.500			
0.8758	56048.58	3.2390	3.2391	-0.2307	27.19	1.29	-1.500			
0.8764	56092.73	3.2360	3.2359	-0.2274	27.20	1.30	-1.500			
0.8771	56136.28	3.2330	3.2329	-0.2225	27.20	1.30	-1.500			
0.8778	56178.48	3.2300	3.2301	-0.2187	27.21	1.31	-1.500			
0.8784	56219.73	3.2270	3.2271	-0.2140	27.21	1.31	-1.500			
0.8791	56260.44	3.2240	3.2239	-0.2101	27.22	1.32	-1.500			
0.8797	56300.48	3.2210	3.2209	-0.2057	27.22	1.32	-1.500			
0.8803	56338.93	3.2180	3.2181	-0.2027	27.23	1.33	-1.500			
0.8809	56377.86	3.2150	3.2149	-0.1997	27.23	1.33	-1.500			
0.8815	56415.91	3.2120	3.2121	-0.1967	27.24	1.34	-1.500			
0.8821	56453.44	3.2090	3.2089	-0.1945	27.24	1.34	-1.500			
0.8827	56490.15	3.2060	3.2062	-0.1915	27.24	1.34	-1.500			
0.8832	56526.93	3.2030	3.2029	-0.1892	27.25	1.35	-1.500			
0.8838	56563.01	3.2000	3.2000	-0.1866	27.25	1.35	-1.500			
0.8844	56598.82	3.1970	3.1970	-0.1842	27.26	1.36	-1.500			
0.8849	56633.67	3.1940	3.1940	-0.1806	27.26	1.36	-1.500			
0.8854	56668.29	3.1910	3.1910	-0.1790	27.27	1.37	-1.500			
0.8860	56702.37	3.1880	3.1880	-0.1760	27.27	1.37	-1.500			
0.8865	56735.59	3.1850	3.1850	-0.1730	27.27	1.37	-1.500			
0.8870	56768.37	3.1820	3.1820	-0.1709	27.28	1.38	-1.500			
0.8875	56800.88	3.1790	3.1789	-0.1695	27.28	1.38	-1.500			
0.8880	56833.14	3.1760	3.1761	-0.1679	27.29	1.39	-1.500			
0.8885	56865.23	3.1730	3.1730	-0.1659	27.29	1.39	-1.500			
0.8890	56897.04	3.1700	3.1700	-0.1647	27.30	1.40	-1.500			
0.8895	56928.28	3.1670	3.1671	-0.1632	27.30	1.40	-1.500			
0.8900	56959.52	3.1640	3.1640	-0.1622	27.30	1.40	-1.500			
0.8905	56990.80	3.1610	3.1609	-0.1604	27.31	1.41	-1.500			
0.8910	57021.22	3.1580	3.1580	-0.1590	27.31	1.41	-1.500			
0.8914	57051.73	3.1550	3.1550	-0.1572	27.32	1.42	-1.500			
0.8919	57081.76	3.1520	3.1521	-0.1556	27.32	1.42	-1.500			
0.8924	57111.68	3.1490	3.1489	-0.1545	27.32	1.42	-1.500			
0.8928	57140.94	3.1460	3.1461	-0.1529	27.33	1.43	-1.500			
0.8933	57170.20	3.1430	3.1430	-0.1511	27.33	1.43	-1.500			
0.8937	57199.08	3.1400	3.1400	-0.1498	27.33	1.43	-1.500			
0.8942	57227.99	3.1370	3.1370	-0.1484	27.34	1.44	-1.500			
0.8946	57256.18	3.1340	3.1341	-0.1463	27.34	1.44	-1.500			
0.8951	57284.40	3.1310	3.1310	-0.1450	27.35	1.45	-1.500			
0.8955	57311.81	3.1280	3.1279	-0.1442	27.35	1.45	-1.500			
0.8959	57339.02	3.1250	3.1250	-0.1433	27.35	1.45	-1.500			
0.8963	57366.25	3.1220	3.1219	-0.1424	27.36	1.46	-1.500			
0.8968	57393.79	3.1190	3.1190	-0.1424	27.36	1.46	-1.500			
0.8972	57421.09	3.1160	3.1159	-0.1420	27.36	1.46	-1.500			
0.8976	57448.54	3.1130	3.1130	-0.1412	27.37	1.47	-1.500			
0.8981	57475.79	3.1100	3.1100	-0.1403	27.37	1.47	-1.500			
0.8985	57502.44	3.1070	3.1070	-0.1393	27.38	1.48	-1.500			
0.8989	57528.91	3.1040	3.1040	-0.1380	27.38	1.48	-1.500			
0.8993	57555.31	3.1010	3.1010	-0.1368	27.38	1.48	-1.500			
0.8997	57581.49	3.0980	3.0979	-0.1356	27.39	1.49	-1.500			
0.9001	57607.37	3.0950	3.0950	-0.1346	27.39	1.49	-1.500			
0.9005	57633.12	3.0920	3.0920	-0.1337	27.40	1.50	-1.500			
0.9009	57658.73	3.0890	3.0890	-0.1328	27.40	1.50	-1.500			
0.9013	57684.12	3.0860	3.0860	-0.1319	27.41	1.51	-1.500			
0.9017	57709.20	3.0830	3.0829	-0.1307	27.41	1.51	-1.500			
0.9021	57734.25	3.0800	3.0801	-0.1302	27.42	1.52	-1.500			
0.9025	57759.25	3.0770	3.0770	-0.1298	27.42	1.52	-1.500			
0.9029	57784.09	3.0740	3.0739	-0.1292	27.43	1.53	-1.500			
0.9033	57808.78	3.0710	3.0711	-0.1286	27.43	1.53	-1.500			
0.9036	57833.56	3.0680	3.0679	-0.1273	27.43	1.53	-1.500			
0.9040	57857.93	3.0650	3.0650	-0.1268	27.44	1.54	-1.500			
0.9044	57882.24	3.0620	3.0621	-0.1260	27.44	1.54	-1.500			
0.9048	57906.16	3.0590	3.0591	-0.1254	27.45	1.55	-1.500			
0.9052	57930.18	3.0560	3.0559	-0.1249	27.45	1.55	-1.500			
0.9055	57953.99	3.0530	3.0529	-0.1243	27.46	1.56	-1.500			
0.9059	57977.95	3.0500	3.0501	-0.1235	27.46	1.56	-1.500			
0.9063	58001.60	3.0470	3.0469	-0.1229	27.46	1.56	-1.500			
0.9066	58025.39	3.0440	3.0441	-0.1227	27.47	1.57	-1.500			
0.9070	58048.76	3.0410	3.0410	-0.1214	27.47	1.57	-1.500			
0.9074	58071.94	3.0380	3.0380	-0.1207	27.48	1.58	-1.500			
0.9077	58094.94	3.0350	3.0350	-0.1199	27.48	1.58	-1.500			
0.9081	58117.85	3.0320	3.0320	-0.1195	27.49	1.59	-1.500			
0.9084	58140.65	3.0290	3.0290	-0.1189	27.49	1.59	-1.500			
0.9088	58163.59	3.0260	3.0259	-0.1181	27.49	1.59	-1.500			
0.9092	58186.35	3.0230	3.0229	-0.1176	27.50	1.60	-1.500			
0.9095	58208.63	3.0200	3.0202	-0.1176	27.50	1.60	-1.500			
0.9099	58231.03	3.0170	3.0170	-0.1171	27.51	1.61	-1.500			
0.9102	58253.55	3.0140	3.0140	-0.1166	27.51	1.61	-1.500			
0.9106	58275.86	3.0110	3.0109	-0.1163	27.51	1.61	-1.500			
0.9109	58298.17	3.0080	3.0080	-0.1161	27.52	1.62	-1.500			
0.9113	58320.34	3.0050	3.0051	-0.1164	27.52	1.62	-1.500			
0.9116	58342.70	3.0020	3.0020	-0.1166	27.53	1.63	-1.501			
