Ah_balance (normalized)	Ah_balance (mAh)	Voltage - fit (V)	Voltage -  interpolate (V)	dQ/dV (1/V)	Temperature (°C)	Temperature - diff (°C)	Current (C)	R_DC 0ms (mOhm)	R_DC 50ms (mOhm)	R_DC 50 ms PEC (mOhm)
0.2909	18620.00	3.9690	3.9689	0.8883	27.01	1.05	1.500			
0.2936	18791.77	3.9660	3.9661	0.8946	27.01	1.05	1.500			
0.2963	18964.44	3.9630	3.9630	0.8960	27.00	1.04	1.500			
0.2990	19136.26	3.9600	3.9599	0.8972	27.00	1.04	1.500			
0.3017	19308.30	3.9570	3.9570	0.8984	27.00	1.04	1.500			
0.3044	19481.23	3.9540	3.9540	0.8970	26.99	1.03	1.500			
0.3071	19653.00	3.9510	3.9510	0.8965	26.99	1.03	1.500			
0.3098	19825.10	3.9480	3.9480	0.9009	26.99	1.03	1.500			
0.3124	19996.47	3.9450	3.9451	0.9082	26.98	1.02	1.500			
0.3152	20171.88	3.9420	3.9418	0.9127	26.98	1.02	1.500			
0.3179	20347.18	3.9390	3.9391	0.9187	26.98	1.02	1.500			
0.3207	20524.97	3.9360	3.9361	0.9263	26.97	1.01	1.500			
0.3235	20706.41	3.9330	3.9330	0.9333	26.97	1.01	1.500			
0.3263	20884.20	3.9300	3.9299	0.9350	26.97	1.01	1.500			
0.3291	21063.79	3.9270	3.9271	0.9408	26.96	1.00	1.500			
0.3319	21243.98	3.9240	3.9240	0.9479	26.96	1.00	1.500			
0.3348	21428.31	3.9210	3.9209	0.9580	26.96	1.00	1.500			
0.3377	21612.22	3.9180	3.9181	0.9627	26.95	0.99	1.500			
0.3406	21797.70	3.9150	3.9149	0.9714	26.95	0.99	1.500			
0.3435	21985.04	3.9120	3.9121	0.9761	26.94	0.98	1.500			
0.3464	22172.56	3.9090	3.9090	0.9777	26.94	0.98	1.500			
0.3494	22360.40	3.9060	3.9060	0.9855	26.94	0.98	1.500			
0.3524	22551.80	3.9030	3.9030	0.9902	26.93	0.97	1.500			
0.3553	22740.54	3.9000	3.9001	0.9997	26.93	0.97	1.500			
0.3583	22932.59	3.8970	3.8970	1.0102	26.92	0.96	1.500			
0.3614	23127.58	3.8940	3.8941	1.0211	26.92	0.96	1.500			
0.3645	23326.10	3.8910	3.8909	1.0326	26.91	0.95	1.500			
0.3676	23525.72	3.8880	3.8880	1.0473	26.91	0.95	1.500			
0.3707	23727.58	3.8850	3.8851	1.0577	26.90	0.94	1.500			
0.3740	23933.06	3.8820	3.8819	1.0699	26.90	0.94	1.500			
0.3772	24137.77	3.8790	3.8791	1.0790	26.89	0.93	1.500			
0.3804	24346.14	3.8760	3.8760	1.0819	26.89	0.93	1.500			
0.3836	24552.79	3.8730	3.8731	1.0986	26.88	0.92	1.500			
0.3869	24764.17	3.8700	3.8700	1.1151	26.88	0.92	1.500			
0.3903	24978.80	3.8670	3.8667	1.1285	26.87	0.91	1.500			
0.3937	25197.13	3.8640	3.8640	1.1478	26.86	0.90	1.500			
0.3972	25420.16	3.8610	3.8611	1.1621	26.86	0.90	1.500			
0.4007	25647.47	3.8580	3.8580	1.1761	26.85	0.89	1.500			
0.4043	25874.91	3.8550	3.8550	1.1806	26.84	0.88	1.500			
0.4078	26098.98	3.8520	3.8520	1.2022	26.83	0.87	1.500			
0.4114	26328.91	3.8490	3.8491	1.2248	26.83	0.87	1.500			
0.4151	26566.85	3.8460	3.8458	1.2510	26.82	0.86	1.500			
0.4189	26809.04	3.8430	3.8430	1.2727	26.81	0.85	1.500			
0.4228	27058.24	3.8400	3.8401	1.2970	26.80	0.84	1.500			
0.4268	27314.18	3.8370	3.8370	1.3132	26.80	0.84	1.500			
0.4307	27563.15	3.8340	3.8340	1.3378	26.79	0.83	1.500			
0.4347	27819.56	3.8310	3.8311	1.3680	26.78	0.82	1.500			
0.4388	28083.53	3.8280	3.8279	1.3965	26.77	0.81	1.500			
0.4431	28356.05	3.8250	3.8250	1.4275	26.76	0.80	1.500			
0.4474	28634.76	3.8220	3.8220	1.4605	26.75	0.79	1.500			
0.4518	28916.99	3.8190	3.8191	1.4851	26.74	0.78	1.500			
0.4563	29203.91	3.8160	3.8161	1.5106	26.73	0.77	1.500			
0.4608	29493.74	3.8130	3.8130	1.5569	26.72	0.76	1.500			
0.4656	29796.50	3.8100	3.8098	1.5982	26.71	0.75	1.500			
0.4704	30107.61	3.8070	3.8070	1.6431	26.70	0.74	1.500			
0.4754	30428.36	3.8040	3.8041	1.6857	26.69	0.73	1.500			
0.4806	30755.20	3.8010	3.8011	1.7320	26.68	0.72	1.500			
0.4858	31089.23	3.7980	3.7980	1.7692	26.67	0.71	1.500			
0.4911	31432.75	3.7950	3.7949	1.8268	26.66	0.70	1.500			
0.4967	31786.69	3.7920	3.7921	1.8764	26.64	0.68	1.500			
0.5025	32157.31	3.7890	3.7890	1.9361	26.63	0.67	1.500			
0.5084	32535.09	3.7860	3.7860	1.9820	26.61	0.65	1.500			
0.5143	32916.36	3.7830	3.7829	2.0184	26.59	0.63	1.500			
0.5204	33307.97	3.7800	3.7800	2.0800	26.58	0.62	1.500			
0.5267	33710.61	3.7770	3.7770	2.1329	26.56	0.60	1.500			
0.5331	34119.97	3.7740	3.7740	2.2078	26.54	0.58	1.500			
0.5399	34555.24	3.7710	3.7708	2.2615	26.52	0.56	1.500			
0.5469	35000.28	3.7680	3.7679	2.2720	26.50	0.54	1.500			
0.5537	35439.29	3.7650	3.7651	2.3346	26.48	0.52	1.500			
0.5608	35890.40	3.7620	3.7620	2.3533	26.45	0.49	1.500			
0.5679	36348.68	3.7590	3.7592	2.3746	26.43	0.47	1.500	0.370	0.452	
0.5752	36813.54	3.7560	3.7561	2.3738	26.41	0.45	1.500			
0.5823	37269.03	3.7530	3.7530	2.3535	26.39	0.43	1.500			
0.5892	37711.30	3.7500	3.7499	2.2809	26.37	0.41	1.500			
0.5961	38151.75	3.7470	3.7470	2.2346	26.35	0.39	1.500			
0.6027	38573.84	3.7440	3.7440	2.1956	26.33	0.37	1.500			
0.6092	38986.69	3.7410	3.7410	2.1907	26.32	0.36	1.500			
0.6156	39397.55	3.7380	3.7378	2.1560	26.30	0.34	1.500			
0.6222	39819.61	3.7350	3.7352	2.1733	26.29	0.33	1.500			
0.6287	40234.37	3.7320	3.7319	2.1932	26.27	0.31	1.500			
0.6352	40653.03	3.7290	3.7291	2.1912	26.26	0.30	1.500			
0.6418	41076.16	3.7260	3.7259	2.2232	26.25	0.29	1.500			
0.6487	41515.50	3.7230	3.7231	2.2367	26.23	0.27	1.500			
0.6553	41941.11	3.7200	3.7200	2.3047	26.22	0.26	1.500			
0.6622	42381.64	3.7170	3.7170	2.3596	26.21	0.25	1.500			
0.6694	42839.13	3.7140	3.7141	2.4289	26.19	0.23	1.500			
0.6768	43317.90	3.7110	3.7111	2.5529	26.17	0.21	1.500			
0.6848	43824.22	3.7080	3.7080	2.6715	26.15	0.19	1.500			
0.6928	44337.85	3.7050	3.7051	2.7719	26.14	0.18	1.500			
0.7013	44884.90	3.7020	3.7020	2.8494	26.13	0.17	1.500			
0.7100	45438.84	3.6990	3.6991	2.8656	26.12	0.16	1.500			
0.7187	45995.80	3.6960	3.6960	2.8709	26.11	0.15	1.500			
0.7273	46549.24	3.6930	3.6930	2.7994	26.10	0.14	1.500			
0.7357	47087.44	3.6900	3.6900	2.6539	26.09	0.13	1.500			
0.7435	47582.68	3.6870	3.6871	2.4580	26.08	0.12	1.500			
0.7505	48029.77	3.6840	3.6840	2.2145	26.07	0.11	1.500			
0.7565	48417.82	3.6810	3.6811	2.0033	26.07	0.11	1.500			
0.7622	48779.15	3.6780	3.6781	1.8299	26.06	0.10	1.500			
0.7674	49115.00	3.6750	3.6750	1.7084	26.06	0.10	1.500			
0.7723	49427.92	3.6720	3.6720	1.6061	26.05	0.09	1.500			
0.7770	49728.59	3.6690	3.6690	1.5153	26.05	0.09	1.500			
0.7814	50009.98	3.6660	3.6660	1.4358	26.05	0.09	1.500			
0.7855	50270.86	3.6630	3.6630	1.3609	26.04	0.08	1.500			
0.7894	50524.51	3.6600	3.6599	1.3079	26.04	0.08	1.500			
0.7932	50763.20	3.6570	3.6570	1.2634	26.04	0.08	1.500			
0.7969	50999.34	3.6540	3.6540	1.2436	26.03	0.07	1.500			
0.8005	51232.07	3.6510	3.6510	1.2308	26.03	0.07	1.500			
0.8042	51468.79	3.6480	3.6480	1.2420	26.02	0.06	1.500			
0.8079	51704.43	3.6450	3.6450	1.2455	26.02	0.06	1.500			
0.8116	51943.17	3.6420	3.6421	1.2671	26.01	0.05	1.500			
0.8154	52188.63	3.6390	3.6389	1.2861	26.01	0.05	1.500			
0.8194	52439.44	3.6360	3.6360	1.2979	26.00	0.04	1.500			
0.8233	52690.55	3.6330	3.6330	1.3099	26.00	0.04	1.500			
0.8273	52946.52	3.6300	3.6301	1.3118	26.00	0.04	1.500			
0.8313	53201.03	3.6270	3.6269	1.3079	25.99	0.03	1.500			
0.8352	53450.99	3.6240	3.6240	1.3050	25.99	0.03	1.500			
0.8391	53699.51	3.6210	3.6210	1.2972	25.98	0.02	1.500			
0.8429	53945.61	3.6180	3.6180	1.3052	25.98	0.02	1.500			
0.8468	54197.78	3.6150	3.6150	1.3065	25.97	0.01	1.500			
0.8508	54449.51	3.6120	3.6119	1.3028	25.96	0.00	1.500			
0.8547	54701.69	3.6090	3.6091	1.3011	25.96	-0.00	1.500			
0.8586	54951.68	3.6060	3.6061	1.2966	25.95	-0.01	1.500			
0.8625	55199.77	3.6030	3.6030	1.2852	25.94	-0.02	1.500			
0.8664	55446.78	3.6000	3.5999	1.2694	25.94	-0.02	1.500			
0.8701	55687.91	3.5970	3.5971	1.2513	25.94	-0.02	1.500			
0.8739	55930.12	3.5940	3.5940	1.2381	25.94	-0.02	1.500			
0.8776	56166.14	3.5910	3.5910	1.2128	25.94	-0.02	1.500			
0.8812	56394.41	3.5880	3.5880	1.1961	25.94	-0.02	1.500			
0.8847	56619.30	3.5850	3.5851	1.1912	25.94	-0.02	1.500			
0.8882	56844.38	3.5820	3.5819	1.1940	25.94	-0.02	1.500			
0.8918	57073.71	3.5790	3.5790	1.2054	25.94	-0.02	1.500			
0.8954	57305.64	3.5760	3.5760	1.2149	25.94	-0.02	1.500			
0.8992	57550.68	3.5730	3.5729	1.1902	25.95	-0.01	1.500			
0.9030	57792.78	3.5700	3.5699	1.1465	25.95	-0.01	1.500			
0.9066	58021.73	3.5670	3.5670	1.0410	25.95	-0.01	1.500			
0.9096	58215.66	3.5640	3.5642	0.9014	25.96	-0.00	1.500			
0.9121	58374.21	3.5610	3.5611	0.7556	25.96	-0.00	1.500			
0.9140	58498.81	3.5580	3.5579	0.6050	25.96	-0.00	1.500			
0.9154	58587.16	3.5550	3.5550	0.4680	25.96	0.00	1.500			
0.9166	58660.81	3.5520	3.5519	0.3843	25.96	0.00	1.500			
0.9175	58720.45	3.5490	3.5491	0.3137	25.96	0.00	1.500			
0.9183	58772.33	3.5460	3.5459	0.2688	25.96	0.00	1.500			
0.9190	58817.04	3.5430	3.5429	0.2249	25.96	0.00	1.500			
0.9196	58854.16	3.5400	3.5401	0.1961	25.96	0.00	1.500			
0.9201	58887.68	3.5370	3.5370	0.1690	25.96	0.00	1.500			
0.9206	58917.21	3.5340	3.5340	0.1499	25.96	0.00	1.500			
0.9210	58944.28	3.5310	3.5310	0.1321	25.96	0.00	1.500			
0.9214	58966.69	3.5280	3.5280	0.1129	25.96	0.00	1.500			
0.9217	58987.10	3.5250	3.5250	0.0971	25.97	0.01	1.500			
0.9219	59004.17	3.5220	3.5222	0.0807	25.97	0.01	1.500			
0.9222	59018.06	3.5190	3.5193	0.0643	25.97	0.01	1.500			
0.9223	59028.83	3.5160	3.5165	0.0479	25.97	0.01	1.500			
