Ah_balance (normalized)	Ah_balance (mAh)	Voltage - fit (V)	Voltage -  interpolate (V)	dQ/dV (1/V)	Temperature (°C)	Temperature - diff (°C)	Current (C)	R_DC 0ms (mOhm)	R_DC 50ms (mOhm)	R_DC 50 ms PEC (mOhm)
0.2850	18239.99	3.9910	3.9910	0.8483	27.40	1.42	1.500			
0.2875	18401.52	3.9880	3.9880	0.8384	27.39	1.41	1.500			
0.2900	18560.78	3.9850	3.9850	0.8369	27.39	1.41	1.500			
0.2925	18721.91	3.9820	3.9820	0.8397	27.38	1.40	1.500			
0.2950	18882.88	3.9790	3.9789	0.8426	27.37	1.39	1.500			
0.2976	19044.56	3.9760	3.9761	0.8458	27.36	1.38	1.500			
0.3001	19207.08	3.9730	3.9730	0.8507	27.36	1.38	1.500			
0.3027	19370.83	3.9700	3.9700	0.8598	27.35	1.37	1.500			
0.3053	19536.63	3.9670	3.9671	0.8616	27.34	1.36	1.500			
0.3078	19702.40	3.9640	3.9640	0.8649	27.34	1.36	1.500			
0.3105	19869.90	3.9610	3.9610	0.8706	27.33	1.35	1.500			
0.3131	20037.96	3.9580	3.9580	0.8724	27.32	1.34	1.500			
0.3157	20205.30	3.9550	3.9550	0.8740	27.31	1.33	1.500			
0.3183	20373.60	3.9520	3.9520	0.8721	27.31	1.33	1.500			
0.3209	20539.75	3.9490	3.9491	0.8730	27.30	1.32	1.500			
0.3236	20708.08	3.9460	3.9460	0.8803	27.29	1.31	1.500			
0.3262	20877.05	3.9430	3.9430	0.8826	27.28	1.30	1.500			
0.3288	21045.94	3.9400	3.9400	0.8904	27.28	1.30	1.500			
0.3315	21217.65	3.9370	3.9370	0.8975	27.27	1.29	1.500			
0.3342	21391.24	3.9340	3.9340	0.9018	27.26	1.28	1.500			
0.3370	21566.42	3.9310	3.9310	0.9055	27.25	1.27	1.500			
0.3397	21739.34	3.9280	3.9280	0.9055	27.25	1.27	1.500			
0.3424	21913.00	3.9250	3.9250	0.9113	27.24	1.26	1.500			
0.3451	22087.87	3.9220	3.9220	0.9196	27.23	1.25	1.500			
0.3479	22263.58	3.9190	3.9190	0.9237	27.22	1.24	1.500			
0.3507	22442.22	3.9160	3.9161	0.9347	27.22	1.24	1.500			
0.3535	22623.20	3.9130	3.9130	0.9466	27.21	1.23	1.500			
0.3564	22806.97	3.9100	3.9101	0.9494	27.20	1.22	1.500			
0.3592	22989.39	3.9070	3.9070	0.9555	27.19	1.21	1.500			
0.3621	23171.55	3.9040	3.9041	0.9651	27.18	1.20	1.500			
0.3650	23357.84	3.9010	3.9010	0.9734	27.17	1.19	1.500			
0.3679	23545.81	3.8980	3.8979	0.9824	27.16	1.18	1.500			
0.3709	23735.72	3.8950	3.8949	0.9890	27.15	1.17	1.500			
0.3739	23926.71	3.8920	3.8922	0.9990	27.14	1.16	1.500			
0.3769	24120.54	3.8890	3.8889	1.0085	27.13	1.15	1.500			
0.3799	24312.62	3.8860	3.8860	1.0140	27.12	1.14	1.500			
0.3829	24507.90	3.8830	3.8830	1.0230	27.12	1.14	1.500			
0.3860	24704.83	3.8800	3.8800	1.0326	27.11	1.13	1.500			
0.3891	24903.87	3.8770	3.8770	1.0431	27.10	1.12	1.500			
0.3923	25105.72	3.8740	3.8741	1.0551	27.09	1.11	1.500			
0.3954	25307.83	3.8710	3.8710	1.0677	27.08	1.10	1.500			
0.3987	25514.28	3.8680	3.8680	1.0812	27.07	1.09	1.500			
0.4019	25722.82	3.8650	3.8649	1.0968	27.06	1.08	1.500			
0.4052	25935.20	3.8620	3.8620	1.1120	27.05	1.07	1.500			
0.4086	26151.03	3.8590	3.8591	1.1250	27.04	1.06	1.500			
0.4120	26367.92	3.8560	3.8560	1.1396	27.03	1.05	1.500			
0.4154	26588.37	3.8530	3.8530	1.1513	27.02	1.04	1.500			
0.4189	26807.79	3.8500	3.8500	1.1656	27.01	1.03	1.500			
0.4224	27032.37	3.8470	3.8470	1.1908	27.00	1.02	1.500			
0.4260	27264.01	3.8440	3.8440	1.2063	26.99	1.01	1.500			
0.4297	27498.31	3.8410	3.8410	1.2269	26.97	0.99	1.500			
0.4334	27736.81	3.8380	3.8381	1.2460	26.96	0.98	1.500			
0.4371	27976.92	3.8350	3.8350	1.2651	26.95	0.97	1.500			
0.4410	28221.37	3.8320	3.8320	1.2808	26.93	0.95	1.500			
0.4448	28466.36	3.8290	3.8290	1.3033	26.92	0.94	1.500			
0.4487	28717.58	3.8260	3.8261	1.3212	26.90	0.92	1.500			
0.4527	28974.75	3.8230	3.8228	1.3505	26.89	0.91	1.500			
0.4568	29236.31	3.8200	3.8200	1.3723	26.88	0.90	1.500			
0.4610	29502.21	3.8170	3.8171	1.3986	26.86	0.88	1.500			
0.4653	29776.05	3.8140	3.8140	1.4150	26.84	0.86	1.500			
0.4695	30045.14	3.8110	3.8110	1.4311	26.83	0.85	1.500			
0.4737	30319.72	3.8080	3.8081	1.4611	26.81	0.83	1.500			
0.4782	30603.16	3.8050	3.8048	1.4979	26.80	0.82	1.500			
0.4827	30894.22	3.8020	3.8020	1.5238	26.79	0.81	1.500			
0.4873	31190.03	3.7990	3.7991	1.5471	26.77	0.79	1.500			
0.4921	31496.57	3.7960	3.7960	1.5763	26.75	0.77	1.500			
0.4968	31797.08	3.7930	3.7930	1.5809	26.73	0.75	1.500			
0.5015	32098.03	3.7900	3.7900	1.6162	26.71	0.73	1.500			
0.5064	32411.16	3.7870	3.7870	1.6538	26.69	0.71	1.500			
0.5115	32736.08	3.7840	3.7836	1.6684	26.68	0.70	1.500	0.345	0.478	
0.5166	33062.15	3.7810	3.7811	1.6934	26.66	0.68	1.500			
0.5217	33388.41	3.7780	3.7781	1.6973	26.65	0.67	1.500			
0.5268	33713.96	3.7750	3.7749	1.6965	26.63	0.65	1.500			
0.5318	34036.03	3.7720	3.7721	1.6993	26.62	0.64	1.500			
0.5369	34363.51	3.7690	3.7690	1.7053	26.60	0.62	1.500			
0.5421	34694.81	3.7660	3.7660	1.7127	26.59	0.61	1.500			
0.5472	35023.37	3.7630	3.7630	1.7158	26.58	0.60	1.500			
0.5524	35352.93	3.7600	3.7600	1.7219	26.56	0.58	1.500			
0.5576	35684.18	3.7570	3.7570	1.7385	26.54	0.56	1.500			
0.5628	36022.34	3.7540	3.7539	1.7365	26.53	0.55	1.500			
0.5680	36349.72	3.7510	3.7511	1.7586	26.51	0.53	1.500			
0.5732	36686.94	3.7480	3.7481	1.7889	26.49	0.51	1.500			
0.5786	37033.51	3.7450	3.7449	1.8314	26.48	0.50	1.500			
0.5842	37386.64	3.7420	3.7421	1.8603	26.46	0.48	1.500			
0.5899	37754.45	3.7390	3.7390	1.9097	26.44	0.46	1.500			
0.5956	38116.89	3.7360	3.7360	1.9172	26.42	0.44	1.500			
0.6013	38486.28	3.7330	3.7330	1.9712	26.40	0.42	1.500			
0.6073	38865.70	3.7300	3.7300	2.0219	26.39	0.41	1.500			
0.6135	39262.03	3.7270	3.7270	2.0872	26.37	0.39	1.500			
0.6199	39671.05	3.7240	3.7240	2.1554	26.35	0.37	1.500			
0.6264	40089.86	3.7210	3.7210	2.2194	26.33	0.35	1.500			
0.6331	40521.35	3.7180	3.7180	2.2649	26.31	0.33	1.500			
0.6401	40964.99	3.7150	3.7150	2.2856	26.30	0.32	1.500			
0.6470	41408.02	3.7120	3.7120	2.3283	26.28	0.30	1.500			
0.6541	41861.24	3.7090	3.7089	2.3296	26.26	0.28	1.500			
0.6612	42316.06	3.7060	3.7060	2.2468	26.24	0.26	1.500			
0.6679	42745.17	3.7030	3.7031	2.1426	26.22	0.24	1.500			
0.6741	43142.11	3.7000	3.7000	2.0028	26.21	0.23	1.500			
0.6798	43509.93	3.6970	3.6970	1.8572	26.19	0.21	1.500			
0.6852	43854.73	3.6940	3.6940	1.7437	26.18	0.20	1.500			
0.6902	44174.87	3.6910	3.6911	1.6397	26.17	0.19	1.500			
0.6950	44478.64	3.6880	3.6880	1.5497	26.16	0.18	1.500			
0.6994	44760.18	3.6850	3.6850	1.4671	26.15	0.17	1.500			
0.7036	45033.41	3.6820	3.6819	1.4088	26.14	0.16	1.500			
0.7078	45296.09	3.6790	3.6790	1.3629	26.13	0.15	1.500			
0.7117	45551.67	3.6760	3.6760	1.3263	26.12	0.14	1.500			
0.7157	45802.55	3.6730	3.6730	1.2970	26.11	0.13	1.500			
0.7195	46046.13	3.6700	3.6701	1.2748	26.10	0.12	1.500			
0.7232	46286.84	3.6670	3.6670	1.2657	26.09	0.11	1.500			
0.7270	46527.74	3.6640	3.6639	1.2611	26.08	0.10	1.500			
0.7307	46766.41	3.6610	3.6610	1.2681	26.07	0.09	1.500			
0.7345	47010.91	3.6580	3.6581	1.2776	26.06	0.08	1.500			
0.7385	47260.84	3.6550	3.6549	1.2789	26.05	0.07	1.500			
0.7423	47508.38	3.6520	3.6520	1.2784	26.04	0.06	1.500			
0.7462	47754.11	3.6490	3.6491	1.2682	26.04	0.06	1.500			
0.7500	47997.61	3.6460	3.6460	1.2542	26.03	0.05	1.500			
0.7537	48237.83	3.6430	3.6429	1.2379	26.02	0.04	1.500			
0.7574	48472.09	3.6400	3.6401	1.2228	26.01	0.03	1.500			
0.7610	48705.72	3.6370	3.6369	1.2101	26.00	0.02	1.500			
0.7646	48936.97	3.6340	3.6340	1.1996	26.00	0.02	1.500			
0.7682	49165.38	3.6310	3.6311	1.1902	25.99	0.01	1.500			
0.7718	49393.36	3.6280	3.6280	1.1815	25.98	0.00	1.500			
0.7753	49619.17	3.6250	3.6250	1.1733	25.97	-0.01	1.500			
0.7788	49844.15	3.6220	3.6220	1.1593	25.97	-0.01	1.500			
0.7823	50065.91	3.6190	3.6190	1.1443	25.96	-0.02	1.500			
0.7857	50286.28	3.6160	3.6160	1.1301	25.96	-0.02	1.500			
0.7891	50501.90	3.6130	3.6130	1.1072	25.96	-0.02	1.500			
0.7924	50712.87	3.6100	3.6099	1.0808	25.95	-0.03	1.500			
0.7956	50918.03	3.6070	3.6070	1.0598	25.95	-0.03	1.500			
0.7987	51118.90	3.6040	3.6041	1.0318	25.94	-0.04	1.500			
0.8018	51315.83	3.6010	3.6009	1.0047	25.94	-0.04	1.500			
0.8048	51507.14	3.5980	3.5980	0.9741	25.94	-0.04	1.500			
0.8077	51691.82	3.5950	3.5950	0.9377	25.95	-0.03	1.500			
0.8105	51871.94	3.5920	3.5919	0.8950	25.95	-0.03	1.500			
0.8131	52041.44	3.5890	3.5890	0.8345	25.96	-0.02	1.500			
0.8156	52198.87	3.5860	3.5860	0.7576	25.96	-0.02	1.500			
0.8178	52339.88	3.5830	3.5830	0.6761	25.96	-0.02	1.500			
0.8197	52463.18	3.5800	3.5801	0.5904	25.97	-0.01	1.500			
0.8213	52566.23	3.5770	3.5770	0.5018	25.97	-0.01	1.500			
0.8227	52650.87	3.5740	3.5739	0.4244	25.97	-0.01	1.500			
0.8238	52722.03	3.5710	3.5709	0.3634	25.97	-0.01	1.500			
0.8247	52781.71	3.5680	3.5679	0.3128	25.98	-0.00	1.500			
0.8255	52834.60	3.5650	3.5650	0.2734	25.98	-0.00	1.500			
0.8263	52880.90	3.5620	3.5620	0.2368	25.98	-0.00	1.500			
0.8269	52922.07	3.5590	3.5589	0.2119	25.98	-0.00	1.500			
0.8275	52958.37	3.5560	3.5560	0.1892	25.98	-0.00	1.500			
0.8280	52992.08	3.5530	3.5530	0.1690	25.98	0.00	1.500			
0.8285	53022.60	3.5500	3.5501	0.1540	25.98	0.00	1.500			
0.8289	53050.31	3.5470	3.5470	0.1380	25.98	0.00	1.500			
0.8293	53075.12	3.5440	3.5439	0.1229	25.98	0.00	1.500			
0.8296	53097.20	3.5410	3.5410	0.1080	25.98	0.00	1.500			
0.8299	53116.56	3.5380	3.5382	0.0937	25.98	0.00	1.500			
0.8302	53133.29	3.5350	3.5351	0.0794	25.98	0.00	1.500			
0.8304	53147.78	3.5320	3.5322	0.0647	25.98	0.00	1.500			
0.8306	53158.68	3.5290	3.5292	0.0489	25.98	0.00	1.500			
0.8307	53166.55	3.5260	3.5269	0.0331	25.98	0.00	1.500			
