Ah_balance (normalized)	Ah_balance (mAh)	Voltage - fit (V)	Voltage -  interpolate (V)	dQ/dV (1/V)	Temperature (°C)	Temperature - diff (°C)	Current (C)	R_DC 0ms (mOhm)	R_DC 50ms (mOhm)	R_DC 50 ms PEC (mOhm)
0.2873	18389.88	3.9910	3.9910	0.8103	27.19	1.23	1.500			
0.2898	18546.55	3.9880	3.9881	0.8195	27.18	1.22	1.500			
0.2923	18704.88	3.9850	3.9850	0.8270	27.18	1.22	1.500			
0.2947	18863.73	3.9820	3.9820	0.8336	27.18	1.22	1.500			
0.2973	19024.96	3.9790	3.9790	0.8372	27.17	1.21	1.500			
0.2998	19185.90	3.9760	3.9761	0.8422	27.17	1.21	1.500			
0.3023	19349.26	3.9730	3.9729	0.8444	27.16	1.20	1.500			
0.3049	19510.99	3.9700	3.9699	0.8531	27.16	1.20	1.500			
0.3074	19674.93	3.9670	3.9671	0.8556	27.16	1.20	1.500			
0.3100	19839.14	3.9640	3.9639	0.8612	27.15	1.19	1.500			
0.3126	20006.09	3.9610	3.9611	0.8657	27.15	1.19	1.500			
0.3152	20173.40	3.9580	3.9580	0.8693	27.14	1.18	1.500			
0.3178	20340.93	3.9550	3.9551	0.8715	27.14	1.18	1.500			
0.3205	20509.55	3.9520	3.9520	0.8742	27.14	1.18	1.500			
0.3231	20675.93	3.9490	3.9491	0.8741	27.13	1.17	1.500			
0.3257	20843.86	3.9460	3.9460	0.8811	27.13	1.17	1.500			
0.3283	21012.51	3.9430	3.9430	0.8838	27.12	1.16	1.500			
0.3310	21182.98	3.9400	3.9400	0.8901	27.12	1.16	1.500			
0.3337	21354.20	3.9370	3.9370	0.8963	27.11	1.15	1.500			
0.3364	21528.37	3.9340	3.9340	0.9009	27.11	1.15	1.500			
0.3391	21701.81	3.9310	3.9310	0.9062	27.10	1.14	1.500			
0.3418	21876.22	3.9280	3.9280	0.9106	27.09	1.13	1.500			
0.3446	22051.98	3.9250	3.9250	0.9102	27.09	1.13	1.500			
0.3473	22226.73	3.9220	3.9220	0.9180	27.08	1.12	1.500			
0.3500	22401.44	3.9190	3.9190	0.9252	27.07	1.11	1.500			
0.3528	22579.78	3.9160	3.9160	0.9323	27.07	1.11	1.500			
0.3556	22760.55	3.9130	3.9129	0.9430	27.06	1.10	1.500			
0.3585	22941.40	3.9100	3.9100	0.9517	27.05	1.09	1.500			
0.3613	23126.09	3.9070	3.9070	0.9645	27.05	1.09	1.500			
0.3643	23313.66	3.9040	3.9040	0.9724	27.04	1.08	1.500			
0.3672	23500.56	3.9010	3.9009	0.9758	27.04	1.08	1.500			
0.3702	23690.80	3.8980	3.8981	0.9757	27.03	1.07	1.500			
0.3731	23878.20	3.8950	3.8950	0.9851	27.02	1.06	1.500			
0.3760	24065.50	3.8920	3.8921	0.9925	27.02	1.06	1.500			
0.3790	24253.90	3.8890	3.8890	1.0041	27.01	1.05	1.500			
0.3820	24447.68	3.8860	3.8860	1.0205	27.01	1.05	1.500			
0.3851	24645.98	3.8830	3.8830	1.0396	27.00	1.04	1.500			
0.3883	24849.79	3.8800	3.8800	1.0450	26.99	1.03	1.500			
0.3915	25055.56	3.8770	3.8770	1.0598	26.98	1.02	1.500			
0.3946	25257.05	3.8740	3.8741	1.0619	26.98	1.02	1.500			
0.3978	25460.68	3.8710	3.8710	1.0698	26.97	1.01	1.500			
0.4010	25663.45	3.8680	3.8680	1.0775	26.96	1.00	1.500			
0.4043	25873.00	3.8650	3.8650	1.0908	26.95	0.99	1.500			
0.4076	26084.25	3.8620	3.8620	1.1069	26.94	0.98	1.500			
0.4109	26299.91	3.8590	3.8591	1.1239	26.93	0.97	1.500			
0.4143	26514.69	3.8560	3.8560	1.1358	26.92	0.96	1.500			
0.4177	26735.81	3.8530	3.8529	1.1455	26.91	0.95	1.500			
0.4212	26954.62	3.8500	3.8500	1.1596	26.91	0.95	1.500			
0.4246	27177.39	3.8470	3.8470	1.1811	26.90	0.94	1.500			
0.4282	27407.68	3.8440	3.8441	1.2071	26.89	0.93	1.500			
0.4319	27640.24	3.8410	3.8410	1.2281	26.88	0.92	1.500			
0.4356	27878.98	3.8380	3.8380	1.2459	26.86	0.90	1.500			
0.4394	28121.20	3.8350	3.8351	1.2635	26.85	0.89	1.500			
0.4432	28367.68	3.8320	3.8320	1.2838	26.84	0.88	1.500			
0.4471	28611.89	3.8290	3.8289	1.2974	26.83	0.87	1.500			
0.4509	28860.40	3.8260	3.8260	1.3134	26.82	0.86	1.500			
0.4549	29114.05	3.8230	3.8229	1.3384	26.81	0.85	1.500			
0.4590	29372.99	3.8200	3.8200	1.3644	26.80	0.84	1.500			
0.4631	29638.16	3.8170	3.8171	1.3972	26.79	0.83	1.500			
0.4673	29909.24	3.8140	3.8140	1.4228	26.78	0.82	1.500			
0.4716	30181.84	3.8110	3.8110	1.4546	26.76	0.80	1.500			
0.4760	30465.88	3.8080	3.8081	1.4815	26.75	0.79	1.500			
0.4805	30753.72	3.8050	3.8049	1.5072	26.74	0.78	1.500			
0.4851	31047.14	3.8020	3.8021	1.5277	26.73	0.77	1.500			
0.4897	31343.18	3.7990	3.7989	1.5367	26.72	0.76	1.500			
0.4944	31638.51	3.7960	3.7960	1.5656	26.71	0.75	1.500			
0.4990	31934.77	3.7930	3.7930	1.5882	26.69	0.73	1.500			
0.5038	32245.34	3.7900	3.7899	1.6142	26.68	0.72	1.500			
0.5087	32557.39	3.7870	3.7871	1.6372	26.67	0.71	1.500	0.347	0.489	
0.5137	32876.93	3.7840	3.7841	1.6614	26.65	0.69	1.500			
0.5187	33199.86	3.7810	3.7809	1.6650	26.64	0.68	1.500			
0.5237	33518.63	3.7780	3.7780	1.6602	26.62	0.66	1.500			
0.5287	33836.77	3.7750	3.7751	1.6756	26.60	0.64	1.500			
0.5337	34159.40	3.7720	3.7720	1.6845	26.59	0.63	1.500			
0.5388	34481.99	3.7690	3.7689	1.6867	26.58	0.62	1.500			
0.5439	34807.96	3.7660	3.7660	1.7000	26.57	0.61	1.500			
0.5490	35135.16	3.7630	3.7630	1.7033	26.55	0.59	1.500			
0.5541	35460.76	3.7600	3.7599	1.7031	26.54	0.58	1.500			
0.5592	35787.23	3.7570	3.7570	1.7145	26.53	0.57	1.500			
0.5643	36117.65	3.7540	3.7540	1.7339	26.51	0.55	1.500			
0.5695	36446.29	3.7510	3.7511	1.7397	26.49	0.53	1.500			
0.5748	36785.24	3.7480	3.7481	1.7777	26.48	0.52	1.500			
0.5801	37127.92	3.7450	3.7447	1.8136	26.46	0.50	1.500			
0.5856	37479.57	3.7420	3.7421	1.8457	26.45	0.49	1.500			
0.5912	37838.12	3.7390	3.7390	1.8923	26.43	0.47	1.500			
0.5970	38206.31	3.7360	3.7360	1.9301	26.42	0.46	1.500			
0.6028	38580.65	3.7330	3.7330	1.9769	26.41	0.45	1.500			
0.6088	38965.15	3.7300	3.7300	2.0551	26.39	0.43	1.500			
0.6151	39369.53	3.7270	3.7269	2.1196	26.38	0.42	1.500			
0.6216	39781.80	3.7240	3.7241	2.1639	26.36	0.40	1.500			
0.6282	40203.41	3.7210	3.7210	2.2187	26.34	0.38	1.500			
0.6348	40628.45	3.7180	3.7180	2.2490	26.33	0.37	1.500			
0.6417	41070.94	3.7150	3.7150	2.2914	26.31	0.35	1.500			
0.6488	41522.74	3.7120	3.7120	2.3020	26.29	0.33	1.500			
0.6556	41960.18	3.7090	3.7090	2.2375	26.27	0.31	1.500			
0.6623	42384.45	3.7060	3.7060	2.1327	26.26	0.30	1.500			
0.6686	42787.40	3.7030	3.7030	2.0029	26.24	0.28	1.500			
0.6743	43152.88	3.7000	3.7001	1.8526	26.23	0.27	1.500			
0.6795	43490.27	3.6970	3.6969	1.7309	26.22	0.26	1.500			
0.6845	43807.74	3.6940	3.6940	1.6312	26.21	0.25	1.500			
0.6892	44111.93	3.6910	3.6910	1.5496	26.20	0.24	1.500			
0.6938	44403.40	3.6880	3.6880	1.4803	26.19	0.23	1.500			
0.6981	44677.75	3.6850	3.6851	1.4187	26.18	0.22	1.500			
0.7022	44942.96	3.6820	3.6820	1.3652	26.17	0.21	1.500			
0.7062	45194.09	3.6790	3.6789	1.3234	26.16	0.20	1.500			
0.7100	45443.13	3.6760	3.6760	1.2981	26.15	0.19	1.500			
0.7139	45687.23	3.6730	3.6730	1.2778	26.14	0.18	1.500			
0.7177	45932.49	3.6700	3.6699	1.2664	26.13	0.17	1.500			
0.7214	46171.38	3.6670	3.6671	1.2592	26.12	0.16	1.500			
0.7252	46413.00	3.6640	3.6640	1.2586	26.11	0.15	1.500			
0.7290	46654.07	3.6610	3.6609	1.2589	26.10	0.14	1.500			
0.7327	46895.71	3.6580	3.6580	1.2574	26.09	0.13	1.500			
0.7365	47137.56	3.6550	3.6550	1.2535	26.08	0.12	1.500			
0.7403	47380.03	3.6520	3.6520	1.2441	26.07	0.11	1.500			
0.7441	47620.24	3.6490	3.6490	1.2332	26.06	0.10	1.500			
0.7477	47854.10	3.6460	3.6461	1.2205	26.05	0.09	1.500			
0.7514	48086.85	3.6430	3.6430	1.2080	26.04	0.08	1.500			
0.7550	48317.19	3.6400	3.6400	1.1941	26.03	0.07	1.500			
0.7585	48544.68	3.6370	3.6370	1.1817	26.02	0.06	1.500			
0.7620	48769.91	3.6340	3.6340	1.1766	26.02	0.06	1.500			
0.7656	48996.81	3.6310	3.6309	1.1702	26.01	0.05	1.500			
0.7691	49220.37	3.6280	3.6280	1.1559	26.00	0.04	1.500			
0.7725	49441.92	3.6250	3.6251	1.1415	26.00	0.04	1.500			
0.7760	49662.25	3.6220	3.6220	1.1284	25.99	0.03	1.500			
0.7793	49878.36	3.6190	3.6190	1.1062	25.98	0.02	1.500			
0.7826	50087.89	3.6160	3.6160	1.0821	25.98	0.02	1.500			
0.7858	50291.78	3.6130	3.6130	1.0602	25.98	0.02	1.500			
0.7890	50495.45	3.6100	3.6099	1.0363	25.97	0.01	1.500			
0.7921	50691.88	3.6070	3.6069	1.0106	25.97	0.01	1.500			
0.7951	50883.97	3.6040	3.6041	0.9821	25.97	0.01	1.500			
0.7980	51072.56	3.6010	3.6010	0.9524	25.97	0.01	1.500			
0.8008	51252.82	3.5980	3.5979	0.9169	25.96	0.00	1.500			
0.8035	51426.44	3.5950	3.5951	0.8689	25.96	0.00	1.500			
0.8061	51590.29	3.5920	3.5921	0.8149	25.96	-0.00	1.500			
0.8086	51748.30	3.5890	3.5889	0.7525	25.96	-0.00	1.500			
0.8107	51886.58	3.5860	3.5860	0.6696	25.96	-0.00	1.500			
0.8126	52008.65	3.5830	3.5831	0.5881	25.95	-0.01	1.500			
0.8142	52111.91	3.5800	3.5801	0.5031	25.95	-0.01	1.500			
0.8156	52196.25	3.5770	3.5770	0.4279	25.95	-0.01	1.500			
0.8167	52269.04	3.5740	3.5739	0.3655	25.95	-0.01	1.500			
0.8176	52328.70	3.5710	3.5710	0.3128	25.95	-0.01	1.500			
0.8185	52382.43	3.5680	3.5680	0.2736	25.95	-0.01	1.500			
0.8192	52430.05	3.5650	3.5649	0.2376	25.95	-0.01	1.500			
0.8199	52471.27	3.5620	3.5619	0.2118	25.95	-0.01	1.500			
0.8204	52507.37	3.5590	3.5590	0.1883	25.95	-0.01	1.500			
0.8210	52541.16	3.5560	3.5559	0.1684	25.95	-0.01	1.500			
0.8214	52571.05	3.5530	3.5530	0.1516	25.95	-0.01	1.500			
0.8219	52598.52	3.5500	3.5500	0.1353	25.95	-0.01	1.500			
0.8222	52622.39	3.5470	3.5470	0.1196	25.95	-0.01	1.500			
0.8226	52643.97	3.5440	3.5440	0.1049	25.95	-0.01	1.500			
0.8229	52662.69	3.5410	3.5410	0.0901	25.95	-0.01	1.500			
0.8231	52678.10	3.5380	3.5382	0.0752	25.95	-0.01	1.500			
0.8233	52691.67	3.5350	3.5353	0.0608	25.95	-0.01	1.500			
0.8235	52701.89	3.5320	3.5326	0.0456	25.95	-0.01	1.500			
0.8236	52709.20	3.5290	3.5301	0.0305	25.95	-0.01	1.500			
