Ah_balance (normalized)	Ah_balance (mAh)	Voltage - fit (V)	Voltage -  interpolate (V)	dQ/dV (1/V)	Temperature (°C)	Temperature - diff (°C)	Current (C)	R_DC 0ms (mOhm)	R_DC 50ms (mOhm)	R_DC 50 ms PEC (mOhm)
0.2781	17798.00	3.9890	3.9890	0.8775	27.22	1.28	1.500			
0.2807	17962.70	3.9860	3.9860	0.8478	27.21	1.27	1.500			
0.2832	18124.86	3.9830	3.9830	0.8435	27.20	1.26	1.500			
0.2857	18286.22	3.9800	3.9800	0.8416	27.19	1.25	1.500			
0.2882	18446.44	3.9770	3.9769	0.8422	27.19	1.25	1.500			
0.2907	18607.49	3.9740	3.9740	0.8477	27.18	1.24	1.500			
0.2933	18771.14	3.9710	3.9710	0.8499	27.17	1.23	1.500			
0.2959	18934.46	3.9680	3.9680	0.8575	27.17	1.23	1.500			
0.2984	19099.69	3.9650	3.9650	0.8612	27.16	1.22	1.500			
0.3010	19266.27	3.9620	3.9620	0.8705	27.15	1.21	1.500			
0.3037	19434.43	3.9590	3.9589	0.8725	27.14	1.20	1.500			
0.3063	19602.28	3.9560	3.9560	0.8747	27.14	1.20	1.500			
0.3089	19769.68	3.9530	3.9530	0.8804	27.13	1.19	1.500			
0.3116	19940.63	3.9500	3.9500	0.8849	27.12	1.18	1.500			
0.3142	20109.86	3.9470	3.9469	0.8840	27.11	1.17	1.500			
0.3169	20280.55	3.9440	3.9440	0.8875	27.11	1.17	1.500			
0.3195	20450.51	3.9410	3.9411	0.8886	27.10	1.16	1.500			
0.3222	20621.83	3.9380	3.9380	0.8945	27.09	1.15	1.500			
0.3249	20792.86	3.9350	3.9350	0.8990	27.08	1.14	1.500			
0.3276	20965.23	3.9320	3.9320	0.9049	27.08	1.14	1.500			
0.3303	21140.51	3.9290	3.9290	0.9143	27.07	1.13	1.500			
0.3331	21316.80	3.9260	3.9260	0.9203	27.07	1.13	1.500			
0.3359	21495.14	3.9230	3.9230	0.9236	27.06	1.12	1.500			
0.3386	21672.39	3.9200	3.9200	0.9282	27.06	1.12	1.500			
0.3414	21851.58	3.9170	3.9170	0.9278	27.05	1.11	1.500			
0.3442	22029.14	3.9140	3.9139	0.9354	27.04	1.10	1.500			
0.3470	22209.20	3.9110	3.9110	0.9386	27.04	1.10	1.500			
0.3498	22388.81	3.9080	3.9081	0.9507	27.03	1.09	1.500			
0.3527	22572.37	3.9050	3.9050	0.9578	27.03	1.09	1.500			
0.3556	22757.19	3.9020	3.9020	0.9698	27.02	1.08	1.500			
0.3585	22943.73	3.8990	3.8991	0.9765	27.01	1.07	1.500			
0.3615	23132.82	3.8960	3.8960	0.9858	27.00	1.06	1.500			
0.3644	23322.25	3.8930	3.8930	0.9937	26.99	1.05	1.500			
0.3674	23515.48	3.8900	3.8900	0.9993	26.99	1.05	1.500			
0.3704	23706.33	3.8870	3.8869	1.0026	26.98	1.04	1.500			
0.3734	23900.08	3.8840	3.8841	1.0123	26.97	1.03	1.500			
0.3765	24093.25	3.8810	3.8809	1.0209	26.96	1.02	1.500			
0.3795	24289.93	3.8780	3.8780	1.0343	26.95	1.01	1.500			
0.3826	24489.17	3.8750	3.8750	1.0444	26.94	1.00	1.500			
0.3858	24690.76	3.8720	3.8720	1.0553	26.93	0.99	1.500			
0.3890	24898.02	3.8690	3.8690	1.0634	26.92	0.98	1.500			
0.3922	25101.45	3.8660	3.8660	1.0799	26.91	0.97	1.500			
0.3954	25308.09	3.8630	3.8631	1.0915	26.90	0.96	1.500			
0.3987	25517.39	3.8600	3.8600	1.1102	26.89	0.95	1.500			
0.4020	25730.76	3.8570	3.8568	1.1292	26.88	0.94	1.500			
0.4055	25951.90	3.8540	3.8540	1.1484	26.87	0.93	1.500			
0.4090	26175.46	3.8510	3.8509	1.1673	26.86	0.92	1.500			
0.4125	26401.83	3.8480	3.8481	1.1791	26.85	0.91	1.500			
0.4161	26627.90	3.8450	3.8451	1.1895	26.83	0.89	1.500			
0.4197	26858.40	3.8420	3.8420	1.2099	26.82	0.88	1.500			
0.4233	27091.12	3.8390	3.8389	1.2284	26.81	0.87	1.500			
0.4270	27327.62	3.8360	3.8360	1.2463	26.80	0.86	1.500			
0.4308	27569.39	3.8330	3.8329	1.2713	26.79	0.85	1.500			
0.4346	27816.38	3.8300	3.8300	1.2943	26.77	0.83	1.500			
0.4386	28067.38	3.8270	3.8270	1.3146	26.76	0.82	1.500			
0.4425	28318.51	3.8240	3.8240	1.3372	26.75	0.81	1.500			
0.4465	28577.01	3.8210	3.8211	1.3681	26.74	0.80	1.500			
0.4507	28844.13	3.8180	3.8179	1.3970	26.72	0.78	1.500			
0.4549	29115.57	3.8150	3.8149	1.4254	26.71	0.77	1.500			
0.4592	29391.87	3.8120	3.8121	1.4507	26.70	0.76	1.500			
0.4637	29674.44	3.8090	3.8091	1.4880	26.68	0.74	1.500			
0.4681	29961.45	3.8060	3.8059	1.5178	26.67	0.73	1.500			
0.4727	30254.93	3.8030	3.8029	1.5401	26.65	0.71	1.500			
0.4774	30553.80	3.8000	3.8001	1.5721	26.64	0.70	1.500			
0.4822	30860.91	3.7970	3.7971	1.6092	26.62	0.68	1.500			
0.4871	31172.07	3.7940	3.7940	1.6300	26.61	0.67	1.500			
0.4920	31485.54	3.7910	3.7910	1.6534	26.59	0.65	1.500			
0.4970	31806.84	3.7880	3.7881	1.6818	26.57	0.63	1.500			
0.5021	32134.01	3.7850	3.7849	1.7106	26.56	0.62	1.500			
0.5072	32463.79	3.7820	3.7820	1.7343	26.54	0.60	1.500			
0.5125	32799.40	3.7790	3.7790	1.7562	26.52	0.58	1.500			
0.5178	33140.23	3.7760	3.7760	1.7758	26.50	0.56	1.500	0.352	0.469	
0.5232	33482.26	3.7730	3.7730	1.7890	26.47	0.53	1.500			
0.5286	33828.71	3.7700	3.7700	1.7887	26.45	0.51	1.500			
0.5339	34172.19	3.7670	3.7670	1.7860	26.44	0.50	1.500			
0.5393	34515.87	3.7640	3.7640	1.7808	26.42	0.48	1.500			
0.5446	34854.87	3.7610	3.7610	1.7789	26.40	0.46	1.500			
0.5499	35194.57	3.7580	3.7580	1.7811	26.39	0.45	1.500			
0.5553	35538.03	3.7550	3.7550	1.7913	26.37	0.43	1.500			
0.5607	35883.40	3.7520	3.7520	1.7903	26.35	0.41	1.500			
0.5660	36225.43	3.7490	3.7491	1.7984	26.33	0.39	1.500			
0.5713	36566.33	3.7460	3.7460	1.8272	26.32	0.38	1.500			
0.5768	36917.99	3.7430	3.7428	1.8477	26.30	0.36	1.500			
0.5824	37274.36	3.7400	3.7400	1.8858	26.29	0.35	1.500			
0.5882	37643.07	3.7370	3.7370	1.9044	26.27	0.33	1.500			
0.5939	38011.60	3.7340	3.7340	1.9427	26.26	0.32	1.500			
0.5998	38386.30	3.7310	3.7310	1.9881	26.24	0.30	1.500			
0.6058	38772.89	3.7280	3.7280	2.0562	26.23	0.29	1.500			
0.6120	39170.80	3.7250	3.7250	2.1114	26.21	0.27	1.500			
0.6186	39587.24	3.7220	3.7220	2.1762	26.19	0.25	1.500			
0.6251	40007.33	3.7190	3.7189	2.2335	26.16	0.22	1.500			
0.6319	40442.56	3.7160	3.7160	2.2995	26.15	0.21	1.500			
0.6390	40893.03	3.7130	3.7130	2.3457	26.14	0.20	1.500			
0.6460	41346.32	3.7100	3.7100	2.3975	26.13	0.19	1.500			
0.6533	41811.12	3.7070	3.7070	2.4172	26.12	0.18	1.500			
0.6607	42285.77	3.7040	3.7040	2.4021	26.10	0.16	1.500			
0.6679	42746.06	3.7010	3.7010	2.3342	26.09	0.15	1.500			
0.6748	43187.42	3.6980	3.6979	2.2060	26.07	0.13	1.500			
0.6813	43600.94	3.6950	3.6950	2.0632	26.06	0.12	1.500			
0.6872	43981.07	3.6920	3.6920	1.9035	26.06	0.12	1.500			
0.6926	44323.95	3.6890	3.6891	1.7481	26.05	0.11	1.500			
0.6975	44639.27	3.6860	3.6861	1.6355	26.04	0.10	1.500			
0.7022	44940.10	3.6830	3.6830	1.5462	26.04	0.10	1.500			
0.7067	45228.09	3.6800	3.6800	1.4750	26.03	0.09	1.500			
0.7110	45503.76	3.6770	3.6771	1.4117	26.02	0.08	1.500			
0.7151	45769.27	3.6740	3.6740	1.3615	26.02	0.08	1.500			
0.7191	46020.79	3.6710	3.6710	1.3202	26.01	0.07	1.500			
0.7229	46265.30	3.6680	3.6680	1.2854	26.01	0.07	1.500			
0.7267	46506.32	3.6650	3.6649	1.2709	26.00	0.06	1.500			
0.7304	46747.40	3.6620	3.6620	1.2584	25.99	0.05	1.500			
0.7342	46988.22	3.6590	3.6590	1.2622	25.99	0.05	1.500			
0.7380	47231.86	3.6560	3.6560	1.2633	25.98	0.04	1.500			
0.7418	47473.04	3.6530	3.6530	1.2631	25.98	0.04	1.500			
0.7456	47715.54	3.6500	3.6500	1.2674	25.97	0.03	1.500			
0.7494	47960.70	3.6470	3.6470	1.2692	25.96	0.02	1.500			
0.7532	48204.50	3.6440	3.6440	1.2699	25.96	0.02	1.500			
0.7570	48450.38	3.6410	3.6410	1.2677	25.95	0.01	1.500			
0.7608	48692.52	3.6380	3.6380	1.2561	25.95	0.01	1.500			
0.7646	48934.57	3.6350	3.6350	1.2516	25.94	0.00	1.500			
0.7683	49172.16	3.6320	3.6320	1.2437	25.94	-0.00	1.500			
0.7720	49409.57	3.6290	3.6290	1.2373	25.94	-0.00	1.500			
0.7757	49646.13	3.6260	3.6259	1.2361	25.93	-0.01	1.500			
0.7794	49882.88	3.6230	3.6231	1.2309	25.93	-0.01	1.500			
0.7831	50121.03	3.6200	3.6200	1.2264	25.93	-0.01	1.500			
0.7868	50358.01	3.6170	3.6169	1.2192	25.93	-0.01	1.500			
0.7905	50590.51	3.6140	3.6141	1.1995	25.92	-0.02	1.500			
0.7941	50820.22	3.6110	3.6110	1.1860	25.92	-0.02	1.500			
0.7976	51047.61	3.6080	3.6080	1.1693	25.92	-0.02	1.500			
0.8011	51269.07	3.6050	3.6050	1.1533	25.92	-0.02	1.500			
0.8045	51488.53	3.6020	3.6020	1.1350	25.92	-0.02	1.500			
0.8079	51705.41	3.5990	3.5990	1.1148	25.93	-0.01	1.500			
0.8112	51918.66	3.5960	3.5960	1.0973	25.93	-0.01	1.500			
0.8145	52129.17	3.5930	3.5931	1.0734	25.93	-0.01	1.500			
0.8177	52333.94	3.5900	3.5900	1.0443	25.93	-0.01	1.500			
0.8208	52534.36	3.5870	3.5869	1.0093	25.94	-0.00	1.500			
0.8239	52728.38	3.5840	3.5840	0.9493	25.94	-0.00	1.500			
0.8267	52910.64	3.5810	3.5810	0.8842	25.94	0.00	1.500			
0.8293	53075.82	3.5780	3.5781	0.7903	25.94	0.00	1.500			
0.8316	53221.62	3.5750	3.5750	0.6931	25.94	0.00	1.500			
0.8335	53342.48	3.5720	3.5721	0.5945	25.95	0.01	1.500			
0.8350	53441.77	3.5690	3.5690	0.5023	25.95	0.01	1.500			
0.8363	53525.49	3.5660	3.5659	0.4115	25.95	0.01	1.500			
0.8374	53594.19	3.5630	3.5629	0.3511	25.95	0.01	1.500			
0.8383	53650.35	3.5600	3.5599	0.2990	25.95	0.01	1.500			
0.8391	53700.23	3.5570	3.5569	0.2616	25.95	0.01	1.500			
0.8398	53744.33	3.5540	3.5540	0.2275	25.95	0.01	1.500			
0.8404	53784.37	3.5510	3.5510	0.2054	25.95	0.01	1.500			
0.8410	53820.83	3.5480	3.5480	0.1865	25.95	0.01	1.500			
0.8415	53854.14	3.5450	3.5450	0.1676	25.95	0.01	1.500			
0.8419	53884.69	3.5420	3.5419	0.1525	25.95	0.01	1.500			
0.8424	53912.05	3.5390	3.5390	0.1369	25.95	0.01	1.500			
0.8428	53936.92	3.5360	3.5360	0.1224	25.95	0.01	1.500			
0.8431	53959.08	3.5330	3.5331	0.1080	25.95	0.01	1.500			
0.8434	53978.42	3.5300	3.5301	0.0934	25.95	0.01	1.500			
0.8437	53994.82	3.5270	3.5270	0.0787	25.95	0.01	1.500			
0.8439	54008.49	3.5240	3.5244	0.0643	25.95	0.01	1.500			
0.8441	54019.47	3.5210	3.5216	0.0501	25.95	0.01	1.500			
0.8442	54027.71	3.5180	3.5190	0.0358	25.95	0.01	1.500			
