Ah_balance (normalized)	Ah_balance (mAh)	Voltage - fit (V)	Voltage -  interpolate (V)	dQ/dV (1/V)	Temperature (°C)	Temperature - diff (°C)	Current (C)	R_DC 0ms (mOhm)	R_DC 50ms (mOhm)	R_DC 50 ms PEC (mOhm)
0.2699	17273.15	3.9900	3.9900	0.8391	27.22	1.27	1.500			
0.2724	17433.93	3.9870	3.9870	0.8379	27.22	1.27	1.500			
0.2750	17597.35	3.9840	3.9840	0.8457	27.21	1.26	1.500			
0.2775	17758.44	3.9810	3.9810	0.8460	27.20	1.25	1.500			
0.2800	17920.67	3.9780	3.9780	0.8493	27.20	1.25	1.500			
0.2826	18083.88	3.9750	3.9751	0.8536	27.19	1.24	1.500			
0.2851	18247.52	3.9720	3.9719	0.8559	27.19	1.24	1.500			
0.2877	18412.32	3.9690	3.9691	0.8621	27.18	1.23	1.500			
0.2903	18577.87	3.9660	3.9659	0.8671	27.18	1.23	1.500			
0.2929	18745.32	3.9630	3.9631	0.8762	27.17	1.22	1.500			
0.2955	18914.97	3.9600	3.9600	0.8770	27.17	1.22	1.500			
0.2982	19084.54	3.9570	3.9570	0.8784	27.16	1.21	1.500			
0.3009	19254.65	3.9540	3.9540	0.8755	27.16	1.21	1.500			
0.3035	19421.16	3.9510	3.9512	0.8817	27.15	1.20	1.500			
0.3061	19589.26	3.9480	3.9479	0.8881	27.15	1.20	1.500			
0.3087	19759.08	3.9450	3.9450	0.8930	27.14	1.19	1.500			
0.3114	19932.02	3.9420	3.9421	0.8972	27.14	1.19	1.500			
0.3142	20107.02	3.9390	3.9391	0.9069	27.13	1.18	1.500			
0.3169	20281.67	3.9360	3.9360	0.9084	27.12	1.17	1.500			
0.3196	20456.39	3.9330	3.9330	0.9112	27.11	1.16	1.500			
0.3223	20629.18	3.9300	3.9300	0.9106	27.10	1.15	1.500			
0.3251	20805.03	3.9270	3.9270	0.9098	27.09	1.14	1.500			
0.3278	20979.48	3.9240	3.9240	0.9189	27.08	1.13	1.500			
0.3306	21156.15	3.9210	3.9211	0.9286	27.07	1.12	1.500			
0.3334	21334.60	3.9180	3.9180	0.9367	27.07	1.12	1.500			
0.3362	21515.22	3.9150	3.9150	0.9481	27.06	1.11	1.500			
0.3390	21697.61	3.9120	3.9121	0.9564	27.05	1.10	1.500			
0.3419	21884.07	3.9090	3.9091	0.9633	27.04	1.09	1.500			
0.3449	22072.26	3.9060	3.9059	0.9710	27.04	1.09	1.500			
0.3478	22256.15	3.9030	3.9030	0.9727	27.03	1.08	1.500			
0.3507	22443.12	3.9000	3.9001	0.9750	27.02	1.07	1.500			
0.3536	22630.64	3.8970	3.8969	0.9812	27.02	1.07	1.500			
0.3566	22819.76	3.8940	3.8940	0.9852	27.01	1.06	1.500			
0.3595	23009.36	3.8910	3.8910	0.9946	27.00	1.05	1.500			
0.3625	23200.99	3.8880	3.8880	1.0062	26.99	1.04	1.500			
0.3655	23393.55	3.8850	3.8850	1.0166	26.98	1.03	1.500			
0.3686	23588.76	3.8820	3.8820	1.0261	26.98	1.03	1.500			
0.3717	23788.17	3.8790	3.8790	1.0437	26.97	1.02	1.500			
0.3749	23990.85	3.8760	3.8760	1.0510	26.96	1.01	1.500			
0.3780	24193.50	3.8730	3.8731	1.0641	26.95	1.00	1.500			
0.3812	24398.07	3.8700	3.8700	1.0726	26.94	0.99	1.500			
0.3845	24605.28	3.8670	3.8669	1.0832	26.93	0.98	1.500			
0.3877	24812.81	3.8640	3.8640	1.0915	26.92	0.97	1.500			
0.3910	25023.36	3.8610	3.8610	1.1069	26.91	0.96	1.500			
0.3943	25237.42	3.8580	3.8580	1.1240	26.90	0.95	1.500			
0.3978	25456.13	3.8550	3.8549	1.1417	26.89	0.94	1.500			
0.4012	25675.08	3.8520	3.8520	1.1523	26.88	0.93	1.500			
0.4047	25898.59	3.8490	3.8490	1.1723	26.87	0.92	1.500			
0.4082	26126.16	3.8460	3.8460	1.1900	26.86	0.91	1.500			
0.4118	26355.64	3.8430	3.8430	1.2080	26.85	0.90	1.500			
0.4154	26587.48	3.8400	3.8400	1.2250	26.84	0.89	1.500			
0.4191	26824.88	3.8370	3.8371	1.2431	26.83	0.88	1.500			
0.4229	27067.11	3.8340	3.8339	1.2576	26.82	0.87	1.500			
0.4267	27308.55	3.8310	3.8310	1.2803	26.81	0.86	1.500			
0.4305	27554.57	3.8280	3.8281	1.2988	26.79	0.84	1.500			
0.4345	27805.26	3.8250	3.8249	1.3262	26.78	0.83	1.500			
0.4385	28061.27	3.8220	3.8220	1.3505	26.77	0.82	1.500			
0.4425	28323.11	3.8190	3.8190	1.3855	26.76	0.81	1.500			
0.4468	28595.08	3.8160	3.8160	1.4116	26.74	0.79	1.500			
0.4511	28869.30	3.8130	3.8130	1.4317	26.73	0.78	1.500			
0.4554	29144.90	3.8100	3.8101	1.4536	26.71	0.76	1.500			
0.4598	29427.70	3.8070	3.8068	1.4775	26.70	0.75	1.500			
0.4643	29712.36	3.8040	3.8040	1.5010	26.69	0.74	1.500			
0.4688	30003.17	3.8010	3.8010	1.5239	26.68	0.73	1.500			
0.4734	30297.15	3.7980	3.7980	1.5520	26.66	0.71	1.500			
0.4781	30599.02	3.7950	3.7950	1.5829	26.65	0.70	1.500			
0.4829	30905.39	3.7920	3.7920	1.6152	26.64	0.69	1.500			
0.4878	31220.17	3.7890	3.7890	1.6391	26.62	0.67	1.500			
0.4928	31538.15	3.7860	3.7860	1.6593	26.61	0.66	1.500			
0.4978	31857.63	3.7830	3.7831	1.6932	26.59	0.64	1.500			
0.5029	32186.20	3.7800	3.7800	1.7270	26.58	0.63	1.500			
0.5081	32518.90	3.7770	3.7770	1.7406	26.57	0.62	1.500	0.347	0.468	
0.5134	32855.56	3.7740	3.7741	1.7623	26.55	0.60	1.500			
0.5187	33199.29	3.7710	3.7710	1.7670	26.54	0.59	1.500			
0.5241	33539.42	3.7680	3.7680	1.7637	26.53	0.58	1.500			
0.5293	33876.81	3.7650	3.7650	1.7639	26.51	0.56	1.500			
0.5346	34217.25	3.7620	3.7620	1.7688	26.50	0.55	1.500			
0.5399	34555.84	3.7590	3.7590	1.7727	26.48	0.53	1.500			
0.5453	34899.52	3.7560	3.7560	1.7682	26.47	0.52	1.500			
0.5505	35234.29	3.7530	3.7530	1.7692	26.45	0.50	1.500			
0.5558	35569.19	3.7500	3.7501	1.7857	26.43	0.48	1.500			
0.5612	35915.61	3.7470	3.7469	1.8240	26.42	0.47	1.500			
0.5667	36268.13	3.7440	3.7441	1.8482	26.40	0.45	1.500			
0.5723	36628.41	3.7410	3.7410	1.8871	26.39	0.44	1.500			
0.5780	36991.79	3.7380	3.7380	1.9198	26.38	0.43	1.500			
0.5838	37362.16	3.7350	3.7349	1.9537	26.36	0.41	1.500			
0.5897	37742.61	3.7320	3.7320	2.0081	26.35	0.40	1.500			
0.5959	38136.30	3.7290	3.7290	2.0520	26.34	0.39	1.500			
0.6020	38528.94	3.7260	3.7260	2.0910	26.33	0.38	1.500			
0.6083	38931.83	3.7230	3.7230	2.1561	26.31	0.36	1.500			
0.6150	39357.55	3.7200	3.7200	2.2264	26.30	0.35	1.500			
0.6217	39789.20	3.7170	3.7170	2.2972	26.29	0.34	1.500			
0.6288	40240.35	3.7140	3.7140	2.3241	26.27	0.32	1.500			
0.6358	40691.88	3.7110	3.7110	2.3583	26.26	0.31	1.500			
0.6429	41145.72	3.7080	3.7080	2.3756	26.24	0.29	1.500			
0.6501	41606.03	3.7050	3.7050	2.3372	26.22	0.27	1.500			
0.6571	42056.23	3.7020	3.7020	2.2806	26.21	0.26	1.500			
0.6639	42489.54	3.6990	3.6990	2.1626	26.19	0.24	1.500			
0.6701	42889.52	3.6960	3.6960	2.0187	26.18	0.23	1.500			
0.6760	43262.53	3.6930	3.6930	1.8898	26.17	0.22	1.500			
0.6814	43610.02	3.6900	3.6899	1.7638	26.17	0.22	1.500			
0.6865	43933.76	3.6870	3.6870	1.6516	26.16	0.21	1.500			
0.6912	44238.84	3.6840	3.6840	1.5563	26.15	0.20	1.500			
0.6958	44528.16	3.6810	3.6810	1.4685	26.14	0.19	1.500			
0.6999	44794.26	3.6780	3.6780	1.4028	26.14	0.19	1.500			
0.7040	45053.01	3.6750	3.6751	1.3525	26.13	0.18	1.500			
0.7079	45307.60	3.6720	3.6719	1.3185	26.12	0.17	1.500			
0.7118	45556.35	3.6690	3.6690	1.3027	26.12	0.17	1.500			
0.7156	45801.56	3.6660	3.6661	1.2837	26.11	0.16	1.500			
0.7195	46046.82	3.6630	3.6630	1.2822	26.10	0.15	1.500			
0.7233	46293.44	3.6600	3.6599	1.2811	26.09	0.14	1.500			
0.7271	46535.65	3.6570	3.6571	1.2727	26.08	0.13	1.500			
0.7310	46781.05	3.6540	3.6540	1.2820	26.07	0.12	1.500			
0.7348	47028.64	3.6510	3.6511	1.2861	26.06	0.11	1.500			
0.7387	47275.69	3.6480	3.6479	1.2850	26.05	0.10	1.500			
0.7426	47524.34	3.6450	3.6450	1.2824	26.04	0.09	1.500			
0.7464	47770.28	3.6420	3.6420	1.2757	26.04	0.09	1.500			
0.7502	48013.93	3.6390	3.6391	1.2759	26.03	0.08	1.500			
0.7540	48258.35	3.6360	3.6360	1.2727	26.02	0.07	1.500			
0.7578	48500.59	3.6330	3.6330	1.2647	26.01	0.06	1.500			
0.7616	48744.43	3.6300	3.6300	1.2628	26.01	0.06	1.500			
0.7654	48988.17	3.6270	3.6270	1.2567	26.00	0.05	1.500			
0.7692	49229.87	3.6240	3.6240	1.2468	25.99	0.04	1.500			
0.7730	49469.17	3.6210	3.6210	1.2311	25.98	0.03	1.500			
0.7766	49702.38	3.6180	3.6180	1.2166	25.98	0.03	1.500			
0.7802	49934.04	3.6150	3.6150	1.2047	25.97	0.02	1.500			
0.7838	50165.56	3.6120	3.6119	1.1884	25.96	0.01	1.500			
0.7874	50392.46	3.6090	3.6090	1.1739	25.96	0.01	1.500			
0.7909	50616.20	3.6060	3.6060	1.1589	25.96	0.01	1.500			
0.7944	50838.79	3.6030	3.6030	1.1379	25.96	0.01	1.500			
0.7977	51055.52	3.6000	3.5999	1.1149	25.95	0.00	1.500			
0.8010	51266.78	3.5970	3.5970	1.0876	25.95	0.00	1.500			
0.8043	51473.74	3.5940	3.5941	1.0610	25.95	0.00	1.500			
0.8074	51676.37	3.5910	3.5910	1.0300	25.95	0.00	1.500			
0.8105	51874.46	3.5880	3.5880	0.9801	25.95	-0.00	1.500			
0.8134	52060.78	3.5850	3.5850	0.9202	25.95	-0.00	1.500			
0.8162	52239.16	3.5820	3.5820	0.8438	25.95	-0.00	1.500			
0.8187	52394.64	3.5790	3.5791	0.7471	25.95	-0.00	1.500			
0.8208	52530.05	3.5760	3.5760	0.6504	25.95	-0.00	1.500			
0.8226	52643.54	3.5730	3.5730	0.5502	25.94	-0.01	1.500			
0.8240	52734.97	3.5700	3.5699	0.4646	25.94	-0.01	1.500			
0.8252	52813.01	3.5670	3.5670	0.3928	25.94	-0.01	1.500			
0.8262	52876.53	3.5640	3.5639	0.3333	25.94	-0.01	1.500			
0.8271	52932.99	3.5610	3.5609	0.2905	25.94	-0.01	1.500			
0.8278	52982.20	3.5580	3.5579	0.2498	25.94	-0.01	1.500			
0.8285	53025.15	3.5550	3.5550	0.2234	25.94	-0.01	1.500			
0.8291	53063.81	3.5520	3.5519	0.2010	25.94	-0.01	1.500			
0.8297	53099.25	3.5490	3.5490	0.1826	25.94	-0.01	1.500			
0.8302	53132.04	3.5460	3.5460	0.1655	25.94	-0.01	1.500			
0.8307	53162.21	3.5430	3.5430	0.1513	25.94	-0.01	1.500			
0.8311	53189.65	3.5400	3.5400	0.1366	25.94	-0.01	1.500			
0.8315	53214.50	3.5370	3.5371	0.1222	25.94	-0.01	1.500			
0.8318	53236.62	3.5340	3.5340	0.1081	25.94	-0.01	1.500			
0.8321	53255.99	3.5310	3.5311	0.0941	25.94	-0.01	1.500			
0.8324	53272.99	3.5280	3.5281	0.0802	25.94	-0.01	1.500			
0.8326	53287.00	3.5250	3.5252	0.0657	25.94	-0.01	1.500			
0.8328	53298.36	3.5220	3.5226	0.0509	25.94	-0.01	1.500			
0.8329	53306.71	3.5190	3.5199	0.0361	25.94	-0.01	1.500			
