Ah_balance (normalized)	Ah_balance (mAh)	Voltage - fit (V)	Voltage -  interpolate (V)	dQ/dV (1/V)	Temperature (°C)	Temperature - diff (°C)	Current (C)	R_DC 0ms (mOhm)	R_DC 50ms (mOhm)	R_DC 50 ms PEC (mOhm)
0.2837	18154.22	3.9900	3.9900	0.8366	27.31	1.36	1.500			
0.2862	18315.24	3.9870	3.9869	0.8382	27.31	1.36	1.500			
0.2887	18476.05	3.9840	3.9840	0.8376	27.30	1.35	1.500			
0.2912	18636.53	3.9810	3.9810	0.8385	27.30	1.35	1.500			
0.2937	18797.51	3.9780	3.9780	0.8425	27.29	1.34	1.500			
0.2962	18958.24	3.9750	3.9750	0.8435	27.29	1.34	1.500			
0.2988	19121.27	3.9720	3.9720	0.8500	27.28	1.33	1.500			
0.3013	19285.38	3.9690	3.9690	0.8543	27.28	1.33	1.500			
0.3039	19450.35	3.9660	3.9660	0.8567	27.27	1.32	1.500			
0.3065	19614.61	3.9630	3.9630	0.8616	27.27	1.32	1.500			
0.3091	19779.83	3.9600	3.9601	0.8668	27.26	1.31	1.500			
0.3117	19946.33	3.9570	3.9570	0.8690	27.26	1.31	1.500			
0.3143	20114.83	3.9540	3.9539	0.8703	27.25	1.30	1.500			
0.3169	20282.29	3.9510	3.9511	0.8732	27.25	1.30	1.500			
0.3195	20450.29	3.9480	3.9481	0.8752	27.24	1.29	1.500			
0.3222	20617.74	3.9450	3.9450	0.8827	27.23	1.28	1.500			
0.3248	20786.82	3.9420	3.9419	0.8867	27.23	1.28	1.500			
0.3275	20957.40	3.9390	3.9390	0.8865	27.22	1.27	1.500			
0.3301	21127.85	3.9360	3.9361	0.8953	27.21	1.26	1.500			
0.3328	21301.69	3.9330	3.9331	0.9036	27.21	1.26	1.500			
0.3355	21474.56	3.9300	3.9299	0.9100	27.20	1.25	1.500			
0.3383	21649.88	3.9270	3.9269	0.9131	27.20	1.25	1.500			
0.3410	21824.91	3.9240	3.9241	0.9168	27.19	1.24	1.500			
0.3438	22003.67	3.9210	3.9211	0.9251	27.18	1.23	1.500			
0.3466	22181.51	3.9180	3.9180	0.9295	27.18	1.23	1.500			
0.3494	22359.61	3.9150	3.9149	0.9342	27.17	1.22	1.500			
0.3522	22537.99	3.9120	3.9121	0.9417	27.17	1.22	1.500			
0.3550	22719.59	3.9090	3.9090	0.9489	27.16	1.21	1.500			
0.3579	22904.72	3.9060	3.9060	0.9589	27.16	1.21	1.500			
0.3608	23089.11	3.9030	3.9030	0.9671	27.15	1.20	1.500			
0.3637	23275.59	3.9000	3.9000	0.9738	27.14	1.19	1.500			
0.3666	23463.12	3.8970	3.8970	0.9791	27.13	1.18	1.500			
0.3695	23650.88	3.8940	3.8941	0.9878	27.13	1.18	1.500			
0.3725	23840.95	3.8910	3.8910	0.9948	27.12	1.17	1.500			
0.3755	24033.13	3.8880	3.8880	1.0025	27.11	1.16	1.500			
0.3785	24225.44	3.8850	3.8850	1.0159	27.10	1.15	1.500			
0.3816	24421.22	3.8820	3.8820	1.0256	27.09	1.14	1.500			
0.3847	24620.34	3.8790	3.8790	1.0394	27.08	1.13	1.500			
0.3878	24821.37	3.8760	3.8761	1.0492	27.08	1.13	1.500			
0.3910	25023.40	3.8730	3.8730	1.0597	27.07	1.12	1.500			
0.3942	25228.88	3.8700	3.8700	1.0722	27.06	1.11	1.500			
0.3974	25435.50	3.8670	3.8670	1.0797	27.05	1.10	1.500			
0.4007	25642.56	3.8640	3.8640	1.0902	27.04	1.09	1.500			
0.4039	25852.40	3.8610	3.8610	1.1091	27.03	1.08	1.500			
0.4073	26065.56	3.8580	3.8580	1.1256	27.02	1.07	1.500			
0.4107	26283.97	3.8550	3.8548	1.1437	27.01	1.06	1.500			
0.4142	26506.02	3.8520	3.8521	1.1563	27.00	1.05	1.500			
0.4177	26730.06	3.8490	3.8490	1.1757	26.99	1.04	1.500			
0.4212	26959.04	3.8460	3.8460	1.1928	26.98	1.03	1.500			
0.4248	27187.18	3.8430	3.8429	1.1991	26.97	1.02	1.500			
0.4284	27417.85	3.8400	3.8401	1.2214	26.95	1.00	1.500			
0.4321	27653.45	3.8370	3.8370	1.2439	26.94	0.99	1.500			
0.4359	27895.13	3.8340	3.8339	1.2632	26.93	0.98	1.500			
0.4397	28141.10	3.8310	3.8310	1.2839	26.92	0.97	1.500			
0.4436	28387.56	3.8280	3.8281	1.3012	26.91	0.96	1.500			
0.4475	28641.84	3.8250	3.8250	1.3195	26.89	0.94	1.500			
0.4515	28893.92	3.8220	3.8220	1.3468	26.88	0.93	1.500			
0.4555	29154.21	3.8190	3.8190	1.3682	26.87	0.92	1.500			
0.4597	29417.93	3.8160	3.8160	1.3988	26.85	0.90	1.500			
0.4639	29691.23	3.8130	3.8130	1.4284	26.84	0.89	1.500			
0.4683	29969.64	3.8100	3.8101	1.4521	26.82	0.87	1.500			
0.4727	30250.30	3.8070	3.8070	1.4811	26.81	0.86	1.500			
0.4771	30536.95	3.8040	3.8040	1.5059	26.79	0.84	1.500			
0.4817	30826.80	3.8010	3.8009	1.5265	26.78	0.83	1.500			
0.4863	31124.63	3.7980	3.7980	1.5542	26.76	0.81	1.500			
0.4910	31425.54	3.7950	3.7951	1.5820	26.74	0.79	1.500			
0.4958	31732.80	3.7920	3.7920	1.6084	26.73	0.78	1.500			
0.5006	32041.48	3.7890	3.7890	1.6348	26.71	0.76	1.500			
0.5056	32357.41	3.7860	3.7860	1.6634	26.70	0.75	1.500			
0.5107	32682.59	3.7830	3.7830	1.6796	26.68	0.73	1.500	0.347	0.482	
0.5157	33006.49	3.7800	3.7800	1.6960	26.66	0.71	1.500			
0.5208	33332.14	3.7770	3.7770	1.7059	26.65	0.70	1.500			
0.5259	33659.62	3.7740	3.7740	1.7023	26.63	0.68	1.500			
0.5310	33985.63	3.7710	3.7710	1.7109	26.62	0.67	1.500			
0.5362	34315.22	3.7680	3.7679	1.7140	26.60	0.65	1.500			
0.5413	34645.89	3.7650	3.7650	1.7240	26.58	0.63	1.500			
0.5465	34975.39	3.7620	3.7620	1.7148	26.57	0.62	1.500			
0.5517	35306.38	3.7590	3.7590	1.7152	26.55	0.60	1.500			
0.5568	35635.50	3.7560	3.7559	1.7298	26.53	0.58	1.500			
0.5620	35968.86	3.7530	3.7530	1.7467	26.52	0.57	1.500			
0.5673	36304.63	3.7500	3.7501	1.7661	26.50	0.55	1.500			
0.5726	36649.56	3.7470	3.7469	1.7833	26.48	0.53	1.500			
0.5779	36986.43	3.7440	3.7441	1.8203	26.47	0.52	1.500			
0.5834	37338.85	3.7410	3.7410	1.8591	26.45	0.50	1.500			
0.5891	37701.70	3.7380	3.7380	1.9082	26.43	0.48	1.500			
0.5949	38072.83	3.7350	3.7351	1.9407	26.42	0.47	1.500			
0.6008	38451.78	3.7320	3.7320	1.9946	26.40	0.45	1.500			
0.6068	38835.94	3.7290	3.7290	2.0410	26.38	0.43	1.500			
0.6130	39232.25	3.7260	3.7260	2.1072	26.36	0.41	1.500			
0.6195	39648.96	3.7230	3.7230	2.1369	26.35	0.40	1.500			
0.6260	40065.24	3.7200	3.7200	2.2229	26.33	0.38	1.500			
0.6327	40493.21	3.7170	3.7171	2.2724	26.31	0.36	1.500			
0.6396	40933.59	3.7140	3.7142	2.3490	26.29	0.34	1.500			
0.6469	41398.92	3.7110	3.7109	2.3999	26.27	0.32	1.500			
0.6542	41871.10	3.7080	3.7080	2.3421	26.25	0.30	1.500			
0.6611	42313.37	3.7050	3.7050	2.2415	26.23	0.28	1.500			
0.6676	42727.63	3.7020	3.7019	2.0919	26.22	0.27	1.500			
0.6737	43114.51	3.6990	3.6990	1.9612	26.20	0.25	1.500			
0.6793	43476.81	3.6960	3.6960	1.8337	26.19	0.24	1.500			
0.6845	43811.07	3.6930	3.6930	1.7002	26.18	0.23	1.500			
0.6895	44126.07	3.6900	3.6900	1.6150	26.17	0.22	1.500			
0.6941	44425.47	3.6870	3.6870	1.5276	26.15	0.20	1.500			
0.6986	44709.99	3.6840	3.6839	1.4541	26.14	0.19	1.500			
0.7028	44977.60	3.6810	3.6811	1.3932	26.13	0.18	1.500			
0.7068	45236.85	3.6780	3.6780	1.3484	26.11	0.16	1.500			
0.7108	45489.62	3.6750	3.6748	1.3154	26.10	0.15	1.500			
0.7146	45735.62	3.6720	3.6720	1.2847	26.09	0.14	1.500			
0.7184	45977.28	3.6690	3.6690	1.2723	26.09	0.14	1.500			
0.7222	46222.13	3.6660	3.6661	1.2724	26.08	0.13	1.500			
0.7260	46463.77	3.6630	3.6629	1.2648	26.07	0.12	1.500			
0.7298	46706.28	3.6600	3.6600	1.2643	26.06	0.11	1.500			
0.7336	46949.54	3.6570	3.6570	1.2606	26.05	0.10	1.500			
0.7374	47192.27	3.6540	3.6540	1.2622	26.05	0.10	1.500			
0.7412	47435.82	3.6510	3.6510	1.2584	26.04	0.09	1.500			
0.7449	47676.00	3.6480	3.6480	1.2476	26.03	0.08	1.500			
0.7487	47916.94	3.6450	3.6450	1.2314	26.02	0.07	1.500			
0.7524	48151.81	3.6420	3.6421	1.2237	26.02	0.07	1.500			
0.7560	48384.33	3.6390	3.6390	1.2175	26.01	0.06	1.500			
0.7596	48616.95	3.6360	3.6360	1.2093	26.00	0.05	1.500			
0.7632	48847.67	3.6330	3.6330	1.1988	26.00	0.05	1.500			
0.7668	49078.28	3.6300	3.6300	1.1914	25.99	0.04	1.500			
0.7704	49306.91	3.6270	3.6270	1.1833	25.98	0.03	1.500			
0.7740	49536.59	3.6240	3.6240	1.1702	25.97	0.02	1.500			
0.7775	49756.90	3.6210	3.6210	1.1508	25.97	0.02	1.500			
0.7809	49975.36	3.6180	3.6180	1.1389	25.96	0.01	1.500			
0.7843	50193.27	3.6150	3.6151	1.1252	25.95	0.00	1.500			
0.7876	50408.70	3.6120	3.6120	1.1052	25.95	0.00	1.500			
0.7910	50621.16	3.6090	3.6091	1.0851	25.95	0.00	1.500			
0.7942	50827.64	3.6060	3.6060	1.0586	25.95	0.00	1.500			
0.7974	51030.76	3.6030	3.6029	1.0338	25.95	0.00	1.500			
0.8004	51224.95	3.6000	3.6000	0.9988	25.95	0.00	1.500			
0.8033	51413.45	3.5970	3.5970	0.9683	25.95	0.00	1.500			
0.8062	51598.45	3.5940	3.5940	0.9354	25.95	0.00	1.500			
0.8090	51778.23	3.5910	3.5910	0.8843	25.95	0.00	1.500			
0.8117	51947.25	3.5880	3.5880	0.8292	25.95	0.00	1.500			
0.8141	52103.60	3.5850	3.5851	0.7509	25.95	0.00	1.500			
0.8163	52244.15	3.5820	3.5820	0.6715	25.95	0.00	1.500			
0.8182	52364.06	3.5790	3.5791	0.5843	25.95	0.00	1.500			
0.8198	52465.62	3.5760	3.5760	0.4958	25.95	0.00	1.500			
0.8211	52549.03	3.5730	3.5729	0.4183	25.95	0.00	1.500			
0.8222	52619.53	3.5700	3.5700	0.3585	25.95	0.00	1.500			
0.8231	52677.72	3.5670	3.5671	0.3051	25.95	0.00	1.500			
0.8239	52730.08	3.5640	3.5639	0.2679	25.95	0.00	1.500			
0.8246	52775.18	3.5610	3.5610	0.2316	25.95	0.00	1.500			
0.8252	52815.78	3.5580	3.5579	0.2080	25.95	0.00	1.500			
0.8258	52852.20	3.5550	3.5551	0.1876	25.95	0.00	1.500			
0.8263	52886.08	3.5520	3.5520	0.1687	25.95	0.00	1.500			
0.8268	52916.54	3.5490	3.5489	0.1534	25.95	0.00	1.500			
0.8272	52943.98	3.5460	3.5460	0.1373	25.95	0.00	1.500			
0.8276	52968.65	3.5430	3.5430	0.1218	25.95	0.00	1.500			
0.8280	52990.84	3.5400	3.5400	0.1081	25.95	0.00	1.500			
0.8283	53010.19	3.5370	3.5370	0.0935	25.95	0.00	1.500			
0.8285	53026.83	3.5340	3.5341	0.0789	25.95	0.00	1.500			
0.8288	53040.75	3.5310	3.5313	0.0641	25.95	0.00	1.500			
0.8289	53051.60	3.5280	3.5285	0.0489	25.95	0.00	1.500			
0.8291	53059.55	3.5250	3.5259	0.0338	25.95	0.00	1.500			
