Ah_balance (normalized)	Ah_balance (mAh)	Voltage - fit (V)	Voltage -  interpolate (V)	dQ/dV (1/V)	Temperature (°C)	Temperature - diff (°C)	Current (C)	R_DC 0ms (mOhm)	R_DC 50ms (mOhm)	R_DC 50 ms PEC (mOhm)
0.2936	18787.47	3.9690	3.9690	0.8907	26.83	0.89	1.500			
0.2962	18957.24	3.9660	3.9660	0.8859	26.82	0.88	1.500			
0.2989	19127.30	3.9630	3.9631	0.8871	26.82	0.88	1.500			
0.3015	19297.29	3.9600	3.9599	0.8909	26.82	0.88	1.500			
0.3042	19469.14	3.9570	3.9570	0.8930	26.82	0.88	1.500			
0.3069	19638.71	3.9540	3.9540	0.9000	26.81	0.87	1.500			
0.3096	19813.72	3.9510	3.9510	0.9042	26.81	0.87	1.500			
0.3123	19988.26	3.9480	3.9480	0.9085	26.81	0.87	1.500			
0.3151	20163.38	3.9450	3.9450	0.9096	26.80	0.86	1.500			
0.3178	20338.57	3.9420	3.9420	0.9110	26.80	0.86	1.500			
0.3205	20512.87	3.9390	3.9390	0.9143	26.80	0.86	1.500			
0.3233	20688.79	3.9360	3.9361	0.9185	26.79	0.85	1.500			
0.3260	20863.30	3.9330	3.9330	0.9227	26.79	0.85	1.500			
0.3288	21043.61	3.9300	3.9300	0.9309	26.79	0.85	1.500			
0.3316	21222.79	3.9270	3.9270	0.9349	26.78	0.84	1.500			
0.3344	21402.95	3.9240	3.9241	0.9407	26.78	0.84	1.500			
0.3373	21584.41	3.9210	3.9210	0.9465	26.78	0.84	1.500			
0.3401	21766.59	3.9180	3.9180	0.9472	26.77	0.83	1.500			
0.3429	21946.49	3.9150	3.9150	0.9604	26.77	0.83	1.500			
0.3458	22131.99	3.9120	3.9120	0.9700	26.77	0.83	1.500			
0.3488	22320.81	3.9090	3.9090	0.9870	26.76	0.82	1.500			
0.3517	22511.18	3.9060	3.9061	0.9998	26.76	0.82	1.500			
0.3548	22705.78	3.9030	3.9030	1.0096	26.75	0.81	1.500			
0.3578	22902.19	3.9000	3.8999	1.0126	26.75	0.81	1.500			
0.3609	23098.09	3.8970	3.8971	1.0144	26.74	0.80	1.500			
0.3639	23291.53	3.8940	3.8940	1.0162	26.74	0.80	1.500			
0.3670	23486.79	3.8910	3.8909	1.0266	26.73	0.79	1.500			
0.3700	23682.06	3.8880	3.8880	1.0320	26.73	0.79	1.500			
0.3731	23880.13	3.8850	3.8851	1.0466	26.72	0.78	1.500			
0.3763	24083.64	3.8820	3.8820	1.0640	26.72	0.78	1.500			
0.3795	24289.79	3.8790	3.8790	1.0762	26.71	0.77	1.500			
0.3828	24497.84	3.8760	3.8760	1.0873	26.71	0.77	1.500			
0.3860	24706.64	3.8730	3.8731	1.1027	26.71	0.77	1.500			
0.3894	24922.29	3.8700	3.8699	1.1024	26.70	0.76	1.500			
0.3927	25134.84	3.8670	3.8670	1.1208	26.70	0.76	1.500			
0.3961	25349.78	3.8640	3.8641	1.1352	26.70	0.76	1.500			
0.3995	25567.79	3.8610	3.8609	1.1556	26.69	0.75	1.500			
0.4030	25791.41	3.8580	3.8580	1.1763	26.68	0.74	1.500			
0.4066	26019.55	3.8550	3.8550	1.1912	26.68	0.74	1.500			
0.4102	26250.22	3.8520	3.8521	1.2075	26.67	0.73	1.500			
0.4138	26485.28	3.8490	3.8490	1.2226	26.66	0.72	1.500			
0.4175	26721.59	3.8460	3.8460	1.2432	26.66	0.72	1.500			
0.4213	26960.60	3.8430	3.8430	1.2578	26.65	0.71	1.500			
0.4250	27202.55	3.8400	3.8399	1.2813	26.64	0.70	1.500			
0.4289	27450.99	3.8370	3.8371	1.3043	26.63	0.69	1.500			
0.4329	27704.13	3.8340	3.8340	1.3314	26.63	0.69	1.500			
0.4369	27960.62	3.8310	3.8310	1.3668	26.62	0.68	1.500			
0.4410	28226.17	3.8280	3.8279	1.3985	26.61	0.67	1.500			
0.4453	28498.98	3.8250	3.8250	1.4251	26.61	0.67	1.500			
0.4496	28775.94	3.8220	3.8220	1.4601	26.60	0.66	1.500			
0.4540	29058.94	3.8190	3.8191	1.4949	26.59	0.65	1.500			
0.4586	29351.24	3.8160	3.8160	1.5239	26.58	0.64	1.500			
0.4632	29644.38	3.8130	3.8129	1.5556	26.57	0.63	1.500			
0.4679	29944.09	3.8100	3.8101	1.5882	26.56	0.62	1.500			
0.4727	30253.75	3.8070	3.8070	1.6323	26.56	0.62	1.500			
0.4777	30570.29	3.8040	3.8041	1.6746	26.55	0.61	1.500			
0.4827	30893.64	3.8010	3.8009	1.7082	26.54	0.60	1.500			
0.4879	31224.37	3.7980	3.7980	1.7670	26.52	0.58	1.500			
0.4933	31569.91	3.7950	3.7949	1.8234	26.51	0.57	1.500			
0.4988	31924.40	3.7920	3.7920	1.8865	26.50	0.56	1.500			
0.5046	32293.43	3.7890	3.7890	1.9365	26.49	0.55	1.500			
0.5105	32673.94	3.7860	3.7860	1.9708	26.48	0.54	1.500			
0.5164	33051.66	3.7830	3.7831	2.0314	26.46	0.52	1.500			
0.5226	33446.31	3.7800	3.7799	2.0987	26.45	0.51	1.500			
0.5290	33857.43	3.7770	3.7770	2.1572	26.43	0.49	1.500			
0.5357	34283.75	3.7740	3.7740	2.2155	26.42	0.48	1.500			
0.5423	34708.98	3.7710	3.7711	2.2451	26.40	0.46	1.500			
0.5490	35138.51	3.7680	3.7678	2.2428	26.38	0.44	1.500			
0.5558	35570.94	3.7650	3.7651	2.3048	26.37	0.43	1.500			
0.5628	36022.36	3.7620	3.7620	2.3578	26.35	0.41	1.500			
0.5700	36478.86	3.7590	3.7591	2.3653	26.33	0.39	1.500	0.362	0.451	
0.5772	36941.92	3.7560	3.7560	2.3463	26.32	0.38	1.500			
0.5844	37399.22	3.7530	3.7530	2.2958	26.30	0.36	1.500			
0.5910	37824.45	3.7500	3.7500	2.2321	26.28	0.34	1.500			
0.5976	38244.76	3.7470	3.7470	2.1947	26.27	0.33	1.500			
0.6040	38657.99	3.7440	3.7440	2.1885	26.25	0.31	1.500			
0.6107	39081.72	3.7410	3.7410	2.1780	26.24	0.30	1.500			
0.6172	39502.72	3.7380	3.7381	2.1756	26.23	0.29	1.500			
0.6236	39913.13	3.7350	3.7349	2.1634	26.22	0.28	1.500			
0.6301	40326.14	3.7320	3.7321	2.1585	26.21	0.27	1.500			
0.6366	40739.42	3.7290	3.7290	2.1611	26.19	0.25	1.500			
0.6430	41153.99	3.7260	3.7261	2.1883	26.18	0.24	1.500			
0.6495	41570.09	3.7230	3.7229	2.2188	26.16	0.22	1.500			
0.6563	42000.64	3.7200	3.7200	2.2688	26.15	0.21	1.500			
0.6631	42439.20	3.7170	3.7171	2.3561	26.14	0.20	1.500			
0.6703	42900.01	3.7140	3.7140	2.4397	26.13	0.19	1.500			
0.6778	43376.61	3.7110	3.7110	2.5289	26.12	0.18	1.500			
0.6855	43872.75	3.7080	3.7080	2.6350	26.10	0.16	1.500			
0.6937	44398.33	3.7050	3.7049	2.7359	26.09	0.15	1.500			
0.7020	44929.47	3.7020	3.7020	2.8358	26.08	0.14	1.500			
0.7107	45483.05	3.6990	3.6990	2.9122	26.07	0.13	1.500			
0.7195	46051.19	3.6960	3.6961	2.8939	26.06	0.12	1.500			
0.7284	46617.63	3.6930	3.6930	2.8386	26.05	0.11	1.500			
0.7365	47135.16	3.6900	3.6900	2.5958	26.04	0.10	1.500			
0.7440	47615.99	3.6870	3.6870	2.3940	26.04	0.10	1.500			
0.7508	48051.92	3.6840	3.6840	2.1972	26.03	0.09	1.500			
0.7571	48453.86	3.6810	3.6810	2.0162	26.03	0.09	1.500			
0.7627	48815.70	3.6780	3.6780	1.8437	26.03	0.09	1.500			
0.7680	49151.58	3.6750	3.6751	1.7148	26.02	0.08	1.500			
0.7729	49466.05	3.6720	3.6719	1.5957	26.02	0.08	1.500			
0.7775	49758.80	3.6690	3.6690	1.5020	26.02	0.08	1.500			
0.7818	50035.34	3.6660	3.6660	1.4126	26.01	0.07	1.500			
0.7859	50295.84	3.6630	3.6631	1.3462	26.01	0.07	1.500			
0.7898	50545.10	3.6600	3.6600	1.2924	26.01	0.07	1.500			
0.7935	50781.27	3.6570	3.6571	1.2551	26.01	0.07	1.500			
0.7972	51018.16	3.6540	3.6540	1.2388	26.00	0.06	1.500			
0.8008	51249.76	3.6510	3.6509	1.2358	26.00	0.06	1.500			
0.8045	51486.68	3.6480	3.6481	1.2363	25.99	0.05	1.500			
0.8082	51723.90	3.6450	3.6450	1.2488	25.99	0.05	1.500			
0.8119	51963.74	3.6420	3.6420	1.2614	25.98	0.04	1.500			
0.8157	52207.45	3.6390	3.6391	1.2725	25.98	0.04	1.500			
0.8196	52454.98	3.6360	3.6359	1.2825	25.97	0.03	1.500			
0.8235	52703.92	3.6330	3.6330	1.2924	25.96	0.02	1.500			
0.8274	52953.40	3.6300	3.6300	1.2943	25.96	0.02	1.500			
0.8313	53204.17	3.6270	3.6270	1.3003	25.96	0.02	1.500			
0.8352	53454.00	3.6240	3.6239	1.2905	25.95	0.01	1.500			
0.8391	53699.91	3.6210	3.6210	1.2888	25.95	0.01	1.500			
0.8429	53945.92	3.6180	3.6180	1.2918	25.95	0.01	1.500			
0.8468	54193.31	3.6150	3.6151	1.2954	25.94	0.00	1.500			
0.8507	54443.01	3.6120	3.6118	1.2931	25.94	-0.00	1.500			
0.8546	54691.67	3.6090	3.6090	1.2962	25.94	-0.00	1.500			
0.8585	54943.44	3.6060	3.6060	1.2887	25.93	-0.01	1.500			
0.8624	55193.57	3.6030	3.6029	1.2729	25.93	-0.01	1.500			
0.8662	55436.12	3.6000	3.6000	1.2530	25.93	-0.01	1.500			
0.8699	55672.83	3.5970	3.5971	1.2426	25.92	-0.02	1.500			
0.8736	55908.65	3.5940	3.5940	1.2283	25.92	-0.02	1.500			
0.8773	56144.15	3.5910	3.5910	1.2145	25.92	-0.02	1.500			
0.8809	56374.79	3.5880	3.5880	1.1979	25.92	-0.02	1.500			
0.8844	56604.06	3.5850	3.5851	1.1974	25.93	-0.01	1.500			
0.8880	56834.34	3.5820	3.5820	1.1933	25.93	-0.01	1.500			
0.8915	57057.77	3.5790	3.5790	1.1968	25.93	-0.01	1.500			
0.8951	57288.47	3.5760	3.5760	1.2010	25.94	-0.00	1.500			
0.8988	57524.81	3.5730	3.5729	1.1909	25.94	-0.00	1.500			
0.9025	57763.18	3.5700	3.5700	1.1251	25.94	0.00	1.500			
0.9061	57989.08	3.5670	3.5671	1.0458	25.94	0.00	1.500			
0.9092	58186.20	3.5640	3.5642	0.9062	25.95	0.01	1.500			
0.9118	58353.28	3.5610	3.5611	0.7617	25.95	0.01	1.500			
0.9137	58476.59	3.5580	3.5579	0.6076	25.95	0.01	1.500			
0.9152	58573.43	3.5550	3.5548	0.4855	25.95	0.01	1.500			
0.9164	58646.52	3.5520	3.5519	0.3852	25.95	0.01	1.500			
0.9173	58706.79	3.5490	3.5489	0.3186	25.95	0.01	1.500			
0.9181	58755.74	3.5460	3.5459	0.2657	25.95	0.01	1.500			
0.9187	58799.52	3.5430	3.5428	0.2289	25.95	0.01	1.500			
0.9193	58837.19	3.5400	3.5400	0.1944	25.96	0.02	1.500			
0.9199	58871.09	3.5370	3.5370	0.1717	25.96	0.02	1.500			
0.9203	58900.92	3.5340	3.5341	0.1513	25.96	0.02	1.500			
0.9208	58928.16	3.5310	3.5310	0.1330	25.96	0.02	1.500			
0.9211	58952.00	3.5280	3.5279	0.1154	25.96	0.02	1.500			
0.9214	58971.91	3.5250	3.5250	0.0975	25.96	0.02	1.500			
0.9217	58988.88	3.5220	3.5221	0.0808	25.96	0.02	1.500			
0.9219	59002.61	3.5190	3.5193	0.0649	25.96	0.02	1.500			
0.9221	59013.55	3.5160	3.5167	0.0491	25.96	0.02	1.500			
