Ah_balance (normalized)	Ah_balance (mAh)	Voltage - fit (V)	Voltage -  interpolate (V)	dQ/dV (1/V)	Temperature (°C)	Temperature - diff (°C)	Current (C)	R_DC 0ms (mOhm)	R_DC 50ms (mOhm)	R_DC 50 ms PEC (mOhm)
0.2883	18448.89	3.9710	3.9710	0.8614	27.10	1.16	1.500			
0.2909	18615.70	3.9680	3.9681	0.8688	27.10	1.16	1.500			
0.2935	18782.92	3.9650	3.9650	0.8704	27.09	1.15	1.500			
0.2961	18949.96	3.9620	3.9620	0.8746	27.09	1.15	1.500			
0.2987	19117.88	3.9590	3.9591	0.8791	27.08	1.14	1.500			
0.3013	19285.98	3.9560	3.9559	0.8840	27.08	1.14	1.500			
0.3040	19457.98	3.9530	3.9530	0.8931	27.08	1.14	1.500			
0.3067	19628.93	3.9500	3.9500	0.8964	27.07	1.13	1.500			
0.3094	19803.21	3.9470	3.9470	0.9029	27.07	1.13	1.500			
0.3121	19975.99	3.9440	3.9440	0.9080	27.06	1.12	1.500			
0.3149	20151.77	3.9410	3.9410	0.9115	27.06	1.12	1.500			
0.3176	20327.05	3.9380	3.9380	0.9152	27.05	1.11	1.500			
0.3204	20502.82	3.9350	3.9351	0.9194	27.05	1.11	1.500			
0.3231	20680.00	3.9320	3.9320	0.9226	27.05	1.11	1.500			
0.3259	20857.70	3.9290	3.9288	0.9231	27.04	1.10	1.500			
0.3287	21035.21	3.9260	3.9261	0.9269	27.04	1.10	1.500			
0.3314	21212.14	3.9230	3.9230	0.9314	27.03	1.09	1.500			
0.3343	21393.41	3.9200	3.9200	0.9405	27.02	1.08	1.500			
0.3371	21573.21	3.9170	3.9170	0.9481	27.02	1.08	1.500			
0.3399	21754.17	3.9140	3.9141	0.9579	27.01	1.07	1.500			
0.3428	21940.85	3.9110	3.9109	0.9629	27.01	1.07	1.500			
0.3457	22126.42	3.9080	3.9080	0.9702	27.00	1.06	1.500			
0.3486	22312.41	3.9050	3.9051	0.9783	27.00	1.06	1.500			
0.3516	22501.37	3.9020	3.9018	0.9828	26.99	1.05	1.500			
0.3545	22690.62	3.8990	3.8990	0.9928	26.99	1.05	1.500			
0.3575	22881.27	3.8960	3.8960	1.0009	26.98	1.04	1.500			
0.3605	23075.01	3.8930	3.8930	1.0105	26.98	1.04	1.500			
0.3636	23270.82	3.8900	3.8900	1.0162	26.98	1.04	1.500			
0.3667	23466.57	3.8870	3.8870	1.0252	26.97	1.03	1.500			
0.3698	23664.08	3.8840	3.8841	1.0350	26.97	1.03	1.500			
0.3729	23863.69	3.8810	3.8809	1.0499	26.96	1.02	1.500			
0.3760	24065.67	3.8780	3.8779	1.0560	26.96	1.02	1.500			
0.3792	24267.89	3.8750	3.8751	1.0741	26.95	1.01	1.500			
0.3824	24475.86	3.8720	3.8720	1.0864	26.95	1.01	1.500			
0.3858	24688.12	3.8690	3.8689	1.0988	26.94	1.00	1.500			
0.3891	24900.29	3.8660	3.8660	1.1041	26.93	0.99	1.500			
0.3924	25112.43	3.8630	3.8630	1.1189	26.92	0.98	1.500			
0.3957	25327.83	3.8600	3.8601	1.1306	26.91	0.97	1.500			
0.3992	25546.85	3.8570	3.8570	1.1460	26.91	0.97	1.500			
0.4026	25765.11	3.8540	3.8540	1.1587	26.90	0.96	1.500			
0.4061	25990.85	3.8510	3.8511	1.1838	26.89	0.95	1.500			
0.4097	26220.59	3.8480	3.8479	1.2020	26.88	0.94	1.500			
0.4133	26453.23	3.8450	3.8450	1.2178	26.88	0.94	1.500			
0.4170	26686.36	3.8420	3.8420	1.2374	26.87	0.93	1.500			
0.4207	26926.76	3.8390	3.8390	1.2630	26.86	0.92	1.500			
0.4246	27172.14	3.8360	3.8360	1.2837	26.85	0.91	1.500			
0.4284	27420.77	3.8330	3.8330	1.3033	26.85	0.91	1.500			
0.4324	27672.45	3.8300	3.8301	1.3282	26.84	0.90	1.500			
0.4364	27930.54	3.8270	3.8270	1.3539	26.83	0.89	1.500			
0.4405	28190.52	3.8240	3.8240	1.3853	26.82	0.88	1.500			
0.4447	28458.21	3.8210	3.8210	1.4135	26.81	0.87	1.500			
0.4489	28730.62	3.8180	3.8180	1.4523	26.80	0.86	1.500			
0.4534	29015.14	3.8150	3.8150	1.4882	26.78	0.84	1.500			
0.4579	29306.56	3.8120	3.8120	1.5256	26.77	0.83	1.500			
0.4625	29602.93	3.8090	3.8090	1.5571	26.76	0.82	1.500			
0.4673	29905.30	3.8060	3.8061	1.5922	26.75	0.81	1.500			
0.4721	30212.48	3.8030	3.8030	1.6273	26.73	0.79	1.500			
0.4770	30528.11	3.8000	3.8001	1.6679	26.72	0.78	1.500			
0.4820	30850.62	3.7970	3.7970	1.7052	26.70	0.76	1.500			
0.4873	31184.18	3.7940	3.7940	1.7589	26.69	0.75	1.500			
0.4926	31524.73	3.7910	3.7910	1.8099	26.67	0.73	1.500			
0.4981	31878.19	3.7880	3.7881	1.8690	26.66	0.72	1.500			
0.5038	32241.21	3.7850	3.7850	1.9205	26.64	0.70	1.500			
0.5096	32616.87	3.7820	3.7820	1.9644	26.63	0.69	1.500			
0.5156	32999.08	3.7790	3.7790	2.0022	26.61	0.67	1.500			
0.5217	33390.20	3.7760	3.7761	2.0258	26.59	0.65	1.500			
0.5278	33781.08	3.7730	3.7730	2.0517	26.58	0.64	1.500			
0.5340	34173.99	3.7700	3.7700	2.0764	26.56	0.62	1.500			
0.5402	34572.54	3.7670	3.7670	2.1017	26.54	0.60	1.500			
0.5466	34980.14	3.7640	3.7640	2.1300	26.52	0.58	1.500			
0.5530	35393.46	3.7610	3.7609	2.1460	26.50	0.56	1.500	0.362	0.460	
0.5595	35810.71	3.7580	3.7580	2.1217	26.48	0.54	1.500			
0.5659	36219.31	3.7550	3.7551	2.0895	26.47	0.53	1.500			
0.5721	36613.01	3.7520	3.7519	2.0570	26.45	0.51	1.500			
0.5782	37006.00	3.7490	3.7490	2.0446	26.44	0.50	1.500			
0.5843	37396.42	3.7460	3.7461	2.0349	26.42	0.48	1.500			
0.5904	37786.96	3.7430	3.7430	2.0438	26.41	0.47	1.500			
0.5965	38178.87	3.7400	3.7400	2.0381	26.39	0.45	1.500			
0.6026	38568.23	3.7370	3.7371	2.0322	26.38	0.44	1.500			
0.6088	38964.53	3.7340	3.7340	2.0353	26.37	0.43	1.500			
0.6149	39350.47	3.7310	3.7310	2.0603	26.35	0.41	1.500			
0.6210	39745.31	3.7280	3.7281	2.0826	26.34	0.40	1.500			
0.6274	40150.72	3.7250	3.7248	2.1301	26.33	0.39	1.500			
0.6338	40562.96	3.7220	3.7220	2.1989	26.32	0.38	1.500			
0.6405	40991.35	3.7190	3.7189	2.2895	26.30	0.36	1.500			
0.6473	41430.18	3.7160	3.7161	2.3426	26.29	0.35	1.500			
0.6546	41891.41	3.7130	3.7130	2.4378	26.27	0.33	1.500			
0.6620	42367.66	3.7100	3.7100	2.5209	26.25	0.31	1.500			
0.6697	42859.01	3.7070	3.7070	2.6022	26.24	0.30	1.500			
0.6776	43366.14	3.7040	3.7039	2.6797	26.22	0.28	1.500			
0.6858	43889.37	3.7010	3.7010	2.7107	26.21	0.27	1.500			
0.6941	44419.53	3.6980	3.6980	2.6985	26.19	0.25	1.500			
0.7023	44946.65	3.6950	3.6950	2.6744	26.18	0.24	1.500			
0.7103	45458.42	3.6920	3.6920	2.5200	26.17	0.23	1.500			
0.7177	45931.31	3.6890	3.6890	2.3361	26.15	0.21	1.500			
0.7244	46358.63	3.6860	3.6860	2.1316	26.14	0.20	1.500			
0.7304	46742.87	3.6830	3.6830	1.9432	26.13	0.19	1.500			
0.7359	47098.21	3.6800	3.6800	1.7888	26.12	0.18	1.500			
0.7409	47419.92	3.6770	3.6770	1.6679	26.12	0.18	1.500			
0.7457	47722.29	3.6740	3.6740	1.5658	26.11	0.17	1.500			
0.7502	48012.62	3.6710	3.6709	1.4872	26.10	0.16	1.500			
0.7545	48290.28	3.6680	3.6681	1.4215	26.10	0.16	1.500			
0.7587	48554.88	3.6650	3.6651	1.3629	26.09	0.15	1.500			
0.7627	48810.68	3.6620	3.6620	1.3188	26.09	0.15	1.500			
0.7665	49056.87	3.6590	3.6590	1.2850	26.08	0.14	1.500			
0.7702	49293.68	3.6560	3.6560	1.2514	26.08	0.14	1.500			
0.7739	49528.29	3.6530	3.6532	1.2491	26.07	0.13	1.500			
0.7776	49764.17	3.6500	3.6499	1.2526	26.07	0.13	1.500			
0.7813	50004.10	3.6470	3.6470	1.2677	26.06	0.12	1.500			
0.7851	50247.23	3.6440	3.6440	1.2848	26.05	0.11	1.500			
0.7890	50497.88	3.6410	3.6410	1.2948	26.04	0.10	1.500			
0.7930	50750.48	3.6380	3.6380	1.3101	26.04	0.10	1.500			
0.7970	51005.09	3.6350	3.6351	1.3162	26.03	0.09	1.500			
0.8009	51258.17	3.6320	3.6319	1.3122	26.02	0.08	1.500			
0.8048	51509.73	3.6290	3.6290	1.3112	26.01	0.07	1.500			
0.8088	51761.38	3.6260	3.6261	1.3117	26.01	0.07	1.500			
0.8127	52013.30	3.6230	3.6229	1.3104	26.00	0.06	1.500			
0.8166	52265.29	3.6200	3.6200	1.3046	25.99	0.05	1.500			
0.8205	52514.80	3.6170	3.6171	1.3057	25.98	0.04	1.500			
0.8245	52766.59	3.6140	3.6140	1.3092	25.97	0.03	1.500			
0.8284	53018.90	3.6110	3.6110	1.3022	25.97	0.03	1.500			
0.8323	53268.96	3.6080	3.6080	1.2888	25.96	0.02	1.500			
0.8362	53515.65	3.6050	3.6051	1.2793	25.96	0.02	1.500			
0.8400	53761.66	3.6020	3.6020	1.2695	25.95	0.01	1.500			
0.8438	54004.67	3.5990	3.5990	1.2503	25.95	0.01	1.500			
0.8475	54241.74	3.5960	3.5960	1.2315	25.94	0.00	1.500			
0.8512	54477.13	3.5930	3.5931	1.2152	25.94	0.00	1.500			
0.8548	54709.91	3.5900	3.5900	1.2031	25.94	0.00	1.500			
0.8584	54938.05	3.5870	3.5870	1.1934	25.94	0.00	1.500			
0.8619	55162.57	3.5840	3.5840	1.1856	25.94	0.00	1.500			
0.8655	55390.54	3.5810	3.5809	1.1818	25.94	0.00	1.500			
0.8691	55619.59	3.5780	3.5780	1.1722	25.94	0.00	1.500			
0.8727	55855.10	3.5750	3.5749	1.1269	25.94	0.00	1.500			
0.8762	56074.09	3.5720	3.5719	1.0558	25.94	0.00	1.500			
0.8794	56281.90	3.5690	3.5691	0.9558	25.94	0.00	1.500			
0.8822	56457.64	3.5660	3.5662	0.8251	25.94	0.00	1.500			
0.8844	56602.41	3.5630	3.5630	0.6933	25.94	0.00	1.500			
0.8862	56714.88	3.5600	3.5600	0.5617	25.94	0.00	1.500			
0.8875	56799.44	3.5570	3.5570	0.4486	25.94	0.00	1.500			
0.8886	56872.39	3.5540	3.5540	0.3750	25.94	0.00	1.500			
0.8896	56933.31	3.5510	3.5509	0.3065	25.94	0.00	1.500			
0.8904	56984.11	3.5480	3.5479	0.2650	25.94	0.00	1.500			
0.8911	57027.89	3.5450	3.5450	0.2307	25.94	0.00	1.500			
0.8917	57067.39	3.5420	3.5421	0.2056	25.94	0.00	1.500			
0.8923	57104.25	3.5390	3.5388	0.1841	25.94	0.00	1.500			
0.8928	57136.67	3.5360	3.5360	0.1658	25.94	0.00	1.500			
0.8932	57166.41	3.5330	3.5329	0.1486	25.94	0.00	1.500			
0.8936	57193.04	3.5300	3.5301	0.1336	25.94	0.00	1.500			
0.8940	57217.32	3.5270	3.5271	0.1193	25.94	0.00	1.500			
0.8944	57238.58	3.5240	3.5240	0.1047	25.94	0.00	1.500			
0.8946	57257.35	3.5210	3.5211	0.0909	25.94	0.00	1.500			
0.8949	57273.46	3.5180	3.5182	0.0770	25.94	0.00	1.500			
0.8951	57286.68	3.5150	3.5155	0.0639	25.94	0.00	1.500			
0.8953	57297.70	3.5120	3.5127	0.0508	25.94	0.00	1.500			
