Ah_balance (normalized)	Ah_balance (mAh)	Voltage - fit (V)	Voltage -  interpolate (V)	dQ/dV (1/V)	Temperature (°C)	Temperature - diff (°C)	Current (C)	R_DC 0ms (mOhm)	R_DC 50ms (mOhm)	R_DC 50 ms PEC (mOhm)
0.2844	18201.28	3.9720	3.9720	0.8712	26.95	1.01	1.500			
0.2871	18371.44	3.9690	3.9690	0.8838	26.95	1.01	1.500			
0.2897	18540.76	3.9660	3.9659	0.8827	26.95	1.01	1.500			
0.2923	18709.53	3.9630	3.9631	0.8846	26.95	1.01	1.500			
0.2950	18879.18	3.9600	3.9599	0.8876	26.94	1.00	1.500			
0.2976	19049.23	3.9570	3.9570	0.8907	26.94	1.00	1.500			
0.3003	19220.84	3.9540	3.9540	0.8988	26.94	1.00	1.500			
0.3030	19393.25	3.9510	3.9510	0.9039	26.94	1.00	1.500			
0.3058	19569.65	3.9480	3.9480	0.9073	26.93	0.99	1.500			
0.3085	19743.99	3.9450	3.9450	0.9107	26.93	0.99	1.500			
0.3112	19918.40	3.9420	3.9420	0.9159	26.93	0.99	1.500			
0.3140	20094.37	3.9390	3.9390	0.9184	26.93	0.99	1.500			
0.3167	20271.55	3.9360	3.9359	0.9193	26.92	0.98	1.500			
0.3195	20447.49	3.9330	3.9330	0.9219	26.92	0.98	1.500			
0.3223	20624.45	3.9300	3.9301	0.9295	26.91	0.97	1.500			
0.3251	20803.83	3.9270	3.9270	0.9370	26.91	0.97	1.500			
0.3279	20984.43	3.9240	3.9239	0.9320	26.90	0.96	1.500			
0.3307	21162.49	3.9210	3.9210	0.9386	26.90	0.96	1.500			
0.3335	21342.29	3.9180	3.9182	0.9477	26.89	0.95	1.500			
0.3363	21523.92	3.9150	3.9147	0.9610	26.89	0.95	1.500			
0.3392	21708.61	3.9120	3.9120	0.9690	26.89	0.95	1.500			
0.3421	21896.97	3.9090	3.9090	0.9760	26.88	0.94	1.500			
0.3451	22087.35	3.9060	3.9060	0.9888	26.88	0.94	1.500			
0.3481	22277.56	3.9030	3.9031	0.9952	26.87	0.93	1.500			
0.3511	22470.64	3.9000	3.9000	0.9989	26.87	0.93	1.500			
0.3541	22661.11	3.8970	3.8969	1.0045	26.86	0.92	1.500			
0.3571	22854.64	3.8940	3.8940	1.0113	26.86	0.92	1.500			
0.3602	23050.57	3.8910	3.8910	1.0181	26.85	0.91	1.500			
0.3632	23245.12	3.8880	3.8880	1.0319	26.85	0.91	1.500			
0.3663	23442.94	3.8850	3.8851	1.0414	26.84	0.90	1.500			
0.3694	23644.25	3.8820	3.8819	1.0535	26.84	0.90	1.500			
0.3726	23849.35	3.8790	3.8790	1.0679	26.84	0.90	1.500			
0.3758	24053.99	3.8760	3.8761	1.0754	26.83	0.89	1.500			
0.3791	24262.12	3.8730	3.8730	1.0896	26.83	0.89	1.500			
0.3824	24473.71	3.8700	3.8700	1.0999	26.82	0.88	1.500			
0.3857	24683.74	3.8670	3.8670	1.1100	26.82	0.88	1.500			
0.3890	24898.34	3.8640	3.8640	1.1243	26.82	0.88	1.500			
0.3924	25115.25	3.8610	3.8611	1.1406	26.81	0.87	1.500			
0.3959	25335.75	3.8580	3.8580	1.1555	26.80	0.86	1.500			
0.3994	25558.71	3.8550	3.8550	1.1704	26.80	0.86	1.500			
0.4029	25784.99	3.8520	3.8520	1.1896	26.79	0.85	1.500			
0.4065	26013.11	3.8490	3.8491	1.2105	26.79	0.85	1.500			
0.4101	26247.04	3.8460	3.8460	1.2281	26.78	0.84	1.500			
0.4138	26486.20	3.8430	3.8430	1.2478	26.78	0.84	1.500			
0.4176	26726.92	3.8400	3.8400	1.2690	26.77	0.83	1.500			
0.4215	26973.10	3.8370	3.8371	1.2900	26.76	0.82	1.500			
0.4253	27221.73	3.8340	3.8340	1.3191	26.75	0.81	1.500			
0.4293	27476.93	3.8310	3.8310	1.3415	26.74	0.80	1.500			
0.4334	27736.68	3.8280	3.8281	1.3731	26.74	0.80	1.500			
0.4376	28003.29	3.8250	3.8250	1.4050	26.73	0.79	1.500			
0.4418	28276.01	3.8220	3.8220	1.4332	26.72	0.78	1.500			
0.4462	28553.79	3.8190	3.8190	1.4585	26.71	0.77	1.500			
0.4506	28835.93	3.8160	3.8160	1.4920	26.70	0.76	1.500			
0.4551	29124.22	3.8130	3.8130	1.5248	26.69	0.75	1.500			
0.4597	29421.26	3.8100	3.8100	1.5596	26.68	0.74	1.500			
0.4644	29721.74	3.8070	3.8070	1.6034	26.67	0.73	1.500			
0.4693	30035.51	3.8040	3.8040	1.6327	26.66	0.72	1.500			
0.4743	30352.65	3.8010	3.8010	1.6790	26.65	0.71	1.500			
0.4794	30679.21	3.7980	3.7981	1.7244	26.64	0.70	1.500			
0.4846	31012.86	3.7950	3.7949	1.7715	26.62	0.68	1.500			
0.4900	31357.69	3.7920	3.7921	1.8195	26.61	0.67	1.500			
0.4955	31711.21	3.7890	3.7890	1.8545	26.60	0.66	1.500			
0.5012	32074.00	3.7860	3.7860	1.9053	26.58	0.64	1.500			
0.5069	32439.64	3.7830	3.7831	1.9524	26.57	0.63	1.500			
0.5128	32819.62	3.7800	3.7801	2.0214	26.56	0.62	1.500			
0.5191	33219.37	3.7770	3.7769	2.0617	26.54	0.60	1.500			
0.5253	33619.55	3.7740	3.7741	2.1083	26.52	0.58	1.500			
0.5318	34032.66	3.7710	3.7711	2.1529	26.49	0.55	1.500			
0.5382	34447.88	3.7680	3.7679	2.1819	26.48	0.54	1.500			
0.5448	34866.65	3.7650	3.7651	2.2129	26.46	0.52	1.500			
0.5516	35299.71	3.7620	3.7620	2.2849	26.44	0.50	1.500			
0.5584	35737.24	3.7590	3.7591	2.2855	26.43	0.49	1.500	0.369	0.451	
0.5654	36186.96	3.7560	3.7560	2.2673	26.41	0.47	1.500			
0.5721	36616.63	3.7530	3.7531	2.2028	26.39	0.45	1.500			
0.5787	37037.35	3.7500	3.7500	2.1754	26.38	0.44	1.500			
0.5850	37442.11	3.7470	3.7470	2.1350	26.36	0.42	1.500			
0.5915	37852.84	3.7440	3.7440	2.1315	26.35	0.41	1.500			
0.5979	38263.28	3.7410	3.7410	2.1129	26.33	0.39	1.500			
0.6041	38663.43	3.7380	3.7381	2.1016	26.32	0.38	1.500			
0.6104	39063.82	3.7350	3.7349	2.1056	26.30	0.36	1.500			
0.6167	39468.31	3.7320	3.7320	2.1326	26.29	0.35	1.500			
0.6231	39880.82	3.7290	3.7290	2.1464	26.27	0.33	1.500			
0.6296	40295.36	3.7260	3.7260	2.1763	26.26	0.32	1.500			
0.6361	40707.67	3.7230	3.7229	2.2118	26.24	0.30	1.500			
0.6428	41137.56	3.7200	3.7200	2.2694	26.23	0.29	1.500			
0.6497	41578.43	3.7170	3.7170	2.3739	26.22	0.28	1.500			
0.6569	42041.91	3.7140	3.7140	2.4605	26.21	0.27	1.500			
0.6645	42528.05	3.7110	3.7110	2.5219	26.19	0.25	1.500			
0.6722	43018.32	3.7080	3.7081	2.5942	26.18	0.24	1.500			
0.6801	43525.03	3.7050	3.7050	2.6824	26.16	0.22	1.500			
0.6881	44040.14	3.7020	3.7020	2.7460	26.15	0.21	1.500			
0.6965	44576.85	3.6990	3.6991	2.8018	26.13	0.19	1.500			
0.7051	45128.29	3.6960	3.6960	2.7909	26.11	0.17	1.500			
0.7135	45665.05	3.6930	3.6930	2.7393	26.10	0.16	1.500			
0.7217	46188.59	3.6900	3.6900	2.5690	26.09	0.15	1.500			
0.7291	46665.15	3.6870	3.6870	2.3570	26.09	0.15	1.500			
0.7358	47090.04	3.6840	3.6840	2.1331	26.08	0.14	1.500			
0.7418	47474.61	3.6810	3.6810	1.9503	26.08	0.14	1.500			
0.7473	47828.69	3.6780	3.6779	1.7788	26.07	0.13	1.500			
0.7523	48145.85	3.6750	3.6750	1.6602	26.07	0.13	1.500			
0.7571	48452.00	3.6720	3.6720	1.5617	26.06	0.12	1.500			
0.7616	48741.43	3.6690	3.6688	1.4820	26.06	0.12	1.500			
0.7659	49015.39	3.6660	3.6660	1.4035	26.05	0.11	1.500			
0.7699	49275.52	3.6630	3.6630	1.3507	26.05	0.11	1.500			
0.7739	49528.05	3.6600	3.6600	1.2993	26.04	0.10	1.500			
0.7776	49767.67	3.6570	3.6569	1.2566	26.03	0.09	1.500			
0.7813	50000.40	3.6540	3.6541	1.2547	26.03	0.09	1.500			
0.7849	50235.90	3.6510	3.6510	1.2532	26.02	0.08	1.500			
0.7887	50476.45	3.6480	3.6479	1.2611	26.02	0.08	1.500			
0.7925	50719.90	3.6450	3.6451	1.2739	26.01	0.07	1.500			
0.7964	50966.71	3.6420	3.6421	1.2811	26.00	0.06	1.500			
0.8003	51217.47	3.6390	3.6389	1.2984	26.00	0.06	1.500			
0.8042	51466.11	3.6360	3.6360	1.3032	25.99	0.05	1.500			
0.8080	51714.90	3.6330	3.6330	1.3062	25.99	0.05	1.500			
0.8120	51967.49	3.6300	3.6300	1.3191	25.98	0.04	1.500			
0.8160	52224.37	3.6270	3.6269	1.3164	25.97	0.03	1.500			
0.8200	52478.57	3.6240	3.6241	1.3136	25.97	0.03	1.500			
0.8239	52730.28	3.6210	3.6210	1.3080	25.96	0.02	1.500			
0.8278	52979.11	3.6180	3.6180	1.3000	25.95	0.01	1.500			
0.8317	53226.96	3.6150	3.6150	1.2976	25.95	0.01	1.500			
0.8356	53475.71	3.6120	3.6120	1.2966	25.94	0.00	1.500			
0.8395	53725.52	3.6090	3.6090	1.2949	25.94	-0.00	1.500			
0.8434	53977.21	3.6060	3.6061	1.2938	25.94	-0.00	1.500			
0.8473	54225.74	3.6030	3.6030	1.2838	25.94	-0.00	1.500			
0.8511	54471.43	3.6000	3.6001	1.2704	25.93	-0.01	1.500			
0.8549	54715.95	3.5970	3.5970	1.2443	25.93	-0.01	1.500			
0.8586	54951.41	3.5940	3.5940	1.2262	25.93	-0.01	1.500			
0.8623	55184.37	3.5910	3.5911	1.2132	25.93	-0.01	1.500			
0.8658	55413.70	3.5880	3.5879	1.2032	25.93	-0.01	1.500			
0.8694	55641.82	3.5850	3.5849	1.1981	25.93	-0.01	1.500			
0.8730	55869.98	3.5820	3.5821	1.2008	25.93	-0.01	1.500			
0.8766	56100.63	3.5790	3.5789	1.2115	25.94	-0.00	1.500			
0.8803	56340.53	3.5760	3.5760	1.2060	25.94	-0.00	1.500			
0.8840	56575.59	3.5730	3.5728	1.1732	25.94	-0.00	1.500			
0.8876	56808.57	3.5700	3.5700	1.0905	25.94	0.00	1.500			
0.8910	57023.22	3.5670	3.5670	0.9968	25.94	0.00	1.500			
0.8939	57207.32	3.5640	3.5643	0.8557	25.94	0.00	1.500			
0.8962	57357.74	3.5610	3.5610	0.7045	25.94	0.00	1.500			
0.8979	57466.81	3.5580	3.5580	0.5677	25.94	0.00	1.500			
0.8993	57554.69	3.5550	3.5549	0.4598	25.95	0.01	1.500			
0.9004	57625.81	3.5520	3.5520	0.3597	25.95	0.01	1.500			
0.9013	57684.63	3.5490	3.5489	0.3043	25.95	0.01	1.500			
0.9021	57732.36	3.5460	3.5460	0.2563	25.95	0.01	1.500			
0.9027	57775.40	3.5430	3.5429	0.2254	25.95	0.01	1.500			
0.9033	57813.43	3.5400	3.5400	0.1954	25.95	0.01	1.500			
0.9039	57847.73	3.5370	3.5371	0.1753	25.95	0.01	1.500			
0.9044	57879.07	3.5340	3.5339	0.1558	25.95	0.01	1.500			
0.9048	57906.57	3.5310	3.5310	0.1386	25.95	0.01	1.500			
0.9052	57931.68	3.5280	3.5279	0.1229	25.95	0.01	1.500			
0.9055	57953.23	3.5250	3.5250	0.1067	25.95	0.01	1.500			
0.9058	57972.49	3.5220	3.5221	0.0919	25.95	0.01	1.500			
0.9061	57988.67	3.5190	3.5192	0.0766	25.95	0.01	1.500			
0.9063	58001.94	3.5160	3.5164	0.0612	25.95	0.01	1.500			
0.9064	58012.22	3.5130	3.5135	0.0458	25.95	0.01	1.500			
