Ah_balance (normalized)	Ah_balance (mAh)	Voltage - fit (V)	Voltage -  interpolate (V)	dQ/dV (1/V)	Temperature (°C)	Temperature - diff (°C)	Current (C)	R_DC 0ms (mOhm)	R_DC 50ms (mOhm)	R_DC 50 ms PEC (mOhm)
0.2916	18665.60	3.9760	3.9761	0.8609	27.19	1.22	1.500			
0.2942	18831.67	3.9730	3.9729	0.8679	27.19	1.22	1.500			
0.2968	18998.02	3.9700	3.9701	0.8693	27.18	1.21	1.500			
0.2995	19165.54	3.9670	3.9670	0.8729	27.18	1.21	1.500			
0.3021	19334.62	3.9640	3.9640	0.8780	27.17	1.20	1.500			
0.3047	19502.38	3.9610	3.9610	0.8783	27.17	1.20	1.500			
0.3074	19670.43	3.9580	3.9581	0.8792	27.16	1.19	1.500			
0.3100	19840.71	3.9550	3.9550	0.8860	27.16	1.19	1.500			
0.3127	20010.24	3.9520	3.9520	0.8889	27.15	1.18	1.500			
0.3153	20181.30	3.9490	3.9490	0.8916	27.15	1.18	1.500			
0.3180	20353.22	3.9460	3.9459	0.8936	27.14	1.17	1.500			
0.3207	20523.67	3.9430	3.9430	0.8996	27.14	1.17	1.500			
0.3234	20696.74	3.9400	3.9401	0.9023	27.13	1.16	1.500			
0.3261	20870.12	3.9370	3.9370	0.9097	27.13	1.16	1.500			
0.3288	21045.59	3.9340	3.9339	0.9152	27.12	1.15	1.500			
0.3316	21222.84	3.9310	3.9311	0.9202	27.11	1.14	1.500			
0.3344	21401.36	3.9280	3.9280	0.9250	27.11	1.14	1.500			
0.3372	21578.76	3.9250	3.9250	0.9283	27.10	1.13	1.500			
0.3399	21755.09	3.9220	3.9221	0.9347	27.10	1.13	1.500			
0.3428	21936.54	3.9190	3.9189	0.9378	27.09	1.12	1.500			
0.3456	22116.33	3.9160	3.9159	0.9405	27.09	1.12	1.500			
0.3484	22296.99	3.9130	3.9130	0.9490	27.08	1.11	1.500			
0.3512	22479.96	3.9100	3.9101	0.9551	27.07	1.10	1.500			
0.3541	22664.62	3.9070	3.9069	0.9612	27.07	1.10	1.500			
0.3570	22847.80	3.9040	3.9040	0.9718	27.06	1.09	1.500			
0.3599	23033.79	3.9010	3.9010	0.9765	27.06	1.09	1.500			
0.3629	23224.80	3.8980	3.8980	0.9893	27.06	1.09	1.500			
0.3659	23415.02	3.8950	3.8950	0.9996	27.05	1.08	1.500			
0.3689	23608.36	3.8920	3.8921	1.0051	27.05	1.08	1.500			
0.3719	23802.41	3.8890	3.8890	1.0171	27.04	1.07	1.500			
0.3750	23998.63	3.8860	3.8860	1.0239	27.04	1.07	1.500			
0.3780	24195.13	3.8830	3.8830	1.0299	27.03	1.06	1.500			
0.3812	24394.42	3.8800	3.8800	1.0435	27.02	1.05	1.500			
0.3843	24594.95	3.8770	3.8770	1.0513	27.02	1.05	1.500			
0.3874	24796.24	3.8740	3.8740	1.0616	27.01	1.04	1.500			
0.3907	25002.95	3.8710	3.8710	1.0741	27.00	1.03	1.500			
0.3939	25209.36	3.8680	3.8680	1.0820	26.99	1.02	1.500			
0.3972	25418.47	3.8650	3.8650	1.0982	26.99	1.02	1.500			
0.4005	25630.13	3.8620	3.8620	1.1101	26.98	1.01	1.500			
0.4038	25842.56	3.8590	3.8590	1.1242	26.97	1.00	1.500			
0.4072	26059.90	3.8560	3.8560	1.1447	26.96	0.99	1.500			
0.4107	26281.77	3.8530	3.8530	1.1600	26.95	0.98	1.500			
0.4142	26507.90	3.8500	3.8500	1.1771	26.94	0.97	1.500			
0.4177	26735.88	3.8470	3.8470	1.1890	26.93	0.96	1.500			
0.4213	26963.41	3.8440	3.8440	1.2101	26.92	0.95	1.500			
0.4249	27196.58	3.8410	3.8410	1.2305	26.91	0.94	1.500			
0.4286	27433.53	3.8380	3.8378	1.2559	26.90	0.93	1.500			
0.4324	27675.78	3.8350	3.8351	1.2806	26.89	0.92	1.500			
0.4363	27925.98	3.8320	3.8320	1.3042	26.88	0.91	1.500			
0.4404	28182.99	3.8290	3.8290	1.3199	26.87	0.90	1.500			
0.4443	28434.27	3.8260	3.8261	1.3476	26.86	0.89	1.500			
0.4484	28694.42	3.8230	3.8230	1.3772	26.85	0.88	1.500			
0.4525	28960.31	3.8200	3.8199	1.4058	26.84	0.87	1.500			
0.4568	29232.23	3.8170	3.8171	1.4415	26.83	0.86	1.500			
0.4611	29512.55	3.8140	3.8141	1.4770	26.82	0.85	1.500			
0.4656	29800.66	3.8110	3.8109	1.5146	26.81	0.84	1.500			
0.4702	30095.26	3.8080	3.8081	1.5430	26.80	0.83	1.500			
0.4749	30394.92	3.8050	3.8050	1.5830	26.79	0.82	1.500			
0.4797	30702.72	3.8020	3.8020	1.6224	26.78	0.81	1.500			
0.4847	31018.97	3.7990	3.7990	1.6564	26.76	0.79	1.500			
0.4897	31337.66	3.7960	3.7960	1.6873	26.74	0.77	1.500			
0.4948	31665.41	3.7930	3.7930	1.7262	26.73	0.76	1.500			
0.5000	31997.87	3.7900	3.7900	1.7853	26.71	0.74	1.500			
0.5054	32343.15	3.7870	3.7870	1.8357	26.69	0.72	1.500			
0.5110	32702.76	3.7840	3.7840	1.8807	26.68	0.71	1.500			
0.5167	33070.21	3.7810	3.7811	1.9223	26.66	0.69	1.500			
0.5225	33441.78	3.7780	3.7780	1.9445	26.64	0.67	1.500			
0.5284	33818.57	3.7750	3.7749	1.9683	26.62	0.65	1.500			
0.5344	34202.91	3.7720	3.7721	1.9905	26.60	0.63	1.500			
0.5404	34588.32	3.7690	3.7690	2.0218	26.58	0.61	1.500			
0.5466	34980.69	3.7660	3.7660	2.0289	26.56	0.59	1.500	0.358	0.458	
0.5527	35370.59	3.7630	3.7629	2.0329	26.54	0.57	1.500			
0.5588	35765.80	3.7600	3.7600	2.0304	26.52	0.55	1.500			
0.5649	36156.39	3.7570	3.7570	1.9993	26.50	0.53	1.500			
0.5708	36532.70	3.7540	3.7542	1.9773	26.49	0.52	1.500			
0.5768	36912.83	3.7510	3.7509	1.9763	26.47	0.50	1.500			
0.5827	37292.12	3.7480	3.7480	1.9555	26.45	0.48	1.500			
0.5885	37661.88	3.7450	3.7452	1.9337	26.44	0.47	1.500			
0.5943	38035.93	3.7420	3.7420	1.9274	26.42	0.45	1.500			
0.6000	38399.77	3.7390	3.7389	1.9494	26.41	0.44	1.500			
0.6059	38777.53	3.7360	3.7360	2.0014	26.39	0.42	1.500			
0.6120	39165.59	3.7330	3.7331	2.0413	26.38	0.41	1.500			
0.6182	39563.01	3.7300	3.7300	2.0822	26.37	0.40	1.500			
0.6245	39965.96	3.7270	3.7269	2.0984	26.35	0.38	1.500			
0.6308	40372.34	3.7240	3.7240	2.1460	26.34	0.37	1.500			
0.6373	40784.41	3.7210	3.7210	2.1837	26.33	0.36	1.500			
0.6438	41203.26	3.7180	3.7181	2.2661	26.32	0.35	1.500			
0.6507	41645.36	3.7150	3.7149	2.3617	26.30	0.33	1.500			
0.6580	42112.25	3.7120	3.7120	2.4624	26.29	0.32	1.500			
0.6655	42589.60	3.7090	3.7091	2.5065	26.28	0.31	1.500			
0.6731	43078.82	3.7060	3.7061	2.5671	26.26	0.29	1.500			
0.6809	43578.69	3.7030	3.7029	2.6398	26.25	0.28	1.500			
0.6889	44091.13	3.7000	3.7000	2.6354	26.24	0.27	1.500			
0.6971	44612.63	3.6970	3.6970	2.5799	26.23	0.26	1.500			
0.7047	45099.90	3.6940	3.6939	2.4634	26.22	0.25	1.500			
0.7119	45560.54	3.6910	3.6910	2.2949	26.21	0.24	1.500			
0.7185	45986.05	3.6880	3.6880	2.1187	26.20	0.23	1.500			
0.7246	46371.52	3.6850	3.6851	1.9484	26.19	0.22	1.500			
0.7301	46726.68	3.6820	3.6820	1.8005	26.18	0.21	1.500			
0.7352	47054.34	3.6790	3.6789	1.6621	26.17	0.20	1.500			
0.7400	47360.97	3.6760	3.6759	1.5670	26.16	0.19	1.500			
0.7445	47647.23	3.6730	3.6731	1.4817	26.15	0.18	1.500			
0.7488	47922.06	3.6700	3.6701	1.4127	26.15	0.18	1.500			
0.7529	48184.33	3.6670	3.6668	1.3586	26.14	0.17	1.500			
0.7568	48434.33	3.6640	3.6641	1.3087	26.13	0.16	1.500			
0.7606	48680.62	3.6610	3.6610	1.2807	26.13	0.16	1.500			
0.7644	48923.36	3.6580	3.6580	1.2689	26.12	0.15	1.500			
0.7682	49163.32	3.6550	3.6550	1.2669	26.12	0.15	1.500			
0.7719	49399.67	3.6520	3.6520	1.2656	26.11	0.14	1.500			
0.7757	49644.33	3.6490	3.6490	1.2796	26.10	0.13	1.500			
0.7795	49888.87	3.6460	3.6460	1.2932	26.10	0.13	1.500			
0.7835	50142.07	3.6430	3.6430	1.3002	26.09	0.12	1.500			
0.7874	50394.16	3.6400	3.6400	1.3123	26.08	0.11	1.500			
0.7914	50646.98	3.6370	3.6370	1.3132	26.07	0.10	1.500			
0.7953	50899.94	3.6340	3.6339	1.3100	26.06	0.09	1.500			
0.7992	51151.46	3.6310	3.6310	1.3068	26.05	0.08	1.500			
0.8032	51402.91	3.6280	3.6279	1.3038	26.04	0.07	1.500			
0.8071	51651.85	3.6250	3.6251	1.3014	26.03	0.06	1.500			
0.8110	51902.53	3.6220	3.6220	1.3059	26.03	0.06	1.500			
0.8149	52152.43	3.6190	3.6190	1.2928	26.02	0.05	1.500			
0.8188	52400.14	3.6160	3.6160	1.2904	26.02	0.05	1.500			
0.8227	52649.87	3.6130	3.6131	1.2838	26.01	0.04	1.500			
0.8265	52896.32	3.6100	3.6101	1.2767	26.00	0.03	1.500			
0.8303	53140.16	3.6070	3.6070	1.2661	26.00	0.03	1.500			
0.8341	53380.66	3.6040	3.6040	1.2509	25.99	0.02	1.500			
0.8378	53621.10	3.6010	3.6010	1.2349	25.99	0.02	1.500			
0.8416	53860.96	3.5980	3.5980	1.2200	25.98	0.01	1.500			
0.8452	54090.39	3.5950	3.5951	1.1998	25.97	0.00	1.500			
0.8487	54319.61	3.5920	3.5920	1.1877	25.97	-0.00	1.500			
0.8522	54543.72	3.5890	3.5889	1.1703	25.96	-0.01	1.500			
0.8557	54766.79	3.5860	3.5860	1.1604	25.96	-0.01	1.500			
0.8592	54988.79	3.5830	3.5831	1.1502	25.96	-0.01	1.500			
0.8627	55214.16	3.5800	3.5799	1.1206	25.96	-0.01	1.500			
0.8662	55435.08	3.5770	3.5769	1.0787	25.97	-0.00	1.500			
0.8695	55648.36	3.5740	3.5740	0.9973	25.97	-0.00	1.500			
0.8724	55835.75	3.5710	3.5711	0.8931	25.97	-0.00	1.500			
0.8750	56001.34	3.5680	3.5681	0.7759	25.97	-0.00	1.500			
0.8771	56135.97	3.5650	3.5650	0.6422	25.97	-0.00	1.500			
0.8787	56238.98	3.5620	3.5619	0.5239	25.97	0.00	1.500			
0.8801	56324.57	3.5590	3.5590	0.4312	25.97	0.00	1.500			
0.8811	56391.97	3.5560	3.5560	0.3554	25.97	0.00	1.500			
0.8820	56451.06	3.5530	3.5530	0.3055	25.97	0.00	1.500			
0.8828	56502.33	3.5500	3.5499	0.2593	25.97	0.00	1.500			
0.8835	56546.68	3.5470	3.5470	0.2303	25.97	0.00	1.500			
0.8842	56586.62	3.5440	3.5439	0.2065	25.97	0.00	1.500			
0.8847	56622.44	3.5410	3.5409	0.1859	25.97	0.00	1.500			
0.8852	56655.96	3.5380	3.5380	0.1676	25.97	0.00	1.500			
0.8857	56685.79	3.5350	3.5351	0.1520	25.97	0.00	1.500			
0.8861	56713.36	3.5320	3.5319	0.1369	25.97	0.00	1.500			
0.8865	56737.88	3.5290	3.5290	0.1218	25.97	0.00	1.500			
0.8869	56759.94	3.5260	3.5260	0.1080	25.97	0.00	1.500			
0.8872	56779.38	3.5230	3.5231	0.0942	25.97	0.00	1.500			
0.8874	56796.38	3.5200	3.5201	0.0805	25.97	0.00	1.500			
0.8877	56810.47	3.5170	3.5173	0.0663	25.97	0.00	1.500			
0.8878	56821.95	3.5140	3.5145	0.0516	25.97	0.00	1.500			
0.8880	56830.45	3.5110	3.5115	0.0370	25.97	0.00	1.500			
