Ah_balance (normalized)	Ah_balance (mAh)	Voltage - fit (V)	Voltage -  interpolate (V)	dQ/dV (1/V)	Temperature (°C)	Temperature - diff (°C)	Current (C)	R_DC 0ms (mOhm)	R_DC 50ms (mOhm)	R_DC 50 ms PEC (mOhm)
0.2730	17471.10	3.9840	3.9840	0.8927	27.22	1.26	1.500			
0.2756	17640.06	3.9810	3.9810	0.8712	27.21	1.25	1.500			
0.2782	17805.32	3.9780	3.9781	0.8647	27.21	1.25	1.500			
0.2808	17971.06	3.9750	3.9750	0.8634	27.20	1.24	1.500			
0.2834	18135.97	3.9720	3.9719	0.8630	27.20	1.24	1.500			
0.2860	18301.28	3.9690	3.9691	0.8674	27.20	1.24	1.500			
0.2886	18468.32	3.9660	3.9659	0.8729	27.19	1.23	1.500			
0.2912	18636.16	3.9630	3.9631	0.8799	27.19	1.23	1.500			
0.2938	18805.16	3.9600	3.9600	0.8834	27.18	1.22	1.500			
0.2965	18975.60	3.9570	3.9570	0.8854	27.18	1.22	1.500			
0.2992	19147.81	3.9540	3.9540	0.8923	27.18	1.22	1.500			
0.3019	19318.63	3.9510	3.9510	0.8971	27.17	1.21	1.500			
0.3046	19492.07	3.9480	3.9480	0.8980	27.17	1.21	1.500			
0.3073	19664.08	3.9450	3.9450	0.9046	27.16	1.20	1.500			
0.3100	19838.18	3.9420	3.9420	0.9075	27.16	1.20	1.500			
0.3127	20013.68	3.9390	3.9391	0.9124	27.15	1.19	1.500			
0.3155	20189.67	3.9360	3.9360	0.9192	27.15	1.19	1.500			
0.3182	20365.31	3.9330	3.9330	0.9223	27.14	1.18	1.500			
0.3210	20542.11	3.9300	3.9300	0.9256	27.14	1.18	1.500			
0.3238	20721.63	3.9270	3.9270	0.9304	27.13	1.17	1.500			
0.3266	20900.88	3.9240	3.9240	0.9325	27.12	1.16	1.500			
0.3294	21081.23	3.9210	3.9210	0.9378	27.12	1.16	1.500			
0.3322	21260.20	3.9180	3.9180	0.9468	27.11	1.15	1.500			
0.3350	21441.76	3.9150	3.9150	0.9507	27.10	1.14	1.500			
0.3379	21625.11	3.9120	3.9119	0.9593	27.10	1.14	1.500			
0.3408	21810.54	3.9090	3.9091	0.9675	27.09	1.13	1.500			
0.3437	21997.14	3.9060	3.9060	0.9759	27.08	1.12	1.500			
0.3467	22186.75	3.9030	3.9030	0.9797	27.08	1.12	1.500			
0.3496	22374.60	3.9000	3.9000	0.9846	27.07	1.11	1.500			
0.3525	22562.16	3.8970	3.8970	0.9888	27.06	1.10	1.500			
0.3555	22753.39	3.8940	3.8940	1.0004	27.06	1.10	1.500			
0.3585	22945.26	3.8910	3.8909	1.0095	27.05	1.09	1.500			
0.3616	23141.13	3.8880	3.8880	1.0112	27.05	1.09	1.500			
0.3646	23336.03	3.8850	3.8850	1.0154	27.04	1.08	1.500			
0.3677	23532.32	3.8820	3.8821	1.0289	27.03	1.07	1.500			
0.3708	23729.12	3.8790	3.8789	1.0356	27.03	1.07	1.500			
0.3739	23927.34	3.8760	3.8759	1.0450	27.02	1.06	1.500			
0.3770	24128.67	3.8730	3.8731	1.0586	27.01	1.05	1.500			
0.3802	24333.36	3.8700	3.8700	1.0678	27.00	1.04	1.500			
0.3834	24539.84	3.8670	3.8671	1.0876	27.00	1.04	1.500			
0.3867	24748.05	3.8640	3.8640	1.1030	26.99	1.03	1.500			
0.3900	24960.88	3.8610	3.8607	1.1156	26.98	1.02	1.500			
0.3934	25176.92	3.8580	3.8580	1.1329	26.97	1.01	1.500			
0.3968	25396.56	3.8550	3.8551	1.1509	26.96	1.00	1.500			
0.4003	25621.57	3.8520	3.8519	1.1667	26.95	0.99	1.500			
0.4038	25846.03	3.8490	3.8490	1.1730	26.94	0.98	1.500			
0.4074	26070.46	3.8460	3.8461	1.1959	26.93	0.97	1.500			
0.4109	26300.41	3.8430	3.8430	1.2163	26.92	0.96	1.500			
0.4146	26536.92	3.8400	3.8398	1.2438	26.91	0.95	1.500			
0.4184	26777.25	3.8370	3.8370	1.2653	26.90	0.94	1.500			
0.4222	27023.25	3.8340	3.8341	1.2903	26.89	0.93	1.500			
0.4262	27278.52	3.8310	3.8310	1.3095	26.88	0.92	1.500			
0.4302	27529.62	3.8280	3.8280	1.3234	26.87	0.91	1.500			
0.4341	27782.85	3.8250	3.8251	1.3494	26.86	0.90	1.500			
0.4382	28041.98	3.8220	3.8220	1.3771	26.85	0.89	1.500			
0.4423	28307.82	3.8190	3.8190	1.4112	26.83	0.87	1.500			
0.4466	28582.59	3.8160	3.8161	1.4433	26.82	0.86	1.500			
0.4510	28863.68	3.8130	3.8130	1.4697	26.81	0.85	1.500			
0.4555	29152.23	3.8100	3.8100	1.5093	26.80	0.84	1.500			
0.4600	29441.45	3.8070	3.8071	1.5335	26.78	0.82	1.500			
0.4646	29737.39	3.8040	3.8038	1.5728	26.77	0.81	1.500			
0.4694	30041.13	3.8010	3.8011	1.6120	26.76	0.80	1.500			
0.4743	30354.65	3.7980	3.7980	1.6553	26.74	0.78	1.500			
0.4793	30678.00	3.7950	3.7950	1.7060	26.72	0.76	1.500			
0.4845	31009.64	3.7920	3.7920	1.7320	26.71	0.75	1.500			
0.4898	31346.27	3.7890	3.7889	1.7838	26.69	0.73	1.500			
0.4952	31692.61	3.7860	3.7860	1.8275	26.68	0.72	1.500			
0.5008	32048.16	3.7830	3.7828	1.8166	26.66	0.70	1.500			
0.5062	32396.91	3.7800	3.7801	1.8452	26.64	0.68	1.500			
0.5117	32751.01	3.7770	3.7771	1.8702	26.63	0.67	1.500			
0.5173	33109.20	3.7740	3.7740	1.9140	26.61	0.65	1.500			
0.5231	33479.64	3.7710	3.7711	1.9315	26.59	0.63	1.500			
0.5291	33861.71	3.7680	3.7680	1.9865	26.57	0.61	1.500	0.351	0.453	
0.5351	34245.99	3.7650	3.7651	1.9823	26.56	0.60	1.500			
0.5411	34631.93	3.7620	3.7620	1.9998	26.54	0.58	1.500			
0.5471	35012.78	3.7590	3.7590	1.9911	26.52	0.56	1.500			
0.5530	35394.23	3.7560	3.7560	1.9795	26.51	0.55	1.500			
0.5590	35774.44	3.7530	3.7530	1.9609	26.49	0.53	1.500			
0.5649	36152.77	3.7500	3.7499	1.9645	26.48	0.52	1.500			
0.5707	36526.88	3.7470	3.7470	1.9532	26.47	0.51	1.500			
0.5766	36899.46	3.7440	3.7440	1.9590	26.45	0.49	1.500			
0.5824	37275.67	3.7410	3.7410	1.9691	26.44	0.48	1.500			
0.5884	37656.76	3.7380	3.7379	2.0026	26.42	0.46	1.500			
0.5944	38042.23	3.7350	3.7350	2.0316	26.41	0.45	1.500			
0.6006	38438.97	3.7320	3.7320	2.0405	26.40	0.44	1.500			
0.6067	38830.75	3.7290	3.7289	2.0761	26.39	0.43	1.500			
0.6130	39234.44	3.7260	3.7259	2.1279	26.37	0.41	1.500			
0.6195	39644.95	3.7230	3.7230	2.1738	26.36	0.40	1.500			
0.6260	40065.67	3.7200	3.7201	2.2288	26.35	0.39	1.500			
0.6328	40500.99	3.7170	3.7170	2.3127	26.33	0.37	1.500			
0.6397	40943.88	3.7140	3.7139	2.3967	26.32	0.36	1.500			
0.6471	41413.52	3.7110	3.7110	2.5139	26.30	0.34	1.500			
0.6547	41900.73	3.7080	3.7080	2.5434	26.28	0.32	1.500			
0.6625	42399.17	3.7050	3.7050	2.5956	26.27	0.31	1.500			
0.6703	42899.05	3.7020	3.7021	2.6180	26.25	0.29	1.500			
0.6784	43415.84	3.6990	3.6990	2.6463	26.24	0.28	1.500			
0.6861	43910.93	3.6960	3.6960	2.5072	26.23	0.27	1.500			
0.6936	44389.53	3.6930	3.6931	2.3775	26.21	0.25	1.500			
0.7006	44836.36	3.6900	3.6900	2.1895	26.20	0.24	1.500			
0.7067	45228.57	3.6870	3.6871	2.0146	26.19	0.23	1.500			
0.7124	45593.89	3.6840	3.6840	1.8500	26.18	0.22	1.500			
0.7177	45932.52	3.6810	3.6810	1.7218	26.18	0.22	1.500			
0.7226	46248.12	3.6780	3.6780	1.6126	26.17	0.21	1.500			
0.7273	46545.52	3.6750	3.6750	1.5218	26.16	0.20	1.500			
0.7317	46828.14	3.6720	3.6720	1.4457	26.15	0.19	1.500			
0.7359	47094.44	3.6690	3.6690	1.3774	26.15	0.19	1.500			
0.7398	47349.03	3.6660	3.6660	1.3359	26.14	0.18	1.500			
0.7437	47595.80	3.6630	3.6630	1.2955	26.13	0.17	1.500			
0.7475	47839.05	3.6600	3.6599	1.2782	26.12	0.16	1.500			
0.7513	48081.27	3.6570	3.6570	1.2670	26.12	0.16	1.500			
0.7550	48320.47	3.6540	3.6540	1.2689	26.11	0.15	1.500			
0.7588	48563.16	3.6510	3.6510	1.2802	26.10	0.14	1.500			
0.7627	48809.67	3.6480	3.6480	1.2878	26.09	0.13	1.500			
0.7665	49059.14	3.6450	3.6450	1.2986	26.09	0.13	1.500			
0.7705	49312.06	3.6420	3.6421	1.3126	26.08	0.12	1.500			
0.7745	49566.54	3.6390	3.6390	1.3157	26.07	0.11	1.500			
0.7784	49820.75	3.6360	3.6360	1.3192	26.06	0.10	1.500			
0.7824	50071.92	3.6330	3.6330	1.3149	26.06	0.10	1.500			
0.7863	50325.87	3.6300	3.6300	1.3106	26.05	0.09	1.500			
0.7903	50578.00	3.6270	3.6269	1.3105	26.04	0.08	1.500			
0.7942	50828.07	3.6240	3.6240	1.3051	26.03	0.07	1.500			
0.7981	51077.51	3.6210	3.6210	1.3062	26.02	0.06	1.500			
0.8020	51329.20	3.6180	3.6179	1.3017	26.01	0.05	1.500			
0.8059	51578.57	3.6150	3.6150	1.2974	26.00	0.04	1.500			
0.8098	51828.91	3.6120	3.6121	1.2958	25.99	0.03	1.500			
0.8137	52078.92	3.6090	3.6090	1.2921	25.98	0.02	1.500			
0.8176	52326.93	3.6060	3.6059	1.2801	25.98	0.02	1.500			
0.8214	52571.90	3.6030	3.6030	1.2661	25.97	0.01	1.500			
0.8252	52813.30	3.6000	3.6001	1.2510	25.97	0.01	1.500			
0.8290	53054.12	3.5970	3.5970	1.2432	25.97	0.01	1.500			
0.8326	53289.21	3.5940	3.5939	1.2243	25.97	0.01	1.500			
0.8363	53522.51	3.5910	3.5909	1.2134	25.96	0.00	1.500			
0.8399	53753.78	3.5880	3.5880	1.2023	25.96	0.00	1.500			
0.8435	53985.08	3.5850	3.5850	1.1901	25.96	0.00	1.500			
0.8471	54216.40	3.5820	3.5819	1.1741	25.96	0.00	1.500			
0.8507	54442.80	3.5790	3.5790	1.1365	25.96	0.00	1.500			
0.8541	54664.74	3.5760	3.5760	1.0625	25.96	0.00	1.500			
0.8574	54873.34	3.5730	3.5730	0.9752	25.96	0.00	1.500			
0.8602	55053.90	3.5700	3.5701	0.8505	25.96	0.00	1.500			
0.8626	55206.10	3.5670	3.5671	0.7207	25.96	0.00	1.500			
0.8645	55326.03	3.5640	3.5639	0.5965	25.96	0.00	1.500			
0.8660	55423.02	3.5610	3.5610	0.4905	25.96	0.00	1.500			
0.8671	55497.42	3.5580	3.5579	0.4019	25.96	0.00	1.500			
0.8682	55563.05	3.5550	3.5549	0.3420	25.96	0.00	1.500			
0.8691	55619.84	3.5520	3.5519	0.2880	25.96	0.00	1.500			
0.8698	55667.83	3.5490	3.5490	0.2525	25.96	0.00	1.500			
0.8705	55710.33	3.5460	3.5460	0.2246	25.96	0.00	1.500			
0.8711	55750.15	3.5430	3.5430	0.2047	25.96	0.00	1.500			
0.8717	55786.89	3.5400	3.5400	0.1854	25.96	0.00	1.500			
0.8722	55819.89	3.5370	3.5370	0.1691	25.96	0.00	1.500			
0.8727	55850.58	3.5340	3.5340	0.1544	25.96	0.00	1.500			
0.8731	55878.74	3.5310	3.5311	0.1403	25.96	0.00	1.500			
0.8735	55904.43	3.5280	3.5280	0.1266	25.96	0.00	1.500			
0.8739	55927.59	3.5250	3.5250	0.1132	25.96	0.00	1.500			
0.8742	55947.89	3.5220	3.5220	0.0992	25.96	0.00	1.500			
0.8745	55965.46	3.5190	3.5191	0.0853	25.96	0.00	1.500			
0.8747	55980.54	3.5160	3.5162	0.0718	25.96	0.00	1.500			
0.8749	55993.23	3.5130	3.5134	0.0578	25.96	0.00	1.500			
0.8750	56002.97	3.5100	3.5106	0.0437	25.96	0.00	1.500			
