Ah_balance (normalized)	Ah_balance (mAh)	Voltage - fit (V)	Voltage -  interpolate (V)	dQ/dV (1/V)	Temperature (°C)	Temperature - diff (°C)	Current (C)	R_DC 0ms (mOhm)	R_DC 50ms (mOhm)	R_DC 50 ms PEC (mOhm)
0.2700	17281.12	3.9910	3.9910	0.8137	27.31	1.37	1.500			
0.2725	17439.39	3.9880	3.9879	0.8323	27.30	1.36	1.500			
0.2750	17601.87	3.9850	3.9850	0.8415	27.30	1.36	1.500			
0.2775	17762.50	3.9820	3.9820	0.8454	27.29	1.35	1.500			
0.2801	17926.94	3.9790	3.9790	0.8475	27.28	1.34	1.500			
0.2827	18089.97	3.9760	3.9759	0.8463	27.28	1.34	1.500			
0.2852	18251.26	3.9730	3.9730	0.8499	27.27	1.33	1.500			
0.2877	18413.32	3.9700	3.9701	0.8560	27.27	1.33	1.500			
0.2903	18578.77	3.9670	3.9670	0.8610	27.26	1.32	1.500			
0.2929	18745.25	3.9640	3.9640	0.8686	27.25	1.31	1.500			
0.2955	18911.99	3.9610	3.9611	0.8704	27.25	1.31	1.500			
0.2981	19080.51	3.9580	3.9580	0.8816	27.24	1.30	1.500			
0.3008	19250.85	3.9550	3.9550	0.8825	27.23	1.29	1.500			
0.3034	19419.89	3.9520	3.9520	0.8790	27.23	1.29	1.500			
0.3061	19589.19	3.9490	3.9490	0.8797	27.22	1.28	1.500			
0.3087	19758.40	3.9460	3.9461	0.8877	27.22	1.28	1.500			
0.3114	19928.11	3.9430	3.9430	0.8909	27.21	1.27	1.500			
0.3141	20099.50	3.9400	3.9399	0.8963	27.20	1.26	1.500			
0.3167	20271.25	3.9370	3.9371	0.9020	27.20	1.26	1.500			
0.3195	20446.40	3.9340	3.9340	0.9125	27.19	1.25	1.500			
0.3222	20622.86	3.9310	3.9310	0.9151	27.18	1.24	1.500			
0.3250	20799.63	3.9280	3.9280	0.9156	27.17	1.23	1.500			
0.3277	20974.38	3.9250	3.9250	0.9199	27.16	1.22	1.500			
0.3305	21152.67	3.9220	3.9220	0.9208	27.16	1.22	1.500			
0.3333	21328.19	3.9190	3.9190	0.9277	27.15	1.21	1.500			
0.3360	21506.72	3.9160	3.9161	0.9333	27.14	1.20	1.500			
0.3388	21686.04	3.9130	3.9129	0.9411	27.13	1.19	1.500			
0.3417	21868.06	3.9100	3.9100	0.9497	27.13	1.19	1.500			
0.3445	22051.07	3.9070	3.9071	0.9579	27.12	1.18	1.500			
0.3474	22235.21	3.9040	3.9039	0.9647	27.11	1.17	1.500			
0.3504	22422.44	3.9010	3.9010	0.9787	27.10	1.16	1.500			
0.3533	22611.07	3.8980	3.8980	0.9760	27.09	1.15	1.500			
0.3562	22799.98	3.8950	3.8950	0.9822	27.08	1.14	1.500			
0.3592	22988.69	3.8920	3.8920	0.9912	27.08	1.14	1.500			
0.3622	23179.10	3.8890	3.8891	1.0000	27.07	1.13	1.500			
0.3651	23369.49	3.8860	3.8859	1.0114	27.06	1.12	1.500			
0.3682	23565.12	3.8830	3.8830	1.0240	27.05	1.11	1.500			
0.3713	23764.57	3.8800	3.8800	1.0329	27.04	1.10	1.500			
0.3745	23966.14	3.8770	3.8770	1.0486	27.03	1.09	1.500			
0.3776	24168.88	3.8740	3.8740	1.0518	27.02	1.08	1.500			
0.3808	24369.45	3.8710	3.8710	1.0592	27.01	1.07	1.500			
0.3839	24572.60	3.8680	3.8680	1.0664	27.00	1.06	1.500			
0.3871	24776.60	3.8650	3.8650	1.0808	26.99	1.05	1.500			
0.3904	24986.76	3.8620	3.8620	1.0974	26.98	1.04	1.500			
0.3937	25198.81	3.8590	3.8589	1.1143	26.97	1.03	1.500			
0.3971	25414.38	3.8560	3.8560	1.1264	26.96	1.02	1.500			
0.4005	25632.86	3.8530	3.8531	1.1452	26.95	1.01	1.500			
0.4039	25852.01	3.8500	3.8500	1.1581	26.94	1.00	1.500			
0.4075	26076.87	3.8470	3.8469	1.1781	26.92	0.98	1.500			
0.4110	26302.42	3.8440	3.8440	1.1933	26.91	0.97	1.500			
0.4146	26534.78	3.8410	3.8409	1.2129	26.90	0.96	1.500			
0.4183	26770.17	3.8380	3.8381	1.2342	26.89	0.95	1.500			
0.4220	27009.44	3.8350	3.8350	1.2558	26.88	0.94	1.500			
0.4258	27252.26	3.8320	3.8320	1.2703	26.87	0.93	1.500			
0.4296	27495.44	3.8290	3.8290	1.2881	26.85	0.91	1.500			
0.4335	27746.22	3.8260	3.8260	1.3149	26.84	0.90	1.500			
0.4375	28000.85	3.8230	3.8231	1.3379	26.83	0.89	1.500			
0.4416	28259.88	3.8200	3.8200	1.3650	26.82	0.88	1.500			
0.4457	28524.09	3.8170	3.8170	1.3913	26.80	0.86	1.500			
0.4499	28796.27	3.8140	3.8140	1.4123	26.79	0.85	1.500			
0.4542	29069.69	3.8110	3.8110	1.4404	26.78	0.84	1.500			
0.4585	29346.87	3.8080	3.8081	1.4607	26.77	0.83	1.500			
0.4630	29629.30	3.8050	3.8050	1.4893	26.76	0.82	1.500			
0.4674	29916.27	3.8020	3.8020	1.5216	26.74	0.80	1.500			
0.4720	30211.12	3.7990	3.7990	1.5513	26.72	0.78	1.500			
0.4768	30512.56	3.7960	3.7960	1.5777	26.71	0.77	1.500			
0.4816	30819.45	3.7930	3.7931	1.6061	26.69	0.75	1.500			
0.4864	31128.32	3.7900	3.7900	1.6261	26.67	0.73	1.500			
0.4913	31442.51	3.7870	3.7870	1.6537	26.66	0.72	1.500			
0.4963	31762.23	3.7840	3.7841	1.6880	26.64	0.70	1.500			
0.5014	32092.12	3.7810	3.7810	1.7258	26.62	0.68	1.500			
0.5067	32428.09	3.7780	3.7775	1.7424	26.61	0.67	1.500	0.341	0.466	
0.5119	32764.67	3.7750	3.7750	1.7624	26.59	0.65	1.500			
0.5173	33109.36	3.7720	3.7720	1.7699	26.57	0.63	1.500			
0.5226	33449.43	3.7690	3.7691	1.7490	26.56	0.62	1.500			
0.5279	33787.36	3.7660	3.7660	1.7530	26.54	0.60	1.500			
0.5331	34120.83	3.7630	3.7630	1.7532	26.52	0.58	1.500			
0.5384	34457.23	3.7600	3.7599	1.7631	26.51	0.57	1.500			
0.5436	34793.11	3.7570	3.7570	1.7765	26.49	0.55	1.500			
0.5490	35136.84	3.7540	3.7540	1.7905	26.47	0.53	1.500			
0.5545	35486.94	3.7510	3.7510	1.8117	26.45	0.51	1.500			
0.5599	35830.92	3.7480	3.7480	1.8129	26.44	0.50	1.500			
0.5653	36179.74	3.7450	3.7450	1.8363	26.42	0.48	1.500			
0.5708	36532.17	3.7420	3.7419	1.8607	26.41	0.47	1.500			
0.5764	36891.74	3.7390	3.7390	1.8828	26.39	0.45	1.500			
0.5821	37253.81	3.7360	3.7361	1.9394	26.38	0.44	1.500			
0.5880	37632.60	3.7330	3.7330	2.0004	26.36	0.42	1.500			
0.5941	38020.42	3.7300	3.7300	2.0423	26.35	0.41	1.500			
0.6003	38420.23	3.7270	3.7270	2.0904	26.34	0.40	1.500			
0.6067	38827.09	3.7240	3.7239	2.1288	26.32	0.38	1.500			
0.6130	39234.21	3.7210	3.7210	2.1764	26.30	0.36	1.500			
0.6197	39657.79	3.7180	3.7180	2.2526	26.29	0.35	1.500			
0.6265	40097.66	3.7150	3.7151	2.2806	26.27	0.33	1.500			
0.6334	40537.97	3.7120	3.7121	2.3394	26.26	0.32	1.500			
0.6405	40994.57	3.7090	3.7088	2.3953	26.24	0.30	1.500			
0.6478	41460.44	3.7060	3.7061	2.4065	26.22	0.28	1.500			
0.6551	41929.17	3.7030	3.7030	2.3199	26.20	0.26	1.500			
0.6619	42361.49	3.7000	3.7000	2.1880	26.19	0.25	1.500			
0.6683	42769.27	3.6970	3.6971	2.0490	26.17	0.23	1.500			
0.6742	43150.12	3.6940	3.6940	1.9149	26.17	0.23	1.500			
0.6797	43503.25	3.6910	3.6910	1.8079	26.16	0.22	1.500			
0.6849	43832.25	3.6880	3.6880	1.6789	26.15	0.21	1.500			
0.6898	44147.23	3.6850	3.6849	1.5859	26.14	0.20	1.500			
0.6944	44439.66	3.6820	3.6821	1.5064	26.13	0.19	1.500			
0.6988	44720.53	3.6790	3.6790	1.4319	26.12	0.18	1.500			
0.7029	44983.45	3.6760	3.6759	1.3774	26.11	0.17	1.500			
0.7068	45237.04	3.6730	3.6731	1.3416	26.10	0.16	1.500			
0.7107	45485.21	3.6700	3.6700	1.3065	26.09	0.15	1.500			
0.7146	45735.04	3.6670	3.6669	1.2925	26.08	0.14	1.500			
0.7185	45981.40	3.6640	3.6640	1.2794	26.07	0.13	1.500			
0.7222	46223.60	3.6610	3.6611	1.2750	26.07	0.13	1.500			
0.7261	46469.12	3.6580	3.6580	1.2744	26.06	0.12	1.500			
0.7299	46710.71	3.6550	3.6550	1.2690	26.06	0.12	1.500			
0.7337	46953.89	3.6520	3.6520	1.2726	26.05	0.11	1.500			
0.7375	47200.70	3.6490	3.6491	1.2770	26.04	0.10	1.500			
0.7414	47446.93	3.6460	3.6460	1.2740	26.04	0.10	1.500			
0.7452	47691.78	3.6430	3.6430	1.2713	26.03	0.09	1.500			
0.7490	47935.13	3.6400	3.6400	1.2620	26.02	0.08	1.500			
0.7528	48178.04	3.6370	3.6369	1.2451	26.01	0.07	1.500			
0.7565	48415.45	3.6340	3.6341	1.2477	26.00	0.06	1.500			
0.7602	48653.42	3.6310	3.6310	1.2446	25.99	0.05	1.500			
0.7639	48891.78	3.6280	3.6279	1.2449	25.98	0.04	1.500			
0.7677	49131.16	3.6250	3.6251	1.2388	25.98	0.04	1.500			
0.7714	49368.81	3.6220	3.6220	1.2335	25.97	0.03	1.500			
0.7751	49606.85	3.6190	3.6190	1.2288	25.96	0.02	1.500			
0.7788	49843.25	3.6160	3.6160	1.2069	25.96	0.02	1.500			
0.7824	50075.05	3.6130	3.6130	1.1917	25.95	0.01	1.500			
0.7860	50303.38	3.6100	3.6101	1.1725	25.95	0.01	1.500			
0.7895	50525.94	3.6070	3.6069	1.1550	25.94	0.00	1.500			
0.7929	50746.78	3.6040	3.6040	1.1363	25.94	0.00	1.500			
0.7963	50961.68	3.6010	3.6010	1.1138	25.94	0.00	1.500			
0.7996	51173.93	3.5980	3.5980	1.0934	25.94	0.00	1.500			
0.8029	51383.98	3.5950	3.5950	1.0665	25.94	0.00	1.500			
0.8061	51588.09	3.5920	3.5920	1.0376	25.94	0.00	1.500			
0.8092	51787.94	3.5890	3.5890	1.0007	25.94	0.00	1.500			
0.8122	51979.93	3.5860	3.5859	0.9389	25.94	0.00	1.500			
0.8150	52159.73	3.5830	3.5830	0.8762	25.94	0.00	1.500			
0.8175	52322.88	3.5800	3.5801	0.7882	25.94	0.00	1.500			
0.8198	52468.85	3.5770	3.5770	0.6965	25.94	0.00	1.500			
0.8217	52591.32	3.5740	3.5740	0.5996	25.94	0.00	1.500			
0.8233	52693.71	3.5710	3.5711	0.5024	25.94	0.00	1.500			
0.8246	52775.63	3.5680	3.5681	0.4235	25.94	0.00	1.500			
0.8257	52845.33	3.5650	3.5650	0.3614	25.94	0.00	1.500			
0.8266	52905.12	3.5620	3.5621	0.3013	25.94	0.00	1.500			
0.8274	52956.76	3.5590	3.5589	0.2654	25.94	0.00	1.500			
0.8282	53002.70	3.5560	3.5560	0.2360	25.94	0.00	1.500			
0.8288	53044.47	3.5530	3.5530	0.2114	25.94	0.00	1.500			
0.8294	53082.51	3.5500	3.5501	0.1933	25.94	0.00	1.500			
0.8300	53117.17	3.5470	3.5470	0.1759	25.94	0.00	1.500			
0.8305	53149.01	3.5440	3.5440	0.1593	25.94	0.00	1.500			
0.8309	53177.60	3.5410	3.5409	0.1441	25.94	0.00	1.500			
0.8313	53203.96	3.5380	3.5381	0.1305	25.94	0.00	1.500			
0.8317	53227.91	3.5350	3.5350	0.1166	25.94	0.00	1.500			
0.8320	53249.06	3.5320	3.5320	0.1028	25.94	0.00	1.500			
0.8323	53267.41	3.5290	3.5290	0.0885	25.94	0.00	1.500			
0.8325	53282.84	3.5260	3.5263	0.0742	25.94	0.00	1.500			
0.8328	53296.14	3.5230	3.5234	0.0599	25.94	0.00	1.500			
0.8329	53306.22	3.5200	3.5206	0.0451	25.94	0.00	1.500			
0.8330	53313.47	3.5170	3.5181	0.0303	25.94	0.00	1.500			
