Ah_balance (normalized)	Ah_balance (mAh)	Voltage - fit (V)	Voltage -  interpolate (V)	dQ/dV (1/V)	Temperature (°C)	Temperature - diff (°C)	Current (C)	R_DC 0ms (mOhm)	R_DC 50ms (mOhm)	R_DC 50 ms PEC (mOhm)
0.2768	17713.49	3.9740	3.9740	0.8684	27.03	1.05	1.500			
0.2794	17882.12	3.9710	3.9710	0.8782	27.03	1.05	1.500			
0.2820	18051.09	3.9680	3.9680	0.8789	27.03	1.05	1.500			
0.2847	18220.29	3.9650	3.9650	0.8785	27.02	1.04	1.500			
0.2873	18389.27	3.9620	3.9619	0.8786	27.02	1.04	1.500			
0.2899	18555.62	3.9590	3.9591	0.8798	27.01	1.03	1.500			
0.2926	18725.24	3.9560	3.9560	0.8878	27.01	1.03	1.500			
0.2953	18896.02	3.9530	3.9529	0.8890	27.00	1.02	1.500			
0.2979	19068.18	3.9500	3.9500	0.8955	27.00	1.02	1.500			
0.3006	19239.59	3.9470	3.9470	0.9003	27.00	1.02	1.500			
0.3033	19413.07	3.9440	3.9439	0.9048	26.99	1.01	1.500			
0.3060	19587.11	3.9410	3.9410	0.9094	26.99	1.01	1.500			
0.3088	19761.52	3.9380	3.9380	0.9122	26.98	1.00	1.500			
0.3115	19937.98	3.9350	3.9350	0.9195	26.98	1.00	1.500			
0.3143	20115.02	3.9320	3.9320	0.9225	26.97	0.99	1.500			
0.3171	20293.01	3.9290	3.9290	0.9299	26.97	0.99	1.500			
0.3199	20471.97	3.9260	3.9260	0.9306	26.96	0.98	1.500			
0.3227	20650.64	3.9230	3.9230	0.9379	26.96	0.98	1.500			
0.3255	20831.16	3.9200	3.9200	0.9412	26.96	0.98	1.500			
0.3283	21012.61	3.9170	3.9169	0.9473	26.95	0.97	1.500			
0.3312	21194.32	3.9140	3.9141	0.9541	26.95	0.97	1.500			
0.3340	21378.21	3.9110	3.9110	0.9616	26.94	0.96	1.500			
0.3369	21564.04	3.9080	3.9080	0.9668	26.93	0.95	1.500			
0.3399	21750.96	3.9050	3.9050	0.9744	26.93	0.95	1.500			
0.3428	21936.35	3.9020	3.9021	0.9804	26.92	0.94	1.500			
0.3457	22126.63	3.8990	3.8989	0.9882	26.92	0.94	1.500			
0.3487	22316.79	3.8960	3.8960	0.9937	26.91	0.93	1.500			
0.3517	22507.60	3.8930	3.8931	1.0025	26.90	0.92	1.500			
0.3547	22701.01	3.8900	3.8900	1.0119	26.90	0.92	1.500			
0.3578	22896.85	3.8870	3.8869	1.0190	26.89	0.91	1.500			
0.3608	23092.04	3.8840	3.8840	1.0285	26.89	0.91	1.500			
0.3639	23289.81	3.8810	3.8810	1.0417	26.88	0.90	1.500			
0.3671	23493.22	3.8780	3.8779	1.0522	26.87	0.89	1.500			
0.3702	23694.56	3.8750	3.8750	1.0657	26.87	0.89	1.500			
0.3734	23899.66	3.8720	3.8720	1.0753	26.86	0.88	1.500			
0.3767	24107.46	3.8690	3.8691	1.0892	26.85	0.87	1.500			
0.3800	24317.99	3.8660	3.8659	1.1036	26.85	0.87	1.500			
0.3833	24529.56	3.8630	3.8631	1.1177	26.84	0.86	1.500			
0.3866	24744.97	3.8600	3.8600	1.1353	26.83	0.85	1.500			
0.3901	24966.18	3.8570	3.8570	1.1511	26.82	0.84	1.500			
0.3936	25188.81	3.8540	3.8540	1.1586	26.82	0.84	1.500			
0.3971	25414.05	3.8510	3.8511	1.1749	26.81	0.83	1.500			
0.4006	25639.95	3.8480	3.8480	1.1851	26.80	0.82	1.500			
0.4041	25865.29	3.8450	3.8449	1.2028	26.79	0.81	1.500			
0.4078	26097.15	3.8420	3.8421	1.2236	26.78	0.80	1.500			
0.4114	26332.27	3.8390	3.8390	1.2486	26.77	0.79	1.500			
0.4153	26578.18	3.8360	3.8360	1.2729	26.76	0.78	1.500			
0.4191	26825.04	3.8330	3.8331	1.2936	26.75	0.77	1.500			
0.4231	27075.54	3.8300	3.8301	1.3200	26.74	0.76	1.500			
0.4270	27330.27	3.8270	3.8271	1.3449	26.73	0.75	1.500			
0.4311	27589.47	3.8240	3.8240	1.3711	26.72	0.74	1.500			
0.4352	27855.18	3.8210	3.8210	1.3963	26.71	0.73	1.500			
0.4395	28126.55	3.8180	3.8179	1.4193	26.70	0.72	1.500			
0.4438	28403.04	3.8150	3.8151	1.4582	26.69	0.71	1.500			
0.4482	28683.32	3.8120	3.8121	1.4893	26.68	0.70	1.500			
0.4527	28971.28	3.8090	3.8089	1.5219	26.66	0.68	1.500			
0.4573	29267.09	3.8060	3.8060	1.5638	26.65	0.67	1.500			
0.4620	29569.34	3.8030	3.8031	1.6067	26.63	0.65	1.500			
0.4669	29882.91	3.8000	3.8000	1.6522	26.62	0.64	1.500			
0.4719	30204.57	3.7970	3.7970	1.6935	26.60	0.62	1.500			
0.4771	30532.36	3.7940	3.7940	1.7386	26.59	0.61	1.500			
0.4824	30873.64	3.7910	3.7910	1.7785	26.57	0.59	1.500			
0.4878	31217.95	3.7880	3.7880	1.8167	26.56	0.58	1.500			
0.4933	31570.59	3.7850	3.7850	1.8561	26.55	0.57	1.500			
0.4989	31930.51	3.7820	3.7820	1.8976	26.53	0.55	1.500			
0.5047	32298.29	3.7790	3.7790	1.9421	26.52	0.54	1.500			
0.5105	32675.08	3.7760	3.7760	1.9775	26.50	0.52	1.500			
0.5166	33060.12	3.7730	3.7730	2.0069	26.48	0.50	1.500			
0.5226	33445.14	3.7700	3.7701	2.0172	26.46	0.48	1.500			
0.5287	33836.40	3.7670	3.7669	2.0546	26.44	0.46	1.500			
0.5350	34237.91	3.7640	3.7639	2.0647	26.43	0.45	1.500	0.352	0.452	
0.5412	34638.17	3.7610	3.7610	2.0836	26.41	0.43	1.500			
0.5475	35039.15	3.7580	3.7580	2.0836	26.40	0.42	1.500			
0.5537	35439.21	3.7550	3.7549	2.0519	26.38	0.40	1.500			
0.5599	35831.59	3.7520	3.7520	2.0238	26.36	0.38	1.500			
0.5659	36218.98	3.7490	3.7491	2.0055	26.34	0.36	1.500			
0.5718	36596.16	3.7460	3.7460	1.9899	26.32	0.34	1.500			
0.5777	36972.73	3.7430	3.7430	1.9956	26.30	0.32	1.500			
0.5838	37361.69	3.7400	3.7399	2.0242	26.29	0.31	1.500			
0.5899	37755.93	3.7370	3.7370	2.0257	26.28	0.30	1.500			
0.5960	38147.03	3.7340	3.7341	2.0526	26.27	0.29	1.500			
0.6022	38542.01	3.7310	3.7309	2.0793	26.26	0.28	1.500			
0.6084	38938.15	3.7280	3.7281	2.1209	26.25	0.27	1.500			
0.6149	39354.74	3.7250	3.7250	2.1708	26.23	0.25	1.500			
0.6215	39773.74	3.7220	3.7220	2.2198	26.22	0.24	1.500			
0.6281	40200.56	3.7190	3.7189	2.2797	26.20	0.22	1.500			
0.6351	40644.23	3.7160	3.7159	2.3650	26.19	0.21	1.500			
0.6422	41102.09	3.7130	3.7131	2.4649	26.17	0.19	1.500			
0.6498	41586.30	3.7100	3.7099	2.5811	26.16	0.18	1.500			
0.6577	42090.81	3.7070	3.7070	2.6393	26.14	0.16	1.500			
0.6659	42617.17	3.7040	3.7040	2.6307	26.13	0.15	1.500			
0.6737	43117.81	3.7010	3.7011	2.6494	26.12	0.14	1.500			
0.6816	43622.14	3.6980	3.6979	2.6458	26.11	0.13	1.500			
0.6896	44135.90	3.6950	3.6951	2.5661	26.10	0.12	1.500			
0.6974	44634.86	3.6920	3.6920	2.4406	26.09	0.11	1.500			
0.7045	45085.09	3.6890	3.6890	2.2573	26.08	0.10	1.500			
0.7109	45500.68	3.6860	3.6859	2.0701	26.07	0.09	1.500			
0.7168	45872.62	3.6830	3.6831	1.8863	26.07	0.09	1.500			
0.7221	46214.65	3.6800	3.6800	1.7502	26.07	0.09	1.500			
0.7271	46533.76	3.6770	3.6769	1.6260	26.06	0.08	1.500			
0.7318	46832.49	3.6740	3.6740	1.5337	26.06	0.08	1.500			
0.7361	47110.48	3.6710	3.6710	1.4526	26.05	0.07	1.500			
0.7404	47383.26	3.6680	3.6680	1.3888	26.05	0.07	1.500			
0.7443	47638.17	3.6650	3.6650	1.3359	26.04	0.06	1.500			
0.7483	47888.34	3.6620	3.6620	1.2979	26.04	0.06	1.500			
0.7520	48131.05	3.6590	3.6590	1.2755	26.03	0.05	1.500			
0.7558	48372.22	3.6560	3.6560	1.2624	26.03	0.05	1.500			
0.7595	48609.92	3.6530	3.6530	1.2590	26.02	0.04	1.500			
0.7633	48850.36	3.6500	3.6500	1.2650	26.02	0.04	1.500			
0.7671	49094.36	3.6470	3.6470	1.2781	26.01	0.03	1.500			
0.7709	49339.59	3.6440	3.6440	1.2880	26.00	0.02	1.500			
0.7748	49589.69	3.6410	3.6410	1.2998	26.00	0.02	1.500			
0.7788	49840.40	3.6380	3.6379	1.3088	25.99	0.01	1.500			
0.7827	50093.27	3.6350	3.6350	1.3193	25.99	0.01	1.500			
0.7867	50348.43	3.6320	3.6320	1.3192	25.98	0.00	1.500			
0.7907	50603.86	3.6290	3.6290	1.3181	25.98	-0.00	1.500			
0.7946	50855.32	3.6260	3.6260	1.3135	25.97	-0.01	1.500			
0.7986	51108.49	3.6230	3.6230	1.3123	25.97	-0.01	1.500			
0.8025	51359.61	3.6200	3.6200	1.3123	25.96	-0.02	1.500			
0.8064	51610.91	3.6170	3.6170	1.3061	25.96	-0.02	1.500			
0.8103	51861.78	3.6140	3.6140	1.2998	25.95	-0.03	1.500			
0.8143	52113.16	3.6110	3.6110	1.2955	25.94	-0.04	1.500			
0.8182	52362.35	3.6080	3.6080	1.2883	25.94	-0.04	1.500			
0.8220	52608.14	3.6050	3.6050	1.2737	25.93	-0.05	1.500			
0.8258	52852.90	3.6020	3.6020	1.2570	25.93	-0.05	1.500			
0.8296	53091.74	3.5990	3.5990	1.2398	25.92	-0.06	1.500			
0.8333	53328.51	3.5960	3.5961	1.2324	25.92	-0.06	1.500			
0.8369	53562.07	3.5930	3.5929	1.2248	25.92	-0.06	1.500			
0.8406	53796.61	3.5900	3.5899	1.2111	25.92	-0.06	1.500			
0.8442	54028.57	3.5870	3.5870	1.2054	25.92	-0.06	1.500			
0.8478	54259.84	3.5840	3.5840	1.2026	25.92	-0.06	1.500			
0.8514	54492.37	3.5810	3.5810	1.1896	25.92	-0.06	1.500			
0.8550	54721.36	3.5780	3.5779	1.1651	25.92	-0.06	1.500			
0.8586	54948.87	3.5750	3.5750	1.1041	25.93	-0.05	1.500			
0.8620	55166.24	3.5720	3.5720	1.0326	25.94	-0.04	1.500			
0.8651	55365.42	3.5690	3.5691	0.9162	25.95	-0.03	1.500			
0.8677	55534.73	3.5660	3.5661	0.7869	25.95	-0.03	1.500			
0.8698	55669.60	3.5630	3.5631	0.6563	25.96	-0.02	1.500			
0.8715	55778.73	3.5600	3.5599	0.5322	25.96	-0.02	1.500			
0.8728	55859.65	3.5570	3.5569	0.4266	25.97	-0.01	1.500			
0.8739	55928.37	3.5540	3.5539	0.3583	25.97	-0.01	1.500			
0.8748	55985.04	3.5510	3.5510	0.3013	25.97	-0.01	1.500			
0.8756	56035.67	3.5480	3.5480	0.2637	25.97	-0.01	1.500			
0.8763	56080.19	3.5450	3.5449	0.2292	25.97	-0.01	1.500			
0.8769	56120.29	3.5420	3.5420	0.2071	25.97	-0.01	1.500			
0.8774	56156.73	3.5390	3.5389	0.1875	25.98	-0.00	1.500			
0.8780	56190.59	3.5360	3.5360	0.1696	25.98	-0.00	1.500			
0.8785	56221.46	3.5330	3.5331	0.1551	25.98	-0.00	1.500			
0.8789	56249.54	3.5300	3.5300	0.1402	25.98	-0.00	1.500			
0.8793	56275.07	3.5270	3.5270	0.1261	25.98	0.00	1.500			
0.8797	56297.73	3.5240	3.5241	0.1114	25.98	0.00	1.500			
0.8800	56317.80	3.5210	3.5209	0.0977	25.98	0.00	1.500			
0.8802	56335.54	3.5180	3.5181	0.0842	25.98	0.00	1.500			
0.8805	56350.34	3.5150	3.5154	0.0700	25.98	0.00	1.500			
0.8807	56362.56	3.5120	3.5124	0.0553	25.98	0.00	1.500			
0.8808	56371.77	3.5090	3.5097	0.0406	25.98	0.00	1.500			
