Ah_balance (normalized)	Ah_balance (mAh)	Voltage - fit (V)	Voltage -  interpolate (V)	dQ/dV (1/V)	Temperature (°C)	Temperature - diff (°C)	Current (C)	R_DC 0ms (mOhm)	R_DC 50ms (mOhm)	R_DC 50 ms PEC (mOhm)
0.2021	12933.02	3.9100	3.9098	-0.1235	25.97	-0.04	-1.500			
0.2025	12960.14	3.9070	3.9071	-0.1589	25.97	-0.04	-1.500			
0.2030	12994.37	3.9040	3.9040	-0.1940	25.97	-0.04	-1.500			
0.2037	13035.28	3.9010	3.9008	-0.2270	25.97	-0.04	-1.500			
0.2044	13082.00	3.8980	3.8980	-0.2600	25.98	-0.03	-1.500			
0.2052	13135.38	3.8950	3.8951	-0.2924	25.98	-0.03	-1.500			
0.2062	13194.53	3.8920	3.8920	-0.3249	25.98	-0.03	-1.500			
0.2072	13259.71	3.8890	3.8890	-0.3571	25.98	-0.03	-1.500			
0.2083	13331.05	3.8860	3.8860	-0.3910	25.98	-0.03	-1.500			
0.2095	13408.97	3.8830	3.8830	-0.4262	25.98	-0.03	-1.500			
0.2109	13494.73	3.8800	3.8800	-0.4585	25.99	-0.02	-1.500			
0.2123	13585.62	3.8770	3.8770	-0.4940	25.99	-0.02	-1.500			
0.2138	13684.17	3.8740	3.8741	-0.5284	25.99	-0.02	-1.500			
0.2155	13789.47	3.8710	3.8709	-0.5594	25.99	-0.02	-1.500			
0.2172	13900.30	3.8680	3.8680	-0.5899	26.00	-0.01	-1.500			
0.2190	14016.63	3.8650	3.8650	-0.6181	26.00	-0.01	-1.500			
0.2209	14138.60	3.8620	3.8620	-0.6436	26.00	-0.01	-1.500			
0.2229	14264.97	3.8590	3.8590	-0.6713	26.01	-0.00	-1.500			
0.2249	14395.87	3.8560	3.8560	-0.6910	26.01	-0.00	-1.500			
0.2271	14531.88	3.8530	3.8529	-0.7111	26.01	0.00	-1.500			
0.2293	14672.33	3.8500	3.8500	-0.7290	26.02	0.01	-1.500			
0.2315	14814.06	3.8470	3.8470	-0.7403	26.02	0.01	-1.500			
0.2337	14958.13	3.8440	3.8440	-0.7548	26.02	0.01	-1.500			
0.2360	15104.40	3.8410	3.8411	-0.7645	26.03	0.02	-1.500			
0.2383	15251.04	3.8380	3.8379	-0.7704	26.03	0.02	-1.500			
0.2406	15400.05	3.8350	3.8350	-0.7839	26.03	0.02	-1.500			
0.2430	15551.57	3.8320	3.8321	-0.7936	26.04	0.03	-1.500			
0.2454	15705.18	3.8290	3.8289	-0.8001	26.04	0.03	-1.500			
0.2478	15861.33	3.8260	3.8260	-0.8055	26.05	0.04	-1.500			
0.2502	16015.89	3.8230	3.8231	-0.8086	26.05	0.04	-1.500			
0.2527	16171.55	3.8200	3.8201	-0.8168	26.05	0.04	-1.500			
0.2551	16329.14	3.8170	3.8169	-0.8198	26.06	0.05	-1.500			
0.2576	16485.07	3.8140	3.8140	-0.8206	26.07	0.06	-1.500			
0.2601	16644.28	3.8110	3.8110	-0.8255	26.08	0.07	-1.500			
0.2626	16804.38	3.8080	3.8081	-0.8327	26.08	0.07	-1.500			
0.2651	16965.05	3.8050	3.8049	-0.8333	26.09	0.08	-1.500			
0.2676	17124.54	3.8020	3.8020	-0.8332	26.10	0.09	-1.500			
0.2701	17284.00	3.7990	3.7990	-0.8351	26.10	0.09	-1.500			
0.2726	17445.06	3.7960	3.7960	-0.8396	26.11	0.10	-1.500			
0.2751	17605.99	3.7930	3.7930	-0.8417	26.12	0.11	-1.500			
0.2776	17769.23	3.7900	3.7899	-0.8424	26.13	0.12	-1.500			
0.2801	17929.31	3.7870	3.7870	-0.8452	26.13	0.12	-1.500			
0.2827	18092.09	3.7840	3.7840	-0.8509	26.14	0.13	-1.500			
0.2853	18256.07	3.7810	3.7810	-0.8510	26.15	0.14	-1.500			
0.2878	18421.03	3.7780	3.7778	-0.8517	26.16	0.15	-1.500			
0.2904	18584.41	3.7750	3.7751	-0.8542	26.17	0.16	-1.500			
0.2930	18749.43	3.7720	3.7720	-0.8541	26.17	0.16	-1.500			
0.2955	18913.28	3.7690	3.7690	-0.8554	26.18	0.17	-1.500			
0.2981	19075.32	3.7660	3.7659	-0.8532	26.19	0.18	-1.500			
0.3006	19240.10	3.7630	3.7631	-0.8580	26.20	0.19	-1.500			
0.3032	19406.76	3.7600	3.7599	-0.8612	26.21	0.20	-1.500			
0.3058	19571.95	3.7570	3.7570	-0.8590	26.22	0.21	-1.500			
0.3084	19737.19	3.7540	3.7541	-0.8590	26.22	0.21	-1.500			
0.3110	19902.35	3.7510	3.7511	-0.8609	26.23	0.22	-1.500			
0.3135	20067.08	3.7480	3.7479	-0.8610	26.24	0.23	-1.500			
0.3161	20232.53	3.7450	3.7450	-0.8626	26.25	0.24	-1.500			
0.3187	20398.42	3.7420	3.7420	-0.8661	26.26	0.25	-1.500			
0.3213	20565.92	3.7390	3.7391	-0.8651	26.27	0.26	-1.500			
0.3240	20733.15	3.7360	3.7359	-0.8662	26.27	0.26	-1.500			
0.3265	20898.73	3.7330	3.7331	-0.8642	26.28	0.27	-1.500			
0.3291	21063.87	3.7300	3.7300	-0.8632	26.29	0.28	-1.500			
0.3317	21229.64	3.7270	3.7270	-0.8614	26.30	0.29	-1.500			
0.3343	21394.60	3.7240	3.7240	-0.8628	26.31	0.30	-1.500			
0.3369	21560.30	3.7210	3.7210	-0.8670	26.32	0.31	-1.500			
0.3395	21726.49	3.7180	3.7180	-0.8722	26.32	0.31	-1.500			
0.3421	21894.89	3.7150	3.7149	-0.8728	26.33	0.32	-1.500			
0.3447	22062.84	3.7120	3.7120	-0.8771	26.34	0.33	-1.500			
0.3474	22232.14	3.7090	3.7090	-0.8784	26.35	0.34	-1.500			
0.3500	22401.63	3.7060	3.7058	-0.8791	26.36	0.35	-1.500			
0.3526	22569.40	3.7030	3.7029	-0.8814	26.37	0.36	-1.500			
0.3553	22738.65	3.7000	3.7000	-0.8840	26.38	0.37	-1.500			
0.3579	22907.17	3.6970	3.6970	-0.8890	26.39	0.38	-1.500			
0.3606	23077.32	3.6940	3.6940	-0.8966	26.40	0.39	-1.500			
0.3633	23251.01	3.6910	3.6910	-0.9072	26.41	0.40	-1.500			
0.3660	23426.40	3.6880	3.6880	-0.9225	26.42	0.41	-1.500			
0.3688	23604.31	3.6850	3.6850	-0.9333	26.43	0.42	-1.500			
0.3716	23784.66	3.6820	3.6820	-0.9431	26.44	0.43	-1.500			
0.3745	23967.85	3.6790	3.6790	-0.9565	26.45	0.44	-1.500			
0.3774	24152.64	3.6760	3.6759	-0.9645	26.46	0.45	-1.500			
0.3803	24337.72	3.6730	3.6731	-0.9754	26.47	0.46	-1.500			
0.3832	24525.43	3.6700	3.6700	-0.9924	26.48	0.47	-1.500			
0.3862	24715.44	3.6670	3.6670	-1.0082	26.48	0.47	-1.500			
0.3892	24910.85	3.6640	3.6639	-1.0335	26.49	0.48	-1.500			
0.3924	25113.40	3.6610	3.6610	-1.0465	26.50	0.49	-1.500			
0.3955	25314.27	3.6580	3.6581	-1.0709	26.51	0.50	-1.500			
0.3988	25522.66	3.6550	3.6550	-1.0976	26.51	0.50	-1.500			
0.4021	25734.22	3.6520	3.6521	-1.1229	26.52	0.51	-1.500			
0.4055	25950.46	3.6490	3.6488	-1.1432	26.53	0.52	-1.500			
0.4090	26173.45	3.6460	3.6461	-1.1697	26.54	0.53	-1.500			
0.4125	26399.92	3.6430	3.6430	-1.1994	26.55	0.54	-1.500			
0.4162	26635.97	3.6400	3.6400	-1.2272	26.56	0.55	-1.500			
0.4199	26871.34	3.6370	3.6370	-1.2432	26.57	0.56	-1.500			
0.4236	27110.52	3.6340	3.6340	-1.2843	26.57	0.56	-1.500			
0.4275	27359.43	3.6310	3.6311	-1.3177	26.58	0.57	-1.500			
0.4315	27618.34	3.6280	3.6279	-1.3535	26.59	0.58	-1.500			
0.4356	27880.07	3.6250	3.6250	-1.3943	26.60	0.59	-1.500			
0.4399	28151.63	3.6220	3.6222	-1.4220	26.60	0.59	-1.500			
0.4442	28431.10	3.6190	3.6190	-1.4629	26.61	0.60	-1.500			
0.4487	28717.03	3.6160	3.6159	-1.4870	26.62	0.61	-1.500			
0.4532	29002.73	3.6130	3.6130	-1.5119	26.62	0.61	-1.500			
0.4578	29296.39	3.6100	3.6100	-1.5389	26.63	0.62	-1.500			
0.4624	29594.63	3.6070	3.6069	-1.5608	26.63	0.62	-1.500			
0.4671	29894.06	3.6040	3.6040	-1.5840	26.63	0.62	-1.500			
0.4719	30202.38	3.6010	3.6010	-1.6175	26.64	0.63	-1.500			
0.4768	30512.11	3.5980	3.5981	-1.6531	26.64	0.63	-1.500			
0.4818	30834.14	3.5950	3.5950	-1.6932	26.64	0.63	-1.500			
0.4870	31165.07	3.5920	3.5919	-1.7258	26.65	0.64	-1.500			
0.4922	31503.48	3.5890	3.5890	-1.7558	26.65	0.64	-1.500			
0.4976	31844.64	3.5860	3.5860	-1.7830	26.66	0.65	-1.500			
0.5030	32189.55	3.5830	3.5830	-1.8049	26.66	0.65	-1.500			
0.5083	32534.33	3.5800	3.5800	-1.8374	26.67	0.66	-1.500			
0.5139	32888.61	3.5770	3.5769	-1.8466	26.67	0.66	-1.500			
0.5194	33243.12	3.5740	3.5740	-1.8674	26.67	0.66	-1.500			
0.5251	33609.23	3.5710	3.5712	-1.9033	26.68	0.67	-1.500			
0.5309	33975.64	3.5680	3.5679	-1.9358	26.68	0.67	-1.500			
0.5367	34347.74	3.5650	3.5650	-1.9672	26.68	0.67	-1.500			
0.5426	34724.07	3.5620	3.5620	-2.0029	26.68	0.67	-1.500			
0.5487	35116.52	3.5590	3.5590	-2.0410	26.68	0.67	-1.500			
0.5549	35510.77	3.5560	3.5560	-2.0590	26.68	0.67	-1.500			
0.5611	35911.44	3.5530	3.5530	-2.0878	26.69	0.68	-1.500			
0.5674	36314.13	3.5500	3.5501	-2.1065	26.69	0.68	-1.500	0.382	0.485	
0.5738	36720.52	3.5470	3.5469	-2.1151	26.70	0.69	-1.500			
0.5801	37125.14	3.5440	3.5440	-2.1383	26.70	0.69	-1.500			
0.5866	37540.27	3.5410	3.5409	-2.1387	26.71	0.70	-1.500			
0.5930	37954.33	3.5380	3.5380	-2.1402	26.71	0.70	-1.500			
0.5995	38367.73	3.5350	3.5351	-2.1474	26.72	0.71	-1.500			
0.6059	38778.03	3.5320	3.5320	-2.1363	26.72	0.71	-1.500			
0.6123	39189.91	3.5290	3.5289	-2.1111	26.73	0.72	-1.500			
0.6186	39591.97	3.5260	3.5260	-2.0858	26.73	0.72	-1.500			
0.6249	39990.74	3.5230	3.5229	-2.0733	26.74	0.73	-1.500			
0.6310	40386.30	3.5200	3.5200	-2.0550	26.74	0.73	-1.500			
0.6372	40778.65	3.5170	3.5170	-2.0316	26.75	0.74	-1.500			
0.6433	41168.85	3.5140	3.5140	-2.0142	26.75	0.74	-1.500			
0.6493	41557.33	3.5110	3.5110	-1.9904	26.76	0.75	-1.500			
0.6553	41936.33	3.5080	3.5080	-1.9684	26.76	0.75	-1.500			
0.6611	42310.78	3.5050	3.5050	-1.9327	26.77	0.76	-1.500			
0.6668	42676.18	3.5020	3.5019	-1.8962	26.77	0.76	-1.500			
0.6724	43036.13	3.4990	3.4991	-1.8837	26.78	0.77	-1.500			
0.6780	43395.18	3.4960	3.4960	-1.8637	26.78	0.77	-1.500			
0.6836	43751.10	3.4930	3.4930	-1.8388	26.79	0.78	-1.500			
0.6891	44101.33	3.4900	3.4900	-1.8187	26.80	0.79	-1.500			
0.6945	44449.87	3.4870	3.4871	-1.8017	26.80	0.79	-1.500			
0.6999	44795.41	3.4840	3.4840	-1.7834	26.81	0.80	-1.500			
0.7052	45135.29	3.4810	3.4810	-1.7591	26.82	0.81	-1.500			
0.7105	45469.43	3.4780	3.4780	-1.7318	26.83	0.82	-1.500			
0.7157	45802.11	3.4750	3.4749	-1.7051	26.83	0.82	-1.500			
0.7207	46125.96	3.4720	3.4720	-1.6868	26.84	0.83	-1.500			
0.7257	46445.70	3.4690	3.4691	-1.6598	26.85	0.84	-1.500			
0.7307	46762.61	3.4660	3.4659	-1.6324	26.86	0.85	-1.500			
0.7355	47074.64	3.4630	3.4630	-1.6006	26.86	0.85	-1.500			
0.7403	47379.14	3.4600	3.4601	-1.5724	26.87	0.86	-1.500			
0.7450	47680.02	3.4570	3.4569	-1.5377	26.87	0.86	-1.500			
0.7496	47972.79	3.4540	3.4540	-1.5106	26.88	0.87	-1.500			
0.7540	48255.76	3.4510	3.4510	-1.4835	26.89	0.88	-1.500			
0.7584	48535.97	3.4480	3.4480	-1.4654	26.90	0.89	-1.500			
0.7627	48815.76	3.4450	3.4449	-1.4588	26.91	0.90	-1.500			
0.7671	49096.06	3.4420	3.4420	-1.4425	26.92	0.91	-1.500			
0.7715	49373.48	3.4390	3.4389	-1.4271	26.93	0.92	-1.500			
0.7757	49645.47	3.4360	3.4362	-1.4212	26.94	0.93	-1.500			
0.7799	49914.63	3.4330	3.4330	-1.4061	26.95	0.94	-1.500			
0.7841	50182.04	3.4300	3.4299	-1.4025	26.97	0.96	-1.500			
0.7883	50449.14	3.4270	3.4270	-1.3941	26.98	0.97	-1.500			
0.7925	50720.92	3.4240	3.4240	-1.3958	26.99	0.98	-1.500			
0.7967	50990.37	3.4210	3.4210	-1.3852	27.01	1.00	-1.500			
0.8009	51258.54	3.4180	3.4180	-1.3702	27.02	1.01	-1.500			
0.8050	51518.38	3.4150	3.4150	-1.3420	27.03	1.02	-1.500			
0.8090	51774.68	3.4120	3.4120	-1.3133	27.04	1.03	-1.500			
0.8129	52024.09	3.4090	3.4090	-1.2790	27.05	1.04	-1.500			
0.8167	52268.60	3.4060	3.4060	-1.2440	27.06	1.05	-1.500			
0.8204	52503.81	3.4030	3.4030	-1.2029	27.07	1.06	-1.500			
0.8239	52732.43	3.4000	3.4000	-1.1592	27.08	1.07	-1.500			
0.8274	52950.98	3.3970	3.3970	-1.1096	27.09	1.08	-1.500			
0.8306	53158.84	3.3940	3.3940	-1.0622	27.10	1.09	-1.500			
0.8337	53357.62	3.3910	3.3910	-1.0183	27.11	1.10	-1.500			
0.8367	53547.12	3.3880	3.3880	-0.9731	27.12	1.11	-1.500			
0.8395	53730.10	3.3850	3.3850	-0.9322	27.13	1.12	-1.500			
0.8423	53904.83	3.3820	3.3820	-0.8913	27.14	1.13	-1.500			
0.8449	54071.60	3.3790	3.3791	-0.8579	27.14	1.13	-1.500			
0.8474	54232.49	3.3760	3.3760	-0.8236	27.15	1.14	-1.500			
0.8498	54385.91	3.3730	3.3729	-0.7928	27.16	1.15	-1.500			
0.8521	54533.88	3.3700	3.3700	-0.7624	27.16	1.15	-1.500			
0.8543	54677.84	3.3670	3.3670	-0.7396	27.17	1.16	-1.500			
0.8565	54817.89	3.3640	3.3640	-0.7176	27.18	1.17	-1.500			
0.8587	54954.08	3.3610	3.3610	-0.6891	27.18	1.17	-1.500			
0.8607	55083.47	3.3580	3.3580	-0.6619	27.19	1.18	-1.500			
0.8626	55207.83	3.3550	3.3551	-0.6403	27.19	1.18	-1.500			
0.8645	55327.66	3.3520	3.3519	-0.6173	27.20	1.19	-1.500			
0.8663	55443.64	3.3490	3.3489	-0.5958	27.20	1.19	-1.500			
0.8681	55555.58	3.3460	3.3460	-0.5755	27.21	1.20	-1.500			
0.8698	55664.00	3.3430	3.3430	-0.5575	27.21	1.20	-1.500			
0.8714	55769.84	3.3400	3.3401	-0.5435	27.22	1.21	-1.500			
0.8730	55871.88	3.3370	3.3369	-0.5243	27.22	1.21	-1.500			
0.8745	55970.41	3.3340	3.3339	-0.5071	27.23	1.22	-1.500			
0.8760	56066.07	3.3310	3.3311	-0.4920	27.23	1.22	-1.500			
0.8775	56159.36	3.3280	3.3280	-0.4773	27.24	1.23	-1.500			
0.8789	56250.42	3.3250	3.3249	-0.4609	27.24	1.23	-1.500			
0.8803	56337.35	3.3220	3.3220	-0.4433	27.24	1.23	-1.500			
0.8816	56419.66	3.3190	3.3191	-0.4262	27.25	1.24	-1.500			
0.8828	56500.24	3.3160	3.3160	-0.4130	27.25	1.24	-1.500			
0.8840	56577.40	3.3130	3.3129	-0.3987	27.26	1.25	-1.500			
0.8852	56652.49	3.3100	3.3099	-0.3853	27.26	1.25	-1.500			
0.8863	56725.21	3.3070	3.3070	-0.3738	27.26	1.25	-1.500			
0.8874	56796.16	3.3040	3.3041	-0.3626	27.27	1.26	-1.500			
0.8885	56865.19	3.3010	3.3009	-0.3508	27.27	1.26	-1.500			
0.8896	56931.24	3.2980	3.2980	-0.3375	27.27	1.26	-1.500			
0.8905	56994.40	3.2950	3.2950	-0.3247	27.28	1.27	-1.500			
0.8915	57055.37	3.2920	3.2921	-0.3135	27.28	1.27	-1.500			
0.8924	57114.45	3.2890	3.2889	-0.3031	27.28	1.27	-1.500			
0.8933	57171.24	3.2860	3.2860	-0.2922	27.29	1.28	-1.500			
0.8942	57226.06	3.2830	3.2830	-0.2827	27.29	1.28	-1.500			
0.8950	57279.57	3.2800	3.2801	-0.2737	27.29	1.28	-1.500			
0.8958	57331.70	3.2770	3.2769	-0.2654	27.29	1.28	-1.500			
0.8966	57381.62	3.2740	3.2740	-0.2571	27.30	1.29	-1.500			
0.8973	57429.72	3.2710	3.2711	-0.2483	27.30	1.29	-1.500			
0.8981	57476.56	3.2680	3.2679	-0.2412	27.30	1.29	-1.500			
0.8988	57522.19	3.2650	3.2650	-0.2344	27.30	1.29	-1.500			
0.8995	57566.87	3.2620	3.2620	-0.2253	27.31	1.30	-1.500			
0.9001	57609.47	3.2590	3.2590	-0.2172	27.31	1.30	-1.500			
0.9008	57649.88	3.2560	3.2561	-0.2109	27.31	1.30	-1.500			
0.9014	57689.70	3.2530	3.2530	-0.2038	27.31	1.30	-1.500			
0.9020	57727.38	3.2500	3.2500	-0.1986	27.32	1.31	-1.500			
0.9026	57764.60	3.2470	3.2469	-0.1928	27.32	1.31	-1.500			
0.9031	57801.09	3.2440	3.2441	-0.1884	27.32	1.31	-1.500			
0.9037	57836.94	3.2410	3.2410	-0.1850	27.33	1.32	-1.500			
0.9043	57872.77	3.2380	3.2381	-0.1815	27.33	1.32	-1.500			
0.9048	57907.13	3.2350	3.2349	-0.1776	27.34	1.33	-1.500			
0.9053	57940.43	3.2320	3.2320	-0.1725	27.34	1.33	-1.500			
0.9058	57973.20	3.2290	3.2289	-0.1689	27.34	1.33	-1.500			
0.9063	58005.34	3.2260	3.2261	-0.1645	27.35	1.34	-1.500			
0.9068	58036.61	3.2230	3.2230	-0.1617	27.35	1.34	-1.500			
0.9073	58067.31	3.2200	3.2200	-0.1572	27.35	1.34	-1.500			
0.9078	58097.10	3.2170	3.2169	-0.1532	27.35	1.34	-1.500			
0.9082	58126.15	3.2140	3.2139	-0.1490	27.36	1.35	-1.500			
0.9087	58153.95	3.2110	3.2112	-0.1460	27.36	1.35	-1.500			
0.9091	58181.57	3.2080	3.2080	-0.1432	27.36	1.35	-1.500			
0.9095	58208.84	3.2050	3.2050	-0.1407	27.37	1.36	-1.500			
0.9099	58235.58	3.2020	3.2019	-0.1380	27.37	1.36	-1.500			
0.9103	58261.57	3.1990	3.1991	-0.1348	27.37	1.36	-1.500			
0.9107	58287.61	3.1960	3.1960	-0.1334	27.37	1.36	-1.500			
0.9111	58312.94	3.1930	3.1930	-0.1305	27.38	1.37	-1.500			
0.9115	58337.69	3.1900	3.1900	-0.1284	27.38	1.37	-1.500			
0.9119	58361.72	3.1870	3.1870	-0.1253	27.38	1.37	-1.500			
0.9123	58385.51	3.1840	3.1841	-0.1234	27.38	1.37	-1.500			
0.9126	58409.03	3.1810	3.1809	-0.1217	27.39	1.38	-1.500			
0.9130	58432.23	3.1780	3.1780	-0.1200	27.39	1.38	-1.500			
0.9134	58455.11	3.1750	3.1750	-0.1183	27.39	1.38	-1.500			
0.9137	58477.70	3.1720	3.1719	-0.1165	27.39	1.38	-1.500			
0.9141	58499.93	3.1690	3.1691	-0.1148	27.40	1.39	-1.500			
0.9144	58521.84	3.1660	3.1660	-0.1128	27.40	1.39	-1.500			
0.9147	58543.38	3.1630	3.1630	-0.1110	27.40	1.39	-1.500			
0.9151	58564.41	3.1600	3.1600	-0.1094	27.40	1.39	-1.500			
0.9154	58585.18	3.1570	3.1571	-0.1076	27.40	1.39	-1.500			
0.9157	58605.52	3.1540	3.1541	-0.1065	27.41	1.40	-1.500			
0.9160	58625.62	3.1510	3.1509	-0.1050	27.41	1.40	-1.500			
0.9163	58645.70	3.1480	3.1480	-0.1039	27.41	1.40	-1.500			
0.9166	58665.45	3.1450	3.1449	-0.1028	27.41	1.40	-1.500			
0.9170	58685.29	3.1420	3.1420	-0.1013	27.42	1.41	-1.500			
0.9173	58704.87	3.1390	3.1390	-0.1004	27.42	1.41	-1.500			
0.9176	58723.85	3.1360	3.1360	-0.0991	27.42	1.41	-1.500			
0.9179	58742.79	3.1330	3.1331	-0.0978	27.42	1.41	-1.500			
0.9181	58761.40	3.1300	3.1299	-0.0966	27.43	1.42	-1.500			
0.9184	58779.66	3.1270	3.1270	-0.0951	27.43	1.42	-1.500			
0.9187	58797.81	3.1240	3.1240	-0.0941	27.43	1.42	-1.500			
0.9190	58815.68	3.1210	3.1210	-0.0930	27.43	1.42	-1.500			
0.9193	58833.46	3.1180	3.1179	-0.0921	27.44	1.43	-1.500			
0.9195	58851.18	3.1150	3.1150	-0.0914	27.44	1.43	-1.500			
0.9198	58868.55	3.1120	3.1121	-0.0905	27.44	1.43	-1.500			
0.9201	58885.69	3.1090	3.1089	-0.0893	27.44	1.43	-1.500			
0.9204	58902.79	3.1060	3.1060	-0.0886	27.44	1.43	-1.500			
0.9206	58919.76	3.1030	3.1030	-0.0879	27.45	1.44	-1.500			
0.9209	58936.52	3.1000	3.1000	-0.0872	27.45	1.44	-1.500			
0.9211	58953.16	3.0970	3.0970	-0.0864	27.45	1.44	-1.500			
0.9214	58969.68	3.0940	3.0941	-0.0857	27.45	1.44	-1.500			
0.9217	58986.10	3.0910	3.0910	-0.0848	27.46	1.45	-1.500			
0.9219	59002.31	3.0880	3.0879	-0.0840	27.46	1.45	-1.500			
0.9222	59018.35	3.0850	3.0851	-0.0833	27.46	1.45	-1.500			
0.9224	59034.26	3.0820	3.0820	-0.0825	27.46	1.45	-1.500			
0.9227	59050.04	3.0790	3.0790	-0.0817	27.46	1.45	-1.500			
0.9229	59065.55	3.0760	3.0760	-0.0811	27.47	1.46	-1.500			
0.9231	59080.95	3.0730	3.0730	-0.0803	27.47	1.46	-1.500			
0.9234	59096.32	3.0700	3.0701	-0.0799	27.47	1.46	-1.500			
0.9236	59111.69	3.0670	3.0670	-0.0790	27.47	1.46	-1.500			
0.9239	59126.89	3.0640	3.0639	-0.0785	27.47	1.46	-1.500			
0.9241	59141.73	3.0610	3.0611	-0.0781	27.48	1.47	-1.500			
0.9243	59156.68	3.0580	3.0581	-0.0776	27.48	1.47	-1.500			
0.9246	59171.47	3.0550	3.0549	-0.0771	27.48	1.47	-1.500			
0.9248	59186.34	3.0520	3.0519	-0.0763	27.48	1.47	-1.500			
0.9250	59200.91	3.0490	3.0489	-0.0757	27.48	1.47	-1.500			
0.9252	59215.38	3.0460	3.0460	-0.0751	27.48	1.47	-1.500			
0.9255	59229.67	3.0430	3.0431	-0.0748	27.49	1.48	-1.500			
0.9257	59244.07	3.0400	3.0403	-0.0744	27.49	1.48	-1.500			
0.9259	59258.30	3.0370	3.0369	-0.0739	27.49	1.48	-1.500			
0.9261	59272.41	3.0340	3.0339	-0.0735	27.49	1.48	-1.500			
0.9263	59286.23	3.0310	3.0310	-0.0728	27.49	1.48	-1.500			
0.9266	59300.25	3.0280	3.0282	-0.0726	27.50	1.49	-1.500			
0.9268	59314.29	3.0250	3.0250	-0.0726	27.50	1.49	-1.500			
0.9270	59328.18	3.0220	3.0220	-0.0721	27.50	1.49	-1.500			
0.9272	59342.06	3.0190	3.0189	-0.0712	27.50	1.49	-1.500			
0.9274	59355.75	3.0160	3.0160	-0.0707	27.50	1.49	-1.500			
0.9276	59369.25	3.0130	3.0130	-0.0699	27.51	1.50	-1.500			
0.9279	59382.59	3.0100	3.0101	-0.0691	27.51	1.50	-1.499			
0.9281	59395.96	3.0070	3.0071	-0.0675	27.51	1.50	-1.501			
0.9283	59408.79	3.0040	3.0041	-0.0661	27.51	1.50	-1.500			
