Ah_balance (normalized)	Ah_balance (mAh)	Voltage - fit (V)	Voltage -  interpolate (V)	dQ/dV (1/V)	Temperature (°C)	Temperature - diff (°C)	Current (C)	R_DC 0ms (mOhm)	R_DC 50ms (mOhm)	R_DC 50 ms PEC (mOhm)
0.2683	17169.23	3.9910	3.9910	0.8219	27.34	1.38	1.500			
0.2708	17329.75	3.9880	3.9880	0.8379	27.33	1.37	1.500			
0.2733	17491.87	3.9850	3.9850	0.8423	27.33	1.37	1.500			
0.2758	17654.23	3.9820	3.9820	0.8447	27.32	1.36	1.500			
0.2784	17817.02	3.9790	3.9791	0.8482	27.31	1.35	1.500			
0.2809	17979.47	3.9760	3.9760	0.8555	27.31	1.35	1.500			
0.2835	18143.33	3.9730	3.9730	0.8582	27.30	1.34	1.500			
0.2861	18308.60	3.9700	3.9699	0.8625	27.30	1.34	1.500			
0.2887	18476.56	3.9670	3.9670	0.8682	27.29	1.33	1.500			
0.2913	18644.07	3.9640	3.9640	0.8697	27.28	1.32	1.500			
0.2939	18811.16	3.9610	3.9610	0.8702	27.28	1.32	1.500			
0.2965	18977.66	3.9580	3.9580	0.8712	27.27	1.31	1.500			
0.2991	19144.63	3.9550	3.9550	0.8703	27.26	1.30	1.500			
0.3017	19311.38	3.9520	3.9520	0.8757	27.26	1.30	1.500			
0.3044	19479.59	3.9490	3.9490	0.8793	27.25	1.29	1.500			
0.3070	19648.82	3.9460	3.9460	0.8869	27.25	1.29	1.500			
0.3097	19818.67	3.9430	3.9430	0.8962	27.24	1.28	1.500			
0.3124	19992.32	3.9400	3.9400	0.9010	27.23	1.27	1.500			
0.3151	20166.67	3.9370	3.9370	0.9060	27.23	1.27	1.500			
0.3179	20342.54	3.9340	3.9340	0.9091	27.22	1.26	1.500			
0.3206	20516.77	3.9310	3.9310	0.9081	27.21	1.25	1.500			
0.3233	20690.60	3.9280	3.9280	0.9167	27.21	1.25	1.500			
0.3260	20866.35	3.9250	3.9249	0.9199	27.20	1.24	1.500			
0.3288	21041.35	3.9220	3.9220	0.9262	27.19	1.23	1.500			
0.3316	21221.54	3.9190	3.9191	0.9371	27.18	1.22	1.500			
0.3344	21402.80	3.9160	3.9160	0.9463	27.18	1.22	1.500			
0.3373	21585.72	3.9130	3.9129	0.9541	27.17	1.21	1.500			
0.3402	21769.83	3.9100	3.9100	0.9548	27.16	1.20	1.500			
0.3430	21952.46	3.9070	3.9070	0.9571	27.15	1.19	1.500			
0.3459	22138.21	3.9040	3.9040	0.9649	27.14	1.18	1.500			
0.3488	22322.86	3.9010	3.9010	0.9692	27.13	1.17	1.500			
0.3517	22508.45	3.8980	3.8980	0.9778	27.12	1.16	1.500			
0.3546	22695.81	3.8950	3.8950	0.9889	27.11	1.15	1.500			
0.3576	22887.42	3.8920	3.8919	0.9981	27.10	1.14	1.500			
0.3606	23081.25	3.8890	3.8890	1.0087	27.10	1.14	1.500			
0.3637	23275.65	3.8860	3.8860	1.0166	27.09	1.13	1.500			
0.3667	23471.32	3.8830	3.8831	1.0257	27.08	1.12	1.500			
0.3698	23667.91	3.8800	3.8800	1.0375	27.07	1.11	1.500			
0.3729	23867.55	3.8770	3.8770	1.0509	27.07	1.11	1.500			
0.3761	24070.83	3.8740	3.8740	1.0603	27.06	1.10	1.500			
0.3793	24277.25	3.8710	3.8709	1.0732	27.05	1.09	1.500			
0.3826	24485.50	3.8680	3.8680	1.0858	27.04	1.08	1.500			
0.3858	24694.00	3.8650	3.8650	1.0981	27.03	1.07	1.500			
0.3891	24905.40	3.8620	3.8620	1.1071	27.02	1.06	1.500			
0.3925	25118.54	3.8590	3.8590	1.1184	27.02	1.06	1.500			
0.3959	25334.63	3.8560	3.8560	1.1336	27.01	1.05	1.500			
0.3993	25554.11	3.8530	3.8531	1.1519	27.00	1.04	1.500			
0.4028	25777.12	3.8500	3.8499	1.1667	26.99	1.03	1.500			
0.4063	26001.51	3.8470	3.8470	1.1827	26.98	1.02	1.500			
0.4098	26229.91	3.8440	3.8440	1.1952	26.96	1.00	1.500			
0.4135	26462.45	3.8410	3.8410	1.2104	26.95	0.99	1.500			
0.4171	26697.14	3.8380	3.8380	1.2194	26.94	0.98	1.500			
0.4208	26930.35	3.8350	3.8351	1.2437	26.93	0.97	1.500			
0.4245	27169.16	3.8320	3.8320	1.2632	26.92	0.96	1.500			
0.4283	27412.00	3.8290	3.8289	1.2945	26.91	0.95	1.500			
0.4322	27663.54	3.8260	3.8261	1.3211	26.89	0.93	1.500			
0.4363	27923.48	3.8230	3.8230	1.3475	26.88	0.92	1.500			
0.4404	28184.67	3.8200	3.8201	1.3736	26.87	0.91	1.500			
0.4446	28451.48	3.8170	3.8170	1.3991	26.85	0.89	1.500			
0.4488	28720.02	3.8140	3.8140	1.4186	26.84	0.88	1.500			
0.4530	28994.99	3.8110	3.8110	1.4377	26.83	0.87	1.500			
0.4574	29272.08	3.8080	3.8080	1.4554	26.81	0.85	1.500			
0.4618	29556.87	3.8050	3.8050	1.4791	26.80	0.84	1.500			
0.4663	29843.58	3.8020	3.8020	1.4830	26.78	0.82	1.500			
0.4707	30127.67	3.7990	3.7990	1.5137	26.77	0.81	1.500			
0.4753	30418.62	3.7960	3.7961	1.5382	26.76	0.80	1.500			
0.4799	30714.70	3.7930	3.7928	1.5706	26.74	0.78	1.500			
0.4847	31020.06	3.7900	3.7901	1.6135	26.73	0.77	1.500			
0.4896	31336.44	3.7870	3.7869	1.6421	26.72	0.76	1.500			
0.4947	31660.74	3.7840	3.7838	1.6733	26.70	0.74	1.500	0.338	0.476	
0.4997	31979.87	3.7810	3.7812	1.6816	26.69	0.73	1.500			
0.5048	32307.56	3.7780	3.7779	1.6944	26.68	0.72	1.500			
0.5098	32630.24	3.7750	3.7750	1.6926	26.66	0.70	1.500			
0.5150	32958.69	3.7720	3.7720	1.7004	26.65	0.69	1.500			
0.5201	33285.81	3.7690	3.7691	1.7047	26.63	0.67	1.500			
0.5252	33611.43	3.7660	3.7660	1.7169	26.62	0.66	1.500			
0.5303	33940.94	3.7630	3.7630	1.7323	26.60	0.64	1.500			
0.5355	34272.86	3.7600	3.7600	1.7443	26.59	0.63	1.500			
0.5408	34613.08	3.7570	3.7570	1.7537	26.57	0.61	1.500			
0.5461	34950.42	3.7540	3.7540	1.7614	26.56	0.60	1.500			
0.5513	35284.24	3.7510	3.7510	1.7702	26.55	0.59	1.500			
0.5567	35626.01	3.7480	3.7480	1.7910	26.53	0.57	1.500			
0.5620	35970.86	3.7450	3.7450	1.8187	26.52	0.56	1.500			
0.5676	36323.95	3.7420	3.7420	1.8650	26.50	0.54	1.500			
0.5732	36687.33	3.7390	3.7389	1.9007	26.48	0.52	1.500			
0.5790	37055.00	3.7360	3.7361	1.9438	26.46	0.50	1.500			
0.5849	37431.11	3.7330	3.7330	1.9902	26.44	0.48	1.500			
0.5909	37817.12	3.7300	3.7300	2.0314	26.43	0.47	1.500			
0.5970	38209.92	3.7270	3.7270	2.0877	26.41	0.45	1.500			
0.6034	38616.29	3.7240	3.7240	2.1511	26.39	0.43	1.500			
0.6099	39032.81	3.7210	3.7210	2.2178	26.37	0.41	1.500			
0.6167	39466.21	3.7180	3.7180	2.2638	26.35	0.39	1.500			
0.6236	39911.94	3.7150	3.7150	2.3019	26.33	0.37	1.500			
0.6305	40353.36	3.7120	3.7119	2.3055	26.31	0.35	1.500			
0.6375	40800.73	3.7090	3.7090	2.2637	26.29	0.33	1.500			
0.6443	41232.03	3.7060	3.7060	2.2131	26.28	0.32	1.500			
0.6509	41657.44	3.7030	3.7029	2.0927	26.26	0.30	1.500			
0.6571	42052.53	3.7000	3.7001	1.9779	26.25	0.29	1.500			
0.6628	42416.59	3.6970	3.6970	1.8413	26.23	0.27	1.500			
0.6680	42755.20	3.6940	3.6939	1.7244	26.22	0.26	1.500			
0.6729	43066.15	3.6910	3.6911	1.6141	26.21	0.25	1.500			
0.6776	43365.14	3.6880	3.6880	1.5374	26.20	0.24	1.500			
0.6821	43653.36	3.6850	3.6850	1.4752	26.19	0.23	1.500			
0.6864	43926.93	3.6820	3.6820	1.4128	26.18	0.22	1.500			
0.6905	44192.01	3.6790	3.6790	1.3653	26.17	0.21	1.500			
0.6945	44446.41	3.6760	3.6761	1.3295	26.16	0.20	1.500			
0.6984	44695.72	3.6730	3.6730	1.3007	26.15	0.19	1.500			
0.7022	44940.72	3.6700	3.6699	1.2885	26.14	0.18	1.500			
0.7060	45183.98	3.6670	3.6670	1.2785	26.13	0.17	1.500			
0.7098	45429.76	3.6640	3.6641	1.2785	26.12	0.16	1.500			
0.7137	45676.68	3.6610	3.6610	1.2795	26.11	0.15	1.500			
0.7176	45923.30	3.6580	3.6580	1.2771	26.09	0.13	1.500			
0.7214	46167.03	3.6550	3.6550	1.2735	26.08	0.12	1.500			
0.7252	46411.62	3.6520	3.6520	1.2694	26.07	0.11	1.500			
0.7290	46654.63	3.6490	3.6489	1.2615	26.06	0.10	1.500			
0.7328	46896.79	3.6460	3.6460	1.2541	26.05	0.09	1.500			
0.7365	47137.42	3.6430	3.6430	1.2428	26.04	0.08	1.500			
0.7402	47375.17	3.6400	3.6400	1.2361	26.04	0.08	1.500			
0.7439	47610.32	3.6370	3.6370	1.2209	26.03	0.07	1.500			
0.7476	47843.91	3.6340	3.6340	1.2158	26.02	0.06	1.500			
0.7512	48076.72	3.6310	3.6310	1.2083	26.01	0.05	1.500			
0.7548	48307.73	3.6280	3.6279	1.2011	26.00	0.04	1.500			
0.7584	48538.38	3.6250	3.6250	1.1901	25.99	0.03	1.500			
0.7620	48766.22	3.6220	3.6220	1.1803	25.99	0.03	1.500			
0.7655	48992.62	3.6190	3.6190	1.1626	25.98	0.02	1.500			
0.7690	49216.96	3.6160	3.6159	1.1404	25.98	0.02	1.500			
0.7724	49431.89	3.6130	3.6131	1.1213	25.97	0.01	1.500			
0.7757	49646.18	3.6100	3.6100	1.0982	25.97	0.01	1.500			
0.7790	49854.26	3.6070	3.6069	1.0750	25.96	0.00	1.500			
0.7822	50058.85	3.6040	3.6040	1.0520	25.96	0.00	1.500			
0.7853	50258.51	3.6010	3.6011	1.0212	25.96	0.00	1.500			
0.7883	50453.51	3.5980	3.5979	0.9936	25.96	0.00	1.500			
0.7913	50644.61	3.5950	3.5951	0.9544	25.96	0.00	1.500			
0.7941	50825.51	3.5920	3.5920	0.9059	25.96	0.00	1.500			
0.7969	51001.74	3.5890	3.5889	0.8461	25.96	0.00	1.500			
0.7994	51159.52	3.5860	3.5861	0.7679	25.96	0.00	1.500			
0.8016	51302.49	3.5830	3.5830	0.6844	25.96	0.00	1.500			
0.8035	51425.14	3.5800	3.5800	0.5945	25.96	0.00	1.500			
0.8051	51526.98	3.5770	3.5770	0.5049	25.96	0.00	1.500			
0.8065	51613.05	3.5740	3.5740	0.4303	25.96	0.00	1.500			
0.8076	51684.51	3.5710	3.5709	0.3655	25.96	0.00	1.500			
0.8085	51746.44	3.5680	3.5680	0.3181	25.96	0.00	1.500			
0.8094	51798.91	3.5650	3.5649	0.2761	25.96	0.00	1.500			
0.8101	51847.22	3.5620	3.5620	0.2466	25.96	0.00	1.500			
0.8108	51890.33	3.5590	3.5590	0.2177	25.96	0.00	1.500			
0.8114	51929.30	3.5560	3.5560	0.1978	25.96	0.00	1.500			
0.8119	51964.39	3.5530	3.5530	0.1792	25.96	0.00	1.500			
0.8124	51996.77	3.5500	3.5500	0.1620	25.96	0.00	1.500			
0.8129	52026.27	3.5470	3.5470	0.1479	25.96	0.00	1.500			
0.8133	52052.91	3.5440	3.5440	0.1333	25.96	0.00	1.500			
0.8137	52077.40	3.5410	3.5411	0.1192	25.96	0.00	1.500			
0.8140	52099.11	3.5380	3.5380	0.1057	25.96	0.00	1.500			
0.8143	52118.02	3.5350	3.5352	0.0913	25.96	0.00	1.500			
0.8146	52134.21	3.5320	3.5320	0.0770	25.96	0.00	1.500			
0.8148	52147.93	3.5290	3.5292	0.0624	25.96	0.00	1.500			
0.8150	52158.46	3.5260	3.5264	0.0473	25.96	0.00	1.500			
0.8151	52166.08	3.5230	3.5240	0.0322	25.96	0.00	1.500			
