Ah_balance (normalized)	Ah_balance (mAh)	Voltage - fit (V)	Voltage -  interpolate (V)	dQ/dV (1/V)	Temperature (°C)	Temperature - diff (°C)	Current (C)	R_DC 0ms (mOhm)	R_DC 50ms (mOhm)	R_DC 50 ms PEC (mOhm)
0.2847	18222.15	3.9720	3.9719	0.8980	26.98	1.04	1.500			
0.2874	18391.42	3.9690	3.9690	0.8799	26.98	1.04	1.500			
0.2900	18561.43	3.9660	3.9660	0.8833	26.98	1.04	1.500			
0.2927	18731.04	3.9630	3.9630	0.8838	26.97	1.03	1.500			
0.2953	18900.25	3.9600	3.9599	0.8856	26.97	1.03	1.500			
0.2980	19069.63	3.9570	3.9572	0.8882	26.97	1.03	1.500			
0.3007	19241.83	3.9540	3.9539	0.8927	26.97	1.03	1.500			
0.3033	19413.89	3.9510	3.9510	0.8967	26.97	1.03	1.500			
0.3060	19585.58	3.9480	3.9481	0.9020	26.96	1.02	1.500			
0.3087	19759.36	3.9450	3.9450	0.9079	26.96	1.02	1.500			
0.3115	19934.32	3.9420	3.9420	0.9102	26.96	1.02	1.500			
0.3142	20108.56	3.9390	3.9391	0.9133	26.96	1.02	1.500			
0.3169	20283.71	3.9360	3.9360	0.9221	26.95	1.01	1.500			
0.3197	20462.40	3.9330	3.9330	0.9303	26.95	1.01	1.500			
0.3225	20641.90	3.9300	3.9299	0.9309	26.95	1.01	1.500			
0.3253	20820.98	3.9270	3.9271	0.9333	26.95	1.01	1.500			
0.3281	21001.59	3.9240	3.9241	0.9424	26.95	1.01	1.500			
0.3310	21182.94	3.9210	3.9210	0.9473	26.94	1.00	1.500			
0.3338	21363.98	3.9180	3.9179	0.9494	26.94	1.00	1.500			
0.3367	21545.92	3.9150	3.9151	0.9550	26.94	1.00	1.500			
0.3395	21730.39	3.9120	3.9121	0.9657	26.93	0.99	1.500			
0.3425	21917.27	3.9090	3.9090	0.9761	26.93	0.99	1.500			
0.3454	22105.15	3.9060	3.9059	0.9837	26.92	0.98	1.500			
0.3484	22294.88	3.9030	3.9030	0.9906	26.92	0.98	1.500			
0.3513	22485.99	3.9000	3.9001	1.0006	26.91	0.97	1.500			
0.3544	22680.98	3.8970	3.8969	1.0053	26.91	0.97	1.500			
0.3574	22874.08	3.8940	3.8940	1.0100	26.90	0.96	1.500			
0.3604	23066.79	3.8910	3.8910	1.0140	26.90	0.96	1.500			
0.3634	23260.71	3.8880	3.8880	1.0249	26.90	0.96	1.500			
0.3665	23457.47	3.8850	3.8850	1.0364	26.89	0.95	1.500			
0.3697	23657.91	3.8820	3.8820	1.0509	26.89	0.95	1.500			
0.3729	23862.83	3.8790	3.8790	1.0601	26.89	0.95	1.500			
0.3761	24068.12	3.8760	3.8760	1.0769	26.88	0.94	1.500			
0.3793	24275.41	3.8730	3.8731	1.0917	26.88	0.94	1.500			
0.3826	24487.26	3.8700	3.8700	1.1020	26.87	0.93	1.500			
0.3859	24698.71	3.8670	3.8669	1.1122	26.87	0.93	1.500			
0.3893	24914.35	3.8640	3.8641	1.1255	26.87	0.93	1.500			
0.3927	25131.50	3.8610	3.8610	1.1403	26.86	0.92	1.500			
0.3961	25351.20	3.8580	3.8580	1.1573	26.86	0.92	1.500			
0.3996	25572.75	3.8550	3.8550	1.1627	26.85	0.91	1.500			
0.4031	25796.76	3.8520	3.8520	1.1842	26.85	0.91	1.500			
0.4067	26026.82	3.8490	3.8491	1.2078	26.84	0.90	1.500			
0.4103	26259.90	3.8460	3.8458	1.2253	26.84	0.90	1.500			
0.4140	26497.39	3.8430	3.8430	1.2488	26.83	0.89	1.500			
0.4178	26739.12	3.8400	3.8400	1.2662	26.83	0.89	1.500			
0.4216	26984.17	3.8370	3.8369	1.2861	26.82	0.88	1.500			
0.4255	27233.65	3.8340	3.8340	1.3039	26.81	0.87	1.500			
0.4294	27484.65	3.8310	3.8309	1.3281	26.80	0.86	1.500			
0.4335	27741.42	3.8280	3.8280	1.3506	26.79	0.85	1.500			
0.4375	28001.44	3.8250	3.8250	1.3877	26.79	0.85	1.500			
0.4417	28269.77	3.8220	3.8220	1.4156	26.78	0.84	1.500			
0.4460	28546.19	3.8190	3.8190	1.4482	26.77	0.83	1.500			
0.4504	28824.84	3.8160	3.8160	1.4860	26.77	0.83	1.500			
0.4549	29115.06	3.8130	3.8131	1.5201	26.76	0.82	1.500			
0.4595	29408.26	3.8100	3.8099	1.5642	26.75	0.81	1.500			
0.4643	29712.64	3.8070	3.8070	1.6055	26.74	0.80	1.500			
0.4691	30023.80	3.8040	3.8040	1.6423	26.73	0.79	1.500			
0.4742	30346.33	3.8010	3.8010	1.6910	26.71	0.77	1.500			
0.4793	30673.19	3.7980	3.7980	1.7317	26.70	0.76	1.500			
0.4845	31007.39	3.7950	3.7950	1.7907	26.68	0.74	1.500			
0.4900	31359.47	3.7920	3.7920	1.8249	26.67	0.73	1.500			
0.4956	31715.55	3.7890	3.7890	1.8804	26.66	0.72	1.500			
0.5013	32081.50	3.7860	3.7861	1.9394	26.65	0.71	1.500			
0.5071	32456.93	3.7830	3.7829	1.9927	26.65	0.71	1.500			
0.5132	32843.73	3.7800	3.7799	2.0359	26.63	0.69	1.500			
0.5194	33243.43	3.7770	3.7771	2.0653	26.61	0.67	1.500			
0.5258	33648.65	3.7740	3.7740	2.1347	26.60	0.66	1.500			
0.5321	34057.51	3.7710	3.7710	2.1532	26.58	0.64	1.500			
0.5386	34471.76	3.7680	3.7682	2.2067	26.56	0.62	1.500			
0.5454	34905.22	3.7650	3.7650	2.2366	26.54	0.60	1.500			
0.5522	35341.00	3.7620	3.7619	2.2521	26.52	0.58	1.500	0.366	0.456	
0.5590	35775.85	3.7590	3.7589	2.2469	26.50	0.56	1.500			
0.5658	36208.80	3.7560	3.7560	2.2217	26.48	0.54	1.500			
0.5723	36629.18	3.7530	3.7531	2.1859	26.46	0.52	1.500			
0.5789	37051.36	3.7500	3.7500	2.1626	26.44	0.50	1.500			
0.5852	37455.66	3.7470	3.7470	2.1397	26.42	0.48	1.500			
0.5916	37864.39	3.7440	3.7440	2.1256	26.40	0.46	1.500			
0.5980	38272.90	3.7410	3.7410	2.1072	26.39	0.45	1.500			
0.6043	38674.06	3.7380	3.7381	2.1090	26.37	0.43	1.500			
0.6106	39079.46	3.7350	3.7351	2.1127	26.36	0.42	1.500			
0.6170	39487.20	3.7320	3.7320	2.1045	26.34	0.40	1.500			
0.6233	39889.79	3.7290	3.7291	2.1347	26.32	0.38	1.500			
0.6296	40295.45	3.7260	3.7260	2.1545	26.31	0.37	1.500			
0.6361	40710.55	3.7230	3.7229	2.1989	26.29	0.35	1.500			
0.6428	41137.94	3.7200	3.7201	2.2703	26.28	0.34	1.500			
0.6497	41582.50	3.7170	3.7170	2.3410	26.26	0.32	1.500			
0.6568	42036.31	3.7140	3.7140	2.4255	26.25	0.31	1.500			
0.6642	42508.44	3.7110	3.7110	2.5332	26.23	0.29	1.500			
0.6719	43003.86	3.7080	3.7080	2.5882	26.21	0.27	1.500			
0.6799	43516.06	3.7050	3.7051	2.7163	26.19	0.25	1.500			
0.6882	44044.41	3.7020	3.7020	2.7844	26.17	0.23	1.500			
0.6966	44583.44	3.6990	3.6991	2.7969	26.16	0.22	1.500			
0.7052	45132.87	3.6960	3.6960	2.7823	26.14	0.20	1.500			
0.7137	45676.87	3.6930	3.6930	2.7128	26.13	0.19	1.500			
0.7216	46184.85	3.6900	3.6900	2.5563	26.12	0.18	1.500			
0.7291	46659.38	3.6870	3.6870	2.3610	26.11	0.17	1.500			
0.7357	47084.66	3.6840	3.6839	2.1426	26.10	0.16	1.500			
0.7418	47475.21	3.6810	3.6810	1.9618	26.09	0.15	1.500			
0.7472	47822.60	3.6780	3.6780	1.7937	26.09	0.15	1.500			
0.7524	48152.63	3.6750	3.6751	1.6732	26.09	0.15	1.500			
0.7572	48457.75	3.6720	3.6720	1.5733	26.08	0.14	1.500			
0.7617	48746.59	3.6690	3.6689	1.4859	26.08	0.14	1.500			
0.7660	49021.60	3.6660	3.6661	1.4115	26.07	0.13	1.500			
0.7701	49284.49	3.6630	3.6630	1.3506	26.06	0.12	1.500			
0.7740	49536.75	3.6600	3.6600	1.2972	26.06	0.12	1.500			
0.7777	49774.53	3.6570	3.6570	1.2584	26.05	0.11	1.500			
0.7814	50008.52	3.6540	3.6540	1.2347	26.05	0.11	1.500			
0.7850	50239.22	3.6510	3.6509	1.2330	26.04	0.10	1.500			
0.7886	50471.55	3.6480	3.6480	1.2401	26.03	0.09	1.500			
0.7924	50711.61	3.6450	3.6449	1.2618	26.03	0.09	1.500			
0.7962	50956.25	3.6420	3.6420	1.2809	26.02	0.08	1.500			
0.8001	51204.48	3.6390	3.6390	1.3053	26.02	0.08	1.500			
0.8040	51458.35	3.6360	3.6361	1.3196	26.01	0.07	1.500			
0.8081	51716.20	3.6330	3.6329	1.3315	26.00	0.06	1.500			
0.8121	51973.71	3.6300	3.6300	1.3316	26.00	0.06	1.500			
0.8161	52231.66	3.6270	3.6271	1.3278	25.99	0.05	1.500			
0.8201	52487.83	3.6240	3.6240	1.3171	25.98	0.04	1.500			
0.8241	52740.72	3.6210	3.6210	1.3087	25.98	0.04	1.500			
0.8279	52985.47	3.6180	3.6181	1.2986	25.97	0.03	1.500			
0.8318	53235.66	3.6150	3.6150	1.2960	25.97	0.03	1.500			
0.8357	53483.40	3.6120	3.6119	1.2939	25.96	0.02	1.500			
0.8396	53731.64	3.6090	3.6090	1.2931	25.96	0.02	1.500			
0.8435	53982.70	3.6060	3.6060	1.2942	25.95	0.01	1.500			
0.8474	54232.21	3.6030	3.6029	1.2830	25.95	0.01	1.500			
0.8512	54477.32	3.6000	3.6000	1.2688	25.95	0.01	1.500			
0.8550	54720.24	3.5970	3.5971	1.2553	25.94	0.00	1.500			
0.8588	54961.81	3.5940	3.5939	1.2406	25.94	0.00	1.500			
0.8625	55196.95	3.5910	3.5910	1.2198	25.94	0.00	1.500			
0.8661	55427.71	3.5880	3.5881	1.2032	25.94	0.00	1.500			
0.8696	55655.41	3.5850	3.5850	1.1993	25.94	0.00	1.500			
0.8732	55884.97	3.5820	3.5819	1.1981	25.94	0.00	1.500			
0.8768	56113.84	3.5790	3.5790	1.1895	25.94	0.00	1.500			
0.8804	56342.48	3.5760	3.5761	1.1902	25.94	0.00	1.500			
0.8841	56579.36	3.5730	3.5729	1.1617	25.94	0.00	1.500			
0.8876	56806.18	3.5700	3.5699	1.1003	25.94	0.00	1.500			
0.8910	57025.93	3.5670	3.5670	0.9926	25.94	0.00	1.500			
0.8939	57210.47	3.5640	3.5643	0.8568	25.94	0.00	1.500			
0.8963	57365.99	3.5610	3.5611	0.7184	25.94	0.00	1.500			
0.8982	57486.02	3.5580	3.5578	0.5744	25.94	0.00	1.500			
0.8995	57569.16	3.5550	3.5549	0.4475	25.94	0.00	1.500			
0.9006	57638.98	3.5520	3.5517	0.3689	25.94	0.00	1.500			
0.9015	57695.76	3.5490	3.5489	0.3054	25.94	0.00	1.500			
0.9023	57746.55	3.5460	3.5460	0.2632	25.94	0.00	1.500			
0.9030	57790.35	3.5430	3.5429	0.2244	25.94	0.00	1.500			
0.9036	57828.82	3.5400	3.5400	0.1997	25.94	0.00	1.500			
0.9041	57861.98	3.5370	3.5370	0.1755	25.94	0.00	1.500			
0.9046	57893.61	3.5340	3.5340	0.1570	25.94	0.00	1.500			
0.9050	57921.74	3.5310	3.5310	0.1412	25.94	0.00	1.500			
0.9054	57946.80	3.5280	3.5279	0.1242	25.94	0.00	1.500			
0.9058	57969.04	3.5250	3.5250	0.1087	25.94	0.00	1.500			
0.9061	57988.43	3.5220	3.5221	0.0936	25.94	0.00	1.500			
0.9063	58004.96	3.5190	3.5192	0.0785	25.94	0.00	1.500			
0.9065	58018.78	3.5160	3.5163	0.0629	25.94	0.00	1.500			
0.9067	58029.37	3.5130	3.5135	0.0473	25.94	0.00	1.500			
