Ah_balance (normalized)	Ah_balance (mAh)	Voltage - fit (V)	Voltage -  interpolate (V)	dQ/dV (1/V)	Temperature (°C)	Temperature - diff (°C)	Current (C)	R_DC 0ms (mOhm)	R_DC 50ms (mOhm)	R_DC 50 ms PEC (mOhm)
0.2858	18294.31	3.9910	3.9910	0.8218	27.33	1.38	1.500			
0.2883	18452.99	3.9880	3.9880	0.8316	27.32	1.37	1.500			
0.2909	18614.43	3.9850	3.9850	0.8415	27.32	1.37	1.500			
0.2934	18777.49	3.9820	3.9820	0.8461	27.31	1.36	1.500			
0.2959	18940.72	3.9790	3.9790	0.8507	27.31	1.36	1.500			
0.2985	19104.26	3.9760	3.9760	0.8523	27.30	1.35	1.500			
0.3011	19268.42	3.9730	3.9731	0.8519	27.29	1.34	1.500			
0.3036	19431.62	3.9700	3.9700	0.8556	27.29	1.34	1.500			
0.3062	19594.73	3.9670	3.9670	0.8593	27.28	1.33	1.500			
0.3088	19760.74	3.9640	3.9640	0.8632	27.28	1.33	1.500			
0.3114	19927.02	3.9610	3.9610	0.8658	27.27	1.32	1.500			
0.3140	20094.16	3.9580	3.9580	0.8664	27.26	1.31	1.500			
0.3166	20260.99	3.9550	3.9550	0.8683	27.26	1.31	1.500			
0.3192	20427.64	3.9520	3.9521	0.8704	27.25	1.30	1.500			
0.3218	20593.10	3.9490	3.9490	0.8719	27.24	1.29	1.500			
0.3244	20759.97	3.9460	3.9459	0.8762	27.24	1.29	1.500			
0.3270	20929.57	3.9430	3.9429	0.8856	27.23	1.28	1.500			
0.3297	21100.15	3.9400	3.9400	0.8913	27.22	1.27	1.500			
0.3324	21271.78	3.9370	3.9371	0.8988	27.22	1.27	1.500			
0.3351	21445.13	3.9340	3.9340	0.9064	27.21	1.26	1.500			
0.3378	21620.57	3.9310	3.9310	0.9102	27.21	1.26	1.500			
0.3405	21794.85	3.9280	3.9280	0.9148	27.20	1.25	1.500			
0.3433	21971.77	3.9250	3.9250	0.9182	27.19	1.24	1.500			
0.3461	22149.40	3.9220	3.9220	0.9205	27.19	1.24	1.500			
0.3488	22325.65	3.9190	3.9190	0.9281	27.18	1.23	1.500			
0.3516	22503.31	3.9160	3.9159	0.9310	27.17	1.22	1.500			
0.3544	22682.92	3.9130	3.9130	0.9359	27.17	1.22	1.500			
0.3572	22862.33	3.9100	3.9100	0.9457	27.16	1.21	1.500			
0.3601	23043.53	3.9070	3.9070	0.9553	27.15	1.20	1.500			
0.3630	23228.89	3.9040	3.9040	0.9643	27.15	1.20	1.500			
0.3659	23414.76	3.9010	3.9009	0.9709	27.14	1.19	1.500			
0.3688	23601.50	3.8980	3.8981	0.9720	27.13	1.18	1.500			
0.3717	23788.67	3.8950	3.8950	0.9865	27.12	1.17	1.500			
0.3747	23978.59	3.8920	3.8921	0.9958	27.12	1.17	1.500			
0.3777	24170.22	3.8890	3.8888	1.0030	27.11	1.16	1.500			
0.3807	24363.64	3.8860	3.8860	1.0100	27.10	1.15	1.500			
0.3837	24558.77	3.8830	3.8831	1.0235	27.10	1.15	1.500			
0.3868	24756.94	3.8800	3.8800	1.0344	27.09	1.14	1.500			
0.3899	24955.67	3.8770	3.8770	1.0417	27.08	1.13	1.500			
0.3931	25155.52	3.8740	3.8740	1.0518	27.07	1.12	1.500			
0.3962	25358.47	3.8710	3.8711	1.0687	27.07	1.12	1.500			
0.3995	25566.17	3.8680	3.8680	1.0817	27.06	1.11	1.500			
0.4027	25775.47	3.8650	3.8649	1.0993	27.05	1.10	1.500			
0.4060	25986.80	3.8620	3.8621	1.1113	27.04	1.09	1.500			
0.4094	26202.20	3.8590	3.8590	1.1265	27.03	1.08	1.500			
0.4128	26419.55	3.8560	3.8560	1.1404	27.02	1.07	1.500			
0.4162	26639.02	3.8530	3.8530	1.1533	27.01	1.06	1.500			
0.4197	26860.95	3.8500	3.8500	1.1704	27.00	1.05	1.500			
0.4233	27088.53	3.8470	3.8470	1.1883	26.99	1.04	1.500			
0.4268	27317.05	3.8440	3.8440	1.2030	26.98	1.03	1.500			
0.4305	27550.46	3.8410	3.8411	1.2221	26.97	1.02	1.500			
0.4342	27787.49	3.8380	3.8380	1.2389	26.96	1.01	1.500			
0.4379	28027.55	3.8350	3.8350	1.2538	26.95	1.00	1.500			
0.4417	28268.78	3.8320	3.8320	1.2742	26.93	0.98	1.500			
0.4455	28512.35	3.8290	3.8290	1.2984	26.92	0.97	1.500			
0.4494	28763.22	3.8260	3.8260	1.3318	26.91	0.96	1.500			
0.4535	29021.12	3.8230	3.8229	1.3542	26.90	0.95	1.500			
0.4576	29284.87	3.8200	3.8200	1.3803	26.88	0.93	1.500			
0.4618	29557.79	3.8170	3.8170	1.3993	26.87	0.92	1.500			
0.4660	29826.83	3.8140	3.8139	1.4240	26.86	0.91	1.500			
0.4703	30100.34	3.8110	3.8110	1.4442	26.84	0.89	1.500			
0.4746	30377.14	3.8080	3.8081	1.4729	26.83	0.88	1.500			
0.4791	30663.19	3.8050	3.8049	1.5055	26.82	0.87	1.500			
0.4837	30956.50	3.8020	3.8020	1.5393	26.80	0.85	1.500			
0.4884	31259.79	3.7990	3.7990	1.5688	26.79	0.84	1.500			
0.4932	31566.18	3.7960	3.7961	1.5891	26.77	0.82	1.500			
0.4980	31868.95	3.7930	3.7930	1.6064	26.75	0.80	1.500			
0.5028	32177.23	3.7900	3.7899	1.6344	26.74	0.79	1.500			
0.5077	32491.85	3.7870	3.7869	1.6633	26.72	0.77	1.500			
0.5128	32818.72	3.7840	3.7840	1.6841	26.71	0.76	1.500			
0.5179	33146.92	3.7810	3.7812	1.7079	26.69	0.74	1.500	0.355	0.478	
0.5231	33476.18	3.7780	3.7781	1.7238	26.67	0.72	1.500			
0.5282	33806.72	3.7750	3.7750	1.7281	26.66	0.71	1.500			
0.5334	34137.54	3.7720	3.7721	1.7333	26.64	0.69	1.500			
0.5387	34476.51	3.7690	3.7690	1.7441	26.62	0.67	1.500			
0.5439	34810.82	3.7660	3.7660	1.7408	26.61	0.66	1.500			
0.5491	35142.95	3.7630	3.7630	1.7369	26.59	0.64	1.500			
0.5543	35477.92	3.7600	3.7600	1.7459	26.58	0.63	1.500			
0.5595	35810.76	3.7570	3.7570	1.7501	26.56	0.61	1.500			
0.5648	36148.68	3.7540	3.7540	1.7479	26.55	0.60	1.500			
0.5701	36485.49	3.7510	3.7509	1.7767	26.54	0.59	1.500			
0.5754	36827.61	3.7480	3.7480	1.7942	26.53	0.58	1.500			
0.5808	37173.31	3.7450	3.7451	1.8160	26.51	0.56	1.500			
0.5863	37522.77	3.7420	3.7420	1.8545	26.49	0.54	1.500			
0.5918	37877.85	3.7390	3.7390	1.8806	26.47	0.52	1.500			
0.5975	38237.37	3.7360	3.7360	1.9239	26.46	0.51	1.500			
0.6033	38613.09	3.7330	3.7331	1.9822	26.44	0.49	1.500			
0.6095	39005.58	3.7300	3.7300	2.0282	26.42	0.47	1.500			
0.6156	39396.33	3.7270	3.7271	2.0849	26.41	0.46	1.500			
0.6218	39794.46	3.7240	3.7241	2.1396	26.39	0.44	1.500			
0.6283	40214.38	3.7210	3.7209	2.2097	26.38	0.43	1.500			
0.6351	40644.23	3.7180	3.7181	2.2907	26.36	0.41	1.500			
0.6422	41099.27	3.7150	3.7149	2.3592	26.34	0.39	1.500			
0.6492	41550.36	3.7120	3.7120	2.3586	26.32	0.37	1.500			
0.6564	42009.46	3.7090	3.7090	2.3915	26.30	0.35	1.500			
0.6636	42467.70	3.7060	3.7059	2.3526	26.28	0.33	1.500			
0.6706	42920.34	3.7030	3.7030	2.2623	26.26	0.31	1.500			
0.6774	43353.01	3.7000	3.7000	2.1436	26.24	0.29	1.500			
0.6835	43746.12	3.6970	3.6970	1.9651	26.23	0.28	1.500			
0.6890	44098.43	3.6940	3.6941	1.8189	26.21	0.26	1.500			
0.6942	44431.53	3.6910	3.6910	1.7007	26.20	0.25	1.500			
0.6991	44744.02	3.6880	3.6880	1.6019	26.19	0.24	1.500			
0.7037	45039.50	3.6850	3.6851	1.5219	26.18	0.23	1.500			
0.7082	45323.64	3.6820	3.6820	1.4604	26.17	0.22	1.500			
0.7124	45596.71	3.6790	3.6789	1.4039	26.16	0.21	1.500			
0.7165	45856.45	3.6760	3.6760	1.3484	26.15	0.20	1.500			
0.7205	46110.47	3.6730	3.6730	1.3184	26.14	0.19	1.500			
0.7244	46359.36	3.6700	3.6700	1.2936	26.13	0.18	1.500			
0.7282	46602.76	3.6670	3.6669	1.2765	26.12	0.17	1.500			
0.7319	46843.51	3.6640	3.6640	1.2766	26.11	0.16	1.500			
0.7357	47087.65	3.6610	3.6610	1.2737	26.10	0.15	1.500			
0.7396	47334.21	3.6580	3.6580	1.2758	26.09	0.14	1.500			
0.7435	47581.00	3.6550	3.6550	1.2725	26.08	0.13	1.500			
0.7473	47825.04	3.6520	3.6521	1.2711	26.07	0.12	1.500			
0.7511	48068.46	3.6490	3.6490	1.2689	26.06	0.11	1.500			
0.7549	48311.45	3.6460	3.6459	1.2622	26.05	0.10	1.500			
0.7586	48551.78	3.6430	3.6430	1.2482	26.05	0.10	1.500			
0.7624	48793.45	3.6400	3.6399	1.2442	26.04	0.09	1.500			
0.7661	49033.14	3.6370	3.6371	1.2353	26.03	0.08	1.500			
0.7698	49267.10	3.6340	3.6340	1.2303	26.02	0.07	1.500			
0.7735	49500.83	3.6310	3.6310	1.2193	26.01	0.06	1.500			
0.7771	49735.46	3.6280	3.6279	1.2115	26.00	0.05	1.500			
0.7807	49967.53	3.6250	3.6250	1.2052	25.99	0.04	1.500			
0.7844	50199.45	3.6220	3.6221	1.1958	25.99	0.04	1.500			
0.7880	50430.11	3.6190	3.6189	1.1833	25.98	0.03	1.500			
0.7915	50655.90	3.6160	3.6160	1.1599	25.98	0.03	1.500			
0.7949	50876.14	3.6130	3.6130	1.1402	25.97	0.02	1.500			
0.7984	51095.16	3.6100	3.6100	1.1210	25.97	0.02	1.500			
0.8017	51308.18	3.6070	3.6070	1.0967	25.96	0.01	1.500			
0.8049	51515.43	3.6040	3.6040	1.0699	25.96	0.01	1.500			
0.8081	51718.07	3.6010	3.6010	1.0466	25.96	0.01	1.500			
0.8112	51917.46	3.5980	3.5980	1.0244	25.96	0.01	1.500			
0.8143	52112.84	3.5950	3.5950	0.9966	25.96	0.01	1.500			
0.8173	52305.16	3.5920	3.5919	0.9583	25.95	0.00	1.500			
0.8201	52489.36	3.5890	3.5890	0.9104	25.95	0.00	1.500			
0.8229	52664.12	3.5860	3.5860	0.8509	25.95	0.00	1.500			
0.8254	52824.41	3.5830	3.5830	0.7682	25.95	0.00	1.500			
0.8276	52966.76	3.5800	3.5800	0.6786	25.95	-0.00	1.500			
0.8295	53086.54	3.5770	3.5770	0.5847	25.95	-0.00	1.500			
0.8311	53187.25	3.5740	3.5741	0.4928	25.95	-0.00	1.500			
0.8323	53268.92	3.5710	3.5710	0.4180	25.95	-0.00	1.500			
0.8334	53338.89	3.5680	3.5680	0.3549	25.95	-0.00	1.500			
0.8343	53395.94	3.5650	3.5649	0.3015	25.95	-0.00	1.500			
0.8351	53447.75	3.5620	3.5620	0.2649	25.95	-0.00	1.500			
0.8358	53494.07	3.5590	3.5590	0.2319	25.95	-0.00	1.500			
0.8365	53534.76	3.5560	3.5559	0.2071	25.95	-0.00	1.500			
0.8370	53570.77	3.5530	3.5530	0.1854	25.95	-0.00	1.500			
0.8376	53603.88	3.5500	3.5500	0.1658	25.95	-0.00	1.500			
0.8380	53633.26	3.5470	3.5471	0.1497	25.95	-0.00	1.500			
0.8384	53660.64	3.5440	3.5439	0.1347	25.95	-0.00	1.500			
0.8388	53684.60	3.5410	3.5410	0.1192	25.95	-0.00	1.500			
0.8392	53706.07	3.5380	3.5380	0.1048	25.95	-0.00	1.500			
0.8395	53724.82	3.5350	3.5351	0.0905	25.95	-0.00	1.500			
0.8397	53741.08	3.5320	3.5321	0.0764	25.95	-0.00	1.500			
0.8399	53754.64	3.5290	3.5292	0.0617	25.95	-0.00	1.500			
0.8401	53765.03	3.5260	3.5264	0.0465	25.94	-0.01	1.500			
0.8402	53772.50	3.5230	3.5239	0.0313	25.94	-0.01	1.500			
