Ah_balance (normalized)	Ah_balance (mAh)	Voltage - fit (V)	Voltage -  interpolate (V)	dQ/dV (1/V)	Temperature (°C)	Temperature - diff (°C)	Current (C)	R_DC 0ms (mOhm)	R_DC 50ms (mOhm)	R_DC 50 ms PEC (mOhm)
0.2017	12909.48	3.9120	3.9119	-0.1235	25.91	-0.03	-1.500			
0.2021	12937.18	3.9090	3.9088	-0.1602	25.91	-0.03	-1.500			
0.2027	12970.89	3.9060	3.9059	-0.1937	25.91	-0.03	-1.500			
0.2033	13011.66	3.9030	3.9031	-0.2270	25.91	-0.03	-1.500			
0.2040	13058.67	3.9000	3.9001	-0.2584	25.91	-0.03	-1.500			
0.2049	13112.56	3.8970	3.8969	-0.2887	25.92	-0.02	-1.500			
0.2058	13170.27	3.8940	3.8941	-0.3193	25.92	-0.02	-1.500			
0.2068	13233.99	3.8910	3.8910	-0.3512	25.92	-0.02	-1.500			
0.2079	13303.78	3.8880	3.8881	-0.3834	25.92	-0.02	-1.500			
0.2091	13380.52	3.8850	3.8849	-0.4150	25.92	-0.02	-1.500			
0.2104	13463.70	3.8820	3.8820	-0.4472	25.92	-0.02	-1.500			
0.2118	13553.13	3.8790	3.8790	-0.4785	25.92	-0.02	-1.500			
0.2133	13648.52	3.8760	3.8761	-0.5115	25.93	-0.01	-1.500			
0.2148	13748.98	3.8730	3.8730	-0.5414	25.93	-0.01	-1.500			
0.2165	13856.69	3.8700	3.8699	-0.5665	25.93	-0.01	-1.500			
0.2183	13968.73	3.8670	3.8670	-0.5928	25.93	-0.01	-1.500			
0.2201	14086.11	3.8640	3.8640	-0.6175	25.93	-0.01	-1.500			
0.2220	14206.41	3.8610	3.8611	-0.6399	25.94	-0.00	-1.500			
0.2239	14331.80	3.8580	3.8579	-0.6619	25.94	-0.00	-1.500			
0.2259	14460.70	3.8550	3.8550	-0.6809	25.94	0.00	-1.500			
0.2280	14593.92	3.8520	3.8519	-0.6976	25.94	0.00	-1.500			
0.2302	14731.19	3.8490	3.8490	-0.7128	25.95	0.01	-1.500			
0.2323	14870.05	3.8460	3.8460	-0.7255	25.95	0.01	-1.500			
0.2345	15010.69	3.8430	3.8430	-0.7349	25.95	0.01	-1.500			
0.2368	15152.22	3.8400	3.8400	-0.7435	25.95	0.01	-1.500			
0.2390	15296.02	3.8370	3.8370	-0.7535	25.96	0.02	-1.500			
0.2413	15442.28	3.8340	3.8340	-0.7622	25.96	0.02	-1.500			
0.2436	15590.93	3.8310	3.8310	-0.7683	25.96	0.02	-1.500			
0.2459	15738.72	3.8280	3.8280	-0.7713	25.96	0.02	-1.500			
0.2482	15887.30	3.8250	3.8250	-0.7763	25.97	0.03	-1.500			
0.2506	16036.31	3.8220	3.8221	-0.7832	25.97	0.03	-1.500			
0.2529	16186.27	3.8190	3.8189	-0.7880	25.98	0.04	-1.500			
0.2553	16338.62	3.8160	3.8160	-0.7920	25.98	0.04	-1.500			
0.2577	16491.73	3.8130	3.8130	-0.7960	25.98	0.04	-1.500			
0.2601	16647.10	3.8100	3.8100	-0.8038	25.99	0.05	-1.500			
0.2625	16801.05	3.8070	3.8070	-0.8011	25.99	0.05	-1.500			
0.2649	16953.84	3.8040	3.8040	-0.8010	26.00	0.06	-1.500			
0.2673	17107.35	3.8010	3.8011	-0.8041	26.00	0.06	-1.500			
0.2697	17262.14	3.7980	3.7980	-0.8048	26.01	0.07	-1.500			
0.2721	17417.02	3.7950	3.7949	-0.8083	26.01	0.07	-1.500			
0.2746	17572.35	3.7920	3.7921	-0.8103	26.02	0.08	-1.500			
0.2770	17728.53	3.7890	3.7890	-0.8075	26.02	0.08	-1.500			
0.2794	17884.11	3.7860	3.7860	-0.8110	26.03	0.09	-1.500			
0.2819	18039.10	3.7830	3.7830	-0.8115	26.04	0.10	-1.500			
0.2843	18193.52	3.7800	3.7800	-0.8137	26.04	0.10	-1.500			
0.2867	18350.99	3.7770	3.7769	-0.8173	26.05	0.11	-1.500			
0.2892	18507.31	3.7740	3.7740	-0.8199	26.05	0.11	-1.500			
0.2916	18665.46	3.7710	3.7710	-0.8266	26.06	0.12	-1.500			
0.2942	18826.54	3.7680	3.7680	-0.8254	26.07	0.13	-1.500			
0.2966	18985.06	3.7650	3.7650	-0.8200	26.07	0.13	-1.500			
0.2991	19142.45	3.7620	3.7621	-0.8196	26.08	0.14	-1.500			
0.3015	19298.37	3.7590	3.7590	-0.8181	26.08	0.14	-1.500			
0.3040	19456.04	3.7560	3.7559	-0.8180	26.09	0.15	-1.500			
0.3064	19611.44	3.7530	3.7530	-0.8162	26.09	0.15	-1.500			
0.3089	19768.61	3.7500	3.7500	-0.8193	26.10	0.16	-1.500			
0.3114	19927.30	3.7470	3.7471	-0.8238	26.11	0.17	-1.500			
0.3138	20086.19	3.7440	3.7439	-0.8240	26.11	0.17	-1.500			
0.3163	20243.35	3.7410	3.7411	-0.8246	26.12	0.18	-1.500			
0.3188	20402.63	3.7380	3.7380	-0.8186	26.12	0.18	-1.500			
0.3212	20559.95	3.7350	3.7349	-0.8176	26.13	0.19	-1.500			
0.3237	20715.51	3.7320	3.7321	-0.8184	26.14	0.20	-1.500			
0.3261	20872.50	3.7290	3.7290	-0.8180	26.14	0.20	-1.500			
0.3286	21031.49	3.7260	3.7259	-0.8141	26.15	0.21	-1.500			
0.3311	21188.46	3.7230	3.7230	-0.8091	26.15	0.21	-1.500			
0.3335	21341.81	3.7200	3.7202	-0.8084	26.16	0.22	-1.500			
0.3359	21497.38	3.7170	3.7171	-0.8113	26.17	0.23	-1.500			
0.3383	21649.92	3.7140	3.7138	-0.8118	26.17	0.23	-1.500			
0.3407	21804.61	3.7110	3.7110	-0.8210	26.18	0.24	-1.500			
0.3432	21963.60	3.7080	3.7080	-0.8296	26.18	0.24	-1.500			
0.3457	22125.00	3.7050	3.7050	-0.8349	26.19	0.25	-1.500			
0.3482	22287.92	3.7020	3.7020	-0.8441	26.20	0.26	-1.500			
0.3508	22448.66	3.6990	3.6992	-0.8498	26.20	0.26	-1.500			
0.3533	22610.99	3.6960	3.6958	-0.8575	26.21	0.27	-1.500			
0.3559	22776.72	3.6930	3.6930	-0.8637	26.21	0.27	-1.500			
0.3585	22942.76	3.6900	3.6900	-0.8745	26.22	0.28	-1.500			
0.3612	23114.30	3.6870	3.6871	-0.8862	26.23	0.29	-1.500			
0.3638	23285.37	3.6840	3.6839	-0.8929	26.23	0.29	-1.500			
0.3665	23455.48	3.6810	3.6810	-0.9051	26.24	0.30	-1.500			
0.3692	23630.46	3.6780	3.6780	-0.9168	26.25	0.31	-1.500			
0.3720	23806.49	3.6750	3.6749	-0.9329	26.25	0.31	-1.500			
0.3748	23987.52	3.6720	3.6720	-0.9517	26.26	0.32	-1.500			
0.3777	24170.98	3.6690	3.6690	-0.9674	26.26	0.32	-1.500			
0.3806	24358.76	3.6660	3.6660	-0.9892	26.26	0.32	-1.500			
0.3836	24550.41	3.6630	3.6630	-1.0048	26.27	0.33	-1.500			
0.3866	24743.81	3.6600	3.6600	-1.0254	26.27	0.33	-1.500			
0.3898	24944.28	3.6570	3.6570	-1.0447	26.27	0.33	-1.500			
0.3929	25145.75	3.6540	3.6539	-1.0631	26.27	0.33	-1.500			
0.3961	25350.24	3.6510	3.6511	-1.0884	26.28	0.34	-1.500			
0.3994	25561.98	3.6480	3.6480	-1.1122	26.28	0.34	-1.500			
0.4028	25777.37	3.6450	3.6450	-1.1363	26.28	0.34	-1.500			
0.4062	25998.66	3.6420	3.6420	-1.1651	26.28	0.34	-1.500			
0.4097	26223.81	3.6390	3.6391	-1.1910	26.28	0.34	-1.500			
0.4134	26455.46	3.6360	3.6360	-1.2206	26.28	0.34	-1.500			
0.4171	26693.24	3.6330	3.6330	-1.2454	26.28	0.34	-1.500			
0.4209	26934.44	3.6300	3.6300	-1.2672	26.28	0.34	-1.500			
0.4247	27180.71	3.6270	3.6270	-1.2954	26.28	0.34	-1.500			
0.4286	27430.54	3.6240	3.6241	-1.3239	26.28	0.34	-1.500			
0.4326	27685.35	3.6210	3.6209	-1.3523	26.28	0.34	-1.500			
0.4367	27947.40	3.6180	3.6180	-1.3899	26.28	0.34	-1.500			
0.4409	28219.20	3.6150	3.6150	-1.4218	26.28	0.34	-1.500			
0.4453	28498.05	3.6120	3.6119	-1.4522	26.28	0.34	-1.500			
0.4497	28779.94	3.6090	3.6090	-1.4798	26.28	0.34	-1.500			
0.4542	29065.88	3.6060	3.6060	-1.5011	26.28	0.34	-1.500			
0.4587	29354.49	3.6030	3.6029	-1.5293	26.28	0.34	-1.500			
0.4633	29649.75	3.6000	3.6000	-1.5551	26.28	0.34	-1.500			
0.4680	29949.75	3.5970	3.5970	-1.5895	26.28	0.34	-1.500			
0.4728	30260.46	3.5940	3.5940	-1.6245	26.28	0.34	-1.500			
0.4777	30574.16	3.5910	3.5910	-1.6617	26.28	0.34	-1.500			
0.4828	30896.19	3.5880	3.5880	-1.6908	26.27	0.33	-1.500			
0.4879	31226.97	3.5850	3.5850	-1.7174	26.27	0.33	-1.500			
0.4931	31560.95	3.5820	3.5820	-1.7343	26.27	0.33	-1.500			
0.4984	31895.37	3.5790	3.5791	-1.7624	26.26	0.32	-1.500			
0.5037	32234.19	3.5760	3.5760	-1.7823	26.26	0.32	-1.500			
0.5091	32579.41	3.5730	3.5729	-1.8092	26.26	0.32	-1.500			
0.5145	32925.20	3.5700	3.5700	-1.8342	26.26	0.32	-1.500			
0.5200	33282.45	3.5670	3.5671	-1.8705	26.26	0.32	-1.500			
0.5257	33646.73	3.5640	3.5641	-1.8809	26.26	0.32	-1.500			
0.5314	34009.28	3.5610	3.5610	-1.9186	26.26	0.32	-1.500			
0.5372	34379.64	3.5580	3.5581	-1.9410	26.26	0.32	-1.500			
0.5431	34755.79	3.5550	3.5548	-1.9783	26.26	0.32	-1.500			
0.5491	35144.14	3.5520	3.5520	-2.0007	26.26	0.32	-1.500			
0.5552	35529.64	3.5490	3.5490	-2.0133	26.26	0.32	-1.500			
0.5613	35923.20	3.5460	3.5457	-2.0228	26.26	0.32	-1.500	0.383	0.493	
0.5673	36307.72	3.5430	3.5430	-2.0126	26.26	0.32	-1.500			
0.5734	36697.12	3.5400	3.5400	-2.0160	26.26	0.32	-1.500			
0.5794	37079.43	3.5370	3.5370	-2.0083	26.26	0.32	-1.500			
0.5855	37469.93	3.5340	3.5340	-2.0288	26.26	0.32	-1.500			
0.5916	37862.21	3.5310	3.5309	-2.0199	26.27	0.33	-1.500			
0.5977	38251.48	3.5280	3.5280	-2.0030	26.27	0.33	-1.500			
0.6037	38634.48	3.5250	3.5249	-1.9832	26.27	0.33	-1.500			
0.6096	39014.35	3.5220	3.5221	-1.9711	26.28	0.34	-1.500			
0.6154	39387.34	3.5190	3.5189	-1.9557	26.29	0.35	-1.500			
0.6213	39760.78	3.5160	3.5159	-1.9434	26.30	0.36	-1.500			
0.6271	40132.81	3.5130	3.5130	-1.9270	26.30	0.36	-1.500			
0.6329	40506.72	3.5100	3.5100	-1.9242	26.31	0.37	-1.500			
0.6387	40875.51	3.5070	3.5070	-1.9045	26.32	0.38	-1.500			
0.6443	41235.87	3.5040	3.5039	-1.8803	26.33	0.39	-1.500			
0.6500	41599.09	3.5010	3.5010	-1.8661	26.34	0.40	-1.500			
0.6555	41950.51	3.4980	3.4980	-1.8585	26.35	0.41	-1.500			
0.6611	42310.32	3.4950	3.4950	-1.8434	26.36	0.42	-1.500			
0.6666	42662.27	3.4920	3.4919	-1.8245	26.37	0.43	-1.500			
0.6721	43014.26	3.4890	3.4889	-1.8093	26.38	0.44	-1.500			
0.6775	43359.98	3.4860	3.4861	-1.7872	26.38	0.44	-1.500			
0.6828	43700.65	3.4830	3.4829	-1.7643	26.39	0.45	-1.500			
0.6881	44035.57	3.4800	3.4800	-1.7487	26.40	0.46	-1.500			
0.6932	44363.92	3.4770	3.4770	-1.7249	26.41	0.47	-1.500			
0.6984	44698.60	3.4740	3.4740	-1.7180	26.42	0.48	-1.500			
0.7036	45027.96	3.4710	3.4711	-1.6996	26.43	0.49	-1.500			
0.7086	45353.25	3.4680	3.4680	-1.6792	26.45	0.51	-1.500			
0.7137	45676.75	3.4650	3.4650	-1.6495	26.46	0.52	-1.500			
0.7186	45990.80	3.4620	3.4620	-1.6172	26.48	0.54	-1.500			
0.7234	46296.43	3.4590	3.4589	-1.5851	26.49	0.55	-1.500			
0.7281	46597.45	3.4560	3.4560	-1.5555	26.51	0.57	-1.500			
0.7327	46892.48	3.4530	3.4530	-1.5281	26.52	0.58	-1.500			
0.7372	47181.90	3.4500	3.4500	-1.5101	26.53	0.59	-1.500			
0.7417	47468.80	3.4470	3.4470	-1.4862	26.55	0.61	-1.500			
0.7462	47754.62	3.4440	3.4440	-1.4763	26.56	0.62	-1.500			
0.7506	48036.46	3.4410	3.4411	-1.4640	26.57	0.63	-1.500			
0.7549	48315.47	3.4380	3.4380	-1.4533	26.59	0.65	-1.500			
0.7593	48593.68	3.4350	3.4349	-1.4477	26.60	0.66	-1.500			
0.7636	48870.13	3.4320	3.4320	-1.4386	26.62	0.68	-1.500			
0.7679	49145.75	3.4290	3.4289	-1.4300	26.63	0.69	-1.500			
0.7722	49420.66	3.4260	3.4260	-1.4199	26.65	0.71	-1.500			
0.7765	49693.93	3.4230	3.4230	-1.4078	26.67	0.73	-1.500			
0.7807	49962.60	3.4200	3.4201	-1.3949	26.69	0.75	-1.500			
0.7848	50229.43	3.4170	3.4170	-1.3835	26.70	0.76	-1.500			
0.7890	50494.83	3.4140	3.4141	-1.3711	26.72	0.78	-1.500			
0.7931	50760.27	3.4110	3.4109	-1.3430	26.74	0.80	-1.500			
0.7971	51017.15	3.4080	3.4081	-1.3082	26.76	0.82	-1.500			
0.8011	51267.86	3.4050	3.4051	-1.2725	26.77	0.83	-1.500			
0.8048	51507.80	3.4020	3.4020	-1.2276	26.79	0.85	-1.500			
0.8084	51738.75	3.3990	3.3989	-1.1799	26.81	0.87	-1.500			
0.8119	51960.80	3.3960	3.3960	-1.1298	26.83	0.89	-1.500			
0.8152	52173.28	3.3930	3.3931	-1.0867	26.85	0.91	-1.500			
0.8184	52377.38	3.3900	3.3900	-1.0425	26.86	0.92	-1.500			
0.8214	52572.24	3.3870	3.3869	-1.0010	26.88	0.94	-1.500			
0.8244	52759.24	3.3840	3.3839	-0.9599	26.89	0.95	-1.500			
0.8272	52938.76	3.3810	3.3810	-0.9209	26.90	0.96	-1.500			
0.8299	53113.13	3.3780	3.3780	-0.8862	26.91	0.97	-1.500			
0.8325	53280.17	3.3750	3.3750	-0.8540	26.92	0.98	-1.500			
0.8350	53439.51	3.3720	3.3720	-0.8183	26.93	0.99	-1.500			
0.8374	53592.74	3.3690	3.3690	-0.7832	26.94	1.00	-1.500			
0.8397	53739.50	3.3660	3.3660	-0.7512	26.95	1.01	-1.500			
0.8419	53880.08	3.3630	3.3630	-0.7283	26.96	1.02	-1.500			
0.8440	54017.85	3.3600	3.3600	-0.7032	26.97	1.03	-1.500			
0.8461	54150.26	3.3570	3.3569	-0.6790	26.98	1.04	-1.500			
0.8481	54277.96	3.3540	3.3543	-0.6546	26.99	1.05	-1.500			
0.8500	54402.24	3.3510	3.3510	-0.6347	27.00	1.06	-1.500			
0.8519	54522.63	3.3480	3.3479	-0.6124	27.01	1.07	-1.500			
0.8537	54636.79	3.3450	3.3451	-0.5920	27.02	1.08	-1.500			
0.8554	54747.15	3.3420	3.3420	-0.5738	27.02	1.08	-1.500			
0.8571	54855.05	3.3390	3.3390	-0.5594	27.03	1.09	-1.500			
0.8588	54960.72	3.3360	3.3360	-0.5421	27.04	1.10	-1.500			
0.8604	55063.29	3.3330	3.3330	-0.5278	27.05	1.11	-1.500			
0.8619	55163.90	3.3300	3.3300	-0.5106	27.05	1.11	-1.500			
0.8635	55261.16	3.3270	3.3269	-0.4931	27.06	1.12	-1.500			
0.8649	55352.91	3.3240	3.3241	-0.4768	27.07	1.13	-1.500			
0.8663	55443.14	3.3210	3.3208	-0.4627	27.07	1.13	-1.500			
0.8677	55530.00	3.3180	3.3180	-0.4457	27.08	1.14	-1.500			
0.8690	55614.68	3.3150	3.3150	-0.4332	27.09	1.15	-1.500			
0.8703	55696.26	3.3120	3.3121	-0.4192	27.09	1.15	-1.500			
0.8715	55776.04	3.3090	3.3089	-0.4062	27.10	1.16	-1.500			
0.8727	55852.10	3.3060	3.3059	-0.3925	27.10	1.16	-1.500			
0.8738	55925.46	3.3030	3.3030	-0.3770	27.11	1.17	-1.500			
0.8749	55996.74	3.3000	3.3001	-0.3644	27.11	1.17	-1.500			
0.8760	56065.47	3.2970	3.2970	-0.3523	27.11	1.17	-1.500			
0.8771	56131.33	3.2940	3.2940	-0.3398	27.12	1.18	-1.500			
0.8780	56195.13	3.2910	3.2910	-0.3300	27.13	1.19	-1.500			
0.8790	56257.10	3.2880	3.2880	-0.3201	27.13	1.19	-1.500			
0.8800	56317.88	3.2850	3.2850	-0.3092	27.14	1.20	-1.500			
0.8809	56376.59	3.2820	3.2819	-0.3010	27.14	1.20	-1.500			
0.8818	56433.49	3.2790	3.2791	-0.2910	27.15	1.21	-1.500			
0.8826	56488.37	3.2760	3.2759	-0.2812	27.15	1.21	-1.500			
0.8835	56540.91	3.2730	3.2730	-0.2722	27.16	1.22	-1.500			
0.8843	56592.13	3.2700	3.2701	-0.2644	27.16	1.22	-1.500			
0.8850	56641.88	3.2670	3.2669	-0.2566	27.17	1.23	-1.500			
0.8858	56690.48	3.2640	3.2639	-0.2508	27.17	1.23	-1.500			
0.8865	56737.83	3.2610	3.2611	-0.2423	27.17	1.23	-1.500			
0.8872	56783.91	3.2580	3.2580	-0.2371	27.18	1.24	-1.500			
0.8879	56828.77	3.2550	3.2550	-0.2302	27.18	1.24	-1.500			
0.8886	56872.24	3.2520	3.2521	-0.2242	27.19	1.25	-1.500			
0.8893	56914.32	3.2490	3.2489	-0.2173	27.19	1.25	-1.500			
0.8899	56955.21	3.2460	3.2460	-0.2123	27.19	1.25	-1.500			
0.8906	56995.42	3.2430	3.2431	-0.2072	27.20	1.26	-1.500			
0.8912	57034.20	3.2400	3.2401	-0.2025	27.20	1.26	-1.500			
0.8918	57073.11	3.2370	3.2368	-0.1987	27.20	1.26	-1.500			
0.8924	57110.87	3.2340	3.2339	-0.1930	27.21	1.27	-1.500			
0.8929	57147.42	3.2310	3.2312	-0.1884	27.21	1.27	-1.500			
0.8935	57183.27	3.2280	3.2280	-0.1838	27.21	1.27	-1.500			
0.8940	57218.17	3.2250	3.2250	-0.1801	27.22	1.28	-1.500			
0.8946	57251.70	3.2220	3.2220	-0.1752	27.22	1.28	-1.500			
0.8951	57284.86	3.2190	3.2189	-0.1714	27.22	1.28	-1.500			
0.8956	57317.51	3.2160	3.2160	-0.1687	27.23	1.29	-1.500			
0.8961	57349.63	3.2130	3.2130	-0.1656	27.23	1.29	-1.500			
0.8966	57381.36	3.2100	3.2100	-0.1631	27.23	1.29	-1.500			
0.8971	57412.13	3.2070	3.2070	-0.1600	27.24	1.30	-1.500			
0.8975	57442.58	3.2040	3.2039	-0.1572	27.24	1.30	-1.500			
0.8980	57472.19	3.2010	3.2010	-0.1553	27.24	1.30	-1.500			
0.8985	57501.88	3.1980	3.1980	-0.1529	27.25	1.31	-1.500			
0.8989	57531.30	3.1950	3.1950	-0.1505	27.25	1.31	-1.500			
0.8994	57559.95	3.1920	3.1919	-0.1479	27.25	1.31	-1.500			
0.8998	57588.28	3.1890	3.1891	-0.1453	27.26	1.32	-1.500			
0.9002	57615.87	3.1860	3.1860	-0.1429	27.26	1.32	-1.500			
0.9007	57642.54	3.1830	3.1830	-0.1406	27.26	1.32	-1.500			
0.9011	57669.39	3.1800	3.1800	-0.1390	27.27	1.33	-1.500			
0.9015	57695.53	3.1770	3.1770	-0.1370	27.27	1.33	-1.500			
0.9019	57721.99	3.1740	3.1740	-0.1356	27.28	1.34	-1.500			
0.9023	57748.14	3.1710	3.1710	-0.1342	27.28	1.34	-1.500			
0.9027	57773.70	3.1680	3.1681	-0.1321	27.28	1.34	-1.500			
0.9031	57798.98	3.1650	3.1650	-0.1302	27.29	1.35	-1.500			
0.9035	57823.70	3.1620	3.1620	-0.1280	27.29	1.35	-1.500			
0.9039	57847.86	3.1590	3.1590	-0.1253	27.30	1.36	-1.500			
0.9042	57871.62	3.1560	3.1560	-0.1241	27.30	1.36	-1.500			
0.9046	57895.28	3.1530	3.1530	-0.1227	27.30	1.36	-1.500			
0.9050	57918.59	3.1500	3.1501	-0.1215	27.31	1.37	-1.500			
0.9053	57941.70	3.1470	3.1469	-0.1202	27.31	1.37	-1.500			
0.9057	57964.64	3.1440	3.1440	-0.1196	27.31	1.37	-1.500			
0.9061	57987.42	3.1410	3.1411	-0.1187	27.32	1.38	-1.500			
0.9064	58010.33	3.1380	3.1379	-0.1178	27.32	1.38	-1.500			
0.9068	58033.06	3.1350	3.1350	-0.1173	27.32	1.38	-1.500			
0.9071	58055.52	3.1320	3.1319	-0.1161	27.33	1.39	-1.500			
0.9075	58077.72	3.1290	3.1290	-0.1149	27.33	1.39	-1.500			
0.9078	58099.61	3.1260	3.1260	-0.1138	27.33	1.39	-1.500			
0.9081	58121.41	3.1230	3.1230	-0.1127	27.34	1.40	-1.500			
0.9085	58142.96	3.1200	3.1201	-0.1113	27.34	1.40	-1.500			
0.9088	58164.11	3.1170	3.1169	-0.1098	27.34	1.40	-1.500			
0.9091	58184.93	3.1140	3.1141	-0.1090	27.35	1.41	-1.500			
0.9095	58205.71	3.1110	3.1110	-0.1080	27.35	1.41	-1.500			
0.9098	58226.38	3.1080	3.1082	-0.1071	27.35	1.41	-1.500			
0.9101	58246.81	3.1050	3.1049	-0.1062	27.36	1.42	-1.500			
0.9104	58267.11	3.1020	3.1020	-0.1055	27.36	1.42	-1.500			
0.9107	58287.22	3.0990	3.0989	-0.1047	27.36	1.42	-1.500			
0.9111	58307.25	3.0960	3.0961	-0.1042	27.37	1.43	-1.500			
0.9114	58327.31	3.0930	3.0930	-0.1038	27.37	1.43	-1.500			
0.9117	58347.22	3.0900	3.0899	-0.1029	27.37	1.43	-1.500			
0.9120	58366.80	3.0870	3.0870	-0.1020	27.38	1.44	-1.500			
0.9123	58386.21	3.0840	3.0841	-0.1017	27.38	1.44	-1.500			
0.9126	58405.70	3.0810	3.0811	-0.1013	27.38	1.44	-1.500			
0.9129	58425.20	3.0780	3.0780	-0.1005	27.39	1.45	-1.500			
0.9132	58444.45	3.0750	3.0749	-0.0999	27.39	1.45	-1.500			
0.9135	58463.59	3.0720	3.0720	-0.0992	27.40	1.46	-1.500			
0.9138	58482.58	3.0690	3.0691	-0.0985	27.40	1.46	-1.500			
0.9141	58501.41	3.0660	3.0660	-0.0977	27.40	1.46	-1.500			
0.9144	58520.26	3.0630	3.0629	-0.0972	27.41	1.47	-1.500			
0.9147	58538.70	3.0600	3.0600	-0.0966	27.41	1.47	-1.500			
0.9150	58556.93	3.0570	3.0570	-0.0956	27.41	1.47	-1.500			
0.9152	58575.31	3.0540	3.0539	-0.0951	27.42	1.48	-1.500			
0.9155	58593.59	3.0510	3.0510	-0.0948	27.42	1.48	-1.500			
0.9158	58611.78	3.0480	3.0480	-0.0941	27.42	1.48	-1.500			
0.9161	58629.81	3.0450	3.0449	-0.0935	27.43	1.49	-1.500			
0.9164	58647.62	3.0420	3.0421	-0.0931	27.43	1.49	-1.500			
0.9166	58665.44	3.0390	3.0391	-0.0926	27.43	1.49	-1.500			
0.9169	58683.17	3.0360	3.0359	-0.0920	27.44	1.50	-1.500			
0.9172	58700.70	3.0330	3.0330	-0.0914	27.44	1.50	-1.500			
0.9175	58718.17	3.0300	3.0300	-0.0911	27.44	1.50	-1.500			
0.9177	58735.61	3.0270	3.0270	-0.0907	27.45	1.51	-1.500			
0.9180	58753.06	3.0240	3.0242	-0.0902	27.45	1.51	-1.500			
0.9183	58770.42	3.0210	3.0209	-0.0899	27.45	1.51	-1.500			
0.9186	58787.69	3.0180	3.0180	-0.0892	27.46	1.52	-1.500			
0.9188	58804.76	3.0150	3.0151	-0.0885	27.46	1.52	-1.500			
0.9191	58821.69	3.0120	3.0121	-0.0878	27.46	1.52	-1.500			
0.9194	58838.67	3.0090	3.0090	-0.0870	27.47	1.53	-1.500			
0.9196	58855.26	3.0060	3.0060	-0.0859	27.47	1.53	-1.500			
0.9199	58871.64	3.0030	3.0029	-0.0851	27.47	1.53	-1.500			
