Ah_balance (normalized)	Ah_balance (mAh)	Voltage - fit (V)	Voltage -  interpolate (V)	dQ/dV (1/V)	Temperature (°C)	Temperature - diff (°C)	Current (C)	R_DC 0ms (mOhm)	R_DC 50ms (mOhm)	R_DC 50 ms PEC (mOhm)
0.2922	18700.17	3.9890	3.9889	0.8126	27.42	1.44	1.500			
0.2947	18859.53	3.9860	3.9861	0.8291	27.41	1.43	1.500			
0.2972	19020.25	3.9830	3.9829	0.8340	27.41	1.43	1.500			
0.2997	19180.47	3.9800	3.9802	0.8385	27.40	1.42	1.500			
0.3022	19343.32	3.9770	3.9769	0.8425	27.40	1.42	1.500			
0.3048	19504.68	3.9740	3.9740	0.8418	27.39	1.41	1.500			
0.3073	19665.39	3.9710	3.9710	0.8470	27.38	1.40	1.500			
0.3098	19828.34	3.9680	3.9681	0.8549	27.38	1.40	1.500			
0.3124	19993.79	3.9650	3.9650	0.8586	27.37	1.39	1.500			
0.3150	20159.24	3.9620	3.9619	0.8657	27.37	1.39	1.500			
0.3176	20326.07	3.9590	3.9591	0.8670	27.36	1.38	1.500			
0.3202	20494.21	3.9560	3.9560	0.8715	27.35	1.37	1.500			
0.3228	20661.29	3.9530	3.9531	0.8732	27.35	1.37	1.500			
0.3254	20827.36	3.9500	3.9500	0.8731	27.34	1.36	1.500			
0.3281	20995.96	3.9470	3.9470	0.8788	27.33	1.35	1.500			
0.3307	21165.53	3.9440	3.9440	0.8833	27.33	1.35	1.500			
0.3333	21334.19	3.9410	3.9410	0.8868	27.32	1.34	1.500			
0.3360	21507.18	3.9380	3.9380	0.8935	27.32	1.34	1.500			
0.3387	21677.90	3.9350	3.9350	0.9001	27.31	1.33	1.500			
0.3414	21849.82	3.9320	3.9320	0.9080	27.30	1.32	1.500			
0.3442	22026.25	3.9290	3.9290	0.9126	27.30	1.32	1.500			
0.3469	22203.32	3.9260	3.9260	0.9161	27.29	1.31	1.500			
0.3497	22379.66	3.9230	3.9231	0.9175	27.28	1.30	1.500			
0.3524	22555.31	3.9200	3.9200	0.9215	27.27	1.29	1.500			
0.3552	22731.86	3.9170	3.9170	0.9295	27.26	1.28	1.500			
0.3580	22909.42	3.9140	3.9139	0.9358	27.25	1.27	1.500			
0.3608	23089.41	3.9110	3.9110	0.9429	27.24	1.26	1.500			
0.3636	23272.54	3.9080	3.9081	0.9558	27.24	1.26	1.500			
0.3665	23458.24	3.9050	3.9050	0.9682	27.23	1.25	1.500			
0.3695	23645.03	3.9020	3.9019	0.9751	27.22	1.24	1.500			
0.3724	23831.83	3.8990	3.8990	0.9801	27.21	1.23	1.500			
0.3753	24021.41	3.8960	3.8961	0.9868	27.20	1.22	1.500			
0.3783	24211.55	3.8930	3.8930	0.9966	27.19	1.21	1.500			
0.3813	24403.49	3.8900	3.8899	1.0073	27.18	1.20	1.500			
0.3843	24597.53	3.8870	3.8871	1.0112	27.17	1.19	1.500			
0.3874	24792.05	3.8840	3.8840	1.0223	27.16	1.18	1.500			
0.3905	24990.45	3.8810	3.8810	1.0353	27.15	1.17	1.500			
0.3936	25190.50	3.8780	3.8781	1.0457	27.14	1.16	1.500			
0.3967	25390.29	3.8750	3.8749	1.0624	27.13	1.15	1.500			
0.3999	25595.26	3.8720	3.8720	1.0739	27.12	1.14	1.500			
0.4032	25803.48	3.8690	3.8690	1.0858	27.11	1.13	1.500			
0.4065	26014.76	3.8660	3.8660	1.0988	27.09	1.11	1.500			
0.4098	26227.19	3.8630	3.8631	1.1073	27.08	1.10	1.500			
0.4131	26439.41	3.8600	3.8600	1.1243	27.07	1.09	1.500			
0.4165	26656.54	3.8570	3.8570	1.1367	27.06	1.08	1.500			
0.4199	26874.80	3.8540	3.8540	1.1449	27.05	1.07	1.500			
0.4234	27097.19	3.8510	3.8510	1.1660	27.03	1.05	1.500			
0.4269	27322.91	3.8480	3.8481	1.1861	27.02	1.04	1.500			
0.4305	27552.57	3.8450	3.8450	1.1985	27.01	1.03	1.500			
0.4341	27784.27	3.8420	3.8419	1.2105	27.00	1.02	1.500			
0.4378	28016.21	3.8390	3.8390	1.2315	26.99	1.01	1.500			
0.4415	28254.72	3.8360	3.8361	1.2535	26.98	1.00	1.500			
0.4453	28496.90	3.8330	3.8330	1.2727	26.96	0.98	1.500			
0.4491	28741.88	3.8300	3.8300	1.2932	26.95	0.97	1.500			
0.4530	28992.21	3.8270	3.8271	1.3225	26.94	0.96	1.500			
0.4571	29254.60	3.8240	3.8239	1.3365	26.92	0.94	1.500			
0.4611	29509.98	3.8210	3.8210	1.3577	26.90	0.92	1.500			
0.4651	29768.88	3.8180	3.8181	1.3770	26.89	0.91	1.500			
0.4693	30035.50	3.8150	3.8150	1.4087	26.87	0.89	1.500			
0.4736	30309.17	3.8120	3.8120	1.4313	26.85	0.87	1.500			
0.4779	30585.17	3.8090	3.8091	1.4554	26.84	0.86	1.500			
0.4823	30869.27	3.8060	3.8060	1.4761	26.82	0.84	1.500			
0.4868	31158.10	3.8030	3.8029	1.4965	26.80	0.82	1.500			
0.4913	31443.78	3.8000	3.8001	1.5212	26.79	0.81	1.500			
0.4959	31740.70	3.7970	3.7969	1.5434	26.77	0.79	1.500			
0.5006	32037.54	3.7940	3.7940	1.5762	26.76	0.78	1.500			
0.5054	32345.93	3.7910	3.7911	1.5974	26.74	0.76	1.500			
0.5103	32656.53	3.7880	3.7876	1.6288	26.72	0.74	1.500	0.350	0.489	
0.5152	32971.62	3.7850	3.7851	1.6456	26.70	0.72	1.500			
0.5202	33289.66	3.7820	3.7819	1.6526	26.68	0.70	1.500			
0.5252	33609.72	3.7790	3.7790	1.6582	26.67	0.69	1.500			
0.5301	33928.63	3.7760	3.7761	1.6725	26.65	0.67	1.500			
0.5352	34252.93	3.7730	3.7730	1.6772	26.64	0.66	1.500			
0.5402	34573.22	3.7700	3.7700	1.6784	26.62	0.64	1.500			
0.5453	34896.10	3.7670	3.7670	1.6846	26.60	0.62	1.500			
0.5503	35220.32	3.7640	3.7640	1.6977	26.59	0.61	1.500			
0.5554	35545.81	3.7610	3.7610	1.7064	26.57	0.59	1.500			
0.5605	35874.89	3.7580	3.7580	1.7215	26.55	0.57	1.500			
0.5658	36208.21	3.7550	3.7550	1.7321	26.54	0.56	1.500			
0.5709	36539.82	3.7520	3.7520	1.7449	26.52	0.54	1.500			
0.5762	36875.88	3.7490	3.7490	1.7736	26.50	0.52	1.500			
0.5815	37218.90	3.7460	3.7459	1.7859	26.49	0.51	1.500			
0.5869	37561.73	3.7430	3.7431	1.8332	26.47	0.49	1.500			
0.5925	37918.92	3.7400	3.7400	1.8832	26.45	0.47	1.500			
0.5982	38284.37	3.7370	3.7371	1.9313	26.43	0.45	1.500			
0.6040	38657.62	3.7340	3.7340	1.9701	26.42	0.44	1.500			
0.6100	39042.87	3.7310	3.7310	2.0269	26.40	0.42	1.500			
0.6162	39434.59	3.7280	3.7280	2.0747	26.38	0.40	1.500			
0.6225	39838.99	3.7250	3.7250	2.1423	26.36	0.38	1.500			
0.6290	40256.03	3.7220	3.7220	2.1986	26.34	0.36	1.500			
0.6357	40687.95	3.7190	3.7190	2.2512	26.31	0.33	1.500			
0.6426	41125.65	3.7160	3.7160	2.2815	26.29	0.31	1.500			
0.6495	41568.39	3.7130	3.7130	2.2881	26.27	0.29	1.500			
0.6564	42006.78	3.7100	3.7100	2.2639	26.26	0.28	1.500			
0.6631	42439.46	3.7070	3.7070	2.1586	26.24	0.26	1.500			
0.6695	42845.29	3.7040	3.7040	2.0376	26.22	0.24	1.500			
0.6754	43222.72	3.7010	3.7010	1.9084	26.21	0.23	1.500			
0.6809	43579.16	3.6980	3.6981	1.7820	26.19	0.21	1.500			
0.6860	43902.72	3.6950	3.6950	1.6589	26.18	0.20	1.500			
0.6908	44208.41	3.6920	3.6920	1.5696	26.17	0.19	1.500			
0.6953	44502.36	3.6890	3.6889	1.5005	26.15	0.17	1.500			
0.6997	44779.37	3.6860	3.6860	1.4385	26.14	0.16	1.500			
0.7039	45046.81	3.6830	3.6830	1.3824	26.13	0.15	1.500			
0.7080	45310.24	3.6800	3.6800	1.3384	26.12	0.14	1.500			
0.7119	45558.66	3.6770	3.6770	1.3023	26.11	0.13	1.500			
0.7157	45803.27	3.6740	3.6740	1.2776	26.10	0.12	1.500			
0.7194	46041.60	3.6710	3.6711	1.2637	26.09	0.11	1.500			
0.7232	46283.43	3.6680	3.6679	1.2644	26.09	0.11	1.500			
0.7270	46525.37	3.6650	3.6651	1.2588	26.08	0.10	1.500			
0.7308	46769.10	3.6620	3.6620	1.2648	26.07	0.09	1.500			
0.7346	47015.51	3.6590	3.6590	1.2626	26.06	0.08	1.500			
0.7384	47255.97	3.6560	3.6559	1.2480	26.05	0.07	1.500			
0.7421	47495.32	3.6530	3.6530	1.2373	26.04	0.06	1.500			
0.7458	47730.72	3.6500	3.6500	1.2259	26.03	0.05	1.500			
0.7495	47964.88	3.6470	3.6470	1.2142	26.02	0.04	1.500			
0.7531	48198.22	3.6440	3.6439	1.1999	26.01	0.03	1.500			
0.7567	48425.80	3.6410	3.6410	1.1859	26.01	0.03	1.500			
0.7602	48652.74	3.6380	3.6380	1.1732	26.00	0.02	1.500			
0.7637	48875.83	3.6350	3.6350	1.1653	25.99	0.01	1.500			
0.7671	49097.55	3.6320	3.6319	1.1567	25.98	0.00	1.500			
0.7706	49319.51	3.6290	3.6290	1.1447	25.97	-0.01	1.500			
0.7741	49539.84	3.6260	3.6260	1.1370	25.97	-0.01	1.500			
0.7775	49758.11	3.6230	3.6230	1.1244	25.96	-0.02	1.500			
0.7808	49973.48	3.6200	3.6200	1.1081	25.96	-0.02	1.500			
0.7842	50186.01	3.6170	3.6170	1.0835	25.95	-0.03	1.500			
0.7874	50391.30	3.6140	3.6140	1.0600	25.95	-0.03	1.500			
0.7905	50593.70	3.6110	3.6111	1.0357	25.95	-0.03	1.500			
0.7936	50790.81	3.6080	3.6080	1.0118	25.94	-0.04	1.500			
0.7966	50981.95	3.6050	3.6050	0.9832	25.94	-0.04	1.500			
0.7995	51168.09	3.6020	3.6020	0.9556	25.94	-0.04	1.500			
0.8024	51351.03	3.5990	3.5989	0.9213	25.95	-0.03	1.500			
0.8051	51527.49	3.5960	3.5960	0.8804	25.95	-0.03	1.500			
0.8077	51695.19	3.5930	3.5930	0.8276	25.96	-0.02	1.500			
0.8102	51851.59	3.5900	3.5900	0.7605	25.96	-0.02	1.500			
0.8124	51993.70	3.5870	3.5871	0.6862	25.97	-0.01	1.500			
0.8143	52118.03	3.5840	3.5839	0.6044	25.97	-0.01	1.500			
0.8160	52224.90	3.5810	3.5810	0.5207	25.97	-0.01	1.500			
0.8174	52314.92	3.5780	3.5780	0.4491	25.97	-0.01	1.500			
0.8186	52391.13	3.5750	3.5751	0.3843	25.98	-0.00	1.500			
0.8196	52454.74	3.5720	3.5720	0.3284	25.98	-0.00	1.500			
0.8205	52511.26	3.5690	3.5689	0.2800	25.98	-0.00	1.500			
0.8212	52557.92	3.5660	3.5659	0.2447	25.98	-0.00	1.500			
0.8219	52599.99	3.5630	3.5630	0.2175	25.98	0.00	1.500			
0.8225	52637.49	3.5600	3.5600	0.1941	25.98	0.00	1.500			
0.8230	52672.35	3.5570	3.5569	0.1735	25.98	0.00	1.500			
0.8235	52703.00	3.5540	3.5540	0.1563	25.98	0.00	1.500			
0.8239	52730.79	3.5510	3.5510	0.1390	25.98	0.00	1.500			
0.8243	52755.91	3.5480	3.5480	0.1239	25.98	0.00	1.500			
0.8247	52778.26	3.5450	3.5449	0.1089	25.99	0.01	1.500			
0.8250	52797.64	3.5420	3.5420	0.0939	25.99	0.01	1.500			
0.8252	52814.16	3.5390	3.5392	0.0790	25.99	0.01	1.500			
0.8254	52827.93	3.5360	3.5362	0.0644	25.99	0.01	1.500			
0.8256	52839.20	3.5330	3.5334	0.0488	25.99	0.01	1.500			
0.8257	52847.09	3.5300	3.5310	0.0333	25.99	0.01	1.500			
