Ah_balance (normalized)	Ah_balance (mAh)	Voltage - fit (V)	Voltage -  interpolate (V)	dQ/dV (1/V)	Temperature (°C)	Temperature - diff (°C)	Current (C)	R_DC 0ms (mOhm)	R_DC 50ms (mOhm)	R_DC 50 ms PEC (mOhm)
0.2993	19158.33	3.9740	3.9740	0.8473	27.15	1.19	1.500			
0.3019	19324.45	3.9710	3.9710	0.8686	27.15	1.19	1.500			
0.3046	19492.01	3.9680	3.9680	0.8735	27.15	1.19	1.500			
0.3072	19660.87	3.9650	3.9650	0.8746	27.15	1.19	1.500			
0.3098	19829.24	3.9620	3.9621	0.8763	27.14	1.18	1.500			
0.3125	19997.75	3.9590	3.9590	0.8788	27.14	1.18	1.500			
0.3151	20166.64	3.9560	3.9560	0.8805	27.14	1.18	1.500			
0.3177	20333.94	3.9530	3.9530	0.8816	27.13	1.17	1.500			
0.3204	20504.07	3.9500	3.9500	0.8877	27.13	1.17	1.500			
0.3231	20676.10	3.9470	3.9469	0.8898	27.13	1.17	1.500			
0.3257	20847.24	3.9440	3.9440	0.8943	27.12	1.16	1.500			
0.3284	21018.91	3.9410	3.9410	0.8966	27.12	1.16	1.500			
0.3311	21190.52	3.9380	3.9380	0.9029	27.11	1.15	1.500			
0.3338	21364.67	3.9350	3.9350	0.9077	27.11	1.15	1.500			
0.3365	21538.46	3.9320	3.9320	0.9173	27.10	1.14	1.500			
0.3393	21716.97	3.9290	3.9290	0.9233	27.10	1.14	1.500			
0.3421	21895.51	3.9260	3.9261	0.9286	27.09	1.13	1.500			
0.3449	22074.40	3.9230	3.9230	0.9292	27.09	1.13	1.500			
0.3477	22253.22	3.9200	3.9200	0.9333	27.08	1.12	1.500			
0.3505	22431.04	3.9170	3.9170	0.9358	27.08	1.12	1.500			
0.3533	22610.93	3.9140	3.9139	0.9449	27.07	1.11	1.500			
0.3561	22791.99	3.9110	3.9111	0.9509	27.07	1.11	1.500			
0.3590	22976.61	3.9080	3.9080	0.9607	27.06	1.10	1.500			
0.3619	23161.86	3.9050	3.9051	0.9720	27.06	1.10	1.500			
0.3648	23348.72	3.9020	3.9020	0.9801	27.05	1.09	1.500			
0.3678	23539.35	3.8990	3.8989	0.9873	27.05	1.09	1.500			
0.3708	23730.09	3.8960	3.8960	0.9931	27.04	1.08	1.500			
0.3738	23921.60	3.8930	3.8930	0.9972	27.04	1.08	1.500			
0.3768	24114.47	3.8900	3.8901	1.0054	27.03	1.07	1.500			
0.3798	24307.19	3.8870	3.8870	1.0131	27.03	1.07	1.500			
0.3828	24500.90	3.8840	3.8840	1.0199	27.02	1.06	1.500			
0.3859	24697.40	3.8810	3.8811	1.0347	27.01	1.05	1.500			
0.3890	24898.24	3.8780	3.8779	1.0493	27.01	1.05	1.500			
0.3922	25100.85	3.8750	3.8751	1.0577	27.00	1.04	1.500			
0.3954	25304.99	3.8720	3.8720	1.0753	27.00	1.04	1.500			
0.3986	25512.31	3.8690	3.8690	1.0868	26.99	1.03	1.500			
0.4019	25723.13	3.8660	3.8659	1.0921	26.98	1.02	1.500			
0.4052	25933.74	3.8630	3.8631	1.1035	26.98	1.02	1.500			
0.4085	26146.38	3.8600	3.8601	1.1175	26.97	1.01	1.500			
0.4119	26362.73	3.8570	3.8569	1.1302	26.96	1.00	1.500			
0.4153	26580.99	3.8540	3.8539	1.1477	26.96	1.00	1.500			
0.4188	26800.74	3.8510	3.8511	1.1668	26.95	0.99	1.500			
0.4223	27028.02	3.8480	3.8479	1.1899	26.94	0.98	1.500			
0.4259	27258.96	3.8450	3.8452	1.2116	26.93	0.97	1.500			
0.4296	27492.23	3.8420	3.8420	1.2306	26.93	0.97	1.500			
0.4333	27730.82	3.8390	3.8390	1.2514	26.92	0.96	1.500			
0.4371	27974.95	3.8360	3.8360	1.2706	26.91	0.95	1.500			
0.4409	28219.84	3.8330	3.8330	1.2819	26.90	0.94	1.500			
0.4448	28466.82	3.8300	3.8301	1.3052	26.89	0.93	1.500			
0.4487	28718.73	3.8270	3.8270	1.3295	26.88	0.92	1.500			
0.4527	28974.78	3.8240	3.8238	1.3644	26.87	0.91	1.500			
0.4568	29238.15	3.8210	3.8210	1.3937	26.86	0.90	1.500			
0.4611	29509.24	3.8180	3.8180	1.4321	26.85	0.89	1.500			
0.4655	29791.39	3.8150	3.8151	1.4728	26.84	0.88	1.500			
0.4700	30077.58	3.8120	3.8119	1.5001	26.83	0.87	1.500			
0.4745	30368.26	3.8090	3.8090	1.5310	26.82	0.86	1.500			
0.4791	30664.33	3.8060	3.8061	1.5637	26.81	0.85	1.500			
0.4838	30966.30	3.8030	3.8030	1.5957	26.79	0.83	1.500			
0.4887	31277.11	3.8000	3.7999	1.6358	26.78	0.82	1.500			
0.4936	31590.83	3.7970	3.7971	1.6761	26.77	0.81	1.500			
0.4987	31919.48	3.7940	3.7940	1.7192	26.75	0.79	1.500			
0.5040	32253.43	3.7910	3.7910	1.7659	26.74	0.78	1.500			
0.5093	32594.80	3.7880	3.7881	1.8124	26.73	0.77	1.500			
0.5148	32948.79	3.7850	3.7850	1.8442	26.71	0.75	1.500			
0.5204	33307.57	3.7820	3.7820	1.8826	26.70	0.74	1.500			
0.5261	33673.59	3.7790	3.7790	1.9006	26.69	0.73	1.500			
0.5319	34042.01	3.7760	3.7760	1.9305	26.67	0.71	1.500			
0.5377	34411.65	3.7730	3.7731	1.9472	26.66	0.70	1.500			
0.5436	34788.25	3.7700	3.7700	1.9980	26.64	0.68	1.500			
0.5497	35178.10	3.7670	3.7669	2.0110	26.63	0.67	1.500			
0.5558	35568.37	3.7640	3.7641	2.0203	26.61	0.65	1.500	0.354	0.455	
0.5619	35963.35	3.7610	3.7610	2.0057	26.60	0.64	1.500			
0.5679	36344.28	3.7580	3.7580	1.9967	26.58	0.62	1.500			
0.5738	36722.04	3.7550	3.7550	1.9720	26.56	0.60	1.500			
0.5797	37101.91	3.7520	3.7519	1.9560	26.55	0.59	1.500			
0.5856	37475.94	3.7490	3.7491	1.9460	26.54	0.58	1.500			
0.5913	37845.70	3.7460	3.7460	1.9361	26.52	0.56	1.500			
0.5971	38212.31	3.7430	3.7430	1.9388	26.51	0.55	1.500			
0.6029	38583.58	3.7400	3.7398	1.9619	26.50	0.54	1.500			
0.6088	38965.40	3.7370	3.7371	2.0033	26.49	0.53	1.500			
0.6149	39355.36	3.7340	3.7340	2.0204	26.47	0.51	1.500			
0.6210	39743.72	3.7310	3.7310	2.0455	26.46	0.50	1.500			
0.6272	40139.62	3.7280	3.7280	2.0851	26.44	0.48	1.500			
0.6335	40543.73	3.7250	3.7250	2.1307	26.43	0.47	1.500			
0.6399	40955.16	3.7220	3.7221	2.1784	26.42	0.46	1.500			
0.6465	41377.62	3.7190	3.7190	2.2549	26.41	0.45	1.500			
0.6533	41811.69	3.7160	3.7159	2.3352	26.40	0.44	1.500			
0.6605	42269.42	3.7130	3.7130	2.4553	26.39	0.43	1.500			
0.6679	42746.27	3.7100	3.7100	2.5044	26.37	0.41	1.500			
0.6755	43231.18	3.7070	3.7070	2.5663	26.36	0.40	1.500			
0.6833	43728.52	3.7040	3.7040	2.6320	26.34	0.38	1.500			
0.6914	44248.07	3.7010	3.7010	2.6421	26.32	0.36	1.500			
0.6995	44765.07	3.6980	3.6980	2.5936	26.31	0.35	1.500			
0.7072	45259.66	3.6950	3.6950	2.4593	26.29	0.33	1.500			
0.7144	45723.28	3.6920	3.6920	2.3014	26.28	0.32	1.500			
0.7210	46141.49	3.6890	3.6891	2.1238	26.27	0.31	1.500			
0.7270	46530.45	3.6860	3.6859	1.9547	26.26	0.30	1.500			
0.7326	46887.71	3.6830	3.6830	1.8055	26.25	0.29	1.500			
0.7378	47220.58	3.6800	3.6801	1.6919	26.24	0.28	1.500			
0.7427	47530.96	3.6770	3.6769	1.5884	26.24	0.28	1.500			
0.7471	47816.77	3.6740	3.6740	1.4989	26.23	0.27	1.500			
0.7515	48096.76	3.6710	3.6710	1.4296	26.22	0.26	1.500			
0.7557	48362.27	3.6680	3.6680	1.3769	26.21	0.25	1.500			
0.7597	48619.76	3.6650	3.6650	1.3326	26.20	0.24	1.500			
0.7636	48869.58	3.6620	3.6621	1.3002	26.20	0.24	1.500			
0.7674	49112.26	3.6590	3.6590	1.2795	26.19	0.23	1.500			
0.7711	49353.28	3.6560	3.6560	1.2628	26.18	0.22	1.500			
0.7748	49589.81	3.6530	3.6530	1.2665	26.17	0.21	1.500			
0.7786	49832.94	3.6500	3.6500	1.2827	26.16	0.20	1.500			
0.7825	50080.39	3.6470	3.6470	1.2938	26.15	0.19	1.500			
0.7864	50332.00	3.6440	3.6440	1.3077	26.14	0.18	1.500			
0.7904	50587.33	3.6410	3.6410	1.3118	26.13	0.17	1.500			
0.7944	50840.90	3.6380	3.6381	1.3157	26.12	0.16	1.500			
0.7984	51095.18	3.6350	3.6350	1.3165	26.11	0.15	1.500			
0.8023	51344.83	3.6320	3.6319	1.3123	26.10	0.14	1.500			
0.8062	51595.31	3.6290	3.6290	1.3076	26.09	0.13	1.500			
0.8101	51846.46	3.6260	3.6261	1.3134	26.08	0.12	1.500			
0.8141	52102.81	3.6230	3.6229	1.3095	26.07	0.11	1.500			
0.8180	52353.74	3.6200	3.6199	1.3063	26.06	0.10	1.500			
0.8219	52602.51	3.6170	3.6171	1.2958	26.06	0.10	1.500			
0.8258	52851.67	3.6140	3.6140	1.2866	26.05	0.09	1.500			
0.8297	53098.02	3.6110	3.6110	1.2763	26.04	0.08	1.500			
0.8335	53342.80	3.6080	3.6080	1.2682	26.03	0.07	1.500			
0.8373	53584.38	3.6050	3.6050	1.2508	26.02	0.06	1.500			
0.8410	53825.51	3.6020	3.6020	1.2359	26.01	0.05	1.500			
0.8447	54060.59	3.5990	3.5990	1.2159	26.00	0.04	1.500			
0.8483	54292.61	3.5960	3.5960	1.2034	25.99	0.03	1.500			
0.8519	54521.63	3.5930	3.5930	1.1890	25.98	0.02	1.500			
0.8554	54747.64	3.5900	3.5900	1.1758	25.98	0.02	1.500			
0.8589	54971.13	3.5870	3.5870	1.1650	25.98	0.02	1.500			
0.8624	55196.42	3.5840	3.5840	1.1478	25.97	0.01	1.500			
0.8659	55419.03	3.5810	3.5810	1.1217	25.97	0.01	1.500			
0.8693	55638.24	3.5780	3.5779	1.0651	25.97	0.01	1.500			
0.8725	55842.50	3.5750	3.5750	0.9866	25.96	0.00	1.500			
0.8755	56033.48	3.5720	3.5720	0.8856	25.96	0.00	1.500			
0.8781	56195.26	3.5690	3.5691	0.7660	25.96	0.00	1.500			
0.8802	56329.76	3.5660	3.5662	0.6470	25.96	-0.00	1.500			
0.8819	56439.26	3.5630	3.5629	0.5318	25.96	-0.00	1.500			
0.8831	56520.72	3.5600	3.5601	0.4377	25.96	-0.00	1.500			
0.8842	56590.55	3.5570	3.5570	0.3665	25.96	-0.00	1.500			
0.8852	56650.81	3.5540	3.5539	0.3041	25.95	-0.01	1.500			
0.8860	56702.30	3.5510	3.5510	0.2655	25.95	-0.01	1.500			
0.8867	56746.40	3.5480	3.5479	0.2326	25.95	-0.01	1.500			
0.8873	56787.01	3.5450	3.5449	0.2092	25.95	-0.01	1.500			
0.8879	56823.75	3.5420	3.5420	0.1869	25.95	-0.01	1.500			
0.8884	56856.87	3.5390	3.5390	0.1697	25.95	-0.01	1.500			
0.8889	56887.81	3.5360	3.5360	0.1554	25.95	-0.01	1.500			
0.8893	56915.92	3.5330	3.5330	0.1402	25.95	-0.01	1.500			
0.8897	56941.53	3.5300	3.5300	0.1266	25.95	-0.01	1.500			
0.8901	56964.44	3.5270	3.5270	0.1128	25.95	-0.01	1.500			
0.8904	56984.92	3.5240	3.5241	0.0995	25.95	-0.01	1.500			
0.8907	57002.71	3.5210	3.5210	0.0859	25.95	-0.01	1.500			
0.8909	57017.89	3.5180	3.5182	0.0723	25.95	-0.01	1.500			
0.8911	57030.51	3.5150	3.5155	0.0586	25.95	-0.01	1.500			
0.8913	57040.43	3.5120	3.5126	0.0448	25.95	-0.01	1.500			
