Ah_balance (normalized)	Ah_balance (mAh)	Voltage - fit (V)	Voltage -  interpolate (V)	dQ/dV (1/V)	Temperature (°C)	Temperature - diff (°C)	Current (C)	R_DC 0ms (mOhm)	R_DC 50ms (mOhm)	R_DC 50 ms PEC (mOhm)
0.2009	12860.62	3.9130	3.9130	-0.1207	25.86	0.00	-1.500			
0.2014	12886.85	3.9100	3.9099	-0.1514	25.86	0.00	-1.500			
0.2019	12918.92	3.9070	3.9070	-0.1810	25.86	0.00	-1.500			
0.2024	12956.48	3.9040	3.9041	-0.2107	25.86	0.00	-1.500			
0.2031	13000.03	3.9010	3.9010	-0.2391	25.86	0.00	-1.500			
0.2039	13049.03	3.8980	3.8980	-0.2675	25.86	0.00	-1.500			
0.2047	13103.02	3.8950	3.8951	-0.2955	25.86	0.00	-1.500			
0.2057	13162.68	3.8920	3.8920	-0.3230	25.86	0.00	-1.500			
0.2067	13227.38	3.8890	3.8890	-0.3504	25.86	0.00	-1.500			
0.2078	13297.04	3.8860	3.8860	-0.3788	25.86	0.00	-1.500			
0.2089	13372.11	3.8830	3.8830	-0.4062	25.86	0.00	-1.500			
0.2102	13453.18	3.8800	3.8800	-0.4339	25.86	0.00	-1.500			
0.2116	13540.07	3.8770	3.8769	-0.4586	25.86	0.00	-1.500			
0.2130	13630.15	3.8740	3.8740	-0.4848	25.86	0.00	-1.500			
0.2145	13726.39	3.8710	3.8710	-0.5088	25.86	0.00	-1.500			
0.2160	13826.05	3.8680	3.8680	-0.5316	25.86	0.00	-1.500			
0.2177	13930.11	3.8650	3.8649	-0.5530	25.86	0.00	-1.500			
0.2194	14038.61	3.8620	3.8621	-0.5766	25.86	0.00	-1.500			
0.2211	14152.57	3.8590	3.8589	-0.5976	25.86	0.00	-1.500			
0.2230	14269.89	3.8560	3.8560	-0.6160	25.86	0.00	-1.500			
0.2248	14389.53	3.8530	3.8530	-0.6300	25.86	0.00	-1.500			
0.2268	14513.15	3.8500	3.8501	-0.6456	25.86	0.00	-1.500			
0.2287	14638.58	3.8470	3.8470	-0.6585	25.86	0.00	-1.500			
0.2307	14766.92	3.8440	3.8439	-0.6682	25.86	0.00	-1.500			
0.2327	14895.43	3.8410	3.8411	-0.6788	25.86	0.00	-1.500			
0.2348	15027.31	3.8380	3.8380	-0.6897	25.86	0.00	-1.500			
0.2369	15161.89	3.8350	3.8350	-0.6970	25.86	0.00	-1.500			
0.2390	15296.82	3.8320	3.8319	-0.7017	25.86	0.00	-1.500			
0.2411	15431.82	3.8290	3.8290	-0.7043	25.86	0.00	-1.500			
0.2432	15567.02	3.8260	3.8260	-0.7059	25.86	0.00	-1.500			
0.2454	15702.73	3.8230	3.8230	-0.7119	25.86	0.00	-1.500			
0.2475	15838.87	3.8200	3.8200	-0.7135	25.87	0.01	-1.500			
0.2496	15976.30	3.8170	3.8170	-0.7173	25.87	0.01	-1.500			
0.2518	16115.01	3.8140	3.8140	-0.7200	25.87	0.01	-1.500			
0.2540	16253.98	3.8110	3.8110	-0.7239	25.87	0.01	-1.500			
0.2561	16393.31	3.8080	3.8079	-0.7271	25.87	0.01	-1.500			
0.2583	16533.32	3.8050	3.8050	-0.7287	25.87	0.01	-1.500			
0.2605	16673.03	3.8020	3.8021	-0.7308	25.88	0.02	-1.500			
0.2627	16814.63	3.7990	3.7990	-0.7323	25.88	0.02	-1.500			
0.2649	16954.97	3.7960	3.7960	-0.7343	25.88	0.02	-1.500			
0.2671	17096.20	3.7930	3.7929	-0.7326	25.88	0.02	-1.500			
0.2693	17235.92	3.7900	3.7900	-0.7320	25.89	0.03	-1.500			
0.2715	17376.64	3.7870	3.7870	-0.7319	25.89	0.03	-1.500			
0.2737	17516.76	3.7840	3.7840	-0.7349	25.89	0.03	-1.500			
0.2759	17658.29	3.7810	3.7810	-0.7355	25.90	0.04	-1.500			
0.2781	17800.40	3.7780	3.7780	-0.7363	25.90	0.04	-1.500			
0.2803	17941.57	3.7750	3.7750	-0.7358	25.90	0.04	-1.500			
0.2826	18084.23	3.7720	3.7720	-0.7361	25.91	0.05	-1.500			
0.2848	18224.02	3.7690	3.7690	-0.7358	25.91	0.05	-1.500			
0.2870	18365.96	3.7660	3.7660	-0.7340	25.91	0.05	-1.500			
0.2892	18505.63	3.7630	3.7630	-0.7335	25.92	0.06	-1.500			
0.2914	18647.13	3.7600	3.7600	-0.7360	25.92	0.06	-1.500			
0.2936	18788.92	3.7570	3.7571	-0.7368	25.93	0.07	-1.500			
0.2958	18930.21	3.7540	3.7539	-0.7363	25.93	0.07	-1.500			
0.2980	19072.16	3.7510	3.7511	-0.7368	25.94	0.08	-1.500			
0.3002	19212.74	3.7480	3.7480	-0.7360	25.94	0.08	-1.500			
0.3024	19355.03	3.7450	3.7450	-0.7396	25.94	0.08	-1.500			
0.3046	19496.22	3.7420	3.7420	-0.7372	25.95	0.09	-1.500			
0.3068	19637.20	3.7390	3.7390	-0.7388	25.95	0.09	-1.500			
0.3091	19779.82	3.7360	3.7360	-0.7403	25.96	0.10	-1.500			
0.3113	19921.71	3.7330	3.7330	-0.7442	25.96	0.10	-1.500			
0.3135	20064.51	3.7300	3.7300	-0.7489	25.97	0.11	-1.500			
0.3158	20208.45	3.7270	3.7271	-0.7502	25.97	0.11	-1.500			
0.3180	20352.88	3.7240	3.7240	-0.7556	25.98	0.12	-1.500			
0.3203	20497.79	3.7210	3.7210	-0.7622	25.98	0.12	-1.500			
0.3226	20644.46	3.7180	3.7179	-0.7682	25.98	0.12	-1.500			
0.3249	20794.51	3.7150	3.7150	-0.7731	25.99	0.13	-1.500			
0.3272	20941.48	3.7120	3.7120	-0.7780	25.99	0.13	-1.500			
0.3296	21092.07	3.7090	3.7091	-0.7828	26.00	0.14	-1.500			
0.3319	21242.63	3.7060	3.7060	-0.7935	26.00	0.14	-1.500			
0.3343	21395.08	3.7030	3.7029	-0.7968	26.01	0.15	-1.500			
0.3367	21547.87	3.7000	3.7000	-0.8076	26.01	0.15	-1.500			
0.3391	21704.69	3.6970	3.6970	-0.8170	26.02	0.16	-1.500			
0.3416	21862.90	3.6940	3.6940	-0.8271	26.02	0.16	-1.500			
0.3441	22021.76	3.6910	3.6909	-0.8333	26.03	0.17	-1.500			
0.3466	22183.67	3.6880	3.6881	-0.8440	26.03	0.17	-1.500			
0.3491	22344.53	3.6850	3.6850	-0.8532	26.03	0.17	-1.500			
0.3517	22510.61	3.6820	3.6820	-0.8680	26.04	0.18	-1.500			
0.3543	22677.09	3.6790	3.6790	-0.8787	26.04	0.18	-1.500			
0.3570	22848.18	3.6760	3.6760	-0.8967	26.05	0.19	-1.500			
0.3597	23023.01	3.6730	3.6730	-0.9076	26.05	0.19	-1.500			
0.3625	23197.99	3.6700	3.6700	-0.9240	26.06	0.20	-1.500			
0.3653	23376.57	3.6670	3.6671	-0.9385	26.06	0.20	-1.500			
0.3681	23557.39	3.6640	3.6639	-0.9548	26.06	0.20	-1.500			
0.3710	23741.72	3.6610	3.6610	-0.9747	26.06	0.20	-1.500			
0.3739	23930.23	3.6580	3.6580	-0.9931	26.07	0.21	-1.500			
0.3769	24123.09	3.6550	3.6550	-1.0099	26.07	0.21	-1.500			
0.3800	24320.93	3.6520	3.6520	-1.0341	26.07	0.21	-1.500			
0.3831	24519.66	3.6490	3.6490	-1.0518	26.07	0.21	-1.500			
0.3863	24723.56	3.6460	3.6460	-1.0718	26.08	0.22	-1.500			
0.3895	24931.14	3.6430	3.6430	-1.0914	26.08	0.22	-1.500			
0.3928	25141.16	3.6400	3.6400	-1.1142	26.08	0.22	-1.500			
0.3962	25358.04	3.6370	3.6370	-1.1389	26.08	0.22	-1.500			
0.3997	25579.02	3.6340	3.6340	-1.1613	26.09	0.23	-1.500			
0.4032	25803.33	3.6310	3.6309	-1.1841	26.09	0.23	-1.500			
0.4068	26033.18	3.6280	3.6282	-1.2083	26.09	0.23	-1.500			
0.4104	26267.95	3.6250	3.6250	-1.2352	26.10	0.24	-1.500			
0.4142	26508.42	3.6220	3.6220	-1.2596	26.10	0.24	-1.500			
0.4180	26752.33	3.6190	3.6189	-1.2812	26.10	0.24	-1.500			
0.4219	27001.16	3.6160	3.6160	-1.3007	26.10	0.24	-1.500			
0.4258	27253.01	3.6130	3.6130	-1.3186	26.10	0.24	-1.500			
0.4298	27506.56	3.6100	3.6100	-1.3375	26.10	0.24	-1.500			
0.4338	27764.78	3.6070	3.6070	-1.3579	26.10	0.24	-1.500			
0.4379	28026.06	3.6040	3.6040	-1.3820	26.10	0.24	-1.500			
0.4421	28293.86	3.6010	3.6010	-1.4097	26.10	0.24	-1.500			
0.4464	28567.18	3.5980	3.5980	-1.4364	26.10	0.24	-1.500			
0.4507	28846.00	3.5950	3.5950	-1.4672	26.10	0.24	-1.500			
0.4552	29131.65	3.5920	3.5920	-1.4926	26.10	0.24	-1.500			
0.4597	29421.74	3.5890	3.5890	-1.5136	26.10	0.24	-1.500			
0.4643	29715.56	3.5860	3.5860	-1.5339	26.10	0.24	-1.500			
0.4689	30010.79	3.5830	3.5830	-1.5543	26.10	0.24	-1.500			
0.4736	30308.95	3.5800	3.5800	-1.5781	26.10	0.24	-1.500			
0.4784	30615.03	3.5770	3.5770	-1.5972	26.10	0.24	-1.500			
0.4832	30922.95	3.5740	3.5740	-1.6198	26.10	0.24	-1.500			
0.4881	31237.49	3.5710	3.5710	-1.6468	26.10	0.24	-1.500			
0.4931	31555.66	3.5680	3.5680	-1.6713	26.10	0.24	-1.500			
0.4981	31878.81	3.5650	3.5650	-1.6959	26.10	0.24	-1.500			
0.5032	32206.79	3.5620	3.5619	-1.7179	26.10	0.24	-1.500			
0.5084	32538.86	3.5590	3.5590	-1.7360	26.10	0.24	-1.500			
0.5137	32878.41	3.5560	3.5560	-1.7556	26.10	0.24	-1.500			
0.5190	33215.97	3.5530	3.5531	-1.7634	26.10	0.24	-1.500			
0.5243	33556.42	3.5500	3.5500	-1.7676	26.10	0.24	-1.500			
0.5296	33893.79	3.5470	3.5470	-1.7712	26.10	0.24	-1.500			
0.5349	34233.74	3.5440	3.5440	-1.7790	26.10	0.24	-1.500			
0.5402	34575.75	3.5410	3.5410	-1.7917	26.10	0.24	-1.500			
0.5456	34919.90	3.5380	3.5378	-1.8040	26.11	0.25	-1.500	0.375	0.515	
0.5511	35268.31	3.5350	3.5350	-1.8164	26.11	0.25	-1.500			
0.5566	35621.94	3.5320	3.5320	-1.8238	26.12	0.26	-1.500			
0.5621	35972.36	3.5290	3.5290	-1.8255	26.13	0.27	-1.500			
0.5675	36320.90	3.5260	3.5260	-1.8230	26.13	0.27	-1.500			
0.5730	36670.69	3.5230	3.5230	-1.8252	26.13	0.27	-1.500			
0.5785	37020.97	3.5200	3.5200	-1.8135	26.14	0.28	-1.500			
0.5839	37367.67	3.5170	3.5170	-1.8125	26.14	0.28	-1.500			
0.5893	37717.61	3.5140	3.5141	-1.8153	26.14	0.28	-1.500			
0.5948	38064.88	3.5110	3.5109	-1.8122	26.15	0.29	-1.500			
0.6002	38410.85	3.5080	3.5080	-1.8205	26.16	0.30	-1.500			
0.6057	38762.00	3.5050	3.5050	-1.8211	26.16	0.30	-1.500			
0.6112	39114.19	3.5020	3.5019	-1.8112	26.17	0.31	-1.500			
0.6166	39464.59	3.4990	3.4991	-1.8035	26.18	0.32	-1.500			
0.6220	39808.39	3.4960	3.4960	-1.7965	26.19	0.33	-1.500			
0.6274	40153.18	3.4930	3.4930	-1.7823	26.20	0.34	-1.500			
0.6326	40489.50	3.4900	3.4900	-1.7647	26.21	0.35	-1.500			
0.6380	40830.30	3.4870	3.4870	-1.7617	26.22	0.36	-1.500			
0.6433	41168.14	3.4840	3.4840	-1.7540	26.23	0.37	-1.500			
0.6485	41505.32	3.4810	3.4810	-1.7398	26.24	0.38	-1.500			
0.6537	41835.67	3.4780	3.4779	-1.7286	26.25	0.39	-1.500			
0.6588	42166.35	3.4750	3.4751	-1.7127	26.26	0.40	-1.500			
0.6640	42496.40	3.4720	3.4719	-1.6988	26.28	0.42	-1.500			
0.6691	42821.70	3.4690	3.4690	-1.6794	26.29	0.43	-1.500			
0.6741	43141.33	3.4660	3.4660	-1.6587	26.30	0.44	-1.500			
0.6791	43460.50	3.4630	3.4631	-1.6382	26.31	0.45	-1.500			
0.6840	43773.58	3.4600	3.4599	-1.6094	26.32	0.46	-1.500			
0.6887	44079.42	3.4570	3.4570	-1.5785	26.34	0.48	-1.500			
0.6934	44380.32	3.4540	3.4540	-1.5583	26.35	0.49	-1.500			
0.6981	44676.16	3.4510	3.4510	-1.5351	26.36	0.50	-1.500			
0.7026	44967.45	3.4480	3.4480	-1.5149	26.38	0.52	-1.500			
0.7071	45254.89	3.4450	3.4450	-1.4919	26.39	0.53	-1.500			
0.7116	45542.52	3.4420	3.4420	-1.4801	26.41	0.55	-1.500			
0.7160	45824.68	3.4390	3.4391	-1.4608	26.42	0.56	-1.500			
0.7204	46103.07	3.4360	3.4360	-1.4426	26.44	0.58	-1.500			
0.7246	46374.45	3.4330	3.4330	-1.4364	26.46	0.60	-1.500			
0.7289	46651.59	3.4300	3.4299	-1.4182	26.48	0.62	-1.500			
0.7332	46923.79	3.4270	3.4269	-1.4122	26.50	0.64	-1.500			
0.7374	47193.69	3.4240	3.4240	-1.3956	26.51	0.65	-1.500			
0.7416	47461.03	3.4210	3.4210	-1.3873	26.53	0.67	-1.500			
0.7457	47726.64	3.4180	3.4179	-1.3688	26.54	0.68	-1.500			
0.7498	47987.15	3.4150	3.4150	-1.3474	26.56	0.70	-1.500			
0.7538	48244.36	3.4120	3.4121	-1.3337	26.58	0.72	-1.500			
0.7579	48504.49	3.4090	3.4089	-1.3112	26.60	0.74	-1.500			
0.7618	48752.64	3.4060	3.4060	-1.2768	26.62	0.76	-1.500			
0.7656	48995.21	3.4030	3.4032	-1.2391	26.62	0.76	-1.500			
0.7692	49228.22	3.4000	3.4000	-1.2006	26.64	0.78	-1.500			
0.7727	49455.54	3.3970	3.3969	-1.1628	26.66	0.80	-1.500			
0.7762	49674.21	3.3940	3.3940	-1.1187	26.67	0.81	-1.500			
0.7795	49886.02	3.3910	3.3910	-1.0780	26.69	0.83	-1.500			
0.7826	50089.08	3.3880	3.3879	-1.0346	26.71	0.85	-1.500			
0.7857	50282.87	3.3850	3.3852	-0.9915	26.72	0.86	-1.500			
0.7886	50469.88	3.3820	3.3819	-0.9511	26.73	0.87	-1.500			
0.7914	50646.81	3.3790	3.3790	-0.9083	26.74	0.88	-1.500			
0.7940	50817.44	3.3760	3.3760	-0.8747	26.76	0.90	-1.500			
0.7966	50980.71	3.3730	3.3730	-0.8421	26.77	0.91	-1.500			
0.7990	51137.50	3.3700	3.3700	-0.8089	26.78	0.92	-1.500			
0.8014	51290.40	3.3670	3.3670	-0.7834	26.79	0.93	-1.500			
0.8037	51437.88	3.3640	3.3640	-0.7549	26.80	0.94	-1.500			
0.8060	51580.99	3.3610	3.3610	-0.7317	26.81	0.95	-1.500			
0.8081	51719.04	3.3580	3.3580	-0.7034	26.82	0.96	-1.500			
0.8102	51851.08	3.3550	3.3550	-0.6774	26.83	0.97	-1.500			
0.8122	51977.65	3.3520	3.3520	-0.6511	26.84	0.98	-1.500			
0.8141	52099.78	3.3490	3.3489	-0.6297	26.84	0.98	-1.500			
0.8159	52217.91	3.3460	3.3460	-0.6109	26.84	0.98	-1.500			
0.8177	52333.60	3.3430	3.3429	-0.5935	26.85	0.99	-1.500			
0.8195	52445.44	3.3400	3.3400	-0.5772	26.86	1.00	-1.500			
0.8212	52555.71	3.3370	3.3370	-0.5619	26.87	1.01	-1.500			
0.8228	52661.76	3.3340	3.3340	-0.5439	26.88	1.02	-1.500			
0.8245	52764.95	3.3310	3.3310	-0.5273	26.88	1.02	-1.500			
0.8260	52863.87	3.3280	3.3280	-0.5086	26.89	1.03	-1.500			
0.8275	52959.50	3.3250	3.3250	-0.4931	26.90	1.04	-1.500			
0.8289	53052.40	3.3220	3.3220	-0.4779	26.90	1.04	-1.500			
0.8303	53142.02	3.3190	3.3189	-0.4642	26.91	1.05	-1.500			
0.8317	53230.03	3.3160	3.3160	-0.4515	26.92	1.06	-1.500			
0.8331	53315.46	3.3130	3.3130	-0.4395	26.92	1.06	-1.500			
0.8344	53398.85	3.3100	3.3100	-0.4263	26.93	1.07	-1.500			
0.8356	53479.52	3.3070	3.3070	-0.4146	26.94	1.08	-1.500			
0.8368	53557.29	3.3040	3.3040	-0.4022	26.94	1.08	-1.500			
0.8380	53633.56	3.3010	3.3010	-0.3913	26.95	1.09	-1.500			
0.8392	53707.17	3.2980	3.2979	-0.3783	26.95	1.09	-1.500			
0.8403	53779.13	3.2950	3.2950	-0.3668	26.96	1.10	-1.500			
0.8414	53848.33	3.2920	3.2921	-0.3573	26.97	1.11	-1.500			
0.8424	53915.90	3.2890	3.2890	-0.3481	26.97	1.11	-1.500			
0.8435	53981.30	3.2860	3.2859	-0.3382	26.98	1.12	-1.500			
0.8445	54045.10	3.2830	3.2830	-0.3282	26.98	1.12	-1.500			
0.8454	54107.22	3.2800	3.2800	-0.3207	26.99	1.13	-1.500			
0.8464	54168.19	3.2770	3.2770	-0.3130	26.99	1.13	-1.500			
0.8473	54227.64	3.2740	3.2740	-0.3051	27.00	1.14	-1.500			
0.8482	54284.88	3.2710	3.2711	-0.2962	27.00	1.14	-1.500			
0.8491	54340.88	3.2680	3.2679	-0.2895	27.01	1.15	-1.500			
0.8499	54395.93	3.2650	3.2650	-0.2831	27.01	1.15	-1.500			
0.8508	54449.61	3.2620	3.2619	-0.2773	27.02	1.16	-1.500			
0.8516	54501.64	3.2590	3.2590	-0.2706	27.02	1.16	-1.500			
0.8524	54553.06	3.2560	3.2560	-0.2659	27.03	1.17	-1.500			
0.8532	54603.69	3.2530	3.2529	-0.2608	27.03	1.17	-1.500			
0.8540	54653.49	3.2500	3.2500	-0.2557	27.04	1.18	-1.500			
0.8547	54702.05	3.2470	3.2471	-0.2500	27.04	1.18	-1.500			
0.8555	54749.80	3.2440	3.2440	-0.2457	27.05	1.19	-1.500			
0.8562	54796.54	3.2410	3.2409	-0.2401	27.05	1.19	-1.500			
0.8569	54841.83	3.2380	3.2380	-0.2340	27.05	1.19	-1.500			
0.8576	54885.87	3.2350	3.2349	-0.2290	27.06	1.20	-1.500			
0.8583	54929.34	3.2320	3.2320	-0.2252	27.06	1.20	-1.500			
0.8589	54972.12	3.2290	3.2291	-0.2212	27.07	1.21	-1.500			
0.8596	55014.13	3.2260	3.2259	-0.2175	27.07	1.21	-1.500			
0.8602	55055.56	3.2230	3.2230	-0.2139	27.08	1.22	-1.500			
0.8609	55096.11	3.2200	3.2200	-0.2102	27.08	1.22	-1.500			
0.8615	55136.17	3.2170	3.2170	-0.2071	27.08	1.22	-1.500			
0.8621	55175.75	3.2140	3.2140	-0.2047	27.09	1.23	-1.500			
0.8627	55214.43	3.2110	3.2110	-0.2019	27.09	1.23	-1.500			
0.8633	55253.04	3.2080	3.2079	-0.1990	27.10	1.24	-1.500			
0.8639	55291.03	3.2050	3.2050	-0.1966	27.10	1.24	-1.500			
0.8645	55328.70	3.2020	3.2020	-0.1938	27.10	1.24	-1.500			
0.8651	55365.68	3.1990	3.1991	-0.1916	27.11	1.25	-1.500			
0.8657	55402.14	3.1960	3.1960	-0.1889	27.11	1.25	-1.500			
0.8662	55438.16	3.1930	3.1929	-0.1863	27.12	1.26	-1.500			
0.8668	55473.49	3.1900	3.1900	-0.1838	27.12	1.26	-1.500			
0.8673	55508.46	3.1870	3.1870	-0.1813	27.13	1.27	-1.500			
0.8679	55543.12	3.1840	3.1840	-0.1798	27.13	1.27	-1.500			
0.8684	55577.43	3.1810	3.1810	-0.1777	27.14	1.28	-1.500			
0.8689	55611.46	3.1780	3.1780	-0.1750	27.14	1.28	-1.500			
0.8694	55644.51	3.1750	3.1751	-0.1731	27.14	1.28	-1.500			
0.8700	55677.59	3.1720	3.1720	-0.1713	27.15	1.29	-1.500			
0.8705	55710.32	3.1690	3.1690	-0.1696	27.15	1.29	-1.500			
0.8710	55742.63	3.1660	3.1659	-0.1680	27.16	1.30	-1.500			
0.8715	55774.78	3.1630	3.1631	-0.1664	27.16	1.30	-1.500			
0.8720	55806.50	3.1600	3.1599	-0.1647	27.17	1.31	-1.500			
0.8725	55837.99	3.1570	3.1572	-0.1634	27.17	1.31	-1.500			
0.8730	55869.50	3.1540	3.1540	-0.1619	27.17	1.31	-1.500			
0.8734	55900.19	3.1510	3.1511	-0.1597	27.18	1.32	-1.500			
0.8739	55930.50	3.1480	3.1480	-0.1588	27.18	1.32	-1.500			
0.8744	55960.90	3.1450	3.1451	-0.1578	27.19	1.33	-1.500			
0.8749	55990.95	3.1420	3.1420	-0.1565	27.19	1.33	-1.500			
0.8753	56020.95	3.1390	3.1390	-0.1556	27.20	1.34	-1.500			
0.8758	56050.84	3.1360	3.1360	-0.1544	27.20	1.34	-1.500			
0.8763	56080.37	3.1330	3.1331	-0.1532	27.20	1.34	-1.500			
0.8767	56109.98	3.1300	3.1300	-0.1516	27.21	1.35	-1.500			
0.8772	56138.93	3.1270	3.1270	-0.1501	27.21	1.35	-1.500			
0.8776	56167.10	3.1240	3.1242	-0.1482	27.22	1.36	-1.500			
0.8781	56195.49	3.1210	3.1209	-0.1475	27.22	1.36	-1.500			
0.8785	56223.68	3.1180	3.1180	-0.1465	27.23	1.37	-1.500			
0.8789	56251.69	3.1150	3.1150	-0.1454	27.23	1.37	-1.500			
0.8794	56279.46	3.1120	3.1120	-0.1450	27.24	1.38	-1.500			
0.8798	56307.25	3.1090	3.1091	-0.1445	27.24	1.38	-1.500			
0.8802	56335.19	3.1060	3.1058	-0.1432	27.24	1.38	-1.500			
0.8807	56362.49	3.1030	3.1030	-0.1423	27.25	1.39	-1.500			
0.8811	56389.71	3.1000	3.1000	-0.1407	27.25	1.39	-1.500			
0.8815	56416.62	3.0970	3.0971	-0.1396	27.26	1.40	-1.500			
0.8819	56443.39	3.0940	3.0939	-0.1391	27.26	1.40	-1.500			
0.8823	56469.77	3.0910	3.0911	-0.1388	27.27	1.41	-1.500			
0.8828	56496.32	3.0880	3.0879	-0.1376	27.27	1.41	-1.500			
0.8832	56522.72	3.0850	3.0850	-0.1374	27.28	1.42	-1.500			
0.8836	56549.42	3.0820	3.0818	-0.1363	27.28	1.42	-1.500			
0.8840	56575.60	3.0790	3.0790	-0.1349	27.29	1.43	-1.500			
0.8844	56601.36	3.0760	3.0760	-0.1344	27.29	1.43	-1.500			
0.8848	56627.02	3.0730	3.0730	-0.1329	27.29	1.43	-1.500			
0.8852	56652.05	3.0700	3.0700	-0.1320	27.30	1.44	-1.500			
0.8856	56677.00	3.0670	3.0669	-0.1309	27.30	1.44	-1.500			
0.8860	56702.16	3.0640	3.0640	-0.1310	27.31	1.45	-1.500			
0.8864	56727.40	3.0610	3.0610	-0.1304	27.31	1.45	-1.500			
0.8868	56752.41	3.0580	3.0582	-0.1304	27.32	1.46	-1.500			
0.8871	56777.49	3.0550	3.0550	-0.1301	27.32	1.46	-1.500			
0.8875	56802.52	3.0520	3.0519	-0.1289	27.33	1.47	-1.500			
0.8879	56827.19	3.0490	3.0489	-0.1278	27.33	1.47	-1.500			
0.8883	56851.74	3.0460	3.0461	-0.1269	27.34	1.48	-1.500			
0.8887	56875.92	3.0430	3.0431	-0.1262	27.35	1.49	-1.500			
0.8891	56899.94	3.0400	3.0399	-0.1255	27.35	1.49	-1.500			
0.8894	56923.94	3.0370	3.0370	-0.1247	27.36	1.50	-1.500			
0.8898	56947.67	3.0340	3.0339	-0.1232	27.36	1.50	-1.500			
0.8902	56971.28	3.0310	3.0310	-0.1228	27.37	1.51	-1.500			
0.8905	56994.98	3.0280	3.0281	-0.1229	27.37	1.51	-1.500			
0.8909	57018.60	3.0250	3.0250	-0.1222	27.38	1.52	-1.500			
0.8913	57041.99	3.0220	3.0219	-0.1214	27.38	1.52	-1.500			
0.8916	57065.20	3.0190	3.0190	-0.1205	27.39	1.53	-1.500			
0.8920	57088.27	3.0160	3.0161	-0.1198	27.39	1.53	-1.500			
0.8924	57111.22	3.0130	3.0130	-0.1191	27.40	1.54	-1.500			
0.8927	57134.30	3.0100	3.0100	-0.1183	27.40	1.54	-1.500			
0.8931	57156.87	3.0070	3.0070	-0.1168	27.41	1.55	-1.500			
0.8934	57179.14	3.0040	3.0040	-0.1174	27.41	1.55	-1.500			
