Ah_balance (normalized)	Ah_balance (mAh)	Voltage - fit (V)	Voltage -  interpolate (V)	dQ/dV (1/V)	Temperature (°C)	Temperature - diff (°C)	Current (C)	R_DC 0ms (mOhm)	R_DC 50ms (mOhm)	R_DC 50 ms PEC (mOhm)
0.1885	12066.11	3.9850	3.9849	60.7511	26.30	0.33	0.085			
0.2675	17120.30	3.9820	3.9839	2.1011	27.11	1.14	1.362			
0.2732	17485.05	3.9790	3.9828	1.7275	27.10	1.13	1.501			
0.2775	17760.01	3.9760	3.9777	1.4227	27.10	1.13	1.500			
0.2829	18106.99	3.9730	3.9715	1.2008	27.09	1.12	1.500			
0.2841	18185.28	3.9700	3.9700	0.8671	27.09	1.12	1.500			
0.2868	18353.07	3.9670	3.9670	0.8728	27.09	1.12	1.500			
0.2894	18520.45	3.9640	3.9640	0.8776	27.08	1.11	1.500			
0.2920	18688.27	3.9610	3.9610	0.8844	27.08	1.11	1.500			
0.2947	18860.00	3.9580	3.9581	0.8902	27.07	1.10	1.500			
0.2974	19031.41	3.9550	3.9549	0.8958	27.07	1.10	1.500			
0.3001	19205.31	3.9520	3.9520	0.8995	27.07	1.10	1.500			
0.3028	19377.74	3.9490	3.9490	0.9006	27.06	1.09	1.500			
0.3055	19553.50	3.9460	3.9459	0.9037	27.06	1.09	1.500			
0.3082	19725.70	3.9430	3.9430	0.9047	27.05	1.08	1.500			
0.3109	19897.74	3.9400	3.9400	0.9064	27.05	1.08	1.500			
0.3136	20072.14	3.9370	3.9371	0.9133	27.04	1.07	1.500			
0.3164	20247.36	3.9340	3.9339	0.9156	27.04	1.07	1.500			
0.3191	20423.77	3.9310	3.9310	0.9268	27.04	1.07	1.500			
0.3219	20602.99	3.9280	3.9280	0.9339	27.03	1.06	1.500			
0.3248	20784.12	3.9250	3.9250	0.9382	27.03	1.06	1.500			
0.3276	20964.45	3.9220	3.9221	0.9419	27.03	1.06	1.500			
0.3304	21147.16	3.9190	3.9190	0.9418	27.02	1.05	1.500			
0.3332	21327.34	3.9160	3.9159	0.9473	27.02	1.05	1.500			
0.3361	21508.26	3.9130	3.9131	0.9523	27.02	1.05	1.500			
0.3389	21689.53	3.9100	3.9100	0.9585	27.01	1.04	1.500			
0.3418	21874.75	3.9070	3.9070	0.9710	27.01	1.04	1.500			
0.3447	22063.53	3.9040	3.9040	0.9762	27.00	1.03	1.500			
0.3477	22252.33	3.9010	3.9009	0.9812	27.00	1.03	1.500			
0.3507	22442.05	3.8980	3.8981	0.9896	26.99	1.02	1.500			
0.3536	22631.65	3.8950	3.8950	0.9922	26.98	1.01	1.500			
0.3566	22821.57	3.8920	3.8919	0.9982	26.98	1.01	1.500			
0.3596	23013.80	3.8890	3.8890	1.0062	26.97	1.00	1.500			
0.3626	23205.60	3.8860	3.8861	1.0168	26.97	1.00	1.500			
0.3657	23402.18	3.8830	3.8829	1.0348	26.96	0.99	1.500			
0.3688	23602.64	3.8800	3.8800	1.0477	26.96	0.99	1.500			
0.3720	23805.82	3.8770	3.8769	1.0587	26.95	0.98	1.500			
0.3752	24012.35	3.8740	3.8740	1.0709	26.95	0.98	1.500			
0.3785	24221.07	3.8710	3.8710	1.0738	26.95	0.98	1.500			
0.3817	24426.55	3.8680	3.8681	1.0855	26.94	0.97	1.500			
0.3849	24632.76	3.8650	3.8649	1.0917	26.94	0.97	1.500			
0.3882	24842.62	3.8620	3.8620	1.1056	26.93	0.96	1.500			
0.3915	25055.54	3.8590	3.8589	1.1215	26.93	0.96	1.500			
0.3949	25272.19	3.8560	3.8560	1.1396	26.92	0.95	1.500			
0.3984	25494.98	3.8530	3.8530	1.1609	26.92	0.95	1.500			
0.4019	25720.51	3.8500	3.8500	1.1776	26.91	0.94	1.500			
0.4054	25947.04	3.8470	3.8470	1.1904	26.90	0.93	1.500			
0.4090	26177.57	3.8440	3.8440	1.2104	26.89	0.92	1.500			
0.4127	26411.38	3.8410	3.8410	1.2338	26.89	0.92	1.500			
0.4164	26650.09	3.8380	3.8379	1.2538	26.88	0.91	1.500			
0.4202	26892.88	3.8350	3.8350	1.2740	26.87	0.90	1.500			
0.4241	27139.59	3.8320	3.8320	1.2980	26.86	0.89	1.500			
0.4280	27391.50	3.8290	3.8290	1.3151	26.85	0.88	1.500			
0.4319	27644.66	3.8260	3.8260	1.3408	26.84	0.87	1.500			
0.4360	27902.21	3.8230	3.8230	1.3686	26.83	0.86	1.500			
0.4401	28167.60	3.8200	3.8199	1.4004	26.82	0.85	1.500			
0.4444	28440.54	3.8170	3.8170	1.4332	26.81	0.84	1.500			
0.4488	28721.47	3.8140	3.8140	1.4579	26.80	0.83	1.500			
0.4532	29003.52	3.8110	3.8111	1.4902	26.79	0.82	1.500			
0.4577	29290.36	3.8080	3.8080	1.5203	26.78	0.81	1.500			
0.4622	29583.46	3.8050	3.8050	1.5596	26.77	0.80	1.500			
0.4669	29883.49	3.8020	3.8019	1.5998	26.76	0.79	1.500			
0.4719	30199.22	3.7990	3.7990	1.6327	26.75	0.78	1.500			
0.4768	30515.66	3.7960	3.7961	1.6849	26.73	0.76	1.500			
0.4819	30844.45	3.7930	3.7930	1.7271	26.72	0.75	1.500			
0.4872	31180.19	3.7900	3.7900	1.7640	26.71	0.74	1.500			
0.4925	31521.51	3.7870	3.7868	1.7962	26.70	0.73	1.500			
0.4980	31872.87	3.7840	3.7842	1.8169	26.68	0.71	1.500			
0.5035	32226.20	3.7810	3.7811	1.8540	26.66	0.69	1.500			
0.5092	32587.47	3.7780	3.7780	1.8918	26.65	0.68	1.500			
0.5148	32944.61	3.7750	3.7749	1.8967	26.63	0.66	1.500			
0.5206	33317.54	3.7720	3.7720	1.9287	26.62	0.65	1.500			
0.5264	33690.04	3.7690	3.7690	1.9544	26.60	0.63	1.500			
0.5324	34075.43	3.7660	3.7660	1.9781	26.58	0.61	1.500			
0.5383	34452.30	3.7630	3.7630	1.9675	26.57	0.60	1.500			
0.5442	34831.21	3.7600	3.7600	1.9642	26.55	0.58	1.500			
0.5501	35206.59	3.7570	3.7570	1.9551	26.54	0.57	1.500			
0.5560	35580.89	3.7540	3.7541	1.9564	26.52	0.55	1.500			
0.5618	35956.25	3.7510	3.7510	1.9552	26.51	0.54	1.500			
0.5677	36331.48	3.7480	3.7481	1.9649	26.50	0.53	1.500			
0.5736	36710.49	3.7450	3.7450	1.9652	26.48	0.51	1.500			
0.5795	37087.37	3.7420	3.7420	1.9856	26.47	0.50	1.500			
0.5855	37469.14	3.7390	3.7390	2.0095	26.45	0.48	1.500			
0.5915	37854.60	3.7360	3.7360	2.0298	26.44	0.47	1.500			
0.5977	38250.05	3.7330	3.7330	2.0488	26.42	0.45	1.500			
0.6038	38641.27	3.7300	3.7301	2.0822	26.41	0.44	1.500			
0.6100	39042.33	3.7270	3.7271	2.1302	26.39	0.42	1.500			
0.6164	39451.25	3.7240	3.7238	2.1731	26.38	0.41	1.500			
0.6230	39871.35	3.7210	3.7211	2.2262	26.36	0.39	1.500			
0.6298	40309.18	3.7180	3.7180	2.3126	26.35	0.38	1.500			
0.6369	40760.01	3.7150	3.7150	2.3744	26.33	0.36	1.500			
0.6441	41221.19	3.7120	3.7121	2.4492	26.31	0.34	1.500			
0.6515	41697.27	3.7090	3.7090	2.5145	26.30	0.33	1.500			
0.6592	42190.12	3.7060	3.7060	2.5744	26.28	0.31	1.500			
0.6670	42686.47	3.7030	3.7032	2.6176	26.27	0.30	1.500			
0.6750	43203.12	3.7000	3.6999	2.6114	26.25	0.28	1.500			
0.6829	43706.46	3.6970	3.6971	2.5583	26.24	0.27	1.500			
0.6906	44200.25	3.6940	3.6938	2.4291	26.22	0.25	1.500			
0.6977	44654.43	3.6910	3.6910	2.2671	26.21	0.24	1.500			
0.7042	45067.83	3.6880	3.6880	2.0813	26.20	0.23	1.500			
0.7102	45449.63	3.6850	3.6850	1.9238	26.20	0.23	1.500			
0.7156	45799.65	3.6820	3.6820	1.7850	26.19	0.22	1.500			
0.7206	46119.29	3.6790	3.6789	1.6505	26.18	0.21	1.500			
0.7254	46423.23	3.6760	3.6760	1.5545	26.17	0.20	1.500			
0.7297	46703.26	3.6730	3.6730	1.4643	26.16	0.19	1.500			
0.7340	46975.31	3.6700	3.6700	1.4011	26.15	0.18	1.500			
0.7380	47234.65	3.6670	3.6671	1.3540	26.15	0.18	1.500			
0.7420	47485.74	3.6640	3.6639	1.3101	26.14	0.17	1.500			
0.7458	47732.34	3.6610	3.6610	1.2860	26.13	0.16	1.500			
0.7496	47973.27	3.6580	3.6580	1.2690	26.12	0.15	1.500			
0.7534	48215.27	3.6550	3.6550	1.2643	26.12	0.15	1.500			
0.7571	48455.85	3.6520	3.6520	1.2708	26.11	0.14	1.500			
0.7609	48699.04	3.6490	3.6490	1.2760	26.10	0.13	1.500			
0.7648	48944.83	3.6460	3.6460	1.2895	26.09	0.12	1.500			
0.7687	49193.98	3.6430	3.6430	1.3005	26.08	0.11	1.500			
0.7726	49445.51	3.6400	3.6400	1.3068	26.07	0.10	1.500			
0.7765	49698.59	3.6370	3.6370	1.3117	26.06	0.09	1.500			
0.7805	49951.64	3.6340	3.6339	1.3136	26.05	0.08	1.500			
0.7844	50204.73	3.6310	3.6310	1.3112	26.04	0.07	1.500			
0.7884	50456.32	3.6280	3.6280	1.3116	26.03	0.06	1.500			
0.7923	50707.97	3.6250	3.6251	1.3077	26.02	0.05	1.500			
0.7962	50959.46	3.6220	3.6220	1.3074	26.01	0.04	1.500			
0.8002	51210.48	3.6190	3.6189	1.3039	26.01	0.04	1.500			
0.8041	51459.48	3.6160	3.6160	1.3000	26.00	0.03	1.500			
0.8080	51709.04	3.6130	3.6131	1.2952	25.99	0.02	1.500			
0.8119	51958.47	3.6100	3.6100	1.2975	25.99	0.02	1.500			
0.8157	52207.05	3.6070	3.6069	1.2903	25.98	0.01	1.500			
0.8196	52455.66	3.6040	3.6040	1.2799	25.98	0.01	1.500			
0.8234	52700.52	3.6010	3.6011	1.2671	25.97	0.00	1.500			
0.8273	52945.45	3.5980	3.5980	1.2545	25.97	-0.00	1.500			
0.8310	53184.40	3.5950	3.5950	1.2358	25.96	-0.01	1.500			
0.8347	53418.59	3.5920	3.5920	1.2193	25.96	-0.01	1.500			
0.8383	53648.61	3.5890	3.5891	1.2071	25.95	-0.02	1.500			
0.8419	53879.49	3.5860	3.5861	1.2010	25.95	-0.02	1.500			
0.8455	54109.92	3.5830	3.5829	1.1916	25.95	-0.02	1.500			
0.8491	54342.86	3.5800	3.5800	1.1607	25.96	-0.01	1.500			
0.8526	54568.31	3.5770	3.5770	1.1117	25.96	-0.01	1.500			
0.8561	54790.23	3.5740	3.5740	1.0265	25.96	-0.01	1.500			
0.8591	54984.12	3.5710	3.5710	0.9109	25.96	-0.01	1.500			
0.8617	55150.71	3.5680	3.5681	0.7849	25.97	-0.00	1.500			
0.8639	55286.71	3.5650	3.5650	0.6511	25.97	-0.00	1.500			
0.8655	55390.42	3.5620	3.5619	0.5329	25.97	-0.00	1.500			
0.8668	55477.15	3.5590	3.5589	0.4357	25.97	0.00	1.500			
0.8679	55543.92	3.5560	3.5559	0.3580	25.97	0.00	1.500			
0.8688	55603.54	3.5530	3.5529	0.3095	25.97	0.00	1.500			
0.8696	55655.03	3.5500	3.5500	0.2692	25.97	0.00	1.500			
0.8703	55701.13	3.5470	3.5470	0.2391	25.97	0.00	1.500			
0.8710	55743.08	3.5440	3.5439	0.2133	25.97	0.00	1.500			
0.8716	55781.05	3.5410	3.5410	0.1941	25.97	0.00	1.500			
0.8721	55815.48	3.5380	3.5380	0.1769	25.97	0.00	1.500			
0.8726	55847.97	3.5350	3.5350	0.1621	25.98	0.01	1.500			
0.8731	55877.47	3.5320	3.5320	0.1489	25.98	0.01	1.500			
0.8735	55904.29	3.5290	3.5290	0.1350	25.98	0.01	1.500			
0.8739	55929.33	3.5260	3.5260	0.1210	25.98	0.01	1.500			
0.8742	55951.39	3.5230	3.5229	0.1077	25.98	0.01	1.500			
0.8745	55970.72	3.5200	3.5202	0.0937	25.98	0.01	1.500			
0.8748	55987.94	3.5170	3.5171	0.0798	25.98	0.01	1.500			
0.8750	56002.26	3.5140	3.5141	0.0648	25.98	0.01	1.500			
0.8752	56013.19	3.5110	3.5118	0.0491	25.98	0.01	1.500			
0.8753	56021.09	3.5080	3.5093	0.0333	25.98	0.01	1.500			
