Ah_balance (normalized)	Ah_balance (mAh)	Voltage - fit (V)	Voltage -  interpolate (V)	dQ/dV (1/V)	Temperature (°C)	Temperature - diff (°C)	Current (C)	R_DC 0ms (mOhm)	R_DC 50ms (mOhm)	R_DC 50 ms PEC (mOhm)
0.1720	11004.95	4.1050	4.1050	0.7555	27.38	1.43	1.500			
0.1742	11150.76	4.1020	4.1020	0.7616	27.38	1.43	1.500			
0.1765	11297.09	4.0990	4.0990	0.7679	27.37	1.42	1.500			
0.1788	11445.43	4.0960	4.0960	0.7739	27.37	1.42	1.500			
0.1812	11595.11	4.0930	4.0930	0.7776	27.36	1.41	1.500			
0.1835	11744.37	4.0900	4.0900	0.7813	27.36	1.41	1.500			
0.1859	11895.58	4.0870	4.0870	0.7822	27.36	1.41	1.500			
0.1882	12046.94	4.0840	4.0839	0.7784	27.35	1.40	1.500			
0.1906	12195.41	4.0810	4.0811	0.7795	27.35	1.40	1.500			
0.1929	12343.89	4.0780	4.0780	0.7808	27.35	1.40	1.500			
0.1952	12493.44	4.0750	4.0751	0.7837	27.34	1.39	1.500			
0.1976	12644.16	4.0720	4.0720	0.7878	27.34	1.39	1.500			
0.1999	12795.44	4.0690	4.0690	0.7908	27.34	1.39	1.500			
0.2023	12949.47	4.0660	4.0660	0.7953	27.33	1.38	1.500			
0.2047	13103.37	4.0630	4.0630	0.7970	27.33	1.38	1.500			
0.2071	13255.33	4.0600	4.0600	0.7953	27.33	1.38	1.500			
0.2095	13408.09	4.0570	4.0570	0.7936	27.32	1.37	1.500			
0.2119	13559.90	4.0540	4.0540	0.7938	27.32	1.37	1.500			
0.2143	13712.36	4.0510	4.0510	0.7933	27.32	1.37	1.500			
0.2166	13863.98	4.0480	4.0480	0.7945	27.32	1.37	1.500			
0.2190	14016.27	4.0450	4.0450	0.7986	27.31	1.36	1.500			
0.2214	14170.62	4.0420	4.0419	0.8017	27.31	1.36	1.500			
0.2238	14323.85	4.0390	4.0390	0.8061	27.31	1.36	1.500			
0.2263	14480.07	4.0360	4.0361	0.8079	27.30	1.35	1.500			
0.2287	14635.02	4.0330	4.0330	0.8140	27.30	1.35	1.500			
0.2311	14791.54	4.0300	4.0300	0.8172	27.29	1.34	1.500			
0.2336	14949.60	4.0270	4.0270	0.8198	27.29	1.34	1.500			
0.2361	15107.33	4.0240	4.0240	0.8227	27.29	1.34	1.500			
0.2385	15266.75	4.0210	4.0210	0.8249	27.28	1.33	1.500			
0.2410	15424.53	4.0180	4.0180	0.8248	27.28	1.33	1.500			
0.2435	15583.13	4.0150	4.0150	0.8283	27.27	1.32	1.500			
0.2459	15740.25	4.0120	4.0119	0.8299	27.27	1.32	1.500			
0.2485	15901.02	4.0090	4.0091	0.8323	27.26	1.31	1.500			
0.2510	16061.57	4.0060	4.0060	0.8346	27.26	1.31	1.500			
0.2535	16222.24	4.0030	4.0030	0.8386	27.25	1.30	1.500			
0.2560	16384.27	4.0000	4.0000	0.8391	27.25	1.30	1.500			
0.2585	16543.96	3.9970	3.9970	0.8422	27.24	1.29	1.500			
0.2610	16706.08	3.9940	3.9940	0.8439	27.23	1.28	1.500			
0.2636	16868.23	3.9910	3.9910	0.8448	27.23	1.28	1.500			
0.2661	17030.98	3.9880	3.9881	0.8501	27.22	1.27	1.500			
0.2687	17194.45	3.9850	3.9850	0.8540	27.22	1.27	1.500			
0.2712	17358.32	3.9820	3.9819	0.8582	27.21	1.26	1.500			
0.2738	17523.86	3.9790	3.9789	0.8607	27.21	1.26	1.500			
0.2764	17687.79	3.9760	3.9760	0.8679	27.20	1.25	1.500			
0.2790	17857.06	3.9730	3.9730	0.8709	27.20	1.25	1.500			
0.2816	18024.95	3.9700	3.9699	0.8696	27.19	1.24	1.500			
0.2843	18192.85	3.9670	3.9669	0.8703	27.19	1.24	1.500			
0.2869	18360.05	3.9640	3.9641	0.8702	27.19	1.24	1.500			
0.2895	18525.81	3.9610	3.9609	0.8727	27.18	1.23	1.500			
0.2921	18693.38	3.9580	3.9580	0.8765	27.18	1.23	1.500			
0.2947	18859.70	3.9550	3.9550	0.8766	27.17	1.22	1.500			
0.2973	19029.93	3.9520	3.9520	0.8906	27.17	1.22	1.500			
0.3001	19203.28	3.9490	3.9490	0.8975	27.16	1.21	1.500			
0.3028	19376.52	3.9460	3.9460	0.8987	27.15	1.20	1.500			
0.3055	19549.95	3.9430	3.9430	0.9031	27.15	1.20	1.500			
0.3082	19723.65	3.9400	3.9401	0.9017	27.14	1.19	1.500			
0.3109	19896.26	3.9370	3.9370	0.9053	27.14	1.19	1.500			
0.3136	20069.30	3.9340	3.9340	0.9095	27.13	1.18	1.500			
0.3163	20243.40	3.9310	3.9310	0.9119	27.12	1.17	1.500			
0.3191	20419.28	3.9280	3.9280	0.9223	27.12	1.17	1.500			
0.3218	20597.45	3.9250	3.9251	0.9308	27.11	1.16	1.500			
0.3246	20777.10	3.9220	3.9220	0.9349	27.10	1.15	1.500			
0.3275	20958.41	3.9190	3.9190	0.9434	27.10	1.15	1.500			
0.3303	21139.50	3.9160	3.9160	0.9459	27.09	1.14	1.500			
0.3332	21322.05	3.9130	3.9131	0.9475	27.09	1.14	1.500			
0.3360	21504.28	3.9100	3.9100	0.9517	27.08	1.13	1.500			
0.3388	21685.21	3.9070	3.9070	0.9580	27.07	1.12	1.500			
0.3417	21869.92	3.9040	3.9040	0.9691	27.07	1.12	1.500			
0.3446	22057.13	3.9010	3.9009	0.9768	27.06	1.11	1.500			
0.3476	22244.81	3.8980	3.8980	0.9862	27.06	1.11	1.500			
0.3506	22435.97	3.8950	3.8951	0.9991	27.05	1.10	1.500			
0.3536	22629.72	3.8920	3.8920	1.0085	27.04	1.09	1.500			
0.3566	22824.17	3.8890	3.8890	1.0128	27.04	1.09	1.500			
0.3597	23019.97	3.8860	3.8860	1.0137	27.03	1.08	1.500			
0.3627	23214.66	3.8830	3.8831	1.0238	27.02	1.07	1.500			
0.3658	23410.78	3.8800	3.8800	1.0380	27.01	1.06	1.500			
0.3689	23609.47	3.8770	3.8770	1.0492	27.01	1.06	1.500			
0.3721	23812.31	3.8740	3.8740	1.0601	27.00	1.05	1.500			
0.3753	24017.89	3.8710	3.8710	1.0749	26.99	1.04	1.500			
0.3786	24228.10	3.8680	3.8680	1.0882	26.98	1.03	1.500			
0.3819	24438.86	3.8650	3.8650	1.0942	26.97	1.02	1.500			
0.3851	24648.30	3.8620	3.8619	1.1025	26.96	1.01	1.500			
0.3884	24858.11	3.8590	3.8590	1.1173	26.95	1.00	1.500			
0.3918	25073.39	3.8560	3.8560	1.1322	26.94	0.99	1.500			
0.3952	25293.22	3.8530	3.8530	1.1509	26.93	0.98	1.500			
0.3987	25516.93	3.8500	3.8500	1.1695	26.92	0.97	1.500			
0.4023	25744.31	3.8470	3.8471	1.1881	26.91	0.96	1.500			
0.4059	25975.10	3.8440	3.8440	1.2062	26.90	0.95	1.500			
0.4095	26205.79	3.8410	3.8410	1.2193	26.89	0.94	1.500			
0.4131	26441.14	3.8380	3.8381	1.2357	26.88	0.93	1.500			
0.4169	26679.99	3.8350	3.8350	1.2580	26.86	0.91	1.500			
0.4207	26921.83	3.8320	3.8319	1.2833	26.85	0.90	1.500			
0.4245	27169.95	3.8290	3.8291	1.3087	26.84	0.89	1.500			
0.4285	27424.01	3.8260	3.8260	1.3340	26.83	0.88	1.500			
0.4326	27685.96	3.8230	3.8229	1.3527	26.82	0.87	1.500			
0.4367	27946.91	3.8200	3.8201	1.3763	26.81	0.86	1.500			
0.4408	28212.79	3.8170	3.8171	1.4046	26.80	0.85	1.500			
0.4451	28484.22	3.8140	3.8139	1.4298	26.78	0.83	1.500			
0.4494	28761.32	3.8110	3.8111	1.4551	26.77	0.82	1.500			
0.4538	29042.59	3.8080	3.8080	1.4826	26.75	0.80	1.500			
0.4583	29329.44	3.8050	3.8051	1.5117	26.74	0.79	1.500			
0.4629	29623.47	3.8020	3.8019	1.5395	26.72	0.77	1.500			
0.4675	29920.12	3.7990	3.7990	1.5685	26.70	0.75	1.500			
0.4722	30222.93	3.7960	3.7958	1.6021	26.70	0.75	1.500			
0.4771	30536.72	3.7930	3.7931	1.6291	26.68	0.73	1.500			
0.4821	30855.57	3.7900	3.7900	1.6604	26.66	0.71	1.500			
0.4871	31176.06	3.7870	3.7870	1.6904	26.64	0.69	1.500			
0.4923	31504.59	3.7840	3.7840	1.7190	26.62	0.67	1.500			
0.4974	31836.31	3.7810	3.7809	1.7372	26.60	0.65	1.500			
0.5027	32174.77	3.7780	3.7780	1.7501	26.58	0.63	1.500			
0.5080	32511.09	3.7750	3.7751	1.7656	26.57	0.62	1.500			
0.5134	32855.36	3.7720	3.7720	1.7823	26.55	0.60	1.500			
0.5187	33195.42	3.7690	3.7690	1.7814	26.54	0.59	1.500			
0.5240	33536.64	3.7660	3.7660	1.7873	26.52	0.57	1.500			
0.5294	33884.57	3.7630	3.7630	1.7818	26.51	0.56	1.500			
0.5348	34225.14	3.7600	3.7600	1.7987	26.49	0.54	1.500			
0.5402	34571.61	3.7570	3.7570	1.8076	26.48	0.53	1.500			
0.5456	34915.75	3.7540	3.7538	1.8204	26.46	0.51	1.500			
0.5511	35268.80	3.7510	3.7511	1.8328	26.45	0.50	1.500			
0.5566	35621.80	3.7480	3.7480	1.8532	26.44	0.49	1.500			
0.5622	35978.98	3.7450	3.7450	1.8868	26.43	0.48	1.500			
0.5678	36338.77	3.7420	3.7421	1.8991	26.42	0.47	1.500			
0.5735	36706.30	3.7390	3.7390	1.9343	26.41	0.46	1.500			
0.5794	37080.18	3.7360	3.7360	1.9598	26.39	0.44	1.500			
0.5853	37459.16	3.7330	3.7331	2.0041	26.38	0.43	1.500			
0.5913	37844.16	3.7300	3.7301	2.0519	26.37	0.42	1.500			
0.5976	38243.44	3.7270	3.7269	2.1074	26.36	0.41	1.500			
0.6040	38653.01	3.7240	3.7240	2.1397	26.35	0.40	1.500			
0.6105	39069.70	3.7210	3.7211	2.2124	26.34	0.39	1.500			
0.6172	39499.05	3.7180	3.7180	2.2751	26.33	0.38	1.500			
0.6241	39942.14	3.7150	3.7150	2.3656	26.31	0.36	1.500			
0.6313	40403.25	3.7120	3.7120	2.4092	26.30	0.35	1.500			
0.6387	40878.12	3.7090	3.7090	2.4739	26.29	0.34	1.500			
0.6463	41361.36	3.7060	3.7058	2.4686	26.27	0.32	1.500			
0.6538	41841.01	3.7030	3.7030	2.4279	26.25	0.30	1.500			
0.6612	42313.95	3.7000	3.7000	2.3567	26.23	0.28	1.500			
0.6682	42763.31	3.6970	3.6970	2.2169	26.21	0.26	1.500			
0.6746	43175.84	3.6940	3.6941	2.0572	26.19	0.24	1.500			
0.6805	43554.87	3.6910	3.6910	1.8948	26.18	0.23	1.500			
0.6859	43894.67	3.6880	3.6880	1.7592	26.17	0.22	1.500			
0.6908	44208.27	3.6850	3.6850	1.6245	26.16	0.21	1.500			
0.6954	44506.88	3.6820	3.6818	1.5350	26.15	0.20	1.500			
0.6998	44788.98	3.6790	3.6790	1.4552	26.14	0.19	1.500			
0.7041	45061.64	3.6760	3.6761	1.3956	26.13	0.18	1.500			
0.7082	45323.45	3.6730	3.6730	1.3428	26.13	0.18	1.500			
0.7121	45571.54	3.6700	3.6700	1.3028	26.12	0.17	1.500			
0.7158	45813.76	3.6670	3.6670	1.2792	26.11	0.16	1.500			
0.7196	46054.41	3.6640	3.6640	1.2631	26.10	0.15	1.500			
0.7234	46294.98	3.6610	3.6611	1.2650	26.10	0.15	1.500			
0.7271	46536.37	3.6580	3.6580	1.2679	26.09	0.14	1.500			
0.7310	46781.42	3.6550	3.6550	1.2745	26.08	0.13	1.500			
0.7348	47026.19	3.6520	3.6520	1.2806	26.07	0.12	1.500			
0.7386	47272.22	3.6490	3.6490	1.2899	26.07	0.12	1.500			
0.7425	47521.76	3.6460	3.6460	1.2979	26.06	0.11	1.500			
0.7465	47773.91	3.6430	3.6429	1.2964	26.05	0.10	1.500			
0.7503	48021.72	3.6400	3.6401	1.2937	26.04	0.09	1.500			
0.7542	48270.85	3.6370	3.6370	1.2918	26.03	0.08	1.500			
0.7581	48518.92	3.6340	3.6340	1.2860	26.02	0.07	1.500			
0.7619	48764.16	3.6310	3.6310	1.2792	26.01	0.06	1.500			
0.7658	49008.33	3.6280	3.6280	1.2758	26.00	0.05	1.500			
0.7696	49254.38	3.6250	3.6250	1.2756	25.99	0.04	1.500			
0.7734	49500.11	3.6220	3.6220	1.2732	25.99	0.04	1.500			
0.7772	49743.84	3.6190	3.6190	1.2624	25.98	0.03	1.500			
0.7810	49986.52	3.6160	3.6161	1.2556	25.97	0.02	1.500			
0.7848	50226.94	3.6130	3.6130	1.2481	25.96	0.01	1.500			
0.7885	50465.42	3.6100	3.6100	1.2358	25.96	0.01	1.500			
0.7922	50702.08	3.6070	3.6070	1.2241	25.95	-0.00	1.500			
0.7959	50936.30	3.6040	3.6040	1.2100	25.94	-0.01	1.500			
0.7995	51167.91	3.6010	3.6010	1.1998	25.94	-0.01	1.500			
0.8031	51398.22	3.5980	3.5981	1.1826	25.94	-0.01	1.500			
0.8066	51623.34	3.5950	3.5949	1.1655	25.94	-0.01	1.500			
0.8101	51845.66	3.5920	3.5920	1.1453	25.95	-0.00	1.500			
0.8135	52066.10	3.5890	3.5890	1.1242	25.95	-0.00	1.500			
0.8169	52281.66	3.5860	3.5860	1.0895	25.95	-0.00	1.500			
0.8202	52495.64	3.5830	3.5829	1.0339	25.95	-0.00	1.500			
0.8233	52691.95	3.5800	3.5801	0.9561	25.95	0.00	1.500			
0.8262	52877.39	3.5770	3.5770	0.8625	25.95	0.00	1.500			
0.8287	53034.23	3.5740	3.5741	0.7466	25.95	0.00	1.500			
0.8307	53164.13	3.5710	3.5711	0.6310	25.95	0.00	1.500			
0.8324	53271.82	3.5680	3.5680	0.5248	25.95	0.00	1.500			
0.8337	53354.06	3.5650	3.5649	0.4322	25.95	0.00	1.500			
0.8348	53425.08	3.5620	3.5620	0.3638	25.96	0.01	1.500			
0.8357	53483.87	3.5590	3.5590	0.3097	25.96	0.01	1.500			
0.8365	53536.98	3.5560	3.5559	0.2725	25.96	0.01	1.500			
0.8373	53584.08	3.5530	3.5530	0.2384	25.96	0.01	1.500			
0.8379	53626.29	3.5500	3.5499	0.2153	25.96	0.01	1.500			
0.8385	53664.11	3.5470	3.5470	0.1948	25.96	0.01	1.500			
0.8390	53698.93	3.5440	3.5441	0.1781	25.96	0.01	1.500			
0.8396	53731.20	3.5410	3.5410	0.1620	25.96	0.01	1.500			
0.8400	53760.48	3.5380	3.5380	0.1482	25.96	0.01	1.500			
0.8404	53787.23	3.5350	3.5350	0.1341	25.96	0.01	1.500			
0.8408	53812.24	3.5320	3.5320	0.1209	25.96	0.01	1.500			
0.8412	53834.14	3.5290	3.5290	0.1073	25.96	0.01	1.500			
0.8415	53853.67	3.5260	3.5260	0.0941	25.96	0.01	1.500			
0.8417	53870.75	3.5230	3.5231	0.0806	25.96	0.01	1.500			
0.8420	53884.84	3.5200	3.5202	0.0662	25.96	0.01	1.500			
0.8421	53896.57	3.5170	3.5171	0.0514	25.96	0.01	1.500			
0.8423	53904.98	3.5140	3.5146	0.0362	25.96	0.01	1.500			
0.8424	53910.46	3.5110	3.5121	0.0210	25.96	0.01	1.500			
