Ah_balance (normalized)	Ah_balance (mAh)	Voltage - fit (V)	Voltage -  interpolate (V)	dQ/dV (1/V)	Temperature (°C)	Temperature - diff (°C)	Current (C)	R_DC 0ms (mOhm)	R_DC 50ms (mOhm)	R_DC 50 ms PEC (mOhm)
0.2732	17487.92	3.9890	3.9890	0.8237	27.19	1.25	1.500			
0.2757	17647.93	3.9860	3.9860	0.8381	27.19	1.25	1.500			
0.2783	17809.65	3.9830	3.9830	0.8468	27.18	1.24	1.500			
0.2809	17975.37	3.9800	3.9800	0.8490	27.17	1.23	1.500			
0.2834	18138.96	3.9770	3.9770	0.8517	27.17	1.23	1.500			
0.2860	18303.81	3.9740	3.9740	0.8525	27.16	1.22	1.500			
0.2885	18465.40	3.9710	3.9711	0.8573	27.16	1.22	1.500			
0.2911	18629.42	3.9680	3.9680	0.8592	27.15	1.21	1.500			
0.2937	18793.99	3.9650	3.9650	0.8658	27.14	1.20	1.500			
0.2963	18960.46	3.9620	3.9620	0.8716	27.14	1.20	1.500			
0.2989	19130.44	3.9590	3.9590	0.8771	27.13	1.19	1.500			
0.3016	19299.84	3.9560	3.9560	0.8787	27.12	1.18	1.500			
0.3042	19469.78	3.9530	3.9531	0.8835	27.12	1.18	1.500			
0.3069	19640.01	3.9500	3.9500	0.8759	27.11	1.17	1.500			
0.3095	19807.76	3.9470	3.9470	0.8820	27.10	1.16	1.500			
0.3121	19975.88	3.9440	3.9441	0.8866	27.10	1.16	1.500			
0.3148	20145.36	3.9410	3.9410	0.8943	27.09	1.15	1.500			
0.3175	20318.22	3.9380	3.9380	0.8995	27.09	1.15	1.500			
0.3202	20491.37	3.9350	3.9351	0.9084	27.08	1.14	1.500			
0.3229	20667.86	3.9320	3.9320	0.9105	27.07	1.13	1.500			
0.3257	20846.41	3.9290	3.9290	0.9151	27.07	1.13	1.500			
0.3284	21019.24	3.9260	3.9260	0.9165	27.06	1.12	1.500			
0.3312	21195.94	3.9230	3.9230	0.9179	27.05	1.11	1.500			
0.3339	21371.19	3.9200	3.9199	0.9244	27.05	1.11	1.500			
0.3367	21550.50	3.9170	3.9171	0.9279	27.04	1.10	1.500			
0.3395	21728.78	3.9140	3.9140	0.9311	27.03	1.09	1.500			
0.3423	21908.04	3.9110	3.9111	0.9437	27.03	1.09	1.500			
0.3451	22089.46	3.9080	3.9080	0.9497	27.02	1.08	1.500			
0.3480	22271.19	3.9050	3.9049	0.9569	27.01	1.07	1.500			
0.3509	22456.50	3.9020	3.9020	0.9706	27.00	1.06	1.500			
0.3538	22643.24	3.8990	3.8990	0.9821	26.99	1.05	1.500			
0.3568	22834.93	3.8960	3.8959	0.9939	26.98	1.04	1.500			
0.3598	23027.37	3.8930	3.8930	0.9988	26.98	1.04	1.500			
0.3628	23218.89	3.8900	3.8901	1.0037	26.97	1.03	1.500			
0.3658	23413.66	3.8870	3.8872	1.0122	26.96	1.02	1.500			
0.3689	23607.44	3.8840	3.8840	1.0183	26.95	1.01	1.500			
0.3719	23801.81	3.8810	3.8810	1.0231	26.95	1.01	1.500			
0.3750	23999.07	3.8780	3.8780	1.0333	26.94	1.00	1.500			
0.3781	24199.50	3.8750	3.8750	1.0472	26.93	0.99	1.500			
0.3813	24401.25	3.8720	3.8721	1.0588	26.92	0.98	1.500			
0.3844	24603.90	3.8690	3.8689	1.0754	26.91	0.97	1.500			
0.3877	24812.64	3.8660	3.8660	1.0911	26.91	0.97	1.500			
0.3910	25022.97	3.8630	3.8630	1.1029	26.90	0.96	1.500			
0.3943	25237.57	3.8600	3.8600	1.1161	26.89	0.95	1.500			
0.3977	25454.11	3.8570	3.8571	1.1333	26.88	0.94	1.500			
0.4011	25672.72	3.8540	3.8540	1.1450	26.87	0.93	1.500			
0.4046	25892.90	3.8510	3.8510	1.1546	26.86	0.92	1.500			
0.4080	26114.43	3.8480	3.8480	1.1698	26.85	0.91	1.500			
0.4116	26341.17	3.8450	3.8450	1.1894	26.84	0.90	1.500			
0.4152	26570.74	3.8420	3.8419	1.2081	26.83	0.89	1.500			
0.4188	26805.74	3.8390	3.8390	1.2243	26.82	0.88	1.500			
0.4225	27040.58	3.8360	3.8361	1.2434	26.81	0.87	1.500			
0.4263	27283.14	3.8330	3.8330	1.2646	26.80	0.86	1.500			
0.4301	27527.06	3.8300	3.8300	1.2874	26.79	0.85	1.500			
0.4340	27773.91	3.8270	3.8270	1.3081	26.78	0.84	1.500			
0.4379	28026.75	3.8240	3.8241	1.3395	26.77	0.83	1.500			
0.4420	28288.11	3.8210	3.8209	1.3637	26.76	0.82	1.500			
0.4461	28553.42	3.8180	3.8180	1.3898	26.74	0.80	1.500			
0.4503	28822.13	3.8150	3.8151	1.4128	26.73	0.79	1.500			
0.4546	29096.56	3.8120	3.8120	1.4402	26.72	0.78	1.500			
0.4590	29375.45	3.8090	3.8090	1.4641	26.70	0.76	1.500			
0.4634	29657.97	3.8060	3.8060	1.4914	26.69	0.75	1.500			
0.4679	29947.86	3.8030	3.8030	1.5192	26.67	0.73	1.500			
0.4725	30243.17	3.8000	3.8000	1.5482	26.66	0.72	1.500			
0.4772	30541.27	3.7970	3.7970	1.5670	26.65	0.71	1.500			
0.4819	30842.96	3.7940	3.7940	1.6008	26.63	0.69	1.500			
0.4867	31151.92	3.7910	3.7910	1.6261	26.62	0.68	1.500			
0.4917	31466.91	3.7880	3.7880	1.6582	26.61	0.67	1.500			
0.4967	31787.05	3.7850	3.7851	1.6724	26.59	0.65	1.500			
0.5017	32110.18	3.7820	3.7820	1.7069	26.58	0.64	1.500			
0.5069	32439.79	3.7790	3.7789	1.7282	26.56	0.62	1.500	0.344	0.467	
0.5121	32775.24	3.7760	3.7761	1.7575	26.55	0.61	1.500			
0.5174	33113.86	3.7730	3.7731	1.7687	26.53	0.59	1.500			
0.5229	33464.00	3.7700	3.7700	1.7926	26.52	0.58	1.500			
0.5281	33798.54	3.7670	3.7670	1.7561	26.50	0.56	1.500			
0.5334	34136.05	3.7640	3.7639	1.7627	26.48	0.54	1.500			
0.5386	34472.89	3.7610	3.7610	1.7709	26.47	0.53	1.500			
0.5440	34815.87	3.7580	3.7580	1.7791	26.45	0.51	1.500			
0.5493	35158.17	3.7550	3.7550	1.7719	26.44	0.50	1.500			
0.5546	35493.06	3.7520	3.7520	1.7792	26.43	0.49	1.500			
0.5599	35834.38	3.7490	3.7490	1.8020	26.41	0.47	1.500			
0.5654	36184.26	3.7460	3.7458	1.8279	26.40	0.46	1.500			
0.5709	36536.87	3.7430	3.7430	1.8591	26.39	0.45	1.500			
0.5765	36897.44	3.7400	3.7400	1.8821	26.37	0.43	1.500			
0.5822	37259.80	3.7370	3.7370	1.9073	26.36	0.42	1.500			
0.5880	37630.46	3.7340	3.7340	1.9542	26.35	0.41	1.500			
0.5939	38007.22	3.7310	3.7310	2.0125	26.33	0.39	1.500			
0.6000	38401.83	3.7280	3.7280	2.0598	26.32	0.38	1.500			
0.6063	38802.23	3.7250	3.7250	2.1238	26.30	0.36	1.500			
0.6127	39213.02	3.7220	3.7220	2.1929	26.29	0.35	1.500			
0.6194	39639.25	3.7190	3.7190	2.2510	26.27	0.33	1.500			
0.6262	40078.60	3.7160	3.7161	2.2989	26.26	0.32	1.500			
0.6333	40528.79	3.7130	3.7130	2.3504	26.24	0.30	1.500			
0.6403	40979.98	3.7100	3.7099	2.3762	26.23	0.29	1.500			
0.6475	41441.46	3.7070	3.7070	2.4107	26.22	0.28	1.500			
0.6549	41914.13	3.7040	3.7040	2.3381	26.20	0.26	1.500			
0.6617	42350.13	3.7010	3.7012	2.2399	26.19	0.25	1.500			
0.6683	42771.90	3.6980	3.6980	2.1120	26.18	0.24	1.500			
0.6744	43162.54	3.6950	3.6950	1.9714	26.17	0.23	1.500			
0.6801	43528.56	3.6920	3.6920	1.8507	26.16	0.22	1.500			
0.6854	43866.89	3.6890	3.6890	1.7118	26.15	0.21	1.500			
0.6903	44180.80	3.6860	3.6859	1.6060	26.14	0.20	1.500			
0.6949	44472.89	3.6830	3.6830	1.5116	26.13	0.19	1.500			
0.6993	44754.69	3.6800	3.6800	1.4422	26.13	0.19	1.500			
0.7034	45019.33	3.6770	3.6770	1.3864	26.12	0.18	1.500			
0.7074	45275.55	3.6740	3.6741	1.3412	26.11	0.17	1.500			
0.7114	45528.74	3.6710	3.6709	1.3094	26.11	0.17	1.500			
0.7153	45776.01	3.6680	3.6680	1.2935	26.10	0.16	1.500			
0.7191	46021.30	3.6650	3.6650	1.2769	26.09	0.15	1.500			
0.7229	46264.47	3.6620	3.6620	1.2661	26.08	0.14	1.500			
0.7266	46505.44	3.6590	3.6590	1.2671	26.07	0.13	1.500			
0.7304	46746.34	3.6560	3.6561	1.2694	26.06	0.12	1.500			
0.7342	46990.85	3.6530	3.6529	1.2761	26.06	0.12	1.500			
0.7381	47238.14	3.6500	3.6501	1.2837	26.05	0.11	1.500			
0.7420	47484.87	3.6470	3.6470	1.2849	26.04	0.10	1.500			
0.7459	47734.54	3.6440	3.6440	1.2785	26.03	0.09	1.500			
0.7497	47981.41	3.6410	3.6410	1.2735	26.02	0.08	1.500			
0.7535	48224.34	3.6380	3.6381	1.2596	26.01	0.07	1.500			
0.7572	48463.99	3.6350	3.6350	1.2556	26.00	0.06	1.500			
0.7610	48702.95	3.6320	3.6320	1.2492	25.99	0.05	1.500			
0.7647	48942.58	3.6290	3.6290	1.2428	25.98	0.04	1.500			
0.7684	49180.56	3.6260	3.6260	1.2400	25.98	0.04	1.500			
0.7722	49420.45	3.6230	3.6231	1.2336	25.97	0.03	1.500			
0.7759	49656.53	3.6200	3.6200	1.2284	25.97	0.03	1.500			
0.7796	49892.69	3.6170	3.6170	1.2109	25.96	0.02	1.500			
0.7832	50123.69	3.6140	3.6140	1.1940	25.96	0.02	1.500			
0.7867	50351.88	3.6110	3.6110	1.1803	25.95	0.01	1.500			
0.7903	50577.66	3.6080	3.6078	1.1616	25.95	0.01	1.500			
0.7937	50799.09	3.6050	3.6050	1.1403	25.95	0.01	1.500			
0.7971	51016.55	3.6020	3.6020	1.1210	25.95	0.01	1.500			
0.8005	51229.27	3.5990	3.5990	1.0961	25.95	0.01	1.500			
0.8037	51439.37	3.5960	3.5960	1.0681	25.94	0.00	1.500			
0.8069	51643.10	3.5930	3.5930	1.0434	25.94	0.00	1.500			
0.8100	51842.82	3.5900	3.5900	1.0087	25.94	0.00	1.500			
0.8131	52038.52	3.5870	3.5869	0.9501	25.94	0.00	1.500			
0.8160	52220.93	3.5840	3.5839	0.8846	25.94	-0.00	1.500			
0.8185	52386.00	3.5810	3.5811	0.7946	25.94	-0.00	1.500			
0.8208	52533.70	3.5780	3.5780	0.7033	25.94	-0.00	1.500			
0.8228	52657.02	3.5750	3.5750	0.6036	25.94	-0.00	1.500			
0.8244	52759.70	3.5720	3.5720	0.5060	25.94	-0.00	1.500			
0.8257	52842.26	3.5690	3.5690	0.4275	25.94	-0.00	1.500			
0.8268	52913.73	3.5660	3.5660	0.3672	25.94	-0.00	1.500			
0.8277	52975.11	3.5630	3.5629	0.3076	25.94	-0.00	1.500			
0.8286	53027.34	3.5600	3.5599	0.2691	25.93	-0.01	1.500			
0.8293	53072.33	3.5570	3.5570	0.2369	25.93	-0.01	1.500			
0.8299	53114.23	3.5540	3.5540	0.2145	25.93	-0.01	1.500			
0.8305	53152.15	3.5510	3.5511	0.1929	25.93	-0.01	1.500			
0.8310	53187.01	3.5480	3.5479	0.1763	25.93	-0.01	1.500			
0.8315	53218.69	3.5450	3.5450	0.1602	25.93	-0.01	1.500			
0.8320	53247.75	3.5420	3.5421	0.1448	25.93	-0.01	1.500			
0.8324	53274.27	3.5390	3.5389	0.1307	25.93	-0.01	1.500			
0.8328	53298.09	3.5360	3.5360	0.1167	25.93	-0.01	1.500			
0.8331	53318.96	3.5330	3.5330	0.1021	25.93	-0.01	1.500			
0.8334	53337.32	3.5300	3.5300	0.0882	25.93	-0.01	1.500			
0.8336	53352.88	3.5270	3.5272	0.0739	25.93	-0.01	1.500			
0.8338	53365.89	3.5240	3.5244	0.0595	25.93	-0.01	1.500			
0.8340	53375.92	3.5210	3.5217	0.0449	25.93	-0.01	1.500			
0.8341	53383.14	3.5180	3.5191	0.0304	25.93	-0.01	1.500			
