Ah_balance (normalized)	Ah_balance (mAh)	Voltage - fit (V)	Voltage -  interpolate (V)	dQ/dV (1/V)	Temperature (°C)	Temperature - diff (°C)	Current (C)	R_DC 0ms (mOhm)	R_DC 50ms (mOhm)	R_DC 50 ms PEC (mOhm)
0.2746	17576.79	3.9830	3.9830	0.8847	27.11	1.15	1.500			
0.2773	17744.15	3.9800	3.9800	0.8713	27.11	1.15	1.500			
0.2799	17912.28	3.9770	3.9771	0.8687	27.11	1.15	1.500			
0.2825	18077.32	3.9740	3.9740	0.8681	27.10	1.14	1.500			
0.2850	18243.04	3.9710	3.9710	0.8711	27.10	1.14	1.500			
0.2877	18409.93	3.9680	3.9681	0.8720	27.10	1.14	1.500			
0.2903	18577.13	3.9650	3.9649	0.8736	27.09	1.13	1.500			
0.2929	18747.39	3.9620	3.9620	0.8781	27.09	1.13	1.500			
0.2956	18915.86	3.9590	3.9591	0.8802	27.09	1.13	1.500			
0.2982	19085.37	3.9560	3.9560	0.8855	27.08	1.12	1.500			
0.3009	19255.27	3.9530	3.9529	0.8810	27.08	1.12	1.500			
0.3035	19423.54	3.9500	3.9500	0.8845	27.08	1.12	1.500			
0.3062	19593.89	3.9470	3.9470	0.8908	27.08	1.12	1.500			
0.3088	19765.47	3.9440	3.9441	0.8971	27.07	1.11	1.500			
0.3115	19938.51	3.9410	3.9412	0.9006	27.07	1.11	1.500			
0.3142	20109.88	3.9380	3.9380	0.9081	27.06	1.10	1.500			
0.3170	20285.99	3.9350	3.9350	0.9165	27.06	1.10	1.500			
0.3198	20464.38	3.9320	3.9320	0.9234	27.05	1.09	1.500			
0.3225	20642.49	3.9290	3.9289	0.9285	27.05	1.09	1.500			
0.3253	20821.23	3.9260	3.9261	0.9273	27.05	1.09	1.500			
0.3281	20998.16	3.9230	3.9230	0.9325	27.04	1.08	1.500			
0.3309	21176.72	3.9200	3.9200	0.9401	27.04	1.08	1.500			
0.3337	21356.15	3.9170	3.9171	0.9401	27.03	1.07	1.500			
0.3365	21538.71	3.9140	3.9140	0.9511	27.03	1.07	1.500			
0.3394	21722.49	3.9110	3.9111	0.9663	27.02	1.06	1.500			
0.3423	21909.51	3.9080	3.9081	0.9736	27.02	1.06	1.500			
0.3453	22098.66	3.9050	3.9049	0.9782	27.01	1.05	1.500			
0.3482	22285.94	3.9020	3.9020	0.9790	27.00	1.04	1.500			
0.3512	22473.93	3.8990	3.8991	0.9820	27.00	1.04	1.500			
0.3541	22663.23	3.8960	3.8960	0.9889	26.99	1.03	1.500			
0.3571	22852.59	3.8930	3.8930	0.9958	26.99	1.03	1.500			
0.3600	23043.04	3.8900	3.8900	1.0038	26.98	1.02	1.500			
0.3631	23237.70	3.8870	3.8870	1.0176	26.97	1.01	1.500			
0.3662	23434.70	3.8840	3.8840	1.0281	26.97	1.01	1.500			
0.3693	23633.81	3.8810	3.8810	1.0375	26.96	1.00	1.500			
0.3724	23833.40	3.8780	3.8781	1.0498	26.96	1.00	1.500			
0.3755	24034.64	3.8750	3.8750	1.0592	26.95	0.99	1.500			
0.3787	24238.99	3.8720	3.8720	1.0707	26.94	0.98	1.500			
0.3820	24446.02	3.8690	3.8690	1.0793	26.94	0.98	1.500			
0.3852	24654.13	3.8660	3.8659	1.0891	26.93	0.97	1.500			
0.3885	24865.51	3.8630	3.8631	1.1041	26.92	0.96	1.500			
0.3918	25077.96	3.8600	3.8600	1.1176	26.91	0.95	1.500			
0.3952	25292.07	3.8570	3.8570	1.1328	26.91	0.95	1.500			
0.3987	25513.69	3.8540	3.8541	1.1422	26.90	0.94	1.500			
0.4021	25732.86	3.8510	3.8510	1.1660	26.89	0.93	1.500			
0.4056	25958.27	3.8480	3.8481	1.1845	26.88	0.92	1.500			
0.4092	26187.00	3.8450	3.8449	1.2016	26.87	0.91	1.500			
0.4128	26417.91	3.8420	3.8421	1.2242	26.86	0.90	1.500			
0.4165	26655.22	3.8390	3.8390	1.2453	26.85	0.89	1.500			
0.4203	26896.81	3.8360	3.8360	1.2692	26.84	0.88	1.500			
0.4241	27145.46	3.8330	3.8330	1.2936	26.83	0.87	1.500			
0.4280	27393.00	3.8300	3.8301	1.3115	26.82	0.86	1.500			
0.4320	27647.57	3.8270	3.8270	1.3377	26.81	0.85	1.500			
0.4360	27905.58	3.8240	3.8240	1.3614	26.80	0.84	1.500			
0.4401	28168.51	3.8210	3.8210	1.3887	26.78	0.82	1.500			
0.4443	28437.64	3.8180	3.8180	1.4192	26.77	0.81	1.500			
0.4486	28711.90	3.8150	3.8150	1.4550	26.76	0.80	1.500			
0.4531	28995.23	3.8120	3.8120	1.4895	26.74	0.78	1.500			
0.4576	29285.38	3.8090	3.8089	1.5175	26.73	0.77	1.500			
0.4622	29579.53	3.8060	3.8061	1.5520	26.71	0.75	1.500			
0.4669	29882.32	3.8030	3.8030	1.5785	26.70	0.74	1.500			
0.4717	30187.49	3.8000	3.8000	1.6127	26.69	0.73	1.500			
0.4765	30497.24	3.7970	3.7970	1.6463	26.67	0.71	1.500			
0.4815	30813.16	3.7940	3.7941	1.6953	26.66	0.70	1.500			
0.4866	31144.45	3.7910	3.7909	1.7391	26.65	0.69	1.500			
0.4919	31483.97	3.7880	3.7880	1.7808	26.63	0.67	1.500			
0.4974	31831.83	3.7850	3.7851	1.8222	26.62	0.66	1.500			
0.5029	32187.33	3.7820	3.7819	1.8523	26.60	0.64	1.500			
0.5085	32542.91	3.7790	3.7790	1.8795	26.59	0.63	1.500			
0.5142	32906.37	3.7760	3.7760	1.9024	26.57	0.61	1.500			
0.5200	33277.73	3.7730	3.7730	1.9512	26.55	0.59	1.500			
0.5259	33656.02	3.7700	3.7700	1.9730	26.53	0.57	1.500			
0.5319	34039.77	3.7670	3.7670	1.9926	26.51	0.55	1.500	0.355	0.450	
0.5379	34424.68	3.7640	3.7640	1.9918	26.49	0.53	1.500			
0.5439	34811.80	3.7610	3.7610	1.9812	26.48	0.52	1.500			
0.5498	35187.38	3.7580	3.7580	1.9693	26.47	0.51	1.500			
0.5557	35564.96	3.7550	3.7550	1.9568	26.45	0.49	1.500			
0.5616	35940.52	3.7520	3.7520	1.9509	26.44	0.48	1.500			
0.5674	36314.03	3.7490	3.7490	1.9497	26.42	0.46	1.500			
0.5732	36685.47	3.7460	3.7460	1.9393	26.41	0.45	1.500			
0.5789	37051.52	3.7430	3.7431	1.9530	26.40	0.44	1.500			
0.5848	37429.54	3.7400	3.7398	1.9764	26.38	0.42	1.500			
0.5908	37811.90	3.7370	3.7371	2.0063	26.37	0.41	1.500			
0.5969	38199.54	3.7340	3.7340	2.0344	26.35	0.39	1.500			
0.6030	38592.56	3.7310	3.7310	2.0649	26.34	0.38	1.500			
0.6092	38990.58	3.7280	3.7280	2.0940	26.32	0.36	1.500			
0.6156	39400.29	3.7250	3.7250	2.1373	26.31	0.35	1.500			
0.6220	39811.01	3.7220	3.7220	2.1878	26.29	0.33	1.500			
0.6287	40234.22	3.7190	3.7190	2.2505	26.28	0.32	1.500			
0.6355	40668.93	3.7160	3.7159	2.3147	26.26	0.30	1.500			
0.6426	41124.21	3.7130	3.7130	2.3677	26.25	0.29	1.500			
0.6498	41586.59	3.7100	3.7100	2.4721	26.24	0.28	1.500			
0.6573	42066.33	3.7070	3.7070	2.5464	26.22	0.26	1.500			
0.6650	42562.61	3.7040	3.7041	2.6009	26.21	0.25	1.500			
0.6731	43078.11	3.7010	3.7010	2.6508	26.20	0.24	1.500			
0.6808	43571.92	3.6980	3.6980	2.5465	26.19	0.23	1.500			
0.6885	44064.91	3.6950	3.6951	2.4606	26.17	0.21	1.500			
0.6958	44534.05	3.6920	3.6920	2.3431	26.16	0.20	1.500			
0.7026	44968.63	3.6890	3.6890	2.1598	26.15	0.19	1.500			
0.7087	45354.79	3.6860	3.6859	1.9664	26.14	0.18	1.500			
0.7142	45710.99	3.6830	3.6832	1.8026	26.14	0.18	1.500			
0.7194	46040.44	3.6800	3.6799	1.6850	26.13	0.17	1.500			
0.7242	46349.84	3.6770	3.6770	1.5863	26.13	0.17	1.500			
0.7288	46643.16	3.6740	3.6740	1.5002	26.13	0.17	1.500			
0.7331	46919.38	3.6710	3.6711	1.4296	26.12	0.16	1.500			
0.7373	47185.58	3.6680	3.6680	1.3708	26.12	0.16	1.500			
0.7412	47437.43	3.6650	3.6650	1.3266	26.11	0.15	1.500			
0.7451	47686.42	3.6620	3.6619	1.2949	26.10	0.14	1.500			
0.7489	47930.05	3.6590	3.6590	1.2709	26.10	0.14	1.500			
0.7526	48168.04	3.6560	3.6561	1.2699	26.09	0.13	1.500			
0.7564	48409.79	3.6530	3.6530	1.2701	26.09	0.13	1.500			
0.7602	48653.37	3.6500	3.6498	1.2776	26.08	0.12	1.500			
0.7640	48897.68	3.6470	3.6471	1.2828	26.07	0.11	1.500			
0.7679	49145.41	3.6440	3.6441	1.2949	26.06	0.10	1.500			
0.7719	49399.14	3.6410	3.6409	1.3049	26.06	0.10	1.500			
0.7758	49649.05	3.6380	3.6380	1.3078	26.05	0.09	1.500			
0.7797	49901.00	3.6350	3.6351	1.3094	26.04	0.08	1.500			
0.7837	50155.65	3.6320	3.6319	1.3119	26.03	0.07	1.500			
0.7876	50407.55	3.6290	3.6290	1.3092	26.03	0.07	1.500			
0.7915	50658.22	3.6260	3.6261	1.3054	26.02	0.06	1.500			
0.7954	50907.39	3.6230	3.6230	1.3007	26.01	0.05	1.500			
0.7993	51157.47	3.6200	3.6200	1.3014	26.00	0.04	1.500			
0.8032	51404.64	3.6170	3.6170	1.2982	25.99	0.03	1.500			
0.8071	51655.83	3.6140	3.6140	1.2953	25.99	0.03	1.500			
0.8110	51906.29	3.6110	3.6110	1.2978	25.98	0.02	1.500			
0.8149	52155.41	3.6080	3.6080	1.2891	25.97	0.01	1.500			
0.8188	52404.97	3.6050	3.6050	1.2752	25.97	0.01	1.500			
0.8226	52648.71	3.6020	3.6021	1.2592	25.97	0.01	1.500			
0.8264	52888.91	3.5990	3.5990	1.2409	25.96	0.00	1.500			
0.8301	53125.05	3.5960	3.5960	1.2254	25.96	-0.00	1.500			
0.8337	53357.61	3.5930	3.5929	1.2159	25.95	-0.01	1.500			
0.8373	53587.10	3.5900	3.5901	1.2027	25.95	-0.01	1.500			
0.8409	53818.72	3.5870	3.5869	1.1943	25.95	-0.01	1.500			
0.8445	54048.50	3.5840	3.5840	1.1812	25.95	-0.01	1.500			
0.8481	54278.97	3.5810	3.5810	1.1517	25.96	-0.00	1.500			
0.8516	54503.61	3.5780	3.5779	1.1021	25.96	-0.00	1.500			
0.8550	54719.87	3.5750	3.5750	1.0356	25.96	-0.00	1.500			
0.8581	54917.83	3.5720	3.5721	0.9267	25.96	-0.00	1.500			
0.8608	55091.36	3.5690	3.5690	0.8147	25.96	0.00	1.500			
0.8630	55233.48	3.5660	3.5662	0.6908	25.96	0.00	1.500			
0.8648	55348.68	3.5630	3.5629	0.5647	25.96	0.00	1.500			
0.8662	55438.55	3.5600	3.5599	0.4669	25.96	0.00	1.500			
0.8674	55511.03	3.5570	3.5570	0.3812	25.96	0.00	1.500			
0.8683	55572.54	3.5540	3.5541	0.3213	25.96	0.00	1.500			
0.8692	55628.52	3.5510	3.5508	0.2758	25.96	0.00	1.500			
0.8699	55674.71	3.5480	3.5481	0.2419	25.96	0.00	1.500			
0.8706	55717.14	3.5450	3.5450	0.2183	25.96	0.00	1.500			
0.8712	55755.09	3.5420	3.5419	0.1974	25.96	0.00	1.500			
0.8717	55790.80	3.5390	3.5390	0.1799	25.96	0.00	1.500			
0.8722	55823.26	3.5360	3.5360	0.1643	25.96	0.00	1.500			
0.8727	55853.29	3.5330	3.5330	0.1510	25.96	0.00	1.500			
0.8731	55881.04	3.5300	3.5300	0.1376	25.97	0.01	1.500			
0.8735	55906.13	3.5270	3.5270	0.1241	25.97	0.01	1.500			
0.8739	55928.45	3.5240	3.5239	0.1102	25.97	0.01	1.500			
0.8742	55948.28	3.5210	3.5210	0.0969	25.97	0.01	1.500			
0.8745	55965.75	3.5180	3.5179	0.0838	25.97	0.01	1.500			
0.8747	55980.55	3.5150	3.5153	0.0703	25.97	0.01	1.500			
0.8749	55993.23	3.5120	3.5123	0.0553	25.97	0.01	1.500			
0.8750	56002.42	3.5090	3.5096	0.0404	25.97	0.01	1.500			
