Ah_balance (normalized)	Ah_balance (mAh)	Voltage - fit (V)	Voltage -  interpolate (V)	dQ/dV (1/V)	Temperature (°C)	Temperature - diff (°C)	Current (C)	R_DC 0ms (mOhm)	R_DC 50ms (mOhm)	R_DC 50 ms PEC (mOhm)
0.2788	17841.94	3.9920	3.9920	0.8236	27.32	1.35	1.500			
0.2813	18000.91	3.9890	3.9890	0.8275	27.32	1.35	1.500			
0.2837	18157.72	3.9860	3.9860	0.8282	27.31	1.34	1.500			
0.2862	18317.79	3.9830	3.9830	0.8352	27.31	1.34	1.500			
0.2887	18479.08	3.9800	3.9799	0.8398	27.30	1.33	1.500			
0.2913	18640.84	3.9770	3.9770	0.8468	27.30	1.33	1.500			
0.2938	18804.07	3.9740	3.9740	0.8542	27.29	1.32	1.500			
0.2964	18969.60	3.9710	3.9709	0.8566	27.29	1.32	1.500			
0.2990	19135.62	3.9680	3.9681	0.8580	27.28	1.31	1.500			
0.3016	19299.27	3.9650	3.9650	0.8613	27.28	1.31	1.500			
0.3041	19465.55	3.9620	3.9620	0.8630	27.27	1.30	1.500			
0.3067	19630.39	3.9590	3.9590	0.8659	27.27	1.30	1.500			
0.3093	19796.38	3.9560	3.9561	0.8670	27.26	1.29	1.500			
0.3119	19963.41	3.9530	3.9530	0.8721	27.26	1.29	1.500			
0.3146	20131.90	3.9500	3.9498	0.8784	27.25	1.28	1.500			
0.3172	20300.80	3.9470	3.9471	0.8829	27.24	1.27	1.500			
0.3198	20469.90	3.9440	3.9439	0.8873	27.24	1.27	1.500			
0.3225	20642.67	3.9410	3.9410	0.8938	27.23	1.26	1.500			
0.3252	20812.68	3.9380	3.9380	0.8924	27.22	1.25	1.500			
0.3279	20985.78	3.9350	3.9350	0.9035	27.22	1.25	1.500			
0.3306	21159.56	3.9320	3.9321	0.9083	27.21	1.24	1.500			
0.3334	21335.25	3.9290	3.9289	0.9124	27.20	1.23	1.500			
0.3361	21510.69	3.9260	3.9260	0.9193	27.20	1.23	1.500			
0.3389	21687.81	3.9230	3.9229	0.9258	27.19	1.22	1.500			
0.3417	21866.83	3.9200	3.9200	0.9321	27.18	1.21	1.500			
0.3445	22045.46	3.9170	3.9170	0.9379	27.17	1.20	1.500			
0.3473	22225.47	3.9140	3.9140	0.9427	27.17	1.20	1.500			
0.3501	22407.87	3.9110	3.9110	0.9507	27.16	1.19	1.500			
0.3530	22591.80	3.9080	3.9080	0.9573	27.15	1.18	1.500			
0.3558	22774.37	3.9050	3.9050	0.9612	27.14	1.17	1.500			
0.3587	22959.66	3.9020	3.9021	0.9714	27.13	1.16	1.500			
0.3617	23146.71	3.8990	3.8990	0.9792	27.12	1.15	1.500			
0.3646	23335.63	3.8960	3.8959	0.9846	27.11	1.14	1.500			
0.3676	23525.10	3.8930	3.8931	0.9948	27.10	1.13	1.500			
0.3706	23717.08	3.8900	3.8900	1.0025	27.09	1.12	1.500			
0.3736	23911.76	3.8870	3.8870	1.0091	27.08	1.11	1.500			
0.3766	24105.29	3.8840	3.8840	1.0173	27.08	1.11	1.500			
0.3797	24297.90	3.8810	3.8811	1.0260	27.07	1.10	1.500			
0.3828	24496.07	3.8780	3.8780	1.0415	27.06	1.09	1.500			
0.3859	24697.83	3.8750	3.8750	1.0541	27.05	1.08	1.500			
0.3891	24900.34	3.8720	3.8719	1.0695	27.04	1.07	1.500			
0.3923	25109.20	3.8690	3.8692	1.0860	27.03	1.06	1.500			
0.3956	25320.17	3.8660	3.8660	1.0982	27.02	1.05	1.500			
0.3989	25531.33	3.8630	3.8630	1.1108	27.01	1.04	1.500			
0.4023	25746.33	3.8600	3.8601	1.1157	27.00	1.03	1.500			
0.4057	25962.24	3.8570	3.8569	1.1290	26.99	1.02	1.500			
0.4091	26180.14	3.8540	3.8540	1.1406	26.98	1.01	1.500			
0.4125	26396.94	3.8510	3.8511	1.1532	26.97	1.00	1.500			
0.4159	26619.91	3.8480	3.8480	1.1730	26.96	0.99	1.500			
0.4195	26846.00	3.8450	3.8450	1.1926	26.95	0.98	1.500			
0.4231	27076.75	3.8420	3.8420	1.2119	26.94	0.97	1.500			
0.4268	27312.94	3.8390	3.8390	1.2342	26.93	0.96	1.500			
0.4305	27551.81	3.8360	3.8360	1.2573	26.92	0.95	1.500			
0.4343	27795.28	3.8330	3.8330	1.2794	26.90	0.93	1.500			
0.4382	28042.55	3.8300	3.8300	1.2963	26.89	0.92	1.500			
0.4421	28294.94	3.8270	3.8270	1.3158	26.88	0.91	1.500			
0.4461	28549.75	3.8240	3.8241	1.3355	26.87	0.90	1.500			
0.4501	28809.36	3.8210	3.8209	1.3536	26.86	0.89	1.500			
0.4542	29069.61	3.8180	3.8180	1.3705	26.84	0.87	1.500			
0.4583	29332.14	3.8150	3.8151	1.3915	26.83	0.86	1.500			
0.4625	29602.09	3.8120	3.8119	1.4183	26.82	0.85	1.500			
0.4668	29875.94	3.8090	3.8090	1.4456	26.81	0.84	1.500			
0.4712	30156.81	3.8060	3.8062	1.4770	26.79	0.82	1.500			
0.4757	30442.78	3.8030	3.8030	1.5023	26.78	0.81	1.500			
0.4803	30736.49	3.8000	3.8000	1.5307	26.76	0.79	1.500			
0.4849	31031.08	3.7970	3.7970	1.5511	26.74	0.77	1.500			
0.4896	31334.04	3.7940	3.7939	1.5749	26.72	0.75	1.500			
0.4943	31633.77	3.7910	3.7911	1.6023	26.70	0.73	1.500			
0.4991	31944.94	3.7880	3.7880	1.6308	26.69	0.72	1.500			
0.5041	32262.11	3.7850	3.7851	1.6565	26.67	0.70	1.500	0.352	0.484	
0.5091	32582.84	3.7820	3.7821	1.6738	26.66	0.69	1.500			
0.5142	32910.71	3.7790	3.7790	1.6905	26.64	0.67	1.500			
0.5193	33233.76	3.7760	3.7760	1.6848	26.62	0.65	1.500			
0.5244	33558.95	3.7730	3.7730	1.6780	26.61	0.64	1.500			
0.5294	33884.68	3.7700	3.7699	1.6905	26.59	0.62	1.500			
0.5345	34207.43	3.7670	3.7670	1.6973	26.58	0.61	1.500			
0.5396	34533.24	3.7640	3.7639	1.7026	26.56	0.59	1.500			
0.5447	34861.36	3.7610	3.7610	1.7111	26.54	0.57	1.500			
0.5499	35191.86	3.7580	3.7580	1.7188	26.53	0.56	1.500			
0.5550	35517.02	3.7550	3.7550	1.7163	26.51	0.54	1.500			
0.5601	35846.03	3.7520	3.7521	1.7360	26.49	0.52	1.500			
0.5654	36183.03	3.7490	3.7489	1.7744	26.48	0.51	1.500			
0.5707	36526.48	3.7460	3.7460	1.8112	26.46	0.49	1.500			
0.5762	36879.62	3.7430	3.7430	1.8275	26.44	0.47	1.500			
0.5818	37235.69	3.7400	3.7401	1.8723	26.42	0.45	1.500			
0.5874	37596.61	3.7370	3.7369	1.9155	26.41	0.44	1.500			
0.5933	37968.16	3.7340	3.7340	1.9666	26.39	0.42	1.500			
0.5993	38352.03	3.7310	3.7310	2.0000	26.37	0.40	1.500			
0.6053	38741.21	3.7280	3.7281	2.0557	26.35	0.38	1.500			
0.6116	39142.12	3.7250	3.7250	2.1214	26.33	0.36	1.500			
0.6180	39551.63	3.7220	3.7221	2.1915	26.31	0.34	1.500			
0.6247	39982.49	3.7190	3.7190	2.2525	26.30	0.33	1.500			
0.6316	40420.22	3.7160	3.7160	2.2930	26.28	0.31	1.500			
0.6386	40869.99	3.7130	3.7130	2.3275	26.26	0.29	1.500			
0.6457	41325.79	3.7100	3.7100	2.2995	26.25	0.28	1.500			
0.6526	41767.05	3.7070	3.7071	2.2235	26.23	0.26	1.500			
0.6592	42187.68	3.7040	3.7040	2.0965	26.21	0.24	1.500			
0.6652	42573.78	3.7010	3.7010	1.9578	26.20	0.23	1.500			
0.6709	42934.71	3.6980	3.6980	1.8210	26.18	0.21	1.500			
0.6760	43266.29	3.6950	3.6950	1.7016	26.17	0.20	1.500			
0.6809	43578.22	3.6920	3.6921	1.5986	26.16	0.19	1.500			
0.6855	43874.31	3.6890	3.6890	1.5198	26.15	0.18	1.500			
0.6900	44157.56	3.6860	3.6859	1.4568	26.14	0.17	1.500			
0.6942	44429.42	3.6830	3.6830	1.4043	26.13	0.16	1.500			
0.6983	44693.08	3.6800	3.6800	1.3589	26.12	0.15	1.500			
0.7023	44947.68	3.6770	3.6770	1.3247	26.11	0.14	1.500			
0.7062	45195.71	3.6740	3.6740	1.2967	26.10	0.13	1.500			
0.7100	45439.33	3.6710	3.6710	1.2735	26.09	0.12	1.500			
0.7138	45681.99	3.6680	3.6680	1.2630	26.08	0.11	1.500			
0.7175	45920.94	3.6650	3.6650	1.2583	26.07	0.10	1.500			
0.7213	46162.16	3.6620	3.6620	1.2607	26.06	0.09	1.500			
0.7251	46404.92	3.6590	3.6589	1.2581	26.05	0.08	1.500			
0.7289	46646.85	3.6560	3.6560	1.2519	26.05	0.08	1.500			
0.7326	46887.74	3.6530	3.6530	1.2463	26.04	0.07	1.500			
0.7364	47127.13	3.6500	3.6500	1.2444	26.03	0.06	1.500			
0.7401	47365.00	3.6470	3.6470	1.2344	26.02	0.05	1.500			
0.7438	47600.86	3.6440	3.6440	1.2252	26.01	0.04	1.500			
0.7474	47836.42	3.6410	3.6410	1.2138	26.01	0.04	1.500			
0.7511	48070.79	3.6380	3.6380	1.2018	26.00	0.03	1.500			
0.7547	48300.14	3.6350	3.6351	1.1930	26.00	0.03	1.500			
0.7582	48526.91	3.6320	3.6320	1.1805	25.99	0.02	1.500			
0.7617	48751.69	3.6290	3.6290	1.1667	25.98	0.01	1.500			
0.7652	48974.64	3.6260	3.6261	1.1563	25.98	0.01	1.500			
0.7687	49195.53	3.6230	3.6230	1.1459	25.97	0.00	1.500			
0.7721	49416.93	3.6200	3.6200	1.1360	25.97	-0.00	1.500			
0.7755	49633.81	3.6170	3.6170	1.1136	25.96	-0.01	1.500			
0.7788	49845.79	3.6140	3.6140	1.0913	25.96	-0.01	1.500			
0.7821	50054.16	3.6110	3.6111	1.0748	25.95	-0.02	1.500			
0.7853	50259.82	3.6080	3.6079	1.0507	25.95	-0.02	1.500			
0.7884	50459.70	3.6050	3.6049	1.0229	25.94	-0.03	1.500			
0.7915	50654.27	3.6020	3.6020	0.9916	25.94	-0.03	1.500			
0.7944	50843.46	3.5990	3.5990	0.9619	25.95	-0.02	1.500			
0.7973	51027.54	3.5960	3.5960	0.9195	25.95	-0.02	1.500			
0.8000	51202.32	3.5930	3.5930	0.8690	25.95	-0.02	1.500			
0.8026	51368.30	3.5900	3.5899	0.8057	25.96	-0.01	1.500			
0.8050	51519.53	3.5870	3.5871	0.7331	25.96	-0.01	1.500			
0.8071	51654.87	3.5840	3.5840	0.6540	25.96	-0.01	1.500			
0.8089	51771.36	3.5810	3.5810	0.5670	25.96	-0.01	1.500			
0.8104	51868.56	3.5780	3.5780	0.4833	25.97	-0.00	1.500			
0.8117	51951.69	3.5750	3.5750	0.4116	25.97	-0.00	1.500			
0.8128	52019.73	3.5720	3.5721	0.3494	25.97	-0.00	1.500			
0.8137	52078.95	3.5690	3.5690	0.3029	25.97	-0.00	1.500			
0.8145	52130.82	3.5660	3.5659	0.2593	25.97	0.00	1.500			
0.8152	52175.50	3.5630	3.5629	0.2298	25.97	0.00	1.500			
0.8159	52214.63	3.5600	3.5600	0.2054	25.97	0.00	1.500			
0.8164	52251.54	3.5570	3.5570	0.1863	25.97	0.00	1.500			
0.8170	52285.08	3.5540	3.5540	0.1677	25.97	0.00	1.500			
0.8174	52315.11	3.5510	3.5509	0.1520	25.97	0.00	1.500			
0.8179	52342.62	3.5480	3.5481	0.1364	25.97	0.00	1.500			
0.8182	52367.25	3.5450	3.5449	0.1214	25.97	0.00	1.500			
0.8186	52389.16	3.5420	3.5419	0.1068	25.97	0.00	1.500			
0.8189	52408.24	3.5390	3.5391	0.0921	25.98	0.01	1.500			
0.8191	52424.18	3.5360	3.5362	0.0773	25.98	0.01	1.500			
0.8193	52437.68	3.5330	3.5333	0.0633	25.98	0.01	1.500			
0.8195	52449.14	3.5300	3.5303	0.0472	25.98	0.01	1.500			
0.8196	52456.68	3.5270	3.5279	0.0313	25.98	0.01	1.500			
