Ah_balance (normalized)	Ah_balance (mAh)	Voltage - fit (V)	Voltage -  interpolate (V)	dQ/dV (1/V)	Temperature (°C)	Temperature - diff (°C)	Current (C)	R_DC 0ms (mOhm)	R_DC 50ms (mOhm)	R_DC 50 ms PEC (mOhm)
0.2883	18449.21	3.9860	3.9860	0.8050	27.06	1.10	1.500			
0.2908	18610.61	3.9830	3.9829	0.8355	27.06	1.10	1.500			
0.2933	18772.55	3.9800	3.9800	0.8402	27.05	1.09	1.500			
0.2958	18933.65	3.9770	3.9771	0.8470	27.05	1.09	1.500			
0.2984	19098.75	3.9740	3.9740	0.8549	27.04	1.08	1.500			
0.3010	19261.93	3.9710	3.9709	0.8530	27.04	1.08	1.500			
0.3035	19424.98	3.9680	3.9680	0.8587	27.03	1.07	1.500			
0.3061	19591.42	3.9650	3.9650	0.8575	27.03	1.07	1.500			
0.3087	19757.20	3.9620	3.9620	0.8645	27.02	1.06	1.500			
0.3113	19922.69	3.9590	3.9590	0.8673	27.02	1.06	1.500			
0.3139	20088.54	3.9560	3.9559	0.8671	27.01	1.05	1.500			
0.3165	20255.75	3.9530	3.9529	0.8709	27.00	1.04	1.500			
0.3191	20423.95	3.9500	3.9500	0.8737	27.00	1.04	1.500			
0.3217	20590.45	3.9470	3.9471	0.8784	26.99	1.03	1.500			
0.3244	20760.89	3.9440	3.9440	0.8871	26.99	1.03	1.500			
0.3270	20929.64	3.9410	3.9410	0.8876	26.98	1.02	1.500			
0.3297	21101.93	3.9380	3.9380	0.8925	26.97	1.01	1.500			
0.3324	21274.67	3.9350	3.9350	0.9004	26.97	1.01	1.500			
0.3351	21447.63	3.9320	3.9320	0.9048	26.96	1.00	1.500			
0.3378	21621.67	3.9290	3.9290	0.9096	26.95	0.99	1.500			
0.3406	21795.91	3.9260	3.9260	0.9138	26.95	0.99	1.500			
0.3433	21971.75	3.9230	3.9230	0.9207	26.94	0.98	1.500			
0.3461	22149.48	3.9200	3.9200	0.9272	26.94	0.98	1.500			
0.3489	22328.31	3.9170	3.9170	0.9338	26.93	0.97	1.500			
0.3517	22508.29	3.9140	3.9140	0.9358	26.93	0.97	1.500			
0.3545	22687.80	3.9110	3.9110	0.9430	26.92	0.96	1.500			
0.3573	22868.79	3.9080	3.9081	0.9505	26.91	0.95	1.500			
0.3602	23052.33	3.9050	3.9049	0.9565	26.91	0.95	1.500			
0.3631	23236.20	3.9020	3.9020	0.9657	26.90	0.94	1.500			
0.3660	23423.38	3.8990	3.8990	0.9715	26.90	0.94	1.500			
0.3689	23610.95	3.8960	3.8960	0.9783	26.89	0.93	1.500			
0.3719	23799.44	3.8930	3.8930	0.9861	26.88	0.92	1.500			
0.3748	23987.17	3.8900	3.8901	0.9930	26.87	0.91	1.500			
0.3778	24180.41	3.8870	3.8869	0.9988	26.87	0.91	1.500			
0.3808	24372.07	3.8840	3.8840	1.0128	26.86	0.90	1.500			
0.3838	24566.29	3.8810	3.8810	1.0241	26.85	0.89	1.500			
0.3869	24764.60	3.8780	3.8781	1.0421	26.85	0.89	1.500			
0.3901	24966.14	3.8750	3.8750	1.0562	26.84	0.88	1.500			
0.3933	25170.82	3.8720	3.8720	1.0661	26.83	0.87	1.500			
0.3965	25377.66	3.8690	3.8690	1.0746	26.82	0.86	1.500			
0.3998	25585.31	3.8660	3.8660	1.0864	26.81	0.85	1.500			
0.4030	25794.28	3.8630	3.8630	1.0876	26.81	0.85	1.500			
0.4063	26002.41	3.8600	3.8600	1.1089	26.80	0.84	1.500			
0.4096	26216.38	3.8570	3.8570	1.1261	26.79	0.83	1.500			
0.4130	26434.29	3.8540	3.8539	1.1448	26.78	0.82	1.500			
0.4165	26656.83	3.8510	3.8511	1.1635	26.77	0.81	1.500			
0.4200	26883.03	3.8480	3.8481	1.1847	26.77	0.81	1.500			
0.4236	27111.87	3.8450	3.8450	1.1992	26.76	0.80	1.500			
0.4272	27341.94	3.8420	3.8420	1.2123	26.75	0.79	1.500			
0.4308	27574.13	3.8390	3.8391	1.2277	26.74	0.78	1.500			
0.4346	27812.73	3.8360	3.8360	1.2481	26.73	0.77	1.500			
0.4383	28053.19	3.8330	3.8328	1.2753	26.72	0.76	1.500			
0.4422	28300.43	3.8300	3.8301	1.2974	26.71	0.75	1.500			
0.4461	28551.67	3.8270	3.8270	1.3187	26.70	0.74	1.500			
0.4501	28808.08	3.8240	3.8240	1.3469	26.69	0.73	1.500			
0.4542	29070.57	3.8210	3.8210	1.3848	26.67	0.71	1.500			
0.4584	29334.57	3.8180	3.8180	1.4064	26.66	0.70	1.500			
0.4626	29607.57	3.8150	3.8150	1.4392	26.65	0.69	1.500			
0.4670	29885.61	3.8120	3.8121	1.4712	26.63	0.67	1.500			
0.4715	30173.20	3.8090	3.8090	1.5094	26.62	0.66	1.500			
0.4760	30466.88	3.8060	3.8059	1.5351	26.60	0.64	1.500			
0.4807	30763.10	3.8030	3.8031	1.5617	26.59	0.63	1.500			
0.4854	31066.01	3.8000	3.8001	1.5907	26.57	0.61	1.500			
0.4902	31375.09	3.7970	3.7970	1.6105	26.56	0.60	1.500			
0.4951	31684.74	3.7940	3.7940	1.6333	26.54	0.58	1.500			
0.5001	32003.58	3.7910	3.7910	1.6479	26.53	0.57	1.500			
0.5050	32320.76	3.7880	3.7880	1.6732	26.51	0.55	1.500			
0.5100	32641.01	3.7850	3.7851	1.7059	26.49	0.53	1.500			
0.5152	32971.54	3.7820	3.7819	1.7429	26.48	0.52	1.500			
0.5205	33309.78	3.7790	3.7783	1.7715	26.47	0.51	1.500	0.351	0.474	
0.5258	33652.65	3.7760	3.7761	1.7869	26.45	0.49	1.500			
0.5313	34001.65	3.7730	3.7730	1.7882	26.44	0.48	1.500			
0.5366	34343.61	3.7700	3.7700	1.7859	26.43	0.47	1.500			
0.5421	34694.15	3.7670	3.7670	1.7856	26.41	0.45	1.500			
0.5474	35033.93	3.7640	3.7640	1.7660	26.39	0.43	1.500			
0.5526	35369.26	3.7610	3.7610	1.7576	26.38	0.42	1.500			
0.5578	35702.34	3.7580	3.7580	1.7500	26.36	0.40	1.500			
0.5631	36036.86	3.7550	3.7550	1.7629	26.34	0.38	1.500			
0.5684	36375.78	3.7520	3.7520	1.7698	26.33	0.37	1.500			
0.5738	36721.34	3.7490	3.7490	1.7946	26.32	0.36	1.500			
0.5791	37063.68	3.7460	3.7460	1.8181	26.30	0.34	1.500			
0.5846	37415.69	3.7430	3.7430	1.8371	26.29	0.33	1.500			
0.5902	37771.39	3.7400	3.7400	1.8619	26.28	0.32	1.500			
0.5958	38130.60	3.7370	3.7371	1.9064	26.27	0.31	1.500			
0.6016	38499.57	3.7340	3.7340	1.9185	26.26	0.30	1.500			
0.6073	38866.88	3.7310	3.7310	1.9630	26.24	0.28	1.500			
0.6132	39246.60	3.7280	3.7279	2.0446	26.23	0.27	1.500			
0.6195	39647.35	3.7250	3.7250	2.1187	26.22	0.26	1.500			
0.6259	40059.51	3.7220	3.7221	2.1769	26.21	0.25	1.500			
0.6327	40492.74	3.7190	3.7190	2.2428	26.19	0.23	1.500			
0.6394	40923.65	3.7160	3.7159	2.3041	26.18	0.22	1.500			
0.6464	41370.44	3.7130	3.7131	2.3890	26.17	0.21	1.500			
0.6538	41842.09	3.7100	3.7100	2.4085	26.15	0.19	1.500			
0.6611	42308.54	3.7070	3.7070	2.4132	26.14	0.18	1.500			
0.6684	42775.32	3.7040	3.7040	2.3619	26.12	0.16	1.500			
0.6754	43225.91	3.7010	3.7010	2.2697	26.11	0.15	1.500			
0.6821	43655.75	3.6980	3.6980	2.1542	26.10	0.14	1.500			
0.6884	44056.46	3.6950	3.6949	1.9976	26.09	0.13	1.500			
0.6941	44422.05	3.6920	3.6921	1.8518	26.08	0.12	1.500			
0.6994	44762.80	3.6890	3.6890	1.7200	26.07	0.11	1.500			
0.7043	45075.59	3.6860	3.6859	1.6069	26.07	0.11	1.500			
0.7088	45366.19	3.6830	3.6831	1.5101	26.06	0.10	1.500			
0.7132	45646.52	3.6800	3.6800	1.4382	26.05	0.09	1.500			
0.7174	45911.52	3.6770	3.6770	1.3810	26.05	0.09	1.500			
0.7214	46171.12	3.6740	3.6740	1.3374	26.04	0.08	1.500			
0.7253	46421.83	3.6710	3.6710	1.2982	26.04	0.08	1.500			
0.7291	46663.56	3.6680	3.6681	1.2793	26.03	0.07	1.500			
0.7329	46903.97	3.6650	3.6650	1.2618	26.03	0.07	1.500			
0.7366	47143.77	3.6620	3.6620	1.2581	26.02	0.06	1.500			
0.7404	47382.70	3.6590	3.6589	1.2582	26.02	0.06	1.500			
0.7441	47623.84	3.6560	3.6561	1.2625	26.01	0.05	1.500			
0.7479	47868.28	3.6530	3.6530	1.2705	26.01	0.05	1.500			
0.7518	48113.65	3.6500	3.6500	1.2739	26.00	0.04	1.500			
0.7556	48359.12	3.6470	3.6470	1.2704	25.99	0.03	1.500			
0.7594	48604.27	3.6440	3.6441	1.2706	25.99	0.03	1.500			
0.7633	48848.77	3.6410	3.6409	1.2612	25.98	0.02	1.500			
0.7670	49090.11	3.6380	3.6381	1.2523	25.98	0.02	1.500			
0.7708	49329.66	3.6350	3.6350	1.2445	25.97	0.01	1.500			
0.7745	49567.11	3.6320	3.6320	1.2355	25.96	0.00	1.500			
0.7782	49802.84	3.6290	3.6290	1.2273	25.96	-0.00	1.500			
0.7818	50036.34	3.6260	3.6260	1.2215	25.95	-0.01	1.500			
0.7855	50270.84	3.6230	3.6230	1.2196	25.95	-0.01	1.500			
0.7892	50506.95	3.6200	3.6198	1.2078	25.94	-0.02	1.500			
0.7928	50739.27	3.6170	3.6171	1.1952	25.94	-0.02	1.500			
0.7964	50968.66	3.6140	3.6140	1.1769	25.94	-0.02	1.500			
0.7999	51193.33	3.6110	3.6110	1.1615	25.94	-0.02	1.500			
0.8033	51412.49	3.6080	3.6080	1.1388	25.93	-0.03	1.500			
0.8067	51629.06	3.6050	3.6050	1.1230	25.93	-0.03	1.500			
0.8101	51843.63	3.6020	3.6020	1.1038	25.93	-0.03	1.500			
0.8134	52055.86	3.5990	3.5990	1.0862	25.93	-0.03	1.500			
0.8166	52264.12	3.5960	3.5960	1.0650	25.93	-0.03	1.500			
0.8198	52467.19	3.5930	3.5930	1.0377	25.94	-0.02	1.500			
0.8229	52664.17	3.5900	3.5900	1.0012	25.94	-0.02	1.500			
0.8259	52855.35	3.5870	3.5870	0.9601	25.94	-0.02	1.500			
0.8288	53041.40	3.5840	3.5839	0.8967	25.95	-0.01	1.500			
0.8314	53210.95	3.5810	3.5810	0.8198	25.95	-0.01	1.500			
0.8338	53365.98	3.5780	3.5781	0.7310	25.95	-0.01	1.500			
0.8359	53496.73	3.5750	3.5750	0.6321	25.96	-0.00	1.500			
0.8376	53606.90	3.5720	3.5720	0.5370	25.96	-0.00	1.500			
0.8390	53696.86	3.5690	3.5690	0.4535	25.96	-0.00	1.500			
0.8401	53769.33	3.5660	3.5659	0.3797	25.96	0.00	1.500			
0.8412	53834.86	3.5630	3.5630	0.3199	25.96	0.00	1.500			
0.8420	53886.56	3.5600	3.5599	0.2746	25.96	0.00	1.500			
0.8427	53932.30	3.5570	3.5569	0.2414	25.96	0.00	1.500			
0.8433	53974.02	3.5540	3.5540	0.2156	25.96	0.00	1.500			
0.8439	54011.59	3.5510	3.5509	0.1910	25.97	0.01	1.500			
0.8445	54045.30	3.5480	3.5480	0.1728	25.97	0.01	1.500			
0.8449	54076.17	3.5450	3.5451	0.1564	25.97	0.01	1.500			
0.8454	54104.12	3.5420	3.5420	0.1396	25.97	0.01	1.500			
0.8458	54129.54	3.5390	3.5389	0.1248	25.97	0.01	1.500			
0.8461	54152.10	3.5360	3.5360	0.1100	25.97	0.01	1.500			
0.8464	54171.60	3.5330	3.5330	0.0949	25.97	0.01	1.500			
0.8467	54188.73	3.5300	3.5301	0.0808	25.97	0.01	1.500			
0.8469	54202.80	3.5270	3.5273	0.0658	25.97	0.01	1.500			
0.8471	54214.29	3.5240	3.5245	0.0505	25.97	0.01	1.500			
0.8472	54222.51	3.5210	3.5219	0.0350	25.97	0.01	1.500			
0.8473	54227.75	3.5180	3.5208	0.0195	25.97	0.01	1.500			
