Ah_balance (normalized)	Ah_balance (mAh)	Voltage - fit (V)	Voltage -  interpolate (V)	dQ/dV (1/V)	Temperature (°C)	Temperature - diff (°C)	Current (C)	R_DC 0ms (mOhm)	R_DC 50ms (mOhm)	R_DC 50 ms PEC (mOhm)
0.2827	18093.37	3.9690	3.9690	0.8734	27.29	1.31	1.500			
0.2854	18264.18	3.9660	3.9660	0.8977	27.29	1.31	1.500			
0.2881	18440.48	3.9630	3.9630	0.9113	27.28	1.30	1.500			
0.2909	18617.07	3.9600	3.9600	0.9161	27.28	1.30	1.500			
0.2937	18795.45	3.9570	3.9571	0.9214	27.27	1.29	1.500			
0.2964	18971.54	3.9540	3.9540	0.9263	27.27	1.29	1.500			
0.2992	19148.79	3.9510	3.9510	0.9289	27.26	1.28	1.500			
0.3020	19327.27	3.9480	3.9479	0.9297	27.25	1.27	1.500			
0.3048	19505.75	3.9450	3.9450	0.9349	27.25	1.27	1.500			
0.3076	19686.81	3.9420	3.9421	0.9378	27.24	1.26	1.500			
0.3104	19867.26	3.9390	3.9390	0.9439	27.24	1.26	1.500			
0.3132	20047.18	3.9360	3.9360	0.9498	27.23	1.25	1.500			
0.3161	20229.58	3.9330	3.9329	0.9558	27.23	1.25	1.500			
0.3190	20414.89	3.9300	3.9300	0.9541	27.22	1.24	1.500			
0.3218	20598.40	3.9270	3.9270	0.9620	27.22	1.24	1.500			
0.3247	20783.12	3.9240	3.9241	0.9688	27.21	1.23	1.500			
0.3276	20969.18	3.9210	3.9210	0.9793	27.20	1.22	1.500			
0.3306	21156.46	3.9180	3.9181	0.9834	27.20	1.22	1.500			
0.3335	21346.23	3.9150	3.9149	0.9944	27.19	1.21	1.500			
0.3365	21538.84	3.9120	3.9121	1.0023	27.18	1.20	1.500			
0.3396	21733.50	3.9090	3.9090	1.0091	27.17	1.19	1.500			
0.3426	21927.20	3.9060	3.9060	1.0166	27.16	1.18	1.500			
0.3457	22122.08	3.9030	3.9029	1.0281	27.15	1.17	1.500			
0.3487	22317.14	3.9000	3.9000	1.0400	27.15	1.17	1.500			
0.3519	22520.55	3.8970	3.8970	1.0499	27.14	1.16	1.500			
0.3551	22723.77	3.8940	3.8939	1.0623	27.13	1.15	1.500			
0.3583	22929.60	3.8910	3.8911	1.0740	27.12	1.14	1.500			
0.3615	23135.95	3.8880	3.8880	1.0871	27.12	1.14	1.500			
0.3648	23345.69	3.8850	3.8850	1.0913	27.11	1.13	1.500			
0.3681	23556.23	3.8820	3.8820	1.0988	27.10	1.12	1.500			
0.3714	23766.63	3.8790	3.8791	1.1158	27.10	1.12	1.500			
0.3747	23983.51	3.8760	3.8759	1.1311	27.09	1.11	1.500			
0.3781	24200.63	3.8730	3.8729	1.1438	27.08	1.10	1.500			
0.3816	24421.94	3.8700	3.8701	1.1561	27.07	1.09	1.500			
0.3851	24643.62	3.8670	3.8670	1.1748	27.06	1.08	1.500			
0.3886	24872.86	3.8640	3.8640	1.1960	27.05	1.07	1.500			
0.3923	25104.89	3.8610	3.8609	1.1994	27.04	1.06	1.500			
0.3959	25335.57	3.8580	3.8580	1.2205	27.03	1.05	1.500			
0.3995	25570.84	3.8550	3.8551	1.2390	27.02	1.04	1.500			
0.4032	25807.75	3.8520	3.8519	1.2641	27.01	1.03	1.500			
0.4071	26052.67	3.8490	3.8490	1.2919	27.00	1.02	1.500			
0.4110	26301.24	3.8460	3.8460	1.3119	26.99	1.01	1.500			
0.4150	26559.31	3.8430	3.8430	1.3346	26.98	1.00	1.500			
0.4191	26820.45	3.8400	3.8401	1.3623	26.97	0.99	1.500			
0.4232	27084.36	3.8370	3.8370	1.3893	26.96	0.98	1.500			
0.4274	27351.96	3.8340	3.8339	1.4100	26.95	0.97	1.500			
0.4316	27622.57	3.8310	3.8311	1.4400	26.94	0.96	1.500			
0.4360	27900.80	3.8280	3.8280	1.4707	26.93	0.95	1.500			
0.4404	28185.06	3.8250	3.8250	1.5056	26.92	0.94	1.500			
0.4450	28477.66	3.8220	3.8220	1.5455	26.91	0.93	1.500			
0.4497	28777.66	3.8190	3.8191	1.5817	26.90	0.92	1.500			
0.4544	29084.67	3.8160	3.8157	1.6242	26.89	0.91	1.500			
0.4594	29400.86	3.8130	3.8131	1.6673	26.88	0.90	1.500			
0.4644	29722.56	3.8100	3.8100	1.7002	26.87	0.89	1.500			
0.4696	30053.19	3.8070	3.8070	1.7534	26.85	0.87	1.500			
0.4748	30388.89	3.8040	3.8041	1.7927	26.84	0.86	1.500			
0.4803	30739.71	3.8010	3.8010	1.8585	26.83	0.85	1.500			
0.4860	31102.31	3.7980	3.7981	1.9253	26.82	0.84	1.500			
0.4919	31479.66	3.7950	3.7949	1.9812	26.81	0.83	1.500			
0.4980	31871.37	3.7920	3.7920	2.0448	26.79	0.81	1.500			
0.5041	32264.15	3.7890	3.7890	2.0907	26.78	0.80	1.500			
0.5105	32675.07	3.7860	3.7859	2.1405	26.77	0.79	1.500			
0.5170	33086.47	3.7830	3.7830	2.2195	26.75	0.77	1.500			
0.5237	33517.46	3.7800	3.7800	2.2970	26.73	0.75	1.500			
0.5308	33968.17	3.7770	3.7770	2.3887	26.72	0.74	1.500			
0.5381	34438.15	3.7740	3.7741	2.4371	26.70	0.72	1.500			
0.5455	34913.05	3.7710	3.7710	2.4791	26.69	0.71	1.500			
0.5528	35378.72	3.7680	3.7680	2.5243	26.67	0.69	1.500			
0.5606	35877.24	3.7650	3.7650	2.5816	26.66	0.68	1.500			
0.5684	36380.30	3.7620	3.7621	2.6407	26.64	0.66	1.500	0.362	0.449	
0.5766	36901.30	3.7590	3.7591	2.6704	26.62	0.64	1.500			
0.5848	37425.75	3.7560	3.7561	2.6444	26.60	0.62	1.500			
0.5924	37916.45	3.7530	3.7530	2.5747	26.58	0.60	1.500			
0.6002	38412.11	3.7500	3.7501	2.5509	26.56	0.58	1.500			
0.6077	38892.12	3.7470	3.7470	2.4800	26.54	0.56	1.500			
0.6150	39357.64	3.7440	3.7441	2.4204	26.53	0.55	1.500			
0.6221	39815.98	3.7410	3.7411	2.3958	26.51	0.53	1.500			
0.6292	40268.19	3.7380	3.7377	2.3506	26.50	0.52	1.500			
0.6363	40720.30	3.7350	3.7351	2.3309	26.48	0.50	1.500			
0.6433	41169.16	3.7320	3.7321	2.3582	26.47	0.49	1.500			
0.6503	41616.35	3.7290	3.7290	2.3538	26.45	0.47	1.500			
0.6573	42067.58	3.7260	3.7261	2.3922	26.44	0.46	1.500			
0.6646	42533.85	3.7230	3.7230	2.4079	26.42	0.44	1.500			
0.6719	42999.88	3.7200	3.7201	2.4470	26.41	0.43	1.500			
0.6791	43465.12	3.7170	3.7168	2.5146	26.40	0.42	1.500			
0.6867	43951.59	3.7140	3.7140	2.5915	26.39	0.41	1.500			
0.6947	44460.03	3.7110	3.7111	2.7419	26.38	0.40	1.500			
0.7031	44997.22	3.7080	3.7079	2.8409	26.36	0.38	1.500			
0.7118	45553.59	3.7050	3.7051	2.9451	26.35	0.37	1.500			
0.7208	46128.77	3.7020	3.7020	3.0679	26.33	0.35	1.500			
0.7301	46727.51	3.6990	3.6990	3.1361	26.32	0.34	1.500			
0.7398	47350.23	3.6960	3.6960	3.0787	26.30	0.32	1.500			
0.7490	47935.02	3.6930	3.6931	2.9481	26.28	0.30	1.500			
0.7575	48482.78	3.6900	3.6900	2.6989	26.27	0.29	1.500			
0.7653	48976.43	3.6870	3.6871	2.4294	26.26	0.28	1.500			
0.7721	49415.19	3.6840	3.6841	2.2030	26.26	0.28	1.500			
0.7782	49801.81	3.6810	3.6810	1.9532	26.25	0.27	1.500			
0.7837	50158.99	3.6780	3.6780	1.7919	26.24	0.26	1.500			
0.7887	50479.68	3.6750	3.6750	1.6418	26.24	0.26	1.500			
0.7934	50777.10	3.6720	3.6720	1.5234	26.23	0.25	1.500			
0.7978	51056.63	3.6690	3.6690	1.4188	26.23	0.25	1.500			
0.8018	51314.28	3.6660	3.6661	1.3405	26.22	0.24	1.500			
0.8056	51560.53	3.6630	3.6630	1.2698	26.22	0.24	1.500			
0.8093	51794.76	3.6600	3.6600	1.2255	26.21	0.23	1.500			
0.8128	52021.63	3.6570	3.6571	1.1882	26.20	0.22	1.500			
0.8163	52243.82	3.6540	3.6540	1.1726	26.20	0.22	1.500			
0.8198	52464.71	3.6510	3.6510	1.1657	26.19	0.21	1.500			
0.8232	52686.46	3.6480	3.6480	1.1651	26.18	0.20	1.500			
0.8267	52907.70	3.6450	3.6450	1.1807	26.18	0.20	1.500			
0.8302	53135.57	3.6420	3.6421	1.1989	26.17	0.19	1.500			
0.8339	53368.55	3.6390	3.6389	1.2054	26.16	0.18	1.500			
0.8376	53603.93	3.6360	3.6360	1.2164	26.15	0.17	1.500			
0.8413	53840.56	3.6330	3.6331	1.2107	26.15	0.17	1.500			
0.8449	54072.36	3.6300	3.6300	1.2127	26.14	0.16	1.500			
0.8485	54305.14	3.6270	3.6270	1.2151	26.13	0.15	1.500			
0.8521	54536.14	3.6240	3.6240	1.2125	26.12	0.14	1.500			
0.8557	54766.76	3.6210	3.6210	1.2234	26.12	0.14	1.500			
0.8594	55003.41	3.6180	3.6180	1.2387	26.11	0.13	1.500			
0.8632	55242.81	3.6150	3.6150	1.2468	26.10	0.12	1.500			
0.8670	55486.31	3.6120	3.6120	1.2468	26.09	0.11	1.500			
0.8707	55726.11	3.6090	3.6091	1.2525	26.08	0.10	1.500			
0.8745	55968.71	3.6060	3.6061	1.2545	26.07	0.09	1.500			
0.8783	56210.32	3.6030	3.6029	1.2514	26.06	0.08	1.500			
0.8820	56449.29	3.6000	3.6001	1.2412	26.05	0.07	1.500			
0.8857	56687.53	3.5970	3.5970	1.2327	26.05	0.07	1.500			
0.8894	56924.16	3.5940	3.5940	1.2241	26.04	0.06	1.500			
0.8931	57157.83	3.5910	3.5910	1.2078	26.03	0.05	1.500			
0.8967	57388.72	3.5880	3.5880	1.2037	26.03	0.05	1.500			
0.9002	57614.06	3.5850	3.5851	1.2169	26.02	0.04	1.500			
0.9039	57848.05	3.5820	3.5819	1.2289	26.01	0.03	1.500			
0.9077	58090.41	3.5790	3.5789	1.2226	26.01	0.03	1.500			
0.9114	58331.24	3.5760	3.5760	1.1952	26.00	0.02	1.500			
0.9153	58578.67	3.5730	3.5730	1.1188	26.00	0.02	1.500			
0.9187	58793.94	3.5700	3.5701	0.9958	25.99	0.01	1.500			
0.9215	58979.13	3.5670	3.5671	0.8493	25.99	0.01	1.500			
0.9238	59122.68	3.5640	3.5639	0.6830	25.99	0.01	1.500			
0.9255	59230.22	3.5610	3.5610	0.5346	25.98	0.00	1.500			
0.9267	59311.66	3.5580	3.5578	0.4209	25.98	0.00	1.500			
0.9277	59371.91	3.5550	3.5550	0.3286	25.98	0.00	1.500			
0.9285	59426.32	3.5520	3.5517	0.2601	25.98	0.00	1.500			
0.9291	59463.75	3.5490	3.5490	0.2114	25.98	0.00	1.500			
0.9297	59498.91	3.5460	3.5458	0.1696	25.98	-0.00	1.500			
0.9301	59524.90	3.5430	3.5431	0.1312	25.98	-0.00	1.500			
0.9304	59547.00	3.5400	3.5400	0.1005	25.98	-0.00	1.500			
0.9307	59563.38	3.5370	3.5373	0.0702	25.98	-0.00	1.500			
0.9308	59573.95	3.5340	3.5343	0.0415	25.98	-0.00	1.500			
