Ah_balance (normalized)	Ah_balance (mAh)	Voltage - fit (V)	Voltage -  interpolate (V)	dQ/dV (1/V)	Temperature (°C)	Temperature - diff (°C)	Current (C)	R_DC 0ms (mOhm)	R_DC 50ms (mOhm)	R_DC 50 ms PEC (mOhm)
0.2787	17834.83	3.9830	3.9830	0.8368	27.22	1.26	1.500			
0.2812	17994.54	3.9800	3.9800	0.8358	27.21	1.25	1.500			
0.2837	18158.00	3.9770	3.9771	0.8544	27.21	1.25	1.500			
0.2863	18325.19	3.9740	3.9739	0.8621	27.21	1.25	1.500			
0.2889	18491.76	3.9710	3.9710	0.8703	27.20	1.24	1.500			
0.2915	18659.00	3.9680	3.9680	0.8716	27.20	1.24	1.500			
0.2942	18828.75	3.9650	3.9649	0.8743	27.19	1.23	1.500			
0.2968	18995.50	3.9620	3.9620	0.8731	27.19	1.23	1.500			
0.2994	19161.12	3.9590	3.9590	0.8719	27.19	1.23	1.500			
0.3020	19329.25	3.9560	3.9560	0.8762	27.18	1.22	1.500			
0.3047	19497.69	3.9530	3.9529	0.8822	27.18	1.22	1.500			
0.3073	19666.65	3.9500	3.9500	0.8797	27.17	1.21	1.500			
0.3099	19835.97	3.9470	3.9470	0.8885	27.17	1.21	1.500			
0.3126	20006.23	3.9440	3.9441	0.9007	27.16	1.20	1.500			
0.3153	20180.20	3.9410	3.9408	0.9053	27.16	1.20	1.500			
0.3180	20354.14	3.9380	3.9380	0.9131	27.15	1.19	1.500			
0.3208	20531.08	3.9350	3.9351	0.9187	27.15	1.19	1.500			
0.3236	20708.60	3.9320	3.9320	0.9277	27.14	1.18	1.500			
0.3264	20888.93	3.9290	3.9289	0.9209	27.14	1.18	1.500			
0.3291	21064.99	3.9260	3.9260	0.9217	27.13	1.17	1.500			
0.3319	21240.50	3.9230	3.9231	0.9226	27.13	1.17	1.500			
0.3347	21419.03	3.9200	3.9198	0.9270	27.12	1.16	1.500			
0.3374	21596.06	3.9170	3.9170	0.9314	27.12	1.16	1.500			
0.3402	21775.62	3.9140	3.9140	0.9369	27.11	1.15	1.500			
0.3431	21955.91	3.9110	3.9110	0.9406	27.10	1.14	1.500			
0.3459	22138.90	3.9080	3.9081	0.9516	27.10	1.14	1.500			
0.3487	22319.01	3.9050	3.9050	0.9601	27.09	1.13	1.500			
0.3516	22504.85	3.9020	3.9020	0.9706	27.09	1.13	1.500			
0.3546	22692.54	3.8990	3.8990	0.9805	27.08	1.12	1.500			
0.3575	22881.77	3.8960	3.8960	0.9880	27.08	1.12	1.500			
0.3605	23073.89	3.8930	3.8930	1.0004	27.07	1.11	1.500			
0.3635	23267.14	3.8900	3.8901	1.0067	27.06	1.10	1.500			
0.3666	23459.50	3.8870	3.8870	1.0135	27.06	1.10	1.500			
0.3696	23655.24	3.8840	3.8840	1.0201	27.05	1.09	1.500			
0.3727	23851.81	3.8810	3.8810	1.0324	27.05	1.09	1.500			
0.3758	24050.54	3.8780	3.8780	1.0464	27.04	1.08	1.500			
0.3790	24253.84	3.8750	3.8750	1.0519	27.03	1.07	1.500			
0.3821	24455.23	3.8720	3.8719	1.0626	27.03	1.07	1.500			
0.3853	24660.32	3.8690	3.8691	1.0763	27.02	1.06	1.500			
0.3886	24868.07	3.8660	3.8661	1.0848	27.01	1.05	1.500			
0.3918	25077.52	3.8630	3.8629	1.1007	27.01	1.05	1.500			
0.3951	25289.03	3.8600	3.8601	1.1094	27.00	1.04	1.500			
0.3985	25503.98	3.8570	3.8570	1.1229	26.99	1.03	1.500			
0.4019	25722.53	3.8540	3.8539	1.1427	26.99	1.03	1.500			
0.4053	25939.78	3.8510	3.8510	1.1599	26.98	1.02	1.500			
0.4088	26163.63	3.8480	3.8480	1.1742	26.97	1.01	1.500			
0.4124	26390.55	3.8450	3.8450	1.1999	26.97	1.01	1.500			
0.4160	26622.13	3.8420	3.8420	1.2196	26.96	1.00	1.500			
0.4197	26859.57	3.8390	3.8389	1.2466	26.95	0.99	1.500			
0.4235	27103.47	3.8360	3.8360	1.2652	26.94	0.98	1.500			
0.4273	27348.80	3.8330	3.8329	1.2757	26.93	0.97	1.500			
0.4311	27592.59	3.8300	3.8301	1.2976	26.92	0.96	1.500			
0.4351	27844.18	3.8270	3.8270	1.3338	26.91	0.95	1.500			
0.4391	28099.28	3.8240	3.8239	1.3574	26.90	0.94	1.500			
0.4432	28364.38	3.8210	3.8210	1.3871	26.89	0.93	1.500			
0.4474	28632.84	3.8180	3.8181	1.4194	26.88	0.92	1.500			
0.4517	28911.06	3.8150	3.8150	1.4473	26.86	0.90	1.500			
0.4561	29192.38	3.8120	3.8120	1.4791	26.85	0.89	1.500			
0.4605	29474.44	3.8090	3.8090	1.5047	26.84	0.88	1.500			
0.4651	29765.16	3.8060	3.8060	1.5394	26.82	0.86	1.500			
0.4698	30064.18	3.8030	3.8030	1.5814	26.81	0.85	1.500			
0.4746	30371.78	3.8000	3.8000	1.6218	26.80	0.84	1.500			
0.4795	30687.26	3.7970	3.7970	1.6582	26.79	0.83	1.500			
0.4845	31010.75	3.7940	3.7940	1.7009	26.77	0.81	1.500			
0.4897	31339.92	3.7910	3.7910	1.7351	26.76	0.80	1.500			
0.4950	31677.21	3.7880	3.7880	1.7700	26.75	0.79	1.500			
0.5003	32021.31	3.7850	3.7850	1.7929	26.73	0.77	1.500			
0.5057	32367.30	3.7820	3.7820	1.8365	26.71	0.75	1.500			
0.5113	32724.30	3.7790	3.7790	1.8718	26.69	0.73	1.500			
0.5170	33086.44	3.7760	3.7760	1.8944	26.68	0.72	1.500			
0.5228	33456.02	3.7730	3.7731	1.9355	26.66	0.70	1.500			
0.5286	33832.82	3.7700	3.7700	1.9670	26.64	0.68	1.500			
0.5346	34214.18	3.7670	3.7671	1.9666	26.62	0.66	1.500	0.354	0.454	
0.5406	34596.02	3.7640	3.7640	1.9778	26.60	0.64	1.500			
0.5465	34977.23	3.7610	3.7611	1.9698	26.58	0.62	1.500			
0.5524	35353.56	3.7580	3.7580	1.9560	26.56	0.60	1.500			
0.5582	35727.80	3.7550	3.7550	1.9425	26.54	0.58	1.500			
0.5640	36098.29	3.7520	3.7520	1.9320	26.52	0.56	1.500			
0.5698	36469.55	3.7490	3.7490	1.9380	26.51	0.55	1.500			
0.5756	36841.00	3.7460	3.7460	1.9186	26.50	0.54	1.500			
0.5813	37205.25	3.7430	3.7430	1.9376	26.48	0.52	1.500			
0.5871	37577.54	3.7400	3.7401	1.9610	26.47	0.51	1.500			
0.5931	37956.55	3.7370	3.7370	1.9872	26.45	0.49	1.500			
0.5991	38341.07	3.7340	3.7340	2.0034	26.44	0.48	1.500			
0.6051	38727.74	3.7310	3.7310	2.0282	26.42	0.46	1.500			
0.6112	39119.06	3.7280	3.7279	2.0756	26.41	0.45	1.500			
0.6175	39521.51	3.7250	3.7250	2.1274	26.39	0.43	1.500			
0.6241	39941.94	3.7220	3.7221	2.1597	26.38	0.42	1.500			
0.6305	40354.21	3.7190	3.7190	2.2304	26.36	0.40	1.500			
0.6372	40783.78	3.7160	3.7161	2.3189	26.35	0.39	1.500			
0.6443	41236.63	3.7130	3.7130	2.4075	26.33	0.37	1.500			
0.6516	41704.23	3.7100	3.7101	2.4636	26.31	0.35	1.500			
0.6591	42183.70	3.7070	3.7071	2.5227	26.29	0.33	1.500			
0.6669	42679.32	3.7040	3.7038	2.6401	26.27	0.31	1.500			
0.6748	43190.16	3.7010	3.7010	2.5738	26.24	0.28	1.500			
0.6828	43701.95	3.6980	3.6981	2.5754	26.22	0.26	1.500			
0.6903	44179.73	3.6950	3.6947	2.4315	26.20	0.24	1.500			
0.6975	44640.16	3.6920	3.6921	2.2965	26.19	0.23	1.500			
0.7042	45071.70	3.6890	3.6891	2.1355	26.18	0.22	1.500			
0.7103	45459.25	3.6860	3.6860	1.9712	26.17	0.21	1.500			
0.7158	45809.33	3.6830	3.6829	1.7943	26.16	0.20	1.500			
0.7209	46138.19	3.6800	3.6801	1.6733	26.15	0.19	1.500			
0.7258	46449.51	3.6770	3.6770	1.5786	26.14	0.18	1.500			
0.7303	46740.25	3.6740	3.6740	1.4994	26.14	0.18	1.500			
0.7346	47013.12	3.6710	3.6710	1.4206	26.13	0.17	1.500			
0.7388	47280.72	3.6680	3.6679	1.3655	26.12	0.16	1.500			
0.7427	47534.07	3.6650	3.6650	1.3236	26.11	0.15	1.500			
0.7466	47781.91	3.6620	3.6621	1.2895	26.11	0.15	1.500			
0.7504	48022.89	3.6590	3.6591	1.2739	26.10	0.14	1.500			
0.7541	48263.04	3.6560	3.6559	1.2622	26.09	0.13	1.500			
0.7578	48501.44	3.6530	3.6530	1.2566	26.08	0.12	1.500			
0.7616	48742.24	3.6500	3.6500	1.2661	26.07	0.11	1.500			
0.7654	48987.80	3.6470	3.6470	1.2811	26.06	0.10	1.500			
0.7693	49233.74	3.6440	3.6439	1.2874	26.05	0.09	1.500			
0.7731	49481.48	3.6410	3.6410	1.2990	26.04	0.08	1.500			
0.7771	49733.15	3.6380	3.6380	1.3027	26.03	0.07	1.500			
0.7811	49987.33	3.6350	3.6350	1.3002	26.02	0.06	1.500			
0.7850	50236.88	3.6320	3.6320	1.3000	26.01	0.05	1.500			
0.7888	50485.12	3.6290	3.6291	1.2932	26.00	0.04	1.500			
0.7927	50732.35	3.6260	3.6260	1.2920	26.00	0.04	1.500			
0.7965	50978.47	3.6230	3.6230	1.2885	25.99	0.03	1.500			
0.8004	51226.06	3.6200	3.6200	1.2843	25.98	0.02	1.500			
0.8043	51474.85	3.6170	3.6170	1.2870	25.98	0.02	1.500			
0.8082	51722.93	3.6140	3.6140	1.2827	25.97	0.01	1.500			
0.8120	51967.12	3.6110	3.6110	1.2733	25.97	0.01	1.500			
0.8158	52212.17	3.6080	3.6079	1.2651	25.96	-0.00	1.500			
0.8196	52454.05	3.6050	3.6050	1.2532	25.96	-0.00	1.500			
0.8233	52694.04	3.6020	3.6021	1.2425	25.95	-0.01	1.500			
0.8271	52934.03	3.5990	3.5990	1.2188	25.95	-0.01	1.500			
0.8307	53165.80	3.5960	3.5960	1.2014	25.95	-0.01	1.500			
0.8343	53393.66	3.5930	3.5931	1.1838	25.94	-0.02	1.500			
0.8378	53617.72	3.5900	3.5900	1.1687	25.94	-0.02	1.500			
0.8412	53839.47	3.5870	3.5870	1.1597	25.94	-0.02	1.500			
0.8447	54062.04	3.5840	3.5840	1.1429	25.94	-0.02	1.500			
0.8482	54283.32	3.5810	3.5809	1.1232	25.95	-0.01	1.500			
0.8516	54505.20	3.5780	3.5780	1.0701	25.95	-0.01	1.500			
0.8549	54711.03	3.5750	3.5751	0.9966	25.95	-0.01	1.500			
0.8579	54905.60	3.5720	3.5720	0.8998	25.95	-0.01	1.500			
0.8605	55070.36	3.5690	3.5690	0.7807	25.96	-0.00	1.500			
0.8626	55207.03	3.5660	3.5661	0.6555	25.96	-0.00	1.500			
0.8643	55316.29	3.5630	3.5631	0.5482	25.96	-0.00	1.500			
0.8657	55403.12	3.5600	3.5600	0.4461	25.96	0.00	1.500			
0.8668	55475.28	3.5570	3.5569	0.3760	25.96	0.00	1.500			
0.8677	55534.20	3.5540	3.5540	0.3141	25.96	0.00	1.500			
0.8686	55588.48	3.5510	3.5509	0.2716	25.96	0.00	1.500			
0.8693	55634.99	3.5480	3.5479	0.2401	25.96	0.00	1.500			
0.8699	55675.92	3.5450	3.5450	0.2130	25.96	0.00	1.500			
0.8705	55713.37	3.5420	3.5421	0.1923	25.96	0.00	1.500			
0.8711	55748.07	3.5390	3.5390	0.1731	25.96	0.00	1.500			
0.8715	55778.95	3.5360	3.5360	0.1569	25.96	0.00	1.500			
0.8720	55806.84	3.5330	3.5331	0.1400	25.97	0.01	1.500			
0.8724	55832.21	3.5300	3.5300	0.1257	25.97	0.01	1.500			
0.8727	55855.01	3.5270	3.5270	0.1118	25.97	0.01	1.500			
0.8730	55875.20	3.5240	3.5240	0.0980	25.97	0.01	1.500			
0.8733	55892.69	3.5210	3.5210	0.0841	25.97	0.01	1.500			
0.8736	55907.50	3.5180	3.5182	0.0702	25.97	0.01	1.500			
0.8737	55919.61	3.5150	3.5154	0.0564	25.97	0.01	1.500			
0.8739	55929.11	3.5120	3.5127	0.0426	25.97	0.01	1.500			
