Ah_balance (normalized)	Ah_balance (mAh)	Voltage - fit (V)	Voltage -  interpolate (V)	dQ/dV (1/V)	Temperature (°C)	Temperature - diff (°C)	Current (C)	R_DC 0ms (mOhm)	R_DC 50ms (mOhm)	R_DC 50 ms PEC (mOhm)
0.2896	18535.77	3.9910	3.9910	0.7921	27.24	1.27	1.500			
0.2920	18690.76	3.9880	3.9879	0.8185	27.23	1.26	1.500			
0.2945	18850.80	3.9850	3.9850	0.8320	27.23	1.26	1.500			
0.2971	19011.93	3.9820	3.9820	0.8379	27.22	1.25	1.500			
0.2996	19174.77	3.9790	3.9790	0.8420	27.21	1.24	1.500			
0.3021	19336.30	3.9760	3.9759	0.8468	27.21	1.24	1.500			
0.3047	19498.69	3.9730	3.9731	0.8478	27.20	1.23	1.500			
0.3072	19660.75	3.9700	3.9700	0.8498	27.20	1.23	1.500			
0.3098	19824.98	3.9670	3.9670	0.8533	27.19	1.22	1.500			
0.3123	19989.27	3.9640	3.9640	0.8600	27.18	1.21	1.500			
0.3149	20153.75	3.9610	3.9610	0.8650	27.18	1.21	1.500			
0.3175	20320.21	3.9580	3.9580	0.8698	27.17	1.20	1.500			
0.3201	20487.16	3.9550	3.9550	0.8735	27.16	1.19	1.500			
0.3228	20657.52	3.9520	3.9520	0.8784	27.16	1.19	1.500			
0.3254	20826.88	3.9490	3.9490	0.8789	27.15	1.18	1.500			
0.3281	20996.64	3.9460	3.9460	0.8824	27.15	1.18	1.500			
0.3307	21164.43	3.9430	3.9431	0.8840	27.14	1.17	1.500			
0.3333	21333.90	3.9400	3.9399	0.8852	27.13	1.16	1.500			
0.3360	21503.27	3.9370	3.9371	0.8934	27.13	1.16	1.500			
0.3387	21674.17	3.9340	3.9340	0.9017	27.12	1.15	1.500			
0.3414	21849.02	3.9310	3.9311	0.9096	27.11	1.14	1.500			
0.3442	22026.28	3.9280	3.9279	0.9150	27.10	1.13	1.500			
0.3469	22203.54	3.9250	3.9250	0.9209	27.09	1.12	1.500			
0.3497	22381.73	3.9220	3.9221	0.9152	27.09	1.12	1.500			
0.3524	22555.45	3.9190	3.9190	0.9245	27.08	1.11	1.500			
0.3552	22731.56	3.9160	3.9159	0.9272	27.07	1.10	1.500			
0.3579	22908.54	3.9130	3.9131	0.9325	27.06	1.09	1.500			
0.3608	23089.07	3.9100	3.9101	0.9437	27.06	1.09	1.500			
0.3636	23273.09	3.9070	3.9070	0.9574	27.05	1.08	1.500			
0.3665	23458.14	3.9040	3.9040	0.9641	27.04	1.07	1.500			
0.3694	23644.20	3.9010	3.9010	0.9726	27.04	1.07	1.500			
0.3723	23829.09	3.8980	3.8980	0.9716	27.03	1.06	1.500			
0.3753	24017.26	3.8950	3.8950	0.9814	27.02	1.05	1.500			
0.3782	24205.42	3.8920	3.8920	0.9935	27.01	1.04	1.500			
0.3812	24397.33	3.8890	3.8890	1.0015	27.01	1.04	1.500			
0.3842	24589.85	3.8860	3.8859	1.0140	27.00	1.03	1.500			
0.3873	24787.04	3.8830	3.8831	1.0250	26.99	1.02	1.500			
0.3904	24984.93	3.8800	3.8800	1.0372	26.98	1.01	1.500			
0.3935	25185.95	3.8770	3.8770	1.0494	26.97	1.00	1.500			
0.3967	25386.84	3.8740	3.8740	1.0518	26.97	1.00	1.500			
0.3998	25589.10	3.8710	3.8710	1.0641	26.96	0.99	1.500			
0.4030	25794.96	3.8680	3.8680	1.0811	26.95	0.98	1.500			
0.4063	26002.73	3.8650	3.8650	1.0930	26.94	0.97	1.500			
0.4096	26215.07	3.8620	3.8620	1.1083	26.93	0.96	1.500			
0.4129	26428.11	3.8590	3.8590	1.1215	26.92	0.95	1.500			
0.4163	26646.20	3.8560	3.8560	1.1388	26.91	0.94	1.500			
0.4198	26866.23	3.8530	3.8530	1.1565	26.90	0.93	1.500			
0.4233	27088.72	3.8500	3.8500	1.1637	26.89	0.92	1.500			
0.4268	27313.01	3.8470	3.8470	1.1808	26.87	0.90	1.500			
0.4303	27539.46	3.8440	3.8440	1.2056	26.86	0.89	1.500			
0.4340	27773.58	3.8410	3.8408	1.2266	26.85	0.88	1.500			
0.4377	28009.94	3.8380	3.8380	1.2489	26.84	0.87	1.500			
0.4414	28252.59	3.8350	3.8349	1.2722	26.83	0.86	1.500			
0.4453	28502.00	3.8320	3.8321	1.2903	26.82	0.85	1.500			
0.4492	28749.68	3.8290	3.8290	1.3158	26.80	0.83	1.500			
0.4532	29005.72	3.8260	3.8260	1.3329	26.79	0.82	1.500			
0.4572	29261.14	3.8230	3.8231	1.3512	26.78	0.81	1.500			
0.4613	29524.57	3.8200	3.8201	1.3778	26.76	0.79	1.500			
0.4655	29791.22	3.8170	3.8170	1.4006	26.75	0.78	1.500			
0.4697	30063.58	3.8140	3.8139	1.4233	26.73	0.76	1.500			
0.4740	30339.08	3.8110	3.8110	1.4531	26.72	0.75	1.500			
0.4784	30617.23	3.8080	3.8081	1.4767	26.70	0.73	1.500			
0.4829	30905.76	3.8050	3.8049	1.5164	26.69	0.72	1.500			
0.4875	31197.64	3.8020	3.8021	1.5388	26.67	0.70	1.500			
0.4922	31501.32	3.7990	3.7989	1.5606	26.66	0.69	1.500			
0.4969	31804.43	3.7960	3.7961	1.5858	26.64	0.67	1.500			
0.5017	32108.10	3.7930	3.7930	1.6053	26.62	0.65	1.500			
0.5065	32417.39	3.7900	3.7900	1.6382	26.61	0.64	1.500			
0.5114	32731.09	3.7870	3.7871	1.6665	26.59	0.62	1.500			
0.5166	33062.67	3.7840	3.7839	1.6907	26.58	0.61	1.500			
0.5217	33390.49	3.7810	3.7811	1.7058	26.56	0.59	1.500	0.349	0.479	
0.5268	33718.40	3.7780	3.7781	1.7109	26.54	0.57	1.500			
0.5320	34047.95	3.7750	3.7749	1.7208	26.53	0.56	1.500			
0.5371	34377.18	3.7720	3.7721	1.7172	26.51	0.54	1.500			
0.5423	34708.54	3.7690	3.7690	1.7311	26.49	0.52	1.500			
0.5476	35043.94	3.7660	3.7660	1.7246	26.48	0.51	1.500			
0.5527	35375.85	3.7630	3.7630	1.7264	26.46	0.49	1.500			
0.5579	35706.64	3.7600	3.7599	1.7357	26.44	0.47	1.500			
0.5631	36038.21	3.7570	3.7571	1.7442	26.43	0.46	1.500			
0.5684	36374.79	3.7540	3.7540	1.7592	26.41	0.44	1.500			
0.5736	36711.54	3.7510	3.7511	1.7657	26.39	0.42	1.500			
0.5789	37052.47	3.7480	3.7480	1.7846	26.38	0.41	1.500			
0.5843	37396.98	3.7450	3.7448	1.8135	26.36	0.39	1.500			
0.5898	37746.40	3.7420	3.7421	1.8458	26.35	0.38	1.500			
0.5954	38106.49	3.7390	3.7390	1.8628	26.33	0.36	1.500			
0.6010	38465.14	3.7360	3.7361	1.9049	26.32	0.35	1.500			
0.6068	38834.37	3.7330	3.7330	1.9681	26.31	0.34	1.500			
0.6128	39216.42	3.7300	3.7300	2.0159	26.29	0.32	1.500			
0.6189	39610.00	3.7270	3.7271	2.0839	26.28	0.31	1.500			
0.6254	40023.77	3.7240	3.7239	2.1584	26.26	0.29	1.500			
0.6318	40438.16	3.7210	3.7210	2.2098	26.25	0.28	1.500			
0.6386	40867.47	3.7180	3.7180	2.2972	26.23	0.26	1.500			
0.6456	41316.83	3.7150	3.7150	2.2986	26.21	0.24	1.500			
0.6525	41758.50	3.7120	3.7121	2.3465	26.19	0.22	1.500			
0.6596	42214.39	3.7090	3.7089	2.3530	26.17	0.20	1.500			
0.6668	42678.12	3.7060	3.7060	2.2956	26.16	0.19	1.500			
0.6738	43121.13	3.7030	3.7030	2.2107	26.14	0.17	1.500			
0.6802	43532.67	3.7000	3.7001	2.0888	26.13	0.16	1.500			
0.6863	43921.22	3.6970	3.6970	1.9443	26.12	0.15	1.500			
0.6919	44278.99	3.6940	3.6941	1.8136	26.11	0.14	1.500			
0.6971	44614.96	3.6910	3.6911	1.7012	26.10	0.13	1.500			
0.7019	44924.69	3.6880	3.6879	1.5939	26.09	0.12	1.500			
0.7066	45220.46	3.6850	3.6850	1.5076	26.08	0.11	1.500			
0.7109	45500.50	3.6820	3.6820	1.4409	26.08	0.11	1.500			
0.7151	45769.26	3.6790	3.6790	1.3913	26.07	0.10	1.500			
0.7192	46028.56	3.6760	3.6760	1.3421	26.06	0.09	1.500			
0.7231	46278.40	3.6730	3.6730	1.3025	26.06	0.09	1.500			
0.7269	46521.39	3.6700	3.6699	1.2825	26.05	0.08	1.500			
0.7307	46762.96	3.6670	3.6671	1.2714	26.05	0.08	1.500			
0.7345	47004.88	3.6640	3.6638	1.2700	26.04	0.07	1.500			
0.7382	47246.93	3.6610	3.6610	1.2670	26.03	0.06	1.500			
0.7421	47491.48	3.6580	3.6580	1.2697	26.02	0.05	1.500			
0.7459	47738.69	3.6550	3.6550	1.2682	26.01	0.04	1.500			
0.7497	47982.70	3.6520	3.6520	1.2625	26.00	0.03	1.500			
0.7535	48223.52	3.6490	3.6490	1.2590	25.99	0.02	1.500			
0.7572	48464.00	3.6460	3.6461	1.2505	25.99	0.02	1.500			
0.7610	48705.23	3.6430	3.6429	1.2393	25.98	0.01	1.500			
0.7647	48942.64	3.6400	3.6401	1.2322	25.97	0.00	1.500			
0.7684	49178.08	3.6370	3.6370	1.2198	25.97	-0.00	1.500			
0.7720	49410.57	3.6340	3.6341	1.2116	25.96	-0.01	1.500			
0.7756	49641.54	3.6310	3.6309	1.2008	25.95	-0.02	1.500			
0.7792	49870.68	3.6280	3.6279	1.1929	25.95	-0.02	1.500			
0.7828	50099.87	3.6250	3.6250	1.1876	25.94	-0.03	1.500			
0.7864	50328.45	3.6220	3.6220	1.1777	25.94	-0.03	1.500			
0.7899	50555.17	3.6190	3.6190	1.1656	25.94	-0.03	1.500			
0.7934	50778.92	3.6160	3.6160	1.1523	25.93	-0.04	1.500			
0.7969	50999.13	3.6130	3.6130	1.1269	25.93	-0.04	1.500			
0.8002	51213.85	3.6100	3.6100	1.1061	25.93	-0.04	1.500			
0.8035	51424.27	3.6070	3.6070	1.0846	25.92	-0.05	1.500			
0.8067	51629.72	3.6040	3.6040	1.0607	25.92	-0.05	1.500			
0.8099	51831.63	3.6010	3.6009	1.0351	25.92	-0.05	1.500			
0.8129	52027.26	3.5980	3.5980	1.0085	25.93	-0.04	1.500			
0.8159	52220.78	3.5950	3.5950	0.9799	25.93	-0.04	1.500			
0.8189	52408.56	3.5920	3.5919	0.9454	25.94	-0.03	1.500			
0.8217	52590.18	3.5890	3.5889	0.8928	25.94	-0.03	1.500			
0.8244	52759.17	3.5860	3.5860	0.8307	25.95	-0.02	1.500			
0.8268	52918.06	3.5830	3.5830	0.7571	25.95	-0.02	1.500			
0.8290	53057.23	3.5800	3.5800	0.6702	25.96	-0.01	1.500			
0.8309	53176.96	3.5770	3.5771	0.5783	25.96	-0.01	1.500			
0.8325	53277.10	3.5740	3.5740	0.4932	25.97	-0.00	1.500			
0.8337	53359.45	3.5710	3.5710	0.4133	25.97	-0.00	1.500			
0.8348	53428.29	3.5680	3.5681	0.3536	25.97	0.00	1.500			
0.8357	53485.61	3.5650	3.5650	0.3000	25.97	0.00	1.500			
0.8365	53537.88	3.5620	3.5619	0.2595	25.97	0.00	1.500			
0.8372	53581.32	3.5590	3.5589	0.2287	25.98	0.01	1.500			
0.8378	53621.38	3.5560	3.5561	0.2055	25.98	0.01	1.500			
0.8384	53658.13	3.5530	3.5529	0.1865	25.98	0.01	1.500			
0.8389	53691.90	3.5500	3.5500	0.1681	25.98	0.01	1.500			
0.8394	53722.05	3.5470	3.5470	0.1520	25.98	0.01	1.500			
0.8398	53749.12	3.5440	3.5440	0.1353	25.98	0.01	1.500			
0.8402	53773.45	3.5410	3.5411	0.1207	25.98	0.01	1.500			
0.8406	53795.22	3.5380	3.5380	0.1061	25.98	0.01	1.500			
0.8408	53813.93	3.5350	3.5350	0.0913	25.98	0.01	1.500			
0.8411	53830.12	3.5320	3.5321	0.0771	25.98	0.01	1.500			
0.8413	53843.56	3.5290	3.5292	0.0629	25.98	0.01	1.500			
0.8415	53854.27	3.5260	3.5265	0.0488	25.98	0.01	1.500			
0.8416	53862.28	3.5230	3.5239	0.0347	25.98	0.01	1.500			
