Ah_balance (normalized)	Ah_balance (mAh)	Voltage - fit (V)	Voltage -  interpolate (V)	dQ/dV (1/V)	Temperature (°C)	Temperature - diff (°C)	Current (C)	R_DC 0ms (mOhm)	R_DC 50ms (mOhm)	R_DC 50 ms PEC (mOhm)
0.2996	19177.52	3.9750	3.9750	0.8497	27.08	1.14	1.500			
0.3022	19340.10	3.9720	3.9719	0.8468	27.07	1.13	1.500			
0.3047	19501.71	3.9690	3.9690	0.8523	27.07	1.13	1.500			
0.3073	19668.24	3.9660	3.9660	0.8604	27.06	1.12	1.500			
0.3099	19834.34	3.9630	3.9629	0.8672	27.06	1.12	1.500			
0.3125	20001.31	3.9600	3.9600	0.8721	27.06	1.12	1.500			
0.3151	20167.53	3.9570	3.9572	0.8771	27.05	1.11	1.500			
0.3178	20337.16	3.9540	3.9540	0.8885	27.05	1.11	1.500			
0.3205	20508.81	3.9510	3.9510	0.8876	27.04	1.10	1.500			
0.3231	20679.77	3.9480	3.9479	0.8907	27.04	1.10	1.500			
0.3258	20852.29	3.9450	3.9451	0.9006	27.03	1.09	1.500			
0.3285	21024.88	3.9420	3.9419	0.8998	27.03	1.09	1.500			
0.3312	21198.55	3.9390	3.9390	0.8980	27.03	1.09	1.500			
0.3339	21369.35	3.9360	3.9360	0.9034	27.02	1.08	1.500			
0.3366	21541.26	3.9330	3.9331	0.9097	27.02	1.08	1.500			
0.3393	21718.33	3.9300	3.9299	0.9191	27.01	1.07	1.500			
0.3421	21895.30	3.9270	3.9270	0.9205	27.01	1.07	1.500			
0.3449	22072.13	3.9240	3.9240	0.9254	27.00	1.06	1.500			
0.3477	22251.58	3.9210	3.9211	0.9345	27.00	1.06	1.500			
0.3505	22431.68	3.9180	3.9180	0.9388	26.99	1.05	1.500			
0.3533	22610.21	3.9150	3.9149	0.9383	26.99	1.05	1.500			
0.3561	22792.06	3.9120	3.9120	0.9450	26.98	1.04	1.500			
0.3590	22973.62	3.9090	3.9090	0.9535	26.97	1.03	1.500			
0.3618	23157.21	3.9060	3.9060	0.9617	26.97	1.03	1.500			
0.3647	23342.25	3.9030	3.9030	0.9664	26.96	1.02	1.500			
0.3676	23528.23	3.9000	3.9000	0.9742	26.96	1.02	1.500			
0.3706	23715.43	3.8970	3.8971	0.9854	26.95	1.01	1.500			
0.3735	23905.58	3.8940	3.8940	0.9958	26.95	1.01	1.500			
0.3765	24099.06	3.8910	3.8909	1.0046	26.94	1.00	1.500			
0.3796	24292.68	3.8880	3.8880	1.0077	26.93	0.99	1.500			
0.3826	24485.77	3.8850	3.8850	1.0190	26.93	0.99	1.500			
0.3857	24681.98	3.8820	3.8821	1.0326	26.92	0.98	1.500			
0.3888	24880.51	3.8790	3.8789	1.0433	26.92	0.98	1.500			
0.3919	25080.01	3.8760	3.8759	1.0554	26.91	0.97	1.500			
0.3951	25285.63	3.8730	3.8731	1.0690	26.90	0.96	1.500			
0.3984	25494.57	3.8700	3.8699	1.0822	26.90	0.96	1.500			
0.4016	25703.11	3.8670	3.8671	1.0917	26.89	0.95	1.500			
0.4049	25913.95	3.8640	3.8639	1.0923	26.89	0.95	1.500			
0.4081	26120.90	3.8610	3.8611	1.1096	26.88	0.94	1.500			
0.4115	26336.12	3.8580	3.8580	1.1249	26.88	0.94	1.500			
0.4149	26551.76	3.8550	3.8550	1.1417	26.87	0.93	1.500			
0.4184	26774.42	3.8520	3.8521	1.1592	26.87	0.93	1.500			
0.4219	26999.04	3.8490	3.8490	1.1790	26.86	0.92	1.500			
0.4254	27226.14	3.8460	3.8460	1.1977	26.85	0.91	1.500			
0.4290	27456.65	3.8430	3.8430	1.2137	26.84	0.90	1.500			
0.4327	27691.64	3.8400	3.8400	1.2316	26.84	0.90	1.500			
0.4364	27931.72	3.8370	3.8370	1.2561	26.83	0.89	1.500			
0.4402	28174.37	3.8340	3.8341	1.2737	26.82	0.88	1.500			
0.4441	28422.04	3.8310	3.8309	1.3004	26.81	0.87	1.500			
0.4480	28671.42	3.8280	3.8280	1.3275	26.80	0.86	1.500			
0.4520	28929.41	3.8250	3.8250	1.3457	26.79	0.85	1.500			
0.4561	29190.15	3.8220	3.8220	1.3830	26.78	0.84	1.500			
0.4603	29459.42	3.8190	3.8191	1.4152	26.77	0.83	1.500			
0.4646	29733.23	3.8160	3.8159	1.4440	26.76	0.82	1.500			
0.4689	30012.63	3.8130	3.8130	1.4803	26.75	0.81	1.500			
0.4734	30299.12	3.8100	3.8100	1.5075	26.74	0.80	1.500			
0.4780	30592.65	3.8070	3.8069	1.5478	26.73	0.79	1.500			
0.4827	30891.56	3.8040	3.8040	1.5800	26.71	0.77	1.500			
0.4875	31199.66	3.8010	3.8010	1.6242	26.70	0.76	1.500			
0.4924	31516.60	3.7980	3.7980	1.6637	26.69	0.75	1.500			
0.4975	31839.28	3.7950	3.7950	1.6985	26.67	0.73	1.500			
0.5026	32168.38	3.7920	3.7921	1.7411	26.66	0.72	1.500			
0.5079	32508.59	3.7890	3.7890	1.7941	26.64	0.70	1.500			
0.5134	32856.01	3.7860	3.7860	1.8318	26.63	0.69	1.500			
0.5189	33211.64	3.7830	3.7830	1.8700	26.61	0.67	1.500			
0.5247	33580.68	3.7800	3.7800	1.9016	26.59	0.65	1.500			
0.5304	33947.40	3.7770	3.7770	1.9267	26.58	0.64	1.500			
0.5362	34315.18	3.7740	3.7741	1.9468	26.56	0.62	1.500			
0.5421	34693.59	3.7710	3.7710	1.9864	26.54	0.60	1.500			
0.5481	35078.55	3.7680	3.7680	2.0127	26.52	0.58	1.500			
0.5542	35469.58	3.7650	3.7649	2.0265	26.51	0.57	1.500	0.358	0.461	
0.5604	35863.75	3.7620	3.7620	2.0292	26.49	0.55	1.500			
0.5665	36253.09	3.7590	3.7590	2.0184	26.48	0.54	1.500			
0.5725	36638.45	3.7560	3.7560	1.9979	26.46	0.52	1.500			
0.5785	37021.37	3.7530	3.7530	1.9698	26.44	0.50	1.500			
0.5843	37395.67	3.7500	3.7500	1.9409	26.42	0.48	1.500			
0.5900	37761.29	3.7470	3.7470	1.9313	26.40	0.46	1.500			
0.5958	38129.00	3.7440	3.7440	1.9290	26.39	0.45	1.500			
0.6016	38501.74	3.7410	3.7409	1.9323	26.38	0.44	1.500			
0.6074	38875.77	3.7380	3.7381	1.9662	26.36	0.42	1.500			
0.6133	39252.37	3.7350	3.7350	1.9937	26.35	0.41	1.500			
0.6193	39636.94	3.7320	3.7321	2.0209	26.33	0.39	1.500			
0.6255	40030.48	3.7290	3.7290	2.0360	26.32	0.38	1.500			
0.6316	40422.27	3.7260	3.7261	2.0921	26.30	0.36	1.500			
0.6379	40827.55	3.7230	3.7231	2.1734	26.29	0.35	1.500			
0.6446	41252.31	3.7200	3.7200	2.2300	26.27	0.33	1.500			
0.6514	41688.14	3.7170	3.7171	2.3010	26.26	0.32	1.500			
0.6584	42137.62	3.7140	3.7140	2.3779	26.25	0.31	1.500			
0.6654	42587.84	3.7110	3.7109	2.4545	26.23	0.29	1.500			
0.6730	43069.17	3.7080	3.7081	2.5650	26.22	0.28	1.500			
0.6809	43577.70	3.7050	3.7050	2.6083	26.20	0.26	1.500			
0.6886	44072.88	3.7020	3.7020	2.6145	26.19	0.25	1.500			
0.6965	44577.09	3.6990	3.6991	2.6172	26.17	0.23	1.500			
0.7046	45094.99	3.6960	3.6960	2.5901	26.16	0.22	1.500			
0.7121	45571.42	3.6930	3.6930	2.3867	26.15	0.21	1.500			
0.7190	46014.88	3.6900	3.6900	2.2091	26.14	0.20	1.500			
0.7253	46417.39	3.6870	3.6870	2.0179	26.13	0.19	1.500			
0.7310	46782.05	3.6840	3.6841	1.8602	26.12	0.18	1.500			
0.7363	47121.23	3.6810	3.6810	1.7167	26.11	0.17	1.500			
0.7412	47437.30	3.6780	3.6779	1.6136	26.10	0.16	1.500			
0.7458	47729.27	3.6750	3.6750	1.5213	26.09	0.15	1.500			
0.7502	48011.11	3.6720	3.6720	1.4464	26.09	0.15	1.500			
0.7544	48278.63	3.6690	3.6690	1.3902	26.08	0.14	1.500			
0.7584	48537.80	3.6660	3.6661	1.3404	26.07	0.13	1.500			
0.7623	48787.35	3.6630	3.6629	1.3027	26.07	0.13	1.500			
0.7661	49032.79	3.6600	3.6600	1.2800	26.06	0.12	1.500			
0.7699	49271.00	3.6570	3.6571	1.2707	26.05	0.11	1.500			
0.7736	49513.12	3.6540	3.6540	1.2637	26.05	0.11	1.500			
0.7774	49756.47	3.6510	3.6509	1.2608	26.04	0.10	1.500			
0.7812	49996.08	3.6480	3.6480	1.2700	26.04	0.10	1.500			
0.7850	50240.27	3.6450	3.6451	1.2799	26.03	0.09	1.500			
0.7889	50487.50	3.6420	3.6420	1.2906	26.02	0.08	1.500			
0.7927	50735.83	3.6390	3.6390	1.2957	26.02	0.08	1.500			
0.7967	50986.58	3.6360	3.6361	1.2953	26.01	0.07	1.500			
0.8006	51237.94	3.6330	3.6331	1.3056	26.00	0.06	1.500			
0.8045	51489.56	3.6300	3.6300	1.2996	25.99	0.05	1.500			
0.8084	51737.91	3.6270	3.6269	1.2920	25.99	0.05	1.500			
0.8123	51984.90	3.6240	3.6240	1.2856	25.98	0.04	1.500			
0.8161	52230.89	3.6210	3.6211	1.2792	25.97	0.03	1.500			
0.8200	52477.51	3.6180	3.6180	1.2760	25.97	0.03	1.500			
0.8238	52721.52	3.6150	3.6149	1.2730	25.96	0.02	1.500			
0.8276	52964.26	3.6120	3.6120	1.2601	25.96	0.02	1.500			
0.8314	53207.68	3.6090	3.6090	1.2538	25.95	0.01	1.500			
0.8351	53449.08	3.6060	3.6060	1.2441	25.95	0.01	1.500			
0.8389	53687.23	3.6030	3.6031	1.2333	25.94	0.00	1.500			
0.8425	53922.49	3.6000	3.5999	1.2181	25.94	0.00	1.500			
0.8462	54154.88	3.5970	3.5970	1.1999	25.94	0.00	1.500			
0.8497	54383.22	3.5940	3.5940	1.1802	25.94	0.00	1.500			
0.8533	54609.04	3.5910	3.5911	1.1660	25.94	0.00	1.500			
0.8567	54831.24	3.5880	3.5880	1.1535	25.94	0.00	1.500			
0.8601	55049.34	3.5850	3.5850	1.1400	25.94	0.00	1.500			
0.8636	55267.50	3.5820	3.5820	1.1255	25.94	0.00	1.500			
0.8670	55487.35	3.5790	3.5789	1.0936	25.94	0.00	1.500			
0.8703	55699.43	3.5760	3.5760	1.0414	25.94	0.00	1.500			
0.8735	55906.30	3.5730	3.5730	0.9584	25.94	0.00	1.500			
0.8763	56085.20	3.5700	3.5701	0.8460	25.94	0.00	1.500			
0.8787	56238.35	3.5670	3.5671	0.7271	25.94	0.00	1.500			
0.8807	56364.87	3.5640	3.5639	0.6043	25.94	0.00	1.500			
0.8822	56461.40	3.5610	3.5609	0.4962	25.94	0.00	1.500			
0.8835	56541.81	3.5580	3.5580	0.4089	25.94	0.00	1.500			
0.8845	56605.47	3.5550	3.5550	0.3415	25.94	0.00	1.500			
0.8853	56662.21	3.5520	3.5519	0.2938	25.94	0.00	1.500			
0.8861	56711.00	3.5490	3.5488	0.2495	25.94	0.00	1.500			
0.8868	56753.47	3.5460	3.5459	0.2218	25.94	0.00	1.500			
0.8874	56791.66	3.5430	3.5431	0.1995	25.94	0.00	1.500			
0.8879	56827.06	3.5400	3.5400	0.1813	25.94	0.00	1.500			
0.8884	56859.91	3.5370	3.5369	0.1642	25.94	0.00	1.500			
0.8889	56889.45	3.5340	3.5340	0.1495	25.94	0.00	1.500			
0.8893	56916.06	3.5310	3.5310	0.1341	25.94	0.00	1.500			
0.8897	56940.85	3.5280	3.5281	0.1206	25.94	0.00	1.500			
0.8900	56962.66	3.5250	3.5249	0.1065	25.94	0.00	1.500			
0.8903	56981.78	3.5220	3.5220	0.0925	25.94	0.00	1.500			
0.8906	56998.31	3.5190	3.5192	0.0785	25.94	0.00	1.500			
0.8908	57012.00	3.5160	3.5162	0.0642	25.94	0.00	1.500			
0.8910	57023.13	3.5130	3.5134	0.0492	25.94	0.00	1.500			
0.8911	57031.15	3.5100	3.5107	0.0343	25.94	0.00	1.500			
