Ah_balance (normalized)	Ah_balance (mAh)	Voltage - fit (V)	Voltage -  interpolate (V)	dQ/dV (1/V)	Temperature (°C)	Temperature - diff (°C)	Current (C)	R_DC 0ms (mOhm)	R_DC 50ms (mOhm)	R_DC 50 ms PEC (mOhm)
0.2821	18054.52	3.9860	3.9859	0.8732	27.01	1.09	1.500			
0.2847	18219.78	3.9830	3.9830	0.8578	27.00	1.08	1.500			
0.2872	18382.43	3.9800	3.9801	0.8528	26.99	1.07	1.500			
0.2898	18545.73	3.9770	3.9770	0.8539	26.99	1.07	1.500			
0.2923	18708.40	3.9740	3.9739	0.8547	26.98	1.06	1.500			
0.2949	18871.60	3.9710	3.9710	0.8576	26.97	1.05	1.500			
0.2975	19039.31	3.9680	3.9681	0.8613	26.97	1.05	1.500			
0.3001	19206.44	3.9650	3.9649	0.8689	26.96	1.04	1.500			
0.3027	19373.86	3.9620	3.9621	0.8678	26.95	1.03	1.500			
0.3053	19537.88	3.9590	3.9591	0.8697	26.94	1.02	1.500			
0.3079	19705.46	3.9560	3.9559	0.8732	26.94	1.02	1.500			
0.3105	19872.76	3.9530	3.9531	0.8761	26.93	1.01	1.500			
0.3132	20042.17	3.9500	3.9500	0.8822	26.93	1.01	1.500			
0.3158	20213.55	3.9470	3.9471	0.8928	26.92	1.00	1.500			
0.3185	20383.96	3.9440	3.9440	0.8948	26.92	1.00	1.500			
0.3212	20558.21	3.9410	3.9409	0.8994	26.91	0.99	1.500			
0.3239	20730.50	3.9380	3.9380	0.8988	26.91	0.99	1.500			
0.3266	20904.10	3.9350	3.9350	0.9027	26.90	0.98	1.500			
0.3293	21075.99	3.9320	3.9321	0.9082	26.89	0.97	1.500			
0.3321	21251.24	3.9290	3.9289	0.9101	26.89	0.97	1.500			
0.3348	21424.92	3.9260	3.9260	0.9128	26.88	0.96	1.500			
0.3375	21599.54	3.9230	3.9231	0.9202	26.87	0.95	1.500			
0.3403	21778.00	3.9200	3.9200	0.9267	26.87	0.95	1.500			
0.3431	21957.56	3.9170	3.9168	0.9334	26.86	0.94	1.500			
0.3459	22137.98	3.9140	3.9141	0.9347	26.85	0.93	1.500			
0.3487	22316.32	3.9110	3.9110	0.9429	26.84	0.92	1.500			
0.3516	22500.29	3.9080	3.9080	0.9522	26.83	0.91	1.500			
0.3544	22682.79	3.9050	3.9050	0.9575	26.83	0.91	1.500			
0.3573	22865.28	3.9020	3.9020	0.9637	26.82	0.90	1.500			
0.3602	23051.70	3.8990	3.8990	0.9741	26.81	0.89	1.500			
0.3631	23239.32	3.8960	3.8960	0.9831	26.80	0.88	1.500			
0.3661	23429.20	3.8930	3.8930	0.9926	26.80	0.88	1.500			
0.3691	23619.92	3.8900	3.8900	0.9982	26.79	0.87	1.500			
0.3721	23814.55	3.8870	3.8870	1.0069	26.78	0.86	1.500			
0.3751	24007.62	3.8840	3.8840	1.0153	26.78	0.86	1.500			
0.3782	24202.55	3.8810	3.8811	1.0250	26.77	0.85	1.500			
0.3813	24400.62	3.8780	3.8779	1.0352	26.76	0.84	1.500			
0.3844	24599.22	3.8750	3.8751	1.0482	26.75	0.83	1.500			
0.3875	24802.88	3.8720	3.8720	1.0582	26.74	0.82	1.500			
0.3907	25007.44	3.8690	3.8690	1.0730	26.73	0.81	1.500			
0.3940	25214.80	3.8660	3.8660	1.0815	26.72	0.80	1.500			
0.3972	25423.79	3.8630	3.8630	1.0910	26.70	0.78	1.500			
0.4005	25633.95	3.8600	3.8599	1.1039	26.69	0.77	1.500			
0.4039	25846.53	3.8570	3.8571	1.1225	26.68	0.76	1.500			
0.4072	26061.91	3.8540	3.8540	1.1372	26.67	0.75	1.500			
0.4107	26282.90	3.8510	3.8509	1.1555	26.66	0.74	1.500			
0.4141	26504.86	3.8480	3.8481	1.1739	26.65	0.73	1.500			
0.4177	26734.54	3.8450	3.8450	1.1892	26.63	0.71	1.500			
0.4213	26965.11	3.8420	3.8419	1.2092	26.62	0.70	1.500			
0.4249	27196.78	3.8390	3.8391	1.2286	26.61	0.69	1.500			
0.4286	27433.57	3.8360	3.8360	1.2542	26.60	0.68	1.500			
0.4325	27677.45	3.8330	3.8330	1.2774	26.59	0.67	1.500			
0.4363	27926.21	3.8300	3.8300	1.3003	26.58	0.66	1.500			
0.4403	28177.59	3.8270	3.8270	1.3245	26.57	0.65	1.500			
0.4443	28435.36	3.8240	3.8240	1.3531	26.55	0.63	1.500			
0.4484	28695.31	3.8210	3.8210	1.3781	26.54	0.62	1.500			
0.4525	28962.01	3.8180	3.8180	1.4045	26.53	0.61	1.500			
0.4568	29235.58	3.8150	3.8149	1.4296	26.52	0.60	1.500			
0.4612	29513.71	3.8120	3.8120	1.4618	26.51	0.59	1.500			
0.4656	29797.66	3.8090	3.8090	1.4883	26.49	0.57	1.500			
0.4700	30082.98	3.8060	3.8060	1.5224	26.48	0.56	1.500			
0.4747	30379.15	3.8030	3.8030	1.5514	26.46	0.54	1.500			
0.4794	30679.25	3.8000	3.8000	1.5850	26.45	0.53	1.500			
0.4842	30987.52	3.7970	3.7971	1.6249	26.43	0.51	1.500			
0.4891	31305.45	3.7940	3.7940	1.6607	26.42	0.50	1.500			
0.4942	31626.18	3.7910	3.7909	1.6901	26.40	0.48	1.500			
0.4993	31955.43	3.7880	3.7880	1.7052	26.38	0.46	1.500			
0.5045	32287.05	3.7850	3.7850	1.7222	26.37	0.45	1.500			
0.5097	32621.13	3.7820	3.7820	1.7561	26.35	0.43	1.500			
0.5149	32956.66	3.7790	3.7790	1.7878	26.33	0.41	1.500			
0.5203	33300.33	3.7760	3.7759	1.7989	26.32	0.40	1.500			
0.5258	33649.89	3.7730	3.7731	1.8226	26.30	0.38	1.500	0.355	0.468	
0.5314	34006.86	3.7700	3.7699	1.8422	26.28	0.36	1.500			
0.5369	34361.16	3.7670	3.7670	1.8212	26.27	0.35	1.500			
0.5423	34709.14	3.7640	3.7640	1.8145	26.25	0.33	1.500			
0.5478	35057.94	3.7610	3.7610	1.8042	26.24	0.32	1.500			
0.5532	35402.66	3.7580	3.7579	1.8002	26.23	0.31	1.500			
0.5585	35745.37	3.7550	3.7550	1.7974	26.22	0.30	1.500			
0.5639	36090.62	3.7520	3.7520	1.8014	26.20	0.28	1.500			
0.5693	36436.50	3.7490	3.7490	1.8167	26.19	0.27	1.500			
0.5747	36781.02	3.7460	3.7460	1.8241	26.18	0.26	1.500			
0.5802	37134.17	3.7430	3.7429	1.8516	26.16	0.24	1.500			
0.5858	37492.04	3.7400	3.7400	1.8755	26.15	0.23	1.500			
0.5915	37855.99	3.7370	3.7370	1.9065	26.14	0.22	1.500			
0.5972	38223.25	3.7340	3.7340	1.9437	26.14	0.22	1.500			
0.6031	38598.47	3.7310	3.7310	1.9900	26.13	0.21	1.500			
0.6092	38986.88	3.7280	3.7280	2.0480	26.12	0.20	1.500			
0.6154	39386.38	3.7250	3.7250	2.0993	26.11	0.19	1.500			
0.6218	39795.08	3.7220	3.7220	2.1669	26.10	0.18	1.500			
0.6284	40215.69	3.7190	3.7190	2.2272	26.09	0.17	1.500			
0.6352	40650.59	3.7160	3.7160	2.2898	26.07	0.15	1.500			
0.6422	41098.79	3.7130	3.7130	2.3468	26.06	0.14	1.500			
0.6493	41553.20	3.7100	3.7100	2.3997	26.05	0.13	1.500			
0.6565	42017.29	3.7070	3.7068	2.4480	26.04	0.12	1.500			
0.6639	42491.88	3.7040	3.7040	2.4846	26.03	0.11	1.500			
0.6715	42978.19	3.7010	3.7010	2.4017	26.02	0.10	1.500			
0.6787	43436.09	3.6980	3.6980	2.3050	26.01	0.09	1.500			
0.6855	43869.36	3.6950	3.6950	2.1703	26.01	0.09	1.500			
0.6917	44271.37	3.6920	3.6920	2.0072	26.00	0.08	1.500			
0.6975	44641.58	3.6890	3.6891	1.8570	26.00	0.08	1.500			
0.7027	44973.83	3.6860	3.6860	1.7044	25.99	0.07	1.500			
0.7076	45288.03	3.6830	3.6830	1.5976	25.99	0.07	1.500			
0.7122	45579.20	3.6800	3.6800	1.5101	25.98	0.06	1.500			
0.7165	45855.53	3.6770	3.6770	1.4372	25.98	0.06	1.500			
0.7207	46123.31	3.6740	3.6740	1.3788	25.97	0.05	1.500			
0.7247	46379.25	3.6710	3.6710	1.3284	25.97	0.05	1.500			
0.7286	46628.37	3.6680	3.6680	1.2928	25.96	0.04	1.500			
0.7323	46868.48	3.6650	3.6651	1.2657	25.96	0.04	1.500			
0.7361	47107.42	3.6620	3.6619	1.2510	25.96	0.04	1.500			
0.7397	47342.41	3.6590	3.6590	1.2505	25.95	0.03	1.500			
0.7435	47582.75	3.6560	3.6559	1.2518	25.95	0.03	1.500			
0.7472	47822.94	3.6530	3.6530	1.2628	25.95	0.03	1.500			
0.7511	48067.34	3.6500	3.6500	1.2740	25.94	0.02	1.500			
0.7549	48313.57	3.6470	3.6470	1.2798	25.94	0.02	1.500			
0.7588	48561.74	3.6440	3.6441	1.2840	25.94	0.02	1.500			
0.7626	48809.50	3.6410	3.6410	1.2820	25.93	0.01	1.500			
0.7665	49055.08	3.6380	3.6381	1.2778	25.93	0.01	1.500			
0.7703	49301.91	3.6350	3.6350	1.2750	25.92	0.00	1.500			
0.7741	49543.83	3.6320	3.6320	1.2691	25.92	-0.00	1.500			
0.7779	49786.78	3.6290	3.6290	1.2644	25.91	-0.01	1.500			
0.7817	50029.58	3.6260	3.6260	1.2610	25.91	-0.01	1.500			
0.7855	50270.99	3.6230	3.6230	1.2558	25.91	-0.01	1.500			
0.7893	50513.42	3.6200	3.6200	1.2533	25.91	-0.01	1.500			
0.7930	50752.83	3.6170	3.6170	1.2450	25.91	-0.01	1.500			
0.7968	50992.33	3.6140	3.6139	1.2375	25.90	-0.02	1.500			
0.8004	51228.44	3.6110	3.6110	1.2269	25.90	-0.02	1.500			
0.8041	51464.48	3.6080	3.6080	1.2148	25.90	-0.02	1.500			
0.8078	51696.51	3.6050	3.6050	1.2005	25.90	-0.02	1.500			
0.8114	51926.77	3.6020	3.6020	1.1846	25.90	-0.02	1.500			
0.8149	52152.73	3.5990	3.5990	1.1652	25.91	-0.01	1.500			
0.8183	52374.33	3.5960	3.5960	1.1476	25.91	-0.01	1.500			
0.8218	52592.11	3.5930	3.5930	1.1310	25.91	-0.01	1.500			
0.8251	52808.22	3.5900	3.5900	1.1095	25.91	-0.01	1.500			
0.8285	53022.41	3.5870	3.5869	1.0813	25.92	-0.00	1.500			
0.8317	53230.52	3.5840	3.5840	1.0445	25.92	0.00	1.500			
0.8349	53432.78	3.5810	3.5810	0.9778	25.92	0.00	1.500			
0.8378	53621.36	3.5780	3.5780	0.9045	25.92	0.00	1.500			
0.8405	53789.13	3.5750	3.5750	0.7992	25.93	0.01	1.500			
0.8427	53933.37	3.5720	3.5721	0.6888	25.93	0.01	1.500			
0.8446	54052.48	3.5690	3.5690	0.5859	25.93	0.01	1.500			
0.8461	54150.95	3.5660	3.5660	0.4864	25.93	0.01	1.500			
0.8473	54229.64	3.5630	3.5629	0.4023	25.93	0.01	1.500			
0.8484	54296.74	3.5600	3.5599	0.3431	25.93	0.01	1.500			
0.8493	54352.13	3.5570	3.5571	0.2913	25.93	0.01	1.500			
0.8500	54402.08	3.5540	3.5539	0.2567	25.93	0.01	1.500			
0.8507	54445.88	3.5510	3.5510	0.2235	25.94	0.02	1.500			
0.8513	54484.32	3.5480	3.5479	0.2014	25.94	0.02	1.500			
0.8519	54519.76	3.5450	3.5451	0.1817	25.94	0.02	1.500			
0.8524	54553.00	3.5420	3.5420	0.1654	25.94	0.02	1.500			
0.8529	54583.01	3.5390	3.5389	0.1507	25.94	0.02	1.500			
0.8533	54610.25	3.5360	3.5361	0.1355	25.94	0.02	1.500			
0.8537	54634.75	3.5330	3.5330	0.1209	25.94	0.02	1.500			
0.8540	54656.61	3.5300	3.5299	0.1067	25.94	0.02	1.500			
0.8543	54675.72	3.5270	3.5271	0.0924	25.94	0.02	1.500			
0.8546	54691.78	3.5240	3.5242	0.0779	25.94	0.02	1.500			
0.8548	54706.14	3.5210	3.5212	0.0638	25.94	0.02	1.500			
0.8550	54716.92	3.5180	3.5185	0.0485	25.94	0.02	1.500			
0.8551	54724.77	3.5150	3.5160	0.0332	25.94	0.02	1.500			
