Ah_balance (normalized)	Ah_balance (mAh)	Voltage - fit (V)	Voltage -  interpolate (V)	dQ/dV (1/V)	Temperature (°C)	Temperature - diff (°C)	Current (C)	R_DC 0ms (mOhm)	R_DC 50ms (mOhm)	R_DC 50 ms PEC (mOhm)
0.1984	12694.96	3.9280	3.9274	-0.0915	25.88	-0.00	-1.500			
0.1987	12714.92	3.9250	3.9247	-0.1165	25.88	-0.00	-1.500			
0.1991	12739.75	3.9220	3.9218	-0.1413	25.88	-0.00	-1.500			
0.1995	12769.43	3.9190	3.9192	-0.1656	25.88	-0.00	-1.500			
0.2001	12803.77	3.9160	3.9160	-0.1889	25.88	-0.00	-1.500			
0.2007	12842.35	3.9130	3.9129	-0.2119	25.88	-0.00	-1.500			
0.2013	12885.80	3.9100	3.9100	-0.2362	25.88	-0.00	-1.500			
0.2021	12933.35	3.9070	3.9071	-0.2574	25.88	-0.00	-1.500			
0.2029	12985.62	3.9040	3.9039	-0.2799	25.88	-0.00	-1.500			
0.2038	13041.03	3.9010	3.9010	-0.3027	25.88	-0.00	-1.500			
0.2047	13101.41	3.8980	3.8981	-0.3230	25.88	-0.00	-1.500			
0.2057	13165.63	3.8950	3.8949	-0.3431	25.88	-0.00	-1.500			
0.2068	13233.86	3.8920	3.8921	-0.3623	25.88	-0.00	-1.500			
0.2079	13304.66	3.8890	3.8893	-0.3826	25.88	-0.00	-1.500			
0.2091	13380.53	3.8860	3.8859	-0.4024	25.88	0.00	-1.500			
0.2103	13460.26	3.8830	3.8830	-0.4194	25.88	0.00	-1.500			
0.2116	13542.13	3.8800	3.8801	-0.4362	25.88	0.00	-1.500			
0.2130	13628.95	3.8770	3.8770	-0.4531	25.88	0.00	-1.500			
0.2143	13716.77	3.8740	3.8740	-0.4693	25.88	0.00	-1.500			
0.2158	13808.19	3.8710	3.8710	-0.4818	25.88	0.00	-1.500			
0.2172	13901.66	3.8680	3.8680	-0.4941	25.88	0.00	-1.500			
0.2187	13998.73	3.8650	3.8650	-0.5081	25.88	0.00	-1.500			
0.2203	14097.69	3.8620	3.8620	-0.5199	25.88	0.00	-1.500			
0.2219	14198.63	3.8590	3.8591	-0.5313	25.89	0.01	-1.500			
0.2235	14302.19	3.8560	3.8559	-0.5422	25.89	0.01	-1.500			
0.2251	14407.13	3.8530	3.8530	-0.5500	25.89	0.01	-1.500			
0.2268	14514.62	3.8500	3.8500	-0.5618	25.89	0.01	-1.500			
0.2285	14623.33	3.8470	3.8469	-0.5677	25.89	0.01	-1.500			
0.2302	14733.42	3.8440	3.8440	-0.5716	25.89	0.01	-1.500			
0.2319	14843.18	3.8410	3.8410	-0.5765	25.89	0.01	-1.500			
0.2337	14954.29	3.8380	3.8380	-0.5791	25.89	0.01	-1.500			
0.2354	15065.50	3.8350	3.8351	-0.5860	25.90	0.02	-1.500			
0.2372	15178.63	3.8320	3.8320	-0.5902	25.90	0.02	-1.500			
0.2389	15292.68	3.8290	3.8290	-0.5944	25.90	0.02	-1.500			
0.2407	15407.77	3.8260	3.8260	-0.6012	25.91	0.03	-1.500			
0.2426	15524.10	3.8230	3.8230	-0.6044	25.91	0.03	-1.500			
0.2444	15640.00	3.8200	3.8200	-0.6066	25.91	0.03	-1.500			
0.2462	15757.47	3.8170	3.8170	-0.6080	25.92	0.04	-1.500			
0.2480	15873.74	3.8140	3.8140	-0.6065	25.92	0.04	-1.500			
0.2499	15991.08	3.8110	3.8110	-0.6086	25.92	0.04	-1.500			
0.2517	16107.33	3.8080	3.8080	-0.6085	25.93	0.05	-1.500			
0.2535	16223.10	3.8050	3.8050	-0.6098	25.93	0.05	-1.500			
0.2553	16340.70	3.8020	3.8019	-0.6138	25.93	0.05	-1.500			
0.2572	16458.32	3.7990	3.7990	-0.6178	25.94	0.06	-1.500			
0.2590	16578.09	3.7960	3.7961	-0.6230	25.94	0.06	-1.500			
0.2609	16698.53	3.7930	3.7930	-0.6262	25.95	0.07	-1.500			
0.2628	16819.35	3.7900	3.7900	-0.6273	25.95	0.07	-1.500			
0.2647	16939.62	3.7870	3.7870	-0.6276	25.96	0.08	-1.500			
0.2666	17060.06	3.7840	3.7840	-0.6299	25.96	0.08	-1.500			
0.2685	17181.09	3.7810	3.7810	-0.6318	25.97	0.09	-1.500			
0.2703	17301.96	3.7780	3.7780	-0.6353	25.97	0.09	-1.500			
0.2723	17424.12	3.7750	3.7750	-0.6399	25.97	0.09	-1.500			
0.2742	17547.21	3.7720	3.7720	-0.6462	25.98	0.10	-1.500			
0.2761	17672.15	3.7690	3.7690	-0.6502	25.98	0.10	-1.500			
0.2781	17797.74	3.7660	3.7660	-0.6541	25.99	0.11	-1.500			
0.2801	17924.14	3.7630	3.7630	-0.6570	25.99	0.11	-1.500			
0.2820	18051.07	3.7600	3.7600	-0.6590	26.00	0.12	-1.500			
0.2840	18177.11	3.7570	3.7571	-0.6618	26.00	0.12	-1.500			
0.2860	18304.08	3.7540	3.7540	-0.6667	26.01	0.13	-1.500			
0.2880	18431.93	3.7510	3.7510	-0.6689	26.01	0.13	-1.500			
0.2900	18560.65	3.7480	3.7480	-0.6738	26.02	0.14	-1.500			
0.2920	18689.63	3.7450	3.7450	-0.6823	26.02	0.14	-1.500			
0.2941	18822.21	3.7420	3.7420	-0.6877	26.03	0.15	-1.500			
0.2962	18955.12	3.7390	3.7389	-0.6921	26.03	0.15	-1.500			
0.2983	19088.48	3.7360	3.7361	-0.6963	26.04	0.16	-1.500			
0.3004	19222.69	3.7330	3.7330	-0.7040	26.04	0.16	-1.500			
0.3025	19358.85	3.7300	3.7300	-0.7118	26.05	0.17	-1.500			
0.3046	19496.46	3.7270	3.7270	-0.7124	26.05	0.17	-1.500			
0.3068	19632.00	3.7240	3.7240	-0.7165	26.06	0.18	-1.500			
0.3089	19770.80	3.7210	3.7211	-0.7255	26.06	0.18	-1.500			
0.3111	19909.88	3.7180	3.7180	-0.7313	26.07	0.19	-1.500			
0.3133	20050.74	3.7150	3.7149	-0.7356	26.07	0.19	-1.500			
0.3155	20192.18	3.7120	3.7121	-0.7400	26.08	0.20	-1.500			
0.3177	20334.80	3.7090	3.7089	-0.7507	26.08	0.20	-1.500			
0.3200	20481.07	3.7060	3.7061	-0.7618	26.09	0.21	-1.500			
0.3223	20627.45	3.7030	3.7029	-0.7654	26.09	0.21	-1.500			
0.3246	20773.85	3.7000	3.7000	-0.7775	26.10	0.22	-1.500			
0.3270	20925.66	3.6970	3.6971	-0.7859	26.11	0.23	-1.500			
0.3293	21077.82	3.6940	3.6939	-0.7942	26.11	0.23	-1.500			
0.3317	21230.45	3.6910	3.6910	-0.8018	26.12	0.24	-1.500			
0.3341	21384.27	3.6880	3.6880	-0.8076	26.12	0.24	-1.500			
0.3366	21540.78	3.6850	3.6849	-0.8151	26.13	0.25	-1.500			
0.3390	21698.32	3.6820	3.6820	-0.8233	26.13	0.25	-1.500			
0.3415	21855.17	3.6790	3.6790	-0.8289	26.13	0.25	-1.500			
0.3440	22016.75	3.6760	3.6760	-0.8404	26.14	0.26	-1.500			
0.3465	22178.69	3.6730	3.6730	-0.8470	26.14	0.26	-1.500			
0.3491	22341.77	3.6700	3.6700	-0.8565	26.15	0.27	-1.500			
0.3517	22507.72	3.6670	3.6670	-0.8657	26.15	0.27	-1.500			
0.3543	22674.46	3.6640	3.6639	-0.8759	26.15	0.27	-1.500			
0.3569	22842.27	3.6610	3.6611	-0.8877	26.16	0.28	-1.500			
0.3596	23014.32	3.6580	3.6579	-0.8980	26.16	0.28	-1.500			
0.3623	23188.35	3.6550	3.6549	-0.9083	26.17	0.29	-1.500			
0.3651	23363.60	3.6520	3.6520	-0.9173	26.17	0.29	-1.500			
0.3678	23539.28	3.6490	3.6491	-0.9274	26.18	0.30	-1.500			
0.3706	23720.29	3.6460	3.6460	-0.9381	26.18	0.30	-1.500			
0.3735	23901.44	3.6430	3.6429	-0.9472	26.18	0.30	-1.500			
0.3763	24083.32	3.6400	3.6400	-0.9542	26.19	0.31	-1.500			
0.3792	24267.89	3.6370	3.6370	-0.9696	26.19	0.31	-1.500			
0.3821	24455.51	3.6340	3.6341	-0.9804	26.20	0.32	-1.500			
0.3851	24645.19	3.6310	3.6308	-0.9868	26.20	0.32	-1.500			
0.3880	24833.58	3.6280	3.6280	-0.9952	26.21	0.33	-1.500			
0.3910	25025.79	3.6250	3.6251	-1.0098	26.21	0.33	-1.500			
0.3941	25221.16	3.6220	3.6220	-1.0187	26.22	0.34	-1.500			
0.3971	25417.42	3.6190	3.6189	-1.0331	26.22	0.34	-1.500			
0.4003	25616.99	3.6160	3.6161	-1.0428	26.23	0.35	-1.500			
0.4034	25819.23	3.6130	3.6130	-1.0589	26.23	0.35	-1.500			
0.4066	26024.09	3.6100	3.6100	-1.0712	26.24	0.36	-1.500			
0.4098	26230.02	3.6070	3.6070	-1.0817	26.24	0.36	-1.500			
0.4131	26439.31	3.6040	3.6040	-1.0950	26.25	0.37	-1.500			
0.4164	26651.17	3.6010	3.6010	-1.1135	26.26	0.38	-1.500			
0.4198	26864.29	3.5980	3.5980	-1.1288	26.26	0.38	-1.500			
0.4232	27085.62	3.5950	3.5949	-1.1443	26.27	0.39	-1.500			
0.4267	27305.83	3.5920	3.5920	-1.1598	26.28	0.40	-1.500			
0.4302	27531.27	3.5890	3.5890	-1.1739	26.28	0.40	-1.500			
0.4337	27758.03	3.5860	3.5860	-1.1832	26.29	0.41	-1.500			
0.4373	27986.93	3.5830	3.5831	-1.1951	26.30	0.42	-1.500			
0.4409	28215.29	3.5800	3.5800	-1.2080	26.30	0.42	-1.500			
0.4445	28447.71	3.5770	3.5770	-1.2288	26.30	0.42	-1.500			
0.4482	28685.26	3.5740	3.5740	-1.2489	26.31	0.43	-1.500			
0.4519	28924.25	3.5710	3.5710	-1.2716	26.31	0.43	-1.500			
0.4558	29173.61	3.5680	3.5680	-1.2930	26.32	0.44	-1.500			
0.4598	29424.71	3.5650	3.5650	-1.3118	26.32	0.44	-1.500			
0.4637	29679.19	3.5620	3.5620	-1.3264	26.32	0.44	-1.500			
0.4677	29935.45	3.5590	3.5590	-1.3383	26.33	0.45	-1.500			
0.4718	30192.94	3.5560	3.5560	-1.3579	26.33	0.45	-1.500			
0.4759	30455.33	3.5530	3.5530	-1.3777	26.33	0.45	-1.500			
0.4800	30720.03	3.5500	3.5500	-1.3925	26.34	0.46	-1.500			
0.4842	30990.39	3.5470	3.5470	-1.4173	26.34	0.46	-1.500			
0.4885	31265.33	3.5440	3.5440	-1.4337	26.35	0.47	-1.500			
0.4928	31542.27	3.5410	3.5410	-1.4545	26.36	0.48	-1.500			
0.4972	31821.25	3.5380	3.5380	-1.4652	26.36	0.48	-1.500			
0.5017	32106.54	3.5350	3.5350	-1.4854	26.37	0.49	-1.500			
0.5061	32392.42	3.5320	3.5320	-1.5032	26.38	0.50	-1.500			
0.5107	32684.38	3.5290	3.5288	-1.5171	26.38	0.50	-1.500			
0.5153	32977.36	3.5260	3.5260	-1.5290	26.39	0.51	-1.500			
0.5199	33272.64	3.5230	3.5229	-1.5505	26.40	0.52	-1.500	0.373	0.551	
0.5246	33571.39	3.5200	3.5200	-1.5599	26.41	0.53	-1.500			
0.5293	33874.05	3.5170	3.5169	-1.5737	26.41	0.53	-1.500			
0.5340	34174.58	3.5140	3.5141	-1.5853	26.42	0.54	-1.500			
0.5388	34480.31	3.5110	3.5110	-1.5995	26.43	0.55	-1.500			
0.5436	34789.98	3.5080	3.5080	-1.6082	26.44	0.56	-1.500			
0.5484	35100.40	3.5050	3.5049	-1.6147	26.44	0.56	-1.500			
0.5533	35412.92	3.5020	3.5021	-1.6196	26.45	0.57	-1.500			
0.5582	35724.98	3.4990	3.4991	-1.6188	26.46	0.58	-1.500			
0.5630	36034.97	3.4960	3.4960	-1.6219	26.47	0.59	-1.500			
0.5679	36344.56	3.4930	3.4930	-1.6356	26.48	0.60	-1.500			
0.5728	36659.27	3.4900	3.4899	-1.6289	26.50	0.62	-1.500			
0.5777	36974.86	3.4870	3.4870	-1.6356	26.51	0.63	-1.500			
0.5826	37288.55	3.4840	3.4842	-1.6299	26.52	0.64	-1.500			
0.5876	37604.87	3.4810	3.4809	-1.6322	26.53	0.65	-1.500			
0.5924	37916.51	3.4780	3.4780	-1.6241	26.55	0.67	-1.500			
0.5973	38224.15	3.4750	3.4750	-1.6025	26.56	0.68	-1.500			
0.6021	38532.96	3.4720	3.4720	-1.6007	26.57	0.69	-1.500			
0.6069	38842.65	3.4690	3.4690	-1.5892	26.59	0.71	-1.500			
0.6116	39145.34	3.4660	3.4660	-1.5666	26.60	0.72	-1.500			
0.6163	39442.26	3.4630	3.4630	-1.5532	26.62	0.74	-1.500			
0.6209	39739.00	3.4600	3.4600	-1.5340	26.63	0.75	-1.500			
0.6255	40031.35	3.4570	3.4570	-1.5217	26.65	0.77	-1.500			
0.6301	40323.53	3.4540	3.4539	-1.5063	26.66	0.78	-1.500			
0.6345	40609.69	3.4510	3.4511	-1.4859	26.68	0.80	-1.500			
0.6390	40896.00	3.4480	3.4480	-1.4704	26.69	0.81	-1.500			
0.6434	41174.87	3.4450	3.4450	-1.4563	26.71	0.83	-1.500			
0.6477	41453.26	3.4420	3.4420	-1.4291	26.72	0.84	-1.500			
0.6520	41728.02	3.4390	3.4389	-1.4112	26.74	0.86	-1.500			
0.6562	41996.05	3.4360	3.4360	-1.3878	26.75	0.87	-1.500			
0.6603	42261.55	3.4330	3.4330	-1.3677	26.77	0.89	-1.500			
0.6644	42520.12	3.4300	3.4299	-1.3446	26.79	0.91	-1.500			
0.6684	42775.08	3.4270	3.4270	-1.3306	26.81	0.93	-1.500			
0.6723	43026.96	3.4240	3.4240	-1.3110	26.83	0.95	-1.500			
0.6763	43282.72	3.4210	3.4209	-1.3063	26.84	0.96	-1.500			
0.6802	43531.55	3.4180	3.4181	-1.2819	26.86	0.98	-1.500			
0.6840	43777.25	3.4150	3.4151	-1.2586	26.88	1.00	-1.500			
0.6878	44016.82	3.4120	3.4120	-1.2337	26.89	1.01	-1.500			
0.6914	44248.90	3.4090	3.4090	-1.2044	26.91	1.03	-1.500			
0.6949	44476.49	3.4060	3.4061	-1.1819	26.92	1.04	-1.500			
0.6985	44702.65	3.4030	3.4030	-1.1617	26.94	1.06	-1.500			
0.7020	44925.45	3.4000	3.3999	-1.1357	26.95	1.07	-1.500			
0.7053	45141.50	3.3970	3.3971	-1.1072	26.97	1.09	-1.500			
0.7086	45351.74	3.3940	3.3940	-1.0761	26.98	1.10	-1.500			
0.7118	45555.87	3.3910	3.3910	-1.0439	27.00	1.12	-1.500			
0.7149	45753.48	3.3880	3.3880	-1.0104	27.02	1.14	-1.500			
0.7178	45941.91	3.3850	3.3850	-0.9785	27.03	1.15	-1.500			
0.7207	46127.91	3.3820	3.3820	-0.9527	27.05	1.17	-1.500			
0.7236	46307.81	3.3790	3.3790	-0.9263	27.06	1.18	-1.500			
0.7263	46483.78	3.3760	3.3761	-0.8928	27.08	1.20	-1.500			
0.7289	46651.84	3.3730	3.3730	-0.8658	27.09	1.21	-1.500			
0.7315	46815.48	3.3700	3.3700	-0.8372	27.10	1.22	-1.500			
0.7339	46972.63	3.3670	3.3669	-0.8136	27.11	1.23	-1.500			
0.7363	47124.70	3.3640	3.3640	-0.7868	27.13	1.25	-1.500			
0.7386	47273.57	3.3610	3.3610	-0.7642	27.14	1.26	-1.500			
0.7409	47418.51	3.3580	3.3580	-0.7456	27.15	1.27	-1.500			
0.7431	47560.95	3.3550	3.3550	-0.7283	27.16	1.28	-1.500			
0.7453	47697.40	3.3520	3.3520	-0.7049	27.17	1.29	-1.500			
0.7474	47831.54	3.3490	3.3490	-0.6875	27.17	1.29	-1.500			
0.7494	47960.20	3.3460	3.3460	-0.6658	27.18	1.30	-1.500			
0.7514	48087.58	3.3430	3.3430	-0.6486	27.19	1.31	-1.500			
0.7533	48209.90	3.3400	3.3400	-0.6313	27.20	1.32	-1.500			
0.7551	48328.51	3.3370	3.3370	-0.6146	27.21	1.33	-1.500			
0.7570	48444.93	3.3340	3.3340	-0.5978	27.21	1.33	-1.500			
0.7587	48558.11	3.3310	3.3309	-0.5845	27.22	1.34	-1.500			
0.7605	48668.86	3.3280	3.3280	-0.5692	27.22	1.34	-1.500			
0.7621	48777.03	3.3250	3.3250	-0.5556	27.23	1.35	-1.500			
0.7638	48882.57	3.3220	3.3219	-0.5436	27.24	1.36	-1.500			
0.7654	48985.18	3.3190	3.3190	-0.5289	27.25	1.37	-1.500			
0.7670	49085.11	3.3160	3.3160	-0.5147	27.26	1.38	-1.500			
0.7685	49183.47	3.3130	3.3130	-0.5006	27.27	1.39	-1.500			
0.7700	49277.27	3.3100	3.3100	-0.4891	27.28	1.40	-1.500			
0.7714	49370.53	3.3070	3.3070	-0.4775	27.29	1.41	-1.500			
0.7728	49460.30	3.3040	3.3040	-0.4657	27.30	1.42	-1.500			
0.7742	49548.29	3.3010	3.3010	-0.4555	27.30	1.42	-1.500			
0.7756	49635.44	3.2980	3.2981	-0.4443	27.31	1.43	-1.500			
0.7769	49719.82	3.2950	3.2950	-0.4337	27.32	1.44	-1.500			
0.7782	49802.27	3.2920	3.2920	-0.4244	27.33	1.45	-1.500			
0.7794	49881.62	3.2890	3.2889	-0.4128	27.33	1.45	-1.500			
0.7806	49960.35	3.2860	3.2860	-0.4042	27.34	1.46	-1.500			
0.7818	50036.66	3.2830	3.2830	-0.3944	27.34	1.46	-1.500			
0.7830	50111.36	3.2800	3.2800	-0.3874	27.35	1.47	-1.500			
0.7841	50185.23	3.2770	3.2771	-0.3814	27.36	1.48	-1.500			
0.7853	50257.71	3.2740	3.2739	-0.3714	27.37	1.49	-1.500			
0.7864	50328.28	3.2710	3.2710	-0.3629	27.37	1.49	-1.500			
0.7875	50397.38	3.2680	3.2680	-0.3539	27.38	1.50	-1.500			
0.7885	50464.45	3.2650	3.2650	-0.3453	27.39	1.51	-1.500			
0.7895	50529.66	3.2620	3.2620	-0.3367	27.39	1.51	-1.500			
0.7905	50592.77	3.2590	3.2590	-0.3292	27.40	1.52	-1.500			
0.7915	50654.85	3.2560	3.2560	-0.3232	27.40	1.52	-1.500			
0.7924	50716.77	3.2530	3.2530	-0.3196	27.41	1.53	-1.500			
0.7934	50777.82	3.2500	3.2500	-0.3135	27.42	1.54	-1.500			
0.7943	50837.62	3.2470	3.2471	-0.3086	27.42	1.54	-1.500			
0.7953	50896.69	3.2440	3.2439	-0.3021	27.43	1.55	-1.500			
0.7962	50954.36	3.2410	3.2410	-0.2949	27.43	1.55	-1.500			
0.7970	51009.30	3.2380	3.2380	-0.2892	27.44	1.56	-1.500			
0.7979	51064.05	3.2350	3.2350	-0.2849	27.45	1.57	-1.500			
0.7987	51118.53	3.2320	3.2321	-0.2801	27.45	1.57	-1.500			
0.7996	51172.25	3.2290	3.2290	-0.2761	27.46	1.58	-1.500			
0.8004	51224.89	3.2260	3.2261	-0.2717	27.46	1.58	-1.500			
0.8012	51277.03	3.2230	3.2230	-0.2679	27.47	1.59	-1.500			
0.8020	51328.16	3.2200	3.2200	-0.2630	27.48	1.60	-1.500			
0.8028	51377.11	3.2170	3.2170	-0.2576	27.48	1.60	-1.500			
0.8035	51425.62	3.2140	3.2140	-0.2541	27.49	1.61	-1.500			
0.8043	51474.58	3.2110	3.2110	-0.2509	27.49	1.61	-1.500			
0.8050	51522.67	3.2080	3.2079	-0.2482	27.50	1.62	-1.500			
0.8058	51570.16	3.2050	3.2050	-0.2445	27.50	1.62	-1.500			
0.8065	51616.69	3.2020	3.2021	-0.2404	27.51	1.63	-1.500			
0.8072	51662.31	3.1990	3.1990	-0.2372	27.52	1.64	-1.500			
0.8079	51707.58	3.1960	3.1960	-0.2336	27.52	1.64	-1.500			
0.8086	51751.64	3.1930	3.1930	-0.2300	27.53	1.65	-1.500			
0.8093	51795.36	3.1900	3.1899	-0.2265	27.53	1.65	-1.500			
0.8100	51838.89	3.1870	3.1870	-0.2246	27.54	1.66	-1.500			
0.8107	51881.72	3.1840	3.1841	-0.2215	27.55	1.67	-1.500			
0.8113	51923.89	3.1810	3.1810	-0.2192	27.55	1.67	-1.500			
0.8120	51965.53	3.1780	3.1781	-0.2171	27.56	1.68	-1.500			
0.8126	52007.10	3.1750	3.1749	-0.2138	27.56	1.68	-1.500			
0.8132	52047.93	3.1720	3.1720	-0.2115	27.57	1.69	-1.500			
0.8139	52088.53	3.1690	3.1690	-0.2089	27.57	1.69	-1.500			
0.8145	52128.46	3.1660	3.1660	-0.2067	27.58	1.70	-1.500			
0.8151	52167.59	3.1630	3.1630	-0.2042	27.58	1.70	-1.500			
0.8157	52206.57	3.1600	3.1599	-0.2019	27.59	1.71	-1.500			
0.8163	52244.86	3.1570	3.1570	-0.1994	27.60	1.72	-1.500			
0.8169	52282.61	3.1540	3.1540	-0.1978	27.60	1.72	-1.500			
0.8175	52320.73	3.1510	3.1510	-0.1972	27.61	1.73	-1.500			
0.8181	52358.52	3.1480	3.1481	-0.1956	27.61	1.73	-1.500			
0.8187	52395.93	3.1450	3.1449	-0.1940	27.62	1.74	-1.500			
0.8193	52433.05	3.1420	3.1420	-0.1922	27.62	1.74	-1.500			
0.8198	52470.06	3.1390	3.1390	-0.1899	27.63	1.75	-1.500			
0.8204	52506.36	3.1360	3.1360	-0.1871	27.63	1.75	-1.500			
0.8210	52542.37	3.1330	3.1330	-0.1845	27.64	1.76	-1.500			
0.8215	52577.12	3.1300	3.1301	-0.1821	27.65	1.77	-1.500			
0.8221	52611.46	3.1270	3.1270	-0.1804	27.65	1.77	-1.500			
0.8226	52645.66	3.1240	3.1240	-0.1787	27.66	1.78	-1.500			
0.8231	52679.92	3.1210	3.1209	-0.1784	27.66	1.78	-1.500			
0.8237	52714.02	3.1180	3.1180	-0.1771	27.67	1.79	-1.500			
0.8242	52748.47	3.1150	3.1149	-0.1762	27.67	1.79	-1.500			
0.8247	52782.52	3.1120	3.1121	-0.1751	27.68	1.80	-1.500			
0.8252	52815.72	3.1090	3.1090	-0.1737	27.68	1.80	-1.500			
0.8258	52848.87	3.1060	3.1060	-0.1719	27.69	1.81	-1.500			
0.8263	52881.61	3.1030	3.1030	-0.1699	27.70	1.82	-1.500			
0.8268	52914.09	3.1000	3.0999	-0.1684	27.70	1.82	-1.500			
0.8273	52946.20	3.0970	3.0972	-0.1668	27.71	1.83	-1.500			
0.8278	52978.13	3.0940	3.0940	-0.1656	27.71	1.83	-1.500			
0.8283	53009.72	3.0910	3.0911	-0.1646	27.72	1.84	-1.500			
0.8288	53041.21	3.0880	3.0879	-0.1634	27.72	1.84	-1.500			
0.8293	53072.17	3.0850	3.0850	-0.1620	27.73	1.85	-1.500			
0.8297	53103.41	3.0820	3.0820	-0.1608	27.73	1.85	-1.500			
0.8302	53134.22	3.0790	3.0790	-0.1598	27.74	1.86	-1.500			
0.8307	53164.77	3.0760	3.0761	-0.1584	27.74	1.86	-1.500			
0.8312	53195.03	3.0730	3.0730	-0.1574	27.75	1.87	-1.500			
0.8316	53225.09	3.0700	3.0700	-0.1560	27.76	1.88	-1.500			
0.8321	53254.90	3.0670	3.0669	-0.1545	27.76	1.88	-1.500			
0.8326	53284.47	3.0640	3.0641	-0.1534	27.77	1.89	-1.500			
0.8330	53313.79	3.0610	3.0611	-0.1529	27.77	1.89	-1.500			
0.8335	53342.85	3.0580	3.0580	-0.1529	27.78	1.90	-1.500			
0.8339	53372.18	3.0550	3.0549	-0.1520	27.78	1.90	-1.500			
0.8344	53401.36	3.0520	3.0520	-0.1519	27.79	1.91	-1.500			
0.8349	53430.70	3.0490	3.0490	-0.1501	27.80	1.92	-1.500			
0.8353	53459.74	3.0460	3.0461	-0.1494	27.80	1.92	-1.500			
0.8358	53488.22	3.0430	3.0430	-0.1486	27.81	1.93	-1.500			
0.8362	53516.58	3.0400	3.0401	-0.1469	27.81	1.93	-1.500			
0.8366	53544.39	3.0370	3.0369	-0.1453	27.82	1.94	-1.500			
0.8371	53571.71	3.0340	3.0341	-0.1441	27.83	1.95	-1.500			
0.8375	53599.56	3.0310	3.0310	-0.1439	27.83	1.95	-1.500			
0.8379	53627.14	3.0280	3.0281	-0.1434	27.84	1.96	-1.500			
0.8384	53654.99	3.0250	3.0249	-0.1425	27.84	1.96	-1.500			
0.8388	53682.08	3.0220	3.0221	-0.1415	27.85	1.97	-1.500			
0.8392	53709.08	3.0190	3.0190	-0.1403	27.86	1.98	-1.500			
0.8396	53735.89	3.0160	3.0160	-0.1398	27.86	1.98	-1.500			
0.8400	53762.76	3.0130	3.0129	-0.1389	27.87	1.99	-1.500			
0.8405	53789.11	3.0100	3.0100	-0.1379	27.87	1.99	-1.500			
0.8409	53815.62	3.0070	3.0069	-0.1375	27.88	2.00	-1.500			
0.8413	53841.95	3.0040	3.0040	-0.1368	27.88	2.00	-1.500			
0.8417	53867.97	3.0010	3.0010	-0.1326	27.89	2.01	-1.499			
