Ah_balance (normalized)	Ah_balance (mAh)	Voltage - fit (V)	Voltage -  interpolate (V)	dQ/dV (1/V)	Temperature (°C)	Temperature - diff (°C)	Current (C)	R_DC 0ms (mOhm)	R_DC 50ms (mOhm)	R_DC 50 ms PEC (mOhm)
0.2814	18012.37	3.9700	3.9699	0.8570	27.13	1.13	1.500			
0.2841	18181.93	3.9670	3.9671	0.8943	27.13	1.13	1.500			
0.2868	18358.11	3.9640	3.9640	0.9101	27.13	1.13	1.500			
0.2896	18533.41	3.9610	3.9610	0.9181	27.13	1.13	1.500			
0.2924	18712.39	3.9580	3.9581	0.9227	27.12	1.12	1.500			
0.2952	18890.48	3.9550	3.9550	0.9288	27.12	1.12	1.500			
0.2979	19067.19	3.9520	3.9520	0.9285	27.12	1.12	1.500			
0.3007	19245.42	3.9490	3.9490	0.9282	27.12	1.12	1.500			
0.3035	19423.36	3.9460	3.9460	0.9359	27.12	1.12	1.500			
0.3063	19603.71	3.9430	3.9429	0.9417	27.11	1.11	1.500			
0.3091	19784.06	3.9400	3.9400	0.9449	27.11	1.11	1.500			
0.3120	19966.57	3.9370	3.9370	0.9535	27.11	1.11	1.500			
0.3148	20149.88	3.9340	3.9341	0.9541	27.11	1.11	1.500			
0.3177	20334.55	3.9310	3.9309	0.9604	27.10	1.10	1.500			
0.3206	20519.50	3.9280	3.9281	0.9663	27.10	1.10	1.500			
0.3235	20704.13	3.9250	3.9249	0.9698	27.10	1.10	1.500			
0.3264	20889.53	3.9220	3.9220	0.9766	27.10	1.10	1.500			
0.3293	21077.99	3.9190	3.9190	0.9838	27.09	1.09	1.500			
0.3323	21267.29	3.9160	3.9160	0.9901	27.09	1.09	1.500			
0.3353	21458.83	3.9130	3.9127	1.0012	27.09	1.09	1.500			
0.3383	21650.77	3.9100	3.9101	1.0070	27.09	1.09	1.500			
0.3413	21845.20	3.9070	3.9070	1.0142	27.08	1.08	1.500			
0.3444	22040.45	3.9040	3.9040	1.0268	27.08	1.08	1.500			
0.3475	22239.63	3.9010	3.9009	1.0341	27.08	1.08	1.500			
0.3506	22437.91	3.8980	3.8980	1.0431	27.07	1.07	1.500			
0.3537	22639.10	3.8950	3.8951	1.0505	27.07	1.07	1.500			
0.3569	22840.59	3.8920	3.8920	1.0618	27.06	1.06	1.500			
0.3601	23045.50	3.8890	3.8888	1.0770	27.06	1.06	1.500			
0.3633	23252.24	3.8860	3.8860	1.0876	27.06	1.06	1.500			
0.3666	23462.03	3.8830	3.8830	1.0984	27.05	1.05	1.500			
0.3699	23676.52	3.8800	3.8800	1.1168	27.05	1.05	1.500			
0.3733	23892.22	3.8770	3.8770	1.1255	27.04	1.04	1.500			
0.3767	24108.90	3.8740	3.8740	1.1414	27.04	1.04	1.500			
0.3801	24329.06	3.8710	3.8710	1.1505	27.04	1.04	1.500			
0.3836	24549.76	3.8680	3.8680	1.1679	27.03	1.03	1.500			
0.3871	24774.78	3.8650	3.8651	1.1938	27.03	1.03	1.500			
0.3907	25005.91	3.8620	3.8619	1.2135	27.02	1.02	1.500			
0.3944	25239.93	3.8590	3.8590	1.2368	27.02	1.02	1.500			
0.3982	25482.14	3.8560	3.8560	1.2530	27.01	1.01	1.500			
0.4019	25723.55	3.8530	3.8531	1.2690	27.01	1.01	1.500			
0.4058	25971.59	3.8500	3.8500	1.2910	27.01	1.01	1.500			
0.4097	26218.33	3.8470	3.8469	1.3066	27.00	1.00	1.500			
0.4136	26468.52	3.8440	3.8440	1.3216	26.99	0.99	1.500			
0.4176	26725.87	3.8410	3.8410	1.3475	26.98	0.98	1.500			
0.4217	26986.26	3.8380	3.8379	1.3658	26.97	0.97	1.500			
0.4258	27248.57	3.8350	3.8351	1.3944	26.96	0.96	1.500			
0.4300	27519.30	3.8320	3.8321	1.4244	26.95	0.95	1.500			
0.4343	27795.43	3.8290	3.8289	1.4576	26.94	0.94	1.500			
0.4387	28076.86	3.8260	3.8261	1.4932	26.93	0.93	1.500			
0.4433	28368.61	3.8230	3.8231	1.5368	26.93	0.93	1.500			
0.4480	28670.42	3.8200	3.8199	1.5730	26.92	0.92	1.500			
0.4527	28975.01	3.8170	3.8170	1.6120	26.91	0.91	1.500			
0.4576	29284.47	3.8140	3.8141	1.6384	26.90	0.90	1.500			
0.4626	29603.91	3.8110	3.8110	1.6861	26.90	0.90	1.500			
0.4676	29929.04	3.8080	3.8080	1.7289	26.89	0.89	1.500			
0.4729	30262.94	3.8050	3.8050	1.7726	26.88	0.88	1.500			
0.4783	30610.14	3.8020	3.8020	1.8173	26.87	0.87	1.500			
0.4838	30963.15	3.7990	3.7991	1.8805	26.86	0.86	1.500			
0.4896	31333.06	3.7960	3.7960	1.9285	26.85	0.85	1.500			
0.4954	31704.84	3.7930	3.7929	1.9816	26.84	0.84	1.500			
0.5013	32085.93	3.7900	3.7901	2.0445	26.83	0.83	1.500			
0.5076	32485.62	3.7870	3.7869	2.1202	26.82	0.82	1.500			
0.5141	32899.74	3.7840	3.7841	2.1922	26.81	0.81	1.500			
0.5207	33324.45	3.7810	3.7810	2.2478	26.80	0.80	1.500			
0.5276	33765.08	3.7780	3.7780	2.3276	26.78	0.78	1.500			
0.5346	34215.85	3.7750	3.7749	2.3905	26.76	0.76	1.500			
0.5419	34679.96	3.7720	3.7720	2.4704	26.75	0.75	1.500			
0.5493	35153.84	3.7690	3.7690	2.5308	26.73	0.73	1.500			
0.5570	35646.96	3.7660	3.7660	2.6050	26.72	0.72	1.500			
0.5650	36160.79	3.7630	3.7629	2.6235	26.70	0.70	1.500	0.378	0.451	
0.5730	36675.18	3.7600	3.7601	2.6544	26.68	0.68	1.500			
0.5811	37189.95	3.7570	3.7570	2.6533	26.67	0.67	1.500			
0.5888	37680.66	3.7540	3.7539	2.5729	26.65	0.65	1.500			
0.5965	38176.18	3.7510	3.7510	2.5563	26.63	0.63	1.500			
0.6042	38669.81	3.7480	3.7481	2.5346	26.61	0.61	1.500			
0.6116	39145.60	3.7450	3.7450	2.4530	26.59	0.59	1.500			
0.6190	39613.27	3.7420	3.7420	2.3855	26.57	0.57	1.500			
0.6260	40066.70	3.7390	3.7391	2.3819	26.56	0.56	1.500			
0.6331	40520.00	3.7360	3.7359	2.3651	26.54	0.54	1.500			
0.6402	40970.13	3.7330	3.7331	2.3466	26.53	0.53	1.500			
0.6472	41418.45	3.7300	3.7300	2.3649	26.52	0.52	1.500			
0.6543	41873.52	3.7270	3.7270	2.3611	26.51	0.51	1.500			
0.6614	42332.46	3.7240	3.7239	2.3956	26.50	0.50	1.500			
0.6686	42791.27	3.7210	3.7211	2.4366	26.48	0.48	1.500			
0.6760	43262.03	3.7180	3.7180	2.5087	26.47	0.47	1.500			
0.6835	43744.17	3.7150	3.7149	2.5968	26.45	0.45	1.500			
0.6916	44260.72	3.7120	3.7120	2.7056	26.44	0.44	1.500			
0.6999	44791.35	3.7090	3.7090	2.8291	26.42	0.42	1.500			
0.7084	45336.90	3.7060	3.7059	2.9156	26.40	0.40	1.500			
0.7174	45911.16	3.7030	3.7031	3.0017	26.39	0.39	1.500			
0.7265	46495.58	3.7000	3.7000	3.1250	26.37	0.37	1.500			
0.7361	47109.14	3.6970	3.6969	3.1056	26.36	0.36	1.500			
0.7455	47710.10	3.6940	3.6941	3.0127	26.34	0.34	1.500			
0.7544	48283.46	3.6910	3.6909	2.8157	26.33	0.33	1.500			
0.7624	48793.06	3.6880	3.6880	2.5352	26.32	0.32	1.500			
0.7697	49260.68	3.6850	3.6850	2.2918	26.30	0.30	1.500			
0.7761	49669.72	3.6820	3.6820	2.0472	26.29	0.29	1.500			
0.7816	50022.09	3.6790	3.6791	1.8381	26.29	0.29	1.500			
0.7869	50360.12	3.6760	3.6759	1.7035	26.28	0.28	1.500			
0.7917	50668.83	3.6730	3.6730	1.5709	26.26	0.26	1.500			
0.7962	50954.50	3.6700	3.6700	1.4585	26.25	0.25	1.500			
0.8004	51223.68	3.6670	3.6670	1.3757	26.24	0.24	1.500			
0.8043	51475.86	3.6640	3.6640	1.2927	26.23	0.23	1.500			
0.8080	51710.52	3.6610	3.6611	1.2391	26.23	0.23	1.500			
0.8115	51936.37	3.6580	3.6580	1.1939	26.22	0.22	1.500			
0.8150	52160.88	3.6550	3.6550	1.1784	26.21	0.21	1.500			
0.8185	52382.44	3.6520	3.6520	1.1673	26.20	0.20	1.500			
0.8219	52603.94	3.6490	3.6490	1.1699	26.20	0.20	1.500			
0.8254	52826.66	3.6460	3.6460	1.1807	26.19	0.19	1.500			
0.8290	53054.56	3.6430	3.6430	1.1954	26.18	0.18	1.500			
0.8326	53286.22	3.6400	3.6399	1.2045	26.18	0.18	1.500			
0.8363	53520.06	3.6370	3.6371	1.2154	26.17	0.17	1.500			
0.8399	53755.95	3.6340	3.6340	1.2163	26.16	0.16	1.500			
0.8436	53992.65	3.6310	3.6310	1.2147	26.15	0.15	1.500			
0.8473	54225.20	3.6280	3.6280	1.2099	26.14	0.14	1.500			
0.8508	54453.81	3.6250	3.6250	1.2100	26.13	0.13	1.500			
0.8544	54684.55	3.6220	3.6220	1.2150	26.12	0.12	1.500			
0.8581	54917.52	3.6190	3.6190	1.2257	26.11	0.11	1.500			
0.8618	55153.61	3.6160	3.6161	1.2336	26.10	0.10	1.500			
0.8655	55392.89	3.6130	3.6130	1.2430	26.09	0.09	1.500			
0.8693	55633.53	3.6100	3.6100	1.2558	26.08	0.08	1.500			
0.8731	55877.05	3.6070	3.6070	1.2590	26.07	0.07	1.500			
0.8769	56119.07	3.6040	3.6039	1.2525	26.06	0.06	1.500			
0.8806	56360.78	3.6010	3.6010	1.2465	26.05	0.05	1.500			
0.8844	56599.82	3.5980	3.5980	1.2373	26.04	0.04	1.500			
0.8881	56837.83	3.5950	3.5950	1.2287	26.04	0.04	1.500			
0.8917	57071.00	3.5920	3.5920	1.2191	26.03	0.03	1.500			
0.8953	57300.99	3.5890	3.5890	1.2106	26.02	0.02	1.500			
0.8989	57530.98	3.5860	3.5860	1.2128	26.02	0.02	1.500			
0.9025	57763.18	3.5830	3.5831	1.2306	26.01	0.01	1.500			
0.9063	58002.42	3.5800	3.5799	1.2357	26.01	0.01	1.500			
0.9102	58251.52	3.5770	3.5766	1.1986	26.00	0.00	1.500			
0.9140	58493.59	3.5740	3.5740	1.1500	25.99	-0.01	1.500			
0.9174	58716.32	3.5710	3.5712	1.0432	25.99	-0.01	1.500			
0.9206	58920.72	3.5680	3.5681	0.9089	25.98	-0.02	1.500			
0.9231	59078.27	3.5650	3.5650	0.7360	25.98	-0.02	1.500			
0.9249	59194.35	3.5620	3.5620	0.5906	25.98	-0.02	1.500			
0.9263	59282.06	3.5590	3.5592	0.4571	25.97	-0.03	1.500			
0.9275	59356.80	3.5560	3.5558	0.3548	25.97	-0.03	1.500			
0.9283	59412.98	3.5530	3.5528	0.2861	25.97	-0.03	1.500			
0.9289	59452.69	3.5500	3.5500	0.2283	25.97	-0.03	1.500			
0.9295	59489.86	3.5470	3.5468	0.1819	25.97	-0.03	1.500			
0.9300	59518.58	3.5440	3.5440	0.1419	25.97	-0.03	1.500			
0.9303	59541.71	3.5410	3.5410	0.1089	25.97	-0.03	1.500			
0.9306	59559.62	3.5380	3.5381	0.0779	25.97	-0.03	1.500			
0.9308	59571.62	3.5350	3.5353	0.0456	25.97	-0.03	1.500			
