Ah_balance (normalized)	Ah_balance (mAh)	Voltage - fit (V)	Voltage -  interpolate (V)	dQ/dV (1/V)	Temperature (°C)	Temperature - diff (°C)	Current (C)	R_DC 0ms (mOhm)	R_DC 50ms (mOhm)	R_DC 50 ms PEC (mOhm)
0.2751	17609.50	3.9890	3.9890	0.8514	27.19	1.25	1.500			
0.2777	17774.07	3.9860	3.9859	0.8474	27.18	1.24	1.500			
0.2802	17932.72	3.9830	3.9831	0.8390	27.18	1.24	1.500			
0.2827	18092.59	3.9800	3.9801	0.8427	27.18	1.24	1.500			
0.2852	18254.20	3.9770	3.9769	0.8462	27.17	1.23	1.500			
0.2878	18416.19	3.9740	3.9740	0.8488	27.17	1.23	1.500			
0.2903	18580.04	3.9710	3.9711	0.8565	27.16	1.22	1.500			
0.2929	18745.51	3.9680	3.9680	0.8575	27.16	1.22	1.500			
0.2955	18913.38	3.9650	3.9650	0.8640	27.16	1.22	1.500			
0.2981	19077.15	3.9620	3.9620	0.8614	27.15	1.21	1.500			
0.3007	19242.02	3.9590	3.9590	0.8703	27.15	1.21	1.500			
0.3033	19410.22	3.9560	3.9560	0.8722	27.14	1.20	1.500			
0.3059	19578.58	3.9530	3.9530	0.8742	27.14	1.20	1.500			
0.3085	19746.77	3.9500	3.9500	0.8829	27.13	1.19	1.500			
0.3112	19917.67	3.9470	3.9470	0.8872	27.13	1.19	1.500			
0.3139	20087.57	3.9440	3.9439	0.8900	27.12	1.18	1.500			
0.3165	20259.18	3.9410	3.9411	0.8934	27.12	1.18	1.500			
0.3192	20430.39	3.9380	3.9380	0.8958	27.11	1.17	1.500			
0.3219	20604.38	3.9350	3.9350	0.9031	27.10	1.16	1.500			
0.3246	20777.20	3.9320	3.9320	0.9103	27.10	1.16	1.500			
0.3274	20951.81	3.9290	3.9290	0.9107	27.09	1.15	1.500			
0.3301	21127.95	3.9260	3.9260	0.9168	27.09	1.15	1.500			
0.3329	21303.83	3.9230	3.9231	0.9228	27.08	1.14	1.500			
0.3357	21481.76	3.9200	3.9200	0.9321	27.07	1.13	1.500			
0.3385	21661.22	3.9170	3.9169	0.9375	27.07	1.13	1.500			
0.3413	21841.89	3.9140	3.9140	0.9417	27.06	1.12	1.500			
0.3441	22023.10	3.9110	3.9111	0.9480	27.05	1.11	1.500			
0.3470	22207.88	3.9080	3.9080	0.9571	27.04	1.10	1.500			
0.3499	22391.30	3.9050	3.9050	0.9596	27.04	1.10	1.500			
0.3527	22574.06	3.9020	3.9020	0.9635	27.03	1.09	1.500			
0.3556	22759.21	3.8990	3.8991	0.9716	27.02	1.08	1.500			
0.3585	22946.76	3.8960	3.8960	0.9845	27.02	1.08	1.500			
0.3615	23136.76	3.8930	3.8929	0.9945	27.01	1.07	1.500			
0.3645	23329.06	3.8900	3.8900	0.9996	27.00	1.06	1.500			
0.3675	23521.97	3.8870	3.8871	1.0086	26.99	1.05	1.500			
0.3706	23717.37	3.8840	3.8840	1.0183	26.98	1.04	1.500			
0.3736	23912.56	3.8810	3.8809	1.0326	26.98	1.04	1.500			
0.3767	24110.03	3.8780	3.8780	1.0428	26.97	1.03	1.500			
0.3799	24311.34	3.8750	3.8750	1.0544	26.96	1.02	1.500			
0.3831	24517.03	3.8720	3.8720	1.0678	26.95	1.01	1.500			
0.3863	24724.39	3.8690	3.8690	1.0775	26.94	1.00	1.500			
0.3896	24932.08	3.8660	3.8660	1.0872	26.93	0.99	1.500			
0.3928	25140.76	3.8630	3.8630	1.0991	26.92	0.98	1.500			
0.3961	25350.95	3.8600	3.8600	1.1070	26.91	0.97	1.500			
0.3995	25565.94	3.8570	3.8570	1.1227	26.90	0.96	1.500			
0.4029	25782.53	3.8540	3.8540	1.1393	26.89	0.95	1.500			
0.4063	26002.17	3.8510	3.8510	1.1553	26.88	0.94	1.500			
0.4098	26224.93	3.8480	3.8480	1.1748	26.87	0.93	1.500			
0.4133	26451.91	3.8450	3.8450	1.1920	26.86	0.92	1.500			
0.4169	26682.62	3.8420	3.8420	1.2105	26.85	0.91	1.500			
0.4206	26918.39	3.8390	3.8390	1.2301	26.84	0.90	1.500			
0.4243	27156.42	3.8360	3.8360	1.2496	26.83	0.89	1.500			
0.4281	27396.51	3.8330	3.8330	1.2719	26.82	0.88	1.500			
0.4319	27641.22	3.8300	3.8300	1.2938	26.81	0.87	1.500			
0.4358	27891.59	3.8270	3.8269	1.3196	26.80	0.86	1.500			
0.4398	28148.41	3.8240	3.8240	1.3433	26.79	0.85	1.500			
0.4439	28408.59	3.8210	3.8211	1.3679	26.78	0.84	1.500			
0.4481	28675.46	3.8180	3.8180	1.3928	26.76	0.82	1.500			
0.4523	28944.83	3.8150	3.8149	1.4111	26.75	0.81	1.500			
0.4565	29214.49	3.8120	3.8121	1.4323	26.74	0.80	1.500			
0.4608	29491.67	3.8090	3.8089	1.4639	26.72	0.78	1.500			
0.4652	29774.46	3.8060	3.8060	1.4974	26.71	0.77	1.500			
0.4698	30066.70	3.8030	3.8030	1.5204	26.69	0.75	1.500			
0.4744	30362.37	3.8000	3.8000	1.5525	26.68	0.74	1.500			
0.4791	30665.58	3.7970	3.7970	1.5797	26.66	0.72	1.500			
0.4839	30970.34	3.7940	3.7940	1.6057	26.65	0.71	1.500			
0.4888	31280.51	3.7910	3.7910	1.6211	26.63	0.69	1.500			
0.4936	31591.30	3.7880	3.7880	1.6365	26.62	0.68	1.500			
0.4985	31906.90	3.7850	3.7850	1.6602	26.60	0.66	1.500			
0.5034	32214.65	3.7820	3.7821	1.6641	26.59	0.65	1.500			
0.5084	32535.59	3.7790	3.7785	1.7077	26.57	0.63	1.500	0.349	0.471	
0.5135	32866.68	3.7760	3.7763	1.7248	26.55	0.61	1.500			
0.5189	33207.04	3.7730	3.7731	1.7755	26.54	0.60	1.500			
0.5244	33563.79	3.7700	3.7700	1.8038	26.53	0.59	1.500			
0.5296	33891.46	3.7670	3.7670	1.7440	26.52	0.58	1.500			
0.5348	34228.47	3.7640	3.7640	1.7498	26.50	0.56	1.500			
0.5400	34561.83	3.7610	3.7610	1.7611	26.49	0.55	1.500			
0.5453	34901.97	3.7580	3.7580	1.7693	26.48	0.54	1.500			
0.5506	35239.04	3.7550	3.7550	1.7645	26.46	0.52	1.500			
0.5559	35577.08	3.7520	3.7522	1.7766	26.45	0.51	1.500			
0.5612	35917.10	3.7490	3.7487	1.8000	26.43	0.49	1.500			
0.5666	36262.91	3.7460	3.7461	1.8190	26.42	0.48	1.500			
0.5721	36614.32	3.7430	3.7430	1.8515	26.40	0.46	1.500			
0.5777	36970.21	3.7400	3.7401	1.8678	26.38	0.44	1.500			
0.5833	37331.76	3.7370	3.7371	1.9126	26.37	0.43	1.500			
0.5891	37703.45	3.7340	3.7340	1.9583	26.35	0.41	1.500			
0.5951	38087.71	3.7310	3.7311	2.0156	26.34	0.40	1.500			
0.6013	38483.97	3.7280	3.7280	2.0871	26.32	0.38	1.500			
0.6075	38879.82	3.7250	3.7250	2.1214	26.31	0.37	1.500			
0.6140	39295.63	3.7220	3.7220	2.1786	26.29	0.35	1.500			
0.6207	39721.61	3.7190	3.7190	2.2097	26.27	0.33	1.500			
0.6274	40151.48	3.7160	3.7161	2.2907	26.26	0.32	1.500			
0.6343	40595.42	3.7130	3.7129	2.3392	26.24	0.30	1.500			
0.6414	41049.93	3.7100	3.7101	2.3787	26.22	0.28	1.500			
0.6487	41517.46	3.7070	3.7070	2.3773	26.21	0.27	1.500			
0.6558	41968.99	3.7040	3.7040	2.3141	26.19	0.25	1.500			
0.6627	42412.94	3.7010	3.7010	2.2344	26.18	0.24	1.500			
0.6693	42833.48	3.6980	3.6980	2.1088	26.17	0.23	1.500			
0.6755	43228.94	3.6950	3.6950	1.9653	26.16	0.22	1.500			
0.6810	43585.00	3.6920	3.6921	1.8069	26.15	0.21	1.500			
0.6861	43911.11	3.6890	3.6888	1.6749	26.14	0.20	1.500			
0.6909	44220.52	3.6860	3.6860	1.5855	26.13	0.19	1.500			
0.6955	44514.72	3.6830	3.6830	1.5101	26.13	0.19	1.500			
0.7000	44799.44	3.6800	3.6800	1.4408	26.12	0.18	1.500			
0.7042	45065.66	3.6770	3.6770	1.3809	26.11	0.17	1.500			
0.7082	45324.27	3.6740	3.6741	1.3363	26.11	0.17	1.500			
0.7120	45570.66	3.6710	3.6709	1.3048	26.10	0.16	1.500			
0.7159	45817.06	3.6680	3.6680	1.2851	26.09	0.15	1.500			
0.7197	46057.88	3.6650	3.6650	1.2748	26.08	0.14	1.500			
0.7235	46304.23	3.6620	3.6620	1.2676	26.07	0.13	1.500			
0.7273	46547.21	3.6590	3.6590	1.2742	26.06	0.12	1.500			
0.7311	46790.50	3.6560	3.6560	1.2788	26.05	0.11	1.500			
0.7349	47035.82	3.6530	3.6530	1.2821	26.04	0.10	1.500			
0.7388	47283.82	3.6500	3.6500	1.2785	26.04	0.10	1.500			
0.7427	47531.17	3.6470	3.6471	1.2808	26.03	0.09	1.500			
0.7465	47777.77	3.6440	3.6440	1.2768	26.02	0.08	1.500			
0.7504	48026.02	3.6410	3.6409	1.2744	26.02	0.08	1.500			
0.7542	48266.24	3.6380	3.6379	1.2564	26.01	0.07	1.500			
0.7579	48505.96	3.6350	3.6351	1.2517	26.01	0.07	1.500			
0.7617	48746.23	3.6320	3.6320	1.2487	26.00	0.06	1.500			
0.7654	48986.08	3.6290	3.6290	1.2427	25.99	0.05	1.500			
0.7691	49221.98	3.6260	3.6260	1.2336	25.98	0.04	1.500			
0.7728	49459.94	3.6230	3.6230	1.2249	25.97	0.03	1.500			
0.7765	49696.47	3.6200	3.6199	1.2181	25.96	0.02	1.500			
0.7802	49930.41	3.6170	3.6170	1.2067	25.95	0.01	1.500			
0.7838	50161.16	3.6140	3.6141	1.1875	25.95	0.01	1.500			
0.7873	50388.38	3.6110	3.6110	1.1698	25.94	0.00	1.500			
0.7908	50611.36	3.6080	3.6080	1.1528	25.94	0.00	1.500			
0.7942	50829.30	3.6050	3.6050	1.1326	25.94	0.00	1.500			
0.7976	51046.15	3.6020	3.6020	1.1096	25.94	0.00	1.500			
0.8009	51257.96	3.5990	3.5990	1.0831	25.94	0.00	1.500			
0.8041	51463.68	3.5960	3.5961	1.0645	25.94	0.00	1.500			
0.8073	51667.67	3.5930	3.5930	1.0347	25.94	0.00	1.500			
0.8104	51865.53	3.5900	3.5899	0.9986	25.94	0.00	1.500			
0.8134	52057.48	3.5870	3.5870	0.9413	25.94	0.00	1.500			
0.8162	52238.90	3.5840	3.5840	0.8799	25.94	0.00	1.500			
0.8188	52405.51	3.5810	3.5811	0.7966	25.94	0.00	1.500			
0.8212	52554.37	3.5780	3.5780	0.7059	25.94	0.00	1.500			
0.8231	52677.71	3.5750	3.5750	0.6060	25.94	0.00	1.500			
0.8247	52783.78	3.5720	3.5720	0.5139	25.94	0.00	1.500			
0.8260	52866.64	3.5690	3.5691	0.4315	25.94	0.00	1.500			
0.8272	52937.92	3.5660	3.5660	0.3685	25.94	0.00	1.500			
0.8281	52999.61	3.5630	3.5630	0.3082	25.94	0.00	1.500			
0.8289	53051.77	3.5600	3.5599	0.2696	25.94	0.00	1.500			
0.8297	53097.67	3.5570	3.5570	0.2378	25.94	0.00	1.500			
0.8303	53139.32	3.5540	3.5540	0.2143	25.94	0.00	1.500			
0.8309	53177.77	3.5510	3.5511	0.1934	25.94	0.00	1.500			
0.8314	53212.41	3.5480	3.5480	0.1760	25.94	0.00	1.500			
0.8319	53243.96	3.5450	3.5449	0.1597	25.94	0.00	1.500			
0.8324	53272.72	3.5420	3.5420	0.1436	25.94	0.00	1.500			
0.8328	53299.14	3.5390	3.5390	0.1296	25.94	0.00	1.500			
0.8332	53322.72	3.5360	3.5360	0.1157	25.94	0.00	1.500			
0.8335	53343.77	3.5330	3.5331	0.1020	25.94	0.00	1.500			
0.8338	53361.79	3.5300	3.5301	0.0872	25.94	0.00	1.500			
0.8340	53377.18	3.5270	3.5271	0.0731	25.94	0.00	1.500			
0.8342	53390.12	3.5240	3.5243	0.0587	25.94	0.00	1.500			
0.8344	53399.98	3.5210	3.5217	0.0440	25.94	0.00	1.500			
0.8345	53407.00	3.5180	3.5192	0.0292	25.94	0.00	1.500			
