Ah_balance (normalized)	Ah_balance (mAh)	Voltage - fit (V)	Voltage -  interpolate (V)	dQ/dV (1/V)	Temperature (°C)	Temperature - diff (°C)	Current (C)	R_DC 0ms (mOhm)	R_DC 50ms (mOhm)	R_DC 50 ms PEC (mOhm)
0.2701	17285.58	3.9880	3.9880	0.8434	27.38	1.43	1.500			
0.2726	17446.36	3.9850	3.9850	0.8417	27.38	1.43	1.500			
0.2751	17608.82	3.9820	3.9820	0.8484	27.37	1.42	1.500			
0.2777	17772.60	3.9790	3.9790	0.8531	27.37	1.42	1.500			
0.2803	17936.95	3.9760	3.9761	0.8576	27.36	1.41	1.500			
0.2828	18101.34	3.9730	3.9730	0.8613	27.36	1.41	1.500			
0.2854	18268.26	3.9700	3.9700	0.8669	27.35	1.40	1.500			
0.2881	18435.69	3.9670	3.9669	0.8652	27.35	1.40	1.500			
0.2906	18600.44	3.9640	3.9641	0.8669	27.34	1.39	1.500			
0.2932	18767.58	3.9610	3.9611	0.8738	27.34	1.39	1.500			
0.2959	18935.34	3.9580	3.9579	0.8803	27.33	1.38	1.500			
0.2985	19105.31	3.9550	3.9550	0.8816	27.32	1.37	1.500			
0.3012	19274.95	3.9520	3.9520	0.8805	27.32	1.37	1.500			
0.3038	19444.43	3.9490	3.9491	0.8830	27.31	1.36	1.500			
0.3065	19614.72	3.9460	3.9460	0.8892	27.31	1.36	1.500			
0.3091	19784.16	3.9430	3.9429	0.8877	27.30	1.35	1.500			
0.3118	19953.19	3.9400	3.9400	0.8934	27.30	1.35	1.500			
0.3145	20125.71	3.9370	3.9370	0.9003	27.29	1.34	1.500			
0.3172	20301.99	3.9340	3.9340	0.9100	27.28	1.33	1.500			
0.3200	20477.44	3.9310	3.9311	0.9131	27.28	1.33	1.500			
0.3227	20652.53	3.9280	3.9279	0.9124	27.27	1.32	1.500			
0.3254	20826.73	3.9250	3.9251	0.9184	27.26	1.31	1.500			
0.3282	21001.98	3.9220	3.9220	0.9247	27.26	1.31	1.500			
0.3309	21179.20	3.9190	3.9188	0.9305	27.25	1.30	1.500			
0.3337	21359.79	3.9160	3.9160	0.9391	27.24	1.29	1.500			
0.3366	21540.32	3.9130	3.9131	0.9472	27.23	1.28	1.500			
0.3395	21725.48	3.9100	3.9100	0.9561	27.23	1.28	1.500			
0.3423	21909.66	3.9070	3.9070	0.9572	27.22	1.27	1.500			
0.3452	22093.87	3.9040	3.9040	0.9623	27.21	1.26	1.500			
0.3481	22277.95	3.9010	3.9011	0.9672	27.20	1.25	1.500			
0.3510	22464.26	3.8980	3.8980	0.9756	27.19	1.24	1.500			
0.3539	22652.47	3.8950	3.8950	0.9830	27.19	1.24	1.500			
0.3569	22841.08	3.8920	3.8920	0.9918	27.18	1.23	1.500			
0.3599	23032.31	3.8890	3.8890	1.0053	27.17	1.22	1.500			
0.3629	23227.09	3.8860	3.8860	1.0122	27.16	1.21	1.500			
0.3660	23422.08	3.8830	3.8830	1.0222	27.15	1.20	1.500			
0.3690	23618.72	3.8800	3.8800	1.0313	27.14	1.19	1.500			
0.3722	23817.90	3.8770	3.8770	1.0415	27.13	1.18	1.500			
0.3753	24018.63	3.8740	3.8740	1.0528	27.13	1.18	1.500			
0.3785	24221.13	3.8710	3.8710	1.0644	27.12	1.17	1.500			
0.3817	24427.03	3.8680	3.8680	1.0729	27.11	1.16	1.500			
0.3849	24634.38	3.8650	3.8650	1.0879	27.10	1.15	1.500			
0.3882	24843.49	3.8620	3.8620	1.0988	27.09	1.14	1.500			
0.3915	25055.20	3.8590	3.8590	1.1162	27.08	1.13	1.500			
0.3948	25270.31	3.8560	3.8559	1.1277	27.07	1.12	1.500			
0.3982	25487.33	3.8530	3.8530	1.1443	27.05	1.10	1.500			
0.4017	25708.60	3.8500	3.8500	1.1629	27.04	1.09	1.500			
0.4052	25934.55	3.8470	3.8468	1.1828	27.03	1.08	1.500			
0.4088	26162.65	3.8440	3.8440	1.1961	27.02	1.07	1.500			
0.4124	26394.03	3.8410	3.8410	1.2184	27.01	1.06	1.500			
0.4161	26632.66	3.8380	3.8380	1.2283	27.00	1.05	1.500			
0.4198	26870.06	3.8350	3.8350	1.2477	26.99	1.04	1.500			
0.4235	27105.96	3.8320	3.8321	1.2670	26.98	1.03	1.500			
0.4274	27350.86	3.8290	3.8291	1.2926	26.97	1.02	1.500			
0.4313	27600.94	3.8260	3.8258	1.3195	26.96	1.01	1.500			
0.4353	27858.27	3.8230	3.8230	1.3454	26.94	0.99	1.500			
0.4394	28119.02	3.8200	3.8201	1.3720	26.93	0.98	1.500			
0.4436	28387.63	3.8170	3.8170	1.4018	26.91	0.96	1.500			
0.4478	28657.09	3.8140	3.8140	1.4218	26.89	0.94	1.500			
0.4520	28931.10	3.8110	3.8110	1.4551	26.88	0.93	1.500			
0.4564	29212.28	3.8080	3.8081	1.4870	26.86	0.91	1.500			
0.4610	29502.59	3.8050	3.8050	1.5194	26.84	0.89	1.500			
0.4656	29800.12	3.8020	3.8019	1.5417	26.82	0.87	1.500			
0.4703	30099.33	3.7990	3.7990	1.5721	26.81	0.86	1.500			
0.4751	30403.60	3.7960	3.7960	1.5958	26.79	0.84	1.500			
0.4799	30710.54	3.7930	3.7929	1.6261	26.77	0.82	1.500			
0.4847	31022.36	3.7900	3.7901	1.6593	26.76	0.81	1.500			
0.4898	31346.94	3.7870	3.7869	1.6859	26.74	0.79	1.500			
0.4949	31676.60	3.7840	3.7840	1.7108	26.72	0.77	1.500			
0.5001	32004.32	3.7810	3.7811	1.7356	26.70	0.75	1.500			
0.5054	32343.67	3.7780	3.7779	1.7725	26.68	0.73	1.500			
0.5107	32683.52	3.7750	3.7749	1.7786	26.66	0.71	1.500	0.339	0.457	
0.5161	33028.43	3.7720	3.7720	1.7898	26.64	0.69	1.500			
0.5216	33379.73	3.7690	3.7690	1.8087	26.62	0.67	1.500			
0.5269	33723.37	3.7660	3.7660	1.7971	26.60	0.65	1.500			
0.5323	34066.20	3.7630	3.7630	1.7951	26.58	0.63	1.500			
0.5377	34411.14	3.7600	3.7600	1.8002	26.57	0.62	1.500			
0.5431	34759.55	3.7570	3.7570	1.7955	26.55	0.60	1.500			
0.5485	35103.60	3.7540	3.7540	1.8100	26.53	0.58	1.500			
0.5539	35448.06	3.7510	3.7510	1.8202	26.51	0.56	1.500			
0.5593	35798.28	3.7480	3.7480	1.8446	26.49	0.54	1.500			
0.5649	36156.29	3.7450	3.7450	1.8515	26.47	0.52	1.500			
0.5705	36514.80	3.7420	3.7420	1.8784	26.45	0.50	1.500			
0.5762	36875.71	3.7390	3.7391	1.9113	26.43	0.48	1.500			
0.5819	37244.57	3.7360	3.7361	1.9409	26.42	0.47	1.500			
0.5878	37621.86	3.7330	3.7330	1.9682	26.40	0.45	1.500			
0.5938	38002.40	3.7300	3.7301	2.0237	26.38	0.43	1.500			
0.5999	38396.42	3.7270	3.7270	2.0725	26.36	0.41	1.500			
0.6062	38797.80	3.7240	3.7239	2.1201	26.34	0.39	1.500			
0.6127	39215.31	3.7210	3.7211	2.1771	26.32	0.37	1.500			
0.6194	39638.93	3.7180	3.7180	2.2414	26.30	0.35	1.500			
0.6261	40071.13	3.7150	3.7150	2.3187	26.28	0.33	1.500			
0.6332	40527.98	3.7120	3.7121	2.3926	26.25	0.30	1.500			
0.6406	40998.04	3.7090	3.7090	2.4244	26.24	0.29	1.500			
0.6479	41465.76	3.7060	3.7060	2.4475	26.22	0.27	1.500			
0.6553	41939.40	3.7030	3.7029	2.4135	26.20	0.25	1.500			
0.6625	42402.84	3.7000	3.7001	2.3351	26.18	0.23	1.500			
0.6694	42842.33	3.6970	3.6970	2.2106	26.17	0.22	1.500			
0.6759	43255.55	3.6940	3.6941	2.0547	26.15	0.20	1.500			
0.6818	43633.78	3.6910	3.6910	1.9034	26.14	0.19	1.500			
0.6872	43980.50	3.6880	3.6880	1.7695	26.13	0.18	1.500			
0.6923	44309.79	3.6850	3.6850	1.6545	26.12	0.17	1.500			
0.6970	44609.90	3.6820	3.6820	1.5640	26.11	0.16	1.500			
0.7016	44899.89	3.6790	3.6791	1.4822	26.11	0.16	1.500			
0.7058	45173.06	3.6760	3.6759	1.4157	26.10	0.15	1.500			
0.7100	45438.00	3.6730	3.6730	1.3609	26.09	0.14	1.500			
0.7139	45690.34	3.6700	3.6700	1.3239	26.08	0.13	1.500			
0.7178	45939.37	3.6670	3.6670	1.2861	26.07	0.12	1.500			
0.7216	46179.22	3.6640	3.6640	1.2673	26.06	0.11	1.500			
0.7253	46418.80	3.6610	3.6610	1.2672	26.05	0.10	1.500			
0.7290	46658.94	3.6580	3.6580	1.2672	26.04	0.09	1.500			
0.7329	46902.42	3.6550	3.6551	1.2718	26.04	0.09	1.500			
0.7367	47148.46	3.6520	3.6520	1.2799	26.03	0.08	1.500			
0.7406	47396.10	3.6490	3.6491	1.2819	26.02	0.07	1.500			
0.7445	47646.50	3.6460	3.6460	1.2875	26.01	0.06	1.500			
0.7483	47890.93	3.6430	3.6430	1.2862	26.00	0.05	1.500			
0.7521	48137.33	3.6400	3.6400	1.2795	25.99	0.04	1.500			
0.7560	48381.89	3.6370	3.6369	1.2782	25.98	0.03	1.500			
0.7598	48626.99	3.6340	3.6340	1.2806	25.97	0.02	1.500			
0.7637	48873.94	3.6310	3.6311	1.2763	25.97	0.02	1.500			
0.7675	49119.73	3.6280	3.6280	1.2688	25.96	0.01	1.500			
0.7713	49364.67	3.6250	3.6250	1.2628	25.96	0.01	1.500			
0.7751	49604.24	3.6220	3.6221	1.2598	25.95	-0.00	1.500			
0.7788	49846.31	3.6190	3.6189	1.2556	25.94	-0.01	1.500			
0.7826	50086.14	3.6160	3.6160	1.2467	25.94	-0.01	1.500			
0.7863	50324.71	3.6130	3.6131	1.2370	25.94	-0.01	1.500			
0.7901	50564.09	3.6100	3.6100	1.2264	25.93	-0.02	1.500			
0.7938	50800.47	3.6070	3.6070	1.2122	25.93	-0.02	1.500			
0.7974	51031.46	3.6040	3.6040	1.1910	25.93	-0.02	1.500			
0.8009	51256.29	3.6010	3.6010	1.1698	25.92	-0.03	1.500			
0.8044	51480.03	3.5980	3.5980	1.1502	25.92	-0.03	1.500			
0.8078	51698.27	3.5950	3.5950	1.1326	25.92	-0.03	1.500			
0.8112	51914.71	3.5920	3.5920	1.1138	25.93	-0.02	1.500			
0.8145	52127.99	3.5890	3.5890	1.0870	25.93	-0.02	1.500			
0.8178	52337.53	3.5860	3.5860	1.0540	25.93	-0.02	1.500			
0.8210	52544.65	3.5830	3.5829	0.9981	25.94	-0.01	1.500			
0.8240	52733.91	3.5800	3.5800	0.9234	25.94	-0.01	1.500			
0.8267	52910.62	3.5770	3.5771	0.8346	25.95	-0.00	1.500			
0.8291	53061.47	3.5740	3.5741	0.7239	25.95	-0.00	1.500			
0.8311	53189.14	3.5710	3.5709	0.6176	25.95	0.00	1.500			
0.8327	53294.18	3.5680	3.5681	0.5150	25.95	0.00	1.500			
0.8340	53377.69	3.5650	3.5650	0.4265	25.95	0.00	1.500			
0.8351	53448.43	3.5620	3.5619	0.3634	25.96	0.01	1.500			
0.8361	53507.29	3.5590	3.5590	0.3088	25.96	0.01	1.500			
0.8369	53559.55	3.5560	3.5560	0.2709	25.96	0.01	1.500			
0.8376	53606.72	3.5530	3.5529	0.2382	25.96	0.01	1.500			
0.8383	53648.32	3.5500	3.5499	0.2153	25.96	0.01	1.500			
0.8388	53685.48	3.5470	3.5470	0.1936	25.96	0.01	1.500			
0.8394	53720.28	3.5440	3.5439	0.1774	25.96	0.01	1.500			
0.8399	53752.93	3.5410	3.5410	0.1627	25.96	0.01	1.500			
0.8403	53782.26	3.5380	3.5381	0.1484	25.96	0.01	1.500			
0.8408	53809.24	3.5350	3.5350	0.1346	25.96	0.01	1.500			
0.8412	53834.28	3.5320	3.5320	0.1211	25.96	0.01	1.500			
0.8415	53856.17	3.5290	3.5290	0.1069	25.96	0.01	1.500			
0.8418	53875.49	3.5260	3.5261	0.0930	25.96	0.01	1.500			
0.8421	53892.42	3.5230	3.5230	0.0792	25.96	0.01	1.500			
0.8423	53906.20	3.5200	3.5203	0.0643	25.96	0.01	1.500			
0.8425	53917.13	3.5170	3.5177	0.0494	25.96	0.01	1.500			
0.8426	53925.18	3.5140	3.5152	0.0345	25.96	0.01	1.500			
0.8427	53930.37	3.5110	3.5128	0.0196	25.96	0.01	1.500			
