Ah_balance (normalized)	Ah_balance (mAh)	Voltage - fit (V)	Voltage -  interpolate (V)	dQ/dV (1/V)	Temperature (°C)	Temperature - diff (°C)	Current (C)	R_DC 0ms (mOhm)	R_DC 50ms (mOhm)	R_DC 50 ms PEC (mOhm)
0.1949	12472.88	3.9280	3.9278	-0.0953	25.77	-0.03	-1.500			
0.1952	12493.89	3.9250	3.9249	-0.1235	25.77	-0.03	-1.500			
0.1956	12521.11	3.9220	3.9218	-0.1504	25.77	-0.03	-1.500			
0.1961	12552.14	3.9190	3.9190	-0.1764	25.77	-0.03	-1.500			
0.1967	12588.80	3.9160	3.9160	-0.2009	25.77	-0.03	-1.500			
0.1973	12629.84	3.9130	3.9130	-0.2261	25.77	-0.03	-1.500			
0.1981	12676.00	3.9100	3.9100	-0.2507	25.78	-0.02	-1.500			
0.1988	12726.17	3.9070	3.9070	-0.2758	25.78	-0.02	-1.500			
0.1997	12781.46	3.9040	3.9041	-0.3005	25.78	-0.02	-1.500			
0.2007	12842.19	3.9010	3.9009	-0.3231	25.78	-0.02	-1.500			
0.2017	12906.44	3.8980	3.8980	-0.3441	25.78	-0.02	-1.500			
0.2027	12975.09	3.8950	3.8951	-0.3667	25.78	-0.02	-1.500			
0.2039	13047.09	3.8920	3.8920	-0.3883	25.78	-0.02	-1.500			
0.2051	13123.74	3.8890	3.8890	-0.4105	25.79	-0.01	-1.500			
0.2063	13204.61	3.8860	3.8860	-0.4310	25.79	-0.01	-1.500			
0.2077	13289.62	3.8830	3.8830	-0.4532	25.79	-0.01	-1.500			
0.2091	13379.43	3.8800	3.8801	-0.4734	25.79	-0.01	-1.500			
0.2105	13473.34	3.8770	3.8769	-0.4910	25.80	-0.00	-1.500			
0.2120	13568.70	3.8740	3.8740	-0.5086	25.80	-0.00	-1.500			
0.2136	13668.45	3.8710	3.8711	-0.5215	25.80	0.00	-1.500			
0.2152	13770.19	3.8680	3.8680	-0.5351	25.80	0.00	-1.500			
0.2168	13875.01	3.8650	3.8649	-0.5479	25.81	0.01	-1.500			
0.2185	13980.96	3.8620	3.8620	-0.5582	25.81	0.01	-1.500			
0.2202	14089.72	3.8590	3.8590	-0.5704	25.81	0.01	-1.500			
0.2219	14200.42	3.8560	3.8560	-0.5792	25.81	0.01	-1.500			
0.2236	14312.15	3.8530	3.8530	-0.5876	25.82	0.02	-1.500			
0.2254	14427.17	3.8500	3.8500	-0.5980	25.82	0.02	-1.500			
0.2272	14543.02	3.8470	3.8470	-0.6040	25.82	0.02	-1.500			
0.2291	14659.48	3.8440	3.8440	-0.6109	25.82	0.02	-1.500			
0.2309	14777.36	3.8410	3.8410	-0.6162	25.83	0.03	-1.500			
0.2328	14896.07	3.8380	3.8380	-0.6217	25.83	0.03	-1.500			
0.2346	15017.32	3.8350	3.8349	-0.6261	25.83	0.03	-1.500			
0.2365	15137.41	3.8320	3.8320	-0.6289	25.84	0.04	-1.500			
0.2384	15259.07	3.8290	3.8291	-0.6320	25.84	0.04	-1.500			
0.2403	15380.34	3.8260	3.8261	-0.6341	25.84	0.04	-1.500			
0.2422	15502.31	3.8230	3.8229	-0.6344	25.85	0.05	-1.500			
0.2441	15624.00	3.8200	3.8200	-0.6380	25.85	0.05	-1.500			
0.2460	15746.26	3.8170	3.8170	-0.6390	25.86	0.06	-1.500			
0.2480	15869.51	3.8140	3.8140	-0.6420	25.86	0.06	-1.500			
0.2499	15993.30	3.8110	3.8109	-0.6439	25.87	0.07	-1.500			
0.2518	16117.68	3.8080	3.8080	-0.6459	25.87	0.07	-1.500			
0.2538	16241.33	3.8050	3.8050	-0.6471	25.88	0.08	-1.500			
0.2557	16366.73	3.8020	3.8020	-0.6467	25.88	0.08	-1.500			
0.2577	16490.54	3.7990	3.7990	-0.6464	25.89	0.09	-1.500			
0.2596	16614.15	3.7960	3.7960	-0.6502	25.89	0.09	-1.500			
0.2615	16738.45	3.7930	3.7931	-0.6520	25.90	0.10	-1.500			
0.2635	16864.14	3.7900	3.7901	-0.6540	25.90	0.10	-1.500			
0.2655	16990.56	3.7870	3.7869	-0.6536	25.90	0.10	-1.500			
0.2674	17115.58	3.7840	3.7841	-0.6574	25.91	0.11	-1.500			
0.2694	17242.54	3.7810	3.7810	-0.6600	25.91	0.11	-1.500			
0.2714	17369.51	3.7780	3.7780	-0.6618	25.92	0.12	-1.500			
0.2734	17496.24	3.7750	3.7749	-0.6623	25.92	0.12	-1.500			
0.2754	17623.55	3.7720	3.7721	-0.6649	25.93	0.13	-1.500			
0.2774	17751.96	3.7690	3.7690	-0.6681	25.93	0.13	-1.500			
0.2794	17881.64	3.7660	3.7660	-0.6703	25.94	0.14	-1.500			
0.2814	18008.55	3.7630	3.7630	-0.6702	25.94	0.14	-1.500			
0.2834	18136.80	3.7600	3.7600	-0.6744	25.95	0.15	-1.500			
0.2854	18267.10	3.7570	3.7570	-0.6757	25.95	0.15	-1.500			
0.2875	18397.19	3.7540	3.7539	-0.6796	25.96	0.16	-1.500			
0.2895	18528.34	3.7510	3.7510	-0.6805	25.96	0.16	-1.500			
0.2915	18659.12	3.7480	3.7480	-0.6857	25.97	0.17	-1.500			
0.2936	18791.57	3.7450	3.7450	-0.6887	25.98	0.18	-1.500			
0.2957	18922.33	3.7420	3.7420	-0.6914	25.98	0.18	-1.500			
0.2978	19056.40	3.7390	3.7391	-0.6979	25.99	0.19	-1.500			
0.2999	19191.25	3.7360	3.7360	-0.7058	26.00	0.20	-1.500			
0.3020	19326.47	3.7330	3.7330	-0.7116	26.00	0.20	-1.500			
0.3041	19464.83	3.7300	3.7300	-0.7187	26.01	0.21	-1.500			
0.3063	19602.83	3.7270	3.7270	-0.7224	26.02	0.22	-1.500			
0.3085	19743.09	3.7240	3.7240	-0.7296	26.02	0.22	-1.500			
0.3107	19883.15	3.7210	3.7211	-0.7353	26.03	0.23	-1.500			
0.3129	20025.26	3.7180	3.7180	-0.7420	26.04	0.24	-1.500			
0.3151	20167.83	3.7150	3.7150	-0.7460	26.04	0.24	-1.500			
0.3174	20310.76	3.7120	3.7121	-0.7541	26.05	0.25	-1.500			
0.3196	20456.70	3.7090	3.7090	-0.7606	26.05	0.25	-1.500			
0.3219	20603.51	3.7060	3.7060	-0.7686	26.06	0.26	-1.500			
0.3242	20750.88	3.7030	3.7030	-0.7772	26.07	0.27	-1.500			
0.3266	20901.19	3.7000	3.7000	-0.7855	26.07	0.27	-1.500			
0.3290	21053.93	3.6970	3.6970	-0.7947	26.08	0.28	-1.500			
0.3314	21207.16	3.6940	3.6940	-0.8042	26.08	0.28	-1.500			
0.3338	21362.24	3.6910	3.6911	-0.8098	26.09	0.29	-1.500			
0.3362	21519.07	3.6880	3.6880	-0.8207	26.09	0.29	-1.500			
0.3387	21676.02	3.6850	3.6850	-0.8289	26.10	0.30	-1.500			
0.3412	21836.38	3.6820	3.6820	-0.8378	26.11	0.31	-1.500			
0.3437	21998.74	3.6790	3.6789	-0.8481	26.11	0.31	-1.500			
0.3463	22161.25	3.6760	3.6760	-0.8601	26.12	0.32	-1.500			
0.3489	22327.18	3.6730	3.6731	-0.8713	26.13	0.33	-1.500			
0.3515	22496.30	3.6700	3.6700	-0.8853	26.13	0.33	-1.500			
0.3542	22666.97	3.6670	3.6669	-0.8962	26.14	0.34	-1.500			
0.3569	22840.88	3.6640	3.6641	-0.9086	26.14	0.34	-1.500			
0.3596	23017.25	3.6610	3.6610	-0.9235	26.15	0.35	-1.500			
0.3624	23195.32	3.6580	3.6579	-0.9338	26.16	0.36	-1.500			
0.3652	23374.44	3.6550	3.6550	-0.9425	26.16	0.36	-1.500			
0.3681	23557.45	3.6520	3.6520	-0.9561	26.17	0.37	-1.500			
0.3710	23742.42	3.6490	3.6490	-0.9676	26.17	0.37	-1.500			
0.3739	23929.60	3.6460	3.6460	-0.9781	26.18	0.38	-1.500			
0.3769	24119.07	3.6430	3.6430	-0.9887	26.18	0.38	-1.500			
0.3798	24308.49	3.6400	3.6400	-1.0044	26.19	0.39	-1.500			
0.3828	24502.15	3.6370	3.6370	-1.0190	26.19	0.39	-1.500			
0.3859	24699.66	3.6340	3.6339	-1.0337	26.20	0.40	-1.500			
0.3891	24899.60	3.6310	3.6311	-1.0524	26.20	0.40	-1.500			
0.3923	25104.17	3.6280	3.6280	-1.0657	26.20	0.40	-1.500			
0.3955	25310.71	3.6250	3.6250	-1.0769	26.21	0.41	-1.500			
0.3987	25519.14	3.6220	3.6221	-1.0879	26.21	0.41	-1.500			
0.4020	25726.80	3.6190	3.6190	-1.1059	26.21	0.41	-1.500			
0.4053	25941.62	3.6160	3.6159	-1.1204	26.21	0.41	-1.500			
0.4087	26158.57	3.6130	3.6129	-1.1349	26.22	0.42	-1.500			
0.4122	26378.24	3.6100	3.6100	-1.1445	26.22	0.42	-1.500			
0.4156	26600.83	3.6070	3.6071	-1.1644	26.22	0.42	-1.500			
0.4192	26826.08	3.6040	3.6040	-1.1717	26.23	0.43	-1.500			
0.4227	27049.84	3.6010	3.6010	-1.1856	26.23	0.43	-1.500			
0.4262	27275.67	3.5980	3.5980	-1.2048	26.24	0.44	-1.500			
0.4299	27513.75	3.5950	3.5950	-1.2215	26.25	0.45	-1.500			
0.4336	27748.96	3.5920	3.5919	-1.2343	26.25	0.45	-1.500			
0.4373	27989.76	3.5890	3.5889	-1.2500	26.26	0.46	-1.500			
0.4411	28228.80	3.5860	3.5860	-1.2585	26.26	0.46	-1.500			
0.4449	28470.95	3.5830	3.5829	-1.2761	26.26	0.46	-1.500			
0.4487	28714.08	3.5800	3.5801	-1.2884	26.26	0.46	-1.500			
0.4525	28959.56	3.5770	3.5770	-1.3136	26.27	0.47	-1.500			
0.4566	29221.06	3.5740	3.5740	-1.3452	26.27	0.47	-1.500			
0.4606	29479.83	3.5710	3.5710	-1.3607	26.27	0.47	-1.500			
0.4647	29743.98	3.5680	3.5680	-1.3867	26.27	0.47	-1.500			
0.4689	30012.16	3.5650	3.5650	-1.4078	26.27	0.47	-1.500			
0.4732	30282.29	3.5620	3.5620	-1.4265	26.28	0.48	-1.500			
0.4775	30560.82	3.5590	3.5590	-1.4435	26.28	0.48	-1.500			
0.4819	30838.97	3.5560	3.5560	-1.4561	26.28	0.48	-1.500			
0.4863	31122.01	3.5530	3.5529	-1.4753	26.29	0.49	-1.500			
0.4907	31406.45	3.5500	3.5500	-1.4917	26.29	0.49	-1.500			
0.4952	31692.52	3.5470	3.5470	-1.5046	26.30	0.50	-1.500			
0.4997	31981.88	3.5440	3.5440	-1.5269	26.30	0.50	-1.500			
0.5043	32275.99	3.5410	3.5410	-1.5418	26.30	0.50	-1.500			
0.5090	32576.40	3.5380	3.5378	-1.5691	26.31	0.51	-1.500			
0.5138	32880.39	3.5350	3.5352	-1.5899	26.31	0.51	-1.500			
0.5186	33187.85	3.5320	3.5319	-1.6061	26.31	0.51	-1.500			
0.5234	33499.91	3.5290	3.5291	-1.6226	26.32	0.52	-1.500			
0.5283	33813.96	3.5260	3.5261	-1.6359	26.32	0.52	-1.500	0.372	0.533	
0.5333	34130.17	3.5230	3.5230	-1.6488	26.33	0.53	-1.500			
0.5382	34448.00	3.5200	3.5201	-1.6492	26.33	0.53	-1.500			
0.5432	34762.20	3.5170	3.5170	-1.6590	26.34	0.54	-1.500			
0.5481	35080.29	3.5140	3.5140	-1.6718	26.34	0.54	-1.500			
0.5532	35402.76	3.5110	3.5109	-1.6802	26.35	0.55	-1.500			
0.5583	35729.25	3.5080	3.5080	-1.6893	26.35	0.55	-1.500			
0.5633	36053.76	3.5050	3.5050	-1.6871	26.36	0.56	-1.500			
0.5684	36379.12	3.5020	3.5020	-1.6928	26.37	0.57	-1.500			
0.5735	36703.97	3.4990	3.4990	-1.6979	26.38	0.58	-1.500			
0.5786	37028.23	3.4960	3.4959	-1.6958	26.38	0.58	-1.500			
0.5837	37354.48	3.4930	3.4929	-1.6888	26.39	0.59	-1.500			
0.5888	37680.14	3.4900	3.4902	-1.6892	26.40	0.60	-1.500			
0.5938	38004.68	3.4870	3.4870	-1.6908	26.41	0.61	-1.500			
0.5989	38329.14	3.4840	3.4839	-1.6867	26.43	0.63	-1.500			
0.6039	38650.75	3.4810	3.4810	-1.6684	26.44	0.64	-1.500			
0.6090	38973.61	3.4780	3.4780	-1.6703	26.45	0.65	-1.500			
0.6140	39294.64	3.4750	3.4751	-1.6517	26.46	0.66	-1.500			
0.6189	39611.78	3.4720	3.4719	-1.6318	26.47	0.67	-1.500			
0.6238	39921.08	3.4690	3.4690	-1.6148	26.48	0.68	-1.500			
0.6286	40228.38	3.4660	3.4660	-1.5913	26.50	0.70	-1.500			
0.6333	40532.31	3.4630	3.4630	-1.5827	26.51	0.71	-1.500			
0.6380	40834.63	3.4600	3.4600	-1.5637	26.52	0.72	-1.500			
0.6427	41131.98	3.4570	3.4570	-1.5457	26.53	0.73	-1.500			
0.6473	41429.63	3.4540	3.4539	-1.5295	26.55	0.75	-1.500			
0.6519	41720.81	3.4510	3.4511	-1.5100	26.56	0.76	-1.500			
0.6564	42008.94	3.4480	3.4480	-1.4853	26.58	0.78	-1.500			
0.6608	42294.08	3.4450	3.4450	-1.4685	26.59	0.79	-1.500			
0.6652	42572.66	3.4420	3.4420	-1.4409	26.61	0.81	-1.500			
0.6695	42845.91	3.4390	3.4391	-1.4236	26.62	0.82	-1.500			
0.6737	43115.38	3.4360	3.4360	-1.4088	26.64	0.84	-1.500			
0.6779	43384.26	3.4330	3.4330	-1.3903	26.65	0.85	-1.500			
0.6821	43651.48	3.4300	3.4299	-1.3721	26.67	0.87	-1.500			
0.6861	43913.47	3.4270	3.4270	-1.3592	26.68	0.88	-1.500			
0.6902	44172.74	3.4240	3.4241	-1.3368	26.70	0.90	-1.500			
0.6942	44428.14	3.4210	3.4210	-1.3223	26.72	0.92	-1.500			
0.6981	44679.50	3.4180	3.4180	-1.3036	26.73	0.93	-1.500			
0.7020	44927.28	3.4150	3.4150	-1.2818	26.75	0.95	-1.500			
0.7058	45174.01	3.4120	3.4120	-1.2646	26.77	0.97	-1.500			
0.7097	45418.09	3.4090	3.4090	-1.2392	26.79	0.99	-1.500			
0.7133	45652.62	3.4060	3.4060	-1.2038	26.80	1.00	-1.500			
0.7169	45881.06	3.4030	3.4030	-1.1760	26.82	1.02	-1.500			
0.7203	46101.97	3.4000	3.4001	-1.1399	26.83	1.03	-1.500			
0.7237	46316.85	3.3970	3.3969	-1.1093	26.85	1.05	-1.500			
0.7270	46529.53	3.3940	3.3940	-1.0768	26.87	1.07	-1.500			
0.7302	46734.32	3.3910	3.3910	-1.0459	26.88	1.08	-1.500			
0.7333	46931.95	3.3880	3.3879	-1.0141	26.90	1.10	-1.500			
0.7363	47123.72	3.3850	3.3849	-0.9826	26.91	1.11	-1.500			
0.7392	47308.08	3.3820	3.3821	-0.9511	26.92	1.12	-1.500			
0.7420	47487.05	3.3790	3.3789	-0.9230	26.94	1.14	-1.500			
0.7447	47659.55	3.3760	3.3760	-0.8933	26.95	1.15	-1.500			
0.7474	47830.50	3.3730	3.3730	-0.8631	26.96	1.16	-1.500			
0.7499	47996.58	3.3700	3.3700	-0.8403	26.97	1.17	-1.500			
0.7524	48152.93	3.3670	3.3670	-0.8110	26.98	1.18	-1.500			
0.7548	48306.09	3.3640	3.3640	-0.7840	26.99	1.19	-1.500			
0.7571	48452.66	3.3610	3.3609	-0.7556	27.00	1.20	-1.500			
0.7593	48595.03	3.3580	3.3580	-0.7332	27.01	1.21	-1.500			
0.7615	48733.69	3.3550	3.3552	-0.7121	27.02	1.22	-1.500			
0.7636	48868.93	3.3520	3.3520	-0.6932	27.03	1.23	-1.500			
0.7656	49000.03	3.3490	3.3490	-0.6720	27.04	1.24	-1.500			
0.7676	49126.33	3.3460	3.3460	-0.6516	27.05	1.25	-1.500			
0.7695	49249.54	3.3430	3.3430	-0.6351	27.06	1.26	-1.500			
0.7714	49369.28	3.3400	3.3400	-0.6178	27.07	1.27	-1.500			
0.7732	49485.76	3.3370	3.3370	-0.6029	27.08	1.28	-1.500			
0.7750	49600.03	3.3340	3.3340	-0.5865	27.09	1.29	-1.500			
0.7767	49711.48	3.3310	3.3310	-0.5706	27.10	1.30	-1.500			
0.7784	49820.54	3.3280	3.3279	-0.5552	27.10	1.30	-1.500			
0.7801	49925.35	3.3250	3.3250	-0.5379	27.11	1.31	-1.500			
0.7817	50026.09	3.3220	3.3220	-0.5213	27.12	1.32	-1.500			
0.7832	50123.70	3.3190	3.3190	-0.5101	27.13	1.33	-1.500			
0.7847	50220.21	3.3160	3.3160	-0.4967	27.13	1.33	-1.500			
0.7862	50315.04	3.3130	3.3129	-0.4878	27.14	1.34	-1.500			
0.7876	50408.43	3.3100	3.3100	-0.4758	27.15	1.35	-1.500			
0.7890	50498.53	3.3070	3.3071	-0.4642	27.15	1.35	-1.500			
0.7904	50586.77	3.3040	3.3040	-0.4514	27.16	1.36	-1.500			
0.7917	50671.48	3.3010	3.3010	-0.4382	27.17	1.37	-1.500			
0.7930	50753.55	3.2980	3.2980	-0.4270	27.18	1.38	-1.500			
0.7943	50834.70	3.2950	3.2950	-0.4196	27.19	1.39	-1.500			
0.7955	50914.47	3.2920	3.2919	-0.4094	27.20	1.40	-1.500			
0.7968	50992.65	3.2890	3.2890	-0.4010	27.21	1.41	-1.500			
0.7979	51068.34	3.2860	3.2860	-0.3909	27.21	1.41	-1.500			
0.7991	51142.85	3.2830	3.2830	-0.3830	27.22	1.42	-1.500			
0.8002	51215.25	3.2800	3.2800	-0.3737	27.23	1.43	-1.500			
0.8014	51286.41	3.2770	3.2769	-0.3638	27.24	1.44	-1.500			
0.8024	51354.97	3.2740	3.2740	-0.3554	27.24	1.44	-1.500			
0.8035	51422.57	3.2710	3.2710	-0.3487	27.25	1.45	-1.500			
0.8045	51488.89	3.2680	3.2680	-0.3401	27.26	1.46	-1.500			
0.8055	51553.26	3.2650	3.2649	-0.3325	27.26	1.46	-1.500			
0.8065	51615.72	3.2620	3.2620	-0.3264	27.27	1.47	-1.500			
0.8075	51677.79	3.2590	3.2591	-0.3193	27.27	1.47	-1.500			
0.8084	51738.67	3.2560	3.2560	-0.3136	27.28	1.48	-1.500			
0.8093	51797.98	3.2530	3.2530	-0.3073	27.29	1.49	-1.500			
0.8103	51856.37	3.2500	3.2500	-0.3034	27.29	1.49	-1.500			
0.8112	51914.48	3.2470	3.2470	-0.2986	27.30	1.50	-1.500			
0.8120	51971.13	3.2440	3.2440	-0.2931	27.30	1.50	-1.500			
0.8129	52026.77	3.2410	3.2410	-0.2873	27.31	1.51	-1.500			
0.8138	52082.19	3.2380	3.2380	-0.2825	27.31	1.51	-1.500			
0.8146	52135.82	3.2350	3.2350	-0.2764	27.32	1.52	-1.500			
0.8154	52188.09	3.2320	3.2320	-0.2704	27.33	1.53	-1.500			
0.8162	52238.72	3.2290	3.2290	-0.2654	27.33	1.53	-1.500			
0.8170	52289.43	3.2260	3.2261	-0.2623	27.34	1.54	-1.500			
0.8178	52339.12	3.2230	3.2229	-0.2583	27.35	1.55	-1.500			
0.8186	52388.49	3.2200	3.2199	-0.2526	27.35	1.55	-1.500			
0.8193	52436.73	3.2170	3.2171	-0.2502	27.36	1.56	-1.500			
0.8201	52484.16	3.2140	3.2141	-0.2460	27.36	1.56	-1.500			
0.8208	52531.04	3.2110	3.2110	-0.2423	27.37	1.57	-1.500			
0.8215	52577.16	3.2080	3.2078	-0.2388	27.38	1.58	-1.500			
0.8222	52622.12	3.2050	3.2051	-0.2347	27.38	1.58	-1.500			
0.8229	52667.11	3.2020	3.2020	-0.2320	27.39	1.59	-1.500			
0.8236	52711.38	3.1990	3.1990	-0.2291	27.39	1.59	-1.500			
0.8243	52755.60	3.1960	3.1960	-0.2269	27.40	1.60	-1.500			
0.8250	52798.31	3.1930	3.1930	-0.2226	27.40	1.60	-1.500			
0.8256	52840.89	3.1900	3.1901	-0.2200	27.41	1.61	-1.500			
0.8263	52882.74	3.1870	3.1869	-0.2179	27.41	1.61	-1.500			
0.8269	52924.42	3.1840	3.1840	-0.2149	27.42	1.62	-1.500			
0.8276	52965.30	3.1810	3.1809	-0.2124	27.43	1.63	-1.500			
0.8282	53005.89	3.1780	3.1780	-0.2101	27.43	1.63	-1.500			
0.8288	53045.96	3.1750	3.1751	-0.2079	27.44	1.64	-1.500			
0.8295	53085.64	3.1720	3.1719	-0.2053	27.44	1.64	-1.500			
0.8301	53124.87	3.1690	3.1690	-0.2031	27.45	1.65	-1.500			
0.8307	53163.62	3.1660	3.1660	-0.2006	27.45	1.65	-1.500			
0.8313	53201.79	3.1630	3.1630	-0.1978	27.46	1.66	-1.500			
0.8319	53239.69	3.1600	3.1600	-0.1961	27.47	1.67	-1.500			
0.8324	53276.74	3.1570	3.1570	-0.1938	27.47	1.67	-1.500			
0.8330	53313.81	3.1540	3.1540	-0.1923	27.48	1.68	-1.500			
0.8336	53350.42	3.1510	3.1509	-0.1907	27.48	1.68	-1.500			
0.8342	53387.13	3.1480	3.1480	-0.1886	27.49	1.69	-1.500			
0.8347	53423.15	3.1450	3.1450	-0.1869	27.49	1.69	-1.500			
0.8353	53458.86	3.1420	3.1420	-0.1850	27.50	1.70	-1.500			
0.8358	53494.39	3.1390	3.1391	-0.1832	27.50	1.70	-1.500			
0.8364	53529.13	3.1360	3.1358	-0.1814	27.51	1.71	-1.500			
0.8369	53563.67	3.1330	3.1331	-0.1794	27.51	1.71	-1.500			
0.8375	53597.99	3.1300	3.1300	-0.1781	27.51	1.71	-1.500			
0.8380	53632.08	3.1270	3.1270	-0.1763	27.51	1.71	-1.500			
0.8385	53666.00	3.1240	3.1240	-0.1750	27.51	1.71	-1.500			
0.8390	53699.08	3.1210	3.1209	-0.1734	27.52	1.72	-1.500			
0.8396	53732.26	3.1180	3.1181	-0.1722	27.53	1.73	-1.500			
0.8401	53765.21	3.1150	3.1149	-0.1709	27.53	1.73	-1.500			
0.8406	53797.75	3.1120	3.1120	-0.1697	27.54	1.74	-1.500			
0.8411	53830.32	3.1090	3.1091	-0.1689	27.54	1.74	-1.500			
0.8416	53862.65	3.1060	3.1060	-0.1679	27.55	1.75	-1.500			
0.8421	53894.96	3.1030	3.1030	-0.1665	27.56	1.76	-1.500			
0.8426	53926.93	3.1000	3.1000	-0.1649	27.56	1.76	-1.500			
0.8431	53958.17	3.0970	3.0970	-0.1634	27.57	1.77	-1.500			
0.8436	53989.42	3.0940	3.0941	-0.1622	27.58	1.78	-1.500			
0.8441	54020.48	3.0910	3.0910	-0.1612	27.58	1.78	-1.500			
0.8445	54051.18	3.0880	3.0880	-0.1600	27.59	1.79	-1.500			
0.8450	54081.93	3.0850	3.0849	-0.1585	27.59	1.79	-1.500			
0.8455	54112.25	3.0820	3.0821	-0.1574	27.60	1.80	-1.500			
0.8460	54142.47	3.0790	3.0791	-0.1562	27.61	1.81	-1.500			
0.8464	54172.25	3.0760	3.0760	-0.1558	27.61	1.81	-1.500			
0.8469	54201.94	3.0730	3.0729	-0.1543	27.62	1.82	-1.500			
0.8474	54231.66	3.0700	3.0700	-0.1532	27.62	1.82	-1.500			
0.8478	54261.00	3.0670	3.0669	-0.1521	27.63	1.83	-1.500			
0.8483	54290.13	3.0640	3.0641	-0.1513	27.64	1.84	-1.500			
0.8487	54319.36	3.0610	3.0609	-0.1503	27.64	1.84	-1.500			
0.8492	54347.77	3.0580	3.0580	-0.1489	27.65	1.85	-1.500			
0.8496	54376.27	3.0550	3.0549	-0.1479	27.65	1.85	-1.500			
0.8501	54404.34	3.0520	3.0521	-0.1463	27.66	1.86	-1.500			
0.8505	54432.49	3.0490	3.0491	-0.1457	27.66	1.86	-1.500			
0.8509	54460.47	3.0460	3.0459	-0.1449	27.67	1.87	-1.500			
0.8514	54488.10	3.0430	3.0431	-0.1443	27.67	1.87	-1.500			
0.8518	54515.59	3.0400	3.0400	-0.1433	27.68	1.88	-1.500			
0.8522	54543.16	3.0370	3.0369	-0.1428	27.69	1.89	-1.500			
0.8527	54570.31	3.0340	3.0339	-0.1417	27.69	1.89	-1.500			
0.8531	54597.51	3.0310	3.0312	-0.1409	27.70	1.90	-1.500			
0.8535	54624.64	3.0280	3.0280	-0.1406	27.70	1.90	-1.500			
0.8539	54651.52	3.0250	3.0250	-0.1398	27.71	1.91	-1.500			
0.8543	54678.29	3.0220	3.0219	-0.1390	27.71	1.91	-1.500			
0.8548	54704.82	3.0190	3.0190	-0.1382	27.72	1.92	-1.500			
0.8552	54731.40	3.0160	3.0160	-0.1374	27.72	1.92	-1.500			
0.8556	54757.81	3.0130	3.0130	-0.1363	27.73	1.93	-1.500			
0.8560	54783.98	3.0100	3.0100	-0.1352	27.73	1.93	-1.500			
0.8564	54809.79	3.0070	3.0070	-0.1337	27.74	1.94	-1.500			
0.8568	54835.29	3.0040	3.0040	-0.1323	27.74	1.94	-1.500			
0.8572	54860.50	3.0010	3.0010	-0.1299	27.75	1.95	-1.500			
