Ah_balance (normalized)	Ah_balance (mAh)	Voltage - fit (V)	Voltage -  interpolate (V)	dQ/dV (1/V)	Temperature (°C)	Temperature - diff (°C)	Current (C)	R_DC 0ms (mOhm)	R_DC 50ms (mOhm)	R_DC 50 ms PEC (mOhm)
0.4714	30166.64	3.8080	3.8081	1.8503	26.78	0.82	1.500			
0.4767	30510.41	3.8050	3.8050	1.7958	26.76	0.80	1.500			
0.4821	30855.33	3.8020	3.8020	1.7985	26.75	0.79	1.500			
0.4874	31195.11	3.7990	3.7990	1.8472	26.73	0.77	1.500			
0.4931	31557.53	3.7960	3.7959	1.9019	26.72	0.76	1.500			
0.4989	31929.01	3.7930	3.7931	1.9769	26.70	0.74	1.500			
0.5049	32313.59	3.7900	3.7900	2.0376	26.69	0.73	1.500			
0.5110	32703.48	3.7870	3.7871	2.0793	26.68	0.72	1.500			
0.5174	33111.75	3.7840	3.7840	2.1708	26.67	0.71	1.500			
0.5240	33534.29	3.7810	3.7810	2.2327	26.65	0.69	1.500			
0.5309	33974.46	3.7780	3.7781	2.2851	26.63	0.67	1.500			
0.5378	34417.63	3.7750	3.7750	2.3408	26.62	0.66	1.500			
0.5448	34868.81	3.7720	3.7719	2.4650	26.60	0.64	1.500			
0.5525	35360.78	3.7690	3.7690	2.5539	26.58	0.62	1.500			
0.5603	35860.42	3.7660	3.7661	2.5568	26.56	0.60	1.500			
0.5678	36340.91	3.7630	3.7629	2.5489	26.54	0.58	1.500			
0.5754	36825.70	3.7600	3.7601	2.5558	26.52	0.56	1.500			
0.5833	37330.81	3.7570	3.7570	2.6265	26.50	0.54	1.500			
0.5909	37820.66	3.7540	3.7540	2.5211	26.48	0.52	1.500			
0.5985	38305.20	3.7510	3.7511	2.5025	26.46	0.50	1.500			
0.6060	38786.09	3.7480	3.7479	2.4400	26.45	0.49	1.500			
0.6132	39242.20	3.7450	3.7450	2.3646	26.43	0.47	1.500			
0.6202	39692.28	3.7420	3.7420	2.3336	26.42	0.46	1.500			
0.6271	40132.36	3.7390	3.7391	2.3197	26.40	0.44	1.500			
0.6340	40578.23	3.7360	3.7359	2.2779	26.38	0.42	1.500			
0.6408	41011.12	3.7330	3.7332	2.2887	26.36	0.40	1.500			
0.6477	41453.71	3.7300	3.7300	2.3000	26.35	0.39	1.500			
0.6546	41891.86	3.7270	3.7270	2.3094	26.33	0.37	1.500			
0.6615	42336.69	3.7240	3.7240	2.3049	26.32	0.36	1.500			
0.6684	42777.13	3.7210	3.7209	2.3844	26.30	0.34	1.500			
0.6757	43242.24	3.7180	3.7180	2.4544	26.29	0.33	1.500			
0.6833	43728.59	3.7150	3.7151	2.5560	26.27	0.31	1.500			
0.6908	44212.06	3.7120	3.7119	2.6430	26.26	0.30	1.500			
0.6989	44728.35	3.7090	3.7091	2.7680	26.24	0.28	1.500			
0.7078	45297.40	3.7060	3.7060	2.8600	26.23	0.27	1.500			
0.7160	45821.90	3.7030	3.7031	2.9350	26.21	0.25	1.500			
0.7249	46391.91	3.7000	3.7000	3.1975	26.19	0.23	1.500			
0.7348	47025.81	3.6970	3.6970	3.1736	26.18	0.22	1.500			
0.7436	47592.69	3.6940	3.6938	2.8908	26.17	0.21	1.500			
0.7522	48138.47	3.6910	3.6912	2.7705	26.16	0.20	1.500			
0.7605	48673.11	3.6880	3.6879	2.6148	26.15	0.19	1.500			
0.7677	49131.64	3.6850	3.6850	2.3005	26.14	0.18	1.500			
0.7743	49555.43	3.6820	3.6820	2.0882	26.13	0.17	1.500			
0.7801	49927.35	3.6790	3.6790	1.8797	26.12	0.16	1.500			
0.7854	50265.77	3.6760	3.6760	1.7237	26.12	0.16	1.500			
0.7903	50579.85	3.6730	3.6730	1.6167	26.11	0.15	1.500			
0.7950	50877.55	3.6700	3.6698	1.5202	26.10	0.14	1.500			
0.7994	51163.31	3.6670	3.6671	1.4428	26.09	0.13	1.500			
0.8036	51432.20	3.6640	3.6640	1.3710	26.09	0.13	1.500			
0.8076	51687.11	3.6610	3.6610	1.2978	26.08	0.12	1.500			
0.8113	51921.95	3.6580	3.6579	1.2427	26.07	0.11	1.500			
0.8149	52152.84	3.6550	3.6551	1.2119	26.07	0.11	1.500			
0.8184	52376.10	3.6520	3.6521	1.1978	26.06	0.10	1.500			
0.8219	52604.20	3.6490	3.6489	1.2067	26.06	0.10	1.500			
0.8255	52834.17	3.6460	3.6460	1.2161	26.05	0.09	1.500			
0.8292	53069.78	3.6430	3.6431	1.2373	26.05	0.09	1.500			
0.8330	53314.74	3.6400	3.6399	1.2620	26.04	0.08	1.500			
0.8368	53556.45	3.6370	3.6370	1.2680	26.03	0.07	1.500			
0.8406	53801.25	3.6340	3.6340	1.2785	26.03	0.07	1.500			
0.8445	54049.55	3.6310	3.6310	1.2828	26.02	0.06	1.500			
0.8484	54295.38	3.6280	3.6280	1.2799	26.02	0.06	1.500			
0.8522	54540.87	3.6250	3.6251	1.2800	26.01	0.05	1.500			
0.8560	54786.35	3.6220	3.6220	1.2827	26.01	0.05	1.500			
0.8599	55031.55	3.6190	3.6190	1.2832	26.00	0.04	1.500			
0.8637	55277.99	3.6160	3.6160	1.2851	26.00	0.04	1.500			
0.8676	55525.84	3.6130	3.6130	1.2875	25.99	0.03	1.500			
0.8715	55774.55	3.6100	3.6100	1.2852	25.99	0.03	1.500			
0.8754	56022.53	3.6070	3.6070	1.2767	25.98	0.02	1.500			
0.8792	56266.91	3.6040	3.6040	1.2628	25.98	0.02	1.500			
0.8830	56510.10	3.6010	3.6010	1.2525	25.97	0.01	1.500			
0.8867	56746.61	3.5980	3.5980	1.2345	25.96	0.00	1.500			
0.8904	56982.73	3.5950	3.5950	1.2223	25.96	-0.00	1.500			
0.8940	57215.64	3.5920	3.5920	1.2128	25.95	-0.01	1.500			
0.8976	57447.26	3.5890	3.5890	1.2042	25.95	-0.01	1.500			
0.9012	57676.90	3.5860	3.5860	1.2076	25.95	-0.01	1.500			
0.9048	57906.13	3.5830	3.5830	1.2082	25.95	-0.01	1.500			
0.9084	58138.95	3.5800	3.5800	1.2231	25.96	-0.00	1.500			
0.9122	58378.51	3.5770	3.5770	1.2298	25.96	-0.00	1.500			
0.9160	58622.41	3.5740	3.5738	1.2083	25.96	-0.00	1.500			
0.9197	58862.67	3.5710	3.5709	1.1185	25.96	-0.00	1.500			
0.9232	59084.72	3.5680	3.5682	1.0214	25.96	0.00	1.500			
0.9261	59271.88	3.5650	3.5652	0.8670	25.96	0.00	1.500			
0.9285	59426.69	3.5620	3.5619	0.7092	25.96	0.00	1.500			
0.9302	59534.69	3.5590	3.5590	0.5640	25.96	0.00	1.500			
0.9316	59621.33	3.5560	3.5559	0.4524	25.96	0.00	1.500			
0.9327	59690.83	3.5530	3.5529	0.3477	25.96	0.00	1.500			
0.9335	59746.29	3.5500	3.5497	0.2860	25.97	0.01	1.500			
0.9342	59788.52	3.5470	3.5470	0.2343	25.97	0.01	1.500			
0.9348	59828.30	3.5440	3.5438	0.1944	25.97	0.01	1.500			
0.9353	59858.54	3.5410	3.5410	0.1639	25.97	0.01	1.500			
0.9357	59887.04	3.5380	3.5381	0.1370	25.97	0.01	1.500			
0.9361	59910.11	3.5350	3.5350	0.1114	25.97	0.01	1.500			
0.9364	59929.03	3.5320	3.5320	0.0879	25.97	0.01	1.500			
0.9366	59943.69	3.5290	3.5291	0.0648	25.97	0.01	1.500			
0.9368	59953.87	3.5260	3.5265	0.0438	25.97	0.01	1.500			
