Ah_balance (normalized)	Ah_balance (mAh)	Voltage - fit (V)	Voltage -  interpolate (V)	dQ/dV (1/V)	Temperature (°C)	Temperature - diff (°C)	Current (C)	R_DC 0ms (mOhm)	R_DC 50ms (mOhm)	R_DC 50 ms PEC (mOhm)
0.2799	17916.13	3.9740	3.9740	0.8742	27.10	1.17	1.500			
0.2825	18081.28	3.9710	3.9710	0.8642	27.09	1.16	1.500			
0.2851	18248.27	3.9680	3.9681	0.8697	27.09	1.16	1.500			
0.2877	18414.21	3.9650	3.9650	0.8789	27.09	1.16	1.500			
0.2904	18584.01	3.9620	3.9620	0.8843	27.08	1.15	1.500			
0.2931	18756.04	3.9590	3.9590	0.8843	27.08	1.15	1.500			
0.2957	18926.80	3.9560	3.9560	0.8829	27.08	1.15	1.500			
0.2984	19096.76	3.9530	3.9532	0.8873	27.07	1.14	1.500			
0.3010	19265.90	3.9500	3.9500	0.8878	27.07	1.14	1.500			
0.3037	19435.52	3.9470	3.9469	0.8886	27.07	1.14	1.500			
0.3063	19605.31	3.9440	3.9440	0.8916	27.06	1.13	1.500			
0.3090	19777.09	3.9410	3.9411	0.9016	27.06	1.13	1.500			
0.3117	19951.19	3.9380	3.9380	0.9122	27.06	1.13	1.500			
0.3145	20127.22	3.9350	3.9350	0.9209	27.06	1.13	1.500			
0.3173	20305.20	3.9320	3.9319	0.9215	27.05	1.12	1.500			
0.3200	20482.82	3.9290	3.9291	0.9291	27.05	1.12	1.500			
0.3228	20661.71	3.9260	3.9260	0.9352	27.05	1.12	1.500			
0.3257	20842.21	3.9230	3.9230	0.9359	27.04	1.11	1.500			
0.3284	21020.56	3.9200	3.9200	0.9395	27.04	1.11	1.500			
0.3313	21201.32	3.9170	3.9170	0.9427	27.03	1.10	1.500			
0.3341	21383.45	3.9140	3.9141	0.9477	27.03	1.10	1.500			
0.3370	21566.14	3.9110	3.9110	0.9570	27.03	1.10	1.500			
0.3398	21748.54	3.9080	3.9080	0.9624	27.02	1.09	1.500			
0.3427	21934.30	3.9050	3.9050	0.9740	27.01	1.08	1.500			
0.3457	22123.21	3.9020	3.9020	0.9847	27.01	1.08	1.500			
0.3486	22311.84	3.8990	3.8990	0.9890	27.00	1.07	1.500			
0.3516	22504.62	3.8960	3.8960	1.0006	26.99	1.06	1.500			
0.3547	22698.59	3.8930	3.8930	1.0044	26.98	1.05	1.500			
0.3577	22890.98	3.8900	3.8900	1.0063	26.98	1.05	1.500			
0.3607	23083.58	3.8870	3.8871	1.0131	26.97	1.04	1.500			
0.3637	23278.34	3.8840	3.8840	1.0221	26.96	1.03	1.500			
0.3668	23474.06	3.8810	3.8810	1.0334	26.96	1.03	1.500			
0.3699	23672.99	3.8780	3.8780	1.0472	26.95	1.02	1.500			
0.3731	23876.28	3.8750	3.8750	1.0591	26.95	1.02	1.500			
0.3763	24081.60	3.8720	3.8720	1.0744	26.94	1.01	1.500			
0.3795	24289.37	3.8690	3.8690	1.0854	26.94	1.01	1.500			
0.3828	24498.92	3.8660	3.8660	1.0947	26.93	1.00	1.500			
0.3861	24709.87	3.8630	3.8630	1.1107	26.93	1.00	1.500			
0.3894	24924.53	3.8600	3.8600	1.1219	26.92	0.99	1.500			
0.3928	25140.58	3.8570	3.8570	1.1330	26.92	0.99	1.500			
0.3962	25358.74	3.8540	3.8541	1.1523	26.91	0.98	1.500			
0.3997	25580.15	3.8510	3.8510	1.1669	26.90	0.97	1.500			
0.4032	25806.51	3.8480	3.8480	1.1924	26.89	0.96	1.500			
0.4068	26036.66	3.8450	3.8450	1.2120	26.89	0.96	1.500			
0.4105	26270.09	3.8420	3.8419	1.2354	26.88	0.95	1.500			
0.4142	26511.47	3.8390	3.8391	1.2615	26.87	0.94	1.500			
0.4181	26756.04	3.8360	3.8360	1.2805	26.86	0.93	1.500			
0.4219	27003.11	3.8330	3.8329	1.2997	26.85	0.92	1.500			
0.4259	27255.30	3.8300	3.8301	1.3166	26.84	0.91	1.500			
0.4298	27508.82	3.8270	3.8269	1.3438	26.83	0.90	1.500			
0.4339	27769.41	3.8240	3.8240	1.3695	26.82	0.89	1.500			
0.4380	28034.13	3.8210	3.8209	1.3937	26.81	0.88	1.500			
0.4422	28303.03	3.8180	3.8181	1.4259	26.80	0.87	1.500			
0.4466	28579.98	3.8150	3.8150	1.4563	26.79	0.86	1.500			
0.4510	28860.91	3.8120	3.8120	1.4920	26.78	0.85	1.500			
0.4555	29150.03	3.8090	3.8090	1.5276	26.76	0.83	1.500			
0.4601	29445.43	3.8060	3.8059	1.5656	26.75	0.82	1.500			
0.4649	29750.49	3.8030	3.8030	1.6116	26.74	0.81	1.500			
0.4698	30067.04	3.8000	3.8000	1.6316	26.72	0.79	1.500			
0.4747	30382.68	3.7970	3.7970	1.6834	26.71	0.78	1.500			
0.4798	30706.77	3.7940	3.7941	1.7298	26.70	0.77	1.500			
0.4850	31041.47	3.7910	3.7907	1.7840	26.68	0.75	1.500			
0.4905	31392.33	3.7880	3.7880	1.8266	26.66	0.73	1.500			
0.4961	31748.67	3.7850	3.7851	1.8729	26.65	0.72	1.500			
0.5018	32117.22	3.7820	3.7820	1.9039	26.63	0.70	1.500			
0.5076	32485.65	3.7790	3.7790	1.9274	26.61	0.68	1.500			
0.5134	32855.96	3.7760	3.7760	1.9564	26.59	0.66	1.500			
0.5193	33236.47	3.7730	3.7731	1.9904	26.57	0.64	1.500			
0.5254	33623.02	3.7700	3.7700	2.0185	26.55	0.62	1.500			
0.5315	34013.86	3.7670	3.7670	2.0524	26.53	0.60	1.500			
0.5376	34409.02	3.7640	3.7639	2.0762	26.51	0.58	1.500	0.364	0.455	
0.5440	34814.32	3.7610	3.7610	2.0499	26.50	0.57	1.500			
0.5501	35208.55	3.7580	3.7581	2.0556	26.48	0.55	1.500			
0.5563	35600.51	3.7550	3.7550	2.0266	26.47	0.54	1.500			
0.5624	35992.58	3.7520	3.7521	2.0235	26.45	0.52	1.500			
0.5684	36379.58	3.7490	3.7491	2.0103	26.43	0.50	1.500			
0.5745	36768.36	3.7460	3.7460	2.0064	26.41	0.48	1.500			
0.5804	37145.28	3.7430	3.7430	1.9898	26.40	0.47	1.500			
0.5864	37527.54	3.7400	3.7400	2.0095	26.38	0.45	1.500			
0.5925	37918.44	3.7370	3.7370	2.0280	26.36	0.43	1.500			
0.5986	38308.40	3.7340	3.7340	2.0424	26.35	0.42	1.500			
0.6047	38702.00	3.7310	3.7311	2.0668	26.33	0.40	1.500			
0.6109	39097.66	3.7280	3.7279	2.1115	26.32	0.39	1.500			
0.6172	39503.69	3.7250	3.7250	2.1545	26.30	0.37	1.500			
0.6238	39921.50	3.7220	3.7220	2.1942	26.29	0.36	1.500			
0.6304	40348.22	3.7190	3.7191	2.2636	26.27	0.34	1.500			
0.6373	40787.98	3.7160	3.7161	2.3413	26.26	0.33	1.500			
0.6443	41237.87	3.7130	3.7131	2.4249	26.25	0.32	1.500			
0.6519	41718.66	3.7100	3.7100	2.5336	26.23	0.30	1.500			
0.6596	42216.79	3.7070	3.7070	2.6072	26.22	0.29	1.500			
0.6677	42732.26	3.7040	3.7040	2.6340	26.20	0.27	1.500			
0.6756	43238.32	3.7010	3.7010	2.6864	26.18	0.25	1.500			
0.6838	43761.52	3.6980	3.6978	2.6594	26.16	0.23	1.500			
0.6918	44273.76	3.6950	3.6951	2.5675	26.15	0.22	1.500			
0.6993	44757.81	3.6920	3.6920	2.3891	26.14	0.21	1.500			
0.7063	45204.13	3.6890	3.6890	2.2270	26.13	0.20	1.500			
0.7127	45614.94	3.6860	3.6860	2.0531	26.12	0.19	1.500			
0.7186	45990.02	3.6830	3.6831	1.8981	26.11	0.18	1.500			
0.7240	46336.70	3.6800	3.6800	1.7525	26.10	0.17	1.500			
0.7290	46653.57	3.6770	3.6769	1.6346	26.09	0.16	1.500			
0.7336	46951.76	3.6740	3.6740	1.5308	26.08	0.15	1.500			
0.7380	47231.89	3.6710	3.6710	1.4584	26.08	0.15	1.500			
0.7422	47502.70	3.6680	3.6679	1.3959	26.07	0.14	1.500			
0.7463	47764.54	3.6650	3.6650	1.3390	26.06	0.13	1.500			
0.7502	48010.89	3.6620	3.6620	1.3004	26.06	0.13	1.500			
0.7540	48255.70	3.6590	3.6591	1.2767	26.05	0.12	1.500			
0.7577	48493.68	3.6560	3.6560	1.2698	26.04	0.11	1.500			
0.7614	48732.33	3.6530	3.6529	1.2619	26.04	0.11	1.500			
0.7652	48973.81	3.6500	3.6500	1.2664	26.03	0.10	1.500			
0.7690	49217.79	3.6470	3.6471	1.2819	26.03	0.10	1.500			
0.7729	49468.07	3.6440	3.6440	1.2888	26.02	0.09	1.500			
0.7768	49714.53	3.6410	3.6410	1.2950	26.01	0.08	1.500			
0.7807	49963.40	3.6380	3.6380	1.3026	26.01	0.08	1.500			
0.7846	50214.01	3.6350	3.6349	1.3087	26.00	0.07	1.500			
0.7886	50467.89	3.6320	3.6320	1.3186	25.99	0.06	1.500			
0.7925	50722.97	3.6290	3.6290	1.3143	25.99	0.06	1.500			
0.7965	50975.00	3.6260	3.6260	1.3164	25.98	0.05	1.500			
0.8004	51228.01	3.6230	3.6231	1.3146	25.98	0.05	1.500			
0.8044	51480.33	3.6200	3.6200	1.3121	25.97	0.04	1.500			
0.8083	51733.04	3.6170	3.6169	1.3061	25.96	0.03	1.500			
0.8123	51984.00	3.6140	3.6140	1.2997	25.96	0.03	1.500			
0.8161	52233.25	3.6110	3.6110	1.2954	25.96	0.03	1.500			
0.8200	52482.51	3.6080	3.6080	1.2855	25.95	0.02	1.500			
0.8239	52726.55	3.6050	3.6050	1.2687	25.95	0.02	1.500			
0.8277	52970.09	3.6020	3.6021	1.2578	25.95	0.02	1.500			
0.8314	53211.14	3.5990	3.5990	1.2464	25.94	0.01	1.500			
0.8351	53449.38	3.5960	3.5960	1.2336	25.94	0.01	1.500			
0.8388	53684.42	3.5930	3.5930	1.2184	25.94	0.01	1.500			
0.8424	53916.64	3.5900	3.5900	1.2022	25.94	0.01	1.500			
0.8460	54147.04	3.5870	3.5870	1.1910	25.94	0.01	1.500			
0.8496	54372.59	3.5840	3.5840	1.1822	25.93	0.00	1.500			
0.8531	54600.12	3.5810	3.5809	1.1681	25.93	0.00	1.500			
0.8567	54825.93	3.5780	3.5779	1.1456	25.93	0.00	1.500			
0.8602	55051.14	3.5750	3.5749	1.0857	25.93	0.00	1.500			
0.8635	55265.62	3.5720	3.5721	1.0151	25.93	-0.00	1.500			
0.8666	55459.33	3.5690	3.5691	0.8966	25.93	-0.00	1.500			
0.8692	55626.58	3.5660	3.5661	0.7713	25.93	-0.00	1.500			
0.8712	55755.47	3.5630	3.5632	0.6357	25.93	-0.00	1.500			
0.8728	55860.84	3.5600	3.5598	0.5154	25.93	-0.00	1.500			
0.8740	55939.08	3.5570	3.5569	0.4126	25.92	-0.01	1.500			
0.8751	56005.53	3.5540	3.5539	0.3470	25.92	-0.01	1.500			
0.8760	56060.91	3.5510	3.5510	0.2945	25.92	-0.01	1.500			
0.8767	56111.08	3.5480	3.5479	0.2584	25.92	-0.01	1.500			
0.8774	56154.63	3.5450	3.5450	0.2247	25.92	-0.01	1.500			
0.8780	56194.34	3.5420	3.5419	0.2026	25.92	-0.01	1.500			
0.8786	56229.69	3.5390	3.5391	0.1831	25.92	-0.01	1.500			
0.8791	56262.81	3.5360	3.5360	0.1654	25.92	-0.01	1.500			
0.8796	56292.80	3.5330	3.5330	0.1510	25.92	-0.01	1.500			
0.8800	56319.91	3.5300	3.5299	0.1358	25.92	-0.01	1.500			
0.8804	56344.51	3.5270	3.5270	0.1209	25.92	-0.01	1.500			
0.8807	56366.64	3.5240	3.5241	0.1077	25.92	-0.01	1.500			
0.8810	56385.96	3.5210	3.5210	0.0934	25.92	-0.01	1.500			
0.8813	56402.78	3.5180	3.5182	0.0792	25.92	-0.01	1.500			
0.8815	56416.66	3.5150	3.5153	0.0644	25.92	-0.01	1.500			
0.8817	56427.59	3.5120	3.5126	0.0494	25.92	-0.01	1.500			
0.8818	56435.64	3.5090	3.5100	0.0345	25.92	-0.01	1.500			
