Ah_balance (normalized)	Ah_balance (mAh)	Voltage - fit (V)	Voltage -  interpolate (V)	dQ/dV (1/V)	Temperature (°C)	Temperature - diff (°C)	Current (C)	R_DC 0ms (mOhm)	R_DC 50ms (mOhm)	R_DC 50 ms PEC (mOhm)
0.2898	18544.76	3.9820	3.9821	0.8551	27.15	1.21	1.500			
0.2923	18708.31	3.9790	3.9790	0.8518	27.14	1.20	1.500			
0.2949	18871.21	3.9760	3.9760	0.8525	27.14	1.20	1.500			
0.2974	19035.21	3.9730	3.9730	0.8540	27.13	1.19	1.500			
0.3000	19198.51	3.9700	3.9700	0.8579	27.13	1.19	1.500			
0.3025	19363.15	3.9670	3.9670	0.8645	27.12	1.18	1.500			
0.3052	19530.65	3.9640	3.9640	0.8672	27.12	1.18	1.500			
0.3078	19697.86	3.9610	3.9610	0.8726	27.11	1.17	1.500			
0.3104	19865.61	3.9580	3.9580	0.8781	27.11	1.17	1.500			
0.3130	20034.92	3.9550	3.9550	0.8810	27.10	1.16	1.500			
0.3157	20204.56	3.9520	3.9519	0.8864	27.10	1.16	1.500			
0.3184	20374.90	3.9490	3.9491	0.8871	27.09	1.15	1.500			
0.3210	20545.04	3.9460	3.9460	0.8914	27.09	1.15	1.500			
0.3237	20717.61	3.9430	3.9430	0.8966	27.08	1.14	1.500			
0.3264	20889.68	3.9400	3.9400	0.8970	27.07	1.13	1.500			
0.3291	21061.62	3.9370	3.9370	0.8998	27.07	1.13	1.500			
0.3318	21236.30	3.9340	3.9341	0.9041	27.06	1.12	1.500			
0.3345	21408.85	3.9310	3.9310	0.9087	27.06	1.12	1.500			
0.3372	21583.78	3.9280	3.9279	0.9153	27.05	1.11	1.500			
0.3400	21759.68	3.9250	3.9251	0.9179	27.05	1.11	1.500			
0.3428	21936.03	3.9220	3.9220	0.9276	27.05	1.11	1.500			
0.3456	22116.12	3.9190	3.9190	0.9364	27.04	1.10	1.500			
0.3484	22298.20	3.9160	3.9159	0.9365	27.04	1.10	1.500			
0.3512	22478.07	3.9130	3.9129	0.9431	27.03	1.09	1.500			
0.3540	22656.86	3.9100	3.9102	0.9509	27.03	1.09	1.500			
0.3569	22840.07	3.9070	3.9070	0.9601	27.02	1.08	1.500			
0.3598	23025.38	3.9040	3.9040	0.9711	27.02	1.08	1.500			
0.3627	23212.12	3.9010	3.9010	0.9736	27.01	1.07	1.500			
0.3656	23401.40	3.8980	3.8981	0.9830	27.00	1.06	1.500			
0.3686	23592.49	3.8950	3.8950	0.9940	27.00	1.06	1.500			
0.3716	23782.70	3.8920	3.8920	0.9964	26.99	1.05	1.500			
0.3746	23973.05	3.8890	3.8890	0.9951	26.98	1.04	1.500			
0.3776	24165.38	3.8860	3.8860	1.0069	26.97	1.03	1.500			
0.3806	24358.26	3.8830	3.8831	1.0182	26.97	1.03	1.500			
0.3837	24555.04	3.8800	3.8797	1.0320	26.96	1.02	1.500			
0.3868	24754.22	3.8770	3.8771	1.0429	26.95	1.01	1.500			
0.3899	24954.98	3.8740	3.8740	1.0548	26.94	1.00	1.500			
0.3931	25159.29	3.8710	3.8710	1.0721	26.93	0.99	1.500			
0.3963	25366.13	3.8680	3.8680	1.0783	26.92	0.98	1.500			
0.3996	25575.54	3.8650	3.8649	1.0903	26.92	0.98	1.500			
0.4029	25786.35	3.8620	3.8621	1.1013	26.91	0.97	1.500			
0.4062	25998.31	3.8590	3.8590	1.1178	26.90	0.96	1.500			
0.4096	26214.11	3.8560	3.8560	1.1327	26.89	0.95	1.500			
0.4130	26432.03	3.8530	3.8529	1.1496	26.88	0.94	1.500			
0.4164	26651.85	3.8500	3.8500	1.1689	26.87	0.93	1.500			
0.4200	26880.14	3.8470	3.8470	1.1858	26.86	0.92	1.500			
0.4236	27109.78	3.8440	3.8439	1.2051	26.85	0.91	1.500			
0.4272	27343.09	3.8410	3.8411	1.2232	26.85	0.91	1.500			
0.4309	27577.98	3.8380	3.8380	1.2476	26.84	0.90	1.500			
0.4347	27819.87	3.8350	3.8349	1.2659	26.83	0.89	1.500			
0.4385	28064.47	3.8320	3.8320	1.2887	26.82	0.88	1.500			
0.4424	28313.26	3.8290	3.8290	1.3113	26.81	0.87	1.500			
0.4464	28568.04	3.8260	3.8260	1.3392	26.79	0.85	1.500			
0.4504	28824.64	3.8230	3.8230	1.3671	26.78	0.84	1.500			
0.4545	29090.67	3.8200	3.8200	1.4018	26.77	0.83	1.500			
0.4588	29360.79	3.8170	3.8170	1.4335	26.76	0.82	1.500			
0.4632	29642.40	3.8140	3.8140	1.4719	26.75	0.81	1.500			
0.4677	29930.59	3.8110	3.8111	1.4936	26.73	0.79	1.500			
0.4722	30219.20	3.8080	3.8080	1.5261	26.72	0.78	1.500			
0.4767	30511.87	3.8050	3.8050	1.5535	26.70	0.76	1.500			
0.4814	30811.42	3.8020	3.8020	1.5888	26.69	0.75	1.500			
0.4863	31120.48	3.7990	3.7990	1.6247	26.67	0.73	1.500			
0.4912	31437.43	3.7960	3.7960	1.6569	26.66	0.72	1.500			
0.4963	31760.37	3.7930	3.7930	1.6962	26.64	0.70	1.500			
0.5014	32088.34	3.7900	3.7900	1.7401	26.63	0.69	1.500			
0.5066	32424.71	3.7870	3.7870	1.7884	26.62	0.68	1.500			
0.5121	32771.80	3.7840	3.7840	1.8369	26.60	0.66	1.500			
0.5177	33134.40	3.7810	3.7810	1.8532	26.58	0.64	1.500			
0.5233	33492.18	3.7780	3.7781	1.8760	26.56	0.62	1.500			
0.5290	33853.07	3.7750	3.7750	1.9027	26.54	0.60	1.500			
0.5347	34222.12	3.7720	3.7719	1.9341	26.53	0.59	1.500	0.359	0.459	
0.5405	34594.46	3.7690	3.7691	1.9610	26.51	0.57	1.500			
0.5466	34980.42	3.7660	3.7660	1.9647	26.49	0.55	1.500			
0.5525	35357.30	3.7630	3.7630	1.9417	26.48	0.54	1.500			
0.5582	35727.72	3.7600	3.7599	1.9303	26.46	0.52	1.500			
0.5640	36096.89	3.7570	3.7570	1.9147	26.44	0.50	1.500			
0.5697	36463.02	3.7540	3.7540	1.8855	26.43	0.49	1.500			
0.5754	36822.94	3.7510	3.7510	1.8833	26.41	0.47	1.500			
0.5810	37182.00	3.7480	3.7480	1.8881	26.40	0.46	1.500			
0.5866	37543.19	3.7450	3.7450	1.9110	26.38	0.44	1.500			
0.5924	37912.38	3.7420	3.7419	1.9238	26.37	0.43	1.500			
0.5982	38284.23	3.7390	3.7390	1.9411	26.36	0.42	1.500			
0.6040	38657.64	3.7360	3.7361	1.9717	26.35	0.41	1.500			
0.6100	39037.74	3.7330	3.7329	1.9981	26.34	0.40	1.500			
0.6160	39421.62	3.7300	3.7300	2.0202	26.32	0.38	1.500			
0.6221	39815.15	3.7270	3.7271	2.0660	26.30	0.36	1.500			
0.6284	40215.16	3.7240	3.7240	2.1119	26.28	0.34	1.500			
0.6347	40622.95	3.7210	3.7210	2.1753	26.27	0.33	1.500			
0.6414	41047.93	3.7180	3.7180	2.2209	26.25	0.31	1.500			
0.6481	41477.92	3.7150	3.7151	2.3109	26.24	0.30	1.500			
0.6551	41926.28	3.7120	3.7120	2.4064	26.23	0.29	1.500			
0.6624	42396.28	3.7090	3.7090	2.4879	26.21	0.27	1.500			
0.6700	42882.77	3.7060	3.7060	2.5177	26.19	0.25	1.500			
0.6778	43379.18	3.7030	3.7030	2.5458	26.17	0.23	1.500			
0.6855	43872.00	3.7000	3.7000	2.5490	26.16	0.22	1.500			
0.6932	44367.22	3.6970	3.6970	2.4768	26.14	0.20	1.500			
0.7005	44832.54	3.6940	3.6941	2.3270	26.13	0.19	1.500			
0.7073	45265.36	3.6910	3.6908	2.1578	26.12	0.18	1.500			
0.7135	45662.26	3.6880	3.6881	1.9916	26.11	0.17	1.500			
0.7191	46021.62	3.6850	3.6851	1.8349	26.10	0.16	1.500			
0.7243	46355.54	3.6820	3.6820	1.6879	26.09	0.15	1.500			
0.7292	46667.55	3.6790	3.6790	1.5899	26.09	0.15	1.500			
0.7338	46963.12	3.6760	3.6759	1.5107	26.08	0.14	1.500			
0.7382	47244.93	3.6730	3.6730	1.4456	26.07	0.13	1.500			
0.7424	47513.78	3.6700	3.6700	1.3830	26.07	0.13	1.500			
0.7465	47772.91	3.6670	3.6669	1.3353	26.06	0.12	1.500			
0.7503	48019.62	3.6640	3.6641	1.2909	26.05	0.11	1.500			
0.7540	48257.93	3.6610	3.6610	1.2737	26.05	0.11	1.500			
0.7578	48500.99	3.6580	3.6579	1.2665	26.04	0.10	1.500			
0.7616	48741.82	3.6550	3.6550	1.2546	26.03	0.09	1.500			
0.7653	48981.25	3.6520	3.6521	1.2614	26.03	0.09	1.500			
0.7692	49225.86	3.6490	3.6491	1.2707	26.02	0.08	1.500			
0.7730	49470.74	3.6460	3.6458	1.2766	26.01	0.07	1.500			
0.7768	49714.64	3.6430	3.6430	1.2766	26.00	0.06	1.500			
0.7806	49960.69	3.6400	3.6401	1.2800	26.00	0.06	1.500			
0.7845	50209.75	3.6370	3.6370	1.2883	25.99	0.05	1.500			
0.7884	50458.49	3.6340	3.6340	1.2837	25.98	0.04	1.500			
0.7922	50702.51	3.6310	3.6310	1.2736	25.98	0.04	1.500			
0.7961	50947.35	3.6280	3.6280	1.2694	25.97	0.03	1.500			
0.7998	51190.09	3.6250	3.6250	1.2651	25.96	0.02	1.500			
0.8036	51432.19	3.6220	3.6220	1.2595	25.96	0.02	1.500			
0.8074	51673.53	3.6190	3.6190	1.2545	25.95	0.01	1.500			
0.8112	51914.65	3.6160	3.6160	1.2534	25.95	0.01	1.500			
0.8150	52157.08	3.6130	3.6130	1.2485	25.94	0.00	1.500			
0.8187	52396.98	3.6100	3.6100	1.2392	25.94	0.00	1.500			
0.8224	52634.85	3.6070	3.6069	1.2179	25.94	-0.00	1.500			
0.8260	52866.55	3.6040	3.6041	1.2037	25.94	-0.00	1.500			
0.8296	53095.41	3.6010	3.6010	1.1879	25.93	-0.01	1.500			
0.8331	53320.60	3.5980	3.5978	1.1740	25.93	-0.01	1.500			
0.8366	53544.46	3.5950	3.5950	1.1545	25.93	-0.01	1.500			
0.8401	53765.68	3.5920	3.5921	1.1401	25.93	-0.01	1.500			
0.8435	53984.94	3.5890	3.5890	1.1279	25.93	-0.01	1.500			
0.8469	54200.32	3.5860	3.5860	1.1061	25.94	-0.00	1.500			
0.8502	54413.41	3.5830	3.5830	1.0763	25.94	-0.00	1.500			
0.8535	54621.15	3.5800	3.5799	1.0371	25.94	-0.00	1.500			
0.8566	54825.41	3.5770	3.5770	0.9724	25.94	-0.00	1.500			
0.8595	55010.93	3.5740	3.5741	0.8866	25.94	0.00	1.500			
0.8621	55177.36	3.5710	3.5710	0.7849	25.94	0.00	1.500			
0.8643	55316.06	3.5680	3.5681	0.6652	25.94	0.00	1.500			
0.8660	55427.10	3.5650	3.5650	0.5553	25.94	0.00	1.500			
0.8675	55518.72	3.5620	3.5620	0.4606	25.94	0.00	1.500			
0.8686	55591.18	3.5590	3.5590	0.3805	25.94	0.00	1.500			
0.8696	55654.24	3.5560	3.5559	0.3250	25.94	0.00	1.500			
0.8704	55708.69	3.5530	3.5530	0.2747	25.94	0.00	1.500			
0.8712	55755.53	3.5500	3.5499	0.2417	25.95	0.01	1.500			
0.8718	55796.58	3.5470	3.5470	0.2144	25.95	0.01	1.500			
0.8724	55834.10	3.5440	3.5440	0.1927	25.95	0.01	1.500			
0.8729	55868.70	3.5410	3.5410	0.1729	25.95	0.01	1.500			
0.8734	55899.50	3.5380	3.5380	0.1563	25.95	0.01	1.500			
0.8739	55927.58	3.5350	3.5351	0.1399	25.95	0.01	1.500			
0.8743	55952.67	3.5320	3.5320	0.1247	25.95	0.01	1.500			
0.8746	55975.25	3.5290	3.5289	0.1105	25.95	0.01	1.500			
0.8749	55995.10	3.5260	3.5259	0.0963	25.95	0.01	1.500			
0.8752	56012.03	3.5230	3.5232	0.0820	25.95	0.01	1.500			
0.8754	56026.44	3.5200	3.5203	0.0681	25.95	0.01	1.500			
0.8756	56038.36	3.5170	3.5174	0.0536	25.95	0.01	1.500			
0.8757	56047.27	3.5140	3.5147	0.0392	25.95	0.01	1.500			
