Ah_balance (normalized)	Ah_balance (mAh)	Voltage - fit (V)	Voltage -  interpolate (V)	dQ/dV (1/V)	Temperature (°C)	Temperature - diff (°C)	Current (C)	R_DC 0ms (mOhm)	R_DC 50ms (mOhm)	R_DC 50 ms PEC (mOhm)
0.2831	18116.93	3.9700	3.9700	0.9034	27.47	1.50	1.500			
0.2858	18291.71	3.9670	3.9670	0.9114	27.46	1.49	1.500			
0.2885	18467.09	3.9640	3.9639	0.9038	27.46	1.49	1.500			
0.2912	18636.39	3.9610	3.9611	0.9001	27.46	1.49	1.500			
0.2939	18808.14	3.9580	3.9581	0.9012	27.45	1.48	1.500			
0.2966	18980.81	3.9550	3.9548	0.9082	27.45	1.48	1.500			
0.2993	19154.36	3.9520	3.9520	0.9125	27.45	1.48	1.500			
0.3020	19330.19	3.9490	3.9491	0.9244	27.44	1.47	1.500			
0.3049	19511.85	3.9460	3.9459	0.9362	27.44	1.47	1.500			
0.3077	19692.50	3.9430	3.9430	0.9356	27.44	1.47	1.500			
0.3105	19872.90	3.9400	3.9400	0.9388	27.43	1.46	1.500			
0.3134	20054.68	3.9370	3.9371	0.9368	27.43	1.46	1.500			
0.3161	20232.73	3.9340	3.9340	0.9405	27.43	1.46	1.500			
0.3189	20411.97	3.9310	3.9311	0.9412	27.42	1.45	1.500			
0.3218	20592.17	3.9280	3.9277	0.9466	27.42	1.45	1.500			
0.3246	20775.08	3.9250	3.9251	0.9554	27.42	1.45	1.500			
0.3275	20958.76	3.9220	3.9220	0.9675	27.41	1.44	1.500			
0.3304	21145.45	3.9190	3.9191	0.9822	27.41	1.44	1.500			
0.3334	21335.12	3.9160	3.9159	0.9826	27.41	1.44	1.500			
0.3364	21526.53	3.9130	3.9130	0.9892	27.40	1.43	1.500			
0.3393	21717.79	3.9100	3.9100	0.9997	27.40	1.43	1.500			
0.3423	21909.36	3.9070	3.9070	1.0068	27.40	1.43	1.500			
0.3454	22103.18	3.9040	3.9040	1.0123	27.39	1.42	1.500			
0.3484	22296.88	3.9010	3.9010	1.0182	27.39	1.42	1.500			
0.3515	22492.91	3.8980	3.8981	1.0289	27.38	1.41	1.500			
0.3546	22694.07	3.8950	3.8949	1.0399	27.38	1.41	1.500			
0.3577	22893.42	3.8920	3.8920	1.0529	27.37	1.40	1.500			
0.3609	23095.28	3.8890	3.8890	1.0606	27.37	1.40	1.500			
0.3640	23298.35	3.8860	3.8860	1.0786	27.36	1.39	1.500			
0.3673	23508.97	3.8830	3.8829	1.0908	27.36	1.39	1.500			
0.3706	23719.43	3.8800	3.8800	1.1046	27.35	1.38	1.500			
0.3740	23933.06	3.8770	3.8771	1.1167	27.35	1.38	1.500			
0.3773	24150.31	3.8740	3.8740	1.1322	27.34	1.37	1.500			
0.3807	24367.56	3.8710	3.8710	1.1410	27.33	1.36	1.500			
0.3842	24589.92	3.8680	3.8680	1.1444	27.33	1.36	1.500			
0.3876	24806.37	3.8650	3.8651	1.1620	27.32	1.35	1.500			
0.3911	25030.38	3.8620	3.8620	1.1863	27.31	1.34	1.500			
0.3947	25258.44	3.8590	3.8590	1.2018	27.30	1.33	1.500			
0.3983	25489.79	3.8560	3.8559	1.2271	27.30	1.33	1.500			
0.4020	25729.07	3.8530	3.8531	1.2452	27.29	1.32	1.500			
0.4058	25972.21	3.8500	3.8499	1.2700	27.28	1.31	1.500			
0.4097	26219.59	3.8470	3.8470	1.2880	27.27	1.30	1.500			
0.4135	26465.72	3.8440	3.8440	1.3035	27.27	1.30	1.500			
0.4175	26716.98	3.8410	3.8410	1.3241	27.26	1.29	1.500			
0.4214	26972.61	3.8380	3.8380	1.3582	27.25	1.28	1.500			
0.4255	27232.54	3.8350	3.8350	1.3865	27.24	1.27	1.500			
0.4298	27507.62	3.8320	3.8320	1.4089	27.23	1.26	1.500			
0.4341	27781.95	3.8290	3.8290	1.4349	27.22	1.25	1.500			
0.4384	28058.38	3.8260	3.8261	1.4710	27.20	1.23	1.500			
0.4428	28342.10	3.8230	3.8231	1.5051	27.19	1.22	1.500			
0.4474	28631.50	3.8200	3.8197	1.5442	27.18	1.21	1.500			
0.4520	28930.99	3.8170	3.8171	1.5790	27.17	1.20	1.500			
0.4569	29240.16	3.8140	3.8140	1.6113	27.16	1.19	1.500			
0.4618	29554.55	3.8110	3.8111	1.6597	27.14	1.17	1.500			
0.4668	29874.15	3.8080	3.8081	1.7051	27.13	1.16	1.500			
0.4720	30205.00	3.8050	3.8047	1.7470	27.12	1.15	1.500			
0.4773	30545.34	3.8020	3.8020	1.7969	27.10	1.13	1.500			
0.4828	30896.04	3.7990	3.7991	1.8576	27.09	1.12	1.500			
0.4884	31260.57	3.7960	3.7959	1.9296	27.07	1.10	1.500			
0.4942	31631.35	3.7930	3.7931	1.9748	27.05	1.08	1.500			
0.5002	32013.45	3.7900	3.7900	2.0375	27.03	1.06	1.500			
0.5065	32415.76	3.7870	3.7870	2.0620	27.01	1.04	1.500			
0.5128	32817.83	3.7840	3.7841	2.1720	26.99	1.02	1.500			
0.5194	33238.77	3.7810	3.7809	2.2246	26.97	1.00	1.500			
0.5262	33675.57	3.7780	3.7781	2.2750	26.95	0.98	1.500			
0.5331	34120.26	3.7750	3.7752	2.3410	26.92	0.95	1.500			
0.5402	34574.40	3.7720	3.7720	2.3794	26.90	0.93	1.500			
0.5476	35045.87	3.7690	3.7689	2.4339	26.88	0.91	1.500			
0.5549	35515.47	3.7660	3.7661	2.5036	26.85	0.88	1.500			
0.5625	35998.83	3.7630	3.7631	2.5902	26.82	0.85	1.500			
0.5704	36508.46	3.7600	3.7600	2.6261	26.79	0.82	1.500	0.357	0.438	
0.5785	37021.00	3.7570	3.7571	2.6237	26.76	0.79	1.500			
0.5866	37540.56	3.7540	3.7540	2.6330	26.72	0.75	1.500			
0.5942	38031.31	3.7510	3.7509	2.5507	26.69	0.72	1.500			
0.6018	38513.16	3.7480	3.7481	2.4948	26.66	0.69	1.500			
0.6092	38989.83	3.7450	3.7450	2.4501	26.64	0.67	1.500			
0.6166	39459.49	3.7420	3.7421	2.4045	26.61	0.64	1.500			
0.6237	39915.79	3.7390	3.7390	2.3572	26.58	0.61	1.500			
0.6307	40362.85	3.7360	3.7360	2.3334	26.56	0.59	1.500			
0.6376	40806.98	3.7330	3.7329	2.3143	26.53	0.56	1.500			
0.6445	41251.05	3.7300	3.7300	2.3170	26.51	0.54	1.500			
0.6515	41699.13	3.7270	3.7269	2.3240	26.48	0.51	1.500			
0.6584	42138.19	3.7240	3.7240	2.3209	26.45	0.48	1.500			
0.6653	42576.63	3.7210	3.7211	2.3708	26.43	0.46	1.500			
0.6724	43035.38	3.7180	3.7178	2.4507	26.40	0.43	1.500			
0.6799	43513.55	3.7150	3.7150	2.5112	26.38	0.41	1.500			
0.6876	44006.05	3.7120	3.7120	2.6137	26.36	0.39	1.500			
0.6955	44512.12	3.7090	3.7089	2.7241	26.34	0.37	1.500			
0.7038	45045.15	3.7060	3.7060	2.8309	26.32	0.35	1.500			
0.7126	45606.45	3.7030	3.7030	2.9612	26.29	0.32	1.500			
0.7217	46190.62	3.7000	3.6999	3.0669	26.26	0.29	1.500			
0.7311	46792.54	3.6970	3.6970	3.0439	26.24	0.27	1.500			
0.7405	47389.53	3.6940	3.6941	2.9828	26.22	0.25	1.500			
0.7493	47952.39	3.6910	3.6910	2.8528	26.20	0.23	1.500			
0.7575	48479.89	3.6880	3.6880	2.6092	26.18	0.21	1.500			
0.7650	48960.19	3.6850	3.6851	2.3530	26.17	0.20	1.500			
0.7716	49382.52	3.6820	3.6817	2.1305	26.16	0.19	1.500			
0.7776	49768.16	3.6790	3.6791	1.9325	26.15	0.18	1.500			
0.7830	50113.69	3.6760	3.6760	1.7675	26.14	0.17	1.500			
0.7881	50438.01	3.6730	3.6730	1.6353	26.13	0.16	1.500			
0.7927	50730.45	3.6700	3.6700	1.5090	26.12	0.15	1.500			
0.7970	51009.25	3.6670	3.6670	1.4178	26.11	0.14	1.500			
0.8011	51269.63	3.6640	3.6640	1.3385	26.10	0.13	1.500			
0.8049	51514.88	3.6610	3.6610	1.2645	26.09	0.12	1.500			
0.8086	51749.46	3.6580	3.6580	1.2111	26.09	0.12	1.500			
0.8120	51970.61	3.6550	3.6550	1.1755	26.08	0.11	1.500			
0.8154	52188.67	3.6520	3.6521	1.1530	26.07	0.10	1.500			
0.8188	52404.16	3.6490	3.6490	1.1559	26.07	0.10	1.500			
0.8223	52624.08	3.6460	3.6459	1.1636	26.06	0.09	1.500			
0.8258	52849.78	3.6430	3.6430	1.1778	26.05	0.08	1.500			
0.8294	53079.05	3.6400	3.6400	1.1977	26.04	0.07	1.500			
0.8330	53313.31	3.6370	3.6370	1.2042	26.03	0.06	1.500			
0.8366	53544.64	3.6340	3.6339	1.2046	26.02	0.05	1.500			
0.8403	53778.53	3.6310	3.6310	1.2067	26.02	0.05	1.500			
0.8439	54008.76	3.6280	3.6281	1.2070	26.01	0.04	1.500			
0.8475	54240.08	3.6250	3.6249	1.2126	26.00	0.03	1.500			
0.8511	54473.16	3.6220	3.6220	1.2155	25.99	0.02	1.500			
0.8548	54705.05	3.6190	3.6189	1.2171	25.99	0.02	1.500			
0.8584	54940.36	3.6160	3.6161	1.2257	25.98	0.01	1.500			
0.8621	55176.15	3.6130	3.6130	1.2332	25.98	0.01	1.500			
0.8659	55415.18	3.6100	3.6100	1.2356	25.97	-0.00	1.500			
0.8696	55652.71	3.6070	3.6070	1.2331	25.96	-0.01	1.500			
0.8733	55890.01	3.6040	3.6040	1.2326	25.96	-0.01	1.500			
0.8770	56127.99	3.6010	3.6010	1.2317	25.96	-0.01	1.500			
0.8807	56364.68	3.5980	3.5980	1.2207	25.96	-0.01	1.500			
0.8844	56599.60	3.5950	3.5950	1.2057	25.95	-0.02	1.500			
0.8879	56828.69	3.5920	3.5920	1.1925	25.95	-0.02	1.500			
0.8915	57057.22	3.5890	3.5890	1.1822	25.95	-0.02	1.500			
0.8950	57278.68	3.5860	3.5860	1.1826	25.95	-0.02	1.500			
0.8985	57503.05	3.5830	3.5830	1.1905	25.95	-0.02	1.500			
0.9020	57729.75	3.5800	3.5800	1.2045	25.95	-0.02	1.500			
0.9057	57964.94	3.5770	3.5770	1.2195	25.96	-0.01	1.500			
0.9096	58212.98	3.5740	3.5739	1.1979	25.96	-0.01	1.500			
0.9133	58451.59	3.5710	3.5709	1.1244	25.96	-0.01	1.500			
0.9168	58677.25	3.5680	3.5681	1.0419	25.97	-0.00	1.500			
0.9199	58871.29	3.5650	3.5652	0.9017	25.97	-0.00	1.500			
0.9224	59034.53	3.5620	3.5619	0.7540	25.97	0.00	1.500			
0.9243	59155.79	3.5590	3.5590	0.6133	25.97	0.00	1.500			
0.9257	59246.11	3.5560	3.5562	0.4784	25.97	0.00	1.500			
0.9269	59323.98	3.5530	3.5529	0.3728	25.97	0.00	1.500			
0.9278	59379.04	3.5500	3.5498	0.2977	25.97	0.00	1.500			
0.9285	59424.22	3.5470	3.5468	0.2313	25.98	0.01	1.500			
0.9291	59461.24	3.5440	3.5440	0.1936	25.98	0.01	1.500			
0.9296	59493.46	3.5410	3.5411	0.1572	25.98	0.01	1.500			
0.9300	59519.37	3.5380	3.5380	0.1248	25.98	0.01	1.500			
0.9303	59540.66	3.5350	3.5350	0.0962	25.98	0.01	1.500			
0.9306	59556.36	3.5320	3.5318	0.0674	25.98	0.01	1.500			
0.9307	59566.50	3.5290	3.5294	0.0438	25.98	0.01	1.500			
