Ah_balance (normalized)	Ah_balance (mAh)	Voltage - fit (V)	Voltage -  interpolate (V)	dQ/dV (1/V)	Temperature (°C)	Temperature - diff (°C)	Current (C)	R_DC 0ms (mOhm)	R_DC 50ms (mOhm)	R_DC 50 ms PEC (mOhm)
0.2873	18389.53	3.9890	3.9890	0.7784	27.20	1.24	1.500			
0.2897	18542.34	3.9860	3.9859	0.8083	27.19	1.23	1.500			
0.2922	18699.37	3.9830	3.9830	0.8257	27.19	1.23	1.500			
0.2947	18861.11	3.9800	3.9800	0.8369	27.18	1.22	1.500			
0.2972	19023.32	3.9770	3.9770	0.8491	27.17	1.21	1.500			
0.2998	19187.48	3.9740	3.9741	0.8553	27.17	1.21	1.500			
0.3024	19352.54	3.9710	3.9710	0.8587	27.16	1.20	1.500			
0.3050	19518.32	3.9680	3.9679	0.8581	27.15	1.19	1.500			
0.3076	19683.39	3.9650	3.9650	0.8582	27.15	1.19	1.500			
0.3101	19846.91	3.9620	3.9621	0.8636	27.14	1.18	1.500			
0.3127	20012.58	3.9590	3.9590	0.8674	27.14	1.18	1.500			
0.3153	20178.70	3.9560	3.9560	0.8633	27.13	1.17	1.500			
0.3179	20344.47	3.9530	3.9530	0.8711	27.12	1.16	1.500			
0.3205	20512.57	3.9500	3.9502	0.8787	27.12	1.16	1.500			
0.3232	20682.16	3.9470	3.9469	0.8853	27.11	1.15	1.500			
0.3258	20852.16	3.9440	3.9440	0.8870	27.11	1.15	1.500			
0.3285	21022.63	3.9410	3.9410	0.8895	27.10	1.14	1.500			
0.3311	21193.54	3.9380	3.9381	0.8980	27.10	1.14	1.500			
0.3339	21367.48	3.9350	3.9349	0.9056	27.09	1.13	1.500			
0.3366	21539.98	3.9320	3.9320	0.9058	27.08	1.12	1.500			
0.3393	21715.75	3.9290	3.9289	0.9098	27.08	1.12	1.500			
0.3420	21890.99	3.9260	3.9261	0.9159	27.07	1.11	1.500			
0.3448	22067.64	3.9230	3.9230	0.9224	27.07	1.11	1.500			
0.3476	22245.39	3.9200	3.9199	0.9237	27.06	1.10	1.500			
0.3504	22422.43	3.9170	3.9170	0.9241	27.06	1.10	1.500			
0.3531	22598.04	3.9140	3.9140	0.9313	27.05	1.09	1.500			
0.3559	22777.73	3.9110	3.9110	0.9389	27.05	1.09	1.500			
0.3587	22959.18	3.9080	3.9080	0.9458	27.04	1.08	1.500			
0.3616	23140.05	3.9050	3.9050	0.9526	27.03	1.07	1.500			
0.3644	23323.82	3.9020	3.9021	0.9606	27.03	1.07	1.500			
0.3673	23509.92	3.8990	3.8990	0.9724	27.02	1.06	1.500			
0.3703	23697.15	3.8960	3.8960	0.9781	27.02	1.06	1.500			
0.3732	23884.53	3.8930	3.8929	0.9865	27.01	1.05	1.500			
0.3762	24074.75	3.8900	3.8901	0.9997	27.00	1.04	1.500			
0.3792	24268.32	3.8870	3.8870	1.0095	26.99	1.03	1.500			
0.3822	24462.78	3.8840	3.8840	1.0201	26.99	1.03	1.500			
0.3853	24660.52	3.8810	3.8810	1.0318	26.98	1.02	1.500			
0.3884	24859.28	3.8780	3.8780	1.0406	26.97	1.01	1.500			
0.3916	25061.31	3.8750	3.8750	1.0487	26.96	1.00	1.500			
0.3947	25261.04	3.8720	3.8720	1.0569	26.95	0.99	1.500			
0.3979	25464.68	3.8690	3.8689	1.0681	26.94	0.98	1.500			
0.4011	25671.27	3.8660	3.8660	1.0798	26.93	0.97	1.500			
0.4043	25878.04	3.8630	3.8630	1.0975	26.93	0.97	1.500			
0.4077	26090.72	3.8600	3.8601	1.1133	26.92	0.96	1.500			
0.4110	26306.86	3.8570	3.8569	1.1316	26.91	0.95	1.500			
0.4145	26527.42	3.8540	3.8540	1.1463	26.90	0.94	1.500			
0.4179	26747.65	3.8510	3.8510	1.1571	26.89	0.93	1.500			
0.4214	26971.25	3.8480	3.8481	1.1727	26.89	0.93	1.500			
0.4249	27195.99	3.8450	3.8450	1.1944	26.88	0.92	1.500			
0.4285	27425.19	3.8420	3.8419	1.2154	26.87	0.91	1.500			
0.4322	27661.55	3.8390	3.8390	1.2333	26.86	0.90	1.500			
0.4360	27901.15	3.8360	3.8361	1.2451	26.85	0.89	1.500			
0.4397	28143.55	3.8330	3.8331	1.2736	26.84	0.88	1.500			
0.4436	28388.10	3.8300	3.8300	1.2958	26.83	0.87	1.500			
0.4474	28635.64	3.8270	3.8269	1.3205	26.82	0.86	1.500			
0.4514	28890.23	3.8240	3.8241	1.3515	26.81	0.85	1.500			
0.4555	29154.24	3.8210	3.8210	1.3755	26.80	0.84	1.500			
0.4598	29424.36	3.8180	3.8180	1.3953	26.79	0.83	1.500			
0.4640	29694.21	3.8150	3.8151	1.4216	26.78	0.82	1.500			
0.4683	29968.81	3.8120	3.8120	1.4482	26.77	0.81	1.500			
0.4726	30246.38	3.8090	3.8089	1.4736	26.75	0.79	1.500			
0.4771	30532.36	3.8060	3.8060	1.5064	26.74	0.78	1.500			
0.4817	30827.61	3.8030	3.8030	1.5437	26.73	0.77	1.500			
0.4864	31127.40	3.8000	3.8000	1.5799	26.72	0.76	1.500			
0.4911	31431.73	3.7970	3.7970	1.6068	26.71	0.75	1.500			
0.4960	31744.60	3.7940	3.7939	1.6351	26.70	0.74	1.500			
0.5010	32063.73	3.7910	3.7911	1.6577	26.68	0.72	1.500			
0.5060	32385.49	3.7880	3.7880	1.6788	26.67	0.71	1.500			
0.5111	32708.91	3.7850	3.7850	1.7079	26.66	0.70	1.500			
0.5162	33038.83	3.7820	3.7820	1.7225	26.64	0.68	1.500			
0.5214	33371.47	3.7790	3.7788	1.7432	26.63	0.67	1.500	0.345	0.469	
0.5267	33710.31	3.7760	3.7761	1.7633	26.61	0.65	1.500			
0.5320	34050.65	3.7730	3.7730	1.7707	26.60	0.64	1.500			
0.5373	34389.54	3.7700	3.7700	1.7579	26.59	0.63	1.500			
0.5426	34727.97	3.7670	3.7670	1.7582	26.57	0.61	1.500			
0.5479	35067.14	3.7640	3.7638	1.7647	26.56	0.60	1.500			
0.5532	35404.38	3.7610	3.7611	1.7626	26.55	0.59	1.500			
0.5585	35741.17	3.7580	3.7580	1.7661	26.54	0.58	1.500			
0.5638	36082.26	3.7550	3.7550	1.7698	26.52	0.56	1.500			
0.5690	36417.88	3.7520	3.7520	1.7843	26.51	0.55	1.500			
0.5744	36762.51	3.7490	3.7489	1.8056	26.50	0.54	1.500			
0.5798	37108.72	3.7460	3.7459	1.8186	26.49	0.53	1.500			
0.5853	37461.70	3.7430	3.7430	1.8257	26.47	0.51	1.500			
0.5908	37811.02	3.7400	3.7400	1.8610	26.46	0.50	1.500			
0.5965	38173.83	3.7370	3.7369	1.9041	26.45	0.49	1.500			
0.6022	38538.44	3.7340	3.7341	1.9395	26.43	0.47	1.500			
0.6081	38920.31	3.7310	3.7310	1.9791	26.42	0.46	1.500			
0.6141	39303.52	3.7280	3.7280	2.0384	26.40	0.44	1.500			
0.6203	39696.66	3.7250	3.7250	2.1218	26.39	0.43	1.500			
0.6268	40113.01	3.7220	3.7221	2.1858	26.37	0.41	1.500			
0.6335	40542.43	3.7190	3.7191	2.2626	26.35	0.39	1.500			
0.6404	40984.71	3.7160	3.7160	2.3326	26.33	0.37	1.500			
0.6474	41435.57	3.7130	3.7130	2.3544	26.31	0.35	1.500			
0.6546	41893.97	3.7100	3.7101	2.4159	26.30	0.34	1.500			
0.6619	42360.09	3.7070	3.7069	2.4158	26.28	0.32	1.500			
0.6692	42827.98	3.7040	3.7041	2.4027	26.27	0.31	1.500			
0.6765	43293.54	3.7010	3.7010	2.3291	26.25	0.29	1.500			
0.6835	43740.91	3.6980	3.6980	2.1720	26.24	0.28	1.500			
0.6897	44140.04	3.6950	3.6950	1.9970	26.23	0.27	1.500			
0.6952	44491.97	3.6920	3.6921	1.8313	26.22	0.26	1.500			
0.7004	44826.32	3.6890	3.6892	1.7055	26.20	0.24	1.500			
0.7053	45137.92	3.6860	3.6859	1.5913	26.19	0.23	1.500			
0.7099	45434.37	3.6830	3.6830	1.5185	26.18	0.22	1.500			
0.7143	45714.56	3.6800	3.6801	1.4441	26.17	0.21	1.500			
0.7186	45987.32	3.6770	3.6770	1.3958	26.15	0.19	1.500			
0.7226	46248.23	3.6740	3.6739	1.3468	26.14	0.18	1.500			
0.7265	46497.00	3.6710	3.6711	1.3069	26.14	0.18	1.500			
0.7304	46744.04	3.6680	3.6680	1.2864	26.13	0.17	1.500			
0.7342	46987.73	3.6650	3.6650	1.2760	26.12	0.16	1.500			
0.7380	47229.25	3.6620	3.6620	1.2704	26.12	0.16	1.500			
0.7417	47470.17	3.6590	3.6590	1.2701	26.11	0.15	1.500			
0.7456	47716.02	3.6560	3.6560	1.2748	26.10	0.14	1.500			
0.7494	47961.72	3.6530	3.6530	1.2801	26.10	0.14	1.500			
0.7533	48209.10	3.6500	3.6500	1.2764	26.09	0.13	1.500			
0.7571	48454.22	3.6470	3.6470	1.2780	26.08	0.12	1.500			
0.7609	48700.21	3.6440	3.6440	1.2708	26.07	0.11	1.500			
0.7647	48943.73	3.6410	3.6410	1.2617	26.05	0.09	1.500			
0.7685	49185.10	3.6380	3.6381	1.2581	26.04	0.08	1.500			
0.7723	49426.77	3.6350	3.6350	1.2510	26.03	0.07	1.500			
0.7760	49665.06	3.6320	3.6319	1.2433	26.03	0.07	1.500			
0.7798	49904.29	3.6290	3.6290	1.2401	26.02	0.06	1.500			
0.7835	50140.82	3.6260	3.6260	1.2280	26.01	0.05	1.500			
0.7872	50379.08	3.6230	3.6229	1.2212	26.00	0.04	1.500			
0.7908	50611.03	3.6200	3.6200	1.2118	26.00	0.04	1.500			
0.7944	50841.41	3.6170	3.6170	1.1978	25.99	0.03	1.500			
0.7980	51072.16	3.6140	3.6140	1.1794	25.98	0.02	1.500			
0.8015	51297.06	3.6110	3.6110	1.1615	25.98	0.02	1.500			
0.8050	51519.03	3.6080	3.6081	1.1423	25.97	0.01	1.500			
0.8084	51737.90	3.6050	3.6049	1.1250	25.97	0.01	1.500			
0.8117	51951.54	3.6020	3.6020	1.1002	25.97	0.01	1.500			
0.8150	52159.63	3.5990	3.5991	1.0735	25.97	0.01	1.500			
0.8182	52364.29	3.5960	3.5960	1.0542	25.96	0.00	1.500			
0.8213	52565.62	3.5930	3.5930	1.0305	25.96	0.00	1.500			
0.8244	52761.18	3.5900	3.5900	0.9972	25.96	-0.00	1.500			
0.8274	52954.01	3.5870	3.5869	0.9449	25.96	-0.00	1.500			
0.8303	53137.03	3.5840	3.5840	0.8884	25.95	-0.01	1.500			
0.8329	53306.45	3.5810	3.5811	0.8067	25.95	-0.01	1.500			
0.8353	53457.23	3.5780	3.5780	0.7175	25.95	-0.01	1.500			
0.8373	53584.33	3.5750	3.5751	0.6187	25.95	-0.01	1.500			
0.8389	53691.53	3.5720	3.5720	0.5233	25.95	-0.01	1.500			
0.8403	53779.35	3.5690	3.5690	0.4371	25.95	-0.01	1.500			
0.8414	53852.78	3.5660	3.5659	0.3717	25.95	-0.01	1.500			
0.8424	53912.10	3.5630	3.5630	0.3118	25.94	-0.02	1.500			
0.8432	53964.28	3.5600	3.5599	0.2704	25.94	-0.02	1.500			
0.8439	54009.70	3.5570	3.5569	0.2325	25.94	-0.02	1.500			
0.8445	54049.82	3.5540	3.5540	0.2084	25.94	-0.02	1.500			
0.8451	54086.20	3.5510	3.5510	0.1868	25.94	-0.02	1.500			
0.8456	54120.37	3.5480	3.5480	0.1695	25.94	-0.02	1.500			
0.8461	54151.04	3.5450	3.5450	0.1537	25.94	-0.02	1.500			
0.8465	54178.63	3.5420	3.5420	0.1373	25.94	-0.02	1.500			
0.8469	54203.26	3.5390	3.5391	0.1221	25.94	-0.02	1.500			
0.8473	54225.18	3.5360	3.5359	0.1070	25.94	-0.02	1.500			
0.8476	54244.31	3.5330	3.5330	0.0923	25.94	-0.02	1.500			
0.8478	54260.42	3.5300	3.5302	0.0776	25.94	-0.02	1.500			
0.8480	54274.30	3.5270	3.5273	0.0632	25.94	-0.02	1.500			
0.8482	54284.99	3.5240	3.5245	0.0481	25.94	-0.02	1.500			
0.8483	54292.79	3.5210	3.5220	0.0331	25.94	-0.02	1.500			
