Ah_balance (normalized)	Ah_balance (mAh)	Voltage - fit (V)	Voltage -  interpolate (V)	dQ/dV (1/V)	Temperature (°C)	Temperature - diff (°C)	Current (C)	R_DC 0ms (mOhm)	R_DC 50ms (mOhm)	R_DC 50 ms PEC (mOhm)
0.2846	18216.90	3.9880	3.9880	0.8222	27.23	1.27	1.500			
0.2872	18378.12	3.9850	3.9850	0.8500	27.22	1.26	1.500			
0.2897	18539.56	3.9820	3.9819	0.8476	27.22	1.26	1.500			
0.2922	18703.78	3.9790	3.9790	0.8491	27.22	1.26	1.500			
0.2948	18867.37	3.9760	3.9761	0.8504	27.21	1.25	1.500			
0.2973	19028.91	3.9730	3.9732	0.8505	27.21	1.25	1.500			
0.2999	19192.61	3.9700	3.9700	0.8529	27.20	1.24	1.500			
0.3024	19355.73	3.9670	3.9670	0.8540	27.20	1.24	1.500			
0.3050	19520.20	3.9640	3.9639	0.8612	27.20	1.24	1.500			
0.3076	19686.28	3.9610	3.9611	0.8646	27.19	1.23	1.500			
0.3102	19853.56	3.9580	3.9580	0.8701	27.19	1.23	1.500			
0.3128	20021.65	3.9550	3.9549	0.8706	27.18	1.22	1.500			
0.3154	20188.41	3.9520	3.9520	0.8724	27.18	1.22	1.500			
0.3180	20354.14	3.9490	3.9491	0.8799	27.18	1.22	1.500			
0.3207	20523.58	3.9460	3.9460	0.8859	27.17	1.21	1.500			
0.3233	20694.15	3.9430	3.9429	0.8886	27.17	1.21	1.500			
0.3260	20866.42	3.9400	3.9400	0.8951	27.16	1.20	1.500			
0.3287	21039.13	3.9370	3.9371	0.9004	27.16	1.20	1.500			
0.3315	21213.01	3.9340	3.9339	0.9041	27.15	1.19	1.500			
0.3342	21385.61	3.9310	3.9310	0.9050	27.15	1.19	1.500			
0.3369	21559.36	3.9280	3.9280	0.9071	27.15	1.19	1.500			
0.3396	21734.66	3.9250	3.9250	0.9146	27.14	1.18	1.500			
0.3424	21910.65	3.9220	3.9220	0.9206	27.14	1.18	1.500			
0.3451	22086.85	3.9190	3.9190	0.9252	27.13	1.17	1.500			
0.3479	22265.11	3.9160	3.9161	0.9297	27.13	1.17	1.500			
0.3507	22444.31	3.9130	3.9130	0.9371	27.12	1.16	1.500			
0.3535	22624.40	3.9100	3.9100	0.9459	27.12	1.16	1.500			
0.3564	22806.77	3.9070	3.9070	0.9535	27.11	1.15	1.500			
0.3592	22989.88	3.9040	3.9040	0.9612	27.11	1.15	1.500			
0.3621	23175.58	3.9010	3.9010	0.9675	27.10	1.14	1.500			
0.3650	23362.41	3.8980	3.8980	0.9770	27.10	1.14	1.500			
0.3680	23550.70	3.8950	3.8950	0.9862	27.10	1.14	1.500			
0.3710	23740.84	3.8920	3.8919	0.9904	27.09	1.13	1.500			
0.3739	23931.80	3.8890	3.8890	0.9957	27.08	1.12	1.500			
0.3769	24123.29	3.8860	3.8860	1.0067	27.08	1.12	1.500			
0.3799	24316.77	3.8830	3.8831	1.0150	27.07	1.11	1.500			
0.3830	24512.42	3.8800	3.8799	1.0272	27.07	1.11	1.500			
0.3861	24710.15	3.8770	3.8770	1.0339	27.06	1.10	1.500			
0.3892	24909.78	3.8740	3.8741	1.0462	27.05	1.09	1.500			
0.3924	25112.24	3.8710	3.8710	1.0641	27.05	1.09	1.500			
0.3956	25317.15	3.8680	3.8680	1.0764	27.04	1.08	1.500			
0.3988	25524.84	3.8650	3.8649	1.0841	27.03	1.07	1.500			
0.4021	25735.33	3.8620	3.8620	1.0970	27.03	1.07	1.500			
0.4054	25945.95	3.8590	3.8590	1.1129	27.02	1.06	1.500			
0.4088	26161.79	3.8560	3.8560	1.1284	27.01	1.05	1.500			
0.4122	26378.05	3.8530	3.8529	1.1398	27.00	1.04	1.500			
0.4156	26597.34	3.8500	3.8500	1.1568	26.99	1.03	1.500			
0.4191	26820.59	3.8470	3.8471	1.1797	26.99	1.03	1.500			
0.4227	27051.01	3.8440	3.8439	1.1995	26.98	1.02	1.500			
0.4263	27283.55	3.8410	3.8410	1.2174	26.97	1.01	1.500			
0.4300	27518.05	3.8380	3.8380	1.2344	26.96	1.00	1.500			
0.4337	27756.26	3.8350	3.8351	1.2586	26.95	0.99	1.500			
0.4375	27999.27	3.8320	3.8319	1.2821	26.93	0.97	1.500			
0.4414	28246.58	3.8290	3.8290	1.3026	26.92	0.96	1.500			
0.4453	28498.66	3.8260	3.8260	1.3297	26.91	0.95	1.500			
0.4494	28759.36	3.8230	3.8231	1.3592	26.90	0.94	1.500			
0.4535	29022.31	3.8200	3.8200	1.3810	26.89	0.93	1.500			
0.4576	29288.48	3.8170	3.8170	1.4074	26.88	0.92	1.500			
0.4619	29560.68	3.8140	3.8140	1.4333	26.87	0.91	1.500			
0.4662	29837.33	3.8110	3.8109	1.4582	26.85	0.89	1.500			
0.4706	30120.57	3.8080	3.8080	1.4884	26.84	0.88	1.500			
0.4751	30407.45	3.8050	3.8050	1.5202	26.83	0.87	1.500			
0.4798	30704.64	3.8020	3.8020	1.5560	26.81	0.85	1.500			
0.4845	31004.84	3.7990	3.7990	1.5900	26.80	0.84	1.500			
0.4893	31312.66	3.7960	3.7960	1.6307	26.78	0.82	1.500			
0.4942	31630.84	3.7930	3.7931	1.6593	26.77	0.81	1.500			
0.4993	31953.33	3.7900	3.7900	1.6914	26.75	0.79	1.500			
0.5044	32282.95	3.7870	3.7871	1.7052	26.74	0.78	1.500			
0.5096	32614.67	3.7840	3.7840	1.7325	26.73	0.77	1.500			
0.5147	32941.92	3.7810	3.7811	1.7596	26.72	0.76	1.500			
0.5200	33281.58	3.7780	3.7779	1.7860	26.70	0.74	1.500			
0.5255	33630.68	3.7750	3.7747	1.8135	26.69	0.73	1.500	0.346	0.461	
0.5310	33983.41	3.7720	3.7721	1.8290	26.67	0.71	1.500			
0.5365	34338.73	3.7690	3.7691	1.8268	26.66	0.70	1.500			
0.5421	34691.21	3.7660	3.7660	1.8026	26.64	0.68	1.500			
0.5474	35036.01	3.7630	3.7630	1.7936	26.63	0.67	1.500			
0.5528	35378.70	3.7600	3.7601	1.7969	26.61	0.65	1.500			
0.5582	35724.87	3.7570	3.7570	1.7902	26.60	0.64	1.500			
0.5635	36065.95	3.7540	3.7540	1.7921	26.58	0.62	1.500			
0.5689	36408.30	3.7510	3.7511	1.8032	26.57	0.61	1.500			
0.5743	36757.95	3.7480	3.7480	1.8217	26.55	0.59	1.500			
0.5798	37109.50	3.7450	3.7450	1.8307	26.53	0.57	1.500			
0.5853	37460.62	3.7420	3.7421	1.8590	26.52	0.56	1.500			
0.5909	37817.60	3.7390	3.7390	1.8855	26.50	0.54	1.500			
0.5966	38184.32	3.7360	3.7359	1.9381	26.48	0.52	1.500			
0.6025	38559.43	3.7330	3.7331	1.9820	26.47	0.51	1.500			
0.6085	38946.22	3.7300	3.7300	2.0195	26.45	0.49	1.500			
0.6146	39336.86	3.7270	3.7271	2.0675	26.44	0.48	1.500			
0.6209	39735.34	3.7240	3.7238	2.1368	26.42	0.46	1.500			
0.6275	40158.17	3.7210	3.7210	2.1849	26.41	0.45	1.500			
0.6342	40586.38	3.7180	3.7180	2.2393	26.39	0.43	1.500			
0.6409	41016.93	3.7150	3.7150	2.2983	26.37	0.41	1.500			
0.6478	41461.06	3.7120	3.7121	2.3902	26.36	0.40	1.500			
0.6553	41938.82	3.7090	3.7090	2.4561	26.33	0.37	1.500			
0.6627	42412.88	3.7060	3.7061	2.4605	26.31	0.35	1.500			
0.6701	42888.12	3.7030	3.7028	2.4580	26.28	0.32	1.500			
0.6776	43366.66	3.7000	3.7000	2.3857	26.26	0.30	1.500			
0.6847	43822.41	3.6970	3.6971	2.2901	26.25	0.29	1.500			
0.6914	44252.64	3.6940	3.6940	2.1036	26.23	0.27	1.500			
0.6975	44639.31	3.6910	3.6910	1.9438	26.22	0.26	1.500			
0.7030	44989.59	3.6880	3.6880	1.7859	26.21	0.25	1.500			
0.7081	45318.03	3.6850	3.6849	1.6668	26.20	0.24	1.500			
0.7128	45619.06	3.6820	3.6821	1.5618	26.19	0.23	1.500			
0.7173	45906.15	3.6790	3.6790	1.4756	26.18	0.22	1.500			
0.7215	46179.14	3.6760	3.6759	1.4143	26.17	0.21	1.500			
0.7257	46443.20	3.6730	3.6731	1.3614	26.16	0.20	1.500			
0.7296	46696.62	3.6700	3.6699	1.3219	26.15	0.19	1.500			
0.7335	46945.89	3.6670	3.6670	1.2867	26.14	0.18	1.500			
0.7373	47185.98	3.6640	3.6640	1.2712	26.13	0.17	1.500			
0.7410	47425.53	3.6610	3.6611	1.2655	26.12	0.16	1.500			
0.7448	47667.05	3.6580	3.6579	1.2645	26.11	0.15	1.500			
0.7486	47908.68	3.6550	3.6550	1.2722	26.10	0.14	1.500			
0.7524	48153.72	3.6520	3.6520	1.2807	26.09	0.13	1.500			
0.7563	48402.96	3.6490	3.6490	1.2858	26.08	0.12	1.500			
0.7602	48653.69	3.6460	3.6460	1.2933	26.07	0.11	1.500			
0.7641	48901.15	3.6430	3.6430	1.2889	26.06	0.10	1.500			
0.7680	49149.23	3.6400	3.6401	1.2906	26.05	0.09	1.500			
0.7718	49396.75	3.6370	3.6369	1.2834	26.04	0.08	1.500			
0.7756	49641.27	3.6340	3.6340	1.2787	26.03	0.07	1.500			
0.7795	49887.68	3.6310	3.6310	1.2702	26.02	0.06	1.500			
0.7833	50131.30	3.6280	3.6280	1.2587	26.02	0.06	1.500			
0.7871	50372.01	3.6250	3.6250	1.2541	26.01	0.05	1.500			
0.7908	50610.78	3.6220	3.6220	1.2533	26.00	0.04	1.500			
0.7945	50849.23	3.6190	3.6189	1.2513	25.99	0.03	1.500			
0.7983	51092.20	3.6160	3.6160	1.2444	25.99	0.03	1.500			
0.8020	51330.68	3.6130	3.6130	1.2361	25.98	0.02	1.500			
0.8058	51569.38	3.6100	3.6101	1.2259	25.98	0.02	1.500			
0.8095	51807.19	3.6070	3.6070	1.2028	25.97	0.01	1.500			
0.8130	52033.41	3.6040	3.6040	1.1809	25.97	0.01	1.500			
0.8165	52257.41	3.6010	3.6009	1.1630	25.97	0.01	1.500			
0.8200	52477.76	3.5980	3.5981	1.1428	25.96	0.00	1.500			
0.8234	52697.40	3.5950	3.5950	1.1246	25.96	0.00	1.500			
0.8267	52911.59	3.5920	3.5920	1.1033	25.96	0.00	1.500			
0.8301	53123.23	3.5890	3.5890	1.0782	25.96	0.00	1.500			
0.8333	53332.02	3.5860	3.5860	1.0456	25.96	0.00	1.500			
0.8365	53533.51	3.5830	3.5829	0.9839	25.96	0.00	1.500			
0.8394	53721.91	3.5800	3.5800	0.9085	25.96	0.00	1.500			
0.8421	53895.41	3.5770	3.5771	0.8253	25.96	0.00	1.500			
0.8445	54045.13	3.5740	3.5740	0.7197	25.96	0.00	1.500			
0.8464	54172.07	3.5710	3.5710	0.6107	25.96	0.00	1.500			
0.8480	54274.93	3.5680	3.5680	0.5129	25.96	0.00	1.500			
0.8493	54358.39	3.5650	3.5650	0.4247	25.96	0.00	1.500			
0.8504	54427.77	3.5620	3.5621	0.3602	25.96	0.00	1.500			
0.8513	54486.32	3.5590	3.5589	0.3058	25.96	0.00	1.500			
0.8522	54537.69	3.5560	3.5559	0.2599	25.96	0.00	1.500			
0.8529	54582.86	3.5530	3.5529	0.2312	25.96	0.00	1.500			
0.8535	54622.37	3.5500	3.5500	0.2058	25.96	0.00	1.500			
0.8540	54658.94	3.5470	3.5470	0.1864	25.96	0.00	1.500			
0.8546	54692.50	3.5440	3.5439	0.1676	25.96	0.00	1.500			
0.8550	54722.27	3.5410	3.5410	0.1513	25.96	0.00	1.500			
0.8555	54749.42	3.5380	3.5380	0.1355	25.96	0.00	1.500			
0.8558	54774.15	3.5350	3.5350	0.1216	25.96	0.00	1.500			
0.8562	54796.12	3.5320	3.5320	0.1073	25.96	0.00	1.500			
0.8565	54815.22	3.5290	3.5290	0.0929	25.96	0.00	1.500			
0.8567	54831.75	3.5260	3.5262	0.0789	25.96	0.00	1.500			
0.8570	54845.55	3.5230	3.5232	0.0648	25.96	0.00	1.500			
0.8571	54856.84	3.5200	3.5205	0.0501	25.96	0.00	1.500			
0.8573	54865.04	3.5170	3.5177	0.0353	25.96	0.00	1.500			
