Ah_balance (normalized)	Ah_balance (mAh)	Voltage - fit (V)	Voltage -  interpolate (V)	dQ/dV (1/V)	Temperature (°C)	Temperature - diff (°C)	Current (C)	R_DC 0ms (mOhm)	R_DC 50ms (mOhm)	R_DC 50 ms PEC (mOhm)
0.2082	13324.31	3.9050	3.9061	-0.2465	25.98	-0.02	-1.500			
0.2089	13367.21	3.9020	3.9023	-0.2370	25.98	-0.02	-1.500			
0.2096	13413.31	3.8990	3.8990	-0.2545	25.99	-0.01	-1.500			
0.2104	13462.68	3.8960	3.8959	-0.2789	25.99	-0.01	-1.500			
0.2112	13515.98	3.8930	3.8930	-0.3010	25.99	-0.01	-1.500			
0.2121	13577.02	3.8900	3.8900	-0.3343	25.99	-0.01	-1.500			
0.2132	13644.37	3.8870	3.8870	-0.3694	25.99	-0.01	-1.500			
0.2144	13718.60	3.8840	3.8840	-0.4024	25.99	-0.01	-1.500			
0.2156	13798.84	3.8810	3.8810	-0.4362	26.00	-0.00	-1.500			
0.2170	13886.00	3.8780	3.8780	-0.4714	26.00	-0.00	-1.500			
0.2184	13980.42	3.8750	3.8752	-0.5042	26.00	0.00	-1.500			
0.2200	14080.85	3.8720	3.8719	-0.5356	26.00	0.00	-1.500			
0.2217	14186.95	3.8690	3.8690	-0.5667	26.01	0.01	-1.500			
0.2234	14298.64	3.8660	3.8661	-0.5975	26.01	0.01	-1.500			
0.2253	14417.23	3.8630	3.8629	-0.6256	26.01	0.01	-1.500			
0.2272	14539.96	3.8600	3.8600	-0.6509	26.01	0.01	-1.500			
0.2292	14667.74	3.8570	3.8570	-0.6741	26.02	0.02	-1.500			
0.2313	14800.04	3.8540	3.8540	-0.6966	26.02	0.02	-1.500			
0.2334	14937.04	3.8510	3.8510	-0.7174	26.02	0.02	-1.500			
0.2356	15076.14	3.8480	3.8480	-0.7350	26.03	0.03	-1.500			
0.2378	15220.69	3.8450	3.8450	-0.7470	26.03	0.03	-1.500			
0.2401	15365.39	3.8420	3.8420	-0.7632	26.03	0.03	-1.500			
0.2424	15513.57	3.8390	3.8390	-0.7741	26.04	0.04	-1.500			
0.2447	15663.33	3.8360	3.8360	-0.7849	26.04	0.04	-1.500			
0.2471	15815.38	3.8330	3.8329	-0.7907	26.05	0.05	-1.500			
0.2495	15968.18	3.8300	3.8300	-0.7954	26.05	0.05	-1.500			
0.2519	16121.97	3.8270	3.8271	-0.8015	26.06	0.06	-1.500			
0.2543	16276.73	3.8240	3.8240	-0.8080	26.07	0.07	-1.500			
0.2567	16430.73	3.8210	3.8210	-0.8130	26.07	0.07	-1.500			
0.2592	16587.87	3.8180	3.8181	-0.8243	26.08	0.08	-1.500			
0.2617	16747.46	3.8150	3.8149	-0.8286	26.08	0.08	-1.500			
0.2642	16908.23	3.8120	3.8120	-0.8355	26.09	0.09	-1.500			
0.2667	17070.39	3.8090	3.8090	-0.8379	26.10	0.10	-1.500			
0.2692	17231.83	3.8060	3.8061	-0.8345	26.10	0.10	-1.500			
0.2717	17391.65	3.8030	3.8029	-0.8363	26.11	0.11	-1.500			
0.2742	17551.31	3.8000	3.8000	-0.8372	26.12	0.12	-1.500			
0.2767	17711.34	3.7970	3.7970	-0.8360	26.13	0.13	-1.500			
0.2793	17872.97	3.7940	3.7940	-0.8383	26.14	0.14	-1.500			
0.2818	18033.38	3.7910	3.7910	-0.8440	26.14	0.14	-1.500			
0.2843	18196.30	3.7880	3.7880	-0.8498	26.15	0.15	-1.500			
0.2869	18361.26	3.7850	3.7849	-0.8530	26.16	0.16	-1.500			
0.2894	18524.32	3.7820	3.7820	-0.8522	26.17	0.17	-1.500			
0.2920	18689.47	3.7790	3.7790	-0.8547	26.18	0.18	-1.500			
0.2946	18854.45	3.7760	3.7760	-0.8550	26.18	0.18	-1.500			
0.2972	19017.97	3.7730	3.7729	-0.8560	26.19	0.19	-1.500			
0.2997	19180.25	3.7700	3.7701	-0.8557	26.20	0.20	-1.500			
0.3023	19345.69	3.7670	3.7669	-0.8581	26.21	0.21	-1.500			
0.3049	19510.54	3.7640	3.7640	-0.8624	26.22	0.22	-1.500			
0.3074	19676.40	3.7610	3.7610	-0.8663	26.23	0.23	-1.500			
0.3101	19844.44	3.7580	3.7580	-0.8703	26.23	0.23	-1.500			
0.3127	20013.91	3.7550	3.7549	-0.8705	26.24	0.24	-1.500			
0.3153	20180.66	3.7520	3.7520	-0.8677	26.25	0.25	-1.500			
0.3179	20347.31	3.7490	3.7491	-0.8673	26.26	0.26	-1.500			
0.3205	20513.76	3.7460	3.7459	-0.8662	26.27	0.27	-1.500			
0.3231	20677.80	3.7430	3.7430	-0.8635	26.28	0.28	-1.500			
0.3257	20843.12	3.7400	3.7400	-0.8650	26.29	0.29	-1.500			
0.3283	21008.93	3.7370	3.7370	-0.8677	26.30	0.30	-1.500			
0.3309	21178.75	3.7340	3.7340	-0.8717	26.31	0.31	-1.500			
0.3335	21344.46	3.7310	3.7310	-0.8791	26.32	0.32	-1.500			
0.3362	21514.28	3.7280	3.7280	-0.8809	26.34	0.34	-1.500			
0.3388	21685.26	3.7250	3.7250	-0.8821	26.35	0.35	-1.500			
0.3415	21855.00	3.7220	3.7220	-0.8833	26.36	0.36	-1.500			
0.3441	22024.97	3.7190	3.7191	-0.8847	26.36	0.36	-1.500			
0.3468	22195.09	3.7160	3.7160	-0.8860	26.37	0.37	-1.500			
0.3495	22365.10	3.7130	3.7130	-0.8851	26.38	0.38	-1.500			
0.3521	22533.12	3.7100	3.7099	-0.8819	26.39	0.39	-1.500			
0.3548	22704.59	3.7070	3.7070	-0.8857	26.40	0.40	-1.500			
0.3574	22875.15	3.7040	3.7041	-0.8886	26.41	0.41	-1.500			
0.3601	23044.30	3.7010	3.7010	-0.8958	26.41	0.41	-1.500			
0.3628	23217.41	3.6980	3.6980	-0.9016	26.42	0.42	-1.500			
0.3655	23390.11	3.6950	3.6949	-0.9060	26.43	0.43	-1.500			
0.3682	23564.86	3.6920	3.6923	-0.9170	26.44	0.44	-1.500			
0.3710	23742.07	3.6890	3.6889	-0.9283	26.45	0.45	-1.500			
0.3738	23920.85	3.6860	3.6860	-0.9371	26.46	0.46	-1.500			
0.3766	24100.23	3.6830	3.6830	-0.9457	26.47	0.47	-1.500			
0.3794	24283.82	3.6800	3.6800	-0.9644	26.48	0.48	-1.500			
0.3823	24470.12	3.6770	3.6770	-0.9755	26.48	0.48	-1.500			
0.3853	24658.26	3.6740	3.6740	-0.9867	26.49	0.49	-1.500			
0.3882	24847.41	3.6710	3.6710	-1.0010	26.50	0.50	-1.500			
0.3913	25041.06	3.6680	3.6680	-1.0184	26.51	0.51	-1.500			
0.3944	25239.28	3.6650	3.6650	-1.0343	26.52	0.52	-1.500			
0.3975	25438.33	3.6620	3.6619	-1.0490	26.53	0.53	-1.500			
0.4006	25640.85	3.6590	3.6591	-1.0706	26.54	0.54	-1.500			
0.4039	25848.23	3.6560	3.6560	-1.0943	26.55	0.55	-1.500			
0.4072	26059.38	3.6530	3.6530	-1.1193	26.55	0.55	-1.500			
0.4106	26275.91	3.6500	3.6501	-1.1453	26.56	0.56	-1.500			
0.4140	26499.15	3.6470	3.6470	-1.1671	26.57	0.57	-1.500			
0.4176	26725.87	3.6440	3.6440	-1.1948	26.58	0.58	-1.500			
0.4212	26956.65	3.6410	3.6411	-1.2255	26.58	0.58	-1.500			
0.4249	27194.19	3.6380	3.6380	-1.2528	26.59	0.59	-1.500			
0.4287	27436.90	3.6350	3.6349	-1.2845	26.60	0.60	-1.500			
0.4326	27687.11	3.6320	3.6320	-1.3130	26.60	0.60	-1.500			
0.4366	27945.08	3.6290	3.6290	-1.3401	26.61	0.61	-1.500			
0.4407	28204.77	3.6260	3.6260	-1.3721	26.62	0.62	-1.500			
0.4448	28468.55	3.6230	3.6230	-1.3963	26.62	0.62	-1.500			
0.4490	28737.35	3.6200	3.6200	-1.4335	26.62	0.62	-1.500			
0.4534	29016.42	3.6170	3.6170	-1.4741	26.63	0.63	-1.500			
0.4579	29303.65	3.6140	3.6139	-1.5092	26.63	0.63	-1.500			
0.4625	29599.84	3.6110	3.6110	-1.5465	26.64	0.64	-1.500			
0.4672	29903.96	3.6080	3.6080	-1.5793	26.64	0.64	-1.500			
0.4720	30206.80	3.6050	3.6049	-1.6052	26.64	0.64	-1.500			
0.4768	30517.83	3.6020	3.6020	-1.6402	26.64	0.64	-1.500			
0.4818	30834.63	3.5990	3.5989	-1.6689	26.64	0.64	-1.500			
0.4868	31157.63	3.5960	3.5960	-1.7022	26.64	0.64	-1.500			
0.4921	31493.26	3.5930	3.5931	-1.7304	26.64	0.64	-1.500			
0.4973	31827.63	3.5900	3.5899	-1.7533	26.64	0.64	-1.500			
0.5026	32168.21	3.5870	3.5870	-1.7858	26.64	0.64	-1.500			
0.5080	32509.80	3.5840	3.5840	-1.8111	26.64	0.64	-1.500			
0.5135	32862.18	3.5810	3.5809	-1.8512	26.64	0.64	-1.500			
0.5190	33218.28	3.5780	3.5781	-1.8787	26.64	0.64	-1.500			
0.5247	33581.96	3.5750	3.5750	-1.9194	26.64	0.64	-1.500			
0.5306	33960.94	3.5720	3.5720	-1.9474	26.64	0.64	-1.500			
0.5365	34336.71	3.5690	3.5689	-1.9595	26.63	0.63	-1.500			
0.5424	34716.58	3.5660	3.5662	-1.9769	26.63	0.63	-1.500			
0.5484	35095.62	3.5630	3.5629	-1.9915	26.63	0.63	-1.500			
0.5544	35480.79	3.5600	3.5599	-2.0173	26.63	0.63	-1.500			
0.5604	35867.68	3.5570	3.5569	-2.0318	26.62	0.62	-1.500			
0.5666	36264.55	3.5540	3.5540	-2.0456	26.62	0.62	-1.500			
0.5728	36659.12	3.5510	3.5513	-2.0619	26.62	0.62	-1.500	0.399	0.497	
0.5790	37053.42	3.5480	3.5480	-2.0810	26.62	0.62	-1.500			
0.5852	37452.17	3.5450	3.5449	-2.0977	26.61	0.61	-1.500			
0.5915	37855.76	3.5420	3.5420	-2.1214	26.61	0.61	-1.500			
0.5979	38265.51	3.5390	3.5390	-2.1337	26.61	0.61	-1.500			
0.6045	38687.17	3.5360	3.5360	-2.1419	26.61	0.61	-1.500			
0.6108	39089.07	3.5330	3.5330	-2.1140	26.60	0.60	-1.500			
0.6171	39497.28	3.5300	3.5301	-2.0982	26.60	0.60	-1.500			
0.6233	39893.77	3.5270	3.5270	-2.0971	26.60	0.60	-1.500			
0.6296	40296.29	3.5240	3.5240	-2.0704	26.60	0.60	-1.500			
0.6358	40693.44	3.5210	3.5209	-2.0519	26.60	0.60	-1.500			
0.6420	41086.47	3.5180	3.5179	-2.0335	26.60	0.60	-1.500			
0.6481	41475.45	3.5150	3.5150	-2.0109	26.60	0.60	-1.500			
0.6540	41857.98	3.5120	3.5120	-1.9898	26.60	0.60	-1.500			
0.6600	42238.73	3.5090	3.5089	-1.9604	26.60	0.60	-1.500			
0.6658	42610.69	3.5060	3.5060	-1.9403	26.60	0.60	-1.500			
0.6716	42982.45	3.5030	3.5029	-1.9135	26.60	0.60	-1.500			
0.6773	43347.07	3.5000	3.5000	-1.8933	26.60	0.60	-1.500			
0.6829	43708.63	3.4970	3.4970	-1.8644	26.60	0.60	-1.500			
0.6885	44062.60	3.4940	3.4940	-1.8360	26.60	0.60	-1.500			
0.6940	44415.72	3.4910	3.4911	-1.8186	26.60	0.60	-1.500			
0.6994	44762.29	3.4880	3.4880	-1.7902	26.61	0.61	-1.500			
0.7047	45100.73	3.4850	3.4850	-1.7645	26.61	0.61	-1.500			
0.7099	45435.72	3.4820	3.4820	-1.7440	26.62	0.62	-1.500			
0.7152	45770.79	3.4790	3.4790	-1.7216	26.63	0.63	-1.500			
0.7203	46099.32	3.4760	3.4760	-1.6923	26.63	0.63	-1.500			
0.7253	46421.54	3.4730	3.4730	-1.6686	26.64	0.64	-1.500			
0.7303	46738.79	3.4700	3.4700	-1.6444	26.64	0.64	-1.500			
0.7352	47050.82	3.4670	3.4669	-1.6203	26.65	0.65	-1.500			
0.7400	47359.54	3.4640	3.4640	-1.5972	26.66	0.66	-1.500			
0.7448	47665.07	3.4610	3.4610	-1.5669	26.66	0.66	-1.500			
0.7494	47964.44	3.4580	3.4580	-1.5481	26.67	0.67	-1.500			
0.7540	48259.16	3.4550	3.4551	-1.5297	26.68	0.68	-1.500			
0.7586	48549.61	3.4520	3.4519	-1.5044	26.69	0.69	-1.500			
0.7630	48834.41	3.4490	3.4490	-1.4908	26.70	0.70	-1.500			
0.7675	49120.39	3.4460	3.4460	-1.4731	26.71	0.71	-1.500			
0.7719	49402.05	3.4430	3.4430	-1.4627	26.72	0.72	-1.500			
0.7763	49682.65	3.4400	3.4400	-1.4474	26.73	0.73	-1.500			
0.7805	49954.93	3.4370	3.4371	-1.4453	26.74	0.74	-1.500			
0.7849	50232.82	3.4340	3.4340	-1.4377	26.76	0.76	-1.500			
0.7892	50510.20	3.4310	3.4309	-1.4346	26.77	0.77	-1.500			
0.7935	50784.22	3.4280	3.4282	-1.4250	26.78	0.78	-1.500			
0.7978	51060.06	3.4250	3.4249	-1.4215	26.80	0.80	-1.500			
0.8020	51329.86	3.4220	3.4220	-1.4073	26.81	0.81	-1.500			
0.8062	51598.81	3.4190	3.4190	-1.3940	26.83	0.83	-1.500			
0.8105	51868.88	3.4160	3.4160	-1.3708	26.84	0.84	-1.500			
0.8146	52132.47	3.4130	3.4129	-1.3436	26.86	0.86	-1.500			
0.8186	52389.71	3.4100	3.4101	-1.3116	26.87	0.87	-1.500			
0.8225	52639.34	3.4070	3.4070	-1.2679	26.89	0.89	-1.500			
0.8262	52878.49	3.4040	3.4039	-1.2253	26.90	0.90	-1.500			
0.8298	53108.15	3.4010	3.4011	-1.1817	26.92	0.92	-1.500			
0.8333	53331.37	3.3980	3.3979	-1.1301	26.94	0.94	-1.500			
0.8366	53544.27	3.3950	3.3950	-1.0874	26.95	0.95	-1.500			
0.8398	53748.07	3.3920	3.3920	-1.0372	26.96	0.96	-1.500			
0.8428	53940.86	3.3890	3.3891	-0.9938	26.97	0.97	-1.500			
0.8458	54129.32	3.3860	3.3859	-0.9501	26.98	0.98	-1.500			
0.8485	54305.13	3.3830	3.3830	-0.9080	26.99	0.99	-1.500			
0.8512	54473.76	3.3800	3.3800	-0.8707	27.01	1.01	-1.500			
0.8537	54638.69	3.3770	3.3770	-0.8415	27.02	1.02	-1.500			
0.8562	54796.05	3.3740	3.3739	-0.8068	27.03	1.03	-1.500			
0.8586	54950.20	3.3710	3.3710	-0.7747	27.04	1.04	-1.500			
0.8608	55094.05	3.3680	3.3680	-0.7457	27.05	1.05	-1.500			
0.8631	55235.60	3.3650	3.3650	-0.7211	27.06	1.06	-1.500			
0.8651	55369.16	3.3620	3.3620	-0.6935	27.07	1.07	-1.500			
0.8672	55499.79	3.3590	3.3588	-0.6716	27.08	1.08	-1.500			
0.8691	55625.59	3.3560	3.3561	-0.6502	27.09	1.09	-1.500			
0.8711	55749.67	3.3530	3.3529	-0.6278	27.10	1.10	-1.500			
0.8730	55869.26	3.3500	3.3500	-0.6073	27.11	1.11	-1.500			
0.8747	55982.02	3.3470	3.3471	-0.5835	27.12	1.12	-1.500			
0.8764	56092.06	3.3440	3.3440	-0.5679	27.13	1.13	-1.500			
0.8781	56198.58	3.3410	3.3409	-0.5475	27.13	1.13	-1.500			
0.8797	56302.37	3.3380	3.3379	-0.5322	27.14	1.14	-1.500			
0.8813	56402.85	3.3350	3.3351	-0.5147	27.15	1.15	-1.500			
0.8828	56501.16	3.3320	3.3320	-0.4981	27.15	1.15	-1.500			
0.8843	56594.73	3.3290	3.3290	-0.4822	27.16	1.16	-1.500			
0.8857	56685.38	3.3260	3.3259	-0.4652	27.17	1.17	-1.500			
0.8871	56772.01	3.3230	3.3231	-0.4480	27.17	1.17	-1.500			
0.8884	56857.22	3.3200	3.3200	-0.4350	27.18	1.18	-1.500			
0.8897	56939.62	3.3170	3.3171	-0.4191	27.19	1.19	-1.500			
0.8909	57018.88	3.3140	3.3139	-0.4050	27.19	1.19	-1.500			
0.8921	57094.73	3.3110	3.3110	-0.3917	27.19	1.19	-1.500			
0.8932	57167.87	3.3080	3.3080	-0.3772	27.19	1.19	-1.500			
0.8944	57238.83	3.3050	3.3049	-0.3651	27.20	1.20	-1.500			
0.8954	57307.85	3.3020	3.3020	-0.3531	27.20	1.20	-1.500			
0.8965	57374.76	3.2990	3.2990	-0.3400	27.21	1.21	-1.500			
0.8975	57438.91	3.2960	3.2960	-0.3277	27.22	1.22	-1.500			
0.8984	57500.15	3.2930	3.2931	-0.3170	27.22	1.22	-1.500			
0.8994	57559.74	3.2900	3.2900	-0.3070	27.23	1.23	-1.500			
0.9003	57617.33	3.2870	3.2869	-0.2973	27.23	1.23	-1.500			
0.9011	57673.56	3.2840	3.2839	-0.2874	27.24	1.24	-1.500			
0.9020	57728.28	3.2810	3.2811	-0.2776	27.25	1.25	-1.500			
0.9028	57780.84	3.2780	3.2781	-0.2684	27.25	1.25	-1.500			
0.9036	57831.37	3.2750	3.2750	-0.2580	27.26	1.26	-1.500			
0.9044	57879.22	3.2720	3.2720	-0.2490	27.26	1.26	-1.500			
0.9051	57925.60	3.2690	3.2690	-0.2401	27.26	1.26	-1.500			
0.9058	57970.70	3.2660	3.2661	-0.2328	27.27	1.27	-1.500			
0.9065	58014.62	3.2630	3.2629	-0.2278	27.27	1.27	-1.500			
0.9072	58057.89	3.2600	3.2601	-0.2208	27.28	1.28	-1.500			
0.9078	58099.89	3.2570	3.2570	-0.2146	27.28	1.28	-1.500			
0.9084	58140.51	3.2540	3.2538	-0.2074	27.29	1.29	-1.500			
0.9091	58180.22	3.2510	3.2512	-0.2013	27.29	1.29	-1.500			
0.9097	58217.69	3.2480	3.2479	-0.1949	27.29	1.29	-1.500			
0.9102	58254.38	3.2450	3.2451	-0.1894	27.30	1.30	-1.500			
0.9108	58289.91	3.2420	3.2419	-0.1835	27.30	1.30	-1.500			
0.9113	58324.07	3.2390	3.2390	-0.1782	27.30	1.30	-1.500			
0.9118	58358.12	3.2360	3.2361	-0.1747	27.31	1.31	-1.500			
0.9124	58391.06	3.2330	3.2330	-0.1701	27.31	1.31	-1.500			
0.9129	58423.56	3.2300	3.2300	-0.1665	27.31	1.31	-1.500			
0.9134	58455.08	3.2270	3.2268	-0.1620	27.32	1.32	-1.500			
0.9138	58485.51	3.2240	3.2240	-0.1577	27.32	1.32	-1.500			
0.9143	58515.43	3.2210	3.2211	-0.1541	27.32	1.32	-1.500			
0.9148	58544.65	3.2180	3.2179	-0.1502	27.33	1.33	-1.500			
0.9152	58573.09	3.2150	3.2151	-0.1468	27.33	1.33	-1.500			
0.9156	58600.72	3.2120	3.2120	-0.1433	27.33	1.33	-1.500			
0.9161	58627.92	3.2090	3.2089	-0.1401	27.34	1.34	-1.500			
0.9165	58654.53	3.2060	3.2060	-0.1371	27.34	1.34	-1.500			
0.9169	58680.57	3.2030	3.2030	-0.1342	27.34	1.34	-1.500			
0.9173	58705.93	3.2000	3.2000	-0.1315	27.34	1.34	-1.500			
0.9177	58730.68	3.1970	3.1971	-0.1291	27.35	1.35	-1.500			
0.9181	58755.27	3.1940	3.1939	-0.1270	27.35	1.35	-1.500			
0.9184	58779.41	3.1910	3.1910	-0.1246	27.35	1.35	-1.500			
0.9188	58803.11	3.1880	3.1880	-0.1225	27.36	1.36	-1.500			
0.9192	58826.56	3.1850	3.1851	-0.1204	27.36	1.36	-1.500			
0.9195	58849.46	3.1820	3.1820	-0.1181	27.36	1.36	-1.500			
0.9199	58871.95	3.1790	3.1790	-0.1160	27.37	1.37	-1.500			
0.9202	58893.98	3.1760	3.1759	-0.1136	27.37	1.37	-1.500			
0.9206	58915.44	3.1730	3.1731	-0.1117	27.37	1.37	-1.500			
0.9209	58936.46	3.1700	3.1701	-0.1094	27.38	1.38	-1.500			
0.9212	58957.26	3.1670	3.1669	-0.1079	27.38	1.38	-1.500			
0.9215	58977.78	3.1640	3.1642	-0.1062	27.38	1.38	-1.500			
0.9218	58998.02	3.1610	3.1609	-0.1048	27.39	1.39	-1.500			
0.9222	59017.94	3.1580	3.1580	-0.1032	27.39	1.39	-1.500			
0.9225	59037.63	3.1550	3.1551	-0.1018	27.39	1.39	-1.500			
0.9228	59057.06	3.1520	3.1522	-0.1004	27.40	1.40	-1.500			
0.9231	59076.02	3.1490	3.1490	-0.0997	27.40	1.40	-1.500			
0.9234	59094.90	3.1460	3.1460	-0.0986	27.40	1.40	-1.500			
0.9237	59113.95	3.1430	3.1430	-0.0972	27.40	1.40	-1.500			
0.9239	59132.51	3.1400	3.1398	-0.0961	27.41	1.41	-1.500			
0.9242	59150.89	3.1370	3.1371	-0.0947	27.41	1.41	-1.500			
0.9245	59169.11	3.1340	3.1339	-0.0935	27.41	1.41	-1.500			
0.9248	59186.87	3.1310	3.1310	-0.0922	27.42	1.42	-1.500			
0.9251	59204.54	3.1280	3.1279	-0.0909	27.42	1.42	-1.500			
0.9253	59221.74	3.1250	3.1251	-0.0896	27.42	1.42	-1.500			
0.9256	59238.48	3.1220	3.1219	-0.0879	27.42	1.42	-1.500			
0.9259	59255.28	3.1190	3.1190	-0.0871	27.43	1.43	-1.500			
0.9261	59272.00	3.1160	3.1160	-0.0863	27.43	1.43	-1.500			
0.9264	59288.49	3.1130	3.1130	-0.0854	27.43	1.43	-1.500			
0.9266	59304.76	3.1100	3.1100	-0.0843	27.43	1.43	-1.500			
0.9269	59320.85	3.1070	3.1070	-0.0833	27.44	1.44	-1.500			
0.9271	59336.75	3.1040	3.1041	-0.0824	27.44	1.44	-1.500			
0.9274	59352.48	3.1010	3.1010	-0.0814	27.44	1.44	-1.500			
0.9276	59368.07	3.0980	3.0979	-0.0805	27.44	1.44	-1.500			
0.9279	59383.32	3.0950	3.0951	-0.0799	27.45	1.45	-1.500			
0.9281	59398.45	3.0920	3.0920	-0.0789	27.45	1.45	-1.500			
0.9283	59413.55	3.0890	3.0889	-0.0784	27.45	1.45	-1.500			
0.9286	59428.55	3.0860	3.0859	-0.0780	27.45	1.45	-1.500			
0.9288	59443.41	3.0830	3.0832	-0.0774	27.46	1.46	-1.500			
0.9290	59458.39	3.0800	3.0800	-0.0766	27.46	1.46	-1.500			
0.9293	59473.16	3.0770	3.0769	-0.0762	27.46	1.46	-1.500			
0.9295	59487.70	3.0740	3.0741	-0.0752	27.46	1.46	-1.500			
0.9297	59501.99	3.0710	3.0711	-0.0746	27.46	1.46	-1.500			
0.9299	59516.23	3.0680	3.0679	-0.0738	27.47	1.47	-1.500			
0.9302	59530.34	3.0650	3.0651	-0.0731	27.47	1.47	-1.500			
0.9304	59544.29	3.0620	3.0619	-0.0724	27.47	1.47	-1.500			
0.9306	59557.99	3.0590	3.0590	-0.0715	27.47	1.47	-1.500			
0.9308	59571.63	3.0560	3.0561	-0.0711	27.48	1.48	-1.500			
0.9310	59585.22	3.0530	3.0530	-0.0706	27.48	1.48	-1.500			
0.9312	59598.76	3.0500	3.0501	-0.0701	27.48	1.48	-1.500			
0.9314	59612.13	3.0470	3.0470	-0.0697	27.48	1.48	-1.500			
0.9316	59625.35	3.0440	3.0439	-0.0691	27.48	1.48	-1.500			
0.9319	59638.58	3.0410	3.0410	-0.0688	27.49	1.49	-1.500			
0.9321	59651.82	3.0380	3.0380	-0.0681	27.49	1.49	-1.500			
0.9323	59664.98	3.0350	3.0350	-0.0677	27.49	1.49	-1.500			
0.9325	59677.82	3.0320	3.0321	-0.0673	27.49	1.49	-1.500			
0.9327	59690.68	3.0290	3.0290	-0.0667	27.49	1.49	-1.500			
0.9329	59703.39	3.0260	3.0259	-0.0662	27.50	1.50	-1.500			
0.9331	59716.06	3.0230	3.0230	-0.0658	27.50	1.50	-1.500			
0.9333	59728.58	3.0200	3.0200	-0.0652	27.50	1.50	-1.500			
0.9335	59741.07	3.0170	3.0170	-0.0649	27.50	1.50	-1.500			
0.9336	59753.49	3.0140	3.0141	-0.0646	27.50	1.50	-1.500			
0.9338	59765.94	3.0110	3.0111	-0.0643	27.51	1.51	-1.500			
0.9340	59778.23	3.0080	3.0081	-0.0638	27.51	1.51	-1.500			
0.9342	59790.44	3.0050	3.0049	-0.0634	27.51	1.51	-1.500			
0.9344	59802.60	3.0020	3.0020	-0.0638	27.51	1.51	-1.500			
