Ah_balance (normalized)	Ah_balance (mAh)	Voltage - fit (V)	Voltage -  interpolate (V)	dQ/dV (1/V)	Temperature (°C)	Temperature - diff (°C)	Current (C)	R_DC 0ms (mOhm)	R_DC 50ms (mOhm)	R_DC 50 ms PEC (mOhm)
0.2925	18718.13	3.9860	3.9860	0.8401	27.39	1.43	1.500			
0.2950	18879.09	3.9830	3.9831	0.8397	27.39	1.43	1.500			
0.2975	19039.96	3.9800	3.9799	0.8417	27.38	1.42	1.500			
0.3000	19201.59	3.9770	3.9771	0.8463	27.37	1.41	1.500			
0.3026	19363.91	3.9740	3.9740	0.8520	27.37	1.41	1.500			
0.3051	19527.54	3.9710	3.9710	0.8510	27.36	1.40	1.500			
0.3077	19692.67	3.9680	3.9680	0.8560	27.36	1.40	1.500			
0.3103	19856.54	3.9650	3.9651	0.8586	27.35	1.39	1.500			
0.3128	20021.87	3.9620	3.9618	0.8625	27.34	1.38	1.500			
0.3154	20187.29	3.9590	3.9590	0.8665	27.34	1.38	1.500			
0.3180	20354.28	3.9560	3.9560	0.8694	27.33	1.37	1.500			
0.3206	20521.32	3.9530	3.9530	0.8742	27.32	1.36	1.500			
0.3233	20690.91	3.9500	3.9500	0.8811	27.32	1.36	1.500			
0.3259	20859.12	3.9470	3.9470	0.8843	27.31	1.35	1.500			
0.3286	21030.21	3.9440	3.9439	0.8848	27.31	1.35	1.500			
0.3313	21200.89	3.9410	3.9411	0.8871	27.30	1.34	1.500			
0.3339	21370.69	3.9380	3.9380	0.8932	27.30	1.34	1.500			
0.3366	21542.18	3.9350	3.9350	0.9003	27.29	1.33	1.500			
0.3393	21713.96	3.9320	3.9319	0.9021	27.29	1.33	1.500			
0.3420	21888.28	3.9290	3.9290	0.9101	27.29	1.33	1.500			
0.3448	22064.71	3.9260	3.9260	0.9158	27.28	1.32	1.500			
0.3475	22242.59	3.9230	3.9230	0.9206	27.28	1.32	1.500			
0.3503	22418.92	3.9200	3.9200	0.9262	27.27	1.31	1.500			
0.3531	22596.02	3.9170	3.9170	0.9309	27.27	1.31	1.500			
0.3558	22774.40	3.9140	3.9141	0.9360	27.26	1.30	1.500			
0.3587	22955.90	3.9110	3.9110	0.9436	27.25	1.29	1.500			
0.3615	23138.60	3.9080	3.9080	0.9495	27.25	1.29	1.500			
0.3644	23321.23	3.9050	3.9050	0.9570	27.24	1.28	1.500			
0.3673	23505.45	3.9020	3.9021	0.9624	27.23	1.27	1.500			
0.3701	23689.56	3.8990	3.8989	0.9682	27.23	1.27	1.500			
0.3731	23875.44	3.8960	3.8960	0.9774	27.22	1.26	1.500			
0.3760	24064.22	3.8930	3.8930	0.9904	27.21	1.25	1.500			
0.3790	24256.20	3.8900	3.8900	1.0026	27.20	1.24	1.500			
0.3820	24450.06	3.8870	3.8870	1.0094	27.20	1.24	1.500			
0.3851	24643.94	3.8840	3.8841	1.0165	27.19	1.23	1.500			
0.3881	24840.15	3.8810	3.8810	1.0302	27.18	1.22	1.500			
0.3912	25038.49	3.8780	3.8779	1.0401	27.18	1.22	1.500			
0.3944	25238.43	3.8750	3.8750	1.0513	27.17	1.21	1.500			
0.3975	25441.48	3.8720	3.8721	1.0626	27.16	1.20	1.500			
0.4007	25647.86	3.8690	3.8689	1.0729	27.15	1.19	1.500			
0.4040	25854.83	3.8660	3.8660	1.0854	27.14	1.18	1.500			
0.4072	26062.31	3.8630	3.8631	1.0980	27.14	1.18	1.500			
0.4105	26274.18	3.8600	3.8599	1.1094	27.13	1.17	1.500			
0.4139	26489.78	3.8570	3.8570	1.1210	27.12	1.16	1.500			
0.4173	26705.71	3.8540	3.8540	1.1357	27.11	1.15	1.500			
0.4207	26924.70	3.8510	3.8511	1.1545	27.10	1.14	1.500			
0.4242	27147.54	3.8480	3.8480	1.1732	27.10	1.14	1.500			
0.4277	27372.65	3.8450	3.8449	1.1918	27.09	1.13	1.500			
0.4313	27603.35	3.8420	3.8420	1.2179	27.08	1.12	1.500			
0.4350	27839.75	3.8390	3.8390	1.2443	27.06	1.10	1.500			
0.4388	28083.21	3.8360	3.8360	1.2571	27.05	1.09	1.500			
0.4426	28325.86	3.8330	3.8330	1.2811	27.04	1.08	1.500			
0.4465	28573.77	3.8300	3.8300	1.3041	27.03	1.07	1.500			
0.4504	28825.64	3.8270	3.8270	1.3223	27.01	1.05	1.500			
0.4544	29081.73	3.8240	3.8240	1.3417	27.00	1.04	1.500			
0.4585	29341.22	3.8210	3.8211	1.3628	26.99	1.03	1.500			
0.4626	29605.30	3.8180	3.8180	1.3881	26.98	1.02	1.500			
0.4668	29874.80	3.8150	3.8150	1.4240	26.96	1.00	1.500			
0.4711	30147.92	3.8120	3.8119	1.4434	26.95	0.99	1.500			
0.4754	30427.47	3.8090	3.8090	1.4835	26.93	0.97	1.500			
0.4799	30715.88	3.8060	3.8061	1.5186	26.92	0.96	1.500			
0.4846	31013.39	3.8030	3.8030	1.5468	26.91	0.95	1.500			
0.4892	31311.30	3.8000	3.7999	1.5742	26.89	0.93	1.500			
0.4940	31615.08	3.7970	3.7971	1.5964	26.88	0.92	1.500			
0.4988	31925.14	3.7940	3.7940	1.6365	26.86	0.90	1.500			
0.5038	32243.82	3.7910	3.7910	1.6541	26.84	0.88	1.500			
0.5088	32564.87	3.7880	3.7879	1.6528	26.82	0.86	1.500			
0.5138	32883.86	3.7850	3.7851	1.6982	26.81	0.85	1.500			
0.5189	33209.42	3.7820	3.7820	1.7308	26.79	0.83	1.500			
0.5241	33544.16	3.7790	3.7790	1.7496	26.77	0.81	1.500	0.344	0.471	
0.5294	33881.67	3.7760	3.7762	1.7684	26.75	0.79	1.500			
0.5348	34229.38	3.7730	3.7731	1.7828	26.73	0.77	1.500			
0.5402	34574.00	3.7700	3.7700	1.7656	26.71	0.75	1.500			
0.5455	34912.50	3.7670	3.7670	1.7669	26.69	0.73	1.500			
0.5508	35253.67	3.7640	3.7640	1.7742	26.67	0.71	1.500			
0.5562	35593.68	3.7610	3.7610	1.7680	26.65	0.69	1.500			
0.5615	35934.97	3.7580	3.7580	1.7690	26.64	0.68	1.500			
0.5667	36271.43	3.7550	3.7550	1.7701	26.62	0.66	1.500			
0.5720	36609.67	3.7520	3.7520	1.7802	26.60	0.64	1.500			
0.5774	36952.55	3.7490	3.7489	1.7984	26.58	0.62	1.500			
0.5828	37299.17	3.7460	3.7460	1.8199	26.56	0.60	1.500			
0.5883	37652.12	3.7430	3.7430	1.8292	26.54	0.58	1.500			
0.5938	38003.65	3.7400	3.7400	1.8658	26.53	0.57	1.500			
0.5995	38365.44	3.7370	3.7370	1.9113	26.51	0.55	1.500			
0.6052	38735.25	3.7340	3.7340	1.9534	26.49	0.53	1.500			
0.6112	39116.54	3.7310	3.7310	2.0038	26.47	0.51	1.500			
0.6173	39504.61	3.7280	3.7281	2.0554	26.45	0.49	1.500			
0.6235	39904.11	3.7250	3.7250	2.1202	26.43	0.47	1.500			
0.6299	40316.49	3.7220	3.7220	2.1780	26.41	0.45	1.500			
0.6366	40743.09	3.7190	3.7191	2.2465	26.39	0.43	1.500			
0.6434	41179.54	3.7160	3.7160	2.2936	26.37	0.41	1.500			
0.6504	41622.83	3.7130	3.7129	2.3663	26.35	0.39	1.500			
0.6576	42088.80	3.7100	3.7100	2.4341	26.34	0.38	1.500			
0.6652	42573.63	3.7070	3.7070	2.4777	26.32	0.36	1.500			
0.6725	43042.86	3.7040	3.7040	2.3946	26.30	0.34	1.500			
0.6796	43495.80	3.7010	3.7011	2.2735	26.28	0.32	1.500			
0.6864	43927.54	3.6980	3.6980	2.1354	26.26	0.30	1.500			
0.6924	44316.63	3.6950	3.6950	1.9781	26.25	0.29	1.500			
0.6981	44680.82	3.6920	3.6920	1.8503	26.23	0.27	1.500			
0.7034	45019.85	3.6890	3.6890	1.7241	26.22	0.26	1.500			
0.7084	45338.51	3.6860	3.6860	1.6204	26.20	0.24	1.500			
0.7131	45639.79	3.6830	3.6830	1.5238	26.19	0.23	1.500			
0.7175	45920.39	3.6800	3.6800	1.4490	26.18	0.22	1.500			
0.7216	46183.27	3.6770	3.6771	1.3842	26.17	0.21	1.500			
0.7256	46441.34	3.6740	3.6739	1.3391	26.16	0.20	1.500			
0.7296	46692.89	3.6710	3.6710	1.3110	26.15	0.19	1.500			
0.7334	46938.76	3.6680	3.6680	1.2863	26.14	0.18	1.500			
0.7372	47182.38	3.6650	3.6650	1.2748	26.13	0.17	1.500			
0.7410	47426.88	3.6620	3.6621	1.2728	26.13	0.17	1.500			
0.7448	47666.74	3.6590	3.6589	1.2678	26.12	0.16	1.500			
0.7486	47908.84	3.6560	3.6559	1.2757	26.11	0.15	1.500			
0.7524	48154.26	3.6530	3.6530	1.2837	26.10	0.14	1.500			
0.7563	48402.05	3.6500	3.6500	1.2915	26.09	0.13	1.500			
0.7602	48655.64	3.6470	3.6470	1.2859	26.08	0.12	1.500			
0.7641	48903.28	3.6440	3.6440	1.2757	26.07	0.11	1.500			
0.7679	49147.01	3.6410	3.6411	1.2626	26.06	0.10	1.500			
0.7717	49387.94	3.6380	3.6379	1.2499	26.05	0.09	1.500			
0.7754	49623.29	3.6350	3.6350	1.2388	26.04	0.08	1.500			
0.7791	49859.64	3.6320	3.6320	1.2357	26.03	0.07	1.500			
0.7827	50095.90	3.6290	3.6290	1.2318	26.03	0.07	1.500			
0.7865	50334.15	3.6260	3.6260	1.2309	26.02	0.06	1.500			
0.7902	50571.49	3.6230	3.6230	1.2209	26.01	0.05	1.500			
0.7938	50805.63	3.6200	3.6200	1.2088	26.00	0.04	1.500			
0.7975	51037.72	3.6170	3.6171	1.1935	25.99	0.03	1.500			
0.8010	51264.93	3.6140	3.6140	1.1736	25.98	0.02	1.500			
0.8045	51487.99	3.6110	3.6110	1.1539	25.98	0.02	1.500			
0.8079	51708.03	3.6080	3.6081	1.1332	25.98	0.02	1.500			
0.8113	51923.61	3.6050	3.6050	1.1123	25.97	0.01	1.500			
0.8146	52136.66	3.6020	3.6020	1.0863	25.97	0.01	1.500			
0.8179	52342.74	3.5990	3.5990	1.0622	25.97	0.01	1.500			
0.8210	52543.65	3.5960	3.5961	1.0427	25.96	0.00	1.500			
0.8241	52741.44	3.5930	3.5930	1.0203	25.96	0.00	1.500			
0.8272	52937.61	3.5900	3.5898	0.9843	25.96	-0.00	1.500			
0.8301	53126.80	3.5870	3.5870	0.9389	25.96	-0.00	1.500			
0.8330	53309.96	3.5840	3.5840	0.8728	25.96	-0.00	1.500			
0.8355	53474.23	3.5810	3.5811	0.7883	25.95	-0.01	1.500			
0.8378	53619.25	3.5780	3.5780	0.6908	25.95	-0.01	1.500			
0.8397	53741.04	3.5750	3.5749	0.5885	25.95	-0.01	1.500			
0.8412	53839.65	3.5720	3.5720	0.4956	25.95	-0.01	1.500			
0.8426	53923.40	3.5690	3.5689	0.4178	25.95	-0.01	1.500			
0.8436	53990.83	3.5660	3.5660	0.3520	25.95	-0.01	1.500			
0.8445	54049.73	3.5630	3.5630	0.3039	25.95	-0.01	1.500			
0.8453	54100.18	3.5600	3.5599	0.2578	25.95	-0.01	1.500			
0.8460	54144.89	3.5570	3.5568	0.2292	25.94	-0.02	1.500			
0.8466	54183.55	3.5540	3.5540	0.2036	25.94	-0.02	1.500			
0.8472	54219.54	3.5510	3.5511	0.1837	25.94	-0.02	1.500			
0.8477	54252.87	3.5480	3.5479	0.1655	25.94	-0.02	1.500			
0.8482	54282.39	3.5450	3.5450	0.1496	25.94	-0.02	1.500			
0.8486	54309.18	3.5420	3.5420	0.1333	25.94	-0.02	1.500			
0.8490	54333.09	3.5390	3.5390	0.1178	25.94	-0.02	1.500			
0.8493	54354.33	3.5360	3.5360	0.1034	25.94	-0.02	1.500			
0.8496	54372.84	3.5330	3.5330	0.0891	25.94	-0.02	1.500			
0.8498	54388.76	3.5300	3.5302	0.0747	25.94	-0.02	1.500			
0.8500	54401.69	3.5270	3.5272	0.0600	25.94	-0.02	1.500			
0.8502	54412.04	3.5240	3.5244	0.0443	25.94	-0.02	1.500			
0.8503	54419.04	3.5210	3.5217	0.0287	25.94	-0.02	1.500			
