Ah_balance (normalized)	Ah_balance (mAh)	Voltage - fit (V)	Voltage -  interpolate (V)	dQ/dV (1/V)	Temperature (°C)	Temperature - diff (°C)	Current (C)	R_DC 0ms (mOhm)	R_DC 50ms (mOhm)	R_DC 50 ms PEC (mOhm)
0.2750	17596.86	3.9890	3.9890	0.8639	27.31	1.35	1.500			
0.2775	17760.97	3.9860	3.9860	0.8524	27.31	1.35	1.500			
0.2800	17922.61	3.9830	3.9831	0.8476	27.30	1.34	1.500			
0.2826	18084.23	3.9800	3.9800	0.8508	27.30	1.34	1.500			
0.2851	18247.86	3.9770	3.9770	0.8517	27.29	1.33	1.500			
0.2877	18409.99	3.9740	3.9739	0.8497	27.29	1.33	1.500			
0.2902	18573.47	3.9710	3.9711	0.8548	27.28	1.32	1.500			
0.2928	18740.16	3.9680	3.9681	0.8599	27.28	1.32	1.500			
0.2954	18904.05	3.9650	3.9649	0.8632	27.27	1.31	1.500			
0.2980	19069.07	3.9620	3.9621	0.8644	27.27	1.31	1.500			
0.3006	19235.79	3.9590	3.9590	0.8696	27.26	1.30	1.500			
0.3032	19404.61	3.9560	3.9559	0.8765	27.26	1.30	1.500			
0.3058	19572.96	3.9530	3.9531	0.8823	27.25	1.29	1.500			
0.3085	19742.44	3.9500	3.9500	0.8848	27.25	1.29	1.500			
0.3112	19913.69	3.9470	3.9470	0.8882	27.24	1.28	1.500			
0.3138	20084.02	3.9440	3.9440	0.8888	27.23	1.27	1.500			
0.3165	20256.72	3.9410	3.9410	0.8903	27.23	1.27	1.500			
0.3192	20427.02	3.9380	3.9380	0.8928	27.22	1.26	1.500			
0.3218	20597.48	3.9350	3.9350	0.8964	27.22	1.26	1.500			
0.3245	20768.90	3.9320	3.9322	0.9011	27.21	1.25	1.500			
0.3272	20941.74	3.9290	3.9290	0.9114	27.21	1.25	1.500			
0.3300	21117.25	3.9260	3.9260	0.9205	27.20	1.24	1.500			
0.3327	21295.94	3.9230	3.9230	0.9247	27.19	1.23	1.500			
0.3355	21474.66	3.9200	3.9201	0.9297	27.18	1.22	1.500			
0.3384	21654.94	3.9170	3.9171	0.9371	27.18	1.22	1.500			
0.3412	21836.23	3.9140	3.9139	0.9374	27.17	1.21	1.500			
0.3440	22014.81	3.9110	3.9110	0.9417	27.16	1.20	1.500			
0.3468	22194.61	3.9080	3.9081	0.9502	27.15	1.19	1.500			
0.3497	22378.52	3.9050	3.9050	0.9596	27.14	1.18	1.500			
0.3526	22564.53	3.9020	3.9020	0.9671	27.14	1.18	1.500			
0.3555	22751.02	3.8990	3.8990	0.9713	27.13	1.17	1.500			
0.3584	22937.23	3.8960	3.8961	0.9786	27.12	1.16	1.500			
0.3613	23126.33	3.8930	3.8929	0.9912	27.11	1.15	1.500			
0.3643	23315.26	3.8900	3.8900	0.9977	27.10	1.14	1.500			
0.3673	23507.33	3.8870	3.8870	1.0098	27.09	1.13	1.500			
0.3704	23703.86	3.8840	3.8840	1.0234	27.08	1.12	1.500			
0.3735	23901.73	3.8810	3.8810	1.0354	27.07	1.11	1.500			
0.3766	24101.55	3.8780	3.8780	1.0485	27.06	1.10	1.500			
0.3797	24303.70	3.8750	3.8751	1.0548	27.05	1.09	1.500			
0.3829	24507.08	3.8720	3.8720	1.0632	27.04	1.08	1.500			
0.3861	24712.60	3.8690	3.8690	1.0750	27.04	1.08	1.500			
0.3894	24920.91	3.8660	3.8660	1.0803	27.03	1.07	1.500			
0.3926	25128.06	3.8630	3.8630	1.0926	27.02	1.06	1.500			
0.3959	25336.15	3.8600	3.8600	1.1109	27.01	1.05	1.500			
0.3992	25549.99	3.8570	3.8570	1.1268	27.00	1.04	1.500			
0.4026	25769.18	3.8540	3.8540	1.1494	27.00	1.04	1.500			
0.4061	25992.74	3.8510	3.8511	1.1655	26.98	1.02	1.500			
0.4097	26219.41	3.8480	3.8480	1.1816	26.97	1.01	1.500			
0.4133	26451.70	3.8450	3.8450	1.1941	26.96	1.00	1.500			
0.4168	26677.65	3.8420	3.8421	1.2028	26.95	0.99	1.500			
0.4204	26908.40	3.8390	3.8391	1.2156	26.94	0.98	1.500			
0.4241	27142.93	3.8360	3.8360	1.2383	26.93	0.97	1.500			
0.4278	27381.12	3.8330	3.8330	1.2608	26.92	0.96	1.500			
0.4316	27624.58	3.8300	3.8301	1.2916	26.90	0.94	1.500			
0.4356	27876.51	3.8270	3.8269	1.3111	26.88	0.92	1.500			
0.4396	28132.21	3.8240	3.8239	1.3418	26.87	0.91	1.500			
0.4436	28391.02	3.8210	3.8211	1.3636	26.85	0.89	1.500			
0.4478	28656.48	3.8180	3.8180	1.3941	26.83	0.87	1.500			
0.4520	28925.77	3.8150	3.8150	1.4188	26.82	0.86	1.500			
0.4563	29201.99	3.8120	3.8120	1.4423	26.80	0.84	1.500			
0.4606	29481.40	3.8090	3.8090	1.4573	26.79	0.83	1.500			
0.4650	29761.86	3.8060	3.8060	1.4942	26.78	0.82	1.500			
0.4695	30046.80	3.8030	3.8030	1.5219	26.76	0.80	1.500			
0.4741	30342.04	3.8000	3.7999	1.5598	26.75	0.79	1.500			
0.4788	30645.01	3.7970	3.7970	1.5925	26.73	0.77	1.500			
0.4838	30961.56	3.7940	3.7941	1.6266	26.72	0.76	1.500			
0.4887	31277.80	3.7910	3.7910	1.6410	26.70	0.74	1.500			
0.4936	31591.43	3.7880	3.7880	1.6492	26.68	0.72	1.500			
0.4985	31904.50	3.7850	3.7850	1.6717	26.67	0.71	1.500			
0.5036	32227.95	3.7820	3.7820	1.7036	26.65	0.69	1.500			
0.5088	32560.02	3.7790	3.7786	1.7307	26.63	0.67	1.500	0.346	0.471	
0.5141	32900.27	3.7760	3.7760	1.7610	26.61	0.65	1.500			
0.5194	33239.51	3.7730	3.7730	1.7541	26.59	0.63	1.500			
0.5246	33575.59	3.7700	3.7700	1.7439	26.57	0.61	1.500			
0.5298	33909.41	3.7670	3.7670	1.7447	26.55	0.59	1.500			
0.5350	34242.88	3.7640	3.7640	1.7430	26.53	0.57	1.500			
0.5402	34575.91	3.7610	3.7610	1.7575	26.51	0.55	1.500			
0.5455	34914.80	3.7580	3.7580	1.7679	26.50	0.54	1.500			
0.5509	35255.21	3.7550	3.7549	1.7798	26.48	0.52	1.500			
0.5562	35598.39	3.7520	3.7520	1.7835	26.47	0.51	1.500			
0.5616	35945.00	3.7490	3.7490	1.7973	26.45	0.49	1.500			
0.5670	36288.61	3.7460	3.7460	1.8191	26.44	0.48	1.500			
0.5725	36638.40	3.7430	3.7431	1.8438	26.42	0.46	1.500			
0.5780	36993.01	3.7400	3.7401	1.8733	26.40	0.44	1.500			
0.5837	37356.92	3.7370	3.7370	1.9257	26.39	0.43	1.500			
0.5895	37728.85	3.7340	3.7339	1.9722	26.37	0.41	1.500			
0.5955	38111.68	3.7310	3.7311	2.0226	26.36	0.40	1.500			
0.6017	38506.61	3.7280	3.7280	2.0804	26.34	0.38	1.500			
0.6081	38917.89	3.7250	3.7249	2.1104	26.32	0.36	1.500			
0.6144	39320.40	3.7220	3.7221	2.1667	26.30	0.34	1.500			
0.6210	39741.17	3.7190	3.7191	2.2282	26.28	0.32	1.500			
0.6277	40174.33	3.7160	3.7161	2.3058	26.26	0.30	1.500			
0.6348	40626.46	3.7130	3.7130	2.3655	26.24	0.28	1.500			
0.6420	41086.87	3.7100	3.7100	2.3690	26.22	0.26	1.500			
0.6492	41547.98	3.7070	3.7070	2.3897	26.20	0.24	1.500			
0.6563	42005.10	3.7040	3.7040	2.3719	26.19	0.23	1.500			
0.6635	42464.84	3.7010	3.7010	2.2399	26.17	0.21	1.500			
0.6701	42887.71	3.6980	3.6980	2.0808	26.15	0.19	1.500			
0.6760	43263.70	3.6950	3.6949	1.9220	26.14	0.18	1.500			
0.6814	43606.91	3.6920	3.6920	1.7654	26.13	0.17	1.500			
0.6865	43937.99	3.6890	3.6890	1.6653	26.12	0.16	1.500			
0.6913	44244.42	3.6860	3.6859	1.5796	26.11	0.15	1.500			
0.6959	44537.69	3.6830	3.6831	1.5040	26.10	0.14	1.500			
0.7003	44817.71	3.6800	3.6799	1.4379	26.09	0.13	1.500			
0.7045	45084.83	3.6770	3.6771	1.3845	26.08	0.12	1.500			
0.7085	45344.06	3.6740	3.6740	1.3401	26.08	0.12	1.500			
0.7124	45595.35	3.6710	3.6710	1.3012	26.07	0.11	1.500			
0.7162	45838.83	3.6680	3.6681	1.2858	26.06	0.10	1.500			
0.7200	46079.31	3.6650	3.6650	1.2716	26.05	0.09	1.500			
0.7238	46320.32	3.6620	3.6620	1.2732	26.04	0.08	1.500			
0.7275	46562.61	3.6590	3.6590	1.2736	26.04	0.08	1.500			
0.7314	46808.60	3.6560	3.6560	1.2793	26.03	0.07	1.500			
0.7353	47057.14	3.6530	3.6530	1.2861	26.02	0.06	1.500			
0.7392	47306.88	3.6500	3.6500	1.2830	26.01	0.05	1.500			
0.7430	47552.80	3.6470	3.6470	1.2727	26.00	0.04	1.500			
0.7468	47796.38	3.6440	3.6440	1.2692	25.99	0.03	1.500			
0.7506	48039.26	3.6410	3.6409	1.2628	25.98	0.02	1.500			
0.7544	48280.03	3.6380	3.6380	1.2585	25.97	0.01	1.500			
0.7581	48520.75	3.6350	3.6350	1.2545	25.97	0.01	1.500			
0.7619	48763.67	3.6320	3.6320	1.2510	25.96	0.00	1.500			
0.7657	49004.58	3.6290	3.6289	1.2448	25.96	-0.00	1.500			
0.7694	49243.67	3.6260	3.6260	1.2362	25.95	-0.01	1.500			
0.7731	49479.32	3.6230	3.6231	1.2270	25.94	-0.02	1.500			
0.7768	49713.39	3.6200	3.6199	1.2191	25.94	-0.02	1.500			
0.7804	49947.53	3.6170	3.6170	1.2046	25.94	-0.02	1.500			
0.7840	50178.13	3.6140	3.6140	1.1901	25.93	-0.03	1.500			
0.7876	50406.24	3.6110	3.6110	1.1699	25.93	-0.03	1.500			
0.7911	50630.59	3.6080	3.6081	1.1545	25.93	-0.03	1.500			
0.7945	50850.25	3.6050	3.6049	1.1283	25.93	-0.03	1.500			
0.7979	51063.38	3.6020	3.6020	1.1035	25.92	-0.04	1.500			
0.8011	51272.51	3.5990	3.5990	1.0809	25.92	-0.04	1.500			
0.8044	51479.56	3.5960	3.5960	1.0597	25.93	-0.03	1.500			
0.8076	51683.56	3.5930	3.5929	1.0329	25.93	-0.03	1.500			
0.8106	51880.77	3.5900	3.5900	0.9978	25.94	-0.02	1.500			
0.8136	52073.12	3.5870	3.5870	0.9443	25.94	-0.02	1.500			
0.8165	52254.50	3.5840	3.5840	0.8804	25.94	-0.02	1.500			
0.8191	52421.99	3.5810	3.5810	0.7960	25.95	-0.01	1.500			
0.8214	52567.18	3.5780	3.5781	0.6989	25.95	-0.01	1.500			
0.8233	52693.10	3.5750	3.5751	0.5999	25.96	-0.00	1.500			
0.8249	52794.28	3.5720	3.5720	0.5070	25.96	-0.00	1.500			
0.8262	52877.40	3.5690	3.5690	0.4198	25.96	0.00	1.500			
0.8273	52947.82	3.5660	3.5659	0.3569	25.96	0.00	1.500			
0.8282	53006.30	3.5630	3.5629	0.3063	25.96	0.00	1.500			
0.8290	53058.91	3.5600	3.5600	0.2701	25.96	0.00	1.500			
0.8298	53106.22	3.5570	3.5570	0.2412	25.97	0.01	1.500			
0.8304	53148.19	3.5540	3.5539	0.2136	25.97	0.01	1.500			
0.8310	53185.87	3.5510	3.5508	0.1939	25.97	0.01	1.500			
0.8316	53219.95	3.5480	3.5481	0.1758	25.97	0.01	1.500			
0.8321	53252.02	3.5450	3.5450	0.1600	25.97	0.01	1.500			
0.8325	53281.18	3.5420	3.5419	0.1458	25.97	0.01	1.500			
0.8329	53307.53	3.5390	3.5391	0.1312	25.97	0.01	1.500			
0.8333	53331.28	3.5360	3.5361	0.1164	25.97	0.01	1.500			
0.8336	53352.62	3.5330	3.5329	0.1032	25.97	0.01	1.500			
0.8339	53371.04	3.5300	3.5301	0.0887	25.97	0.01	1.500			
0.8342	53386.54	3.5270	3.5271	0.0741	25.97	0.01	1.500			
0.8344	53399.59	3.5240	3.5244	0.0595	25.97	0.01	1.500			
0.8345	53409.60	3.5210	3.5216	0.0447	25.97	0.01	1.500			
0.8346	53416.74	3.5180	3.5191	0.0298	25.97	0.01	1.500			
