Ah_balance (normalized)	Ah_balance (mAh)	Voltage - fit (V)	Voltage -  interpolate (V)	dQ/dV (1/V)	Temperature (°C)	Temperature - diff (°C)	Current (C)	R_DC 0ms (mOhm)	R_DC 50ms (mOhm)	R_DC 50 ms PEC (mOhm)
0.2767	17707.22	3.9880	3.9881	0.8548	27.30	1.34	1.500			
0.2792	17870.15	3.9850	3.9850	0.8467	27.30	1.34	1.500			
0.2818	18032.36	3.9820	3.9820	0.8430	27.29	1.33	1.500			
0.2843	18193.11	3.9790	3.9789	0.8419	27.29	1.33	1.500			
0.2868	18352.59	3.9760	3.9760	0.8468	27.28	1.32	1.500			
0.2893	18515.79	3.9730	3.9731	0.8500	27.27	1.31	1.500			
0.2919	18680.06	3.9700	3.9699	0.8559	27.27	1.31	1.500			
0.2944	18844.28	3.9670	3.9671	0.8600	27.26	1.30	1.500			
0.2970	19010.03	3.9640	3.9641	0.8636	27.26	1.30	1.500			
0.2996	19175.77	3.9610	3.9610	0.8690	27.25	1.29	1.500			
0.3022	19342.70	3.9580	3.9580	0.8723	27.24	1.28	1.500			
0.3049	19510.69	3.9550	3.9550	0.8759	27.24	1.28	1.500			
0.3075	19681.58	3.9520	3.9520	0.8800	27.23	1.27	1.500			
0.3102	19849.76	3.9490	3.9490	0.8824	27.22	1.26	1.500			
0.3128	20019.19	3.9460	3.9461	0.8870	27.22	1.26	1.500			
0.3155	20190.46	3.9430	3.9429	0.8896	27.21	1.25	1.500			
0.3181	20359.87	3.9400	3.9400	0.8916	27.20	1.24	1.500			
0.3208	20531.23	3.9370	3.9371	0.9015	27.20	1.24	1.500			
0.3235	20706.50	3.9340	3.9340	0.9058	27.19	1.23	1.500			
0.3263	20880.09	3.9310	3.9309	0.9145	27.18	1.22	1.500			
0.3290	21055.21	3.9280	3.9281	0.9165	27.17	1.21	1.500			
0.3318	21232.94	3.9250	3.9249	0.9194	27.17	1.21	1.500			
0.3345	21410.46	3.9220	3.9220	0.9290	27.16	1.20	1.500			
0.3373	21589.13	3.9190	3.9190	0.9325	27.15	1.19	1.500			
0.3401	21767.67	3.9160	3.9159	0.9367	27.14	1.18	1.500			
0.3430	21948.95	3.9130	3.9130	0.9456	27.13	1.17	1.500			
0.3458	22129.38	3.9100	3.9101	0.9480	27.13	1.17	1.500			
0.3486	22313.10	3.9070	3.9069	0.9600	27.12	1.16	1.500			
0.3515	22498.43	3.9040	3.9040	0.9705	27.11	1.15	1.500			
0.3544	22684.04	3.9010	3.9010	0.9726	27.10	1.14	1.500			
0.3574	22872.27	3.8980	3.8980	0.9845	27.09	1.13	1.500			
0.3604	23063.46	3.8950	3.8950	0.9898	27.09	1.13	1.500			
0.3633	23253.85	3.8920	3.8920	0.9967	27.08	1.12	1.500			
0.3663	23445.04	3.8890	3.8891	1.0051	27.07	1.11	1.500			
0.3693	23637.64	3.8860	3.8860	1.0137	27.06	1.10	1.500			
0.3724	23833.02	3.8830	3.8830	1.0234	27.05	1.09	1.500			
0.3755	24031.73	3.8800	3.8800	1.0356	27.04	1.08	1.500			
0.3786	24232.00	3.8770	3.8770	1.0435	27.03	1.07	1.500			
0.3818	24433.86	3.8740	3.8740	1.0554	27.02	1.06	1.500			
0.3849	24636.47	3.8710	3.8710	1.0652	27.01	1.05	1.500			
0.3881	24841.34	3.8680	3.8680	1.0781	27.00	1.04	1.500			
0.3914	25047.66	3.8650	3.8649	1.0924	26.99	1.03	1.500			
0.3947	25259.51	3.8620	3.8620	1.1086	26.98	1.02	1.500			
0.3980	25474.06	3.8590	3.8590	1.1264	26.97	1.01	1.500			
0.4014	25691.78	3.8560	3.8560	1.1444	26.97	1.01	1.500			
0.4049	25914.19	3.8530	3.8530	1.1551	26.96	1.00	1.500			
0.4084	26137.47	3.8500	3.8500	1.1698	26.95	0.99	1.500			
0.4119	26362.72	3.8470	3.8471	1.1838	26.94	0.98	1.500			
0.4155	26591.09	3.8440	3.8440	1.2003	26.93	0.97	1.500			
0.4191	26823.32	3.8410	3.8410	1.2195	26.92	0.96	1.500			
0.4228	27057.97	3.8380	3.8380	1.2393	26.91	0.95	1.500			
0.4265	27298.64	3.8350	3.8350	1.2571	26.89	0.93	1.500			
0.4303	27542.12	3.8320	3.8320	1.2813	26.88	0.92	1.500			
0.4342	27789.64	3.8290	3.8290	1.2994	26.86	0.90	1.500			
0.4381	28040.92	3.8260	3.8261	1.3223	26.85	0.89	1.500			
0.4421	28295.69	3.8230	3.8229	1.3444	26.84	0.88	1.500			
0.4462	28555.21	3.8200	3.8201	1.3722	26.82	0.86	1.500			
0.4503	28822.03	3.8170	3.8170	1.3907	26.81	0.85	1.500			
0.4546	29092.30	3.8140	3.8139	1.4175	26.79	0.83	1.500			
0.4588	29366.39	3.8110	3.8111	1.4430	26.78	0.82	1.500			
0.4632	29646.46	3.8080	3.8079	1.4686	26.76	0.80	1.500			
0.4677	29929.99	3.8050	3.8050	1.4919	26.74	0.78	1.500			
0.4722	30218.11	3.8020	3.8020	1.5190	26.73	0.77	1.500			
0.4768	30514.91	3.7990	3.7990	1.5284	26.72	0.76	1.500			
0.4814	30810.11	3.7960	3.7960	1.5605	26.70	0.74	1.500			
0.4861	31112.57	3.7930	3.7930	1.5868	26.69	0.73	1.500			
0.4909	31417.07	3.7900	3.7897	1.6110	26.67	0.71	1.500			
0.4958	31729.01	3.7870	3.7871	1.6443	26.65	0.69	1.500			
0.5008	32050.61	3.7840	3.7839	1.6665	26.63	0.67	1.500			
0.5059	32376.57	3.7810	3.7811	1.7006	26.61	0.65	1.500	0.347	0.471	
0.5110	32700.95	3.7780	3.7781	1.7121	26.59	0.63	1.500			
0.5162	33036.94	3.7750	3.7748	1.7255	26.57	0.61	1.500			
0.5213	33363.96	3.7720	3.7721	1.7177	26.56	0.60	1.500			
0.5265	33698.85	3.7690	3.7690	1.7302	26.54	0.58	1.500			
0.5317	34030.79	3.7660	3.7660	1.7298	26.53	0.57	1.500			
0.5369	34359.81	3.7630	3.7630	1.7278	26.51	0.55	1.500			
0.5421	34692.54	3.7600	3.7601	1.7346	26.50	0.54	1.500			
0.5473	35025.17	3.7570	3.7570	1.7494	26.48	0.52	1.500			
0.5526	35363.84	3.7540	3.7540	1.7559	26.46	0.50	1.500			
0.5578	35700.49	3.7510	3.7510	1.7721	26.45	0.49	1.500			
0.5631	36041.03	3.7480	3.7481	1.8012	26.43	0.47	1.500			
0.5686	36389.31	3.7450	3.7450	1.8307	26.41	0.45	1.500			
0.5741	36743.25	3.7420	3.7420	1.8686	26.40	0.44	1.500			
0.5798	37106.57	3.7390	3.7390	1.8983	26.39	0.43	1.500			
0.5855	37471.25	3.7360	3.7360	1.9251	26.37	0.41	1.500			
0.5913	37843.07	3.7330	3.7331	1.9845	26.36	0.40	1.500			
0.5973	38230.33	3.7300	3.7300	2.0316	26.34	0.38	1.500			
0.6035	38624.71	3.7270	3.7271	2.0919	26.33	0.37	1.500			
0.6099	39035.95	3.7240	3.7240	2.1539	26.31	0.35	1.500			
0.6165	39453.72	3.7210	3.7209	2.2008	26.29	0.33	1.500			
0.6231	39879.39	3.7180	3.7181	2.2641	26.28	0.32	1.500			
0.6300	40320.05	3.7150	3.7150	2.3117	26.26	0.30	1.500			
0.6369	40763.50	3.7120	3.7121	2.3435	26.25	0.29	1.500			
0.6441	41225.58	3.7090	3.7090	2.3619	26.23	0.27	1.500			
0.6513	41683.79	3.7060	3.7060	2.2620	26.22	0.26	1.500			
0.6581	42116.24	3.7030	3.7030	2.1751	26.20	0.24	1.500			
0.6644	42522.03	3.7000	3.6999	2.0445	26.18	0.22	1.500			
0.6703	42899.43	3.6970	3.6971	1.9083	26.17	0.21	1.500			
0.6759	43254.97	3.6940	3.6941	1.8054	26.16	0.20	1.500			
0.6811	43590.13	3.6910	3.6910	1.6891	26.16	0.20	1.500			
0.6860	43904.26	3.6880	3.6880	1.5945	26.15	0.19	1.500			
0.6906	44199.11	3.6850	3.6850	1.5147	26.14	0.18	1.500			
0.6950	44482.40	3.6820	3.6820	1.4449	26.13	0.17	1.500			
0.6992	44749.49	3.6790	3.6789	1.3870	26.12	0.16	1.500			
0.7032	45005.16	3.6760	3.6760	1.3276	26.11	0.15	1.500			
0.7071	45252.54	3.6730	3.6731	1.2996	26.10	0.14	1.500			
0.7109	45497.28	3.6700	3.6700	1.2882	26.09	0.13	1.500			
0.7147	45740.28	3.6670	3.6670	1.2747	26.08	0.12	1.500			
0.7185	45982.56	3.6640	3.6640	1.2752	26.08	0.12	1.500			
0.7223	46227.55	3.6610	3.6611	1.2772	26.07	0.11	1.500			
0.7262	46474.69	3.6580	3.6580	1.2789	26.06	0.10	1.500			
0.7300	46722.55	3.6550	3.6549	1.2806	26.05	0.09	1.500			
0.7339	46966.60	3.6520	3.6521	1.2765	26.04	0.08	1.500			
0.7377	47211.32	3.6490	3.6491	1.2699	26.04	0.08	1.500			
0.7415	47456.47	3.6460	3.6460	1.2641	26.03	0.07	1.500			
0.7453	47698.35	3.6430	3.6430	1.2511	26.02	0.06	1.500			
0.7490	47936.81	3.6400	3.6401	1.2453	26.01	0.05	1.500			
0.7527	48174.82	3.6370	3.6370	1.2343	26.01	0.05	1.500			
0.7564	48410.91	3.6340	3.6340	1.2277	26.00	0.04	1.500			
0.7601	48645.33	3.6310	3.6310	1.2205	25.99	0.03	1.500			
0.7638	48880.34	3.6280	3.6280	1.2153	25.98	0.02	1.500			
0.7674	49113.49	3.6250	3.6250	1.2072	25.98	0.02	1.500			
0.7710	49346.40	3.6220	3.6220	1.1934	25.97	0.01	1.500			
0.7746	49573.32	3.6190	3.6190	1.1745	25.97	0.01	1.500			
0.7781	49799.47	3.6160	3.6160	1.1580	25.96	0.00	1.500			
0.7815	50018.84	3.6130	3.6130	1.1337	25.96	-0.00	1.500			
0.7849	50234.00	3.6100	3.6100	1.1107	25.95	-0.01	1.500			
0.7882	50444.46	3.6070	3.6071	1.0901	25.94	-0.02	1.500			
0.7914	50652.19	3.6040	3.6040	1.0671	25.94	-0.02	1.500			
0.7946	50855.49	3.6010	3.6010	1.0465	25.94	-0.02	1.500			
0.7977	51054.72	3.5980	3.5980	1.0184	25.95	-0.01	1.500			
0.8008	51249.48	3.5950	3.5950	0.9860	25.95	-0.01	1.500			
0.8037	51438.56	3.5920	3.5920	0.9448	25.95	-0.01	1.500			
0.8066	51621.05	3.5890	3.5890	0.8860	25.95	-0.01	1.500			
0.8092	51787.98	3.5860	3.5860	0.8118	25.95	-0.01	1.500			
0.8116	51941.36	3.5830	3.5831	0.7306	25.96	-0.00	1.500			
0.8136	52072.88	3.5800	3.5800	0.6361	25.96	-0.00	1.500			
0.8154	52183.80	3.5770	3.5770	0.5498	25.96	-0.00	1.500			
0.8168	52276.03	3.5740	3.5741	0.4693	25.96	0.00	1.500			
0.8181	52355.38	3.5710	3.5709	0.3923	25.96	0.00	1.500			
0.8191	52422.07	3.5680	3.5679	0.3389	25.96	0.00	1.500			
0.8200	52477.63	3.5650	3.5650	0.2925	25.96	0.00	1.500			
0.8207	52526.90	3.5620	3.5620	0.2569	25.96	0.00	1.500			
0.8214	52571.71	3.5590	3.5589	0.2261	25.96	0.00	1.500			
0.8221	52611.49	3.5560	3.5560	0.2034	25.96	0.00	1.500			
0.8226	52647.23	3.5530	3.5530	0.1832	25.97	0.01	1.500			
0.8231	52679.83	3.5500	3.5499	0.1638	25.97	0.01	1.500			
0.8236	52709.38	3.5470	3.5470	0.1495	25.97	0.01	1.500			
0.8240	52736.13	3.5440	3.5441	0.1342	25.97	0.01	1.500			
0.8244	52760.53	3.5410	3.5409	0.1194	25.97	0.01	1.500			
0.8247	52782.22	3.5380	3.5379	0.1055	25.97	0.01	1.500			
0.8250	52801.10	3.5350	3.5352	0.0912	25.97	0.01	1.500			
0.8253	52817.33	3.5320	3.5322	0.0768	25.97	0.01	1.500			
0.8255	52831.52	3.5290	3.5290	0.0617	25.97	0.01	1.500			
0.8257	52841.79	3.5260	3.5263	0.0453	25.97	0.01	1.500			
0.8258	52848.92	3.5230	3.5239	0.0290	25.97	0.01	1.500			
