Ah_balance (normalized)	Ah_balance (mAh)	Voltage - fit (V)	Voltage -  interpolate (V)	dQ/dV (1/V)	Temperature (°C)	Temperature - diff (°C)	Current (C)	R_DC 0ms (mOhm)	R_DC 50ms (mOhm)	R_DC 50 ms PEC (mOhm)
0.2855	18274.83	3.9870	3.9870	0.8519	27.14	1.17	1.500			
0.2881	18438.27	3.9840	3.9840	0.8509	27.14	1.17	1.500			
0.2907	18602.20	3.9810	3.9810	0.8479	27.13	1.16	1.500			
0.2932	18763.79	3.9780	3.9780	0.8476	27.13	1.16	1.500			
0.2957	18925.49	3.9750	3.9751	0.8534	27.13	1.16	1.500			
0.2983	19089.06	3.9720	3.9719	0.8535	27.12	1.15	1.500			
0.3008	19253.88	3.9690	3.9690	0.8565	27.12	1.15	1.500			
0.3034	19418.23	3.9660	3.9661	0.8614	27.11	1.14	1.500			
0.3060	19583.50	3.9630	3.9630	0.8669	27.11	1.14	1.500			
0.3086	19751.18	3.9600	3.9599	0.8725	27.11	1.14	1.500			
0.3112	19918.62	3.9570	3.9570	0.8722	27.10	1.13	1.500			
0.3138	20085.64	3.9540	3.9539	0.8784	27.10	1.13	1.500			
0.3165	20256.59	3.9510	3.9511	0.8833	27.09	1.12	1.500			
0.3191	20425.39	3.9480	3.9479	0.8878	27.09	1.12	1.500			
0.3218	20595.60	3.9450	3.9450	0.8887	27.08	1.11	1.500			
0.3245	20767.47	3.9420	3.9419	0.8898	27.08	1.11	1.500			
0.3272	20938.44	3.9390	3.9390	0.8935	27.07	1.10	1.500			
0.3298	21109.95	3.9360	3.9361	0.9003	27.07	1.10	1.500			
0.3325	21281.44	3.9330	3.9330	0.9050	27.06	1.09	1.500			
0.3353	21457.19	3.9300	3.9299	0.9081	27.05	1.08	1.500			
0.3380	21632.08	3.9270	3.9270	0.9138	27.05	1.08	1.500			
0.3408	21808.35	3.9240	3.9241	0.9230	27.04	1.07	1.500			
0.3435	21986.15	3.9210	3.9211	0.9288	27.03	1.06	1.500			
0.3463	22164.99	3.9180	3.9179	0.9302	27.03	1.06	1.500			
0.3491	22343.95	3.9150	3.9150	0.9317	27.02	1.05	1.500			
0.3519	22522.11	3.9120	3.9121	0.9409	27.02	1.05	1.500			
0.3547	22703.13	3.9090	3.9091	0.9540	27.01	1.04	1.500			
0.3576	22887.83	3.9060	3.9059	0.9565	27.00	1.03	1.500			
0.3605	23072.58	3.9030	3.9030	0.9608	27.00	1.03	1.500			
0.3634	23257.86	3.9000	3.9001	0.9696	26.99	1.02	1.500			
0.3663	23445.52	3.8970	3.8970	0.9757	26.99	1.02	1.500			
0.3693	23633.72	3.8940	3.8939	0.9805	26.98	1.01	1.500			
0.3722	23819.73	3.8910	3.8911	0.9876	26.97	1.00	1.500			
0.3751	24009.04	3.8880	3.8881	0.9964	26.97	1.00	1.500			
0.3782	24202.93	3.8850	3.8850	1.0129	26.96	0.99	1.500			
0.3812	24398.92	3.8820	3.8820	1.0209	26.95	0.98	1.500			
0.3843	24594.97	3.8790	3.8791	1.0304	26.94	0.97	1.500			
0.3874	24795.99	3.8760	3.8760	1.0401	26.93	0.96	1.500			
0.3906	24996.06	3.8730	3.8729	1.0484	26.93	0.96	1.500			
0.3937	25196.07	3.8700	3.8700	1.0571	26.92	0.95	1.500			
0.3969	25400.56	3.8670	3.8670	1.0714	26.91	0.94	1.500			
0.4001	25606.35	3.8640	3.8640	1.0884	26.90	0.93	1.500			
0.4034	25817.32	3.8610	3.8610	1.1087	26.89	0.92	1.500			
0.4067	26030.83	3.8580	3.8580	1.1264	26.89	0.92	1.500			
0.4102	26250.78	3.8550	3.8550	1.1431	26.88	0.91	1.500			
0.4136	26472.45	3.8520	3.8520	1.1533	26.88	0.91	1.500			
0.4171	26695.01	3.8490	3.8490	1.1667	26.87	0.90	1.500			
0.4206	26918.67	3.8460	3.8461	1.1885	26.87	0.90	1.500			
0.4242	27147.35	3.8430	3.8428	1.2076	26.86	0.89	1.500			
0.4278	27380.06	3.8400	3.8400	1.2272	26.85	0.88	1.500			
0.4315	27618.91	3.8370	3.8370	1.2481	26.84	0.87	1.500			
0.4354	27864.76	3.8340	3.8340	1.2698	26.83	0.86	1.500			
0.4392	28107.72	3.8310	3.8310	1.2871	26.82	0.85	1.500			
0.4431	28355.89	3.8280	3.8280	1.3102	26.81	0.84	1.500			
0.4470	28607.31	3.8250	3.8251	1.3380	26.80	0.83	1.500			
0.4510	28866.21	3.8220	3.8220	1.3659	26.79	0.82	1.500			
0.4552	29131.57	3.8190	3.8190	1.3948	26.77	0.80	1.500			
0.4594	29404.67	3.8160	3.8160	1.4200	26.76	0.79	1.500			
0.4637	29678.18	3.8130	3.8131	1.4514	26.75	0.78	1.500			
0.4681	29959.16	3.8100	3.8100	1.4756	26.74	0.77	1.500			
0.4726	30243.22	3.8070	3.8070	1.5200	26.73	0.76	1.500			
0.4772	30538.74	3.8040	3.8040	1.5552	26.71	0.74	1.500			
0.4820	30845.32	3.8010	3.8009	1.5838	26.70	0.73	1.500			
0.4867	31151.60	3.7980	3.7982	1.6093	26.68	0.71	1.500			
0.4916	31459.97	3.7950	3.7951	1.6384	26.67	0.70	1.500			
0.4965	31775.97	3.7920	3.7920	1.6681	26.65	0.68	1.500			
0.5016	32099.93	3.7890	3.7890	1.6981	26.64	0.67	1.500			
0.5067	32430.90	3.7860	3.7861	1.7153	26.62	0.65	1.500			
0.5120	32769.20	3.7830	3.7830	1.7390	26.61	0.64	1.500			
0.5172	33098.91	3.7800	3.7800	1.7834	26.60	0.63	1.500			
0.5226	33444.17	3.7770	3.7769	1.8041	26.58	0.61	1.500			
0.5280	33794.26	3.7740	3.7742	1.8126	26.57	0.60	1.500	0.360	0.469	
0.5336	34149.13	3.7710	3.7711	1.8274	26.55	0.58	1.500			
0.5391	34502.73	3.7680	3.7679	1.8194	26.53	0.56	1.500			
0.5445	34845.27	3.7650	3.7650	1.7931	26.52	0.55	1.500			
0.5499	35190.70	3.7620	3.7620	1.7975	26.50	0.53	1.500			
0.5553	35536.83	3.7590	3.7590	1.8050	26.49	0.52	1.500			
0.5607	35884.46	3.7560	3.7561	1.7935	26.47	0.50	1.500			
0.5660	36225.33	3.7530	3.7530	1.7950	26.46	0.49	1.500			
0.5714	36569.41	3.7500	3.7501	1.8032	26.45	0.48	1.500			
0.5768	36913.84	3.7470	3.7470	1.8124	26.43	0.46	1.500			
0.5822	37263.80	3.7440	3.7440	1.8436	26.42	0.45	1.500			
0.5878	37618.37	3.7410	3.7410	1.8707	26.40	0.43	1.500			
0.5934	37979.32	3.7380	3.7380	1.9056	26.38	0.41	1.500			
0.5992	38348.21	3.7350	3.7349	1.9552	26.36	0.39	1.500			
0.6051	38729.50	3.7320	3.7320	2.0025	26.35	0.38	1.500			
0.6113	39120.47	3.7290	3.7290	2.0419	26.34	0.37	1.500			
0.6175	39516.99	3.7260	3.7260	2.0679	26.32	0.35	1.500			
0.6237	39915.58	3.7230	3.7230	2.1408	26.31	0.34	1.500			
0.6302	40333.82	3.7200	3.7199	2.1983	26.30	0.33	1.500			
0.6369	40761.23	3.7170	3.7171	2.2690	26.29	0.32	1.500			
0.6438	41203.35	3.7140	3.7140	2.3319	26.27	0.30	1.500			
0.6509	41657.63	3.7110	3.7110	2.4131	26.26	0.29	1.500			
0.6584	42134.91	3.7080	3.7080	2.4573	26.24	0.27	1.500			
0.6658	42608.36	3.7050	3.7051	2.4670	26.22	0.25	1.500			
0.6732	43085.26	3.7020	3.7019	2.4417	26.20	0.23	1.500			
0.6806	43555.20	3.6990	3.6990	2.3406	26.19	0.22	1.500			
0.6874	43996.75	3.6960	3.6960	2.2177	26.17	0.20	1.500			
0.6939	44408.93	3.6930	3.6930	2.0448	26.16	0.19	1.500			
0.6998	44785.36	3.6900	3.6899	1.8830	26.15	0.18	1.500			
0.7051	45123.26	3.6870	3.6871	1.7294	26.14	0.17	1.500			
0.7100	45441.97	3.6840	3.6840	1.6221	26.13	0.16	1.500			
0.7147	45738.81	3.6810	3.6809	1.5325	26.12	0.15	1.500			
0.7190	46017.36	3.6780	3.6780	1.4466	26.11	0.14	1.500			
0.7232	46287.92	3.6750	3.6750	1.3902	26.10	0.13	1.500			
0.7273	46547.59	3.6720	3.6720	1.3415	26.10	0.13	1.500			
0.7312	46799.33	3.6690	3.6690	1.3036	26.09	0.12	1.500			
0.7350	47040.38	3.6660	3.6660	1.2745	26.08	0.11	1.500			
0.7387	47279.50	3.6630	3.6630	1.2658	26.08	0.11	1.500			
0.7425	47518.07	3.6600	3.6600	1.2617	26.07	0.10	1.500			
0.7463	47760.66	3.6570	3.6570	1.2728	26.07	0.10	1.500			
0.7501	48005.68	3.6540	3.6540	1.2830	26.06	0.09	1.500			
0.7540	48254.09	3.6510	3.6510	1.2969	26.05	0.08	1.500			
0.7579	48506.71	3.6480	3.6480	1.2953	26.04	0.07	1.500			
0.7618	48757.49	3.6450	3.6450	1.2874	26.03	0.06	1.500			
0.7657	49003.58	3.6420	3.6421	1.2851	26.02	0.05	1.500			
0.7695	49249.14	3.6390	3.6390	1.2808	26.01	0.04	1.500			
0.7733	49494.12	3.6360	3.6359	1.2763	26.00	0.03	1.500			
0.7771	49737.52	3.6330	3.6330	1.2727	26.00	0.03	1.500			
0.7810	49982.53	3.6300	3.6301	1.2720	25.99	0.02	1.500			
0.7848	50228.80	3.6270	3.6270	1.2719	25.99	0.02	1.500			
0.7886	50473.21	3.6240	3.6240	1.2684	25.98	0.01	1.500			
0.7924	50714.92	3.6210	3.6211	1.2571	25.98	0.01	1.500			
0.7962	50955.94	3.6180	3.6180	1.2538	25.97	0.00	1.500			
0.8000	51197.96	3.6150	3.6150	1.2432	25.97	-0.00	1.500			
0.8037	51436.50	3.6120	3.6120	1.2266	25.96	-0.01	1.500			
0.8074	51671.51	3.6090	3.6090	1.2128	25.96	-0.01	1.500			
0.8110	51902.97	3.6060	3.6061	1.1933	25.96	-0.01	1.500			
0.8145	52130.28	3.6030	3.6029	1.1749	25.95	-0.02	1.500			
0.8180	52353.61	3.6000	3.5999	1.1554	25.95	-0.02	1.500			
0.8214	52572.34	3.5970	3.5971	1.1369	25.94	-0.03	1.500			
0.8248	52790.23	3.5940	3.5940	1.1237	25.94	-0.03	1.500			
0.8282	53004.11	3.5910	3.5910	1.1024	25.94	-0.03	1.500			
0.8315	53215.10	3.5880	3.5880	1.0741	25.95	-0.02	1.500			
0.8347	53422.78	3.5850	3.5850	1.0314	25.95	-0.02	1.500			
0.8378	53621.07	3.5820	3.5820	0.9735	25.96	-0.01	1.500			
0.8408	53811.34	3.5790	3.5790	0.8890	25.96	-0.01	1.500			
0.8434	53976.09	3.5760	3.5761	0.7878	25.96	-0.01	1.500			
0.8456	54119.95	3.5730	3.5731	0.6815	25.97	-0.00	1.500			
0.8474	54235.81	3.5700	3.5700	0.5804	25.97	-0.00	1.500			
0.8489	54330.61	3.5670	3.5670	0.4854	25.97	-0.00	1.500			
0.8502	54412.44	3.5640	3.5639	0.4000	25.97	0.00	1.500			
0.8512	54477.56	3.5610	3.5609	0.3384	25.97	0.00	1.500			
0.8521	54534.46	3.5580	3.5579	0.2940	25.97	0.00	1.500			
0.8528	54581.26	3.5550	3.5550	0.2541	25.97	0.00	1.500			
0.8535	54625.33	3.5520	3.5520	0.2235	25.97	0.00	1.500			
0.8541	54664.42	3.5490	3.5490	0.2022	25.98	0.01	1.500			
0.8547	54700.46	3.5460	3.5461	0.1831	25.98	0.01	1.500			
0.8552	54733.51	3.5430	3.5430	0.1655	25.98	0.01	1.500			
0.8557	54763.57	3.5400	3.5399	0.1509	25.98	0.01	1.500			
0.8561	54790.88	3.5370	3.5371	0.1357	25.98	0.01	1.500			
0.8565	54815.33	3.5340	3.5341	0.1213	25.98	0.01	1.500			
0.8568	54837.28	3.5310	3.5309	0.1072	25.98	0.01	1.500			
0.8571	54856.51	3.5280	3.5280	0.0931	25.98	0.01	1.500			
0.8574	54872.64	3.5250	3.5252	0.0789	25.98	0.01	1.500			
0.8576	54887.13	3.5220	3.5223	0.0651	25.98	0.01	1.500			
0.8578	54898.20	3.5190	3.5195	0.0502	25.98	0.01	1.500			
0.8579	54906.42	3.5160	3.5170	0.0354	25.98	0.01	1.500			
