Ah_balance (normalized)	Ah_balance (mAh)	Voltage - fit (V)	Voltage -  interpolate (V)	dQ/dV (1/V)	Temperature (°C)	Temperature - diff (°C)	Current (C)	R_DC 0ms (mOhm)	R_DC 50ms (mOhm)	R_DC 50 ms PEC (mOhm)
0.2687	17198.76	3.9910	3.9910	0.8195	27.44	1.48	1.500			
0.2712	17359.20	3.9880	3.9879	0.8377	27.43	1.47	1.500			
0.2738	17521.93	3.9850	3.9850	0.8425	27.43	1.47	1.500			
0.2763	17683.83	3.9820	3.9821	0.8449	27.42	1.46	1.500			
0.2789	17846.43	3.9790	3.9790	0.8495	27.41	1.45	1.500			
0.2814	18009.29	3.9760	3.9760	0.8505	27.41	1.45	1.500			
0.2839	18171.58	3.9730	3.9730	0.8582	27.40	1.44	1.500			
0.2865	18337.21	3.9700	3.9699	0.8607	27.39	1.43	1.500			
0.2891	18504.12	3.9670	3.9670	0.8663	27.39	1.43	1.500			
0.2917	18670.74	3.9640	3.9640	0.8707	27.38	1.42	1.500			
0.2944	18838.66	3.9610	3.9611	0.8727	27.38	1.42	1.500			
0.2970	19006.04	3.9580	3.9580	0.8772	27.37	1.41	1.500			
0.2996	19173.82	3.9550	3.9550	0.8810	27.36	1.40	1.500			
0.3023	19344.21	3.9520	3.9521	0.8822	27.35	1.39	1.500			
0.3049	19515.66	3.9490	3.9489	0.8880	27.35	1.39	1.500			
0.3076	19684.77	3.9460	3.9460	0.8872	27.34	1.38	1.500			
0.3102	19856.00	3.9430	3.9431	0.8883	27.33	1.37	1.500			
0.3129	20025.68	3.9400	3.9399	0.8927	27.33	1.37	1.500			
0.3156	20195.72	3.9370	3.9370	0.8985	27.32	1.36	1.500			
0.3182	20367.94	3.9340	3.9341	0.9061	27.31	1.35	1.500			
0.3210	20544.09	3.9310	3.9309	0.9152	27.30	1.34	1.500			
0.3238	20721.69	3.9280	3.9281	0.9229	27.29	1.33	1.500			
0.3266	20900.16	3.9250	3.9250	0.9286	27.29	1.33	1.500			
0.3294	21079.45	3.9220	3.9220	0.9364	27.28	1.32	1.500			
0.3322	21258.21	3.9190	3.9190	0.9350	27.27	1.31	1.500			
0.3350	21438.28	3.9160	3.9160	0.9399	27.26	1.30	1.500			
0.3378	21619.74	3.9130	3.9130	0.9424	27.26	1.30	1.500			
0.3406	21799.67	3.9100	3.9100	0.9513	27.25	1.29	1.500			
0.3435	21982.60	3.9070	3.9071	0.9583	27.24	1.28	1.500			
0.3464	22166.87	3.9040	3.9039	0.9666	27.23	1.27	1.500			
0.3493	22353.61	3.9010	3.9010	0.9723	27.22	1.26	1.500			
0.3522	22541.95	3.8980	3.8981	0.9836	27.22	1.26	1.500			
0.3552	22731.13	3.8950	3.8950	0.9955	27.21	1.25	1.500			
0.3582	22923.58	3.8920	3.8920	1.0001	27.20	1.24	1.500			
0.3612	23117.13	3.8890	3.8889	1.0024	27.20	1.24	1.500			
0.3642	23310.24	3.8860	3.8860	1.0137	27.19	1.23	1.500			
0.3673	23504.65	3.8830	3.8831	1.0250	27.18	1.22	1.500			
0.3703	23702.36	3.8800	3.8799	1.0363	27.17	1.21	1.500			
0.3735	23901.06	3.8770	3.8770	1.0443	27.16	1.20	1.500			
0.3766	24101.26	3.8740	3.8741	1.0555	27.15	1.19	1.500			
0.3798	24306.67	3.8710	3.8710	1.0727	27.14	1.18	1.500			
0.3831	24515.57	3.8680	3.8679	1.0870	27.13	1.17	1.500			
0.3863	24724.39	3.8650	3.8650	1.0914	27.12	1.16	1.500			
0.3896	24933.19	3.8620	3.8620	1.1048	27.11	1.15	1.500			
0.3929	25146.79	3.8590	3.8591	1.1183	27.10	1.14	1.500			
0.3963	25362.52	3.8560	3.8559	1.1338	27.09	1.13	1.500			
0.3997	25580.76	3.8530	3.8529	1.1464	27.08	1.12	1.500			
0.4032	25803.17	3.8500	3.8501	1.1615	27.07	1.11	1.500			
0.4067	26027.75	3.8470	3.8470	1.1838	27.06	1.10	1.500			
0.4103	26257.32	3.8440	3.8440	1.1938	27.05	1.09	1.500			
0.4139	26487.46	3.8410	3.8410	1.2107	27.04	1.08	1.500			
0.4175	26721.42	3.8380	3.8379	1.2246	27.02	1.06	1.500			
0.4212	26956.79	3.8350	3.8349	1.2423	27.01	1.05	1.500			
0.4249	27196.06	3.8320	3.8320	1.2643	26.99	1.03	1.500			
0.4287	27439.91	3.8290	3.8291	1.2848	26.97	1.01	1.500			
0.4327	27690.81	3.8260	3.8259	1.2957	26.96	1.00	1.500			
0.4366	27943.19	3.8230	3.8230	1.3138	26.94	0.98	1.500			
0.4405	28195.05	3.8200	3.8201	1.3395	26.93	0.97	1.500			
0.4446	28451.57	3.8170	3.8172	1.3699	26.91	0.95	1.500			
0.4487	28715.45	3.8140	3.8140	1.4007	26.90	0.94	1.500			
0.4529	28987.03	3.8110	3.8110	1.4224	26.89	0.93	1.500			
0.4573	29268.43	3.8080	3.8081	1.4399	26.87	0.91	1.500			
0.4618	29553.37	3.8050	3.8050	1.4726	26.85	0.89	1.500			
0.4661	29832.79	3.8020	3.8020	1.4851	26.83	0.87	1.500			
0.4706	30118.13	3.7990	3.7989	1.5064	26.81	0.85	1.500			
0.4751	30408.66	3.7960	3.7961	1.5353	26.79	0.83	1.500			
0.4798	30707.70	3.7930	3.7930	1.5712	26.77	0.81	1.500			
0.4845	31011.19	3.7900	3.7900	1.6056	26.75	0.79	1.500			
0.4894	31321.94	3.7870	3.7870	1.6351	26.73	0.77	1.500	0.352	0.482	
0.4944	31641.56	3.7840	3.7841	1.6680	26.71	0.75	1.500			
0.4995	31966.71	3.7810	3.7811	1.6773	26.70	0.74	1.500			
0.5046	32294.81	3.7780	3.7780	1.6853	26.67	0.71	1.500			
0.5096	32615.83	3.7750	3.7750	1.6712	26.65	0.69	1.500			
0.5146	32933.22	3.7720	3.7720	1.6828	26.63	0.67	1.500			
0.5196	33256.76	3.7690	3.7690	1.6919	26.61	0.65	1.500			
0.5247	33583.42	3.7660	3.7660	1.7033	26.59	0.63	1.500			
0.5299	33910.63	3.7630	3.7631	1.7165	26.57	0.61	1.500			
0.5350	34241.24	3.7600	3.7600	1.7171	26.55	0.59	1.500			
0.5401	34569.45	3.7570	3.7570	1.7189	26.53	0.57	1.500			
0.5453	34899.35	3.7540	3.7540	1.7424	26.52	0.56	1.500			
0.5506	35235.91	3.7510	3.7510	1.7738	26.50	0.54	1.500			
0.5559	35578.62	3.7480	3.7480	1.7898	26.48	0.52	1.500			
0.5614	35927.60	3.7450	3.7450	1.8418	26.46	0.50	1.500			
0.5669	36281.91	3.7420	3.7420	1.8630	26.44	0.48	1.500			
0.5725	36641.36	3.7390	3.7390	1.9100	26.42	0.46	1.500			
0.5783	37010.34	3.7360	3.7360	1.9543	26.40	0.44	1.500			
0.5842	37389.46	3.7330	3.7330	1.9976	26.38	0.42	1.500			
0.5902	37774.06	3.7300	3.7301	2.0517	26.36	0.40	1.500			
0.5965	38178.26	3.7270	3.7268	2.1167	26.34	0.38	1.500			
0.6030	38591.03	3.7240	3.7240	2.1428	26.32	0.36	1.500			
0.6095	39009.59	3.7210	3.7210	2.1831	26.29	0.33	1.500			
0.6161	39428.49	3.7180	3.7180	2.1989	26.27	0.31	1.500			
0.6227	39852.51	3.7150	3.7149	2.2380	26.25	0.29	1.500			
0.6295	40285.28	3.7120	3.7120	2.2584	26.23	0.27	1.500			
0.6364	40731.43	3.7090	3.7090	2.2218	26.21	0.25	1.500			
0.6430	41150.32	3.7060	3.7060	2.1236	26.19	0.23	1.500			
0.6492	41546.96	3.7030	3.7031	1.9863	26.17	0.21	1.500			
0.6549	41912.35	3.7000	3.7000	1.8497	26.16	0.20	1.500			
0.6602	42252.08	3.6970	3.6970	1.7385	26.15	0.19	1.500			
0.6651	42569.30	3.6940	3.6940	1.6313	26.14	0.18	1.500			
0.6699	42873.89	3.6910	3.6909	1.5596	26.12	0.16	1.500			
0.6744	43161.98	3.6880	3.6881	1.4903	26.11	0.15	1.500			
0.6788	43442.04	3.6850	3.6850	1.4381	26.10	0.14	1.500			
0.6830	43713.31	3.6820	3.6820	1.3796	26.09	0.13	1.500			
0.6870	43968.22	3.6790	3.6790	1.3377	26.08	0.12	1.500			
0.6909	44218.43	3.6760	3.6760	1.3138	26.07	0.11	1.500			
0.6948	44465.16	3.6730	3.6731	1.2939	26.06	0.10	1.500			
0.6986	44711.75	3.6700	3.6699	1.2808	26.06	0.10	1.500			
0.7025	44956.88	3.6670	3.6671	1.2732	26.05	0.09	1.500			
0.7063	45202.33	3.6640	3.6640	1.2702	26.04	0.08	1.500			
0.7101	45446.12	3.6610	3.6610	1.2716	26.03	0.07	1.500			
0.7138	45686.29	3.6580	3.6580	1.2599	26.02	0.06	1.500			
0.7176	45926.86	3.6550	3.6550	1.2502	26.01	0.05	1.500			
0.7214	46168.02	3.6520	3.6519	1.2501	26.00	0.04	1.500			
0.7251	46409.44	3.6490	3.6491	1.2481	25.99	0.03	1.500			
0.7289	46647.93	3.6460	3.6460	1.2406	25.99	0.03	1.500			
0.7326	46886.82	3.6430	3.6429	1.2304	25.98	0.02	1.500			
0.7363	47121.44	3.6400	3.6401	1.2220	25.98	0.02	1.500			
0.7399	47354.62	3.6370	3.6370	1.2131	25.97	0.01	1.500			
0.7435	47587.03	3.6340	3.6340	1.2059	25.97	0.01	1.500			
0.7471	47817.06	3.6310	3.6309	1.1936	25.96	-0.00	1.500			
0.7507	48045.81	3.6280	3.6280	1.1817	25.96	-0.00	1.500			
0.7543	48272.97	3.6250	3.6250	1.1731	25.95	-0.01	1.500			
0.7578	48498.17	3.6220	3.6220	1.1608	25.95	-0.01	1.500			
0.7613	48720.20	3.6190	3.6189	1.1384	25.94	-0.02	1.500			
0.7647	48938.07	3.6160	3.6160	1.1181	25.94	-0.02	1.500			
0.7680	49150.52	3.6130	3.6130	1.0931	25.93	-0.03	1.500			
0.7712	49358.23	3.6100	3.6099	1.0684	25.93	-0.03	1.500			
0.7744	49561.27	3.6070	3.6070	1.0436	25.93	-0.03	1.500			
0.7775	49758.28	3.6040	3.6040	1.0143	25.94	-0.02	1.500			
0.7805	49952.62	3.6010	3.6010	0.9862	25.94	-0.02	1.500			
0.7835	50140.95	3.5980	3.5980	0.9529	25.94	-0.02	1.500			
0.7863	50324.50	3.5950	3.5950	0.9062	25.95	-0.01	1.500			
0.7890	50496.44	3.5920	3.5920	0.8471	25.95	-0.01	1.500			
0.7915	50657.55	3.5890	3.5890	0.7777	25.95	-0.01	1.500			
0.7938	50800.87	3.5860	3.5861	0.6947	25.96	-0.00	1.500			
0.7957	50926.47	3.5830	3.5830	0.6120	25.96	-0.00	1.500			
0.7974	51033.93	3.5800	3.5800	0.5277	25.96	0.00	1.500			
0.7988	51122.81	3.5770	3.5770	0.4525	25.96	0.00	1.500			
0.8000	51200.21	3.5740	3.5740	0.3915	25.96	0.00	1.500			
0.8011	51267.51	3.5710	3.5710	0.3336	25.97	0.01	1.500			
0.8020	51325.32	3.5680	3.5680	0.2931	25.97	0.01	1.500			
0.8027	51375.01	3.5650	3.5650	0.2585	25.97	0.01	1.500			
0.8034	51419.26	3.5620	3.5619	0.2308	25.97	0.01	1.500			
0.8041	51459.20	3.5590	3.5589	0.2056	25.97	0.01	1.500			
0.8046	51496.30	3.5560	3.5560	0.1878	25.97	0.01	1.500			
0.8052	51530.04	3.5530	3.5531	0.1716	25.97	0.01	1.500			
0.8056	51561.43	3.5500	3.5500	0.1564	25.97	0.01	1.500			
0.8061	51589.86	3.5470	3.5470	0.1428	25.97	0.01	1.500			
0.8065	51615.63	3.5440	3.5439	0.1286	25.97	0.01	1.500			
0.8069	51638.96	3.5410	3.5410	0.1144	25.97	0.01	1.500			
0.8072	51659.76	3.5380	3.5380	0.1012	25.97	0.01	1.500			
0.8075	51677.88	3.5350	3.5351	0.0875	25.97	0.01	1.500			
0.8077	51693.66	3.5320	3.5321	0.0738	25.97	0.01	1.500			
0.8079	51706.68	3.5290	3.5293	0.0595	25.97	0.01	1.500			
0.8081	51716.71	3.5260	3.5266	0.0449	25.97	0.01	1.500			
0.8082	51723.94	3.5230	3.5241	0.0303	25.97	0.01	1.500			
