Ah_balance (normalized)	Ah_balance (mAh)	Voltage - fit (V)	Voltage -  interpolate (V)	dQ/dV (1/V)	Temperature (°C)	Temperature - diff (°C)	Current (C)	R_DC 0ms (mOhm)	R_DC 50ms (mOhm)	R_DC 50 ms PEC (mOhm)
0.2855	18271.14	3.9750	3.9750	0.8734	27.09	1.15	1.500			
0.2881	18439.15	3.9720	3.9720	0.8760	27.09	1.15	1.500			
0.2907	18607.52	3.9690	3.9689	0.8756	27.08	1.14	1.500			
0.2934	18775.70	3.9660	3.9660	0.8741	27.08	1.14	1.500			
0.2960	18942.61	3.9630	3.9630	0.8772	27.08	1.14	1.500			
0.2986	19110.46	3.9600	3.9600	0.8787	27.08	1.14	1.500			
0.3012	19278.55	3.9570	3.9570	0.8859	27.07	1.13	1.500			
0.3039	19449.81	3.9540	3.9540	0.8921	27.07	1.13	1.500			
0.3066	19623.26	3.9510	3.9510	0.8966	27.07	1.13	1.500			
0.3093	19796.44	3.9480	3.9481	0.8998	27.06	1.12	1.500			
0.3120	19969.65	3.9450	3.9450	0.9032	27.06	1.12	1.500			
0.3147	20141.79	3.9420	3.9420	0.9063	27.06	1.12	1.500			
0.3174	20316.42	3.9390	3.9390	0.9087	27.05	1.11	1.500			
0.3202	20490.56	3.9360	3.9360	0.9128	27.05	1.11	1.500			
0.3229	20667.47	3.9330	3.9330	0.9222	27.05	1.11	1.500			
0.3257	20844.94	3.9300	3.9301	0.9284	27.04	1.10	1.500			
0.3285	21024.11	3.9270	3.9271	0.9305	27.04	1.10	1.500			
0.3313	21202.60	3.9240	3.9240	0.9354	27.03	1.09	1.500			
0.3341	21382.43	3.9210	3.9210	0.9381	27.03	1.09	1.500			
0.3369	21564.33	3.9180	3.9180	0.9403	27.02	1.08	1.500			
0.3398	21745.36	3.9150	3.9149	0.9487	27.02	1.08	1.500			
0.3426	21927.45	3.9120	3.9121	0.9494	27.01	1.07	1.500			
0.3454	22108.48	3.9090	3.9090	0.9592	27.00	1.06	1.500			
0.3483	22294.03	3.9060	3.9060	0.9692	27.00	1.06	1.500			
0.3512	22479.43	3.9030	3.9030	0.9781	26.99	1.05	1.500			
0.3542	22669.36	3.9000	3.9000	0.9903	26.99	1.05	1.500			
0.3572	22862.43	3.8970	3.8970	1.0000	26.98	1.04	1.500			
0.3602	23053.67	3.8940	3.8940	1.0059	26.98	1.04	1.500			
0.3633	23249.58	3.8910	3.8910	1.0167	26.98	1.04	1.500			
0.3663	23443.93	3.8880	3.8880	1.0203	26.97	1.03	1.500			
0.3694	23640.45	3.8850	3.8850	1.0339	26.97	1.03	1.500			
0.3725	23838.91	3.8820	3.8820	1.0439	26.97	1.03	1.500			
0.3756	24040.98	3.8790	3.8790	1.0563	26.96	1.02	1.500			
0.3788	24245.50	3.8760	3.8760	1.0690	26.96	1.02	1.500			
0.3821	24451.91	3.8730	3.8731	1.0772	26.95	1.01	1.500			
0.3853	24659.38	3.8700	3.8700	1.0923	26.94	1.00	1.500			
0.3886	24870.02	3.8670	3.8670	1.1060	26.93	0.99	1.500			
0.3919	25082.38	3.8640	3.8640	1.1110	26.93	0.99	1.500			
0.3953	25297.07	3.8610	3.8610	1.1278	26.92	0.98	1.500			
0.3987	25515.38	3.8580	3.8581	1.1419	26.91	0.97	1.500			
0.4021	25735.80	3.8550	3.8550	1.1568	26.90	0.96	1.500			
0.4056	25959.64	3.8520	3.8519	1.1735	26.89	0.95	1.500			
0.4091	26184.12	3.8490	3.8491	1.1922	26.89	0.95	1.500			
0.4127	26413.78	3.8460	3.8460	1.2164	26.88	0.94	1.500			
0.4164	26650.27	3.8430	3.8430	1.2361	26.87	0.93	1.500			
0.4201	26889.49	3.8400	3.8399	1.2601	26.87	0.93	1.500			
0.4240	27134.05	3.8370	3.8371	1.2828	26.86	0.92	1.500			
0.4279	27383.03	3.8340	3.8337	1.3013	26.85	0.91	1.500			
0.4318	27635.12	3.8310	3.8310	1.3255	26.84	0.90	1.500			
0.4358	27891.66	3.8280	3.8280	1.3440	26.83	0.89	1.500			
0.4398	28149.84	3.8250	3.8250	1.3716	26.82	0.88	1.500			
0.4440	28415.88	3.8220	3.8221	1.4028	26.81	0.87	1.500			
0.4482	28685.20	3.8190	3.8190	1.4302	26.80	0.86	1.500			
0.4525	28963.00	3.8160	3.8160	1.4661	26.79	0.85	1.500			
0.4570	29248.15	3.8130	3.8130	1.5005	26.78	0.84	1.500			
0.4615	29539.04	3.8100	3.8099	1.5319	26.77	0.83	1.500			
0.4662	29837.63	3.8070	3.8070	1.5735	26.75	0.81	1.500			
0.4709	30140.60	3.8040	3.8040	1.6099	26.74	0.80	1.500			
0.4758	30453.38	3.8010	3.8010	1.6544	26.73	0.79	1.500			
0.4809	30774.60	3.7980	3.7980	1.7038	26.71	0.77	1.500			
0.4861	31107.53	3.7950	3.7950	1.7513	26.70	0.76	1.500			
0.4914	31450.60	3.7920	3.7920	1.7950	26.68	0.74	1.500			
0.4969	31800.76	3.7890	3.7891	1.8260	26.67	0.73	1.500			
0.5024	32153.39	3.7860	3.7860	1.8793	26.65	0.71	1.500			
0.5080	32515.08	3.7830	3.7830	1.9220	26.64	0.70	1.500			
0.5139	32887.61	3.7800	3.7800	1.9498	26.62	0.68	1.500			
0.5199	33270.53	3.7770	3.7771	2.0158	26.60	0.66	1.500			
0.5260	33663.31	3.7740	3.7739	2.0594	26.59	0.65	1.500			
0.5323	34064.71	3.7710	3.7711	2.0792	26.57	0.63	1.500			
0.5385	34465.09	3.7680	3.7681	2.1173	26.55	0.61	1.500			
0.5450	34882.20	3.7650	3.7649	2.1382	26.52	0.58	1.500			
0.5514	35291.37	3.7620	3.7620	2.1340	26.50	0.56	1.500	0.360	0.457	
0.5578	35701.97	3.7590	3.7590	2.1219	26.49	0.55	1.500			
0.5642	36110.16	3.7560	3.7560	2.1092	26.47	0.53	1.500			
0.5705	36508.83	3.7530	3.7530	2.0725	26.45	0.51	1.500			
0.5767	36907.22	3.7500	3.7499	2.0731	26.43	0.49	1.500			
0.5829	37302.92	3.7470	3.7470	2.0532	26.42	0.48	1.500			
0.5890	37698.84	3.7440	3.7440	2.0390	26.40	0.46	1.500			
0.5951	38085.48	3.7410	3.7410	2.0198	26.38	0.44	1.500			
0.6011	38470.20	3.7380	3.7380	2.0269	26.36	0.42	1.500			
0.6071	38855.59	3.7350	3.7349	2.0341	26.35	0.41	1.500			
0.6133	39250.24	3.7320	3.7320	2.0512	26.34	0.40	1.500			
0.6194	39644.00	3.7290	3.7290	2.1242	26.33	0.39	1.500			
0.6259	40058.79	3.7260	3.7259	2.1676	26.32	0.38	1.500			
0.6325	40479.23	3.7230	3.7231	2.2002	26.31	0.37	1.500			
0.6391	40904.12	3.7200	3.7200	2.2509	26.29	0.35	1.500			
0.6459	41338.75	3.7170	3.7170	2.3167	26.28	0.34	1.500			
0.6528	41780.69	3.7140	3.7138	2.3955	26.26	0.32	1.500			
0.6602	42255.95	3.7110	3.7111	2.5017	26.25	0.31	1.500			
0.6680	42750.55	3.7080	3.7080	2.6014	26.24	0.30	1.500			
0.6759	43255.28	3.7050	3.7050	2.6694	26.22	0.28	1.500			
0.6841	43782.05	3.7020	3.7020	2.7107	26.21	0.27	1.500			
0.6923	44310.11	3.6990	3.6990	2.7229	26.19	0.25	1.500			
0.7006	44837.34	3.6960	3.6959	2.6682	26.17	0.23	1.500			
0.7085	45342.83	3.6930	3.6930	2.5423	26.16	0.22	1.500			
0.7159	45818.48	3.6900	3.6900	2.3870	26.15	0.21	1.500			
0.7229	46264.02	3.6870	3.6870	2.1922	26.15	0.21	1.500			
0.7291	46664.36	3.6840	3.6840	2.0125	26.14	0.20	1.500			
0.7349	47032.34	3.6810	3.6810	1.8500	26.13	0.19	1.500			
0.7400	47359.40	3.6780	3.6780	1.7054	26.13	0.19	1.500			
0.7449	47672.04	3.6750	3.6750	1.5978	26.12	0.18	1.500			
0.7495	47965.86	3.6720	3.6720	1.5066	26.11	0.17	1.500			
0.7538	48245.89	3.6690	3.6689	1.4344	26.11	0.17	1.500			
0.7580	48512.93	3.6660	3.6661	1.3755	26.10	0.16	1.500			
0.7620	48768.34	3.6630	3.6631	1.3215	26.10	0.16	1.500			
0.7659	49015.09	3.6600	3.6599	1.2846	26.09	0.15	1.500			
0.7695	49250.99	3.6570	3.6570	1.2587	26.08	0.14	1.500			
0.7732	49485.68	3.6540	3.6540	1.2485	26.08	0.14	1.500			
0.7769	49724.47	3.6510	3.6509	1.2524	26.07	0.13	1.500			
0.7807	49963.85	3.6480	3.6480	1.2657	26.06	0.12	1.500			
0.7845	50209.55	3.6450	3.6450	1.2805	26.06	0.12	1.500			
0.7884	50458.23	3.6420	3.6420	1.2967	26.05	0.11	1.500			
0.7923	50708.57	3.6390	3.6389	1.3079	26.04	0.10	1.500			
0.7963	50963.06	3.6360	3.6360	1.3135	26.03	0.09	1.500			
0.8003	51217.16	3.6330	3.6330	1.3163	26.03	0.09	1.500			
0.8042	51471.11	3.6300	3.6301	1.3166	26.02	0.08	1.500			
0.8082	51722.07	3.6270	3.6270	1.3160	26.01	0.07	1.500			
0.8121	51976.49	3.6240	3.6240	1.3170	26.01	0.07	1.500			
0.8161	52228.16	3.6210	3.6210	1.3093	26.00	0.06	1.500			
0.8200	52479.24	3.6180	3.6181	1.3097	25.99	0.05	1.500			
0.8239	52731.75	3.6150	3.6150	1.3076	25.99	0.05	1.500			
0.8279	52983.66	3.6120	3.6119	1.2985	25.98	0.04	1.500			
0.8318	53232.33	3.6090	3.6090	1.2889	25.97	0.03	1.500			
0.8356	53478.41	3.6060	3.6060	1.2790	25.97	0.03	1.500			
0.8395	53725.16	3.6030	3.6030	1.2703	25.96	0.02	1.500			
0.8432	53967.39	3.6000	3.5999	1.2569	25.96	0.02	1.500			
0.8470	54207.52	3.5970	3.5970	1.2391	25.95	0.01	1.500			
0.8507	54445.42	3.5940	3.5940	1.2247	25.94	0.00	1.500			
0.8544	54678.95	3.5910	3.5911	1.2070	25.94	0.00	1.500			
0.8579	54907.54	3.5880	3.5879	1.1932	25.94	0.00	1.500			
0.8614	55132.45	3.5850	3.5851	1.1879	25.94	0.00	1.500			
0.8650	55359.02	3.5820	3.5820	1.1806	25.94	0.00	1.500			
0.8686	55588.88	3.5790	3.5789	1.1762	25.94	0.00	1.500			
0.8722	55819.46	3.5760	3.5759	1.1510	25.94	0.00	1.500			
0.8758	56052.26	3.5730	3.5730	1.0917	25.94	0.00	1.500			
0.8791	56261.67	3.5700	3.5701	0.9963	25.94	0.00	1.500			
0.8820	56451.09	3.5670	3.5671	0.8773	25.94	0.00	1.500			
0.8845	56606.76	3.5640	3.5641	0.7367	25.94	0.00	1.500			
0.8863	56725.33	3.5610	3.5610	0.6050	25.94	0.00	1.500			
0.8878	56821.36	3.5580	3.5580	0.4901	25.94	0.00	1.500			
0.8890	56897.72	3.5550	3.5550	0.3958	25.94	0.00	1.500			
0.8900	56961.15	3.5520	3.5520	0.3321	25.94	0.00	1.500			
0.8909	57015.28	3.5490	3.5489	0.2759	25.94	0.00	1.500			
0.8916	57062.38	3.5460	3.5459	0.2427	25.94	0.00	1.500			
0.8922	57103.14	3.5430	3.5430	0.2139	25.94	0.00	1.500			
0.8928	57140.50	3.5400	3.5400	0.1926	25.94	0.00	1.500			
0.8934	57175.47	3.5370	3.5370	0.1743	25.94	0.00	1.500			
0.8938	57206.11	3.5340	3.5340	0.1571	25.94	0.00	1.500			
0.8943	57234.68	3.5310	3.5310	0.1424	25.94	0.00	1.500			
0.8947	57260.53	3.5280	3.5280	0.1282	25.94	0.00	1.500			
0.8951	57283.85	3.5250	3.5251	0.1147	25.94	0.00	1.500			
0.8954	57304.71	3.5220	3.5220	0.1013	25.94	0.00	1.500			
0.8957	57322.82	3.5190	3.5192	0.0875	25.94	0.00	1.500			
0.8959	57338.31	3.5160	3.5161	0.0739	25.94	0.00	1.500			
0.8961	57351.08	3.5130	3.5134	0.0606	25.94	0.00	1.500			
0.8963	57361.43	3.5100	3.5106	0.0472	25.94	0.00	1.500			
