Ah_balance (normalized)	Ah_balance (mAh)	Voltage - fit (V)	Voltage -  interpolate (V)	dQ/dV (1/V)	Temperature (°C)	Temperature - diff (°C)	Current (C)	R_DC 0ms (mOhm)	R_DC 50ms (mOhm)	R_DC 50 ms PEC (mOhm)
0.2852	18253.25	3.9880	3.9880	0.8749	27.18	1.24	1.500			
0.2878	18418.92	3.9850	3.9851	0.8546	27.17	1.23	1.500			
0.2904	18583.52	3.9820	3.9820	0.8458	27.17	1.23	1.500			
0.2928	18741.88	3.9790	3.9790	0.8391	27.16	1.22	1.500			
0.2953	18900.14	3.9760	3.9760	0.8392	27.16	1.22	1.500			
0.2978	19060.18	3.9730	3.9731	0.8421	27.15	1.21	1.500			
0.3004	19222.85	3.9700	3.9701	0.8518	27.15	1.21	1.500			
0.3029	19387.44	3.9670	3.9670	0.8583	27.14	1.20	1.500			
0.3055	19554.33	3.9640	3.9640	0.8611	27.14	1.20	1.500			
0.3081	19720.52	3.9610	3.9610	0.8645	27.13	1.19	1.500			
0.3107	19887.56	3.9580	3.9581	0.8636	27.13	1.19	1.500			
0.3133	20051.88	3.9550	3.9550	0.8695	27.12	1.18	1.500			
0.3159	20218.91	3.9520	3.9520	0.8706	27.12	1.18	1.500			
0.3185	20384.69	3.9490	3.9490	0.8809	27.11	1.17	1.500			
0.3212	20555.77	3.9460	3.9461	0.8853	27.11	1.17	1.500			
0.3239	20728.43	3.9430	3.9429	0.8926	27.10	1.16	1.500			
0.3266	20899.89	3.9400	3.9401	0.8923	27.10	1.16	1.500			
0.3293	21072.01	3.9370	3.9370	0.8964	27.09	1.15	1.500			
0.3319	21242.70	3.9340	3.9340	0.8980	27.09	1.15	1.500			
0.3346	21415.50	3.9310	3.9310	0.9052	27.08	1.14	1.500			
0.3373	21587.83	3.9280	3.9280	0.9082	27.08	1.14	1.500			
0.3401	21764.65	3.9250	3.9250	0.9181	27.08	1.14	1.500			
0.3429	21942.48	3.9220	3.9220	0.9203	27.07	1.13	1.500			
0.3456	22119.21	3.9190	3.9190	0.9265	27.07	1.13	1.500			
0.3484	22296.30	3.9160	3.9160	0.9338	27.06	1.12	1.500			
0.3512	22476.75	3.9130	3.9130	0.9394	27.06	1.12	1.500			
0.3540	22657.35	3.9100	3.9099	0.9396	27.05	1.11	1.500			
0.3569	22838.41	3.9070	3.9070	0.9467	27.04	1.10	1.500			
0.3597	23020.29	3.9040	3.9041	0.9567	27.04	1.10	1.500			
0.3626	23204.32	3.9010	3.9009	0.9673	27.03	1.09	1.500			
0.3655	23389.17	3.8980	3.8980	0.9706	27.02	1.08	1.500			
0.3684	23576.91	3.8950	3.8950	0.9819	27.02	1.08	1.500			
0.3714	23768.39	3.8920	3.8920	0.9927	27.01	1.07	1.500			
0.3744	23960.48	3.8890	3.8889	0.9988	27.00	1.06	1.500			
0.3774	24150.88	3.8860	3.8860	1.0057	26.99	1.05	1.500			
0.3804	24344.13	3.8830	3.8830	1.0147	26.99	1.05	1.500			
0.3834	24537.51	3.8800	3.8800	1.0282	26.98	1.04	1.500			
0.3865	24737.33	3.8770	3.8770	1.0453	26.97	1.03	1.500			
0.3897	24940.77	3.8740	3.8740	1.0522	26.96	1.02	1.500			
0.3929	25144.18	3.8710	3.8710	1.0642	26.96	1.02	1.500			
0.3961	25349.41	3.8680	3.8681	1.0780	26.95	1.01	1.500			
0.3993	25556.88	3.8650	3.8649	1.0881	26.94	1.00	1.500			
0.4026	25766.20	3.8620	3.8619	1.0996	26.93	0.99	1.500			
0.4059	25977.84	3.8590	3.8591	1.1123	26.92	0.98	1.500			
0.4093	26192.93	3.8560	3.8560	1.1309	26.91	0.97	1.500			
0.4127	26413.88	3.8530	3.8530	1.1414	26.90	0.96	1.500			
0.4161	26631.73	3.8500	3.8500	1.1564	26.89	0.95	1.500			
0.4196	26854.51	3.8470	3.8471	1.1757	26.88	0.94	1.500			
0.4232	27082.76	3.8440	3.8440	1.1956	26.87	0.93	1.500			
0.4268	27314.44	3.8410	3.8410	1.2129	26.86	0.92	1.500			
0.4305	27549.19	3.8380	3.8380	1.2323	26.85	0.91	1.500			
0.4342	27786.89	3.8350	3.8351	1.2553	26.84	0.90	1.500			
0.4380	28031.65	3.8320	3.8319	1.2772	26.82	0.88	1.500			
0.4418	28274.42	3.8290	3.8291	1.3051	26.81	0.87	1.500			
0.4457	28526.17	3.8260	3.8260	1.3342	26.79	0.85	1.500			
0.4498	28787.22	3.8230	3.8228	1.3614	26.78	0.84	1.500			
0.4540	29054.35	3.8200	3.8200	1.3885	26.77	0.83	1.500			
0.4582	29323.50	3.8170	3.8171	1.4110	26.75	0.81	1.500			
0.4625	29597.51	3.8140	3.8141	1.4320	26.74	0.80	1.500			
0.4668	29873.02	3.8110	3.8110	1.4524	26.73	0.79	1.500			
0.4711	30150.27	3.8080	3.8080	1.4843	26.71	0.77	1.500			
0.4756	30438.90	3.8050	3.8049	1.5230	26.70	0.76	1.500			
0.4803	30737.76	3.8020	3.8020	1.5566	26.68	0.74	1.500			
0.4850	31041.20	3.7990	3.7990	1.5785	26.67	0.73	1.500			
0.4898	31348.73	3.7960	3.7960	1.6100	26.65	0.71	1.500			
0.4947	31658.13	3.7930	3.7930	1.6256	26.64	0.70	1.500			
0.4995	31971.02	3.7900	3.7897	1.6443	26.62	0.68	1.500			
0.5045	32288.01	3.7870	3.7871	1.6775	26.60	0.66	1.500			
0.5096	32613.47	3.7840	3.7840	1.7148	26.59	0.65	1.500			
0.5148	32946.43	3.7810	3.7809	1.7461	26.57	0.63	1.500			
0.5201	33284.58	3.7780	3.7778	1.7690	26.55	0.61	1.500	0.346	0.470	
0.5255	33630.88	3.7750	3.7751	1.7964	26.54	0.60	1.500			
0.5309	33979.74	3.7720	3.7720	1.7971	26.52	0.58	1.500			
0.5363	34321.46	3.7690	3.7690	1.7799	26.50	0.56	1.500			
0.5417	34665.99	3.7660	3.7660	1.7724	26.49	0.55	1.500			
0.5469	35002.69	3.7630	3.7630	1.7582	26.47	0.53	1.500			
0.5521	35336.78	3.7600	3.7600	1.7563	26.45	0.51	1.500			
0.5574	35675.47	3.7570	3.7569	1.7715	26.44	0.50	1.500			
0.5627	36015.65	3.7540	3.7541	1.7726	26.42	0.48	1.500			
0.5680	36353.72	3.7510	3.7510	1.7844	26.41	0.47	1.500			
0.5733	36693.19	3.7480	3.7480	1.8088	26.39	0.45	1.500			
0.5788	37040.61	3.7450	3.7450	1.8391	26.38	0.44	1.500			
0.5844	37401.09	3.7420	3.7420	1.8419	26.36	0.42	1.500			
0.5900	37760.97	3.7390	3.7391	1.8853	26.35	0.41	1.500			
0.5956	38116.15	3.7360	3.7360	1.9012	26.33	0.39	1.500			
0.6013	38483.31	3.7330	3.7330	1.9430	26.32	0.38	1.500			
0.6072	38862.12	3.7300	3.7301	1.9958	26.30	0.36	1.500			
0.6133	39253.34	3.7270	3.7270	2.0574	26.29	0.35	1.500			
0.6195	39649.92	3.7240	3.7241	2.1130	26.27	0.33	1.500			
0.6260	40066.42	3.7210	3.7210	2.1951	26.26	0.32	1.500			
0.6327	40495.45	3.7180	3.7180	2.2500	26.24	0.30	1.500			
0.6396	40937.25	3.7150	3.7150	2.3259	26.22	0.28	1.500			
0.6467	41386.44	3.7120	3.7120	2.3472	26.21	0.27	1.500			
0.6538	41840.80	3.7090	3.7091	2.3940	26.19	0.25	1.500			
0.6611	42307.61	3.7060	3.7059	2.4001	26.18	0.24	1.500			
0.6684	42774.42	3.7030	3.7030	2.3774	26.16	0.22	1.500			
0.6754	43227.87	3.7000	3.7000	2.2974	26.15	0.21	1.500			
0.6821	43656.96	3.6970	3.6970	2.1404	26.14	0.20	1.500			
0.6883	44052.56	3.6940	3.6941	1.9866	26.13	0.19	1.500			
0.6940	44413.06	3.6910	3.6910	1.8249	26.12	0.18	1.500			
0.6991	44741.69	3.6880	3.6879	1.6901	26.11	0.17	1.500			
0.7040	45056.86	3.6850	3.6850	1.5925	26.10	0.16	1.500			
0.7086	45348.98	3.6820	3.6820	1.5137	26.09	0.15	1.500			
0.7130	45629.09	3.6790	3.6790	1.4343	26.08	0.14	1.500			
0.7171	45893.33	3.6760	3.6760	1.3768	26.08	0.14	1.500			
0.7211	46151.25	3.6730	3.6731	1.3310	26.07	0.13	1.500			
0.7250	46398.43	3.6700	3.6697	1.3022	26.06	0.12	1.500			
0.7288	46642.30	3.6670	3.6670	1.2795	26.05	0.11	1.500			
0.7326	46885.60	3.6640	3.6640	1.2703	26.05	0.11	1.500			
0.7363	47126.10	3.6610	3.6610	1.2660	26.04	0.10	1.500			
0.7401	47368.14	3.6580	3.6580	1.2614	26.04	0.10	1.500			
0.7439	47611.80	3.6550	3.6550	1.2656	26.03	0.09	1.500			
0.7477	47855.27	3.6520	3.6520	1.2713	26.02	0.08	1.500			
0.7516	48099.52	3.6490	3.6491	1.2703	26.02	0.08	1.500			
0.7554	48345.95	3.6460	3.6460	1.2667	26.01	0.07	1.500			
0.7592	48588.73	3.6430	3.6430	1.2629	26.00	0.06	1.500			
0.7630	48831.33	3.6400	3.6401	1.2479	25.99	0.05	1.500			
0.7667	49068.21	3.6370	3.6370	1.2460	25.99	0.05	1.500			
0.7704	49306.39	3.6340	3.6340	1.2393	25.98	0.04	1.500			
0.7741	49543.01	3.6310	3.6309	1.2338	25.97	0.03	1.500			
0.7778	49779.56	3.6280	3.6280	1.2307	25.97	0.03	1.500			
0.7815	50016.41	3.6250	3.6251	1.2262	25.96	0.02	1.500			
0.7852	50253.17	3.6220	3.6220	1.2180	25.96	0.02	1.500			
0.7889	50487.63	3.6190	3.6190	1.2020	25.95	0.01	1.500			
0.7924	50715.39	3.6160	3.6161	1.1868	25.95	0.01	1.500			
0.7960	50942.54	3.6130	3.6130	1.1762	25.94	0.00	1.500			
0.7995	51166.86	3.6100	3.6099	1.1588	25.94	0.00	1.500			
0.8029	51387.97	3.6070	3.6070	1.1416	25.94	0.00	1.500			
0.8063	51605.03	3.6040	3.6041	1.1249	25.94	0.00	1.500			
0.8097	51821.01	3.6010	3.6010	1.1098	25.94	0.00	1.500			
0.8130	52032.79	3.5980	3.5980	1.0841	25.94	0.00	1.500			
0.8162	52239.00	3.5950	3.5949	1.0639	25.94	0.00	1.500			
0.8194	52443.41	3.5920	3.5920	1.0341	25.94	0.00	1.500			
0.8225	52641.12	3.5890	3.5889	1.0005	25.94	0.00	1.500			
0.8255	52834.56	3.5860	3.5860	0.9510	25.94	0.00	1.500			
0.8284	53014.50	3.5830	3.5830	0.8873	25.94	0.00	1.500			
0.8310	53185.34	3.5800	3.5800	0.8092	25.94	0.00	1.500			
0.8334	53335.03	3.5770	3.5771	0.7160	25.94	0.00	1.500			
0.8354	53463.13	3.5740	3.5740	0.6201	25.94	0.00	1.500			
0.8371	53571.49	3.5710	3.5710	0.5240	25.94	0.00	1.500			
0.8384	53656.74	3.5680	3.5679	0.4335	25.94	0.00	1.500			
0.8395	53728.61	3.5650	3.5650	0.3683	25.94	0.00	1.500			
0.8404	53788.29	3.5620	3.5620	0.3107	25.94	0.00	1.500			
0.8413	53842.44	3.5590	3.5589	0.2687	25.94	0.00	1.500			
0.8420	53887.73	3.5560	3.5560	0.2355	25.94	0.00	1.500			
0.8426	53928.81	3.5530	3.5530	0.2110	25.94	0.00	1.500			
0.8432	53966.24	3.5500	3.5501	0.1902	25.94	0.00	1.500			
0.8438	54000.92	3.5470	3.5470	0.1710	25.94	0.00	1.500			
0.8442	54030.80	3.5440	3.5438	0.1539	25.94	0.00	1.500			
0.8447	54058.34	3.5410	3.5411	0.1373	25.94	0.00	1.500			
0.8450	54082.86	3.5380	3.5380	0.1222	25.94	0.00	1.500			
0.8454	54104.94	3.5350	3.5350	0.1079	25.94	0.00	1.500			
0.8457	54124.26	3.5320	3.5320	0.0936	25.94	0.00	1.500			
0.8459	54140.60	3.5290	3.5292	0.0792	25.94	0.00	1.500			
0.8462	54154.48	3.5260	3.5264	0.0653	25.94	0.00	1.500			
0.8463	54166.01	3.5230	3.5236	0.0504	25.94	0.00	1.500			
0.8465	54174.27	3.5200	3.5208	0.0356	25.94	0.00	1.500			
