Ah_balance (normalized)	Ah_balance (mAh)	Voltage - fit (V)	Voltage -  interpolate (V)	dQ/dV (1/V)	Temperature (°C)	Temperature - diff (°C)	Current (C)	R_DC 0ms (mOhm)	R_DC 50ms (mOhm)	R_DC 50 ms PEC (mOhm)
0.2653	16977.21	3.9930	3.9930	0.8300	27.36	1.40	1.500			
0.2678	17137.51	3.9900	3.9901	0.8378	27.35	1.39	1.500			
0.2703	17299.30	3.9870	3.9870	0.8426	27.35	1.39	1.500			
0.2728	17461.40	3.9840	3.9840	0.8453	27.34	1.38	1.500			
0.2754	17623.20	3.9810	3.9811	0.8497	27.34	1.38	1.500			
0.2779	17787.77	3.9780	3.9780	0.8565	27.33	1.37	1.500			
0.2805	17952.01	3.9750	3.9749	0.8595	27.32	1.36	1.500			
0.2831	18117.22	3.9720	3.9720	0.8638	27.32	1.36	1.500			
0.2857	18283.35	3.9690	3.9690	0.8691	27.31	1.35	1.500			
0.2883	18451.39	3.9660	3.9660	0.8717	27.30	1.34	1.500			
0.2909	18619.21	3.9630	3.9630	0.8755	27.30	1.34	1.500			
0.2936	18787.48	3.9600	3.9599	0.8763	27.29	1.33	1.500			
0.2962	18956.37	3.9570	3.9571	0.8788	27.29	1.33	1.500			
0.2988	19124.96	3.9540	3.9540	0.8803	27.28	1.32	1.500			
0.3015	19293.41	3.9510	3.9510	0.8849	27.28	1.32	1.500			
0.3041	19463.43	3.9480	3.9479	0.8883	27.27	1.31	1.500			
0.3068	19633.76	3.9450	3.9450	0.8944	27.27	1.31	1.500			
0.3095	19806.25	3.9420	3.9420	0.8962	27.27	1.31	1.500			
0.3122	19980.20	3.9390	3.9390	0.9042	27.26	1.30	1.500			
0.3149	20153.50	3.9360	3.9360	0.9110	27.26	1.30	1.500			
0.3176	20328.00	3.9330	3.9331	0.9172	27.25	1.29	1.500			
0.3204	20505.09	3.9300	3.9300	0.9240	27.25	1.29	1.500			
0.3232	20684.31	3.9270	3.9270	0.9296	27.24	1.28	1.500			
0.3260	20862.65	3.9240	3.9240	0.9355	27.23	1.27	1.500			
0.3288	21043.94	3.9210	3.9211	0.9398	27.22	1.26	1.500			
0.3316	21225.00	3.9180	3.9179	0.9404	27.21	1.25	1.500			
0.3344	21404.42	3.9150	3.9150	0.9404	27.20	1.24	1.500			
0.3372	21583.58	3.9120	3.9121	0.9524	27.19	1.23	1.500			
0.3401	21767.39	3.9090	3.9090	0.9629	27.18	1.22	1.500			
0.3430	21954.23	3.9060	3.9059	0.9739	27.17	1.21	1.500			
0.3460	22141.74	3.9030	3.9031	0.9829	27.17	1.21	1.500			
0.3490	22333.11	3.9000	3.9000	0.9940	27.16	1.20	1.500			
0.3520	22525.54	3.8970	3.8970	0.9979	27.15	1.19	1.500			
0.3550	22717.41	3.8940	3.8940	0.9992	27.14	1.18	1.500			
0.3579	22908.41	3.8910	3.8910	1.0050	27.14	1.18	1.500			
0.3610	23101.93	3.8880	3.8880	1.0116	27.13	1.17	1.500			
0.3640	23295.41	3.8850	3.8850	1.0208	27.12	1.16	1.500			
0.3671	23491.79	3.8820	3.8820	1.0302	27.12	1.16	1.500			
0.3702	23690.37	3.8790	3.8790	1.0439	27.11	1.15	1.500			
0.3733	23892.75	3.8760	3.8760	1.0542	27.10	1.14	1.500			
0.3765	24097.38	3.8730	3.8730	1.0641	27.09	1.13	1.500			
0.3797	24302.76	3.8700	3.8700	1.0747	27.08	1.12	1.500			
0.3830	24510.00	3.8670	3.8670	1.0864	27.07	1.11	1.500			
0.3862	24718.24	3.8640	3.8640	1.0962	27.06	1.10	1.500			
0.3895	24930.34	3.8610	3.8611	1.1085	27.05	1.09	1.500			
0.3929	25143.68	3.8580	3.8580	1.1186	27.03	1.07	1.500			
0.3962	25359.35	3.8550	3.8550	1.1374	27.02	1.06	1.500			
0.3997	25578.81	3.8520	3.8520	1.1527	27.01	1.05	1.500			
0.4031	25800.58	3.8490	3.8490	1.1701	27.00	1.04	1.500			
0.4067	26029.20	3.8460	3.8460	1.1818	26.99	1.03	1.500			
0.4103	26258.23	3.8430	3.8430	1.1988	26.98	1.02	1.500			
0.4139	26489.52	3.8400	3.8400	1.2178	26.97	1.01	1.500			
0.4176	26724.59	3.8370	3.8370	1.2323	26.96	1.00	1.500			
0.4213	26961.15	3.8340	3.8340	1.2487	26.94	0.98	1.500			
0.4250	27201.13	3.8310	3.8311	1.2737	26.93	0.97	1.500			
0.4289	27449.34	3.8280	3.8280	1.2918	26.92	0.96	1.500			
0.4328	27701.59	3.8250	3.8249	1.3158	26.90	0.94	1.500			
0.4368	27954.43	3.8220	3.8220	1.3332	26.89	0.93	1.500			
0.4408	28210.52	3.8190	3.8191	1.3585	26.87	0.91	1.500			
0.4449	28474.44	3.8160	3.8159	1.3835	26.86	0.90	1.500			
0.4491	28741.49	3.8130	3.8130	1.4088	26.84	0.88	1.500			
0.4533	29014.13	3.8100	3.8100	1.4283	26.83	0.87	1.500			
0.4577	29293.18	3.8070	3.8070	1.4582	26.81	0.85	1.500			
0.4621	29576.50	3.8040	3.8040	1.4771	26.80	0.84	1.500			
0.4666	29861.03	3.8010	3.8010	1.5026	26.78	0.82	1.500			
0.4711	30151.47	3.7980	3.7981	1.5277	26.76	0.80	1.500			
0.4757	30447.58	3.7950	3.7950	1.5536	26.75	0.79	1.500			
0.4804	30747.41	3.7920	3.7920	1.5851	26.73	0.77	1.500			
0.4852	31054.44	3.7890	3.7890	1.6165	26.71	0.75	1.500			
0.4901	31367.94	3.7860	3.7855	1.6376	26.69	0.73	1.500	0.345	0.482	
0.4951	31684.48	3.7830	3.7830	1.6537	26.68	0.72	1.500			
0.5001	32006.76	3.7800	3.7800	1.6678	26.66	0.70	1.500			
0.5051	32329.36	3.7770	3.7770	1.6688	26.65	0.69	1.500			
0.5101	32647.99	3.7740	3.7740	1.6688	26.63	0.67	1.500			
0.5151	32967.48	3.7710	3.7710	1.6786	26.61	0.65	1.500			
0.5201	33288.80	3.7680	3.7681	1.6944	26.60	0.64	1.500			
0.5253	33616.45	3.7650	3.7650	1.7155	26.58	0.62	1.500			
0.5304	33947.36	3.7620	3.7620	1.7259	26.56	0.60	1.500			
0.5357	34284.47	3.7590	3.7590	1.7358	26.55	0.59	1.500			
0.5409	34617.75	3.7560	3.7561	1.7385	26.53	0.57	1.500			
0.5461	34949.09	3.7530	3.7530	1.7436	26.51	0.55	1.500			
0.5513	35284.21	3.7500	3.7499	1.7687	26.50	0.54	1.500			
0.5566	35623.82	3.7470	3.7470	1.7958	26.48	0.52	1.500			
0.5620	35969.06	3.7440	3.7440	1.8410	26.46	0.50	1.500			
0.5676	36329.26	3.7410	3.7410	1.8887	26.45	0.49	1.500			
0.5734	36697.64	3.7380	3.7380	1.9355	26.43	0.47	1.500			
0.5793	37075.95	3.7350	3.7351	1.9612	26.41	0.45	1.500			
0.5852	37455.98	3.7320	3.7320	2.0076	26.39	0.43	1.500			
0.5913	37843.07	3.7290	3.7290	2.0528	26.37	0.41	1.500			
0.5975	38238.58	3.7260	3.7260	2.1126	26.35	0.39	1.500			
0.6040	38654.28	3.7230	3.7230	2.1767	26.34	0.38	1.500			
0.6107	39082.07	3.7200	3.7200	2.2207	26.32	0.36	1.500			
0.6173	39509.87	3.7170	3.7169	2.2325	26.30	0.34	1.500			
0.6241	39941.31	3.7140	3.7140	2.2382	26.28	0.32	1.500			
0.6309	40375.95	3.7110	3.7110	2.2158	26.26	0.30	1.500			
0.6376	40803.62	3.7080	3.7080	2.1461	26.24	0.28	1.500			
0.6439	41211.35	3.7050	3.7050	2.0540	26.22	0.26	1.500			
0.6499	41595.43	3.7020	3.7020	1.9340	26.21	0.25	1.500			
0.6555	41952.59	3.6990	3.6991	1.8126	26.20	0.24	1.500			
0.6607	42286.98	3.6960	3.6960	1.6967	26.19	0.23	1.500			
0.6656	42597.87	3.6930	3.6930	1.6047	26.18	0.22	1.500			
0.6703	42898.07	3.6900	3.6900	1.5321	26.17	0.21	1.500			
0.6747	43181.53	3.6870	3.6870	1.4698	26.16	0.20	1.500			
0.6790	43455.82	3.6840	3.6840	1.4167	26.15	0.19	1.500			
0.6832	43723.23	3.6810	3.6810	1.3712	26.14	0.18	1.500			
0.6872	43979.18	3.6780	3.6781	1.3351	26.13	0.17	1.500			
0.6911	44231.53	3.6750	3.6750	1.3052	26.12	0.16	1.500			
0.6949	44474.41	3.6720	3.6720	1.2829	26.11	0.15	1.500			
0.6987	44717.66	3.6690	3.6689	1.2794	26.10	0.14	1.500			
0.7025	44961.57	3.6660	3.6661	1.2755	26.09	0.13	1.500			
0.7064	45206.62	3.6630	3.6630	1.2698	26.08	0.12	1.500			
0.7102	45453.03	3.6600	3.6600	1.2730	26.07	0.11	1.500			
0.7140	45697.28	3.6570	3.6571	1.2648	26.05	0.09	1.500			
0.7178	45938.87	3.6540	3.6539	1.2625	26.04	0.08	1.500			
0.7216	46180.32	3.6510	3.6511	1.2523	26.03	0.07	1.500			
0.7253	46418.48	3.6480	3.6480	1.2421	26.03	0.07	1.500			
0.7290	46657.31	3.6450	3.6450	1.2402	26.02	0.06	1.500			
0.7328	46896.25	3.6420	3.6421	1.2335	26.01	0.05	1.500			
0.7364	47131.27	3.6390	3.6390	1.2238	26.00	0.04	1.500			
0.7401	47366.05	3.6360	3.6360	1.2207	25.99	0.03	1.500			
0.7438	47600.32	3.6330	3.6329	1.2091	25.98	0.02	1.500			
0.7474	47832.93	3.6300	3.6300	1.2005	25.98	0.02	1.500			
0.7510	48062.31	3.6270	3.6269	1.1847	25.97	0.01	1.500			
0.7545	48289.19	3.6240	3.6241	1.1728	25.96	0.00	1.500			
0.7580	48512.67	3.6210	3.6210	1.1538	25.96	-0.00	1.500			
0.7615	48732.88	3.6180	3.6180	1.1391	25.95	-0.01	1.500			
0.7648	48949.63	3.6150	3.6151	1.1224	25.95	-0.01	1.500			
0.7682	49166.42	3.6120	3.6119	1.1031	25.94	-0.02	1.500			
0.7715	49376.87	3.6090	3.6091	1.0814	25.94	-0.02	1.500			
0.7747	49583.38	3.6060	3.6060	1.0542	25.94	-0.02	1.500			
0.7778	49782.20	3.6030	3.6030	1.0277	25.95	-0.01	1.500			
0.7809	49979.22	3.6000	3.5999	0.9937	25.95	-0.01	1.500			
0.7839	50167.17	3.5970	3.5970	0.9541	25.95	-0.01	1.500			
0.7867	50351.19	3.5940	3.5940	0.9007	25.95	-0.01	1.500			
0.7894	50522.30	3.5910	3.5910	0.8372	25.96	-0.00	1.500			
0.7919	50680.93	3.5880	3.5880	0.7628	25.96	-0.00	1.500			
0.7941	50821.18	3.5850	3.5850	0.6790	25.96	-0.00	1.500			
0.7960	50941.61	3.5820	3.5821	0.5928	25.96	0.00	1.500			
0.7976	51046.85	3.5790	3.5790	0.5113	25.96	0.00	1.500			
0.7989	51131.95	3.5760	3.5761	0.4371	25.96	0.00	1.500			
0.8001	51205.55	3.5730	3.5730	0.3775	25.96	0.00	1.500			
0.8011	51269.91	3.5700	3.5701	0.3210	25.97	0.01	1.500			
0.8019	51324.76	3.5670	3.5669	0.2821	25.97	0.01	1.500			
0.8027	51372.38	3.5640	3.5640	0.2495	25.97	0.01	1.500			
0.8034	51416.73	3.5610	3.5610	0.2245	25.97	0.01	1.500			
0.8040	51457.12	3.5580	3.5580	0.2046	25.97	0.01	1.500			
0.8046	51493.70	3.5550	3.5549	0.1869	25.97	0.01	1.500			
0.8051	51527.15	3.5520	3.5521	0.1707	25.97	0.01	1.500			
0.8056	51558.31	3.5490	3.5491	0.1560	25.97	0.01	1.500			
0.8060	51586.87	3.5460	3.5458	0.1426	25.97	0.01	1.500			
0.8064	51612.77	3.5430	3.5430	0.1290	25.97	0.01	1.500			
0.8068	51636.38	3.5400	3.5401	0.1149	25.97	0.01	1.500			
0.8071	51657.16	3.5370	3.5370	0.1015	25.97	0.01	1.500			
0.8074	51675.94	3.5340	3.5341	0.0886	25.97	0.01	1.500			
0.8077	51691.55	3.5310	3.5311	0.0744	25.97	0.01	1.500			
0.8079	51704.48	3.5280	3.5283	0.0603	25.97	0.01	1.500			
0.8080	51714.82	3.5250	3.5256	0.0459	25.97	0.01	1.500			
0.8082	51722.26	3.5220	3.5230	0.0315	25.97	0.01	1.500			
