Ah_balance (normalized)	Ah_balance (mAh)	Voltage - fit (V)	Voltage -  interpolate (V)	dQ/dV (1/V)	Temperature (°C)	Temperature - diff (°C)	Current (C)	R_DC 0ms (mOhm)	R_DC 50ms (mOhm)	R_DC 50 ms PEC (mOhm)
0.1855	11869.87	3.9300	3.9298	-0.0831	25.69	-0.02	-1.500			
0.1858	11888.54	3.9270	3.9267	-0.1115	25.69	-0.02	-1.500			
0.1861	11912.80	3.9240	3.9239	-0.1397	25.69	-0.02	-1.500			
0.1866	11942.74	3.9210	3.9210	-0.1666	25.69	-0.02	-1.500			
0.1871	11977.36	3.9180	3.9180	-0.1926	25.69	-0.02	-1.500			
0.1878	12017.11	3.9150	3.9150	-0.2166	25.69	-0.02	-1.500			
0.1885	12061.87	3.9120	3.9120	-0.2418	25.69	-0.02	-1.500			
0.1892	12110.17	3.9090	3.9090	-0.2658	25.69	-0.02	-1.500			
0.1901	12163.60	3.9060	3.9060	-0.2900	25.69	-0.02	-1.500			
0.1910	12221.78	3.9030	3.9030	-0.3128	25.70	-0.01	-1.500			
0.1919	12284.07	3.9000	3.9000	-0.3355	25.70	-0.01	-1.500			
0.1930	12351.33	3.8970	3.8971	-0.3576	25.70	-0.01	-1.500			
0.1941	12422.41	3.8940	3.8940	-0.3782	25.70	-0.01	-1.500			
0.1953	12496.96	3.8910	3.8910	-0.3977	25.70	-0.01	-1.500			
0.1965	12575.09	3.8880	3.8880	-0.4171	25.70	-0.01	-1.500			
0.1978	12656.68	3.8850	3.8850	-0.4365	25.70	-0.01	-1.500			
0.1991	12742.38	3.8820	3.8820	-0.4566	25.70	-0.01	-1.500			
0.2005	12832.28	3.8790	3.8790	-0.4744	25.70	-0.01	-1.500			
0.2020	12925.72	3.8760	3.8760	-0.4913	25.70	-0.01	-1.500			
0.2035	13022.09	3.8730	3.8731	-0.5090	25.71	-0.00	-1.500			
0.2050	13121.47	3.8700	3.8700	-0.5243	25.71	-0.00	-1.500			
0.2066	13223.82	3.8670	3.8670	-0.5369	25.71	-0.00	-1.500			
0.2083	13328.37	3.8640	3.8640	-0.5489	25.71	-0.00	-1.500			
0.2099	13435.28	3.8610	3.8611	-0.5590	25.71	0.00	-1.500			
0.2116	13543.97	3.8580	3.8580	-0.5692	25.71	0.00	-1.500			
0.2134	13654.63	3.8550	3.8550	-0.5775	25.71	0.00	-1.500			
0.2151	13765.72	3.8520	3.8520	-0.5842	25.71	0.00	-1.500			
0.2169	13878.48	3.8490	3.8490	-0.5924	25.72	0.01	-1.500			
0.2186	13993.47	3.8460	3.8460	-0.5989	25.72	0.01	-1.500			
0.2205	14109.58	3.8430	3.8430	-0.6037	25.72	0.01	-1.500			
0.2223	14226.26	3.8400	3.8400	-0.6074	25.72	0.01	-1.500			
0.2241	14343.96	3.8370	3.8370	-0.6096	25.72	0.01	-1.500			
0.2259	14460.70	3.8340	3.8340	-0.6150	25.72	0.01	-1.500			
0.2278	14578.61	3.8310	3.8310	-0.6178	25.72	0.01	-1.500			
0.2296	14697.42	3.8280	3.8280	-0.6222	25.73	0.02	-1.500			
0.2315	14817.75	3.8250	3.8250	-0.6267	25.73	0.02	-1.500			
0.2334	14938.22	3.8220	3.8220	-0.6310	25.73	0.02	-1.500			
0.2353	15060.43	3.8190	3.8190	-0.6347	25.73	0.02	-1.500			
0.2372	15182.88	3.8160	3.8160	-0.6356	25.74	0.03	-1.500			
0.2391	15305.12	3.8130	3.8130	-0.6336	25.74	0.03	-1.500			
0.2411	15427.32	3.8100	3.8101	-0.6362	25.74	0.03	-1.500			
0.2430	15549.35	3.8070	3.8070	-0.6361	25.75	0.04	-1.500			
0.2449	15671.31	3.8040	3.8040	-0.6370	25.75	0.04	-1.500			
0.2468	15793.05	3.8010	3.8010	-0.6381	25.75	0.04	-1.500			
0.2487	15915.16	3.7980	3.7980	-0.6431	25.76	0.05	-1.500			
0.2506	16039.42	3.7950	3.7950	-0.6471	25.76	0.05	-1.500			
0.2526	16164.47	3.7920	3.7920	-0.6505	25.77	0.06	-1.500			
0.2545	16289.45	3.7890	3.7890	-0.6509	25.77	0.06	-1.500			
0.2565	16415.23	3.7860	3.7860	-0.6546	25.77	0.06	-1.500			
0.2585	16541.56	3.7830	3.7829	-0.6539	25.78	0.07	-1.500			
0.2604	16666.55	3.7800	3.7800	-0.6530	25.78	0.07	-1.500			
0.2624	16791.01	3.7770	3.7770	-0.6546	25.78	0.07	-1.500			
0.2643	16917.03	3.7740	3.7740	-0.6585	25.79	0.08	-1.500			
0.2663	17042.90	3.7710	3.7709	-0.6617	25.79	0.08	-1.500			
0.2683	17171.35	3.7680	3.7679	-0.6653	25.79	0.08	-1.500			
0.2703	17298.93	3.7650	3.7651	-0.6694	25.80	0.09	-1.500			
0.2723	17428.62	3.7620	3.7620	-0.6743	25.80	0.09	-1.500			
0.2744	17559.39	3.7590	3.7590	-0.6755	25.80	0.09	-1.500			
0.2764	17688.78	3.7560	3.7559	-0.6783	25.81	0.10	-1.500			
0.2784	17818.28	3.7530	3.7531	-0.6828	25.81	0.10	-1.500			
0.2805	17949.73	3.7500	3.7500	-0.6862	25.81	0.10	-1.500			
0.2825	18082.31	3.7470	3.7469	-0.6923	25.82	0.11	-1.500			
0.2846	18215.02	3.7440	3.7441	-0.6945	25.82	0.11	-1.500			
0.2867	18348.97	3.7410	3.7410	-0.6999	25.83	0.12	-1.500			
0.2888	18483.91	3.7380	3.7381	-0.7049	25.83	0.12	-1.500			
0.2909	18619.23	3.7350	3.7350	-0.7080	25.84	0.13	-1.500			
0.2931	18755.70	3.7320	3.7320	-0.7150	25.84	0.13	-1.500			
0.2952	18894.18	3.7290	3.7290	-0.7216	25.85	0.14	-1.500			
0.2974	19032.52	3.7260	3.7260	-0.7274	25.85	0.14	-1.500			
0.2996	19173.19	3.7230	3.7230	-0.7338	25.86	0.15	-1.500			
0.3018	19314.22	3.7200	3.7200	-0.7401	25.86	0.15	-1.500			
0.3040	19457.26	3.7170	3.7170	-0.7437	25.87	0.16	-1.500			
0.3063	19600.35	3.7140	3.7140	-0.7501	25.87	0.16	-1.500			
0.3085	19744.03	3.7110	3.7110	-0.7585	25.88	0.17	-1.500			
0.3108	19890.49	3.7080	3.7079	-0.7674	25.88	0.17	-1.500			
0.3131	20038.39	3.7050	3.7050	-0.7748	25.89	0.18	-1.500			
0.3154	20188.67	3.7020	3.7020	-0.7823	25.89	0.18	-1.500			
0.3178	20339.50	3.6990	3.6990	-0.7904	25.89	0.18	-1.500			
0.3202	20492.43	3.6960	3.6959	-0.7996	25.90	0.19	-1.500			
0.3226	20645.54	3.6930	3.6930	-0.8077	25.90	0.19	-1.500			
0.3250	20801.43	3.6900	3.6900	-0.8170	25.90	0.19	-1.500			
0.3275	20959.18	3.6870	3.6870	-0.8271	25.91	0.20	-1.500			
0.3300	21120.25	3.6840	3.6840	-0.8324	25.91	0.20	-1.500			
0.3325	21280.57	3.6810	3.6810	-0.8426	25.92	0.21	-1.500			
0.3350	21442.34	3.6780	3.6780	-0.8510	25.92	0.21	-1.500			
0.3376	21606.25	3.6750	3.6750	-0.8574	25.92	0.21	-1.500			
0.3402	21771.00	3.6720	3.6720	-0.8688	25.92	0.21	-1.500			
0.3428	21939.04	3.6690	3.6691	-0.8805	25.93	0.22	-1.500			
0.3455	22109.09	3.6660	3.6660	-0.8905	25.93	0.22	-1.500			
0.3482	22282.05	3.6630	3.6630	-0.9045	25.93	0.22	-1.500			
0.3509	22454.82	3.6600	3.6601	-0.9187	25.93	0.22	-1.500			
0.3537	22634.72	3.6570	3.6570	-0.9299	25.94	0.23	-1.500			
0.3565	22816.42	3.6540	3.6539	-0.9421	25.94	0.23	-1.500			
0.3593	22997.39	3.6510	3.6512	-0.9503	25.94	0.23	-1.500			
0.3622	23181.12	3.6480	3.6480	-0.9598	25.94	0.23	-1.500			
0.3651	23365.64	3.6450	3.6450	-0.9687	25.94	0.23	-1.500			
0.3680	23550.35	3.6420	3.6420	-0.9769	25.95	0.24	-1.500			
0.3709	23739.10	3.6390	3.6390	-0.9933	25.95	0.24	-1.500			
0.3739	23931.06	3.6360	3.6360	-1.0128	25.95	0.24	-1.500			
0.3770	24128.15	3.6330	3.6329	-1.0256	25.95	0.24	-1.500			
0.3801	24327.04	3.6300	3.6300	-1.0353	25.96	0.25	-1.500			
0.3833	24528.42	3.6270	3.6269	-1.0468	25.96	0.25	-1.500			
0.3864	24729.28	3.6240	3.6241	-1.0594	25.96	0.25	-1.500			
0.3896	24932.29	3.6210	3.6210	-1.0668	25.96	0.25	-1.500			
0.3928	25136.95	3.6180	3.6180	-1.0814	25.96	0.25	-1.500			
0.3960	25346.06	3.6150	3.6150	-1.0884	25.96	0.25	-1.500			
0.3993	25556.78	3.6120	3.6119	-1.1087	25.97	0.26	-1.500			
0.4027	25772.07	3.6090	3.6091	-1.1239	25.97	0.26	-1.500			
0.4061	25988.39	3.6060	3.6059	-1.1386	25.97	0.26	-1.500			
0.4095	26207.75	3.6030	3.6030	-1.1512	25.97	0.26	-1.500			
0.4130	26431.13	3.6000	3.6000	-1.1730	25.97	0.26	-1.500			
0.4165	26657.62	3.5970	3.5970	-1.1883	25.97	0.26	-1.500			
0.4201	26888.98	3.5940	3.5940	-1.2063	25.97	0.26	-1.500			
0.4238	27122.49	3.5910	3.5909	-1.2176	25.98	0.27	-1.500			
0.4275	27358.89	3.5880	3.5880	-1.2269	25.98	0.27	-1.500			
0.4312	27593.74	3.5850	3.5850	-1.2380	25.98	0.27	-1.500			
0.4349	27831.81	3.5820	3.5821	-1.2516	25.98	0.27	-1.500			
0.4386	28070.79	3.5790	3.5789	-1.2623	25.98	0.27	-1.500			
0.4424	28314.60	3.5760	3.5760	-1.2840	25.99	0.28	-1.500			
0.4463	28564.23	3.5730	3.5730	-1.3061	25.99	0.28	-1.500			
0.4503	28819.83	3.5700	3.5700	-1.3305	25.99	0.28	-1.500			
0.4543	29075.74	3.5670	3.5670	-1.3514	26.00	0.29	-1.500			
0.4583	29334.16	3.5640	3.5641	-1.3712	26.00	0.29	-1.500			
0.4625	29601.17	3.5610	3.5609	-1.3941	26.00	0.29	-1.500			
0.4667	29870.58	3.5580	3.5580	-1.4146	26.01	0.30	-1.500			
0.4710	30145.02	3.5550	3.5550	-1.4329	26.01	0.30	-1.500			
0.4753	30422.07	3.5520	3.5520	-1.4529	26.02	0.31	-1.500			
0.4798	30704.14	3.5490	3.5490	-1.4755	26.02	0.31	-1.500			
0.4842	30988.25	3.5460	3.5460	-1.4899	26.03	0.32	-1.500			
0.4887	31274.97	3.5430	3.5430	-1.5061	26.04	0.33	-1.500			
0.4932	31566.63	3.5400	3.5400	-1.5310	26.04	0.33	-1.500			
0.4978	31862.20	3.5370	3.5370	-1.5497	26.05	0.34	-1.500			
0.5025	32162.39	3.5340	3.5340	-1.5675	26.05	0.34	-1.500			
0.5073	32465.98	3.5310	3.5310	-1.5836	26.06	0.35	-1.500			
0.5121	32771.58	3.5280	3.5279	-1.6009	26.06	0.35	-1.500	0.374	0.541	
0.5169	33082.42	3.5250	3.5250	-1.6135	26.07	0.36	-1.500			
0.5218	33394.09	3.5220	3.5220	-1.6208	26.08	0.37	-1.500			
0.5266	33704.48	3.5190	3.5190	-1.6300	26.09	0.38	-1.500			
0.5315	34017.77	3.5160	3.5160	-1.6391	26.10	0.39	-1.500			
0.5365	34334.05	3.5130	3.5130	-1.6480	26.10	0.39	-1.500			
0.5414	34650.99	3.5100	3.5099	-1.6572	26.12	0.41	-1.500			
0.5465	34973.07	3.5070	3.5070	-1.6715	26.13	0.42	-1.500			
0.5515	35297.48	3.5040	3.5040	-1.6796	26.14	0.43	-1.500			
0.5566	35620.58	3.5010	3.5009	-1.6862	26.15	0.44	-1.500			
0.5616	35943.04	3.4980	3.4980	-1.6840	26.17	0.46	-1.500			
0.5667	36266.91	3.4950	3.4950	-1.6902	26.18	0.47	-1.500			
0.5718	36592.97	3.4920	3.4920	-1.6816	26.19	0.48	-1.500			
0.5768	36912.98	3.4890	3.4891	-1.6729	26.20	0.49	-1.500			
0.5818	37237.79	3.4860	3.4861	-1.6768	26.21	0.50	-1.500			
0.5868	37558.16	3.4830	3.4830	-1.6720	26.23	0.52	-1.500			
0.5918	37877.68	3.4800	3.4800	-1.6658	26.24	0.53	-1.500			
0.5968	38198.39	3.4770	3.4770	-1.6529	26.25	0.54	-1.500			
0.6019	38518.95	3.4740	3.4740	-1.6408	26.27	0.56	-1.500			
0.6068	38832.22	3.4710	3.4710	-1.6247	26.28	0.57	-1.500			
0.6116	39141.03	3.4680	3.4680	-1.6015	26.30	0.59	-1.500			
0.6163	39444.14	3.4650	3.4650	-1.5886	26.31	0.60	-1.500			
0.6210	39745.16	3.4620	3.4620	-1.5702	26.32	0.61	-1.500			
0.6258	40048.08	3.4590	3.4589	-1.5557	26.34	0.63	-1.500			
0.6304	40347.21	3.4560	3.4559	-1.5351	26.35	0.64	-1.500			
0.6350	40641.29	3.4530	3.4531	-1.5210	26.36	0.65	-1.500			
0.6395	40929.76	3.4500	3.4500	-1.4938	26.38	0.67	-1.500			
0.6440	41213.32	3.4470	3.4470	-1.4810	26.40	0.69	-1.500			
0.6484	41497.12	3.4440	3.4439	-1.4562	26.42	0.71	-1.500			
0.6527	41774.78	3.4410	3.4410	-1.4404	26.44	0.73	-1.500			
0.6570	42049.87	3.4380	3.4381	-1.4228	26.46	0.75	-1.500			
0.6613	42322.58	3.4350	3.4350	-1.4059	26.47	0.76	-1.500			
0.6654	42588.72	3.4320	3.4319	-1.3828	26.49	0.78	-1.500			
0.6695	42850.40	3.4290	3.4290	-1.3662	26.51	0.80	-1.500			
0.6736	43110.68	3.4260	3.4260	-1.3466	26.53	0.82	-1.500			
0.6777	43371.72	3.4230	3.4229	-1.3246	26.55	0.84	-1.500			
0.6816	43622.71	3.4200	3.4200	-1.3036	26.56	0.85	-1.500			
0.6855	43871.85	3.4170	3.4171	-1.2772	26.57	0.86	-1.500			
0.6893	44114.01	3.4140	3.4140	-1.2549	26.58	0.87	-1.500			
0.6930	44351.91	3.4110	3.4110	-1.2298	26.60	0.89	-1.500			
0.6967	44586.09	3.4080	3.4080	-1.1992	26.62	0.91	-1.500			
0.7003	44816.84	3.4050	3.4050	-1.1851	26.64	0.93	-1.500			
0.7038	45043.33	3.4020	3.4020	-1.1535	26.66	0.95	-1.500			
0.7072	45261.58	3.3990	3.3990	-1.1214	26.68	0.97	-1.500			
0.7106	45475.73	3.3960	3.3961	-1.0914	26.70	0.99	-1.500			
0.7138	45680.70	3.3930	3.3930	-1.0580	26.71	1.00	-1.500			
0.7169	45880.93	3.3900	3.3900	-1.0286	26.73	1.02	-1.500			
0.7199	46074.08	3.3870	3.3870	-0.9931	26.74	1.03	-1.500			
0.7229	46263.85	3.3840	3.3840	-0.9678	26.76	1.05	-1.500			
0.7258	46448.82	3.3810	3.3810	-0.9401	26.77	1.06	-1.500			
0.7285	46624.48	3.3780	3.3781	-0.9078	26.79	1.08	-1.500			
0.7312	46796.80	3.3750	3.3749	-0.8782	26.80	1.09	-1.500			
0.7338	46961.65	3.3720	3.3719	-0.8457	26.81	1.10	-1.500			
0.7362	47119.95	3.3690	3.3690	-0.8169	26.82	1.11	-1.500			
0.7386	47273.14	3.3660	3.3661	-0.7942	26.83	1.12	-1.500			
0.7410	47424.19	3.3630	3.3629	-0.7732	26.84	1.13	-1.500			
0.7433	47570.39	3.3600	3.3600	-0.7510	26.85	1.14	-1.500			
0.7455	47711.45	3.3570	3.3569	-0.7286	26.86	1.15	-1.500			
0.7477	47850.17	3.3540	3.3541	-0.7128	26.87	1.16	-1.500			
0.7498	47986.29	3.3510	3.3509	-0.6918	26.89	1.18	-1.500			
0.7518	48116.46	3.3480	3.3480	-0.6703	26.90	1.19	-1.500			
0.7538	48242.09	3.3450	3.3450	-0.6486	26.90	1.19	-1.500			
0.7557	48365.01	3.3420	3.3420	-0.6322	26.92	1.21	-1.500			
0.7576	48485.21	3.3390	3.3389	-0.6147	26.93	1.22	-1.500			
0.7594	48600.73	3.3360	3.3360	-0.5989	26.94	1.23	-1.500			
0.7612	48713.90	3.3330	3.3330	-0.5821	26.95	1.24	-1.500			
0.7629	48824.66	3.3300	3.3300	-0.5702	26.96	1.25	-1.500			
0.7646	48932.50	3.3270	3.3270	-0.5554	26.97	1.26	-1.500			
0.7662	49037.99	3.3240	3.3240	-0.5419	26.98	1.27	-1.500			
0.7678	49140.72	3.3210	3.3210	-0.5281	26.98	1.27	-1.500			
0.7694	49240.91	3.3180	3.3181	-0.5151	26.99	1.28	-1.500			
0.7709	49338.44	3.3150	3.3150	-0.4995	27.00	1.29	-1.500			
0.7724	49433.50	3.3120	3.3121	-0.4859	27.01	1.30	-1.500			
0.7738	49524.33	3.3090	3.3090	-0.4730	27.02	1.31	-1.500			
0.7752	49614.04	3.3060	3.3059	-0.4617	27.02	1.31	-1.500			
0.7766	49701.56	3.3030	3.3030	-0.4497	27.03	1.32	-1.500			
0.7779	49786.58	3.3000	3.3000	-0.4390	27.04	1.33	-1.500			
0.7792	49869.87	3.2970	3.2970	-0.4304	27.04	1.33	-1.500			
0.7805	49951.94	3.2940	3.2940	-0.4217	27.05	1.34	-1.500			
0.7817	50031.85	3.2910	3.2909	-0.4102	27.06	1.35	-1.500			
0.7830	50109.27	3.2880	3.2880	-0.4002	27.06	1.35	-1.500			
0.7841	50185.42	3.2850	3.2851	-0.3924	27.07	1.36	-1.500			
0.7853	50259.85	3.2820	3.2820	-0.3838	27.08	1.37	-1.500			
0.7864	50332.50	3.2790	3.2790	-0.3747	27.09	1.38	-1.500			
0.7876	50403.46	3.2760	3.2760	-0.3655	27.09	1.38	-1.500			
0.7886	50472.76	3.2730	3.2731	-0.3579	27.10	1.39	-1.500			
0.7897	50541.28	3.2700	3.2700	-0.3507	27.11	1.40	-1.500			
0.7907	50607.38	3.2670	3.2669	-0.3412	27.12	1.41	-1.500			
0.7917	50671.71	3.2640	3.2641	-0.3333	27.13	1.42	-1.500			
0.7927	50735.00	3.2610	3.2610	-0.3272	27.13	1.42	-1.500			
0.7937	50797.25	3.2580	3.2580	-0.3210	27.14	1.43	-1.500			
0.7947	50858.31	3.2550	3.2550	-0.3156	27.15	1.44	-1.500			
0.7956	50918.34	3.2520	3.2520	-0.3082	27.16	1.45	-1.500			
0.7965	50977.11	3.2490	3.2490	-0.3023	27.16	1.45	-1.500			
0.7974	51033.98	3.2460	3.2461	-0.2975	27.17	1.46	-1.500			
0.7983	51090.44	3.2430	3.2430	-0.2920	27.18	1.47	-1.500			
0.7992	51146.14	3.2400	3.2399	-0.2854	27.18	1.47	-1.500			
0.8000	51200.39	3.2370	3.2370	-0.2805	27.19	1.48	-1.500			
0.8008	51253.73	3.2340	3.2342	-0.2759	27.19	1.48	-1.500			
0.8017	51306.62	3.2310	3.2310	-0.2716	27.20	1.49	-1.500			
0.8025	51357.68	3.2280	3.2278	-0.2663	27.20	1.49	-1.500			
0.8033	51408.23	3.2250	3.2250	-0.2615	27.21	1.50	-1.500			
0.8040	51458.07	3.2220	3.2220	-0.2590	27.21	1.50	-1.500			
0.8048	51507.95	3.2190	3.2190	-0.2556	27.22	1.51	-1.500			
0.8056	51556.36	3.2160	3.2160	-0.2510	27.22	1.51	-1.500			
0.8063	51603.77	3.2130	3.2130	-0.2464	27.23	1.52	-1.500			
0.8070	51650.65	3.2100	3.2101	-0.2424	27.23	1.52	-1.500			
0.8078	51696.78	3.2070	3.2070	-0.2381	27.24	1.53	-1.500			
0.8085	51741.82	3.2040	3.2041	-0.2355	27.24	1.53	-1.500			
0.8092	51786.82	3.2010	3.2009	-0.2323	27.25	1.54	-1.500			
0.8099	51831.15	3.1980	3.1980	-0.2284	27.25	1.54	-1.500			
0.8105	51874.76	3.1950	3.1950	-0.2268	27.26	1.55	-1.500			
0.8112	51917.90	3.1920	3.1920	-0.2232	27.27	1.56	-1.500			
0.8119	51960.58	3.1890	3.1890	-0.2206	27.27	1.56	-1.500			
0.8125	52002.71	3.1860	3.1859	-0.2170	27.28	1.57	-1.500			
0.8132	52044.14	3.1830	3.1831	-0.2140	27.29	1.58	-1.500			
0.8138	52084.42	3.1800	3.1800	-0.2109	27.29	1.58	-1.500			
0.8145	52124.93	3.1770	3.1770	-0.2087	27.30	1.59	-1.500			
0.8151	52164.51	3.1740	3.1740	-0.2074	27.30	1.59	-1.500			
0.8157	52203.65	3.1710	3.1710	-0.2047	27.31	1.60	-1.500			
0.8163	52243.48	3.1680	3.1680	-0.2032	27.32	1.61	-1.500			
0.8169	52282.28	3.1650	3.1650	-0.2010	27.32	1.61	-1.500			
0.8175	52320.94	3.1620	3.1621	-0.1992	27.33	1.62	-1.500			
0.8181	52359.25	3.1590	3.1590	-0.1961	27.33	1.62	-1.500			
0.8187	52396.06	3.1560	3.1559	-0.1939	27.34	1.63	-1.500			
0.8193	52433.08	3.1530	3.1530	-0.1918	27.34	1.63	-1.500			
0.8198	52469.40	3.1500	3.1501	-0.1889	27.35	1.64	-1.500			
0.8204	52505.21	3.1470	3.1469	-0.1883	27.36	1.65	-1.500			
0.8210	52541.57	3.1440	3.1441	-0.1870	27.36	1.65	-1.500			
0.8215	52577.34	3.1410	3.1409	-0.1855	27.37	1.66	-1.500			
0.8221	52612.79	3.1380	3.1379	-0.1832	27.38	1.67	-1.500			
0.8226	52648.17	3.1350	3.1351	-0.1820	27.38	1.67	-1.500			
0.8232	52682.51	3.1320	3.1319	-0.1796	27.39	1.68	-1.500			
0.8237	52716.85	3.1290	3.1290	-0.1781	27.40	1.69	-1.500			
0.8242	52751.14	3.1260	3.1260	-0.1768	27.40	1.69	-1.500			
0.8248	52784.31	3.1230	3.1230	-0.1749	27.41	1.70	-1.500			
0.8253	52818.05	3.1200	3.1200	-0.1745	27.41	1.70	-1.500			
0.8258	52851.47	3.1170	3.1170	-0.1736	27.42	1.71	-1.500			
0.8263	52884.80	3.1140	3.1139	-0.1723	27.43	1.72	-1.500			
0.8268	52917.85	3.1110	3.1110	-0.1706	27.43	1.72	-1.500			
0.8274	52950.54	3.1080	3.1079	-0.1691	27.44	1.73	-1.500			
0.8279	52982.84	3.1050	3.1051	-0.1673	27.45	1.74	-1.500			
0.8284	53014.88	3.1020	3.1020	-0.1657	27.45	1.74	-1.500			
0.8288	53046.35	3.0990	3.0990	-0.1639	27.46	1.75	-1.500			
0.8293	53077.58	3.0960	3.0959	-0.1623	27.46	1.75	-1.500			
0.8298	53108.65	3.0930	3.0931	-0.1607	27.47	1.76	-1.500			
0.8303	53139.27	3.0900	3.0900	-0.1595	27.47	1.76	-1.500			
0.8308	53169.52	3.0870	3.0870	-0.1590	27.47	1.76	-1.500			
0.8313	53200.01	3.0840	3.0840	-0.1586	27.48	1.77	-1.500			
0.8317	53230.35	3.0810	3.0809	-0.1573	27.48	1.77	-1.500			
0.8322	53260.64	3.0780	3.0780	-0.1560	27.49	1.78	-1.500			
0.8327	53290.37	3.0750	3.0750	-0.1557	27.49	1.78	-1.500			
0.8331	53320.36	3.0720	3.0721	-0.1545	27.50	1.79	-1.500			
0.8336	53350.13	3.0690	3.0689	-0.1535	27.50	1.79	-1.500			
0.8341	53379.30	3.0660	3.0659	-0.1526	27.51	1.80	-1.500			
0.8345	53408.34	3.0630	3.0631	-0.1512	27.51	1.80	-1.500			
0.8350	53437.41	3.0600	3.0600	-0.1504	27.52	1.81	-1.500			
0.8354	53466.47	3.0570	3.0569	-0.1497	27.52	1.81	-1.500			
0.8359	53495.14	3.0540	3.0541	-0.1489	27.53	1.82	-1.500			
0.8363	53523.39	3.0510	3.0510	-0.1472	27.54	1.83	-1.500			
0.8367	53551.89	3.0480	3.0480	-0.1468	27.54	1.83	-1.500			
0.8372	53579.92	3.0450	3.0449	-0.1453	27.55	1.84	-1.500			
0.8376	53607.45	3.0420	3.0420	-0.1443	27.56	1.85	-1.500			
0.8380	53634.92	3.0390	3.0392	-0.1439	27.56	1.85	-1.500			
0.8385	53662.59	3.0360	3.0359	-0.1431	27.57	1.86	-1.500			
0.8389	53690.01	3.0330	3.0329	-0.1425	27.58	1.87	-1.500			
0.8393	53717.28	3.0300	3.0300	-0.1416	27.58	1.87	-1.500			
0.8398	53744.84	3.0270	3.0271	-0.1403	27.59	1.88	-1.500			
0.8402	53771.47	3.0240	3.0240	-0.1397	27.60	1.89	-1.500			
0.8406	53798.17	3.0210	3.0210	-0.1383	27.60	1.89	-1.500			
0.8410	53824.42	3.0180	3.0181	-0.1370	27.61	1.90	-1.500			
0.8414	53850.27	3.0150	3.0149	-0.1360	27.61	1.90	-1.500			
0.8418	53876.33	3.0120	3.0119	-0.1358	27.62	1.91	-1.500			
0.8422	53902.41	3.0090	3.0092	-0.1358	27.63	1.92	-1.500			
0.8426	53928.37	3.0060	3.0060	-0.1364	27.63	1.92	-1.500			
0.8430	53954.58	3.0030	3.0030	-0.1329	27.64	1.93	-1.500			
