Ah_balance (normalized)	Ah_balance (mAh)	Voltage - fit (V)	Voltage -  interpolate (V)	dQ/dV (1/V)	Temperature (°C)	Temperature - diff (°C)	Current (C)	R_DC 0ms (mOhm)	R_DC 50ms (mOhm)	R_DC 50 ms PEC (mOhm)
0.2002	12812.30	3.9110	3.9110	-0.1203	25.95	-0.02	-1.500			
0.2006	12840.06	3.9080	3.9080	-0.1615	25.96	-0.01	-1.500			
0.2012	12875.22	3.9050	3.9050	-0.1990	25.96	-0.01	-1.500			
0.2018	12917.44	3.9020	3.9020	-0.2338	25.96	-0.01	-1.500			
0.2026	12966.22	3.8990	3.8990	-0.2651	25.96	-0.01	-1.500			
0.2035	13021.00	3.8960	3.8961	-0.2989	25.96	-0.01	-1.500			
0.2044	13081.05	3.8930	3.8931	-0.3329	25.96	-0.01	-1.500			
0.2054	13147.78	3.8900	3.8899	-0.3641	25.96	-0.01	-1.500			
0.2066	13220.89	3.8870	3.8870	-0.3973	25.96	-0.01	-1.500			
0.2078	13300.03	3.8840	3.8841	-0.4313	25.96	-0.01	-1.500			
0.2092	13387.16	3.8810	3.8810	-0.4654	25.96	-0.01	-1.500			
0.2106	13479.74	3.8780	3.8780	-0.4988	25.96	-0.01	-1.500			
0.2122	13577.62	3.8750	3.8750	-0.5315	25.96	-0.01	-1.500			
0.2138	13683.06	3.8720	3.8721	-0.5641	25.97	-0.00	-1.500			
0.2155	13794.87	3.8690	3.8689	-0.5974	25.97	-0.00	-1.500			
0.2174	13913.40	3.8660	3.8660	-0.6253	25.97	-0.00	-1.500			
0.2193	14037.33	3.8630	3.8633	-0.6531	25.97	-0.00	-1.500			
0.2214	14166.53	3.8600	3.8599	-0.6763	25.97	0.00	-1.500			
0.2234	14299.54	3.8570	3.8571	-0.6968	25.97	0.00	-1.500			
0.2255	14435.10	3.8540	3.8540	-0.7159	25.97	0.00	-1.500			
0.2277	14575.31	3.8510	3.8510	-0.7302	25.98	0.01	-1.500			
0.2299	14716.60	3.8480	3.8480	-0.7433	25.98	0.01	-1.500			
0.2322	14861.15	3.8450	3.8450	-0.7576	25.98	0.01	-1.500			
0.2345	15007.42	3.8420	3.8420	-0.7660	25.98	0.01	-1.500			
0.2368	15156.15	3.8390	3.8389	-0.7798	25.98	0.01	-1.500			
0.2392	15306.75	3.8360	3.8360	-0.7874	25.99	0.02	-1.500			
0.2416	15459.69	3.8330	3.8330	-0.7934	25.99	0.02	-1.500			
0.2440	15613.66	3.8300	3.8300	-0.8008	25.99	0.02	-1.500			
0.2464	15767.35	3.8270	3.8270	-0.8052	25.99	0.02	-1.500			
0.2488	15922.25	3.8240	3.8240	-0.8111	26.00	0.03	-1.500			
0.2512	16078.98	3.8210	3.8209	-0.8142	26.00	0.03	-1.500			
0.2537	16234.97	3.8180	3.8180	-0.8169	26.00	0.03	-1.500			
0.2561	16392.48	3.8150	3.8150	-0.8250	26.00	0.03	-1.500			
0.2586	16551.86	3.8120	3.8120	-0.8279	26.01	0.04	-1.500			
0.2611	16710.87	3.8090	3.8090	-0.8329	26.01	0.04	-1.500			
0.2636	16871.26	3.8060	3.8060	-0.8368	26.01	0.04	-1.500			
0.2662	17033.86	3.8030	3.8030	-0.8377	26.02	0.05	-1.500			
0.2687	17195.50	3.8000	3.7999	-0.8392	26.02	0.05	-1.500			
0.2712	17356.20	3.7970	3.7971	-0.8406	26.02	0.05	-1.500			
0.2737	17516.71	3.7940	3.7940	-0.8428	26.03	0.06	-1.500			
0.2762	17678.79	3.7910	3.7909	-0.8473	26.04	0.07	-1.500			
0.2788	17841.34	3.7880	3.7880	-0.8475	26.04	0.07	-1.500			
0.2813	18005.01	3.7850	3.7849	-0.8515	26.05	0.08	-1.500			
0.2839	18169.64	3.7820	3.7820	-0.8527	26.05	0.08	-1.500			
0.2865	18333.57	3.7790	3.7790	-0.8540	26.06	0.09	-1.500			
0.2890	18497.37	3.7760	3.7759	-0.8527	26.07	0.10	-1.500			
0.2916	18660.80	3.7730	3.7731	-0.8534	26.07	0.10	-1.500			
0.2941	18824.93	3.7700	3.7701	-0.8557	26.08	0.11	-1.500			
0.2967	18989.99	3.7670	3.7669	-0.8602	26.09	0.12	-1.500			
0.2993	19154.58	3.7640	3.7640	-0.8632	26.09	0.12	-1.500			
0.3019	19320.89	3.7610	3.7610	-0.8648	26.10	0.13	-1.500			
0.3045	19486.50	3.7580	3.7580	-0.8676	26.11	0.14	-1.500			
0.3071	19655.04	3.7550	3.7550	-0.8678	26.12	0.15	-1.500			
0.3097	19821.48	3.7520	3.7520	-0.8658	26.12	0.15	-1.500			
0.3123	19988.02	3.7490	3.7490	-0.8694	26.13	0.16	-1.500			
0.3149	20155.05	3.7460	3.7459	-0.8678	26.14	0.17	-1.500			
0.3175	20322.07	3.7430	3.7430	-0.8643	26.14	0.17	-1.500			
0.3201	20487.48	3.7400	3.7401	-0.8671	26.15	0.18	-1.500			
0.3227	20653.89	3.7370	3.7371	-0.8676	26.16	0.19	-1.500			
0.3253	20821.30	3.7340	3.7339	-0.8689	26.16	0.19	-1.500			
0.3279	20986.13	3.7310	3.7309	-0.8641	26.17	0.20	-1.500			
0.3305	21154.10	3.7280	3.7281	-0.8702	26.18	0.21	-1.500			
0.3332	21321.86	3.7250	3.7250	-0.8696	26.18	0.21	-1.500			
0.3358	21488.62	3.7220	3.7220	-0.8687	26.19	0.22	-1.500			
0.3383	21652.51	3.7190	3.7190	-0.8660	26.20	0.23	-1.500			
0.3409	21820.36	3.7160	3.7159	-0.8677	26.20	0.23	-1.500			
0.3435	21986.62	3.7130	3.7130	-0.8718	26.21	0.24	-1.500			
0.3462	22154.62	3.7100	3.7099	-0.8741	26.21	0.24	-1.500			
0.3488	22322.81	3.7070	3.7070	-0.8773	26.22	0.25	-1.500			
0.3514	22491.70	3.7040	3.7039	-0.8829	26.23	0.26	-1.500			
0.3541	22660.73	3.7010	3.7011	-0.8828	26.23	0.26	-1.500			
0.3567	22831.30	3.6980	3.6979	-0.8841	26.24	0.27	-1.500			
0.3594	23002.52	3.6950	3.6950	-0.8873	26.25	0.28	-1.500			
0.3621	23171.42	3.6920	3.6920	-0.8864	26.25	0.28	-1.500			
0.3647	23341.16	3.6890	3.6890	-0.8983	26.26	0.29	-1.500			
0.3674	23512.95	3.6860	3.6860	-0.9049	26.27	0.30	-1.500			
0.3701	23686.62	3.6830	3.6830	-0.9193	26.27	0.30	-1.500			
0.3729	23866.06	3.6800	3.6801	-0.9340	26.28	0.31	-1.500			
0.3757	24045.40	3.6770	3.6770	-0.9528	26.28	0.31	-1.500			
0.3786	24228.85	3.6740	3.6740	-0.9745	26.29	0.32	-1.500			
0.3815	24418.93	3.6710	3.6710	-0.9890	26.29	0.32	-1.500			
0.3845	24610.18	3.6680	3.6679	-1.0114	26.30	0.33	-1.500			
0.3876	24808.25	3.6650	3.6651	-1.0316	26.31	0.34	-1.500			
0.3908	25008.22	3.6620	3.6620	-1.0474	26.31	0.34	-1.500			
0.3939	25211.88	3.6590	3.6591	-1.0702	26.32	0.35	-1.500			
0.3972	25417.80	3.6560	3.6559	-1.0825	26.32	0.35	-1.500			
0.4004	25624.87	3.6530	3.6530	-1.1000	26.32	0.35	-1.500			
0.4037	25838.37	3.6500	3.6501	-1.1257	26.33	0.36	-1.500			
0.4071	26054.31	3.6470	3.6469	-1.1471	26.33	0.36	-1.500			
0.4106	26279.32	3.6440	3.6440	-1.1725	26.33	0.36	-1.500			
0.4141	26505.40	3.6410	3.6410	-1.2030	26.34	0.37	-1.500			
0.4178	26736.74	3.6380	3.6380	-1.2359	26.34	0.37	-1.500			
0.4216	26979.88	3.6350	3.6349	-1.2672	26.34	0.37	-1.500			
0.4254	27225.05	3.6320	3.6320	-1.2978	26.34	0.37	-1.500			
0.4293	27477.19	3.6290	3.6291	-1.3319	26.34	0.37	-1.500			
0.4334	27738.14	3.6260	3.6260	-1.3678	26.34	0.37	-1.500			
0.4376	28005.53	3.6230	3.6229	-1.3948	26.34	0.37	-1.500			
0.4418	28272.88	3.6200	3.6200	-1.4243	26.34	0.37	-1.500			
0.4461	28550.84	3.6170	3.6170	-1.4524	26.34	0.37	-1.500			
0.4505	28830.61	3.6140	3.6140	-1.5015	26.34	0.37	-1.500			
0.4550	29122.47	3.6110	3.6110	-1.5258	26.34	0.37	-1.500			
0.4597	29419.06	3.6080	3.6080	-1.5526	26.34	0.37	-1.500			
0.4644	29721.78	3.6050	3.6050	-1.5874	26.34	0.37	-1.500			
0.4692	30030.68	3.6020	3.6023	-1.6223	26.34	0.37	-1.500			
0.4741	30343.59	3.5990	3.5989	-1.6468	26.34	0.37	-1.500			
0.4791	30664.12	3.5960	3.5959	-1.6794	26.34	0.37	-1.500			
0.4842	30985.92	3.5930	3.5931	-1.7038	26.34	0.37	-1.500			
0.4894	31321.34	3.5900	3.5899	-1.7395	26.34	0.37	-1.500			
0.4946	31655.49	3.5870	3.5871	-1.7585	26.34	0.37	-1.500			
0.4999	31994.02	3.5840	3.5840	-1.7758	26.33	0.36	-1.500			
0.5052	32335.22	3.5810	3.5811	-1.8036	26.33	0.36	-1.500			
0.5107	32682.25	3.5780	3.5779	-1.8401	26.32	0.35	-1.500			
0.5162	33038.99	3.5750	3.5751	-1.8830	26.31	0.34	-1.500			
0.5220	33404.89	3.5720	3.5720	-1.9151	26.31	0.34	-1.500			
0.5278	33780.43	3.5690	3.5690	-1.9560	26.31	0.34	-1.500			
0.5337	34159.67	3.5660	3.5660	-1.9742	26.30	0.33	-1.500			
0.5397	34543.28	3.5630	3.5630	-1.9974	26.30	0.33	-1.500			
0.5457	34925.98	3.5600	3.5601	-2.0246	26.30	0.33	-1.500			
0.5518	35317.40	3.5570	3.5569	-2.0360	26.30	0.33	-1.500			
0.5580	35709.40	3.5540	3.5540	-2.0537	26.30	0.33	-1.500			
0.5642	36106.47	3.5510	3.5506	-2.0613	26.30	0.33	-1.500	0.388	0.492	
0.5704	36508.76	3.5480	3.5480	-2.0618	26.30	0.33	-1.500			
0.5766	36900.63	3.5450	3.5450	-2.0780	26.30	0.33	-1.500			
0.5828	37298.75	3.5420	3.5420	-2.0942	26.30	0.33	-1.500			
0.5891	37701.44	3.5390	3.5388	-2.1088	26.30	0.33	-1.500			
0.5955	38110.16	3.5360	3.5361	-2.1176	26.30	0.33	-1.500			
0.6019	38523.22	3.5330	3.5330	-2.1306	26.30	0.33	-1.500			
0.6084	38935.30	3.5300	3.5300	-2.1227	26.30	0.33	-1.500			
0.6147	39341.87	3.5270	3.5269	-2.0981	26.30	0.33	-1.500			
0.6210	39744.57	3.5240	3.5240	-2.0726	26.30	0.33	-1.500			
0.6272	40140.67	3.5210	3.5210	-2.0417	26.31	0.34	-1.500			
0.6333	40529.85	3.5180	3.5180	-2.0026	26.31	0.34	-1.500			
0.6392	40907.17	3.5150	3.5149	-1.9609	26.32	0.35	-1.500			
0.6451	41284.73	3.5120	3.5120	-1.9423	26.32	0.35	-1.500			
0.6508	41651.56	3.5090	3.5090	-1.9163	26.33	0.36	-1.500			
0.6565	42016.33	3.5060	3.5059	-1.8995	26.34	0.37	-1.500			
0.6622	42377.81	3.5030	3.5030	-1.8832	26.35	0.38	-1.500			
0.6678	42740.70	3.5000	3.5001	-1.8730	26.36	0.39	-1.500			
0.6734	43098.78	3.4970	3.4969	-1.8622	26.37	0.40	-1.500			
0.6790	43454.74	3.4940	3.4940	-1.8423	26.38	0.41	-1.500			
0.6845	43807.39	3.4910	3.4910	-1.8205	26.38	0.41	-1.500			
0.6899	44153.58	3.4880	3.4881	-1.7977	26.39	0.42	-1.500			
0.6953	44500.21	3.4850	3.4850	-1.7808	26.40	0.43	-1.500			
0.7006	44839.53	3.4820	3.4820	-1.7641	26.42	0.45	-1.500			
0.7059	45178.54	3.4790	3.4790	-1.7400	26.43	0.46	-1.500			
0.7111	45509.25	3.4760	3.4760	-1.7144	26.44	0.47	-1.500			
0.7162	45839.86	3.4730	3.4730	-1.6941	26.45	0.48	-1.500			
0.7213	46161.82	3.4700	3.4700	-1.6661	26.46	0.49	-1.500			
0.7262	46477.19	3.4670	3.4669	-1.6403	26.48	0.51	-1.500			
0.7311	46789.24	3.4640	3.4640	-1.6108	26.49	0.52	-1.500			
0.7359	47095.52	3.4610	3.4610	-1.5781	26.50	0.53	-1.500			
0.7406	47398.40	3.4580	3.4580	-1.5573	26.51	0.54	-1.500			
0.7452	47692.75	3.4550	3.4551	-1.5257	26.52	0.55	-1.500			
0.7497	47982.83	3.4520	3.4520	-1.4995	26.54	0.57	-1.500			
0.7541	48263.62	3.4490	3.4490	-1.4861	26.56	0.59	-1.500			
0.7586	48550.06	3.4460	3.4459	-1.4659	26.58	0.61	-1.500			
0.7630	48830.73	3.4430	3.4430	-1.4547	26.60	0.63	-1.500			
0.7673	49107.88	3.4400	3.4401	-1.4416	26.62	0.65	-1.500			
0.7716	49382.70	3.4370	3.4370	-1.4306	26.63	0.66	-1.500			
0.7759	49657.64	3.4340	3.4339	-1.4302	26.66	0.69	-1.500			
0.7801	49929.00	3.4310	3.4309	-1.4245	26.68	0.71	-1.500			
0.7844	50203.64	3.4280	3.4280	-1.4184	26.70	0.73	-1.500			
0.7887	50478.70	3.4250	3.4251	-1.4148	26.72	0.75	-1.500			
0.7930	50750.52	3.4220	3.4219	-1.4025	26.74	0.77	-1.500			
0.7972	51018.75	3.4190	3.4189	-1.3884	26.77	0.80	-1.500			
0.8013	51282.67	3.4160	3.4160	-1.3615	26.79	0.82	-1.500			
0.8054	51544.66	3.4130	3.4130	-1.3437	26.81	0.84	-1.500			
0.8094	51799.11	3.4100	3.4101	-1.3073	26.84	0.87	-1.500			
0.8133	52052.14	3.4070	3.4069	-1.2827	26.86	0.89	-1.500			
0.8171	52294.53	3.4040	3.4040	-1.2374	26.88	0.91	-1.500			
0.8208	52528.48	3.4010	3.4011	-1.1951	26.90	0.93	-1.500			
0.8243	52754.74	3.3980	3.3980	-1.1512	26.92	0.95	-1.500			
0.8277	52971.51	3.3950	3.3950	-1.1088	26.93	0.96	-1.500			
0.8309	53179.03	3.3920	3.3920	-1.0578	26.95	0.98	-1.500			
0.8340	53377.27	3.3890	3.3889	-1.0154	26.97	1.00	-1.500			
0.8370	53567.84	3.3860	3.3860	-0.9677	26.98	1.01	-1.500			
0.8398	53749.53	3.3830	3.3830	-0.9247	27.00	1.03	-1.500			
0.8425	53920.94	3.3800	3.3799	-0.8830	27.02	1.05	-1.500			
0.8451	54085.82	3.3770	3.3770	-0.8472	27.03	1.06	-1.500			
0.8475	54242.07	3.3740	3.3741	-0.8100	27.05	1.08	-1.500			
0.8499	54395.01	3.3710	3.3710	-0.7843	27.06	1.09	-1.500			
0.8522	54541.86	3.3680	3.3680	-0.7560	27.07	1.10	-1.500			
0.8545	54686.33	3.3650	3.3649	-0.7364	27.09	1.12	-1.500			
0.8566	54824.61	3.3620	3.3620	-0.7092	27.10	1.13	-1.500			
0.8587	54958.67	3.3590	3.3591	-0.6838	27.11	1.14	-1.500			
0.8607	55087.32	3.3560	3.3559	-0.6596	27.12	1.15	-1.500			
0.8627	55211.47	3.3530	3.3531	-0.6405	27.13	1.16	-1.500			
0.8646	55331.54	3.3500	3.3500	-0.6135	27.14	1.17	-1.500			
0.8664	55446.78	3.3470	3.3469	-0.5929	27.15	1.18	-1.500			
0.8681	55559.23	3.3440	3.3441	-0.5744	27.16	1.19	-1.500			
0.8698	55667.25	3.3410	3.3410	-0.5549	27.17	1.20	-1.500			
0.8714	55771.41	3.3380	3.3378	-0.5362	27.18	1.21	-1.500			
0.8730	55871.30	3.3350	3.3351	-0.5194	27.19	1.22	-1.500			
0.8745	55969.77	3.3320	3.3319	-0.5029	27.20	1.23	-1.500			
0.8760	56065.72	3.3290	3.3290	-0.4891	27.21	1.24	-1.500			
0.8775	56157.81	3.3260	3.3260	-0.4714	27.22	1.25	-1.500			
0.8789	56246.94	3.3230	3.3230	-0.4565	27.22	1.25	-1.500			
0.8802	56333.23	3.3200	3.3201	-0.4414	27.23	1.26	-1.500			
0.8815	56415.92	3.3170	3.3169	-0.4237	27.24	1.27	-1.500			
0.8827	56495.43	3.3140	3.3140	-0.4091	27.25	1.28	-1.500			
0.8840	56572.99	3.3110	3.3110	-0.3945	27.25	1.28	-1.500			
0.8851	56646.17	3.3080	3.3079	-0.3804	27.26	1.29	-1.500			
0.8862	56718.24	3.3050	3.3050	-0.3666	27.27	1.30	-1.500			
0.8873	56786.83	3.3020	3.3020	-0.3549	27.27	1.30	-1.500			
0.8883	56853.63	3.2990	3.2990	-0.3446	27.28	1.31	-1.500			
0.8894	56919.16	3.2960	3.2959	-0.3348	27.28	1.31	-1.500			
0.8903	56982.30	3.2930	3.2929	-0.3216	27.29	1.32	-1.500			
0.8913	57043.18	3.2900	3.2901	-0.3123	27.29	1.32	-1.500			
0.8922	57101.69	3.2870	3.2870	-0.3006	27.30	1.33	-1.500			
0.8931	57159.00	3.2840	3.2839	-0.2907	27.30	1.33	-1.500			
0.8939	57212.34	3.2810	3.2809	-0.2809	27.31	1.34	-1.500			
0.8948	57265.86	3.2780	3.2780	-0.2698	27.31	1.34	-1.500			
0.8956	57316.86	3.2750	3.2750	-0.2622	27.32	1.35	-1.500			
0.8964	57366.54	3.2720	3.2722	-0.2552	27.33	1.36	-1.500			
0.8971	57413.71	3.2690	3.2690	-0.2457	27.33	1.36	-1.500			
0.8978	57460.36	3.2660	3.2661	-0.2395	27.34	1.37	-1.500			
0.8985	57505.60	3.2630	3.2630	-0.2330	27.35	1.38	-1.500			
0.8992	57549.35	3.2600	3.2600	-0.2268	27.35	1.38	-1.500			
0.8999	57593.57	3.2570	3.2570	-0.2219	27.36	1.39	-1.500			
0.9005	57634.93	3.2540	3.2540	-0.2135	27.36	1.39	-1.500			
0.9012	57675.27	3.2510	3.2510	-0.2067	27.37	1.40	-1.500			
0.9018	57714.40	3.2480	3.2480	-0.2004	27.37	1.40	-1.500			
0.9024	57752.02	3.2450	3.2450	-0.1945	27.38	1.41	-1.500			
0.9029	57788.35	3.2420	3.2420	-0.1889	27.38	1.41	-1.500			
0.9035	57824.14	3.2390	3.2390	-0.1839	27.39	1.42	-1.500			
0.9040	57858.50	3.2360	3.2359	-0.1796	27.39	1.42	-1.500			
0.9046	57892.67	3.2330	3.2330	-0.1758	27.40	1.43	-1.500			
0.9051	57926.22	3.2300	3.2299	-0.1714	27.40	1.43	-1.500			
0.9056	57958.66	3.2270	3.2270	-0.1673	27.40	1.43	-1.500			
0.9061	57990.49	3.2240	3.2241	-0.1632	27.41	1.44	-1.500			
0.9066	58021.34	3.2210	3.2211	-0.1593	27.41	1.44	-1.500			
0.9071	58051.34	3.2180	3.2179	-0.1554	27.42	1.45	-1.500			
0.9075	58080.77	3.2150	3.2149	-0.1521	27.42	1.45	-1.500			
0.9080	58109.45	3.2120	3.2121	-0.1487	27.42	1.45	-1.500			
0.9084	58137.63	3.2090	3.2090	-0.1457	27.43	1.46	-1.500			
0.9088	58165.33	3.2060	3.2059	-0.1434	27.43	1.46	-1.500			
0.9093	58192.44	3.2030	3.2031	-0.1405	27.44	1.47	-1.500			
0.9097	58219.38	3.2000	3.1999	-0.1372	27.44	1.47	-1.500			
0.9101	58245.24	3.1970	3.1970	-0.1351	27.44	1.47	-1.500			
0.9105	58270.89	3.1940	3.1943	-0.1326	27.45	1.48	-1.500			
0.9109	58295.96	3.1910	3.1910	-0.1306	27.45	1.48	-1.500			
0.9113	58321.13	3.1880	3.1878	-0.1281	27.45	1.48	-1.500			
0.9116	58345.53	3.1850	3.1850	-0.1258	27.46	1.49	-1.500			
0.9120	58369.46	3.1820	3.1821	-0.1235	27.46	1.49	-1.500			
0.9124	58392.91	3.1790	3.1791	-0.1213	27.46	1.49	-1.500			
0.9128	58416.53	3.1760	3.1761	-0.1194	27.47	1.50	-1.500			
0.9131	58438.41	3.1730	3.1730	-0.1168	27.47	1.50	-1.500			
0.9134	58460.71	3.1700	3.1699	-0.1155	27.47	1.50	-1.500			
0.9138	58482.57	3.1670	3.1670	-0.1138	27.48	1.51	-1.500			
0.9141	58504.34	3.1640	3.1639	-0.1130	27.48	1.51	-1.500			
0.9145	58526.34	3.1610	3.1611	-0.1115	27.48	1.51	-1.500			
0.9148	58547.57	3.1580	3.1579	-0.1096	27.49	1.52	-1.500			
0.9151	58568.44	3.1550	3.1551	-0.1082	27.49	1.52	-1.500			
0.9155	58589.05	3.1520	3.1519	-0.1064	27.49	1.52	-1.500			
0.9158	58609.08	3.1490	3.1490	-0.1050	27.49	1.52	-1.500			
0.9161	58629.12	3.1460	3.1459	-0.1038	27.50	1.53	-1.500			
0.9164	58648.89	3.1430	3.1430	-0.1023	27.50	1.53	-1.500			
0.9167	58668.42	3.1400	3.1401	-0.1011	27.50	1.53	-1.500			
0.9170	58687.97	3.1370	3.1371	-0.0998	27.50	1.53	-1.500			
0.9173	58706.95	3.1340	3.1340	-0.0980	27.51	1.54	-1.500			
0.9176	58725.39	3.1310	3.1310	-0.0969	27.51	1.54	-1.500			
0.9179	58743.89	3.1280	3.1280	-0.0957	27.51	1.54	-1.500			
0.9182	58761.90	3.1250	3.1249	-0.0945	27.52	1.55	-1.500			
0.9184	58779.98	3.1220	3.1220	-0.0938	27.52	1.55	-1.500			
0.9187	58798.00	3.1190	3.1191	-0.0927	27.52	1.55	-1.500			
0.9190	58815.72	3.1160	3.1160	-0.0918	27.53	1.56	-1.500			
0.9193	58833.25	3.1130	3.1132	-0.0911	27.53	1.56	-1.500			
0.9195	58850.83	3.1100	3.1100	-0.0903	27.53	1.56	-1.500			
0.9198	58868.04	3.1070	3.1070	-0.0894	27.54	1.57	-1.500			
0.9201	58884.96	3.1040	3.1039	-0.0883	27.54	1.57	-1.500			
0.9203	58901.83	3.1010	3.1010	-0.0874	27.54	1.57	-1.500			
0.9206	58918.54	3.0980	3.0981	-0.0867	27.55	1.58	-1.500			
0.9209	58935.14	3.0950	3.0950	-0.0862	27.55	1.58	-1.500			
0.9211	58951.61	3.0920	3.0920	-0.0854	27.55	1.58	-1.500			
0.9214	58967.89	3.0890	3.0891	-0.0844	27.56	1.59	-1.500			
0.9216	58984.02	3.0860	3.0859	-0.0837	27.56	1.59	-1.500			
0.9219	59000.01	3.0830	3.0832	-0.0829	27.56	1.59	-1.500			
0.9221	59015.97	3.0800	3.0800	-0.0821	27.56	1.59	-1.500			
0.9224	59031.64	3.0770	3.0769	-0.0812	27.57	1.60	-1.500			
0.9226	59047.23	3.0740	3.0740	-0.0803	27.57	1.60	-1.500			
0.9229	59062.42	3.0710	3.0709	-0.0800	27.57	1.60	-1.500			
0.9231	59077.53	3.0680	3.0681	-0.0792	27.58	1.61	-1.500			
0.9233	59092.86	3.0650	3.0649	-0.0785	27.58	1.61	-1.500			
0.9236	59107.86	3.0620	3.0619	-0.0778	27.58	1.61	-1.500			
0.9238	59122.79	3.0590	3.0592	-0.0772	27.58	1.61	-1.500			
0.9240	59137.46	3.0560	3.0559	-0.0769	27.59	1.62	-1.500			
0.9243	59152.23	3.0530	3.0532	-0.0765	27.59	1.62	-1.500			
0.9245	59166.85	3.0500	3.0499	-0.0759	27.59	1.62	-1.500			
0.9247	59181.35	3.0470	3.0470	-0.0755	27.60	1.63	-1.500			
0.9249	59195.58	3.0440	3.0440	-0.0748	27.60	1.63	-1.500			
0.9252	59210.04	3.0410	3.0410	-0.0743	27.60	1.63	-1.500			
0.9254	59224.26	3.0380	3.0381	-0.0739	27.60	1.63	-1.500			
0.9256	59238.65	3.0350	3.0350	-0.0736	27.61	1.64	-1.500			
0.9258	59252.62	3.0320	3.0322	-0.0732	27.61	1.64	-1.500			
0.9260	59266.51	3.0290	3.0289	-0.0724	27.61	1.64	-1.500			
0.9263	59280.38	3.0260	3.0260	-0.0720	27.61	1.64	-1.500			
0.9265	59294.23	3.0230	3.0229	-0.0713	27.62	1.65	-1.500			
0.9267	59307.91	3.0200	3.0200	-0.0708	27.62	1.65	-1.500			
0.9269	59321.34	3.0170	3.0171	-0.0704	27.62	1.65	-1.500			
0.9271	59334.83	3.0140	3.0140	-0.0700	27.62	1.65	-1.500			
0.9273	59348.21	3.0110	3.0109	-0.0696	27.63	1.66	-1.500			
0.9275	59361.53	3.0080	3.0081	-0.0692	27.63	1.66	-1.500			
0.9277	59374.56	3.0050	3.0048	-0.0699	27.63	1.66	-1.500			
0.9279	59388.05	3.0020	3.0020	-0.0706	27.63	1.66	-1.499			
