Ah_balance (normalized)	Ah_balance (mAh)	Voltage - fit (V)	Voltage -  interpolate (V)	dQ/dV (1/V)	Temperature (°C)	Temperature - diff (°C)	Current (C)	R_DC 0ms (mOhm)	R_DC 50ms (mOhm)	R_DC 50 ms PEC (mOhm)
0.2900	18560.73	3.9890	3.9889	0.8190	27.43	1.47	1.500			
0.2925	18717.53	3.9860	3.9861	0.8251	27.42	1.46	1.500			
0.2950	18878.00	3.9830	3.9830	0.8355	27.41	1.45	1.500			
0.2975	19040.11	3.9800	3.9800	0.8375	27.41	1.45	1.500			
0.3000	19202.50	3.9770	3.9771	0.8394	27.40	1.44	1.500			
0.3025	19362.59	3.9740	3.9741	0.8434	27.40	1.44	1.500			
0.3051	19525.75	3.9710	3.9709	0.8492	27.39	1.43	1.500			
0.3076	19687.60	3.9680	3.9680	0.8531	27.38	1.42	1.500			
0.3102	19851.03	3.9650	3.9650	0.8582	27.38	1.42	1.500			
0.3128	20018.87	3.9620	3.9620	0.8659	27.37	1.41	1.500			
0.3154	20186.82	3.9590	3.9590	0.8689	27.36	1.40	1.500			
0.3180	20353.47	3.9560	3.9560	0.8719	27.36	1.40	1.500			
0.3206	20520.22	3.9530	3.9530	0.8704	27.35	1.39	1.500			
0.3232	20686.53	3.9500	3.9500	0.8752	27.35	1.39	1.500			
0.3259	20854.63	3.9470	3.9470	0.8794	27.34	1.38	1.500			
0.3285	21023.67	3.9440	3.9440	0.8857	27.34	1.38	1.500			
0.3312	21194.59	3.9410	3.9410	0.8936	27.33	1.37	1.500			
0.3339	21366.73	3.9380	3.9381	0.9011	27.33	1.37	1.500			
0.3366	21541.28	3.9350	3.9349	0.9033	27.33	1.37	1.500			
0.3393	21715.49	3.9320	3.9321	0.9118	27.32	1.36	1.500			
0.3421	21891.21	3.9290	3.9290	0.9115	27.32	1.36	1.500			
0.3448	22066.81	3.9260	3.9261	0.9165	27.31	1.35	1.500			
0.3475	22242.88	3.9230	3.9230	0.9199	27.31	1.35	1.500			
0.3503	22418.41	3.9200	3.9200	0.9258	27.30	1.34	1.500			
0.3531	22597.08	3.9170	3.9169	0.9333	27.29	1.33	1.500			
0.3559	22776.41	3.9140	3.9141	0.9373	27.29	1.33	1.500			
0.3587	22957.52	3.9110	3.9110	0.9429	27.28	1.32	1.500			
0.3616	23140.84	3.9080	3.9081	0.9478	27.27	1.31	1.500			
0.3644	23321.38	3.9050	3.9050	0.9603	27.27	1.31	1.500			
0.3673	23506.92	3.9020	3.9020	0.9688	27.26	1.30	1.500			
0.3702	23694.26	3.8990	3.8989	0.9743	27.25	1.29	1.500			
0.3732	23882.28	3.8960	3.8961	0.9866	27.24	1.28	1.500			
0.3762	24074.02	3.8930	3.8931	0.9989	27.23	1.27	1.500			
0.3792	24266.80	3.8900	3.8900	1.0051	27.22	1.26	1.500			
0.3822	24459.92	3.8870	3.8869	1.0067	27.22	1.26	1.500			
0.3852	24654.46	3.8840	3.8841	1.0147	27.21	1.25	1.500			
0.3883	24850.27	3.8810	3.8810	1.0284	27.20	1.24	1.500			
0.3914	25046.90	3.8780	3.8780	1.0415	27.19	1.23	1.500			
0.3945	25246.67	3.8750	3.8750	1.0523	27.18	1.22	1.500			
0.3977	25451.07	3.8720	3.8720	1.0680	27.17	1.21	1.500			
0.4009	25659.54	3.8690	3.8690	1.0833	27.16	1.20	1.500			
0.4042	25868.82	3.8660	3.8660	1.0954	27.14	1.18	1.500			
0.4075	26080.58	3.8630	3.8630	1.1079	27.13	1.17	1.500			
0.4108	26292.82	3.8600	3.8600	1.1147	27.12	1.16	1.500			
0.4142	26506.99	3.8570	3.8570	1.1304	27.11	1.15	1.500			
0.4176	26725.01	3.8540	3.8541	1.1480	27.10	1.14	1.500			
0.4211	26947.83	3.8510	3.8508	1.1625	27.09	1.13	1.500			
0.4246	27173.82	3.8480	3.8480	1.1800	27.08	1.12	1.500			
0.4281	27401.58	3.8450	3.8451	1.1934	27.07	1.11	1.500			
0.4318	27632.03	3.8420	3.8420	1.2091	27.06	1.10	1.500			
0.4354	27863.84	3.8390	3.8390	1.2253	27.04	1.08	1.500			
0.4390	28098.72	3.8360	3.8360	1.2442	27.03	1.07	1.500			
0.4428	28339.22	3.8330	3.8330	1.2709	27.02	1.06	1.500			
0.4467	28587.60	3.8300	3.8300	1.2996	27.01	1.05	1.500			
0.4506	28839.94	3.8270	3.8270	1.3187	27.00	1.04	1.500			
0.4546	29097.18	3.8240	3.8240	1.3404	26.98	1.02	1.500			
0.4587	29356.89	3.8210	3.8210	1.3573	26.97	1.01	1.500			
0.4628	29617.45	3.8180	3.8180	1.3838	26.96	1.00	1.500			
0.4669	29883.18	3.8150	3.8150	1.4098	26.94	0.98	1.500			
0.4712	30154.86	3.8120	3.8120	1.4325	26.93	0.97	1.500			
0.4755	30433.84	3.8090	3.8091	1.4643	26.91	0.95	1.500			
0.4800	30720.93	3.8060	3.8060	1.4870	26.90	0.94	1.500			
0.4845	31008.97	3.8030	3.8029	1.5111	26.88	0.92	1.500			
0.4890	31297.75	3.8000	3.8001	1.5331	26.87	0.91	1.500			
0.4937	31596.39	3.7970	3.7970	1.5567	26.85	0.89	1.500			
0.4984	31896.64	3.7940	3.7941	1.5842	26.83	0.87	1.500			
0.5032	32204.81	3.7910	3.7910	1.6156	26.82	0.86	1.500			
0.5081	32518.64	3.7880	3.7879	1.6452	26.80	0.84	1.500			
0.5131	32837.24	3.7850	3.7847	1.6635	26.78	0.82	1.500	0.343	0.479	
0.5181	33160.63	3.7820	3.7820	1.6795	26.76	0.80	1.500			
0.5232	33486.73	3.7790	3.7790	1.6970	26.74	0.78	1.500			
0.5283	33808.18	3.7760	3.7760	1.6892	26.73	0.77	1.500			
0.5334	34137.57	3.7730	3.7730	1.6979	26.71	0.75	1.500			
0.5385	34462.44	3.7700	3.7701	1.7057	26.69	0.73	1.500			
0.5436	34791.49	3.7670	3.7670	1.7128	26.68	0.72	1.500			
0.5488	35122.14	3.7640	3.7640	1.7141	26.66	0.70	1.500			
0.5539	35450.05	3.7610	3.7611	1.7149	26.65	0.69	1.500			
0.5591	35779.83	3.7580	3.7580	1.7168	26.63	0.67	1.500			
0.5641	36104.53	3.7550	3.7550	1.7207	26.61	0.65	1.500			
0.5693	36436.80	3.7520	3.7520	1.7479	26.60	0.64	1.500			
0.5746	36774.31	3.7490	3.7491	1.7889	26.58	0.62	1.500			
0.5801	37124.24	3.7460	3.7460	1.8143	26.56	0.60	1.500			
0.5856	37481.10	3.7430	3.7429	1.8625	26.54	0.58	1.500			
0.5912	37834.81	3.7400	3.7401	1.8912	26.52	0.56	1.500			
0.5969	38200.44	3.7370	3.7370	1.9444	26.50	0.54	1.500			
0.6028	38577.35	3.7340	3.7340	2.0020	26.48	0.52	1.500			
0.6089	38966.82	3.7310	3.7310	2.0309	26.46	0.50	1.500			
0.6150	39362.32	3.7280	3.7281	2.0649	26.45	0.49	1.500			
0.6213	39763.67	3.7250	3.7249	2.1158	26.43	0.47	1.500			
0.6276	40167.73	3.7220	3.7220	2.1730	26.41	0.45	1.500			
0.6343	40592.99	3.7190	3.7190	2.2121	26.39	0.43	1.500			
0.6410	41026.85	3.7160	3.7161	2.2807	26.37	0.41	1.500			
0.6480	41469.65	3.7130	3.7130	2.3320	26.35	0.39	1.500			
0.6550	41923.14	3.7100	3.7101	2.3517	26.33	0.37	1.500			
0.6622	42377.83	3.7070	3.7070	2.2607	26.31	0.35	1.500			
0.6688	42804.51	3.7040	3.7040	2.1597	26.29	0.33	1.500			
0.6752	43214.91	3.7010	3.7010	2.0364	26.27	0.31	1.500			
0.6811	43591.74	3.6980	3.6981	1.9072	26.26	0.30	1.500			
0.6866	43943.99	3.6950	3.6950	1.7826	26.24	0.28	1.500			
0.6916	44262.21	3.6920	3.6920	1.6397	26.23	0.27	1.500			
0.6964	44568.64	3.6890	3.6890	1.5577	26.22	0.26	1.500			
0.7009	44858.06	3.6860	3.6859	1.4837	26.21	0.25	1.500			
0.7052	45132.00	3.6830	3.6830	1.4223	26.19	0.23	1.500			
0.7093	45396.02	3.6800	3.6800	1.3713	26.18	0.22	1.500			
0.7133	45652.74	3.6770	3.6770	1.3356	26.17	0.21	1.500			
0.7172	45902.72	3.6740	3.6740	1.3073	26.16	0.20	1.500			
0.7211	46149.42	3.6710	3.6709	1.2906	26.15	0.19	1.500			
0.7249	46395.29	3.6680	3.6680	1.2777	26.14	0.18	1.500			
0.7287	46638.52	3.6650	3.6650	1.2712	26.13	0.17	1.500			
0.7325	46882.65	3.6620	3.6620	1.2649	26.12	0.16	1.500			
0.7363	47124.54	3.6590	3.6590	1.2593	26.11	0.15	1.500			
0.7401	47366.48	3.6560	3.6560	1.2566	26.10	0.14	1.500			
0.7439	47606.53	3.6530	3.6530	1.2518	26.09	0.13	1.500			
0.7476	47847.26	3.6500	3.6500	1.2511	26.08	0.12	1.500			
0.7514	48087.75	3.6470	3.6469	1.2456	26.07	0.11	1.500			
0.7551	48327.23	3.6440	3.6440	1.2320	26.06	0.10	1.500			
0.7588	48565.06	3.6410	3.6411	1.2220	26.04	0.08	1.500			
0.7625	48797.90	3.6380	3.6380	1.2111	26.03	0.07	1.500			
0.7661	49028.82	3.6350	3.6350	1.1988	26.02	0.06	1.500			
0.7696	49255.16	3.6320	3.6319	1.1878	26.01	0.05	1.500			
0.7732	49481.98	3.6290	3.6291	1.1803	26.01	0.05	1.500			
0.7767	49708.89	3.6260	3.6260	1.1748	26.00	0.04	1.500			
0.7802	49935.16	3.6230	3.6230	1.1630	26.00	0.04	1.500			
0.7837	50159.98	3.6200	3.6200	1.1432	25.99	0.03	1.500			
0.7872	50377.68	3.6170	3.6170	1.1218	25.98	0.02	1.500			
0.7905	50592.41	3.6140	3.6141	1.1012	25.98	0.02	1.500			
0.7938	50800.97	3.6110	3.6110	1.0778	25.97	0.01	1.500			
0.7970	51005.09	3.6080	3.6079	1.0539	25.97	0.01	1.500			
0.8001	51205.45	3.6050	3.6050	1.0266	25.97	0.01	1.500			
0.8031	51401.57	3.6020	3.6020	1.0022	25.97	0.01	1.500			
0.8061	51591.42	3.5990	3.5991	0.9741	25.97	0.01	1.500			
0.8090	51777.42	3.5960	3.5959	0.9361	25.96	0.00	1.500			
0.8118	51954.93	3.5930	3.5929	0.8926	25.96	0.00	1.500			
0.8145	52126.13	3.5900	3.5900	0.8329	25.96	0.00	1.500			
0.8169	52283.94	3.5870	3.5871	0.7613	25.96	0.00	1.500			
0.8192	52428.08	3.5840	3.5840	0.6854	25.96	0.00	1.500			
0.8211	52550.65	3.5810	3.5809	0.5973	25.96	0.00	1.500			
0.8227	52654.75	3.5780	3.5780	0.5095	25.96	-0.00	1.500			
0.8241	52742.02	3.5750	3.5750	0.4368	25.96	-0.00	1.500			
0.8252	52814.29	3.5720	3.5720	0.3694	25.96	-0.00	1.500			
0.8262	52875.72	3.5690	3.5690	0.3163	25.96	-0.00	1.500			
0.8270	52929.87	3.5660	3.5659	0.2762	25.96	-0.00	1.500			
0.8278	52977.56	3.5630	3.5630	0.2397	25.96	-0.00	1.500			
0.8284	53019.54	3.5600	3.5599	0.2135	25.96	-0.00	1.500			
0.8290	53056.17	3.5570	3.5570	0.1903	25.96	-0.00	1.500			
0.8295	53090.35	3.5540	3.5540	0.1700	25.96	-0.00	1.500			
0.8300	53120.27	3.5510	3.5509	0.1532	25.96	-0.00	1.500			
0.8304	53147.71	3.5480	3.5480	0.1367	25.96	-0.00	1.500			
0.8308	53172.18	3.5450	3.5450	0.1212	25.96	-0.00	1.500			
0.8312	53194.13	3.5420	3.5420	0.1069	25.96	-0.00	1.500			
0.8315	53213.25	3.5390	3.5391	0.0923	25.96	-0.00	1.500			
0.8317	53229.56	3.5360	3.5361	0.0776	25.96	-0.00	1.500			
0.8319	53243.39	3.5330	3.5333	0.0627	25.96	-0.00	1.500			
0.8321	53253.97	3.5300	3.5305	0.0474	25.96	-0.00	1.500			
0.8322	53261.58	3.5270	3.5279	0.0320	25.96	-0.00	1.500			
