Ah_balance (normalized)	Ah_balance (mAh)	Voltage - fit (V)	Voltage -  interpolate (V)	dQ/dV (1/V)	Temperature (°C)	Temperature - diff (°C)	Current (C)	R_DC 0ms (mOhm)	R_DC 50ms (mOhm)	R_DC 50 ms PEC (mOhm)
0.2838	18161.85	3.9740	3.9740	0.8589	27.20	1.22	1.500			
0.2864	18327.20	3.9710	3.9710	0.8651	27.20	1.22	1.500			
0.2890	18494.59	3.9680	3.9680	0.8740	27.19	1.21	1.500			
0.2916	18664.86	3.9650	3.9649	0.8759	27.19	1.21	1.500			
0.2943	18834.28	3.9620	3.9620	0.8755	27.19	1.21	1.500			
0.2969	19001.30	3.9590	3.9591	0.8790	27.18	1.20	1.500			
0.2995	19169.46	3.9560	3.9560	0.8816	27.18	1.20	1.500			
0.3021	19337.19	3.9530	3.9529	0.8866	27.17	1.19	1.500			
0.3048	19508.75	3.9500	3.9500	0.8904	27.17	1.19	1.500			
0.3075	19680.74	3.9470	3.9470	0.8957	27.16	1.18	1.500			
0.3102	19854.29	3.9440	3.9440	0.9020	27.16	1.18	1.500			
0.3129	20027.99	3.9410	3.9411	0.9072	27.16	1.18	1.500			
0.3156	20200.99	3.9380	3.9379	0.9102	27.15	1.17	1.500			
0.3184	20377.04	3.9350	3.9350	0.9100	27.15	1.17	1.500			
0.3211	20551.49	3.9320	3.9320	0.9153	27.14	1.16	1.500			
0.3239	20728.66	3.9290	3.9290	0.9255	27.14	1.16	1.500			
0.3267	20906.57	3.9260	3.9260	0.9260	27.13	1.15	1.500			
0.3294	21083.46	3.9230	3.9230	0.9305	27.13	1.15	1.500			
0.3322	21262.27	3.9200	3.9201	0.9366	27.12	1.14	1.500			
0.3350	21442.13	3.9170	3.9170	0.9458	27.12	1.14	1.500			
0.3379	21626.17	3.9140	3.9139	0.9532	27.11	1.13	1.500			
0.3408	21809.64	3.9110	3.9110	0.9521	27.11	1.13	1.500			
0.3436	21993.11	3.9080	3.9080	0.9563	27.10	1.12	1.500			
0.3465	22177.75	3.9050	3.9051	0.9684	27.09	1.11	1.500			
0.3494	22362.47	3.9020	3.9020	0.9762	27.09	1.11	1.500			
0.3523	22549.17	3.8990	3.8989	0.9830	27.08	1.10	1.500			
0.3553	22738.57	3.8960	3.8960	0.9950	27.08	1.10	1.500			
0.3583	22932.74	3.8930	3.8930	1.0079	27.07	1.09	1.500			
0.3614	23127.69	3.8900	3.8900	1.0172	27.06	1.08	1.500			
0.3644	23324.35	3.8870	3.8870	1.0216	27.06	1.08	1.500			
0.3675	23520.51	3.8840	3.8840	1.0232	27.05	1.07	1.500			
0.3706	23716.96	3.8810	3.8811	1.0299	27.05	1.07	1.500			
0.3737	23914.50	3.8780	3.8780	1.0449	27.04	1.06	1.500			
0.3768	24113.44	3.8750	3.8750	1.0600	27.03	1.05	1.500			
0.3800	24319.65	3.8720	3.8720	1.0750	27.03	1.05	1.500			
0.3832	24527.70	3.8690	3.8690	1.0904	27.02	1.04	1.500			
0.3866	24741.05	3.8660	3.8661	1.1020	27.01	1.03	1.500			
0.3899	24953.67	3.8630	3.8630	1.1135	27.00	1.02	1.500			
0.3933	25168.74	3.8600	3.8600	1.1215	27.00	1.02	1.500			
0.3966	25383.15	3.8570	3.8570	1.1353	26.99	1.01	1.500			
0.4000	25600.90	3.8540	3.8540	1.1472	26.98	1.00	1.500			
0.4035	25823.99	3.8510	3.8509	1.1657	26.97	0.99	1.500			
0.4070	26047.90	3.8480	3.8480	1.1850	26.96	0.98	1.500			
0.4106	26277.14	3.8450	3.8451	1.2072	26.95	0.97	1.500			
0.4143	26512.15	3.8420	3.8419	1.2186	26.94	0.96	1.500			
0.4179	26747.34	3.8390	3.8390	1.2420	26.93	0.95	1.500			
0.4216	26984.99	3.8360	3.8361	1.2607	26.92	0.94	1.500			
0.4255	27228.89	3.8330	3.8330	1.2934	26.91	0.93	1.500			
0.4294	27480.07	3.8300	3.8299	1.3227	26.90	0.92	1.500			
0.4334	27737.40	3.8270	3.8270	1.3487	26.89	0.91	1.500			
0.4375	28001.04	3.8240	3.8240	1.3764	26.88	0.90	1.500			
0.4417	28268.75	3.8210	3.8211	1.4102	26.87	0.89	1.500			
0.4459	28539.74	3.8180	3.8180	1.4359	26.86	0.88	1.500			
0.4503	28819.26	3.8150	3.8150	1.4665	26.85	0.87	1.500			
0.4547	29102.75	3.8120	3.8119	1.4886	26.84	0.86	1.500			
0.4592	29391.58	3.8090	3.8091	1.5234	26.82	0.84	1.500			
0.4639	29687.89	3.8060	3.8060	1.5645	26.81	0.83	1.500			
0.4686	29989.24	3.8030	3.8030	1.6019	26.79	0.81	1.500			
0.4734	30297.90	3.8000	3.8000	1.6375	26.78	0.80	1.500			
0.4784	30617.66	3.7970	3.7970	1.6851	26.76	0.78	1.500			
0.4835	30945.33	3.7940	3.7940	1.7378	26.74	0.76	1.500			
0.4888	31285.67	3.7910	3.7909	1.7760	26.73	0.75	1.500			
0.4942	31628.14	3.7880	3.7880	1.8196	26.71	0.73	1.500			
0.4997	31981.27	3.7850	3.7851	1.8723	26.69	0.71	1.500			
0.5054	32344.97	3.7820	3.7820	1.9304	26.67	0.69	1.500			
0.5113	32722.57	3.7790	3.7790	1.9533	26.66	0.68	1.500			
0.5172	33102.99	3.7760	3.7760	1.9708	26.64	0.66	1.500			
0.5232	33482.82	3.7730	3.7731	1.9880	26.62	0.64	1.500			
0.5291	33861.66	3.7700	3.7701	2.0209	26.60	0.62	1.500			
0.5353	34257.20	3.7670	3.7669	2.0269	26.58	0.60	1.500			
0.5414	34651.10	3.7640	3.7640	2.0605	26.56	0.58	1.500	0.359	0.454	
0.5476	35048.64	3.7610	3.7611	2.0694	26.55	0.57	1.500			
0.5539	35448.28	3.7580	3.7578	2.0462	26.53	0.55	1.500			
0.5599	35835.55	3.7550	3.7551	2.0113	26.51	0.53	1.500			
0.5660	36221.27	3.7520	3.7520	1.9988	26.50	0.52	1.500			
0.5719	36599.15	3.7490	3.7490	1.9715	26.48	0.50	1.500			
0.5777	36972.16	3.7460	3.7459	1.9713	26.46	0.48	1.500			
0.5837	37354.43	3.7430	3.7430	1.9986	26.45	0.47	1.500			
0.5897	37738.36	3.7400	3.7400	2.0190	26.43	0.45	1.500			
0.5958	38128.98	3.7370	3.7370	2.0268	26.42	0.44	1.500			
0.6019	38521.06	3.7340	3.7340	2.0491	26.40	0.42	1.500			
0.6080	38914.32	3.7310	3.7311	2.0694	26.39	0.41	1.500			
0.6142	39306.29	3.7280	3.7280	2.0917	26.37	0.39	1.500			
0.6205	39710.97	3.7250	3.7250	2.1428	26.36	0.38	1.500			
0.6270	40127.82	3.7220	3.7220	2.2010	26.34	0.36	1.500			
0.6337	40559.81	3.7190	3.7190	2.2514	26.33	0.35	1.500			
0.6405	40994.51	3.7160	3.7160	2.3098	26.31	0.33	1.500			
0.6475	41439.66	3.7130	3.7131	2.3850	26.29	0.31	1.500			
0.6547	41901.44	3.7100	3.7099	2.4804	26.28	0.30	1.500			
0.6624	42393.72	3.7070	3.7070	2.5299	26.26	0.28	1.500			
0.6702	42895.22	3.7040	3.7040	2.6588	26.24	0.26	1.500			
0.6782	43402.81	3.7010	3.7008	2.6942	26.22	0.24	1.500			
0.6865	43937.54	3.6980	3.6980	2.6506	26.21	0.23	1.500			
0.6946	44455.43	3.6950	3.6951	2.6099	26.19	0.21	1.500			
0.7021	44933.29	3.6920	3.6919	2.3968	26.18	0.20	1.500			
0.7091	45380.00	3.6890	3.6891	2.2337	26.17	0.19	1.500			
0.7155	45791.89	3.6860	3.6861	2.0541	26.16	0.18	1.500			
0.7214	46168.14	3.6830	3.6830	1.8800	26.15	0.17	1.500			
0.7267	46505.70	3.6800	3.6800	1.7314	26.14	0.16	1.500			
0.7316	46822.65	3.6770	3.6771	1.6213	26.14	0.16	1.500			
0.7363	47121.99	3.6740	3.6740	1.5332	26.13	0.15	1.500			
0.7407	47405.77	3.6710	3.6709	1.4564	26.12	0.14	1.500			
0.7449	47675.12	3.6680	3.6680	1.3911	26.11	0.13	1.500			
0.7489	47930.77	3.6650	3.6650	1.3404	26.11	0.13	1.500			
0.7528	48181.73	3.6620	3.6620	1.3006	26.10	0.12	1.500			
0.7566	48422.59	3.6590	3.6590	1.2715	26.09	0.11	1.500			
0.7604	48662.93	3.6560	3.6560	1.2624	26.09	0.11	1.500			
0.7641	48902.56	3.6530	3.6530	1.2574	26.08	0.10	1.500			
0.7679	49143.60	3.6500	3.6499	1.2682	26.07	0.09	1.500			
0.7716	49385.07	3.6470	3.6470	1.2782	26.06	0.08	1.500			
0.7755	49632.87	3.6440	3.6441	1.2921	26.06	0.08	1.500			
0.7794	49883.21	3.6410	3.6409	1.3087	26.05	0.07	1.500			
0.7834	50136.27	3.6380	3.6380	1.3163	26.04	0.06	1.500			
0.7873	50390.19	3.6350	3.6350	1.3201	26.03	0.05	1.500			
0.7913	50645.71	3.6320	3.6320	1.3187	26.02	0.04	1.500			
0.7953	50899.43	3.6290	3.6290	1.3130	26.02	0.04	1.500			
0.7992	51150.19	3.6260	3.6261	1.3090	26.01	0.03	1.500			
0.8031	51400.95	3.6230	3.6229	1.3086	26.00	0.02	1.500			
0.8071	51651.65	3.6200	3.6200	1.3027	25.99	0.01	1.500			
0.8110	51902.16	3.6170	3.6170	1.3008	25.99	0.01	1.500			
0.8149	52152.34	3.6140	3.6140	1.2986	25.98	0.00	1.500			
0.8188	52402.11	3.6110	3.6110	1.2904	25.98	-0.00	1.500			
0.8227	52650.39	3.6080	3.6079	1.2823	25.97	-0.01	1.500			
0.8265	52894.59	3.6050	3.6051	1.2705	25.96	-0.02	1.500			
0.8303	53137.83	3.6020	3.6020	1.2573	25.96	-0.02	1.500			
0.8341	53379.48	3.5990	3.5990	1.2454	25.96	-0.02	1.500			
0.8378	53617.04	3.5960	3.5960	1.2259	25.95	-0.03	1.500			
0.8414	53849.62	3.5930	3.5930	1.2108	25.95	-0.03	1.500			
0.8450	54081.70	3.5900	3.5900	1.1979	25.95	-0.03	1.500			
0.8486	54308.52	3.5870	3.5870	1.1849	25.94	-0.04	1.500			
0.8521	54533.36	3.5840	3.5840	1.1752	25.94	-0.04	1.500			
0.8556	54759.61	3.5810	3.5810	1.1638	25.94	-0.04	1.500			
0.8592	54988.29	3.5780	3.5778	1.1308	25.95	-0.03	1.500			
0.8626	55208.06	3.5750	3.5750	1.0770	25.95	-0.03	1.500			
0.8660	55422.30	3.5720	3.5720	0.9896	25.96	-0.02	1.500			
0.8689	55608.45	3.5690	3.5691	0.8752	25.96	-0.02	1.500			
0.8714	55767.17	3.5660	3.5661	0.7494	25.97	-0.01	1.500			
0.8734	55895.34	3.5630	3.5630	0.6171	25.97	-0.01	1.500			
0.8749	55991.94	3.5600	3.5600	0.5016	25.97	-0.01	1.500			
0.8761	56072.24	3.5570	3.5569	0.4119	25.98	-0.00	1.500			
0.8771	56136.00	3.5540	3.5540	0.3401	25.98	-0.00	1.500			
0.8780	56192.80	3.5510	3.5510	0.2942	25.98	-0.00	1.500			
0.8788	56242.34	3.5480	3.5479	0.2519	25.98	0.00	1.500			
0.8795	56285.84	3.5450	3.5449	0.2247	25.98	0.00	1.500			
0.8801	56324.51	3.5420	3.5420	0.2013	25.98	0.00	1.500			
0.8806	56360.53	3.5390	3.5390	0.1827	25.98	0.00	1.500			
0.8812	56393.83	3.5360	3.5361	0.1659	25.98	0.00	1.500			
0.8816	56423.58	3.5330	3.5330	0.1510	25.98	0.00	1.500			
0.8820	56450.94	3.5300	3.5300	0.1360	25.99	0.01	1.500			
0.8824	56475.36	3.5270	3.5269	0.1210	25.99	0.01	1.500			
0.8828	56497.31	3.5240	3.5239	0.1076	25.99	0.01	1.500			
0.8831	56516.73	3.5210	3.5210	0.0942	25.99	0.01	1.500			
0.8833	56533.57	3.5180	3.5181	0.0807	25.99	0.01	1.500			
0.8836	56547.77	3.5150	3.5155	0.0671	25.99	0.01	1.500			
0.8837	56559.81	3.5120	3.5123	0.0517	25.99	0.01	1.500			
0.8839	56568.27	3.5090	3.5096	0.0365	25.99	0.01	1.500			
