Ah_balance (normalized)	Ah_balance (mAh)	Voltage - fit (V)	Voltage -  interpolate (V)	dQ/dV (1/V)	Temperature (°C)	Temperature - diff (°C)	Current (C)	R_DC 0ms (mOhm)	R_DC 50ms (mOhm)	R_DC 50 ms PEC (mOhm)
0.2837	18159.15	3.9710	3.9709	0.9180	27.56	1.58	1.500			
0.2865	18335.75	3.9680	3.9680	0.9171	27.56	1.58	1.500			
0.2892	18510.18	3.9650	3.9651	0.9165	27.55	1.57	1.500			
0.2920	18685.99	3.9620	3.9621	0.9218	27.55	1.57	1.500			
0.2947	18863.60	3.9590	3.9589	0.9280	27.55	1.57	1.500			
0.2975	19041.16	3.9560	3.9560	0.9290	27.55	1.57	1.500			
0.3003	19220.06	3.9530	3.9530	0.9317	27.55	1.57	1.500			
0.3031	19401.39	3.9500	3.9500	0.9360	27.54	1.56	1.500			
0.3060	19581.80	3.9470	3.9469	0.9338	27.54	1.56	1.500			
0.3087	19759.99	3.9440	3.9441	0.9332	27.54	1.56	1.500			
0.3115	19937.77	3.9410	3.9410	0.9397	27.54	1.56	1.500			
0.3143	20118.32	3.9380	3.9380	0.9438	27.53	1.55	1.500			
0.3172	20299.39	3.9350	3.9350	0.9575	27.53	1.55	1.500			
0.3201	20484.50	3.9320	3.9319	0.9628	27.53	1.55	1.500			
0.3230	20670.58	3.9290	3.9291	0.9703	27.52	1.54	1.500			
0.3259	20858.40	3.9260	3.9260	0.9806	27.52	1.54	1.500			
0.3289	21046.99	3.9230	3.9231	0.9844	27.52	1.54	1.500			
0.3318	21236.26	3.9200	3.9199	0.9910	27.51	1.53	1.500			
0.3348	21427.22	3.9170	3.9170	0.9971	27.51	1.53	1.500			
0.3378	21618.71	3.9140	3.9140	0.9981	27.50	1.52	1.500			
0.3408	21812.12	3.9110	3.9110	1.0136	27.50	1.52	1.500			
0.3438	22006.33	3.9080	3.9080	1.0163	27.49	1.51	1.500			
0.3469	22200.54	3.9050	3.9050	1.0251	27.49	1.51	1.500			
0.3500	22398.83	3.9020	3.9020	1.0376	27.48	1.50	1.500			
0.3531	22598.93	3.8990	3.8990	1.0440	27.48	1.50	1.500			
0.3563	22801.81	3.8960	3.8959	1.0540	27.47	1.49	1.500			
0.3594	23004.05	3.8930	3.8931	1.0652	27.47	1.49	1.500			
0.3626	23207.00	3.8900	3.8900	1.0768	27.46	1.48	1.500			
0.3659	23415.30	3.8870	3.8870	1.0956	27.46	1.48	1.500			
0.3692	23626.57	3.8840	3.8839	1.1120	27.45	1.47	1.500			
0.3725	23842.87	3.8810	3.8811	1.1303	27.45	1.47	1.500			
0.3760	24063.49	3.8780	3.8780	1.1449	27.44	1.46	1.500			
0.3795	24285.09	3.8750	3.8750	1.1601	27.43	1.45	1.500			
0.3830	24510.25	3.8720	3.8720	1.1592	27.43	1.45	1.500			
0.3864	24730.22	3.8690	3.8690	1.1729	27.42	1.44	1.500			
0.3899	24954.42	3.8660	3.8660	1.1924	27.42	1.44	1.500			
0.3935	25183.71	3.8630	3.8630	1.2102	27.41	1.43	1.500			
0.3972	25417.90	3.8600	3.8600	1.2319	27.40	1.42	1.500			
0.4009	25658.42	3.8570	3.8570	1.2527	27.40	1.42	1.500			
0.4047	25902.94	3.8540	3.8541	1.2659	27.39	1.41	1.500			
0.4086	26150.14	3.8510	3.8510	1.2925	27.38	1.40	1.500			
0.4124	26394.40	3.8480	3.8481	1.3123	27.37	1.39	1.500			
0.4164	26648.65	3.8450	3.8450	1.3382	27.36	1.38	1.500			
0.4204	26905.77	3.8420	3.8419	1.3698	27.35	1.37	1.500			
0.4246	27172.56	3.8390	3.8391	1.3996	27.34	1.36	1.500			
0.4289	27450.51	3.8360	3.8359	1.4238	27.33	1.35	1.500			
0.4332	27723.36	3.8330	3.8330	1.4547	27.32	1.34	1.500			
0.4375	28002.12	3.8300	3.8301	1.4772	27.31	1.33	1.500			
0.4420	28286.94	3.8270	3.8271	1.5199	27.30	1.32	1.500			
0.4466	28581.94	3.8240	3.8240	1.5586	27.29	1.31	1.500			
0.4513	28884.22	3.8210	3.8210	1.5952	27.28	1.30	1.500			
0.4561	29192.89	3.8180	3.8180	1.6407	27.27	1.29	1.500			
0.4611	29512.29	3.8150	3.8151	1.6862	27.26	1.28	1.500			
0.4662	29839.86	3.8120	3.8119	1.7165	27.25	1.27	1.500			
0.4715	30173.78	3.8090	3.8090	1.7633	27.24	1.26	1.500			
0.4768	30514.90	3.8060	3.8062	1.8033	27.22	1.24	1.500			
0.4823	30868.11	3.8030	3.8029	1.8611	27.21	1.23	1.500			
0.4879	31228.30	3.8000	3.8000	1.9099	27.20	1.22	1.500			
0.4936	31593.49	3.7970	3.7969	1.9615	27.18	1.20	1.500			
0.4997	31979.14	3.7940	3.7940	2.0328	27.16	1.18	1.500			
0.5058	32372.29	3.7910	3.7910	2.0852	27.14	1.16	1.500			
0.5121	32776.99	3.7880	3.7881	2.1620	27.12	1.14	1.500			
0.5187	33199.50	3.7850	3.7849	2.2288	27.09	1.11	1.500			
0.5256	33638.68	3.7820	3.7820	2.2737	27.08	1.10	1.500			
0.5325	34081.51	3.7790	3.7791	2.3517	27.06	1.08	1.500			
0.5397	34540.56	3.7760	3.7760	2.4069	27.04	1.06	1.500			
0.5470	35007.42	3.7730	3.7731	2.4610	27.02	1.04	1.500			
0.5544	35480.47	3.7700	3.7701	2.5713	27.00	1.02	1.500			
0.5623	35986.14	3.7670	3.7670	2.6875	26.97	0.99	1.500			
0.5705	36514.25	3.7640	3.7640	2.7076	26.94	0.96	1.500	0.380	0.460	
0.5789	37046.59	3.7610	3.7611	2.7472	26.91	0.93	1.500			
0.5871	37571.80	3.7580	3.7579	2.7209	26.88	0.90	1.500			
0.5950	38078.92	3.7550	3.7551	2.6656	26.86	0.88	1.500			
0.6031	38597.99	3.7520	3.7521	2.6277	26.83	0.85	1.500			
0.6109	39095.54	3.7490	3.7490	2.5875	26.80	0.82	1.500			
0.6184	39578.57	3.7460	3.7458	2.5332	26.77	0.79	1.500			
0.6260	40066.31	3.7430	3.7431	2.5009	26.75	0.77	1.500			
0.6336	40547.72	3.7400	3.7400	2.4735	26.73	0.75	1.500			
0.6410	41024.76	3.7370	3.7371	2.4625	26.70	0.72	1.500			
0.6481	41480.12	3.7340	3.7340	2.3880	26.68	0.70	1.500			
0.6552	41932.71	3.7310	3.7310	2.3794	26.66	0.68	1.500			
0.6623	42385.10	3.7280	3.7281	2.4069	26.63	0.65	1.500			
0.6695	42846.75	3.7250	3.7249	2.4351	26.61	0.63	1.500			
0.6769	43320.79	3.7220	3.7220	2.4499	26.59	0.61	1.500			
0.6843	43798.25	3.7190	3.7190	2.5070	26.56	0.58	1.500			
0.6919	44281.16	3.7160	3.7160	2.5557	26.54	0.56	1.500			
0.6995	44770.35	3.7130	3.7130	2.6922	26.51	0.53	1.500			
0.7078	45301.17	3.7100	3.7099	2.7998	26.48	0.50	1.500			
0.7165	45856.31	3.7070	3.7071	2.9451	26.45	0.47	1.500			
0.7256	46440.62	3.7040	3.7039	2.9905	26.42	0.44	1.500			
0.7346	47011.80	3.7010	3.7011	3.0140	26.40	0.42	1.500			
0.7438	47606.04	3.6980	3.6978	2.9980	26.37	0.39	1.500			
0.7526	48167.81	3.6950	3.6951	2.8497	26.35	0.37	1.500			
0.7611	48711.94	3.6920	3.6920	2.7168	26.32	0.34	1.500			
0.7691	49221.11	3.6890	3.6889	2.4801	26.30	0.32	1.500			
0.7762	49676.13	3.6860	3.6861	2.2571	26.29	0.31	1.500			
0.7824	50075.65	3.6830	3.6831	2.0344	26.27	0.29	1.500			
0.7881	50436.87	3.6800	3.6801	1.8169	26.26	0.28	1.500			
0.7933	50768.41	3.6770	3.6769	1.6859	26.25	0.27	1.500			
0.7980	51071.19	3.6740	3.6740	1.5515	26.24	0.26	1.500			
0.8025	51358.03	3.6710	3.6710	1.4498	26.23	0.25	1.500			
0.8066	51623.69	3.6680	3.6680	1.3550	26.23	0.25	1.500			
0.8105	51872.90	3.6650	3.6650	1.2744	26.22	0.24	1.500			
0.8142	52105.77	3.6620	3.6620	1.2150	26.21	0.23	1.500			
0.8176	52327.36	3.6590	3.6589	1.1636	26.20	0.22	1.500			
0.8210	52543.75	3.6560	3.6560	1.1399	26.20	0.22	1.500			
0.8243	52756.19	3.6530	3.6530	1.1248	26.19	0.21	1.500			
0.8277	52970.78	3.6500	3.6500	1.1309	26.17	0.19	1.500			
0.8310	53186.57	3.6470	3.6470	1.1346	26.16	0.18	1.500			
0.8345	53405.43	3.6440	3.6440	1.1379	26.15	0.17	1.500			
0.8379	53624.92	3.6410	3.6411	1.1480	26.14	0.16	1.500			
0.8414	53846.58	3.6380	3.6380	1.1558	26.13	0.15	1.500			
0.8448	54069.65	3.6350	3.6348	1.1575	26.12	0.14	1.500			
0.8483	54291.35	3.6320	3.6321	1.1608	26.11	0.13	1.500			
0.8518	54515.38	3.6290	3.6290	1.1565	26.10	0.12	1.500			
0.8553	54739.09	3.6260	3.6259	1.1591	26.09	0.11	1.500			
0.8587	54959.36	3.6230	3.6231	1.1573	26.09	0.11	1.500			
0.8622	55181.59	3.6200	3.6200	1.1623	26.08	0.10	1.500			
0.8657	55404.26	3.6170	3.6170	1.1705	26.07	0.09	1.500			
0.8692	55630.97	3.6140	3.6140	1.1757	26.06	0.08	1.500			
0.8727	55855.49	3.6110	3.6110	1.1859	26.05	0.07	1.500			
0.8763	56086.17	3.6080	3.6080	1.1938	26.04	0.06	1.500			
0.8799	56316.59	3.6050	3.6050	1.1927	26.04	0.06	1.500			
0.8836	56547.59	3.6020	3.6019	1.1853	26.03	0.05	1.500			
0.8871	56774.02	3.5990	3.5990	1.1822	26.02	0.04	1.500			
0.8906	56999.74	3.5960	3.5961	1.1753	26.01	0.03	1.500			
0.8941	57224.62	3.5930	3.5929	1.1742	26.00	0.02	1.500			
0.8976	57446.07	3.5900	3.5900	1.1708	26.00	0.02	1.500			
0.9011	57670.06	3.5870	3.5871	1.1935	25.99	0.01	1.500			
0.9047	57898.75	3.5840	3.5840	1.2165	25.99	0.01	1.500			
0.9084	58137.96	3.5810	3.5809	1.2185	25.99	0.01	1.500			
0.9123	58384.71	3.5780	3.5778	1.1728	25.99	0.01	1.500			
0.9160	58622.97	3.5750	3.5751	1.1133	25.98	0.00	1.500			
0.9194	58839.01	3.5720	3.5722	0.9875	25.98	0.00	1.500			
0.9223	59026.95	3.5690	3.5691	0.8513	25.98	-0.00	1.500			
0.9245	59170.97	3.5660	3.5659	0.6984	25.98	-0.00	1.500			
0.9262	59278.62	3.5630	3.5630	0.5494	25.97	-0.01	1.500			
0.9275	59361.67	3.5600	3.5600	0.4334	25.97	-0.01	1.500			
0.9286	59429.89	3.5570	3.5569	0.3493	25.97	-0.01	1.500			
0.9294	59484.01	3.5540	3.5539	0.2705	25.97	-0.01	1.500			
0.9301	59525.90	3.5510	3.5509	0.2224	25.97	-0.01	1.500			
0.9307	59561.76	3.5480	3.5480	0.1761	25.97	-0.01	1.500			
0.9311	59590.97	3.5450	3.5449	0.1386	25.97	-0.01	1.500			
0.9315	59613.68	3.5420	3.5419	0.1045	25.97	-0.01	1.500			
0.9317	59630.36	3.5390	3.5390	0.0724	25.97	-0.01	1.500			
0.9319	59641.19	3.5360	3.5367	0.0433	25.97	-0.01	1.500			
