Ah_balance (normalized)	Ah_balance (mAh)	Voltage - fit (V)	Voltage -  interpolate (V)	dQ/dV (1/V)	Temperature (°C)	Temperature - diff (°C)	Current (C)	R_DC 0ms (mOhm)	R_DC 50ms (mOhm)	R_DC 50 ms PEC (mOhm)
0.2764	17687.74	3.9870	3.9870	0.8905	27.02	1.09	1.500			
0.2790	17854.02	3.9840	3.9841	0.8574	27.02	1.09	1.500			
0.2815	18016.35	3.9810	3.9810	0.8500	27.02	1.09	1.500			
0.2840	18178.99	3.9780	3.9781	0.8497	27.01	1.08	1.500			
0.2866	18340.76	3.9750	3.9750	0.8530	27.01	1.08	1.500			
0.2891	18504.81	3.9720	3.9720	0.8548	27.00	1.07	1.500			
0.2917	18670.19	3.9690	3.9690	0.8616	27.00	1.07	1.500			
0.2943	18836.53	3.9660	3.9660	0.8645	27.00	1.07	1.500			
0.2969	19002.35	3.9630	3.9630	0.8680	26.99	1.06	1.500			
0.2995	19170.18	3.9600	3.9600	0.8694	26.99	1.06	1.500			
0.3021	19336.93	3.9570	3.9570	0.8707	26.98	1.05	1.500			
0.3047	19502.99	3.9540	3.9540	0.8757	26.98	1.05	1.500			
0.3074	19673.06	3.9510	3.9511	0.8827	26.98	1.05	1.500			
0.3100	19842.55	3.9480	3.9479	0.8833	26.97	1.04	1.500			
0.3127	20012.88	3.9450	3.9450	0.8900	26.97	1.04	1.500			
0.3154	20183.89	3.9420	3.9421	0.8939	26.96	1.03	1.500			
0.3181	20356.63	3.9390	3.9389	0.8985	26.96	1.03	1.500			
0.3208	20528.77	3.9360	3.9359	0.8984	26.95	1.02	1.500			
0.3234	20699.31	3.9330	3.9331	0.9026	26.95	1.02	1.500			
0.3261	20873.34	3.9300	3.9300	0.9126	26.95	1.02	1.500			
0.3289	21050.53	3.9270	3.9270	0.9224	26.94	1.01	1.500			
0.3317	21228.48	3.9240	3.9240	0.9264	26.94	1.01	1.500			
0.3345	21407.82	3.9210	3.9210	0.9326	26.93	1.00	1.500			
0.3373	21588.33	3.9180	3.9181	0.9368	26.93	1.00	1.500			
0.3401	21768.28	3.9150	3.9149	0.9388	26.92	0.99	1.500			
0.3429	21947.77	3.9120	3.9120	0.9386	26.91	0.98	1.500			
0.3457	22126.47	3.9090	3.9090	0.9416	26.91	0.98	1.500			
0.3485	22305.98	3.9060	3.9060	0.9544	26.90	0.97	1.500			
0.3515	22492.80	3.9030	3.9030	0.9616	26.89	0.96	1.500			
0.3543	22677.48	3.9000	3.9000	0.9700	26.89	0.96	1.500			
0.3573	22865.93	3.8970	3.8970	0.9773	26.88	0.95	1.500			
0.3602	23054.26	3.8940	3.8939	0.9853	26.87	0.94	1.500			
0.3632	23242.57	3.8910	3.8909	0.9941	26.87	0.94	1.500			
0.3661	23432.66	3.8880	3.8880	1.0055	26.86	0.93	1.500			
0.3692	23626.53	3.8850	3.8849	1.0106	26.85	0.92	1.500			
0.3723	23824.47	3.8820	3.8820	1.0247	26.85	0.92	1.500			
0.3753	24021.52	3.8790	3.8790	1.0349	26.84	0.91	1.500			
0.3785	24221.53	3.8760	3.8761	1.0482	26.83	0.90	1.500			
0.3816	24423.16	3.8730	3.8729	1.0544	26.83	0.90	1.500			
0.3848	24626.35	3.8700	3.8700	1.0649	26.82	0.89	1.500			
0.3880	24831.38	3.8670	3.8670	1.0745	26.81	0.88	1.500			
0.3912	25039.27	3.8640	3.8640	1.0935	26.81	0.88	1.500			
0.3945	25250.97	3.8610	3.8610	1.1048	26.80	0.87	1.500			
0.3979	25463.03	3.8580	3.8580	1.1177	26.79	0.86	1.500			
0.4012	25679.88	3.8550	3.8550	1.1325	26.78	0.85	1.500			
0.4047	25899.06	3.8520	3.8520	1.1518	26.77	0.84	1.500			
0.4081	26121.29	3.8490	3.8491	1.1674	26.77	0.84	1.500			
0.4117	26347.06	3.8460	3.8461	1.1846	26.76	0.83	1.500			
0.4152	26575.58	3.8430	3.8430	1.1991	26.75	0.82	1.500			
0.4189	26807.26	3.8400	3.8400	1.2224	26.73	0.80	1.500			
0.4226	27044.12	3.8370	3.8370	1.2352	26.72	0.79	1.500			
0.4263	27282.35	3.8340	3.8340	1.2624	26.71	0.78	1.500			
0.4301	27525.49	3.8310	3.8310	1.2853	26.70	0.77	1.500			
0.4340	27773.73	3.8280	3.8280	1.3114	26.69	0.76	1.500			
0.4379	28028.75	3.8250	3.8250	1.3365	26.67	0.74	1.500			
0.4420	28288.45	3.8220	3.8221	1.3656	26.66	0.73	1.500			
0.4461	28553.41	3.8190	3.8190	1.3877	26.65	0.72	1.500			
0.4504	28823.88	3.8160	3.8160	1.4181	26.64	0.71	1.500			
0.4546	29096.13	3.8130	3.8130	1.4377	26.63	0.70	1.500			
0.4590	29375.00	3.8100	3.8100	1.4626	26.62	0.69	1.500			
0.4634	29656.53	3.8070	3.8070	1.4908	26.61	0.68	1.500			
0.4679	29944.94	3.8040	3.8040	1.5316	26.60	0.67	1.500			
0.4726	30243.41	3.8010	3.8009	1.5475	26.58	0.65	1.500			
0.4773	30544.19	3.7980	3.7980	1.5740	26.57	0.64	1.500			
0.4820	30846.02	3.7950	3.7952	1.6097	26.55	0.62	1.500			
0.4869	31158.42	3.7920	3.7919	1.6441	26.54	0.61	1.500			
0.4918	31477.11	3.7890	3.7889	1.6778	26.52	0.59	1.500			
0.4969	31798.65	3.7860	3.7861	1.7040	26.50	0.57	1.500			
0.5021	32134.00	3.7830	3.7830	1.7448	26.49	0.56	1.500			
0.5073	32470.02	3.7800	3.7800	1.7715	26.47	0.54	1.500			
0.5127	32810.03	3.7770	3.7770	1.7948	26.45	0.52	1.500			
0.5181	33160.69	3.7740	3.7740	1.8245	26.44	0.51	1.500	0.345	0.459	
0.5237	33516.82	3.7710	3.7711	1.8475	26.42	0.49	1.500			
0.5293	33875.65	3.7680	3.7681	1.8589	26.41	0.48	1.500			
0.5349	34235.44	3.7650	3.7649	1.8615	26.39	0.46	1.500			
0.5405	34590.83	3.7620	3.7620	1.8404	26.38	0.45	1.500			
0.5459	34939.16	3.7590	3.7591	1.8224	26.36	0.43	1.500			
0.5514	35288.31	3.7560	3.7560	1.8207	26.35	0.42	1.500			
0.5568	35632.97	3.7530	3.7530	1.8069	26.33	0.40	1.500			
0.5622	35979.74	3.7500	3.7500	1.8206	26.32	0.39	1.500			
0.5677	36331.59	3.7470	3.7470	1.8329	26.30	0.37	1.500			
0.5732	36682.50	3.7440	3.7440	1.8518	26.29	0.36	1.500			
0.5787	37037.17	3.7410	3.7411	1.8774	26.28	0.35	1.500			
0.5844	37400.84	3.7380	3.7380	1.9195	26.26	0.33	1.500			
0.5902	37771.46	3.7350	3.7350	1.9511	26.25	0.32	1.500			
0.5961	38150.85	3.7320	3.7320	1.9901	26.23	0.30	1.500			
0.6021	38536.81	3.7290	3.7291	2.0463	26.22	0.29	1.500			
0.6083	38932.49	3.7260	3.7260	2.1054	26.21	0.28	1.500			
0.6147	39341.63	3.7230	3.7230	2.1450	26.19	0.26	1.500			
0.6212	39759.98	3.7200	3.7201	2.1952	26.17	0.24	1.500			
0.6278	40182.04	3.7170	3.7170	2.2674	26.16	0.23	1.500			
0.6347	40618.22	3.7140	3.7139	2.3240	26.14	0.21	1.500			
0.6420	41085.65	3.7110	3.7111	2.3780	26.13	0.20	1.500			
0.6491	41545.03	3.7080	3.7080	2.3888	26.12	0.19	1.500			
0.6563	42001.91	3.7050	3.7050	2.4396	26.11	0.18	1.500			
0.6636	42473.48	3.7020	3.7021	2.4826	26.10	0.17	1.500			
0.6713	42963.61	3.6990	3.6990	2.4348	26.08	0.15	1.500			
0.6785	43425.75	3.6960	3.6960	2.2749	26.07	0.14	1.500			
0.6851	43848.45	3.6930	3.6930	2.1098	26.06	0.13	1.500			
0.6912	44235.42	3.6900	3.6900	1.9472	26.05	0.12	1.500			
0.6966	44584.03	3.6870	3.6871	1.7857	26.05	0.12	1.500			
0.7017	44910.48	3.6840	3.6840	1.6580	26.04	0.11	1.500			
0.7065	45217.79	3.6810	3.6810	1.5607	26.03	0.10	1.500			
0.7109	45500.49	3.6780	3.6779	1.4772	26.03	0.10	1.500			
0.7152	45775.88	3.6750	3.6750	1.4124	26.02	0.09	1.500			
0.7194	46038.90	3.6720	3.6720	1.3597	26.02	0.09	1.500			
0.7234	46297.49	3.6690	3.6690	1.3079	26.01	0.08	1.500			
0.7272	46538.70	3.6660	3.6660	1.2768	26.01	0.08	1.500			
0.7309	46777.34	3.6630	3.6632	1.2675	26.01	0.08	1.500			
0.7346	47015.24	3.6600	3.6598	1.2567	26.00	0.07	1.500			
0.7384	47254.44	3.6570	3.6570	1.2533	26.00	0.07	1.500			
0.7421	47495.59	3.6540	3.6541	1.2575	25.99	0.06	1.500			
0.7459	47737.39	3.6510	3.6511	1.2649	25.98	0.05	1.500			
0.7498	47985.62	3.6480	3.6480	1.2765	25.98	0.05	1.500			
0.7535	48226.85	3.6450	3.6450	1.2720	25.97	0.04	1.500			
0.7574	48471.65	3.6420	3.6420	1.2784	25.97	0.04	1.500			
0.7612	48719.29	3.6390	3.6390	1.2807	25.96	0.03	1.500			
0.7651	48965.67	3.6360	3.6360	1.2853	25.95	0.02	1.500			
0.7690	49212.83	3.6330	3.6330	1.2839	25.95	0.02	1.500			
0.7728	49459.16	3.6300	3.6299	1.2776	25.95	0.02	1.500			
0.7766	49703.49	3.6270	3.6270	1.2765	25.94	0.01	1.500			
0.7804	49948.06	3.6240	3.6240	1.2796	25.94	0.01	1.500			
0.7843	50194.34	3.6210	3.6210	1.2733	25.93	0.00	1.500			
0.7881	50439.59	3.6180	3.6179	1.2683	25.93	-0.00	1.500			
0.7919	50681.66	3.6150	3.6151	1.2588	25.92	-0.01	1.500			
0.7957	50923.54	3.6120	3.6120	1.2564	25.92	-0.01	1.500			
0.7995	51165.94	3.6090	3.6090	1.2422	25.91	-0.02	1.500			
0.8032	51401.93	3.6060	3.6059	1.2271	25.91	-0.02	1.500			
0.8068	51634.66	3.6030	3.6031	1.2132	25.90	-0.03	1.500			
0.8104	51868.62	3.6000	3.5998	1.2017	25.90	-0.03	1.500			
0.8140	52099.06	3.5970	3.5969	1.1824	25.90	-0.03	1.500			
0.8176	52323.81	3.5940	3.5940	1.1647	25.91	-0.02	1.500			
0.8210	52544.99	3.5910	3.5911	1.1436	25.91	-0.02	1.500			
0.8245	52765.98	3.5880	3.5880	1.1204	25.92	-0.01	1.500			
0.8278	52979.56	3.5850	3.5849	1.0874	25.92	-0.01	1.500			
0.8311	53188.05	3.5820	3.5820	1.0433	25.92	-0.01	1.500			
0.8343	53392.49	3.5790	3.5789	0.9757	25.93	-0.00	1.500			
0.8371	53576.62	3.5760	3.5760	0.8865	25.93	0.00	1.500			
0.8397	53742.74	3.5730	3.5731	0.7808	25.93	0.00	1.500			
0.8419	53882.71	3.5700	3.5701	0.6666	25.94	0.01	1.500			
0.8437	53996.31	3.5670	3.5669	0.5599	25.94	0.01	1.500			
0.8451	54088.59	3.5640	3.5639	0.4590	25.94	0.01	1.500			
0.8463	54161.19	3.5610	3.5610	0.3795	25.94	0.01	1.500			
0.8472	54223.93	3.5580	3.5579	0.3252	25.94	0.01	1.500			
0.8481	54277.18	3.5550	3.5550	0.2797	25.94	0.01	1.500			
0.8488	54325.51	3.5520	3.5520	0.2479	25.95	0.02	1.500			
0.8495	54368.09	3.5490	3.5490	0.2183	25.95	0.02	1.500			
0.8501	54406.89	3.5460	3.5459	0.1976	25.95	0.02	1.500			
0.8506	54441.48	3.5430	3.5431	0.1788	25.95	0.02	1.500			
0.8512	54473.74	3.5400	3.5400	0.1614	25.95	0.02	1.500			
0.8516	54503.12	3.5370	3.5370	0.1470	25.95	0.02	1.500			
0.8520	54529.59	3.5340	3.5339	0.1320	25.95	0.02	1.500			
0.8524	54553.51	3.5310	3.5310	0.1173	25.95	0.02	1.500			
0.8527	54574.86	3.5280	3.5281	0.1037	25.95	0.02	1.500			
0.8530	54593.39	3.5250	3.5250	0.0893	25.95	0.02	1.500			
0.8533	54609.30	3.5220	3.5221	0.0749	25.95	0.02	1.500			
0.8535	54622.30	3.5190	3.5193	0.0603	25.95	0.02	1.500			
0.8536	54632.48	3.5160	3.5167	0.0457	25.95	0.02	1.500			
0.8537	54639.84	3.5130	3.5142	0.0310	25.95	0.02	1.500			
