Ah_balance (normalized)	Ah_balance (mAh)	Voltage - fit (V)	Voltage -  interpolate (V)	dQ/dV (1/V)	Temperature (°C)	Temperature - diff (°C)	Current (C)	R_DC 0ms (mOhm)	R_DC 50ms (mOhm)	R_DC 50 ms PEC (mOhm)
0.2743	17558.26	3.9910	3.9910	0.7951	27.36	1.40	1.500			
0.2768	17714.26	3.9880	3.9880	0.8265	27.35	1.39	1.500			
0.2793	17877.48	3.9850	3.9849	0.8423	27.35	1.39	1.500			
0.2819	18039.63	3.9820	3.9820	0.8424	27.35	1.39	1.500			
0.2844	18201.29	3.9790	3.9791	0.8492	27.34	1.38	1.500			
0.2870	18365.00	3.9760	3.9759	0.8501	27.34	1.38	1.500			
0.2895	18527.32	3.9730	3.9729	0.8491	27.33	1.37	1.500			
0.2920	18690.20	3.9700	3.9701	0.8533	27.33	1.37	1.500			
0.2946	18855.38	3.9670	3.9670	0.8556	27.33	1.37	1.500			
0.2972	19020.56	3.9640	3.9640	0.8628	27.32	1.36	1.500			
0.2998	19185.10	3.9610	3.9610	0.8660	27.32	1.36	1.500			
0.3024	19351.48	3.9580	3.9580	0.8663	27.31	1.35	1.500			
0.3050	19518.97	3.9550	3.9550	0.8729	27.31	1.35	1.500			
0.3076	19686.69	3.9520	3.9520	0.8760	27.30	1.34	1.500			
0.3102	19854.83	3.9490	3.9490	0.8819	27.30	1.34	1.500			
0.3129	20025.38	3.9460	3.9460	0.8853	27.29	1.33	1.500			
0.3155	20194.90	3.9430	3.9430	0.8882	27.29	1.33	1.500			
0.3182	20365.78	3.9400	3.9400	0.8975	27.28	1.32	1.500			
0.3210	20540.92	3.9370	3.9370	0.9040	27.28	1.32	1.500			
0.3237	20714.50	3.9340	3.9340	0.9068	27.27	1.31	1.500			
0.3264	20889.31	3.9310	3.9310	0.9104	27.27	1.31	1.500			
0.3291	21064.75	3.9280	3.9280	0.9102	27.26	1.30	1.500			
0.3319	21239.75	3.9250	3.9249	0.9182	27.25	1.29	1.500			
0.3346	21414.38	3.9220	3.9220	0.9257	27.25	1.29	1.500			
0.3374	21592.39	3.9190	3.9190	0.9269	27.24	1.28	1.500			
0.3402	21771.93	3.9160	3.9160	0.9351	27.23	1.27	1.500			
0.3430	21953.81	3.9130	3.9129	0.9400	27.23	1.27	1.500			
0.3458	22133.88	3.9100	3.9101	0.9485	27.22	1.26	1.500			
0.3487	22316.24	3.9070	3.9070	0.9570	27.21	1.25	1.500			
0.3516	22499.24	3.9040	3.9040	0.9631	27.21	1.25	1.500			
0.3545	22685.15	3.9010	3.9009	0.9717	27.20	1.24	1.500			
0.3574	22875.85	3.8980	3.8980	0.9810	27.19	1.23	1.500			
0.3604	23065.38	3.8950	3.8951	0.9851	27.18	1.22	1.500			
0.3633	23253.26	3.8920	3.8920	0.9948	27.17	1.21	1.500			
0.3663	23444.07	3.8890	3.8890	0.9980	27.17	1.21	1.500			
0.3693	23635.46	3.8860	3.8859	1.0045	27.16	1.20	1.500			
0.3723	23828.36	3.8830	3.8831	1.0198	27.15	1.19	1.500			
0.3754	24026.21	3.8800	3.8801	1.0354	27.14	1.18	1.500			
0.3785	24226.32	3.8770	3.8769	1.0527	27.13	1.17	1.500			
0.3817	24430.10	3.8740	3.8741	1.0642	27.12	1.16	1.500			
0.3849	24635.22	3.8710	3.8710	1.0733	27.12	1.16	1.500			
0.3882	24845.32	3.8680	3.8680	1.0890	27.11	1.15	1.500			
0.3915	25055.51	3.8650	3.8651	1.0899	27.10	1.14	1.500			
0.3948	25264.46	3.8620	3.8619	1.1000	27.09	1.13	1.500			
0.3981	25476.39	3.8590	3.8591	1.1104	27.08	1.12	1.500			
0.4014	25688.29	3.8560	3.8561	1.1316	27.08	1.12	1.500			
0.4048	25906.23	3.8530	3.8529	1.1545	27.07	1.11	1.500			
0.4083	26130.86	3.8500	3.8500	1.1731	27.06	1.10	1.500			
0.4118	26358.18	3.8470	3.8471	1.1955	27.05	1.09	1.500			
0.4155	26592.88	3.8440	3.8440	1.2078	27.04	1.08	1.500			
0.4192	26826.71	3.8410	3.8410	1.2207	27.03	1.07	1.500			
0.4228	27060.57	3.8380	3.8380	1.2362	27.02	1.06	1.500			
0.4265	27297.39	3.8350	3.8351	1.2495	27.01	1.05	1.500			
0.4303	27538.42	3.8320	3.8320	1.2686	27.00	1.04	1.500			
0.4341	27783.90	3.8290	3.8290	1.2927	26.98	1.02	1.500			
0.4380	28034.50	3.8260	3.8260	1.3138	26.97	1.01	1.500			
0.4420	28290.94	3.8230	3.8230	1.3409	26.96	1.00	1.500			
0.4461	28548.92	3.8200	3.8200	1.3591	26.95	0.99	1.500			
0.4502	28811.02	3.8170	3.8171	1.3823	26.93	0.97	1.500			
0.4544	29078.69	3.8140	3.8139	1.4054	26.92	0.96	1.500			
0.4586	29349.73	3.8110	3.8110	1.4327	26.91	0.95	1.500			
0.4630	29628.87	3.8080	3.8079	1.4540	26.89	0.93	1.500			
0.4674	29910.65	3.8050	3.8051	1.4813	26.88	0.92	1.500			
0.4718	30196.43	3.8020	3.8020	1.5176	26.86	0.90	1.500			
0.4764	30491.94	3.7990	3.7991	1.5499	26.85	0.89	1.500			
0.4812	30794.80	3.7960	3.7959	1.5719	26.83	0.87	1.500			
0.4859	31100.38	3.7930	3.7931	1.6002	26.82	0.86	1.500			
0.4908	31412.45	3.7900	3.7900	1.6157	26.80	0.84	1.500			
0.4956	31720.89	3.7870	3.7871	1.6457	26.79	0.83	1.500			
0.5005	32032.56	3.7840	3.7840	1.6632	26.77	0.81	1.500			
0.5056	32356.11	3.7810	3.7812	1.6942	26.76	0.80	1.500	0.340	0.474	
0.5108	32693.22	3.7780	3.7780	1.7328	26.74	0.78	1.500			
0.5160	33026.21	3.7750	3.7750	1.7290	26.72	0.76	1.500			
0.5212	33357.31	3.7720	3.7720	1.7179	26.70	0.74	1.500			
0.5264	33686.40	3.7690	3.7690	1.7235	26.68	0.72	1.500			
0.5315	34017.39	3.7660	3.7660	1.7277	26.66	0.70	1.500			
0.5367	34348.41	3.7630	3.7630	1.7339	26.65	0.69	1.500			
0.5420	34685.09	3.7600	3.7600	1.7420	26.63	0.67	1.500			
0.5472	35019.30	3.7570	3.7571	1.7448	26.62	0.66	1.500			
0.5524	35353.39	3.7540	3.7539	1.7641	26.60	0.64	1.500			
0.5577	35691.69	3.7510	3.7510	1.7805	26.59	0.63	1.500			
0.5631	36036.70	3.7480	3.7479	1.7886	26.57	0.61	1.500			
0.5685	36381.07	3.7450	3.7451	1.8256	26.55	0.59	1.500			
0.5740	36732.95	3.7420	3.7420	1.8597	26.54	0.58	1.500			
0.5796	37093.74	3.7390	3.7389	1.9008	26.52	0.56	1.500			
0.5853	37460.17	3.7360	3.7361	1.9446	26.50	0.54	1.500			
0.5913	37841.97	3.7330	3.7330	1.9915	26.48	0.52	1.500			
0.5973	38225.44	3.7300	3.7300	2.0429	26.46	0.50	1.500			
0.6035	38621.76	3.7270	3.7269	2.0994	26.44	0.48	1.500			
0.6099	39034.47	3.7240	3.7240	2.1571	26.42	0.46	1.500			
0.6165	39453.07	3.7210	3.7210	2.2197	26.40	0.44	1.500			
0.6232	39886.88	3.7180	3.7180	2.2691	26.38	0.42	1.500			
0.6301	40326.09	3.7150	3.7150	2.3223	26.36	0.40	1.500			
0.6372	40779.61	3.7120	3.7120	2.3422	26.34	0.38	1.500			
0.6442	41230.89	3.7090	3.7090	2.3013	26.32	0.36	1.500			
0.6511	41671.41	3.7060	3.7060	2.2787	26.31	0.35	1.500			
0.6580	42109.54	3.7030	3.7030	2.1839	26.29	0.33	1.500			
0.6645	42527.07	3.7000	3.7001	2.0774	26.27	0.31	1.500			
0.6704	42905.62	3.6970	3.6970	1.9229	26.25	0.29	1.500			
0.6760	43260.90	3.6940	3.6941	1.7978	26.24	0.28	1.500			
0.6811	43592.58	3.6910	3.6910	1.6771	26.23	0.27	1.500			
0.6859	43898.81	3.6880	3.6881	1.5819	26.21	0.25	1.500			
0.6905	44192.56	3.6850	3.6851	1.5014	26.20	0.24	1.500			
0.6949	44473.41	3.6820	3.6819	1.4389	26.19	0.23	1.500			
0.6990	44738.06	3.6790	3.6790	1.3789	26.18	0.22	1.500			
0.7031	44995.25	3.6760	3.6760	1.3404	26.17	0.21	1.500			
0.7070	45247.99	3.6730	3.6730	1.3172	26.16	0.20	1.500			
0.7109	45496.05	3.6700	3.6700	1.2930	26.15	0.19	1.500			
0.7147	45739.57	3.6670	3.6670	1.2763	26.14	0.18	1.500			
0.7185	45984.90	3.6640	3.6640	1.2767	26.13	0.17	1.500			
0.7223	46227.13	3.6610	3.6611	1.2783	26.12	0.16	1.500			
0.7262	46473.86	3.6580	3.6580	1.2772	26.11	0.15	1.500			
0.7300	46718.62	3.6550	3.6549	1.2756	26.10	0.14	1.500			
0.7338	46964.85	3.6520	3.6520	1.2761	26.09	0.13	1.500			
0.7377	47210.43	3.6490	3.6490	1.2754	26.08	0.12	1.500			
0.7415	47455.88	3.6460	3.6460	1.2647	26.07	0.11	1.500			
0.7453	47698.07	3.6430	3.6430	1.2549	26.05	0.09	1.500			
0.7490	47938.09	3.6400	3.6400	1.2447	26.04	0.08	1.500			
0.7528	48177.22	3.6370	3.6370	1.2394	26.03	0.07	1.500			
0.7565	48413.27	3.6340	3.6340	1.2290	26.03	0.07	1.500			
0.7601	48647.67	3.6310	3.6310	1.2228	26.02	0.06	1.500			
0.7638	48881.99	3.6280	3.6280	1.2113	26.01	0.05	1.500			
0.7674	49116.15	3.6250	3.6250	1.1983	26.00	0.04	1.500			
0.7710	49345.05	3.6220	3.6220	1.1905	26.00	0.04	1.500			
0.7746	49572.59	3.6190	3.6189	1.1759	25.99	0.03	1.500			
0.7781	49796.38	3.6160	3.6159	1.1602	25.98	0.02	1.500			
0.7815	50018.78	3.6130	3.6131	1.1405	25.98	0.02	1.500			
0.7850	50237.14	3.6100	3.6101	1.1200	25.98	0.02	1.500			
0.7883	50452.08	3.6070	3.6070	1.0965	25.97	0.01	1.500			
0.7916	50660.41	3.6040	3.6040	1.0720	25.97	0.01	1.500			
0.7947	50861.82	3.6010	3.6010	1.0431	25.97	0.01	1.500			
0.7978	51059.46	3.5980	3.5980	1.0169	25.97	0.01	1.500			
0.8008	51254.00	3.5950	3.5950	0.9856	25.96	0.00	1.500			
0.8038	51442.94	3.5920	3.5918	0.9469	25.96	0.00	1.500			
0.8067	51627.03	3.5890	3.5890	0.8908	25.96	-0.00	1.500			
0.8093	51795.29	3.5860	3.5860	0.8201	25.96	-0.00	1.500			
0.8117	51949.94	3.5830	3.5831	0.7363	25.95	-0.01	1.500			
0.8138	52083.61	3.5800	3.5800	0.6434	25.95	-0.01	1.500			
0.8156	52195.49	3.5770	3.5770	0.5512	25.95	-0.01	1.500			
0.8170	52289.98	3.5740	3.5740	0.4659	25.95	-0.01	1.500			
0.8182	52367.38	3.5710	3.5710	0.3932	25.95	-0.01	1.500			
0.8193	52433.43	3.5680	3.5679	0.3386	25.95	-0.01	1.500			
0.8201	52489.07	3.5650	3.5650	0.2905	25.95	-0.01	1.500			
0.8209	52539.26	3.5620	3.5620	0.2568	25.95	-0.01	1.500			
0.8216	52583.60	3.5590	3.5590	0.2252	25.95	-0.01	1.500			
0.8222	52623.38	3.5560	3.5560	0.2032	25.95	-0.01	1.500			
0.8228	52658.41	3.5530	3.5530	0.1821	25.95	-0.01	1.500			
0.8233	52691.31	3.5500	3.5500	0.1645	25.94	-0.02	1.500			
0.8238	52721.17	3.5470	3.5470	0.1501	25.94	-0.02	1.500			
0.8242	52748.11	3.5440	3.5440	0.1350	25.94	-0.02	1.500			
0.8246	52772.85	3.5410	3.5409	0.1204	25.94	-0.02	1.500			
0.8249	52794.67	3.5380	3.5380	0.1062	25.94	-0.02	1.500			
0.8252	52813.66	3.5350	3.5351	0.0916	25.94	-0.02	1.500			
0.8255	52829.95	3.5320	3.5322	0.0770	25.94	-0.02	1.500			
0.8257	52843.82	3.5290	3.5292	0.0620	25.94	-0.02	1.500			
0.8258	52854.19	3.5260	3.5264	0.0461	25.94	-0.02	1.500			
0.8260	52861.53	3.5230	3.5240	0.0303	25.94	-0.02	1.500			
