Ah_balance (normalized)	Ah_balance (mAh)	Voltage - fit (V)	Voltage -  interpolate (V)	dQ/dV (1/V)	Temperature (°C)	Temperature - diff (°C)	Current (C)	R_DC 0ms (mOhm)	R_DC 50ms (mOhm)	R_DC 50 ms PEC (mOhm)
0.2009	12859.86	3.9240	3.9237	-0.1199	25.71	-0.00	-1.500			
0.2014	12886.42	3.9210	3.9208	-0.1476	25.71	-0.00	-1.500			
0.2018	12916.86	3.9180	3.9180	-0.1729	25.71	-0.00	-1.500			
0.2024	12952.11	3.9150	3.9152	-0.2001	25.71	-0.00	-1.500			
0.2030	12993.16	3.9120	3.9120	-0.2266	25.71	-0.00	-1.500			
0.2037	13039.62	3.9090	3.9089	-0.2516	25.71	-0.00	-1.500			
0.2045	13090.14	3.9060	3.9060	-0.2772	25.71	-0.00	-1.500			
0.2054	13146.15	3.9030	3.9031	-0.3004	25.71	-0.00	-1.500			
0.2064	13206.55	3.9000	3.9000	-0.3252	25.71	-0.00	-1.500			
0.2074	13271.42	3.8970	3.8970	-0.3490	25.71	-0.00	-1.500			
0.2084	13340.51	3.8940	3.8941	-0.3726	25.71	0.00	-1.500			
0.2096	13413.67	3.8910	3.8910	-0.3981	25.71	0.00	-1.500			
0.2108	13492.74	3.8880	3.8880	-0.4228	25.71	0.00	-1.500			
0.2121	13576.83	3.8850	3.8850	-0.4449	25.71	0.00	-1.500			
0.2135	13665.47	3.8820	3.8819	-0.4671	25.71	0.00	-1.500			
0.2150	13757.96	3.8790	3.8791	-0.4858	25.71	0.00	-1.500			
0.2164	13852.57	3.8760	3.8760	-0.5058	25.71	0.00	-1.500			
0.2180	13951.51	3.8730	3.8730	-0.5222	25.71	0.00	-1.500			
0.2196	14052.91	3.8700	3.8700	-0.5395	25.71	0.00	-1.500			
0.2212	14158.32	3.8670	3.8670	-0.5553	25.72	0.01	-1.500			
0.2229	14266.78	3.8640	3.8640	-0.5715	25.72	0.01	-1.500			
0.2247	14378.71	3.8610	3.8611	-0.5866	25.72	0.01	-1.500			
0.2264	14492.77	3.8580	3.8580	-0.5995	25.72	0.01	-1.500			
0.2283	14609.26	3.8550	3.8551	-0.6089	25.72	0.01	-1.500			
0.2301	14728.41	3.8520	3.8519	-0.6207	25.72	0.01	-1.500			
0.2320	14848.29	3.8490	3.8491	-0.6280	25.72	0.01	-1.500			
0.2339	14970.12	3.8460	3.8460	-0.6371	25.72	0.01	-1.500			
0.2358	15093.48	3.8430	3.8429	-0.6400	25.72	0.01	-1.500			
0.2378	15216.69	3.8400	3.8400	-0.6447	25.73	0.02	-1.500			
0.2397	15340.39	3.8370	3.8370	-0.6473	25.73	0.02	-1.500			
0.2416	15465.11	3.8340	3.8340	-0.6509	25.73	0.02	-1.500			
0.2436	15591.41	3.8310	3.8309	-0.6506	25.74	0.03	-1.500			
0.2456	15716.11	3.8280	3.8280	-0.6515	25.74	0.03	-1.500			
0.2475	15840.37	3.8250	3.8251	-0.6555	25.74	0.03	-1.500			
0.2495	15966.75	3.8220	3.8220	-0.6617	25.75	0.04	-1.500			
0.2515	16093.46	3.8190	3.8189	-0.6635	25.75	0.04	-1.500			
0.2535	16221.61	3.8160	3.8161	-0.6704	25.75	0.04	-1.500			
0.2555	16351.90	3.8130	3.8130	-0.6727	25.76	0.05	-1.500			
0.2575	16481.88	3.8100	3.8100	-0.6766	25.76	0.05	-1.500			
0.2596	16611.69	3.8070	3.8070	-0.6766	25.76	0.05	-1.500			
0.2616	16741.84	3.8040	3.8040	-0.6742	25.77	0.06	-1.500			
0.2636	16871.76	3.8010	3.8010	-0.6748	25.78	0.07	-1.500			
0.2656	17001.51	3.7980	3.7981	-0.6748	25.78	0.07	-1.500			
0.2677	17130.40	3.7950	3.7950	-0.6743	25.79	0.08	-1.500			
0.2697	17260.43	3.7920	3.7920	-0.6752	25.80	0.09	-1.500			
0.2717	17388.73	3.7890	3.7890	-0.6730	25.80	0.09	-1.500			
0.2737	17517.96	3.7860	3.7860	-0.6763	25.81	0.10	-1.500			
0.2758	17648.33	3.7830	3.7831	-0.6814	25.82	0.11	-1.500			
0.2778	17779.32	3.7800	3.7800	-0.6808	25.82	0.11	-1.500			
0.2799	17911.20	3.7770	3.7770	-0.6829	25.83	0.12	-1.500			
0.2819	18042.13	3.7740	3.7740	-0.6855	25.84	0.13	-1.500			
0.2840	18174.09	3.7710	3.7710	-0.6868	25.84	0.13	-1.500			
0.2860	18305.57	3.7680	3.7680	-0.6877	25.85	0.14	-1.500			
0.2881	18437.23	3.7650	3.7650	-0.6872	25.85	0.14	-1.500			
0.2901	18569.07	3.7620	3.7621	-0.6896	25.86	0.15	-1.500			
0.2922	18703.30	3.7590	3.7589	-0.6928	25.87	0.16	-1.500			
0.2943	18835.61	3.7560	3.7561	-0.6956	25.87	0.16	-1.500			
0.2964	18969.08	3.7530	3.7531	-0.6973	25.88	0.17	-1.500			
0.2985	19103.37	3.7500	3.7500	-0.7007	25.88	0.17	-1.500			
0.3006	19237.57	3.7470	3.7470	-0.7055	25.89	0.18	-1.500			
0.3027	19373.80	3.7440	3.7441	-0.7050	25.90	0.19	-1.500			
0.3048	19508.69	3.7410	3.7409	-0.7073	25.90	0.19	-1.500			
0.3070	19645.33	3.7380	3.7381	-0.7125	25.91	0.20	-1.500			
0.3091	19781.65	3.7350	3.7349	-0.7146	25.91	0.20	-1.500			
0.3112	19918.67	3.7320	3.7320	-0.7215	25.92	0.21	-1.500			
0.3134	20057.87	3.7290	3.7290	-0.7270	25.92	0.21	-1.500			
0.3156	20197.11	3.7260	3.7260	-0.7338	25.93	0.22	-1.500			
0.3178	20340.38	3.7230	3.7230	-0.7427	25.94	0.23	-1.500			
0.3201	20483.21	3.7200	3.7200	-0.7463	25.94	0.23	-1.500			
0.3223	20627.17	3.7170	3.7170	-0.7528	25.95	0.24	-1.500			
0.3246	20771.71	3.7140	3.7140	-0.7600	25.96	0.25	-1.500			
0.3268	20917.43	3.7110	3.7110	-0.7694	25.96	0.25	-1.500			
0.3292	21066.31	3.7080	3.7080	-0.7787	25.97	0.26	-1.500			
0.3315	21216.29	3.7050	3.7050	-0.7883	25.98	0.27	-1.500			
0.3339	21369.52	3.7020	3.7020	-0.7965	25.98	0.27	-1.500			
0.3363	21523.63	3.6990	3.6990	-0.8027	25.99	0.28	-1.500			
0.3387	21678.58	3.6960	3.6960	-0.8085	25.99	0.28	-1.500			
0.3412	21833.84	3.6930	3.6929	-0.8157	26.00	0.29	-1.500			
0.3436	21989.57	3.6900	3.6900	-0.8267	26.01	0.30	-1.500			
0.3461	22149.51	3.6870	3.6870	-0.8392	26.01	0.30	-1.500			
0.3486	22311.29	3.6840	3.6840	-0.8525	26.02	0.31	-1.500			
0.3512	22477.93	3.6810	3.6810	-0.8637	26.02	0.31	-1.500			
0.3538	22645.49	3.6780	3.6780	-0.8751	26.03	0.32	-1.500			
0.3565	22813.99	3.6750	3.6750	-0.8882	26.04	0.33	-1.500			
0.3592	22985.91	3.6720	3.6720	-0.8963	26.04	0.33	-1.500			
0.3618	23158.25	3.6690	3.6689	-0.9066	26.05	0.34	-1.500			
0.3646	23333.45	3.6660	3.6661	-0.9177	26.05	0.34	-1.500			
0.3673	23508.80	3.6630	3.6631	-0.9339	26.05	0.34	-1.500			
0.3702	23690.51	3.6600	3.6599	-0.9487	26.06	0.35	-1.500			
0.3730	23873.23	3.6570	3.6570	-0.9667	26.06	0.35	-1.500			
0.3759	24060.58	3.6540	3.6540	-0.9838	26.07	0.36	-1.500			
0.3790	24253.79	3.6510	3.6511	-1.0016	26.07	0.36	-1.500			
0.3820	24447.73	3.6480	3.6479	-1.0123	26.08	0.37	-1.500			
0.3851	24643.52	3.6450	3.6450	-1.0259	26.08	0.37	-1.500			
0.3881	24840.27	3.6420	3.6419	-1.0367	26.09	0.38	-1.500			
0.3912	25039.26	3.6390	3.6390	-1.0521	26.09	0.38	-1.500			
0.3944	25241.12	3.6360	3.6360	-1.0647	26.10	0.39	-1.500			
0.3976	25448.59	3.6330	3.6330	-1.0863	26.10	0.39	-1.500			
0.4009	25660.10	3.6300	3.6299	-1.1013	26.11	0.40	-1.500			
0.4042	25871.71	3.6270	3.6271	-1.1195	26.11	0.40	-1.500			
0.4076	26088.23	3.6240	3.6241	-1.1345	26.12	0.41	-1.500			
0.4111	26308.16	3.6210	3.6210	-1.1531	26.12	0.41	-1.500			
0.4146	26531.65	3.6180	3.6179	-1.1700	26.13	0.42	-1.500			
0.4181	26757.14	3.6150	3.6151	-1.1862	26.13	0.42	-1.500			
0.4217	26986.39	3.6120	3.6121	-1.2069	26.13	0.42	-1.500			
0.4254	27222.62	3.6090	3.6089	-1.2235	26.13	0.42	-1.500			
0.4290	27457.80	3.6060	3.6059	-1.2366	26.14	0.43	-1.500			
0.4328	27696.01	3.6030	3.6032	-1.2552	26.14	0.43	-1.500			
0.4365	27937.90	3.6000	3.6000	-1.2698	26.14	0.43	-1.500			
0.4404	28183.96	3.5970	3.5969	-1.2879	26.15	0.44	-1.500			
0.4442	28431.64	3.5940	3.5940	-1.3081	26.15	0.44	-1.500			
0.4482	28683.60	3.5910	3.5910	-1.3221	26.15	0.44	-1.500			
0.4522	28942.45	3.5880	3.5880	-1.3458	26.16	0.45	-1.500			
0.4563	29202.04	3.5850	3.5850	-1.3603	26.16	0.45	-1.500			
0.4604	29463.14	3.5820	3.5820	-1.3805	26.16	0.45	-1.500			
0.4646	29731.73	3.5790	3.5790	-1.3951	26.17	0.46	-1.500			
0.4688	30000.32	3.5760	3.5760	-1.4143	26.17	0.46	-1.500			
0.4730	30273.37	3.5730	3.5730	-1.4297	26.18	0.47	-1.500			
0.4774	30550.66	3.5700	3.5700	-1.4519	26.18	0.47	-1.500			
0.4817	30830.81	3.5670	3.5670	-1.4674	26.19	0.48	-1.500			
0.4862	31114.63	3.5640	3.5640	-1.4850	26.19	0.48	-1.500			
0.4906	31399.78	3.5610	3.5610	-1.5020	26.20	0.49	-1.500			
0.4952	31691.75	3.5580	3.5580	-1.5240	26.20	0.49	-1.500			
0.4998	31986.17	3.5550	3.5550	-1.5320	26.21	0.50	-1.500			
0.5044	32282.28	3.5520	3.5520	-1.5531	26.22	0.51	-1.500			
0.5091	32580.42	3.5490	3.5491	-1.5716	26.22	0.51	-1.500			
0.5138	32883.47	3.5460	3.5459	-1.5950	26.22	0.51	-1.500			
0.5186	33192.74	3.5430	3.5430	-1.6145	26.22	0.51	-1.500			
0.5235	33504.69	3.5400	3.5400	-1.6311	26.23	0.52	-1.500			
0.5285	33823.22	3.5370	3.5370	-1.6478	26.23	0.52	-1.500			
0.5335	34142.36	3.5340	3.5341	-1.6572	26.23	0.52	-1.500			
0.5384	34458.09	3.5310	3.5311	-1.6695	26.24	0.53	-1.500	0.380	0.530	
0.5434	34778.40	3.5280	3.5280	-1.6770	26.24	0.53	-1.500			
0.5485	35102.40	3.5250	3.5250	-1.6864	26.25	0.54	-1.500			
0.5536	35430.67	3.5220	3.5220	-1.6999	26.25	0.54	-1.500			
0.5587	35757.13	3.5190	3.5191	-1.7078	26.26	0.55	-1.500			
0.5638	36086.18	3.5160	3.5160	-1.7176	26.27	0.56	-1.500			
0.5690	36416.12	3.5130	3.5130	-1.7271	26.27	0.56	-1.500			
0.5742	36746.97	3.5100	3.5100	-1.7302	26.28	0.57	-1.500			
0.5794	37082.92	3.5070	3.5069	-1.7442	26.29	0.58	-1.500			
0.5847	37421.30	3.5040	3.5040	-1.7401	26.29	0.58	-1.500			
0.5899	37755.27	3.5010	3.5010	-1.7370	26.30	0.59	-1.500			
0.5951	38086.90	3.4980	3.4980	-1.7391	26.30	0.59	-1.500			
0.6003	38418.45	3.4950	3.4949	-1.7333	26.31	0.60	-1.500			
0.6055	38754.37	3.4920	3.4919	-1.7313	26.32	0.61	-1.500			
0.6107	39087.89	3.4890	3.4890	-1.7246	26.33	0.62	-1.500			
0.6159	39418.68	3.4860	3.4860	-1.7204	26.34	0.63	-1.500			
0.6211	39750.57	3.4830	3.4830	-1.7103	26.35	0.64	-1.500			
0.6262	40075.26	3.4800	3.4800	-1.6911	26.36	0.65	-1.500			
0.6313	40400.72	3.4770	3.4770	-1.6770	26.37	0.66	-1.500			
0.6363	40721.67	3.4740	3.4740	-1.6602	26.38	0.67	-1.500			
0.6412	41038.17	3.4710	3.4710	-1.6491	26.39	0.68	-1.500			
0.6461	41351.39	3.4680	3.4680	-1.6353	26.41	0.70	-1.500			
0.6510	41663.93	3.4650	3.4650	-1.6169	26.42	0.71	-1.500			
0.6559	41975.62	3.4620	3.4619	-1.6013	26.43	0.72	-1.500			
0.6607	42282.65	3.4590	3.4590	-1.5799	26.45	0.74	-1.500			
0.6654	42584.30	3.4560	3.4560	-1.5591	26.46	0.75	-1.500			
0.6700	42881.21	3.4530	3.4530	-1.5386	26.48	0.77	-1.500			
0.6746	43172.71	3.4500	3.4500	-1.5076	26.49	0.78	-1.500			
0.6791	43460.71	3.4470	3.4470	-1.4913	26.51	0.80	-1.500			
0.6835	43745.72	3.4440	3.4441	-1.4732	26.52	0.81	-1.500			
0.6879	44025.63	3.4410	3.4410	-1.4505	26.54	0.83	-1.500			
0.6922	44300.40	3.4380	3.4380	-1.4381	26.55	0.84	-1.500			
0.6965	44574.47	3.4350	3.4350	-1.4203	26.56	0.85	-1.500			
0.7007	44847.06	3.4320	3.4320	-1.4043	26.58	0.87	-1.500			
0.7049	45115.85	3.4290	3.4289	-1.3900	26.59	0.88	-1.500			
0.7091	45379.54	3.4260	3.4261	-1.3761	26.60	0.89	-1.500			
0.7132	45643.87	3.4230	3.4230	-1.3605	26.62	0.91	-1.500			
0.7172	45901.18	3.4200	3.4200	-1.3506	26.64	0.93	-1.500			
0.7213	46160.69	3.4170	3.4170	-1.3315	26.66	0.95	-1.500			
0.7253	46417.83	3.4140	3.4140	-1.3137	26.67	0.96	-1.500			
0.7292	46668.50	3.4110	3.4109	-1.2871	26.69	0.98	-1.500			
0.7330	46915.18	3.4080	3.4081	-1.2547	26.70	0.99	-1.500			
0.7368	47153.05	3.4050	3.4049	-1.2203	26.72	1.01	-1.500			
0.7404	47382.52	3.4020	3.4021	-1.1956	26.74	1.03	-1.500			
0.7438	47606.10	3.3990	3.3990	-1.1597	26.75	1.04	-1.500			
0.7474	47831.04	3.3960	3.3959	-1.1377	26.77	1.06	-1.500			
0.7507	48047.36	3.3930	3.3929	-1.0995	26.79	1.08	-1.500			
0.7540	48255.87	3.3900	3.3901	-1.0658	26.80	1.09	-1.500			
0.7572	48457.73	3.3870	3.3870	-1.0261	26.81	1.10	-1.500			
0.7602	48649.78	3.3840	3.3839	-0.9832	26.82	1.11	-1.500			
0.7630	48830.68	3.3810	3.3810	-0.9391	26.83	1.12	-1.500			
0.7658	49009.29	3.3780	3.3781	-0.9087	26.85	1.14	-1.500			
0.7685	49180.80	3.3750	3.3750	-0.8772	26.86	1.15	-1.500			
0.7710	49347.00	3.3720	3.3719	-0.8452	26.87	1.16	-1.500			
0.7735	49504.63	3.3690	3.3691	-0.8149	26.88	1.17	-1.500			
0.7759	49657.34	3.3660	3.3659	-0.7912	26.89	1.18	-1.500			
0.7782	49806.38	3.3630	3.3629	-0.7668	26.91	1.20	-1.500			
0.7805	49951.68	3.3600	3.3600	-0.7386	26.92	1.21	-1.500			
0.7827	50091.61	3.3570	3.3570	-0.7156	26.93	1.22	-1.500			
0.7848	50227.11	3.3540	3.3541	-0.6942	26.94	1.23	-1.500			
0.7868	50358.12	3.3510	3.3510	-0.6706	26.95	1.24	-1.500			
0.7888	50482.86	3.3480	3.3479	-0.6502	26.96	1.25	-1.500			
0.7907	50604.96	3.3450	3.3451	-0.6289	26.97	1.26	-1.500			
0.7926	50724.32	3.3420	3.3420	-0.6126	26.98	1.27	-1.500			
0.7944	50840.73	3.3390	3.3390	-0.5964	26.99	1.28	-1.500			
0.7961	50952.88	3.3360	3.3361	-0.5800	26.99	1.28	-1.500			
0.7979	51062.40	3.3330	3.3330	-0.5648	27.00	1.29	-1.500			
0.7995	51169.92	3.3300	3.3299	-0.5480	27.01	1.30	-1.500			
0.8011	51273.46	3.3270	3.3270	-0.5305	27.02	1.31	-1.500			
0.8027	51373.65	3.3240	3.3241	-0.5161	27.03	1.32	-1.500			
0.8042	51471.38	3.3210	3.3209	-0.4979	27.03	1.32	-1.500			
0.8057	51565.02	3.3180	3.3180	-0.4831	27.04	1.33	-1.500			
0.8071	51655.51	3.3150	3.3149	-0.4709	27.04	1.33	-1.500			
0.8085	51744.08	3.3120	3.3121	-0.4597	27.04	1.33	-1.500			
0.8099	51831.61	3.3090	3.3088	-0.4506	27.05	1.34	-1.500			
0.8112	51916.31	3.3060	3.3061	-0.4416	27.06	1.35	-1.500			
0.8125	52000.43	3.3030	3.3030	-0.4297	27.07	1.36	-1.500			
0.8138	52083.31	3.3000	3.3000	-0.4209	27.07	1.36	-1.500			
0.8150	52162.80	3.2970	3.2970	-0.4086	27.08	1.37	-1.500			
0.8163	52240.11	3.2940	3.2941	-0.3977	27.09	1.38	-1.500			
0.8174	52315.33	3.2910	3.2909	-0.3868	27.09	1.38	-1.500			
0.8186	52388.55	3.2880	3.2879	-0.3756	27.10	1.39	-1.500			
0.8197	52458.69	3.2850	3.2851	-0.3658	27.11	1.40	-1.500			
0.8208	52528.45	3.2820	3.2820	-0.3595	27.11	1.40	-1.500			
0.8218	52596.63	3.2790	3.2790	-0.3524	27.12	1.41	-1.500			
0.8229	52663.55	3.2760	3.2760	-0.3444	27.12	1.41	-1.500			
0.8239	52728.58	3.2730	3.2730	-0.3383	27.13	1.42	-1.500			
0.8249	52793.56	3.2700	3.2700	-0.3303	27.13	1.42	-1.500			
0.8259	52856.49	3.2670	3.2670	-0.3240	27.14	1.43	-1.500			
0.8268	52917.47	3.2640	3.2640	-0.3158	27.15	1.44	-1.500			
0.8278	52977.24	3.2610	3.2610	-0.3092	27.15	1.44	-1.500			
0.8287	53035.77	3.2580	3.2580	-0.3031	27.16	1.45	-1.500			
0.8296	53093.24	3.2550	3.2550	-0.2976	27.17	1.46	-1.500			
0.8305	53149.82	3.2520	3.2520	-0.2915	27.17	1.46	-1.500			
0.8313	53205.70	3.2490	3.2489	-0.2870	27.18	1.47	-1.500			
0.8322	53260.24	3.2460	3.2461	-0.2794	27.18	1.47	-1.500			
0.8330	53313.49	3.2430	3.2432	-0.2752	27.19	1.48	-1.500			
0.8338	53365.51	3.2400	3.2400	-0.2696	27.20	1.49	-1.500			
0.8346	53416.64	3.2370	3.2369	-0.2650	27.20	1.49	-1.500			
0.8354	53466.48	3.2340	3.2340	-0.2602	27.21	1.50	-1.500			
0.8362	53516.00	3.2310	3.2311	-0.2565	27.21	1.50	-1.500			
0.8370	53565.08	3.2280	3.2279	-0.2537	27.22	1.51	-1.500			
0.8377	53613.67	3.2250	3.2250	-0.2508	27.22	1.51	-1.500			
0.8385	53661.27	3.2220	3.2220	-0.2453	27.23	1.52	-1.500			
0.8392	53708.59	3.2190	3.2190	-0.2417	27.23	1.52	-1.500			
0.8399	53754.22	3.2160	3.2161	-0.2380	27.24	1.53	-1.500			
0.8406	53799.18	3.2130	3.2130	-0.2344	27.24	1.53	-1.500			
0.8413	53843.76	3.2100	3.2099	-0.2307	27.25	1.54	-1.500			
0.8420	53887.60	3.2070	3.2069	-0.2274	27.25	1.54	-1.500			
0.8427	53930.89	3.2040	3.2041	-0.2245	27.26	1.55	-1.500			
0.8433	53973.86	3.2010	3.2010	-0.2218	27.26	1.55	-1.500			
0.8440	54016.38	3.1980	3.1980	-0.2201	27.27	1.56	-1.500			
0.8447	54058.32	3.1950	3.1950	-0.2173	27.27	1.56	-1.500			
0.8453	54099.49	3.1920	3.1920	-0.2139	27.28	1.57	-1.500			
0.8459	54140.49	3.1890	3.1889	-0.2115	27.28	1.57	-1.500			
0.8466	54181.03	3.1860	3.1860	-0.2094	27.29	1.58	-1.500			
0.8472	54220.95	3.1830	3.1831	-0.2065	27.29	1.58	-1.500			
0.8478	54260.43	3.1800	3.1800	-0.2030	27.30	1.59	-1.500			
0.8484	54298.95	3.1770	3.1770	-0.2005	27.30	1.59	-1.500			
0.8490	54336.47	3.1740	3.1740	-0.1978	27.31	1.60	-1.500			
0.8496	54374.36	3.1710	3.1711	-0.1968	27.31	1.60	-1.500			
0.8502	54412.08	3.1680	3.1679	-0.1948	27.32	1.61	-1.500			
0.8508	54449.28	3.1650	3.1650	-0.1931	27.32	1.61	-1.500			
0.8513	54486.37	3.1620	3.1620	-0.1916	27.32	1.61	-1.500			
0.8519	54523.00	3.1590	3.1591	-0.1899	27.33	1.62	-1.500			
0.8525	54559.80	3.1560	3.1559	-0.1877	27.33	1.62	-1.500			
0.8531	54595.21	3.1530	3.1530	-0.1856	27.34	1.63	-1.500			
0.8536	54630.44	3.1500	3.1501	-0.1829	27.34	1.63	-1.500			
0.8541	54665.41	3.1470	3.1469	-0.1814	27.35	1.64	-1.500			
0.8547	54700.22	3.1440	3.1439	-0.1802	27.35	1.64	-1.500			
0.8552	54734.36	3.1410	3.1411	-0.1787	27.36	1.65	-1.500			
0.8558	54768.59	3.1380	3.1380	-0.1775	27.36	1.65	-1.500			
0.8563	54802.58	3.1350	3.1351	-0.1766	27.37	1.66	-1.500			
0.8568	54836.50	3.1320	3.1319	-0.1758	27.37	1.66	-1.500			
0.8573	54870.14	3.1290	3.1290	-0.1738	27.37	1.66	-1.500			
0.8579	54903.72	3.1260	3.1260	-0.1729	27.38	1.67	-1.500			
0.8584	54936.71	3.1230	3.1230	-0.1707	27.38	1.67	-1.500			
0.8589	54969.37	3.1200	3.1200	-0.1685	27.39	1.68	-1.500			
0.8594	55001.21	3.1170	3.1170	-0.1669	27.40	1.69	-1.500			
0.8599	55032.89	3.1140	3.1140	-0.1654	27.40	1.69	-1.500			
0.8604	55064.55	3.1110	3.1111	-0.1644	27.41	1.70	-1.500			
0.8609	55095.75	3.1080	3.1079	-0.1632	27.41	1.70	-1.500			
0.8614	55127.31	3.1050	3.1051	-0.1623	27.42	1.71	-1.500			
0.8619	55158.50	3.1020	3.1020	-0.1613	27.42	1.71	-1.500			
0.8623	55189.33	3.0990	3.0990	-0.1598	27.43	1.72	-1.500			
0.8628	55220.00	3.0960	3.0960	-0.1588	27.43	1.72	-1.500			
0.8633	55250.03	3.0930	3.0929	-0.1575	27.44	1.73	-1.500			
0.8638	55280.01	3.0900	3.0901	-0.1565	27.44	1.73	-1.500			
0.8642	55310.02	3.0870	3.0870	-0.1561	27.45	1.74	-1.500			
0.8647	55340.00	3.0840	3.0840	-0.1548	27.45	1.74	-1.500			
0.8652	55369.94	3.0810	3.0809	-0.1539	27.46	1.75	-1.500			
0.8656	55399.51	3.0780	3.0781	-0.1527	27.46	1.75	-1.500			
0.8661	55428.47	3.0750	3.0751	-0.1519	27.47	1.76	-1.500			
0.8665	55457.55	3.0720	3.0720	-0.1504	27.47	1.76	-1.500			
0.8670	55486.17	3.0690	3.0690	-0.1490	27.48	1.77	-1.500			
0.8674	55514.56	3.0660	3.0659	-0.1478	27.48	1.77	-1.500			
0.8679	55542.87	3.0630	3.0631	-0.1471	27.49	1.78	-1.500			
0.8683	55571.06	3.0600	3.0601	-0.1469	27.49	1.78	-1.500			
0.8687	55599.15	3.0570	3.0569	-0.1461	27.50	1.79	-1.500			
0.8692	55627.22	3.0540	3.0540	-0.1451	27.51	1.80	-1.500			
0.8696	55654.92	3.0510	3.0510	-0.1437	27.51	1.80	-1.500			
0.8700	55682.71	3.0480	3.0481	-0.1433	27.52	1.81	-1.500			
0.8705	55710.09	3.0450	3.0450	-0.1418	27.52	1.81	-1.500			
0.8709	55737.14	3.0420	3.0420	-0.1409	27.53	1.82	-1.500			
0.8713	55763.87	3.0390	3.0390	-0.1402	27.53	1.82	-1.500			
0.8717	55790.68	3.0360	3.0360	-0.1389	27.54	1.83	-1.500			
0.8721	55817.29	3.0330	3.0330	-0.1383	27.54	1.83	-1.500			
0.8726	55844.02	3.0300	3.0300	-0.1371	27.55	1.84	-1.500			
0.8730	55870.18	3.0270	3.0271	-0.1367	27.55	1.84	-1.500			
0.8734	55896.26	3.0240	3.0239	-0.1359	27.56	1.85	-1.500			
0.8738	55922.28	3.0210	3.0211	-0.1352	27.56	1.85	-1.500			
0.8742	55947.95	3.0180	3.0179	-0.1348	27.57	1.86	-1.500			
0.8746	55973.76	3.0150	3.0151	-0.1339	27.57	1.86	-1.500			
0.8750	55999.67	3.0120	3.0120	-0.1340	27.58	1.87	-1.500			
0.8754	56025.32	3.0090	3.0090	-0.1332	27.58	1.87	-1.500			
0.8758	56051.04	3.0060	3.0060	-0.1314	27.59	1.88	-1.500			
0.8762	56076.11	3.0030	3.0029	-0.1305	27.59	1.88	-1.500			
