Ah_balance (normalized)	Ah_balance (mAh)	Voltage - fit (V)	Voltage -  interpolate (V)	dQ/dV (1/V)	Temperature (°C)	Temperature - diff (°C)	Current (C)	R_DC 0ms (mOhm)	R_DC 50ms (mOhm)	R_DC 50 ms PEC (mOhm)
0.2901	18567.90	3.9700	3.9700	0.8953	26.95	1.01	1.500			
0.2928	18739.82	3.9670	3.9670	0.8947	26.95	1.01	1.500			
0.2955	18911.25	3.9640	3.9640	0.8946	26.94	1.00	1.500			
0.2982	19086.11	3.9610	3.9609	0.8836	26.94	1.00	1.500			
0.3008	19252.77	3.9580	3.9580	0.8897	26.94	1.00	1.500			
0.3035	19421.46	3.9550	3.9552	0.8906	26.94	1.00	1.500			
0.3061	19591.27	3.9520	3.9518	0.9009	26.94	1.00	1.500			
0.3088	19766.17	3.9490	3.9491	0.9061	26.94	1.00	1.500			
0.3116	19940.89	3.9460	3.9460	0.9102	26.94	1.00	1.500			
0.3143	20116.63	3.9430	3.9431	0.9167	26.94	1.00	1.500			
0.3171	20296.02	3.9400	3.9401	0.9167	26.94	1.00	1.500			
0.3198	20469.94	3.9370	3.9369	0.9222	26.93	0.99	1.500			
0.3226	20648.11	3.9340	3.9340	0.9246	26.93	0.99	1.500			
0.3254	20825.57	3.9310	3.9310	0.9287	26.93	0.99	1.500			
0.3282	21006.43	3.9280	3.9279	0.9414	26.93	0.99	1.500			
0.3311	21187.32	3.9250	3.9251	0.9419	26.93	0.99	1.500			
0.3339	21367.24	3.9220	3.9220	0.9497	26.93	0.99	1.500			
0.3367	21550.57	3.9190	3.9190	0.9577	26.92	0.98	1.500			
0.3396	21734.60	3.9160	3.9160	0.9594	26.92	0.98	1.500			
0.3425	21921.29	3.9130	3.9130	0.9695	26.92	0.98	1.500			
0.3454	22108.39	3.9100	3.9100	0.9744	26.91	0.97	1.500			
0.3484	22294.56	3.9070	3.9070	0.9821	26.91	0.97	1.500			
0.3513	22483.86	3.9040	3.9040	0.9902	26.91	0.97	1.500			
0.3543	22673.62	3.9010	3.9010	0.9947	26.90	0.96	1.500			
0.3573	22866.06	3.8980	3.8980	1.0069	26.90	0.96	1.500			
0.3603	23060.56	3.8950	3.8950	1.0179	26.90	0.96	1.500			
0.3634	23256.85	3.8920	3.8920	1.0261	26.89	0.95	1.500			
0.3665	23454.54	3.8890	3.8890	1.0357	26.89	0.95	1.500			
0.3696	23654.32	3.8860	3.8860	1.0404	26.89	0.95	1.500			
0.3727	23855.91	3.8830	3.8830	1.0509	26.89	0.95	1.500			
0.3759	24057.24	3.8800	3.8800	1.0643	26.88	0.94	1.500			
0.3791	24261.67	3.8770	3.8770	1.0750	26.88	0.94	1.500			
0.3823	24468.01	3.8740	3.8741	1.0936	26.88	0.94	1.500			
0.3856	24680.43	3.8710	3.8710	1.1118	26.88	0.94	1.500			
0.3890	24897.93	3.8680	3.8680	1.1223	26.87	0.93	1.500			
0.3924	25115.40	3.8650	3.8651	1.1362	26.87	0.93	1.500			
0.3959	25334.78	3.8620	3.8620	1.1468	26.86	0.92	1.500			
0.3993	25553.01	3.8590	3.8590	1.1663	26.86	0.92	1.500			
0.4028	25777.04	3.8560	3.8559	1.1805	26.85	0.91	1.500			
0.4063	26004.28	3.8530	3.8529	1.1989	26.85	0.91	1.500			
0.4100	26237.52	3.8500	3.8501	1.2249	26.84	0.90	1.500			
0.4137	26475.83	3.8470	3.8470	1.2490	26.84	0.90	1.500			
0.4175	26720.69	3.8440	3.8439	1.2606	26.83	0.89	1.500			
0.4213	26962.35	3.8410	3.8410	1.2855	26.82	0.88	1.500			
0.4251	27208.36	3.8380	3.8381	1.2987	26.81	0.87	1.500			
0.4291	27461.10	3.8350	3.8351	1.3300	26.81	0.87	1.500			
0.4331	27716.09	3.8320	3.8319	1.3594	26.80	0.86	1.500			
0.4372	27980.73	3.8290	3.8291	1.3807	26.79	0.85	1.500			
0.4414	28251.87	3.8260	3.8259	1.3974	26.78	0.84	1.500			
0.4456	28519.66	3.8230	3.8230	1.4351	26.78	0.84	1.500			
0.4499	28794.18	3.8200	3.8201	1.4664	26.77	0.83	1.500			
0.4543	29078.03	3.8170	3.8170	1.5113	26.76	0.82	1.500			
0.4589	29372.37	3.8140	3.8140	1.5440	26.75	0.81	1.500			
0.4637	29674.09	3.8110	3.8111	1.5777	26.74	0.80	1.500			
0.4685	29983.49	3.8080	3.8081	1.6275	26.73	0.79	1.500			
0.4734	30298.92	3.8050	3.8050	1.6763	26.72	0.78	1.500			
0.4784	30615.44	3.8020	3.8020	1.7080	26.71	0.77	1.500			
0.4836	30950.74	3.7990	3.7990	1.7615	26.70	0.76	1.500			
0.4890	31297.19	3.7960	3.7960	1.8122	26.68	0.74	1.500			
0.4946	31654.33	3.7930	3.7930	1.8681	26.67	0.73	1.500			
0.5002	32015.18	3.7900	3.7900	1.9126	26.66	0.72	1.500			
0.5060	32381.57	3.7870	3.7869	1.9648	26.64	0.70	1.500			
0.5119	32762.15	3.7840	3.7840	2.0112	26.63	0.69	1.500			
0.5180	33152.71	3.7810	3.7810	2.0697	26.61	0.67	1.500			
0.5243	33553.84	3.7780	3.7782	2.1287	26.60	0.66	1.500			
0.5307	33966.42	3.7750	3.7748	2.1833	26.58	0.64	1.500			
0.5374	34394.44	3.7720	3.7721	2.2057	26.56	0.62	1.500			
0.5441	34822.72	3.7690	3.7691	2.2500	26.55	0.61	1.500			
0.5509	35255.75	3.7660	3.7661	2.2890	26.53	0.59	1.500			
0.5578	35699.92	3.7630	3.7630	2.3473	26.51	0.57	1.500			
0.5651	36163.36	3.7600	3.7595	2.3757	26.49	0.55	1.500	0.362	0.450	
0.5724	36631.02	3.7570	3.7571	2.4158	26.47	0.53	1.500			
0.5795	37089.76	3.7540	3.7540	2.3590	26.45	0.51	1.500			
0.5865	37535.34	3.7510	3.7510	2.2948	26.43	0.49	1.500			
0.5933	37972.47	3.7480	3.7480	2.2364	26.41	0.47	1.500			
0.6000	38396.95	3.7450	3.7450	2.2039	26.39	0.45	1.500			
0.6063	38805.85	3.7420	3.7418	2.1806	26.37	0.43	1.500			
0.6131	39237.72	3.7390	3.7390	2.1748	26.35	0.41	1.500			
0.6195	39645.07	3.7360	3.7361	2.1698	26.33	0.39	1.500			
0.6260	40065.09	3.7330	3.7330	2.1913	26.32	0.38	1.500			
0.6324	40474.94	3.7300	3.7298	2.2002	26.30	0.36	1.500			
0.6391	40902.10	3.7270	3.7271	2.2050	26.29	0.35	1.500			
0.6459	41337.33	3.7240	3.7240	2.2782	26.27	0.33	1.500			
0.6526	41766.19	3.7210	3.7210	2.2735	26.26	0.32	1.500			
0.6595	42206.22	3.7180	3.7181	2.3289	26.24	0.30	1.500			
0.6665	42654.57	3.7150	3.7150	2.3809	26.23	0.29	1.500			
0.6737	43116.52	3.7120	3.7121	2.5134	26.22	0.28	1.500			
0.6814	43608.43	3.7090	3.7088	2.6131	26.20	0.26	1.500			
0.6894	44122.78	3.7060	3.7062	2.7259	26.18	0.24	1.500			
0.6977	44654.38	3.7030	3.7030	2.8513	26.16	0.22	1.500			
0.7064	45208.99	3.7000	3.7000	2.8828	26.14	0.20	1.500			
0.7153	45781.87	3.6970	3.6972	2.9054	26.13	0.19	1.500			
0.7243	46357.57	3.6940	3.6940	2.8865	26.11	0.17	1.500			
0.7326	46883.75	3.6910	3.6910	2.6693	26.10	0.16	1.500			
0.7406	47395.69	3.6880	3.6880	2.4962	26.09	0.15	1.500			
0.7477	47853.57	3.6850	3.6851	2.3102	26.09	0.15	1.500			
0.7543	48272.94	3.6820	3.6820	2.0942	26.08	0.14	1.500			
0.7602	48654.46	3.6790	3.6790	1.9191	26.08	0.14	1.500			
0.7657	49002.78	3.6760	3.6760	1.7725	26.07	0.13	1.500			
0.7706	49319.05	3.6730	3.6730	1.6450	26.06	0.12	1.500			
0.7753	49622.03	3.6700	3.6700	1.5470	26.06	0.12	1.500			
0.7797	49901.86	3.6670	3.6670	1.4585	26.05	0.11	1.500			
0.7840	50173.67	3.6640	3.6639	1.3912	26.05	0.11	1.500			
0.7880	50434.37	3.6610	3.6611	1.3336	26.04	0.10	1.500			
0.7919	50682.86	3.6580	3.6580	1.2825	26.04	0.10	1.500			
0.7956	50920.33	3.6550	3.6550	1.2510	26.03	0.09	1.500			
0.7992	51151.74	3.6520	3.6520	1.2380	26.03	0.09	1.500			
0.8028	51380.92	3.6490	3.6490	1.2338	26.02	0.08	1.500			
0.8065	51617.23	3.6460	3.6459	1.2459	26.02	0.08	1.500			
0.8103	51857.75	3.6430	3.6430	1.2622	26.01	0.07	1.500			
0.8141	52102.11	3.6400	3.6401	1.2833	26.01	0.07	1.500			
0.8180	52354.98	3.6370	3.6370	1.2894	26.00	0.06	1.500			
0.8219	52602.81	3.6340	3.6340	1.3025	25.99	0.05	1.500			
0.8258	52853.94	3.6310	3.6310	1.3089	25.98	0.04	1.500			
0.8298	53105.50	3.6280	3.6282	1.3103	25.97	0.03	1.500			
0.8337	53358.65	3.6250	3.6251	1.3143	25.97	0.03	1.500			
0.8377	53611.17	3.6220	3.6220	1.3150	25.96	0.02	1.500			
0.8416	53863.44	3.6190	3.6190	1.3152	25.96	0.02	1.500			
0.8456	54119.72	3.6160	3.6159	1.3159	25.95	0.01	1.500			
0.8495	54368.35	3.6130	3.6130	1.3049	25.95	0.01	1.500			
0.8534	54620.38	3.6100	3.6101	1.2992	25.94	0.00	1.500			
0.8574	54870.49	3.6070	3.6070	1.2926	25.94	-0.00	1.500			
0.8612	55117.15	3.6040	3.6040	1.2810	25.94	-0.00	1.500			
0.8650	55361.69	3.6010	3.6010	1.2697	25.93	-0.01	1.500			
0.8688	55605.26	3.5980	3.5980	1.2530	25.93	-0.01	1.500			
0.8726	55846.30	3.5950	3.5950	1.2427	25.93	-0.01	1.500			
0.8763	56082.20	3.5920	3.5921	1.2253	25.92	-0.02	1.500			
0.8799	56316.46	3.5890	3.5890	1.2128	25.92	-0.02	1.500			
0.8835	56545.90	3.5860	3.5860	1.2016	25.92	-0.02	1.500			
0.8871	56772.85	3.5830	3.5830	1.1963	25.92	-0.02	1.500			
0.8906	57000.35	3.5800	3.5800	1.2060	25.93	-0.01	1.500			
0.8943	57233.66	3.5770	3.5769	1.2154	25.93	-0.01	1.500			
0.8980	57472.15	3.5740	3.5739	1.2003	25.93	-0.01	1.500			
0.9017	57708.96	3.5710	3.5710	1.1664	25.94	-0.00	1.500			
0.9054	57947.74	3.5680	3.5679	1.0798	25.94	-0.00	1.500			
0.9087	58153.74	3.5650	3.5652	0.9561	25.94	0.00	1.500			
0.9114	58331.24	3.5620	3.5622	0.8157	25.94	0.00	1.500			
0.9136	58470.16	3.5590	3.5590	0.6605	25.95	0.01	1.500			
0.9152	58572.75	3.5560	3.5558	0.5207	25.95	0.01	1.500			
0.9164	58652.31	3.5530	3.5528	0.4196	25.95	0.01	1.500			
0.9174	58714.51	3.5500	3.5500	0.3377	25.95	0.01	1.500			
0.9183	58769.78	3.5470	3.5470	0.2862	25.95	0.01	1.500			
0.9190	58815.93	3.5440	3.5438	0.2373	25.95	0.01	1.500			
0.9196	58855.45	3.5410	3.5409	0.2077	25.95	0.01	1.500			
0.9201	58889.40	3.5380	3.5382	0.1803	25.95	0.01	1.500			
0.9206	58921.48	3.5350	3.5350	0.1590	25.95	0.01	1.500			
0.9211	58949.79	3.5320	3.5320	0.1420	25.95	0.01	1.500			
0.9215	58974.89	3.5290	3.5290	0.1240	25.95	0.01	1.500			
0.9218	58996.76	3.5260	3.5260	0.1071	25.95	0.01	1.500			
0.9221	59015.73	3.5230	3.5231	0.0913	25.95	0.01	1.500			
0.9224	59031.76	3.5200	3.5201	0.0756	25.95	0.01	1.500			
0.9226	59045.01	3.5170	3.5173	0.0591	25.95	0.01	1.500			
0.9227	59054.77	3.5140	3.5145	0.0426	25.95	0.01	1.500			
