Ah_balance (normalized)	Ah_balance (mAh)	Voltage - fit (V)	Voltage -  interpolate (V)	dQ/dV (1/V)	Temperature (°C)	Temperature - diff (°C)	Current (C)	R_DC 0ms (mOhm)	R_DC 50ms (mOhm)	R_DC 50 ms PEC (mOhm)
0.1885	12061.40	3.9280	3.9277	-0.0955	25.74	0.00	-1.500			
0.1888	12082.31	3.9250	3.9249	-0.1229	25.74	0.00	-1.500			
0.1892	12108.62	3.9220	3.9220	-0.1512	25.74	0.00	-1.500			
0.1897	12140.43	3.9190	3.9191	-0.1794	25.74	0.00	-1.500			
0.1903	12177.65	3.9160	3.9159	-0.2065	25.74	0.00	-1.500			
0.1909	12220.61	3.9130	3.9130	-0.2331	25.74	0.00	-1.500			
0.1917	12267.77	3.9100	3.9100	-0.2594	25.74	0.00	-1.500			
0.1925	12320.05	3.9070	3.9070	-0.2856	25.74	0.00	-1.500			
0.1934	12377.67	3.9040	3.9041	-0.3107	25.74	0.00	-1.500			
0.1944	12439.40	3.9010	3.9010	-0.3365	25.74	0.00	-1.500			
0.1954	12506.53	3.8980	3.8980	-0.3619	25.74	0.00	-1.500			
0.1965	12578.94	3.8950	3.8950	-0.3863	25.74	0.00	-1.500			
0.1977	12655.59	3.8920	3.8920	-0.4118	25.74	0.00	-1.500			
0.1990	12737.02	3.8890	3.8890	-0.4342	25.74	0.00	-1.500			
0.2004	12822.84	3.8860	3.8860	-0.4589	25.74	0.00	-1.500			
0.2018	12913.30	3.8830	3.8830	-0.4828	25.74	0.00	-1.500			
0.2033	13008.30	3.8800	3.8800	-0.5037	25.74	0.00	-1.500			
0.2048	13107.60	3.8770	3.8770	-0.5260	25.74	0.00	-1.500			
0.2064	13212.04	3.8740	3.8740	-0.5439	25.74	0.00	-1.500			
0.2081	13317.75	3.8710	3.8710	-0.5598	25.74	0.00	-1.500			
0.2098	13427.97	3.8680	3.8680	-0.5764	25.74	0.00	-1.500			
0.2116	13539.36	3.8650	3.8650	-0.5895	25.74	0.00	-1.500			
0.2133	13654.34	3.8620	3.8619	-0.6011	25.74	0.00	-1.500			
0.2152	13770.90	3.8590	3.8591	-0.6145	25.74	0.00	-1.500			
0.2170	13890.72	3.8560	3.8559	-0.6246	25.74	0.00	-1.500			
0.2189	14012.73	3.8530	3.8530	-0.6327	25.74	0.00	-1.500			
0.2209	14134.45	3.8500	3.8500	-0.6401	25.74	0.00	-1.500			
0.2228	14258.29	3.8470	3.8470	-0.6473	25.74	0.00	-1.500			
0.2247	14383.15	3.8440	3.8440	-0.6548	25.74	0.00	-1.500			
0.2267	14510.10	3.8410	3.8411	-0.6619	25.75	0.01	-1.500			
0.2287	14637.68	3.8380	3.8380	-0.6669	25.75	0.01	-1.500			
0.2307	14767.19	3.8350	3.8350	-0.6728	25.75	0.01	-1.500			
0.2328	14897.51	3.8320	3.8320	-0.6773	25.76	0.02	-1.500			
0.2348	15027.06	3.8290	3.8290	-0.6794	25.76	0.02	-1.500			
0.2369	15158.72	3.8260	3.8260	-0.6831	25.76	0.02	-1.500			
0.2389	15289.91	3.8230	3.8230	-0.6844	25.77	0.03	-1.500			
0.2410	15422.19	3.8200	3.8199	-0.6875	25.77	0.03	-1.500			
0.2430	15554.63	3.8170	3.8170	-0.6856	25.77	0.03	-1.500			
0.2451	15686.68	3.8140	3.8140	-0.6857	25.78	0.04	-1.500			
0.2471	15817.29	3.8110	3.8111	-0.6900	25.78	0.04	-1.500			
0.2492	15949.72	3.8080	3.8079	-0.6902	25.79	0.05	-1.500			
0.2513	16082.60	3.8050	3.8049	-0.6912	25.79	0.05	-1.500			
0.2534	16215.40	3.8020	3.8021	-0.6934	25.80	0.06	-1.500			
0.2555	16350.38	3.7990	3.7990	-0.6967	25.80	0.06	-1.500			
0.2576	16484.27	3.7960	3.7959	-0.6952	25.81	0.07	-1.500			
0.2596	16616.04	3.7930	3.7930	-0.6965	25.81	0.07	-1.500			
0.2617	16749.34	3.7900	3.7900	-0.6966	25.82	0.08	-1.500			
0.2638	16884.50	3.7870	3.7869	-0.7011	25.82	0.08	-1.500			
0.2659	17019.57	3.7840	3.7840	-0.7007	25.83	0.09	-1.500			
0.2680	17153.85	3.7810	3.7811	-0.7009	25.83	0.09	-1.500			
0.2701	17288.65	3.7780	3.7780	-0.7023	25.84	0.10	-1.500			
0.2722	17423.66	3.7750	3.7751	-0.7019	25.84	0.10	-1.500			
0.2743	17557.56	3.7720	3.7720	-0.7021	25.85	0.11	-1.500			
0.2765	17692.86	3.7690	3.7690	-0.7049	25.85	0.11	-1.500			
0.2786	17828.08	3.7660	3.7660	-0.7053	25.86	0.12	-1.500			
0.2807	17964.33	3.7630	3.7630	-0.7071	25.87	0.13	-1.500			
0.2828	18100.01	3.7600	3.7600	-0.7061	25.88	0.14	-1.500			
0.2849	18235.40	3.7570	3.7570	-0.7058	25.88	0.14	-1.500			
0.2870	18370.76	3.7540	3.7540	-0.7080	25.89	0.15	-1.500			
0.2891	18505.03	3.7510	3.7510	-0.7143	25.90	0.16	-1.500			
0.2913	18643.17	3.7480	3.7480	-0.7197	25.90	0.16	-1.500			
0.2935	18782.83	3.7450	3.7449	-0.7220	25.91	0.17	-1.500			
0.2957	18921.96	3.7420	3.7420	-0.7261	25.92	0.18	-1.500			
0.2979	19062.49	3.7390	3.7391	-0.7309	25.92	0.18	-1.500			
0.3000	19202.91	3.7360	3.7359	-0.7329	25.93	0.19	-1.500			
0.3022	19342.14	3.7330	3.7330	-0.7360	25.94	0.20	-1.500			
0.3044	19483.39	3.7300	3.7300	-0.7344	25.94	0.20	-1.500			
0.3067	19626.25	3.7270	3.7270	-0.7411	25.95	0.21	-1.500			
0.3089	19769.08	3.7240	3.7240	-0.7515	25.96	0.22	-1.500			
0.3111	19912.39	3.7210	3.7210	-0.7580	25.97	0.23	-1.500			
0.3134	20059.06	3.7180	3.7179	-0.7611	25.97	0.23	-1.500			
0.3157	20205.14	3.7150	3.7151	-0.7717	25.98	0.24	-1.500			
0.3180	20353.98	3.7120	3.7121	-0.7788	25.99	0.25	-1.500			
0.3204	20505.25	3.7090	3.7089	-0.7887	26.00	0.26	-1.500			
0.3228	20657.32	3.7060	3.7060	-0.7926	26.00	0.26	-1.500			
0.3251	20809.03	3.7030	3.7031	-0.7994	26.01	0.27	-1.500			
0.3275	20963.19	3.7000	3.6999	-0.8110	26.01	0.27	-1.500			
0.3300	21119.94	3.6970	3.6971	-0.8219	26.02	0.28	-1.500			
0.3325	21278.13	3.6940	3.6940	-0.8309	26.03	0.29	-1.500			
0.3350	21440.14	3.6910	3.6909	-0.8438	26.03	0.29	-1.500			
0.3375	21602.82	3.6880	3.6880	-0.8558	26.04	0.30	-1.500			
0.3401	21768.81	3.6850	3.6850	-0.8644	26.04	0.30	-1.500			
0.3427	21935.24	3.6820	3.6820	-0.8686	26.05	0.31	-1.500			
0.3453	22101.24	3.6790	3.6790	-0.8791	26.06	0.32	-1.500			
0.3480	22270.49	3.6760	3.6760	-0.8941	26.06	0.32	-1.500			
0.3507	22444.07	3.6730	3.6730	-0.9063	26.07	0.33	-1.500			
0.3534	22619.25	3.6700	3.6699	-0.9196	26.07	0.33	-1.500			
0.3562	22796.27	3.6670	3.6671	-0.9337	26.08	0.34	-1.500			
0.3591	22979.40	3.6640	3.6641	-0.9469	26.08	0.34	-1.500			
0.3619	23162.48	3.6610	3.6609	-0.9600	26.09	0.35	-1.500			
0.3648	23345.81	3.6580	3.6580	-0.9724	26.10	0.36	-1.500			
0.3677	23532.28	3.6550	3.6551	-0.9862	26.10	0.36	-1.500			
0.3707	23724.17	3.6520	3.6520	-1.0029	26.11	0.37	-1.500			
0.3737	23918.69	3.6490	3.6489	-1.0166	26.11	0.37	-1.500			
0.3768	24114.37	3.6460	3.6461	-1.0363	26.12	0.38	-1.500			
0.3799	24316.59	3.6430	3.6430	-1.0552	26.12	0.38	-1.500			
0.3831	24519.45	3.6400	3.6400	-1.0688	26.13	0.39	-1.500			
0.3863	24726.31	3.6370	3.6370	-1.0874	26.13	0.39	-1.500			
0.3896	24936.25	3.6340	3.6341	-1.1060	26.14	0.40	-1.500			
0.3930	25150.06	3.6310	3.6310	-1.1274	26.14	0.40	-1.500			
0.3964	25368.00	3.6280	3.6280	-1.1494	26.15	0.41	-1.500			
0.3999	25590.76	3.6250	3.6250	-1.1684	26.15	0.41	-1.500			
0.4034	25818.72	3.6220	3.6219	-1.1894	26.16	0.42	-1.500			
0.4070	26050.41	3.6190	3.6190	-1.2029	26.16	0.42	-1.500			
0.4107	26283.54	3.6160	3.6161	-1.2231	26.16	0.42	-1.500			
0.4144	26520.51	3.6130	3.6129	-1.2383	26.16	0.42	-1.500			
0.4181	26759.54	3.6100	3.6100	-1.2492	26.17	0.43	-1.500			
0.4218	26998.27	3.6070	3.6073	-1.2671	26.17	0.43	-1.500			
0.4257	27243.11	3.6040	3.6040	-1.2870	26.17	0.43	-1.500			
0.4296	27492.38	3.6010	3.6010	-1.3060	26.17	0.43	-1.500			
0.4335	27744.76	3.5980	3.5980	-1.3254	26.17	0.43	-1.500			
0.4375	28003.08	3.5950	3.5951	-1.3520	26.18	0.44	-1.500			
0.4416	28264.93	3.5920	3.5920	-1.3665	26.18	0.44	-1.500			
0.4458	28528.83	3.5890	3.5890	-1.3867	26.18	0.44	-1.500			
0.4499	28795.41	3.5860	3.5860	-1.4013	26.18	0.44	-1.500			
0.4542	29065.67	3.5830	3.5830	-1.4213	26.19	0.45	-1.500			
0.4584	29339.17	3.5800	3.5800	-1.4470	26.19	0.45	-1.500			
0.4628	29619.65	3.5770	3.5770	-1.4687	26.19	0.45	-1.500			
0.4673	29904.72	3.5740	3.5740	-1.4858	26.20	0.46	-1.500			
0.4718	30192.54	3.5710	3.5710	-1.5101	26.20	0.46	-1.500			
0.4763	30483.85	3.5680	3.5681	-1.5315	26.20	0.46	-1.500			
0.4809	30780.65	3.5650	3.5649	-1.5553	26.21	0.47	-1.500			
0.4856	31080.88	3.5620	3.5620	-1.5717	26.21	0.47	-1.500			
0.4904	31386.11	3.5590	3.5590	-1.5877	26.21	0.47	-1.500			
0.4952	31693.66	3.5560	3.5559	-1.6082	26.22	0.48	-1.500			
0.5001	32003.56	3.5530	3.5531	-1.6266	26.22	0.48	-1.500			
0.5049	32315.60	3.5500	3.5500	-1.6399	26.23	0.49	-1.500			
0.5099	32632.69	3.5470	3.5469	-1.6559	26.23	0.49	-1.500			
0.5149	32952.49	3.5440	3.5440	-1.6768	26.23	0.49	-1.500			
0.5199	33276.59	3.5410	3.5410	-1.7008	26.24	0.50	-1.500			
0.5251	33606.03	3.5380	3.5379	-1.7155	26.24	0.50	-1.500			
0.5303	33937.31	3.5350	3.5350	-1.7270	26.25	0.51	-1.500	0.379	0.521	
0.5355	34271.40	3.5320	3.5320	-1.7348	26.26	0.52	-1.500			
0.5407	34606.36	3.5290	3.5291	-1.7416	26.26	0.52	-1.500			
0.5460	34943.42	3.5260	3.5261	-1.7469	26.27	0.53	-1.500			
0.5512	35277.85	3.5230	3.5229	-1.7459	26.28	0.54	-1.500			
0.5564	35610.26	3.5200	3.5200	-1.7522	26.28	0.54	-1.500			
0.5617	35947.39	3.5170	3.5170	-1.7621	26.29	0.55	-1.500			
0.5670	36287.77	3.5140	3.5139	-1.7769	26.29	0.55	-1.500			
0.5723	36629.73	3.5110	3.5111	-1.7834	26.30	0.56	-1.500			
0.5777	36972.14	3.5080	3.5081	-1.7940	26.31	0.57	-1.500			
0.5831	37319.65	3.5050	3.5049	-1.7940	26.32	0.58	-1.500			
0.5885	37665.46	3.5020	3.5020	-1.7823	26.33	0.59	-1.500			
0.5939	38008.20	3.4990	3.4990	-1.7771	26.34	0.60	-1.500			
0.5992	38350.09	3.4960	3.4960	-1.7741	26.35	0.61	-1.500			
0.6045	38688.35	3.4930	3.4930	-1.7611	26.36	0.62	-1.500			
0.6097	39023.05	3.4900	3.4900	-1.7524	26.37	0.63	-1.500			
0.6150	39359.03	3.4870	3.4870	-1.7439	26.38	0.64	-1.500			
0.6203	39697.40	3.4840	3.4840	-1.7351	26.40	0.66	-1.500			
0.6255	40030.20	3.4810	3.4810	-1.7239	26.41	0.67	-1.500			
0.6306	40359.94	3.4780	3.4780	-1.7078	26.42	0.68	-1.500			
0.6357	40687.39	3.4750	3.4750	-1.6918	26.43	0.69	-1.500			
0.6408	41010.21	3.4720	3.4720	-1.6705	26.45	0.71	-1.500			
0.6458	41328.09	3.4690	3.4690	-1.6505	26.46	0.72	-1.500			
0.6507	41644.20	3.4660	3.4659	-1.6338	26.47	0.73	-1.500			
0.6556	41956.70	3.4630	3.4630	-1.6111	26.48	0.74	-1.500			
0.6603	42261.35	3.4600	3.4600	-1.5889	26.49	0.75	-1.500			
0.6651	42564.02	3.4570	3.4570	-1.5692	26.50	0.76	-1.500			
0.6698	42865.83	3.4540	3.4540	-1.5508	26.52	0.78	-1.500			
0.6744	43162.46	3.4510	3.4510	-1.5272	26.53	0.79	-1.500			
0.6790	43453.32	3.4480	3.4480	-1.5041	26.55	0.81	-1.500			
0.6835	43740.97	3.4450	3.4450	-1.4839	26.57	0.83	-1.500			
0.6879	44024.85	3.4420	3.4420	-1.4580	26.59	0.85	-1.500			
0.6922	44299.55	3.4390	3.4390	-1.4361	26.60	0.86	-1.500			
0.6964	44572.33	3.4360	3.4361	-1.4168	26.62	0.88	-1.500			
0.7006	44841.52	3.4330	3.4329	-1.4055	26.64	0.90	-1.500			
0.7048	45110.25	3.4300	3.4299	-1.3918	26.65	0.91	-1.500			
0.7090	45376.24	3.4270	3.4270	-1.3850	26.67	0.93	-1.500			
0.7132	45642.42	3.4240	3.4240	-1.3682	26.69	0.95	-1.500			
0.7173	45908.20	3.4210	3.4209	-1.3536	26.71	0.97	-1.500			
0.7213	46166.22	3.4180	3.4181	-1.3252	26.72	0.98	-1.500			
0.7253	46418.64	3.4150	3.4149	-1.3021	26.74	1.00	-1.500			
0.7291	46665.11	3.4120	3.4119	-1.2743	26.76	1.02	-1.500			
0.7329	46905.36	3.4090	3.4090	-1.2494	26.78	1.04	-1.500			
0.7366	47143.23	3.4060	3.4061	-1.2237	26.79	1.05	-1.500			
0.7403	47378.74	3.4030	3.4029	-1.1994	26.81	1.07	-1.500			
0.7439	47606.51	3.4000	3.4000	-1.1616	26.83	1.09	-1.500			
0.7473	47825.87	3.3970	3.3971	-1.1333	26.84	1.10	-1.500			
0.7506	48040.13	3.3940	3.3941	-1.0948	26.86	1.12	-1.500			
0.7539	48247.93	3.3910	3.3909	-1.0593	26.88	1.14	-1.500			
0.7570	48447.49	3.3880	3.3880	-1.0233	26.89	1.15	-1.500			
0.7600	48641.28	3.3850	3.3851	-0.9866	26.91	1.17	-1.500			
0.7629	48826.46	3.3820	3.3820	-0.9511	26.92	1.18	-1.500			
0.7657	49006.66	3.3790	3.3790	-0.9182	26.93	1.19	-1.500			
0.7684	49176.93	3.3760	3.3760	-0.8829	26.94	1.20	-1.500			
0.7710	49344.07	3.3730	3.3730	-0.8543	26.95	1.21	-1.500			
0.7735	49503.99	3.3700	3.3699	-0.8238	26.96	1.22	-1.500			
0.7759	49659.59	3.3670	3.3669	-0.7935	26.97	1.23	-1.500			
0.7783	49809.00	3.3640	3.3641	-0.7660	26.98	1.24	-1.500			
0.7805	49952.58	3.3610	3.3610	-0.7370	26.99	1.25	-1.500			
0.7827	50091.99	3.3580	3.3580	-0.7112	27.01	1.27	-1.500			
0.7848	50225.18	3.3550	3.3549	-0.6874	27.02	1.28	-1.500			
0.7868	50353.66	3.3520	3.3521	-0.6652	27.03	1.29	-1.500			
0.7887	50478.71	3.3490	3.3490	-0.6466	27.04	1.30	-1.500			
0.7907	50601.98	3.3460	3.3460	-0.6328	27.05	1.31	-1.500			
0.7925	50722.07	3.3430	3.3429	-0.6140	27.05	1.31	-1.500			
0.7944	50838.56	3.3400	3.3400	-0.5969	27.06	1.32	-1.500			
0.7961	50951.67	3.3370	3.3370	-0.5786	27.06	1.32	-1.500			
0.7978	51060.57	3.3340	3.3339	-0.5577	27.07	1.33	-1.500			
0.7995	51165.69	3.3310	3.3309	-0.5419	27.08	1.34	-1.500			
0.8010	51266.63	3.3280	3.3280	-0.5237	27.08	1.34	-1.500			
0.8026	51365.03	3.3250	3.3251	-0.5073	27.09	1.35	-1.500			
0.8041	51462.39	3.3220	3.3218	-0.4941	27.10	1.36	-1.500			
0.8055	51555.11	3.3190	3.3191	-0.4799	27.11	1.37	-1.500			
0.8070	51645.28	3.3160	3.3161	-0.4671	27.12	1.38	-1.500			
0.8083	51733.68	3.3130	3.3129	-0.4561	27.13	1.39	-1.500			
0.8097	51819.49	3.3100	3.3100	-0.4431	27.13	1.39	-1.500			
0.8110	51904.44	3.3070	3.3070	-0.4331	27.14	1.40	-1.500			
0.8123	51986.87	3.3040	3.3040	-0.4234	27.15	1.41	-1.500			
0.8136	52067.32	3.3010	3.3010	-0.4111	27.16	1.42	-1.500			
0.8148	52144.28	3.2980	3.2979	-0.3984	27.16	1.42	-1.500			
0.8159	52219.31	3.2950	3.2950	-0.3892	27.17	1.43	-1.500			
0.8171	52292.56	3.2920	3.2920	-0.3794	27.18	1.44	-1.500			
0.8182	52364.83	3.2890	3.2889	-0.3708	27.18	1.44	-1.500			
0.8193	52435.58	3.2860	3.2860	-0.3611	27.19	1.45	-1.500			
0.8204	52503.84	3.2830	3.2831	-0.3523	27.19	1.45	-1.500			
0.8214	52570.43	3.2800	3.2800	-0.3459	27.20	1.46	-1.500			
0.8224	52635.70	3.2770	3.2770	-0.3366	27.20	1.46	-1.500			
0.8234	52699.65	3.2740	3.2739	-0.3289	27.21	1.47	-1.500			
0.8244	52761.98	3.2710	3.2710	-0.3217	27.22	1.48	-1.500			
0.8254	52823.22	3.2680	3.2681	-0.3154	27.22	1.48	-1.500			
0.8263	52883.11	3.2650	3.2650	-0.3078	27.23	1.49	-1.500			
0.8272	52941.30	3.2620	3.2620	-0.3015	27.23	1.49	-1.500			
0.8281	52998.38	3.2590	3.2590	-0.2956	27.24	1.50	-1.500			
0.8290	53054.73	3.2560	3.2560	-0.2898	27.24	1.50	-1.500			
0.8298	53109.67	3.2530	3.2531	-0.2838	27.25	1.51	-1.500			
0.8307	53163.34	3.2500	3.2500	-0.2793	27.25	1.51	-1.500			
0.8315	53216.67	3.2470	3.2469	-0.2735	27.26	1.52	-1.500			
0.8323	53268.73	3.2440	3.2440	-0.2683	27.26	1.52	-1.500			
0.8331	53319.48	3.2410	3.2410	-0.2621	27.27	1.53	-1.500			
0.8339	53369.41	3.2380	3.2382	-0.2584	27.27	1.53	-1.500			
0.8347	53418.34	3.2350	3.2350	-0.2548	27.28	1.54	-1.500			
0.8354	53466.38	3.2320	3.2319	-0.2503	27.28	1.54	-1.500			
0.8362	53514.05	3.2290	3.2290	-0.2449	27.29	1.55	-1.500			
0.8369	53560.76	3.2260	3.2260	-0.2405	27.29	1.55	-1.500			
0.8376	53607.30	3.2230	3.2231	-0.2377	27.30	1.56	-1.500			
0.8383	53652.35	3.2200	3.2200	-0.2334	27.30	1.56	-1.500			
0.8390	53696.20	3.2170	3.2171	-0.2296	27.30	1.56	-1.500			
0.8397	53739.71	3.2140	3.2139	-0.2259	27.31	1.57	-1.500			
0.8404	53782.47	3.2110	3.2111	-0.2230	27.31	1.57	-1.500			
0.8410	53825.66	3.2080	3.2079	-0.2209	27.32	1.58	-1.500			
0.8417	53867.26	3.2050	3.2051	-0.2178	27.32	1.58	-1.500			
0.8423	53909.05	3.2020	3.2020	-0.2160	27.32	1.58	-1.500			
0.8430	53950.27	3.1990	3.1990	-0.2134	27.33	1.59	-1.500			
0.8436	53991.17	3.1960	3.1959	-0.2095	27.33	1.59	-1.500			
0.8442	54030.97	3.1930	3.1930	-0.2062	27.33	1.59	-1.500			
0.8448	54070.08	3.1900	3.1901	-0.2044	27.34	1.60	-1.500			
0.8455	54109.08	3.1870	3.1872	-0.2019	27.34	1.60	-1.500			
0.8461	54147.56	3.1840	3.1839	-0.1994	27.35	1.61	-1.500			
0.8466	54185.16	3.1810	3.1809	-0.1970	27.35	1.61	-1.500			
0.8472	54223.07	3.1780	3.1781	-0.1951	27.35	1.61	-1.500			
0.8478	54260.45	3.1750	3.1750	-0.1928	27.36	1.62	-1.500			
0.8484	54297.82	3.1720	3.1720	-0.1910	27.37	1.63	-1.500			
0.8490	54333.94	3.1690	3.1691	-0.1890	27.37	1.63	-1.500			
0.8495	54369.84	3.1660	3.1659	-0.1859	27.38	1.64	-1.500			
0.8501	54405.36	3.1630	3.1630	-0.1844	27.38	1.64	-1.500			
0.8506	54440.58	3.1600	3.1600	-0.1824	27.39	1.65	-1.500			
0.8512	54475.33	3.1570	3.1571	-0.1798	27.39	1.65	-1.500			
0.8517	54509.59	3.1540	3.1539	-0.1789	27.40	1.66	-1.500			
0.8522	54543.59	3.1510	3.1510	-0.1773	27.40	1.66	-1.500			
0.8528	54577.52	3.1480	3.1480	-0.1762	27.41	1.67	-1.500			
0.8533	54610.97	3.1450	3.1449	-0.1748	27.41	1.67	-1.500			
0.8538	54644.67	3.1420	3.1421	-0.1742	27.42	1.68	-1.500			
0.8543	54678.15	3.1390	3.1390	-0.1726	27.42	1.68	-1.500			
0.8549	54711.15	3.1360	3.1360	-0.1711	27.43	1.69	-1.500			
0.8554	54744.20	3.1330	3.1330	-0.1698	27.43	1.69	-1.500			
0.8559	54776.38	3.1300	3.1301	-0.1676	27.44	1.70	-1.500			
0.8564	54808.43	3.1270	3.1270	-0.1660	27.44	1.70	-1.500			
0.8569	54840.14	3.1240	3.1240	-0.1643	27.45	1.71	-1.500			
0.8574	54871.43	3.1210	3.1211	-0.1628	27.45	1.71	-1.500			
0.8578	54902.28	3.1180	3.1180	-0.1616	27.46	1.72	-1.500			
0.8583	54933.30	3.1150	3.1150	-0.1607	27.46	1.72	-1.500			
0.8588	54964.07	3.1120	3.1120	-0.1598	27.47	1.73	-1.500			
0.8593	54994.69	3.1090	3.1090	-0.1583	27.47	1.73	-1.500			
0.8598	55025.01	3.1060	3.1062	-0.1574	27.48	1.74	-1.500			
0.8602	55055.19	3.1030	3.1030	-0.1565	27.48	1.74	-1.500			
0.8607	55085.10	3.1000	3.1000	-0.1551	27.49	1.75	-1.500			
0.8612	55114.63	3.0970	3.0969	-0.1542	27.49	1.75	-1.500			
0.8616	55144.09	3.0940	3.0942	-0.1527	27.50	1.76	-1.500			
0.8621	55173.40	3.0910	3.0910	-0.1519	27.50	1.76	-1.500			
0.8625	55202.46	3.0880	3.0879	-0.1507	27.51	1.77	-1.500			
0.8630	55231.32	3.0850	3.0851	-0.1501	27.51	1.77	-1.500			
0.8634	55260.14	3.0820	3.0820	-0.1483	27.52	1.78	-1.500			
0.8639	55288.58	3.0790	3.0790	-0.1470	27.52	1.78	-1.500			
0.8643	55316.49	3.0760	3.0759	-0.1465	27.52	1.78	-1.500			
0.8648	55344.48	3.0730	3.0731	-0.1451	27.53	1.79	-1.500			
0.8652	55372.38	3.0700	3.0699	-0.1443	27.53	1.79	-1.500			
0.8656	55399.96	3.0670	3.0670	-0.1430	27.54	1.80	-1.500			
0.8660	55427.17	3.0640	3.0642	-0.1422	27.54	1.80	-1.500			
0.8665	55454.19	3.0610	3.0610	-0.1415	27.55	1.81	-1.500			
0.8669	55481.49	3.0580	3.0580	-0.1412	27.55	1.81	-1.500			
0.8673	55508.52	3.0550	3.0548	-0.1405	27.56	1.82	-1.500			
0.8677	55535.11	3.0520	3.0520	-0.1398	27.56	1.82	-1.500			
0.8682	55562.22	3.0490	3.0491	-0.1395	27.57	1.83	-1.500			
0.8686	55588.92	3.0460	3.0460	-0.1387	27.57	1.83	-1.500			
0.8690	55615.65	3.0430	3.0430	-0.1374	27.58	1.84	-1.500			
0.8694	55641.86	3.0400	3.0401	-0.1364	27.58	1.84	-1.500			
0.8698	55667.79	3.0370	3.0370	-0.1356	27.59	1.85	-1.500			
0.8702	55693.75	3.0340	3.0340	-0.1348	27.59	1.85	-1.500			
0.8706	55719.51	3.0310	3.0309	-0.1340	27.60	1.86	-1.500			
0.8710	55745.12	3.0280	3.0280	-0.1328	27.60	1.86	-1.500			
0.8714	55770.71	3.0250	3.0251	-0.1322	27.61	1.87	-1.500			
0.8718	55795.99	3.0220	3.0220	-0.1311	27.61	1.87	-1.500			
0.8722	55821.19	3.0190	3.0191	-0.1303	27.62	1.88	-1.500			
0.8726	55845.90	3.0160	3.0160	-0.1295	27.62	1.88	-1.500			
0.8730	55870.36	3.0130	3.0130	-0.1289	27.62	1.88	-1.500			
0.8734	55895.13	3.0100	3.0100	-0.1292	27.63	1.89	-1.500			
0.8737	55919.80	3.0070	3.0070	-0.1296	27.63	1.89	-1.500			
0.8741	55944.69	3.0040	3.0040	-0.1306	27.64	1.90	-1.500			
0.8745	55969.89	3.0010	3.0010	-0.1330	27.64	1.90	-1.500			
