Ah_balance (normalized)	Ah_balance (mAh)	Voltage - fit (V)	Voltage -  interpolate (V)	dQ/dV (1/V)	Temperature (°C)	Temperature - diff (°C)	Current (C)	R_DC 0ms (mOhm)	R_DC 50ms (mOhm)	R_DC 50 ms PEC (mOhm)
0.1932	12364.72	3.9290	3.9289	-0.0719	25.88	-0.02	-1.500			
0.1935	12381.30	3.9260	3.9258	-0.1008	25.88	-0.02	-1.500			
0.1938	12404.18	3.9230	3.9228	-0.1293	25.88	-0.02	-1.500			
0.1943	12432.25	3.9200	3.9200	-0.1539	25.88	-0.02	-1.500			
0.1948	12464.07	3.9170	3.9171	-0.1776	25.88	-0.02	-1.500			
0.1953	12500.50	3.9140	3.9140	-0.2009	25.88	-0.02	-1.500			
0.1960	12542.31	3.9110	3.9110	-0.2241	25.88	-0.02	-1.500			
0.1967	12587.96	3.9080	3.9079	-0.2441	25.88	-0.02	-1.500			
0.1975	12637.61	3.9050	3.9049	-0.2627	25.88	-0.02	-1.500			
0.1983	12689.15	3.9020	3.9021	-0.2835	25.88	-0.02	-1.500			
0.1991	12745.46	3.8990	3.8991	-0.3037	25.89	-0.01	-1.500			
0.2001	12805.59	3.8960	3.8959	-0.3235	25.89	-0.01	-1.500			
0.2011	12869.12	3.8930	3.8930	-0.3431	25.89	-0.01	-1.500			
0.2021	12936.86	3.8900	3.8900	-0.3642	25.89	-0.01	-1.500			
0.2033	13009.12	3.8870	3.8870	-0.3854	25.89	-0.01	-1.500			
0.2045	13086.54	3.8840	3.8840	-0.4042	25.89	-0.01	-1.500			
0.2057	13165.32	3.8810	3.8810	-0.4192	25.90	-0.00	-1.500			
0.2070	13248.18	3.8780	3.8781	-0.4369	25.90	-0.00	-1.500			
0.2083	13333.93	3.8750	3.8750	-0.4513	25.90	0.00	-1.500			
0.2097	13421.50	3.8720	3.8719	-0.4665	25.90	0.00	-1.500			
0.2111	13512.46	3.8690	3.8691	-0.4807	25.91	0.01	-1.500			
0.2126	13606.57	3.8660	3.8660	-0.4933	25.91	0.01	-1.500			
0.2141	13703.20	3.8630	3.8630	-0.5050	25.91	0.01	-1.500			
0.2156	13801.26	3.8600	3.8600	-0.5162	25.91	0.01	-1.500			
0.2172	13901.56	3.8570	3.8569	-0.5249	25.92	0.02	-1.500			
0.2188	14003.32	3.8540	3.8541	-0.5336	25.92	0.02	-1.500			
0.2204	14105.82	3.8510	3.8510	-0.5423	25.92	0.02	-1.500			
0.2221	14211.81	3.8480	3.8481	-0.5512	25.92	0.02	-1.500			
0.2237	14319.11	3.8450	3.8449	-0.5577	25.93	0.03	-1.500			
0.2254	14426.86	3.8420	3.8421	-0.5637	25.93	0.03	-1.500			
0.2271	14535.38	3.8390	3.8391	-0.5675	25.93	0.03	-1.500			
0.2288	14645.83	3.8360	3.8360	-0.5723	25.93	0.03	-1.500			
0.2305	14755.11	3.8330	3.8330	-0.5778	25.94	0.04	-1.500			
0.2323	14865.01	3.8300	3.8300	-0.5823	25.94	0.04	-1.500			
0.2340	14978.23	3.8270	3.8270	-0.5884	25.94	0.04	-1.500			
0.2358	15092.81	3.8240	3.8240	-0.5935	25.95	0.05	-1.500			
0.2376	15207.71	3.8210	3.8210	-0.5943	25.95	0.05	-1.500			
0.2394	15322.42	3.8180	3.8180	-0.5983	25.95	0.05	-1.500			
0.2412	15436.99	3.8150	3.8150	-0.6009	25.96	0.06	-1.500			
0.2430	15551.57	3.8120	3.8120	-0.6012	25.96	0.06	-1.500			
0.2448	15667.45	3.8090	3.8089	-0.6029	25.96	0.06	-1.500			
0.2466	15783.93	3.8060	3.8061	-0.6068	25.97	0.07	-1.500			
0.2485	15901.37	3.8030	3.8030	-0.6105	25.97	0.07	-1.500			
0.2503	16018.39	3.8000	3.8000	-0.6129	25.98	0.08	-1.500			
0.2521	16135.54	3.7970	3.7969	-0.6145	25.98	0.08	-1.500			
0.2540	16254.71	3.7940	3.7940	-0.6170	25.98	0.08	-1.500			
0.2558	16373.83	3.7910	3.7910	-0.6210	25.99	0.09	-1.500			
0.2577	16493.22	3.7880	3.7882	-0.6242	25.99	0.09	-1.500			
0.2596	16613.92	3.7850	3.7850	-0.6258	26.00	0.10	-1.500			
0.2615	16733.68	3.7820	3.7819	-0.6272	26.00	0.10	-1.500			
0.2633	16853.63	3.7790	3.7790	-0.6314	26.01	0.11	-1.500			
0.2652	16975.33	3.7760	3.7760	-0.6351	26.01	0.11	-1.500			
0.2671	17097.32	3.7730	3.7730	-0.6387	26.02	0.12	-1.500			
0.2691	17220.00	3.7700	3.7700	-0.6414	26.02	0.12	-1.500			
0.2710	17343.88	3.7670	3.7670	-0.6444	26.03	0.13	-1.500			
0.2729	17468.20	3.7640	3.7640	-0.6509	26.03	0.13	-1.500			
0.2749	17592.40	3.7610	3.7610	-0.6564	26.04	0.14	-1.500			
0.2768	17717.71	3.7580	3.7580	-0.6629	26.04	0.14	-1.500			
0.2789	17847.27	3.7550	3.7550	-0.6698	26.05	0.15	-1.500			
0.2809	17977.91	3.7520	3.7519	-0.6711	26.05	0.15	-1.500			
0.2829	18107.49	3.7490	3.7491	-0.6728	26.06	0.16	-1.500			
0.2849	18236.24	3.7460	3.7461	-0.6763	26.07	0.17	-1.500			
0.2869	18364.55	3.7430	3.7431	-0.6808	26.07	0.17	-1.500			
0.2890	18495.39	3.7400	3.7399	-0.6872	26.08	0.18	-1.500			
0.2910	18626.28	3.7370	3.7370	-0.6934	26.08	0.18	-1.500			
0.2931	18761.49	3.7340	3.7341	-0.7052	26.09	0.19	-1.500			
0.2953	18900.76	3.7310	3.7310	-0.7134	26.09	0.19	-1.500			
0.2975	19037.68	3.7280	3.7280	-0.7136	26.10	0.20	-1.500			
0.2996	19172.88	3.7250	3.7251	-0.7182	26.10	0.20	-1.500			
0.3018	19312.33	3.7220	3.7220	-0.7210	26.11	0.21	-1.500			
0.3039	19451.06	3.7190	3.7189	-0.7248	26.11	0.21	-1.500			
0.3061	19589.59	3.7160	3.7160	-0.7308	26.12	0.22	-1.500			
0.3083	19730.12	3.7130	3.7131	-0.7394	26.12	0.22	-1.500			
0.3105	19873.20	3.7100	3.7099	-0.7501	26.13	0.23	-1.500			
0.3128	20017.37	3.7070	3.7070	-0.7583	26.13	0.23	-1.500			
0.3151	20164.69	3.7040	3.7040	-0.7611	26.14	0.24	-1.500			
0.3174	20313.60	3.7010	3.7010	-0.7722	26.14	0.24	-1.500			
0.3197	20462.43	3.6980	3.6981	-0.7767	26.15	0.25	-1.500			
0.3220	20610.61	3.6950	3.6949	-0.7831	26.15	0.25	-1.500			
0.3244	20759.46	3.6920	3.6921	-0.7911	26.16	0.26	-1.500			
0.3268	20912.85	3.6890	3.6890	-0.7984	26.17	0.27	-1.500			
0.3292	21067.34	3.6860	3.6860	-0.8073	26.17	0.27	-1.500			
0.3316	21225.44	3.6830	3.6830	-0.8179	26.18	0.28	-1.500			
0.3341	21381.62	3.6800	3.6799	-0.8212	26.18	0.28	-1.500			
0.3366	21540.32	3.6770	3.6770	-0.8314	26.19	0.29	-1.500			
0.3391	21700.91	3.6740	3.6740	-0.8366	26.20	0.30	-1.500			
0.3416	21861.03	3.6710	3.6710	-0.8434	26.20	0.30	-1.500			
0.3441	22024.76	3.6680	3.6681	-0.8534	26.21	0.31	-1.500			
0.3467	22189.33	3.6650	3.6650	-0.8588	26.21	0.31	-1.500			
0.3493	22353.24	3.6620	3.6619	-0.8769	26.22	0.32	-1.500			
0.3519	22521.98	3.6590	3.6591	-0.8895	26.23	0.33	-1.500			
0.3546	22695.35	3.6560	3.6559	-0.8953	26.23	0.33	-1.500			
0.3574	22871.42	3.6530	3.6531	-0.9027	26.24	0.34	-1.500			
0.3601	23045.08	3.6500	3.6501	-0.9084	26.24	0.34	-1.500			
0.3628	23220.06	3.6470	3.6470	-0.9142	26.25	0.35	-1.500			
0.3655	23395.08	3.6440	3.6439	-0.9228	26.25	0.35	-1.500			
0.3683	23569.10	3.6410	3.6411	-0.9254	26.26	0.36	-1.500			
0.3711	23749.30	3.6380	3.6380	-0.9392	26.26	0.36	-1.500			
0.3739	23930.74	3.6350	3.6351	-0.9544	26.27	0.37	-1.500			
0.3768	24114.66	3.6320	3.6320	-0.9716	26.27	0.37	-1.500			
0.3797	24302.23	3.6290	3.6289	-0.9813	26.28	0.38	-1.500			
0.3827	24492.29	3.6260	3.6259	-0.9935	26.28	0.38	-1.500			
0.3857	24684.87	3.6230	3.6231	-1.0055	26.28	0.38	-1.500			
0.3888	24881.05	3.6200	3.6200	-1.0202	26.29	0.39	-1.500			
0.3919	25078.58	3.6170	3.6169	-1.0265	26.29	0.39	-1.500			
0.3949	25275.68	3.6140	3.6140	-1.0334	26.30	0.40	-1.500			
0.3980	25473.06	3.6110	3.6110	-1.0434	26.30	0.40	-1.500			
0.4012	25675.09	3.6080	3.6081	-1.0595	26.31	0.41	-1.500			
0.4044	25879.12	3.6050	3.6049	-1.0716	26.31	0.41	-1.500			
0.4076	26085.17	3.6020	3.6020	-1.0878	26.32	0.42	-1.500			
0.4109	26294.87	3.5990	3.5990	-1.1030	26.33	0.43	-1.500			
0.4142	26509.53	3.5960	3.5960	-1.1192	26.33	0.43	-1.500			
0.4176	26726.98	3.5930	3.5930	-1.1308	26.34	0.44	-1.500			
0.4210	26944.91	3.5900	3.5900	-1.1467	26.34	0.44	-1.500			
0.4245	27167.37	3.5870	3.5870	-1.1566	26.35	0.45	-1.500			
0.4280	27389.80	3.5840	3.5839	-1.1725	26.35	0.45	-1.500			
0.4315	27614.95	3.5810	3.5811	-1.1852	26.36	0.46	-1.500			
0.4351	27843.86	3.5780	3.5780	-1.2050	26.36	0.46	-1.500			
0.4387	28075.92	3.5750	3.5749	-1.2259	26.37	0.47	-1.500			
0.4424	28313.27	3.5720	3.5721	-1.2443	26.38	0.48	-1.500			
0.4461	28553.06	3.5690	3.5690	-1.2621	26.38	0.48	-1.500			
0.4500	28801.35	3.5660	3.5660	-1.2842	26.39	0.49	-1.500			
0.4539	29048.40	3.5630	3.5630	-1.2955	26.39	0.49	-1.500			
0.4578	29297.18	3.5600	3.5601	-1.3128	26.40	0.50	-1.500			
0.4617	29549.70	3.5570	3.5570	-1.3299	26.41	0.51	-1.500			
0.4657	29807.80	3.5540	3.5540	-1.3421	26.41	0.51	-1.500			
0.4698	30066.37	3.5510	3.5510	-1.3640	26.42	0.52	-1.500			
0.4739	30328.65	3.5480	3.5481	-1.3861	26.43	0.53	-1.500			
0.4781	30597.76	3.5450	3.5450	-1.4062	26.43	0.53	-1.500			
0.4823	30869.54	3.5420	3.5419	-1.4234	26.44	0.54	-1.500			
0.4866	31144.08	3.5390	3.5391	-1.4440	26.45	0.55	-1.500			
0.4910	31423.63	3.5360	3.5360	-1.4652	26.46	0.56	-1.500			
0.4954	31708.48	3.5330	3.5330	-1.4942	26.47	0.57	-1.500			
0.5000	31999.07	3.5300	3.5299	-1.5042	26.47	0.57	-1.500			
0.5045	32290.80	3.5270	3.5270	-1.5187	26.48	0.58	-1.500			
0.5091	32585.05	3.5240	3.5240	-1.5324	26.49	0.59	-1.500			
0.5138	32881.01	3.5210	3.5211	-1.5411	26.50	0.60	-1.500	0.373	0.554	
0.5184	33176.88	3.5180	3.5179	-1.5472	26.51	0.61	-1.500			
0.5230	33469.91	3.5150	3.5151	-1.5531	26.52	0.62	-1.500			
0.5277	33771.63	3.5120	3.5120	-1.5667	26.53	0.63	-1.500			
0.5324	34076.42	3.5090	3.5091	-1.5806	26.54	0.64	-1.500			
0.5372	34380.21	3.5060	3.5060	-1.5912	26.55	0.65	-1.500			
0.5420	34687.13	3.5030	3.5030	-1.5988	26.56	0.66	-1.500			
0.5468	34995.80	3.5000	3.5000	-1.6079	26.57	0.67	-1.500			
0.5517	35306.10	3.4970	3.4970	-1.6167	26.59	0.69	-1.500			
0.5565	35616.76	3.4940	3.4941	-1.6126	26.60	0.70	-1.500			
0.5614	35927.42	3.4910	3.4910	-1.6165	26.61	0.71	-1.500			
0.5662	36238.63	3.4880	3.4880	-1.6218	26.62	0.72	-1.500			
0.5711	36550.81	3.4850	3.4850	-1.6141	26.63	0.73	-1.500			
0.5760	36861.27	3.4820	3.4820	-1.6075	26.64	0.74	-1.500			
0.5808	37170.33	3.4790	3.4790	-1.6054	26.65	0.75	-1.500			
0.5856	37478.36	3.4760	3.4760	-1.5985	26.66	0.76	-1.500			
0.5904	37784.65	3.4730	3.4729	-1.5907	26.67	0.77	-1.500			
0.5951	38087.73	3.4700	3.4701	-1.5749	26.68	0.78	-1.500			
0.5998	38389.18	3.4670	3.4670	-1.5584	26.70	0.80	-1.500			
0.6045	38690.07	3.4640	3.4639	-1.5565	26.71	0.81	-1.500			
0.6092	38986.48	3.4610	3.4610	-1.5369	26.72	0.82	-1.500			
0.6137	39279.85	3.4580	3.4580	-1.5122	26.74	0.84	-1.500			
0.6183	39570.39	3.4550	3.4550	-1.4947	26.75	0.85	-1.500			
0.6228	39856.39	3.4520	3.4521	-1.4690	26.76	0.86	-1.500			
0.6271	40134.55	3.4490	3.4490	-1.4563	26.77	0.87	-1.500			
0.6314	40411.62	3.4460	3.4460	-1.4385	26.79	0.89	-1.500			
0.6357	40684.52	3.4430	3.4429	-1.4208	26.80	0.90	-1.500			
0.6399	40956.73	3.4400	3.4400	-1.4110	26.82	0.92	-1.500			
0.6442	41229.85	3.4370	3.4370	-1.3919	26.83	0.93	-1.500			
0.6484	41495.55	3.4340	3.4340	-1.3669	26.85	0.95	-1.500			
0.6524	41755.63	3.4310	3.4310	-1.3541	26.86	0.96	-1.500			
0.6564	42010.49	3.4280	3.4280	-1.3300	26.88	0.98	-1.500			
0.6604	42263.66	3.4250	3.4249	-1.3119	26.89	0.99	-1.500			
0.6643	42513.02	3.4220	3.4220	-1.2984	26.91	1.01	-1.500			
0.6682	42761.69	3.4190	3.4191	-1.2876	26.93	1.03	-1.500			
0.6720	43010.91	3.4160	3.4160	-1.2686	26.95	1.05	-1.500			
0.6759	43255.19	3.4130	3.4129	-1.2426	26.97	1.07	-1.500			
0.6795	43489.89	3.4100	3.4101	-1.2080	26.98	1.08	-1.500			
0.6831	43719.56	3.4070	3.4070	-1.1824	26.99	1.09	-1.500			
0.6866	43942.92	3.4040	3.4039	-1.1544	27.01	1.11	-1.500			
0.6900	44160.82	3.4010	3.4010	-1.1237	27.03	1.13	-1.500			
0.6933	44372.26	3.3980	3.3981	-1.0991	27.05	1.15	-1.500			
0.6966	44582.86	3.3950	3.3949	-1.0767	27.06	1.16	-1.500			
0.6998	44788.18	3.3920	3.3920	-1.0485	27.08	1.18	-1.500			
0.7029	44986.82	3.3890	3.3890	-1.0175	27.09	1.19	-1.500			
0.7059	45178.50	3.3860	3.3860	-0.9857	27.10	1.20	-1.500			
0.7088	45365.22	3.3830	3.3831	-0.9552	27.12	1.22	-1.500			
0.7117	45545.80	3.3800	3.3799	-0.9295	27.13	1.23	-1.500			
0.7144	45720.52	3.3770	3.3770	-0.8952	27.14	1.24	-1.500			
0.7170	45888.92	3.3740	3.3740	-0.8715	27.15	1.25	-1.500			
0.7196	46053.25	3.3710	3.3711	-0.8476	27.17	1.27	-1.500			
0.7221	46214.46	3.3680	3.3680	-0.8275	27.18	1.28	-1.500			
0.7246	46371.30	3.3650	3.3649	-0.8041	27.19	1.29	-1.500			
0.7269	46523.85	3.3620	3.3620	-0.7793	27.20	1.30	-1.500			
0.7292	46671.37	3.3590	3.3591	-0.7542	27.21	1.31	-1.500			
0.7315	46814.97	3.3560	3.3560	-0.7344	27.22	1.32	-1.500			
0.7336	46951.34	3.3530	3.3530	-0.7097	27.23	1.33	-1.500			
0.7357	47083.99	3.3500	3.3500	-0.6863	27.24	1.34	-1.500			
0.7377	47214.26	3.3470	3.3469	-0.6719	27.25	1.35	-1.500			
0.7397	47341.07	3.3440	3.3441	-0.6554	27.26	1.36	-1.500			
0.7417	47465.63	3.3410	3.3410	-0.6415	27.27	1.37	-1.500			
0.7436	47587.58	3.3380	3.3379	-0.6257	27.28	1.38	-1.500			
0.7454	47705.45	3.3350	3.3350	-0.6115	27.29	1.39	-1.500			
0.7472	47820.95	3.3320	3.3320	-0.5948	27.30	1.40	-1.500			
0.7490	47934.29	3.3290	3.3289	-0.5833	27.31	1.41	-1.500			
0.7507	48044.70	3.3260	3.3260	-0.5653	27.31	1.41	-1.500			
0.7524	48151.97	3.3230	3.3230	-0.5512	27.32	1.42	-1.500			
0.7540	48256.54	3.3200	3.3200	-0.5364	27.33	1.43	-1.500			
0.7556	48358.02	3.3170	3.3171	-0.5235	27.33	1.43	-1.500			
0.7571	48455.83	3.3140	3.3139	-0.5082	27.34	1.44	-1.500			
0.7586	48553.01	3.3110	3.3110	-0.4975	27.35	1.45	-1.500			
0.7601	48646.57	3.3080	3.3080	-0.4846	27.35	1.45	-1.500			
0.7616	48739.55	3.3050	3.3050	-0.4732	27.36	1.46	-1.500			
0.7629	48828.36	3.3020	3.3020	-0.4621	27.37	1.47	-1.500			
0.7643	48915.97	3.2990	3.2990	-0.4508	27.38	1.48	-1.500			
0.7656	49001.16	3.2960	3.2959	-0.4394	27.38	1.48	-1.500			
0.7669	49084.48	3.2930	3.2931	-0.4288	27.39	1.49	-1.500			
0.7682	49166.01	3.2900	3.2900	-0.4194	27.40	1.50	-1.500			
0.7695	49245.73	3.2870	3.2870	-0.4093	27.40	1.50	-1.500			
0.7707	49323.13	3.2840	3.2840	-0.4013	27.41	1.51	-1.500			
0.7719	49398.75	3.2810	3.2811	-0.3907	27.42	1.52	-1.500			
0.7730	49473.23	3.2780	3.2779	-0.3819	27.42	1.52	-1.500			
0.7742	49545.77	3.2750	3.2750	-0.3721	27.43	1.53	-1.500			
0.7752	49615.93	3.2720	3.2720	-0.3642	27.43	1.53	-1.500			
0.7763	49684.74	3.2690	3.2689	-0.3566	27.44	1.54	-1.500			
0.7774	49752.28	3.2660	3.2660	-0.3489	27.44	1.54	-1.500			
0.7784	49818.27	3.2630	3.2630	-0.3421	27.45	1.55	-1.500			
0.7794	49883.98	3.2600	3.2600	-0.3361	27.45	1.55	-1.500			
0.7804	49947.98	3.2570	3.2569	-0.3285	27.46	1.56	-1.500			
0.7814	50010.34	3.2540	3.2540	-0.3223	27.46	1.56	-1.500			
0.7824	50071.10	3.2510	3.2510	-0.3155	27.47	1.57	-1.500			
0.7833	50131.18	3.2480	3.2479	-0.3082	27.48	1.58	-1.500			
0.7842	50189.71	3.2450	3.2450	-0.3021	27.48	1.58	-1.500			
0.7851	50246.52	3.2420	3.2420	-0.2965	27.49	1.59	-1.500			
0.7860	50302.94	3.2390	3.2390	-0.2915	27.50	1.60	-1.500			
0.7869	50358.63	3.2360	3.2359	-0.2858	27.50	1.60	-1.500			
0.7877	50412.78	3.2330	3.2330	-0.2798	27.51	1.61	-1.500			
0.7885	50466.13	3.2300	3.2301	-0.2749	27.52	1.62	-1.500			
0.7893	50518.29	3.2270	3.2271	-0.2716	27.52	1.62	-1.500			
0.7901	50569.57	3.2240	3.2239	-0.2663	27.53	1.63	-1.500			
0.7909	50620.28	3.2210	3.2209	-0.2625	27.53	1.63	-1.500			
0.7917	50670.39	3.2180	3.2180	-0.2591	27.54	1.64	-1.500			
0.7925	50719.92	3.2150	3.2151	-0.2564	27.55	1.65	-1.500			
0.7933	50769.29	3.2120	3.2121	-0.2535	27.55	1.65	-1.500			
0.7940	50817.50	3.2090	3.2089	-0.2500	27.56	1.66	-1.500			
0.7948	50864.93	3.2060	3.2061	-0.2458	27.56	1.66	-1.500			
0.7955	50911.67	3.2030	3.2032	-0.2413	27.57	1.67	-1.500			
0.7962	50958.16	3.2000	3.1999	-0.2383	27.58	1.68	-1.500			
0.7969	51003.60	3.1970	3.1970	-0.2346	27.58	1.68	-1.500			
0.7976	51047.95	3.1940	3.1940	-0.2315	27.59	1.69	-1.500			
0.7983	51091.71	3.1910	3.1911	-0.2277	27.60	1.70	-1.500			
0.7990	51135.20	3.1880	3.1879	-0.2253	27.60	1.70	-1.500			
0.7997	51178.11	3.1850	3.1849	-0.2221	27.61	1.71	-1.500			
0.8003	51220.59	3.1820	3.1820	-0.2194	27.61	1.71	-1.500			
0.8010	51262.66	3.1790	3.1790	-0.2171	27.62	1.72	-1.500			
0.8016	51304.03	3.1760	3.1760	-0.2138	27.63	1.73	-1.500			
0.8023	51344.64	3.1730	3.1729	-0.2115	27.63	1.73	-1.500			
0.8029	51384.68	3.1700	3.1700	-0.2090	27.64	1.74	-1.500			
0.8035	51424.81	3.1670	3.1669	-0.2066	27.64	1.74	-1.500			
0.8041	51464.25	3.1640	3.1640	-0.2043	27.65	1.75	-1.500			
0.8047	51503.41	3.1610	3.1610	-0.2019	27.65	1.75	-1.500			
0.8053	51541.67	3.1580	3.1580	-0.2005	27.66	1.76	-1.500			
0.8059	51580.26	3.1550	3.1550	-0.1979	27.67	1.77	-1.500			
0.8065	51618.03	3.1520	3.1519	-0.1955	27.67	1.77	-1.500			
0.8071	51655.18	3.1490	3.1489	-0.1935	27.67	1.77	-1.500			
0.8077	51692.16	3.1460	3.1462	-0.1915	27.67	1.77	-1.500			
0.8083	51728.86	3.1430	3.1430	-0.1900	27.68	1.78	-1.500			
0.8088	51765.14	3.1400	3.1399	-0.1878	27.68	1.78	-1.500			
0.8094	51800.76	3.1370	3.1371	-0.1863	27.69	1.79	-1.500			
0.8099	51836.11	3.1340	3.1340	-0.1840	27.70	1.80	-1.500			
0.8105	51871.74	3.1310	3.1310	-0.1835	27.70	1.80	-1.500			
0.8110	51906.78	3.1280	3.1280	-0.1815	27.71	1.81	-1.500			
0.8116	51941.22	3.1250	3.1251	-0.1802	27.72	1.82	-1.500			
0.8121	51975.75	3.1220	3.1220	-0.1788	27.72	1.82	-1.500			
0.8127	52009.90	3.1190	3.1189	-0.1773	27.73	1.83	-1.500			
0.8132	52043.82	3.1160	3.1160	-0.1760	27.73	1.83	-1.500			
0.8137	52077.38	3.1130	3.1130	-0.1747	27.74	1.84	-1.500			
0.8142	52111.08	3.1100	3.1100	-0.1734	27.75	1.85	-1.500			
0.8148	52144.29	3.1070	3.1069	-0.1717	27.75	1.85	-1.500			
0.8153	52177.02	3.1040	3.1041	-0.1699	27.76	1.86	-1.500			
0.8158	52209.40	3.1010	3.1011	-0.1681	27.76	1.86	-1.500			
0.8163	52241.32	3.0980	3.0980	-0.1677	27.77	1.87	-1.500			
0.8168	52273.49	3.0950	3.0950	-0.1660	27.77	1.87	-1.500			
0.8173	52305.37	3.0920	3.0919	-0.1645	27.78	1.88	-1.500			
0.8178	52336.83	3.0890	3.0890	-0.1631	27.79	1.89	-1.500			
0.8182	52367.93	3.0860	3.0861	-0.1634	27.79	1.89	-1.500			
0.8187	52399.41	3.0830	3.0830	-0.1620	27.80	1.90	-1.500			
0.8192	52430.58	3.0800	3.0798	-0.1604	27.80	1.90	-1.500			
0.8197	52461.22	3.0770	3.0770	-0.1587	27.81	1.91	-1.500			
0.8202	52491.26	3.0740	3.0742	-0.1575	27.81	1.91	-1.500			
0.8207	52521.75	3.0710	3.0710	-0.1570	27.82	1.92	-1.500			
0.8211	52551.59	3.0680	3.0679	-0.1556	27.82	1.92	-1.500			
0.8216	52581.34	3.0650	3.0649	-0.1543	27.83	1.93	-1.500			
0.8220	52610.42	3.0620	3.0620	-0.1523	27.83	1.93	-1.500			
0.8225	52639.77	3.0590	3.0592	-0.1524	27.84	1.94	-1.500			
0.8230	52668.88	3.0560	3.0560	-0.1519	27.84	1.94	-1.500			
0.8234	52697.98	3.0530	3.0529	-0.1512	27.85	1.95	-1.500			
0.8239	52726.84	3.0500	3.0499	-0.1497	27.85	1.95	-1.500			
0.8243	52755.72	3.0470	3.0471	-0.1488	27.86	1.96	-1.500			
0.8248	52784.28	3.0440	3.0440	-0.1477	27.86	1.96	-1.500			
0.8252	52812.43	3.0410	3.0411	-0.1468	27.87	1.97	-1.500			
0.8256	52840.65	3.0380	3.0380	-0.1459	27.87	1.97	-1.500			
0.8261	52868.27	3.0350	3.0349	-0.1441	27.88	1.98	-1.500			
0.8265	52895.76	3.0320	3.0320	-0.1431	27.88	1.98	-1.500			
0.8269	52923.03	3.0290	3.0291	-0.1433	27.88	1.98	-1.500			
0.8274	52950.80	3.0260	3.0261	-0.1425	27.89	1.99	-1.500			
0.8278	52978.15	3.0230	3.0229	-0.1417	27.89	1.99	-1.500			
0.8282	53005.26	3.0200	3.0200	-0.1407	27.90	2.00	-1.500			
0.8286	53032.10	3.0170	3.0172	-0.1400	27.90	2.00	-1.500			
0.8290	53059.03	3.0140	3.0139	-0.1393	27.91	2.01	-1.500			
0.8295	53085.71	3.0110	3.0108	-0.1383	27.91	2.01	-1.500			
0.8299	53112.16	3.0080	3.0081	-0.1372	27.92	2.02	-1.500			
0.8303	53138.13	3.0050	3.0051	-0.1378	27.92	2.02	-1.500			
0.8307	53164.52	3.0020	3.0019	-0.1350	27.93	2.03	-1.500			
