Ah_balance (normalized)	Ah_balance (mAh)	Voltage - fit (V)	Voltage -  interpolate (V)	dQ/dV (1/V)	Temperature (°C)	Temperature - diff (°C)	Current (C)	R_DC 0ms (mOhm)	R_DC 50ms (mOhm)	R_DC 50 ms PEC (mOhm)
0.2772	17742.26	3.9730	3.9731	0.8674	27.08	1.12	1.500			
0.2798	17906.28	3.9700	3.9701	0.8601	27.08	1.12	1.500			
0.2824	18071.88	3.9670	3.9670	0.8703	27.08	1.12	1.500			
0.2850	18242.04	3.9640	3.9639	0.8746	27.07	1.11	1.500			
0.2877	18409.90	3.9610	3.9610	0.8772	27.07	1.11	1.500			
0.2903	18579.68	3.9580	3.9581	0.8853	27.07	1.11	1.500			
0.2930	18750.54	3.9550	3.9550	0.8892	27.06	1.10	1.500			
0.2956	18919.90	3.9520	3.9519	0.8923	27.06	1.10	1.500			
0.2983	19091.49	3.9490	3.9489	0.8950	27.06	1.10	1.500			
0.3010	19263.15	3.9460	3.9460	0.9019	27.05	1.09	1.500			
0.3037	19438.50	3.9430	3.9430	0.9087	27.05	1.09	1.500			
0.3065	19613.71	3.9400	3.9400	0.9118	27.05	1.09	1.500			
0.3092	19790.07	3.9370	3.9369	0.9135	27.04	1.08	1.500			
0.3120	19966.27	3.9340	3.9340	0.9161	27.04	1.08	1.500			
0.3147	20140.04	3.9310	3.9310	0.9211	27.04	1.08	1.500			
0.3175	20317.34	3.9280	3.9280	0.9322	27.03	1.07	1.500			
0.3203	20497.38	3.9250	3.9250	0.9333	27.03	1.07	1.500			
0.3231	20678.27	3.9220	3.9220	0.9399	27.03	1.07	1.500			
0.3259	20859.96	3.9190	3.9190	0.9452	27.02	1.06	1.500			
0.3288	21041.98	3.9160	3.9160	0.9484	27.02	1.06	1.500			
0.3316	21223.82	3.9130	3.9130	0.9500	27.02	1.06	1.500			
0.3345	21405.29	3.9100	3.9100	0.9500	27.01	1.05	1.500			
0.3373	21586.88	3.9070	3.9070	0.9599	27.01	1.05	1.500			
0.3402	21773.28	3.9040	3.9040	0.9727	27.01	1.05	1.500			
0.3431	21960.69	3.9010	3.9010	0.9796	27.00	1.04	1.500			
0.3461	22149.91	3.8980	3.8980	0.9869	27.00	1.04	1.500			
0.3491	22340.22	3.8950	3.8950	0.9969	26.99	1.03	1.500			
0.3521	22532.10	3.8920	3.8920	1.0082	26.99	1.03	1.500			
0.3551	22726.70	3.8890	3.8890	1.0198	26.98	1.02	1.500			
0.3582	22923.84	3.8860	3.8859	1.0217	26.97	1.01	1.500			
0.3613	23120.99	3.8830	3.8830	1.0345	26.97	1.01	1.500			
0.3644	23318.50	3.8800	3.8801	1.0508	26.96	1.00	1.500			
0.3675	23521.82	3.8770	3.8770	1.0626	26.95	0.99	1.500			
0.3707	23727.04	3.8740	3.8740	1.0678	26.95	0.99	1.500			
0.3740	23933.83	3.8710	3.8710	1.0770	26.95	0.99	1.500			
0.3772	24143.14	3.8680	3.8682	1.0869	26.94	0.98	1.500			
0.3805	24352.21	3.8650	3.8649	1.1042	26.94	0.98	1.500			
0.3838	24563.38	3.8620	3.8621	1.1089	26.93	0.97	1.500			
0.3871	24776.73	3.8590	3.8589	1.1252	26.93	0.97	1.500			
0.3905	24993.11	3.8560	3.8561	1.1424	26.93	0.97	1.500			
0.3940	25217.32	3.8530	3.8529	1.1660	26.92	0.96	1.500			
0.3975	25441.73	3.8500	3.8501	1.1821	26.92	0.96	1.500			
0.4011	25671.41	3.8470	3.8470	1.1979	26.91	0.95	1.500			
0.4047	25901.14	3.8440	3.8440	1.2178	26.90	0.94	1.500			
0.4084	26137.62	3.8410	3.8410	1.2385	26.90	0.94	1.500			
0.4121	26376.50	3.8380	3.8380	1.2546	26.89	0.93	1.500			
0.4159	26618.33	3.8350	3.8350	1.2814	26.89	0.93	1.500			
0.4198	26865.62	3.8320	3.8320	1.3100	26.88	0.92	1.500			
0.4237	27119.52	3.8290	3.8290	1.3388	26.87	0.91	1.500			
0.4278	27380.14	3.8260	3.8260	1.3685	26.86	0.90	1.500			
0.4319	27644.14	3.8230	3.8231	1.3959	26.85	0.89	1.500			
0.4362	27917.44	3.8200	3.8200	1.4240	26.84	0.88	1.500			
0.4405	28193.33	3.8170	3.8170	1.4554	26.83	0.87	1.500			
0.4449	28473.97	3.8140	3.8139	1.4819	26.82	0.86	1.500			
0.4494	28760.97	3.8110	3.8110	1.5100	26.81	0.85	1.500			
0.4540	29054.32	3.8080	3.8080	1.5411	26.80	0.84	1.500			
0.4586	29352.05	3.8050	3.8050	1.5789	26.79	0.83	1.500			
0.4634	29655.72	3.8020	3.8020	1.6111	26.78	0.82	1.500			
0.4683	29969.99	3.7990	3.7989	1.6601	26.76	0.80	1.500			
0.4733	30290.82	3.7960	3.7960	1.7035	26.75	0.79	1.500			
0.4785	30624.85	3.7930	3.7930	1.7374	26.74	0.78	1.500			
0.4838	30963.81	3.7900	3.7900	1.7896	26.72	0.76	1.500			
0.4892	31310.43	3.7870	3.7870	1.8396	26.71	0.75	1.500			
0.4948	31667.77	3.7840	3.7838	1.8718	26.69	0.73	1.500			
0.5005	32031.37	3.7810	3.7810	1.9132	26.67	0.71	1.500			
0.5063	32405.14	3.7780	3.7781	1.9248	26.66	0.70	1.500			
0.5122	32778.56	3.7750	3.7750	1.9633	26.64	0.68	1.500			
0.5181	33158.85	3.7720	3.7719	1.9966	26.63	0.67	1.500			
0.5241	33543.54	3.7690	3.7691	2.0454	26.61	0.65	1.500			
0.5304	33945.83	3.7660	3.7660	2.0677	26.59	0.63	1.500			
0.5367	34351.09	3.7630	3.7625	2.0483	26.57	0.61	1.500	0.366	0.456	
0.5428	34742.20	3.7600	3.7601	2.0483	26.55	0.59	1.500			
0.5489	35131.08	3.7570	3.7569	2.0202	26.53	0.57	1.500			
0.5549	35515.91	3.7540	3.7539	1.9857	26.52	0.56	1.500			
0.5609	35894.53	3.7510	3.7511	2.0088	26.50	0.54	1.500			
0.5669	36280.47	3.7480	3.7480	2.0160	26.49	0.53	1.500			
0.5729	36664.14	3.7450	3.7450	1.9988	26.47	0.51	1.500			
0.5789	37051.79	3.7420	3.7421	2.0138	26.46	0.50	1.500			
0.5850	37441.69	3.7390	3.7390	2.0291	26.44	0.48	1.500			
0.5911	37831.03	3.7360	3.7360	2.0387	26.43	0.47	1.500			
0.5973	38225.70	3.7330	3.7330	2.0621	26.41	0.45	1.500			
0.6035	38626.02	3.7300	3.7300	2.0810	26.40	0.44	1.500			
0.6097	39021.07	3.7270	3.7270	2.1215	26.38	0.42	1.500			
0.6161	39429.24	3.7240	3.7240	2.1691	26.37	0.41	1.500			
0.6227	39852.19	3.7210	3.7211	2.2324	26.35	0.39	1.500			
0.6295	40288.14	3.7180	3.7180	2.2904	26.34	0.38	1.500			
0.6364	40727.32	3.7150	3.7150	2.3550	26.33	0.37	1.500			
0.6435	41181.98	3.7120	3.7119	2.4446	26.31	0.35	1.500			
0.6509	41658.90	3.7090	3.7091	2.5609	26.30	0.34	1.500			
0.6588	42160.91	3.7060	3.7060	2.6215	26.28	0.32	1.500			
0.6668	42676.82	3.7030	3.7030	2.6647	26.27	0.31	1.500			
0.6749	43192.53	3.7000	3.7001	2.6968	26.25	0.29	1.500			
0.6831	43715.45	3.6970	3.6970	2.6517	26.24	0.28	1.500			
0.6910	44226.87	3.6940	3.6940	2.5492	26.23	0.27	1.500			
0.6986	44710.60	3.6910	3.6910	2.4154	26.21	0.25	1.500			
0.7056	45158.54	3.6880	3.6880	2.1998	26.20	0.24	1.500			
0.7118	45552.71	3.6850	3.6850	2.0268	26.19	0.23	1.500			
0.7175	45920.00	3.6820	3.6821	1.8635	26.18	0.22	1.500			
0.7228	46259.21	3.6790	3.6790	1.7216	26.18	0.22	1.500			
0.7278	46577.49	3.6760	3.6760	1.6214	26.17	0.21	1.500			
0.7325	46877.07	3.6730	3.6730	1.5264	26.16	0.20	1.500			
0.7368	47157.26	3.6700	3.6700	1.4406	26.15	0.19	1.500			
0.7410	47422.58	3.6670	3.6670	1.3732	26.15	0.19	1.500			
0.7449	47676.12	3.6640	3.6641	1.3189	26.14	0.18	1.500			
0.7488	47921.45	3.6610	3.6609	1.2814	26.13	0.17	1.500			
0.7525	48158.99	3.6580	3.6580	1.2617	26.12	0.16	1.500			
0.7562	48397.84	3.6550	3.6550	1.2573	26.12	0.16	1.500			
0.7599	48636.16	3.6520	3.6519	1.2568	26.11	0.15	1.500			
0.7637	48877.96	3.6490	3.6489	1.2671	26.10	0.14	1.500			
0.7675	49122.02	3.6460	3.6461	1.2746	26.09	0.13	1.500			
0.7714	49368.39	3.6430	3.6429	1.2925	26.09	0.13	1.500			
0.7753	49619.11	3.6400	3.6400	1.2975	26.08	0.12	1.500			
0.7792	49868.85	3.6370	3.6370	1.3054	26.07	0.11	1.500			
0.7831	50120.39	3.6340	3.6340	1.3044	26.06	0.10	1.500			
0.7870	50371.14	3.6310	3.6310	1.3127	26.06	0.10	1.500			
0.7910	50622.64	3.6280	3.6280	1.3125	26.05	0.09	1.500			
0.7949	50874.48	3.6250	3.6247	1.3181	26.04	0.08	1.500			
0.7989	51127.49	3.6220	3.6222	1.3159	26.03	0.07	1.500			
0.8029	51383.14	3.6190	3.6190	1.3175	26.02	0.06	1.500			
0.8068	51636.95	3.6160	3.6160	1.3138	26.01	0.05	1.500			
0.8107	51887.47	3.6130	3.6130	1.3021	26.00	0.04	1.500			
0.8147	52137.68	3.6100	3.6100	1.3000	25.99	0.03	1.500			
0.8186	52389.01	3.6070	3.6069	1.2934	25.98	0.02	1.500			
0.8224	52635.54	3.6040	3.6040	1.2847	25.98	0.02	1.500			
0.8263	52883.33	3.6010	3.6010	1.2759	25.97	0.01	1.500			
0.8301	53127.07	3.5980	3.5980	1.2620	25.97	0.01	1.500			
0.8339	53368.95	3.5950	3.5950	1.2459	25.97	0.01	1.500			
0.8376	53605.01	3.5920	3.5920	1.2348	25.97	0.01	1.500			
0.8413	53840.38	3.5890	3.5890	1.2198	25.96	0.00	1.500			
0.8449	54072.65	3.5860	3.5859	1.2127	25.96	0.00	1.500			
0.8485	54302.92	3.5830	3.5830	1.2063	25.96	0.00	1.500			
0.8521	54537.38	3.5800	3.5800	1.1906	25.96	0.00	1.500			
0.8558	54770.39	3.5770	3.5769	1.1655	25.96	0.00	1.500			
0.8594	55002.72	3.5740	3.5739	1.0994	25.96	0.00	1.500			
0.8627	55214.80	3.5710	3.5711	1.0040	25.96	0.00	1.500			
0.8658	55408.40	3.5680	3.5680	0.8956	25.96	0.00	1.500			
0.8682	55565.86	3.5650	3.5651	0.7598	25.96	0.00	1.500			
0.8702	55694.33	3.5620	3.5620	0.6224	25.96	0.00	1.500			
0.8718	55797.40	3.5590	3.5589	0.5072	25.96	0.00	1.500			
0.8730	55875.09	3.5560	3.5559	0.4123	25.96	0.00	1.500			
0.8741	55942.13	3.5530	3.5530	0.3486	25.96	0.00	1.500			
0.8750	55998.12	3.5500	3.5499	0.2972	25.96	0.00	1.500			
0.8757	56047.24	3.5470	3.5467	0.2535	25.96	0.00	1.500			
0.8764	56090.11	3.5440	3.5440	0.2262	25.96	0.00	1.500			
0.8770	56129.04	3.5410	3.5410	0.2029	25.96	0.00	1.500			
0.8776	56165.69	3.5380	3.5380	0.1861	25.96	0.00	1.500			
0.8781	56199.82	3.5350	3.5350	0.1695	25.96	0.00	1.500			
0.8786	56229.79	3.5320	3.5321	0.1535	25.96	0.00	1.500			
0.8790	56257.62	3.5290	3.5290	0.1388	25.96	0.00	1.500			
0.8794	56282.81	3.5260	3.5260	0.1247	25.96	0.00	1.500			
0.8798	56305.46	3.5230	3.5232	0.1112	25.96	0.00	1.500			
0.8801	56325.45	3.5200	3.5199	0.0975	25.96	0.00	1.500			
0.8804	56343.17	3.5170	3.5172	0.0842	25.96	0.00	1.500			
0.8806	56358.00	3.5140	3.5143	0.0702	25.96	0.00	1.500			
0.8808	56370.00	3.5110	3.5116	0.0568	25.96	0.00	1.500			
0.8809	56379.61	3.5080	3.5087	0.0433	25.96	0.00	1.500			
