Ah_balance (normalized)	Ah_balance (mAh)	Voltage - fit (V)	Voltage -  interpolate (V)	dQ/dV (1/V)	Temperature (°C)	Temperature - diff (°C)	Current (C)	R_DC 0ms (mOhm)	R_DC 50ms (mOhm)	R_DC 50 ms PEC (mOhm)
0.3026	19365.48	3.9730	3.9730	0.8799	27.06	1.12	1.500			
0.3052	19531.87	3.9700	3.9700	0.8687	27.06	1.12	1.500			
0.3078	19697.99	3.9670	3.9670	0.8710	27.05	1.11	1.500			
0.3104	19866.10	3.9640	3.9640	0.8737	27.05	1.11	1.500			
0.3130	20033.61	3.9610	3.9610	0.8751	27.05	1.11	1.500			
0.3157	20202.68	3.9580	3.9580	0.8793	27.04	1.10	1.500			
0.3183	20371.35	3.9550	3.9550	0.8808	27.04	1.10	1.500			
0.3210	20541.67	3.9520	3.9520	0.8819	27.04	1.10	1.500			
0.3236	20709.87	3.9490	3.9490	0.8851	27.03	1.09	1.500			
0.3262	20879.04	3.9460	3.9460	0.8872	27.03	1.09	1.500			
0.3289	21050.33	3.9430	3.9430	0.8917	27.03	1.09	1.500			
0.3316	21221.64	3.9400	3.9400	0.9010	27.02	1.08	1.500			
0.3343	21395.88	3.9370	3.9370	0.9039	27.02	1.08	1.500			
0.3370	21569.74	3.9340	3.9340	0.9112	27.02	1.08	1.500			
0.3398	21745.81	3.9310	3.9311	0.9166	27.01	1.07	1.500			
0.3425	21922.01	3.9280	3.9279	0.9196	27.01	1.07	1.500			
0.3453	22100.29	3.9250	3.9250	0.9230	27.01	1.07	1.500			
0.3481	22276.74	3.9220	3.9220	0.9308	27.00	1.06	1.500			
0.3509	22455.30	3.9190	3.9190	0.9337	27.00	1.06	1.500			
0.3537	22636.77	3.9160	3.9159	0.9436	26.99	1.05	1.500			
0.3565	22817.79	3.9130	3.9130	0.9450	26.98	1.04	1.500			
0.3594	23000.48	3.9100	3.9100	0.9499	26.98	1.04	1.500			
0.3622	23182.04	3.9070	3.9071	0.9578	26.97	1.03	1.500			
0.3651	23366.70	3.9040	3.9040	0.9639	26.97	1.03	1.500			
0.3680	23550.28	3.9010	3.9009	0.9730	26.96	1.02	1.500			
0.3709	23738.71	3.8980	3.8980	0.9846	26.95	1.01	1.500			
0.3739	23928.88	3.8950	3.8950	0.9924	26.95	1.01	1.500			
0.3769	24122.91	3.8920	3.8919	1.0034	26.94	1.00	1.500			
0.3799	24315.58	3.8890	3.8891	1.0081	26.93	0.99	1.500			
0.3830	24510.63	3.8860	3.8860	1.0111	26.93	0.99	1.500			
0.3860	24705.03	3.8830	3.8830	1.0209	26.92	0.98	1.500			
0.3891	24899.35	3.8800	3.8801	1.0336	26.91	0.97	1.500			
0.3922	25098.08	3.8770	3.8770	1.0459	26.90	0.96	1.500			
0.3953	25300.65	3.8740	3.8740	1.0548	26.90	0.96	1.500			
0.3985	25505.04	3.8710	3.8710	1.0668	26.89	0.95	1.500			
0.4017	25710.29	3.8680	3.8681	1.0820	26.88	0.94	1.500			
0.4050	25919.98	3.8650	3.8650	1.0936	26.87	0.93	1.500			
0.4083	26129.49	3.8620	3.8620	1.1064	26.86	0.92	1.500			
0.4116	26344.04	3.8590	3.8590	1.1200	26.86	0.92	1.500			
0.4150	26561.15	3.8560	3.8560	1.1369	26.85	0.91	1.500			
0.4185	26780.97	3.8530	3.8529	1.1539	26.84	0.90	1.500			
0.4219	27003.63	3.8500	3.8501	1.1698	26.83	0.89	1.500			
0.4255	27228.98	3.8470	3.8470	1.1872	26.82	0.88	1.500			
0.4290	27458.88	3.8440	3.8440	1.2063	26.81	0.87	1.500			
0.4327	27690.55	3.8410	3.8411	1.2262	26.81	0.87	1.500			
0.4364	27929.82	3.8380	3.8380	1.2514	26.80	0.86	1.500			
0.4402	28171.03	3.8350	3.8350	1.2716	26.79	0.85	1.500			
0.4440	28417.01	3.8320	3.8321	1.2941	26.78	0.84	1.500			
0.4479	28667.52	3.8290	3.8291	1.3206	26.77	0.83	1.500			
0.4519	28924.39	3.8260	3.8259	1.3468	26.76	0.82	1.500			
0.4560	29184.36	3.8230	3.8230	1.3783	26.75	0.81	1.500			
0.4602	29450.52	3.8200	3.8200	1.4046	26.74	0.80	1.500			
0.4644	29724.31	3.8170	3.8170	1.4371	26.73	0.79	1.500			
0.4688	30004.08	3.8140	3.8139	1.4677	26.72	0.78	1.500			
0.4733	30288.56	3.8110	3.8110	1.4987	26.71	0.77	1.500			
0.4778	30579.98	3.8080	3.8080	1.5244	26.70	0.76	1.500			
0.4824	30873.93	3.8050	3.8050	1.5636	26.69	0.75	1.500			
0.4871	31173.65	3.8020	3.8020	1.5979	26.68	0.74	1.500			
0.4919	31484.37	3.7990	3.7990	1.6412	26.66	0.72	1.500			
0.4970	31805.13	3.7960	3.7960	1.6853	26.65	0.71	1.500			
0.5021	32134.33	3.7930	3.7930	1.7158	26.64	0.70	1.500			
0.5073	32468.95	3.7900	3.7900	1.7730	26.62	0.68	1.500			
0.5127	32812.62	3.7870	3.7870	1.8224	26.61	0.67	1.500			
0.5182	33167.02	3.7840	3.7838	1.8566	26.59	0.65	1.500			
0.5239	33529.05	3.7810	3.7811	1.8991	26.57	0.63	1.500			
0.5297	33899.06	3.7780	3.7781	1.9283	26.55	0.61	1.500			
0.5355	34273.72	3.7750	3.7749	1.9390	26.54	0.60	1.500			
0.5414	34651.08	3.7720	3.7720	1.9294	26.52	0.58	1.500			
0.5472	35022.69	3.7690	3.7691	1.9858	26.50	0.56	1.500			
0.5533	35409.18	3.7660	3.7658	2.0034	26.48	0.54	1.500	0.361	0.464	
0.5593	35797.25	3.7630	3.7631	2.0196	26.47	0.53	1.500			
0.5655	36189.73	3.7600	3.7600	2.0190	26.45	0.51	1.500			
0.5716	36583.28	3.7570	3.7570	2.0033	26.43	0.49	1.500			
0.5775	36960.28	3.7540	3.7540	1.9487	26.42	0.48	1.500			
0.5833	37330.70	3.7510	3.7510	1.9395	26.40	0.46	1.500			
0.5890	37695.83	3.7480	3.7480	1.9240	26.39	0.45	1.500			
0.5948	38065.90	3.7450	3.7450	1.9377	26.38	0.44	1.500			
0.6006	38438.67	3.7420	3.7420	1.9603	26.36	0.42	1.500			
0.6065	38816.49	3.7390	3.7390	1.9714	26.34	0.40	1.500			
0.6124	39194.93	3.7360	3.7360	1.9828	26.33	0.39	1.500			
0.6184	39576.92	3.7330	3.7327	2.0182	26.31	0.37	1.500			
0.6245	39967.90	3.7300	3.7300	2.0454	26.30	0.36	1.500			
0.6307	40362.32	3.7270	3.7271	2.0946	26.29	0.35	1.500			
0.6370	40766.76	3.7240	3.7240	2.1397	26.27	0.33	1.500			
0.6435	41185.10	3.7210	3.7209	2.2039	26.26	0.32	1.500			
0.6503	41618.31	3.7180	3.7179	2.2521	26.24	0.30	1.500			
0.6570	42046.73	3.7150	3.7151	2.3332	26.23	0.29	1.500			
0.6641	42503.38	3.7120	3.7121	2.4223	26.21	0.27	1.500			
0.6715	42978.31	3.7090	3.7090	2.5048	26.19	0.25	1.500			
0.6793	43472.10	3.7060	3.7061	2.5550	26.18	0.24	1.500			
0.6870	43969.54	3.7030	3.7030	2.5792	26.17	0.23	1.500			
0.6948	44468.67	3.7000	3.7000	2.6052	26.16	0.22	1.500			
0.7028	44980.50	3.6970	3.6970	2.5592	26.14	0.20	1.500			
0.7104	45468.21	3.6940	3.6940	2.4411	26.13	0.19	1.500			
0.7175	45921.19	3.6910	3.6908	2.2583	26.12	0.18	1.500			
0.7240	46336.69	3.6880	3.6881	2.0714	26.11	0.17	1.500			
0.7299	46714.00	3.6850	3.6851	1.9116	26.10	0.16	1.500			
0.7353	47061.98	3.6820	3.6820	1.7619	26.09	0.15	1.500			
0.7403	47376.40	3.6790	3.6790	1.6393	26.08	0.14	1.500			
0.7450	47680.43	3.6760	3.6760	1.5586	26.08	0.14	1.500			
0.7495	47968.51	3.6730	3.6730	1.4820	26.07	0.13	1.500			
0.7538	48245.69	3.6700	3.6700	1.4146	26.06	0.12	1.500			
0.7579	48508.54	3.6670	3.6670	1.3621	26.06	0.12	1.500			
0.7619	48761.09	3.6640	3.6640	1.3136	26.05	0.11	1.500			
0.7657	49005.43	3.6610	3.6610	1.2874	26.04	0.10	1.500			
0.7694	49244.74	3.6580	3.6580	1.2613	26.04	0.10	1.500			
0.7732	49483.79	3.6550	3.6550	1.2559	26.03	0.09	1.500			
0.7769	49721.61	3.6520	3.6521	1.2594	26.03	0.09	1.500			
0.7807	49964.66	3.6490	3.6490	1.2663	26.02	0.08	1.500			
0.7845	50206.65	3.6460	3.6460	1.2756	26.01	0.07	1.500			
0.7883	50452.99	3.6430	3.6430	1.2855	26.01	0.07	1.500			
0.7922	50700.97	3.6400	3.6400	1.2961	26.00	0.06	1.500			
0.7962	50953.86	3.6370	3.6370	1.3019	26.00	0.06	1.500			
0.8001	51205.01	3.6340	3.6340	1.2999	25.99	0.05	1.500			
0.8040	51454.05	3.6310	3.6310	1.2968	25.98	0.04	1.500			
0.8079	51704.10	3.6280	3.6280	1.2964	25.98	0.04	1.500			
0.8117	51949.73	3.6250	3.6250	1.2944	25.97	0.03	1.500			
0.8156	52199.69	3.6220	3.6220	1.2892	25.96	0.02	1.500			
0.8195	52447.33	3.6190	3.6190	1.2822	25.96	0.02	1.500			
0.8233	52694.17	3.6160	3.6160	1.2758	25.96	0.02	1.500			
0.8272	52939.12	3.6130	3.6130	1.2659	25.95	0.01	1.500			
0.8310	53181.41	3.6100	3.6100	1.2469	25.95	0.01	1.500			
0.8347	53418.38	3.6070	3.6070	1.2354	25.95	0.01	1.500			
0.8383	53653.85	3.6040	3.6040	1.2231	25.94	0.00	1.500			
0.8420	53888.78	3.6010	3.6010	1.2143	25.94	0.00	1.500			
0.8456	54120.28	3.5980	3.5980	1.1983	25.94	0.00	1.500			
0.8492	54349.08	3.5950	3.5951	1.1854	25.94	0.00	1.500			
0.8527	54575.36	3.5920	3.5920	1.1736	25.94	0.00	1.500			
0.8563	54802.04	3.5890	3.5890	1.1567	25.94	0.00	1.500			
0.8597	55018.71	3.5860	3.5860	1.1452	25.94	0.00	1.500			
0.8631	55238.77	3.5830	3.5830	1.1340	25.94	0.00	1.500			
0.8665	55458.58	3.5800	3.5800	1.1121	25.94	0.00	1.500			
0.8699	55676.12	3.5770	3.5771	1.0578	25.94	0.00	1.500			
0.8732	55883.88	3.5740	3.5740	0.9928	25.94	0.00	1.500			
0.8761	56073.26	3.5710	3.5711	0.8842	25.94	0.00	1.500			
0.8787	56238.23	3.5680	3.5680	0.7667	25.94	0.00	1.500			
0.8807	56367.07	3.5650	3.5651	0.6394	25.94	0.00	1.500			
0.8824	56473.17	3.5620	3.5619	0.5283	25.94	0.00	1.500			
0.8837	56555.06	3.5590	3.5590	0.4339	25.94	0.00	1.500			
0.8848	56625.52	3.5560	3.5560	0.3662	25.94	0.00	1.500			
0.8857	56685.43	3.5530	3.5529	0.3053	25.94	0.00	1.500			
0.8865	56737.13	3.5500	3.5498	0.2672	25.94	0.00	1.500			
0.8872	56781.61	3.5470	3.5470	0.2345	25.94	0.00	1.500			
0.8879	56822.50	3.5440	3.5441	0.2106	25.94	0.00	1.500			
0.8884	56860.33	3.5410	3.5410	0.1887	25.94	0.00	1.500			
0.8890	56893.64	3.5380	3.5380	0.1716	25.94	0.00	1.500			
0.8894	56923.68	3.5350	3.5350	0.1548	25.94	0.00	1.500			
0.8899	56951.57	3.5320	3.5320	0.1397	25.94	0.00	1.500			
0.8903	56977.33	3.5290	3.5290	0.1263	25.94	0.00	1.500			
0.8906	57000.30	3.5260	3.5260	0.1129	25.94	0.00	1.500			
0.8910	57020.94	3.5230	3.5229	0.0999	25.94	0.00	1.500			
0.8912	57038.90	3.5200	3.5200	0.0863	25.94	0.00	1.500			
0.8915	57054.12	3.5170	3.5172	0.0724	25.94	0.00	1.500			
0.8917	57066.84	3.5140	3.5143	0.0580	25.94	0.00	1.500			
0.8918	57076.59	3.5110	3.5116	0.0436	25.94	0.00	1.500			
