Ah_balance (normalized)	Ah_balance (mAh)	Voltage - fit (V)	Voltage -  interpolate (V)	dQ/dV (1/V)	Temperature (°C)	Temperature - diff (°C)	Current (C)	R_DC 0ms (mOhm)	R_DC 50ms (mOhm)	R_DC 50 ms PEC (mOhm)
0.2693	17236.40	3.9910	3.9910	0.8456	27.33	1.35	1.500			
0.2719	17400.04	3.9880	3.9880	0.8472	27.32	1.34	1.500			
0.2744	17561.40	3.9850	3.9850	0.8484	27.31	1.33	1.500			
0.2769	17723.89	3.9820	3.9820	0.8529	27.30	1.32	1.500			
0.2795	17887.31	3.9790	3.9790	0.8563	27.29	1.31	1.500			
0.2821	18052.72	3.9760	3.9761	0.8607	27.28	1.30	1.500			
0.2847	18218.90	3.9730	3.9729	0.8628	27.28	1.30	1.500			
0.2873	18384.29	3.9700	3.9700	0.8675	27.27	1.29	1.500			
0.2899	18551.74	3.9670	3.9671	0.8676	27.26	1.28	1.500			
0.2925	18719.09	3.9640	3.9639	0.8693	27.25	1.27	1.500			
0.2951	18886.92	3.9610	3.9610	0.8679	27.24	1.26	1.500			
0.2977	19052.94	3.9580	3.9581	0.8738	27.23	1.25	1.500			
0.3003	19220.18	3.9550	3.9550	0.8802	27.23	1.25	1.500			
0.3030	19389.54	3.9520	3.9519	0.8852	27.22	1.24	1.500			
0.3056	19559.90	3.9490	3.9489	0.8840	27.21	1.23	1.500			
0.3083	19730.31	3.9460	3.9461	0.8942	27.20	1.22	1.500			
0.3110	19903.26	3.9430	3.9430	0.9007	27.19	1.21	1.500			
0.3137	20076.80	3.9400	3.9400	0.9029	27.19	1.21	1.500			
0.3164	20248.42	3.9370	3.9370	0.9048	27.18	1.20	1.500			
0.3191	20423.38	3.9340	3.9339	0.9145	27.17	1.19	1.500			
0.3219	20600.66	3.9310	3.9310	0.9204	27.16	1.18	1.500			
0.3247	20778.24	3.9280	3.9281	0.9269	27.16	1.18	1.500			
0.3274	20955.02	3.9250	3.9250	0.9322	27.15	1.17	1.500			
0.3303	21136.44	3.9220	3.9218	0.9384	27.14	1.16	1.500			
0.3331	21316.92	3.9190	3.9190	0.9430	27.13	1.15	1.500			
0.3359	21498.18	3.9160	3.9160	0.9438	27.12	1.14	1.500			
0.3388	21680.06	3.9130	3.9131	0.9515	27.11	1.13	1.500			
0.3416	21863.13	3.9100	3.9100	0.9595	27.10	1.12	1.500			
0.3445	22047.33	3.9070	3.9070	0.9608	27.09	1.11	1.500			
0.3474	22232.40	3.9040	3.9040	0.9659	27.09	1.11	1.500			
0.3503	22418.74	3.9010	3.9010	0.9759	27.08	1.10	1.500			
0.3532	22606.02	3.8980	3.8980	0.9824	27.07	1.09	1.500			
0.3562	22794.58	3.8950	3.8950	0.9921	27.06	1.08	1.500			
0.3591	22984.42	3.8920	3.8920	1.0016	27.05	1.07	1.500			
0.3622	23178.10	3.8890	3.8891	1.0100	27.04	1.06	1.500			
0.3652	23374.90	3.8860	3.8860	1.0197	27.03	1.05	1.500			
0.3683	23571.84	3.8830	3.8831	1.0316	27.02	1.04	1.500			
0.3714	23770.14	3.8800	3.8800	1.0411	27.01	1.03	1.500			
0.3745	23970.50	3.8770	3.8770	1.0504	27.00	1.02	1.500			
0.3777	24172.38	3.8740	3.8740	1.0639	26.99	1.01	1.500			
0.3809	24377.88	3.8710	3.8710	1.0762	26.98	1.00	1.500			
0.3842	24587.80	3.8680	3.8680	1.0854	26.97	0.99	1.500			
0.3875	24797.03	3.8650	3.8649	1.0994	26.96	0.98	1.500			
0.3908	25008.52	3.8620	3.8621	1.1049	26.96	0.98	1.500			
0.3941	25220.69	3.8590	3.8590	1.1186	26.95	0.97	1.500			
0.3974	25436.14	3.8560	3.8560	1.1322	26.94	0.96	1.500			
0.4008	25652.88	3.8530	3.8531	1.1456	26.93	0.95	1.500			
0.4043	25875.41	3.8500	3.8499	1.1622	26.92	0.94	1.500			
0.4078	26101.95	3.8470	3.8470	1.1818	26.91	0.93	1.500			
0.4114	26329.63	3.8440	3.8440	1.1921	26.90	0.92	1.500			
0.4150	26560.45	3.8410	3.8409	1.2129	26.89	0.91	1.500			
0.4186	26792.82	3.8380	3.8381	1.2261	26.88	0.90	1.500			
0.4224	27030.89	3.8350	3.8350	1.2487	26.87	0.89	1.500			
0.4261	27271.67	3.8320	3.8320	1.2682	26.85	0.87	1.500			
0.4300	27517.91	3.8290	3.8290	1.2918	26.84	0.86	1.500			
0.4339	27767.43	3.8260	3.8260	1.3117	26.83	0.85	1.500			
0.4379	28023.44	3.8230	3.8230	1.3327	26.82	0.84	1.500			
0.4419	28280.89	3.8200	3.8200	1.3384	26.80	0.82	1.500			
0.4459	28537.10	3.8170	3.8170	1.3736	26.79	0.81	1.500			
0.4500	28801.58	3.8140	3.8140	1.3965	26.78	0.80	1.500			
0.4542	29071.78	3.8110	3.8108	1.4277	26.76	0.78	1.500			
0.4586	29349.60	3.8080	3.8081	1.4476	26.75	0.77	1.500			
0.4630	29630.82	3.8050	3.8051	1.4723	26.74	0.76	1.500			
0.4675	29918.72	3.8020	3.8020	1.4938	26.73	0.75	1.500			
0.4719	30203.92	3.7990	3.7989	1.5022	26.71	0.73	1.500			
0.4764	30491.90	3.7960	3.7961	1.5327	26.70	0.72	1.500			
0.4811	30788.32	3.7930	3.7931	1.5752	26.69	0.71	1.500			
0.4859	31097.42	3.7900	3.7899	1.6063	26.67	0.69	1.500			
0.4908	31408.83	3.7870	3.7864	1.6223	26.66	0.68	1.500	0.341	0.482	
0.4957	31725.77	3.7840	3.7841	1.6496	26.65	0.67	1.500			
0.5007	32043.89	3.7810	3.7810	1.6707	26.63	0.65	1.500			
0.5057	32363.38	3.7780	3.7779	1.6818	26.62	0.64	1.500			
0.5108	32688.53	3.7750	3.7750	1.6930	26.60	0.62	1.500			
0.5160	33021.14	3.7720	3.7720	1.7049	26.59	0.61	1.500			
0.5211	33347.51	3.7690	3.7690	1.6976	26.57	0.59	1.500			
0.5261	33669.42	3.7660	3.7661	1.6948	26.55	0.57	1.500			
0.5312	33996.63	3.7630	3.7630	1.7154	26.54	0.56	1.500			
0.5364	34326.55	3.7600	3.7600	1.7276	26.53	0.55	1.500			
0.5416	34661.83	3.7570	3.7569	1.7188	26.51	0.53	1.500			
0.5468	34992.25	3.7540	3.7541	1.7341	26.50	0.52	1.500			
0.5519	35319.58	3.7510	3.7511	1.7596	26.49	0.51	1.500			
0.5572	35660.55	3.7480	3.7480	1.8006	26.48	0.50	1.500			
0.5626	36008.47	3.7450	3.7450	1.8432	26.46	0.48	1.500			
0.5683	36373.15	3.7420	3.7421	1.8948	26.45	0.47	1.500			
0.5740	36736.69	3.7390	3.7390	1.9100	26.44	0.46	1.500			
0.5797	37103.88	3.7360	3.7360	1.9534	26.42	0.44	1.500			
0.5856	37480.04	3.7330	3.7330	1.9980	26.41	0.43	1.500			
0.5917	37869.42	3.7300	3.7300	2.0445	26.39	0.41	1.500			
0.5979	38265.18	3.7270	3.7271	2.1090	26.38	0.40	1.500			
0.6043	38677.48	3.7240	3.7238	2.1639	26.36	0.38	1.500			
0.6109	39098.98	3.7210	3.7211	2.1977	26.35	0.37	1.500			
0.6176	39528.20	3.7180	3.7180	2.2369	26.33	0.35	1.500			
0.6243	39956.74	3.7150	3.7150	2.2478	26.31	0.33	1.500			
0.6312	40395.50	3.7120	3.7120	2.2280	26.30	0.32	1.500			
0.6381	40836.14	3.7090	3.7090	2.1981	26.28	0.30	1.500			
0.6444	41242.50	3.7060	3.7060	2.0689	26.27	0.29	1.500			
0.6504	41625.89	3.7030	3.7030	1.9486	26.25	0.27	1.500			
0.6560	41985.55	3.7000	3.7000	1.8314	26.24	0.26	1.500			
0.6613	42326.33	3.6970	3.6970	1.7341	26.23	0.25	1.500			
0.6665	42654.29	3.6940	3.6940	1.6366	26.21	0.23	1.500			
0.6711	42952.27	3.6910	3.6910	1.5470	26.20	0.22	1.500			
0.6756	43236.45	3.6880	3.6881	1.4706	26.19	0.21	1.500			
0.6798	43506.88	3.6850	3.6849	1.4104	26.18	0.20	1.500			
0.6839	43772.38	3.6820	3.6820	1.3705	26.17	0.19	1.500			
0.6880	44030.02	3.6790	3.6790	1.3383	26.16	0.18	1.500			
0.6919	44282.79	3.6760	3.6760	1.3130	26.15	0.17	1.500			
0.6958	44532.28	3.6730	3.6730	1.2952	26.14	0.16	1.500			
0.6997	44777.61	3.6700	3.6700	1.2808	26.13	0.15	1.500			
0.7034	45019.94	3.6670	3.6670	1.2739	26.12	0.14	1.500			
0.7072	45263.18	3.6640	3.6640	1.2774	26.12	0.14	1.500			
0.7111	45509.43	3.6610	3.6610	1.2758	26.11	0.13	1.500			
0.7149	45754.81	3.6580	3.6580	1.2772	26.10	0.12	1.500			
0.7188	46001.45	3.6550	3.6550	1.2685	26.09	0.11	1.500			
0.7226	46243.79	3.6520	3.6520	1.2604	26.08	0.10	1.500			
0.7264	46486.49	3.6490	3.6490	1.2466	26.07	0.09	1.500			
0.7301	46723.60	3.6460	3.6458	1.2342	26.06	0.08	1.500			
0.7337	46958.00	3.6430	3.6431	1.2229	26.05	0.07	1.500			
0.7374	47192.55	3.6400	3.6400	1.2197	26.04	0.06	1.500			
0.7410	47425.56	3.6370	3.6370	1.2100	26.03	0.05	1.500			
0.7446	47657.26	3.6340	3.6340	1.1995	26.03	0.05	1.500			
0.7482	47887.48	3.6310	3.6310	1.1931	26.02	0.04	1.500			
0.7518	48117.92	3.6280	3.6280	1.1841	26.01	0.03	1.500			
0.7554	48343.42	3.6250	3.6249	1.1692	26.00	0.02	1.500			
0.7589	48566.69	3.6220	3.6220	1.1539	26.00	0.02	1.500			
0.7623	48787.57	3.6190	3.6190	1.1350	25.99	0.01	1.500			
0.7657	49006.08	3.6160	3.6159	1.1162	25.99	0.01	1.500			
0.7690	49217.32	3.6130	3.6131	1.0909	25.98	0.00	1.500			
0.7723	49425.27	3.6100	3.6100	1.0666	25.98	-0.00	1.500			
0.7754	49628.07	3.6070	3.6070	1.0384	25.98	-0.00	1.500			
0.7785	49824.46	3.6040	3.6040	1.0093	25.97	-0.01	1.500			
0.7815	50016.52	3.6010	3.6010	0.9764	25.97	-0.01	1.500			
0.7844	50203.64	3.5980	3.5980	0.9419	25.97	-0.01	1.500			
0.7872	50382.77	3.5950	3.5950	0.8898	25.97	-0.01	1.500			
0.7899	50552.39	3.5920	3.5920	0.8320	25.97	-0.01	1.500			
0.7923	50710.12	3.5890	3.5890	0.7569	25.97	-0.01	1.500			
0.7945	50849.57	3.5860	3.5860	0.6741	25.98	-0.00	1.500			
0.7964	50970.63	3.5830	3.5831	0.5887	25.98	-0.00	1.500			
0.7980	51074.14	3.5800	3.5800	0.5054	25.98	-0.00	1.500			
0.7993	51158.13	3.5770	3.5770	0.4317	25.98	-0.00	1.500			
0.8005	51230.59	3.5740	3.5740	0.3717	25.98	-0.00	1.500			
0.8015	51293.64	3.5710	3.5710	0.3155	25.98	-0.00	1.500			
0.8023	51348.38	3.5680	3.5679	0.2789	25.98	-0.00	1.500			
0.8031	51395.35	3.5650	3.5650	0.2452	25.98	-0.00	1.500			
0.8037	51438.20	3.5620	3.5619	0.2208	25.98	-0.00	1.500			
0.8043	51476.89	3.5590	3.5590	0.1974	25.98	-0.00	1.500			
0.8049	51512.55	3.5560	3.5560	0.1800	25.98	-0.00	1.500			
0.8054	51544.67	3.5530	3.5530	0.1628	25.98	0.00	1.500			
0.8058	51574.22	3.5500	3.5499	0.1468	25.98	0.00	1.500			
0.8063	51600.78	3.5470	3.5471	0.1321	25.98	0.00	1.500			
0.8066	51624.50	3.5440	3.5440	0.1168	25.98	0.00	1.500			
0.8070	51645.66	3.5410	3.5411	0.1027	25.98	0.00	1.500			
0.8072	51663.90	3.5380	3.5381	0.0881	25.98	0.00	1.500			
0.8075	51679.43	3.5350	3.5351	0.0737	25.98	0.00	1.500			
0.8077	51692.32	3.5320	3.5323	0.0593	25.98	0.00	1.500			
0.8078	51702.30	3.5290	3.5298	0.0447	25.98	0.00	1.500			
0.8080	51709.48	3.5260	3.5274	0.0301	25.98	0.00	1.500			
