Ah_balance (normalized)	Ah_balance (mAh)	Voltage - fit (V)	Voltage -  interpolate (V)	dQ/dV (1/V)	Temperature (°C)	Temperature - diff (°C)	Current (C)	R_DC 0ms (mOhm)	R_DC 50ms (mOhm)	R_DC 50 ms PEC (mOhm)
0.2811	17988.66	3.9710	3.9710	0.9326	26.97	1.01	1.500			
0.2837	18159.97	3.9680	3.9682	0.8872	26.97	1.01	1.500			
0.2864	18329.49	3.9650	3.9650	0.8830	26.96	1.00	1.500			
0.2890	18496.99	3.9620	3.9619	0.8865	26.96	1.00	1.500			
0.2916	18665.21	3.9590	3.9589	0.8912	26.95	0.99	1.500			
0.2943	18837.34	3.9560	3.9561	0.8972	26.95	0.99	1.500			
0.2971	19011.55	3.9530	3.9530	0.9019	26.94	0.98	1.500			
0.2998	19187.96	3.9500	3.9500	0.9049	26.94	0.98	1.500			
0.3025	19361.06	3.9470	3.9469	0.9031	26.94	0.98	1.500			
0.3052	19533.75	3.9440	3.9440	0.9080	26.93	0.97	1.500			
0.3079	19706.29	3.9410	3.9410	0.9133	26.93	0.97	1.500			
0.3107	19881.94	3.9380	3.9379	0.9158	26.92	0.96	1.500			
0.3134	20059.22	3.9350	3.9351	0.9247	26.92	0.96	1.500			
0.3162	20238.53	3.9320	3.9320	0.9250	26.91	0.95	1.500			
0.3190	20414.61	3.9290	3.9290	0.9330	26.91	0.95	1.500			
0.3218	20593.70	3.9260	3.9260	0.9360	26.90	0.94	1.500			
0.3246	20772.49	3.9230	3.9228	0.9462	26.90	0.94	1.500			
0.3274	20955.21	3.9200	3.9200	0.9518	26.90	0.94	1.500			
0.3303	21140.97	3.9170	3.9171	0.9612	26.90	0.94	1.500			
0.3332	21327.70	3.9140	3.9140	0.9669	26.89	0.93	1.500			
0.3362	21513.83	3.9110	3.9111	0.9722	26.89	0.93	1.500			
0.3391	21699.96	3.9080	3.9080	0.9769	26.89	0.93	1.500			
0.3420	21887.54	3.9050	3.9049	0.9872	26.89	0.93	1.500			
0.3450	22077.03	3.9020	3.9020	0.9941	26.88	0.92	1.500			
0.3480	22270.54	3.8990	3.8989	1.0042	26.88	0.92	1.500			
0.3510	22463.09	3.8960	3.8960	1.0107	26.88	0.92	1.500			
0.3540	22657.73	3.8930	3.8930	1.0214	26.87	0.91	1.500			
0.3571	22854.38	3.8900	3.8900	1.0276	26.87	0.91	1.500			
0.3602	23052.70	3.8870	3.8870	1.0350	26.86	0.90	1.500			
0.3633	23253.17	3.8840	3.8840	1.0381	26.86	0.90	1.500			
0.3664	23451.71	3.8810	3.8812	1.0558	26.85	0.89	1.500			
0.3696	23655.31	3.8780	3.8780	1.0697	26.85	0.89	1.500			
0.3728	23860.40	3.8750	3.8750	1.0829	26.84	0.88	1.500			
0.3761	24070.64	3.8720	3.8720	1.0987	26.84	0.88	1.500			
0.3795	24285.02	3.8690	3.8691	1.1124	26.83	0.87	1.500			
0.3828	24499.41	3.8660	3.8660	1.1267	26.82	0.86	1.500			
0.3862	24718.89	3.8630	3.8630	1.1393	26.82	0.86	1.500			
0.3896	24934.90	3.8600	3.8599	1.1457	26.81	0.85	1.500			
0.3931	25156.66	3.8570	3.8570	1.1575	26.80	0.84	1.500			
0.3966	25379.27	3.8540	3.8541	1.1728	26.80	0.84	1.500			
0.4001	25605.49	3.8510	3.8510	1.1954	26.79	0.83	1.500			
0.4037	25835.62	3.8480	3.8480	1.2210	26.78	0.82	1.500			
0.4074	26070.61	3.8450	3.8449	1.2398	26.77	0.81	1.500			
0.4111	26313.16	3.8420	3.8420	1.2655	26.77	0.81	1.500			
0.4150	26560.13	3.8390	3.8390	1.2844	26.76	0.80	1.500			
0.4189	26809.74	3.8360	3.8361	1.3082	26.75	0.79	1.500			
0.4228	27061.66	3.8330	3.8330	1.3307	26.74	0.78	1.500			
0.4268	27318.07	3.8300	3.8300	1.3553	26.73	0.77	1.500			
0.4309	27578.08	3.8270	3.8270	1.3816	26.72	0.76	1.500			
0.4351	27849.56	3.8240	3.8240	1.4028	26.71	0.75	1.500			
0.4394	28121.85	3.8210	3.8210	1.4397	26.70	0.74	1.500			
0.4437	28399.95	3.8180	3.8181	1.4735	26.69	0.73	1.500			
0.4482	28684.41	3.8150	3.8149	1.5032	26.68	0.72	1.500			
0.4527	28975.52	3.8120	3.8121	1.5434	26.67	0.71	1.500			
0.4575	29277.04	3.8090	3.8091	1.5712	26.66	0.70	1.500			
0.4622	29582.13	3.8060	3.8060	1.6092	26.65	0.69	1.500			
0.4671	29894.16	3.8030	3.8031	1.6430	26.64	0.68	1.500			
0.4721	30212.51	3.8000	3.8000	1.6905	26.63	0.67	1.500			
0.4772	30540.82	3.7970	3.7970	1.7399	26.61	0.65	1.500			
0.4825	30880.44	3.7940	3.7940	1.7810	26.60	0.64	1.500			
0.4879	31228.75	3.7910	3.7910	1.8357	26.58	0.62	1.500			
0.4935	31586.80	3.7880	3.7880	1.8891	26.57	0.61	1.500			
0.4992	31951.84	3.7850	3.7849	1.9392	26.55	0.59	1.500			
0.5051	32326.18	3.7820	3.7820	1.9923	26.53	0.57	1.500			
0.5112	32714.66	3.7790	3.7790	2.0453	26.52	0.56	1.500			
0.5173	33109.93	3.7760	3.7761	2.0960	26.50	0.54	1.500			
0.5237	33517.90	3.7730	3.7728	2.1448	26.48	0.52	1.500			
0.5303	33938.63	3.7700	3.7700	2.1936	26.47	0.51	1.500			
0.5369	34364.74	3.7670	3.7671	2.2260	26.45	0.49	1.500			
0.5437	34796.63	3.7640	3.7640	2.2486	26.43	0.47	1.500			
0.5505	35232.13	3.7610	3.7609	2.2812	26.42	0.46	1.500	0.353	0.451	
0.5574	35675.48	3.7580	3.7580	2.2868	26.39	0.43	1.500			
0.5644	36119.36	3.7550	3.7550	2.2780	26.37	0.41	1.500			
0.5711	36553.58	3.7520	3.7520	2.2267	26.35	0.39	1.500			
0.5777	36973.80	3.7490	3.7490	2.1848	26.33	0.37	1.500			
0.5843	37392.17	3.7460	3.7460	2.1262	26.32	0.36	1.500			
0.5905	37788.84	3.7430	3.7431	2.1256	26.30	0.34	1.500			
0.5968	38195.17	3.7400	3.7400	2.1282	26.29	0.33	1.500			
0.6031	38601.39	3.7370	3.7370	2.1360	26.27	0.31	1.500			
0.6096	39014.96	3.7340	3.7341	2.1403	26.26	0.30	1.500			
0.6162	39434.81	3.7310	3.7310	2.1688	26.25	0.29	1.500			
0.6225	39842.14	3.7280	3.7280	2.1833	26.23	0.27	1.500			
0.6291	40262.59	3.7250	3.7250	2.2067	26.22	0.26	1.500			
0.6357	40687.14	3.7220	3.7220	2.2414	26.21	0.25	1.500			
0.6425	41120.82	3.7190	3.7191	2.3112	26.19	0.23	1.500			
0.6495	41565.70	3.7160	3.7158	2.3747	26.18	0.22	1.500			
0.6567	42027.88	3.7130	3.7131	2.4645	26.17	0.21	1.500			
0.6643	42517.71	3.7100	3.7100	2.5679	26.16	0.20	1.500			
0.6721	43016.16	3.7070	3.7070	2.6466	26.14	0.18	1.500			
0.6802	43533.22	3.7040	3.7040	2.7468	26.13	0.17	1.500			
0.6885	44067.01	3.7010	3.7011	2.7799	26.12	0.16	1.500			
0.6969	44603.84	3.6980	3.6979	2.8291	26.10	0.14	1.500			
0.7055	45150.93	3.6950	3.6951	2.8129	26.09	0.13	1.500			
0.7140	45693.90	3.6920	3.6921	2.6955	26.08	0.12	1.500			
0.7219	46202.74	3.6890	3.6889	2.5015	26.06	0.10	1.500			
0.7292	46668.67	3.6860	3.6860	2.3049	26.06	0.10	1.500			
0.7357	47086.47	3.6830	3.6831	2.0954	26.05	0.09	1.500			
0.7416	47462.84	3.6800	3.6800	1.8927	26.05	0.09	1.500			
0.7470	47804.88	3.6770	3.6770	1.7579	26.04	0.08	1.500			
0.7520	48130.45	3.6740	3.6740	1.6560	26.04	0.08	1.500			
0.7568	48433.19	3.6710	3.6709	1.5582	26.03	0.07	1.500			
0.7613	48723.57	3.6680	3.6680	1.4666	26.03	0.07	1.500			
0.7656	48995.42	3.6650	3.6650	1.3956	26.03	0.07	1.500			
0.7696	49251.34	3.6620	3.6621	1.3375	26.02	0.06	1.500			
0.7734	49496.91	3.6590	3.6589	1.2870	26.02	0.06	1.500			
0.7771	49735.00	3.6560	3.6560	1.2578	26.02	0.06	1.500			
0.7808	49968.76	3.6530	3.6530	1.2391	26.01	0.05	1.500			
0.7845	50205.20	3.6500	3.6500	1.2408	26.00	0.04	1.500			
0.7882	50444.19	3.6470	3.6470	1.2505	26.00	0.04	1.500			
0.7919	50680.41	3.6440	3.6440	1.2648	25.99	0.03	1.500			
0.7957	50924.34	3.6410	3.6410	1.2851	25.99	0.03	1.500			
0.7996	51174.47	3.6380	3.6379	1.2926	25.98	0.02	1.500			
0.8035	51425.39	3.6350	3.6349	1.3073	25.98	0.02	1.500			
0.8075	51679.99	3.6320	3.6321	1.3128	25.97	0.01	1.500			
0.8115	51933.99	3.6290	3.6289	1.3088	25.97	0.01	1.500			
0.8154	52184.15	3.6260	3.6260	1.3107	25.97	0.01	1.500			
0.8193	52434.60	3.6230	3.6230	1.3096	25.96	0.00	1.500			
0.8232	52684.54	3.6200	3.6200	1.3132	25.96	0.00	1.500			
0.8272	52938.44	3.6170	3.6171	1.3159	25.96	-0.00	1.500			
0.8311	53191.04	3.6140	3.6140	1.3106	25.95	-0.01	1.500			
0.8351	53444.60	3.6110	3.6110	1.3069	25.94	-0.02	1.500			
0.8390	53696.22	3.6080	3.6080	1.3024	25.94	-0.02	1.500			
0.8429	53945.14	3.6050	3.6050	1.2939	25.93	-0.03	1.500			
0.8468	54192.59	3.6020	3.6020	1.2859	25.92	-0.04	1.500			
0.8506	54438.69	3.5990	3.5990	1.2726	25.92	-0.04	1.500			
0.8544	54683.30	3.5960	3.5960	1.2591	25.92	-0.04	1.500			
0.8582	54924.72	3.5930	3.5930	1.2470	25.92	-0.04	1.500			
0.8619	55162.51	3.5900	3.5900	1.2263	25.92	-0.04	1.500			
0.8655	55395.01	3.5870	3.5870	1.2163	25.92	-0.04	1.500			
0.8691	55623.95	3.5840	3.5840	1.2132	25.92	-0.04	1.500			
0.8727	55853.09	3.5810	3.5810	1.2131	25.92	-0.04	1.500			
0.8764	56088.30	3.5780	3.5780	1.2172	25.92	-0.04	1.500			
0.8801	56327.64	3.5750	3.5749	1.2107	25.93	-0.03	1.500			
0.8839	56569.59	3.5720	3.5720	1.1587	25.94	-0.02	1.500			
0.8876	56803.23	3.5690	3.5690	1.0948	25.94	-0.02	1.500			
0.8909	57016.20	3.5660	3.5661	0.9797	25.95	-0.01	1.500			
0.8936	57192.61	3.5630	3.5630	0.8335	25.95	-0.01	1.500			
0.8958	57334.20	3.5600	3.5602	0.6817	25.95	-0.01	1.500			
0.8975	57441.26	3.5570	3.5570	0.5551	25.96	-0.00	1.500			
0.8988	57522.91	3.5540	3.5540	0.4378	25.96	-0.00	1.500			
0.8999	57595.09	3.5510	3.5510	0.3534	25.96	0.00	1.500			
0.9008	57649.62	3.5480	3.5480	0.2936	25.96	0.00	1.500			
0.9016	57699.41	3.5450	3.5449	0.2554	25.96	0.00	1.500			
0.9022	57743.50	3.5420	3.5418	0.2202	25.96	0.00	1.500			
0.9028	57779.50	3.5390	3.5391	0.1934	25.97	0.01	1.500			
0.9033	57813.55	3.5360	3.5360	0.1740	25.97	0.01	1.500			
0.9038	57844.81	3.5330	3.5330	0.1553	25.97	0.01	1.500			
0.9043	57872.36	3.5300	3.5301	0.1378	25.97	0.01	1.500			
0.9046	57897.35	3.5270	3.5268	0.1225	25.97	0.01	1.500			
0.9050	57919.24	3.5240	3.5240	0.1070	25.97	0.01	1.500			
0.9053	57938.28	3.5210	3.5212	0.0919	25.97	0.01	1.500			
0.9055	57954.47	3.5180	3.5182	0.0769	25.97	0.01	1.500			
0.9058	57968.13	3.5150	3.5154	0.0603	25.97	0.01	1.500			
0.9059	57978.14	3.5120	3.5127	0.0439	25.97	0.01	1.500			
