Ah_balance (normalized)	Ah_balance (mAh)	Voltage - fit (V)	Voltage -  interpolate (V)	dQ/dV (1/V)	Temperature (°C)	Temperature - diff (°C)	Current (C)	R_DC 0ms (mOhm)	R_DC 50ms (mOhm)	R_DC 50 ms PEC (mOhm)
0.1980	12673.55	3.9370	3.9367	-0.1164	25.52	0.00	-0.750			
0.1984	12699.46	3.9340	3.9338	-0.1578	25.52	0.00	-0.750			
0.1990	12734.50	3.9310	3.9310	-0.2059	25.52	0.00	-0.750			
0.1997	12779.60	3.9280	3.9280	-0.2521	25.52	0.00	-0.750			
0.2005	12832.67	3.9250	3.9249	-0.2956	25.52	0.00	-0.750			
0.2015	12893.81	3.9220	3.9221	-0.3386	25.52	0.00	-0.750			
0.2026	12963.60	3.9190	3.9191	-0.3816	25.52	0.00	-0.750			
0.2038	13041.85	3.9160	3.9159	-0.4229	25.52	0.00	-0.750			
0.2051	13127.29	3.9130	3.9130	-0.4611	25.52	0.00	-0.750			
0.2066	13220.45	3.9100	3.9099	-0.4947	25.52	0.00	-0.750			
0.2081	13319.38	3.9070	3.9072	-0.5256	25.52	0.00	-0.750			
0.2098	13424.56	3.9040	3.9040	-0.5512	25.52	0.00	-0.750			
0.2114	13532.73	3.9010	3.9010	-0.5725	25.52	0.00	-0.750			
0.2132	13644.72	3.8980	3.8980	-0.5934	25.52	0.00	-0.750			
0.2150	13760.91	3.8950	3.8949	-0.6109	25.52	0.00	-0.750			
0.2169	13881.55	3.8920	3.8920	-0.6255	25.52	0.00	-0.750			
0.2188	14003.93	3.8890	3.8890	-0.6371	25.52	0.00	-0.750			
0.2208	14128.64	3.8860	3.8860	-0.6460	25.52	0.00	-0.750			
0.2227	14253.82	3.8830	3.8829	-0.6529	25.52	0.00	-0.750			
0.2247	14379.71	3.8800	3.8801	-0.6568	25.52	0.00	-0.750			
0.2266	14505.58	3.8770	3.8770	-0.6633	25.52	0.00	-0.750			
0.2286	14633.36	3.8740	3.8740	-0.6699	25.52	0.00	-0.750			
0.2307	14763.22	3.8710	3.8710	-0.6742	25.52	0.00	-0.750			
0.2327	14893.40	3.8680	3.8680	-0.6785	25.52	0.00	-0.750			
0.2348	15024.08	3.8650	3.8650	-0.6804	25.52	0.00	-0.750			
0.2368	15154.72	3.8620	3.8620	-0.6836	25.52	0.00	-0.750			
0.2389	15286.54	3.8590	3.8590	-0.6849	25.52	0.00	-0.750			
0.2409	15417.52	3.8560	3.8560	-0.6856	25.52	0.00	-0.750			
0.2430	15549.39	3.8530	3.8530	-0.6892	25.52	0.00	-0.750			
0.2450	15682.82	3.8500	3.8500	-0.6913	25.52	0.00	-0.750			
0.2471	15816.09	3.8470	3.8470	-0.6919	25.52	0.00	-0.750			
0.2492	15949.03	3.8440	3.8440	-0.6912	25.52	0.00	-0.750			
0.2513	16081.23	3.8410	3.8411	-0.6894	25.52	0.00	-0.750			
0.2533	16214.00	3.8380	3.8380	-0.6901	25.52	0.00	-0.750			
0.2554	16345.81	3.8350	3.8350	-0.6911	25.52	0.00	-0.750			
0.2575	16477.95	3.8320	3.8320	-0.6910	25.52	0.00	-0.750			
0.2595	16610.85	3.8290	3.8290	-0.6940	25.52	0.00	-0.750			
0.2616	16745.24	3.8260	3.8260	-0.6947	25.52	0.00	-0.750			
0.2637	16878.69	3.8230	3.8231	-0.6971	25.52	0.00	-0.750			
0.2658	17013.71	3.8200	3.8200	-0.6954	25.53	0.01	-0.750			
0.2679	17147.16	3.8170	3.8170	-0.6926	25.53	0.01	-0.750			
0.2700	17279.48	3.8140	3.8140	-0.6894	25.53	0.01	-0.750			
0.2720	17411.19	3.8110	3.8111	-0.6906	25.53	0.01	-0.750			
0.2741	17542.94	3.8080	3.8080	-0.6902	25.53	0.01	-0.750			
0.2762	17675.45	3.8050	3.8050	-0.6915	25.53	0.01	-0.750			
0.2782	17807.99	3.8020	3.8020	-0.6904	25.54	0.02	-0.750			
0.2804	17943.01	3.7990	3.7990	-0.6938	25.54	0.02	-0.750			
0.2824	18075.24	3.7960	3.7960	-0.6940	25.54	0.02	-0.750			
0.2845	18208.18	3.7930	3.7930	-0.6935	25.54	0.02	-0.750			
0.2866	18340.44	3.7900	3.7900	-0.6943	25.54	0.02	-0.750			
0.2887	18473.79	3.7870	3.7870	-0.6959	25.54	0.02	-0.750			
0.2908	18608.05	3.7840	3.7840	-0.6983	25.55	0.03	-0.750			
0.2929	18742.47	3.7810	3.7809	-0.7004	25.55	0.03	-0.750			
0.2950	18877.38	3.7780	3.7780	-0.7039	25.55	0.03	-0.750			
0.2971	19012.13	3.7750	3.7750	-0.7057	25.55	0.03	-0.750			
0.2992	19148.15	3.7720	3.7720	-0.7088	25.55	0.03	-0.750			
0.3013	19284.40	3.7690	3.7691	-0.7156	25.55	0.03	-0.750			
0.3035	19422.68	3.7660	3.7660	-0.7182	25.55	0.03	-0.750			
0.3056	19560.70	3.7630	3.7629	-0.7216	25.55	0.03	-0.750			
0.3078	19699.96	3.7600	3.7601	-0.7229	25.55	0.03	-0.750			
0.3100	19838.73	3.7570	3.7570	-0.7258	25.55	0.03	-0.750			
0.3122	19978.36	3.7540	3.7540	-0.7301	25.55	0.03	-0.750			
0.3144	20118.47	3.7510	3.7510	-0.7386	25.55	0.03	-0.750			
0.3166	20259.83	3.7480	3.7480	-0.7408	25.54	0.02	-0.750			
0.3188	20404.87	3.7450	3.7449	-0.7496	25.54	0.02	-0.750			
0.3211	20548.68	3.7420	3.7421	-0.7550	25.54	0.02	-0.750			
0.3234	20694.63	3.7390	3.7390	-0.7620	25.54	0.02	-0.750			
0.3256	20841.02	3.7360	3.7360	-0.7646	25.54	0.02	-0.750			
0.3279	20987.33	3.7330	3.7330	-0.7688	25.54	0.02	-0.750			
0.3302	21135.75	3.7300	3.7301	-0.7773	25.54	0.02	-0.750			
0.3326	21285.40	3.7270	3.7269	-0.7852	25.54	0.02	-0.750			
0.3349	21436.03	3.7240	3.7240	-0.7922	25.54	0.02	-0.750			
0.3373	21588.37	3.7210	3.7210	-0.8019	25.53	0.01	-0.750			
0.3397	21743.26	3.7180	3.7181	-0.8119	25.53	0.01	-0.750			
0.3422	21900.91	3.7150	3.7150	-0.8222	25.53	0.01	-0.750			
0.3447	22059.39	3.7120	3.7120	-0.8329	25.52	0.00	-0.750			
0.3472	22220.03	3.7090	3.7090	-0.8466	25.52	0.00	-0.750			
0.3497	22382.61	3.7060	3.7060	-0.8607	25.52	0.00	-0.750			
0.3523	22549.89	3.7030	3.7029	-0.8753	25.52	0.00	-0.750			
0.3550	22718.98	3.7000	3.7000	-0.8885	25.52	0.00	-0.750			
0.3577	22891.03	3.6970	3.6970	-0.9058	25.52	0.00	-0.750			
0.3604	23066.90	3.6940	3.6940	-0.9232	25.52	-0.00	-0.750			
0.3632	23244.93	3.6910	3.6910	-0.9395	25.51	-0.01	-0.750			
0.3660	23425.36	3.6880	3.6880	-0.9561	25.51	-0.01	-0.750			
0.3689	23610.85	3.6850	3.6850	-0.9759	25.50	-0.02	-0.750			
0.3719	23800.78	3.6820	3.6820	-0.9986	25.50	-0.02	-0.750			
0.3749	23994.65	3.6790	3.6790	-1.0181	25.49	-0.03	-0.750			
0.3780	24191.16	3.6760	3.6760	-1.0383	25.48	-0.04	-0.750			
0.3811	24392.94	3.6730	3.6730	-1.0615	25.47	-0.05	-0.750			
0.3843	24598.25	3.6700	3.6701	-1.0879	25.47	-0.05	-0.750			
0.3876	24809.60	3.6670	3.6669	-1.1116	25.47	-0.05	-0.750			
0.3910	25025.42	3.6640	3.6640	-1.1381	25.47	-0.05	-0.750			
0.3945	25246.48	3.6610	3.6610	-1.1611	25.47	-0.05	-0.750			
0.3980	25472.42	3.6580	3.6580	-1.1841	25.47	-0.05	-0.750			
0.4016	25701.45	3.6550	3.6550	-1.2102	25.47	-0.05	-0.750			
0.4052	25935.65	3.6520	3.6521	-1.2365	25.46	-0.06	-0.750			
0.4090	26175.02	3.6490	3.6489	-1.2709	25.46	-0.06	-0.750			
0.4129	26424.94	3.6460	3.6460	-1.2974	25.46	-0.06	-0.750			
0.4168	26677.15	3.6430	3.6429	-1.3199	25.46	-0.06	-0.750			
0.4208	26932.68	3.6400	3.6404	-1.3485	25.46	-0.06	-0.750			
0.4249	27194.99	3.6370	3.6369	-1.3758	25.45	-0.07	-0.750			
0.4290	27458.33	3.6340	3.6340	-1.4065	25.45	-0.07	-0.750			
0.4333	27728.58	3.6310	3.6310	-1.4343	25.44	-0.08	-0.750			
0.4376	28009.35	3.6280	3.6280	-1.4776	25.44	-0.08	-0.750			
0.4421	28297.09	3.6250	3.6249	-1.5086	25.44	-0.08	-0.750			
0.4467	28589.61	3.6220	3.6220	-1.5384	25.44	-0.08	-0.750			
0.4514	28889.31	3.6190	3.6189	-1.5594	25.43	-0.09	-0.750			
0.4561	29191.48	3.6160	3.6160	-1.5890	25.42	-0.10	-0.750			
0.4609	29495.32	3.6130	3.6130	-1.6205	25.42	-0.10	-0.750			
0.4658	29810.56	3.6100	3.6100	-1.6556	25.41	-0.11	-0.750			
0.4708	30133.63	3.6070	3.6070	-1.6788	25.41	-0.11	-0.750			
0.4759	30456.86	3.6040	3.6040	-1.7235	25.40	-0.12	-0.750			
0.4811	30791.59	3.6010	3.6011	-1.7593	25.39	-0.13	-0.750			
0.4865	31134.05	3.5980	3.5980	-1.7939	25.39	-0.13	-0.750			
0.4919	31481.53	3.5950	3.5950	-1.8232	25.39	-0.13	-0.750			
0.4974	31835.29	3.5920	3.5920	-1.8411	25.39	-0.13	-0.750			
0.5030	32192.26	3.5890	3.5890	-1.8744	25.40	-0.12	-0.750			
0.5087	32556.84	3.5860	3.5860	-1.9020	25.40	-0.12	-0.750			
0.5144	32919.56	3.5830	3.5830	-1.9196	25.41	-0.11	-0.750			
0.5201	33289.10	3.5800	3.5801	-1.9570	25.42	-0.10	-0.750			
0.5261	33669.34	3.5770	3.5770	-1.9817	25.42	-0.10	-0.750			
0.5321	34051.57	3.5740	3.5740	-2.0202	25.42	-0.10	-0.750			
0.5382	34445.43	3.5710	3.5710	-2.0414	25.42	-0.10	-0.750	0.372	0.548	
0.5444	34838.56	3.5680	3.5679	-2.0599	25.42	-0.10	-0.750			
0.5506	35235.46	3.5650	3.5651	-2.0658	25.42	-0.10	-0.750			
0.5568	35632.97	3.5620	3.5620	-2.0632	25.43	-0.09	-0.750			
0.5630	36032.29	3.5590	3.5589	-2.0878	25.43	-0.09	-0.750			
0.5692	36430.33	3.5560	3.5561	-2.0851	25.43	-0.09	-0.750			
0.5756	36836.15	3.5530	3.5529	-2.0946	25.43	-0.09	-0.750			
0.5819	37241.30	3.5500	3.5500	-2.1068	25.44	-0.08	-0.750			
0.5881	37640.78	3.5470	3.5471	-2.0779	25.45	-0.07	-0.750			
0.5944	38044.05	3.5440	3.5440	-2.0920	25.46	-0.06	-0.750			
0.6007	38445.63	3.5410	3.5410	-2.0767	25.47	-0.05	-0.750			
0.6070	38845.45	3.5380	3.5379	-2.0575	25.48	-0.04	-0.750			
0.6131	39235.62	3.5350	3.5351	-2.0157	25.49	-0.03	-0.750			
0.6191	39620.31	3.5320	3.5320	-1.9935	25.51	-0.01	-0.750			
0.6250	40000.63	3.5290	3.5290	-1.9593	25.52	0.00	-0.750			
0.6308	40370.94	3.5260	3.5259	-1.9286	25.53	0.01	-0.750			
0.6366	40741.33	3.5230	3.5231	-1.8960	25.55	0.03	-0.750			
0.6423	41108.07	3.5200	3.5199	-1.8517	25.57	0.05	-0.750			
0.6478	41459.75	3.5170	3.5170	-1.8024	25.58	0.06	-0.750			
0.6531	41795.90	3.5140	3.5141	-1.7438	25.59	0.07	-0.750			
0.6582	42126.43	3.5110	3.5109	-1.6985	25.60	0.08	-0.750			
0.6632	42443.96	3.5080	3.5080	-1.6446	25.62	0.10	-0.750			
0.6681	42756.40	3.5050	3.5050	-1.6070	25.63	0.11	-0.750			
0.6729	43063.07	3.5020	3.5020	-1.5659	25.65	0.13	-0.750			
0.6775	43361.10	3.4990	3.4990	-1.5201	25.66	0.14	-0.750			
0.6820	43645.66	3.4960	3.4960	-1.4740	25.68	0.16	-0.750			
0.6863	43924.09	3.4930	3.4930	-1.4250	25.69	0.17	-0.750			
0.6905	44193.37	3.4900	3.4899	-1.3859	25.70	0.18	-0.750			
0.6946	44453.47	3.4870	3.4870	-1.3445	25.72	0.20	-0.750			
0.6986	44707.86	3.4840	3.4841	-1.3043	25.73	0.21	-0.750			
0.7025	44957.05	3.4810	3.4809	-1.2714	25.74	0.22	-0.750			
0.7062	45196.89	3.4780	3.4780	-1.2370	25.75	0.23	-0.750			
0.7098	45427.83	3.4750	3.4750	-1.2065	25.76	0.24	-0.750			
0.7134	45656.85	3.4720	3.4720	-1.1822	25.77	0.25	-0.750			
0.7169	45879.62	3.4690	3.4690	-1.1572	25.78	0.26	-0.750			
0.7203	46098.46	3.4660	3.4661	-1.1368	25.79	0.27	-0.750			
0.7237	46315.57	3.4630	3.4630	-1.1242	25.80	0.28	-0.750			
0.7270	46528.70	3.4600	3.4599	-1.1100	25.82	0.30	-0.750			
0.7303	46739.47	3.4570	3.4570	-1.0994	25.83	0.31	-0.750			
0.7336	46948.47	3.4540	3.4540	-1.0899	25.84	0.32	-0.750			
0.7369	47158.98	3.4510	3.4510	-1.0828	25.85	0.33	-0.750			
0.7401	47365.80	3.4480	3.4480	-1.0778	25.85	0.33	-0.750			
0.7433	47571.32	3.4450	3.4450	-1.0713	25.86	0.34	-0.750			
0.7465	47776.23	3.4420	3.4420	-1.0671	25.86	0.34	-0.750			
0.7497	47981.28	3.4390	3.4390	-1.0606	25.87	0.35	-0.750			
0.7529	48184.15	3.4360	3.4360	-1.0547	25.88	0.36	-0.750			
0.7560	48386.73	3.4330	3.4330	-1.0482	25.88	0.36	-0.750			
0.7592	48588.68	3.4300	3.4300	-1.0404	25.89	0.37	-0.750			
0.7623	48786.94	3.4270	3.4269	-1.0251	25.89	0.37	-0.750			
0.7654	48983.66	3.4240	3.4240	-1.0113	25.90	0.38	-0.750			
0.7684	49176.09	3.4210	3.4211	-0.9972	25.90	0.38	-0.750			
0.7714	49366.68	3.4180	3.4180	-0.9793	25.90	0.38	-0.750			
0.7743	49552.89	3.4150	3.4150	-0.9635	25.91	0.39	-0.750			
0.7771	49736.93	3.4120	3.4120	-0.9463	25.92	0.40	-0.750			
0.7800	49916.97	3.4090	3.4089	-0.9283	25.92	0.40	-0.750			
0.7827	50094.69	3.4060	3.4061	-0.9103	25.93	0.41	-0.750			
0.7854	50267.84	3.4030	3.4029	-0.8862	25.93	0.41	-0.750			
0.7881	50436.26	3.4000	3.4000	-0.8650	25.93	0.41	-0.750			
0.7907	50601.68	3.3970	3.3970	-0.8387	25.94	0.42	-0.750			
0.7931	50759.35	3.3940	3.3940	-0.8091	25.94	0.42	-0.750			
0.7955	50913.67	3.3910	3.3912	-0.7831	25.94	0.42	-0.750			
0.7978	51060.96	3.3880	3.3880	-0.7514	25.94	0.42	-0.750			
0.8000	51202.27	3.3850	3.3850	-0.7220	25.95	0.43	-0.750			
0.8022	51337.87	3.3820	3.3820	-0.6911	25.95	0.43	-0.750			
0.8042	51467.61	3.3790	3.3790	-0.6633	25.95	0.43	-0.750			
0.8061	51591.98	3.3760	3.3760	-0.6339	25.96	0.44	-0.750			
0.8080	51710.67	3.3730	3.3730	-0.6027	25.96	0.44	-0.750			
0.8097	51823.17	3.3700	3.3700	-0.5761	25.96	0.44	-0.750			
0.8114	51931.79	3.3670	3.3670	-0.5473	25.97	0.45	-0.750			
0.8130	52033.52	3.3640	3.3640	-0.5203	25.97	0.45	-0.750			
0.8145	52130.57	3.3610	3.3611	-0.4957	25.98	0.46	-0.750			
0.8160	52222.16	3.3580	3.3580	-0.4726	25.98	0.46	-0.750			
0.8174	52310.67	3.3550	3.3550	-0.4524	25.98	0.46	-0.750			
0.8187	52395.28	3.3520	3.3519	-0.4325	25.99	0.47	-0.750			
0.8199	52476.01	3.3490	3.3489	-0.4127	25.99	0.47	-0.750			
0.8212	52554.32	3.3460	3.3461	-0.3972	25.99	0.47	-0.750			
0.8223	52627.89	3.3430	3.3430	-0.3793	26.00	0.48	-0.750			
0.8234	52698.59	3.3400	3.3400	-0.3638	26.00	0.48	-0.750			
0.8245	52765.97	3.3370	3.3370	-0.3484	26.00	0.48	-0.750			
0.8255	52832.23	3.3340	3.3339	-0.3368	26.01	0.49	-0.750			
0.8265	52895.77	3.3310	3.3311	-0.3254	26.01	0.49	-0.750			
0.8275	52957.08	3.3280	3.3280	-0.3144	26.01	0.49	-0.750			
0.8284	53016.17	3.3250	3.3250	-0.3037	26.01	0.49	-0.750			
0.8293	53073.47	3.3220	3.3219	-0.2944	26.02	0.50	-0.750			
0.8301	53128.05	3.3190	3.3190	-0.2862	26.02	0.50	-0.750			
0.8310	53182.43	3.3160	3.3160	-0.2791	26.02	0.50	-0.750			
0.8318	53235.70	3.3130	3.3129	-0.2722	26.03	0.51	-0.750			
0.8326	53287.10	3.3100	3.3100	-0.2641	26.03	0.51	-0.750			
0.8334	53337.19	3.3070	3.3071	-0.2572	26.03	0.51	-0.750			
0.8342	53385.74	3.3040	3.3041	-0.2505	26.03	0.51	-0.750			
0.8349	53432.63	3.3010	3.3010	-0.2433	26.04	0.52	-0.750			
0.8356	53478.23	3.2980	3.2979	-0.2368	26.04	0.52	-0.750			
0.8363	53523.10	3.2950	3.2950	-0.2330	26.04	0.52	-0.750			
0.8370	53567.30	3.2920	3.2920	-0.2285	26.05	0.53	-0.750			
0.8377	53611.22	3.2890	3.2889	-0.2249	26.05	0.53	-0.750			
0.8383	53653.96	3.2860	3.2860	-0.2203	26.05	0.53	-0.750			
0.8390	53695.62	3.2830	3.2831	-0.2168	26.05	0.53	-0.750			
0.8396	53737.15	3.2800	3.2800	-0.2123	26.06	0.54	-0.750			
0.8403	53777.27	3.2770	3.2770	-0.2084	26.06	0.54	-0.750			
0.8409	53816.91	3.2740	3.2739	-0.2044	26.06	0.54	-0.750			
0.8415	53855.42	3.2710	3.2711	-0.2008	26.06	0.54	-0.750			
0.8421	53893.80	3.2680	3.2679	-0.1973	26.07	0.55	-0.750			
0.8427	53931.23	3.2650	3.2649	-0.1944	26.07	0.55	-0.750			
0.8433	53968.25	3.2620	3.2621	-0.1913	26.07	0.55	-0.750			
0.8438	54004.25	3.2590	3.2591	-0.1885	26.07	0.55	-0.750			
0.8444	54040.64	3.2560	3.2560	-0.1862	26.08	0.56	-0.750			
0.8449	54075.87	3.2530	3.2530	-0.1828	26.08	0.56	-0.750			
0.8455	54110.72	3.2500	3.2500	-0.1804	26.08	0.56	-0.750			
0.8460	54145.13	3.2470	3.2471	-0.1779	26.08	0.56	-0.750			
0.8465	54179.05	3.2440	3.2440	-0.1763	26.09	0.57	-0.750			
0.8471	54212.40	3.2410	3.2409	-0.1737	26.09	0.57	-0.750			
0.8476	54245.66	3.2380	3.2380	-0.1717	26.09	0.57	-0.750			
0.8481	54278.46	3.2350	3.2350	-0.1700	26.10	0.58	-0.750			
0.8486	54311.15	3.2320	3.2320	-0.1682	26.10	0.58	-0.750			
0.8491	54343.12	3.2290	3.2291	-0.1667	26.10	0.58	-0.750			
0.8496	54374.82	3.2260	3.2260	-0.1649	26.11	0.59	-0.750			
0.8501	54406.35	3.2230	3.2230	-0.1635	26.11	0.59	-0.750			
0.8506	54437.47	3.2200	3.2200	-0.1613	26.11	0.59	-0.750			
0.8511	54468.48	3.2170	3.2170	-0.1598	26.11	0.59	-0.750			
0.8515	54498.91	3.2140	3.2140	-0.1586	26.12	0.60	-0.750			
0.8520	54529.20	3.2110	3.2111	-0.1569	26.12	0.60	-0.750			
0.8525	54559.31	3.2080	3.2080	-0.1547	26.12	0.60	-0.750			
0.8529	54588.65	3.2050	3.2050	-0.1526	26.13	0.61	-0.750			
0.8534	54617.61	3.2020	3.2021	-0.1511	26.13	0.61	-0.750			
0.8539	54646.49	3.1990	3.1991	-0.1498	26.13	0.61	-0.750			
0.8543	54675.16	3.1960	3.1959	-0.1487	26.14	0.62	-0.750			
0.8547	54703.53	3.1930	3.1930	-0.1473	26.14	0.62	-0.750			
0.8552	54731.73	3.1900	3.1900	-0.1454	26.14	0.62	-0.750			
0.8556	54759.53	3.1870	3.1871	-0.1442	26.14	0.62	-0.750			
0.8561	54787.39	3.1840	3.1840	-0.1434	26.15	0.63	-0.750			
0.8565	54814.77	3.1810	3.1810	-0.1416	26.15	0.63	-0.750			
0.8569	54841.28	3.1780	3.1780	-0.1402	26.15	0.63	-0.750			
0.8573	54868.13	3.1750	3.1750	-0.1396	26.15	0.63	-0.750			
0.8577	54894.81	3.1720	3.1720	-0.1385	26.16	0.64	-0.750			
0.8581	54921.52	3.1690	3.1689	-0.1373	26.16	0.64	-0.750			
0.8586	54947.73	3.1660	3.1660	-0.1364	26.16	0.64	-0.750			
0.8590	54973.99	3.1630	3.1631	-0.1355	26.17	0.65	-0.750			
0.8594	54999.92	3.1600	3.1600	-0.1341	26.17	0.65	-0.750			
0.8598	55025.57	3.1570	3.1569	-0.1331	26.17	0.65	-0.750			
0.8602	55050.71	3.1540	3.1541	-0.1310	26.18	0.66	-0.750			
0.8606	55075.80	3.1510	3.1510	-0.1303	26.18	0.66	-0.750			
0.8610	55100.88	3.1480	3.1480	-0.1297	26.19	0.67	-0.750			
0.8613	55125.77	3.1450	3.1450	-0.1288	26.19	0.67	-0.750			
0.8617	55150.16	3.1420	3.1420	-0.1276	26.19	0.67	-0.750			
0.8621	55174.74	3.1390	3.1390	-0.1267	26.20	0.68	-0.750			
0.8625	55199.08	3.1360	3.1359	-0.1259	26.20	0.68	-0.750			
0.8629	55223.16	3.1330	3.1330	-0.1249	26.20	0.68	-0.750			
0.8632	55247.00	3.1300	3.1300	-0.1240	26.21	0.69	-0.750			
0.8636	55270.78	3.1270	3.1270	-0.1231	26.21	0.69	-0.750			
0.8640	55294.34	3.1240	3.1240	-0.1218	26.21	0.69	-0.750			
0.8643	55317.60	3.1210	3.1210	-0.1205	26.22	0.70	-0.750			
0.8647	55340.51	3.1180	3.1181	-0.1196	26.22	0.70	-0.750			
0.8651	55363.38	3.1150	3.1148	-0.1187	26.22	0.70	-0.750			
0.8654	55385.99	3.1120	3.1120	-0.1183	26.23	0.71	-0.750			
0.8658	55408.65	3.1090	3.1089	-0.1178	26.23	0.71	-0.750			
0.8661	55431.20	3.1060	3.1060	-0.1164	26.23	0.71	-0.750			
0.8665	55453.49	3.1030	3.1030	-0.1157	26.24	0.72	-0.750			
0.8668	55475.79	3.1000	3.1001	-0.1152	26.24	0.72	-0.750			
0.8672	55497.82	3.0970	3.0970	-0.1142	26.24	0.72	-0.750			
0.8675	55519.62	3.0940	3.0939	-0.1134	26.24	0.72	-0.750			
0.8678	55541.31	3.0910	3.0910	-0.1125	26.25	0.73	-0.750			
0.8682	55562.63	3.0880	3.0880	-0.1115	26.25	0.73	-0.750			
0.8685	55584.00	3.0850	3.0850	-0.1110	26.25	0.73	-0.750			
0.8688	55605.48	3.0820	3.0820	-0.1104	26.26	0.74	-0.750			
0.8692	55626.57	3.0790	3.0789	-0.1093	26.26	0.74	-0.750			
0.8695	55647.30	3.0760	3.0760	-0.1088	26.26	0.74	-0.750			
0.8698	55668.27	3.0730	3.0730	-0.1081	26.26	0.74	-0.750			
0.8701	55688.96	3.0700	3.0699	-0.1074	26.26	0.74	-0.750			
0.8705	55709.49	3.0670	3.0670	-0.1067	26.26	0.74	-0.750			
0.8708	55729.91	3.0640	3.0641	-0.1060	26.26	0.74	-0.750			
0.8711	55750.19	3.0610	3.0609	-0.1052	26.26	0.74	-0.750			
0.8714	55770.40	3.0580	3.0579	-0.1046	26.26	0.74	-0.750			
0.8717	55790.36	3.0550	3.0550	-0.1038	26.26	0.74	-0.750			
0.8720	55810.05	3.0520	3.0520	-0.1027	26.26	0.74	-0.750			
0.8723	55829.70	3.0490	3.0491	-0.1022	26.26	0.74	-0.750			
0.8726	55849.35	3.0460	3.0460	-0.1018	26.26	0.74	-0.750			
0.8730	55868.89	3.0430	3.0430	-0.1010	26.26	0.74	-0.750			
0.8733	55888.19	3.0400	3.0399	-0.1002	26.26	0.74	-0.750			
0.8736	55907.30	3.0370	3.0371	-0.0996	26.26	0.74	-0.750			
0.8738	55926.37	3.0340	3.0341	-0.0990	26.26	0.74	-0.750			
0.8741	55945.28	3.0310	3.0309	-0.0984	26.26	0.74	-0.750			
0.8744	55964.10	3.0280	3.0280	-0.0978	26.26	0.74	-0.750			
0.8747	55982.87	3.0250	3.0249	-0.0971	26.26	0.74	-0.750			
0.8750	56001.41	3.0220	3.0220	-0.0964	26.26	0.74	-0.750			
0.8753	56019.84	3.0190	3.0190	-0.0959	26.26	0.74	-0.750			
0.8756	56038.30	3.0160	3.0161	-0.0956	26.26	0.74	-0.750			
0.8759	56056.58	3.0130	3.0129	-0.0949	26.26	0.74	-0.750			
0.8762	56074.65	3.0100	3.0100	-0.0944	26.26	0.74	-0.750			
0.8764	56092.73	3.0070	3.0070	-0.0940	26.26	0.74	-0.750			
0.8767	56110.73	3.0040	3.0041	-0.0947	26.26	0.74	-0.750			
