Ah_balance (normalized)	Ah_balance (mAh)	Voltage - fit (V)	Voltage -  interpolate (V)	dQ/dV (1/V)	Temperature (°C)	Temperature - diff (°C)	Current (C)	R_DC 0ms (mOhm)	R_DC 50ms (mOhm)	R_DC 50 ms PEC (mOhm)
0.2827	18091.74	3.9710	3.9710	0.8840	27.08	1.12	1.500			
0.2853	18260.25	3.9680	3.9680	0.8798	27.08	1.12	1.500			
0.2880	18430.40	3.9650	3.9651	0.8801	27.07	1.11	1.500			
0.2906	18598.75	3.9620	3.9620	0.8833	27.07	1.11	1.500			
0.2933	18768.31	3.9590	3.9590	0.8866	27.07	1.11	1.500			
0.2959	18937.67	3.9560	3.9560	0.8904	27.06	1.10	1.500			
0.2986	19109.49	3.9530	3.9531	0.8977	27.06	1.10	1.500			
0.3013	19283.35	3.9500	3.9499	0.9044	27.05	1.09	1.500			
0.3040	19457.49	3.9470	3.9470	0.9072	27.05	1.09	1.500			
0.3068	19632.99	3.9440	3.9441	0.9130	27.04	1.08	1.500			
0.3095	19808.26	3.9410	3.9410	0.9192	27.04	1.08	1.500			
0.3123	19985.66	3.9380	3.9380	0.9194	27.04	1.08	1.500			
0.3150	20161.43	3.9350	3.9349	0.9209	27.03	1.07	1.500			
0.3178	20338.11	3.9320	3.9321	0.9259	27.03	1.07	1.500			
0.3206	20516.88	3.9290	3.9290	0.9295	27.02	1.06	1.500			
0.3234	20694.44	3.9260	3.9259	0.9388	27.02	1.06	1.500			
0.3262	20875.16	3.9230	3.9230	0.9447	27.01	1.05	1.500			
0.3290	21057.53	3.9200	3.9200	0.9519	27.01	1.05	1.500			
0.3319	21243.61	3.9170	3.9170	0.9596	27.01	1.05	1.500			
0.3348	21427.72	3.9140	3.9141	0.9628	27.00	1.04	1.500			
0.3377	21611.49	3.9110	3.9110	0.9700	27.00	1.04	1.500			
0.3406	21798.31	3.9080	3.9080	0.9782	27.00	1.04	1.500			
0.3435	21985.47	3.9050	3.9050	0.9804	26.99	1.03	1.500			
0.3465	22175.31	3.9020	3.9019	0.9922	26.99	1.03	1.500			
0.3495	22367.68	3.8990	3.8991	1.0020	26.98	1.02	1.500			
0.3525	22560.87	3.8960	3.8960	1.0104	26.98	1.02	1.500			
0.3555	22754.96	3.8930	3.8930	1.0182	26.97	1.01	1.500			
0.3586	22950.89	3.8900	3.8900	1.0279	26.97	1.01	1.500			
0.3617	23147.72	3.8870	3.8870	1.0388	26.96	1.00	1.500			
0.3648	23349.33	3.8840	3.8840	1.0500	26.95	0.99	1.500			
0.3680	23551.88	3.8810	3.8810	1.0579	26.95	0.99	1.500			
0.3712	23755.94	3.8780	3.8779	1.0694	26.94	0.98	1.500			
0.3744	23962.12	3.8750	3.8752	1.0797	26.93	0.97	1.500			
0.3777	24170.18	3.8720	3.8720	1.0948	26.93	0.97	1.500			
0.3810	24381.86	3.8690	3.8690	1.1055	26.92	0.96	1.500			
0.3843	24594.92	3.8660	3.8660	1.1110	26.91	0.95	1.500			
0.3877	24810.58	3.8630	3.8631	1.1289	26.91	0.95	1.500			
0.3910	25026.67	3.8600	3.8600	1.1470	26.90	0.94	1.500			
0.3945	25247.67	3.8570	3.8569	1.1631	26.89	0.93	1.500			
0.3980	25472.04	3.8540	3.8540	1.1790	26.89	0.93	1.500			
0.4016	25700.15	3.8510	3.8510	1.1949	26.88	0.92	1.500			
0.4052	25932.53	3.8480	3.8481	1.2192	26.87	0.91	1.500			
0.4089	26168.31	3.8450	3.8450	1.2394	26.87	0.91	1.500			
0.4126	26407.28	3.8420	3.8419	1.2523	26.86	0.90	1.500			
0.4164	26648.67	3.8390	3.8390	1.2720	26.85	0.89	1.500			
0.4202	26894.86	3.8360	3.8361	1.2974	26.84	0.88	1.500			
0.4242	27145.80	3.8330	3.8330	1.3226	26.83	0.87	1.500			
0.4282	27401.82	3.8300	3.8299	1.3472	26.82	0.86	1.500			
0.4322	27662.77	3.8270	3.8270	1.3655	26.81	0.85	1.500			
0.4363	27925.00	3.8240	3.8240	1.4024	26.80	0.84	1.500			
0.4406	28197.66	3.8210	3.8209	1.4399	26.79	0.83	1.500			
0.4449	28476.64	3.8180	3.8180	1.4705	26.78	0.82	1.500			
0.4494	28762.54	3.8150	3.8151	1.5042	26.77	0.81	1.500			
0.4540	29054.34	3.8120	3.8121	1.5463	26.76	0.80	1.500			
0.4587	29355.57	3.8090	3.8090	1.5808	26.75	0.79	1.500			
0.4635	29662.19	3.8060	3.8060	1.6191	26.74	0.78	1.500			
0.4683	29973.91	3.8030	3.8030	1.6518	26.73	0.77	1.500			
0.4734	30294.66	3.8000	3.8001	1.6961	26.71	0.75	1.500			
0.4786	30628.68	3.7970	3.7970	1.7397	26.70	0.74	1.500			
0.4838	30965.46	3.7940	3.7940	1.7916	26.68	0.72	1.500			
0.4893	31313.62	3.7910	3.7910	1.8475	26.66	0.70	1.500			
0.4948	31669.30	3.7880	3.7880	1.9022	26.65	0.69	1.500			
0.5006	32041.13	3.7850	3.7850	1.9710	26.63	0.67	1.500			
0.5067	32426.04	3.7820	3.7820	2.0051	26.61	0.65	1.500			
0.5127	32813.85	3.7790	3.7791	2.0403	26.60	0.64	1.500			
0.5189	33210.65	3.7760	3.7761	2.0950	26.58	0.62	1.500			
0.5253	33617.80	3.7730	3.7730	2.1426	26.57	0.61	1.500			
0.5318	34035.57	3.7700	3.7701	2.1809	26.54	0.58	1.500			
0.5384	34455.50	3.7670	3.7671	2.2231	26.51	0.55	1.500			
0.5450	34876.80	3.7640	3.7639	2.2415	26.49	0.53	1.500			
0.5519	35320.97	3.7610	3.7609	2.2582	26.47	0.51	1.500	0.356	0.454	
0.5588	35762.55	3.7580	3.7582	2.2895	26.45	0.49	1.500			
0.5657	36203.87	3.7550	3.7550	2.2617	26.43	0.47	1.500			
0.5724	36635.59	3.7520	3.7518	2.2246	26.42	0.46	1.500			
0.5790	37055.24	3.7490	3.7490	2.1749	26.39	0.43	1.500			
0.5855	37472.24	3.7460	3.7460	2.1507	26.37	0.41	1.500			
0.5918	37877.30	3.7430	3.7431	2.1180	26.35	0.39	1.500			
0.5982	38283.41	3.7400	3.7399	2.1065	26.33	0.37	1.500			
0.6044	38684.32	3.7370	3.7370	2.1024	26.31	0.35	1.500			
0.6107	39088.00	3.7340	3.7340	2.1205	26.30	0.34	1.500			
0.6171	39494.36	3.7310	3.7310	2.1461	26.28	0.32	1.500			
0.6236	39910.00	3.7280	3.7280	2.1763	26.26	0.30	1.500			
0.6302	40331.84	3.7250	3.7250	2.2013	26.25	0.29	1.500			
0.6368	40755.36	3.7220	3.7220	2.2411	26.23	0.27	1.500			
0.6435	41186.98	3.7190	3.7190	2.2888	26.21	0.25	1.500			
0.6505	41630.72	3.7160	3.7160	2.3496	26.19	0.23	1.500			
0.6576	42089.15	3.7130	3.7130	2.4499	26.18	0.22	1.500			
0.6651	42568.71	3.7100	3.7101	2.5524	26.17	0.21	1.500			
0.6729	43068.18	3.7070	3.7069	2.6553	26.16	0.20	1.500			
0.6811	43588.56	3.7040	3.7040	2.6998	26.14	0.18	1.500			
0.6894	44119.72	3.7010	3.7011	2.7806	26.12	0.16	1.500			
0.6979	44663.92	3.6980	3.6979	2.8323	26.10	0.14	1.500			
0.7064	45210.71	3.6950	3.6951	2.8099	26.08	0.12	1.500			
0.7150	45761.65	3.6920	3.6920	2.7000	26.07	0.11	1.500			
0.7230	46269.88	3.6890	3.6890	2.5293	26.06	0.10	1.500			
0.7303	46742.21	3.6860	3.6860	2.3129	26.05	0.09	1.500			
0.7369	47160.95	3.6830	3.6830	2.0845	26.04	0.08	1.500			
0.7426	47526.10	3.6800	3.6801	1.8892	26.03	0.07	1.500			
0.7480	47872.62	3.6770	3.6769	1.7514	26.03	0.07	1.500			
0.7529	48184.05	3.6740	3.6740	1.6225	26.02	0.06	1.500			
0.7576	48484.52	3.6710	3.6710	1.5309	26.02	0.06	1.500			
0.7620	48767.80	3.6680	3.6680	1.4552	26.01	0.05	1.500			
0.7662	49038.40	3.6650	3.6650	1.3850	26.01	0.05	1.500			
0.7702	49293.72	3.6620	3.6620	1.3299	26.00	0.04	1.500			
0.7741	49542.58	3.6590	3.6589	1.2837	26.00	0.04	1.500			
0.7778	49780.82	3.6560	3.6560	1.2522	25.99	0.03	1.500			
0.7815	50016.12	3.6530	3.6531	1.2319	25.99	0.03	1.500			
0.7851	50246.34	3.6500	3.6500	1.2319	25.98	0.02	1.500			
0.7888	50480.04	3.6470	3.6470	1.2434	25.98	0.02	1.500			
0.7924	50716.37	3.6440	3.6439	1.2595	25.98	0.02	1.500			
0.7963	50961.49	3.6410	3.6410	1.2731	25.97	0.01	1.500			
0.8002	51211.25	3.6380	3.6381	1.2916	25.97	0.01	1.500			
0.8041	51460.56	3.6350	3.6350	1.3057	25.96	0.00	1.500			
0.8081	51715.70	3.6320	3.6320	1.3090	25.96	-0.00	1.500			
0.8120	51965.99	3.6290	3.6289	1.3075	25.95	-0.01	1.500			
0.8159	52217.28	3.6260	3.6260	1.3094	25.95	-0.01	1.500			
0.8198	52469.30	3.6230	3.6231	1.3087	25.94	-0.02	1.500			
0.8238	52721.95	3.6200	3.6200	1.3079	25.94	-0.02	1.500			
0.8277	52972.08	3.6170	3.6170	1.3048	25.94	-0.02	1.500			
0.8316	53222.10	3.6140	3.6140	1.3011	25.93	-0.03	1.500			
0.8355	53474.11	3.6110	3.6110	1.3021	25.93	-0.03	1.500			
0.8394	53721.98	3.6080	3.6080	1.2976	25.93	-0.03	1.500			
0.8433	53972.06	3.6050	3.6051	1.2890	25.92	-0.04	1.500			
0.8472	54220.20	3.6020	3.6020	1.2822	25.92	-0.04	1.500			
0.8510	54465.71	3.5990	3.5990	1.2686	25.92	-0.04	1.500			
0.8548	54707.99	3.5960	3.5961	1.2503	25.92	-0.04	1.500			
0.8586	54947.47	3.5930	3.5930	1.2287	25.92	-0.04	1.500			
0.8622	55181.55	3.5900	3.5900	1.2130	25.92	-0.04	1.500			
0.8658	55409.23	3.5870	3.5871	1.1996	25.92	-0.04	1.500			
0.8693	55637.53	3.5840	3.5840	1.2026	25.92	-0.04	1.500			
0.8729	55865.56	3.5810	3.5810	1.2049	25.92	-0.04	1.500			
0.8765	56098.35	3.5780	3.5780	1.2091	25.93	-0.03	1.500			
0.8802	56334.53	3.5750	3.5751	1.2081	25.93	-0.03	1.500			
0.8840	56575.86	3.5720	3.5719	1.1544	25.94	-0.02	1.500			
0.8876	56803.96	3.5690	3.5690	1.0796	25.95	-0.01	1.500			
0.8909	57016.00	3.5660	3.5661	0.9674	25.95	-0.01	1.500			
0.8936	57192.02	3.5630	3.5632	0.8280	25.96	-0.00	1.500			
0.8959	57337.22	3.5600	3.5600	0.6838	25.96	-0.00	1.500			
0.8976	57445.89	3.5570	3.5570	0.5595	25.96	0.00	1.500			
0.8989	57528.87	3.5540	3.5540	0.4429	25.96	0.00	1.500			
0.9000	57602.97	3.5510	3.5509	0.3586	25.97	0.01	1.500			
0.9009	57658.43	3.5480	3.5478	0.2982	25.97	0.01	1.500			
0.9016	57705.54	3.5450	3.5450	0.2516	25.97	0.01	1.500			
0.9023	57747.82	3.5420	3.5420	0.2210	25.97	0.01	1.500			
0.9029	57785.50	3.5390	3.5390	0.1924	25.97	0.01	1.500			
0.9034	57819.40	3.5360	3.5360	0.1733	25.97	0.01	1.500			
0.9039	57850.16	3.5330	3.5331	0.1537	25.97	0.01	1.500			
0.9043	57877.68	3.5300	3.5300	0.1372	25.97	0.01	1.500			
0.9047	57902.52	3.5270	3.5269	0.1215	25.97	0.01	1.500			
0.9051	57924.01	3.5240	3.5240	0.1055	25.97	0.01	1.500			
0.9054	57942.70	3.5210	3.5211	0.0903	25.97	0.01	1.500			
0.9056	57958.60	3.5180	3.5182	0.0753	25.97	0.01	1.500			
0.9058	57972.06	3.5150	3.5154	0.0587	25.97	0.01	1.500			
0.9060	57981.74	3.5120	3.5127	0.0422	25.97	0.01	1.500			
