Ah_balance (normalized)	Ah_balance (mAh)	Voltage - fit (V)	Voltage -  interpolate (V)	dQ/dV (1/V)	Temperature (°C)	Temperature - diff (°C)	Current (C)	R_DC 0ms (mOhm)	R_DC 50ms (mOhm)	R_DC 50 ms PEC (mOhm)
0.2797	17903.03	3.9820	3.9820	0.8512	27.03	1.09	1.500			
0.2823	18066.26	3.9790	3.9790	0.8514	27.03	1.09	1.500			
0.2848	18230.28	3.9760	3.9760	0.8553	27.02	1.08	1.500			
0.2874	18394.71	3.9730	3.9730	0.8584	27.02	1.08	1.500			
0.2900	18558.34	3.9700	3.9700	0.8619	27.01	1.07	1.500			
0.2926	18725.80	3.9670	3.9670	0.8691	27.01	1.07	1.500			
0.2952	18894.06	3.9640	3.9639	0.8687	27.00	1.06	1.500			
0.2978	19060.28	3.9610	3.9610	0.8727	27.00	1.06	1.500			
0.3004	19227.11	3.9580	3.9581	0.8777	26.99	1.05	1.500			
0.3031	19395.82	3.9550	3.9550	0.8838	26.98	1.04	1.500			
0.3057	19566.31	3.9520	3.9519	0.8879	26.98	1.04	1.500			
0.3084	19737.60	3.9490	3.9490	0.8909	26.97	1.03	1.500			
0.3111	19909.72	3.9460	3.9461	0.8963	26.97	1.03	1.500			
0.3138	20081.88	3.9430	3.9430	0.9025	26.96	1.02	1.500			
0.3165	20254.76	3.9400	3.9400	0.9016	26.96	1.02	1.500			
0.3192	20428.63	3.9370	3.9369	0.9067	26.95	1.01	1.500			
0.3219	20602.65	3.9340	3.9340	0.9095	26.95	1.01	1.500			
0.3246	20776.79	3.9310	3.9310	0.9209	26.94	1.00	1.500			
0.3274	20954.91	3.9280	3.9280	0.9262	26.94	1.00	1.500			
0.3302	21133.16	3.9250	3.9247	0.9307	26.93	0.99	1.500			
0.3330	21312.08	3.9220	3.9220	0.9339	26.92	0.98	1.500			
0.3358	21493.22	3.9190	3.9190	0.9413	26.91	0.97	1.500			
0.3387	21675.13	3.9160	3.9160	0.9438	26.91	0.97	1.500			
0.3415	21856.01	3.9130	3.9130	0.9481	26.90	0.96	1.500			
0.3443	22036.09	3.9100	3.9100	0.9483	26.89	0.95	1.500			
0.3472	22219.91	3.9070	3.9070	0.9596	26.88	0.94	1.500			
0.3501	22404.24	3.9040	3.9040	0.9672	26.87	0.93	1.500			
0.3530	22589.70	3.9010	3.9011	0.9798	26.87	0.93	1.500			
0.3559	22779.46	3.8980	3.8980	0.9849	26.86	0.92	1.500			
0.3589	22970.10	3.8950	3.8950	0.9927	26.85	0.91	1.500			
0.3619	23160.61	3.8920	3.8920	0.9990	26.84	0.90	1.500			
0.3649	23352.99	3.8890	3.8891	1.0112	26.84	0.90	1.500			
0.3679	23548.44	3.8860	3.8860	1.0160	26.83	0.89	1.500			
0.3710	23743.52	3.8830	3.8830	1.0235	26.82	0.88	1.500			
0.3741	23939.72	3.8800	3.8800	1.0351	26.82	0.88	1.500			
0.3772	24140.07	3.8770	3.8770	1.0519	26.81	0.87	1.500			
0.3804	24342.71	3.8740	3.8739	1.0601	26.80	0.86	1.500			
0.3835	24546.77	3.8710	3.8711	1.0741	26.79	0.85	1.500			
0.3868	24754.45	3.8680	3.8681	1.0887	26.78	0.84	1.500			
0.3901	24967.37	3.8650	3.8650	1.1033	26.78	0.84	1.500			
0.3934	25180.79	3.8620	3.8620	1.1078	26.77	0.83	1.500			
0.3967	25391.15	3.8590	3.8591	1.1216	26.76	0.82	1.500			
0.4001	25607.98	3.8560	3.8560	1.1360	26.75	0.81	1.500			
0.4035	25826.97	3.8530	3.8530	1.1553	26.74	0.80	1.500			
0.4070	26049.27	3.8500	3.8500	1.1713	26.74	0.80	1.500			
0.4106	26277.20	3.8470	3.8471	1.1887	26.73	0.79	1.500			
0.4142	26506.75	3.8440	3.8440	1.2158	26.72	0.78	1.500			
0.4179	26744.24	3.8410	3.8410	1.2351	26.70	0.76	1.500			
0.4216	26981.54	3.8380	3.8379	1.2519	26.69	0.75	1.500			
0.4254	27224.37	3.8350	3.8351	1.2743	26.68	0.74	1.500			
0.4292	27469.94	3.8320	3.8320	1.2947	26.67	0.73	1.500			
0.4332	27721.90	3.8290	3.8291	1.3164	26.66	0.72	1.500			
0.4371	27976.30	3.8260	3.8260	1.3426	26.65	0.71	1.500			
0.4412	28234.28	3.8230	3.8230	1.3638	26.64	0.70	1.500			
0.4453	28499.10	3.8200	3.8200	1.3963	26.63	0.69	1.500			
0.4495	28768.09	3.8170	3.8171	1.4267	26.62	0.68	1.500			
0.4538	29045.55	3.8140	3.8139	1.4577	26.60	0.66	1.500			
0.4583	29328.16	3.8110	3.8110	1.4926	26.59	0.65	1.500			
0.4628	29619.00	3.8080	3.8080	1.5235	26.58	0.64	1.500			
0.4674	29912.96	3.8050	3.8050	1.5623	26.57	0.63	1.500			
0.4721	30216.09	3.8020	3.8020	1.6012	26.55	0.61	1.500			
0.4770	30525.43	3.7990	3.7990	1.6406	26.54	0.60	1.500			
0.4819	30844.38	3.7960	3.7960	1.6841	26.53	0.59	1.500			
0.4871	31174.50	3.7930	3.7930	1.7157	26.51	0.57	1.500			
0.4923	31507.91	3.7900	3.7900	1.7489	26.50	0.56	1.500			
0.4976	31847.20	3.7870	3.7871	1.7825	26.48	0.54	1.500			
0.5030	32189.51	3.7840	3.7840	1.8193	26.47	0.53	1.500			
0.5085	32541.74	3.7810	3.7810	1.8578	26.45	0.51	1.500			
0.5141	32905.32	3.7780	3.7780	1.8710	26.44	0.50	1.500			
0.5198	33266.91	3.7750	3.7751	1.9153	26.43	0.49	1.500			
0.5255	33635.07	3.7720	3.7720	1.9515	26.41	0.47	1.500			
0.5315	34013.12	3.7690	3.7688	1.9798	26.40	0.46	1.499	0.354	0.457	
0.5375	34397.34	3.7660	3.7661	2.0013	26.38	0.44	1.500			
0.5436	34791.10	3.7630	3.7631	1.9880	26.37	0.43	1.500			
0.5495	35167.65	3.7600	3.7600	1.9608	26.35	0.41	1.500			
0.5553	35540.14	3.7570	3.7568	1.9403	26.34	0.40	1.500			
0.5611	35911.09	3.7540	3.7540	1.9314	26.33	0.39	1.500			
0.5669	36282.25	3.7510	3.7511	1.9292	26.31	0.37	1.500			
0.5727	36649.81	3.7480	3.7480	1.9192	26.30	0.36	1.500			
0.5784	37016.90	3.7450	3.7450	1.9255	26.28	0.34	1.500			
0.5842	37390.21	3.7420	3.7420	1.9539	26.27	0.33	1.500			
0.5902	37770.20	3.7390	3.7390	1.9711	26.26	0.32	1.500			
0.5961	38150.99	3.7360	3.7360	1.9975	26.25	0.31	1.500			
0.6021	38532.53	3.7330	3.7330	2.0080	26.24	0.30	1.500			
0.6081	38916.95	3.7300	3.7300	2.0377	26.23	0.29	1.500			
0.6144	39319.40	3.7270	3.7270	2.0617	26.22	0.28	1.500			
0.6205	39710.57	3.7240	3.7241	2.1303	26.21	0.27	1.500			
0.6269	40123.63	3.7210	3.7210	2.1908	26.20	0.26	1.500			
0.6336	40548.69	3.7180	3.7181	2.2829	26.18	0.24	1.500			
0.6405	40993.59	3.7150	3.7151	2.3401	26.17	0.23	1.500			
0.6478	41459.69	3.7120	3.7120	2.4312	26.15	0.21	1.500			
0.6551	41924.05	3.7090	3.7088	2.4674	26.14	0.20	1.500			
0.6627	42409.85	3.7060	3.7060	2.5203	26.13	0.19	1.500			
0.6702	42894.31	3.7030	3.7030	2.5643	26.12	0.18	1.500			
0.6781	43395.34	3.7000	3.7000	2.5603	26.10	0.16	1.500			
0.6859	43899.18	3.6970	3.6970	2.5140	26.10	0.16	1.500			
0.6933	44373.92	3.6940	3.6940	2.4005	26.09	0.15	1.500			
0.7004	44826.15	3.6910	3.6910	2.2271	26.08	0.14	1.500			
0.7067	45231.41	3.6880	3.6881	2.0488	26.08	0.14	1.500			
0.7126	45604.40	3.6850	3.6850	1.8839	26.07	0.13	1.500			
0.7180	45948.90	3.6820	3.6820	1.7535	26.06	0.12	1.500			
0.7229	46266.18	3.6790	3.6790	1.6297	26.06	0.12	1.500			
0.7276	46568.87	3.6760	3.6760	1.5436	26.05	0.11	1.500			
0.7321	46857.08	3.6730	3.6730	1.4712	26.05	0.11	1.500			
0.7364	47128.26	3.6700	3.6700	1.3981	26.04	0.10	1.500			
0.7404	47388.30	3.6670	3.6670	1.3446	26.04	0.10	1.500			
0.7443	47637.85	3.6640	3.6640	1.3054	26.03	0.09	1.500			
0.7481	47881.26	3.6610	3.6609	1.2747	26.03	0.09	1.500			
0.7519	48120.69	3.6580	3.6580	1.2598	26.02	0.08	1.500			
0.7556	48358.05	3.6550	3.6549	1.2570	26.02	0.08	1.500			
0.7594	48599.06	3.6520	3.6521	1.2628	26.01	0.07	1.500			
0.7632	48842.18	3.6490	3.6489	1.2696	26.01	0.07	1.500			
0.7670	49088.99	3.6460	3.6460	1.2710	26.00	0.06	1.500			
0.7708	49330.51	3.6430	3.6431	1.2880	26.00	0.06	1.500			
0.7747	49582.86	3.6400	3.6400	1.2972	25.99	0.05	1.500			
0.7786	49832.58	3.6370	3.6369	1.3020	25.98	0.04	1.500			
0.7826	50084.63	3.6340	3.6342	1.3005	25.98	0.04	1.500			
0.7865	50335.63	3.6310	3.6311	1.2999	25.97	0.03	1.500			
0.7904	50585.72	3.6280	3.6280	1.2936	25.96	0.02	1.500			
0.7943	50833.85	3.6250	3.6250	1.2896	25.96	0.02	1.500			
0.7981	51075.91	3.6220	3.6220	1.2832	25.95	0.01	1.500			
0.8019	51323.83	3.6190	3.6190	1.2888	25.95	0.01	1.500			
0.8058	51572.13	3.6160	3.6159	1.2829	25.94	0.00	1.500			
0.8097	51819.93	3.6130	3.6130	1.2818	25.94	0.00	1.500			
0.8136	52067.67	3.6100	3.6100	1.2723	25.94	0.00	1.500			
0.8174	52312.10	3.6070	3.6070	1.2569	25.94	0.00	1.500			
0.8211	52550.72	3.6040	3.6040	1.2407	25.94	0.00	1.500			
0.8248	52786.95	3.6010	3.6010	1.2259	25.94	0.00	1.500			
0.8284	53020.36	3.5980	3.5980	1.2100	25.94	0.00	1.500			
0.8321	53251.33	3.5950	3.5950	1.1983	25.94	0.00	1.500			
0.8356	53479.87	3.5920	3.5921	1.1821	25.94	0.00	1.500			
0.8392	53706.18	3.5890	3.5890	1.1701	25.94	0.00	1.500			
0.8427	53929.76	3.5860	3.5860	1.1565	25.94	0.00	1.500			
0.8461	54150.03	3.5830	3.5829	1.1394	25.94	0.00	1.500			
0.8496	54371.80	3.5800	3.5800	1.1052	25.94	0.00	1.500			
0.8529	54585.60	3.5770	3.5770	1.0533	25.94	0.00	1.500			
0.8562	54793.82	3.5740	3.5740	0.9699	25.94	0.00	1.500			
0.8590	54976.93	3.5710	3.5711	0.8642	25.94	0.00	1.500			
0.8615	55136.16	3.5680	3.5680	0.7449	25.94	0.00	1.500			
0.8635	55265.24	3.5650	3.5649	0.6183	25.94	0.00	1.500			
0.8650	55362.99	3.5620	3.5621	0.5068	25.94	0.00	1.500			
0.8663	55445.26	3.5590	3.5589	0.4189	25.94	0.00	1.500			
0.8674	55510.43	3.5560	3.5559	0.3480	25.94	0.00	1.500			
0.8683	55568.44	3.5530	3.5529	0.3002	25.94	0.00	1.500			
0.8690	55618.67	3.5500	3.5500	0.2569	25.94	0.00	1.500			
0.8697	55663.90	3.5470	3.5469	0.2295	25.94	0.00	1.500			
0.8704	55702.60	3.5440	3.5440	0.2043	25.94	0.00	1.500			
0.8709	55738.69	3.5410	3.5410	0.1850	25.94	0.00	1.500			
0.8714	55772.07	3.5380	3.5380	0.1674	25.94	0.00	1.500			
0.8719	55802.20	3.5350	3.5349	0.1526	25.94	0.00	1.500			
0.8723	55829.64	3.5320	3.5321	0.1374	25.94	0.00	1.500			
0.8727	55854.73	3.5290	3.5290	0.1231	25.94	0.00	1.500			
0.8731	55877.03	3.5260	3.5260	0.1092	25.94	0.00	1.500			
0.8734	55896.84	3.5230	3.5230	0.0954	25.94	0.00	1.500			
0.8737	55913.73	3.5200	3.5202	0.0812	25.94	0.00	1.500			
0.8739	55927.98	3.5170	3.5173	0.0672	25.94	0.00	1.500			
0.8741	55939.91	3.5140	3.5143	0.0515	25.94	0.00	1.500			
0.8742	55948.32	3.5110	3.5116	0.0361	25.94	0.00	1.500			
