Ah_balance (normalized)	Ah_balance (mAh)	Voltage - fit (V)	Voltage -  interpolate (V)	dQ/dV (1/V)	Temperature (°C)	Temperature - diff (°C)	Current (C)	R_DC 0ms (mOhm)	R_DC 50ms (mOhm)	R_DC 50 ms PEC (mOhm)
0.2881	18436.26	3.9900	3.9900	0.8133	27.41	1.43	1.500			
0.2905	18595.19	3.9870	3.9870	0.8324	27.40	1.42	1.500			
0.2931	18756.96	3.9840	3.9839	0.8384	27.39	1.41	1.500			
0.2956	18918.04	3.9810	3.9810	0.8392	27.39	1.41	1.500			
0.2981	19079.61	3.9780	3.9782	0.8421	27.38	1.40	1.500			
0.3006	19241.57	3.9750	3.9750	0.8447	27.38	1.40	1.500			
0.3032	19402.68	3.9720	3.9719	0.8526	27.37	1.39	1.500			
0.3057	19564.55	3.9690	3.9691	0.8583	27.36	1.38	1.500			
0.3083	19731.32	3.9660	3.9660	0.8612	27.36	1.38	1.500			
0.3109	19900.32	3.9630	3.9630	0.8687	27.35	1.37	1.500			
0.3136	20067.34	3.9600	3.9601	0.8662	27.35	1.37	1.500			
0.3162	20233.77	3.9570	3.9569	0.8685	27.34	1.36	1.500			
0.3188	20400.78	3.9540	3.9540	0.8692	27.33	1.35	1.500			
0.3213	20566.30	3.9510	3.9509	0.8728	27.33	1.35	1.500			
0.3240	20733.30	3.9480	3.9480	0.8783	27.32	1.34	1.500			
0.3266	20904.06	3.9450	3.9451	0.8859	27.31	1.33	1.500			
0.3293	21074.59	3.9420	3.9420	0.8904	27.31	1.33	1.500			
0.3320	21246.37	3.9390	3.9390	0.8974	27.30	1.32	1.500			
0.3347	21418.52	3.9360	3.9361	0.9013	27.29	1.31	1.500			
0.3374	21592.72	3.9330	3.9329	0.9060	27.28	1.30	1.500			
0.3401	21766.91	3.9300	3.9300	0.9087	27.28	1.30	1.500			
0.3429	21942.47	3.9270	3.9270	0.9135	27.27	1.29	1.500			
0.3456	22118.36	3.9240	3.9240	0.9164	27.26	1.28	1.500			
0.3483	22294.12	3.9210	3.9210	0.9241	27.25	1.27	1.500			
0.3511	22471.31	3.9180	3.9181	0.9314	27.25	1.27	1.500			
0.3539	22651.49	3.9150	3.9149	0.9378	27.24	1.26	1.500			
0.3568	22832.39	3.9120	3.9120	0.9454	27.23	1.25	1.500			
0.3596	23015.02	3.9090	3.9091	0.9531	27.22	1.24	1.500			
0.3625	23198.40	3.9060	3.9060	0.9616	27.21	1.23	1.500			
0.3654	23384.45	3.9030	3.9029	0.9697	27.21	1.23	1.500			
0.3683	23570.64	3.9000	3.9000	0.9750	27.20	1.22	1.500			
0.3712	23759.02	3.8970	3.8970	0.9832	27.19	1.21	1.500			
0.3742	23948.58	3.8940	3.8940	0.9932	27.18	1.20	1.500			
0.3772	24140.73	3.8910	3.8909	0.9996	27.17	1.19	1.500			
0.3802	24333.40	3.8880	3.8881	1.0049	27.16	1.18	1.500			
0.3832	24526.18	3.8850	3.8850	1.0123	27.15	1.17	1.500			
0.3863	24720.50	3.8820	3.8821	1.0262	27.14	1.16	1.500			
0.3893	24917.84	3.8790	3.8790	1.0372	27.13	1.15	1.500			
0.3925	25118.29	3.8760	3.8759	1.0462	27.12	1.14	1.500			
0.3956	25320.16	3.8730	3.8731	1.0589	27.11	1.13	1.500			
0.3988	25524.14	3.8700	3.8701	1.0793	27.10	1.12	1.500			
0.4021	25734.43	3.8670	3.8670	1.0936	27.08	1.10	1.500			
0.4054	25946.05	3.8640	3.8639	1.1043	27.07	1.09	1.500			
0.4087	26157.84	3.8610	3.8610	1.1158	27.06	1.08	1.500			
0.4121	26373.63	3.8580	3.8582	1.1346	27.05	1.07	1.500			
0.4155	26594.19	3.8550	3.8550	1.1497	27.04	1.06	1.500			
0.4190	26814.47	3.8520	3.8519	1.1607	27.03	1.05	1.500			
0.4225	27038.12	3.8490	3.8490	1.1760	27.02	1.04	1.500			
0.4260	27266.75	3.8460	3.8461	1.1978	27.01	1.03	1.500			
0.4297	27498.60	3.8430	3.8430	1.2111	27.00	1.02	1.500			
0.4333	27732.00	3.8400	3.8400	1.2275	26.98	1.00	1.500			
0.4370	27968.15	3.8370	3.8370	1.2481	26.97	0.99	1.500			
0.4408	28209.60	3.8340	3.8340	1.2653	26.96	0.98	1.500			
0.4446	28452.45	3.8310	3.8310	1.2889	26.94	0.96	1.500			
0.4485	28701.95	3.8280	3.8280	1.3131	26.93	0.95	1.500			
0.4524	28956.59	3.8250	3.8250	1.3389	26.91	0.93	1.500			
0.4565	29217.45	3.8220	3.8220	1.3631	26.90	0.92	1.500			
0.4606	29480.14	3.8190	3.8190	1.3874	26.88	0.90	1.500			
0.4648	29749.38	3.8160	3.8160	1.4148	26.87	0.89	1.500			
0.4691	30022.47	3.8130	3.8130	1.4222	26.85	0.87	1.500			
0.4733	30293.33	3.8100	3.8100	1.4479	26.84	0.86	1.500			
0.4777	30574.20	3.8070	3.8068	1.4727	26.82	0.84	1.500			
0.4822	30859.79	3.8040	3.8041	1.5039	26.81	0.83	1.500			
0.4868	31153.98	3.8010	3.8011	1.5315	26.79	0.81	1.500			
0.4914	31450.67	3.7980	3.7980	1.5593	26.76	0.78	1.500			
0.4962	31757.34	3.7950	3.7950	1.5873	26.74	0.76	1.500			
0.5009	32057.87	3.7920	3.7921	1.6084	26.72	0.74	1.500			
0.5058	32368.36	3.7890	3.7890	1.6429	26.70	0.72	1.500			
0.5108	32688.13	3.7860	3.7859	1.6606	26.68	0.70	1.500			
0.5158	33010.34	3.7830	3.7831	1.6797	26.67	0.69	1.500	0.350	0.483	
0.5209	33335.89	3.7800	3.7801	1.7066	26.65	0.67	1.500			
0.5261	33668.86	3.7770	3.7769	1.7067	26.63	0.65	1.500			
0.5312	33993.92	3.7740	3.7740	1.7126	26.61	0.63	1.500			
0.5364	34326.91	3.7710	3.7711	1.7096	26.59	0.61	1.500			
0.5415	34655.46	3.7680	3.7679	1.7122	26.57	0.59	1.500			
0.5466	34981.03	3.7650	3.7650	1.7134	26.55	0.57	1.500			
0.5517	35307.16	3.7620	3.7619	1.7180	26.54	0.56	1.500			
0.5569	35641.76	3.7590	3.7590	1.7304	26.52	0.54	1.500			
0.5621	35973.04	3.7560	3.7560	1.7535	26.51	0.53	1.500			
0.5674	36311.54	3.7530	3.7530	1.7677	26.49	0.51	1.500			
0.5726	36649.31	3.7500	3.7500	1.7761	26.48	0.50	1.500			
0.5780	36992.07	3.7470	3.7470	1.7947	26.46	0.48	1.500			
0.5834	37338.09	3.7440	3.7440	1.8242	26.44	0.46	1.500			
0.5889	37691.52	3.7410	3.7409	1.8497	26.42	0.44	1.500			
0.5945	38046.95	3.7380	3.7381	1.8966	26.40	0.42	1.500			
0.6002	38412.59	3.7350	3.7350	1.9508	26.38	0.40	1.500			
0.6061	38792.05	3.7320	3.7320	2.0067	26.36	0.38	1.500			
0.6123	39186.80	3.7290	3.7290	2.0522	26.34	0.36	1.500			
0.6186	39589.98	3.7260	3.7261	2.1276	26.32	0.34	1.500			
0.6250	40000.57	3.7230	3.7230	2.1839	26.30	0.32	1.500			
0.6316	40421.36	3.7200	3.7201	2.2394	26.28	0.30	1.500			
0.6385	40863.77	3.7170	3.7170	2.2873	26.26	0.28	1.500			
0.6454	41304.61	3.7140	3.7140	2.3102	26.24	0.26	1.500			
0.6524	41754.59	3.7110	3.7109	2.3306	26.22	0.24	1.500			
0.6596	42215.94	3.7080	3.7080	2.3005	26.20	0.22	1.500			
0.6665	42655.28	3.7050	3.7051	2.2028	26.19	0.21	1.500			
0.6729	43066.89	3.7020	3.7021	2.0707	26.17	0.19	1.500			
0.6789	43448.03	3.6990	3.6989	1.9223	26.16	0.18	1.500			
0.6844	43799.35	3.6960	3.6960	1.7821	26.15	0.17	1.500			
0.6895	44130.55	3.6930	3.6930	1.6697	26.14	0.16	1.500			
0.6943	44435.73	3.6900	3.6900	1.5880	26.13	0.15	1.500			
0.6989	44728.78	3.6870	3.6870	1.5044	26.12	0.14	1.500			
0.7032	45006.18	3.6840	3.6839	1.4323	26.11	0.13	1.500			
0.7074	45274.43	3.6810	3.6811	1.3812	26.10	0.12	1.500			
0.7115	45533.47	3.6780	3.6780	1.3417	26.09	0.11	1.500			
0.7154	45785.30	3.6750	3.6749	1.3083	26.08	0.10	1.500			
0.7192	46029.33	3.6720	3.6720	1.2800	26.07	0.09	1.500			
0.7230	46271.29	3.6690	3.6690	1.2657	26.06	0.08	1.500			
0.7267	46511.93	3.6660	3.6660	1.2616	26.05	0.07	1.500			
0.7305	46753.11	3.6630	3.6630	1.2632	26.05	0.07	1.500			
0.7343	46994.10	3.6600	3.6600	1.2642	26.04	0.06	1.500			
0.7381	47238.42	3.6570	3.6570	1.2634	26.03	0.05	1.500			
0.7419	47481.18	3.6540	3.6540	1.2656	26.02	0.04	1.500			
0.7457	47726.59	3.6510	3.6510	1.2582	26.02	0.04	1.500			
0.7495	47968.84	3.6480	3.6480	1.2498	26.01	0.03	1.500			
0.7533	48208.23	3.6450	3.6450	1.2350	26.00	0.02	1.500			
0.7569	48443.07	3.6420	3.6420	1.2211	25.99	0.01	1.500			
0.7606	48676.54	3.6390	3.6390	1.2115	25.99	0.01	1.500			
0.7642	48907.49	3.6360	3.6360	1.2057	25.98	0.00	1.500			
0.7678	49136.50	3.6330	3.6330	1.1884	25.98	-0.00	1.500			
0.7713	49365.41	3.6300	3.6301	1.1836	25.97	-0.01	1.500			
0.7749	49592.22	3.6270	3.6270	1.1748	25.97	-0.01	1.500			
0.7784	49817.41	3.6240	3.6238	1.1649	25.96	-0.02	1.500			
0.7819	50040.10	3.6210	3.6210	1.1518	25.96	-0.02	1.500			
0.7853	50259.80	3.6180	3.6181	1.1411	25.95	-0.03	1.500			
0.7888	50480.18	3.6150	3.6149	1.1205	25.95	-0.03	1.500			
0.7921	50695.00	3.6120	3.6120	1.0984	25.95	-0.03	1.500			
0.7954	50904.80	3.6090	3.6090	1.0732	25.95	-0.03	1.500			
0.7986	51108.23	3.6060	3.6060	1.0438	25.94	-0.04	1.500			
0.8017	51306.52	3.6030	3.6029	1.0152	25.94	-0.04	1.500			
0.8047	51498.87	3.6000	3.6000	0.9814	25.94	-0.04	1.500			
0.8076	51684.31	3.5970	3.5969	0.9473	25.95	-0.03	1.500			
0.8104	51866.76	3.5940	3.5940	0.9074	25.95	-0.03	1.500			
0.8131	52040.31	3.5910	3.5910	0.8571	25.96	-0.02	1.500			
0.8157	52204.55	3.5880	3.5879	0.7925	25.96	-0.02	1.500			
0.8180	52351.96	3.5850	3.5851	0.7155	25.96	-0.02	1.500			
0.8200	52483.14	3.5820	3.5820	0.6299	25.97	-0.01	1.500			
0.8218	52594.98	3.5790	3.5790	0.5417	25.97	-0.01	1.500			
0.8232	52685.12	3.5760	3.5761	0.4594	25.97	-0.01	1.500			
0.8244	52761.80	3.5730	3.5731	0.3924	25.97	-0.01	1.500			
0.8254	52828.32	3.5700	3.5699	0.3289	25.98	-0.00	1.500			
0.8263	52884.63	3.5670	3.5669	0.2850	25.98	-0.00	1.500			
0.8271	52931.92	3.5640	3.5640	0.2487	25.98	-0.00	1.500			
0.8278	52976.25	3.5610	3.5610	0.2234	25.98	-0.00	1.500			
0.8284	53014.77	3.5580	3.5580	0.1985	25.98	0.00	1.500			
0.8289	53050.61	3.5550	3.5550	0.1778	25.98	0.00	1.500			
0.8294	53082.12	3.5520	3.5520	0.1600	25.98	0.00	1.500			
0.8299	53110.72	3.5490	3.5490	0.1424	25.98	0.00	1.500			
0.8303	53136.14	3.5460	3.5460	0.1264	25.98	0.00	1.500			
0.8306	53159.00	3.5430	3.5430	0.1117	25.98	0.00	1.500			
0.8309	53178.83	3.5400	3.5400	0.0966	25.98	0.00	1.500			
0.8312	53196.10	3.5370	3.5372	0.0822	25.98	0.00	1.500			
0.8314	53210.48	3.5340	3.5343	0.0676	25.98	0.00	1.500			
0.8316	53222.35	3.5310	3.5316	0.0526	25.99	0.01	1.500			
0.8317	53230.98	3.5280	3.5291	0.0373	25.99	0.01	1.500			
0.8318	53236.69	3.5250	3.5270	0.0221	25.99	0.01	1.500			
