Ah_balance (normalized)	Ah_balance (mAh)	Voltage - fit (V)	Voltage -  interpolate (V)	dQ/dV (1/V)	Temperature (°C)	Temperature - diff (°C)	Current (C)	R_DC 0ms (mOhm)	R_DC 50ms (mOhm)	R_DC 50 ms PEC (mOhm)
0.2795	17890.81	3.9850	3.9850	0.8724	27.19	1.21	1.500			
0.2821	18055.77	3.9820	3.9821	0.8601	27.18	1.20	1.500			
0.2847	18220.26	3.9790	3.9790	0.8582	27.18	1.20	1.500			
0.2872	18383.97	3.9760	3.9760	0.8586	27.17	1.19	1.500			
0.2898	18549.19	3.9730	3.9729	0.8587	27.17	1.19	1.500			
0.2924	18716.57	3.9700	3.9700	0.8606	27.17	1.19	1.500			
0.2950	18881.10	3.9670	3.9670	0.8586	27.16	1.18	1.500			
0.2976	19045.78	3.9640	3.9640	0.8641	27.16	1.18	1.500			
0.3002	19211.32	3.9610	3.9611	0.8665	27.15	1.17	1.500			
0.3028	19376.22	3.9580	3.9578	0.8685	27.15	1.17	1.500			
0.3054	19543.11	3.9550	3.9550	0.8741	27.15	1.17	1.500			
0.3080	19712.84	3.9520	3.9520	0.8830	27.14	1.16	1.500			
0.3107	19883.07	3.9490	3.9491	0.8869	27.14	1.16	1.500			
0.3134	20054.70	3.9460	3.9459	0.8903	27.13	1.15	1.500			
0.3160	20225.39	3.9430	3.9430	0.8935	27.13	1.15	1.500			
0.3187	20397.77	3.9400	3.9400	0.8958	27.12	1.14	1.500			
0.3214	20568.96	3.9370	3.9370	0.9028	27.12	1.14	1.500			
0.3241	20743.72	3.9340	3.9340	0.9052	27.12	1.14	1.500			
0.3268	20917.13	3.9310	3.9310	0.9112	27.11	1.13	1.500			
0.3296	21093.46	3.9280	3.9280	0.9160	27.10	1.12	1.500			
0.3323	21268.72	3.9250	3.9251	0.9256	27.10	1.12	1.500			
0.3351	21447.58	3.9220	3.9219	0.9302	27.09	1.11	1.500			
0.3379	21626.87	3.9190	3.9190	0.9365	27.08	1.10	1.500			
0.3407	21806.97	3.9160	3.9160	0.9403	27.08	1.10	1.500			
0.3436	21990.89	3.9130	3.9130	0.9427	27.07	1.09	1.500			
0.3464	22169.50	3.9100	3.9100	0.9478	27.06	1.08	1.500			
0.3493	22352.07	3.9070	3.9071	0.9499	27.06	1.08	1.500			
0.3521	22532.60	3.9040	3.9038	0.9576	27.05	1.07	1.500			
0.3550	22717.70	3.9010	3.9011	0.9698	27.04	1.06	1.500			
0.3579	22904.39	3.8980	3.8980	0.9771	27.03	1.05	1.500			
0.3608	23093.34	3.8950	3.8950	0.9929	27.03	1.05	1.500			
0.3638	23286.26	3.8920	3.8920	0.9934	27.02	1.04	1.500			
0.3668	23477.18	3.8890	3.8890	0.9982	27.01	1.03	1.500			
0.3699	23670.50	3.8860	3.8860	1.0116	27.00	1.02	1.500			
0.3729	23863.79	3.8830	3.8830	1.0168	26.99	1.01	1.500			
0.3759	24059.76	3.8800	3.8799	1.0259	26.98	1.00	1.500			
0.3790	24257.81	3.8770	3.8770	1.0363	26.98	1.00	1.500			
0.3821	24455.66	3.8740	3.8741	1.0510	26.97	0.99	1.500			
0.3853	24661.63	3.8710	3.8710	1.0681	26.96	0.98	1.500			
0.3886	24867.85	3.8680	3.8680	1.0754	26.95	0.97	1.500			
0.3918	25074.66	3.8650	3.8650	1.0849	26.95	0.97	1.500			
0.3951	25284.71	3.8620	3.8621	1.0994	26.94	0.96	1.500			
0.3984	25497.10	3.8590	3.8590	1.1107	26.93	0.95	1.500			
0.4017	25709.69	3.8560	3.8560	1.1248	26.92	0.94	1.500			
0.4051	25924.20	3.8530	3.8531	1.1381	26.91	0.93	1.500			
0.4085	26146.11	3.8500	3.8500	1.1607	26.90	0.92	1.500			
0.4121	26372.49	3.8470	3.8469	1.1806	26.89	0.91	1.500			
0.4157	26601.66	3.8440	3.8440	1.1906	26.88	0.90	1.500			
0.4192	26828.93	3.8410	3.8411	1.2142	26.87	0.89	1.500			
0.4229	27063.50	3.8380	3.8381	1.2359	26.85	0.87	1.500			
0.4266	27302.63	3.8350	3.8348	1.2555	26.84	0.86	1.500			
0.4304	27544.27	3.8320	3.8321	1.2777	26.83	0.85	1.500			
0.4343	27792.34	3.8290	3.8291	1.3052	26.82	0.84	1.500			
0.4383	28049.43	3.8260	3.8259	1.3275	26.80	0.82	1.500			
0.4423	28304.26	3.8230	3.8230	1.3448	26.79	0.81	1.500			
0.4463	28562.44	3.8200	3.8200	1.3726	26.77	0.79	1.500			
0.4504	28828.58	3.8170	3.8171	1.4043	26.76	0.78	1.500			
0.4547	29101.40	3.8140	3.8140	1.4360	26.74	0.76	1.500			
0.4590	29378.68	3.8110	3.8110	1.4665	26.73	0.75	1.500			
0.4635	29664.87	3.8080	3.8080	1.4922	26.71	0.73	1.500			
0.4680	29953.71	3.8050	3.8050	1.5307	26.70	0.72	1.500			
0.4727	30251.40	3.8020	3.8020	1.5626	26.69	0.71	1.500			
0.4774	30553.41	3.7990	3.7989	1.6022	26.67	0.69	1.500			
0.4823	30865.41	3.7960	3.7961	1.6289	26.65	0.67	1.500			
0.4872	31181.58	3.7930	3.7930	1.6650	26.63	0.65	1.500			
0.4923	31505.47	3.7900	3.7901	1.6969	26.62	0.64	1.500			
0.4974	31831.43	3.7870	3.7870	1.7119	26.60	0.62	1.500			
0.5026	32165.07	3.7840	3.7840	1.7433	26.58	0.60	1.500			
0.5078	32500.39	3.7810	3.7810	1.7739	26.56	0.58	1.500			
0.5132	32847.53	3.7780	3.7779	1.7986	26.55	0.57	1.500			
0.5187	33193.62	3.7750	3.7750	1.8161	26.53	0.55	1.500			
0.5242	33546.42	3.7720	3.7721	1.8281	26.51	0.53	1.500	0.349	0.464	
0.5297	33899.10	3.7690	3.7690	1.8348	26.49	0.51	1.500			
0.5352	34252.44	3.7660	3.7660	1.8247	26.47	0.49	1.500			
0.5406	34601.29	3.7630	3.7630	1.8173	26.46	0.48	1.500			
0.5461	34947.58	3.7600	3.7601	1.8177	26.44	0.46	1.500			
0.5515	35297.18	3.7570	3.7570	1.8142	26.42	0.44	1.500			
0.5570	35645.57	3.7540	3.7540	1.8149	26.41	0.43	1.500			
0.5624	35994.86	3.7510	3.7511	1.8216	26.39	0.41	1.500			
0.5679	36343.01	3.7480	3.7480	1.8256	26.38	0.40	1.500			
0.5733	36689.62	3.7450	3.7450	1.8421	26.36	0.38	1.500			
0.5788	37043.61	3.7420	3.7420	1.8688	26.35	0.37	1.500			
0.5845	37408.02	3.7390	3.7390	1.9124	26.33	0.35	1.500			
0.5903	37779.09	3.7360	3.7360	1.9446	26.31	0.33	1.500			
0.5962	38155.53	3.7330	3.7330	1.9750	26.30	0.32	1.500			
0.6021	38537.50	3.7300	3.7300	2.0213	26.28	0.30	1.500			
0.6083	38932.19	3.7270	3.7270	2.0634	26.27	0.29	1.500			
0.6145	39327.80	3.7240	3.7241	2.1167	26.25	0.27	1.500			
0.6209	39739.98	3.7210	3.7210	2.1781	26.24	0.26	1.500			
0.6275	40162.22	3.7180	3.7179	2.2556	26.22	0.24	1.500			
0.6345	40605.53	3.7150	3.7151	2.3160	26.20	0.22	1.500			
0.6416	41060.17	3.7120	3.7120	2.4030	26.19	0.21	1.500			
0.6488	41523.75	3.7090	3.7090	2.4597	26.17	0.19	1.500			
0.6563	42002.03	3.7060	3.7061	2.4886	26.15	0.17	1.500			
0.6639	42487.64	3.7030	3.7030	2.4600	26.14	0.16	1.500			
0.6712	42954.60	3.7000	3.7000	2.4046	26.13	0.15	1.500			
0.6784	43417.09	3.6970	3.6970	2.3126	26.12	0.14	1.500			
0.6853	43857.65	3.6940	3.6941	2.1738	26.11	0.13	1.500			
0.6916	44260.53	3.6910	3.6910	2.0121	26.10	0.12	1.500			
0.6972	44621.00	3.6880	3.6880	1.8114	26.09	0.11	1.500			
0.7022	44939.81	3.6850	3.6850	1.6676	26.08	0.10	1.500			
0.7070	45249.04	3.6820	3.6820	1.5755	26.07	0.09	1.500			
0.7115	45534.80	3.6790	3.6790	1.4850	26.07	0.09	1.500			
0.7158	45812.91	3.6760	3.6760	1.4252	26.06	0.08	1.500			
0.7200	46076.86	3.6730	3.6731	1.3651	26.06	0.08	1.500			
0.7240	46334.85	3.6700	3.6700	1.3203	26.05	0.07	1.500			
0.7278	46579.88	3.6670	3.6670	1.2874	26.05	0.07	1.500			
0.7316	46820.73	3.6640	3.6641	1.2629	26.04	0.06	1.500			
0.7353	47056.05	3.6610	3.6610	1.2537	26.03	0.05	1.500			
0.7390	47296.07	3.6580	3.6579	1.2514	26.03	0.05	1.500			
0.7427	47533.55	3.6550	3.6550	1.2601	26.02	0.04	1.500			
0.7465	47777.28	3.6520	3.6520	1.2746	26.01	0.03	1.500			
0.7504	48024.89	3.6490	3.6490	1.2890	26.00	0.02	1.500			
0.7543	48274.07	3.6460	3.6460	1.2919	26.00	0.02	1.500			
0.7582	48523.30	3.6430	3.6430	1.2993	25.99	0.01	1.500			
0.7621	48774.40	3.6400	3.6401	1.2998	25.98	0.00	1.500			
0.7661	49027.26	3.6370	3.6370	1.2967	25.98	-0.00	1.500			
0.7699	49273.73	3.6340	3.6340	1.2894	25.97	-0.01	1.500			
0.7738	49521.03	3.6310	3.6310	1.2835	25.97	-0.01	1.500			
0.7776	49765.74	3.6280	3.6280	1.2794	25.96	-0.02	1.500			
0.7814	50011.01	3.6250	3.6250	1.2767	25.96	-0.02	1.500			
0.7852	50254.35	3.6220	3.6220	1.2705	25.95	-0.03	1.500			
0.7891	50499.78	3.6190	3.6190	1.2671	25.95	-0.03	1.500			
0.7929	50743.92	3.6160	3.6160	1.2673	25.95	-0.03	1.500			
0.7966	50985.37	3.6130	3.6130	1.2601	25.94	-0.04	1.500			
0.8005	51228.89	3.6100	3.6100	1.2527	25.94	-0.04	1.500			
0.8042	51469.17	3.6070	3.6070	1.2386	25.94	-0.04	1.500			
0.8079	51707.34	3.6040	3.6040	1.2219	25.94	-0.04	1.500			
0.8116	51940.82	3.6010	3.6011	1.2015	25.94	-0.04	1.500			
0.8152	52170.88	3.5980	3.5980	1.1796	25.93	-0.05	1.500			
0.8186	52392.04	3.5950	3.5950	1.1563	25.93	-0.05	1.500			
0.8221	52611.64	3.5920	3.5920	1.1372	25.93	-0.05	1.500			
0.8255	52829.37	3.5890	3.5890	1.1173	25.93	-0.05	1.500			
0.8288	53043.17	3.5860	3.5859	1.0899	25.93	-0.05	1.500			
0.8322	53258.65	3.5830	3.5830	1.0454	25.94	-0.04	1.500			
0.8353	53458.82	3.5800	3.5800	0.9771	25.95	-0.03	1.500			
0.8383	53648.24	3.5770	3.5770	0.8942	25.95	-0.03	1.500			
0.8408	53812.06	3.5740	3.5741	0.7850	25.96	-0.02	1.500			
0.8430	53951.48	3.5710	3.5710	0.6751	25.96	-0.02	1.500			
0.8448	54067.20	3.5680	3.5680	0.5639	25.96	-0.02	1.500			
0.8462	54158.82	3.5650	3.5651	0.4646	25.97	-0.01	1.500			
0.8474	54235.87	3.5620	3.5619	0.3931	25.97	-0.01	1.500			
0.8484	54299.03	3.5590	3.5590	0.3297	25.97	-0.01	1.500			
0.8493	54354.13	3.5560	3.5560	0.2850	25.97	-0.01	1.500			
0.8500	54402.70	3.5530	3.5530	0.2465	25.98	-0.00	1.500			
0.8507	54445.24	3.5500	3.5500	0.2205	25.98	-0.00	1.500			
0.8513	54483.34	3.5470	3.5470	0.1979	25.98	-0.00	1.500			
0.8519	54518.77	3.5440	3.5440	0.1791	25.98	-0.00	1.500			
0.8524	54551.65	3.5410	3.5409	0.1634	25.98	0.00	1.500			
0.8528	54581.04	3.5380	3.5381	0.1481	25.98	0.00	1.500			
0.8533	54608.05	3.5350	3.5350	0.1336	25.98	0.00	1.500			
0.8536	54632.27	3.5320	3.5320	0.1195	25.98	0.00	1.500			
0.8540	54653.85	3.5290	3.5290	0.1053	25.98	0.00	1.500			
0.8543	54672.38	3.5260	3.5260	0.0908	25.98	0.00	1.500			
0.8545	54688.60	3.5230	3.5232	0.0771	25.98	0.00	1.500			
0.8547	54702.07	3.5200	3.5203	0.0632	25.98	0.00	1.500			
0.8549	54713.03	3.5170	3.5176	0.0486	25.99	0.01	1.500			
0.8550	54720.96	3.5140	3.5148	0.0341	25.99	0.01	1.500			
