Ah_balance (normalized)	Ah_balance (mAh)	Voltage - fit (V)	Voltage -  interpolate (V)	dQ/dV (1/V)	Temperature (°C)	Temperature - diff (°C)	Current (C)	R_DC 0ms (mOhm)	R_DC 50ms (mOhm)	R_DC 50 ms PEC (mOhm)
0.2723	17425.75	3.9870	3.9870	0.8268	27.17	1.21	1.500			
0.2748	17588.52	3.9840	3.9840	0.8517	27.16	1.20	1.500			
0.2774	17751.54	3.9810	3.9810	0.8526	27.16	1.20	1.500			
0.2799	17915.33	3.9780	3.9780	0.8564	27.16	1.20	1.500			
0.2825	18080.31	3.9750	3.9750	0.8610	27.15	1.19	1.500			
0.2851	18246.29	3.9720	3.9719	0.8643	27.15	1.19	1.500			
0.2877	18411.18	3.9690	3.9690	0.8676	27.14	1.18	1.500			
0.2903	18578.09	3.9660	3.9660	0.8724	27.14	1.18	1.500			
0.2929	18747.60	3.9630	3.9630	0.8745	27.13	1.17	1.500			
0.2956	18916.05	3.9600	3.9600	0.8771	27.13	1.17	1.500			
0.2982	19083.76	3.9570	3.9571	0.8805	27.13	1.17	1.500			
0.3008	19253.45	3.9540	3.9539	0.8825	27.12	1.16	1.500			
0.3035	19423.16	3.9510	3.9510	0.8840	27.12	1.16	1.500			
0.3061	19592.79	3.9480	3.9481	0.8849	27.11	1.15	1.500			
0.3088	19763.18	3.9450	3.9450	0.8879	27.11	1.15	1.500			
0.3115	19934.25	3.9420	3.9420	0.8892	27.10	1.14	1.500			
0.3141	20102.98	3.9390	3.9390	0.8960	27.10	1.14	1.500			
0.3168	20274.87	3.9360	3.9360	0.9057	27.10	1.14	1.500			
0.3195	20450.80	3.9330	3.9329	0.9117	27.09	1.13	1.500			
0.3223	20626.88	3.9300	3.9301	0.9193	27.09	1.13	1.500			
0.3251	20805.39	3.9270	3.9270	0.9245	27.08	1.12	1.500			
0.3279	20983.89	3.9240	3.9240	0.9275	27.08	1.12	1.500			
0.3307	21162.73	3.9210	3.9211	0.9270	27.08	1.12	1.500			
0.3334	21339.03	3.9180	3.9180	0.9299	27.07	1.11	1.500			
0.3362	21518.71	3.9150	3.9150	0.9289	27.07	1.11	1.500			
0.3390	21697.05	3.9120	3.9120	0.9377	27.07	1.11	1.500			
0.3418	21874.99	3.9090	3.9091	0.9503	27.06	1.10	1.500			
0.3447	22058.79	3.9060	3.9059	0.9610	27.06	1.10	1.500			
0.3476	22244.95	3.9030	3.9030	0.9687	27.06	1.10	1.500			
0.3505	22434.21	3.9000	3.9001	0.9753	27.05	1.09	1.500			
0.3535	22621.97	3.8970	3.8970	0.9779	27.04	1.08	1.500			
0.3564	22811.80	3.8940	3.8940	0.9862	27.04	1.08	1.500			
0.3594	22998.52	3.8910	3.8910	0.9856	27.03	1.07	1.500			
0.3623	23186.24	3.8880	3.8880	0.9968	27.03	1.07	1.500			
0.3653	23378.61	3.8850	3.8850	1.0141	27.02	1.06	1.500			
0.3684	23575.26	3.8820	3.8821	1.0274	27.01	1.05	1.500			
0.3715	23775.58	3.8790	3.8790	1.0431	27.01	1.05	1.500			
0.3747	23977.73	3.8760	3.8760	1.0489	27.00	1.04	1.500			
0.3778	24180.03	3.8730	3.8730	1.0563	26.99	1.03	1.500			
0.3810	24383.16	3.8700	3.8700	1.0691	26.98	1.02	1.500			
0.3842	24589.53	3.8670	3.8670	1.0692	26.97	1.01	1.500			
0.3874	24793.57	3.8640	3.8640	1.0840	26.96	1.00	1.500			
0.3907	25003.46	3.8610	3.8610	1.0997	26.95	0.99	1.500			
0.3940	25215.80	3.8580	3.8581	1.1151	26.94	0.98	1.500			
0.3974	25432.08	3.8550	3.8551	1.1327	26.94	0.98	1.500			
0.4008	25650.71	3.8520	3.8520	1.1472	26.93	0.97	1.500			
0.4042	25871.72	3.8490	3.8490	1.1662	26.92	0.96	1.500			
0.4078	26100.72	3.8460	3.8460	1.1812	26.92	0.96	1.500			
0.4114	26326.83	3.8430	3.8430	1.1951	26.91	0.95	1.500			
0.4149	26556.75	3.8400	3.8400	1.2173	26.90	0.94	1.500			
0.4186	26791.15	3.8370	3.8371	1.2383	26.89	0.93	1.500			
0.4223	27029.95	3.8340	3.8340	1.2665	26.89	0.93	1.500			
0.4262	27275.27	3.8310	3.8310	1.2932	26.87	0.91	1.500			
0.4301	27527.75	3.8280	3.8280	1.3149	26.86	0.90	1.500			
0.4342	27786.32	3.8250	3.8250	1.3428	26.85	0.89	1.500			
0.4382	28046.18	3.8220	3.8220	1.3604	26.84	0.88	1.500			
0.4423	28306.31	3.8190	3.8190	1.3850	26.83	0.87	1.500			
0.4465	28573.15	3.8160	3.8160	1.4060	26.82	0.86	1.500			
0.4507	28844.91	3.8130	3.8129	1.4277	26.81	0.85	1.500			
0.4550	29122.38	3.8100	3.8100	1.4526	26.79	0.83	1.500			
0.4594	29403.65	3.8070	3.8071	1.4826	26.78	0.82	1.500			
0.4639	29688.29	3.8040	3.8040	1.5233	26.77	0.81	1.500			
0.4685	29982.60	3.8010	3.8010	1.5661	26.76	0.80	1.500			
0.4732	30286.10	3.7980	3.7980	1.5956	26.74	0.78	1.500			
0.4781	30600.92	3.7950	3.7951	1.6331	26.73	0.77	1.500			
0.4831	30916.86	3.7920	3.7920	1.6599	26.72	0.76	1.500			
0.4881	31236.83	3.7890	3.7890	1.6875	26.70	0.74	1.500			
0.4932	31562.14	3.7860	3.7860	1.7182	26.69	0.73	1.500			
0.4983	31893.25	3.7830	3.7830	1.7333	26.67	0.71	1.500			
0.5036	32230.50	3.7800	3.7801	1.7694	26.65	0.69	1.500			
0.5090	32574.55	3.7770	3.7770	1.7934	26.64	0.68	1.500			
0.5144	32919.83	3.7740	3.7739	1.8235	26.62	0.66	1.500			
0.5199	33273.34	3.7710	3.7710	1.8378	26.60	0.64	1.500	0.348	0.458	
0.5255	33633.46	3.7680	3.7680	1.8626	26.58	0.62	1.500			
0.5312	33994.53	3.7650	3.7650	1.8539	26.57	0.61	1.500			
0.5367	34348.17	3.7620	3.7620	1.8416	26.55	0.59	1.500			
0.5422	34698.24	3.7590	3.7590	1.8307	26.53	0.57	1.500			
0.5476	35048.92	3.7560	3.7560	1.8342	26.51	0.55	1.500			
0.5531	35401.37	3.7530	3.7530	1.8392	26.50	0.54	1.500			
0.5587	35755.41	3.7500	3.7500	1.8494	26.48	0.52	1.500			
0.5642	36107.82	3.7470	3.7470	1.8729	26.46	0.50	1.500			
0.5699	36470.97	3.7440	3.7440	1.8983	26.44	0.48	1.500			
0.5756	36837.49	3.7410	3.7409	1.9167	26.43	0.47	1.500			
0.5814	37209.46	3.7380	3.7381	1.9235	26.41	0.45	1.500			
0.5872	37581.20	3.7350	3.7350	1.9591	26.40	0.44	1.500			
0.5931	37957.93	3.7320	3.7319	1.9870	26.39	0.43	1.500			
0.5990	38338.26	3.7290	3.7290	2.0344	26.37	0.41	1.500			
0.6052	38734.85	3.7260	3.7260	2.0821	26.36	0.40	1.500			
0.6116	39143.88	3.7230	3.7230	2.1543	26.34	0.38	1.500			
0.6181	39559.26	3.7200	3.7200	2.2020	26.33	0.37	1.500			
0.6248	39989.51	3.7170	3.7170	2.2666	26.31	0.35	1.500			
0.6317	40430.16	3.7140	3.7140	2.3372	26.29	0.33	1.500			
0.6388	40884.70	3.7110	3.7110	2.3963	26.28	0.32	1.500			
0.6462	41354.52	3.7080	3.7081	2.4672	26.26	0.30	1.500			
0.6538	41841.08	3.7050	3.7050	2.4964	26.24	0.28	1.500			
0.6612	42317.97	3.7020	3.7020	2.4441	26.22	0.26	1.500			
0.6686	42790.07	3.6990	3.6989	2.3980	26.20	0.24	1.500			
0.6757	43242.28	3.6960	3.6960	2.2709	26.19	0.23	1.500			
0.6823	43669.53	3.6930	3.6930	2.1300	26.18	0.22	1.500			
0.6885	44062.83	3.6900	3.6900	1.9717	26.16	0.20	1.500			
0.6941	44419.74	3.6870	3.6869	1.8154	26.15	0.19	1.500			
0.6992	44746.62	3.6840	3.6841	1.6706	26.14	0.18	1.500			
0.7040	45055.56	3.6810	3.6810	1.5781	26.13	0.17	1.500			
0.7086	45347.87	3.6780	3.6780	1.4988	26.12	0.16	1.500			
0.7128	45619.64	3.6750	3.6750	1.4201	26.12	0.16	1.500			
0.7170	45885.05	3.6720	3.6720	1.3729	26.11	0.15	1.500			
0.7210	46142.33	3.6690	3.6690	1.3300	26.10	0.14	1.500			
0.7249	46392.39	3.6660	3.6660	1.2937	26.09	0.13	1.500			
0.7287	46635.61	3.6630	3.6630	1.2710	26.09	0.13	1.500			
0.7325	46877.29	3.6600	3.6600	1.2482	26.08	0.12	1.500			
0.7361	47109.86	3.6570	3.6570	1.2389	26.08	0.12	1.500			
0.7398	47344.14	3.6540	3.6540	1.2504	26.07	0.11	1.500			
0.7435	47581.80	3.6510	3.6510	1.2575	26.06	0.10	1.500			
0.7473	47826.38	3.6480	3.6480	1.2760	26.06	0.10	1.500			
0.7512	48074.14	3.6450	3.6450	1.2944	26.05	0.09	1.500			
0.7551	48327.99	3.6420	3.6421	1.2991	26.04	0.08	1.500			
0.7591	48582.08	3.6390	3.6389	1.3088	26.03	0.07	1.500			
0.7630	48831.23	3.6360	3.6361	1.3007	26.02	0.06	1.500			
0.7669	49080.21	3.6330	3.6331	1.2971	26.01	0.05	1.500			
0.7708	49328.48	3.6300	3.6299	1.2990	26.00	0.04	1.500			
0.7746	49577.43	3.6270	3.6270	1.2969	25.99	0.03	1.500			
0.7785	49825.41	3.6240	3.6240	1.2951	25.99	0.03	1.500			
0.7824	50076.45	3.6210	3.6210	1.2930	25.98	0.02	1.500			
0.7863	50323.85	3.6180	3.6180	1.2894	25.97	0.01	1.500			
0.7902	50571.83	3.6150	3.6150	1.2878	25.97	0.01	1.500			
0.7941	50819.88	3.6120	3.6120	1.2760	25.96	0.00	1.500			
0.7979	51063.76	3.6090	3.6090	1.2657	25.96	-0.00	1.500			
0.8017	51307.26	3.6060	3.6060	1.2550	25.95	-0.01	1.500			
0.8054	51546.84	3.6030	3.6030	1.2419	25.94	-0.02	1.500			
0.8091	51785.35	3.6000	3.6000	1.2195	25.94	-0.02	1.500			
0.8128	52016.72	3.5970	3.5971	1.2020	25.93	-0.03	1.500			
0.8163	52246.05	3.5940	3.5940	1.1856	25.93	-0.03	1.500			
0.8199	52473.26	3.5910	3.5910	1.1676	25.92	-0.04	1.500			
0.8234	52694.94	3.5880	3.5880	1.1426	25.92	-0.04	1.500			
0.8268	52915.35	3.5850	3.5850	1.1104	25.93	-0.03	1.500			
0.8302	53131.57	3.5820	3.5820	1.0678	25.94	-0.02	1.500			
0.8335	53341.90	3.5790	3.5789	0.9980	25.94	-0.02	1.500			
0.8364	53529.00	3.5760	3.5761	0.9001	25.95	-0.01	1.500			
0.8390	53697.03	3.5730	3.5731	0.7951	25.95	-0.01	1.500			
0.8412	53837.11	3.5700	3.5700	0.6767	25.95	-0.01	1.500			
0.8430	53951.19	3.5670	3.5670	0.5589	25.96	-0.00	1.500			
0.8444	54042.38	3.5640	3.5639	0.4656	25.96	-0.00	1.500			
0.8456	54117.10	3.5610	3.5610	0.3856	25.96	0.00	1.500			
0.8466	54181.12	3.5580	3.5580	0.3304	25.96	0.00	1.500			
0.8474	54236.17	3.5550	3.5550	0.2840	25.96	0.00	1.500			
0.8482	54286.09	3.5520	3.5519	0.2478	25.96	0.00	1.500			
0.8489	54329.09	3.5490	3.5490	0.2216	25.97	0.01	1.500			
0.8495	54366.79	3.5460	3.5461	0.1988	25.97	0.01	1.500			
0.8500	54402.27	3.5430	3.5430	0.1810	25.97	0.01	1.500			
0.8505	54434.92	3.5400	3.5400	0.1639	25.97	0.01	1.500			
0.8510	54464.40	3.5370	3.5369	0.1489	25.97	0.01	1.500			
0.8514	54491.35	3.5340	3.5341	0.1343	25.97	0.01	1.500			
0.8518	54516.04	3.5310	3.5310	0.1205	25.97	0.01	1.500			
0.8522	54537.81	3.5280	3.5280	0.1062	25.97	0.01	1.500			
0.8525	54556.85	3.5250	3.5251	0.0920	25.97	0.01	1.500			
0.8527	54573.15	3.5220	3.5221	0.0777	25.97	0.01	1.500			
0.8529	54586.70	3.5190	3.5192	0.0634	25.97	0.01	1.500			
0.8531	54597.73	3.5160	3.5164	0.0482	25.97	0.01	1.500			
0.8532	54605.55	3.5130	3.5138	0.0332	25.97	0.01	1.500			
