Ah_balance (normalized)	Ah_balance (mAh)	Voltage - fit (V)	Voltage -  interpolate (V)	dQ/dV (1/V)	Temperature (°C)	Temperature - diff (°C)	Current (C)	R_DC 0ms (mOhm)	R_DC 50ms (mOhm)	R_DC 50 ms PEC (mOhm)
0.2059	13177.05	3.9140	3.9137	-0.0987	25.88	0.00	-1.500			
0.2062	13199.25	3.9110	3.9109	-0.1325	25.88	0.00	-1.500			
0.2067	13229.10	3.9080	3.9080	-0.1652	25.88	0.00	-1.500			
0.2072	13263.21	3.9050	3.9049	-0.1952	25.88	0.00	-1.500			
0.2079	13303.77	3.9020	3.9021	-0.2249	25.88	0.00	-1.500			
0.2086	13350.31	3.8990	3.8991	-0.2524	25.88	0.00	-1.500			
0.2094	13401.85	3.8960	3.8960	-0.2817	25.88	0.00	-1.500			
0.2103	13459.02	3.8930	3.8931	-0.3080	25.88	0.00	-1.500			
0.2113	13520.89	3.8900	3.8901	-0.3332	25.88	0.00	-1.500			
0.2123	13587.36	3.8870	3.8869	-0.3616	25.88	0.00	-1.500			
0.2134	13658.55	3.8840	3.8840	-0.3887	25.88	0.00	-1.500			
0.2146	13735.75	3.8810	3.8810	-0.4152	25.88	0.00	-1.500			
0.2159	13818.13	3.8780	3.8780	-0.4431	25.88	0.00	-1.500			
0.2173	13906.40	3.8750	3.8750	-0.4697	25.88	0.00	-1.500			
0.2187	14000.00	3.8720	3.8720	-0.4961	25.88	0.00	-1.500			
0.2203	14098.23	3.8690	3.8690	-0.5200	25.88	0.00	-1.500			
0.2219	14199.81	3.8660	3.8660	-0.5416	25.88	0.00	-1.500			
0.2235	14306.54	3.8630	3.8630	-0.5634	25.88	0.00	-1.500			
0.2253	14417.40	3.8600	3.8600	-0.5841	25.88	0.00	-1.500			
0.2271	14531.72	3.8570	3.8570	-0.6002	25.88	0.00	-1.500			
0.2289	14648.92	3.8540	3.8540	-0.6169	25.88	0.00	-1.500			
0.2308	14769.61	3.8510	3.8510	-0.6315	25.88	0.00	-1.500			
0.2327	14892.76	3.8480	3.8480	-0.6448	25.88	0.00	-1.500			
0.2347	15017.67	3.8450	3.8450	-0.6561	25.88	0.00	-1.500			
0.2367	15145.62	3.8420	3.8420	-0.6650	25.88	0.00	-1.500			
0.2387	15274.19	3.8390	3.8391	-0.6734	25.88	0.00	-1.500			
0.2407	15404.94	3.8360	3.8360	-0.6822	25.88	0.00	-1.500			
0.2428	15536.28	3.8330	3.8330	-0.6864	25.88	0.00	-1.500			
0.2448	15669.24	3.8300	3.8300	-0.6909	25.88	0.00	-1.500			
0.2469	15801.72	3.8270	3.8271	-0.6956	25.88	0.00	-1.500			
0.2490	15936.04	3.8240	3.8240	-0.7016	25.88	0.00	-1.500			
0.2511	16071.40	3.8210	3.8210	-0.7071	25.88	0.00	-1.500			
0.2532	16207.16	3.8180	3.8180	-0.7113	25.88	0.00	-1.500			
0.2554	16344.31	3.8150	3.8150	-0.7173	25.89	0.01	-1.500			
0.2576	16485.00	3.8120	3.8119	-0.7192	25.89	0.01	-1.500			
0.2597	16623.30	3.8090	3.8090	-0.7184	25.89	0.01	-1.500			
0.2619	16760.56	3.8060	3.8060	-0.7176	25.89	0.01	-1.500			
0.2640	16897.87	3.8030	3.8030	-0.7193	25.89	0.01	-1.500			
0.2662	17035.85	3.8000	3.7999	-0.7185	25.89	0.01	-1.500			
0.2683	17173.50	3.7970	3.7970	-0.7203	25.90	0.02	-1.500			
0.2705	17312.25	3.7940	3.7941	-0.7235	25.90	0.02	-1.500			
0.2727	17452.48	3.7910	3.7910	-0.7275	25.90	0.02	-1.500			
0.2749	17592.27	3.7880	3.7880	-0.7278	25.90	0.02	-1.500			
0.2771	17731.44	3.7850	3.7850	-0.7260	25.91	0.03	-1.500			
0.2792	17871.20	3.7820	3.7820	-0.7258	25.91	0.03	-1.500			
0.2814	18011.14	3.7790	3.7790	-0.7262	25.91	0.03	-1.500			
0.2836	18149.07	3.7760	3.7760	-0.7269	25.92	0.04	-1.500			
0.2858	18289.05	3.7730	3.7730	-0.7258	25.92	0.04	-1.500			
0.2879	18428.08	3.7700	3.7700	-0.7274	25.92	0.04	-1.500			
0.2901	18568.27	3.7670	3.7670	-0.7289	25.93	0.05	-1.500			
0.2923	18709.05	3.7640	3.7640	-0.7291	25.93	0.05	-1.500			
0.2945	18849.58	3.7610	3.7609	-0.7289	25.94	0.06	-1.500			
0.2967	18988.89	3.7580	3.7580	-0.7290	25.94	0.06	-1.500			
0.2989	19127.58	3.7550	3.7551	-0.7274	25.94	0.06	-1.500			
0.3011	19268.66	3.7520	3.7519	-0.7303	25.95	0.07	-1.500			
0.3033	19408.17	3.7490	3.7490	-0.7293	25.95	0.07	-1.500			
0.3055	19549.11	3.7460	3.7460	-0.7281	25.96	0.08	-1.500			
0.3076	19688.55	3.7430	3.7431	-0.7291	25.96	0.08	-1.500			
0.3098	19828.02	3.7400	3.7400	-0.7319	25.97	0.09	-1.500			
0.3120	19967.95	3.7370	3.7369	-0.7354	25.97	0.09	-1.500			
0.3142	20108.79	3.7340	3.7340	-0.7401	25.98	0.10	-1.500			
0.3164	20251.80	3.7310	3.7310	-0.7453	25.99	0.11	-1.500			
0.3187	20396.75	3.7280	3.7280	-0.7461	25.99	0.11	-1.500			
0.3210	20540.99	3.7250	3.7250	-0.7475	26.00	0.12	-1.500			
0.3232	20683.18	3.7220	3.7221	-0.7496	26.00	0.12	-1.500			
0.3254	20826.83	3.7190	3.7189	-0.7542	26.00	0.12	-1.500			
0.3277	20970.97	3.7160	3.7160	-0.7566	26.01	0.13	-1.500			
0.3299	21116.56	3.7130	3.7130	-0.7639	26.01	0.13	-1.500			
0.3322	21263.98	3.7100	3.7101	-0.7761	26.02	0.14	-1.500			
0.3346	21414.91	3.7070	3.7068	-0.7832	26.02	0.14	-1.500			
0.3370	21565.86	3.7040	3.7040	-0.7891	26.02	0.14	-1.500			
0.3393	21717.64	3.7010	3.7011	-0.7969	26.03	0.15	-1.500			
0.3417	21871.26	3.6980	3.6980	-0.8065	26.03	0.15	-1.500			
0.3442	22027.37	3.6950	3.6950	-0.8160	26.03	0.15	-1.500			
0.3466	22183.02	3.6920	3.6919	-0.8260	26.04	0.16	-1.500			
0.3491	22342.52	3.6890	3.6889	-0.8353	26.04	0.16	-1.500			
0.3516	22504.75	3.6860	3.6860	-0.8507	26.04	0.16	-1.500			
0.3542	22668.94	3.6830	3.6830	-0.8613	26.05	0.17	-1.500			
0.3568	22835.36	3.6800	3.6800	-0.8749	26.05	0.17	-1.500			
0.3594	23004.70	3.6770	3.6770	-0.8894	26.05	0.17	-1.500			
0.3621	23175.95	3.6740	3.6740	-0.9050	26.05	0.17	-1.500			
0.3649	23351.00	3.6710	3.6710	-0.9214	26.05	0.17	-1.500			
0.3677	23531.38	3.6680	3.6680	-0.9366	26.06	0.18	-1.500			
0.3705	23711.98	3.6650	3.6650	-0.9493	26.06	0.18	-1.500			
0.3734	23895.84	3.6620	3.6621	-0.9663	26.06	0.18	-1.500			
0.3763	24082.18	3.6590	3.6591	-0.9812	26.06	0.18	-1.500			
0.3792	24271.45	3.6560	3.6559	-0.9946	26.07	0.19	-1.500			
0.3822	24463.12	3.6530	3.6530	-1.0124	26.07	0.19	-1.500			
0.3853	24658.11	3.6500	3.6501	-1.0326	26.07	0.19	-1.500			
0.3884	24858.05	3.6470	3.6469	-1.0566	26.07	0.19	-1.500			
0.3916	25063.68	3.6440	3.6440	-1.0767	26.08	0.20	-1.500			
0.3949	25272.44	3.6410	3.6410	-1.0994	26.08	0.20	-1.500			
0.3982	25487.06	3.6380	3.6380	-1.1192	26.08	0.20	-1.500			
0.4016	25705.46	3.6350	3.6350	-1.1346	26.08	0.20	-1.500			
0.4050	25923.03	3.6320	3.6320	-1.1521	26.08	0.20	-1.500			
0.4085	26144.98	3.6290	3.6290	-1.1735	26.08	0.20	-1.500			
0.4120	26370.56	3.6260	3.6260	-1.1949	26.08	0.20	-1.500			
0.4157	26602.34	3.6230	3.6229	-1.2232	26.08	0.20	-1.500			
0.4194	26840.09	3.6200	3.6200	-1.2472	26.08	0.20	-1.500			
0.4232	27083.42	3.6170	3.6170	-1.2720	26.08	0.20	-1.500			
0.4271	27332.18	3.6140	3.6140	-1.2951	26.08	0.20	-1.500			
0.4309	27579.74	3.6110	3.6110	-1.3229	26.08	0.20	-1.500			
0.4349	27834.65	3.6080	3.6080	-1.3461	26.08	0.20	-1.500			
0.4390	28097.89	3.6050	3.6049	-1.3689	26.09	0.21	-1.500			
0.4432	28362.00	3.6020	3.6020	-1.3919	26.09	0.21	-1.500			
0.4474	28633.61	3.5990	3.5991	-1.4188	26.09	0.21	-1.500			
0.4517	28908.00	3.5960	3.5959	-1.4409	26.09	0.21	-1.500			
0.4560	29186.22	3.5930	3.5930	-1.4627	26.09	0.21	-1.500			
0.4604	29468.67	3.5900	3.5900	-1.4918	26.08	0.20	-1.500			
0.4650	29760.19	3.5870	3.5870	-1.5137	26.08	0.20	-1.500			
0.4696	30056.18	3.5840	3.5839	-1.5390	26.08	0.20	-1.500			
0.4743	30352.34	3.5810	3.5811	-1.5530	26.08	0.20	-1.500			
0.4789	30650.51	3.5780	3.5780	-1.5808	26.08	0.20	-1.500			
0.4837	30956.16	3.5750	3.5750	-1.5986	26.08	0.20	-1.500			
0.4885	31262.66	3.5720	3.5720	-1.6085	26.08	0.20	-1.500			
0.4934	31578.54	3.5690	3.5690	-1.6372	26.08	0.20	-1.500			
0.4984	31896.73	3.5660	3.5661	-1.6562	26.08	0.20	-1.500			
0.5034	32214.87	3.5630	3.5630	-1.6622	26.08	0.20	-1.500			
0.5083	32533.85	3.5600	3.5600	-1.6784	26.09	0.21	-1.500			
0.5134	32856.07	3.5570	3.5570	-1.6905	26.09	0.21	-1.500			
0.5185	33182.58	3.5540	3.5540	-1.7187	26.10	0.22	-1.500			
0.5237	33513.84	3.5510	3.5511	-1.7372	26.10	0.22	-1.500			
0.5289	33848.71	3.5480	3.5480	-1.7635	26.10	0.22	-1.500			
0.5342	34189.70	3.5450	3.5450	-1.7902	26.10	0.22	-1.500			
0.5397	34539.95	3.5420	3.5419	-1.7932	26.10	0.22	-1.500			
0.5451	34887.81	3.5390	3.5389	-1.7994	26.10	0.22	-1.500			
0.5506	35235.79	3.5360	3.5360	-1.7985	26.10	0.22	-1.500	0.388	0.518	
0.5559	35577.76	3.5330	3.5330	-1.8019	26.11	0.23	-1.500			
0.5613	35924.59	3.5300	3.5300	-1.8036	26.12	0.24	-1.500			
0.5667	36268.61	3.5270	3.5269	-1.8000	26.13	0.25	-1.500			
0.5721	36616.42	3.5240	3.5241	-1.8075	26.14	0.26	-1.500			
0.5776	36965.26	3.5210	3.5210	-1.8090	26.15	0.27	-1.500			
0.5830	37313.79	3.5180	3.5180	-1.8166	26.15	0.27	-1.500			
0.5885	37662.40	3.5150	3.5149	-1.8078	26.16	0.28	-1.500			
0.5939	38010.07	3.5120	3.5119	-1.8000	26.17	0.29	-1.500			
0.5993	38352.95	3.5090	3.5091	-1.7974	26.17	0.29	-1.500			
0.6046	38696.13	3.5060	3.5060	-1.7982	26.18	0.30	-1.500			
0.6100	39039.83	3.5030	3.5029	-1.7838	26.19	0.31	-1.500			
0.6153	39379.77	3.5000	3.5000	-1.7874	26.21	0.33	-1.500			
0.6208	39731.15	3.4970	3.4970	-1.7989	26.22	0.34	-1.500			
0.6262	40076.79	3.4940	3.4939	-1.7929	26.23	0.35	-1.500			
0.6316	40420.26	3.4910	3.4910	-1.7753	26.24	0.36	-1.500			
0.6369	40759.72	3.4880	3.4880	-1.7578	26.25	0.37	-1.500			
0.6421	41094.99	3.4850	3.4850	-1.7536	26.26	0.38	-1.500			
0.6473	41429.14	3.4820	3.4820	-1.7430	26.27	0.39	-1.500			
0.6525	41760.01	3.4790	3.4790	-1.7337	26.28	0.40	-1.500			
0.6577	42093.77	3.4760	3.4759	-1.7310	26.29	0.41	-1.500			
0.6630	42429.46	3.4730	3.4730	-1.7089	26.31	0.43	-1.500			
0.6681	42757.61	3.4700	3.4700	-1.6934	26.32	0.44	-1.500			
0.6732	43084.47	3.4670	3.4672	-1.6648	26.33	0.45	-1.500			
0.6781	43400.09	3.4640	3.4639	-1.6312	26.35	0.47	-1.500			
0.6829	43706.53	3.4610	3.4610	-1.6119	26.36	0.48	-1.500			
0.6877	44013.09	3.4580	3.4580	-1.5905	26.37	0.49	-1.500			
0.6925	44318.23	3.4550	3.4549	-1.5686	26.39	0.51	-1.500			
0.6972	44618.11	3.4520	3.4522	-1.5507	26.40	0.52	-1.500			
0.7017	44911.77	3.4490	3.4490	-1.5273	26.42	0.54	-1.500			
0.7063	45203.80	3.4460	3.4460	-1.5179	26.44	0.56	-1.500			
0.7108	45491.84	3.4430	3.4430	-1.4909	26.46	0.58	-1.500			
0.7152	45775.62	3.4400	3.4400	-1.4698	26.48	0.60	-1.500			
0.7197	46060.35	3.4370	3.4370	-1.4553	26.49	0.61	-1.500			
0.7240	46338.13	3.4340	3.4340	-1.4329	26.50	0.62	-1.500			
0.7282	46607.35	3.4310	3.4310	-1.4194	26.52	0.64	-1.500			
0.7325	46877.57	3.4280	3.4280	-1.4109	26.53	0.65	-1.500			
0.7366	47145.07	3.4250	3.4249	-1.3964	26.55	0.67	-1.500			
0.7409	47414.53	3.4220	3.4219	-1.3957	26.57	0.69	-1.500			
0.7451	47684.22	3.4190	3.4192	-1.3864	26.59	0.71	-1.500			
0.7492	47951.05	3.4160	3.4160	-1.3689	26.61	0.73	-1.500			
0.7533	48213.90	3.4130	3.4129	-1.3530	26.63	0.75	-1.500			
0.7574	48471.86	3.4100	3.4100	-1.3202	26.65	0.77	-1.500			
0.7613	48723.78	3.4070	3.4069	-1.2959	26.67	0.79	-1.500			
0.7652	48971.85	3.4040	3.4039	-1.2585	26.69	0.81	-1.500			
0.7689	49210.95	3.4010	3.4010	-1.2154	26.71	0.83	-1.500			
0.7725	49439.52	3.3980	3.3983	-1.1766	26.72	0.84	-1.500			
0.7760	49661.83	3.3950	3.3949	-1.1345	26.74	0.86	-1.500			
0.7793	49874.12	3.3920	3.3920	-1.0835	26.75	0.87	-1.500			
0.7825	50078.39	3.3890	3.3889	-1.0475	26.77	0.89	-1.500			
0.7856	50275.60	3.3860	3.3862	-1.0114	26.79	0.91	-1.500			
0.7885	50465.30	3.3830	3.3829	-0.9737	26.80	0.92	-1.500			
0.7914	50648.16	3.3800	3.3799	-0.9345	26.82	0.94	-1.500			
0.7941	50822.60	3.3770	3.3770	-0.8946	26.83	0.95	-1.500			
0.7967	50991.57	3.3740	3.3739	-0.8608	26.84	0.96	-1.500			
0.7993	51152.72	3.3710	3.3711	-0.8313	26.85	0.97	-1.500			
0.8017	51307.14	3.3680	3.3679	-0.7959	26.86	0.98	-1.500			
0.8040	51457.01	3.3650	3.3650	-0.7678	26.87	0.99	-1.500			
0.8063	51601.95	3.3620	3.3620	-0.7411	26.88	1.00	-1.500			
0.8085	51741.47	3.3590	3.3591	-0.7170	26.89	1.01	-1.500			
0.8106	51876.49	3.3560	3.3560	-0.6922	26.90	1.02	-1.500			
0.8126	52006.73	3.3530	3.3530	-0.6680	26.91	1.03	-1.500			
0.8146	52131.28	3.3500	3.3500	-0.6445	26.92	1.04	-1.500			
0.8165	52253.45	3.3470	3.3470	-0.6250	26.93	1.05	-1.500			
0.8183	52371.56	3.3440	3.3441	-0.6042	26.94	1.06	-1.500			
0.8201	52485.25	3.3410	3.3409	-0.5851	26.95	1.07	-1.500			
0.8218	52595.48	3.3380	3.3381	-0.5663	26.96	1.08	-1.500			
0.8235	52701.49	3.3350	3.3350	-0.5505	26.96	1.08	-1.500			
0.8251	52806.51	3.3320	3.3319	-0.5341	26.97	1.09	-1.500			
0.8267	52906.56	3.3290	3.3290	-0.5159	26.98	1.10	-1.500			
0.8282	53004.20	3.3260	3.3260	-0.5000	26.99	1.11	-1.500			
0.8297	53098.43	3.3230	3.3230	-0.4841	26.99	1.11	-1.500			
0.8311	53188.98	3.3200	3.3200	-0.4694	27.00	1.12	-1.500			
0.8325	53277.43	3.3170	3.3170	-0.4575	27.00	1.12	-1.500			
0.8338	53363.23	3.3140	3.3140	-0.4438	27.01	1.13	-1.500			
0.8351	53448.23	3.3110	3.3110	-0.4349	27.02	1.14	-1.500			
0.8364	53530.64	3.3080	3.3080	-0.4230	27.02	1.14	-1.500			
0.8377	53610.93	3.3050	3.3049	-0.4134	27.03	1.15	-1.500			
0.8389	53689.38	3.3020	3.3020	-0.4017	27.03	1.15	-1.500			
0.8401	53765.93	3.2990	3.2990	-0.3877	27.04	1.16	-1.500			
0.8412	53838.82	3.2960	3.2960	-0.3769	27.04	1.16	-1.500			
0.8423	53910.17	3.2930	3.2931	-0.3661	27.05	1.17	-1.500			
0.8434	53978.15	3.2900	3.2900	-0.3552	27.05	1.17	-1.500			
0.8445	54045.15	3.2870	3.2870	-0.3463	27.06	1.18	-1.500			
0.8455	54110.47	3.2840	3.2841	-0.3362	27.06	1.18	-1.500			
0.8465	54174.76	3.2810	3.2809	-0.3281	27.07	1.19	-1.500			
0.8475	54237.87	3.2780	3.2781	-0.3207	27.07	1.19	-1.500			
0.8484	54297.70	3.2750	3.2750	-0.3109	27.08	1.20	-1.500			
0.8493	54356.48	3.2720	3.2720	-0.3030	27.08	1.20	-1.500			
0.8502	54413.78	3.2690	3.2690	-0.2956	27.09	1.21	-1.500			
0.8511	54469.30	3.2660	3.2661	-0.2880	27.09	1.21	-1.500			
0.8519	54524.43	3.2630	3.2630	-0.2826	27.10	1.22	-1.500			
0.8528	54577.83	3.2600	3.2600	-0.2761	27.10	1.22	-1.500			
0.8536	54629.95	3.2570	3.2570	-0.2701	27.11	1.23	-1.500			
0.8544	54681.10	3.2540	3.2540	-0.2650	27.11	1.23	-1.500			
0.8552	54731.52	3.2510	3.2510	-0.2601	27.12	1.24	-1.500			
0.8560	54781.01	3.2480	3.2480	-0.2555	27.12	1.24	-1.500			
0.8567	54829.92	3.2450	3.2450	-0.2496	27.13	1.25	-1.500			
0.8575	54877.22	3.2420	3.2421	-0.2445	27.13	1.25	-1.500			
0.8582	54923.67	3.2390	3.2390	-0.2390	27.14	1.26	-1.500			
0.8589	54969.03	3.2360	3.2361	-0.2335	27.14	1.26	-1.500			
0.8596	55012.95	3.2330	3.2329	-0.2304	27.15	1.27	-1.500			
0.8603	55056.30	3.2300	3.2301	-0.2262	27.15	1.27	-1.500			
0.8609	55099.78	3.2270	3.2269	-0.2222	27.16	1.28	-1.500			
0.8616	55142.00	3.2240	3.2241	-0.2192	27.16	1.28	-1.500			
0.8623	55184.23	3.2210	3.2210	-0.2165	27.17	1.29	-1.500			
0.8629	55225.35	3.2180	3.2181	-0.2124	27.17	1.29	-1.500			
0.8635	55265.78	3.2150	3.2149	-0.2090	27.17	1.29	-1.500			
0.8641	55304.96	3.2120	3.2121	-0.2047	27.18	1.30	-1.500			
0.8648	55344.04	3.2090	3.2090	-0.2024	27.19	1.31	-1.500			
0.8654	55382.79	3.2060	3.2060	-0.1995	27.19	1.31	-1.500			
0.8660	55421.00	3.2030	3.2030	-0.1972	27.20	1.32	-1.500			
0.8665	55458.12	3.2000	3.2002	-0.1940	27.20	1.32	-1.500			
0.8671	55495.17	3.1970	3.1970	-0.1920	27.20	1.32	-1.500			
0.8677	55531.98	3.1940	3.1938	-0.1898	27.21	1.33	-1.500			
0.8683	55568.24	3.1910	3.1910	-0.1870	27.21	1.33	-1.500			
0.8688	55603.77	3.1880	3.1881	-0.1847	27.22	1.34	-1.500			
0.8694	55639.03	3.1850	3.1850	-0.1825	27.22	1.34	-1.500			
0.8699	55673.93	3.1820	3.1820	-0.1807	27.23	1.35	-1.500			
0.8704	55708.31	3.1790	3.1789	-0.1784	27.23	1.35	-1.500			
0.8710	55742.19	3.1760	3.1759	-0.1764	27.24	1.36	-1.500			
0.8715	55775.92	3.1730	3.1731	-0.1749	27.24	1.36	-1.500			
0.8720	55809.48	3.1700	3.1700	-0.1729	27.25	1.37	-1.500			
0.8725	55842.42	3.1670	3.1670	-0.1719	27.25	1.37	-1.500			
0.8731	55875.25	3.1640	3.1640	-0.1698	27.26	1.38	-1.500			
0.8736	55907.70	3.1610	3.1611	-0.1682	27.26	1.38	-1.500			
0.8741	55939.88	3.1580	3.1579	-0.1664	27.27	1.39	-1.500			
0.8746	55971.72	3.1550	3.1550	-0.1651	27.27	1.39	-1.500			
0.8750	56003.19	3.1520	3.1521	-0.1633	27.28	1.40	-1.500			
0.8755	56034.35	3.1490	3.1489	-0.1620	27.28	1.40	-1.500			
0.8760	56065.37	3.1460	3.1460	-0.1608	27.29	1.41	-1.500			
0.8765	56095.83	3.1430	3.1430	-0.1589	27.29	1.41	-1.500			
0.8770	56126.25	3.1400	3.1400	-0.1580	27.30	1.42	-1.500			
0.8774	56156.77	3.1370	3.1370	-0.1564	27.30	1.42	-1.500			
0.8779	56186.64	3.1340	3.1340	-0.1551	27.31	1.43	-1.500			
0.8784	56216.08	3.1310	3.1310	-0.1539	27.31	1.43	-1.500			
0.8788	56245.53	3.1280	3.1280	-0.1529	27.32	1.44	-1.500			
0.8793	56274.60	3.1250	3.1249	-0.1523	27.32	1.44	-1.500			
0.8797	56303.88	3.1220	3.1220	-0.1509	27.33	1.45	-1.500			
0.8802	56332.84	3.1190	3.1191	-0.1501	27.33	1.45	-1.500			
0.8806	56361.55	3.1160	3.1160	-0.1490	27.33	1.45	-1.500			
0.8811	56390.30	3.1130	3.1130	-0.1478	27.34	1.46	-1.500			
0.8815	56418.37	3.1100	3.1099	-0.1467	27.34	1.46	-1.500			
0.8820	56446.26	3.1070	3.1069	-0.1454	27.35	1.47	-1.500			
0.8824	56474.11	3.1040	3.1040	-0.1447	27.35	1.47	-1.500			
0.8828	56501.79	3.1010	3.1010	-0.1432	27.36	1.48	-1.500			
0.8833	56529.28	3.0980	3.0980	-0.1429	27.36	1.48	-1.500			
0.8837	56556.60	3.0950	3.0951	-0.1416	27.37	1.49	-1.500			
0.8841	56583.69	3.0920	3.0919	-0.1406	27.37	1.49	-1.500			
0.8845	56610.62	3.0890	3.0889	-0.1398	27.38	1.50	-1.500			
0.8850	56637.15	3.0860	3.0860	-0.1389	27.38	1.50	-1.500			
0.8854	56663.83	3.0830	3.0831	-0.1383	27.39	1.51	-1.500			
0.8858	56690.33	3.0800	3.0800	-0.1377	27.39	1.51	-1.500			
0.8862	56716.95	3.0770	3.0770	-0.1366	27.39	1.51	-1.500			
0.8866	56742.96	3.0740	3.0740	-0.1353	27.40	1.52	-1.500			
0.8870	56768.93	3.0710	3.0710	-0.1346	27.40	1.52	-1.500			
0.8874	56794.66	3.0680	3.0680	-0.1333	27.41	1.53	-1.500			
0.8878	56819.84	3.0650	3.0650	-0.1330	27.41	1.53	-1.500			
0.8882	56845.09	3.0620	3.0620	-0.1324	27.42	1.54	-1.500			
0.8886	56870.41	3.0590	3.0590	-0.1324	27.42	1.54	-1.500			
0.8890	56895.95	3.0560	3.0559	-0.1324	27.43	1.55	-1.500			
0.8894	56921.70	3.0530	3.0530	-0.1318	27.43	1.55	-1.500			
0.8898	56947.35	3.0500	3.0500	-0.1307	27.43	1.55	-1.500			
0.8902	56972.58	3.0470	3.0470	-0.1296	27.44	1.56	-1.500			
0.8906	56996.98	3.0440	3.0440	-0.1282	27.44	1.56	-1.500			
0.8910	57021.07	3.0410	3.0411	-0.1269	27.45	1.57	-1.500			
0.8913	57045.17	3.0380	3.0380	-0.1258	27.45	1.57	-1.500			
0.8917	57069.26	3.0350	3.0349	-0.1255	27.45	1.57	-1.500			
0.8921	57093.20	3.0320	3.0320	-0.1248	27.46	1.58	-1.500			
0.8925	57117.17	3.0290	3.0290	-0.1247	27.46	1.58	-1.500			
0.8928	57141.15	3.0260	3.0261	-0.1242	27.47	1.59	-1.500			
0.8932	57165.31	3.0230	3.0231	-0.1239	27.47	1.59	-1.500			
0.8936	57188.96	3.0200	3.0198	-0.1226	27.48	1.60	-1.500			
0.8939	57212.48	3.0170	3.0170	-0.1218	27.48	1.60	-1.500			
0.8943	57235.71	3.0140	3.0141	-0.1208	27.48	1.60	-1.500			
0.8947	57258.83	3.0110	3.0109	-0.1199	27.49	1.61	-1.500			
0.8950	57281.75	3.0080	3.0079	-0.1189	27.49	1.61	-1.500			
0.8954	57304.46	3.0050	3.0050	-0.1179	27.49	1.61	-1.500			
0.8957	57327.02	3.0020	3.0020	-0.1186	27.50	1.62	-1.501			
