Ah_balance (normalized)	Ah_balance (mAh)	Voltage - fit (V)	Voltage -  interpolate (V)	dQ/dV (1/V)	Temperature (°C)	Temperature - diff (°C)	Current (C)	R_DC 0ms (mOhm)	R_DC 50ms (mOhm)	R_DC 50 ms PEC (mOhm)
0.2686	17193.09	3.9900	3.9900	0.8755	27.38	1.44	1.500			
0.2712	17359.19	3.9870	3.9870	0.8587	27.38	1.44	1.500			
0.2738	17521.84	3.9840	3.9841	0.8497	27.37	1.43	1.500			
0.2763	17684.48	3.9810	3.9810	0.8472	27.37	1.43	1.500			
0.2788	17844.38	3.9780	3.9780	0.8505	27.36	1.42	1.500			
0.2814	18008.57	3.9750	3.9750	0.8550	27.36	1.42	1.500			
0.2840	18173.30	3.9720	3.9720	0.8607	27.35	1.41	1.500			
0.2866	18339.75	3.9690	3.9690	0.8653	27.35	1.41	1.500			
0.2892	18507.60	3.9660	3.9661	0.8684	27.34	1.40	1.500			
0.2918	18674.75	3.9630	3.9630	0.8699	27.34	1.40	1.500			
0.2944	18840.94	3.9600	3.9600	0.8715	27.33	1.39	1.500			
0.2970	19007.25	3.9570	3.9570	0.8714	27.33	1.39	1.500			
0.2996	19175.16	3.9540	3.9540	0.8754	27.32	1.38	1.500			
0.3022	19342.35	3.9510	3.9510	0.8795	27.32	1.38	1.500			
0.3049	19512.57	3.9480	3.9481	0.8854	27.31	1.37	1.500			
0.3076	19683.52	3.9450	3.9450	0.8886	27.31	1.37	1.500			
0.3102	19854.28	3.9420	3.9420	0.8948	27.30	1.36	1.500			
0.3129	20027.23	3.9390	3.9390	0.8972	27.29	1.35	1.500			
0.3156	20198.61	3.9360	3.9360	0.9051	27.29	1.35	1.500			
0.3183	20372.63	3.9330	3.9331	0.9127	27.28	1.34	1.500			
0.3211	20548.37	3.9300	3.9300	0.9178	27.28	1.34	1.500			
0.3239	20726.80	3.9270	3.9270	0.9217	27.27	1.33	1.500			
0.3266	20904.60	3.9240	3.9240	0.9276	27.27	1.33	1.500			
0.3294	21082.40	3.9210	3.9211	0.9303	27.26	1.32	1.500			
0.3322	21261.93	3.9180	3.9179	0.9363	27.26	1.32	1.500			
0.3350	21440.17	3.9150	3.9148	0.9405	27.25	1.31	1.500			
0.3378	21620.95	3.9120	3.9121	0.9471	27.24	1.30	1.500			
0.3407	21804.15	3.9090	3.9089	0.9548	27.23	1.29	1.500			
0.3436	21989.74	3.9060	3.9060	0.9652	27.22	1.28	1.500			
0.3465	22174.71	3.9030	3.9031	0.9712	27.21	1.27	1.500			
0.3494	22363.87	3.9000	3.8999	0.9707	27.20	1.26	1.500			
0.3523	22548.99	3.8970	3.8970	0.9787	27.19	1.25	1.500			
0.3552	22735.26	3.8940	3.8941	0.9852	27.19	1.25	1.500			
0.3582	22925.09	3.8910	3.8911	0.9947	27.18	1.24	1.500			
0.3612	23117.22	3.8880	3.8879	1.0048	27.17	1.23	1.500			
0.3642	23310.65	3.8850	3.8850	1.0150	27.16	1.22	1.500			
0.3673	23506.41	3.8820	3.8820	1.0291	27.15	1.21	1.500			
0.3704	23707.00	3.8790	3.8790	1.0416	27.14	1.20	1.500			
0.3736	23908.45	3.8760	3.8760	1.0431	27.13	1.19	1.500			
0.3767	24108.10	3.8730	3.8731	1.0566	27.12	1.18	1.500			
0.3799	24312.73	3.8700	3.8700	1.0680	27.11	1.17	1.500			
0.3831	24517.75	3.8670	3.8670	1.0800	27.11	1.17	1.500			
0.3863	24725.10	3.8640	3.8640	1.0932	27.10	1.16	1.500			
0.3896	24936.71	3.8610	3.8611	1.1040	27.08	1.14	1.500			
0.3930	25150.96	3.8580	3.8580	1.1217	27.07	1.13	1.500			
0.3964	25368.34	3.8550	3.8550	1.1383	27.06	1.12	1.500			
0.3998	25587.04	3.8520	3.8520	1.1510	27.05	1.11	1.500			
0.4033	25810.22	3.8490	3.8489	1.1705	27.03	1.09	1.500			
0.4068	26035.76	3.8460	3.8461	1.1874	27.02	1.08	1.500			
0.4104	26264.88	3.8430	3.8429	1.2067	27.01	1.07	1.500			
0.4140	26499.14	3.8400	3.8400	1.2284	27.00	1.06	1.500			
0.4178	26736.28	3.8370	3.8370	1.2422	26.99	1.05	1.500			
0.4215	26978.69	3.8340	3.8340	1.2524	26.97	1.03	1.500			
0.4253	27219.55	3.8310	3.8310	1.2773	26.96	1.02	1.500			
0.4291	27465.06	3.8280	3.8280	1.3012	26.95	1.01	1.500			
0.4331	27715.93	3.8250	3.8250	1.3213	26.94	1.00	1.500			
0.4371	27971.48	3.8220	3.8220	1.3497	26.92	0.98	1.500			
0.4412	28233.86	3.8190	3.8191	1.3777	26.91	0.97	1.500			
0.4454	28503.15	3.8160	3.8160	1.4045	26.89	0.95	1.500			
0.4497	28777.90	3.8130	3.8130	1.4318	26.88	0.94	1.500			
0.4539	29051.44	3.8100	3.8100	1.4445	26.86	0.92	1.500			
0.4583	29330.95	3.8070	3.8070	1.4689	26.85	0.91	1.500			
0.4627	29614.08	3.8040	3.8040	1.4991	26.83	0.89	1.500			
0.4672	29903.73	3.8010	3.8010	1.5273	26.82	0.88	1.500			
0.4719	30201.36	3.7980	3.7980	1.5514	26.80	0.86	1.500			
0.4766	30502.28	3.7950	3.7950	1.5786	26.79	0.85	1.500			
0.4814	30807.99	3.7920	3.7920	1.6100	26.77	0.83	1.500			
0.4862	31119.78	3.7890	3.7889	1.6326	26.76	0.82	1.500			
0.4912	31433.69	3.7860	3.7860	1.6655	26.74	0.80	1.500			
0.4962	31757.48	3.7830	3.7830	1.7017	26.72	0.78	1.500			
0.5014	32088.84	3.7800	3.7799	1.7338	26.70	0.76	1.500			
0.5067	32425.86	3.7770	3.7771	1.7498	26.68	0.74	1.500	0.342	0.468	
0.5119	32764.27	3.7740	3.7740	1.7668	26.66	0.72	1.500			
0.5173	33106.04	3.7710	3.7710	1.7667	26.65	0.71	1.500			
0.5226	33445.16	3.7680	3.7680	1.7738	26.64	0.70	1.500			
0.5279	33784.89	3.7650	3.7649	1.7665	26.62	0.68	1.500			
0.5331	34120.14	3.7620	3.7620	1.7649	26.61	0.67	1.500			
0.5384	34459.57	3.7590	3.7590	1.7719	26.59	0.65	1.500			
0.5438	34800.77	3.7560	3.7560	1.7910	26.57	0.63	1.500			
0.5491	35141.24	3.7530	3.7530	1.7946	26.56	0.62	1.500			
0.5545	35487.53	3.7500	3.7501	1.8194	26.54	0.60	1.500			
0.5600	35839.97	3.7470	3.7468	1.8394	26.52	0.58	1.500			
0.5656	36196.23	3.7440	3.7440	1.8558	26.50	0.56	1.500			
0.5712	36554.60	3.7410	3.7410	1.8621	26.49	0.55	1.500			
0.5767	36910.53	3.7380	3.7381	1.8955	26.47	0.53	1.500			
0.5825	37278.38	3.7350	3.7349	1.9363	26.46	0.52	1.500			
0.5883	37653.30	3.7320	3.7321	1.9998	26.44	0.50	1.500			
0.5945	38047.31	3.7290	3.7290	2.0347	26.42	0.48	1.500			
0.6007	38442.27	3.7260	3.7260	2.0994	26.40	0.46	1.500			
0.6070	38847.63	3.7230	3.7231	2.1824	26.38	0.44	1.500			
0.6137	39277.34	3.7200	3.7200	2.2300	26.36	0.42	1.500			
0.6205	39711.95	3.7170	3.7171	2.2904	26.34	0.40	1.500			
0.6275	40161.70	3.7140	3.7139	2.3283	26.32	0.38	1.500			
0.6344	40603.11	3.7110	3.7109	2.3743	26.30	0.36	1.500			
0.6417	41068.28	3.7080	3.7080	2.4082	26.28	0.34	1.500			
0.6490	41537.83	3.7050	3.7050	2.3471	26.27	0.33	1.500			
0.6560	41986.80	3.7020	3.7020	2.2793	26.25	0.31	1.500			
0.6627	42414.12	3.6990	3.6990	2.1563	26.23	0.29	1.500			
0.6691	42821.83	3.6960	3.6960	2.0416	26.21	0.27	1.500			
0.6750	43197.11	3.6930	3.6931	1.8975	26.19	0.25	1.500			
0.6803	43539.07	3.6900	3.6901	1.7498	26.18	0.24	1.500			
0.6854	43864.69	3.6870	3.6868	1.6479	26.16	0.22	1.500			
0.6901	44165.32	3.6840	3.6840	1.5515	26.15	0.21	1.500			
0.6946	44455.18	3.6810	3.6810	1.4799	26.14	0.20	1.500			
0.6989	44729.54	3.6780	3.6780	1.4207	26.13	0.19	1.500			
0.7030	44992.74	3.6750	3.6750	1.3633	26.12	0.18	1.500			
0.7070	45246.72	3.6720	3.6721	1.3290	26.11	0.17	1.500			
0.7109	45495.18	3.6690	3.6689	1.2979	26.10	0.16	1.500			
0.7147	45741.19	3.6660	3.6660	1.2844	26.09	0.15	1.500			
0.7185	45983.06	3.6630	3.6630	1.2733	26.08	0.14	1.500			
0.7223	46226.83	3.6600	3.6600	1.2739	26.08	0.14	1.500			
0.7261	46470.57	3.6570	3.6570	1.2753	26.07	0.13	1.500			
0.7299	46715.29	3.6540	3.6540	1.2825	26.06	0.12	1.500			
0.7338	46962.35	3.6510	3.6510	1.2896	26.05	0.11	1.500			
0.7377	47213.80	3.6480	3.6480	1.2888	26.04	0.10	1.500			
0.7416	47461.87	3.6450	3.6450	1.2846	26.03	0.09	1.500			
0.7454	47707.36	3.6420	3.6420	1.2797	26.03	0.09	1.500			
0.7493	47952.42	3.6390	3.6390	1.2738	26.02	0.08	1.500			
0.7530	48194.95	3.6360	3.6360	1.2702	26.01	0.07	1.500			
0.7568	48438.16	3.6330	3.6330	1.2631	26.00	0.06	1.500			
0.7607	48681.76	3.6300	3.6300	1.2598	25.99	0.05	1.500			
0.7645	48925.16	3.6270	3.6270	1.2549	25.98	0.04	1.500			
0.7682	49164.85	3.6240	3.6240	1.2461	25.97	0.03	1.500			
0.7719	49402.81	3.6210	3.6210	1.2370	25.97	0.03	1.500			
0.7756	49639.12	3.6180	3.6180	1.2261	25.96	0.02	1.500			
0.7793	49874.12	3.6150	3.6150	1.2127	25.95	0.01	1.500			
0.7829	50107.64	3.6120	3.6120	1.2050	25.94	0.00	1.500			
0.7865	50338.23	3.6090	3.6090	1.1814	25.94	0.00	1.500			
0.7901	50564.26	3.6060	3.6060	1.1606	25.94	0.00	1.500			
0.7935	50784.00	3.6030	3.6030	1.1380	25.94	0.00	1.500			
0.7969	50999.40	3.6000	3.5999	1.1177	25.94	0.00	1.500			
0.8002	51211.93	3.5970	3.5970	1.0929	25.94	0.00	1.500			
0.8034	51420.33	3.5940	3.5940	1.0693	25.94	0.00	1.500			
0.8066	51624.24	3.5910	3.5910	1.0437	25.94	0.00	1.500			
0.8098	51826.89	3.5880	3.5878	1.0007	25.94	0.00	1.500			
0.8128	52018.86	3.5850	3.5850	0.9471	25.94	0.00	1.500			
0.8156	52199.32	3.5820	3.5820	0.8628	25.94	0.00	1.500			
0.8182	52363.06	3.5790	3.5790	0.7740	25.94	0.00	1.500			
0.8204	52502.42	3.5760	3.5761	0.6704	25.94	0.00	1.500			
0.8222	52620.01	3.5730	3.5730	0.5690	25.94	0.00	1.500			
0.8236	52712.93	3.5700	3.5700	0.4784	25.94	0.00	1.500			
0.8249	52792.34	3.5670	3.5670	0.4076	25.94	0.00	1.500			
0.8259	52859.78	3.5640	3.5640	0.3385	25.94	0.00	1.500			
0.8268	52917.73	3.5610	3.5609	0.2970	25.94	0.00	1.500			
0.8276	52966.82	3.5580	3.5580	0.2595	25.94	0.00	1.500			
0.8283	53011.70	3.5550	3.5549	0.2326	25.94	0.00	1.500			
0.8289	53052.17	3.5520	3.5519	0.2080	25.94	0.00	1.500			
0.8295	53089.76	3.5490	3.5491	0.1904	25.94	0.00	1.500			
0.8301	53123.85	3.5460	3.5460	0.1738	25.94	0.00	1.500			
0.8306	53155.41	3.5430	3.5430	0.1580	25.94	0.00	1.500			
0.8310	53184.13	3.5400	3.5399	0.1446	25.94	0.00	1.500			
0.8314	53209.95	3.5370	3.5370	0.1304	25.94	0.00	1.500			
0.8318	53234.10	3.5340	3.5340	0.1170	25.94	0.00	1.500			
0.8321	53255.38	3.5310	3.5310	0.1037	25.94	0.00	1.500			
0.8324	53273.96	3.5280	3.5280	0.0899	25.94	0.00	1.500			
0.8327	53290.05	3.5250	3.5252	0.0761	25.94	0.00	1.500			
0.8329	53303.73	3.5220	3.5223	0.0619	25.94	0.00	1.500			
0.8330	53314.20	3.5190	3.5195	0.0471	25.94	0.00	1.500			
0.8332	53321.83	3.5160	3.5170	0.0323	25.94	0.00	1.500			
