Ah_balance (normalized)	Ah_balance (mAh)	Voltage - fit (V)	Voltage -  interpolate (V)	dQ/dV (1/V)	Temperature (°C)	Temperature - diff (°C)	Current (C)	R_DC 0ms (mOhm)	R_DC 50ms (mOhm)	R_DC 50 ms PEC (mOhm)
0.1978	12657.19	3.9270	3.9268	-0.0850	25.66	-0.04	-1.500			
0.1981	12676.69	3.9240	3.9237	-0.1126	25.66	-0.04	-1.500			
0.1984	12700.62	3.9210	3.9210	-0.1367	25.66	-0.04	-1.500			
0.1989	12729.40	3.9180	3.9180	-0.1598	25.66	-0.04	-1.500			
0.1994	12762.42	3.9150	3.9151	-0.1823	25.66	-0.04	-1.500			
0.2000	12800.44	3.9120	3.9120	-0.2046	25.66	-0.04	-1.500			
0.2007	12841.72	3.9090	3.9090	-0.2256	25.67	-0.03	-1.500			
0.2014	12887.26	3.9060	3.9060	-0.2457	25.67	-0.03	-1.500			
0.2021	12936.96	3.9030	3.9030	-0.2636	25.67	-0.03	-1.500			
0.2030	12989.79	3.9000	3.9000	-0.2817	25.67	-0.03	-1.500			
0.2038	13045.20	3.8970	3.8970	-0.3009	25.67	-0.03	-1.500			
0.2048	13104.51	3.8940	3.8940	-0.3201	25.67	-0.03	-1.500			
0.2057	13167.74	3.8910	3.8909	-0.3368	25.67	-0.03	-1.500			
0.2068	13233.64	3.8880	3.8881	-0.3562	25.68	-0.02	-1.500			
0.2079	13304.13	3.8850	3.8851	-0.3754	25.68	-0.02	-1.500			
0.2090	13378.30	3.8820	3.8819	-0.3943	25.68	-0.02	-1.500			
0.2103	13456.36	3.8790	3.8790	-0.4098	25.68	-0.02	-1.500			
0.2115	13536.32	3.8760	3.8760	-0.4247	25.68	-0.02	-1.500			
0.2128	13619.97	3.8730	3.8731	-0.4399	25.68	-0.02	-1.500			
0.2142	13706.52	3.8700	3.8699	-0.4533	25.69	-0.01	-1.500			
0.2155	13793.82	3.8670	3.8670	-0.4656	25.69	-0.01	-1.500			
0.2169	13884.46	3.8640	3.8640	-0.4812	25.69	-0.01	-1.500			
0.2184	13978.72	3.8610	3.8610	-0.4913	25.69	-0.01	-1.500			
0.2199	14074.58	3.8580	3.8580	-0.5035	25.70	-0.00	-1.500			
0.2214	14172.15	3.8550	3.8551	-0.5128	25.70	-0.00	-1.500			
0.2230	14271.78	3.8520	3.8519	-0.5225	25.70	0.00	-1.500			
0.2246	14373.50	3.8490	3.8490	-0.5289	25.70	0.00	-1.500			
0.2262	14475.31	3.8460	3.8459	-0.5345	25.71	0.01	-1.500			
0.2278	14578.41	3.8430	3.8431	-0.5408	25.71	0.01	-1.500			
0.2294	14683.80	3.8400	3.8399	-0.5482	25.71	0.01	-1.500			
0.2311	14788.91	3.8370	3.8370	-0.5521	25.71	0.01	-1.500			
0.2327	14895.76	3.8340	3.8340	-0.5577	25.72	0.02	-1.500			
0.2344	15002.54	3.8310	3.8310	-0.5648	25.72	0.02	-1.500			
0.2361	15112.16	3.8280	3.8279	-0.5719	25.72	0.02	-1.500			
0.2379	15222.61	3.8250	3.8250	-0.5748	25.73	0.03	-1.500			
0.2396	15333.57	3.8220	3.8220	-0.5793	25.73	0.03	-1.500			
0.2413	15445.44	3.8190	3.8190	-0.5853	25.73	0.03	-1.500			
0.2431	15558.69	3.8160	3.8159	-0.5879	25.73	0.03	-1.500			
0.2449	15671.56	3.8130	3.8130	-0.5903	25.74	0.04	-1.500			
0.2466	15784.94	3.8100	3.8100	-0.5915	25.74	0.04	-1.500			
0.2484	15898.89	3.8070	3.8070	-0.5964	25.74	0.04	-1.500			
0.2502	16013.81	3.8040	3.8040	-0.6002	25.75	0.05	-1.500			
0.2520	16128.93	3.8010	3.8010	-0.6011	25.75	0.05	-1.500			
0.2538	16244.24	3.7980	3.7980	-0.6047	25.75	0.05	-1.500			
0.2557	16361.65	3.7950	3.7950	-0.6103	25.76	0.06	-1.500			
0.2575	16479.01	3.7920	3.7920	-0.6128	25.76	0.06	-1.500			
0.2593	16597.41	3.7890	3.7890	-0.6154	25.76	0.06	-1.500			
0.2612	16715.26	3.7860	3.7861	-0.6168	25.77	0.07	-1.500			
0.2630	16833.73	3.7830	3.7830	-0.6193	25.77	0.07	-1.500			
0.2649	16953.29	3.7800	3.7800	-0.6211	25.78	0.08	-1.500			
0.2667	17071.42	3.7770	3.7770	-0.6235	25.78	0.08	-1.500			
0.2686	17190.64	3.7740	3.7740	-0.6294	25.78	0.08	-1.500			
0.2705	17312.36	3.7710	3.7711	-0.6349	25.79	0.09	-1.500			
0.2724	17435.19	3.7680	3.7680	-0.6405	25.79	0.09	-1.500			
0.2744	17558.65	3.7650	3.7650	-0.6466	25.80	0.10	-1.500			
0.2763	17683.76	3.7620	3.7622	-0.6532	25.80	0.10	-1.500			
0.2783	17810.86	3.7590	3.7589	-0.6555	25.81	0.11	-1.500			
0.2802	17935.95	3.7560	3.7560	-0.6568	25.81	0.11	-1.500			
0.2822	18062.49	3.7530	3.7530	-0.6610	25.82	0.12	-1.500			
0.2842	18188.68	3.7500	3.7501	-0.6659	25.82	0.12	-1.500			
0.2862	18316.54	3.7470	3.7469	-0.6706	25.83	0.13	-1.500			
0.2882	18445.31	3.7440	3.7440	-0.6736	25.83	0.13	-1.500			
0.2902	18575.24	3.7410	3.7410	-0.6810	25.84	0.14	-1.500			
0.2923	18708.19	3.7380	3.7381	-0.6881	25.85	0.15	-1.500			
0.2944	18840.12	3.7350	3.7350	-0.6896	25.85	0.15	-1.500			
0.2964	18972.48	3.7320	3.7320	-0.6948	25.86	0.16	-1.500			
0.2985	19106.34	3.7290	3.7290	-0.6999	25.86	0.16	-1.500			
0.3006	19240.55	3.7260	3.7260	-0.7063	25.87	0.17	-1.500			
0.3028	19377.00	3.7230	3.7230	-0.7132	25.87	0.17	-1.500			
0.3049	19514.56	3.7200	3.7200	-0.7183	25.88	0.18	-1.500			
0.3071	19653.35	3.7170	3.7171	-0.7269	25.88	0.18	-1.500			
0.3093	19793.76	3.7140	3.7140	-0.7328	25.89	0.19	-1.500			
0.3115	19935.13	3.7110	3.7110	-0.7363	25.89	0.19	-1.500			
0.3137	20076.56	3.7080	3.7080	-0.7447	25.90	0.20	-1.500			
0.3159	20220.00	3.7050	3.7051	-0.7506	25.90	0.20	-1.500			
0.3182	20364.87	3.7020	3.7019	-0.7583	25.91	0.21	-1.500			
0.3205	20511.40	3.6990	3.6990	-0.7638	25.92	0.22	-1.500			
0.3228	20658.40	3.6960	3.6961	-0.7681	25.92	0.22	-1.500			
0.3251	20806.81	3.6930	3.6930	-0.7757	25.93	0.23	-1.500			
0.3274	20956.64	3.6900	3.6900	-0.7834	25.93	0.23	-1.500			
0.3298	21106.96	3.6870	3.6869	-0.7873	25.94	0.24	-1.500			
0.3322	21258.74	3.6840	3.6840	-0.7963	25.94	0.24	-1.500			
0.3346	21412.10	3.6810	3.6810	-0.8037	25.95	0.25	-1.500			
0.3370	21567.46	3.6780	3.6780	-0.8165	25.96	0.26	-1.500			
0.3395	21725.12	3.6750	3.6750	-0.8268	25.96	0.26	-1.500			
0.3420	21885.02	3.6720	3.6720	-0.8330	25.97	0.27	-1.500			
0.3445	22046.57	3.6690	3.6690	-0.8391	25.97	0.27	-1.500			
0.3470	22209.54	3.6660	3.6661	-0.8461	25.98	0.28	-1.500			
0.3496	22371.88	3.6630	3.6630	-0.8518	25.99	0.29	-1.500			
0.3521	22536.10	3.6600	3.6600	-0.8547	25.99	0.29	-1.500			
0.3547	22698.94	3.6570	3.6570	-0.8611	26.00	0.30	-1.500			
0.3573	22864.59	3.6540	3.6541	-0.8692	26.00	0.30	-1.500			
0.3599	23032.19	3.6510	3.6510	-0.8816	26.01	0.31	-1.500			
0.3625	23201.58	3.6480	3.6479	-0.8924	26.02	0.32	-1.500			
0.3652	23374.25	3.6450	3.6450	-0.9003	26.02	0.32	-1.500			
0.3680	23548.84	3.6420	3.6419	-0.9071	26.03	0.33	-1.500			
0.3707	23725.15	3.6390	3.6391	-0.9217	26.04	0.34	-1.500			
0.3735	23902.59	3.6360	3.6360	-0.9287	26.04	0.34	-1.500			
0.3763	24080.94	3.6330	3.6330	-0.9398	26.05	0.35	-1.500			
0.3791	24261.88	3.6300	3.6300	-0.9504	26.05	0.35	-1.500			
0.3820	24444.95	3.6270	3.6270	-0.9621	26.06	0.36	-1.500			
0.3849	24631.41	3.6240	3.6240	-0.9767	26.06	0.36	-1.500			
0.3878	24821.68	3.6210	3.6210	-0.9872	26.07	0.37	-1.500			
0.3908	25011.42	3.6180	3.6180	-0.9908	26.07	0.37	-1.500			
0.3938	25202.18	3.6150	3.6150	-1.0054	26.07	0.37	-1.500			
0.3968	25395.80	3.6120	3.6121	-1.0140	26.08	0.38	-1.500			
0.3999	25591.30	3.6090	3.6089	-1.0231	26.09	0.39	-1.500			
0.4029	25787.55	3.6060	3.6060	-1.0387	26.09	0.39	-1.500			
0.4061	25988.04	3.6030	3.6031	-1.0509	26.10	0.40	-1.500			
0.4092	26191.91	3.6000	3.6000	-1.0678	26.11	0.41	-1.500			
0.4125	26399.63	3.5970	3.5970	-1.0841	26.12	0.42	-1.500			
0.4158	26608.27	3.5940	3.5940	-1.0950	26.12	0.42	-1.500			
0.4191	26821.30	3.5910	3.5910	-1.1090	26.13	0.43	-1.500			
0.4224	27035.38	3.5880	3.5881	-1.1187	26.14	0.44	-1.500			
0.4258	27249.16	3.5850	3.5850	-1.1308	26.15	0.45	-1.500			
0.4292	27467.86	3.5820	3.5821	-1.1503	26.15	0.45	-1.500			
0.4326	27688.70	3.5790	3.5790	-1.1643	26.16	0.46	-1.500			
0.4362	27914.86	3.5760	3.5759	-1.1867	26.16	0.46	-1.500			
0.4398	28144.58	3.5730	3.5731	-1.2055	26.17	0.47	-1.500			
0.4434	28379.30	3.5700	3.5700	-1.2230	26.17	0.47	-1.500			
0.4471	28616.33	3.5670	3.5670	-1.2326	26.18	0.48	-1.500			
0.4508	28852.03	3.5640	3.5640	-1.2449	26.19	0.49	-1.500			
0.4546	29092.12	3.5610	3.5610	-1.2634	26.20	0.50	-1.500			
0.4583	29333.60	3.5580	3.5580	-1.2917	26.21	0.51	-1.500			
0.4623	29585.37	3.5550	3.5549	-1.3077	26.22	0.52	-1.500			
0.4662	29839.94	3.5520	3.5520	-1.3278	26.23	0.53	-1.500			
0.4703	30098.20	3.5490	3.5491	-1.3442	26.24	0.54	-1.500			
0.4744	30359.99	3.5460	3.5459	-1.3637	26.24	0.54	-1.500			
0.4785	30621.72	3.5430	3.5430	-1.3781	26.25	0.55	-1.500			
0.4826	30884.45	3.5400	3.5400	-1.3948	26.26	0.56	-1.500			
0.4868	31154.68	3.5370	3.5370	-1.4053	26.27	0.57	-1.500			
0.4911	31428.31	3.5340	3.5340	-1.4313	26.28	0.58	-1.500			
0.4953	31701.86	3.5310	3.5311	-1.4559	26.29	0.59	-1.500			
0.4998	31986.14	3.5280	3.5280	-1.4686	26.30	0.60	-1.500			
0.5042	32270.58	3.5250	3.5249	-1.4797	26.31	0.61	-1.500			
0.5087	32557.79	3.5220	3.5218	-1.4932	26.32	0.62	-1.500			
0.5132	32846.41	3.5190	3.5193	-1.5033	26.33	0.63	-1.500	0.376	0.559	
0.5178	33137.26	3.5160	3.5159	-1.5121	26.35	0.65	-1.500			
0.5223	33426.29	3.5130	3.5132	-1.5139	26.36	0.66	-1.500			
0.5268	33713.03	3.5100	3.5100	-1.5169	26.37	0.67	-1.500			
0.5314	34008.44	3.5070	3.5070	-1.5486	26.38	0.68	-1.500			
0.5361	34307.94	3.5040	3.5040	-1.5548	26.39	0.69	-1.500			
0.5408	34609.96	3.5010	3.5009	-1.5749	26.40	0.70	-1.500			
0.5455	34912.98	3.4980	3.4980	-1.5778	26.42	0.72	-1.500			
0.5503	35218.68	3.4950	3.4950	-1.5845	26.43	0.73	-1.500			
0.5551	35524.74	3.4920	3.4920	-1.5827	26.44	0.74	-1.500			
0.5598	35825.37	3.4890	3.4891	-1.5787	26.45	0.75	-1.500			
0.5645	36128.39	3.4860	3.4860	-1.5770	26.46	0.76	-1.500			
0.5693	36432.40	3.4830	3.4829	-1.5830	26.47	0.77	-1.500			
0.5740	36736.36	3.4800	3.4801	-1.5727	26.49	0.79	-1.500			
0.5787	37038.18	3.4770	3.4770	-1.5754	26.50	0.80	-1.500			
0.5834	37340.71	3.4740	3.4740	-1.5705	26.52	0.82	-1.500			
0.5882	37643.22	3.4710	3.4709	-1.5571	26.53	0.83	-1.500			
0.5928	37941.55	3.4680	3.4680	-1.5389	26.55	0.85	-1.500			
0.5974	38236.10	3.4650	3.4651	-1.5314	26.56	0.86	-1.500			
0.6020	38527.62	3.4620	3.4620	-1.5162	26.58	0.88	-1.500			
0.6065	38815.71	3.4590	3.4590	-1.5103	26.59	0.89	-1.500			
0.6111	39107.97	3.4560	3.4559	-1.4857	26.60	0.90	-1.500			
0.6155	39393.81	3.4530	3.4530	-1.4722	26.62	0.92	-1.500			
0.6199	39675.80	3.4500	3.4500	-1.4549	26.63	0.93	-1.500			
0.6243	39953.26	3.4470	3.4469	-1.4342	26.65	0.95	-1.500			
0.6285	40223.09	3.4440	3.4439	-1.4118	26.67	0.97	-1.500			
0.6326	40488.66	3.4410	3.4411	-1.3980	26.68	0.98	-1.500			
0.6368	40755.96	3.4380	3.4380	-1.3810	26.70	1.00	-1.500			
0.6410	41025.87	3.4350	3.4349	-1.3767	26.72	1.02	-1.500			
0.6451	41287.96	3.4320	3.4320	-1.3555	26.73	1.03	-1.500			
0.6492	41546.79	3.4290	3.4290	-1.3376	26.75	1.05	-1.500			
0.6532	41801.75	3.4260	3.4260	-1.3219	26.77	1.07	-1.500			
0.6571	42054.10	3.4230	3.4229	-1.3038	26.79	1.09	-1.500			
0.6610	42303.48	3.4200	3.4200	-1.2831	26.80	1.10	-1.500			
0.6648	42549.57	3.4170	3.4170	-1.2612	26.82	1.12	-1.500			
0.6686	42790.39	3.4140	3.4141	-1.2364	26.84	1.14	-1.500			
0.6723	43024.52	3.4110	3.4112	-1.2124	26.85	1.15	-1.500			
0.6758	43253.42	3.4080	3.4079	-1.1844	26.87	1.17	-1.500			
0.6793	43477.06	3.4050	3.4050	-1.1622	26.88	1.18	-1.500			
0.6828	43697.18	3.4020	3.4020	-1.1392	26.90	1.20	-1.500			
0.6862	43917.99	3.3990	3.3990	-1.1211	26.91	1.21	-1.500			
0.6895	44130.51	3.3960	3.3960	-1.0839	26.93	1.23	-1.500			
0.6927	44335.45	3.3930	3.3930	-1.0539	26.94	1.24	-1.500			
0.6958	44533.94	3.3900	3.3899	-1.0217	26.96	1.26	-1.500			
0.6989	44726.53	3.3870	3.3869	-0.9904	26.97	1.27	-1.500			
0.7018	44912.19	3.3840	3.3840	-0.9635	26.98	1.28	-1.500			
0.7046	45094.99	3.3810	3.3810	-0.9405	27.00	1.30	-1.500			
0.7074	45273.20	3.3780	3.3780	-0.9081	27.01	1.31	-1.500			
0.7101	45445.95	3.3750	3.3750	-0.8881	27.02	1.32	-1.500			
0.7127	45612.73	3.3720	3.3721	-0.8610	27.04	1.34	-1.500			
0.7152	45775.73	3.3690	3.3688	-0.8395	27.05	1.35	-1.500			
0.7177	45934.65	3.3660	3.3661	-0.8159	27.06	1.36	-1.500			
0.7201	46088.60	3.3630	3.3631	-0.7941	27.07	1.37	-1.500			
0.7225	46239.87	3.3600	3.3599	-0.7728	27.08	1.38	-1.500			
0.7248	46387.32	3.3570	3.3570	-0.7505	27.09	1.39	-1.500			
0.7270	46527.58	3.3540	3.3540	-0.7231	27.10	1.40	-1.500			
0.7291	46664.09	3.3510	3.3510	-0.7016	27.11	1.41	-1.500			
0.7312	46795.10	3.3480	3.3481	-0.6830	27.12	1.42	-1.500			
0.7332	46924.03	3.3450	3.3450	-0.6684	27.13	1.43	-1.500			
0.7352	47049.74	3.3420	3.3419	-0.6523	27.14	1.44	-1.500			
0.7371	47174.90	3.3390	3.3390	-0.6390	27.15	1.45	-1.500			
0.7390	47297.49	3.3360	3.3360	-0.6236	27.16	1.46	-1.500			
0.7409	47416.19	3.3330	3.3330	-0.6074	27.17	1.47	-1.500			
0.7427	47530.77	3.3300	3.3301	-0.5892	27.18	1.48	-1.500			
0.7444	47641.25	3.3270	3.3269	-0.5715	27.19	1.49	-1.500			
0.7461	47748.25	3.3240	3.3240	-0.5561	27.19	1.49	-1.500			
0.7477	47853.87	3.3210	3.3210	-0.5434	27.20	1.50	-1.500			
0.7493	47956.71	3.3180	3.3179	-0.5297	27.21	1.51	-1.500			
0.7509	48058.07	3.3150	3.3150	-0.5188	27.22	1.52	-1.500			
0.7524	48155.77	3.3120	3.3121	-0.5060	27.23	1.53	-1.500			
0.7539	48251.60	3.3090	3.3090	-0.4961	27.24	1.54	-1.500			
0.7554	48345.94	3.3060	3.3060	-0.4837	27.24	1.54	-1.500			
0.7568	48437.84	3.3030	3.3030	-0.4723	27.25	1.55	-1.500			
0.7582	48527.53	3.3000	3.3000	-0.4630	27.26	1.56	-1.500			
0.7596	48615.42	3.2970	3.2970	-0.4523	27.27	1.57	-1.500			
0.7610	48701.12	3.2940	3.2939	-0.4409	27.27	1.57	-1.500			
0.7623	48784.38	3.2910	3.2910	-0.4302	27.28	1.58	-1.500			
0.7635	48866.11	3.2880	3.2880	-0.4198	27.29	1.59	-1.500			
0.7648	48946.49	3.2850	3.2850	-0.4099	27.29	1.59	-1.500			
0.7660	49023.69	3.2820	3.2820	-0.3998	27.30	1.60	-1.500			
0.7672	49099.02	3.2790	3.2790	-0.3887	27.31	1.61	-1.500			
0.7683	49172.80	3.2760	3.2760	-0.3800	27.31	1.61	-1.500			
0.7694	49244.55	3.2730	3.2730	-0.3707	27.32	1.62	-1.500			
0.7705	49315.02	3.2700	3.2700	-0.3612	27.32	1.62	-1.500			
0.7716	49383.14	3.2670	3.2670	-0.3530	27.33	1.63	-1.500			
0.7727	49449.76	3.2640	3.2640	-0.3462	27.33	1.63	-1.500			
0.7737	49514.89	3.2610	3.2611	-0.3400	27.34	1.64	-1.500			
0.7747	49579.83	3.2580	3.2580	-0.3349	27.35	1.65	-1.500			
0.7757	49643.61	3.2550	3.2550	-0.3295	27.36	1.66	-1.500			
0.7767	49707.02	3.2520	3.2520	-0.3236	27.36	1.66	-1.500			
0.7776	49769.11	3.2490	3.2490	-0.3174	27.37	1.67	-1.500			
0.7786	49828.97	3.2460	3.2460	-0.3095	27.38	1.68	-1.500			
0.7795	49887.29	3.2430	3.2431	-0.3017	27.38	1.68	-1.500			
0.7804	49944.23	3.2400	3.2400	-0.2965	27.39	1.69	-1.500			
0.7813	50000.20	3.2370	3.2370	-0.2916	27.40	1.70	-1.500			
0.7821	50055.65	3.2340	3.2339	-0.2872	27.40	1.70	-1.500			
0.7830	50110.84	3.2310	3.2310	-0.2829	27.41	1.71	-1.500			
0.7838	50164.64	3.2280	3.2281	-0.2780	27.42	1.72	-1.500			
0.7846	50217.32	3.2250	3.2250	-0.2741	27.42	1.72	-1.500			
0.7855	50269.79	3.2220	3.2220	-0.2700	27.43	1.73	-1.500			
0.7863	50320.55	3.2190	3.2190	-0.2641	27.44	1.74	-1.500			
0.7870	50371.01	3.2160	3.2159	-0.2608	27.44	1.74	-1.500			
0.7878	50420.83	3.2130	3.2131	-0.2570	27.45	1.75	-1.500			
0.7886	50469.87	3.2100	3.2100	-0.2536	27.45	1.75	-1.500			
0.7894	50518.44	3.2070	3.2070	-0.2500	27.46	1.76	-1.500			
0.7901	50565.82	3.2040	3.2040	-0.2455	27.46	1.76	-1.500			
0.7908	50612.23	3.2010	3.2010	-0.2422	27.47	1.77	-1.500			
0.7915	50658.56	3.1980	3.1981	-0.2395	27.47	1.77	-1.500			
0.7923	50704.21	3.1950	3.1949	-0.2364	27.48	1.78	-1.500			
0.7930	50749.15	3.1920	3.1919	-0.2335	27.48	1.78	-1.500			
0.7937	50793.77	3.1890	3.1890	-0.2308	27.49	1.79	-1.500			
0.7943	50837.93	3.1860	3.1860	-0.2276	27.49	1.79	-1.500			
0.7950	50881.42	3.1830	3.1830	-0.2241	27.50	1.80	-1.500			
0.7957	50924.35	3.1800	3.1800	-0.2212	27.50	1.80	-1.500			
0.7963	50966.38	3.1770	3.1770	-0.2173	27.50	1.80	-1.500			
0.7970	51007.58	3.1740	3.1738	-0.2147	27.51	1.81	-1.500			
0.7976	51048.40	3.1710	3.1710	-0.2129	27.52	1.82	-1.500			
0.7983	51088.75	3.1680	3.1680	-0.2106	27.52	1.82	-1.500			
0.7989	51128.79	3.1650	3.1650	-0.2089	27.53	1.83	-1.500			
0.7995	51169.15	3.1620	3.1620	-0.2064	27.54	1.84	-1.500			
0.8001	51208.68	3.1590	3.1591	-0.2045	27.54	1.84	-1.500			
0.8007	51247.53	3.1560	3.1561	-0.2027	27.55	1.85	-1.500			
0.8013	51286.24	3.1530	3.1530	-0.2005	27.56	1.86	-1.500			
0.8019	51324.27	3.1500	3.1499	-0.1986	27.56	1.86	-1.500			
0.8025	51362.12	3.1470	3.1470	-0.1964	27.57	1.87	-1.500			
0.8031	51399.91	3.1440	3.1439	-0.1948	27.58	1.88	-1.500			
0.8037	51437.13	3.1410	3.1411	-0.1929	27.58	1.88	-1.500			
0.8043	51474.46	3.1380	3.1380	-0.1909	27.59	1.89	-1.500			
0.8049	51510.83	3.1350	3.1350	-0.1881	27.60	1.90	-1.500			
0.8054	51546.45	3.1320	3.1320	-0.1854	27.60	1.90	-1.500			
0.8060	51581.82	3.1290	3.1291	-0.1831	27.61	1.91	-1.500			
0.8065	51616.48	3.1260	3.1260	-0.1819	27.62	1.92	-1.500			
0.8070	51651.00	3.1230	3.1230	-0.1807	27.62	1.92	-1.500			
0.8076	51685.62	3.1200	3.1199	-0.1796	27.63	1.93	-1.500			
0.8081	51720.05	3.1170	3.1170	-0.1790	27.63	1.93	-1.500			
0.8087	51754.52	3.1140	3.1140	-0.1777	27.64	1.94	-1.500			
0.8092	51788.94	3.1110	3.1110	-0.1763	27.64	1.94	-1.500			
0.8097	51822.55	3.1080	3.1080	-0.1749	27.65	1.95	-1.500			
0.8102	51855.92	3.1050	3.1050	-0.1728	27.66	1.96	-1.500			
0.8108	51888.61	3.1020	3.1020	-0.1714	27.66	1.96	-1.500			
0.8113	51921.05	3.0990	3.0990	-0.1704	27.67	1.97	-1.500			
0.8118	51954.16	3.0960	3.0959	-0.1689	27.67	1.97	-1.500			
0.8123	51986.46	3.0930	3.0930	-0.1675	27.68	1.98	-1.500			
0.8128	52018.64	3.0900	3.0900	-0.1664	27.68	1.98	-1.500			
0.8133	52050.48	3.0870	3.0871	-0.1658	27.69	1.99	-1.500			
0.8138	52082.04	3.0840	3.0840	-0.1639	27.69	1.99	-1.500			
0.8143	52113.38	3.0810	3.0809	-0.1626	27.70	2.00	-1.500			
0.8148	52144.27	3.0780	3.0780	-0.1613	27.70	2.00	-1.500			
0.8152	52175.15	3.0750	3.0750	-0.1597	27.71	2.01	-1.500			
0.8157	52205.99	3.0720	3.0720	-0.1601	27.71	2.01	-1.500			
0.8162	52236.57	3.0690	3.0690	-0.1585	27.72	2.02	-1.500			
0.8167	52266.57	3.0660	3.0660	-0.1573	27.72	2.02	-1.500			
0.8171	52296.62	3.0630	3.0629	-0.1558	27.73	2.03	-1.500			
0.8176	52326.58	3.0600	3.0601	-0.1553	27.74	2.04	-1.500			
0.8181	52356.31	3.0570	3.0570	-0.1543	27.74	2.04	-1.500			
0.8185	52385.79	3.0540	3.0540	-0.1536	27.75	2.05	-1.500			
0.8190	52415.43	3.0510	3.0509	-0.1524	27.75	2.05	-1.500			
0.8194	52444.46	3.0480	3.0480	-0.1506	27.76	2.06	-1.500			
0.8199	52473.25	3.0450	3.0450	-0.1493	27.76	2.06	-1.500			
0.8203	52501.68	3.0420	3.0421	-0.1490	27.77	2.07	-1.500			
0.8208	52530.28	3.0390	3.0389	-0.1483	27.77	2.07	-1.500			
0.8212	52558.42	3.0360	3.0360	-0.1473	27.78	2.08	-1.500			
0.8217	52586.68	3.0330	3.0329	-0.1471	27.78	2.08	-1.500			
0.8221	52614.82	3.0300	3.0301	-0.1463	27.79	2.09	-1.500			
0.8226	52643.32	3.0270	3.0269	-0.1455	27.79	2.09	-1.500			
0.8230	52671.14	3.0240	3.0240	-0.1447	27.80	2.10	-1.500			
0.8234	52698.78	3.0210	3.0210	-0.1432	27.81	2.11	-1.500			
0.8238	52725.91	3.0180	3.0180	-0.1420	27.81	2.11	-1.500			
0.8243	52753.17	3.0150	3.0149	-0.1412	27.82	2.12	-1.500			
0.8247	52779.99	3.0120	3.0120	-0.1400	27.82	2.12	-1.500			
0.8251	52806.81	3.0090	3.0090	-0.1394	27.83	2.13	-1.500			
0.8255	52833.51	3.0060	3.0061	-0.1389	27.83	2.13	-1.500			
0.8259	52860.03	3.0030	3.0029	-0.1353	27.84	2.14	-1.500			
