Ah_balance (normalized)	Ah_balance (mAh)	Voltage - fit (V)	Voltage -  interpolate (V)	dQ/dV (1/V)	Temperature (°C)	Temperature - diff (°C)	Current (C)	R_DC 0ms (mOhm)	R_DC 50ms (mOhm)	R_DC 50 ms PEC (mOhm)
0.2852	18251.40	3.9700	3.9700	0.9279	27.45	1.47	1.500			
0.2880	18428.86	3.9670	3.9671	0.9246	27.45	1.47	1.500			
0.2907	18605.11	3.9640	3.9640	0.9259	27.45	1.47	1.500			
0.2935	18783.57	3.9610	3.9609	0.9271	27.45	1.47	1.500			
0.2963	18960.59	3.9580	3.9580	0.9300	27.45	1.47	1.500			
0.2991	19140.37	3.9550	3.9550	0.9343	27.44	1.46	1.500			
0.3019	19321.44	3.9520	3.9519	0.9298	27.44	1.46	1.500			
0.3047	19498.95	3.9490	3.9490	0.9348	27.44	1.46	1.500			
0.3075	19678.19	3.9460	3.9461	0.9380	27.44	1.46	1.500			
0.3103	19857.05	3.9430	3.9430	0.9439	27.44	1.46	1.500			
0.3131	20040.77	3.9400	3.9400	0.9484	27.44	1.46	1.500			
0.3160	20222.96	3.9370	3.9370	0.9490	27.44	1.46	1.500			
0.3188	20406.09	3.9340	3.9341	0.9562	27.43	1.45	1.500			
0.3217	20591.25	3.9310	3.9310	0.9658	27.43	1.45	1.500			
0.3246	20774.18	3.9280	3.9280	0.9676	27.43	1.45	1.500			
0.3275	20958.07	3.9250	3.9250	0.9799	27.43	1.45	1.500			
0.3304	21147.40	3.9220	3.9220	0.9912	27.42	1.44	1.500			
0.3335	21343.04	3.9190	3.9190	1.0001	27.42	1.44	1.500			
0.3365	21535.42	3.9160	3.9157	1.0044	27.42	1.44	1.500			
0.3395	21727.95	3.9130	3.9132	1.0119	27.42	1.44	1.500			
0.3426	21923.24	3.9100	3.9100	1.0177	27.41	1.43	1.500			
0.3456	22117.75	3.9070	3.9069	1.0247	27.41	1.43	1.500			
0.3487	22314.54	3.9040	3.9040	1.0341	27.41	1.43	1.500			
0.3518	22513.41	3.9010	3.9011	1.0488	27.40	1.42	1.500			
0.3549	22716.06	3.8980	3.8980	1.0634	27.40	1.42	1.500			
0.3582	22921.78	3.8950	3.8950	1.0695	27.39	1.41	1.500			
0.3614	23128.33	3.8920	3.8918	1.0796	27.39	1.41	1.500			
0.3646	23337.26	3.8890	3.8891	1.0903	27.39	1.41	1.500			
0.3679	23546.90	3.8860	3.8859	1.0990	27.38	1.40	1.500			
0.3712	23757.72	3.8830	3.8830	1.1139	27.37	1.39	1.500			
0.3746	23972.84	3.8800	3.8799	1.1257	27.37	1.39	1.500			
0.3780	24189.55	3.8770	3.8770	1.1382	27.36	1.38	1.500			
0.3814	24409.86	3.8740	3.8741	1.1590	27.36	1.38	1.500			
0.3849	24633.73	3.8710	3.8710	1.1757	27.35	1.37	1.500			
0.3884	24860.79	3.8680	3.8680	1.1955	27.35	1.37	1.500			
0.3921	25091.90	3.8650	3.8649	1.2109	27.34	1.36	1.500			
0.3957	25325.19	3.8620	3.8621	1.2315	27.33	1.35	1.500			
0.3995	25565.68	3.8590	3.8590	1.2503	27.32	1.34	1.500			
0.4032	25806.36	3.8560	3.8560	1.2687	27.31	1.33	1.500			
0.4070	26049.78	3.8530	3.8530	1.2878	27.30	1.32	1.500			
0.4109	26300.05	3.8500	3.8499	1.3098	27.29	1.31	1.500			
0.4149	26551.33	3.8470	3.8470	1.3373	27.28	1.30	1.500			
0.4189	26811.35	3.8440	3.8441	1.3677	27.28	1.30	1.500			
0.4231	27077.19	3.8410	3.8410	1.3934	27.27	1.29	1.500			
0.4273	27349.48	3.8380	3.8379	1.4210	27.26	1.28	1.500			
0.4316	27621.39	3.8350	3.8351	1.4533	27.26	1.28	1.500			
0.4360	27904.66	3.8320	3.8320	1.4820	27.25	1.27	1.500			
0.4405	28193.45	3.8290	3.8289	1.5134	27.24	1.26	1.500			
0.4451	28484.97	3.8260	3.8260	1.5426	27.23	1.25	1.500			
0.4497	28783.82	3.8230	3.8231	1.5784	27.22	1.24	1.500			
0.4545	29089.86	3.8200	3.8200	1.6158	27.21	1.23	1.500			
0.4594	29402.78	3.8170	3.8170	1.6545	27.20	1.22	1.500			
0.4644	29720.02	3.8140	3.8140	1.6947	27.18	1.20	1.500			
0.4696	30054.13	3.8110	3.8110	1.7373	27.17	1.19	1.500			
0.4748	30389.17	3.8080	3.8080	1.7896	27.15	1.17	1.500			
0.4802	30734.35	3.8050	3.8050	1.8478	27.14	1.16	1.500			
0.4858	31094.29	3.8020	3.8019	1.8996	27.12	1.14	1.500			
0.4916	31464.33	3.7990	3.7989	1.9571	27.10	1.12	1.500			
0.4976	31843.87	3.7960	3.7961	2.0097	27.08	1.10	1.500			
0.5037	32237.20	3.7930	3.7930	2.0756	27.07	1.09	1.500			
0.5099	32635.32	3.7900	3.7900	2.1177	27.05	1.07	1.500			
0.5164	33052.77	3.7870	3.7870	2.1818	27.03	1.05	1.500			
0.5231	33481.56	3.7840	3.7840	2.2569	27.01	1.03	1.500			
0.5300	33917.87	3.7810	3.7811	2.3226	27.00	1.02	1.500			
0.5370	34367.66	3.7780	3.7780	2.3808	26.98	1.00	1.500			
0.5443	34835.37	3.7750	3.7750	2.4193	26.96	0.98	1.500			
0.5516	35299.35	3.7720	3.7722	2.4962	26.93	0.95	1.500			
0.5591	35783.64	3.7690	3.7690	2.6065	26.91	0.93	1.500			
0.5671	36293.24	3.7660	3.7662	2.6773	26.88	0.90	1.500	0.379	0.457	
0.5754	36826.99	3.7630	3.7631	2.7547	26.86	0.88	1.500			
0.5839	37368.36	3.7600	3.7600	2.7665	26.83	0.85	1.500			
0.5920	37885.50	3.7570	3.7571	2.7450	26.80	0.82	1.500			
0.6002	38415.87	3.7540	3.7540	2.6852	26.78	0.80	1.500			
0.6082	38927.15	3.7510	3.7511	2.6297	26.75	0.77	1.500			
0.6162	39434.50	3.7480	3.7480	2.5781	26.72	0.74	1.500			
0.6237	39917.93	3.7450	3.7450	2.5245	26.70	0.72	1.500			
0.6312	40399.61	3.7420	3.7421	2.5158	26.67	0.69	1.500			
0.6387	40874.24	3.7390	3.7391	2.4785	26.64	0.66	1.500			
0.6460	41346.92	3.7360	3.7360	2.4276	26.62	0.64	1.500			
0.6532	41807.50	3.7330	3.7331	2.4117	26.59	0.61	1.500			
0.6604	42266.10	3.7300	3.7299	2.4099	26.56	0.58	1.500			
0.6676	42728.44	3.7270	3.7270	2.4001	26.55	0.57	1.500			
0.6748	43187.41	3.7240	3.7241	2.4489	26.53	0.55	1.500			
0.6822	43663.57	3.7210	3.7211	2.5000	26.51	0.53	1.500			
0.6897	44141.60	3.7180	3.7180	2.5811	26.49	0.51	1.500			
0.6976	44646.27	3.7150	3.7150	2.6450	26.46	0.48	1.500			
0.7056	45161.32	3.7120	3.7121	2.7564	26.44	0.46	1.500			
0.7141	45702.65	3.7090	3.7091	2.8951	26.41	0.43	1.500			
0.7230	46273.68	3.7060	3.7060	2.9856	26.38	0.40	1.500			
0.7322	46861.41	3.7030	3.7030	3.0369	26.35	0.37	1.500			
0.7415	47456.70	3.7000	3.7000	3.0042	26.33	0.35	1.500			
0.7505	48029.99	3.6970	3.6971	2.9097	26.32	0.34	1.500			
0.7591	48581.99	3.6940	3.6939	2.7504	26.30	0.32	1.500			
0.7671	49095.81	3.6910	3.6910	2.5318	26.29	0.31	1.500			
0.7744	49560.68	3.6880	3.6881	2.3155	26.27	0.29	1.500			
0.7809	49975.14	3.6850	3.6850	2.0830	26.26	0.28	1.500			
0.7867	50349.31	3.6820	3.6819	1.8768	26.25	0.27	1.500			
0.7920	50688.36	3.6790	3.6790	1.7139	26.24	0.26	1.500			
0.7969	50999.72	3.6760	3.6760	1.5788	26.23	0.25	1.500			
0.8013	51285.55	3.6730	3.6730	1.4686	26.22	0.24	1.500			
0.8055	51552.17	3.6700	3.6700	1.3670	26.21	0.23	1.500			
0.8094	51802.04	3.6670	3.6669	1.2950	26.20	0.22	1.500			
0.8131	52039.98	3.6640	3.6640	1.2316	26.20	0.22	1.500			
0.8167	52265.82	3.6610	3.6610	1.1848	26.19	0.21	1.500			
0.8201	52488.16	3.6580	3.6580	1.1566	26.18	0.20	1.500			
0.8235	52703.60	3.6550	3.6550	1.1337	26.17	0.19	1.500			
0.8269	52918.94	3.6520	3.6520	1.1254	26.16	0.18	1.500			
0.8302	53131.72	3.6490	3.6490	1.1287	26.16	0.18	1.500			
0.8336	53348.38	3.6460	3.6460	1.1325	26.15	0.17	1.500			
0.8370	53566.91	3.6430	3.6430	1.1365	26.14	0.16	1.500			
0.8404	53786.66	3.6400	3.6400	1.1399	26.13	0.15	1.500			
0.8439	54007.80	3.6370	3.6371	1.1397	26.13	0.15	1.500			
0.8473	54227.59	3.6340	3.6340	1.1346	26.12	0.14	1.500			
0.8507	54443.92	3.6310	3.6310	1.1284	26.11	0.13	1.500			
0.8540	54656.33	3.6280	3.6281	1.1274	26.10	0.12	1.500			
0.8574	54871.98	3.6250	3.6249	1.1308	26.10	0.12	1.500			
0.8608	55088.47	3.6220	3.6218	1.1425	26.09	0.11	1.500			
0.8642	55308.09	3.6190	3.6191	1.1536	26.08	0.10	1.500			
0.8677	55531.84	3.6160	3.6161	1.1663	26.07	0.09	1.500			
0.8713	55760.49	3.6130	3.6130	1.1811	26.06	0.08	1.500			
0.8748	55988.11	3.6100	3.6100	1.1743	26.05	0.07	1.500			
0.8784	56215.08	3.6070	3.6070	1.1805	26.04	0.06	1.500			
0.8819	56441.62	3.6040	3.6041	1.1825	26.03	0.05	1.500			
0.8854	56667.82	3.6010	3.6009	1.1787	26.02	0.04	1.500			
0.8890	56895.09	3.5980	3.5980	1.1792	26.02	0.04	1.500			
0.8925	57120.00	3.5950	3.5950	1.1829	26.01	0.03	1.500			
0.8960	57346.26	3.5920	3.5920	1.1872	26.00	0.02	1.500			
0.8996	57573.39	3.5890	3.5890	1.1978	26.00	0.02	1.500			
0.9032	57802.44	3.5860	3.5860	1.2232	25.99	0.01	1.500			
0.9069	58042.26	3.5830	3.5829	1.2285	25.99	0.01	1.500			
0.9107	58286.03	3.5800	3.5798	1.2120	25.98	0.00	1.500			
0.9146	58535.19	3.5770	3.5770	1.1379	25.97	-0.01	1.500			
0.9180	58753.86	3.5740	3.5743	1.0187	25.97	-0.01	1.500			
0.9211	58949.97	3.5710	3.5711	0.8797	25.96	-0.02	1.500			
0.9234	59096.06	3.5680	3.5682	0.7053	25.96	-0.02	1.500			
0.9251	59205.59	3.5650	3.5649	0.5601	25.96	-0.02	1.500			
0.9264	59292.64	3.5620	3.5618	0.4495	25.96	-0.02	1.500			
0.9275	59359.78	3.5590	3.5589	0.3434	25.95	-0.03	1.500			
0.9283	59413.77	3.5560	3.5558	0.2795	25.95	-0.03	1.500			
0.9290	59455.28	3.5530	3.5530	0.2266	25.95	-0.03	1.500			
0.9296	59493.04	3.5500	3.5500	0.1816	25.95	-0.03	1.500			
0.9300	59522.79	3.5470	3.5469	0.1419	25.95	-0.03	1.500			
0.9304	59546.01	3.5440	3.5440	0.1060	25.95	-0.03	1.500			
0.9307	59562.82	3.5410	3.5410	0.0717	25.95	-0.03	1.500			
0.9308	59573.29	3.5380	3.5383	0.0389	25.95	-0.03	1.500			
