Ah_balance (normalized)	Ah_balance (mAh)	Voltage - fit (V)	Voltage -  interpolate (V)	dQ/dV (1/V)	Temperature (°C)	Temperature - diff (°C)	Current (C)	R_DC 0ms (mOhm)	R_DC 50ms (mOhm)	R_DC 50 ms PEC (mOhm)
0.2734	17495.74	3.9880	3.9880	0.8334	27.26	1.32	1.500			
0.2759	17654.93	3.9850	3.9851	0.8360	27.25	1.31	1.500			
0.2784	17816.87	3.9820	3.9819	0.8453	27.25	1.31	1.500			
0.2809	17980.39	3.9790	3.9790	0.8520	27.24	1.30	1.500			
0.2835	18145.45	3.9760	3.9760	0.8534	27.23	1.29	1.500			
0.2861	18310.66	3.9730	3.9730	0.8572	27.23	1.29	1.500			
0.2887	18474.52	3.9700	3.9701	0.8612	27.22	1.28	1.500			
0.2913	18640.27	3.9670	3.9670	0.8658	27.22	1.28	1.500			
0.2938	18805.69	3.9640	3.9640	0.8648	27.21	1.27	1.500			
0.2964	18972.29	3.9610	3.9610	0.8726	27.20	1.26	1.500			
0.2991	19140.88	3.9580	3.9581	0.8789	27.20	1.26	1.500			
0.3017	19311.39	3.9550	3.9550	0.8816	27.19	1.25	1.500			
0.3044	19481.37	3.9520	3.9519	0.8809	27.18	1.24	1.500			
0.3070	19649.69	3.9490	3.9491	0.8792	27.18	1.24	1.500			
0.3097	19818.43	3.9460	3.9460	0.8820	27.17	1.23	1.500			
0.3123	19987.35	3.9430	3.9430	0.8905	27.17	1.23	1.500			
0.3150	20157.27	3.9400	3.9399	0.8924	27.16	1.22	1.500			
0.3177	20330.36	3.9370	3.9370	0.8999	27.15	1.21	1.500			
0.3204	20505.48	3.9340	3.9341	0.9099	27.15	1.21	1.500			
0.3231	20680.98	3.9310	3.9310	0.9131	27.14	1.20	1.500			
0.3259	20856.80	3.9280	3.9280	0.9151	27.13	1.19	1.500			
0.3286	21030.95	3.9250	3.9250	0.9145	27.13	1.19	1.500			
0.3314	21206.45	3.9220	3.9220	0.9220	27.12	1.18	1.500			
0.3341	21383.92	3.9190	3.9190	0.9302	27.11	1.17	1.500			
0.3369	21563.30	3.9160	3.9160	0.9372	27.11	1.17	1.500			
0.3398	21745.27	3.9130	3.9130	0.9422	27.10	1.16	1.500			
0.3426	21926.32	3.9100	3.9101	0.9515	27.09	1.15	1.500			
0.3455	22109.76	3.9070	3.9070	0.9597	27.09	1.15	1.500			
0.3484	22294.77	3.9040	3.9040	0.9659	27.08	1.14	1.500			
0.3512	22479.52	3.9010	3.9009	0.9695	27.07	1.13	1.500			
0.3542	22666.81	3.8980	3.8980	0.9771	27.06	1.12	1.500			
0.3571	22856.88	3.8950	3.8950	0.9872	27.06	1.12	1.500			
0.3601	23047.39	3.8920	3.8920	0.9918	27.05	1.11	1.500			
0.3631	23236.23	3.8890	3.8890	1.0017	27.04	1.10	1.500			
0.3661	23430.05	3.8860	3.8861	1.0150	27.04	1.10	1.500			
0.3692	23626.00	3.8830	3.8828	1.0260	27.03	1.09	1.500			
0.3723	23824.85	3.8800	3.8800	1.0335	27.02	1.08	1.500			
0.3754	24024.04	3.8770	3.8770	1.0439	27.01	1.07	1.500			
0.3785	24224.93	3.8740	3.8741	1.0517	26.99	1.05	1.500			
0.3817	24429.74	3.8710	3.8709	1.0575	26.98	1.04	1.500			
0.3849	24630.80	3.8680	3.8680	1.0691	26.97	1.03	1.500			
0.3881	24835.61	3.8650	3.8651	1.0852	26.96	1.02	1.500			
0.3913	25045.60	3.8620	3.8619	1.1028	26.95	1.01	1.500			
0.3947	25260.28	3.8590	3.8590	1.1186	26.94	1.00	1.500			
0.3981	25476.24	3.8560	3.8560	1.1357	26.93	0.99	1.500			
0.4015	25697.40	3.8530	3.8530	1.1541	26.92	0.98	1.500			
0.4050	25920.57	3.8500	3.8499	1.1696	26.91	0.97	1.500			
0.4085	26144.95	3.8470	3.8471	1.1811	26.90	0.96	1.500			
0.4121	26372.49	3.8440	3.8440	1.1987	26.90	0.96	1.500			
0.4157	26604.63	3.8410	3.8409	1.2153	26.89	0.95	1.500			
0.4194	26839.98	3.8380	3.8380	1.2337	26.88	0.94	1.500			
0.4231	27076.05	3.8350	3.8350	1.2544	26.86	0.92	1.500			
0.4269	27319.80	3.8320	3.8319	1.2768	26.85	0.91	1.500			
0.4307	27566.93	3.8290	3.8290	1.2994	26.84	0.90	1.500			
0.4347	27818.13	3.8260	3.8260	1.3231	26.82	0.88	1.500			
0.4387	28074.35	3.8230	3.8231	1.3496	26.81	0.87	1.500			
0.4428	28336.88	3.8200	3.8199	1.3788	26.79	0.85	1.500			
0.4469	28603.62	3.8170	3.8170	1.4019	26.78	0.84	1.500			
0.4512	28875.44	3.8140	3.8139	1.4233	26.77	0.83	1.500			
0.4555	29151.32	3.8110	3.8111	1.4527	26.75	0.81	1.500			
0.4598	29429.89	3.8080	3.8080	1.4811	26.74	0.80	1.500			
0.4643	29717.83	3.8050	3.8049	1.5143	26.72	0.78	1.500			
0.4689	30010.67	3.8020	3.8020	1.5450	26.71	0.77	1.500			
0.4736	30311.99	3.7990	3.7991	1.5808	26.69	0.75	1.500			
0.4784	30620.27	3.7960	3.7960	1.6062	26.67	0.73	1.500			
0.4833	30930.64	3.7930	3.7930	1.6327	26.65	0.71	1.500			
0.4882	31245.90	3.7900	3.7900	1.6577	26.63	0.69	1.500			
0.4932	31567.58	3.7870	3.7869	1.6805	26.61	0.67	1.500			
0.4983	31893.85	3.7840	3.7840	1.6962	26.59	0.65	1.500			
0.5034	32219.55	3.7810	3.7810	1.7352	26.58	0.64	1.500			
0.5087	32556.01	3.7780	3.7779	1.7702	26.56	0.62	1.500			
0.5141	32899.67	3.7750	3.7752	1.7898	26.54	0.60	1.500	0.350	0.460	
0.5195	33247.25	3.7720	3.7721	1.8069	26.53	0.59	1.500			
0.5250	33603.15	3.7690	3.7690	1.8101	26.51	0.57	1.500			
0.5304	33943.64	3.7660	3.7660	1.7795	26.49	0.55	1.500			
0.5357	34285.38	3.7630	3.7630	1.7850	26.48	0.54	1.500			
0.5411	34628.01	3.7600	3.7600	1.7825	26.46	0.52	1.500			
0.5464	34968.15	3.7570	3.7570	1.7864	26.44	0.50	1.500			
0.5517	35310.33	3.7540	3.7541	1.7934	26.43	0.49	1.500			
0.5571	35655.62	3.7510	3.7510	1.8028	26.41	0.47	1.500			
0.5624	35995.25	3.7480	3.7481	1.8154	26.40	0.46	1.500			
0.5679	36346.69	3.7450	3.7448	1.8423	26.38	0.44	1.500			
0.5735	36702.45	3.7420	3.7420	1.8833	26.37	0.43	1.500			
0.5792	37069.79	3.7390	3.7391	1.8945	26.35	0.41	1.500			
0.5849	37436.21	3.7360	3.7360	1.9321	26.34	0.40	1.500			
0.5908	37809.64	3.7330	3.7331	1.9795	26.33	0.39	1.500			
0.5968	38192.36	3.7300	3.7299	2.0302	26.31	0.37	1.500			
0.6030	38590.58	3.7270	3.7271	2.0807	26.30	0.36	1.500			
0.6094	39001.31	3.7240	3.7240	2.1568	26.28	0.34	1.500			
0.6158	39413.78	3.7210	3.7209	2.2005	26.27	0.33	1.500			
0.6225	39838.02	3.7180	3.7181	2.2546	26.25	0.31	1.500			
0.6294	40279.87	3.7150	3.7150	2.3158	26.23	0.29	1.500			
0.6364	40727.32	3.7120	3.7120	2.3810	26.22	0.28	1.500			
0.6436	41189.80	3.7090	3.7089	2.4273	26.20	0.26	1.500			
0.6510	41665.61	3.7060	3.7060	2.4694	26.19	0.25	1.500			
0.6585	42143.27	3.7030	3.7030	2.4087	26.18	0.24	1.500			
0.6656	42597.60	3.7000	3.7000	2.3251	26.16	0.22	1.500			
0.6725	43038.06	3.6970	3.6970	2.1803	26.15	0.21	1.500			
0.6788	43443.61	3.6940	3.6941	2.0270	26.14	0.20	1.500			
0.6846	43816.81	3.6910	3.6910	1.8814	26.13	0.19	1.500			
0.6899	44155.28	3.6880	3.6880	1.7324	26.12	0.18	1.500			
0.6949	44472.96	3.6850	3.6850	1.6207	26.11	0.17	1.500			
0.6996	44773.26	3.6820	3.6821	1.5375	26.10	0.16	1.500			
0.7040	45057.52	3.6790	3.6790	1.4597	26.09	0.15	1.500			
0.7082	45325.63	3.6760	3.6760	1.3989	26.09	0.15	1.500			
0.7123	45585.97	3.6730	3.6730	1.3494	26.08	0.14	1.500			
0.7162	45837.03	3.6700	3.6700	1.3146	26.07	0.13	1.500			
0.7201	46085.95	3.6670	3.6670	1.2922	26.07	0.13	1.500			
0.7239	46328.30	3.6640	3.6641	1.2791	26.06	0.12	1.500			
0.7277	46571.96	3.6610	3.6610	1.2736	26.06	0.12	1.500			
0.7315	46814.10	3.6580	3.6580	1.2703	26.05	0.11	1.500			
0.7353	47057.93	3.6550	3.6549	1.2730	26.04	0.10	1.500			
0.7391	47302.81	3.6520	3.6521	1.2766	26.04	0.10	1.500			
0.7429	47548.04	3.6490	3.6489	1.2836	26.03	0.09	1.500			
0.7468	47795.74	3.6460	3.6460	1.2829	26.02	0.08	1.500			
0.7507	48042.39	3.6430	3.6429	1.2811	26.02	0.08	1.500			
0.7545	48289.07	3.6400	3.6401	1.2779	26.01	0.07	1.500			
0.7584	48534.50	3.6370	3.6370	1.2737	26.00	0.06	1.500			
0.7622	48778.72	3.6340	3.6340	1.2714	25.99	0.05	1.500			
0.7660	49022.28	3.6310	3.6310	1.2664	25.99	0.05	1.500			
0.7697	49262.47	3.6280	3.6280	1.2620	25.98	0.04	1.500			
0.7735	49505.31	3.6250	3.6251	1.2663	25.97	0.03	1.500			
0.7773	49749.96	3.6220	3.6219	1.2574	25.97	0.03	1.500			
0.7811	49991.87	3.6190	3.6190	1.2470	25.96	0.02	1.500			
0.7849	50230.74	3.6160	3.6161	1.2353	25.95	0.01	1.500			
0.7885	50465.82	3.6130	3.6130	1.2264	25.95	0.01	1.500			
0.7922	50702.19	3.6100	3.6099	1.2106	25.94	0.00	1.500			
0.7958	50932.50	3.6070	3.6070	1.1958	25.94	0.00	1.500			
0.7994	51160.87	3.6040	3.6040	1.1745	25.94	0.00	1.500			
0.8029	51386.89	3.6010	3.6010	1.1577	25.94	0.00	1.500			
0.8064	51607.97	3.5980	3.5980	1.1383	25.94	0.00	1.500			
0.8097	51823.67	3.5950	3.5950	1.1145	25.94	0.00	1.500			
0.8130	52034.21	3.5920	3.5920	1.0909	25.94	0.00	1.500			
0.8163	52244.12	3.5890	3.5890	1.0644	25.94	0.00	1.500			
0.8195	52449.87	3.5860	3.5860	1.0209	25.94	0.00	1.500			
0.8226	52646.03	3.5830	3.5831	0.9651	25.94	0.00	1.500			
0.8255	52833.18	3.5800	3.5800	0.8850	25.94	0.00	1.500			
0.8281	52997.44	3.5770	3.5770	0.7886	25.94	0.00	1.500			
0.8303	53142.01	3.5740	3.5741	0.6865	25.94	0.00	1.500			
0.8322	53261.85	3.5710	3.5710	0.5794	25.94	0.00	1.500			
0.8337	53359.14	3.5680	3.5679	0.4868	25.94	0.00	1.500			
0.8350	53439.05	3.5650	3.5650	0.4069	25.94	0.00	1.500			
0.8360	53503.64	3.5620	3.5620	0.3424	25.94	0.00	1.500			
0.8369	53561.07	3.5590	3.5589	0.2974	25.94	0.00	1.500			
0.8377	53610.89	3.5560	3.5559	0.2553	25.94	0.00	1.500			
0.8384	53655.37	3.5530	3.5530	0.2284	25.94	0.00	1.500			
0.8390	53695.24	3.5500	3.5500	0.2053	25.94	0.00	1.500			
0.8396	53731.73	3.5470	3.5471	0.1865	25.94	0.00	1.500			
0.8401	53765.37	3.5440	3.5440	0.1683	25.94	0.00	1.500			
0.8406	53795.42	3.5410	3.5411	0.1527	25.94	0.00	1.500			
0.8410	53823.03	3.5380	3.5379	0.1374	25.94	0.00	1.500			
0.8414	53847.85	3.5350	3.5350	0.1223	25.94	0.00	1.500			
0.8417	53869.99	3.5320	3.5320	0.1083	25.94	0.00	1.500			
0.8420	53889.61	3.5290	3.5291	0.0944	25.94	0.00	1.500			
0.8423	53906.57	3.5260	3.5261	0.0803	25.94	0.00	1.500			
0.8425	53920.58	3.5230	3.5232	0.0657	25.94	0.00	1.500			
0.8427	53931.96	3.5200	3.5204	0.0506	25.94	0.00	1.500			
0.8428	53940.23	3.5170	3.5179	0.0356	25.94	0.00	1.500			
