Ah_balance (normalized)	Ah_balance (mAh)	Voltage - fit (V)	Voltage -  interpolate (V)	dQ/dV (1/V)	Temperature (°C)	Temperature - diff (°C)	Current (C)	R_DC 0ms (mOhm)	R_DC 50ms (mOhm)	R_DC 50 ms PEC (mOhm)
0.1897	12137.75	3.9260	3.9258	-0.1067	25.71	-0.02	-1.500			
0.1900	12161.15	3.9230	3.9228	-0.1368	25.71	-0.02	-1.500			
0.1905	12190.28	3.9200	3.9200	-0.1667	25.71	-0.02	-1.500			
0.1910	12225.42	3.9170	3.9171	-0.1952	25.71	-0.02	-1.500			
0.1917	12265.84	3.9140	3.9140	-0.2224	25.71	-0.02	-1.500			
0.1924	12311.98	3.9110	3.9111	-0.2498	25.71	-0.02	-1.500			
0.1932	12362.57	3.9080	3.9080	-0.2759	25.71	-0.02	-1.500			
0.1940	12418.18	3.9050	3.9050	-0.3016	25.71	-0.02	-1.500			
0.1950	12478.79	3.9020	3.9020	-0.3262	25.71	-0.02	-1.500			
0.1960	12543.78	3.8990	3.8991	-0.3506	25.71	-0.02	-1.500			
0.1971	12613.79	3.8960	3.8960	-0.3747	25.71	-0.02	-1.500			
0.1982	12687.80	3.8930	3.8930	-0.3992	25.72	-0.01	-1.500			
0.1995	12766.43	3.8900	3.8900	-0.4238	25.72	-0.01	-1.500			
0.2008	12849.83	3.8870	3.8870	-0.4491	25.72	-0.01	-1.500			
0.2022	12939.32	3.8840	3.8839	-0.4716	25.72	-0.01	-1.500			
0.2036	13032.48	3.8810	3.8810	-0.4940	25.72	-0.01	-1.500			
0.2052	13130.34	3.8780	3.8780	-0.5144	25.72	-0.01	-1.500			
0.2067	13231.49	3.8750	3.8750	-0.5321	25.73	-0.00	-1.500			
0.2084	13335.20	3.8720	3.8720	-0.5497	25.73	-0.00	-1.500			
0.2100	13442.58	3.8690	3.8691	-0.5661	25.73	0.00	-1.500			
0.2118	13552.58	3.8660	3.8660	-0.5823	25.73	0.00	-1.500			
0.2136	13667.22	3.8630	3.8629	-0.5947	25.73	0.00	-1.500			
0.2154	13783.13	3.8600	3.8600	-0.6061	25.74	0.01	-1.500			
0.2172	13900.83	3.8570	3.8570	-0.6195	25.74	0.01	-1.500			
0.2191	14020.61	3.8540	3.8540	-0.6291	25.74	0.01	-1.500			
0.2210	14141.67	3.8510	3.8510	-0.6383	25.74	0.01	-1.500			
0.2229	14265.72	3.8480	3.8480	-0.6493	25.75	0.02	-1.500			
0.2249	14392.38	3.8450	3.8450	-0.6560	25.75	0.02	-1.500			
0.2269	14520.40	3.8420	3.8420	-0.6614	25.75	0.02	-1.500			
0.2289	14647.98	3.8390	3.8391	-0.6642	25.75	0.02	-1.500			
0.2309	14774.89	3.8360	3.8360	-0.6658	25.76	0.03	-1.500			
0.2329	14902.98	3.8330	3.8330	-0.6688	25.76	0.03	-1.500			
0.2349	15030.94	3.8300	3.8301	-0.6734	25.76	0.03	-1.500			
0.2369	15161.06	3.8270	3.8270	-0.6798	25.76	0.03	-1.500			
0.2390	15293.03	3.8240	3.8240	-0.6852	25.77	0.04	-1.500			
0.2410	15424.83	3.8210	3.8210	-0.6875	25.77	0.04	-1.500			
0.2431	15557.61	3.8180	3.8181	-0.6881	25.77	0.04	-1.500			
0.2452	15690.78	3.8150	3.8150	-0.6869	25.78	0.05	-1.500			
0.2472	15822.47	3.8120	3.8120	-0.6863	25.78	0.05	-1.500			
0.2493	15953.18	3.8090	3.8090	-0.6865	25.78	0.05	-1.500			
0.2513	16084.96	3.8060	3.8060	-0.6874	25.79	0.06	-1.500			
0.2534	16217.46	3.8030	3.8030	-0.6891	25.79	0.06	-1.500			
0.2555	16349.86	3.8000	3.8000	-0.6900	25.79	0.06	-1.500			
0.2575	16483.00	3.7970	3.7970	-0.6930	25.80	0.07	-1.500			
0.2596	16616.30	3.7940	3.7939	-0.6930	25.80	0.07	-1.500			
0.2617	16748.76	3.7910	3.7910	-0.6930	25.80	0.07	-1.500			
0.2638	16881.77	3.7880	3.7880	-0.6941	25.81	0.08	-1.500			
0.2659	17015.50	3.7850	3.7850	-0.6948	25.81	0.08	-1.500			
0.2679	17148.53	3.7820	3.7820	-0.6966	25.82	0.09	-1.500			
0.2701	17283.28	3.7790	3.7790	-0.6972	25.82	0.09	-1.500			
0.2721	17416.61	3.7760	3.7760	-0.7000	25.83	0.10	-1.500			
0.2742	17551.63	3.7730	3.7730	-0.7008	25.83	0.10	-1.500			
0.2764	17686.56	3.7700	3.7700	-0.6992	25.84	0.11	-1.500			
0.2784	17819.87	3.7670	3.7670	-0.7046	25.84	0.11	-1.500			
0.2806	17955.74	3.7640	3.7640	-0.7061	25.85	0.12	-1.500			
0.2827	18091.25	3.7610	3.7609	-0.7048	25.85	0.12	-1.500			
0.2848	18226.98	3.7580	3.7581	-0.7067	25.86	0.13	-1.500			
0.2869	18362.03	3.7550	3.7551	-0.7089	25.87	0.14	-1.500			
0.2891	18499.49	3.7520	3.7519	-0.7115	25.87	0.14	-1.500			
0.2912	18636.36	3.7490	3.7490	-0.7140	25.88	0.15	-1.500			
0.2933	18772.69	3.7460	3.7461	-0.7131	25.89	0.16	-1.500			
0.2955	18910.34	3.7430	3.7430	-0.7207	25.89	0.16	-1.500			
0.2976	19048.78	3.7400	3.7401	-0.7259	25.90	0.17	-1.500			
0.2998	19187.49	3.7370	3.7369	-0.7301	25.91	0.18	-1.500			
0.3020	19327.93	3.7340	3.7340	-0.7368	25.91	0.18	-1.500			
0.3042	19471.35	3.7310	3.7310	-0.7421	25.92	0.19	-1.500			
0.3065	19614.03	3.7280	3.7280	-0.7463	25.93	0.20	-1.500			
0.3087	19759.11	3.7250	3.7250	-0.7499	25.94	0.21	-1.500			
0.3110	19902.09	3.7220	3.7220	-0.7530	25.94	0.21	-1.500			
0.3132	20045.79	3.7190	3.7190	-0.7585	25.95	0.22	-1.500			
0.3155	20192.06	3.7160	3.7159	-0.7657	25.95	0.22	-1.500			
0.3178	20340.05	3.7130	3.7130	-0.7712	25.95	0.22	-1.500			
0.3201	20488.89	3.7100	3.7101	-0.7804	25.96	0.23	-1.500			
0.3225	20639.37	3.7070	3.7070	-0.7884	25.96	0.23	-1.500			
0.3249	20791.74	3.7040	3.7040	-0.7981	25.96	0.23	-1.500			
0.3273	20944.21	3.7010	3.7010	-0.8066	25.97	0.24	-1.500			
0.3297	21100.79	3.6980	3.6980	-0.8165	25.97	0.24	-1.500			
0.3322	21259.97	3.6950	3.6950	-0.8240	25.98	0.25	-1.500			
0.3347	21419.46	3.6920	3.6921	-0.8285	25.98	0.25	-1.500			
0.3372	21577.67	3.6890	3.6890	-0.8363	25.98	0.25	-1.500			
0.3397	21738.50	3.6860	3.6860	-0.8465	25.99	0.26	-1.500			
0.3422	21899.95	3.6830	3.6830	-0.8544	25.99	0.26	-1.500			
0.3448	22064.48	3.6800	3.6800	-0.8704	26.00	0.27	-1.500			
0.3474	22234.57	3.6770	3.6771	-0.8868	26.00	0.27	-1.500			
0.3501	22406.84	3.6740	3.6740	-0.9005	26.01	0.28	-1.500			
0.3528	22581.52	3.6710	3.6710	-0.9152	26.02	0.29	-1.500			
0.3556	22757.91	3.6680	3.6680	-0.9271	26.02	0.29	-1.500			
0.3584	22936.59	3.6650	3.6650	-0.9399	26.03	0.30	-1.500			
0.3612	23118.33	3.6620	3.6620	-0.9555	26.03	0.30	-1.500			
0.3641	23302.35	3.6590	3.6590	-0.9665	26.03	0.30	-1.500			
0.3670	23489.95	3.6560	3.6560	-0.9803	26.04	0.31	-1.500			
0.3700	23679.85	3.6530	3.6530	-0.9961	26.04	0.31	-1.500			
0.3730	23872.08	3.6500	3.6500	-1.0102	26.05	0.32	-1.500			
0.3760	24066.91	3.6470	3.6470	-1.0305	26.05	0.32	-1.500			
0.3792	24266.47	3.6440	3.6440	-1.0516	26.05	0.32	-1.500			
0.3823	24470.25	3.6410	3.6409	-1.0685	26.06	0.33	-1.500			
0.3856	24678.88	3.6380	3.6381	-1.0855	26.06	0.33	-1.500			
0.3889	24889.25	3.6350	3.6351	-1.1021	26.06	0.33	-1.500			
0.3922	25101.71	3.6320	3.6320	-1.1162	26.07	0.34	-1.500			
0.3956	25317.53	3.6290	3.6290	-1.1292	26.07	0.34	-1.500			
0.3990	25534.92	3.6260	3.6260	-1.1481	26.07	0.34	-1.500			
0.4024	25756.31	3.6230	3.6231	-1.1665	26.07	0.34	-1.500			
0.4060	25983.76	3.6200	3.6199	-1.1843	26.08	0.35	-1.500			
0.4096	26212.50	3.6170	3.6171	-1.2006	26.08	0.35	-1.500			
0.4132	26444.06	3.6140	3.6140	-1.2191	26.08	0.35	-1.500			
0.4169	26679.77	3.6110	3.6110	-1.2382	26.09	0.36	-1.500			
0.4206	26918.66	3.6080	3.6080	-1.2598	26.09	0.36	-1.500			
0.4244	27162.14	3.6050	3.6050	-1.2781	26.09	0.36	-1.500			
0.4283	27411.40	3.6020	3.6020	-1.2995	26.09	0.36	-1.500			
0.4323	27664.10	3.5990	3.5990	-1.3180	26.10	0.37	-1.500			
0.4362	27918.49	3.5960	3.5960	-1.3357	26.10	0.37	-1.500			
0.4403	28176.37	3.5930	3.5930	-1.3523	26.10	0.37	-1.500			
0.4443	28434.97	3.5900	3.5900	-1.3796	26.10	0.37	-1.500			
0.4485	28702.42	3.5870	3.5869	-1.3957	26.10	0.37	-1.500			
0.4527	28975.24	3.5840	3.5840	-1.4153	26.10	0.37	-1.500			
0.4570	29249.99	3.5810	3.5809	-1.4346	26.10	0.37	-1.500			
0.4614	29526.59	3.5780	3.5781	-1.4497	26.10	0.37	-1.500			
0.4657	29807.09	3.5750	3.5750	-1.4656	26.10	0.37	-1.500			
0.4701	30087.66	3.5720	3.5720	-1.4903	26.10	0.37	-1.500			
0.4746	30373.08	3.5690	3.5690	-1.5012	26.10	0.37	-1.500			
0.4792	30667.12	3.5660	3.5660	-1.5310	26.10	0.37	-1.500			
0.4838	30964.34	3.5630	3.5630	-1.5561	26.10	0.37	-1.500			
0.4885	31264.51	3.5600	3.5599	-1.5692	26.10	0.37	-1.500			
0.4932	31566.96	3.5570	3.5569	-1.5885	26.11	0.38	-1.500			
0.4980	31874.15	3.5540	3.5540	-1.6027	26.11	0.38	-1.500			
0.5028	32180.29	3.5510	3.5510	-1.6131	26.11	0.38	-1.500			
0.5078	32496.79	3.5480	3.5480	-1.6404	26.12	0.39	-1.500			
0.5127	32813.19	3.5450	3.5450	-1.6465	26.12	0.39	-1.500			
0.5176	33129.54	3.5420	3.5420	-1.6750	26.13	0.40	-1.500			
0.5227	33455.53	3.5390	3.5389	-1.6926	26.13	0.40	-1.500			
0.5279	33782.55	3.5360	3.5359	-1.7024	26.13	0.40	-1.500			
0.5330	34112.14	3.5330	3.5329	-1.7168	26.14	0.41	-1.500	0.377	0.518	
0.5382	34443.69	3.5300	3.5300	-1.7300	26.14	0.41	-1.500			
0.5434	34776.33	3.5270	3.5269	-1.7402	26.15	0.42	-1.500			
0.5487	35113.76	3.5240	3.5240	-1.7450	26.16	0.43	-1.500			
0.5539	35448.13	3.5210	3.5210	-1.7512	26.16	0.43	-1.500			
0.5592	35789.19	3.5180	3.5180	-1.7602	26.17	0.44	-1.500			
0.5645	36126.38	3.5150	3.5149	-1.7624	26.18	0.45	-1.500			
0.5697	36462.36	3.5120	3.5120	-1.7655	26.19	0.46	-1.500			
0.5750	36800.87	3.5090	3.5090	-1.7694	26.20	0.47	-1.500			
0.5804	37146.25	3.5060	3.5060	-1.7819	26.21	0.48	-1.500			
0.5858	37488.21	3.5030	3.5030	-1.7717	26.22	0.49	-1.500			
0.5910	37826.71	3.5000	3.5000	-1.7668	26.23	0.50	-1.500			
0.5963	38164.43	3.4970	3.4970	-1.7657	26.24	0.51	-1.500			
0.6016	38502.25	3.4940	3.4940	-1.7556	26.25	0.52	-1.500			
0.6069	38839.40	3.4910	3.4910	-1.7553	26.26	0.53	-1.500			
0.6121	39177.21	3.4880	3.4881	-1.7456	26.27	0.54	-1.500			
0.6174	39514.51	3.4850	3.4849	-1.7329	26.28	0.55	-1.500			
0.6226	39846.87	3.4820	3.4820	-1.7313	26.29	0.56	-1.500			
0.6278	40179.03	3.4790	3.4790	-1.7142	26.30	0.57	-1.500			
0.6329	40508.29	3.4760	3.4758	-1.7020	26.32	0.59	-1.500			
0.6380	40832.70	3.4730	3.4730	-1.6804	26.33	0.60	-1.500			
0.6430	41152.22	3.4700	3.4700	-1.6553	26.34	0.61	-1.500			
0.6480	41469.87	3.4670	3.4670	-1.6330	26.35	0.62	-1.500			
0.6527	41775.23	3.4640	3.4640	-1.6056	26.36	0.63	-1.500			
0.6576	42085.90	3.4610	3.4611	-1.5956	26.37	0.64	-1.500			
0.6624	42391.43	3.4580	3.4579	-1.5735	26.39	0.66	-1.500			
0.6670	42689.89	3.4550	3.4550	-1.5570	26.41	0.68	-1.500			
0.6717	42988.17	3.4520	3.4520	-1.5396	26.42	0.69	-1.500			
0.6763	43283.92	3.4490	3.4490	-1.5205	26.44	0.71	-1.500			
0.6809	43574.56	3.4460	3.4460	-1.4964	26.46	0.73	-1.500			
0.6853	43856.92	3.4430	3.4431	-1.4692	26.47	0.74	-1.500			
0.6897	44138.08	3.4400	3.4400	-1.4505	26.49	0.76	-1.500			
0.6939	44412.34	3.4370	3.4370	-1.4355	26.50	0.77	-1.500			
0.6982	44685.06	3.4340	3.4339	-1.4114	26.52	0.79	-1.500			
0.7024	44954.90	3.4310	3.4310	-1.3979	26.53	0.80	-1.500			
0.7066	45222.92	3.4280	3.4280	-1.3780	26.55	0.82	-1.500			
0.7107	45485.92	3.4250	3.4251	-1.3685	26.56	0.83	-1.500			
0.7148	45747.12	3.4220	3.4220	-1.3524	26.59	0.86	-1.500			
0.7188	46004.50	3.4190	3.4190	-1.3318	26.61	0.88	-1.500			
0.7228	46258.73	3.4160	3.4160	-1.3107	26.63	0.90	-1.500			
0.7267	46511.16	3.4130	3.4131	-1.2959	26.65	0.92	-1.500			
0.7306	46756.99	3.4100	3.4100	-1.2701	26.67	0.94	-1.500			
0.7344	46999.95	3.4070	3.4070	-1.2466	26.68	0.95	-1.500			
0.7381	47236.55	3.4040	3.4040	-1.2119	26.70	0.97	-1.500			
0.7417	47467.88	3.4010	3.4010	-1.1849	26.71	0.98	-1.500			
0.7452	47694.32	3.3980	3.3980	-1.1518	26.73	1.00	-1.500			
0.7486	47912.37	3.3950	3.3951	-1.1137	26.75	1.02	-1.500			
0.7519	48122.75	3.3920	3.3918	-1.0697	26.77	1.04	-1.500			
0.7551	48323.75	3.3890	3.3891	-1.0277	26.78	1.05	-1.500			
0.7580	48515.11	3.3860	3.3860	-0.9914	26.79	1.06	-1.500			
0.7610	48701.11	3.3830	3.3830	-0.9558	26.80	1.07	-1.500			
0.7638	48880.57	3.3800	3.3800	-0.9187	26.82	1.09	-1.500			
0.7665	49055.71	3.3770	3.3770	-0.8921	26.83	1.10	-1.500			
0.7691	49222.46	3.3740	3.3741	-0.8609	26.84	1.11	-1.500			
0.7717	49386.08	3.3710	3.3710	-0.8338	26.85	1.12	-1.500			
0.7741	49541.19	3.3680	3.3680	-0.8050	26.87	1.14	-1.500			
0.7764	49692.65	3.3650	3.3650	-0.7777	26.88	1.15	-1.500			
0.7788	49840.49	3.3620	3.3620	-0.7552	26.89	1.16	-1.500			
0.7810	49983.87	3.3590	3.3590	-0.7273	26.90	1.17	-1.500			
0.7831	50120.91	3.3560	3.3560	-0.7004	26.91	1.18	-1.500			
0.7852	50251.38	3.3530	3.3531	-0.6770	26.92	1.19	-1.500			
0.7872	50377.92	3.3500	3.3499	-0.6529	26.93	1.20	-1.500			
0.7891	50500.43	3.3470	3.3470	-0.6314	26.94	1.21	-1.500			
0.7909	50620.05	3.3440	3.3440	-0.6148	26.95	1.22	-1.500			
0.7928	50736.66	3.3410	3.3411	-0.5995	26.95	1.22	-1.500			
0.7945	50851.06	3.3380	3.3380	-0.5830	26.96	1.23	-1.500			
0.7963	50960.76	3.3350	3.3349	-0.5651	26.97	1.24	-1.500			
0.7979	51067.20	3.3320	3.3321	-0.5488	26.98	1.25	-1.500			
0.7995	51170.38	3.3290	3.3290	-0.5354	26.98	1.25	-1.500			
0.8011	51271.92	3.3260	3.3260	-0.5201	26.99	1.26	-1.500			
0.8027	51369.96	3.3230	3.3230	-0.5050	27.00	1.27	-1.500			
0.8042	51465.89	3.3200	3.3200	-0.4889	27.00	1.27	-1.500			
0.8056	51559.04	3.3170	3.3171	-0.4769	27.01	1.28	-1.500			
0.8070	51648.78	3.3140	3.3140	-0.4622	27.02	1.29	-1.500			
0.8084	51735.36	3.3110	3.3110	-0.4482	27.02	1.29	-1.500			
0.8097	51820.00	3.3080	3.3079	-0.4358	27.03	1.30	-1.500			
0.8110	51902.44	3.3050	3.3051	-0.4261	27.04	1.31	-1.500			
0.8122	51983.11	3.3020	3.3020	-0.4148	27.04	1.31	-1.500			
0.8135	52062.12	3.2990	3.2990	-0.4049	27.05	1.32	-1.500			
0.8147	52138.70	3.2960	3.2959	-0.3931	27.06	1.33	-1.500			
0.8158	52212.79	3.2930	3.2931	-0.3829	27.06	1.33	-1.500			
0.8170	52285.17	3.2900	3.2900	-0.3739	27.07	1.34	-1.500			
0.8181	52356.24	3.2870	3.2870	-0.3651	27.07	1.34	-1.500			
0.8191	52425.09	3.2840	3.2840	-0.3565	27.08	1.35	-1.500			
0.8202	52492.64	3.2810	3.2810	-0.3484	27.09	1.36	-1.500			
0.8212	52558.58	3.2780	3.2781	-0.3413	27.09	1.36	-1.500			
0.8222	52623.62	3.2750	3.2749	-0.3340	27.10	1.37	-1.500			
0.8232	52687.14	3.2720	3.2720	-0.3245	27.10	1.37	-1.500			
0.8242	52748.00	3.2690	3.2690	-0.3175	27.11	1.38	-1.500			
0.8251	52808.17	3.2660	3.2661	-0.3115	27.11	1.38	-1.500			
0.8261	52867.45	3.2630	3.2630	-0.3043	27.12	1.39	-1.500			
0.8270	52925.20	3.2600	3.2599	-0.2994	27.12	1.39	-1.500			
0.8278	52981.50	3.2570	3.2571	-0.2929	27.13	1.40	-1.500			
0.8287	53037.71	3.2540	3.2541	-0.2885	27.13	1.40	-1.500			
0.8296	53093.35	3.2510	3.2509	-0.2835	27.14	1.41	-1.500			
0.8304	53146.66	3.2480	3.2479	-0.2759	27.14	1.41	-1.500			
0.8312	53198.85	3.2450	3.2451	-0.2696	27.15	1.42	-1.500			
0.8320	53250.25	3.2420	3.2420	-0.2641	27.15	1.42	-1.500			
0.8328	53300.08	3.2390	3.2390	-0.2583	27.16	1.43	-1.500			
0.8336	53349.16	3.2360	3.2361	-0.2544	27.16	1.43	-1.500			
0.8343	53397.01	3.2330	3.2330	-0.2502	27.17	1.44	-1.500			
0.8351	53444.67	3.2300	3.2299	-0.2468	27.17	1.44	-1.500			
0.8358	53491.68	3.2270	3.2270	-0.2436	27.18	1.45	-1.500			
0.8365	53538.40	3.2240	3.2240	-0.2394	27.18	1.45	-1.500			
0.8372	53583.91	3.2210	3.2210	-0.2366	27.19	1.46	-1.500			
0.8380	53629.00	3.2180	3.2181	-0.2330	27.20	1.47	-1.500			
0.8386	53673.31	3.2150	3.2150	-0.2300	27.20	1.47	-1.500			
0.8393	53716.85	3.2120	3.2119	-0.2270	27.21	1.48	-1.500			
0.8400	53760.30	3.2090	3.2089	-0.2237	27.21	1.48	-1.500			
0.8407	53802.99	3.2060	3.2061	-0.2210	27.22	1.49	-1.500			
0.8413	53845.45	3.2030	3.2030	-0.2170	27.22	1.49	-1.500			
0.8420	53886.87	3.2000	3.2001	-0.2151	27.23	1.50	-1.500			
0.8426	53927.46	3.1970	3.1970	-0.2109	27.23	1.50	-1.500			
0.8432	53967.67	3.1940	3.1940	-0.2080	27.24	1.51	-1.500			
0.8439	54007.17	3.1910	3.1909	-0.2053	27.24	1.51	-1.500			
0.8445	54045.94	3.1880	3.1881	-0.2031	27.25	1.52	-1.500			
0.8451	54084.88	3.1850	3.1851	-0.2018	27.25	1.52	-1.500			
0.8457	54123.64	3.1820	3.1819	-0.1998	27.26	1.53	-1.500			
0.8463	54162.02	3.1790	3.1790	-0.1980	27.26	1.53	-1.500			
0.8469	54199.60	3.1760	3.1760	-0.1949	27.27	1.54	-1.500			
0.8475	54237.05	3.1730	3.1730	-0.1937	27.27	1.54	-1.500			
0.8480	54273.91	3.1700	3.1701	-0.1914	27.28	1.55	-1.500			
0.8486	54310.40	3.1670	3.1669	-0.1890	27.28	1.55	-1.500			
0.8492	54346.10	3.1640	3.1640	-0.1871	27.29	1.56	-1.500			
0.8497	54381.90	3.1610	3.1610	-0.1853	27.30	1.57	-1.500			
0.8503	54417.77	3.1580	3.1579	-0.1836	27.30	1.57	-1.500			
0.8508	54452.78	3.1550	3.1550	-0.1811	27.31	1.58	-1.500			
0.8514	54487.37	3.1520	3.1521	-0.1796	27.31	1.58	-1.500			
0.8519	54521.37	3.1490	3.1490	-0.1779	27.32	1.59	-1.500			
0.8524	54555.47	3.1460	3.1460	-0.1759	27.32	1.59	-1.500			
0.8530	54589.07	3.1430	3.1429	-0.1741	27.32	1.59	-1.500			
0.8535	54621.99	3.1400	3.1400	-0.1732	27.33	1.60	-1.500			
0.8540	54655.23	3.1370	3.1370	-0.1723	27.33	1.60	-1.500			
0.8545	54688.56	3.1340	3.1339	-0.1716	27.34	1.61	-1.500			
0.8550	54721.34	3.1310	3.1310	-0.1699	27.34	1.61	-1.500			
0.8555	54753.68	3.1280	3.1280	-0.1679	27.35	1.62	-1.500			
0.8560	54785.82	3.1250	3.1251	-0.1666	27.35	1.62	-1.500			
0.8565	54817.67	3.1220	3.1220	-0.1659	27.36	1.63	-1.500			
0.8570	54849.37	3.1190	3.1189	-0.1643	27.36	1.63	-1.500			
0.8575	54880.38	3.1160	3.1160	-0.1628	27.37	1.64	-1.500			
0.8580	54911.64	3.1130	3.1130	-0.1616	27.37	1.64	-1.500			
0.8585	54942.64	3.1100	3.1101	-0.1610	27.38	1.65	-1.500			
0.8590	54973.45	3.1070	3.1070	-0.1599	27.38	1.65	-1.500			
0.8594	55004.31	3.1040	3.1040	-0.1581	27.39	1.66	-1.500			
0.8599	55034.42	3.1010	3.1009	-0.1566	27.39	1.66	-1.500			
0.8604	55064.22	3.0980	3.0981	-0.1548	27.40	1.67	-1.500			
0.8608	55093.72	3.0950	3.0950	-0.1541	27.40	1.67	-1.500			
0.8613	55123.06	3.0920	3.0919	-0.1536	27.41	1.68	-1.500			
0.8618	55152.55	3.0890	3.0889	-0.1524	27.41	1.68	-1.500			
0.8622	55181.75	3.0860	3.0860	-0.1517	27.42	1.69	-1.500			
0.8627	55210.81	3.0830	3.0830	-0.1500	27.42	1.69	-1.500			
0.8631	55239.83	3.0800	3.0801	-0.1495	27.43	1.70	-1.500			
0.8636	55268.25	3.0770	3.0769	-0.1480	27.43	1.70	-1.500			
0.8640	55296.52	3.0740	3.0739	-0.1466	27.44	1.71	-1.500			
0.8644	55324.28	3.0710	3.0711	-0.1458	27.44	1.71	-1.500			
0.8649	55352.06	3.0680	3.0680	-0.1446	27.45	1.72	-1.500			
0.8653	55379.88	3.0650	3.0651	-0.1444	27.45	1.72	-1.500			
0.8657	55407.55	3.0620	3.0620	-0.1438	27.46	1.73	-1.500			
0.8662	55435.17	3.0590	3.0591	-0.1433	27.47	1.74	-1.500			
0.8666	55462.56	3.0560	3.0560	-0.1422	27.47	1.74	-1.500			
0.8670	55489.81	3.0530	3.0531	-0.1416	27.48	1.75	-1.500			
0.8675	55516.92	3.0500	3.0500	-0.1408	27.48	1.75	-1.500			
0.8679	55543.88	3.0470	3.0470	-0.1398	27.49	1.76	-1.500			
0.8683	55570.74	3.0440	3.0441	-0.1391	27.49	1.76	-1.500			
0.8687	55597.27	3.0410	3.0410	-0.1379	27.50	1.77	-1.500			
0.8691	55623.68	3.0380	3.0381	-0.1368	27.50	1.77	-1.500			
0.8695	55649.79	3.0350	3.0350	-0.1360	27.51	1.78	-1.500			
0.8699	55675.86	3.0320	3.0319	-0.1352	27.51	1.78	-1.500			
0.8703	55701.66	3.0290	3.0290	-0.1340	27.52	1.79	-1.500			
0.8707	55727.28	3.0260	3.0259	-0.1333	27.52	1.79	-1.500			
0.8711	55752.80	3.0230	3.0230	-0.1327	27.52	1.79	-1.500			
0.8715	55778.23	3.0200	3.0201	-0.1321	27.53	1.80	-1.500			
0.8719	55803.47	3.0170	3.0170	-0.1314	27.53	1.80	-1.500			
0.8723	55828.69	3.0140	3.0141	-0.1308	27.54	1.81	-1.500			
0.8727	55853.68	3.0110	3.0110	-0.1300	27.54	1.81	-1.500			
0.8731	55878.59	3.0080	3.0079	-0.1295	27.55	1.82	-1.500			
0.8735	55903.49	3.0050	3.0050	-0.1284	27.55	1.82	-1.500			
0.8739	55928.05	3.0020	3.0021	-0.1276	27.56	1.83	-1.500			
