Ah_balance (normalized)	Ah_balance (mAh)	Voltage - fit (V)	Voltage -  interpolate (V)	dQ/dV (1/V)	Temperature (°C)	Temperature - diff (°C)	Current (C)	R_DC 0ms (mOhm)	R_DC 50ms (mOhm)	R_DC 50 ms PEC (mOhm)
0.2800	17918.49	3.9920	3.9920	0.8395	27.31	1.35	1.500			
0.2825	18079.58	3.9890	3.9890	0.8381	27.31	1.35	1.500			
0.2850	18238.73	3.9860	3.9860	0.8358	27.30	1.34	1.500			
0.2875	18400.13	3.9830	3.9831	0.8397	27.30	1.34	1.500			
0.2900	18561.49	3.9800	3.9800	0.8436	27.29	1.33	1.500			
0.2926	18723.73	3.9770	3.9770	0.8453	27.28	1.32	1.500			
0.2951	18886.28	3.9740	3.9741	0.8507	27.28	1.32	1.500			
0.2977	19050.27	3.9710	3.9710	0.8523	27.27	1.31	1.500			
0.3002	19214.23	3.9680	3.9680	0.8572	27.26	1.30	1.500			
0.3028	19378.10	3.9650	3.9651	0.8630	27.26	1.30	1.500			
0.3054	19545.25	3.9620	3.9620	0.8662	27.25	1.29	1.500			
0.3080	19711.44	3.9590	3.9589	0.8709	27.25	1.29	1.500			
0.3106	19879.45	3.9560	3.9561	0.8733	27.24	1.28	1.500			
0.3132	20046.72	3.9530	3.9531	0.8766	27.23	1.27	1.500			
0.3159	20216.86	3.9500	3.9499	0.8797	27.23	1.27	1.500			
0.3185	20385.71	3.9470	3.9469	0.8767	27.22	1.26	1.500			
0.3211	20552.93	3.9440	3.9440	0.8794	27.21	1.25	1.500			
0.3238	20722.60	3.9410	3.9410	0.8859	27.21	1.25	1.500			
0.3264	20891.25	3.9380	3.9380	0.8918	27.20	1.24	1.500			
0.3291	21063.57	3.9350	3.9351	0.9020	27.20	1.24	1.500			
0.3318	21236.78	3.9320	3.9319	0.9085	27.19	1.23	1.500			
0.3346	21414.22	3.9290	3.9290	0.9131	27.18	1.22	1.500			
0.3373	21590.28	3.9260	3.9260	0.9212	27.18	1.22	1.500			
0.3401	21766.58	3.9230	3.9231	0.9229	27.17	1.21	1.500			
0.3429	21944.92	3.9200	3.9200	0.9275	27.16	1.20	1.500			
0.3457	22123.04	3.9170	3.9169	0.9281	27.16	1.20	1.500			
0.3485	22301.09	3.9140	3.9141	0.9378	27.15	1.19	1.500			
0.3513	22481.24	3.9110	3.9110	0.9477	27.14	1.18	1.500			
0.3541	22664.24	3.9080	3.9080	0.9563	27.14	1.18	1.500			
0.3570	22847.65	3.9050	3.9049	0.9605	27.13	1.17	1.500			
0.3599	23033.83	3.9020	3.9021	0.9734	27.12	1.16	1.500			
0.3629	23222.86	3.8990	3.8990	0.9810	27.11	1.15	1.500			
0.3658	23412.88	3.8960	3.8960	0.9858	27.10	1.14	1.500			
0.3688	23601.27	3.8930	3.8930	0.9927	27.09	1.13	1.500			
0.3718	23792.25	3.8900	3.8900	0.9992	27.08	1.12	1.500			
0.3748	23984.66	3.8870	3.8870	1.0098	27.07	1.11	1.500			
0.3778	24177.87	3.8840	3.8840	1.0206	27.06	1.10	1.500			
0.3808	24374.11	3.8810	3.8810	1.0325	27.05	1.09	1.500			
0.3840	24574.88	3.8780	3.8780	1.0488	27.04	1.08	1.500			
0.3872	24777.93	3.8750	3.8750	1.0585	27.03	1.07	1.500			
0.3903	24981.44	3.8720	3.8720	1.0705	27.03	1.07	1.500			
0.3936	25190.26	3.8690	3.8690	1.0811	27.02	1.06	1.500			
0.3969	25398.67	3.8660	3.8660	1.0917	27.01	1.05	1.500			
0.4001	25608.00	3.8630	3.8630	1.1016	27.00	1.04	1.500			
0.4034	25820.62	3.8600	3.8601	1.1164	26.99	1.03	1.500			
0.4068	26035.44	3.8570	3.8569	1.1320	26.98	1.02	1.500			
0.4102	26253.93	3.8540	3.8540	1.1507	26.97	1.01	1.500			
0.4137	26476.23	3.8510	3.8510	1.1630	26.96	1.00	1.500			
0.4172	26703.28	3.8480	3.8479	1.1795	26.95	0.99	1.500			
0.4208	26931.21	3.8450	3.8450	1.1932	26.93	0.97	1.500			
0.4244	27160.52	3.8420	3.8421	1.2092	26.92	0.96	1.500			
0.4280	27393.42	3.8390	3.8390	1.2274	26.91	0.95	1.500			
0.4317	27630.05	3.8360	3.8359	1.2441	26.90	0.94	1.500			
0.4355	27870.87	3.8330	3.8330	1.2661	26.89	0.93	1.500			
0.4393	28116.56	3.8300	3.8301	1.2942	26.87	0.91	1.500			
0.4432	28366.56	3.8270	3.8270	1.3154	26.86	0.90	1.500			
0.4472	28621.90	3.8240	3.8240	1.3391	26.85	0.89	1.500			
0.4513	28880.08	3.8210	3.8210	1.3610	26.84	0.88	1.500			
0.4554	29144.96	3.8180	3.8180	1.3847	26.82	0.86	1.500			
0.4596	29414.94	3.8150	3.8150	1.4046	26.81	0.85	1.500			
0.4638	29686.17	3.8120	3.8120	1.4222	26.80	0.84	1.500			
0.4681	29959.35	3.8090	3.8090	1.4457	26.78	0.82	1.500			
0.4725	30238.25	3.8060	3.8061	1.4654	26.77	0.81	1.500			
0.4769	30522.43	3.8030	3.8029	1.4924	26.75	0.79	1.500			
0.4814	30811.78	3.8000	3.8000	1.5220	26.74	0.78	1.500			
0.4861	31107.55	3.7970	3.7970	1.5514	26.72	0.76	1.500			
0.4908	31411.62	3.7940	3.7940	1.5704	26.71	0.75	1.500			
0.4955	31711.69	3.7910	3.7910	1.6009	26.69	0.73	1.500			
0.5003	32020.99	3.7880	3.7880	1.6244	26.67	0.71	1.500			
0.5052	32335.70	3.7850	3.7849	1.6465	26.65	0.69	1.500	0.346	0.486	
0.5103	32656.00	3.7820	3.7821	1.6768	26.64	0.68	1.500			
0.5153	32980.49	3.7790	3.7790	1.6801	26.62	0.66	1.500			
0.5205	33309.42	3.7760	3.7759	1.6852	26.61	0.65	1.500			
0.5254	33627.73	3.7730	3.7731	1.6762	26.60	0.64	1.500			
0.5305	33950.61	3.7700	3.7700	1.6857	26.58	0.62	1.500			
0.5355	34274.22	3.7670	3.7670	1.6872	26.57	0.61	1.500			
0.5406	34597.24	3.7640	3.7640	1.7003	26.55	0.59	1.500			
0.5457	34927.47	3.7610	3.7610	1.7162	26.53	0.57	1.500			
0.5509	35256.73	3.7580	3.7580	1.7292	26.52	0.56	1.500			
0.5561	35589.28	3.7550	3.7550	1.7395	26.50	0.54	1.500			
0.5613	35924.90	3.7520	3.7520	1.7589	26.49	0.53	1.500			
0.5666	36265.25	3.7490	3.7490	1.7616	26.47	0.51	1.500			
0.5719	36601.02	3.7460	3.7460	1.7991	26.46	0.50	1.500			
0.5773	36946.65	3.7430	3.7430	1.8323	26.44	0.48	1.500			
0.5829	37303.78	3.7400	3.7400	1.8811	26.43	0.47	1.500			
0.5886	37669.50	3.7370	3.7371	1.9137	26.41	0.45	1.500			
0.5945	38046.19	3.7340	3.7340	1.9503	26.39	0.43	1.500			
0.6003	38416.47	3.7310	3.7310	1.9774	26.38	0.42	1.500			
0.6062	38797.75	3.7280	3.7279	2.0435	26.36	0.40	1.500			
0.6125	39197.83	3.7250	3.7250	2.1036	26.35	0.39	1.500			
0.6189	39611.02	3.7220	3.7221	2.1803	26.33	0.37	1.500			
0.6255	40032.76	3.7190	3.7190	2.2383	26.31	0.35	1.500			
0.6323	40469.16	3.7160	3.7160	2.2953	26.30	0.34	1.500			
0.6393	40918.01	3.7130	3.7130	2.3259	26.27	0.31	1.500			
0.6464	41371.77	3.7100	3.7100	2.2793	26.25	0.29	1.500			
0.6532	41806.07	3.7070	3.7070	2.2106	26.23	0.27	1.500			
0.6598	42224.51	3.7040	3.7040	2.0752	26.21	0.25	1.500			
0.6658	42611.97	3.7010	3.7011	1.9470	26.20	0.24	1.500			
0.6714	42967.73	3.6980	3.6980	1.8161	26.18	0.22	1.500			
0.6766	43300.34	3.6950	3.6950	1.7008	26.17	0.21	1.500			
0.6814	43612.61	3.6920	3.6918	1.6077	26.16	0.20	1.500			
0.6861	43911.43	3.6890	3.6891	1.5343	26.15	0.19	1.500			
0.6906	44199.48	3.6860	3.6860	1.4672	26.14	0.18	1.500			
0.6949	44473.03	3.6830	3.6830	1.3998	26.13	0.17	1.500			
0.6989	44729.82	3.6800	3.6800	1.3478	26.12	0.16	1.500			
0.7029	44984.01	3.6770	3.6771	1.3168	26.11	0.15	1.500			
0.7067	45228.57	3.6740	3.6739	1.2917	26.10	0.14	1.500			
0.7105	45473.18	3.6710	3.6710	1.2790	26.09	0.13	1.500			
0.7143	45716.74	3.6680	3.6680	1.2698	26.08	0.12	1.500			
0.7182	45962.30	3.6650	3.6650	1.2680	26.07	0.11	1.500			
0.7220	46205.19	3.6620	3.6620	1.2622	26.06	0.10	1.500			
0.7257	46446.23	3.6590	3.6590	1.2559	26.05	0.09	1.500			
0.7295	46687.51	3.6560	3.6560	1.2519	26.04	0.08	1.500			
0.7332	46927.40	3.6530	3.6530	1.2473	26.04	0.08	1.500			
0.7370	47167.14	3.6500	3.6500	1.2389	26.03	0.07	1.500			
0.7407	47405.20	3.6470	3.6470	1.2281	26.02	0.06	1.500			
0.7444	47641.34	3.6440	3.6441	1.2132	26.01	0.05	1.500			
0.7480	47871.92	3.6410	3.6410	1.2024	26.00	0.04	1.500			
0.7516	48100.04	3.6380	3.6380	1.1962	25.99	0.03	1.500			
0.7551	48327.44	3.6350	3.6350	1.1851	25.98	0.02	1.500			
0.7587	48554.63	3.6320	3.6321	1.1753	25.98	0.02	1.500			
0.7622	48781.48	3.6290	3.6290	1.1702	25.97	0.01	1.500			
0.7657	49005.58	3.6260	3.6261	1.1584	25.97	0.01	1.500			
0.7692	49229.05	3.6230	3.6230	1.1448	25.96	0.00	1.500			
0.7726	49446.70	3.6200	3.6200	1.1292	25.96	0.00	1.500			
0.7760	49661.91	3.6170	3.6170	1.1077	25.96	-0.00	1.500			
0.7793	49874.03	3.6140	3.6140	1.0883	25.95	-0.01	1.500			
0.7825	50081.17	3.6110	3.6110	1.0635	25.95	-0.01	1.500			
0.7857	50283.27	3.6080	3.6080	1.0380	25.95	-0.01	1.500			
0.7888	50480.22	3.6050	3.6050	1.0118	25.95	-0.01	1.500			
0.7917	50671.90	3.6020	3.6020	0.9823	25.95	-0.01	1.500			
0.7947	50859.01	3.5990	3.5989	0.9477	25.96	-0.00	1.500			
0.7975	51040.38	3.5960	3.5960	0.9084	25.96	-0.00	1.500			
0.8002	51214.57	3.5930	3.5930	0.8636	25.96	-0.00	1.500			
0.8028	51377.00	3.5900	3.5900	0.8035	25.96	-0.00	1.500			
0.8051	51529.34	3.5870	3.5870	0.7332	25.96	-0.00	1.500			
0.8072	51663.96	3.5840	3.5841	0.6528	25.96	0.00	1.500			
0.8091	51782.40	3.5810	3.5810	0.5701	25.96	0.00	1.500			
0.8107	51882.47	3.5780	3.5780	0.4876	25.96	0.00	1.500			
0.8120	51965.38	3.5750	3.5750	0.4132	25.96	0.00	1.500			
0.8130	52034.28	3.5720	3.5719	0.3535	25.96	0.00	1.500			
0.8140	52092.95	3.5690	3.5689	0.3034	25.96	0.00	1.500			
0.8148	52144.40	3.5660	3.5660	0.2660	25.96	0.00	1.500			
0.8155	52189.88	3.5630	3.5630	0.2322	25.96	0.00	1.500			
0.8161	52230.80	3.5600	3.5599	0.2084	25.96	0.00	1.500			
0.8167	52266.79	3.5570	3.5570	0.1858	25.96	0.00	1.500			
0.8172	52300.44	3.5540	3.5541	0.1670	25.96	0.00	1.500			
0.8177	52330.48	3.5510	3.5509	0.1515	25.96	0.00	1.500			
0.8181	52357.42	3.5480	3.5480	0.1349	25.96	0.00	1.500			
0.8185	52381.54	3.5450	3.5449	0.1199	25.96	0.00	1.500			
0.8188	52402.94	3.5420	3.5420	0.1048	25.96	0.00	1.500			
0.8191	52421.72	3.5390	3.5391	0.0907	25.97	0.01	1.500			
0.8193	52437.88	3.5360	3.5361	0.0766	25.97	0.01	1.500			
0.8196	52451.60	3.5330	3.5332	0.0621	25.97	0.01	1.500			
0.8197	52462.08	3.5300	3.5306	0.0470	25.97	0.01	1.500			
0.8198	52469.66	3.5270	3.5280	0.0320	25.97	0.01	1.500			
