Ah_balance (normalized)	Ah_balance (mAh)	Voltage - fit (V)	Voltage -  interpolate (V)	dQ/dV (1/V)	Temperature (°C)	Temperature - diff (°C)	Current (C)	R_DC 0ms (mOhm)	R_DC 50ms (mOhm)	R_DC 50 ms PEC (mOhm)
0.2736	17512.16	3.9910	3.9910	0.7977	27.40	1.44	1.500			
0.2761	17669.31	3.9880	3.9879	0.8284	27.39	1.43	1.500			
0.2786	17831.94	3.9850	3.9850	0.8437	27.39	1.43	1.500			
0.2812	17995.83	3.9820	3.9821	0.8492	27.38	1.42	1.500			
0.2838	18161.36	3.9790	3.9790	0.8547	27.38	1.42	1.500			
0.2864	18326.65	3.9760	3.9759	0.8549	27.38	1.42	1.500			
0.2889	18489.46	3.9730	3.9730	0.8500	27.37	1.41	1.500			
0.2914	18651.41	3.9700	3.9700	0.8542	27.37	1.41	1.500			
0.2940	18814.19	3.9670	3.9670	0.8599	27.36	1.40	1.500			
0.2966	18980.52	3.9640	3.9639	0.8650	27.36	1.40	1.500			
0.2992	19147.68	3.9610	3.9610	0.8683	27.35	1.39	1.500			
0.3018	19314.69	3.9580	3.9580	0.8700	27.35	1.39	1.500			
0.3044	19483.10	3.9550	3.9551	0.8756	27.34	1.38	1.500			
0.3071	19651.23	3.9520	3.9519	0.8800	27.33	1.37	1.500			
0.3097	19818.03	3.9490	3.9490	0.8813	27.33	1.37	1.500			
0.3123	19989.07	3.9460	3.9460	0.8865	27.32	1.36	1.500			
0.3150	20160.33	3.9430	3.9430	0.8934	27.31	1.35	1.500			
0.3177	20332.42	3.9400	3.9401	0.8966	27.30	1.34	1.500			
0.3204	20505.36	3.9370	3.9370	0.8992	27.29	1.33	1.500			
0.3231	20677.23	3.9340	3.9340	0.9041	27.28	1.32	1.500			
0.3258	20849.28	3.9310	3.9310	0.9092	27.27	1.31	1.500			
0.3285	21025.29	3.9280	3.9280	0.9168	27.27	1.31	1.500			
0.3313	21203.55	3.9250	3.9250	0.9264	27.26	1.30	1.500			
0.3341	21381.69	3.9220	3.9220	0.9295	27.25	1.29	1.500			
0.3369	21560.52	3.9190	3.9191	0.9383	27.25	1.29	1.500			
0.3397	21741.51	3.9160	3.9160	0.9405	27.24	1.28	1.500			
0.3425	21921.74	3.9130	3.9129	0.9446	27.23	1.27	1.500			
0.3454	22102.70	3.9100	3.9101	0.9492	27.23	1.27	1.500			
0.3482	22285.87	3.9070	3.9069	0.9579	27.22	1.26	1.500			
0.3511	22471.23	3.9040	3.9040	0.9627	27.21	1.25	1.500			
0.3540	22656.43	3.9010	3.9010	0.9777	27.20	1.24	1.500			
0.3569	22843.89	3.8980	3.8981	0.9886	27.20	1.24	1.500			
0.3600	23037.02	3.8950	3.8949	0.9979	27.19	1.23	1.500			
0.3630	23228.94	3.8920	3.8922	1.0053	27.18	1.22	1.500			
0.3660	23424.03	3.8890	3.8890	1.0086	27.17	1.21	1.500			
0.3690	23616.22	3.8860	3.8860	1.0242	27.16	1.20	1.500			
0.3721	23814.27	3.8830	3.8830	1.0332	27.15	1.19	1.500			
0.3752	24010.93	3.8800	3.8800	1.0456	27.15	1.19	1.500			
0.3784	24214.76	3.8770	3.8771	1.0571	27.14	1.18	1.500			
0.3816	24420.78	3.8740	3.8740	1.0663	27.13	1.17	1.500			
0.3848	24626.98	3.8710	3.8710	1.0791	27.12	1.16	1.500			
0.3880	24835.00	3.8680	3.8680	1.0899	27.11	1.15	1.500			
0.3913	25042.50	3.8650	3.8650	1.0946	27.11	1.15	1.500			
0.3946	25254.68	3.8620	3.8620	1.1124	27.10	1.14	1.500			
0.3979	25467.94	3.8590	3.8590	1.1234	27.09	1.13	1.500			
0.4014	25687.09	3.8560	3.8560	1.1409	27.08	1.12	1.500			
0.4048	25908.47	3.8530	3.8530	1.1561	27.07	1.11	1.500			
0.4083	26129.56	3.8500	3.8500	1.1672	27.06	1.10	1.500			
0.4118	26354.92	3.8470	3.8470	1.1839	27.05	1.09	1.500			
0.4154	26583.83	3.8440	3.8440	1.1947	27.04	1.08	1.500			
0.4190	26814.39	3.8410	3.8410	1.2139	27.03	1.07	1.500			
0.4226	27048.71	3.8380	3.8381	1.2349	27.02	1.06	1.500			
0.4264	27286.72	3.8350	3.8349	1.2614	27.01	1.05	1.500			
0.4302	27532.46	3.8320	3.8321	1.2797	27.00	1.04	1.500			
0.4341	27780.34	3.8290	3.8289	1.3004	26.98	1.02	1.500			
0.4380	28033.67	3.8260	3.8260	1.3192	26.97	1.01	1.500			
0.4420	28287.03	3.8230	3.8231	1.3386	26.95	0.99	1.500			
0.4460	28546.15	3.8200	3.8200	1.3627	26.93	0.97	1.500			
0.4502	28810.02	3.8170	3.8170	1.3831	26.92	0.96	1.500			
0.4543	29077.56	3.8140	3.8141	1.4066	26.90	0.94	1.500			
0.4586	29351.94	3.8110	3.8110	1.4342	26.89	0.93	1.500			
0.4629	29628.17	3.8080	3.8080	1.4517	26.87	0.91	1.500			
0.4673	29906.80	3.8050	3.8050	1.4793	26.86	0.90	1.500			
0.4718	30194.20	3.8020	3.8020	1.5139	26.84	0.88	1.500			
0.4764	30489.07	3.7990	3.7989	1.5398	26.82	0.86	1.500			
0.4811	30789.46	3.7960	3.7961	1.5588	26.81	0.85	1.500			
0.4858	31091.45	3.7930	3.7930	1.5891	26.79	0.83	1.500			
0.4906	31396.62	3.7900	3.7900	1.6211	26.78	0.82	1.500			
0.4954	31708.69	3.7870	3.7869	1.6421	26.76	0.80	1.500			
0.5005	32029.08	3.7840	3.7839	1.6620	26.75	0.79	1.500	0.345	0.483	
0.5055	32353.76	3.7810	3.7811	1.6853	26.73	0.77	1.500			
0.5106	32679.56	3.7780	3.7780	1.6922	26.71	0.75	1.500			
0.5157	33001.69	3.7750	3.7750	1.6835	26.69	0.73	1.500			
0.5207	33324.44	3.7720	3.7720	1.6913	26.67	0.71	1.500			
0.5258	33649.46	3.7690	3.7690	1.7044	26.66	0.70	1.500			
0.5309	33975.89	3.7660	3.7660	1.7111	26.64	0.68	1.500			
0.5360	34305.91	3.7630	3.7630	1.7342	26.62	0.66	1.500			
0.5413	34642.96	3.7600	3.7600	1.7498	26.60	0.64	1.500			
0.5466	34979.40	3.7570	3.7570	1.7506	26.58	0.62	1.500			
0.5518	35315.21	3.7540	3.7539	1.7581	26.56	0.60	1.500			
0.5571	35655.33	3.7510	3.7510	1.7685	26.54	0.58	1.500			
0.5624	35994.48	3.7480	3.7480	1.7735	26.53	0.57	1.500			
0.5677	36334.99	3.7450	3.7450	1.8121	26.51	0.55	1.500			
0.5732	36682.65	3.7420	3.7420	1.8521	26.49	0.53	1.500			
0.5788	37041.02	3.7390	3.7391	1.9088	26.48	0.52	1.500			
0.5846	37414.81	3.7360	3.7360	1.9589	26.46	0.50	1.500			
0.5906	37796.40	3.7330	3.7330	2.0120	26.45	0.49	1.500			
0.5967	38187.68	3.7300	3.7300	2.0584	26.43	0.47	1.500			
0.6030	38589.08	3.7270	3.7270	2.1116	26.42	0.46	1.500			
0.6094	38999.56	3.7240	3.7240	2.1602	26.40	0.44	1.500			
0.6160	39421.68	3.7210	3.7210	2.2190	26.38	0.42	1.500			
0.6227	39851.41	3.7180	3.7181	2.2639	26.35	0.39	1.500			
0.6296	40292.90	3.7150	3.7150	2.3126	26.33	0.37	1.500			
0.6366	40743.19	3.7120	3.7120	2.3021	26.32	0.36	1.500			
0.6436	41188.12	3.7090	3.7090	2.2605	26.30	0.34	1.500			
0.6503	41619.45	3.7060	3.7059	2.1777	26.28	0.32	1.500			
0.6567	42030.67	3.7030	3.7031	2.0675	26.27	0.31	1.500			
0.6628	42418.99	3.7000	3.7000	1.9344	26.25	0.29	1.500			
0.6683	42773.99	3.6970	3.6970	1.8093	26.24	0.28	1.500			
0.6735	43102.55	3.6940	3.6940	1.6893	26.23	0.27	1.500			
0.6784	43414.92	3.6910	3.6909	1.5921	26.22	0.26	1.500			
0.6830	43709.02	3.6880	3.6880	1.5128	26.21	0.25	1.500			
0.6874	43991.91	3.6850	3.6850	1.4491	26.20	0.24	1.500			
0.6916	44262.12	3.6820	3.6820	1.3965	26.19	0.23	1.500			
0.6956	44520.51	3.6790	3.6790	1.3499	26.18	0.22	1.500			
0.6996	44773.49	3.6760	3.6761	1.3168	26.17	0.21	1.500			
0.7035	45022.09	3.6730	3.6729	1.2955	26.16	0.20	1.500			
0.7073	45266.23	3.6700	3.6700	1.2844	26.15	0.19	1.500			
0.7111	45508.34	3.6670	3.6671	1.2732	26.14	0.18	1.500			
0.7149	45753.49	3.6640	3.6639	1.2718	26.12	0.16	1.500			
0.7187	45996.89	3.6610	3.6610	1.2721	26.11	0.15	1.500			
0.7225	46240.88	3.6580	3.6580	1.2681	26.10	0.14	1.500			
0.7264	46486.72	3.6550	3.6549	1.2672	26.09	0.13	1.500			
0.7302	46730.80	3.6520	3.6520	1.2604	26.08	0.12	1.500			
0.7339	46972.16	3.6490	3.6490	1.2506	26.07	0.11	1.500			
0.7377	47212.76	3.6460	3.6461	1.2404	26.06	0.10	1.500			
0.7414	47449.88	3.6430	3.6430	1.2284	26.05	0.09	1.500			
0.7450	47682.56	3.6400	3.6400	1.2178	26.04	0.08	1.500			
0.7487	47915.62	3.6370	3.6370	1.2146	26.03	0.07	1.500			
0.7523	48147.74	3.6340	3.6339	1.2086	26.02	0.06	1.500			
0.7559	48379.03	3.6310	3.6310	1.2018	26.01	0.05	1.500			
0.7595	48610.73	3.6280	3.6280	1.1945	26.01	0.05	1.500			
0.7631	48839.84	3.6250	3.6250	1.1851	26.00	0.04	1.500			
0.7667	49067.15	3.6220	3.6220	1.1691	26.00	0.04	1.500			
0.7702	49290.97	3.6190	3.6190	1.1473	25.99	0.03	1.500			
0.7736	49510.58	3.6160	3.6160	1.1254	25.99	0.03	1.500			
0.7770	49725.44	3.6130	3.6130	1.0995	25.98	0.02	1.500			
0.7802	49933.95	3.6100	3.6100	1.0742	25.98	0.02	1.500			
0.7834	50137.22	3.6070	3.6070	1.0465	25.98	0.02	1.500			
0.7865	50334.42	3.6040	3.6040	1.0181	25.97	0.01	1.500			
0.7895	50527.94	3.6010	3.6010	0.9912	25.97	0.01	1.500			
0.7925	50717.50	3.5980	3.5980	0.9605	25.97	0.01	1.500			
0.7953	50900.44	3.5950	3.5950	0.9258	25.97	0.01	1.500			
0.7981	51078.43	3.5920	3.5919	0.8691	25.96	0.00	1.500			
0.8007	51244.32	3.5890	3.5890	0.8064	25.96	0.00	1.500			
0.8031	51396.03	3.5860	3.5860	0.7245	25.96	-0.00	1.500			
0.8051	51529.14	3.5830	3.5830	0.6377	25.96	-0.00	1.500			
0.8069	51639.87	3.5800	3.5800	0.5513	25.96	-0.00	1.500			
0.8083	51733.23	3.5770	3.5770	0.4731	25.96	-0.00	1.500			
0.8096	51812.09	3.5740	3.5739	0.3930	25.95	-0.01	1.500			
0.8106	51879.68	3.5710	3.5709	0.3414	25.95	-0.01	1.500			
0.8115	51935.48	3.5680	3.5680	0.2939	25.95	-0.01	1.500			
0.8123	51985.82	3.5650	3.5650	0.2597	25.95	-0.01	1.500			
0.8130	52030.75	3.5620	3.5620	0.2276	25.95	-0.01	1.500			
0.8136	52070.76	3.5590	3.5590	0.2046	25.95	-0.01	1.500			
0.8142	52106.49	3.5560	3.5560	0.1840	25.95	-0.01	1.500			
0.8147	52139.34	3.5530	3.5530	0.1647	25.95	-0.01	1.500			
0.8151	52169.17	3.5500	3.5499	0.1495	25.95	-0.01	1.500			
0.8156	52195.81	3.5470	3.5471	0.1335	25.95	-0.01	1.500			
0.8159	52219.93	3.5440	3.5440	0.1189	25.95	-0.01	1.500			
0.8163	52241.37	3.5410	3.5411	0.1044	25.95	-0.01	1.500			
0.8166	52260.03	3.5380	3.5380	0.0900	25.95	-0.01	1.500			
0.8168	52275.84	3.5350	3.5351	0.0755	25.95	-0.01	1.500			
0.8170	52289.08	3.5320	3.5325	0.0611	25.95	-0.01	1.500			
0.8172	52299.41	3.5290	3.5297	0.0465	25.95	-0.01	1.500			
0.8173	52306.94	3.5260	3.5271	0.0319	25.95	-0.01	1.500			
