Ah_balance (normalized)	Ah_balance (mAh)	Voltage - fit (V)	Voltage -  interpolate (V)	dQ/dV (1/V)	Temperature (°C)	Temperature - diff (°C)	Current (C)	R_DC 0ms (mOhm)	R_DC 50ms (mOhm)	R_DC 50 ms PEC (mOhm)
0.2881	18439.22	3.9880	3.9879	0.8419	27.27	1.29	1.500			
0.2906	18601.44	3.9850	3.9850	0.8458	27.27	1.29	1.500			
0.2932	18764.24	3.9820	3.9821	0.8491	27.26	1.28	1.500			
0.2957	18927.57	3.9790	3.9790	0.8521	27.26	1.28	1.500			
0.2983	19092.16	3.9760	3.9759	0.8539	27.25	1.27	1.500			
0.3009	19256.19	3.9730	3.9730	0.8527	27.25	1.27	1.500			
0.3034	19419.71	3.9700	3.9700	0.8537	27.24	1.26	1.500			
0.3060	19584.79	3.9670	3.9670	0.8557	27.24	1.26	1.500			
0.3086	19748.70	3.9640	3.9640	0.8610	27.24	1.26	1.500			
0.3112	19913.65	3.9610	3.9610	0.8615	27.23	1.25	1.500			
0.3137	20079.83	3.9580	3.9581	0.8613	27.23	1.25	1.500			
0.3163	20245.57	3.9550	3.9552	0.8668	27.22	1.24	1.500			
0.3189	20411.55	3.9520	3.9520	0.8733	27.22	1.24	1.500			
0.3216	20579.39	3.9490	3.9489	0.8778	27.22	1.24	1.500			
0.3242	20747.88	3.9460	3.9460	0.8804	27.21	1.23	1.500			
0.3268	20916.53	3.9430	3.9431	0.8859	27.21	1.23	1.500			
0.3295	21089.98	3.9400	3.9400	0.8915	27.20	1.22	1.500			
0.3322	21261.17	3.9370	3.9370	0.8966	27.20	1.22	1.500			
0.3349	21431.88	3.9340	3.9340	0.8994	27.19	1.21	1.500			
0.3376	21605.09	3.9310	3.9309	0.9041	27.19	1.21	1.500			
0.3403	21779.67	3.9280	3.9281	0.9102	27.19	1.21	1.500			
0.3430	21955.15	3.9250	3.9250	0.9144	27.18	1.20	1.500			
0.3458	22131.47	3.9220	3.9220	0.9174	27.18	1.20	1.500			
0.3486	22307.48	3.9190	3.9190	0.9228	27.17	1.19	1.500			
0.3513	22484.23	3.9160	3.9160	0.9300	27.17	1.19	1.500			
0.3541	22663.45	3.9130	3.9130	0.9345	27.16	1.18	1.500			
0.3569	22843.17	3.9100	3.9100	0.9470	27.16	1.18	1.500			
0.3598	23025.87	3.9070	3.9070	0.9553	27.15	1.17	1.500			
0.3627	23210.20	3.9040	3.9039	0.9634	27.15	1.17	1.500			
0.3656	23396.31	3.9010	3.9011	0.9717	27.14	1.16	1.500			
0.3685	23583.70	3.8980	3.8980	0.9778	27.14	1.16	1.500			
0.3714	23772.64	3.8950	3.8949	0.9848	27.13	1.15	1.500			
0.3744	23961.93	3.8920	3.8921	0.9928	27.13	1.15	1.500			
0.3774	24153.37	3.8890	3.8891	0.9969	27.12	1.14	1.500			
0.3804	24346.15	3.8860	3.8859	1.0116	27.11	1.13	1.500			
0.3835	24541.12	3.8830	3.8831	1.0204	27.11	1.13	1.500			
0.3865	24737.30	3.8800	3.8799	1.0293	27.10	1.12	1.500			
0.3896	24935.45	3.8770	3.8771	1.0396	27.10	1.12	1.500			
0.3927	25135.99	3.8740	3.8740	1.0514	27.09	1.11	1.500			
0.3959	25337.86	3.8710	3.8710	1.0658	27.08	1.10	1.500			
0.3991	25544.55	3.8680	3.8679	1.0805	27.07	1.09	1.500			
0.4024	25753.16	3.8650	3.8650	1.0917	27.06	1.08	1.500			
0.4057	25964.31	3.8620	3.8620	1.1076	27.06	1.08	1.500			
0.4090	26178.85	3.8590	3.8590	1.1224	27.05	1.07	1.500			
0.4124	26395.40	3.8560	3.8560	1.1381	27.04	1.06	1.500			
0.4158	26614.30	3.8530	3.8530	1.1522	27.03	1.05	1.500			
0.4193	26836.70	3.8500	3.8500	1.1699	27.02	1.04	1.500			
0.4229	27063.53	3.8470	3.8470	1.1885	27.02	1.04	1.500			
0.4265	27293.96	3.8440	3.8440	1.2030	27.01	1.03	1.500			
0.4301	27524.27	3.8410	3.8410	1.2232	27.00	1.02	1.500			
0.4338	27760.28	3.8380	3.8380	1.2454	26.99	1.01	1.500			
0.4375	28001.11	3.8350	3.8349	1.2694	26.98	1.00	1.500			
0.4414	28248.14	3.8320	3.8319	1.2889	26.97	0.99	1.500			
0.4453	28497.62	3.8290	3.8290	1.3118	26.96	0.98	1.500			
0.4493	28753.73	3.8260	3.8260	1.3333	26.95	0.97	1.500			
0.4533	29011.86	3.8230	3.8230	1.3466	26.94	0.96	1.500			
0.4574	29270.60	3.8200	3.8200	1.3645	26.93	0.95	1.500			
0.4615	29533.77	3.8170	3.8171	1.3943	26.92	0.94	1.500			
0.4657	29803.00	3.8140	3.8139	1.4176	26.91	0.93	1.500			
0.4700	30077.74	3.8110	3.8110	1.4501	26.90	0.92	1.500			
0.4744	30359.05	3.8080	3.8080	1.4684	26.88	0.90	1.500			
0.4788	30645.21	3.8050	3.8050	1.4994	26.87	0.89	1.500			
0.4834	30934.64	3.8020	3.8020	1.5302	26.85	0.87	1.500			
0.4880	31229.13	3.7990	3.7988	1.5618	26.84	0.86	1.500			
0.4927	31532.91	3.7960	3.7960	1.5874	26.83	0.85	1.500			
0.4975	31842.27	3.7930	3.7930	1.6115	26.82	0.84	1.500			
0.5025	32158.97	3.7900	3.7900	1.6366	26.80	0.82	1.500			
0.5073	32469.13	3.7870	3.7870	1.6578	26.79	0.81	1.500			
0.5123	32787.88	3.7840	3.7840	1.6878	26.78	0.80	1.500			
0.5175	33117.73	3.7810	3.7809	1.7081	26.76	0.78	1.500	0.347	0.471	
0.5227	33453.59	3.7780	3.7780	1.7259	26.75	0.77	1.500			
0.5279	33785.34	3.7750	3.7750	1.7249	26.73	0.75	1.500			
0.5330	34114.40	3.7720	3.7720	1.7312	26.71	0.73	1.500			
0.5382	34442.47	3.7690	3.7690	1.7273	26.70	0.72	1.500			
0.5434	34774.84	3.7660	3.7660	1.7448	26.68	0.70	1.500			
0.5487	35116.13	3.7630	3.7630	1.7510	26.66	0.68	1.500			
0.5539	35450.40	3.7600	3.7600	1.7443	26.65	0.67	1.500			
0.5591	35784.93	3.7570	3.7571	1.7532	26.63	0.65	1.500			
0.5644	36120.00	3.7540	3.7539	1.7660	26.62	0.64	1.500			
0.5697	36460.48	3.7510	3.7510	1.7849	26.60	0.62	1.500			
0.5751	36804.57	3.7480	3.7480	1.8130	26.59	0.61	1.500			
0.5805	37154.14	3.7450	3.7450	1.8286	26.57	0.59	1.500			
0.5860	37505.85	3.7420	3.7420	1.8570	26.55	0.57	1.500			
0.5916	37865.56	3.7390	3.7390	1.8915	26.54	0.56	1.500			
0.5974	38231.45	3.7360	3.7360	1.9205	26.52	0.54	1.500			
0.6032	38603.74	3.7330	3.7330	1.9846	26.50	0.52	1.500			
0.6092	38987.03	3.7300	3.7300	2.0408	26.48	0.50	1.500			
0.6154	39387.12	3.7270	3.7271	2.0943	26.46	0.48	1.500			
0.6219	39801.59	3.7240	3.7240	2.1435	26.44	0.46	1.500			
0.6284	40217.66	3.7210	3.7211	2.1970	26.42	0.44	1.500			
0.6350	40638.26	3.7180	3.7179	2.2478	26.40	0.42	1.500			
0.6418	41074.81	3.7150	3.7150	2.3223	26.38	0.40	1.500			
0.6490	41538.85	3.7120	3.7120	2.3711	26.36	0.38	1.500			
0.6563	42000.25	3.7090	3.7090	2.3890	26.34	0.36	1.500			
0.6635	42461.58	3.7060	3.7059	2.3481	26.32	0.34	1.500			
0.6705	42911.60	3.7030	3.7030	2.2449	26.30	0.32	1.500			
0.6772	43337.70	3.7000	3.7000	2.1345	26.28	0.30	1.500			
0.6834	43734.85	3.6970	3.6970	1.9761	26.26	0.28	1.500			
0.6890	44098.84	3.6940	3.6941	1.8299	26.25	0.27	1.500			
0.6942	44428.84	3.6910	3.6911	1.6933	26.23	0.25	1.500			
0.6991	44739.49	3.6880	3.6880	1.5750	26.22	0.24	1.500			
0.7035	45025.61	3.6850	3.6850	1.4936	26.21	0.23	1.500			
0.7079	45303.61	3.6820	3.6820	1.4323	26.20	0.22	1.500			
0.7120	45571.09	3.6790	3.6789	1.3884	26.19	0.21	1.500			
0.7162	45833.69	3.6760	3.6761	1.3501	26.18	0.20	1.500			
0.7201	46086.61	3.6730	3.6729	1.3176	26.17	0.19	1.500			
0.7240	46334.88	3.6700	3.6700	1.2942	26.16	0.18	1.500			
0.7278	46578.33	3.6670	3.6670	1.2789	26.15	0.17	1.500			
0.7316	46820.47	3.6640	3.6640	1.2742	26.14	0.16	1.500			
0.7354	47065.09	3.6610	3.6610	1.2747	26.13	0.15	1.500			
0.7392	47309.36	3.6580	3.6580	1.2787	26.12	0.14	1.500			
0.7431	47556.66	3.6550	3.6550	1.2860	26.10	0.12	1.500			
0.7470	47805.00	3.6520	3.6519	1.2844	26.09	0.11	1.500			
0.7508	48053.06	3.6490	3.6490	1.2744	26.08	0.10	1.500			
0.7546	48296.93	3.6460	3.6460	1.2651	26.07	0.09	1.500			
0.7584	48539.45	3.6430	3.6431	1.2575	26.06	0.08	1.500			
0.7622	48779.88	3.6400	3.6399	1.2486	26.05	0.07	1.500			
0.7659	49017.01	3.6370	3.6370	1.2365	26.04	0.06	1.500			
0.7696	49252.88	3.6340	3.6341	1.2317	26.03	0.05	1.500			
0.7733	49489.83	3.6310	3.6309	1.2278	26.02	0.04	1.500			
0.7769	49724.44	3.6280	3.6280	1.2159	26.02	0.04	1.500			
0.7806	49956.57	3.6250	3.6250	1.2075	26.01	0.03	1.500			
0.7842	50189.23	3.6220	3.6221	1.1936	26.00	0.02	1.500			
0.7878	50418.63	3.6190	3.6189	1.1832	25.99	0.01	1.500			
0.7913	50644.65	3.6160	3.6161	1.1679	25.99	0.01	1.500			
0.7948	50867.75	3.6130	3.6130	1.1470	25.98	0.00	1.500			
0.7982	51087.63	3.6100	3.6099	1.1260	25.98	-0.00	1.500			
0.8016	51301.78	3.6070	3.6070	1.0966	25.97	-0.01	1.500			
0.8048	51509.88	3.6040	3.6040	1.0749	25.97	-0.01	1.500			
0.8080	51713.90	3.6010	3.6010	1.0514	25.97	-0.01	1.500			
0.8111	51912.16	3.5980	3.5980	1.0235	25.96	-0.02	1.500			
0.8142	52106.70	3.5950	3.5950	0.9990	25.96	-0.02	1.500			
0.8172	52298.40	3.5920	3.5920	0.9701	25.96	-0.02	1.500			
0.8201	52484.89	3.5890	3.5890	0.9199	25.97	-0.01	1.500			
0.8229	52663.28	3.5860	3.5860	0.8600	25.97	-0.01	1.500			
0.8254	52826.40	3.5830	3.5830	0.7746	25.97	-0.01	1.500			
0.8276	52969.14	3.5800	3.5800	0.6813	25.97	-0.01	1.500			
0.8295	53090.43	3.5770	3.5771	0.5878	25.97	-0.01	1.500			
0.8311	53191.25	3.5740	3.5739	0.4957	25.97	-0.01	1.500			
0.8324	53273.29	3.5710	3.5709	0.4150	25.98	-0.00	1.500			
0.8335	53342.47	3.5680	3.5679	0.3551	25.98	-0.00	1.500			
0.8344	53400.95	3.5650	3.5650	0.3051	25.98	-0.00	1.500			
0.8352	53453.03	3.5620	3.5618	0.2677	25.98	-0.00	1.500			
0.8359	53498.24	3.5590	3.5589	0.2319	25.98	-0.00	1.500			
0.8365	53538.45	3.5560	3.5560	0.2084	25.98	-0.00	1.500			
0.8371	53574.38	3.5530	3.5530	0.1863	25.98	-0.00	1.500			
0.8376	53608.55	3.5500	3.5500	0.1690	25.98	-0.00	1.500			
0.8381	53639.02	3.5470	3.5470	0.1532	25.98	0.00	1.500			
0.8385	53666.21	3.5440	3.5440	0.1364	25.98	0.00	1.500			
0.8389	53690.72	3.5410	3.5410	0.1215	25.98	0.00	1.500			
0.8393	53712.49	3.5380	3.5381	0.1064	25.98	0.00	1.500			
0.8396	53731.52	3.5350	3.5351	0.0919	25.98	0.00	1.500			
0.8398	53747.71	3.5320	3.5321	0.0773	25.98	0.00	1.500			
0.8400	53761.38	3.5290	3.5292	0.0628	25.98	0.00	1.500			
0.8402	53772.00	3.5260	3.5265	0.0479	25.98	0.00	1.500			
0.8403	53779.77	3.5230	3.5239	0.0330	25.98	0.00	1.500			
