Ah_balance (normalized)	Ah_balance (mAh)	Voltage - fit (V)	Voltage -  interpolate (V)	dQ/dV (1/V)	Temperature (°C)	Temperature - diff (°C)	Current (C)	R_DC 0ms (mOhm)	R_DC 50ms (mOhm)	R_DC 50 ms PEC (mOhm)
0.2935	18783.55	3.9730	3.9730	0.8538	26.98	1.04	1.500			
0.2961	18951.69	3.9700	3.9700	0.8716	26.97	1.03	1.500			
0.2987	19118.46	3.9670	3.9669	0.8739	26.97	1.03	1.500			
0.3014	19286.56	3.9640	3.9640	0.8771	26.97	1.03	1.500			
0.3040	19455.46	3.9610	3.9611	0.8814	26.96	1.02	1.500			
0.3067	19626.16	3.9580	3.9580	0.8810	26.96	1.02	1.500			
0.3093	19794.41	3.9550	3.9550	0.8801	26.95	1.01	1.500			
0.3119	19962.81	3.9520	3.9521	0.8860	26.95	1.01	1.500			
0.3146	20133.26	3.9490	3.9490	0.8935	26.95	1.01	1.500			
0.3172	20303.54	3.9460	3.9459	0.8967	26.94	1.00	1.500			
0.3200	20477.62	3.9430	3.9430	0.9014	26.94	1.00	1.500			
0.3227	20651.08	3.9400	3.9400	0.9101	26.93	0.99	1.500			
0.3254	20828.32	3.9370	3.9370	0.9202	26.93	0.99	1.500			
0.3282	21005.15	3.9340	3.9340	0.9215	26.92	0.98	1.500			
0.3310	21181.62	3.9310	3.9310	0.9234	26.92	0.98	1.500			
0.3338	21360.01	3.9280	3.9280	0.9272	26.91	0.97	1.500			
0.3365	21537.81	3.9250	3.9250	0.9314	26.91	0.97	1.500			
0.3393	21717.08	3.9220	3.9220	0.9365	26.90	0.96	1.500			
0.3421	21896.62	3.9190	3.9189	0.9401	26.89	0.95	1.500			
0.3450	22079.02	3.9160	3.9160	0.9444	26.88	0.94	1.500			
0.3478	22260.99	3.9130	3.9130	0.9540	26.88	0.94	1.500			
0.3507	22444.66	3.9100	3.9100	0.9607	26.87	0.93	1.500			
0.3536	22629.55	3.9070	3.9071	0.9692	26.86	0.92	1.500			
0.3565	22815.11	3.9040	3.9041	0.9754	26.86	0.92	1.500			
0.3594	23003.56	3.9010	3.9010	0.9825	26.85	0.91	1.500			
0.3624	23192.29	3.8980	3.8980	0.9937	26.84	0.90	1.500			
0.3654	23383.89	3.8950	3.8950	1.0045	26.84	0.90	1.500			
0.3684	23578.80	3.8920	3.8920	1.0119	26.83	0.89	1.500			
0.3715	23774.24	3.8890	3.8890	1.0203	26.82	0.88	1.500			
0.3745	23970.53	3.8860	3.8861	1.0290	26.81	0.87	1.500			
0.3776	24169.05	3.8830	3.8830	1.0429	26.81	0.87	1.500			
0.3808	24370.12	3.8800	3.8800	1.0537	26.80	0.86	1.500			
0.3839	24572.60	3.8770	3.8770	1.0614	26.79	0.85	1.500			
0.3871	24777.40	3.8740	3.8741	1.0768	26.78	0.84	1.500			
0.3904	24986.67	3.8710	3.8710	1.0874	26.78	0.84	1.500			
0.3937	25197.49	3.8680	3.8679	1.0917	26.77	0.83	1.500			
0.3970	25406.03	3.8650	3.8650	1.1065	26.76	0.82	1.500			
0.4003	25617.77	3.8620	3.8621	1.1239	26.75	0.81	1.500			
0.4037	25835.30	3.8590	3.8589	1.1444	26.74	0.80	1.500			
0.4072	26058.79	3.8560	3.8561	1.1545	26.74	0.80	1.500			
0.4106	26281.12	3.8530	3.8530	1.1693	26.73	0.79	1.500			
0.4142	26507.67	3.8500	3.8501	1.1900	26.72	0.78	1.500			
0.4178	26740.23	3.8470	3.8469	1.1974	26.72	0.78	1.500			
0.4213	26966.23	3.8440	3.8439	1.2196	26.71	0.77	1.500			
0.4250	27202.76	3.8410	3.8410	1.2373	26.70	0.76	1.500			
0.4288	27441.86	3.8380	3.8380	1.2609	26.69	0.75	1.500			
0.4326	27688.13	3.8350	3.8351	1.2849	26.68	0.74	1.500			
0.4365	27935.52	3.8320	3.8321	1.3049	26.67	0.73	1.500			
0.4404	28188.41	3.8290	3.8290	1.3288	26.66	0.72	1.500			
0.4445	28445.30	3.8260	3.8260	1.3462	26.65	0.71	1.500			
0.4485	28705.33	3.8230	3.8230	1.3795	26.64	0.70	1.500			
0.4527	28972.85	3.8200	3.8200	1.4232	26.63	0.69	1.500			
0.4570	29248.72	3.8170	3.8169	1.4558	26.62	0.68	1.500			
0.4614	29532.49	3.8140	3.8140	1.4942	26.61	0.67	1.500			
0.4660	29823.92	3.8110	3.8110	1.5217	26.59	0.65	1.500			
0.4706	30119.19	3.8080	3.8080	1.5652	26.58	0.64	1.500			
0.4753	30421.44	3.8050	3.8050	1.6118	26.57	0.63	1.500			
0.4802	30732.99	3.8020	3.8020	1.6513	26.56	0.62	1.500			
0.4852	31052.35	3.7990	3.7990	1.7001	26.54	0.60	1.500			
0.4904	31387.93	3.7960	3.7961	1.7410	26.53	0.59	1.500			
0.4957	31727.04	3.7930	3.7930	1.7873	26.51	0.57	1.500			
0.5012	32073.83	3.7900	3.7900	1.8362	26.49	0.55	1.500			
0.5067	32426.43	3.7870	3.7870	1.8726	26.48	0.54	1.500			
0.5124	32792.62	3.7840	3.7840	1.9250	26.46	0.52	1.500			
0.5182	33165.87	3.7810	3.7811	1.9574	26.45	0.51	1.500			
0.5242	33546.48	3.7780	3.7780	1.9920	26.43	0.49	1.500			
0.5302	33929.71	3.7750	3.7749	2.0465	26.42	0.48	1.500			
0.5364	34329.74	3.7720	3.7720	2.0807	26.40	0.46	1.500			
0.5427	34734.63	3.7690	3.7691	2.1045	26.39	0.45	1.500			
0.5491	35140.79	3.7660	3.7659	2.1171	26.37	0.43	1.500			
0.5554	35546.68	3.7630	3.7629	2.1152	26.35	0.41	1.500	0.370	0.465	
0.5618	35953.65	3.7600	3.7600	2.1101	26.33	0.39	1.500			
0.5682	36365.29	3.7570	3.7571	2.0877	26.31	0.37	1.500			
0.5744	36759.74	3.7540	3.7540	2.0541	26.30	0.36	1.500			
0.5804	37147.51	3.7510	3.7509	2.0340	26.28	0.34	1.500			
0.5865	37533.86	3.7480	3.7480	2.0198	26.27	0.33	1.500			
0.5925	37923.08	3.7450	3.7450	2.0147	26.25	0.31	1.500			
0.5986	38308.36	3.7420	3.7421	2.0079	26.24	0.30	1.500			
0.6046	38692.57	3.7390	3.7389	2.0106	26.22	0.28	1.500			
0.6106	39078.23	3.7360	3.7360	2.0220	26.21	0.27	1.500			
0.6166	39463.12	3.7330	3.7330	2.0399	26.20	0.26	1.500			
0.6227	39855.72	3.7300	3.7301	2.0685	26.19	0.25	1.500			
0.6290	40255.43	3.7270	3.7270	2.1168	26.17	0.23	1.500			
0.6354	40667.53	3.7240	3.7240	2.1611	26.16	0.22	1.500			
0.6420	41087.30	3.7210	3.7210	2.2286	26.15	0.21	1.500			
0.6487	41518.74	3.7180	3.7180	2.2926	26.13	0.19	1.500			
0.6557	41963.16	3.7150	3.7150	2.3766	26.12	0.18	1.500			
0.6630	42430.34	3.7120	3.7120	2.4562	26.11	0.17	1.500			
0.6705	42912.81	3.7090	3.7090	2.5401	26.10	0.16	1.500			
0.6782	43406.91	3.7060	3.7060	2.6212	26.09	0.15	1.500			
0.6862	43917.09	3.7030	3.7030	2.6931	26.08	0.14	1.500			
0.6943	44437.40	3.7000	3.7000	2.7027	26.07	0.13	1.500			
0.7026	44965.90	3.6970	3.6970	2.6672	26.06	0.12	1.500			
0.7106	45481.15	3.6940	3.6940	2.5545	26.05	0.11	1.500			
0.7181	45956.46	3.6910	3.6910	2.3902	26.04	0.10	1.500			
0.7249	46396.73	3.6880	3.6881	2.1983	26.04	0.10	1.500			
0.7313	46801.29	3.6850	3.6849	2.0203	26.03	0.09	1.500			
0.7370	47170.98	3.6820	3.6821	1.8602	26.03	0.09	1.500			
0.7422	47501.65	3.6790	3.6791	1.7123	26.03	0.09	1.500			
0.7472	47818.07	3.6760	3.6760	1.6120	26.02	0.08	1.500			
0.7517	48106.98	3.6730	3.6730	1.5034	26.02	0.08	1.500			
0.7561	48388.57	3.6700	3.6700	1.4359	26.02	0.08	1.500			
0.7603	48657.37	3.6670	3.6670	1.3783	26.01	0.07	1.500			
0.7643	48915.38	3.6640	3.6640	1.3294	26.01	0.07	1.500			
0.7682	49162.26	3.6610	3.6611	1.2903	26.00	0.06	1.500			
0.7719	49403.01	3.6580	3.6580	1.2584	25.99	0.05	1.500			
0.7756	49636.40	3.6550	3.6549	1.2453	25.99	0.05	1.500			
0.7793	49873.88	3.6520	3.6520	1.2456	25.98	0.04	1.500			
0.7830	50110.91	3.6490	3.6490	1.2584	25.98	0.04	1.500			
0.7868	50353.01	3.6460	3.6460	1.2731	25.97	0.03	1.500			
0.7906	50599.70	3.6430	3.6430	1.2892	25.97	0.03	1.500			
0.7946	50851.76	3.6400	3.6400	1.3000	25.97	0.03	1.500			
0.7985	51103.94	3.6370	3.6370	1.3092	25.97	0.03	1.500			
0.8025	51357.05	3.6340	3.6340	1.3071	25.96	0.02	1.500			
0.8064	51609.74	3.6310	3.6310	1.3058	25.96	0.02	1.500			
0.8103	51858.33	3.6280	3.6280	1.3011	25.96	0.02	1.500			
0.8142	52106.59	3.6250	3.6250	1.2967	25.95	0.01	1.500			
0.8180	52354.34	3.6220	3.6220	1.2954	25.95	0.01	1.500			
0.8219	52603.96	3.6190	3.6190	1.2936	25.95	0.01	1.500			
0.8258	52852.59	3.6160	3.6160	1.2904	25.94	0.00	1.500			
0.8297	53101.43	3.6130	3.6129	1.2867	25.94	0.00	1.500			
0.8336	53348.96	3.6100	3.6100	1.2786	25.94	-0.00	1.500			
0.8374	53593.84	3.6070	3.6070	1.2669	25.93	-0.01	1.500			
0.8412	53837.18	3.6040	3.6040	1.2526	25.93	-0.01	1.500			
0.8449	54075.93	3.6010	3.6010	1.2374	25.93	-0.01	1.500			
0.8486	54313.30	3.5980	3.5980	1.2206	25.93	-0.01	1.500			
0.8523	54546.04	3.5950	3.5950	1.1950	25.92	-0.02	1.500			
0.8558	54772.37	3.5920	3.5920	1.1801	25.92	-0.02	1.500			
0.8593	54995.77	3.5890	3.5890	1.1677	25.92	-0.02	1.500			
0.8627	55215.50	3.5860	3.5860	1.1620	25.93	-0.01	1.500			
0.8662	55437.30	3.5830	3.5830	1.1628	25.93	-0.01	1.500			
0.8697	55660.06	3.5800	3.5800	1.1613	25.93	-0.01	1.500			
0.8733	55889.88	3.5770	3.5769	1.1400	25.93	-0.01	1.500			
0.8768	56117.86	3.5740	3.5740	1.1013	25.94	-0.00	1.500			
0.8802	56332.28	3.5710	3.5710	0.9996	25.94	-0.00	1.500			
0.8832	56526.05	3.5680	3.5681	0.8934	25.94	0.00	1.500			
0.8857	56687.25	3.5650	3.5651	0.7607	25.94	0.00	1.500			
0.8878	56817.96	3.5620	3.5620	0.6249	25.95	0.01	1.500			
0.8893	56914.11	3.5590	3.5589	0.5079	25.95	0.01	1.500			
0.8905	56994.99	3.5560	3.5560	0.4209	25.95	0.01	1.500			
0.8916	57062.36	3.5530	3.5529	0.3399	25.95	0.01	1.500			
0.8925	57119.29	3.5500	3.5500	0.2918	25.95	0.01	1.500			
0.8932	57166.29	3.5470	3.5469	0.2510	25.95	0.01	1.500			
0.8939	57208.58	3.5440	3.5438	0.2216	25.95	0.01	1.500			
0.8945	57246.35	3.5410	3.5410	0.1949	25.95	0.01	1.500			
0.8950	57280.88	3.5380	3.5380	0.1766	25.95	0.01	1.500			
0.8955	57312.70	3.5350	3.5351	0.1607	25.95	0.01	1.500			
0.8960	57341.65	3.5320	3.5320	0.1444	25.95	0.01	1.500			
0.8964	57367.81	3.5290	3.5290	0.1302	25.95	0.01	1.500			
0.8967	57391.29	3.5260	3.5260	0.1157	25.95	0.01	1.500			
0.8971	57411.98	3.5230	3.5230	0.1015	25.95	0.01	1.500			
0.8973	57430.29	3.5200	3.5200	0.0879	25.95	0.01	1.500			
0.8976	57445.83	3.5170	3.5171	0.0740	25.95	0.01	1.500			
0.8978	57458.68	3.5140	3.5144	0.0600	25.95	0.01	1.500			
0.8980	57468.88	3.5110	3.5117	0.0461	25.95	0.01	1.500			
