Ah_balance (normalized)	Ah_balance (mAh)	Voltage - fit (V)	Voltage -  interpolate (V)	dQ/dV (1/V)	Temperature (°C)	Temperature - diff (°C)	Current (C)	R_DC 0ms (mOhm)	R_DC 50ms (mOhm)	R_DC 50 ms PEC (mOhm)
0.1947	12461.78	3.9370	3.9370	-0.1163	25.68	0.00	-0.750			
0.1952	12489.80	3.9340	3.9339	-0.1697	25.68	0.00	-0.750			
0.1957	12527.28	3.9310	3.9309	-0.2182	25.68	0.00	-0.750			
0.1965	12574.49	3.9280	3.9280	-0.2644	25.68	0.00	-0.750			
0.1973	12629.85	3.9250	3.9250	-0.3099	25.68	0.00	-0.750			
0.1984	12694.52	3.9220	3.9220	-0.3550	25.68	0.00	-0.750			
0.1995	12767.36	3.9190	3.9191	-0.3960	25.68	0.00	-0.750			
0.2007	12847.89	3.9160	3.9160	-0.4362	25.68	0.00	-0.750			
0.2021	12935.56	3.9130	3.9130	-0.4751	25.68	0.00	-0.750			
0.2036	13031.10	3.9100	3.9100	-0.5092	25.68	0.00	-0.750			
0.2052	13132.93	3.9070	3.9070	-0.5394	25.68	0.00	-0.750			
0.2069	13240.44	3.9040	3.9040	-0.5652	25.68	0.00	-0.750			
0.2086	13352.89	3.9010	3.9010	-0.5908	25.68	0.00	-0.750			
0.2105	13469.47	3.8980	3.8980	-0.6079	25.68	0.00	-0.750			
0.2123	13587.84	3.8950	3.8950	-0.6237	25.68	0.00	-0.750			
0.2142	13709.18	3.8920	3.8920	-0.6387	25.68	-0.00	-0.750			
0.2162	13833.98	3.8890	3.8890	-0.6517	25.68	-0.00	-0.750			
0.2181	13961.00	3.8860	3.8860	-0.6623	25.68	-0.00	-0.750			
0.2201	14089.16	3.8830	3.8830	-0.6702	25.67	-0.01	-0.750			
0.2222	14219.37	3.8800	3.8800	-0.6764	25.67	-0.01	-0.750			
0.2242	14350.48	3.8770	3.8769	-0.6822	25.67	-0.01	-0.750			
0.2263	14481.83	3.8740	3.8742	-0.6848	25.67	-0.01	-0.750			
0.2283	14613.27	3.8710	3.8710	-0.6893	25.67	-0.01	-0.750			
0.2304	14746.71	3.8680	3.8680	-0.6925	25.67	-0.01	-0.750			
0.2325	14879.67	3.8650	3.8650	-0.6955	25.66	-0.02	-0.750			
0.2346	15013.11	3.8620	3.8620	-0.6988	25.66	-0.02	-0.750			
0.2367	15147.66	3.8590	3.8590	-0.7027	25.66	-0.02	-0.750			
0.2388	15283.21	3.8560	3.8560	-0.7040	25.66	-0.02	-0.750			
0.2409	15418.61	3.8530	3.8530	-0.7064	25.66	-0.02	-0.750			
0.2431	15555.26	3.8500	3.8500	-0.7055	25.66	-0.02	-0.750			
0.2452	15691.05	3.8470	3.8470	-0.7067	25.66	-0.02	-0.750			
0.2473	15826.06	3.8440	3.8440	-0.7050	25.66	-0.02	-0.750			
0.2494	15961.43	3.8410	3.8410	-0.7042	25.66	-0.02	-0.750			
0.2515	16097.02	3.8380	3.8380	-0.7034	25.66	-0.02	-0.750			
0.2536	16232.03	3.8350	3.8350	-0.7040	25.66	-0.02	-0.750			
0.2557	16366.58	3.8320	3.8320	-0.7037	25.66	-0.02	-0.750			
0.2578	16502.10	3.8290	3.8290	-0.7053	25.67	-0.01	-0.750			
0.2600	16637.02	3.8260	3.8259	-0.7035	25.67	-0.01	-0.750			
0.2621	16772.82	3.8230	3.8230	-0.7023	25.67	-0.01	-0.750			
0.2642	16907.74	3.8200	3.8200	-0.7037	25.67	-0.01	-0.750			
0.2663	17042.72	3.8170	3.8170	-0.7025	25.67	-0.01	-0.750			
0.2684	17176.70	3.8140	3.8140	-0.7034	25.67	-0.01	-0.750			
0.2705	17312.69	3.8110	3.8110	-0.7019	25.68	-0.00	-0.750			
0.2726	17447.26	3.8080	3.8080	-0.7012	25.68	-0.00	-0.750			
0.2747	17582.16	3.8050	3.8050	-0.7006	25.68	-0.00	-0.750			
0.2768	17717.58	3.8020	3.8020	-0.6993	25.68	0.00	-0.750			
0.2789	17850.37	3.7990	3.7990	-0.6982	25.68	0.00	-0.750			
0.2810	17983.50	3.7960	3.7960	-0.7003	25.68	0.00	-0.750			
0.2831	18117.63	3.7930	3.7930	-0.6989	25.69	0.01	-0.750			
0.2852	18253.51	3.7900	3.7900	-0.7037	25.69	0.01	-0.750			
0.2873	18388.62	3.7870	3.7870	-0.7040	25.69	0.01	-0.750			
0.2894	18524.42	3.7840	3.7840	-0.7047	25.69	0.01	-0.750			
0.2916	18659.70	3.7810	3.7810	-0.7068	25.69	0.01	-0.750			
0.2937	18793.88	3.7780	3.7780	-0.7091	25.69	0.01	-0.750			
0.2958	18929.94	3.7750	3.7750	-0.7105	25.70	0.02	-0.750			
0.2979	19067.67	3.7720	3.7720	-0.7161	25.70	0.02	-0.750			
0.3001	19205.67	3.7690	3.7689	-0.7200	25.70	0.02	-0.750			
0.3023	19344.27	3.7660	3.7660	-0.7235	25.70	0.02	-0.750			
0.3044	19483.72	3.7630	3.7630	-0.7272	25.71	0.03	-0.750			
0.3066	19622.98	3.7600	3.7600	-0.7295	25.71	0.03	-0.750			
0.3088	19763.41	3.7570	3.7570	-0.7322	25.71	0.03	-0.750			
0.3110	19905.13	3.7540	3.7540	-0.7383	25.72	0.04	-0.750			
0.3132	20046.33	3.7510	3.7510	-0.7437	25.72	0.04	-0.750			
0.3155	20189.27	3.7480	3.7480	-0.7493	25.72	0.04	-0.750			
0.3177	20332.35	3.7450	3.7450	-0.7588	25.72	0.04	-0.750			
0.3200	20479.30	3.7420	3.7420	-0.7669	25.72	0.04	-0.750			
0.3223	20627.67	3.7390	3.7390	-0.7768	25.72	0.04	-0.750			
0.3247	20778.63	3.7360	3.7360	-0.7862	25.72	0.04	-0.750			
0.3270	20930.98	3.7330	3.7330	-0.7911	25.72	0.04	-0.750			
0.3294	21081.74	3.7300	3.7300	-0.8004	25.72	0.04	-0.750			
0.3318	21236.72	3.7270	3.7270	-0.8096	25.72	0.04	-0.750			
0.3342	21391.94	3.7240	3.7240	-0.8146	25.72	0.04	-0.750			
0.3367	21550.33	3.7210	3.7209	-0.8251	25.72	0.04	-0.750			
0.3392	21708.89	3.7180	3.7182	-0.8333	25.72	0.04	-0.750			
0.3417	21869.59	3.7150	3.7150	-0.8455	25.72	0.04	-0.750			
0.3443	22034.14	3.7120	3.7120	-0.8591	25.72	0.04	-0.750			
0.3469	22199.38	3.7090	3.7089	-0.8676	25.71	0.03	-0.750			
0.3495	22367.28	3.7060	3.7060	-0.8810	25.71	0.03	-0.750			
0.3522	22537.61	3.7030	3.7031	-0.8934	25.71	0.03	-0.750			
0.3549	22710.54	3.7000	3.6999	-0.9095	25.71	0.03	-0.750			
0.3576	22886.03	3.6970	3.6970	-0.9227	25.70	0.02	-0.750			
0.3604	23062.78	3.6940	3.6940	-0.9337	25.70	0.02	-0.750			
0.3632	23245.08	3.6910	3.6911	-0.9535	25.70	0.02	-0.750			
0.3661	23429.30	3.6880	3.6880	-0.9720	25.70	0.02	-0.750			
0.3690	23617.57	3.6850	3.6849	-0.9875	25.70	0.02	-0.750			
0.3720	23807.89	3.6820	3.6820	-1.0041	25.69	0.01	-0.750			
0.3750	24001.60	3.6790	3.6790	-1.0253	25.69	0.01	-0.750			
0.3781	24201.37	3.6760	3.6760	-1.0496	25.69	0.01	-0.750			
0.3813	24404.78	3.6730	3.6730	-1.0740	25.69	0.01	-0.750			
0.3846	24612.39	3.6700	3.6699	-1.0940	25.68	0.00	-0.750			
0.3879	24823.54	3.6670	3.6670	-1.1170	25.68	0.00	-0.750			
0.3913	25042.40	3.6640	3.6640	-1.1513	25.68	-0.00	-0.750			
0.3948	25266.22	3.6610	3.6609	-1.1719	25.68	-0.00	-0.750			
0.3983	25493.47	3.6580	3.6580	-1.1972	25.67	-0.01	-0.750			
0.4020	25726.07	3.6550	3.6551	-1.2253	25.67	-0.01	-0.750			
0.4057	25963.74	3.6520	3.6518	-1.2496	25.66	-0.02	-0.750			
0.4095	26206.20	3.6490	3.6490	-1.2779	25.66	-0.02	-0.750			
0.4133	26451.67	3.6460	3.6460	-1.3051	25.65	-0.03	-0.750			
0.4173	26707.07	3.6430	3.6430	-1.3378	25.65	-0.03	-0.750			
0.4214	26967.65	3.6400	3.6399	-1.3658	25.64	-0.04	-0.750			
0.4255	27230.52	3.6370	3.6371	-1.3970	25.64	-0.04	-0.750			
0.4297	27502.45	3.6340	3.6340	-1.4297	25.63	-0.05	-0.750			
0.4341	27779.98	3.6310	3.6310	-1.4681	25.63	-0.05	-0.750			
0.4385	28065.15	3.6280	3.6281	-1.5025	25.62	-0.06	-0.750			
0.4431	28357.37	3.6250	3.6250	-1.5317	25.62	-0.06	-0.750			
0.4478	28658.33	3.6220	3.6219	-1.5624	25.62	-0.06	-0.750			
0.4525	28960.62	3.6190	3.6190	-1.5862	25.62	-0.06	-0.750			
0.4573	29266.36	3.6160	3.6161	-1.6123	25.61	-0.07	-0.750			
0.4621	29576.70	3.6130	3.6130	-1.6341	25.60	-0.08	-0.750			
0.4670	29887.17	3.6100	3.6100	-1.6809	25.60	-0.08	-0.750			
0.4722	30218.53	3.6070	3.6069	-1.7136	25.60	-0.08	-0.750			
0.4774	30554.73	3.6040	3.6040	-1.7519	25.60	-0.08	-0.750			
0.4827	30894.55	3.6010	3.6011	-1.7799	25.59	-0.09	-0.750			
0.4881	31238.45	3.5980	3.5979	-1.8223	25.58	-0.10	-0.750			
0.4936	31588.91	3.5950	3.5950	-1.8490	25.58	-0.10	-0.750			
0.4992	31947.31	3.5920	3.5918	-1.8922	25.58	-0.10	-0.750			
0.5049	32311.87	3.5890	3.5890	-1.9206	25.58	-0.10	-0.750			
0.5108	32690.71	3.5860	3.5860	-1.9495	25.57	-0.11	-0.750			
0.5167	33069.27	3.5830	3.5831	-1.9800	25.57	-0.11	-0.750			
0.5226	33446.02	3.5800	3.5800	-1.9851	25.57	-0.11	-0.750			
0.5286	33827.21	3.5770	3.5770	-2.0149	25.57	-0.11	-0.750			
0.5346	34216.52	3.5740	3.5741	-2.0428	25.58	-0.10	-0.750	0.394	0.552	
0.5409	34614.77	3.5710	3.5710	-2.0696	25.58	-0.10	-0.750			
0.5472	35018.17	3.5680	3.5680	-2.0953	25.58	-0.10	-0.750			
0.5535	35421.95	3.5650	3.5650	-2.1235	25.58	-0.10	-0.750			
0.5598	35828.98	3.5620	3.5619	-2.1268	25.58	-0.10	-0.750			
0.5663	36244.16	3.5590	3.5589	-2.1323	25.58	-0.10	-0.750			
0.5727	36652.99	3.5560	3.5561	-2.1217	25.58	-0.10	-0.750			
0.5791	37059.52	3.5530	3.5531	-2.1168	25.58	-0.10	-0.750			
0.5854	37465.19	3.5500	3.5499	-2.1083	25.58	-0.10	-0.750			
0.5916	37861.84	3.5470	3.5470	-2.1020	25.58	-0.10	-0.750			
0.5979	38267.23	3.5440	3.5440	-2.1052	25.59	-0.09	-0.750			
0.6043	38676.88	3.5410	3.5408	-2.1033	25.59	-0.09	-0.750			
0.6106	39078.92	3.5380	3.5382	-2.0651	25.60	-0.08	-0.750			
0.6168	39477.06	3.5350	3.5351	-2.0300	25.60	-0.08	-0.750			
0.6229	39862.54	3.5320	3.5320	-2.0018	25.60	-0.08	-0.750			
0.6287	40236.11	3.5290	3.5290	-1.9489	25.60	-0.08	-0.750			
0.6346	40611.89	3.5260	3.5259	-1.9112	25.61	-0.07	-0.750			
0.6403	40977.29	3.5230	3.5231	-1.8786	25.61	-0.07	-0.750			
0.6459	41336.08	3.5200	3.5200	-1.8368	25.62	-0.06	-0.750			
0.6513	41685.29	3.5170	3.5170	-1.7902	25.62	-0.06	-0.750			
0.6565	42018.86	3.5140	3.5140	-1.7345	25.63	-0.05	-0.750			
0.6617	42350.41	3.5110	3.5110	-1.6948	25.64	-0.04	-0.750			
0.6667	42671.48	3.5080	3.5081	-1.6458	25.65	-0.03	-0.750			
0.6716	42985.43	3.5050	3.5049	-1.6021	25.67	-0.01	-0.750			
0.6763	43286.20	3.5020	3.5022	-1.5537	25.68	0.00	-0.750			
0.6809	43579.69	3.4990	3.4990	-1.5081	25.69	0.01	-0.750			
0.6854	43865.91	3.4960	3.4960	-1.4679	25.69	0.01	-0.750			
0.6897	44141.74	3.4930	3.4930	-1.4239	25.70	0.02	-0.750			
0.6940	44413.32	3.4900	3.4899	-1.3809	25.72	0.04	-0.750			
0.6980	44673.94	3.4870	3.4870	-1.3369	25.73	0.05	-0.750			
0.7020	44925.59	3.4840	3.4841	-1.2957	25.74	0.06	-0.750			
0.7058	45170.12	3.4810	3.4809	-1.2572	25.75	0.07	-0.750			
0.7095	45406.44	3.4780	3.4780	-1.2214	25.76	0.08	-0.750			
0.7130	45634.47	3.4750	3.4751	-1.1869	25.77	0.09	-0.750			
0.7166	45860.52	3.4720	3.4720	-1.1663	25.78	0.10	-0.750			
0.7200	46081.35	3.4690	3.4690	-1.1415	25.79	0.11	-0.750			
0.7234	46296.44	3.4660	3.4660	-1.1179	25.79	0.11	-0.750			
0.7267	46507.91	3.4630	3.4631	-1.1075	25.80	0.12	-0.750			
0.7300	46719.38	3.4600	3.4601	-1.0959	25.81	0.13	-0.750			
0.7333	46928.04	3.4570	3.4569	-1.0897	25.81	0.13	-0.750			
0.7365	47134.67	3.4540	3.4540	-1.0864	25.82	0.14	-0.750			
0.7397	47342.83	3.4510	3.4510	-1.0875	25.82	0.14	-0.750			
0.7430	47552.76	3.4480	3.4479	-1.0846	25.83	0.15	-0.750			
0.7463	47762.41	3.4450	3.4450	-1.0799	25.84	0.16	-0.750			
0.7495	47970.05	3.4420	3.4420	-1.0702	25.85	0.17	-0.750			
0.7527	48174.55	3.4390	3.4390	-1.0650	25.85	0.17	-0.750			
0.7559	48376.75	3.4360	3.4360	-1.0559	25.86	0.18	-0.750			
0.7590	48578.77	3.4330	3.4329	-1.0479	25.86	0.18	-0.750			
0.7622	48778.97	3.4300	3.4300	-1.0424	25.87	0.19	-0.750			
0.7653	48979.38	3.4270	3.4271	-1.0389	25.87	0.19	-0.750			
0.7685	49181.64	3.4240	3.4239	-1.0266	25.88	0.20	-0.750			
0.7715	49378.41	3.4210	3.4210	-1.0101	25.88	0.20	-0.750			
0.7745	49569.61	3.4180	3.4180	-0.9875	25.89	0.21	-0.750			
0.7775	49758.05	3.4150	3.4150	-0.9682	25.89	0.21	-0.750			
0.7804	49942.64	3.4120	3.4119	-0.9508	25.90	0.22	-0.750			
0.7832	50123.11	3.4090	3.4090	-0.9249	25.91	0.23	-0.750			
0.7859	50298.90	3.4060	3.4060	-0.9026	25.91	0.23	-0.750			
0.7886	50470.37	3.4030	3.4032	-0.8835	25.92	0.24	-0.750			
0.7912	50638.73	3.4000	3.4000	-0.8549	25.92	0.24	-0.750			
0.7938	50800.91	3.3970	3.3969	-0.8265	25.93	0.25	-0.750			
0.7962	50956.39	3.3940	3.3940	-0.7976	25.93	0.25	-0.750			
0.7986	51107.73	3.3910	3.3912	-0.7694	25.94	0.26	-0.750			
0.8008	51251.81	3.3880	3.3880	-0.7401	25.94	0.26	-0.750			
0.8030	51390.07	3.3850	3.3850	-0.7096	25.94	0.26	-0.750			
0.8050	51523.02	3.3820	3.3819	-0.6820	25.95	0.27	-0.750			
0.8071	51652.23	3.3790	3.3790	-0.6606	25.95	0.27	-0.750			
0.8090	51776.47	3.3760	3.3760	-0.6311	25.96	0.28	-0.750			
0.8109	51896.05	3.3730	3.3730	-0.6026	25.96	0.28	-0.750			
0.8126	52009.26	3.3700	3.3700	-0.5766	25.97	0.29	-0.750			
0.8143	52116.44	3.3670	3.3670	-0.5461	25.97	0.29	-0.750			
0.8159	52218.20	3.3640	3.3640	-0.5225	25.98	0.30	-0.750			
0.8174	52315.26	3.3610	3.3610	-0.4962	25.98	0.30	-0.750			
0.8189	52407.68	3.3580	3.3580	-0.4714	25.98	0.30	-0.750			
0.8203	52496.55	3.3550	3.3550	-0.4511	25.99	0.31	-0.750			
0.8216	52580.49	3.3520	3.3521	-0.4322	25.99	0.31	-0.750			
0.8228	52660.66	3.3490	3.3490	-0.4122	25.99	0.31	-0.750			
0.8240	52737.91	3.3460	3.3459	-0.3943	25.99	0.31	-0.750			
0.8252	52811.36	3.3430	3.3430	-0.3771	26.00	0.32	-0.750			
0.8263	52882.41	3.3400	3.3401	-0.3636	26.00	0.32	-0.750			
0.8274	52950.74	3.3370	3.3369	-0.3492	26.00	0.32	-0.750			
0.8284	53015.82	3.3340	3.3340	-0.3353	26.01	0.33	-0.750			
0.8294	53078.69	3.3310	3.3309	-0.3225	26.01	0.33	-0.750			
0.8303	53139.17	3.3280	3.3281	-0.3122	26.02	0.34	-0.750			
0.8312	53198.08	3.3250	3.3250	-0.3031	26.02	0.34	-0.750			
0.8321	53254.76	3.3220	3.3220	-0.2939	26.02	0.34	-0.750			
0.8330	53310.43	3.3190	3.3190	-0.2849	26.03	0.35	-0.750			
0.8338	53364.20	3.3160	3.3160	-0.2769	26.03	0.35	-0.750			
0.8346	53416.63	3.3130	3.3131	-0.2690	26.03	0.35	-0.750			
0.8354	53467.78	3.3100	3.3100	-0.2612	26.04	0.36	-0.750			
0.8362	53516.65	3.3070	3.3069	-0.2537	26.04	0.36	-0.750			
0.8369	53564.04	3.3040	3.3040	-0.2465	26.04	0.36	-0.750			
0.8377	53610.56	3.3010	3.3010	-0.2412	26.05	0.37	-0.750			
0.8384	53656.43	3.2980	3.2979	-0.2367	26.05	0.37	-0.750			
0.8391	53701.56	3.2950	3.2950	-0.2316	26.05	0.37	-0.750			
0.8398	53745.46	3.2920	3.2920	-0.2263	26.06	0.38	-0.750			
0.8404	53788.46	3.2890	3.2890	-0.2221	26.06	0.38	-0.750			
0.8411	53830.64	3.2860	3.2860	-0.2172	26.06	0.38	-0.750			
0.8417	53871.66	3.2830	3.2830	-0.2136	26.07	0.39	-0.750			
0.8424	53912.05	3.2800	3.2800	-0.2098	26.07	0.39	-0.750			
0.8430	53952.09	3.2770	3.2770	-0.2054	26.07	0.39	-0.750			
0.8436	53991.17	3.2740	3.2740	-0.2018	26.08	0.40	-0.750			
0.8442	54029.71	3.2710	3.2711	-0.1987	26.08	0.40	-0.750			
0.8448	54067.57	3.2680	3.2681	-0.1954	26.08	0.40	-0.750			
0.8454	54104.45	3.2650	3.2650	-0.1920	26.09	0.41	-0.750			
0.8460	54141.02	3.2620	3.2619	-0.1890	26.09	0.41	-0.750			
0.8465	54176.70	3.2590	3.2590	-0.1863	26.09	0.41	-0.750			
0.8471	54212.32	3.2560	3.2560	-0.1834	26.10	0.42	-0.750			
0.8476	54247.52	3.2530	3.2531	-0.1815	26.10	0.42	-0.750			
0.8482	54282.09	3.2500	3.2500	-0.1785	26.10	0.42	-0.750			
0.8487	54315.87	3.2470	3.2470	-0.1760	26.11	0.43	-0.750			
0.8492	54349.40	3.2440	3.2439	-0.1739	26.11	0.43	-0.750			
0.8497	54382.51	3.2410	3.2410	-0.1714	26.11	0.43	-0.750			
0.8502	54415.22	3.2380	3.2380	-0.1694	26.11	0.43	-0.750			
0.8507	54447.52	3.2350	3.2350	-0.1672	26.12	0.44	-0.750			
0.8512	54479.57	3.2320	3.2321	-0.1654	26.12	0.44	-0.750			
0.8517	54510.81	3.2290	3.2289	-0.1636	26.12	0.44	-0.750			
0.8522	54542.09	3.2260	3.2261	-0.1622	26.13	0.45	-0.750			
0.8527	54572.96	3.2230	3.2230	-0.1606	26.13	0.45	-0.750			
0.8532	54603.62	3.2200	3.2200	-0.1590	26.14	0.46	-0.750			
0.8537	54634.26	3.2170	3.2170	-0.1577	26.14	0.46	-0.750			
0.8541	54664.36	3.2140	3.2141	-0.1559	26.14	0.46	-0.750			
0.8546	54694.22	3.2110	3.2110	-0.1543	26.15	0.47	-0.750			
0.8551	54723.58	3.2080	3.2081	-0.1529	26.15	0.47	-0.750			
0.8555	54752.59	3.2050	3.2049	-0.1509	26.16	0.48	-0.750			
0.8560	54781.45	3.2020	3.2020	-0.1497	26.16	0.48	-0.750			
0.8564	54810.14	3.1990	3.1989	-0.1482	26.16	0.48	-0.750			
0.8569	54838.53	3.1960	3.1960	-0.1465	26.17	0.49	-0.750			
0.8573	54866.42	3.1930	3.1931	-0.1455	26.17	0.49	-0.750			
0.8577	54894.23	3.1900	3.1899	-0.1441	26.17	0.49	-0.750			
0.8582	54921.73	3.1870	3.1869	-0.1424	26.18	0.50	-0.750			
0.8586	54948.73	3.1840	3.1840	-0.1411	26.18	0.50	-0.750			
0.8590	54975.84	3.1810	3.1810	-0.1400	26.19	0.51	-0.750			
0.8594	55002.62	3.1780	3.1781	-0.1389	26.19	0.51	-0.750			
0.8598	55029.24	3.1750	3.1749	-0.1378	26.19	0.51	-0.750			
0.8602	55055.57	3.1720	3.1721	-0.1367	26.20	0.52	-0.750			
0.8606	55081.58	3.1690	3.1690	-0.1351	26.20	0.52	-0.750			
0.8611	55107.43	3.1660	3.1660	-0.1342	26.20	0.52	-0.750			
0.8615	55133.23	3.1630	3.1630	-0.1333	26.21	0.53	-0.750			
0.8619	55158.59	3.1600	3.1601	-0.1320	26.21	0.53	-0.750			
0.8622	55183.94	3.1570	3.1570	-0.1313	26.21	0.53	-0.750			
0.8626	55209.03	3.1540	3.1540	-0.1302	26.22	0.54	-0.750			
0.8630	55233.87	3.1510	3.1510	-0.1292	26.22	0.54	-0.750			
0.8634	55258.54	3.1480	3.1480	-0.1282	26.22	0.54	-0.750			
0.8638	55283.16	3.1450	3.1450	-0.1273	26.22	0.54	-0.750			
0.8642	55307.50	3.1420	3.1420	-0.1263	26.23	0.55	-0.750			
0.8646	55331.68	3.1390	3.1391	-0.1250	26.23	0.55	-0.750			
0.8649	55355.63	3.1360	3.1359	-0.1239	26.23	0.55	-0.750			
0.8653	55379.19	3.1330	3.1330	-0.1229	26.24	0.56	-0.750			
0.8657	55402.67	3.1300	3.1300	-0.1219	26.24	0.56	-0.750			
0.8660	55425.92	3.1270	3.1270	-0.1211	26.24	0.56	-0.750			
0.8664	55448.97	3.1240	3.1240	-0.1201	26.25	0.57	-0.750			
0.8668	55472.02	3.1210	3.1209	-0.1192	26.25	0.57	-0.750			
0.8671	55494.83	3.1180	3.1180	-0.1184	26.26	0.58	-0.750			
0.8675	55517.55	3.1150	3.1150	-0.1174	26.26	0.58	-0.750			
0.8678	55540.16	3.1120	3.1120	-0.1166	26.26	0.58	-0.750			
0.8682	55562.31	3.1090	3.1090	-0.1158	26.27	0.59	-0.750			
0.8685	55584.36	3.1060	3.1060	-0.1148	26.27	0.59	-0.750			
0.8688	55606.35	3.1030	3.1030	-0.1140	26.27	0.59	-0.750			
0.8692	55628.09	3.1000	3.0999	-0.1132	26.28	0.60	-0.750			
0.8695	55649.72	3.0970	3.0970	-0.1127	26.28	0.60	-0.750			
0.8699	55671.27	3.0940	3.0939	-0.1121	26.28	0.60	-0.750			
0.8702	55692.77	3.0910	3.0910	-0.1114	26.29	0.61	-0.750			
0.8705	55714.18	3.0880	3.0879	-0.1108	26.29	0.61	-0.750			
0.8709	55735.44	3.0850	3.0850	-0.1098	26.29	0.61	-0.750			
0.8712	55756.43	3.0820	3.0820	-0.1089	26.30	0.62	-0.750			
0.8715	55777.25	3.0790	3.0790	-0.1079	26.30	0.62	-0.750			
0.8718	55798.01	3.0760	3.0760	-0.1071	26.30	0.62	-0.750			
0.8722	55818.37	3.0730	3.0730	-0.1065	26.31	0.63	-0.750			
0.8725	55838.56	3.0700	3.0699	-0.1056	26.31	0.63	-0.750			
0.8728	55858.78	3.0670	3.0670	-0.1050	26.31	0.63	-0.750			
0.8731	55878.80	3.0640	3.0640	-0.1044	26.32	0.64	-0.750			
0.8734	55898.87	3.0610	3.0610	-0.1036	26.32	0.64	-0.750			
0.8737	55918.82	3.0580	3.0580	-0.1031	26.32	0.64	-0.750			
0.8740	55938.53	3.0550	3.0549	-0.1023	26.32	0.64	-0.750			
0.8743	55958.18	3.0520	3.0521	-0.1015	26.33	0.65	-0.750			
0.8746	55977.50	3.0490	3.0490	-0.1010	26.33	0.65	-0.750			
0.8749	55996.70	3.0460	3.0460	-0.1002	26.33	0.65	-0.750			
0.8752	56015.89	3.0430	3.0430	-0.0997	26.33	0.65	-0.750			
0.8755	56034.93	3.0400	3.0400	-0.0992	26.34	0.66	-0.750			
0.8758	56054.03	3.0370	3.0371	-0.0984	26.34	0.66	-0.750			
0.8761	56072.97	3.0340	3.0339	-0.0979	26.34	0.66	-0.750			
0.8764	56091.70	3.0310	3.0310	-0.0971	26.34	0.66	-0.750			
0.8767	56110.36	3.0280	3.0280	-0.0964	26.34	0.66	-0.750			
0.8770	56128.70	3.0250	3.0250	-0.0958	26.35	0.67	-0.750			
0.8773	56146.94	3.0220	3.0220	-0.0949	26.35	0.67	-0.750			
0.8776	56165.08	3.0190	3.0190	-0.0944	26.35	0.67	-0.750			
0.8779	56183.04	3.0160	3.0160	-0.0937	26.35	0.67	-0.750			
0.8781	56200.99	3.0130	3.0130	-0.0933	26.35	0.67	-0.750			
0.8784	56218.91	3.0100	3.0100	-0.0929	26.36	0.68	-0.750			
0.8787	56236.70	3.0070	3.0070	-0.0924	26.36	0.68	-0.750			
0.8790	56254.38	3.0040	3.0039	-0.0915	26.36	0.68	-0.750			
