Ah_balance (normalized)	Ah_balance (mAh)	Voltage - fit (V)	Voltage -  interpolate (V)	dQ/dV (1/V)	Temperature (°C)	Temperature - diff (°C)	Current (C)	R_DC 0ms (mOhm)	R_DC 50ms (mOhm)	R_DC 50 ms PEC (mOhm)
0.2872	18377.74	3.9730	3.9730	0.8592	27.30	1.34	1.500			
0.2897	18543.18	3.9700	3.9701	0.8652	27.30	1.34	1.500			
0.2923	18710.04	3.9670	3.9670	0.8725	27.29	1.33	1.500			
0.2950	18878.66	3.9640	3.9641	0.8803	27.29	1.33	1.500			
0.2976	19048.41	3.9610	3.9610	0.8858	27.28	1.32	1.500			
0.3003	19220.41	3.9580	3.9580	0.8889	27.28	1.32	1.500			
0.3030	19391.49	3.9550	3.9551	0.8885	27.28	1.32	1.500			
0.3056	19561.32	3.9520	3.9520	0.8913	27.27	1.31	1.500			
0.3083	19732.51	3.9490	3.9489	0.8933	27.27	1.31	1.500			
0.3110	19903.81	3.9460	3.9460	0.8905	27.26	1.30	1.500			
0.3136	20073.55	3.9430	3.9430	0.8966	27.26	1.30	1.500			
0.3164	20246.72	3.9400	3.9401	0.9046	27.25	1.29	1.500			
0.3191	20422.02	3.9370	3.9369	0.9097	27.25	1.29	1.500			
0.3218	20597.16	3.9340	3.9340	0.9109	27.24	1.28	1.500			
0.3246	20771.36	3.9310	3.9311	0.9177	27.24	1.28	1.500			
0.3273	20948.80	3.9280	3.9281	0.9262	27.23	1.27	1.500			
0.3301	21127.36	3.9250	3.9249	0.9284	27.22	1.26	1.500			
0.3329	21304.84	3.9220	3.9220	0.9328	27.22	1.26	1.500			
0.3357	21485.37	3.9190	3.9190	0.9359	27.21	1.25	1.500			
0.3385	21664.95	3.9160	3.9160	0.9466	27.20	1.24	1.500			
0.3413	21846.37	3.9130	3.9130	0.9590	27.20	1.24	1.500			
0.3442	22031.17	3.9100	3.9099	0.9639	27.19	1.23	1.500			
0.3472	22217.68	3.9070	3.9070	0.9746	27.18	1.22	1.500			
0.3501	22407.29	3.9040	3.9041	0.9793	27.18	1.22	1.500			
0.3531	22597.16	3.9010	3.9010	0.9847	27.17	1.21	1.500			
0.3560	22786.01	3.8980	3.8980	0.9874	27.16	1.20	1.500			
0.3590	22974.32	3.8950	3.8949	0.9931	27.16	1.20	1.500			
0.3619	23164.48	3.8920	3.8920	0.9973	27.15	1.19	1.500			
0.3650	23357.32	3.8890	3.8890	1.0096	27.14	1.18	1.500			
0.3680	23552.06	3.8860	3.8860	1.0190	27.13	1.17	1.500			
0.3711	23748.12	3.8830	3.8830	1.0350	27.13	1.17	1.500			
0.3742	23947.44	3.8800	3.8799	1.0435	27.12	1.16	1.500			
0.3773	24149.37	3.8770	3.8771	1.0556	27.11	1.15	1.500			
0.3805	24353.19	3.8740	3.8740	1.0691	27.11	1.15	1.500			
0.3838	24562.92	3.8710	3.8711	1.0781	27.10	1.14	1.500			
0.3870	24769.75	3.8680	3.8680	1.0837	27.09	1.13	1.500			
0.3902	24975.64	3.8650	3.8650	1.0984	27.09	1.13	1.500			
0.3935	25186.48	3.8620	3.8620	1.1130	27.08	1.12	1.500			
0.3969	25401.34	3.8590	3.8590	1.1318	27.07	1.11	1.500			
0.4003	25620.11	3.8560	3.8560	1.1476	27.06	1.10	1.500			
0.4038	25843.84	3.8530	3.8530	1.1654	27.05	1.09	1.500			
0.4074	26071.94	3.8500	3.8500	1.1786	27.04	1.08	1.500			
0.4109	26296.10	3.8470	3.8470	1.1963	27.03	1.07	1.500			
0.4145	26526.96	3.8440	3.8439	1.2127	27.02	1.06	1.500			
0.4181	26761.04	3.8410	3.8410	1.2333	27.01	1.05	1.500			
0.4219	27000.15	3.8380	3.8380	1.2561	27.00	1.04	1.500			
0.4257	27244.35	3.8350	3.8350	1.2790	26.99	1.03	1.500			
0.4296	27493.37	3.8320	3.8319	1.2955	26.98	1.02	1.500			
0.4335	27742.78	3.8290	3.8291	1.3222	26.97	1.01	1.500			
0.4374	27995.01	3.8260	3.8260	1.3448	26.96	1.00	1.500			
0.4415	28255.57	3.8230	3.8230	1.3800	26.95	0.99	1.500			
0.4457	28522.63	3.8200	3.8200	1.4081	26.94	0.98	1.500			
0.4499	28796.73	3.8170	3.8170	1.4414	26.92	0.96	1.500			
0.4544	29081.54	3.8140	3.8139	1.4634	26.91	0.95	1.500			
0.4588	29364.83	3.8110	3.8111	1.4978	26.89	0.93	1.500			
0.4633	29650.09	3.8080	3.8081	1.5437	26.88	0.92	1.500			
0.4680	29950.06	3.8050	3.8049	1.5927	26.86	0.90	1.500			
0.4728	30259.36	3.8020	3.8020	1.6309	26.85	0.89	1.500			
0.4778	30580.35	3.7990	3.7991	1.6814	26.83	0.87	1.500			
0.4830	30913.07	3.7960	3.7960	1.7272	26.82	0.86	1.500			
0.4882	31246.13	3.7930	3.7930	1.7559	26.80	0.84	1.500			
0.4935	31584.23	3.7900	3.7900	1.7914	26.78	0.82	1.500			
0.4990	31933.63	3.7870	3.7870	1.8362	26.77	0.81	1.500			
0.5046	32291.98	3.7840	3.7840	1.8678	26.75	0.79	1.500			
0.5102	32654.93	3.7810	3.7810	1.9120	26.73	0.77	1.500			
0.5160	33024.12	3.7780	3.7780	1.9575	26.71	0.75	1.500			
0.5219	33403.27	3.7750	3.7751	1.9907	26.69	0.73	1.500			
0.5280	33793.28	3.7720	3.7720	2.0045	26.68	0.72	1.500			
0.5341	34180.54	3.7690	3.7691	2.0343	26.66	0.70	1.500			
0.5402	34573.71	3.7660	3.7659	2.0468	26.65	0.69	1.500			
0.5463	34966.35	3.7630	3.7631	2.0552	26.63	0.67	1.500	0.355	0.456	
0.5526	35366.48	3.7600	3.7600	2.0515	26.61	0.65	1.500			
0.5588	35760.17	3.7570	3.7570	2.0328	26.59	0.63	1.500			
0.5648	36145.70	3.7540	3.7540	2.0053	26.57	0.61	1.500			
0.5708	36529.34	3.7510	3.7510	1.9836	26.56	0.60	1.500			
0.5767	36907.30	3.7480	3.7480	1.9766	26.54	0.58	1.500			
0.5826	37283.43	3.7450	3.7450	1.9700	26.52	0.56	1.500			
0.5884	37659.64	3.7420	3.7420	1.9804	26.51	0.55	1.500			
0.5943	38037.70	3.7390	3.7389	2.0024	26.49	0.53	1.500			
0.6004	38427.09	3.7360	3.7360	2.0327	26.47	0.51	1.500			
0.6065	38815.93	3.7330	3.7330	2.0396	26.46	0.50	1.500			
0.6126	39208.22	3.7300	3.7301	2.0655	26.44	0.48	1.500			
0.6188	39603.65	3.7270	3.7268	2.1045	26.42	0.46	1.500			
0.6252	40013.30	3.7240	3.7241	2.1605	26.41	0.45	1.500			
0.6318	40432.89	3.7210	3.7210	2.2325	26.40	0.44	1.500			
0.6386	40870.43	3.7180	3.7180	2.3110	26.38	0.42	1.500			
0.6456	41318.79	3.7150	3.7150	2.3988	26.37	0.41	1.500			
0.6529	41788.29	3.7120	3.7120	2.4518	26.35	0.39	1.500			
0.6604	42264.84	3.7090	3.7091	2.5373	26.33	0.37	1.500			
0.6681	42758.22	3.7060	3.7058	2.5847	26.31	0.35	1.500			
0.6759	43259.25	3.7030	3.7031	2.6595	26.30	0.34	1.500			
0.6841	43780.34	3.7000	3.6999	2.6652	26.28	0.32	1.500			
0.6918	44278.27	3.6970	3.6970	2.6020	26.27	0.31	1.500			
0.6998	44788.18	3.6940	3.6940	2.5180	26.25	0.29	1.500			
0.7072	45257.62	3.6910	3.6911	2.3520	26.24	0.28	1.500			
0.7139	45691.94	3.6880	3.6880	2.1481	26.23	0.27	1.500			
0.7201	46085.14	3.6850	3.6850	1.9657	26.22	0.26	1.500			
0.7256	46439.99	3.6820	3.6820	1.8059	26.21	0.25	1.500			
0.7307	46766.74	3.6790	3.6790	1.6782	26.20	0.24	1.500			
0.7354	47068.48	3.6760	3.6760	1.5728	26.19	0.23	1.500			
0.7400	47358.33	3.6730	3.6730	1.4913	26.19	0.23	1.500			
0.7443	47637.08	3.6700	3.6698	1.4256	26.18	0.22	1.500			
0.7485	47901.98	3.6670	3.6670	1.3693	26.17	0.21	1.500			
0.7525	48158.32	3.6640	3.6641	1.3326	26.16	0.20	1.500			
0.7564	48409.47	3.6610	3.6609	1.2893	26.15	0.19	1.500			
0.7601	48648.16	3.6580	3.6579	1.2608	26.14	0.18	1.500			
0.7638	48884.03	3.6550	3.6551	1.2614	26.13	0.17	1.500			
0.7676	49123.90	3.6520	3.6520	1.2622	26.12	0.16	1.500			
0.7713	49366.09	3.6490	3.6490	1.2778	26.12	0.16	1.500			
0.7752	49611.27	3.6460	3.6460	1.2880	26.11	0.15	1.500			
0.7791	49861.91	3.6430	3.6430	1.3002	26.10	0.14	1.500			
0.7831	50117.32	3.6400	3.6399	1.3158	26.09	0.13	1.500			
0.7870	50370.09	3.6370	3.6371	1.3175	26.08	0.12	1.500			
0.7910	50622.74	3.6340	3.6340	1.3157	26.07	0.11	1.500			
0.7950	50877.55	3.6310	3.6310	1.3189	26.06	0.10	1.500			
0.7989	51128.99	3.6280	3.6280	1.3143	26.05	0.09	1.500			
0.8028	51381.61	3.6250	3.6250	1.3113	26.04	0.08	1.500			
0.8068	51633.11	3.6220	3.6220	1.3051	26.03	0.07	1.500			
0.8107	51882.65	3.6190	3.6190	1.3032	26.02	0.06	1.500			
0.8146	52131.62	3.6160	3.6161	1.2996	26.01	0.05	1.500			
0.8184	52380.52	3.6130	3.6129	1.2994	26.00	0.04	1.500			
0.8224	52632.46	3.6100	3.6100	1.2910	26.00	0.04	1.500			
0.8263	52881.01	3.6070	3.6070	1.2798	25.99	0.03	1.500			
0.8301	53128.51	3.6040	3.6040	1.2669	25.99	0.03	1.500			
0.8339	53369.86	3.6010	3.6010	1.2465	25.98	0.02	1.500			
0.8376	53604.32	3.5980	3.5980	1.2275	25.98	0.02	1.500			
0.8412	53838.58	3.5950	3.5950	1.2117	25.97	0.01	1.500			
0.8448	54068.58	3.5920	3.5919	1.1926	25.97	0.01	1.500			
0.8484	54297.51	3.5890	3.5890	1.1806	25.97	0.01	1.500			
0.8519	54520.61	3.5860	3.5861	1.1739	25.97	0.01	1.500			
0.8554	54745.14	3.5830	3.5829	1.1643	25.97	0.01	1.500			
0.8589	54969.64	3.5800	3.5799	1.1449	25.96	0.00	1.500			
0.8624	55195.95	3.5770	3.5770	1.0943	25.96	0.00	1.500			
0.8658	55412.84	3.5740	3.5740	1.0330	25.96	0.00	1.500			
0.8689	55610.84	3.5710	3.5710	0.9207	25.96	0.00	1.500			
0.8716	55783.21	3.5680	3.5680	0.8001	25.96	-0.00	1.500			
0.8738	55920.08	3.5650	3.5651	0.6688	25.96	-0.00	1.500			
0.8755	56030.72	3.5620	3.5620	0.5428	25.96	-0.00	1.500			
0.8768	56114.10	3.5590	3.5590	0.4452	25.96	-0.00	1.500			
0.8779	56186.26	3.5560	3.5559	0.3752	25.96	-0.00	1.500			
0.8789	56246.63	3.5530	3.5530	0.3082	25.96	-0.00	1.500			
0.8797	56299.29	3.5500	3.5499	0.2696	25.96	-0.00	1.500			
0.8804	56344.63	3.5470	3.5469	0.2358	25.96	-0.00	1.500			
0.8810	56385.11	3.5440	3.5440	0.2107	25.96	-0.00	1.500			
0.8816	56421.94	3.5410	3.5410	0.1878	25.96	-0.00	1.500			
0.8821	56455.24	3.5380	3.5381	0.1703	25.95	-0.01	1.500			
0.8826	56485.79	3.5350	3.5349	0.1549	25.95	-0.01	1.500			
0.8830	56513.68	3.5320	3.5321	0.1395	25.95	-0.01	1.500			
0.8834	56539.31	3.5290	3.5290	0.1258	25.95	-0.01	1.500			
0.8838	56562.08	3.5260	3.5260	0.1120	25.95	-0.01	1.500			
0.8841	56582.64	3.5230	3.5230	0.0990	25.95	-0.01	1.500			
0.8844	56600.07	3.5200	3.5201	0.0846	25.95	-0.01	1.500			
0.8846	56615.01	3.5170	3.5173	0.0709	25.95	-0.01	1.500			
0.8848	56627.64	3.5140	3.5144	0.0563	25.95	-0.01	1.500			
0.8850	56637.03	3.5110	3.5118	0.0415	25.95	-0.01	1.500			
