Ah_balance (normalized)	Ah_balance (mAh)	Voltage - fit (V)	Voltage -  interpolate (V)	dQ/dV (1/V)	Temperature (°C)	Temperature - diff (°C)	Current (C)	R_DC 0ms (mOhm)	R_DC 50ms (mOhm)	R_DC 50 ms PEC (mOhm)
0.2974	19030.68	3.9700	3.9700	0.8528	26.97	1.01	1.500			
0.3000	19197.06	3.9670	3.9670	0.8733	26.97	1.01	1.500			
0.3026	19367.05	3.9640	3.9640	0.8801	26.97	1.01	1.500			
0.3052	19535.49	3.9610	3.9610	0.8815	26.96	1.00	1.500			
0.3079	19705.73	3.9580	3.9580	0.8881	26.96	1.00	1.500			
0.3105	19874.59	3.9550	3.9550	0.8915	26.96	1.00	1.500			
0.3132	20046.22	3.9520	3.9519	0.8950	26.96	1.00	1.500			
0.3159	20218.52	3.9490	3.9490	0.8980	26.96	1.00	1.500			
0.3186	20392.32	3.9460	3.9461	0.9047	26.95	0.99	1.500			
0.3214	20567.04	3.9430	3.9431	0.9105	26.95	0.99	1.500			
0.3241	20742.01	3.9400	3.9399	0.9120	26.95	0.99	1.500			
0.3268	20917.41	3.9370	3.9370	0.9078	26.95	0.99	1.500			
0.3295	21090.00	3.9340	3.9341	0.9177	26.95	0.99	1.500			
0.3323	21267.32	3.9310	3.9310	0.9267	26.94	0.98	1.500			
0.3351	21445.62	3.9280	3.9279	0.9369	26.94	0.98	1.500			
0.3379	21625.93	3.9250	3.9250	0.9432	26.94	0.98	1.500			
0.3408	21808.14	3.9220	3.9221	0.9510	26.94	0.98	1.500			
0.3436	21992.87	3.9190	3.9190	0.9588	26.93	0.97	1.500			
0.3466	22179.27	3.9160	3.9159	0.9665	26.93	0.97	1.500			
0.3494	22363.11	3.9130	3.9130	0.9661	26.93	0.97	1.500			
0.3523	22548.17	3.9100	3.9100	0.9786	26.93	0.97	1.500			
0.3553	22736.88	3.9070	3.9070	0.9868	26.92	0.96	1.500			
0.3583	22928.17	3.9040	3.9040	0.9990	26.92	0.96	1.500			
0.3613	23122.18	3.9010	3.9009	1.0050	26.92	0.96	1.500			
0.3643	23315.43	3.8980	3.8981	1.0124	26.92	0.96	1.500			
0.3674	23511.35	3.8950	3.8950	1.0189	26.91	0.95	1.500			
0.3704	23706.87	3.8920	3.8920	1.0259	26.91	0.95	1.500			
0.3735	23902.51	3.8890	3.8889	1.0282	26.90	0.94	1.500			
0.3766	24101.36	3.8860	3.8860	1.0412	26.90	0.94	1.500			
0.3797	24301.14	3.8830	3.8830	1.0534	26.90	0.94	1.500			
0.3829	24505.40	3.8800	3.8800	1.0669	26.89	0.93	1.500			
0.3861	24710.59	3.8770	3.8770	1.0783	26.89	0.93	1.500			
0.3894	24918.86	3.8740	3.8740	1.0946	26.89	0.93	1.500			
0.3927	25130.73	3.8710	3.8711	1.1050	26.88	0.92	1.500			
0.3960	25344.41	3.8680	3.8680	1.1218	26.88	0.92	1.500			
0.3994	25562.33	3.8650	3.8649	1.1316	26.87	0.91	1.500			
0.4028	25778.85	3.8620	3.8621	1.1501	26.87	0.91	1.500			
0.4063	26000.50	3.8590	3.8590	1.1664	26.87	0.91	1.500			
0.4098	26226.08	3.8560	3.8559	1.1794	26.86	0.90	1.500			
0.4133	26454.00	3.8530	3.8529	1.1970	26.85	0.89	1.500			
0.4170	26685.35	3.8500	3.8501	1.2150	26.85	0.89	1.500			
0.4206	26920.02	3.8470	3.8469	1.2268	26.84	0.88	1.500			
0.4243	27157.31	3.8440	3.8440	1.2466	26.83	0.87	1.500			
0.4281	27395.48	3.8410	3.8410	1.2688	26.83	0.87	1.500			
0.4319	27639.98	3.8380	3.8380	1.2951	26.82	0.86	1.500			
0.4358	27891.57	3.8350	3.8348	1.3216	26.81	0.85	1.500			
0.4398	28146.24	3.8320	3.8321	1.3479	26.80	0.84	1.500			
0.4439	28408.87	3.8290	3.8290	1.3774	26.79	0.83	1.500			
0.4481	28676.41	3.8260	3.8260	1.4076	26.79	0.83	1.500			
0.4523	28945.35	3.8230	3.8229	1.4321	26.78	0.82	1.500			
0.4566	29223.97	3.8200	3.8201	1.4654	26.77	0.81	1.500			
0.4611	29509.97	3.8170	3.8168	1.5028	26.76	0.80	1.500			
0.4657	29801.86	3.8140	3.8141	1.5373	26.75	0.79	1.500			
0.4703	30100.85	3.8110	3.8110	1.5678	26.74	0.78	1.500			
0.4751	30403.98	3.8080	3.8080	1.6082	26.74	0.78	1.500			
0.4799	30711.07	3.8050	3.8051	1.6444	26.73	0.77	1.500			
0.4849	31032.39	3.8020	3.8020	1.6940	26.72	0.76	1.500			
0.4900	31362.61	3.7990	3.7990	1.7481	26.71	0.75	1.500			
0.4954	31703.67	3.7960	3.7960	1.7844	26.70	0.74	1.500			
0.5008	32049.52	3.7930	3.7931	1.8462	26.68	0.72	1.500			
0.5064	32408.90	3.7900	3.7900	1.8910	26.67	0.71	1.500			
0.5121	32774.84	3.7870	3.7869	1.9404	26.66	0.70	1.500			
0.5180	33153.68	3.7840	3.7841	2.0062	26.64	0.68	1.500			
0.5242	33545.91	3.7810	3.7809	2.0500	26.63	0.67	1.500			
0.5304	33944.73	3.7780	3.7781	2.1133	26.61	0.65	1.500			
0.5368	34352.77	3.7750	3.7750	2.1642	26.60	0.64	1.500			
0.5434	34779.27	3.7720	3.7719	2.1983	26.58	0.62	1.500			
0.5501	35205.87	3.7690	3.7691	2.2518	26.57	0.61	1.500			
0.5568	35636.55	3.7660	3.7660	2.3081	26.55	0.59	1.500			
0.5638	36083.69	3.7630	3.7630	2.3118	26.53	0.57	1.500			
0.5709	36536.32	3.7600	3.7600	2.3095	26.52	0.56	1.500	0.349	0.450	
0.5779	36984.42	3.7570	3.7570	2.3079	26.50	0.54	1.500			
0.5847	37419.26	3.7540	3.7538	2.2788	26.48	0.52	1.500			
0.5915	37858.60	3.7510	3.7510	2.2516	26.47	0.51	1.500			
0.5983	38288.10	3.7480	3.7480	2.2232	26.45	0.49	1.500			
0.6048	38706.10	3.7450	3.7451	2.1757	26.43	0.47	1.500			
0.6113	39121.40	3.7420	3.7418	2.1658	26.42	0.46	1.500			
0.6178	39538.86	3.7390	3.7390	2.1474	26.40	0.44	1.500			
0.6242	39951.72	3.7360	3.7360	2.1468	26.39	0.43	1.500			
0.6306	40358.78	3.7330	3.7331	2.1377	26.37	0.41	1.500			
0.6370	40768.86	3.7300	3.7299	2.1510	26.36	0.40	1.500			
0.6435	41184.20	3.7270	3.7270	2.1699	26.34	0.38	1.500			
0.6500	41600.04	3.7240	3.7240	2.2209	26.33	0.37	1.500			
0.6566	42024.18	3.7210	3.7211	2.2714	26.31	0.35	1.500			
0.6636	42467.62	3.7180	3.7180	2.3449	26.29	0.33	1.500			
0.6707	42922.16	3.7150	3.7150	2.4044	26.28	0.32	1.500			
0.6780	43391.81	3.7120	3.7121	2.5088	26.27	0.31	1.500			
0.6856	43880.60	3.7090	3.7089	2.6256	26.25	0.29	1.500			
0.6937	44394.69	3.7060	3.7061	2.7055	26.23	0.27	1.500			
0.7020	44928.50	3.7030	3.7031	2.8071	26.21	0.25	1.500			
0.7105	45472.86	3.7000	3.6999	2.8578	26.19	0.23	1.500			
0.7193	46034.59	3.6970	3.6971	2.8446	26.17	0.21	1.500			
0.7279	46587.42	3.6940	3.6941	2.7970	26.16	0.20	1.500			
0.7363	47122.68	3.6910	3.6908	2.6596	26.14	0.18	1.500			
0.7441	47624.39	3.6880	3.6880	2.4584	26.13	0.17	1.500			
0.7512	48076.27	3.6850	3.6851	2.2792	26.13	0.17	1.500			
0.7576	48485.26	3.6820	3.6820	2.0460	26.12	0.16	1.500			
0.7634	48855.48	3.6790	3.6790	1.8841	26.12	0.16	1.500			
0.7687	49194.18	3.6760	3.6760	1.7386	26.11	0.15	1.500			
0.7737	49513.80	3.6730	3.6729	1.6174	26.10	0.14	1.500			
0.7783	49809.39	3.6700	3.6700	1.5212	26.09	0.13	1.500			
0.7826	50088.32	3.6670	3.6670	1.4305	26.09	0.13	1.500			
0.7867	50351.16	3.6640	3.6640	1.3656	26.08	0.12	1.500			
0.7907	50604.27	3.6610	3.6610	1.3106	26.07	0.11	1.500			
0.7945	50845.88	3.6580	3.6580	1.2747	26.07	0.11	1.500			
0.7982	51084.60	3.6550	3.6550	1.2507	26.06	0.10	1.500			
0.8019	51320.62	3.6520	3.6520	1.2428	26.05	0.09	1.500			
0.8055	51554.29	3.6490	3.6490	1.2467	26.05	0.09	1.500			
0.8093	51792.13	3.6460	3.6460	1.2580	26.04	0.08	1.500			
0.8130	52034.46	3.6430	3.6430	1.2715	26.04	0.08	1.500			
0.8169	52280.69	3.6400	3.6399	1.2888	26.03	0.07	1.500			
0.8208	52531.31	3.6370	3.6371	1.3020	26.02	0.06	1.500			
0.8248	52785.36	3.6340	3.6340	1.3117	26.02	0.06	1.500			
0.8287	53039.56	3.6310	3.6310	1.3179	26.01	0.05	1.500			
0.8327	53292.82	3.6280	3.6281	1.3157	26.00	0.04	1.500			
0.8366	53545.39	3.6250	3.6250	1.3124	26.00	0.04	1.500			
0.8406	53797.74	3.6220	3.6220	1.3071	25.99	0.03	1.500			
0.8445	54047.53	3.6190	3.6190	1.2983	25.99	0.03	1.500			
0.8484	54294.84	3.6160	3.6161	1.2946	25.98	0.02	1.500			
0.8522	54543.07	3.6130	3.6130	1.2933	25.97	0.01	1.500			
0.8561	54791.19	3.6100	3.6100	1.2885	25.97	0.01	1.500			
0.8600	55038.75	3.6070	3.6069	1.2863	25.96	0.00	1.500			
0.8639	55287.18	3.6040	3.6040	1.2766	25.96	-0.00	1.500			
0.8677	55532.42	3.6010	3.6010	1.2648	25.95	-0.01	1.500			
0.8715	55776.37	3.5980	3.5980	1.2503	25.95	-0.01	1.500			
0.8752	56013.87	3.5950	3.5950	1.2290	25.95	-0.01	1.500			
0.8788	56246.19	3.5920	3.5920	1.2098	25.95	-0.01	1.500			
0.8825	56477.00	3.5890	3.5890	1.1932	25.94	-0.02	1.500			
0.8860	56701.33	3.5860	3.5860	1.1881	25.94	-0.02	1.500			
0.8895	56928.93	3.5830	3.5830	1.1885	25.94	-0.02	1.500			
0.8930	57153.64	3.5800	3.5800	1.1940	25.95	-0.01	1.500			
0.8966	57384.08	3.5770	3.5770	1.2042	25.95	-0.01	1.500			
0.9003	57621.76	3.5740	3.5740	1.1871	25.95	-0.01	1.500			
0.9040	57858.95	3.5710	3.5710	1.1262	25.95	-0.01	1.500			
0.9076	58085.52	3.5680	3.5680	1.0486	25.96	-0.00	1.500			
0.9107	58283.64	3.5650	3.5650	0.9119	25.96	-0.00	1.500			
0.9133	58453.04	3.5620	3.5621	0.7728	25.96	0.00	1.500			
0.9153	58581.23	3.5590	3.5590	0.6305	25.96	0.00	1.500			
0.9168	58677.15	3.5560	3.5559	0.4981	25.96	0.00	1.500			
0.9180	58751.00	3.5530	3.5530	0.3968	25.97	0.01	1.500			
0.9190	58814.62	3.5500	3.5499	0.3304	25.97	0.01	1.500			
0.9198	58867.75	3.5470	3.5468	0.2715	25.97	0.01	1.500			
0.9205	58913.43	3.5440	3.5440	0.2348	25.97	0.01	1.500			
0.9211	58952.02	3.5410	3.5411	0.2041	25.97	0.01	1.500			
0.9217	58986.76	3.5380	3.5380	0.1806	25.97	0.01	1.500			
0.9222	59018.88	3.5350	3.5350	0.1593	25.97	0.01	1.500			
0.9226	59046.32	3.5320	3.5319	0.1407	25.97	0.01	1.500			
0.9230	59071.23	3.5290	3.5290	0.1230	25.97	0.01	1.500			
0.9233	59093.52	3.5260	3.5261	0.1077	25.97	0.01	1.500			
0.9236	59112.69	3.5230	3.5231	0.0919	25.97	0.01	1.500			
0.9239	59129.04	3.5200	3.5202	0.0758	25.97	0.01	1.500			
0.9241	59142.12	3.5170	3.5173	0.0592	25.97	0.01	1.500			
0.9242	59151.90	3.5140	3.5148	0.0426	25.97	0.01	1.500			
