Ah_balance (normalized)	Ah_balance (mAh)	Voltage - fit (V)	Voltage -  interpolate (V)	dQ/dV (1/V)	Temperature (°C)	Temperature - diff (°C)	Current (C)	R_DC 0ms (mOhm)	R_DC 50ms (mOhm)	R_DC 50 ms PEC (mOhm)
0.2841	18183.26	3.9840	3.9839	0.8505	27.06	1.10	1.500			
0.2867	18346.75	3.9810	3.9811	0.8489	27.06	1.10	1.500			
0.2892	18507.87	3.9780	3.9780	0.8468	27.05	1.09	1.500			
0.2917	18670.16	3.9750	3.9750	0.8500	27.05	1.09	1.500			
0.2943	18833.86	3.9720	3.9720	0.8521	27.04	1.08	1.500			
0.2968	18995.44	3.9690	3.9689	0.8545	27.04	1.08	1.500			
0.2994	19161.21	3.9660	3.9661	0.8621	27.04	1.08	1.500			
0.3020	19327.82	3.9630	3.9630	0.8665	27.03	1.07	1.500			
0.3046	19495.23	3.9600	3.9600	0.8745	27.03	1.07	1.500			
0.3072	19663.03	3.9570	3.9570	0.8765	27.02	1.06	1.500			
0.3099	19832.74	3.9540	3.9540	0.8788	27.02	1.06	1.500			
0.3126	20003.29	3.9510	3.9510	0.8768	27.01	1.05	1.500			
0.3152	20170.54	3.9480	3.9481	0.8778	27.01	1.05	1.500			
0.3178	20338.45	3.9450	3.9450	0.8828	27.01	1.05	1.500			
0.3204	20507.44	3.9420	3.9420	0.8869	27.00	1.04	1.500			
0.3231	20677.27	3.9390	3.9390	0.8903	27.00	1.04	1.500			
0.3258	20849.86	3.9360	3.9360	0.8967	26.99	1.03	1.500			
0.3285	21023.27	3.9330	3.9330	0.9035	26.99	1.03	1.500			
0.3312	21198.29	3.9300	3.9300	0.9096	26.98	1.02	1.500			
0.3339	21371.80	3.9270	3.9271	0.9093	26.98	1.02	1.500			
0.3367	21547.12	3.9240	3.9240	0.9105	26.97	1.01	1.500			
0.3394	21721.53	3.9210	3.9210	0.9192	26.96	1.00	1.500			
0.3421	21897.47	3.9180	3.9180	0.9272	26.96	1.00	1.500			
0.3449	22076.35	3.9150	3.9150	0.9361	26.95	0.99	1.500			
0.3478	22256.95	3.9120	3.9119	0.9448	26.95	0.99	1.500			
0.3506	22440.06	3.9090	3.9091	0.9537	26.94	0.98	1.500			
0.3535	22625.20	3.9060	3.9061	0.9629	26.94	0.98	1.500			
0.3564	22811.69	3.9030	3.9029	0.9662	26.93	0.97	1.500			
0.3593	22997.33	3.9000	3.9000	0.9696	26.92	0.96	1.500			
0.3622	23181.46	3.8970	3.8970	0.9754	26.92	0.96	1.500			
0.3652	23370.06	3.8940	3.8940	0.9808	26.91	0.95	1.500			
0.3681	23559.28	3.8910	3.8909	0.9886	26.91	0.95	1.500			
0.3711	23749.84	3.8880	3.8880	0.9960	26.90	0.94	1.500			
0.3741	23941.70	3.8850	3.8851	1.0059	26.90	0.94	1.500			
0.3771	24135.13	3.8820	3.8820	1.0194	26.89	0.93	1.500			
0.3802	24330.85	3.8790	3.8790	1.0302	26.89	0.93	1.500			
0.3833	24530.44	3.8760	3.8760	1.0436	26.88	0.92	1.500			
0.3865	24733.58	3.8730	3.8730	1.0560	26.88	0.92	1.500			
0.3896	24936.30	3.8700	3.8701	1.0657	26.87	0.91	1.500			
0.3929	25142.43	3.8670	3.8670	1.0790	26.87	0.91	1.500			
0.3961	25349.92	3.8640	3.8639	1.0900	26.86	0.90	1.500			
0.3994	25558.44	3.8610	3.8610	1.1017	26.85	0.89	1.500			
0.4027	25772.37	3.8580	3.8580	1.1182	26.85	0.89	1.500			
0.4061	25989.41	3.8550	3.8550	1.1358	26.84	0.88	1.500			
0.4095	26210.55	3.8520	3.8520	1.1457	26.83	0.87	1.500			
0.4129	26428.73	3.8490	3.8490	1.1609	26.82	0.86	1.500			
0.4164	26651.78	3.8460	3.8460	1.1836	26.81	0.85	1.500			
0.4200	26880.40	3.8430	3.8430	1.2028	26.80	0.84	1.500			
0.4237	27113.87	3.8400	3.8400	1.2222	26.80	0.84	1.500			
0.4274	27351.77	3.8370	3.8370	1.2446	26.79	0.83	1.500			
0.4311	27593.32	3.8340	3.8341	1.2622	26.78	0.82	1.500			
0.4350	27837.64	3.8310	3.8310	1.2875	26.77	0.81	1.500			
0.4388	28082.62	3.8280	3.8280	1.3074	26.76	0.80	1.500			
0.4427	28335.18	3.8250	3.8250	1.3386	26.75	0.79	1.500			
0.4468	28596.14	3.8220	3.8219	1.3634	26.74	0.78	1.500			
0.4510	28862.29	3.8190	3.8191	1.3948	26.73	0.77	1.500			
0.4552	29132.73	3.8160	3.8160	1.4197	26.72	0.76	1.500			
0.4595	29408.04	3.8130	3.8129	1.4425	26.70	0.74	1.500			
0.4638	29683.15	3.8100	3.8101	1.4672	26.69	0.73	1.500			
0.4682	29966.72	3.8070	3.8071	1.4996	26.68	0.72	1.500			
0.4728	30257.06	3.8040	3.8039	1.5410	26.67	0.71	1.500			
0.4775	30558.57	3.8010	3.8010	1.5796	26.65	0.69	1.500			
0.4823	30865.82	3.7980	3.7980	1.6190	26.64	0.68	1.500			
0.4872	31181.66	3.7950	3.7950	1.6547	26.63	0.67	1.500			
0.4922	31500.63	3.7920	3.7920	1.6809	26.61	0.65	1.500			
0.4973	31825.64	3.7890	3.7890	1.7085	26.60	0.64	1.500			
0.5025	32157.91	3.7860	3.7860	1.7262	26.59	0.63	1.500			
0.5077	32495.43	3.7830	3.7830	1.7404	26.57	0.61	1.500			
0.5129	32826.58	3.7800	3.7800	1.7719	26.56	0.60	1.500			
0.5182	33167.70	3.7770	3.7770	1.7994	26.55	0.59	1.500			
0.5237	33516.37	3.7740	3.7734	1.8198	26.53	0.57	1.500	0.347	0.464	
0.5292	33869.73	3.7710	3.7711	1.8319	26.52	0.56	1.500			
0.5348	34227.79	3.7680	3.7680	1.8425	26.50	0.54	1.500			
0.5403	34578.25	3.7650	3.7650	1.8132	26.48	0.52	1.500			
0.5457	34926.38	3.7620	3.7620	1.8096	26.46	0.50	1.500			
0.5512	35274.08	3.7590	3.7591	1.8126	26.45	0.49	1.500			
0.5566	35623.29	3.7560	3.7559	1.8020	26.44	0.48	1.500			
0.5619	35964.33	3.7530	3.7531	1.7965	26.42	0.46	1.500			
0.5673	36308.24	3.7500	3.7501	1.8093	26.41	0.45	1.500			
0.5727	36655.89	3.7470	3.7469	1.8319	26.40	0.44	1.500			
0.5782	37005.96	3.7440	3.7441	1.8501	26.38	0.42	1.500			
0.5838	37366.31	3.7410	3.7410	1.8777	26.37	0.41	1.500			
0.5895	37727.95	3.7380	3.7381	1.9032	26.36	0.40	1.500			
0.5952	38094.49	3.7350	3.7349	1.9430	26.34	0.38	1.500			
0.6011	38473.10	3.7320	3.7320	1.9836	26.33	0.37	1.500			
0.6071	38856.32	3.7290	3.7291	2.0419	26.32	0.36	1.500			
0.6134	39254.67	3.7260	3.7260	2.0949	26.30	0.34	1.500			
0.6197	39661.19	3.7230	3.7230	2.1389	26.28	0.32	1.500			
0.6262	40076.51	3.7200	3.7200	2.1948	26.27	0.31	1.500			
0.6329	40502.55	3.7170	3.7171	2.2701	26.25	0.29	1.500			
0.6397	40940.77	3.7140	3.7140	2.3470	26.23	0.27	1.500			
0.6469	41401.13	3.7110	3.7109	2.4216	26.21	0.25	1.500			
0.6544	41879.18	3.7080	3.7081	2.4817	26.19	0.23	1.500			
0.6618	42358.36	3.7050	3.7049	2.4664	26.18	0.22	1.500			
0.6692	42825.75	3.7020	3.7020	2.4309	26.17	0.21	1.500			
0.6765	43294.63	3.6990	3.6990	2.3471	26.15	0.19	1.500			
0.6835	43746.68	3.6960	3.6961	2.2309	26.14	0.18	1.500			
0.6901	44164.58	3.6930	3.6930	2.0777	26.13	0.17	1.500			
0.6959	44539.31	3.6900	3.6898	1.8944	26.12	0.16	1.500			
0.7013	44884.14	3.6870	3.6871	1.7429	26.11	0.15	1.500			
0.7063	45201.77	3.6840	3.6840	1.6324	26.10	0.14	1.500			
0.7110	45500.90	3.6810	3.6810	1.5378	26.10	0.14	1.500			
0.7154	45784.69	3.6780	3.6779	1.4602	26.09	0.13	1.500			
0.7196	46051.24	3.6750	3.6751	1.3954	26.08	0.12	1.500			
0.7237	46313.91	3.6720	3.6720	1.3486	26.08	0.12	1.500			
0.7276	46564.55	3.6690	3.6690	1.3078	26.07	0.11	1.500			
0.7314	46810.10	3.6660	3.6660	1.2774	26.06	0.10	1.500			
0.7351	47048.76	3.6630	3.6631	1.2606	26.06	0.10	1.500			
0.7389	47286.76	3.6600	3.6599	1.2562	26.05	0.09	1.500			
0.7426	47524.20	3.6570	3.6570	1.2551	26.05	0.09	1.500			
0.7463	47766.05	3.6540	3.6539	1.2643	26.04	0.08	1.500			
0.7501	48009.55	3.6510	3.6510	1.2769	26.03	0.07	1.500			
0.7540	48257.48	3.6480	3.6480	1.2845	26.02	0.06	1.500			
0.7579	48508.14	3.6450	3.6450	1.2846	26.01	0.05	1.500			
0.7618	48754.02	3.6420	3.6420	1.2846	26.00	0.04	1.500			
0.7656	49000.35	3.6390	3.6391	1.2870	25.99	0.03	1.500			
0.7695	49247.49	3.6360	3.6360	1.2808	25.99	0.03	1.500			
0.7733	49493.26	3.6330	3.6330	1.2771	25.98	0.02	1.500			
0.7771	49737.54	3.6300	3.6300	1.2710	25.97	0.01	1.500			
0.7810	49981.97	3.6270	3.6270	1.2701	25.97	0.01	1.500			
0.7848	50227.72	3.6240	3.6240	1.2650	25.96	-0.00	1.500			
0.7885	50466.28	3.6210	3.6210	1.2548	25.95	-0.01	1.500			
0.7923	50707.03	3.6180	3.6180	1.2499	25.95	-0.01	1.500			
0.7961	50948.37	3.6150	3.6149	1.2459	25.94	-0.02	1.500			
0.7998	51187.13	3.6120	3.6120	1.2374	25.94	-0.02	1.500			
0.8035	51424.72	3.6090	3.6090	1.2259	25.93	-0.03	1.500			
0.8072	51660.31	3.6060	3.6060	1.2118	25.93	-0.03	1.500			
0.8108	51892.39	3.6030	3.6030	1.1906	25.93	-0.03	1.500			
0.8144	52118.66	3.6000	3.6000	1.1699	25.93	-0.03	1.500			
0.8178	52341.08	3.5970	3.5970	1.1541	25.92	-0.04	1.500			
0.8213	52561.15	3.5940	3.5939	1.1321	25.92	-0.04	1.500			
0.8246	52776.73	3.5910	3.5910	1.1097	25.92	-0.04	1.500			
0.8279	52988.36	3.5880	3.5880	1.0867	25.93	-0.03	1.500			
0.8313	53200.56	3.5850	3.5850	1.0492	25.94	-0.02	1.500			
0.8344	53401.83	3.5820	3.5820	0.9947	25.94	-0.02	1.500			
0.8374	53594.98	3.5790	3.5790	0.9180	25.95	-0.01	1.500			
0.8401	53766.29	3.5760	3.5761	0.8218	25.95	-0.01	1.500			
0.8425	53918.94	3.5730	3.5730	0.7204	25.95	-0.01	1.500			
0.8444	54043.76	3.5700	3.5700	0.6103	25.96	-0.00	1.500			
0.8460	54145.56	3.5670	3.5670	0.5040	25.96	-0.00	1.500			
0.8473	54229.21	3.5640	3.5640	0.4214	25.96	0.00	1.500			
0.8484	54295.88	3.5610	3.5610	0.3529	25.96	0.00	1.500			
0.8493	54355.20	3.5580	3.5579	0.3045	25.96	0.00	1.500			
0.8501	54406.42	3.5550	3.5549	0.2661	25.97	0.01	1.500			
0.8508	54450.82	3.5520	3.5521	0.2304	25.97	0.01	1.500			
0.8514	54491.52	3.5490	3.5489	0.2073	25.97	0.01	1.500			
0.8520	54527.37	3.5460	3.5460	0.1852	25.97	0.01	1.500			
0.8525	54560.92	3.5430	3.5430	0.1672	25.97	0.01	1.500			
0.8530	54591.20	3.5400	3.5400	0.1522	25.97	0.01	1.500			
0.8534	54618.60	3.5370	3.5370	0.1364	25.97	0.01	1.500			
0.8538	54643.11	3.5340	3.5340	0.1217	25.97	0.01	1.500			
0.8541	54664.94	3.5310	3.5310	0.1070	25.97	0.01	1.500			
0.8544	54684.15	3.5280	3.5280	0.0931	25.97	0.01	1.500			
0.8547	54700.84	3.5250	3.5251	0.0792	25.97	0.01	1.500			
0.8549	54714.88	3.5220	3.5222	0.0649	25.97	0.01	1.500			
0.8551	54725.94	3.5190	3.5196	0.0503	25.97	0.01	1.500			
0.8552	54734.19	3.5160	3.5169	0.0357	25.97	0.01	1.500			
