Ah_balance (normalized)	Ah_balance (mAh)	Voltage - fit (V)	Voltage -  interpolate (V)	dQ/dV (1/V)	Temperature (°C)	Temperature - diff (°C)	Current (C)	R_DC 0ms (mOhm)	R_DC 50ms (mOhm)	R_DC 50 ms PEC (mOhm)
0.2768	17713.00	3.9880	3.9880	0.8429	26.97	1.04	1.500			
0.2793	17876.17	3.9850	3.9850	0.8515	26.96	1.03	1.500			
0.2819	18040.02	3.9820	3.9819	0.8498	26.96	1.03	1.500			
0.2844	18201.76	3.9790	3.9791	0.8492	26.96	1.03	1.500			
0.2869	18364.45	3.9760	3.9760	0.8492	26.96	1.03	1.500			
0.2895	18527.91	3.9730	3.9730	0.8542	26.95	1.02	1.500			
0.2920	18690.69	3.9700	3.9700	0.8579	26.95	1.02	1.500			
0.2946	18856.83	3.9670	3.9670	0.8613	26.95	1.02	1.500			
0.2972	19023.27	3.9640	3.9640	0.8659	26.94	1.01	1.500			
0.2999	19190.55	3.9610	3.9610	0.8675	26.94	1.01	1.500			
0.3024	19355.77	3.9580	3.9580	0.8694	26.94	1.01	1.500			
0.3050	19522.31	3.9550	3.9550	0.8754	26.93	1.00	1.500			
0.3077	19689.89	3.9520	3.9520	0.8821	26.93	1.00	1.500			
0.3103	19861.15	3.9490	3.9490	0.8836	26.93	1.00	1.500			
0.3130	20032.42	3.9460	3.9461	0.8900	26.92	0.99	1.500			
0.3157	20204.19	3.9430	3.9430	0.8921	26.92	0.99	1.500			
0.3184	20375.97	3.9400	3.9399	0.8930	26.91	0.98	1.500			
0.3210	20545.41	3.9370	3.9370	0.8939	26.90	0.97	1.500			
0.3237	20717.10	3.9340	3.9340	0.8984	26.90	0.97	1.500			
0.3264	20889.71	3.9310	3.9310	0.9053	26.89	0.96	1.500			
0.3292	21065.81	3.9280	3.9281	0.9119	26.89	0.96	1.500			
0.3319	21239.84	3.9250	3.9250	0.9184	26.88	0.95	1.500			
0.3347	21417.61	3.9220	3.9220	0.9250	26.88	0.95	1.500			
0.3374	21595.55	3.9190	3.9190	0.9291	26.87	0.94	1.500			
0.3402	21773.39	3.9160	3.9160	0.9366	26.87	0.94	1.500			
0.3430	21954.84	3.9130	3.9131	0.9431	26.86	0.93	1.500			
0.3459	22135.85	3.9100	3.9099	0.9513	26.86	0.93	1.500			
0.3488	22320.32	3.9070	3.9070	0.9601	26.86	0.93	1.500			
0.3516	22505.11	3.9040	3.9040	0.9636	26.85	0.92	1.500			
0.3546	22691.96	3.9010	3.9010	0.9701	26.85	0.92	1.500			
0.3575	22877.71	3.8980	3.8980	0.9770	26.84	0.91	1.500			
0.3604	23064.70	3.8950	3.8950	0.9799	26.84	0.91	1.500			
0.3633	23253.89	3.8920	3.8920	0.9881	26.83	0.90	1.500			
0.3663	23442.46	3.8890	3.8890	0.9946	26.82	0.89	1.500			
0.3693	23635.03	3.8860	3.8860	1.0072	26.82	0.89	1.500			
0.3723	23829.60	3.8830	3.8830	1.0177	26.81	0.88	1.500			
0.3754	24025.99	3.8800	3.8800	1.0292	26.81	0.88	1.500			
0.3785	24224.56	3.8770	3.8771	1.0351	26.80	0.87	1.500			
0.3816	24425.08	3.8740	3.8740	1.0469	26.79	0.86	1.500			
0.3848	24626.23	3.8710	3.8710	1.0581	26.79	0.86	1.500			
0.3880	24829.11	3.8680	3.8679	1.0675	26.78	0.85	1.500			
0.3912	25034.98	3.8650	3.8650	1.0795	26.77	0.84	1.500			
0.3944	25243.14	3.8620	3.8620	1.0954	26.76	0.83	1.500			
0.3977	25454.15	3.8590	3.8590	1.1127	26.76	0.83	1.500			
0.4011	25670.41	3.8560	3.8559	1.1313	26.75	0.82	1.500			
0.4045	25888.73	3.8530	3.8530	1.1460	26.74	0.81	1.500			
0.4080	26110.80	3.8500	3.8499	1.1616	26.73	0.80	1.500			
0.4115	26335.91	3.8470	3.8471	1.1807	26.72	0.79	1.500			
0.4151	26564.62	3.8440	3.8440	1.1959	26.72	0.79	1.500			
0.4187	26794.93	3.8410	3.8410	1.2107	26.71	0.78	1.500			
0.4223	27027.55	3.8380	3.8380	1.2279	26.70	0.77	1.500			
0.4260	27265.30	3.8350	3.8350	1.2511	26.69	0.76	1.500			
0.4298	27507.92	3.8320	3.8320	1.2733	26.69	0.76	1.500			
0.4337	27755.20	3.8290	3.8289	1.2937	26.68	0.75	1.500			
0.4376	28003.68	3.8260	3.8260	1.3213	26.67	0.74	1.500			
0.4416	28261.29	3.8230	3.8231	1.3442	26.66	0.73	1.500			
0.4456	28520.32	3.8200	3.8199	1.3702	26.65	0.72	1.500			
0.4498	28786.02	3.8170	3.8170	1.3991	26.63	0.70	1.500			
0.4540	29054.71	3.8140	3.8140	1.4309	26.62	0.69	1.500			
0.4583	29332.19	3.8110	3.8109	1.4678	26.61	0.68	1.500			
0.4628	29618.93	3.8080	3.8080	1.5011	26.60	0.67	1.500			
0.4674	29910.40	3.8050	3.8050	1.5331	26.59	0.66	1.500			
0.4720	30210.59	3.8020	3.8020	1.5636	26.58	0.65	1.500			
0.4767	30510.96	3.7990	3.7991	1.5958	26.57	0.64	1.500			
0.4816	30820.65	3.7960	3.7960	1.6292	26.55	0.62	1.500			
0.4865	31135.64	3.7930	3.7929	1.6549	26.54	0.61	1.500			
0.4915	31457.55	3.7900	3.7901	1.6804	26.53	0.60	1.500			
0.4966	31785.40	3.7870	3.7870	1.7167	26.51	0.58	1.500			
0.5018	32117.11	3.7840	3.7839	1.7406	26.50	0.57	1.500			
0.5070	32451.09	3.7810	3.7810	1.7600	26.48	0.55	1.500			
0.5124	32792.95	3.7780	3.7780	1.7922	26.47	0.54	1.500			
0.5179	33142.77	3.7750	3.7750	1.8106	26.46	0.53	1.500			
0.5233	33491.20	3.7720	3.7720	1.8278	26.44	0.51	1.500	0.348	0.467	
0.5289	33847.82	3.7690	3.7690	1.8342	26.43	0.50	1.500			
0.5344	34199.90	3.7660	3.7659	1.8338	26.42	0.49	1.500			
0.5399	34554.49	3.7630	3.7631	1.8225	26.40	0.47	1.500			
0.5453	34900.47	3.7600	3.7600	1.8155	26.39	0.46	1.500			
0.5507	35246.82	3.7570	3.7571	1.8005	26.37	0.44	1.500			
0.5561	35592.84	3.7540	3.7539	1.8012	26.36	0.43	1.500			
0.5615	35937.41	3.7510	3.7511	1.8156	26.34	0.41	1.500			
0.5669	36284.35	3.7480	3.7480	1.8224	26.33	0.40	1.500			
0.5725	36636.98	3.7450	3.7450	1.8532	26.32	0.39	1.500			
0.5780	36993.72	3.7420	3.7420	1.8816	26.31	0.38	1.500			
0.5837	37359.44	3.7390	3.7390	1.9176	26.30	0.37	1.500			
0.5895	37730.92	3.7360	3.7360	1.9393	26.28	0.35	1.500			
0.5954	38104.45	3.7330	3.7330	1.9749	26.27	0.34	1.500			
0.6014	38486.96	3.7300	3.7300	2.0005	26.26	0.33	1.500			
0.6073	38869.85	3.7270	3.7271	2.0603	26.24	0.31	1.500			
0.6136	39271.27	3.7240	3.7240	2.1167	26.23	0.30	1.500			
0.6201	39684.17	3.7210	3.7209	2.1961	26.21	0.28	1.500			
0.6268	40116.25	3.7180	3.7180	2.2495	26.20	0.27	1.500			
0.6337	40555.23	3.7150	3.7150	2.2886	26.18	0.25	1.500			
0.6405	40992.57	3.7120	3.7120	2.3460	26.17	0.24	1.500			
0.6476	41446.68	3.7090	3.7090	2.3914	26.16	0.23	1.500			
0.6549	41912.53	3.7060	3.7061	2.4823	26.15	0.22	1.500			
0.6625	42399.66	3.7030	3.7030	2.4861	26.13	0.20	1.500			
0.6700	42879.48	3.7000	3.7001	2.4190	26.12	0.19	1.500			
0.6773	43344.42	3.6970	3.6970	2.2973	26.10	0.17	1.500			
0.6839	43768.45	3.6940	3.6940	2.1348	26.09	0.16	1.500			
0.6900	44161.67	3.6910	3.6910	1.9833	26.08	0.15	1.500			
0.6957	44524.50	3.6880	3.6880	1.8270	26.08	0.15	1.500			
0.7008	44853.86	3.6850	3.6851	1.6897	26.07	0.14	1.500			
0.7057	45166.96	3.6820	3.6820	1.5924	26.06	0.13	1.500			
0.7103	45458.59	3.6790	3.6790	1.4994	26.06	0.13	1.500			
0.7146	45736.44	3.6760	3.6760	1.4232	26.05	0.12	1.500			
0.7188	46001.51	3.6730	3.6730	1.3651	26.04	0.11	1.500			
0.7227	46254.83	3.6700	3.6700	1.3160	26.04	0.11	1.500			
0.7266	46499.61	3.6670	3.6670	1.2860	26.03	0.10	1.500			
0.7303	46740.22	3.6640	3.6640	1.2662	26.02	0.09	1.500			
0.7340	46976.58	3.6610	3.6610	1.2598	26.02	0.09	1.500			
0.7378	47218.56	3.6580	3.6580	1.2599	26.01	0.08	1.500			
0.7416	47462.01	3.6550	3.6550	1.2614	26.01	0.08	1.500			
0.7454	47705.28	3.6520	3.6520	1.2604	26.00	0.07	1.500			
0.7492	47945.97	3.6490	3.6491	1.2680	25.99	0.06	1.500			
0.7530	48189.70	3.6460	3.6460	1.2733	25.99	0.06	1.500			
0.7568	48433.51	3.6430	3.6429	1.2742	25.98	0.05	1.500			
0.7606	48679.89	3.6400	3.6400	1.2756	25.98	0.05	1.500			
0.7645	48927.84	3.6370	3.6370	1.2793	25.97	0.04	1.500			
0.7683	49173.47	3.6340	3.6340	1.2745	25.96	0.03	1.500			
0.7722	49417.96	3.6310	3.6310	1.2704	25.96	0.03	1.500			
0.7759	49658.51	3.6280	3.6280	1.2633	25.95	0.02	1.500			
0.7797	49900.81	3.6250	3.6250	1.2672	25.95	0.02	1.500			
0.7835	50144.36	3.6220	3.6220	1.2664	25.94	0.01	1.500			
0.7873	50387.94	3.6190	3.6190	1.2665	25.94	0.01	1.500			
0.7912	50633.86	3.6160	3.6160	1.2631	25.93	0.00	1.500			
0.7950	50877.00	3.6130	3.6130	1.2518	25.93	0.00	1.500			
0.7987	51116.09	3.6100	3.6100	1.2420	25.93	-0.00	1.500			
0.8024	51353.77	3.6070	3.6070	1.2271	25.92	-0.01	1.500			
0.8061	51587.34	3.6040	3.6040	1.2105	25.92	-0.01	1.500			
0.8097	51819.08	3.6010	3.6010	1.1964	25.92	-0.01	1.500			
0.8132	52047.43	3.5980	3.5980	1.1792	25.92	-0.01	1.500			
0.8168	52272.42	3.5950	3.5950	1.1651	25.92	-0.01	1.500			
0.8202	52494.97	3.5920	3.5920	1.1475	25.92	-0.01	1.500			
0.8236	52712.91	3.5890	3.5890	1.1258	25.93	-0.00	1.500			
0.8270	52930.65	3.5860	3.5860	1.0995	25.93	-0.00	1.500			
0.8303	53141.51	3.5830	3.5829	1.0574	25.93	-0.00	1.500			
0.8336	53348.74	3.5800	3.5800	0.9944	25.93	0.00	1.500			
0.8365	53537.25	3.5770	3.5771	0.9073	25.93	0.00	1.500			
0.8392	53708.52	3.5740	3.5740	0.8053	25.93	0.00	1.500			
0.8415	53853.45	3.5710	3.5710	0.6912	25.93	0.00	1.500			
0.8433	53970.69	3.5680	3.5680	0.5835	25.93	0.00	1.500			
0.8448	54068.23	3.5650	3.5649	0.4858	25.93	0.00	1.500			
0.8460	54146.16	3.5620	3.5619	0.4034	25.94	0.01	1.500			
0.8471	54213.41	3.5590	3.5590	0.3414	25.94	0.01	1.500			
0.8480	54269.25	3.5560	3.5560	0.2924	25.94	0.01	1.500			
0.8487	54318.35	3.5530	3.5528	0.2560	25.94	0.01	1.500			
0.8494	54361.74	3.5500	3.5501	0.2223	25.94	0.01	1.500			
0.8500	54400.47	3.5470	3.5469	0.2004	25.94	0.01	1.500			
0.8506	54435.89	3.5440	3.5439	0.1822	25.94	0.01	1.500			
0.8511	54468.89	3.5410	3.5409	0.1651	25.94	0.01	1.500			
0.8515	54497.85	3.5380	3.5381	0.1496	25.94	0.01	1.500			
0.8520	54525.49	3.5350	3.5350	0.1363	25.94	0.01	1.500			
0.8524	54550.47	3.5320	3.5320	0.1220	25.94	0.01	1.500			
0.8527	54572.57	3.5290	3.5290	0.1078	25.94	0.01	1.500			
0.8530	54591.90	3.5260	3.5262	0.0935	25.94	0.01	1.500			
0.8533	54608.57	3.5230	3.5231	0.0791	25.94	0.01	1.500			
0.8535	54622.79	3.5200	3.5202	0.0643	25.94	0.01	1.500			
0.8537	54633.67	3.5170	3.5175	0.0489	25.94	0.01	1.500			
0.8538	54641.58	3.5140	3.5149	0.0335	25.94	0.01	1.500			
