Ah_balance (normalized)	Ah_balance (mAh)	Voltage - fit (V)	Voltage -  interpolate (V)	dQ/dV (1/V)	Temperature (°C)	Temperature - diff (°C)	Current (C)	R_DC 0ms (mOhm)	R_DC 50ms (mOhm)	R_DC 50 ms PEC (mOhm)
0.2863	18321.21	3.9840	3.9840	0.8324	27.28	1.32	1.500			
0.2888	18483.81	3.9810	3.9809	0.8500	27.28	1.32	1.500			
0.2914	18647.56	3.9780	3.9781	0.8510	27.28	1.32	1.500			
0.2939	18809.31	3.9750	3.9751	0.8548	27.27	1.31	1.500			
0.2965	18974.45	3.9720	3.9719	0.8590	27.27	1.31	1.500			
0.2991	19139.78	3.9690	3.9690	0.8589	27.26	1.30	1.500			
0.3016	19304.26	3.9660	3.9660	0.8639	27.26	1.30	1.500			
0.3043	19473.41	3.9630	3.9631	0.8657	27.26	1.30	1.500			
0.3069	19638.75	3.9600	3.9600	0.8739	27.25	1.29	1.500			
0.3095	19805.19	3.9570	3.9570	0.8791	27.25	1.29	1.500			
0.3121	19972.91	3.9540	3.9541	0.8853	27.24	1.28	1.500			
0.3148	20144.74	3.9510	3.9508	0.8906	27.24	1.28	1.500			
0.3174	20316.36	3.9480	3.9481	0.8941	27.23	1.27	1.500			
0.3201	20488.86	3.9450	3.9450	0.8983	27.23	1.27	1.500			
0.3229	20663.20	3.9420	3.9422	0.9002	27.22	1.26	1.500			
0.3256	20835.77	3.9390	3.9388	0.8978	27.22	1.26	1.500			
0.3283	21008.06	3.9360	3.9361	0.8966	27.21	1.25	1.500			
0.3309	21179.15	3.9330	3.9331	0.9038	27.21	1.25	1.500			
0.3336	21352.99	3.9300	3.9300	0.9115	27.20	1.24	1.500			
0.3364	21527.76	3.9270	3.9269	0.9130	27.20	1.24	1.500			
0.3391	21701.93	3.9240	3.9239	0.9189	27.19	1.23	1.500			
0.3419	21880.46	3.9210	3.9211	0.9254	27.18	1.22	1.500			
0.3447	22059.31	3.9180	3.9180	0.9324	27.18	1.22	1.500			
0.3475	22238.06	3.9150	3.9150	0.9429	27.17	1.21	1.500			
0.3503	22419.37	3.9120	3.9120	0.9473	27.16	1.20	1.500			
0.3532	22603.72	3.9090	3.9089	0.9475	27.16	1.20	1.500			
0.3560	22785.05	3.9060	3.9060	0.9553	27.15	1.19	1.500			
0.3589	22967.40	3.9030	3.9031	0.9616	27.14	1.18	1.500			
0.3618	23152.33	3.9000	3.9000	0.9721	27.14	1.18	1.500			
0.3647	23338.89	3.8970	3.8970	0.9782	27.13	1.17	1.500			
0.3676	23526.95	3.8940	3.8941	0.9900	27.12	1.16	1.500			
0.3706	23719.97	3.8910	3.8910	1.0044	27.11	1.15	1.500			
0.3737	23915.97	3.8880	3.8880	1.0102	27.11	1.15	1.500			
0.3767	24109.86	3.8850	3.8850	1.0120	27.10	1.14	1.500			
0.3798	24305.30	3.8820	3.8820	1.0224	27.09	1.13	1.500			
0.3828	24500.08	3.8790	3.8791	1.0326	27.08	1.12	1.500			
0.3859	24699.60	3.8760	3.8760	1.0473	27.08	1.12	1.500			
0.3891	24901.56	3.8730	3.8729	1.0570	27.07	1.11	1.500			
0.3923	25106.41	3.8700	3.8700	1.0711	27.06	1.10	1.500			
0.3956	25315.49	3.8670	3.8671	1.0858	27.05	1.09	1.500			
0.3988	25523.62	3.8640	3.8640	1.0927	27.05	1.09	1.500			
0.4021	25734.03	3.8610	3.8609	1.1013	27.04	1.08	1.500			
0.4054	25944.63	3.8580	3.8581	1.1147	27.03	1.07	1.500			
0.4088	26160.15	3.8550	3.8550	1.1347	27.02	1.06	1.500			
0.4122	26379.12	3.8520	3.8520	1.1584	27.01	1.05	1.500			
0.4157	26604.01	3.8490	3.8490	1.1772	27.01	1.05	1.500			
0.4193	26833.32	3.8460	3.8459	1.1955	27.00	1.04	1.500			
0.4229	27065.36	3.8430	3.8430	1.2107	26.98	1.02	1.500			
0.4266	27301.13	3.8400	3.8401	1.2221	26.97	1.01	1.500			
0.4302	27533.63	3.8370	3.8370	1.2441	26.96	1.00	1.500			
0.4340	27773.02	3.8340	3.8340	1.2655	26.95	0.99	1.500			
0.4378	28016.78	3.8310	3.8309	1.2942	26.94	0.98	1.500			
0.4417	28268.38	3.8280	3.8280	1.3206	26.93	0.97	1.500			
0.4457	28527.23	3.8250	3.8251	1.3523	26.92	0.96	1.500			
0.4498	28789.80	3.8220	3.8219	1.3798	26.91	0.95	1.500			
0.4541	29059.31	3.8190	3.8190	1.4070	26.90	0.94	1.500			
0.4583	29328.22	3.8160	3.8160	1.4318	26.89	0.93	1.500			
0.4626	29606.00	3.8130	3.8130	1.4641	26.87	0.91	1.500			
0.4670	29888.24	3.8100	3.8100	1.4997	26.86	0.90	1.500			
0.4716	30183.64	3.8070	3.8070	1.5273	26.85	0.89	1.500			
0.4762	30478.62	3.8040	3.8040	1.5656	26.84	0.88	1.500			
0.4809	30780.67	3.8010	3.8011	1.6073	26.82	0.86	1.500			
0.4858	31092.89	3.7980	3.7980	1.6453	26.81	0.85	1.500			
0.4908	31411.41	3.7950	3.7950	1.6854	26.79	0.83	1.500			
0.4960	31741.51	3.7920	3.7921	1.7205	26.78	0.82	1.500			
0.5012	32075.35	3.7890	3.7890	1.7550	26.77	0.81	1.500			
0.5065	32418.11	3.7860	3.7860	1.7836	26.75	0.79	1.500			
0.5119	32763.09	3.7830	3.7830	1.8108	26.74	0.78	1.500			
0.5174	33114.82	3.7800	3.7800	1.8436	26.72	0.76	1.500			
0.5230	33469.04	3.7770	3.7770	1.8847	26.70	0.74	1.500			
0.5287	33836.48	3.7740	3.7739	1.9458	26.69	0.73	1.500			
0.5346	34215.50	3.7710	3.7709	1.9650	26.67	0.71	1.500	0.353	0.455	
0.5406	34599.57	3.7680	3.7681	1.9688	26.66	0.70	1.500			
0.5466	34980.30	3.7650	3.7650	1.9534	26.64	0.68	1.500			
0.5523	35348.47	3.7620	3.7620	1.9253	26.62	0.66	1.500			
0.5580	35713.26	3.7590	3.7590	1.9074	26.61	0.65	1.500			
0.5637	36077.89	3.7560	3.7559	1.9109	26.59	0.63	1.500			
0.5695	36444.83	3.7530	3.7530	1.9071	26.57	0.61	1.500			
0.5752	36811.51	3.7500	3.7500	1.8879	26.56	0.60	1.500			
0.5808	37170.83	3.7470	3.7471	1.8908	26.54	0.58	1.500			
0.5865	37534.34	3.7440	3.7440	1.9073	26.53	0.57	1.500			
0.5922	37901.46	3.7410	3.7410	1.9176	26.51	0.55	1.500			
0.5979	38268.68	3.7380	3.7381	1.9372	26.50	0.54	1.500			
0.6039	38647.79	3.7350	3.7350	1.9729	26.48	0.52	1.500			
0.6098	39025.82	3.7320	3.7321	2.0082	26.47	0.51	1.500			
0.6159	39416.70	3.7290	3.7290	2.0502	26.46	0.50	1.500			
0.6222	39818.16	3.7260	3.7260	2.0845	26.44	0.48	1.500			
0.6284	40215.99	3.7230	3.7230	2.1340	26.43	0.47	1.500			
0.6348	40627.17	3.7200	3.7201	2.1901	26.41	0.45	1.500			
0.6414	41051.74	3.7170	3.7169	2.2778	26.39	0.43	1.500			
0.6484	41500.03	3.7140	3.7140	2.3438	26.38	0.42	1.500			
0.6556	41957.15	3.7110	3.7110	2.4251	26.36	0.40	1.500			
0.6628	42420.94	3.7080	3.7079	2.4754	26.34	0.38	1.500			
0.6704	42906.36	3.7050	3.7051	2.5531	26.32	0.36	1.500			
0.6783	43410.15	3.7020	3.7020	2.6098	26.30	0.34	1.500			
0.6860	43903.59	3.6990	3.6990	2.5446	26.28	0.32	1.500			
0.6936	44391.92	3.6960	3.6960	2.4511	26.26	0.30	1.500			
0.7010	44863.44	3.6930	3.6930	2.3116	26.25	0.29	1.500			
0.7077	45290.37	3.6900	3.6900	2.1365	26.23	0.27	1.500			
0.7137	45675.25	3.6870	3.6869	1.9576	26.22	0.26	1.500			
0.7193	46032.18	3.6840	3.6840	1.8152	26.21	0.25	1.500			
0.7244	46364.06	3.6810	3.6810	1.6926	26.20	0.24	1.500			
0.7293	46675.35	3.6780	3.6780	1.5953	26.19	0.23	1.500			
0.7339	46969.38	3.6750	3.6750	1.5036	26.18	0.22	1.500			
0.7382	47246.77	3.6720	3.6720	1.4337	26.17	0.21	1.500			
0.7424	47513.16	3.6690	3.6691	1.3735	26.16	0.20	1.500			
0.7464	47767.66	3.6660	3.6659	1.3295	26.15	0.19	1.500			
0.7503	48016.43	3.6630	3.6630	1.2923	26.14	0.18	1.500			
0.7540	48256.66	3.6600	3.6600	1.2723	26.13	0.17	1.500			
0.7578	48497.13	3.6570	3.6571	1.2650	26.12	0.16	1.500			
0.7616	48739.66	3.6540	3.6540	1.2613	26.12	0.16	1.500			
0.7653	48981.07	3.6510	3.6509	1.2632	26.11	0.15	1.500			
0.7691	49223.10	3.6480	3.6481	1.2711	26.10	0.14	1.500			
0.7729	49468.02	3.6450	3.6450	1.2794	26.08	0.12	1.500			
0.7768	49716.84	3.6420	3.6419	1.2855	26.07	0.11	1.500			
0.7807	49963.39	3.6390	3.6391	1.2873	26.06	0.10	1.500			
0.7845	50210.84	3.6360	3.6360	1.2898	26.05	0.09	1.500			
0.7884	50460.48	3.6330	3.6329	1.2889	26.04	0.08	1.500			
0.7923	50707.71	3.6300	3.6300	1.2862	26.03	0.07	1.500			
0.7962	50953.96	3.6270	3.6270	1.2811	26.02	0.06	1.500			
0.8001	51203.43	3.6240	3.6240	1.2722	26.01	0.05	1.500			
0.8038	51445.19	3.6210	3.6210	1.2711	26.00	0.04	1.500			
0.8076	51687.56	3.6180	3.6180	1.2631	26.00	0.04	1.500			
0.8114	51930.61	3.6150	3.6151	1.2540	25.99	0.03	1.500			
0.8152	52171.60	3.6120	3.6120	1.2451	25.98	0.02	1.500			
0.8189	52409.09	3.6090	3.6091	1.2316	25.97	0.01	1.500			
0.8226	52644.33	3.6060	3.6060	1.2245	25.97	0.01	1.500			
0.8262	52879.77	3.6030	3.6030	1.2082	25.96	0.00	1.500			
0.8298	53108.52	3.6000	3.6000	1.1865	25.95	-0.01	1.500			
0.8334	53336.86	3.5970	3.5970	1.1733	25.95	-0.01	1.500			
0.8369	53561.71	3.5940	3.5942	1.1606	25.94	-0.02	1.500			
0.8403	53780.86	3.5910	3.5910	1.1459	25.94	-0.02	1.500			
0.8437	53998.80	3.5880	3.5879	1.1289	25.94	-0.02	1.500			
0.8471	54214.55	3.5850	3.5850	1.1144	25.95	-0.01	1.500			
0.8505	54432.01	3.5820	3.5819	1.0971	25.95	-0.01	1.500			
0.8539	54646.54	3.5790	3.5789	1.0400	25.95	-0.01	1.500			
0.8570	54847.67	3.5760	3.5761	0.9628	25.95	-0.01	1.500			
0.8599	55032.70	3.5730	3.5730	0.8741	25.96	-0.00	1.500			
0.8624	55192.73	3.5700	3.5701	0.7620	25.96	-0.00	1.500			
0.8645	55327.82	3.5670	3.5669	0.6467	25.96	0.00	1.500			
0.8662	55435.38	3.5640	3.5640	0.5405	25.96	0.00	1.500			
0.8675	55523.12	3.5610	3.5610	0.4457	25.96	0.00	1.500			
0.8687	55595.96	3.5580	3.5579	0.3761	25.96	0.00	1.500			
0.8696	55656.37	3.5550	3.5550	0.3176	25.96	0.00	1.500			
0.8705	55708.95	3.5520	3.5520	0.2673	25.97	0.01	1.500			
0.8712	55754.64	3.5490	3.5489	0.2363	25.97	0.01	1.500			
0.8718	55794.53	3.5460	3.5459	0.2088	25.97	0.01	1.500			
0.8724	55831.20	3.5430	3.5431	0.1886	25.97	0.01	1.500			
0.8729	55865.19	3.5400	3.5400	0.1701	25.97	0.01	1.500			
0.8734	55895.63	3.5370	3.5371	0.1549	25.97	0.01	1.500			
0.8738	55923.54	3.5340	3.5340	0.1393	25.97	0.01	1.500			
0.8742	55948.72	3.5310	3.5309	0.1242	25.97	0.01	1.500			
0.8746	55971.24	3.5280	3.5280	0.1104	25.97	0.01	1.500			
0.8749	55991.15	3.5250	3.5250	0.0967	25.97	0.01	1.500			
0.8751	56008.86	3.5220	3.5222	0.0831	25.97	0.01	1.500			
0.8754	56023.40	3.5190	3.5192	0.0684	25.97	0.01	1.500			
0.8756	56035.37	3.5160	3.5162	0.0528	25.97	0.01	1.500			
0.8757	56044.03	3.5130	3.5136	0.0374	25.97	0.01	1.500			
