Ah_balance (normalized)	Ah_balance (mAh)	Voltage - fit (V)	Voltage -  interpolate (V)	dQ/dV (1/V)	Temperature (°C)	Temperature - diff (°C)	Current (C)	R_DC 0ms (mOhm)	R_DC 50ms (mOhm)	R_DC 50 ms PEC (mOhm)
0.2113	13524.72	3.9130	3.9129	-0.1004	25.78	0.00	-1.500			
0.2117	13547.54	3.9100	3.9100	-0.1352	25.78	0.00	-1.500			
0.2121	13576.90	3.9070	3.9070	-0.1680	25.78	0.00	-1.500			
0.2127	13612.52	3.9040	3.9040	-0.1996	25.78	0.00	-1.500			
0.2134	13654.72	3.9010	3.9010	-0.2280	25.78	0.00	-1.500			
0.2141	13702.22	3.8980	3.8980	-0.2580	25.78	0.00	-1.500			
0.2149	13754.06	3.8950	3.8950	-0.2854	25.78	0.00	-1.500			
0.2158	13811.82	3.8920	3.8920	-0.3118	25.78	0.00	-1.500			
0.2168	13873.98	3.8890	3.8889	-0.3390	25.78	0.00	-1.500			
0.2178	13941.63	3.8860	3.8860	-0.3654	25.78	0.00	-1.500			
0.2190	14014.52	3.8830	3.8830	-0.3918	25.78	0.00	-1.500			
0.2202	14092.66	3.8800	3.8800	-0.4181	25.78	0.00	-1.500			
0.2215	14175.20	3.8770	3.8770	-0.4449	25.78	0.00	-1.500			
0.2229	14263.55	3.8740	3.8740	-0.4684	25.78	0.00	-1.500			
0.2243	14356.47	3.8710	3.8710	-0.4924	25.78	0.00	-1.500			
0.2258	14452.88	3.8680	3.8680	-0.5137	25.78	0.00	-1.500			
0.2274	14554.01	3.8650	3.8650	-0.5377	25.78	0.00	-1.500			
0.2291	14660.04	3.8620	3.8620	-0.5557	25.78	0.00	-1.500			
0.2308	14768.33	3.8590	3.8590	-0.5751	25.78	0.00	-1.500			
0.2325	14880.70	3.8560	3.8561	-0.5932	25.78	0.00	-1.500			
0.2343	14997.50	3.8530	3.8530	-0.6091	25.78	0.00	-1.500			
0.2362	15116.38	3.8500	3.8500	-0.6248	25.78	0.00	-1.500			
0.2381	15237.53	3.8470	3.8471	-0.6395	25.78	0.00	-1.500			
0.2400	15362.53	3.8440	3.8439	-0.6467	25.78	0.00	-1.500			
0.2420	15488.50	3.8410	3.8410	-0.6565	25.78	0.00	-1.500			
0.2440	15614.94	3.8380	3.8381	-0.6656	25.78	0.00	-1.500			
0.2460	15743.32	3.8350	3.8350	-0.6763	25.78	0.00	-1.500			
0.2481	15875.35	3.8320	3.8319	-0.6817	25.78	0.00	-1.500			
0.2501	16005.97	3.8290	3.8291	-0.6881	25.78	0.00	-1.500			
0.2522	16139.12	3.8260	3.8260	-0.6938	25.78	0.00	-1.500			
0.2543	16273.94	3.8230	3.8229	-0.7022	25.78	0.00	-1.500			
0.2564	16409.72	3.8200	3.8200	-0.7028	25.78	0.00	-1.500			
0.2585	16544.76	3.8170	3.8170	-0.7041	25.78	0.00	-1.500			
0.2606	16680.77	3.8140	3.8141	-0.7047	25.78	0.00	-1.500			
0.2628	16816.75	3.8110	3.8110	-0.7069	25.78	0.00	-1.500			
0.2649	16951.43	3.8080	3.8080	-0.7057	25.79	0.01	-1.500			
0.2670	17086.59	3.8050	3.8050	-0.7092	25.79	0.01	-1.500			
0.2691	17222.49	3.8020	3.8020	-0.7106	25.79	0.01	-1.500			
0.2712	17359.21	3.7990	3.7990	-0.7157	25.80	0.02	-1.500			
0.2734	17497.99	3.7960	3.7960	-0.7177	25.80	0.02	-1.500			
0.2756	17636.52	3.7930	3.7930	-0.7192	25.80	0.02	-1.500			
0.2777	17774.70	3.7900	3.7900	-0.7175	25.81	0.03	-1.500			
0.2799	17912.56	3.7870	3.7871	-0.7169	25.81	0.03	-1.500			
0.2820	18049.39	3.7840	3.7840	-0.7158	25.81	0.03	-1.500			
0.2842	18188.32	3.7810	3.7809	-0.7112	25.82	0.04	-1.500			
0.2863	18323.64	3.7780	3.7780	-0.7057	25.82	0.04	-1.500			
0.2884	18457.58	3.7750	3.7751	-0.7104	25.82	0.04	-1.500			
0.2905	18593.49	3.7720	3.7721	-0.7125	25.83	0.05	-1.500			
0.2927	18730.35	3.7690	3.7688	-0.7130	25.83	0.05	-1.500			
0.2948	18867.94	3.7660	3.7660	-0.7186	25.83	0.05	-1.500			
0.2970	19007.14	3.7630	3.7631	-0.7216	25.84	0.06	-1.500			
0.2992	19147.64	3.7600	3.7600	-0.7260	25.84	0.06	-1.500			
0.3014	19287.31	3.7570	3.7570	-0.7228	25.85	0.07	-1.500			
0.3035	19424.97	3.7540	3.7540	-0.7188	25.85	0.07	-1.500			
0.3057	19563.29	3.7510	3.7510	-0.7190	25.85	0.07	-1.500			
0.3078	19700.60	3.7480	3.7480	-0.7223	25.86	0.08	-1.500			
0.3100	19838.75	3.7450	3.7450	-0.7226	25.86	0.08	-1.500			
0.3122	19978.05	3.7420	3.7419	-0.7258	25.86	0.08	-1.500			
0.3143	20117.79	3.7390	3.7391	-0.7279	25.87	0.09	-1.500			
0.3165	20258.46	3.7360	3.7360	-0.7298	25.87	0.09	-1.500			
0.3187	20398.57	3.7330	3.7330	-0.7310	25.87	0.09	-1.500			
0.3209	20537.99	3.7300	3.7300	-0.7349	25.88	0.10	-1.500			
0.3231	20678.54	3.7270	3.7270	-0.7380	25.88	0.10	-1.500			
0.3253	20821.55	3.7240	3.7239	-0.7434	25.88	0.10	-1.500			
0.3276	20964.45	3.7210	3.7210	-0.7499	25.89	0.11	-1.500			
0.3298	21109.38	3.7180	3.7181	-0.7568	25.89	0.11	-1.500			
0.3321	21255.37	3.7150	3.7150	-0.7620	25.89	0.11	-1.500			
0.3344	21401.76	3.7120	3.7120	-0.7681	25.90	0.12	-1.500			
0.3367	21549.24	3.7090	3.7090	-0.7759	25.90	0.12	-1.500			
0.3391	21699.92	3.7060	3.7060	-0.7825	25.91	0.13	-1.500			
0.3414	21850.66	3.7030	3.7030	-0.7900	25.91	0.13	-1.500			
0.3438	22002.82	3.7000	3.7000	-0.7955	25.92	0.14	-1.500			
0.3462	22156.11	3.6970	3.6970	-0.8052	25.92	0.14	-1.500			
0.3486	22310.78	3.6940	3.6940	-0.8130	25.93	0.15	-1.500			
0.3510	22467.14	3.6910	3.6910	-0.8223	25.93	0.15	-1.500			
0.3535	22625.07	3.6880	3.6880	-0.8368	25.94	0.16	-1.500			
0.3561	22787.38	3.6850	3.6850	-0.8511	25.94	0.16	-1.500			
0.3586	22952.20	3.6820	3.6820	-0.8624	25.95	0.17	-1.500			
0.3613	23120.10	3.6790	3.6791	-0.8738	25.95	0.17	-1.500			
0.3639	23289.07	3.6760	3.6759	-0.8828	25.95	0.17	-1.500			
0.3665	23459.17	3.6730	3.6731	-0.8994	25.96	0.18	-1.500			
0.3692	23630.91	3.6700	3.6701	-0.9152	25.96	0.18	-1.500			
0.3720	23809.45	3.6670	3.6669	-0.9295	25.96	0.18	-1.500			
0.3748	23989.89	3.6640	3.6640	-0.9451	25.97	0.19	-1.500			
0.3777	24173.36	3.6610	3.6611	-0.9655	25.97	0.19	-1.500			
0.3806	24359.66	3.6580	3.6581	-0.9848	25.97	0.19	-1.500			
0.3836	24551.05	3.6550	3.6549	-1.0031	25.98	0.20	-1.500			
0.3866	24744.03	3.6520	3.6520	-1.0211	25.98	0.20	-1.500			
0.3897	24941.24	3.6490	3.6490	-1.0390	25.99	0.21	-1.500			
0.3929	25143.52	3.6460	3.6461	-1.0615	25.99	0.21	-1.500			
0.3961	25349.81	3.6430	3.6429	-1.0761	26.00	0.22	-1.500			
0.3994	25559.91	3.6400	3.6400	-1.0941	26.00	0.22	-1.500			
0.4026	25769.34	3.6370	3.6371	-1.1133	26.01	0.23	-1.500			
0.4060	25985.99	3.6340	3.6340	-1.1327	26.01	0.23	-1.500			
0.4095	26205.03	3.6310	3.6310	-1.1535	26.02	0.24	-1.500			
0.4130	26428.88	3.6280	3.6281	-1.1768	26.02	0.24	-1.500			
0.4165	26656.30	3.6250	3.6250	-1.1984	26.02	0.24	-1.500			
0.4202	26889.92	3.6220	3.6220	-1.2192	26.02	0.24	-1.500			
0.4238	27125.43	3.6190	3.6190	-1.2505	26.02	0.24	-1.500			
0.4276	27367.69	3.6160	3.6160	-1.2683	26.02	0.24	-1.500			
0.4315	27615.57	3.6130	3.6129	-1.2924	26.02	0.24	-1.500			
0.4354	27866.34	3.6100	3.6102	-1.3080	26.02	0.24	-1.500			
0.4394	28120.13	3.6070	3.6070	-1.3271	26.02	0.24	-1.500			
0.4434	28376.01	3.6040	3.6040	-1.3451	26.02	0.24	-1.500			
0.4474	28634.47	3.6010	3.6011	-1.3662	26.02	0.24	-1.500			
0.4515	28897.18	3.5980	3.5979	-1.3912	26.03	0.25	-1.500			
0.4557	29166.84	3.5950	3.5950	-1.4151	26.03	0.25	-1.500			
0.4600	29440.54	3.5920	3.5920	-1.4384	26.03	0.25	-1.500			
0.4644	29718.82	3.5890	3.5890	-1.4658	26.03	0.25	-1.500			
0.4688	30003.72	3.5860	3.5859	-1.4900	26.03	0.25	-1.500			
0.4734	30294.76	3.5830	3.5830	-1.5175	26.04	0.26	-1.500			
0.4779	30588.39	3.5800	3.5800	-1.5355	26.04	0.26	-1.500			
0.4826	30887.29	3.5770	3.5770	-1.5633	26.04	0.26	-1.500			
0.4874	31190.71	3.5740	3.5739	-1.5816	26.04	0.26	-1.500			
0.4921	31492.85	3.5710	3.5710	-1.6108	26.05	0.27	-1.500			
0.4969	31803.74	3.5680	3.5680	-1.6346	26.05	0.27	-1.500			
0.5019	32119.30	3.5650	3.5650	-1.6511	26.05	0.27	-1.500			
0.5070	32445.84	3.5620	3.5619	-1.6784	26.06	0.28	-1.500			
0.5120	32770.43	3.5590	3.5591	-1.6900	26.06	0.28	-1.500			
0.5171	33094.44	3.5560	3.5561	-1.7004	26.07	0.29	-1.500			
0.5222	33423.26	3.5530	3.5529	-1.7183	26.07	0.29	-1.500			
0.5274	33750.73	3.5500	3.5500	-1.7189	26.07	0.29	-1.500			
0.5326	34085.14	3.5470	3.5470	-1.7397	26.08	0.30	-1.500			
0.5378	34421.80	3.5440	3.5440	-1.7620	26.08	0.30	-1.500			
0.5431	34760.77	3.5410	3.5410	-1.7760	26.09	0.31	-1.500			
0.5485	35104.76	3.5380	3.5380	-1.7776	26.09	0.31	-1.500			
0.5539	35446.63	3.5350	3.5349	-1.7781	26.09	0.31	-1.500	0.391	0.522	
0.5592	35789.86	3.5320	3.5321	-1.7880	26.10	0.32	-1.500			
0.5646	36134.48	3.5290	3.5289	-1.7855	26.11	0.33	-1.500			
0.5699	36475.76	3.5260	3.5260	-1.7848	26.12	0.34	-1.500			
0.5753	36816.90	3.5230	3.5230	-1.7837	26.13	0.35	-1.500			
0.5807	37162.96	3.5200	3.5200	-1.7864	26.14	0.36	-1.500			
0.5860	37503.77	3.5170	3.5172	-1.7880	26.15	0.37	-1.500			
0.5913	37845.40	3.5140	3.5140	-1.7881	26.16	0.38	-1.500			
0.5967	38187.99	3.5110	3.5110	-1.7868	26.16	0.38	-1.500			
0.6021	38531.43	3.5080	3.5081	-1.7855	26.17	0.39	-1.500			
0.6075	38876.88	3.5050	3.5050	-1.7913	26.18	0.40	-1.500			
0.6128	39220.99	3.5020	3.5020	-1.7893	26.19	0.41	-1.500			
0.6182	39564.02	3.4990	3.4990	-1.7886	26.20	0.42	-1.500			
0.6235	39906.78	3.4960	3.4960	-1.7836	26.21	0.43	-1.500			
0.6289	40248.14	3.4930	3.4930	-1.7734	26.22	0.44	-1.500			
0.6342	40591.18	3.4900	3.4899	-1.7710	26.24	0.46	-1.500			
0.6395	40928.97	3.4870	3.4870	-1.7592	26.25	0.47	-1.500			
0.6448	41265.73	3.4840	3.4840	-1.7504	26.26	0.48	-1.500			
0.6500	41599.39	3.4810	3.4811	-1.7435	26.27	0.49	-1.500			
0.6552	41935.53	3.4780	3.4780	-1.7310	26.29	0.51	-1.500			
0.6604	42267.11	3.4750	3.4749	-1.7138	26.30	0.52	-1.500			
0.6655	42595.10	3.4720	3.4721	-1.6960	26.31	0.53	-1.500			
0.6706	42919.95	3.4690	3.4690	-1.6813	26.33	0.55	-1.500			
0.6756	43239.72	3.4660	3.4660	-1.6593	26.34	0.56	-1.500			
0.6806	43557.55	3.4630	3.4629	-1.6335	26.36	0.58	-1.500			
0.6854	43867.29	3.4600	3.4600	-1.6081	26.37	0.59	-1.500			
0.6902	44175.78	3.4570	3.4570	-1.5880	26.39	0.61	-1.500			
0.6950	44478.85	3.4540	3.4540	-1.5659	26.40	0.62	-1.500			
0.6996	44776.79	3.4510	3.4509	-1.5404	26.42	0.64	-1.500			
0.7042	45068.35	3.4480	3.4480	-1.5175	26.44	0.66	-1.500			
0.7087	45357.32	3.4450	3.4449	-1.4953	26.45	0.67	-1.500			
0.7132	45641.88	3.4420	3.4420	-1.4832	26.47	0.69	-1.500			
0.7176	45923.31	3.4390	3.4390	-1.4678	26.49	0.71	-1.500			
0.7219	46202.73	3.4360	3.4359	-1.4656	26.51	0.73	-1.500			
0.7263	46481.92	3.4330	3.4330	-1.4630	26.53	0.75	-1.500			
0.7307	46765.23	3.4300	3.4299	-1.4539	26.55	0.77	-1.500			
0.7351	47046.62	3.4270	3.4271	-1.4408	26.56	0.78	-1.500			
0.7394	47323.72	3.4240	3.4240	-1.4262	26.58	0.80	-1.500			
0.7437	47594.89	3.4210	3.4210	-1.4124	26.60	0.82	-1.500			
0.7479	47866.10	3.4180	3.4179	-1.3957	26.62	0.84	-1.500			
0.7520	48130.18	3.4150	3.4150	-1.3674	26.64	0.86	-1.500			
0.7561	48393.57	3.4120	3.4121	-1.3428	26.66	0.88	-1.500			
0.7602	48650.49	3.4090	3.4091	-1.3165	26.67	0.89	-1.500			
0.7641	48902.64	3.4060	3.4059	-1.2833	26.69	0.91	-1.500			
0.7679	49144.11	3.4030	3.4030	-1.2415	26.70	0.92	-1.500			
0.7715	49377.76	3.4000	3.4000	-1.1986	26.72	0.94	-1.500			
0.7751	49605.41	3.3970	3.3970	-1.1638	26.74	0.96	-1.500			
0.7786	49827.47	3.3940	3.3940	-1.1248	26.75	0.97	-1.500			
0.7818	50038.14	3.3910	3.3910	-1.0821	26.77	0.99	-1.500			
0.7850	50242.05	3.3880	3.3880	-1.0358	26.78	1.00	-1.500			
0.7881	50437.31	3.3850	3.3850	-0.9946	26.79	1.01	-1.500			
0.7910	50623.83	3.3820	3.3820	-0.9537	26.81	1.03	-1.500			
0.7938	50801.71	3.3790	3.3791	-0.9157	26.82	1.04	-1.500			
0.7964	50972.34	3.3760	3.3760	-0.8811	26.84	1.06	-1.500			
0.7990	51138.12	3.3730	3.3729	-0.8488	26.85	1.07	-1.500			
0.8015	51297.01	3.3700	3.3700	-0.8207	26.86	1.08	-1.500			
0.8040	51452.93	3.3670	3.3670	-0.7943	26.88	1.10	-1.500			
0.8063	51601.98	3.3640	3.3640	-0.7636	26.89	1.11	-1.500			
0.8085	51746.46	3.3610	3.3609	-0.7344	26.89	1.11	-1.500			
0.8107	51884.22	3.3580	3.3581	-0.7079	26.90	1.12	-1.500			
0.8128	52016.07	3.3550	3.3550	-0.6818	26.91	1.13	-1.500			
0.8148	52144.20	3.3520	3.3520	-0.6605	26.92	1.14	-1.500			
0.8167	52267.79	3.3490	3.3489	-0.6394	26.93	1.15	-1.500			
0.8186	52388.83	3.3460	3.3460	-0.6213	26.94	1.16	-1.500			
0.8204	52506.33	3.3430	3.3430	-0.6035	26.95	1.17	-1.500			
0.8222	52620.86	3.3400	3.3400	-0.5871	26.96	1.18	-1.500			
0.8239	52731.84	3.3370	3.3370	-0.5677	26.97	1.19	-1.500			
0.8256	52838.57	3.3340	3.3340	-0.5501	26.98	1.20	-1.500			
0.8272	52942.64	3.3310	3.3310	-0.5334	26.99	1.21	-1.500			
0.8288	53043.23	3.3280	3.3280	-0.5153	26.99	1.21	-1.500			
0.8303	53140.43	3.3250	3.3250	-0.4997	27.00	1.22	-1.500			
0.8318	53233.88	3.3220	3.3220	-0.4847	27.01	1.23	-1.500			
0.8332	53325.31	3.3190	3.3190	-0.4716	27.01	1.23	-1.500			
0.8346	53414.65	3.3160	3.3159	-0.4573	27.02	1.24	-1.500			
0.8360	53501.20	3.3130	3.3130	-0.4439	27.02	1.24	-1.500			
0.8373	53585.15	3.3100	3.3101	-0.4329	27.03	1.25	-1.500			
0.8385	53667.13	3.3070	3.3070	-0.4225	27.04	1.26	-1.500			
0.8398	53747.05	3.3040	3.3039	-0.4077	27.04	1.26	-1.500			
0.8410	53823.98	3.3010	3.3010	-0.3960	27.05	1.27	-1.500			
0.8422	53898.96	3.2980	3.2981	-0.3843	27.06	1.28	-1.500			
0.8433	53971.89	3.2950	3.2950	-0.3743	27.06	1.28	-1.500			
0.8444	54042.57	3.2920	3.2919	-0.3625	27.07	1.29	-1.500			
0.8455	54110.26	3.2890	3.2890	-0.3539	27.08	1.30	-1.500			
0.8465	54176.99	3.2860	3.2861	-0.3450	27.08	1.30	-1.500			
0.8475	54243.16	3.2830	3.2829	-0.3389	27.09	1.31	-1.500			
0.8486	54307.47	3.2800	3.2800	-0.3299	27.09	1.31	-1.500			
0.8495	54370.17	3.2770	3.2770	-0.3203	27.10	1.32	-1.500			
0.8505	54430.70	3.2740	3.2741	-0.3107	27.11	1.33	-1.500			
0.8514	54489.50	3.2710	3.2710	-0.3028	27.11	1.33	-1.500			
0.8523	54546.21	3.2680	3.2679	-0.2943	27.12	1.34	-1.500			
0.8531	54601.57	3.2650	3.2651	-0.2886	27.12	1.34	-1.500			
0.8540	54656.02	3.2620	3.2620	-0.2832	27.13	1.35	-1.500			
0.8548	54710.14	3.2590	3.2590	-0.2790	27.13	1.35	-1.500			
0.8557	54763.63	3.2560	3.2560	-0.2723	27.13	1.35	-1.500			
0.8565	54815.51	3.2530	3.2530	-0.2667	27.14	1.36	-1.500			
0.8573	54865.91	3.2500	3.2501	-0.2611	27.14	1.36	-1.500			
0.8580	54915.19	3.2470	3.2470	-0.2552	27.15	1.37	-1.500			
0.8588	54963.28	3.2440	3.2440	-0.2504	27.15	1.37	-1.500			
0.8595	55010.79	3.2410	3.2410	-0.2457	27.16	1.38	-1.500			
0.8603	55057.70	3.2380	3.2380	-0.2419	27.16	1.38	-1.500			
0.8610	55104.31	3.2350	3.2350	-0.2387	27.16	1.38	-1.500			
0.8617	55149.59	3.2320	3.2320	-0.2334	27.17	1.39	-1.500			
0.8624	55193.72	3.2290	3.2290	-0.2291	27.17	1.39	-1.500			
0.8631	55237.46	3.2260	3.2260	-0.2248	27.18	1.40	-1.500			
0.8638	55280.17	3.2230	3.2230	-0.2200	27.18	1.40	-1.500			
0.8644	55321.68	3.2200	3.2200	-0.2159	27.19	1.41	-1.500			
0.8650	55362.52	3.2170	3.2171	-0.2123	27.19	1.41	-1.500			
0.8657	55402.68	3.2140	3.2140	-0.2090	27.20	1.42	-1.500			
0.8663	55442.57	3.2110	3.2110	-0.2065	27.20	1.42	-1.500			
0.8669	55481.87	3.2080	3.2080	-0.2042	27.21	1.43	-1.500			
0.8675	55520.72	3.2050	3.2050	-0.2013	27.21	1.43	-1.500			
0.8681	55559.47	3.2020	3.2020	-0.1997	27.22	1.44	-1.500			
0.8687	55597.55	3.1990	3.1990	-0.1968	27.22	1.44	-1.500			
0.8693	55635.00	3.1960	3.1960	-0.1943	27.23	1.45	-1.500			
0.8699	55672.03	3.1930	3.1930	-0.1919	27.23	1.45	-1.500			
0.8704	55708.53	3.1900	3.1900	-0.1893	27.23	1.45	-1.500			
0.8710	55744.71	3.1870	3.1870	-0.1868	27.24	1.46	-1.500			
0.8716	55780.30	3.1840	3.1840	-0.1844	27.24	1.46	-1.500			
0.8721	55815.36	3.1810	3.1810	-0.1827	27.25	1.47	-1.500			
0.8727	55850.21	3.1780	3.1780	-0.1810	27.25	1.47	-1.500			
0.8732	55884.69	3.1750	3.1750	-0.1792	27.26	1.48	-1.500			
0.8737	55918.83	3.1720	3.1719	-0.1772	27.26	1.48	-1.500			
0.8743	55952.73	3.1690	3.1690	-0.1757	27.26	1.48	-1.500			
0.8748	55986.41	3.1660	3.1660	-0.1738	27.27	1.49	-1.500			
0.8753	56019.80	3.1630	3.1630	-0.1720	27.27	1.49	-1.500			
0.8758	56052.75	3.1600	3.1600	-0.1697	27.28	1.50	-1.500			
0.8763	56084.80	3.1570	3.1570	-0.1679	27.28	1.50	-1.500			
0.8768	56116.63	3.1540	3.1541	-0.1665	27.29	1.51	-1.500			
0.8773	56148.51	3.1510	3.1509	-0.1656	27.29	1.51	-1.500			
0.8778	56180.09	3.1480	3.1479	-0.1644	27.30	1.52	-1.500			
0.8783	56211.66	3.1450	3.1449	-0.1626	27.30	1.52	-1.500			
0.8788	56242.80	3.1420	3.1420	-0.1621	27.31	1.53	-1.500			
0.8793	56273.79	3.1390	3.1392	-0.1608	27.31	1.53	-1.500			
0.8798	56304.85	3.1360	3.1360	-0.1588	27.32	1.54	-1.500			
0.8802	56334.93	3.1330	3.1329	-0.1569	27.32	1.54	-1.500			
0.8807	56364.65	3.1300	3.1301	-0.1553	27.33	1.55	-1.500			
0.8812	56394.37	3.1270	3.1270	-0.1543	27.33	1.55	-1.500			
0.8816	56423.95	3.1240	3.1240	-0.1528	27.34	1.56	-1.500			
0.8821	56453.02	3.1210	3.1211	-0.1522	27.34	1.56	-1.500			
0.8825	56481.79	3.1180	3.1180	-0.1509	27.34	1.56	-1.500			
0.8830	56510.80	3.1150	3.1151	-0.1508	27.35	1.57	-1.500			
0.8834	56540.08	3.1120	3.1119	-0.1502	27.35	1.57	-1.500			
0.8839	56569.05	3.1090	3.1089	-0.1486	27.36	1.58	-1.500			
0.8843	56597.60	3.1060	3.1061	-0.1473	27.36	1.58	-1.500			
0.8848	56625.55	3.1030	3.1031	-0.1463	27.37	1.59	-1.500			
0.8852	56653.63	3.1000	3.1000	-0.1456	27.38	1.60	-1.500			
0.8856	56681.11	3.0970	3.0969	-0.1438	27.38	1.60	-1.500			
0.8861	56708.67	3.0940	3.0939	-0.1432	27.39	1.61	-1.500			
0.8865	56735.97	3.0910	3.0911	-0.1423	27.39	1.61	-1.500			
0.8869	56763.29	3.0880	3.0880	-0.1419	27.40	1.62	-1.500			
0.8874	56790.67	3.0850	3.0850	-0.1418	27.40	1.62	-1.500			
0.8878	56817.80	3.0820	3.0820	-0.1408	27.41	1.63	-1.500			
0.8882	56844.65	3.0790	3.0789	-0.1390	27.41	1.63	-1.500			
0.8886	56871.40	3.0760	3.0760	-0.1379	27.41	1.63	-1.500			
0.8890	56897.62	3.0730	3.0731	-0.1371	27.42	1.64	-1.500			
0.8894	56923.84	3.0700	3.0700	-0.1360	27.42	1.64	-1.500			
0.8898	56949.62	3.0670	3.0670	-0.1357	27.43	1.65	-1.500			
0.8902	56975.55	3.0640	3.0639	-0.1346	27.43	1.65	-1.500			
0.8906	57001.36	3.0610	3.0609	-0.1341	27.44	1.66	-1.500			
0.8910	57027.09	3.0580	3.0581	-0.1339	27.44	1.66	-1.500			
0.8915	57053.09	3.0550	3.0551	-0.1333	27.45	1.67	-1.500			
0.8919	57078.75	3.0520	3.0520	-0.1324	27.45	1.67	-1.500			
0.8922	57103.97	3.0490	3.0490	-0.1308	27.45	1.67	-1.500			
0.8926	57128.82	3.0460	3.0460	-0.1301	27.46	1.68	-1.500			
0.8930	57153.53	3.0430	3.0431	-0.1291	27.46	1.68	-1.500			
0.8934	57178.35	3.0400	3.0399	-0.1287	27.47	1.69	-1.500			
0.8938	57202.79	3.0370	3.0369	-0.1278	27.47	1.69	-1.500			
0.8942	57227.39	3.0340	3.0340	-0.1272	27.48	1.70	-1.500			
0.8946	57251.85	3.0310	3.0310	-0.1268	27.48	1.70	-1.500			
0.8949	57276.14	3.0280	3.0281	-0.1260	27.48	1.70	-1.500			
0.8953	57300.46	3.0250	3.0249	-0.1255	27.49	1.71	-1.500			
0.8957	57324.30	3.0220	3.0220	-0.1245	27.49	1.71	-1.500			
0.8961	57348.10	3.0190	3.0190	-0.1239	27.50	1.72	-1.500			
0.8964	57371.81	3.0160	3.0160	-0.1233	27.50	1.72	-1.500			
0.8968	57395.38	3.0130	3.0130	-0.1231	27.50	1.72	-1.500			
0.8972	57418.92	3.0100	3.0100	-0.1227	27.51	1.73	-1.500			
0.8975	57442.46	3.0070	3.0070	-0.1225	27.51	1.73	-1.500			
0.8979	57465.88	3.0040	3.0041	-0.1227	27.52	1.74	-1.500			
0.8983	57489.45	3.0010	3.0010	-0.1229	27.52	1.74	-1.500			
