Ah_balance (normalized)	Ah_balance (mAh)	Voltage - fit (V)	Voltage -  interpolate (V)	dQ/dV (1/V)	Temperature (°C)	Temperature - diff (°C)	Current (C)	R_DC 0ms (mOhm)	R_DC 50ms (mOhm)	R_DC 50 ms PEC (mOhm)
0.2872	18380.91	3.9720	3.9720	0.8591	27.13	1.19	1.500			
0.2898	18548.00	3.9690	3.9690	0.8747	27.12	1.18	1.500			
0.2925	18717.69	3.9660	3.9659	0.8823	27.12	1.18	1.500			
0.2951	18888.77	3.9630	3.9630	0.8823	27.12	1.18	1.500			
0.2978	19058.93	3.9600	3.9600	0.8847	27.11	1.17	1.500			
0.3005	19228.92	3.9570	3.9570	0.8851	27.11	1.17	1.500			
0.3031	19399.01	3.9540	3.9540	0.8837	27.11	1.17	1.500			
0.3057	19566.70	3.9510	3.9510	0.8866	27.11	1.17	1.500			
0.3084	19735.84	3.9480	3.9481	0.8936	27.10	1.16	1.500			
0.3111	19908.35	3.9450	3.9450	0.9006	27.10	1.16	1.500			
0.3138	20082.51	3.9420	3.9419	0.9064	27.10	1.16	1.500			
0.3165	20257.97	3.9390	3.9390	0.9086	27.09	1.15	1.500			
0.3193	20433.09	3.9360	3.9360	0.9151	27.09	1.15	1.500			
0.3220	20609.91	3.9330	3.9330	0.9190	27.09	1.15	1.500			
0.3248	20785.10	3.9300	3.9300	0.9250	27.08	1.14	1.500			
0.3275	20962.17	3.9270	3.9271	0.9261	27.08	1.14	1.500			
0.3303	21141.32	3.9240	3.9239	0.9324	27.07	1.13	1.500			
0.3331	21321.25	3.9210	3.9211	0.9383	27.07	1.13	1.500			
0.3360	21501.55	3.9180	3.9180	0.9443	27.07	1.13	1.500			
0.3388	21682.69	3.9150	3.9150	0.9509	27.06	1.12	1.500			
0.3417	21866.38	3.9120	3.9119	0.9603	27.06	1.12	1.500			
0.3445	22050.33	3.9090	3.9090	0.9671	27.05	1.11	1.500			
0.3475	22238.78	3.9060	3.9060	0.9773	27.05	1.11	1.500			
0.3504	22427.66	3.9030	3.9030	0.9859	27.04	1.10	1.500			
0.3534	22617.30	3.9000	3.9001	0.9940	27.04	1.10	1.500			
0.3564	22808.13	3.8970	3.8970	0.9995	27.03	1.09	1.500			
0.3594	23000.19	3.8940	3.8940	1.0094	27.03	1.09	1.500			
0.3624	23195.49	3.8910	3.8910	1.0147	27.03	1.09	1.500			
0.3655	23390.54	3.8880	3.8880	1.0241	27.02	1.08	1.500			
0.3686	23588.90	3.8850	3.8850	1.0328	27.02	1.08	1.500			
0.3717	23786.52	3.8820	3.8820	1.0437	27.02	1.08	1.500			
0.3748	23986.94	3.8790	3.8790	1.0549	27.01	1.07	1.500			
0.3780	24191.84	3.8760	3.8759	1.0656	27.01	1.07	1.500			
0.3812	24397.27	3.8730	3.8730	1.0760	27.00	1.06	1.500			
0.3845	24606.06	3.8700	3.8700	1.0905	26.99	1.05	1.500			
0.3878	24816.78	3.8670	3.8670	1.0974	26.98	1.04	1.500			
0.3911	25027.41	3.8640	3.8640	1.1064	26.98	1.04	1.500			
0.3944	25238.56	3.8610	3.8611	1.1208	26.97	1.03	1.500			
0.3977	25454.84	3.8580	3.8580	1.1357	26.96	1.02	1.500			
0.4012	25674.68	3.8550	3.8548	1.1551	26.95	1.01	1.500			
0.4046	25896.83	3.8520	3.8520	1.1749	26.94	1.00	1.500			
0.4082	26124.54	3.8490	3.8491	1.1971	26.94	1.00	1.500			
0.4119	26359.83	3.8460	3.8459	1.2178	26.93	0.99	1.500			
0.4155	26593.65	3.8430	3.8430	1.2310	26.92	0.98	1.500			
0.4192	26830.78	3.8400	3.8401	1.2521	26.91	0.97	1.500			
0.4230	27074.22	3.8370	3.8370	1.2759	26.91	0.97	1.500			
0.4269	27319.53	3.8340	3.8340	1.2987	26.90	0.96	1.500			
0.4308	27571.05	3.8310	3.8310	1.3237	26.89	0.95	1.500			
0.4348	27827.75	3.8280	3.8280	1.3560	26.89	0.95	1.500			
0.4389	28091.39	3.8250	3.8250	1.3827	26.88	0.94	1.500			
0.4431	28358.57	3.8220	3.8220	1.4099	26.87	0.93	1.500			
0.4474	28630.59	3.8190	3.8190	1.4439	26.87	0.93	1.500			
0.4517	28911.43	3.8160	3.8159	1.4786	26.86	0.92	1.500			
0.4562	29197.53	3.8130	3.8130	1.5094	26.85	0.91	1.500			
0.4608	29492.12	3.8100	3.8101	1.5402	26.83	0.89	1.500			
0.4655	29790.24	3.8070	3.8070	1.5797	26.82	0.88	1.500			
0.4702	30095.18	3.8040	3.8040	1.6141	26.80	0.86	1.500			
0.4751	30408.74	3.8010	3.8009	1.6601	26.78	0.84	1.500			
0.4802	30731.17	3.7980	3.7980	1.7024	26.77	0.83	1.500			
0.4854	31064.12	3.7950	3.7950	1.7364	26.76	0.82	1.500			
0.4907	31402.71	3.7920	3.7920	1.7801	26.75	0.81	1.500			
0.4961	31747.49	3.7890	3.7890	1.8407	26.73	0.79	1.500			
0.5016	32102.92	3.7860	3.7858	1.8744	26.72	0.78	1.500			
0.5073	32466.97	3.7830	3.7830	1.9233	26.70	0.76	1.500			
0.5132	32843.09	3.7800	3.7801	1.9649	26.68	0.74	1.500			
0.5191	33223.20	3.7770	3.7770	1.9986	26.66	0.72	1.500			
0.5251	33605.99	3.7740	3.7740	2.0317	26.64	0.70	1.500			
0.5314	34008.78	3.7710	3.7710	2.0771	26.63	0.69	1.500			
0.5377	34410.21	3.7680	3.7680	2.1160	26.61	0.67	1.500			
0.5441	34822.04	3.7650	3.7650	2.1461	26.59	0.65	1.500			
0.5505	35234.46	3.7620	3.7618	2.1425	26.57	0.63	1.500	0.363	0.457	
0.5570	35647.05	3.7590	3.7591	2.1414	26.55	0.61	1.500			
0.5635	36064.96	3.7560	3.7559	2.1169	26.54	0.60	1.500			
0.5697	36461.43	3.7530	3.7531	2.0734	26.52	0.58	1.500			
0.5759	36856.10	3.7500	3.7500	2.0552	26.50	0.56	1.500			
0.5820	37249.78	3.7470	3.7469	2.0374	26.48	0.54	1.500			
0.5881	37635.47	3.7440	3.7441	2.0164	26.47	0.53	1.500			
0.5941	38021.32	3.7410	3.7410	2.0205	26.45	0.51	1.500			
0.6001	38404.06	3.7380	3.7379	2.0194	26.43	0.49	1.500			
0.6061	38792.77	3.7350	3.7351	2.0530	26.42	0.48	1.500			
0.6124	39195.65	3.7320	3.7320	2.0910	26.41	0.47	1.500			
0.6188	39601.53	3.7290	3.7290	2.1185	26.40	0.46	1.500			
0.6251	40006.45	3.7260	3.7260	2.1548	26.38	0.44	1.500			
0.6317	40426.57	3.7230	3.7229	2.1934	26.37	0.43	1.500			
0.6383	40849.11	3.7200	3.7201	2.2395	26.35	0.41	1.500			
0.6450	41280.67	3.7170	3.7170	2.3191	26.34	0.40	1.500			
0.6520	41729.05	3.7140	3.7139	2.4116	26.32	0.38	1.500			
0.6594	42200.49	3.7110	3.7110	2.5148	26.30	0.36	1.500			
0.6671	42696.17	3.7080	3.7080	2.6339	26.28	0.34	1.500			
0.6753	43219.44	3.7050	3.7049	2.7047	26.26	0.32	1.500			
0.6835	43744.64	3.7020	3.7020	2.7248	26.25	0.31	1.500			
0.6918	44272.74	3.6990	3.6990	2.7344	26.23	0.29	1.500			
0.7000	44801.66	3.6960	3.6959	2.6871	26.21	0.27	1.500			
0.7081	45319.46	3.6930	3.6929	2.5706	26.20	0.26	1.500			
0.7157	45801.73	3.6900	3.6900	2.4036	26.19	0.25	1.500			
0.7225	46240.15	3.6870	3.6870	2.1854	26.18	0.24	1.500			
0.7287	46637.61	3.6840	3.6842	1.9935	26.17	0.23	1.500			
0.7344	46999.41	3.6810	3.6810	1.8301	26.16	0.22	1.500			
0.7395	47328.54	3.6780	3.6780	1.7024	26.15	0.21	1.500			
0.7443	47636.57	3.6750	3.6750	1.5880	26.14	0.20	1.500			
0.7490	47934.94	3.6720	3.6720	1.5134	26.13	0.19	1.500			
0.7534	48216.81	3.6690	3.6690	1.4411	26.13	0.19	1.500			
0.7576	48484.33	3.6660	3.6660	1.3819	26.12	0.18	1.500			
0.7616	48744.57	3.6630	3.6630	1.3257	26.11	0.17	1.500			
0.7655	48992.38	3.6600	3.6599	1.2751	26.10	0.16	1.500			
0.7691	49223.30	3.6570	3.6571	1.2464	26.09	0.15	1.500			
0.7727	49455.20	3.6540	3.6541	1.2325	26.09	0.15	1.500			
0.7764	49689.16	3.6510	3.6507	1.2426	26.08	0.14	1.500			
0.7801	49924.31	3.6480	3.6481	1.2533	26.07	0.13	1.500			
0.7839	50167.47	3.6450	3.6451	1.2723	26.06	0.12	1.500			
0.7878	50419.49	3.6420	3.6419	1.2980	26.05	0.11	1.500			
0.7917	50669.11	3.6390	3.6391	1.3108	26.04	0.10	1.500			
0.7957	50923.59	3.6360	3.6360	1.3180	26.03	0.09	1.500			
0.7997	51180.20	3.6330	3.6329	1.3234	26.02	0.08	1.500			
0.8037	51435.52	3.6300	3.6300	1.3184	26.02	0.08	1.500			
0.8076	51687.97	3.6270	3.6270	1.3160	26.01	0.07	1.500			
0.8116	51940.94	3.6240	3.6240	1.3084	26.00	0.06	1.500			
0.8155	52189.78	3.6210	3.6209	1.3050	26.00	0.06	1.500			
0.8193	52437.67	3.6180	3.6180	1.3003	25.99	0.05	1.500			
0.8233	52688.34	3.6150	3.6150	1.3050	25.99	0.05	1.500			
0.8272	52940.22	3.6120	3.6120	1.3036	25.98	0.04	1.500			
0.8311	53190.93	3.6090	3.6090	1.2996	25.97	0.03	1.500			
0.8350	53440.81	3.6060	3.6060	1.2901	25.97	0.03	1.500			
0.8389	53691.01	3.6030	3.6029	1.2731	25.96	0.02	1.500			
0.8427	53932.85	3.6000	3.6000	1.2552	25.95	0.01	1.500			
0.8464	54172.51	3.5970	3.5971	1.2412	25.95	0.01	1.500			
0.8501	54407.62	3.5940	3.5940	1.2263	25.94	0.00	1.500			
0.8538	54641.91	3.5910	3.5910	1.2131	25.94	0.00	1.500			
0.8574	54871.08	3.5880	3.5880	1.2031	25.94	0.00	1.500			
0.8610	55101.35	3.5850	3.5850	1.1971	25.94	0.00	1.500			
0.8646	55332.73	3.5820	3.5820	1.1936	25.94	0.00	1.500			
0.8681	55561.33	3.5790	3.5790	1.1789	25.94	0.00	1.500			
0.8717	55790.07	3.5760	3.5759	1.1514	25.94	0.00	1.500			
0.8753	56019.90	3.5730	3.5729	1.0870	25.94	0.00	1.500			
0.8786	56229.63	3.5700	3.5701	0.9979	25.94	0.00	1.500			
0.8816	56423.20	3.5670	3.5671	0.8770	25.94	0.00	1.500			
0.8841	56580.96	3.5640	3.5640	0.7389	25.94	0.00	1.500			
0.8860	56703.97	3.5610	3.5611	0.6057	25.94	0.00	1.500			
0.8875	56799.54	3.5580	3.5579	0.4883	25.94	0.00	1.500			
0.8886	56872.50	3.5550	3.5549	0.3944	25.94	0.00	1.500			
0.8896	56935.68	3.5520	3.5518	0.3315	25.94	0.00	1.500			
0.8904	56988.41	3.5490	3.5489	0.2754	25.94	0.00	1.500			
0.8912	57036.45	3.5460	3.5460	0.2445	25.94	0.00	1.500			
0.8918	57077.49	3.5430	3.5430	0.2155	25.94	0.00	1.500			
0.8924	57115.49	3.5400	3.5401	0.1951	25.94	0.00	1.500			
0.8930	57150.38	3.5370	3.5369	0.1747	25.94	0.00	1.500			
0.8935	57181.10	3.5340	3.5341	0.1580	25.94	0.00	1.500			
0.8939	57209.56	3.5310	3.5309	0.1422	25.94	0.00	1.500			
0.8943	57235.12	3.5280	3.5280	0.1274	25.94	0.00	1.500			
0.8947	57258.27	3.5250	3.5250	0.1137	25.94	0.00	1.500			
0.8950	57278.70	3.5220	3.5220	0.1000	25.94	0.00	1.500			
0.8953	57296.92	3.5190	3.5191	0.0866	25.94	0.00	1.500			
0.8955	57312.20	3.5160	3.5163	0.0726	25.94	0.00	1.500			
0.8957	57324.78	3.5130	3.5135	0.0585	25.94	0.00	1.500			
0.8959	57334.67	3.5100	3.5106	0.0445	25.94	0.00	1.500			
