Ah_balance (normalized)	Ah_balance (mAh)	Voltage - fit (V)	Voltage -  interpolate (V)	dQ/dV (1/V)	Temperature (°C)	Temperature - diff (°C)	Current (C)	R_DC 0ms (mOhm)	R_DC 50ms (mOhm)	R_DC 50 ms PEC (mOhm)
0.1922	12300.15	3.9280	3.9278	-0.1024	25.68	0.00	-1.500			
0.1925	12322.19	3.9250	3.9249	-0.1272	25.68	0.00	-1.500			
0.1930	12348.99	3.9220	3.9219	-0.1520	25.68	0.00	-1.500			
0.1934	12380.25	3.9190	3.9191	-0.1778	25.68	0.00	-1.500			
0.1940	12417.01	3.9160	3.9159	-0.2027	25.68	0.00	-1.500			
0.1947	12458.57	3.9130	3.9130	-0.2280	25.68	0.00	-1.500			
0.1954	12505.26	3.9100	3.9099	-0.2487	25.68	0.00	-1.500			
0.1962	12555.20	3.9070	3.9070	-0.2714	25.68	0.00	-1.500			
0.1970	12609.67	3.9040	3.9041	-0.2942	25.68	0.00	-1.500			
0.1979	12668.30	3.9010	3.9009	-0.3147	25.68	0.00	-1.500			
0.1989	12730.63	3.8980	3.8980	-0.3370	25.68	0.00	-1.500			
0.2000	12797.02	3.8950	3.8950	-0.3582	25.68	0.00	-1.500			
0.2011	12868.00	3.8920	3.8921	-0.3817	25.68	0.00	-1.500			
0.2023	12944.26	3.8890	3.8890	-0.4038	25.68	0.00	-1.500			
0.2035	13023.92	3.8860	3.8860	-0.4225	25.68	0.00	-1.500			
0.2048	13107.12	3.8830	3.8831	-0.4425	25.68	0.00	-1.500			
0.2062	13194.22	3.8800	3.8800	-0.4612	25.68	0.00	-1.500			
0.2076	13284.21	3.8770	3.8770	-0.4779	25.68	0.00	-1.500			
0.2090	13377.94	3.8740	3.8740	-0.4936	25.68	0.00	-1.500			
0.2105	13474.41	3.8710	3.8710	-0.5071	25.68	0.00	-1.500			
0.2121	13574.01	3.8680	3.8680	-0.5232	25.68	0.00	-1.500			
0.2137	13675.97	3.8650	3.8650	-0.5354	25.68	0.00	-1.500			
0.2153	13779.75	3.8620	3.8620	-0.5468	25.68	0.00	-1.500			
0.2170	13886.38	3.8590	3.8590	-0.5576	25.68	0.00	-1.500			
0.2187	13995.33	3.8560	3.8560	-0.5654	25.68	0.00	-1.500			
0.2204	14105.05	3.8530	3.8529	-0.5727	25.68	0.00	-1.500			
0.2221	14215.15	3.8500	3.8501	-0.5825	25.68	0.00	-1.500			
0.2239	14327.10	3.8470	3.8470	-0.5891	25.68	0.00	-1.500			
0.2257	14441.65	3.8440	3.8439	-0.5946	25.69	0.01	-1.500			
0.2274	14556.59	3.8410	3.8410	-0.5993	25.69	0.01	-1.500			
0.2293	14673.26	3.8380	3.8381	-0.6048	25.69	0.01	-1.500			
0.2311	14789.45	3.8350	3.8350	-0.6098	25.70	0.02	-1.500			
0.2329	14907.26	3.8320	3.8319	-0.6104	25.70	0.02	-1.500			
0.2347	15023.68	3.8290	3.8290	-0.6128	25.70	0.02	-1.500			
0.2366	15141.93	3.8260	3.8260	-0.6161	25.71	0.03	-1.500			
0.2385	15260.88	3.8230	3.8231	-0.6196	25.71	0.03	-1.500			
0.2403	15379.98	3.8200	3.8199	-0.6221	25.71	0.03	-1.500			
0.2422	15499.74	3.8170	3.8170	-0.6229	25.71	0.03	-1.500			
0.2441	15619.38	3.8140	3.8140	-0.6230	25.72	0.04	-1.500			
0.2459	15739.64	3.8110	3.8110	-0.6281	25.72	0.04	-1.500			
0.2478	15859.55	3.8080	3.8080	-0.6300	25.72	0.04	-1.500			
0.2497	15981.75	3.8050	3.8050	-0.6327	25.73	0.05	-1.500			
0.2516	16103.28	3.8020	3.8020	-0.6355	25.73	0.05	-1.500			
0.2535	16225.70	3.7990	3.7990	-0.6379	25.74	0.06	-1.500			
0.2555	16349.20	3.7960	3.7960	-0.6406	25.74	0.06	-1.500			
0.2574	16472.22	3.7930	3.7929	-0.6420	25.75	0.07	-1.500			
0.2593	16595.41	3.7900	3.7900	-0.6404	25.75	0.07	-1.500			
0.2612	16718.16	3.7870	3.7870	-0.6417	25.76	0.08	-1.500			
0.2632	16841.70	3.7840	3.7840	-0.6446	25.76	0.08	-1.500			
0.2651	16965.07	3.7810	3.7810	-0.6458	25.77	0.09	-1.500			
0.2670	17089.39	3.7780	3.7779	-0.6481	25.77	0.09	-1.500			
0.2690	17214.43	3.7750	3.7750	-0.6515	25.78	0.10	-1.500			
0.2709	17339.57	3.7720	3.7721	-0.6528	25.78	0.10	-1.500			
0.2729	17465.47	3.7690	3.7689	-0.6576	25.79	0.11	-1.500			
0.2749	17591.16	3.7660	3.7661	-0.6600	25.79	0.11	-1.500			
0.2768	17717.83	3.7630	3.7629	-0.6620	25.79	0.11	-1.500			
0.2788	17845.63	3.7600	3.7600	-0.6698	25.80	0.12	-1.500			
0.2809	17975.13	3.7570	3.7570	-0.6721	25.80	0.12	-1.500			
0.2829	18104.58	3.7540	3.7540	-0.6745	25.81	0.13	-1.500			
0.2849	18234.13	3.7510	3.7510	-0.6787	25.81	0.13	-1.500			
0.2869	18364.09	3.7480	3.7481	-0.6791	25.82	0.14	-1.500			
0.2890	18494.52	3.7450	3.7449	-0.6842	25.82	0.14	-1.500			
0.2910	18625.86	3.7420	3.7420	-0.6896	25.83	0.15	-1.500			
0.2931	18758.41	3.7390	3.7390	-0.6930	25.83	0.15	-1.500			
0.2952	18893.36	3.7360	3.7359	-0.6996	25.84	0.16	-1.500			
0.2973	19027.12	3.7330	3.7330	-0.7067	25.84	0.16	-1.500			
0.2994	19162.14	3.7300	3.7300	-0.7113	25.85	0.17	-1.500			
0.3016	19300.45	3.7270	3.7270	-0.7180	25.85	0.17	-1.500			
0.3037	19438.74	3.7240	3.7240	-0.7223	25.86	0.18	-1.500			
0.3059	19578.32	3.7210	3.7211	-0.7276	25.86	0.18	-1.500			
0.3081	19718.51	3.7180	3.7180	-0.7353	25.86	0.18	-1.500			
0.3103	19859.54	3.7150	3.7150	-0.7434	25.87	0.19	-1.500			
0.3125	20001.65	3.7120	3.7120	-0.7509	25.87	0.19	-1.500			
0.3148	20147.25	3.7090	3.7089	-0.7612	25.88	0.20	-1.500			
0.3171	20295.20	3.7060	3.7061	-0.7711	25.88	0.20	-1.500			
0.3194	20444.55	3.7030	3.7029	-0.7804	25.89	0.21	-1.500			
0.3218	20595.62	3.7000	3.7000	-0.7861	25.89	0.21	-1.500			
0.3242	20745.69	3.6970	3.6970	-0.7920	25.90	0.22	-1.500			
0.3265	20898.93	3.6940	3.6940	-0.7974	25.90	0.22	-1.500			
0.3289	21052.09	3.6910	3.6910	-0.8056	25.91	0.23	-1.500			
0.3314	21207.92	3.6880	3.6880	-0.8140	25.91	0.23	-1.500			
0.3338	21364.27	3.6850	3.6851	-0.8216	25.92	0.24	-1.500			
0.3363	21522.11	3.6820	3.6819	-0.8325	25.92	0.24	-1.500			
0.3388	21682.85	3.6790	3.6791	-0.8463	25.93	0.25	-1.500			
0.3414	21846.80	3.6760	3.6759	-0.8556	25.93	0.25	-1.500			
0.3440	22014.12	3.6730	3.6730	-0.8662	25.94	0.26	-1.500			
0.3466	22180.52	3.6700	3.6700	-0.8752	25.94	0.26	-1.500			
0.3492	22349.65	3.6670	3.6670	-0.8859	25.95	0.27	-1.500			
0.3519	22520.03	3.6640	3.6639	-0.8962	25.95	0.27	-1.500			
0.3546	22691.46	3.6610	3.6611	-0.9033	25.95	0.27	-1.500			
0.3573	22865.77	3.6580	3.6580	-0.9173	25.96	0.28	-1.500			
0.3601	23044.01	3.6550	3.6550	-0.9307	25.96	0.28	-1.500			
0.3629	23226.14	3.6520	3.6519	-0.9377	25.97	0.29	-1.500			
0.3657	23404.90	3.6490	3.6491	-0.9480	25.97	0.29	-1.500			
0.3686	23588.09	3.6460	3.6461	-0.9582	25.98	0.30	-1.500			
0.3714	23772.33	3.6430	3.6430	-0.9722	25.98	0.30	-1.500			
0.3744	23960.28	3.6400	3.6399	-0.9820	25.99	0.31	-1.500			
0.3773	24149.37	3.6370	3.6371	-0.9966	25.99	0.31	-1.500			
0.3804	24343.11	3.6340	3.6340	-1.0119	26.00	0.32	-1.500			
0.3834	24540.59	3.6310	3.6310	-1.0249	26.00	0.32	-1.500			
0.3865	24736.27	3.6280	3.6281	-1.0382	26.01	0.33	-1.500			
0.3896	24937.18	3.6250	3.6250	-1.0509	26.01	0.33	-1.500			
0.3928	25140.64	3.6220	3.6219	-1.0597	26.02	0.34	-1.500			
0.3960	25346.58	3.6190	3.6191	-1.0708	26.02	0.34	-1.500			
0.3992	25551.37	3.6160	3.6160	-1.0797	26.02	0.34	-1.500			
0.4025	25759.71	3.6130	3.6130	-1.0945	26.03	0.35	-1.500			
0.4058	25970.43	3.6100	3.6100	-1.1084	26.03	0.35	-1.500			
0.4091	26182.85	3.6070	3.6070	-1.1232	26.03	0.35	-1.500			
0.4125	26401.09	3.6040	3.6040	-1.1422	26.03	0.35	-1.500			
0.4160	26624.62	3.6010	3.6010	-1.1579	26.04	0.36	-1.500			
0.4195	26848.29	3.5980	3.5979	-1.1672	26.04	0.36	-1.500			
0.4230	27071.54	3.5950	3.5950	-1.1829	26.04	0.36	-1.500			
0.4266	27300.43	3.5920	3.5920	-1.1970	26.05	0.37	-1.500			
0.4302	27532.10	3.5890	3.5889	-1.2077	26.05	0.37	-1.500			
0.4338	27763.86	3.5860	3.5860	-1.2198	26.06	0.38	-1.500			
0.4375	28001.65	3.5830	3.5831	-1.2393	26.06	0.38	-1.500			
0.4413	28240.62	3.5800	3.5800	-1.2570	26.06	0.38	-1.500			
0.4450	28482.14	3.5770	3.5769	-1.2726	26.07	0.39	-1.500			
0.4489	28726.95	3.5740	3.5740	-1.2868	26.07	0.39	-1.500			
0.4528	28977.20	3.5710	3.5710	-1.3114	26.08	0.40	-1.500			
0.4567	29230.33	3.5680	3.5680	-1.3355	26.08	0.40	-1.500			
0.4608	29489.64	3.5650	3.5650	-1.3538	26.09	0.41	-1.500			
0.4649	29752.99	3.5620	3.5620	-1.3736	26.09	0.41	-1.500			
0.4690	30018.39	3.5590	3.5590	-1.3926	26.10	0.42	-1.500			
0.4733	30288.19	3.5560	3.5561	-1.4093	26.10	0.42	-1.500			
0.4775	30561.46	3.5530	3.5529	-1.4247	26.11	0.43	-1.500			
0.4818	30835.33	3.5500	3.5500	-1.4401	26.11	0.43	-1.500			
0.4862	31113.93	3.5470	3.5470	-1.4538	26.12	0.44	-1.500			
0.4905	31393.08	3.5440	3.5440	-1.4777	26.12	0.44	-1.500			
0.4950	31679.12	3.5410	3.5411	-1.4959	26.13	0.45	-1.500			
0.4995	31967.49	3.5380	3.5379	-1.5132	26.13	0.45	-1.500			
0.5041	32260.16	3.5350	3.5350	-1.5362	26.14	0.46	-1.500			
0.5087	32557.16	3.5320	3.5320	-1.5560	26.15	0.47	-1.500			
0.5134	32858.00	3.5290	3.5289	-1.5715	26.15	0.47	-1.500			
0.5182	33164.10	3.5260	3.5260	-1.5915	26.16	0.48	-1.500	0.374	0.544	
0.5230	33469.98	3.5230	3.5230	-1.6002	26.16	0.48	-1.500			
0.5278	33780.10	3.5200	3.5200	-1.6189	26.17	0.49	-1.500			
0.5327	34092.29	3.5170	3.5170	-1.6250	26.18	0.50	-1.500			
0.5376	34405.85	3.5140	3.5140	-1.6346	26.19	0.51	-1.500			
0.5425	34719.99	3.5110	3.5110	-1.6444	26.19	0.51	-1.500			
0.5475	35037.93	3.5080	3.5080	-1.6537	26.20	0.52	-1.500			
0.5524	35355.25	3.5050	3.5050	-1.6611	26.21	0.53	-1.500			
0.5575	35677.42	3.5020	3.5020	-1.6630	26.22	0.54	-1.500			
0.5624	35996.55	3.4990	3.4990	-1.6607	26.23	0.55	-1.500			
0.5674	36316.70	3.4960	3.4960	-1.6627	26.24	0.56	-1.500			
0.5724	36635.78	3.4930	3.4930	-1.6627	26.25	0.57	-1.500			
0.5774	36953.65	3.4900	3.4899	-1.6604	26.27	0.59	-1.500			
0.5824	37273.24	3.4870	3.4870	-1.6592	26.28	0.60	-1.500			
0.5874	37591.52	3.4840	3.4841	-1.6599	26.30	0.62	-1.500			
0.5924	37912.57	3.4810	3.4810	-1.6480	26.31	0.63	-1.500			
0.5974	38230.93	3.4780	3.4780	-1.6246	26.32	0.64	-1.500			
0.6022	38540.06	3.4750	3.4751	-1.6056	26.34	0.66	-1.500			
0.6070	38845.39	3.4720	3.4721	-1.5912	26.35	0.67	-1.500			
0.6117	39145.70	3.4690	3.4689	-1.5778	26.36	0.68	-1.500			
0.6164	39448.43	3.4660	3.4660	-1.5759	26.37	0.69	-1.500			
0.6211	39750.54	3.4630	3.4631	-1.5590	26.38	0.70	-1.500			
0.6258	40053.07	3.4600	3.4600	-1.5523	26.39	0.71	-1.500			
0.6305	40350.26	3.4570	3.4571	-1.5391	26.41	0.73	-1.500			
0.6351	40643.27	3.4540	3.4540	-1.5162	26.42	0.74	-1.500			
0.6396	40934.49	3.4510	3.4509	-1.4984	26.43	0.75	-1.500			
0.6440	41218.70	3.4480	3.4479	-1.4729	26.45	0.77	-1.500			
0.6484	41499.84	3.4450	3.4450	-1.4535	26.46	0.78	-1.500			
0.6528	41777.94	3.4420	3.4420	-1.4365	26.48	0.80	-1.500			
0.6570	42049.00	3.4390	3.4389	-1.4162	26.49	0.81	-1.500			
0.6612	42317.19	3.4360	3.4360	-1.3937	26.51	0.83	-1.500			
0.6654	42586.97	3.4330	3.4329	-1.3810	26.52	0.84	-1.500			
0.6695	42849.17	3.4300	3.4301	-1.3675	26.54	0.86	-1.500			
0.6736	43110.91	3.4270	3.4270	-1.3505	26.55	0.87	-1.500			
0.6776	43369.28	3.4240	3.4239	-1.3308	26.57	0.89	-1.500			
0.6816	43622.26	3.4210	3.4210	-1.3101	26.58	0.90	-1.500			
0.6855	43874.11	3.4180	3.4180	-1.2933	26.60	0.92	-1.500			
0.6894	44123.40	3.4150	3.4150	-1.2752	26.62	0.94	-1.500			
0.6932	44365.95	3.4120	3.4119	-1.2492	26.63	0.95	-1.500			
0.6969	44601.91	3.4090	3.4091	-1.2199	26.64	0.96	-1.500			
0.7006	44835.34	3.4060	3.4060	-1.1942	26.66	0.98	-1.500			
0.7041	45060.76	3.4030	3.4030	-1.1663	26.68	1.00	-1.500			
0.7075	45278.51	3.4000	3.4001	-1.1349	26.69	1.01	-1.500			
0.7109	45498.86	3.3970	3.3970	-1.1145	26.70	1.02	-1.500			
0.7142	45710.13	3.3940	3.3940	-1.0829	26.72	1.04	-1.500			
0.7174	45916.13	3.3910	3.3909	-1.0446	26.73	1.05	-1.500			
0.7205	46113.86	3.3880	3.3880	-1.0094	26.74	1.06	-1.500			
0.7235	46303.40	3.3850	3.3850	-0.9769	26.75	1.07	-1.500			
0.7263	46483.78	3.3820	3.3819	-0.9432	26.77	1.09	-1.500			
0.7291	46660.62	3.3790	3.3790	-0.9142	26.78	1.10	-1.500			
0.7318	46835.86	3.3760	3.3759	-0.8927	26.80	1.12	-1.500			
0.7345	47005.30	3.3730	3.3731	-0.8678	26.81	1.13	-1.500			
0.7370	47170.58	3.3700	3.3700	-0.8450	26.82	1.14	-1.500			
0.7395	47330.48	3.3670	3.3669	-0.8168	26.83	1.15	-1.500			
0.7419	47484.52	3.3640	3.3639	-0.7890	26.84	1.16	-1.500			
0.7442	47631.79	3.3610	3.3610	-0.7596	26.85	1.17	-1.500			
0.7465	47775.79	3.3580	3.3580	-0.7339	26.86	1.18	-1.500			
0.7486	47913.22	3.3550	3.3550	-0.7141	26.87	1.19	-1.500			
0.7507	48047.13	3.3520	3.3520	-0.6922	26.88	1.20	-1.500			
0.7528	48176.37	3.3490	3.3490	-0.6738	26.89	1.21	-1.500			
0.7548	48304.83	3.3460	3.3460	-0.6601	26.90	1.22	-1.500			
0.7567	48430.63	3.3430	3.3430	-0.6433	26.91	1.23	-1.500			
0.7586	48553.02	3.3400	3.3400	-0.6273	26.92	1.24	-1.500			
0.7605	48672.58	3.3370	3.3370	-0.6104	26.93	1.25	-1.500			
0.7623	48786.58	3.3340	3.3340	-0.5919	26.94	1.26	-1.500			
0.7640	48898.62	3.3310	3.3309	-0.5745	26.94	1.26	-1.500			
0.7657	49006.85	3.3280	3.3280	-0.5584	26.95	1.27	-1.500			
0.7674	49112.96	3.3250	3.3250	-0.5458	26.96	1.28	-1.500			
0.7690	49216.95	3.3220	3.3220	-0.5301	26.96	1.28	-1.500			
0.7706	49316.76	3.3190	3.3190	-0.5150	26.97	1.29	-1.500			
0.7721	49413.53	3.3160	3.3160	-0.5024	26.98	1.30	-1.500			
0.7736	49508.40	3.3130	3.3129	-0.4903	26.98	1.30	-1.500			
0.7750	49601.11	3.3100	3.3100	-0.4806	26.99	1.31	-1.500			
0.7764	49691.94	3.3070	3.3071	-0.4702	27.00	1.32	-1.500			
0.7778	49781.97	3.3040	3.3040	-0.4588	27.01	1.33	-1.500			
0.7792	49869.84	3.3010	3.3010	-0.4480	27.01	1.33	-1.500			
0.7805	49954.22	3.2980	3.2981	-0.4365	27.02	1.34	-1.500			
0.7818	50036.51	3.2950	3.2951	-0.4269	27.03	1.35	-1.500			
0.7831	50117.36	3.2920	3.2919	-0.4166	27.03	1.35	-1.500			
0.7843	50196.30	3.2890	3.2890	-0.4064	27.04	1.36	-1.500			
0.7855	50273.33	3.2860	3.2860	-0.3971	27.05	1.37	-1.500			
0.7867	50348.83	3.2830	3.2831	-0.3892	27.05	1.37	-1.500			
0.7879	50423.17	3.2800	3.2799	-0.3802	27.06	1.38	-1.500			
0.7890	50494.83	3.2770	3.2769	-0.3711	27.07	1.39	-1.500			
0.7901	50564.73	3.2740	3.2740	-0.3617	27.07	1.39	-1.500			
0.7912	50633.63	3.2710	3.2711	-0.3553	27.08	1.40	-1.500			
0.7922	50701.09	3.2680	3.2679	-0.3496	27.08	1.40	-1.500			
0.7932	50767.62	3.2650	3.2649	-0.3421	27.09	1.41	-1.500			
0.7943	50832.34	3.2620	3.2620	-0.3350	27.09	1.41	-1.500			
0.7953	50896.49	3.2590	3.2591	-0.3292	27.10	1.42	-1.500			
0.7962	50959.39	3.2560	3.2560	-0.3226	27.10	1.42	-1.500			
0.7972	51020.79	3.2530	3.2529	-0.3156	27.11	1.43	-1.500			
0.7981	51080.15	3.2500	3.2501	-0.3081	27.12	1.44	-1.500			
0.7990	51138.38	3.2470	3.2470	-0.3023	27.12	1.44	-1.500			
0.7999	51196.06	3.2440	3.2439	-0.2974	27.13	1.45	-1.500			
0.8008	51252.33	3.2410	3.2410	-0.2922	27.14	1.46	-1.500			
0.8017	51307.85	3.2380	3.2381	-0.2877	27.14	1.46	-1.500			
0.8026	51363.35	3.2350	3.2350	-0.2831	27.15	1.47	-1.500			
0.8034	51417.18	3.2320	3.2319	-0.2787	27.16	1.48	-1.500			
0.8042	51470.04	3.2290	3.2290	-0.2731	27.16	1.48	-1.500			
0.8050	51521.88	3.2260	3.2260	-0.2685	27.17	1.49	-1.500			
0.8058	51573.14	3.2230	3.2230	-0.2649	27.17	1.49	-1.500			
0.8066	51623.51	3.2200	3.2200	-0.2599	27.18	1.50	-1.500			
0.8074	51672.83	3.2170	3.2170	-0.2562	27.18	1.50	-1.500			
0.8082	51721.95	3.2140	3.2141	-0.2511	27.19	1.51	-1.500			
0.8089	51769.55	3.2110	3.2110	-0.2475	27.20	1.52	-1.500			
0.8096	51816.04	3.2080	3.2080	-0.2444	27.20	1.52	-1.500			
0.8104	51862.65	3.2050	3.2051	-0.2407	27.21	1.53	-1.500			
0.8111	51908.43	3.2020	3.2019	-0.2379	27.21	1.53	-1.500			
0.8118	51953.96	3.1990	3.1990	-0.2355	27.22	1.54	-1.500			
0.8125	51999.28	3.1960	3.1961	-0.2328	27.22	1.54	-1.500			
0.8132	52043.74	3.1930	3.1930	-0.2299	27.23	1.55	-1.500			
0.8139	52088.15	3.1900	3.1899	-0.2272	27.24	1.56	-1.500			
0.8145	52130.92	3.1870	3.1870	-0.2233	27.24	1.56	-1.500			
0.8152	52173.35	3.1840	3.1840	-0.2200	27.25	1.57	-1.500			
0.8159	52215.31	3.1810	3.1810	-0.2181	27.25	1.57	-1.500			
0.8165	52256.94	3.1780	3.1780	-0.2155	27.26	1.58	-1.500			
0.8172	52297.94	3.1750	3.1750	-0.2123	27.26	1.58	-1.500			
0.8178	52338.41	3.1720	3.1719	-0.2103	27.27	1.59	-1.500			
0.8184	52378.47	3.1690	3.1690	-0.2078	27.27	1.59	-1.500			
0.8190	52418.21	3.1660	3.1661	-0.2057	27.28	1.60	-1.500			
0.8196	52457.55	3.1630	3.1629	-0.2036	27.28	1.60	-1.500			
0.8203	52496.48	3.1600	3.1600	-0.2014	27.29	1.61	-1.500			
0.8209	52534.91	3.1570	3.1570	-0.1984	27.29	1.61	-1.500			
0.8215	52572.93	3.1540	3.1540	-0.1954	27.30	1.62	-1.500			
0.8220	52610.56	3.1510	3.1510	-0.1928	27.30	1.62	-1.500			
0.8226	52646.58	3.1480	3.1481	-0.1918	27.31	1.63	-1.500			
0.8232	52683.15	3.1450	3.1450	-0.1902	27.32	1.64	-1.500			
0.8237	52719.58	3.1420	3.1419	-0.1884	27.32	1.64	-1.500			
0.8243	52755.65	3.1390	3.1389	-0.1873	27.33	1.65	-1.500			
0.8249	52791.56	3.1360	3.1362	-0.1859	27.33	1.65	-1.500			
0.8254	52827.29	3.1330	3.1329	-0.1854	27.34	1.66	-1.500			
0.8260	52863.18	3.1300	3.1300	-0.1840	27.35	1.67	-1.500			
0.8265	52898.25	3.1270	3.1269	-0.1814	27.35	1.67	-1.500			
0.8271	52932.34	3.1240	3.1240	-0.1788	27.36	1.68	-1.500			
0.8276	52966.77	3.1210	3.1211	-0.1776	27.36	1.68	-1.500			
0.8281	53000.61	3.1180	3.1180	-0.1762	27.37	1.69	-1.500			
0.8287	53034.28	3.1150	3.1149	-0.1745	27.38	1.70	-1.500			
0.8292	53067.41	3.1120	3.1120	-0.1729	27.38	1.70	-1.500			
0.8297	53100.32	3.1090	3.1090	-0.1710	27.39	1.71	-1.500			
0.8302	53133.18	3.1060	3.1060	-0.1707	27.39	1.71	-1.500			
0.8307	53165.84	3.1030	3.1031	-0.1695	27.40	1.72	-1.500			
0.8312	53198.15	3.1000	3.1001	-0.1685	27.41	1.73	-1.500			
0.8317	53230.55	3.0970	3.0969	-0.1668	27.41	1.73	-1.500			
0.8322	53262.41	3.0940	3.0939	-0.1653	27.42	1.74	-1.500			
0.8327	53294.01	3.0910	3.0911	-0.1638	27.42	1.74	-1.500			
0.8332	53325.37	3.0880	3.0881	-0.1631	27.43	1.75	-1.500			
0.8337	53356.52	3.0850	3.0849	-0.1622	27.44	1.76	-1.500			
0.8342	53387.57	3.0820	3.0820	-0.1602	27.44	1.76	-1.500			
0.8347	53418.22	3.0790	3.0789	-0.1591	27.45	1.77	-1.500			
0.8351	53448.68	3.0760	3.0760	-0.1579	27.45	1.77	-1.500			
0.8356	53479.14	3.0730	3.0731	-0.1570	27.46	1.78	-1.500			
0.8361	53508.88	3.0700	3.0699	-0.1558	27.46	1.78	-1.500			
0.8365	53538.68	3.0670	3.0670	-0.1547	27.47	1.79	-1.500			
0.8370	53567.98	3.0640	3.0640	-0.1537	27.48	1.80	-1.500			
0.8375	53597.43	3.0610	3.0610	-0.1528	27.48	1.80	-1.500			
0.8379	53627.00	3.0580	3.0579	-0.1525	27.49	1.81	-1.500			
0.8384	53656.09	3.0550	3.0551	-0.1515	27.49	1.81	-1.500			
0.8388	53685.04	3.0520	3.0520	-0.1504	27.50	1.82	-1.500			
0.8393	53713.86	3.0490	3.0490	-0.1496	27.50	1.82	-1.500			
0.8397	53742.39	3.0460	3.0460	-0.1484	27.51	1.83	-1.500			
0.8402	53770.82	3.0430	3.0430	-0.1476	27.52	1.84	-1.500			
0.8406	53799.16	3.0400	3.0400	-0.1463	27.52	1.84	-1.500			
0.8410	53827.19	3.0370	3.0370	-0.1455	27.53	1.85	-1.500			
0.8415	53855.12	3.0340	3.0341	-0.1443	27.54	1.86	-1.500			
0.8419	53882.68	3.0310	3.0309	-0.1428	27.54	1.86	-1.500			
0.8423	53909.78	3.0280	3.0281	-0.1426	27.55	1.87	-1.500			
0.8428	53937.06	3.0250	3.0250	-0.1416	27.55	1.87	-1.500			
0.8432	53964.28	3.0220	3.0219	-0.1407	27.56	1.88	-1.500			
0.8436	53991.21	3.0190	3.0190	-0.1399	27.57	1.89	-1.500			
0.8440	54017.99	3.0160	3.0161	-0.1396	27.57	1.89	-1.500			
0.8444	54044.65	3.0130	3.0130	-0.1389	27.58	1.90	-1.500			
0.8449	54071.40	3.0100	3.0099	-0.1384	27.58	1.90	-1.500			
0.8453	54097.89	3.0070	3.0069	-0.1376	27.59	1.91	-1.500			
0.8457	54124.33	3.0040	3.0041	-0.1410	27.59	1.91	-1.499			
