Ah_balance (normalized)	Ah_balance (mAh)	Voltage - fit (V)	Voltage -  interpolate (V)	dQ/dV (1/V)	Temperature (°C)	Temperature - diff (°C)	Current (C)	R_DC 0ms (mOhm)	R_DC 50ms (mOhm)	R_DC 50 ms PEC (mOhm)
0.2971	19016.84	3.9730	3.9731	0.8473	26.96	1.00	1.500			
0.2997	19180.69	3.9700	3.9700	0.8564	26.96	1.00	1.500			
0.3023	19345.78	3.9670	3.9670	0.8626	26.95	0.99	1.500			
0.3049	19512.40	3.9640	3.9640	0.8675	26.95	0.99	1.500			
0.3075	19678.55	3.9610	3.9610	0.8744	26.95	0.99	1.500			
0.3101	19847.40	3.9580	3.9580	0.8836	26.94	0.98	1.500			
0.3128	20018.70	3.9550	3.9550	0.8883	26.94	0.98	1.500			
0.3155	20189.94	3.9520	3.9520	0.8903	26.94	0.98	1.500			
0.3182	20362.07	3.9490	3.9490	0.8913	26.93	0.97	1.500			
0.3208	20533.35	3.9460	3.9461	0.8954	26.93	0.97	1.500			
0.3235	20704.80	3.9430	3.9430	0.8976	26.93	0.97	1.500			
0.3262	20875.78	3.9400	3.9399	0.8991	26.92	0.96	1.500			
0.3289	21047.65	3.9370	3.9370	0.9050	26.92	0.96	1.500			
0.3316	21223.50	3.9340	3.9340	0.9127	26.92	0.96	1.500			
0.3344	21400.32	3.9310	3.9310	0.9214	26.91	0.95	1.500			
0.3372	21578.11	3.9280	3.9279	0.9252	26.91	0.95	1.500			
0.3399	21755.65	3.9250	3.9249	0.9255	26.91	0.95	1.500			
0.3427	21933.74	3.9220	3.9220	0.9345	26.90	0.94	1.500			
0.3455	22112.25	3.9190	3.9190	0.9401	26.89	0.93	1.500			
0.3483	22291.93	3.9160	3.9160	0.9457	26.89	0.93	1.500			
0.3512	22476.43	3.9130	3.9130	0.9564	26.88	0.92	1.500			
0.3541	22660.82	3.9100	3.9100	0.9593	26.88	0.92	1.500			
0.3570	22845.07	3.9070	3.9069	0.9698	26.87	0.91	1.500			
0.3598	23030.37	3.9040	3.9042	0.9826	26.87	0.91	1.500			
0.3628	23220.21	3.9010	3.9008	0.9882	26.86	0.90	1.500			
0.3658	23412.15	3.8980	3.8979	0.9946	26.86	0.90	1.500			
0.3688	23604.87	3.8950	3.8951	1.0006	26.85	0.89	1.500			
0.3718	23797.95	3.8920	3.8922	1.0097	26.85	0.89	1.500			
0.3749	23990.51	3.8890	3.8890	1.0132	26.84	0.88	1.500			
0.3779	24183.47	3.8860	3.8860	1.0167	26.84	0.88	1.500			
0.3809	24379.28	3.8830	3.8830	1.0307	26.83	0.87	1.500			
0.3841	24579.59	3.8800	3.8800	1.0486	26.83	0.87	1.500			
0.3872	24782.36	3.8770	3.8769	1.0594	26.82	0.86	1.500			
0.3904	24987.31	3.8740	3.8740	1.0740	26.82	0.86	1.500			
0.3937	25194.59	3.8710	3.8710	1.0856	26.81	0.85	1.500			
0.3969	25403.18	3.8680	3.8680	1.1004	26.81	0.85	1.500			
0.4003	25617.56	3.8650	3.8649	1.1059	26.80	0.84	1.500			
0.4036	25831.20	3.8620	3.8620	1.1226	26.79	0.83	1.500			
0.4070	26047.17	3.8590	3.8590	1.1379	26.79	0.83	1.500			
0.4104	26266.93	3.8560	3.8561	1.1522	26.78	0.82	1.500			
0.4139	26489.27	3.8530	3.8529	1.1652	26.78	0.82	1.500			
0.4174	26714.24	3.8500	3.8500	1.1834	26.77	0.81	1.500			
0.4210	26942.68	3.8470	3.8471	1.1972	26.76	0.80	1.500			
0.4246	27175.64	3.8440	3.8440	1.2155	26.75	0.79	1.500			
0.4283	27408.17	3.8410	3.8410	1.2338	26.74	0.78	1.500			
0.4320	27646.94	3.8380	3.8380	1.2586	26.73	0.77	1.500			
0.4358	27890.18	3.8350	3.8350	1.2823	26.73	0.77	1.500			
0.4397	28138.77	3.8320	3.8320	1.3086	26.72	0.76	1.500			
0.4436	28391.72	3.8290	3.8291	1.3370	26.71	0.75	1.500			
0.4477	28653.42	3.8260	3.8260	1.3637	26.70	0.74	1.500			
0.4518	28917.41	3.8230	3.8230	1.3909	26.69	0.73	1.500			
0.4560	29185.06	3.8200	3.8200	1.4182	26.68	0.72	1.500			
0.4603	29458.47	3.8170	3.8172	1.4536	26.67	0.71	1.500			
0.4647	29742.54	3.8140	3.8139	1.4842	26.66	0.70	1.500			
0.4692	30031.40	3.8110	3.8110	1.5158	26.64	0.68	1.500			
0.4738	30325.33	3.8080	3.8081	1.5472	26.63	0.67	1.500			
0.4785	30624.70	3.8050	3.8051	1.5918	26.62	0.66	1.500			
0.4833	30930.78	3.8020	3.8020	1.6264	26.61	0.65	1.500			
0.4882	31246.16	3.7990	3.7989	1.6687	26.60	0.64	1.500			
0.4933	31573.70	3.7960	3.7960	1.7146	26.58	0.62	1.500			
0.4986	31909.59	3.7930	3.7930	1.7608	26.57	0.61	1.500			
0.5039	32249.90	3.7900	3.7900	1.8123	26.55	0.59	1.500			
0.5094	32602.12	3.7870	3.7870	1.8493	26.53	0.57	1.500			
0.5150	32959.79	3.7840	3.7840	1.9029	26.52	0.56	1.500			
0.5208	33333.35	3.7810	3.7810	1.9415	26.50	0.54	1.500			
0.5267	33708.81	3.7780	3.7779	1.9836	26.49	0.53	1.500			
0.5327	34093.82	3.7750	3.7751	2.0069	26.47	0.51	1.500			
0.5388	34485.47	3.7720	3.7719	2.0485	26.46	0.50	1.500			
0.5450	34883.08	3.7690	3.7690	2.0670	26.44	0.48	1.500			
0.5513	35282.04	3.7660	3.7660	2.1053	26.42	0.46	1.500			
0.5576	35685.10	3.7630	3.7630	2.1116	26.40	0.44	1.500	0.362	0.457	
0.5640	36093.05	3.7600	3.7600	2.1007	26.39	0.43	1.500			
0.5704	36504.69	3.7570	3.7570	2.0908	26.37	0.41	1.500			
0.5765	36896.90	3.7540	3.7540	2.0666	26.36	0.40	1.500			
0.5827	37291.96	3.7510	3.7510	2.0272	26.34	0.38	1.500			
0.5887	37678.67	3.7480	3.7480	2.0073	26.33	0.37	1.500			
0.5947	38062.72	3.7450	3.7451	1.9960	26.31	0.35	1.500			
0.6006	38441.55	3.7420	3.7420	1.9941	26.30	0.34	1.500			
0.6066	38821.72	3.7390	3.7390	1.9932	26.29	0.33	1.500			
0.6126	39207.73	3.7360	3.7359	2.0247	26.27	0.31	1.500			
0.6187	39596.81	3.7330	3.7330	2.0481	26.26	0.30	1.500			
0.6248	39990.25	3.7300	3.7300	2.0729	26.25	0.29	1.500			
0.6311	40389.59	3.7270	3.7270	2.1177	26.23	0.27	1.500			
0.6375	40798.96	3.7240	3.7239	2.1606	26.22	0.26	1.500			
0.6440	41218.09	3.7210	3.7210	2.2162	26.21	0.25	1.500			
0.6508	41648.18	3.7180	3.7180	2.2866	26.20	0.24	1.500			
0.6577	42091.37	3.7150	3.7150	2.3635	26.19	0.23	1.500			
0.6649	42551.93	3.7120	3.7120	2.4579	26.18	0.22	1.500			
0.6725	43037.98	3.7090	3.7089	2.5071	26.16	0.20	1.500			
0.6801	43528.59	3.7060	3.7061	2.6052	26.15	0.19	1.500			
0.6880	44033.92	3.7030	3.7028	2.6689	26.13	0.17	1.500			
0.6962	44554.04	3.7000	3.7000	2.6676	26.12	0.16	1.500			
0.7042	45071.43	3.6970	3.6971	2.6616	26.11	0.15	1.500			
0.7123	45589.92	3.6940	3.6938	2.5592	26.10	0.14	1.500			
0.7199	46071.10	3.6910	3.6911	2.3894	26.09	0.13	1.500			
0.7268	46514.86	3.6880	3.6880	2.2048	26.08	0.12	1.500			
0.7330	46914.41	3.6850	3.6849	2.0118	26.07	0.11	1.500			
0.7388	47280.22	3.6820	3.6822	1.8427	26.06	0.10	1.500			
0.7440	47615.12	3.6790	3.6790	1.7168	26.06	0.10	1.500			
0.7489	47927.01	3.6760	3.6760	1.6099	26.05	0.09	1.500			
0.7534	48219.58	3.6730	3.6730	1.5088	26.05	0.09	1.500			
0.7579	48502.46	3.6700	3.6699	1.4488	26.04	0.08	1.500			
0.7621	48772.25	3.6670	3.6670	1.3849	26.04	0.08	1.500			
0.7661	49029.39	3.6640	3.6641	1.3301	26.04	0.08	1.500			
0.7700	49278.83	3.6610	3.6610	1.2894	26.03	0.07	1.500			
0.7737	49517.89	3.6580	3.6581	1.2530	26.03	0.07	1.500			
0.7774	49752.43	3.6550	3.6549	1.2452	26.02	0.06	1.500			
0.7810	49984.53	3.6520	3.6520	1.2411	26.02	0.06	1.500			
0.7847	50222.55	3.6490	3.6491	1.2519	26.01	0.05	1.500			
0.7885	50462.70	3.6460	3.6458	1.2683	26.01	0.05	1.500			
0.7923	50709.03	3.6430	3.6431	1.2871	26.00	0.04	1.500			
0.7962	50958.65	3.6400	3.6400	1.3029	25.99	0.03	1.500			
0.8002	51213.35	3.6370	3.6370	1.3058	25.99	0.03	1.500			
0.8042	51465.79	3.6340	3.6340	1.3056	25.98	0.02	1.500			
0.8081	51717.09	3.6310	3.6311	1.3035	25.97	0.01	1.500			
0.8120	51967.43	3.6280	3.6280	1.3032	25.96	0.00	1.500			
0.8159	52216.10	3.6250	3.6250	1.2935	25.96	-0.00	1.500			
0.8198	52464.11	3.6220	3.6219	1.2873	25.95	-0.01	1.500			
0.8236	52711.80	3.6190	3.6190	1.2837	25.95	-0.01	1.500			
0.8275	52957.46	3.6160	3.6161	1.2847	25.94	-0.02	1.500			
0.8313	53204.08	3.6130	3.6129	1.2764	25.94	-0.02	1.500			
0.8351	53448.89	3.6100	3.6100	1.2720	25.93	-0.03	1.500			
0.8389	53692.36	3.6070	3.6070	1.2593	25.93	-0.03	1.500			
0.8427	53934.75	3.6040	3.6041	1.2506	25.93	-0.03	1.500			
0.8465	54175.16	3.6010	3.6009	1.2367	25.93	-0.03	1.500			
0.8502	54411.05	3.5980	3.5980	1.2161	25.93	-0.03	1.500			
0.8538	54640.60	3.5950	3.5950	1.1999	25.94	-0.02	1.500			
0.8574	54870.72	3.5920	3.5920	1.1895	25.94	-0.02	1.500			
0.8609	55096.34	3.5890	3.5891	1.1781	25.94	-0.02	1.500			
0.8644	55320.36	3.5860	3.5861	1.1794	25.94	-0.02	1.500			
0.8679	55546.07	3.5830	3.5830	1.1748	25.94	-0.02	1.500			
0.8715	55775.96	3.5800	3.5799	1.1605	25.95	-0.01	1.500			
0.8750	56002.83	3.5770	3.5769	1.1384	25.95	-0.01	1.500			
0.8786	56230.45	3.5740	3.5741	1.0794	25.95	-0.01	1.500			
0.8818	56438.09	3.5710	3.5710	0.9897	25.96	-0.00	1.500			
0.8848	56626.19	3.5680	3.5680	0.8762	25.96	-0.00	1.500			
0.8872	56781.58	3.5650	3.5651	0.7415	25.96	-0.00	1.500			
0.8891	56905.37	3.5620	3.5621	0.6155	25.96	0.00	1.500			
0.8907	57005.14	3.5590	3.5589	0.5025	25.96	0.00	1.500			
0.8919	57081.47	3.5560	3.5561	0.4038	25.96	0.00	1.500			
0.8929	57148.31	3.5530	3.5530	0.3429	25.96	0.00	1.500			
0.8938	57204.83	3.5500	3.5500	0.2849	25.96	0.00	1.500			
0.8946	57253.14	3.5470	3.5470	0.2492	25.97	0.01	1.500			
0.8952	57293.91	3.5440	3.5440	0.2178	25.97	0.01	1.500			
0.8958	57332.08	3.5410	3.5410	0.1959	25.97	0.01	1.500			
0.8964	57367.16	3.5380	3.5379	0.1758	25.97	0.01	1.500			
0.8969	57398.45	3.5350	3.5350	0.1591	25.97	0.01	1.500			
0.8973	57427.36	3.5320	3.5321	0.1435	25.97	0.01	1.500			
0.8977	57452.96	3.5290	3.5290	0.1283	25.97	0.01	1.500			
0.8981	57476.26	3.5260	3.5259	0.1144	25.97	0.01	1.500			
0.8984	57496.76	3.5230	3.5230	0.1003	25.97	0.01	1.500			
0.8987	57514.49	3.5200	3.5201	0.0865	25.97	0.01	1.500			
0.8989	57529.82	3.5170	3.5173	0.0732	25.97	0.01	1.500			
0.8991	57542.81	3.5140	3.5144	0.0591	25.97	0.01	1.500			
0.8993	57552.81	3.5110	3.5116	0.0451	25.97	0.01	1.500			
