Ah_balance (normalized)	Ah_balance (mAh)	Voltage - fit (V)	Voltage -  interpolate (V)	dQ/dV (1/V)	Temperature (°C)	Temperature - diff (°C)	Current (C)	R_DC 0ms (mOhm)	R_DC 50ms (mOhm)	R_DC 50 ms PEC (mOhm)
0.2874	18393.89	3.9710	3.9710	0.8424	26.88	0.90	1.500			
0.2899	18555.92	3.9680	3.9679	0.8513	26.87	0.89	1.500			
0.2925	18721.58	3.9650	3.9650	0.8702	26.87	0.89	1.500			
0.2952	18892.98	3.9620	3.9621	0.8764	26.86	0.88	1.500			
0.2978	19061.75	3.9590	3.9589	0.8858	26.86	0.88	1.500			
0.3005	19233.32	3.9560	3.9562	0.8912	26.86	0.88	1.500			
0.3032	19404.93	3.9530	3.9529	0.8970	26.85	0.87	1.500			
0.3059	19578.10	3.9500	3.9500	0.9027	26.85	0.87	1.500			
0.3086	19751.22	3.9470	3.9470	0.9019	26.84	0.86	1.500			
0.3113	19924.18	3.9440	3.9441	0.9073	26.84	0.86	1.500			
0.3140	20098.79	3.9410	3.9410	0.9137	26.83	0.85	1.500			
0.3168	20273.74	3.9380	3.9379	0.9132	26.83	0.85	1.500			
0.3195	20450.36	3.9350	3.9350	0.9193	26.82	0.84	1.500			
0.3223	20627.11	3.9320	3.9321	0.9223	26.82	0.84	1.500			
0.3251	20805.82	3.9290	3.9290	0.9299	26.82	0.84	1.500			
0.3279	20983.73	3.9260	3.9260	0.9381	26.81	0.83	1.500			
0.3307	21162.82	3.9230	3.9230	0.9415	26.81	0.83	1.500			
0.3335	21344.17	3.9200	3.9200	0.9458	26.80	0.82	1.500			
0.3364	21527.20	3.9170	3.9169	0.9579	26.80	0.82	1.500			
0.3393	21712.80	3.9140	3.9141	0.9613	26.80	0.82	1.500			
0.3422	21897.91	3.9110	3.9110	0.9675	26.79	0.81	1.500			
0.3451	22083.81	3.9080	3.9080	0.9703	26.79	0.81	1.500			
0.3480	22269.19	3.9050	3.9050	0.9819	26.79	0.81	1.500			
0.3509	22457.89	3.9020	3.9020	0.9895	26.78	0.80	1.500			
0.3539	22648.61	3.8990	3.8988	0.9986	26.78	0.80	1.500			
0.3569	22840.73	3.8960	3.8961	1.0061	26.78	0.80	1.500			
0.3599	23035.01	3.8930	3.8931	1.0248	26.77	0.79	1.500			
0.3630	23232.89	3.8900	3.8900	1.0381	26.77	0.79	1.500			
0.3661	23432.98	3.8870	3.8870	1.0485	26.76	0.78	1.500			
0.3693	23637.02	3.8840	3.8840	1.0611	26.76	0.78	1.500			
0.3726	23845.92	3.8810	3.8810	1.0728	26.75	0.77	1.500			
0.3758	24052.00	3.8780	3.8781	1.0777	26.74	0.76	1.500			
0.3790	24259.14	3.8750	3.8750	1.0849	26.74	0.76	1.500			
0.3823	24465.08	3.8720	3.8720	1.0925	26.73	0.75	1.500			
0.3855	24673.26	3.8690	3.8690	1.1068	26.73	0.75	1.500			
0.3889	24886.92	3.8660	3.8660	1.1217	26.72	0.74	1.500			
0.3923	25106.69	3.8630	3.8630	1.1353	26.72	0.74	1.500			
0.3958	25328.23	3.8600	3.8600	1.1482	26.71	0.73	1.500			
0.3992	25548.40	3.8570	3.8570	1.1602	26.71	0.73	1.500			
0.4027	25770.94	3.8540	3.8540	1.1732	26.70	0.72	1.500			
0.4062	25996.80	3.8510	3.8510	1.1922	26.70	0.72	1.500			
0.4098	26224.50	3.8480	3.8480	1.2137	26.69	0.71	1.500			
0.4134	26460.67	3.8450	3.8450	1.2430	26.68	0.70	1.500			
0.4173	26704.61	3.8420	3.8420	1.2606	26.68	0.70	1.500			
0.4210	26947.19	3.8390	3.8390	1.2789	26.67	0.69	1.500			
0.4249	27193.75	3.8360	3.8361	1.2983	26.67	0.69	1.500			
0.4288	27444.49	3.8330	3.8329	1.3262	26.66	0.68	1.500			
0.4328	27700.01	3.8300	3.8300	1.3459	26.65	0.67	1.500			
0.4369	27960.23	3.8270	3.8270	1.3769	26.64	0.66	1.500			
0.4411	28227.59	3.8240	3.8240	1.4080	26.63	0.65	1.500			
0.4453	28501.96	3.8210	3.8210	1.4454	26.62	0.64	1.500			
0.4497	28782.38	3.8180	3.8180	1.4748	26.61	0.63	1.500			
0.4542	29068.77	3.8150	3.8149	1.5060	26.60	0.62	1.500			
0.4588	29360.32	3.8120	3.8121	1.5392	26.59	0.61	1.500			
0.4634	29659.27	3.8090	3.8090	1.5760	26.58	0.60	1.500			
0.4681	29961.58	3.8060	3.8061	1.6162	26.57	0.59	1.500			
0.4731	30275.84	3.8030	3.8030	1.6565	26.56	0.58	1.500			
0.4781	30597.09	3.8000	3.7999	1.7053	26.55	0.57	1.500			
0.4832	30927.93	3.7970	3.7971	1.7660	26.54	0.56	1.500			
0.4887	31274.73	3.7940	3.7939	1.8089	26.53	0.55	1.500			
0.4942	31626.47	3.7910	3.7910	1.8510	26.52	0.54	1.500			
0.4998	31985.25	3.7880	3.7881	1.8937	26.51	0.53	1.500			
0.5055	32354.15	3.7850	3.7850	1.9489	26.49	0.51	1.500			
0.5115	32732.83	3.7820	3.7820	1.9850	26.48	0.50	1.500			
0.5174	33115.45	3.7790	3.7790	2.0395	26.46	0.48	1.500			
0.5237	33515.30	3.7760	3.7761	2.0946	26.44	0.46	1.500			
0.5300	33922.02	3.7730	3.7729	2.1473	26.42	0.44	1.500			
0.5366	34342.78	3.7700	3.7700	2.1632	26.40	0.42	1.500			
0.5432	34762.48	3.7670	3.7670	2.2266	26.39	0.41	1.500			
0.5498	35189.09	3.7640	3.7640	2.2414	26.37	0.39	1.500			
0.5566	35624.92	3.7610	3.7610	2.2587	26.35	0.37	1.500	0.365	0.458	
0.5635	36063.16	3.7580	3.7580	2.2381	26.34	0.36	1.500			
0.5703	36500.22	3.7550	3.7550	2.2208	26.32	0.34	1.500			
0.5767	36911.94	3.7520	3.7520	2.1683	26.30	0.32	1.500			
0.5832	37325.67	3.7490	3.7490	2.1396	26.29	0.31	1.500			
0.5896	37732.70	3.7460	3.7461	2.1228	26.27	0.29	1.500			
0.5960	38141.55	3.7430	3.7429	2.1152	26.26	0.28	1.500			
0.6022	38542.25	3.7400	3.7400	2.0978	26.24	0.26	1.500			
0.6085	38942.27	3.7370	3.7370	2.1033	26.23	0.25	1.500			
0.6147	39342.79	3.7340	3.7340	2.1004	26.22	0.24	1.500			
0.6211	39748.09	3.7310	3.7310	2.1214	26.21	0.23	1.500			
0.6274	40154.38	3.7280	3.7279	2.1534	26.19	0.21	1.500			
0.6340	40573.02	3.7250	3.7251	2.1920	26.18	0.20	1.500			
0.6406	40997.59	3.7220	3.7220	2.2399	26.17	0.19	1.500			
0.6473	41429.28	3.7190	3.7191	2.2924	26.16	0.18	1.500			
0.6543	41874.03	3.7160	3.7160	2.3826	26.15	0.17	1.500			
0.6616	42340.94	3.7130	3.7130	2.4856	26.13	0.15	1.500			
0.6690	42817.38	3.7100	3.7100	2.5436	26.12	0.14	1.500			
0.6768	43313.41	3.7070	3.7069	2.6526	26.10	0.12	1.500			
0.6850	43836.99	3.7040	3.7040	2.7074	26.09	0.11	1.500			
0.6932	44362.75	3.7010	3.7011	2.7829	26.08	0.10	1.500			
0.7018	44912.22	3.6980	3.6979	2.7916	26.07	0.09	1.500			
0.7101	45445.77	3.6950	3.6951	2.7662	26.06	0.08	1.500			
0.7184	45977.68	3.6920	3.6920	2.6351	26.05	0.07	1.500			
0.7261	46471.18	3.6890	3.6890	2.4565	26.04	0.06	1.500			
0.7333	46929.75	3.6860	3.6860	2.2316	26.04	0.06	1.500			
0.7396	47331.90	3.6830	3.6831	2.0202	26.03	0.05	1.500			
0.7452	47692.73	3.6800	3.6801	1.8393	26.03	0.05	1.500			
0.7504	48026.30	3.6770	3.6769	1.7137	26.02	0.04	1.500			
0.7551	48329.10	3.6740	3.6740	1.5932	26.02	0.04	1.500			
0.7597	48622.36	3.6710	3.6711	1.5084	26.01	0.03	1.500			
0.7642	48909.15	3.6680	3.6680	1.4405	26.00	0.02	1.500			
0.7684	49175.49	3.6650	3.6650	1.3704	26.00	0.02	1.500			
0.7723	49426.64	3.6620	3.6621	1.3230	25.99	0.01	1.500			
0.7761	49672.14	3.6590	3.6591	1.2863	25.98	0.00	1.500			
0.7799	49913.80	3.6560	3.6558	1.2582	25.98	-0.00	1.500			
0.7836	50151.63	3.6530	3.6531	1.2423	25.98	-0.00	1.500			
0.7873	50386.29	3.6500	3.6501	1.2435	25.97	-0.01	1.500			
0.7910	50625.12	3.6470	3.6470	1.2467	25.97	-0.01	1.500			
0.7947	50862.32	3.6440	3.6439	1.2543	25.97	-0.01	1.500			
0.7985	51102.60	3.6410	3.6411	1.2743	25.96	-0.02	1.500			
0.8023	51349.23	3.6380	3.6380	1.2973	25.96	-0.02	1.500			
0.8063	51604.12	3.6350	3.6350	1.3053	25.96	-0.02	1.500			
0.8103	51858.10	3.6320	3.6320	1.3106	25.95	-0.03	1.500			
0.8142	52110.92	3.6290	3.6291	1.3069	25.95	-0.03	1.500			
0.8182	52363.40	3.6260	3.6260	1.3069	25.94	-0.04	1.500			
0.8221	52612.08	3.6230	3.6230	1.3016	25.94	-0.04	1.500			
0.8259	52859.81	3.6200	3.6200	1.2964	25.93	-0.05	1.500			
0.8298	53107.33	3.6170	3.6170	1.2980	25.93	-0.05	1.500			
0.8337	53359.07	3.6140	3.6140	1.3013	25.93	-0.05	1.500			
0.8377	53609.86	3.6110	3.6110	1.2988	25.93	-0.05	1.500			
0.8416	53859.91	3.6080	3.6079	1.2895	25.92	-0.06	1.500			
0.8454	54108.53	3.6050	3.6050	1.2783	25.92	-0.06	1.500			
0.8492	54351.84	3.6020	3.6020	1.2676	25.92	-0.06	1.500			
0.8530	54594.09	3.5990	3.5989	1.2552	25.92	-0.06	1.500			
0.8568	54832.72	3.5960	3.5960	1.2402	25.92	-0.06	1.500			
0.8605	55071.18	3.5930	3.5930	1.2228	25.92	-0.06	1.500			
0.8642	55305.67	3.5900	3.5900	1.2097	25.92	-0.06	1.500			
0.8677	55533.99	3.5870	3.5871	1.1949	25.92	-0.06	1.500			
0.8713	55760.83	3.5840	3.5840	1.1994	25.92	-0.06	1.500			
0.8748	55987.06	3.5810	3.5810	1.1985	25.92	-0.06	1.500			
0.8784	56219.47	3.5780	3.5779	1.2005	25.92	-0.06	1.500			
0.8821	56453.29	3.5750	3.5749	1.1927	25.93	-0.05	1.500			
0.8858	56690.89	3.5720	3.5720	1.1400	25.94	-0.04	1.500			
0.8894	56918.42	3.5690	3.5690	1.0670	25.95	-0.03	1.500			
0.8925	57122.17	3.5660	3.5661	0.9401	25.95	-0.03	1.500			
0.8952	57293.81	3.5630	3.5632	0.7999	25.96	-0.02	1.500			
0.8974	57432.31	3.5600	3.5600	0.6618	25.96	-0.02	1.500			
0.8991	57540.99	3.5570	3.5568	0.5293	25.97	-0.01	1.500			
0.9003	57620.63	3.5540	3.5539	0.4218	25.97	-0.01	1.500			
0.9014	57687.49	3.5510	3.5508	0.3488	25.97	-0.01	1.500			
0.9022	57741.17	3.5480	3.5479	0.2905	25.98	-0.00	1.500			
0.9030	57789.81	3.5450	3.5449	0.2519	25.98	-0.00	1.500			
0.9036	57830.42	3.5420	3.5420	0.2188	25.98	-0.00	1.500			
0.9042	57869.47	3.5390	3.5390	0.1939	25.98	0.00	1.500			
0.9047	57902.42	3.5360	3.5361	0.1712	25.98	0.00	1.500			
0.9052	57933.10	3.5330	3.5330	0.1526	25.98	0.00	1.500			
0.9056	57960.33	3.5300	3.5300	0.1368	25.98	0.00	1.500			
0.9060	57985.11	3.5270	3.5271	0.1213	25.99	0.01	1.500			
0.9063	58006.33	3.5240	3.5239	0.1052	25.99	0.01	1.500			
0.9066	58025.11	3.5210	3.5211	0.0906	25.99	0.01	1.500			
0.9069	58041.10	3.5180	3.5181	0.0760	25.99	0.01	1.500			
0.9071	58054.05	3.5150	3.5154	0.0623	25.99	0.01	1.500			
0.9073	58064.68	3.5120	3.5128	0.0485	25.99	0.01	1.500			
