Ah_balance (normalized)	Ah_balance (mAh)	Voltage - fit (V)	Voltage -  interpolate (V)	dQ/dV (1/V)	Temperature (°C)	Temperature - diff (°C)	Current (C)	R_DC 0ms (mOhm)	R_DC 50ms (mOhm)	R_DC 50 ms PEC (mOhm)
0.2763	17680.01	3.9880	3.9880	0.8086	27.17	1.17	1.500			
0.2787	17838.28	3.9850	3.9850	0.8292	27.16	1.16	1.500			
0.2812	17997.35	3.9820	3.9821	0.8368	27.16	1.16	1.500			
0.2838	18160.04	3.9790	3.9789	0.8433	27.15	1.15	1.500			
0.2863	18323.66	3.9760	3.9760	0.8514	27.14	1.14	1.500			
0.2889	18487.31	3.9730	3.9730	0.8556	27.14	1.14	1.500			
0.2914	18652.38	3.9700	3.9700	0.8581	27.13	1.13	1.500			
0.2940	18817.34	3.9670	3.9671	0.8615	27.13	1.13	1.500			
0.2966	18983.90	3.9640	3.9639	0.8642	27.12	1.12	1.500			
0.2992	19148.19	3.9610	3.9610	0.8661	27.11	1.11	1.500			
0.3018	19315.58	3.9580	3.9580	0.8744	27.11	1.11	1.500			
0.3044	19483.29	3.9550	3.9549	0.8753	27.10	1.10	1.500			
0.3071	19652.78	3.9520	3.9520	0.8822	27.09	1.09	1.500			
0.3097	19823.95	3.9490	3.9491	0.8845	27.09	1.09	1.500			
0.3124	19993.39	3.9460	3.9460	0.8889	27.08	1.08	1.500			
0.3151	20165.07	3.9430	3.9430	0.8920	27.07	1.07	1.500			
0.3177	20334.62	3.9400	3.9400	0.8945	27.07	1.07	1.500			
0.3204	20507.20	3.9370	3.9369	0.8976	27.06	1.06	1.500			
0.3231	20680.94	3.9340	3.9340	0.9036	27.06	1.06	1.500			
0.3258	20854.03	3.9310	3.9310	0.9052	27.05	1.05	1.500			
0.3286	21028.54	3.9280	3.9280	0.9118	27.04	1.04	1.500			
0.3313	21203.85	3.9250	3.9250	0.9128	27.04	1.04	1.500			
0.3341	21380.10	3.9220	3.9220	0.9188	27.03	1.03	1.500			
0.3368	21555.08	3.9190	3.9190	0.9276	27.02	1.02	1.500			
0.3396	21735.17	3.9160	3.9161	0.9379	27.02	1.02	1.500			
0.3424	21915.43	3.9130	3.9129	0.9434	27.01	1.01	1.500			
0.3453	22097.39	3.9100	3.9100	0.9528	27.00	1.00	1.500			
0.3482	22281.61	3.9070	3.9071	0.9587	27.00	1.00	1.500			
0.3510	22467.02	3.9040	3.9039	0.9663	26.99	0.99	1.500			
0.3540	22653.60	3.9010	3.9010	0.9711	26.98	0.98	1.500			
0.3569	22840.38	3.8980	3.8980	0.9716	26.97	0.97	1.500			
0.3598	23028.51	3.8950	3.8949	0.9793	26.97	0.97	1.500			
0.3627	23215.89	3.8920	3.8920	0.9866	26.96	0.96	1.500			
0.3657	23403.45	3.8890	3.8890	0.9946	26.95	0.95	1.500			
0.3687	23594.96	3.8860	3.8860	1.0098	26.95	0.95	1.500			
0.3717	23789.66	3.8830	3.8830	1.0228	26.94	0.94	1.500			
0.3748	23987.88	3.8800	3.8800	1.0390	26.93	0.93	1.500			
0.3780	24192.06	3.8770	3.8770	1.0516	26.92	0.92	1.500			
0.3812	24394.99	3.8740	3.8740	1.0552	26.91	0.91	1.500			
0.3843	24598.13	3.8710	3.8710	1.0634	26.90	0.90	1.500			
0.3875	24802.60	3.8680	3.8681	1.0746	26.89	0.89	1.500			
0.3908	25008.53	3.8650	3.8649	1.0846	26.88	0.88	1.500			
0.3940	25217.49	3.8620	3.8620	1.1002	26.87	0.87	1.500			
0.3974	25430.56	3.8590	3.8590	1.1089	26.87	0.87	1.500			
0.4007	25644.99	3.8560	3.8561	1.1247	26.86	0.86	1.500			
0.4041	25863.24	3.8530	3.8530	1.1416	26.85	0.85	1.500			
0.4075	26081.26	3.8500	3.8500	1.1594	26.84	0.84	1.500			
0.4110	26304.06	3.8470	3.8470	1.1778	26.83	0.83	1.500			
0.4146	26532.75	3.8440	3.8441	1.2007	26.82	0.82	1.500			
0.4182	26765.99	3.8410	3.8409	1.2223	26.81	0.81	1.500			
0.4219	27003.81	3.8380	3.8381	1.2475	26.80	0.80	1.500			
0.4257	27244.98	3.8350	3.8350	1.2663	26.79	0.79	1.500			
0.4296	27491.66	3.8320	3.8320	1.2774	26.78	0.78	1.500			
0.4334	27737.97	3.8290	3.8290	1.2964	26.76	0.76	1.500			
0.4373	27986.23	3.8260	3.8261	1.3224	26.75	0.75	1.500			
0.4413	28241.13	3.8230	3.8229	1.3529	26.74	0.74	1.500			
0.4454	28503.05	3.8200	3.8200	1.3818	26.73	0.73	1.500			
0.4496	28772.31	3.8170	3.8170	1.4079	26.71	0.71	1.500			
0.4539	29048.53	3.8140	3.8140	1.4341	26.70	0.70	1.500			
0.4582	29324.97	3.8110	3.8111	1.4584	26.68	0.68	1.500			
0.4626	29604.76	3.8080	3.8080	1.4822	26.67	0.67	1.500			
0.4670	29889.45	3.8050	3.8047	1.5125	26.65	0.65	1.500			
0.4716	30181.76	3.8020	3.8021	1.5453	26.64	0.64	1.500			
0.4763	30483.29	3.7990	3.7990	1.5815	26.62	0.62	1.500			
0.4812	30795.92	3.7960	3.7960	1.6244	26.61	0.61	1.500			
0.4860	31106.66	3.7930	3.7930	1.6401	26.59	0.59	1.500			
0.4910	31426.62	3.7900	3.7900	1.6709	26.57	0.57	1.500			
0.4961	31750.96	3.7870	3.7870	1.6905	26.56	0.56	1.500			
0.5012	32079.38	3.7840	3.7840	1.7093	26.54	0.54	1.500			
0.5063	32404.79	3.7810	3.7811	1.7402	26.52	0.52	1.500			
0.5116	32741.10	3.7780	3.7780	1.7650	26.50	0.50	1.500			
0.5169	33082.93	3.7750	3.7748	1.7930	26.48	0.48	1.500	0.355	0.466	
0.5224	33430.47	3.7720	3.7721	1.7994	26.46	0.46	1.500			
0.5279	33784.83	3.7690	3.7690	1.8031	26.45	0.45	1.500			
0.5333	34128.95	3.7660	3.7660	1.7863	26.43	0.43	1.500			
0.5386	34470.02	3.7630	3.7631	1.7856	26.41	0.41	1.500			
0.5439	34809.56	3.7600	3.7600	1.7923	26.39	0.39	1.500			
0.5493	35155.94	3.7570	3.7570	1.7985	26.38	0.38	1.500			
0.5547	35501.34	3.7540	3.7540	1.7794	26.36	0.36	1.500			
0.5600	35839.62	3.7510	3.7511	1.7960	26.34	0.34	1.500			
0.5654	36183.70	3.7480	3.7479	1.8136	26.33	0.33	1.500			
0.5708	36533.79	3.7450	3.7450	1.8319	26.31	0.31	1.500			
0.5764	36887.85	3.7420	3.7421	1.8486	26.30	0.30	1.500			
0.5820	37250.21	3.7390	3.7390	1.8941	26.28	0.28	1.500			
0.5876	37604.50	3.7360	3.7360	1.9159	26.27	0.27	1.500			
0.5934	37978.25	3.7330	3.7331	1.9876	26.26	0.26	1.500			
0.5996	38371.89	3.7300	3.7299	2.0410	26.24	0.24	1.500			
0.6058	38770.39	3.7270	3.7270	2.0715	26.23	0.23	1.500			
0.6120	39167.98	3.7240	3.7241	2.1241	26.21	0.21	1.500			
0.6184	39577.08	3.7210	3.7209	2.1715	26.20	0.20	1.500			
0.6251	40003.66	3.7180	3.7180	2.2318	26.18	0.18	1.500			
0.6320	40446.48	3.7150	3.7150	2.3239	26.16	0.16	1.500			
0.6390	40895.91	3.7120	3.7120	2.3834	26.15	0.15	1.500			
0.6462	41356.60	3.7090	3.7090	2.4469	26.13	0.13	1.500			
0.6537	41837.04	3.7060	3.7060	2.4513	26.11	0.11	1.500			
0.6613	42323.44	3.7030	3.7030	2.4306	26.09	0.09	1.500			
0.6684	42779.21	3.7000	3.7001	2.3174	26.08	0.08	1.500			
0.6752	43215.82	3.6970	3.6970	2.1625	26.07	0.07	1.500			
0.6814	43612.30	3.6940	3.6940	2.0051	26.07	0.07	1.500			
0.6872	43978.10	3.6910	3.6911	1.8516	26.06	0.06	1.500			
0.6925	44317.50	3.6880	3.6879	1.7223	26.06	0.06	1.500			
0.6974	44634.74	3.6850	3.6851	1.6072	26.05	0.05	1.500			
0.7020	44928.51	3.6820	3.6820	1.5132	26.04	0.04	1.500			
0.7064	45208.79	3.6790	3.6790	1.4488	26.04	0.04	1.500			
0.7105	45475.08	3.6760	3.6760	1.3809	26.03	0.03	1.500			
0.7145	45730.65	3.6730	3.6730	1.3363	26.02	0.02	1.500			
0.7185	45980.98	3.6700	3.6700	1.3040	26.02	0.02	1.500			
0.7223	46226.68	3.6670	3.6670	1.2807	26.01	0.01	1.500			
0.7261	46470.19	3.6640	3.6640	1.2694	26.01	0.01	1.500			
0.7298	46709.75	3.6610	3.6610	1.2599	26.00	-0.00	1.500			
0.7336	46949.34	3.6580	3.6580	1.2599	25.99	-0.01	1.500			
0.7374	47190.75	3.6550	3.6550	1.2671	25.99	-0.01	1.500			
0.7412	47434.16	3.6520	3.6519	1.2761	25.98	-0.02	1.500			
0.7450	47681.82	3.6490	3.6490	1.2810	25.98	-0.02	1.500			
0.7489	47930.21	3.6460	3.6460	1.2841	25.97	-0.03	1.500			
0.7528	48177.84	3.6430	3.6430	1.2833	25.96	-0.04	1.500			
0.7566	48424.26	3.6400	3.6400	1.2808	25.96	-0.04	1.500			
0.7605	48669.14	3.6370	3.6370	1.2718	25.95	-0.05	1.500			
0.7643	48912.18	3.6340	3.6340	1.2675	25.94	-0.06	1.500			
0.7681	49155.33	3.6310	3.6310	1.2601	25.94	-0.06	1.500			
0.7718	49397.25	3.6280	3.6280	1.2558	25.94	-0.06	1.500			
0.7756	49637.78	3.6250	3.6250	1.2520	25.93	-0.07	1.500			
0.7793	49878.06	3.6220	3.6220	1.2412	25.93	-0.07	1.500			
0.7830	50114.86	3.6190	3.6190	1.2373	25.93	-0.07	1.500			
0.7868	50353.53	3.6160	3.6160	1.2280	25.92	-0.08	1.500			
0.7905	50589.94	3.6130	3.6130	1.2113	25.92	-0.08	1.500			
0.7941	50822.26	3.6100	3.6101	1.1946	25.92	-0.08	1.500			
0.7977	51049.85	3.6070	3.6070	1.1756	25.92	-0.08	1.500			
0.8011	51273.21	3.6040	3.6040	1.1559	25.92	-0.08	1.500			
0.8046	51493.28	3.6010	3.6010	1.1366	25.92	-0.08	1.500			
0.8079	51706.37	3.5980	3.5980	1.1214	25.92	-0.08	1.500			
0.8113	51923.14	3.5950	3.5950	1.1063	25.92	-0.08	1.500			
0.8146	52134.70	3.5920	3.5919	1.0844	25.92	-0.08	1.500			
0.8179	52343.39	3.5890	3.5890	1.0542	25.92	-0.08	1.500			
0.8210	52545.09	3.5860	3.5860	1.0117	25.93	-0.07	1.500			
0.8241	52741.67	3.5830	3.5829	0.9501	25.94	-0.06	1.500			
0.8269	52921.16	3.5800	3.5800	0.8703	25.95	-0.05	1.500			
0.8294	53083.76	3.5770	3.5771	0.7705	25.96	-0.04	1.500			
0.8316	53224.67	3.5740	3.5741	0.6688	25.97	-0.03	1.500			
0.8335	53341.56	3.5710	3.5710	0.5692	25.97	-0.03	1.500			
0.8350	53438.38	3.5680	3.5679	0.4731	25.98	-0.02	1.500			
0.8362	53514.94	3.5650	3.5649	0.3932	25.98	-0.02	1.500			
0.8372	53579.76	3.5620	3.5620	0.3358	25.98	-0.02	1.500			
0.8380	53634.08	3.5590	3.5589	0.2882	25.99	-0.01	1.500			
0.8388	53683.38	3.5560	3.5559	0.2548	25.99	-0.01	1.500			
0.8395	53726.24	3.5530	3.5529	0.2229	25.99	-0.01	1.500			
0.8401	53765.39	3.5500	3.5500	0.2021	25.99	-0.01	1.500			
0.8406	53801.51	3.5470	3.5470	0.1838	26.00	-0.00	1.500			
0.8412	53834.74	3.5440	3.5440	0.1661	26.00	-0.00	1.500			
0.8416	53864.86	3.5410	3.5410	0.1515	26.00	-0.00	1.500			
0.8421	53892.15	3.5380	3.5380	0.1363	26.00	-0.00	1.500			
0.8424	53916.74	3.5350	3.5350	0.1216	26.00	0.00	1.500			
0.8428	53938.73	3.5320	3.5320	0.1075	26.00	0.00	1.500			
0.8431	53958.02	3.5290	3.5290	0.0934	26.00	0.00	1.500			
0.8434	53974.68	3.5260	3.5262	0.0793	26.00	0.00	1.500			
0.8436	53988.94	3.5230	3.5233	0.0650	26.00	0.00	1.500			
0.8437	53999.97	3.5200	3.5205	0.0500	26.01	0.01	1.500			
0.8439	54008.13	3.5170	3.5180	0.0350	26.01	0.01	1.500			
