Ah_balance (normalized)	Ah_balance (mAh)	Voltage - fit (V)	Voltage -  interpolate (V)	dQ/dV (1/V)	Temperature (°C)	Temperature - diff (°C)	Current (C)	R_DC 0ms (mOhm)	R_DC 50ms (mOhm)	R_DC 50 ms PEC (mOhm)
0.1840	11773.96	3.9300	3.9297	-0.0752	25.93	-0.01	-1.500			
0.1842	11791.09	3.9270	3.9268	-0.1032	25.93	-0.01	-1.500			
0.1846	11813.96	3.9240	3.9239	-0.1309	25.93	-0.01	-1.500			
0.1850	11841.92	3.9210	3.9210	-0.1569	25.93	-0.01	-1.500			
0.1855	11874.95	3.9180	3.9181	-0.1809	25.93	-0.01	-1.500			
0.1861	11912.31	3.9150	3.9149	-0.2034	25.93	-0.01	-1.500			
0.1868	11954.51	3.9120	3.9120	-0.2272	25.93	-0.01	-1.500			
0.1875	12000.23	3.9090	3.9091	-0.2491	25.93	-0.01	-1.500			
0.1883	12050.05	3.9060	3.9060	-0.2704	25.93	-0.01	-1.500			
0.1891	12104.06	3.9030	3.9030	-0.2921	25.93	-0.01	-1.500			
0.1900	12162.28	3.9000	3.9000	-0.3126	25.93	-0.01	-1.500			
0.1910	12224.66	3.8970	3.8970	-0.3323	25.93	-0.01	-1.500			
0.1920	12290.68	3.8940	3.8940	-0.3527	25.93	-0.01	-1.500			
0.1931	12360.60	3.8910	3.8910	-0.3711	25.94	-0.00	-1.500			
0.1943	12433.59	3.8880	3.8880	-0.3902	25.94	-0.00	-1.500			
0.1955	12509.97	3.8850	3.8850	-0.4090	25.94	-0.00	-1.500			
0.1967	12590.53	3.8820	3.8820	-0.4266	25.94	-0.00	-1.500			
0.1980	12674.46	3.8790	3.8789	-0.4448	25.94	-0.00	-1.500			
0.1994	12761.68	3.8760	3.8760	-0.4608	25.94	0.00	-1.500			
0.2008	12852.06	3.8730	3.8730	-0.4749	25.94	0.00	-1.500			
0.2023	12944.99	3.8700	3.8700	-0.4887	25.94	0.00	-1.500			
0.2038	13040.07	3.8670	3.8671	-0.5014	25.94	0.00	-1.500			
0.2053	13137.80	3.8640	3.8640	-0.5140	25.95	0.01	-1.500			
0.2068	13238.22	3.8610	3.8610	-0.5261	25.95	0.01	-1.500			
0.2084	13340.77	3.8580	3.8580	-0.5324	25.95	0.01	-1.500			
0.2101	13444.01	3.8550	3.8550	-0.5433	25.95	0.01	-1.500			
0.2117	13549.33	3.8520	3.8521	-0.5509	25.95	0.01	-1.500			
0.2134	13655.43	3.8490	3.8489	-0.5597	25.95	0.01	-1.500			
0.2151	13763.89	3.8460	3.8460	-0.5648	25.95	0.01	-1.500			
0.2168	13872.79	3.8430	3.8430	-0.5725	25.95	0.01	-1.500			
0.2185	13983.55	3.8400	3.8400	-0.5790	25.96	0.02	-1.500			
0.2203	14096.90	3.8370	3.8370	-0.5851	25.96	0.02	-1.500			
0.2220	14208.75	3.8340	3.8340	-0.5867	25.96	0.02	-1.500			
0.2238	14322.26	3.8310	3.8311	-0.5898	25.96	0.02	-1.500			
0.2256	14435.63	3.8280	3.8280	-0.5916	25.96	0.02	-1.500			
0.2273	14549.28	3.8250	3.8250	-0.5973	25.97	0.03	-1.500			
0.2291	14663.69	3.8220	3.8220	-0.5978	25.97	0.03	-1.500			
0.2309	14778.41	3.8190	3.8190	-0.6024	25.97	0.03	-1.500			
0.2327	14894.53	3.8160	3.8160	-0.6073	25.97	0.03	-1.500			
0.2346	15011.61	3.8130	3.8131	-0.6114	25.98	0.04	-1.500			
0.2364	15129.85	3.8100	3.8099	-0.6154	25.98	0.04	-1.500			
0.2383	15248.83	3.8070	3.8070	-0.6177	25.98	0.04	-1.500			
0.2401	15367.35	3.8040	3.8040	-0.6202	25.99	0.05	-1.500			
0.2420	15487.14	3.8010	3.8010	-0.6235	25.99	0.05	-1.500			
0.2438	15605.98	3.7980	3.7980	-0.6255	25.99	0.05	-1.500			
0.2457	15725.93	3.7950	3.7950	-0.6281	26.00	0.06	-1.500			
0.2476	15847.36	3.7920	3.7919	-0.6279	26.00	0.06	-1.500			
0.2495	15967.68	3.7890	3.7890	-0.6317	26.00	0.06	-1.500			
0.2514	16088.94	3.7860	3.7861	-0.6362	26.01	0.07	-1.500			
0.2533	16212.09	3.7830	3.7829	-0.6361	26.01	0.07	-1.500			
0.2552	16333.42	3.7800	3.7800	-0.6389	26.02	0.08	-1.500			
0.2571	16456.98	3.7770	3.7771	-0.6437	26.02	0.08	-1.500			
0.2591	16580.78	3.7740	3.7740	-0.6502	26.03	0.09	-1.500			
0.2610	16706.67	3.7710	3.7709	-0.6549	26.03	0.09	-1.500			
0.2630	16832.15	3.7680	3.7680	-0.6539	26.03	0.09	-1.500			
0.2650	16958.50	3.7650	3.7651	-0.6575	26.04	0.10	-1.500			
0.2670	17086.13	3.7620	3.7620	-0.6642	26.04	0.10	-1.500			
0.2689	17212.48	3.7590	3.7590	-0.6655	26.05	0.11	-1.500			
0.2709	17340.01	3.7560	3.7559	-0.6686	26.05	0.11	-1.500			
0.2729	17468.61	3.7530	3.7530	-0.6712	26.06	0.12	-1.500			
0.2750	17597.90	3.7500	3.7500	-0.6805	26.06	0.12	-1.500			
0.2770	17730.04	3.7470	3.7470	-0.6850	26.07	0.13	-1.500			
0.2791	17861.89	3.7440	3.7440	-0.6878	26.07	0.13	-1.500			
0.2811	17993.44	3.7410	3.7411	-0.6938	26.08	0.14	-1.500			
0.2832	18126.63	3.7380	3.7381	-0.7019	26.08	0.14	-1.500			
0.2854	18264.22	3.7350	3.7348	-0.7042	26.09	0.15	-1.500			
0.2875	18400.29	3.7320	3.7320	-0.7082	26.09	0.15	-1.500			
0.2896	18535.76	3.7290	3.7291	-0.7082	26.10	0.16	-1.500			
0.2918	18673.19	3.7260	3.7261	-0.7180	26.10	0.16	-1.500			
0.2939	18810.60	3.7230	3.7229	-0.7205	26.11	0.17	-1.500			
0.2961	18947.22	3.7200	3.7199	-0.7224	26.11	0.17	-1.500			
0.2982	19086.96	3.7170	3.7171	-0.7301	26.12	0.18	-1.500			
0.3005	19230.09	3.7140	3.7140	-0.7469	26.12	0.18	-1.500			
0.3027	19372.25	3.7110	3.7111	-0.7533	26.13	0.19	-1.500			
0.3050	19519.29	3.7080	3.7079	-0.7587	26.13	0.19	-1.500			
0.3073	19664.37	3.7050	3.7051	-0.7679	26.13	0.19	-1.500			
0.3096	19813.89	3.7020	3.7020	-0.7744	26.14	0.20	-1.500			
0.3119	19963.09	3.6990	3.6990	-0.7810	26.14	0.20	-1.500			
0.3143	20113.64	3.6960	3.6960	-0.7890	26.15	0.21	-1.500			
0.3166	20264.41	3.6930	3.6929	-0.7957	26.15	0.21	-1.500			
0.3190	20418.34	3.6900	3.6900	-0.8028	26.15	0.21	-1.500			
0.3215	20574.04	3.6870	3.6870	-0.8131	26.16	0.22	-1.500			
0.3239	20730.43	3.6840	3.6841	-0.8193	26.16	0.22	-1.500			
0.3264	20889.95	3.6810	3.6809	-0.8296	26.16	0.22	-1.500			
0.3289	21049.31	3.6780	3.6780	-0.8356	26.17	0.23	-1.500			
0.3314	21210.41	3.6750	3.6750	-0.8427	26.17	0.23	-1.500			
0.3340	21373.37	3.6720	3.6720	-0.8517	26.18	0.24	-1.500			
0.3365	21538.47	3.6690	3.6690	-0.8576	26.18	0.24	-1.500			
0.3391	21702.85	3.6660	3.6660	-0.8626	26.18	0.24	-1.500			
0.3417	21868.01	3.6630	3.6630	-0.8742	26.19	0.25	-1.500			
0.3443	22036.59	3.6600	3.6600	-0.8838	26.19	0.25	-1.500			
0.3470	22207.08	3.6570	3.6570	-0.8948	26.20	0.26	-1.500			
0.3497	22380.07	3.6540	3.6540	-0.9058	26.20	0.26	-1.500			
0.3524	22555.38	3.6510	3.6510	-0.9147	26.20	0.26	-1.500			
0.3552	22733.46	3.6480	3.6480	-0.9260	26.21	0.27	-1.500			
0.3580	22911.22	3.6450	3.6450	-0.9352	26.21	0.27	-1.500			
0.3608	23090.71	3.6420	3.6420	-0.9411	26.21	0.27	-1.500			
0.3636	23273.45	3.6390	3.6390	-0.9521	26.22	0.28	-1.500			
0.3665	23456.15	3.6360	3.6360	-0.9636	26.22	0.28	-1.500			
0.3694	23642.10	3.6330	3.6330	-0.9759	26.23	0.29	-1.500			
0.3724	23830.72	3.6300	3.6299	-0.9873	26.23	0.29	-1.500			
0.3753	24021.05	3.6270	3.6269	-0.9961	26.23	0.29	-1.500			
0.3783	24213.22	3.6240	3.6241	-1.0066	26.24	0.30	-1.500			
0.3814	24408.47	3.6210	3.6209	-1.0207	26.24	0.30	-1.500			
0.3845	24605.01	3.6180	3.6180	-1.0320	26.24	0.30	-1.500			
0.3876	24804.02	3.6150	3.6150	-1.0464	26.25	0.31	-1.500			
0.3907	25006.11	3.6120	3.6120	-1.0560	26.25	0.31	-1.500			
0.3939	25210.40	3.6090	3.6090	-1.0684	26.25	0.31	-1.500			
0.3971	25417.31	3.6060	3.6060	-1.0774	26.26	0.32	-1.500			
0.4004	25623.70	3.6030	3.6030	-1.0907	26.26	0.32	-1.500			
0.4037	25833.60	3.6000	3.6000	-1.1029	26.27	0.33	-1.500			
0.4070	26045.23	3.5970	3.5970	-1.1244	26.27	0.33	-1.500			
0.4103	26261.95	3.5940	3.5940	-1.1422	26.27	0.33	-1.500			
0.4138	26484.62	3.5910	3.5910	-1.1637	26.28	0.34	-1.500			
0.4174	26711.22	3.5880	3.5880	-1.1777	26.28	0.34	-1.500			
0.4209	26940.35	3.5850	3.5850	-1.1899	26.29	0.35	-1.500			
0.4245	27168.53	3.5820	3.5821	-1.2029	26.29	0.35	-1.500			
0.4281	27400.62	3.5790	3.5790	-1.2223	26.30	0.36	-1.500			
0.4318	27633.26	3.5760	3.5760	-1.2421	26.30	0.36	-1.500			
0.4356	27876.44	3.5730	3.5729	-1.2655	26.30	0.36	-1.500			
0.4394	28123.48	3.5700	3.5700	-1.2841	26.31	0.37	-1.500			
0.4433	28372.82	3.5670	3.5671	-1.3023	26.31	0.37	-1.500			
0.4473	28626.21	3.5640	3.5641	-1.3178	26.32	0.38	-1.500			
0.4512	28878.67	3.5610	3.5609	-1.3329	26.32	0.38	-1.500			
0.4552	29132.65	3.5580	3.5580	-1.3481	26.33	0.39	-1.500			
0.4593	29392.90	3.5550	3.5550	-1.3661	26.33	0.39	-1.500			
0.4634	29657.89	3.5520	3.5520	-1.3866	26.34	0.40	-1.500			
0.4676	29928.38	3.5490	3.5490	-1.4107	26.34	0.40	-1.500			
0.4719	30200.71	3.5460	3.5460	-1.4194	26.35	0.41	-1.500			
0.4762	30475.04	3.5430	3.5430	-1.4363	26.35	0.41	-1.500			
0.4805	30750.20	3.5400	3.5400	-1.4459	26.36	0.42	-1.500			
0.4848	31027.79	3.5370	3.5369	-1.4618	26.36	0.42	-1.500			
0.4892	31306.39	3.5340	3.5341	-1.5041	26.37	0.43	-1.500			
0.4938	31601.50	3.5310	3.5307	-1.5181	26.37	0.43	-1.500			
0.4984	31899.97	3.5280	3.5280	-1.5279	26.38	0.44	-1.500			
0.5031	32195.57	3.5250	3.5248	-1.5459	26.39	0.45	-1.500	0.374	0.553	
0.5077	32493.59	3.5220	3.5219	-1.5655	26.39	0.45	-1.500			
0.5125	32796.92	3.5190	3.5188	-1.5736	26.40	0.46	-1.500			
0.5171	33095.82	3.5160	3.5159	-1.5740	26.41	0.47	-1.500			
0.5218	33396.27	3.5130	3.5130	-1.5947	26.42	0.48	-1.500			
0.5267	33708.96	3.5100	3.5100	-1.6125	26.43	0.49	-1.500			
0.5315	34019.06	3.5070	3.5069	-1.6188	26.44	0.50	-1.500			
0.5364	34326.64	3.5040	3.5040	-1.6147	26.45	0.51	-1.500			
0.5412	34637.53	3.5010	3.5011	-1.6250	26.46	0.52	-1.500			
0.5462	34955.92	3.4980	3.4979	-1.6342	26.47	0.53	-1.500			
0.5511	35269.76	3.4950	3.4951	-1.6341	26.48	0.54	-1.500			
0.5560	35581.21	3.4920	3.4920	-1.6299	26.49	0.55	-1.500			
0.5609	35895.67	3.4890	3.4890	-1.6304	26.50	0.56	-1.500			
0.5657	36207.98	3.4860	3.4860	-1.6266	26.52	0.58	-1.500			
0.5706	36521.52	3.4830	3.4830	-1.6330	26.53	0.59	-1.500			
0.5755	36834.02	3.4800	3.4800	-1.6258	26.55	0.61	-1.500			
0.5804	37147.41	3.4770	3.4770	-1.6160	26.56	0.62	-1.500			
0.5853	37458.66	3.4740	3.4740	-1.6015	26.58	0.64	-1.500			
0.5901	37765.83	3.4710	3.4710	-1.5913	26.59	0.65	-1.500			
0.5949	38070.79	3.4680	3.4679	-1.5703	26.61	0.67	-1.500			
0.5995	38367.34	3.4650	3.4650	-1.5587	26.62	0.68	-1.500			
0.6041	38664.42	3.4620	3.4621	-1.5459	26.64	0.70	-1.500			
0.6088	38963.43	3.4590	3.4589	-1.5292	26.65	0.71	-1.500			
0.6134	39255.67	3.4560	3.4560	-1.5155	26.67	0.73	-1.500			
0.6179	39545.94	3.4530	3.4531	-1.4978	26.68	0.74	-1.500			
0.6223	39830.35	3.4500	3.4500	-1.4774	26.70	0.76	-1.500			
0.6268	40112.84	3.4470	3.4469	-1.4618	26.71	0.77	-1.500			
0.6311	40390.10	3.4440	3.4441	-1.4354	26.73	0.79	-1.500			
0.6354	40665.66	3.4410	3.4409	-1.4253	26.75	0.81	-1.500			
0.6397	40939.92	3.4380	3.4380	-1.4045	26.77	0.83	-1.500			
0.6438	41206.12	3.4350	3.4350	-1.3817	26.79	0.85	-1.500			
0.6480	41470.70	3.4320	3.4321	-1.3595	26.80	0.86	-1.500			
0.6520	41728.32	3.4290	3.4290	-1.3407	26.82	0.88	-1.500			
0.6560	41983.02	3.4260	3.4260	-1.3255	26.84	0.90	-1.500			
0.6599	42234.13	3.4230	3.4230	-1.3126	26.85	0.91	-1.500			
0.6639	42487.22	3.4200	3.4200	-1.2890	26.87	0.93	-1.500			
0.6678	42736.20	3.4170	3.4170	-1.2692	26.89	0.95	-1.500			
0.6715	42977.01	3.4140	3.4140	-1.2427	26.90	0.96	-1.500			
0.6752	43214.76	3.4110	3.4109	-1.2190	26.92	0.98	-1.500			
0.6788	43444.56	3.4080	3.4080	-1.1861	26.94	1.00	-1.500			
0.6823	43668.61	3.4050	3.4050	-1.1555	26.96	1.02	-1.500			
0.6857	43886.57	3.4020	3.4020	-1.1278	26.98	1.04	-1.500			
0.6891	44103.99	3.3990	3.3990	-1.1058	27.00	1.06	-1.500			
0.6924	44312.10	3.3960	3.3960	-1.0746	27.01	1.07	-1.500			
0.6956	44515.49	3.3930	3.3930	-1.0435	27.02	1.08	-1.500			
0.6986	44713.04	3.3900	3.3902	-1.0157	27.03	1.09	-1.500			
0.7017	44906.17	3.3870	3.3870	-0.9867	27.05	1.11	-1.500			
0.7046	45092.30	3.3840	3.3840	-0.9577	27.06	1.12	-1.500			
0.7074	45272.95	3.3810	3.3810	-0.9272	27.08	1.14	-1.500			
0.7101	45446.97	3.3780	3.3781	-0.9065	27.09	1.15	-1.500			
0.7128	45619.83	3.3750	3.3749	-0.8798	27.10	1.16	-1.500			
0.7154	45786.89	3.3720	3.3720	-0.8561	27.12	1.18	-1.500			
0.7179	45948.75	3.3690	3.3692	-0.8287	27.13	1.19	-1.500			
0.7204	46105.63	3.3660	3.3660	-0.8060	27.14	1.20	-1.500			
0.7228	46256.80	3.3630	3.3629	-0.7824	27.15	1.21	-1.500			
0.7251	46403.98	3.3600	3.3600	-0.7545	27.16	1.22	-1.500			
0.7273	46545.47	3.3570	3.3570	-0.7334	27.17	1.23	-1.500			
0.7294	46684.65	3.3540	3.3540	-0.7155	27.18	1.24	-1.500			
0.7316	46819.84	3.3510	3.3510	-0.6964	27.19	1.25	-1.500			
0.7336	46952.19	3.3480	3.3479	-0.6779	27.21	1.27	-1.500			
0.7356	47080.06	3.3450	3.3451	-0.6600	27.22	1.28	-1.500			
0.7376	47204.82	3.3420	3.3420	-0.6415	27.23	1.29	-1.500			
0.7395	47327.07	3.3390	3.3390	-0.6287	27.24	1.30	-1.500			
0.7413	47445.09	3.3360	3.3360	-0.6093	27.25	1.31	-1.500			
0.7431	47560.90	3.3330	3.3330	-0.5975	27.25	1.31	-1.500			
0.7449	47675.13	3.3300	3.3299	-0.5808	27.26	1.32	-1.500			
0.7466	47785.40	3.3270	3.3270	-0.5657	27.26	1.32	-1.500			
0.7483	47892.02	3.3240	3.3243	-0.5507	27.27	1.33	-1.500			
0.7499	47996.78	3.3210	3.3209	-0.5370	27.28	1.34	-1.500			
0.7515	48097.55	3.3180	3.3180	-0.5231	27.29	1.35	-1.500			
0.7531	48195.46	3.3150	3.3150	-0.5100	27.30	1.36	-1.500			
0.7546	48293.92	3.3120	3.3120	-0.5016	27.31	1.37	-1.500			
0.7561	48388.97	3.3090	3.3090	-0.4887	27.32	1.38	-1.500			
0.7575	48481.08	3.3060	3.3060	-0.4751	27.33	1.39	-1.500			
0.7589	48571.24	3.3030	3.3030	-0.4617	27.34	1.40	-1.500			
0.7603	48658.61	3.3000	3.2999	-0.4488	27.34	1.40	-1.500			
0.7616	48742.85	3.2970	3.2971	-0.4369	27.35	1.41	-1.500			
0.7629	48824.92	3.2940	3.2940	-0.4264	27.36	1.42	-1.500			
0.7642	48905.71	3.2910	3.2909	-0.4194	27.37	1.43	-1.500			
0.7654	48985.25	3.2880	3.2880	-0.4079	27.37	1.43	-1.500			
0.7666	49062.95	3.2850	3.2850	-0.4000	27.38	1.44	-1.500			
0.7678	49139.90	3.2820	3.2821	-0.3914	27.39	1.45	-1.500			
0.7690	49214.63	3.2790	3.2789	-0.3807	27.39	1.45	-1.500			
0.7701	49285.58	3.2760	3.2760	-0.3708	27.40	1.46	-1.500			
0.7712	49355.63	3.2730	3.2730	-0.3631	27.40	1.46	-1.500			
0.7722	49423.68	3.2700	3.2700	-0.3548	27.40	1.46	-1.500			
0.7733	49492.04	3.2670	3.2668	-0.3482	27.41	1.47	-1.500			
0.7743	49557.59	3.2640	3.2641	-0.3410	27.42	1.48	-1.500			
0.7754	49622.70	3.2610	3.2610	-0.3346	27.43	1.49	-1.500			
0.7764	49686.63	3.2580	3.2580	-0.3274	27.43	1.49	-1.500			
0.7773	49748.19	3.2550	3.2549	-0.3202	27.44	1.50	-1.500			
0.7783	49808.53	3.2520	3.2521	-0.3129	27.45	1.51	-1.500			
0.7792	49868.33	3.2490	3.2488	-0.3067	27.46	1.52	-1.500			
0.7801	49926.92	3.2460	3.2460	-0.3005	27.46	1.52	-1.500			
0.7810	49983.49	3.2430	3.2431	-0.2934	27.47	1.53	-1.500			
0.7819	50039.29	3.2400	3.2400	-0.2876	27.48	1.54	-1.500			
0.7827	50093.83	3.2370	3.2369	-0.2820	27.48	1.54	-1.500			
0.7835	50146.35	3.2340	3.2340	-0.2759	27.49	1.55	-1.500			
0.7844	50198.92	3.2310	3.2310	-0.2735	27.50	1.56	-1.500			
0.7852	50251.22	3.2280	3.2279	-0.2707	27.50	1.56	-1.500			
0.7860	50303.06	3.2250	3.2251	-0.2671	27.51	1.57	-1.500			
0.7868	50354.22	3.2220	3.2219	-0.2626	27.52	1.58	-1.500			
0.7876	50404.68	3.2190	3.2191	-0.2581	27.52	1.58	-1.500			
0.7883	50453.68	3.2160	3.2161	-0.2541	27.53	1.59	-1.500			
0.7891	50501.80	3.2130	3.2129	-0.2493	27.54	1.60	-1.500			
0.7898	50548.78	3.2100	3.2100	-0.2449	27.54	1.60	-1.500			
0.7905	50594.95	3.2070	3.2070	-0.2408	27.55	1.61	-1.500			
0.7913	50640.97	3.2040	3.2041	-0.2378	27.55	1.61	-1.500			
0.7920	50686.39	3.2010	3.2010	-0.2346	27.56	1.62	-1.500			
0.7927	50731.23	3.1980	3.1980	-0.2318	27.57	1.63	-1.500			
0.7934	50775.51	3.1950	3.1950	-0.2287	27.57	1.63	-1.500			
0.7940	50818.79	3.1920	3.1920	-0.2249	27.58	1.64	-1.500			
0.7947	50861.89	3.1890	3.1889	-0.2225	27.58	1.64	-1.500			
0.7954	50904.16	3.1860	3.1860	-0.2193	27.59	1.65	-1.500			
0.7960	50946.00	3.1830	3.1830	-0.2166	27.59	1.65	-1.500			
0.7967	50987.38	3.1800	3.1800	-0.2135	27.60	1.66	-1.500			
0.7973	51028.00	3.1770	3.1770	-0.2110	27.60	1.66	-1.500			
0.7979	51068.26	3.1740	3.1739	-0.2081	27.61	1.67	-1.500			
0.7986	51107.96	3.1710	3.1711	-0.2054	27.61	1.67	-1.500			
0.7992	51147.22	3.1680	3.1680	-0.2029	27.62	1.68	-1.500			
0.7998	51185.57	3.1650	3.1651	-0.2011	27.62	1.68	-1.500			
0.8004	51224.17	3.1620	3.1619	-0.1987	27.63	1.69	-1.500			
0.8010	51262.11	3.1590	3.1590	-0.1966	27.64	1.70	-1.500			
0.8016	51299.61	3.1560	3.1558	-0.1953	27.64	1.70	-1.500			
0.8021	51336.98	3.1530	3.1531	-0.1928	27.65	1.71	-1.500			
0.8027	51373.92	3.1500	3.1499	-0.1915	27.65	1.71	-1.500			
0.8033	51410.48	3.1470	3.1470	-0.1893	27.66	1.72	-1.500			
0.8039	51446.57	3.1440	3.1441	-0.1875	27.67	1.73	-1.500			
0.8044	51481.93	3.1410	3.1410	-0.1859	27.67	1.73	-1.500			
0.8050	51517.78	3.1380	3.1381	-0.1852	27.68	1.74	-1.500			
0.8055	51553.21	3.1350	3.1350	-0.1839	27.68	1.74	-1.500			
0.8061	51588.29	3.1320	3.1319	-0.1814	27.69	1.75	-1.500			
0.8066	51623.39	3.1290	3.1290	-0.1801	27.70	1.76	-1.500			
0.8072	51657.81	3.1260	3.1261	-0.1778	27.70	1.76	-1.500			
0.8077	51691.64	3.1230	3.1230	-0.1756	27.71	1.77	-1.500			
0.8082	51724.87	3.1200	3.1200	-0.1748	27.71	1.77	-1.500			
0.8087	51757.94	3.1170	3.1171	-0.1728	27.72	1.78	-1.500			
0.8092	51790.94	3.1140	3.1140	-0.1721	27.72	1.78	-1.500			
0.8098	51824.16	3.1110	3.1109	-0.1701	27.73	1.79	-1.500			
0.8103	51856.82	3.1080	3.1081	-0.1696	27.74	1.80	-1.500			
0.8108	51889.33	3.1050	3.1051	-0.1683	27.74	1.80	-1.500			
0.8113	51921.49	3.1020	3.1019	-0.1667	27.75	1.81	-1.500			
0.8118	51953.32	3.0990	3.0990	-0.1656	27.75	1.81	-1.500			
0.8123	51984.73	3.0960	3.0960	-0.1635	27.76	1.82	-1.500			
0.8128	52016.26	3.0930	3.0931	-0.1627	27.77	1.83	-1.500			
0.8132	52047.35	3.0900	3.0900	-0.1612	27.77	1.83	-1.500			
0.8137	52078.23	3.0870	3.0870	-0.1610	27.78	1.84	-1.500			
0.8142	52108.76	3.0840	3.0839	-0.1593	27.78	1.84	-1.500			
0.8147	52139.52	3.0810	3.0809	-0.1582	27.79	1.85	-1.500			
0.8152	52169.77	3.0780	3.0780	-0.1569	27.80	1.86	-1.500			
0.8156	52199.79	3.0750	3.0751	-0.1557	27.80	1.86	-1.500			
0.8161	52229.78	3.0720	3.0720	-0.1545	27.81	1.87	-1.500			
0.8165	52258.86	3.0690	3.0690	-0.1535	27.81	1.87	-1.500			
0.8170	52288.26	3.0660	3.0660	-0.1527	27.82	1.88	-1.500			
0.8175	52317.15	3.0630	3.0630	-0.1514	27.82	1.88	-1.500			
0.8179	52346.39	3.0600	3.0599	-0.1507	27.83	1.89	-1.500			
0.8184	52375.42	3.0570	3.0570	-0.1503	27.84	1.90	-1.500			
0.8188	52404.16	3.0540	3.0541	-0.1491	27.84	1.90	-1.500			
0.8193	52432.61	3.0510	3.0510	-0.1486	27.85	1.91	-1.500			
0.8197	52461.19	3.0480	3.0481	-0.1476	27.85	1.91	-1.500			
0.8201	52489.15	3.0450	3.0449	-0.1459	27.86	1.92	-1.500			
0.8206	52517.11	3.0420	3.0420	-0.1454	27.86	1.92	-1.500			
0.8210	52545.29	3.0390	3.0391	-0.1442	27.87	1.93	-1.500			
0.8215	52572.80	3.0360	3.0360	-0.1435	27.87	1.93	-1.500			
0.8219	52600.16	3.0330	3.0330	-0.1422	27.88	1.94	-1.500			
0.8223	52627.32	3.0300	3.0300	-0.1415	27.89	1.95	-1.500			
0.8227	52654.32	3.0270	3.0269	-0.1400	27.89	1.95	-1.500			
0.8231	52681.18	3.0240	3.0240	-0.1396	27.90	1.96	-1.500			
0.8236	52707.97	3.0210	3.0211	-0.1384	27.90	1.96	-1.500			
0.8240	52734.45	3.0180	3.0180	-0.1374	27.91	1.97	-1.500			
0.8244	52760.78	3.0150	3.0149	-0.1370	27.91	1.97	-1.500			
0.8248	52786.71	3.0120	3.0121	-0.1359	27.92	1.98	-1.500			
0.8252	52812.64	3.0090	3.0090	-0.1357	27.92	1.98	-1.500			
0.8256	52838.72	3.0060	3.0059	-0.1359	27.93	1.99	-1.500			
0.8260	52864.77	3.0030	3.0030	-0.1351	27.93	1.99	-1.500			
