Ah_balance (normalized)	Ah_balance (mAh)	Voltage - fit (V)	Voltage -  interpolate (V)	dQ/dV (1/V)	Temperature (°C)	Temperature - diff (°C)	Current (C)	R_DC 0ms (mOhm)	R_DC 50ms (mOhm)	R_DC 50 ms PEC (mOhm)
0.2803	17941.91	3.9880	3.9880	0.8417	27.04	1.10	1.500			
0.2829	18104.37	3.9850	3.9850	0.8471	27.04	1.10	1.500			
0.2854	18266.33	3.9820	3.9821	0.8456	27.03	1.09	1.500			
0.2879	18428.68	3.9790	3.9790	0.8459	27.03	1.09	1.500			
0.2905	18591.29	3.9760	3.9760	0.8505	27.02	1.08	1.500			
0.2930	18752.66	3.9730	3.9730	0.8513	27.02	1.08	1.500			
0.2956	18916.77	3.9700	3.9700	0.8559	27.01	1.07	1.500			
0.2982	19082.00	3.9670	3.9670	0.8600	27.01	1.07	1.500			
0.3007	19247.69	3.9640	3.9640	0.8655	27.00	1.06	1.500			
0.3034	19414.42	3.9610	3.9611	0.8691	27.00	1.06	1.500			
0.3060	19582.28	3.9580	3.9578	0.8723	26.99	1.05	1.500			
0.3086	19749.90	3.9550	3.9550	0.8735	26.98	1.04	1.500			
0.3112	19918.29	3.9520	3.9520	0.8775	26.98	1.04	1.500			
0.3139	20086.65	3.9490	3.9490	0.8820	26.97	1.03	1.500			
0.3165	20256.27	3.9460	3.9460	0.8839	26.97	1.03	1.500			
0.3191	20424.97	3.9430	3.9429	0.8879	26.96	1.02	1.500			
0.3218	20596.56	3.9400	3.9400	0.8918	26.95	1.01	1.500			
0.3245	20768.56	3.9370	3.9370	0.8955	26.95	1.01	1.500			
0.3272	20940.06	3.9340	3.9340	0.9017	26.94	1.00	1.500			
0.3299	21113.58	3.9310	3.9311	0.9074	26.93	0.99	1.500			
0.3326	21288.35	3.9280	3.9280	0.9130	26.93	0.99	1.500			
0.3354	21464.36	3.9250	3.9250	0.9210	26.92	0.98	1.500			
0.3382	21642.21	3.9220	3.9220	0.9237	26.92	0.98	1.500			
0.3410	21821.35	3.9190	3.9189	0.9286	26.91	0.97	1.500			
0.3438	22000.11	3.9160	3.9160	0.9311	26.91	0.97	1.500			
0.3465	22177.68	3.9130	3.9130	0.9362	26.90	0.96	1.500			
0.3493	22358.07	3.9100	3.9100	0.9413	26.89	0.95	1.500			
0.3522	22538.93	3.9070	3.9071	0.9496	26.89	0.95	1.500			
0.3550	22720.65	3.9040	3.9040	0.9580	26.88	0.94	1.500			
0.3579	22906.24	3.9010	3.9010	0.9697	26.88	0.94	1.500			
0.3608	23093.64	3.8980	3.8980	0.9785	26.87	0.93	1.500			
0.3638	23282.41	3.8950	3.8950	0.9853	26.86	0.92	1.500			
0.3668	23472.05	3.8920	3.8921	0.9954	26.85	0.91	1.500			
0.3698	23666.35	3.8890	3.8890	1.0031	26.84	0.90	1.500			
0.3728	23858.76	3.8860	3.8859	1.0072	26.83	0.89	1.500			
0.3758	24051.13	3.8830	3.8830	1.0166	26.83	0.89	1.500			
0.3789	24246.83	3.8800	3.8801	1.0306	26.82	0.88	1.500			
0.3820	24445.92	3.8770	3.8769	1.0441	26.81	0.87	1.500			
0.3851	24647.76	3.8740	3.8740	1.0574	26.80	0.86	1.500			
0.3883	24852.12	3.8710	3.8711	1.0663	26.79	0.85	1.500			
0.3916	25059.60	3.8680	3.8680	1.0765	26.79	0.85	1.500			
0.3948	25268.22	3.8650	3.8650	1.0846	26.78	0.84	1.500			
0.3980	25474.62	3.8620	3.8620	1.0923	26.77	0.83	1.500			
0.4013	25684.45	3.8590	3.8589	1.1091	26.76	0.82	1.500			
0.4047	25897.98	3.8560	3.8560	1.1263	26.75	0.81	1.500			
0.4081	26116.19	3.8530	3.8530	1.1456	26.75	0.81	1.500			
0.4116	26339.42	3.8500	3.8500	1.1698	26.74	0.80	1.500			
0.4151	26566.08	3.8470	3.8470	1.1876	26.73	0.79	1.500			
0.4187	26795.87	3.8440	3.8440	1.2025	26.72	0.78	1.500			
0.4223	27028.97	3.8410	3.8410	1.2189	26.71	0.77	1.500			
0.4260	27263.15	3.8380	3.8380	1.2391	26.69	0.75	1.500			
0.4297	27501.51	3.8350	3.8350	1.2624	26.68	0.74	1.500			
0.4335	27746.70	3.8320	3.8320	1.2774	26.67	0.73	1.500			
0.4374	27993.79	3.8290	3.8291	1.2959	26.67	0.73	1.500			
0.4413	28245.81	3.8260	3.8260	1.3150	26.66	0.72	1.500			
0.4453	28498.75	3.8230	3.8229	1.3461	26.65	0.71	1.500			
0.4494	28759.13	3.8200	3.8200	1.3672	26.64	0.70	1.500			
0.4535	29022.09	3.8170	3.8170	1.3964	26.63	0.69	1.500			
0.4577	29293.28	3.8140	3.8141	1.4251	26.62	0.68	1.500			
0.4621	29571.51	3.8110	3.8111	1.4607	26.60	0.66	1.500			
0.4665	29855.84	3.8080	3.8079	1.4873	26.59	0.65	1.500			
0.4710	30142.28	3.8050	3.8050	1.5116	26.57	0.63	1.500			
0.4756	30436.76	3.8020	3.8021	1.5412	26.56	0.62	1.500			
0.4803	30737.03	3.7990	3.7990	1.5813	26.54	0.60	1.500			
0.4850	31043.14	3.7960	3.7960	1.6063	26.53	0.59	1.500			
0.4899	31353.76	3.7930	3.7929	1.6293	26.52	0.58	1.500			
0.4949	31671.52	3.7900	3.7900	1.6620	26.50	0.56	1.500			
0.4999	31992.55	3.7870	3.7870	1.6795	26.49	0.55	1.500			
0.5049	32316.03	3.7840	3.7840	1.6976	26.47	0.53	1.500			
0.5099	32636.36	3.7810	3.7811	1.7353	26.46	0.52	1.500			
0.5153	32978.93	3.7780	3.7778	1.7677	26.44	0.50	1.500	0.344	0.471	
0.5207	33324.87	3.7750	3.7752	1.7876	26.43	0.49	1.500			
0.5261	33671.05	3.7720	3.7723	1.7928	26.41	0.47	1.500			
0.5317	34030.73	3.7690	3.7688	1.8133	26.40	0.46	1.500			
0.5371	34372.03	3.7660	3.7659	1.7756	26.39	0.45	1.500			
0.5422	34698.19	3.7630	3.7630	1.7650	26.37	0.43	1.500			
0.5476	35045.36	3.7600	3.7600	1.7812	26.36	0.42	1.500			
0.5528	35381.38	3.7570	3.7571	1.7706	26.35	0.41	1.500			
0.5582	35721.63	3.7540	3.7540	1.7738	26.34	0.40	1.500			
0.5634	36060.53	3.7510	3.7509	1.7761	26.32	0.38	1.500			
0.5688	36401.17	3.7480	3.7481	1.7810	26.31	0.37	1.500			
0.5741	36742.88	3.7450	3.7450	1.8135	26.30	0.36	1.500			
0.5796	37091.44	3.7420	3.7419	1.8409	26.28	0.34	1.500			
0.5851	37444.34	3.7390	3.7390	1.8867	26.27	0.33	1.500			
0.5909	37815.44	3.7360	3.7360	1.9100	26.26	0.32	1.500			
0.5967	38185.76	3.7330	3.7330	1.9453	26.24	0.30	1.500			
0.6025	38559.83	3.7300	3.7301	2.0029	26.23	0.29	1.500			
0.6086	38948.26	3.7270	3.7269	2.0591	26.21	0.27	1.500			
0.6149	39351.15	3.7240	3.7240	2.1060	26.20	0.26	1.500			
0.6214	39767.69	3.7210	3.7210	2.2058	26.18	0.24	1.500			
0.6280	40191.14	3.7180	3.7180	2.2479	26.17	0.23	1.500			
0.6348	40628.34	3.7150	3.7151	2.3197	26.15	0.21	1.500			
0.6419	41083.03	3.7120	3.7120	2.3685	26.14	0.20	1.500			
0.6491	41541.93	3.7090	3.7090	2.4056	26.13	0.19	1.500			
0.6564	42009.57	3.7060	3.7059	2.4347	26.12	0.18	1.500			
0.6638	42483.12	3.7030	3.7030	2.3750	26.11	0.17	1.500			
0.6710	42941.11	3.7000	3.7000	2.2947	26.10	0.16	1.500			
0.6777	43370.60	3.6970	3.6970	2.1512	26.09	0.15	1.500			
0.6839	43771.81	3.6940	3.6940	2.0007	26.08	0.14	1.500			
0.6896	44136.90	3.6910	3.6911	1.8526	26.07	0.13	1.500			
0.6950	44479.65	3.6880	3.6879	1.7249	26.06	0.12	1.500			
0.6999	44790.94	3.6850	3.6850	1.6095	26.06	0.12	1.500			
0.7045	45087.78	3.6820	3.6820	1.5163	26.05	0.11	1.500			
0.7089	45366.66	3.6790	3.6790	1.4416	26.05	0.11	1.500			
0.7130	45633.84	3.6760	3.6760	1.3815	26.04	0.10	1.500			
0.7171	45891.35	3.6730	3.6730	1.3306	26.04	0.10	1.500			
0.7209	46135.68	3.6700	3.6701	1.3015	26.03	0.09	1.500			
0.7247	46379.58	3.6670	3.6670	1.2808	26.03	0.09	1.500			
0.7285	46622.82	3.6640	3.6639	1.2697	26.02	0.08	1.500			
0.7323	46864.08	3.6610	3.6609	1.2660	26.02	0.08	1.500			
0.7360	47106.42	3.6580	3.6581	1.2687	26.01	0.07	1.500			
0.7399	47350.55	3.6550	3.6550	1.2729	26.01	0.07	1.500			
0.7437	47598.47	3.6520	3.6520	1.2715	26.00	0.06	1.500			
0.7475	47839.67	3.6490	3.6490	1.2697	25.99	0.05	1.500			
0.7513	48084.42	3.6460	3.6460	1.2720	25.99	0.05	1.500			
0.7552	48330.66	3.6430	3.6430	1.2680	25.98	0.04	1.500			
0.7590	48573.09	3.6400	3.6400	1.2614	25.98	0.04	1.500			
0.7627	48815.08	3.6370	3.6371	1.2541	25.97	0.03	1.500			
0.7665	49055.24	3.6340	3.6340	1.2484	25.96	0.02	1.500			
0.7702	49294.16	3.6310	3.6309	1.2459	25.96	0.02	1.500			
0.7739	49529.50	3.6280	3.6281	1.2346	25.95	0.01	1.500			
0.7776	49766.93	3.6250	3.6250	1.2365	25.95	0.01	1.500			
0.7814	50006.76	3.6220	3.6220	1.2329	25.94	-0.00	1.500			
0.7850	50242.45	3.6190	3.6191	1.2234	25.94	-0.00	1.500			
0.7887	50478.10	3.6160	3.6160	1.2124	25.93	-0.01	1.500			
0.7923	50709.97	3.6130	3.6129	1.1960	25.93	-0.01	1.500			
0.7959	50937.99	3.6100	3.6100	1.1770	25.93	-0.01	1.500			
0.7994	51161.09	3.6070	3.6070	1.1605	25.93	-0.01	1.500			
0.8029	51383.03	3.6040	3.6040	1.1413	25.92	-0.02	1.500			
0.8063	51600.74	3.6010	3.6010	1.1254	25.92	-0.02	1.500			
0.8096	51815.02	3.5980	3.5980	1.1059	25.92	-0.02	1.500			
0.8129	52026.10	3.5950	3.5950	1.0886	25.93	-0.01	1.500			
0.8162	52234.16	3.5920	3.5919	1.0666	25.93	-0.01	1.500			
0.8194	52438.81	3.5890	3.5890	1.0358	25.93	-0.01	1.500			
0.8225	52638.27	3.5860	3.5859	0.9915	25.93	-0.01	1.500			
0.8255	52830.69	3.5830	3.5830	0.9280	25.94	-0.00	1.500			
0.8283	53008.24	3.5800	3.5801	0.8522	25.94	-0.00	1.500			
0.8307	53166.08	3.5770	3.5770	0.7543	25.94	-0.00	1.500			
0.8328	53302.37	3.5740	3.5740	0.6522	25.94	0.00	1.500			
0.8346	53413.94	3.5710	3.5711	0.5564	25.94	0.00	1.500			
0.8360	53504.76	3.5680	3.5681	0.4669	25.94	0.00	1.500			
0.8372	53583.76	3.5650	3.5649	0.3864	25.94	0.00	1.500			
0.8383	53648.83	3.5620	3.5619	0.3316	25.95	0.01	1.500			
0.8391	53702.16	3.5590	3.5590	0.2837	25.95	0.01	1.500			
0.8398	53750.26	3.5560	3.5560	0.2505	25.95	0.01	1.500			
0.8405	53793.18	3.5530	3.5530	0.2196	25.95	0.01	1.500			
0.8411	53832.05	3.5500	3.5499	0.1981	25.95	0.01	1.500			
0.8417	53867.26	3.5470	3.5470	0.1793	25.95	0.01	1.500			
0.8422	53899.46	3.5440	3.5440	0.1612	25.95	0.01	1.500			
0.8426	53928.66	3.5410	3.5410	0.1469	25.95	0.01	1.500			
0.8430	53955.19	3.5380	3.5380	0.1319	25.95	0.01	1.500			
0.8434	53978.90	3.5350	3.5349	0.1174	25.95	0.01	1.500			
0.8438	54000.01	3.5320	3.5321	0.1032	25.95	0.01	1.500			
0.8440	54018.52	3.5290	3.5291	0.0895	25.95	0.01	1.500			
0.8443	54034.57	3.5260	3.5261	0.0758	25.95	0.01	1.500			
0.8445	54048.16	3.5230	3.5232	0.0616	25.95	0.01	1.500			
0.8447	54058.55	3.5200	3.5206	0.0467	25.95	0.01	1.500			
0.8448	54066.10	3.5170	3.5178	0.0319	25.95	0.01	1.500			
