Ah_balance (normalized)	Ah_balance (mAh)	Voltage - fit (V)	Voltage -  interpolate (V)	dQ/dV (1/V)	Temperature (°C)	Temperature - diff (°C)	Current (C)	R_DC 0ms (mOhm)	R_DC 50ms (mOhm)	R_DC 50 ms PEC (mOhm)
0.2849	18236.54	3.9880	3.9880	0.8291	27.07	1.11	1.500			
0.2874	18396.00	3.9850	3.9850	0.8353	27.07	1.11	1.500			
0.2900	18558.44	3.9820	3.9820	0.8439	27.06	1.10	1.500			
0.2925	18721.41	3.9790	3.9790	0.8465	27.06	1.10	1.500			
0.2951	18885.46	3.9760	3.9759	0.8493	27.05	1.09	1.500			
0.2976	19047.77	3.9730	3.9731	0.8518	27.05	1.09	1.500			
0.3002	19210.57	3.9700	3.9700	0.8542	27.04	1.08	1.500			
0.3027	19375.92	3.9670	3.9670	0.8564	27.04	1.08	1.500			
0.3053	19539.24	3.9640	3.9640	0.8604	27.03	1.07	1.500			
0.3079	19705.22	3.9610	3.9610	0.8670	27.03	1.07	1.500			
0.3105	19872.84	3.9580	3.9580	0.8738	27.02	1.06	1.500			
0.3131	20041.33	3.9550	3.9550	0.8764	27.02	1.06	1.500			
0.3158	20209.54	3.9520	3.9520	0.8777	27.01	1.05	1.500			
0.3184	20379.39	3.9490	3.9490	0.8809	27.00	1.04	1.500			
0.3211	20549.65	3.9460	3.9461	0.8839	27.00	1.04	1.500			
0.3237	20717.75	3.9430	3.9430	0.8833	26.99	1.03	1.500			
0.3264	20888.56	3.9400	3.9400	0.8850	26.98	1.02	1.500			
0.3290	21057.61	3.9370	3.9370	0.8914	26.98	1.02	1.500			
0.3317	21228.39	3.9340	3.9340	0.8988	26.97	1.01	1.500			
0.3344	21401.14	3.9310	3.9311	0.9079	26.97	1.01	1.500			
0.3371	21576.49	3.9280	3.9279	0.9171	26.96	1.00	1.500			
0.3399	21753.94	3.9250	3.9250	0.9218	26.95	0.99	1.500			
0.3427	21932.30	3.9220	3.9220	0.9267	26.95	0.99	1.500			
0.3455	22111.81	3.9190	3.9190	0.9278	26.94	0.98	1.500			
0.3483	22288.81	3.9160	3.9160	0.9295	26.93	0.97	1.500			
0.3511	22467.59	3.9130	3.9130	0.9321	26.93	0.97	1.500			
0.3538	22645.38	3.9100	3.9100	0.9391	26.92	0.96	1.500			
0.3567	22826.01	3.9070	3.9070	0.9467	26.91	0.95	1.500			
0.3595	23008.46	3.9040	3.9040	0.9574	26.91	0.95	1.500			
0.3624	23193.24	3.9010	3.9009	0.9670	26.90	0.94	1.500			
0.3653	23379.81	3.8980	3.8981	0.9791	26.89	0.93	1.500			
0.3683	23568.15	3.8950	3.8950	0.9882	26.89	0.93	1.500			
0.3713	23760.72	3.8920	3.8920	0.9958	26.88	0.92	1.500			
0.3743	23953.02	3.8890	3.8890	0.9997	26.88	0.92	1.500			
0.3773	24145.88	3.8860	3.8861	1.0060	26.87	0.91	1.500			
0.3803	24337.22	3.8830	3.8830	1.0184	26.86	0.90	1.500			
0.3833	24532.50	3.8800	3.8800	1.0287	26.86	0.90	1.500			
0.3864	24730.92	3.8770	3.8769	1.0365	26.85	0.89	1.500			
0.3895	24930.61	3.8740	3.8741	1.0531	26.84	0.88	1.500			
0.3927	25135.12	3.8710	3.8711	1.0689	26.83	0.87	1.500			
0.3960	25342.57	3.8680	3.8678	1.0817	26.82	0.86	1.500			
0.3992	25550.48	3.8650	3.8650	1.0881	26.82	0.86	1.500			
0.4025	25759.65	3.8620	3.8620	1.1003	26.81	0.85	1.500			
0.4058	25973.21	3.8590	3.8590	1.1165	26.80	0.84	1.500			
0.4092	26189.14	3.8560	3.8560	1.1308	26.79	0.83	1.500			
0.4126	26404.87	3.8530	3.8529	1.1428	26.78	0.82	1.500			
0.4160	26626.03	3.8500	3.8500	1.1624	26.77	0.81	1.500			
0.4195	26850.44	3.8470	3.8470	1.1861	26.76	0.80	1.500			
0.4232	27081.85	3.8440	3.8440	1.2012	26.75	0.79	1.500			
0.4268	27313.88	3.8410	3.8410	1.2236	26.74	0.78	1.500			
0.4305	27550.47	3.8380	3.8380	1.2437	26.73	0.77	1.500			
0.4342	27791.58	3.8350	3.8350	1.2628	26.72	0.76	1.500			
0.4380	28034.46	3.8320	3.8321	1.2884	26.71	0.75	1.500			
0.4419	28284.44	3.8290	3.8290	1.3094	26.70	0.74	1.500			
0.4459	28538.21	3.8260	3.8260	1.3267	26.68	0.72	1.500			
0.4499	28796.18	3.8230	3.8230	1.3552	26.67	0.71	1.500			
0.4540	29056.96	3.8200	3.8201	1.3774	26.66	0.70	1.500			
0.4582	29322.54	3.8170	3.8170	1.4092	26.65	0.69	1.500			
0.4624	29595.70	3.8140	3.8140	1.4346	26.64	0.68	1.500			
0.4668	29872.75	3.8110	3.8110	1.4627	26.63	0.67	1.500			
0.4712	30158.42	3.8080	3.8080	1.4966	26.61	0.65	1.500			
0.4758	30448.52	3.8050	3.8050	1.5249	26.60	0.64	1.500			
0.4804	30743.29	3.8020	3.8020	1.5567	26.59	0.63	1.500			
0.4851	31045.96	3.7990	3.7990	1.5821	26.57	0.61	1.500			
0.4899	31351.99	3.7960	3.7960	1.6175	26.56	0.60	1.500			
0.4949	31671.48	3.7930	3.7930	1.6382	26.55	0.59	1.500			
0.4998	31987.10	3.7900	3.7900	1.6603	26.53	0.57	1.500			
0.5048	32307.82	3.7870	3.7871	1.6809	26.52	0.56	1.500			
0.5098	32629.55	3.7840	3.7840	1.7170	26.51	0.55	1.500			
0.5150	32961.89	3.7810	3.7811	1.7495	26.49	0.53	1.500			
0.5204	33304.08	3.7780	3.7781	1.7536	26.47	0.51	1.500	0.346	0.468	
0.5257	33646.81	3.7750	3.7751	1.7809	26.46	0.50	1.500			
0.5310	33984.71	3.7720	3.7721	1.7645	26.44	0.48	1.500			
0.5363	34325.35	3.7690	3.7688	1.7729	26.42	0.46	1.500			
0.5416	34662.82	3.7660	3.7660	1.7688	26.41	0.45	1.500			
0.5470	35005.46	3.7630	3.7630	1.7732	26.40	0.44	1.500			
0.5522	35343.46	3.7600	3.7600	1.7641	26.38	0.42	1.500			
0.5575	35680.94	3.7570	3.7571	1.7641	26.37	0.41	1.500			
0.5628	36020.61	3.7540	3.7540	1.7741	26.36	0.40	1.500			
0.5681	36360.82	3.7510	3.7510	1.7887	26.34	0.38	1.500			
0.5736	36707.42	3.7480	3.7480	1.7840	26.33	0.37	1.500			
0.5790	37052.89	3.7450	3.7451	1.8146	26.32	0.36	1.500			
0.5844	37400.38	3.7420	3.7420	1.8355	26.31	0.35	1.500			
0.5899	37755.84	3.7390	3.7391	1.8640	26.29	0.33	1.500			
0.5955	38113.86	3.7360	3.7360	1.9101	26.28	0.32	1.500			
0.6014	38486.45	3.7330	3.7330	1.9706	26.26	0.30	1.500			
0.6073	38866.90	3.7300	3.7300	2.0177	26.25	0.29	1.500			
0.6135	39264.45	3.7270	3.7270	2.0735	26.24	0.28	1.500			
0.6199	39671.11	3.7240	3.7240	2.1110	26.22	0.26	1.500			
0.6262	40076.13	3.7210	3.7210	2.1703	26.21	0.25	1.500			
0.6327	40495.32	3.7180	3.7181	2.2477	26.19	0.23	1.500			
0.6396	40932.76	3.7150	3.7151	2.3298	26.18	0.22	1.500			
0.6467	41391.60	3.7120	3.7120	2.3783	26.16	0.20	1.500			
0.6539	41850.88	3.7090	3.7090	2.4083	26.15	0.19	1.500			
0.6613	42320.88	3.7060	3.7058	2.4172	26.14	0.18	1.500			
0.6686	42793.26	3.7030	3.7031	2.3751	26.13	0.17	1.500			
0.6757	43247.86	3.7000	3.7000	2.2836	26.12	0.16	1.500			
0.6824	43675.38	3.6970	3.6971	2.1130	26.11	0.15	1.500			
0.6886	44067.89	3.6940	3.6940	1.9710	26.10	0.14	1.500			
0.6942	44426.53	3.6910	3.6910	1.8140	26.09	0.13	1.500			
0.6994	44758.90	3.6880	3.6880	1.6885	26.08	0.12	1.500			
0.7042	45068.62	3.6850	3.6850	1.5852	26.07	0.11	1.500			
0.7087	45357.90	3.6820	3.6820	1.4962	26.06	0.10	1.500			
0.7130	45633.81	3.6790	3.6790	1.4227	26.06	0.10	1.500			
0.7172	45898.13	3.6760	3.6760	1.3720	26.05	0.09	1.500			
0.7211	46152.87	3.6730	3.6730	1.3270	26.04	0.08	1.500			
0.7250	46400.49	3.6700	3.6700	1.2976	26.04	0.08	1.500			
0.7288	46643.97	3.6670	3.6670	1.2758	26.03	0.07	1.500			
0.7326	46885.52	3.6640	3.6640	1.2636	26.03	0.07	1.500			
0.7363	47126.11	3.6610	3.6608	1.2596	26.02	0.06	1.500			
0.7401	47366.18	3.6580	3.6581	1.2657	26.01	0.05	1.500			
0.7439	47609.61	3.6550	3.6549	1.2740	26.01	0.05	1.500			
0.7478	47857.42	3.6520	3.6519	1.2771	26.00	0.04	1.500			
0.7516	48104.23	3.6490	3.6491	1.2793	26.00	0.04	1.500			
0.7555	48351.07	3.6460	3.6460	1.2740	25.99	0.03	1.500			
0.7593	48595.66	3.6430	3.6431	1.2709	25.98	0.02	1.500			
0.7631	48837.09	3.6400	3.6400	1.2647	25.98	0.02	1.500			
0.7669	49078.41	3.6370	3.6370	1.2563	25.97	0.01	1.500			
0.7706	49319.57	3.6340	3.6340	1.2528	25.97	0.01	1.500			
0.7744	49561.68	3.6310	3.6310	1.2405	25.96	-0.00	1.500			
0.7781	49799.72	3.6280	3.6280	1.2357	25.95	-0.01	1.500			
0.7818	50035.81	3.6250	3.6251	1.2325	25.95	-0.01	1.500			
0.7855	50270.25	3.6220	3.6219	1.2216	25.94	-0.02	1.500			
0.7891	50505.23	3.6190	3.6190	1.2120	25.94	-0.02	1.500			
0.7928	50738.49	3.6160	3.6160	1.2017	25.94	-0.02	1.500			
0.7964	50968.75	3.6130	3.6130	1.1844	25.94	-0.02	1.500			
0.8000	51199.44	3.6100	3.6099	1.1656	25.93	-0.03	1.500			
0.8034	51417.88	3.6070	3.6071	1.1417	25.93	-0.03	1.500			
0.8068	51634.04	3.6040	3.6041	1.1202	25.93	-0.03	1.500			
0.8101	51846.83	3.6010	3.6010	1.1035	25.93	-0.03	1.500			
0.8134	52057.94	3.5980	3.5980	1.0813	25.93	-0.03	1.500			
0.8166	52262.76	3.5950	3.5950	1.0627	25.94	-0.02	1.500			
0.8198	52466.44	3.5920	3.5920	1.0381	25.94	-0.02	1.500			
0.8229	52668.35	3.5890	3.5889	1.0065	25.94	-0.02	1.500			
0.8260	52861.98	3.5860	3.5859	0.9539	25.95	-0.01	1.500			
0.8288	53043.79	3.5830	3.5831	0.8895	25.95	-0.01	1.500			
0.8315	53213.82	3.5800	3.5800	0.8074	25.95	-0.01	1.500			
0.8338	53362.48	3.5770	3.5770	0.7131	25.96	-0.00	1.500			
0.8357	53487.70	3.5740	3.5740	0.6118	25.96	-0.00	1.500			
0.8374	53594.25	3.5710	3.5710	0.5171	25.96	0.00	1.500			
0.8388	53680.90	3.5680	3.5680	0.4329	25.96	0.00	1.500			
0.8399	53751.84	3.5650	3.5650	0.3663	25.96	0.00	1.500			
0.8408	53811.39	3.5620	3.5621	0.3110	25.96	0.00	1.500			
0.8416	53864.34	3.5590	3.5589	0.2718	25.97	0.01	1.500			
0.8423	53909.92	3.5560	3.5560	0.2347	25.97	0.01	1.500			
0.8430	53951.22	3.5530	3.5530	0.2103	25.97	0.01	1.500			
0.8436	53987.86	3.5500	3.5501	0.1898	25.97	0.01	1.500			
0.8441	54021.92	3.5470	3.5470	0.1700	25.97	0.01	1.500			
0.8446	54052.56	3.5440	3.5440	0.1547	25.97	0.01	1.500			
0.8450	54080.10	3.5410	3.5409	0.1384	25.97	0.01	1.500			
0.8454	54105.06	3.5380	3.5380	0.1231	25.97	0.01	1.500			
0.8457	54127.52	3.5350	3.5351	0.1095	25.97	0.01	1.500			
0.8460	54147.16	3.5320	3.5321	0.0950	25.97	0.01	1.500			
0.8463	54164.36	3.5290	3.5291	0.0807	25.97	0.01	1.500			
0.8465	54178.37	3.5260	3.5263	0.0657	25.97	0.01	1.500			
0.8467	54189.54	3.5230	3.5235	0.0507	25.97	0.01	1.500			
0.8468	54197.84	3.5200	3.5209	0.0358	25.97	0.01	1.500			
