Ah_balance (normalized)	Ah_balance (mAh)	Voltage - fit (V)	Voltage -  interpolate (V)	dQ/dV (1/V)	Temperature (°C)	Temperature - diff (°C)	Current (C)	R_DC 0ms (mOhm)	R_DC 50ms (mOhm)	R_DC 50 ms PEC (mOhm)
0.2806	17957.84	3.9710	3.9710	0.8724	27.11	1.15	1.500			
0.2832	18127.08	3.9680	3.9680	0.8829	27.11	1.15	1.500			
0.2859	18296.42	3.9650	3.9650	0.8886	27.10	1.14	1.500			
0.2886	18468.48	3.9620	3.9620	0.8909	27.10	1.14	1.500			
0.2913	18640.52	3.9590	3.9590	0.8916	27.10	1.14	1.500			
0.2940	18812.89	3.9560	3.9560	0.8942	27.09	1.13	1.500			
0.2966	18984.18	3.9530	3.9530	0.8953	27.09	1.13	1.500			
0.2993	19155.03	3.9500	3.9501	0.9001	27.09	1.13	1.500			
0.3020	19328.06	3.9470	3.9469	0.9025	27.08	1.12	1.500			
0.3047	19500.72	3.9440	3.9441	0.9072	27.08	1.12	1.500			
0.3075	19676.93	3.9410	3.9410	0.9115	27.08	1.12	1.500			
0.3102	19852.18	3.9380	3.9380	0.9138	27.07	1.11	1.500			
0.3129	20027.07	3.9350	3.9350	0.9213	27.07	1.11	1.500			
0.3157	20204.31	3.9320	3.9320	0.9270	27.07	1.11	1.500			
0.3185	20381.56	3.9290	3.9290	0.9355	27.06	1.10	1.500			
0.3213	20563.82	3.9260	3.9260	0.9436	27.06	1.10	1.500			
0.3242	20746.23	3.9230	3.9230	0.9508	27.06	1.10	1.500			
0.3270	20930.94	3.9200	3.9200	0.9558	27.05	1.09	1.500			
0.3299	21114.42	3.9170	3.9170	0.9609	27.05	1.09	1.500			
0.3328	21298.81	3.9140	3.9140	0.9619	27.05	1.09	1.500			
0.3357	21483.84	3.9110	3.9110	0.9687	27.04	1.08	1.500			
0.3386	21669.14	3.9080	3.9080	0.9746	27.04	1.08	1.500			
0.3415	21857.60	3.9050	3.9050	0.9863	27.04	1.08	1.500			
0.3445	22047.33	3.9020	3.9021	0.9914	27.03	1.07	1.500			
0.3475	22239.84	3.8990	3.8990	0.9974	27.03	1.07	1.500			
0.3505	22431.26	3.8960	3.8961	1.0022	27.02	1.06	1.500			
0.3535	22624.10	3.8930	3.8930	1.0109	27.02	1.06	1.500			
0.3565	22816.56	3.8900	3.8900	1.0225	27.01	1.05	1.500			
0.3596	23013.87	3.8870	3.8870	1.0324	27.01	1.05	1.500			
0.3627	23213.71	3.8840	3.8840	1.0442	27.00	1.04	1.500			
0.3659	23416.79	3.8810	3.8810	1.0638	27.00	1.04	1.500			
0.3691	23623.61	3.8780	3.8781	1.0737	26.99	1.03	1.500			
0.3724	23830.87	3.8750	3.8750	1.0830	26.99	1.03	1.500			
0.3756	24039.41	3.8720	3.8721	1.0917	26.98	1.02	1.500			
0.3789	24247.91	3.8690	3.8690	1.0969	26.98	1.02	1.500			
0.3822	24459.37	3.8660	3.8660	1.1142	26.97	1.01	1.500			
0.3855	24673.82	3.8630	3.8630	1.1261	26.96	1.00	1.500			
0.3889	24888.10	3.8600	3.8600	1.1484	26.96	1.00	1.500			
0.3924	25114.05	3.8570	3.8570	1.1680	26.95	0.99	1.500			
0.3959	25340.47	3.8540	3.8539	1.1837	26.94	0.98	1.500			
0.3995	25569.07	3.8510	3.8511	1.2052	26.93	0.97	1.500			
0.4032	25803.33	3.8480	3.8480	1.2221	26.93	0.97	1.500			
0.4068	26037.29	3.8450	3.8449	1.2380	26.92	0.96	1.500			
0.4106	26277.59	3.8420	3.8419	1.2580	26.91	0.95	1.500			
0.4143	26517.69	3.8390	3.8391	1.2719	26.90	0.94	1.500			
0.4182	26766.77	3.8360	3.8359	1.2980	26.90	0.94	1.500			
0.4222	27017.87	3.8330	3.8331	1.3177	26.89	0.93	1.500			
0.4261	27270.61	3.8300	3.8300	1.3432	26.88	0.92	1.500			
0.4302	27530.77	3.8270	3.8270	1.3755	26.87	0.91	1.500			
0.4343	27797.28	3.8240	3.8239	1.4046	26.86	0.90	1.500			
0.4386	28067.49	3.8210	3.8210	1.4444	26.86	0.90	1.500			
0.4429	28347.86	3.8180	3.8182	1.4885	26.85	0.89	1.500			
0.4475	28640.09	3.8150	3.8149	1.5250	26.84	0.88	1.500			
0.4522	28938.18	3.8120	3.8119	1.5538	26.83	0.87	1.500			
0.4568	29237.62	3.8090	3.8091	1.5800	26.82	0.86	1.500			
0.4616	29543.23	3.8060	3.8061	1.6177	26.80	0.84	1.500			
0.4665	29857.61	3.8030	3.8029	1.6590	26.79	0.83	1.500			
0.4715	30174.39	3.8000	3.7998	1.6898	26.78	0.82	1.500			
0.4766	30503.75	3.7970	3.7971	1.7399	26.77	0.81	1.500			
0.4820	30846.03	3.7940	3.7941	1.7935	26.76	0.80	1.500			
0.4874	31195.87	3.7910	3.7910	1.8338	26.74	0.78	1.500			
0.4929	31547.38	3.7880	3.7880	1.8948	26.73	0.77	1.500			
0.4987	31916.63	3.7850	3.7850	1.9544	26.71	0.75	1.500			
0.5047	32303.59	3.7820	3.7820	1.9891	26.69	0.73	1.500			
0.5107	32686.89	3.7790	3.7791	2.0459	26.67	0.71	1.500			
0.5169	33080.49	3.7760	3.7760	2.0867	26.65	0.69	1.500			
0.5232	33483.53	3.7730	3.7729	2.1513	26.63	0.67	1.500			
0.5299	33911.00	3.7700	3.7700	2.1660	26.61	0.65	1.500			
0.5364	34327.75	3.7670	3.7671	2.2397	26.59	0.63	1.500			
0.5430	34751.58	3.7640	3.7640	2.2803	26.57	0.61	1.500			
0.5500	35199.25	3.7610	3.7609	2.2962	26.55	0.59	1.500	0.359	0.450	
0.5571	35654.97	3.7580	3.7581	2.3149	26.53	0.57	1.500			
0.5640	36096.68	3.7550	3.7550	2.2551	26.50	0.54	1.500			
0.5704	36505.12	3.7520	3.7519	2.1903	26.48	0.52	1.500			
0.5769	36923.02	3.7490	3.7491	2.1759	26.47	0.51	1.500			
0.5835	37344.83	3.7460	3.7461	2.1705	26.45	0.49	1.500			
0.5901	37765.06	3.7430	3.7430	2.1596	26.44	0.48	1.500			
0.5964	38169.84	3.7400	3.7400	2.1359	26.42	0.46	1.500			
0.6028	38581.03	3.7370	3.7370	2.1316	26.40	0.44	1.500			
0.6092	38987.03	3.7340	3.7340	2.1388	26.38	0.42	1.500			
0.6155	39394.10	3.7310	3.7310	2.1464	26.36	0.40	1.500			
0.6220	39808.18	3.7280	3.7279	2.1710	26.34	0.38	1.500			
0.6286	40228.97	3.7250	3.7250	2.1951	26.32	0.36	1.500			
0.6352	40655.29	3.7220	3.7220	2.2504	26.31	0.35	1.500			
0.6420	41089.92	3.7190	3.7190	2.3051	26.29	0.33	1.500			
0.6490	41536.18	3.7160	3.7161	2.3946	26.27	0.31	1.500			
0.6563	42003.85	3.7130	3.7130	2.4581	26.25	0.29	1.500			
0.6638	42482.43	3.7100	3.7100	2.5408	26.23	0.27	1.500			
0.6715	42977.12	3.7070	3.7068	2.6459	26.21	0.25	1.500			
0.6796	43494.43	3.7040	3.7040	2.7290	26.19	0.23	1.500			
0.6879	44025.56	3.7010	3.7011	2.8277	26.18	0.22	1.500			
0.6967	44588.91	3.6980	3.6979	2.8492	26.16	0.20	1.500			
0.7053	45137.33	3.6950	3.6951	2.7895	26.15	0.19	1.500			
0.7136	45667.26	3.6920	3.6920	2.7029	26.13	0.17	1.500			
0.7216	46181.81	3.6890	3.6888	2.5195	26.12	0.16	1.500			
0.7290	46655.08	3.6860	3.6861	2.3366	26.11	0.15	1.500			
0.7357	47081.83	3.6830	3.6830	2.1265	26.10	0.14	1.500			
0.7415	47454.97	3.6800	3.6800	1.8990	26.09	0.13	1.500			
0.7469	47803.24	3.6770	3.6770	1.7681	26.08	0.12	1.500			
0.7519	48122.72	3.6740	3.6740	1.6417	26.07	0.11	1.500			
0.7567	48426.57	3.6710	3.6709	1.5447	26.06	0.10	1.500			
0.7611	48711.25	3.6680	3.6680	1.4557	26.06	0.10	1.500			
0.7653	48979.52	3.6650	3.6651	1.3873	26.05	0.09	1.500			
0.7693	49237.45	3.6620	3.6619	1.3253	26.04	0.08	1.500			
0.7732	49482.07	3.6590	3.6590	1.2833	26.04	0.08	1.500			
0.7768	49718.17	3.6560	3.6560	1.2474	26.03	0.07	1.500			
0.7805	49953.45	3.6530	3.6530	1.2428	26.03	0.07	1.500			
0.7842	50190.34	3.6500	3.6499	1.2344	26.02	0.06	1.500			
0.7879	50425.75	3.6470	3.6470	1.2475	26.02	0.06	1.500			
0.7917	50665.69	3.6440	3.6441	1.2587	26.02	0.06	1.500			
0.7954	50907.98	3.6410	3.6409	1.2806	26.01	0.05	1.500			
0.7993	51155.49	3.6380	3.6381	1.2967	26.00	0.04	1.500			
0.8032	51406.12	3.6350	3.6350	1.3125	26.00	0.04	1.500			
0.8072	51662.04	3.6320	3.6320	1.3186	25.99	0.03	1.500			
0.8113	51920.29	3.6290	3.6290	1.3214	25.98	0.02	1.500			
0.8152	52175.69	3.6260	3.6261	1.3218	25.97	0.01	1.500			
0.8192	52429.30	3.6230	3.6231	1.3175	25.96	0.00	1.500			
0.8231	52679.34	3.6200	3.6200	1.3098	25.96	-0.00	1.500			
0.8270	52929.64	3.6170	3.6170	1.3064	25.96	-0.00	1.500			
0.8309	53179.64	3.6140	3.6140	1.3039	25.95	-0.01	1.500			
0.8349	53433.63	3.6110	3.6110	1.3072	25.95	-0.01	1.500			
0.8388	53682.12	3.6080	3.6080	1.3022	25.95	-0.01	1.500			
0.8427	53932.47	3.6050	3.6050	1.2944	25.94	-0.02	1.500			
0.8466	54181.09	3.6020	3.6018	1.2866	25.94	-0.02	1.500			
0.8504	54427.93	3.5990	3.5990	1.2762	25.94	-0.02	1.500			
0.8543	54672.62	3.5960	3.5960	1.2654	25.93	-0.03	1.500			
0.8581	54917.54	3.5930	3.5929	1.2445	25.93	-0.03	1.500			
0.8617	55151.18	3.5900	3.5901	1.2305	25.93	-0.03	1.500			
0.8654	55386.18	3.5870	3.5870	1.2163	25.92	-0.04	1.500			
0.8690	55617.40	3.5840	3.5840	1.2172	25.92	-0.04	1.500			
0.8726	55848.38	3.5810	3.5810	1.2145	25.92	-0.04	1.500			
0.8763	56081.26	3.5780	3.5780	1.2173	25.93	-0.03	1.500			
0.8800	56318.49	3.5750	3.5750	1.2119	25.93	-0.03	1.500			
0.8838	56561.34	3.5720	3.5719	1.1619	25.94	-0.02	1.500			
0.8873	56788.80	3.5690	3.5690	1.0846	25.95	-0.01	1.500			
0.8907	57006.50	3.5660	3.5661	0.9787	25.95	-0.01	1.500			
0.8935	57184.02	3.5630	3.5631	0.8308	25.96	-0.00	1.500			
0.8958	57328.01	3.5600	3.5600	0.6891	25.96	-0.00	1.500			
0.8975	57439.02	3.5570	3.5570	0.5538	25.96	0.00	1.500			
0.8988	57521.16	3.5540	3.5539	0.4418	25.96	0.00	1.500			
0.8999	57591.26	3.5510	3.5509	0.3655	25.97	0.01	1.500			
0.9008	57649.37	3.5480	3.5479	0.2971	25.97	0.01	1.500			
0.9015	57698.86	3.5450	3.5448	0.2562	25.97	0.01	1.500			
0.9022	57740.20	3.5420	3.5420	0.2221	25.97	0.01	1.500			
0.9028	57778.31	3.5390	3.5390	0.1972	25.97	0.01	1.500			
0.9033	57813.28	3.5360	3.5360	0.1744	25.97	0.01	1.500			
0.9038	57843.82	3.5330	3.5328	0.1559	25.97	0.01	1.500			
0.9042	57871.00	3.5300	3.5300	0.1385	25.97	0.01	1.500			
0.9046	57895.94	3.5270	3.5269	0.1226	25.97	0.01	1.500			
0.9050	57918.03	3.5240	3.5241	0.1075	25.97	0.01	1.500			
0.9053	57937.22	3.5210	3.5210	0.0925	25.97	0.01	1.500			
0.9055	57953.30	3.5180	3.5182	0.0776	25.97	0.01	1.500			
0.9057	57966.58	3.5150	3.5155	0.0637	25.97	0.01	1.500			
0.9059	57977.49	3.5120	3.5126	0.0499	25.97	0.01	1.500			
