Ah_balance (normalized)	Ah_balance (mAh)	Voltage - fit (V)	Voltage -  interpolate (V)	dQ/dV (1/V)	Temperature (°C)	Temperature - diff (°C)	Current (C)	R_DC 0ms (mOhm)	R_DC 50ms (mOhm)	R_DC 50 ms PEC (mOhm)
0.2772	17740.66	3.9730	3.9730	0.8617	27.02	1.10	1.500			
0.2798	17906.88	3.9700	3.9700	0.8686	27.02	1.10	1.500			
0.2824	18073.70	3.9670	3.9672	0.8758	27.01	1.09	1.500			
0.2851	18243.43	3.9640	3.9639	0.8811	27.01	1.09	1.500			
0.2877	18413.24	3.9610	3.9610	0.8822	27.01	1.09	1.500			
0.2904	18583.67	3.9580	3.9580	0.8888	27.00	1.08	1.500			
0.2930	18754.48	3.9550	3.9551	0.8897	27.00	1.08	1.500			
0.2957	18925.48	3.9520	3.9519	0.8892	27.00	1.08	1.500			
0.2984	19096.06	3.9490	3.9490	0.8947	26.99	1.07	1.500			
0.3011	19267.41	3.9460	3.9461	0.8980	26.99	1.07	1.500			
0.3038	19441.68	3.9430	3.9429	0.9046	26.99	1.07	1.500			
0.3065	19615.47	3.9400	3.9400	0.9068	26.98	1.06	1.500			
0.3092	19788.46	3.9370	3.9371	0.9096	26.98	1.06	1.500			
0.3119	19963.19	3.9340	3.9341	0.9182	26.97	1.05	1.500			
0.3147	20139.90	3.9310	3.9309	0.9264	26.97	1.05	1.500			
0.3175	20319.21	3.9280	3.9280	0.9294	26.96	1.04	1.500			
0.3203	20499.37	3.9250	3.9249	0.9348	26.96	1.04	1.500			
0.3231	20680.68	3.9220	3.9221	0.9393	26.95	1.03	1.500			
0.3259	20859.58	3.9190	3.9190	0.9453	26.95	1.03	1.500			
0.3287	21039.15	3.9160	3.9160	0.9504	26.94	1.02	1.500			
0.3316	21222.82	3.9130	3.9130	0.9556	26.93	1.01	1.500			
0.3345	21406.18	3.9100	3.9099	0.9621	26.93	1.01	1.500			
0.3374	21592.48	3.9070	3.9071	0.9738	26.92	1.00	1.500			
0.3403	21780.72	3.9040	3.9040	0.9815	26.92	1.00	1.500			
0.3433	21969.03	3.9010	3.9010	0.9883	26.91	0.99	1.500			
0.3462	22159.66	3.8980	3.8980	0.9905	26.91	0.99	1.500			
0.3492	22350.76	3.8950	3.8950	0.9955	26.90	0.98	1.500			
0.3522	22542.30	3.8920	3.8920	1.0089	26.89	0.97	1.500			
0.3552	22735.67	3.8890	3.8891	1.0144	26.89	0.97	1.500			
0.3583	22930.07	3.8860	3.8859	1.0257	26.88	0.96	1.500			
0.3614	23128.30	3.8830	3.8830	1.0381	26.87	0.95	1.500			
0.3645	23329.20	3.8800	3.8800	1.0500	26.87	0.95	1.500			
0.3677	23533.56	3.8770	3.8770	1.0620	26.86	0.94	1.500			
0.3709	23737.40	3.8740	3.8740	1.0717	26.85	0.93	1.500			
0.3741	23942.35	3.8710	3.8710	1.0740	26.84	0.92	1.500			
0.3774	24150.55	3.8680	3.8679	1.0889	26.84	0.92	1.500			
0.3806	24358.81	3.8650	3.8651	1.0984	26.83	0.91	1.500			
0.3839	24571.03	3.8620	3.8618	1.1170	26.82	0.90	1.500			
0.3873	24786.73	3.8590	3.8591	1.1344	26.81	0.89	1.500			
0.3907	25006.95	3.8560	3.8559	1.1521	26.80	0.88	1.500			
0.3942	25230.85	3.8530	3.8531	1.1631	26.80	0.88	1.500			
0.3977	25455.05	3.8500	3.8500	1.1780	26.79	0.87	1.500			
0.4013	25682.51	3.8470	3.8471	1.1958	26.78	0.86	1.500			
0.4049	25913.90	3.8440	3.8439	1.2082	26.77	0.85	1.500			
0.4085	26145.23	3.8410	3.8410	1.2294	26.76	0.84	1.500			
0.4122	26382.55	3.8380	3.8381	1.2515	26.75	0.83	1.500			
0.4160	26625.32	3.8350	3.8350	1.2762	26.74	0.82	1.500			
0.4199	26874.85	3.8320	3.8320	1.3030	26.73	0.81	1.500			
0.4238	27124.43	3.8290	3.8291	1.3259	26.72	0.80	1.500			
0.4278	27382.20	3.8260	3.8260	1.3563	26.71	0.79	1.500			
0.4320	27646.20	3.8230	3.8230	1.3866	26.70	0.78	1.500			
0.4362	27914.02	3.8200	3.8200	1.4093	26.69	0.77	1.500			
0.4404	28186.68	3.8170	3.8170	1.4417	26.68	0.76	1.500			
0.4448	28467.14	3.8140	3.8140	1.4671	26.67	0.75	1.500			
0.4492	28750.06	3.8110	3.8110	1.5048	26.65	0.73	1.500			
0.4538	29040.62	3.8080	3.8080	1.5389	26.64	0.72	1.500			
0.4584	29338.99	3.8050	3.8049	1.5861	26.62	0.70	1.500			
0.4632	29647.16	3.8020	3.8021	1.6267	26.61	0.69	1.500			
0.4682	29967.34	3.7990	3.7989	1.6487	26.60	0.68	1.500			
0.4733	30288.84	3.7960	3.7961	1.7006	26.59	0.67	1.500			
0.4784	30614.66	3.7930	3.7930	1.7361	26.57	0.65	1.500			
0.4836	30949.79	3.7900	3.7897	1.7877	26.56	0.64	1.500			
0.4890	31294.25	3.7870	3.7871	1.8336	26.54	0.62	1.500			
0.4946	31657.17	3.7840	3.7840	1.8683	26.53	0.61	1.500			
0.5004	32023.68	3.7810	3.7810	1.9276	26.51	0.59	1.500			
0.5061	32391.09	3.7780	3.7781	1.9482	26.49	0.57	1.500			
0.5120	32769.75	3.7750	3.7750	1.9837	26.47	0.55	1.500			
0.5181	33156.35	3.7720	3.7721	2.0169	26.45	0.53	1.500			
0.5242	33550.25	3.7690	3.7690	2.0431	26.43	0.51	1.500			
0.5303	33941.92	3.7660	3.7659	2.0605	26.41	0.49	1.500			
0.5366	34343.60	3.7630	3.7627	2.0774	26.39	0.47	1.500	0.360	0.453	
0.5429	34744.41	3.7600	3.7600	2.0719	26.38	0.46	1.500			
0.5492	35149.17	3.7570	3.7571	2.0688	26.36	0.44	1.500			
0.5553	35540.11	3.7540	3.7539	2.0248	26.35	0.43	1.500			
0.5613	35925.39	3.7510	3.7511	2.0145	26.33	0.41	1.500			
0.5674	36312.68	3.7480	3.7479	1.9866	26.31	0.39	1.500			
0.5733	36694.40	3.7450	3.7450	2.0048	26.29	0.37	1.500			
0.5793	37077.19	3.7420	3.7421	2.0151	26.27	0.35	1.500			
0.5854	37462.71	3.7390	3.7392	2.0347	26.26	0.34	1.500			
0.5915	37857.09	3.7360	3.7360	2.0261	26.24	0.32	1.500			
0.5976	38244.85	3.7330	3.7330	2.0606	26.23	0.31	1.500			
0.6038	38641.17	3.7300	3.7301	2.0794	26.22	0.30	1.500			
0.6101	39043.85	3.7270	3.7269	2.1232	26.21	0.29	1.500			
0.6165	39454.99	3.7240	3.7241	2.1728	26.20	0.28	1.500			
0.6231	39878.44	3.7210	3.7210	2.2456	26.18	0.26	1.500			
0.6298	40309.28	3.7180	3.7180	2.2912	26.17	0.25	1.500			
0.6368	40757.48	3.7150	3.7150	2.3729	26.16	0.24	1.500			
0.6440	41218.10	3.7120	3.7121	2.4375	26.14	0.22	1.500			
0.6514	41691.27	3.7090	3.7091	2.5296	26.13	0.21	1.500			
0.6592	42186.98	3.7060	3.7057	2.6142	26.12	0.20	1.500			
0.6672	42698.63	3.7030	3.7031	2.6407	26.11	0.19	1.500			
0.6753	43216.81	3.7000	3.7000	2.6830	26.09	0.17	1.500			
0.6834	43736.05	3.6970	3.6968	2.6341	26.08	0.16	1.500			
0.6913	44242.07	3.6940	3.6940	2.5407	26.07	0.15	1.500			
0.6988	44726.24	3.6910	3.6909	2.4093	26.06	0.14	1.500			
0.7057	45165.63	3.6880	3.6880	2.1910	26.05	0.13	1.500			
0.7120	45568.19	3.6850	3.6850	2.0145	26.04	0.12	1.500			
0.7177	45935.95	3.6820	3.6820	1.8488	26.04	0.12	1.500			
0.7229	46264.62	3.6790	3.6790	1.7096	26.03	0.11	1.500			
0.7277	46575.48	3.6760	3.6760	1.6005	26.03	0.11	1.500			
0.7324	46871.54	3.6730	3.6729	1.5182	26.03	0.11	1.500			
0.7368	47153.30	3.6700	3.6700	1.4476	26.03	0.11	1.500			
0.7410	47422.22	3.6670	3.6671	1.3823	26.02	0.10	1.500			
0.7450	47681.49	3.6640	3.6640	1.3310	26.02	0.10	1.500			
0.7489	47927.51	3.6610	3.6609	1.2986	26.01	0.09	1.500			
0.7526	48166.42	3.6580	3.6581	1.2607	26.01	0.09	1.500			
0.7563	48404.86	3.6550	3.6549	1.2565	26.00	0.08	1.500			
0.7600	48641.64	3.6520	3.6520	1.2551	26.00	0.08	1.500			
0.7638	48883.42	3.6490	3.6491	1.2679	26.00	0.08	1.500			
0.7676	49127.68	3.6460	3.6460	1.2811	25.99	0.07	1.500			
0.7715	49376.68	3.6430	3.6430	1.2853	25.99	0.07	1.500			
0.7753	49622.27	3.6400	3.6401	1.2930	25.99	0.07	1.500			
0.7793	49873.24	3.6370	3.6370	1.3056	25.98	0.06	1.500			
0.7832	50124.44	3.6340	3.6339	1.3089	25.98	0.06	1.500			
0.7871	50376.40	3.6310	3.6310	1.3070	25.97	0.05	1.500			
0.7911	50628.12	3.6280	3.6281	1.3076	25.97	0.05	1.500			
0.7950	50882.85	3.6250	3.6251	1.3066	25.96	0.04	1.500			
0.7989	51131.64	3.6220	3.6220	1.3018	25.96	0.04	1.500			
0.8028	51379.97	3.6190	3.6190	1.2984	25.95	0.03	1.500			
0.8067	51627.02	3.6160	3.6161	1.3008	25.94	0.02	1.500			
0.8106	51877.42	3.6130	3.6130	1.3040	25.94	0.02	1.500			
0.8146	52131.83	3.6100	3.6100	1.3057	25.94	0.02	1.500			
0.8185	52382.89	3.6070	3.6071	1.2974	25.93	0.01	1.500			
0.8224	52634.56	3.6040	3.6040	1.2862	25.93	0.01	1.500			
0.8262	52877.70	3.6010	3.6010	1.2708	25.93	0.01	1.500			
0.8300	53119.28	3.5980	3.5980	1.2579	25.92	0.00	1.500			
0.8337	53358.48	3.5950	3.5949	1.2418	25.92	0.00	1.500			
0.8375	53596.81	3.5920	3.5920	1.2290	25.92	0.00	1.500			
0.8411	53831.07	3.5890	3.5891	1.2164	25.92	0.00	1.500			
0.8447	54062.63	3.5860	3.5859	1.2109	25.92	0.00	1.500			
0.8483	54292.99	3.5830	3.5830	1.1977	25.92	0.00	1.500			
0.8519	54523.33	3.5800	3.5799	1.1850	25.92	0.00	1.500			
0.8556	54756.66	3.5770	3.5770	1.1539	25.92	0.00	1.500			
0.8591	54981.49	3.5740	3.5738	1.1009	25.92	0.00	1.500			
0.8625	55200.70	3.5710	3.5711	1.0129	25.92	0.00	1.500			
0.8655	55390.86	3.5680	3.5681	0.8952	25.92	0.00	1.500			
0.8680	55554.61	3.5650	3.5652	0.7682	25.92	0.00	1.500			
0.8701	55686.58	3.5620	3.5620	0.6292	25.92	0.00	1.500			
0.8717	55785.62	3.5590	3.5589	0.5049	25.92	0.00	1.500			
0.8729	55864.79	3.5560	3.5560	0.4152	25.92	0.00	1.500			
0.8739	55929.19	3.5530	3.5531	0.3431	25.92	0.00	1.500			
0.8748	55986.43	3.5500	3.5499	0.2966	25.92	0.00	1.500			
0.8756	56035.61	3.5470	3.5470	0.2535	25.92	0.00	1.500			
0.8762	56079.52	3.5440	3.5440	0.2272	25.92	0.00	1.500			
0.8769	56119.65	3.5410	3.5411	0.2055	25.92	0.00	1.500			
0.8774	56156.43	3.5380	3.5379	0.1845	25.92	0.00	1.500			
0.8780	56189.92	3.5350	3.5350	0.1686	25.92	0.00	1.500			
0.8784	56219.70	3.5320	3.5320	0.1535	25.92	0.00	1.500			
0.8789	56247.39	3.5290	3.5289	0.1388	25.92	0.00	1.500			
0.8793	56272.95	3.5260	3.5260	0.1250	25.92	0.00	1.500			
0.8796	56295.65	3.5230	3.5229	0.1115	25.92	0.00	1.500			
0.8799	56315.78	3.5200	3.5200	0.0981	25.92	0.00	1.500			
0.8802	56333.69	3.5170	3.5172	0.0849	25.92	0.00	1.500			
0.8804	56348.62	3.5140	3.5143	0.0707	25.92	0.00	1.500			
0.8806	56361.52	3.5110	3.5112	0.0544	25.92	0.00	1.500			
0.8808	56370.40	3.5080	3.5087	0.0381	25.92	0.00	1.500			
