Ah_balance (normalized)	Ah_balance (mAh)	Voltage - fit (V)	Voltage -  interpolate (V)	dQ/dV (1/V)	Temperature (°C)	Temperature - diff (°C)	Current (C)	R_DC 0ms (mOhm)	R_DC 50ms (mOhm)	R_DC 50 ms PEC (mOhm)
0.2952	18890.69	3.9730	3.9730	0.8553	27.12	1.20	1.500			
0.2977	19054.59	3.9700	3.9700	0.8587	27.11	1.19	1.500			
0.3003	19221.81	3.9670	3.9670	0.8704	27.11	1.19	1.500			
0.3030	19388.99	3.9640	3.9641	0.8791	27.10	1.18	1.500			
0.3056	19559.43	3.9610	3.9610	0.8865	27.10	1.18	1.500			
0.3083	19730.99	3.9580	3.9579	0.8894	27.09	1.17	1.500			
0.3110	19902.77	3.9550	3.9550	0.8959	27.08	1.16	1.500			
0.3137	20073.91	3.9520	3.9522	0.8974	27.08	1.16	1.500			
0.3164	20247.57	3.9490	3.9489	0.8964	27.07	1.15	1.500			
0.3191	20420.25	3.9460	3.9460	0.8955	27.07	1.15	1.500			
0.3217	20591.35	3.9430	3.9431	0.9000	27.06	1.14	1.500			
0.3244	20764.00	3.9400	3.9399	0.8998	27.06	1.14	1.500			
0.3272	20937.68	3.9370	3.9370	0.9082	27.05	1.13	1.500			
0.3299	21111.47	3.9340	3.9341	0.9120	27.05	1.13	1.500			
0.3326	21286.89	3.9310	3.9309	0.9183	27.04	1.12	1.500			
0.3354	21464.96	3.9280	3.9280	0.9241	27.04	1.12	1.500			
0.3382	21642.71	3.9250	3.9250	0.9286	27.03	1.11	1.500			
0.3409	21820.37	3.9220	3.9219	0.9348	27.03	1.11	1.500			
0.3438	22000.80	3.9190	3.9191	0.9450	27.02	1.10	1.500			
0.3466	22181.96	3.9160	3.9160	0.9498	27.01	1.09	1.500			
0.3495	22366.89	3.9130	3.9129	0.9532	27.01	1.09	1.500			
0.3523	22549.54	3.9100	3.9100	0.9635	27.00	1.08	1.500			
0.3552	22734.98	3.9070	3.9071	0.9704	27.00	1.08	1.500			
0.3582	22921.98	3.9040	3.9038	0.9739	26.99	1.07	1.500			
0.3611	23108.94	3.9010	3.9011	0.9799	26.98	1.06	1.500			
0.3640	23297.80	3.8980	3.8980	0.9909	26.98	1.06	1.500			
0.3670	23489.32	3.8950	3.8950	1.0045	26.97	1.05	1.500			
0.3700	23682.59	3.8920	3.8920	1.0137	26.96	1.04	1.500			
0.3731	23878.68	3.8890	3.8890	1.0190	26.95	1.03	1.500			
0.3762	24078.27	3.8860	3.8860	1.0293	26.95	1.03	1.500			
0.3793	24276.48	3.8830	3.8831	1.0362	26.94	1.02	1.500			
0.3824	24474.02	3.8800	3.8800	1.0483	26.93	1.01	1.500			
0.3856	24675.83	3.8770	3.8770	1.0577	26.92	1.00	1.500			
0.3887	24879.03	3.8740	3.8739	1.0657	26.92	1.00	1.500			
0.3920	25085.42	3.8710	3.8711	1.0776	26.91	0.99	1.500			
0.3952	25295.13	3.8680	3.8681	1.0902	26.90	0.98	1.500			
0.3985	25505.74	3.8650	3.8650	1.1068	26.89	0.97	1.500			
0.4018	25716.47	3.8620	3.8620	1.1169	26.89	0.97	1.500			
0.4052	25931.05	3.8590	3.8590	1.1370	26.88	0.96	1.500			
0.4086	26152.33	3.8560	3.8560	1.1619	26.87	0.95	1.500			
0.4122	26378.82	3.8530	3.8530	1.1765	26.86	0.94	1.500			
0.4158	26608.77	3.8500	3.8500	1.1941	26.85	0.93	1.500			
0.4194	26838.71	3.8470	3.8471	1.2085	26.84	0.92	1.500			
0.4230	27069.79	3.8440	3.8440	1.2294	26.84	0.92	1.500			
0.4267	27307.49	3.8410	3.8410	1.2463	26.83	0.91	1.500			
0.4304	27547.35	3.8380	3.8380	1.2716	26.82	0.90	1.500			
0.4343	27795.01	3.8350	3.8351	1.2948	26.81	0.89	1.500			
0.4382	28046.85	3.8320	3.8321	1.3215	26.80	0.88	1.500			
0.4422	28303.43	3.8290	3.8289	1.3411	26.79	0.87	1.500			
0.4463	28561.85	3.8260	3.8260	1.3607	26.77	0.85	1.500			
0.4503	28821.83	3.8230	3.8230	1.3881	26.76	0.84	1.500			
0.4546	29091.65	3.8200	3.8200	1.4214	26.75	0.83	1.500			
0.4588	29366.24	3.8170	3.8170	1.4516	26.74	0.82	1.500			
0.4633	29649.60	3.8140	3.8140	1.4917	26.72	0.80	1.500			
0.4678	29937.48	3.8110	3.8111	1.5323	26.71	0.79	1.500			
0.4725	30238.02	3.8080	3.8080	1.5759	26.70	0.78	1.500			
0.4773	30544.41	3.8050	3.8049	1.6082	26.68	0.76	1.500			
0.4821	30855.38	3.8020	3.8019	1.6428	26.66	0.74	1.500			
0.4871	31172.70	3.7990	3.7991	1.6904	26.65	0.73	1.500			
0.4922	31501.02	3.7960	3.7960	1.7305	26.63	0.71	1.500			
0.4975	31838.03	3.7930	3.7929	1.7774	26.62	0.70	1.500			
0.5029	32183.49	3.7900	3.7900	1.8164	26.60	0.68	1.500			
0.5084	32537.67	3.7870	3.7869	1.8650	26.58	0.66	1.500			
0.5141	32901.13	3.7840	3.7840	1.9020	26.56	0.64	1.500			
0.5198	33265.57	3.7810	3.7810	1.9325	26.54	0.62	1.500			
0.5257	33642.21	3.7780	3.7781	1.9769	26.52	0.60	1.500			
0.5317	34027.89	3.7750	3.7750	2.0320	26.51	0.59	1.500			
0.5379	34423.92	3.7720	3.7720	2.0576	26.48	0.56	1.500			
0.5441	34821.32	3.7690	3.7690	2.0795	26.46	0.54	1.500			
0.5504	35227.98	3.7660	3.7660	2.1135	26.44	0.52	1.500			
0.5568	35635.05	3.7630	3.7628	2.1160	26.42	0.50	1.500	0.363	0.460	
0.5632	36042.38	3.7600	3.7601	2.1052	26.40	0.48	1.500			
0.5695	36450.20	3.7570	3.7570	2.0933	26.38	0.46	1.500			
0.5757	36844.11	3.7540	3.7541	2.0482	26.36	0.44	1.500			
0.5818	37234.11	3.7510	3.7509	2.0415	26.34	0.42	1.500			
0.5879	37624.39	3.7480	3.7481	2.0361	26.33	0.41	1.500			
0.5940	38013.00	3.7450	3.7450	2.0358	26.31	0.39	1.500			
0.6000	38400.58	3.7420	3.7421	2.0118	26.29	0.37	1.500			
0.6061	38788.06	3.7390	3.7390	2.0151	26.27	0.35	1.500			
0.6121	39172.86	3.7360	3.7360	2.0305	26.25	0.33	1.500			
0.6182	39563.32	3.7330	3.7331	2.0440	26.23	0.31	1.500			
0.6244	39962.50	3.7300	3.7300	2.1072	26.21	0.29	1.500			
0.6307	40363.18	3.7270	3.7270	2.1323	26.19	0.27	1.500			
0.6371	40774.81	3.7240	3.7241	2.1863	26.17	0.25	1.500			
0.6437	41199.88	3.7210	3.7210	2.2435	26.16	0.24	1.500			
0.6506	41637.25	3.7180	3.7180	2.3133	26.15	0.23	1.500			
0.6576	42083.46	3.7150	3.7150	2.3964	26.13	0.21	1.500			
0.6649	42551.36	3.7120	3.7120	2.4918	26.11	0.19	1.500			
0.6725	43037.09	3.7090	3.7090	2.5851	26.09	0.17	1.500			
0.6804	43545.10	3.7060	3.7060	2.6695	26.07	0.15	1.500			
0.6886	44067.88	3.7030	3.7031	2.7291	26.05	0.13	1.500			
0.6968	44596.81	3.7000	3.7000	2.7060	26.04	0.12	1.500			
0.7049	45112.46	3.6970	3.6970	2.6546	26.03	0.11	1.500			
0.7130	45630.90	3.6940	3.6940	2.5466	26.01	0.09	1.500			
0.7204	46107.35	3.6910	3.6911	2.3765	26.00	0.08	1.500			
0.7273	46545.01	3.6880	3.6880	2.1931	25.99	0.07	1.500			
0.7334	46939.66	3.6850	3.6849	1.9943	25.98	0.06	1.500			
0.7391	47301.23	3.6820	3.6820	1.8343	25.98	0.06	1.500			
0.7443	47635.42	3.6790	3.6790	1.7045	25.98	0.06	1.500			
0.7491	47941.95	3.6760	3.6760	1.5918	25.97	0.05	1.500			
0.7537	48235.24	3.6730	3.6730	1.5024	25.97	0.05	1.500			
0.7580	48512.31	3.6700	3.6698	1.4334	25.97	0.05	1.500			
0.7622	48779.85	3.6670	3.6671	1.3709	25.97	0.05	1.500			
0.7662	49036.73	3.6640	3.6641	1.3253	25.96	0.04	1.500			
0.7701	49285.45	3.6610	3.6610	1.2827	25.96	0.04	1.500			
0.7737	49519.55	3.6580	3.6581	1.2523	25.95	0.03	1.500			
0.7774	49756.74	3.6550	3.6550	1.2462	25.95	0.03	1.500			
0.7811	49991.03	3.6520	3.6520	1.2496	25.94	0.02	1.500			
0.7849	50231.09	3.6490	3.6490	1.2635	25.94	0.02	1.500			
0.7887	50477.33	3.6460	3.6461	1.2855	25.93	0.01	1.500			
0.7926	50726.67	3.6430	3.6429	1.2975	25.93	0.01	1.500			
0.7966	50979.88	3.6400	3.6400	1.3053	25.92	0.00	1.500			
0.8005	51229.63	3.6370	3.6371	1.3059	25.92	-0.00	1.500			
0.8044	51483.00	3.6340	3.6340	1.3087	25.91	-0.01	1.500			
0.8083	51734.02	3.6310	3.6310	1.3079	25.91	-0.01	1.500			
0.8123	51984.36	3.6280	3.6280	1.3053	25.91	-0.01	1.500			
0.8162	52234.33	3.6250	3.6250	1.3016	25.90	-0.02	1.500			
0.8201	52486.27	3.6220	3.6220	1.2983	25.90	-0.02	1.500			
0.8240	52734.13	3.6190	3.6190	1.2937	25.90	-0.02	1.500			
0.8278	52982.14	3.6160	3.6160	1.2873	25.89	-0.03	1.500			
0.8317	53228.39	3.6130	3.6130	1.2843	25.89	-0.03	1.500			
0.8355	53474.40	3.6100	3.6100	1.2747	25.89	-0.03	1.500			
0.8394	53719.89	3.6070	3.6071	1.2683	25.89	-0.03	1.500			
0.8432	53963.64	3.6040	3.6040	1.2572	25.89	-0.03	1.500			
0.8470	54206.57	3.6010	3.6010	1.2415	25.88	-0.04	1.500			
0.8507	54442.02	3.5980	3.5980	1.2223	25.88	-0.04	1.500			
0.8543	54674.44	3.5950	3.5950	1.2040	25.88	-0.04	1.500			
0.8578	54901.43	3.5920	3.5919	1.1908	25.88	-0.04	1.500			
0.8614	55127.73	3.5890	3.5890	1.1805	25.88	-0.04	1.500			
0.8649	55351.32	3.5860	3.5860	1.1747	25.89	-0.03	1.500			
0.8684	55577.01	3.5830	3.5830	1.1751	25.90	-0.02	1.500			
0.8719	55803.76	3.5800	3.5800	1.1689	25.90	-0.02	1.500			
0.8755	56034.20	3.5770	3.5769	1.1345	25.91	-0.01	1.500			
0.8790	56259.12	3.5740	3.5740	1.0858	25.91	-0.01	1.500			
0.8823	56469.84	3.5710	3.5710	0.9799	25.92	-0.00	1.500			
0.8853	56657.80	3.5680	3.5681	0.8662	25.92	0.00	1.500			
0.8876	56809.33	3.5650	3.5651	0.7274	25.93	0.01	1.500			
0.8895	56929.89	3.5620	3.5620	0.5866	25.93	0.01	1.500			
0.8910	57021.42	3.5590	3.5590	0.4805	25.93	0.01	1.500			
0.8921	57096.67	3.5560	3.5559	0.3974	25.93	0.01	1.500			
0.8931	57159.95	3.5530	3.5529	0.3221	25.94	0.02	1.500			
0.8940	57213.99	3.5500	3.5499	0.2789	25.94	0.02	1.500			
0.8947	57259.61	3.5470	3.5469	0.2426	25.94	0.02	1.500			
0.8953	57301.33	3.5440	3.5440	0.2163	25.94	0.02	1.500			
0.8959	57338.85	3.5410	3.5410	0.1921	25.94	0.02	1.500			
0.8965	57373.13	3.5380	3.5379	0.1743	25.94	0.02	1.500			
0.8969	57404.24	3.5350	3.5350	0.1584	25.94	0.02	1.500			
0.8974	57432.69	3.5320	3.5320	0.1423	25.94	0.02	1.500			
0.8978	57458.63	3.5290	3.5290	0.1285	25.94	0.02	1.500			
0.8982	57481.81	3.5260	3.5261	0.1143	25.94	0.02	1.500			
0.8985	57502.35	3.5230	3.5229	0.1005	25.94	0.02	1.500			
0.8988	57520.49	3.5200	3.5201	0.0870	25.94	0.02	1.500			
0.8990	57535.87	3.5170	3.5172	0.0732	25.94	0.02	1.500			
0.8992	57548.88	3.5140	3.5143	0.0586	25.95	0.03	1.500			
0.8994	57558.71	3.5110	3.5117	0.0439	25.95	0.03	1.500			
