Ah_balance (normalized)	Ah_balance (mAh)	Voltage - fit (V)	Voltage -  interpolate (V)	dQ/dV (1/V)	Temperature (°C)	Temperature - diff (°C)	Current (C)	R_DC 0ms (mOhm)	R_DC 50ms (mOhm)	R_DC 50 ms PEC (mOhm)
0.2747	17581.44	3.9840	3.9840	0.8412	27.15	1.17	1.500			
0.2772	17743.66	3.9810	3.9810	0.8485	27.15	1.17	1.500			
0.2798	17907.48	3.9780	3.9780	0.8550	27.15	1.17	1.500			
0.2824	18072.81	3.9750	3.9749	0.8581	27.14	1.16	1.500			
0.2850	18237.95	3.9720	3.9720	0.8554	27.14	1.16	1.500			
0.2875	18401.27	3.9690	3.9690	0.8632	27.14	1.16	1.500			
0.2901	18566.83	3.9660	3.9661	0.8694	27.13	1.15	1.500			
0.2927	18734.09	3.9630	3.9628	0.8759	27.13	1.15	1.500			
0.2953	18902.00	3.9600	3.9600	0.8824	27.13	1.15	1.500			
0.2980	19072.80	3.9570	3.9571	0.8899	27.12	1.14	1.500			
0.3007	19246.71	3.9540	3.9541	0.8980	27.12	1.14	1.500			
0.3034	19420.13	3.9510	3.9509	0.8968	27.12	1.14	1.500			
0.3061	19591.41	3.9480	3.9480	0.8961	27.11	1.13	1.500			
0.3088	19763.39	3.9450	3.9451	0.8961	27.11	1.13	1.500			
0.3115	19934.93	3.9420	3.9420	0.8995	27.11	1.13	1.500			
0.3142	20107.36	3.9390	3.9390	0.9036	27.10	1.12	1.500			
0.3169	20280.65	3.9360	3.9360	0.9115	27.10	1.12	1.500			
0.3196	20456.73	3.9330	3.9330	0.9180	27.10	1.12	1.500			
0.3224	20634.36	3.9300	3.9300	0.9235	27.09	1.11	1.500			
0.3252	20812.48	3.9270	3.9270	0.9277	27.09	1.11	1.500			
0.3280	20991.05	3.9240	3.9241	0.9335	27.08	1.10	1.500			
0.3308	21169.53	3.9210	3.9210	0.9382	27.08	1.10	1.500			
0.3336	21350.26	3.9180	3.9180	0.9394	27.07	1.09	1.500			
0.3364	21530.93	3.9150	3.9150	0.9448	27.07	1.09	1.500			
0.3393	21713.55	3.9120	3.9120	0.9522	27.07	1.09	1.500			
0.3421	21895.36	3.9090	3.9089	0.9615	27.06	1.08	1.500			
0.3450	22079.99	3.9060	3.9061	0.9705	27.06	1.08	1.500			
0.3479	22267.33	3.9030	3.9030	0.9791	27.05	1.07	1.500			
0.3509	22456.80	3.9000	3.8999	0.9874	27.05	1.07	1.500			
0.3539	22648.42	3.8970	3.8971	0.9962	27.04	1.06	1.500			
0.3569	22840.23	3.8940	3.8940	1.0067	27.04	1.06	1.500			
0.3599	23034.21	3.8910	3.8910	1.0208	27.03	1.05	1.500			
0.3630	23232.02	3.8880	3.8880	1.0265	27.03	1.05	1.500			
0.3661	23430.39	3.8850	3.8849	1.0341	27.02	1.04	1.500			
0.3692	23629.92	3.8820	3.8822	1.0433	27.02	1.04	1.500			
0.3724	23831.83	3.8790	3.8790	1.0509	27.01	1.03	1.500			
0.3755	24032.41	3.8760	3.8759	1.0585	27.01	1.03	1.500			
0.3787	24234.06	3.8730	3.8730	1.0674	27.00	1.02	1.500			
0.3819	24441.50	3.8700	3.8700	1.0771	27.00	1.02	1.500			
0.3852	24650.22	3.8670	3.8670	1.0883	26.99	1.01	1.500			
0.3884	24860.12	3.8640	3.8640	1.0997	26.99	1.01	1.500			
0.3917	25071.31	3.8610	3.8610	1.1099	26.98	1.00	1.500			
0.3951	25285.12	3.8580	3.8580	1.1245	26.98	1.00	1.500			
0.3985	25501.44	3.8550	3.8550	1.1389	26.97	0.99	1.500			
0.4019	25720.79	3.8520	3.8520	1.1568	26.96	0.98	1.500			
0.4054	25946.86	3.8490	3.8490	1.1773	26.95	0.97	1.500			
0.4089	26172.46	3.8460	3.8460	1.1971	26.95	0.97	1.500			
0.4126	26404.76	3.8430	3.8429	1.2171	26.94	0.96	1.500			
0.4163	26640.49	3.8400	3.8400	1.2385	26.93	0.95	1.500			
0.4200	26880.68	3.8370	3.8370	1.2573	26.92	0.94	1.500			
0.4238	27124.58	3.8340	3.8341	1.2803	26.92	0.94	1.500			
0.4277	27373.22	3.8310	3.8309	1.2997	26.91	0.93	1.500			
0.4316	27623.08	3.8280	3.8280	1.3255	26.90	0.92	1.500			
0.4356	27878.08	3.8250	3.8250	1.3466	26.89	0.91	1.500			
0.4397	28138.53	3.8220	3.8221	1.3788	26.88	0.90	1.500			
0.4438	28405.79	3.8190	3.8191	1.4102	26.87	0.89	1.500			
0.4481	28679.86	3.8160	3.8160	1.4439	26.85	0.87	1.500			
0.4525	28960.22	3.8130	3.8130	1.4709	26.84	0.86	1.500			
0.4570	29247.70	3.8100	3.8100	1.5046	26.83	0.85	1.500			
0.4615	29536.62	3.8070	3.8071	1.5348	26.82	0.84	1.500			
0.4661	29832.68	3.8040	3.8040	1.5684	26.80	0.82	1.500			
0.4709	30136.66	3.8010	3.8010	1.6039	26.79	0.81	1.500			
0.4758	30449.72	3.7980	3.7979	1.6400	26.78	0.80	1.500			
0.4807	30767.82	3.7950	3.7950	1.6861	26.76	0.78	1.500			
0.4859	31095.81	3.7920	3.7921	1.7310	26.75	0.77	1.500			
0.4911	31432.76	3.7890	3.7889	1.7700	26.73	0.75	1.500			
0.4965	31775.94	3.7860	3.7860	1.8054	26.72	0.74	1.500			
0.5020	32127.60	3.7830	3.7830	1.8379	26.70	0.72	1.500			
0.5076	32486.65	3.7800	3.7800	1.8692	26.69	0.71	1.500			
0.5133	32848.12	3.7770	3.7770	1.8822	26.67	0.69	1.500			
0.5189	33210.74	3.7740	3.7741	1.9125	26.66	0.68	1.500			
0.5247	33580.55	3.7710	3.7710	1.9407	26.64	0.66	1.500			
0.5306	33957.44	3.7680	3.7678	1.9626	26.62	0.64	1.500	0.358	0.455	
0.5365	34338.31	3.7650	3.7650	1.9741	26.60	0.62	1.500			
0.5425	34720.43	3.7620	3.7620	1.9787	26.58	0.60	1.500			
0.5485	35101.05	3.7590	3.7590	1.9725	26.56	0.58	1.500			
0.5543	35476.77	3.7560	3.7560	1.9312	26.55	0.57	1.500			
0.5601	35845.41	3.7530	3.7530	1.9350	26.53	0.55	1.500			
0.5658	36212.96	3.7500	3.7500	1.9536	26.51	0.53	1.500			
0.5717	36588.55	3.7470	3.7470	1.9567	26.50	0.52	1.500			
0.5776	36969.55	3.7440	3.7440	1.9545	26.49	0.51	1.500			
0.5836	37349.23	3.7410	3.7411	1.9712	26.47	0.49	1.500			
0.5894	37724.57	3.7380	3.7380	1.9803	26.46	0.48	1.500			
0.5954	38105.50	3.7350	3.7350	1.9956	26.44	0.46	1.500			
0.6014	38491.70	3.7320	3.7320	2.0211	26.43	0.45	1.500			
0.6075	38883.15	3.7290	3.7290	2.0746	26.42	0.44	1.500			
0.6137	39279.52	3.7260	3.7262	2.1349	26.41	0.43	1.500			
0.6203	39697.75	3.7230	3.7230	2.1948	26.39	0.41	1.500			
0.6270	40129.84	3.7200	3.7200	2.2170	26.38	0.40	1.500			
0.6338	40562.32	3.7170	3.7171	2.3167	26.37	0.39	1.500			
0.6407	41003.34	3.7140	3.7139	2.3858	26.35	0.37	1.500			
0.6478	41461.63	3.7110	3.7111	2.4665	26.34	0.36	1.500			
0.6555	41953.49	3.7080	3.7081	2.5469	26.32	0.34	1.500			
0.6633	42449.07	3.7050	3.7050	2.5702	26.31	0.33	1.500			
0.6711	42949.39	3.7020	3.7021	2.6071	26.29	0.31	1.500			
0.6789	43451.14	3.6990	3.6990	2.5833	26.27	0.29	1.500			
0.6868	43956.10	3.6960	3.6960	2.4988	26.25	0.27	1.500			
0.6942	44429.71	3.6930	3.6930	2.3824	26.24	0.26	1.500			
0.7012	44873.83	3.6900	3.6900	2.1957	26.23	0.25	1.500			
0.7074	45275.90	3.6870	3.6870	2.0115	26.22	0.24	1.500			
0.7130	45633.69	3.6840	3.6841	1.8457	26.21	0.23	1.500			
0.7183	45971.43	3.6810	3.6810	1.7114	26.20	0.22	1.500			
0.7232	46285.49	3.6780	3.6780	1.6057	26.19	0.21	1.500			
0.7279	46583.33	3.6750	3.6750	1.5180	26.18	0.20	1.500			
0.7323	46866.25	3.6720	3.6721	1.4461	26.17	0.19	1.500			
0.7365	47134.52	3.6690	3.6690	1.3797	26.16	0.18	1.500			
0.7404	47387.23	3.6660	3.6661	1.3292	26.15	0.17	1.500			
0.7443	47635.63	3.6630	3.6630	1.2978	26.15	0.17	1.500			
0.7481	47876.25	3.6600	3.6600	1.2787	26.14	0.16	1.500			
0.7519	48120.29	3.6570	3.6570	1.2681	26.13	0.15	1.500			
0.7556	48361.44	3.6540	3.6540	1.2676	26.12	0.14	1.500			
0.7594	48603.28	3.6510	3.6510	1.2773	26.12	0.14	1.500			
0.7632	48847.07	3.6480	3.6480	1.2896	26.11	0.13	1.500			
0.7671	49096.85	3.6450	3.6449	1.2956	26.10	0.12	1.500			
0.7710	49346.67	3.6420	3.6421	1.3052	26.09	0.11	1.500			
0.7750	49600.45	3.6390	3.6390	1.3102	26.08	0.10	1.500			
0.7790	49857.40	3.6360	3.6359	1.3123	26.07	0.09	1.500			
0.7829	50106.18	3.6330	3.6330	1.3039	26.06	0.08	1.500			
0.7868	50355.28	3.6300	3.6301	1.3022	26.05	0.07	1.500			
0.7907	50603.52	3.6270	3.6270	1.3022	26.04	0.06	1.500			
0.7946	50855.69	3.6240	3.6240	1.3058	26.04	0.06	1.500			
0.7985	51104.97	3.6210	3.6210	1.3024	26.03	0.05	1.500			
0.8025	51357.90	3.6180	3.6180	1.2985	26.02	0.04	1.500			
0.8064	51609.26	3.6150	3.6150	1.2979	26.01	0.03	1.500			
0.8103	51857.39	3.6120	3.6120	1.2843	26.00	0.02	1.500			
0.8141	52102.09	3.6090	3.6090	1.2763	25.99	0.01	1.500			
0.8179	52345.01	3.6060	3.6060	1.2653	25.98	-0.00	1.500			
0.8217	52588.99	3.6030	3.6030	1.2535	25.97	-0.01	1.500			
0.8254	52828.76	3.6000	3.6000	1.2422	25.97	-0.01	1.500			
0.8292	53067.60	3.5970	3.5971	1.2235	25.96	-0.02	1.500			
0.8328	53300.74	3.5940	3.5941	1.2055	25.96	-0.02	1.500			
0.8364	53530.12	3.5910	3.5910	1.1973	25.95	-0.03	1.500			
0.8400	53757.56	3.5880	3.5880	1.1815	25.94	-0.04	1.500			
0.8435	53982.08	3.5850	3.5850	1.1676	25.94	-0.04	1.500			
0.8470	54206.46	3.5820	3.5820	1.1548	25.95	-0.03	1.500			
0.8505	54434.87	3.5790	3.5790	1.1126	25.95	-0.03	1.500			
0.8539	54651.15	3.5760	3.5759	1.0514	25.96	-0.02	1.500			
0.8572	54857.64	3.5730	3.5730	0.9560	25.96	-0.02	1.500			
0.8599	55034.57	3.5700	3.5701	0.8365	25.97	-0.01	1.500			
0.8623	55186.18	3.5670	3.5670	0.7154	25.97	-0.01	1.500			
0.8642	55307.42	3.5640	3.5640	0.5845	25.97	-0.01	1.500			
0.8656	55398.59	3.5610	3.5609	0.4717	25.98	-0.00	1.500			
0.8668	55475.10	3.5580	3.5579	0.3957	25.98	-0.00	1.500			
0.8678	55536.05	3.5550	3.5550	0.3292	25.98	0.00	1.500			
0.8686	55590.98	3.5520	3.5520	0.2859	25.98	0.00	1.500			
0.8694	55639.12	3.5490	3.5489	0.2478	25.98	0.00	1.500			
0.8700	55682.63	3.5460	3.5459	0.2224	25.98	0.00	1.500			
0.8707	55721.70	3.5430	3.5430	0.2011	25.98	0.00	1.500			
0.8712	55757.02	3.5400	3.5401	0.1811	25.99	0.01	1.500			
0.8717	55790.23	3.5370	3.5369	0.1648	25.99	0.01	1.500			
0.8722	55819.45	3.5340	3.5339	0.1495	25.99	0.01	1.500			
0.8726	55846.27	3.5310	3.5310	0.1346	25.99	0.01	1.500			
0.8730	55871.08	3.5280	3.5279	0.1209	25.99	0.01	1.500			
0.8733	55892.96	3.5250	3.5250	0.1070	25.99	0.01	1.500			
0.8736	55912.42	3.5220	3.5221	0.0934	25.99	0.01	1.500			
0.8739	55928.96	3.5190	3.5191	0.0792	25.99	0.01	1.500			
0.8741	55942.80	3.5160	3.5162	0.0650	25.99	0.01	1.500			
0.8743	55954.23	3.5130	3.5135	0.0499	25.99	0.01	1.500			
0.8744	55962.36	3.5100	3.5107	0.0348	25.99	0.01	1.500			
