Ah_balance (normalized)	Ah_balance (mAh)	Voltage - fit (V)	Voltage -  interpolate (V)	dQ/dV (1/V)	Temperature (°C)	Temperature - diff (°C)	Current (C)	R_DC 0ms (mOhm)	R_DC 50ms (mOhm)	R_DC 50 ms PEC (mOhm)
0.2826	18085.97	3.9710	3.9710	0.8810	26.96	0.98	1.500			
0.2852	18255.64	3.9680	3.9680	0.8823	26.95	0.97	1.500			
0.2879	18423.41	3.9650	3.9650	0.8833	26.95	0.97	1.500			
0.2905	18592.98	3.9620	3.9620	0.8900	26.95	0.97	1.500			
0.2932	18764.90	3.9590	3.9590	0.8933	26.94	0.96	1.500			
0.2959	18936.46	3.9560	3.9560	0.8972	26.94	0.96	1.500			
0.2986	19110.44	3.9530	3.9530	0.9015	26.94	0.96	1.500			
0.3013	19284.01	3.9500	3.9500	0.9058	26.93	0.95	1.500			
0.3040	19458.47	3.9470	3.9470	0.9081	26.93	0.95	1.500			
0.3067	19631.88	3.9440	3.9440	0.9078	26.93	0.95	1.500			
0.3095	19805.38	3.9410	3.9410	0.9107	26.92	0.94	1.500			
0.3122	19981.16	3.9380	3.9381	0.9177	26.92	0.94	1.500			
0.3150	20157.11	3.9350	3.9350	0.9235	26.92	0.94	1.500			
0.3178	20336.68	3.9320	3.9319	0.9292	26.91	0.93	1.500			
0.3205	20515.17	3.9290	3.9290	0.9317	26.91	0.93	1.500			
0.3233	20693.21	3.9260	3.9260	0.9398	26.91	0.93	1.500			
0.3262	20875.73	3.9230	3.9230	0.9444	26.90	0.92	1.500			
0.3290	21056.95	3.9200	3.9199	0.9545	26.90	0.92	1.500			
0.3319	21240.94	3.9170	3.9171	0.9572	26.90	0.92	1.500			
0.3348	21424.88	3.9140	3.9140	0.9664	26.89	0.91	1.500			
0.3377	21612.27	3.9110	3.9111	0.9762	26.89	0.91	1.500			
0.3406	21796.95	3.9080	3.9080	0.9854	26.88	0.90	1.500			
0.3436	21988.54	3.9050	3.9050	0.9896	26.88	0.90	1.500			
0.3466	22180.10	3.9020	3.9020	1.0034	26.87	0.89	1.500			
0.3496	22371.67	3.8990	3.8990	1.0143	26.87	0.89	1.500			
0.3527	22571.22	3.8960	3.8962	1.0237	26.86	0.88	1.500			
0.3557	22767.55	3.8930	3.8929	1.0255	26.86	0.88	1.500			
0.3588	22965.64	3.8900	3.8901	1.0333	26.85	0.87	1.500			
0.3619	23163.98	3.8870	3.8871	1.0403	26.84	0.86	1.500			
0.3651	23365.49	3.8840	3.8839	1.0559	26.84	0.86	1.500			
0.3682	23566.98	3.8810	3.8811	1.0574	26.83	0.85	1.500			
0.3714	23769.06	3.8780	3.8780	1.0721	26.83	0.85	1.500			
0.3747	23977.85	3.8750	3.8751	1.0858	26.82	0.84	1.500			
0.3779	24188.70	3.8720	3.8719	1.0956	26.81	0.83	1.500			
0.3812	24398.87	3.8690	3.8691	1.1073	26.81	0.83	1.500			
0.3846	24612.59	3.8660	3.8660	1.1179	26.80	0.82	1.500			
0.3879	24827.43	3.8630	3.8630	1.1318	26.80	0.82	1.500			
0.3914	25047.60	3.8600	3.8600	1.1419	26.79	0.81	1.500			
0.3948	25265.90	3.8570	3.8571	1.1602	26.78	0.80	1.500			
0.3983	25489.42	3.8540	3.8540	1.1814	26.78	0.80	1.500			
0.4019	25718.56	3.8510	3.8511	1.1984	26.77	0.79	1.500			
0.4055	25949.50	3.8480	3.8480	1.2172	26.77	0.79	1.500			
0.4092	26185.70	3.8450	3.8451	1.2415	26.76	0.78	1.500			
0.4129	26425.23	3.8420	3.8420	1.2684	26.75	0.77	1.500			
0.4168	26673.16	3.8390	3.8389	1.2867	26.74	0.76	1.500			
0.4206	26919.66	3.8360	3.8360	1.3022	26.74	0.76	1.500			
0.4245	27170.82	3.8330	3.8330	1.3276	26.73	0.75	1.500			
0.4286	27429.02	3.8300	3.8299	1.3552	26.72	0.74	1.500			
0.4326	27689.41	3.8270	3.8270	1.3797	26.71	0.73	1.500			
0.4368	27957.76	3.8240	3.8240	1.4030	26.70	0.72	1.500			
0.4410	28226.11	3.8210	3.8211	1.4379	26.69	0.71	1.500			
0.4454	28505.72	3.8180	3.8180	1.4758	26.68	0.70	1.500			
0.4499	28793.93	3.8150	3.8150	1.5108	26.67	0.69	1.500			
0.4545	29086.28	3.8120	3.8119	1.5450	26.66	0.68	1.500			
0.4592	29386.72	3.8090	3.8092	1.5910	26.65	0.67	1.500			
0.4640	29697.66	3.8060	3.8060	1.6286	26.64	0.66	1.500			
0.4690	30015.24	3.8030	3.8029	1.6712	26.62	0.64	1.500			
0.4740	30335.43	3.8000	3.8000	1.7004	26.61	0.63	1.500			
0.4792	30669.52	3.7970	3.7969	1.7515	26.60	0.62	1.500			
0.4845	31010.93	3.7940	3.7940	1.8031	26.58	0.60	1.500			
0.4900	31358.99	3.7910	3.7910	1.8516	26.57	0.59	1.500			
0.4956	31719.25	3.7880	3.7879	1.9050	26.55	0.57	1.500			
0.5014	32088.90	3.7850	3.7850	1.9620	26.54	0.56	1.500			
0.5074	32471.34	3.7820	3.7820	2.0256	26.52	0.54	1.500			
0.5135	32866.50	3.7790	3.7790	2.0703	26.50	0.52	1.500			
0.5198	33268.99	3.7760	3.7760	2.0973	26.49	0.51	1.500			
0.5261	33672.64	3.7730	3.7731	2.1465	26.47	0.49	1.500			
0.5326	34088.98	3.7700	3.7699	2.1892	26.45	0.47	1.500			
0.5393	34513.84	3.7670	3.7670	2.2262	26.43	0.45	1.500			
0.5461	34950.00	3.7640	3.7640	2.2716	26.41	0.43	1.500			
0.5530	35391.60	3.7610	3.7604	2.2845	26.39	0.41	1.500	0.366	0.454	
0.5598	35828.81	3.7580	3.7580	2.2644	26.37	0.39	1.500			
0.5667	36265.62	3.7550	3.7550	2.2456	26.35	0.37	1.500			
0.5734	36695.72	3.7520	3.7519	2.1878	26.34	0.36	1.500			
0.5799	37114.26	3.7490	3.7490	2.1631	26.32	0.34	1.500			
0.5864	37526.57	3.7460	3.7460	2.1261	26.30	0.32	1.500			
0.5926	37928.93	3.7430	3.7429	2.1082	26.29	0.31	1.500			
0.5989	38327.51	3.7400	3.7401	2.1103	26.27	0.29	1.500			
0.6052	38734.46	3.7370	3.7369	2.1194	26.26	0.28	1.500			
0.6116	39145.46	3.7340	3.7341	2.1089	26.24	0.26	1.500			
0.6179	39547.34	3.7310	3.7310	2.1326	26.23	0.25	1.500			
0.6243	39952.72	3.7280	3.7281	2.1513	26.21	0.23	1.500			
0.6308	40369.04	3.7250	3.7249	2.2017	26.20	0.22	1.500			
0.6375	40799.10	3.7220	3.7221	2.2395	26.18	0.20	1.500			
0.6443	41237.31	3.7190	3.7191	2.3243	26.17	0.19	1.500			
0.6513	41683.13	3.7160	3.7159	2.3780	26.16	0.18	1.500			
0.6586	42147.84	3.7130	3.7130	2.4337	26.14	0.16	1.500			
0.6660	42621.82	3.7100	3.7101	2.5158	26.13	0.15	1.500			
0.6737	43116.24	3.7070	3.7071	2.6549	26.11	0.13	1.500			
0.6817	43629.19	3.7040	3.7040	2.7398	26.10	0.12	1.500			
0.6901	44166.88	3.7010	3.7011	2.7654	26.09	0.11	1.500			
0.6987	44715.70	3.6980	3.6980	2.7953	26.08	0.10	1.500			
0.7070	45249.82	3.6950	3.6950	2.7572	26.06	0.08	1.500			
0.7153	45780.67	3.6920	3.6921	2.6401	26.05	0.07	1.500			
0.7233	46291.39	3.6890	3.6890	2.4905	26.03	0.05	1.500			
0.7305	46751.79	3.6860	3.6859	2.2839	26.02	0.04	1.500			
0.7371	47171.58	3.6830	3.6832	2.0823	26.02	0.04	1.500			
0.7428	47541.16	3.6800	3.6800	1.8998	26.02	0.04	1.500			
0.7482	47885.67	3.6770	3.6769	1.7514	26.02	0.04	1.500			
0.7531	48198.88	3.6740	3.6738	1.6292	26.02	0.04	1.500			
0.7577	48495.68	3.6710	3.6710	1.5296	26.02	0.04	1.500			
0.7622	48780.11	3.6680	3.6680	1.4507	26.01	0.03	1.500			
0.7664	49048.79	3.6650	3.6651	1.3855	26.01	0.03	1.500			
0.7704	49305.00	3.6620	3.6620	1.3202	26.01	0.03	1.500			
0.7742	49549.91	3.6590	3.6591	1.2784	26.00	0.02	1.500			
0.7780	49788.81	3.6560	3.6559	1.2485	26.00	0.02	1.500			
0.7816	50021.28	3.6530	3.6531	1.2351	26.00	0.02	1.500			
0.7852	50255.90	3.6500	3.6500	1.2383	25.99	0.01	1.500			
0.7889	50491.87	3.6470	3.6469	1.2440	25.98	0.00	1.500			
0.7927	50731.11	3.6440	3.6440	1.2589	25.98	-0.00	1.500			
0.7965	50973.80	3.6410	3.6410	1.2783	25.97	-0.01	1.500			
0.8003	51222.11	3.6380	3.6381	1.2911	25.97	-0.01	1.500			
0.8043	51473.59	3.6350	3.6349	1.3051	25.96	-0.02	1.500			
0.8082	51725.70	3.6320	3.6320	1.3090	25.96	-0.02	1.500			
0.8122	51977.82	3.6290	3.6291	1.3110	25.95	-0.03	1.500			
0.8161	52232.20	3.6260	3.6260	1.3048	25.95	-0.03	1.500			
0.8200	52481.87	3.6230	3.6230	1.3073	25.95	-0.03	1.500			
0.8239	52730.26	3.6200	3.6201	1.3089	25.94	-0.04	1.500			
0.8279	52983.05	3.6170	3.6169	1.3130	25.94	-0.04	1.500			
0.8318	53237.48	3.6140	3.6140	1.3062	25.94	-0.04	1.500			
0.8358	53488.81	3.6110	3.6111	1.3017	25.94	-0.04	1.500			
0.8397	53739.22	3.6080	3.6080	1.2914	25.94	-0.04	1.500			
0.8436	53987.83	3.6050	3.6049	1.2881	25.93	-0.05	1.500			
0.8473	54230.22	3.6020	3.6020	1.2753	25.93	-0.05	1.500			
0.8512	54474.85	3.5990	3.5991	1.2668	25.93	-0.05	1.500			
0.8550	54719.85	3.5960	3.5960	1.2592	25.93	-0.05	1.500			
0.8588	54961.68	3.5930	3.5931	1.2485	25.93	-0.05	1.500			
0.8625	55200.05	3.5900	3.5900	1.2310	25.93	-0.05	1.500			
0.8662	55435.27	3.5870	3.5869	1.2130	25.93	-0.05	1.500			
0.8697	55662.38	3.5840	3.5841	1.2025	25.93	-0.05	1.500			
0.8733	55891.03	3.5810	3.5811	1.2039	25.93	-0.05	1.500			
0.8769	56122.66	3.5780	3.5779	1.2063	25.93	-0.05	1.500			
0.8806	56356.98	3.5750	3.5749	1.1980	25.93	-0.05	1.500			
0.8844	56598.67	3.5720	3.5719	1.1561	25.94	-0.04	1.500			
0.8879	56825.68	3.5690	3.5690	1.0829	25.95	-0.03	1.500			
0.8913	57042.25	3.5660	3.5661	0.9746	25.95	-0.03	1.500			
0.8940	57217.09	3.5630	3.5631	0.8237	25.96	-0.02	1.500			
0.8962	57354.85	3.5600	3.5602	0.6823	25.96	-0.02	1.500			
0.8978	57462.22	3.5570	3.5570	0.5535	25.97	-0.01	1.500			
0.8992	57548.25	3.5540	3.5539	0.4265	25.97	-0.01	1.500			
0.9002	57615.79	3.5510	3.5508	0.3525	25.97	-0.01	1.500			
0.9011	57669.03	3.5480	3.5481	0.2926	25.97	-0.01	1.500			
0.9019	57719.59	3.5450	3.5448	0.2505	25.98	-0.00	1.500			
0.9025	57760.20	3.5420	3.5420	0.2174	25.98	-0.00	1.500			
0.9031	57797.97	3.5390	3.5390	0.1937	25.98	-0.00	1.500			
0.9036	57831.59	3.5360	3.5362	0.1723	25.98	-0.00	1.500			
0.9041	57862.46	3.5330	3.5330	0.1533	25.98	0.00	1.500			
0.9045	57889.92	3.5300	3.5299	0.1375	25.98	0.00	1.500			
0.9049	57914.40	3.5270	3.5271	0.1206	25.98	0.00	1.500			
0.9052	57935.94	3.5240	3.5240	0.1051	25.98	0.00	1.500			
0.9055	57954.67	3.5210	3.5212	0.0901	25.98	0.00	1.500			
0.9058	57970.89	3.5180	3.5181	0.0747	25.98	0.00	1.500			
0.9060	57983.40	3.5150	3.5154	0.0600	25.98	0.00	1.500			
0.9061	57993.51	3.5120	3.5127	0.0453	25.98	0.00	1.500			
