Ah_balance (normalized)	Ah_balance (mAh)	Voltage - fit (V)	Voltage -  interpolate (V)	dQ/dV (1/V)	Temperature (°C)	Temperature - diff (°C)	Current (C)	R_DC 0ms (mOhm)	R_DC 50ms (mOhm)	R_DC 50 ms PEC (mOhm)
0.1956	12520.69	3.9140	3.9139	-0.1158	25.94	-0.02	-1.500			
0.1960	12545.39	3.9110	3.9110	-0.1425	25.94	-0.02	-1.500			
0.1965	12575.12	3.9080	3.9080	-0.1703	25.94	-0.02	-1.500			
0.1970	12610.72	3.9050	3.9050	-0.1988	25.94	-0.02	-1.500			
0.1977	12652.11	3.9020	3.9019	-0.2249	25.94	-0.02	-1.500			
0.1984	12697.96	3.8990	3.8990	-0.2523	25.94	-0.02	-1.500			
0.1992	12748.68	3.8960	3.8961	-0.2801	25.94	-0.02	-1.500			
0.2001	12805.06	3.8930	3.8930	-0.3070	25.94	-0.02	-1.500			
0.2010	12866.47	3.8900	3.8900	-0.3345	25.94	-0.02	-1.500			
0.2021	12933.33	3.8870	3.8870	-0.3606	25.95	-0.01	-1.500			
0.2032	13005.31	3.8840	3.8841	-0.3877	25.95	-0.01	-1.500			
0.2044	13082.60	3.8810	3.8810	-0.4145	25.95	-0.01	-1.500			
0.2057	13164.13	3.8780	3.8781	-0.4414	25.95	-0.01	-1.500			
0.2071	13251.66	3.8750	3.8749	-0.4675	25.95	-0.01	-1.500			
0.2085	13344.18	3.8720	3.8720	-0.4937	25.95	-0.01	-1.500			
0.2100	13441.80	3.8690	3.8690	-0.5179	25.95	-0.01	-1.500			
0.2116	13545.36	3.8660	3.8660	-0.5389	25.95	-0.01	-1.500			
0.2133	13650.69	3.8630	3.8630	-0.5578	25.95	-0.01	-1.500			
0.2150	13759.87	3.8600	3.8601	-0.5769	25.96	-0.00	-1.500			
0.2168	13873.07	3.8570	3.8570	-0.5898	25.96	-0.00	-1.500			
0.2186	13987.62	3.8540	3.8539	-0.6065	25.96	-0.00	-1.500			
0.2204	14104.76	3.8510	3.8512	-0.6228	25.96	0.00	-1.500			
0.2223	14226.72	3.8480	3.8480	-0.6365	25.96	0.00	-1.500			
0.2242	14351.18	3.8450	3.8449	-0.6472	25.96	0.00	-1.500			
0.2262	14476.00	3.8420	3.8421	-0.6570	25.96	0.00	-1.500			
0.2282	14604.32	3.8390	3.8391	-0.6684	25.97	0.01	-1.500			
0.2302	14733.35	3.8360	3.8360	-0.6770	25.97	0.01	-1.500			
0.2322	14863.62	3.8330	3.8329	-0.6787	25.97	0.01	-1.500			
0.2343	14994.77	3.8300	3.8300	-0.6850	25.97	0.01	-1.500			
0.2364	15128.31	3.8270	3.8270	-0.6927	25.97	0.01	-1.500			
0.2385	15262.08	3.8240	3.8240	-0.6938	25.97	0.01	-1.500			
0.2405	15394.85	3.8210	3.8209	-0.6958	25.98	0.02	-1.500			
0.2426	15528.80	3.8180	3.8180	-0.7006	25.98	0.02	-1.500			
0.2447	15662.58	3.8150	3.8150	-0.7025	25.98	0.02	-1.500			
0.2469	15798.75	3.8120	3.8119	-0.7063	25.98	0.02	-1.500			
0.2490	15935.09	3.8090	3.8091	-0.7073	25.98	0.02	-1.500			
0.2511	16070.95	3.8060	3.8060	-0.7078	25.99	0.03	-1.500			
0.2532	16207.44	3.8030	3.8030	-0.7060	25.99	0.03	-1.500			
0.2553	16341.66	3.8000	3.8001	-0.7061	25.99	0.03	-1.500			
0.2575	16476.92	3.7970	3.7970	-0.7089	25.99	0.03	-1.500			
0.2596	16613.23	3.7940	3.7941	-0.7117	26.00	0.04	-1.500			
0.2617	16750.83	3.7910	3.7910	-0.7158	26.00	0.04	-1.500			
0.2639	16889.54	3.7880	3.7880	-0.7166	26.00	0.04	-1.500			
0.2660	17027.11	3.7850	3.7850	-0.7172	26.00	0.04	-1.500			
0.2682	17164.93	3.7820	3.7821	-0.7184	26.01	0.05	-1.500			
0.2703	17302.11	3.7790	3.7789	-0.7136	26.01	0.05	-1.500			
0.2725	17438.60	3.7760	3.7760	-0.7139	26.01	0.05	-1.500			
0.2746	17575.91	3.7730	3.7730	-0.7138	26.02	0.06	-1.500			
0.2768	17712.67	3.7700	3.7700	-0.7170	26.02	0.06	-1.500			
0.2789	17850.82	3.7670	3.7669	-0.7188	26.02	0.06	-1.500			
0.2811	17988.00	3.7640	3.7640	-0.7179	26.03	0.07	-1.500			
0.2832	18126.54	3.7610	3.7611	-0.7197	26.03	0.07	-1.500			
0.2854	18265.80	3.7580	3.7580	-0.7212	26.03	0.07	-1.500			
0.2876	18403.88	3.7550	3.7549	-0.7193	26.04	0.08	-1.500			
0.2897	18541.78	3.7520	3.7520	-0.7191	26.04	0.08	-1.500			
0.2919	18678.75	3.7490	3.7491	-0.7197	26.04	0.08	-1.500			
0.2940	18816.95	3.7460	3.7459	-0.7231	26.05	0.09	-1.500			
0.2962	18956.11	3.7430	3.7430	-0.7261	26.05	0.09	-1.500			
0.2984	19095.45	3.7400	3.7400	-0.7266	26.06	0.10	-1.500			
0.3006	19235.30	3.7370	3.7370	-0.7291	26.06	0.10	-1.500			
0.3028	19376.23	3.7340	3.7341	-0.7340	26.06	0.10	-1.500			
0.3050	19517.24	3.7310	3.7310	-0.7369	26.07	0.11	-1.500			
0.3071	19657.44	3.7280	3.7280	-0.7418	26.07	0.11	-1.500			
0.3094	19801.99	3.7250	3.7250	-0.7446	26.08	0.12	-1.500			
0.3116	19945.37	3.7220	3.7219	-0.7519	26.08	0.12	-1.500			
0.3139	20090.38	3.7190	3.7190	-0.7615	26.09	0.13	-1.500			
0.3162	20236.52	3.7160	3.7161	-0.7677	26.09	0.13	-1.500			
0.3185	20385.06	3.7130	3.7129	-0.7709	26.10	0.14	-1.500			
0.3209	20534.52	3.7100	3.7101	-0.7774	26.10	0.14	-1.500			
0.3232	20683.63	3.7070	3.7071	-0.7830	26.11	0.15	-1.500			
0.3255	20834.96	3.7040	3.7040	-0.7932	26.11	0.15	-1.500			
0.3279	20986.40	3.7010	3.7011	-0.8004	26.12	0.16	-1.500			
0.3303	21141.30	3.6980	3.6979	-0.8092	26.12	0.16	-1.500			
0.3328	21297.48	3.6950	3.6951	-0.8192	26.12	0.16	-1.500			
0.3353	21456.31	3.6920	3.6920	-0.8325	26.13	0.17	-1.500			
0.3378	21616.17	3.6890	3.6890	-0.8414	26.13	0.17	-1.500			
0.3403	21778.65	3.6860	3.6860	-0.8519	26.14	0.18	-1.500			
0.3429	21942.85	3.6830	3.6829	-0.8652	26.14	0.18	-1.500			
0.3455	22110.25	3.6800	3.6801	-0.8776	26.15	0.19	-1.500			
0.3481	22280.94	3.6770	3.6770	-0.8916	26.15	0.19	-1.500			
0.3508	22453.17	3.6740	3.6740	-0.9033	26.15	0.19	-1.500			
0.3536	22627.68	3.6710	3.6710	-0.9155	26.15	0.19	-1.500			
0.3563	22803.42	3.6680	3.6681	-0.9305	26.15	0.19	-1.500			
0.3591	22983.63	3.6650	3.6650	-0.9448	26.16	0.20	-1.500			
0.3620	23166.23	3.6620	3.6620	-0.9597	26.16	0.20	-1.500			
0.3649	23351.45	3.6590	3.6590	-0.9800	26.16	0.20	-1.500			
0.3678	23541.37	3.6560	3.6561	-0.9978	26.16	0.20	-1.500			
0.3709	23734.88	3.6530	3.6530	-1.0167	26.16	0.20	-1.500			
0.3739	23931.69	3.6500	3.6500	-1.0347	26.16	0.20	-1.500			
0.3771	24131.89	3.6470	3.6471	-1.0534	26.17	0.21	-1.500			
0.3803	24336.46	3.6440	3.6440	-1.0729	26.17	0.21	-1.500			
0.3835	24545.12	3.6410	3.6410	-1.0903	26.17	0.21	-1.500			
0.3868	24754.84	3.6380	3.6380	-1.1047	26.17	0.21	-1.500			
0.3901	24968.59	3.6350	3.6350	-1.1224	26.18	0.22	-1.500			
0.3935	25183.98	3.6320	3.6320	-1.1462	26.18	0.22	-1.500			
0.3970	25405.59	3.6290	3.6290	-1.1677	26.18	0.22	-1.500			
0.4005	25632.24	3.6260	3.6260	-1.1889	26.18	0.22	-1.500			
0.4041	25864.01	3.6230	3.6230	-1.2107	26.18	0.22	-1.500			
0.4078	26098.90	3.6200	3.6201	-1.2341	26.18	0.22	-1.500			
0.4115	26337.88	3.6170	3.6170	-1.2563	26.18	0.22	-1.500			
0.4153	26581.39	3.6140	3.6140	-1.2730	26.18	0.22	-1.500			
0.4191	26825.15	3.6110	3.6110	-1.2953	26.18	0.22	-1.500			
0.4231	27076.78	3.6080	3.6080	-1.3220	26.18	0.22	-1.500			
0.4271	27333.03	3.6050	3.6050	-1.3477	26.18	0.22	-1.500			
0.4312	27596.28	3.6020	3.6019	-1.3687	26.18	0.22	-1.500			
0.4353	27860.49	3.5990	3.5991	-1.3868	26.17	0.21	-1.500			
0.4395	28128.29	3.5960	3.5960	-1.4141	26.17	0.21	-1.500			
0.4438	28403.25	3.5930	3.5930	-1.4358	26.17	0.21	-1.500			
0.4481	28678.24	3.5900	3.5899	-1.4531	26.17	0.21	-1.500			
0.4525	28961.59	3.5870	3.5870	-1.4748	26.17	0.21	-1.500			
0.4570	29247.97	3.5840	3.5841	-1.4984	26.17	0.21	-1.500			
0.4615	29537.60	3.5810	3.5810	-1.5230	26.16	0.20	-1.500			
0.4661	29832.94	3.5780	3.5780	-1.5401	26.16	0.20	-1.500			
0.4708	30129.60	3.5750	3.5751	-1.5558	26.16	0.20	-1.500			
0.4755	30431.52	3.5720	3.5720	-1.5764	26.16	0.20	-1.500			
0.4802	30733.91	3.5690	3.5691	-1.6008	26.16	0.20	-1.500			
0.4851	31045.59	3.5660	3.5660	-1.6227	26.16	0.20	-1.500			
0.4900	31359.18	3.5630	3.5630	-1.6405	26.16	0.20	-1.500			
0.4949	31675.55	3.5600	3.5601	-1.6551	26.16	0.20	-1.500			
0.4999	31994.96	3.5570	3.5570	-1.6815	26.16	0.20	-1.500			
0.5050	32319.67	3.5540	3.5540	-1.7060	26.16	0.20	-1.500			
0.5102	32650.55	3.5510	3.5509	-1.7194	26.16	0.20	-1.500			
0.5153	32981.36	3.5480	3.5479	-1.7346	26.16	0.20	-1.500			
0.5206	33320.93	3.5450	3.5452	-1.7499	26.16	0.20	-1.500			
0.5259	33656.70	3.5420	3.5420	-1.7693	26.16	0.20	-1.500			
0.5312	33997.55	3.5390	3.5389	-1.7780	26.16	0.20	-1.500			
0.5365	34336.66	3.5360	3.5360	-1.7756	26.17	0.21	-1.500	0.382	0.514	
0.5419	34683.92	3.5330	3.5330	-1.7824	26.17	0.21	-1.500			
0.5473	35028.50	3.5300	3.5301	-1.7846	26.17	0.21	-1.500			
0.5526	35368.96	3.5270	3.5270	-1.7757	26.18	0.22	-1.500			
0.5580	35709.41	3.5240	3.5239	-1.7715	26.19	0.23	-1.500			
0.5633	36049.71	3.5210	3.5210	-1.7690	26.19	0.23	-1.500			
0.5686	36389.45	3.5180	3.5180	-1.7860	26.20	0.24	-1.500			
0.5740	36733.31	3.5150	3.5150	-1.7928	26.21	0.25	-1.500			
0.5794	37079.89	3.5120	3.5119	-1.7955	26.21	0.25	-1.500			
0.5848	37425.76	3.5090	3.5090	-1.7899	26.22	0.26	-1.500			
0.5902	37771.07	3.5060	3.5060	-1.7928	26.23	0.27	-1.500			
0.5956	38115.24	3.5030	3.5033	-1.7954	26.24	0.28	-1.500			
0.6008	38454.05	3.5000	3.4999	-1.7798	26.25	0.29	-1.500			
0.6062	38796.61	3.4970	3.4969	-1.7801	26.26	0.30	-1.500			
0.6116	39139.92	3.4940	3.4941	-1.7812	26.27	0.31	-1.500			
0.6170	39487.05	3.4910	3.4910	-1.7807	26.27	0.31	-1.500			
0.6223	39827.80	3.4880	3.4880	-1.7712	26.28	0.32	-1.500			
0.6276	40164.47	3.4850	3.4851	-1.7567	26.29	0.33	-1.500			
0.6328	40501.10	3.4820	3.4819	-1.7417	26.30	0.34	-1.500			
0.6380	40835.13	3.4790	3.4790	-1.7295	26.31	0.35	-1.500			
0.6432	41166.39	3.4760	3.4761	-1.7078	26.32	0.36	-1.500			
0.6483	41493.94	3.4730	3.4730	-1.6902	26.33	0.37	-1.500			
0.6534	41815.37	3.4700	3.4700	-1.6702	26.35	0.39	-1.500			
0.6583	42131.67	3.4670	3.4670	-1.6452	26.36	0.40	-1.500			
0.6632	42445.65	3.4640	3.4640	-1.6278	26.38	0.42	-1.500			
0.6681	42756.66	3.4610	3.4610	-1.6087	26.39	0.43	-1.500			
0.6729	43063.12	3.4580	3.4580	-1.5899	26.41	0.45	-1.500			
0.6776	43368.07	3.4550	3.4550	-1.5675	26.42	0.46	-1.500			
0.6823	43666.76	3.4520	3.4518	-1.5432	26.44	0.48	-1.500			
0.6869	43959.22	3.4490	3.4491	-1.5206	26.45	0.49	-1.500			
0.6914	44249.94	3.4460	3.4460	-1.4997	26.47	0.51	-1.500			
0.6959	44535.28	3.4430	3.4430	-1.4767	26.48	0.52	-1.500			
0.7003	44817.26	3.4400	3.4399	-1.4559	26.50	0.54	-1.500			
0.7046	45093.29	3.4370	3.4371	-1.4332	26.52	0.56	-1.500			
0.7089	45368.37	3.4340	3.4339	-1.4097	26.54	0.58	-1.500			
0.7131	45635.55	3.4310	3.4311	-1.3922	26.56	0.60	-1.500			
0.7172	45900.36	3.4280	3.4281	-1.3726	26.58	0.62	-1.500			
0.7213	46160.47	3.4250	3.4250	-1.3603	26.58	0.62	-1.500			
0.7253	46419.52	3.4220	3.4220	-1.3507	26.60	0.64	-1.500			
0.7293	46676.35	3.4190	3.4190	-1.3427	26.62	0.66	-1.500			
0.7334	46935.57	3.4160	3.4160	-1.3348	26.64	0.68	-1.500			
0.7374	47196.49	3.4130	3.4129	-1.3190	26.66	0.70	-1.500			
0.7414	47447.17	3.4100	3.4101	-1.2949	26.68	0.72	-1.500			
0.7453	47697.33	3.4070	3.4072	-1.2665	26.68	0.72	-1.500			
0.7490	47937.38	3.4040	3.4039	-1.2276	26.70	0.74	-1.500			
0.7526	48168.29	3.4010	3.4010	-1.1939	26.72	0.76	-1.500			
0.7562	48395.71	3.3980	3.3980	-1.1553	26.74	0.78	-1.500			
0.7596	48614.56	3.3950	3.3949	-1.1220	26.76	0.80	-1.500			
0.7629	48824.74	3.3920	3.3923	-1.0832	26.78	0.82	-1.500			
0.7661	49027.87	3.3890	3.3889	-1.0396	26.79	0.83	-1.500			
0.7691	49225.42	3.3860	3.3860	-0.9995	26.80	0.84	-1.500			
0.7721	49412.81	3.3830	3.3830	-0.9552	26.81	0.85	-1.500			
0.7749	49592.57	3.3800	3.3801	-0.9232	26.82	0.86	-1.500			
0.7776	49765.47	3.3770	3.3769	-0.8873	26.83	0.87	-1.500			
0.7801	49929.38	3.3740	3.3740	-0.8501	26.85	0.89	-1.500			
0.7826	50089.43	3.3710	3.3710	-0.8230	26.86	0.90	-1.500			
0.7851	50245.42	3.3680	3.3680	-0.8006	26.87	0.91	-1.500			
0.7875	50397.05	3.3650	3.3649	-0.7746	26.88	0.92	-1.500			
0.7897	50543.77	3.3620	3.3619	-0.7456	26.89	0.93	-1.500			
0.7919	50683.55	3.3590	3.3592	-0.7167	26.90	0.94	-1.500			
0.7940	50817.85	3.3560	3.3560	-0.6923	26.91	0.95	-1.500			
0.7961	50948.46	3.3530	3.3529	-0.6669	26.91	0.95	-1.500			
0.7980	51071.75	3.3500	3.3500	-0.6436	26.92	0.96	-1.500			
0.7999	51192.69	3.3470	3.3470	-0.6272	26.93	0.97	-1.500			
0.8018	51312.07	3.3440	3.3441	-0.6091	26.94	0.98	-1.500			
0.8036	51427.96	3.3410	3.3409	-0.5909	26.95	0.99	-1.500			
0.8053	51539.11	3.3380	3.3380	-0.5720	26.96	1.00	-1.500			
0.8070	51647.04	3.3350	3.3350	-0.5541	26.97	1.01	-1.500			
0.8086	51751.39	3.3320	3.3320	-0.5368	26.97	1.01	-1.500			
0.8102	51851.59	3.3290	3.3289	-0.5190	26.98	1.02	-1.500			
0.8117	51949.11	3.3260	3.3261	-0.5042	26.99	1.03	-1.500			
0.8132	52045.10	3.3230	3.3230	-0.4935	27.00	1.04	-1.500			
0.8147	52138.72	3.3200	3.3199	-0.4793	27.00	1.04	-1.500			
0.8161	52229.40	3.3170	3.3170	-0.4662	27.01	1.05	-1.500			
0.8175	52317.85	3.3140	3.3140	-0.4512	27.02	1.06	-1.500			
0.8188	52403.48	3.3110	3.3109	-0.4359	27.02	1.06	-1.500			
0.8201	52484.91	3.3080	3.3081	-0.4227	27.03	1.07	-1.500			
0.8213	52564.39	3.3050	3.3050	-0.4113	27.04	1.08	-1.500			
0.8225	52641.64	3.3020	3.3019	-0.3992	27.04	1.08	-1.500			
0.8237	52717.63	3.2990	3.2989	-0.3881	27.05	1.09	-1.500			
0.8248	52790.25	3.2960	3.2961	-0.3778	27.05	1.09	-1.500			
0.8260	52862.77	3.2930	3.2931	-0.3706	27.06	1.10	-1.500			
0.8271	52932.82	3.2900	3.2899	-0.3598	27.07	1.11	-1.500			
0.8281	52999.94	3.2870	3.2870	-0.3490	27.07	1.11	-1.500			
0.8292	53066.33	3.2840	3.2841	-0.3436	27.08	1.12	-1.500			
0.8302	53132.01	3.2810	3.2810	-0.3360	27.08	1.12	-1.500			
0.8312	53196.25	3.2780	3.2779	-0.3270	27.09	1.13	-1.500			
0.8321	53257.42	3.2750	3.2750	-0.3186	27.09	1.13	-1.500			
0.8331	53317.79	3.2720	3.2721	-0.3118	27.10	1.14	-1.500			
0.8340	53377.31	3.2690	3.2689	-0.3043	27.10	1.14	-1.500			
0.8349	53434.64	3.2660	3.2659	-0.2963	27.11	1.15	-1.500			
0.8358	53490.14	3.2630	3.2631	-0.2894	27.11	1.15	-1.500			
0.8367	53545.87	3.2600	3.2601	-0.2838	27.12	1.16	-1.500			
0.8375	53600.08	3.2570	3.2569	-0.2784	27.12	1.16	-1.500			
0.8383	53652.38	3.2540	3.2540	-0.2713	27.13	1.17	-1.500			
0.8391	53703.55	3.2510	3.2512	-0.2656	27.13	1.17	-1.500			
0.8399	53754.28	3.2480	3.2479	-0.2605	27.13	1.17	-1.500			
0.8407	53803.55	3.2450	3.2450	-0.2559	27.14	1.18	-1.500			
0.8414	53852.10	3.2420	3.2420	-0.2511	27.14	1.18	-1.500			
0.8422	53899.76	3.2390	3.2390	-0.2476	27.14	1.18	-1.500			
0.8429	53947.64	3.2360	3.2360	-0.2440	27.15	1.19	-1.500			
0.8437	53993.97	3.2330	3.2331	-0.2392	27.15	1.19	-1.500			
0.8444	54039.63	3.2300	3.2299	-0.2348	27.16	1.20	-1.500			
0.8451	54084.23	3.2270	3.2270	-0.2307	27.16	1.20	-1.500			
0.8457	54127.47	3.2240	3.2241	-0.2261	27.16	1.20	-1.500			
0.8464	54170.56	3.2210	3.2209	-0.2228	27.17	1.21	-1.500			
0.8471	54212.99	3.2180	3.2179	-0.2191	27.17	1.21	-1.500			
0.8477	54254.46	3.2150	3.2150	-0.2153	27.18	1.22	-1.500			
0.8484	54295.69	3.2120	3.2121	-0.2132	27.19	1.23	-1.500			
0.8490	54336.35	3.2090	3.2090	-0.2101	27.19	1.23	-1.500			
0.8496	54376.38	3.2060	3.2060	-0.2070	27.20	1.24	-1.500			
0.8502	54415.81	3.2030	3.2029	-0.2036	27.20	1.24	-1.500			
0.8508	54454.38	3.2000	3.1999	-0.2004	27.21	1.25	-1.500			
0.8514	54492.61	3.1970	3.1971	-0.1978	27.21	1.25	-1.500			
0.8520	54530.37	3.1940	3.1941	-0.1962	27.22	1.26	-1.500			
0.8526	54567.60	3.1910	3.1910	-0.1942	27.22	1.26	-1.500			
0.8532	54604.55	3.1880	3.1879	-0.1918	27.23	1.27	-1.500			
0.8538	54641.23	3.1850	3.1850	-0.1904	27.23	1.27	-1.500			
0.8543	54677.73	3.1820	3.1820	-0.1890	27.23	1.27	-1.500			
0.8549	54714.26	3.1790	3.1790	-0.1868	27.24	1.28	-1.500			
0.8555	54749.89	3.1760	3.1761	-0.1846	27.24	1.28	-1.500			
0.8560	54785.08	3.1730	3.1730	-0.1819	27.25	1.29	-1.500			
0.8566	54819.55	3.1700	3.1701	-0.1800	27.25	1.29	-1.500			
0.8571	54853.95	3.1670	3.1670	-0.1776	27.26	1.30	-1.500			
0.8576	54887.96	3.1640	3.1639	-0.1754	27.26	1.30	-1.500			
0.8581	54921.41	3.1610	3.1610	-0.1730	27.27	1.31	-1.500			
0.8587	54954.18	3.1580	3.1581	-0.1713	27.27	1.31	-1.500			
0.8592	54986.77	3.1550	3.1550	-0.1705	27.28	1.32	-1.500			
0.8597	55019.28	3.1520	3.1519	-0.1686	27.28	1.32	-1.500			
0.8602	55051.56	3.1490	3.1490	-0.1677	27.29	1.33	-1.500			
0.8607	55083.57	3.1460	3.1460	-0.1662	27.29	1.33	-1.500			
0.8612	55115.56	3.1430	3.1431	-0.1658	27.30	1.34	-1.500			
0.8617	55147.48	3.1400	3.1399	-0.1649	27.30	1.34	-1.500			
0.8622	55178.95	3.1370	3.1371	-0.1633	27.31	1.35	-1.500			
0.8627	55210.21	3.1340	3.1339	-0.1609	27.31	1.35	-1.500			
0.8631	55240.68	3.1310	3.1311	-0.1594	27.32	1.36	-1.500			
0.8636	55271.35	3.1280	3.1280	-0.1583	27.32	1.36	-1.500			
0.8641	55301.57	3.1250	3.1251	-0.1566	27.32	1.36	-1.500			
0.8646	55331.38	3.1220	3.1219	-0.1552	27.33	1.37	-1.500			
0.8650	55360.74	3.1190	3.1190	-0.1537	27.33	1.37	-1.500			
0.8655	55390.18	3.1160	3.1161	-0.1530	27.34	1.38	-1.500			
0.8659	55419.44	3.1130	3.1130	-0.1524	27.34	1.38	-1.500			
0.8664	55448.69	3.1100	3.1100	-0.1522	27.35	1.39	-1.500			
0.8668	55477.89	3.1070	3.1070	-0.1506	27.35	1.39	-1.500			
0.8673	55506.74	3.1040	3.1040	-0.1499	27.36	1.40	-1.500			
0.8677	55535.71	3.1010	3.1009	-0.1488	27.36	1.40	-1.500			
0.8682	55564.16	3.0980	3.0981	-0.1477	27.36	1.40	-1.500			
0.8686	55592.40	3.0950	3.0950	-0.1463	27.37	1.41	-1.500			
0.8691	55620.30	3.0920	3.0920	-0.1455	27.37	1.41	-1.500			
0.8695	55647.98	3.0890	3.0889	-0.1442	27.37	1.41	-1.500			
0.8699	55675.38	3.0860	3.0860	-0.1432	27.38	1.42	-1.500			
0.8704	55703.04	3.0830	3.0830	-0.1430	27.38	1.42	-1.500			
0.8708	55730.58	3.0800	3.0800	-0.1411	27.39	1.43	-1.500			
0.8712	55757.38	3.0770	3.0771	-0.1405	27.39	1.43	-1.500			
0.8716	55784.19	3.0740	3.0740	-0.1394	27.40	1.44	-1.500			
0.8720	55810.87	3.0710	3.0710	-0.1385	27.40	1.44	-1.500			
0.8725	55837.34	3.0680	3.0679	-0.1374	27.41	1.45	-1.500			
0.8729	55863.74	3.0650	3.0650	-0.1363	27.41	1.45	-1.500			
0.8733	55889.62	3.0620	3.0621	-0.1353	27.42	1.46	-1.500			
0.8737	55915.54	3.0590	3.0591	-0.1346	27.42	1.46	-1.500			
0.8741	55941.48	3.0560	3.0560	-0.1343	27.43	1.47	-1.500			
0.8745	55966.70	3.0530	3.0529	-0.1333	27.44	1.48	-1.500			
0.8749	55992.46	3.0500	3.0501	-0.1331	27.44	1.48	-1.500			
0.8753	56017.99	3.0470	3.0469	-0.1329	27.45	1.49	-1.500			
0.8757	56043.73	3.0440	3.0439	-0.1320	27.45	1.49	-1.500			
0.8761	56068.94	3.0410	3.0411	-0.1317	27.46	1.50	-1.500			
0.8765	56094.05	3.0380	3.0380	-0.1306	27.46	1.50	-1.500			
0.8769	56119.15	3.0350	3.0350	-0.1297	27.47	1.51	-1.500			
0.8772	56143.97	3.0320	3.0319	-0.1288	27.47	1.51	-1.500			
0.8776	56168.59	3.0290	3.0289	-0.1274	27.48	1.52	-1.500			
0.8780	56193.14	3.0260	3.0262	-0.1267	27.48	1.52	-1.500			
0.8784	56217.24	3.0230	3.0229	-0.1257	27.49	1.53	-1.500			
0.8788	56241.42	3.0200	3.0201	-0.1247	27.49	1.53	-1.500			
0.8791	56265.10	3.0170	3.0169	-0.1241	27.50	1.54	-1.500			
0.8795	56288.26	3.0140	3.0140	-0.1234	27.50	1.54	-1.500			
0.8799	56311.97	3.0110	3.0111	-0.1236	27.51	1.55	-1.500			
0.8802	56335.62	3.0080	3.0079	-0.1241	27.51	1.55	-1.500			
0.8806	56359.43	3.0050	3.0050	-0.1250	27.52	1.56	-1.500			
0.8810	56383.53	3.0020	3.0020	-0.1260	27.52	1.56	-1.501			
