Ah_balance (normalized)	Ah_balance (mAh)	Voltage - fit (V)	Voltage -  interpolate (V)	dQ/dV (1/V)	Temperature (°C)	Temperature - diff (°C)	Current (C)	R_DC 0ms (mOhm)	R_DC 50ms (mOhm)	R_DC 50 ms PEC (mOhm)
0.2395	15325.30	3.9730	3.9730	0.8527	25.94	-0.02	0.750			
0.2421	15491.34	3.9700	3.9699	0.8676	25.94	-0.02	0.750			
0.2447	15659.45	3.9670	3.9670	0.8736	25.94	-0.02	0.750			
0.2473	15827.44	3.9640	3.9639	0.8763	25.95	-0.01	0.750			
0.2500	15997.09	3.9610	3.9611	0.8830	25.95	-0.01	0.750			
0.2526	16166.24	3.9580	3.9580	0.8787	25.96	-0.00	0.750			
0.2552	16334.32	3.9550	3.9549	0.8790	25.96	0.00	0.750			
0.2578	16501.99	3.9520	3.9521	0.8818	25.97	0.01	0.750			
0.2605	16671.90	3.9490	3.9488	0.8847	25.97	0.01	0.750			
0.2632	16842.42	3.9460	3.9460	0.8892	25.97	0.01	0.750			
0.2658	17013.79	3.9430	3.9430	0.8910	25.97	0.01	0.750			
0.2685	17185.25	3.9400	3.9400	0.8935	25.98	0.02	0.750			
0.2712	17357.43	3.9370	3.9370	0.8958	25.98	0.02	0.750			
0.2739	17530.30	3.9340	3.9340	0.8983	25.98	0.02	0.750			
0.2766	17702.15	3.9310	3.9309	0.8951	25.99	0.03	0.750			
0.2793	17874.27	3.9280	3.9280	0.8979	25.99	0.03	0.750			
0.2820	18045.22	3.9250	3.9250	0.9010	25.99	0.03	0.750			
0.2847	18218.96	3.9220	3.9220	0.9045	26.00	0.04	0.750			
0.2874	18394.14	3.9190	3.9190	0.9059	26.00	0.04	0.750			
0.2901	18567.61	3.9160	3.9160	0.9100	26.00	0.04	0.750			
0.2929	18743.47	3.9130	3.9131	0.9174	26.00	0.04	0.750			
0.2956	18920.22	3.9100	3.9101	0.9227	26.00	0.04	0.750			
0.2984	19096.87	3.9070	3.9069	0.9247	26.00	0.04	0.750			
0.3012	19275.14	3.9040	3.9040	0.9269	26.00	0.04	0.750			
0.3040	19454.08	3.9010	3.9010	0.9354	26.00	0.04	0.750			
0.3068	19634.77	3.8980	3.8981	0.9361	26.00	0.04	0.750			
0.3096	19814.39	3.8950	3.8949	0.9402	26.00	0.04	0.750			
0.3124	19996.34	3.8920	3.8921	0.9387	26.00	0.04	0.750			
0.3152	20175.45	3.8890	3.8890	0.9427	26.00	0.04	0.750			
0.3181	20356.64	3.8860	3.8860	0.9466	26.01	0.05	0.750			
0.3209	20538.42	3.8830	3.8830	0.9524	26.01	0.05	0.750			
0.3238	20721.52	3.8800	3.8800	0.9559	26.01	0.05	0.750			
0.3267	20905.96	3.8770	3.8770	0.9563	26.01	0.05	0.750			
0.3295	21089.54	3.8740	3.8740	0.9582	26.00	0.04	0.750			
0.3324	21274.46	3.8710	3.8711	0.9661	26.00	0.04	0.750			
0.3353	21459.26	3.8680	3.8678	0.9664	26.00	0.04	0.750			
0.3382	21644.77	3.8650	3.8650	0.9723	26.00	0.04	0.750			
0.3411	21831.29	3.8620	3.8620	0.9802	26.00	0.04	0.750			
0.3441	22021.37	3.8590	3.8590	0.9893	25.99	0.03	0.750			
0.3471	22212.25	3.8560	3.8560	0.9905	25.99	0.03	0.750			
0.3501	22403.98	3.8530	3.8530	0.9939	25.99	0.03	0.750			
0.3530	22593.59	3.8500	3.8501	1.0016	25.98	0.02	0.750			
0.3560	22786.47	3.8470	3.8470	1.0101	25.98	0.02	0.750			
0.3591	22980.96	3.8440	3.8439	1.0145	25.97	0.01	0.750			
0.3621	23176.76	3.8410	3.8410	1.0177	25.97	0.01	0.750			
0.3652	23372.35	3.8380	3.8381	1.0282	25.96	0.00	0.750			
0.3683	23570.26	3.8350	3.8350	1.0396	25.96	-0.00	0.750			
0.3714	23770.28	3.8320	3.8320	1.0503	25.95	-0.01	0.750			
0.3746	23972.02	3.8290	3.8290	1.0569	25.95	-0.01	0.750			
0.3778	24176.12	3.8260	3.8260	1.0702	25.95	-0.01	0.750			
0.3810	24384.00	3.8230	3.8230	1.0811	25.94	-0.02	0.750			
0.3843	24593.29	3.8200	3.8200	1.0921	25.94	-0.02	0.750			
0.3875	24802.10	3.8170	3.8170	1.1010	25.94	-0.02	0.750			
0.3908	25013.28	3.8140	3.8140	1.1099	25.93	-0.03	0.750			
0.3942	25227.63	3.8110	3.8110	1.1251	25.93	-0.03	0.750			
0.3976	25445.95	3.8080	3.8080	1.1385	25.92	-0.04	0.750			
0.4010	25666.07	3.8050	3.8049	1.1490	25.92	-0.04	0.750			
0.4045	25887.60	3.8020	3.8020	1.1645	25.91	-0.05	0.750			
0.4080	26111.90	3.7990	3.7991	1.1762	25.90	-0.06	0.750			
0.4115	26338.52	3.7960	3.7960	1.1890	25.90	-0.06	0.750			
0.4151	26568.78	3.7930	3.7930	1.2056	25.89	-0.07	0.750			
0.4187	26799.75	3.7900	3.7900	1.2206	25.89	-0.07	0.750			
0.4225	27036.90	3.7870	3.7870	1.2344	25.88	-0.08	0.750			
0.4262	27275.36	3.7840	3.7840	1.2587	25.87	-0.09	0.750			
0.4300	27517.51	3.7810	3.7810	1.2776	25.87	-0.09	0.750			
0.4338	27766.18	3.7780	3.7780	1.2951	25.86	-0.10	0.750			
0.4378	28016.35	3.7750	3.7751	1.3170	25.86	-0.10	0.750			
0.4417	28271.48	3.7720	3.7720	1.3364	25.85	-0.11	0.750			
0.4458	28529.08	3.7690	3.7691	1.3618	25.84	-0.12	0.750			
0.4499	28792.65	3.7660	3.7660	1.3879	25.84	-0.12	0.750			
0.4540	29058.65	3.7630	3.7630	1.4144	25.83	-0.13	0.750			
0.4584	29335.01	3.7600	3.7600	1.4418	25.82	-0.14	0.750			
0.4627	29614.76	3.7570	3.7570	1.4717	25.82	-0.14	0.750			
0.4672	29900.27	3.7540	3.7540	1.4980	25.81	-0.15	0.750			
0.4717	30189.30	3.7510	3.7509	1.5310	25.80	-0.16	0.750			
0.4763	30485.07	3.7480	3.7479	1.5531	25.79	-0.17	0.750			
0.4810	30784.92	3.7450	3.7451	1.5847	25.78	-0.18	0.750			
0.4858	31093.41	3.7420	3.7420	1.6195	25.77	-0.19	0.750			
0.4907	31406.41	3.7390	3.7390	1.6686	25.77	-0.19	0.750			
0.4958	31729.90	3.7360	3.7360	1.6968	25.76	-0.20	0.750			
0.5009	32059.56	3.7330	3.7331	1.7493	25.75	-0.21	0.750			
0.5062	32399.35	3.7300	3.7300	1.7915	25.73	-0.23	0.750			
0.5118	32752.79	3.7270	3.7270	1.8270	25.72	-0.24	0.750			
0.5173	33104.10	3.7240	3.7241	1.8699	25.71	-0.25	0.750			
0.5229	33468.62	3.7210	3.7210	1.9206	25.70	-0.26	0.750			
0.5287	33836.38	3.7180	3.7179	1.9671	25.69	-0.27	0.750			
0.5347	34218.27	3.7150	3.7151	2.0169	25.68	-0.28	0.750	0.360	0.488	
0.5409	34614.92	3.7120	3.7120	2.0747	25.67	-0.29	0.750			
0.5472	35022.28	3.7090	3.7090	2.1370	25.66	-0.30	0.750			
0.5536	35432.68	3.7060	3.7061	2.1725	25.66	-0.30	0.750			
0.5602	35853.33	3.7030	3.7030	2.2210	25.65	-0.31	0.750			
0.5670	36285.36	3.7000	3.7000	2.2818	25.64	-0.32	0.750			
0.5738	36723.60	3.6970	3.6971	2.3458	25.64	-0.32	0.750			
0.5809	37180.52	3.6940	3.6940	2.4201	25.63	-0.33	0.750			
0.5884	37660.30	3.6910	3.6908	2.4859	25.62	-0.34	0.750			
0.5960	38142.50	3.6880	3.6881	2.5413	25.62	-0.34	0.750			
0.6037	38638.19	3.6850	3.6849	2.5936	25.62	-0.34	0.750			
0.6115	39133.34	3.6820	3.6821	2.6303	25.62	-0.34	0.750			
0.6195	39649.80	3.6790	3.6790	2.6815	25.63	-0.33	0.750			
0.6276	40169.22	3.6760	3.6760	2.6782	25.63	-0.33	0.750			
0.6358	40690.60	3.6730	3.6730	2.6264	25.62	-0.34	0.750			
0.6436	41193.56	3.6700	3.6699	2.5352	25.63	-0.33	0.750			
0.6511	41672.93	3.6670	3.6669	2.3851	25.64	-0.32	0.750			
0.6581	42118.01	3.6640	3.6641	2.2073	25.65	-0.31	0.750			
0.6644	42521.16	3.6610	3.6610	2.0279	25.65	-0.31	0.750			
0.6701	42889.00	3.6580	3.6580	1.8641	25.66	-0.30	0.750			
0.6753	43220.44	3.6550	3.6550	1.7020	25.66	-0.30	0.750			
0.6802	43535.33	3.6520	3.6521	1.5950	25.67	-0.29	0.750			
0.6848	43825.64	3.6490	3.6488	1.5016	25.68	-0.28	0.750			
0.6891	44099.22	3.6460	3.6460	1.4171	25.69	-0.27	0.750			
0.6932	44363.17	3.6430	3.6430	1.3586	25.69	-0.27	0.750			
0.6971	44617.10	3.6400	3.6399	1.3070	25.70	-0.26	0.750			
0.7009	44858.66	3.6370	3.6370	1.2629	25.70	-0.26	0.750			
0.7046	45097.28	3.6340	3.6341	1.2362	25.71	-0.25	0.750			
0.7083	45330.06	3.6310	3.6309	1.2158	25.72	-0.24	0.750			
0.7119	45560.81	3.6280	3.6280	1.1977	25.72	-0.24	0.750			
0.7154	45786.73	3.6250	3.6251	1.1858	25.72	-0.24	0.750			
0.7190	46014.29	3.6220	3.6220	1.1814	25.72	-0.24	0.750			
0.7225	46240.72	3.6190	3.6189	1.1768	25.72	-0.24	0.750			
0.7260	46464.74	3.6160	3.6160	1.1708	25.73	-0.23	0.750			
0.7295	46689.75	3.6130	3.6130	1.1721	25.73	-0.23	0.750			
0.7330	46913.87	3.6100	3.6100	1.1727	25.74	-0.22	0.750			
0.7365	47138.73	3.6070	3.6070	1.1731	25.74	-0.22	0.750			
0.7401	47364.48	3.6040	3.6040	1.1775	25.74	-0.22	0.750			
0.7436	47589.41	3.6010	3.6010	1.1891	25.75	-0.21	0.750			
0.7472	47818.86	3.5980	3.5979	1.1977	25.75	-0.21	0.750			
0.7507	48046.80	3.5950	3.5951	1.2217	25.75	-0.21	0.750			
0.7544	48281.85	3.5920	3.5920	1.2506	25.76	-0.20	0.750			
0.7582	48524.26	3.5890	3.5890	1.2802	25.76	-0.20	0.750			
0.7621	48775.25	3.5860	3.5860	1.3167	25.76	-0.20	0.750			
0.7661	49028.66	3.5830	3.5831	1.3637	25.76	-0.20	0.750			
0.7702	49294.73	3.5800	3.5801	1.4029	25.76	-0.20	0.750			
0.7746	49572.55	3.5770	3.5770	1.4424	25.76	-0.20	0.750			
0.7789	49849.59	3.5740	3.5740	1.4798	25.76	-0.20	0.750			
0.7834	50137.76	3.5710	3.5711	1.5168	25.76	-0.20	0.750			
0.7880	50434.88	3.5680	3.5680	1.5458	25.76	-0.20	0.750			
0.7928	50738.26	3.5650	3.5649	1.5788	25.76	-0.20	0.750			
0.7975	51040.73	3.5620	3.5620	1.5983	25.76	-0.20	0.750			
0.8024	51353.79	3.5590	3.5591	1.6095	25.76	-0.20	0.750			
0.8073	51668.39	3.5560	3.5561	1.6105	25.76	-0.20	0.750			
0.8121	51976.80	3.5530	3.5531	1.6053	25.76	-0.20	0.750			
0.8170	52286.83	3.5500	3.5498	1.6040	25.77	-0.19	0.750			
0.8218	52593.71	3.5470	3.5469	1.5937	25.77	-0.19	0.750			
0.8266	52902.19	3.5440	3.5441	1.5597	25.77	-0.19	0.750			
0.8314	53206.85	3.5410	3.5410	1.5021	25.78	-0.18	0.750			
0.8361	53509.13	3.5380	3.5379	1.3760	25.78	-0.18	0.750			
0.8402	53769.75	3.5350	3.5351	1.2099	25.80	-0.16	0.750			
0.8436	53992.72	3.5320	3.5322	1.0286	25.81	-0.15	0.750			
0.8463	54161.09	3.5290	3.5290	0.8400	25.81	-0.15	0.750			
0.8483	54293.90	3.5260	3.5259	0.6617	25.82	-0.14	0.750			
0.8499	54395.45	3.5230	3.5228	0.5434	25.83	-0.13	0.750			
0.8512	54477.23	3.5200	3.5199	0.4455	25.84	-0.12	0.750			
0.8524	54551.54	3.5170	3.5169	0.3965	25.85	-0.11	0.750			
0.8534	54618.48	3.5140	3.5140	0.3547	25.85	-0.11	0.750			
0.8544	54681.02	3.5110	3.5109	0.3290	25.86	-0.10	0.750			
0.8553	54741.27	3.5080	3.5080	0.3100	25.86	-0.10	0.750			
0.8562	54797.91	3.5050	3.5051	0.2953	25.87	-0.09	0.750			
0.8571	54852.78	3.5020	3.5020	0.2836	25.87	-0.09	0.750			
0.8579	54905.56	3.4990	3.4990	0.2738	25.88	-0.08	0.750			
0.8587	54956.83	3.4960	3.4959	0.2651	25.88	-0.08	0.750			
0.8595	55006.86	3.4930	3.4930	0.2583	25.89	-0.07	0.750			
0.8602	55055.55	3.4900	3.4900	0.2521	25.89	-0.07	0.750			
0.8610	55103.44	3.4870	3.4871	0.2465	25.89	-0.07	0.750			
0.8617	55150.37	3.4840	3.4840	0.2410	25.90	-0.06	0.750			
0.8624	55195.79	3.4810	3.4810	0.2355	25.90	-0.06	0.750			
0.8631	55240.49	3.4780	3.4780	0.2306	25.91	-0.05	0.750			
0.8638	55284.16	3.4750	3.4750	0.2252	25.91	-0.05	0.750			
0.8645	55326.94	3.4720	3.4720	0.2205	25.91	-0.05	0.750			
0.8651	55369.03	3.4690	3.4690	0.2156	25.92	-0.04	0.750			
0.8658	55409.77	3.4660	3.4661	0.2108	25.92	-0.04	0.750			
0.8664	55449.99	3.4630	3.4630	0.2057	25.92	-0.04	0.750			
0.8670	55488.98	3.4600	3.4600	0.2004	25.93	-0.03	0.750			
0.8676	55526.86	3.4570	3.4569	0.1955	25.93	-0.03	0.750			
0.8682	55563.67	3.4540	3.4541	0.1913	25.93	-0.03	0.750			
0.8687	55599.96	3.4510	3.4510	0.1869	25.94	-0.02	0.750			
0.8693	55635.44	3.4480	3.4480	0.1827	25.94	-0.02	0.750			
0.8698	55670.24	3.4450	3.4449	0.1773	25.94	-0.02	0.750			
0.8704	55703.72	3.4420	3.4420	0.1728	25.95	-0.01	0.750			
0.8709	55736.81	3.4390	3.4390	0.1686	25.95	-0.01	0.750			
0.8714	55768.67	3.4360	3.4361	0.1632	25.95	-0.01	0.750			
0.8719	55799.39	3.4330	3.4329	0.1582	25.95	-0.01	0.750			
0.8723	55829.01	3.4300	3.4301	0.1529	25.96	-0.00	0.750			
0.8728	55858.02	3.4270	3.4270	0.1484	25.96	-0.00	0.750			
0.8732	55886.07	3.4240	3.4239	0.1437	25.96	0.00	0.750			
0.8736	55913.47	3.4210	3.4210	0.1389	25.96	0.00	0.750			
0.8741	55939.47	3.4180	3.4180	0.1335	25.97	0.01	0.750			
0.8744	55964.75	3.4150	3.4150	0.1288	25.97	0.01	0.750			
0.8748	55989.00	3.4120	3.4121	0.1236	25.97	0.01	0.750			
0.8752	56012.22	3.4090	3.4090	0.1184	25.97	0.01	0.750			
0.8755	56034.74	3.4060	3.4059	0.1127	25.98	0.02	0.750			
0.8759	56055.94	3.4030	3.4030	0.1073	25.98	0.02	0.750			
0.8762	56075.95	3.4000	3.3999	0.1012	25.98	0.02	0.750			
0.8765	56095.92	3.3970	3.3969	0.0937	25.98	0.02	0.750			
0.8768	56113.09	3.3940	3.3939	0.0851	25.98	0.02	0.750			
0.8770	56129.23	3.3910	3.3911	0.0778	25.98	0.02	0.750			
0.8772	56143.26	3.3880	3.3883	0.0684	25.98	0.02	0.750			
0.8774	56156.12	3.3850	3.3852	0.0593	25.99	0.03	0.750			
0.8776	56166.54	3.3820	3.3827	0.0492	25.99	0.03	0.750			
0.8777	56175.03	3.3790	3.3801	0.0391	25.99	0.03	0.750			
0.8778	56181.57	3.3760	3.3777	0.0290	25.99	0.03	0.750			
