Ah_balance (normalized)	Ah_balance (mAh)	Voltage - fit (V)	Voltage -  interpolate (V)	dQ/dV (1/V)	Temperature (°C)	Temperature - diff (°C)	Current (C)	R_DC 0ms (mOhm)	R_DC 50ms (mOhm)	R_DC 50 ms PEC (mOhm)
0.2814	18008.68	3.9870	3.9869	0.8185	27.12	1.19	1.500			
0.2839	18169.31	3.9840	3.9840	0.8393	27.12	1.19	1.500			
0.2864	18330.68	3.9810	3.9810	0.8432	27.11	1.18	1.500			
0.2889	18492.69	3.9780	3.9780	0.8494	27.11	1.18	1.500			
0.2915	18657.77	3.9750	3.9750	0.8559	27.10	1.17	1.500			
0.2941	18821.69	3.9720	3.9719	0.8544	27.09	1.16	1.500			
0.2967	18986.13	3.9690	3.9690	0.8577	27.09	1.16	1.500			
0.2992	19151.21	3.9660	3.9660	0.8598	27.08	1.15	1.500			
0.3018	19316.52	3.9630	3.9630	0.8653	27.07	1.14	1.500			
0.3044	19481.93	3.9600	3.9600	0.8678	27.07	1.14	1.500			
0.3070	19649.60	3.9570	3.9570	0.8707	27.06	1.13	1.500			
0.3097	19817.87	3.9540	3.9540	0.8737	27.06	1.13	1.500			
0.3123	19986.71	3.9510	3.9510	0.8786	27.05	1.12	1.500			
0.3149	20155.00	3.9480	3.9481	0.8804	27.04	1.11	1.500			
0.3176	20323.85	3.9450	3.9449	0.8822	27.04	1.11	1.500			
0.3202	20492.88	3.9420	3.9419	0.8848	27.03	1.10	1.500			
0.3228	20662.30	3.9390	3.9391	0.8918	27.02	1.09	1.500			
0.3255	20834.22	3.9360	3.9360	0.9014	27.02	1.09	1.500			
0.3283	21008.83	3.9330	3.9330	0.9102	27.01	1.08	1.500			
0.3310	21184.95	3.9300	3.9299	0.9119	27.00	1.07	1.500			
0.3338	21361.49	3.9270	3.9271	0.9172	27.00	1.07	1.500			
0.3365	21539.07	3.9240	3.9240	0.9203	26.99	1.06	1.500			
0.3393	21714.26	3.9210	3.9210	0.9253	26.98	1.05	1.500			
0.3420	21890.64	3.9180	3.9180	0.9246	26.98	1.05	1.500			
0.3448	22068.38	3.9150	3.9149	0.9317	26.97	1.04	1.500			
0.3476	22248.96	3.9120	3.9120	0.9393	26.96	1.03	1.500			
0.3505	22430.10	3.9090	3.9090	0.9505	26.96	1.03	1.500			
0.3533	22614.32	3.9060	3.9060	0.9581	26.95	1.02	1.500			
0.3562	22798.73	3.9030	3.9030	0.9667	26.94	1.01	1.500			
0.3591	22984.03	3.9000	3.8999	0.9676	26.94	1.01	1.500			
0.3621	23171.33	3.8970	3.8970	0.9804	26.93	1.00	1.500			
0.3650	23360.24	3.8940	3.8940	0.9857	26.92	0.99	1.500			
0.3680	23549.84	3.8910	3.8910	0.9928	26.92	0.99	1.500			
0.3709	23740.09	3.8880	3.8880	1.0015	26.91	0.98	1.500			
0.3740	23934.19	3.8850	3.8850	1.0131	26.90	0.97	1.500			
0.3770	24129.83	3.8820	3.8819	1.0227	26.89	0.96	1.500			
0.3801	24327.88	3.8790	3.8791	1.0359	26.89	0.96	1.500			
0.3833	24528.29	3.8760	3.8760	1.0412	26.88	0.95	1.500			
0.3864	24729.50	3.8730	3.8730	1.0538	26.87	0.94	1.500			
0.3896	24931.69	3.8700	3.8700	1.0631	26.86	0.93	1.500			
0.3927	25135.81	3.8670	3.8671	1.0749	26.86	0.93	1.500			
0.3960	25342.86	3.8640	3.8639	1.0909	26.85	0.92	1.500			
0.3993	25553.48	3.8610	3.8610	1.1052	26.84	0.91	1.500			
0.4026	25766.67	3.8580	3.8580	1.1248	26.83	0.90	1.500			
0.4060	25985.39	3.8550	3.8550	1.1452	26.82	0.89	1.500			
0.4095	26208.51	3.8520	3.8520	1.1545	26.81	0.88	1.500			
0.4130	26431.52	3.8490	3.8490	1.1732	26.80	0.87	1.500			
0.4165	26658.12	3.8460	3.8461	1.1914	26.79	0.86	1.500			
0.4201	26888.32	3.8430	3.8429	1.2082	26.78	0.85	1.500			
0.4238	27120.81	3.8400	3.8400	1.2285	26.77	0.84	1.500			
0.4275	27357.67	3.8370	3.8371	1.2466	26.76	0.83	1.500			
0.4313	27602.09	3.8340	3.8340	1.2657	26.75	0.82	1.500			
0.4351	27846.42	3.8310	3.8310	1.2878	26.73	0.80	1.500			
0.4390	28092.90	3.8280	3.8280	1.3019	26.72	0.79	1.500			
0.4429	28344.12	3.8250	3.8250	1.3282	26.71	0.78	1.500			
0.4469	28599.58	3.8220	3.8220	1.3596	26.70	0.77	1.500			
0.4510	28862.49	3.8190	3.8190	1.3937	26.68	0.75	1.500			
0.4552	29135.31	3.8160	3.8159	1.4194	26.67	0.74	1.500			
0.4596	29411.67	3.8130	3.8130	1.4465	26.66	0.73	1.500			
0.4640	29694.26	3.8100	3.8101	1.4694	26.65	0.72	1.500			
0.4684	29978.09	3.8070	3.8070	1.4993	26.64	0.71	1.500			
0.4729	30265.17	3.8040	3.8040	1.5224	26.62	0.69	1.500			
0.4775	30558.02	3.8010	3.8010	1.5567	26.61	0.68	1.500			
0.4822	30861.65	3.7980	3.7981	1.5905	26.60	0.67	1.500			
0.4871	31172.68	3.7950	3.7950	1.6281	26.58	0.65	1.500			
0.4920	31488.67	3.7920	3.7920	1.6580	26.57	0.64	1.500			
0.4970	31810.05	3.7890	3.7890	1.6777	26.56	0.63	1.500			
0.5021	32136.53	3.7860	3.7860	1.7022	26.54	0.61	1.500			
0.5072	32462.67	3.7830	3.7830	1.7343	26.52	0.59	1.500			
0.5125	32800.36	3.7800	3.7800	1.7594	26.51	0.58	1.500			
0.5178	33138.26	3.7770	3.7770	1.7774	26.49	0.56	1.500	0.345	0.469	
0.5232	33484.77	3.7740	3.7741	1.7806	26.47	0.54	1.500			
0.5286	33827.67	3.7710	3.7710	1.7763	26.46	0.53	1.500			
0.5338	34165.53	3.7680	3.7680	1.7628	26.45	0.52	1.500			
0.5391	34504.55	3.7650	3.7650	1.7689	26.44	0.51	1.500			
0.5444	34843.73	3.7620	3.7619	1.7759	26.42	0.49	1.500			
0.5498	35187.18	3.7590	3.7590	1.7872	26.41	0.48	1.500			
0.5552	35529.79	3.7560	3.7560	1.7739	26.39	0.46	1.500			
0.5605	35869.23	3.7530	3.7530	1.7724	26.37	0.44	1.500			
0.5657	36202.80	3.7500	3.7500	1.7812	26.36	0.43	1.500			
0.5711	36548.03	3.7470	3.7469	1.8106	26.34	0.41	1.500			
0.5765	36894.93	3.7440	3.7440	1.8392	26.33	0.40	1.500			
0.5821	37252.42	3.7410	3.7411	1.8639	26.31	0.38	1.500			
0.5878	37616.89	3.7380	3.7380	1.8978	26.30	0.37	1.500			
0.5935	37983.01	3.7350	3.7350	1.9282	26.28	0.35	1.500			
0.5993	38353.02	3.7320	3.7320	1.9736	26.27	0.34	1.500			
0.6053	38737.61	3.7290	3.7290	2.0275	26.26	0.33	1.500			
0.6115	39134.96	3.7260	3.7260	2.0949	26.25	0.32	1.500			
0.6178	39540.23	3.7230	3.7230	2.1604	26.24	0.31	1.500			
0.6244	39961.24	3.7200	3.7200	2.2217	26.22	0.29	1.500			
0.6312	40395.72	3.7170	3.7170	2.2830	26.21	0.28	1.500			
0.6381	40835.65	3.7140	3.7140	2.3675	26.19	0.26	1.500			
0.6453	41299.92	3.7110	3.7109	2.4065	26.18	0.25	1.500			
0.6526	41769.49	3.7080	3.7081	2.4277	26.17	0.24	1.500			
0.6600	42240.20	3.7050	3.7050	2.3984	26.15	0.22	1.500			
0.6671	42694.18	3.7020	3.7020	2.3420	26.14	0.21	1.500			
0.6742	43147.62	3.6990	3.6990	2.2624	26.12	0.19	1.500			
0.6808	43571.89	3.6960	3.6960	2.1060	26.11	0.18	1.500			
0.6868	43953.43	3.6930	3.6930	1.9340	26.10	0.17	1.500			
0.6923	44308.66	3.6900	3.6901	1.7917	26.10	0.17	1.500			
0.6974	44634.67	3.6870	3.6870	1.6688	26.09	0.16	1.500			
0.7022	44940.75	3.6840	3.6840	1.5714	26.08	0.15	1.500			
0.7067	45228.45	3.6810	3.6810	1.4852	26.07	0.14	1.500			
0.7111	45507.20	3.6780	3.6780	1.4223	26.06	0.13	1.500			
0.7151	45768.67	3.6750	3.6750	1.3635	26.05	0.12	1.500			
0.7191	46022.64	3.6720	3.6721	1.3224	26.04	0.11	1.500			
0.7230	46269.74	3.6690	3.6690	1.2918	26.04	0.11	1.500			
0.7268	46513.48	3.6660	3.6659	1.2746	26.03	0.10	1.500			
0.7305	46754.20	3.6630	3.6630	1.2616	26.02	0.09	1.500			
0.7343	46996.22	3.6600	3.6600	1.2582	26.02	0.09	1.500			
0.7381	47236.16	3.6570	3.6570	1.2663	26.01	0.08	1.500			
0.7419	47479.68	3.6540	3.6540	1.2689	26.01	0.08	1.500			
0.7457	47723.96	3.6510	3.6509	1.2718	26.00	0.07	1.500			
0.7495	47968.91	3.6480	3.6480	1.2803	25.99	0.06	1.500			
0.7534	48216.84	3.6450	3.6451	1.2806	25.99	0.06	1.500			
0.7573	48464.98	3.6420	3.6420	1.2760	25.98	0.05	1.500			
0.7611	48711.57	3.6390	3.6389	1.2679	25.97	0.04	1.500			
0.7649	48951.27	3.6360	3.6361	1.2565	25.97	0.04	1.500			
0.7686	49191.93	3.6330	3.6330	1.2504	25.96	0.03	1.500			
0.7723	49429.73	3.6300	3.6300	1.2410	25.96	0.03	1.500			
0.7760	49666.22	3.6270	3.6270	1.2334	25.95	0.02	1.500			
0.7797	49903.68	3.6240	3.6240	1.2338	25.95	0.02	1.500			
0.7835	50142.74	3.6210	3.6210	1.2308	25.94	0.01	1.500			
0.7872	50378.37	3.6180	3.6180	1.2210	25.94	0.01	1.500			
0.7908	50611.68	3.6150	3.6150	1.2091	25.94	0.01	1.500			
0.7944	50844.27	3.6120	3.6120	1.1964	25.93	0.00	1.500			
0.7980	51073.40	3.6090	3.6090	1.1787	25.93	0.00	1.500			
0.8015	51298.00	3.6060	3.6060	1.1591	25.93	0.00	1.500			
0.8050	51519.24	3.6030	3.6029	1.1369	25.93	0.00	1.500			
0.8084	51735.40	3.6000	3.6000	1.1159	25.93	0.00	1.500			
0.8117	51947.12	3.5970	3.5970	1.0940	25.93	0.00	1.500			
0.8149	52154.87	3.5940	3.5940	1.0712	25.93	0.00	1.500			
0.8181	52359.03	3.5910	3.5909	1.0478	25.93	0.00	1.500			
0.8212	52559.61	3.5880	3.5880	1.0131	25.93	0.00	1.500			
0.8243	52753.08	3.5850	3.5849	0.9668	25.93	0.00	1.500			
0.8272	52942.30	3.5820	3.5820	0.8995	25.93	0.00	1.500			
0.8299	53111.30	3.5790	3.5790	0.8122	25.93	0.00	1.500			
0.8322	53263.19	3.5760	3.5761	0.7136	25.93	0.00	1.500			
0.8342	53390.48	3.5730	3.5730	0.6082	25.93	0.00	1.500			
0.8358	53491.81	3.5700	3.5701	0.5133	25.93	0.00	1.500			
0.8371	53577.06	3.5670	3.5670	0.4316	25.93	0.00	1.500			
0.8382	53645.64	3.5640	3.5639	0.3598	25.93	0.00	1.500			
0.8391	53705.46	3.5610	3.5609	0.3094	25.93	0.00	1.500			
0.8399	53756.78	3.5580	3.5579	0.2634	25.93	0.00	1.500			
0.8407	53802.22	3.5550	3.5550	0.2349	25.93	0.00	1.500			
0.8413	53842.53	3.5520	3.5521	0.2093	25.93	0.00	1.500			
0.8419	53879.72	3.5490	3.5489	0.1897	25.93	0.00	1.500			
0.8424	53913.67	3.5460	3.5459	0.1704	25.93	0.00	1.500			
0.8429	53943.75	3.5430	3.5431	0.1538	25.93	0.00	1.500			
0.8433	53971.60	3.5400	3.5400	0.1387	25.93	0.00	1.500			
0.8437	53997.04	3.5370	3.5370	0.1249	25.93	0.00	1.500			
0.8441	54019.61	3.5340	3.5340	0.1102	25.93	0.00	1.500			
0.8444	54038.95	3.5310	3.5311	0.0952	25.93	0.00	1.500			
0.8446	54056.02	3.5280	3.5281	0.0812	25.93	0.00	1.500			
0.8448	54070.24	3.5250	3.5253	0.0669	25.93	0.00	1.500			
0.8450	54081.90	3.5220	3.5223	0.0519	25.93	0.00	1.500			
0.8452	54090.44	3.5190	3.5198	0.0370	25.93	0.00	1.500			
