Ah_balance (normalized)	Ah_balance (mAh)	Voltage - fit (V)	Voltage -  interpolate (V)	dQ/dV (1/V)	Temperature (°C)	Temperature - diff (°C)	Current (C)	R_DC 0ms (mOhm)	R_DC 50ms (mOhm)	R_DC 50 ms PEC (mOhm)
0.2713	17361.88	3.9890	3.9890	0.8515	27.28	1.32	1.500			
0.2738	17523.66	3.9860	3.9859	0.8420	27.28	1.32	1.500			
0.2763	17685.75	3.9830	3.9831	0.8452	27.27	1.31	1.500			
0.2789	17848.47	3.9800	3.9800	0.8472	27.26	1.30	1.500			
0.2814	18011.68	3.9770	3.9769	0.8521	27.26	1.30	1.500			
0.2840	18175.45	3.9740	3.9740	0.8551	27.25	1.29	1.500			
0.2865	18338.53	3.9710	3.9710	0.8561	27.25	1.29	1.500			
0.2891	18504.64	3.9680	3.9680	0.8620	27.24	1.28	1.500			
0.2917	18669.83	3.9650	3.9650	0.8647	27.23	1.27	1.500			
0.2943	18836.52	3.9620	3.9620	0.8704	27.23	1.27	1.500			
0.2969	19004.42	3.9590	3.9589	0.8729	27.22	1.26	1.500			
0.2996	19171.95	3.9560	3.9560	0.8752	27.21	1.25	1.500			
0.3022	19340.20	3.9530	3.9530	0.8819	27.21	1.25	1.500			
0.3049	19510.74	3.9500	3.9500	0.8840	27.20	1.24	1.500			
0.3075	19681.59	3.9470	3.9469	0.8876	27.19	1.23	1.500			
0.3102	19851.95	3.9440	3.9441	0.8900	27.19	1.23	1.500			
0.3128	20022.24	3.9410	3.9410	0.8952	27.18	1.22	1.500			
0.3155	20194.89	3.9380	3.9380	0.9014	27.18	1.22	1.500			
0.3182	20367.55	3.9350	3.9350	0.9049	27.17	1.21	1.500			
0.3210	20541.59	3.9320	3.9320	0.9100	27.16	1.20	1.500			
0.3237	20719.08	3.9290	3.9291	0.9200	27.16	1.20	1.500			
0.3265	20895.49	3.9260	3.9260	0.9237	27.15	1.19	1.500			
0.3293	21074.48	3.9230	3.9230	0.9240	27.14	1.18	1.500			
0.3321	21252.68	3.9200	3.9200	0.9239	27.14	1.18	1.500			
0.3348	21428.82	3.9170	3.9170	0.9323	27.13	1.17	1.500			
0.3376	21606.43	3.9140	3.9141	0.9410	27.12	1.16	1.500			
0.3405	21788.81	3.9110	3.9110	0.9464	27.12	1.16	1.500			
0.3433	21971.21	3.9080	3.9079	0.9545	27.11	1.15	1.500			
0.3462	22155.94	3.9050	3.9051	0.9626	27.10	1.14	1.500			
0.3491	22343.06	3.9020	3.9021	0.9757	27.10	1.14	1.500			
0.3520	22530.40	3.8990	3.8989	0.9771	27.09	1.13	1.500			
0.3550	22717.15	3.8960	3.8960	0.9794	27.08	1.12	1.500			
0.3579	22904.44	3.8930	3.8930	0.9913	27.07	1.11	1.500			
0.3609	23097.81	3.8900	3.8900	1.0049	27.07	1.11	1.500			
0.3639	23291.84	3.8870	3.8869	1.0116	27.06	1.10	1.500			
0.3670	23486.80	3.8840	3.8840	1.0223	27.05	1.09	1.500			
0.3701	23683.70	3.8810	3.8811	1.0306	27.04	1.08	1.500			
0.3732	23884.01	3.8780	3.8780	1.0403	27.04	1.08	1.500			
0.3763	24082.41	3.8750	3.8750	1.0475	27.03	1.07	1.500			
0.3794	24283.51	3.8720	3.8720	1.0575	27.02	1.06	1.500			
0.3826	24488.52	3.8690	3.8690	1.0706	27.01	1.05	1.500			
0.3859	24694.46	3.8660	3.8660	1.0850	27.01	1.05	1.500			
0.3891	24902.98	3.8630	3.8631	1.0970	27.00	1.04	1.500			
0.3924	25115.88	3.8600	3.8599	1.1126	26.99	1.03	1.500			
0.3958	25330.50	3.8570	3.8571	1.1290	26.98	1.02	1.500			
0.3992	25548.87	3.8540	3.8539	1.1407	26.97	1.01	1.500			
0.4026	25769.41	3.8510	3.8510	1.1592	26.97	1.01	1.500			
0.4062	25995.52	3.8480	3.8480	1.1642	26.96	1.00	1.500			
0.4097	26218.28	3.8450	3.8450	1.1855	26.95	0.99	1.500			
0.4132	26447.13	3.8420	3.8421	1.2085	26.94	0.98	1.500			
0.4169	26679.85	3.8390	3.8388	1.2275	26.93	0.97	1.500			
0.4206	26917.38	3.8360	3.8361	1.2460	26.92	0.96	1.500			
0.4244	27159.15	3.8330	3.8330	1.2678	26.91	0.95	1.500			
0.4282	27405.13	3.8300	3.8300	1.2852	26.91	0.95	1.500			
0.4321	27655.65	3.8270	3.8269	1.3111	26.90	0.94	1.500			
0.4360	27905.43	3.8240	3.8240	1.3307	26.89	0.93	1.500			
0.4400	28162.57	3.8210	3.8211	1.3544	26.88	0.92	1.500			
0.4441	28424.75	3.8180	3.8179	1.3831	26.87	0.91	1.500			
0.4483	28693.31	3.8150	3.8150	1.4096	26.85	0.89	1.500			
0.4526	28967.37	3.8120	3.8120	1.4330	26.84	0.88	1.500			
0.4569	29244.64	3.8090	3.8090	1.4613	26.82	0.86	1.500			
0.4614	29528.39	3.8060	3.8060	1.4868	26.81	0.85	1.500			
0.4659	29816.58	3.8030	3.8030	1.5156	26.80	0.84	1.500			
0.4705	30109.94	3.8000	3.8000	1.5404	26.78	0.82	1.500			
0.4751	30409.07	3.7970	3.7971	1.5647	26.77	0.81	1.500			
0.4799	30712.45	3.7940	3.7940	1.5797	26.76	0.80	1.500			
0.4846	31017.53	3.7910	3.7910	1.6103	26.74	0.78	1.500			
0.4894	31324.79	3.7880	3.7881	1.6408	26.73	0.77	1.500			
0.4944	31644.26	3.7850	3.7849	1.6789	26.71	0.75	1.500			
0.4994	31960.35	3.7820	3.7822	1.6807	26.70	0.74	1.500			
0.5044	32283.78	3.7790	3.7792	1.7267	26.68	0.72	1.500			
0.5097	32619.68	3.7760	3.7763	1.7729	26.67	0.71	1.500	0.348	0.471	
0.5149	32956.45	3.7730	3.7733	1.7859	26.65	0.69	1.500			
0.5207	33327.28	3.7700	3.7699	1.8678	26.63	0.67	1.500			
0.5260	33660.87	3.7670	3.7670	1.7672	26.61	0.65	1.500			
0.5312	33997.28	3.7640	3.7640	1.7666	26.60	0.64	1.500			
0.5365	34335.62	3.7610	3.7610	1.7635	26.58	0.62	1.500			
0.5418	34674.77	3.7580	3.7579	1.7739	26.56	0.60	1.500			
0.5471	35016.56	3.7550	3.7551	1.7783	26.55	0.59	1.500			
0.5525	35359.13	3.7520	3.7520	1.7896	26.53	0.57	1.500			
0.5579	35707.61	3.7490	3.7490	1.8056	26.52	0.56	1.500			
0.5632	36045.19	3.7460	3.7461	1.8164	26.50	0.54	1.500			
0.5687	36398.96	3.7430	3.7430	1.8556	26.49	0.53	1.500			
0.5743	36757.33	3.7400	3.7399	1.8930	26.48	0.52	1.500			
0.5801	37123.33	3.7370	3.7371	1.9200	26.47	0.51	1.500			
0.5859	37496.37	3.7340	3.7340	1.9679	26.45	0.49	1.500			
0.5918	37875.57	3.7310	3.7309	2.0073	26.44	0.48	1.500			
0.5979	38264.46	3.7280	3.7281	2.0635	26.42	0.46	1.500			
0.6042	38669.24	3.7250	3.7250	2.1157	26.40	0.44	1.500			
0.6106	39081.20	3.7220	3.7220	2.1936	26.38	0.42	1.500			
0.6172	39503.67	3.7190	3.7189	2.2470	26.36	0.40	1.500			
0.6241	39942.38	3.7160	3.7161	2.3260	26.34	0.38	1.500			
0.6312	40397.40	3.7130	3.7130	2.3490	26.33	0.37	1.500			
0.6383	40850.91	3.7100	3.7101	2.3847	26.31	0.35	1.500			
0.6456	41317.78	3.7070	3.7071	2.4086	26.29	0.33	1.500			
0.6529	41785.99	3.7040	3.7040	2.3621	26.28	0.32	1.500			
0.6600	42238.21	3.7010	3.7010	2.2459	26.27	0.31	1.500			
0.6666	42659.88	3.6980	3.6980	2.0944	26.25	0.29	1.500			
0.6726	43045.44	3.6950	3.6950	1.9512	26.24	0.28	1.500			
0.6782	43407.21	3.6920	3.6920	1.8033	26.22	0.26	1.500			
0.6833	43728.52	3.6890	3.6890	1.6857	26.21	0.25	1.500			
0.6882	44044.37	3.6860	3.6861	1.5984	26.19	0.23	1.500			
0.6928	44338.18	3.6830	3.6827	1.5164	26.18	0.22	1.500			
0.6972	44622.72	3.6800	3.6801	1.4586	26.17	0.21	1.500			
0.7015	44893.69	3.6770	3.6770	1.4023	26.16	0.20	1.500			
0.7056	45156.15	3.6740	3.6739	1.3525	26.15	0.19	1.500			
0.7095	45406.81	3.6710	3.6711	1.3098	26.14	0.18	1.500			
0.7133	45650.88	3.6680	3.6680	1.2979	26.13	0.17	1.500			
0.7172	45899.51	3.6650	3.6649	1.2875	26.12	0.16	1.500			
0.7210	46141.87	3.6620	3.6620	1.2799	26.11	0.15	1.500			
0.7248	46387.36	3.6590	3.6590	1.2832	26.10	0.14	1.500			
0.7287	46636.10	3.6560	3.6560	1.2832	26.09	0.13	1.500			
0.7326	46883.59	3.6530	3.6530	1.2906	26.08	0.12	1.500			
0.7364	47130.07	3.6500	3.6500	1.2842	26.08	0.12	1.500			
0.7403	47377.34	3.6470	3.6470	1.2807	26.07	0.11	1.500			
0.7441	47624.43	3.6440	3.6440	1.2833	26.06	0.10	1.500			
0.7480	47869.92	3.6410	3.6411	1.2770	26.05	0.09	1.500			
0.7518	48115.55	3.6380	3.6380	1.2723	26.04	0.08	1.500			
0.7556	48360.16	3.6350	3.6349	1.2642	26.03	0.07	1.500			
0.7594	48600.07	3.6320	3.6321	1.2571	26.03	0.07	1.500			
0.7632	48841.68	3.6290	3.6290	1.2545	26.02	0.06	1.500			
0.7669	49081.42	3.6260	3.6260	1.2462	26.01	0.05	1.500			
0.7706	49319.58	3.6230	3.6230	1.2394	26.00	0.04	1.500			
0.7743	49557.87	3.6200	3.6200	1.2349	26.00	0.04	1.500			
0.7781	49796.16	3.6170	3.6169	1.2278	25.99	0.03	1.500			
0.7818	50033.50	3.6140	3.6140	1.2087	25.98	0.02	1.500			
0.7854	50262.89	3.6110	3.6110	1.1877	25.97	0.01	1.500			
0.7889	50490.03	3.6080	3.6081	1.1714	25.97	0.01	1.500			
0.7924	50713.45	3.6050	3.6048	1.1485	25.96	0.00	1.500			
0.7958	50930.06	3.6020	3.6020	1.1252	25.96	0.00	1.500			
0.7991	51144.18	3.5990	3.5991	1.1045	25.96	0.00	1.500			
0.8024	51355.85	3.5960	3.5960	1.0827	25.96	0.00	1.500			
0.8057	51563.49	3.5930	3.5930	1.0555	25.96	0.00	1.500			
0.8088	51764.89	3.5900	3.5899	1.0128	25.96	0.00	1.500			
0.8118	51957.98	3.5870	3.5869	0.9630	25.96	0.00	1.500			
0.8148	52145.58	3.5840	3.5840	0.8962	25.96	0.00	1.500			
0.8174	52312.88	3.5810	3.5810	0.8099	25.96	0.00	1.500			
0.8197	52463.79	3.5780	3.5781	0.7196	25.96	0.00	1.500			
0.8218	52592.23	3.5750	3.5750	0.6188	25.96	0.00	1.500			
0.8234	52695.92	3.5720	3.5720	0.5256	25.96	0.00	1.500			
0.8247	52783.29	3.5690	3.5690	0.4458	25.96	0.00	1.500			
0.8259	52857.82	3.5660	3.5661	0.3692	25.96	0.00	1.500			
0.8269	52920.47	3.5630	3.5629	0.3193	25.96	0.00	1.500			
0.8277	52972.68	3.5600	3.5600	0.2756	25.96	0.00	1.500			
0.8284	53019.30	3.5570	3.5570	0.2436	25.96	0.00	1.500			
0.8291	53061.84	3.5540	3.5539	0.2166	25.96	0.00	1.500			
0.8297	53100.14	3.5510	3.5510	0.1968	25.96	0.00	1.500			
0.8302	53135.37	3.5480	3.5481	0.1790	25.96	0.00	1.500			
0.8307	53167.91	3.5450	3.5449	0.1627	25.96	0.00	1.500			
0.8312	53197.60	3.5420	3.5420	0.1482	25.96	0.00	1.500			
0.8316	53224.46	3.5390	3.5391	0.1334	25.96	0.00	1.500			
0.8320	53248.67	3.5360	3.5360	0.1190	25.96	0.00	1.500			
0.8323	53270.28	3.5330	3.5330	0.1052	25.96	0.00	1.500			
0.8326	53289.09	3.5300	3.5300	0.0907	25.96	0.00	1.500			
0.8329	53304.90	3.5270	3.5271	0.0763	25.96	0.00	1.500			
0.8331	53318.46	3.5240	3.5242	0.0621	25.96	0.00	1.500			
0.8333	53328.97	3.5210	3.5214	0.0474	25.96	0.00	1.500			
0.8334	53336.67	3.5180	3.5189	0.0328	25.96	0.00	1.500			
