Ah_balance (normalized)	Ah_balance (mAh)	Voltage - fit (V)	Voltage -  interpolate (V)	dQ/dV (1/V)	Temperature (°C)	Temperature - diff (°C)	Current (C)	R_DC 0ms (mOhm)	R_DC 50ms (mOhm)	R_DC 50 ms PEC (mOhm)
0.2870	18368.54	3.9700	3.9700	0.8246	26.96	1.00	1.500			
0.2895	18530.00	3.9670	3.9670	0.8556	26.96	1.00	1.500			
0.2922	18699.90	3.9640	3.9640	0.8810	26.96	1.00	1.500			
0.2949	18871.51	3.9610	3.9610	0.8939	26.96	1.00	1.500			
0.2976	19045.06	3.9580	3.9580	0.9061	26.96	1.00	1.500			
0.3004	19223.38	3.9550	3.9550	0.9138	26.96	1.00	1.500			
0.3031	19399.15	3.9520	3.9520	0.9096	26.96	1.00	1.500			
0.3058	19573.12	3.9490	3.9490	0.9056	26.95	0.99	1.500			
0.3085	19746.72	3.9460	3.9460	0.9019	26.95	0.99	1.500			
0.3112	19919.04	3.9430	3.9430	0.9077	26.95	0.99	1.500			
0.3139	20092.05	3.9400	3.9400	0.9141	26.95	0.99	1.500			
0.3167	20266.06	3.9370	3.9370	0.9188	26.95	0.99	1.500			
0.3194	20444.00	3.9340	3.9340	0.9294	26.95	0.99	1.500			
0.3223	20624.45	3.9310	3.9310	0.9394	26.94	0.98	1.500			
0.3251	20805.85	3.9280	3.9280	0.9440	26.94	0.98	1.500			
0.3280	20989.16	3.9250	3.9250	0.9494	26.94	0.98	1.500			
0.3308	21170.72	3.9220	3.9220	0.9515	26.93	0.97	1.500			
0.3336	21353.32	3.9190	3.9190	0.9566	26.93	0.97	1.500			
0.3365	21538.10	3.9160	3.9160	0.9639	26.92	0.96	1.500			
0.3394	21723.54	3.9130	3.9130	0.9686	26.92	0.96	1.500			
0.3423	21910.16	3.9100	3.9100	0.9779	26.92	0.96	1.500			
0.3453	22098.51	3.9070	3.9070	0.9882	26.91	0.95	1.500			
0.3483	22289.16	3.9040	3.9039	0.9941	26.91	0.95	1.500			
0.3513	22480.92	3.9010	3.9011	1.0019	26.91	0.95	1.500			
0.3543	22675.14	3.8980	3.8979	1.0070	26.90	0.94	1.500			
0.3573	22868.60	3.8950	3.8950	1.0130	26.90	0.94	1.500			
0.3604	23062.97	3.8920	3.8920	1.0207	26.90	0.94	1.500			
0.3634	23257.44	3.8890	3.8891	1.0329	26.89	0.93	1.500			
0.3665	23456.90	3.8860	3.8860	1.0450	26.89	0.93	1.500			
0.3697	23659.77	3.8830	3.8830	1.0597	26.89	0.93	1.500			
0.3729	23863.92	3.8800	3.8800	1.0760	26.88	0.92	1.500			
0.3761	24073.06	3.8770	3.8770	1.0905	26.88	0.92	1.500			
0.3795	24286.18	3.8740	3.8740	1.0946	26.87	0.91	1.500			
0.3827	24495.63	3.8710	3.8710	1.1091	26.87	0.91	1.500			
0.3861	24708.65	3.8680	3.8681	1.1235	26.87	0.91	1.500			
0.3895	24925.57	3.8650	3.8649	1.1369	26.86	0.90	1.500			
0.3929	25144.15	3.8620	3.8620	1.1538	26.86	0.90	1.500			
0.3964	25366.85	3.8590	3.8591	1.1682	26.85	0.89	1.500			
0.3999	25593.48	3.8560	3.8561	1.1906	26.85	0.89	1.500			
0.4035	25825.93	3.8530	3.8529	1.2013	26.84	0.88	1.500			
0.4071	26056.16	3.8500	3.8500	1.2211	26.83	0.87	1.500			
0.4108	26290.59	3.8470	3.8470	1.2413	26.83	0.87	1.500			
0.4146	26531.81	3.8440	3.8440	1.2641	26.82	0.86	1.500			
0.4184	26775.43	3.8410	3.8410	1.2853	26.82	0.86	1.500			
0.4223	27025.72	3.8380	3.8381	1.3129	26.81	0.85	1.500			
0.4263	27281.80	3.8350	3.8350	1.3334	26.80	0.84	1.500			
0.4303	27540.53	3.8320	3.8320	1.3528	26.80	0.84	1.500			
0.4344	27799.19	3.8290	3.8291	1.3842	26.79	0.83	1.500			
0.4385	28065.40	3.8260	3.8260	1.4165	26.78	0.82	1.500			
0.4428	28341.82	3.8230	3.8229	1.4474	26.77	0.81	1.500			
0.4472	28622.70	3.8200	3.8201	1.4749	26.76	0.80	1.500			
0.4517	28908.95	3.8170	3.8171	1.5066	26.75	0.79	1.500			
0.4563	29201.47	3.8140	3.8140	1.5500	26.74	0.78	1.500			
0.4609	29499.56	3.8110	3.8110	1.5814	26.73	0.77	1.500			
0.4657	29805.46	3.8080	3.8079	1.6217	26.72	0.76	1.500			
0.4706	30120.36	3.8050	3.8050	1.6675	26.71	0.75	1.500			
0.4758	30448.09	3.8020	3.8021	1.7154	26.70	0.74	1.500			
0.4810	30782.68	3.7990	3.7989	1.7542	26.68	0.72	1.500			
0.4862	31119.14	3.7960	3.7960	1.7997	26.67	0.71	1.500			
0.4917	31467.77	3.7930	3.7930	1.8523	26.66	0.70	1.500			
0.4974	31830.59	3.7900	3.7900	1.9144	26.64	0.68	1.500			
0.5031	32201.53	3.7870	3.7871	1.9547	26.62	0.66	1.500			
0.5091	32581.61	3.7840	3.7841	2.0109	26.61	0.65	1.500			
0.5152	32972.01	3.7810	3.7809	2.0703	26.59	0.63	1.500			
0.5215	33373.80	3.7780	3.7780	2.1193	26.57	0.61	1.500			
0.5279	33788.58	3.7750	3.7750	2.1888	26.56	0.60	1.500			
0.5347	34218.91	3.7720	3.7721	2.2452	26.54	0.58	1.500			
0.5415	34655.34	3.7690	3.7691	2.2822	26.52	0.56	1.500			
0.5484	35096.87	3.7660	3.7660	2.3057	26.50	0.54	1.500			
0.5553	35537.20	3.7630	3.7631	2.3510	26.48	0.52	1.500			
0.5625	35997.62	3.7600	3.7598	2.3740	26.46	0.50	1.500	0.356	0.450	
0.5696	36457.51	3.7570	3.7571	2.3778	26.44	0.48	1.500			
0.5769	36919.36	3.7540	3.7541	2.3516	26.42	0.46	1.500			
0.5838	37363.22	3.7510	3.7510	2.2962	26.40	0.44	1.500			
0.5904	37788.26	3.7480	3.7477	2.2416	26.38	0.42	1.500			
0.5972	38221.10	3.7450	3.7451	2.2202	26.36	0.40	1.500			
0.6039	38649.27	3.7420	3.7420	2.2112	26.34	0.38	1.500			
0.6104	39068.48	3.7390	3.7391	2.1911	26.32	0.36	1.500			
0.6171	39492.81	3.7360	3.7359	2.1955	26.31	0.35	1.500			
0.6237	39915.07	3.7330	3.7330	2.1776	26.29	0.33	1.500			
0.6302	40332.83	3.7300	3.7301	2.2013	26.27	0.31	1.500			
0.6367	40748.86	3.7270	3.7270	2.2105	26.25	0.29	1.500			
0.6433	41172.46	3.7240	3.7241	2.2628	26.23	0.27	1.500			
0.6502	41609.82	3.7210	3.7210	2.2986	26.22	0.26	1.500			
0.6572	42058.16	3.7180	3.7181	2.3528	26.21	0.25	1.500			
0.6642	42510.78	3.7150	3.7149	2.4161	26.19	0.23	1.500			
0.6716	42979.37	3.7120	3.7121	2.4890	26.18	0.22	1.500			
0.6791	43459.95	3.7090	3.7090	2.6007	26.16	0.20	1.500			
0.6872	43978.62	3.7060	3.7059	2.7218	26.15	0.19	1.500			
0.6955	44512.56	3.7030	3.7030	2.8088	26.13	0.17	1.500			
0.7040	45059.03	3.7000	3.7000	2.8925	26.12	0.16	1.500			
0.7128	45621.31	3.6970	3.6969	2.9139	26.10	0.14	1.500			
0.7218	46193.95	3.6940	3.6941	2.8668	26.09	0.13	1.500			
0.7303	46737.52	3.6910	3.6910	2.7597	26.07	0.11	1.500			
0.7384	47256.00	3.6880	3.6879	2.5439	26.05	0.09	1.500			
0.7458	47730.73	3.6850	3.6851	2.3492	26.05	0.09	1.500			
0.7525	48157.03	3.6820	3.6820	2.1180	26.05	0.09	1.500			
0.7582	48527.70	3.6790	3.6791	1.9089	26.04	0.08	1.500			
0.7636	48873.01	3.6760	3.6760	1.7685	26.04	0.08	1.500			
0.7688	49202.43	3.6730	3.6730	1.6543	26.03	0.07	1.500			
0.7736	49507.58	3.6700	3.6699	1.5525	26.03	0.07	1.500			
0.7780	49792.89	3.6670	3.6671	1.4642	26.02	0.06	1.500			
0.7823	50064.59	3.6640	3.6640	1.3881	26.01	0.05	1.500			
0.7862	50316.12	3.6610	3.6609	1.3185	26.01	0.05	1.500			
0.7900	50561.36	3.6580	3.6579	1.2741	26.00	0.04	1.500			
0.7937	50794.06	3.6550	3.6551	1.2359	26.00	0.04	1.500			
0.7973	51029.96	3.6520	3.6520	1.2300	25.99	0.03	1.500			
0.8010	51261.30	3.6490	3.6489	1.2200	25.98	0.02	1.500			
0.8045	51491.10	3.6460	3.6460	1.2314	25.98	0.02	1.500			
0.8082	51727.93	3.6430	3.6430	1.2483	25.97	0.01	1.500			
0.8120	51969.90	3.6400	3.6400	1.2713	25.97	0.01	1.500			
0.8159	52216.78	3.6370	3.6368	1.2912	25.96	-0.00	1.500			
0.8198	52470.03	3.6340	3.6341	1.3053	25.95	-0.01	1.500			
0.8238	52724.44	3.6310	3.6310	1.3171	25.95	-0.01	1.500			
0.8278	52980.08	3.6280	3.6280	1.3161	25.95	-0.01	1.500			
0.8317	53230.25	3.6250	3.6250	1.3093	25.94	-0.02	1.500			
0.8356	53481.58	3.6220	3.6220	1.3100	25.94	-0.02	1.500			
0.8396	53731.52	3.6190	3.6190	1.3065	25.93	-0.03	1.500			
0.8435	53982.80	3.6160	3.6160	1.3062	25.93	-0.03	1.500			
0.8474	54233.61	3.6130	3.6130	1.3092	25.93	-0.03	1.500			
0.8514	54487.45	3.6100	3.6100	1.3061	25.93	-0.03	1.500			
0.8553	54737.98	3.6070	3.6070	1.3004	25.92	-0.04	1.500			
0.8592	54988.40	3.6040	3.6040	1.2916	25.92	-0.04	1.500			
0.8631	55236.44	3.6010	3.6011	1.2823	25.92	-0.04	1.500			
0.8669	55482.88	3.5980	3.5980	1.2644	25.92	-0.04	1.500			
0.8707	55723.63	3.5950	3.5950	1.2453	25.92	-0.04	1.500			
0.8744	55960.77	3.5920	3.5920	1.2263	25.92	-0.04	1.500			
0.8780	56195.06	3.5890	3.5890	1.2071	25.92	-0.04	1.500			
0.8816	56420.98	3.5860	3.5860	1.1960	25.92	-0.04	1.500			
0.8851	56647.58	3.5830	3.5831	1.1974	25.92	-0.04	1.500			
0.8887	56873.85	3.5800	3.5800	1.2031	25.92	-0.04	1.500			
0.8923	57106.87	3.5770	3.5770	1.2174	25.92	-0.04	1.500			
0.8960	57344.98	3.5740	3.5740	1.2204	25.93	-0.03	1.500			
0.8999	57593.62	3.5710	3.5709	1.1725	25.93	-0.03	1.500			
0.9036	57832.56	3.5680	3.5680	1.1068	25.94	-0.02	1.500			
0.9070	58046.95	3.5650	3.5652	0.9854	25.95	-0.01	1.500			
0.9098	58226.25	3.5620	3.5621	0.8358	25.95	-0.01	1.500			
0.9119	58362.28	3.5590	3.5592	0.6826	25.95	-0.01	1.500			
0.9136	58467.98	3.5560	3.5560	0.5486	25.96	-0.00	1.500			
0.9149	58552.46	3.5530	3.5530	0.4207	25.96	-0.00	1.500			
0.9159	58620.77	3.5500	3.5499	0.3489	25.96	0.00	1.500			
0.9168	58674.54	3.5470	3.5469	0.2871	25.96	0.00	1.500			
0.9175	58721.25	3.5440	3.5440	0.2450	25.96	0.00	1.500			
0.9182	58761.81	3.5410	3.5410	0.2074	25.96	0.00	1.500			
0.9187	58797.36	3.5380	3.5380	0.1823	25.97	0.01	1.500			
0.9192	58828.83	3.5350	3.5349	0.1606	25.97	0.01	1.500			
0.9196	58857.20	3.5320	3.5320	0.1390	25.97	0.01	1.500			
0.9200	58882.20	3.5290	3.5290	0.1214	25.97	0.01	1.500			
0.9204	58903.59	3.5260	3.5260	0.1036	25.97	0.01	1.500			
0.9207	58921.99	3.5230	3.5231	0.0863	25.97	0.01	1.500			
0.9209	58936.71	3.5200	3.5202	0.0691	25.97	0.01	1.500			
0.9211	58948.33	3.5170	3.5173	0.0520	25.97	0.01	1.500			
