Ah_balance (normalized)	Ah_balance (mAh)	Voltage - fit (V)	Voltage -  interpolate (V)	dQ/dV (1/V)	Temperature (°C)	Temperature - diff (°C)	Current (C)	R_DC 0ms (mOhm)	R_DC 50ms (mOhm)	R_DC 50 ms PEC (mOhm)
0.2914	18648.89	3.9890	3.9890	0.8275	27.33	1.37	1.500			
0.2939	18810.75	3.9860	3.9860	0.8397	27.33	1.37	1.500			
0.2964	18971.20	3.9830	3.9829	0.8382	27.32	1.36	1.500			
0.2989	19131.06	3.9800	3.9801	0.8417	27.32	1.36	1.500			
0.3015	19293.71	3.9770	3.9770	0.8446	27.31	1.35	1.500			
0.3040	19455.07	3.9740	3.9740	0.8461	27.31	1.35	1.500			
0.3065	19616.91	3.9710	3.9710	0.8498	27.30	1.34	1.500			
0.3091	19781.59	3.9680	3.9681	0.8555	27.30	1.34	1.500			
0.3117	19947.91	3.9650	3.9649	0.8633	27.29	1.33	1.500			
0.3143	20113.01	3.9620	3.9620	0.8651	27.29	1.33	1.500			
0.3169	20279.06	3.9590	3.9591	0.8685	27.28	1.32	1.500			
0.3195	20448.23	3.9560	3.9559	0.8704	27.28	1.32	1.500			
0.3221	20615.08	3.9530	3.9530	0.8687	27.27	1.31	1.500			
0.3247	20780.44	3.9500	3.9501	0.8726	27.27	1.31	1.500			
0.3273	20948.38	3.9470	3.9470	0.8767	27.26	1.30	1.500			
0.3300	21116.99	3.9440	3.9439	0.8811	27.25	1.29	1.500			
0.3326	21286.71	3.9410	3.9410	0.8868	27.25	1.29	1.500			
0.3353	21457.89	3.9380	3.9380	0.8925	27.24	1.28	1.500			
0.3380	21630.65	3.9350	3.9351	0.8986	27.23	1.27	1.500			
0.3407	21802.85	3.9320	3.9319	0.9056	27.22	1.26	1.500			
0.3434	21976.80	3.9290	3.9290	0.9091	27.22	1.26	1.500			
0.3461	22152.60	3.9260	3.9259	0.9151	27.21	1.25	1.500			
0.3489	22329.02	3.9230	3.9230	0.9176	27.20	1.24	1.500			
0.3517	22506.42	3.9200	3.9200	0.9225	27.19	1.23	1.500			
0.3544	22683.10	3.9170	3.9170	0.9282	27.19	1.23	1.500			
0.3572	22861.26	3.9140	3.9140	0.9341	27.18	1.22	1.500			
0.3600	23039.92	3.9110	3.9110	0.9433	27.17	1.21	1.500			
0.3629	23222.64	3.9080	3.9080	0.9576	27.17	1.21	1.500			
0.3658	23408.58	3.9050	3.9050	0.9652	27.16	1.20	1.500			
0.3687	23597.06	3.9020	3.9019	0.9725	27.15	1.19	1.500			
0.3716	23784.18	3.8990	3.8991	0.9739	27.15	1.19	1.500			
0.3745	23970.31	3.8960	3.8960	0.9790	27.14	1.18	1.500			
0.3775	24157.72	3.8930	3.8929	0.9875	27.13	1.17	1.500			
0.3804	24345.85	3.8900	3.8900	0.9930	27.12	1.16	1.500			
0.3834	24538.05	3.8870	3.8870	1.0025	27.11	1.15	1.500			
0.3865	24733.61	3.8840	3.8840	1.0191	27.10	1.14	1.500			
0.3895	24930.38	3.8810	3.8810	1.0288	27.09	1.13	1.500			
0.3926	25128.35	3.8780	3.8780	1.0414	27.08	1.12	1.500			
0.3958	25329.05	3.8750	3.8750	1.0509	27.07	1.11	1.500			
0.3989	25530.98	3.8720	3.8720	1.0629	27.06	1.10	1.500			
0.4021	25737.45	3.8690	3.8690	1.0766	27.05	1.09	1.500			
0.4054	25946.56	3.8660	3.8660	1.0892	27.04	1.08	1.500			
0.4087	26155.03	3.8630	3.8630	1.1031	27.03	1.07	1.500			
0.4120	26367.81	3.8600	3.8600	1.1193	27.02	1.06	1.500			
0.4154	26585.06	3.8570	3.8569	1.1287	27.02	1.06	1.500			
0.4188	26803.24	3.8540	3.8541	1.1460	27.01	1.05	1.500			
0.4223	27025.04	3.8510	3.8510	1.1595	27.00	1.04	1.500			
0.4258	27248.64	3.8480	3.8480	1.1772	26.99	1.03	1.500			
0.4293	27475.33	3.8450	3.8450	1.1945	26.98	1.02	1.500			
0.4329	27705.03	3.8420	3.8420	1.2139	26.96	1.00	1.500			
0.4366	27939.70	3.8390	3.8390	1.2377	26.95	0.99	1.500			
0.4403	28181.21	3.8360	3.8360	1.2577	26.94	0.98	1.500			
0.4441	28423.67	3.8330	3.8331	1.2777	26.93	0.97	1.500			
0.4480	28671.59	3.8300	3.8300	1.3071	26.92	0.96	1.500			
0.4520	28925.36	3.8270	3.8270	1.3254	26.90	0.94	1.500			
0.4560	29181.76	3.8240	3.8240	1.3457	26.89	0.93	1.500			
0.4600	29442.09	3.8210	3.8211	1.3679	26.87	0.91	1.500			
0.4642	29707.32	3.8180	3.8181	1.3945	26.86	0.90	1.500			
0.4684	29978.80	3.8150	3.8149	1.4233	26.84	0.88	1.500			
0.4727	30254.32	3.8120	3.8120	1.4441	26.83	0.87	1.500			
0.4771	30534.02	3.8090	3.8090	1.4726	26.81	0.85	1.500			
0.4816	30819.97	3.8060	3.8060	1.5055	26.80	0.84	1.500			
0.4861	31110.93	3.8030	3.8029	1.5244	26.78	0.82	1.500			
0.4907	31404.24	3.8000	3.8000	1.5525	26.76	0.80	1.500			
0.4954	31704.83	3.7970	3.7971	1.5827	26.75	0.79	1.500			
0.5002	32014.62	3.7940	3.7940	1.6054	26.73	0.77	1.500			
0.5050	32322.16	3.7910	3.7910	1.6342	26.71	0.75	1.500			
0.5100	32637.67	3.7880	3.7880	1.6580	26.70	0.74	1.500			
0.5150	32958.77	3.7850	3.7850	1.6802	26.68	0.72	1.500			
0.5201	33288.05	3.7820	3.7820	1.7012	26.67	0.71	1.502	0.344	0.476	
0.5253	33617.55	3.7790	3.7790	1.7132	26.65	0.69	1.500			
0.5304	33948.58	3.7760	3.7761	1.7059	26.63	0.67	1.500			
0.5355	34274.70	3.7730	3.7730	1.6926	26.62	0.66	1.500			
0.5406	34599.37	3.7700	3.7701	1.6956	26.60	0.64	1.500			
0.5456	34920.49	3.7670	3.7670	1.6954	26.58	0.62	1.500			
0.5507	35246.85	3.7640	3.7639	1.7118	26.57	0.61	1.500			
0.5559	35576.28	3.7610	3.7610	1.7223	26.55	0.59	1.500			
0.5611	35911.83	3.7580	3.7580	1.7421	26.54	0.58	1.500			
0.5663	36246.28	3.7550	3.7550	1.7457	26.52	0.56	1.500			
0.5716	36580.11	3.7520	3.7520	1.7564	26.51	0.55	1.500			
0.5768	36916.52	3.7490	3.7490	1.7730	26.49	0.53	1.500			
0.5822	37259.65	3.7460	3.7460	1.8013	26.48	0.52	1.500			
0.5876	37608.48	3.7430	3.7430	1.8317	26.46	0.50	1.500			
0.5931	37961.40	3.7400	3.7400	1.8658	26.45	0.49	1.500			
0.5988	38322.86	3.7370	3.7370	1.9102	26.43	0.47	1.500			
0.6046	38692.05	3.7340	3.7340	1.9593	26.42	0.46	1.500			
0.6106	39075.99	3.7310	3.7310	1.9897	26.40	0.44	1.500			
0.6166	39461.82	3.7280	3.7280	2.0407	26.39	0.43	1.500			
0.6228	39856.71	3.7250	3.7250	2.1169	26.37	0.41	1.500			
0.6292	40269.56	3.7220	3.7219	2.1880	26.36	0.40	1.500			
0.6359	40695.52	3.7190	3.7191	2.2740	26.34	0.38	1.500			
0.6429	41143.60	3.7160	3.7160	2.3208	26.32	0.36	1.500			
0.6498	41585.50	3.7130	3.7130	2.3384	26.30	0.34	1.500			
0.6569	42041.75	3.7100	3.7101	2.3891	26.28	0.32	1.500			
0.6641	42504.72	3.7070	3.7070	2.3575	26.27	0.31	1.500			
0.6712	42958.99	3.7040	3.7040	2.2655	26.25	0.29	1.500			
0.6780	43389.51	3.7010	3.7009	2.1562	26.24	0.28	1.500			
0.6842	43789.68	3.6980	3.6980	2.0036	26.22	0.26	1.500			
0.6900	44157.12	3.6950	3.6950	1.8548	26.21	0.25	1.500			
0.6953	44496.54	3.6920	3.6920	1.7260	26.20	0.24	1.500			
0.7001	44807.43	3.6890	3.6890	1.6112	26.19	0.23	1.500			
0.7048	45108.87	3.6860	3.6860	1.5399	26.18	0.22	1.500			
0.7093	45395.46	3.6830	3.6830	1.4699	26.16	0.20	1.500			
0.7136	45670.68	3.6800	3.6800	1.4058	26.15	0.19	1.500			
0.7177	45931.31	3.6770	3.6771	1.3644	26.14	0.18	1.500			
0.7216	46184.71	3.6740	3.6740	1.3204	26.14	0.18	1.500			
0.7255	46431.16	3.6710	3.6709	1.2965	26.13	0.17	1.500			
0.7293	46674.17	3.6680	3.6680	1.2823	26.12	0.16	1.500			
0.7331	46917.94	3.6650	3.6651	1.2758	26.11	0.15	1.500			
0.7369	47163.65	3.6620	3.6620	1.2767	26.10	0.14	1.500			
0.7408	47409.50	3.6590	3.6590	1.2712	26.09	0.13	1.500			
0.7446	47651.41	3.6560	3.6560	1.2638	26.08	0.12	1.500			
0.7484	47895.00	3.6530	3.6531	1.2647	26.07	0.11	1.500			
0.7521	48137.37	3.6500	3.6499	1.2607	26.06	0.10	1.500			
0.7559	48378.81	3.6470	3.6470	1.2539	26.05	0.09	1.500			
0.7597	48621.60	3.6440	3.6440	1.2430	26.04	0.08	1.500			
0.7634	48860.66	3.6410	3.6410	1.2306	26.03	0.07	1.500			
0.7671	49094.37	3.6380	3.6380	1.2233	26.03	0.07	1.500			
0.7707	49325.78	3.6350	3.6350	1.2154	26.02	0.06	1.500			
0.7743	49555.94	3.6320	3.6319	1.2102	26.01	0.05	1.500			
0.7780	49789.38	3.6290	3.6288	1.2026	26.00	0.04	1.500			
0.7816	50021.81	3.6260	3.6261	1.1972	25.99	0.03	1.500			
0.7852	50253.27	3.6230	3.6230	1.1843	25.99	0.03	1.500			
0.7888	50481.65	3.6200	3.6200	1.1712	25.98	0.02	1.500			
0.7922	50701.73	3.6170	3.6170	1.1426	25.98	0.02	1.500			
0.7956	50920.01	3.6140	3.6140	1.1271	25.97	0.01	1.500			
0.7990	51134.24	3.6110	3.6110	1.1095	25.97	0.01	1.500			
0.8023	51347.44	3.6080	3.6079	1.0907	25.96	0.00	1.500			
0.8056	51556.03	3.6050	3.6050	1.0686	25.96	0.00	1.500			
0.8087	51758.53	3.6020	3.6021	1.0486	25.96	0.00	1.500			
0.8118	51957.69	3.5990	3.5990	1.0245	25.96	0.00	1.500			
0.8149	52153.60	3.5960	3.5959	1.0000	25.96	0.00	1.500			
0.8179	52344.96	3.5930	3.5930	0.9594	25.96	0.00	1.500			
0.8207	52527.00	3.5900	3.5900	0.9161	25.96	0.00	1.500			
0.8235	52706.36	3.5870	3.5870	0.8579	25.96	0.00	1.500			
0.8260	52866.22	3.5840	3.5840	0.7818	25.96	0.00	1.500			
0.8283	53011.16	3.5810	3.5810	0.6929	25.96	0.00	1.500			
0.8303	53136.44	3.5780	3.5779	0.6028	25.96	0.00	1.500			
0.8319	53240.80	3.5750	3.5751	0.5165	25.96	0.00	1.500			
0.8333	53329.35	3.5720	3.5720	0.4391	25.96	0.00	1.500			
0.8344	53401.49	3.5690	3.5689	0.3709	25.96	0.00	1.500			
0.8354	53464.15	3.5660	3.5660	0.3206	25.96	0.00	1.500			
0.8362	53516.72	3.5630	3.5629	0.2700	25.96	0.00	1.500			
0.8369	53563.75	3.5600	3.5599	0.2400	25.96	0.00	1.500			
0.8376	53603.70	3.5570	3.5569	0.2115	25.96	0.00	1.500			
0.8381	53640.71	3.5540	3.5540	0.1901	25.96	0.00	1.500			
0.8387	53675.14	3.5510	3.5510	0.1712	25.96	0.00	1.500			
0.8391	53705.48	3.5480	3.5481	0.1545	25.96	0.00	1.500			
0.8396	53733.52	3.5450	3.5450	0.1385	25.96	0.00	1.500			
0.8400	53758.04	3.5420	3.5420	0.1227	25.96	0.00	1.500			
0.8403	53780.21	3.5390	3.5390	0.1082	25.96	0.00	1.500			
0.8406	53799.32	3.5360	3.5361	0.0935	25.96	0.00	1.500			
0.8409	53816.11	3.5330	3.5331	0.0795	25.96	0.00	1.500			
0.8411	53829.99	3.5300	3.5302	0.0651	25.96	0.00	1.500			
0.8413	53841.35	3.5270	3.5277	0.0499	25.96	0.00	1.500			
0.8414	53849.49	3.5240	3.5248	0.0348	25.96	0.00	1.500			
