Ah_balance (normalized)	Ah_balance (mAh)	Voltage - fit (V)	Voltage -  interpolate (V)	dQ/dV (1/V)	Temperature (°C)	Temperature - diff (°C)	Current (C)	R_DC 0ms (mOhm)	R_DC 50ms (mOhm)	R_DC 50 ms PEC (mOhm)
0.2117	13549.62	3.9100	3.9096	-0.1248	25.79	0.00	-1.500			
0.2121	13577.42	3.9070	3.9069	-0.1615	25.79	0.00	-1.500			
0.2127	13612.54	3.9040	3.9040	-0.1952	25.79	0.00	-1.500			
0.2133	13653.60	3.9010	3.9010	-0.2261	25.79	0.00	-1.500			
0.2141	13700.27	3.8980	3.8980	-0.2557	25.79	-0.00	-1.500			
0.2149	13752.90	3.8950	3.8951	-0.2868	25.79	-0.00	-1.500			
0.2158	13810.31	3.8920	3.8920	-0.3154	25.79	-0.00	-1.500			
0.2168	13873.73	3.8890	3.8890	-0.3440	25.79	-0.00	-1.500			
0.2178	13942.35	3.8860	3.8860	-0.3743	25.79	-0.00	-1.500			
0.2190	14016.53	3.8830	3.8831	-0.4068	25.79	-0.00	-1.500			
0.2203	14097.79	3.8800	3.8799	-0.4377	25.79	-0.00	-1.500			
0.2216	14185.36	3.8770	3.8770	-0.4678	25.79	-0.00	-1.500			
0.2231	14278.64	3.8740	3.8740	-0.4940	25.79	-0.00	-1.500			
0.2246	14377.02	3.8710	3.8711	-0.5224	25.79	-0.00	-1.500			
0.2263	14480.44	3.8680	3.8680	-0.5470	25.78	-0.01	-1.500			
0.2279	14586.89	3.8650	3.8650	-0.5712	25.78	-0.01	-1.500			
0.2297	14698.46	3.8620	3.8621	-0.5962	25.78	-0.01	-1.500			
0.2315	14815.04	3.8590	3.8590	-0.6236	25.78	-0.01	-1.500			
0.2334	14938.96	3.8560	3.8559	-0.6444	25.78	-0.01	-1.500			
0.2354	15066.07	3.8530	3.8530	-0.6675	25.78	-0.01	-1.500			
0.2374	15196.78	3.8500	3.8500	-0.6811	25.78	-0.01	-1.500			
0.2395	15330.93	3.8470	3.8470	-0.6968	25.78	-0.01	-1.500			
0.2416	15465.21	3.8440	3.8439	-0.7081	25.78	-0.01	-1.500			
0.2438	15601.87	3.8410	3.8411	-0.7160	25.78	-0.01	-1.500			
0.2459	15740.41	3.8380	3.8379	-0.7238	25.79	-0.00	-1.500			
0.2481	15880.44	3.8350	3.8350	-0.7348	25.79	-0.00	-1.500			
0.2503	16022.17	3.8320	3.8321	-0.7422	25.79	-0.00	-1.500			
0.2526	16166.21	3.8290	3.8289	-0.7511	25.79	0.00	-1.500			
0.2549	16311.31	3.8260	3.8260	-0.7575	25.79	0.00	-1.500			
0.2572	16457.77	3.8230	3.8231	-0.7616	25.79	0.00	-1.500			
0.2595	16605.85	3.8200	3.8200	-0.7658	25.80	0.01	-1.500			
0.2618	16752.52	3.8170	3.8169	-0.7684	25.80	0.01	-1.500			
0.2640	16899.11	3.8140	3.8141	-0.7689	25.80	0.01	-1.500			
0.2664	17047.50	3.8110	3.8109	-0.7710	25.80	0.01	-1.500			
0.2687	17196.11	3.8080	3.8080	-0.7723	25.81	0.02	-1.500			
0.2710	17344.32	3.8050	3.8051	-0.7746	25.81	0.02	-1.500			
0.2733	17492.85	3.8020	3.8020	-0.7807	25.82	0.03	-1.500			
0.2757	17643.04	3.7990	3.7988	-0.7834	25.82	0.03	-1.500			
0.2780	17792.78	3.7960	3.7961	-0.7844	25.82	0.03	-1.500			
0.2804	17943.39	3.7930	3.7931	-0.7959	25.83	0.04	-1.500			
0.2828	18099.35	3.7900	3.7900	-0.7956	25.83	0.04	-1.500			
0.2852	18252.59	3.7870	3.7869	-0.7950	25.83	0.04	-1.500			
0.2876	18404.52	3.7840	3.7841	-0.7921	25.84	0.05	-1.500			
0.2899	18556.03	3.7810	3.7809	-0.7911	25.84	0.05	-1.500			
0.2923	18708.35	3.7780	3.7780	-0.7899	25.85	0.06	-1.500			
0.2947	18859.82	3.7750	3.7750	-0.7842	25.85	0.06	-1.500			
0.2970	19007.57	3.7720	3.7721	-0.7840	25.86	0.07	-1.500			
0.2994	19160.26	3.7690	3.7690	-0.7909	25.87	0.08	-1.500			
0.3017	19310.98	3.7660	3.7660	-0.7898	25.87	0.08	-1.500			
0.3041	19462.78	3.7630	3.7630	-0.7938	25.88	0.09	-1.500			
0.3065	19616.45	3.7600	3.7600	-0.7970	25.88	0.09	-1.500			
0.3089	19771.47	3.7570	3.7570	-0.7954	25.89	0.10	-1.500			
0.3113	19925.01	3.7540	3.7539	-0.7962	25.89	0.10	-1.500			
0.3137	20076.24	3.7510	3.7513	-0.7924	25.90	0.11	-1.500			
0.3161	20227.94	3.7480	3.7479	-0.7900	25.91	0.12	-1.500			
0.3184	20378.87	3.7450	3.7450	-0.7916	25.91	0.12	-1.500			
0.3208	20529.02	3.7420	3.7420	-0.7909	25.92	0.13	-1.500			
0.3232	20683.94	3.7390	3.7390	-0.7961	25.92	0.13	-1.500			
0.3256	20835.46	3.7360	3.7360	-0.7962	25.93	0.14	-1.500			
0.3279	20987.80	3.7330	3.7331	-0.7950	25.93	0.14	-1.500			
0.3303	21141.15	3.7300	3.7300	-0.7960	25.94	0.15	-1.500			
0.3327	21293.48	3.7270	3.7270	-0.7987	25.95	0.16	-1.500			
0.3351	21446.81	3.7240	3.7240	-0.7985	25.95	0.16	-1.500			
0.3375	21600.93	3.7210	3.7210	-0.7982	25.96	0.17	-1.500			
0.3399	21754.24	3.7180	3.7180	-0.8005	25.96	0.17	-1.500			
0.3423	21905.92	3.7150	3.7151	-0.8017	25.97	0.18	-1.500			
0.3447	22061.02	3.7120	3.7119	-0.8076	25.97	0.18	-1.500			
0.3471	22215.36	3.7090	3.7090	-0.8129	25.98	0.19	-1.500			
0.3495	22370.91	3.7060	3.7060	-0.8226	25.99	0.20	-1.500			
0.3521	22531.52	3.7030	3.7030	-0.8281	25.99	0.20	-1.500			
0.3545	22691.13	3.7000	3.6999	-0.8354	26.00	0.21	-1.500			
0.3571	22851.21	3.6970	3.6971	-0.8411	26.00	0.21	-1.500			
0.3596	23013.50	3.6940	3.6940	-0.8489	26.01	0.22	-1.500			
0.3621	23176.72	3.6910	3.6909	-0.8589	26.02	0.23	-1.500			
0.3647	23341.79	3.6880	3.6880	-0.8690	26.02	0.23	-1.500			
0.3673	23507.15	3.6850	3.6851	-0.8787	26.03	0.24	-1.500			
0.3700	23677.82	3.6820	3.6820	-0.8995	26.03	0.24	-1.500			
0.3727	23852.23	3.6790	3.6790	-0.9092	26.03	0.24	-1.500			
0.3754	24028.71	3.6760	3.6759	-0.9248	26.04	0.25	-1.500			
0.3782	24207.21	3.6730	3.6731	-0.9439	26.04	0.25	-1.500			
0.3811	24390.92	3.6700	3.6700	-0.9559	26.05	0.26	-1.500			
0.3840	24575.87	3.6670	3.6669	-0.9689	26.05	0.26	-1.500			
0.3869	24762.41	3.6640	3.6639	-0.9849	26.06	0.27	-1.500			
0.3899	24950.85	3.6610	3.6610	-0.9972	26.06	0.27	-1.500			
0.3929	25144.85	3.6580	3.6580	-1.0175	26.07	0.28	-1.500			
0.3959	25340.06	3.6550	3.6550	-1.0367	26.07	0.28	-1.500			
0.3991	25539.61	3.6520	3.6521	-1.0550	26.08	0.29	-1.500			
0.4023	25747.06	3.6490	3.6490	-1.0853	26.08	0.29	-1.500			
0.4056	25956.83	3.6460	3.6460	-1.1099	26.09	0.30	-1.500			
0.4090	26173.39	3.6430	3.6429	-1.1294	26.09	0.30	-1.500			
0.4124	26391.80	3.6400	3.6401	-1.1562	26.10	0.31	-1.500			
0.4159	26615.72	3.6370	3.6370	-1.1810	26.10	0.31	-1.500			
0.4194	26843.43	3.6340	3.6340	-1.2043	26.10	0.31	-1.500			
0.4231	27078.22	3.6310	3.6309	-1.2299	26.10	0.31	-1.500			
0.4268	27315.35	3.6280	3.6281	-1.2590	26.10	0.31	-1.500			
0.4307	27561.70	3.6250	3.6249	-1.2844	26.10	0.31	-1.500			
0.4346	27812.82	3.6220	3.6220	-1.3087	26.10	0.31	-1.500			
0.4385	28064.21	3.6190	3.6189	-1.3351	26.10	0.31	-1.500			
0.4425	28321.24	3.6160	3.6160	-1.3636	26.10	0.31	-1.500			
0.4466	28583.07	3.6130	3.6130	-1.4045	26.10	0.31	-1.500			
0.4508	28854.23	3.6100	3.6100	-1.4379	26.10	0.31	-1.500			
0.4553	29136.94	3.6070	3.6070	-1.4705	26.10	0.31	-1.500			
0.4598	29424.87	3.6040	3.6039	-1.4962	26.10	0.31	-1.500			
0.4643	29717.42	3.6010	3.6012	-1.5200	26.10	0.31	-1.500			
0.4689	30009.91	3.5980	3.5980	-1.5338	26.10	0.31	-1.500			
0.4735	30301.59	3.5950	3.5950	-1.5639	26.10	0.31	-1.500			
0.4782	30601.92	3.5920	3.5920	-1.5987	26.10	0.31	-1.500			
0.4830	30913.03	3.5890	3.5889	-1.6271	26.10	0.31	-1.500			
0.4880	31230.31	3.5860	3.5860	-1.6541	26.10	0.31	-1.500			
0.4930	31553.99	3.5830	3.5831	-1.6837	26.10	0.31	-1.500			
0.4981	31879.41	3.5800	3.5800	-1.7099	26.10	0.31	-1.500			
0.5033	32208.61	3.5770	3.5770	-1.7322	26.10	0.31	-1.500			
0.5085	32541.03	3.5740	3.5740	-1.7546	26.10	0.31	-1.500			
0.5137	32879.99	3.5710	3.5711	-1.7824	26.10	0.31	-1.500			
0.5191	33224.68	3.5680	3.5680	-1.8247	26.10	0.31	-1.500			
0.5247	33583.54	3.5650	3.5649	-1.8365	26.09	0.30	-1.500			
0.5303	33936.82	3.5620	3.5620	-1.8498	26.09	0.30	-1.500			
0.5358	34294.22	3.5590	3.5590	-1.8714	26.08	0.29	-1.500			
0.5415	34653.18	3.5560	3.5559	-1.8946	26.08	0.29	-1.500			
0.5472	35017.92	3.5530	3.5529	-1.9293	26.08	0.29	-1.500			
0.5531	35395.43	3.5500	3.5499	-1.9443	26.08	0.29	-1.500			
0.5589	35770.61	3.5470	3.5470	-1.9510	26.08	0.29	-1.500			
0.5650	36157.15	3.5440	3.5441	-1.9691	26.08	0.29	-1.500	0.403	0.511	
0.5708	36532.80	3.5410	3.5408	-1.9672	26.09	0.30	-1.500			
0.5767	36908.08	3.5380	3.5379	-1.9476	26.09	0.30	-1.500			
0.5824	37274.95	3.5350	3.5350	-1.9572	26.10	0.31	-1.500			
0.5884	37656.47	3.5320	3.5322	-1.9701	26.10	0.31	-1.500			
0.5943	38032.52	3.5290	3.5289	-1.9626	26.11	0.32	-1.500			
0.6002	38410.73	3.5260	3.5261	-1.9529	26.11	0.32	-1.500			
0.6061	38787.47	3.5230	3.5229	-1.9384	26.12	0.33	-1.500			
0.6119	39161.29	3.5200	3.5200	-1.9327	26.13	0.34	-1.500			
0.6176	39527.80	3.5170	3.5170	-1.9097	26.13	0.34	-1.500			
0.6233	39892.44	3.5140	3.5140	-1.9014	26.14	0.35	-1.500			
0.6290	40255.04	3.5110	3.5109	-1.8799	26.14	0.35	-1.500			
0.6346	40612.57	3.5080	3.5080	-1.8675	26.15	0.36	-1.500			
0.6402	40974.18	3.5050	3.5050	-1.8683	26.15	0.36	-1.500			
0.6458	41331.29	3.5020	3.5021	-1.8584	26.16	0.37	-1.500			
0.6514	41686.54	3.4990	3.4989	-1.8430	26.18	0.39	-1.500			
0.6569	42040.01	3.4960	3.4961	-1.8246	26.19	0.40	-1.500			
0.6624	42390.59	3.4930	3.4931	-1.8146	26.20	0.41	-1.500			
0.6678	42737.37	3.4900	3.4900	-1.7991	26.21	0.42	-1.500			
0.6731	43080.98	3.4870	3.4870	-1.7927	26.22	0.43	-1.500			
0.6785	43424.75	3.4840	3.4839	-1.7726	26.22	0.43	-1.500			
0.6838	43763.64	3.4810	3.4810	-1.7529	26.23	0.44	-1.500			
0.6891	44102.10	3.4780	3.4784	-1.7380	26.24	0.45	-1.500			
0.6943	44433.75	3.4750	3.4749	-1.7167	26.26	0.47	-1.500			
0.6993	44758.33	3.4720	3.4720	-1.7046	26.27	0.48	-1.500			
0.7045	45085.50	3.4690	3.4688	-1.6814	26.29	0.50	-1.500			
0.7095	45409.20	3.4660	3.4660	-1.6694	26.31	0.52	-1.500			
0.7145	45728.31	3.4630	3.4632	-1.6449	26.32	0.53	-1.500			
0.7194	46043.73	3.4600	3.4600	-1.6229	26.33	0.54	-1.500			
0.7243	46352.59	3.4570	3.4569	-1.5982	26.35	0.56	-1.500			
0.7289	46652.02	3.4540	3.4539	-1.5668	26.36	0.57	-1.500			
0.7336	46953.28	3.4510	3.4510	-1.5457	26.37	0.58	-1.500			
0.7382	47247.16	3.4480	3.4479	-1.5244	26.38	0.59	-1.500			
0.7428	47537.45	3.4450	3.4450	-1.5019	26.40	0.61	-1.500			
0.7472	47822.74	3.4420	3.4420	-1.4869	26.41	0.62	-1.500			
0.7516	48102.71	3.4390	3.4390	-1.4756	26.43	0.64	-1.500			
0.7560	48385.04	3.4360	3.4360	-1.4703	26.44	0.65	-1.500			
0.7604	48666.73	3.4330	3.4330	-1.4661	26.46	0.67	-1.500			
0.7648	48950.12	3.4300	3.4300	-1.4620	26.48	0.69	-1.500			
0.7692	49228.94	3.4270	3.4269	-1.4511	26.49	0.70	-1.500			
0.7736	49507.76	3.4240	3.4240	-1.4456	26.51	0.72	-1.500			
0.7779	49784.94	3.4210	3.4210	-1.4294	26.53	0.74	-1.500			
0.7822	50060.58	3.4180	3.4179	-1.4127	26.55	0.76	-1.500			
0.7864	50330.56	3.4150	3.4150	-1.3936	26.56	0.77	-1.500			
0.7906	50596.63	3.4120	3.4120	-1.3694	26.58	0.79	-1.500			
0.7947	50858.71	3.4090	3.4090	-1.3377	26.60	0.81	-1.500			
0.7987	51113.80	3.4060	3.4060	-1.3006	26.61	0.82	-1.500			
0.8025	51361.91	3.4030	3.4030	-1.2598	26.63	0.84	-1.500			
0.8063	51601.22	3.4000	3.4000	-1.2104	26.65	0.86	-1.500			
0.8098	51828.91	3.3970	3.3970	-1.1614	26.66	0.87	-1.500			
0.8132	52044.53	3.3940	3.3939	-1.1111	26.68	0.89	-1.500			
0.8164	52252.55	3.3910	3.3910	-1.0641	26.69	0.90	-1.500			
0.8196	52452.30	3.3880	3.3879	-1.0192	26.71	0.92	-1.500			
0.8226	52643.53	3.3850	3.3850	-0.9791	26.72	0.93	-1.500			
0.8254	52826.69	3.3820	3.3821	-0.9425	26.74	0.95	-1.500			
0.8282	53004.16	3.3790	3.3789	-0.9076	26.75	0.96	-1.500			
0.8308	53174.03	3.3760	3.3760	-0.8742	26.76	0.97	-1.500			
0.8334	53336.80	3.3730	3.3730	-0.8414	26.77	0.98	-1.500			
0.8359	53497.31	3.3700	3.3699	-0.8083	26.78	0.99	-1.500			
0.8383	53650.28	3.3670	3.3671	-0.7788	26.79	1.00	-1.500			
0.8406	53795.73	3.3640	3.3640	-0.7488	26.80	1.01	-1.500			
0.8427	53935.34	3.3610	3.3610	-0.7198	26.81	1.02	-1.500			
0.8448	54070.38	3.3580	3.3579	-0.6967	26.82	1.03	-1.500			
0.8469	54200.06	3.3550	3.3550	-0.6719	26.83	1.04	-1.500			
0.8489	54327.29	3.3520	3.3520	-0.6520	26.84	1.05	-1.500			
0.8508	54451.40	3.3490	3.3489	-0.6328	26.85	1.06	-1.500			
0.8527	54569.82	3.3460	3.3461	-0.6151	26.85	1.06	-1.500			
0.8545	54686.46	3.3430	3.3430	-0.5984	26.86	1.07	-1.500			
0.8563	54800.29	3.3400	3.3399	-0.5799	26.87	1.08	-1.500			
0.8580	54909.75	3.3370	3.3371	-0.5648	26.88	1.09	-1.500			
0.8596	55017.42	3.3340	3.3339	-0.5463	26.89	1.10	-1.500			
0.8613	55120.93	3.3310	3.3310	-0.5243	26.89	1.10	-1.500			
0.8628	55219.04	3.3280	3.3279	-0.5045	26.90	1.11	-1.500			
0.8643	55312.96	3.3250	3.3251	-0.4830	26.90	1.11	-1.500			
0.8657	55403.02	3.3220	3.3219	-0.4707	26.91	1.12	-1.500			
0.8671	55491.48	3.3190	3.3189	-0.4571	26.92	1.13	-1.500			
0.8684	55577.20	3.3160	3.3160	-0.4404	26.92	1.13	-1.500			
0.8697	55662.01	3.3130	3.3130	-0.4292	26.93	1.14	-1.500			
0.8710	55744.31	3.3100	3.3101	-0.4185	26.94	1.15	-1.500			
0.8722	55822.93	3.3070	3.3069	-0.4045	26.94	1.15	-1.500			
0.8734	55898.90	3.3040	3.3039	-0.3903	26.95	1.16	-1.500			
0.8746	55971.68	3.3010	3.3010	-0.3754	26.96	1.17	-1.500			
0.8757	56042.41	3.2980	3.2981	-0.3671	26.96	1.17	-1.500			
0.8767	56111.99	3.2950	3.2950	-0.3579	26.97	1.18	-1.500			
0.8778	56179.96	3.2920	3.2919	-0.3467	26.97	1.18	-1.500			
0.8788	56244.95	3.2890	3.2890	-0.3361	26.98	1.19	-1.500			
0.8798	56308.81	3.2860	3.2861	-0.3254	26.98	1.19	-1.500			
0.8808	56370.72	3.2830	3.2830	-0.3154	26.99	1.20	-1.500			
0.8817	56430.51	3.2800	3.2799	-0.3039	26.99	1.20	-1.500			
0.8826	56486.29	3.2770	3.2770	-0.2927	27.00	1.21	-1.500			
0.8835	56541.08	3.2740	3.2741	-0.2837	27.00	1.21	-1.500			
0.8843	56594.83	3.2710	3.2710	-0.2764	27.01	1.22	-1.500			
0.8851	56646.67	3.2680	3.2679	-0.2678	27.01	1.22	-1.500			
0.8859	56697.82	3.2650	3.2653	-0.2619	27.02	1.23	-1.500			
0.8867	56747.28	3.2620	3.2621	-0.2556	27.02	1.23	-1.500			
0.8874	56796.40	3.2590	3.2589	-0.2501	27.02	1.23	-1.500			
0.8882	56843.84	3.2560	3.2559	-0.2428	27.03	1.24	-1.500			
0.8889	56888.94	3.2530	3.2529	-0.2338	27.03	1.24	-1.500			
0.8896	56933.51	3.2500	3.2501	-0.2286	27.04	1.25	-1.500			
0.8903	56976.53	3.2470	3.2470	-0.2228	27.04	1.25	-1.500			
0.8909	57018.66	3.2440	3.2440	-0.2169	27.05	1.26	-1.500			
0.8916	57059.48	3.2410	3.2409	-0.2117	27.05	1.26	-1.500			
0.8922	57099.11	3.2380	3.2381	-0.2067	27.05	1.26	-1.500			
0.8928	57138.59	3.2350	3.2350	-0.2029	27.06	1.27	-1.500			
0.8934	57177.16	3.2320	3.2320	-0.1989	27.06	1.27	-1.500			
0.8940	57214.88	3.2290	3.2290	-0.1960	27.07	1.28	-1.500			
0.8946	57252.38	3.2260	3.2260	-0.1914	27.07	1.28	-1.500			
0.8951	57288.64	3.2230	3.2230	-0.1875	27.08	1.29	-1.500			
0.8957	57324.27	3.2200	3.2200	-0.1836	27.08	1.29	-1.500			
0.8962	57359.21	3.2170	3.2171	-0.1798	27.08	1.29	-1.500			
0.8968	57393.16	3.2140	3.2138	-0.1762	27.09	1.30	-1.500			
0.8973	57426.36	3.2110	3.2110	-0.1730	27.09	1.30	-1.500			
0.8978	57459.32	3.2080	3.2080	-0.1703	27.09	1.30	-1.500			
0.8983	57491.42	3.2050	3.2049	-0.1668	27.10	1.31	-1.500			
0.8988	57523.71	3.2020	3.2020	-0.1647	27.10	1.31	-1.500			
0.8993	57554.85	3.1990	3.1990	-0.1614	27.10	1.31	-1.500			
0.8998	57585.55	3.1960	3.1960	-0.1584	27.11	1.32	-1.500			
0.9002	57615.71	3.1930	3.1930	-0.1560	27.11	1.32	-1.500			
0.9007	57645.28	3.1900	3.1898	-0.1530	27.11	1.32	-1.500			
0.9012	57674.17	3.1870	3.1872	-0.1500	27.12	1.33	-1.500			
0.9016	57702.65	3.1840	3.1839	-0.1490	27.12	1.33	-1.500			
0.9020	57731.05	3.1810	3.1810	-0.1479	27.12	1.33	-1.500			
0.9025	57759.35	3.1780	3.1779	-0.1465	27.13	1.34	-1.500			
0.9029	57787.29	3.1750	3.1750	-0.1452	27.13	1.34	-1.500			
0.9034	57815.23	3.1720	3.1720	-0.1431	27.13	1.34	-1.500			
0.9038	57842.69	3.1690	3.1690	-0.1417	27.14	1.35	-1.500			
0.9042	57869.99	3.1660	3.1662	-0.1400	27.14	1.35	-1.500			
0.9046	57896.44	3.1630	3.1629	-0.1371	27.14	1.35	-1.500			
0.9050	57922.51	3.1600	3.1599	-0.1353	27.15	1.36	-1.500			
0.9054	57948.08	3.1570	3.1571	-0.1336	27.15	1.36	-1.500			
0.9058	57973.53	3.1540	3.1541	-0.1322	27.16	1.37	-1.500			
0.9062	57998.81	3.1510	3.1509	-0.1309	27.16	1.37	-1.500			
0.9066	58023.66	3.1480	3.1479	-0.1303	27.16	1.37	-1.500			
0.9070	58048.29	3.1450	3.1452	-0.1293	27.17	1.38	-1.500			
0.9074	58073.27	3.1420	3.1420	-0.1287	27.17	1.38	-1.500			
0.9078	58098.01	3.1390	3.1389	-0.1276	27.17	1.38	-1.500			
0.9082	58122.46	3.1360	3.1360	-0.1267	27.18	1.39	-1.500			
0.9085	58146.89	3.1330	3.1331	-0.1253	27.18	1.39	-1.500			
0.9089	58170.79	3.1300	3.1300	-0.1236	27.19	1.40	-1.500			
0.9093	58194.59	3.1270	3.1271	-0.1224	27.19	1.40	-1.500			
0.9096	58217.44	3.1240	3.1239	-0.1204	27.19	1.40	-1.500			
0.9100	58240.45	3.1210	3.1210	-0.1194	27.20	1.41	-1.500			
0.9104	58263.29	3.1180	3.1180	-0.1182	27.20	1.41	-1.500			
0.9107	58285.77	3.1150	3.1149	-0.1170	27.20	1.41	-1.500			
0.9111	58307.98	3.1120	3.1121	-0.1171	27.21	1.42	-1.500			
0.9114	58330.51	3.1090	3.1090	-0.1165	27.21	1.42	-1.500			
0.9118	58352.84	3.1060	3.1060	-0.1161	27.21	1.42	-1.500			
0.9121	58375.22	3.1030	3.1029	-0.1155	27.22	1.43	-1.500			
0.9125	58397.34	3.1000	3.1002	-0.1149	27.22	1.43	-1.500			
0.9128	58419.52	3.0970	3.0969	-0.1139	27.22	1.43	-1.500			
0.9131	58441.59	3.0940	3.0939	-0.1133	27.23	1.44	-1.500			
0.9135	58462.92	3.0910	3.0910	-0.1124	27.23	1.44	-1.500			
0.9138	58484.06	3.0880	3.0880	-0.1108	27.23	1.44	-1.500			
0.9141	58505.26	3.0850	3.0851	-0.1105	27.24	1.45	-1.500			
0.9145	58526.34	3.0820	3.0820	-0.1100	27.24	1.45	-1.500			
0.9148	58547.61	3.0790	3.0789	-0.1091	27.25	1.46	-1.500			
0.9151	58568.54	3.0760	3.0759	-0.1085	27.25	1.46	-1.500			
0.9155	58589.30	3.0730	3.0730	-0.1077	27.25	1.46	-1.500			
0.9158	58610.12	3.0700	3.0700	-0.1072	27.26	1.47	-1.500			
0.9161	58630.49	3.0670	3.0670	-0.1065	27.26	1.47	-1.500			
0.9164	58650.70	3.0640	3.0640	-0.1055	27.27	1.48	-1.500			
0.9167	58670.92	3.0610	3.0610	-0.1049	27.27	1.48	-1.500			
0.9170	58690.87	3.0580	3.0580	-0.1042	27.27	1.48	-1.500			
0.9174	58710.86	3.0550	3.0551	-0.1038	27.28	1.49	-1.500			
0.9177	58730.87	3.0520	3.0521	-0.1035	27.28	1.49	-1.500			
0.9180	58750.62	3.0490	3.0489	-0.1031	27.29	1.50	-1.500			
0.9183	58770.30	3.0460	3.0460	-0.1026	27.29	1.50	-1.500			
0.9186	58789.97	3.0430	3.0431	-0.1023	27.29	1.50	-1.500			
0.9189	58809.52	3.0400	3.0399	-0.1019	27.30	1.51	-1.500			
0.9192	58829.19	3.0370	3.0371	-0.1013	27.30	1.51	-1.500			
0.9195	58848.72	3.0340	3.0339	-0.1009	27.31	1.52	-1.500			
0.9198	58867.92	3.0310	3.0310	-0.1006	27.31	1.52	-1.500			
0.9201	58887.19	3.0280	3.0280	-0.1002	27.31	1.52	-1.500			
0.9204	58906.52	3.0250	3.0250	-0.0992	27.32	1.53	-1.500			
0.9207	58925.53	3.0220	3.0218	-0.0984	27.32	1.53	-1.500			
0.9210	58944.24	3.0190	3.0190	-0.0980	27.32	1.53	-1.500			
0.9213	58962.96	3.0160	3.0162	-0.0974	27.33	1.54	-1.500			
0.9216	58981.57	3.0130	3.0130	-0.0972	27.33	1.54	-1.500			
0.9219	59000.20	3.0100	3.0098	-0.0969	27.34	1.55	-1.500			
0.9222	59018.78	3.0070	3.0071	-0.0966	27.34	1.55	-1.500			
0.9225	59036.97	3.0040	3.0040	-0.0979	27.34	1.55	-1.501			
0.9227	59055.88	3.0010	3.0009	-0.0991	27.35	1.56	-1.501			
