Ah_balance (normalized)	Ah_balance (mAh)	Voltage - fit (V)	Voltage -  interpolate (V)	dQ/dV (1/V)	Temperature (°C)	Temperature - diff (°C)	Current (C)	R_DC 0ms (mOhm)	R_DC 50ms (mOhm)	R_DC 50 ms PEC (mOhm)
0.2819	18040.48	3.9860	3.9860	0.8597	27.03	1.09	1.500			
0.2845	18205.19	3.9830	3.9830	0.8539	27.03	1.09	1.500			
0.2870	18366.70	3.9800	3.9800	0.8481	27.02	1.08	1.500			
0.2895	18528.79	3.9770	3.9770	0.8509	27.02	1.08	1.500			
0.2921	18692.31	3.9740	3.9740	0.8529	27.01	1.07	1.500			
0.2946	18855.02	3.9710	3.9710	0.8536	27.01	1.07	1.500			
0.2972	19019.67	3.9680	3.9680	0.8590	27.00	1.06	1.500			
0.2998	19186.05	3.9650	3.9650	0.8674	27.00	1.06	1.500			
0.3024	19354.48	3.9620	3.9620	0.8704	27.00	1.06	1.500			
0.3050	19520.75	3.9590	3.9590	0.8719	26.99	1.05	1.500			
0.3076	19688.40	3.9560	3.9560	0.8758	26.99	1.05	1.500			
0.3103	19858.10	3.9530	3.9531	0.8792	26.98	1.04	1.500			
0.3129	20026.23	3.9500	3.9499	0.8820	26.98	1.04	1.500			
0.3156	20195.30	3.9470	3.9470	0.8843	26.97	1.03	1.500			
0.3182	20365.46	3.9440	3.9440	0.8860	26.97	1.03	1.500			
0.3209	20536.17	3.9410	3.9410	0.8906	26.96	1.02	1.500			
0.3236	20707.23	3.9380	3.9381	0.8944	26.95	1.01	1.500			
0.3262	20879.38	3.9350	3.9350	0.9007	26.95	1.01	1.500			
0.3290	21052.83	3.9320	3.9320	0.9092	26.94	1.00	1.500			
0.3317	21228.03	3.9290	3.9290	0.9137	26.93	0.99	1.500			
0.3344	21404.60	3.9260	3.9260	0.9187	26.93	0.99	1.500			
0.3372	21581.86	3.9230	3.9230	0.9236	26.92	0.98	1.500			
0.3400	21759.37	3.9200	3.9201	0.9265	26.92	0.98	1.500			
0.3428	21937.24	3.9170	3.9170	0.9301	26.91	0.97	1.500			
0.3456	22115.31	3.9140	3.9140	0.9362	26.90	0.96	1.500			
0.3484	22295.83	3.9110	3.9110	0.9408	26.90	0.96	1.500			
0.3512	22477.70	3.9080	3.9080	0.9488	26.89	0.95	1.500			
0.3540	22658.64	3.9050	3.9050	0.9603	26.89	0.95	1.500			
0.3569	22844.31	3.9020	3.9021	0.9683	26.88	0.94	1.500			
0.3599	23031.91	3.8990	3.8989	0.9754	26.88	0.94	1.500			
0.3628	23219.91	3.8960	3.8959	0.9815	26.87	0.93	1.500			
0.3658	23408.69	3.8930	3.8932	0.9866	26.86	0.92	1.500			
0.3687	23599.34	3.8900	3.8899	0.9974	26.86	0.92	1.500			
0.3717	23790.00	3.8870	3.8870	1.0051	26.85	0.91	1.500			
0.3747	23982.31	3.8840	3.8839	1.0130	26.84	0.90	1.500			
0.3778	24179.49	3.8810	3.8810	1.0242	26.83	0.89	1.500			
0.3809	24375.31	3.8780	3.8781	1.0409	26.83	0.89	1.500			
0.3840	24576.26	3.8750	3.8750	1.0561	26.82	0.88	1.500			
0.3872	24781.32	3.8720	3.8719	1.0640	26.81	0.87	1.500			
0.3904	24985.81	3.8690	3.8690	1.0718	26.80	0.86	1.500			
0.3936	25192.94	3.8660	3.8661	1.0844	26.80	0.86	1.500			
0.3969	25403.05	3.8630	3.8629	1.0970	26.79	0.85	1.500			
0.4002	25614.03	3.8600	3.8600	1.1045	26.78	0.84	1.500			
0.4035	25825.86	3.8570	3.8570	1.1145	26.77	0.83	1.500			
0.4069	26040.28	3.8540	3.8541	1.1356	26.76	0.82	1.500			
0.4103	26260.71	3.8510	3.8510	1.1565	26.76	0.82	1.500			
0.4138	26483.26	3.8480	3.8480	1.1751	26.75	0.81	1.500			
0.4174	26710.40	3.8450	3.8450	1.1956	26.74	0.80	1.500			
0.4210	26941.87	3.8420	3.8420	1.2178	26.73	0.79	1.500			
0.4247	27179.54	3.8390	3.8390	1.2348	26.73	0.79	1.500			
0.4284	27417.92	3.8360	3.8360	1.2573	26.72	0.78	1.500			
0.4322	27660.65	3.8330	3.8330	1.2731	26.71	0.77	1.500			
0.4360	27906.57	3.8300	3.8300	1.2951	26.70	0.76	1.500			
0.4400	28157.22	3.8270	3.8270	1.3168	26.69	0.75	1.500			
0.4439	28410.83	3.8240	3.8241	1.3431	26.68	0.74	1.500			
0.4480	28672.12	3.8210	3.8210	1.3646	26.66	0.72	1.500			
0.4521	28936.24	3.8180	3.8180	1.3979	26.65	0.71	1.500			
0.4563	29205.39	3.8150	3.8150	1.4245	26.63	0.69	1.500			
0.4607	29481.97	3.8120	3.8120	1.4572	26.62	0.68	1.500			
0.4651	29764.27	3.8090	3.8090	1.4895	26.60	0.66	1.500			
0.4696	30053.60	3.8060	3.8060	1.5189	26.59	0.65	1.500			
0.4742	30346.34	3.8030	3.8030	1.5581	26.58	0.64	1.500			
0.4789	30651.21	3.8000	3.8000	1.5950	26.56	0.62	1.500			
0.4837	30959.04	3.7970	3.7969	1.6268	26.55	0.61	1.500			
0.4887	31275.79	3.7940	3.7941	1.6586	26.54	0.60	1.500			
0.4937	31599.50	3.7910	3.7910	1.6867	26.52	0.58	1.500			
0.4989	31927.83	3.7880	3.7880	1.7129	26.51	0.57	1.500			
0.5040	32255.03	3.7850	3.7850	1.7304	26.49	0.55	1.500			
0.5092	32590.38	3.7820	3.7821	1.7554	26.48	0.54	1.500			
0.5145	32930.94	3.7790	3.7789	1.7958	26.46	0.52	1.500			
0.5200	33281.44	3.7760	3.7760	1.8100	26.45	0.51	1.500			
0.5255	33631.50	3.7730	3.7730	1.8259	26.43	0.49	1.500	0.345	0.466	
0.5310	33985.83	3.7700	3.7701	1.8344	26.42	0.48	1.500			
0.5365	34338.75	3.7670	3.7669	1.8234	26.40	0.46	1.500			
0.5420	34688.70	3.7640	3.7640	1.8115	26.39	0.45	1.500			
0.5474	35031.72	3.7610	3.7611	1.8028	26.38	0.44	1.500			
0.5528	35377.64	3.7580	3.7580	1.8031	26.36	0.42	1.500			
0.5581	35720.58	3.7550	3.7550	1.8019	26.35	0.41	1.500			
0.5635	36067.00	3.7520	3.7520	1.8140	26.34	0.40	1.500			
0.5690	36417.43	3.7490	3.7490	1.8320	26.32	0.38	1.500			
0.5746	36771.54	3.7460	3.7460	1.8494	26.31	0.37	1.500			
0.5801	37124.53	3.7430	3.7430	1.8635	26.29	0.35	1.500			
0.5857	37484.52	3.7400	3.7400	1.8923	26.28	0.34	1.500			
0.5914	37849.84	3.7370	3.7370	1.9233	26.26	0.32	1.500			
0.5972	38222.99	3.7340	3.7340	1.9525	26.25	0.31	1.500			
0.6031	38599.48	3.7310	3.7310	1.9934	26.24	0.30	1.500			
0.6091	38984.15	3.7280	3.7280	2.0547	26.23	0.29	1.500			
0.6154	39383.43	3.7250	3.7249	2.1081	26.22	0.28	1.500			
0.6218	39795.68	3.7220	3.7220	2.1293	26.21	0.27	1.500			
0.6283	40212.42	3.7190	3.7191	2.2185	26.19	0.25	1.500			
0.6350	40640.75	3.7160	3.7159	2.3030	26.18	0.24	1.500			
0.6419	41083.66	3.7130	3.7131	2.3813	26.17	0.23	1.500			
0.6494	41560.33	3.7100	3.7100	2.4140	26.16	0.22	1.500			
0.6566	42021.36	3.7070	3.7071	2.4379	26.15	0.21	1.500			
0.6640	42494.60	3.7040	3.7041	2.4650	26.14	0.20	1.500			
0.6715	42977.43	3.7010	3.7011	2.4363	26.12	0.18	1.500			
0.6789	43448.48	3.6980	3.6980	2.3229	26.11	0.17	1.500			
0.6858	43888.18	3.6950	3.6949	2.1746	26.09	0.15	1.500			
0.6920	44291.02	3.6920	3.6920	2.0113	26.08	0.14	1.500			
0.6978	44660.18	3.6890	3.6890	1.8425	26.08	0.14	1.500			
0.7029	44984.72	3.6860	3.6861	1.6853	26.07	0.13	1.500			
0.7078	45296.49	3.6830	3.6829	1.5870	26.07	0.13	1.500			
0.7122	45583.40	3.6800	3.6799	1.4926	26.06	0.12	1.500			
0.7166	45863.10	3.6770	3.6770	1.4312	26.06	0.12	1.500			
0.7208	46129.25	3.6740	3.6740	1.3791	26.05	0.11	1.500			
0.7248	46387.38	3.6710	3.6710	1.3292	26.05	0.11	1.500			
0.7287	46635.57	3.6680	3.6680	1.2913	26.04	0.10	1.500			
0.7324	46876.79	3.6650	3.6650	1.2732	26.04	0.10	1.500			
0.7362	47115.56	3.6620	3.6620	1.2596	26.03	0.09	1.500			
0.7399	47354.55	3.6590	3.6589	1.2588	26.03	0.09	1.500			
0.7437	47593.83	3.6560	3.6560	1.2613	26.02	0.08	1.500			
0.7475	47837.73	3.6530	3.6530	1.2690	26.01	0.07	1.500			
0.7513	48084.37	3.6500	3.6500	1.2802	26.00	0.06	1.500			
0.7552	48330.00	3.6470	3.6470	1.2827	25.99	0.05	1.500			
0.7590	48577.44	3.6440	3.6441	1.2850	25.99	0.05	1.500			
0.7629	48825.13	3.6410	3.6409	1.2878	25.98	0.04	1.500			
0.7668	49073.36	3.6380	3.6380	1.2851	25.97	0.03	1.500			
0.7706	49319.46	3.6350	3.6350	1.2813	25.97	0.03	1.500			
0.7745	49565.37	3.6320	3.6320	1.2771	25.96	0.02	1.500			
0.7783	49810.58	3.6290	3.6290	1.2741	25.95	0.01	1.500			
0.7821	50054.15	3.6260	3.6260	1.2728	25.95	0.01	1.500			
0.7859	50298.64	3.6230	3.6229	1.2693	25.94	0.00	1.500			
0.7897	50541.55	3.6200	3.6200	1.2660	25.94	-0.00	1.500			
0.7935	50786.14	3.6170	3.6170	1.2611	25.94	-0.00	1.500			
0.7973	51028.08	3.6140	3.6140	1.2495	25.93	-0.01	1.500			
0.8011	51268.34	3.6110	3.6110	1.2377	25.93	-0.01	1.500			
0.8048	51504.58	3.6080	3.6080	1.2209	25.93	-0.01	1.500			
0.8084	51736.97	3.6050	3.6050	1.2038	25.92	-0.02	1.500			
0.8120	51967.37	3.6020	3.6019	1.1868	25.92	-0.02	1.500			
0.8155	52193.65	3.5990	3.5990	1.1667	25.92	-0.02	1.500			
0.8190	52416.18	3.5960	3.5960	1.1498	25.93	-0.01	1.500			
0.8224	52635.24	3.5930	3.5930	1.1326	25.93	-0.01	1.500			
0.8258	52850.68	3.5900	3.5900	1.1098	25.93	-0.01	1.500			
0.8291	53063.72	3.5870	3.5869	1.0866	25.93	-0.01	1.500			
0.8324	53275.75	3.5840	3.5839	1.0396	25.94	-0.00	1.500			
0.8356	53477.50	3.5810	3.5810	0.9871	25.94	-0.00	1.500			
0.8385	53665.67	3.5780	3.5780	0.8962	25.94	0.00	1.500			
0.8412	53834.08	3.5750	3.5750	0.7993	25.94	0.00	1.500			
0.8434	53976.35	3.5720	3.5721	0.6877	25.94	0.00	1.500			
0.8452	54094.72	3.5690	3.5691	0.5759	25.95	0.01	1.500			
0.8467	54188.73	3.5660	3.5660	0.4781	25.95	0.01	1.500			
0.8479	54268.12	3.5630	3.5629	0.4007	25.95	0.01	1.500			
0.8489	54331.16	3.5600	3.5600	0.3340	25.95	0.01	1.500			
0.8498	54388.03	3.5570	3.5570	0.2913	25.95	0.01	1.500			
0.8506	54437.48	3.5540	3.5539	0.2501	25.95	0.01	1.500			
0.8513	54480.95	3.5510	3.5509	0.2235	25.95	0.01	1.500			
0.8519	54519.42	3.5480	3.5480	0.1998	25.95	0.01	1.500			
0.8524	54555.21	3.5450	3.5450	0.1818	25.95	0.01	1.500			
0.8529	54588.24	3.5420	3.5420	0.1648	25.95	0.01	1.500			
0.8534	54617.82	3.5390	3.5390	0.1497	25.95	0.01	1.500			
0.8538	54644.78	3.5360	3.5360	0.1344	25.95	0.01	1.500			
0.8542	54669.27	3.5330	3.5329	0.1201	25.95	0.01	1.500			
0.8545	54690.98	3.5300	3.5300	0.1061	25.95	0.01	1.500			
0.8548	54710.02	3.5270	3.5271	0.0922	25.95	0.01	1.500			
0.8551	54726.58	3.5240	3.5241	0.0783	25.95	0.01	1.500			
0.8553	54740.24	3.5210	3.5212	0.0640	25.95	0.01	1.500			
0.8555	54751.42	3.5180	3.5183	0.0487	25.95	0.01	1.500			
0.8556	54759.32	3.5150	3.5159	0.0335	25.95	0.01	1.500			
