Ah_balance (normalized)	Ah_balance (mAh)	Voltage - fit (V)	Voltage -  interpolate (V)	dQ/dV (1/V)	Temperature (°C)	Temperature - diff (°C)	Current (C)	R_DC 0ms (mOhm)	R_DC 50ms (mOhm)	R_DC 50 ms PEC (mOhm)
0.2065	13215.21	3.9140	3.9138	-0.1015	25.91	-0.02	-1.500			
0.2068	13237.95	3.9110	3.9109	-0.1338	25.91	-0.02	-1.500			
0.2073	13267.06	3.9080	3.9079	-0.1646	25.91	-0.02	-1.500			
0.2078	13301.58	3.9050	3.9050	-0.1938	25.91	-0.02	-1.500			
0.2085	13341.74	3.9020	3.9021	-0.2224	25.91	-0.02	-1.500			
0.2092	13388.09	3.8990	3.8990	-0.2496	25.91	-0.02	-1.500			
0.2100	13438.38	3.8960	3.8960	-0.2756	25.91	-0.02	-1.500			
0.2108	13493.60	3.8930	3.8931	-0.3030	25.91	-0.02	-1.500			
0.2118	13553.89	3.8900	3.8900	-0.3305	25.92	-0.01	-1.500			
0.2128	13620.43	3.8870	3.8870	-0.3553	25.92	-0.01	-1.500			
0.2139	13691.14	3.8840	3.8840	-0.3827	25.92	-0.01	-1.500			
0.2151	13767.38	3.8810	3.8811	-0.4083	25.92	-0.01	-1.500			
0.2164	13848.45	3.8780	3.8780	-0.4343	25.92	-0.01	-1.500			
0.2177	13934.51	3.8750	3.8750	-0.4565	25.92	-0.01	-1.500			
0.2191	14024.84	3.8720	3.8720	-0.4764	25.92	-0.01	-1.500			
0.2206	14117.96	3.8690	3.8691	-0.4995	25.92	-0.01	-1.500			
0.2221	14216.63	3.8660	3.8659	-0.5207	25.92	-0.01	-1.500			
0.2237	14317.61	3.8630	3.8630	-0.5419	25.93	-0.00	-1.500			
0.2254	14424.35	3.8600	3.8600	-0.5632	25.93	-0.00	-1.500			
0.2271	14534.86	3.8570	3.8570	-0.5823	25.93	-0.00	-1.500			
0.2289	14649.59	3.8540	3.8540	-0.5978	25.93	-0.00	-1.500			
0.2307	14767.05	3.8510	3.8511	-0.6128	25.93	0.00	-1.500			
0.2326	14885.54	3.8480	3.8480	-0.6217	25.93	0.00	-1.500			
0.2345	15005.96	3.8450	3.8449	-0.6348	25.93	0.00	-1.500			
0.2364	15128.59	3.8420	3.8420	-0.6411	25.94	0.01	-1.500			
0.2383	15253.15	3.8390	3.8389	-0.6507	25.94	0.01	-1.500			
0.2403	15379.60	3.8360	3.8360	-0.6594	25.94	0.01	-1.500			
0.2423	15507.05	3.8330	3.8330	-0.6670	25.94	0.01	-1.500			
0.2443	15635.87	3.8300	3.8299	-0.6722	25.94	0.01	-1.500			
0.2463	15765.93	3.8270	3.8269	-0.6755	25.94	0.01	-1.500			
0.2484	15895.12	3.8240	3.8241	-0.6799	25.95	0.02	-1.500			
0.2504	16026.78	3.8210	3.8210	-0.6871	25.95	0.02	-1.500			
0.2525	16159.72	3.8180	3.8179	-0.6878	25.95	0.02	-1.500			
0.2546	16292.45	3.8150	3.8150	-0.6865	25.95	0.02	-1.500			
0.2566	16424.61	3.8120	3.8121	-0.6838	25.95	0.02	-1.500			
0.2587	16555.67	3.8090	3.8090	-0.6844	25.95	0.02	-1.500			
0.2607	16686.10	3.8060	3.8060	-0.6880	25.96	0.03	-1.500			
0.2628	16817.26	3.8030	3.8029	-0.6902	25.96	0.03	-1.500			
0.2648	16949.37	3.8000	3.8000	-0.6938	25.96	0.03	-1.500			
0.2669	17084.12	3.7970	3.7971	-0.6997	25.96	0.03	-1.500			
0.2691	17220.18	3.7940	3.7940	-0.7031	25.97	0.04	-1.500			
0.2712	17356.26	3.7910	3.7910	-0.6994	25.97	0.04	-1.500			
0.2733	17490.08	3.7880	3.7880	-0.6948	25.97	0.04	-1.500			
0.2754	17622.70	3.7850	3.7850	-0.6935	25.97	0.04	-1.500			
0.2774	17754.96	3.7820	3.7820	-0.6948	25.98	0.05	-1.500			
0.2795	17888.24	3.7790	3.7790	-0.6941	25.98	0.05	-1.500			
0.2816	18020.72	3.7760	3.7760	-0.6957	25.98	0.05	-1.500			
0.2837	18154.75	3.7730	3.7731	-0.6981	25.99	0.06	-1.500			
0.2858	18289.71	3.7700	3.7700	-0.7018	25.99	0.06	-1.500			
0.2879	18423.98	3.7670	3.7669	-0.7032	26.00	0.07	-1.500			
0.2900	18559.03	3.7640	3.7641	-0.7013	26.00	0.07	-1.500			
0.2921	18693.86	3.7610	3.7609	-0.7031	26.01	0.08	-1.500			
0.2942	18830.12	3.7580	3.7581	-0.7050	26.02	0.09	-1.500			
0.2963	18965.04	3.7550	3.7550	-0.7044	26.02	0.09	-1.500			
0.2984	19100.20	3.7520	3.7519	-0.7055	26.03	0.10	-1.500			
0.3005	19234.67	3.7490	3.7490	-0.7084	26.03	0.10	-1.500			
0.3027	19370.29	3.7460	3.7460	-0.7082	26.04	0.11	-1.500			
0.3048	19507.13	3.7430	3.7430	-0.7127	26.04	0.11	-1.500			
0.3069	19644.61	3.7400	3.7399	-0.7137	26.05	0.12	-1.500			
0.3091	19781.15	3.7370	3.7371	-0.7183	26.05	0.12	-1.500			
0.3112	19919.43	3.7340	3.7340	-0.7208	26.06	0.13	-1.500			
0.3134	20058.11	3.7310	3.7310	-0.7253	26.06	0.13	-1.500			
0.3156	20197.52	3.7280	3.7279	-0.7288	26.07	0.14	-1.500			
0.3178	20338.20	3.7250	3.7251	-0.7344	26.07	0.14	-1.500			
0.3200	20478.51	3.7220	3.7220	-0.7395	26.08	0.15	-1.500			
0.3222	20621.82	3.7190	3.7190	-0.7487	26.08	0.15	-1.500			
0.3245	20765.38	3.7160	3.7160	-0.7558	26.09	0.16	-1.500			
0.3267	20910.84	3.7130	3.7129	-0.7638	26.09	0.16	-1.500			
0.3290	21059.08	3.7100	3.7101	-0.7677	26.10	0.17	-1.500			
0.3314	21208.04	3.7070	3.7070	-0.7752	26.10	0.17	-1.500			
0.3337	21356.76	3.7040	3.7040	-0.7812	26.11	0.18	-1.500			
0.3360	21506.18	3.7010	3.7011	-0.7850	26.12	0.19	-1.500			
0.3384	21656.11	3.6980	3.6980	-0.7985	26.12	0.19	-1.500			
0.3408	21810.20	3.6950	3.6950	-0.8095	26.13	0.20	-1.500			
0.3432	21967.60	3.6920	3.6920	-0.8243	26.13	0.20	-1.500			
0.3458	22128.23	3.6890	3.6889	-0.8404	26.14	0.21	-1.500			
0.3483	22291.15	3.6860	3.6860	-0.8456	26.14	0.21	-1.500			
0.3508	22454.10	3.6830	3.6830	-0.8568	26.15	0.22	-1.500			
0.3534	22619.44	3.6800	3.6800	-0.8689	26.16	0.23	-1.500			
0.3560	22784.94	3.6770	3.6770	-0.8773	26.16	0.23	-1.500			
0.3587	22955.37	3.6740	3.6740	-0.8942	26.17	0.24	-1.500			
0.3614	23128.22	3.6710	3.6710	-0.9075	26.17	0.24	-1.500			
0.3641	23303.77	3.6680	3.6680	-0.9224	26.18	0.25	-1.500			
0.3669	23482.81	3.6650	3.6650	-0.9413	26.18	0.25	-1.500			
0.3698	23664.08	3.6620	3.6620	-0.9541	26.18	0.25	-1.500			
0.3727	23850.78	3.6590	3.6589	-0.9661	26.19	0.26	-1.500			
0.3756	24037.67	3.6560	3.6560	-0.9801	26.19	0.26	-1.500			
0.3785	24226.31	3.6530	3.6531	-1.0016	26.20	0.27	-1.500			
0.3816	24420.27	3.6500	3.6500	-1.0170	26.20	0.27	-1.500			
0.3846	24616.01	3.6470	3.6469	-1.0375	26.21	0.28	-1.500			
0.3877	24815.70	3.6440	3.6441	-1.0536	26.21	0.28	-1.500			
0.3910	25021.40	3.6410	3.6410	-1.0732	26.22	0.29	-1.500			
0.3942	25228.80	3.6380	3.6380	-1.0969	26.22	0.29	-1.500			
0.3975	25440.49	3.6350	3.6350	-1.1160	26.23	0.30	-1.500			
0.4009	25656.95	3.6320	3.6319	-1.1348	26.23	0.30	-1.500			
0.4044	25878.70	3.6290	3.6290	-1.1550	26.24	0.31	-1.500			
0.4078	26100.52	3.6260	3.6261	-1.1768	26.24	0.31	-1.500			
0.4114	26330.10	3.6230	3.6231	-1.1983	26.25	0.32	-1.500			
0.4150	26560.18	3.6200	3.6199	-1.2220	26.25	0.32	-1.500			
0.4187	26795.51	3.6170	3.6169	-1.2396	26.25	0.32	-1.500			
0.4224	27036.71	3.6140	3.6141	-1.2596	26.25	0.32	-1.500			
0.4263	27281.31	3.6110	3.6109	-1.2806	26.26	0.33	-1.500			
0.4302	27530.89	3.6080	3.6082	-1.3035	26.26	0.33	-1.500			
0.4341	27781.70	3.6050	3.6050	-1.3214	26.26	0.33	-1.500			
0.4381	28036.78	3.6020	3.6020	-1.3408	26.27	0.34	-1.500			
0.4421	28295.26	3.5990	3.5991	-1.3630	26.27	0.34	-1.500			
0.4463	28560.49	3.5960	3.5960	-1.3844	26.27	0.34	-1.500			
0.4504	28827.91	3.5930	3.5929	-1.4034	26.28	0.35	-1.500			
0.4547	29099.12	3.5900	3.5902	-1.4224	26.28	0.35	-1.500			
0.4590	29373.16	3.5870	3.5870	-1.4440	26.28	0.35	-1.500			
0.4633	29651.78	3.5840	3.5840	-1.4689	26.29	0.36	-1.500			
0.4678	29936.23	3.5810	3.5810	-1.4921	26.29	0.36	-1.500			
0.4723	30225.69	3.5780	3.5780	-1.5144	26.29	0.36	-1.500			
0.4769	30520.28	3.5750	3.5750	-1.5290	26.30	0.37	-1.500			
0.4815	30816.07	3.5720	3.5720	-1.5455	26.30	0.37	-1.500			
0.4861	31111.43	3.5690	3.5691	-1.5711	26.31	0.38	-1.500			
0.4908	31413.70	3.5660	3.5660	-1.5851	26.31	0.38	-1.500			
0.4957	31722.02	3.5630	3.5629	-1.6001	26.31	0.38	-1.500			
0.5005	32032.68	3.5600	3.5600	-1.6190	26.32	0.39	-1.500			
0.5054	32345.22	3.5570	3.5572	-1.6401	26.32	0.39	-1.500			
0.5103	32661.31	3.5540	3.5540	-1.6558	26.32	0.39	-1.500			
0.5153	32979.48	3.5510	3.5509	-1.6770	26.33	0.40	-1.500			
0.5204	33305.54	3.5480	3.5480	-1.6841	26.33	0.40	-1.500			
0.5255	33633.05	3.5450	3.5450	-1.7042	26.34	0.41	-1.500			
0.5306	33960.77	3.5420	3.5422	-1.7191	26.34	0.41	-1.500			
0.5358	34292.51	3.5390	3.5390	-1.7347	26.35	0.42	-1.500			
0.5410	34626.76	3.5360	3.5359	-1.7544	26.36	0.43	-1.500			
0.5463	34963.48	3.5330	3.5329	-1.7535	26.37	0.44	-1.500	0.380	0.520	
0.5517	35306.34	3.5300	3.5300	-1.7697	26.38	0.45	-1.500			
0.5570	35650.69	3.5270	3.5270	-1.7652	26.38	0.45	-1.500			
0.5623	35985.68	3.5240	3.5239	-1.7490	26.39	0.46	-1.500			
0.5675	36317.05	3.5210	3.5211	-1.7589	26.40	0.47	-1.500			
0.5727	36654.88	3.5180	3.5179	-1.7586	26.41	0.48	-1.500			
0.5781	36997.05	3.5150	3.5149	-1.7770	26.42	0.49	-1.500			
0.5834	37337.21	3.5120	3.5121	-1.7809	26.43	0.50	-1.500			
0.5888	37685.71	3.5090	3.5090	-1.7917	26.43	0.50	-1.500			
0.5942	38027.10	3.5060	3.5059	-1.7866	26.44	0.51	-1.500			
0.5995	38370.40	3.5030	3.5030	-1.7796	26.45	0.52	-1.500			
0.6049	38712.57	3.5000	3.5001	-1.7814	26.46	0.53	-1.500			
0.6102	39053.58	3.4970	3.4970	-1.7834	26.47	0.54	-1.500			
0.6156	39395.38	3.4940	3.4940	-1.7731	26.49	0.56	-1.500			
0.6209	39736.46	3.4910	3.4910	-1.7650	26.50	0.57	-1.500			
0.6262	40076.58	3.4880	3.4880	-1.7537	26.51	0.58	-1.500			
0.6314	40409.14	3.4850	3.4851	-1.7481	26.52	0.59	-1.500			
0.6367	40746.38	3.4820	3.4819	-1.7400	26.54	0.61	-1.500			
0.6418	41076.40	3.4790	3.4790	-1.7232	26.55	0.62	-1.500			
0.6470	41407.32	3.4760	3.4760	-1.7172	26.56	0.63	-1.500			
0.6522	41740.80	3.4730	3.4730	-1.7053	26.57	0.64	-1.500			
0.6573	42066.49	3.4700	3.4700	-1.6799	26.59	0.66	-1.500			
0.6623	42386.29	3.4670	3.4670	-1.6600	26.60	0.67	-1.500			
0.6672	42702.80	3.4640	3.4640	-1.6254	26.62	0.69	-1.500			
0.6721	43011.95	3.4610	3.4609	-1.6003	26.63	0.70	-1.500			
0.6768	43315.90	3.4580	3.4579	-1.5799	26.64	0.71	-1.500			
0.6815	43615.12	3.4550	3.4550	-1.5567	26.66	0.73	-1.500			
0.6861	43912.62	3.4520	3.4519	-1.5405	26.67	0.74	-1.500			
0.6907	44207.66	3.4490	3.4490	-1.5222	26.69	0.76	-1.500			
0.6952	44495.68	3.4460	3.4460	-1.4999	26.71	0.78	-1.500			
0.6998	44787.33	3.4430	3.4430	-1.4839	26.72	0.79	-1.500			
0.7042	45068.21	3.4400	3.4401	-1.4617	26.74	0.81	-1.500			
0.7085	45346.84	3.4370	3.4370	-1.4416	26.76	0.83	-1.500			
0.7128	45621.47	3.4340	3.4339	-1.4210	26.77	0.84	-1.500			
0.7171	45892.39	3.4310	3.4310	-1.4127	26.79	0.86	-1.500			
0.7213	46162.49	3.4280	3.4280	-1.3965	26.81	0.88	-1.500			
0.7255	46430.97	3.4250	3.4249	-1.3825	26.83	0.90	-1.500			
0.7296	46695.31	3.4220	3.4220	-1.3741	26.84	0.91	-1.500			
0.7337	46956.60	3.4190	3.4189	-1.3551	26.86	0.93	-1.500			
0.7378	47217.60	3.4160	3.4160	-1.3390	26.88	0.95	-1.500			
0.7417	47471.27	3.4130	3.4130	-1.3143	26.90	0.97	-1.500			
0.7457	47727.24	3.4100	3.4100	-1.3002	26.92	0.99	-1.500			
0.7496	47974.79	3.4070	3.4070	-1.2712	26.94	1.01	-1.500			
0.7534	48216.61	3.4040	3.4039	-1.2372	26.95	1.02	-1.500			
0.7570	48450.26	3.4010	3.4011	-1.1972	26.96	1.03	-1.500			
0.7606	48678.80	3.3980	3.3980	-1.1590	26.98	1.05	-1.500			
0.7640	48896.21	3.3950	3.3950	-1.1248	26.99	1.06	-1.500			
0.7673	49108.40	3.3920	3.3920	-1.0841	27.01	1.08	-1.500			
0.7705	49314.21	3.3890	3.3889	-1.0444	27.03	1.10	-1.500			
0.7736	49509.98	3.3860	3.3860	-1.0019	27.04	1.11	-1.500			
0.7766	49700.10	3.3830	3.3831	-0.9600	27.05	1.12	-1.500			
0.7794	49879.24	3.3800	3.3799	-0.9203	27.06	1.13	-1.500			
0.7820	50050.76	3.3770	3.3770	-0.8847	27.07	1.14	-1.500			
0.7846	50214.52	3.3740	3.3739	-0.8502	27.08	1.15	-1.500			
0.7871	50375.78	3.3710	3.3710	-0.8217	27.10	1.17	-1.500			
0.7895	50530.23	3.3680	3.3680	-0.7953	27.11	1.18	-1.500			
0.7919	50680.83	3.3650	3.3650	-0.7688	27.12	1.19	-1.500			
0.7942	50826.55	3.3620	3.3620	-0.7430	27.13	1.20	-1.500			
0.7963	50964.67	3.3590	3.3590	-0.7154	27.14	1.21	-1.500			
0.7984	51100.23	3.3560	3.3560	-0.6907	27.15	1.22	-1.500			
0.8005	51230.24	3.3530	3.3530	-0.6674	27.16	1.23	-1.500			
0.8024	51355.76	3.3500	3.3500	-0.6481	27.17	1.24	-1.500			
0.8043	51477.33	3.3470	3.3471	-0.6249	27.18	1.25	-1.500			
0.8062	51595.04	3.3440	3.3439	-0.6082	27.19	1.26	-1.500			
0.8080	51709.36	3.3410	3.3411	-0.5917	27.20	1.27	-1.500			
0.8097	51821.49	3.3380	3.3380	-0.5744	27.20	1.27	-1.500			
0.8114	51930.61	3.3350	3.3349	-0.5586	27.21	1.28	-1.500			
0.8131	52036.62	3.3320	3.3321	-0.5417	27.22	1.29	-1.500			
0.8147	52139.03	3.3290	3.3289	-0.5247	27.23	1.30	-1.500			
0.8162	52238.76	3.3260	3.3260	-0.5100	27.24	1.31	-1.500			
0.8177	52333.98	3.3230	3.3230	-0.4949	27.24	1.31	-1.500			
0.8192	52426.43	3.3200	3.3200	-0.4800	27.25	1.32	-1.500			
0.8206	52517.82	3.3170	3.3169	-0.4688	27.26	1.33	-1.500			
0.8220	52606.43	3.3140	3.3140	-0.4562	27.26	1.33	-1.500			
0.8233	52692.98	3.3110	3.3110	-0.4440	27.27	1.34	-1.500			
0.8247	52777.76	3.3080	3.3080	-0.4317	27.28	1.35	-1.500			
0.8259	52859.38	3.3050	3.3050	-0.4178	27.28	1.35	-1.500			
0.8271	52937.35	3.3020	3.3020	-0.4043	27.28	1.35	-1.500			
0.8283	53013.88	3.2990	3.2990	-0.3939	27.29	1.36	-1.500			
0.8295	53087.55	3.2960	3.2960	-0.3820	27.29	1.36	-1.500			
0.8306	53159.55	3.2930	3.2930	-0.3738	27.30	1.37	-1.500			
0.8317	53230.58	3.2900	3.2899	-0.3659	27.30	1.37	-1.500			
0.8328	53300.29	3.2870	3.2870	-0.3582	27.31	1.38	-1.500			
0.8339	53368.54	3.2840	3.2840	-0.3485	27.32	1.39	-1.500			
0.8349	53434.79	3.2810	3.2810	-0.3399	27.32	1.39	-1.500			
0.8359	53499.24	3.2780	3.2780	-0.3327	27.33	1.40	-1.500			
0.8369	53562.09	3.2750	3.2750	-0.3235	27.34	1.41	-1.500			
0.8379	53623.14	3.2720	3.2720	-0.3140	27.34	1.41	-1.500			
0.8388	53682.47	3.2690	3.2690	-0.3070	27.35	1.42	-1.500			
0.8397	53740.76	3.2660	3.2661	-0.2995	27.35	1.42	-1.500			
0.8406	53797.79	3.2630	3.2629	-0.2921	27.36	1.43	-1.500			
0.8414	53852.34	3.2600	3.2600	-0.2856	27.36	1.43	-1.500			
0.8423	53905.84	3.2570	3.2571	-0.2801	27.37	1.44	-1.500			
0.8431	53959.66	3.2540	3.2539	-0.2757	27.37	1.44	-1.500			
0.8439	54012.25	3.2510	3.2510	-0.2712	27.38	1.45	-1.500			
0.8447	54063.97	3.2480	3.2482	-0.2653	27.38	1.45	-1.500			
0.8455	54114.96	3.2450	3.2449	-0.2606	27.39	1.46	-1.500			
0.8463	54164.46	3.2420	3.2420	-0.2560	27.39	1.46	-1.500			
0.8471	54212.05	3.2390	3.2391	-0.2502	27.40	1.47	-1.500			
0.8478	54259.78	3.2360	3.2360	-0.2467	27.40	1.47	-1.500			
0.8485	54306.87	3.2330	3.2329	-0.2435	27.41	1.48	-1.500			
0.8493	54353.34	3.2300	3.2300	-0.2392	27.41	1.48	-1.500			
0.8500	54398.95	3.2270	3.2271	-0.2355	27.42	1.49	-1.500			
0.8507	54444.32	3.2240	3.2241	-0.2322	27.42	1.49	-1.500			
0.8514	54488.42	3.2210	3.2209	-0.2272	27.43	1.50	-1.500			
0.8521	54531.31	3.2180	3.2180	-0.2231	27.43	1.50	-1.500			
0.8527	54573.49	3.2150	3.2150	-0.2192	27.44	1.51	-1.500			
0.8534	54615.04	3.2120	3.2120	-0.2163	27.44	1.51	-1.500			
0.8540	54656.27	3.2090	3.2089	-0.2137	27.45	1.52	-1.500			
0.8546	54696.95	3.2060	3.2061	-0.2110	27.45	1.52	-1.500			
0.8553	54737.13	3.2030	3.2029	-0.2078	27.46	1.53	-1.500			
0.8559	54776.90	3.2000	3.2001	-0.2056	27.46	1.53	-1.500			
0.8565	54816.03	3.1970	3.1970	-0.2030	27.47	1.54	-1.500			
0.8571	54854.77	3.1940	3.1940	-0.2005	27.47	1.54	-1.500			
0.8577	54893.03	3.1910	3.1910	-0.1982	27.48	1.55	-1.500			
0.8583	54930.76	3.1880	3.1880	-0.1952	27.48	1.55	-1.500			
0.8589	54968.06	3.1850	3.1850	-0.1929	27.48	1.55	-1.500			
0.8595	55004.87	3.1820	3.1820	-0.1905	27.49	1.56	-1.500			
0.8600	55041.32	3.1790	3.1790	-0.1883	27.49	1.56	-1.500			
0.8606	55076.98	3.1760	3.1760	-0.1861	27.50	1.57	-1.500			
0.8611	55112.32	3.1730	3.1729	-0.1840	27.50	1.57	-1.500			
0.8617	55147.51	3.1700	3.1700	-0.1825	27.51	1.58	-1.500			
0.8622	55182.37	3.1670	3.1670	-0.1806	27.51	1.58	-1.500			
0.8628	55217.03	3.1640	3.1640	-0.1791	27.52	1.59	-1.500			
0.8633	55251.22	3.1610	3.1610	-0.1774	27.52	1.59	-1.500			
0.8638	55285.12	3.1580	3.1581	-0.1756	27.52	1.59	-1.500			
0.8644	55318.74	3.1550	3.1550	-0.1737	27.53	1.60	-1.500			
0.8649	55351.71	3.1520	3.1521	-0.1721	27.53	1.60	-1.500			
0.8654	55384.49	3.1490	3.1490	-0.1707	27.54	1.61	-1.500			
0.8659	55417.25	3.1460	3.1460	-0.1694	27.54	1.61	-1.500			
0.8664	55449.69	3.1430	3.1429	-0.1681	27.54	1.61	-1.500			
0.8669	55481.77	3.1400	3.1400	-0.1670	27.55	1.62	-1.500			
0.8674	55513.77	3.1370	3.1370	-0.1658	27.55	1.62	-1.500			
0.8679	55545.59	3.1340	3.1340	-0.1642	27.56	1.63	-1.500			
0.8684	55577.14	3.1310	3.1309	-0.1628	27.56	1.63	-1.500			
0.8689	55608.03	3.1280	3.1280	-0.1615	27.57	1.64	-1.500			
0.8694	55639.06	3.1250	3.1251	-0.1596	27.58	1.65	-1.500			
0.8698	55669.30	3.1220	3.1220	-0.1587	27.58	1.65	-1.500			
0.8703	55699.66	3.1190	3.1189	-0.1576	27.59	1.66	-1.500			
0.8708	55729.73	3.1160	3.1161	-0.1558	27.59	1.66	-1.500			
0.8712	55759.66	3.1130	3.1129	-0.1545	27.60	1.67	-1.500			
0.8717	55789.15	3.1100	3.1100	-0.1535	27.60	1.67	-1.500			
0.8722	55818.49	3.1070	3.1071	-0.1521	27.61	1.68	-1.500			
0.8726	55847.38	3.1040	3.1040	-0.1509	27.61	1.68	-1.500			
0.8731	55876.33	3.1010	3.1008	-0.1503	27.62	1.69	-1.500			
0.8735	55904.63	3.0980	3.0981	-0.1486	27.62	1.69	-1.500			
0.8740	55933.31	3.0950	3.0949	-0.1476	27.63	1.70	-1.500			
0.8744	55961.88	3.0920	3.0920	-0.1469	27.63	1.70	-1.500			
0.8748	55989.77	3.0890	3.0890	-0.1465	27.64	1.71	-1.500			
0.8753	56017.91	3.0860	3.0860	-0.1456	27.64	1.71	-1.500			
0.8757	56045.64	3.0830	3.0829	-0.1446	27.64	1.71	-1.500			
0.8761	56073.28	3.0800	3.0799	-0.1441	27.65	1.72	-1.500			
0.8766	56100.96	3.0770	3.0771	-0.1434	27.65	1.72	-1.500			
0.8770	56128.51	3.0740	3.0740	-0.1425	27.66	1.73	-1.500			
0.8774	56156.03	3.0710	3.0709	-0.1417	27.66	1.73	-1.500			
0.8779	56183.14	3.0680	3.0680	-0.1405	27.66	1.73	-1.500			
0.8783	56209.73	3.0650	3.0651	-0.1392	27.67	1.74	-1.500			
0.8787	56236.55	3.0620	3.0620	-0.1388	27.67	1.74	-1.500			
0.8791	56263.01	3.0590	3.0589	-0.1382	27.68	1.75	-1.500			
0.8795	56289.35	3.0560	3.0560	-0.1371	27.68	1.75	-1.500			
0.8799	56315.64	3.0530	3.0530	-0.1365	27.69	1.76	-1.500			
0.8803	56341.99	3.0500	3.0499	-0.1355	27.69	1.76	-1.500			
0.8807	56367.87	3.0470	3.0471	-0.1343	27.70	1.77	-1.500			
0.8812	56393.65	3.0440	3.0440	-0.1332	27.70	1.77	-1.500			
0.8815	56419.08	3.0410	3.0410	-0.1317	27.71	1.78	-1.500			
0.8819	56444.07	3.0380	3.0380	-0.1310	27.71	1.78	-1.500			
0.8823	56468.83	3.0350	3.0350	-0.1304	27.72	1.79	-1.500			
0.8827	56493.86	3.0320	3.0320	-0.1300	27.72	1.79	-1.500			
0.8831	56518.81	3.0290	3.0290	-0.1299	27.73	1.80	-1.500			
0.8835	56543.81	3.0260	3.0259	-0.1290	27.74	1.81	-1.500			
0.8839	56568.77	3.0230	3.0230	-0.1279	27.74	1.81	-1.500			
0.8843	56593.02	3.0200	3.0200	-0.1276	27.75	1.82	-1.500			
0.8846	56617.45	3.0170	3.0171	-0.1268	27.75	1.82	-1.500			
0.8850	56641.48	3.0140	3.0140	-0.1264	27.76	1.83	-1.500			
0.8854	56665.42	3.0110	3.0109	-0.1262	27.76	1.83	-1.500			
0.8858	56689.44	3.0080	3.0080	-0.1269	27.77	1.84	-1.500			
0.8862	56713.93	3.0050	3.0052	-0.1282	27.77	1.84	-1.500			
0.8865	56738.68	3.0020	3.0019	-0.1300	27.78	1.85	-1.501			
