Ah_balance (normalized)	Ah_balance (mAh)	Voltage - fit (V)	Voltage -  interpolate (V)	dQ/dV (1/V)	Temperature (°C)	Temperature - diff (°C)	Current (C)	R_DC 0ms (mOhm)	R_DC 50ms (mOhm)	R_DC 50 ms PEC (mOhm)
0.1947	12459.78	3.9280	3.9278	-0.0901	25.97	-0.01	-1.500			
0.1950	12479.37	3.9250	3.9248	-0.1166	25.97	-0.01	-1.500			
0.1954	12504.44	3.9220	3.9220	-0.1446	25.97	-0.01	-1.500			
0.1959	12535.11	3.9190	3.9191	-0.1714	25.97	-0.01	-1.500			
0.1964	12571.10	3.9160	3.9159	-0.1949	25.97	-0.01	-1.500			
0.1971	12611.80	3.9130	3.9130	-0.2199	25.97	-0.01	-1.500			
0.1978	12656.52	3.9100	3.9101	-0.2410	25.97	-0.01	-1.500			
0.1985	12705.12	3.9070	3.9070	-0.2628	25.97	-0.01	-1.500			
0.1993	12757.56	3.9040	3.9040	-0.2861	25.97	-0.01	-1.500			
0.2002	12814.18	3.9010	3.9011	-0.3068	25.97	-0.01	-1.500			
0.2012	12875.58	3.8980	3.8979	-0.3273	25.97	-0.01	-1.500			
0.2022	12940.84	3.8950	3.8950	-0.3469	25.97	-0.01	-1.500			
0.2033	13009.42	3.8920	3.8921	-0.3672	25.97	-0.01	-1.500			
0.2044	13082.20	3.8890	3.8890	-0.3853	25.97	-0.01	-1.500			
0.2056	13157.41	3.8860	3.8860	-0.4065	25.98	-0.00	-1.500			
0.2068	13237.44	3.8830	3.8830	-0.4248	25.98	-0.00	-1.500			
0.2082	13321.64	3.8800	3.8799	-0.4436	25.98	-0.00	-1.500			
0.2095	13409.03	3.8770	3.8771	-0.4607	25.98	-0.00	-1.500			
0.2109	13499.98	3.8740	3.8740	-0.4758	25.98	-0.00	-1.500			
0.2124	13592.64	3.8710	3.8710	-0.4883	25.98	0.00	-1.500			
0.2139	13687.77	3.8680	3.8680	-0.5026	25.98	0.00	-1.500			
0.2154	13784.55	3.8650	3.8650	-0.5147	25.98	0.00	-1.500			
0.2170	13885.88	3.8620	3.8620	-0.5262	25.98	0.00	-1.500			
0.2186	13987.97	3.8590	3.8590	-0.5356	25.99	0.01	-1.500			
0.2202	14092.20	3.8560	3.8560	-0.5472	25.99	0.01	-1.500			
0.2219	14198.40	3.8530	3.8530	-0.5558	25.99	0.01	-1.500			
0.2235	14306.13	3.8500	3.8500	-0.5620	25.99	0.01	-1.500			
0.2252	14414.28	3.8470	3.8470	-0.5697	25.99	0.01	-1.500			
0.2269	14524.71	3.8440	3.8440	-0.5770	25.99	0.01	-1.500			
0.2287	14637.28	3.8410	3.8410	-0.5826	25.99	0.01	-1.500			
0.2305	14749.13	3.8380	3.8381	-0.5858	25.99	0.01	-1.500			
0.2322	14861.96	3.8350	3.8350	-0.5886	26.00	0.02	-1.500			
0.2340	14975.35	3.8320	3.8320	-0.5943	26.00	0.02	-1.500			
0.2358	15090.14	3.8290	3.8290	-0.5967	26.00	0.02	-1.500			
0.2376	15204.64	3.8260	3.8260	-0.5978	26.00	0.02	-1.500			
0.2394	15319.77	3.8230	3.8230	-0.6032	26.01	0.03	-1.500			
0.2412	15436.13	3.8200	3.8200	-0.6066	26.01	0.03	-1.500			
0.2430	15552.67	3.8170	3.8170	-0.6099	26.01	0.03	-1.500			
0.2448	15670.21	3.8140	3.8140	-0.6136	26.02	0.04	-1.500			
0.2467	15788.34	3.8110	3.8110	-0.6148	26.02	0.04	-1.500			
0.2486	15907.33	3.8080	3.8080	-0.6191	26.03	0.05	-1.500			
0.2504	16026.97	3.8050	3.8050	-0.6194	26.03	0.05	-1.500			
0.2523	16145.26	3.8020	3.8020	-0.6186	26.04	0.06	-1.500			
0.2541	16263.59	3.7990	3.7990	-0.6228	26.04	0.06	-1.500			
0.2560	16383.21	3.7960	3.7960	-0.6252	26.05	0.07	-1.500			
0.2579	16503.65	3.7930	3.7929	-0.6287	26.05	0.07	-1.500			
0.2598	16625.01	3.7900	3.7900	-0.6320	26.06	0.08	-1.500			
0.2617	16746.99	3.7870	3.7870	-0.6339	26.06	0.08	-1.500			
0.2636	16869.39	3.7840	3.7840	-0.6347	26.06	0.08	-1.500			
0.2655	16990.21	3.7810	3.7810	-0.6360	26.07	0.09	-1.500			
0.2674	17111.70	3.7780	3.7781	-0.6392	26.07	0.09	-1.500			
0.2693	17235.01	3.7750	3.7749	-0.6464	26.07	0.09	-1.500			
0.2712	17358.78	3.7720	3.7720	-0.6550	26.08	0.10	-1.500			
0.2732	17486.09	3.7690	3.7690	-0.6611	26.08	0.10	-1.500			
0.2752	17615.44	3.7660	3.7659	-0.6656	26.09	0.11	-1.500			
0.2773	17744.41	3.7630	3.7631	-0.6662	26.09	0.11	-1.500			
0.2792	17871.32	3.7600	3.7601	-0.6684	26.09	0.11	-1.500			
0.2813	18000.26	3.7570	3.7570	-0.6683	26.10	0.12	-1.500			
0.2832	18127.58	3.7540	3.7540	-0.6690	26.10	0.12	-1.500			
0.2852	18255.68	3.7510	3.7510	-0.6712	26.11	0.13	-1.500			
0.2873	18385.43	3.7480	3.7480	-0.6792	26.11	0.13	-1.500			
0.2893	18515.87	3.7450	3.7450	-0.6847	26.11	0.13	-1.500			
0.2914	18647.95	3.7420	3.7420	-0.6892	26.12	0.14	-1.500			
0.2934	18780.12	3.7390	3.7390	-0.6949	26.12	0.14	-1.500			
0.2955	18915.14	3.7360	3.7360	-0.7035	26.13	0.15	-1.500			
0.2977	19050.31	3.7330	3.7330	-0.7091	26.13	0.15	-1.500			
0.2998	19188.18	3.7300	3.7300	-0.7115	26.14	0.16	-1.500			
0.3019	19324.69	3.7270	3.7270	-0.7142	26.14	0.16	-1.500			
0.3041	19461.35	3.7240	3.7240	-0.7244	26.14	0.16	-1.500			
0.3063	19601.76	3.7210	3.7209	-0.7293	26.15	0.17	-1.500			
0.3085	19741.21	3.7180	3.7179	-0.7361	26.15	0.17	-1.500			
0.3107	19883.82	3.7150	3.7151	-0.7426	26.16	0.18	-1.500			
0.3129	20027.60	3.7120	3.7120	-0.7513	26.16	0.18	-1.500			
0.3152	20173.44	3.7090	3.7090	-0.7592	26.17	0.19	-1.500			
0.3175	20319.18	3.7060	3.7060	-0.7627	26.17	0.19	-1.500			
0.3198	20465.79	3.7030	3.7030	-0.7700	26.18	0.20	-1.500			
0.3221	20614.82	3.7000	3.7000	-0.7782	26.18	0.20	-1.500			
0.3244	20763.58	3.6970	3.6970	-0.7824	26.19	0.21	-1.500			
0.3268	20914.97	3.6940	3.6940	-0.7907	26.20	0.22	-1.500			
0.3292	21067.10	3.6910	3.6910	-0.8011	26.20	0.22	-1.500			
0.3316	21221.99	3.6880	3.6879	-0.8114	26.21	0.23	-1.500			
0.3341	21379.58	3.6850	3.6850	-0.8194	26.21	0.23	-1.500			
0.3365	21537.45	3.6820	3.6821	-0.8279	26.22	0.24	-1.500			
0.3390	21697.10	3.6790	3.6790	-0.8389	26.22	0.24	-1.500			
0.3416	21859.82	3.6760	3.6760	-0.8460	26.23	0.25	-1.500			
0.3441	22021.64	3.6730	3.6730	-0.8545	26.23	0.25	-1.500			
0.3467	22185.90	3.6700	3.6700	-0.8630	26.24	0.26	-1.500			
0.3493	22354.24	3.6670	3.6670	-0.8700	26.24	0.26	-1.500			
0.3519	22522.07	3.6640	3.6640	-0.8781	26.24	0.26	-1.500			
0.3545	22690.69	3.6610	3.6611	-0.8876	26.25	0.27	-1.500			
0.3572	22862.33	3.6580	3.6579	-0.8964	26.25	0.27	-1.500			
0.3599	23034.90	3.6550	3.6550	-0.9109	26.26	0.28	-1.500			
0.3627	23210.98	3.6520	3.6520	-0.9184	26.26	0.28	-1.500			
0.3655	23388.89	3.6490	3.6490	-0.9311	26.27	0.29	-1.500			
0.3683	23568.95	3.6460	3.6460	-0.9421	26.27	0.29	-1.500			
0.3711	23749.90	3.6430	3.6431	-0.9488	26.27	0.29	-1.500			
0.3739	23932.59	3.6400	3.6400	-0.9611	26.28	0.30	-1.500			
0.3768	24118.32	3.6370	3.6369	-0.9712	26.28	0.30	-1.500			
0.3798	24304.57	3.6340	3.6340	-0.9821	26.29	0.31	-1.500			
0.3828	24496.84	3.6310	3.6310	-0.9917	26.29	0.31	-1.500			
0.3857	24688.00	3.6280	3.6280	-1.0031	26.30	0.32	-1.500			
0.3888	24881.69	3.6250	3.6250	-1.0131	26.30	0.32	-1.500			
0.3918	25075.93	3.6220	3.6221	-1.0271	26.31	0.33	-1.500			
0.3949	25273.74	3.6190	3.6188	-1.0368	26.31	0.33	-1.500			
0.3980	25473.18	3.6160	3.6160	-1.0511	26.31	0.33	-1.500			
0.4012	25675.65	3.6130	3.6130	-1.0686	26.32	0.34	-1.500			
0.4044	25884.34	3.6100	3.6100	-1.0867	26.32	0.34	-1.500			
0.4078	26096.05	3.6070	3.6069	-1.0945	26.33	0.35	-1.500			
0.4111	26308.02	3.6040	3.6041	-1.1073	26.33	0.35	-1.500			
0.4144	26519.52	3.6010	3.6010	-1.1178	26.33	0.35	-1.500			
0.4178	26736.16	3.5980	3.5979	-1.1335	26.34	0.36	-1.500			
0.4211	26951.26	3.5950	3.5950	-1.1474	26.34	0.36	-1.500			
0.4246	27173.54	3.5920	3.5920	-1.1643	26.35	0.37	-1.500			
0.4282	27402.00	3.5890	3.5890	-1.1851	26.35	0.37	-1.500			
0.4318	27632.64	3.5860	3.5860	-1.1977	26.35	0.37	-1.500			
0.4354	27863.00	3.5830	3.5830	-1.2121	26.36	0.38	-1.500			
0.4390	28096.64	3.5800	3.5800	-1.2272	26.36	0.38	-1.500			
0.4427	28332.80	3.5770	3.5770	-1.2373	26.37	0.39	-1.500			
0.4464	28569.96	3.5740	3.5740	-1.2551	26.38	0.40	-1.500			
0.4502	28813.80	3.5710	3.5710	-1.2832	26.38	0.40	-1.500			
0.4541	29062.28	3.5680	3.5679	-1.3003	26.39	0.41	-1.500			
0.4581	29315.82	3.5650	3.5649	-1.3185	26.39	0.41	-1.500			
0.4620	29569.48	3.5620	3.5622	-1.3388	26.40	0.42	-1.500			
0.4661	29829.32	3.5590	3.5590	-1.3595	26.41	0.43	-1.500			
0.4702	30093.20	3.5560	3.5560	-1.3796	26.42	0.44	-1.500			
0.4743	30357.66	3.5530	3.5530	-1.3887	26.43	0.45	-1.500			
0.4786	30628.29	3.5500	3.5500	-1.4112	26.43	0.45	-1.500			
0.4828	30900.19	3.5470	3.5471	-1.4263	26.44	0.46	-1.500			
0.4871	31173.77	3.5440	3.5441	-1.4458	26.45	0.47	-1.500			
0.4914	31450.90	3.5410	3.5410	-1.4627	26.46	0.48	-1.500			
0.4958	31733.50	3.5380	3.5380	-1.4855	26.47	0.49	-1.500			
0.5004	32023.68	3.5350	3.5350	-1.4988	26.48	0.50	-1.500			
0.5049	32315.00	3.5320	3.5321	-1.5230	26.49	0.51	-1.500			
0.5095	32608.01	3.5290	3.5291	-1.5376	26.50	0.52	-1.500			
0.5141	32904.28	3.5260	3.5259	-1.5521	26.51	0.53	-1.500			
0.5188	33203.58	3.5230	3.5233	-1.5668	26.52	0.54	-1.500	0.364	0.540	
0.5235	33504.16	3.5200	3.5200	-1.5921	26.53	0.55	-1.500			
0.5284	33816.07	3.5170	3.5169	-1.6037	26.54	0.56	-1.500			
0.5332	34126.12	3.5140	3.5140	-1.6196	26.55	0.57	-1.500			
0.5381	34437.33	3.5110	3.5111	-1.6225	26.56	0.58	-1.500			
0.5430	34751.04	3.5080	3.5079	-1.6309	26.57	0.59	-1.500			
0.5479	35065.66	3.5050	3.5050	-1.6454	26.58	0.60	-1.500			
0.5528	35381.68	3.5020	3.5019	-1.6446	26.59	0.61	-1.500			
0.5578	35699.39	3.4990	3.4989	-1.6517	26.60	0.62	-1.500			
0.5628	36018.68	3.4960	3.4961	-1.6495	26.61	0.63	-1.500			
0.5677	36333.32	3.4930	3.4930	-1.6450	26.63	0.65	-1.500			
0.5727	36649.97	3.4900	3.4900	-1.6506	26.64	0.66	-1.500			
0.5776	36965.96	3.4870	3.4869	-1.6388	26.65	0.67	-1.500			
0.5825	37282.11	3.4840	3.4840	-1.6427	26.67	0.69	-1.500			
0.5875	37597.24	3.4810	3.4811	-1.6343	26.68	0.70	-1.500			
0.5924	37911.19	3.4780	3.4779	-1.6258	26.69	0.71	-1.500			
0.5972	38223.94	3.4750	3.4750	-1.6212	26.71	0.73	-1.500			
0.6021	38532.78	3.4720	3.4720	-1.6056	26.72	0.74	-1.500			
0.6069	38842.22	3.4690	3.4689	-1.5958	26.73	0.75	-1.500			
0.6117	39148.73	3.4660	3.4662	-1.5794	26.74	0.76	-1.500			
0.6164	39449.47	3.4630	3.4630	-1.5564	26.75	0.77	-1.500			
0.6210	39745.47	3.4600	3.4600	-1.5447	26.77	0.79	-1.500			
0.6256	40040.62	3.4570	3.4570	-1.5165	26.78	0.80	-1.500			
0.6302	40332.15	3.4540	3.4540	-1.4975	26.80	0.82	-1.500			
0.6346	40614.37	3.4510	3.4510	-1.4801	26.81	0.83	-1.500			
0.6390	40897.61	3.4480	3.4478	-1.4591	26.83	0.85	-1.500			
0.6434	41174.52	3.4450	3.4450	-1.4469	26.85	0.87	-1.500			
0.6477	41450.18	3.4420	3.4420	-1.4318	26.87	0.89	-1.500			
0.6519	41724.47	3.4390	3.4390	-1.4178	26.89	0.91	-1.500			
0.6562	41999.74	3.4360	3.4360	-1.4067	26.90	0.92	-1.500			
0.6604	42268.28	3.4330	3.4330	-1.3843	26.92	0.94	-1.500			
0.6645	42530.25	3.4300	3.4299	-1.3583	26.94	0.96	-1.500			
0.6686	42790.20	3.4270	3.4270	-1.3373	26.96	0.98	-1.500			
0.6725	43040.67	3.4240	3.4240	-1.3175	26.98	1.00	-1.500			
0.6764	43291.07	3.4210	3.4210	-1.2988	26.99	1.01	-1.500			
0.6803	43542.25	3.4180	3.4180	-1.2776	27.01	1.03	-1.500			
0.6842	43786.40	3.4150	3.4150	-1.2487	27.02	1.04	-1.500			
0.6879	44024.45	3.4120	3.4120	-1.2276	27.04	1.06	-1.500			
0.6915	44257.02	3.4090	3.4090	-1.2033	27.05	1.07	-1.500			
0.6950	44482.98	3.4060	3.4059	-1.1784	27.07	1.09	-1.500			
0.6985	44706.49	3.4030	3.4030	-1.1535	27.09	1.11	-1.500			
0.7020	44929.21	3.4000	3.4000	-1.1292	27.11	1.13	-1.500			
0.7054	45144.96	3.3970	3.3969	-1.0991	27.13	1.15	-1.500			
0.7087	45354.38	3.3940	3.3941	-1.0717	27.14	1.16	-1.500			
0.7118	45555.70	3.3910	3.3910	-1.0355	27.15	1.17	-1.500			
0.7148	45750.25	3.3880	3.3879	-1.0006	27.17	1.19	-1.500			
0.7178	45937.50	3.3850	3.3850	-0.9686	27.18	1.20	-1.500			
0.7207	46122.48	3.3820	3.3821	-0.9422	27.20	1.22	-1.500			
0.7234	46300.34	3.3790	3.3790	-0.9202	27.21	1.23	-1.500			
0.7262	46475.48	3.3760	3.3759	-0.8882	27.23	1.25	-1.500			
0.7288	46643.01	3.3730	3.3730	-0.8586	27.24	1.26	-1.500			
0.7313	46805.74	3.3700	3.3702	-0.8327	27.25	1.27	-1.500			
0.7338	46961.87	3.3670	3.3670	-0.8088	27.25	1.27	-1.500			
0.7361	47113.32	3.3640	3.3640	-0.7846	27.26	1.28	-1.500			
0.7385	47261.40	3.3610	3.3609	-0.7580	27.27	1.29	-1.500			
0.7407	47404.19	3.3580	3.3580	-0.7391	27.28	1.30	-1.500			
0.7429	47544.75	3.3550	3.3551	-0.7238	27.29	1.31	-1.500			
0.7450	47682.00	3.3520	3.3519	-0.7033	27.30	1.32	-1.500			
0.7471	47815.41	3.3490	3.3489	-0.6832	27.31	1.33	-1.500			
0.7491	47943.91	3.3460	3.3461	-0.6655	27.32	1.34	-1.500			
0.7511	48070.75	3.3430	3.3430	-0.6483	27.33	1.35	-1.500			
0.7530	48194.68	3.3400	3.3399	-0.6312	27.34	1.36	-1.500			
0.7549	48311.83	3.3370	3.3370	-0.6103	27.35	1.37	-1.500			
0.7567	48427.24	3.3340	3.3341	-0.5952	27.36	1.38	-1.500			
0.7585	48541.02	3.3310	3.3309	-0.5809	27.37	1.39	-1.500			
0.7602	48650.75	3.3280	3.3279	-0.5648	27.37	1.39	-1.500			
0.7618	48756.19	3.3250	3.3252	-0.5495	27.38	1.40	-1.500			
0.7635	48860.82	3.3220	3.3220	-0.5388	27.39	1.41	-1.500			
0.7651	48963.21	3.3190	3.3190	-0.5265	27.40	1.42	-1.500			
0.7666	49062.85	3.3160	3.3160	-0.5136	27.41	1.43	-1.500			
0.7681	49160.09	3.3130	3.3130	-0.5031	27.42	1.44	-1.500			
0.7696	49256.81	3.3100	3.3099	-0.4893	27.42	1.44	-1.500			
0.7711	49349.17	3.3070	3.3070	-0.4750	27.43	1.45	-1.500			
0.7725	49438.37	3.3040	3.3040	-0.4623	27.44	1.46	-1.500			
0.7738	49525.46	3.3010	3.3012	-0.4508	27.45	1.47	-1.500			
0.7752	49610.42	3.2980	3.2979	-0.4426	27.45	1.47	-1.500			
0.7765	49694.38	3.2950	3.2950	-0.4317	27.46	1.48	-1.500			
0.7778	49776.62	3.2920	3.2920	-0.4222	27.47	1.49	-1.500			
0.7790	49858.40	3.2890	3.2890	-0.4153	27.48	1.50	-1.500			
0.7803	49936.56	3.2860	3.2860	-0.4022	27.48	1.50	-1.500			
0.7814	50011.68	3.2830	3.2830	-0.3914	27.49	1.51	-1.500			
0.7826	50085.64	3.2800	3.2801	-0.3828	27.50	1.52	-1.500			
0.7837	50157.22	3.2770	3.2769	-0.3727	27.51	1.53	-1.500			
0.7848	50228.71	3.2740	3.2740	-0.3662	27.52	1.54	-1.500			
0.7859	50298.45	3.2710	3.2711	-0.3583	27.52	1.54	-1.500			
0.7870	50366.35	3.2680	3.2680	-0.3512	27.53	1.55	-1.500			
0.7880	50433.36	3.2650	3.2649	-0.3439	27.54	1.56	-1.500			
0.7890	50498.85	3.2620	3.2620	-0.3343	27.54	1.56	-1.500			
0.7900	50562.12	3.2590	3.2590	-0.3264	27.55	1.57	-1.500			
0.7910	50623.79	3.2560	3.2560	-0.3211	27.56	1.58	-1.500			
0.7919	50684.53	3.2530	3.2530	-0.3152	27.56	1.58	-1.500			
0.7929	50744.08	3.2500	3.2499	-0.3093	27.57	1.59	-1.500			
0.7938	50802.84	3.2470	3.2471	-0.3040	27.57	1.59	-1.500			
0.7947	50861.40	3.2440	3.2440	-0.2988	27.58	1.60	-1.500			
0.7956	50918.60	3.2410	3.2410	-0.2933	27.59	1.61	-1.500			
0.7965	50974.12	3.2380	3.2380	-0.2871	27.59	1.61	-1.500			
0.7973	51028.16	3.2350	3.2350	-0.2813	27.60	1.62	-1.500			
0.7982	51081.67	3.2320	3.2319	-0.2760	27.60	1.62	-1.500			
0.7990	51134.13	3.2290	3.2291	-0.2716	27.61	1.63	-1.500			
0.7998	51185.97	3.2260	3.2260	-0.2674	27.61	1.63	-1.500			
0.8006	51236.92	3.2230	3.2230	-0.2628	27.62	1.64	-1.500			
0.8013	51286.20	3.2200	3.2200	-0.2590	27.62	1.64	-1.500			
0.8021	51335.66	3.2170	3.2170	-0.2552	27.63	1.65	-1.500			
0.8029	51384.76	3.2140	3.2139	-0.2508	27.63	1.65	-1.500			
0.8036	51432.45	3.2110	3.2110	-0.2477	27.64	1.66	-1.500			
0.8044	51479.43	3.2080	3.2082	-0.2449	27.65	1.67	-1.500			
0.8051	51526.00	3.2050	3.2051	-0.2416	27.65	1.67	-1.500			
0.8058	51572.33	3.2020	3.2019	-0.2384	27.66	1.68	-1.500			
0.8065	51617.59	3.1990	3.1990	-0.2335	27.66	1.68	-1.500			
0.8072	51661.53	3.1960	3.1961	-0.2309	27.67	1.69	-1.500			
0.8079	51706.43	3.1930	3.1932	-0.2286	27.68	1.70	-1.500			
0.8086	51750.07	3.1900	3.1900	-0.2261	27.68	1.70	-1.500			
0.8093	51792.69	3.1870	3.1869	-0.2216	27.69	1.71	-1.500			
0.8099	51834.59	3.1840	3.1842	-0.2187	27.69	1.71	-1.500			
0.8106	51876.60	3.1810	3.1809	-0.2164	27.70	1.72	-1.500			
0.8112	51918.41	3.1780	3.1780	-0.2139	27.71	1.73	-1.500			
0.8119	51959.43	3.1750	3.1749	-0.2109	27.71	1.73	-1.500			
0.8125	51998.99	3.1720	3.1721	-0.2080	27.72	1.74	-1.500			
0.8131	52039.08	3.1690	3.1689	-0.2063	27.72	1.74	-1.500			
0.8137	52078.06	3.1660	3.1660	-0.2033	27.73	1.75	-1.500			
0.8143	52116.89	3.1630	3.1630	-0.2013	27.74	1.76	-1.500			
0.8149	52155.28	3.1600	3.1601	-0.1985	27.74	1.76	-1.500			
0.8155	52193.12	3.1570	3.1570	-0.1974	27.75	1.77	-1.500			
0.8161	52230.88	3.1540	3.1540	-0.1959	27.75	1.77	-1.500			
0.8167	52268.33	3.1510	3.1510	-0.1941	27.76	1.78	-1.500			
0.8173	52305.18	3.1480	3.1479	-0.1922	27.77	1.79	-1.500			
0.8178	52342.20	3.1450	3.1450	-0.1905	27.77	1.79	-1.500			
0.8184	52378.81	3.1420	3.1420	-0.1885	27.78	1.80	-1.500			
0.8190	52414.76	3.1390	3.1390	-0.1860	27.78	1.80	-1.500			
0.8195	52450.35	3.1360	3.1360	-0.1852	27.79	1.81	-1.500			
0.8201	52485.44	3.1330	3.1330	-0.1823	27.79	1.81	-1.500			
0.8206	52520.12	3.1300	3.1299	-0.1809	27.80	1.82	-1.500			
0.8212	52554.74	3.1270	3.1270	-0.1797	27.80	1.82	-1.500			
0.8217	52589.23	3.1240	3.1242	-0.1770	27.81	1.83	-1.500			
0.8222	52622.98	3.1210	3.1209	-0.1763	27.81	1.83	-1.500			
0.8228	52656.61	3.1180	3.1182	-0.1749	27.82	1.84	-1.500			
0.8233	52690.07	3.1150	3.1149	-0.1736	27.83	1.85	-1.500			
0.8238	52722.91	3.1120	3.1119	-0.1719	27.83	1.85	-1.500			
0.8243	52756.21	3.1090	3.1090	-0.1705	27.84	1.86	-1.500			
0.8248	52788.67	3.1060	3.1060	-0.1687	27.84	1.86	-1.500			
0.8253	52820.92	3.1030	3.1030	-0.1672	27.85	1.87	-1.500			
0.8258	52853.22	3.1000	3.1001	-0.1662	27.85	1.87	-1.500			
0.8263	52884.29	3.0970	3.0970	-0.1648	27.86	1.88	-1.500			
0.8268	52915.99	3.0940	3.0939	-0.1637	27.86	1.88	-1.500			
0.8273	52947.35	3.0910	3.0911	-0.1630	27.87	1.89	-1.500			
0.8278	52978.61	3.0880	3.0879	-0.1620	27.87	1.89	-1.500			
0.8283	53009.74	3.0850	3.0851	-0.1616	27.88	1.90	-1.500			
0.8288	53040.75	3.0820	3.0820	-0.1602	27.88	1.90	-1.500			
0.8292	53071.38	3.0790	3.0789	-0.1589	27.89	1.91	-1.500			
0.8297	53101.79	3.0760	3.0760	-0.1576	27.89	1.91	-1.500			
0.8302	53131.89	3.0730	3.0731	-0.1557	27.90	1.92	-1.500			
0.8307	53161.77	3.0700	3.0700	-0.1550	27.90	1.92	-1.500			
0.8311	53191.37	3.0670	3.0670	-0.1533	27.91	1.93	-1.500			
0.8316	53220.52	3.0640	3.0640	-0.1519	27.91	1.93	-1.500			
0.8320	53249.27	3.0610	3.0610	-0.1508	27.92	1.94	-1.500			
0.8325	53278.23	3.0580	3.0580	-0.1501	27.92	1.94	-1.500			
0.8329	53306.99	3.0550	3.0550	-0.1494	27.93	1.95	-1.500			
0.8334	53335.53	3.0520	3.0520	-0.1489	27.94	1.96	-1.500			
0.8338	53364.27	3.0490	3.0491	-0.1482	27.94	1.96	-1.500			
0.8343	53392.67	3.0460	3.0459	-0.1470	27.95	1.97	-1.500			
0.8347	53420.78	3.0430	3.0430	-0.1458	27.95	1.97	-1.500			
0.8351	53448.68	3.0400	3.0401	-0.1455	27.96	1.98	-1.500			
0.8356	53476.52	3.0370	3.0370	-0.1442	27.96	1.98	-1.500			
0.8360	53504.16	3.0340	3.0339	-0.1434	27.97	1.99	-1.500			
0.8364	53531.62	3.0310	3.0310	-0.1421	27.98	2.00	-1.500			
0.8369	53558.56	3.0280	3.0281	-0.1417	27.98	2.00	-1.500			
0.8373	53585.98	3.0250	3.0250	-0.1409	27.99	2.01	-1.500			
0.8377	53613.00	3.0220	3.0219	-0.1399	27.99	2.01	-1.500			
0.8381	53639.67	3.0190	3.0190	-0.1392	28.00	2.02	-1.500			
0.8385	53666.17	3.0160	3.0161	-0.1381	28.00	2.02	-1.500			
0.8390	53692.82	3.0130	3.0129	-0.1377	28.01	2.03	-1.500			
0.8394	53719.16	3.0100	3.0100	-0.1367	28.01	2.03	-1.500			
0.8398	53745.36	3.0070	3.0070	-0.1356	28.02	2.04	-1.500			
0.8402	53771.06	3.0040	3.0040	-0.1358	28.02	2.04	-1.500			
0.8406	53796.99	3.0010	3.0010	-0.1317	28.03	2.05	-1.500			
