Ah_balance (normalized)	Ah_balance (mAh)	Voltage - fit (V)	Voltage -  interpolate (V)	dQ/dV (1/V)	Temperature (°C)	Temperature - diff (°C)	Current (C)	R_DC 0ms (mOhm)	R_DC 50ms (mOhm)	R_DC 50 ms PEC (mOhm)
0.2992	19149.16	3.9730	3.9730	0.8607	26.94	0.97	1.500			
0.3018	19315.63	3.9700	3.9699	0.8676	26.94	0.97	1.500			
0.3044	19482.89	3.9670	3.9670	0.8694	26.93	0.96	1.500			
0.3070	19649.10	3.9640	3.9640	0.8719	26.93	0.96	1.500			
0.3096	19817.01	3.9610	3.9610	0.8749	26.92	0.95	1.500			
0.3123	19984.15	3.9580	3.9580	0.8798	26.92	0.95	1.500			
0.3149	20154.59	3.9550	3.9549	0.8815	26.92	0.95	1.500			
0.3176	20324.26	3.9520	3.9520	0.8902	26.91	0.94	1.500			
0.3203	20496.21	3.9490	3.9491	0.8960	26.91	0.94	1.500			
0.3230	20669.18	3.9460	3.9460	0.9005	26.90	0.93	1.500			
0.3257	20841.91	3.9430	3.9429	0.9043	26.90	0.93	1.500			
0.3284	21016.31	3.9400	3.9401	0.9033	26.89	0.92	1.500			
0.3311	21190.22	3.9370	3.9370	0.9069	26.89	0.92	1.500			
0.3338	21364.48	3.9340	3.9340	0.9124	26.89	0.92	1.500			
0.3365	21537.26	3.9310	3.9310	0.9122	26.88	0.91	1.500			
0.3393	21713.62	3.9280	3.9280	0.9201	26.88	0.91	1.500			
0.3421	21891.63	3.9250	3.9251	0.9282	26.87	0.90	1.500			
0.3448	22069.66	3.9220	3.9220	0.9362	26.87	0.90	1.500			
0.3477	22251.51	3.9190	3.9190	0.9445	26.86	0.89	1.500			
0.3505	22433.19	3.9160	3.9160	0.9481	26.86	0.89	1.500			
0.3534	22615.28	3.9130	3.9130	0.9545	26.85	0.88	1.500			
0.3562	22799.25	3.9100	3.9101	0.9628	26.85	0.88	1.500			
0.3591	22985.31	3.9070	3.9070	0.9702	26.84	0.87	1.500			
0.3621	23172.23	3.9040	3.9039	0.9794	26.83	0.86	1.500			
0.3650	23360.33	3.9010	3.9010	0.9860	26.83	0.86	1.500			
0.3680	23552.17	3.8980	3.8980	0.9927	26.82	0.85	1.500			
0.3710	23745.30	3.8950	3.8951	0.9977	26.82	0.85	1.500			
0.3740	23935.35	3.8920	3.8919	1.0047	26.81	0.84	1.500			
0.3770	24126.46	3.8890	3.8890	1.0129	26.80	0.83	1.500			
0.3800	24321.99	3.8860	3.8859	1.0211	26.80	0.83	1.500			
0.3831	24518.72	3.8830	3.8830	1.0266	26.79	0.82	1.500			
0.3862	24718.24	3.8800	3.8800	1.0385	26.79	0.82	1.500			
0.3894	24918.56	3.8770	3.8770	1.0502	26.78	0.81	1.500			
0.3925	25120.69	3.8740	3.8740	1.0621	26.77	0.80	1.500			
0.3957	25323.96	3.8710	3.8710	1.0725	26.77	0.80	1.500			
0.3989	25530.45	3.8680	3.8680	1.0851	26.76	0.79	1.500			
0.4022	25741.93	3.8650	3.8650	1.1033	26.75	0.78	1.500			
0.4056	25955.69	3.8620	3.8620	1.1222	26.75	0.78	1.500			
0.4089	26171.55	3.8590	3.8589	1.1359	26.74	0.77	1.500			
0.4124	26390.95	3.8560	3.8560	1.1518	26.73	0.76	1.500			
0.4159	26614.49	3.8530	3.8530	1.1677	26.73	0.76	1.500			
0.4194	26840.38	3.8500	3.8500	1.1854	26.72	0.75	1.500			
0.4230	27069.44	3.8470	3.8471	1.2026	26.71	0.74	1.500			
0.4266	27300.24	3.8440	3.8439	1.2218	26.70	0.73	1.500			
0.4303	27537.22	3.8410	3.8409	1.2359	26.69	0.72	1.500			
0.4340	27774.50	3.8380	3.8380	1.2614	26.68	0.71	1.500			
0.4378	28019.15	3.8350	3.8351	1.2852	26.67	0.70	1.500			
0.4417	28269.01	3.8320	3.8320	1.3152	26.67	0.70	1.500			
0.4457	28524.00	3.8290	3.8290	1.3391	26.66	0.69	1.500			
0.4497	28783.36	3.8260	3.8260	1.3610	26.65	0.68	1.500			
0.4539	29047.46	3.8230	3.8230	1.3840	26.64	0.67	1.500			
0.4581	29315.24	3.8200	3.8201	1.4226	26.63	0.66	1.500			
0.4623	29588.24	3.8170	3.8169	1.4509	26.62	0.65	1.500			
0.4667	29871.05	3.8140	3.8140	1.4843	26.61	0.64	1.500			
0.4712	30158.71	3.8110	3.8111	1.5171	26.59	0.62	1.500			
0.4759	30455.65	3.8080	3.8080	1.5584	26.58	0.61	1.500			
0.4806	30758.73	3.8050	3.8050	1.5938	26.57	0.60	1.500			
0.4854	31066.49	3.8020	3.8019	1.6300	26.56	0.59	1.500			
0.4903	31379.56	3.7990	3.7991	1.6702	26.55	0.58	1.500			
0.4954	31704.52	3.7960	3.7960	1.7184	26.54	0.57	1.500			
0.5006	32041.59	3.7930	3.7930	1.7635	26.52	0.55	1.500			
0.5060	32383.02	3.7900	3.7900	1.8136	26.51	0.54	1.500			
0.5115	32736.92	3.7870	3.7870	1.8786	26.49	0.52	1.500			
0.5172	33102.54	3.7840	3.7839	1.9197	26.47	0.50	1.500			
0.5231	33476.69	3.7810	3.7811	1.9523	26.46	0.49	1.500			
0.5290	33857.23	3.7780	3.7780	1.9750	26.44	0.47	1.500			
0.5350	34237.93	3.7750	3.7750	1.9961	26.43	0.46	1.500			
0.5410	34623.76	3.7720	3.7720	2.0248	26.41	0.44	1.500			
0.5471	35016.83	3.7690	3.7691	2.0777	26.39	0.42	1.500			
0.5535	35423.54	3.7660	3.7660	2.0818	26.38	0.41	1.500			
0.5598	35825.65	3.7630	3.7631	2.0920	26.36	0.39	1.500	0.357	0.456	
0.5661	36227.53	3.7600	3.7600	2.0900	26.35	0.38	1.500			
0.5723	36629.90	3.7570	3.7571	2.0793	26.33	0.36	1.500			
0.5786	37028.18	3.7540	3.7540	2.0408	26.31	0.34	1.500			
0.5847	37421.43	3.7510	3.7510	2.0110	26.30	0.33	1.500			
0.5907	37803.01	3.7480	3.7481	1.9980	26.28	0.31	1.500			
0.5966	38183.69	3.7450	3.7450	1.9915	26.26	0.29	1.500			
0.6026	38565.81	3.7420	3.7420	2.0009	26.25	0.28	1.500			
0.6087	38954.03	3.7390	3.7390	2.0095	26.24	0.27	1.500			
0.6147	39340.30	3.7360	3.7360	2.0217	26.23	0.26	1.500			
0.6208	39729.25	3.7330	3.7330	2.0380	26.22	0.25	1.500			
0.6269	40121.87	3.7300	3.7300	2.0419	26.21	0.24	1.500			
0.6330	40512.86	3.7270	3.7270	2.0898	26.20	0.23	1.500			
0.6393	40914.76	3.7240	3.7240	2.1399	26.19	0.22	1.500			
0.6458	41328.41	3.7210	3.7210	2.2067	26.18	0.21	1.500			
0.6525	41759.05	3.7180	3.7181	2.2691	26.16	0.19	1.500			
0.6595	42206.53	3.7150	3.7150	2.3782	26.15	0.18	1.500			
0.6667	42666.37	3.7120	3.7120	2.4685	26.13	0.16	1.500			
0.6742	43150.05	3.7090	3.7091	2.5487	26.12	0.15	1.500			
0.6819	43643.78	3.7060	3.7061	2.6127	26.11	0.14	1.500			
0.6897	44142.85	3.7030	3.7030	2.6573	26.10	0.13	1.500			
0.6979	44664.57	3.7000	3.7000	2.6876	26.09	0.12	1.500			
0.7061	45190.66	3.6970	3.6971	2.7017	26.08	0.11	1.500			
0.7140	45694.84	3.6940	3.6941	2.5212	26.07	0.10	1.500			
0.7213	46166.20	3.6910	3.6911	2.3657	26.06	0.09	1.500			
0.7282	46606.64	3.6880	3.6881	2.1846	26.05	0.08	1.500			
0.7345	47007.10	3.6850	3.6851	2.0078	26.05	0.08	1.500			
0.7401	47369.04	3.6820	3.6820	1.8423	26.04	0.07	1.500			
0.7454	47705.00	3.6790	3.6790	1.7061	26.04	0.07	1.500			
0.7503	48017.40	3.6760	3.6760	1.6026	26.03	0.06	1.500			
0.7549	48314.92	3.6730	3.6731	1.5140	26.03	0.06	1.500			
0.7593	48596.29	3.6700	3.6699	1.4366	26.03	0.06	1.500			
0.7634	48860.00	3.6670	3.6669	1.3647	26.02	0.05	1.500			
0.7674	49111.81	3.6640	3.6640	1.3163	26.02	0.05	1.500			
0.7712	49356.36	3.6610	3.6610	1.2833	26.02	0.05	1.500			
0.7749	49595.22	3.6580	3.6580	1.2621	26.01	0.04	1.500			
0.7787	49834.68	3.6550	3.6550	1.2530	26.00	0.03	1.500			
0.7824	50072.61	3.6520	3.6520	1.2514	26.00	0.03	1.500			
0.7861	50312.05	3.6490	3.6490	1.2592	25.99	0.02	1.500			
0.7899	50552.36	3.6460	3.6460	1.2702	25.99	0.02	1.500			
0.7937	50797.11	3.6430	3.6429	1.2834	25.98	0.01	1.500			
0.7976	51043.27	3.6400	3.6400	1.2967	25.98	0.01	1.500			
0.8015	51297.24	3.6370	3.6370	1.3017	25.97	0.00	1.500			
0.8055	51552.22	3.6340	3.6340	1.3034	25.97	0.00	1.500			
0.8094	51801.91	3.6310	3.6311	1.3056	25.97	-0.00	1.500			
0.8133	52052.31	3.6280	3.6280	1.3023	25.96	-0.01	1.500			
0.8172	52300.82	3.6250	3.6249	1.2930	25.96	-0.01	1.500			
0.8211	52549.06	3.6220	3.6221	1.2887	25.96	-0.01	1.500			
0.8249	52794.99	3.6190	3.6190	1.2850	25.96	-0.01	1.500			
0.8288	53043.56	3.6160	3.6160	1.2817	25.95	-0.02	1.500			
0.8326	53288.30	3.6130	3.6130	1.2756	25.95	-0.02	1.500			
0.8364	53531.27	3.6100	3.6100	1.2676	25.95	-0.02	1.500			
0.8403	53776.11	3.6070	3.6070	1.2588	25.94	-0.03	1.500			
0.8440	54017.68	3.6040	3.6040	1.2521	25.94	-0.03	1.500			
0.8478	54257.45	3.6010	3.6011	1.2369	25.94	-0.03	1.500			
0.8515	54493.43	3.5980	3.5980	1.2226	25.94	-0.03	1.500			
0.8551	54728.11	3.5950	3.5949	1.2052	25.94	-0.03	1.500			
0.8587	54956.82	3.5920	3.5920	1.1865	25.93	-0.04	1.500			
0.8622	55181.13	3.5890	3.5890	1.1741	25.93	-0.04	1.500			
0.8657	55403.96	3.5860	3.5860	1.1680	25.93	-0.04	1.500			
0.8692	55625.87	3.5830	3.5831	1.1579	25.93	-0.04	1.500			
0.8727	55850.33	3.5800	3.5800	1.1496	25.94	-0.03	1.500			
0.8762	56079.01	3.5770	3.5769	1.1204	25.94	-0.03	1.500			
0.8797	56298.11	3.5740	3.5740	1.0684	25.95	-0.02	1.500			
0.8830	56510.33	3.5710	3.5710	0.9843	25.95	-0.02	1.500			
0.8858	56693.21	3.5680	3.5681	0.8664	25.96	-0.01	1.500			
0.8883	56848.15	3.5650	3.5651	0.7393	25.96	-0.01	1.500			
0.8902	56973.38	3.5620	3.5621	0.6117	25.96	-0.01	1.500			
0.8917	57069.61	3.5590	3.5590	0.4918	25.97	-0.00	1.500			
0.8929	57147.03	3.5560	3.5559	0.4047	25.97	-0.00	1.500			
0.8939	57211.33	3.5530	3.5528	0.3268	25.97	0.00	1.500			
0.8948	57265.98	3.5500	3.5499	0.2826	25.97	0.00	1.500			
0.8955	57312.88	3.5470	3.5470	0.2458	25.97	0.00	1.500			
0.8962	57355.92	3.5440	3.5440	0.2198	25.97	0.00	1.500			
0.8968	57394.86	3.5410	3.5410	0.1951	25.97	0.00	1.500			
0.8973	57428.99	3.5380	3.5379	0.1758	25.98	0.01	1.500			
0.8978	57459.87	3.5350	3.5350	0.1593	25.98	0.01	1.500			
0.8983	57488.45	3.5320	3.5319	0.1432	25.98	0.01	1.500			
0.8987	57514.59	3.5290	3.5291	0.1294	25.98	0.01	1.500			
0.8990	57537.84	3.5260	3.5259	0.1150	25.98	0.01	1.500			
0.8994	57558.64	3.5230	3.5230	0.1015	25.98	0.01	1.500			
0.8996	57576.91	3.5200	3.5201	0.0880	25.98	0.01	1.500			
0.8999	57592.49	3.5170	3.5171	0.0742	25.98	0.01	1.500			
0.9001	57606.03	3.5140	3.5142	0.0587	25.98	0.01	1.500			
0.9002	57615.81	3.5110	3.5117	0.0431	25.98	0.01	1.500			
