Ah_balance (normalized)	Ah_balance (mAh)	Voltage - fit (V)	Voltage -  interpolate (V)	dQ/dV (1/V)	Temperature (°C)	Temperature - diff (°C)	Current (C)	R_DC 0ms (mOhm)	R_DC 50ms (mOhm)	R_DC 50 ms PEC (mOhm)
0.2919	18678.74	3.9840	3.9840	0.8385	27.18	1.20	1.500			
0.2944	18844.46	3.9810	3.9809	0.8707	27.17	1.19	1.500			
0.2970	19008.87	3.9780	3.9780	0.8599	27.17	1.19	1.500			
0.2996	19173.80	3.9750	3.9750	0.8578	27.16	1.18	1.500			
0.3022	19337.92	3.9720	3.9719	0.8570	27.16	1.18	1.500			
0.3047	19501.78	3.9690	3.9689	0.8549	27.15	1.17	1.500			
0.3073	19665.55	3.9660	3.9660	0.8584	27.15	1.17	1.500			
0.3098	19829.89	3.9630	3.9630	0.8610	27.14	1.16	1.500			
0.3125	19997.26	3.9600	3.9600	0.8711	27.13	1.15	1.500			
0.3150	20163.12	3.9570	3.9570	0.8709	27.13	1.15	1.500			
0.3177	20331.64	3.9540	3.9540	0.8787	27.12	1.14	1.500			
0.3203	20501.93	3.9510	3.9510	0.8818	27.12	1.14	1.500			
0.3230	20672.14	3.9480	3.9479	0.8844	27.11	1.13	1.500			
0.3256	20841.45	3.9450	3.9451	0.8874	27.11	1.13	1.500			
0.3283	21012.02	3.9420	3.9421	0.8916	27.10	1.12	1.500			
0.3310	21183.20	3.9390	3.9389	0.8943	27.09	1.11	1.500			
0.3337	21355.57	3.9360	3.9360	0.9011	27.09	1.11	1.500			
0.3364	21527.45	3.9330	3.9330	0.9041	27.08	1.10	1.500			
0.3391	21701.70	3.9300	3.9300	0.9123	27.07	1.09	1.500			
0.3419	21878.62	3.9270	3.9270	0.9157	27.07	1.09	1.500			
0.3446	22054.74	3.9240	3.9238	0.9189	27.06	1.08	1.500			
0.3474	22230.68	3.9210	3.9211	0.9277	27.05	1.07	1.500			
0.3502	22409.65	3.9180	3.9180	0.9359	27.05	1.07	1.500			
0.3530	22589.97	3.9150	3.9150	0.9416	27.04	1.06	1.500			
0.3558	22772.42	3.9120	3.9120	0.9482	27.03	1.05	1.500			
0.3587	22954.75	3.9090	3.9091	0.9551	27.02	1.04	1.500			
0.3616	23139.43	3.9060	3.9060	0.9634	27.01	1.03	1.500			
0.3644	23324.08	3.9030	3.9030	0.9708	27.01	1.03	1.500			
0.3674	23511.23	3.9000	3.9000	0.9717	27.00	1.02	1.500			
0.3703	23698.54	3.8970	3.8970	0.9785	26.99	1.01	1.500			
0.3732	23886.31	3.8940	3.8941	0.9896	26.98	1.00	1.500			
0.3762	24077.21	3.8910	3.8910	0.9978	26.97	0.99	1.500			
0.3792	24269.11	3.8880	3.8879	1.0020	26.97	0.99	1.500			
0.3822	24462.99	3.8850	3.8851	1.0111	26.96	0.98	1.500			
0.3853	24656.04	3.8820	3.8821	1.0243	26.95	0.97	1.500			
0.3883	24854.35	3.8790	3.8789	1.0415	26.95	0.97	1.500			
0.3915	25055.42	3.8760	3.8760	1.0503	26.94	0.96	1.500			
0.3947	25258.24	3.8730	3.8730	1.0619	26.93	0.95	1.500			
0.3979	25465.49	3.8700	3.8700	1.0757	26.92	0.94	1.500			
0.4012	25674.57	3.8670	3.8670	1.0823	26.91	0.93	1.500			
0.4044	25880.79	3.8640	3.8640	1.0936	26.90	0.92	1.500			
0.4077	26090.42	3.8610	3.8610	1.1026	26.89	0.91	1.500			
0.4110	26301.93	3.8580	3.8580	1.1150	26.88	0.90	1.500			
0.4143	26516.60	3.8550	3.8550	1.1400	26.88	0.90	1.500			
0.4178	26736.76	3.8520	3.8521	1.1596	26.87	0.89	1.500			
0.4213	26962.80	3.8490	3.8490	1.1779	26.86	0.88	1.500			
0.4249	27192.63	3.8460	3.8459	1.2012	26.84	0.86	1.500			
0.4285	27423.86	3.8430	3.8431	1.2149	26.83	0.85	1.500			
0.4322	27660.46	3.8400	3.8400	1.2320	26.82	0.84	1.500			
0.4359	27896.94	3.8370	3.8370	1.2499	26.81	0.83	1.500			
0.4397	28137.62	3.8340	3.8339	1.2663	26.80	0.82	1.500			
0.4435	28382.14	3.8310	3.8310	1.2888	26.78	0.80	1.500			
0.4474	28630.90	3.8280	3.8280	1.3138	26.77	0.79	1.500			
0.4513	28884.61	3.8250	3.8250	1.3389	26.76	0.78	1.500			
0.4554	29145.04	3.8220	3.8220	1.3671	26.75	0.77	1.500			
0.4595	29409.59	3.8190	3.8190	1.3985	26.74	0.76	1.500			
0.4637	29679.83	3.8160	3.8161	1.4278	26.73	0.75	1.500			
0.4681	29957.77	3.8130	3.8129	1.4648	26.72	0.74	1.500			
0.4725	30242.44	3.8100	3.8100	1.4943	26.71	0.73	1.500			
0.4771	30531.86	3.8070	3.8070	1.5267	26.70	0.72	1.500			
0.4817	30827.90	3.8040	3.8041	1.5695	26.69	0.71	1.500			
0.4864	31131.36	3.8010	3.8010	1.6112	26.68	0.70	1.500			
0.4913	31444.97	3.7980	3.7980	1.6451	26.67	0.69	1.500			
0.4963	31763.78	3.7950	3.7951	1.6858	26.66	0.68	1.500			
0.5015	32092.98	3.7920	3.7921	1.7284	26.64	0.66	1.500			
0.5067	32428.96	3.7890	3.7890	1.7636	26.63	0.65	1.500			
0.5120	32770.75	3.7860	3.7860	1.7878	26.61	0.63	1.500			
0.5174	33114.51	3.7830	3.7830	1.8208	26.60	0.62	1.500			
0.5230	33469.57	3.7800	3.7800	1.8548	26.58	0.60	1.500			
0.5285	33823.30	3.7770	3.7770	1.8717	26.57	0.59	1.500			
0.5342	34185.76	3.7740	3.7741	1.9098	26.55	0.57	1.500			
0.5400	34558.29	3.7710	3.7709	1.9397	26.53	0.55	1.500	0.340	0.459	
0.5458	34934.04	3.7680	3.7681	1.9504	26.52	0.54	1.500			
0.5517	35311.76	3.7650	3.7650	1.9408	26.50	0.52	1.500			
0.5577	35691.40	3.7620	3.7620	1.9407	26.48	0.50	1.500			
0.5633	36050.17	3.7590	3.7590	1.8983	26.46	0.48	1.500			
0.5689	36410.80	3.7560	3.7559	1.8863	26.44	0.46	1.500			
0.5746	36775.30	3.7530	3.7530	1.8912	26.43	0.45	1.500			
0.5803	37139.67	3.7500	3.7500	1.8807	26.41	0.43	1.500			
0.5859	37497.02	3.7470	3.7471	1.8736	26.40	0.42	1.500			
0.5916	37862.03	3.7440	3.7440	1.8956	26.39	0.41	1.500			
0.5973	38224.20	3.7410	3.7410	1.9074	26.37	0.39	1.500			
0.6030	38591.40	3.7380	3.7381	1.9458	26.36	0.38	1.500			
0.6089	38969.65	3.7350	3.7349	1.9713	26.35	0.37	1.500			
0.6148	39348.38	3.7320	3.7321	2.0063	26.33	0.35	1.500			
0.6209	39736.90	3.7290	3.7291	2.0489	26.32	0.34	1.500			
0.6272	40138.97	3.7260	3.7259	2.0659	26.30	0.32	1.500			
0.6333	40533.31	3.7230	3.7231	2.1187	26.28	0.30	1.500			
0.6397	40943.41	3.7200	3.7200	2.1987	26.26	0.28	1.500			
0.6464	41370.93	3.7170	3.7171	2.2694	26.24	0.26	1.500			
0.6533	41812.96	3.7140	3.7141	2.3549	26.22	0.24	1.500			
0.6607	42282.69	3.7110	3.7110	2.4354	26.20	0.22	1.500			
0.6680	42749.50	3.7080	3.7080	2.4748	26.18	0.20	1.500			
0.6755	43229.82	3.7050	3.7050	2.5561	26.17	0.19	1.500			
0.6833	43730.40	3.7020	3.7020	2.5462	26.15	0.17	1.500			
0.6910	44222.07	3.6990	3.6991	2.5040	26.14	0.16	1.500			
0.6985	44701.36	3.6960	3.6959	2.3928	26.12	0.14	1.500			
0.7055	45149.50	3.6930	3.6931	2.2294	26.11	0.13	1.500			
0.7119	45563.56	3.6900	3.6900	2.0837	26.10	0.12	1.500			
0.7178	45941.01	3.6870	3.6870	1.9070	26.08	0.10	1.500			
0.7232	46284.10	3.6840	3.6840	1.7640	26.07	0.09	1.500			
0.7283	46611.02	3.6810	3.6810	1.6605	26.06	0.08	1.500			
0.7330	46913.24	3.6780	3.6780	1.5612	26.05	0.07	1.500			
0.7376	47204.50	3.6750	3.6750	1.4840	26.04	0.06	1.500			
0.7418	47477.71	3.6720	3.6721	1.4097	26.04	0.06	1.500			
0.7459	47740.75	3.6690	3.6689	1.3477	26.03	0.05	1.500			
0.7498	47989.36	3.6660	3.6661	1.3092	26.02	0.04	1.500			
0.7536	48231.14	3.6630	3.6630	1.2724	26.02	0.04	1.500			
0.7574	48471.06	3.6600	3.6600	1.2561	26.01	0.03	1.500			
0.7610	48706.52	3.6570	3.6570	1.2578	26.00	0.02	1.500			
0.7648	48947.55	3.6540	3.6540	1.2623	26.00	0.02	1.500			
0.7686	49192.15	3.6510	3.6509	1.2713	25.99	0.01	1.500			
0.7725	49438.60	3.6480	3.6481	1.2798	25.98	0.00	1.500			
0.7763	49683.40	3.6450	3.6450	1.2830	25.98	-0.00	1.500			
0.7802	49931.48	3.6420	3.6420	1.2802	25.97	-0.01	1.500			
0.7840	50177.52	3.6390	3.6390	1.2819	25.96	-0.02	1.500			
0.7879	50423.78	3.6360	3.6360	1.2799	25.95	-0.03	1.500			
0.7917	50670.33	3.6330	3.6330	1.2775	25.95	-0.03	1.500			
0.7955	50915.10	3.6300	3.6300	1.2709	25.94	-0.04	1.500			
0.7994	51158.47	3.6270	3.6270	1.2616	25.94	-0.04	1.500			
0.8031	51399.91	3.6240	3.6240	1.2538	25.93	-0.05	1.500			
0.8069	51640.52	3.6210	3.6210	1.2512	25.93	-0.05	1.500			
0.8106	51877.81	3.6180	3.6180	1.2409	25.93	-0.05	1.500			
0.8143	52116.58	3.6150	3.6150	1.2342	25.92	-0.06	1.500			
0.8180	52353.85	3.6120	3.6120	1.2262	25.92	-0.06	1.500			
0.8217	52589.19	3.6090	3.6090	1.2164	25.92	-0.06	1.500			
0.8254	52822.40	3.6060	3.6060	1.2049	25.92	-0.06	1.500			
0.8289	53052.47	3.6030	3.6030	1.1900	25.92	-0.06	1.500			
0.8325	53279.64	3.6000	3.6000	1.1728	25.92	-0.06	1.500			
0.8360	53504.39	3.5970	3.5970	1.1537	25.92	-0.06	1.500			
0.8394	53723.99	3.5940	3.5940	1.1371	25.92	-0.06	1.500			
0.8428	53939.67	3.5910	3.5910	1.1176	25.92	-0.06	1.500			
0.8461	54151.89	3.5880	3.5879	1.1002	25.92	-0.06	1.500			
0.8494	54361.40	3.5850	3.5850	1.0812	25.93	-0.05	1.500			
0.8527	54571.85	3.5820	3.5820	1.0461	25.94	-0.04	1.500			
0.8559	54777.92	3.5790	3.5789	1.0024	25.95	-0.03	1.500			
0.8590	54973.75	3.5760	3.5760	0.9271	25.95	-0.03	1.500			
0.8617	55147.33	3.5730	3.5731	0.8284	25.96	-0.02	1.500			
0.8641	55299.32	3.5700	3.5701	0.7222	25.97	-0.01	1.500			
0.8660	55424.47	3.5670	3.5670	0.6044	25.97	-0.01	1.500			
0.8675	55522.15	3.5640	3.5640	0.4982	25.97	-0.01	1.500			
0.8688	55604.21	3.5610	3.5610	0.4156	25.98	-0.00	1.500			
0.8699	55670.66	3.5580	3.5579	0.3474	25.98	0.00	1.500			
0.8708	55729.02	3.5550	3.5550	0.2990	25.98	0.00	1.500			
0.8716	55780.09	3.5520	3.5519	0.2569	25.98	0.00	1.500			
0.8723	55824.51	3.5490	3.5490	0.2282	25.99	0.01	1.500			
0.8729	55863.74	3.5460	3.5461	0.2039	25.99	0.01	1.500			
0.8734	55900.32	3.5430	3.5430	0.1850	25.99	0.01	1.500			
0.8740	55933.73	3.5400	3.5399	0.1667	25.99	0.01	1.500			
0.8744	55963.37	3.5370	3.5369	0.1505	25.99	0.01	1.500			
0.8749	55990.52	3.5340	3.5342	0.1350	25.99	0.01	1.500			
0.8752	56014.97	3.5310	3.5310	0.1209	25.99	0.01	1.500			
0.8756	56036.81	3.5280	3.5280	0.1066	25.99	0.01	1.500			
0.8759	56055.79	3.5250	3.5249	0.0922	25.99	0.01	1.500			
0.8761	56071.70	3.5220	3.5221	0.0779	26.00	0.02	1.500			
0.8763	56085.36	3.5190	3.5194	0.0645	26.00	0.02	1.500			
0.8765	56096.85	3.5160	3.5166	0.0496	26.00	0.02	1.500			
0.8766	56104.98	3.5130	3.5138	0.0350	26.00	0.02	1.500			
