Ah_balance (normalized)	Ah_balance (mAh)	Voltage - fit (V)	Voltage -  interpolate (V)	dQ/dV (1/V)	Temperature (°C)	Temperature - diff (°C)	Current (C)	R_DC 0ms (mOhm)	R_DC 50ms (mOhm)	R_DC 50 ms PEC (mOhm)
0.2762	17679.93	3.9830	3.9830	0.8587	27.22	1.28	1.500			
0.2788	17846.01	3.9800	3.9800	0.8635	27.21	1.27	1.500			
0.2814	18010.05	3.9770	3.9771	0.8596	27.21	1.27	1.500			
0.2840	18174.71	3.9740	3.9740	0.8611	27.20	1.26	1.500			
0.2866	18339.31	3.9710	3.9710	0.8659	27.20	1.26	1.500			
0.2892	18506.35	3.9680	3.9680	0.8694	27.20	1.26	1.500			
0.2918	18674.20	3.9650	3.9649	0.8712	27.19	1.25	1.500			
0.2944	18842.35	3.9620	3.9621	0.8790	27.19	1.25	1.500			
0.2971	19011.24	3.9590	3.9590	0.8844	27.18	1.24	1.500			
0.2997	19179.62	3.9560	3.9560	0.8914	27.18	1.24	1.500			
0.3024	19353.03	3.9530	3.9529	0.8908	27.17	1.23	1.500			
0.3051	19524.43	3.9500	3.9499	0.8927	27.17	1.23	1.500			
0.3078	19698.01	3.9470	3.9471	0.8953	27.17	1.23	1.500			
0.3105	19869.16	3.9440	3.9441	0.8956	27.16	1.22	1.500			
0.3131	20039.41	3.9410	3.9409	0.8986	27.15	1.21	1.500			
0.3158	20212.20	3.9380	3.9380	0.9051	27.15	1.21	1.500			
0.3185	20385.16	3.9350	3.9350	0.9062	27.14	1.20	1.500			
0.3213	20561.89	3.9320	3.9320	0.9133	27.14	1.20	1.500			
0.3240	20737.98	3.9290	3.9290	0.9202	27.13	1.19	1.500			
0.3268	20915.45	3.9260	3.9260	0.9242	27.13	1.19	1.500			
0.3296	21092.18	3.9230	3.9229	0.9298	27.12	1.18	1.500			
0.3324	21271.57	3.9200	3.9200	0.9338	27.12	1.18	1.500			
0.3352	21452.17	3.9170	3.9170	0.9401	27.11	1.17	1.500			
0.3380	21634.03	3.9140	3.9141	0.9440	27.10	1.16	1.500			
0.3409	21815.58	3.9110	3.9109	0.9505	27.10	1.16	1.500			
0.3437	21997.50	3.9080	3.9080	0.9540	27.09	1.15	1.500			
0.3466	22179.50	3.9050	3.9050	0.9630	27.09	1.15	1.500			
0.3494	22364.77	3.9020	3.9020	0.9699	27.08	1.14	1.500			
0.3524	22553.50	3.8990	3.8990	0.9803	27.08	1.14	1.500			
0.3553	22741.87	3.8960	3.8959	0.9885	27.07	1.13	1.500			
0.3583	22933.18	3.8930	3.8931	1.0009	27.06	1.12	1.500			
0.3613	23125.71	3.8900	3.8900	1.0112	27.06	1.12	1.500			
0.3644	23321.81	3.8870	3.8869	1.0203	27.05	1.11	1.500			
0.3675	23518.72	3.8840	3.8841	1.0277	27.04	1.10	1.500			
0.3706	23718.06	3.8810	3.8810	1.0376	27.03	1.09	1.500			
0.3737	23917.29	3.8780	3.8780	1.0435	27.03	1.09	1.500			
0.3768	24115.85	3.8750	3.8750	1.0564	27.02	1.08	1.500			
0.3800	24319.46	3.8720	3.8720	1.0677	27.01	1.07	1.500			
0.3832	24525.99	3.8690	3.8689	1.0825	27.00	1.06	1.500			
0.3865	24736.66	3.8660	3.8660	1.0953	26.99	1.05	1.500			
0.3898	24948.79	3.8630	3.8631	1.1094	26.98	1.04	1.500			
0.3932	25162.89	3.8600	3.8600	1.1213	26.97	1.03	1.500			
0.3965	25378.88	3.8570	3.8570	1.1336	26.96	1.02	1.500			
0.3999	25596.45	3.8540	3.8539	1.1475	26.95	1.01	1.500			
0.4034	25819.02	3.8510	3.8510	1.1639	26.94	1.00	1.500			
0.4069	26042.07	3.8480	3.8481	1.1836	26.93	0.99	1.500			
0.4105	26272.04	3.8450	3.8450	1.2093	26.92	0.98	1.500			
0.4142	26505.87	3.8420	3.8420	1.2271	26.91	0.97	1.500			
0.4179	26744.65	3.8390	3.8389	1.2420	26.90	0.96	1.500			
0.4216	26984.60	3.8360	3.8361	1.2645	26.89	0.95	1.500			
0.4255	27229.50	3.8330	3.8330	1.2857	26.88	0.94	1.500			
0.4294	27478.68	3.8300	3.8299	1.3108	26.87	0.93	1.500			
0.4333	27730.89	3.8270	3.8271	1.3334	26.86	0.92	1.500			
0.4373	27987.61	3.8240	3.8240	1.3586	26.85	0.91	1.500			
0.4415	28254.10	3.8210	3.8211	1.3754	26.83	0.89	1.500			
0.4456	28518.55	3.8180	3.8180	1.4151	26.82	0.88	1.500			
0.4499	28790.60	3.8150	3.8150	1.4431	26.81	0.87	1.500			
0.4542	29070.49	3.8120	3.8119	1.4775	26.79	0.85	1.500			
0.4587	29356.85	3.8090	3.8090	1.5150	26.78	0.84	1.500			
0.4633	29653.39	3.8060	3.8061	1.5535	26.77	0.83	1.500			
0.4681	29957.41	3.8030	3.8029	1.5846	26.75	0.81	1.500			
0.4729	30264.52	3.8000	3.8000	1.6225	26.74	0.80	1.500			
0.4778	30578.93	3.7970	3.7972	1.6579	26.73	0.79	1.500			
0.4829	30902.65	3.7940	3.7939	1.7030	26.71	0.77	1.500			
0.4880	31233.86	3.7910	3.7911	1.7329	26.70	0.76	1.500			
0.4933	31568.43	3.7880	3.7880	1.7711	26.68	0.74	1.500			
0.4987	31916.09	3.7850	3.7850	1.8156	26.66	0.72	1.500			
0.5041	32264.36	3.7820	3.7820	1.8367	26.64	0.70	1.500			
0.5097	32623.16	3.7790	3.7790	1.8770	26.63	0.69	1.500			
0.5154	32988.05	3.7760	3.7760	1.8863	26.61	0.67	1.500			
0.5211	33352.47	3.7730	3.7730	1.9266	26.59	0.65	1.500			
0.5269	33723.99	3.7700	3.7700	1.9600	26.57	0.63	1.500			
0.5329	34104.15	3.7670	3.7672	1.9962	26.55	0.61	1.500	0.350	0.453	
0.5390	34495.80	3.7640	3.7641	1.9950	26.53	0.59	1.500			
0.5450	34881.20	3.7610	3.7610	1.9832	26.51	0.57	1.500			
0.5509	35255.21	3.7580	3.7581	1.9666	26.49	0.55	1.500			
0.5567	35631.67	3.7550	3.7549	1.9542	26.48	0.54	1.500			
0.5626	36007.79	3.7520	3.7520	1.9563	26.46	0.52	1.500			
0.5685	36380.87	3.7490	3.7491	1.9534	26.45	0.51	1.500			
0.5743	36755.23	3.7460	3.7460	1.9507	26.43	0.49	1.500			
0.5801	37127.50	3.7430	3.7427	1.9689	26.42	0.48	1.500			
0.5860	37506.15	3.7400	3.7401	1.9854	26.41	0.47	1.500			
0.5921	37891.51	3.7370	3.7370	1.9976	26.39	0.45	1.500			
0.5980	38272.07	3.7340	3.7341	2.0001	26.38	0.44	1.500			
0.6040	38656.42	3.7310	3.7309	2.0431	26.36	0.42	1.500			
0.6102	39050.50	3.7280	3.7281	2.0900	26.35	0.41	1.500			
0.6165	39457.34	3.7250	3.7250	2.1466	26.33	0.39	1.500			
0.6231	39876.58	3.7220	3.7221	2.2076	26.32	0.38	1.500			
0.6297	40298.79	3.7190	3.7188	2.2732	26.30	0.36	1.500			
0.6366	40743.05	3.7160	3.7161	2.3387	26.28	0.34	1.500			
0.6438	41203.57	3.7130	3.7130	2.4359	26.26	0.32	1.500			
0.6511	41672.77	3.7100	3.7100	2.4764	26.23	0.29	1.500			
0.6587	42156.00	3.7070	3.7070	2.5509	26.21	0.27	1.500			
0.6664	42651.19	3.7040	3.7040	2.5704	26.20	0.26	1.500			
0.6744	43158.86	3.7010	3.7010	2.5940	26.19	0.25	1.500			
0.6822	43658.98	3.6980	3.6981	2.5530	26.18	0.24	1.500			
0.6898	44149.52	3.6950	3.6950	2.4612	26.16	0.22	1.500			
0.6971	44615.52	3.6920	3.6920	2.3130	26.15	0.21	1.500			
0.7038	45041.69	3.6890	3.6890	2.1390	26.13	0.19	1.500			
0.7098	45430.28	3.6860	3.6861	1.9650	26.12	0.18	1.500			
0.7155	45789.44	3.6830	3.6829	1.7983	26.12	0.18	1.500			
0.7205	46110.71	3.6800	3.6800	1.6723	26.11	0.17	1.500			
0.7253	46417.67	3.6770	3.6770	1.5661	26.11	0.17	1.500			
0.7298	46705.19	3.6740	3.6738	1.4879	26.10	0.16	1.500			
0.7341	46980.97	3.6710	3.6711	1.4156	26.09	0.15	1.500			
0.7382	47243.15	3.6680	3.6680	1.3685	26.08	0.14	1.500			
0.7422	47499.07	3.6650	3.6650	1.3234	26.07	0.13	1.500			
0.7460	47745.06	3.6620	3.6620	1.2904	26.06	0.12	1.500			
0.7498	47988.56	3.6590	3.6590	1.2819	26.05	0.11	1.500			
0.7536	48231.91	3.6560	3.6561	1.2727	26.04	0.10	1.500			
0.7574	48474.89	3.6530	3.6529	1.2708	26.04	0.10	1.500			
0.7612	48718.48	3.6500	3.6500	1.2766	26.03	0.09	1.500			
0.7651	48964.25	3.6470	3.6470	1.2804	26.02	0.08	1.500			
0.7689	49210.32	3.6440	3.6440	1.2956	26.02	0.08	1.500			
0.7728	49457.47	3.6410	3.6410	1.3023	26.01	0.07	1.500			
0.7767	49711.28	3.6380	3.6380	1.3070	26.01	0.07	1.500			
0.7807	49965.07	3.6350	3.6349	1.3158	26.00	0.06	1.500			
0.7847	50218.58	3.6320	3.6321	1.3143	25.99	0.05	1.500			
0.7886	50470.97	3.6290	3.6291	1.3099	25.98	0.04	1.500			
0.7925	50721.63	3.6260	3.6259	1.3064	25.98	0.04	1.500			
0.7964	50970.04	3.6230	3.6230	1.2986	25.97	0.03	1.500			
0.8003	51219.53	3.6200	3.6200	1.2969	25.96	0.02	1.500			
0.8042	51469.78	3.6170	3.6170	1.2984	25.95	0.01	1.500			
0.8081	51719.75	3.6140	3.6140	1.2939	25.95	0.01	1.500			
0.8120	51968.62	3.6110	3.6110	1.2892	25.94	0.00	1.500			
0.8159	52217.04	3.6080	3.6079	1.2782	25.94	0.00	1.500			
0.8197	52460.51	3.6050	3.6050	1.2680	25.94	-0.00	1.500			
0.8235	52702.91	3.6020	3.6020	1.2531	25.94	-0.00	1.500			
0.8272	52942.45	3.5990	3.5990	1.2371	25.93	-0.01	1.500			
0.8309	53179.27	3.5960	3.5960	1.2204	25.93	-0.01	1.500			
0.8345	53411.05	3.5930	3.5931	1.2064	25.93	-0.01	1.500			
0.8381	53640.99	3.5900	3.5900	1.1921	25.93	-0.01	1.500			
0.8417	53868.31	3.5870	3.5870	1.1820	25.93	-0.01	1.500			
0.8452	54093.23	3.5840	3.5840	1.1622	25.94	-0.00	1.500			
0.8487	54319.54	3.5810	3.5810	1.1422	25.94	-0.00	1.500			
0.8522	54542.07	3.5780	3.5780	1.0893	25.94	-0.00	1.500			
0.8555	54755.08	3.5750	3.5750	1.0244	25.94	0.00	1.500			
0.8586	54949.53	3.5720	3.5720	0.9136	25.94	0.00	1.500			
0.8612	55117.16	3.5690	3.5691	0.7906	25.94	0.00	1.500			
0.8634	55257.83	3.5660	3.5661	0.6691	25.94	0.00	1.500			
0.8652	55371.78	3.5630	3.5630	0.5493	25.94	0.00	1.500			
0.8665	55458.38	3.5600	3.5598	0.4474	25.94	0.00	1.500			
0.8677	55529.85	3.5570	3.5570	0.3749	25.94	0.00	1.500			
0.8686	55588.56	3.5540	3.5539	0.3164	25.95	0.01	1.500			
0.8694	55641.85	3.5510	3.5510	0.2765	25.95	0.01	1.500			
0.8701	55688.57	3.5480	3.5479	0.2401	25.95	0.01	1.500			
0.8708	55729.98	3.5450	3.5449	0.2162	25.95	0.01	1.500			
0.8714	55768.04	3.5420	3.5421	0.1954	25.95	0.01	1.500			
0.8719	55802.88	3.5390	3.5390	0.1777	25.95	0.01	1.500			
0.8724	55835.52	3.5360	3.5359	0.1623	25.95	0.01	1.500			
0.8729	55864.53	3.5330	3.5331	0.1485	25.95	0.01	1.500			
0.8733	55891.19	3.5300	3.5300	0.1343	25.95	0.01	1.500			
0.8737	55916.16	3.5270	3.5269	0.1212	25.95	0.01	1.500			
0.8740	55938.13	3.5240	3.5239	0.1077	25.95	0.01	1.500			
0.8743	55957.49	3.5210	3.5211	0.0942	25.95	0.01	1.500			
0.8746	55974.66	3.5180	3.5181	0.0809	25.95	0.01	1.500			
0.8748	55988.83	3.5150	3.5153	0.0668	25.95	0.01	1.500			
0.8750	56000.81	3.5120	3.5123	0.0509	25.95	0.01	1.500			
0.8751	56009.08	3.5090	3.5097	0.0353	25.95	0.01	1.500			
