Ah_balance (normalized)	Ah_balance (mAh)	Voltage - fit (V)	Voltage -  interpolate (V)	dQ/dV (1/V)	Temperature (°C)	Temperature - diff (°C)	Current (C)	R_DC 0ms (mOhm)	R_DC 50ms (mOhm)	R_DC 50 ms PEC (mOhm)
0.2806	17957.52	3.9710	3.9710	0.8943	27.05	1.09	1.500			
0.2832	18127.24	3.9680	3.9680	0.8800	27.05	1.09	1.500			
0.2858	18294.35	3.9650	3.9651	0.8828	27.04	1.08	1.500			
0.2885	18465.72	3.9620	3.9620	0.8915	27.04	1.08	1.500			
0.2912	18637.92	3.9590	3.9589	0.8942	27.04	1.08	1.500			
0.2939	18809.48	3.9560	3.9561	0.9050	27.04	1.08	1.500			
0.2967	18986.60	3.9530	3.9530	0.9106	27.04	1.08	1.500			
0.2994	19161.73	3.9500	3.9499	0.9104	27.04	1.08	1.500			
0.3021	19336.04	3.9470	3.9471	0.9105	27.04	1.08	1.500			
0.3049	19510.62	3.9440	3.9441	0.9079	27.04	1.08	1.500			
0.3076	19685.38	3.9410	3.9409	0.9149	27.04	1.08	1.500			
0.3103	19860.07	3.9380	3.9380	0.9196	27.04	1.08	1.500			
0.3130	20034.91	3.9350	3.9350	0.9250	27.03	1.07	1.500			
0.3159	20216.22	3.9320	3.9319	0.9343	27.03	1.07	1.500			
0.3187	20395.06	3.9290	3.9291	0.9419	27.03	1.07	1.500			
0.3215	20577.69	3.9260	3.9260	0.9438	27.03	1.07	1.500			
0.3244	20759.92	3.9230	3.9229	0.9486	27.03	1.07	1.500			
0.3272	20939.48	3.9200	3.9201	0.9552	27.03	1.07	1.500			
0.3301	21124.33	3.9170	3.9169	0.9635	27.02	1.06	1.500			
0.3330	21310.65	3.9140	3.9139	0.9720	27.02	1.06	1.500			
0.3359	21498.72	3.9110	3.9111	0.9825	27.01	1.05	1.500			
0.3389	21687.07	3.9080	3.9080	0.9888	27.01	1.05	1.500			
0.3419	21880.00	3.9050	3.9050	0.9964	27.01	1.05	1.500			
0.3448	22070.34	3.9020	3.9020	1.0077	27.00	1.04	1.500			
0.3479	22265.21	3.8990	3.8989	1.0102	27.00	1.04	1.500			
0.3510	22461.82	3.8960	3.8960	1.0194	27.00	1.04	1.500			
0.3540	22657.29	3.8930	3.8932	1.0239	26.99	1.03	1.500			
0.3571	22853.72	3.8900	3.8900	1.0334	26.99	1.03	1.500			
0.3602	23053.01	3.8870	3.8869	1.0421	26.99	1.03	1.500			
0.3633	23252.31	3.8840	3.8840	1.0463	26.98	1.02	1.500			
0.3664	23449.37	3.8810	3.8812	1.0647	26.98	1.02	1.500			
0.3697	23657.98	3.8780	3.8780	1.0904	26.97	1.01	1.500			
0.3729	23868.61	3.8750	3.8746	1.1048	26.97	1.01	1.500			
0.3763	24082.91	3.8720	3.8721	1.1215	26.97	1.01	1.500			
0.3797	24302.65	3.8690	3.8692	1.1299	26.96	1.00	1.500			
0.3832	24525.04	3.8660	3.8659	1.1459	26.96	1.00	1.500			
0.3866	24742.64	3.8630	3.8631	1.1422	26.95	0.99	1.500			
0.3900	24961.05	3.8600	3.8600	1.1543	26.95	0.99	1.500			
0.3935	25181.54	3.8570	3.8569	1.1732	26.95	0.99	1.500			
0.3970	25408.71	3.8540	3.8540	1.1939	26.94	0.98	1.500			
0.4006	25639.59	3.8510	3.8510	1.2157	26.94	0.98	1.500			
0.4043	25876.57	3.8480	3.8480	1.2397	26.93	0.97	1.500			
0.4081	26118.08	3.8450	3.8450	1.2570	26.92	0.96	1.500			
0.4119	26360.93	3.8420	3.8420	1.2787	26.92	0.96	1.500			
0.4157	26605.94	3.8390	3.8390	1.3010	26.91	0.95	1.500			
0.4196	26857.24	3.8360	3.8360	1.3290	26.91	0.95	1.500			
0.4237	27115.19	3.8330	3.8329	1.3575	26.90	0.94	1.500			
0.4278	27379.45	3.8300	3.8300	1.3801	26.89	0.93	1.500			
0.4320	27648.49	3.8270	3.8270	1.4073	26.89	0.93	1.500			
0.4362	27918.95	3.8240	3.8241	1.4391	26.88	0.92	1.500			
0.4406	28195.52	3.8210	3.8210	1.4668	26.87	0.91	1.500			
0.4450	28478.96	3.8180	3.8180	1.5079	26.86	0.90	1.500			
0.4495	28770.83	3.8150	3.8149	1.5469	26.86	0.90	1.500			
0.4543	29073.37	3.8120	3.8121	1.5833	26.85	0.89	1.500			
0.4591	29382.97	3.8090	3.8090	1.6218	26.84	0.88	1.500			
0.4640	29695.30	3.8060	3.8061	1.6605	26.83	0.87	1.500			
0.4690	30013.28	3.8030	3.8030	1.6993	26.83	0.87	1.500			
0.4741	30344.99	3.8000	3.7999	1.7500	26.82	0.86	1.500			
0.4795	30685.88	3.7970	3.7970	1.7893	26.80	0.84	1.500			
0.4849	31035.68	3.7940	3.7941	1.8629	26.79	0.83	1.500			
0.4906	31398.57	3.7910	3.7910	1.9144	26.78	0.82	1.500			
0.4964	31769.41	3.7880	3.7879	1.9594	26.76	0.80	1.500			
0.5023	32149.95	3.7850	3.7851	2.0056	26.75	0.79	1.500			
0.5085	32544.86	3.7820	3.7820	2.0428	26.73	0.77	1.500			
0.5146	32935.11	3.7790	3.7790	2.1129	26.71	0.75	1.500			
0.5211	33349.55	3.7760	3.7759	2.1853	26.70	0.74	1.500			
0.5279	33782.80	3.7730	3.7730	2.2316	26.68	0.72	1.500			
0.5346	34217.25	3.7700	3.7701	2.2830	26.66	0.70	1.500			
0.5416	34663.10	3.7670	3.7670	2.2963	26.64	0.68	1.500			
0.5484	35100.74	3.7640	3.7639	2.3564	26.62	0.66	1.500			
0.5557	35564.39	3.7610	3.7610	2.3967	26.60	0.64	1.500			
0.5631	36039.13	3.7580	3.7581	2.4511	26.58	0.62	1.500	0.373	0.448	
0.5704	36505.75	3.7550	3.7550	2.4072	26.56	0.60	1.500			
0.5777	36972.45	3.7520	3.7521	2.3727	26.54	0.58	1.500			
0.5846	37413.29	3.7490	3.7490	2.2924	26.52	0.56	1.500			
0.5914	37851.64	3.7460	3.7460	2.2725	26.50	0.54	1.500			
0.5981	38278.98	3.7430	3.7429	2.2369	26.48	0.52	1.500			
0.6049	38712.54	3.7400	3.7400	2.2136	26.46	0.50	1.500			
0.6115	39133.89	3.7370	3.7370	2.2134	26.45	0.49	1.500			
0.6180	39554.68	3.7340	3.7341	2.2071	26.43	0.47	1.500			
0.6246	39976.69	3.7310	3.7310	2.2148	26.42	0.46	1.500			
0.6314	40406.98	3.7280	3.7280	2.2242	26.40	0.44	1.500			
0.6380	40829.34	3.7250	3.7250	2.2652	26.39	0.43	1.500			
0.6447	41260.99	3.7220	3.7221	2.2967	26.38	0.42	1.500			
0.6517	41708.99	3.7190	3.7189	2.3627	26.36	0.40	1.500			
0.6588	42166.23	3.7160	3.7161	2.4100	26.35	0.39	1.500			
0.6662	42634.54	3.7130	3.7131	2.4864	26.33	0.37	1.500			
0.6737	43117.69	3.7100	3.7098	2.5964	26.32	0.36	1.500			
0.6816	43621.19	3.7070	3.7070	2.7034	26.31	0.35	1.500			
0.6900	44161.97	3.7040	3.7040	2.8178	26.29	0.33	1.500			
0.6988	44721.23	3.7010	3.7010	2.9400	26.28	0.32	1.500			
0.7077	45295.31	3.6980	3.6980	2.9557	26.27	0.31	1.500			
0.7167	45867.61	3.6950	3.6950	2.9527	26.26	0.30	1.500			
0.7256	46435.26	3.6920	3.6920	2.8617	26.25	0.29	1.500			
0.7341	46979.39	3.6890	3.6891	2.6728	26.24	0.28	1.500			
0.7418	47472.38	3.6860	3.6860	2.4539	26.23	0.27	1.500			
0.7486	47912.40	3.6830	3.6831	2.2052	26.22	0.26	1.500			
0.7548	48308.97	3.6800	3.6801	2.0027	26.21	0.25	1.500			
0.7604	48667.50	3.6770	3.6770	1.8285	26.21	0.25	1.500			
0.7656	48995.41	3.6740	3.6740	1.6967	26.21	0.25	1.500			
0.7704	49305.23	3.6710	3.6710	1.5863	26.20	0.24	1.500			
0.7750	49600.02	3.6680	3.6680	1.4993	26.20	0.24	1.500			
0.7794	49880.37	3.6650	3.6650	1.4241	26.18	0.22	1.500			
0.7835	50142.99	3.6620	3.6621	1.3567	26.17	0.21	1.500			
0.7874	50396.44	3.6590	3.6590	1.2979	26.17	0.21	1.500			
0.7911	50631.66	3.6560	3.6559	1.2582	26.16	0.20	1.500			
0.7948	50866.53	3.6530	3.6530	1.2397	26.15	0.19	1.500			
0.7984	51098.06	3.6500	3.6500	1.2331	26.14	0.18	1.500			
0.8021	51333.71	3.6470	3.6470	1.2459	26.13	0.17	1.500			
0.8059	51574.58	3.6440	3.6440	1.2618	26.13	0.17	1.500			
0.8097	51820.65	3.6410	3.6410	1.2709	26.12	0.16	1.500			
0.8135	52066.72	3.6380	3.6380	1.2895	26.12	0.16	1.500			
0.8174	52313.41	3.6350	3.6351	1.3057	26.11	0.15	1.500			
0.8214	52566.98	3.6320	3.6319	1.3152	26.10	0.14	1.500			
0.8253	52821.18	3.6290	3.6290	1.3229	26.09	0.13	1.500			
0.8293	53076.09	3.6260	3.6261	1.3241	26.08	0.12	1.500			
0.8333	53334.37	3.6230	3.6230	1.3170	26.08	0.12	1.500			
0.8373	53587.64	3.6200	3.6200	1.3258	26.07	0.11	1.500			
0.8412	53836.60	3.6170	3.6171	1.3232	26.06	0.10	1.500			
0.8452	54091.35	3.6140	3.6140	1.3226	26.05	0.09	1.500			
0.8492	54347.40	3.6110	3.6109	1.3289	26.04	0.08	1.500			
0.8532	54602.98	3.6080	3.6081	1.3228	26.03	0.07	1.500			
0.8572	54860.47	3.6050	3.6050	1.3190	26.03	0.07	1.500			
0.8611	55113.38	3.6020	3.6020	1.3061	26.02	0.06	1.500			
0.8650	55359.91	3.5990	3.5990	1.2872	26.01	0.05	1.500			
0.8688	55606.19	3.5960	3.5960	1.2716	26.01	0.05	1.500			
0.8727	55850.69	3.5930	3.5929	1.2592	26.00	0.04	1.500			
0.8764	56090.66	3.5900	3.5900	1.2438	25.99	0.03	1.500			
0.8801	56328.49	3.5870	3.5870	1.2299	25.99	0.03	1.500			
0.8838	56561.47	3.5840	3.5840	1.2243	25.98	0.02	1.500			
0.8873	56790.10	3.5810	3.5811	1.2258	25.98	0.02	1.500			
0.8910	57023.67	3.5780	3.5780	1.2331	25.97	0.01	1.500			
0.8948	57268.34	3.5750	3.5749	1.2264	25.97	0.01	1.500			
0.8986	57511.37	3.5720	3.5719	1.2026	25.96	-0.00	1.500			
0.9024	57750.60	3.5690	3.5692	1.1150	25.95	-0.01	1.500			
0.9058	57974.17	3.5660	3.5661	1.0177	25.95	-0.01	1.500			
0.9087	58159.73	3.5630	3.5631	0.8646	25.94	-0.02	1.500			
0.9111	58309.24	3.5600	3.5600	0.7033	25.94	-0.02	1.500			
0.9128	58416.75	3.5570	3.5570	0.5633	25.94	-0.02	1.500			
0.9141	58502.95	3.5540	3.5540	0.4526	25.93	-0.03	1.500			
0.9152	58572.49	3.5510	3.5510	0.3494	25.93	-0.03	1.500			
0.9161	58628.67	3.5480	3.5478	0.2912	25.93	-0.03	1.500			
0.9168	58673.77	3.5450	3.5449	0.2424	25.93	-0.03	1.500			
0.9174	58713.77	3.5420	3.5420	0.2097	25.93	-0.03	1.500			
0.9180	58749.22	3.5390	3.5390	0.1797	25.93	-0.03	1.500			
0.9184	58780.08	3.5360	3.5360	0.1586	25.93	-0.03	1.500			
0.9189	58808.07	3.5330	3.5330	0.1372	25.93	-0.03	1.500			
0.9193	58832.06	3.5300	3.5300	0.1176	25.93	-0.03	1.500			
0.9196	58852.97	3.5270	3.5270	0.1002	25.93	-0.03	1.500			
0.9198	58870.36	3.5240	3.5241	0.0830	25.93	-0.03	1.500			
0.9201	58884.58	3.5210	3.5212	0.0661	25.92	-0.04	1.500			
0.9202	58895.66	3.5180	3.5182	0.0493	25.92	-0.04	1.500			
