Ah_balance (normalized)	Ah_balance (mAh)	Voltage - fit (V)	Voltage -  interpolate (V)	dQ/dV (1/V)	Temperature (°C)	Temperature - diff (°C)	Current (C)	R_DC 0ms (mOhm)	R_DC 50ms (mOhm)	R_DC 50 ms PEC (mOhm)
0.2748	17587.56	3.9880	3.9880	0.8247	27.14	1.16	1.500			
0.2773	17747.27	3.9850	3.9850	0.8369	27.14	1.16	1.500			
0.2798	17909.14	3.9820	3.9820	0.8460	27.13	1.15	1.500			
0.2824	18073.40	3.9790	3.9790	0.8500	27.13	1.15	1.500			
0.2850	18236.97	3.9760	3.9760	0.8542	27.12	1.14	1.500			
0.2875	18401.46	3.9730	3.9731	0.8591	27.12	1.14	1.500			
0.2901	18566.68	3.9700	3.9699	0.8599	27.11	1.13	1.500			
0.2927	18732.52	3.9670	3.9670	0.8617	27.11	1.13	1.500			
0.2953	18898.00	3.9640	3.9640	0.8639	27.10	1.12	1.500			
0.2979	19064.00	3.9610	3.9611	0.8653	27.10	1.12	1.500			
0.3005	19230.73	3.9580	3.9579	0.8723	27.09	1.11	1.500			
0.3031	19397.33	3.9550	3.9550	0.8742	27.09	1.11	1.500			
0.3057	19565.91	3.9520	3.9519	0.8760	27.08	1.10	1.500			
0.3084	19735.44	3.9490	3.9490	0.8789	27.08	1.10	1.500			
0.3110	19904.17	3.9460	3.9461	0.8839	27.07	1.09	1.500			
0.3136	20073.41	3.9430	3.9431	0.8875	27.06	1.08	1.500			
0.3163	20244.23	3.9400	3.9399	0.8944	27.06	1.08	1.500			
0.3190	20416.25	3.9370	3.9369	0.8975	27.05	1.07	1.500			
0.3217	20589.25	3.9340	3.9341	0.9049	27.05	1.07	1.500			
0.3244	20764.40	3.9310	3.9311	0.9113	27.04	1.06	1.500			
0.3272	20941.28	3.9280	3.9279	0.9169	27.04	1.06	1.500			
0.3299	21116.67	3.9250	3.9250	0.9210	27.03	1.05	1.500			
0.3327	21293.27	3.9220	3.9220	0.9205	27.03	1.05	1.500			
0.3355	21469.38	3.9190	3.9190	0.9276	27.02	1.04	1.500			
0.3383	21648.10	3.9160	3.9161	0.9373	27.02	1.04	1.500			
0.3411	21829.06	3.9130	3.9128	0.9414	27.01	1.03	1.500			
0.3439	22010.95	3.9100	3.9100	0.9499	27.00	1.02	1.500			
0.3468	22194.59	3.9070	3.9070	0.9560	26.99	1.01	1.500			
0.3497	22380.06	3.9040	3.9041	0.9596	26.99	1.01	1.500			
0.3526	22564.70	3.9010	3.9009	0.9629	26.98	1.00	1.500			
0.3555	22749.28	3.8980	3.8981	0.9643	26.97	0.99	1.500			
0.3583	22932.85	3.8950	3.8950	0.9720	26.96	0.98	1.500			
0.3613	23120.43	3.8920	3.8920	0.9832	26.95	0.97	1.500			
0.3642	23309.11	3.8890	3.8890	0.9948	26.95	0.97	1.500			
0.3672	23501.90	3.8860	3.8860	1.0096	26.94	0.96	1.500			
0.3703	23699.88	3.8830	3.8830	1.0214	26.93	0.95	1.500			
0.3734	23896.02	3.8800	3.8800	1.0303	26.92	0.94	1.500			
0.3765	24095.38	3.8770	3.8770	1.0411	26.92	0.94	1.500			
0.3796	24294.94	3.8740	3.8740	1.0481	26.91	0.93	1.500			
0.3828	24497.43	3.8710	3.8709	1.0602	26.90	0.92	1.500			
0.3860	24701.22	3.8680	3.8680	1.0716	26.89	0.91	1.500			
0.3892	24908.92	3.8650	3.8650	1.0877	26.88	0.90	1.500			
0.3925	25119.65	3.8620	3.8621	1.1018	26.88	0.90	1.500			
0.3958	25331.40	3.8590	3.8589	1.1147	26.87	0.89	1.500			
0.3992	25547.13	3.8560	3.8560	1.1316	26.86	0.88	1.500			
0.4026	25766.42	3.8530	3.8530	1.1453	26.85	0.87	1.500			
0.4060	25986.16	3.8500	3.8500	1.1660	26.84	0.86	1.500			
0.4096	26212.61	3.8470	3.8470	1.1832	26.83	0.85	1.500			
0.4132	26441.94	3.8440	3.8440	1.1985	26.82	0.84	1.500			
0.4168	26673.09	3.8410	3.8410	1.2215	26.81	0.83	1.500			
0.4205	26909.76	3.8380	3.8380	1.2376	26.80	0.82	1.500			
0.4242	27149.15	3.8350	3.8350	1.2557	26.79	0.81	1.500			
0.4280	27392.14	3.8320	3.8320	1.2733	26.78	0.80	1.500			
0.4318	27635.68	3.8290	3.8291	1.2987	26.77	0.79	1.500			
0.4358	27888.10	3.8260	3.8260	1.3315	26.75	0.77	1.500			
0.4398	28146.94	3.8230	3.8229	1.3553	26.74	0.76	1.500			
0.4439	28408.16	3.8200	3.8200	1.3864	26.73	0.75	1.500			
0.4481	28680.75	3.8170	3.8170	1.4086	26.71	0.73	1.500			
0.4524	28953.73	3.8140	3.8140	1.4234	26.70	0.72	1.500			
0.4567	29228.39	3.8110	3.8111	1.4457	26.68	0.70	1.500			
0.4610	29503.84	3.8080	3.8080	1.4720	26.67	0.69	1.500			
0.4654	29786.95	3.8050	3.8049	1.5143	26.65	0.67	1.500			
0.4700	30081.54	3.8020	3.8020	1.5439	26.64	0.66	1.500			
0.4748	30384.78	3.7990	3.7990	1.5765	26.63	0.65	1.500			
0.4796	30691.89	3.7960	3.7960	1.6074	26.61	0.63	1.500			
0.4844	31002.19	3.7930	3.7929	1.6328	26.60	0.62	1.500			
0.4893	31317.03	3.7900	3.7900	1.6586	26.58	0.60	1.500			
0.4943	31638.04	3.7870	3.7870	1.6815	26.57	0.59	1.500			
0.4995	31965.89	3.7840	3.7840	1.7145	26.55	0.57	1.500			
0.5046	32295.37	3.7810	3.7810	1.7406	26.53	0.55	1.500			
0.5099	32630.76	3.7780	3.7780	1.7706	26.51	0.53	1.500			
0.5153	32977.79	3.7750	3.7749	1.7865	26.49	0.51	1.500	0.348	0.464	
0.5207	33323.54	3.7720	3.7721	1.7998	26.48	0.50	1.500			
0.5261	33672.91	3.7690	3.7691	1.8038	26.46	0.48	1.500			
0.5315	34017.38	3.7660	3.7660	1.7905	26.45	0.47	1.500			
0.5368	34357.15	3.7630	3.7630	1.7740	26.43	0.45	1.500			
0.5422	34698.12	3.7600	3.7600	1.7778	26.42	0.44	1.500			
0.5475	35038.03	3.7570	3.7570	1.7905	26.40	0.42	1.500			
0.5529	35383.76	3.7540	3.7539	1.7969	26.39	0.41	1.500			
0.5582	35727.69	3.7510	3.7509	1.7984	26.37	0.39	1.500			
0.5637	36073.62	3.7480	3.7481	1.8155	26.36	0.38	1.500			
0.5691	36424.86	3.7450	3.7449	1.8259	26.34	0.36	1.500			
0.5746	36775.03	3.7420	3.7420	1.8442	26.33	0.35	1.500			
0.5801	37125.97	3.7390	3.7391	1.8845	26.32	0.34	1.500			
0.5858	37493.84	3.7360	3.7360	1.9295	26.31	0.33	1.500			
0.5917	37870.41	3.7330	3.7329	1.9778	26.30	0.32	1.500			
0.5978	38258.42	3.7300	3.7301	2.0302	26.28	0.30	1.500			
0.6039	38650.32	3.7270	3.7269	2.0613	26.27	0.29	1.500			
0.6101	39044.54	3.7240	3.7241	2.1086	26.25	0.27	1.500			
0.6165	39456.00	3.7210	3.7209	2.1791	26.24	0.26	1.500			
0.6232	39885.03	3.7180	3.7180	2.2401	26.22	0.24	1.500			
0.6300	40322.94	3.7150	3.7150	2.3272	26.21	0.23	1.500			
0.6371	40773.08	3.7120	3.7120	2.3974	26.19	0.21	1.500			
0.6444	41241.53	3.7090	3.7090	2.4452	26.17	0.19	1.500			
0.6518	41717.73	3.7060	3.7061	2.4492	26.16	0.18	1.500			
0.6592	42192.00	3.7030	3.7030	2.4021	26.14	0.16	1.500			
0.6664	42647.76	3.7000	3.7000	2.3193	26.13	0.15	1.500			
0.6733	43089.15	3.6970	3.6970	2.1865	26.12	0.14	1.500			
0.6796	43494.30	3.6940	3.6940	2.0244	26.11	0.13	1.500			
0.6853	43861.81	3.6910	3.6910	1.8618	26.10	0.12	1.500			
0.6906	44198.37	3.6880	3.6879	1.7223	26.09	0.11	1.500			
0.6955	44514.48	3.6850	3.6850	1.6137	26.08	0.10	1.500			
0.7002	44813.02	3.6820	3.6820	1.5316	26.08	0.10	1.500			
0.7047	45099.60	3.6790	3.6790	1.4610	26.07	0.09	1.500			
0.7089	45369.53	3.6760	3.6760	1.3977	26.06	0.08	1.500			
0.7130	45629.92	3.6730	3.6730	1.3435	26.05	0.07	1.500			
0.7169	45879.32	3.6700	3.6699	1.3079	26.05	0.07	1.500			
0.7207	46124.95	3.6670	3.6670	1.2822	26.04	0.06	1.500			
0.7245	46365.93	3.6640	3.6640	1.2675	26.04	0.06	1.500			
0.7282	46606.09	3.6610	3.6611	1.2578	26.04	0.06	1.500			
0.7320	46845.09	3.6580	3.6580	1.2610	26.03	0.05	1.500			
0.7357	47086.84	3.6550	3.6550	1.2725	26.03	0.05	1.500			
0.7396	47331.94	3.6520	3.6520	1.2798	26.02	0.04	1.500			
0.7434	47578.66	3.6490	3.6490	1.2868	26.02	0.04	1.500			
0.7473	47828.66	3.6460	3.6460	1.2936	26.01	0.03	1.500			
0.7512	48079.96	3.6430	3.6430	1.2919	26.00	0.02	1.500			
0.7552	48329.84	3.6400	3.6400	1.2884	25.99	0.01	1.500			
0.7590	48574.88	3.6370	3.6370	1.2790	25.98	0.00	1.500			
0.7628	48819.87	3.6340	3.6340	1.2706	25.98	-0.00	1.500			
0.7666	49062.09	3.6310	3.6310	1.2654	25.97	-0.01	1.500			
0.7704	49303.24	3.6280	3.6280	1.2591	25.96	-0.02	1.500			
0.7742	49545.70	3.6250	3.6251	1.2545	25.96	-0.02	1.500			
0.7779	49786.59	3.6220	3.6219	1.2482	25.96	-0.02	1.500			
0.7817	50027.02	3.6190	3.6190	1.2394	25.95	-0.03	1.500			
0.7854	50264.70	3.6160	3.6161	1.2280	25.95	-0.03	1.500			
0.7890	50499.18	3.6130	3.6130	1.2185	25.94	-0.04	1.500			
0.7927	50731.61	3.6100	3.6100	1.2040	25.94	-0.04	1.500			
0.7963	50962.14	3.6070	3.6070	1.1836	25.94	-0.04	1.500			
0.7998	51188.04	3.6040	3.6040	1.1655	25.94	-0.04	1.500			
0.8033	51412.10	3.6010	3.6010	1.1456	25.94	-0.04	1.500			
0.8067	51628.50	3.5980	3.5980	1.1275	25.94	-0.04	1.500			
0.8100	51841.74	3.5950	3.5950	1.1059	25.94	-0.04	1.500			
0.8133	52053.15	3.5920	3.5920	1.0811	25.94	-0.04	1.500			
0.8166	52260.92	3.5890	3.5889	1.0568	25.94	-0.04	1.500			
0.8198	52466.07	3.5860	3.5861	1.0135	25.95	-0.03	1.500			
0.8228	52662.23	3.5830	3.5830	0.9597	25.95	-0.03	1.500			
0.8257	52846.31	3.5800	3.5799	0.8752	25.96	-0.02	1.500			
0.8283	53009.74	3.5770	3.5770	0.7808	25.96	-0.02	1.500			
0.8305	53151.38	3.5740	3.5741	0.6803	25.96	-0.02	1.500			
0.8323	53269.88	3.5710	3.5710	0.5747	25.97	-0.01	1.500			
0.8338	53362.65	3.5680	3.5680	0.4792	25.97	-0.01	1.500			
0.8351	53444.60	3.5650	3.5649	0.3968	25.97	-0.01	1.500			
0.8361	53508.55	3.5620	3.5620	0.3357	25.97	-0.01	1.500			
0.8370	53565.81	3.5590	3.5589	0.2920	25.97	-0.01	1.500			
0.8377	53614.15	3.5560	3.5560	0.2535	25.97	-0.01	1.500			
0.8384	53659.35	3.5530	3.5530	0.2254	25.98	-0.00	1.500			
0.8390	53698.45	3.5500	3.5501	0.2025	25.98	-0.00	1.500			
0.8396	53734.52	3.5470	3.5470	0.1839	25.98	-0.00	1.500			
0.8401	53767.71	3.5440	3.5439	0.1661	25.98	-0.00	1.500			
0.8406	53797.82	3.5410	3.5410	0.1515	25.98	-0.00	1.500			
0.8410	53824.85	3.5380	3.5380	0.1361	25.98	-0.00	1.500			
0.8414	53849.75	3.5350	3.5349	0.1219	25.98	0.00	1.500			
0.8417	53871.68	3.5320	3.5321	0.1073	25.98	0.00	1.500			
0.8420	53890.93	3.5290	3.5292	0.0932	25.98	0.00	1.500			
0.8423	53907.74	3.5260	3.5261	0.0791	25.98	0.00	1.500			
0.8425	53921.76	3.5230	3.5232	0.0645	25.98	0.00	1.500			
0.8427	53932.69	3.5200	3.5204	0.0494	25.98	0.00	1.500			
0.8428	53940.74	3.5170	3.5179	0.0344	25.98	0.00	1.500			
