Ah_balance (normalized)	Ah_balance (mAh)	Voltage - fit (V)	Voltage -  interpolate (V)	dQ/dV (1/V)	Temperature (°C)	Temperature - diff (°C)	Current (C)	R_DC 0ms (mOhm)	R_DC 50ms (mOhm)	R_DC 50 ms PEC (mOhm)
0.2881	18437.92	3.9890	3.9889	0.8450	27.29	1.31	1.500			
0.2906	18600.37	3.9860	3.9860	0.8436	27.28	1.30	1.500			
0.2931	18760.36	3.9830	3.9831	0.8418	27.28	1.30	1.500			
0.2957	18923.70	3.9800	3.9800	0.8379	27.27	1.29	1.500			
0.2982	19084.15	3.9770	3.9770	0.8430	27.27	1.29	1.500			
0.3007	19244.17	3.9740	3.9740	0.8442	27.26	1.28	1.500			
0.3032	19406.28	3.9710	3.9710	0.8483	27.25	1.27	1.500			
0.3058	19569.68	3.9680	3.9681	0.8584	27.25	1.27	1.500			
0.3084	19735.07	3.9650	3.9651	0.8629	27.24	1.26	1.500			
0.3110	19901.61	3.9620	3.9620	0.8671	27.24	1.26	1.500			
0.3136	20070.76	3.9590	3.9590	0.8718	27.23	1.25	1.500			
0.3162	20238.60	3.9560	3.9561	0.8690	27.22	1.24	1.500			
0.3188	20405.53	3.9530	3.9530	0.8711	27.22	1.24	1.500			
0.3214	20572.02	3.9500	3.9500	0.8744	27.21	1.23	1.500			
0.3240	20738.69	3.9470	3.9470	0.8775	27.20	1.22	1.500			
0.3267	20906.58	3.9440	3.9440	0.8859	27.20	1.22	1.500			
0.3293	21077.24	3.9410	3.9410	0.8952	27.19	1.21	1.500			
0.3321	21251.52	3.9380	3.9380	0.9064	27.18	1.20	1.500			
0.3348	21427.57	3.9350	3.9350	0.9123	27.18	1.20	1.500			
0.3376	21604.57	3.9320	3.9320	0.9136	27.17	1.19	1.500			
0.3403	21779.83	3.9290	3.9290	0.9143	27.16	1.18	1.500			
0.3430	21955.00	3.9260	3.9260	0.9199	27.16	1.18	1.500			
0.3458	22131.33	3.9230	3.9230	0.9170	27.15	1.17	1.500			
0.3485	22306.77	3.9200	3.9199	0.9215	27.15	1.17	1.500			
0.3513	22484.33	3.9170	3.9170	0.9278	27.14	1.16	1.500			
0.3541	22664.01	3.9140	3.9141	0.9298	27.13	1.15	1.500			
0.3569	22842.98	3.9110	3.9109	0.9394	27.12	1.14	1.500			
0.3597	23023.18	3.9080	3.9081	0.9418	27.12	1.14	1.500			
0.3625	23202.85	3.9050	3.9050	0.9480	27.11	1.13	1.500			
0.3654	23386.36	3.9020	3.9020	0.9628	27.10	1.12	1.500			
0.3683	23572.03	3.8990	3.8991	0.9689	27.09	1.11	1.500			
0.3712	23758.99	3.8960	3.8960	0.9835	27.08	1.10	1.500			
0.3742	23951.75	3.8930	3.8929	0.9957	27.08	1.10	1.500			
0.3772	24142.50	3.8900	3.8901	1.0010	27.07	1.09	1.500			
0.3802	24335.25	3.8870	3.8869	1.0169	27.06	1.08	1.500			
0.3833	24530.77	3.8840	3.8841	1.0263	27.05	1.07	1.500			
0.3864	24729.26	3.8810	3.8809	1.0362	27.04	1.06	1.500			
0.3895	24930.31	3.8780	3.8781	1.0479	27.03	1.05	1.500			
0.3927	25132.79	3.8750	3.8750	1.0553	27.02	1.04	1.500			
0.3959	25336.94	3.8720	3.8721	1.0679	27.01	1.03	1.500			
0.3991	25541.97	3.8690	3.8690	1.0784	27.00	1.02	1.500			
0.4023	25749.03	3.8660	3.8660	1.0886	26.99	1.01	1.500			
0.4056	25959.66	3.8630	3.8630	1.1004	26.98	1.00	1.500			
0.4089	26172.28	3.8600	3.8600	1.1104	26.97	0.99	1.500			
0.4123	26386.33	3.8570	3.8570	1.1301	26.96	0.98	1.500			
0.4157	26604.31	3.8540	3.8539	1.1472	26.95	0.97	1.500			
0.4191	26825.35	3.8510	3.8510	1.1592	26.94	0.96	1.500			
0.4226	27048.94	3.8480	3.8481	1.1810	26.93	0.95	1.500			
0.4262	27277.64	3.8450	3.8451	1.2052	26.92	0.94	1.500			
0.4299	27512.21	3.8420	3.8419	1.2244	26.91	0.93	1.500			
0.4336	27749.55	3.8390	3.8389	1.2408	26.90	0.92	1.500			
0.4373	27987.82	3.8360	3.8361	1.2573	26.88	0.90	1.500			
0.4411	28233.49	3.8330	3.8330	1.2732	26.87	0.89	1.500			
0.4450	28478.01	3.8300	3.8300	1.2979	26.86	0.88	1.500			
0.4489	28728.19	3.8270	3.8270	1.3151	26.84	0.86	1.500			
0.4528	28979.77	3.8240	3.8241	1.3431	26.83	0.85	1.500			
0.4569	29242.60	3.8210	3.8210	1.3682	26.81	0.83	1.500			
0.4611	29509.68	3.8180	3.8180	1.3951	26.80	0.82	1.500			
0.4653	29780.66	3.8150	3.8150	1.4116	26.79	0.81	1.500			
0.4696	30054.18	3.8120	3.8120	1.4396	26.77	0.79	1.500			
0.4739	30331.25	3.8090	3.8090	1.4561	26.76	0.78	1.500			
0.4783	30612.78	3.8060	3.8059	1.4821	26.74	0.76	1.500			
0.4828	30896.37	3.8030	3.8031	1.5075	26.73	0.75	1.500			
0.4874	31190.63	3.8000	3.8000	1.5378	26.72	0.74	1.500			
0.4920	31487.57	3.7970	3.7970	1.5604	26.70	0.72	1.500			
0.4967	31789.74	3.7940	3.7940	1.5866	26.69	0.71	1.500			
0.5015	32093.79	3.7910	3.7910	1.6211	26.67	0.69	1.500			
0.5064	32407.91	3.7880	3.7880	1.6508	26.66	0.68	1.500			
0.5114	32730.41	3.7850	3.7845	1.6762	26.64	0.66	1.500	0.346	0.481	
0.5165	33057.08	3.7820	3.7821	1.6891	26.62	0.64	1.500			
0.5216	33384.89	3.7790	3.7790	1.6975	26.61	0.63	1.500			
0.5267	33708.76	3.7760	3.7760	1.6907	26.59	0.61	1.500			
0.5317	34027.86	3.7730	3.7731	1.6942	26.57	0.59	1.500			
0.5368	34353.17	3.7700	3.7700	1.7041	26.56	0.58	1.500			
0.5420	34687.84	3.7670	3.7670	1.7070	26.54	0.56	1.500			
0.5471	35015.98	3.7640	3.7640	1.7109	26.52	0.54	1.500			
0.5522	35342.01	3.7610	3.7611	1.7084	26.51	0.53	1.500			
0.5573	35666.23	3.7580	3.7581	1.7063	26.49	0.51	1.500			
0.5624	35996.13	3.7550	3.7550	1.7294	26.48	0.50	1.500			
0.5676	36329.36	3.7520	3.7520	1.7459	26.47	0.49	1.500			
0.5730	36669.41	3.7490	3.7490	1.7792	26.46	0.48	1.500			
0.5783	37011.25	3.7460	3.7460	1.8120	26.44	0.46	1.500			
0.5838	37363.50	3.7430	3.7430	1.8573	26.43	0.45	1.500			
0.5894	37724.10	3.7400	3.7399	1.8811	26.42	0.44	1.500			
0.5951	38089.10	3.7370	3.7370	1.9251	26.40	0.42	1.500			
0.6009	38459.88	3.7340	3.7340	1.9631	26.39	0.41	1.500			
0.6069	38842.87	3.7310	3.7310	2.0124	26.37	0.39	1.500			
0.6130	39234.81	3.7280	3.7280	2.0430	26.36	0.38	1.500			
0.6193	39634.18	3.7250	3.7250	2.1027	26.35	0.37	1.500			
0.6256	40037.65	3.7220	3.7221	2.1827	26.33	0.35	1.500			
0.6322	40462.94	3.7190	3.7191	2.2577	26.31	0.33	1.500			
0.6392	40910.92	3.7160	3.7160	2.3093	26.30	0.32	1.500			
0.6462	41359.76	3.7130	3.7130	2.3351	26.28	0.30	1.500			
0.6534	41816.21	3.7100	3.7099	2.3386	26.26	0.28	1.500			
0.6604	42266.90	3.7070	3.7071	2.2831	26.25	0.27	1.500			
0.6673	42709.95	3.7040	3.7040	2.1787	26.23	0.25	1.500			
0.6737	43118.77	3.7010	3.7010	2.0385	26.21	0.23	1.500			
0.6795	43486.19	3.6980	3.6979	1.8878	26.20	0.22	1.500			
0.6849	43833.13	3.6950	3.6950	1.7543	26.19	0.21	1.500			
0.6899	44156.76	3.6920	3.6920	1.6501	26.18	0.20	1.500			
0.6947	44463.28	3.6890	3.6890	1.5565	26.17	0.19	1.500			
0.6992	44747.38	3.6860	3.6860	1.4824	26.16	0.18	1.500			
0.7035	45023.39	3.6830	3.6830	1.4202	26.15	0.17	1.500			
0.7076	45287.83	3.6800	3.6800	1.3676	26.14	0.16	1.500			
0.7116	45542.99	3.6770	3.6770	1.3280	26.14	0.16	1.500			
0.7155	45794.56	3.6740	3.6740	1.3008	26.13	0.15	1.500			
0.7194	46039.35	3.6710	3.6709	1.2798	26.12	0.14	1.500			
0.7231	46278.17	3.6680	3.6680	1.2715	26.11	0.13	1.500			
0.7269	46521.42	3.6650	3.6650	1.2696	26.11	0.13	1.500			
0.7307	46765.18	3.6620	3.6619	1.2671	26.10	0.12	1.500			
0.7345	47009.30	3.6590	3.6591	1.2664	26.09	0.11	1.500			
0.7383	47253.42	3.6560	3.6560	1.2643	26.08	0.10	1.500			
0.7422	47498.64	3.6530	3.6530	1.2533	26.07	0.09	1.500			
0.7459	47737.65	3.6500	3.6500	1.2452	26.06	0.08	1.500			
0.7496	47973.65	3.6470	3.6472	1.2406	26.05	0.07	1.500			
0.7533	48211.96	3.6440	3.6439	1.2350	26.04	0.06	1.500			
0.7570	48448.85	3.6410	3.6410	1.2255	26.03	0.05	1.500			
0.7607	48683.15	3.6380	3.6380	1.2161	26.03	0.05	1.500			
0.7643	48915.93	3.6350	3.6351	1.2073	26.02	0.04	1.500			
0.7680	49151.79	3.6320	3.6319	1.1936	26.01	0.03	1.500			
0.7715	49376.31	3.6290	3.6290	1.1790	26.00	0.02	1.500			
0.7750	49600.47	3.6260	3.6261	1.1717	25.99	0.01	1.500			
0.7785	49825.44	3.6230	3.6230	1.1613	25.98	0.00	1.500			
0.7820	50047.93	3.6200	3.6200	1.1463	25.98	-0.00	1.500			
0.7854	50267.32	3.6170	3.6171	1.1305	25.97	-0.01	1.500			
0.7888	50483.83	3.6140	3.6140	1.1086	25.97	-0.01	1.500			
0.7922	50697.76	3.6110	3.6110	1.0883	25.97	-0.01	1.500			
0.7953	50901.70	3.6080	3.6080	1.0566	25.96	-0.02	1.500			
0.7985	51102.36	3.6050	3.6050	1.0296	25.96	-0.02	1.500			
0.8016	51299.32	3.6020	3.6020	1.0026	25.95	-0.03	1.500			
0.8045	51488.82	3.5990	3.5990	0.9719	25.95	-0.03	1.500			
0.8074	51672.90	3.5960	3.5960	0.9412	25.95	-0.03	1.500			
0.8102	51853.04	3.5930	3.5929	0.8969	25.96	-0.02	1.500			
0.8129	52024.54	3.5900	3.5900	0.8453	25.96	-0.02	1.500			
0.8154	52186.45	3.5870	3.5870	0.7741	25.96	-0.02	1.500			
0.8177	52330.27	3.5840	3.5841	0.6936	25.97	-0.01	1.500			
0.8197	52457.68	3.5810	3.5810	0.6095	25.97	-0.01	1.500			
0.8213	52564.34	3.5780	3.5780	0.5194	25.97	-0.01	1.500			
0.8227	52651.98	3.5750	3.5749	0.4364	25.97	-0.01	1.500			
0.8238	52725.75	3.5720	3.5720	0.3742	25.97	-0.01	1.500			
0.8248	52787.08	3.5690	3.5690	0.3190	25.97	-0.01	1.500			
0.8256	52841.07	3.5660	3.5659	0.2777	25.98	-0.00	1.500			
0.8264	52887.27	3.5630	3.5629	0.2382	25.98	-0.00	1.500			
0.8270	52928.56	3.5600	3.5600	0.2130	25.98	-0.00	1.500			
0.8276	52965.67	3.5570	3.5570	0.1907	25.98	-0.00	1.500			
0.8281	53000.32	3.5540	3.5539	0.1712	25.98	-0.00	1.500			
0.8286	53030.92	3.5510	3.5509	0.1547	25.98	-0.00	1.500			
0.8290	53058.00	3.5480	3.5481	0.1367	25.98	-0.00	1.500			
0.8294	53082.35	3.5450	3.5450	0.1214	25.98	-0.00	1.500			
0.8298	53104.24	3.5420	3.5420	0.1067	25.98	-0.00	1.500			
0.8301	53123.31	3.5390	3.5391	0.0920	25.98	0.00	1.500			
0.8303	53139.24	3.5360	3.5363	0.0772	25.98	0.00	1.500			
0.8305	53152.88	3.5330	3.5331	0.0629	25.98	0.00	1.500			
0.8307	53163.57	3.5300	3.5305	0.0484	25.98	0.00	1.500			
0.8308	53171.46	3.5270	3.5279	0.0338	25.98	0.00	1.500			
