Ah_balance (normalized)	Ah_balance (mAh)	Voltage - fit (V)	Voltage -  interpolate (V)	dQ/dV (1/V)	Temperature (°C)	Temperature - diff (°C)	Current (C)	R_DC 0ms (mOhm)	R_DC 50ms (mOhm)	R_DC 50 ms PEC (mOhm)
0.2784	17816.36	3.9890	3.9890	0.8153	27.06	1.10	1.500			
0.2808	17973.12	3.9860	3.9859	0.8229	27.06	1.10	1.500			
0.2834	18135.34	3.9830	3.9830	0.8378	27.05	1.09	1.500			
0.2859	18296.20	3.9800	3.9799	0.8433	27.05	1.09	1.500			
0.2884	18458.79	3.9770	3.9770	0.8523	27.05	1.09	1.500			
0.2910	18624.10	3.9740	3.9741	0.8555	27.04	1.08	1.500			
0.2936	18788.26	3.9710	3.9708	0.8590	27.04	1.08	1.500			
0.2961	18953.41	3.9680	3.9680	0.8598	27.03	1.07	1.500			
0.2987	19117.51	3.9650	3.9651	0.8641	27.03	1.07	1.500			
0.3013	19285.17	3.9620	3.9620	0.8701	27.03	1.07	1.500			
0.3039	19451.78	3.9590	3.9590	0.8732	27.02	1.06	1.500			
0.3066	19620.56	3.9560	3.9559	0.8776	27.02	1.06	1.500			
0.3092	19791.12	3.9530	3.9532	0.8852	27.01	1.05	1.500			
0.3119	19960.80	3.9500	3.9500	0.8866	27.01	1.05	1.500			
0.3146	20132.91	3.9470	3.9470	0.8879	27.00	1.04	1.500			
0.3172	20302.38	3.9440	3.9440	0.8875	27.00	1.04	1.500			
0.3199	20471.07	3.9410	3.9410	0.8912	26.99	1.03	1.500			
0.3225	20641.60	3.9380	3.9380	0.8944	26.99	1.03	1.500			
0.3252	20814.50	3.9350	3.9350	0.9008	26.98	1.02	1.500			
0.3279	20987.90	3.9320	3.9320	0.9038	26.98	1.02	1.500			
0.3307	21162.90	3.9290	3.9290	0.9105	26.97	1.01	1.500			
0.3334	21339.43	3.9260	3.9260	0.9154	26.96	1.00	1.500			
0.3362	21514.61	3.9230	3.9230	0.9154	26.96	1.00	1.500			
0.3389	21690.53	3.9200	3.9200	0.9194	26.95	0.99	1.500			
0.3417	21866.03	3.9170	3.9171	0.9277	26.95	0.99	1.500			
0.3444	22044.61	3.9140	3.9140	0.9353	26.94	0.98	1.500			
0.3473	22225.07	3.9110	3.9110	0.9460	26.93	0.97	1.500			
0.3501	22407.78	3.9080	3.9080	0.9527	26.93	0.97	1.500			
0.3530	22591.85	3.9050	3.9050	0.9623	26.92	0.96	1.500			
0.3559	22778.70	3.9020	3.9020	0.9696	26.91	0.95	1.500			
0.3588	22964.90	3.8990	3.8991	0.9766	26.90	0.94	1.500			
0.3617	23151.99	3.8960	3.8960	0.9827	26.90	0.94	1.500			
0.3647	23342.18	3.8930	3.8929	0.9929	26.89	0.93	1.500			
0.3677	23533.37	3.8900	3.8900	0.9968	26.89	0.93	1.500			
0.3707	23725.81	3.8870	3.8870	1.0043	26.88	0.92	1.500			
0.3737	23919.89	3.8840	3.8840	1.0137	26.87	0.91	1.500			
0.3768	24115.10	3.8810	3.8809	1.0227	26.87	0.91	1.500			
0.3798	24309.77	3.8780	3.8780	1.0301	26.86	0.90	1.500			
0.3829	24508.39	3.8750	3.8750	1.0468	26.86	0.90	1.500			
0.3861	24711.07	3.8720	3.8720	1.0632	26.85	0.89	1.500			
0.3893	24917.90	3.8690	3.8690	1.0770	26.84	0.88	1.500			
0.3926	25126.38	3.8660	3.8661	1.0875	26.83	0.87	1.500			
0.3959	25335.91	3.8630	3.8630	1.1019	26.83	0.87	1.500			
0.3992	25550.07	3.8600	3.8599	1.1106	26.82	0.86	1.500			
0.4025	25761.37	3.8570	3.8570	1.1255	26.81	0.85	1.500			
0.4059	25978.76	3.8540	3.8541	1.1386	26.80	0.84	1.500			
0.4094	26199.20	3.8510	3.8509	1.1564	26.79	0.83	1.500			
0.4129	26423.64	3.8480	3.8480	1.1723	26.78	0.82	1.500			
0.4164	26647.91	3.8450	3.8452	1.1954	26.77	0.81	1.500			
0.4200	26879.21	3.8420	3.8420	1.2133	26.76	0.80	1.500			
0.4237	27116.60	3.8390	3.8390	1.2352	26.75	0.79	1.500			
0.4274	27354.84	3.8360	3.8360	1.2477	26.74	0.78	1.500			
0.4312	27596.78	3.8330	3.8331	1.2724	26.73	0.77	1.500			
0.4350	27841.26	3.8300	3.8299	1.2924	26.72	0.76	1.500			
0.4389	28089.43	3.8270	3.8270	1.3181	26.71	0.75	1.500			
0.4429	28343.18	3.8240	3.8240	1.3435	26.70	0.74	1.500			
0.4470	28606.05	3.8210	3.8210	1.3742	26.69	0.73	1.500			
0.4511	28872.66	3.8180	3.8180	1.4021	26.68	0.72	1.500			
0.4554	29145.00	3.8150	3.8150	1.4342	26.67	0.71	1.500			
0.4597	29422.30	3.8120	3.8120	1.4587	26.65	0.69	1.500			
0.4641	29703.78	3.8090	3.8090	1.4863	26.64	0.68	1.500			
0.4686	29992.81	3.8060	3.8060	1.5082	26.63	0.67	1.500			
0.4732	30284.74	3.8030	3.8030	1.5448	26.61	0.65	1.500			
0.4779	30584.51	3.8000	3.8000	1.5783	26.60	0.64	1.500			
0.4826	30889.23	3.7970	3.7969	1.5978	26.58	0.62	1.500			
0.4875	31198.65	3.7940	3.7941	1.6322	26.57	0.61	1.500			
0.4924	31516.18	3.7910	3.7910	1.6564	26.55	0.59	1.500			
0.4975	31839.12	3.7880	3.7880	1.6745	26.54	0.58	1.500			
0.5025	32159.31	3.7850	3.7851	1.6853	26.52	0.56	1.500			
0.5075	32482.26	3.7820	3.7820	1.7397	26.51	0.55	1.500			
0.5128	32818.80	3.7790	3.7789	1.7633	26.49	0.53	1.500			
0.5182	33163.46	3.7760	3.7761	1.7738	26.48	0.52	1.500	0.348	0.469	
0.5237	33517.62	3.7730	3.7730	1.8145	26.46	0.50	1.500			
0.5291	33860.79	3.7700	3.7701	1.7907	26.44	0.48	1.500			
0.5344	34199.42	3.7670	3.7670	1.7712	26.42	0.46	1.500			
0.5397	34541.14	3.7640	3.7640	1.7754	26.41	0.45	1.500			
0.5450	34878.01	3.7610	3.7610	1.7722	26.40	0.44	1.500			
0.5503	35217.27	3.7580	3.7580	1.7693	26.39	0.43	1.500			
0.5556	35557.19	3.7550	3.7550	1.7711	26.37	0.41	1.500			
0.5609	35896.12	3.7520	3.7518	1.7812	26.36	0.40	1.500			
0.5662	36237.85	3.7490	3.7491	1.8030	26.34	0.38	1.500			
0.5717	36588.72	3.7460	3.7459	1.8052	26.33	0.37	1.500			
0.5771	36936.61	3.7430	3.7431	1.8393	26.31	0.35	1.500			
0.5827	37292.82	3.7400	3.7400	1.8852	26.29	0.33	1.500			
0.5884	37659.74	3.7370	3.7371	1.9229	26.27	0.31	1.500			
0.5942	38031.18	3.7340	3.7340	1.9508	26.26	0.30	1.500			
0.6002	38410.08	3.7310	3.7311	2.0239	26.25	0.29	1.500			
0.6063	38802.58	3.7280	3.7279	2.0717	26.24	0.28	1.500			
0.6126	39207.70	3.7250	3.7250	2.1238	26.23	0.27	1.500			
0.6192	39626.15	3.7220	3.7220	2.1660	26.21	0.25	1.500			
0.6256	40040.97	3.7190	3.7190	2.2204	26.20	0.24	1.500			
0.6323	40466.11	3.7160	3.7161	2.2822	26.19	0.23	1.500			
0.6393	40914.99	3.7130	3.7131	2.3654	26.17	0.21	1.500			
0.6465	41376.09	3.7100	3.7100	2.3943	26.15	0.19	1.500			
0.6538	41840.78	3.7070	3.7070	2.4105	26.14	0.18	1.500			
0.6610	42306.49	3.7040	3.7038	2.3852	26.12	0.16	1.500			
0.6683	42773.59	3.7010	3.7010	2.3223	26.11	0.15	1.500			
0.6752	43214.70	3.6980	3.6980	2.2063	26.10	0.14	1.500			
0.6817	43626.06	3.6950	3.6951	2.0374	26.09	0.13	1.500			
0.6875	44001.65	3.6920	3.6920	1.8899	26.08	0.12	1.500			
0.6929	44343.39	3.6890	3.6890	1.7448	26.07	0.11	1.500			
0.6979	44664.58	3.6860	3.6859	1.6385	26.06	0.10	1.500			
0.7025	44962.43	3.6830	3.6830	1.5452	26.05	0.09	1.500			
0.7070	45247.33	3.6800	3.6800	1.4648	26.05	0.09	1.500			
0.7112	45518.49	3.6770	3.6769	1.4050	26.04	0.08	1.500			
0.7153	45782.27	3.6740	3.6740	1.3559	26.03	0.07	1.500			
0.7193	46034.82	3.6710	3.6710	1.3153	26.03	0.07	1.500			
0.7232	46281.99	3.6680	3.6680	1.2845	26.02	0.06	1.500			
0.7269	46522.33	3.6650	3.6650	1.2629	26.01	0.05	1.500			
0.7306	46761.12	3.6620	3.6620	1.2629	26.01	0.05	1.500			
0.7344	47001.16	3.6590	3.6590	1.2619	26.00	0.04	1.500			
0.7382	47243.05	3.6560	3.6560	1.2679	26.00	0.04	1.500			
0.7420	47488.87	3.6530	3.6530	1.2709	25.99	0.03	1.500			
0.7459	47734.79	3.6500	3.6500	1.2702	25.98	0.02	1.500			
0.7497	47980.53	3.6470	3.6470	1.2687	25.98	0.02	1.500			
0.7535	48223.36	3.6440	3.6441	1.2673	25.97	0.01	1.500			
0.7573	48464.48	3.6410	3.6409	1.2585	25.97	0.01	1.500			
0.7610	48706.64	3.6380	3.6380	1.2508	25.96	-0.00	1.500			
0.7648	48945.41	3.6350	3.6350	1.2469	25.95	-0.01	1.500			
0.7685	49185.51	3.6320	3.6320	1.2499	25.95	-0.01	1.500			
0.7723	49424.50	3.6290	3.6290	1.2435	25.94	-0.02	1.500			
0.7760	49662.00	3.6260	3.6259	1.2399	25.94	-0.02	1.500			
0.7797	49899.43	3.6230	3.6230	1.2369	25.93	-0.03	1.500			
0.7834	50138.56	3.6200	3.6200	1.2353	25.92	-0.04	1.500			
0.7871	50376.71	3.6170	3.6170	1.2280	25.92	-0.04	1.500			
0.7908	50612.82	3.6140	3.6140	1.2117	25.92	-0.04	1.500			
0.7944	50844.27	3.6110	3.6110	1.1973	25.92	-0.04	1.500			
0.7980	51075.07	3.6080	3.6080	1.1756	25.92	-0.04	1.500			
0.8015	51297.69	3.6050	3.6050	1.1509	25.92	-0.04	1.500			
0.8049	51515.69	3.6020	3.6020	1.1325	25.92	-0.04	1.500			
0.8083	51730.75	3.5990	3.5990	1.1120	25.92	-0.04	1.500			
0.8116	51942.72	3.5960	3.5960	1.0920	25.92	-0.04	1.500			
0.8149	52150.83	3.5930	3.5931	1.0711	25.93	-0.03	1.500			
0.8181	52356.01	3.5900	3.5900	1.0445	25.93	-0.03	1.500			
0.8212	52557.08	3.5870	3.5870	1.0136	25.94	-0.02	1.500			
0.8243	52754.43	3.5840	3.5839	0.9564	25.94	-0.02	1.500			
0.8271	52935.81	3.5810	3.5810	0.8836	25.95	-0.01	1.500			
0.8298	53106.42	3.5780	3.5781	0.7973	25.95	-0.01	1.500			
0.8320	53250.85	3.5750	3.5750	0.6938	25.95	-0.01	1.500			
0.8339	53371.81	3.5720	3.5722	0.5923	25.96	-0.00	1.500			
0.8355	53472.40	3.5690	3.5689	0.4944	25.96	-0.00	1.500			
0.8368	53552.23	3.5660	3.5659	0.4088	25.96	0.00	1.500			
0.8378	53620.84	3.5630	3.5630	0.3505	25.96	0.00	1.500			
0.8387	53677.95	3.5600	3.5600	0.2994	25.96	0.00	1.500			
0.8395	53729.33	3.5570	3.5569	0.2634	25.97	0.01	1.500			
0.8402	53773.59	3.5540	3.5538	0.2281	25.97	0.01	1.500			
0.8408	53813.70	3.5510	3.5510	0.2055	25.97	0.01	1.500			
0.8414	53849.92	3.5480	3.5480	0.1858	25.97	0.01	1.500			
0.8419	53883.73	3.5450	3.5450	0.1682	25.97	0.01	1.500			
0.8424	53914.09	3.5420	3.5420	0.1532	25.97	0.01	1.500			
0.8428	53941.34	3.5390	3.5390	0.1372	25.97	0.01	1.500			
0.8432	53966.15	3.5360	3.5360	0.1227	25.97	0.01	1.500			
0.8436	53988.47	3.5330	3.5330	0.1091	25.97	0.01	1.500			
0.8439	54008.07	3.5300	3.5300	0.0951	25.97	0.01	1.500			
0.8441	54025.08	3.5270	3.5271	0.0811	25.97	0.01	1.500			
0.8444	54039.39	3.5240	3.5242	0.0670	25.97	0.01	1.500			
0.8445	54050.87	3.5210	3.5215	0.0527	25.97	0.01	1.500			
0.8447	54059.61	3.5180	3.5189	0.0383	25.97	0.01	1.500			
