Ah_balance (normalized)	Ah_balance (mAh)	Voltage - fit (V)	Voltage -  interpolate (V)	dQ/dV (1/V)	Temperature (°C)	Temperature - diff (°C)	Current (C)	R_DC 0ms (mOhm)	R_DC 50ms (mOhm)	R_DC 50 ms PEC (mOhm)
0.2744	17561.94	3.9910	3.9910	0.8441	27.34	1.38	1.500			
0.2769	17722.41	3.9880	3.9881	0.8331	27.34	1.38	1.500			
0.2794	17884.57	3.9850	3.9850	0.8414	27.33	1.37	1.500			
0.2820	18045.37	3.9820	3.9819	0.8456	27.32	1.36	1.500			
0.2845	18207.75	3.9790	3.9790	0.8490	27.31	1.35	1.500			
0.2871	18372.43	3.9760	3.9760	0.8541	27.31	1.35	1.500			
0.2897	18538.01	3.9730	3.9730	0.8553	27.30	1.34	1.500			
0.2922	18701.92	3.9700	3.9700	0.8556	27.29	1.33	1.500			
0.2948	18866.06	3.9670	3.9671	0.8581	27.29	1.33	1.500			
0.2974	19031.11	3.9640	3.9640	0.8628	27.28	1.32	1.500			
0.2999	19196.22	3.9610	3.9610	0.8607	27.27	1.31	1.500			
0.3025	19360.91	3.9580	3.9580	0.8665	27.26	1.30	1.500			
0.3051	19528.14	3.9550	3.9550	0.8708	27.26	1.30	1.500			
0.3077	19695.83	3.9520	3.9520	0.8803	27.25	1.29	1.500			
0.3104	19864.11	3.9490	3.9490	0.8884	27.24	1.28	1.500			
0.3131	20036.37	3.9460	3.9460	0.8930	27.24	1.28	1.500			
0.3158	20209.17	3.9430	3.9430	0.9001	27.23	1.27	1.500			
0.3185	20384.00	3.9400	3.9400	0.9053	27.22	1.26	1.500			
0.3212	20557.46	3.9370	3.9370	0.9045	27.22	1.26	1.500			
0.3239	20732.04	3.9340	3.9340	0.9048	27.21	1.25	1.500			
0.3266	20903.74	3.9310	3.9309	0.9050	27.20	1.24	1.500			
0.3293	21076.46	3.9280	3.9281	0.9076	27.20	1.24	1.500			
0.3321	21252.15	3.9250	3.9250	0.9143	27.19	1.23	1.500			
0.3348	21427.27	3.9220	3.9219	0.9204	27.18	1.22	1.500			
0.3376	21604.76	3.9190	3.9190	0.9300	27.18	1.22	1.500			
0.3404	21783.81	3.9160	3.9160	0.9383	27.17	1.21	1.500			
0.3432	21965.58	3.9130	3.9130	0.9441	27.16	1.20	1.500			
0.3460	22145.87	3.9100	3.9100	0.9515	27.16	1.20	1.500			
0.3489	22330.36	3.9070	3.9070	0.9590	27.15	1.19	1.500			
0.3518	22515.73	3.9040	3.9039	0.9665	27.14	1.18	1.500			
0.3547	22700.18	3.9010	3.9010	0.9766	27.14	1.18	1.500			
0.3576	22888.44	3.8980	3.8979	0.9857	27.13	1.17	1.500			
0.3606	23080.37	3.8950	3.8950	0.9900	27.12	1.16	1.500			
0.3636	23271.75	3.8920	3.8920	0.9939	27.12	1.16	1.500			
0.3666	23461.55	3.8890	3.8891	1.0020	27.11	1.15	1.500			
0.3696	23655.19	3.8860	3.8860	1.0127	27.10	1.14	1.500			
0.3726	23848.63	3.8830	3.8829	1.0210	27.09	1.13	1.500			
0.3757	24045.01	3.8800	3.8800	1.0327	27.09	1.13	1.500			
0.3788	24245.61	3.8770	3.8770	1.0476	27.08	1.12	1.500			
0.3820	24448.83	3.8740	3.8740	1.0603	27.07	1.11	1.500			
0.3852	24653.63	3.8710	3.8711	1.0693	27.06	1.10	1.500			
0.3884	24858.49	3.8680	3.8680	1.0785	27.06	1.10	1.500			
0.3917	25066.42	3.8650	3.8650	1.0906	27.05	1.09	1.500			
0.3950	25277.15	3.8620	3.8620	1.1017	27.04	1.08	1.500			
0.3983	25488.59	3.8590	3.8590	1.1200	27.03	1.07	1.500			
0.4017	25705.95	3.8560	3.8560	1.1378	27.02	1.06	1.500			
0.4051	25926.42	3.8530	3.8530	1.1530	27.02	1.06	1.500			
0.4086	26150.03	3.8500	3.8500	1.1701	27.01	1.05	1.500			
0.4121	26375.93	3.8470	3.8471	1.1869	27.00	1.04	1.500			
0.4157	26605.18	3.8440	3.8440	1.2060	26.99	1.03	1.500			
0.4194	26839.01	3.8410	3.8410	1.2208	26.98	1.02	1.500			
0.4230	27074.65	3.8380	3.8379	1.2332	26.97	1.01	1.500			
0.4268	27313.55	3.8350	3.8351	1.2528	26.96	1.00	1.500			
0.4306	27556.09	3.8320	3.8320	1.2703	26.95	0.99	1.500			
0.4344	27799.65	3.8290	3.8290	1.2907	26.93	0.97	1.500			
0.4382	28047.68	3.8260	3.8260	1.3128	26.92	0.96	1.500			
0.4422	28301.98	3.8230	3.8230	1.3420	26.91	0.95	1.500			
0.4463	28564.83	3.8200	3.8200	1.3670	26.90	0.94	1.500			
0.4504	28828.73	3.8170	3.8170	1.3935	26.88	0.92	1.500			
0.4547	29100.07	3.8140	3.8141	1.4145	26.87	0.91	1.500			
0.4590	29374.05	3.8110	3.8109	1.4361	26.86	0.90	1.500			
0.4633	29651.07	3.8080	3.8080	1.4606	26.84	0.88	1.500			
0.4677	29934.29	3.8050	3.8050	1.4680	26.83	0.87	1.500			
0.4721	30216.87	3.8020	3.8020	1.4990	26.81	0.85	1.500			
0.4766	30505.43	3.7990	3.7991	1.5294	26.80	0.84	1.500			
0.4812	30799.96	3.7960	3.7959	1.5719	26.78	0.82	1.500			
0.4861	31107.21	3.7930	3.7931	1.6002	26.77	0.81	1.500			
0.4909	31417.20	3.7900	3.7900	1.6316	26.75	0.79	1.500			
0.4959	31736.67	3.7870	3.7871	1.6689	26.74	0.78	1.500			
0.5009	32058.29	3.7840	3.7839	1.6794	26.72	0.76	1.500			
0.5060	32384.70	3.7810	3.7811	1.7058	26.71	0.75	1.500	0.345	0.474	
0.5112	32716.88	3.7780	3.7780	1.7169	26.69	0.73	1.500			
0.5164	33049.71	3.7750	3.7749	1.7150	26.67	0.71	1.500			
0.5214	33370.25	3.7720	3.7721	1.6983	26.66	0.70	1.500			
0.5265	33698.00	3.7690	3.7689	1.6974	26.64	0.68	1.500			
0.5316	34022.05	3.7660	3.7659	1.7123	26.62	0.66	1.500			
0.5367	34349.83	3.7630	3.7632	1.7247	26.61	0.65	1.500			
0.5420	34685.51	3.7600	3.7599	1.7457	26.59	0.63	1.500			
0.5471	35016.97	3.7570	3.7571	1.7367	26.57	0.61	1.500			
0.5524	35351.94	3.7540	3.7541	1.7556	26.56	0.60	1.500			
0.5577	35692.75	3.7510	3.7507	1.7865	26.54	0.58	1.500			
0.5630	36034.03	3.7480	3.7481	1.8023	26.53	0.57	1.500			
0.5685	36384.21	3.7450	3.7450	1.8356	26.51	0.55	1.500			
0.5740	36738.59	3.7420	3.7420	1.8616	26.50	0.54	1.500			
0.5797	37101.31	3.7390	3.7390	1.8978	26.49	0.53	1.500			
0.5855	37470.92	3.7360	3.7360	1.9357	26.47	0.51	1.500			
0.5914	37847.81	3.7330	3.7330	1.9690	26.46	0.50	1.500			
0.5973	38228.78	3.7300	3.7300	2.0133	26.44	0.48	1.500			
0.6034	38615.45	3.7270	3.7270	2.0783	26.43	0.47	1.500			
0.6098	39024.34	3.7240	3.7240	2.1525	26.41	0.45	1.500			
0.6163	39445.79	3.7210	3.7210	2.1953	26.40	0.44	1.500			
0.6230	39874.28	3.7180	3.7180	2.2693	26.38	0.42	1.500			
0.6299	40310.78	3.7150	3.7149	2.3199	26.37	0.41	1.500			
0.6369	40763.63	3.7120	3.7121	2.3464	26.35	0.39	1.500			
0.6441	41221.25	3.7090	3.7090	2.3499	26.33	0.37	1.500			
0.6512	41674.03	3.7060	3.7060	2.2833	26.31	0.35	1.500			
0.6579	42106.78	3.7030	3.7029	2.1881	26.29	0.33	1.500			
0.6644	42522.90	3.7000	3.7000	2.0623	26.27	0.31	1.500			
0.6704	42903.78	3.6970	3.6970	1.9139	26.26	0.30	1.500			
0.6757	43247.30	3.6940	3.6940	1.7723	26.25	0.29	1.500			
0.6809	43576.60	3.6910	3.6909	1.6739	26.23	0.27	1.500			
0.6857	43886.39	3.6880	3.6880	1.5833	26.22	0.26	1.500			
0.6903	44182.13	3.6850	3.6850	1.5146	26.21	0.25	1.500			
0.6948	44464.79	3.6820	3.6820	1.4426	26.20	0.24	1.500			
0.6990	44733.81	3.6790	3.6790	1.3880	26.19	0.23	1.500			
0.7029	44986.99	3.6760	3.6761	1.3371	26.18	0.22	1.500			
0.7068	45238.12	3.6730	3.6729	1.3094	26.17	0.21	1.500			
0.7107	45483.56	3.6700	3.6700	1.2913	26.16	0.20	1.500			
0.7145	45729.50	3.6670	3.6669	1.2861	26.15	0.19	1.500			
0.7184	45975.74	3.6640	3.6640	1.2789	26.14	0.18	1.500			
0.7222	46222.01	3.6610	3.6610	1.2783	26.13	0.17	1.500			
0.7260	46464.72	3.6580	3.6580	1.2767	26.12	0.16	1.500			
0.7299	46711.54	3.6550	3.6549	1.2783	26.11	0.15	1.500			
0.7337	46956.70	3.6520	3.6520	1.2732	26.10	0.14	1.500			
0.7375	47201.15	3.6490	3.6491	1.2693	26.09	0.13	1.500			
0.7413	47446.05	3.6460	3.6460	1.2620	26.08	0.12	1.500			
0.7452	47690.41	3.6430	3.6430	1.2457	26.07	0.11	1.500			
0.7488	47925.79	3.6400	3.6400	1.2342	26.06	0.10	1.500			
0.7525	48159.96	3.6370	3.6371	1.2263	26.05	0.09	1.500			
0.7562	48394.33	3.6340	3.6340	1.2215	26.04	0.08	1.500			
0.7598	48628.44	3.6310	3.6310	1.2160	26.03	0.07	1.500			
0.7635	48861.31	3.6280	3.6281	1.2112	26.03	0.07	1.500			
0.7671	49094.71	3.6250	3.6250	1.2070	26.02	0.06	1.500			
0.7708	49330.10	3.6220	3.6220	1.1966	26.01	0.05	1.500			
0.7743	49557.36	3.6190	3.6190	1.1721	26.00	0.04	1.500			
0.7778	49781.34	3.6160	3.6160	1.1556	25.99	0.03	1.500			
0.7813	50002.29	3.6130	3.6130	1.1319	25.98	0.02	1.500			
0.7847	50217.67	3.6100	3.6100	1.1065	25.98	0.02	1.500			
0.7879	50426.26	3.6070	3.6070	1.0855	25.98	0.02	1.500			
0.7911	50632.01	3.6040	3.6040	1.0642	25.97	0.01	1.500			
0.7943	50835.68	3.6010	3.6009	1.0428	25.97	0.01	1.500			
0.7974	51033.82	3.5980	3.5980	1.0161	25.97	0.01	1.500			
0.8004	51227.54	3.5950	3.5951	0.9826	25.97	0.01	1.500			
0.8034	51417.11	3.5920	3.5919	0.9401	25.96	0.00	1.500			
0.8062	51597.52	3.5890	3.5891	0.8869	25.96	0.00	1.500			
0.8088	51764.74	3.5860	3.5860	0.8070	25.96	-0.00	1.500			
0.8112	51916.86	3.5830	3.5831	0.7285	25.96	-0.00	1.500			
0.8133	52048.90	3.5800	3.5801	0.6380	25.96	-0.00	1.500			
0.8150	52160.99	3.5770	3.5770	0.5463	25.95	-0.01	1.500			
0.8164	52252.04	3.5740	3.5739	0.4649	25.95	-0.01	1.500			
0.8177	52329.98	3.5710	3.5710	0.3978	25.95	-0.01	1.500			
0.8187	52397.31	3.5680	3.5679	0.3347	25.95	-0.01	1.500			
0.8196	52454.94	3.5650	3.5650	0.2922	25.95	-0.01	1.500			
0.8204	52503.19	3.5620	3.5619	0.2536	25.95	-0.01	1.500			
0.8210	52546.73	3.5590	3.5589	0.2256	25.95	-0.01	1.500			
0.8217	52585.72	3.5560	3.5560	0.1994	25.95	-0.01	1.500			
0.8222	52621.12	3.5530	3.5530	0.1800	25.95	-0.01	1.500			
0.8227	52653.30	3.5500	3.5500	0.1631	25.95	-0.01	1.500			
0.8232	52682.71	3.5470	3.5470	0.1463	25.95	-0.01	1.500			
0.8236	52709.18	3.5440	3.5440	0.1312	25.95	-0.01	1.500			
0.8239	52732.71	3.5410	3.5410	0.1156	25.95	-0.01	1.500			
0.8243	52753.50	3.5380	3.5380	0.1009	25.95	-0.01	1.500			
0.8246	52771.43	3.5350	3.5352	0.0860	25.95	-0.01	1.500			
0.8248	52786.53	3.5320	3.5322	0.0713	25.95	-0.01	1.500			
0.8250	52799.35	3.5290	3.5294	0.0562	25.95	-0.01	1.500			
0.8251	52808.63	3.5260	3.5268	0.0404	25.95	-0.01	1.500			
0.8252	52814.88	3.5230	3.5244	0.0247	25.95	-0.01	1.500			
