Ah_balance (normalized)	Ah_balance (mAh)	Voltage - fit (V)	Voltage -  interpolate (V)	dQ/dV (1/V)	Temperature (°C)	Temperature - diff (°C)	Current (C)	R_DC 0ms (mOhm)	R_DC 50ms (mOhm)	R_DC 50 ms PEC (mOhm)
0.2882	18445.82	3.9880	3.9880	0.8206	27.20	1.24	1.500			
0.2907	18607.64	3.9850	3.9850	0.8487	27.20	1.24	1.500			
0.2933	18770.74	3.9820	3.9820	0.8493	27.19	1.23	1.500			
0.2958	18934.08	3.9790	3.9791	0.8500	27.19	1.23	1.500			
0.2984	19097.63	3.9760	3.9759	0.8534	27.19	1.23	1.500			
0.3010	19261.30	3.9730	3.9730	0.8524	27.18	1.22	1.500			
0.3035	19423.48	3.9700	3.9701	0.8542	27.18	1.22	1.500			
0.3061	19587.67	3.9670	3.9670	0.8550	27.17	1.21	1.500			
0.3086	19753.02	3.9640	3.9639	0.8597	27.17	1.21	1.500			
0.3112	19917.62	3.9610	3.9610	0.8604	27.16	1.20	1.500			
0.3138	20083.52	3.9580	3.9579	0.8597	27.16	1.20	1.500			
0.3164	20249.26	3.9550	3.9550	0.8604	27.16	1.20	1.500			
0.3190	20414.84	3.9520	3.9521	0.8625	27.15	1.19	1.500			
0.3215	20577.32	3.9490	3.9490	0.8670	27.15	1.19	1.500			
0.3241	20744.95	3.9460	3.9460	0.8764	27.15	1.19	1.500			
0.3268	20913.23	3.9430	3.9429	0.8808	27.14	1.18	1.500			
0.3294	21083.81	3.9400	3.9400	0.8892	27.14	1.18	1.500			
0.3322	21257.65	3.9370	3.9371	0.8983	27.14	1.18	1.500			
0.3349	21430.54	3.9340	3.9340	0.8994	27.14	1.18	1.500			
0.3375	21602.71	3.9310	3.9309	0.9028	27.13	1.17	1.500			
0.3402	21775.64	3.9280	3.9279	0.9036	27.13	1.17	1.500			
0.3429	21948.61	3.9250	3.9250	0.9121	27.12	1.16	1.500			
0.3457	22124.44	3.9220	3.9220	0.9194	27.12	1.16	1.500			
0.3485	22302.99	3.9190	3.9190	0.9249	27.11	1.15	1.500			
0.3513	22481.47	3.9160	3.9160	0.9289	27.11	1.15	1.500			
0.3541	22662.11	3.9130	3.9130	0.9323	27.10	1.14	1.500			
0.3569	22840.64	3.9100	3.9100	0.9402	27.09	1.13	1.500			
0.3597	23020.22	3.9070	3.9070	0.9526	27.09	1.13	1.500			
0.3626	23203.45	3.9040	3.9042	0.9595	27.08	1.12	1.500			
0.3654	23388.75	3.9010	3.9012	0.9707	27.08	1.12	1.500			
0.3684	23577.09	3.8980	3.8981	0.9776	27.07	1.11	1.500			
0.3714	23766.51	3.8950	3.8950	0.9855	27.07	1.11	1.500			
0.3743	23955.37	3.8920	3.8920	0.9934	27.06	1.10	1.500			
0.3773	24148.27	3.8890	3.8891	0.9962	27.05	1.09	1.500			
0.3803	24337.79	3.8860	3.8860	0.9996	27.05	1.09	1.500			
0.3833	24530.45	3.8830	3.8830	1.0138	27.04	1.08	1.500			
0.3863	24725.09	3.8800	3.8801	1.0258	27.04	1.08	1.500			
0.3894	24922.57	3.8770	3.8769	1.0435	27.03	1.07	1.500			
0.3926	25124.42	3.8740	3.8740	1.0555	27.02	1.06	1.500			
0.3958	25329.39	3.8710	3.8710	1.0710	27.01	1.05	1.500			
0.3990	25538.92	3.8680	3.8680	1.0858	27.01	1.05	1.500			
0.4023	25748.77	3.8650	3.8650	1.0948	27.00	1.04	1.500			
0.4056	25958.44	3.8620	3.8620	1.1025	26.99	1.03	1.500			
0.4089	26170.36	3.8590	3.8590	1.1183	26.98	1.02	1.500			
0.4123	26385.08	3.8560	3.8560	1.1305	26.97	1.01	1.500			
0.4157	26603.84	3.8530	3.8530	1.1516	26.97	1.01	1.500			
0.4192	26827.15	3.8500	3.8500	1.1667	26.96	1.00	1.500			
0.4227	27052.94	3.8470	3.8470	1.1822	26.95	0.99	1.500			
0.4263	27282.95	3.8440	3.8440	1.1947	26.95	0.99	1.500			
0.4299	27512.28	3.8410	3.8411	1.2153	26.94	0.98	1.500			
0.4335	27746.21	3.8380	3.8379	1.2347	26.93	0.97	1.500			
0.4373	27985.12	3.8350	3.8350	1.2533	26.92	0.96	1.500			
0.4410	28226.47	3.8320	3.8321	1.2811	26.91	0.95	1.500			
0.4449	28475.99	3.8290	3.8291	1.3121	26.90	0.94	1.500			
0.4489	28732.36	3.8260	3.8259	1.3266	26.89	0.93	1.500			
0.4530	28989.14	3.8230	3.8230	1.3520	26.88	0.92	1.500			
0.4570	29247.93	3.8200	3.8201	1.3730	26.87	0.91	1.500			
0.4612	29514.28	3.8170	3.8169	1.4005	26.86	0.90	1.500			
0.4654	29784.14	3.8140	3.8141	1.4385	26.85	0.89	1.500			
0.4697	30062.37	3.8110	3.8110	1.4612	26.83	0.87	1.500			
0.4742	30348.51	3.8080	3.8080	1.4901	26.82	0.86	1.500			
0.4787	30638.65	3.8050	3.8051	1.5156	26.81	0.85	1.500			
0.4833	30933.16	3.8020	3.8020	1.5478	26.80	0.84	1.500			
0.4880	31231.46	3.7990	3.7989	1.5753	26.78	0.82	1.500			
0.4927	31534.73	3.7960	3.7960	1.6095	26.77	0.81	1.500			
0.4977	31850.85	3.7930	3.7930	1.6340	26.76	0.80	1.500			
0.5026	32168.17	3.7900	3.7900	1.6543	26.75	0.79	1.500			
0.5076	32488.44	3.7870	3.7871	1.6667	26.74	0.78	1.500			
0.5126	32808.55	3.7840	3.7840	1.7003	26.72	0.76	1.500			
0.5177	33135.38	3.7810	3.7810	1.7431	26.71	0.75	1.500			
0.5230	33473.87	3.7780	3.7780	1.7553	26.69	0.73	1.500	0.345	0.468	
0.5284	33820.58	3.7750	3.7751	1.7812	26.67	0.71	1.500			
0.5339	34167.01	3.7720	3.7720	1.7848	26.66	0.70	1.500			
0.5392	34507.36	3.7690	3.7687	1.7703	26.64	0.68	1.500			
0.5444	34841.09	3.7660	3.7660	1.7595	26.63	0.67	1.500			
0.5497	35179.77	3.7630	3.7630	1.7619	26.61	0.65	1.500			
0.5550	35520.28	3.7600	3.7600	1.7657	26.60	0.64	1.500			
0.5602	35855.31	3.7570	3.7570	1.7720	26.59	0.63	1.500			
0.5656	36196.98	3.7540	3.7540	1.7738	26.58	0.62	1.500			
0.5709	36537.69	3.7510	3.7510	1.7806	26.56	0.60	1.500			
0.5763	36880.30	3.7480	3.7480	1.7882	26.54	0.58	1.500			
0.5816	37222.62	3.7450	3.7450	1.8247	26.52	0.56	1.500			
0.5871	37574.54	3.7420	3.7420	1.8672	26.51	0.55	1.500			
0.5927	37935.80	3.7390	3.7390	1.9051	26.49	0.53	1.500			
0.5986	38311.34	3.7360	3.7360	1.9262	26.48	0.52	1.500			
0.6045	38685.38	3.7330	3.7330	1.9632	26.46	0.50	1.500			
0.6103	39060.90	3.7300	3.7301	2.0097	26.45	0.49	1.500			
0.6164	39449.41	3.7270	3.7270	2.0607	26.43	0.47	1.500			
0.6227	39854.12	3.7240	3.7240	2.1319	26.41	0.45	1.500			
0.6292	40270.75	3.7210	3.7210	2.2267	26.39	0.43	1.500			
0.6359	40700.22	3.7180	3.7180	2.3068	26.37	0.41	1.500			
0.6431	41158.81	3.7150	3.7150	2.3740	26.35	0.39	1.500			
0.6503	41620.91	3.7120	3.7120	2.3793	26.33	0.37	1.500			
0.6574	42073.77	3.7090	3.7090	2.3821	26.32	0.36	1.500			
0.6646	42536.66	3.7060	3.7059	2.4097	26.30	0.34	1.500			
0.6720	43010.02	3.7030	3.7030	2.3537	26.28	0.32	1.500			
0.6792	43467.99	3.7000	3.7000	2.2686	26.26	0.30	1.500			
0.6857	43887.13	3.6970	3.6970	2.1073	26.25	0.29	1.500			
0.6918	44273.55	3.6940	3.6940	1.9405	26.23	0.27	1.500			
0.6973	44628.87	3.6910	3.6910	1.7994	26.22	0.26	1.500			
0.7025	44957.97	3.6880	3.6880	1.6824	26.21	0.25	1.500			
0.7073	45264.01	3.6850	3.6850	1.5739	26.20	0.24	1.500			
0.7118	45554.93	3.6820	3.6820	1.4956	26.19	0.23	1.500			
0.7161	45831.25	3.6790	3.6790	1.4293	26.18	0.22	1.500			
0.7203	46098.18	3.6760	3.6761	1.3781	26.17	0.21	1.500			
0.7243	46355.02	3.6730	3.6729	1.3330	26.16	0.20	1.500			
0.7282	46605.39	3.6700	3.6700	1.3022	26.15	0.19	1.500			
0.7320	46846.94	3.6670	3.6671	1.2821	26.14	0.18	1.500			
0.7358	47090.59	3.6640	3.6640	1.2783	26.13	0.17	1.500			
0.7396	47334.95	3.6610	3.6609	1.2718	26.12	0.16	1.500			
0.7434	47579.88	3.6580	3.6580	1.2764	26.11	0.15	1.500			
0.7473	47824.21	3.6550	3.6550	1.2806	26.10	0.14	1.500			
0.7511	48072.26	3.6520	3.6520	1.2828	26.09	0.13	1.500			
0.7550	48318.13	3.6490	3.6490	1.2787	26.08	0.12	1.500			
0.7588	48563.56	3.6460	3.6460	1.2760	26.07	0.11	1.500			
0.7626	48809.50	3.6430	3.6430	1.2723	26.05	0.09	1.500			
0.7665	49054.52	3.6400	3.6400	1.2677	26.05	0.09	1.500			
0.7703	49296.85	3.6370	3.6370	1.2574	26.04	0.08	1.500			
0.7740	49537.37	3.6340	3.6340	1.2489	26.03	0.07	1.500			
0.7778	49776.48	3.6310	3.6310	1.2430	26.02	0.06	1.500			
0.7815	50014.17	3.6280	3.6280	1.2356	26.02	0.06	1.500			
0.7852	50250.11	3.6250	3.6250	1.2289	26.01	0.05	1.500			
0.7888	50486.21	3.6220	3.6219	1.2191	26.00	0.04	1.500			
0.7925	50721.09	3.6190	3.6191	1.2086	25.99	0.03	1.500			
0.7961	50951.79	3.6160	3.6159	1.1990	25.99	0.03	1.500			
0.7997	51181.35	3.6130	3.6130	1.1838	25.98	0.02	1.500			
0.8032	51407.52	3.6100	3.6100	1.1597	25.97	0.01	1.500			
0.8067	51628.36	3.6070	3.6070	1.1402	25.96	0.00	1.500			
0.8101	51846.88	3.6040	3.6042	1.1174	25.96	-0.00	1.500			
0.8134	52059.87	3.6010	3.6009	1.0927	25.95	-0.01	1.500			
0.8167	52266.71	3.5980	3.5980	1.0701	25.95	-0.01	1.500			
0.8198	52468.67	3.5950	3.5950	1.0446	25.95	-0.01	1.500			
0.8230	52668.99	3.5920	3.5919	1.0212	25.95	-0.01	1.500			
0.8260	52864.53	3.5890	3.5890	0.9892	25.95	-0.01	1.500			
0.8290	53056.01	3.5860	3.5860	0.9339	25.96	-0.00	1.500			
0.8318	53235.02	3.5830	3.5831	0.8635	25.96	-0.00	1.500			
0.8344	53400.15	3.5800	3.5800	0.7806	25.96	-0.00	1.500			
0.8366	53541.83	3.5770	3.5771	0.6786	25.96	-0.00	1.500			
0.8385	53660.80	3.5740	3.5740	0.5803	25.96	-0.00	1.500			
0.8400	53759.10	3.5710	3.5709	0.4875	25.96	0.00	1.500			
0.8412	53838.47	3.5680	3.5681	0.4065	25.96	0.00	1.500			
0.8423	53907.46	3.5650	3.5649	0.3470	25.96	0.00	1.500			
0.8432	53964.39	3.5620	3.5619	0.2976	25.96	0.00	1.500			
0.8440	54014.17	3.5590	3.5588	0.2589	25.96	0.00	1.500			
0.8447	54058.65	3.5560	3.5560	0.2259	25.96	0.00	1.500			
0.8453	54098.03	3.5530	3.5530	0.2026	25.96	0.00	1.500			
0.8458	54133.33	3.5500	3.5500	0.1825	25.96	0.00	1.500			
0.8463	54166.08	3.5470	3.5468	0.1637	25.96	0.00	1.500			
0.8468	54194.73	3.5440	3.5440	0.1471	25.96	0.00	1.500			
0.8472	54221.41	3.5410	3.5411	0.1322	25.96	0.00	1.500			
0.8476	54245.34	3.5380	3.5379	0.1176	25.96	0.00	1.500			
0.8479	54266.63	3.5350	3.5352	0.1034	25.96	0.00	1.500			
0.8482	54285.08	3.5320	3.5320	0.0887	25.96	0.00	1.500			
0.8484	54300.38	3.5290	3.5291	0.0740	25.96	0.00	1.500			
0.8486	54313.31	3.5260	3.5264	0.0597	25.96	0.00	1.500			
0.8488	54323.39	3.5230	3.5237	0.0453	25.96	0.00	1.500			
0.8489	54330.70	3.5200	3.5211	0.0309	25.96	0.00	1.500			
