Ah_balance (normalized)	Ah_balance (mAh)	Voltage - fit (V)	Voltage -  interpolate (V)	dQ/dV (1/V)	Temperature (°C)	Temperature - diff (°C)	Current (C)	R_DC 0ms (mOhm)	R_DC 50ms (mOhm)	R_DC 50 ms PEC (mOhm)
0.2838	18166.36	3.9910	3.9910	0.8166	27.23	1.27	1.500			
0.2863	18323.81	3.9880	3.9880	0.8279	27.23	1.27	1.500			
0.2888	18486.30	3.9850	3.9849	0.8379	27.22	1.26	1.500			
0.2914	18646.52	3.9820	3.9820	0.8470	27.22	1.26	1.500			
0.2939	18811.32	3.9790	3.9790	0.8504	27.21	1.25	1.500			
0.2965	18975.95	3.9760	3.9759	0.8500	27.20	1.24	1.500			
0.2990	19139.18	3.9730	3.9730	0.8484	27.20	1.24	1.500			
0.3016	19302.11	3.9700	3.9700	0.8543	27.19	1.23	1.500			
0.3041	19465.21	3.9670	3.9670	0.8512	27.19	1.23	1.500			
0.3067	19628.58	3.9640	3.9640	0.8589	27.18	1.22	1.500			
0.3092	19791.49	3.9610	3.9610	0.8578	27.18	1.22	1.500			
0.3119	19958.71	3.9580	3.9580	0.8683	27.17	1.21	1.500			
0.3145	20126.35	3.9550	3.9551	0.8749	27.17	1.21	1.500			
0.3171	20294.12	3.9520	3.9520	0.8792	27.16	1.20	1.500			
0.3197	20463.16	3.9490	3.9490	0.8811	27.16	1.20	1.500			
0.3224	20634.24	3.9460	3.9459	0.8896	27.15	1.19	1.500			
0.3251	20804.50	3.9430	3.9430	0.8897	27.14	1.18	1.500			
0.3278	20977.08	3.9400	3.9400	0.8957	27.14	1.18	1.500			
0.3305	21148.97	3.9370	3.9370	0.8983	27.13	1.17	1.500			
0.3331	21321.00	3.9340	3.9340	0.9041	27.12	1.16	1.500			
0.3359	21494.42	3.9310	3.9310	0.9072	27.12	1.16	1.500			
0.3386	21669.31	3.9280	3.9279	0.9135	27.11	1.15	1.500			
0.3413	21844.74	3.9250	3.9250	0.9187	27.10	1.14	1.500			
0.3441	22022.22	3.9220	3.9221	0.9260	27.10	1.14	1.500			
0.3469	22200.36	3.9190	3.9190	0.9349	27.09	1.13	1.500			
0.3497	22380.37	3.9160	3.9160	0.9435	27.08	1.12	1.500			
0.3525	22561.19	3.9130	3.9131	0.9486	27.07	1.11	1.500			
0.3554	22745.35	3.9100	3.9100	0.9542	27.06	1.10	1.500			
0.3583	22929.53	3.9070	3.9071	0.9612	27.06	1.10	1.500			
0.3611	23113.59	3.9040	3.9041	0.9709	27.05	1.09	1.500			
0.3641	23299.98	3.9010	3.9009	0.9775	27.04	1.08	1.500			
0.3670	23488.43	3.8980	3.8980	0.9858	27.03	1.07	1.500			
0.3700	23679.37	3.8950	3.8950	0.9953	27.03	1.07	1.500			
0.3730	23872.27	3.8920	3.8920	1.0049	27.02	1.06	1.500			
0.3760	24065.60	3.8890	3.8890	1.0125	27.01	1.05	1.500			
0.3791	24259.69	3.8860	3.8860	1.0200	27.00	1.04	1.500			
0.3821	24456.17	3.8830	3.8830	1.0286	27.00	1.04	1.500			
0.3852	24654.66	3.8800	3.8800	1.0403	26.99	1.03	1.500			
0.3884	24855.40	3.8770	3.8770	1.0501	26.98	1.02	1.500			
0.3916	25059.35	3.8740	3.8740	1.0608	26.97	1.01	1.500			
0.3947	25263.03	3.8710	3.8710	1.0727	26.96	1.00	1.500			
0.3979	25468.60	3.8680	3.8680	1.0850	26.95	0.99	1.500			
0.4012	25679.58	3.8650	3.8650	1.0927	26.94	0.98	1.500			
0.4045	25889.87	3.8620	3.8620	1.1107	26.93	0.97	1.500			
0.4079	26104.47	3.8590	3.8590	1.1255	26.92	0.96	1.500			
0.4113	26322.14	3.8560	3.8560	1.1418	26.91	0.95	1.500			
0.4147	26542.10	3.8530	3.8531	1.1613	26.90	0.94	1.500			
0.4182	26766.64	3.8500	3.8501	1.1764	26.89	0.93	1.500			
0.4218	26995.41	3.8470	3.8469	1.1917	26.88	0.92	1.500			
0.4254	27226.74	3.8440	3.8440	1.2082	26.87	0.91	1.500			
0.4290	27458.92	3.8410	3.8411	1.2231	26.86	0.90	1.500			
0.4327	27694.71	3.8380	3.8380	1.2461	26.85	0.89	1.500			
0.4365	27936.92	3.8350	3.8349	1.2607	26.85	0.89	1.500			
0.4403	28180.33	3.8320	3.8321	1.2778	26.84	0.88	1.500			
0.4442	28428.60	3.8290	3.8290	1.3006	26.83	0.87	1.500			
0.4481	28678.98	3.8260	3.8260	1.3224	26.81	0.85	1.500			
0.4521	28932.65	3.8230	3.8230	1.3322	26.80	0.84	1.500			
0.4560	29187.15	3.8200	3.8201	1.3604	26.79	0.83	1.500			
0.4602	29450.96	3.8170	3.8171	1.3855	26.78	0.82	1.500			
0.4644	29721.19	3.8140	3.8137	1.4169	26.77	0.81	1.500			
0.4687	29996.26	3.8110	3.8111	1.4407	26.75	0.79	1.500			
0.4731	30277.36	3.8080	3.8081	1.4654	26.74	0.78	1.500			
0.4775	30561.22	3.8050	3.8049	1.4892	26.73	0.77	1.500			
0.4820	30846.04	3.8020	3.8020	1.5094	26.71	0.75	1.500			
0.4865	31137.80	3.7990	3.7990	1.5397	26.70	0.74	1.500			
0.4912	31439.56	3.7960	3.7960	1.5700	26.68	0.72	1.500			
0.4960	31743.97	3.7930	3.7930	1.6019	26.67	0.71	1.500			
0.5009	32055.77	3.7900	3.7899	1.6142	26.66	0.70	1.500			
0.5057	32366.35	3.7870	3.7864	1.6309	26.64	0.68	1.497	0.342	0.485	
0.5106	32681.32	3.7840	3.7841	1.6518	26.63	0.67	1.500			
0.5156	33001.18	3.7810	3.7811	1.6656	26.61	0.65	1.500			
0.5207	33323.38	3.7780	3.7780	1.6603	26.60	0.64	1.500			
0.5257	33643.57	3.7750	3.7751	1.6721	26.58	0.62	1.500			
0.5307	33966.16	3.7720	3.7720	1.6712	26.57	0.61	1.500			
0.5357	34285.01	3.7690	3.7689	1.6672	26.55	0.59	1.500			
0.5406	34600.06	3.7660	3.7661	1.6738	26.54	0.58	1.500			
0.5456	34920.40	3.7630	3.7630	1.6951	26.52	0.56	1.500			
0.5508	35251.58	3.7600	3.7600	1.7182	26.51	0.55	1.500			
0.5560	35584.90	3.7570	3.7570	1.7374	26.49	0.53	1.500			
0.5612	35918.89	3.7540	3.7541	1.7442	26.48	0.52	1.500			
0.5665	36252.91	3.7510	3.7510	1.7655	26.46	0.50	1.500			
0.5717	36591.15	3.7480	3.7480	1.7816	26.45	0.49	1.500			
0.5771	36935.85	3.7450	3.7450	1.8134	26.44	0.48	1.500			
0.5826	37284.20	3.7420	3.7421	1.8515	26.43	0.47	1.500			
0.5882	37641.75	3.7390	3.7389	1.8964	26.41	0.45	1.500			
0.5939	38010.02	3.7360	3.7360	1.9508	26.40	0.44	1.500			
0.5999	38393.16	3.7330	3.7330	2.0124	26.38	0.42	1.500			
0.6060	38782.38	3.7300	3.7300	2.0705	26.37	0.41	1.500			
0.6123	39186.29	3.7270	3.7269	2.1316	26.35	0.39	1.500			
0.6188	39603.90	3.7240	3.7240	2.2040	26.34	0.38	1.500			
0.6256	40035.48	3.7210	3.7210	2.2452	26.33	0.37	1.500			
0.6323	40467.58	3.7180	3.7180	2.2702	26.31	0.35	1.500			
0.6392	40911.64	3.7150	3.7149	2.2986	26.30	0.34	1.500			
0.6462	41357.68	3.7120	3.7121	2.2976	26.28	0.32	1.500			
0.6532	41805.19	3.7090	3.7090	2.2635	26.26	0.30	1.500			
0.6599	42235.25	3.7060	3.7059	2.1405	26.24	0.28	1.500			
0.6662	42634.00	3.7030	3.7031	2.0087	26.23	0.27	1.500			
0.6720	43005.86	3.7000	3.7000	1.8719	26.21	0.25	1.500			
0.6773	43347.74	3.6970	3.6969	1.7271	26.20	0.24	1.500			
0.6821	43656.99	3.6940	3.6941	1.6236	26.19	0.23	1.500			
0.6869	43960.83	3.6910	3.6909	1.5472	26.18	0.22	1.500			
0.6914	44247.04	3.6880	3.6880	1.4750	26.17	0.21	1.500			
0.6956	44520.83	3.6850	3.6851	1.4210	26.16	0.20	1.500			
0.6998	44789.90	3.6820	3.6820	1.3741	26.15	0.19	1.500			
0.7038	45046.36	3.6790	3.6790	1.3372	26.14	0.18	1.500			
0.7078	45297.64	3.6760	3.6760	1.3069	26.13	0.17	1.500			
0.7116	45544.29	3.6730	3.6730	1.2839	26.13	0.17	1.500			
0.7154	45787.72	3.6700	3.6700	1.2711	26.12	0.16	1.500			
0.7192	46027.96	3.6670	3.6671	1.2634	26.10	0.14	1.500			
0.7230	46268.93	3.6640	3.6639	1.2570	26.09	0.13	1.500			
0.7268	46512.09	3.6610	3.6610	1.2607	26.08	0.12	1.500			
0.7305	46751.59	3.6580	3.6581	1.2573	26.07	0.11	1.500			
0.7343	46994.81	3.6550	3.6550	1.2602	26.05	0.09	1.500			
0.7381	47238.71	3.6520	3.6519	1.2541	26.04	0.08	1.500			
0.7419	47478.51	3.6490	3.6490	1.2434	26.03	0.07	1.500			
0.7456	47717.75	3.6460	3.6461	1.2294	26.02	0.06	1.500			
0.7493	47954.61	3.6430	3.6430	1.2170	26.02	0.06	1.500			
0.7529	48184.09	3.6400	3.6400	1.1991	26.01	0.05	1.500			
0.7564	48412.20	3.6370	3.6370	1.1861	26.00	0.04	1.500			
0.7600	48637.25	3.6340	3.6340	1.1772	25.99	0.03	1.500			
0.7635	48862.96	3.6310	3.6309	1.1687	25.98	0.02	1.500			
0.7670	49086.68	3.6280	3.6280	1.1608	25.98	0.02	1.500			
0.7705	49310.03	3.6250	3.6250	1.1516	25.97	0.01	1.500			
0.7739	49532.17	3.6220	3.6220	1.1355	25.97	0.01	1.500			
0.7773	49748.37	3.6190	3.6190	1.1122	25.96	0.00	1.500			
0.7807	49962.25	3.6160	3.6161	1.0938	25.96	-0.00	1.500			
0.7839	50169.33	3.6130	3.6130	1.0704	25.96	-0.00	1.500			
0.7871	50373.42	3.6100	3.6100	1.0466	25.95	-0.01	1.500			
0.7902	50571.14	3.6070	3.6070	1.0207	25.95	-0.01	1.500			
0.7932	50765.94	3.6040	3.6040	0.9921	25.95	-0.01	1.500			
0.7962	50954.62	3.6010	3.6010	0.9608	25.95	-0.01	1.500			
0.7990	51137.87	3.5980	3.5980	0.9243	25.95	-0.01	1.500			
0.8018	51312.47	3.5950	3.5950	0.8780	25.96	-0.00	1.500			
0.8044	51479.53	3.5920	3.5920	0.8202	25.96	-0.00	1.500			
0.8068	51633.96	3.5890	3.5891	0.7533	25.96	-0.00	1.500			
0.8090	51775.68	3.5860	3.5860	0.6742	25.96	-0.00	1.500			
0.8109	51898.33	3.5830	3.5830	0.5918	25.96	-0.00	1.500			
0.8125	52002.57	3.5800	3.5801	0.5077	25.96	-0.00	1.500			
0.8139	52089.52	3.5770	3.5768	0.4327	25.96	0.00	1.500			
0.8150	52161.49	3.5740	3.5740	0.3684	25.96	0.00	1.500			
0.8160	52223.58	3.5710	3.5708	0.3185	25.96	0.00	1.500			
0.8168	52275.94	3.5680	3.5680	0.2753	25.96	0.00	1.500			
0.8175	52322.86	3.5650	3.5651	0.2382	25.96	0.00	1.500			
0.8182	52364.61	3.5620	3.5619	0.2128	25.96	0.00	1.500			
0.8188	52401.58	3.5590	3.5591	0.1895	25.96	0.00	1.500			
0.8193	52435.60	3.5560	3.5560	0.1693	25.96	0.00	1.500			
0.8198	52466.03	3.5530	3.5530	0.1534	25.96	0.00	1.500			
0.8202	52493.60	3.5500	3.5499	0.1367	25.96	0.00	1.500			
0.8206	52517.79	3.5470	3.5471	0.1205	25.96	0.00	1.500			
0.8209	52539.49	3.5440	3.5439	0.1057	25.96	0.00	1.500			
0.8212	52558.37	3.5410	3.5411	0.0910	25.96	0.00	1.500			
0.8215	52574.61	3.5380	3.5381	0.0763	25.96	0.00	1.500			
0.8217	52588.25	3.5350	3.5352	0.0611	25.96	0.00	1.500			
0.8219	52598.45	3.5320	3.5325	0.0452	25.96	0.00	1.500			
0.8220	52605.61	3.5290	3.5299	0.0293	25.96	0.00	1.500			
