Ah_balance (normalized)	Ah_balance (mAh)	Voltage - fit (V)	Voltage -  interpolate (V)	dQ/dV (1/V)	Temperature (°C)	Temperature - diff (°C)	Current (C)	R_DC 0ms (mOhm)	R_DC 50ms (mOhm)	R_DC 50 ms PEC (mOhm)
0.2865	18337.84	3.9880	3.9881	0.8359	27.29	1.34	1.500			
0.2890	18498.75	3.9850	3.9850	0.8399	27.28	1.33	1.500			
0.2916	18660.07	3.9820	3.9820	0.8460	27.27	1.32	1.500			
0.2941	18823.81	3.9790	3.9789	0.8492	27.27	1.32	1.500			
0.2967	18987.27	3.9760	3.9760	0.8481	27.26	1.31	1.500			
0.2992	19150.44	3.9730	3.9731	0.8501	27.26	1.31	1.500			
0.3018	19313.51	3.9700	3.9700	0.8574	27.25	1.30	1.500			
0.3044	19478.64	3.9670	3.9668	0.8627	27.24	1.29	1.500			
0.3069	19643.34	3.9640	3.9640	0.8628	27.24	1.29	1.500			
0.3095	19809.62	3.9610	3.9611	0.8638	27.23	1.28	1.500			
0.3122	19977.89	3.9580	3.9580	0.8724	27.23	1.28	1.500			
0.3148	20145.51	3.9550	3.9549	0.8751	27.22	1.27	1.500			
0.3174	20311.68	3.9520	3.9520	0.8749	27.21	1.26	1.500			
0.3200	20479.20	3.9490	3.9490	0.8790	27.21	1.26	1.500			
0.3227	20649.62	3.9460	3.9461	0.8843	27.20	1.25	1.500			
0.3253	20820.19	3.9430	3.9430	0.8918	27.19	1.24	1.500			
0.3280	20992.21	3.9400	3.9400	0.8938	27.19	1.24	1.500			
0.3307	21162.79	3.9370	3.9369	0.8974	27.18	1.23	1.500			
0.3334	21335.32	3.9340	3.9341	0.9028	27.17	1.22	1.500			
0.3361	21509.44	3.9310	3.9309	0.9103	27.17	1.22	1.500			
0.3388	21685.43	3.9280	3.9280	0.9158	27.16	1.21	1.500			
0.3416	21862.48	3.9250	3.9250	0.9190	27.15	1.20	1.500			
0.3444	22038.91	3.9220	3.9220	0.9223	27.15	1.20	1.500			
0.3471	22217.17	3.9190	3.9191	0.9279	27.14	1.19	1.500			
0.3499	22394.10	3.9160	3.9159	0.9309	27.13	1.18	1.500			
0.3527	22573.66	3.9130	3.9130	0.9347	27.13	1.18	1.500			
0.3555	22751.98	3.9100	3.9100	0.9441	27.12	1.17	1.500			
0.3584	22935.20	3.9070	3.9070	0.9500	27.11	1.16	1.500			
0.3612	23118.49	3.9040	3.9040	0.9629	27.11	1.16	1.500			
0.3641	23304.31	3.9010	3.9010	0.9702	27.10	1.15	1.500			
0.3671	23491.87	3.8980	3.8980	0.9765	27.09	1.14	1.500			
0.3700	23679.48	3.8950	3.8951	0.9881	27.09	1.14	1.500			
0.3730	23870.08	3.8920	3.8921	1.0004	27.08	1.13	1.500			
0.3760	24061.87	3.8890	3.8889	1.0074	27.07	1.12	1.500			
0.3790	24257.42	3.8860	3.8860	1.0166	27.06	1.11	1.500			
0.3821	24454.47	3.8830	3.8831	1.0216	27.05	1.10	1.500			
0.3852	24652.84	3.8800	3.8799	1.0338	27.04	1.09	1.500			
0.3883	24849.97	3.8770	3.8771	1.0442	27.03	1.08	1.500			
0.3914	25050.27	3.8740	3.8740	1.0531	27.03	1.08	1.500			
0.3946	25252.30	3.8710	3.8710	1.0647	27.02	1.07	1.500			
0.3978	25459.12	3.8680	3.8680	1.0782	27.01	1.06	1.500			
0.4011	25667.48	3.8650	3.8651	1.0935	27.00	1.05	1.500			
0.4044	25879.13	3.8620	3.8620	1.1080	26.99	1.04	1.500			
0.4077	26092.17	3.8590	3.8590	1.1163	26.97	1.02	1.500			
0.4111	26307.36	3.8560	3.8560	1.1300	26.96	1.01	1.500			
0.4145	26524.95	3.8530	3.8530	1.1472	26.95	1.00	1.500			
0.4179	26745.74	3.8500	3.8498	1.1673	26.94	0.99	1.500			
0.4214	26971.40	3.8470	3.8471	1.1890	26.93	0.98	1.500			
0.4250	27202.04	3.8440	3.8440	1.2062	26.92	0.97	1.500			
0.4287	27437.76	3.8410	3.8410	1.2268	26.91	0.96	1.500			
0.4324	27674.80	3.8380	3.8381	1.2498	26.90	0.95	1.500			
0.4362	27915.25	3.8350	3.8350	1.2669	26.88	0.93	1.500			
0.4400	28159.96	3.8320	3.8320	1.2870	26.87	0.92	1.500			
0.4439	28407.51	3.8290	3.8290	1.3048	26.86	0.91	1.500			
0.4478	28661.03	3.8260	3.8261	1.3272	26.85	0.90	1.500			
0.4519	28919.66	3.8230	3.8230	1.3540	26.83	0.88	1.500			
0.4559	29180.22	3.8200	3.8200	1.3716	26.82	0.87	1.500			
0.4600	29442.53	3.8170	3.8170	1.3999	26.81	0.86	1.500			
0.4643	29713.11	3.8140	3.8140	1.4278	26.79	0.84	1.500			
0.4686	29989.68	3.8110	3.8108	1.4601	26.78	0.83	1.500			
0.4730	30274.36	3.8080	3.8080	1.4830	26.77	0.82	1.500			
0.4776	30563.55	3.8050	3.8050	1.5111	26.75	0.80	1.500			
0.4821	30856.47	3.8020	3.8021	1.5295	26.74	0.79	1.500			
0.4867	31149.47	3.7990	3.7989	1.5530	26.72	0.77	1.500			
0.4914	31448.40	3.7960	3.7960	1.5827	26.71	0.76	1.500			
0.4962	31757.98	3.7930	3.7930	1.6024	26.69	0.74	1.500			
0.5010	32066.16	3.7900	3.7901	1.6503	26.68	0.73	1.500			
0.5061	32387.90	3.7870	3.7870	1.6750	26.66	0.71	1.500			
0.5111	32713.54	3.7840	3.7839	1.6992	26.64	0.69	1.500			
0.5163	33042.94	3.7810	3.7808	1.7167	26.63	0.68	1.498	0.350	0.477	
0.5215	33376.43	3.7780	3.7781	1.7320	26.61	0.66	1.500			
0.5268	33712.14	3.7750	3.7750	1.7350	26.60	0.65	1.500			
0.5319	34044.18	3.7720	3.7720	1.7379	26.58	0.63	1.500			
0.5371	34375.61	3.7690	3.7690	1.7366	26.57	0.62	1.500			
0.5423	34709.57	3.7660	3.7659	1.7386	26.55	0.60	1.500			
0.5475	35041.99	3.7630	3.7630	1.7391	26.54	0.59	1.500			
0.5528	35377.20	3.7600	3.7600	1.7553	26.52	0.57	1.500			
0.5580	35710.47	3.7570	3.7570	1.7568	26.51	0.56	1.500			
0.5633	36049.26	3.7540	3.7541	1.7688	26.49	0.54	1.500			
0.5686	36389.12	3.7510	3.7507	1.7794	26.48	0.53	1.500			
0.5740	36732.89	3.7480	3.7481	1.7916	26.47	0.52	1.500			
0.5794	37078.50	3.7450	3.7450	1.8023	26.45	0.50	1.500			
0.5848	37424.16	3.7420	3.7420	1.8366	26.44	0.49	1.500			
0.5903	37781.29	3.7390	3.7389	1.8898	26.43	0.48	1.500			
0.5961	38151.12	3.7360	3.7361	1.9502	26.41	0.46	1.500			
0.6021	38533.29	3.7330	3.7329	1.9867	26.39	0.44	1.500			
0.6081	38920.00	3.7300	3.7300	2.0221	26.37	0.42	1.500			
0.6142	39306.22	3.7270	3.7270	2.0724	26.35	0.40	1.500			
0.6204	39707.08	3.7240	3.7240	2.1659	26.34	0.39	1.500			
0.6271	40135.43	3.7210	3.7210	2.2033	26.32	0.37	1.500			
0.6339	40570.83	3.7180	3.7181	2.2839	26.30	0.35	1.500			
0.6408	41012.34	3.7150	3.7149	2.3252	26.29	0.34	1.500			
0.6478	41459.50	3.7120	3.7121	2.3469	26.27	0.32	1.500			
0.6551	41924.23	3.7090	3.7090	2.3904	26.25	0.30	1.500			
0.6623	42388.47	3.7060	3.7060	2.3440	26.23	0.28	1.500			
0.6693	42835.31	3.7030	3.7030	2.2647	26.22	0.27	1.500			
0.6760	43262.03	3.7000	3.7000	2.1397	26.20	0.25	1.500			
0.6823	43665.50	3.6970	3.6970	1.9896	26.19	0.24	1.500			
0.6879	44028.64	3.6940	3.6940	1.8259	26.17	0.22	1.500			
0.6931	44356.27	3.6910	3.6910	1.6983	26.16	0.21	1.500			
0.6979	44666.29	3.6880	3.6879	1.5913	26.15	0.20	1.500			
0.7025	44961.41	3.6850	3.6850	1.5088	26.14	0.19	1.500			
0.7069	45242.98	3.6820	3.6821	1.4440	26.13	0.18	1.500			
0.7111	45512.33	3.6790	3.6790	1.3942	26.12	0.17	1.500			
0.7152	45774.00	3.6760	3.6759	1.3455	26.11	0.16	1.500			
0.7191	46021.71	3.6730	3.6730	1.3046	26.10	0.15	1.500			
0.7229	46267.87	3.6700	3.6701	1.2849	26.09	0.14	1.500			
0.7267	46509.57	3.6670	3.6670	1.2760	26.08	0.13	1.500			
0.7305	46753.23	3.6640	3.6640	1.2715	26.08	0.13	1.500			
0.7343	46994.64	3.6610	3.6610	1.2736	26.07	0.12	1.500			
0.7381	47239.54	3.6580	3.6580	1.2763	26.06	0.11	1.500			
0.7420	47488.11	3.6550	3.6550	1.2773	26.05	0.10	1.500			
0.7458	47733.19	3.6520	3.6521	1.2761	26.04	0.09	1.500			
0.7497	47979.39	3.6490	3.6490	1.2673	26.03	0.08	1.500			
0.7535	48222.50	3.6460	3.6459	1.2570	26.02	0.07	1.500			
0.7572	48461.86	3.6430	3.6430	1.2492	26.01	0.06	1.500			
0.7609	48699.17	3.6400	3.6400	1.2410	26.00	0.05	1.500			
0.7646	48937.05	3.6370	3.6370	1.2361	25.99	0.04	1.500			
0.7683	49173.78	3.6340	3.6338	1.2299	25.98	0.03	1.500			
0.7720	49408.61	3.6310	3.6311	1.2215	25.98	0.03	1.500			
0.7757	49644.32	3.6280	3.6280	1.2148	25.97	0.02	1.500			
0.7793	49878.10	3.6250	3.6250	1.2079	25.97	0.02	1.500			
0.7829	50107.33	3.6220	3.6220	1.1899	25.96	0.01	1.500			
0.7865	50335.29	3.6190	3.6190	1.1812	25.96	0.01	1.500			
0.7900	50562.13	3.6160	3.6160	1.1682	25.95	0.00	1.500			
0.7935	50786.22	3.6130	3.6129	1.1470	25.95	0.00	1.500			
0.7970	51006.26	3.6100	3.6101	1.1281	25.95	0.00	1.500			
0.8003	51221.35	3.6070	3.6070	1.1015	25.95	0.00	1.500			
0.8036	51430.57	3.6040	3.6040	1.0747	25.95	0.00	1.500			
0.8068	51632.63	3.6010	3.6010	1.0478	25.95	0.00	1.500			
0.8099	51831.11	3.5980	3.5980	1.0243	25.95	0.00	1.500			
0.8129	52026.91	3.5950	3.5949	0.9996	25.95	0.00	1.500			
0.8159	52219.75	3.5920	3.5919	0.9623	25.95	0.00	1.500			
0.8188	52404.80	3.5890	3.5890	0.9189	25.95	0.00	1.500			
0.8216	52582.12	3.5860	3.5861	0.8495	25.95	0.00	1.500			
0.8241	52744.45	3.5830	3.5830	0.7742	25.95	0.00	1.500			
0.8263	52885.98	3.5800	3.5800	0.6791	25.95	0.00	1.500			
0.8282	53006.67	3.5770	3.5770	0.5868	25.95	0.00	1.500			
0.8298	53105.92	3.5740	3.5740	0.4945	25.95	0.00	1.500			
0.8311	53189.16	3.5710	3.5709	0.4186	25.95	0.00	1.500			
0.8322	53258.40	3.5680	3.5681	0.3525	25.95	0.00	1.500			
0.8331	53318.69	3.5650	3.5650	0.3064	25.95	0.00	1.500			
0.8339	53369.06	3.5620	3.5618	0.2643	25.95	0.00	1.500			
0.8346	53415.48	3.5590	3.5589	0.2316	25.95	0.00	1.500			
0.8352	53455.80	3.5560	3.5560	0.2073	25.95	0.00	1.500			
0.8358	53492.37	3.5530	3.5529	0.1875	25.95	0.00	1.500			
0.8363	53525.61	3.5500	3.5500	0.1676	25.95	0.00	1.500			
0.8368	53555.09	3.5470	3.5469	0.1511	25.95	0.00	1.500			
0.8372	53582.54	3.5440	3.5440	0.1356	25.95	0.00	1.500			
0.8376	53606.90	3.5410	3.5411	0.1203	25.95	0.00	1.500			
0.8379	53628.60	3.5380	3.5379	0.1055	25.95	0.00	1.500			
0.8382	53647.43	3.5350	3.5350	0.0906	25.95	0.00	1.500			
0.8385	53663.45	3.5320	3.5321	0.0758	25.95	0.00	1.500			
0.8387	53676.60	3.5290	3.5292	0.0608	25.95	0.00	1.500			
0.8389	53686.84	3.5260	3.5265	0.0458	25.95	0.00	1.500			
0.8390	53694.20	3.5230	3.5241	0.0308	25.95	0.00	1.500			
