Ah_balance (normalized)	Ah_balance (mAh)	Voltage - fit (V)	Voltage -  interpolate (V)	dQ/dV (1/V)	Temperature (°C)	Temperature - diff (°C)	Current (C)	R_DC 0ms (mOhm)	R_DC 50ms (mOhm)	R_DC 50 ms PEC (mOhm)
0.2696	17256.63	3.9870	3.9870	0.8309	27.24	1.30	1.500			
0.2722	17419.12	3.9840	3.9839	0.8496	27.23	1.29	1.500			
0.2748	17584.59	3.9810	3.9811	0.8554	27.23	1.29	1.500			
0.2773	17748.03	3.9780	3.9781	0.8590	27.22	1.28	1.500			
0.2799	17914.54	3.9750	3.9750	0.8631	27.21	1.27	1.500			
0.2825	18079.34	3.9720	3.9720	0.8623	27.21	1.27	1.500			
0.2851	18244.51	3.9690	3.9689	0.8668	27.20	1.26	1.500			
0.2877	18414.15	3.9660	3.9661	0.8690	27.19	1.25	1.500			
0.2903	18580.81	3.9630	3.9630	0.8717	27.19	1.25	1.500			
0.2929	18748.53	3.9600	3.9601	0.8818	27.18	1.24	1.500			
0.2956	18917.03	3.9570	3.9570	0.8840	27.18	1.24	1.500			
0.2982	19086.72	3.9540	3.9538	0.8892	27.17	1.23	1.500			
0.3009	19258.46	3.9510	3.9511	0.8912	27.16	1.22	1.500			
0.3036	19431.02	3.9480	3.9480	0.8933	27.15	1.21	1.500			
0.3063	19603.07	3.9450	3.9450	0.8977	27.14	1.20	1.500			
0.3089	19772.76	3.9420	3.9420	0.9004	27.13	1.19	1.500			
0.3116	19945.40	3.9390	3.9389	0.9076	27.13	1.19	1.500			
0.3144	20122.00	3.9360	3.9360	0.9099	27.12	1.18	1.500			
0.3171	20297.51	3.9330	3.9329	0.9144	27.11	1.17	1.500			
0.3199	20475.17	3.9300	3.9301	0.9200	27.10	1.16	1.500			
0.3227	20651.42	3.9270	3.9271	0.9218	27.09	1.15	1.500			
0.3254	20826.26	3.9240	3.9239	0.9246	27.08	1.14	1.500			
0.3282	21004.13	3.9210	3.9210	0.9310	27.08	1.14	1.500			
0.3310	21182.87	3.9180	3.9180	0.9381	27.07	1.13	1.500			
0.3338	21365.27	3.9150	3.9150	0.9441	27.06	1.12	1.500			
0.3367	21548.14	3.9120	3.9120	0.9493	27.05	1.11	1.500			
0.3395	21730.58	3.9090	3.9090	0.9561	27.04	1.10	1.500			
0.3424	21912.82	3.9060	3.9060	0.9618	27.04	1.10	1.500			
0.3453	22098.51	3.9030	3.9030	0.9691	27.03	1.09	1.500			
0.3482	22284.91	3.9000	3.9000	0.9779	27.02	1.08	1.500			
0.3511	22473.36	3.8970	3.8970	0.9854	27.01	1.07	1.500			
0.3541	22664.95	3.8940	3.8940	0.9958	27.00	1.06	1.500			
0.3571	22855.81	3.8910	3.8910	1.0029	26.99	1.05	1.500			
0.3601	23048.39	3.8880	3.8879	1.0112	26.98	1.04	1.500			
0.3632	23243.54	3.8850	3.8850	1.0174	26.97	1.03	1.500			
0.3663	23440.28	3.8820	3.8820	1.0269	26.96	1.02	1.500			
0.3693	23637.80	3.8790	3.8790	1.0384	26.95	1.01	1.500			
0.3725	23838.62	3.8760	3.8759	1.0495	26.94	1.00	1.500			
0.3756	24039.92	3.8730	3.8729	1.0601	26.93	0.99	1.500			
0.3788	24244.67	3.8700	3.8700	1.0708	26.92	0.98	1.500			
0.3820	24451.03	3.8670	3.8670	1.0882	26.91	0.97	1.500			
0.3854	24662.72	3.8640	3.8640	1.0991	26.90	0.96	1.500			
0.3887	24876.18	3.8610	3.8610	1.1103	26.89	0.95	1.500			
0.3920	25088.20	3.8580	3.8580	1.1241	26.88	0.94	1.500			
0.3954	25305.85	3.8550	3.8551	1.1402	26.87	0.93	1.500			
0.3988	25525.90	3.8520	3.8520	1.1526	26.86	0.92	1.500			
0.4023	25747.73	3.8490	3.8490	1.1719	26.85	0.91	1.500			
0.4058	25972.39	3.8460	3.8461	1.1878	26.83	0.89	1.500			
0.4094	26204.74	3.8430	3.8429	1.2073	26.82	0.88	1.500			
0.4131	26438.61	3.8400	3.8400	1.2313	26.81	0.87	1.500			
0.4168	26676.54	3.8370	3.8370	1.2457	26.80	0.86	1.500			
0.4206	26918.83	3.8340	3.8340	1.2659	26.79	0.85	1.500			
0.4244	27162.49	3.8310	3.8310	1.2907	26.78	0.84	1.500			
0.4283	27409.44	3.8280	3.8280	1.3099	26.76	0.82	1.500			
0.4323	27666.55	3.8250	3.8249	1.3315	26.75	0.81	1.500			
0.4363	27924.06	3.8220	3.8220	1.3584	26.74	0.80	1.500			
0.4404	28185.10	3.8190	3.8191	1.3821	26.72	0.78	1.500			
0.4446	28454.74	3.8160	3.8161	1.4079	26.71	0.77	1.500			
0.4489	28727.05	3.8130	3.8130	1.4297	26.70	0.76	1.500			
0.4532	29001.61	3.8100	3.8101	1.4614	26.68	0.74	1.500			
0.4576	29285.74	3.8070	3.8070	1.4842	26.67	0.73	1.500			
0.4621	29573.19	3.8040	3.8040	1.5225	26.65	0.71	1.500			
0.4667	29866.69	3.8010	3.8011	1.5524	26.64	0.70	1.500			
0.4714	30169.62	3.7980	3.7979	1.5885	26.62	0.68	1.500			
0.4762	30479.19	3.7950	3.7950	1.6208	26.61	0.67	1.500			
0.4812	30793.67	3.7920	3.7920	1.6498	26.59	0.65	1.500			
0.4862	31116.58	3.7890	3.7890	1.6787	26.58	0.64	1.500			
0.4912	31437.45	3.7860	3.7860	1.6978	26.56	0.62	1.500			
0.4963	31764.88	3.7830	3.7830	1.7308	26.55	0.61	1.500			
0.5016	32101.94	3.7800	3.7799	1.7558	26.53	0.59	1.500			
0.5069	32443.81	3.7770	3.7770	1.7670	26.51	0.57	1.500			
0.5122	32782.35	3.7740	3.7740	1.7997	26.49	0.55	1.500	0.348	0.462	
0.5177	33130.42	3.7710	3.7710	1.8234	26.48	0.54	1.500			
0.5231	33480.37	3.7680	3.7678	1.8220	26.46	0.52	1.500			
0.5287	33837.36	3.7650	3.7651	1.8297	26.44	0.50	1.500			
0.5341	34183.49	3.7620	3.7620	1.8095	26.42	0.48	1.500			
0.5395	34528.24	3.7590	3.7590	1.8044	26.41	0.47	1.500			
0.5448	34867.73	3.7560	3.7560	1.7940	26.39	0.45	1.500			
0.5502	35212.92	3.7530	3.7530	1.8050	26.37	0.43	1.500			
0.5556	35560.99	3.7500	3.7500	1.8258	26.36	0.42	1.500			
0.5611	35912.98	3.7470	3.7470	1.8375	26.35	0.41	1.500			
0.5666	36263.86	3.7440	3.7440	1.8537	26.33	0.39	1.500			
0.5722	36623.17	3.7410	3.7410	1.8898	26.32	0.38	1.500			
0.5779	36986.58	3.7380	3.7380	1.9267	26.31	0.37	1.500			
0.5838	37360.83	3.7350	3.7350	1.9613	26.29	0.35	1.500			
0.5897	37741.86	3.7320	3.7320	2.0039	26.28	0.34	1.500			
0.5958	38128.32	3.7290	3.7290	2.0480	26.27	0.33	1.500			
0.6020	38526.74	3.7260	3.7260	2.1012	26.25	0.31	1.500			
0.6083	38933.01	3.7230	3.7230	2.1476	26.24	0.30	1.500			
0.6149	39351.59	3.7200	3.7201	2.2170	26.23	0.29	1.500			
0.6216	39780.93	3.7170	3.7169	2.2680	26.22	0.28	1.500			
0.6285	40221.64	3.7140	3.7140	2.3368	26.21	0.27	1.500			
0.6356	40680.34	3.7110	3.7110	2.3988	26.20	0.26	1.500			
0.6430	41149.32	3.7080	3.7080	2.4327	26.19	0.25	1.500			
0.6503	41619.72	3.7050	3.7050	2.4484	26.18	0.24	1.500			
0.6578	42097.04	3.7020	3.7020	2.3967	26.16	0.22	1.500			
0.6649	42552.89	3.6990	3.6990	2.2921	26.15	0.21	1.500			
0.6716	42983.09	3.6960	3.6959	2.1519	26.13	0.19	1.500			
0.6779	43383.31	3.6930	3.6930	2.0009	26.12	0.18	1.500			
0.6835	43746.14	3.6900	3.6900	1.8463	26.12	0.18	1.500			
0.6888	44083.90	3.6870	3.6871	1.7111	26.11	0.17	1.500			
0.6937	44394.59	3.6840	3.6840	1.5981	26.11	0.17	1.500			
0.6983	44689.82	3.6810	3.6810	1.5113	26.10	0.16	1.500			
0.7026	44969.14	3.6780	3.6779	1.4397	26.09	0.15	1.500			
0.7068	45234.96	3.6750	3.6750	1.3783	26.09	0.15	1.500			
0.7108	45491.63	3.6720	3.6720	1.3349	26.08	0.14	1.500			
0.7147	45740.04	3.6690	3.6690	1.3008	26.07	0.13	1.500			
0.7185	45985.77	3.6660	3.6660	1.2782	26.07	0.13	1.500			
0.7223	46227.52	3.6630	3.6630	1.2647	26.06	0.12	1.500			
0.7260	46465.73	3.6600	3.6600	1.2629	26.05	0.11	1.500			
0.7298	46708.01	3.6570	3.6570	1.2680	26.05	0.11	1.500			
0.7336	46952.07	3.6540	3.6539	1.2701	26.04	0.10	1.500			
0.7374	47196.46	3.6510	3.6510	1.2770	26.04	0.10	1.500			
0.7413	47441.88	3.6480	3.6481	1.2849	26.03	0.09	1.500			
0.7452	47691.34	3.6450	3.6450	1.2887	26.02	0.08	1.500			
0.7490	47939.13	3.6420	3.6419	1.2884	26.02	0.08	1.500			
0.7529	48186.24	3.6390	3.6391	1.2882	26.01	0.07	1.500			
0.7568	48434.44	3.6360	3.6360	1.2883	26.00	0.06	1.500			
0.7607	48682.36	3.6330	3.6330	1.2838	25.99	0.05	1.500			
0.7645	48928.46	3.6300	3.6300	1.2802	25.99	0.05	1.500			
0.7683	49173.67	3.6270	3.6270	1.2703	25.98	0.04	1.500			
0.7721	49417.16	3.6240	3.6239	1.2687	25.97	0.03	1.500			
0.7759	49659.73	3.6210	3.6210	1.2638	25.97	0.03	1.500			
0.7797	49901.93	3.6180	3.6180	1.2582	25.96	0.02	1.500			
0.7835	50144.96	3.6150	3.6149	1.2511	25.96	0.02	1.500			
0.7873	50385.35	3.6120	3.6120	1.2405	25.95	0.01	1.500			
0.7910	50622.53	3.6090	3.6090	1.2284	25.95	0.01	1.500			
0.7947	50858.63	3.6060	3.6060	1.2146	25.94	0.00	1.500			
0.7982	51087.75	3.6030	3.6030	1.1975	25.94	0.00	1.500			
0.8018	51316.62	3.6000	3.6000	1.1851	25.94	0.00	1.500			
0.8054	51543.24	3.5970	3.5970	1.1684	25.94	0.00	1.500			
0.8089	51766.81	3.5940	3.5940	1.1510	25.94	0.00	1.500			
0.8123	51988.58	3.5910	3.5911	1.1297	25.94	0.00	1.500			
0.8157	52204.66	3.5880	3.5880	1.0985	25.94	0.00	1.500			
0.8190	52418.56	3.5850	3.5850	1.0507	25.94	0.00	1.500			
0.8222	52617.80	3.5820	3.5820	0.9861	25.94	0.00	1.500			
0.8251	52807.94	3.5790	3.5790	0.9030	25.94	0.00	1.500			
0.8277	52975.26	3.5760	3.5760	0.8026	25.94	0.00	1.500			
0.8300	53120.77	3.5730	3.5731	0.6942	25.94	0.00	1.500			
0.8319	53241.26	3.5700	3.5700	0.5838	25.94	0.00	1.500			
0.8334	53338.73	3.5670	3.5670	0.4847	25.94	0.00	1.500			
0.8347	53419.39	3.5640	3.5638	0.4069	25.94	0.00	1.500			
0.8357	53483.63	3.5610	3.5609	0.3393	25.94	0.00	1.500			
0.8366	53540.93	3.5580	3.5579	0.2957	25.94	0.00	1.500			
0.8373	53589.20	3.5550	3.5549	0.2586	25.94	0.00	1.500			
0.8380	53634.89	3.5520	3.5519	0.2338	25.94	0.00	1.500			
0.8387	53675.71	3.5490	3.5490	0.2087	25.94	0.00	1.500			
0.8393	53713.20	3.5460	3.5459	0.1914	25.94	0.00	1.500			
0.8398	53747.52	3.5430	3.5431	0.1745	25.94	0.00	1.500			
0.8403	53779.76	3.5400	3.5400	0.1607	25.94	0.00	1.500			
0.8408	53809.16	3.5370	3.5369	0.1470	25.94	0.00	1.500			
0.8412	53835.97	3.5340	3.5341	0.1331	25.94	0.00	1.500			
0.8416	53860.12	3.5310	3.5310	0.1190	25.94	0.00	1.500			
0.8419	53881.83	3.5280	3.5280	0.1059	25.94	0.00	1.500			
0.8422	53900.83	3.5250	3.5250	0.0921	25.94	0.00	1.500			
0.8425	53917.05	3.5220	3.5221	0.0782	25.94	0.00	1.500			
0.8427	53931.06	3.5190	3.5193	0.0644	25.94	0.00	1.500			
0.8428	53942.05	3.5160	3.5166	0.0501	25.94	0.00	1.500			
0.8430	53950.30	3.5130	3.5140	0.0358	25.94	0.00	1.500			
