Ah_balance (normalized)	Ah_balance (mAh)	Voltage - fit (V)	Voltage -  interpolate (V)	dQ/dV (1/V)	Temperature (°C)	Temperature - diff (°C)	Current (C)	R_DC 0ms (mOhm)	R_DC 50ms (mOhm)	R_DC 50 ms PEC (mOhm)
0.2941	18824.76	3.9710	3.9709	0.8686	26.86	0.90	1.500			
0.2967	18990.58	3.9680	3.9681	0.8674	26.85	0.89	1.500			
0.2994	19158.77	3.9650	3.9650	0.8776	26.85	0.89	1.500			
0.3020	19327.47	3.9620	3.9621	0.8877	26.85	0.89	1.500			
0.3047	19500.08	3.9590	3.9589	0.8951	26.85	0.89	1.500			
0.3074	19673.33	3.9560	3.9560	0.8996	26.85	0.89	1.500			
0.3101	19846.36	3.9530	3.9530	0.9014	26.84	0.88	1.500			
0.3128	20021.25	3.9500	3.9501	0.9017	26.84	0.88	1.500			
0.3155	20192.88	3.9470	3.9470	0.8993	26.84	0.88	1.500			
0.3182	20363.65	3.9440	3.9440	0.9042	26.84	0.88	1.500			
0.3209	20536.71	3.9410	3.9409	0.9070	26.83	0.87	1.500			
0.3236	20711.83	3.9380	3.9380	0.9169	26.83	0.87	1.500			
0.3264	20888.69	3.9350	3.9350	0.9244	26.83	0.87	1.500			
0.3292	21069.27	3.9320	3.9320	0.9252	26.83	0.87	1.500			
0.3320	21246.83	3.9290	3.9291	0.9352	26.83	0.87	1.500			
0.3348	21425.96	3.9260	3.9260	0.9371	26.82	0.86	1.500			
0.3376	21604.73	3.9230	3.9230	0.9493	26.82	0.86	1.500			
0.3404	21788.79	3.9200	3.9200	0.9537	26.82	0.86	1.500			
0.3433	21971.51	3.9170	3.9170	0.9612	26.81	0.85	1.500			
0.3462	22158.25	3.9140	3.9141	0.9699	26.81	0.85	1.500			
0.3492	22345.74	3.9110	3.9111	0.9765	26.80	0.84	1.500			
0.3521	22532.24	3.9080	3.9080	0.9799	26.80	0.84	1.500			
0.3550	22721.94	3.9050	3.9051	0.9877	26.80	0.84	1.500			
0.3580	22910.27	3.9020	3.9020	0.9980	26.79	0.83	1.500			
0.3610	23104.95	3.8990	3.8990	1.0100	26.79	0.83	1.500			
0.3640	23299.00	3.8960	3.8960	1.0115	26.78	0.82	1.500			
0.3671	23493.61	3.8930	3.8930	1.0266	26.78	0.82	1.500			
0.3702	23691.63	3.8900	3.8900	1.0363	26.77	0.81	1.500			
0.3733	23891.01	3.8870	3.8870	1.0446	26.77	0.81	1.500			
0.3764	24092.60	3.8840	3.8841	1.0565	26.77	0.81	1.500			
0.3796	24295.79	3.8810	3.8810	1.0603	26.76	0.80	1.500			
0.3828	24500.28	3.8780	3.8780	1.0775	26.76	0.80	1.500			
0.3861	24708.38	3.8750	3.8750	1.0876	26.75	0.79	1.500			
0.3893	24915.14	3.8720	3.8718	1.1044	26.75	0.79	1.500			
0.3927	25129.69	3.8690	3.8690	1.1195	26.74	0.78	1.500			
0.3960	25347.14	3.8660	3.8660	1.1335	26.74	0.78	1.500			
0.3995	25567.79	3.8630	3.8630	1.1473	26.73	0.77	1.500			
0.4030	25791.10	3.8600	3.8599	1.1488	26.73	0.77	1.500			
0.4064	26010.44	3.8570	3.8570	1.1672	26.72	0.76	1.500			
0.4099	26234.74	3.8540	3.8541	1.1851	26.72	0.76	1.500			
0.4134	26460.41	3.8510	3.8509	1.2052	26.71	0.75	1.500			
0.4171	26695.13	3.8480	3.8481	1.2330	26.70	0.74	1.500			
0.4209	26935.15	3.8450	3.8450	1.2532	26.70	0.74	1.500			
0.4247	27179.01	3.8420	3.8420	1.2774	26.69	0.73	1.500			
0.4286	27428.02	3.8390	3.8390	1.3015	26.68	0.72	1.500			
0.4325	27679.02	3.8360	3.8360	1.3157	26.67	0.71	1.500			
0.4364	27932.68	3.8330	3.8331	1.3401	26.67	0.71	1.500			
0.4405	28189.69	3.8300	3.8299	1.3614	26.66	0.70	1.500			
0.4446	28453.59	3.8270	3.8271	1.3930	26.65	0.69	1.500			
0.4488	28723.33	3.8240	3.8240	1.4253	26.64	0.68	1.500			
0.4531	28998.65	3.8210	3.8210	1.4537	26.63	0.67	1.500			
0.4575	29282.12	3.8180	3.8180	1.4931	26.62	0.66	1.500			
0.4621	29571.78	3.8150	3.8150	1.5272	26.61	0.65	1.500			
0.4667	29866.34	3.8120	3.8120	1.5645	26.61	0.65	1.500			
0.4714	30170.13	3.8090	3.8089	1.6039	26.60	0.64	1.500			
0.4763	30481.69	3.8060	3.8061	1.6453	26.59	0.63	1.500			
0.4813	30802.03	3.8030	3.8030	1.6910	26.58	0.62	1.500			
0.4864	31131.61	3.8000	3.8000	1.7372	26.57	0.61	1.500			
0.4917	31465.65	3.7970	3.7970	1.7822	26.55	0.59	1.500			
0.4971	31815.15	3.7940	3.7940	1.8333	26.54	0.58	1.500			
0.5027	32170.67	3.7910	3.7910	1.8875	26.53	0.57	1.500			
0.5084	32537.33	3.7880	3.7880	1.9474	26.51	0.55	1.500			
0.5143	32917.63	3.7850	3.7848	2.0012	26.50	0.54	1.500			
0.5205	33308.88	3.7820	3.7820	2.0585	26.48	0.52	1.500			
0.5266	33702.73	3.7790	3.7791	2.0930	26.46	0.50	1.500			
0.5330	34111.26	3.7760	3.7760	2.1495	26.44	0.48	1.500			
0.5394	34524.19	3.7730	3.7727	2.1922	26.42	0.46	1.500			
0.5461	34953.46	3.7700	3.7702	2.2397	26.40	0.44	1.500			
0.5530	35392.34	3.7670	3.7670	2.3094	26.39	0.43	1.500			
0.5601	35844.36	3.7640	3.7640	2.3396	26.37	0.41	1.500			
0.5672	36303.28	3.7610	3.7605	2.3659	26.35	0.39	1.500	0.366	0.458	
0.5744	36759.36	3.7580	3.7580	2.3452	26.34	0.38	1.500			
0.5814	37209.58	3.7550	3.7550	2.3239	26.32	0.36	1.500			
0.5883	37648.02	3.7520	3.7519	2.2644	26.30	0.34	1.500			
0.5950	38079.22	3.7490	3.7490	2.2280	26.29	0.33	1.500			
0.6017	38506.32	3.7460	3.7461	2.1881	26.27	0.31	1.500			
0.6081	38917.68	3.7430	3.7430	2.1502	26.26	0.30	1.500			
0.6144	39321.51	3.7400	3.7399	2.1309	26.24	0.28	1.500			
0.6209	39735.77	3.7370	3.7370	2.1464	26.22	0.26	1.500			
0.6273	40146.09	3.7340	3.7340	2.1459	26.21	0.25	1.500			
0.6337	40556.62	3.7310	3.7310	2.1538	26.19	0.23	1.500			
0.6402	40971.16	3.7280	3.7279	2.1733	26.18	0.22	1.500			
0.6467	41390.21	3.7250	3.7249	2.2018	26.17	0.21	1.500			
0.6533	41814.02	3.7220	3.7220	2.2524	26.16	0.20	1.500			
0.6601	42246.12	3.7190	3.7190	2.3069	26.15	0.19	1.500			
0.6671	42697.33	3.7160	3.7160	2.3813	26.14	0.18	1.500			
0.6744	43160.31	3.7130	3.7129	2.4412	26.12	0.16	1.500			
0.6818	43633.12	3.7100	3.7101	2.5680	26.11	0.15	1.500			
0.6895	44128.98	3.7070	3.7068	2.6842	26.10	0.14	1.500			
0.6978	44658.81	3.7040	3.7042	2.7734	26.09	0.13	1.500			
0.7065	45213.78	3.7010	3.7010	2.8254	26.07	0.11	1.500			
0.7150	45757.03	3.6980	3.6979	2.8388	26.06	0.10	1.500			
0.7236	46313.43	3.6950	3.6950	2.8011	26.05	0.09	1.500			
0.7320	46849.69	3.6920	3.6921	2.7103	26.05	0.09	1.500			
0.7400	47360.34	3.6890	3.6889	2.5365	26.04	0.08	1.500			
0.7474	47834.12	3.6860	3.6860	2.3290	26.03	0.07	1.500			
0.7540	48255.69	3.6830	3.6832	2.1208	26.03	0.07	1.500			
0.7599	48634.24	3.6800	3.6800	1.9266	26.02	0.06	1.500			
0.7653	48981.63	3.6770	3.6770	1.7748	26.02	0.06	1.500			
0.7705	49311.09	3.6740	3.6739	1.6674	26.01	0.05	1.500			
0.7753	49616.38	3.6710	3.6710	1.5585	26.01	0.05	1.500			
0.7797	49902.86	3.6680	3.6680	1.4728	26.00	0.04	1.500			
0.7840	50175.29	3.6650	3.6650	1.3955	26.00	0.04	1.500			
0.7880	50432.55	3.6620	3.6619	1.3312	25.99	0.03	1.500			
0.7918	50677.85	3.6590	3.6589	1.2792	25.99	0.03	1.500			
0.7955	50912.18	3.6560	3.6561	1.2414	25.98	0.02	1.500			
0.7992	51148.39	3.6530	3.6530	1.2263	25.98	0.02	1.500			
0.8028	51378.72	3.6500	3.6500	1.2244	25.97	0.01	1.500			
0.8064	51609.55	3.6470	3.6470	1.2307	25.97	0.01	1.500			
0.8101	51844.06	3.6440	3.6440	1.2418	25.97	0.01	1.500			
0.8138	52084.70	3.6410	3.6410	1.2619	25.96	0.00	1.500			
0.8176	52328.66	3.6380	3.6380	1.2814	25.96	-0.00	1.500			
0.8216	52580.53	3.6350	3.6350	1.2903	25.95	-0.01	1.500			
0.8255	52834.07	3.6320	3.6319	1.2929	25.95	-0.01	1.500			
0.8294	53081.35	3.6290	3.6291	1.2938	25.94	-0.02	1.500			
0.8333	53329.38	3.6260	3.6261	1.2898	25.94	-0.02	1.500			
0.8371	53575.71	3.6230	3.6229	1.2856	25.93	-0.03	1.500			
0.8409	53819.92	3.6200	3.6200	1.2869	25.93	-0.03	1.500			
0.8448	54066.35	3.6170	3.6170	1.2832	25.93	-0.03	1.500			
0.8487	54314.07	3.6140	3.6140	1.2925	25.92	-0.04	1.500			
0.8526	54565.77	3.6110	3.6110	1.2884	25.92	-0.04	1.500			
0.8564	54811.34	3.6080	3.6080	1.2756	25.92	-0.04	1.500			
0.8603	55058.00	3.6050	3.6050	1.2700	25.91	-0.05	1.500			
0.8641	55300.85	3.6020	3.6019	1.2580	25.91	-0.05	1.500			
0.8678	55539.73	3.5990	3.5990	1.2435	25.91	-0.05	1.500			
0.8715	55778.96	3.5960	3.5960	1.2337	25.91	-0.05	1.500			
0.8752	56013.74	3.5930	3.5930	1.2156	25.91	-0.05	1.500			
0.8788	56245.57	3.5900	3.5900	1.2038	25.90	-0.06	1.500			
0.8824	56475.94	3.5870	3.5870	1.1974	25.90	-0.06	1.500			
0.8860	56703.45	3.5840	3.5840	1.1891	25.90	-0.06	1.500			
0.8895	56928.49	3.5810	3.5810	1.1893	25.90	-0.06	1.500			
0.8931	57155.69	3.5780	3.5781	1.1980	25.91	-0.05	1.500			
0.8967	57388.45	3.5750	3.5749	1.2022	25.92	-0.04	1.500			
0.9004	57628.37	3.5720	3.5719	1.1665	25.93	-0.03	1.500			
0.9040	57856.64	3.5690	3.5690	1.0995	25.94	-0.02	1.500			
0.9075	58078.23	3.5660	3.5661	0.9887	25.94	-0.02	1.500			
0.9104	58262.53	3.5630	3.5632	0.8516	25.95	-0.01	1.500			
0.9127	58411.27	3.5600	3.5601	0.7105	25.96	-0.00	1.500			
0.9145	58528.19	3.5570	3.5567	0.5689	25.96	0.00	1.500			
0.9158	58608.87	3.5540	3.5540	0.4533	25.96	0.00	1.500			
0.9169	58679.38	3.5510	3.5511	0.3720	25.97	0.01	1.500			
0.9178	58739.53	3.5480	3.5478	0.3002	25.97	0.01	1.500			
0.9186	58789.14	3.5450	3.5449	0.2559	25.97	0.01	1.500			
0.9192	58829.98	3.5420	3.5418	0.2173	25.97	0.01	1.500			
0.9198	58866.40	3.5390	3.5390	0.1895	25.97	0.01	1.500			
0.9203	58899.41	3.5360	3.5360	0.1651	25.97	0.01	1.500			
0.9208	58928.39	3.5330	3.5331	0.1460	25.98	0.02	1.500			
0.9212	58954.89	3.5300	3.5299	0.1292	25.98	0.02	1.500			
0.9215	58977.52	3.5270	3.5270	0.1109	25.98	0.02	1.500			
0.9218	58997.23	3.5240	3.5241	0.0945	25.98	0.02	1.500			
0.9221	59013.47	3.5210	3.5212	0.0785	25.98	0.02	1.500			
0.9223	59027.10	3.5180	3.5183	0.0625	25.98	0.02	1.500			
0.9225	59037.58	3.5150	3.5155	0.0466	25.98	0.02	1.500			
