Ah_balance (normalized)	Ah_balance (mAh)	Voltage - fit (V)	Voltage -  interpolate (V)	dQ/dV (1/V)	Temperature (°C)	Temperature - diff (°C)	Current (C)	R_DC 0ms (mOhm)	R_DC 50ms (mOhm)	R_DC 50 ms PEC (mOhm)
0.2895	18524.84	3.9730	3.9730	0.8490	27.41	1.45	1.500			
0.2920	18687.73	3.9700	3.9701	0.8522	27.40	1.44	1.500			
0.2945	18850.62	3.9670	3.9669	0.8610	27.40	1.44	1.500			
0.2971	19017.57	3.9640	3.9641	0.8694	27.39	1.43	1.500			
0.2998	19185.32	3.9610	3.9609	0.8751	27.39	1.43	1.500			
0.3024	19354.32	3.9580	3.9580	0.8833	27.38	1.42	1.500			
0.3051	19525.44	3.9550	3.9551	0.8869	27.38	1.42	1.500			
0.3077	19695.58	3.9520	3.9520	0.8888	27.38	1.42	1.500			
0.3104	19867.43	3.9490	3.9490	0.8911	27.37	1.41	1.500			
0.3131	20038.44	3.9460	3.9459	0.8912	27.37	1.41	1.500			
0.3158	20210.07	3.9430	3.9431	0.8958	27.36	1.40	1.500			
0.3185	20381.05	3.9400	3.9401	0.9007	27.36	1.40	1.500			
0.3211	20553.42	3.9370	3.9370	0.9056	27.35	1.39	1.500			
0.3239	20728.33	3.9340	3.9339	0.9140	27.35	1.39	1.500			
0.3266	20904.03	3.9310	3.9310	0.9185	27.35	1.39	1.500			
0.3294	21081.57	3.9280	3.9280	0.9242	27.34	1.38	1.500			
0.3322	21261.08	3.9250	3.9250	0.9295	27.34	1.38	1.500			
0.3350	21438.42	3.9220	3.9220	0.9327	27.33	1.37	1.500			
0.3378	21618.27	3.9190	3.9190	0.9390	27.33	1.37	1.500			
0.3406	21799.17	3.9160	3.9160	0.9396	27.32	1.36	1.500			
0.3434	21978.65	3.9130	3.9130	0.9487	27.32	1.36	1.500			
0.3463	22161.00	3.9100	3.9101	0.9573	27.31	1.35	1.500			
0.3492	22345.80	3.9070	3.9068	0.9639	27.31	1.35	1.500			
0.3520	22530.62	3.9040	3.9040	0.9782	27.30	1.34	1.500			
0.3550	22720.26	3.9010	3.9011	0.9835	27.30	1.34	1.500			
0.3580	22912.01	3.8980	3.8980	0.9922	27.29	1.33	1.500			
0.3610	23103.85	3.8950	3.8950	0.9917	27.29	1.33	1.500			
0.3640	23294.91	3.8920	3.8920	0.9891	27.28	1.32	1.500			
0.3669	23483.24	3.8890	3.8890	1.0000	27.27	1.31	1.500			
0.3699	23674.07	3.8860	3.8860	1.0117	27.27	1.31	1.500			
0.3729	23867.17	3.8830	3.8829	1.0188	27.26	1.30	1.500			
0.3760	24064.80	3.8800	3.8801	1.0426	27.26	1.30	1.500			
0.3792	24267.09	3.8770	3.8770	1.0583	27.25	1.29	1.500			
0.3824	24473.53	3.8740	3.8740	1.0712	27.24	1.28	1.500			
0.3857	24682.35	3.8710	3.8709	1.0812	27.24	1.28	1.500			
0.3889	24890.01	3.8680	3.8682	1.0847	27.23	1.27	1.500			
0.3921	25097.55	3.8650	3.8650	1.0983	27.22	1.26	1.500			
0.3955	25309.80	3.8620	3.8620	1.1061	27.22	1.26	1.500			
0.3988	25520.99	3.8590	3.8589	1.1175	27.21	1.25	1.500			
0.4021	25735.44	3.8560	3.8560	1.1393	27.20	1.24	1.500			
0.4056	25956.19	3.8530	3.8531	1.1582	27.19	1.23	1.500			
0.4091	26180.07	3.8500	3.8499	1.1834	27.19	1.23	1.500			
0.4127	26409.68	3.8470	3.8470	1.1988	27.18	1.22	1.500			
0.4163	26642.27	3.8440	3.8440	1.2186	27.17	1.21	1.500			
0.4200	26880.79	3.8410	3.8410	1.2398	27.16	1.20	1.500			
0.4237	27118.53	3.8380	3.8379	1.2564	27.15	1.19	1.500			
0.4275	27359.11	3.8350	3.8351	1.2739	27.14	1.18	1.500			
0.4314	27606.78	3.8320	3.8320	1.2961	27.13	1.17	1.500			
0.4353	27856.89	3.8290	3.8289	1.3140	27.12	1.16	1.500			
0.4392	28111.06	3.8260	3.8261	1.3420	27.11	1.15	1.500			
0.4433	28370.26	3.8230	3.8230	1.3753	27.10	1.14	1.500			
0.4475	28637.62	3.8200	3.8199	1.4085	27.08	1.12	1.500			
0.4517	28910.88	3.8170	3.8170	1.4397	27.07	1.11	1.500			
0.4561	29190.96	3.8140	3.8139	1.4695	27.06	1.10	1.500			
0.4606	29478.32	3.8110	3.8111	1.5060	27.05	1.09	1.500			
0.4651	29767.00	3.8080	3.8080	1.5381	27.04	1.08	1.500			
0.4698	30065.97	3.8050	3.8050	1.5752	27.02	1.06	1.500			
0.4746	30371.20	3.8020	3.8020	1.6078	27.01	1.05	1.500			
0.4794	30684.41	3.7990	3.7990	1.6473	26.99	1.03	1.500			
0.4845	31004.90	3.7960	3.7961	1.6903	26.98	1.02	1.500			
0.4896	31332.73	3.7930	3.7930	1.7354	26.96	1.00	1.500			
0.4948	31667.31	3.7900	3.7900	1.7871	26.94	0.98	1.500			
0.5002	32013.67	3.7870	3.7870	1.8319	26.93	0.97	1.500			
0.5058	32374.30	3.7840	3.7840	1.8820	26.91	0.95	1.500			
0.5116	32740.24	3.7810	3.7811	1.9195	26.89	0.93	1.500			
0.5173	33109.26	3.7780	3.7780	1.9418	26.86	0.90	1.500			
0.5232	33487.33	3.7750	3.7749	1.9737	26.84	0.88	1.500			
0.5292	33870.61	3.7720	3.7721	1.9997	26.82	0.86	1.500			
0.5353	34258.83	3.7690	3.7690	2.0313	26.80	0.84	1.500			
0.5414	34652.21	3.7660	3.7660	2.0440	26.78	0.82	1.500			
0.5476	35046.41	3.7630	3.7628	2.0498	26.76	0.80	1.500	0.360	0.456	
0.5538	35444.90	3.7600	3.7601	2.0437	26.73	0.77	1.500			
0.5600	35837.52	3.7570	3.7570	2.0016	26.71	0.75	1.500			
0.5658	36213.18	3.7540	3.7540	1.9799	26.69	0.73	1.500			
0.5718	36592.90	3.7510	3.7510	1.9894	26.67	0.71	1.500			
0.5778	36976.04	3.7480	3.7481	1.9824	26.65	0.69	1.500			
0.5837	37359.15	3.7450	3.7450	1.9773	26.63	0.67	1.500			
0.5896	37734.42	3.7420	3.7420	1.9737	26.61	0.65	1.500			
0.5955	38114.51	3.7390	3.7390	1.9796	26.59	0.63	1.500			
0.6015	38495.15	3.7360	3.7360	2.0185	26.57	0.61	1.500			
0.6076	38889.56	3.7330	3.7330	2.0261	26.56	0.60	1.500			
0.6137	39277.13	3.7300	3.7300	2.0561	26.54	0.58	1.500			
0.6199	39670.59	3.7270	3.7271	2.0922	26.52	0.56	1.500			
0.6262	40074.84	3.7240	3.7240	2.1484	26.50	0.54	1.500			
0.6327	40494.19	3.7210	3.7210	2.2093	26.49	0.53	1.500			
0.6395	40926.26	3.7180	3.7180	2.3016	26.47	0.51	1.500			
0.6464	41368.77	3.7150	3.7150	2.3683	26.45	0.49	1.500			
0.6536	41829.33	3.7120	3.7120	2.4553	26.43	0.47	1.500			
0.6611	42308.76	3.7090	3.7090	2.5176	26.40	0.44	1.500			
0.6688	42800.55	3.7060	3.7060	2.5985	26.38	0.42	1.500			
0.6767	43306.73	3.7030	3.7030	2.6556	26.35	0.39	1.500			
0.6847	43823.21	3.7000	3.7001	2.6984	26.34	0.38	1.500			
0.6930	44355.09	3.6970	3.6970	2.6186	26.32	0.36	1.500			
0.7008	44852.68	3.6940	3.6940	2.5066	26.31	0.35	1.500			
0.7082	45324.25	3.6910	3.6910	2.3289	26.29	0.33	1.500			
0.7148	45749.63	3.6880	3.6880	2.1385	26.28	0.32	1.500			
0.7209	46139.84	3.6850	3.6850	1.9659	26.27	0.31	1.500			
0.7264	46492.09	3.6820	3.6820	1.8050	26.25	0.29	1.500			
0.7317	46827.49	3.6790	3.6789	1.6914	26.24	0.28	1.500			
0.7365	47136.06	3.6760	3.6760	1.5900	26.23	0.27	1.500			
0.7411	47429.63	3.6730	3.6731	1.5048	26.22	0.26	1.500			
0.7454	47708.31	3.6700	3.6699	1.4306	26.21	0.25	1.500			
0.7496	47971.25	3.6670	3.6669	1.3662	26.20	0.24	1.500			
0.7535	48225.85	3.6640	3.6640	1.3190	26.19	0.23	1.500			
0.7574	48470.49	3.6610	3.6610	1.2905	26.18	0.22	1.500			
0.7612	48714.77	3.6580	3.6579	1.2688	26.17	0.21	1.500			
0.7649	48951.41	3.6550	3.6550	1.2563	26.16	0.20	1.500			
0.7686	49192.03	3.6520	3.6520	1.2626	26.15	0.19	1.500			
0.7724	49433.30	3.6490	3.6490	1.2692	26.13	0.17	1.500			
0.7762	49678.29	3.6460	3.6460	1.2830	26.12	0.16	1.500			
0.7801	49924.39	3.6430	3.6431	1.2973	26.11	0.15	1.500			
0.7840	50176.82	3.6400	3.6399	1.3018	26.10	0.14	1.500			
0.7880	50430.65	3.6370	3.6370	1.3113	26.09	0.13	1.500			
0.7919	50682.42	3.6340	3.6340	1.3140	26.08	0.12	1.500			
0.7959	50934.70	3.6310	3.6310	1.3143	26.07	0.11	1.500			
0.7998	51186.86	3.6280	3.6280	1.3145	26.06	0.10	1.500			
0.8037	51439.76	3.6250	3.6250	1.3121	26.05	0.09	1.500			
0.8077	51692.07	3.6220	3.6220	1.3083	26.04	0.08	1.500			
0.8116	51945.30	3.6190	3.6190	1.3068	26.03	0.07	1.500			
0.8155	52195.00	3.6160	3.6160	1.2995	26.02	0.06	1.500			
0.8194	52444.33	3.6130	3.6130	1.2900	26.01	0.05	1.500			
0.8233	52691.73	3.6100	3.6099	1.2809	26.00	0.04	1.500			
0.8271	52936.78	3.6070	3.6070	1.2665	26.00	0.04	1.500			
0.8309	53179.59	3.6040	3.6040	1.2537	25.99	0.03	1.500			
0.8347	53420.30	3.6010	3.6010	1.2386	25.98	0.02	1.500			
0.8384	53655.91	3.5980	3.5980	1.2200	25.98	0.02	1.500			
0.8420	53886.45	3.5950	3.5951	1.2043	25.97	0.01	1.500			
0.8456	54116.19	3.5920	3.5920	1.1949	25.97	0.01	1.500			
0.8491	54344.08	3.5890	3.5890	1.1846	25.96	0.00	1.500			
0.8527	54571.00	3.5860	3.5859	1.1772	25.96	0.00	1.500			
0.8562	54796.65	3.5830	3.5830	1.1677	25.96	0.00	1.500			
0.8597	55022.18	3.5800	3.5799	1.1504	25.96	0.00	1.500			
0.8633	55250.07	3.5770	3.5769	1.0992	25.96	0.00	1.500			
0.8666	55461.18	3.5740	3.5741	1.0271	25.96	0.00	1.500			
0.8697	55662.15	3.5710	3.5711	0.9255	25.96	0.00	1.500			
0.8724	55832.76	3.5680	3.5681	0.8000	25.96	0.00	1.500			
0.8746	55973.38	3.5650	3.5650	0.6740	25.96	0.00	1.500			
0.8763	56085.95	3.5620	3.5620	0.5501	25.96	0.00	1.500			
0.8777	56170.32	3.5590	3.5590	0.4513	25.96	0.00	1.500			
0.8788	56243.29	3.5560	3.5560	0.3794	25.96	0.00	1.500			
0.8798	56304.63	3.5530	3.5529	0.3114	25.96	0.00	1.500			
0.8806	56357.67	3.5500	3.5499	0.2712	25.96	0.00	1.500			
0.8813	56402.69	3.5470	3.5469	0.2379	25.96	0.00	1.500			
0.8819	56443.51	3.5440	3.5441	0.2120	25.96	0.00	1.500			
0.8825	56480.31	3.5410	3.5409	0.1883	25.96	0.00	1.500			
0.8830	56513.98	3.5380	3.5379	0.1717	25.96	0.00	1.500			
0.8835	56544.80	3.5350	3.5351	0.1564	25.96	0.00	1.500			
0.8840	56573.04	3.5320	3.5319	0.1413	25.96	0.00	1.500			
0.8844	56598.86	3.5290	3.5290	0.1276	25.96	0.00	1.500			
0.8847	56622.04	3.5260	3.5260	0.1140	25.96	0.00	1.500			
0.8850	56642.35	3.5230	3.5231	0.1001	25.96	0.00	1.500			
0.8853	56660.76	3.5200	3.5200	0.0872	25.96	0.00	1.500			
0.8856	56676.15	3.5170	3.5173	0.0731	25.96	0.00	1.500			
0.8858	56688.86	3.5140	3.5143	0.0590	25.96	0.00	1.500			
0.8859	56698.83	3.5110	3.5115	0.0448	25.96	0.00	1.500			
