Ah_balance (normalized)	Ah_balance (mAh)	Voltage - fit (V)	Voltage -  interpolate (V)	dQ/dV (1/V)	Temperature (°C)	Temperature - diff (°C)	Current (C)	R_DC 0ms (mOhm)	R_DC 50ms (mOhm)	R_DC 50 ms PEC (mOhm)
0.1856	11878.59	3.9300	3.9297	-0.0774	25.72	-0.03	-1.500			
0.1859	11896.15	3.9270	3.9268	-0.1055	25.72	-0.03	-1.500			
0.1862	11919.73	3.9240	3.9239	-0.1334	25.72	-0.03	-1.500			
0.1867	11947.80	3.9210	3.9211	-0.1591	25.73	-0.02	-1.500			
0.1872	11980.92	3.9180	3.9181	-0.1844	25.73	-0.02	-1.500			
0.1878	12019.12	3.9150	3.9150	-0.2080	25.73	-0.02	-1.500			
0.1885	12062.36	3.9120	3.9119	-0.2316	25.73	-0.02	-1.500			
0.1892	12108.92	3.9090	3.9090	-0.2543	25.73	-0.02	-1.500			
0.1900	12159.88	3.9060	3.9061	-0.2771	25.73	-0.02	-1.500			
0.1909	12215.15	3.9030	3.9030	-0.3000	25.73	-0.02	-1.500			
0.1918	12275.21	3.9000	3.9000	-0.3197	25.73	-0.02	-1.500			
0.1928	12338.45	3.8970	3.8970	-0.3415	25.73	-0.02	-1.500			
0.1938	12406.27	3.8940	3.8941	-0.3614	25.73	-0.02	-1.500			
0.1950	12477.72	3.8910	3.8909	-0.3823	25.74	-0.01	-1.500			
0.1961	12552.93	3.8880	3.8880	-0.4024	25.74	-0.01	-1.500			
0.1974	12632.07	3.8850	3.8849	-0.4233	25.74	-0.01	-1.500			
0.1987	12716.11	3.8820	3.8820	-0.4399	25.74	-0.01	-1.500			
0.2000	12803.12	3.8790	3.8791	-0.4567	25.74	-0.01	-1.500			
0.2014	12891.77	3.8760	3.8760	-0.4741	25.74	-0.01	-1.500			
0.2029	12985.02	3.8730	3.8730	-0.4889	25.74	-0.01	-1.500			
0.2044	13080.00	3.8700	3.8699	-0.5006	25.75	-0.00	-1.500			
0.2059	13177.56	3.8670	3.8670	-0.5127	25.75	-0.00	-1.500			
0.2075	13277.70	3.8640	3.8642	-0.5252	25.75	0.00	-1.500			
0.2091	13380.22	3.8610	3.8610	-0.5377	25.75	0.00	-1.500			
0.2107	13484.30	3.8580	3.8580	-0.5482	25.75	0.00	-1.500			
0.2124	13590.44	3.8550	3.8550	-0.5569	25.76	0.01	-1.500			
0.2141	13699.21	3.8520	3.8520	-0.5672	25.76	0.01	-1.500			
0.2158	13809.10	3.8490	3.8490	-0.5752	25.76	0.01	-1.500			
0.2175	13920.77	3.8460	3.8460	-0.5810	25.76	0.01	-1.500			
0.2193	14032.42	3.8430	3.8430	-0.5871	25.76	0.01	-1.500			
0.2210	14145.93	3.8400	3.8400	-0.5909	25.77	0.02	-1.500			
0.2228	14259.70	3.8370	3.8369	-0.5967	25.77	0.02	-1.500			
0.2246	14375.88	3.8340	3.8340	-0.5987	25.77	0.02	-1.500			
0.2264	14490.66	3.8310	3.8310	-0.6027	25.77	0.02	-1.500			
0.2282	14606.58	3.8280	3.8280	-0.6071	25.78	0.03	-1.500			
0.2301	14723.80	3.8250	3.8250	-0.6106	25.78	0.03	-1.500			
0.2319	14840.36	3.8220	3.8220	-0.6144	25.78	0.03	-1.500			
0.2337	14959.64	3.8190	3.8190	-0.6166	25.78	0.03	-1.500			
0.2356	15078.29	3.8160	3.8160	-0.6191	25.79	0.04	-1.500			
0.2375	15198.07	3.8130	3.8130	-0.6206	25.79	0.04	-1.500			
0.2393	15316.20	3.8100	3.8100	-0.6210	25.79	0.04	-1.500			
0.2412	15435.44	3.8070	3.8070	-0.6247	25.80	0.05	-1.500			
0.2431	15555.82	3.8040	3.8039	-0.6291	25.80	0.05	-1.500			
0.2450	15677.49	3.8010	3.8010	-0.6278	25.81	0.06	-1.500			
0.2469	15799.29	3.7980	3.7980	-0.6290	25.81	0.06	-1.500			
0.2487	15919.35	3.7950	3.7951	-0.6341	25.81	0.06	-1.500			
0.2506	16041.26	3.7920	3.7920	-0.6391	25.82	0.07	-1.500			
0.2526	16163.38	3.7890	3.7889	-0.6391	25.82	0.07	-1.500			
0.2545	16286.81	3.7860	3.7861	-0.6411	25.82	0.07	-1.500			
0.2564	16410.77	3.7830	3.7831	-0.6457	25.83	0.08	-1.500			
0.2584	16536.26	3.7800	3.7800	-0.6458	25.83	0.08	-1.500			
0.2603	16659.72	3.7770	3.7769	-0.6460	25.84	0.09	-1.500			
0.2622	16782.21	3.7740	3.7741	-0.6459	25.84	0.09	-1.500			
0.2642	16905.78	3.7710	3.7710	-0.6515	25.85	0.10	-1.500			
0.2661	17032.07	3.7680	3.7680	-0.6573	25.86	0.11	-1.500			
0.2681	17158.55	3.7650	3.7650	-0.6634	25.86	0.11	-1.500			
0.2701	17286.45	3.7620	3.7620	-0.6668	25.87	0.12	-1.500			
0.2721	17416.51	3.7590	3.7590	-0.6720	25.87	0.12	-1.500			
0.2741	17545.49	3.7560	3.7561	-0.6730	25.88	0.13	-1.500			
0.2762	17674.25	3.7530	3.7530	-0.6775	25.88	0.13	-1.500			
0.2782	17804.70	3.7500	3.7499	-0.6799	25.89	0.14	-1.500			
0.2802	17935.48	3.7470	3.7470	-0.6847	25.89	0.14	-1.500			
0.2823	18066.64	3.7440	3.7440	-0.6899	25.90	0.15	-1.500			
0.2844	18200.38	3.7410	3.7410	-0.6974	25.90	0.15	-1.500			
0.2865	18333.88	3.7380	3.7379	-0.7055	25.91	0.16	-1.500			
0.2886	18469.57	3.7350	3.7350	-0.7124	25.91	0.16	-1.500			
0.2908	18608.51	3.7320	3.7320	-0.7152	25.92	0.17	-1.500			
0.2929	18747.19	3.7290	3.7290	-0.7191	25.92	0.17	-1.500			
0.2951	18884.41	3.7260	3.7262	-0.7257	25.93	0.18	-1.500			
0.2973	19024.02	3.7230	3.7230	-0.7304	25.93	0.18	-1.500			
0.2994	19163.33	3.7200	3.7199	-0.7386	25.93	0.18	-1.500			
0.3017	19306.29	3.7170	3.7170	-0.7417	25.94	0.19	-1.500			
0.3039	19449.90	3.7140	3.7141	-0.7503	25.94	0.19	-1.500			
0.3062	19594.88	3.7110	3.7110	-0.7626	25.95	0.20	-1.500			
0.3085	19741.78	3.7080	3.7079	-0.7692	25.95	0.20	-1.500			
0.3108	19889.80	3.7050	3.7049	-0.7727	25.96	0.21	-1.500			
0.3131	20038.70	3.7020	3.7021	-0.7790	25.96	0.21	-1.500			
0.3155	20189.40	3.6990	3.6991	-0.7854	25.97	0.22	-1.500			
0.3178	20342.20	3.6960	3.6959	-0.7933	25.97	0.22	-1.500			
0.3202	20493.14	3.6930	3.6930	-0.8006	25.98	0.23	-1.500			
0.3226	20646.99	3.6900	3.6900	-0.8064	25.98	0.23	-1.500			
0.3250	20802.68	3.6870	3.6870	-0.8170	25.99	0.24	-1.500			
0.3275	20961.46	3.6840	3.6840	-0.8256	25.99	0.24	-1.500			
0.3300	21120.68	3.6810	3.6810	-0.8351	26.00	0.25	-1.500			
0.3325	21281.85	3.6780	3.6780	-0.8453	26.00	0.25	-1.500			
0.3351	21444.84	3.6750	3.6750	-0.8542	26.01	0.26	-1.500			
0.3376	21609.21	3.6720	3.6719	-0.8643	26.01	0.26	-1.500			
0.3403	21777.07	3.6690	3.6690	-0.8737	26.02	0.27	-1.500			
0.3429	21945.39	3.6660	3.6660	-0.8797	26.02	0.27	-1.500			
0.3456	22115.46	3.6630	3.6630	-0.8872	26.03	0.28	-1.500			
0.3482	22284.87	3.6600	3.6601	-0.8980	26.03	0.28	-1.500			
0.3509	22458.36	3.6570	3.6570	-0.9086	26.04	0.29	-1.500			
0.3537	22633.87	3.6540	3.6540	-0.9198	26.04	0.29	-1.500			
0.3564	22811.46	3.6510	3.6510	-0.9327	26.05	0.30	-1.500			
0.3593	22993.07	3.6480	3.6481	-0.9457	26.05	0.30	-1.500			
0.3621	23175.75	3.6450	3.6449	-0.9556	26.06	0.31	-1.500			
0.3650	23360.25	3.6420	3.6420	-0.9634	26.07	0.32	-1.500			
0.3679	23545.36	3.6390	3.6390	-0.9695	26.07	0.32	-1.500			
0.3708	23732.52	3.6360	3.6360	-0.9828	26.08	0.33	-1.500			
0.3738	23921.35	3.6330	3.6330	-0.9934	26.08	0.33	-1.500			
0.3767	24111.78	3.6300	3.6300	-1.0054	26.09	0.34	-1.500			
0.3798	24306.56	3.6270	3.6270	-1.0202	26.10	0.35	-1.500			
0.3829	24505.29	3.6240	3.6240	-1.0321	26.10	0.35	-1.500			
0.3860	24704.66	3.6210	3.6210	-1.0477	26.10	0.35	-1.500			
0.3892	24907.48	3.6180	3.6180	-1.0581	26.11	0.36	-1.500			
0.3924	25111.27	3.6150	3.6150	-1.0666	26.11	0.36	-1.500			
0.3956	25317.17	3.6120	3.6119	-1.0763	26.11	0.36	-1.500			
0.3988	25524.18	3.6090	3.6090	-1.0905	26.11	0.36	-1.500			
0.4021	25734.19	3.6060	3.6060	-1.1039	26.12	0.37	-1.500			
0.4054	25946.94	3.6030	3.6030	-1.1228	26.12	0.37	-1.500			
0.4088	26163.88	3.6000	3.6000	-1.1358	26.12	0.37	-1.500			
0.4123	26384.71	3.5970	3.5969	-1.1586	26.13	0.38	-1.500			
0.4158	26609.64	3.5940	3.5941	-1.1760	26.14	0.39	-1.500			
0.4193	26835.70	3.5910	3.5910	-1.2010	26.14	0.39	-1.500			
0.4230	27069.73	3.5880	3.5880	-1.2101	26.15	0.40	-1.500			
0.4266	27304.50	3.5850	3.5849	-1.2269	26.16	0.41	-1.500			
0.4303	27541.34	3.5820	3.5820	-1.2337	26.17	0.42	-1.500			
0.4341	27780.46	3.5790	3.5789	-1.2498	26.17	0.42	-1.500			
0.4378	28019.14	3.5760	3.5760	-1.2595	26.18	0.43	-1.500			
0.4416	28259.93	3.5730	3.5729	-1.2782	26.19	0.44	-1.500			
0.4454	28505.83	3.5700	3.5701	-1.3074	26.19	0.44	-1.500			
0.4494	28764.19	3.5670	3.5669	-1.3319	26.20	0.45	-1.500			
0.4535	29022.45	3.5640	3.5640	-1.3505	26.20	0.45	-1.500			
0.4576	29285.34	3.5610	3.5612	-1.3713	26.21	0.46	-1.500			
0.4617	29550.12	3.5580	3.5579	-1.3836	26.22	0.47	-1.500			
0.4659	29816.56	3.5550	3.5550	-1.4031	26.22	0.47	-1.500			
0.4701	30083.93	3.5520	3.5520	-1.4109	26.23	0.48	-1.500			
0.4744	30358.46	3.5490	3.5490	-1.4386	26.23	0.48	-1.500			
0.4787	30635.69	3.5460	3.5460	-1.4571	26.24	0.49	-1.500			
0.4831	30916.55	3.5430	3.5430	-1.4783	26.24	0.49	-1.500			
0.4875	31202.23	3.5400	3.5400	-1.5008	26.25	0.50	-1.500			
0.4921	31493.84	3.5370	3.5370	-1.5188	26.26	0.51	-1.500			
0.4967	31787.67	3.5340	3.5340	-1.5326	26.27	0.52	-1.500			
0.5013	32084.92	3.5310	3.5310	-1.5532	26.29	0.54	-1.500			
0.5060	32384.03	3.5280	3.5280	-1.5604	26.30	0.55	-1.500			
0.5107	32684.36	3.5250	3.5252	-1.5723	26.31	0.56	-1.500	0.370	0.543	
0.5154	32985.46	3.5220	3.5220	-1.5937	26.31	0.56	-1.500			
0.5202	33294.29	3.5190	3.5190	-1.6049	26.32	0.57	-1.500			
0.5251	33605.24	3.5160	3.5160	-1.6182	26.33	0.58	-1.500			
0.5300	33918.38	3.5130	3.5130	-1.6276	26.34	0.59	-1.500			
0.5349	34230.55	3.5100	3.5100	-1.6366	26.35	0.60	-1.500			
0.5398	34545.68	3.5070	3.5070	-1.6544	26.36	0.61	-1.500			
0.5447	34863.60	3.5040	3.5040	-1.6638	26.37	0.62	-1.500			
0.5497	35183.15	3.5010	3.5010	-1.6664	26.38	0.63	-1.500			
0.5548	35510.27	3.4980	3.4979	-1.6732	26.39	0.64	-1.500			
0.5599	35831.50	3.4950	3.4951	-1.6684	26.41	0.66	-1.500			
0.5649	36152.09	3.4920	3.4920	-1.6593	26.42	0.67	-1.500			
0.5698	36469.31	3.4890	3.4889	-1.6544	26.43	0.68	-1.500			
0.5748	36784.44	3.4860	3.4860	-1.6394	26.44	0.69	-1.500			
0.5797	37099.73	3.4830	3.4830	-1.6459	26.45	0.70	-1.500			
0.5846	37416.84	3.4800	3.4799	-1.6424	26.47	0.72	-1.500			
0.5896	37731.51	3.4770	3.4770	-1.6357	26.48	0.73	-1.500			
0.5945	38045.10	3.4740	3.4740	-1.6216	26.49	0.74	-1.500			
0.5993	38355.91	3.4710	3.4711	-1.6073	26.50	0.75	-1.500			
0.6042	38667.57	3.4680	3.4679	-1.5943	26.51	0.76	-1.500			
0.6089	38972.14	3.4650	3.4650	-1.5737	26.53	0.78	-1.500			
0.6136	39269.77	3.4620	3.4620	-1.5521	26.54	0.79	-1.500			
0.6182	39565.25	3.4590	3.4590	-1.5421	26.56	0.81	-1.500			
0.6228	39857.90	3.4560	3.4559	-1.5232	26.57	0.82	-1.500			
0.6274	40153.04	3.4530	3.4530	-1.5054	26.58	0.83	-1.500			
0.6319	40442.25	3.4500	3.4501	-1.4841	26.60	0.85	-1.500			
0.6363	40724.04	3.4470	3.4470	-1.4654	26.62	0.87	-1.500			
0.6407	41002.29	3.4440	3.4440	-1.4445	26.63	0.88	-1.500			
0.6449	41276.28	3.4410	3.4409	-1.4264	26.65	0.90	-1.500			
0.6492	41548.16	3.4380	3.4379	-1.4035	26.67	0.92	-1.500			
0.6534	41818.56	3.4350	3.4351	-1.3896	26.69	0.94	-1.500			
0.6576	42084.64	3.4320	3.4320	-1.3727	26.70	0.95	-1.500			
0.6617	42347.90	3.4290	3.4290	-1.3525	26.72	0.97	-1.500			
0.6657	42603.27	3.4260	3.4260	-1.3332	26.74	0.99	-1.500			
0.6696	42855.74	3.4230	3.4230	-1.3127	26.76	1.01	-1.500			
0.6736	43107.22	3.4200	3.4200	-1.2974	26.77	1.02	-1.500			
0.6774	43355.61	3.4170	3.4169	-1.2732	26.79	1.04	-1.500			
0.6812	43599.24	3.4140	3.4140	-1.2477	26.80	1.05	-1.500			
0.6849	43836.27	3.4110	3.4111	-1.2181	26.81	1.06	-1.500			
0.6885	44066.85	3.4080	3.4080	-1.1960	26.83	1.08	-1.500			
0.6921	44292.96	3.4050	3.4051	-1.1649	26.85	1.10	-1.500			
0.6956	44515.73	3.4020	3.4019	-1.1415	26.87	1.12	-1.500			
0.6989	44732.60	3.3990	3.3989	-1.1140	26.89	1.14	-1.500			
0.7023	44945.56	3.3960	3.3961	-1.0845	26.91	1.16	-1.500			
0.7055	45150.82	3.3930	3.3929	-1.0568	26.92	1.17	-1.500			
0.7086	45350.77	3.3900	3.3900	-1.0205	26.94	1.19	-1.500			
0.7116	45540.81	3.3870	3.3870	-0.9823	26.95	1.20	-1.500			
0.7145	45727.55	3.3840	3.3840	-0.9562	26.96	1.21	-1.500			
0.7173	45908.16	3.3810	3.3810	-0.9298	26.98	1.23	-1.500			
0.7201	46084.22	3.3780	3.3779	-0.9020	26.99	1.24	-1.500			
0.7227	46254.85	3.3750	3.3750	-0.8749	27.00	1.25	-1.500			
0.7253	46419.71	3.3720	3.3721	-0.8460	27.02	1.27	-1.500			
0.7278	46580.66	3.3690	3.3690	-0.8240	27.03	1.28	-1.500			
0.7302	46735.81	3.3660	3.3659	-0.7949	27.03	1.28	-1.500			
0.7326	46883.23	3.3630	3.3630	-0.7704	27.04	1.29	-1.500			
0.7348	47028.78	3.3600	3.3600	-0.7458	27.05	1.30	-1.500			
0.7370	47170.28	3.3570	3.3571	-0.7280	27.06	1.31	-1.500			
0.7392	47308.67	3.3540	3.3540	-0.7103	27.08	1.33	-1.500			
0.7413	47443.39	3.3510	3.3510	-0.6923	27.09	1.34	-1.500			
0.7434	47574.57	3.3480	3.3480	-0.6726	27.10	1.35	-1.500			
0.7453	47701.56	3.3450	3.3450	-0.6566	27.11	1.36	-1.500			
0.7473	47825.83	3.3420	3.3420	-0.6372	27.12	1.37	-1.500			
0.7492	47947.09	3.3390	3.3390	-0.6234	27.13	1.38	-1.500			
0.7510	48063.43	3.3360	3.3360	-0.6061	27.13	1.38	-1.500			
0.7528	48178.70	3.3330	3.3330	-0.5903	27.14	1.39	-1.500			
0.7545	48290.85	3.3300	3.3299	-0.5753	27.15	1.40	-1.500			
0.7563	48400.27	3.3270	3.3271	-0.5591	27.16	1.41	-1.500			
0.7579	48505.17	3.3240	3.3240	-0.5447	27.16	1.41	-1.500			
0.7595	48608.17	3.3210	3.3210	-0.5316	27.17	1.42	-1.500			
0.7611	48708.23	3.3180	3.3179	-0.5153	27.18	1.43	-1.500			
0.7626	48806.01	3.3150	3.3150	-0.5040	27.19	1.44	-1.500			
0.7641	48902.23	3.3120	3.3120	-0.4928	27.20	1.45	-1.500			
0.7656	48996.15	3.3090	3.3090	-0.4823	27.21	1.46	-1.500			
0.7670	49088.04	3.3060	3.3060	-0.4693	27.21	1.46	-1.500			
0.7684	49176.32	3.3030	3.3029	-0.4554	27.22	1.47	-1.500			
0.7697	49263.00	3.3000	3.3001	-0.4436	27.23	1.48	-1.500			
0.7710	49346.60	3.2970	3.2969	-0.4316	27.24	1.49	-1.500			
0.7723	49427.36	3.2940	3.2940	-0.4211	27.24	1.49	-1.500			
0.7735	49506.66	3.2910	3.2910	-0.4133	27.25	1.50	-1.500			
0.7748	49585.23	3.2880	3.2880	-0.4032	27.26	1.51	-1.500			
0.7760	49662.69	3.2850	3.2850	-0.3962	27.26	1.51	-1.500			
0.7772	49738.22	3.2820	3.2820	-0.3868	27.27	1.52	-1.500			
0.7783	49811.91	3.2790	3.2790	-0.3798	27.27	1.52	-1.500			
0.7794	49884.00	3.2760	3.2760	-0.3697	27.28	1.53	-1.500			
0.7805	49953.99	3.2730	3.2730	-0.3594	27.28	1.53	-1.500			
0.7816	50021.86	3.2700	3.2699	-0.3496	27.29	1.54	-1.500			
0.7826	50088.26	3.2670	3.2670	-0.3445	27.29	1.54	-1.500			
0.7836	50152.89	3.2640	3.2640	-0.3359	27.30	1.55	-1.500			
0.7846	50216.31	3.2610	3.2611	-0.3306	27.31	1.56	-1.500			
0.7856	50279.45	3.2580	3.2579	-0.3229	27.32	1.57	-1.500			
0.7866	50341.62	3.2550	3.2550	-0.3174	27.32	1.57	-1.500			
0.7875	50402.29	3.2520	3.2520	-0.3117	27.33	1.58	-1.500			
0.7885	50461.01	3.2490	3.2491	-0.3056	27.34	1.59	-1.500			
0.7894	50518.79	3.2460	3.2459	-0.2976	27.34	1.59	-1.500			
0.7902	50575.89	3.2430	3.2430	-0.2923	27.35	1.60	-1.500			
0.7911	50630.97	3.2400	3.2400	-0.2855	27.36	1.61	-1.500			
0.7920	50685.46	3.2370	3.2370	-0.2817	27.36	1.61	-1.500			
0.7928	50739.01	3.2340	3.2340	-0.2767	27.37	1.62	-1.500			
0.7936	50791.32	3.2310	3.2309	-0.2714	27.38	1.63	-1.500			
0.7944	50842.92	3.2280	3.2280	-0.2663	27.38	1.63	-1.500			
0.7952	50894.07	3.2250	3.2251	-0.2628	27.39	1.64	-1.500			
0.7960	50944.15	3.2220	3.2220	-0.2583	27.39	1.64	-1.500			
0.7968	50993.29	3.2190	3.2190	-0.2538	27.40	1.65	-1.500			
0.7975	51040.84	3.2160	3.2159	-0.2481	27.40	1.65	-1.500			
0.7982	51087.95	3.2130	3.2130	-0.2458	27.41	1.66	-1.500			
0.7990	51134.98	3.2100	3.2100	-0.2427	27.41	1.66	-1.500			
0.7997	51181.47	3.2070	3.2069	-0.2395	27.42	1.67	-1.500			
0.8004	51226.98	3.2040	3.2041	-0.2373	27.42	1.67	-1.500			
0.8011	51272.29	3.2010	3.2010	-0.2343	27.43	1.68	-1.500			
0.8018	51317.44	3.1980	3.1980	-0.2309	27.43	1.68	-1.500			
0.8025	51361.54	3.1950	3.1950	-0.2272	27.44	1.69	-1.500			
0.8032	51404.64	3.1920	3.1921	-0.2232	27.44	1.69	-1.500			
0.8039	51447.11	3.1890	3.1891	-0.2197	27.45	1.70	-1.500			
0.8045	51488.78	3.1860	3.1859	-0.2176	27.45	1.70	-1.500			
0.8052	51530.01	3.1830	3.1830	-0.2151	27.46	1.71	-1.500			
0.8058	51570.51	3.1800	3.1799	-0.2124	27.46	1.71	-1.500			
0.8064	51611.35	3.1770	3.1769	-0.2100	27.47	1.72	-1.500			
0.8071	51651.94	3.1740	3.1741	-0.2082	27.47	1.72	-1.500			
0.8077	51691.61	3.1710	3.1710	-0.2051	27.48	1.73	-1.500			
0.8083	51730.84	3.1680	3.1681	-0.2027	27.48	1.73	-1.500			
0.8089	51769.41	3.1650	3.1650	-0.2005	27.49	1.74	-1.500			
0.8095	51807.14	3.1620	3.1619	-0.1974	27.50	1.75	-1.500			
0.8101	51844.90	3.1590	3.1591	-0.1959	27.50	1.75	-1.500			
0.8107	51882.40	3.1560	3.1560	-0.1934	27.51	1.76	-1.500			
0.8112	51919.37	3.1530	3.1530	-0.1924	27.51	1.76	-1.500			
0.8118	51956.25	3.1500	3.1500	-0.1904	27.52	1.77	-1.500			
0.8124	51992.61	3.1470	3.1470	-0.1883	27.53	1.78	-1.500			
0.8129	52028.38	3.1440	3.1439	-0.1873	27.53	1.78	-1.500			
0.8135	52064.29	3.1410	3.1411	-0.1850	27.54	1.79	-1.500			
0.8141	52099.75	3.1380	3.1379	-0.1834	27.55	1.80	-1.500			
0.8146	52134.77	3.1350	3.1350	-0.1814	27.55	1.80	-1.500			
0.8152	52169.66	3.1320	3.1321	-0.1797	27.56	1.81	-1.500			
0.8157	52203.66	3.1290	3.1290	-0.1774	27.56	1.81	-1.500			
0.8162	52237.65	3.1260	3.1260	-0.1760	27.57	1.82	-1.500			
0.8167	52271.26	3.1230	3.1230	-0.1741	27.58	1.83	-1.500			
0.8173	52304.11	3.1200	3.1200	-0.1727	27.58	1.83	-1.500			
0.8178	52337.39	3.1170	3.1170	-0.1718	27.59	1.84	-1.500			
0.8183	52370.07	3.1140	3.1140	-0.1705	27.59	1.84	-1.500			
0.8188	52402.72	3.1110	3.1110	-0.1696	27.60	1.85	-1.500			
0.8193	52435.23	3.1080	3.1080	-0.1684	27.60	1.85	-1.500			
0.8198	52467.49	3.1050	3.1050	-0.1672	27.61	1.86	-1.500			
0.8203	52499.54	3.1020	3.1020	-0.1661	27.62	1.87	-1.500			
0.8208	52531.29	3.0990	3.0990	-0.1647	27.62	1.87	-1.500			
0.8213	52562.70	3.0960	3.0960	-0.1635	27.63	1.88	-1.500			
0.8218	52594.11	3.0930	3.0930	-0.1621	27.63	1.88	-1.500			
0.8223	52625.00	3.0900	3.0901	-0.1604	27.64	1.89	-1.500			
0.8227	52655.67	3.0870	3.0870	-0.1591	27.64	1.89	-1.500			
0.8232	52686.12	3.0840	3.0840	-0.1581	27.65	1.90	-1.500			
0.8237	52716.17	3.0810	3.0810	-0.1572	27.65	1.90	-1.500			
0.8242	52746.14	3.0780	3.0779	-0.1562	27.66	1.91	-1.500			
0.8246	52776.21	3.0750	3.0751	-0.1549	27.67	1.92	-1.500			
0.8251	52805.84	3.0720	3.0720	-0.1538	27.67	1.92	-1.500			
0.8256	52835.26	3.0690	3.0690	-0.1533	27.68	1.93	-1.500			
0.8260	52864.58	3.0660	3.0661	-0.1524	27.68	1.93	-1.500			
0.8265	52893.83	3.0630	3.0630	-0.1511	27.69	1.94	-1.500			
0.8269	52922.70	3.0600	3.0601	-0.1498	27.69	1.94	-1.500			
0.8274	52951.24	3.0570	3.0570	-0.1487	27.70	1.95	-1.500			
0.8278	52979.70	3.0540	3.0541	-0.1478	27.70	1.95	-1.500			
0.8283	53008.15	3.0510	3.0509	-0.1474	27.71	1.96	-1.500			
0.8287	53036.43	3.0480	3.0479	-0.1458	27.71	1.96	-1.500			
0.8291	53064.08	3.0450	3.0451	-0.1444	27.72	1.97	-1.500			
0.8296	53091.74	3.0420	3.0420	-0.1437	27.72	1.97	-1.500			
0.8300	53119.34	3.0390	3.0391	-0.1433	27.73	1.98	-1.500			
0.8304	53146.67	3.0360	3.0359	-0.1424	27.73	1.98	-1.500			
0.8308	53173.91	3.0330	3.0329	-0.1413	27.74	1.99	-1.500			
0.8313	53201.00	3.0300	3.0301	-0.1408	27.74	1.99	-1.500			
0.8317	53228.05	3.0270	3.0270	-0.1397	27.75	2.00	-1.500			
0.8321	53255.02	3.0240	3.0241	-0.1394	27.75	2.00	-1.500			
0.8325	53281.54	3.0210	3.0210	-0.1379	27.75	2.00	-1.500			
0.8329	53307.89	3.0180	3.0180	-0.1370	27.76	2.01	-1.500			
0.8333	53334.08	3.0150	3.0150	-0.1358	27.76	2.01	-1.500			
0.8338	53360.03	3.0120	3.0120	-0.1348	27.77	2.02	-1.500			
0.8342	53385.83	3.0090	3.0090	-0.1339	27.77	2.02	-1.500			
0.8346	53411.49	3.0060	3.0061	-0.1327	27.78	2.03	-1.500			
0.8349	53436.74	3.0030	3.0030	-0.1294	27.78	2.03	-1.501			
