Ah_balance (normalized)	Ah_balance (mAh)	Voltage - fit (V)	Voltage -  interpolate (V)	dQ/dV (1/V)	Temperature (°C)	Temperature - diff (°C)	Current (C)	R_DC 0ms (mOhm)	R_DC 50ms (mOhm)	R_DC 50 ms PEC (mOhm)
0.1852	11850.92	3.9300	3.9298	-0.0756	25.80	-0.01	-1.500			
0.1854	11868.25	3.9270	3.9268	-0.1050	25.80	-0.01	-1.500			
0.1858	11892.05	3.9240	3.9239	-0.1343	25.80	-0.01	-1.500			
0.1863	11920.37	3.9210	3.9210	-0.1607	25.80	-0.01	-1.500			
0.1868	11953.85	3.9180	3.9181	-0.1866	25.80	-0.01	-1.500			
0.1874	11992.75	3.9150	3.9150	-0.2093	25.80	-0.01	-1.500			
0.1881	12036.33	3.9120	3.9119	-0.2331	25.81	-0.00	-1.500			
0.1888	12083.26	3.9090	3.9091	-0.2557	25.81	-0.00	-1.500			
0.1896	12134.37	3.9060	3.9060	-0.2769	25.81	-0.00	-1.500			
0.1905	12189.54	3.9030	3.9029	-0.2988	25.81	-0.00	-1.500			
0.1914	12249.16	3.9000	3.9000	-0.3198	25.81	-0.00	-1.500			
0.1924	12312.21	3.8970	3.8970	-0.3418	25.81	-0.00	-1.500			
0.1934	12380.45	3.8940	3.8940	-0.3630	25.81	-0.00	-1.500			
0.1946	12452.29	3.8910	3.8910	-0.3832	25.81	-0.00	-1.500			
0.1957	12527.92	3.8880	3.8880	-0.4026	25.81	-0.00	-1.500			
0.1970	12607.49	3.8850	3.8850	-0.4215	25.81	-0.00	-1.500			
0.1983	12690.21	3.8820	3.8820	-0.4385	25.81	-0.00	-1.500			
0.1996	12775.75	3.8790	3.8792	-0.4580	25.81	-0.00	-1.500			
0.2010	12865.62	3.8760	3.8760	-0.4741	25.81	0.00	-1.500			
0.2025	12958.85	3.8730	3.8729	-0.4909	25.81	0.00	-1.500			
0.2040	13055.04	3.8700	3.8700	-0.5061	25.81	0.00	-1.500			
0.2055	13154.04	3.8670	3.8671	-0.5197	25.81	0.00	-1.500			
0.2071	13256.44	3.8640	3.8639	-0.5321	25.81	0.00	-1.500			
0.2087	13359.86	3.8610	3.8610	-0.5411	25.81	0.00	-1.500			
0.2104	13463.11	3.8580	3.8581	-0.5487	25.81	0.00	-1.500			
0.2120	13569.91	3.8550	3.8550	-0.5599	25.81	0.00	-1.500			
0.2137	13678.88	3.8520	3.8520	-0.5666	25.82	0.01	-1.500			
0.2154	13788.30	3.8490	3.8490	-0.5737	25.82	0.01	-1.500			
0.2172	13899.65	3.8460	3.8461	-0.5825	25.82	0.01	-1.500			
0.2189	14012.62	3.8430	3.8430	-0.5885	25.82	0.01	-1.500			
0.2207	14126.17	3.8400	3.8400	-0.5930	25.82	0.01	-1.500			
0.2225	14240.73	3.8370	3.8370	-0.5948	25.82	0.01	-1.500			
0.2243	14355.39	3.8340	3.8340	-0.5987	25.82	0.01	-1.500			
0.2261	14470.41	3.8310	3.8310	-0.6047	25.82	0.01	-1.500			
0.2279	14586.14	3.8280	3.8280	-0.6067	25.82	0.01	-1.500			
0.2297	14702.85	3.8250	3.8249	-0.6108	25.83	0.02	-1.500			
0.2316	14821.57	3.8220	3.8220	-0.6135	25.83	0.02	-1.500			
0.2334	14939.52	3.8190	3.8191	-0.6165	25.83	0.02	-1.500			
0.2353	15059.17	3.8160	3.8160	-0.6194	25.84	0.03	-1.500			
0.2372	15177.61	3.8130	3.8130	-0.6199	25.84	0.03	-1.500			
0.2390	15295.41	3.8100	3.8100	-0.6203	25.84	0.03	-1.500			
0.2409	15415.65	3.8070	3.8070	-0.6229	25.85	0.04	-1.500			
0.2427	15535.75	3.8040	3.8040	-0.6271	25.85	0.04	-1.500			
0.2446	15656.10	3.8010	3.8010	-0.6330	25.85	0.04	-1.500			
0.2465	15778.19	3.7980	3.7979	-0.6317	25.85	0.04	-1.500			
0.2484	15899.95	3.7950	3.7951	-0.6347	25.86	0.05	-1.500			
0.2503	16021.65	3.7920	3.7920	-0.6379	25.86	0.05	-1.500			
0.2523	16144.57	3.7890	3.7889	-0.6403	25.87	0.06	-1.500			
0.2542	16268.11	3.7860	3.7859	-0.6436	25.87	0.06	-1.500			
0.2561	16390.97	3.7830	3.7831	-0.6451	25.87	0.06	-1.500			
0.2581	16515.93	3.7800	3.7800	-0.6460	25.88	0.07	-1.500			
0.2600	16641.56	3.7770	3.7770	-0.6493	25.88	0.07	-1.500			
0.2620	16765.49	3.7740	3.7740	-0.6490	25.89	0.08	-1.500			
0.2639	16889.64	3.7710	3.7711	-0.6512	25.89	0.08	-1.500			
0.2659	17014.64	3.7680	3.7679	-0.6545	25.90	0.09	-1.500			
0.2678	17139.59	3.7650	3.7651	-0.6608	25.90	0.09	-1.500			
0.2698	17267.28	3.7620	3.7619	-0.6634	25.91	0.10	-1.500			
0.2718	17395.21	3.7590	3.7590	-0.6708	25.91	0.10	-1.500			
0.2738	17524.87	3.7560	3.7560	-0.6754	25.92	0.11	-1.500			
0.2759	17654.84	3.7530	3.7530	-0.6811	25.92	0.11	-1.500			
0.2779	17786.91	3.7500	3.7500	-0.6846	25.93	0.12	-1.500			
0.2800	17918.87	3.7470	3.7470	-0.6892	25.93	0.12	-1.500			
0.2820	18051.11	3.7440	3.7440	-0.6921	25.94	0.13	-1.500			
0.2841	18184.79	3.7410	3.7410	-0.7011	25.94	0.13	-1.500			
0.2862	18319.74	3.7380	3.7379	-0.7007	25.95	0.14	-1.500			
0.2884	18454.80	3.7350	3.7351	-0.7061	25.95	0.14	-1.500			
0.2905	18589.62	3.7320	3.7320	-0.7122	25.96	0.15	-1.500			
0.2926	18727.90	3.7290	3.7289	-0.7186	25.96	0.15	-1.500			
0.2948	18865.99	3.7260	3.7260	-0.7234	25.97	0.16	-1.500			
0.2970	19005.79	3.7230	3.7230	-0.7290	25.97	0.16	-1.500			
0.2992	19146.02	3.7200	3.7201	-0.7365	25.98	0.17	-1.500			
0.3014	19289.28	3.7170	3.7169	-0.7472	25.98	0.17	-1.500			
0.3036	19432.11	3.7140	3.7140	-0.7505	25.99	0.18	-1.500			
0.3059	19576.65	3.7110	3.7109	-0.7582	25.99	0.18	-1.500			
0.3082	19724.05	3.7080	3.7081	-0.7650	25.99	0.18	-1.500			
0.3105	19871.85	3.7050	3.7049	-0.7734	26.00	0.19	-1.500			
0.3128	20020.85	3.7020	3.7020	-0.7807	26.00	0.19	-1.500			
0.3152	20171.60	3.6990	3.6991	-0.7885	26.00	0.19	-1.500			
0.3175	20322.27	3.6960	3.6960	-0.7975	26.01	0.20	-1.500			
0.3200	20477.03	3.6930	3.6930	-0.8066	26.01	0.20	-1.500			
0.3224	20632.16	3.6900	3.6900	-0.8139	26.02	0.21	-1.500			
0.3248	20789.63	3.6870	3.6870	-0.8210	26.02	0.21	-1.500			
0.3273	20948.66	3.6840	3.6840	-0.8248	26.02	0.21	-1.500			
0.3298	21108.03	3.6810	3.6810	-0.8302	26.03	0.22	-1.500			
0.3323	21267.10	3.6780	3.6781	-0.8368	26.03	0.22	-1.500			
0.3348	21427.18	3.6750	3.6750	-0.8478	26.04	0.23	-1.500			
0.3373	21589.62	3.6720	3.6720	-0.8590	26.04	0.23	-1.500			
0.3399	21755.51	3.6690	3.6689	-0.8715	26.04	0.23	-1.500			
0.3426	21925.05	3.6660	3.6660	-0.8823	26.05	0.24	-1.500			
0.3453	22096.65	3.6630	3.6629	-0.8889	26.05	0.24	-1.500			
0.3479	22268.67	3.6600	3.6601	-0.8985	26.06	0.25	-1.500			
0.3506	22441.37	3.6570	3.6570	-0.9099	26.06	0.25	-1.500			
0.3534	22615.02	3.6540	3.6539	-0.9182	26.07	0.26	-1.500			
0.3562	22794.67	3.6510	3.6509	-0.9253	26.07	0.26	-1.500			
0.3589	22972.15	3.6480	3.6481	-0.9374	26.08	0.27	-1.500			
0.3618	23153.17	3.6450	3.6450	-0.9524	26.09	0.28	-1.500			
0.3646	23336.47	3.6420	3.6421	-0.9650	26.10	0.29	-1.500			
0.3675	23521.78	3.6390	3.6389	-0.9706	26.10	0.29	-1.500			
0.3705	23708.82	3.6360	3.6359	-0.9832	26.11	0.30	-1.500			
0.3734	23899.50	3.6330	3.6331	-0.9953	26.12	0.31	-1.500			
0.3764	24092.14	3.6300	3.6300	-1.0095	26.12	0.31	-1.500			
0.3795	24287.31	3.6270	3.6270	-1.0178	26.13	0.32	-1.500			
0.3826	24483.81	3.6240	3.6239	-1.0329	26.13	0.32	-1.500			
0.3857	24681.82	3.6210	3.6211	-1.0472	26.13	0.32	-1.500			
0.3888	24885.07	3.6180	3.6180	-1.0671	26.14	0.33	-1.500			
0.3921	25093.39	3.6150	3.6149	-1.0756	26.14	0.33	-1.500			
0.3953	25301.54	3.6120	3.6120	-1.0873	26.14	0.33	-1.500			
0.3986	25510.53	3.6090	3.6090	-1.0999	26.15	0.34	-1.500			
0.4019	25723.15	3.6060	3.6061	-1.1122	26.15	0.34	-1.500			
0.4053	25936.09	3.6030	3.6029	-1.1286	26.16	0.35	-1.500			
0.4087	26154.60	3.6000	3.6001	-1.1436	26.16	0.35	-1.500			
0.4121	26374.48	3.5970	3.5970	-1.1628	26.16	0.35	-1.500			
0.4157	26602.84	3.5940	3.5941	-1.1761	26.17	0.36	-1.500			
0.4192	26831.42	3.5910	3.5909	-1.1857	26.17	0.36	-1.500			
0.4228	27059.07	3.5880	3.5880	-1.1991	26.18	0.37	-1.500			
0.4264	27290.69	3.5850	3.5850	-1.2082	26.18	0.37	-1.500			
0.4300	27520.92	3.5820	3.5819	-1.2261	26.19	0.38	-1.500			
0.4337	27757.31	3.5790	3.5790	-1.2480	26.19	0.38	-1.500			
0.4375	27998.40	3.5760	3.5760	-1.2690	26.20	0.39	-1.500			
0.4414	28247.21	3.5730	3.5730	-1.2929	26.21	0.40	-1.500			
0.4453	28499.05	3.5700	3.5700	-1.3134	26.21	0.40	-1.500			
0.4493	28752.24	3.5670	3.5672	-1.3316	26.22	0.41	-1.500			
0.4533	29010.19	3.5640	3.5639	-1.3516	26.23	0.42	-1.500			
0.4573	29269.34	3.5610	3.5610	-1.3658	26.23	0.42	-1.500			
0.4615	29533.13	3.5580	3.5580	-1.3818	26.24	0.43	-1.500			
0.4656	29800.55	3.5550	3.5550	-1.4003	26.25	0.44	-1.500			
0.4699	30072.48	3.5520	3.5520	-1.4261	26.25	0.44	-1.500			
0.4742	30348.71	3.5490	3.5490	-1.4368	26.26	0.45	-1.500			
0.4785	30626.08	3.5460	3.5459	-1.4551	26.27	0.46	-1.500			
0.4829	30907.56	3.5430	3.5430	-1.4735	26.28	0.47	-1.500			
0.4874	31190.52	3.5400	3.5401	-1.4961	26.28	0.47	-1.500			
0.4919	31479.99	3.5370	3.5370	-1.5150	26.29	0.48	-1.500			
0.4965	31773.56	3.5340	3.5340	-1.5339	26.30	0.49	-1.500			
0.5011	32068.43	3.5310	3.5311	-1.5543	26.31	0.50	-1.500			
0.5058	32371.05	3.5280	3.5279	-1.5782	26.32	0.51	-1.500			
0.5105	32674.18	3.5250	3.5253	-1.5955	26.33	0.52	-1.500	0.370	0.542	
0.5154	32985.87	3.5220	3.5219	-1.6022	26.33	0.52	-1.500			
0.5203	33296.54	3.5190	3.5190	-1.6097	26.34	0.53	-1.500			
0.5251	33607.12	3.5160	3.5161	-1.6166	26.35	0.54	-1.500			
0.5299	33916.26	3.5130	3.5130	-1.6277	26.36	0.55	-1.500			
0.5348	34229.92	3.5100	3.5099	-1.6325	26.38	0.57	-1.500			
0.5397	34540.52	3.5070	3.5070	-1.6452	26.39	0.58	-1.500			
0.5447	34858.52	3.5040	3.5040	-1.6567	26.41	0.60	-1.500			
0.5497	35181.36	3.5010	3.5011	-1.6614	26.42	0.61	-1.500			
0.5547	35501.52	3.4980	3.4980	-1.6656	26.43	0.62	-1.500			
0.5597	35820.35	3.4950	3.4950	-1.6690	26.44	0.63	-1.500			
0.5647	36141.46	3.4920	3.4920	-1.6671	26.45	0.64	-1.500			
0.5698	36464.26	3.4890	3.4890	-1.6727	26.46	0.65	-1.500			
0.5747	36782.50	3.4860	3.4862	-1.6629	26.47	0.66	-1.500			
0.5798	37104.33	3.4830	3.4829	-1.6563	26.48	0.67	-1.500			
0.5847	37422.77	3.4800	3.4800	-1.6523	26.50	0.69	-1.500			
0.5896	37736.30	3.4770	3.4770	-1.6303	26.51	0.70	-1.500			
0.5946	38053.12	3.4740	3.4740	-1.6278	26.53	0.72	-1.500			
0.5994	38364.20	3.4710	3.4710	-1.6057	26.54	0.73	-1.500			
0.6042	38668.94	3.4680	3.4680	-1.5883	26.55	0.74	-1.500			
0.6089	38970.88	3.4650	3.4651	-1.5761	26.57	0.76	-1.500			
0.6136	39272.48	3.4620	3.4619	-1.5609	26.58	0.77	-1.500			
0.6183	39569.89	3.4590	3.4589	-1.5440	26.60	0.79	-1.500			
0.6229	39867.49	3.4560	3.4560	-1.5227	26.61	0.80	-1.500			
0.6275	40159.17	3.4530	3.4531	-1.4994	26.63	0.82	-1.500			
0.6320	40445.62	3.4500	3.4500	-1.4848	26.65	0.84	-1.500			
0.6364	40726.46	3.4470	3.4469	-1.4692	26.66	0.85	-1.500			
0.6407	41003.90	3.4440	3.4440	-1.4479	26.68	0.87	-1.500			
0.6450	41282.29	3.4410	3.4411	-1.4301	26.69	0.88	-1.500			
0.6493	41557.55	3.4380	3.4381	-1.4140	26.71	0.90	-1.500			
0.6536	41828.78	3.4350	3.4350	-1.3913	26.73	0.92	-1.500			
0.6577	42093.15	3.4320	3.4319	-1.3654	26.74	0.93	-1.500			
0.6617	42348.88	3.4290	3.4291	-1.3519	26.76	0.95	-1.500			
0.6657	42606.23	3.4260	3.4260	-1.3325	26.78	0.97	-1.500			
0.6697	42863.53	3.4230	3.4229	-1.3195	26.79	0.98	-1.500			
0.6737	43116.37	3.4200	3.4201	-1.2991	26.81	1.00	-1.500			
0.6776	43364.47	3.4170	3.4171	-1.2810	26.82	1.01	-1.500			
0.6814	43609.41	3.4140	3.4140	-1.2580	26.84	1.03	-1.500			
0.6851	43848.69	3.4110	3.4110	-1.2274	26.86	1.05	-1.500			
0.6888	44081.07	3.4080	3.4080	-1.2014	26.87	1.06	-1.500			
0.6924	44311.55	3.4050	3.4050	-1.1750	26.89	1.08	-1.500			
0.6958	44533.48	3.4020	3.4020	-1.1398	26.91	1.10	-1.500			
0.6992	44749.32	3.3990	3.3990	-1.1086	26.93	1.12	-1.500			
0.7025	44957.55	3.3960	3.3960	-1.0734	26.94	1.13	-1.500			
0.7056	45160.64	3.3930	3.3929	-1.0434	26.96	1.15	-1.500			
0.7087	45357.93	3.3900	3.3900	-1.0127	26.98	1.17	-1.500			
0.7117	45547.58	3.3870	3.3870	-0.9805	26.99	1.18	-1.500			
0.7146	45735.89	3.3840	3.3840	-0.9543	27.01	1.20	-1.500			
0.7174	45915.70	3.3810	3.3810	-0.9288	27.02	1.21	-1.500			
0.7202	46090.74	3.3780	3.3780	-0.9000	27.03	1.22	-1.500			
0.7228	46261.97	3.3750	3.3750	-0.8710	27.04	1.23	-1.500			
0.7254	46426.06	3.3720	3.3721	-0.8443	27.04	1.23	-1.500			
0.7279	46585.01	3.3690	3.3690	-0.8190	27.06	1.25	-1.500			
0.7303	46739.33	3.3660	3.3660	-0.7961	27.07	1.26	-1.500			
0.7326	46888.43	3.3630	3.3630	-0.7742	27.08	1.27	-1.500			
0.7349	47035.13	3.3600	3.3600	-0.7517	27.09	1.28	-1.500			
0.7371	47177.47	3.3570	3.3570	-0.7335	27.10	1.29	-1.500			
0.7393	47317.76	3.3540	3.3540	-0.7145	27.12	1.31	-1.500			
0.7414	47451.99	3.3510	3.3509	-0.6939	27.13	1.32	-1.500			
0.7435	47583.24	3.3480	3.3480	-0.6732	27.14	1.33	-1.500			
0.7455	47710.53	3.3450	3.3450	-0.6562	27.15	1.34	-1.500			
0.7474	47834.33	3.3420	3.3420	-0.6367	27.16	1.35	-1.500			
0.7493	47955.08	3.3390	3.3390	-0.6222	27.17	1.36	-1.500			
0.7511	48071.70	3.3360	3.3359	-0.6051	27.18	1.37	-1.500			
0.7529	48187.28	3.3330	3.3330	-0.5900	27.19	1.38	-1.500			
0.7547	48298.39	3.3300	3.3301	-0.5743	27.20	1.39	-1.500			
0.7564	48407.96	3.3270	3.3270	-0.5598	27.20	1.39	-1.500			
0.7580	48513.27	3.3240	3.3240	-0.5449	27.21	1.40	-1.500			
0.7596	48617.33	3.3210	3.3210	-0.5303	27.22	1.41	-1.500			
0.7612	48716.93	3.3180	3.3180	-0.5155	27.23	1.42	-1.500			
0.7627	48814.40	3.3150	3.3150	-0.5040	27.24	1.43	-1.500			
0.7642	48910.07	3.3120	3.3120	-0.4923	27.25	1.44	-1.500			
0.7657	49003.41	3.3090	3.3089	-0.4784	27.25	1.44	-1.500			
0.7671	49094.04	3.3060	3.3061	-0.4665	27.26	1.45	-1.500			
0.7685	49182.44	3.3030	3.3030	-0.4531	27.27	1.46	-1.500			
0.7698	49268.18	3.3000	3.3000	-0.4442	27.28	1.47	-1.500			
0.7711	49351.45	3.2970	3.2970	-0.4331	27.28	1.47	-1.500			
0.7724	49433.22	3.2940	3.2940	-0.4245	27.29	1.48	-1.500			
0.7737	49514.13	3.2910	3.2910	-0.4167	27.29	1.48	-1.500			
0.7749	49594.25	3.2880	3.2880	-0.4076	27.30	1.49	-1.500			
0.7761	49671.40	3.2850	3.2850	-0.3979	27.31	1.50	-1.500			
0.7773	49747.32	3.2820	3.2821	-0.3880	27.31	1.50	-1.500			
0.7784	49820.20	3.2790	3.2789	-0.3765	27.32	1.51	-1.500			
0.7796	49891.26	3.2760	3.2760	-0.3660	27.33	1.52	-1.500			
0.7806	49960.34	3.2730	3.2730	-0.3582	27.33	1.52	-1.500			
0.7817	50028.07	3.2700	3.2699	-0.3504	27.34	1.53	-1.500			
0.7827	50094.85	3.2670	3.2670	-0.3427	27.34	1.53	-1.500			
0.7837	50159.20	3.2640	3.2641	-0.3337	27.35	1.54	-1.500			
0.7847	50222.78	3.2610	3.2610	-0.3284	27.36	1.55	-1.500			
0.7857	50285.21	3.2580	3.2579	-0.3218	27.36	1.55	-1.500			
0.7867	50345.86	3.2550	3.2550	-0.3161	27.37	1.56	-1.500			
0.7876	50405.68	3.2520	3.2521	-0.3107	27.37	1.56	-1.500			
0.7885	50465.24	3.2490	3.2490	-0.3043	27.38	1.57	-1.500			
0.7894	50523.14	3.2460	3.2460	-0.2989	27.38	1.57	-1.500			
0.7903	50579.88	3.2430	3.2431	-0.2930	27.39	1.58	-1.500			
0.7912	50635.40	3.2400	3.2399	-0.2867	27.39	1.58	-1.500			
0.7920	50690.01	3.2370	3.2370	-0.2811	27.40	1.59	-1.500			
0.7929	50743.29	3.2340	3.2339	-0.2754	27.40	1.59	-1.500			
0.7937	50795.67	3.2310	3.2310	-0.2701	27.41	1.60	-1.500			
0.7945	50846.99	3.2280	3.2281	-0.2666	27.42	1.61	-1.500			
0.7953	50897.21	3.2250	3.2250	-0.2618	27.42	1.61	-1.500			
0.7960	50946.87	3.2220	3.2219	-0.2574	27.43	1.62	-1.500			
0.7968	50995.88	3.2190	3.2190	-0.2539	27.44	1.63	-1.500			
0.7976	51044.49	3.2160	3.2160	-0.2504	27.44	1.63	-1.500			
0.7983	51092.20	3.2130	3.2130	-0.2464	27.45	1.64	-1.500			
0.7990	51139.15	3.2100	3.2099	-0.2431	27.45	1.64	-1.500			
0.7998	51185.44	3.2070	3.2070	-0.2396	27.46	1.65	-1.500			
0.8005	51230.68	3.2040	3.2040	-0.2357	27.47	1.66	-1.500			
0.8012	51275.78	3.2010	3.2009	-0.2328	27.47	1.66	-1.500			
0.8019	51320.19	3.1980	3.1980	-0.2297	27.48	1.67	-1.500			
0.8026	51364.10	3.1950	3.1950	-0.2259	27.48	1.67	-1.500			
0.8032	51407.34	3.1920	3.1920	-0.2225	27.49	1.68	-1.500			
0.8039	51449.55	3.1890	3.1890	-0.2200	27.50	1.69	-1.500			
0.8046	51491.37	3.1860	3.1860	-0.2164	27.50	1.69	-1.500			
0.8052	51532.75	3.1830	3.1830	-0.2132	27.51	1.70	-1.500			
0.8058	51573.38	3.1800	3.1799	-0.2100	27.51	1.70	-1.500			
0.8065	51613.20	3.1770	3.1771	-0.2075	27.52	1.71	-1.500			
0.8071	51652.48	3.1740	3.1740	-0.2057	27.52	1.71	-1.500			
0.8077	51691.86	3.1710	3.1709	-0.2040	27.53	1.72	-1.500			
0.8083	51730.87	3.1680	3.1680	-0.2023	27.53	1.72	-1.500			
0.8089	51769.17	3.1650	3.1650	-0.2000	27.54	1.73	-1.500			
0.8095	51807.95	3.1620	3.1620	-0.1983	27.55	1.74	-1.500			
0.8101	51846.18	3.1590	3.1589	-0.1964	27.55	1.74	-1.500			
0.8107	51883.54	3.1560	3.1560	-0.1934	27.56	1.75	-1.500			
0.8113	51920.28	3.1530	3.1531	-0.1906	27.56	1.75	-1.500			
0.8118	51956.10	3.1500	3.1499	-0.1884	27.57	1.76	-1.500			
0.8124	51991.95	3.1470	3.1471	-0.1866	27.57	1.76	-1.500			
0.8129	52027.67	3.1440	3.1439	-0.1853	27.58	1.77	-1.500			
0.8135	52063.10	3.1410	3.1409	-0.1831	27.58	1.77	-1.500			
0.8140	52098.08	3.1380	3.1381	-0.1822	27.59	1.78	-1.500			
0.8146	52132.94	3.1350	3.1350	-0.1809	27.60	1.79	-1.500			
0.8151	52167.64	3.1320	3.1320	-0.1795	27.60	1.79	-1.500			
0.8157	52201.93	3.1290	3.1289	-0.1781	27.61	1.80	-1.500			
0.8162	52235.92	3.1260	3.1259	-0.1760	27.61	1.80	-1.500			
0.8167	52269.58	3.1230	3.1231	-0.1747	27.62	1.81	-1.500			
0.8172	52303.07	3.1200	3.1200	-0.1737	27.62	1.81	-1.500			
0.8178	52336.46	3.1170	3.1170	-0.1724	27.63	1.82	-1.500			
0.8183	52369.12	3.1140	3.1140	-0.1704	27.63	1.82	-1.500			
0.8188	52401.73	3.1110	3.1109	-0.1693	27.64	1.83	-1.500			
0.8193	52434.15	3.1080	3.1080	-0.1684	27.65	1.84	-1.500			
0.8198	52466.51	3.1050	3.1050	-0.1666	27.65	1.84	-1.500			
0.8203	52498.46	3.1020	3.1020	-0.1655	27.66	1.85	-1.500			
0.8208	52530.07	3.0990	3.0990	-0.1637	27.66	1.85	-1.500			
0.8213	52561.26	3.0960	3.0961	-0.1620	27.67	1.86	-1.500			
0.8218	52592.19	3.0930	3.0929	-0.1608	27.67	1.86	-1.500			
0.8222	52622.77	3.0900	3.0900	-0.1593	27.67	1.86	-1.500			
0.8227	52653.25	3.0870	3.0869	-0.1583	27.68	1.87	-1.500			
0.8232	52683.36	3.0840	3.0840	-0.1574	27.68	1.87	-1.500			
0.8237	52713.65	3.0810	3.0810	-0.1569	27.69	1.88	-1.500			
0.8241	52743.57	3.0780	3.0781	-0.1559	27.69	1.88	-1.500			
0.8246	52773.52	3.0750	3.0749	-0.1545	27.70	1.89	-1.500			
0.8250	52803.11	3.0720	3.0720	-0.1540	27.70	1.89	-1.500			
0.8255	52832.74	3.0690	3.0692	-0.1526	27.71	1.90	-1.500			
0.8260	52862.01	3.0660	3.0658	-0.1513	27.71	1.90	-1.500			
0.8264	52890.88	3.0630	3.0630	-0.1500	27.72	1.91	-1.500			
0.8269	52919.36	3.0600	3.0601	-0.1493	27.73	1.92	-1.500			
0.8273	52947.95	3.0570	3.0568	-0.1481	27.73	1.92	-1.500			
0.8278	52976.31	3.0540	3.0540	-0.1473	27.74	1.93	-1.500			
0.8282	53004.51	3.0510	3.0510	-0.1467	27.74	1.93	-1.500			
0.8286	53032.42	3.0480	3.0481	-0.1458	27.75	1.94	-1.500			
0.8291	53060.81	3.0450	3.0449	-0.1452	27.76	1.95	-1.500			
0.8295	53088.55	3.0420	3.0419	-0.1437	27.76	1.95	-1.500			
0.8299	53115.97	3.0390	3.0391	-0.1429	27.77	1.96	-1.500			
0.8304	53143.19	3.0360	3.0360	-0.1417	27.77	1.96	-1.500			
0.8308	53170.29	3.0330	3.0329	-0.1412	27.78	1.97	-1.500			
0.8312	53197.32	3.0300	3.0300	-0.1404	27.78	1.97	-1.500			
0.8316	53223.99	3.0270	3.0270	-0.1394	27.79	1.98	-1.500			
0.8320	53250.74	3.0240	3.0240	-0.1387	27.80	1.99	-1.500			
0.8325	53277.54	3.0210	3.0209	-0.1384	27.80	1.99	-1.500			
0.8329	53304.08	3.0180	3.0180	-0.1370	27.81	2.00	-1.500			
0.8333	53330.02	3.0150	3.0151	-0.1366	27.81	2.00	-1.500			
0.8337	53356.20	3.0120	3.0121	-0.1360	27.82	2.01	-1.500			
0.8341	53382.26	3.0090	3.0089	-0.1355	27.82	2.01	-1.500			
0.8345	53408.03	3.0060	3.0058	-0.1360	27.83	2.02	-1.500			
0.8349	53434.25	3.0030	3.0031	-0.1386	27.83	2.02	-1.499			
