Ah_balance (normalized)	Ah_balance (mAh)	Voltage - fit (V)	Voltage -  interpolate (V)	dQ/dV (1/V)	Temperature (°C)	Temperature - diff (°C)	Current (C)	R_DC 0ms (mOhm)	R_DC 50ms (mOhm)	R_DC 50 ms PEC (mOhm)
0.2901	18567.90	3.9720	3.9720	0.8086	26.90	0.92	1.500			
0.2926	18725.84	3.9690	3.9690	0.8379	26.90	0.92	1.500			
0.2952	18893.37	3.9660	3.9659	0.8688	26.90	0.92	1.500			
0.2978	19061.19	3.9630	3.9630	0.8829	26.90	0.92	1.500			
0.3005	19234.42	3.9600	3.9600	0.8943	26.90	0.92	1.500			
0.3032	19407.14	3.9570	3.9570	0.9015	26.89	0.91	1.500			
0.3059	19580.56	3.9540	3.9540	0.9055	26.89	0.91	1.500			
0.3087	19755.77	3.9510	3.9510	0.9114	26.89	0.91	1.500			
0.3114	19931.82	3.9480	3.9479	0.9101	26.89	0.91	1.500			
0.3142	20107.21	3.9450	3.9452	0.9148	26.88	0.90	1.500			
0.3169	20282.81	3.9420	3.9420	0.9147	26.88	0.90	1.500			
0.3197	20458.44	3.9390	3.9389	0.9196	26.88	0.90	1.500			
0.3224	20633.82	3.9360	3.9359	0.9207	26.88	0.90	1.500			
0.3252	20811.10	3.9330	3.9331	0.9245	26.88	0.90	1.500			
0.3280	20990.30	3.9300	3.9299	0.9325	26.87	0.89	1.500			
0.3308	21171.02	3.9270	3.9270	0.9344	26.87	0.89	1.500			
0.3336	21349.70	3.9240	3.9240	0.9366	26.87	0.89	1.500			
0.3364	21528.28	3.9210	3.9210	0.9443	26.87	0.89	1.500			
0.3392	21710.39	3.9180	3.9181	0.9570	26.86	0.88	1.500			
0.3421	21894.04	3.9150	3.9149	0.9605	26.86	0.88	1.500			
0.3450	22079.48	3.9120	3.9118	0.9689	26.86	0.88	1.500			
0.3479	22265.85	3.9090	3.9092	0.9788	26.86	0.88	1.500			
0.3509	22456.00	3.9060	3.9060	0.9887	26.85	0.87	1.500			
0.3539	22647.82	3.9030	3.9030	0.9967	26.85	0.87	1.500			
0.3569	22838.74	3.9000	3.8999	1.0018	26.85	0.87	1.500			
0.3599	23031.02	3.8970	3.8971	1.0133	26.84	0.86	1.500			
0.3629	23228.19	3.8940	3.8940	1.0261	26.84	0.86	1.500			
0.3660	23425.78	3.8910	3.8909	1.0327	26.83	0.85	1.500			
0.3691	23623.53	3.8880	3.8880	1.0460	26.83	0.85	1.500			
0.3723	23825.65	3.8850	3.8850	1.0578	26.83	0.85	1.500			
0.3755	24030.41	3.8820	3.8820	1.0647	26.82	0.84	1.500			
0.3787	24236.73	3.8790	3.8790	1.0744	26.82	0.84	1.500			
0.3819	24443.88	3.8760	3.8761	1.0816	26.81	0.83	1.500			
0.3852	24652.16	3.8730	3.8730	1.0983	26.81	0.83	1.500			
0.3885	24863.37	3.8700	3.8699	1.1088	26.80	0.82	1.500			
0.3918	25075.10	3.8670	3.8670	1.1228	26.79	0.81	1.500			
0.3952	25292.96	3.8640	3.8639	1.1440	26.79	0.81	1.500			
0.3987	25515.78	3.8610	3.8610	1.1581	26.79	0.81	1.500			
0.4022	25739.48	3.8580	3.8579	1.1734	26.78	0.80	1.500			
0.4057	25967.92	3.8550	3.8551	1.1845	26.78	0.80	1.500			
0.4093	26194.61	3.8520	3.8520	1.2013	26.77	0.79	1.500			
0.4129	26427.90	3.8490	3.8489	1.2231	26.77	0.79	1.500			
0.4166	26663.36	3.8460	3.8461	1.2425	26.76	0.78	1.500			
0.4204	26902.56	3.8430	3.8429	1.2638	26.76	0.78	1.500			
0.4242	27147.51	3.8400	3.8400	1.2917	26.75	0.77	1.500			
0.4281	27396.42	3.8370	3.8370	1.3174	26.74	0.76	1.500			
0.4321	27653.16	3.8340	3.8340	1.3378	26.73	0.75	1.500			
0.4361	27911.12	3.8310	3.8310	1.3604	26.72	0.74	1.500			
0.4402	28174.56	3.8280	3.8281	1.3935	26.71	0.73	1.500			
0.4444	28444.77	3.8250	3.8247	1.4265	26.70	0.72	1.500			
0.4488	28721.82	3.8220	3.8220	1.4558	26.69	0.71	1.500			
0.4532	29005.41	3.8190	3.8190	1.4829	26.68	0.70	1.500			
0.4577	29293.27	3.8160	3.8160	1.5187	26.67	0.69	1.500			
0.4623	29586.15	3.8130	3.8131	1.5535	26.66	0.68	1.500			
0.4670	29888.22	3.8100	3.8100	1.5887	26.65	0.67	1.500			
0.4718	30195.80	3.8070	3.8070	1.6305	26.64	0.66	1.500			
0.4768	30513.50	3.8040	3.8041	1.6692	26.63	0.65	1.500			
0.4819	30838.69	3.8010	3.8010	1.7185	26.62	0.64	1.500			
0.4871	31173.09	3.7980	3.7980	1.7663	26.61	0.63	1.500			
0.4924	31514.57	3.7950	3.7950	1.8185	26.59	0.61	1.500			
0.4980	31871.51	3.7920	3.7921	1.8845	26.58	0.60	1.500			
0.5038	32241.00	3.7890	3.7889	1.9241	26.57	0.59	1.500			
0.5096	32615.90	3.7860	3.7860	1.9837	26.55	0.57	1.500			
0.5156	32999.42	3.7830	3.7830	2.0271	26.53	0.55	1.500			
0.5218	33394.48	3.7800	3.7800	2.0907	26.52	0.54	1.500			
0.5281	33800.29	3.7770	3.7770	2.1354	26.50	0.52	1.500			
0.5347	34219.20	3.7740	3.7740	2.2042	26.48	0.50	1.500			
0.5413	34643.60	3.7710	3.7710	2.2309	26.47	0.49	1.500			
0.5482	35086.35	3.7680	3.7680	2.2477	26.45	0.47	1.500			
0.5549	35511.99	3.7650	3.7651	2.2893	26.43	0.45	1.500			
0.5618	35954.53	3.7620	3.7620	2.3458	26.41	0.43	1.500			
0.5689	36409.85	3.7590	3.7590	2.3591	26.39	0.41	1.500	0.365	0.448	
0.5762	36876.21	3.7560	3.7561	2.3567	26.37	0.39	1.500			
0.5833	37330.66	3.7530	3.7530	2.3239	26.35	0.37	1.500			
0.5901	37767.50	3.7500	3.7501	2.2530	26.33	0.35	1.500			
0.5968	38192.90	3.7470	3.7470	2.2243	26.32	0.34	1.500			
0.6035	38623.50	3.7440	3.7440	2.1926	26.30	0.32	1.500			
0.6100	39041.23	3.7410	3.7410	2.1852	26.28	0.30	1.500			
0.6164	39451.11	3.7380	3.7382	2.1475	26.27	0.29	1.500			
0.6228	39860.19	3.7350	3.7350	2.1533	26.25	0.27	1.500			
0.6293	40273.61	3.7320	3.7320	2.1393	26.24	0.26	1.500			
0.6357	40684.73	3.7290	3.7290	2.2000	26.22	0.24	1.500			
0.6423	41104.36	3.7260	3.7260	2.2305	26.21	0.23	1.500			
0.6491	41539.52	3.7230	3.7230	2.2692	26.19	0.21	1.500			
0.6560	41981.94	3.7200	3.7200	2.3112	26.18	0.20	1.500			
0.6629	42427.72	3.7170	3.7170	2.3661	26.17	0.19	1.500			
0.6700	42882.82	3.7140	3.7140	2.4403	26.16	0.18	1.500			
0.6774	43356.76	3.7110	3.7110	2.5342	26.14	0.16	1.500			
0.6853	43856.14	3.7080	3.7080	2.6520	26.13	0.15	1.500			
0.6934	44378.06	3.7050	3.7050	2.7542	26.11	0.13	1.500			
0.7019	44924.07	3.7020	3.7020	2.7993	26.10	0.12	1.500			
0.7104	45466.36	3.6990	3.6991	2.8536	26.08	0.10	1.500			
0.7190	46016.88	3.6960	3.6958	2.8544	26.06	0.08	1.500			
0.7277	46572.63	3.6930	3.6930	2.7466	26.05	0.07	1.500			
0.7360	47103.93	3.6900	3.6901	2.6625	26.05	0.07	1.500			
0.7436	47591.82	3.6870	3.6867	2.4237	26.04	0.06	1.500			
0.7506	48040.92	3.6840	3.6841	2.2217	26.03	0.05	1.500			
0.7569	48444.31	3.6810	3.6811	2.0097	26.03	0.05	1.500			
0.7625	48797.02	3.6780	3.6780	1.8076	26.02	0.04	1.500			
0.7677	49130.37	3.6750	3.6750	1.6973	26.01	0.03	1.500			
0.7725	49439.39	3.6720	3.6719	1.5912	26.01	0.03	1.500			
0.7771	49732.67	3.6690	3.6690	1.5014	26.00	0.02	1.500			
0.7814	50012.31	3.6660	3.6660	1.4253	26.00	0.02	1.500			
0.7856	50278.38	3.6630	3.6630	1.3676	25.99	0.01	1.500			
0.7895	50530.46	3.6600	3.6599	1.3092	25.99	0.01	1.500			
0.7933	50770.13	3.6570	3.6569	1.2669	25.98	0.00	1.500			
0.7970	51007.53	3.6540	3.6540	1.2416	25.98	-0.00	1.500			
0.8006	51239.26	3.6510	3.6510	1.2340	25.97	-0.01	1.500			
0.8043	51475.23	3.6480	3.6480	1.2378	25.96	-0.02	1.500			
0.8080	51711.02	3.6450	3.6449	1.2421	25.96	-0.02	1.500			
0.8117	51949.03	3.6420	3.6420	1.2570	25.95	-0.03	1.500			
0.8155	52190.54	3.6390	3.6391	1.2739	25.95	-0.03	1.500			
0.8194	52438.50	3.6360	3.6360	1.2890	25.94	-0.04	1.500			
0.8233	52689.15	3.6330	3.6330	1.3020	25.94	-0.04	1.500			
0.8272	52941.46	3.6300	3.6300	1.3029	25.93	-0.05	1.500			
0.8312	53195.89	3.6270	3.6270	1.3004	25.93	-0.05	1.500			
0.8351	53444.12	3.6240	3.6240	1.3008	25.93	-0.05	1.500			
0.8389	53692.15	3.6210	3.6210	1.2960	25.92	-0.06	1.500			
0.8428	53938.89	3.6180	3.6180	1.2966	25.92	-0.06	1.500			
0.8467	54188.93	3.6150	3.6150	1.2973	25.92	-0.06	1.500			
0.8506	54439.54	3.6120	3.6120	1.2941	25.92	-0.06	1.500			
0.8545	54689.65	3.6090	3.6091	1.2893	25.92	-0.06	1.500			
0.8584	54936.29	3.6060	3.6060	1.2859	25.91	-0.07	1.500			
0.8622	55179.67	3.6030	3.6030	1.2742	25.91	-0.07	1.500			
0.8660	55425.45	3.6000	3.5999	1.2609	25.91	-0.07	1.500			
0.8698	55666.58	3.5970	3.5968	1.2464	25.91	-0.07	1.500			
0.8735	55906.95	3.5940	3.5942	1.2352	25.91	-0.07	1.500			
0.8772	56141.92	3.5910	3.5911	1.2219	25.91	-0.07	1.500			
0.8809	56376.04	3.5880	3.5879	1.2091	25.91	-0.07	1.500			
0.8844	56603.96	3.5850	3.5850	1.1920	25.92	-0.06	1.500			
0.8880	56829.08	3.5820	3.5820	1.1941	25.92	-0.06	1.500			
0.8915	57057.75	3.5790	3.5791	1.2065	25.92	-0.06	1.500			
0.8952	57292.28	3.5760	3.5758	1.2077	25.92	-0.06	1.500			
0.8989	57528.33	3.5730	3.5730	1.1927	25.93	-0.05	1.500			
0.9027	57770.19	3.5700	3.5699	1.1370	25.94	-0.04	1.500			
0.9061	57992.52	3.5670	3.5671	1.0446	25.95	-0.03	1.500			
0.9093	58195.36	3.5640	3.5641	0.9187	25.95	-0.03	1.500			
0.9118	58358.04	3.5610	3.5611	0.7653	25.96	-0.02	1.500			
0.9138	58481.25	3.5580	3.5581	0.6217	25.97	-0.01	1.500			
0.9153	58578.36	3.5550	3.5549	0.5033	25.97	-0.01	1.500			
0.9165	58656.58	3.5520	3.5520	0.3893	25.97	-0.01	1.500			
0.9175	58718.87	3.5490	3.5489	0.3222	25.97	-0.01	1.500			
0.9183	58768.75	3.5460	3.5459	0.2693	25.98	-0.00	1.500			
0.9189	58812.64	3.5430	3.5429	0.2310	25.98	-0.00	1.500			
0.9195	58850.58	3.5400	3.5400	0.1969	25.98	-0.00	1.500			
0.9201	58884.87	3.5370	3.5371	0.1749	25.98	0.00	1.500			
0.9205	58915.18	3.5340	3.5341	0.1548	25.98	0.00	1.500			
0.9210	58942.63	3.5310	3.5310	0.1349	25.98	0.00	1.500			
0.9214	58966.91	3.5280	3.5279	0.1181	25.98	0.00	1.500			
0.9217	58987.72	3.5250	3.5250	0.1012	25.98	0.00	1.500			
0.9220	59005.59	3.5220	3.5222	0.0848	25.99	0.01	1.500			
0.9222	59020.43	3.5190	3.5192	0.0681	25.99	0.01	1.500			
0.9224	59031.89	3.5160	3.5167	0.0513	25.99	0.01	1.500			
