Ah_balance (normalized)	Ah_balance (mAh)	Voltage - fit (V)	Voltage -  interpolate (V)	dQ/dV (1/V)	Temperature (°C)	Temperature - diff (°C)	Current (C)	R_DC 0ms (mOhm)	R_DC 50ms (mOhm)	R_DC 50 ms PEC (mOhm)
0.2853	18258.85	3.9910	3.9910	0.8243	27.39	1.43	1.500			
0.2877	18415.02	3.9880	3.9880	0.8154	27.39	1.43	1.500			
0.2902	18572.74	3.9850	3.9851	0.8264	27.38	1.42	1.500			
0.2927	18733.16	3.9820	3.9819	0.8340	27.37	1.41	1.500			
0.2952	18894.26	3.9790	3.9790	0.8428	27.37	1.41	1.500			
0.2978	19056.34	3.9760	3.9761	0.8457	27.36	1.40	1.500			
0.3003	19220.35	3.9730	3.9730	0.8537	27.36	1.40	1.500			
0.3029	19385.10	3.9700	3.9700	0.8596	27.35	1.39	1.500			
0.3055	19549.73	3.9670	3.9670	0.8594	27.34	1.38	1.500			
0.3081	19715.39	3.9640	3.9640	0.8621	27.34	1.38	1.500			
0.3107	19882.24	3.9610	3.9610	0.8598	27.33	1.37	1.500			
0.3132	20046.42	3.9580	3.9581	0.8657	27.32	1.36	1.500			
0.3158	20212.97	3.9550	3.9549	0.8708	27.32	1.36	1.500			
0.3184	20379.73	3.9520	3.9520	0.8705	27.31	1.35	1.500			
0.3210	20547.17	3.9490	3.9492	0.8756	27.30	1.34	1.500			
0.3237	20716.67	3.9460	3.9460	0.8809	27.30	1.34	1.500			
0.3263	20886.01	3.9430	3.9429	0.8845	27.29	1.33	1.500			
0.3290	21055.70	3.9400	3.9400	0.8923	27.28	1.32	1.500			
0.3316	21225.42	3.9370	3.9370	0.8964	27.27	1.31	1.500			
0.3344	21400.30	3.9340	3.9340	0.9031	27.26	1.30	1.500			
0.3371	21574.68	3.9310	3.9310	0.9126	27.25	1.29	1.500			
0.3399	21750.60	3.9280	3.9280	0.9140	27.24	1.28	1.500			
0.3426	21926.90	3.9250	3.9250	0.9174	27.24	1.28	1.500			
0.3454	22102.98	3.9220	3.9221	0.9197	27.23	1.27	1.500			
0.3481	22279.18	3.9190	3.9190	0.9224	27.22	1.26	1.500			
0.3509	22456.20	3.9160	3.9160	0.9282	27.21	1.25	1.500			
0.3537	22634.12	3.9130	3.9130	0.9385	27.21	1.25	1.500			
0.3565	22813.47	3.9100	3.9100	0.9464	27.20	1.24	1.500			
0.3594	22998.69	3.9070	3.9069	0.9555	27.19	1.23	1.500			
0.3622	23182.90	3.9040	3.9040	0.9659	27.19	1.23	1.500			
0.3651	23369.38	3.9010	3.9011	0.9734	27.18	1.22	1.500			
0.3681	23557.35	3.8980	3.8980	0.9800	27.17	1.21	1.500			
0.3710	23745.87	3.8950	3.8950	0.9883	27.16	1.20	1.500			
0.3740	23934.82	3.8920	3.8919	0.9934	27.16	1.20	1.500			
0.3770	24127.44	3.8890	3.8890	1.0028	27.15	1.19	1.500			
0.3800	24322.05	3.8860	3.8861	1.0140	27.14	1.18	1.500			
0.3831	24517.15	3.8830	3.8830	1.0178	27.13	1.17	1.500			
0.3861	24713.06	3.8800	3.8800	1.0332	27.12	1.16	1.500			
0.3892	24910.11	3.8770	3.8770	1.0488	27.11	1.15	1.500			
0.3924	25112.96	3.8740	3.8740	1.0622	27.10	1.14	1.500			
0.3956	25320.13	3.8710	3.8710	1.0740	27.09	1.13	1.500			
0.3989	25528.16	3.8680	3.8681	1.0833	27.08	1.12	1.500			
0.4021	25737.55	3.8650	3.8651	1.0965	27.07	1.11	1.500			
0.4055	25949.73	3.8620	3.8620	1.1043	27.05	1.09	1.500			
0.4087	26159.31	3.8590	3.8589	1.1115	27.04	1.08	1.500			
0.4121	26373.11	3.8560	3.8560	1.1268	27.03	1.07	1.500			
0.4155	26590.92	3.8530	3.8531	1.1468	27.02	1.06	1.500			
0.4189	26811.92	3.8500	3.8498	1.1703	27.01	1.05	1.500			
0.4225	27039.61	3.8470	3.8471	1.1883	27.00	1.04	1.500			
0.4261	27269.65	3.8440	3.8440	1.2067	26.99	1.03	1.500			
0.4298	27507.40	3.8410	3.8410	1.2226	26.98	1.02	1.500			
0.4334	27740.65	3.8380	3.8380	1.2368	26.97	1.01	1.500			
0.4372	27979.30	3.8350	3.8351	1.2593	26.95	0.99	1.500			
0.4410	28221.83	3.8320	3.8320	1.2810	26.94	0.98	1.500			
0.4448	28468.17	3.8290	3.8290	1.3021	26.93	0.97	1.500			
0.4488	28723.13	3.8260	3.8260	1.3262	26.91	0.95	1.500			
0.4528	28980.26	3.8230	3.8230	1.3513	26.90	0.94	1.500			
0.4569	29244.19	3.8200	3.8200	1.3614	26.88	0.92	1.500			
0.4610	29503.58	3.8170	3.8170	1.3910	26.87	0.91	1.500			
0.4652	29773.56	3.8140	3.8140	1.4131	26.86	0.90	1.500			
0.4695	30046.17	3.8110	3.8108	1.4416	26.84	0.88	1.500			
0.4739	30326.44	3.8080	3.8081	1.4691	26.82	0.86	1.500			
0.4783	30613.92	3.8050	3.8050	1.4924	26.81	0.85	1.500			
0.4828	30901.86	3.8020	3.8020	1.5176	26.79	0.83	1.500			
0.4874	31193.84	3.7990	3.7990	1.5432	26.78	0.82	1.500			
0.4921	31493.82	3.7960	3.7960	1.5698	26.76	0.80	1.500			
0.4968	31797.73	3.7930	3.7931	1.5956	26.74	0.78	1.500			
0.5016	32102.39	3.7900	3.7901	1.6134	26.73	0.77	1.500			
0.5064	32412.57	3.7870	3.7870	1.6472	26.72	0.76	1.500			
0.5114	32732.04	3.7840	3.7836	1.6706	26.70	0.74	1.500	0.338	0.477	
0.5165	33057.72	3.7810	3.7811	1.6944	26.69	0.73	1.500			
0.5217	33391.73	3.7780	3.7781	1.7120	26.67	0.71	1.500			
0.5270	33728.66	3.7750	3.7749	1.7278	26.66	0.70	1.500			
0.5320	34048.83	3.7720	3.7720	1.6938	26.64	0.68	1.500			
0.5371	34372.26	3.7690	3.7690	1.6915	26.62	0.66	1.500			
0.5422	34697.65	3.7660	3.7660	1.7023	26.61	0.65	1.500			
0.5472	35022.34	3.7630	3.7631	1.7087	26.59	0.63	1.500			
0.5524	35353.12	3.7600	3.7600	1.7312	26.57	0.61	1.500			
0.5576	35685.75	3.7570	3.7570	1.7323	26.56	0.60	1.500			
0.5628	36021.81	3.7540	3.7541	1.7530	26.54	0.58	1.500			
0.5681	36358.56	3.7510	3.7509	1.7632	26.52	0.56	1.500			
0.5734	36698.63	3.7480	3.7481	1.7879	26.51	0.55	1.500			
0.5788	37043.36	3.7450	3.7450	1.8156	26.50	0.54	1.500			
0.5843	37396.23	3.7420	3.7420	1.8643	26.48	0.52	1.500			
0.5899	37755.11	3.7390	3.7390	1.8982	26.47	0.51	1.500			
0.5957	38123.91	3.7360	3.7360	1.9477	26.46	0.50	1.500			
0.6017	38506.38	3.7330	3.7330	1.9752	26.44	0.48	1.500			
0.6076	38887.24	3.7300	3.7300	2.0159	26.42	0.46	1.500			
0.6137	39276.81	3.7270	3.7271	2.0695	26.41	0.45	1.500			
0.6199	39675.96	3.7240	3.7238	2.1526	26.39	0.43	1.500			
0.6264	40092.38	3.7210	3.7211	2.2407	26.37	0.41	1.500			
0.6333	40533.97	3.7180	3.7180	2.2694	26.36	0.40	1.500			
0.6403	40976.05	3.7150	3.7151	2.3118	26.34	0.38	1.500			
0.6472	41423.70	3.7120	3.7121	2.3364	26.32	0.36	1.500			
0.6544	41878.54	3.7090	3.7090	2.3183	26.31	0.35	1.500			
0.6614	42327.17	3.7060	3.7060	2.2525	26.29	0.33	1.500			
0.6681	42757.03	3.7030	3.7030	2.1519	26.27	0.31	1.500			
0.6744	43160.42	3.7000	3.7000	2.0115	26.26	0.30	1.500			
0.6802	43529.65	3.6970	3.6971	1.8656	26.25	0.29	1.500			
0.6855	43870.98	3.6940	3.6940	1.7359	26.24	0.28	1.500			
0.6904	44183.30	3.6910	3.6910	1.6096	26.23	0.27	1.500			
0.6951	44483.71	3.6880	3.6880	1.5382	26.22	0.26	1.500			
0.6995	44768.13	3.6850	3.6850	1.4725	26.20	0.24	1.500			
0.7038	45044.54	3.6820	3.6820	1.4163	26.19	0.23	1.500			
0.7080	45310.41	3.6790	3.6790	1.3682	26.18	0.22	1.500			
0.7119	45563.52	3.6760	3.6760	1.3276	26.16	0.20	1.500			
0.7158	45813.37	3.6730	3.6730	1.2983	26.15	0.19	1.500			
0.7196	46056.70	3.6700	3.6699	1.2777	26.14	0.18	1.500			
0.7234	46297.92	3.6670	3.6671	1.2713	26.13	0.17	1.500			
0.7272	46540.92	3.6640	3.6640	1.2651	26.12	0.16	1.500			
0.7310	46785.55	3.6610	3.6609	1.2637	26.11	0.15	1.500			
0.7348	47026.72	3.6580	3.6580	1.2643	26.10	0.14	1.500			
0.7386	47270.47	3.6550	3.6550	1.2644	26.09	0.13	1.500			
0.7424	47515.24	3.6520	3.6519	1.2615	26.08	0.12	1.500			
0.7462	47757.37	3.6490	3.6490	1.2540	26.07	0.11	1.500			
0.7499	47996.73	3.6460	3.6461	1.2407	26.06	0.10	1.500			
0.7537	48235.18	3.6430	3.6430	1.2367	26.05	0.09	1.500			
0.7574	48472.50	3.6400	3.6400	1.2210	26.04	0.08	1.500			
0.7610	48702.92	3.6370	3.6370	1.2106	26.03	0.07	1.500			
0.7646	48934.21	3.6340	3.6340	1.2055	26.02	0.06	1.500			
0.7682	49165.46	3.6310	3.6310	1.2011	26.01	0.05	1.500			
0.7718	49396.27	3.6280	3.6280	1.1892	26.01	0.05	1.500			
0.7754	49625.99	3.6250	3.6250	1.1797	26.00	0.04	1.500			
0.7789	49851.09	3.6220	3.6221	1.1621	25.99	0.03	1.500			
0.7824	50076.34	3.6190	3.6190	1.1447	25.98	0.02	1.500			
0.7858	50291.97	3.6160	3.6160	1.1221	25.98	0.02	1.500			
0.7891	50505.47	3.6130	3.6130	1.0988	25.97	0.01	1.500			
0.7924	50713.19	3.6100	3.6101	1.0769	25.96	0.00	1.500			
0.7956	50918.63	3.6070	3.6070	1.0570	25.96	0.00	1.500			
0.7988	51120.20	3.6040	3.6040	1.0323	25.96	0.00	1.500			
0.8018	51316.52	3.6010	3.6010	1.0071	25.96	0.00	1.500			
0.8048	51509.84	3.5980	3.5980	0.9779	25.96	0.00	1.500			
0.8077	51694.22	3.5950	3.5950	0.9380	25.96	0.00	1.500			
0.8106	51875.46	3.5920	3.5920	0.8892	25.96	0.00	1.500			
0.8132	52043.20	3.5890	3.5890	0.8261	25.96	0.00	1.500			
0.8156	52200.14	3.5860	3.5860	0.7559	25.96	0.00	1.500			
0.8178	52339.41	3.5830	3.5830	0.6739	25.96	0.00	1.500			
0.8197	52460.41	3.5800	3.5800	0.5889	25.96	0.00	1.500			
0.8213	52563.96	3.5770	3.5770	0.5057	25.96	0.00	1.500			
0.8227	52649.78	3.5740	3.5740	0.4289	25.96	0.00	1.500			
0.8238	52722.78	3.5710	3.5709	0.3686	25.96	0.00	1.500			
0.8247	52783.01	3.5680	3.5680	0.3132	25.96	0.00	1.500			
0.8256	52835.73	3.5650	3.5650	0.2725	25.96	0.00	1.500			
0.8263	52882.63	3.5620	3.5621	0.2370	25.96	0.00	1.500			
0.8269	52924.03	3.5590	3.5589	0.2112	25.96	0.00	1.500			
0.8275	52960.25	3.5560	3.5561	0.1885	25.96	0.00	1.500			
0.8280	52994.21	3.5530	3.5530	0.1694	25.96	0.00	1.500			
0.8285	53024.90	3.5500	3.5501	0.1538	25.96	0.00	1.500			
0.8289	53052.55	3.5470	3.5469	0.1376	25.96	0.00	1.500			
0.8293	53077.22	3.5440	3.5441	0.1223	25.96	0.00	1.500			
0.8297	53099.19	3.5410	3.5411	0.1074	25.96	0.00	1.500			
0.8300	53118.44	3.5380	3.5380	0.0931	25.96	0.00	1.500			
0.8302	53135.51	3.5350	3.5351	0.0791	25.96	0.00	1.500			
0.8305	53148.88	3.5320	3.5322	0.0641	25.96	0.00	1.500			
0.8306	53159.80	3.5290	3.5295	0.0496	25.96	0.00	1.500			
0.8307	53167.95	3.5260	3.5270	0.0352	25.96	0.00	1.500			
