Ah_balance (normalized)	Ah_balance (mAh)	Voltage - fit (V)	Voltage -  interpolate (V)	dQ/dV (1/V)	Temperature (°C)	Temperature - diff (°C)	Current (C)	R_DC 0ms (mOhm)	R_DC 50ms (mOhm)	R_DC 50 ms PEC (mOhm)
0.4610	29506.61	3.8190	3.8190	1.5054	26.81	0.83	1.500			
0.4655	29791.33	3.8160	3.8160	1.5034	26.81	0.83	1.500			
0.4700	30080.24	3.8130	3.8130	1.5039	26.80	0.82	1.500			
0.4746	30372.60	3.8100	3.8100	1.5417	26.79	0.81	1.500			
0.4792	30669.11	3.8070	3.8070	1.5819	26.79	0.81	1.500			
0.4840	30977.66	3.8040	3.8041	1.6273	26.78	0.80	1.500			
0.4890	31293.80	3.8010	3.8010	1.6727	26.77	0.79	1.500			
0.4941	31624.40	3.7980	3.7979	1.7101	26.76	0.78	1.500			
0.4993	31956.49	3.7950	3.7950	1.7566	26.75	0.77	1.500			
0.5046	32292.94	3.7920	3.7921	1.8118	26.74	0.76	1.500			
0.5101	32646.14	3.7890	3.7891	1.8915	26.73	0.75	1.500			
0.5159	33017.58	3.7860	3.7860	1.9260	26.71	0.73	1.500			
0.5218	33393.70	3.7830	3.7831	1.9352	26.70	0.72	1.500			
0.5275	33762.02	3.7800	3.7800	1.9758	26.69	0.71	1.500			
0.5336	34147.47	3.7770	3.7770	2.0424	26.68	0.70	1.500			
0.5399	34553.46	3.7740	3.7740	2.1160	26.66	0.68	1.500			
0.5464	34968.46	3.7710	3.7710	2.1341	26.64	0.66	1.500			
0.5527	35373.58	3.7680	3.7680	2.1521	26.62	0.64	1.500			
0.5592	35790.35	3.7650	3.7649	2.1849	26.61	0.63	1.500			
0.5658	36212.57	3.7620	3.7621	2.1963	26.59	0.61	1.500			
0.5724	36636.34	3.7590	3.7590	2.1876	26.57	0.59	1.500			
0.5789	37052.63	3.7560	3.7560	2.1534	26.55	0.57	1.500			
0.5854	37464.62	3.7530	3.7530	2.1353	26.53	0.55	1.500			
0.5918	37873.62	3.7500	3.7500	2.1059	26.52	0.54	1.500			
0.5981	38276.11	3.7470	3.7470	2.0446	26.50	0.52	1.500			
0.6041	38663.21	3.7440	3.7440	2.0405	26.49	0.51	1.500			
0.6102	39050.94	3.7410	3.7410	2.0275	26.47	0.49	1.500			
0.6163	39442.40	3.7380	3.7380	2.0641	26.46	0.48	1.500			
0.6226	39844.37	3.7350	3.7350	2.0684	26.44	0.46	1.500			
0.6287	40238.59	3.7320	3.7321	2.0869	26.43	0.45	1.500			
0.6350	40642.67	3.7290	3.7290	2.1225	26.41	0.43	1.500			
0.6414	41050.02	3.7260	3.7260	2.1511	26.39	0.41	1.500			
0.6479	41466.48	3.7230	3.7230	2.1944	26.37	0.39	1.500			
0.6545	41890.25	3.7200	3.7200	2.2483	26.35	0.37	1.500			
0.6614	42330.39	3.7170	3.7170	2.3256	26.33	0.35	1.500			
0.6685	42785.14	3.7140	3.7140	2.3817	26.32	0.34	1.500			
0.6757	43245.32	3.7110	3.7110	2.4551	26.30	0.32	1.500			
0.6832	43725.49	3.7080	3.7079	2.5747	26.29	0.31	1.500			
0.6912	44236.61	3.7050	3.7050	2.6856	26.27	0.29	1.500			
0.6994	44762.52	3.7020	3.7020	2.7514	26.24	0.26	1.500			
0.7078	45297.96	3.6990	3.6989	2.7755	26.22	0.24	1.500			
0.7162	45838.77	3.6960	3.6960	2.7149	26.20	0.22	1.500			
0.7242	46348.39	3.6930	3.6930	2.6038	26.19	0.21	1.500			
0.7318	46832.54	3.6900	3.6899	2.4243	26.17	0.19	1.500			
0.7389	47286.93	3.6870	3.6871	2.2637	26.16	0.18	1.500			
0.7454	47707.22	3.6840	3.6840	2.0379	26.15	0.17	1.500			
0.7511	48069.64	3.6810	3.6811	1.8305	26.14	0.16	1.500			
0.7563	48405.66	3.6780	3.6779	1.7066	26.13	0.15	1.500			
0.7612	48715.71	3.6750	3.6751	1.6031	26.13	0.15	1.500			
0.7659	49015.59	3.6720	3.6720	1.5279	26.12	0.14	1.500			
0.7703	49302.38	3.6690	3.6689	1.4519	26.12	0.14	1.500			
0.7745	49568.99	3.6660	3.6660	1.3790	26.11	0.13	1.500			
0.7785	49825.97	3.6630	3.6630	1.3247	26.11	0.13	1.500			
0.7823	50069.97	3.6600	3.6599	1.2838	26.10	0.12	1.500			
0.7861	50310.11	3.6570	3.6570	1.2539	26.09	0.11	1.500			
0.7898	50545.72	3.6540	3.6540	1.2415	26.09	0.11	1.500			
0.7935	50783.68	3.6510	3.6510	1.2393	26.08	0.10	1.500			
0.7972	51019.17	3.6480	3.6480	1.2433	26.07	0.09	1.500			
0.8009	51256.24	3.6450	3.6450	1.2674	26.06	0.08	1.500			
0.8047	51500.61	3.6420	3.6419	1.2880	26.06	0.08	1.500			
0.8086	51751.59	3.6390	3.6389	1.3037	26.05	0.07	1.500			
0.8126	52006.01	3.6360	3.6362	1.3199	26.04	0.06	1.500			
0.8166	52264.57	3.6330	3.6330	1.3286	26.03	0.05	1.500			
0.8206	52520.72	3.6300	3.6299	1.3117	26.02	0.04	1.500			
0.8245	52767.52	3.6270	3.6271	1.2970	26.02	0.04	1.500			
0.8284	53016.94	3.6240	3.6240	1.2935	26.01	0.03	1.500			
0.8323	53264.48	3.6210	3.6209	1.2961	26.00	0.02	1.500			
0.8361	53511.79	3.6180	3.6180	1.2874	25.99	0.01	1.500			
0.8400	53760.44	3.6150	3.6150	1.2886	25.99	0.01	1.500			
0.8439	54008.41	3.6120	3.6121	1.2862	25.98	0.00	1.500			
0.8478	54256.41	3.6090	3.6089	1.2693	25.98	-0.00	1.500			
0.8515	54498.53	3.6060	3.6061	1.2632	25.97	-0.01	1.500			
0.8553	54738.91	3.6030	3.6031	1.2481	25.96	-0.02	1.500			
0.8591	54979.47	3.6000	3.6000	1.2395	25.96	-0.02	1.500			
0.8628	55216.22	3.5970	3.5971	1.2223	25.96	-0.02	1.500			
0.8664	55449.69	3.5940	3.5940	1.2087	25.95	-0.03	1.500			
0.8700	55680.21	3.5910	3.5910	1.1894	25.95	-0.03	1.500			
0.8735	55902.56	3.5880	3.5880	1.1739	25.95	-0.03	1.500			
0.8770	56125.69	3.5850	3.5850	1.1740	25.94	-0.04	1.500			
0.8805	56349.36	3.5820	3.5820	1.1753	25.94	-0.04	1.500			
0.8840	56577.49	3.5790	3.5789	1.1768	25.94	-0.04	1.500			
0.8877	56810.14	3.5760	3.5760	1.1494	25.95	-0.03	1.500			
0.8912	57039.49	3.5730	3.5730	1.1074	25.95	-0.03	1.500			
0.8947	57259.12	3.5700	3.5700	1.0085	25.96	-0.02	1.500			
0.8977	57451.81	3.5670	3.5672	0.8903	25.96	-0.02	1.500			
0.9002	57612.83	3.5640	3.5641	0.7589	25.97	-0.01	1.500			
0.9022	57741.11	3.5610	3.5610	0.6192	25.97	-0.01	1.500			
0.9037	57833.86	3.5580	3.5580	0.4989	25.97	-0.01	1.500			
0.9049	57915.73	3.5550	3.5548	0.3989	25.98	-0.00	1.500			
0.9059	57978.45	3.5520	3.5519	0.3299	25.98	-0.00	1.500			
0.9068	58033.54	3.5490	3.5489	0.2830	25.98	-0.00	1.500			
0.9075	58079.81	3.5460	3.5460	0.2430	25.98	-0.00	1.500			
0.9081	58120.83	3.5430	3.5430	0.2144	25.98	0.00	1.500			
0.9087	58157.68	3.5400	3.5400	0.1874	25.98	0.00	1.500			
0.9092	58190.88	3.5370	3.5371	0.1688	25.98	0.00	1.500			
0.9097	58221.26	3.5340	3.5340	0.1509	25.98	0.00	1.500			
0.9101	58248.03	3.5310	3.5310	0.1343	25.98	0.00	1.500			
0.9105	58272.38	3.5280	3.5280	0.1194	25.98	0.00	1.500			
0.9108	58293.64	3.5250	3.5250	0.1043	25.98	0.00	1.500			
0.9111	58312.39	3.5220	3.5221	0.0898	25.99	0.01	1.500			
0.9114	58328.22	3.5190	3.5192	0.0751	25.99	0.01	1.500			
0.9116	58341.22	3.5160	3.5164	0.0604	25.99	0.01	1.500			
0.9117	58351.40	3.5130	3.5138	0.0456	25.99	0.01	1.500			
