Ah_balance (normalized)	Ah_balance (mAh)	Voltage - fit (V)	Voltage -  interpolate (V)	dQ/dV (1/V)	Temperature (°C)	Temperature - diff (°C)	Current (C)	R_DC 0ms (mOhm)	R_DC 50ms (mOhm)	R_DC 50 ms PEC (mOhm)
0.2975	19042.93	3.9730	3.9731	0.8625	26.98	1.05	1.500			
0.3001	19207.15	3.9700	3.9700	0.8616	26.97	1.04	1.500			
0.3027	19374.20	3.9670	3.9670	0.8680	26.97	1.04	1.500			
0.3053	19541.40	3.9640	3.9639	0.8719	26.97	1.04	1.500			
0.3079	19708.64	3.9610	3.9610	0.8772	26.97	1.04	1.500			
0.3106	19877.72	3.9580	3.9580	0.8827	26.96	1.03	1.500			
0.3133	20048.74	3.9550	3.9550	0.8892	26.96	1.03	1.500			
0.3159	20218.80	3.9520	3.9520	0.8895	26.96	1.03	1.500			
0.3186	20390.12	3.9490	3.9490	0.8890	26.95	1.02	1.500			
0.3213	20561.20	3.9460	3.9460	0.8960	26.95	1.02	1.500			
0.3239	20732.30	3.9430	3.9431	0.9012	26.95	1.02	1.500			
0.3267	20905.76	3.9400	3.9400	0.9043	26.94	1.01	1.500			
0.3294	21080.46	3.9370	3.9369	0.9090	26.94	1.01	1.500			
0.3321	21256.10	3.9340	3.9340	0.9155	26.93	1.00	1.500			
0.3349	21432.07	3.9310	3.9310	0.9220	26.93	1.00	1.500			
0.3377	21610.51	3.9280	3.9280	0.9266	26.92	0.99	1.500			
0.3404	21787.73	3.9250	3.9251	0.9296	26.92	0.99	1.500			
0.3432	21967.82	3.9220	3.9219	0.9310	26.91	0.98	1.500			
0.3460	22146.35	3.9190	3.9191	0.9408	26.91	0.98	1.500			
0.3489	22326.83	3.9160	3.9159	0.9449	26.90	0.97	1.500			
0.3517	22507.91	3.9130	3.9130	0.9506	26.89	0.96	1.500			
0.3545	22690.46	3.9100	3.9099	0.9605	26.89	0.96	1.500			
0.3575	22877.45	3.9070	3.9071	0.9659	26.88	0.95	1.500			
0.3604	23063.86	3.9040	3.9040	0.9769	26.88	0.95	1.500			
0.3633	23253.03	3.9010	3.9010	0.9862	26.88	0.95	1.500			
0.3663	23442.35	3.8980	3.8980	0.9885	26.87	0.94	1.500			
0.3693	23633.37	3.8950	3.8949	0.9967	26.87	0.94	1.500			
0.3723	23824.28	3.8920	3.8921	1.0046	26.86	0.93	1.500			
0.3753	24016.87	3.8890	3.8891	1.0126	26.86	0.93	1.500			
0.3783	24213.51	3.8860	3.8859	1.0243	26.85	0.92	1.500			
0.3814	24408.96	3.8830	3.8830	1.0330	26.85	0.92	1.500			
0.3845	24609.71	3.8800	3.8799	1.0477	26.84	0.91	1.500			
0.3877	24813.66	3.8770	3.8770	1.0616	26.83	0.90	1.500			
0.3909	25017.96	3.8740	3.8740	1.0736	26.83	0.90	1.500			
0.3942	25225.84	3.8710	3.8710	1.0760	26.82	0.89	1.500			
0.3974	25432.32	3.8680	3.8681	1.0903	26.81	0.88	1.500			
0.4006	25641.32	3.8650	3.8650	1.1012	26.81	0.88	1.500			
0.4039	25852.68	3.8620	3.8618	1.1163	26.80	0.87	1.500			
0.4073	26068.09	3.8590	3.8590	1.1332	26.79	0.86	1.500			
0.4107	26287.43	3.8560	3.8560	1.1528	26.79	0.86	1.500			
0.4143	26512.49	3.8530	3.8530	1.1706	26.78	0.85	1.500			
0.4178	26740.56	3.8500	3.8500	1.1815	26.77	0.84	1.500			
0.4214	26966.82	3.8470	3.8471	1.1967	26.77	0.84	1.500			
0.4249	27196.72	3.8440	3.8440	1.2167	26.76	0.83	1.500			
0.4286	27431.88	3.8410	3.8408	1.2361	26.75	0.82	1.500			
0.4323	27668.52	3.8380	3.8380	1.2645	26.74	0.81	1.500			
0.4362	27914.80	3.8350	3.8350	1.2862	26.74	0.81	1.500			
0.4401	28169.19	3.8320	3.8320	1.3108	26.73	0.80	1.500			
0.4441	28421.51	3.8290	3.8290	1.3313	26.72	0.79	1.500			
0.4481	28677.79	3.8260	3.8261	1.3653	26.71	0.78	1.500			
0.4522	28940.57	3.8230	3.8230	1.3937	26.70	0.77	1.500			
0.4564	29212.03	3.8200	3.8200	1.4293	26.69	0.76	1.500			
0.4607	29487.38	3.8170	3.8171	1.4641	26.68	0.75	1.500			
0.4653	29777.31	3.8140	3.8140	1.4913	26.67	0.74	1.500			
0.4698	30067.54	3.8110	3.8111	1.5268	26.66	0.73	1.500			
0.4744	30359.79	3.8080	3.8080	1.5573	26.64	0.71	1.500			
0.4791	30660.62	3.8050	3.8047	1.5900	26.63	0.70	1.500			
0.4839	30968.18	3.8020	3.8021	1.6316	26.62	0.69	1.500			
0.4888	31285.93	3.7990	3.7990	1.6741	26.60	0.67	1.500			
0.4939	31610.11	3.7960	3.7961	1.7217	26.59	0.66	1.500			
0.4991	31944.22	3.7930	3.7930	1.7628	26.57	0.64	1.500			
0.5045	32288.29	3.7900	3.7900	1.8225	26.56	0.63	1.500			
0.5100	32642.60	3.7870	3.7871	1.8631	26.55	0.62	1.500			
0.5157	33004.92	3.7840	3.7840	1.9059	26.53	0.60	1.500			
0.5215	33375.97	3.7810	3.7811	1.9495	26.52	0.59	1.500			
0.5274	33752.84	3.7780	3.7779	1.9953	26.50	0.57	1.500			
0.5334	34140.59	3.7750	3.7751	2.0277	26.49	0.56	1.500			
0.5397	34537.74	3.7720	3.7720	2.0175	26.47	0.54	1.500			
0.5457	34925.47	3.7690	3.7691	2.0660	26.45	0.52	1.500			
0.5520	35326.07	3.7660	3.7659	2.1071	26.43	0.50	1.500			
0.5583	35733.34	3.7630	3.7633	2.1204	26.41	0.48	1.500	0.359	0.459	
0.5649	36153.27	3.7600	3.7600	2.1354	26.39	0.46	1.500			
0.5713	36564.54	3.7570	3.7570	2.1046	26.36	0.43	1.500			
0.5774	36953.33	3.7540	3.7540	2.0386	26.35	0.42	1.500			
0.5835	37340.91	3.7510	3.7510	2.0231	26.33	0.40	1.500			
0.5895	37725.68	3.7480	3.7480	2.0173	26.31	0.38	1.500			
0.5955	38112.27	3.7450	3.7450	2.0030	26.30	0.37	1.500			
0.6015	38496.81	3.7420	3.7421	2.0064	26.29	0.36	1.500			
0.6075	38882.89	3.7390	3.7390	2.0146	26.27	0.34	1.500			
0.6136	39269.68	3.7360	3.7360	1.9922	26.26	0.33	1.500			
0.6194	39642.60	3.7330	3.7331	2.0372	26.24	0.31	1.500			
0.6256	40039.16	3.7300	3.7301	2.0798	26.23	0.30	1.500			
0.6319	40440.89	3.7270	3.7270	2.1160	26.21	0.28	1.500			
0.6384	40857.90	3.7240	3.7241	2.1402	26.20	0.27	1.500			
0.6449	41271.05	3.7210	3.7210	2.2051	26.18	0.25	1.500			
0.6514	41688.65	3.7180	3.7180	2.2455	26.17	0.24	1.500			
0.6582	42127.52	3.7150	3.7150	2.3309	26.15	0.22	1.500			
0.6654	42582.51	3.7120	3.7120	2.4242	26.14	0.21	1.500			
0.6728	43057.56	3.7090	3.7091	2.5204	26.13	0.20	1.500			
0.6805	43550.73	3.7060	3.7059	2.6362	26.12	0.19	1.500			
0.6885	44067.12	3.7030	3.7030	2.6799	26.10	0.17	1.500			
0.6968	44596.94	3.7000	3.7001	2.7006	26.09	0.16	1.500			
0.7049	45113.74	3.6970	3.6970	2.6458	26.08	0.15	1.500			
0.7128	45621.81	3.6940	3.6940	2.5334	26.07	0.14	1.500			
0.7203	46101.50	3.6910	3.6910	2.4134	26.05	0.12	1.500			
0.7273	46544.28	3.6880	3.6880	2.2045	26.04	0.11	1.500			
0.7335	46942.05	3.6850	3.6850	2.0139	26.04	0.11	1.500			
0.7392	47310.05	3.6820	3.6820	1.8405	26.04	0.11	1.500			
0.7443	47636.61	3.6790	3.6790	1.7098	26.03	0.10	1.500			
0.7493	47952.36	3.6760	3.6760	1.6061	26.03	0.10	1.500			
0.7539	48248.50	3.6730	3.6728	1.5165	26.03	0.10	1.500			
0.7583	48528.80	3.6700	3.6700	1.4347	26.02	0.09	1.500			
0.7624	48795.91	3.6670	3.6670	1.3778	26.02	0.09	1.500			
0.7664	49050.38	3.6640	3.6640	1.3209	26.02	0.09	1.500			
0.7702	49294.10	3.6610	3.6609	1.2808	26.01	0.08	1.500			
0.7740	49535.13	3.6580	3.6581	1.2642	26.01	0.08	1.500			
0.7777	49771.88	3.6550	3.6550	1.2507	26.00	0.07	1.500			
0.7814	50009.30	3.6520	3.6520	1.2541	26.00	0.07	1.500			
0.7851	50248.55	3.6490	3.6490	1.2583	25.99	0.06	1.500			
0.7889	50491.03	3.6460	3.6460	1.2611	25.99	0.06	1.500			
0.7927	50735.06	3.6430	3.6430	1.2754	25.98	0.05	1.500			
0.7966	50980.25	3.6400	3.6401	1.2848	25.98	0.05	1.500			
0.8004	51227.94	3.6370	3.6370	1.2972	25.97	0.04	1.500			
0.8044	51478.69	3.6340	3.6339	1.3004	25.97	0.04	1.500			
0.8083	51729.18	3.6310	3.6310	1.3051	25.96	0.03	1.500			
0.8122	51981.15	3.6280	3.6281	1.3094	25.96	0.03	1.500			
0.8162	52234.97	3.6250	3.6250	1.3035	25.96	0.03	1.500			
0.8201	52484.01	3.6220	3.6220	1.2937	25.95	0.02	1.500			
0.8239	52730.90	3.6190	3.6190	1.2886	25.95	0.02	1.500			
0.8278	52976.52	3.6160	3.6160	1.2850	25.94	0.01	1.500			
0.8316	53224.00	3.6130	3.6129	1.2788	25.94	0.01	1.500			
0.8354	53468.74	3.6100	3.6100	1.2703	25.93	0.00	1.500			
0.8393	53712.63	3.6070	3.6071	1.2624	25.93	0.00	1.500			
0.8431	53956.84	3.6040	3.6040	1.2501	25.93	-0.00	1.500			
0.8468	54194.88	3.6010	3.6011	1.2326	25.93	-0.00	1.500			
0.8505	54429.63	3.5980	3.5980	1.2161	25.92	-0.01	1.500			
0.8541	54660.58	3.5950	3.5949	1.1983	25.92	-0.01	1.500			
0.8577	54889.90	3.5920	3.5920	1.1867	25.92	-0.01	1.500			
0.8612	55114.32	3.5890	3.5890	1.1746	25.92	-0.01	1.500			
0.8647	55338.48	3.5860	3.5860	1.1675	25.92	-0.01	1.500			
0.8681	55560.93	3.5830	3.5830	1.1586	25.93	-0.00	1.500			
0.8716	55783.00	3.5800	3.5800	1.1553	25.93	-0.00	1.500			
0.8752	56010.70	3.5770	3.5769	1.1261	25.93	-0.00	1.500			
0.8786	56229.64	3.5740	3.5739	1.0788	25.93	-0.00	1.500			
0.8820	56445.34	3.5710	3.5710	0.9923	25.93	0.00	1.500			
0.8849	56632.16	3.5680	3.5682	0.8769	25.93	0.00	1.500			
0.8874	56793.71	3.5650	3.5650	0.7529	25.93	0.00	1.500			
0.8894	56922.77	3.5620	3.5620	0.6182	25.93	0.00	1.500			
0.8909	57016.58	3.5590	3.5590	0.5013	25.93	0.00	1.500			
0.8921	57096.48	3.5560	3.5560	0.4161	25.94	0.01	1.500			
0.8932	57162.35	3.5530	3.5529	0.3346	25.94	0.01	1.500			
0.8940	57218.97	3.5500	3.5498	0.2884	25.94	0.01	1.500			
0.8948	57265.76	3.5470	3.5470	0.2497	25.94	0.01	1.500			
0.8954	57308.15	3.5440	3.5440	0.2209	25.94	0.01	1.500			
0.8960	57346.29	3.5410	3.5410	0.1951	25.94	0.01	1.500			
0.8966	57381.12	3.5380	3.5379	0.1772	25.94	0.01	1.500			
0.8971	57412.31	3.5350	3.5351	0.1599	25.94	0.01	1.500			
0.8975	57441.28	3.5320	3.5319	0.1445	25.94	0.01	1.500			
0.8979	57467.62	3.5290	3.5291	0.1304	25.94	0.01	1.500			
0.8983	57491.29	3.5260	3.5259	0.1163	25.94	0.01	1.500			
0.8986	57511.85	3.5230	3.5230	0.1016	25.94	0.01	1.500			
0.8989	57530.49	3.5200	3.5200	0.0886	25.94	0.01	1.500			
0.8992	57546.14	3.5170	3.5173	0.0745	25.94	0.01	1.500			
0.8994	57559.32	3.5140	3.5144	0.0596	25.94	0.01	1.500			
0.8995	57569.33	3.5110	3.5115	0.0446	25.94	0.01	1.500			
