Ah_balance (normalized)	Ah_balance (mAh)	Voltage - fit (V)	Voltage -  interpolate (V)	dQ/dV (1/V)	Temperature (°C)	Temperature - diff (°C)	Current (C)	R_DC 0ms (mOhm)	R_DC 50ms (mOhm)	R_DC 50 ms PEC (mOhm)
0.2830	18109.67	3.9870	3.9870	0.8321	27.10	1.13	1.500			
0.2855	18271.44	3.9840	3.9840	0.8426	27.10	1.13	1.500			
0.2880	18432.98	3.9810	3.9810	0.8428	27.09	1.12	1.500			
0.2905	18594.03	3.9780	3.9780	0.8467	27.09	1.12	1.500			
0.2931	18757.26	3.9750	3.9750	0.8505	27.08	1.11	1.500			
0.2956	18920.48	3.9720	3.9720	0.8524	27.08	1.11	1.500			
0.2982	19084.25	3.9690	3.9690	0.8560	27.07	1.10	1.500			
0.3008	19249.80	3.9660	3.9660	0.8606	27.07	1.10	1.500			
0.3034	19415.90	3.9630	3.9630	0.8685	27.06	1.09	1.500			
0.3060	19583.38	3.9600	3.9600	0.8668	27.06	1.09	1.500			
0.3086	19748.49	3.9570	3.9570	0.8719	27.05	1.08	1.500			
0.3112	19917.09	3.9540	3.9541	0.8788	27.05	1.08	1.500			
0.3138	20086.02	3.9510	3.9509	0.8828	27.04	1.07	1.500			
0.3165	20255.93	3.9480	3.9480	0.8855	27.04	1.07	1.500			
0.3192	20426.73	3.9450	3.9451	0.8883	27.04	1.07	1.500			
0.3218	20597.44	3.9420	3.9420	0.8887	27.03	1.06	1.500			
0.3245	20769.99	3.9390	3.9390	0.8978	27.03	1.06	1.500			
0.3272	20941.00	3.9360	3.9360	0.8972	27.03	1.06	1.500			
0.3299	21114.18	3.9330	3.9330	0.9003	27.02	1.05	1.500			
0.3326	21286.91	3.9300	3.9301	0.9066	27.02	1.05	1.500			
0.3353	21460.85	3.9270	3.9270	0.9140	27.02	1.05	1.500			
0.3381	21636.60	3.9240	3.9240	0.9215	27.01	1.04	1.500			
0.3409	21814.54	3.9210	3.9209	0.9262	27.01	1.04	1.500			
0.3436	21992.30	3.9180	3.9180	0.9296	27.00	1.03	1.500			
0.3464	22172.07	3.9150	3.9151	0.9409	26.99	1.02	1.500			
0.3493	22353.52	3.9120	3.9120	0.9481	26.99	1.02	1.500			
0.3521	22535.92	3.9090	3.9089	0.9511	26.98	1.01	1.500			
0.3550	22719.71	3.9060	3.9060	0.9572	26.97	1.00	1.500			
0.3579	22904.01	3.9030	3.9031	0.9625	26.97	1.00	1.500			
0.3608	23089.66	3.9000	3.9000	0.9696	26.96	0.99	1.500			
0.3637	23275.82	3.8970	3.8970	0.9759	26.95	0.98	1.500			
0.3666	23462.37	3.8940	3.8940	0.9836	26.95	0.98	1.500			
0.3696	23651.65	3.8910	3.8910	0.9949	26.94	0.97	1.500			
0.3726	23845.27	3.8880	3.8880	1.0011	26.94	0.97	1.500			
0.3756	24038.75	3.8850	3.8849	1.0091	26.93	0.96	1.500			
0.3786	24233.04	3.8820	3.8821	1.0198	26.92	0.95	1.500			
0.3817	24428.99	3.8790	3.8790	1.0319	26.92	0.95	1.500			
0.3848	24626.95	3.8760	3.8759	1.0439	26.91	0.94	1.500			
0.3880	24829.04	3.8730	3.8730	1.0561	26.90	0.93	1.500			
0.3911	25033.35	3.8700	3.8701	1.0681	26.90	0.93	1.500			
0.3944	25240.96	3.8670	3.8670	1.0789	26.89	0.92	1.500			
0.3976	25448.05	3.8640	3.8641	1.0926	26.88	0.91	1.500			
0.4009	25658.34	3.8610	3.8610	1.1045	26.87	0.90	1.500			
0.4042	25870.55	3.8580	3.8580	1.1203	26.87	0.90	1.500			
0.4076	26086.59	3.8550	3.8550	1.1397	26.86	0.89	1.500			
0.4111	26308.70	3.8520	3.8520	1.1550	26.85	0.88	1.500			
0.4146	26531.86	3.8490	3.8490	1.1714	26.84	0.87	1.500			
0.4181	26758.74	3.8460	3.8460	1.1932	26.83	0.86	1.500			
0.4217	26988.54	3.8430	3.8430	1.2094	26.82	0.85	1.500			
0.4254	27222.81	3.8400	3.8399	1.2281	26.82	0.85	1.500			
0.4290	27459.13	3.8370	3.8371	1.2488	26.81	0.84	1.500			
0.4328	27700.80	3.8340	3.8340	1.2694	26.80	0.83	1.500			
0.4367	27947.03	3.8310	3.8310	1.2963	26.79	0.82	1.500			
0.4406	28196.60	3.8280	3.8280	1.3179	26.78	0.81	1.500			
0.4446	28452.03	3.8250	3.8250	1.3417	26.77	0.80	1.500			
0.4487	28715.30	3.8220	3.8219	1.3637	26.75	0.78	1.500			
0.4528	28979.47	3.8190	3.8190	1.3828	26.74	0.77	1.500			
0.4570	29245.78	3.8160	3.8160	1.4003	26.73	0.76	1.500			
0.4612	29515.45	3.8130	3.8130	1.4248	26.71	0.74	1.500			
0.4654	29786.04	3.8100	3.8100	1.4519	26.70	0.73	1.500			
0.4698	30068.52	3.8070	3.8070	1.4827	26.69	0.72	1.500			
0.4743	30356.84	3.8040	3.8040	1.5235	26.67	0.70	1.500			
0.4790	30654.67	3.8010	3.8010	1.5609	26.66	0.69	1.500			
0.4837	30958.12	3.7980	3.7981	1.5899	26.65	0.68	1.500			
0.4886	31267.61	3.7950	3.7950	1.6117	26.63	0.66	1.500			
0.4934	31577.14	3.7920	3.7920	1.6366	26.62	0.65	1.500			
0.4984	31897.27	3.7890	3.7890	1.6541	26.61	0.64	1.500			
0.5034	32219.16	3.7860	3.7859	1.6725	26.60	0.63	1.500			
0.5084	32537.41	3.7830	3.7831	1.7126	26.59	0.62	1.500			
0.5135	32866.16	3.7800	3.7800	1.7576	26.57	0.60	1.500			
0.5189	33207.89	3.7770	3.7771	1.7818	26.56	0.59	1.500	0.350	0.477	
0.5242	33551.86	3.7740	3.7742	1.7980	26.54	0.57	1.500			
0.5298	33907.06	3.7710	3.7710	1.8028	26.53	0.56	1.500			
0.5350	34242.67	3.7680	3.7681	1.7666	26.51	0.54	1.500			
0.5403	34581.78	3.7650	3.7650	1.7755	26.50	0.53	1.500			
0.5457	34923.15	3.7620	3.7620	1.7739	26.49	0.52	1.500			
0.5510	35264.52	3.7590	3.7591	1.7684	26.47	0.50	1.500			
0.5564	35606.96	3.7560	3.7560	1.7808	26.46	0.49	1.500			
0.5616	35942.07	3.7530	3.7530	1.7758	26.45	0.48	1.500			
0.5669	36283.97	3.7500	3.7500	1.7864	26.44	0.47	1.500			
0.5723	36629.52	3.7470	3.7471	1.7993	26.42	0.45	1.500			
0.5778	36976.27	3.7440	3.7440	1.8296	26.41	0.44	1.500			
0.5832	37326.47	3.7410	3.7410	1.8525	26.40	0.43	1.500			
0.5888	37684.12	3.7380	3.7379	1.8961	26.38	0.41	1.500			
0.5946	38051.87	3.7350	3.7350	1.9438	26.37	0.40	1.500			
0.6005	38434.68	3.7320	3.7320	1.9760	26.36	0.39	1.500			
0.6065	38814.76	3.7290	3.7290	2.0405	26.34	0.37	1.500			
0.6127	39214.23	3.7260	3.7259	2.1199	26.33	0.36	1.500			
0.6192	39628.07	3.7230	3.7231	2.1750	26.31	0.34	1.500			
0.6259	40056.40	3.7200	3.7200	2.2262	26.29	0.32	1.500			
0.6327	40490.70	3.7170	3.7170	2.2462	26.28	0.31	1.500			
0.6393	40916.77	3.7140	3.7139	2.3169	26.26	0.29	1.500			
0.6463	41364.63	3.7110	3.7110	2.3788	26.25	0.28	1.500			
0.6537	41836.31	3.7080	3.7080	2.4148	26.23	0.26	1.500			
0.6610	42304.97	3.7050	3.7050	2.4267	26.22	0.25	1.500			
0.6684	42778.17	3.7020	3.7020	2.3591	26.20	0.23	1.500			
0.6755	43229.67	3.6990	3.6991	2.2430	26.19	0.22	1.500			
0.6821	43657.04	3.6960	3.6960	2.0981	26.18	0.21	1.500			
0.6880	44034.96	3.6930	3.6929	1.9191	26.16	0.19	1.500			
0.6935	44381.91	3.6900	3.6900	1.7808	26.15	0.18	1.500			
0.6986	44711.33	3.6870	3.6870	1.6678	26.15	0.18	1.500			
0.7034	45018.73	3.6840	3.6840	1.5719	26.14	0.17	1.500			
0.7079	45307.34	3.6810	3.6811	1.4853	26.13	0.16	1.500			
0.7122	45579.88	3.6780	3.6780	1.4192	26.12	0.15	1.500			
0.7163	45843.71	3.6750	3.6749	1.3639	26.12	0.15	1.500			
0.7203	46098.52	3.6720	3.6720	1.3299	26.11	0.14	1.500			
0.7242	46348.41	3.6690	3.6690	1.3022	26.10	0.13	1.500			
0.7281	46596.32	3.6660	3.6660	1.2870	26.09	0.12	1.500			
0.7319	46839.73	3.6630	3.6630	1.2674	26.08	0.11	1.500			
0.7356	47079.21	3.6600	3.6600	1.2640	26.07	0.10	1.500			
0.7394	47320.37	3.6570	3.6570	1.2680	26.06	0.09	1.500			
0.7432	47563.67	3.6540	3.6540	1.2732	26.05	0.08	1.500			
0.7470	47809.01	3.6510	3.6509	1.2750	26.05	0.08	1.500			
0.7509	48056.05	3.6480	3.6480	1.2780	26.04	0.07	1.500			
0.7547	48302.61	3.6450	3.6450	1.2767	26.03	0.06	1.500			
0.7586	48549.00	3.6420	3.6420	1.2754	26.02	0.05	1.500			
0.7624	48792.74	3.6390	3.6390	1.2641	26.02	0.05	1.500			
0.7662	49033.78	3.6360	3.6361	1.2542	26.01	0.04	1.500			
0.7699	49273.75	3.6330	3.6330	1.2510	26.00	0.03	1.500			
0.7736	49512.73	3.6300	3.6300	1.2526	26.00	0.03	1.500			
0.7774	49753.10	3.6270	3.6270	1.2450	25.99	0.02	1.500			
0.7811	49992.35	3.6240	3.6239	1.2396	25.98	0.01	1.500			
0.7848	50230.13	3.6210	3.6211	1.2337	25.98	0.01	1.500			
0.7886	50468.75	3.6180	3.6180	1.2242	25.97	0.00	1.500			
0.7922	50703.03	3.6150	3.6150	1.2066	25.97	-0.00	1.500			
0.7958	50932.70	3.6120	3.6120	1.1878	25.97	-0.00	1.500			
0.7994	51159.01	3.6090	3.6089	1.1689	25.96	-0.01	1.500			
0.8029	51384.90	3.6060	3.6060	1.1500	25.96	-0.01	1.500			
0.8063	51602.02	3.6030	3.6031	1.1281	25.96	-0.01	1.500			
0.8096	51815.11	3.6000	3.6000	1.1119	25.95	-0.02	1.500			
0.8129	52027.60	3.5970	3.5970	1.0941	25.95	-0.02	1.500			
0.8162	52236.41	3.5940	3.5940	1.0700	25.95	-0.02	1.500			
0.8194	52440.29	3.5910	3.5911	1.0427	25.95	-0.02	1.500			
0.8225	52643.14	3.5880	3.5880	1.0055	25.96	-0.01	1.500			
0.8256	52835.87	3.5850	3.5849	0.9511	25.96	-0.01	1.500			
0.8285	53020.99	3.5820	3.5820	0.8766	25.96	-0.01	1.500			
0.8310	53183.43	3.5790	3.5790	0.7852	25.96	-0.01	1.500			
0.8333	53328.94	3.5760	3.5762	0.6911	25.96	-0.01	1.500			
0.8352	53450.48	3.5730	3.5730	0.5872	25.97	-0.00	1.500			
0.8367	53548.47	3.5700	3.5699	0.4887	25.97	-0.00	1.500			
0.8380	53629.49	3.5670	3.5670	0.4116	25.97	-0.00	1.500			
0.8390	53695.40	3.5640	3.5640	0.3458	25.97	-0.00	1.500			
0.8399	53753.60	3.5610	3.5610	0.2991	25.97	-0.00	1.500			
0.8407	53803.75	3.5580	3.5580	0.2554	25.97	0.00	1.500			
0.8414	53847.92	3.5550	3.5549	0.2281	25.97	0.00	1.500			
0.8420	53887.08	3.5520	3.5520	0.2031	25.97	0.00	1.500			
0.8426	53923.28	3.5490	3.5489	0.1832	25.97	0.00	1.500			
0.8431	53956.81	3.5460	3.5460	0.1661	25.97	0.00	1.500			
0.8435	53986.44	3.5430	3.5431	0.1499	25.97	0.00	1.500			
0.8440	54013.36	3.5400	3.5400	0.1339	25.97	0.00	1.500			
0.8443	54037.50	3.5370	3.5370	0.1195	25.97	0.00	1.500			
0.8447	54059.06	3.5340	3.5340	0.1051	25.97	0.00	1.500			
0.8450	54077.51	3.5310	3.5310	0.0903	25.97	0.00	1.500			
0.8452	54093.50	3.5280	3.5282	0.0763	25.97	0.00	1.500			
0.8454	54106.80	3.5250	3.5253	0.0623	25.97	0.00	1.500			
0.8456	54117.54	3.5220	3.5225	0.0479	25.97	0.00	1.500			
0.8457	54125.37	3.5190	3.5199	0.0336	25.97	0.00	1.500			
