Ah_balance (normalized)	Ah_balance (mAh)	Voltage - fit (V)	Voltage -  interpolate (V)	dQ/dV (1/V)	Temperature (°C)	Temperature - diff (°C)	Current (C)	R_DC 0ms (mOhm)	R_DC 50ms (mOhm)	R_DC 50 ms PEC (mOhm)
0.2871	18374.85	3.9900	3.9900	0.8220	27.36	1.40	1.500			
0.2896	18533.03	3.9870	3.9870	0.8288	27.36	1.40	1.500			
0.2921	18695.97	3.9840	3.9840	0.8421	27.35	1.39	1.500			
0.2947	18857.76	3.9810	3.9810	0.8443	27.35	1.39	1.500			
0.2972	19020.74	3.9780	3.9780	0.8435	27.35	1.39	1.500			
0.2997	19183.53	3.9750	3.9751	0.8466	27.34	1.38	1.500			
0.3023	19344.19	3.9720	3.9719	0.8491	27.34	1.38	1.500			
0.3048	19506.90	3.9690	3.9690	0.8549	27.33	1.37	1.500			
0.3074	19671.03	3.9660	3.9660	0.8541	27.33	1.37	1.500			
0.3099	19836.01	3.9630	3.9630	0.8622	27.33	1.37	1.500			
0.3125	20002.99	3.9600	3.9601	0.8665	27.32	1.36	1.500			
0.3152	20170.49	3.9570	3.9570	0.8708	27.32	1.36	1.500			
0.3178	20337.56	3.9540	3.9539	0.8710	27.31	1.35	1.500			
0.3204	20505.16	3.9510	3.9510	0.8720	27.31	1.35	1.500			
0.3230	20672.98	3.9480	3.9480	0.8742	27.30	1.34	1.500			
0.3257	20841.91	3.9450	3.9450	0.8795	27.30	1.34	1.500			
0.3283	21009.73	3.9420	3.9421	0.8841	27.30	1.34	1.500			
0.3309	21179.51	3.9390	3.9389	0.8868	27.29	1.33	1.500			
0.3336	21349.87	3.9360	3.9360	0.8947	27.29	1.33	1.500			
0.3363	21521.57	3.9330	3.9330	0.9055	27.28	1.32	1.500			
0.3390	21697.01	3.9300	3.9300	0.9095	27.27	1.31	1.500			
0.3418	21873.14	3.9270	3.9271	0.9169	27.27	1.31	1.500			
0.3445	22050.78	3.9240	3.9240	0.9208	27.26	1.30	1.500			
0.3473	22227.63	3.9210	3.9210	0.9237	27.25	1.29	1.500			
0.3501	22405.80	3.9180	3.9180	0.9270	27.25	1.29	1.500			
0.3528	22580.94	3.9150	3.9151	0.9345	27.24	1.28	1.500			
0.3556	22760.08	3.9120	3.9120	0.9413	27.23	1.27	1.500			
0.3585	22943.84	3.9090	3.9089	0.9496	27.23	1.27	1.500			
0.3613	23126.25	3.9060	3.9060	0.9559	27.22	1.26	1.500			
0.3642	23310.85	3.9030	3.9032	0.9685	27.21	1.25	1.500			
0.3672	23498.59	3.9000	3.9000	0.9784	27.21	1.25	1.500			
0.3701	23687.09	3.8970	3.8969	0.9833	27.20	1.24	1.500			
0.3731	23876.28	3.8940	3.8940	0.9902	27.19	1.23	1.500			
0.3760	24065.88	3.8910	3.8911	1.0030	27.18	1.22	1.500			
0.3791	24260.15	3.8880	3.8880	1.0123	27.18	1.22	1.500			
0.3821	24454.72	3.8850	3.8850	1.0182	27.17	1.21	1.500			
0.3852	24650.83	3.8820	3.8819	1.0246	27.16	1.20	1.500			
0.3883	24849.53	3.8790	3.8791	1.0358	27.15	1.19	1.500			
0.3914	25048.78	3.8760	3.8759	1.0501	27.14	1.18	1.500			
0.3945	25250.41	3.8730	3.8730	1.0589	27.13	1.17	1.500			
0.3977	25454.30	3.8700	3.8700	1.0713	27.12	1.16	1.500			
0.4010	25661.80	3.8670	3.8670	1.0842	27.11	1.15	1.500			
0.4042	25871.22	3.8640	3.8639	1.0972	27.10	1.14	1.500			
0.4075	26083.00	3.8610	3.8610	1.1117	27.09	1.13	1.500			
0.4109	26296.59	3.8580	3.8580	1.1262	27.08	1.12	1.500			
0.4143	26512.54	3.8550	3.8550	1.1411	27.07	1.11	1.500			
0.4177	26734.72	3.8520	3.8520	1.1621	27.06	1.10	1.500			
0.4212	26959.73	3.8490	3.8490	1.1682	27.04	1.08	1.500			
0.4248	27184.19	3.8460	3.8460	1.1898	27.03	1.07	1.500			
0.4283	27414.07	3.8430	3.8431	1.2063	27.02	1.06	1.500			
0.4320	27646.78	3.8400	3.8398	1.2263	27.01	1.05	1.500			
0.4357	27882.40	3.8370	3.8371	1.2461	27.00	1.04	1.500			
0.4394	28124.68	3.8340	3.8340	1.2674	26.99	1.03	1.500			
0.4433	28372.15	3.8310	3.8309	1.2867	26.97	1.01	1.500			
0.4472	28620.83	3.8280	3.8280	1.3073	26.96	1.00	1.500			
0.4511	28872.25	3.8250	3.8250	1.3277	26.95	0.99	1.500			
0.4551	29129.53	3.8220	3.8219	1.3533	26.94	0.98	1.500			
0.4592	29391.07	3.8190	3.8190	1.3779	26.92	0.96	1.500			
0.4634	29656.68	3.8160	3.8161	1.4003	26.91	0.95	1.500			
0.4676	29929.17	3.8130	3.8129	1.4226	26.90	0.94	1.500			
0.4719	30204.51	3.8100	3.8100	1.4444	26.89	0.93	1.500			
0.4763	30483.56	3.8070	3.8069	1.4690	26.88	0.92	1.500			
0.4808	30768.06	3.8040	3.8039	1.4965	26.86	0.90	1.500			
0.4853	31056.40	3.8010	3.8010	1.5226	26.85	0.89	1.500			
0.4899	31354.40	3.7980	3.7980	1.5497	26.83	0.87	1.500			
0.4946	31652.36	3.7950	3.7950	1.5703	26.82	0.86	1.500			
0.4993	31956.54	3.7920	3.7921	1.6045	26.80	0.84	1.500			
0.5042	32266.86	3.7890	3.7890	1.6308	26.79	0.83	1.500			
0.5091	32584.61	3.7860	3.7860	1.6559	26.77	0.81	1.500			
0.5142	32908.17	3.7830	3.7830	1.6689	26.75	0.79	1.500	0.340	0.474	
0.5192	33231.63	3.7800	3.7800	1.6767	26.73	0.77	1.500			
0.5243	33552.93	3.7770	3.7770	1.6864	26.71	0.75	1.500			
0.5293	33874.80	3.7740	3.7740	1.7019	26.69	0.73	1.500			
0.5344	34201.59	3.7710	3.7710	1.7184	26.67	0.71	1.500			
0.5396	34535.93	3.7680	3.7680	1.7250	26.66	0.70	1.500			
0.5448	34868.64	3.7650	3.7650	1.7189	26.65	0.69	1.500			
0.5500	35198.04	3.7620	3.7621	1.7054	26.64	0.68	1.500			
0.5551	35523.71	3.7590	3.7589	1.7120	26.62	0.66	1.500			
0.5601	35848.81	3.7560	3.7560	1.7240	26.61	0.65	1.500			
0.5653	36180.37	3.7530	3.7530	1.7617	26.60	0.64	1.500			
0.5707	36524.66	3.7500	3.7500	1.7697	26.58	0.62	1.500			
0.5760	36862.50	3.7470	3.7471	1.7823	26.57	0.61	1.500			
0.5813	37203.63	3.7440	3.7439	1.8071	26.55	0.59	1.500			
0.5868	37552.57	3.7410	3.7410	1.8532	26.54	0.58	1.500			
0.5924	37915.16	3.7380	3.7380	1.8687	26.52	0.56	1.500			
0.5981	38277.54	3.7350	3.7351	1.9447	26.50	0.54	1.500			
0.6040	38654.05	3.7320	3.7321	2.0072	26.49	0.53	1.500			
0.6101	39045.31	3.7290	3.7290	2.0636	26.47	0.51	1.500			
0.6164	39451.12	3.7260	3.7261	2.1163	26.45	0.49	1.500			
0.6230	39873.12	3.7230	3.7230	2.1891	26.43	0.47	1.500			
0.6295	40287.11	3.7200	3.7199	2.2212	26.41	0.45	1.500			
0.6362	40717.77	3.7170	3.7170	2.2874	26.39	0.43	1.500			
0.6433	41169.97	3.7140	3.7140	2.3220	26.37	0.41	1.500			
0.6503	41620.98	3.7110	3.7110	2.3391	26.36	0.40	1.500			
0.6574	42073.36	3.7080	3.7079	2.3057	26.34	0.38	1.500			
0.6643	42516.79	3.7050	3.7050	2.2178	26.32	0.36	1.500			
0.6709	42935.53	3.7020	3.7020	2.1105	26.31	0.35	1.500			
0.6771	43331.63	3.6990	3.6990	1.9615	26.29	0.33	1.500			
0.6827	43689.77	3.6960	3.6960	1.8154	26.28	0.32	1.500			
0.6878	44017.19	3.6930	3.6931	1.6926	26.26	0.30	1.500			
0.6927	44330.33	3.6900	3.6900	1.5865	26.25	0.29	1.500			
0.6973	44625.60	3.6870	3.6869	1.5121	26.24	0.28	1.500			
0.7016	44902.45	3.6840	3.6840	1.4426	26.22	0.26	1.500			
0.7059	45174.53	3.6810	3.6810	1.3954	26.21	0.25	1.500			
0.7099	45435.88	3.6780	3.6780	1.3520	26.20	0.24	1.500			
0.7139	45688.45	3.6750	3.6750	1.3193	26.19	0.23	1.500			
0.7177	45935.64	3.6720	3.6720	1.2909	26.17	0.21	1.500			
0.7216	46182.83	3.6690	3.6690	1.2799	26.16	0.20	1.500			
0.7254	46423.41	3.6660	3.6660	1.2675	26.15	0.19	1.500			
0.7291	46664.74	3.6630	3.6630	1.2672	26.14	0.18	1.500			
0.7329	46906.70	3.6600	3.6600	1.2686	26.13	0.17	1.500			
0.7367	47151.04	3.6570	3.6569	1.2692	26.12	0.16	1.500			
0.7406	47396.47	3.6540	3.6540	1.2616	26.11	0.15	1.500			
0.7444	47641.54	3.6510	3.6511	1.2515	26.09	0.13	1.500			
0.7481	47880.82	3.6480	3.6480	1.2495	26.08	0.12	1.500			
0.7519	48119.65	3.6450	3.6449	1.2408	26.07	0.11	1.500			
0.7556	48355.53	3.6420	3.6419	1.2260	26.06	0.10	1.500			
0.7592	48590.36	3.6390	3.6391	1.2175	26.05	0.09	1.500			
0.7629	48824.32	3.6360	3.6360	1.2115	26.05	0.09	1.500			
0.7665	49056.38	3.6330	3.6330	1.2028	26.04	0.08	1.500			
0.7701	49284.60	3.6300	3.6300	1.1848	26.03	0.07	1.500			
0.7736	49511.97	3.6270	3.6270	1.1818	26.02	0.06	1.500			
0.7772	49739.66	3.6240	3.6240	1.1695	26.01	0.05	1.500			
0.7807	49964.82	3.6210	3.6210	1.1545	26.00	0.04	1.500			
0.7841	50184.84	3.6180	3.6180	1.1400	26.00	0.04	1.500			
0.7875	50402.37	3.6150	3.6150	1.1193	25.99	0.03	1.500			
0.7909	50615.51	3.6120	3.6119	1.0951	25.99	0.03	1.500			
0.7941	50823.42	3.6090	3.6090	1.0737	25.98	0.02	1.500			
0.7973	51026.99	3.6060	3.6061	1.0447	25.98	0.02	1.500			
0.8004	51226.25	3.6030	3.6029	1.0224	25.97	0.01	1.500			
0.8035	51421.45	3.6000	3.6000	0.9936	25.97	0.01	1.500			
0.8064	51609.27	3.5970	3.5970	0.9585	25.96	0.00	1.500			
0.8093	51794.00	3.5940	3.5939	0.9177	25.96	-0.00	1.500			
0.8120	51967.92	3.5910	3.5910	0.8664	25.95	-0.01	1.500			
0.8146	52132.45	3.5880	3.5880	0.7997	25.95	-0.01	1.500			
0.8169	52282.24	3.5850	3.5850	0.7255	25.94	-0.02	1.500			
0.8190	52415.62	3.5820	3.5820	0.6419	25.94	-0.02	1.500			
0.8208	52530.86	3.5790	3.5790	0.5554	25.94	-0.02	1.500			
0.8223	52625.11	3.5760	3.5761	0.4763	25.94	-0.02	1.500			
0.8235	52705.32	3.5730	3.5731	0.4079	25.93	-0.03	1.500			
0.8246	52773.52	3.5700	3.5699	0.3393	25.93	-0.03	1.500			
0.8255	52831.57	3.5670	3.5669	0.2949	25.93	-0.03	1.500			
0.8263	52880.12	3.5640	3.5640	0.2548	25.93	-0.03	1.500			
0.8269	52923.82	3.5610	3.5610	0.2262	25.93	-0.03	1.500			
0.8276	52963.57	3.5580	3.5580	0.2001	25.93	-0.03	1.500			
0.8281	52998.41	3.5550	3.5550	0.1799	25.93	-0.03	1.500			
0.8286	53030.54	3.5520	3.5520	0.1623	25.93	-0.03	1.500			
0.8291	53059.77	3.5490	3.5490	0.1455	25.92	-0.04	1.500			
0.8295	53086.31	3.5460	3.5460	0.1306	25.92	-0.04	1.500			
0.8298	53109.92	3.5430	3.5431	0.1156	25.92	-0.04	1.500			
0.8302	53130.85	3.5400	3.5401	0.1011	25.92	-0.04	1.500			
0.8304	53148.72	3.5370	3.5370	0.0858	25.92	-0.04	1.500			
0.8307	53163.76	3.5340	3.5341	0.0708	25.92	-0.04	1.500			
0.8309	53175.82	3.5310	3.5313	0.0559	25.92	-0.04	1.500			
0.8310	53185.14	3.5280	3.5287	0.0412	25.92	-0.04	1.500			
0.8311	53191.63	3.5250	3.5263	0.0264	25.92	-0.04	1.500			
