Ah_balance (normalized)	Ah_balance (mAh)	Voltage - fit (V)	Voltage -  interpolate (V)	dQ/dV (1/V)	Temperature (°C)	Temperature - diff (°C)	Current (C)	R_DC 0ms (mOhm)	R_DC 50ms (mOhm)	R_DC 50 ms PEC (mOhm)
0.2904	18586.53	3.9730	3.9731	0.8645	26.98	1.02	1.500			
0.2930	18751.31	3.9700	3.9700	0.8644	26.97	1.01	1.500			
0.2956	18919.43	3.9670	3.9670	0.8725	26.97	1.01	1.500			
0.2982	19087.37	3.9640	3.9640	0.8781	26.96	1.00	1.500			
0.3009	19256.44	3.9610	3.9609	0.8793	26.96	1.00	1.500			
0.3035	19426.61	3.9580	3.9581	0.8836	26.96	1.00	1.500			
0.3062	19596.50	3.9550	3.9550	0.8862	26.95	0.99	1.500			
0.3089	19766.79	3.9520	3.9520	0.8894	26.95	0.99	1.500			
0.3115	19937.19	3.9490	3.9490	0.8959	26.94	0.98	1.500			
0.3142	20109.24	3.9460	3.9460	0.9031	26.94	0.98	1.500			
0.3169	20283.59	3.9430	3.9429	0.9032	26.93	0.97	1.500			
0.3197	20459.26	3.9400	3.9400	0.9073	26.93	0.97	1.500			
0.3224	20632.13	3.9370	3.9371	0.9108	26.93	0.97	1.500			
0.3251	20806.42	3.9340	3.9340	0.9167	26.92	0.96	1.500			
0.3279	20982.54	3.9310	3.9309	0.9193	26.92	0.96	1.500			
0.3306	21158.92	3.9280	3.9279	0.9263	26.91	0.95	1.500			
0.3334	21338.26	3.9250	3.9251	0.9318	26.91	0.95	1.500			
0.3362	21518.18	3.9220	3.9220	0.9427	26.90	0.94	1.500			
0.3391	21700.20	3.9190	3.9190	0.9459	26.90	0.94	1.500			
0.3419	21882.07	3.9160	3.9159	0.9469	26.89	0.93	1.500			
0.3447	22062.49	3.9130	3.9130	0.9526	26.89	0.93	1.500			
0.3476	22246.20	3.9100	3.9100	0.9629	26.89	0.93	1.500			
0.3505	22431.39	3.9070	3.9070	0.9692	26.88	0.92	1.500			
0.3534	22619.63	3.9040	3.9039	0.9738	26.88	0.92	1.500			
0.3563	22805.66	3.9010	3.9011	0.9819	26.87	0.91	1.500			
0.3593	22996.71	3.8980	3.8980	0.9930	26.87	0.91	1.500			
0.3623	23187.48	3.8950	3.8949	1.0013	26.86	0.90	1.500			
0.3653	23379.64	3.8920	3.8920	1.0071	26.86	0.90	1.500			
0.3683	23572.27	3.8890	3.8891	1.0168	26.85	0.89	1.500			
0.3714	23768.71	3.8860	3.8860	1.0326	26.85	0.89	1.500			
0.3745	23969.67	3.8830	3.8830	1.0414	26.84	0.88	1.500			
0.3777	24169.76	3.8800	3.8800	1.0439	26.84	0.88	1.500			
0.3808	24370.07	3.8770	3.8771	1.0607	26.83	0.87	1.500			
0.3840	24575.04	3.8740	3.8739	1.0719	26.83	0.87	1.500			
0.3872	24781.48	3.8710	3.8710	1.0813	26.82	0.86	1.500			
0.3905	24989.22	3.8680	3.8680	1.0949	26.82	0.86	1.500			
0.3938	25200.58	3.8650	3.8651	1.1115	26.81	0.85	1.500			
0.3972	25417.78	3.8620	3.8619	1.1276	26.81	0.85	1.500			
0.4006	25636.30	3.8590	3.8590	1.1373	26.80	0.84	1.500			
0.4040	25853.02	3.8560	3.8561	1.1509	26.80	0.84	1.500			
0.4074	26076.50	3.8530	3.8530	1.1684	26.79	0.83	1.500			
0.4110	26301.91	3.8500	3.8500	1.1848	26.78	0.82	1.500			
0.4145	26527.82	3.8470	3.8470	1.2014	26.78	0.82	1.500			
0.4181	26760.48	3.8440	3.8440	1.2223	26.77	0.81	1.500			
0.4219	26999.19	3.8410	3.8410	1.2451	26.76	0.80	1.500			
0.4256	27240.33	3.8380	3.8380	1.2685	26.75	0.79	1.500			
0.4294	27484.09	3.8350	3.8350	1.2920	26.74	0.78	1.500			
0.4334	27736.36	3.8320	3.8320	1.3147	26.73	0.77	1.500			
0.4374	27990.90	3.8290	3.8290	1.3349	26.72	0.76	1.500			
0.4414	28247.21	3.8260	3.8260	1.3628	26.71	0.75	1.500			
0.4455	28511.90	3.8230	3.8230	1.3932	26.70	0.74	1.500			
0.4497	28781.78	3.8200	3.8199	1.4183	26.69	0.73	1.500			
0.4540	29055.29	3.8170	3.8170	1.4471	26.68	0.72	1.500			
0.4584	29336.16	3.8140	3.8141	1.4799	26.67	0.71	1.500			
0.4629	29623.88	3.8110	3.8109	1.5206	26.66	0.70	1.500			
0.4675	29917.59	3.8080	3.8080	1.5576	26.65	0.69	1.500			
0.4722	30218.85	3.8050	3.8050	1.5964	26.64	0.68	1.500			
0.4770	30529.71	3.8020	3.8020	1.6478	26.63	0.67	1.500			
0.4820	30850.62	3.7990	3.7990	1.6917	26.62	0.66	1.500			
0.4872	31182.42	3.7960	3.7960	1.7352	26.60	0.64	1.500			
0.4925	31519.97	3.7930	3.7931	1.7756	26.59	0.63	1.500			
0.4979	31865.57	3.7900	3.7900	1.8047	26.57	0.61	1.500			
0.5033	32212.82	3.7870	3.7870	1.8575	26.56	0.60	1.500			
0.5089	32571.43	3.7840	3.7840	1.8992	26.54	0.58	1.500			
0.5147	32940.74	3.7810	3.7810	1.9600	26.53	0.57	1.500			
0.5207	33327.79	3.7780	3.7780	1.9995	26.51	0.55	1.500			
0.5268	33713.93	3.7750	3.7750	2.0417	26.49	0.53	1.500			
0.5329	34104.25	3.7720	3.7721	2.0591	26.47	0.51	1.500			
0.5392	34507.49	3.7690	3.7689	2.1123	26.45	0.49	1.500			
0.5456	34916.86	3.7660	3.7660	2.1381	26.43	0.47	1.500			
0.5521	35331.55	3.7630	3.7629	2.1351	26.41	0.45	1.500	0.357	0.456	
0.5585	35741.64	3.7600	3.7600	2.1220	26.39	0.43	1.500			
0.5649	36151.92	3.7570	3.7570	2.1039	26.38	0.42	1.500			
0.5711	36553.59	3.7540	3.7541	2.0675	26.36	0.40	1.500			
0.5773	36945.00	3.7510	3.7510	2.0471	26.35	0.39	1.500			
0.5833	37329.33	3.7480	3.7480	2.0196	26.33	0.37	1.500			
0.5893	37715.91	3.7450	3.7450	2.0307	26.32	0.36	1.500			
0.5955	38110.76	3.7420	3.7420	2.0354	26.30	0.34	1.500			
0.6016	38501.80	3.7390	3.7390	2.0304	26.29	0.33	1.500			
0.6077	38889.94	3.7360	3.7360	2.0445	26.27	0.31	1.500			
0.6138	39281.54	3.7330	3.7332	2.0542	26.26	0.30	1.500			
0.6200	39678.80	3.7300	3.7300	2.0715	26.24	0.28	1.500			
0.6262	40076.28	3.7270	3.7270	2.1273	26.23	0.27	1.500			
0.6326	40484.45	3.7240	3.7240	2.1672	26.21	0.25	1.500			
0.6391	40903.32	3.7210	3.7209	2.2294	26.20	0.24	1.500			
0.6460	41342.07	3.7180	3.7181	2.2848	26.18	0.22	1.500			
0.6529	41787.74	3.7150	3.7150	2.3852	26.17	0.21	1.500			
0.6601	42247.13	3.7120	3.7120	2.4662	26.15	0.19	1.500			
0.6676	42728.09	3.7090	3.7091	2.5650	26.13	0.17	1.500			
0.6755	43234.19	3.7060	3.7060	2.6439	26.12	0.16	1.500			
0.6835	43747.06	3.7030	3.7030	2.6915	26.11	0.15	1.500			
0.6918	44272.52	3.7000	3.7000	2.7360	26.09	0.13	1.500			
0.7000	44801.02	3.6970	3.6970	2.7081	26.08	0.12	1.500			
0.7083	45332.37	3.6940	3.6940	2.6133	26.07	0.11	1.500			
0.7161	45827.27	3.6910	3.6910	2.4463	26.06	0.10	1.500			
0.7231	46277.75	3.6880	3.6880	2.2336	26.05	0.09	1.500			
0.7295	46685.36	3.6850	3.6850	2.0296	26.05	0.09	1.500			
0.7350	47040.91	3.6820	3.6821	1.8517	26.04	0.08	1.500			
0.7404	47382.93	3.6790	3.6791	1.7259	26.04	0.08	1.500			
0.7454	47702.52	3.6760	3.6759	1.6244	26.03	0.07	1.500			
0.7500	47998.77	3.6730	3.6731	1.5311	26.03	0.07	1.500			
0.7544	48278.90	3.6700	3.6700	1.4436	26.02	0.06	1.500			
0.7586	48550.09	3.6670	3.6670	1.3832	26.02	0.06	1.500			
0.7626	48807.40	3.6640	3.6639	1.3268	26.01	0.05	1.500			
0.7664	49050.28	3.6610	3.6610	1.2864	26.01	0.05	1.500			
0.7702	49293.28	3.6580	3.6580	1.2642	26.00	0.04	1.500			
0.7739	49529.30	3.6550	3.6549	1.2481	26.00	0.04	1.500			
0.7776	49764.81	3.6520	3.6520	1.2488	25.99	0.03	1.500			
0.7813	50001.63	3.6490	3.6490	1.2556	25.99	0.03	1.500			
0.7851	50245.47	3.6460	3.6460	1.2702	25.98	0.02	1.500			
0.7889	50490.31	3.6430	3.6430	1.2847	25.98	0.02	1.500			
0.7928	50739.40	3.6400	3.6400	1.2942	25.97	0.01	1.500			
0.7967	50991.63	3.6370	3.6370	1.3055	25.97	0.01	1.500			
0.8007	51243.38	3.6340	3.6340	1.3101	25.97	0.01	1.500			
0.8046	51495.05	3.6310	3.6310	1.3081	25.96	0.00	1.500			
0.8085	51747.14	3.6280	3.6280	1.3071	25.96	-0.00	1.500			
0.8125	51999.93	3.6250	3.6250	1.2978	25.95	-0.01	1.500			
0.8164	52247.82	3.6220	3.6220	1.2873	25.95	-0.01	1.500			
0.8202	52494.11	3.6190	3.6191	1.2817	25.94	-0.02	1.500			
0.8240	52737.75	3.6160	3.6160	1.2782	25.94	-0.02	1.500			
0.8278	52981.70	3.6130	3.6129	1.2775	25.93	-0.03	1.500			
0.8317	53227.44	3.6100	3.6100	1.2728	25.93	-0.03	1.500			
0.8355	53472.94	3.6070	3.6070	1.2632	25.92	-0.04	1.500			
0.8394	53719.30	3.6040	3.6041	1.2574	25.92	-0.04	1.500			
0.8431	53958.43	3.6010	3.6010	1.2438	25.92	-0.04	1.500			
0.8468	54193.65	3.5980	3.5980	1.2310	25.92	-0.04	1.500			
0.8505	54430.09	3.5950	3.5949	1.2105	25.92	-0.04	1.500			
0.8541	54660.27	3.5920	3.5920	1.1968	25.92	-0.04	1.500			
0.8577	54889.80	3.5890	3.5891	1.1894	25.92	-0.04	1.500			
0.8612	55114.32	3.5860	3.5861	1.1840	25.92	-0.04	1.500			
0.8647	55339.43	3.5830	3.5829	1.1770	25.92	-0.04	1.500			
0.8682	55565.69	3.5800	3.5799	1.1661	25.93	-0.03	1.500			
0.8718	55792.14	3.5770	3.5770	1.1497	25.93	-0.03	1.500			
0.8754	56022.96	3.5740	3.5740	1.0923	25.94	-0.02	1.500			
0.8787	56238.96	3.5710	3.5710	1.0174	25.94	-0.02	1.500			
0.8818	56436.21	3.5680	3.5681	0.9106	25.95	-0.01	1.500			
0.8844	56599.84	3.5650	3.5651	0.7771	25.95	-0.01	1.500			
0.8865	56733.86	3.5620	3.5619	0.6400	25.96	-0.00	1.500			
0.8880	56834.40	3.5590	3.5590	0.5262	25.96	-0.00	1.500			
0.8893	56913.40	3.5560	3.5561	0.4221	25.96	0.00	1.500			
0.8904	56985.17	3.5530	3.5529	0.3496	25.96	0.00	1.500			
0.8913	57041.46	3.5500	3.5499	0.2947	25.96	0.00	1.500			
0.8921	57091.42	3.5470	3.5470	0.2564	25.97	0.01	1.500			
0.8927	57134.44	3.5440	3.5440	0.2260	25.97	0.01	1.500			
0.8933	57173.49	3.5410	3.5410	0.1990	25.97	0.01	1.500			
0.8939	57208.38	3.5380	3.5380	0.1794	25.97	0.01	1.500			
0.8944	57239.79	3.5350	3.5349	0.1615	25.97	0.01	1.500			
0.8948	57268.92	3.5320	3.5321	0.1455	25.97	0.01	1.500			
0.8952	57295.49	3.5290	3.5290	0.1315	25.97	0.01	1.500			
0.8956	57319.25	3.5260	3.5260	0.1171	25.97	0.01	1.500			
0.8959	57340.51	3.5230	3.5231	0.1034	25.97	0.01	1.500			
0.8962	57358.84	3.5200	3.5201	0.0891	25.97	0.01	1.500			
0.8965	57374.63	3.5170	3.5172	0.0753	25.97	0.01	1.500			
0.8967	57388.09	3.5140	3.5143	0.0606	25.97	0.01	1.500			
0.8968	57398.31	3.5110	3.5116	0.0458	25.97	0.01	1.500			
