Ah_balance (normalized)	Ah_balance (mAh)	Voltage - fit (V)	Voltage -  interpolate (V)	dQ/dV (1/V)	Temperature (°C)	Temperature - diff (°C)	Current (C)	R_DC 0ms (mOhm)	R_DC 50ms (mOhm)	R_DC 50 ms PEC (mOhm)
0.2737	17515.26	3.9880	3.9880	0.8091	27.32	1.34	1.500			
0.2761	17670.93	3.9850	3.9851	0.8211	27.31	1.33	1.500			
0.2786	17830.59	3.9820	3.9820	0.8364	27.31	1.33	1.500			
0.2812	17993.89	3.9790	3.9790	0.8423	27.31	1.33	1.500			
0.2837	18156.34	3.9760	3.9761	0.8502	27.31	1.33	1.500			
0.2863	18321.85	3.9730	3.9731	0.8558	27.30	1.32	1.500			
0.2889	18488.44	3.9700	3.9700	0.8599	27.30	1.32	1.500			
0.2914	18651.09	3.9670	3.9670	0.8604	27.30	1.32	1.500			
0.2940	18816.85	3.9640	3.9640	0.8628	27.29	1.31	1.500			
0.2966	18983.35	3.9610	3.9610	0.8670	27.29	1.31	1.500			
0.2992	19150.02	3.9580	3.9581	0.8752	27.29	1.31	1.500			
0.3019	19318.47	3.9550	3.9550	0.8759	27.28	1.30	1.500			
0.3045	19487.10	3.9520	3.9520	0.8836	27.28	1.30	1.500			
0.3072	19658.55	3.9490	3.9490	0.8816	27.28	1.30	1.500			
0.3098	19827.34	3.9460	3.9461	0.8832	27.27	1.29	1.500			
0.3125	19997.70	3.9430	3.9430	0.8914	27.26	1.28	1.500			
0.3151	20167.93	3.9400	3.9399	0.8958	27.26	1.28	1.500			
0.3178	20338.85	3.9370	3.9369	0.8969	27.25	1.27	1.500			
0.3205	20513.08	3.9340	3.9340	0.9030	27.25	1.27	1.500			
0.3232	20687.57	3.9310	3.9311	0.9076	27.24	1.26	1.500			
0.3260	20863.51	3.9280	3.9280	0.9158	27.24	1.26	1.500			
0.3287	21038.46	3.9250	3.9250	0.9192	27.23	1.25	1.500			
0.3315	21215.03	3.9220	3.9220	0.9245	27.23	1.25	1.500			
0.3343	21393.93	3.9190	3.9189	0.9287	27.22	1.24	1.500			
0.3371	21573.25	3.9160	3.9161	0.9363	27.21	1.23	1.500			
0.3399	21753.37	3.9130	3.9130	0.9454	27.21	1.23	1.500			
0.3427	21935.29	3.9100	3.9100	0.9481	27.20	1.22	1.500			
0.3456	22117.66	3.9070	3.9069	0.9500	27.19	1.21	1.500			
0.3484	22299.67	3.9040	3.9041	0.9584	27.19	1.21	1.500			
0.3513	22484.58	3.9010	3.9011	0.9666	27.18	1.20	1.500			
0.3542	22670.21	3.8980	3.8979	0.9790	27.17	1.19	1.500			
0.3572	22858.72	3.8950	3.8950	0.9858	27.16	1.18	1.500			
0.3602	23049.64	3.8920	3.8920	0.9962	27.15	1.17	1.500			
0.3632	23243.93	3.8890	3.8890	1.0111	27.14	1.16	1.500			
0.3662	23439.26	3.8860	3.8860	1.0128	27.13	1.15	1.500			
0.3693	23635.41	3.8830	3.8830	1.0159	27.12	1.14	1.500			
0.3723	23829.67	3.8800	3.8800	1.0252	27.11	1.13	1.500			
0.3754	24025.47	3.8770	3.8771	1.0349	27.10	1.12	1.500			
0.3785	24224.06	3.8740	3.8739	1.0489	27.09	1.11	1.500			
0.3817	24426.41	3.8710	3.8710	1.0594	27.08	1.10	1.500			
0.3849	24630.51	3.8680	3.8680	1.0740	27.08	1.10	1.500			
0.3881	24839.86	3.8650	3.8650	1.0905	27.07	1.09	1.500			
0.3914	25051.84	3.8620	3.8620	1.1070	27.06	1.08	1.500			
0.3948	25264.64	3.8590	3.8589	1.1167	27.05	1.07	1.500			
0.3981	25478.95	3.8560	3.8561	1.1306	27.04	1.06	1.500			
0.4015	25698.16	3.8530	3.8530	1.1473	27.03	1.05	1.500			
0.4050	25920.68	3.8500	3.8500	1.1653	27.02	1.04	1.500			
0.4085	26145.83	3.8470	3.8470	1.1780	27.01	1.03	1.500			
0.4121	26373.36	3.8440	3.8440	1.1971	26.99	1.01	1.500			
0.4157	26605.03	3.8410	3.8410	1.2104	26.98	1.00	1.500			
0.4194	26839.19	3.8380	3.8381	1.2284	26.97	0.99	1.500			
0.4230	27074.52	3.8350	3.8349	1.2495	26.95	0.97	1.500			
0.4268	27316.34	3.8320	3.8320	1.2728	26.94	0.96	1.500			
0.4307	27563.24	3.8290	3.8291	1.2916	26.93	0.95	1.500			
0.4346	27812.62	3.8260	3.8260	1.3174	26.91	0.93	1.500			
0.4386	28068.77	3.8230	3.8230	1.3406	26.90	0.92	1.500			
0.4426	28329.14	3.8200	3.8200	1.3684	26.88	0.90	1.500			
0.4468	28594.80	3.8170	3.8169	1.3921	26.87	0.89	1.500			
0.4510	28862.56	3.8140	3.8141	1.4182	26.85	0.87	1.500			
0.4553	29138.88	3.8110	3.8110	1.4464	26.84	0.86	1.500			
0.4597	29420.03	3.8080	3.8080	1.4693	26.82	0.84	1.500			
0.4641	29703.15	3.8050	3.8051	1.4902	26.81	0.83	1.500			
0.4686	29991.85	3.8020	3.8020	1.5198	26.79	0.81	1.500			
0.4732	30286.09	3.7990	3.7990	1.5494	26.77	0.79	1.500			
0.4779	30586.19	3.7960	3.7960	1.5776	26.76	0.78	1.500			
0.4827	30891.86	3.7930	3.7930	1.6061	26.74	0.76	1.500			
0.4876	31206.13	3.7900	3.7900	1.6301	26.72	0.74	1.500			
0.4925	31520.38	3.7870	3.7870	1.6499	26.70	0.72	1.500			
0.4974	31835.84	3.7840	3.7840	1.6987	26.69	0.71	1.500			
0.5026	32166.24	3.7810	3.7809	1.7390	26.67	0.69	1.500			
0.5079	32504.40	3.7780	3.7771	1.7588	26.65	0.67	1.500	0.346	0.469	
0.5133	32848.13	3.7750	3.7751	1.7737	26.63	0.65	1.500			
0.5186	33191.01	3.7720	3.7720	1.7687	26.62	0.64	1.500			
0.5238	33522.72	3.7690	3.7691	1.7498	26.60	0.62	1.500			
0.5290	33857.50	3.7660	3.7658	1.7525	26.58	0.60	1.500			
0.5343	34195.38	3.7630	3.7630	1.7670	26.57	0.59	1.500			
0.5397	34538.54	3.7600	3.7600	1.7710	26.55	0.57	1.500			
0.5449	34876.62	3.7570	3.7571	1.7823	26.53	0.55	1.500			
0.5502	35211.70	3.7540	3.7540	1.7768	26.51	0.53	1.500			
0.5556	35556.33	3.7510	3.7509	1.7942	26.50	0.52	1.500			
0.5610	35901.03	3.7480	3.7481	1.8094	26.48	0.50	1.500			
0.5664	36252.09	3.7450	3.7451	1.8322	26.46	0.48	1.500			
0.5720	36606.35	3.7420	3.7419	1.8542	26.44	0.46	1.500			
0.5775	36962.49	3.7390	3.7390	1.8806	26.43	0.45	1.500			
0.5832	37327.62	3.7360	3.7360	1.9243	26.41	0.43	1.500			
0.5891	37703.15	3.7330	3.7330	1.9522	26.39	0.41	1.500			
0.5949	38076.59	3.7300	3.7300	1.9991	26.37	0.39	1.500			
0.6010	38466.82	3.7270	3.7270	2.0676	26.35	0.37	1.500			
0.6073	38867.80	3.7240	3.7240	2.1277	26.33	0.35	1.500			
0.6138	39284.12	3.7210	3.7210	2.1851	26.32	0.34	1.500			
0.6205	39711.93	3.7180	3.7181	2.2808	26.30	0.32	1.500			
0.6274	40153.40	3.7150	3.7149	2.3375	26.29	0.31	1.500			
0.6347	40617.67	3.7120	3.7120	2.3709	26.27	0.29	1.500			
0.6418	41076.30	3.7090	3.7090	2.3781	26.25	0.27	1.500			
0.6489	41528.79	3.7060	3.7060	2.3430	26.23	0.25	1.500			
0.6559	41976.34	3.7030	3.7029	2.2928	26.22	0.24	1.500			
0.6628	42422.20	3.7000	3.7000	2.2023	26.20	0.22	1.500			
0.6694	42840.66	3.6970	3.6970	2.0859	26.18	0.20	1.500			
0.6754	43224.87	3.6940	3.6940	1.9239	26.17	0.19	1.500			
0.6809	43576.34	3.6910	3.6910	1.7789	26.16	0.18	1.500			
0.6859	43896.49	3.6880	3.6880	1.6586	26.15	0.17	1.500			
0.6907	44205.98	3.6850	3.6849	1.5778	26.14	0.16	1.500			
0.6953	44497.76	3.6820	3.6819	1.5020	26.14	0.16	1.500			
0.6996	44775.88	3.6790	3.6791	1.4344	26.13	0.15	1.500			
0.7039	45046.79	3.6760	3.6760	1.3816	26.12	0.14	1.500			
0.7078	45302.29	3.6730	3.6730	1.3371	26.11	0.13	1.500			
0.7118	45552.97	3.6700	3.6699	1.3029	26.10	0.12	1.500			
0.7155	45795.08	3.6670	3.6670	1.2813	26.09	0.11	1.500			
0.7193	46037.61	3.6640	3.6640	1.2754	26.08	0.10	1.500			
0.7231	46279.91	3.6610	3.6610	1.2763	26.08	0.10	1.500			
0.7270	46526.14	3.6580	3.6580	1.2783	26.07	0.09	1.500			
0.7308	46771.83	3.6550	3.6550	1.2824	26.06	0.08	1.500			
0.7347	47018.90	3.6520	3.6520	1.2813	26.05	0.07	1.500			
0.7385	47266.49	3.6490	3.6490	1.2798	26.04	0.06	1.500			
0.7424	47512.56	3.6460	3.6460	1.2705	26.03	0.05	1.500			
0.7462	47756.60	3.6430	3.6430	1.2612	26.03	0.05	1.500			
0.7499	47996.08	3.6400	3.6400	1.2540	26.02	0.04	1.500			
0.7537	48236.53	3.6370	3.6369	1.2519	26.01	0.03	1.500			
0.7574	48473.79	3.6340	3.6340	1.2473	26.00	0.02	1.500			
0.7612	48714.52	3.6310	3.6310	1.2463	26.00	0.02	1.500			
0.7649	48955.15	3.6280	3.6280	1.2445	25.99	0.01	1.500			
0.7687	49194.66	3.6250	3.6250	1.2388	25.98	0.00	1.500			
0.7724	49432.69	3.6220	3.6221	1.2286	25.97	-0.01	1.500			
0.7761	49667.59	3.6190	3.6189	1.2120	25.97	-0.01	1.500			
0.7797	49899.24	3.6160	3.6161	1.1990	25.96	-0.02	1.500			
0.7833	50128.32	3.6130	3.6130	1.1805	25.96	-0.02	1.500			
0.7868	50353.62	3.6100	3.6100	1.1687	25.95	-0.03	1.500			
0.7903	50576.14	3.6070	3.6070	1.1497	25.95	-0.03	1.500			
0.7937	50794.70	3.6040	3.6040	1.1322	25.95	-0.03	1.500			
0.7971	51011.23	3.6010	3.6010	1.1135	25.95	-0.03	1.500			
0.8004	51224.46	3.5980	3.5980	1.0880	25.94	-0.04	1.500			
0.8036	51431.25	3.5950	3.5950	1.0649	25.94	-0.04	1.500			
0.8068	51635.09	3.5920	3.5920	1.0349	25.94	-0.04	1.500			
0.8099	51832.75	3.5890	3.5890	0.9938	25.95	-0.03	1.500			
0.8129	52023.20	3.5860	3.5860	0.9423	25.95	-0.03	1.500			
0.8157	52206.06	3.5830	3.5830	0.8682	25.96	-0.02	1.500			
0.8183	52368.57	3.5800	3.5801	0.7818	25.96	-0.02	1.500			
0.8205	52513.80	3.5770	3.5770	0.6897	25.97	-0.01	1.500			
0.8224	52634.00	3.5740	3.5740	0.5864	25.97	-0.01	1.500			
0.8240	52732.96	3.5710	3.5709	0.4949	25.97	-0.01	1.500			
0.8252	52815.61	3.5680	3.5680	0.4135	25.97	-0.01	1.500			
0.8263	52883.92	3.5650	3.5650	0.3499	25.97	-0.01	1.500			
0.8272	52942.94	3.5620	3.5619	0.3042	25.98	-0.00	1.500			
0.8280	52992.93	3.5590	3.5589	0.2638	25.98	-0.00	1.500			
0.8287	53038.78	3.5560	3.5560	0.2362	25.98	-0.00	1.500			
0.8294	53079.79	3.5530	3.5530	0.2110	25.98	-0.00	1.500			
0.8300	53118.19	3.5500	3.5500	0.1935	25.98	0.00	1.500			
0.8305	53152.87	3.5470	3.5470	0.1758	25.98	0.00	1.500			
0.8310	53184.83	3.5440	3.5440	0.1595	25.98	0.00	1.500			
0.8315	53213.87	3.5410	3.5410	0.1451	25.98	0.00	1.500			
0.8319	53240.18	3.5380	3.5380	0.1304	25.98	0.00	1.500			
0.8322	53263.70	3.5350	3.5351	0.1162	25.98	0.00	1.500			
0.8326	53284.57	3.5320	3.5319	0.1020	25.98	0.00	1.500			
0.8329	53302.81	3.5290	3.5291	0.0881	25.99	0.01	1.500			
0.8331	53318.23	3.5260	3.5261	0.0742	25.99	0.01	1.500			
0.8333	53331.51	3.5230	3.5235	0.0603	25.99	0.01	1.500			
0.8335	53341.72	3.5200	3.5206	0.0460	25.99	0.01	1.500			
0.8336	53349.16	3.5170	3.5180	0.0316	25.99	0.01	1.500			
