Ah_balance (normalized)	Ah_balance (mAh)	Voltage - fit (V)	Voltage -  interpolate (V)	dQ/dV (1/V)	Temperature (°C)	Temperature - diff (°C)	Current (C)	R_DC 0ms (mOhm)	R_DC 50ms (mOhm)	R_DC 50 ms PEC (mOhm)
0.2824	18075.54	3.9830	3.9830	0.8461	27.25	1.29	1.500			
0.2850	18238.32	3.9800	3.9800	0.8499	27.24	1.28	1.500			
0.2875	18400.88	3.9770	3.9770	0.8542	27.24	1.28	1.500			
0.2901	18565.47	3.9740	3.9740	0.8633	27.23	1.27	1.500			
0.2927	18732.37	3.9710	3.9710	0.8645	27.22	1.26	1.500			
0.2953	18899.59	3.9680	3.9679	0.8694	27.22	1.26	1.500			
0.2979	19067.37	3.9650	3.9651	0.8752	27.21	1.25	1.500			
0.3006	19235.42	3.9620	3.9620	0.8781	27.20	1.24	1.500			
0.3032	19405.20	3.9590	3.9590	0.8786	27.20	1.24	1.500			
0.3059	19574.98	3.9560	3.9560	0.8734	27.19	1.23	1.500			
0.3084	19740.77	3.9530	3.9531	0.8776	27.19	1.23	1.500			
0.3111	19909.62	3.9500	3.9501	0.8843	27.18	1.22	1.500			
0.3137	20077.19	3.9470	3.9469	0.8879	27.17	1.21	1.500			
0.3164	20248.59	3.9440	3.9440	0.8928	27.17	1.21	1.500			
0.3191	20420.73	3.9410	3.9411	0.9018	27.16	1.20	1.500			
0.3218	20596.78	3.9380	3.9380	0.9068	27.16	1.20	1.500			
0.3246	20773.35	3.9350	3.9350	0.9131	27.15	1.19	1.500			
0.3273	20945.41	3.9320	3.9320	0.9135	27.15	1.19	1.500			
0.3300	21122.36	3.9290	3.9290	0.9180	27.14	1.18	1.500			
0.3328	21299.31	3.9260	3.9259	0.9199	27.13	1.17	1.500			
0.3356	21476.81	3.9230	3.9230	0.9263	27.13	1.17	1.500			
0.3383	21654.17	3.9200	3.9201	0.9346	27.12	1.16	1.500			
0.3412	21835.17	3.9170	3.9170	0.9423	27.12	1.16	1.500			
0.3440	22016.09	3.9140	3.9139	0.9439	27.11	1.15	1.500			
0.3468	22197.28	3.9110	3.9111	0.9507	27.10	1.14	1.500			
0.3497	22381.44	3.9080	3.9081	0.9648	27.09	1.13	1.500			
0.3526	22566.55	3.9050	3.9050	0.9740	27.08	1.12	1.500			
0.3556	22755.24	3.9020	3.9019	0.9771	27.08	1.12	1.500			
0.3585	22943.77	3.8990	3.8991	0.9812	27.07	1.11	1.500			
0.3615	23133.62	3.8960	3.8960	0.9913	27.06	1.10	1.500			
0.3644	23324.21	3.8930	3.8929	0.9977	27.05	1.09	1.500			
0.3674	23514.39	3.8900	3.8900	1.0005	27.04	1.08	1.500			
0.3704	23705.59	3.8870	3.8870	1.0110	27.04	1.08	1.500			
0.3735	23902.27	3.8840	3.8841	1.0212	27.03	1.07	1.500			
0.3766	24101.09	3.8810	3.8809	1.0338	27.02	1.06	1.500			
0.3797	24300.29	3.8780	3.8780	1.0444	27.01	1.05	1.500			
0.3828	24500.78	3.8750	3.8751	1.0530	27.01	1.05	1.500			
0.3860	24704.01	3.8720	3.8719	1.0600	27.00	1.04	1.500			
0.3892	24908.42	3.8690	3.8689	1.0697	26.99	1.03	1.500			
0.3924	25112.21	3.8660	3.8661	1.0790	26.98	1.02	1.500			
0.3956	25321.06	3.8630	3.8630	1.0947	26.98	1.02	1.500			
0.3989	25531.81	3.8600	3.8600	1.1125	26.97	1.01	1.500			
0.4023	25747.59	3.8570	3.8570	1.1276	26.96	1.00	1.500			
0.4057	25966.62	3.8540	3.8540	1.1435	26.95	0.99	1.500			
0.4092	26189.18	3.8510	3.8510	1.1591	26.94	0.98	1.500			
0.4127	26410.13	3.8480	3.8481	1.1786	26.94	0.98	1.500			
0.4162	26638.11	3.8450	3.8450	1.1959	26.93	0.97	1.500			
0.4198	26868.10	3.8420	3.8420	1.2143	26.91	0.95	1.500			
0.4235	27102.52	3.8390	3.8390	1.2396	26.90	0.94	1.500			
0.4273	27346.11	3.8360	3.8361	1.2562	26.89	0.93	1.500			
0.4311	27589.75	3.8330	3.8330	1.2868	26.88	0.92	1.500			
0.4350	27838.62	3.8300	3.8301	1.3124	26.87	0.91	1.500			
0.4389	28091.95	3.8270	3.8269	1.3327	26.85	0.89	1.500			
0.4430	28349.19	3.8240	3.8241	1.3621	26.84	0.88	1.500			
0.4471	28613.90	3.8210	3.8211	1.3911	26.82	0.86	1.500			
0.4513	28882.03	3.8180	3.8180	1.4210	26.81	0.85	1.500			
0.4556	29160.37	3.8150	3.8150	1.4559	26.79	0.83	1.500			
0.4600	29439.63	3.8120	3.8120	1.4830	26.78	0.82	1.500			
0.4645	29727.12	3.8090	3.8088	1.5202	26.76	0.80	1.500			
0.4691	30024.63	3.8060	3.8061	1.5537	26.75	0.79	1.500			
0.4738	30325.92	3.8030	3.8029	1.5814	26.73	0.77	1.500			
0.4786	30633.26	3.8000	3.8000	1.6234	26.72	0.76	1.500			
0.4835	30943.26	3.7970	3.7971	1.6577	26.70	0.74	1.500			
0.4886	31268.28	3.7940	3.7938	1.7085	26.68	0.72	1.500			
0.4938	31600.65	3.7910	3.7911	1.7442	26.66	0.70	1.500			
0.4991	31943.59	3.7880	3.7880	1.7583	26.64	0.68	1.500			
0.5045	32289.52	3.7850	3.7850	1.8064	26.62	0.66	1.500			
0.5100	32636.94	3.7820	3.7820	1.8412	26.60	0.64	1.500			
0.5155	32991.47	3.7790	3.7788	1.8757	26.58	0.62	1.500			
0.5211	33351.96	3.7760	3.7760	1.9082	26.56	0.60	1.500			
0.5270	33725.99	3.7730	3.7731	1.9520	26.54	0.58	1.500			
0.5328	34102.38	3.7700	3.7697	1.9619	26.52	0.56	1.500	0.355	0.458	
0.5388	34485.08	3.7670	3.7670	1.9784	26.50	0.54	1.500			
0.5448	34869.73	3.7640	3.7640	1.9842	26.48	0.52	1.500			
0.5509	35255.74	3.7610	3.7610	1.9685	26.47	0.51	1.500			
0.5567	35627.14	3.7580	3.7580	1.9366	26.45	0.49	1.500			
0.5625	35997.80	3.7550	3.7550	1.9309	26.43	0.47	1.500			
0.5682	36365.63	3.7520	3.7520	1.9268	26.41	0.45	1.500			
0.5740	36736.74	3.7490	3.7490	1.9011	26.39	0.43	1.500			
0.5797	37098.85	3.7460	3.7461	1.9018	26.37	0.41	1.500			
0.5853	37458.01	3.7430	3.7431	1.9161	26.35	0.39	1.500			
0.5910	37826.12	3.7400	3.7400	1.9453	26.34	0.38	1.500			
0.5969	38201.63	3.7370	3.7371	1.9814	26.32	0.36	1.500			
0.6030	38591.29	3.7340	3.7340	2.0021	26.31	0.35	1.500			
0.6090	38975.54	3.7310	3.7310	2.0167	26.29	0.33	1.500			
0.6150	39363.16	3.7280	3.7279	2.0684	26.28	0.32	1.500			
0.6213	39764.72	3.7250	3.7250	2.1109	26.26	0.30	1.500			
0.6277	40175.48	3.7220	3.7221	2.1840	26.25	0.29	1.500			
0.6343	40597.83	3.7190	3.7190	2.2506	26.23	0.27	1.500			
0.6412	41035.46	3.7160	3.7160	2.3377	26.22	0.26	1.500			
0.6484	41497.30	3.7130	3.7129	2.4354	26.21	0.25	1.500			
0.6559	41978.64	3.7100	3.7100	2.5151	26.19	0.23	1.500			
0.6636	42467.29	3.7070	3.7070	2.5642	26.18	0.22	1.500			
0.6713	42960.88	3.7040	3.7040	2.5773	26.17	0.21	1.500			
0.6789	43452.21	3.7010	3.7010	2.5571	26.16	0.20	1.500			
0.6868	43953.23	3.6980	3.6980	2.5371	26.15	0.19	1.500			
0.6943	44437.66	3.6950	3.6950	2.4178	26.13	0.17	1.500			
0.7016	44899.49	3.6920	3.6920	2.2632	26.12	0.16	1.500			
0.7080	45314.66	3.6890	3.6890	2.0744	26.11	0.15	1.500			
0.7138	45684.33	3.6860	3.6859	1.8948	26.10	0.14	1.500			
0.7192	46031.45	3.6830	3.6830	1.7606	26.10	0.14	1.500			
0.7244	46359.64	3.6800	3.6800	1.6464	26.09	0.13	1.500			
0.7290	46657.55	3.6770	3.6771	1.5491	26.09	0.13	1.500			
0.7335	46943.97	3.6740	3.6740	1.4678	26.09	0.13	1.500			
0.7377	47212.74	3.6710	3.6710	1.4005	26.08	0.12	1.500			
0.7418	47473.54	3.6680	3.6679	1.3487	26.08	0.12	1.500			
0.7457	47725.00	3.6650	3.6651	1.3123	26.07	0.11	1.500			
0.7496	47971.60	3.6620	3.6620	1.2877	26.06	0.10	1.500			
0.7534	48217.86	3.6590	3.6590	1.2755	26.06	0.10	1.500			
0.7571	48456.24	3.6560	3.6560	1.2640	26.05	0.09	1.500			
0.7609	48696.30	3.6530	3.6530	1.2616	26.05	0.09	1.500			
0.7647	48938.00	3.6500	3.6499	1.2736	26.04	0.08	1.500			
0.7685	49183.04	3.6470	3.6471	1.2827	26.04	0.08	1.500			
0.7724	49430.44	3.6440	3.6439	1.2902	26.03	0.07	1.500			
0.7762	49678.93	3.6410	3.6410	1.2999	26.03	0.07	1.500			
0.7802	49931.58	3.6380	3.6380	1.2989	26.02	0.06	1.500			
0.7841	50181.88	3.6350	3.6349	1.2994	26.02	0.06	1.500			
0.7880	50432.98	3.6320	3.6320	1.2995	26.01	0.05	1.500			
0.7919	50681.09	3.6290	3.6290	1.2930	26.01	0.05	1.500			
0.7958	50929.12	3.6260	3.6259	1.2924	26.00	0.04	1.500			
0.7996	51176.70	3.6230	3.6230	1.2895	25.99	0.03	1.500			
0.8035	51422.65	3.6200	3.6200	1.2811	25.98	0.02	1.500			
0.8073	51669.34	3.6170	3.6170	1.2797	25.98	0.02	1.500			
0.8112	51915.09	3.6140	3.6140	1.2720	25.97	0.01	1.500			
0.8150	52158.94	3.6110	3.6108	1.2638	25.96	-0.00	1.500			
0.8188	52401.43	3.6080	3.6081	1.2561	25.96	-0.00	1.500			
0.8225	52641.79	3.6050	3.6050	1.2451	25.96	-0.00	1.500			
0.8263	52883.29	3.6020	3.6020	1.2271	25.96	-0.00	1.500			
0.8299	53115.32	3.5990	3.5990	1.2082	25.95	-0.01	1.500			
0.8335	53346.58	3.5960	3.5960	1.1947	25.95	-0.01	1.500			
0.8371	53574.77	3.5930	3.5930	1.1764	25.95	-0.01	1.500			
0.8406	53798.01	3.5900	3.5899	1.1597	25.95	-0.01	1.500			
0.8440	54018.50	3.5870	3.5871	1.1436	25.95	-0.01	1.500			
0.8475	54238.21	3.5840	3.5840	1.1268	25.95	-0.01	1.500			
0.8509	54457.27	3.5810	3.5809	1.0933	25.95	-0.01	1.500			
0.8542	54668.19	3.5780	3.5780	1.0382	25.96	-0.00	1.500			
0.8574	54874.83	3.5750	3.5750	0.9584	25.96	-0.00	1.500			
0.8602	55054.52	3.5720	3.5721	0.8559	25.96	-0.00	1.500			
0.8627	55212.65	3.5690	3.5691	0.7394	25.96	-0.00	1.500			
0.8647	55340.13	3.5660	3.5659	0.6214	25.96	-0.00	1.500			
0.8663	55441.85	3.5630	3.5629	0.5059	25.96	0.00	1.500			
0.8675	55521.91	3.5600	3.5600	0.4237	25.96	0.00	1.500			
0.8686	55589.21	3.5570	3.5570	0.3536	25.96	0.00	1.500			
0.8695	55649.56	3.5540	3.5538	0.2981	25.96	0.00	1.500			
0.8703	55700.17	3.5510	3.5510	0.2610	25.96	0.00	1.500			
0.8710	55743.62	3.5480	3.5480	0.2301	25.96	0.00	1.500			
0.8716	55783.86	3.5450	3.5450	0.2067	25.96	0.00	1.500			
0.8722	55820.04	3.5420	3.5419	0.1843	25.96	0.00	1.500			
0.8727	55852.82	3.5390	3.5391	0.1676	25.96	0.00	1.500			
0.8732	55882.98	3.5360	3.5361	0.1528	25.96	0.00	1.500			
0.8736	55910.68	3.5330	3.5329	0.1381	25.96	0.00	1.500			
0.8740	55935.89	3.5300	3.5300	0.1244	25.96	0.00	1.500			
0.8743	55958.32	3.5270	3.5271	0.1104	25.96	0.00	1.500			
0.8747	55978.12	3.5240	3.5240	0.0968	25.96	0.00	1.500			
0.8749	55995.83	3.5210	3.5212	0.0838	25.96	0.00	1.500			
0.8752	56010.56	3.5180	3.5181	0.0697	25.96	0.00	1.500			
0.8754	56022.78	3.5150	3.5153	0.0550	25.96	0.00	1.500			
0.8755	56031.94	3.5120	3.5125	0.0404	25.96	0.00	1.500			
