Ah_balance (normalized)	Ah_balance (mAh)	Voltage - fit (V)	Voltage -  interpolate (V)	dQ/dV (1/V)	Temperature (°C)	Temperature - diff (°C)	Current (C)	R_DC 0ms (mOhm)	R_DC 50ms (mOhm)	R_DC 50 ms PEC (mOhm)
0.2794	17880.77	3.9920	3.9920	0.8732	27.45	1.49	1.500			
0.2820	18045.49	3.9890	3.9890	0.8499	27.44	1.48	1.500			
0.2845	18207.01	3.9860	3.9860	0.8429	27.43	1.47	1.500			
0.2870	18367.87	3.9830	3.9831	0.8435	27.43	1.47	1.500			
0.2895	18529.77	3.9800	3.9799	0.8440	27.42	1.46	1.500			
0.2921	18692.30	3.9770	3.9769	0.8421	27.41	1.45	1.500			
0.2946	18852.96	3.9740	3.9741	0.8441	27.40	1.44	1.500			
0.2971	19014.87	3.9710	3.9711	0.8534	27.40	1.44	1.500			
0.2997	19179.55	3.9680	3.9679	0.8546	27.39	1.43	1.500			
0.3023	19344.54	3.9650	3.9649	0.8584	27.38	1.42	1.500			
0.3048	19510.07	3.9620	3.9621	0.8620	27.38	1.42	1.500			
0.3074	19676.44	3.9590	3.9591	0.8710	27.37	1.41	1.500			
0.3101	19844.78	3.9560	3.9560	0.8748	27.36	1.40	1.500			
0.3127	20011.49	3.9530	3.9530	0.8714	27.35	1.39	1.500			
0.3153	20178.49	3.9500	3.9500	0.8759	27.35	1.39	1.500			
0.3180	20348.91	3.9470	3.9471	0.8835	27.34	1.38	1.500			
0.3206	20517.82	3.9440	3.9440	0.8860	27.33	1.37	1.500			
0.3232	20686.84	3.9410	3.9410	0.8945	27.32	1.36	1.500			
0.3259	20859.19	3.9380	3.9379	0.9002	27.31	1.35	1.500			
0.3287	21034.66	3.9350	3.9350	0.9045	27.30	1.34	1.500			
0.3314	21209.49	3.9320	3.9320	0.9075	27.29	1.33	1.500			
0.3341	21383.84	3.9290	3.9291	0.9127	27.29	1.33	1.500			
0.3369	21559.15	3.9260	3.9259	0.9183	27.28	1.32	1.500			
0.3396	21733.35	3.9230	3.9230	0.9209	27.27	1.31	1.500			
0.3424	21910.48	3.9200	3.9201	0.9270	27.26	1.30	1.500			
0.3452	22091.16	3.9170	3.9169	0.9353	27.25	1.29	1.500			
0.3480	22271.43	3.9140	3.9140	0.9421	27.25	1.29	1.500			
0.3508	22451.95	3.9110	3.9111	0.9476	27.24	1.28	1.500			
0.3537	22634.29	3.9080	3.9080	0.9504	27.23	1.27	1.500			
0.3565	22817.10	3.9050	3.9049	0.9583	27.22	1.26	1.500			
0.3594	23001.84	3.9020	3.9020	0.9698	27.21	1.25	1.500			
0.3623	23188.92	3.8990	3.8990	0.9788	27.21	1.25	1.500			
0.3653	23378.32	3.8960	3.8959	0.9861	27.20	1.24	1.500			
0.3682	23567.88	3.8930	3.8930	0.9932	27.19	1.23	1.500			
0.3712	23759.83	3.8900	3.8900	1.0034	27.18	1.22	1.500			
0.3743	23952.80	3.8870	3.8870	1.0171	27.17	1.21	1.500			
0.3773	24149.65	3.8840	3.8839	1.0214	27.16	1.20	1.500			
0.3804	24346.35	3.8810	3.8811	1.0353	27.15	1.19	1.500			
0.3835	24546.86	3.8780	3.8780	1.0489	27.14	1.18	1.500			
0.3867	24749.76	3.8750	3.8750	1.0562	27.13	1.17	1.500			
0.3899	24952.96	3.8720	3.8721	1.0654	27.12	1.16	1.500			
0.3931	25157.87	3.8690	3.8690	1.0733	27.11	1.15	1.500			
0.3963	25363.21	3.8660	3.8660	1.0862	27.09	1.13	1.500			
0.3996	25574.65	3.8630	3.8630	1.1027	27.08	1.12	1.500			
0.4029	25787.58	3.8600	3.8598	1.1040	27.07	1.11	1.500			
0.4063	26001.58	3.8570	3.8571	1.1270	27.06	1.10	1.500			
0.4097	26219.38	3.8540	3.8541	1.1458	27.05	1.09	1.500			
0.4131	26439.58	3.8510	3.8508	1.1658	27.03	1.07	1.500			
0.4167	26665.74	3.8480	3.8479	1.1866	27.02	1.06	1.500			
0.4202	26893.87	3.8450	3.8450	1.1987	27.01	1.05	1.500			
0.4239	27127.39	3.8420	3.8421	1.2184	27.00	1.04	1.500			
0.4276	27364.10	3.8390	3.8391	1.2276	26.98	1.02	1.500			
0.4313	27602.92	3.8360	3.8360	1.2448	26.97	1.01	1.500			
0.4350	27840.02	3.8330	3.8330	1.2614	26.95	0.99	1.500			
0.4388	28083.12	3.8300	3.8299	1.2836	26.94	0.98	1.500			
0.4427	28331.30	3.8270	3.8271	1.3111	26.93	0.97	1.500			
0.4467	28586.87	3.8240	3.8240	1.3362	26.91	0.95	1.500			
0.4507	28847.09	3.8210	3.8210	1.3611	26.90	0.94	1.500			
0.4548	29109.37	3.8180	3.8181	1.3874	26.88	0.92	1.500			
0.4590	29377.98	3.8150	3.8150	1.4165	26.86	0.90	1.500			
0.4633	29653.51	3.8120	3.8119	1.4360	26.84	0.88	1.500			
0.4677	29930.15	3.8090	3.8090	1.4602	26.83	0.87	1.500			
0.4721	30212.40	3.8060	3.8061	1.4864	26.81	0.85	1.500			
0.4766	30503.80	3.8030	3.8029	1.5065	26.80	0.84	1.500			
0.4811	30792.97	3.8000	3.8000	1.5282	26.78	0.82	1.500			
0.4857	31086.26	3.7970	3.7971	1.5556	26.76	0.80	1.500			
0.4904	31388.50	3.7940	3.7941	1.5869	26.75	0.79	1.500			
0.4953	31696.95	3.7910	3.7910	1.6172	26.73	0.77	1.500			
0.5001	32009.27	3.7880	3.7881	1.6437	26.71	0.75	1.500			
0.5052	32330.44	3.7850	3.7850	1.6742	26.69	0.73	1.500			
0.5102	32652.53	3.7820	3.7820	1.6884	26.67	0.71	1.500	0.345	0.478	
0.5153	32978.96	3.7790	3.7790	1.7062	26.66	0.70	1.500			
0.5205	33310.42	3.7760	3.7760	1.7157	26.64	0.68	1.500			
0.5256	33640.14	3.7730	3.7730	1.7189	26.63	0.67	1.500			
0.5308	33969.03	3.7700	3.7700	1.7203	26.61	0.65	1.500			
0.5359	34298.71	3.7670	3.7670	1.7138	26.60	0.64	1.500			
0.5411	34628.85	3.7640	3.7639	1.7191	26.58	0.62	1.500			
0.5463	34963.68	3.7610	3.7610	1.7138	26.57	0.61	1.500			
0.5514	35288.68	3.7580	3.7579	1.7165	26.56	0.60	1.500			
0.5564	35611.94	3.7550	3.7551	1.7267	26.54	0.58	1.500			
0.5617	35947.58	3.7520	3.7520	1.7541	26.53	0.57	1.500			
0.5670	36286.09	3.7490	3.7491	1.7774	26.51	0.55	1.500			
0.5723	36628.24	3.7460	3.7461	1.8129	26.49	0.53	1.500			
0.5779	36983.37	3.7430	3.7429	1.8588	26.48	0.52	1.500			
0.5834	37334.55	3.7400	3.7400	1.8767	26.46	0.50	1.500			
0.5891	37700.41	3.7370	3.7369	1.9240	26.44	0.48	1.500			
0.5950	38076.95	3.7340	3.7340	1.9801	26.42	0.46	1.500			
0.6010	38461.58	3.7310	3.7310	2.0031	26.40	0.44	1.500			
0.6070	38848.17	3.7280	3.7280	2.0428	26.38	0.42	1.500			
0.6131	39241.57	3.7250	3.7249	2.1224	26.36	0.40	1.500			
0.6196	39655.09	3.7220	3.7220	2.2022	26.35	0.39	1.500			
0.6264	40088.38	3.7190	3.7191	2.2532	26.33	0.37	1.500			
0.6332	40527.40	3.7160	3.7161	2.3105	26.31	0.35	1.500			
0.6403	40976.39	3.7130	3.7130	2.3385	26.30	0.34	1.500			
0.6473	41430.17	3.7100	3.7101	2.3504	26.27	0.31	1.500			
0.6545	41890.64	3.7070	3.7070	2.3029	26.25	0.29	1.500			
0.6614	42329.04	3.7040	3.7040	2.2067	26.23	0.27	1.500			
0.6679	42745.52	3.7010	3.7011	2.0736	26.21	0.25	1.500			
0.6739	43130.86	3.6980	3.6980	1.9385	26.20	0.24	1.500			
0.6794	43483.96	3.6950	3.6952	1.7928	26.18	0.22	1.500			
0.6845	43807.80	3.6920	3.6920	1.6695	26.17	0.21	1.500			
0.6894	44119.98	3.6890	3.6890	1.5907	26.16	0.20	1.500			
0.6939	44412.49	3.6860	3.6860	1.5052	26.15	0.19	1.500			
0.6984	44697.70	3.6830	3.6830	1.4498	26.14	0.18	1.500			
0.7026	44966.90	3.6800	3.6800	1.3896	26.13	0.17	1.500			
0.7066	45222.19	3.6770	3.6770	1.3484	26.12	0.16	1.500			
0.7105	45475.05	3.6740	3.6740	1.3156	26.11	0.15	1.500			
0.7144	45721.14	3.6710	3.6709	1.2917	26.10	0.14	1.500			
0.7182	45967.81	3.6680	3.6680	1.2814	26.09	0.13	1.500			
0.7221	46212.02	3.6650	3.6651	1.2759	26.08	0.12	1.500			
0.7259	46458.15	3.6620	3.6619	1.2716	26.07	0.11	1.500			
0.7297	46699.51	3.6590	3.6590	1.2674	26.06	0.10	1.500			
0.7335	46942.81	3.6560	3.6560	1.2661	26.05	0.09	1.500			
0.7373	47188.40	3.6530	3.6530	1.2645	26.04	0.08	1.500			
0.7411	47430.79	3.6500	3.6501	1.2590	26.04	0.08	1.500			
0.7449	47672.56	3.6470	3.6470	1.2508	26.03	0.07	1.500			
0.7486	47911.79	3.6440	3.6440	1.2383	26.02	0.06	1.500			
0.7523	48148.66	3.6410	3.6409	1.2212	26.01	0.05	1.500			
0.7559	48380.42	3.6380	3.6381	1.2126	26.00	0.04	1.500			
0.7595	48610.67	3.6350	3.6350	1.2101	25.99	0.03	1.500			
0.7632	48842.09	3.6320	3.6319	1.2100	25.98	0.02	1.500			
0.7668	49074.00	3.6290	3.6290	1.2072	25.98	0.02	1.500			
0.7704	49307.69	3.6260	3.6260	1.2075	25.97	0.01	1.500			
0.7741	49544.00	3.6230	3.6230	1.1990	25.97	0.01	1.500			
0.7777	49775.55	3.6200	3.6200	1.1755	25.97	0.01	1.500			
0.7812	49997.85	3.6170	3.6170	1.1492	25.97	0.01	1.500			
0.7846	50215.35	3.6140	3.6139	1.1261	25.96	0.00	1.500			
0.7879	50427.72	3.6110	3.6110	1.1009	25.96	0.00	1.500			
0.7912	50636.39	3.6080	3.6080	1.0774	25.96	0.00	1.500			
0.7944	50841.81	3.6050	3.6050	1.0562	25.96	0.00	1.500			
0.7976	51044.02	3.6020	3.6020	1.0322	25.96	0.00	1.500			
0.8006	51241.57	3.5990	3.5990	1.0058	25.96	0.00	1.500			
0.8036	51432.95	3.5960	3.5960	0.9709	25.96	0.00	1.500			
0.8065	51617.65	3.5930	3.5930	0.9277	25.96	0.00	1.500			
0.8093	51794.75	3.5900	3.5899	0.8779	25.96	0.00	1.500			
0.8119	51961.84	3.5870	3.5870	0.8050	25.96	0.00	1.500			
0.8143	52113.60	3.5840	3.5840	0.7270	25.96	0.00	1.500			
0.8163	52245.42	3.5810	3.5810	0.6382	25.96	0.00	1.500			
0.8181	52359.15	3.5780	3.5781	0.5481	25.96	0.00	1.500			
0.8196	52452.47	3.5750	3.5749	0.4674	25.96	0.00	1.500			
0.8208	52531.95	3.5720	3.5720	0.3977	25.96	0.00	1.500			
0.8218	52596.47	3.5690	3.5690	0.3380	25.96	0.00	1.500			
0.8227	52654.16	3.5660	3.5659	0.2951	25.96	0.00	1.500			
0.8235	52704.22	3.5630	3.5629	0.2532	25.96	0.00	1.500			
0.8242	52747.79	3.5600	3.5598	0.2256	25.96	0.00	1.500			
0.8248	52786.57	3.5570	3.5570	0.2017	25.96	0.00	1.500			
0.8253	52822.22	3.5540	3.5540	0.1821	25.96	0.00	1.500			
0.8259	52855.04	3.5510	3.5510	0.1638	25.96	0.00	1.500			
0.8263	52884.45	3.5480	3.5480	0.1481	25.96	0.00	1.500			
0.8267	52911.06	3.5450	3.5450	0.1320	25.96	0.00	1.500			
0.8271	52934.57	3.5420	3.5420	0.1170	25.96	0.00	1.500			
0.8274	52955.67	3.5390	3.5390	0.1028	25.96	0.00	1.500			
0.8277	52973.76	3.5360	3.5360	0.0883	25.96	0.00	1.500			
0.8280	52989.47	3.5330	3.5331	0.0744	25.96	0.00	1.500			
0.8282	53002.40	3.5300	3.5302	0.0603	25.96	0.00	1.500			
0.8283	53012.70	3.5270	3.5275	0.0460	25.96	0.00	1.500			
0.8284	53020.17	3.5240	3.5248	0.0318	25.96	0.00	1.500			
