Ah_balance (normalized)	Ah_balance (mAh)	Voltage - fit (V)	Voltage -  interpolate (V)	dQ/dV (1/V)	Temperature (°C)	Temperature - diff (°C)	Current (C)	R_DC 0ms (mOhm)	R_DC 50ms (mOhm)	R_DC 50 ms PEC (mOhm)
0.2967	18986.52	3.9730	3.9730	0.8626	27.01	1.05	1.500			
0.2992	19151.74	3.9700	3.9700	0.8635	27.01	1.05	1.500			
0.3018	19317.92	3.9670	3.9671	0.8677	27.00	1.04	1.500			
0.3045	19485.47	3.9640	3.9639	0.8697	27.00	1.04	1.500			
0.3071	19653.05	3.9610	3.9610	0.8687	26.99	1.03	1.500			
0.3097	19819.44	3.9580	3.9580	0.8728	26.99	1.03	1.500			
0.3123	19986.78	3.9550	3.9551	0.8807	26.99	1.03	1.500			
0.3149	20155.56	3.9520	3.9519	0.8891	26.98	1.02	1.500			
0.3176	20327.12	3.9490	3.9490	0.8907	26.98	1.02	1.500			
0.3203	20499.60	3.9460	3.9461	0.8960	26.97	1.01	1.500			
0.3230	20673.43	3.9430	3.9430	0.9076	26.97	1.01	1.500			
0.3258	20848.72	3.9400	3.9400	0.9087	26.96	1.00	1.500			
0.3285	21021.54	3.9370	3.9369	0.9110	26.96	1.00	1.500			
0.3312	21197.24	3.9340	3.9341	0.9127	26.95	0.99	1.500			
0.3339	21372.53	3.9310	3.9310	0.9200	26.95	0.99	1.500			
0.3367	21551.17	3.9280	3.9280	0.9254	26.95	0.99	1.500			
0.3395	21729.08	3.9250	3.9249	0.9289	26.94	0.98	1.500			
0.3423	21906.34	3.9220	3.9221	0.9338	26.94	0.98	1.500			
0.3451	22087.72	3.9190	3.9190	0.9413	26.93	0.97	1.500			
0.3479	22267.79	3.9160	3.9160	0.9478	26.93	0.97	1.500			
0.3508	22451.35	3.9130	3.9130	0.9562	26.92	0.96	1.500			
0.3537	22634.43	3.9100	3.9101	0.9605	26.92	0.96	1.500			
0.3566	22820.06	3.9070	3.9070	0.9703	26.91	0.95	1.500			
0.3595	23006.70	3.9040	3.9040	0.9760	26.91	0.95	1.500			
0.3624	23194.14	3.9010	3.9010	0.9832	26.90	0.94	1.500			
0.3654	23383.77	3.8980	3.8977	0.9940	26.90	0.94	1.500			
0.3684	23575.87	3.8950	3.8951	0.9988	26.89	0.93	1.500			
0.3714	23768.81	3.8920	3.8920	1.0088	26.89	0.93	1.500			
0.3744	23963.77	3.8890	3.8890	1.0169	26.88	0.92	1.500			
0.3775	24159.00	3.8860	3.8860	1.0272	26.88	0.92	1.500			
0.3806	24356.86	3.8830	3.8830	1.0351	26.87	0.91	1.500			
0.3837	24555.90	3.8800	3.8799	1.0448	26.86	0.90	1.500			
0.3868	24756.97	3.8770	3.8770	1.0587	26.86	0.90	1.500			
0.3900	24963.06	3.8740	3.8740	1.0695	26.85	0.89	1.500			
0.3933	25170.02	3.8710	3.8709	1.0761	26.84	0.88	1.500			
0.3965	25377.62	3.8680	3.8681	1.0846	26.84	0.88	1.500			
0.3998	25584.10	3.8650	3.8650	1.0949	26.83	0.87	1.500			
0.4030	25794.92	3.8620	3.8620	1.1130	26.82	0.86	1.500			
0.4064	26007.46	3.8590	3.8590	1.1291	26.82	0.86	1.500			
0.4098	26225.36	3.8560	3.8561	1.1536	26.81	0.85	1.500			
0.4133	26453.30	3.8530	3.8529	1.1776	26.80	0.84	1.500			
0.4169	26681.53	3.8500	3.8500	1.1982	26.80	0.84	1.500			
0.4205	26914.25	3.8470	3.8471	1.2105	26.79	0.83	1.500			
0.4242	27147.72	3.8440	3.8440	1.2224	26.79	0.83	1.500			
0.4278	27380.83	3.8410	3.8410	1.2419	26.78	0.82	1.500			
0.4316	27621.65	3.8380	3.8379	1.2595	26.77	0.81	1.500			
0.4354	27862.46	3.8350	3.8351	1.2820	26.77	0.81	1.500			
0.4393	28112.69	3.8320	3.8320	1.3085	26.76	0.80	1.500			
0.4432	28366.18	3.8290	3.8291	1.3332	26.75	0.79	1.500			
0.4473	28626.30	3.8260	3.8259	1.3632	26.74	0.78	1.500			
0.4514	28888.36	3.8230	3.8231	1.3842	26.73	0.77	1.500			
0.4555	29153.67	3.8200	3.8200	1.4152	26.72	0.76	1.500			
0.4598	29428.50	3.8170	3.8171	1.4530	26.71	0.75	1.500			
0.4642	29710.53	3.8140	3.8139	1.4814	26.70	0.74	1.500			
0.4688	30000.29	3.8110	3.8110	1.5213	26.69	0.73	1.500			
0.4734	30295.43	3.8080	3.8081	1.5539	26.68	0.72	1.500			
0.4781	30596.45	3.8050	3.8050	1.5956	26.67	0.71	1.500			
0.4829	30904.89	3.8020	3.8020	1.6313	26.66	0.70	1.500			
0.4878	31219.82	3.7990	3.7989	1.6749	26.65	0.69	1.500			
0.4929	31548.38	3.7960	3.7961	1.7185	26.63	0.67	1.500			
0.4982	31884.34	3.7930	3.7929	1.7583	26.62	0.66	1.500			
0.5035	32225.51	3.7900	3.7900	1.8097	26.60	0.64	1.500			
0.5090	32574.46	3.7870	3.7870	1.8558	26.59	0.63	1.500			
0.5146	32936.46	3.7840	3.7839	1.8990	26.57	0.61	1.500			
0.5204	33303.53	3.7810	3.7810	1.9400	26.56	0.60	1.500			
0.5263	33682.76	3.7780	3.7780	1.9766	26.54	0.58	1.500			
0.5322	34063.89	3.7750	3.7750	2.0088	26.52	0.56	1.500			
0.5384	34455.15	3.7720	3.7720	2.0509	26.51	0.55	1.500			
0.5446	34851.70	3.7690	3.7690	2.0983	26.49	0.53	1.500			
0.5510	35261.65	3.7660	3.7660	2.1153	26.47	0.51	1.500			
0.5574	35673.22	3.7630	3.7631	2.1195	26.46	0.50	1.500	0.360	0.460	
0.5638	36081.96	3.7600	3.7600	2.1030	26.44	0.48	1.500			
0.5700	36482.80	3.7570	3.7570	2.0701	26.43	0.47	1.500			
0.5761	36872.94	3.7540	3.7540	2.0268	26.41	0.45	1.500			
0.5822	37258.78	3.7510	3.7510	2.0218	26.39	0.43	1.500			
0.5882	37647.95	3.7480	3.7480	2.0243	26.37	0.41	1.500			
0.5943	38037.64	3.7450	3.7450	2.0158	26.35	0.39	1.500			
0.6004	38424.56	3.7420	3.7421	2.0035	26.34	0.38	1.500			
0.6063	38803.31	3.7390	3.7390	2.0055	26.32	0.36	1.500			
0.6124	39191.10	3.7360	3.7360	2.0314	26.31	0.35	1.500			
0.6185	39583.37	3.7330	3.7330	2.0473	26.29	0.33	1.500			
0.6247	39981.61	3.7300	3.7300	2.0616	26.28	0.32	1.500			
0.6308	40372.04	3.7270	3.7270	2.1093	26.26	0.30	1.500			
0.6371	40777.47	3.7240	3.7240	2.1574	26.25	0.29	1.500			
0.6437	41195.55	3.7210	3.7210	2.2144	26.23	0.27	1.500			
0.6505	41630.07	3.7180	3.7181	2.2857	26.22	0.26	1.500			
0.6574	42071.08	3.7150	3.7150	2.3682	26.21	0.25	1.500			
0.6645	42529.93	3.7120	3.7119	2.4514	26.19	0.23	1.500			
0.6721	43013.85	3.7090	3.7090	2.5528	26.18	0.22	1.500			
0.6799	43515.03	3.7060	3.7060	2.6152	26.16	0.20	1.500			
0.6878	44021.86	3.7030	3.7030	2.6436	26.15	0.19	1.500			
0.6959	44535.13	3.7000	3.7000	2.7030	26.13	0.17	1.500			
0.7041	45061.35	3.6970	3.6970	2.6406	26.12	0.16	1.500			
0.7120	45570.42	3.6940	3.6940	2.5567	26.11	0.15	1.500			
0.7195	46050.65	3.6910	3.6909	2.4046	26.10	0.14	1.500			
0.7266	46499.71	3.6880	3.6880	2.2002	26.09	0.13	1.500			
0.7328	46899.35	3.6850	3.6850	2.0333	26.08	0.12	1.500			
0.7385	47266.77	3.6820	3.6820	1.8578	26.07	0.11	1.500			
0.7437	47599.29	3.6790	3.6790	1.7100	26.07	0.11	1.500			
0.7487	47915.80	3.6760	3.6760	1.6161	26.06	0.10	1.500			
0.7533	48212.47	3.6730	3.6730	1.5270	26.05	0.09	1.500			
0.7578	48496.05	3.6700	3.6700	1.4490	26.05	0.09	1.500			
0.7619	48764.32	3.6670	3.6670	1.3838	26.04	0.08	1.500			
0.7659	49020.54	3.6640	3.6640	1.3332	26.04	0.08	1.500			
0.7698	49268.94	3.6610	3.6609	1.2932	26.03	0.07	1.500			
0.7736	49509.31	3.6580	3.6580	1.2686	26.03	0.07	1.500			
0.7773	49749.28	3.6550	3.6550	1.2521	26.02	0.06	1.500			
0.7810	49985.24	3.6520	3.6520	1.2491	26.02	0.06	1.500			
0.7847	50223.59	3.6490	3.6490	1.2615	26.01	0.05	1.500			
0.7885	50463.53	3.6460	3.6460	1.2710	26.00	0.04	1.500			
0.7924	50711.63	3.6430	3.6430	1.2808	26.00	0.04	1.500			
0.7962	50959.20	3.6400	3.6400	1.2939	25.99	0.03	1.500			
0.8002	51212.06	3.6370	3.6371	1.2956	25.98	0.02	1.500			
0.8041	51463.12	3.6340	3.6340	1.3015	25.98	0.02	1.500			
0.8080	51711.76	3.6310	3.6309	1.2995	25.97	0.01	1.500			
0.8119	51960.41	3.6280	3.6281	1.2937	25.97	0.01	1.500			
0.8157	52207.94	3.6250	3.6248	1.2891	25.96	-0.00	1.500			
0.8196	52456.04	3.6220	3.6221	1.2899	25.96	-0.00	1.500			
0.8235	52701.72	3.6190	3.6190	1.2880	25.95	-0.01	1.500			
0.8274	52950.77	3.6160	3.6159	1.2883	25.95	-0.01	1.500			
0.8312	53197.32	3.6130	3.6130	1.2801	25.95	-0.01	1.500			
0.8351	53444.63	3.6100	3.6101	1.2762	25.94	-0.02	1.500			
0.8389	53691.96	3.6070	3.6070	1.2678	25.94	-0.02	1.500			
0.8427	53934.73	3.6040	3.6040	1.2538	25.94	-0.02	1.500			
0.8465	54173.78	3.6010	3.6011	1.2354	25.94	-0.02	1.500			
0.8501	54408.73	3.5980	3.5980	1.2186	25.93	-0.03	1.500			
0.8538	54642.58	3.5950	3.5951	1.1987	25.93	-0.03	1.500			
0.8573	54869.44	3.5920	3.5920	1.1862	25.93	-0.03	1.500			
0.8609	55095.20	3.5890	3.5890	1.1781	25.92	-0.04	1.500			
0.8644	55319.91	3.5860	3.5859	1.1708	25.92	-0.04	1.500			
0.8679	55543.31	3.5830	3.5830	1.1646	25.92	-0.04	1.500			
0.8714	55767.33	3.5800	3.5801	1.1605	25.93	-0.03	1.500			
0.8749	55994.40	3.5770	3.5769	1.1289	25.94	-0.02	1.500			
0.8784	56217.22	3.5740	3.5739	1.0834	25.94	-0.02	1.500			
0.8817	56430.89	3.5710	3.5710	0.9924	25.95	-0.01	1.500			
0.8846	56617.40	3.5680	3.5682	0.8757	25.95	-0.01	1.500			
0.8872	56779.38	3.5650	3.5651	0.7530	25.95	-0.01	1.500			
0.8892	56907.95	3.5620	3.5619	0.6197	25.96	-0.00	1.500			
0.8907	57002.16	3.5590	3.5591	0.5032	25.96	0.00	1.500			
0.8919	57082.28	3.5560	3.5560	0.4174	25.96	0.00	1.500			
0.8930	57149.37	3.5530	3.5529	0.3374	25.96	0.00	1.500			
0.8938	57206.13	3.5500	3.5499	0.2907	25.97	0.01	1.500			
0.8946	57253.35	3.5470	3.5469	0.2510	25.97	0.01	1.500			
0.8952	57295.67	3.5440	3.5440	0.2210	25.97	0.01	1.500			
0.8958	57333.29	3.5410	3.5409	0.1938	25.97	0.01	1.500			
0.8964	57367.99	3.5380	3.5380	0.1764	25.97	0.01	1.500			
0.8969	57399.47	3.5350	3.5351	0.1603	25.97	0.01	1.500			
0.8973	57428.39	3.5320	3.5320	0.1444	25.97	0.01	1.500			
0.8977	57454.73	3.5290	3.5289	0.1304	25.97	0.01	1.500			
0.8981	57478.20	3.5260	3.5260	0.1160	25.97	0.01	1.500			
0.8984	57499.14	3.5230	3.5231	0.1023	25.97	0.01	1.500			
0.8987	57517.81	3.5200	3.5200	0.0891	25.97	0.01	1.500			
0.8990	57533.55	3.5170	3.5172	0.0748	25.97	0.01	1.500			
0.8992	57546.74	3.5140	3.5143	0.0600	25.97	0.01	1.500			
0.8993	57556.83	3.5110	3.5116	0.0451	25.97	0.01	1.500			
