Ah_balance (normalized)	Ah_balance (mAh)	Voltage - fit (V)	Voltage -  interpolate (V)	dQ/dV (1/V)	Temperature (°C)	Temperature - diff (°C)	Current (C)	R_DC 0ms (mOhm)	R_DC 50ms (mOhm)	R_DC 50 ms PEC (mOhm)
0.2908	18608.57	3.9890	3.9890	0.8279	27.29	1.33	1.500			
0.2932	18766.83	3.9860	3.9860	0.8250	27.29	1.33	1.500			
0.2957	18925.12	3.9830	3.9830	0.8309	27.28	1.32	1.500			
0.2982	19085.92	3.9800	3.9800	0.8384	27.27	1.31	1.500			
0.3008	19248.15	3.9770	3.9769	0.8425	27.27	1.31	1.500			
0.3033	19410.00	3.9740	3.9740	0.8466	27.26	1.30	1.500			
0.3058	19573.96	3.9710	3.9711	0.8528	27.26	1.30	1.500			
0.3084	19737.99	3.9680	3.9680	0.8568	27.25	1.29	1.500			
0.3110	19902.98	3.9650	3.9650	0.8587	27.24	1.28	1.500			
0.3135	20066.79	3.9620	3.9620	0.8620	27.24	1.28	1.500			
0.3161	20232.94	3.9590	3.9590	0.8688	27.23	1.27	1.500			
0.3188	20401.26	3.9560	3.9560	0.8728	27.23	1.27	1.500			
0.3214	20568.62	3.9530	3.9530	0.8749	27.22	1.26	1.500			
0.3240	20737.76	3.9500	3.9500	0.8779	27.22	1.26	1.500			
0.3267	20906.12	3.9470	3.9470	0.8820	27.21	1.25	1.500			
0.3293	21075.85	3.9440	3.9440	0.8858	27.21	1.25	1.500			
0.3320	21246.14	3.9410	3.9410	0.8856	27.21	1.25	1.500			
0.3346	21416.77	3.9380	3.9379	0.8902	27.20	1.24	1.500			
0.3373	21587.74	3.9350	3.9350	0.8947	27.20	1.24	1.500			
0.3400	21758.69	3.9320	3.9320	0.8973	27.19	1.23	1.500			
0.3427	21930.90	3.9290	3.9291	0.9058	27.19	1.23	1.500			
0.3454	22105.17	3.9260	3.9259	0.9102	27.18	1.22	1.500			
0.3481	22281.14	3.9230	3.9231	0.9208	27.18	1.22	1.500			
0.3509	22459.85	3.9200	3.9200	0.9295	27.17	1.21	1.500			
0.3537	22639.33	3.9170	3.9170	0.9372	27.17	1.21	1.500			
0.3566	22820.63	3.9140	3.9140	0.9397	27.16	1.20	1.500			
0.3594	23000.74	3.9110	3.9110	0.9428	27.15	1.19	1.500			
0.3622	23181.24	3.9080	3.9080	0.9481	27.15	1.19	1.500			
0.3651	23364.41	3.9050	3.9050	0.9551	27.14	1.18	1.500			
0.3679	23547.50	3.9020	3.9020	0.9593	27.14	1.18	1.500			
0.3708	23732.00	3.8990	3.8990	0.9684	27.13	1.17	1.500			
0.3737	23918.64	3.8960	3.8960	0.9759	27.12	1.16	1.500			
0.3767	24107.16	3.8930	3.8930	0.9872	27.12	1.16	1.500			
0.3796	24297.17	3.8900	3.8900	0.9939	27.11	1.15	1.500			
0.3826	24488.32	3.8870	3.8870	1.0020	27.10	1.14	1.500			
0.3857	24681.71	3.8840	3.8840	1.0147	27.09	1.13	1.500			
0.3887	24877.78	3.8810	3.8810	1.0242	27.09	1.13	1.500			
0.3918	25074.67	3.8780	3.8780	1.0336	27.08	1.12	1.500			
0.3949	25274.82	3.8750	3.8750	1.0447	27.07	1.11	1.500			
0.3980	25474.48	3.8720	3.8721	1.0609	27.06	1.10	1.500			
0.4013	25680.24	3.8690	3.8689	1.0779	27.06	1.10	1.500			
0.4045	25889.84	3.8660	3.8660	1.0862	27.05	1.09	1.500			
0.4078	26099.41	3.8630	3.8630	1.1011	27.04	1.08	1.500			
0.4111	26312.47	3.8600	3.8601	1.1193	27.03	1.07	1.500			
0.4145	26528.17	3.8570	3.8570	1.1356	27.03	1.07	1.500			
0.4179	26747.28	3.8540	3.8541	1.1491	27.02	1.06	1.500			
0.4214	26968.29	3.8510	3.8510	1.1636	27.01	1.05	1.500			
0.4249	27194.01	3.8480	3.8480	1.1816	27.00	1.04	1.500			
0.4285	27423.61	3.8450	3.8450	1.1961	26.99	1.03	1.500			
0.4321	27654.88	3.8420	3.8420	1.2106	26.98	1.02	1.500			
0.4357	27886.09	3.8390	3.8390	1.2302	26.97	1.01	1.500			
0.4394	28123.65	3.8360	3.8360	1.2491	26.96	1.00	1.500			
0.4432	28365.59	3.8330	3.8330	1.2758	26.95	0.99	1.500			
0.4471	28612.63	3.8300	3.8300	1.2962	26.93	0.97	1.500			
0.4510	28865.64	3.8270	3.8270	1.3144	26.92	0.96	1.500			
0.4550	29119.74	3.8240	3.8240	1.3410	26.91	0.95	1.500			
0.4590	29377.72	3.8210	3.8211	1.3663	26.90	0.94	1.500			
0.4631	29639.71	3.8180	3.8180	1.3921	26.89	0.93	1.500			
0.4673	29908.38	3.8150	3.8150	1.4278	26.88	0.92	1.500			
0.4717	30185.62	3.8120	3.8120	1.4587	26.86	0.90	1.500			
0.4762	30474.77	3.8090	3.8089	1.4747	26.85	0.89	1.500			
0.4806	30760.73	3.8060	3.8061	1.4914	26.84	0.88	1.500			
0.4851	31047.95	3.8030	3.8031	1.5174	26.82	0.86	1.500			
0.4897	31340.17	3.8000	3.7999	1.5350	26.81	0.85	1.500			
0.4943	31632.96	3.7970	3.7970	1.5585	26.79	0.83	1.500			
0.4990	31938.65	3.7940	3.7940	1.5962	26.78	0.82	1.500			
0.5039	32250.56	3.7910	3.7909	1.6234	26.76	0.80	1.500			
0.5088	32560.09	3.7880	3.7881	1.6540	26.75	0.79	1.500			
0.5138	32881.50	3.7850	3.7851	1.6840	26.73	0.77	1.500			
0.5189	33210.70	3.7820	3.7814	1.7090	26.71	0.75	1.500	0.348	0.475	
0.5241	33544.45	3.7790	3.7791	1.7168	26.70	0.74	1.500			
0.5293	33877.01	3.7760	3.7760	1.7160	26.68	0.72	1.500			
0.5344	34204.72	3.7730	3.7730	1.7203	26.66	0.70	1.500			
0.5396	34533.35	3.7700	3.7699	1.7173	26.65	0.69	1.500			
0.5447	34861.11	3.7670	3.7671	1.7355	26.63	0.67	1.500			
0.5500	35199.65	3.7640	3.7640	1.7526	26.61	0.65	1.500			
0.5553	35539.38	3.7610	3.7610	1.7453	26.60	0.64	1.500			
0.5605	35871.66	3.7580	3.7581	1.7410	26.58	0.62	1.500			
0.5657	36206.18	3.7550	3.7549	1.7480	26.56	0.60	1.500			
0.5710	36541.68	3.7520	3.7520	1.7629	26.55	0.59	1.500			
0.5762	36879.88	3.7490	3.7490	1.7782	26.54	0.58	1.500			
0.5816	37222.79	3.7460	3.7460	1.8068	26.52	0.56	1.500			
0.5870	37568.15	3.7430	3.7430	1.8329	26.51	0.55	1.500			
0.5925	37921.21	3.7400	3.7400	1.8750	26.50	0.54	1.500			
0.5982	38285.55	3.7370	3.7370	1.9224	26.48	0.52	1.500			
0.6041	38660.70	3.7340	3.7340	1.9497	26.46	0.50	1.500			
0.6099	39035.61	3.7310	3.7311	1.9992	26.44	0.48	1.500			
0.6160	39422.50	3.7280	3.7279	2.0584	26.42	0.46	1.500			
0.6222	39822.82	3.7250	3.7250	2.1068	26.41	0.45	1.500			
0.6287	40236.95	3.7220	3.7220	2.1835	26.39	0.43	1.500			
0.6353	40661.39	3.7190	3.7190	2.2508	26.38	0.42	1.500			
0.6422	41097.79	3.7160	3.7160	2.3340	26.36	0.40	1.500			
0.6493	41553.59	3.7130	3.7130	2.3919	26.34	0.38	1.500			
0.6566	42022.59	3.7100	3.7101	2.3802	26.31	0.35	1.500			
0.6637	42477.54	3.7070	3.7070	2.3463	26.29	0.33	1.500			
0.6707	42924.94	3.7040	3.7040	2.2687	26.27	0.31	1.500			
0.6775	43357.16	3.7010	3.7010	2.1525	26.26	0.30	1.500			
0.6839	43769.38	3.6980	3.6980	2.0223	26.25	0.29	1.500			
0.6897	44138.12	3.6950	3.6950	1.8547	26.23	0.27	1.500			
0.6949	44471.12	3.6920	3.6920	1.7220	26.22	0.26	1.500			
0.6998	44786.31	3.6890	3.6890	1.6235	26.21	0.25	1.500			
0.7045	45086.25	3.6860	3.6860	1.5413	26.20	0.24	1.500			
0.7090	45376.44	3.6830	3.6830	1.4719	26.19	0.23	1.500			
0.7133	45649.36	3.6800	3.6801	1.4172	26.18	0.22	1.500			
0.7174	45914.71	3.6770	3.6769	1.3665	26.17	0.21	1.500			
0.7214	46170.30	3.6740	3.6740	1.3249	26.16	0.20	1.500			
0.7253	46416.42	3.6710	3.6710	1.2932	26.15	0.19	1.500			
0.7290	46658.58	3.6680	3.6681	1.2759	26.14	0.18	1.500			
0.7328	46900.06	3.6650	3.6650	1.2666	26.12	0.16	1.500			
0.7366	47143.33	3.6620	3.6619	1.2683	26.11	0.15	1.500			
0.7404	47385.06	3.6590	3.6590	1.2669	26.10	0.14	1.500			
0.7442	47629.40	3.6560	3.6560	1.2771	26.09	0.13	1.500			
0.7481	47878.16	3.6530	3.6530	1.2777	26.08	0.12	1.500			
0.7519	48124.36	3.6500	3.6499	1.2687	26.08	0.12	1.500			
0.7557	48367.56	3.6470	3.6470	1.2574	26.07	0.11	1.500			
0.7595	48607.79	3.6440	3.6442	1.2438	26.06	0.10	1.500			
0.7632	48843.12	3.6410	3.6409	1.2370	26.05	0.09	1.500			
0.7669	49080.14	3.6380	3.6378	1.2280	26.04	0.08	1.500			
0.7705	49312.21	3.6350	3.6351	1.2185	26.03	0.07	1.500			
0.7742	49546.48	3.6320	3.6320	1.2184	26.02	0.06	1.500			
0.7779	49786.14	3.6290	3.6290	1.2105	26.01	0.05	1.500			
0.7815	50016.23	3.6260	3.6260	1.1962	26.00	0.04	1.500			
0.7851	50245.72	3.6230	3.6230	1.1884	26.00	0.04	1.500			
0.7886	50472.03	3.6200	3.6200	1.1726	25.99	0.03	1.500			
0.7921	50696.89	3.6170	3.6169	1.1582	25.98	0.02	1.500			
0.7956	50917.76	3.6140	3.6140	1.1336	25.98	0.02	1.500			
0.7990	51135.39	3.6110	3.6110	1.1151	25.97	0.01	1.500			
0.8023	51347.76	3.6080	3.6081	1.0947	25.97	0.01	1.500			
0.8055	51554.87	3.6050	3.6050	1.0669	25.97	0.01	1.500			
0.8087	51756.45	3.6020	3.6020	1.0459	25.97	0.01	1.500			
0.8118	51956.25	3.5990	3.5990	1.0251	25.96	0.00	1.500			
0.8149	52153.73	3.5960	3.5960	1.0001	25.96	0.00	1.500			
0.8179	52345.41	3.5930	3.5930	0.9662	25.96	-0.00	1.500			
0.8208	52530.59	3.5900	3.5900	0.9236	25.96	-0.00	1.500			
0.8235	52707.07	3.5870	3.5870	0.8560	25.95	-0.01	1.500			
0.8261	52869.66	3.5840	3.5840	0.7836	25.95	-0.01	1.500			
0.8283	53012.59	3.5810	3.5811	0.6906	25.95	-0.01	1.500			
0.8303	53138.18	3.5780	3.5780	0.5991	25.95	-0.01	1.500			
0.8319	53241.16	3.5750	3.5750	0.5111	25.95	-0.01	1.500			
0.8333	53328.29	3.5720	3.5718	0.4332	25.95	-0.01	1.500			
0.8343	53398.28	3.5690	3.5690	0.3658	25.95	-0.01	1.500			
0.8353	53460.27	3.5660	3.5660	0.3171	25.95	-0.01	1.500			
0.8361	53513.00	3.5630	3.5629	0.2690	25.94	-0.02	1.500			
0.8369	53559.73	3.5600	3.5599	0.2382	25.94	-0.02	1.500			
0.8375	53599.62	3.5570	3.5570	0.2111	25.94	-0.02	1.500			
0.8381	53636.15	3.5540	3.5540	0.1893	25.94	-0.02	1.500			
0.8386	53670.45	3.5510	3.5510	0.1703	25.94	-0.02	1.500			
0.8391	53700.54	3.5480	3.5479	0.1537	25.94	-0.02	1.500			
0.8395	53727.92	3.5450	3.5450	0.1370	25.94	-0.02	1.500			
0.8399	53752.50	3.5420	3.5421	0.1220	25.94	-0.02	1.500			
0.8402	53774.56	3.5390	3.5390	0.1078	25.94	-0.02	1.500			
0.8405	53793.90	3.5360	3.5361	0.0936	25.94	-0.02	1.500			
0.8408	53810.57	3.5330	3.5330	0.0794	25.94	-0.02	1.500			
0.8410	53824.45	3.5300	3.5303	0.0651	25.94	-0.02	1.500			
0.8412	53835.62	3.5270	3.5275	0.0507	25.94	-0.02	1.500			
0.8413	53843.98	3.5240	3.5250	0.0363	25.94	-0.02	1.500			
