Ah_balance (normalized)	Ah_balance (mAh)	Voltage - fit (V)	Voltage -  interpolate (V)	dQ/dV (1/V)	Temperature (°C)	Temperature - diff (°C)	Current (C)	R_DC 0ms (mOhm)	R_DC 50ms (mOhm)	R_DC 50 ms PEC (mOhm)
0.2803	17940.32	3.9910	3.9910	0.8252	27.28	1.33	1.500			
0.2828	18099.17	3.9880	3.9880	0.8296	27.27	1.32	1.500			
0.2853	18259.06	3.9850	3.9851	0.8326	27.27	1.32	1.500			
0.2878	18419.54	3.9820	3.9819	0.8338	27.26	1.31	1.500			
0.2903	18579.84	3.9790	3.9791	0.8373	27.26	1.31	1.500			
0.2928	18739.32	3.9760	3.9760	0.8402	27.25	1.30	1.500			
0.2953	18901.64	3.9730	3.9730	0.8470	27.25	1.30	1.500			
0.2979	19064.47	3.9700	3.9700	0.8568	27.24	1.29	1.500			
0.3005	19229.65	3.9670	3.9670	0.8605	27.24	1.29	1.500			
0.3031	19396.71	3.9640	3.9640	0.8648	27.23	1.28	1.500			
0.3057	19564.20	3.9610	3.9611	0.8694	27.23	1.28	1.500			
0.3083	19730.70	3.9580	3.9580	0.8701	27.22	1.27	1.500			
0.3109	19897.23	3.9550	3.9550	0.8737	27.22	1.27	1.500			
0.3135	20063.91	3.9520	3.9520	0.8760	27.21	1.26	1.500			
0.3161	20232.08	3.9490	3.9490	0.8777	27.21	1.26	1.500			
0.3188	20402.83	3.9460	3.9460	0.8851	27.20	1.25	1.500			
0.3214	20572.39	3.9430	3.9430	0.8879	27.20	1.25	1.500			
0.3241	20743.34	3.9400	3.9400	0.8925	27.19	1.24	1.500			
0.3268	20914.99	3.9370	3.9370	0.8965	27.19	1.24	1.500			
0.3295	21086.74	3.9340	3.9340	0.8998	27.18	1.23	1.500			
0.3322	21260.25	3.9310	3.9310	0.9059	27.18	1.23	1.500			
0.3349	21435.28	3.9280	3.9280	0.9088	27.17	1.22	1.500			
0.3377	21609.74	3.9250	3.9250	0.9158	27.16	1.21	1.500			
0.3404	21786.28	3.9220	3.9219	0.9186	27.16	1.21	1.500			
0.3432	21961.83	3.9190	3.9191	0.9277	27.15	1.20	1.500			
0.3460	22141.29	3.9160	3.9161	0.9340	27.15	1.20	1.500			
0.3488	22321.20	3.9130	3.9129	0.9404	27.14	1.19	1.500			
0.3516	22502.23	3.9100	3.9100	0.9502	27.14	1.19	1.500			
0.3544	22684.43	3.9070	3.9070	0.9624	27.13	1.18	1.500			
0.3573	22870.05	3.9040	3.9040	0.9679	27.13	1.18	1.500			
0.3603	23058.88	3.9010	3.9010	0.9772	27.12	1.17	1.500			
0.3632	23246.32	3.8980	3.8980	0.9814	27.11	1.16	1.500			
0.3662	23436.48	3.8950	3.8951	0.9902	27.11	1.16	1.500			
0.3692	23625.85	3.8920	3.8920	0.9976	27.10	1.15	1.500			
0.3722	23817.73	3.8890	3.8889	1.0016	27.10	1.15	1.500			
0.3751	24008.33	3.8860	3.8861	1.0146	27.09	1.14	1.500			
0.3782	24206.31	3.8830	3.8830	1.0301	27.08	1.13	1.500			
0.3813	24405.89	3.8800	3.8800	1.0440	27.07	1.12	1.500			
0.3845	24608.14	3.8770	3.8770	1.0536	27.06	1.11	1.500			
0.3877	24811.76	3.8740	3.8741	1.0621	27.05	1.10	1.500			
0.3909	25015.80	3.8710	3.8710	1.0750	27.05	1.10	1.500			
0.3941	25222.99	3.8680	3.8680	1.0901	27.04	1.09	1.500			
0.3974	25432.57	3.8650	3.8650	1.0954	27.03	1.08	1.500			
0.4007	25644.25	3.8620	3.8619	1.1134	27.02	1.07	1.500			
0.4040	25858.89	3.8590	3.8590	1.1263	27.01	1.06	1.500			
0.4075	26077.47	3.8560	3.8560	1.1400	27.00	1.05	1.500			
0.4109	26297.15	3.8530	3.8530	1.1517	26.99	1.04	1.500			
0.4144	26518.88	3.8500	3.8500	1.1583	26.98	1.03	1.500			
0.4178	26741.48	3.8470	3.8470	1.1798	26.97	1.02	1.500			
0.4214	26969.73	3.8440	3.8440	1.1976	26.96	1.01	1.500			
0.4250	27198.75	3.8410	3.8409	1.2149	26.95	1.00	1.500			
0.4286	27433.15	3.8380	3.8380	1.2391	26.94	0.99	1.500			
0.4324	27674.36	3.8350	3.8351	1.2621	26.93	0.98	1.500			
0.4363	27923.33	3.8320	3.8319	1.2736	26.92	0.97	1.500			
0.4401	28167.81	3.8290	3.8291	1.2951	26.91	0.96	1.500			
0.4440	28416.21	3.8260	3.8261	1.3158	26.90	0.95	1.500			
0.4480	28670.77	3.8230	3.8231	1.3407	26.89	0.94	1.500			
0.4520	28929.75	3.8200	3.8200	1.3620	26.87	0.92	1.500			
0.4561	29192.79	3.8170	3.8171	1.3814	26.86	0.91	1.500			
0.4603	29462.06	3.8140	3.8140	1.4055	26.85	0.90	1.500			
0.4646	29735.86	3.8110	3.8110	1.4407	26.83	0.88	1.500			
0.4689	30010.25	3.8080	3.8080	1.4532	26.82	0.87	1.500			
0.4733	30290.48	3.8050	3.8050	1.4859	26.81	0.86	1.500			
0.4778	30580.19	3.8020	3.8020	1.5120	26.79	0.84	1.500			
0.4824	30873.23	3.7990	3.7991	1.5478	26.78	0.83	1.500			
0.4871	31177.07	3.7960	3.7960	1.5592	26.76	0.81	1.500			
0.4918	31476.33	3.7930	3.7930	1.5830	26.75	0.80	1.500			
0.4966	31779.65	3.7900	3.7901	1.6074	26.73	0.78	1.500			
0.5014	32091.60	3.7870	3.7869	1.6377	26.72	0.77	1.500	0.343	0.482	
0.5064	32409.07	3.7840	3.7841	1.6510	26.70	0.75	1.500			
0.5114	32729.61	3.7810	3.7810	1.6659	26.68	0.73	1.500			
0.5165	33053.19	3.7780	3.7780	1.6668	26.67	0.72	1.500			
0.5214	33370.18	3.7750	3.7750	1.6750	26.65	0.70	1.500			
0.5265	33694.26	3.7720	3.7721	1.6957	26.64	0.69	1.500			
0.5316	34022.63	3.7690	3.7690	1.7052	26.62	0.67	1.500			
0.5368	34353.93	3.7660	3.7660	1.7059	26.61	0.66	1.500			
0.5419	34679.23	3.7630	3.7631	1.6908	26.59	0.64	1.500			
0.5469	35002.83	3.7600	3.7600	1.7078	26.58	0.63	1.500			
0.5521	35332.29	3.7570	3.7570	1.7294	26.56	0.61	1.500			
0.5572	35663.67	3.7540	3.7541	1.7478	26.55	0.60	1.500			
0.5626	36005.65	3.7510	3.7510	1.7569	26.53	0.58	1.500			
0.5679	36343.89	3.7480	3.7481	1.7884	26.52	0.57	1.500			
0.5732	36686.82	3.7450	3.7449	1.8140	26.50	0.55	1.500			
0.5787	37037.83	3.7420	3.7421	1.8531	26.49	0.54	1.500			
0.5843	37398.07	3.7390	3.7390	1.8926	26.47	0.52	1.500			
0.5901	37766.87	3.7360	3.7360	1.9457	26.45	0.50	1.500			
0.5960	38143.86	3.7330	3.7331	1.9928	26.43	0.48	1.500			
0.6020	38529.32	3.7300	3.7300	2.0573	26.41	0.46	1.500			
0.6083	38933.39	3.7270	3.7269	2.0939	26.39	0.44	1.500			
0.6147	39343.06	3.7240	3.7240	2.1697	26.37	0.42	1.500			
0.6213	39760.02	3.7210	3.7211	2.2087	26.35	0.40	1.500			
0.6279	40188.17	3.7180	3.7181	2.2657	26.33	0.38	1.500			
0.6349	40634.76	3.7150	3.7150	2.2817	26.31	0.36	1.500			
0.6418	41075.55	3.7120	3.7121	2.2572	26.29	0.34	1.500			
0.6486	41507.90	3.7090	3.7090	2.2321	26.27	0.32	1.500			
0.6552	41934.44	3.7060	3.7060	2.1457	26.26	0.31	1.500			
0.6616	42343.53	3.7030	3.7031	2.0440	26.24	0.29	1.500			
0.6676	42726.94	3.7000	3.7000	1.9102	26.22	0.27	1.500			
0.6731	43076.98	3.6970	3.6970	1.7721	26.21	0.26	1.500			
0.6781	43400.76	3.6940	3.6940	1.6733	26.19	0.24	1.500			
0.6830	43709.42	3.6910	3.6909	1.5772	26.18	0.23	1.500			
0.6876	44003.58	3.6880	3.6880	1.4898	26.17	0.22	1.500			
0.6918	44277.00	3.6850	3.6851	1.4368	26.16	0.21	1.500			
0.6960	44545.90	3.6820	3.6820	1.3832	26.15	0.20	1.500			
0.7000	44801.39	3.6790	3.6788	1.3411	26.14	0.19	1.500			
0.7040	45053.01	3.6760	3.6760	1.3127	26.13	0.18	1.500			
0.7079	45303.13	3.6730	3.6731	1.2961	26.12	0.17	1.500			
0.7118	45552.24	3.6700	3.6700	1.2817	26.11	0.16	1.500			
0.7155	45793.29	3.6670	3.6670	1.2696	26.10	0.15	1.500			
0.7193	46036.26	3.6640	3.6640	1.2651	26.09	0.14	1.500			
0.7231	46278.73	3.6610	3.6609	1.2630	26.08	0.13	1.500			
0.7269	46520.19	3.6580	3.6580	1.2560	26.07	0.12	1.500			
0.7307	46761.88	3.6550	3.6550	1.2536	26.06	0.11	1.500			
0.7344	47002.76	3.6520	3.6520	1.2503	26.05	0.10	1.500			
0.7382	47244.16	3.6490	3.6490	1.2398	26.04	0.09	1.500			
0.7419	47479.04	3.6460	3.6460	1.2272	26.03	0.08	1.500			
0.7455	47714.00	3.6430	3.6430	1.2203	26.02	0.07	1.500			
0.7492	47947.62	3.6400	3.6399	1.2093	26.01	0.06	1.500			
0.7528	48179.21	3.6370	3.6370	1.1995	26.00	0.05	1.500			
0.7564	48407.15	3.6340	3.6340	1.1929	26.00	0.05	1.500			
0.7599	48636.71	3.6310	3.6310	1.1836	25.99	0.04	1.500			
0.7635	48865.21	3.6280	3.6279	1.1706	25.98	0.03	1.500			
0.7670	49087.19	3.6250	3.6250	1.1574	25.98	0.03	1.500			
0.7705	49309.09	3.6220	3.6220	1.1433	25.97	0.02	1.500			
0.7739	49528.34	3.6190	3.6189	1.1285	25.96	0.01	1.500			
0.7772	49743.06	3.6160	3.6160	1.1091	25.96	0.01	1.500			
0.7805	49953.39	3.6130	3.6131	1.0861	25.96	0.01	1.500			
0.7838	50161.96	3.6100	3.6100	1.0652	25.96	0.01	1.500			
0.7870	50365.07	3.6070	3.6070	1.0390	25.96	0.01	1.500			
0.7901	50563.63	3.6040	3.6039	1.0080	25.95	0.00	1.500			
0.7930	50754.86	3.6010	3.6010	0.9784	25.95	0.00	1.500			
0.7959	50940.32	3.5980	3.5980	0.9426	25.95	0.00	1.500			
0.7987	51119.87	3.5950	3.5950	0.9016	25.95	0.00	1.500			
0.8014	51291.59	3.5920	3.5920	0.8455	25.95	-0.00	1.500			
0.8039	51452.50	3.5890	3.5891	0.7839	25.95	-0.00	1.500			
0.8062	51598.64	3.5860	3.5860	0.7035	25.95	-0.00	1.500			
0.8083	51729.63	3.5830	3.5830	0.6230	25.95	-0.00	1.500			
0.8100	51837.21	3.5800	3.5801	0.5350	25.95	-0.00	1.500			
0.8114	51929.80	3.5770	3.5770	0.4560	25.95	-0.00	1.500			
0.8126	52006.89	3.5740	3.5740	0.3868	25.94	-0.01	1.500			
0.8136	52072.28	3.5710	3.5709	0.3337	25.94	-0.01	1.500			
0.8145	52127.89	3.5680	3.5680	0.2884	25.94	-0.01	1.500			
0.8153	52177.27	3.5650	3.5649	0.2541	25.94	-0.01	1.500			
0.8160	52220.80	3.5620	3.5620	0.2220	25.94	-0.01	1.500			
0.8166	52259.77	3.5590	3.5590	0.1998	25.94	-0.01	1.500			
0.8171	52294.50	3.5560	3.5559	0.1797	25.94	-0.01	1.500			
0.8176	52327.09	3.5530	3.5530	0.1625	25.94	-0.01	1.500			
0.8181	52356.66	3.5500	3.5501	0.1473	25.94	-0.01	1.500			
0.8185	52383.13	3.5470	3.5470	0.1316	25.94	-0.01	1.500			
0.8189	52406.86	3.5440	3.5440	0.1170	25.94	-0.01	1.500			
0.8192	52427.87	3.5410	3.5412	0.1023	25.94	-0.01	1.500			
0.8195	52446.12	3.5380	3.5380	0.0878	25.94	-0.01	1.500			
0.8197	52461.69	3.5350	3.5351	0.0734	25.94	-0.01	1.500			
0.8199	52474.12	3.5320	3.5323	0.0589	25.94	-0.01	1.500			
0.8201	52484.09	3.5290	3.5294	0.0449	25.94	-0.01	1.500			
0.8202	52491.36	3.5260	3.5266	0.0309	25.94	-0.01	1.500			
