Ah_balance (normalized)	Ah_balance (mAh)	Voltage - fit (V)	Voltage -  interpolate (V)	dQ/dV (1/V)	Temperature (°C)	Temperature - diff (°C)	Current (C)	R_DC 0ms (mOhm)	R_DC 50ms (mOhm)	R_DC 50 ms PEC (mOhm)
0.2822	18062.77	3.9910	3.9910	0.8306	27.28	1.32	1.500			
0.2847	18222.78	3.9880	3.9880	0.8350	27.27	1.31	1.500			
0.2872	18383.75	3.9850	3.9850	0.8371	27.27	1.31	1.500			
0.2897	18543.35	3.9820	3.9821	0.8407	27.26	1.30	1.500			
0.2923	18704.91	3.9790	3.9790	0.8440	27.26	1.30	1.500			
0.2948	18867.88	3.9760	3.9760	0.8471	27.25	1.29	1.500			
0.2974	19030.99	3.9730	3.9730	0.8495	27.24	1.28	1.500			
0.2999	19193.67	3.9700	3.9701	0.8541	27.24	1.28	1.500			
0.3025	19358.68	3.9670	3.9669	0.8586	27.23	1.27	1.500			
0.3051	19524.36	3.9640	3.9640	0.8609	27.23	1.27	1.500			
0.3076	19688.88	3.9610	3.9610	0.8661	27.22	1.26	1.500			
0.3103	19857.12	3.9580	3.9580	0.8653	27.21	1.25	1.500			
0.3129	20022.86	3.9550	3.9550	0.8702	27.21	1.25	1.500			
0.3155	20189.88	3.9520	3.9520	0.8709	27.20	1.24	1.500			
0.3181	20356.36	3.9490	3.9489	0.8746	27.19	1.23	1.500			
0.3207	20523.88	3.9460	3.9460	0.8832	27.19	1.23	1.500			
0.3233	20694.07	3.9430	3.9429	0.8901	27.18	1.22	1.500			
0.3260	20865.67	3.9400	3.9400	0.8954	27.18	1.22	1.500			
0.3288	21040.66	3.9370	3.9371	0.9014	27.17	1.21	1.500			
0.3315	21212.88	3.9340	3.9340	0.9033	27.16	1.20	1.500			
0.3342	21388.20	3.9310	3.9310	0.9083	27.16	1.20	1.500			
0.3369	21561.87	3.9280	3.9280	0.9038	27.15	1.19	1.500			
0.3396	21733.55	3.9250	3.9251	0.9107	27.14	1.18	1.500			
0.3423	21908.28	3.9220	3.9221	0.9181	27.14	1.18	1.500			
0.3451	22085.52	3.9190	3.9187	0.9247	27.13	1.17	1.500			
0.3479	22263.28	3.9160	3.9160	0.9359	27.12	1.16	1.500			
0.3507	22443.54	3.9130	3.9131	0.9455	27.12	1.16	1.500			
0.3536	22627.62	3.9100	3.9100	0.9568	27.11	1.15	1.500			
0.3564	22811.78	3.9070	3.9069	0.9616	27.10	1.14	1.500			
0.3593	22997.87	3.9040	3.9040	0.9659	27.10	1.14	1.500			
0.3623	23184.85	3.9010	3.9010	0.9722	27.09	1.13	1.500			
0.3652	23372.16	3.8980	3.8980	0.9774	27.08	1.12	1.500			
0.3681	23560.15	3.8950	3.8950	0.9803	27.07	1.11	1.500			
0.3710	23746.34	3.8920	3.8920	0.9897	27.07	1.11	1.500			
0.3740	23936.87	3.8890	3.8890	0.9984	27.06	1.10	1.500			
0.3770	24128.27	3.8860	3.8860	1.0092	27.05	1.09	1.500			
0.3800	24323.03	3.8830	3.8829	1.0264	27.04	1.08	1.500			
0.3832	24521.96	3.8800	3.8801	1.0390	27.03	1.07	1.500			
0.3863	24723.03	3.8770	3.8769	1.0527	27.02	1.06	1.500			
0.3895	24928.26	3.8740	3.8740	1.0632	27.02	1.06	1.500			
0.3927	25133.48	3.8710	3.8710	1.0700	27.01	1.05	1.500			
0.3959	25340.28	3.8680	3.8680	1.0813	27.00	1.04	1.500			
0.3992	25546.85	3.8650	3.8650	1.0946	26.99	1.03	1.500			
0.4024	25756.75	3.8620	3.8620	1.1032	26.98	1.02	1.500			
0.4058	25969.59	3.8590	3.8590	1.1225	26.97	1.01	1.500			
0.4092	26186.86	3.8560	3.8560	1.1343	26.97	1.01	1.500			
0.4126	26407.13	3.8530	3.8530	1.1484	26.96	1.00	1.500			
0.4161	26628.84	3.8500	3.8500	1.1669	26.95	0.99	1.500			
0.4196	26852.83	3.8470	3.8469	1.1853	26.94	0.98	1.500			
0.4231	27080.90	3.8440	3.8440	1.1978	26.93	0.97	1.500			
0.4268	27313.14	3.8410	3.8410	1.2253	26.92	0.96	1.500			
0.4305	27551.97	3.8380	3.8380	1.2383	26.91	0.95	1.500			
0.4343	27792.54	3.8350	3.8349	1.2622	26.89	0.93	1.500			
0.4381	28036.79	3.8320	3.8320	1.2791	26.88	0.92	1.500			
0.4419	28282.72	3.8290	3.8291	1.2947	26.87	0.91	1.500			
0.4458	28531.27	3.8260	3.8259	1.3215	26.86	0.90	1.500			
0.4498	28788.51	3.8230	3.8230	1.3478	26.84	0.88	1.500			
0.4539	29047.71	3.8200	3.8200	1.3699	26.83	0.87	1.500			
0.4581	29316.17	3.8170	3.8170	1.3980	26.82	0.86	1.500			
0.4623	29586.81	3.8140	3.8140	1.4218	26.80	0.84	1.500			
0.4666	29863.28	3.8110	3.8111	1.4482	26.79	0.83	1.500			
0.4710	30143.15	3.8080	3.8080	1.4677	26.78	0.82	1.500			
0.4754	30426.63	3.8050	3.8050	1.4875	26.76	0.80	1.500			
0.4799	30714.83	3.8020	3.8020	1.5095	26.75	0.79	1.500			
0.4845	31005.85	3.7990	3.7990	1.5367	26.73	0.77	1.500			
0.4891	31302.64	3.7960	3.7960	1.5663	26.72	0.76	1.500			
0.4938	31604.14	3.7930	3.7930	1.5943	26.70	0.74	1.500			
0.4987	31914.38	3.7900	3.7900	1.6407	26.69	0.73	1.500			
0.5037	32238.07	3.7870	3.7870	1.6670	26.68	0.72	1.500			
0.5088	32562.48	3.7840	3.7837	1.6961	26.66	0.70	1.500	0.342	0.478	
0.5139	32889.69	3.7810	3.7810	1.7070	26.65	0.69	1.500			
0.5191	33220.97	3.7780	3.7779	1.7076	26.63	0.67	1.500			
0.5241	33545.01	3.7750	3.7751	1.6903	26.62	0.66	1.500			
0.5293	33873.09	3.7720	3.7720	1.6986	26.60	0.64	1.500			
0.5343	34197.65	3.7690	3.7690	1.7166	26.59	0.63	1.500			
0.5395	34525.61	3.7660	3.7660	1.7224	26.58	0.62	1.500			
0.5447	34859.03	3.7630	3.7629	1.7176	26.56	0.60	1.500			
0.5499	35191.92	3.7600	3.7601	1.7353	26.54	0.58	1.500			
0.5550	35522.73	3.7570	3.7570	1.7267	26.53	0.57	1.500			
0.5602	35852.18	3.7540	3.7539	1.7406	26.51	0.55	1.500			
0.5654	36182.56	3.7510	3.7511	1.7594	26.49	0.53	1.500			
0.5707	36524.37	3.7480	3.7478	1.8012	26.48	0.52	1.500			
0.5762	36875.38	3.7450	3.7450	1.8305	26.47	0.51	1.500			
0.5817	37228.18	3.7420	3.7420	1.8555	26.45	0.49	1.500			
0.5873	37590.17	3.7390	3.7391	1.8835	26.44	0.48	1.500			
0.5931	37956.19	3.7360	3.7359	1.9217	26.42	0.46	1.500			
0.5989	38327.15	3.7330	3.7331	1.9765	26.41	0.45	1.500			
0.6049	38711.92	3.7300	3.7300	2.0186	26.39	0.43	1.500			
0.6110	39103.19	3.7270	3.7270	2.0772	26.37	0.41	1.500			
0.6173	39507.06	3.7240	3.7240	2.1643	26.35	0.39	1.500			
0.6239	39930.00	3.7210	3.7210	2.2260	26.33	0.37	1.500			
0.6307	40367.10	3.7180	3.7181	2.2482	26.31	0.35	1.500			
0.6375	40799.69	3.7150	3.7150	2.2837	26.30	0.34	1.500			
0.6444	41240.87	3.7120	3.7117	2.3160	26.28	0.32	1.500			
0.6515	41697.40	3.7090	3.7091	2.3155	26.26	0.30	1.500			
0.6585	42144.32	3.7060	3.7061	2.2698	26.25	0.29	1.500			
0.6653	42576.60	3.7030	3.7030	2.1407	26.23	0.27	1.500			
0.6715	42976.97	3.7000	3.7000	2.0145	26.22	0.26	1.500			
0.6774	43353.40	3.6970	3.6970	1.8871	26.20	0.24	1.500			
0.6828	43700.70	3.6940	3.6940	1.7522	26.19	0.23	1.500			
0.6878	44017.44	3.6910	3.6910	1.6317	26.18	0.22	1.500			
0.6925	44320.18	3.6880	3.6880	1.5511	26.17	0.21	1.500			
0.6970	44606.34	3.6850	3.6850	1.4696	26.16	0.20	1.500			
0.7013	44880.72	3.6820	3.6820	1.4148	26.14	0.18	1.500			
0.7054	45147.21	3.6790	3.6789	1.3635	26.13	0.17	1.500			
0.7094	45401.36	3.6760	3.6760	1.3206	26.13	0.17	1.500			
0.7132	45645.25	3.6730	3.6731	1.2935	26.12	0.16	1.500			
0.7170	45890.71	3.6700	3.6701	1.2846	26.11	0.15	1.500			
0.7208	46132.12	3.6670	3.6669	1.2722	26.10	0.14	1.500			
0.7246	46376.38	3.6640	3.6640	1.2756	26.09	0.13	1.500			
0.7285	46621.76	3.6610	3.6611	1.2746	26.08	0.12	1.500			
0.7323	46868.76	3.6580	3.6580	1.2715	26.07	0.11	1.500			
0.7361	47112.76	3.6550	3.6550	1.2648	26.06	0.10	1.500			
0.7399	47354.91	3.6520	3.6520	1.2589	26.05	0.09	1.500			
0.7437	47595.42	3.6490	3.6490	1.2515	26.04	0.08	1.500			
0.7474	47836.17	3.6460	3.6460	1.2447	26.03	0.07	1.500			
0.7512	48074.72	3.6430	3.6430	1.2335	26.03	0.07	1.500			
0.7549	48311.34	3.6400	3.6400	1.2250	26.02	0.06	1.500			
0.7585	48545.93	3.6370	3.6370	1.2130	26.01	0.05	1.500			
0.7621	48776.83	3.6340	3.6340	1.2027	26.00	0.04	1.500			
0.7657	49005.95	3.6310	3.6310	1.1924	25.99	0.03	1.500			
0.7693	49233.82	3.6280	3.6279	1.1853	25.98	0.02	1.500			
0.7728	49462.34	3.6250	3.6250	1.1777	25.98	0.02	1.500			
0.7764	49687.90	3.6220	3.6220	1.1669	25.97	0.01	1.500			
0.7799	49913.29	3.6190	3.6189	1.1492	25.97	0.01	1.500			
0.7833	50134.12	3.6160	3.6160	1.1260	25.97	0.01	1.500			
0.7867	50346.46	3.6130	3.6130	1.1048	25.97	0.01	1.500			
0.7899	50555.62	3.6100	3.6100	1.0850	25.96	0.00	1.500			
0.7931	50761.14	3.6070	3.6070	1.0630	25.96	0.00	1.500			
0.7963	50963.92	3.6040	3.6040	1.0417	25.96	0.00	1.500			
0.7994	51164.02	3.6010	3.6010	1.0176	25.96	0.00	1.500			
0.8025	51359.04	3.5980	3.5980	0.9914	25.96	0.00	1.500			
0.8055	51549.66	3.5950	3.5950	0.9537	25.96	0.00	1.500			
0.8083	51728.46	3.5920	3.5920	0.9023	25.96	0.00	1.500			
0.8110	51901.48	3.5890	3.5890	0.8402	25.96	0.00	1.500			
0.8134	52059.33	3.5860	3.5860	0.7681	25.96	0.00	1.500			
0.8157	52203.82	3.5830	3.5831	0.6880	25.96	0.00	1.500			
0.8176	52327.41	3.5800	3.5800	0.5986	25.96	0.00	1.500			
0.8192	52431.81	3.5770	3.5770	0.5136	25.96	0.00	1.500			
0.8206	52520.09	3.5740	3.5740	0.4374	25.96	0.00	1.500			
0.8217	52591.40	3.5710	3.5710	0.3702	25.96	0.00	1.500			
0.8227	52654.44	3.5680	3.5679	0.3205	25.96	0.00	1.500			
0.8236	52708.24	3.5650	3.5649	0.2724	25.96	0.00	1.500			
0.8243	52755.08	3.5620	3.5619	0.2416	25.96	0.00	1.500			
0.8249	52795.82	3.5590	3.5590	0.2142	25.96	0.00	1.500			
0.8255	52833.92	3.5560	3.5558	0.1932	25.96	0.00	1.500			
0.8261	52868.41	3.5530	3.5530	0.1726	25.96	0.00	1.500			
0.8265	52899.04	3.5500	3.5501	0.1559	25.96	0.00	1.500			
0.8270	52926.98	3.5470	3.5471	0.1391	25.96	0.00	1.500			
0.8274	52951.86	3.5440	3.5439	0.1242	25.96	0.00	1.500			
0.8277	52974.30	3.5410	3.5409	0.1095	25.96	0.00	1.500			
0.8280	52993.28	3.5380	3.5381	0.0941	25.96	0.00	1.500			
0.8283	53009.91	3.5350	3.5351	0.0801	25.96	0.00	1.500			
0.8285	53023.98	3.5320	3.5322	0.0664	25.96	0.00	1.500			
0.8287	53035.93	3.5290	3.5295	0.0510	25.96	0.00	1.500			
0.8288	53044.25	3.5260	3.5268	0.0357	25.96	0.00	1.500			
