Ah_balance (normalized)	Ah_balance (mAh)	Voltage - fit (V)	Voltage -  interpolate (V)	dQ/dV (1/V)	Temperature (°C)	Temperature - diff (°C)	Current (C)	R_DC 0ms (mOhm)	R_DC 50ms (mOhm)	R_DC 50 ms PEC (mOhm)
0.2864	18328.53	3.9880	3.9880	0.8000	27.15	1.19	1.500			
0.2888	18485.67	3.9850	3.9849	0.8254	27.15	1.19	1.500			
0.2913	18644.83	3.9820	3.9820	0.8353	27.15	1.19	1.500			
0.2939	18806.52	3.9790	3.9790	0.8453	27.14	1.18	1.500			
0.2964	18972.15	3.9760	3.9760	0.8483	27.14	1.18	1.500			
0.2990	19134.43	3.9730	3.9730	0.8506	27.13	1.17	1.500			
0.3015	19298.78	3.9700	3.9701	0.8548	27.13	1.17	1.500			
0.3041	19461.64	3.9670	3.9670	0.8574	27.13	1.17	1.500			
0.3067	19626.91	3.9640	3.9639	0.8617	27.12	1.16	1.500			
0.3093	19792.50	3.9610	3.9610	0.8598	27.12	1.16	1.500			
0.3118	19957.71	3.9580	3.9581	0.8666	27.11	1.15	1.500			
0.3145	20125.50	3.9550	3.9550	0.8714	27.11	1.15	1.500			
0.3171	20292.63	3.9520	3.9520	0.8695	27.10	1.14	1.500			
0.3197	20459.05	3.9490	3.9490	0.8802	27.10	1.14	1.500			
0.3223	20626.50	3.9460	3.9460	0.8858	27.09	1.13	1.500			
0.3250	20799.50	3.9430	3.9429	0.8927	27.08	1.12	1.500			
0.3277	20972.62	3.9400	3.9400	0.8955	27.08	1.12	1.500			
0.3304	21144.51	3.9370	3.9371	0.8964	27.07	1.11	1.500			
0.3331	21317.62	3.9340	3.9340	0.9000	27.06	1.10	1.500			
0.3358	21489.91	3.9310	3.9310	0.9027	27.06	1.10	1.500			
0.3385	21661.30	3.9280	3.9278	0.9054	27.05	1.09	1.500			
0.3412	21835.09	3.9250	3.9251	0.9124	27.05	1.09	1.500			
0.3439	22012.03	3.9220	3.9220	0.9204	27.04	1.08	1.500			
0.3467	22190.49	3.9190	3.9190	0.9278	27.04	1.08	1.500			
0.3495	22368.27	3.9160	3.9160	0.9304	27.03	1.07	1.500			
0.3523	22548.35	3.9130	3.9130	0.9395	27.03	1.07	1.500			
0.3552	22730.27	3.9100	3.9099	0.9446	27.02	1.06	1.500			
0.3580	22910.04	3.9070	3.9070	0.9513	27.02	1.06	1.500			
0.3608	23093.36	3.9040	3.9040	0.9616	27.01	1.05	1.500			
0.3637	23279.21	3.9010	3.9010	0.9722	27.01	1.05	1.500			
0.3667	23467.43	3.8980	3.8978	0.9751	27.00	1.04	1.500			
0.3696	23655.43	3.8950	3.8950	0.9814	26.99	1.03	1.500			
0.3725	23843.19	3.8920	3.8921	0.9901	26.98	1.02	1.500			
0.3755	24033.49	3.8890	3.8890	0.9995	26.98	1.02	1.500			
0.3785	24225.31	3.8860	3.8860	1.0064	26.97	1.01	1.500			
0.3816	24419.78	3.8830	3.8830	1.0219	26.96	1.00	1.500			
0.3847	24617.67	3.8800	3.8800	1.0354	26.95	0.99	1.500			
0.3878	24819.06	3.8770	3.8770	1.0458	26.94	0.98	1.500			
0.3910	25020.84	3.8740	3.8740	1.0519	26.93	0.97	1.500			
0.3941	25223.40	3.8710	3.8711	1.0578	26.93	0.97	1.500			
0.3973	25425.80	3.8680	3.8679	1.0693	26.92	0.96	1.500			
0.4005	25631.70	3.8650	3.8651	1.0824	26.91	0.95	1.500			
0.4037	25839.69	3.8620	3.8620	1.0971	26.90	0.94	1.500			
0.4071	26052.36	3.8590	3.8589	1.1148	26.90	0.94	1.500			
0.4104	26268.31	3.8560	3.8561	1.1348	26.89	0.93	1.500			
0.4139	26487.00	3.8530	3.8529	1.1562	26.88	0.92	1.500			
0.4174	26711.43	3.8500	3.8500	1.1703	26.87	0.91	1.500			
0.4209	26937.54	3.8470	3.8470	1.1804	26.86	0.90	1.500			
0.4245	27167.23	3.8440	3.8440	1.1950	26.84	0.88	1.500			
0.4281	27397.71	3.8410	3.8410	1.2151	26.83	0.87	1.500			
0.4317	27630.90	3.8380	3.8380	1.2344	26.82	0.86	1.500			
0.4355	27868.94	3.8350	3.8350	1.2529	26.81	0.85	1.500			
0.4392	28110.68	3.8320	3.8321	1.2761	26.80	0.84	1.500			
0.4431	28359.94	3.8290	3.8290	1.3041	26.79	0.83	1.500			
0.4471	28612.50	3.8260	3.8260	1.3316	26.77	0.81	1.500			
0.4511	28868.51	3.8230	3.8230	1.3584	26.76	0.80	1.500			
0.4552	29133.01	3.8200	3.8200	1.3800	26.75	0.79	1.500			
0.4594	29401.36	3.8170	3.8170	1.4056	26.73	0.77	1.500			
0.4637	29673.97	3.8140	3.8140	1.4341	26.72	0.76	1.500			
0.4680	29951.69	3.8110	3.8111	1.4530	26.71	0.75	1.500			
0.4724	30233.08	3.8080	3.8080	1.4839	26.70	0.74	1.500			
0.4768	30517.94	3.8050	3.8050	1.5141	26.68	0.72	1.500			
0.4814	30808.93	3.8020	3.8020	1.5481	26.67	0.71	1.500			
0.4861	31112.14	3.7990	3.7990	1.5902	26.66	0.70	1.500			
0.4909	31419.92	3.7960	3.7960	1.6224	26.64	0.68	1.500			
0.4959	31739.36	3.7930	3.7930	1.6523	26.62	0.66	1.500			
0.5009	32058.14	3.7900	3.7900	1.6637	26.61	0.65	1.500			
0.5059	32379.66	3.7870	3.7871	1.6832	26.59	0.63	1.500			
0.5109	32699.99	3.7840	3.7840	1.7181	26.57	0.61	1.500			
0.5161	33032.23	3.7810	3.7809	1.7446	26.55	0.59	1.500			
0.5214	33372.08	3.7780	3.7780	1.7627	26.53	0.57	1.500	0.348	0.471	
0.5268	33716.67	3.7750	3.7751	1.7917	26.52	0.56	1.500			
0.5322	34063.16	3.7720	3.7720	1.7892	26.50	0.54	1.500			
0.5376	34404.48	3.7690	3.7690	1.7704	26.48	0.52	1.500			
0.5429	34744.85	3.7660	3.7661	1.7646	26.47	0.51	1.500			
0.5482	35084.63	3.7630	3.7630	1.7434	26.45	0.49	1.500			
0.5533	35409.30	3.7600	3.7601	1.7513	26.44	0.48	1.500			
0.5586	35747.82	3.7570	3.7570	1.7750	26.42	0.46	1.500			
0.5639	36086.58	3.7540	3.7538	1.7809	26.41	0.45	1.500			
0.5693	36432.82	3.7510	3.7511	1.8127	26.39	0.43	1.500			
0.5747	36783.64	3.7480	3.7480	1.8049	26.38	0.42	1.500			
0.5801	37128.84	3.7450	3.7450	1.8103	26.36	0.40	1.500			
0.5855	37474.73	3.7420	3.7421	1.8295	26.35	0.39	1.500			
0.5911	37832.25	3.7390	3.7390	1.8703	26.33	0.37	1.500			
0.5967	38190.72	3.7360	3.7360	1.9000	26.32	0.36	1.500			
0.6025	38559.86	3.7330	3.7330	1.9663	26.31	0.35	1.500			
0.6084	38940.30	3.7300	3.7300	2.0111	26.29	0.33	1.500			
0.6146	39333.81	3.7270	3.7270	2.0746	26.28	0.32	1.500			
0.6210	39744.09	3.7240	3.7239	2.1143	26.26	0.30	1.500			
0.6274	40150.74	3.7210	3.7211	2.1779	26.25	0.29	1.500			
0.6339	40569.16	3.7180	3.7181	2.2367	26.23	0.27	1.500			
0.6407	41007.71	3.7150	3.7151	2.3224	26.22	0.26	1.500			
0.6479	41462.90	3.7120	3.7120	2.3698	26.20	0.24	1.500			
0.6550	41921.54	3.7090	3.7090	2.3979	26.19	0.23	1.500			
0.6624	42390.59	3.7060	3.7059	2.4244	26.17	0.21	1.500			
0.6698	42866.94	3.7030	3.7030	2.3804	26.16	0.20	1.500			
0.6769	43323.22	3.7000	3.7000	2.2832	26.15	0.19	1.500			
0.6836	43751.89	3.6970	3.6971	2.1222	26.14	0.18	1.500			
0.6897	44139.95	3.6940	3.6939	1.9582	26.13	0.17	1.500			
0.6952	44493.42	3.6910	3.6911	1.8087	26.12	0.16	1.500			
0.7004	44822.91	3.6880	3.6880	1.6787	26.11	0.15	1.500			
0.7052	45133.42	3.6850	3.6851	1.5834	26.10	0.14	1.500			
0.7097	45420.30	3.6820	3.6821	1.4923	26.09	0.13	1.500			
0.7141	45700.42	3.6790	3.6788	1.4301	26.08	0.12	1.500			
0.7182	45966.53	3.6760	3.6761	1.3792	26.07	0.11	1.500			
0.7222	46222.97	3.6730	3.6730	1.3313	26.07	0.11	1.500			
0.7261	46472.92	3.6700	3.6700	1.2995	26.06	0.10	1.500			
0.7300	46718.16	3.6670	3.6670	1.2739	26.05	0.09	1.500			
0.7337	46955.58	3.6640	3.6640	1.2626	26.05	0.09	1.500			
0.7374	47195.44	3.6610	3.6610	1.2621	26.04	0.08	1.500			
0.7412	47438.75	3.6580	3.6580	1.2630	26.04	0.08	1.500			
0.7450	47680.97	3.6550	3.6550	1.2647	26.03	0.07	1.500			
0.7488	47925.73	3.6520	3.6521	1.2747	26.02	0.06	1.500			
0.7527	48171.72	3.6490	3.6490	1.2759	26.02	0.06	1.500			
0.7565	48417.16	3.6460	3.6459	1.2725	26.01	0.05	1.500			
0.7603	48661.91	3.6430	3.6430	1.2657	26.01	0.05	1.500			
0.7641	48905.50	3.6400	3.6400	1.2560	26.00	0.04	1.500			
0.7679	49146.69	3.6370	3.6370	1.2445	25.99	0.03	1.500			
0.7716	49383.43	3.6340	3.6340	1.2356	25.98	0.02	1.500			
0.7753	49619.65	3.6310	3.6310	1.2198	25.98	0.02	1.500			
0.7789	49850.85	3.6280	3.6280	1.2197	25.97	0.01	1.500			
0.7826	50083.58	3.6250	3.6251	1.2170	25.96	0.00	1.500			
0.7862	50317.13	3.6220	3.6220	1.2165	25.95	-0.01	1.500			
0.7899	50552.80	3.6190	3.6190	1.2138	25.95	-0.01	1.500			
0.7936	50787.37	3.6160	3.6160	1.1953	25.95	-0.01	1.500			
0.7971	51016.20	3.6130	3.6131	1.1807	25.94	-0.02	1.500			
0.8007	51243.98	3.6100	3.6100	1.1624	25.94	-0.02	1.500			
0.8041	51463.04	3.6070	3.6069	1.1378	25.94	-0.02	1.500			
0.8075	51678.41	3.6040	3.6040	1.1181	25.93	-0.03	1.500			
0.8108	51890.85	3.6010	3.6011	1.0992	25.93	-0.03	1.500			
0.8141	52101.21	3.5980	3.5980	1.0848	25.93	-0.03	1.500			
0.8173	52309.26	3.5950	3.5950	1.0601	25.93	-0.03	1.500			
0.8205	52510.07	3.5920	3.5920	1.0340	25.94	-0.02	1.500			
0.8236	52709.14	3.5890	3.5890	0.9966	25.94	-0.02	1.500			
0.8266	52900.30	3.5860	3.5859	0.9505	25.95	-0.01	1.500			
0.8294	53082.86	3.5830	3.5830	0.8815	25.95	-0.01	1.500			
0.8320	53248.62	3.5800	3.5800	0.7995	25.95	-0.01	1.500			
0.8343	53398.09	3.5770	3.5770	0.7082	25.96	-0.00	1.500			
0.8363	53524.88	3.5740	3.5741	0.6119	25.96	-0.00	1.500			
0.8380	53629.15	3.5710	3.5709	0.5133	25.96	-0.00	1.500			
0.8393	53716.14	3.5680	3.5679	0.4331	25.96	0.00	1.500			
0.8404	53785.48	3.5650	3.5650	0.3645	25.96	0.00	1.500			
0.8414	53846.50	3.5620	3.5619	0.3140	25.96	0.00	1.500			
0.8422	53897.97	3.5590	3.5590	0.2704	25.96	0.00	1.500			
0.8429	53943.88	3.5560	3.5561	0.2341	25.97	0.01	1.500			
0.8435	53985.47	3.5530	3.5530	0.2110	25.97	0.01	1.500			
0.8441	54021.69	3.5500	3.5500	0.1878	25.97	0.01	1.500			
0.8446	54055.38	3.5470	3.5470	0.1682	25.97	0.01	1.500			
0.8451	54085.69	3.5440	3.5440	0.1533	25.97	0.01	1.500			
0.8455	54113.10	3.5410	3.5410	0.1374	25.97	0.01	1.500			
0.8459	54138.08	3.5380	3.5380	0.1227	25.97	0.01	1.500			
0.8463	54160.29	3.5350	3.5349	0.1084	25.97	0.01	1.500			
0.8466	54179.73	3.5320	3.5322	0.0941	25.97	0.01	1.500			
0.8468	54196.37	3.5290	3.5291	0.0797	25.97	0.01	1.500			
0.8470	54211.06	3.5260	3.5261	0.0651	25.97	0.01	1.500			
0.8472	54222.03	3.5230	3.5233	0.0492	25.97	0.01	1.500			
0.8473	54229.96	3.5200	3.5209	0.0333	25.97	0.01	1.500			
