Ah_balance (normalized)	Ah_balance (mAh)	Voltage - fit (V)	Voltage -  interpolate (V)	dQ/dV (1/V)	Temperature (°C)	Temperature - diff (°C)	Current (C)	R_DC 0ms (mOhm)	R_DC 50ms (mOhm)	R_DC 50 ms PEC (mOhm)
0.2924	18716.45	3.9880	3.9880	0.8354	27.18	1.22	1.500			
0.2950	18877.75	3.9850	3.9850	0.8403	27.17	1.21	1.500			
0.2975	19039.17	3.9820	3.9820	0.8402	27.17	1.21	1.500			
0.3000	19199.70	3.9790	3.9790	0.8447	27.16	1.20	1.500			
0.3025	19361.91	3.9760	3.9761	0.8466	27.16	1.20	1.500			
0.3051	19524.59	3.9730	3.9728	0.8514	27.15	1.19	1.500			
0.3076	19687.70	3.9700	3.9700	0.8562	27.15	1.19	1.500			
0.3102	19853.62	3.9670	3.9670	0.8576	27.14	1.18	1.500			
0.3128	20019.86	3.9640	3.9639	0.8627	27.14	1.18	1.500			
0.3154	20185.71	3.9610	3.9611	0.8658	27.13	1.17	1.500			
0.3180	20350.71	3.9580	3.9580	0.8641	27.12	1.16	1.500			
0.3206	20517.03	3.9550	3.9549	0.8720	27.12	1.16	1.500			
0.3232	20683.98	3.9520	3.9520	0.8755	27.11	1.15	1.500			
0.3258	20852.28	3.9490	3.9490	0.8777	27.11	1.15	1.500			
0.3285	21021.94	3.9460	3.9461	0.8831	27.10	1.14	1.500			
0.3311	21191.22	3.9430	3.9430	0.8906	27.10	1.14	1.500			
0.3338	21363.41	3.9400	3.9401	0.8931	27.09	1.13	1.500			
0.3365	21535.56	3.9370	3.9370	0.8967	27.09	1.13	1.500			
0.3392	21707.28	3.9340	3.9340	0.8998	27.08	1.12	1.500			
0.3419	21880.75	3.9310	3.9310	0.9086	27.08	1.12	1.500			
0.3446	22056.82	3.9280	3.9280	0.9109	27.07	1.11	1.500			
0.3474	22231.01	3.9250	3.9250	0.9117	27.07	1.11	1.500			
0.3501	22404.36	3.9220	3.9220	0.9173	27.06	1.10	1.500			
0.3528	22582.03	3.9190	3.9191	0.9305	27.06	1.10	1.500			
0.3556	22760.68	3.9160	3.9159	0.9381	27.05	1.09	1.500			
0.3585	22941.49	3.9130	3.9129	0.9476	27.05	1.09	1.500			
0.3613	23125.90	3.9100	3.9101	0.9519	27.04	1.08	1.500			
0.3642	23311.10	3.9070	3.9070	0.9609	27.04	1.08	1.500			
0.3671	23496.48	3.9040	3.9040	0.9630	27.03	1.07	1.500			
0.3700	23680.68	3.9010	3.9010	0.9646	27.03	1.07	1.500			
0.3729	23864.32	3.8980	3.8980	0.9699	27.02	1.06	1.500			
0.3758	24051.08	3.8950	3.8950	0.9785	27.02	1.06	1.500			
0.3787	24238.98	3.8920	3.8920	0.9896	27.01	1.05	1.500			
0.3817	24430.05	3.8890	3.8891	1.0055	27.01	1.05	1.500			
0.3847	24623.83	3.8860	3.8860	1.0150	27.00	1.04	1.500			
0.3878	24821.32	3.8830	3.8830	1.0257	26.99	1.03	1.500			
0.3909	25018.56	3.8800	3.8801	1.0408	26.98	1.02	1.500			
0.3941	25219.90	3.8770	3.8770	1.0519	26.97	1.01	1.500			
0.3973	25424.06	3.8740	3.8740	1.0641	26.96	1.00	1.500			
0.4005	25629.16	3.8710	3.8710	1.0739	26.95	0.99	1.500			
0.4037	25835.91	3.8680	3.8681	1.0822	26.94	0.98	1.500			
0.4070	26045.84	3.8650	3.8650	1.0937	26.93	0.97	1.500			
0.4103	26256.11	3.8620	3.8620	1.1063	26.92	0.96	1.500			
0.4135	26467.15	3.8590	3.8590	1.1181	26.91	0.95	1.500			
0.4170	26685.29	3.8560	3.8560	1.1349	26.90	0.94	1.500			
0.4204	26904.25	3.8530	3.8530	1.1493	26.89	0.93	1.500			
0.4238	27126.07	3.8500	3.8500	1.1689	26.88	0.92	1.500			
0.4274	27352.11	3.8470	3.8471	1.1892	26.87	0.91	1.500			
0.4310	27581.50	3.8440	3.8438	1.2090	26.86	0.90	1.500			
0.4346	27815.07	3.8410	3.8410	1.2279	26.85	0.89	1.500			
0.4383	28052.65	3.8380	3.8380	1.2466	26.84	0.88	1.500			
0.4421	28296.22	3.8350	3.8350	1.2609	26.83	0.87	1.500			
0.4460	28540.80	3.8320	3.8320	1.2833	26.82	0.86	1.500			
0.4498	28786.04	3.8290	3.8291	1.3082	26.81	0.85	1.500			
0.4537	29037.41	3.8260	3.8260	1.3317	26.79	0.83	1.500			
0.4577	29295.21	3.8230	3.8230	1.3639	26.78	0.82	1.500			
0.4619	29560.27	3.8200	3.8200	1.3912	26.77	0.81	1.500			
0.4661	29832.09	3.8170	3.8171	1.4136	26.76	0.80	1.500			
0.4704	30108.40	3.8140	3.8140	1.4385	26.75	0.79	1.500			
0.4748	30386.70	3.8110	3.8110	1.4586	26.74	0.78	1.500			
0.4792	30666.29	3.8080	3.8080	1.4778	26.72	0.76	1.500			
0.4836	30952.86	3.8050	3.8050	1.5042	26.71	0.75	1.500			
0.4882	31245.71	3.8020	3.8020	1.5277	26.69	0.73	1.500			
0.4928	31540.93	3.7990	3.7990	1.5482	26.68	0.72	1.500			
0.4975	31839.36	3.7960	3.7960	1.5743	26.66	0.70	1.500			
0.5022	32143.73	3.7930	3.7930	1.6025	26.64	0.68	1.500			
0.5070	32450.91	3.7900	3.7900	1.6353	26.63	0.67	1.500			
0.5120	32769.21	3.7870	3.7870	1.6674	26.61	0.65	1.500			
0.5171	33095.79	3.7840	3.7840	1.6939	26.60	0.64	1.500			
0.5223	33425.09	3.7810	3.7812	1.7174	26.58	0.62	1.500	0.348	0.477	
0.5275	33757.24	3.7780	3.7779	1.7251	26.57	0.61	1.500			
0.5327	34090.62	3.7750	3.7750	1.7207	26.55	0.59	1.500			
0.5378	34419.45	3.7720	3.7721	1.7155	26.54	0.58	1.500			
0.5430	34752.18	3.7690	3.7690	1.7222	26.53	0.57	1.500			
0.5481	35079.21	3.7660	3.7659	1.7239	26.52	0.56	1.500			
0.5533	35411.87	3.7630	3.7630	1.7315	26.50	0.54	1.500			
0.5585	35744.73	3.7600	3.7600	1.7383	26.49	0.53	1.500			
0.5637	36079.92	3.7570	3.7570	1.7483	26.48	0.52	1.500			
0.5689	36411.46	3.7540	3.7540	1.7494	26.46	0.50	1.500			
0.5742	36746.42	3.7510	3.7510	1.7673	26.45	0.49	1.500			
0.5795	37086.55	3.7480	3.7479	1.7934	26.43	0.47	1.500			
0.5849	37434.12	3.7450	3.7450	1.8241	26.42	0.46	1.500			
0.5905	37789.41	3.7420	3.7420	1.8495	26.41	0.45	1.500			
0.5961	38153.16	3.7390	3.7389	1.8848	26.39	0.43	1.500			
0.6017	38510.05	3.7360	3.7361	1.9193	26.38	0.42	1.500			
0.6075	38882.29	3.7330	3.7330	1.9669	26.36	0.40	1.500			
0.6135	39264.58	3.7300	3.7300	2.0144	26.35	0.39	1.500			
0.6196	39654.40	3.7270	3.7271	2.0888	26.33	0.37	1.500			
0.6260	40064.64	3.7240	3.7240	2.1510	26.31	0.35	1.500			
0.6325	40483.11	3.7210	3.7211	2.2089	26.30	0.34	1.500			
0.6393	40915.56	3.7180	3.7180	2.2757	26.29	0.33	1.500			
0.6462	41357.02	3.7150	3.7150	2.2792	26.27	0.31	1.500			
0.6530	41792.95	3.7120	3.7120	2.2995	26.26	0.30	1.500			
0.6599	42235.68	3.7090	3.7090	2.3148	26.25	0.29	1.500			
0.6670	42687.71	3.7060	3.7060	2.3160	26.23	0.27	1.500			
0.6741	43141.65	3.7030	3.7030	2.2531	26.21	0.25	1.500			
0.6807	43562.09	3.7000	3.7000	2.1021	26.20	0.24	1.500			
0.6868	43952.36	3.6970	3.6970	1.9432	26.19	0.23	1.500			
0.6923	44305.43	3.6940	3.6941	1.8059	26.18	0.22	1.500			
0.6974	44631.28	3.6910	3.6910	1.6713	26.17	0.21	1.500			
0.7022	44940.33	3.6880	3.6880	1.5858	26.16	0.20	1.500			
0.7068	45233.41	3.6850	3.6850	1.5087	26.15	0.19	1.500			
0.7112	45514.12	3.6820	3.6820	1.4400	26.14	0.18	1.500			
0.7154	45784.34	3.6790	3.6790	1.3877	26.13	0.17	1.500			
0.7194	46040.85	3.6760	3.6761	1.3372	26.12	0.16	1.500			
0.7233	46290.90	3.6730	3.6730	1.3029	26.11	0.15	1.500			
0.7271	46535.84	3.6700	3.6700	1.2816	26.10	0.14	1.500			
0.7309	46776.61	3.6670	3.6670	1.2714	26.09	0.13	1.500			
0.7347	47019.16	3.6640	3.6640	1.2678	26.08	0.12	1.500			
0.7385	47262.87	3.6610	3.6610	1.2726	26.07	0.11	1.500			
0.7423	47507.73	3.6580	3.6580	1.2722	26.06	0.10	1.500			
0.7461	47753.14	3.6550	3.6550	1.2722	26.05	0.09	1.500			
0.7500	47998.25	3.6520	3.6520	1.2671	26.04	0.08	1.500			
0.7538	48242.40	3.6490	3.6490	1.2628	26.03	0.07	1.500			
0.7576	48485.10	3.6460	3.6460	1.2501	26.03	0.07	1.500			
0.7613	48724.16	3.6430	3.6430	1.2422	26.02	0.06	1.500			
0.7650	48960.01	3.6400	3.6400	1.2333	26.01	0.05	1.500			
0.7687	49194.81	3.6370	3.6370	1.2207	26.00	0.04	1.500			
0.7723	49427.97	3.6340	3.6340	1.2165	26.00	0.04	1.500			
0.7760	49662.38	3.6310	3.6310	1.2081	25.99	0.03	1.500			
0.7796	49892.65	3.6280	3.6280	1.2016	25.98	0.02	1.500			
0.7832	50125.27	3.6250	3.6250	1.1974	25.98	0.02	1.500			
0.7868	50353.63	3.6220	3.6220	1.1828	25.97	0.01	1.500			
0.7903	50580.82	3.6190	3.6190	1.1680	25.96	0.00	1.500			
0.7938	50806.32	3.6160	3.6161	1.1486	25.96	-0.00	1.500			
0.7973	51024.03	3.6130	3.6129	1.1274	25.95	-0.01	1.500			
0.8006	51239.24	3.6100	3.6100	1.1054	25.95	-0.01	1.500			
0.8039	51447.23	3.6070	3.6070	1.0788	25.94	-0.02	1.500			
0.8071	51652.69	3.6040	3.6040	1.0563	25.94	-0.02	1.500			
0.8102	51854.86	3.6010	3.6010	1.0349	25.94	-0.02	1.500			
0.8133	52051.52	3.5980	3.5980	1.0135	25.95	-0.01	1.500			
0.8163	52245.01	3.5950	3.5950	0.9887	25.95	-0.01	1.500			
0.8193	52435.14	3.5920	3.5919	0.9467	25.95	-0.01	1.500			
0.8221	52616.35	3.5890	3.5891	0.8951	25.95	-0.01	1.500			
0.8248	52789.17	3.5860	3.5860	0.8289	25.96	-0.00	1.500			
0.8273	52944.04	3.5830	3.5830	0.7471	25.96	-0.00	1.500			
0.8294	53081.38	3.5800	3.5800	0.6607	25.96	-0.00	1.500			
0.8312	53197.58	3.5770	3.5770	0.5683	25.96	0.00	1.500			
0.8327	53294.45	3.5740	3.5741	0.4855	25.96	0.00	1.500			
0.8340	53376.45	3.5710	3.5710	0.4159	25.96	0.00	1.500			
0.8351	53446.46	3.5680	3.5680	0.3458	25.96	0.00	1.500			
0.8360	53504.41	3.5650	3.5649	0.2978	25.96	0.00	1.500			
0.8368	53553.71	3.5620	3.5621	0.2578	25.97	0.01	1.500			
0.8375	53597.01	3.5590	3.5589	0.2268	25.97	0.01	1.500			
0.8381	53636.63	3.5560	3.5560	0.2010	25.97	0.01	1.500			
0.8386	53672.74	3.5530	3.5530	0.1823	25.97	0.01	1.500			
0.8391	53704.97	3.5500	3.5501	0.1640	25.97	0.01	1.500			
0.8396	53734.61	3.5470	3.5469	0.1472	25.97	0.01	1.500			
0.8400	53761.23	3.5440	3.5442	0.1324	25.97	0.01	1.500			
0.8404	53785.06	3.5410	3.5410	0.1171	25.97	0.01	1.500			
0.8407	53806.05	3.5380	3.5380	0.1023	25.97	0.01	1.500			
0.8410	53824.26	3.5350	3.5350	0.0877	25.97	0.01	1.500			
0.8412	53839.72	3.5320	3.5322	0.0733	25.97	0.01	1.500			
0.8414	53852.71	3.5290	3.5293	0.0587	25.97	0.01	1.500			
0.8416	53862.54	3.5260	3.5266	0.0437	25.97	0.01	1.500			
0.8417	53869.50	3.5230	3.5243	0.0287	25.97	0.01	1.500			
