Ah_balance (normalized)	Ah_balance (mAh)	Voltage - fit (V)	Voltage -  interpolate (V)	dQ/dV (1/V)	Temperature (°C)	Temperature - diff (°C)	Current (C)	R_DC 0ms (mOhm)	R_DC 50ms (mOhm)	R_DC 50 ms PEC (mOhm)
0.2118	13557.74	3.9120	3.9117	-0.0956	25.70	0.00	-1.500			
0.2122	13579.72	3.9090	3.9088	-0.1334	25.70	0.00	-1.500			
0.2127	13609.64	3.9060	3.9060	-0.1701	25.70	0.00	-1.500			
0.2132	13646.32	3.9030	3.9030	-0.2032	25.70	0.00	-1.500			
0.2139	13688.57	3.9000	3.9001	-0.2357	25.70	0.00	-1.500			
0.2146	13737.40	3.8970	3.8970	-0.2638	25.70	0.00	-1.500			
0.2155	13791.50	3.8940	3.8940	-0.2971	25.70	0.00	-1.500			
0.2164	13851.52	3.8910	3.8910	-0.3266	25.70	0.00	-1.500			
0.2175	13916.82	3.8880	3.8879	-0.3566	25.70	0.00	-1.500			
0.2186	13988.61	3.8850	3.8850	-0.3848	25.70	0.00	-1.500			
0.2198	14065.34	3.8820	3.8822	-0.4136	25.70	0.00	-1.500			
0.2211	14147.73	3.8790	3.8790	-0.4434	25.70	0.00	-1.500			
0.2224	14235.69	3.8760	3.8759	-0.4734	25.70	0.00	-1.500			
0.2239	14328.28	3.8730	3.8730	-0.4981	25.70	0.00	-1.500			
0.2254	14427.05	3.8700	3.8701	-0.5274	25.70	0.00	-1.500			
0.2271	14531.45	3.8670	3.8670	-0.5559	25.70	0.00	-1.500			
0.2288	14641.29	3.8640	3.8639	-0.5832	25.70	0.00	-1.500			
0.2306	14755.86	3.8610	3.8610	-0.6064	25.70	0.00	-1.500			
0.2324	14875.44	3.8580	3.8581	-0.6265	25.70	0.00	-1.500			
0.2344	14999.09	3.8550	3.8550	-0.6471	25.70	0.00	-1.500			
0.2363	15124.79	3.8520	3.8521	-0.6671	25.70	0.00	-1.500			
0.2384	15256.02	3.8490	3.8490	-0.6822	25.70	0.00	-1.500			
0.2404	15388.61	3.8460	3.8459	-0.6942	25.70	0.00	-1.500			
0.2425	15523.04	3.8430	3.8431	-0.7080	25.70	0.00	-1.500			
0.2447	15660.69	3.8400	3.8401	-0.7205	25.70	0.00	-1.500			
0.2469	15799.71	3.8370	3.8369	-0.7323	25.70	0.00	-1.500			
0.2491	15942.00	3.8340	3.8340	-0.7389	25.70	0.00	-1.500			
0.2513	16084.38	3.8310	3.8310	-0.7460	25.70	0.00	-1.500			
0.2536	16231.43	3.8280	3.8280	-0.7533	25.70	0.00	-1.500			
0.2559	16375.93	3.8250	3.8251	-0.7533	25.70	0.00	-1.500			
0.2581	16519.55	3.8220	3.8220	-0.7527	25.71	0.01	-1.500			
0.2604	16663.74	3.8190	3.8190	-0.7569	25.71	0.01	-1.500			
0.2626	16807.86	3.8160	3.8160	-0.7594	25.71	0.01	-1.500			
0.2649	16954.44	3.8130	3.8130	-0.7683	25.72	0.02	-1.500			
0.2672	17103.33	3.8100	3.8100	-0.7725	25.72	0.02	-1.500			
0.2696	17253.37	3.8070	3.8070	-0.7776	25.72	0.02	-1.500			
0.2719	17402.49	3.8040	3.8040	-0.7830	25.73	0.03	-1.500			
0.2743	17554.00	3.8010	3.8010	-0.7850	25.73	0.03	-1.500			
0.2767	17705.67	3.7980	3.7979	-0.7811	25.74	0.04	-1.500			
0.2790	17854.84	3.7950	3.7950	-0.7834	25.74	0.04	-1.500			
0.2813	18004.86	3.7920	3.7921	-0.7832	25.74	0.04	-1.500			
0.2837	18156.03	3.7890	3.7889	-0.7837	25.75	0.05	-1.500			
0.2860	18306.00	3.7860	3.7859	-0.7836	25.76	0.06	-1.500			
0.2884	18455.75	3.7830	3.7831	-0.7839	25.76	0.06	-1.500			
0.2907	18607.73	3.7800	3.7800	-0.7895	25.77	0.07	-1.500			
0.2931	18759.20	3.7770	3.7770	-0.7917	25.77	0.07	-1.500			
0.2955	18908.84	3.7740	3.7740	-0.7922	25.78	0.08	-1.500			
0.2979	19063.47	3.7710	3.7710	-0.7965	25.78	0.08	-1.500			
0.3003	19218.53	3.7680	3.7679	-0.7957	25.79	0.09	-1.500			
0.3027	19371.03	3.7650	3.7651	-0.7913	25.79	0.09	-1.500			
0.3051	19523.24	3.7620	3.7621	-0.7897	25.80	0.10	-1.500			
0.3074	19673.51	3.7590	3.7590	-0.7877	25.81	0.11	-1.500			
0.3097	19823.93	3.7560	3.7559	-0.7857	25.81	0.11	-1.500			
0.3121	19971.60	3.7530	3.7530	-0.7864	25.82	0.12	-1.500			
0.3145	20125.11	3.7500	3.7500	-0.7905	25.82	0.12	-1.500			
0.3168	20276.41	3.7470	3.7470	-0.7940	25.83	0.13	-1.500			
0.3192	20429.53	3.7440	3.7440	-0.7979	25.83	0.13	-1.500			
0.3216	20583.20	3.7410	3.7410	-0.7999	25.84	0.14	-1.500			
0.3240	20737.22	3.7380	3.7379	-0.7988	25.85	0.15	-1.500			
0.3264	20892.32	3.7350	3.7350	-0.7961	25.85	0.15	-1.500			
0.3288	21044.25	3.7320	3.7320	-0.7926	25.86	0.16	-1.500			
0.3312	21196.25	3.7290	3.7290	-0.7942	25.86	0.16	-1.500			
0.3335	21346.21	3.7260	3.7260	-0.7920	25.87	0.17	-1.500			
0.3359	21498.05	3.7230	3.7230	-0.7979	25.87	0.17	-1.500			
0.3383	21652.58	3.7200	3.7200	-0.8018	25.88	0.18	-1.500			
0.3407	21807.63	3.7170	3.7169	-0.8050	25.89	0.19	-1.500			
0.3432	21963.89	3.7140	3.7140	-0.8103	25.89	0.19	-1.500			
0.3456	22118.23	3.7110	3.7111	-0.8143	25.90	0.20	-1.500			
0.3480	22274.08	3.7080	3.7079	-0.8199	25.90	0.20	-1.500			
0.3505	22433.11	3.7050	3.7050	-0.8233	25.91	0.21	-1.500			
0.3530	22590.95	3.7020	3.7020	-0.8278	25.92	0.22	-1.500			
0.3555	22750.69	3.6990	3.6991	-0.8351	25.92	0.22	-1.500			
0.3580	22913.02	3.6960	3.6959	-0.8382	25.93	0.23	-1.500			
0.3605	23073.26	3.6930	3.6930	-0.8432	25.93	0.23	-1.500			
0.3630	23232.83	3.6900	3.6901	-0.8517	25.93	0.23	-1.500			
0.3656	23398.29	3.6870	3.6870	-0.8675	25.94	0.24	-1.500			
0.3682	23566.01	3.6840	3.6840	-0.8825	25.94	0.24	-1.500			
0.3709	23736.63	3.6810	3.6810	-0.8938	25.95	0.25	-1.500			
0.3736	23909.69	3.6780	3.6781	-0.9091	25.95	0.25	-1.500			
0.3763	24086.18	3.6750	3.6750	-0.9290	25.95	0.25	-1.500			
0.3791	24265.36	3.6720	3.6719	-0.9422	25.96	0.26	-1.500			
0.3820	24447.52	3.6690	3.6689	-0.9517	25.96	0.26	-1.500			
0.3849	24631.53	3.6660	3.6660	-0.9699	25.97	0.27	-1.500			
0.3878	24818.71	3.6630	3.6631	-0.9883	25.97	0.27	-1.500			
0.3908	25009.35	3.6600	3.6600	-1.0093	25.98	0.28	-1.500			
0.3938	25203.69	3.6570	3.6569	-1.0308	25.98	0.28	-1.500			
0.3970	25405.29	3.6540	3.6540	-1.0489	25.99	0.29	-1.500			
0.4002	25611.19	3.6510	3.6510	-1.0691	25.99	0.29	-1.500			
0.4034	25818.37	3.6480	3.6480	-1.0876	26.00	0.30	-1.500			
0.4067	26026.98	3.6450	3.6450	-1.1071	26.00	0.30	-1.500			
0.4100	26240.77	3.6420	3.6419	-1.1305	26.00	0.30	-1.500			
0.4134	26457.05	3.6390	3.6390	-1.1526	26.00	0.30	-1.500			
0.4169	26679.25	3.6360	3.6361	-1.1866	26.00	0.30	-1.500			
0.4205	26915.14	3.6330	3.6329	-1.2131	26.00	0.30	-1.500			
0.4243	27152.10	3.6300	3.6300	-1.2401	26.00	0.30	-1.500			
0.4280	27391.13	3.6270	3.6270	-1.2683	26.00	0.30	-1.500			
0.4318	27637.33	3.6240	3.6240	-1.2854	26.00	0.30	-1.500			
0.4357	27886.74	3.6210	3.6209	-1.3170	26.00	0.30	-1.500			
0.4397	28141.13	3.6180	3.6180	-1.3391	26.01	0.31	-1.500			
0.4437	28398.18	3.6150	3.6150	-1.3666	26.01	0.31	-1.500			
0.4479	28666.10	3.6120	3.6121	-1.4037	26.01	0.31	-1.500			
0.4521	28936.86	3.6090	3.6090	-1.4337	26.02	0.32	-1.500			
0.4565	29215.30	3.6060	3.6060	-1.4673	26.02	0.32	-1.500			
0.4610	29502.49	3.6030	3.6030	-1.5026	26.02	0.32	-1.500			
0.4655	29793.59	3.6000	3.6000	-1.5216	26.01	0.31	-1.500			
0.4701	30088.99	3.5970	3.5970	-1.5546	26.01	0.31	-1.500			
0.4748	30389.46	3.5940	3.5940	-1.5813	26.00	0.30	-1.500			
0.4796	30694.85	3.5910	3.5911	-1.6054	26.00	0.30	-1.500			
0.4845	31006.26	3.5880	3.5880	-1.6276	26.00	0.30	-1.500			
0.4894	31322.34	3.5850	3.5851	-1.6572	26.00	0.30	-1.500			
0.4944	31642.37	3.5820	3.5820	-1.6862	26.00	0.30	-1.500			
0.4995	31969.97	3.5790	3.5791	-1.7149	26.00	0.30	-1.500			
0.5047	32300.34	3.5760	3.5761	-1.7307	26.00	0.30	-1.500			
0.5099	32634.39	3.5730	3.5730	-1.7649	26.00	0.30	-1.500			
0.5153	32977.19	3.5700	3.5701	-1.7938	26.00	0.30	-1.500			
0.5207	33324.11	3.5670	3.5670	-1.8132	26.00	0.30	-1.500			
0.5261	33673.53	3.5640	3.5639	-1.8417	26.00	0.30	-1.500			
0.5317	34029.80	3.5610	3.5611	-1.8553	26.00	0.30	-1.500			
0.5373	34387.08	3.5580	3.5579	-1.8953	26.00	0.30	-1.500			
0.5431	34756.06	3.5550	3.5550	-1.9039	26.00	0.30	-1.500			
0.5488	35120.11	3.5520	3.5520	-1.9192	26.00	0.30	-1.500			
0.5546	35496.26	3.5490	3.5493	-1.9400	26.00	0.30	-1.500			
0.5604	35866.46	3.5460	3.5459	-1.9493	26.00	0.30	-1.500			
0.5663	36241.75	3.5430	3.5429	-1.9548	26.00	0.30	-1.500	0.391	0.513	
0.5722	36618.83	3.5400	3.5400	-1.9482	26.00	0.30	-1.500			
0.5781	36999.55	3.5370	3.5370	-1.9643	26.00	0.30	-1.500			
0.5840	37375.15	3.5340	3.5340	-1.9463	26.01	0.31	-1.500			
0.5898	37748.64	3.5310	3.5310	-1.9519	26.01	0.31	-1.500			
0.5957	38124.28	3.5280	3.5280	-1.9455	26.02	0.32	-1.500			
0.6015	38494.71	3.5250	3.5249	-1.9451	26.03	0.33	-1.500			
0.6073	38869.15	3.5220	3.5221	-1.9337	26.03	0.33	-1.500			
0.6132	39242.84	3.5190	3.5189	-1.9302	26.04	0.34	-1.500			
0.6190	39613.28	3.5160	3.5160	-1.9160	26.05	0.35	-1.500			
0.6246	39977.37	3.5130	3.5130	-1.8954	26.05	0.35	-1.500			
0.6303	40342.26	3.5100	3.5102	-1.8873	26.06	0.36	-1.500			
0.6360	40701.03	3.5070	3.5069	-1.8827	26.07	0.37	-1.500			
0.6416	41061.36	3.5040	3.5040	-1.8629	26.08	0.38	-1.500			
0.6472	41419.13	3.5010	3.5010	-1.8477	26.09	0.39	-1.500			
0.6528	41778.68	3.4980	3.4980	-1.8454	26.10	0.40	-1.500			
0.6583	42129.37	3.4950	3.4949	-1.8268	26.11	0.41	-1.500			
0.6637	42477.10	3.4920	3.4920	-1.8109	26.12	0.42	-1.500			
0.6691	42823.55	3.4890	3.4890	-1.7976	26.13	0.43	-1.500			
0.6745	43165.36	3.4860	3.4860	-1.7792	26.14	0.44	-1.500			
0.6798	43509.00	3.4830	3.4832	-1.7742	26.15	0.45	-1.500			
0.6851	43847.80	3.4800	3.4800	-1.7581	26.16	0.46	-1.500			
0.6904	44185.79	3.4770	3.4769	-1.7464	26.17	0.47	-1.500			
0.6956	44520.82	3.4740	3.4739	-1.7151	26.18	0.48	-1.500			
0.7008	44851.26	3.4710	3.4710	-1.6899	26.19	0.49	-1.500			
0.7058	45169.48	3.4680	3.4681	-1.6694	26.20	0.50	-1.500			
0.7107	45487.92	3.4650	3.4649	-1.6430	26.21	0.51	-1.500			
0.7156	45799.23	3.4620	3.4619	-1.6257	26.23	0.53	-1.500			
0.7205	46109.56	3.4590	3.4590	-1.5986	26.24	0.54	-1.500			
0.7253	46418.30	3.4560	3.4560	-1.5868	26.25	0.55	-1.500			
0.7300	46721.05	3.4530	3.4532	-1.5638	26.26	0.56	-1.500			
0.7347	47019.13	3.4500	3.4499	-1.5378	26.27	0.57	-1.500			
0.7392	47307.84	3.4470	3.4470	-1.5179	26.29	0.59	-1.500			
0.7437	47596.19	3.4440	3.4440	-1.4991	26.30	0.60	-1.500			
0.7482	47883.27	3.4410	3.4410	-1.4888	26.31	0.61	-1.500			
0.7526	48166.20	3.4380	3.4380	-1.4831	26.32	0.62	-1.500			
0.7570	48449.54	3.4350	3.4349	-1.4696	26.34	0.64	-1.500			
0.7614	48729.72	3.4320	3.4320	-1.4670	26.36	0.66	-1.500			
0.7658	49012.51	3.4290	3.4290	-1.4611	26.38	0.68	-1.500			
0.7702	49292.91	3.4260	3.4260	-1.4529	26.39	0.69	-1.500			
0.7746	49573.78	3.4230	3.4228	-1.4438	26.41	0.71	-1.500			
0.7789	49850.15	3.4200	3.4202	-1.4284	26.43	0.73	-1.500			
0.7832	50123.56	3.4170	3.4169	-1.4024	26.44	0.74	-1.500			
0.7874	50393.53	3.4140	3.4140	-1.3813	26.46	0.76	-1.500			
0.7915	50655.08	3.4110	3.4110	-1.3555	26.48	0.78	-1.500			
0.7956	50915.53	3.4080	3.4080	-1.3250	26.50	0.80	-1.500			
0.7995	51167.72	3.4050	3.4049	-1.2837	26.51	0.81	-1.500			
0.8033	51410.80	3.4020	3.4021	-1.2384	26.53	0.83	-1.500			
0.8070	51645.04	3.3990	3.3989	-1.1918	26.54	0.84	-1.500			
0.8105	51869.08	3.3960	3.3959	-1.1449	26.56	0.86	-1.500			
0.8138	52081.13	3.3930	3.3931	-1.0918	26.57	0.87	-1.500			
0.8170	52285.60	3.3900	3.3900	-1.0475	26.59	0.89	-1.500			
0.8201	52485.29	3.3870	3.3870	-1.0140	26.60	0.90	-1.500			
0.8230	52674.99	3.3840	3.3839	-0.9709	26.61	0.91	-1.500			
0.8259	52857.62	3.3810	3.3810	-0.9333	26.63	0.93	-1.500			
0.8286	53033.09	3.3780	3.3779	-0.8942	26.64	0.94	-1.500			
0.8312	53199.37	3.3750	3.3751	-0.8579	26.65	0.95	-1.500			
0.8338	53360.86	3.3720	3.3720	-0.8251	26.66	0.96	-1.500			
0.8362	53513.94	3.3690	3.3690	-0.7935	26.67	0.97	-1.500			
0.8385	53663.22	3.3660	3.3660	-0.7643	26.68	0.98	-1.500			
0.8408	53808.18	3.3630	3.3629	-0.7388	26.69	0.99	-1.500			
0.8429	53947.51	3.3600	3.3600	-0.7137	26.70	1.00	-1.500			
0.8450	54082.14	3.3570	3.3571	-0.6902	26.71	1.01	-1.500			
0.8470	54210.76	3.3540	3.3539	-0.6703	26.72	1.02	-1.500			
0.8490	54338.07	3.3510	3.3509	-0.6525	26.72	1.02	-1.500			
0.8510	54461.09	3.3480	3.3479	-0.6286	26.73	1.03	-1.500			
0.8528	54580.01	3.3450	3.3451	-0.6092	26.74	1.04	-1.500			
0.8546	54696.49	3.3420	3.3421	-0.5896	26.74	1.04	-1.500			
0.8564	54807.14	3.3390	3.3389	-0.5680	26.75	1.05	-1.500			
0.8580	54912.82	3.3360	3.3359	-0.5466	26.76	1.06	-1.500			
0.8596	55015.64	3.3330	3.3331	-0.5278	26.76	1.06	-1.500			
0.8612	55115.18	3.3300	3.3300	-0.5107	26.77	1.07	-1.500			
0.8627	55212.34	3.3270	3.3270	-0.4973	26.78	1.08	-1.500			
0.8641	55305.50	3.3240	3.3240	-0.4791	26.79	1.09	-1.500			
0.8656	55395.68	3.3210	3.3209	-0.4653	26.79	1.09	-1.500			
0.8669	55483.38	3.3180	3.3181	-0.4521	26.80	1.10	-1.500			
0.8682	55567.98	3.3150	3.3150	-0.4411	26.81	1.11	-1.500			
0.8696	55652.12	3.3120	3.3120	-0.4281	26.81	1.11	-1.500			
0.8708	55733.37	3.3090	3.3090	-0.4149	26.82	1.12	-1.500			
0.8721	55812.31	3.3060	3.3061	-0.3989	26.83	1.13	-1.500			
0.8733	55888.50	3.3030	3.3030	-0.3847	26.83	1.13	-1.500			
0.8744	55959.84	3.3000	3.3000	-0.3702	26.84	1.14	-1.500			
0.8754	56028.08	3.2970	3.2971	-0.3570	26.84	1.14	-1.500			
0.8765	56094.84	3.2940	3.2939	-0.3468	26.85	1.15	-1.500			
0.8775	56160.66	3.2910	3.2909	-0.3385	26.85	1.15	-1.500			
0.8785	56224.09	3.2880	3.2880	-0.3293	26.85	1.15	-1.500			
0.8795	56287.79	3.2850	3.2851	-0.3226	26.86	1.16	-1.500			
0.8805	56349.50	3.2820	3.2820	-0.3136	26.86	1.16	-1.500			
0.8814	56408.68	3.2790	3.2789	-0.3027	26.87	1.17	-1.500			
0.8823	56465.53	3.2760	3.2761	-0.2922	26.88	1.18	-1.500			
0.8831	56520.28	3.2730	3.2731	-0.2834	26.88	1.18	-1.500			
0.8840	56574.15	3.2700	3.2699	-0.2741	26.89	1.19	-1.500			
0.8848	56625.29	3.2670	3.2670	-0.2660	26.89	1.19	-1.500			
0.8855	56675.03	3.2640	3.2640	-0.2591	26.90	1.20	-1.500			
0.8863	56724.15	3.2610	3.2611	-0.2518	26.90	1.20	-1.500			
0.8871	56772.04	3.2580	3.2579	-0.2461	26.91	1.21	-1.500			
0.8878	56818.69	3.2550	3.2551	-0.2397	26.91	1.21	-1.500			
0.8885	56864.11	3.2520	3.2522	-0.2335	26.91	1.21	-1.500			
0.8892	56908.21	3.2490	3.2490	-0.2280	26.92	1.22	-1.500			
0.8899	56951.94	3.2460	3.2461	-0.2222	26.92	1.22	-1.500			
0.8905	56993.14	3.2430	3.2430	-0.2159	26.93	1.23	-1.500			
0.8912	57033.97	3.2400	3.2401	-0.2110	26.93	1.23	-1.500			
0.8918	57074.32	3.2370	3.2370	-0.2064	26.93	1.23	-1.500			
0.8924	57113.24	3.2340	3.2339	-0.2006	26.94	1.24	-1.500			
0.8930	57151.06	3.2310	3.2311	-0.1966	26.94	1.24	-1.500			
0.8936	57188.41	3.2280	3.2280	-0.1925	26.95	1.25	-1.500			
0.8941	57224.55	3.2250	3.2250	-0.1895	26.95	1.25	-1.500			
0.8947	57260.98	3.2220	3.2219	-0.1861	26.95	1.25	-1.500			
0.8952	57295.88	3.2190	3.2190	-0.1820	26.96	1.26	-1.500			
0.8958	57330.90	3.2160	3.2161	-0.1786	26.96	1.26	-1.500			
0.8963	57365.25	3.2130	3.2130	-0.1757	26.96	1.26	-1.500			
0.8969	57398.87	3.2100	3.2099	-0.1723	26.97	1.27	-1.500			
0.8974	57430.96	3.2070	3.2072	-0.1685	26.97	1.27	-1.500			
0.8979	57462.62	3.2040	3.2040	-0.1654	26.98	1.28	-1.500			
0.8983	57494.19	3.2010	3.2010	-0.1636	26.98	1.28	-1.500			
0.8988	57525.51	3.1980	3.1979	-0.1612	26.98	1.28	-1.500			
0.8993	57556.02	3.1950	3.1951	-0.1586	26.99	1.29	-1.500			
0.8998	57586.76	3.1920	3.1920	-0.1571	26.99	1.29	-1.500			
0.9003	57616.65	3.1890	3.1891	-0.1542	26.99	1.29	-1.500			
0.9007	57645.77	3.1860	3.1860	-0.1532	27.00	1.30	-1.500			
0.9012	57674.89	3.1830	3.1830	-0.1505	27.00	1.30	-1.500			
0.9016	57703.82	3.1800	3.1799	-0.1481	27.01	1.31	-1.500			
0.9021	57732.04	3.1770	3.1769	-0.1459	27.01	1.31	-1.500			
0.9025	57759.96	3.1740	3.1742	-0.1446	27.01	1.31	-1.500			
0.9029	57787.57	3.1710	3.1710	-0.1423	27.02	1.32	-1.500			
0.9034	57814.79	3.1680	3.1679	-0.1401	27.02	1.32	-1.500			
0.9038	57841.26	3.1650	3.1649	-0.1389	27.02	1.32	-1.500			
0.9042	57867.28	3.1620	3.1621	-0.1365	27.03	1.33	-1.500			
0.9046	57893.71	3.1590	3.1589	-0.1356	27.03	1.33	-1.500			
0.9050	57919.79	3.1560	3.1560	-0.1344	27.03	1.33	-1.500			
0.9054	57945.25	3.1530	3.1531	-0.1330	27.04	1.34	-1.500			
0.9058	57970.39	3.1500	3.1501	-0.1313	27.04	1.34	-1.500			
0.9062	57995.68	3.1470	3.1469	-0.1302	27.05	1.35	-1.500			
0.9066	58020.52	3.1440	3.1439	-0.1286	27.05	1.35	-1.500			
0.9069	58044.78	3.1410	3.1411	-0.1272	27.05	1.35	-1.500			
0.9073	58069.25	3.1380	3.1380	-0.1264	27.06	1.36	-1.500			
0.9077	58093.34	3.1350	3.1350	-0.1257	27.06	1.36	-1.500			
0.9081	58117.34	3.1320	3.1319	-0.1248	27.07	1.37	-1.500			
0.9085	58141.21	3.1290	3.1290	-0.1233	27.07	1.37	-1.500			
0.9088	58164.79	3.1260	3.1259	-0.1223	27.07	1.37	-1.500			
0.9092	58188.25	3.1230	3.1231	-0.1218	27.08	1.38	-1.500			
0.9096	58211.55	3.1200	3.1200	-0.1208	27.08	1.38	-1.500			
0.9099	58234.73	3.1170	3.1170	-0.1194	27.08	1.38	-1.500			
0.9103	58257.53	3.1140	3.1138	-0.1181	27.09	1.39	-1.500			
0.9106	58279.80	3.1110	3.1111	-0.1176	27.09	1.39	-1.500			
0.9110	58302.35	3.1080	3.1081	-0.1172	27.10	1.40	-1.500			
0.9113	58325.00	3.1050	3.1050	-0.1162	27.10	1.40	-1.500			
0.9117	58347.22	3.1020	3.1018	-0.1152	27.10	1.40	-1.500			
0.9120	58369.05	3.0990	3.0991	-0.1145	27.11	1.41	-1.500			
0.9124	58390.99	3.0960	3.0961	-0.1140	27.11	1.41	-1.500			
0.9127	58413.13	3.0930	3.0929	-0.1134	27.11	1.41	-1.500			
0.9130	58434.62	3.0900	3.0900	-0.1126	27.12	1.42	-1.500			
0.9134	58455.88	3.0870	3.0870	-0.1113	27.12	1.42	-1.500			
0.9137	58477.33	3.0840	3.0841	-0.1107	27.12	1.42	-1.500			
0.9140	58498.70	3.0810	3.0810	-0.1103	27.13	1.43	-1.500			
0.9144	58519.72	3.0780	3.0779	-0.1097	27.13	1.43	-1.500			
0.9147	58540.55	3.0750	3.0751	-0.1087	27.13	1.43	-1.500			
0.9150	58561.38	3.0720	3.0721	-0.1082	27.14	1.44	-1.500			
0.9153	58582.20	3.0690	3.0690	-0.1079	27.14	1.44	-1.500			
0.9157	58602.85	3.0660	3.0659	-0.1073	27.14	1.44	-1.500			
0.9160	58623.28	3.0630	3.0630	-0.1065	27.15	1.45	-1.500			
0.9163	58643.78	3.0600	3.0600	-0.1058	27.15	1.45	-1.500			
0.9166	58664.19	3.0570	3.0570	-0.1054	27.15	1.45	-1.500			
0.9169	58684.24	3.0540	3.0540	-0.1048	27.16	1.46	-1.500			
0.9173	58704.24	3.0510	3.0509	-0.1041	27.16	1.46	-1.500			
0.9176	58724.17	3.0480	3.0481	-0.1035	27.16	1.46	-1.500			
0.9179	58743.92	3.0450	3.0450	-0.1029	27.17	1.47	-1.500			
0.9182	58763.57	3.0420	3.0420	-0.1027	27.17	1.47	-1.500			
0.9185	58783.18	3.0390	3.0391	-0.1023	27.17	1.47	-1.500			
0.9188	58802.94	3.0360	3.0359	-0.1017	27.18	1.48	-1.500			
0.9191	58822.56	3.0330	3.0329	-0.1014	27.18	1.48	-1.500			
0.9194	58841.98	3.0300	3.0300	-0.1007	27.18	1.48	-1.500			
0.9197	58861.28	3.0270	3.0270	-0.1000	27.19	1.49	-1.500			
0.9200	58880.47	3.0240	3.0241	-0.0990	27.19	1.49	-1.500			
0.9203	58899.54	3.0210	3.0210	-0.0983	27.19	1.49	-1.500			
0.9206	58918.06	3.0180	3.0180	-0.0979	27.20	1.50	-1.500			
0.9209	58936.54	3.0150	3.0150	-0.0969	27.20	1.50	-1.500			
0.9212	58955.13	3.0120	3.0120	-0.0967	27.20	1.50	-1.500			
0.9215	58973.55	3.0090	3.0089	-0.0966	27.21	1.51	-1.500			
0.9218	58992.11	3.0060	3.0060	-0.0967	27.21	1.51	-1.500			
0.9220	59010.70	3.0030	3.0030	-0.0997	27.21	1.51	-1.500			
