Ah_balance (normalized)	Ah_balance (mAh)	Voltage - fit (V)	Voltage -  interpolate (V)	dQ/dV (1/V)	Temperature (°C)	Temperature - diff (°C)	Current (C)	R_DC 0ms (mOhm)	R_DC 50ms (mOhm)	R_DC 50 ms PEC (mOhm)
0.2891	18499.94	3.9710	3.9710	0.8676	27.17	1.19	1.500			
0.2917	18668.27	3.9680	3.9680	0.8784	27.17	1.19	1.500			
0.2944	18838.92	3.9650	3.9649	0.8810	27.16	1.18	1.500			
0.2970	19007.48	3.9620	3.9620	0.8842	27.16	1.18	1.500			
0.2997	19177.82	3.9590	3.9591	0.8902	27.15	1.17	1.500			
0.3023	19348.71	3.9560	3.9560	0.8879	27.15	1.17	1.500			
0.3050	19519.33	3.9530	3.9530	0.8875	27.15	1.17	1.500			
0.3076	19689.14	3.9500	3.9500	0.8909	27.14	1.16	1.500			
0.3103	19860.89	3.9470	3.9471	0.8937	27.14	1.16	1.500			
0.3130	20032.02	3.9440	3.9440	0.9020	27.13	1.15	1.500			
0.3157	20204.70	3.9410	3.9410	0.9026	27.13	1.15	1.500			
0.3184	20379.35	3.9380	3.9380	0.9075	27.12	1.14	1.500			
0.3212	20555.43	3.9350	3.9350	0.9137	27.12	1.14	1.500			
0.3239	20730.17	3.9320	3.9320	0.9170	27.12	1.14	1.500			
0.3267	20906.61	3.9290	3.9290	0.9189	27.11	1.13	1.500			
0.3294	21082.66	3.9260	3.9260	0.9244	27.11	1.13	1.500			
0.3322	21258.26	3.9230	3.9230	0.9339	27.10	1.12	1.500			
0.3350	21439.76	3.9200	3.9200	0.9445	27.10	1.12	1.500			
0.3378	21621.80	3.9170	3.9170	0.9540	27.09	1.11	1.500			
0.3407	21806.98	3.9140	3.9140	0.9610	27.09	1.11	1.500			
0.3436	21992.70	3.9110	3.9111	0.9661	27.08	1.10	1.500			
0.3465	22179.10	3.9080	3.9080	0.9742	27.08	1.10	1.500			
0.3495	22365.87	3.9050	3.9051	0.9785	27.07	1.09	1.500			
0.3524	22552.80	3.9020	3.9019	0.9834	27.07	1.09	1.500			
0.3554	22742.90	3.8990	3.8990	0.9886	27.06	1.08	1.500			
0.3583	22932.42	3.8960	3.8960	0.9930	27.05	1.07	1.500			
0.3613	23124.23	3.8930	3.8930	1.0064	27.05	1.07	1.500			
0.3643	23317.40	3.8900	3.8899	1.0151	27.04	1.06	1.500			
0.3674	23511.76	3.8870	3.8870	1.0216	27.04	1.06	1.500			
0.3705	23709.32	3.8840	3.8841	1.0356	27.03	1.05	1.500			
0.3736	23910.05	3.8810	3.8810	1.0480	27.03	1.05	1.500			
0.3768	24113.88	3.8780	3.8779	1.0601	27.03	1.05	1.500			
0.3799	24316.73	3.8750	3.8750	1.0664	27.02	1.04	1.500			
0.3831	24520.72	3.8720	3.8721	1.0792	27.02	1.04	1.500			
0.3864	24729.98	3.8690	3.8690	1.0912	27.01	1.03	1.500			
0.3897	24940.82	3.8660	3.8659	1.1053	27.01	1.03	1.500			
0.3930	25153.05	3.8630	3.8630	1.1171	27.00	1.02	1.500			
0.3964	25369.12	3.8600	3.8601	1.1326	26.99	1.01	1.500			
0.3998	25588.55	3.8570	3.8570	1.1489	26.98	1.00	1.500			
0.4033	25809.85	3.8540	3.8540	1.1597	26.97	0.99	1.500			
0.4068	26034.07	3.8510	3.8510	1.1745	26.96	0.98	1.500			
0.4103	26260.60	3.8480	3.8480	1.1971	26.95	0.97	1.500			
0.4139	26490.52	3.8450	3.8450	1.2197	26.94	0.96	1.500			
0.4176	26727.44	3.8420	3.8420	1.2398	26.93	0.95	1.500			
0.4214	26968.14	3.8390	3.8390	1.2609	26.93	0.95	1.500			
0.4252	27214.00	3.8360	3.8360	1.2831	26.92	0.94	1.500			
0.4291	27460.65	3.8330	3.8331	1.3092	26.91	0.93	1.500			
0.4330	27714.22	3.8300	3.8299	1.3276	26.90	0.92	1.500			
0.4370	27969.08	3.8270	3.8270	1.3527	26.90	0.92	1.500			
0.4411	28228.87	3.8240	3.8240	1.3834	26.89	0.91	1.500			
0.4453	28499.17	3.8210	3.8211	1.4154	26.88	0.90	1.500			
0.4496	28775.68	3.8180	3.8180	1.4434	26.86	0.88	1.500			
0.4540	29055.14	3.8150	3.8150	1.4739	26.85	0.87	1.500			
0.4584	29339.35	3.8120	3.8120	1.5132	26.84	0.86	1.500			
0.4630	29632.91	3.8090	3.8090	1.5562	26.83	0.85	1.500			
0.4677	29934.27	3.8060	3.8060	1.5897	26.81	0.83	1.500			
0.4725	30242.60	3.8030	3.8031	1.6295	26.80	0.82	1.500			
0.4775	30561.53	3.8000	3.8000	1.6742	26.79	0.81	1.500			
0.4826	30887.40	3.7970	3.7969	1.7187	26.78	0.80	1.500			
0.4878	31220.89	3.7940	3.7940	1.7632	26.77	0.79	1.500			
0.4932	31562.41	3.7910	3.7910	1.8080	26.75	0.77	1.500			
0.4987	31917.20	3.7880	3.7880	1.8504	26.73	0.75	1.500			
0.5043	32275.03	3.7850	3.7850	1.8828	26.71	0.73	1.500			
0.5100	32638.89	3.7820	3.7821	1.9312	26.70	0.72	1.500			
0.5158	33011.17	3.7790	3.7791	1.9831	26.68	0.70	1.500			
0.5219	33401.81	3.7760	3.7759	2.0139	26.66	0.68	1.500			
0.5280	33791.40	3.7730	3.7731	2.0553	26.64	0.66	1.500			
0.5342	34190.61	3.7700	3.7701	2.0847	26.63	0.65	1.500			
0.5404	34588.24	3.7670	3.7669	2.1228	26.61	0.63	1.500			
0.5469	35002.74	3.7640	3.7640	2.1305	26.59	0.61	1.500			
0.5534	35420.45	3.7610	3.7611	2.1536	26.56	0.58	1.500	0.362	0.455	
0.5599	35835.42	3.7580	3.7581	2.1365	26.54	0.56	1.500			
0.5664	36247.38	3.7550	3.7550	2.1173	26.52	0.54	1.500			
0.5726	36648.66	3.7520	3.7520	2.0458	26.50	0.52	1.500			
0.5787	37038.58	3.7490	3.7491	2.0283	26.48	0.50	1.500			
0.5846	37417.33	3.7460	3.7461	2.0128	26.46	0.48	1.500			
0.5907	37802.81	3.7430	3.7430	2.0159	26.44	0.46	1.500			
0.5967	38190.84	3.7400	3.7401	2.0433	26.42	0.44	1.500			
0.6029	38588.58	3.7370	3.7371	2.0531	26.41	0.43	1.500			
0.6091	38982.59	3.7340	3.7340	2.0514	26.39	0.41	1.500			
0.6152	39374.98	3.7310	3.7309	2.0802	26.38	0.40	1.500			
0.6216	39781.21	3.7280	3.7280	2.1151	26.36	0.38	1.500			
0.6279	40186.88	3.7250	3.7250	2.1593	26.35	0.37	1.500			
0.6344	40603.11	3.7220	3.7221	2.2199	26.33	0.35	1.500			
0.6412	41038.00	3.7190	3.7190	2.2968	26.32	0.34	1.500			
0.6482	41486.07	3.7160	3.7161	2.3421	26.30	0.32	1.500			
0.6554	41947.34	3.7130	3.7130	2.4508	26.28	0.30	1.500			
0.6628	42418.89	3.7100	3.7099	2.5138	26.27	0.29	1.500			
0.6704	42903.51	3.7070	3.7071	2.6232	26.25	0.27	1.500			
0.6784	43415.38	3.7040	3.7040	2.6759	26.24	0.26	1.500			
0.6865	43935.38	3.7010	3.7010	2.7205	26.23	0.25	1.500			
0.6948	44466.54	3.6980	3.6981	2.7257	26.21	0.23	1.500			
0.7032	45004.55	3.6950	3.6950	2.7182	26.20	0.22	1.500			
0.7109	45498.78	3.6920	3.6920	2.5194	26.19	0.21	1.500			
0.7183	45969.86	3.6890	3.6890	2.3235	26.18	0.20	1.500			
0.7250	46403.15	3.6860	3.6861	2.1450	26.17	0.19	1.500			
0.7311	46787.79	3.6830	3.6830	1.9528	26.16	0.18	1.500			
0.7365	47132.90	3.6800	3.6801	1.7827	26.15	0.17	1.500			
0.7416	47462.37	3.6770	3.6769	1.6762	26.15	0.17	1.500			
0.7464	47768.33	3.6740	3.6741	1.5782	26.14	0.16	1.500			
0.7510	48062.18	3.6710	3.6710	1.4876	26.13	0.15	1.500			
0.7553	48337.86	3.6680	3.6679	1.4189	26.13	0.15	1.500			
0.7594	48599.50	3.6650	3.6651	1.3497	26.12	0.14	1.500			
0.7632	48847.64	3.6620	3.6620	1.3065	26.11	0.13	1.500			
0.7671	49092.77	3.6590	3.6589	1.2783	26.11	0.13	1.500			
0.7708	49329.55	3.6560	3.6560	1.2561	26.10	0.12	1.500			
0.7745	49567.96	3.6530	3.6530	1.2571	26.09	0.11	1.500			
0.7783	49810.86	3.6500	3.6500	1.2611	26.08	0.10	1.500			
0.7820	50049.66	3.6470	3.6470	1.2713	26.08	0.10	1.500			
0.7858	50293.46	3.6440	3.6440	1.2870	26.07	0.09	1.500			
0.7897	50542.12	3.6410	3.6410	1.3037	26.06	0.08	1.500			
0.7937	50794.98	3.6380	3.6379	1.3153	26.05	0.07	1.500			
0.7977	51050.77	3.6350	3.6351	1.3220	26.04	0.06	1.500			
0.8017	51308.84	3.6320	3.6320	1.3191	26.04	0.06	1.500			
0.8057	51563.73	3.6290	3.6290	1.3166	26.03	0.05	1.500			
0.8096	51813.65	3.6260	3.6260	1.3080	26.02	0.04	1.500			
0.8135	52062.43	3.6230	3.6230	1.3000	26.01	0.03	1.500			
0.8174	52310.63	3.6200	3.6200	1.2982	26.01	0.03	1.500			
0.8212	52559.46	3.6170	3.6170	1.2997	26.00	0.02	1.500			
0.8252	52810.18	3.6140	3.6140	1.2926	26.00	0.02	1.500			
0.8291	53059.91	3.6110	3.6110	1.2939	25.99	0.01	1.500			
0.8329	53307.11	3.6080	3.6080	1.2839	25.99	0.01	1.500			
0.8368	53553.90	3.6050	3.6050	1.2741	25.98	0.00	1.500			
0.8406	53798.47	3.6020	3.6020	1.2610	25.98	-0.00	1.500			
0.8444	54039.25	3.5990	3.5990	1.2431	25.97	-0.01	1.500			
0.8481	54276.01	3.5960	3.5960	1.2282	25.97	-0.01	1.500			
0.8517	54510.98	3.5930	3.5930	1.2131	25.96	-0.02	1.500			
0.8553	54740.98	3.5900	3.5900	1.1980	25.96	-0.02	1.500			
0.8589	54968.30	3.5870	3.5870	1.1898	25.95	-0.03	1.500			
0.8624	55194.33	3.5840	3.5840	1.1882	25.94	-0.04	1.500			
0.8660	55421.73	3.5810	3.5810	1.1868	25.94	-0.04	1.500			
0.8696	55652.93	3.5780	3.5779	1.1672	25.95	-0.03	1.500			
0.8732	55882.28	3.5750	3.5749	1.1345	25.95	-0.03	1.500			
0.8767	56106.98	3.5720	3.5720	1.0479	25.96	-0.02	1.500			
0.8798	56309.93	3.5690	3.5692	0.9450	25.96	-0.02	1.500			
0.8826	56488.52	3.5660	3.5661	0.8198	25.97	-0.01	1.500			
0.8849	56631.59	3.5630	3.5630	0.6784	25.97	-0.01	1.500			
0.8866	56739.72	3.5600	3.5600	0.5499	25.97	-0.01	1.500			
0.8879	56828.39	3.5570	3.5569	0.4428	25.98	-0.00	1.500			
0.8890	56895.87	3.5540	3.5539	0.3593	25.98	-0.00	1.500			
0.8899	56954.92	3.5510	3.5508	0.3060	25.98	-0.00	1.500			
0.8907	57003.97	3.5480	3.5479	0.2613	25.98	0.00	1.500			
0.8914	57048.54	3.5450	3.5450	0.2301	25.98	0.00	1.500			
0.8920	57088.06	3.5420	3.5419	0.2022	25.98	0.00	1.500			
0.8926	57123.96	3.5390	3.5390	0.1828	25.98	0.00	1.500			
0.8931	57155.90	3.5360	3.5360	0.1637	25.98	0.00	1.500			
0.8935	57185.48	3.5330	3.5331	0.1469	25.99	0.01	1.500			
0.8939	57211.98	3.5300	3.5300	0.1324	25.99	0.01	1.500			
0.8943	57235.79	3.5270	3.5270	0.1173	25.99	0.01	1.500			
0.8946	57256.66	3.5240	3.5240	0.1025	25.99	0.01	1.500			
0.8949	57275.01	3.5210	3.5211	0.0885	25.99	0.01	1.500			
0.8952	57290.65	3.5180	3.5182	0.0744	25.99	0.01	1.500			
0.8954	57303.59	3.5150	3.5155	0.0604	25.99	0.01	1.500			
0.8955	57313.84	3.5120	3.5126	0.0463	25.99	0.01	1.500			
