Ah_balance (normalized)	Ah_balance (mAh)	Voltage - fit (V)	Voltage -  interpolate (V)	dQ/dV (1/V)	Temperature (°C)	Temperature - diff (°C)	Current (C)	R_DC 0ms (mOhm)	R_DC 50ms (mOhm)	R_DC 50 ms PEC (mOhm)
0.2827	18093.98	3.9900	3.9901	0.8012	27.30	1.34	1.500			
0.2852	18252.12	3.9870	3.9870	0.8303	27.30	1.34	1.500			
0.2877	18415.87	3.9840	3.9839	0.8446	27.29	1.33	1.500			
0.2903	18580.28	3.9810	3.9810	0.8471	27.29	1.33	1.500			
0.2929	18745.25	3.9780	3.9781	0.8560	27.28	1.32	1.500			
0.2955	18909.82	3.9750	3.9750	0.8571	27.28	1.32	1.500			
0.2980	19073.81	3.9720	3.9719	0.8550	27.27	1.31	1.500			
0.3006	19237.43	3.9690	3.9689	0.8550	27.27	1.31	1.500			
0.3031	19401.43	3.9660	3.9661	0.8574	27.26	1.30	1.500			
0.3057	19565.95	3.9630	3.9631	0.8638	27.26	1.30	1.500			
0.3083	19732.47	3.9600	3.9599	0.8653	27.25	1.29	1.500			
0.3109	19899.07	3.9570	3.9569	0.8738	27.25	1.29	1.500			
0.3136	20067.91	3.9540	3.9540	0.8722	27.24	1.28	1.500			
0.3162	20235.85	3.9510	3.9511	0.8760	27.24	1.28	1.500			
0.3188	20404.38	3.9480	3.9480	0.8821	27.23	1.27	1.500			
0.3215	20573.98	3.9450	3.9450	0.8839	27.22	1.26	1.500			
0.3241	20742.50	3.9420	3.9419	0.8851	27.22	1.26	1.500			
0.3268	20913.62	3.9390	3.9390	0.8914	27.21	1.25	1.500			
0.3295	21084.95	3.9360	3.9361	0.8991	27.20	1.24	1.500			
0.3322	21260.30	3.9330	3.9330	0.9077	27.20	1.24	1.500			
0.3349	21433.40	3.9300	3.9299	0.9114	27.19	1.23	1.500			
0.3376	21609.19	3.9270	3.9271	0.9171	27.18	1.22	1.500			
0.3404	21786.76	3.9240	3.9240	0.9192	27.17	1.21	1.500			
0.3432	21962.49	3.9210	3.9211	0.9249	27.17	1.21	1.500			
0.3459	22139.62	3.9180	3.9181	0.9314	27.16	1.20	1.500			
0.3487	22318.46	3.9150	3.9148	0.9357	27.15	1.19	1.500			
0.3515	22498.80	3.9120	3.9121	0.9479	27.14	1.18	1.500			
0.3544	22681.63	3.9090	3.9090	0.9569	27.14	1.18	1.500			
0.3573	22868.17	3.9060	3.9060	0.9676	27.13	1.17	1.500			
0.3602	23055.81	3.9030	3.9030	0.9747	27.12	1.16	1.500			
0.3632	23242.12	3.9000	3.9000	0.9762	27.12	1.16	1.500			
0.3661	23431.08	3.8970	3.8970	0.9837	27.11	1.15	1.500			
0.3691	23620.16	3.8940	3.8940	0.9909	27.10	1.14	1.500			
0.3720	23808.85	3.8910	3.8911	0.9999	27.09	1.13	1.500			
0.3750	24001.74	3.8880	3.8881	1.0120	27.09	1.13	1.500			
0.3781	24197.20	3.8850	3.8849	1.0230	27.08	1.12	1.500			
0.3812	24394.34	3.8820	3.8820	1.0364	27.07	1.11	1.500			
0.3843	24596.03	3.8790	3.8790	1.0497	27.06	1.10	1.500			
0.3875	24798.99	3.8760	3.8760	1.0536	27.05	1.09	1.500			
0.3907	25002.16	3.8730	3.8730	1.0633	27.04	1.08	1.500			
0.3939	25206.74	3.8700	3.8700	1.0705	27.03	1.07	1.500			
0.3971	25411.46	3.8670	3.8670	1.0828	27.03	1.07	1.500			
0.4003	25619.20	3.8640	3.8640	1.1002	27.02	1.06	1.500			
0.4036	25831.29	3.8610	3.8610	1.1133	27.00	1.04	1.500			
0.4070	26048.04	3.8580	3.8579	1.1320	26.99	1.03	1.500			
0.4105	26272.60	3.8550	3.8550	1.1426	26.98	1.02	1.500			
0.4139	26490.79	3.8520	3.8520	1.1501	26.97	1.01	1.500			
0.4174	26711.64	3.8490	3.8491	1.1660	26.96	1.00	1.500			
0.4208	26933.80	3.8460	3.8461	1.1834	26.95	0.99	1.500			
0.4244	27158.66	3.8430	3.8428	1.2020	26.94	0.98	1.500			
0.4280	27393.30	3.8400	3.8400	1.2302	26.93	0.97	1.500			
0.4318	27634.19	3.8370	3.8370	1.2541	26.91	0.95	1.500			
0.4356	27879.50	3.8340	3.8340	1.2755	26.90	0.94	1.500			
0.4395	28126.07	3.8310	3.8311	1.2856	26.89	0.93	1.500			
0.4434	28374.83	3.8280	3.8280	1.3038	26.88	0.92	1.500			
0.4472	28622.99	3.8250	3.8250	1.3246	26.87	0.91	1.500			
0.4512	28879.52	3.8220	3.8220	1.3506	26.85	0.89	1.500			
0.4553	29141.10	3.8190	3.8190	1.3715	26.84	0.88	1.500			
0.4595	29409.67	3.8160	3.8159	1.3896	26.83	0.87	1.500			
0.4637	29678.19	3.8130	3.8131	1.4118	26.81	0.85	1.500			
0.4680	29949.99	3.8100	3.8100	1.4355	26.80	0.84	1.500			
0.4723	30226.28	3.8070	3.8069	1.4595	26.79	0.83	1.500			
0.4766	30505.51	3.8040	3.8040	1.4857	26.77	0.81	1.500			
0.4812	30795.93	3.8010	3.8010	1.5210	26.76	0.80	1.500			
0.4858	31094.17	3.7980	3.7980	1.5393	26.75	0.79	1.500			
0.4905	31390.07	3.7950	3.7951	1.5630	26.73	0.77	1.500			
0.4952	31691.28	3.7920	3.7921	1.6027	26.72	0.76	1.500			
0.5000	32001.45	3.7890	3.7890	1.6375	26.71	0.75	1.500			
0.5050	32320.81	3.7860	3.7860	1.6464	26.69	0.73	1.500	0.349	0.485	
0.5101	32646.76	3.7830	3.7830	1.6630	26.68	0.72	1.500			
0.5151	32965.16	3.7800	3.7801	1.6469	26.66	0.70	1.500			
0.5199	33275.06	3.7770	3.7770	1.6617	26.65	0.69	1.500			
0.5249	33593.41	3.7740	3.7740	1.6772	26.64	0.68	1.500			
0.5300	33917.45	3.7710	3.7711	1.7001	26.62	0.66	1.500			
0.5352	34252.47	3.7680	3.7680	1.7008	26.60	0.64	1.500			
0.5403	34576.45	3.7650	3.7650	1.6881	26.59	0.63	1.500			
0.5453	34899.83	3.7620	3.7619	1.7003	26.57	0.61	1.500			
0.5504	35223.40	3.7590	3.7590	1.7125	26.56	0.60	1.500			
0.5555	35553.86	3.7560	3.7560	1.7265	26.54	0.58	1.500			
0.5608	35890.96	3.7530	3.7530	1.7328	26.52	0.56	1.500			
0.5660	36220.92	3.7500	3.7500	1.7676	26.51	0.55	1.500			
0.5713	36564.27	3.7470	3.7470	1.7972	26.49	0.53	1.500			
0.5768	36913.18	3.7440	3.7441	1.8300	26.47	0.51	1.500			
0.5824	37270.56	3.7410	3.7410	1.8565	26.46	0.50	1.500			
0.5879	37628.37	3.7380	3.7380	1.8916	26.45	0.49	1.500			
0.5935	37986.38	3.7350	3.7350	1.9402	26.43	0.47	1.500			
0.5995	38365.22	3.7320	3.7319	2.0199	26.42	0.46	1.500			
0.6057	38766.71	3.7290	3.7290	2.0758	26.40	0.44	1.500			
0.6121	39173.63	3.7260	3.7260	2.1244	26.38	0.42	1.500			
0.6185	39583.46	3.7230	3.7231	2.1744	26.36	0.40	1.500			
0.6250	40002.73	3.7200	3.7200	2.2244	26.35	0.39	1.500			
0.6318	40434.27	3.7170	3.7170	2.2975	26.33	0.37	1.500			
0.6389	40888.29	3.7140	3.7140	2.3130	26.31	0.35	1.500			
0.6458	41333.04	3.7110	3.7110	2.3077	26.29	0.33	1.500			
0.6529	41785.51	3.7080	3.7079	2.2484	26.27	0.31	1.500			
0.6595	42210.34	3.7050	3.7050	2.1160	26.25	0.29	1.500			
0.6656	42600.75	3.7020	3.7021	1.9880	26.24	0.28	1.500			
0.6713	42965.16	3.6990	3.6989	1.8462	26.23	0.27	1.500			
0.6766	43299.38	3.6960	3.6960	1.7148	26.21	0.25	1.500			
0.6816	43619.29	3.6930	3.6931	1.6281	26.20	0.24	1.500			
0.6863	43923.19	3.6900	3.6899	1.5518	26.19	0.23	1.500			
0.6908	44210.60	3.6870	3.6870	1.4734	26.18	0.22	1.500			
0.6951	44485.41	3.6840	3.6840	1.4129	26.17	0.21	1.500			
0.6992	44747.74	3.6810	3.6810	1.3653	26.16	0.20	1.500			
0.7032	45004.10	3.6780	3.6780	1.3279	26.15	0.19	1.500			
0.7070	45250.03	3.6750	3.6750	1.2971	26.14	0.18	1.500			
0.7109	45497.24	3.6720	3.6719	1.2758	26.13	0.17	1.500			
0.7147	45738.19	3.6690	3.6690	1.2667	26.12	0.16	1.500			
0.7184	45980.42	3.6660	3.6661	1.2622	26.11	0.15	1.500			
0.7222	46221.36	3.6630	3.6629	1.2595	26.09	0.13	1.500			
0.7260	46463.28	3.6600	3.6600	1.2565	26.08	0.12	1.500			
0.7297	46702.69	3.6570	3.6570	1.2554	26.07	0.11	1.500			
0.7335	46944.53	3.6540	3.6540	1.2543	26.06	0.10	1.500			
0.7373	47189.18	3.6510	3.6510	1.2505	26.05	0.09	1.500			
0.7411	47427.39	3.6480	3.6480	1.2357	26.04	0.08	1.500			
0.7448	47664.87	3.6450	3.6451	1.2241	26.03	0.07	1.500			
0.7484	47898.47	3.6420	3.6420	1.2103	26.02	0.06	1.500			
0.7520	48129.23	3.6390	3.6390	1.2001	26.01	0.05	1.500			
0.7556	48357.08	3.6360	3.6360	1.1882	26.01	0.05	1.500			
0.7591	48583.61	3.6330	3.6330	1.1801	26.00	0.04	1.500			
0.7627	48810.46	3.6300	3.6300	1.1708	25.99	0.03	1.500			
0.7662	49034.22	3.6270	3.6270	1.1601	25.99	0.03	1.500			
0.7697	49257.92	3.6240	3.6240	1.1492	25.98	0.02	1.500			
0.7731	49477.40	3.6210	3.6210	1.1332	25.97	0.01	1.500			
0.7765	49693.68	3.6180	3.6180	1.1133	25.97	0.01	1.500			
0.7798	49907.05	3.6150	3.6151	1.0917	25.97	0.01	1.500			
0.7830	50115.10	3.6120	3.6119	1.0688	25.97	0.01	1.500			
0.7862	50318.13	3.6090	3.6090	1.0442	25.97	0.01	1.500			
0.7893	50515.47	3.6060	3.6060	1.0162	25.96	0.00	1.500			
0.7923	50708.47	3.6030	3.6030	0.9880	25.96	0.00	1.500			
0.7953	50896.42	3.6000	3.6000	0.9597	25.96	0.00	1.500			
0.7981	51079.35	3.5970	3.5970	0.9245	25.96	0.00	1.500			
0.8009	51257.28	3.5940	3.5940	0.8830	25.96	-0.00	1.500			
0.8035	51424.85	3.5910	3.5909	0.8192	25.96	-0.00	1.500			
0.8059	51580.11	3.5880	3.5880	0.7515	25.96	-0.00	1.500			
0.8081	51719.03	3.5850	3.5851	0.6695	25.96	-0.00	1.500			
0.8100	51840.22	3.5820	3.5820	0.5842	25.96	-0.00	1.500			
0.8116	51942.18	3.5790	3.5790	0.5007	25.95	-0.01	1.500			
0.8129	52027.81	3.5760	3.5760	0.4263	25.95	-0.01	1.500			
0.8140	52098.23	3.5730	3.5730	0.3645	25.95	-0.01	1.500			
0.8150	52159.72	3.5700	3.5699	0.3153	25.95	-0.01	1.500			
0.8158	52212.41	3.5670	3.5669	0.2682	25.95	-0.01	1.500			
0.8165	52258.33	3.5640	3.5638	0.2374	25.95	-0.01	1.500			
0.8172	52298.53	3.5610	3.5611	0.2109	25.95	-0.01	1.500			
0.8177	52335.86	3.5580	3.5580	0.1912	25.95	-0.01	1.500			
0.8183	52370.35	3.5550	3.5549	0.1717	25.95	-0.01	1.500			
0.8188	52400.63	3.5520	3.5520	0.1549	25.95	-0.01	1.500			
0.8192	52428.08	3.5490	3.5490	0.1383	25.95	-0.01	1.500			
0.8196	52453.38	3.5460	3.5460	0.1237	25.95	-0.01	1.500			
0.8199	52475.71	3.5430	3.5430	0.1090	25.95	-0.01	1.500			
0.8202	52495.22	3.5400	3.5401	0.0943	25.95	-0.01	1.500			
0.8205	52512.13	3.5370	3.5370	0.0797	25.95	-0.01	1.500			
0.8207	52525.99	3.5340	3.5342	0.0647	25.95	-0.01	1.500			
0.8209	52536.99	3.5310	3.5314	0.0495	25.95	-0.01	1.500			
0.8210	52545.05	3.5280	3.5288	0.0344	25.95	-0.01	1.500			
