Ah_balance (normalized)	Ah_balance (mAh)	Voltage - fit (V)	Voltage -  interpolate (V)	dQ/dV (1/V)	Temperature (°C)	Temperature - diff (°C)	Current (C)	R_DC 0ms (mOhm)	R_DC 50ms (mOhm)	R_DC 50 ms PEC (mOhm)
0.2860	18302.59	3.9700	3.9700	0.8932	27.15	1.13	1.500			
0.2887	18476.85	3.9670	3.9670	0.9135	27.15	1.13	1.500			
0.2915	18655.05	3.9640	3.9639	0.9272	27.15	1.13	1.500			
0.2943	18834.70	3.9610	3.9610	0.9342	27.15	1.13	1.500			
0.2971	19016.47	3.9580	3.9580	0.9364	27.15	1.13	1.500			
0.3000	19197.27	3.9550	3.9551	0.9356	27.15	1.13	1.500			
0.3027	19374.68	3.9520	3.9520	0.9413	27.15	1.13	1.500			
0.3056	19555.26	3.9490	3.9488	0.9453	27.15	1.13	1.500			
0.3084	19736.68	3.9460	3.9460	0.9504	27.15	1.13	1.500			
0.3112	19919.32	3.9430	3.9431	0.9597	27.15	1.13	1.500			
0.3142	20107.98	3.9400	3.9400	0.9653	27.15	1.13	1.500			
0.3171	20294.42	3.9370	3.9370	0.9691	27.15	1.13	1.500			
0.3200	20479.06	3.9340	3.9340	0.9734	27.15	1.13	1.500			
0.3229	20664.63	3.9310	3.9310	0.9770	27.15	1.13	1.500			
0.3258	20853.50	3.9280	3.9279	0.9823	27.15	1.13	1.500			
0.3288	21042.16	3.9250	3.9251	0.9870	27.15	1.13	1.500			
0.3318	21232.79	3.9220	3.9221	0.9932	27.15	1.13	1.500			
0.3348	21424.76	3.9190	3.9190	1.0022	27.15	1.13	1.500			
0.3378	21616.73	3.9160	3.9160	1.0065	27.15	1.13	1.500			
0.3408	21809.16	3.9130	3.9130	1.0204	27.15	1.13	1.500			
0.3439	22006.94	3.9100	3.9100	1.0294	27.14	1.12	1.500			
0.3470	22206.14	3.9070	3.9070	1.0400	27.14	1.12	1.500			
0.3501	22408.11	3.9040	3.9040	1.0465	27.14	1.12	1.500			
0.3533	22608.41	3.9010	3.9011	1.0591	27.14	1.12	1.500			
0.3564	22811.34	3.8980	3.8980	1.0734	27.14	1.12	1.500			
0.3597	23020.00	3.8950	3.8949	1.0797	27.14	1.12	1.500			
0.3629	23226.85	3.8920	3.8920	1.0883	27.14	1.12	1.500			
0.3662	23438.34	3.8890	3.8891	1.0997	27.14	1.12	1.500			
0.3696	23651.34	3.8860	3.8860	1.1089	27.13	1.11	1.500			
0.3729	23863.03	3.8830	3.8830	1.1266	27.13	1.11	1.500			
0.3762	24078.27	3.8800	3.8798	1.1424	27.13	1.11	1.500			
0.3797	24298.39	3.8770	3.8770	1.1551	27.13	1.11	1.500			
0.3832	24524.66	3.8740	3.8740	1.1739	27.13	1.11	1.500			
0.3868	24752.20	3.8710	3.8711	1.1912	27.13	1.11	1.500			
0.3904	24983.59	3.8680	3.8679	1.2065	27.12	1.10	1.500			
0.3940	25215.25	3.8650	3.8650	1.2149	27.12	1.10	1.500			
0.3976	25447.37	3.8620	3.8620	1.2318	27.12	1.10	1.500			
0.4013	25685.41	3.8590	3.8591	1.2523	27.11	1.09	1.500			
0.4051	25927.14	3.8560	3.8559	1.2830	27.11	1.09	1.500			
0.4090	26176.16	3.8530	3.8531	1.3027	27.10	1.08	1.500			
0.4129	26428.55	3.8500	3.8500	1.3205	27.10	1.08	1.500			
0.4170	26688.43	3.8470	3.8470	1.3356	27.09	1.07	1.500			
0.4210	26941.63	3.8440	3.8442	1.3640	27.08	1.06	1.500			
0.4251	27203.62	3.8410	3.8410	1.3972	27.07	1.05	1.500			
0.4293	27475.09	3.8380	3.8379	1.4239	27.06	1.04	1.500			
0.4336	27751.08	3.8350	3.8350	1.4551	27.06	1.04	1.500			
0.4381	28039.38	3.8320	3.8320	1.4865	27.05	1.03	1.500			
0.4426	28325.81	3.8290	3.8291	1.5193	27.05	1.03	1.500			
0.4472	28618.97	3.8260	3.8260	1.5451	27.05	1.03	1.500			
0.4518	28915.59	3.8230	3.8231	1.5922	27.04	1.02	1.500			
0.4566	29223.12	3.8200	3.8199	1.6332	27.04	1.02	1.500			
0.4616	29543.56	3.8170	3.8170	1.6828	27.03	1.01	1.500			
0.4667	29870.61	3.8140	3.8141	1.7243	27.02	1.00	1.500			
0.4720	30205.72	3.8110	3.8111	1.7737	27.01	0.99	1.500			
0.4773	30549.71	3.8080	3.8080	1.8118	27.01	0.99	1.500			
0.4828	30902.13	3.8050	3.8050	1.8649	27.00	0.98	1.500			
0.4885	31265.76	3.8020	3.8021	1.9180	26.98	0.96	1.500			
0.4943	31637.18	3.7990	3.7990	1.9754	26.97	0.95	1.500			
0.5003	32017.05	3.7960	3.7961	2.0274	26.96	0.94	1.500			
0.5064	32410.98	3.7930	3.7928	2.1099	26.95	0.93	1.500			
0.5129	32826.18	3.7900	3.7900	2.1566	26.93	0.91	1.500			
0.5195	33245.72	3.7870	3.7871	2.2103	26.92	0.90	1.500			
0.5261	33667.81	3.7840	3.7841	2.2663	26.90	0.88	1.500			
0.5330	34110.45	3.7810	3.7810	2.3279	26.88	0.86	1.500			
0.5401	34564.12	3.7780	3.7781	2.3910	26.87	0.85	1.500			
0.5475	35037.57	3.7750	3.7750	2.4553	26.85	0.83	1.500			
0.5548	35505.95	3.7720	3.7719	2.5437	26.83	0.81	1.500			
0.5626	36006.64	3.7690	3.7689	2.6530	26.81	0.79	1.500	0.369	0.465	
0.5709	36534.83	3.7660	3.7661	2.7342	26.79	0.77	1.500			
0.5792	37068.45	3.7630	3.7630	2.7719	26.76	0.74	1.500			
0.5875	37600.04	3.7600	3.7600	2.7655	26.74	0.72	1.500			
0.5956	38116.12	3.7570	3.7570	2.6865	26.71	0.69	1.500			
0.6035	38621.22	3.7540	3.7540	2.6792	26.69	0.67	1.500			
0.6116	39140.93	3.7510	3.7510	2.6324	26.67	0.65	1.500			
0.6195	39646.64	3.7480	3.7481	2.6025	26.65	0.63	1.500			
0.6274	40150.65	3.7450	3.7450	2.5834	26.63	0.61	1.500			
0.6349	40631.09	3.7420	3.7420	2.4954	26.61	0.59	1.500			
0.6422	41099.96	3.7390	3.7390	2.4617	26.59	0.57	1.500			
0.6496	41572.96	3.7360	3.7361	2.4570	26.58	0.56	1.500			
0.6570	42045.06	3.7330	3.7329	2.4458	26.56	0.54	1.500			
0.6643	42515.17	3.7300	3.7301	2.4065	26.54	0.52	1.500			
0.6715	42978.78	3.7270	3.7271	2.4532	26.52	0.50	1.500			
0.6788	43445.32	3.7240	3.7238	2.4844	26.50	0.48	1.500			
0.6862	43918.25	3.7210	3.7211	2.5332	26.49	0.47	1.500			
0.6940	44414.87	3.7180	3.7181	2.6776	26.47	0.45	1.500			
0.7023	44947.54	3.7150	3.7149	2.7306	26.45	0.43	1.500			
0.7105	45474.22	3.7120	3.7121	2.8683	26.43	0.41	1.500			
0.7193	46032.40	3.7090	3.7088	2.9789	26.42	0.40	1.500			
0.7284	46618.34	3.7060	3.7061	3.0592	26.40	0.38	1.500			
0.7380	47233.30	3.7030	3.7030	3.0819	26.39	0.37	1.500			
0.7470	47808.16	3.7000	3.7001	2.9685	26.37	0.35	1.500			
0.7558	48372.22	3.6970	3.6968	2.7891	26.36	0.34	1.500			
0.7641	48902.62	3.6940	3.6941	2.5900	26.34	0.32	1.500			
0.7716	49382.83	3.6910	3.6910	2.4183	26.32	0.30	1.500			
0.7784	49819.11	3.6880	3.6880	2.1736	26.31	0.29	1.500			
0.7845	50210.64	3.6850	3.6851	1.9650	26.29	0.27	1.500			
0.7901	50566.45	3.6820	3.6820	1.7937	26.29	0.27	1.500			
0.7951	50887.88	3.6790	3.6790	1.6406	26.28	0.26	1.500			
0.7998	51186.15	3.6760	3.6759	1.5297	26.27	0.25	1.500			
0.8040	51458.07	3.6730	3.6730	1.4062	26.26	0.24	1.500			
0.8081	51717.07	3.6700	3.6700	1.3256	26.25	0.23	1.500			
0.8119	51960.76	3.6670	3.6670	1.2542	26.25	0.23	1.500			
0.8155	52191.03	3.6640	3.6641	1.2034	26.24	0.22	1.500			
0.8190	52414.48	3.6610	3.6610	1.1586	26.23	0.21	1.500			
0.8223	52629.23	3.6580	3.6579	1.1242	26.22	0.20	1.500			
0.8256	52838.79	3.6550	3.6550	1.1127	26.21	0.19	1.500			
0.8289	53049.12	3.6520	3.6520	1.1099	26.20	0.18	1.500			
0.8322	53261.02	3.6490	3.6490	1.1180	26.20	0.18	1.500			
0.8356	53476.11	3.6460	3.6460	1.1222	26.19	0.17	1.500			
0.8390	53693.30	3.6430	3.6430	1.1279	26.18	0.16	1.500			
0.8424	53913.11	3.6400	3.6401	1.1269	26.17	0.15	1.500			
0.8458	54132.80	3.6370	3.6370	1.1183	26.16	0.14	1.500			
0.8491	54345.37	3.6340	3.6340	1.1095	26.16	0.14	1.500			
0.8524	54556.24	3.6310	3.6311	1.1001	26.15	0.13	1.500			
0.8557	54765.34	3.6280	3.6279	1.0944	26.14	0.12	1.500			
0.8589	54972.26	3.6250	3.6250	1.1030	26.13	0.11	1.500			
0.8622	55182.91	3.6220	3.6220	1.1144	26.12	0.10	1.500			
0.8656	55398.52	3.6190	3.6189	1.1290	26.12	0.10	1.500			
0.8690	55617.89	3.6160	3.6160	1.1361	26.11	0.09	1.500			
0.8725	55837.31	3.6130	3.6131	1.1506	26.10	0.08	1.500			
0.8760	56060.81	3.6100	3.6100	1.1645	26.09	0.07	1.500			
0.8795	56285.14	3.6070	3.6069	1.1726	26.08	0.06	1.500			
0.8830	56510.63	3.6040	3.6041	1.1756	26.07	0.05	1.500			
0.8865	56737.81	3.6010	3.6010	1.1803	26.07	0.05	1.500			
0.8901	56964.19	3.5980	3.5980	1.1936	26.06	0.04	1.500			
0.8936	57193.54	3.5950	3.5951	1.1955	26.05	0.03	1.500			
0.8972	57421.32	3.5920	3.5920	1.2210	26.04	0.02	1.500			
0.9009	57656.26	3.5890	3.5890	1.2417	26.03	0.01	1.500			
0.9048	57905.19	3.5860	3.5859	1.2423	26.02	0.00	1.500			
0.9086	58151.19	3.5830	3.5829	1.2156	26.01	-0.01	1.500			
0.9125	58402.27	3.5800	3.5800	1.1458	26.00	-0.02	1.500			
0.9160	58623.28	3.5770	3.5772	1.0275	26.00	-0.02	1.500			
0.9191	58823.61	3.5740	3.5741	0.8869	25.99	-0.03	1.500			
0.9215	58973.40	3.5710	3.5710	0.7236	25.98	-0.04	1.500			
0.9232	59085.42	3.5680	3.5681	0.5651	25.98	-0.04	1.500			
0.9246	59173.34	3.5650	3.5649	0.4497	25.97	-0.05	1.500			
0.9256	59240.48	3.5620	3.5620	0.3511	25.97	-0.05	1.500			
0.9265	59297.20	3.5590	3.5589	0.2765	25.97	-0.05	1.500			
0.9272	59340.73	3.5560	3.5560	0.2288	25.97	-0.05	1.500			
0.9278	59376.90	3.5530	3.5529	0.1780	25.97	-0.05	1.500			
0.9282	59406.12	3.5500	3.5498	0.1370	25.97	-0.05	1.500			
0.9286	59428.32	3.5470	3.5470	0.0990	25.97	-0.05	1.500			
0.9288	59443.05	3.5440	3.5444	0.0640	25.96	-0.06	1.500			
0.9289	59452.07	3.5410	3.5418	0.0248	25.96	-0.06	1.500			
