Ah_balance (normalized)	Ah_balance (mAh)	Voltage - fit (V)	Voltage -  interpolate (V)	dQ/dV (1/V)	Temperature (°C)	Temperature - diff (°C)	Current (C)	R_DC 0ms (mOhm)	R_DC 50ms (mOhm)	R_DC 50 ms PEC (mOhm)
0.2678	17141.53	3.9920	3.9920	0.8680	27.39	1.41	1.500			
0.2704	17306.17	3.9890	3.9890	0.8548	27.39	1.41	1.500			
0.2730	17470.29	3.9860	3.9860	0.8525	27.38	1.40	1.500			
0.2755	17633.52	3.9830	3.9831	0.8506	27.37	1.39	1.500			
0.2781	17796.35	3.9800	3.9800	0.8490	27.37	1.39	1.500			
0.2806	17959.22	3.9770	3.9770	0.8523	27.36	1.38	1.500			
0.2832	18122.01	3.9740	3.9740	0.8517	27.36	1.38	1.500			
0.2857	18287.02	3.9710	3.9710	0.8589	27.35	1.37	1.500			
0.2883	18451.04	3.9680	3.9681	0.8632	27.34	1.36	1.500			
0.2909	18617.15	3.9650	3.9650	0.8671	27.34	1.36	1.500			
0.2935	18785.11	3.9620	3.9620	0.8640	27.33	1.35	1.500			
0.2961	18950.18	3.9590	3.9590	0.8722	27.32	1.34	1.500			
0.2987	19117.47	3.9560	3.9559	0.8782	27.32	1.34	1.500			
0.3014	19287.69	3.9530	3.9529	0.8828	27.31	1.33	1.500			
0.3040	19457.16	3.9500	3.9501	0.8878	27.30	1.32	1.500			
0.3067	19628.64	3.9470	3.9471	0.8918	27.30	1.32	1.500			
0.3094	19802.08	3.9440	3.9440	0.8942	27.29	1.31	1.500			
0.3121	19974.63	3.9410	3.9410	0.8982	27.28	1.30	1.500			
0.3147	20143.53	3.9380	3.9380	0.8995	27.27	1.29	1.500			
0.3175	20317.13	3.9350	3.9350	0.9065	27.26	1.28	1.500			
0.3202	20492.67	3.9320	3.9319	0.9124	27.25	1.27	1.500			
0.3229	20667.83	3.9290	3.9291	0.9164	27.24	1.26	1.500			
0.3257	20846.03	3.9260	3.9260	0.9239	27.23	1.25	1.500			
0.3285	21023.89	3.9230	3.9230	0.9281	27.23	1.25	1.500			
0.3313	21200.63	3.9200	3.9200	0.9324	27.22	1.24	1.500			
0.3341	21379.96	3.9170	3.9170	0.9388	27.21	1.23	1.500			
0.3369	21561.35	3.9140	3.9139	0.9472	27.20	1.22	1.500			
0.3398	21744.04	3.9110	3.9110	0.9546	27.19	1.21	1.500			
0.3426	21928.88	3.9080	3.9080	0.9593	27.18	1.20	1.500			
0.3455	22112.72	3.9050	3.9050	0.9662	27.17	1.19	1.500			
0.3484	22299.03	3.9020	3.9020	0.9703	27.16	1.18	1.500			
0.3513	22484.83	3.8990	3.8989	0.9802	27.15	1.17	1.500			
0.3543	22673.25	3.8960	3.8960	0.9923	27.14	1.16	1.500			
0.3573	22866.27	3.8930	3.8930	0.9995	27.14	1.16	1.500			
0.3603	23060.79	3.8900	3.8900	1.0073	27.13	1.15	1.500			
0.3633	23253.77	3.8870	3.8870	1.0133	27.12	1.14	1.500			
0.3664	23450.59	3.8840	3.8841	1.0187	27.12	1.14	1.500			
0.3695	23645.67	3.8810	3.8809	1.0312	27.11	1.13	1.500			
0.3725	23842.95	3.8780	3.8780	1.0403	27.10	1.12	1.500			
0.3757	24043.39	3.8750	3.8750	1.0501	27.09	1.11	1.500			
0.3789	24247.75	3.8720	3.8721	1.0608	27.08	1.10	1.500			
0.3821	24453.32	3.8690	3.8691	1.0728	27.07	1.09	1.500			
0.3853	24658.45	3.8660	3.8660	1.0856	27.06	1.08	1.500			
0.3886	24868.07	3.8630	3.8630	1.1027	27.05	1.07	1.500			
0.3919	25081.01	3.8600	3.8600	1.1061	27.04	1.06	1.500			
0.3952	25294.87	3.8570	3.8570	1.1208	27.02	1.04	1.500			
0.3986	25511.10	3.8540	3.8541	1.1386	27.01	1.03	1.500			
0.4020	25730.44	3.8510	3.8509	1.1554	27.00	1.02	1.500			
0.4055	25952.99	3.8480	3.8479	1.1677	26.99	1.01	1.500			
0.4090	26178.41	3.8450	3.8450	1.1859	26.98	1.00	1.500			
0.4126	26409.36	3.8420	3.8421	1.2009	26.97	0.99	1.500			
0.4163	26643.03	3.8390	3.8390	1.2181	26.95	0.97	1.500			
0.4200	26877.19	3.8360	3.8360	1.2317	26.94	0.96	1.500			
0.4237	27114.25	3.8330	3.8330	1.2495	26.93	0.95	1.500			
0.4274	27354.02	3.8300	3.8299	1.2674	26.92	0.94	1.500			
0.4312	27599.24	3.8270	3.8270	1.2952	26.91	0.93	1.500			
0.4352	27850.35	3.8240	3.8240	1.3177	26.89	0.91	1.500			
0.4392	28107.34	3.8210	3.8210	1.3395	26.88	0.90	1.500			
0.4432	28367.34	3.8180	3.8180	1.3635	26.87	0.89	1.500			
0.4473	28629.92	3.8150	3.8151	1.3880	26.86	0.88	1.500			
0.4515	28898.16	3.8120	3.8119	1.4169	26.84	0.86	1.500			
0.4558	29172.94	3.8090	3.8090	1.4392	26.83	0.85	1.500			
0.4602	29451.71	3.8060	3.8060	1.4598	26.81	0.83	1.500			
0.4646	29736.83	3.8030	3.8030	1.4832	26.80	0.82	1.500			
0.4691	30022.38	3.8000	3.8001	1.5043	26.79	0.81	1.500			
0.4736	30313.42	3.7970	3.7969	1.5258	26.77	0.79	1.500			
0.4782	30606.06	3.7940	3.7940	1.5580	26.76	0.78	1.500			
0.4829	30908.06	3.7910	3.7910	1.5892	26.74	0.76	1.500			
0.4878	31220.73	3.7880	3.7879	1.6162	26.73	0.75	1.500			
0.4927	31532.21	3.7850	3.7850	1.6400	26.71	0.73	1.500	0.342	0.484	
0.4977	31849.76	3.7820	3.7820	1.6541	26.69	0.71	1.500			
0.5027	32170.09	3.7790	3.7789	1.6640	26.68	0.70	1.500			
0.5076	32488.57	3.7760	3.7761	1.6714	26.66	0.68	1.500			
0.5127	32812.08	3.7730	3.7730	1.6853	26.65	0.67	1.500			
0.5178	33136.49	3.7700	3.7700	1.6898	26.63	0.65	1.500			
0.5228	33457.96	3.7670	3.7670	1.7025	26.61	0.63	1.500			
0.5279	33786.12	3.7640	3.7641	1.7091	26.60	0.62	1.500			
0.5331	34116.89	3.7610	3.7610	1.7198	26.58	0.60	1.500			
0.5382	34447.38	3.7580	3.7581	1.7221	26.56	0.58	1.500			
0.5434	34775.73	3.7550	3.7550	1.7387	26.55	0.57	1.500			
0.5486	35110.31	3.7520	3.7520	1.7607	26.53	0.55	1.500			
0.5539	35450.31	3.7490	3.7490	1.7876	26.51	0.53	1.500			
0.5594	35798.57	3.7460	3.7460	1.8178	26.50	0.52	1.500			
0.5649	36151.54	3.7430	3.7430	1.8530	26.48	0.50	1.500			
0.5704	36507.68	3.7400	3.7400	1.8799	26.46	0.48	1.500			
0.5761	36870.12	3.7370	3.7370	1.9271	26.44	0.46	1.500			
0.5820	37246.43	3.7340	3.7339	1.9745	26.42	0.44	1.500			
0.5880	37629.43	3.7310	3.7311	2.0219	26.41	0.43	1.500			
0.5941	38020.54	3.7280	3.7280	2.0714	26.39	0.41	1.500			
0.6004	38422.62	3.7250	3.7249	2.1214	26.37	0.39	1.500			
0.6068	38833.08	3.7220	3.7221	2.1817	26.35	0.37	1.500			
0.6135	39264.75	3.7190	3.7190	2.2281	26.33	0.35	1.500			
0.6203	39697.41	3.7160	3.7160	2.2408	26.32	0.34	1.500			
0.6270	40127.23	3.7130	3.7129	2.2362	26.30	0.32	1.500			
0.6338	40563.07	3.7100	3.7100	2.2027	26.28	0.30	1.500			
0.6404	40983.76	3.7070	3.7070	2.1279	26.27	0.29	1.500			
0.6467	41389.81	3.7040	3.7041	2.0187	26.25	0.27	1.500			
0.6526	41767.09	3.7010	3.7010	1.9016	26.24	0.26	1.500			
0.6580	42113.38	3.6980	3.6981	1.7679	26.23	0.25	1.500			
0.6632	42443.78	3.6950	3.6950	1.6646	26.21	0.23	1.500			
0.6679	42747.25	3.6920	3.6920	1.5773	26.20	0.22	1.500			
0.6725	43042.34	3.6890	3.6890	1.5155	26.19	0.21	1.500			
0.6769	43323.79	3.6860	3.6858	1.4590	26.18	0.20	1.500			
0.6812	43597.76	3.6830	3.6830	1.4110	26.17	0.19	1.500			
0.6854	43863.63	3.6800	3.6800	1.3698	26.16	0.18	1.500			
0.6894	44123.69	3.6770	3.6770	1.3262	26.15	0.17	1.500			
0.6933	44371.44	3.6740	3.6740	1.3027	26.13	0.15	1.500			
0.6971	44617.04	3.6710	3.6710	1.2848	26.12	0.14	1.500			
0.7009	44859.33	3.6680	3.6679	1.2679	26.11	0.13	1.500			
0.7047	45099.76	3.6650	3.6651	1.2667	26.10	0.12	1.500			
0.7085	45341.12	3.6620	3.6620	1.2687	26.09	0.11	1.500			
0.7123	45586.55	3.6590	3.6590	1.2676	26.08	0.10	1.500			
0.7161	45832.06	3.6560	3.6559	1.2697	26.07	0.09	1.500			
0.7199	46074.83	3.6530	3.6531	1.2645	26.06	0.08	1.500			
0.7237	46319.38	3.6500	3.6500	1.2564	26.05	0.07	1.500			
0.7275	46560.97	3.6470	3.6470	1.2471	26.04	0.06	1.500			
0.7312	46797.48	3.6440	3.6440	1.2355	26.03	0.05	1.500			
0.7349	47032.13	3.6410	3.6410	1.2241	26.02	0.04	1.500			
0.7386	47269.25	3.6380	3.6379	1.2090	26.01	0.03	1.500			
0.7422	47497.71	3.6350	3.6350	1.2025	26.00	0.02	1.500			
0.7458	47728.61	3.6320	3.6321	1.1961	26.00	0.02	1.500			
0.7493	47957.39	3.6290	3.6290	1.1905	25.99	0.01	1.500			
0.7529	48185.93	3.6260	3.6261	1.1768	25.98	-0.00	1.500			
0.7564	48410.85	3.6230	3.6231	1.1654	25.98	-0.00	1.500			
0.7599	48635.28	3.6200	3.6200	1.1523	25.97	-0.01	1.500			
0.7634	48856.56	3.6170	3.6170	1.1326	25.97	-0.01	1.500			
0.7667	49071.74	3.6140	3.6140	1.1049	25.97	-0.01	1.500			
0.7700	49281.79	3.6110	3.6110	1.0816	25.97	-0.01	1.500			
0.7732	49486.87	3.6080	3.6081	1.0563	25.96	-0.02	1.500			
0.7764	49688.96	3.6050	3.6049	1.0292	25.96	-0.02	1.500			
0.7794	49883.20	3.6020	3.6020	0.9981	25.96	-0.02	1.500			
0.7824	50073.54	3.5990	3.5990	0.9640	25.96	-0.02	1.500			
0.7853	50258.84	3.5960	3.5960	0.9252	25.97	-0.01	1.500			
0.7881	50435.31	3.5930	3.5929	0.8679	25.97	-0.01	1.500			
0.7906	50598.79	3.5900	3.5900	0.8023	25.97	-0.01	1.500			
0.7930	50750.17	3.5870	3.5871	0.7269	25.97	-0.01	1.500			
0.7950	50883.04	3.5840	3.5840	0.6433	25.97	-0.01	1.500			
0.7968	50997.01	3.5810	3.5811	0.5579	25.98	-0.00	1.500			
0.7983	51094.06	3.5780	3.5780	0.4780	25.98	-0.00	1.500			
0.7996	51174.54	3.5750	3.5750	0.4066	25.98	-0.00	1.500			
0.8007	51243.72	3.5720	3.5719	0.3488	25.98	-0.00	1.500			
0.8016	51301.28	3.5690	3.5690	0.3020	25.98	-0.00	1.500			
0.8024	51353.37	3.5660	3.5659	0.2674	25.98	0.00	1.500			
0.8031	51399.05	3.5630	3.5630	0.2369	25.98	0.00	1.500			
0.8038	51441.84	3.5600	3.5599	0.2136	25.98	0.00	1.500			
0.8044	51479.90	3.5570	3.5570	0.1944	25.98	0.00	1.500			
0.8049	51514.02	3.5540	3.5540	0.1754	25.98	0.00	1.500			
0.8054	51546.31	3.5510	3.5510	0.1604	25.98	0.00	1.500			
0.8059	51575.41	3.5480	3.5480	0.1463	25.98	0.00	1.500			
0.8063	51601.53	3.5450	3.5450	0.1313	25.98	0.00	1.500			
0.8067	51625.67	3.5420	3.5421	0.1176	25.98	0.00	1.500			
0.8070	51646.97	3.5390	3.5389	0.1039	25.98	0.00	1.500			
0.8073	51665.57	3.5360	3.5360	0.0898	25.98	0.00	1.500			
0.8075	51681.45	3.5330	3.5332	0.0758	25.98	0.00	1.500			
0.8077	51695.04	3.5300	3.5303	0.0617	25.98	0.00	1.500			
0.8079	51705.46	3.5270	3.5275	0.0469	25.98	0.00	1.500			
0.8080	51713.05	3.5240	3.5250	0.0321	25.98	0.00	1.500			
