Ah_balance (normalized)	Ah_balance (mAh)	Voltage - fit (V)	Voltage -  interpolate (V)	dQ/dV (1/V)	Temperature (°C)	Temperature - diff (°C)	Current (C)	R_DC 0ms (mOhm)	R_DC 50ms (mOhm)	R_DC 50 ms PEC (mOhm)
0.2157	13805.61	3.9120	3.9118	-0.1030	25.71	-0.01	-1.500			
0.2161	13829.23	3.9090	3.9090	-0.1395	25.71	-0.01	-1.500			
0.2166	13859.33	3.9060	3.9060	-0.1726	25.71	-0.01	-1.500			
0.2171	13896.01	3.9030	3.9029	-0.2046	25.71	-0.01	-1.500			
0.2178	13938.52	3.9000	3.9000	-0.2353	25.71	-0.01	-1.500			
0.2186	13987.51	3.8970	3.8971	-0.2658	25.71	-0.01	-1.500			
0.2194	14041.79	3.8940	3.8940	-0.2950	25.71	-0.01	-1.500			
0.2203	14100.81	3.8910	3.8910	-0.3230	25.71	-0.01	-1.500			
0.2213	14165.19	3.8880	3.8881	-0.3518	25.71	-0.01	-1.500			
0.2224	14235.24	3.8850	3.8850	-0.3809	25.71	-0.01	-1.500			
0.2236	14311.19	3.8820	3.8820	-0.4095	25.71	-0.01	-1.500			
0.2249	14393.22	3.8790	3.8790	-0.4369	25.71	-0.01	-1.500			
0.2262	14479.41	3.8760	3.8760	-0.4657	25.71	-0.01	-1.500			
0.2277	14571.39	3.8730	3.8731	-0.4969	25.72	-0.00	-1.500			
0.2292	14670.04	3.8700	3.8699	-0.5249	25.72	-0.00	-1.500			
0.2308	14773.56	3.8670	3.8669	-0.5513	25.72	-0.00	-1.500			
0.2325	14882.90	3.8640	3.8641	-0.5769	25.72	-0.00	-1.500			
0.2343	14997.31	3.8610	3.8611	-0.6020	25.72	-0.00	-1.500			
0.2362	15115.22	3.8580	3.8579	-0.6236	25.72	-0.00	-1.500			
0.2381	15236.72	3.8550	3.8550	-0.6405	25.72	-0.00	-1.500			
0.2400	15361.03	3.8520	3.8520	-0.6560	25.72	-0.00	-1.500			
0.2420	15489.22	3.8490	3.8491	-0.6731	25.72	0.00	-1.500			
0.2441	15620.94	3.8460	3.8459	-0.6878	25.72	0.00	-1.500			
0.2462	15754.23	3.8430	3.8430	-0.6980	25.72	0.00	-1.500			
0.2483	15889.64	3.8400	3.8400	-0.7088	25.72	0.00	-1.500			
0.2504	16026.77	3.8370	3.8371	-0.7207	25.72	0.00	-1.500			
0.2526	16167.08	3.8340	3.8339	-0.7301	25.73	0.01	-1.500			
0.2548	16307.99	3.8310	3.8310	-0.7401	25.73	0.01	-1.500			
0.2570	16450.72	3.8280	3.8281	-0.7486	25.73	0.01	-1.500			
0.2593	16597.16	3.8250	3.8249	-0.7509	25.73	0.01	-1.500			
0.2616	16742.44	3.8220	3.8220	-0.7513	25.73	0.01	-1.500			
0.2638	16885.82	3.8190	3.8190	-0.7540	25.73	0.01	-1.500			
0.2661	17029.96	3.8160	3.8160	-0.7559	25.73	0.01	-1.500			
0.2684	17176.21	3.8130	3.8129	-0.7582	25.74	0.02	-1.500			
0.2706	17320.90	3.8100	3.8100	-0.7610	25.74	0.02	-1.500			
0.2729	17467.56	3.8070	3.8070	-0.7640	25.74	0.02	-1.500			
0.2752	17615.02	3.8040	3.8041	-0.7725	25.75	0.03	-1.500			
0.2776	17764.39	3.8010	3.8009	-0.7741	25.75	0.03	-1.500			
0.2799	17912.68	3.7980	3.7980	-0.7763	25.75	0.03	-1.500			
0.2822	18062.58	3.7950	3.7950	-0.7764	25.76	0.04	-1.500			
0.2846	18212.66	3.7920	3.7921	-0.7738	25.76	0.04	-1.500			
0.2869	18361.06	3.7890	3.7890	-0.7737	25.76	0.04	-1.500			
0.2892	18508.77	3.7860	3.7860	-0.7774	25.77	0.05	-1.500			
0.2915	18656.11	3.7830	3.7829	-0.7758	25.77	0.05	-1.500			
0.2939	18806.66	3.7800	3.7800	-0.7773	25.78	0.06	-1.500			
0.2962	18957.44	3.7770	3.7770	-0.7749	25.78	0.06	-1.500			
0.2985	19105.68	3.7740	3.7741	-0.7816	25.79	0.07	-1.500			
0.3009	19256.15	3.7710	3.7710	-0.7862	25.79	0.07	-1.500			
0.3032	19406.86	3.7680	3.7679	-0.7819	25.80	0.08	-1.500			
0.3056	19557.36	3.7650	3.7651	-0.7825	25.80	0.08	-1.500			
0.3080	19708.92	3.7620	3.7621	-0.7856	25.81	0.09	-1.500			
0.3103	19860.52	3.7590	3.7590	-0.7826	25.81	0.09	-1.500			
0.3127	20011.42	3.7560	3.7559	-0.7779	25.82	0.10	-1.500			
0.3150	20157.70	3.7530	3.7532	-0.7735	25.82	0.10	-1.500			
0.3173	20305.33	3.7500	3.7500	-0.7745	25.83	0.11	-1.500			
0.3196	20454.83	3.7470	3.7470	-0.7759	25.83	0.11	-1.500			
0.3219	20602.96	3.7440	3.7440	-0.7768	25.84	0.12	-1.500			
0.3243	20753.28	3.7410	3.7410	-0.7805	25.85	0.13	-1.500			
0.3266	20902.98	3.7380	3.7380	-0.7851	25.85	0.13	-1.500			
0.3290	21053.43	3.7350	3.7350	-0.7897	25.86	0.14	-1.500			
0.3313	21204.63	3.7320	3.7320	-0.7925	25.87	0.15	-1.500			
0.3337	21358.85	3.7290	3.7290	-0.7943	25.87	0.15	-1.500			
0.3361	21512.72	3.7260	3.7260	-0.7955	25.88	0.16	-1.500			
0.3385	21664.79	3.7230	3.7230	-0.7960	25.89	0.17	-1.500			
0.3409	21817.80	3.7200	3.7200	-0.7980	25.89	0.17	-1.500			
0.3433	21970.68	3.7170	3.7169	-0.7962	25.90	0.18	-1.500			
0.3457	22122.56	3.7140	3.7140	-0.7973	25.90	0.18	-1.500			
0.3481	22275.40	3.7110	3.7111	-0.8042	25.91	0.19	-1.500			
0.3505	22430.80	3.7080	3.7081	-0.8124	25.92	0.20	-1.500			
0.3529	22587.26	3.7050	3.7048	-0.8176	25.92	0.20	-1.500			
0.3554	22744.59	3.7020	3.7020	-0.8222	25.93	0.21	-1.500			
0.3578	22902.27	3.6990	3.6990	-0.8306	25.93	0.21	-1.500			
0.3604	23063.44	3.6960	3.6960	-0.8376	25.94	0.22	-1.500			
0.3629	23224.47	3.6930	3.6931	-0.8442	25.94	0.22	-1.500			
0.3654	23386.11	3.6900	3.6899	-0.8554	25.95	0.23	-1.500			
0.3680	23551.34	3.6870	3.6870	-0.8687	25.96	0.24	-1.500			
0.3706	23720.01	3.6840	3.6839	-0.8827	25.96	0.24	-1.500			
0.3733	23890.21	3.6810	3.6810	-0.8937	25.97	0.25	-1.500			
0.3760	24063.02	3.6780	3.6780	-0.9100	25.97	0.25	-1.500			
0.3787	24239.82	3.6750	3.6750	-0.9274	25.98	0.26	-1.500			
0.3816	24419.34	3.6720	3.6720	-0.9385	25.98	0.26	-1.500			
0.3844	24600.82	3.6690	3.6690	-0.9519	25.99	0.27	-1.500			
0.3873	24784.77	3.6660	3.6660	-0.9686	25.99	0.27	-1.500			
0.3902	24971.35	3.6630	3.6630	-0.9871	26.00	0.28	-1.500			
0.3931	25161.12	3.6600	3.6600	-1.0076	26.00	0.28	-1.500			
0.3962	25356.67	3.6570	3.6569	-1.0262	26.01	0.29	-1.500			
0.3993	25556.39	3.6540	3.6539	-1.0485	26.01	0.29	-1.500			
0.4025	25759.48	3.6510	3.6511	-1.0790	26.02	0.30	-1.500			
0.4058	25969.67	3.6480	3.6481	-1.0995	26.03	0.31	-1.500			
0.4091	26183.36	3.6450	3.6449	-1.1208	26.03	0.31	-1.500			
0.4125	26401.29	3.6420	3.6419	-1.1397	26.04	0.32	-1.500			
0.4159	26620.53	3.6390	3.6391	-1.1595	26.04	0.32	-1.500			
0.4195	26846.51	3.6360	3.6360	-1.1805	26.04	0.32	-1.500			
0.4230	27073.51	3.6330	3.6330	-1.2034	26.04	0.32	-1.500			
0.4266	27303.42	3.6300	3.6300	-1.2249	26.04	0.32	-1.500			
0.4304	27543.98	3.6270	3.6270	-1.2572	26.05	0.33	-1.500			
0.4342	27788.57	3.6240	3.6240	-1.2840	26.05	0.33	-1.500			
0.4381	28037.69	3.6210	3.6210	-1.3123	26.05	0.33	-1.500			
0.4420	28290.90	3.6180	3.6180	-1.3431	26.05	0.33	-1.500			
0.4461	28552.71	3.6150	3.6150	-1.3746	26.05	0.33	-1.500			
0.4503	28819.68	3.6120	3.6119	-1.4032	26.05	0.33	-1.500			
0.4546	29092.61	3.6090	3.6090	-1.4343	26.06	0.34	-1.500			
0.4589	29372.48	3.6060	3.6061	-1.4606	26.06	0.34	-1.500			
0.4634	29656.97	3.6030	3.6030	-1.4835	26.06	0.34	-1.500			
0.4679	29943.19	3.6000	3.5999	-1.5026	26.06	0.34	-1.500			
0.4723	30227.54	3.5970	3.5971	-1.5334	26.07	0.35	-1.500			
0.4770	30525.49	3.5940	3.5940	-1.5674	26.07	0.35	-1.500			
0.4817	30829.41	3.5910	3.5909	-1.5990	26.07	0.35	-1.500			
0.4866	31144.38	3.5880	3.5879	-1.6246	26.08	0.36	-1.500			
0.4915	31458.52	3.5850	3.5852	-1.6568	26.08	0.36	-1.500			
0.4966	31779.29	3.5820	3.5820	-1.6945	26.08	0.36	-1.500			
0.5017	32107.30	3.5790	3.5789	-1.7187	26.08	0.36	-1.500			
0.5068	32437.78	3.5760	3.5759	-1.7354	26.08	0.36	-1.500			
0.5121	32777.53	3.5730	3.5730	-1.7611	26.08	0.36	-1.500			
0.5175	33121.08	3.5700	3.5701	-1.7833	26.08	0.36	-1.500			
0.5229	33465.43	3.5670	3.5670	-1.8071	26.08	0.36	-1.500			
0.5282	33807.68	3.5640	3.5639	-1.8235	26.09	0.37	-1.500			
0.5337	34158.56	3.5610	3.5610	-1.8482	26.09	0.37	-1.500			
0.5394	34520.93	3.5580	3.5581	-1.8753	26.09	0.37	-1.500			
0.5451	34885.55	3.5550	3.5550	-1.8896	26.09	0.37	-1.500			
0.5508	35250.54	3.5520	3.5520	-1.9160	26.09	0.37	-1.500			
0.5566	35622.09	3.5490	3.5490	-1.9230	26.09	0.37	-1.500			
0.5624	35991.91	3.5460	3.5459	-1.9336	26.09	0.37	-1.500			
0.5682	36363.44	3.5430	3.5430	-1.9379	26.09	0.37	-1.500	0.379	0.508	
0.5740	36737.92	3.5400	3.5399	-1.9477	26.09	0.37	-1.500			
0.5799	37112.91	3.5370	3.5370	-1.9430	26.10	0.38	-1.500			
0.5857	37483.89	3.5340	3.5341	-1.9366	26.10	0.38	-1.500			
0.5916	37859.32	3.5310	3.5310	-1.9312	26.10	0.38	-1.500			
0.5974	38230.90	3.5280	3.5279	-1.9286	26.11	0.39	-1.500			
0.6031	38601.26	3.5250	3.5250	-1.9131	26.11	0.39	-1.500			
0.6089	38967.50	3.5220	3.5219	-1.9003	26.12	0.40	-1.500			
0.6146	39331.80	3.5190	3.5192	-1.8912	26.12	0.40	-1.500			
0.6202	39694.15	3.5160	3.5159	-1.8827	26.12	0.40	-1.500			
0.6259	40055.15	3.5130	3.5130	-1.8805	26.13	0.41	-1.500			
0.6315	40417.30	3.5100	3.5099	-1.8673	26.13	0.41	-1.500			
0.6371	40776.65	3.5070	3.5070	-1.8630	26.14	0.42	-1.500			
0.6427	41133.48	3.5040	3.5040	-1.8460	26.14	0.42	-1.500			
0.6482	41484.68	3.5010	3.5009	-1.8303	26.15	0.43	-1.500			
0.6536	41832.62	3.4980	3.4980	-1.8110	26.16	0.44	-1.500			
0.6590	42174.63	3.4950	3.4950	-1.7960	26.17	0.45	-1.500			
0.6644	42522.56	3.4920	3.4921	-1.7977	26.18	0.46	-1.500			
0.6698	42866.59	3.4890	3.4889	-1.7895	26.19	0.47	-1.500			
0.6751	43208.90	3.4860	3.4860	-1.7774	26.20	0.48	-1.500			
0.6805	43550.60	3.4830	3.4830	-1.7637	26.20	0.48	-1.500			
0.6858	43888.16	3.4800	3.4800	-1.7500	26.21	0.49	-1.500			
0.6910	44224.29	3.4770	3.4771	-1.7326	26.22	0.50	-1.500			
0.6962	44555.88	3.4740	3.4739	-1.7103	26.23	0.51	-1.500			
0.7013	44883.80	3.4710	3.4710	-1.6910	26.25	0.53	-1.500			
0.7064	45207.09	3.4680	3.4679	-1.6692	26.26	0.54	-1.500			
0.7114	45527.75	3.4650	3.4650	-1.6471	26.27	0.55	-1.500			
0.7163	45840.59	3.4620	3.4621	-1.6192	26.28	0.56	-1.500			
0.7211	46147.72	3.4590	3.4589	-1.5901	26.29	0.57	-1.500			
0.7258	46448.49	3.4560	3.4560	-1.5731	26.30	0.58	-1.500			
0.7304	46743.84	3.4530	3.4530	-1.5449	26.31	0.59	-1.500			
0.7351	47043.64	3.4500	3.4500	-1.5436	26.32	0.60	-1.500			
0.7397	47338.47	3.4470	3.4470	-1.5215	26.33	0.61	-1.500			
0.7442	47629.06	3.4440	3.4440	-1.5137	26.35	0.63	-1.500			
0.7487	47917.67	3.4410	3.4410	-1.4990	26.36	0.64	-1.500			
0.7532	48204.90	3.4380	3.4380	-1.4851	26.38	0.66	-1.500			
0.7576	48486.86	3.4350	3.4351	-1.4657	26.39	0.67	-1.500			
0.7620	48768.17	3.4320	3.4320	-1.4595	26.41	0.69	-1.500			
0.7663	49045.97	3.4290	3.4290	-1.4505	26.43	0.71	-1.500			
0.7707	49324.10	3.4260	3.4258	-1.4436	26.44	0.72	-1.500			
0.7750	49597.19	3.4230	3.4230	-1.4382	26.46	0.74	-1.500			
0.7793	49877.88	3.4200	3.4200	-1.4265	26.48	0.76	-1.500			
0.7837	50154.02	3.4170	3.4169	-1.4081	26.50	0.78	-1.500			
0.7879	50423.54	3.4140	3.4140	-1.3869	26.51	0.79	-1.500			
0.7920	50687.50	3.4110	3.4109	-1.3544	26.53	0.81	-1.500			
0.7960	50945.56	3.4080	3.4079	-1.3169	26.55	0.83	-1.500			
0.7999	51194.91	3.4050	3.4051	-1.2804	26.56	0.84	-1.500			
0.8037	51436.80	3.4020	3.4020	-1.2380	26.58	0.86	-1.500			
0.8074	51674.68	3.3990	3.3990	-1.1976	26.60	0.88	-1.500			
0.8109	51900.53	3.3960	3.3959	-1.1471	26.61	0.89	-1.500			
0.8143	52114.84	3.3930	3.3930	-1.0929	26.62	0.90	-1.500			
0.8175	52320.35	3.3900	3.3900	-1.0505	26.63	0.91	-1.500			
0.8206	52515.82	3.3870	3.3870	-1.0063	26.65	0.93	-1.500			
0.8235	52702.06	3.3840	3.3840	-0.9615	26.66	0.94	-1.500			
0.8263	52883.17	3.3810	3.3810	-0.9232	26.67	0.95	-1.500			
0.8290	53058.42	3.3780	3.3780	-0.8903	26.68	0.96	-1.500			
0.8316	53224.91	3.3750	3.3750	-0.8574	26.70	0.98	-1.500			
0.8342	53385.84	3.3720	3.3720	-0.8261	26.71	0.99	-1.500			
0.8366	53539.85	3.3690	3.3690	-0.7971	26.72	1.00	-1.500			
0.8389	53689.54	3.3660	3.3659	-0.7683	26.73	1.01	-1.500			
0.8412	53835.51	3.3630	3.3631	-0.7447	26.73	1.01	-1.500			
0.8434	53976.59	3.3600	3.3600	-0.7204	26.74	1.02	-1.500			
0.8455	54112.09	3.3570	3.3569	-0.6917	26.75	1.03	-1.500			
0.8475	54241.18	3.3540	3.3540	-0.6668	26.76	1.04	-1.500			
0.8495	54366.85	3.3510	3.3510	-0.6464	26.76	1.04	-1.500			
0.8514	54488.32	3.3480	3.3480	-0.6250	26.77	1.05	-1.500			
0.8532	54606.78	3.3450	3.3450	-0.6073	26.78	1.06	-1.500			
0.8550	54721.28	3.3420	3.3420	-0.5876	26.78	1.06	-1.500			
0.8568	54832.32	3.3390	3.3391	-0.5702	26.79	1.07	-1.500			
0.8584	54940.59	3.3360	3.3360	-0.5521	26.80	1.08	-1.500			
0.8601	55043.73	3.3330	3.3330	-0.5359	26.80	1.08	-1.500			
0.8616	55144.34	3.3300	3.3300	-0.5190	26.81	1.09	-1.500			
0.8632	55243.07	3.3270	3.3269	-0.5022	26.81	1.09	-1.500			
0.8647	55338.34	3.3240	3.3241	-0.4859	26.82	1.10	-1.500			
0.8661	55430.16	3.3210	3.3210	-0.4717	26.83	1.11	-1.500			
0.8675	55519.18	3.3180	3.3180	-0.4555	26.83	1.11	-1.500			
0.8688	55605.05	3.3150	3.3149	-0.4413	26.84	1.12	-1.500			
0.8701	55686.94	3.3120	3.3121	-0.4251	26.85	1.13	-1.500			
0.8714	55767.51	3.3090	3.3090	-0.4145	26.86	1.14	-1.500			
0.8726	55846.09	3.3060	3.3060	-0.4027	26.86	1.14	-1.500			
0.8738	55922.02	3.3030	3.3030	-0.3894	26.87	1.15	-1.500			
0.8749	55995.45	3.3000	3.3000	-0.3764	26.88	1.16	-1.500			
0.8760	56066.89	3.2970	3.2971	-0.3669	26.88	1.16	-1.500			
0.8771	56136.35	3.2940	3.2939	-0.3542	26.89	1.17	-1.500			
0.8782	56203.19	3.2910	3.2910	-0.3424	26.89	1.17	-1.500			
0.8792	56267.26	3.2880	3.2880	-0.3314	26.90	1.18	-1.500			
0.8802	56329.94	3.2850	3.2851	-0.3215	26.90	1.18	-1.500			
0.8811	56390.55	3.2820	3.2820	-0.3125	26.91	1.19	-1.500			
0.8820	56449.11	3.2790	3.2789	-0.3034	26.92	1.20	-1.500			
0.8829	56506.25	3.2760	3.2761	-0.2940	26.92	1.20	-1.500			
0.8838	56562.44	3.2730	3.2730	-0.2868	26.92	1.20	-1.500			
0.8846	56616.65	3.2700	3.2700	-0.2771	26.93	1.21	-1.500			
0.8855	56669.08	3.2670	3.2670	-0.2694	26.93	1.21	-1.500			
0.8862	56719.59	3.2640	3.2640	-0.2611	26.93	1.21	-1.500			
0.8870	56768.24	3.2610	3.2610	-0.2544	26.94	1.22	-1.500			
0.8878	56816.07	3.2580	3.2579	-0.2477	26.94	1.22	-1.500			
0.8885	56863.40	3.2550	3.2550	-0.2426	26.94	1.22	-1.500			
0.8892	56909.41	3.2520	3.2520	-0.2373	26.95	1.23	-1.500			
0.8899	56954.72	3.2490	3.2491	-0.2317	26.95	1.23	-1.500			
0.8906	56998.91	3.2460	3.2460	-0.2265	26.95	1.23	-1.500			
0.8913	57041.60	3.2430	3.2430	-0.2202	26.96	1.24	-1.500			
0.8919	57083.33	3.2400	3.2399	-0.2143	26.96	1.24	-1.500			
0.8926	57123.36	3.2370	3.2370	-0.2089	26.97	1.25	-1.500			
0.8932	57163.25	3.2340	3.2340	-0.2043	26.97	1.25	-1.500			
0.8938	57201.75	3.2310	3.2309	-0.1998	26.98	1.26	-1.500			
0.8944	57239.71	3.2280	3.2280	-0.1955	26.98	1.26	-1.500			
0.8949	57276.60	3.2250	3.2251	-0.1923	26.98	1.26	-1.500			
0.8955	57312.97	3.2220	3.2219	-0.1886	26.99	1.27	-1.500			
0.8961	57349.03	3.2190	3.2190	-0.1855	26.99	1.27	-1.500			
0.8966	57384.33	3.2160	3.2160	-0.1822	26.99	1.27	-1.500			
0.8972	57418.98	3.2130	3.2131	-0.1788	27.00	1.28	-1.500			
0.8977	57453.14	3.2100	3.2100	-0.1760	27.00	1.28	-1.500			
0.8982	57486.35	3.2070	3.2070	-0.1727	27.01	1.29	-1.500			
0.8987	57519.24	3.2040	3.2040	-0.1699	27.01	1.29	-1.500			
0.8992	57551.35	3.2010	3.2010	-0.1674	27.01	1.29	-1.500			
0.8997	57583.27	3.1980	3.1980	-0.1651	27.02	1.30	-1.500			
0.9002	57614.84	3.1950	3.1951	-0.1628	27.02	1.30	-1.500			
0.9007	57645.87	3.1920	3.1920	-0.1605	27.02	1.30	-1.500			
0.9012	57676.57	3.1890	3.1890	-0.1578	27.02	1.30	-1.500			
0.9017	57706.59	3.1860	3.1860	-0.1553	27.03	1.31	-1.500			
0.9021	57736.02	3.1830	3.1831	-0.1530	27.03	1.31	-1.500			
0.9026	57765.19	3.1800	3.1799	-0.1508	27.03	1.31	-1.500			
0.9030	57793.83	3.1770	3.1770	-0.1487	27.04	1.32	-1.500			
0.9035	57822.09	3.1740	3.1740	-0.1468	27.04	1.32	-1.500			
0.9039	57850.06	3.1710	3.1710	-0.1450	27.04	1.32	-1.500			
0.9043	57877.78	3.1680	3.1680	-0.1431	27.05	1.33	-1.500			
0.9048	57905.15	3.1650	3.1650	-0.1415	27.05	1.33	-1.500			
0.9052	57931.96	3.1620	3.1621	-0.1401	27.05	1.33	-1.500			
0.9056	57958.59	3.1590	3.1590	-0.1385	27.06	1.34	-1.500			
0.9060	57985.04	3.1560	3.1560	-0.1378	27.06	1.34	-1.500			
0.9064	58011.48	3.1530	3.1529	-0.1365	27.07	1.35	-1.500			
0.9068	58037.68	3.1500	3.1500	-0.1352	27.07	1.35	-1.500			
0.9072	58063.50	3.1470	3.1470	-0.1338	27.07	1.35	-1.500			
0.9076	58089.18	3.1440	3.1441	-0.1329	27.08	1.36	-1.500			
0.9080	58114.61	3.1410	3.1410	-0.1315	27.08	1.36	-1.500			
0.9084	58139.52	3.1380	3.1380	-0.1300	27.09	1.37	-1.500			
0.9088	58164.37	3.1350	3.1349	-0.1289	27.09	1.37	-1.500			
0.9092	58189.02	3.1320	3.1321	-0.1273	27.10	1.38	-1.500			
0.9096	58213.52	3.1290	3.1290	-0.1262	27.10	1.38	-1.500			
0.9100	58237.58	3.1260	3.1261	-0.1251	27.10	1.38	-1.500			
0.9103	58261.26	3.1230	3.1230	-0.1243	27.11	1.39	-1.500			
0.9107	58284.84	3.1200	3.1199	-0.1232	27.11	1.39	-1.500			
0.9111	58308.54	3.1170	3.1171	-0.1223	27.12	1.40	-1.500			
0.9114	58331.93	3.1140	3.1139	-0.1214	27.12	1.40	-1.500			
0.9118	58355.01	3.1110	3.1110	-0.1207	27.12	1.40	-1.500			
0.9122	58378.34	3.1080	3.1081	-0.1205	27.13	1.41	-1.500			
0.9125	58401.35	3.1050	3.1050	-0.1197	27.13	1.41	-1.500			
0.9129	58424.22	3.1020	3.1019	-0.1188	27.14	1.42	-1.500			
0.9132	58446.97	3.0990	3.0991	-0.1181	27.14	1.42	-1.500			
0.9136	58469.43	3.0960	3.0960	-0.1172	27.14	1.42	-1.500			
0.9139	58491.91	3.0930	3.0930	-0.1165	27.15	1.43	-1.500			
0.9143	58514.44	3.0900	3.0899	-0.1159	27.15	1.43	-1.500			
0.9146	58536.53	3.0870	3.0870	-0.1148	27.15	1.43	-1.500			
0.9150	58558.35	3.0840	3.0841	-0.1142	27.15	1.43	-1.500			
0.9153	58580.17	3.0810	3.0810	-0.1135	27.16	1.44	-1.500			
0.9157	58602.06	3.0780	3.0780	-0.1126	27.16	1.44	-1.500			
0.9160	58623.65	3.0750	3.0750	-0.1119	27.16	1.44	-1.500			
0.9163	58644.92	3.0720	3.0719	-0.1114	27.17	1.45	-1.500			
0.9167	58666.19	3.0690	3.0691	-0.1107	27.17	1.45	-1.500			
0.9170	58687.50	3.0660	3.0660	-0.1099	27.18	1.46	-1.500			
0.9173	58708.64	3.0630	3.0629	-0.1094	27.18	1.46	-1.500			
0.9176	58729.46	3.0600	3.0599	-0.1088	27.19	1.47	-1.500			
0.9180	58750.12	3.0570	3.0571	-0.1079	27.19	1.47	-1.500			
0.9183	58770.77	3.0540	3.0541	-0.1075	27.20	1.48	-1.500			
0.9186	58791.49	3.0510	3.0509	-0.1074	27.20	1.48	-1.500			
0.9189	58812.07	3.0480	3.0481	-0.1068	27.21	1.49	-1.500			
0.9193	58832.36	3.0450	3.0450	-0.1060	27.21	1.49	-1.500			
0.9196	58852.79	3.0420	3.0420	-0.1055	27.22	1.50	-1.500			
0.9199	58873.19	3.0390	3.0391	-0.1053	27.22	1.50	-1.500			
0.9202	58893.33	3.0360	3.0358	-0.1045	27.22	1.50	-1.500			
0.9205	58913.26	3.0330	3.0330	-0.1040	27.23	1.51	-1.500			
0.9208	58933.19	3.0300	3.0301	-0.1033	27.23	1.51	-1.500			
0.9211	58952.92	3.0270	3.0270	-0.1026	27.24	1.52	-1.500			
0.9214	58972.60	3.0240	3.0240	-0.1020	27.24	1.52	-1.500			
0.9218	58992.16	3.0210	3.0210	-0.1014	27.25	1.53	-1.500			
0.9221	59011.50	3.0180	3.0181	-0.1010	27.25	1.53	-1.500			
0.9224	59030.82	3.0150	3.0150	-0.1004	27.25	1.53	-1.500			
0.9227	59050.06	3.0120	3.0120	-0.0999	27.26	1.54	-1.500			
0.9230	59069.05	3.0090	3.0089	-0.0996	27.26	1.54	-1.500			
0.9233	59088.15	3.0060	3.0061	-0.0994	27.27	1.55	-1.500			
0.9236	59107.23	3.0030	3.0030	-0.0999	27.27	1.55	-1.500			
