Ah_balance (normalized)	Ah_balance (mAh)	Voltage - fit (V)	Voltage -  interpolate (V)	dQ/dV (1/V)	Temperature (°C)	Temperature - diff (°C)	Current (C)	R_DC 0ms (mOhm)	R_DC 50ms (mOhm)	R_DC 50 ms PEC (mOhm)
0.2771	17736.48	3.9880	3.9880	0.8286	26.98	1.04	1.500			
0.2796	17896.10	3.9850	3.9850	0.8340	26.97	1.03	1.500			
0.2821	18056.24	3.9820	3.9821	0.8403	26.97	1.03	1.500			
0.2847	18218.78	3.9790	3.9789	0.8476	26.96	1.02	1.500			
0.2872	18382.83	3.9760	3.9760	0.8530	26.96	1.02	1.500			
0.2898	18546.52	3.9730	3.9731	0.8562	26.95	1.01	1.500			
0.2924	18712.72	3.9700	3.9700	0.8662	26.94	1.00	1.500			
0.2950	18878.79	3.9670	3.9670	0.8659	26.94	1.00	1.500			
0.2976	19045.14	3.9640	3.9640	0.8683	26.93	0.99	1.500			
0.3002	19211.49	3.9610	3.9611	0.8727	26.92	0.98	1.500			
0.3028	19380.40	3.9580	3.9579	0.8784	26.92	0.98	1.500			
0.3055	19549.34	3.9550	3.9550	0.8821	26.91	0.97	1.500			
0.3081	19719.56	3.9520	3.9521	0.8826	26.91	0.97	1.500			
0.3108	19888.56	3.9490	3.9490	0.8840	26.90	0.96	1.500			
0.3134	20058.61	3.9460	3.9460	0.8918	26.89	0.95	1.500			
0.3161	20229.60	3.9430	3.9430	0.8934	26.89	0.95	1.500			
0.3188	20401.24	3.9400	3.9399	0.8983	26.88	0.94	1.500			
0.3215	20575.03	3.9370	3.9370	0.9029	26.88	0.94	1.500			
0.3242	20749.02	3.9340	3.9340	0.9079	26.87	0.93	1.500			
0.3270	20925.33	3.9310	3.9310	0.9122	26.87	0.93	1.500			
0.3297	21098.32	3.9280	3.9280	0.9146	26.86	0.92	1.500			
0.3324	21274.26	3.9250	3.9250	0.9204	26.86	0.92	1.500			
0.3352	21452.40	3.9220	3.9220	0.9208	26.85	0.91	1.500			
0.3379	21628.46	3.9190	3.9190	0.9246	26.85	0.91	1.500			
0.3407	21807.30	3.9160	3.9161	0.9297	26.84	0.90	1.500			
0.3435	21984.82	3.9130	3.9127	0.9362	26.84	0.90	1.500			
0.3463	22164.91	3.9100	3.9101	0.9433	26.83	0.89	1.500			
0.3492	22346.02	3.9070	3.9070	0.9502	26.83	0.89	1.500			
0.3520	22530.06	3.9040	3.9040	0.9646	26.82	0.88	1.500			
0.3549	22715.26	3.9010	3.9011	0.9664	26.81	0.87	1.500			
0.3579	22903.39	3.8980	3.8980	0.9768	26.81	0.87	1.500			
0.3608	23092.43	3.8950	3.8950	0.9879	26.80	0.86	1.500			
0.3638	23282.29	3.8920	3.8920	0.9944	26.79	0.85	1.500			
0.3668	23474.11	3.8890	3.8889	1.0015	26.78	0.84	1.500			
0.3698	23667.57	3.8860	3.8860	1.0093	26.78	0.84	1.500			
0.3728	23860.90	3.8830	3.8830	1.0203	26.77	0.83	1.500			
0.3759	24058.87	3.8800	3.8800	1.0299	26.76	0.82	1.500			
0.3790	24257.32	3.8770	3.8770	1.0378	26.76	0.82	1.500			
0.3821	24457.42	3.8740	3.8740	1.0437	26.75	0.81	1.500			
0.3853	24657.49	3.8710	3.8710	1.0585	26.74	0.80	1.500			
0.3885	24861.36	3.8680	3.8680	1.0725	26.73	0.79	1.500			
0.3917	25067.81	3.8650	3.8650	1.0885	26.73	0.79	1.500			
0.3950	25277.77	3.8620	3.8619	1.0997	26.72	0.78	1.500			
0.3983	25491.99	3.8590	3.8591	1.1135	26.71	0.77	1.500			
0.4017	25707.60	3.8560	3.8561	1.1294	26.70	0.76	1.500			
0.4051	25926.05	3.8530	3.8530	1.1447	26.69	0.75	1.500			
0.4085	26146.34	3.8500	3.8499	1.1560	26.68	0.74	1.500			
0.4120	26368.20	3.8470	3.8470	1.1748	26.68	0.74	1.500			
0.4156	26595.34	3.8440	3.8441	1.1959	26.67	0.73	1.500			
0.4192	26829.56	3.8410	3.8409	1.2180	26.66	0.72	1.500			
0.4229	27064.86	3.8380	3.8381	1.2349	26.65	0.71	1.500			
0.4266	27301.64	3.8350	3.8350	1.2545	26.64	0.70	1.500			
0.4304	27546.20	3.8320	3.8320	1.2693	26.62	0.68	1.500			
0.4342	27790.29	3.8290	3.8290	1.2977	26.61	0.67	1.500			
0.4381	28039.87	3.8260	3.8261	1.3271	26.60	0.66	1.500			
0.4422	28297.68	3.8230	3.8230	1.3559	26.59	0.65	1.500			
0.4463	28562.37	3.8200	3.8200	1.3816	26.57	0.63	1.500			
0.4505	28830.24	3.8170	3.8171	1.4135	26.56	0.62	1.500			
0.4548	29105.18	3.8140	3.8140	1.4350	26.55	0.61	1.500			
0.4591	29382.63	3.8110	3.8110	1.4705	26.54	0.60	1.500			
0.4635	29663.61	3.8080	3.8080	1.4901	26.53	0.59	1.500			
0.4680	29953.10	3.8050	3.8049	1.5225	26.52	0.58	1.500			
0.4726	30248.98	3.8020	3.8020	1.5661	26.51	0.57	1.500			
0.4774	30554.35	3.7990	3.7991	1.6003	26.49	0.55	1.500			
0.4823	30868.53	3.7960	3.7959	1.6377	26.48	0.54	1.500			
0.4872	31181.87	3.7930	3.7931	1.6563	26.46	0.52	1.500			
0.4922	31500.95	3.7900	3.7900	1.6883	26.45	0.51	1.500			
0.4974	31830.75	3.7870	3.7869	1.7252	26.43	0.49	1.500			
0.5026	32165.66	3.7840	3.7840	1.7438	26.42	0.48	1.500			
0.5078	32500.76	3.7810	3.7811	1.7601	26.41	0.47	1.500			
0.5131	32841.32	3.7780	3.7781	1.7893	26.39	0.45	1.500			
0.5185	33184.96	3.7750	3.7750	1.8130	26.38	0.44	1.500			
0.5240	33533.24	3.7720	3.7720	1.8270	26.36	0.42	1.500	0.343	0.461	
0.5295	33888.90	3.7690	3.7691	1.8396	26.35	0.41	1.500			
0.5352	34250.03	3.7660	3.7660	1.8524	26.33	0.39	1.500			
0.5407	34601.83	3.7630	3.7630	1.8306	26.31	0.37	1.500			
0.5462	34955.66	3.7600	3.7599	1.8227	26.29	0.35	1.500			
0.5516	35304.02	3.7570	3.7570	1.8059	26.28	0.34	1.500			
0.5570	35647.81	3.7540	3.7541	1.8059	26.27	0.33	1.500			
0.5624	35991.09	3.7510	3.7509	1.8155	26.26	0.32	1.500			
0.5677	36335.68	3.7480	3.7479	1.8214	26.24	0.30	1.500			
0.5732	36687.78	3.7450	3.7450	1.8482	26.23	0.29	1.500			
0.5789	37049.06	3.7420	3.7421	1.8643	26.22	0.28	1.500			
0.5845	37407.49	3.7390	3.7390	1.8849	26.20	0.26	1.500			
0.5901	37766.64	3.7360	3.7361	1.9157	26.19	0.25	1.500			
0.5959	38135.49	3.7330	3.7330	1.9649	26.17	0.23	1.500			
0.6019	38521.14	3.7300	3.7299	2.0052	26.16	0.22	1.500			
0.6080	38910.58	3.7270	3.7271	2.0618	26.15	0.21	1.500			
0.6143	39312.60	3.7240	3.7240	2.1299	26.13	0.19	1.500			
0.6207	39723.50	3.7210	3.7210	2.1818	26.12	0.18	1.500			
0.6274	40152.42	3.7180	3.7181	2.2505	26.11	0.17	1.500			
0.6343	40595.64	3.7150	3.7149	2.3187	26.10	0.16	1.500			
0.6413	41041.11	3.7120	3.7120	2.3754	26.08	0.14	1.500			
0.6485	41506.39	3.7090	3.7090	2.4416	26.07	0.13	1.500			
0.6559	41979.83	3.7060	3.7060	2.4557	26.06	0.12	1.500			
0.6634	42458.54	3.7030	3.7030	2.4596	26.05	0.11	1.500			
0.6708	42933.68	3.7000	3.6999	2.4104	26.04	0.10	1.500			
0.6781	43396.07	3.6970	3.6970	2.3016	26.03	0.09	1.500			
0.6849	43835.51	3.6940	3.6940	2.1653	26.02	0.08	1.500			
0.6911	44229.00	3.6910	3.6910	1.9817	26.01	0.07	1.500			
0.6966	44583.57	3.6880	3.6880	1.8092	26.01	0.07	1.500			
0.7017	44911.94	3.6850	3.6851	1.6727	26.01	0.07	1.500			
0.7066	45221.57	3.6820	3.6820	1.5725	26.00	0.06	1.500			
0.7111	45507.65	3.6790	3.6790	1.4925	26.00	0.06	1.500			
0.7154	45783.15	3.6760	3.6760	1.4194	26.00	0.06	1.500			
0.7194	46044.78	3.6730	3.6729	1.3602	26.00	0.06	1.500			
0.7234	46300.17	3.6700	3.6700	1.3180	25.99	0.05	1.500			
0.7273	46544.09	3.6670	3.6671	1.2885	25.99	0.05	1.500			
0.7311	46788.86	3.6640	3.6639	1.2653	25.98	0.04	1.500			
0.7348	47026.70	3.6610	3.6610	1.2532	25.97	0.03	1.500			
0.7385	47263.98	3.6580	3.6580	1.2524	25.97	0.03	1.500			
0.7422	47503.09	3.6550	3.6550	1.2599	25.96	0.02	1.500			
0.7460	47746.27	3.6520	3.6520	1.2678	25.96	0.02	1.500			
0.7498	47989.26	3.6490	3.6490	1.2768	25.95	0.01	1.500			
0.7537	48237.06	3.6460	3.6460	1.2806	25.95	0.01	1.500			
0.7576	48487.04	3.6430	3.6430	1.2874	25.94	0.00	1.500			
0.7614	48732.58	3.6400	3.6400	1.2875	25.94	-0.00	1.500			
0.7653	48980.65	3.6370	3.6370	1.2846	25.93	-0.01	1.500			
0.7691	49225.31	3.6340	3.6339	1.2830	25.93	-0.01	1.500			
0.7730	49472.29	3.6310	3.6310	1.2821	25.92	-0.02	1.500			
0.7768	49718.28	3.6280	3.6280	1.2770	25.92	-0.02	1.500			
0.7807	49965.05	3.6250	3.6250	1.2736	25.92	-0.02	1.500			
0.7845	50209.44	3.6220	3.6220	1.2762	25.91	-0.03	1.500			
0.7883	50453.81	3.6190	3.6190	1.2718	25.91	-0.03	1.500			
0.7922	50698.79	3.6160	3.6159	1.2680	25.90	-0.04	1.500			
0.7960	50941.74	3.6130	3.6131	1.2574	25.90	-0.04	1.500			
0.7998	51184.31	3.6100	3.6100	1.2488	25.90	-0.04	1.500			
0.8035	51423.86	3.6070	3.6070	1.2313	25.90	-0.04	1.500			
0.8071	51657.38	3.6040	3.6041	1.2081	25.90	-0.04	1.500			
0.8108	51889.13	3.6010	3.6010	1.1954	25.90	-0.04	1.500			
0.8143	52116.44	3.5980	3.5980	1.1770	25.90	-0.04	1.500			
0.8178	52340.69	3.5950	3.5949	1.1599	25.90	-0.04	1.500			
0.8213	52561.42	3.5920	3.5921	1.1442	25.90	-0.04	1.500			
0.8247	52779.62	3.5890	3.5890	1.1262	25.91	-0.03	1.500			
0.8281	52999.00	3.5860	3.5859	1.0967	25.92	-0.02	1.500			
0.8314	53208.67	3.5830	3.5829	1.0504	25.92	-0.02	1.500			
0.8346	53412.02	3.5800	3.5800	0.9818	25.93	-0.01	1.500			
0.8375	53598.08	3.5770	3.5771	0.8963	25.93	-0.01	1.500			
0.8401	53767.33	3.5740	3.5740	0.7975	25.93	-0.01	1.500			
0.8424	53910.53	3.5710	3.5710	0.6861	25.94	-0.00	1.500			
0.8442	54028.30	3.5680	3.5681	0.5802	25.94	0.00	1.500			
0.8457	54126.90	3.5650	3.5650	0.4843	25.94	0.00	1.500			
0.8470	54205.03	3.5620	3.5619	0.4009	25.95	0.01	1.500			
0.8480	54271.02	3.5590	3.5588	0.3413	25.95	0.01	1.500			
0.8488	54325.58	3.5560	3.5559	0.2899	25.95	0.01	1.500			
0.8496	54374.87	3.5530	3.5530	0.2550	25.95	0.01	1.500			
0.8503	54419.06	3.5500	3.5500	0.2242	25.95	0.01	1.500			
0.8509	54458.62	3.5470	3.5469	0.2021	25.95	0.01	1.500			
0.8515	54493.58	3.5440	3.5440	0.1813	25.95	0.01	1.500			
0.8520	54526.67	3.5410	3.5410	0.1648	25.95	0.01	1.500			
0.8524	54556.53	3.5380	3.5380	0.1507	25.95	0.01	1.500			
0.8529	54583.69	3.5350	3.5350	0.1358	25.95	0.01	1.500			
0.8533	54608.35	3.5320	3.5320	0.1213	25.96	0.02	1.500			
0.8536	54630.28	3.5290	3.5290	0.1073	25.96	0.02	1.500			
0.8539	54649.57	3.5260	3.5262	0.0935	25.96	0.02	1.500			
0.8542	54666.60	3.5230	3.5230	0.0798	25.96	0.02	1.500			
0.8544	54680.95	3.5200	3.5203	0.0652	25.96	0.02	1.500			
0.8546	54691.99	3.5170	3.5175	0.0499	25.96	0.02	1.500			
0.8547	54700.10	3.5140	3.5150	0.0346	25.96	0.02	1.500			
