Ah_balance (normalized)	Ah_balance (mAh)	Voltage - fit (V)	Voltage -  interpolate (V)	dQ/dV (1/V)	Temperature (°C)	Temperature - diff (°C)	Current (C)	R_DC 0ms (mOhm)	R_DC 50ms (mOhm)	R_DC 50 ms PEC (mOhm)
0.2833	18133.78	3.9890	3.9890	0.8389	27.25	1.31	1.500			
0.2858	18293.94	3.9860	3.9860	0.8395	27.25	1.31	1.500			
0.2884	18456.87	3.9830	3.9829	0.8422	27.24	1.30	1.500			
0.2909	18618.62	3.9800	3.9801	0.8428	27.24	1.30	1.500			
0.2934	18780.14	3.9770	3.9770	0.8467	27.23	1.29	1.500			
0.2960	18943.47	3.9740	3.9740	0.8508	27.23	1.29	1.500			
0.2985	19106.58	3.9710	3.9709	0.8540	27.22	1.28	1.500			
0.3011	19270.04	3.9680	3.9681	0.8565	27.22	1.28	1.500			
0.3037	19435.42	3.9650	3.9650	0.8595	27.21	1.27	1.500			
0.3063	19601.95	3.9620	3.9620	0.8644	27.21	1.27	1.500			
0.3089	19768.43	3.9590	3.9590	0.8655	27.20	1.26	1.500			
0.3115	19933.88	3.9560	3.9559	0.8681	27.20	1.26	1.500			
0.3141	20100.97	3.9530	3.9531	0.8725	27.19	1.25	1.500			
0.3167	20269.42	3.9500	3.9500	0.8733	27.19	1.25	1.500			
0.3193	20437.26	3.9470	3.9469	0.8788	27.18	1.24	1.500			
0.3220	20605.78	3.9440	3.9440	0.8853	27.18	1.24	1.500			
0.3246	20774.96	3.9410	3.9411	0.8911	27.17	1.23	1.500			
0.3273	20947.22	3.9380	3.9380	0.8970	27.16	1.22	1.500			
0.3300	21120.44	3.9350	3.9350	0.9027	27.16	1.22	1.500			
0.3327	21295.14	3.9320	3.9320	0.9077	27.15	1.21	1.500			
0.3355	21471.57	3.9290	3.9290	0.9123	27.15	1.21	1.500			
0.3382	21645.27	3.9260	3.9260	0.9125	27.14	1.20	1.500			
0.3409	21820.00	3.9230	3.9230	0.9160	27.13	1.19	1.500			
0.3437	21995.44	3.9200	3.9200	0.9234	27.13	1.19	1.500			
0.3465	22173.32	3.9170	3.9170	0.9344	27.12	1.18	1.500			
0.3493	22354.20	3.9140	3.9140	0.9424	27.11	1.17	1.500			
0.3521	22536.81	3.9110	3.9111	0.9503	27.11	1.17	1.500			
0.3550	22721.29	3.9080	3.9079	0.9549	27.10	1.16	1.500			
0.3579	22904.79	3.9050	3.9050	0.9557	27.09	1.15	1.500			
0.3607	23087.22	3.9020	3.9020	0.9627	27.08	1.14	1.500			
0.3636	23272.22	3.8990	3.8989	0.9670	27.08	1.14	1.500			
0.3665	23457.38	3.8960	3.8960	0.9779	27.07	1.13	1.500			
0.3695	23646.49	3.8930	3.8932	0.9896	27.06	1.12	1.500			
0.3725	23837.67	3.8900	3.8899	1.0030	27.05	1.11	1.500			
0.3755	24032.01	3.8870	3.8869	1.0153	27.04	1.10	1.500			
0.3785	24226.89	3.8840	3.8841	1.0285	27.03	1.09	1.500			
0.3817	24425.69	3.8810	3.8810	1.0348	27.02	1.08	1.500			
0.3848	24628.38	3.8780	3.8780	1.0459	27.02	1.08	1.500			
0.3879	24828.43	3.8750	3.8750	1.0533	27.01	1.07	1.500			
0.3911	25030.93	3.8720	3.8720	1.0643	27.00	1.06	1.500			
0.3943	25235.16	3.8690	3.8690	1.0704	26.99	1.05	1.500			
0.3975	25440.86	3.8660	3.8660	1.0856	26.98	1.04	1.500			
0.4008	25648.84	3.8630	3.8631	1.1011	26.97	1.03	1.500			
0.4041	25863.23	3.8600	3.8599	1.1246	26.96	1.02	1.500			
0.4075	26081.37	3.8570	3.8570	1.1422	26.95	1.01	1.500			
0.4110	26302.91	3.8540	3.8539	1.1546	26.94	1.00	1.500			
0.4145	26527.42	3.8510	3.8510	1.1661	26.93	0.99	1.500			
0.4180	26753.82	3.8480	3.8481	1.1687	26.92	0.98	1.500			
0.4215	26976.61	3.8450	3.8450	1.1851	26.91	0.97	1.500			
0.4251	27204.39	3.8420	3.8419	1.2043	26.90	0.96	1.500			
0.4286	27433.50	3.8390	3.8390	1.2260	26.89	0.95	1.500			
0.4324	27671.50	3.8360	3.8361	1.2484	26.88	0.94	1.500			
0.4362	27916.51	3.8330	3.8330	1.2714	26.87	0.93	1.500			
0.4400	28163.12	3.8300	3.8300	1.2950	26.86	0.92	1.500			
0.4439	28411.72	3.8270	3.8270	1.3147	26.85	0.91	1.500			
0.4479	28666.35	3.8240	3.8240	1.3397	26.84	0.90	1.500			
0.4520	28926.05	3.8210	3.8210	1.3655	26.83	0.89	1.500			
0.4561	29190.44	3.8180	3.8180	1.3888	26.82	0.88	1.500			
0.4603	29460.99	3.8150	3.8151	1.4181	26.80	0.86	1.500			
0.4647	29739.10	3.8120	3.8119	1.4302	26.79	0.85	1.500			
0.4690	30013.86	3.8090	3.8090	1.4464	26.77	0.83	1.500			
0.4733	30291.21	3.8060	3.8061	1.4765	26.76	0.82	1.500			
0.4778	30578.33	3.8030	3.8030	1.5031	26.75	0.81	1.500			
0.4823	30868.01	3.8000	3.8000	1.5311	26.73	0.79	1.500			
0.4870	31166.67	3.7970	3.7971	1.5576	26.72	0.78	1.500			
0.4917	31471.89	3.7940	3.7939	1.5784	26.71	0.77	1.500			
0.4965	31778.56	3.7910	3.7910	1.5921	26.70	0.76	1.500			
0.5012	32077.14	3.7880	3.7880	1.6316	26.69	0.75	1.500			
0.5062	32396.38	3.7850	3.7849	1.6608	26.68	0.74	1.500			
0.5113	32722.78	3.7820	3.7822	1.6892	26.66	0.72	1.500	0.343	0.477	
0.5164	33051.89	3.7790	3.7791	1.7083	26.64	0.70	1.500			
0.5216	33381.11	3.7760	3.7760	1.7041	26.63	0.69	1.500			
0.5267	33706.82	3.7730	3.7730	1.7003	26.61	0.67	1.500			
0.5317	34028.95	3.7700	3.7700	1.7050	26.59	0.65	1.500			
0.5369	34358.79	3.7670	3.7670	1.7114	26.58	0.64	1.500			
0.5420	34688.51	3.7640	3.7640	1.7164	26.56	0.62	1.500			
0.5472	35018.28	3.7610	3.7610	1.7351	26.54	0.60	1.500			
0.5524	35351.36	3.7580	3.7579	1.7363	26.53	0.59	1.500			
0.5576	35684.93	3.7550	3.7551	1.7534	26.51	0.57	1.500			
0.5629	36024.83	3.7520	3.7520	1.7728	26.50	0.56	1.500			
0.5682	36364.30	3.7490	3.7490	1.7717	26.48	0.54	1.500			
0.5735	36704.53	3.7460	3.7461	1.8072	26.47	0.53	1.500			
0.5790	37055.13	3.7430	3.7428	1.8439	26.45	0.51	1.500			
0.5846	37411.72	3.7400	3.7400	1.8765	26.43	0.49	1.500			
0.5903	37778.28	3.7370	3.7371	1.9070	26.42	0.48	1.500			
0.5961	38147.91	3.7340	3.7340	1.9472	26.40	0.46	1.500			
0.6019	38523.95	3.7310	3.7310	2.0059	26.38	0.44	1.500			
0.6080	38912.13	3.7280	3.7280	2.0627	26.36	0.42	1.500			
0.6143	39317.72	3.7250	3.7250	2.1347	26.34	0.40	1.500			
0.6208	39732.57	3.7220	3.7220	2.2144	26.32	0.38	1.500			
0.6275	40162.27	3.7190	3.7190	2.2785	26.31	0.37	1.500			
0.6345	40608.15	3.7160	3.7161	2.3392	26.29	0.35	1.500			
0.6416	41065.35	3.7130	3.7130	2.3386	26.27	0.33	1.500			
0.6487	41518.64	3.7100	3.7100	2.3355	26.25	0.31	1.500			
0.6558	41973.17	3.7070	3.7069	2.3047	26.24	0.30	1.500			
0.6627	42413.47	3.7040	3.7041	2.1998	26.22	0.28	1.500			
0.6692	42827.57	3.7010	3.7010	2.0639	26.21	0.27	1.500			
0.6751	43206.51	3.6980	3.6980	1.9092	26.19	0.25	1.500			
0.6806	43555.46	3.6950	3.6950	1.7753	26.18	0.24	1.500			
0.6856	43881.27	3.6920	3.6920	1.6694	26.17	0.23	1.500			
0.6905	44192.59	3.6890	3.6890	1.5730	26.15	0.21	1.500			
0.6950	44481.20	3.6860	3.6860	1.5033	26.14	0.20	1.500			
0.6994	44762.07	3.6830	3.6831	1.4404	26.13	0.19	1.500			
0.7036	45031.55	3.6800	3.6799	1.3882	26.12	0.18	1.500			
0.7077	45290.78	3.6770	3.6770	1.3449	26.11	0.17	1.500			
0.7116	45542.72	3.6740	3.6741	1.3093	26.11	0.17	1.500			
0.7155	45789.33	3.6710	3.6710	1.2858	26.10	0.16	1.500			
0.7193	46033.39	3.6680	3.6679	1.2774	26.09	0.15	1.500			
0.7230	46273.11	3.6650	3.6650	1.2677	26.08	0.14	1.500			
0.7268	46515.30	3.6620	3.6620	1.2660	26.08	0.14	1.500			
0.7306	46759.46	3.6590	3.6589	1.2676	26.07	0.13	1.500			
0.7344	47003.69	3.6560	3.6560	1.2689	26.06	0.12	1.500			
0.7382	47247.70	3.6530	3.6530	1.2665	26.05	0.11	1.500			
0.7421	47491.86	3.6500	3.6500	1.2574	26.04	0.10	1.500			
0.7458	47731.51	3.6470	3.6470	1.2501	26.02	0.08	1.500			
0.7496	47972.47	3.6440	3.6440	1.2439	26.01	0.07	1.500			
0.7533	48210.84	3.6410	3.6410	1.2337	26.00	0.06	1.500			
0.7570	48446.74	3.6380	3.6380	1.2202	26.00	0.06	1.500			
0.7606	48679.16	3.6350	3.6350	1.2104	25.99	0.05	1.500			
0.7642	48910.52	3.6320	3.6320	1.2031	25.98	0.04	1.500			
0.7678	49141.95	3.6290	3.6289	1.1917	25.98	0.04	1.500			
0.7714	49368.37	3.6260	3.6260	1.1775	25.97	0.03	1.500			
0.7749	49593.58	3.6230	3.6231	1.1736	25.97	0.03	1.500			
0.7784	49819.77	3.6200	3.6200	1.1607	25.96	0.02	1.500			
0.7819	50042.93	3.6170	3.6169	1.1410	25.96	0.02	1.500			
0.7853	50260.74	3.6140	3.6141	1.1192	25.96	0.02	1.500			
0.7887	50474.04	3.6110	3.6111	1.0971	25.95	0.01	1.500			
0.7919	50683.98	3.6080	3.6080	1.0756	25.95	0.01	1.500			
0.7951	50886.74	3.6050	3.6049	1.0418	25.95	0.01	1.500			
0.7981	51081.53	3.6020	3.6020	1.0187	25.95	0.01	1.500			
0.8012	51277.44	3.5990	3.5990	0.9998	25.94	0.00	1.500			
0.8042	51468.39	3.5960	3.5958	0.9674	25.94	0.00	1.500			
0.8071	51653.49	3.5930	3.5931	0.9318	25.94	-0.00	1.500			
0.8099	51831.95	3.5900	3.5900	0.8763	25.94	-0.00	1.500			
0.8125	52001.01	3.5870	3.5870	0.8145	25.93	-0.01	1.500			
0.8149	52152.57	3.5840	3.5840	0.7247	25.93	-0.01	1.500			
0.8169	52284.41	3.5810	3.5810	0.6343	25.93	-0.01	1.500			
0.8187	52397.32	3.5780	3.5781	0.5494	25.93	-0.01	1.500			
0.8202	52491.93	3.5750	3.5749	0.4654	25.93	-0.01	1.500			
0.8214	52569.14	3.5720	3.5719	0.3919	25.93	-0.01	1.500			
0.8224	52635.13	3.5690	3.5690	0.3379	25.93	-0.01	1.500			
0.8233	52690.97	3.5660	3.5660	0.2914	25.93	-0.01	1.500			
0.8241	52741.28	3.5630	3.5629	0.2574	25.92	-0.02	1.500			
0.8248	52785.55	3.5600	3.5599	0.2248	25.92	-0.02	1.500			
0.8254	52824.34	3.5570	3.5570	0.2009	25.92	-0.02	1.500			
0.8259	52859.39	3.5540	3.5540	0.1805	25.92	-0.02	1.500			
0.8264	52892.18	3.5510	3.5511	0.1628	25.92	-0.02	1.500			
0.8269	52921.55	3.5480	3.5480	0.1479	25.92	-0.02	1.500			
0.8273	52947.81	3.5450	3.5449	0.1319	25.92	-0.02	1.500			
0.8277	52971.65	3.5420	3.5420	0.1171	25.92	-0.02	1.500			
0.8280	52992.76	3.5390	3.5390	0.1028	25.92	-0.02	1.500			
0.8283	53011.13	3.5360	3.5360	0.0885	25.92	-0.02	1.500			
0.8285	53027.04	3.5330	3.5332	0.0743	25.92	-0.02	1.500			
0.8288	53040.04	3.5300	3.5303	0.0594	25.92	-0.02	1.500			
0.8289	53050.01	3.5270	3.5275	0.0444	25.92	-0.02	1.500			
0.8290	53057.08	3.5240	3.5251	0.0293	25.92	-0.02	1.500			
