Ah_balance (normalized)	Ah_balance (mAh)	Voltage - fit (V)	Voltage -  interpolate (V)	dQ/dV (1/V)	Temperature (°C)	Temperature - diff (°C)	Current (C)	R_DC 0ms (mOhm)	R_DC 50ms (mOhm)	R_DC 50 ms PEC (mOhm)
0.2715	17373.72	3.9920	3.9920	0.8526	27.26	1.32	1.500			
0.2740	17536.68	3.9890	3.9890	0.8469	27.26	1.32	1.500			
0.2766	17699.37	3.9860	3.9860	0.8463	27.25	1.31	1.500			
0.2791	17862.05	3.9830	3.9829	0.8443	27.24	1.30	1.500			
0.2816	18022.93	3.9800	3.9800	0.8454	27.24	1.30	1.500			
0.2841	18184.84	3.9770	3.9770	0.8464	27.23	1.29	1.500			
0.2867	18348.13	3.9740	3.9740	0.8509	27.23	1.29	1.500			
0.2892	18511.62	3.9710	3.9710	0.8529	27.22	1.28	1.500			
0.2918	18675.37	3.9680	3.9680	0.8571	27.21	1.27	1.500			
0.2944	18840.59	3.9650	3.9651	0.8631	27.21	1.27	1.500			
0.2970	19006.85	3.9620	3.9620	0.8694	27.20	1.26	1.500			
0.2996	19174.09	3.9590	3.9590	0.8712	27.19	1.25	1.500			
0.3022	19342.08	3.9560	3.9560	0.8760	27.19	1.25	1.500			
0.3048	19510.18	3.9530	3.9531	0.8812	27.18	1.24	1.500			
0.3075	19680.30	3.9500	3.9500	0.8848	27.17	1.23	1.500			
0.3102	19850.19	3.9470	3.9470	0.8872	27.17	1.23	1.500			
0.3128	20020.47	3.9440	3.9440	0.8905	27.16	1.22	1.500			
0.3155	20192.13	3.9410	3.9410	0.8932	27.15	1.21	1.500			
0.3182	20364.26	3.9380	3.9380	0.8996	27.14	1.20	1.500			
0.3209	20536.31	3.9350	3.9350	0.9043	27.14	1.20	1.500			
0.3236	20710.27	3.9320	3.9320	0.9079	27.13	1.19	1.500			
0.3263	20886.09	3.9290	3.9290	0.9126	27.12	1.18	1.500			
0.3291	21061.38	3.9260	3.9260	0.9193	27.11	1.17	1.500			
0.3319	21238.49	3.9230	3.9230	0.9240	27.10	1.16	1.500			
0.3346	21416.83	3.9200	3.9200	0.9299	27.10	1.16	1.500			
0.3374	21594.90	3.9170	3.9170	0.9340	27.09	1.15	1.500			
0.3402	21774.77	3.9140	3.9140	0.9408	27.08	1.14	1.500			
0.3431	21956.46	3.9110	3.9110	0.9491	27.07	1.13	1.500			
0.3459	22139.20	3.9080	3.9080	0.9567	27.07	1.13	1.500			
0.3488	22323.09	3.9050	3.9051	0.9632	27.06	1.12	1.500			
0.3517	22509.77	3.9020	3.9019	0.9710	27.05	1.11	1.500			
0.3546	22696.45	3.8990	3.8990	0.9785	27.04	1.10	1.500			
0.3576	22884.05	3.8960	3.8961	0.9874	27.03	1.09	1.500			
0.3606	23075.26	3.8930	3.8929	0.9927	27.02	1.08	1.500			
0.3635	23266.64	3.8900	3.8900	1.0037	27.01	1.07	1.500			
0.3665	23458.50	3.8870	3.8870	1.0132	27.00	1.06	1.500			
0.3696	23654.39	3.8840	3.8840	1.0244	26.99	1.05	1.500			
0.3727	23854.26	3.8810	3.8809	1.0340	26.98	1.04	1.500			
0.3758	24052.72	3.8780	3.8780	1.0446	26.97	1.03	1.500			
0.3790	24254.67	3.8750	3.8751	1.0521	26.96	1.02	1.500			
0.3822	24459.08	3.8720	3.8720	1.0630	26.95	1.01	1.500			
0.3853	24661.74	3.8690	3.8690	1.0707	26.95	1.01	1.500			
0.3886	24867.54	3.8660	3.8660	1.0810	26.94	1.00	1.500			
0.3918	25076.76	3.8630	3.8631	1.0988	26.93	0.99	1.500			
0.3951	25289.12	3.8600	3.8599	1.1156	26.92	0.98	1.500			
0.3985	25503.79	3.8570	3.8570	1.1306	26.91	0.97	1.500			
0.4019	25723.15	3.8540	3.8540	1.1529	26.90	0.96	1.500			
0.4054	25946.18	3.8510	3.8510	1.1668	26.89	0.95	1.500			
0.4089	26172.78	3.8480	3.8480	1.1816	26.88	0.94	1.500			
0.4125	26402.00	3.8450	3.8450	1.1953	26.86	0.92	1.500			
0.4161	26630.95	3.8420	3.8420	1.2170	26.85	0.91	1.500			
0.4198	26865.68	3.8390	3.8390	1.2353	26.84	0.90	1.500			
0.4235	27105.60	3.8360	3.8359	1.2516	26.83	0.89	1.500			
0.4273	27346.36	3.8330	3.8331	1.2750	26.82	0.88	1.500			
0.4312	27595.23	3.8300	3.8300	1.2947	26.80	0.86	1.500			
0.4351	27846.58	3.8270	3.8270	1.3157	26.79	0.85	1.500			
0.4391	28100.99	3.8240	3.8240	1.3286	26.78	0.84	1.500			
0.4430	28354.39	3.8210	3.8211	1.3446	26.77	0.83	1.500			
0.4471	28613.74	3.8180	3.8180	1.3767	26.75	0.81	1.500			
0.4513	28880.30	3.8150	3.8148	1.4070	26.74	0.80	1.500			
0.4555	29151.82	3.8120	3.8120	1.4282	26.73	0.79	1.500			
0.4599	29430.93	3.8090	3.8090	1.4580	26.71	0.77	1.500			
0.4643	29714.52	3.8060	3.8061	1.4822	26.69	0.75	1.500			
0.4688	30001.58	3.8030	3.8030	1.5027	26.68	0.74	1.500			
0.4733	30291.46	3.8000	3.8000	1.5259	26.66	0.72	1.500			
0.4779	30584.82	3.7970	3.7970	1.5464	26.65	0.71	1.500			
0.4826	30885.84	3.7940	3.7940	1.5715	26.63	0.69	1.500			
0.4874	31191.88	3.7910	3.7910	1.5868	26.62	0.68	1.500			
0.4921	31493.46	3.7880	3.7880	1.6217	26.61	0.67	1.500			
0.4969	31803.30	3.7850	3.7850	1.6550	26.59	0.65	1.500			
0.5020	32125.33	3.7820	3.7818	1.6929	26.58	0.64	1.500	0.345	0.477	
0.5071	32454.78	3.7790	3.7791	1.7104	26.56	0.62	1.500			
0.5124	32793.70	3.7760	3.7761	1.7298	26.54	0.60	1.500			
0.5177	33130.17	3.7730	3.7729	1.7218	26.53	0.59	1.500			
0.5227	33453.71	3.7700	3.7701	1.7114	26.51	0.57	1.500			
0.5278	33781.13	3.7670	3.7670	1.7181	26.50	0.56	1.500			
0.5330	34112.74	3.7640	3.7640	1.7277	26.48	0.54	1.500			
0.5382	34443.28	3.7610	3.7610	1.7310	26.47	0.53	1.500			
0.5434	34776.61	3.7580	3.7580	1.7493	26.46	0.52	1.500			
0.5486	35113.56	3.7550	3.7550	1.7572	26.45	0.51	1.500			
0.5540	35453.48	3.7520	3.7520	1.7698	26.43	0.49	1.500			
0.5593	35792.12	3.7490	3.7491	1.7968	26.41	0.47	1.500			
0.5647	36138.30	3.7460	3.7460	1.8121	26.40	0.46	1.500			
0.5701	36484.88	3.7430	3.7430	1.8467	26.38	0.44	1.500			
0.5757	36843.97	3.7400	3.7399	1.8826	26.36	0.42	1.500			
0.5814	37207.61	3.7370	3.7370	1.9266	26.35	0.41	1.500			
0.5873	37584.22	3.7340	3.7341	1.9641	26.34	0.40	1.500			
0.5932	37964.90	3.7310	3.7309	2.0093	26.33	0.39	1.500			
0.5993	38353.81	3.7280	3.7280	2.0740	26.31	0.37	1.500			
0.6056	38757.08	3.7250	3.7250	2.1327	26.30	0.36	1.500			
0.6120	39170.89	3.7220	3.7221	2.1963	26.28	0.34	1.500			
0.6188	39603.42	3.7190	3.7190	2.2551	26.27	0.33	1.500			
0.6256	40039.78	3.7160	3.7159	2.3011	26.25	0.31	1.500			
0.6326	40489.03	3.7130	3.7130	2.3271	26.23	0.29	1.500			
0.6396	40937.16	3.7100	3.7100	2.3188	26.22	0.28	1.500			
0.6466	41383.89	3.7070	3.7070	2.3067	26.20	0.26	1.500			
0.6535	41823.80	3.7040	3.7040	2.2295	26.19	0.25	1.500			
0.6602	42252.21	3.7010	3.7010	2.1387	26.18	0.24	1.500			
0.6664	42647.78	3.6980	3.6980	1.9851	26.17	0.23	1.500			
0.6720	43011.11	3.6950	3.6950	1.8398	26.16	0.22	1.500			
0.6773	43345.11	3.6920	3.6921	1.7197	26.15	0.21	1.500			
0.6822	43662.80	3.6890	3.6889	1.6196	26.14	0.20	1.500			
0.6869	43960.33	3.6860	3.6860	1.5286	26.13	0.19	1.500			
0.6913	44245.48	3.6830	3.6830	1.4618	26.12	0.18	1.500			
0.6956	44518.11	3.6800	3.6801	1.4016	26.11	0.17	1.500			
0.6997	44779.76	3.6770	3.6770	1.3607	26.10	0.16	1.500			
0.7037	45034.05	3.6740	3.6740	1.3179	26.09	0.15	1.500			
0.7075	45278.17	3.6710	3.6710	1.2912	26.09	0.15	1.500			
0.7113	45524.86	3.6680	3.6680	1.2803	26.08	0.14	1.500			
0.7151	45768.52	3.6650	3.6650	1.2692	26.07	0.13	1.500			
0.7189	46008.23	3.6620	3.6621	1.2718	26.06	0.12	1.500			
0.7227	46250.85	3.6590	3.6590	1.2723	26.05	0.11	1.500			
0.7265	46495.92	3.6560	3.6558	1.2735	26.04	0.10	1.500			
0.7303	46742.08	3.6530	3.6530	1.2809	26.03	0.09	1.500			
0.7342	46989.71	3.6500	3.6501	1.2740	26.03	0.09	1.500			
0.7381	47238.05	3.6470	3.6470	1.2707	26.02	0.08	1.500			
0.7419	47480.81	3.6440	3.6440	1.2572	26.02	0.08	1.500			
0.7456	47719.19	3.6410	3.6411	1.2473	26.01	0.07	1.500			
0.7493	47956.71	3.6380	3.6379	1.2424	26.00	0.06	1.500			
0.7530	48194.26	3.6350	3.6350	1.2351	26.00	0.06	1.500			
0.7567	48428.32	3.6320	3.6319	1.2333	25.99	0.05	1.500			
0.7604	48666.56	3.6290	3.6291	1.2365	25.99	0.05	1.500			
0.7642	48906.91	3.6260	3.6259	1.2292	25.98	0.04	1.500			
0.7679	49143.51	3.6230	3.6230	1.2194	25.97	0.03	1.500			
0.7715	49378.54	3.6200	3.6200	1.2006	25.97	0.03	1.500			
0.7751	49607.62	3.6170	3.6170	1.1821	25.96	0.02	1.500			
0.7786	49832.96	3.6140	3.6140	1.1625	25.96	0.02	1.500			
0.7821	50051.69	3.6110	3.6110	1.1342	25.96	0.02	1.500			
0.7854	50268.40	3.6080	3.6080	1.1106	25.95	0.01	1.500			
0.7888	50481.41	3.6050	3.6050	1.0884	25.95	0.01	1.500			
0.7920	50687.09	3.6020	3.6020	1.0577	25.95	0.01	1.500			
0.7951	50888.15	3.5990	3.5990	1.0313	25.94	0.00	1.500			
0.7982	51082.72	3.5960	3.5960	1.0006	25.94	0.00	1.500			
0.8011	51273.03	3.5930	3.5929	0.9676	25.94	0.00	1.500			
0.8041	51460.61	3.5900	3.5899	0.9191	25.94	-0.00	1.500			
0.8068	51635.68	3.5870	3.5870	0.8554	25.94	-0.00	1.500			
0.8094	51800.20	3.5840	3.5841	0.7791	25.93	-0.01	1.500			
0.8116	51943.74	3.5810	3.5810	0.6885	25.93	-0.01	1.500			
0.8135	52066.02	3.5780	3.5780	0.5951	25.93	-0.01	1.500			
0.8151	52168.72	3.5750	3.5750	0.5053	25.93	-0.01	1.500			
0.8164	52251.33	3.5720	3.5720	0.4286	25.93	-0.01	1.500			
0.8176	52323.43	3.5690	3.5690	0.3686	25.93	-0.01	1.500			
0.8185	52385.99	3.5660	3.5659	0.3118	25.93	-0.01	1.500			
0.8194	52439.08	3.5630	3.5630	0.2735	25.93	-0.01	1.500			
0.8201	52485.31	3.5600	3.5600	0.2415	25.93	-0.01	1.500			
0.8207	52527.66	3.5570	3.5569	0.2167	25.92	-0.02	1.500			
0.8213	52565.34	3.5540	3.5540	0.1928	25.92	-0.02	1.500			
0.8219	52600.40	3.5510	3.5510	0.1756	25.92	-0.02	1.500			
0.8224	52631.82	3.5480	3.5481	0.1595	25.92	-0.02	1.500			
0.8228	52660.74	3.5450	3.5450	0.1435	25.92	-0.02	1.500			
0.8232	52686.57	3.5420	3.5420	0.1291	25.92	-0.02	1.500			
0.8236	52709.60	3.5390	3.5389	0.1137	25.92	-0.02	1.500			
0.8239	52729.84	3.5360	3.5362	0.0992	25.92	-0.02	1.500			
0.8242	52747.93	3.5330	3.5331	0.0861	25.92	-0.02	1.500			
0.8244	52763.10	3.5300	3.5303	0.0719	25.92	-0.02	1.500			
0.8246	52776.03	3.5270	3.5274	0.0572	25.92	-0.02	1.500			
0.8248	52785.55	3.5240	3.5247	0.0419	25.92	-0.02	1.500			
0.8249	52792.14	3.5210	3.5223	0.0267	25.92	-0.02	1.500			
