Ah_balance (normalized)	Ah_balance (mAh)	Voltage - fit (V)	Voltage -  interpolate (V)	dQ/dV (1/V)	Temperature (°C)	Temperature - diff (°C)	Current (C)	R_DC 0ms (mOhm)	R_DC 50ms (mOhm)	R_DC 50 ms PEC (mOhm)
0.2963	18966.15	3.9730	3.9730	0.8677	26.97	1.01	1.500			
0.2990	19134.67	3.9700	3.9700	0.8754	26.97	1.01	1.500			
0.3016	19301.27	3.9670	3.9670	0.8747	26.96	1.00	1.500			
0.3042	19469.94	3.9640	3.9641	0.8762	26.95	0.99	1.500			
0.3068	19637.60	3.9610	3.9609	0.8787	26.95	0.99	1.500			
0.3095	19807.36	3.9580	3.9580	0.8816	26.94	0.98	1.500			
0.3121	19976.24	3.9550	3.9550	0.8825	26.94	0.98	1.500			
0.3148	20145.73	3.9520	3.9520	0.8867	26.93	0.97	1.500			
0.3175	20317.59	3.9490	3.9491	0.8880	26.92	0.96	1.500			
0.3201	20484.76	3.9460	3.9460	0.8942	26.92	0.96	1.500			
0.3228	20658.38	3.9430	3.9430	0.9007	26.91	0.95	1.500			
0.3255	20831.43	3.9400	3.9400	0.9067	26.90	0.94	1.500			
0.3282	21006.41	3.9370	3.9370	0.9160	26.90	0.94	1.500			
0.3310	21183.17	3.9340	3.9341	0.9201	26.89	0.93	1.500			
0.3338	21361.00	3.9310	3.9310	0.9265	26.88	0.92	1.500			
0.3366	21540.80	3.9280	3.9280	0.9271	26.88	0.92	1.500			
0.3393	21717.40	3.9250	3.9250	0.9274	26.87	0.91	1.500			
0.3421	21895.81	3.9220	3.9220	0.9344	26.87	0.91	1.500			
0.3449	22073.88	3.9190	3.9189	0.9405	26.86	0.90	1.500			
0.3477	22254.07	3.9160	3.9160	0.9468	26.86	0.90	1.500			
0.3506	22437.21	3.9130	3.9130	0.9557	26.85	0.89	1.500			
0.3535	22621.60	3.9100	3.9100	0.9648	26.85	0.89	1.500			
0.3564	22809.37	3.9070	3.9070	0.9715	26.84	0.88	1.500			
0.3593	22995.18	3.9040	3.9040	0.9812	26.84	0.88	1.500			
0.3623	23184.14	3.9010	3.9010	0.9917	26.83	0.87	1.500			
0.3652	23374.92	3.8980	3.8980	0.9958	26.83	0.87	1.500			
0.3682	23567.97	3.8950	3.8950	1.0038	26.82	0.86	1.500			
0.3713	23761.87	3.8920	3.8921	1.0120	26.82	0.86	1.500			
0.3743	23956.18	3.8890	3.8890	1.0201	26.81	0.85	1.500			
0.3774	24152.86	3.8860	3.8860	1.0302	26.80	0.84	1.500			
0.3805	24350.23	3.8830	3.8830	1.0363	26.80	0.84	1.500			
0.3836	24549.94	3.8800	3.8800	1.0483	26.79	0.83	1.500			
0.3868	24753.47	3.8770	3.8770	1.0609	26.79	0.83	1.500			
0.3900	24957.94	3.8740	3.8740	1.0708	26.78	0.82	1.500			
0.3932	25163.61	3.8710	3.8710	1.0823	26.77	0.81	1.500			
0.3964	25372.58	3.8680	3.8680	1.0934	26.77	0.81	1.500			
0.3998	25584.04	3.8650	3.8650	1.1065	26.76	0.80	1.500			
0.4031	25797.93	3.8620	3.8620	1.1206	26.76	0.80	1.500			
0.4065	26013.99	3.8590	3.8591	1.1325	26.75	0.79	1.500			
0.4099	26232.25	3.8560	3.8559	1.1493	26.75	0.79	1.500			
0.4133	26453.47	3.8530	3.8530	1.1670	26.74	0.78	1.500			
0.4168	26677.77	3.8500	3.8500	1.1827	26.73	0.77	1.500			
0.4204	26907.99	3.8470	3.8470	1.2005	26.73	0.77	1.500			
0.4241	27140.35	3.8440	3.8440	1.2235	26.72	0.76	1.500			
0.4278	27376.22	3.8410	3.8410	1.2481	26.71	0.75	1.500			
0.4315	27617.34	3.8380	3.8380	1.2757	26.70	0.74	1.500			
0.4354	27865.46	3.8350	3.8350	1.2987	26.69	0.73	1.500			
0.4393	28118.31	3.8320	3.8320	1.3204	26.68	0.72	1.500			
0.4434	28375.71	3.8290	3.8290	1.3440	26.67	0.71	1.500			
0.4474	28635.41	3.8260	3.8261	1.3680	26.65	0.69	1.500			
0.4515	28898.99	3.8230	3.8229	1.3847	26.64	0.68	1.500			
0.4557	29163.90	3.8200	3.8201	1.4190	26.63	0.67	1.500			
0.4599	29435.65	3.8170	3.8170	1.4500	26.61	0.65	1.500			
0.4643	29717.95	3.8140	3.8138	1.4927	26.60	0.64	1.500			
0.4689	30009.81	3.8110	3.8110	1.5266	26.59	0.63	1.500			
0.4735	30307.08	3.8080	3.8081	1.5551	26.58	0.62	1.500			
0.4783	30610.96	3.8050	3.8050	1.6029	26.57	0.61	1.500			
0.4831	30918.76	3.8020	3.8019	1.6309	26.56	0.60	1.500			
0.4880	31231.83	3.7990	3.7990	1.6694	26.54	0.58	1.500			
0.4931	31556.56	3.7960	3.7960	1.7269	26.53	0.57	1.500			
0.4984	31894.73	3.7930	3.7930	1.7809	26.52	0.56	1.500			
0.5038	32241.37	3.7900	3.7900	1.8320	26.51	0.55	1.500			
0.5094	32600.21	3.7870	3.7870	1.8759	26.49	0.53	1.500			
0.5151	32965.14	3.7840	3.7839	1.9140	26.48	0.52	1.500			
0.5209	33338.26	3.7810	3.7810	1.9476	26.46	0.50	1.500			
0.5267	33710.58	3.7780	3.7780	1.9772	26.44	0.48	1.500			
0.5327	34091.26	3.7750	3.7750	2.0121	26.42	0.46	1.500			
0.5388	34481.60	3.7720	3.7718	2.0557	26.40	0.44	1.500			
0.5451	34884.47	3.7690	3.7692	2.1086	26.39	0.43	1.500			
0.5516	35299.95	3.7660	3.7660	2.1252	26.37	0.41	1.500			
0.5579	35707.45	3.7630	3.7629	2.1100	26.36	0.40	1.500	0.352	0.459	
0.5643	36114.36	3.7600	3.7599	2.1039	26.34	0.38	1.500			
0.5706	36516.25	3.7570	3.7570	2.0782	26.33	0.37	1.500			
0.5767	36911.52	3.7540	3.7541	2.0557	26.31	0.35	1.500			
0.5829	37303.60	3.7510	3.7510	2.0277	26.30	0.34	1.500			
0.5889	37692.10	3.7480	3.7479	2.0081	26.28	0.32	1.500			
0.5949	38076.13	3.7450	3.7450	1.9942	26.27	0.31	1.500			
0.6009	38454.44	3.7420	3.7420	1.9959	26.25	0.29	1.500			
0.6068	38834.96	3.7390	3.7390	2.0001	26.24	0.28	1.500			
0.6128	39221.43	3.7360	3.7359	2.0201	26.22	0.26	1.500			
0.6189	39611.33	3.7330	3.7331	2.0472	26.21	0.25	1.500			
0.6251	40003.51	3.7300	3.7300	2.0803	26.20	0.24	1.500			
0.6313	40405.65	3.7270	3.7270	2.1203	26.19	0.23	1.500			
0.6377	40811.71	3.7240	3.7240	2.1863	26.18	0.22	1.500			
0.6444	41241.90	3.7210	3.7210	2.2394	26.17	0.21	1.500			
0.6512	41677.25	3.7180	3.7180	2.3042	26.16	0.20	1.500			
0.6582	42124.78	3.7150	3.7150	2.3770	26.15	0.19	1.500			
0.6654	42584.10	3.7120	3.7120	2.4621	26.14	0.18	1.500			
0.6729	43066.41	3.7090	3.7090	2.5183	26.13	0.17	1.500			
0.6807	43562.78	3.7060	3.7061	2.6140	26.11	0.15	1.500			
0.6887	44073.76	3.7030	3.7029	2.6458	26.10	0.14	1.500			
0.6967	44586.35	3.7000	3.7001	2.6373	26.09	0.13	1.500			
0.7046	45095.66	3.6970	3.6970	2.6188	26.08	0.12	1.500			
0.7126	45605.86	3.6940	3.6939	2.5272	26.06	0.10	1.500			
0.7200	46079.31	3.6910	3.6911	2.3682	26.06	0.10	1.500			
0.7269	46523.58	3.6880	3.6880	2.2029	26.05	0.09	1.500			
0.7332	46927.82	3.6850	3.6849	2.0132	26.04	0.08	1.500			
0.7389	47286.64	3.6820	3.6820	1.8401	26.04	0.08	1.500			
0.7441	47622.83	3.6790	3.6791	1.7084	26.04	0.08	1.500			
0.7490	47938.08	3.6760	3.6759	1.6024	26.04	0.08	1.500			
0.7536	48227.63	3.6730	3.6729	1.5079	26.03	0.07	1.500			
0.7579	48504.54	3.6700	3.6701	1.4284	26.03	0.07	1.500			
0.7620	48770.00	3.6670	3.6669	1.3692	26.03	0.07	1.500			
0.7660	49025.31	3.6640	3.6640	1.3185	26.03	0.07	1.500			
0.7698	49266.83	3.6610	3.6610	1.2825	26.02	0.06	1.500			
0.7736	49508.89	3.6580	3.6580	1.2624	26.02	0.06	1.500			
0.7773	49748.18	3.6550	3.6549	1.2456	26.01	0.05	1.500			
0.7810	49981.22	3.6520	3.6521	1.2504	26.01	0.05	1.500			
0.7847	50220.22	3.6490	3.6491	1.2601	26.01	0.05	1.500			
0.7885	50464.82	3.6460	3.6458	1.2750	26.00	0.04	1.500			
0.7924	50711.19	3.6430	3.6430	1.2833	26.00	0.04	1.500			
0.7962	50958.88	3.6400	3.6401	1.2925	25.99	0.03	1.500			
0.8002	51213.82	3.6370	3.6370	1.3044	25.98	0.02	1.500			
0.8041	51464.17	3.6340	3.6340	1.3000	25.98	0.02	1.500			
0.8080	51711.49	3.6310	3.6310	1.2974	25.97	0.01	1.500			
0.8119	51960.86	3.6280	3.6281	1.2946	25.96	0.00	1.500			
0.8158	52209.70	3.6250	3.6250	1.2918	25.96	-0.00	1.500			
0.8197	52458.41	3.6220	3.6220	1.2932	25.96	-0.00	1.500			
0.8235	52705.16	3.6190	3.6190	1.2891	25.95	-0.01	1.500			
0.8274	52953.90	3.6160	3.6160	1.2852	25.95	-0.01	1.500			
0.8312	53198.50	3.6130	3.6130	1.2811	25.95	-0.01	1.500			
0.8351	53444.27	3.6100	3.6100	1.2763	25.94	-0.02	1.500			
0.8389	53690.93	3.6070	3.6068	1.2669	25.94	-0.02	1.500			
0.8427	53934.33	3.6040	3.6040	1.2536	25.94	-0.02	1.500			
0.8465	54173.75	3.6010	3.6011	1.2345	25.93	-0.03	1.500			
0.8502	54410.68	3.5980	3.5980	1.2177	25.93	-0.03	1.500			
0.8538	54641.17	3.5950	3.5950	1.1969	25.93	-0.03	1.500			
0.8573	54869.24	3.5920	3.5920	1.1816	25.93	-0.03	1.500			
0.8608	55093.07	3.5890	3.5890	1.1747	25.92	-0.04	1.500			
0.8643	55317.30	3.5860	3.5859	1.1702	25.92	-0.04	1.500			
0.8678	55540.77	3.5830	3.5829	1.1667	25.93	-0.03	1.500			
0.8713	55765.20	3.5800	3.5800	1.1604	25.93	-0.03	1.500			
0.8749	55994.66	3.5770	3.5769	1.1304	25.94	-0.02	1.500			
0.8784	56215.39	3.5740	3.5740	1.0775	25.94	-0.02	1.500			
0.8817	56431.78	3.5710	3.5710	0.9910	25.95	-0.01	1.500			
0.8846	56615.93	3.5680	3.5681	0.8698	25.95	-0.01	1.500			
0.8871	56774.75	3.5650	3.5652	0.7425	25.96	-0.00	1.500			
0.8891	56900.79	3.5620	3.5619	0.6074	25.96	-0.00	1.500			
0.8905	56994.04	3.5590	3.5590	0.4926	25.96	0.00	1.500			
0.8918	57072.33	3.5560	3.5560	0.4070	25.96	0.00	1.500			
0.8928	57138.07	3.5530	3.5529	0.3309	25.97	0.01	1.500			
0.8937	57193.93	3.5500	3.5498	0.2862	25.97	0.01	1.500			
0.8944	57240.30	3.5470	3.5470	0.2467	25.97	0.01	1.500			
0.8950	57282.54	3.5440	3.5438	0.2191	25.97	0.01	1.500			
0.8956	57320.15	3.5410	3.5410	0.1932	25.97	0.01	1.500			
0.8962	57354.55	3.5380	3.5380	0.1756	25.97	0.01	1.500			
0.8966	57385.54	3.5350	3.5350	0.1586	25.97	0.01	1.500			
0.8971	57414.25	3.5320	3.5319	0.1432	25.97	0.01	1.500			
0.8975	57440.33	3.5290	3.5290	0.1291	25.97	0.01	1.500			
0.8979	57463.45	3.5260	3.5260	0.1144	25.97	0.01	1.500			
0.8982	57484.29	3.5230	3.5230	0.1010	25.97	0.01	1.500			
0.8985	57502.50	3.5200	3.5201	0.0871	25.97	0.01	1.500			
0.8987	57517.86	3.5170	3.5172	0.0729	25.98	0.02	1.500			
0.8989	57530.59	3.5140	3.5142	0.0582	25.98	0.02	1.500			
0.8991	57540.36	3.5110	3.5116	0.0435	25.98	0.02	1.500			
