Ah_balance (normalized)	Ah_balance (mAh)	Voltage - fit (V)	Voltage -  interpolate (V)	dQ/dV (1/V)	Temperature (°C)	Temperature - diff (°C)	Current (C)	R_DC 0ms (mOhm)	R_DC 50ms (mOhm)	R_DC 50 ms PEC (mOhm)
0.2776	17763.32	3.9910	3.9910	0.8314	27.28	1.32	1.500			
0.2801	17923.90	3.9880	3.9880	0.8381	27.27	1.31	1.500			
0.2826	18084.84	3.9850	3.9850	0.8419	27.27	1.31	1.500			
0.2851	18247.37	3.9820	3.9821	0.8448	27.26	1.30	1.500			
0.2876	18409.57	3.9790	3.9790	0.8465	27.25	1.29	1.500			
0.2902	18574.13	3.9760	3.9760	0.8527	27.25	1.29	1.500			
0.2928	18737.09	3.9730	3.9730	0.8506	27.24	1.28	1.500			
0.2953	18900.79	3.9700	3.9700	0.8525	27.24	1.28	1.500			
0.2979	19064.49	3.9670	3.9670	0.8554	27.23	1.27	1.500			
0.3004	19227.98	3.9640	3.9641	0.8583	27.22	1.26	1.500			
0.3030	19392.56	3.9610	3.9609	0.8655	27.22	1.26	1.500			
0.3056	19558.84	3.9580	3.9579	0.8714	27.21	1.25	1.500			
0.3082	19727.38	3.9550	3.9550	0.8755	27.21	1.25	1.500			
0.3109	19896.62	3.9520	3.9520	0.8819	27.20	1.24	1.500			
0.3136	20068.90	3.9490	3.9490	0.8861	27.20	1.24	1.500			
0.3162	20238.75	3.9460	3.9460	0.8879	27.19	1.23	1.500			
0.3189	20407.96	3.9430	3.9430	0.8894	27.19	1.23	1.500			
0.3215	20578.37	3.9400	3.9401	0.8939	27.19	1.23	1.500			
0.3242	20750.18	3.9370	3.9369	0.8987	27.18	1.22	1.500			
0.3269	20923.52	3.9340	3.9340	0.9041	27.18	1.22	1.500			
0.3297	21097.64	3.9310	3.9310	0.9082	27.17	1.21	1.500			
0.3324	21272.75	3.9280	3.9280	0.9136	27.17	1.21	1.500			
0.3351	21448.30	3.9250	3.9250	0.9182	27.16	1.20	1.500			
0.3379	21624.85	3.9220	3.9220	0.9275	27.15	1.19	1.500			
0.3407	21803.19	3.9190	3.9190	0.9342	27.15	1.19	1.500			
0.3435	21983.49	3.9160	3.9160	0.9416	27.14	1.18	1.500			
0.3463	22166.18	3.9130	3.9130	0.9457	27.13	1.17	1.500			
0.3492	22348.34	3.9100	3.9100	0.9540	27.13	1.17	1.500			
0.3521	22532.37	3.9070	3.9069	0.9594	27.12	1.16	1.500			
0.3549	22716.79	3.9040	3.9040	0.9625	27.11	1.15	1.500			
0.3578	22901.40	3.9010	3.9010	0.9740	27.11	1.15	1.500			
0.3608	23089.86	3.8980	3.8981	0.9834	27.10	1.14	1.500			
0.3637	23279.75	3.8950	3.8949	0.9914	27.09	1.13	1.500			
0.3667	23471.21	3.8920	3.8921	1.0009	27.08	1.12	1.500			
0.3697	23662.38	3.8890	3.8890	1.0076	27.07	1.11	1.500			
0.3728	23857.68	3.8860	3.8860	1.0147	27.06	1.10	1.500			
0.3758	24053.51	3.8830	3.8830	1.0245	27.06	1.10	1.500			
0.3789	24249.24	3.8800	3.8800	1.0340	27.05	1.09	1.500			
0.3820	24449.87	3.8770	3.8770	1.0473	27.04	1.08	1.500			
0.3852	24651.48	3.8740	3.8740	1.0619	27.03	1.07	1.500			
0.3884	24856.23	3.8710	3.8710	1.0754	27.02	1.06	1.500			
0.3916	25064.95	3.8680	3.8680	1.0869	27.02	1.06	1.500			
0.3950	25277.42	3.8650	3.8650	1.0928	27.01	1.05	1.500			
0.3982	25486.53	3.8620	3.8621	1.1054	27.00	1.04	1.500			
0.4015	25698.02	3.8590	3.8590	1.1239	26.99	1.03	1.500			
0.4049	25913.34	3.8560	3.8560	1.1414	26.98	1.02	1.500			
0.4083	26134.10	3.8530	3.8530	1.1548	26.98	1.02	1.500			
0.4118	26358.18	3.8500	3.8500	1.1750	26.97	1.01	1.500			
0.4154	26587.49	3.8470	3.8471	1.1899	26.96	1.00	1.500			
0.4191	26819.98	3.8440	3.8439	1.2030	26.95	0.99	1.500			
0.4226	27048.39	3.8410	3.8410	1.2202	26.94	0.98	1.500			
0.4263	27285.05	3.8380	3.8380	1.2358	26.93	0.97	1.500			
0.4300	27522.79	3.8350	3.8349	1.2576	26.92	0.96	1.500			
0.4339	27766.44	3.8320	3.8321	1.2841	26.91	0.95	1.500			
0.4377	28015.13	3.8290	3.8290	1.3010	26.90	0.94	1.500			
0.4417	28268.54	3.8260	3.8260	1.3179	26.89	0.93	1.500			
0.4456	28520.67	3.8230	3.8230	1.3366	26.87	0.91	1.500			
0.4497	28780.22	3.8200	3.8201	1.3625	26.86	0.90	1.500			
0.4538	29044.33	3.8170	3.8170	1.3887	26.85	0.89	1.500			
0.4580	29311.72	3.8140	3.8140	1.4082	26.84	0.88	1.500			
0.4623	29584.16	3.8110	3.8111	1.4348	26.82	0.86	1.500			
0.4666	29865.12	3.8080	3.8080	1.4621	26.81	0.85	1.500			
0.4711	30148.54	3.8050	3.8050	1.4890	26.80	0.84	1.500			
0.4756	30436.70	3.8020	3.8020	1.5091	26.79	0.83	1.500			
0.4802	30730.38	3.7990	3.7989	1.5384	26.77	0.81	1.500			
0.4848	31027.90	3.7960	3.7961	1.5588	26.76	0.80	1.500			
0.4895	31329.39	3.7930	3.7930	1.5876	26.75	0.79	1.500			
0.4943	31634.56	3.7900	3.7900	1.6050	26.73	0.77	1.500			
0.4991	31943.53	3.7870	3.7870	1.6299	26.72	0.76	1.500	0.339	0.482	
0.5041	32260.57	3.7840	3.7841	1.6600	26.71	0.75	1.500			
0.5091	32581.91	3.7810	3.7810	1.6745	26.69	0.73	1.500			
0.5142	32905.68	3.7780	3.7781	1.6900	26.67	0.71	1.500			
0.5193	33232.11	3.7750	3.7750	1.6904	26.66	0.70	1.500			
0.5243	33557.58	3.7720	3.7720	1.6889	26.64	0.68	1.500			
0.5294	33882.25	3.7690	3.7690	1.6919	26.63	0.67	1.500			
0.5345	34207.79	3.7660	3.7660	1.6992	26.61	0.65	1.500			
0.5396	34531.89	3.7630	3.7630	1.7039	26.60	0.64	1.500			
0.5447	34861.27	3.7600	3.7600	1.7246	26.58	0.62	1.500			
0.5499	35193.47	3.7570	3.7570	1.7364	26.57	0.61	1.500			
0.5551	35529.50	3.7540	3.7540	1.7531	26.55	0.59	1.500			
0.5604	35867.33	3.7510	3.7510	1.7655	26.54	0.58	1.500			
0.5658	36208.61	3.7480	3.7480	1.7795	26.52	0.56	1.500			
0.5711	36549.11	3.7450	3.7450	1.8093	26.51	0.55	1.500			
0.5765	36896.86	3.7420	3.7421	1.8588	26.49	0.53	1.500			
0.5822	37258.43	3.7390	3.7390	1.9122	26.48	0.52	1.500			
0.5880	37631.73	3.7360	3.7360	1.9672	26.46	0.50	1.500			
0.5940	38014.66	3.7330	3.7330	2.0077	26.44	0.48	1.500			
0.6001	38404.28	3.7300	3.7300	2.0700	26.42	0.46	1.500			
0.6063	38805.25	3.7270	3.7269	2.1172	26.40	0.44	1.500			
0.6128	39221.09	3.7240	3.7241	2.1641	26.38	0.42	1.500			
0.6194	39641.82	3.7210	3.7210	2.2129	26.36	0.40	1.500			
0.6261	40070.11	3.7180	3.7180	2.2549	26.34	0.38	1.500			
0.6329	40508.05	3.7150	3.7150	2.2979	26.32	0.36	1.500			
0.6399	40952.81	3.7120	3.7121	2.3277	26.30	0.34	1.500			
0.6469	41403.41	3.7090	3.7090	2.2617	26.28	0.32	1.500			
0.6537	41835.50	3.7060	3.7060	2.1794	26.27	0.31	1.500			
0.6601	42247.30	3.7030	3.7031	2.0600	26.25	0.29	1.500			
0.6661	42630.43	3.7000	3.7000	1.9184	26.24	0.28	1.500			
0.6716	42982.72	3.6970	3.6970	1.7955	26.23	0.27	1.500			
0.6767	43308.56	3.6940	3.6940	1.6568	26.22	0.26	1.500			
0.6815	43616.52	3.6910	3.6909	1.5629	26.21	0.25	1.500			
0.6860	43906.70	3.6880	3.6880	1.4767	26.20	0.24	1.500			
0.6902	44175.85	3.6850	3.6850	1.4123	26.18	0.22	1.500			
0.6944	44439.73	3.6820	3.6819	1.3644	26.17	0.21	1.500			
0.6983	44690.36	3.6790	3.6790	1.3218	26.16	0.20	1.500			
0.7022	44941.66	3.6760	3.6760	1.3008	26.15	0.19	1.500			
0.7061	45188.11	3.6730	3.6730	1.2912	26.14	0.18	1.500			
0.7099	45433.84	3.6700	3.6700	1.2809	26.13	0.17	1.500			
0.7137	45678.60	3.6670	3.6670	1.2743	26.12	0.16	1.500			
0.7175	45922.17	3.6640	3.6640	1.2681	26.11	0.15	1.500			
0.7213	46166.36	3.6610	3.6609	1.2680	26.10	0.14	1.500			
0.7251	46409.34	3.6580	3.6580	1.2605	26.09	0.13	1.500			
0.7289	46650.82	3.6550	3.6550	1.2569	26.08	0.12	1.500			
0.7327	46890.34	3.6520	3.6520	1.2508	26.07	0.11	1.500			
0.7364	47132.58	3.6490	3.6490	1.2454	26.06	0.10	1.500			
0.7402	47370.97	3.6460	3.6459	1.2407	26.05	0.09	1.500			
0.7439	47610.32	3.6430	3.6430	1.2274	26.04	0.08	1.500			
0.7476	47844.53	3.6400	3.6400	1.2145	26.04	0.08	1.500			
0.7512	48075.89	3.6370	3.6371	1.2078	26.03	0.07	1.500			
0.7548	48305.34	3.6340	3.6340	1.1978	26.02	0.06	1.500			
0.7584	48534.44	3.6310	3.6310	1.1921	26.02	0.06	1.500			
0.7619	48763.62	3.6280	3.6280	1.1875	26.01	0.05	1.500			
0.7655	48990.17	3.6250	3.6250	1.1783	26.00	0.04	1.500			
0.7691	49221.60	3.6220	3.6220	1.1633	25.99	0.03	1.500			
0.7725	49443.08	3.6190	3.6190	1.1471	25.99	0.03	1.500			
0.7759	49660.79	3.6160	3.6160	1.1199	25.98	0.02	1.500			
0.7793	49874.30	3.6130	3.6130	1.0914	25.97	0.01	1.500			
0.7825	50080.71	3.6100	3.6101	1.0645	25.97	0.01	1.500			
0.7857	50282.22	3.6070	3.6070	1.0396	25.97	0.01	1.500			
0.7887	50478.45	3.6040	3.6040	1.0125	25.97	0.01	1.500			
0.7917	50671.19	3.6010	3.6010	0.9864	25.97	0.01	1.500			
0.7947	50859.38	3.5980	3.5980	0.9491	25.96	0.00	1.500			
0.7975	51042.05	3.5950	3.5949	0.9096	25.96	0.00	1.500			
0.8003	51217.78	3.5920	3.5921	0.8586	25.96	0.00	1.500			
0.8028	51378.18	3.5890	3.5891	0.7890	25.96	0.00	1.500			
0.8051	51526.60	3.5860	3.5860	0.7072	25.96	0.00	1.500			
0.8071	51655.06	3.5830	3.5830	0.6199	25.96	-0.00	1.500			
0.8088	51763.19	3.5800	3.5801	0.5343	25.96	-0.00	1.500			
0.8102	51855.97	3.5770	3.5769	0.4543	25.96	-0.00	1.500			
0.8114	51932.46	3.5740	3.5739	0.3854	25.96	-0.00	1.500			
0.8125	51997.81	3.5710	3.5709	0.3322	25.96	-0.00	1.500			
0.8133	52052.61	3.5680	3.5680	0.2869	25.96	-0.00	1.500			
0.8141	52102.57	3.5650	3.5649	0.2547	25.96	-0.00	1.500			
0.8148	52145.34	3.5620	3.5619	0.2215	25.96	-0.00	1.500			
0.8154	52184.33	3.5590	3.5589	0.1990	25.96	-0.00	1.500			
0.8159	52219.17	3.5560	3.5560	0.1789	25.96	-0.00	1.500			
0.8164	52251.38	3.5530	3.5531	0.1604	25.96	-0.00	1.500			
0.8169	52280.31	3.5500	3.5500	0.1455	25.96	-0.00	1.500			
0.8173	52306.49	3.5470	3.5469	0.1298	25.96	-0.00	1.500			
0.8176	52329.59	3.5440	3.5440	0.1145	25.96	-0.00	1.500			
0.8180	52350.06	3.5410	3.5410	0.0998	25.96	-0.00	1.500			
0.8182	52367.86	3.5380	3.5381	0.0856	25.96	-0.00	1.500			
0.8185	52383.27	3.5350	3.5352	0.0715	25.96	-0.00	1.500			
0.8187	52396.07	3.5320	3.5324	0.0565	25.96	-0.00	1.500			
0.8188	52405.43	3.5290	3.5296	0.0409	25.95	-0.01	1.500			
0.8189	52411.79	3.5260	3.5272	0.0253	25.95	-0.01	1.500			
