Ah_balance (normalized)	Ah_balance (mAh)	Voltage - fit (V)	Voltage -  interpolate (V)	dQ/dV (1/V)	Temperature (°C)	Temperature - diff (°C)	Current (C)	R_DC 0ms (mOhm)	R_DC 50ms (mOhm)	R_DC 50 ms PEC (mOhm)
0.1879	12025.68	3.9270	3.9268	-0.1053	25.58	0.00	-1.500			
0.1883	12049.38	3.9240	3.9239	-0.1356	25.58	0.00	-1.500			
0.1887	12078.38	3.9210	3.9209	-0.1632	25.58	0.00	-1.500			
0.1893	12112.37	3.9180	3.9181	-0.1903	25.58	0.00	-1.500			
0.1899	12151.66	3.9150	3.9151	-0.2163	25.58	0.00	-1.500			
0.1906	12196.28	3.9120	3.9120	-0.2428	25.58	0.00	-1.500			
0.1913	12245.61	3.9090	3.9090	-0.2672	25.58	0.00	-1.500			
0.1922	12299.47	3.9060	3.9060	-0.2908	25.58	0.00	-1.500			
0.1931	12357.55	3.9030	3.9030	-0.3141	25.58	0.00	-1.500			
0.1941	12420.27	3.9000	3.9000	-0.3376	25.58	0.00	-1.500			
0.1951	12487.30	3.8970	3.8970	-0.3602	25.58	0.00	-1.500			
0.1962	12558.69	3.8940	3.8940	-0.3824	25.58	0.00	-1.500			
0.1974	12634.35	3.8910	3.8910	-0.4045	25.58	0.00	-1.500			
0.1987	12714.35	3.8880	3.8880	-0.4262	25.58	0.00	-1.500			
0.2000	12798.74	3.8850	3.8850	-0.4472	25.58	0.00	-1.500			
0.2014	12886.43	3.8820	3.8820	-0.4670	25.58	0.00	-1.500			
0.2028	12978.45	3.8790	3.8790	-0.4848	25.58	0.00	-1.500			
0.2043	13073.46	3.8760	3.8760	-0.5028	25.58	0.00	-1.500			
0.2058	13171.59	3.8730	3.8730	-0.5201	25.58	0.00	-1.500			
0.2074	13273.13	3.8700	3.8700	-0.5361	25.58	0.00	-1.500			
0.2090	13378.00	3.8670	3.8670	-0.5513	25.58	0.00	-1.500			
0.2107	13485.81	3.8640	3.8640	-0.5637	25.58	0.00	-1.500			
0.2124	13596.06	3.8610	3.8611	-0.5752	25.58	0.00	-1.500			
0.2142	13707.98	3.8580	3.8580	-0.5860	25.58	0.00	-1.500			
0.2160	13821.26	3.8550	3.8550	-0.5946	25.58	0.00	-1.500			
0.2178	13936.22	3.8520	3.8520	-0.6031	25.59	0.01	-1.500			
0.2196	14053.14	3.8490	3.8490	-0.6084	25.59	0.01	-1.500			
0.2214	14170.96	3.8460	3.8460	-0.6122	25.59	0.01	-1.500			
0.2233	14290.23	3.8430	3.8430	-0.6183	25.60	0.02	-1.500			
0.2251	14408.59	3.8400	3.8400	-0.6227	25.60	0.02	-1.500			
0.2270	14527.82	3.8370	3.8370	-0.6259	25.61	0.03	-1.500			
0.2289	14648.10	3.8340	3.8341	-0.6322	25.61	0.03	-1.500			
0.2308	14770.13	3.8310	3.8310	-0.6371	25.61	0.03	-1.500			
0.2327	14893.78	3.8280	3.8279	-0.6442	25.62	0.04	-1.500			
0.2347	15019.27	3.8250	3.8250	-0.6470	25.62	0.04	-1.500			
0.2366	15143.47	3.8220	3.8220	-0.6482	25.62	0.04	-1.500			
0.2386	15269.11	3.8190	3.8190	-0.6484	25.63	0.05	-1.500			
0.2405	15394.35	3.8160	3.8159	-0.6469	25.63	0.05	-1.500			
0.2425	15517.16	3.8130	3.8130	-0.6463	25.64	0.06	-1.500			
0.2444	15641.18	3.8100	3.8100	-0.6458	25.64	0.06	-1.500			
0.2463	15763.89	3.8070	3.8070	-0.6486	25.65	0.07	-1.500			
0.2483	15889.61	3.8040	3.8040	-0.6541	25.66	0.08	-1.500			
0.2502	16014.69	3.8010	3.8010	-0.6563	25.66	0.08	-1.500			
0.2522	16142.10	3.7980	3.7981	-0.6630	25.67	0.09	-1.500			
0.2542	16269.78	3.7950	3.7950	-0.6652	25.67	0.09	-1.500			
0.2562	16397.70	3.7920	3.7919	-0.6665	25.68	0.10	-1.500			
0.2582	16526.84	3.7890	3.7890	-0.6673	25.68	0.10	-1.500			
0.2602	16654.60	3.7860	3.7859	-0.6653	25.69	0.11	-1.500			
0.2622	16782.32	3.7830	3.7831	-0.6691	25.69	0.11	-1.500			
0.2642	16910.80	3.7800	3.7801	-0.6707	25.70	0.12	-1.500			
0.2662	17039.23	3.7770	3.7769	-0.6707	25.70	0.12	-1.500			
0.2683	17168.39	3.7740	3.7740	-0.6734	25.71	0.13	-1.500			
0.2703	17297.76	3.7710	3.7711	-0.6750	25.71	0.13	-1.500			
0.2723	17427.06	3.7680	3.7680	-0.6804	25.72	0.14	-1.500			
0.2744	17558.45	3.7650	3.7650	-0.6824	25.72	0.14	-1.500			
0.2764	17689.20	3.7620	3.7620	-0.6839	25.73	0.15	-1.500			
0.2785	17821.38	3.7590	3.7590	-0.6851	25.73	0.15	-1.500			
0.2805	17953.33	3.7560	3.7559	-0.6870	25.74	0.16	-1.500			
0.2826	18084.46	3.7530	3.7531	-0.6915	25.74	0.16	-1.500			
0.2847	18217.61	3.7500	3.7500	-0.6945	25.75	0.17	-1.500			
0.2867	18350.68	3.7470	3.7470	-0.6942	25.75	0.17	-1.500			
0.2888	18484.88	3.7440	3.7440	-0.7010	25.76	0.18	-1.500			
0.2909	18619.17	3.7410	3.7411	-0.7060	25.77	0.19	-1.500			
0.2931	18755.44	3.7380	3.7379	-0.7112	25.77	0.19	-1.500			
0.2952	18891.71	3.7350	3.7350	-0.7158	25.78	0.20	-1.500			
0.2973	19029.31	3.7320	3.7320	-0.7222	25.79	0.21	-1.500			
0.2995	19170.06	3.7290	3.7290	-0.7297	25.79	0.21	-1.500			
0.3017	19310.89	3.7260	3.7260	-0.7353	25.80	0.22	-1.500			
0.3039	19451.41	3.7230	3.7230	-0.7385	25.81	0.23	-1.500			
0.3061	19593.11	3.7200	3.7200	-0.7489	25.81	0.23	-1.500			
0.3084	19738.45	3.7170	3.7169	-0.7517	25.82	0.24	-1.500			
0.3107	19883.01	3.7140	3.7139	-0.7569	25.83	0.25	-1.500			
0.3129	20028.64	3.7110	3.7111	-0.7636	25.84	0.26	-1.500			
0.3153	20176.34	3.7080	3.7080	-0.7693	25.84	0.26	-1.500			
0.3176	20324.12	3.7050	3.7049	-0.7762	25.85	0.27	-1.500			
0.3199	20473.71	3.7020	3.7020	-0.7832	25.86	0.28	-1.500			
0.3222	20623.81	3.6990	3.6990	-0.7856	25.86	0.28	-1.500			
0.3246	20776.60	3.6960	3.6960	-0.7981	25.87	0.29	-1.500			
0.3270	20929.53	3.6930	3.6930	-0.8056	25.88	0.30	-1.500			
0.3295	21084.97	3.6900	3.6899	-0.8153	25.88	0.30	-1.500			
0.3319	21241.77	3.6870	3.6870	-0.8292	25.89	0.31	-1.500			
0.3344	21402.41	3.6840	3.6841	-0.8382	25.90	0.32	-1.500			
0.3370	21566.36	3.6810	3.6809	-0.8480	25.90	0.32	-1.500			
0.3395	21729.89	3.6780	3.6781	-0.8593	25.91	0.33	-1.500			
0.3421	21893.88	3.6750	3.6750	-0.8671	25.92	0.34	-1.500			
0.3447	22061.57	3.6720	3.6720	-0.8775	25.92	0.34	-1.500			
0.3473	22230.21	3.6690	3.6690	-0.8903	25.93	0.35	-1.500			
0.3500	22402.12	3.6660	3.6660	-0.9039	25.93	0.35	-1.500			
0.3528	22578.26	3.6630	3.6630	-0.9201	25.94	0.36	-1.500			
0.3556	22756.79	3.6600	3.6599	-0.9366	25.94	0.36	-1.500			
0.3584	22937.14	3.6570	3.6570	-0.9468	25.95	0.37	-1.500			
0.3613	23120.78	3.6540	3.6540	-0.9598	25.95	0.37	-1.500			
0.3642	23307.34	3.6510	3.6511	-0.9710	25.96	0.38	-1.500			
0.3671	23493.96	3.6480	3.6480	-0.9800	25.96	0.38	-1.500			
0.3701	23683.59	3.6450	3.6451	-0.9897	25.97	0.39	-1.500			
0.3730	23873.62	3.6420	3.6420	-1.0009	25.97	0.39	-1.500			
0.3760	24065.58	3.6390	3.6390	-1.0168	25.98	0.40	-1.500			
0.3791	24262.57	3.6360	3.6360	-1.0325	25.98	0.40	-1.500			
0.3822	24462.03	3.6330	3.6330	-1.0492	25.99	0.41	-1.500			
0.3854	24665.86	3.6300	3.6300	-1.0690	25.99	0.41	-1.500			
0.3887	24874.04	3.6270	3.6270	-1.0797	26.00	0.42	-1.500			
0.3919	25082.62	3.6240	3.6239	-1.0961	26.00	0.42	-1.500			
0.3952	25293.27	3.6210	3.6210	-1.1114	26.00	0.42	-1.500			
0.3985	25506.45	3.6180	3.6181	-1.1251	26.01	0.43	-1.500			
0.4019	25723.74	3.6150	3.6149	-1.1484	26.01	0.43	-1.500			
0.4054	25946.59	3.6120	3.6120	-1.1650	26.01	0.43	-1.500			
0.4089	26172.66	3.6090	3.6090	-1.1835	26.02	0.44	-1.500			
0.4126	26404.81	3.6060	3.6060	-1.2046	26.02	0.44	-1.500			
0.4162	26635.69	3.6030	3.6030	-1.2187	26.02	0.44	-1.500			
0.4199	26871.90	3.6000	3.6000	-1.2277	26.02	0.44	-1.500			
0.4236	27108.56	3.5970	3.5970	-1.2434	26.03	0.45	-1.500			
0.4273	27347.65	3.5940	3.5940	-1.2547	26.03	0.45	-1.500			
0.4311	27591.05	3.5910	3.5910	-1.2698	26.03	0.45	-1.500			
0.4349	27836.45	3.5880	3.5879	-1.2797	26.04	0.46	-1.500			
0.4388	28081.83	3.5850	3.5850	-1.2962	26.04	0.46	-1.500			
0.4427	28331.01	3.5820	3.5820	-1.3130	26.05	0.47	-1.500			
0.4467	28586.40	3.5790	3.5790	-1.3335	26.05	0.47	-1.500			
0.4506	28840.49	3.5760	3.5760	-1.3579	26.06	0.48	-1.500			
0.4548	29105.62	3.5730	3.5730	-1.3838	26.06	0.48	-1.500			
0.4590	29376.54	3.5700	3.5699	-1.4028	26.07	0.49	-1.500			
0.4633	29648.48	3.5670	3.5670	-1.4201	26.08	0.50	-1.500			
0.4675	29922.13	3.5640	3.5641	-1.4315	26.08	0.50	-1.500			
0.4719	30198.54	3.5610	3.5610	-1.4492	26.09	0.51	-1.500			
0.4762	30477.28	3.5580	3.5580	-1.4683	26.09	0.51	-1.500			
0.4806	30758.22	3.5550	3.5549	-1.4841	26.09	0.51	-1.500			
0.4851	31047.70	3.5520	3.5520	-1.5146	26.10	0.52	-1.500			
0.4897	31341.54	3.5490	3.5491	-1.5339	26.10	0.52	-1.500			
0.4944	31639.12	3.5460	3.5460	-1.5525	26.11	0.53	-1.500			
0.4990	31938.61	3.5430	3.5430	-1.5760	26.12	0.54	-1.500			
0.5038	32240.66	3.5400	3.5400	-1.5928	26.12	0.54	-1.500			
0.5086	32550.26	3.5370	3.5370	-1.6131	26.13	0.55	-1.500			
0.5135	32861.33	3.5340	3.5340	-1.6281	26.14	0.56	-1.500			
0.5184	33176.38	3.5310	3.5310	-1.6428	26.14	0.56	-1.500	0.366	0.528	
0.5234	33494.61	3.5280	3.5280	-1.6595	26.15	0.57	-1.500			
0.5284	33815.47	3.5250	3.5250	-1.6682	26.16	0.58	-1.500			
0.5334	34135.15	3.5220	3.5220	-1.6739	26.16	0.58	-1.500			
0.5384	34458.02	3.5190	3.5191	-1.6858	26.17	0.59	-1.500			
0.5435	34781.70	3.5160	3.5160	-1.6947	26.18	0.60	-1.500			
0.5486	35108.17	3.5130	3.5129	-1.7034	26.19	0.61	-1.500			
0.5537	35435.47	3.5100	3.5100	-1.7134	26.20	0.62	-1.500			
0.5589	35767.66	3.5070	3.5069	-1.7222	26.21	0.63	-1.500			
0.5641	36099.50	3.5040	3.5040	-1.7216	26.22	0.64	-1.500			
0.5692	36430.10	3.5010	3.5010	-1.7203	26.23	0.65	-1.500			
0.5744	36760.70	3.4980	3.4979	-1.7156	26.24	0.66	-1.500			
0.5795	37089.62	3.4950	3.4950	-1.7128	26.26	0.68	-1.500			
0.5847	37418.79	3.4920	3.4920	-1.7039	26.27	0.69	-1.500			
0.5897	37743.92	3.4890	3.4890	-1.6985	26.28	0.70	-1.500			
0.5948	38069.93	3.4860	3.4860	-1.6956	26.29	0.71	-1.500			
0.5999	38395.78	3.4830	3.4829	-1.6979	26.30	0.72	-1.500			
0.6051	38725.38	3.4800	3.4799	-1.6869	26.31	0.73	-1.500			
0.6101	39048.52	3.4770	3.4771	-1.6727	26.32	0.74	-1.500			
0.6151	39367.80	3.4740	3.4741	-1.6556	26.33	0.75	-1.500			
0.6201	39685.97	3.4710	3.4709	-1.6360	26.35	0.77	-1.500			
0.6249	39995.84	3.4680	3.4679	-1.6108	26.36	0.78	-1.500			
0.6297	40303.74	3.4650	3.4650	-1.5868	26.37	0.79	-1.500			
0.6345	40606.38	3.4620	3.4620	-1.5720	26.39	0.81	-1.500			
0.6392	40906.63	3.4590	3.4591	-1.5533	26.40	0.82	-1.500			
0.6438	41201.13	3.4560	3.4559	-1.5293	26.41	0.83	-1.500			
0.6483	41492.39	3.4530	3.4531	-1.5126	26.43	0.85	-1.500			
0.6528	41782.15	3.4500	3.4500	-1.4960	26.44	0.86	-1.500			
0.6573	42069.80	3.4470	3.4470	-1.4794	26.46	0.88	-1.500			
0.6617	42350.07	3.4440	3.4440	-1.4606	26.47	0.89	-1.500			
0.6660	42627.17	3.4410	3.4410	-1.4392	26.49	0.91	-1.500			
0.6703	42901.28	3.4380	3.4380	-1.4239	26.50	0.92	-1.500			
0.6746	43173.51	3.4350	3.4349	-1.4085	26.52	0.94	-1.500			
0.6788	43442.87	3.4320	3.4321	-1.3909	26.53	0.95	-1.500			
0.6830	43709.33	3.4290	3.4290	-1.3753	26.55	0.97	-1.500			
0.6871	43973.72	3.4260	3.4260	-1.3541	26.56	0.98	-1.500			
0.6911	44229.88	3.4230	3.4230	-1.3311	26.58	1.00	-1.500			
0.6950	44482.65	3.4200	3.4200	-1.3116	26.59	1.01	-1.500			
0.6989	44732.36	3.4170	3.4169	-1.2884	26.61	1.03	-1.500			
0.7028	44977.31	3.4140	3.4140	-1.2674	26.63	1.05	-1.500			
0.7066	45219.31	3.4110	3.4111	-1.2436	26.64	1.06	-1.500			
0.7103	45458.79	3.4080	3.4080	-1.2150	26.66	1.08	-1.500			
0.7139	45690.68	3.4050	3.4050	-1.1806	26.68	1.10	-1.500			
0.7174	45912.39	3.4020	3.4021	-1.1444	26.69	1.11	-1.500			
0.7208	46128.11	3.3990	3.3990	-1.1151	26.71	1.13	-1.500			
0.7240	46338.70	3.3960	3.3959	-1.0851	26.72	1.14	-1.500			
0.7273	46544.51	3.3930	3.3930	-1.0543	26.73	1.15	-1.500			
0.7304	46744.20	3.3900	3.3900	-1.0238	26.75	1.17	-1.500			
0.7334	46938.08	3.3870	3.3871	-0.9959	26.76	1.18	-1.500			
0.7364	47127.91	3.3840	3.3839	-0.9648	26.77	1.19	-1.500			
0.7392	47308.79	3.3810	3.3810	-0.9303	26.78	1.20	-1.500			
0.7419	47483.17	3.3780	3.3780	-0.8974	26.79	1.21	-1.500			
0.7446	47653.26	3.3750	3.3750	-0.8683	26.80	1.22	-1.500			
0.7471	47817.12	3.3720	3.3720	-0.8433	26.82	1.24	-1.500			
0.7496	47975.17	3.3690	3.3690	-0.8192	26.83	1.25	-1.500			
0.7520	48129.14	3.3660	3.3660	-0.7929	26.84	1.26	-1.500			
0.7544	48279.86	3.3630	3.3630	-0.7721	26.85	1.27	-1.500			
0.7567	48426.03	3.3600	3.3600	-0.7480	26.86	1.28	-1.500			
0.7589	48567.92	3.3570	3.3570	-0.7245	26.87	1.29	-1.500			
0.7610	48704.98	3.3540	3.3540	-0.7030	26.88	1.30	-1.500			
0.7631	48836.95	3.3510	3.3509	-0.6794	26.88	1.30	-1.500			
0.7651	48963.90	3.3480	3.3480	-0.6592	26.88	1.30	-1.500			
0.7670	49088.87	3.3450	3.3449	-0.6447	26.89	1.31	-1.500			
0.7689	49210.76	3.3420	3.3420	-0.6262	26.90	1.32	-1.500			
0.7708	49329.20	3.3390	3.3389	-0.6093	26.91	1.33	-1.500			
0.7726	49445.04	3.3360	3.3361	-0.5945	26.92	1.34	-1.500			
0.7743	49557.72	3.3330	3.3330	-0.5771	26.93	1.35	-1.500			
0.7761	49667.22	3.3300	3.3299	-0.5613	26.94	1.36	-1.500			
0.7777	49772.99	3.3270	3.3270	-0.5424	26.95	1.37	-1.500			
0.7793	49875.38	3.3240	3.3240	-0.5275	26.96	1.38	-1.500			
0.7809	49975.56	3.3210	3.3210	-0.5148	26.97	1.39	-1.500			
0.7824	50072.19	3.3180	3.3179	-0.4990	26.98	1.40	-1.500			
0.7838	50166.01	3.3150	3.3149	-0.4852	26.98	1.40	-1.500			
0.7853	50257.95	3.3120	3.3121	-0.4732	26.99	1.41	-1.500			
0.7867	50347.37	3.3090	3.3089	-0.4620	27.00	1.42	-1.500			
0.7880	50435.04	3.3060	3.3060	-0.4521	27.00	1.42	-1.500			
0.7894	50520.94	3.3030	3.3029	-0.4402	27.01	1.43	-1.500			
0.7907	50604.19	3.3000	3.3000	-0.4287	27.02	1.44	-1.500			
0.7920	50685.90	3.2970	3.2970	-0.4183	27.03	1.45	-1.500			
0.7932	50764.86	3.2940	3.2939	-0.4065	27.03	1.45	-1.500			
0.7944	50841.15	3.2910	3.2911	-0.3956	27.04	1.46	-1.500			
0.7956	50915.65	3.2880	3.2880	-0.3875	27.05	1.47	-1.500			
0.7967	50989.50	3.2850	3.2850	-0.3784	27.05	1.47	-1.500			
0.7978	51061.67	3.2820	3.2820	-0.3713	27.06	1.48	-1.500			
0.7989	51132.19	3.2790	3.2790	-0.3624	27.07	1.49	-1.500			
0.8000	51201.16	3.2760	3.2761	-0.3534	27.07	1.49	-1.500			
0.8011	51268.05	3.2730	3.2729	-0.3445	27.08	1.50	-1.500			
0.8021	51332.68	3.2700	3.2701	-0.3357	27.08	1.50	-1.500			
0.8031	51395.63	3.2670	3.2670	-0.3272	27.09	1.51	-1.500			
0.8040	51458.02	3.2640	3.2640	-0.3219	27.09	1.51	-1.500			
0.8050	51519.05	3.2610	3.2610	-0.3146	27.10	1.52	-1.500			
0.8059	51578.98	3.2580	3.2580	-0.3097	27.11	1.53	-1.500			
0.8069	51638.47	3.2550	3.2550	-0.3039	27.11	1.53	-1.500			
0.8078	51696.41	3.2520	3.2520	-0.2963	27.12	1.54	-1.500			
0.8086	51752.03	3.2490	3.2490	-0.2906	27.12	1.54	-1.500			
0.8095	51807.37	3.2460	3.2461	-0.2853	27.12	1.54	-1.500			
0.8103	51861.21	3.2430	3.2429	-0.2796	27.13	1.55	-1.500			
0.8112	51914.58	3.2400	3.2400	-0.2746	27.13	1.55	-1.500			
0.8120	51966.61	3.2370	3.2370	-0.2691	27.14	1.56	-1.500			
0.8128	52018.09	3.2340	3.2340	-0.2646	27.14	1.56	-1.500			
0.8136	52068.25	3.2310	3.2311	-0.2614	27.15	1.57	-1.500			
0.8143	52117.56	3.2280	3.2280	-0.2559	27.15	1.57	-1.500			
0.8151	52166.58	3.2250	3.2250	-0.2527	27.16	1.58	-1.500			
0.8159	52214.77	3.2220	3.2219	-0.2491	27.16	1.58	-1.500			
0.8166	52262.41	3.2190	3.2191	-0.2449	27.17	1.59	-1.500			
0.8173	52309.19	3.2160	3.2160	-0.2418	27.18	1.60	-1.500			
0.8180	52355.17	3.2130	3.2130	-0.2375	27.18	1.60	-1.500			
0.8188	52400.37	3.2100	3.2099	-0.2333	27.19	1.61	-1.500			
0.8194	52444.09	3.2070	3.2070	-0.2297	27.19	1.61	-1.500			
0.8201	52488.15	3.2040	3.2041	-0.2273	27.20	1.62	-1.500			
0.8208	52531.50	3.2010	3.2010	-0.2240	27.21	1.63	-1.500			
0.8215	52574.23	3.1980	3.1979	-0.2211	27.21	1.63	-1.500			
0.8221	52616.55	3.1950	3.1950	-0.2180	27.22	1.64	-1.500			
0.8228	52657.90	3.1920	3.1920	-0.2147	27.22	1.64	-1.500			
0.8234	52698.73	3.1890	3.1890	-0.2127	27.23	1.65	-1.500			
0.8241	52739.31	3.1860	3.1860	-0.2101	27.23	1.65	-1.500			
0.8247	52779.04	3.1830	3.1830	-0.2076	27.24	1.66	-1.500			
0.8253	52818.94	3.1800	3.1800	-0.2050	27.24	1.66	-1.500			
0.8259	52858.11	3.1770	3.1771	-0.2030	27.25	1.67	-1.500			
0.8265	52896.85	3.1740	3.1740	-0.2005	27.26	1.68	-1.500			
0.8271	52935.19	3.1710	3.1711	-0.1986	27.26	1.68	-1.500			
0.8277	52973.03	3.1680	3.1679	-0.1959	27.27	1.69	-1.500			
0.8283	53010.10	3.1650	3.1650	-0.1935	27.27	1.69	-1.500			
0.8289	53047.10	3.1620	3.1621	-0.1920	27.28	1.70	-1.500			
0.8294	53083.84	3.1590	3.1590	-0.1900	27.28	1.70	-1.500			
0.8300	53120.34	3.1560	3.1560	-0.1884	27.29	1.71	-1.500			
0.8306	53156.18	3.1530	3.1530	-0.1862	27.29	1.71	-1.500			
0.8311	53191.75	3.1500	3.1501	-0.1843	27.30	1.72	-1.500			
0.8317	53226.92	3.1470	3.1469	-0.1826	27.30	1.72	-1.500			
0.8322	53261.90	3.1440	3.1440	-0.1811	27.31	1.73	-1.500			
0.8328	53296.29	3.1410	3.1409	-0.1793	27.31	1.73	-1.500			
0.8333	53330.59	3.1380	3.1380	-0.1781	27.32	1.74	-1.500			
0.8338	53364.80	3.1350	3.1350	-0.1759	27.32	1.74	-1.500			
0.8343	53398.31	3.1320	3.1320	-0.1745	27.33	1.75	-1.500			
0.8349	53431.62	3.1290	3.1291	-0.1730	27.33	1.75	-1.500			
0.8354	53464.69	3.1260	3.1259	-0.1715	27.34	1.76	-1.500			
0.8359	53497.38	3.1230	3.1230	-0.1701	27.34	1.76	-1.500			
0.8364	53529.79	3.1200	3.1200	-0.1689	27.35	1.77	-1.500			
0.8369	53561.99	3.1170	3.1170	-0.1678	27.35	1.77	-1.500			
0.8374	53594.25	3.1140	3.1140	-0.1662	27.36	1.78	-1.500			
0.8379	53626.19	3.1110	3.1110	-0.1657	27.36	1.78	-1.500			
0.8384	53657.77	3.1080	3.1080	-0.1642	27.36	1.78	-1.500			
0.8389	53689.24	3.1050	3.1050	-0.1629	27.37	1.79	-1.500			
0.8394	53720.46	3.1020	3.1020	-0.1617	27.37	1.79	-1.500			
0.8399	53751.35	3.0990	3.0990	-0.1605	27.38	1.80	-1.500			
0.8403	53782.02	3.0960	3.0960	-0.1593	27.38	1.80	-1.500			
0.8408	53812.44	3.0930	3.0931	-0.1586	27.39	1.81	-1.500			
0.8413	53842.79	3.0900	3.0899	-0.1576	27.39	1.81	-1.500			
0.8418	53872.80	3.0870	3.0870	-0.1558	27.40	1.82	-1.500			
0.8422	53902.65	3.0840	3.0840	-0.1552	27.41	1.83	-1.500			
0.8427	53932.38	3.0810	3.0811	-0.1544	27.41	1.83	-1.500			
0.8432	53961.93	3.0780	3.0780	-0.1534	27.42	1.84	-1.500			
0.8436	53991.37	3.0750	3.0749	-0.1517	27.42	1.84	-1.500			
0.8441	54020.28	3.0720	3.0720	-0.1509	27.43	1.85	-1.500			
0.8445	54049.03	3.0690	3.0691	-0.1497	27.43	1.85	-1.500			
0.8450	54077.70	3.0660	3.0660	-0.1489	27.44	1.86	-1.500			
0.8454	54106.35	3.0630	3.0629	-0.1483	27.44	1.86	-1.500			
0.8459	54134.58	3.0600	3.0600	-0.1468	27.45	1.87	-1.500			
0.8463	54162.68	3.0570	3.0570	-0.1462	27.45	1.87	-1.500			
0.8467	54190.69	3.0540	3.0541	-0.1455	27.46	1.88	-1.500			
0.8472	54218.75	3.0510	3.0510	-0.1449	27.46	1.88	-1.500			
0.8476	54246.39	3.0480	3.0480	-0.1433	27.47	1.89	-1.500			
0.8480	54273.90	3.0450	3.0449	-0.1424	27.48	1.90	-1.500			
0.8485	54301.11	3.0420	3.0421	-0.1411	27.48	1.90	-1.500			
0.8489	54327.95	3.0390	3.0390	-0.1408	27.49	1.91	-1.500			
0.8493	54355.00	3.0360	3.0360	-0.1398	27.49	1.91	-1.500			
0.8497	54381.76	3.0330	3.0329	-0.1389	27.50	1.92	-1.500			
0.8501	54408.18	3.0300	3.0299	-0.1379	27.50	1.92	-1.500			
0.8505	54434.57	3.0270	3.0271	-0.1375	27.51	1.93	-1.500			
0.8510	54461.08	3.0240	3.0238	-0.1370	27.51	1.93	-1.500			
0.8514	54487.30	3.0210	3.0210	-0.1361	27.52	1.94	-1.500			
0.8518	54513.27	3.0180	3.0179	-0.1355	27.52	1.94	-1.500			
0.8522	54539.15	3.0150	3.0150	-0.1341	27.52	1.94	-1.500			
0.8526	54565.12	3.0120	3.0119	-0.1336	27.53	1.95	-1.500			
0.8530	54590.64	3.0090	3.0091	-0.1322	27.53	1.95	-1.500			
0.8534	54615.95	3.0060	3.0061	-0.1303	27.54	1.96	-1.500			
0.8538	54640.80	3.0030	3.0030	-0.1286	27.54	1.96	-1.500			
