Ah_balance (normalized)	Ah_balance (mAh)	Voltage - fit (V)	Voltage -  interpolate (V)	dQ/dV (1/V)	Temperature (°C)	Temperature - diff (°C)	Current (C)	R_DC 0ms (mOhm)	R_DC 50ms (mOhm)	R_DC 50 ms PEC (mOhm)
0.2967	18986.52	3.9730	3.9730	0.8425	27.05	1.10	1.500			
0.2992	19148.25	3.9700	3.9700	0.8490	27.04	1.09	1.500			
0.3018	19314.50	3.9670	3.9669	0.8612	27.04	1.09	1.500			
0.3044	19479.60	3.9640	3.9641	0.8691	27.03	1.08	1.500			
0.3070	19647.10	3.9610	3.9610	0.8774	27.03	1.08	1.500			
0.3097	19817.85	3.9580	3.9580	0.8806	27.02	1.07	1.500			
0.3123	19988.80	3.9550	3.9549	0.8847	27.02	1.07	1.500			
0.3150	20157.61	3.9520	3.9521	0.8878	27.01	1.06	1.500			
0.3176	20327.66	3.9490	3.9490	0.8887	27.01	1.06	1.500			
0.3203	20499.40	3.9460	3.9459	0.8946	27.00	1.05	1.500			
0.3230	20669.35	3.9430	3.9430	0.8978	27.00	1.05	1.500			
0.3257	20842.39	3.9400	3.9400	0.9014	26.99	1.04	1.500			
0.3284	21015.94	3.9370	3.9370	0.9122	26.99	1.04	1.500			
0.3311	21192.32	3.9340	3.9340	0.9175	26.98	1.03	1.500			
0.3339	21369.31	3.9310	3.9309	0.9204	26.97	1.02	1.500			
0.3367	21547.11	3.9280	3.9280	0.9277	26.97	1.02	1.500			
0.3395	21725.22	3.9250	3.9251	0.9330	26.96	1.01	1.500			
0.3423	21904.64	3.9220	3.9220	0.9361	26.96	1.01	1.500			
0.3451	22085.17	3.9190	3.9189	0.9442	26.95	1.00	1.500			
0.3479	22265.27	3.9160	3.9161	0.9455	26.95	1.00	1.500			
0.3508	22449.02	3.9130	3.9130	0.9529	26.94	0.99	1.500			
0.3537	22633.70	3.9100	3.9099	0.9611	26.94	0.99	1.500			
0.3565	22817.69	3.9070	3.9070	0.9647	26.93	0.98	1.500			
0.3594	23002.65	3.9040	3.9040	0.9685	26.92	0.97	1.500			
0.3623	23189.14	3.9010	3.9010	0.9787	26.92	0.97	1.500			
0.3653	23376.77	3.8980	3.8980	0.9870	26.91	0.96	1.500			
0.3682	23567.74	3.8950	3.8950	0.9977	26.90	0.95	1.500			
0.3713	23760.62	3.8920	3.8920	1.0070	26.90	0.95	1.500			
0.3743	23955.68	3.8890	3.8890	1.0144	26.89	0.94	1.500			
0.3774	24150.71	3.8860	3.8860	1.0249	26.88	0.93	1.500			
0.3804	24347.69	3.8830	3.8831	1.0363	26.87	0.92	1.500			
0.3835	24546.75	3.8800	3.8800	1.0469	26.87	0.92	1.500			
0.3867	24749.09	3.8770	3.8770	1.0589	26.86	0.91	1.500			
0.3899	24954.16	3.8740	3.8740	1.0767	26.85	0.90	1.500			
0.3932	25163.25	3.8710	3.8710	1.0879	26.85	0.90	1.500			
0.3965	25373.06	3.8680	3.8680	1.0978	26.84	0.89	1.500			
0.3998	25584.81	3.8650	3.8651	1.1027	26.83	0.88	1.500			
0.4031	25796.49	3.8620	3.8620	1.1159	26.83	0.88	1.500			
0.4064	26012.16	3.8590	3.8589	1.1275	26.82	0.87	1.500			
0.4098	26228.06	3.8560	3.8560	1.1420	26.81	0.86	1.500			
0.4132	26446.57	3.8530	3.8530	1.1652	26.80	0.85	1.500			
0.4168	26674.16	3.8500	3.8500	1.1873	26.79	0.84	1.500			
0.4204	26904.29	3.8470	3.8470	1.2065	26.78	0.83	1.500			
0.4240	27138.60	3.8440	3.8440	1.2242	26.77	0.82	1.500			
0.4277	27375.10	3.8410	3.8411	1.2440	26.76	0.81	1.500			
0.4315	27615.65	3.8380	3.8380	1.2673	26.75	0.80	1.500			
0.4353	27859.24	3.8350	3.8349	1.2869	26.74	0.79	1.500			
0.4391	28105.57	3.8320	3.8320	1.3094	26.73	0.78	1.500			
0.4432	28362.55	3.8290	3.8290	1.3372	26.72	0.77	1.500			
0.4472	28622.65	3.8260	3.8259	1.3608	26.71	0.76	1.500			
0.4513	28885.62	3.8230	3.8230	1.3895	26.70	0.75	1.500			
0.4555	29153.72	3.8200	3.8200	1.4141	26.69	0.74	1.500			
0.4598	29426.18	3.8170	3.8169	1.4457	26.68	0.73	1.500			
0.4642	29706.86	3.8140	3.8140	1.4816	26.67	0.72	1.500			
0.4687	29994.18	3.8110	3.8110	1.5128	26.66	0.71	1.500			
0.4733	30288.43	3.8080	3.8080	1.5554	26.65	0.70	1.500			
0.4780	30590.31	3.8050	3.8050	1.5942	26.64	0.69	1.500			
0.4828	30899.23	3.8020	3.8020	1.6368	26.63	0.68	1.500			
0.4878	31217.57	3.7990	3.7990	1.6793	26.61	0.66	1.500			
0.4929	31546.53	3.7960	3.7960	1.7108	26.60	0.65	1.500			
0.4981	31878.61	3.7930	3.7930	1.7488	26.58	0.63	1.500			
0.5034	32215.62	3.7900	3.7901	1.8065	26.56	0.61	1.500			
0.5089	32567.71	3.7870	3.7870	1.8555	26.55	0.60	1.500			
0.5145	32927.25	3.7840	3.7841	1.9127	26.53	0.58	1.500			
0.5204	33304.83	3.7810	3.7810	1.9396	26.52	0.57	1.500			
0.5263	33682.22	3.7780	3.7780	1.9892	26.50	0.55	1.500			
0.5323	34066.49	3.7750	3.7751	2.0006	26.49	0.54	1.500			
0.5384	34454.95	3.7720	3.7721	2.0352	26.47	0.52	1.500			
0.5445	34847.13	3.7690	3.7691	2.0655	26.45	0.50	1.500			
0.5507	35247.89	3.7660	3.7659	2.1181	26.43	0.48	1.500			
0.5572	35659.68	3.7630	3.7632	2.1148	26.41	0.46	1.500	0.359	0.461	
0.5636	36072.23	3.7600	3.7601	2.1310	26.39	0.44	1.500			
0.5702	36490.84	3.7570	3.7569	2.0824	26.38	0.43	1.500			
0.5763	36884.53	3.7540	3.7540	2.0465	26.36	0.41	1.500			
0.5822	37260.53	3.7510	3.7511	2.0167	26.35	0.40	1.500			
0.5882	37646.64	3.7480	3.7481	2.0117	26.33	0.38	1.500			
0.5943	38032.36	3.7450	3.7450	1.9925	26.32	0.37	1.500			
0.6003	38417.17	3.7420	3.7421	2.0047	26.30	0.35	1.500			
0.6063	38800.84	3.7390	3.7390	2.0042	26.28	0.33	1.500			
0.6123	39185.47	3.7360	3.7360	2.0144	26.27	0.32	1.500			
0.6183	39572.85	3.7330	3.7331	2.0364	26.25	0.30	1.500			
0.6245	39965.53	3.7300	3.7300	2.0625	26.24	0.29	1.500			
0.6306	40358.72	3.7270	3.7271	2.0955	26.22	0.27	1.500			
0.6370	40766.30	3.7240	3.7240	2.1534	26.21	0.26	1.500			
0.6435	41185.75	3.7210	3.7210	2.1980	26.20	0.25	1.500			
0.6502	41611.05	3.7180	3.7181	2.2853	26.18	0.23	1.500			
0.6571	42055.46	3.7150	3.7149	2.3809	26.17	0.22	1.500			
0.6643	42516.85	3.7120	3.7120	2.4618	26.15	0.20	1.500			
0.6719	43003.87	3.7090	3.7090	2.5444	26.14	0.19	1.500			
0.6797	43501.54	3.7060	3.7060	2.6073	26.12	0.17	1.500			
0.6877	44012.08	3.7030	3.7030	2.6596	26.11	0.16	1.500			
0.6958	44532.56	3.7000	3.7000	2.6614	26.09	0.14	1.500			
0.7037	45037.75	3.6970	3.6970	2.6232	26.07	0.12	1.500			
0.7115	45537.97	3.6940	3.6937	2.5314	26.06	0.11	1.500			
0.7191	46023.45	3.6910	3.6911	2.4104	26.05	0.10	1.500			
0.7263	46482.05	3.6880	3.6879	2.2630	26.05	0.10	1.500			
0.7325	46881.08	3.6850	3.6851	2.0220	26.04	0.09	1.500			
0.7382	47244.42	3.6820	3.6820	1.8456	26.04	0.09	1.500			
0.7435	47582.08	3.6790	3.6790	1.7149	26.03	0.08	1.500			
0.7484	47897.20	3.6760	3.6760	1.6150	26.03	0.08	1.500			
0.7530	48189.99	3.6730	3.6730	1.5228	26.02	0.07	1.500			
0.7574	48474.32	3.6700	3.6700	1.4493	26.01	0.06	1.500			
0.7616	48743.64	3.6670	3.6669	1.3852	26.01	0.06	1.500			
0.7656	49000.67	3.6640	3.6641	1.3277	26.00	0.05	1.500			
0.7695	49247.42	3.6610	3.6610	1.2870	26.00	0.05	1.500			
0.7732	49487.68	3.6580	3.6580	1.2564	26.00	0.05	1.500			
0.7769	49720.14	3.6550	3.6550	1.2356	25.99	0.04	1.500			
0.7805	49954.06	3.6520	3.6519	1.2435	25.99	0.04	1.500			
0.7843	50192.76	3.6490	3.6490	1.2512	25.98	0.03	1.500			
0.7880	50433.96	3.6460	3.6460	1.2639	25.98	0.03	1.500			
0.7919	50678.91	3.6430	3.6430	1.2805	25.97	0.02	1.500			
0.7958	50928.78	3.6400	3.6400	1.2909	25.97	0.02	1.500			
0.7997	51178.46	3.6370	3.6369	1.2950	25.96	0.01	1.500			
0.8036	51429.04	3.6340	3.6340	1.2959	25.96	0.01	1.500			
0.8074	51676.55	3.6310	3.6311	1.2903	25.95	0.00	1.500			
0.8113	51925.31	3.6280	3.6279	1.2911	25.95	-0.00	1.500			
0.8152	52170.72	3.6250	3.6250	1.2902	25.95	-0.00	1.500			
0.8190	52416.90	3.6220	3.6220	1.2832	25.94	-0.01	1.500			
0.8229	52664.88	3.6190	3.6190	1.2802	25.94	-0.01	1.500			
0.8268	52912.89	3.6160	3.6160	1.2798	25.93	-0.02	1.500			
0.8306	53157.53	3.6130	3.6130	1.2747	25.93	-0.02	1.500			
0.8344	53402.09	3.6100	3.6100	1.2676	25.92	-0.03	1.500			
0.8382	53644.46	3.6070	3.6070	1.2603	25.92	-0.03	1.500			
0.8420	53886.35	3.6040	3.6039	1.2449	25.92	-0.03	1.500			
0.8457	54125.69	3.6010	3.6010	1.2394	25.92	-0.03	1.500			
0.8494	54363.22	3.5980	3.5980	1.2186	25.93	-0.02	1.500			
0.8531	54595.38	3.5950	3.5950	1.2023	25.93	-0.02	1.500			
0.8566	54824.03	3.5920	3.5919	1.1849	25.93	-0.02	1.500			
0.8601	55049.50	3.5890	3.5890	1.1760	25.93	-0.02	1.500			
0.8636	55272.39	3.5860	3.5860	1.1672	25.93	-0.02	1.500			
0.8671	55496.39	3.5830	3.5830	1.1650	25.93	-0.02	1.500			
0.8706	55718.35	3.5800	3.5801	1.1576	25.94	-0.01	1.500			
0.8742	55948.56	3.5770	3.5769	1.1293	25.94	-0.01	1.500			
0.8777	56171.28	3.5740	3.5739	1.0771	25.94	-0.01	1.500			
0.8810	56384.87	3.5710	3.5710	1.0053	25.95	-0.00	1.500			
0.8840	56575.14	3.5680	3.5681	0.8862	25.95	-0.00	1.500			
0.8865	56738.80	3.5650	3.5650	0.7623	25.95	0.00	1.500			
0.8886	56868.02	3.5620	3.5621	0.6348	25.95	0.00	1.500			
0.8901	56967.59	3.5590	3.5590	0.5094	25.95	0.00	1.500			
0.8914	57048.40	3.5560	3.5559	0.4224	25.95	0.00	1.500			
0.8924	57113.58	3.5530	3.5530	0.3467	25.96	0.01	1.500			
0.8933	57171.55	3.5500	3.5499	0.2902	25.96	0.01	1.500			
0.8941	57220.32	3.5470	3.5469	0.2534	25.96	0.01	1.500			
0.8947	57262.35	3.5440	3.5440	0.2213	25.96	0.01	1.500			
0.8953	57300.85	3.5410	3.5411	0.1981	25.96	0.01	1.500			
0.8959	57336.60	3.5380	3.5379	0.1776	25.96	0.01	1.500			
0.8964	57367.65	3.5350	3.5351	0.1602	25.96	0.01	1.500			
0.8968	57396.02	3.5320	3.5320	0.1428	25.96	0.01	1.500			
0.8972	57421.97	3.5290	3.5289	0.1284	25.96	0.01	1.500			
0.8976	57445.26	3.5260	3.5260	0.1142	25.96	0.01	1.500			
0.8979	57465.39	3.5230	3.5230	0.0994	25.96	0.01	1.500			
0.8982	57483.54	3.5200	3.5202	0.0861	25.96	0.01	1.500			
0.8984	57498.70	3.5170	3.5172	0.0718	25.96	0.01	1.500			
0.8986	57511.45	3.5140	3.5143	0.0564	25.96	0.01	1.500			
0.8988	57520.81	3.5110	3.5117	0.0411	25.96	0.01	1.500			
