Ah_balance (normalized)	Ah_balance (mAh)	Voltage - fit (V)	Voltage -  interpolate (V)	dQ/dV (1/V)	Temperature (°C)	Temperature - diff (°C)	Current (C)	R_DC 0ms (mOhm)	R_DC 50ms (mOhm)	R_DC 50 ms PEC (mOhm)
0.2791	17863.38	3.9740	3.9740	0.8685	27.02	1.03	1.500			
0.2817	18029.35	3.9710	3.9710	0.8670	27.02	1.03	1.500			
0.2844	18199.22	3.9680	3.9679	0.8771	27.01	1.02	1.500			
0.2870	18366.67	3.9650	3.9650	0.8805	27.01	1.02	1.500			
0.2896	18536.27	3.9620	3.9620	0.8839	27.00	1.01	1.500			
0.2923	18706.32	3.9590	3.9590	0.8898	27.00	1.01	1.500			
0.2950	18878.69	3.9560	3.9560	0.8872	27.00	1.01	1.500			
0.2976	19048.52	3.9530	3.9530	0.8900	26.99	1.00	1.500			
0.3003	19219.30	3.9500	3.9501	0.8918	26.99	1.00	1.500			
0.3030	19391.77	3.9470	3.9470	0.8973	26.98	0.99	1.500			
0.3057	19562.36	3.9440	3.9439	0.8993	26.98	0.99	1.500			
0.3084	19736.33	3.9410	3.9410	0.9047	26.97	0.98	1.500			
0.3111	19909.59	3.9380	3.9380	0.9144	26.97	0.98	1.500			
0.3139	20087.30	3.9350	3.9351	0.9238	26.97	0.98	1.500			
0.3166	20264.84	3.9320	3.9319	0.9267	26.96	0.97	1.500			
0.3194	20444.05	3.9290	3.9291	0.9340	26.96	0.97	1.500			
0.3223	20624.40	3.9260	3.9260	0.9349	26.95	0.96	1.500			
0.3251	20803.87	3.9230	3.9230	0.9391	26.95	0.96	1.500			
0.3279	20985.05	3.9200	3.9200	0.9435	26.95	0.96	1.500			
0.3307	21164.22	3.9170	3.9169	0.9502	26.94	0.95	1.500			
0.3336	21347.88	3.9140	3.9140	0.9579	26.94	0.95	1.500			
0.3364	21532.14	3.9110	3.9110	0.9661	26.94	0.95	1.500			
0.3394	21718.49	3.9080	3.9080	0.9750	26.93	0.94	1.500			
0.3423	21907.17	3.9050	3.9050	0.9856	26.93	0.94	1.500			
0.3453	22097.06	3.9020	3.9019	0.9884	26.92	0.93	1.500			
0.3483	22288.16	3.8990	3.8991	0.9918	26.92	0.93	1.500			
0.3512	22477.99	3.8960	3.8960	0.9976	26.91	0.92	1.500			
0.3542	22670.11	3.8930	3.8930	1.0119	26.91	0.92	1.500			
0.3573	22865.99	3.8900	3.8899	1.0137	26.90	0.91	1.500			
0.3603	23059.95	3.8870	3.8870	1.0224	26.89	0.90	1.500			
0.3634	23256.26	3.8840	3.8841	1.0346	26.89	0.90	1.500			
0.3665	23457.21	3.8810	3.8810	1.0486	26.88	0.89	1.500			
0.3697	23658.31	3.8780	3.8780	1.0611	26.88	0.89	1.500			
0.3728	23861.27	3.8750	3.8750	1.0712	26.87	0.88	1.500			
0.3761	24068.40	3.8720	3.8721	1.0871	26.87	0.88	1.500			
0.3794	24280.99	3.8690	3.8689	1.1061	26.86	0.87	1.500			
0.3827	24494.65	3.8660	3.8660	1.1074	26.86	0.87	1.500			
0.3861	24707.41	3.8630	3.8630	1.1153	26.85	0.86	1.500			
0.3894	24920.19	3.8600	3.8601	1.1316	26.85	0.86	1.500			
0.3928	25138.15	3.8570	3.8567	1.1460	26.84	0.85	1.500			
0.3962	25358.11	3.8540	3.8540	1.1620	26.83	0.84	1.500			
0.3997	25582.31	3.8510	3.8510	1.1847	26.82	0.83	1.500			
0.4033	25814.06	3.8480	3.8481	1.2070	26.81	0.82	1.500			
0.4070	26047.88	3.8450	3.8450	1.2246	26.81	0.82	1.500			
0.4107	26284.81	3.8420	3.8420	1.2452	26.80	0.81	1.500			
0.4145	26525.39	3.8390	3.8391	1.2641	26.79	0.80	1.500			
0.4183	26769.70	3.8360	3.8360	1.2858	26.78	0.79	1.500			
0.4221	27017.26	3.8330	3.8330	1.3107	26.77	0.78	1.500			
0.4261	27269.20	3.8300	3.8301	1.3370	26.76	0.77	1.500			
0.4302	27530.82	3.8270	3.8269	1.3579	26.75	0.76	1.500			
0.4343	27793.62	3.8240	3.8240	1.3858	26.74	0.75	1.500			
0.4385	28061.51	3.8210	3.8211	1.4179	26.73	0.74	1.500			
0.4427	28335.54	3.8180	3.8179	1.4480	26.72	0.73	1.500			
0.4471	28615.88	3.8150	3.8149	1.4833	26.71	0.72	1.500			
0.4516	28903.56	3.8120	3.8120	1.5121	26.70	0.71	1.500			
0.4562	29197.52	3.8090	3.8090	1.5510	26.69	0.70	1.500			
0.4609	29499.48	3.8060	3.8060	1.5934	26.68	0.69	1.500			
0.4657	29805.78	3.8030	3.8030	1.6378	26.66	0.67	1.500			
0.4707	30124.95	3.8000	3.8000	1.6768	26.65	0.66	1.500			
0.4758	30452.48	3.7970	3.7969	1.7211	26.63	0.64	1.500			
0.4811	30788.49	3.7940	3.7941	1.7690	26.61	0.62	1.500			
0.4865	31133.41	3.7910	3.7910	1.8141	26.58	0.59	1.500			
0.4919	31484.30	3.7880	3.7879	1.8666	26.56	0.57	1.500			
0.4976	31843.83	3.7850	3.7850	1.9118	26.55	0.56	1.500			
0.5034	32219.22	3.7820	3.7820	1.9599	26.53	0.54	1.500			
0.5094	32602.95	3.7790	3.7790	1.9945	26.52	0.53	1.500			
0.5154	32987.70	3.7760	3.7760	2.0373	26.51	0.52	1.500			
0.5216	33381.14	3.7730	3.7730	2.0646	26.49	0.50	1.500			
0.5279	33786.40	3.7700	3.7700	2.0766	26.47	0.48	1.500			
0.5341	34184.56	3.7670	3.7671	2.1428	26.45	0.46	1.500			
0.5406	34601.20	3.7640	3.7638	2.1680	26.43	0.44	1.500			
0.5472	35021.16	3.7610	3.7611	2.1602	26.41	0.42	1.500	0.355	0.452	
0.5538	35443.45	3.7580	3.7581	2.1616	26.38	0.39	1.500			
0.5602	35853.39	3.7550	3.7551	2.1182	26.36	0.37	1.500			
0.5663	36244.49	3.7520	3.7518	2.0733	26.34	0.35	1.500			
0.5726	36645.93	3.7490	3.7491	2.0790	26.33	0.34	1.500			
0.5789	37047.42	3.7460	3.7460	2.0756	26.31	0.32	1.500			
0.5851	37446.41	3.7430	3.7430	2.0676	26.30	0.31	1.500			
0.5911	37831.39	3.7400	3.7400	2.0499	26.28	0.29	1.500			
0.5972	38222.95	3.7370	3.7370	2.0652	26.27	0.28	1.500			
0.6035	38621.99	3.7340	3.7339	2.0561	26.25	0.26	1.500			
0.6097	39019.28	3.7310	3.7311	2.1027	26.23	0.24	1.500			
0.6160	39425.08	3.7280	3.7279	2.1554	26.21	0.22	1.500			
0.6226	39843.70	3.7250	3.7251	2.1927	26.19	0.20	1.500			
0.6291	40265.09	3.7220	3.7220	2.2248	26.18	0.19	1.500			
0.6360	40702.01	3.7190	3.7191	2.2889	26.16	0.17	1.500			
0.6428	41138.64	3.7160	3.7159	2.3568	26.15	0.16	1.500			
0.6500	41598.84	3.7130	3.7130	2.4151	26.14	0.15	1.500			
0.6574	42072.96	3.7100	3.7100	2.5253	26.12	0.13	1.500			
0.6651	42564.20	3.7070	3.7070	2.6014	26.11	0.12	1.500			
0.6730	43072.93	3.7040	3.7041	2.7082	26.09	0.10	1.500			
0.6812	43598.29	3.7010	3.7010	2.7312	26.08	0.09	1.500			
0.6895	44127.68	3.6980	3.6980	2.7432	26.07	0.08	1.500			
0.6979	44662.89	3.6950	3.6951	2.6848	26.06	0.07	1.500			
0.7060	45183.41	3.6920	3.6920	2.5672	26.05	0.06	1.500			
0.7136	45670.19	3.6890	3.6889	2.3883	26.04	0.05	1.500			
0.7203	46096.95	3.6860	3.6860	2.1645	26.04	0.05	1.500			
0.7264	46488.51	3.6830	3.6830	1.9681	26.03	0.04	1.500			
0.7319	46842.46	3.6800	3.6800	1.8215	26.03	0.04	1.500			
0.7371	47171.60	3.6770	3.6770	1.6812	26.02	0.03	1.500			
0.7418	47477.75	3.6740	3.6740	1.5750	26.02	0.03	1.500			
0.7464	47770.18	3.6710	3.6710	1.4917	26.02	0.03	1.500			
0.7507	48046.20	3.6680	3.6680	1.4219	26.01	0.02	1.500			
0.7549	48310.87	3.6650	3.6649	1.3460	26.01	0.02	1.500			
0.7587	48556.94	3.6620	3.6621	1.2992	26.01	0.02	1.500			
0.7625	48799.56	3.6590	3.6590	1.2756	26.00	0.01	1.500			
0.7662	49037.75	3.6560	3.6560	1.2517	26.00	0.01	1.500			
0.7699	49272.52	3.6530	3.6530	1.2519	26.00	0.01	1.500			
0.7736	49510.61	3.6500	3.6501	1.2548	25.99	0.00	1.500			
0.7774	49753.69	3.6470	3.6469	1.2654	25.98	-0.01	1.500			
0.7812	49999.85	3.6440	3.6440	1.2841	25.98	-0.01	1.500			
0.7851	50243.89	3.6410	3.6411	1.2859	25.97	-0.02	1.500			
0.7890	50493.14	3.6380	3.6380	1.2994	25.97	-0.02	1.500			
0.7929	50745.74	3.6350	3.6350	1.3088	25.96	-0.03	1.500			
0.7968	50997.72	3.6320	3.6320	1.3108	25.95	-0.04	1.500			
0.8008	51251.90	3.6290	3.6290	1.3183	25.95	-0.04	1.500			
0.8048	51506.76	3.6260	3.6260	1.3100	25.95	-0.04	1.500			
0.8087	51757.06	3.6230	3.6230	1.3051	25.94	-0.05	1.500			
0.8126	52005.94	3.6200	3.6200	1.3047	25.94	-0.05	1.500			
0.8165	52255.62	3.6170	3.6170	1.3019	25.93	-0.06	1.500			
0.8204	52505.19	3.6140	3.6140	1.3016	25.93	-0.06	1.500			
0.8243	52754.82	3.6110	3.6110	1.3003	25.93	-0.06	1.500			
0.8282	53007.87	3.6080	3.6080	1.2919	25.93	-0.06	1.500			
0.8321	53257.15	3.6050	3.6050	1.2891	25.92	-0.07	1.500			
0.8360	53503.00	3.6020	3.6020	1.2749	25.92	-0.07	1.500			
0.8398	53745.73	3.5990	3.5990	1.2620	25.92	-0.07	1.500			
0.8435	53987.14	3.5960	3.5960	1.2497	25.92	-0.07	1.500			
0.8473	54225.47	3.5930	3.5930	1.2355	25.92	-0.07	1.500			
0.8510	54461.85	3.5900	3.5899	1.2224	25.92	-0.07	1.500			
0.8546	54696.58	3.5870	3.5870	1.2090	25.92	-0.07	1.500			
0.8582	54924.39	3.5840	3.5840	1.2006	25.92	-0.07	1.500			
0.8618	55153.86	3.5810	3.5810	1.1968	25.92	-0.07	1.500			
0.8654	55384.21	3.5780	3.5780	1.1878	25.92	-0.07	1.500			
0.8690	55615.18	3.5750	3.5749	1.1649	25.92	-0.07	1.500			
0.8726	55846.83	3.5720	3.5720	1.0908	25.93	-0.06	1.500			
0.8760	56064.20	3.5690	3.5691	1.0098	25.94	-0.05	1.500			
0.8790	56254.20	3.5660	3.5662	0.8804	25.95	-0.04	1.500			
0.8815	56414.92	3.5630	3.5630	0.7420	25.96	-0.03	1.500			
0.8834	56535.68	3.5600	3.5600	0.6061	25.96	-0.03	1.500			
0.8849	56631.59	3.5570	3.5569	0.4885	25.97	-0.02	1.500			
0.8860	56705.52	3.5540	3.5541	0.3945	25.97	-0.02	1.500			
0.8870	56770.10	3.5510	3.5510	0.3334	25.97	-0.02	1.500			
0.8879	56824.16	3.5480	3.5479	0.2751	25.98	-0.01	1.500			
0.8886	56870.52	3.5450	3.5449	0.2414	25.98	-0.01	1.500			
0.8892	56910.35	3.5420	3.5420	0.2123	25.98	-0.01	1.500			
0.8898	56947.20	3.5390	3.5390	0.1907	25.98	-0.01	1.500			
0.8903	56982.02	3.5360	3.5359	0.1733	25.98	-0.01	1.500			
0.8908	57012.81	3.5330	3.5331	0.1570	25.98	-0.01	1.500			
0.8913	57041.30	3.5300	3.5300	0.1418	25.99	-0.00	1.500			
0.8917	57067.00	3.5270	3.5270	0.1272	25.99	-0.00	1.500			
0.8920	57090.06	3.5240	3.5241	0.1130	25.99	-0.00	1.500			
0.8923	57110.24	3.5210	3.5210	0.0988	25.99	-0.00	1.500			
0.8926	57128.14	3.5180	3.5180	0.0850	25.99	0.00	1.500			
0.8929	57143.09	3.5150	3.5152	0.0707	25.99	0.00	1.500			
0.8931	57155.39	3.5120	3.5124	0.0558	25.99	0.00	1.500			
0.8932	57164.69	3.5090	3.5097	0.0411	25.99	0.00	1.500			
