Ah_balance (normalized)	Ah_balance (mAh)	Voltage - fit (V)	Voltage -  interpolate (V)	dQ/dV (1/V)	Temperature (°C)	Temperature - diff (°C)	Current (C)	R_DC 0ms (mOhm)	R_DC 50ms (mOhm)	R_DC 50 ms PEC (mOhm)
0.2858	18291.73	3.9890	3.9890	0.8555	27.11	1.14	1.500			
0.2883	18453.75	3.9860	3.9861	0.8379	27.10	1.13	1.500			
0.2908	18614.19	3.9830	3.9831	0.8402	27.09	1.12	1.500			
0.2934	18775.69	3.9800	3.9799	0.8473	27.09	1.12	1.500			
0.2959	18938.90	3.9770	3.9770	0.8460	27.08	1.11	1.500			
0.2985	19102.03	3.9740	3.9740	0.8511	27.08	1.11	1.500			
0.3011	19268.23	3.9710	3.9711	0.8528	27.07	1.10	1.500			
0.3036	19430.61	3.9680	3.9679	0.8528	27.06	1.09	1.500			
0.3062	19593.85	3.9650	3.9650	0.8549	27.06	1.09	1.500			
0.3087	19757.62	3.9620	3.9620	0.8549	27.05	1.08	1.500			
0.3113	19921.56	3.9590	3.9590	0.8585	27.04	1.07	1.500			
0.3139	20087.73	3.9560	3.9559	0.8662	27.04	1.07	1.500			
0.3165	20253.75	3.9530	3.9530	0.8697	27.03	1.06	1.500			
0.3191	20421.35	3.9500	3.9500	0.8779	27.03	1.06	1.500			
0.3217	20589.66	3.9470	3.9470	0.8819	27.02	1.05	1.500			
0.3244	20760.36	3.9440	3.9439	0.8921	27.02	1.05	1.500			
0.3271	20932.83	3.9410	3.9410	0.8985	27.01	1.04	1.500			
0.3298	21106.39	3.9380	3.9380	0.9025	27.01	1.04	1.500			
0.3325	21280.52	3.9350	3.9350	0.9016	27.00	1.03	1.500			
0.3352	21454.63	3.9320	3.9320	0.9068	26.99	1.02	1.500			
0.3379	21628.47	3.9290	3.9290	0.9075	26.99	1.02	1.500			
0.3407	21802.27	3.9260	3.9260	0.9087	26.98	1.01	1.500			
0.3434	21975.98	3.9230	3.9231	0.9111	26.98	1.01	1.500			
0.3461	22150.72	3.9200	3.9201	0.9222	26.97	1.00	1.500			
0.3489	22329.28	3.9170	3.9169	0.9271	26.96	0.99	1.500			
0.3517	22508.13	3.9140	3.9139	0.9352	26.96	0.99	1.500			
0.3545	22686.28	3.9110	3.9111	0.9429	26.95	0.98	1.500			
0.3573	22869.64	3.9080	3.9080	0.9501	26.94	0.97	1.500			
0.3602	23053.53	3.9050	3.9050	0.9596	26.94	0.97	1.500			
0.3631	23238.06	3.9020	3.9019	0.9700	26.93	0.96	1.500			
0.3660	23423.58	3.8990	3.8992	0.9782	26.92	0.95	1.500			
0.3690	23614.53	3.8960	3.8960	0.9882	26.92	0.95	1.500			
0.3720	23805.85	3.8930	3.8931	0.9912	26.91	0.94	1.500			
0.3750	23997.04	3.8900	3.8900	0.9957	26.90	0.93	1.500			
0.3779	24188.29	3.8870	3.8869	1.0028	26.89	0.92	1.500			
0.3809	24380.59	3.8840	3.8840	1.0055	26.89	0.92	1.500			
0.3839	24571.97	3.8810	3.8810	1.0175	26.88	0.91	1.500			
0.3870	24767.12	3.8780	3.8780	1.0315	26.87	0.90	1.500			
0.3901	24967.31	3.8750	3.8750	1.0486	26.87	0.90	1.500			
0.3933	25170.77	3.8720	3.8721	1.0647	26.86	0.89	1.500			
0.3965	25376.54	3.8690	3.8690	1.0769	26.85	0.88	1.500			
0.3998	25585.75	3.8660	3.8661	1.0887	26.84	0.87	1.500			
0.4031	25796.43	3.8630	3.8630	1.1010	26.83	0.86	1.500			
0.4064	26010.62	3.8600	3.8600	1.1014	26.82	0.85	1.500			
0.4097	26220.07	3.8570	3.8570	1.1236	26.81	0.84	1.500			
0.4131	26435.82	3.8540	3.8540	1.1369	26.80	0.83	1.500			
0.4165	26654.76	3.8510	3.8509	1.1603	26.79	0.82	1.500			
0.4200	26880.34	3.8480	3.8480	1.1830	26.78	0.81	1.500			
0.4236	27110.24	3.8450	3.8450	1.2024	26.77	0.80	1.500			
0.4273	27344.13	3.8420	3.8420	1.2180	26.77	0.80	1.500			
0.4309	27578.29	3.8390	3.8391	1.2348	26.76	0.79	1.500			
0.4347	27818.07	3.8360	3.8360	1.2547	26.75	0.78	1.500			
0.4384	28060.44	3.8330	3.8330	1.2782	26.74	0.77	1.500			
0.4423	28306.59	3.8300	3.8298	1.2973	26.73	0.76	1.500			
0.4462	28558.49	3.8270	3.8271	1.3225	26.72	0.75	1.500			
0.4502	28814.47	3.8240	3.8240	1.3486	26.71	0.74	1.500			
0.4543	29076.21	3.8210	3.8210	1.3757	26.70	0.73	1.500			
0.4585	29341.47	3.8180	3.8180	1.4005	26.68	0.71	1.500			
0.4627	29613.01	3.8150	3.8150	1.4306	26.67	0.70	1.500			
0.4670	29890.27	3.8120	3.8118	1.4563	26.66	0.69	1.500			
0.4715	30173.68	3.8090	3.8090	1.4836	26.65	0.68	1.500			
0.4759	30460.63	3.8060	3.8061	1.5141	26.64	0.67	1.500			
0.4805	30754.02	3.8030	3.8030	1.5384	26.63	0.66	1.500			
0.4852	31051.51	3.8000	3.8000	1.5637	26.62	0.65	1.500			
0.4899	31353.58	3.7970	3.7971	1.5992	26.61	0.64	1.500			
0.4948	31664.88	3.7940	3.7940	1.6267	26.59	0.62	1.500			
0.4997	31981.27	3.7910	3.7910	1.6467	26.58	0.61	1.500			
0.5047	32298.76	3.7880	3.7881	1.6630	26.56	0.59	1.500			
0.5097	32619.10	3.7850	3.7850	1.6964	26.54	0.57	1.500			
0.5148	32945.21	3.7820	3.7820	1.7339	26.53	0.56	1.500			
0.5200	33279.11	3.7790	3.7787	1.7538	26.51	0.54	1.500	0.344	0.467	
0.5253	33621.81	3.7760	3.7761	1.7810	26.50	0.53	1.500			
0.5308	33971.54	3.7730	3.7730	1.7879	26.49	0.52	1.500			
0.5361	34312.17	3.7700	3.7700	1.7684	26.47	0.50	1.500			
0.5414	34647.39	3.7670	3.7669	1.7564	26.46	0.49	1.500			
0.5466	34982.62	3.7640	3.7641	1.7630	26.45	0.48	1.500			
0.5519	35319.80	3.7610	3.7610	1.7714	26.44	0.47	1.500			
0.5572	35658.30	3.7580	3.7580	1.7664	26.42	0.45	1.500			
0.5624	35995.86	3.7550	3.7551	1.7725	26.41	0.44	1.500			
0.5678	36337.09	3.7520	3.7517	1.7836	26.40	0.43	1.500			
0.5731	36679.20	3.7490	3.7491	1.8072	26.39	0.42	1.500			
0.5786	37030.09	3.7460	3.7460	1.8028	26.37	0.40	1.500			
0.5840	37375.19	3.7430	3.7430	1.8263	26.36	0.39	1.500			
0.5895	37729.35	3.7400	3.7401	1.8588	26.35	0.38	1.500			
0.5951	38089.59	3.7370	3.7370	1.8986	26.33	0.36	1.500			
0.6009	38457.63	3.7340	3.7341	1.9330	26.32	0.35	1.500			
0.6068	38833.92	3.7310	3.7310	1.9838	26.31	0.34	1.500			
0.6128	39217.97	3.7280	3.7281	2.0457	26.29	0.32	1.500			
0.6190	39616.20	3.7250	3.7249	2.1151	26.28	0.31	1.500			
0.6255	40034.87	3.7220	3.7220	2.1545	26.26	0.29	1.500			
0.6321	40455.81	3.7190	3.7190	2.2345	26.24	0.27	1.500			
0.6388	40884.56	3.7160	3.7161	2.2851	26.23	0.26	1.500			
0.6458	41329.17	3.7130	3.7131	2.3514	26.21	0.24	1.500			
0.6530	41793.35	3.7100	3.7100	2.3948	26.20	0.23	1.500			
0.6603	42259.04	3.7070	3.7070	2.4057	26.19	0.22	1.500			
0.6676	42727.82	3.7040	3.7039	2.3943	26.18	0.21	1.500			
0.6748	43190.19	3.7010	3.7010	2.3028	26.16	0.19	1.500			
0.6817	43630.30	3.6980	3.6980	2.1806	26.15	0.18	1.500			
0.6880	44033.87	3.6950	3.6950	2.0047	26.14	0.17	1.500			
0.6937	44397.17	3.6920	3.6919	1.8508	26.13	0.16	1.500			
0.6989	44731.37	3.6890	3.6890	1.7141	26.12	0.15	1.500			
0.7039	45047.94	3.6860	3.6859	1.5943	26.12	0.15	1.500			
0.7084	45338.27	3.6830	3.6831	1.5205	26.11	0.14	1.500			
0.7128	45619.92	3.6800	3.6800	1.4476	26.11	0.14	1.500			
0.7170	45888.48	3.6770	3.6768	1.3922	26.10	0.13	1.500			
0.7211	46149.24	3.6740	3.6741	1.3480	26.09	0.12	1.500			
0.7250	46401.78	3.6710	3.6711	1.3153	26.08	0.11	1.500			
0.7289	46652.05	3.6680	3.6680	1.2832	26.08	0.11	1.500			
0.7327	46891.08	3.6650	3.6650	1.2632	26.07	0.10	1.500			
0.7364	47129.47	3.6620	3.6620	1.2573	26.06	0.09	1.500			
0.7401	47369.09	3.6590	3.6591	1.2593	26.05	0.08	1.500			
0.7439	47609.77	3.6560	3.6559	1.2669	26.05	0.08	1.500			
0.7477	47855.28	3.6530	3.6531	1.2712	26.04	0.07	1.500			
0.7516	48102.25	3.6500	3.6500	1.2744	26.03	0.06	1.500			
0.7555	48351.41	3.6470	3.6470	1.2754	26.02	0.05	1.500			
0.7593	48593.48	3.6440	3.6440	1.2580	26.02	0.05	1.500			
0.7630	48833.27	3.6410	3.6410	1.2495	26.01	0.04	1.500			
0.7667	49071.56	3.6380	3.6380	1.2433	26.00	0.03	1.500			
0.7704	49307.31	3.6350	3.6350	1.2342	25.99	0.02	1.500			
0.7741	49544.30	3.6320	3.6320	1.2359	25.99	0.02	1.500			
0.7778	49781.42	3.6290	3.6290	1.2329	25.98	0.01	1.500			
0.7815	50018.05	3.6260	3.6260	1.2279	25.98	0.01	1.500			
0.7852	50254.97	3.6230	3.6231	1.2256	25.97	0.00	1.500			
0.7889	50490.99	3.6200	3.6200	1.2109	25.97	-0.00	1.500			
0.7925	50721.79	3.6170	3.6169	1.1992	25.96	-0.01	1.500			
0.7961	50952.23	3.6140	3.6141	1.1817	25.96	-0.01	1.500			
0.7996	51177.08	3.6110	3.6110	1.1621	25.95	-0.02	1.500			
0.8031	51400.02	3.6080	3.6080	1.1441	25.95	-0.02	1.500			
0.8065	51618.53	3.6050	3.6050	1.1149	25.95	-0.02	1.500			
0.8098	51828.08	3.6020	3.6020	1.0967	25.95	-0.02	1.500			
0.8131	52036.91	3.5990	3.5990	1.0795	25.94	-0.03	1.500			
0.8163	52241.25	3.5960	3.5959	1.0558	25.94	-0.03	1.500			
0.8194	52444.08	3.5930	3.5930	1.0324	25.94	-0.03	1.500			
0.8225	52641.07	3.5900	3.5901	1.0055	25.95	-0.02	1.500			
0.8256	52835.34	3.5870	3.5870	0.9595	25.95	-0.02	1.500			
0.8285	53021.81	3.5840	3.5840	0.9065	25.95	-0.02	1.500			
0.8311	53193.39	3.5810	3.5810	0.8230	25.96	-0.01	1.500			
0.8335	53346.58	3.5780	3.5781	0.7331	25.96	-0.01	1.500			
0.8356	53480.75	3.5750	3.5750	0.6397	25.96	-0.01	1.500			
0.8374	53592.45	3.5720	3.5721	0.5401	25.96	-0.01	1.500			
0.8388	53680.76	3.5690	3.5689	0.4529	25.97	-0.00	1.500			
0.8399	53755.59	3.5660	3.5660	0.3847	25.97	-0.00	1.500			
0.8409	53817.35	3.5630	3.5631	0.3231	25.97	-0.00	1.500			
0.8418	53873.42	3.5600	3.5599	0.2772	25.97	-0.00	1.500			
0.8425	53919.52	3.5570	3.5568	0.2415	25.97	0.00	1.500			
0.8431	53960.97	3.5540	3.5540	0.2146	25.97	0.00	1.500			
0.8437	53997.89	3.5510	3.5510	0.1921	25.97	0.00	1.500			
0.8443	54032.55	3.5480	3.5481	0.1726	25.97	0.00	1.500			
0.8447	54063.34	3.5450	3.5450	0.1559	25.97	0.00	1.500			
0.8452	54090.99	3.5420	3.5420	0.1385	25.97	0.00	1.500			
0.8456	54116.20	3.5390	3.5390	0.1240	25.97	0.00	1.500			
0.8459	54138.60	3.5360	3.5360	0.1094	25.97	0.00	1.500			
0.8462	54158.09	3.5330	3.5330	0.0946	25.97	0.00	1.500			
0.8465	54174.98	3.5300	3.5301	0.0802	25.98	0.01	1.500			
0.8467	54188.98	3.5270	3.5271	0.0656	25.98	0.01	1.500			
0.8469	54200.18	3.5240	3.5243	0.0509	25.98	0.01	1.500			
0.8470	54208.54	3.5210	3.5217	0.0362	25.98	0.01	1.500			
