Ah_balance (normalized)	Ah_balance (mAh)	Voltage - fit (V)	Voltage -  interpolate (V)	dQ/dV (1/V)	Temperature (°C)	Temperature - diff (°C)	Current (C)	R_DC 0ms (mOhm)	R_DC 50ms (mOhm)	R_DC 50 ms PEC (mOhm)
0.2649	16954.96	3.9920	3.9920	0.8353	27.30	1.34	1.500			
0.2674	17114.27	3.9890	3.9890	0.8341	27.30	1.34	1.500			
0.2699	17275.51	3.9860	3.9860	0.8437	27.30	1.34	1.500			
0.2725	17438.79	3.9830	3.9830	0.8509	27.29	1.33	1.500			
0.2751	17603.64	3.9800	3.9800	0.8546	27.29	1.33	1.500			
0.2776	17768.16	3.9770	3.9770	0.8582	27.28	1.32	1.500			
0.2802	17934.13	3.9740	3.9740	0.8613	27.28	1.32	1.500			
0.2828	18099.95	3.9710	3.9710	0.8633	27.28	1.32	1.500			
0.2854	18264.23	3.9680	3.9680	0.8657	27.27	1.31	1.500			
0.2880	18430.89	3.9650	3.9650	0.8709	27.27	1.31	1.500			
0.2906	18598.94	3.9620	3.9619	0.8745	27.26	1.30	1.500			
0.2932	18767.18	3.9590	3.9591	0.8792	27.26	1.30	1.500			
0.2959	18936.06	3.9560	3.9560	0.8814	27.25	1.29	1.500			
0.2985	19105.79	3.9530	3.9529	0.8852	27.25	1.29	1.500			
0.3012	19276.10	3.9500	3.9500	0.8866	27.25	1.29	1.500			
0.3038	19446.27	3.9470	3.9469	0.8883	27.24	1.28	1.500			
0.3065	19616.84	3.9440	3.9441	0.8952	27.24	1.28	1.500			
0.3092	19789.19	3.9410	3.9410	0.9020	27.24	1.28	1.500			
0.3119	19962.73	3.9380	3.9380	0.9045	27.23	1.27	1.500			
0.3147	20138.28	3.9350	3.9349	0.9053	27.23	1.27	1.500			
0.3174	20311.44	3.9320	3.9321	0.9139	27.23	1.27	1.500			
0.3201	20486.68	3.9290	3.9291	0.9243	27.22	1.26	1.500			
0.3229	20664.38	3.9260	3.9259	0.9312	27.22	1.26	1.500			
0.3257	20844.63	3.9230	3.9230	0.9324	27.22	1.26	1.500			
0.3285	21023.71	3.9200	3.9201	0.9413	27.21	1.25	1.500			
0.3313	21205.90	3.9170	3.9171	0.9485	27.21	1.25	1.500			
0.3342	21389.44	3.9140	3.9139	0.9558	27.20	1.24	1.500			
0.3370	21571.01	3.9110	3.9109	0.9567	27.19	1.23	1.500			
0.3399	21755.16	3.9080	3.9080	0.9638	27.19	1.23	1.500			
0.3429	21942.72	3.9050	3.9050	0.9723	27.18	1.22	1.500			
0.3458	22130.21	3.9020	3.9020	0.9816	27.18	1.22	1.500			
0.3487	22317.07	3.8990	3.8991	0.9850	27.17	1.21	1.500			
0.3517	22505.77	3.8960	3.8960	1.0014	27.16	1.20	1.500			
0.3546	22697.44	3.8930	3.8930	1.0197	27.16	1.20	1.500			
0.3578	22896.46	3.8900	3.8900	1.0293	27.15	1.19	1.500			
0.3609	23096.22	3.8870	3.8869	1.0408	27.14	1.18	1.500			
0.3641	23301.08	3.8840	3.8841	1.0466	27.13	1.17	1.500			
0.3672	23500.82	3.8810	3.8811	1.0512	27.13	1.17	1.500			
0.3703	23702.29	3.8780	3.8780	1.0559	27.12	1.16	1.500			
0.3735	23903.75	3.8750	3.8748	1.0639	27.11	1.15	1.500			
0.3767	24106.36	3.8720	3.8721	1.0692	27.10	1.14	1.500			
0.3799	24314.65	3.8690	3.8690	1.0826	27.09	1.13	1.500			
0.3832	24524.30	3.8660	3.8660	1.0942	27.08	1.12	1.500			
0.3865	24735.82	3.8630	3.8630	1.0962	27.07	1.11	1.500			
0.3898	24946.57	3.8600	3.8599	1.1106	27.07	1.11	1.500			
0.3931	25158.48	3.8570	3.8571	1.1284	27.06	1.10	1.500			
0.3965	25376.40	3.8540	3.8541	1.1484	27.05	1.09	1.500			
0.4000	25600.02	3.8510	3.8510	1.1655	27.04	1.08	1.500			
0.4035	25825.70	3.8480	3.8480	1.1825	27.03	1.07	1.500			
0.4071	26054.84	3.8450	3.8451	1.1987	27.02	1.06	1.500			
0.4107	26287.94	3.8420	3.8420	1.2114	27.01	1.05	1.500			
0.4144	26520.43	3.8390	3.8390	1.2268	27.00	1.04	1.500			
0.4181	26756.08	3.8360	3.8360	1.2461	26.99	1.03	1.500			
0.4218	26996.56	3.8330	3.8330	1.2695	26.98	1.02	1.500			
0.4257	27243.36	3.8300	3.8300	1.2919	26.96	1.00	1.500			
0.4296	27493.07	3.8270	3.8270	1.3139	26.95	0.99	1.500			
0.4336	27748.34	3.8240	3.8240	1.3393	26.94	0.98	1.500			
0.4376	28008.90	3.8210	3.8210	1.3610	26.93	0.97	1.500			
0.4417	28270.46	3.8180	3.8180	1.3823	26.92	0.96	1.500			
0.4459	28540.74	3.8150	3.8151	1.4011	26.91	0.95	1.500			
0.4502	28811.43	3.8120	3.8119	1.4161	26.90	0.94	1.500			
0.4544	29084.15	3.8090	3.8091	1.4397	26.88	0.92	1.500			
0.4588	29361.30	3.8060	3.8061	1.4613	26.87	0.91	1.500			
0.4632	29643.04	3.8030	3.8029	1.4845	26.85	0.89	1.500			
0.4676	29927.81	3.8000	3.8000	1.5165	26.84	0.88	1.500			
0.4722	30222.29	3.7970	3.7970	1.5451	26.83	0.87	1.500			
0.4770	30525.15	3.7940	3.7939	1.5797	26.81	0.85	1.500			
0.4817	30827.64	3.7910	3.7911	1.6042	26.80	0.84	1.500			
0.4866	31140.14	3.7880	3.7880	1.6254	26.79	0.83	1.500			
0.4915	31455.63	3.7850	3.7850	1.6562	26.78	0.82	1.500	0.346	0.474	
0.4965	31774.14	3.7820	3.7822	1.6756	26.77	0.81	1.500			
0.5016	32100.75	3.7790	3.7790	1.6991	26.75	0.79	1.500			
0.5067	32428.30	3.7760	3.7760	1.7166	26.73	0.77	1.500			
0.5119	32758.86	3.7730	3.7730	1.7097	26.72	0.76	1.500			
0.5170	33087.94	3.7700	3.7701	1.7259	26.70	0.74	1.500			
0.5222	33422.51	3.7670	3.7670	1.7341	26.69	0.73	1.500			
0.5274	33754.43	3.7640	3.7640	1.7288	26.67	0.71	1.500			
0.5326	34085.67	3.7610	3.7611	1.7301	26.66	0.70	1.500			
0.5377	34413.31	3.7580	3.7580	1.7286	26.64	0.68	1.500			
0.5429	34747.53	3.7550	3.7550	1.7512	26.63	0.67	1.500			
0.5481	35080.42	3.7520	3.7519	1.7766	26.61	0.65	1.500			
0.5536	35428.25	3.7490	3.7491	1.8151	26.60	0.64	1.500			
0.5591	35780.22	3.7460	3.7460	1.8366	26.58	0.62	1.500			
0.5646	36135.28	3.7430	3.7430	1.8618	26.57	0.61	1.500			
0.5702	36494.13	3.7400	3.7400	1.8913	26.55	0.59	1.500			
0.5760	36862.90	3.7370	3.7370	1.9411	26.53	0.57	1.500			
0.5818	37238.12	3.7340	3.7340	1.9887	26.51	0.55	1.500			
0.5879	37625.61	3.7310	3.7310	2.0582	26.49	0.53	1.500			
0.5942	38027.96	3.7280	3.7280	2.1056	26.47	0.51	1.500			
0.6006	38438.09	3.7250	3.7250	2.1607	26.45	0.49	1.500			
0.6072	38858.70	3.7220	3.7220	2.1845	26.43	0.47	1.500			
0.6137	39276.49	3.7190	3.7190	2.2492	26.41	0.45	1.500			
0.6205	39711.73	3.7160	3.7161	2.3047	26.39	0.43	1.500			
0.6276	40163.41	3.7130	3.7131	2.3475	26.37	0.41	1.500			
0.6347	40622.87	3.7100	3.7100	2.3250	26.35	0.39	1.500			
0.6417	41071.39	3.7070	3.7070	2.2477	26.33	0.37	1.500			
0.6484	41494.56	3.7040	3.7040	2.1357	26.31	0.35	1.500			
0.6547	41899.16	3.7010	3.7010	2.0138	26.29	0.33	1.500			
0.6604	42268.46	3.6980	3.6980	1.8715	26.28	0.32	1.500			
0.6658	42611.18	3.6950	3.6950	1.7430	26.26	0.30	1.500			
0.6708	42933.17	3.6920	3.6920	1.6325	26.25	0.29	1.500			
0.6756	43235.44	3.6890	3.6890	1.5480	26.24	0.28	1.500			
0.6800	43518.43	3.6860	3.6860	1.4733	26.23	0.27	1.500			
0.6843	43794.38	3.6830	3.6829	1.4159	26.21	0.25	1.500			
0.6884	44055.59	3.6800	3.6801	1.3699	26.21	0.25	1.500			
0.6924	44312.48	3.6770	3.6770	1.3367	26.20	0.24	1.500			
0.6963	44564.98	3.6740	3.6740	1.3147	26.19	0.23	1.500			
0.7002	44813.93	3.6710	3.6710	1.2938	26.18	0.22	1.500			
0.7040	45058.15	3.6680	3.6681	1.2856	26.16	0.20	1.500			
0.7079	45304.10	3.6650	3.6650	1.2793	26.15	0.19	1.500			
0.7117	45549.04	3.6620	3.6619	1.2800	26.14	0.18	1.500			
0.7155	45792.87	3.6590	3.6590	1.2787	26.13	0.17	1.500			
0.7194	46039.28	3.6560	3.6560	1.2795	26.11	0.15	1.500			
0.7232	46286.79	3.6530	3.6529	1.2769	26.10	0.14	1.500			
0.7271	46534.07	3.6500	3.6500	1.2725	26.09	0.13	1.500			
0.7309	46776.86	3.6470	3.6471	1.2617	26.08	0.12	1.500			
0.7347	47020.58	3.6440	3.6440	1.2496	26.07	0.11	1.500			
0.7384	47256.79	3.6410	3.6410	1.2383	26.06	0.10	1.500			
0.7420	47491.08	3.6380	3.6380	1.2284	26.05	0.09	1.500			
0.7457	47726.41	3.6350	3.6350	1.2240	26.04	0.08	1.500			
0.7494	47960.70	3.6320	3.6319	1.2237	26.03	0.07	1.500			
0.7531	48196.48	3.6290	3.6290	1.2134	26.02	0.06	1.500			
0.7567	48430.62	3.6260	3.6260	1.2077	26.01	0.05	1.500			
0.7604	48665.13	3.6230	3.6230	1.1937	26.01	0.05	1.500			
0.7639	48891.94	3.6200	3.6200	1.1761	26.00	0.04	1.500			
0.7674	49116.77	3.6170	3.6169	1.1574	25.99	0.03	1.500			
0.7709	49336.65	3.6140	3.6141	1.1402	25.99	0.03	1.500			
0.7743	49552.60	3.6110	3.6109	1.1197	25.98	0.02	1.500			
0.7776	49767.60	3.6080	3.6080	1.1006	25.98	0.02	1.500			
0.7809	49976.37	3.6050	3.6050	1.0774	25.97	0.01	1.500			
0.7841	50182.20	3.6020	3.6020	1.0529	25.97	0.01	1.500			
0.7872	50383.56	3.5990	3.5989	1.0225	25.97	0.01	1.500			
0.7903	50579.56	3.5960	3.5960	0.9866	25.97	0.01	1.500			
0.7932	50767.47	3.5930	3.5930	0.9368	25.96	0.00	1.500			
0.7960	50946.86	3.5900	3.5900	0.8808	25.96	0.00	1.500			
0.7986	51113.25	3.5870	3.5869	0.8042	25.96	0.00	1.500			
0.8010	51262.97	3.5840	3.5841	0.7215	25.96	-0.00	1.500			
0.8030	51393.60	3.5810	3.5810	0.6299	25.96	-0.00	1.500			
0.8048	51505.89	3.5780	3.5780	0.5387	25.96	-0.00	1.500			
0.8062	51596.48	3.5750	3.5750	0.4567	25.95	-0.01	1.500			
0.8074	51673.25	3.5720	3.5719	0.3883	25.95	-0.01	1.500			
0.8084	51736.32	3.5690	3.5690	0.3313	25.95	-0.01	1.500			
0.8093	51792.32	3.5660	3.5659	0.2902	25.95	-0.01	1.500			
0.8100	51841.68	3.5630	3.5630	0.2526	25.95	-0.01	1.500			
0.8107	51886.35	3.5600	3.5600	0.2278	25.95	-0.01	1.500			
0.8113	51926.23	3.5570	3.5569	0.2058	25.95	-0.01	1.500			
0.8119	51962.85	3.5540	3.5541	0.1864	25.95	-0.01	1.500			
0.8124	51996.68	3.5510	3.5510	0.1686	25.95	-0.01	1.500			
0.8129	52026.94	3.5480	3.5479	0.1530	25.95	-0.01	1.500			
0.8134	52054.64	3.5450	3.5450	0.1372	25.95	-0.01	1.500			
0.8137	52079.04	3.5420	3.5419	0.1219	25.95	-0.01	1.500			
0.8141	52101.10	3.5390	3.5391	0.1079	25.95	-0.01	1.500			
0.8144	52120.37	3.5360	3.5360	0.0938	25.95	-0.01	1.500			
0.8146	52137.00	3.5330	3.5331	0.0798	25.95	-0.01	1.500			
0.8149	52151.00	3.5300	3.5303	0.0660	25.95	-0.01	1.500			
0.8150	52162.60	3.5270	3.5275	0.0514	25.95	-0.01	1.500			
0.8152	52171.06	3.5240	3.5249	0.0368	25.95	-0.01	1.500			
