Ah_balance (normalized)	Ah_balance (mAh)	Voltage - fit (V)	Voltage -  interpolate (V)	dQ/dV (1/V)	Temperature (°C)	Temperature - diff (°C)	Current (C)	R_DC 0ms (mOhm)	R_DC 50ms (mOhm)	R_DC 50 ms PEC (mOhm)
0.2846	18213.97	3.9730	3.9731	0.8680	27.03	1.05	1.500			
0.2872	18381.92	3.9700	3.9700	0.8732	27.03	1.05	1.500			
0.2898	18548.59	3.9670	3.9670	0.8715	27.03	1.05	1.500			
0.2924	18714.40	3.9640	3.9640	0.8765	27.03	1.05	1.500			
0.2950	18881.77	3.9610	3.9611	0.8836	27.02	1.04	1.500			
0.2977	19053.01	3.9580	3.9579	0.8869	27.02	1.04	1.500			
0.3004	19223.94	3.9550	3.9549	0.8932	27.02	1.04	1.500			
0.3031	19399.11	3.9520	3.9521	0.8901	27.01	1.03	1.500			
0.3058	19569.90	3.9490	3.9490	0.8940	27.01	1.03	1.500			
0.3084	19740.67	3.9460	3.9460	0.8946	27.01	1.03	1.500			
0.3111	19910.62	3.9430	3.9430	0.9002	27.00	1.02	1.500			
0.3138	20082.03	3.9400	3.9399	0.9049	27.00	1.02	1.500			
0.3165	20257.87	3.9370	3.9370	0.9182	26.99	1.01	1.500			
0.3193	20435.91	3.9340	3.9340	0.9251	26.99	1.01	1.500			
0.3221	20616.90	3.9310	3.9310	0.9313	26.99	1.01	1.500			
0.3249	20795.20	3.9280	3.9281	0.9291	26.98	1.00	1.500			
0.3277	20974.24	3.9250	3.9250	0.9336	26.98	1.00	1.500			
0.3305	21153.47	3.9220	3.9220	0.9349	26.97	0.99	1.500			
0.3333	21331.54	3.9190	3.9190	0.9389	26.97	0.99	1.500			
0.3361	21511.39	3.9160	3.9161	0.9435	26.96	0.98	1.500			
0.3390	21694.04	3.9130	3.9130	0.9525	26.96	0.98	1.500			
0.3418	21876.41	3.9100	3.9100	0.9623	26.96	0.98	1.500			
0.3447	22062.57	3.9070	3.9070	0.9711	26.95	0.97	1.500			
0.3477	22249.85	3.9040	3.9040	0.9801	26.95	0.97	1.500			
0.3506	22439.66	3.9010	3.9010	0.9919	26.95	0.97	1.500			
0.3536	22631.27	3.8980	3.8981	0.9950	26.94	0.96	1.500			
0.3566	22823.63	3.8950	3.8950	1.0029	26.94	0.96	1.500			
0.3596	23016.57	3.8920	3.8920	1.0078	26.93	0.95	1.500			
0.3627	23209.75	3.8890	3.8890	1.0132	26.93	0.95	1.500			
0.3657	23404.62	3.8860	3.8860	1.0238	26.93	0.95	1.500			
0.3688	23601.03	3.8830	3.8830	1.0342	26.92	0.94	1.500			
0.3719	23799.96	3.8800	3.8800	1.0450	26.91	0.93	1.500			
0.3750	24002.34	3.8770	3.8770	1.0627	26.91	0.93	1.500			
0.3782	24206.89	3.8740	3.8740	1.0739	26.90	0.92	1.500			
0.3815	24415.47	3.8710	3.8710	1.0860	26.89	0.91	1.500			
0.3848	24625.77	3.8680	3.8680	1.0970	26.89	0.91	1.500			
0.3881	24836.91	3.8650	3.8650	1.1098	26.88	0.90	1.500			
0.3914	25050.62	3.8620	3.8620	1.1225	26.88	0.90	1.500			
0.3948	25267.00	3.8590	3.8590	1.1386	26.87	0.89	1.500			
0.3982	25486.42	3.8560	3.8560	1.1490	26.86	0.88	1.500			
0.4017	25709.19	3.8530	3.8530	1.1636	26.86	0.88	1.500			
0.4052	25933.46	3.8500	3.8500	1.1850	26.85	0.87	1.500			
0.4088	26161.44	3.8470	3.8471	1.2054	26.85	0.87	1.500			
0.4124	26394.86	3.8440	3.8439	1.2235	26.84	0.86	1.500			
0.4161	26630.98	3.8410	3.8410	1.2453	26.84	0.86	1.500			
0.4199	26873.19	3.8380	3.8380	1.2655	26.83	0.85	1.500			
0.4238	27121.28	3.8350	3.8350	1.2863	26.82	0.84	1.500			
0.4276	27367.22	3.8320	3.8320	1.3082	26.82	0.84	1.500			
0.4315	27616.35	3.8290	3.8291	1.3313	26.81	0.83	1.500			
0.4355	27874.86	3.8260	3.8260	1.3679	26.80	0.82	1.500			
0.4397	28140.34	3.8230	3.8230	1.4039	26.80	0.82	1.500			
0.4440	28414.00	3.8200	3.8200	1.4304	26.78	0.80	1.500			
0.4484	28696.10	3.8170	3.8171	1.4562	26.77	0.79	1.500			
0.4528	28978.53	3.8140	3.8140	1.4848	26.76	0.78	1.500			
0.4572	29262.12	3.8110	3.8110	1.5233	26.75	0.77	1.500			
0.4618	29554.95	3.8080	3.8079	1.5652	26.73	0.75	1.500			
0.4666	29860.49	3.8050	3.8050	1.6080	26.72	0.74	1.500			
0.4715	30175.02	3.8020	3.8020	1.6465	26.71	0.73	1.500			
0.4765	30498.27	3.7990	3.7991	1.7001	26.70	0.72	1.500			
0.4817	30827.12	3.7960	3.7960	1.7366	26.69	0.71	1.500			
0.4869	31164.19	3.7930	3.7929	1.7720	26.68	0.70	1.500			
0.4923	31507.72	3.7900	3.7901	1.8198	26.67	0.69	1.500			
0.4979	31864.14	3.7870	3.7870	1.8658	26.66	0.68	1.500			
0.5036	32227.27	3.7840	3.7840	1.9065	26.64	0.66	1.500			
0.5093	32594.36	3.7810	3.7811	1.9457	26.63	0.65	1.500			
0.5152	32972.75	3.7780	3.7780	1.9928	26.61	0.63	1.500			
0.5213	33365.17	3.7750	3.7750	2.0196	26.59	0.61	1.500			
0.5274	33753.86	3.7720	3.7720	2.0547	26.58	0.60	1.500			
0.5336	34147.86	3.7690	3.7691	2.1092	26.56	0.58	1.500			
0.5400	34559.80	3.7660	3.7659	2.1491	26.53	0.55	1.500			
0.5466	34979.42	3.7630	3.7628	2.1700	26.51	0.53	1.500	0.352	0.454	
0.5532	35407.78	3.7600	3.7599	2.1882	26.49	0.51	1.500			
0.5596	35816.40	3.7570	3.7570	2.1299	26.47	0.49	1.500			
0.5660	36221.02	3.7540	3.7540	2.0963	26.45	0.47	1.500			
0.5722	36622.04	3.7510	3.7510	2.0876	26.44	0.46	1.500			
0.5784	37017.46	3.7480	3.7480	2.0647	26.42	0.44	1.500			
0.5846	37412.96	3.7450	3.7450	2.0724	26.41	0.43	1.500			
0.5908	37810.82	3.7420	3.7420	2.0805	26.39	0.41	1.500			
0.5971	38214.09	3.7390	3.7389	2.0524	26.38	0.40	1.500			
0.6032	38602.59	3.7360	3.7361	2.0602	26.36	0.38	1.500			
0.6093	38995.07	3.7330	3.7330	2.0614	26.35	0.37	1.500			
0.6155	39391.08	3.7300	3.7300	2.0981	26.33	0.35	1.500			
0.6218	39793.99	3.7270	3.7271	2.1276	26.32	0.34	1.500			
0.6283	40212.01	3.7240	3.7240	2.1939	26.30	0.32	1.500			
0.6349	40631.50	3.7210	3.7210	2.2316	26.29	0.31	1.500			
0.6416	41064.96	3.7180	3.7180	2.3139	26.27	0.29	1.500			
0.6486	41512.65	3.7150	3.7150	2.3852	26.26	0.28	1.500			
0.6559	41980.50	3.7120	3.7120	2.4809	26.24	0.26	1.500			
0.6635	42466.36	3.7090	3.7089	2.5680	26.22	0.24	1.500			
0.6714	42968.57	3.7060	3.7060	2.6323	26.21	0.23	1.500			
0.6794	43480.71	3.7030	3.7030	2.7050	26.19	0.21	1.500			
0.6877	44011.92	3.7000	3.6999	2.7283	26.18	0.20	1.500			
0.6959	44539.23	3.6970	3.6970	2.7150	26.16	0.18	1.500			
0.7041	45061.52	3.6940	3.6940	2.6268	26.14	0.16	1.500			
0.7119	45564.54	3.6910	3.6910	2.4718	26.12	0.14	1.500			
0.7191	46019.93	3.6880	3.6880	2.2753	26.12	0.14	1.500			
0.7255	46432.48	3.6850	3.6850	2.0585	26.11	0.13	1.500			
0.7312	46795.94	3.6820	3.6820	1.8899	26.11	0.13	1.500			
0.7366	47141.08	3.6790	3.6790	1.7513	26.10	0.12	1.500			
0.7416	47462.99	3.6760	3.6760	1.6367	26.09	0.11	1.500			
0.7463	47765.38	3.6730	3.6730	1.5452	26.09	0.11	1.500			
0.7508	48051.52	3.6700	3.6700	1.4642	26.08	0.10	1.500			
0.7551	48323.98	3.6670	3.6669	1.3959	26.07	0.09	1.500			
0.7590	48578.15	3.6640	3.6640	1.3360	26.07	0.09	1.500			
0.7629	48826.97	3.6610	3.6610	1.2930	26.06	0.08	1.500			
0.7667	49067.25	3.6580	3.6580	1.2734	26.06	0.08	1.500			
0.7705	49309.17	3.6550	3.6550	1.2608	26.05	0.07	1.500			
0.7742	49546.46	3.6520	3.6520	1.2473	26.05	0.07	1.500			
0.7779	49783.74	3.6490	3.6491	1.2599	26.04	0.06	1.500			
0.7816	50024.62	3.6460	3.6460	1.2684	26.04	0.06	1.500			
0.7855	50269.91	3.6430	3.6429	1.2809	26.03	0.05	1.500			
0.7893	50516.41	3.6400	3.6400	1.2953	26.03	0.05	1.500			
0.7932	50767.13	3.6370	3.6371	1.3001	26.02	0.04	1.500			
0.7972	51021.35	3.6340	3.6340	1.3148	26.01	0.03	1.500			
0.8012	51275.74	3.6310	3.6310	1.3139	26.00	0.02	1.500			
0.8051	51526.55	3.6280	3.6280	1.3051	26.00	0.02	1.500			
0.8090	51776.89	3.6250	3.6250	1.3074	25.99	0.01	1.500			
0.8129	52027.58	3.6220	3.6219	1.3043	25.98	0.00	1.500			
0.8168	52276.04	3.6190	3.6190	1.3037	25.97	-0.01	1.500			
0.8208	52528.13	3.6160	3.6160	1.3026	25.97	-0.01	1.500			
0.8247	52779.64	3.6130	3.6130	1.2919	25.96	-0.02	1.500			
0.8286	53027.33	3.6100	3.6100	1.2914	25.96	-0.02	1.500			
0.8324	53276.09	3.6070	3.6070	1.2848	25.95	-0.03	1.500			
0.8363	53520.55	3.6040	3.6040	1.2751	25.94	-0.04	1.500			
0.8401	53765.57	3.6010	3.6011	1.2671	25.94	-0.04	1.500			
0.8439	54007.58	3.5980	3.5980	1.2501	25.94	-0.04	1.500			
0.8476	54248.32	3.5950	3.5950	1.2383	25.94	-0.04	1.500			
0.8514	54486.55	3.5920	3.5920	1.2204	25.93	-0.05	1.500			
0.8549	54715.82	3.5890	3.5890	1.2010	25.93	-0.05	1.500			
0.8585	54943.56	3.5860	3.5860	1.1990	25.93	-0.05	1.500			
0.8620	55170.26	3.5830	3.5830	1.1911	25.93	-0.05	1.500			
0.8656	55399.90	3.5800	3.5799	1.1864	25.93	-0.05	1.500			
0.8692	55631.63	3.5770	3.5770	1.1724	25.94	-0.04	1.500			
0.8729	55862.52	3.5740	3.5740	1.1149	25.95	-0.03	1.500			
0.8763	56084.78	3.5710	3.5710	1.0429	25.96	-0.02	1.500			
0.8795	56285.38	3.5680	3.5681	0.9271	25.96	-0.02	1.500			
0.8821	56453.67	3.5650	3.5652	0.7914	25.97	-0.01	1.500			
0.8842	56589.48	3.5620	3.5620	0.6638	25.97	-0.01	1.500			
0.8859	56697.44	3.5590	3.5590	0.5412	25.98	-0.00	1.500			
0.8872	56778.92	3.5560	3.5559	0.4355	25.98	-0.00	1.500			
0.8883	56850.53	3.5530	3.5528	0.3530	25.98	-0.00	1.500			
0.8892	56906.17	3.5500	3.5500	0.2973	25.98	0.00	1.500			
0.8899	56955.41	3.5470	3.5469	0.2582	25.98	0.00	1.500			
0.8906	56998.02	3.5440	3.5440	0.2248	25.98	0.00	1.500			
0.8912	57037.62	3.5410	3.5409	0.1987	25.99	0.01	1.500			
0.8918	57072.11	3.5380	3.5380	0.1792	25.99	0.01	1.500			
0.8922	57103.97	3.5350	3.5351	0.1623	25.99	0.01	1.500			
0.8927	57133.16	3.5320	3.5320	0.1458	25.99	0.01	1.500			
0.8931	57159.65	3.5290	3.5288	0.1314	25.99	0.01	1.500			
0.8935	57183.24	3.5260	3.5261	0.1166	25.99	0.01	1.500			
0.8938	57204.16	3.5230	3.5231	0.1023	25.99	0.01	1.500			
0.8941	57222.88	3.5200	3.5200	0.0888	25.99	0.01	1.500			
0.8944	57238.52	3.5170	3.5172	0.0741	25.99	0.01	1.500			
0.8946	57251.33	3.5140	3.5144	0.0595	25.99	0.01	1.500			
0.8947	57261.35	3.5110	3.5118	0.0449	25.99	0.01	1.500			
