Ah_balance (normalized)	Ah_balance (mAh)	Voltage - fit (V)	Voltage -  interpolate (V)	dQ/dV (1/V)	Temperature (°C)	Temperature - diff (°C)	Current (C)	R_DC 0ms (mOhm)	R_DC 50ms (mOhm)	R_DC 50 ms PEC (mOhm)
0.2709	17338.11	3.9850	3.9849	0.8800	27.13	1.17	1.500			
0.2735	17503.61	3.9820	3.9821	0.8621	27.13	1.17	1.500			
0.2761	17668.26	3.9790	3.9791	0.8605	27.12	1.16	1.500			
0.2786	17832.64	3.9760	3.9759	0.8639	27.12	1.16	1.500			
0.2812	17998.79	3.9730	3.9729	0.8666	27.11	1.15	1.500			
0.2838	18165.02	3.9700	3.9700	0.8684	27.11	1.15	1.500			
0.2864	18332.76	3.9670	3.9670	0.8703	27.10	1.14	1.500			
0.2891	18502.18	3.9640	3.9640	0.8791	27.10	1.14	1.500			
0.2917	18670.14	3.9610	3.9611	0.8812	27.10	1.14	1.500			
0.2944	18839.27	3.9580	3.9579	0.8824	27.09	1.13	1.500			
0.2970	19008.90	3.9550	3.9550	0.8842	27.09	1.13	1.500			
0.2997	19178.95	3.9520	3.9520	0.8878	27.08	1.12	1.500			
0.3023	19349.04	3.9490	3.9491	0.8933	27.07	1.11	1.500			
0.3050	19522.50	3.9460	3.9459	0.9010	27.07	1.11	1.500			
0.3077	19695.57	3.9430	3.9430	0.9003	27.06	1.10	1.500			
0.3105	19869.07	3.9400	3.9400	0.9030	27.05	1.09	1.500			
0.3132	20043.30	3.9370	3.9372	0.9070	27.05	1.09	1.500			
0.3159	20218.02	3.9340	3.9339	0.9102	27.04	1.08	1.500			
0.3186	20391.74	3.9310	3.9310	0.9140	27.04	1.08	1.500			
0.3213	20566.30	3.9280	3.9280	0.9156	27.03	1.07	1.500			
0.3241	20742.47	3.9250	3.9250	0.9237	27.02	1.06	1.500			
0.3269	20922.56	3.9220	3.9220	0.9338	27.02	1.06	1.500			
0.3297	21101.96	3.9190	3.9190	0.9386	27.01	1.05	1.500			
0.3325	21283.10	3.9160	3.9160	0.9441	27.01	1.05	1.500			
0.3354	21465.30	3.9130	3.9130	0.9482	27.00	1.04	1.500			
0.3382	21647.32	3.9100	3.9100	0.9514	27.00	1.04	1.500			
0.3411	21830.30	3.9070	3.9070	0.9590	26.99	1.03	1.500			
0.3440	22014.20	3.9040	3.9040	0.9640	26.98	1.02	1.500			
0.3469	22199.62	3.9010	3.9010	0.9736	26.98	1.02	1.500			
0.3498	22387.37	3.8980	3.8980	0.9810	26.97	1.01	1.500			
0.3528	22577.43	3.8950	3.8950	0.9868	26.97	1.01	1.500			
0.3557	22767.51	3.8920	3.8920	0.9990	26.96	1.00	1.500			
0.3588	22960.31	3.8890	3.8890	1.0050	26.95	0.99	1.500			
0.3618	23153.54	3.8860	3.8859	1.0138	26.95	0.99	1.500			
0.3648	23347.28	3.8830	3.8830	1.0260	26.94	0.98	1.500			
0.3679	23546.24	3.8800	3.8801	1.0357	26.94	0.98	1.500			
0.3710	23746.76	3.8770	3.8769	1.0526	26.93	0.97	1.500			
0.3742	23950.67	3.8740	3.8740	1.0635	26.92	0.96	1.500			
0.3774	24154.04	3.8710	3.8710	1.0724	26.91	0.95	1.500			
0.3807	24363.81	3.8680	3.8679	1.0843	26.91	0.95	1.500			
0.3840	24573.59	3.8650	3.8650	1.0884	26.90	0.94	1.500			
0.3872	24780.69	3.8620	3.8620	1.1028	26.89	0.93	1.500			
0.3905	24994.16	3.8590	3.8591	1.1221	26.88	0.92	1.500			
0.3939	25210.35	3.8560	3.8559	1.1302	26.87	0.91	1.500			
0.3973	25430.09	3.8530	3.8530	1.1469	26.87	0.91	1.500			
0.4008	25651.75	3.8500	3.8501	1.1620	26.86	0.90	1.500			
0.4043	25876.24	3.8470	3.8470	1.1838	26.85	0.89	1.500			
0.4079	26106.60	3.8440	3.8440	1.1974	26.84	0.88	1.500			
0.4115	26333.66	3.8410	3.8409	1.2111	26.83	0.87	1.500			
0.4152	26569.60	3.8380	3.8380	1.2349	26.82	0.86	1.500			
0.4189	26809.73	3.8350	3.8350	1.2628	26.81	0.85	1.500			
0.4227	27054.04	3.8320	3.8320	1.2805	26.79	0.83	1.500			
0.4266	27302.91	3.8290	3.8290	1.3004	26.78	0.82	1.500			
0.4306	27555.72	3.8260	3.8260	1.3163	26.77	0.81	1.500			
0.4345	27810.89	3.8230	3.8231	1.3436	26.76	0.80	1.500			
0.4386	28067.40	3.8200	3.8200	1.3691	26.75	0.79	1.500			
0.4427	28332.59	3.8170	3.8171	1.3978	26.74	0.78	1.500			
0.4469	28601.53	3.8140	3.8141	1.4271	26.73	0.77	1.500			
0.4513	28881.41	3.8110	3.8110	1.4639	26.71	0.75	1.500			
0.4557	29167.54	3.8080	3.8080	1.4849	26.70	0.74	1.500			
0.4602	29453.04	3.8050	3.8050	1.5156	26.69	0.73	1.500			
0.4648	29746.68	3.8020	3.8021	1.5507	26.68	0.72	1.500			
0.4695	30046.98	3.7990	3.7989	1.5817	26.66	0.70	1.500			
0.4743	30355.31	3.7960	3.7960	1.6124	26.65	0.69	1.500			
0.4792	30668.21	3.7930	3.7931	1.6400	26.63	0.67	1.500			
0.4842	30989.45	3.7900	3.7900	1.6815	26.62	0.66	1.500			
0.4892	31310.38	3.7870	3.7870	1.7050	26.60	0.64	1.500			
0.4944	31639.91	3.7840	3.7840	1.7345	26.58	0.62	1.500			
0.4997	31979.70	3.7810	3.7810	1.7541	26.57	0.61	1.500			
0.5050	32320.45	3.7780	3.7780	1.7757	26.55	0.59	1.500			
0.5103	32661.93	3.7750	3.7751	1.8222	26.54	0.58	1.500			
0.5159	33014.92	3.7720	3.7718	1.8496	26.52	0.56	1.500	0.343	0.455	
0.5215	33373.63	3.7690	3.7689	1.8673	26.51	0.55	1.500			
0.5272	33738.98	3.7660	3.7661	1.8844	26.49	0.53	1.500			
0.5329	34104.67	3.7630	3.7630	1.8704	26.48	0.52	1.500			
0.5384	34458.00	3.7600	3.7600	1.8403	26.46	0.50	1.500			
0.5439	34809.59	3.7570	3.7569	1.8479	26.45	0.49	1.500			
0.5494	35164.70	3.7540	3.7541	1.8645	26.43	0.47	1.500			
0.5551	35525.14	3.7510	3.7509	1.8528	26.41	0.45	1.500			
0.5606	35880.86	3.7480	3.7481	1.8666	26.39	0.43	1.500			
0.5662	36235.78	3.7450	3.7451	1.8761	26.37	0.41	1.500			
0.5718	36597.30	3.7420	3.7419	1.9065	26.36	0.40	1.500			
0.5775	36963.08	3.7390	3.7391	1.9305	26.34	0.38	1.500			
0.5834	37338.63	3.7360	3.7360	1.9636	26.33	0.37	1.500			
0.5893	37717.43	3.7330	3.7331	1.9991	26.32	0.36	1.500			
0.5953	38100.96	3.7300	3.7298	2.0585	26.30	0.34	1.500			
0.6016	38504.66	3.7270	3.7270	2.1042	26.29	0.33	1.500			
0.6081	38917.47	3.7240	3.7240	2.1676	26.27	0.31	1.500			
0.6146	39336.74	3.7210	3.7210	2.2029	26.25	0.29	1.500			
0.6213	39765.64	3.7180	3.7179	2.2665	26.24	0.28	1.500			
0.6282	40205.36	3.7150	3.7150	2.3089	26.23	0.27	1.500			
0.6353	40656.08	3.7120	3.7120	2.3729	26.21	0.25	1.500			
0.6424	41113.52	3.7090	3.7090	2.4191	26.20	0.24	1.500			
0.6498	41586.43	3.7060	3.7060	2.4731	26.18	0.22	1.500			
0.6573	42066.92	3.7030	3.7030	2.4796	26.17	0.21	1.500			
0.6649	42553.56	3.7000	3.7000	2.4305	26.15	0.19	1.500			
0.6720	43008.60	3.6970	3.6971	2.3062	26.14	0.18	1.500			
0.6788	43440.90	3.6940	3.6940	2.1588	26.13	0.17	1.500			
0.6850	43840.82	3.6910	3.6910	2.0137	26.12	0.16	1.500			
0.6908	44211.38	3.6880	3.6880	1.8621	26.11	0.15	1.500			
0.6961	44550.37	3.6850	3.6850	1.7241	26.10	0.14	1.500			
0.7011	44868.30	3.6820	3.6820	1.6133	26.09	0.13	1.500			
0.7056	45160.68	3.6790	3.6790	1.5131	26.08	0.12	1.500			
0.7100	45437.86	3.6760	3.6760	1.4459	26.08	0.12	1.500			
0.7141	45703.75	3.6730	3.6730	1.3801	26.07	0.11	1.500			
0.7182	45962.70	3.6700	3.6700	1.3398	26.06	0.10	1.500			
0.7221	46213.37	3.6670	3.6670	1.3036	26.06	0.10	1.500			
0.7259	46458.67	3.6640	3.6641	1.2799	26.05	0.09	1.500			
0.7297	46698.91	3.6610	3.6610	1.2660	26.04	0.08	1.500			
0.7334	46938.79	3.6580	3.6580	1.2678	26.03	0.07	1.500			
0.7372	47177.81	3.6550	3.6549	1.2711	26.03	0.07	1.500			
0.7410	47423.62	3.6520	3.6520	1.2825	26.02	0.06	1.500			
0.7449	47671.35	3.6490	3.6490	1.2922	26.01	0.05	1.500			
0.7488	47922.37	3.6460	3.6460	1.3023	26.00	0.04	1.500			
0.7527	48174.61	3.6430	3.6431	1.3057	26.00	0.04	1.500			
0.7566	48425.49	3.6400	3.6399	1.3007	25.99	0.03	1.500			
0.7605	48674.68	3.6370	3.6371	1.3043	25.98	0.02	1.500			
0.7645	48925.04	3.6340	3.6340	1.3023	25.97	0.01	1.500			
0.7683	49173.90	3.6310	3.6310	1.3074	25.96	0.00	1.500			
0.7723	49424.61	3.6280	3.6280	1.3077	25.96	-0.00	1.500			
0.7762	49677.01	3.6250	3.6250	1.3071	25.95	-0.01	1.500			
0.7801	49928.99	3.6220	3.6220	1.3042	25.94	-0.02	1.500			
0.7841	50179.57	3.6190	3.6190	1.3022	25.94	-0.02	1.500			
0.7879	50427.71	3.6160	3.6160	1.2952	25.93	-0.03	1.500			
0.7918	50676.80	3.6130	3.6130	1.2907	25.93	-0.03	1.500			
0.7957	50923.37	3.6100	3.6099	1.2820	25.92	-0.04	1.500			
0.7995	51170.33	3.6070	3.6070	1.2755	25.92	-0.04	1.500			
0.8034	51415.62	3.6040	3.6040	1.2624	25.92	-0.04	1.500			
0.8072	51657.99	3.6010	3.6010	1.2481	25.92	-0.04	1.500			
0.8109	51895.62	3.5980	3.5980	1.2311	25.92	-0.04	1.500			
0.8145	52129.03	3.5950	3.5950	1.2163	25.92	-0.04	1.500			
0.8182	52361.94	3.5920	3.5920	1.1982	25.92	-0.04	1.500			
0.8218	52592.14	3.5890	3.5890	1.1763	25.92	-0.04	1.500			
0.8253	52816.58	3.5860	3.5860	1.1504	25.93	-0.03	1.500			
0.8288	53042.35	3.5830	3.5830	1.1088	25.93	-0.03	1.500			
0.8321	53254.89	3.5800	3.5800	1.0447	25.94	-0.02	1.500			
0.8353	53459.85	3.5770	3.5769	0.9614	25.94	-0.02	1.500			
0.8381	53637.91	3.5740	3.5741	0.8520	25.95	-0.01	1.500			
0.8405	53794.61	3.5710	3.5710	0.7373	25.95	-0.01	1.500			
0.8425	53919.36	3.5680	3.5680	0.6199	25.95	-0.01	1.500			
0.8441	54019.46	3.5650	3.5651	0.5063	25.96	-0.00	1.500			
0.8454	54102.87	3.5620	3.5619	0.4237	25.96	-0.00	1.500			
0.8464	54170.66	3.5590	3.5589	0.3526	25.96	0.00	1.500			
0.8473	54230.02	3.5560	3.5560	0.3062	25.96	0.00	1.500			
0.8481	54280.86	3.5530	3.5530	0.2662	25.96	0.00	1.500			
0.8489	54328.13	3.5500	3.5500	0.2361	25.97	0.01	1.500			
0.8495	54369.52	3.5470	3.5469	0.2130	25.97	0.01	1.500			
0.8501	54407.35	3.5440	3.5439	0.1931	25.97	0.01	1.500			
0.8506	54441.51	3.5410	3.5411	0.1759	25.97	0.01	1.500			
0.8511	54473.26	3.5380	3.5379	0.1597	25.97	0.01	1.500			
0.8516	54502.25	3.5350	3.5350	0.1460	25.97	0.01	1.500			
0.8520	54528.66	3.5320	3.5319	0.1319	25.97	0.01	1.500			
0.8524	54552.80	3.5290	3.5289	0.1181	25.97	0.01	1.500			
0.8527	54574.20	3.5260	3.5262	0.1048	25.97	0.01	1.500			
0.8530	54593.18	3.5230	3.5230	0.0917	25.97	0.01	1.500			
0.8533	54609.92	3.5200	3.5202	0.0785	25.97	0.01	1.500			
0.8535	54623.63	3.5170	3.5173	0.0643	25.97	0.01	1.500			
0.8537	54634.72	3.5140	3.5145	0.0498	25.97	0.01	1.500			
0.8538	54642.89	3.5110	3.5117	0.0353	25.97	0.01	1.500			
