Ah_balance (normalized)	Ah_balance (mAh)	Voltage - fit (V)	Voltage -  interpolate (V)	dQ/dV (1/V)	Temperature (°C)	Temperature - diff (°C)	Current (C)	R_DC 0ms (mOhm)	R_DC 50ms (mOhm)	R_DC 50 ms PEC (mOhm)
0.2736	17510.85	3.9910	3.9910	0.8346	27.37	1.41	1.500			
0.2761	17670.99	3.9880	3.9879	0.8364	27.36	1.40	1.500			
0.2786	17832.66	3.9850	3.9851	0.8425	27.35	1.39	1.500			
0.2812	17995.42	3.9820	3.9819	0.8446	27.35	1.39	1.500			
0.2837	18157.71	3.9790	3.9790	0.8501	27.34	1.38	1.500			
0.2862	18319.90	3.9760	3.9761	0.8502	27.34	1.38	1.500			
0.2888	18485.45	3.9730	3.9730	0.8596	27.33	1.37	1.500			
0.2914	18649.96	3.9700	3.9700	0.8618	27.32	1.36	1.500			
0.2940	18816.04	3.9670	3.9670	0.8602	27.32	1.36	1.500			
0.2966	18981.73	3.9640	3.9640	0.8657	27.31	1.35	1.500			
0.2992	19149.12	3.9610	3.9610	0.8681	27.30	1.34	1.500			
0.3018	19314.13	3.9580	3.9580	0.8705	27.30	1.34	1.500			
0.3044	19481.41	3.9550	3.9551	0.8772	27.29	1.33	1.500			
0.3070	19650.64	3.9520	3.9519	0.8812	27.28	1.32	1.500			
0.3097	19820.89	3.9490	3.9490	0.8851	27.28	1.32	1.500			
0.3124	19991.89	3.9460	3.9460	0.8934	27.27	1.31	1.500			
0.3150	20162.80	3.9430	3.9430	0.8936	27.26	1.30	1.500			
0.3177	20335.50	3.9400	3.9399	0.8984	27.25	1.29	1.500			
0.3204	20507.70	3.9370	3.9371	0.9004	27.25	1.29	1.500			
0.3231	20679.70	3.9340	3.9340	0.9063	27.24	1.28	1.500			
0.3259	20854.87	3.9310	3.9308	0.9129	27.23	1.27	1.500			
0.3286	21030.85	3.9280	3.9280	0.9200	27.22	1.26	1.500			
0.3314	21207.36	3.9250	3.9250	0.9255	27.21	1.25	1.500			
0.3342	21387.51	3.9220	3.9220	0.9358	27.20	1.24	1.500			
0.3370	21567.65	3.9190	3.9190	0.9345	27.19	1.23	1.500			
0.3398	21748.60	3.9160	3.9160	0.9420	27.19	1.23	1.500			
0.3426	21928.77	3.9130	3.9131	0.9461	27.18	1.22	1.500			
0.3455	22111.47	3.9100	3.9100	0.9512	27.17	1.21	1.500			
0.3483	22293.25	3.9070	3.9070	0.9595	27.16	1.20	1.500			
0.3512	22477.25	3.9040	3.9040	0.9686	27.15	1.19	1.500			
0.3541	22664.43	3.9010	3.9010	0.9767	27.14	1.18	1.500			
0.3571	22855.71	3.8980	3.8980	0.9875	27.13	1.17	1.500			
0.3601	23044.80	3.8950	3.8950	0.9927	27.12	1.16	1.500			
0.3631	23235.84	3.8920	3.8920	1.0018	27.11	1.15	1.500			
0.3661	23428.09	3.8890	3.8890	1.0130	27.10	1.14	1.500			
0.3691	23623.05	3.8860	3.8860	1.0213	27.08	1.12	1.500			
0.3722	23820.70	3.8830	3.8830	1.0324	27.07	1.11	1.500			
0.3753	24020.73	3.8800	3.8800	1.0481	27.06	1.10	1.500			
0.3785	24223.98	3.8770	3.8770	1.0612	27.05	1.09	1.500			
0.3817	24428.64	3.8740	3.8739	1.0684	27.04	1.08	1.500			
0.3849	24634.36	3.8710	3.8711	1.0767	27.03	1.07	1.500			
0.3882	24843.03	3.8680	3.8680	1.0815	27.02	1.06	1.500			
0.3914	25049.90	3.8650	3.8650	1.0955	27.00	1.04	1.500			
0.3947	25259.67	3.8620	3.8620	1.1062	26.99	1.03	1.500			
0.3980	25472.44	3.8590	3.8590	1.1178	26.98	1.02	1.500			
0.4014	25688.42	3.8560	3.8559	1.1380	26.97	1.01	1.500			
0.4048	25909.92	3.8530	3.8531	1.1531	26.96	1.00	1.500			
0.4083	26132.80	3.8500	3.8500	1.1730	26.94	0.98	1.500			
0.4119	26361.52	3.8470	3.8470	1.1868	26.93	0.97	1.500			
0.4155	26589.03	3.8440	3.8440	1.1984	26.92	0.96	1.500			
0.4191	26820.65	3.8410	3.8410	1.2168	26.90	0.94	1.500			
0.4227	27054.12	3.8380	3.8381	1.2415	26.89	0.93	1.500			
0.4264	27292.79	3.8350	3.8350	1.2612	26.88	0.92	1.500			
0.4303	27539.06	3.8320	3.8320	1.2878	26.87	0.91	1.500			
0.4342	27787.93	3.8290	3.8290	1.3088	26.85	0.89	1.500			
0.4382	28044.16	3.8260	3.8261	1.3282	26.83	0.87	1.500			
0.4422	28300.16	3.8230	3.8231	1.3491	26.82	0.86	1.500			
0.4463	28561.50	3.8200	3.8200	1.3654	26.80	0.84	1.500			
0.4504	28823.67	3.8170	3.8169	1.3892	26.78	0.82	1.500			
0.4545	29090.88	3.8140	3.8140	1.4145	26.77	0.81	1.500			
0.4588	29364.78	3.8110	3.8111	1.4400	26.75	0.79	1.500			
0.4632	29646.36	3.8080	3.8080	1.4619	26.74	0.78	1.500			
0.4676	29928.59	3.8050	3.8050	1.4836	26.72	0.76	1.500			
0.4721	30215.26	3.8020	3.8020	1.5089	26.70	0.74	1.500			
0.4767	30508.60	3.7990	3.7989	1.5340	26.69	0.73	1.500			
0.4813	30804.70	3.7960	3.7960	1.5609	26.67	0.71	1.500			
0.4861	31108.40	3.7930	3.7930	1.5838	26.65	0.69	1.500			
0.4908	31412.15	3.7900	3.7900	1.6122	26.64	0.68	1.500			
0.4957	31722.62	3.7870	3.7871	1.6336	26.62	0.66	1.500			
0.5006	32039.26	3.7840	3.7839	1.6611	26.60	0.64	1.500	0.343	0.482	
0.5057	32362.53	3.7810	3.7811	1.6816	26.59	0.63	1.500			
0.5108	32692.47	3.7780	3.7780	1.7019	26.57	0.61	1.500			
0.5159	33019.51	3.7750	3.7750	1.6981	26.56	0.60	1.500			
0.5210	33342.20	3.7720	3.7720	1.7058	26.54	0.58	1.500			
0.5261	33671.17	3.7690	3.7689	1.7066	26.53	0.57	1.500			
0.5312	33997.54	3.7660	3.7660	1.7129	26.51	0.55	1.500			
0.5364	34328.17	3.7630	3.7631	1.7136	26.50	0.54	1.500			
0.5415	34654.24	3.7600	3.7600	1.7163	26.49	0.53	1.500			
0.5466	34980.56	3.7570	3.7570	1.7291	26.47	0.51	1.500			
0.5518	35316.43	3.7540	3.7539	1.7572	26.46	0.50	1.500			
0.5571	35655.39	3.7510	3.7510	1.7855	26.44	0.48	1.500			
0.5626	36004.09	3.7480	3.7480	1.8030	26.43	0.47	1.500			
0.5679	36347.00	3.7450	3.7450	1.8374	26.41	0.45	1.500			
0.5735	36703.55	3.7420	3.7420	1.8697	26.40	0.44	1.500			
0.5792	37066.98	3.7390	3.7390	1.9133	26.38	0.42	1.500			
0.5850	37438.20	3.7360	3.7362	1.9550	26.36	0.40	1.500			
0.5909	37816.81	3.7330	3.7330	2.0023	26.35	0.39	1.500			
0.5970	38207.44	3.7300	3.7300	2.0501	26.33	0.37	1.500			
0.6032	38605.02	3.7270	3.7270	2.1191	26.31	0.35	1.500			
0.6097	39018.02	3.7240	3.7240	2.1596	26.30	0.34	1.500			
0.6162	39437.61	3.7210	3.7210	2.2119	26.28	0.32	1.500			
0.6229	39865.57	3.7180	3.7180	2.2697	26.27	0.31	1.500			
0.6298	40308.54	3.7150	3.7150	2.3212	26.25	0.29	1.500			
0.6369	40761.81	3.7120	3.7120	2.3030	26.24	0.28	1.500			
0.6439	41208.46	3.7090	3.7090	2.2575	26.22	0.26	1.500			
0.6506	41637.25	3.7060	3.7059	2.1705	26.21	0.25	1.500			
0.6570	42045.52	3.7030	3.7030	2.0416	26.20	0.24	1.500			
0.6629	42425.84	3.7000	3.7001	1.9051	26.19	0.23	1.500			
0.6684	42777.72	3.6970	3.6970	1.7875	26.17	0.21	1.500			
0.6735	43105.99	3.6940	3.6940	1.6724	26.16	0.20	1.500			
0.6783	43412.89	3.6910	3.6911	1.5840	26.16	0.20	1.500			
0.6829	43707.98	3.6880	3.6879	1.5096	26.15	0.19	1.500			
0.6874	43991.89	3.6850	3.6850	1.4447	26.14	0.18	1.500			
0.6916	44259.45	3.6820	3.6820	1.3909	26.13	0.17	1.500			
0.6956	44518.07	3.6790	3.6790	1.3518	26.13	0.17	1.500			
0.6996	44771.43	3.6760	3.6760	1.3156	26.12	0.16	1.500			
0.7034	45018.43	3.6730	3.6730	1.2947	26.11	0.15	1.500			
0.7072	45262.39	3.6700	3.6700	1.2753	26.11	0.15	1.500			
0.7110	45505.83	3.6670	3.6670	1.2719	26.10	0.14	1.500			
0.7148	45749.53	3.6640	3.6640	1.2741	26.09	0.13	1.500			
0.7186	45992.54	3.6610	3.6610	1.2692	26.08	0.12	1.500			
0.7224	46235.30	3.6580	3.6580	1.2716	26.08	0.12	1.500			
0.7263	46481.44	3.6550	3.6550	1.2725	26.07	0.11	1.500			
0.7301	46726.69	3.6520	3.6521	1.2664	26.06	0.10	1.500			
0.7339	46971.31	3.6490	3.6489	1.2600	26.05	0.09	1.500			
0.7377	47211.34	3.6460	3.6460	1.2454	26.05	0.09	1.500			
0.7414	47450.50	3.6430	3.6430	1.2321	26.04	0.08	1.500			
0.7451	47685.93	3.6400	3.6400	1.2220	26.03	0.07	1.500			
0.7487	47917.73	3.6370	3.6370	1.2097	26.02	0.06	1.500			
0.7523	48150.38	3.6340	3.6341	1.2004	26.02	0.06	1.500			
0.7559	48379.43	3.6310	3.6310	1.1956	26.01	0.05	1.500			
0.7595	48608.07	3.6280	3.6280	1.1852	26.01	0.05	1.500			
0.7630	48834.95	3.6250	3.6250	1.1754	26.00	0.04	1.500			
0.7666	49060.64	3.6220	3.6219	1.1669	25.99	0.03	1.500			
0.7701	49283.41	3.6190	3.6190	1.1486	25.99	0.03	1.500			
0.7735	49505.29	3.6160	3.6160	1.1248	25.98	0.02	1.500			
0.7769	49719.70	3.6130	3.6130	1.1034	25.98	0.02	1.500			
0.7801	49928.95	3.6100	3.6101	1.0778	25.98	0.02	1.500			
0.7833	50133.45	3.6070	3.6070	1.0506	25.97	0.01	1.500			
0.7864	50331.89	3.6040	3.6039	1.0224	25.97	0.01	1.500			
0.7895	50525.37	3.6010	3.6010	0.9932	25.97	0.01	1.500			
0.7924	50714.74	3.5980	3.5980	0.9620	25.97	0.01	1.500			
0.7953	50898.02	3.5950	3.5950	0.9221	25.96	0.00	1.500			
0.7980	51074.87	3.5920	3.5920	0.8659	25.96	0.00	1.500			
0.8006	51238.83	3.5890	3.5890	0.8024	25.96	0.00	1.500			
0.8030	51391.72	3.5860	3.5860	0.7247	25.96	-0.00	1.500			
0.8051	51523.89	3.5830	3.5830	0.6358	25.96	-0.00	1.500			
0.8068	51636.03	3.5800	3.5801	0.5519	25.96	-0.00	1.500			
0.8083	51729.60	3.5770	3.5771	0.4728	25.95	-0.01	1.500			
0.8095	51809.81	3.5740	3.5739	0.3942	25.95	-0.01	1.500			
0.8106	51876.30	3.5710	3.5709	0.3390	25.95	-0.01	1.500			
0.8114	51930.73	3.5680	3.5680	0.2912	25.95	-0.01	1.500			
0.8122	51980.57	3.5650	3.5650	0.2578	25.95	-0.01	1.500			
0.8129	52025.07	3.5620	3.5619	0.2264	25.95	-0.01	1.500			
0.8135	52064.78	3.5590	3.5590	0.2034	25.95	-0.01	1.500			
0.8141	52101.06	3.5560	3.5561	0.1840	25.95	-0.01	1.500			
0.8146	52134.12	3.5530	3.5530	0.1650	25.95	-0.01	1.500			
0.8151	52163.85	3.5500	3.5500	0.1500	25.95	-0.01	1.500			
0.8155	52190.78	3.5470	3.5470	0.1340	25.95	-0.01	1.500			
0.8159	52214.66	3.5440	3.5440	0.1185	25.95	-0.01	1.500			
0.8162	52236.12	3.5410	3.5410	0.1044	25.95	-0.01	1.500			
0.8165	52254.79	3.5380	3.5381	0.0901	25.95	-0.01	1.500			
0.8167	52270.82	3.5350	3.5351	0.0757	25.95	-0.01	1.500			
0.8169	52284.46	3.5320	3.5322	0.0608	25.95	-0.01	1.500			
0.8171	52294.64	3.5290	3.5295	0.0452	25.95	-0.01	1.500			
0.8172	52301.81	3.5260	3.5269	0.0295	25.95	-0.01	1.500			
