Ah_balance (normalized)	Ah_balance (mAh)	Voltage - fit (V)	Voltage -  interpolate (V)	dQ/dV (1/V)	Temperature (°C)	Temperature - diff (°C)	Current (C)	R_DC 0ms (mOhm)	R_DC 50ms (mOhm)	R_DC 50 ms PEC (mOhm)
0.1959	12540.54	3.9360	3.9359	-0.1292	25.53	0.01	-0.750			
0.1964	12570.66	3.9330	3.9329	-0.1793	25.53	0.01	-0.750			
0.1970	12609.57	3.9300	3.9300	-0.2265	25.53	0.01	-0.750			
0.1978	12657.86	3.9270	3.9270	-0.2729	25.53	0.01	-0.750			
0.1987	12714.94	3.9240	3.9240	-0.3184	25.53	0.01	-0.750			
0.1997	12781.22	3.9210	3.9210	-0.3618	25.53	0.01	-0.750			
0.2009	12855.56	3.9180	3.9180	-0.4027	25.53	0.01	-0.750			
0.2021	12937.37	3.9150	3.9151	-0.4406	25.52	0.00	-0.750			
0.2035	13026.59	3.9120	3.9120	-0.4769	25.52	0.00	-0.750			
0.2050	13121.86	3.9090	3.9089	-0.5075	25.52	-0.00	-0.750			
0.2066	13223.66	3.9060	3.9060	-0.5364	25.52	-0.00	-0.750			
0.2083	13329.30	3.9030	3.9031	-0.5626	25.51	-0.01	-0.750			
0.2100	13440.94	3.9000	3.9000	-0.5884	25.51	-0.01	-0.750			
0.2118	13556.79	3.8970	3.8971	-0.6063	25.51	-0.01	-0.750			
0.2137	13675.86	3.8940	3.8939	-0.6238	25.50	-0.02	-0.750			
0.2156	13797.52	3.8910	3.8910	-0.6367	25.50	-0.02	-0.750			
0.2175	13922.49	3.8880	3.8880	-0.6485	25.50	-0.02	-0.750			
0.2195	14048.09	3.8850	3.8850	-0.6546	25.50	-0.02	-0.750			
0.2215	14174.29	3.8820	3.8820	-0.6627	25.50	-0.02	-0.750			
0.2235	14302.35	3.8790	3.8790	-0.6694	25.50	-0.02	-0.750			
0.2255	14432.23	3.8760	3.8760	-0.6744	25.50	-0.02	-0.750			
0.2275	14562.29	3.8730	3.8730	-0.6770	25.50	-0.02	-0.750			
0.2296	14692.42	3.8700	3.8701	-0.6814	25.50	-0.02	-0.750			
0.2316	14824.26	3.8670	3.8670	-0.6851	25.50	-0.02	-0.750			
0.2337	14955.54	3.8640	3.8640	-0.6868	25.50	-0.02	-0.750			
0.2357	15086.36	3.8610	3.8610	-0.6891	25.49	-0.03	-0.750			
0.2378	15219.66	3.8580	3.8580	-0.6952	25.49	-0.03	-0.750			
0.2399	15354.06	3.8550	3.8549	-0.6987	25.49	-0.03	-0.750			
0.2420	15489.37	3.8520	3.8521	-0.6997	25.49	-0.03	-0.750			
0.2441	15623.76	3.8490	3.8490	-0.6990	25.49	-0.03	-0.750			
0.2462	15758.43	3.8460	3.8460	-0.7012	25.49	-0.03	-0.750			
0.2483	15893.25	3.8430	3.8430	-0.6992	25.50	-0.02	-0.750			
0.2504	16026.12	3.8400	3.8400	-0.6974	25.50	-0.02	-0.750			
0.2525	16159.93	3.8370	3.8370	-0.6991	25.50	-0.02	-0.750			
0.2546	16294.41	3.8340	3.8340	-0.7001	25.50	-0.02	-0.750			
0.2567	16429.20	3.8310	3.8310	-0.6998	25.50	-0.02	-0.750			
0.2588	16563.17	3.8280	3.8280	-0.7014	25.50	-0.02	-0.750			
0.2609	16698.38	3.8250	3.8250	-0.6984	25.50	-0.02	-0.750			
0.2630	16832.70	3.8220	3.8220	-0.6989	25.50	-0.02	-0.750			
0.2651	16966.70	3.8190	3.8190	-0.6956	25.50	-0.02	-0.750			
0.2672	17099.66	3.8160	3.8160	-0.6943	25.50	-0.02	-0.750			
0.2693	17232.88	3.8130	3.8130	-0.6943	25.50	-0.02	-0.750			
0.2713	17365.53	3.8100	3.8100	-0.6950	25.51	-0.01	-0.750			
0.2734	17498.42	3.8070	3.8070	-0.6966	25.51	-0.01	-0.750			
0.2755	17633.61	3.8040	3.8040	-0.6960	25.51	-0.01	-0.750			
0.2776	17766.21	3.8010	3.8010	-0.6964	25.52	-0.00	-0.750			
0.2797	17900.52	3.7980	3.7981	-0.6992	25.52	0.00	-0.750			
0.2818	18034.50	3.7950	3.7949	-0.7000	25.52	0.00	-0.750			
0.2839	18168.35	3.7920	3.7920	-0.7033	25.52	0.00	-0.750			
0.2860	18304.74	3.7890	3.7890	-0.7021	25.53	0.01	-0.750			
0.2881	18440.04	3.7860	3.7860	-0.7040	25.53	0.01	-0.750			
0.2902	18575.61	3.7830	3.7830	-0.7059	25.53	0.01	-0.750			
0.2923	18710.33	3.7800	3.7800	-0.7025	25.53	0.01	-0.750			
0.2944	18844.78	3.7770	3.7769	-0.7053	25.53	0.01	-0.750			
0.2966	18979.58	3.7740	3.7740	-0.7080	25.53	0.01	-0.750			
0.2987	19115.44	3.7710	3.7711	-0.7108	25.53	0.01	-0.750			
0.3008	19253.08	3.7680	3.7680	-0.7175	25.53	0.01	-0.750			
0.3030	19391.56	3.7650	3.7650	-0.7187	25.53	0.01	-0.750			
0.3052	19530.23	3.7620	3.7620	-0.7218	25.53	0.01	-0.750			
0.3073	19668.74	3.7590	3.7590	-0.7289	25.53	0.01	-0.750			
0.3095	19808.40	3.7560	3.7560	-0.7327	25.53	0.01	-0.750			
0.3117	19949.12	3.7530	3.7529	-0.7388	25.54	0.02	-0.750			
0.3139	20092.43	3.7500	3.7500	-0.7447	25.54	0.02	-0.750			
0.3162	20235.71	3.7470	3.7471	-0.7520	25.54	0.02	-0.750			
0.3185	20381.17	3.7440	3.7440	-0.7598	25.54	0.02	-0.750			
0.3207	20527.45	3.7410	3.7410	-0.7664	25.54	0.02	-0.750			
0.3230	20674.99	3.7380	3.7379	-0.7693	25.53	0.01	-0.750			
0.3254	20823.45	3.7350	3.7350	-0.7750	25.53	0.01	-0.750			
0.3277	20972.59	3.7320	3.7320	-0.7828	25.53	0.01	-0.750			
0.3301	21123.75	3.7290	3.7290	-0.7895	25.53	0.01	-0.750			
0.3324	21274.45	3.7260	3.7260	-0.7975	25.53	0.01	-0.750			
0.3348	21428.69	3.7230	3.7230	-0.8076	25.53	0.01	-0.750			
0.3373	21584.62	3.7200	3.7200	-0.8184	25.53	0.01	-0.750			
0.3397	21743.94	3.7170	3.7170	-0.8288	25.53	0.01	-0.750			
0.3422	21903.75	3.7140	3.7140	-0.8379	25.53	0.01	-0.750			
0.3448	22064.61	3.7110	3.7110	-0.8503	25.53	0.01	-0.750			
0.3473	22227.75	3.7080	3.7080	-0.8701	25.53	0.01	-0.750			
0.3499	22395.94	3.7050	3.7050	-0.8875	25.52	0.00	-0.750			
0.3526	22569.59	3.7020	3.7019	-0.9011	25.52	0.00	-0.750			
0.3554	22744.69	3.6990	3.6991	-0.9140	25.52	-0.00	-0.750			
0.3582	22923.34	3.6960	3.6960	-0.9306	25.52	-0.00	-0.750			
0.3610	23102.49	3.6930	3.6930	-0.9416	25.51	-0.01	-0.750			
0.3638	23282.74	3.6900	3.6900	-0.9502	25.51	-0.01	-0.750			
0.3666	23464.12	3.6870	3.6871	-0.9680	25.51	-0.01	-0.750			
0.3696	23652.65	3.6840	3.6840	-0.9869	25.51	-0.01	-0.750			
0.3726	23844.34	3.6810	3.6810	-1.0084	25.51	-0.01	-0.750			
0.3756	24039.58	3.6780	3.6780	-1.0264	25.50	-0.02	-0.750			
0.3787	24239.06	3.6750	3.6751	-1.0488	25.50	-0.02	-0.750			
0.3819	24442.32	3.6720	3.6720	-1.0690	25.50	-0.02	-0.750			
0.3851	24647.92	3.6690	3.6690	-1.0948	25.50	-0.02	-0.750			
0.3884	24859.81	3.6660	3.6660	-1.1195	25.49	-0.03	-0.750			
0.3918	25076.96	3.6630	3.6630	-1.1467	25.49	-0.03	-0.750			
0.3953	25300.26	3.6600	3.6600	-1.1771	25.49	-0.03	-0.750			
0.3989	25529.75	3.6570	3.6570	-1.2064	25.48	-0.04	-0.750			
0.4026	25763.66	3.6540	3.6540	-1.2365	25.48	-0.04	-0.750			
0.4063	26005.55	3.6510	3.6509	-1.2590	25.48	-0.04	-0.750			
0.4101	26248.54	3.6480	3.6480	-1.2811	25.47	-0.05	-0.750			
0.4140	26496.85	3.6450	3.6449	-1.3119	25.46	-0.06	-0.750			
0.4180	26751.06	3.6420	3.6420	-1.3369	25.46	-0.06	-0.750			
0.4221	27011.87	3.6390	3.6389	-1.3619	25.46	-0.06	-0.750			
0.4262	27274.90	3.6360	3.6360	-1.3887	25.45	-0.07	-0.750			
0.4304	27543.99	3.6330	3.6330	-1.4174	25.45	-0.07	-0.750			
0.4347	27819.18	3.6300	3.6300	-1.4623	25.45	-0.07	-0.750			
0.4391	28102.76	3.6270	3.6269	-1.4924	25.44	-0.08	-0.750			
0.4436	28391.47	3.6240	3.6240	-1.5321	25.44	-0.08	-0.750			
0.4483	28693.27	3.6210	3.6209	-1.5592	25.43	-0.09	-0.750			
0.4531	28995.77	3.6180	3.6179	-1.5878	25.43	-0.09	-0.750			
0.4579	29303.26	3.6150	3.6150	-1.6170	25.43	-0.09	-0.750			
0.4627	29615.96	3.6120	3.6119	-1.6581	25.42	-0.10	-0.750			
0.4677	29935.26	3.6090	3.6090	-1.6763	25.42	-0.10	-0.750			
0.4728	30260.19	3.6060	3.6063	-1.7164	25.42	-0.10	-0.750			
0.4781	30595.72	3.6030	3.6030	-1.7513	25.42	-0.10	-0.750			
0.4834	30937.90	3.6000	3.6000	-1.7857	25.42	-0.10	-0.750			
0.4888	31280.44	3.5970	3.5971	-1.8211	25.42	-0.10	-0.750			
0.4943	31637.49	3.5940	3.5940	-1.8606	25.42	-0.10	-0.750			
0.4999	31996.49	3.5910	3.5910	-1.8829	25.42	-0.10	-0.750			
0.5057	32361.76	3.5880	3.5880	-1.9108	25.42	-0.10	-0.750			
0.5114	32731.04	3.5850	3.5851	-1.9437	25.43	-0.09	-0.750			
0.5173	33108.60	3.5820	3.5820	-1.9647	25.43	-0.09	-0.750			
0.5232	33487.81	3.5790	3.5790	-1.9906	25.44	-0.08	-0.750			
0.5293	33872.50	3.5760	3.5761	-1.9989	25.45	-0.07	-0.750			
0.5353	34259.33	3.5730	3.5730	-2.0155	25.45	-0.07	-0.750	0.385	0.552	
0.5413	34643.23	3.5700	3.5700	-2.0404	25.46	-0.06	-0.750			
0.5474	35032.56	3.5670	3.5670	-2.0793	25.47	-0.05	-0.750			
0.5537	35438.13	3.5640	3.5640	-2.1059	25.48	-0.04	-0.750			
0.5602	35852.71	3.5610	3.5611	-2.1395	25.48	-0.04	-0.750			
0.5667	36267.42	3.5580	3.5581	-2.1497	25.49	-0.03	-0.750			
0.5731	36680.72	3.5550	3.5549	-2.1232	25.50	-0.02	-0.750			
0.5795	37085.89	3.5520	3.5520	-2.1211	25.50	-0.02	-0.750			
0.5858	37492.73	3.5490	3.5491	-2.1069	25.51	-0.01	-0.750			
0.5922	37899.30	3.5460	3.5459	-2.0988	25.52	0.00	-0.750			
0.5985	38300.86	3.5430	3.5429	-2.0753	25.53	0.01	-0.750			
0.6046	38694.37	3.5400	3.5401	-2.0632	25.53	0.01	-0.750			
0.6108	39093.53	3.5370	3.5370	-2.0333	25.54	0.02	-0.750			
0.6169	39482.98	3.5340	3.5339	-2.0164	25.55	0.03	-0.750			
0.6229	39866.05	3.5310	3.5311	-1.9801	25.56	0.04	-0.750			
0.6288	40244.97	3.5280	3.5280	-1.9435	25.57	0.05	-0.750			
0.6346	40617.47	3.5250	3.5250	-1.9110	25.58	0.06	-0.750			
0.6403	40978.08	3.5220	3.5220	-1.8692	25.60	0.08	-0.750			
0.6459	41336.50	3.5190	3.5189	-1.8321	25.61	0.09	-0.750			
0.6513	41680.25	3.5160	3.5161	-1.7800	25.63	0.11	-0.750			
0.6566	42020.49	3.5130	3.5129	-1.7418	25.65	0.13	-0.750			
0.6617	42349.75	3.5100	3.5101	-1.6975	25.66	0.14	-0.750			
0.6667	42671.23	3.5070	3.5071	-1.6542	25.68	0.16	-0.750			
0.6717	42987.67	3.5040	3.5040	-1.6096	25.70	0.18	-0.750			
0.6764	43289.77	3.5010	3.5009	-1.5573	25.71	0.19	-0.750			
0.6810	43586.05	3.4980	3.4979	-1.4991	25.73	0.21	-0.750			
0.6854	43868.65	3.4950	3.4951	-1.4514	25.74	0.22	-0.750			
0.6897	44138.45	3.4920	3.4921	-1.4074	25.75	0.23	-0.750			
0.6938	44403.60	3.4890	3.4889	-1.3632	25.77	0.25	-0.750			
0.6978	44661.64	3.4860	3.4859	-1.3249	25.78	0.26	-0.750			
0.7017	44911.39	3.4830	3.4830	-1.2875	25.79	0.27	-0.750			
0.7055	45154.82	3.4800	3.4801	-1.2565	25.81	0.29	-0.750			
0.7093	45394.32	3.4770	3.4769	-1.2242	25.82	0.30	-0.750			
0.7129	45622.69	3.4740	3.4740	-1.1877	25.84	0.32	-0.750			
0.7164	45846.54	3.4710	3.4710	-1.1564	25.85	0.33	-0.750			
0.7198	46066.90	3.4680	3.4680	-1.1404	25.86	0.34	-0.750			
0.7232	46284.60	3.4650	3.4650	-1.1177	25.88	0.36	-0.750			
0.7265	46496.29	3.4620	3.4619	-1.0993	25.89	0.37	-0.750			
0.7297	46703.34	3.4590	3.4591	-1.0894	25.90	0.38	-0.750			
0.7330	46910.64	3.4560	3.4561	-1.0840	25.91	0.39	-0.750			
0.7362	47117.47	3.4530	3.4529	-1.0812	25.91	0.39	-0.750			
0.7394	47324.40	3.4500	3.4500	-1.0773	25.92	0.40	-0.750			
0.7426	47529.55	3.4470	3.4471	-1.0824	25.92	0.40	-0.750			
0.7459	47739.89	3.4440	3.4439	-1.0766	25.94	0.42	-0.750			
0.7492	47947.90	3.4410	3.4409	-1.0699	25.95	0.43	-0.750			
0.7524	48152.48	3.4380	3.4380	-1.0612	25.96	0.44	-0.750			
0.7556	48355.56	3.4350	3.4349	-1.0545	25.97	0.45	-0.750			
0.7587	48557.62	3.4320	3.4320	-1.0471	25.98	0.46	-0.750			
0.7618	48758.17	3.4290	3.4290	-1.0382	25.98	0.46	-0.750			
0.7649	48955.44	3.4260	3.4260	-1.0251	25.99	0.47	-0.750			
0.7680	49155.11	3.4230	3.4230	-1.0173	25.99	0.47	-0.750			
0.7711	49349.45	3.4200	3.4200	-1.0065	26.00	0.48	-0.750			
0.7741	49541.80	3.4170	3.4170	-0.9892	26.01	0.49	-0.750			
0.7770	49730.77	3.4140	3.4139	-0.9693	26.02	0.50	-0.750			
0.7799	49915.35	3.4110	3.4111	-0.9478	26.02	0.50	-0.750			
0.7827	50095.54	3.4080	3.4080	-0.9284	26.03	0.51	-0.750			
0.7855	50271.40	3.4050	3.4050	-0.9052	26.04	0.52	-0.750			
0.7882	50441.62	3.4020	3.4020	-0.8780	26.04	0.52	-0.750			
0.7908	50609.50	3.3990	3.3990	-0.8633	26.05	0.53	-0.750			
0.7934	50774.44	3.3960	3.3960	-0.8398	26.05	0.53	-0.750			
0.7958	50933.53	3.3930	3.3928	-0.8168	26.06	0.54	-0.750			
0.7983	51089.90	3.3900	3.3901	-0.7862	26.07	0.55	-0.750			
0.8006	51237.92	3.3870	3.3871	-0.7532	26.07	0.55	-0.750			
0.8028	51381.07	3.3840	3.3839	-0.7236	26.08	0.56	-0.750			
0.8049	51516.38	3.3810	3.3810	-0.6882	26.08	0.56	-0.750			
0.8069	51642.40	3.3780	3.3779	-0.6512	26.08	0.56	-0.750			
0.8088	51764.52	3.3750	3.3750	-0.6212	26.09	0.57	-0.750			
0.8106	51879.86	3.3720	3.3720	-0.5896	26.09	0.57	-0.750			
0.8124	51991.04	3.3690	3.3689	-0.5633	26.09	0.57	-0.750			
0.8140	52095.72	3.3660	3.3660	-0.5344	26.10	0.58	-0.750			
0.8156	52195.43	3.3630	3.3630	-0.5084	26.10	0.58	-0.750			
0.8170	52290.22	3.3600	3.3600	-0.4841	26.10	0.58	-0.750			
0.8184	52380.57	3.3570	3.3570	-0.4632	26.11	0.59	-0.750			
0.8198	52466.57	3.3540	3.3540	-0.4415	26.11	0.59	-0.750			
0.8211	52549.23	3.3510	3.3509	-0.4216	26.11	0.59	-0.750			
0.8223	52628.26	3.3480	3.3480	-0.4049	26.12	0.60	-0.750			
0.8235	52703.98	3.3450	3.3450	-0.3876	26.12	0.60	-0.750			
0.8246	52776.57	3.3420	3.3420	-0.3726	26.13	0.61	-0.750			
0.8257	52846.15	3.3390	3.3389	-0.3583	26.13	0.61	-0.750			
0.8268	52913.62	3.3360	3.3360	-0.3446	26.13	0.61	-0.750			
0.8278	52978.74	3.3330	3.3329	-0.3314	26.14	0.62	-0.750			
0.8288	53040.92	3.3300	3.3301	-0.3190	26.14	0.62	-0.750			
0.8297	53100.37	3.3270	3.3270	-0.3074	26.14	0.62	-0.750			
0.8306	53158.20	3.3240	3.3240	-0.2985	26.15	0.63	-0.750			
0.8315	53213.77	3.3210	3.3210	-0.2878	26.15	0.63	-0.750			
0.8323	53268.42	3.3180	3.3179	-0.2801	26.16	0.64	-0.750			
0.8332	53322.04	3.3150	3.3151	-0.2739	26.16	0.64	-0.750			
0.8340	53373.96	3.3120	3.3120	-0.2667	26.16	0.64	-0.750			
0.8348	53424.16	3.3090	3.3090	-0.2590	26.17	0.65	-0.750			
0.8355	53473.07	3.3060	3.3060	-0.2523	26.17	0.65	-0.750			
0.8363	53520.17	3.3030	3.3030	-0.2450	26.17	0.65	-0.750			
0.8370	53566.82	3.3000	3.3000	-0.2400	26.18	0.66	-0.750			
0.8377	53611.97	3.2970	3.2970	-0.2348	26.18	0.66	-0.750			
0.8384	53656.51	3.2940	3.2940	-0.2300	26.19	0.67	-0.750			
0.8391	53700.24	3.2910	3.2910	-0.2255	26.19	0.67	-0.750			
0.8397	53742.98	3.2880	3.2880	-0.2206	26.19	0.67	-0.750			
0.8404	53784.95	3.2850	3.2850	-0.2164	26.19	0.67	-0.750			
0.8410	53825.89	3.2820	3.2820	-0.2128	26.20	0.68	-0.750			
0.8417	53866.39	3.2790	3.2790	-0.2091	26.20	0.68	-0.750			
0.8423	53906.17	3.2760	3.2759	-0.2046	26.20	0.68	-0.750			
0.8429	53944.90	3.2730	3.2730	-0.2006	26.21	0.69	-0.750			
0.8435	53983.11	3.2700	3.2701	-0.1973	26.21	0.69	-0.750			
0.8441	54020.65	3.2670	3.2670	-0.1937	26.21	0.69	-0.750			
0.8446	54057.45	3.2640	3.2639	-0.1912	26.22	0.70	-0.750			
0.8452	54093.64	3.2610	3.2610	-0.1881	26.22	0.70	-0.750			
0.8458	54129.19	3.2580	3.2580	-0.1850	26.22	0.70	-0.750			
0.8463	54164.54	3.2550	3.2550	-0.1832	26.23	0.71	-0.750			
0.8469	54199.68	3.2520	3.2521	-0.1817	26.23	0.71	-0.750			
0.8474	54234.48	3.2490	3.2490	-0.1789	26.23	0.71	-0.750			
0.8479	54268.73	3.2460	3.2460	-0.1765	26.24	0.72	-0.750			
0.8485	54302.34	3.2430	3.2430	-0.1736	26.24	0.72	-0.750			
0.8490	54335.22	3.2400	3.2401	-0.1719	26.24	0.72	-0.750			
0.8495	54368.05	3.2370	3.2370	-0.1698	26.24	0.72	-0.750			
0.8500	54400.31	3.2340	3.2339	-0.1674	26.25	0.73	-0.750			
0.8505	54432.28	3.2310	3.2310	-0.1656	26.25	0.73	-0.750			
0.8510	54463.78	3.2280	3.2281	-0.1635	26.25	0.73	-0.750			
0.8515	54495.26	3.2250	3.2250	-0.1621	26.26	0.74	-0.750			
0.8520	54526.13	3.2220	3.2219	-0.1603	26.26	0.74	-0.750			
0.8524	54556.71	3.2190	3.2191	-0.1583	26.26	0.74	-0.750			
0.8529	54586.60	3.2160	3.2160	-0.1567	26.26	0.74	-0.750			
0.8534	54616.63	3.2130	3.2130	-0.1554	26.27	0.75	-0.750			
0.8538	54646.36	3.2100	3.2100	-0.1539	26.27	0.75	-0.750			
0.8543	54675.77	3.2070	3.2069	-0.1525	26.27	0.75	-0.750			
0.8548	54704.97	3.2040	3.2040	-0.1510	26.28	0.76	-0.750			
0.8552	54733.79	3.2010	3.2009	-0.1496	26.28	0.76	-0.750			
0.8557	54762.32	3.1980	3.1980	-0.1482	26.28	0.76	-0.750			
0.8561	54790.65	3.1950	3.1951	-0.1469	26.29	0.77	-0.750			
0.8565	54818.61	3.1920	3.1920	-0.1455	26.29	0.77	-0.750			
0.8570	54846.50	3.1890	3.1890	-0.1442	26.29	0.77	-0.750			
0.8574	54874.12	3.1860	3.1860	-0.1430	26.29	0.77	-0.750			
0.8578	54901.46	3.1830	3.1831	-0.1414	26.30	0.78	-0.750			
0.8583	54928.43	3.1800	3.1800	-0.1402	26.30	0.78	-0.750			
0.8587	54955.17	3.1770	3.1769	-0.1389	26.30	0.78	-0.750			
0.8591	54981.72	3.1740	3.1740	-0.1377	26.31	0.79	-0.750			
0.8595	55007.98	3.1710	3.1709	-0.1365	26.31	0.79	-0.750			
0.8599	55034.13	3.1680	3.1680	-0.1349	26.31	0.79	-0.750			
0.8603	55059.78	3.1650	3.1650	-0.1342	26.32	0.80	-0.750			
0.8607	55085.46	3.1620	3.1621	-0.1333	26.32	0.80	-0.750			
0.8611	55110.97	3.1590	3.1589	-0.1321	26.32	0.80	-0.750			
0.8615	55136.13	3.1560	3.1559	-0.1309	26.32	0.80	-0.750			
0.8619	55161.20	3.1530	3.1530	-0.1300	26.33	0.81	-0.750			
0.8623	55186.10	3.1500	3.1501	-0.1288	26.33	0.81	-0.750			
0.8627	55210.79	3.1470	3.1470	-0.1277	26.33	0.81	-0.750			
0.8631	55235.26	3.1440	3.1440	-0.1270	26.34	0.82	-0.750			
0.8634	55259.19	3.1410	3.1410	-0.1255	26.34	0.82	-0.750			
0.8638	55283.30	3.1380	3.1380	-0.1245	26.34	0.82	-0.750			
0.8642	55307.09	3.1350	3.1349	-0.1241	26.34	0.82	-0.750			
0.8645	55330.75	3.1320	3.1320	-0.1233	26.35	0.83	-0.750			
0.8649	55354.47	3.1290	3.1290	-0.1225	26.35	0.83	-0.750			
0.8653	55377.99	3.1260	3.1259	-0.1219	26.35	0.83	-0.750			
0.8656	55401.38	3.1230	3.1231	-0.1208	26.35	0.83	-0.750			
0.8660	55424.54	3.1200	3.1200	-0.1198	26.36	0.84	-0.750			
0.8664	55447.44	3.1170	3.1169	-0.1187	26.36	0.84	-0.750			
0.8667	55470.30	3.1140	3.1140	-0.1177	26.36	0.84	-0.750			
0.8671	55492.70	3.1110	3.1109	-0.1167	26.37	0.85	-0.750			
0.8674	55514.77	3.1080	3.1081	-0.1155	26.37	0.85	-0.750			
0.8678	55536.83	3.1050	3.1050	-0.1147	26.37	0.85	-0.750			
0.8681	55558.78	3.1020	3.1021	-0.1140	26.38	0.86	-0.750			
0.8684	55580.63	3.0990	3.0990	-0.1131	26.38	0.86	-0.750			
0.8688	55602.27	3.0960	3.0960	-0.1123	26.38	0.86	-0.750			
0.8691	55623.66	3.0930	3.0930	-0.1118	26.39	0.87	-0.750			
0.8695	55645.06	3.0900	3.0901	-0.1112	26.39	0.87	-0.750			
0.8698	55666.37	3.0870	3.0870	-0.1104	26.39	0.87	-0.750			
0.8701	55687.50	3.0840	3.0838	-0.1097	26.40	0.88	-0.750			
0.8704	55708.57	3.0810	3.0811	-0.1088	26.40	0.88	-0.750			
0.8708	55729.38	3.0780	3.0780	-0.1079	26.40	0.88	-0.750			
0.8711	55750.09	3.0750	3.0750	-0.1074	26.41	0.89	-0.750			
0.8714	55770.61	3.0720	3.0720	-0.1064	26.41	0.89	-0.750			
0.8717	55790.80	3.0690	3.0690	-0.1055	26.41	0.89	-0.750			
0.8720	55811.00	3.0660	3.0659	-0.1049	26.42	0.90	-0.750			
0.8724	55831.02	3.0630	3.0630	-0.1045	26.42	0.90	-0.750			
0.8727	55851.05	3.0600	3.0600	-0.1041	26.42	0.90	-0.750			
0.8730	55871.17	3.0570	3.0569	-0.1032	26.43	0.91	-0.750			
0.8733	55890.89	3.0540	3.0541	-0.1023	26.43	0.91	-0.750			
0.8736	55910.47	3.0510	3.0510	-0.1016	26.43	0.91	-0.750			
0.8739	55929.89	3.0480	3.0481	-0.1007	26.44	0.92	-0.750			
0.8742	55949.03	3.0450	3.0449	-0.1002	26.44	0.92	-0.750			
0.8745	55968.22	3.0420	3.0420	-0.0997	26.44	0.92	-0.750			
0.8748	55987.10	3.0390	3.0390	-0.0989	26.44	0.92	-0.750			
0.8751	56006.07	3.0360	3.0361	-0.0987	26.45	0.93	-0.750			
0.8754	56025.22	3.0330	3.0330	-0.0983	26.45	0.93	-0.750			
0.8757	56044.01	3.0300	3.0301	-0.0975	26.45	0.93	-0.750			
0.8760	56062.69	3.0270	3.0269	-0.0970	26.46	0.94	-0.750			
0.8763	56081.25	3.0240	3.0241	-0.0963	26.46	0.94	-0.750			
0.8766	56099.63	3.0210	3.0210	-0.0955	26.46	0.94	-0.750			
0.8768	56117.91	3.0180	3.0180	-0.0949	26.47	0.95	-0.750			
0.8771	56136.11	3.0150	3.0150	-0.0939	26.47	0.95	-0.750			
0.8774	56154.06	3.0120	3.0120	-0.0931	26.47	0.95	-0.750			
0.8777	56172.00	3.0090	3.0090	-0.0920	26.47	0.95	-0.750			
0.8780	56189.54	3.0060	3.0060	-0.0907	26.48	0.96	-0.750			
0.8782	56206.84	3.0030	3.0030	-0.0893	26.48	0.96	-0.750			
