Ah_balance (normalized)	Ah_balance (mAh)	Voltage - fit (V)	Voltage -  interpolate (V)	dQ/dV (1/V)	Temperature (°C)	Temperature - diff (°C)	Current (C)	R_DC 0ms (mOhm)	R_DC 50ms (mOhm)	R_DC 50 ms PEC (mOhm)
0.2960	18941.99	3.9720	3.9720	0.8763	27.17	1.21	1.500			
0.2986	19108.36	3.9690	3.9691	0.8696	27.16	1.20	1.500			
0.3012	19274.19	3.9660	3.9660	0.8718	27.16	1.20	1.500			
0.3038	19442.67	3.9630	3.9629	0.8748	27.15	1.19	1.500			
0.3064	19611.06	3.9600	3.9601	0.8761	27.15	1.19	1.500			
0.3091	19779.21	3.9570	3.9569	0.8792	27.15	1.19	1.500			
0.3117	19949.19	3.9540	3.9542	0.8848	27.14	1.18	1.500			
0.3144	20118.83	3.9510	3.9510	0.8890	27.14	1.18	1.500			
0.3170	20288.86	3.9480	3.9479	0.8886	27.13	1.17	1.500			
0.3197	20460.60	3.9450	3.9449	0.8915	27.13	1.17	1.500			
0.3224	20631.60	3.9420	3.9421	0.8957	27.12	1.16	1.500			
0.3250	20802.96	3.9390	3.9390	0.9001	27.12	1.16	1.500			
0.3278	20976.13	3.9360	3.9360	0.9048	27.12	1.16	1.500			
0.3305	21150.04	3.9330	3.9328	0.9129	27.11	1.15	1.500			
0.3332	21325.74	3.9300	3.9301	0.9161	27.11	1.15	1.500			
0.3360	21503.38	3.9270	3.9270	0.9222	27.10	1.14	1.500			
0.3388	21681.48	3.9240	3.9240	0.9280	27.10	1.14	1.500			
0.3415	21857.86	3.9210	3.9211	0.9291	27.09	1.13	1.500			
0.3443	22037.70	3.9180	3.9179	0.9419	27.09	1.13	1.500			
0.3472	22219.88	3.9150	3.9150	0.9431	27.08	1.12	1.500			
0.3500	22401.26	3.9120	3.9121	0.9492	27.08	1.12	1.500			
0.3529	22585.26	3.9090	3.9090	0.9585	27.07	1.11	1.500			
0.3558	22768.77	3.9060	3.9058	0.9639	27.07	1.11	1.500			
0.3586	22952.14	3.9030	3.9030	0.9703	27.07	1.11	1.500			
0.3616	23139.32	3.9000	3.9000	0.9784	27.06	1.10	1.500			
0.3645	23329.59	3.8970	3.8969	0.9887	27.06	1.10	1.500			
0.3675	23520.40	3.8940	3.8940	0.9983	27.06	1.10	1.500			
0.3705	23714.99	3.8910	3.8910	1.0022	27.05	1.09	1.500			
0.3736	23907.63	3.8880	3.8879	1.0164	27.05	1.09	1.500			
0.3766	24104.58	3.8850	3.8850	1.0214	27.05	1.09	1.500			
0.3797	24299.31	3.8820	3.8820	1.0320	27.04	1.08	1.500			
0.3828	24498.42	3.8790	3.8792	1.0455	27.04	1.08	1.500			
0.3859	24700.47	3.8760	3.8760	1.0560	27.03	1.07	1.500			
0.3891	24904.23	3.8730	3.8729	1.0660	27.02	1.06	1.500			
0.3924	25112.10	3.8700	3.8700	1.0769	27.01	1.05	1.500			
0.3956	25318.69	3.8670	3.8671	1.0887	27.00	1.04	1.500			
0.3989	25527.94	3.8640	3.8640	1.1032	27.00	1.04	1.500			
0.4022	25738.52	3.8610	3.8610	1.1119	26.99	1.03	1.500			
0.4055	25954.35	3.8580	3.8579	1.1301	26.98	1.02	1.500			
0.4089	26172.78	3.8550	3.8550	1.1481	26.98	1.02	1.500			
0.4124	26395.54	3.8520	3.8520	1.1621	26.97	1.01	1.500			
0.4160	26621.99	3.8490	3.8490	1.1793	26.97	1.01	1.500			
0.4195	26847.20	3.8460	3.8460	1.1893	26.96	1.00	1.500			
0.4231	27076.82	3.8430	3.8430	1.2103	26.96	1.00	1.500			
0.4267	27309.35	3.8400	3.8400	1.2320	26.96	1.00	1.500			
0.4304	27546.85	3.8370	3.8369	1.2612	26.95	0.99	1.500			
0.4342	27791.55	3.8340	3.8340	1.2867	26.94	0.98	1.500			
0.4382	28042.27	3.8310	3.8310	1.3150	26.94	0.98	1.500			
0.4422	28299.42	3.8280	3.8280	1.3389	26.93	0.97	1.500			
0.4462	28557.65	3.8250	3.8250	1.3690	26.92	0.96	1.500			
0.4504	28823.96	3.8220	3.8220	1.3913	26.91	0.95	1.500			
0.4546	29093.20	3.8190	3.8190	1.4141	26.90	0.94	1.500			
0.4588	29365.35	3.8160	3.8161	1.4462	26.89	0.93	1.500			
0.4632	29646.62	3.8130	3.8131	1.4758	26.89	0.93	1.500			
0.4677	29930.57	3.8100	3.8099	1.5046	26.88	0.92	1.500			
0.4722	30221.87	3.8070	3.8070	1.5337	26.87	0.91	1.500			
0.4768	30517.92	3.8040	3.8041	1.5831	26.86	0.90	1.500			
0.4817	30828.84	3.8010	3.8010	1.6284	26.85	0.89	1.500			
0.4866	31144.81	3.7980	3.7980	1.6705	26.83	0.87	1.500			
0.4917	31467.41	3.7950	3.7951	1.7032	26.82	0.86	1.500			
0.4969	31801.16	3.7920	3.7920	1.7506	26.81	0.85	1.500			
0.5022	32140.08	3.7890	3.7890	1.7952	26.79	0.83	1.500			
0.5076	32485.87	3.7860	3.7860	1.8328	26.78	0.82	1.500			
0.5132	32844.52	3.7830	3.7830	1.8723	26.76	0.80	1.500			
0.5188	33206.17	3.7800	3.7801	1.9106	26.75	0.79	1.500			
0.5246	33577.14	3.7770	3.7770	1.9393	26.74	0.78	1.500			
0.5305	33953.22	3.7740	3.7738	1.9615	26.72	0.76	1.500			
0.5364	34331.65	3.7710	3.7711	1.9964	26.70	0.74	1.500			
0.5425	34719.66	3.7680	3.7680	2.0301	26.69	0.73	1.500			
0.5487	35114.75	3.7650	3.7648	2.0299	26.67	0.71	1.500	0.356	0.457	
0.5548	35507.99	3.7620	3.7621	2.0191	26.65	0.69	1.500			
0.5610	35902.40	3.7590	3.7590	2.0278	26.64	0.68	1.500			
0.5670	36285.64	3.7560	3.7560	1.9700	26.62	0.66	1.500			
0.5728	36658.71	3.7530	3.7530	1.9779	26.60	0.64	1.500			
0.5787	37038.64	3.7500	3.7500	1.9730	26.59	0.63	1.500			
0.5847	37418.22	3.7470	3.7471	1.9753	26.57	0.61	1.500			
0.5906	37798.14	3.7440	3.7440	1.9674	26.55	0.59	1.500			
0.5965	38173.23	3.7410	3.7410	1.9579	26.53	0.57	1.500			
0.6023	38548.57	3.7380	3.7380	1.9802	26.51	0.55	1.500			
0.6083	38932.78	3.7350	3.7350	2.0061	26.49	0.53	1.500			
0.6144	39319.79	3.7320	3.7320	2.0270	26.48	0.52	1.500			
0.6205	39710.74	3.7290	3.7290	2.0680	26.47	0.51	1.500			
0.6267	40107.98	3.7260	3.7260	2.1044	26.45	0.49	1.500			
0.6331	40517.77	3.7230	3.7230	2.1770	26.43	0.47	1.500			
0.6397	40943.49	3.7200	3.7200	2.2202	26.42	0.46	1.500			
0.6464	41371.87	3.7170	3.7171	2.3163	26.40	0.44	1.500			
0.6535	41823.07	3.7140	3.7139	2.4095	26.39	0.43	1.500			
0.6608	42293.85	3.7110	3.7111	2.4901	26.37	0.41	1.500			
0.6685	42782.13	3.7080	3.7081	2.5823	26.35	0.39	1.500			
0.6761	43272.90	3.7050	3.7050	2.5837	26.33	0.37	1.500			
0.6840	43777.83	3.7020	3.7020	2.6185	26.31	0.35	1.500			
0.6920	44284.95	3.6990	3.6991	2.6420	26.29	0.33	1.500			
0.7000	44801.54	3.6960	3.6959	2.5487	26.27	0.31	1.500			
0.7075	45281.26	3.6930	3.6931	2.4056	26.26	0.30	1.500			
0.7146	45732.30	3.6900	3.6900	2.2248	26.24	0.28	1.500			
0.7209	46140.63	3.6870	3.6870	2.0531	26.23	0.27	1.500			
0.7267	46506.25	3.6840	3.6840	1.8739	26.22	0.26	1.500			
0.7321	46852.82	3.6810	3.6810	1.7482	26.21	0.25	1.500			
0.7371	47175.70	3.6780	3.6781	1.6489	26.20	0.24	1.500			
0.7419	47478.48	3.6750	3.6750	1.5489	26.19	0.23	1.500			
0.7463	47760.89	3.6720	3.6720	1.4622	26.18	0.22	1.500			
0.7505	48033.26	3.6690	3.6691	1.3975	26.17	0.21	1.500			
0.7546	48295.07	3.6660	3.6660	1.3485	26.16	0.20	1.500			
0.7585	48545.08	3.6630	3.6630	1.3088	26.15	0.19	1.500			
0.7624	48791.53	3.6600	3.6600	1.2808	26.14	0.18	1.500			
0.7661	49031.26	3.6570	3.6570	1.2659	26.14	0.18	1.500			
0.7699	49270.73	3.6540	3.6540	1.2640	26.13	0.17	1.500			
0.7736	49510.80	3.6510	3.6510	1.2643	26.12	0.16	1.500			
0.7774	49753.65	3.6480	3.6480	1.2762	26.11	0.15	1.500			
0.7812	49999.68	3.6450	3.6450	1.2911	26.10	0.14	1.500			
0.7852	50250.31	3.6420	3.6420	1.3035	26.09	0.13	1.500			
0.7891	50503.59	3.6390	3.6390	1.3156	26.08	0.12	1.500			
0.7931	50758.30	3.6360	3.6360	1.3123	26.07	0.11	1.500			
0.7970	51010.68	3.6330	3.6331	1.3121	26.06	0.10	1.500			
0.8010	51263.56	3.6300	3.6300	1.3132	26.05	0.09	1.500			
0.8049	51515.06	3.6270	3.6269	1.3062	26.04	0.08	1.500			
0.8088	51764.60	3.6240	3.6240	1.3006	26.03	0.07	1.500			
0.8127	52014.11	3.6210	3.6211	1.3002	26.02	0.06	1.500			
0.8167	52266.33	3.6180	3.6179	1.2962	26.01	0.05	1.500			
0.8206	52515.78	3.6150	3.6150	1.2909	26.00	0.04	1.500			
0.8244	52760.92	3.6120	3.6120	1.2780	26.00	0.04	1.500			
0.8282	53005.27	3.6090	3.6090	1.2716	25.99	0.03	1.500			
0.8320	53250.26	3.6060	3.6060	1.2607	25.98	0.02	1.500			
0.8358	53491.19	3.6030	3.6030	1.2436	25.97	0.01	1.500			
0.8395	53729.72	3.6000	3.6000	1.2285	25.97	0.01	1.500			
0.8432	53964.90	3.5970	3.5970	1.2111	25.96	0.00	1.500			
0.8468	54194.75	3.5940	3.5940	1.1956	25.95	-0.01	1.500			
0.8503	54420.69	3.5910	3.5910	1.1844	25.95	-0.01	1.500			
0.8538	54645.98	3.5880	3.5880	1.1698	25.94	-0.02	1.500			
0.8574	54871.04	3.5850	3.5850	1.1607	25.94	-0.02	1.500			
0.8608	55093.98	3.5820	3.5819	1.1499	25.94	-0.02	1.500			
0.8643	55317.35	3.5790	3.5790	1.1123	25.95	-0.01	1.500			
0.8678	55536.25	3.5760	3.5759	1.0629	25.95	-0.01	1.500			
0.8710	55741.55	3.5730	3.5730	0.9631	25.95	-0.01	1.500			
0.8738	55921.80	3.5700	3.5701	0.8505	25.95	-0.01	1.500			
0.8762	56078.33	3.5670	3.5671	0.7331	25.96	-0.00	1.500			
0.8782	56202.73	3.5640	3.5639	0.6088	25.96	-0.00	1.500			
0.8797	56299.22	3.5610	3.5609	0.4950	25.96	-0.00	1.500			
0.8809	56380.07	3.5580	3.5579	0.4103	25.96	0.00	1.500			
0.8819	56443.33	3.5550	3.5549	0.3417	25.96	0.00	1.500			
0.8828	56499.54	3.5520	3.5518	0.2944	25.96	0.00	1.500			
0.8836	56547.78	3.5490	3.5489	0.2495	25.96	0.00	1.500			
0.8842	56590.69	3.5460	3.5460	0.2224	25.96	0.00	1.500			
0.8848	56629.62	3.5430	3.5430	0.2003	25.96	0.00	1.500			
0.8854	56664.10	3.5400	3.5401	0.1808	25.96	0.00	1.500			
0.8859	56696.37	3.5370	3.5369	0.1633	25.96	0.00	1.500			
0.8863	56725.73	3.5340	3.5340	0.1489	25.96	0.00	1.500			
0.8868	56752.68	3.5310	3.5310	0.1347	25.96	0.00	1.500			
0.8871	56777.44	3.5280	3.5280	0.1209	25.96	0.00	1.500			
0.8875	56799.35	3.5250	3.5250	0.1073	25.97	0.01	1.500			
0.8878	56818.72	3.5220	3.5221	0.0937	25.97	0.01	1.500			
0.8881	56835.67	3.5190	3.5191	0.0800	25.97	0.01	1.500			
0.8883	56849.66	3.5160	3.5163	0.0657	25.97	0.01	1.500			
0.8885	56861.12	3.5130	3.5136	0.0505	25.97	0.01	1.500			
0.8886	56869.36	3.5100	3.5107	0.0354	25.97	0.01	1.500			
