Ah_balance (normalized)	Ah_balance (mAh)	Voltage - fit (V)	Voltage -  interpolate (V)	dQ/dV (1/V)	Temperature (°C)	Temperature - diff (°C)	Current (C)	R_DC 0ms (mOhm)	R_DC 50ms (mOhm)	R_DC 50 ms PEC (mOhm)
0.2815	18017.04	3.9830	3.9830	0.8532	27.18	1.22	1.500			
0.2841	18179.93	3.9800	3.9801	0.8520	27.18	1.22	1.500			
0.2866	18344.30	3.9770	3.9769	0.8589	27.17	1.21	1.500			
0.2892	18510.45	3.9740	3.9740	0.8622	27.16	1.20	1.500			
0.2918	18676.42	3.9710	3.9710	0.8678	27.16	1.20	1.500			
0.2944	18843.94	3.9680	3.9680	0.8716	27.15	1.19	1.500			
0.2971	19012.06	3.9650	3.9650	0.8745	27.15	1.19	1.500			
0.2997	19179.99	3.9620	3.9621	0.8756	27.14	1.18	1.500			
0.3023	19349.06	3.9590	3.9590	0.8718	27.13	1.17	1.500			
0.3049	19515.81	3.9560	3.9560	0.8754	27.13	1.17	1.500			
0.3076	19683.71	3.9530	3.9530	0.8788	27.12	1.16	1.500			
0.3102	19851.17	3.9500	3.9500	0.8840	27.11	1.15	1.500			
0.3128	20021.13	3.9470	3.9470	0.8932	27.11	1.15	1.500			
0.3155	20193.81	3.9440	3.9440	0.8969	27.10	1.14	1.500			
0.3182	20367.43	3.9410	3.9411	0.9059	27.10	1.14	1.500			
0.3210	20543.07	3.9380	3.9380	0.9112	27.09	1.13	1.500			
0.3237	20718.11	3.9350	3.9349	0.9126	27.09	1.13	1.500			
0.3265	20893.86	3.9320	3.9320	0.9173	27.08	1.12	1.500			
0.3292	21069.48	3.9290	3.9290	0.9240	27.08	1.12	1.500			
0.3320	21247.79	3.9260	3.9260	0.9278	27.07	1.11	1.500			
0.3348	21428.00	3.9230	3.9231	0.9312	27.06	1.10	1.500			
0.3376	21605.50	3.9200	3.9200	0.9361	27.06	1.10	1.500			
0.3404	21785.91	3.9170	3.9169	0.9429	27.05	1.09	1.500			
0.3432	21967.24	3.9140	3.9140	0.9462	27.04	1.08	1.500			
0.3461	22148.25	3.9110	3.9110	0.9546	27.04	1.08	1.500			
0.3489	22332.68	3.9080	3.9081	0.9624	27.03	1.07	1.500			
0.3519	22519.73	3.9050	3.9049	0.9713	27.02	1.06	1.500			
0.3548	22707.56	3.9020	3.9020	0.9777	27.02	1.06	1.500			
0.3577	22894.85	3.8990	3.8991	0.9813	27.01	1.05	1.500			
0.3607	23084.15	3.8960	3.8960	0.9868	27.00	1.04	1.500			
0.3637	23273.91	3.8930	3.8930	0.9935	27.00	1.04	1.500			
0.3666	23462.68	3.8900	3.8900	0.9987	26.99	1.03	1.500			
0.3696	23655.51	3.8870	3.8870	1.0101	26.98	1.02	1.500			
0.3727	23850.53	3.8840	3.8840	1.0202	26.97	1.01	1.500			
0.3758	24048.10	3.8810	3.8810	1.0285	26.97	1.01	1.500			
0.3789	24246.82	3.8780	3.8781	1.0392	26.96	1.00	1.500			
0.3820	24447.55	3.8750	3.8750	1.0527	26.95	0.99	1.500			
0.3851	24649.18	3.8720	3.8721	1.0635	26.94	0.98	1.500			
0.3883	24854.30	3.8690	3.8690	1.0794	26.94	0.98	1.500			
0.3916	25062.72	3.8660	3.8661	1.0952	26.93	0.97	1.500			
0.3949	25275.25	3.8630	3.8630	1.1077	26.92	0.96	1.500			
0.3983	25490.19	3.8600	3.8600	1.1211	26.91	0.95	1.500			
0.4016	25704.96	3.8570	3.8571	1.1326	26.90	0.94	1.500			
0.4050	25922.69	3.8540	3.8539	1.1497	26.90	0.94	1.500			
0.4085	26144.72	3.8510	3.8510	1.1664	26.89	0.93	1.500			
0.4120	26370.11	3.8480	3.8480	1.1856	26.88	0.92	1.500			
0.4156	26600.02	3.8450	3.8450	1.2054	26.87	0.91	1.500			
0.4193	26834.38	3.8420	3.8420	1.2240	26.86	0.90	1.500			
0.4230	27071.78	3.8390	3.8390	1.2425	26.84	0.88	1.500			
0.4267	27310.29	3.8360	3.8360	1.2658	26.83	0.87	1.500			
0.4305	27553.68	3.8330	3.8330	1.2864	26.82	0.86	1.500			
0.4344	27803.56	3.8300	3.8301	1.3116	26.81	0.85	1.500			
0.4384	28057.85	3.8270	3.8270	1.3356	26.80	0.84	1.500			
0.4424	28316.51	3.8240	3.8240	1.3602	26.78	0.82	1.500			
0.4466	28581.57	3.8210	3.8210	1.3823	26.77	0.81	1.500			
0.4507	28846.52	3.8180	3.8180	1.4159	26.76	0.80	1.500			
0.4550	29119.15	3.8150	3.8150	1.4451	26.75	0.79	1.500			
0.4594	29399.44	3.8120	3.8120	1.4825	26.74	0.78	1.500			
0.4639	29688.08	3.8090	3.8090	1.5209	26.72	0.76	1.500			
0.4685	29986.65	3.8060	3.8060	1.5587	26.71	0.75	1.500			
0.4733	30289.90	3.8030	3.8030	1.5950	26.70	0.74	1.500			
0.4781	30600.62	3.8000	3.8000	1.6272	26.68	0.72	1.500			
0.4830	30912.09	3.7970	3.7970	1.6620	26.67	0.71	1.500			
0.4880	31234.78	3.7940	3.7941	1.7041	26.66	0.70	1.500			
0.4932	31567.08	3.7910	3.7910	1.7433	26.64	0.68	1.500			
0.4985	31904.51	3.7880	3.7880	1.7879	26.63	0.67	1.500			
0.5040	32253.70	3.7850	3.7850	1.8285	26.61	0.65	1.500			
0.5095	32606.67	3.7820	3.7820	1.8671	26.60	0.64	1.500			
0.5152	32970.51	3.7790	3.7791	1.8799	26.58	0.62	1.500			
0.5208	33333.90	3.7760	3.7760	1.9109	26.57	0.61	1.500			
0.5266	33702.92	3.7730	3.7731	1.9362	26.55	0.59	1.500			
0.5325	34077.63	3.7700	3.7697	1.9560	26.53	0.57	1.500	0.362	0.460	
0.5384	34455.50	3.7670	3.7670	1.9651	26.52	0.56	1.500			
0.5443	34835.79	3.7640	3.7641	1.9695	26.50	0.54	1.500			
0.5502	35215.53	3.7610	3.7610	1.9469	26.49	0.53	1.500			
0.5560	35582.92	3.7580	3.7581	1.9276	26.47	0.51	1.500			
0.5617	35950.79	3.7550	3.7548	1.9259	26.46	0.50	1.500			
0.5676	36324.00	3.7520	3.7520	1.9256	26.44	0.48	1.500			
0.5733	36694.28	3.7490	3.7490	1.9194	26.42	0.46	1.500			
0.5791	37061.90	3.7460	3.7461	1.9212	26.41	0.45	1.500			
0.5848	37429.22	3.7430	3.7429	1.9273	26.39	0.43	1.500			
0.5906	37798.82	3.7400	3.7400	1.9435	26.37	0.41	1.500			
0.5965	38176.78	3.7370	3.7370	1.9564	26.36	0.40	1.500			
0.6024	38554.76	3.7340	3.7340	1.9942	26.36	0.40	1.500			
0.6084	38938.72	3.7310	3.7310	2.0189	26.35	0.39	1.500			
0.6145	39328.99	3.7280	3.7280	2.0639	26.33	0.37	1.500			
0.6208	39729.57	3.7250	3.7250	2.1072	26.32	0.36	1.500			
0.6271	40137.17	3.7220	3.7221	2.1723	26.31	0.35	1.500			
0.6337	40554.86	3.7190	3.7190	2.2297	26.30	0.34	1.500			
0.6405	40993.14	3.7160	3.7160	2.2972	26.28	0.32	1.500			
0.6475	41439.42	3.7130	3.7131	2.3885	26.27	0.31	1.500			
0.6548	41908.26	3.7100	3.7100	2.4692	26.25	0.29	1.500			
0.6623	42390.24	3.7070	3.7069	2.5283	26.24	0.28	1.500			
0.6701	42886.68	3.7040	3.7041	2.5649	26.23	0.27	1.500			
0.6779	43385.15	3.7010	3.7010	2.5711	26.21	0.25	1.500			
0.6856	43880.60	3.6980	3.6979	2.5182	26.20	0.24	1.500			
0.6932	44364.49	3.6950	3.6950	2.4309	26.19	0.23	1.500			
0.7004	44822.86	3.6920	3.6920	2.2788	26.18	0.22	1.500			
0.7069	45244.50	3.6890	3.6890	2.0977	26.17	0.21	1.500			
0.7130	45629.16	3.6860	3.6860	1.9269	26.16	0.20	1.500			
0.7183	45973.02	3.6830	3.6831	1.7766	26.15	0.19	1.500			
0.7235	46303.19	3.6800	3.6799	1.6569	26.15	0.19	1.500			
0.7281	46600.66	3.6770	3.6770	1.5533	26.14	0.18	1.500			
0.7327	46889.62	3.6740	3.6741	1.4762	26.14	0.18	1.500			
0.7369	47162.05	3.6710	3.6709	1.4095	26.13	0.17	1.500			
0.7410	47423.50	3.6680	3.6680	1.3566	26.12	0.16	1.500			
0.7449	47675.42	3.6650	3.6650	1.3198	26.11	0.15	1.500			
0.7488	47920.48	3.6620	3.6619	1.2872	26.11	0.15	1.500			
0.7526	48165.04	3.6590	3.6590	1.2734	26.10	0.14	1.500			
0.7563	48405.49	3.6560	3.6560	1.2683	26.09	0.13	1.500			
0.7601	48647.80	3.6530	3.6530	1.2712	26.08	0.12	1.500			
0.7639	48892.20	3.6500	3.6500	1.2791	26.08	0.12	1.500			
0.7678	49136.40	3.6470	3.6470	1.2851	26.07	0.11	1.500			
0.7717	49386.31	3.6440	3.6439	1.2936	26.06	0.10	1.500			
0.7756	49635.93	3.6410	3.6410	1.3015	26.05	0.09	1.500			
0.7795	49887.90	3.6380	3.6379	1.3067	26.04	0.08	1.500			
0.7834	50138.22	3.6350	3.6350	1.3056	26.03	0.07	1.500			
0.7874	50390.86	3.6320	3.6319	1.2991	26.02	0.06	1.500			
0.7912	50639.53	3.6290	3.6291	1.2946	26.01	0.05	1.500			
0.7951	50887.81	3.6260	3.6260	1.2899	26.01	0.05	1.500			
0.7990	51135.06	3.6230	3.6230	1.2843	26.00	0.04	1.500			
0.8028	51379.31	3.6200	3.6200	1.2793	25.99	0.03	1.500			
0.8066	51624.39	3.6170	3.6170	1.2769	25.99	0.03	1.500			
0.8105	51870.50	3.6140	3.6140	1.2741	25.98	0.02	1.500			
0.8143	52116.57	3.6110	3.6110	1.2678	25.98	0.02	1.500			
0.8181	52360.37	3.6080	3.6080	1.2557	25.97	0.01	1.500			
0.8219	52600.62	3.6050	3.6050	1.2467	25.96	0.00	1.500			
0.8256	52840.44	3.6020	3.6020	1.2281	25.96	-0.00	1.500			
0.8293	53073.58	3.5990	3.5990	1.2105	25.95	-0.01	1.500			
0.8329	53303.86	3.5960	3.5960	1.1938	25.95	-0.01	1.500			
0.8364	53530.63	3.5930	3.5930	1.1780	25.94	-0.02	1.500			
0.8399	53755.64	3.5900	3.5900	1.1658	25.94	-0.02	1.500			
0.8434	53977.43	3.5870	3.5870	1.1511	25.95	-0.01	1.500			
0.8468	54197.34	3.5840	3.5839	1.1331	25.95	-0.01	1.500			
0.8503	54420.44	3.5810	3.5810	1.1006	25.95	-0.01	1.500			
0.8536	54632.41	3.5780	3.5779	1.0486	25.95	-0.01	1.500			
0.8569	54839.88	3.5750	3.5750	0.9690	25.96	-0.00	1.500			
0.8597	55021.68	3.5720	3.5721	0.8635	25.96	-0.00	1.500			
0.8622	55179.64	3.5690	3.5690	0.7492	25.96	0.00	1.500			
0.8642	55309.53	3.5660	3.5660	0.6271	25.96	0.00	1.500			
0.8658	55410.39	3.5630	3.5630	0.5153	25.96	0.00	1.500			
0.8671	55494.25	3.5600	3.5599	0.4254	25.96	0.00	1.500			
0.8681	55560.98	3.5570	3.5571	0.3521	25.96	0.00	1.500			
0.8691	55620.09	3.5540	3.5540	0.3040	25.97	0.01	1.500			
0.8699	55671.02	3.5510	3.5509	0.2579	25.97	0.01	1.500			
0.8706	55715.23	3.5480	3.5479	0.2287	25.97	0.01	1.500			
0.8711	55753.45	3.5450	3.5451	0.2028	25.97	0.01	1.500			
0.8717	55790.07	3.5420	3.5421	0.1855	25.97	0.01	1.500			
0.8722	55823.60	3.5390	3.5389	0.1678	25.97	0.01	1.500			
0.8727	55853.71	3.5360	3.5360	0.1526	25.97	0.01	1.500			
0.8731	55881.15	3.5330	3.5330	0.1372	25.97	0.01	1.500			
0.8735	55906.19	3.5300	3.5299	0.1229	25.97	0.01	1.500			
0.8739	55928.46	3.5270	3.5271	0.1091	25.97	0.01	1.500			
0.8742	55948.17	3.5240	3.5240	0.0953	25.97	0.01	1.500			
0.8745	55965.24	3.5210	3.5212	0.0813	25.97	0.01	1.500			
0.8747	55979.48	3.5180	3.5182	0.0671	25.97	0.01	1.500			
0.8749	55991.20	3.5150	3.5155	0.0520	25.97	0.01	1.500			
0.8750	55999.74	3.5120	3.5127	0.0370	25.97	0.01	1.500			
