Ah_balance (normalized)	Ah_balance (mAh)	Voltage - fit (V)	Voltage -  interpolate (V)	dQ/dV (1/V)	Temperature (°C)	Temperature - diff (°C)	Current (C)	R_DC 0ms (mOhm)	R_DC 50ms (mOhm)	R_DC 50 ms PEC (mOhm)
0.2934	18774.54	3.9890	3.9891	0.8372	27.31	1.35	1.500			
0.2959	18935.54	3.9860	3.9860	0.8388	27.31	1.35	1.500			
0.2984	19095.88	3.9830	3.9830	0.8406	27.30	1.34	1.500			
0.3009	19258.20	3.9800	3.9800	0.8404	27.30	1.34	1.500			
0.3034	19417.63	3.9770	3.9771	0.8430	27.29	1.33	1.500			
0.3060	19580.96	3.9740	3.9739	0.8483	27.29	1.33	1.500			
0.3085	19743.85	3.9710	3.9710	0.8486	27.28	1.32	1.500			
0.3111	19907.42	3.9680	3.9680	0.8504	27.28	1.32	1.500			
0.3136	20071.25	3.9650	3.9651	0.8539	27.27	1.31	1.500			
0.3162	20235.18	3.9620	3.9620	0.8575	27.27	1.31	1.500			
0.3187	20399.04	3.9590	3.9590	0.8628	27.26	1.30	1.500			
0.3213	20564.17	3.9560	3.9560	0.8659	27.26	1.30	1.500			
0.3240	20732.86	3.9530	3.9530	0.8724	27.25	1.29	1.500			
0.3266	20901.39	3.9500	3.9500	0.8761	27.25	1.29	1.500			
0.3292	21070.80	3.9470	3.9471	0.8795	27.24	1.28	1.500			
0.3319	21238.69	3.9440	3.9440	0.8823	27.24	1.28	1.500			
0.3345	21407.07	3.9410	3.9409	0.8853	27.23	1.27	1.500			
0.3371	21576.96	3.9380	3.9380	0.8927	27.22	1.26	1.500			
0.3398	21749.05	3.9350	3.9350	0.8975	27.22	1.26	1.500			
0.3425	21922.11	3.9320	3.9320	0.9047	27.21	1.25	1.500			
0.3453	22097.20	3.9290	3.9291	0.9122	27.21	1.25	1.500			
0.3480	22273.10	3.9260	3.9259	0.9174	27.20	1.24	1.500			
0.3508	22449.50	3.9230	3.9230	0.9202	27.20	1.24	1.500			
0.3535	22626.95	3.9200	3.9200	0.9278	27.19	1.23	1.500			
0.3563	22804.90	3.9170	3.9170	0.9340	27.19	1.23	1.500			
0.3592	22985.66	3.9140	3.9140	0.9423	27.18	1.22	1.500			
0.3620	23165.67	3.9110	3.9110	0.9494	27.17	1.21	1.500			
0.3648	23348.93	3.9080	3.9080	0.9571	27.17	1.21	1.500			
0.3677	23534.86	3.9050	3.9050	0.9646	27.16	1.20	1.500			
0.3706	23720.75	3.9020	3.9019	0.9713	27.15	1.19	1.500			
0.3736	23907.85	3.8990	3.8990	0.9746	27.15	1.19	1.500			
0.3765	24093.81	3.8960	3.8961	0.9832	27.14	1.18	1.500			
0.3794	24283.24	3.8930	3.8930	0.9918	27.13	1.17	1.500			
0.3824	24474.23	3.8900	3.8900	0.9978	27.12	1.16	1.500			
0.3854	24667.95	3.8870	3.8869	1.0077	27.12	1.16	1.500			
0.3885	24861.16	3.8840	3.8842	1.0242	27.11	1.15	1.500			
0.3916	25059.28	3.8810	3.8810	1.0365	27.10	1.14	1.500			
0.3947	25261.01	3.8780	3.8779	1.0477	27.09	1.13	1.500			
0.3979	25464.22	3.8750	3.8750	1.0528	27.08	1.12	1.500			
0.4011	25667.31	3.8720	3.8720	1.0666	27.07	1.11	1.500			
0.4043	25872.50	3.8690	3.8690	1.0768	27.06	1.10	1.500			
0.4075	26077.97	3.8660	3.8659	1.0885	27.05	1.09	1.500			
0.4107	26286.25	3.8630	3.8630	1.0982	27.04	1.08	1.500			
0.4141	26500.47	3.8600	3.8600	1.1160	27.03	1.07	1.500			
0.4174	26716.53	3.8570	3.8570	1.1320	27.02	1.06	1.500			
0.4209	26937.56	3.8540	3.8540	1.1487	27.01	1.05	1.500			
0.4243	27157.01	3.8510	3.8511	1.1616	27.00	1.04	1.500			
0.4278	27381.67	3.8480	3.8479	1.1775	26.99	1.03	1.500			
0.4314	27609.70	3.8450	3.8450	1.1924	26.98	1.02	1.500			
0.4350	27839.10	3.8420	3.8420	1.2139	26.97	1.01	1.500			
0.4386	28073.39	3.8390	3.8391	1.2336	26.96	1.00	1.500			
0.4424	28312.85	3.8360	3.8360	1.2525	26.94	0.98	1.500			
0.4462	28556.19	3.8330	3.8330	1.2677	26.93	0.97	1.500			
0.4500	28800.07	3.8300	3.8301	1.2877	26.92	0.96	1.500			
0.4539	29049.46	3.8270	3.8270	1.3128	26.91	0.95	1.500			
0.4579	29304.08	3.8240	3.8240	1.3349	26.89	0.93	1.500			
0.4619	29560.83	3.8210	3.8210	1.3589	26.88	0.92	1.500			
0.4660	29823.91	3.8180	3.8180	1.3858	26.87	0.91	1.500			
0.4703	30096.39	3.8150	3.8150	1.4032	26.86	0.90	1.500			
0.4745	30367.72	3.8120	3.8120	1.4284	26.85	0.89	1.500			
0.4788	30642.71	3.8090	3.8091	1.4517	26.84	0.88	1.500			
0.4832	30922.21	3.8060	3.8059	1.4815	26.82	0.86	1.500			
0.4877	31211.51	3.8030	3.8030	1.4934	26.81	0.85	1.500			
0.4922	31498.52	3.8000	3.8001	1.5154	26.79	0.83	1.500			
0.4968	31797.15	3.7970	3.7971	1.5184	26.78	0.82	1.500			
0.5013	32085.72	3.7940	3.7939	1.5459	26.76	0.80	1.500			
0.5059	32379.62	3.7910	3.7911	1.5913	26.74	0.78	1.500			
0.5108	32690.71	3.7880	3.7878	1.6448	26.73	0.77	1.500	0.343	0.483	
0.5158	33012.84	3.7850	3.7852	1.6649	26.71	0.75	1.500			
0.5210	33341.27	3.7820	3.7820	1.6737	26.70	0.74	1.500			
0.5261	33668.10	3.7790	3.7790	1.6748	26.68	0.72	1.500			
0.5309	33979.55	3.7760	3.7760	1.6524	26.67	0.71	1.500			
0.5359	34296.63	3.7730	3.7730	1.6703	26.66	0.70	1.500			
0.5409	34616.48	3.7700	3.7700	1.6765	26.64	0.68	1.500			
0.5460	34943.59	3.7670	3.7670	1.6720	26.62	0.66	1.500			
0.5510	35264.09	3.7640	3.7641	1.6729	26.61	0.65	1.500			
0.5560	35585.35	3.7610	3.7610	1.6949	26.59	0.63	1.500			
0.5611	35909.08	3.7580	3.7580	1.7035	26.58	0.62	1.500			
0.5662	36238.71	3.7550	3.7551	1.7347	26.56	0.60	1.500			
0.5715	36576.20	3.7520	3.7519	1.7474	26.55	0.59	1.500			
0.5768	36912.42	3.7490	3.7490	1.7607	26.54	0.58	1.500			
0.5820	37250.62	3.7460	3.7460	1.7854	26.53	0.57	1.500			
0.5875	37597.63	3.7430	3.7430	1.8255	26.51	0.55	1.500			
0.5930	37949.21	3.7400	3.7400	1.8625	26.49	0.53	1.500			
0.5986	38311.82	3.7370	3.7370	1.9193	26.47	0.51	1.500			
0.6044	38684.20	3.7340	3.7341	1.9793	26.46	0.50	1.500			
0.6105	39071.07	3.7310	3.7309	2.0344	26.44	0.48	1.500			
0.6167	39469.03	3.7280	3.7280	2.0781	26.42	0.46	1.500			
0.6230	39872.70	3.7250	3.7250	2.1259	26.40	0.44	1.500			
0.6295	40284.85	3.7220	3.7221	2.1913	26.38	0.42	1.500			
0.6361	40710.56	3.7190	3.7190	2.2513	26.36	0.40	1.500			
0.6430	41149.33	3.7160	3.7161	2.3057	26.34	0.38	1.500			
0.6500	41601.23	3.7130	3.7130	2.2994	26.32	0.36	1.500			
0.6569	42042.66	3.7100	3.7100	2.2626	26.31	0.35	1.500			
0.6637	42479.53	3.7070	3.7070	2.1712	26.29	0.33	1.500			
0.6701	42886.75	3.7040	3.7040	2.0274	26.27	0.31	1.500			
0.6759	43256.81	3.7010	3.7010	1.8941	26.25	0.29	1.500			
0.6813	43604.88	3.6980	3.6980	1.7714	26.23	0.27	1.500			
0.6865	43933.16	3.6950	3.6951	1.6634	26.21	0.25	1.500			
0.6912	44239.65	3.6920	3.6920	1.5721	26.20	0.24	1.500			
0.6958	44533.05	3.6890	3.6891	1.5003	26.19	0.23	1.500			
0.7002	44812.24	3.6860	3.6859	1.4393	26.18	0.22	1.500			
0.7043	45077.90	3.6830	3.6830	1.3814	26.17	0.21	1.500			
0.7084	45337.88	3.6800	3.6800	1.3383	26.16	0.20	1.500			
0.7123	45587.84	3.6770	3.6771	1.3093	26.15	0.19	1.500			
0.7162	45834.91	3.6740	3.6739	1.2873	26.14	0.18	1.500			
0.7199	46076.33	3.6710	3.6710	1.2654	26.13	0.17	1.500			
0.7237	46316.51	3.6680	3.6680	1.2573	26.11	0.15	1.500			
0.7275	46557.79	3.6650	3.6650	1.2577	26.10	0.14	1.500			
0.7312	46798.41	3.6620	3.6620	1.2541	26.09	0.13	1.500			
0.7350	47038.72	3.6590	3.6590	1.2509	26.08	0.12	1.500			
0.7387	47278.99	3.6560	3.6560	1.2422	26.07	0.11	1.500			
0.7425	47517.45	3.6530	3.6530	1.2353	26.06	0.10	1.500			
0.7462	47755.23	3.6500	3.6499	1.2271	26.05	0.09	1.500			
0.7498	47989.10	3.6470	3.6471	1.2139	26.04	0.08	1.500			
0.7535	48221.62	3.6440	3.6439	1.2002	26.03	0.07	1.500			
0.7570	48450.17	3.6410	3.6411	1.1898	26.03	0.07	1.500			
0.7606	48677.79	3.6380	3.6380	1.1797	26.02	0.06	1.500			
0.7641	48902.35	3.6350	3.6351	1.1719	26.01	0.05	1.500			
0.7676	49125.94	3.6320	3.6320	1.1607	26.01	0.05	1.500			
0.7711	49349.67	3.6290	3.6290	1.1486	26.00	0.04	1.500			
0.7745	49569.17	3.6260	3.6260	1.1357	26.00	0.04	1.500			
0.7779	49786.70	3.6230	3.6231	1.1232	25.99	0.03	1.500			
0.7813	50000.56	3.6200	3.6200	1.1025	25.98	0.02	1.500			
0.7846	50212.49	3.6170	3.6169	1.0795	25.98	0.02	1.500			
0.7878	50416.96	3.6140	3.6140	1.0554	25.98	0.02	1.500			
0.7909	50617.66	3.6110	3.6110	1.0312	25.97	0.01	1.500			
0.7940	50813.24	3.6080	3.6080	1.0054	25.97	0.01	1.500			
0.7969	51003.93	3.6050	3.6049	0.9739	25.97	0.01	1.500			
0.7998	51188.78	3.6020	3.6021	0.9434	25.97	0.01	1.500			
0.8026	51369.07	3.5990	3.5989	0.9126	25.97	0.01	1.500			
0.8054	51542.82	3.5960	3.5960	0.8687	25.96	0.00	1.500			
0.8079	51706.26	3.5930	3.5930	0.8189	25.96	0.00	1.500			
0.8103	51862.27	3.5900	3.5900	0.7529	25.96	-0.00	1.500			
0.8126	52004.02	3.5870	3.5870	0.6836	25.96	-0.00	1.500			
0.8145	52129.28	3.5840	3.5841	0.6021	25.96	-0.00	1.500			
0.8162	52236.95	3.5810	3.5810	0.5192	25.95	-0.01	1.500			
0.8176	52325.62	3.5780	3.5780	0.4444	25.95	-0.01	1.500			
0.8188	52401.08	3.5750	3.5749	0.3787	25.95	-0.01	1.500			
0.8197	52462.28	3.5720	3.5720	0.3210	25.95	-0.01	1.500			
0.8206	52517.55	3.5690	3.5689	0.2810	25.95	-0.01	1.500			
0.8213	52565.19	3.5660	3.5660	0.2413	25.95	-0.01	1.500			
0.8220	52607.81	3.5630	3.5630	0.2149	25.95	-0.01	1.500			
0.8226	52644.10	3.5600	3.5599	0.1911	25.95	-0.01	1.500			
0.8231	52678.10	3.5570	3.5570	0.1702	25.95	-0.01	1.500			
0.8236	52707.99	3.5540	3.5540	0.1528	25.95	-0.01	1.500			
0.8240	52735.61	3.5510	3.5509	0.1368	25.95	-0.01	1.500			
0.8244	52760.27	3.5480	3.5480	0.1211	25.95	-0.01	1.500			
0.8247	52781.97	3.5450	3.5451	0.1055	25.95	-0.01	1.500			
0.8250	52800.76	3.5420	3.5421	0.0903	25.95	-0.01	1.500			
0.8253	52816.92	3.5390	3.5391	0.0751	25.95	-0.01	1.500			
0.8255	52829.78	3.5360	3.5362	0.0594	25.95	-0.01	1.500			
0.8256	52839.69	3.5330	3.5335	0.0438	25.95	-0.01	1.500			
0.8257	52846.61	3.5300	3.5311	0.0282	25.95	-0.01	1.500			
