Ah_balance (normalized)	Ah_balance (mAh)	Voltage - fit (V)	Voltage -  interpolate (V)	dQ/dV (1/V)	Temperature (°C)	Temperature - diff (°C)	Current (C)	R_DC 0ms (mOhm)	R_DC 50ms (mOhm)	R_DC 50 ms PEC (mOhm)
0.2815	18018.79	3.9920	3.9920	0.8475	27.33	1.37	1.500			
0.2841	18182.06	3.9890	3.9889	0.8497	27.32	1.36	1.500			
0.2867	18345.76	3.9860	3.9860	0.8468	27.32	1.36	1.500			
0.2892	18507.12	3.9830	3.9830	0.8435	27.31	1.35	1.500			
0.2917	18668.66	3.9800	3.9800	0.8382	27.31	1.35	1.500			
0.2942	18828.89	3.9770	3.9770	0.8434	27.30	1.34	1.500			
0.2967	18990.15	3.9740	3.9740	0.8464	27.30	1.34	1.500			
0.2993	19152.41	3.9710	3.9710	0.8470	27.29	1.33	1.500			
0.3018	19315.22	3.9680	3.9680	0.8538	27.29	1.33	1.500			
0.3044	19479.99	3.9650	3.9651	0.8584	27.28	1.32	1.500			
0.3070	19645.76	3.9620	3.9620	0.8624	27.28	1.32	1.500			
0.3096	19812.41	3.9590	3.9590	0.8670	27.27	1.31	1.500			
0.3121	19977.46	3.9560	3.9560	0.8695	27.27	1.31	1.500			
0.3148	20145.65	3.9530	3.9530	0.8789	27.26	1.30	1.500			
0.3174	20316.30	3.9500	3.9499	0.8815	27.26	1.30	1.500			
0.3201	20485.22	3.9470	3.9471	0.8818	27.25	1.29	1.500			
0.3227	20654.76	3.9440	3.9440	0.8895	27.25	1.29	1.500			
0.3254	20826.03	3.9410	3.9409	0.8912	27.24	1.28	1.500			
0.3281	20997.02	3.9380	3.9380	0.8929	27.23	1.27	1.500			
0.3307	21167.76	3.9350	3.9351	0.8983	27.23	1.27	1.500			
0.3335	21341.52	3.9320	3.9320	0.9068	27.22	1.26	1.500			
0.3362	21516.79	3.9290	3.9290	0.9185	27.21	1.25	1.500			
0.3390	21693.46	3.9260	3.9260	0.9178	27.20	1.24	1.500			
0.3417	21871.06	3.9230	3.9230	0.9134	27.20	1.24	1.500			
0.3445	22046.98	3.9200	3.9201	0.9311	27.19	1.23	1.500			
0.3473	22225.25	3.9170	3.9169	0.9405	27.18	1.22	1.500			
0.3501	22406.13	3.9140	3.9138	0.9442	27.17	1.21	1.500			
0.3530	22589.01	3.9110	3.9112	0.9492	27.17	1.21	1.500			
0.3558	22771.71	3.9080	3.9081	0.9570	27.16	1.20	1.500			
0.3587	22958.17	3.9050	3.9050	0.9695	27.15	1.19	1.500			
0.3616	23144.72	3.9020	3.9019	0.9763	27.14	1.18	1.500			
0.3645	23331.17	3.8990	3.8989	0.9751	27.14	1.18	1.500			
0.3675	23518.37	3.8960	3.8961	0.9859	27.13	1.17	1.500			
0.3705	23710.40	3.8930	3.8930	0.9976	27.12	1.16	1.500			
0.3735	23902.14	3.8900	3.8900	1.0030	27.12	1.16	1.500			
0.3765	24094.35	3.8870	3.8869	1.0135	27.11	1.15	1.500			
0.3795	24289.90	3.8840	3.8840	1.0227	27.10	1.14	1.500			
0.3826	24488.15	3.8810	3.8809	1.0369	27.09	1.13	1.500			
0.3858	24689.35	3.8780	3.8782	1.0499	27.08	1.12	1.500			
0.3889	24892.69	3.8750	3.8749	1.0503	27.07	1.11	1.500			
0.3921	25093.76	3.8720	3.8720	1.0673	27.06	1.10	1.500			
0.3953	25298.01	3.8690	3.8691	1.0794	27.05	1.09	1.500			
0.3985	25505.70	3.8660	3.8660	1.0916	27.04	1.08	1.500			
0.4019	25718.98	3.8630	3.8629	1.1078	27.03	1.07	1.500			
0.4052	25931.52	3.8600	3.8601	1.1230	27.02	1.06	1.500			
0.4086	26150.43	3.8570	3.8570	1.1394	27.01	1.05	1.500			
0.4121	26372.67	3.8540	3.8540	1.1515	26.99	1.03	1.500			
0.4155	26591.94	3.8510	3.8509	1.1611	26.98	1.02	1.500			
0.4190	26815.57	3.8480	3.8482	1.1793	26.97	1.01	1.500			
0.4226	27043.32	3.8450	3.8450	1.2029	26.96	1.00	1.500			
0.4262	27276.51	3.8420	3.8419	1.2199	26.95	0.99	1.500			
0.4299	27512.89	3.8390	3.8389	1.2337	26.93	0.97	1.500			
0.4336	27751.88	3.8360	3.8361	1.2567	26.92	0.96	1.500			
0.4374	27994.81	3.8330	3.8330	1.2737	26.90	0.94	1.500			
0.4412	28239.97	3.8300	3.8300	1.2901	26.89	0.93	1.500			
0.4452	28489.73	3.8270	3.8270	1.3126	26.87	0.91	1.500			
0.4491	28740.70	3.8240	3.8240	1.3363	26.86	0.90	1.500			
0.4531	29000.54	3.8210	3.8210	1.3703	26.84	0.88	1.500			
0.4573	29267.45	3.8180	3.8180	1.3921	26.83	0.87	1.500			
0.4615	29536.68	3.8150	3.8149	1.4107	26.82	0.86	1.500			
0.4658	29810.91	3.8120	3.8121	1.4330	26.80	0.84	1.500			
0.4701	30087.17	3.8090	3.8089	1.4561	26.79	0.83	1.500			
0.4745	30367.60	3.8060	3.8060	1.4810	26.77	0.81	1.500			
0.4789	30652.04	3.8030	3.8029	1.5026	26.76	0.80	1.500			
0.4835	30944.36	3.8000	3.8000	1.5300	26.74	0.78	1.500			
0.4882	31242.81	3.7970	3.7970	1.5567	26.72	0.76	1.500			
0.4929	31547.08	3.7940	3.7940	1.5635	26.70	0.74	1.500			
0.4975	31841.44	3.7910	3.7910	1.6040	26.68	0.72	1.500			
0.5023	32147.99	3.7880	3.7881	1.6523	26.66	0.70	1.500			
0.5073	32469.80	3.7850	3.7852	1.6949	26.65	0.69	1.500	0.353	0.493	
0.5126	32804.24	3.7820	3.7821	1.6937	26.63	0.67	1.500			
0.5178	33138.24	3.7790	3.7790	1.7133	26.61	0.65	1.500			
0.5229	33462.51	3.7760	3.7760	1.6896	26.59	0.63	1.500			
0.5278	33776.95	3.7730	3.7730	1.6772	26.57	0.61	1.500			
0.5329	34103.61	3.7700	3.7700	1.6807	26.56	0.60	1.500			
0.5379	34426.23	3.7670	3.7670	1.6830	26.54	0.58	1.500			
0.5429	34746.31	3.7640	3.7641	1.6871	26.53	0.57	1.500			
0.5480	35071.20	3.7610	3.7610	1.7045	26.51	0.55	1.500			
0.5531	35397.82	3.7580	3.7580	1.7262	26.49	0.53	1.500			
0.5583	35731.93	3.7550	3.7551	1.7382	26.48	0.52	1.500			
0.5636	36070.41	3.7520	3.7520	1.7434	26.46	0.50	1.500			
0.5688	36405.86	3.7490	3.7490	1.7718	26.44	0.48	1.500			
0.5741	36743.28	3.7460	3.7459	1.8024	26.43	0.47	1.500			
0.5796	37092.90	3.7430	3.7431	1.8446	26.41	0.45	1.500			
0.5852	37453.61	3.7400	3.7399	1.8738	26.40	0.44	1.500			
0.5909	37818.95	3.7370	3.7371	1.9229	26.38	0.42	1.500			
0.5967	38189.40	3.7340	3.7341	1.9801	26.37	0.41	1.500			
0.6027	38574.09	3.7310	3.7309	2.0380	26.36	0.40	1.500			
0.6090	38974.18	3.7280	3.7280	2.0720	26.34	0.38	1.500			
0.6153	39377.27	3.7250	3.7250	2.1145	26.33	0.37	1.500			
0.6216	39785.44	3.7220	3.7221	2.1910	26.31	0.35	1.500			
0.6283	40209.99	3.7190	3.7190	2.2816	26.29	0.33	1.500			
0.6354	40665.08	3.7160	3.7160	2.3130	26.27	0.31	1.500			
0.6424	41112.54	3.7130	3.7131	2.3062	26.25	0.29	1.500			
0.6493	41555.09	3.7100	3.7099	2.2621	26.23	0.27	1.500			
0.6560	41985.04	3.7070	3.7071	2.1744	26.22	0.26	1.500			
0.6625	42402.10	3.7040	3.7040	2.0639	26.21	0.25	1.500			
0.6685	42783.43	3.7010	3.7010	1.9263	26.19	0.23	1.500			
0.6741	43139.90	3.6980	3.6980	1.7921	26.18	0.22	1.500			
0.6792	43468.10	3.6950	3.6950	1.6829	26.17	0.21	1.500			
0.6840	43777.41	3.6920	3.6920	1.5875	26.16	0.20	1.500			
0.6886	44070.28	3.6890	3.6889	1.5089	26.15	0.19	1.500			
0.6930	44351.51	3.6860	3.6861	1.4394	26.14	0.18	1.500			
0.6972	44620.93	3.6830	3.6830	1.3915	26.13	0.17	1.500			
0.7013	44881.54	3.6800	3.6800	1.3488	26.12	0.16	1.500			
0.7052	45134.02	3.6770	3.6770	1.3128	26.11	0.15	1.500			
0.7091	45379.35	3.6740	3.6740	1.2889	26.10	0.14	1.500			
0.7129	45622.91	3.6710	3.6710	1.2708	26.09	0.13	1.500			
0.7166	45863.59	3.6680	3.6680	1.2673	26.08	0.12	1.500			
0.7204	46107.19	3.6650	3.6650	1.2684	26.07	0.11	1.500			
0.7242	46349.48	3.6620	3.6619	1.2626	26.06	0.10	1.500			
0.7280	46593.98	3.6590	3.6590	1.2621	26.05	0.09	1.500			
0.7318	46836.94	3.6560	3.6560	1.2558	26.05	0.09	1.500			
0.7356	47077.05	3.6530	3.6530	1.2533	26.04	0.08	1.500			
0.7394	47319.24	3.6500	3.6500	1.2393	26.03	0.07	1.500			
0.7430	47553.76	3.6470	3.6470	1.2260	26.02	0.06	1.500			
0.7467	47787.75	3.6440	3.6440	1.2180	26.01	0.05	1.500			
0.7503	48021.32	3.6410	3.6410	1.2099	26.00	0.04	1.500			
0.7539	48252.31	3.6380	3.6379	1.2016	26.00	0.04	1.500			
0.7575	48482.58	3.6350	3.6351	1.1893	25.99	0.03	1.500			
0.7611	48709.59	3.6320	3.6321	1.1805	25.98	0.02	1.500			
0.7647	48938.66	3.6290	3.6289	1.1695	25.98	0.02	1.500			
0.7681	49160.33	3.6260	3.6260	1.1601	25.97	0.01	1.500			
0.7716	49380.93	3.6230	3.6230	1.1448	25.97	0.01	1.500			
0.7750	49601.09	3.6200	3.6199	1.1292	25.96	0.00	1.500			
0.7784	49817.86	3.6170	3.6170	1.1131	25.96	0.00	1.500			
0.7817	50031.70	3.6140	3.6140	1.0895	25.96	0.00	1.500			
0.7850	50238.74	3.6110	3.6111	1.0630	25.96	0.00	1.500			
0.7881	50440.78	3.6080	3.6080	1.0372	25.96	0.00	1.500			
0.7912	50635.89	3.6050	3.6050	1.0038	25.96	0.00	1.500			
0.7942	50826.37	3.6020	3.6020	0.9786	25.96	0.00	1.500			
0.7971	51011.95	3.5990	3.5990	0.9457	25.96	0.00	1.500			
0.7999	51192.52	3.5960	3.5959	0.9082	25.96	0.00	1.500			
0.8026	51365.94	3.5930	3.5930	0.8567	25.96	0.00	1.500			
0.8051	51529.37	3.5900	3.5901	0.7973	25.96	0.00	1.500			
0.8075	51679.45	3.5870	3.5870	0.7187	25.96	0.00	1.500			
0.8096	51813.39	3.5840	3.5840	0.6372	25.96	0.00	1.500			
0.8113	51925.55	3.5810	3.5811	0.5524	25.96	0.00	1.500			
0.8128	52021.87	3.5780	3.5780	0.4714	25.96	0.00	1.500			
0.8141	52101.57	3.5750	3.5749	0.3996	25.96	0.00	1.500			
0.8151	52168.96	3.5720	3.5719	0.3429	25.96	0.00	1.500			
0.8160	52225.63	3.5690	3.5690	0.2959	25.96	0.00	1.500			
0.8168	52276.08	3.5660	3.5660	0.2604	25.96	0.00	1.500			
0.8175	52320.36	3.5630	3.5629	0.2266	25.96	0.00	1.500			
0.8181	52359.67	3.5600	3.5599	0.2035	25.96	0.00	1.500			
0.8187	52395.24	3.5570	3.5570	0.1829	25.96	0.00	1.500			
0.8192	52428.52	3.5540	3.5541	0.1653	25.96	0.00	1.500			
0.8197	52458.40	3.5510	3.5510	0.1499	25.96	0.00	1.500			
0.8201	52485.56	3.5480	3.5479	0.1339	25.96	0.00	1.500			
0.8205	52509.24	3.5450	3.5449	0.1185	25.96	0.00	1.500			
0.8208	52530.43	3.5420	3.5421	0.1036	25.96	0.00	1.500			
0.8211	52548.95	3.5390	3.5391	0.0893	25.96	0.00	1.500			
0.8213	52564.74	3.5360	3.5361	0.0751	25.96	0.00	1.500			
0.8215	52578.24	3.5330	3.5334	0.0605	25.96	0.00	1.500			
0.8217	52588.38	3.5300	3.5304	0.0452	25.96	0.00	1.500			
0.8218	52595.61	3.5270	3.5280	0.0300	25.96	0.00	1.500			
