Ah_balance (normalized)	Ah_balance (mAh)	Voltage - fit (V)	Voltage -  interpolate (V)	dQ/dV (1/V)	Temperature (°C)	Temperature - diff (°C)	Current (C)	R_DC 0ms (mOhm)	R_DC 50ms (mOhm)	R_DC 50 ms PEC (mOhm)
0.2791	17863.07	3.9870	3.9870	0.8634	26.97	1.01	1.500			
0.2817	18027.20	3.9840	3.9839	0.8504	26.96	1.00	1.500			
0.2842	18189.37	3.9810	3.9810	0.8444	26.96	1.00	1.500			
0.2867	18349.55	3.9780	3.9781	0.8458	26.95	0.99	1.500			
0.2893	18512.03	3.9750	3.9749	0.8456	26.95	0.99	1.500			
0.2918	18673.09	3.9720	3.9720	0.8463	26.94	0.98	1.500			
0.2943	18836.03	3.9690	3.9690	0.8595	26.94	0.98	1.500			
0.2969	19002.26	3.9660	3.9661	0.8694	26.93	0.97	1.500			
0.2995	19170.90	3.9630	3.9629	0.8761	26.93	0.97	1.500			
0.3022	19339.90	3.9600	3.9601	0.8813	26.92	0.96	1.500			
0.3048	19510.32	3.9570	3.9570	0.8824	26.92	0.96	1.500			
0.3075	19682.43	3.9540	3.9540	0.8864	26.91	0.95	1.500			
0.3102	19851.13	3.9510	3.9510	0.8827	26.91	0.95	1.500			
0.3128	20018.76	3.9480	3.9481	0.8833	26.90	0.94	1.500			
0.3155	20188.95	3.9450	3.9450	0.8793	26.90	0.94	1.500			
0.3181	20356.07	3.9420	3.9420	0.8852	26.89	0.93	1.500			
0.3207	20524.81	3.9390	3.9391	0.8924	26.89	0.93	1.500			
0.3234	20696.99	3.9360	3.9358	0.9021	26.88	0.92	1.500			
0.3261	20871.28	3.9330	3.9330	0.9121	26.88	0.92	1.500			
0.3289	21048.58	3.9300	3.9300	0.9144	26.87	0.91	1.500			
0.3317	21226.51	3.9270	3.9271	0.9177	26.87	0.91	1.500			
0.3344	21402.92	3.9240	3.9240	0.9203	26.86	0.90	1.500			
0.3372	21578.96	3.9210	3.9210	0.9241	26.86	0.90	1.500			
0.3399	21754.87	3.9180	3.9180	0.9255	26.85	0.89	1.500			
0.3427	21933.11	3.9150	3.9150	0.9313	26.85	0.89	1.500			
0.3455	22112.74	3.9120	3.9121	0.9382	26.84	0.88	1.500			
0.3484	22294.45	3.9090	3.9089	0.9457	26.84	0.88	1.500			
0.3512	22476.67	3.9060	3.9060	0.9510	26.83	0.87	1.500			
0.3540	22658.61	3.9030	3.9030	0.9580	26.83	0.87	1.500			
0.3569	22843.15	3.9000	3.9000	0.9641	26.82	0.86	1.500			
0.3598	23028.53	3.8970	3.8970	0.9744	26.81	0.85	1.500			
0.3628	23217.90	3.8940	3.8940	0.9825	26.81	0.85	1.500			
0.3657	23407.19	3.8910	3.8910	0.9941	26.80	0.84	1.500			
0.3687	23599.69	3.8880	3.8881	1.0008	26.79	0.83	1.500			
0.3717	23791.96	3.8850	3.8850	1.0131	26.78	0.82	1.500			
0.3748	23987.77	3.8820	3.8820	1.0197	26.78	0.82	1.500			
0.3779	24183.40	3.8790	3.8790	1.0328	26.77	0.81	1.500			
0.3810	24382.11	3.8760	3.8760	1.0405	26.76	0.80	1.500			
0.3841	24584.74	3.8730	3.8730	1.0550	26.75	0.79	1.500			
0.3873	24788.32	3.8700	3.8700	1.0570	26.75	0.79	1.500			
0.3905	24993.12	3.8670	3.8670	1.0704	26.74	0.78	1.500			
0.3937	25197.02	3.8640	3.8640	1.0828	26.73	0.77	1.500			
0.3970	25406.12	3.8610	3.8610	1.0987	26.72	0.76	1.500			
0.4003	25616.75	3.8580	3.8580	1.1153	26.72	0.76	1.500			
0.4036	25833.28	3.8550	3.8550	1.1354	26.71	0.75	1.500			
0.4071	26053.46	3.8520	3.8520	1.1526	26.70	0.74	1.500			
0.4106	26278.74	3.8490	3.8490	1.1741	26.69	0.73	1.500			
0.4141	26505.30	3.8460	3.8460	1.1886	26.68	0.72	1.500			
0.4177	26734.38	3.8430	3.8430	1.2027	26.67	0.71	1.500			
0.4213	26966.13	3.8400	3.8400	1.2215	26.66	0.70	1.500			
0.4250	27201.38	3.8370	3.8371	1.2417	26.66	0.70	1.500			
0.4288	27441.86	3.8340	3.8339	1.2625	26.65	0.69	1.500			
0.4326	27686.15	3.8310	3.8310	1.2832	26.64	0.68	1.500			
0.4365	27933.36	3.8280	3.8280	1.3071	26.63	0.67	1.500			
0.4404	28187.97	3.8250	3.8250	1.3365	26.62	0.66	1.500			
0.4445	28445.45	3.8220	3.8220	1.3650	26.61	0.65	1.500			
0.4486	28708.88	3.8190	3.8189	1.3903	26.60	0.64	1.500			
0.4528	28979.30	3.8160	3.8161	1.4220	26.59	0.63	1.500			
0.4571	29256.91	3.8130	3.8130	1.4504	26.58	0.62	1.500			
0.4615	29537.58	3.8100	3.8100	1.4783	26.56	0.60	1.500			
0.4660	29822.33	3.8070	3.8070	1.5030	26.55	0.59	1.500			
0.4705	30113.91	3.8040	3.8040	1.5373	26.54	0.58	1.500			
0.4752	30411.15	3.8010	3.8010	1.5667	26.52	0.56	1.500			
0.4800	30717.12	3.7980	3.7980	1.5988	26.51	0.55	1.500			
0.4848	31027.28	3.7950	3.7950	1.6347	26.50	0.54	1.500			
0.4897	31344.00	3.7920	3.7920	1.6628	26.48	0.52	1.500			
0.4948	31664.90	3.7890	3.7890	1.6979	26.47	0.51	1.500			
0.4999	31996.68	3.7860	3.7860	1.7262	26.45	0.49	1.500			
0.5052	32331.52	3.7830	3.7830	1.7552	26.44	0.48	1.500			
0.5105	32670.38	3.7800	3.7801	1.7913	26.42	0.46	1.500			
0.5159	33019.27	3.7770	3.7770	1.8135	26.40	0.44	1.500			
0.5214	33370.73	3.7740	3.7738	1.8211	26.39	0.43	1.500	0.354	0.465	
0.5269	33721.84	3.7710	3.7711	1.8302	26.37	0.41	1.500			
0.5324	34075.82	3.7680	3.7680	1.8339	26.36	0.40	1.500			
0.5379	34423.96	3.7650	3.7650	1.8163	26.35	0.39	1.500			
0.5433	34772.43	3.7620	3.7620	1.8143	26.33	0.37	1.500			
0.5488	35120.15	3.7590	3.7590	1.8077	26.32	0.36	1.500			
0.5542	35466.01	3.7560	3.7560	1.8082	26.30	0.34	1.500			
0.5596	35811.95	3.7530	3.7530	1.7979	26.29	0.33	1.500			
0.5649	36156.03	3.7500	3.7500	1.8118	26.27	0.31	1.500			
0.5703	36500.47	3.7470	3.7471	1.8256	26.26	0.30	1.500			
0.5758	36853.07	3.7440	3.7440	1.8508	26.24	0.28	1.500			
0.5814	37211.24	3.7410	3.7410	1.8776	26.23	0.27	1.500			
0.5871	37575.95	3.7380	3.7380	1.9101	26.21	0.25	1.500			
0.5929	37944.66	3.7350	3.7350	1.9406	26.20	0.24	1.500			
0.5987	38319.77	3.7320	3.7319	1.9851	26.18	0.22	1.500			
0.6048	38707.70	3.7290	3.7290	2.0270	26.17	0.21	1.500			
0.6109	39098.89	3.7260	3.7260	2.0783	26.16	0.20	1.500			
0.6173	39505.11	3.7230	3.7231	2.1366	26.15	0.19	1.500			
0.6237	39919.36	3.7200	3.7198	2.1941	26.14	0.18	1.500			
0.6304	40347.58	3.7170	3.7170	2.2272	26.12	0.16	1.500			
0.6372	40781.79	3.7140	3.7140	2.3167	26.11	0.15	1.500			
0.6442	41225.68	3.7110	3.7110	2.3855	26.09	0.13	1.500			
0.6515	41693.88	3.7080	3.7081	2.4420	26.07	0.11	1.500			
0.6590	42173.06	3.7050	3.7051	2.4678	26.06	0.10	1.500			
0.6663	42644.36	3.7020	3.7020	2.4220	26.05	0.09	1.500			
0.6736	43112.10	3.6990	3.6988	2.3529	26.04	0.08	1.500			
0.6807	43566.23	3.6960	3.6960	2.2435	26.03	0.07	1.500			
0.6872	43983.69	3.6930	3.6930	2.0915	26.03	0.07	1.500			
0.6932	44365.65	3.6900	3.6900	1.9162	26.02	0.06	1.500			
0.6987	44717.36	3.6870	3.6870	1.7765	26.02	0.06	1.500			
0.7038	45042.79	3.6840	3.6840	1.6518	26.02	0.06	1.500			
0.7085	45344.16	3.6810	3.6810	1.5527	26.01	0.05	1.500			
0.7130	45629.70	3.6780	3.6780	1.4746	26.01	0.05	1.500			
0.7172	45901.17	3.6750	3.6750	1.4014	26.00	0.04	1.500			
0.7212	46158.66	3.6720	3.6720	1.3491	26.00	0.04	1.500			
0.7252	46411.66	3.6690	3.6690	1.3134	26.00	0.04	1.500			
0.7290	46658.14	3.6660	3.6660	1.2820	25.99	0.03	1.500			
0.7328	46899.91	3.6630	3.6629	1.2611	25.98	0.02	1.500			
0.7365	47137.42	3.6600	3.6600	1.2485	25.98	0.02	1.500			
0.7402	47372.83	3.6570	3.6571	1.2571	25.97	0.01	1.500			
0.7440	47613.90	3.6540	3.6539	1.2585	25.97	0.01	1.500			
0.7477	47855.82	3.6510	3.6509	1.2640	25.96	0.00	1.500			
0.7515	48098.96	3.6480	3.6480	1.2745	25.96	-0.00	1.500			
0.7554	48346.39	3.6450	3.6452	1.2862	25.95	-0.01	1.500			
0.7593	48597.53	3.6420	3.6419	1.2857	25.95	-0.01	1.500			
0.7632	48843.68	3.6390	3.6390	1.2801	25.94	-0.02	1.500			
0.7670	49087.66	3.6360	3.6361	1.2779	25.94	-0.02	1.500			
0.7709	49334.91	3.6330	3.6330	1.2840	25.93	-0.03	1.500			
0.7747	49580.00	3.6300	3.6299	1.2778	25.93	-0.03	1.500			
0.7785	49824.18	3.6270	3.6270	1.2727	25.93	-0.03	1.500			
0.7823	50069.03	3.6240	3.6240	1.2699	25.93	-0.03	1.500			
0.7862	50314.33	3.6210	3.6210	1.2617	25.92	-0.04	1.500			
0.7899	50555.27	3.6180	3.6180	1.2574	25.92	-0.04	1.500			
0.7937	50794.96	3.6150	3.6151	1.2484	25.92	-0.04	1.500			
0.7974	51034.40	3.6120	3.6119	1.2423	25.92	-0.04	1.500			
0.8011	51273.02	3.6090	3.6090	1.2345	25.92	-0.04	1.500			
0.8049	51511.04	3.6060	3.6060	1.2225	25.92	-0.04	1.500			
0.8086	51747.48	3.6030	3.6029	1.2097	25.92	-0.04	1.500			
0.8121	51977.02	3.6000	3.6001	1.1888	25.92	-0.04	1.500			
0.8157	52202.33	3.5970	3.5971	1.1711	25.92	-0.04	1.500			
0.8192	52426.57	3.5940	3.5939	1.1522	25.92	-0.04	1.500			
0.8226	52645.72	3.5910	3.5908	1.1330	25.92	-0.04	1.500			
0.8260	52862.70	3.5880	3.5880	1.1095	25.92	-0.04	1.500			
0.8293	53076.15	3.5850	3.5850	1.0756	25.93	-0.03	1.500			
0.8326	53287.48	3.5820	3.5819	1.0276	25.93	-0.03	1.500			
0.8357	53482.89	3.5790	3.5790	0.9550	25.94	-0.02	1.500			
0.8385	53666.11	3.5760	3.5761	0.8641	25.94	-0.02	1.500			
0.8410	53824.70	3.5730	3.5730	0.7578	25.95	-0.01	1.500			
0.8431	53957.29	3.5700	3.5702	0.6472	25.95	-0.01	1.500			
0.8448	54066.05	3.5670	3.5670	0.5447	25.95	-0.01	1.500			
0.8462	54157.35	3.5640	3.5639	0.4437	25.96	-0.00	1.500			
0.8473	54229.91	3.5610	3.5609	0.3739	25.96	-0.00	1.500			
0.8483	54289.71	3.5580	3.5580	0.3164	25.96	0.00	1.500			
0.8491	54343.25	3.5550	3.5550	0.2773	25.96	0.00	1.500			
0.8498	54389.90	3.5520	3.5520	0.2403	25.96	0.00	1.500			
0.8505	54432.29	3.5490	3.5490	0.2162	25.96	0.00	1.500			
0.8511	54470.29	3.5460	3.5460	0.1949	25.96	0.00	1.500			
0.8516	54504.81	3.5430	3.5430	0.1763	25.97	0.01	1.500			
0.8521	54537.10	3.5400	3.5400	0.1601	25.97	0.01	1.500			
0.8526	54565.55	3.5370	3.5370	0.1452	25.97	0.01	1.500			
0.8530	54591.81	3.5340	3.5340	0.1307	25.97	0.01	1.500			
0.8534	54615.54	3.5310	3.5310	0.1160	25.97	0.01	1.500			
0.8537	54636.48	3.5280	3.5280	0.1021	25.97	0.01	1.500			
0.8540	54654.95	3.5250	3.5250	0.0884	25.97	0.01	1.500			
0.8542	54670.81	3.5220	3.5222	0.0743	25.97	0.01	1.500			
0.8544	54683.69	3.5190	3.5192	0.0598	25.97	0.01	1.500			
0.8546	54694.07	3.5160	3.5163	0.0439	25.97	0.01	1.500			
0.8547	54700.99	3.5130	3.5138	0.0282	25.97	0.01	1.500			
