Ah_balance (normalized)	Ah_balance (mAh)	Voltage - fit (V)	Voltage -  interpolate (V)	dQ/dV (1/V)	Temperature (°C)	Temperature - diff (°C)	Current (C)	R_DC 0ms (mOhm)	R_DC 50ms (mOhm)	R_DC 50 ms PEC (mOhm)
0.2859	18295.16	3.9860	3.9860	0.8742	27.11	1.18	1.500			
0.2884	18459.80	3.9830	3.9830	0.8511	27.11	1.18	1.500			
0.2910	18622.95	3.9800	3.9801	0.8479	27.10	1.17	1.500			
0.2935	18784.56	3.9770	3.9770	0.8475	27.10	1.17	1.500			
0.2960	18946.73	3.9740	3.9739	0.8480	27.10	1.17	1.500			
0.2986	19109.13	3.9710	3.9710	0.8521	27.09	1.16	1.500			
0.3011	19272.64	3.9680	3.9680	0.8541	27.09	1.16	1.500			
0.3037	19437.59	3.9650	3.9650	0.8640	27.08	1.15	1.500			
0.3063	19603.38	3.9620	3.9620	0.8698	27.08	1.15	1.500			
0.3089	19771.09	3.9590	3.9590	0.8747	27.07	1.14	1.500			
0.3115	19939.20	3.9560	3.9559	0.8809	27.07	1.14	1.500			
0.3142	20109.64	3.9530	3.9531	0.8819	27.07	1.14	1.500			
0.3169	20279.50	3.9500	3.9499	0.8826	27.06	1.13	1.500			
0.3195	20449.58	3.9470	3.9471	0.8849	27.06	1.13	1.500			
0.3222	20618.46	3.9440	3.9439	0.8842	27.05	1.12	1.500			
0.3248	20787.43	3.9410	3.9411	0.8879	27.05	1.12	1.500			
0.3275	20958.38	3.9380	3.9379	0.8933	27.05	1.12	1.500			
0.3301	21129.05	3.9350	3.9350	0.9007	27.04	1.11	1.500			
0.3329	21304.02	3.9320	3.9320	0.9094	27.04	1.11	1.500			
0.3356	21479.25	3.9290	3.9290	0.9147	27.03	1.10	1.500			
0.3384	21655.52	3.9260	3.9260	0.9203	27.03	1.10	1.500			
0.3411	21832.44	3.9230	3.9230	0.9261	27.02	1.09	1.500			
0.3439	22011.06	3.9200	3.9200	0.9272	27.01	1.08	1.500			
0.3467	22188.31	3.9170	3.9170	0.9345	27.01	1.08	1.500			
0.3495	22368.72	3.9140	3.9140	0.9382	27.00	1.07	1.500			
0.3523	22549.52	3.9110	3.9109	0.9417	26.99	1.06	1.500			
0.3552	22730.57	3.9080	3.9080	0.9469	26.99	1.06	1.500			
0.3580	22912.12	3.9050	3.9050	0.9567	26.98	1.05	1.500			
0.3609	23096.68	3.9020	3.9020	0.9631	26.97	1.04	1.500			
0.3638	23282.90	3.8990	3.8990	0.9724	26.97	1.04	1.500			
0.3667	23469.09	3.8960	3.8962	0.9771	26.96	1.03	1.500			
0.3697	23659.26	3.8930	3.8930	0.9886	26.95	1.02	1.500			
0.3727	23849.67	3.8900	3.8900	0.9976	26.94	1.01	1.500			
0.3756	24041.56	3.8870	3.8870	1.0032	26.94	1.01	1.500			
0.3786	24233.25	3.8840	3.8841	1.0147	26.93	1.00	1.500			
0.3817	24430.71	3.8810	3.8810	1.0261	26.92	0.99	1.500			
0.3848	24628.43	3.8780	3.8780	1.0335	26.92	0.99	1.500			
0.3879	24827.96	3.8750	3.8750	1.0440	26.91	0.98	1.500			
0.3911	25028.23	3.8720	3.8721	1.0544	26.90	0.97	1.500			
0.3942	25231.29	3.8690	3.8690	1.0688	26.89	0.96	1.500			
0.3975	25438.46	3.8660	3.8660	1.0806	26.88	0.95	1.500			
0.4007	25646.17	3.8630	3.8629	1.0897	26.88	0.95	1.500			
0.4040	25858.16	3.8600	3.8601	1.1084	26.87	0.94	1.500			
0.4074	26072.21	3.8570	3.8570	1.1221	26.86	0.93	1.500			
0.4108	26288.05	3.8540	3.8540	1.1373	26.85	0.92	1.500			
0.4142	26507.02	3.8510	3.8510	1.1576	26.84	0.91	1.500			
0.4176	26729.34	3.8480	3.8480	1.1757	26.83	0.90	1.500			
0.4212	26958.65	3.8450	3.8449	1.1965	26.82	0.89	1.500			
0.4249	27191.57	3.8420	3.8420	1.2093	26.81	0.88	1.500			
0.4285	27424.38	3.8390	3.8391	1.2306	26.80	0.87	1.500			
0.4322	27662.10	3.8360	3.8361	1.2503	26.78	0.85	1.500			
0.4360	27903.14	3.8330	3.8328	1.2711	26.77	0.84	1.500			
0.4398	28146.64	3.8300	3.8301	1.2907	26.76	0.83	1.500			
0.4437	28396.92	3.8270	3.8271	1.3266	26.75	0.82	1.500			
0.4478	28658.06	3.8240	3.8239	1.3527	26.74	0.81	1.500			
0.4519	28918.52	3.8210	3.8210	1.3745	26.73	0.80	1.500			
0.4560	29185.63	3.8180	3.8181	1.4014	26.72	0.79	1.500			
0.4603	29457.42	3.8150	3.8150	1.4297	26.70	0.77	1.500			
0.4646	29734.15	3.8120	3.8120	1.4540	26.69	0.76	1.500			
0.4690	30014.65	3.8090	3.8091	1.4833	26.68	0.75	1.500			
0.4735	30301.53	3.8060	3.8060	1.5173	26.67	0.74	1.500			
0.4781	30597.09	3.8030	3.8030	1.5508	26.65	0.72	1.500			
0.4828	30896.52	3.8000	3.8000	1.5889	26.64	0.71	1.500			
0.4876	31206.62	3.7970	3.7970	1.6266	26.63	0.70	1.500			
0.4925	31523.02	3.7940	3.7940	1.6553	26.61	0.68	1.500			
0.4976	31845.79	3.7910	3.7910	1.6776	26.60	0.67	1.500			
0.5026	32168.48	3.7880	3.7880	1.7052	26.59	0.66	1.500			
0.5078	32499.03	3.7850	3.7850	1.7305	26.57	0.64	1.500			
0.5130	32832.52	3.7820	3.7819	1.7536	26.56	0.63	1.500			
0.5183	33171.59	3.7790	3.7791	1.7896	26.54	0.61	1.500			
0.5237	33519.17	3.7760	3.7761	1.8028	26.52	0.59	1.500			
0.5292	33871.01	3.7730	3.7731	1.8134	26.50	0.57	1.500	0.343	0.462	
0.5347	34219.27	3.7700	3.7700	1.8171	26.49	0.56	1.500			
0.5402	34570.45	3.7670	3.7670	1.8165	26.47	0.54	1.500			
0.5456	34919.72	3.7640	3.7640	1.8191	26.46	0.53	1.500			
0.5511	35269.30	3.7610	3.7610	1.8129	26.44	0.51	1.500			
0.5565	35613.30	3.7580	3.7580	1.7973	26.43	0.50	1.500			
0.5618	35956.81	3.7550	3.7550	1.7979	26.41	0.48	1.500			
0.5672	36299.79	3.7520	3.7520	1.8083	26.40	0.47	1.500			
0.5727	36649.60	3.7490	3.7490	1.8081	26.38	0.45	1.500			
0.5781	36997.13	3.7460	3.7460	1.8296	26.37	0.44	1.500			
0.5835	37346.98	3.7430	3.7431	1.8567	26.36	0.43	1.500			
0.5892	37706.81	3.7400	3.7400	1.8786	26.35	0.42	1.500			
0.5949	38072.17	3.7370	3.7370	1.8957	26.33	0.40	1.500			
0.6005	38435.18	3.7340	3.7342	1.9433	26.32	0.39	1.500			
0.6064	38810.27	3.7310	3.7310	1.9888	26.31	0.38	1.500			
0.6125	39198.40	3.7280	3.7278	2.0510	26.30	0.37	1.500			
0.6188	39604.39	3.7250	3.7250	2.1013	26.29	0.36	1.500			
0.6252	40011.13	3.7220	3.7220	2.1480	26.28	0.35	1.500			
0.6316	40422.57	3.7190	3.7191	2.1947	26.27	0.34	1.500			
0.6383	40850.42	3.7160	3.7161	2.2793	26.26	0.33	1.500			
0.6453	41300.18	3.7130	3.7130	2.3581	26.24	0.31	1.500			
0.6525	41762.27	3.7100	3.7100	2.4294	26.22	0.29	1.500			
0.6599	42231.43	3.7070	3.7069	2.4797	26.20	0.27	1.500			
0.6674	42711.37	3.7040	3.7040	2.4862	26.19	0.26	1.500			
0.6749	43192.64	3.7010	3.7010	2.4300	26.17	0.24	1.500			
0.6822	43659.63	3.6980	3.6980	2.3181	26.16	0.23	1.500			
0.6889	44092.13	3.6950	3.6950	2.1639	26.15	0.22	1.500			
0.6953	44496.07	3.6920	3.6920	1.9972	26.13	0.20	1.500			
0.7009	44855.79	3.6890	3.6890	1.8414	26.12	0.19	1.500			
0.7060	45184.83	3.6860	3.6861	1.6854	26.11	0.18	1.500			
0.7109	45496.71	3.6830	3.6829	1.5925	26.10	0.17	1.500			
0.7155	45792.32	3.6800	3.6800	1.5075	26.09	0.16	1.500			
0.7199	46072.31	3.6770	3.6770	1.4382	26.09	0.16	1.500			
0.7241	46343.04	3.6740	3.6741	1.3722	26.08	0.15	1.500			
0.7281	46597.14	3.6710	3.6709	1.3253	26.07	0.14	1.500			
0.7319	46840.83	3.6680	3.6680	1.2982	26.07	0.14	1.500			
0.7356	47080.32	3.6650	3.6649	1.2684	26.06	0.13	1.500			
0.7394	47321.95	3.6620	3.6620	1.2641	26.05	0.12	1.500			
0.7432	47563.96	3.6590	3.6590	1.2631	26.05	0.12	1.500			
0.7470	47807.64	3.6560	3.6561	1.2622	26.04	0.11	1.500			
0.7508	48051.95	3.6530	3.6530	1.2710	26.03	0.10	1.500			
0.7546	48292.72	3.6500	3.6500	1.2752	26.02	0.09	1.500			
0.7584	48537.18	3.6470	3.6470	1.2822	26.02	0.09	1.500			
0.7623	48786.50	3.6440	3.6438	1.2868	26.01	0.08	1.500			
0.7662	49034.08	3.6410	3.6411	1.2888	26.00	0.07	1.500			
0.7701	49283.91	3.6380	3.6380	1.2899	25.99	0.06	1.500			
0.7739	49532.01	3.6350	3.6350	1.2841	25.99	0.06	1.500			
0.7778	49776.49	3.6320	3.6320	1.2733	25.98	0.05	1.500			
0.7816	50020.36	3.6290	3.6291	1.2687	25.97	0.04	1.500			
0.7854	50263.74	3.6260	3.6260	1.2649	25.96	0.03	1.500			
0.7892	50507.17	3.6230	3.6230	1.2578	25.96	0.03	1.500			
0.7929	50747.00	3.6200	3.6200	1.2538	25.96	0.03	1.500			
0.7967	50987.80	3.6170	3.6170	1.2483	25.95	0.02	1.500			
0.8005	51229.45	3.6140	3.6139	1.2381	25.95	0.02	1.500			
0.8042	51466.33	3.6110	3.6111	1.2259	25.95	0.02	1.500			
0.8078	51701.51	3.6080	3.6080	1.2088	25.94	0.01	1.500			
0.8114	51931.92	3.6050	3.6050	1.1908	25.94	0.01	1.500			
0.8150	52159.22	3.6020	3.6019	1.1715	25.94	0.01	1.500			
0.8184	52380.03	3.5990	3.5990	1.1514	25.94	0.01	1.500			
0.8219	52601.27	3.5960	3.5960	1.1316	25.94	0.01	1.500			
0.8253	52816.84	3.5930	3.5930	1.1099	25.93	0.00	1.500			
0.8286	53028.31	3.5900	3.5900	1.0889	25.93	0.00	1.500			
0.8318	53237.89	3.5870	3.5870	1.0603	25.93	0.00	1.500			
0.8350	53441.84	3.5840	3.5839	1.0178	25.93	0.00	1.500			
0.8381	53638.90	3.5810	3.5810	0.9462	25.93	-0.00	1.500			
0.8409	53820.07	3.5780	3.5781	0.8652	25.93	-0.00	1.500			
0.8434	53980.65	3.5750	3.5750	0.7641	25.93	-0.00	1.500			
0.8456	54117.79	3.5720	3.5720	0.6543	25.93	-0.00	1.500			
0.8473	54228.35	3.5690	3.5690	0.5504	25.93	-0.00	1.500			
0.8488	54321.09	3.5660	3.5660	0.4589	25.93	-0.00	1.500			
0.8499	54396.23	3.5630	3.5629	0.3836	25.92	-0.01	1.500			
0.8509	54460.10	3.5600	3.5600	0.3292	25.92	-0.01	1.500			
0.8518	54513.86	3.5570	3.5569	0.2830	25.92	-0.01	1.500			
0.8525	54561.90	3.5540	3.5539	0.2489	25.92	-0.01	1.500			
0.8532	54604.81	3.5510	3.5510	0.2186	25.92	-0.01	1.500			
0.8538	54643.19	3.5480	3.5479	0.1976	25.92	-0.01	1.500			
0.8543	54677.95	3.5450	3.5450	0.1779	25.92	-0.01	1.500			
0.8548	54710.35	3.5420	3.5420	0.1610	25.92	-0.01	1.500			
0.8553	54739.46	3.5390	3.5389	0.1467	25.92	-0.01	1.500			
0.8557	54765.67	3.5360	3.5361	0.1314	25.92	-0.01	1.500			
0.8561	54789.43	3.5330	3.5329	0.1170	25.92	-0.01	1.500			
0.8564	54810.61	3.5300	3.5301	0.1032	25.92	-0.01	1.500			
0.8567	54829.08	3.5270	3.5271	0.0892	25.92	-0.01	1.500			
0.8569	54844.75	3.5240	3.5242	0.0751	25.92	-0.01	1.500			
0.8572	54858.43	3.5210	3.5213	0.0609	25.92	-0.01	1.500			
0.8573	54868.67	3.5180	3.5184	0.0458	25.92	-0.01	1.500			
0.8574	54876.02	3.5150	3.5160	0.0308	25.92	-0.01	1.500			
