Ah_balance (normalized)	Ah_balance (mAh)	Voltage - fit (V)	Voltage -  interpolate (V)	dQ/dV (1/V)	Temperature (°C)	Temperature - diff (°C)	Current (C)	R_DC 0ms (mOhm)	R_DC 50ms (mOhm)	R_DC 50 ms PEC (mOhm)
0.2801	17925.03	3.9830	3.9831	0.8216	27.17	1.23	1.500			
0.2826	18085.55	3.9800	3.9799	0.8443	27.17	1.23	1.500			
0.2852	18250.21	3.9770	3.9771	0.8554	27.16	1.22	1.500			
0.2877	18415.50	3.9740	3.9740	0.8609	27.16	1.22	1.500			
0.2903	18581.66	3.9710	3.9711	0.8698	27.15	1.21	1.500			
0.2930	18749.30	3.9680	3.9679	0.8759	27.15	1.21	1.500			
0.2956	18918.19	3.9650	3.9650	0.8735	27.14	1.20	1.500			
0.2982	19087.56	3.9620	3.9620	0.8725	27.14	1.20	1.500			
0.3008	19254.20	3.9590	3.9591	0.8803	27.13	1.19	1.500			
0.3035	19423.92	3.9560	3.9559	0.8837	27.13	1.19	1.500			
0.3061	19593.17	3.9530	3.9529	0.8824	27.12	1.18	1.500			
0.3088	19762.17	3.9500	3.9501	0.8830	27.12	1.18	1.500			
0.3114	19931.83	3.9470	3.9471	0.8900	27.11	1.17	1.500			
0.3141	20103.96	3.9440	3.9440	0.8997	27.10	1.16	1.500			
0.3168	20276.49	3.9410	3.9410	0.9035	27.10	1.16	1.500			
0.3195	20449.20	3.9380	3.9379	0.9026	27.09	1.15	1.500			
0.3223	20624.32	3.9350	3.9350	0.9109	27.08	1.14	1.500			
0.3250	20801.47	3.9320	3.9321	0.9168	27.08	1.14	1.500			
0.3278	20976.41	3.9290	3.9290	0.9216	27.07	1.13	1.500			
0.3305	21152.64	3.9260	3.9260	0.9237	27.06	1.12	1.500			
0.3333	21331.49	3.9230	3.9230	0.9309	27.06	1.12	1.500			
0.3361	21511.86	3.9200	3.9200	0.9362	27.05	1.11	1.500			
0.3389	21692.20	3.9170	3.9170	0.9437	27.05	1.11	1.500			
0.3418	21873.60	3.9140	3.9141	0.9462	27.04	1.10	1.500			
0.3446	22055.55	3.9110	3.9109	0.9500	27.04	1.10	1.500			
0.3475	22237.84	3.9080	3.9080	0.9513	27.03	1.09	1.500			
0.3503	22419.64	3.9050	3.9050	0.9591	27.02	1.08	1.500			
0.3532	22602.99	3.9020	3.9020	0.9712	27.02	1.08	1.500			
0.3561	22791.63	3.8990	3.8990	0.9812	27.01	1.07	1.500			
0.3591	22980.41	3.8960	3.8959	0.9902	27.00	1.06	1.500			
0.3621	23173.21	3.8930	3.8930	1.0022	27.00	1.06	1.500			
0.3651	23367.27	3.8900	3.8901	1.0102	26.99	1.05	1.500			
0.3682	23563.12	3.8870	3.8869	1.0170	26.98	1.04	1.500			
0.3712	23758.11	3.8840	3.8840	1.0183	26.97	1.03	1.500			
0.3742	23951.76	3.8810	3.8810	1.0252	26.96	1.02	1.500			
0.3773	24150.15	3.8780	3.8780	1.0359	26.95	1.01	1.500			
0.3805	24350.10	3.8750	3.8750	1.0429	26.94	1.00	1.500			
0.3836	24549.56	3.8720	3.8721	1.0594	26.94	1.00	1.500			
0.3868	24755.20	3.8690	3.8690	1.0718	26.93	0.99	1.500			
0.3900	24962.36	3.8660	3.8660	1.0892	26.92	0.98	1.500			
0.3933	25172.46	3.8630	3.8630	1.1019	26.92	0.98	1.500			
0.3966	25385.12	3.8600	3.8601	1.1182	26.91	0.97	1.500			
0.4000	25601.31	3.8570	3.8571	1.1355	26.90	0.96	1.500			
0.4034	25820.77	3.8540	3.8540	1.1523	26.90	0.96	1.500			
0.4069	26042.53	3.8510	3.8508	1.1653	26.89	0.95	1.500			
0.4104	26268.55	3.8480	3.8481	1.1852	26.88	0.94	1.500			
0.4140	26496.90	3.8450	3.8450	1.1981	26.87	0.93	1.500			
0.4177	26730.33	3.8420	3.8420	1.2181	26.86	0.92	1.500			
0.4213	26964.71	3.8390	3.8389	1.2357	26.84	0.90	1.500			
0.4250	27200.96	3.8360	3.8361	1.2558	26.83	0.89	1.500			
0.4288	27444.30	3.8330	3.8330	1.2807	26.82	0.88	1.500			
0.4327	27692.86	3.8300	3.8300	1.3066	26.81	0.87	1.500			
0.4367	27945.78	3.8270	3.8270	1.3328	26.80	0.86	1.500			
0.4407	28204.05	3.8240	3.8240	1.3638	26.79	0.85	1.500			
0.4448	28468.25	3.8210	3.8210	1.3914	26.77	0.83	1.500			
0.4490	28738.34	3.8180	3.8180	1.4166	26.76	0.82	1.500			
0.4533	29012.32	3.8150	3.8150	1.4491	26.75	0.81	1.500			
0.4577	29292.80	3.8120	3.8121	1.4828	26.74	0.80	1.500			
0.4622	29579.95	3.8090	3.8090	1.5188	26.73	0.79	1.500			
0.4668	29876.04	3.8060	3.8059	1.5407	26.71	0.77	1.500			
0.4714	30171.67	3.8030	3.8030	1.5839	26.70	0.76	1.500			
0.4762	30479.47	3.8000	3.8001	1.6248	26.69	0.75	1.500			
0.4812	30794.82	3.7970	3.7969	1.6662	26.67	0.73	1.500			
0.4862	31119.03	3.7940	3.7940	1.7031	26.66	0.72	1.500			
0.4915	31452.90	3.7910	3.7911	1.7263	26.64	0.70	1.500			
0.4967	31790.57	3.7880	3.7880	1.7707	26.63	0.69	1.500			
0.5021	32132.94	3.7850	3.7850	1.8075	26.61	0.67	1.500			
0.5075	32480.38	3.7820	3.7818	1.8454	26.60	0.66	1.500			
0.5131	32839.62	3.7790	3.7789	1.8856	26.58	0.64	1.500			
0.5189	33206.75	3.7760	3.7761	1.9280	26.56	0.62	1.500			
0.5247	33578.70	3.7730	3.7730	1.9526	26.54	0.60	1.500			
0.5306	33960.64	3.7700	3.7697	1.9987	26.53	0.59	1.500	0.350	0.455	
0.5367	34346.87	3.7670	3.7672	2.0046	26.51	0.57	1.500			
0.5428	34739.70	3.7640	3.7640	1.9935	26.49	0.55	1.500			
0.5488	35120.88	3.7610	3.7610	1.9471	26.47	0.53	1.500			
0.5546	35495.01	3.7580	3.7580	1.9520	26.46	0.52	1.500			
0.5605	35871.35	3.7550	3.7551	1.9493	26.44	0.50	1.500			
0.5664	36247.95	3.7520	3.7519	1.9242	26.42	0.48	1.500			
0.5721	36613.38	3.7490	3.7491	1.9103	26.41	0.47	1.500			
0.5777	36972.69	3.7460	3.7461	1.9151	26.39	0.45	1.500			
0.5835	37343.05	3.7430	3.7429	1.9237	26.38	0.44	1.500			
0.5892	37711.17	3.7400	3.7401	1.9470	26.36	0.42	1.500			
0.5951	38088.57	3.7370	3.7371	1.9694	26.35	0.41	1.500			
0.6011	38471.95	3.7340	3.7339	1.9843	26.33	0.39	1.500			
0.6070	38849.01	3.7310	3.7308	2.0249	26.32	0.38	1.500			
0.6132	39243.66	3.7280	3.7280	2.0759	26.31	0.37	1.500			
0.6195	39645.36	3.7250	3.7251	2.1129	26.30	0.36	1.500			
0.6259	40056.37	3.7220	3.7220	2.1719	26.29	0.35	1.500			
0.6324	40473.82	3.7190	3.7188	2.2505	26.28	0.34	1.500			
0.6393	40912.07	3.7160	3.7160	2.3122	26.26	0.32	1.500			
0.6465	41372.89	3.7130	3.7130	2.4134	26.25	0.31	1.500			
0.6537	41836.19	3.7100	3.7100	2.4470	26.23	0.29	1.500			
0.6611	42312.94	3.7070	3.7070	2.5173	26.21	0.27	1.500			
0.6687	42799.04	3.7040	3.7040	2.5609	26.20	0.26	1.500			
0.6767	43306.49	3.7010	3.7010	2.5897	26.18	0.24	1.500			
0.6845	43809.09	3.6980	3.6980	2.5263	26.17	0.23	1.500			
0.6921	44293.30	3.6950	3.6950	2.4244	26.15	0.21	1.500			
0.6991	44744.06	3.6920	3.6920	2.2671	26.14	0.20	1.500			
0.7056	45160.40	3.6890	3.6889	2.0939	26.13	0.19	1.500			
0.7117	45547.13	3.6860	3.6861	1.9381	26.12	0.18	1.500			
0.7173	45904.66	3.6830	3.6830	1.7887	26.12	0.18	1.500			
0.7223	46225.51	3.6800	3.6801	1.6660	26.11	0.17	1.500			
0.7270	46528.50	3.6770	3.6770	1.5551	26.11	0.17	1.500			
0.7315	46814.26	3.6740	3.6739	1.4735	26.10	0.16	1.500			
0.7358	47088.95	3.6710	3.6710	1.4111	26.09	0.15	1.500			
0.7399	47353.29	3.6680	3.6680	1.3602	26.09	0.15	1.500			
0.7439	47607.88	3.6650	3.6650	1.3199	26.08	0.14	1.500			
0.7477	47852.25	3.6620	3.6620	1.2874	26.08	0.14	1.500			
0.7515	48095.19	3.6590	3.6590	1.2754	26.07	0.13	1.500			
0.7552	48335.13	3.6560	3.6560	1.2664	26.06	0.12	1.500			
0.7590	48577.66	3.6530	3.6529	1.2696	26.06	0.12	1.500			
0.7628	48821.79	3.6500	3.6501	1.2764	26.05	0.11	1.500			
0.7667	49067.88	3.6470	3.6469	1.2877	26.04	0.10	1.500			
0.7706	49315.57	3.6440	3.6440	1.2912	26.03	0.09	1.500			
0.7745	49565.21	3.6410	3.6410	1.2895	26.02	0.08	1.500			
0.7783	49813.84	3.6380	3.6380	1.2936	26.01	0.07	1.500			
0.7822	50063.31	3.6350	3.6349	1.2983	26.00	0.06	1.500			
0.7861	50312.80	3.6320	3.6320	1.2953	25.99	0.05	1.500			
0.7900	50560.90	3.6290	3.6289	1.2913	25.99	0.05	1.500			
0.7939	50808.53	3.6260	3.6261	1.2852	25.98	0.04	1.500			
0.7977	51054.17	3.6230	3.6230	1.2862	25.98	0.04	1.500			
0.8016	51302.15	3.6200	3.6199	1.2888	25.97	0.03	1.500			
0.8055	51549.71	3.6170	3.6170	1.2802	25.96	0.02	1.500			
0.8093	51795.51	3.6140	3.6141	1.2741	25.96	0.02	1.500			
0.8132	52043.07	3.6110	3.6110	1.2693	25.96	0.02	1.500			
0.8170	52286.23	3.6080	3.6080	1.2561	25.95	0.01	1.500			
0.8207	52526.20	3.6050	3.6050	1.2421	25.95	0.01	1.500			
0.8244	52760.86	3.6020	3.6021	1.2271	25.95	0.01	1.500			
0.8281	52996.67	3.5990	3.5990	1.2109	25.94	0.00	1.500			
0.8317	53228.53	3.5960	3.5960	1.1954	25.94	0.00	1.500			
0.8353	53456.67	3.5930	3.5930	1.1797	25.94	0.00	1.500			
0.8388	53680.71	3.5900	3.5900	1.1645	25.94	0.00	1.500			
0.8422	53902.34	3.5870	3.5869	1.1512	25.94	0.00	1.500			
0.8457	54123.05	3.5840	3.5840	1.1316	25.94	0.00	1.500			
0.8491	54340.16	3.5810	3.5810	1.1086	25.94	0.00	1.500			
0.8525	54558.31	3.5780	3.5779	1.0591	25.94	0.00	1.500			
0.8557	54765.08	3.5750	3.5750	0.9928	25.94	0.00	1.500			
0.8586	54953.47	3.5720	3.5721	0.8831	25.94	0.00	1.500			
0.8612	55118.77	3.5690	3.5691	0.7689	25.94	0.00	1.500			
0.8633	55252.56	3.5660	3.5661	0.6468	25.94	0.00	1.500			
0.8650	55360.61	3.5630	3.5630	0.5276	25.94	0.00	1.500			
0.8663	55441.49	3.5600	3.5599	0.4352	25.94	0.00	1.500			
0.8674	55511.01	3.5570	3.5570	0.3662	25.94	0.00	1.500			
0.8683	55570.46	3.5540	3.5539	0.3045	25.94	0.00	1.500			
0.8691	55622.95	3.5510	3.5510	0.2670	25.94	0.00	1.500			
0.8698	55667.90	3.5480	3.5479	0.2357	25.94	0.00	1.500			
0.8705	55708.98	3.5450	3.5451	0.2113	25.94	0.00	1.500			
0.8710	55746.29	3.5420	3.5419	0.1889	25.94	0.00	1.500			
0.8716	55779.57	3.5390	3.5389	0.1703	25.94	0.00	1.500			
0.8720	55810.41	3.5360	3.5361	0.1556	25.94	0.00	1.500			
0.8725	55838.31	3.5330	3.5330	0.1394	25.94	0.00	1.500			
0.8729	55863.65	3.5300	3.5300	0.1257	25.94	0.00	1.500			
0.8732	55886.48	3.5270	3.5270	0.1119	25.94	0.00	1.500			
0.8735	55906.13	3.5240	3.5240	0.0973	25.94	0.00	1.500			
0.8738	55923.81	3.5210	3.5210	0.0845	25.94	0.00	1.500			
0.8740	55938.72	3.5180	3.5183	0.0709	25.94	0.00	1.500			
0.8742	55951.34	3.5150	3.5153	0.0564	25.94	0.00	1.500			
0.8744	55960.77	3.5120	3.5127	0.0418	25.94	0.00	1.500			
