Ah_balance (normalized)	Ah_balance (mAh)	Voltage - fit (V)	Voltage -  interpolate (V)	dQ/dV (1/V)	Temperature (°C)	Temperature - diff (°C)	Current (C)	R_DC 0ms (mOhm)	R_DC 50ms (mOhm)	R_DC 50 ms PEC (mOhm)
0.2787	17839.99	3.9890	3.9891	0.8111	27.29	1.31	1.500			
0.2812	17998.32	3.9860	3.9859	0.8319	27.29	1.31	1.500			
0.2838	18160.75	3.9830	3.9830	0.8424	27.29	1.31	1.500			
0.2863	18323.57	3.9800	3.9801	0.8456	27.28	1.30	1.500			
0.2889	18486.93	3.9770	3.9770	0.8497	27.28	1.30	1.500			
0.2914	18649.80	3.9740	3.9740	0.8506	27.27	1.29	1.500			
0.2939	18811.90	3.9710	3.9710	0.8538	27.27	1.29	1.500			
0.2965	18976.83	3.9680	3.9679	0.8572	27.26	1.28	1.500			
0.2991	19141.99	3.9650	3.9650	0.8642	27.26	1.28	1.500			
0.3017	19309.40	3.9620	3.9620	0.8693	27.26	1.28	1.500			
0.3043	19476.91	3.9590	3.9591	0.8759	27.25	1.27	1.500			
0.3070	19645.15	3.9560	3.9560	0.8795	27.25	1.27	1.500			
0.3096	19814.14	3.9530	3.9530	0.8804	27.24	1.26	1.500			
0.3122	19983.42	3.9500	3.9500	0.8843	27.24	1.26	1.500			
0.3149	20154.03	3.9470	3.9470	0.8926	27.23	1.25	1.500			
0.3176	20325.22	3.9440	3.9440	0.8935	27.23	1.25	1.500			
0.3203	20499.04	3.9410	3.9409	0.8968	27.22	1.24	1.500			
0.3230	20669.91	3.9380	3.9381	0.8979	27.22	1.24	1.500			
0.3257	20841.92	3.9350	3.9350	0.9035	27.21	1.23	1.500			
0.3284	21016.36	3.9320	3.9321	0.9091	27.20	1.22	1.500			
0.3311	21189.68	3.9290	3.9288	0.9142	27.20	1.22	1.500			
0.3338	21366.24	3.9260	3.9261	0.9195	27.19	1.21	1.500			
0.3367	21545.90	3.9230	3.9230	0.9257	27.19	1.21	1.500			
0.3394	21723.49	3.9200	3.9200	0.9302	27.18	1.20	1.500			
0.3422	21902.39	3.9170	3.9171	0.9371	27.17	1.19	1.500			
0.3450	22081.75	3.9140	3.9139	0.9369	27.17	1.19	1.500			
0.3478	22261.94	3.9110	3.9109	0.9450	27.16	1.18	1.500			
0.3507	22442.85	3.9080	3.9081	0.9526	27.15	1.17	1.500			
0.3536	22627.98	3.9050	3.9050	0.9603	27.15	1.17	1.500			
0.3565	22814.04	3.9020	3.9020	0.9713	27.14	1.16	1.500			
0.3594	23000.23	3.8990	3.8990	0.9781	27.13	1.15	1.500			
0.3623	23188.03	3.8960	3.8960	0.9843	27.12	1.14	1.500			
0.3653	23378.50	3.8930	3.8930	0.9956	27.11	1.13	1.500			
0.3683	23569.64	3.8900	3.8900	1.0018	27.10	1.12	1.500			
0.3713	23762.34	3.8870	3.8870	1.0121	27.09	1.11	1.500			
0.3744	23958.84	3.8840	3.8838	1.0224	27.08	1.10	1.500			
0.3774	24154.81	3.8810	3.8811	1.0328	27.07	1.09	1.500			
0.3805	24355.05	3.8780	3.8779	1.0441	27.06	1.08	1.500			
0.3837	24557.59	3.8750	3.8751	1.0569	27.05	1.07	1.500			
0.3869	24761.33	3.8720	3.8720	1.0649	27.05	1.07	1.500			
0.3901	24965.41	3.8690	3.8690	1.0778	27.04	1.06	1.500			
0.3933	25172.55	3.8660	3.8660	1.0868	27.03	1.05	1.500			
0.3966	25383.05	3.8630	3.8629	1.1003	27.02	1.04	1.500			
0.3999	25593.74	3.8600	3.8600	1.1180	27.01	1.03	1.500			
0.4033	25811.34	3.8570	3.8570	1.1308	27.01	1.03	1.500			
0.4067	26029.78	3.8540	3.8540	1.1477	27.00	1.02	1.500			
0.4102	26251.97	3.8510	3.8510	1.1692	26.99	1.01	1.500			
0.4137	26477.68	3.8480	3.8479	1.1825	26.98	1.00	1.500			
0.4173	26708.23	3.8450	3.8449	1.1963	26.97	0.99	1.500			
0.4209	26939.01	3.8420	3.8421	1.2155	26.96	0.98	1.500			
0.4246	27172.00	3.8390	3.8390	1.2301	26.95	0.97	1.500			
0.4283	27411.00	3.8360	3.8360	1.2527	26.94	0.96	1.500			
0.4320	27650.36	3.8330	3.8331	1.2736	26.93	0.95	1.500			
0.4359	27896.72	3.8300	3.8300	1.2991	26.91	0.93	1.500			
0.4399	28151.62	3.8270	3.8270	1.3225	26.90	0.92	1.500			
0.4439	28407.77	3.8240	3.8240	1.3454	26.88	0.90	1.500			
0.4479	28668.27	3.8210	3.8211	1.3679	26.87	0.89	1.500			
0.4521	28931.86	3.8180	3.8180	1.3943	26.85	0.87	1.500			
0.4563	29200.31	3.8150	3.8150	1.4153	26.84	0.86	1.500			
0.4605	29473.83	3.8120	3.8120	1.4405	26.82	0.84	1.500			
0.4649	29754.39	3.8090	3.8090	1.4677	26.81	0.83	1.500			
0.4694	30038.46	3.8060	3.8061	1.4947	26.80	0.82	1.500			
0.4739	30326.92	3.8030	3.8030	1.5210	26.78	0.80	1.500			
0.4785	30621.21	3.8000	3.8000	1.5476	26.77	0.79	1.500			
0.4831	30919.25	3.7970	3.7969	1.5871	26.75	0.77	1.500			
0.4880	31229.53	3.7940	3.7940	1.6105	26.74	0.76	1.500			
0.4928	31542.36	3.7910	3.7909	1.6336	26.72	0.74	1.500			
0.4978	31856.97	3.7880	3.7881	1.6666	26.71	0.73	1.500			
0.5028	32177.38	3.7850	3.7850	1.6903	26.69	0.71	1.500			
0.5079	32505.08	3.7820	3.7819	1.7181	26.67	0.69	1.500			
0.5131	32840.13	3.7790	3.7791	1.7215	26.66	0.68	1.500	0.348	0.475	
0.5184	33177.66	3.7760	3.7760	1.7378	26.64	0.66	1.500			
0.5236	33510.04	3.7730	3.7731	1.7380	26.62	0.64	1.500			
0.5288	33842.03	3.7700	3.7699	1.7293	26.61	0.63	1.500			
0.5339	34171.98	3.7670	3.7670	1.7421	26.59	0.61	1.500			
0.5392	34507.16	3.7640	3.7640	1.7519	26.58	0.60	1.500			
0.5445	34846.09	3.7610	3.7610	1.7538	26.56	0.58	1.500			
0.5498	35185.31	3.7580	3.7581	1.7606	26.55	0.57	1.500			
0.5551	35524.52	3.7550	3.7549	1.7711	26.53	0.55	1.500			
0.5604	35864.49	3.7520	3.7521	1.7798	26.52	0.54	1.500			
0.5657	36204.28	3.7490	3.7490	1.7898	26.50	0.52	1.500			
0.5711	36551.07	3.7460	3.7460	1.8152	26.48	0.50	1.500			
0.5765	36896.09	3.7430	3.7430	1.8440	26.46	0.48	1.500			
0.5821	37254.92	3.7400	3.7400	1.8937	26.45	0.47	1.500			
0.5878	37621.45	3.7370	3.7370	1.9373	26.43	0.45	1.500			
0.5937	37999.01	3.7340	3.7340	1.9737	26.41	0.43	1.500			
0.5997	38380.27	3.7310	3.7310	2.0272	26.40	0.42	1.500			
0.6058	38773.52	3.7280	3.7279	2.0739	26.38	0.40	1.500			
0.6122	39178.05	3.7250	3.7250	2.1202	26.36	0.38	1.500			
0.6186	39591.51	3.7220	3.7220	2.1782	26.34	0.36	1.500			
0.6252	40012.38	3.7190	3.7190	2.2380	26.33	0.35	1.500			
0.6320	40445.96	3.7160	3.7161	2.3244	26.31	0.33	1.500			
0.6392	40906.74	3.7130	3.7130	2.3960	26.29	0.31	1.500			
0.6465	41377.97	3.7100	3.7100	2.4132	26.28	0.30	1.500			
0.6539	41848.07	3.7070	3.7070	2.4002	26.26	0.28	1.500			
0.6610	42302.30	3.7040	3.7040	2.3030	26.25	0.27	1.500			
0.6678	42738.73	3.7010	3.7010	2.1848	26.23	0.25	1.500			
0.6742	43149.22	3.6980	3.6980	2.0500	26.22	0.24	1.500			
0.6801	43526.45	3.6950	3.6950	1.9037	26.20	0.22	1.500			
0.6855	43873.86	3.6920	3.6920	1.7587	26.19	0.21	1.500			
0.6905	44193.59	3.6890	3.6890	1.6420	26.18	0.20	1.500			
0.6953	44496.62	3.6860	3.6860	1.5592	26.17	0.19	1.500			
0.6997	44781.25	3.6830	3.6830	1.4808	26.15	0.17	1.500			
0.7040	45057.23	3.6800	3.6800	1.4258	26.14	0.16	1.500			
0.7082	45325.41	3.6770	3.6770	1.3809	26.13	0.15	1.500			
0.7123	45584.63	3.6740	3.6740	1.3426	26.12	0.14	1.500			
0.7162	45837.32	3.6710	3.6710	1.3127	26.11	0.13	1.500			
0.7201	46085.02	3.6680	3.6680	1.2894	26.11	0.13	1.500			
0.7239	46326.72	3.6650	3.6650	1.2751	26.10	0.12	1.500			
0.7276	46569.49	3.6620	3.6621	1.2716	26.09	0.11	1.500			
0.7314	46811.43	3.6590	3.6589	1.2698	26.08	0.10	1.500			
0.7353	47056.04	3.6560	3.6560	1.2746	26.07	0.09	1.500			
0.7391	47300.33	3.6530	3.6530	1.2792	26.06	0.08	1.500			
0.7429	47548.02	3.6500	3.6500	1.2807	26.05	0.07	1.500			
0.7468	47795.68	3.6470	3.6470	1.2782	26.04	0.06	1.500			
0.7506	48041.14	3.6440	3.6440	1.2740	26.03	0.05	1.500			
0.7545	48286.34	3.6410	3.6410	1.2644	26.02	0.04	1.500			
0.7583	48528.64	3.6380	3.6380	1.2548	26.01	0.03	1.500			
0.7620	48767.83	3.6350	3.6350	1.2476	26.01	0.03	1.500			
0.7657	49005.50	3.6320	3.6320	1.2414	26.00	0.02	1.500			
0.7694	49243.50	3.6290	3.6290	1.2363	25.99	0.01	1.500			
0.7731	49479.68	3.6260	3.6260	1.2296	25.99	0.01	1.500			
0.7768	49716.28	3.6230	3.6230	1.2205	25.98	-0.00	1.500			
0.7805	49950.85	3.6200	3.6200	1.2120	25.97	-0.01	1.500			
0.7841	50183.69	3.6170	3.6170	1.1957	25.97	-0.01	1.500			
0.7877	50411.84	3.6140	3.6140	1.1770	25.96	-0.02	1.500			
0.7912	50636.61	3.6110	3.6110	1.1568	25.96	-0.02	1.500			
0.7946	50857.41	3.6080	3.6080	1.1350	25.95	-0.03	1.500			
0.7980	51072.76	3.6050	3.6050	1.1128	25.95	-0.03	1.500			
0.8013	51284.07	3.6020	3.6020	1.0918	25.95	-0.03	1.500			
0.8045	51490.97	3.5990	3.5990	1.0676	25.94	-0.04	1.500			
0.8077	51694.73	3.5960	3.5960	1.0430	25.94	-0.04	1.500			
0.8109	51894.62	3.5930	3.5930	1.0136	25.95	-0.03	1.500			
0.8139	52090.06	3.5900	3.5900	0.9672	25.95	-0.03	1.500			
0.8168	52276.72	3.5870	3.5869	0.9129	25.96	-0.02	1.500			
0.8196	52451.98	3.5840	3.5841	0.8394	25.96	-0.02	1.500			
0.8220	52606.96	3.5810	3.5810	0.7504	25.97	-0.01	1.500			
0.8241	52743.64	3.5780	3.5781	0.6570	25.97	-0.01	1.500			
0.8259	52858.46	3.5750	3.5749	0.5591	25.97	-0.01	1.500			
0.8274	52952.50	3.5720	3.5721	0.4673	25.97	-0.01	1.500			
0.8286	53031.09	3.5690	3.5689	0.3947	25.98	-0.00	1.500			
0.8296	53095.76	3.5660	3.5660	0.3360	25.98	-0.00	1.500			
0.8305	53152.53	3.5630	3.5629	0.2914	25.98	-0.00	1.500			
0.8313	53200.17	3.5600	3.5600	0.2522	25.98	0.00	1.500			
0.8320	53245.39	3.5570	3.5569	0.2245	25.98	0.00	1.500			
0.8326	53283.92	3.5540	3.5541	0.2005	25.98	0.00	1.500			
0.8331	53319.81	3.5510	3.5510	0.1823	25.98	0.00	1.500			
0.8336	53352.66	3.5480	3.5480	0.1639	25.98	0.00	1.500			
0.8341	53382.25	3.5450	3.5450	0.1494	25.99	0.01	1.500			
0.8345	53408.75	3.5420	3.5420	0.1338	25.99	0.01	1.500			
0.8349	53433.24	3.5390	3.5390	0.1194	25.99	0.01	1.500			
0.8352	53454.79	3.5360	3.5359	0.1051	25.99	0.01	1.500			
0.8355	53473.61	3.5330	3.5331	0.0909	25.99	0.01	1.500			
0.8358	53490.02	3.5300	3.5302	0.0767	25.99	0.01	1.500			
0.8360	53503.68	3.5270	3.5271	0.0617	25.99	0.01	1.500			
0.8362	53514.05	3.5240	3.5245	0.0463	25.99	0.01	1.500			
0.8363	53521.44	3.5210	3.5220	0.0308	25.99	0.01	1.500			
