Ah_balance (normalized)	Ah_balance (mAh)	Voltage - fit (V)	Voltage -  interpolate (V)	dQ/dV (1/V)	Temperature (°C)	Temperature - diff (°C)	Current (C)	R_DC 0ms (mOhm)	R_DC 50ms (mOhm)	R_DC 50 ms PEC (mOhm)
0.2867	18346.85	3.9740	3.9740	0.9038	27.10	1.16	1.500			
0.2893	18514.23	3.9710	3.9711	0.8692	27.09	1.15	1.500			
0.2919	18681.26	3.9680	3.9680	0.8670	27.09	1.15	1.500			
0.2945	18845.78	3.9650	3.9650	0.8718	27.09	1.15	1.500			
0.2971	19012.71	3.9620	3.9620	0.8756	27.08	1.14	1.500			
0.2997	19181.52	3.9590	3.9590	0.8774	27.08	1.14	1.500			
0.3024	19351.95	3.9560	3.9560	0.8843	27.07	1.13	1.500			
0.3050	19523.01	3.9530	3.9530	0.8885	27.07	1.13	1.500			
0.3077	19692.04	3.9500	3.9500	0.8887	27.07	1.13	1.500			
0.3104	19862.85	3.9470	3.9470	0.8933	27.06	1.12	1.500			
0.3130	20033.09	3.9440	3.9440	0.8954	27.06	1.12	1.500			
0.3157	20206.32	3.9410	3.9410	0.9044	27.05	1.11	1.500			
0.3184	20380.48	3.9380	3.9380	0.9144	27.05	1.11	1.500			
0.3212	20556.77	3.9350	3.9350	0.9199	27.04	1.10	1.500			
0.3240	20735.09	3.9320	3.9320	0.9240	27.04	1.10	1.500			
0.3268	20914.18	3.9290	3.9290	0.9246	27.03	1.09	1.500			
0.3296	21091.34	3.9260	3.9261	0.9304	27.03	1.09	1.500			
0.3324	21270.46	3.9230	3.9230	0.9325	27.03	1.09	1.500			
0.3351	21448.24	3.9200	3.9200	0.9351	27.02	1.08	1.500			
0.3379	21627.66	3.9170	3.9170	0.9399	27.02	1.08	1.500			
0.3408	21808.10	3.9140	3.9141	0.9501	27.01	1.07	1.500			
0.3436	21991.85	3.9110	3.9109	0.9575	27.01	1.07	1.500			
0.3465	22177.43	3.9080	3.9080	0.9661	27.00	1.06	1.500			
0.3494	22362.13	3.9050	3.9050	0.9720	27.00	1.06	1.500			
0.3524	22551.43	3.9020	3.9020	0.9814	26.99	1.05	1.500			
0.3553	22740.40	3.8990	3.8990	0.9858	26.98	1.04	1.500			
0.3583	22929.69	3.8960	3.8960	0.9881	26.98	1.04	1.500			
0.3612	23117.97	3.8930	3.8931	0.9967	26.97	1.03	1.500			
0.3642	23309.31	3.8900	3.8900	1.0081	26.97	1.03	1.500			
0.3672	23503.60	3.8870	3.8867	1.0164	26.96	1.02	1.500			
0.3703	23699.48	3.8840	3.8841	1.0250	26.95	1.01	1.500			
0.3734	23898.47	3.8810	3.8811	1.0373	26.95	1.01	1.500			
0.3766	24100.66	3.8780	3.8780	1.0506	26.94	1.00	1.500			
0.3797	24302.07	3.8750	3.8750	1.0560	26.94	1.00	1.500			
0.3829	24506.05	3.8720	3.8720	1.0689	26.93	0.99	1.500			
0.3861	24711.82	3.8690	3.8689	1.0816	26.92	0.98	1.500			
0.3894	24921.40	3.8660	3.8661	1.0972	26.92	0.98	1.500			
0.3927	25133.33	3.8630	3.8629	1.1104	26.91	0.97	1.500			
0.3961	25347.27	3.8600	3.8600	1.1224	26.90	0.96	1.500			
0.3994	25564.40	3.8570	3.8570	1.1361	26.90	0.96	1.500			
0.4029	25783.89	3.8540	3.8540	1.1485	26.89	0.95	1.500			
0.4063	26005.33	3.8510	3.8510	1.1648	26.88	0.94	1.500			
0.4098	26228.94	3.8480	3.8481	1.1871	26.88	0.94	1.500			
0.4134	26458.57	3.8450	3.8450	1.2064	26.87	0.93	1.500			
0.4171	26692.73	3.8420	3.8419	1.2290	26.86	0.92	1.500			
0.4208	26931.76	3.8390	3.8391	1.2487	26.85	0.91	1.500			
0.4246	27173.32	3.8360	3.8360	1.2712	26.85	0.91	1.500			
0.4285	27421.20	3.8330	3.8330	1.2915	26.84	0.90	1.500			
0.4323	27667.65	3.8300	3.8300	1.3115	26.83	0.89	1.500			
0.4363	27921.61	3.8270	3.8270	1.3391	26.82	0.88	1.500			
0.4403	28180.41	3.8240	3.8240	1.3731	26.81	0.87	1.500			
0.4445	28446.50	3.8210	3.8210	1.4053	26.81	0.87	1.500			
0.4488	28721.57	3.8180	3.8180	1.4379	26.79	0.85	1.500			
0.4531	29000.36	3.8150	3.8150	1.4653	26.78	0.84	1.500			
0.4575	29283.16	3.8120	3.8120	1.5011	26.77	0.83	1.500			
0.4621	29572.06	3.8090	3.8091	1.5370	26.76	0.82	1.500			
0.4667	29870.48	3.8060	3.8060	1.5756	26.75	0.81	1.500			
0.4715	30175.79	3.8030	3.8029	1.6172	26.74	0.80	1.500			
0.4765	30492.81	3.8000	3.8001	1.6547	26.73	0.79	1.500			
0.4815	30817.29	3.7970	3.7971	1.7000	26.72	0.78	1.500			
0.4867	31147.22	3.7940	3.7940	1.7390	26.70	0.76	1.500			
0.4919	31480.38	3.7910	3.7909	1.7699	26.69	0.75	1.500			
0.4973	31825.09	3.7880	3.7880	1.8148	26.68	0.74	1.500			
0.5028	32178.62	3.7850	3.7850	1.8617	26.67	0.73	1.500			
0.5085	32541.85	3.7820	3.7820	1.9071	26.65	0.71	1.500			
0.5142	32911.05	3.7790	3.7790	1.9401	26.64	0.70	1.500			
0.5201	33287.95	3.7760	3.7762	1.9606	26.62	0.68	1.500			
0.5261	33670.19	3.7730	3.7730	1.9822	26.61	0.67	1.500			
0.5321	34052.29	3.7700	3.7700	2.0073	26.59	0.65	1.500			
0.5380	34434.26	3.7670	3.7671	2.0414	26.57	0.63	1.500			
0.5443	34832.06	3.7640	3.7626	2.0673	26.56	0.62	1.500	0.370	0.461	
0.5506	35236.82	3.7610	3.7610	2.0647	26.54	0.60	1.500			
0.5568	35633.80	3.7580	3.7581	2.0330	26.53	0.59	1.500			
0.5628	36021.01	3.7550	3.7550	2.0020	26.51	0.57	1.500			
0.5688	36400.36	3.7520	3.7520	1.9784	26.50	0.56	1.500			
0.5746	36777.12	3.7490	3.7490	1.9792	26.48	0.54	1.500			
0.5806	37156.68	3.7460	3.7459	1.9751	26.47	0.53	1.500			
0.5865	37534.34	3.7430	3.7430	1.9863	26.45	0.51	1.500			
0.5924	37915.06	3.7400	3.7398	1.9838	26.44	0.50	1.500			
0.5985	38301.17	3.7370	3.7370	2.0031	26.43	0.49	1.500			
0.6044	38682.83	3.7340	3.7340	2.0141	26.41	0.47	1.500			
0.6105	39068.94	3.7310	3.7310	2.0419	26.40	0.46	1.500			
0.6166	39463.07	3.7280	3.7279	2.0792	26.38	0.44	1.500			
0.6230	39869.40	3.7250	3.7251	2.1468	26.37	0.43	1.500			
0.6295	40285.69	3.7220	3.7220	2.2176	26.36	0.42	1.500			
0.6362	40715.74	3.7190	3.7190	2.2839	26.34	0.40	1.500			
0.6432	41165.71	3.7160	3.7160	2.3608	26.33	0.39	1.500			
0.6504	41628.03	3.7130	3.7131	2.4344	26.31	0.37	1.500			
0.6578	42101.60	3.7100	3.7100	2.4969	26.29	0.35	1.500			
0.6653	42581.69	3.7070	3.7069	2.5500	26.27	0.33	1.500			
0.6731	43077.54	3.7040	3.7041	2.6338	26.25	0.31	1.500			
0.6811	43593.58	3.7010	3.7010	2.6681	26.24	0.30	1.500			
0.6892	44108.72	3.6980	3.6980	2.6436	26.23	0.29	1.500			
0.6973	44626.50	3.6950	3.6950	2.5487	26.21	0.27	1.500			
0.7047	45098.94	3.6920	3.6920	2.3901	26.20	0.26	1.500			
0.7116	45542.67	3.6890	3.6890	2.2065	26.19	0.25	1.500			
0.7179	45945.30	3.6860	3.6859	2.0227	26.18	0.24	1.500			
0.7237	46317.09	3.6830	3.6831	1.8662	26.17	0.23	1.500			
0.7289	46651.18	3.6800	3.6800	1.7238	26.16	0.22	1.500			
0.7338	46965.88	3.6770	3.6771	1.6181	26.15	0.21	1.500			
0.7384	47258.89	3.6740	3.6740	1.5093	26.14	0.20	1.500			
0.7429	47542.50	3.6710	3.6709	1.4440	26.13	0.19	1.500			
0.7471	47812.17	3.6680	3.6680	1.3884	26.12	0.18	1.500			
0.7511	48070.89	3.6650	3.6651	1.3374	26.12	0.18	1.500			
0.7550	48319.87	3.6620	3.6620	1.3008	26.11	0.17	1.500			
0.7587	48559.86	3.6590	3.6590	1.2702	26.10	0.16	1.500			
0.7625	48797.61	3.6560	3.6560	1.2589	26.10	0.16	1.500			
0.7663	49040.28	3.6530	3.6529	1.2654	26.09	0.15	1.500			
0.7700	49281.79	3.6500	3.6500	1.2738	26.08	0.14	1.500			
0.7739	49526.85	3.6470	3.6471	1.2842	26.07	0.13	1.500			
0.7778	49776.59	3.6440	3.6439	1.2919	26.07	0.13	1.500			
0.7816	50025.23	3.6410	3.6409	1.2995	26.06	0.12	1.500			
0.7855	50273.76	3.6380	3.6381	1.3060	26.05	0.11	1.500			
0.7895	50526.91	3.6350	3.6350	1.3109	26.04	0.10	1.500			
0.7934	50780.65	3.6320	3.6319	1.3143	26.03	0.09	1.500			
0.7974	51033.76	3.6290	3.6290	1.3086	26.02	0.08	1.500			
0.8013	51283.67	3.6260	3.6261	1.3114	26.01	0.07	1.500			
0.8053	51536.47	3.6230	3.6230	1.3034	26.00	0.06	1.500			
0.8091	51785.20	3.6200	3.6200	1.2998	26.00	0.06	1.500			
0.8130	52032.56	3.6170	3.6170	1.2961	25.99	0.05	1.500			
0.8169	52282.29	3.6140	3.6139	1.2953	25.98	0.04	1.500			
0.8208	52533.15	3.6110	3.6110	1.2899	25.98	0.04	1.500			
0.8247	52781.82	3.6080	3.6080	1.2789	25.97	0.03	1.500			
0.8285	53027.07	3.6050	3.6050	1.2610	25.97	0.03	1.500			
0.8323	53269.45	3.6020	3.6020	1.2504	25.96	0.02	1.500			
0.8360	53504.29	3.5990	3.5990	1.2282	25.96	0.02	1.500			
0.8397	53737.95	3.5960	3.5960	1.2152	25.95	0.01	1.500			
0.8433	53969.78	3.5930	3.5930	1.2016	25.95	0.01	1.500			
0.8469	54198.66	3.5900	3.5900	1.1905	25.95	0.01	1.500			
0.8504	54426.03	3.5870	3.5870	1.1841	25.95	0.01	1.500			
0.8540	54653.18	3.5840	3.5840	1.1724	25.95	0.01	1.500			
0.8575	54879.80	3.5810	3.5809	1.1513	25.94	0.00	1.500			
0.8610	55105.35	3.5780	3.5780	1.1224	25.94	0.00	1.500			
0.8645	55327.35	3.5750	3.5749	1.0478	25.94	0.00	1.500			
0.8677	55532.00	3.5720	3.5720	0.9645	25.94	-0.00	1.500			
0.8705	55710.20	3.5690	3.5692	0.8407	25.94	-0.00	1.500			
0.8728	55860.18	3.5660	3.5661	0.7113	25.94	-0.00	1.500			
0.8747	55978.23	3.5630	3.5631	0.5903	25.94	-0.00	1.500			
0.8761	56071.13	3.5600	3.5599	0.4771	25.94	-0.00	1.500			
0.8772	56143.68	3.5570	3.5571	0.3868	25.94	-0.00	1.500			
0.8783	56210.07	3.5540	3.5539	0.3238	25.94	-0.00	1.500			
0.8791	56262.97	3.5510	3.5510	0.2776	25.94	-0.00	1.500			
0.8799	56310.53	3.5480	3.5479	0.2449	25.93	-0.01	1.500			
0.8805	56350.99	3.5450	3.5451	0.2152	25.93	-0.01	1.500			
0.8811	56389.76	3.5420	3.5419	0.1938	25.93	-0.01	1.500			
0.8816	56424.20	3.5390	3.5390	0.1759	25.93	-0.01	1.500			
0.8821	56455.79	3.5360	3.5360	0.1602	25.93	-0.01	1.500			
0.8826	56484.60	3.5330	3.5330	0.1441	25.93	-0.01	1.500			
0.8830	56510.83	3.5300	3.5300	0.1299	25.93	-0.01	1.500			
0.8833	56534.25	3.5270	3.5270	0.1155	25.93	-0.01	1.500			
0.8837	56555.02	3.5240	3.5240	0.1014	25.93	-0.01	1.500			
0.8840	56573.30	3.5210	3.5211	0.0876	25.93	-0.01	1.500			
0.8842	56588.77	3.5180	3.5182	0.0735	25.93	-0.01	1.500			
0.8844	56601.71	3.5150	3.5153	0.0587	25.93	-0.01	1.500			
0.8846	56611.57	3.5120	3.5126	0.0440	25.93	-0.01	1.500			
