Ah_balance (normalized)	Ah_balance (mAh)	Voltage - fit (V)	Voltage -  interpolate (V)	dQ/dV (1/V)	Temperature (°C)	Temperature - diff (°C)	Current (C)	R_DC 0ms (mOhm)	R_DC 50ms (mOhm)	R_DC 50 ms PEC (mOhm)
0.2764	17687.17	3.9880	3.9881	0.8683	27.10	1.17	1.500			
0.2789	17852.59	3.9850	3.9850	0.8574	27.09	1.16	1.500			
0.2815	18014.30	3.9820	3.9821	0.8504	27.08	1.15	1.500			
0.2840	18177.35	3.9790	3.9789	0.8513	27.08	1.15	1.500			
0.2866	18339.47	3.9760	3.9761	0.8497	27.07	1.14	1.500			
0.2891	18503.09	3.9730	3.9729	0.8541	27.07	1.14	1.500			
0.2917	18668.00	3.9700	3.9701	0.8575	27.06	1.13	1.500			
0.2943	18833.73	3.9670	3.9670	0.8597	27.05	1.12	1.500			
0.2969	18999.16	3.9640	3.9640	0.8599	27.05	1.12	1.500			
0.2994	19162.28	3.9610	3.9610	0.8690	27.04	1.11	1.500			
0.3020	19329.05	3.9580	3.9580	0.8730	27.04	1.11	1.500			
0.3047	19498.60	3.9550	3.9549	0.8758	27.03	1.10	1.500			
0.3073	19667.21	3.9520	3.9521	0.8803	27.03	1.10	1.500			
0.3099	19836.23	3.9490	3.9491	0.8871	27.02	1.09	1.500			
0.3126	20007.63	3.9460	3.9460	0.8877	27.02	1.09	1.500			
0.3153	20178.84	3.9430	3.9429	0.8864	27.01	1.08	1.500			
0.3179	20346.75	3.9400	3.9400	0.8884	27.00	1.07	1.500			
0.3206	20517.44	3.9370	3.9371	0.8988	27.00	1.07	1.500			
0.3233	20690.57	3.9340	3.9340	0.9049	26.99	1.06	1.500			
0.3260	20864.95	3.9310	3.9310	0.9070	26.99	1.06	1.500			
0.3287	21039.82	3.9280	3.9280	0.9127	26.98	1.05	1.500			
0.3315	21217.25	3.9250	3.9251	0.9217	26.98	1.05	1.500			
0.3343	21394.73	3.9220	3.9220	0.9252	26.97	1.04	1.500			
0.3371	21571.47	3.9190	3.9190	0.9273	26.97	1.04	1.500			
0.3398	21750.24	3.9160	3.9160	0.9293	26.96	1.03	1.500			
0.3426	21928.53	3.9130	3.9131	0.9388	26.96	1.03	1.500			
0.3455	22109.58	3.9100	3.9100	0.9457	26.95	1.02	1.500			
0.3483	22290.61	3.9070	3.9069	0.9528	26.94	1.01	1.500			
0.3512	22474.63	3.9040	3.9040	0.9585	26.94	1.01	1.500			
0.3541	22659.42	3.9010	3.9010	0.9699	26.93	1.00	1.500			
0.3570	22847.35	3.8980	3.8980	0.9787	26.92	0.99	1.500			
0.3600	23036.81	3.8950	3.8950	0.9877	26.91	0.98	1.500			
0.3629	23225.86	3.8920	3.8921	0.9934	26.90	0.97	1.500			
0.3659	23418.07	3.8890	3.8890	1.0030	26.90	0.97	1.500			
0.3689	23610.98	3.8860	3.8860	1.0091	26.89	0.96	1.500			
0.3720	23805.17	3.8830	3.8830	1.0212	26.88	0.95	1.500			
0.3750	24000.79	3.8800	3.8801	1.0306	26.87	0.94	1.500			
0.3781	24200.28	3.8770	3.8768	1.0421	26.86	0.93	1.500			
0.3813	24400.85	3.8740	3.8741	1.0536	26.85	0.92	1.500			
0.3844	24604.51	3.8710	3.8710	1.0659	26.84	0.91	1.500			
0.3877	24811.59	3.8680	3.8680	1.0771	26.84	0.91	1.500			
0.3909	25019.05	3.8650	3.8649	1.0883	26.83	0.90	1.500			
0.3942	25225.65	3.8620	3.8621	1.0996	26.82	0.89	1.500			
0.3975	25438.42	3.8590	3.8590	1.1151	26.81	0.88	1.500			
0.4008	25653.99	3.8560	3.8560	1.1317	26.80	0.87	1.500			
0.4043	25873.11	3.8530	3.8530	1.1454	26.79	0.86	1.500			
0.4077	26094.63	3.8500	3.8499	1.1615	26.78	0.85	1.500			
0.4113	26320.27	3.8470	3.8471	1.1767	26.77	0.84	1.500			
0.4148	26545.97	3.8440	3.8440	1.1950	26.76	0.83	1.500			
0.4184	26775.08	3.8410	3.8410	1.2155	26.76	0.83	1.500			
0.4221	27011.50	3.8380	3.8380	1.2409	26.75	0.82	1.500			
0.4258	27251.17	3.8350	3.8350	1.2623	26.74	0.81	1.500			
0.4296	27497.22	3.8320	3.8320	1.2821	26.73	0.80	1.500			
0.4335	27745.77	3.8290	3.8290	1.3038	26.71	0.78	1.500			
0.4374	27996.11	3.8260	3.8260	1.3355	26.70	0.77	1.500			
0.4415	28254.86	3.8230	3.8230	1.3563	26.69	0.76	1.500			
0.4456	28517.42	3.8200	3.8199	1.3823	26.67	0.74	1.500			
0.4498	28787.39	3.8170	3.8171	1.4033	26.66	0.73	1.500			
0.4541	29060.96	3.8140	3.8139	1.4266	26.65	0.72	1.500			
0.4584	29336.15	3.8110	3.8110	1.4564	26.63	0.70	1.500			
0.4627	29615.19	3.8080	3.8080	1.4751	26.62	0.69	1.500			
0.4672	29898.30	3.8050	3.8050	1.5058	26.61	0.68	1.500			
0.4717	30189.87	3.8020	3.8021	1.5394	26.59	0.66	1.500			
0.4764	30489.53	3.7990	3.7990	1.5780	26.58	0.65	1.500			
0.4812	30797.16	3.7960	3.7960	1.6143	26.56	0.63	1.500			
0.4861	31110.38	3.7930	3.7930	1.6514	26.55	0.62	1.500			
0.4912	31434.26	3.7900	3.7900	1.6835	26.53	0.60	1.500			
0.4963	31760.62	3.7870	3.7870	1.6973	26.51	0.58	1.500			
0.5014	32087.93	3.7840	3.7841	1.7221	26.50	0.57	1.500			
0.5065	32416.68	3.7810	3.7810	1.7513	26.48	0.55	1.500			
0.5118	32756.39	3.7780	3.7779	1.7667	26.46	0.53	1.500			
0.5172	33099.29	3.7750	3.7750	1.7866	26.45	0.52	1.500	0.350	0.470	
0.5226	33446.73	3.7720	3.7721	1.7901	26.43	0.50	1.500			
0.5280	33793.18	3.7690	3.7690	1.7878	26.41	0.48	1.500			
0.5333	34128.25	3.7660	3.7660	1.7549	26.40	0.47	1.500			
0.5385	34465.14	3.7630	3.7630	1.7672	26.38	0.45	1.500			
0.5438	34804.38	3.7600	3.7600	1.7733	26.37	0.44	1.500			
0.5491	35144.93	3.7570	3.7569	1.7890	26.35	0.42	1.500			
0.5546	35491.42	3.7540	3.7541	1.8000	26.34	0.41	1.500			
0.5600	35839.85	3.7510	3.7510	1.7891	26.32	0.39	1.500			
0.5653	36180.96	3.7480	3.7481	1.8073	26.31	0.38	1.500			
0.5707	36525.01	3.7450	3.7450	1.8282	26.29	0.36	1.500			
0.5762	36877.70	3.7420	3.7419	1.8590	26.28	0.35	1.500			
0.5818	37237.61	3.7390	3.7391	1.8925	26.26	0.33	1.500			
0.5876	37608.46	3.7360	3.7360	1.9272	26.25	0.32	1.500			
0.5934	37976.36	3.7330	3.7330	1.9719	26.24	0.31	1.500			
0.5994	38358.58	3.7300	3.7299	2.0161	26.22	0.29	1.500			
0.6055	38750.40	3.7270	3.7270	2.0736	26.21	0.28	1.500			
0.6118	39155.90	3.7240	3.7240	2.1268	26.20	0.27	1.500			
0.6183	39570.05	3.7210	3.7210	2.1670	26.18	0.25	1.500			
0.6248	39986.15	3.7180	3.7178	2.2540	26.17	0.24	1.500			
0.6317	40430.36	3.7150	3.7150	2.3320	26.16	0.23	1.500			
0.6389	40889.63	3.7120	3.7120	2.3893	26.14	0.21	1.500			
0.6460	41343.72	3.7090	3.7090	2.4131	26.13	0.20	1.500			
0.6533	41808.39	3.7060	3.7060	2.4556	26.12	0.19	1.500			
0.6609	42295.14	3.7030	3.7030	2.4083	26.10	0.17	1.500			
0.6681	42755.26	3.7000	3.7000	2.3144	26.09	0.16	1.500			
0.6748	43185.17	3.6970	3.6968	2.1588	26.08	0.15	1.500			
0.6810	43584.00	3.6940	3.6940	2.0001	26.07	0.14	1.500			
0.6867	43949.80	3.6910	3.6910	1.8540	26.07	0.14	1.500			
0.6920	44288.80	3.6880	3.6880	1.7260	26.06	0.13	1.500			
0.6969	44601.91	3.6850	3.6850	1.6154	26.05	0.12	1.500			
0.7016	44899.88	3.6820	3.6821	1.5329	26.05	0.12	1.500			
0.7060	45185.60	3.6790	3.6790	1.4626	26.04	0.11	1.500			
0.7103	45458.39	3.6760	3.6760	1.3979	26.04	0.11	1.500			
0.7143	45717.15	3.6730	3.6731	1.3383	26.03	0.10	1.500			
0.7182	45966.70	3.6700	3.6700	1.3002	26.03	0.10	1.500			
0.7220	46210.05	3.6670	3.6670	1.2740	26.02	0.09	1.500			
0.7257	46447.33	3.6640	3.6640	1.2647	26.02	0.09	1.500			
0.7295	46687.60	3.6610	3.6610	1.2595	26.01	0.08	1.500			
0.7333	46930.16	3.6580	3.6580	1.2656	26.00	0.07	1.500			
0.7371	47174.64	3.6550	3.6550	1.2751	26.00	0.07	1.500			
0.7409	47419.82	3.6520	3.6520	1.2783	25.99	0.06	1.500			
0.7448	47666.56	3.6490	3.6490	1.2834	25.98	0.05	1.500			
0.7487	47913.82	3.6460	3.6459	1.2826	25.97	0.04	1.500			
0.7525	48160.57	3.6430	3.6430	1.2790	25.97	0.04	1.500			
0.7564	48407.45	3.6400	3.6400	1.2749	25.96	0.03	1.500			
0.7602	48650.53	3.6370	3.6370	1.2659	25.95	0.02	1.500			
0.7639	48892.56	3.6340	3.6340	1.2568	25.95	0.02	1.500			
0.7677	49132.42	3.6310	3.6310	1.2536	25.94	0.01	1.500			
0.7714	49370.69	3.6280	3.6280	1.2497	25.94	0.01	1.500			
0.7752	49611.13	3.6250	3.6248	1.2468	25.93	-0.00	1.500			
0.7789	49851.05	3.6220	3.6220	1.2436	25.93	-0.00	1.500			
0.7827	50090.42	3.6190	3.6190	1.2363	25.92	-0.01	1.500			
0.7864	50329.15	3.6160	3.6160	1.2269	25.92	-0.01	1.500			
0.7901	50563.47	3.6130	3.6130	1.2096	25.92	-0.01	1.500			
0.7937	50794.82	3.6100	3.6100	1.1966	25.92	-0.01	1.500			
0.7972	51023.43	3.6070	3.6071	1.1832	25.91	-0.02	1.500			
0.8008	51249.47	3.6040	3.6040	1.1667	25.91	-0.02	1.500			
0.8043	51472.46	3.6010	3.6010	1.1419	25.91	-0.02	1.500			
0.8077	51690.78	3.5980	3.5980	1.1222	25.92	-0.01	1.500			
0.8110	51903.14	3.5950	3.5951	1.1004	25.92	-0.01	1.500			
0.8143	52113.15	3.5920	3.5920	1.0771	25.92	-0.01	1.500			
0.8175	52318.51	3.5890	3.5889	1.0447	25.92	-0.01	1.500			
0.8206	52518.51	3.5860	3.5860	1.0057	25.93	-0.00	1.500			
0.8237	52715.72	3.5830	3.5830	0.9482	25.93	-0.00	1.500			
0.8265	52895.62	3.5800	3.5800	0.8731	25.93	0.00	1.500			
0.8291	53061.23	3.5770	3.5770	0.7796	25.93	0.00	1.500			
0.8313	53201.82	3.5740	3.5740	0.6746	25.93	0.00	1.500			
0.8331	53318.86	3.5710	3.5710	0.5732	25.94	0.01	1.500			
0.8346	53416.13	3.5680	3.5680	0.4782	25.94	0.01	1.500			
0.8358	53493.49	3.5650	3.5649	0.3973	25.94	0.01	1.500			
0.8369	53559.20	3.5620	3.5619	0.3398	25.94	0.01	1.500			
0.8377	53614.00	3.5590	3.5590	0.2890	25.94	0.01	1.500			
0.8385	53664.06	3.5560	3.5560	0.2559	25.94	0.01	1.500			
0.8392	53708.35	3.5530	3.5530	0.2245	25.94	0.01	1.500			
0.8398	53748.03	3.5500	3.5500	0.2031	25.94	0.01	1.500			
0.8404	53783.08	3.5470	3.5470	0.1827	25.94	0.01	1.500			
0.8409	53816.17	3.5440	3.5439	0.1657	25.94	0.01	1.500			
0.8414	53846.47	3.5410	3.5410	0.1511	25.94	0.01	1.500			
0.8418	53873.62	3.5380	3.5380	0.1360	25.94	0.01	1.500			
0.8422	53898.52	3.5350	3.5350	0.1219	25.94	0.01	1.500			
0.8425	53920.69	3.5320	3.5321	0.1081	25.94	0.01	1.500			
0.8428	53940.05	3.5290	3.5289	0.0936	25.94	0.01	1.500			
0.8431	53956.51	3.5260	3.5261	0.0791	25.94	0.01	1.500			
0.8433	53970.14	3.5230	3.5234	0.0648	25.94	0.01	1.500			
0.8435	53981.25	3.5200	3.5207	0.0509	25.94	0.01	1.500			
0.8436	53989.68	3.5170	3.5181	0.0370	25.94	0.01	1.500			
