Ah_balance (normalized)	Ah_balance (mAh)	Voltage - fit (V)	Voltage -  interpolate (V)	dQ/dV (1/V)	Temperature (°C)	Temperature - diff (°C)	Current (C)	R_DC 0ms (mOhm)	R_DC 50ms (mOhm)	R_DC 50 ms PEC (mOhm)
0.2790	17854.88	3.9710	3.9710	0.8951	27.07	1.11	1.500			
0.2816	18025.50	3.9680	3.9681	0.8860	27.06	1.10	1.500			
0.2843	18194.56	3.9650	3.9650	0.8825	27.06	1.10	1.500			
0.2869	18362.31	3.9620	3.9620	0.8871	27.06	1.10	1.500			
0.2896	18532.11	3.9590	3.9590	0.8908	27.06	1.10	1.500			
0.2922	18702.55	3.9560	3.9560	0.9005	27.05	1.09	1.500			
0.2950	18877.63	3.9530	3.9530	0.9084	27.05	1.09	1.500			
0.2977	19053.79	3.9500	3.9500	0.9105	27.05	1.09	1.500			
0.3005	19230.29	3.9470	3.9470	0.9109	27.04	1.08	1.500			
0.3032	19404.39	3.9440	3.9441	0.9144	27.04	1.08	1.500			
0.3059	19579.10	3.9410	3.9410	0.9129	27.04	1.08	1.500			
0.3087	19755.08	3.9380	3.9379	0.9194	27.03	1.07	1.500			
0.3114	19931.02	3.9350	3.9350	0.9192	27.03	1.07	1.500			
0.3142	20108.48	3.9320	3.9320	0.9282	27.03	1.07	1.500			
0.3170	20286.62	3.9290	3.9291	0.9366	27.02	1.06	1.500			
0.3198	20467.03	3.9260	3.9259	0.9433	27.02	1.06	1.500			
0.3226	20648.08	3.9230	3.9229	0.9470	27.02	1.06	1.500			
0.3255	20831.42	3.9200	3.9200	0.9529	27.01	1.05	1.500			
0.3283	21013.87	3.9170	3.9171	0.9598	27.01	1.05	1.500			
0.3313	21200.10	3.9140	3.9140	0.9683	27.01	1.05	1.500			
0.3341	21384.96	3.9110	3.9111	0.9722	27.00	1.04	1.500			
0.3371	21571.72	3.9080	3.9080	0.9837	27.00	1.04	1.500			
0.3400	21762.00	3.9050	3.9051	0.9958	26.99	1.03	1.500			
0.3431	21955.84	3.9020	3.9020	0.9999	26.99	1.03	1.500			
0.3461	22149.21	3.8990	3.8990	1.0064	26.99	1.03	1.500			
0.3491	22341.82	3.8960	3.8961	1.0092	26.98	1.02	1.500			
0.3521	22535.47	3.8930	3.8929	1.0157	26.98	1.02	1.500			
0.3552	22730.32	3.8900	3.8900	1.0225	26.98	1.02	1.500			
0.3582	22926.34	3.8870	3.8870	1.0317	26.97	1.01	1.500			
0.3613	23124.89	3.8840	3.8840	1.0464	26.97	1.01	1.500			
0.3645	23327.72	3.8810	3.8810	1.0636	26.97	1.01	1.500			
0.3677	23532.51	3.8780	3.8779	1.0747	26.96	1.00	1.500			
0.3709	23740.22	3.8750	3.8750	1.0909	26.96	1.00	1.500			
0.3742	23951.40	3.8720	3.8720	1.1052	26.95	0.99	1.500			
0.3776	24166.68	3.8690	3.8689	1.1129	26.94	0.98	1.500			
0.3810	24381.25	3.8660	3.8660	1.1268	26.93	0.97	1.500			
0.3844	24598.53	3.8630	3.8631	1.1372	26.92	0.96	1.500			
0.3877	24816.00	3.8600	3.8600	1.1533	26.91	0.95	1.500			
0.3912	25039.59	3.8570	3.8570	1.1684	26.91	0.95	1.500			
0.3947	25263.93	3.8540	3.8540	1.1793	26.90	0.94	1.500			
0.3983	25492.23	3.8510	3.8510	1.1964	26.89	0.93	1.500			
0.4020	25725.51	3.8480	3.8481	1.2162	26.89	0.93	1.500			
0.4056	25958.56	3.8450	3.8449	1.2281	26.88	0.92	1.500			
0.4093	26195.49	3.8420	3.8421	1.2506	26.88	0.92	1.500			
0.4131	26435.92	3.8390	3.8390	1.2717	26.87	0.91	1.500			
0.4169	26681.64	3.8360	3.8359	1.3023	26.86	0.90	1.500			
0.4209	26934.73	3.8330	3.8331	1.3291	26.86	0.90	1.500			
0.4249	27191.41	3.8300	3.8300	1.3567	26.85	0.89	1.500			
0.4290	27457.11	3.8270	3.8270	1.3765	26.84	0.88	1.500			
0.4332	27722.75	3.8240	3.8241	1.4102	26.83	0.87	1.500			
0.4374	27994.97	3.8210	3.8210	1.4376	26.82	0.86	1.500			
0.4418	28272.39	3.8180	3.8181	1.4688	26.81	0.85	1.500			
0.4462	28555.87	3.8150	3.8150	1.5096	26.80	0.84	1.500			
0.4508	28850.18	3.8120	3.8121	1.5503	26.79	0.83	1.500			
0.4555	29153.28	3.8090	3.8089	1.5846	26.78	0.82	1.500			
0.4604	29463.99	3.8060	3.8060	1.6267	26.77	0.81	1.500			
0.4652	29775.87	3.8030	3.8031	1.6562	26.76	0.80	1.500			
0.4703	30097.77	3.8000	3.7999	1.7004	26.75	0.79	1.500			
0.4754	30427.07	3.7970	3.7970	1.7289	26.73	0.77	1.500			
0.4806	30759.51	3.7940	3.7940	1.7813	26.72	0.76	1.500			
0.4860	31106.39	3.7910	3.7911	1.8491	26.70	0.74	1.500			
0.4917	31466.78	3.7880	3.7879	1.9113	26.69	0.73	1.500			
0.4975	31837.48	3.7850	3.7850	1.9669	26.67	0.71	1.500			
0.5035	32226.94	3.7820	3.7821	1.9941	26.66	0.70	1.500			
0.5096	32612.19	3.7790	3.7791	2.0477	26.64	0.68	1.500			
0.5158	33009.13	3.7760	3.7761	2.0966	26.63	0.67	1.500			
0.5221	33414.71	3.7730	3.7731	2.1526	26.61	0.65	1.500			
0.5287	33836.42	3.7700	3.7701	2.1906	26.59	0.63	1.500			
0.5355	34272.90	3.7670	3.7670	2.2420	26.57	0.61	1.500			
0.5421	34696.05	3.7640	3.7640	2.2593	26.55	0.59	1.500			
0.5489	35130.74	3.7610	3.7609	2.2980	26.52	0.56	1.500	0.364	0.449	
0.5559	35578.12	3.7580	3.7581	2.2823	26.50	0.54	1.500			
0.5628	36021.93	3.7550	3.7551	2.2768	26.48	0.52	1.500			
0.5696	36453.69	3.7520	3.7518	2.2239	26.46	0.50	1.500			
0.5762	36875.00	3.7490	3.7490	2.1738	26.44	0.48	1.500			
0.5826	37283.78	3.7460	3.7460	2.1598	26.43	0.47	1.500			
0.5890	37696.06	3.7430	3.7430	2.1362	26.41	0.45	1.500			
0.5954	38106.48	3.7400	3.7400	2.1243	26.39	0.43	1.500			
0.6019	38518.83	3.7370	3.7369	2.1199	26.37	0.41	1.500			
0.6081	38921.18	3.7340	3.7340	2.1398	26.35	0.39	1.500			
0.6145	39327.09	3.7310	3.7311	2.1534	26.33	0.37	1.500			
0.6211	39749.39	3.7280	3.7280	2.1966	26.32	0.36	1.500			
0.6277	40174.55	3.7250	3.7250	2.2035	26.31	0.35	1.500			
0.6344	40603.46	3.7220	3.7221	2.2840	26.30	0.34	1.500			
0.6413	41040.17	3.7190	3.7189	2.3164	26.28	0.32	1.500			
0.6483	41494.36	3.7160	3.7160	2.3659	26.27	0.31	1.500			
0.6556	41956.40	3.7130	3.7130	2.4430	26.25	0.29	1.500			
0.6630	42430.21	3.7100	3.7101	2.5460	26.23	0.27	1.500			
0.6708	42928.30	3.7070	3.7069	2.6614	26.22	0.26	1.500			
0.6790	43454.07	3.7040	3.7041	2.7534	26.20	0.24	1.500			
0.6875	43999.67	3.7010	3.7010	2.8159	26.18	0.22	1.500			
0.6960	44546.33	3.6980	3.6980	2.8426	26.16	0.20	1.500			
0.7047	45100.46	3.6950	3.6950	2.7686	26.14	0.18	1.500			
0.7130	45633.33	3.6920	3.6921	2.6890	26.13	0.17	1.500			
0.7209	46139.67	3.6890	3.6889	2.5390	26.12	0.16	1.500			
0.7284	46617.00	3.6860	3.6861	2.3258	26.11	0.15	1.500			
0.7350	47041.41	3.6830	3.6831	2.1470	26.10	0.14	1.500			
0.7410	47424.79	3.6800	3.6800	1.9264	26.09	0.13	1.500			
0.7463	47765.51	3.6770	3.6771	1.7482	26.09	0.13	1.500			
0.7514	48091.29	3.6740	3.6740	1.6453	26.08	0.12	1.500			
0.7562	48394.26	3.6710	3.6710	1.5479	26.08	0.12	1.500			
0.7606	48678.71	3.6680	3.6679	1.4584	26.07	0.11	1.500			
0.7648	48949.80	3.6650	3.6651	1.3884	26.06	0.10	1.500			
0.7688	49204.69	3.6620	3.6620	1.3263	26.06	0.10	1.500			
0.7727	49451.73	3.6590	3.6590	1.2813	26.05	0.09	1.500			
0.7764	49688.55	3.6560	3.6560	1.2581	26.05	0.09	1.500			
0.7800	49921.06	3.6530	3.6530	1.2424	26.04	0.08	1.500			
0.7837	50155.00	3.6500	3.6500	1.2456	26.04	0.08	1.500			
0.7874	50394.79	3.6470	3.6470	1.2571	26.03	0.07	1.500			
0.7912	50637.28	3.6440	3.6440	1.2749	26.02	0.06	1.500			
0.7951	50884.65	3.6410	3.6410	1.2968	26.02	0.06	1.500			
0.7990	51138.98	3.6380	3.6380	1.3060	26.01	0.05	1.500			
0.8030	51390.83	3.6350	3.6350	1.3120	26.01	0.05	1.500			
0.8069	51643.56	3.6320	3.6320	1.3116	26.00	0.04	1.500			
0.8109	51894.59	3.6290	3.6291	1.3138	25.99	0.03	1.500			
0.8148	52146.40	3.6260	3.6260	1.3153	25.99	0.03	1.500			
0.8187	52397.46	3.6230	3.6228	1.3150	25.98	0.02	1.500			
0.8227	52650.12	3.6200	3.6200	1.3164	25.97	0.01	1.500			
0.8266	52905.43	3.6170	3.6171	1.3200	25.97	0.01	1.500			
0.8306	53159.71	3.6140	3.6140	1.3215	25.96	0.00	1.500			
0.8346	53413.13	3.6110	3.6110	1.3168	25.95	-0.01	1.500			
0.8385	53666.78	3.6080	3.6080	1.3142	25.95	-0.01	1.500			
0.8425	53920.18	3.6050	3.6050	1.3100	25.94	-0.02	1.500			
0.8465	54173.43	3.6020	3.6020	1.2988	25.94	-0.02	1.500			
0.8504	54422.70	3.5990	3.5991	1.2826	25.94	-0.02	1.500			
0.8542	54667.34	3.5960	3.5960	1.2699	25.94	-0.02	1.500			
0.8579	54907.34	3.5930	3.5930	1.2518	25.94	-0.02	1.500			
0.8616	55144.47	3.5900	3.5900	1.2376	25.94	-0.02	1.500			
0.8653	55379.26	3.5870	3.5870	1.2346	25.94	-0.02	1.500			
0.8690	55616.78	3.5840	3.5840	1.2324	25.94	-0.02	1.500			
0.8727	55853.32	3.5810	3.5810	1.2347	25.94	-0.02	1.500			
0.8764	56091.10	3.5780	3.5780	1.2352	25.95	-0.01	1.500			
0.8802	56334.02	3.5750	3.5749	1.2134	25.95	-0.01	1.500			
0.8840	56574.73	3.5720	3.5719	1.1738	25.95	-0.01	1.500			
0.8876	56807.25	3.5690	3.5690	1.1033	25.96	-0.00	1.500			
0.8909	57018.05	3.5660	3.5661	0.9771	25.96	-0.00	1.500			
0.8938	57203.49	3.5630	3.5631	0.8467	25.96	-0.00	1.500			
0.8960	57345.56	3.5600	3.5600	0.6965	25.96	0.00	1.500			
0.8978	57456.00	3.5570	3.5570	0.5473	25.96	0.00	1.500			
0.8991	57539.46	3.5540	3.5540	0.4443	25.96	0.00	1.500			
0.9001	57609.03	3.5510	3.5510	0.3671	25.97	0.01	1.500			
0.9011	57667.58	3.5480	3.5479	0.2974	25.97	0.01	1.500			
0.9018	57717.16	3.5450	3.5449	0.2566	25.97	0.01	1.500			
0.9025	57759.18	3.5420	3.5419	0.2230	25.97	0.01	1.500			
0.9031	57797.41	3.5390	3.5391	0.1991	25.97	0.01	1.500			
0.9036	57832.54	3.5360	3.5360	0.1774	25.97	0.01	1.500			
0.9041	57864.14	3.5330	3.5329	0.1599	25.97	0.01	1.500			
0.9046	57893.18	3.5300	3.5300	0.1440	25.97	0.01	1.500			
0.9050	57919.13	3.5270	3.5270	0.1285	25.97	0.01	1.500			
0.9053	57942.38	3.5240	3.5241	0.1137	25.97	0.01	1.500			
0.9057	57962.90	3.5210	3.5209	0.0990	25.97	0.01	1.500			
0.9059	57980.35	3.5180	3.5181	0.0840	25.97	0.01	1.500			
0.9062	57995.05	3.5150	3.5153	0.0692	25.97	0.01	1.500			
0.9064	58006.92	3.5120	3.5124	0.0545	25.97	0.01	1.500			
0.9065	58015.96	3.5090	3.5100	0.0397	25.97	0.01	1.500			
