Ah_balance (normalized)	Ah_balance (mAh)	Voltage - fit (V)	Voltage -  interpolate (V)	dQ/dV (1/V)	Temperature (°C)	Temperature - diff (°C)	Current (C)	R_DC 0ms (mOhm)	R_DC 50ms (mOhm)	R_DC 50 ms PEC (mOhm)
0.2009	12857.88	3.9260	3.9257	-0.0917	25.57	-0.01	-1.500			
0.2012	12878.39	3.9230	3.9230	-0.1220	25.57	-0.01	-1.500			
0.2016	12905.38	3.9200	3.9200	-0.1516	25.57	-0.01	-1.500			
0.2021	12937.22	3.9170	3.9170	-0.1799	25.57	-0.01	-1.500			
0.2027	12974.63	3.9140	3.9139	-0.2072	25.57	-0.01	-1.500			
0.2034	13017.48	3.9110	3.9111	-0.2323	25.57	-0.01	-1.500			
0.2041	13065.10	3.9080	3.9081	-0.2590	25.57	-0.01	-1.500			
0.2050	13117.44	3.9050	3.9050	-0.2824	25.57	-0.01	-1.500			
0.2058	13173.75	3.9020	3.9021	-0.3069	25.57	-0.01	-1.500			
0.2068	13235.08	3.8990	3.8990	-0.3302	25.58	-0.00	-1.500			
0.2078	13300.17	3.8960	3.8960	-0.3539	25.58	-0.00	-1.500			
0.2089	13370.78	3.8930	3.8931	-0.3777	25.58	-0.00	-1.500			
0.2101	13445.49	3.8900	3.8900	-0.4025	25.58	-0.00	-1.500			
0.2113	13525.28	3.8870	3.8870	-0.4261	25.58	-0.00	-1.500			
0.2127	13610.16	3.8840	3.8841	-0.4502	25.58	0.00	-1.500			
0.2140	13699.00	3.8810	3.8810	-0.4708	25.58	0.00	-1.500			
0.2155	13791.78	3.8780	3.8780	-0.4920	25.58	0.00	-1.500			
0.2170	13888.04	3.8750	3.8751	-0.5101	25.58	0.00	-1.500			
0.2186	13989.07	3.8720	3.8720	-0.5275	25.58	0.00	-1.500			
0.2202	14091.84	3.8690	3.8689	-0.5415	25.59	0.01	-1.500			
0.2218	14197.00	3.8660	3.8661	-0.5574	25.59	0.01	-1.500			
0.2235	14305.06	3.8630	3.8631	-0.5725	25.59	0.01	-1.500			
0.2253	14417.72	3.8600	3.8599	-0.5858	25.59	0.01	-1.500			
0.2270	14531.06	3.8570	3.8570	-0.5978	25.59	0.01	-1.500			
0.2289	14647.76	3.8540	3.8540	-0.6074	25.59	0.01	-1.500			
0.2307	14765.61	3.8510	3.8510	-0.6168	25.59	0.01	-1.500			
0.2326	14885.31	3.8480	3.8480	-0.6248	25.60	0.02	-1.500			
0.2345	15005.85	3.8450	3.8450	-0.6293	25.60	0.02	-1.500			
0.2364	15126.81	3.8420	3.8420	-0.6365	25.60	0.02	-1.500			
0.2383	15250.29	3.8390	3.8390	-0.6437	25.60	0.02	-1.500			
0.2402	15374.06	3.8360	3.8360	-0.6497	25.60	0.02	-1.500			
0.2422	15501.05	3.8330	3.8330	-0.6536	25.61	0.03	-1.500			
0.2442	15626.22	3.8300	3.8300	-0.6563	25.61	0.03	-1.500			
0.2461	15752.93	3.8270	3.8270	-0.6584	25.61	0.03	-1.500			
0.2481	15879.06	3.8240	3.8241	-0.6634	25.62	0.04	-1.500			
0.2501	16006.37	3.8210	3.8209	-0.6644	25.62	0.04	-1.500			
0.2521	16134.88	3.8180	3.8181	-0.6668	25.62	0.04	-1.500			
0.2541	16263.22	3.8150	3.8150	-0.6680	25.63	0.05	-1.500			
0.2561	16393.03	3.8120	3.8121	-0.6742	25.63	0.05	-1.500			
0.2582	16522.12	3.8090	3.8090	-0.6713	25.63	0.05	-1.500			
0.2602	16650.80	3.8060	3.8060	-0.6710	25.64	0.06	-1.500			
0.2622	16778.82	3.8030	3.8031	-0.6691	25.64	0.06	-1.500			
0.2642	16907.86	3.8000	3.8000	-0.6713	25.65	0.07	-1.500			
0.2662	17036.08	3.7970	3.7970	-0.6725	25.65	0.07	-1.500			
0.2682	17165.29	3.7940	3.7940	-0.6715	25.66	0.08	-1.500			
0.2702	17293.25	3.7910	3.7910	-0.6728	25.66	0.08	-1.500			
0.2722	17423.40	3.7880	3.7880	-0.6785	25.67	0.09	-1.500			
0.2743	17554.13	3.7850	3.7849	-0.6796	25.68	0.10	-1.500			
0.2763	17685.20	3.7820	3.7820	-0.6808	25.68	0.10	-1.500			
0.2784	17815.89	3.7790	3.7791	-0.6830	25.69	0.11	-1.500			
0.2804	17947.42	3.7760	3.7760	-0.6835	25.70	0.12	-1.500			
0.2825	18079.83	3.7730	3.7730	-0.6855	25.70	0.12	-1.500			
0.2845	18210.46	3.7700	3.7700	-0.6827	25.71	0.13	-1.500			
0.2866	18341.31	3.7670	3.7670	-0.6843	25.72	0.14	-1.500			
0.2886	18473.27	3.7640	3.7641	-0.6891	25.72	0.14	-1.500			
0.2907	18605.15	3.7610	3.7609	-0.6906	25.73	0.15	-1.500			
0.2928	18737.40	3.7580	3.7580	-0.6918	25.74	0.16	-1.500			
0.2949	18871.02	3.7550	3.7550	-0.6956	25.74	0.16	-1.500			
0.2970	19004.84	3.7520	3.7520	-0.6966	25.75	0.17	-1.500			
0.2991	19139.53	3.7490	3.7491	-0.6999	25.76	0.18	-1.500			
0.3011	19273.09	3.7460	3.7460	-0.7035	25.76	0.18	-1.500			
0.3033	19408.19	3.7430	3.7430	-0.7060	25.77	0.19	-1.500			
0.3054	19544.99	3.7400	3.7399	-0.7110	25.78	0.20	-1.500			
0.3075	19681.30	3.7370	3.7370	-0.7164	25.78	0.20	-1.500			
0.3097	19819.61	3.7340	3.7340	-0.7195	25.79	0.21	-1.500			
0.3119	19958.65	3.7310	3.7310	-0.7259	25.80	0.22	-1.500			
0.3140	20098.02	3.7280	3.7279	-0.7293	25.80	0.22	-1.500			
0.3162	20237.68	3.7250	3.7250	-0.7341	25.81	0.23	-1.500			
0.3184	20379.61	3.7220	3.7221	-0.7426	25.82	0.24	-1.500			
0.3207	20522.97	3.7190	3.7190	-0.7474	25.83	0.25	-1.500			
0.3229	20666.74	3.7160	3.7161	-0.7526	25.83	0.25	-1.500			
0.3252	20811.87	3.7130	3.7130	-0.7623	25.84	0.26	-1.500			
0.3275	20958.48	3.7100	3.7100	-0.7682	25.85	0.27	-1.500			
0.3298	21107.06	3.7070	3.7070	-0.7765	25.86	0.28	-1.500			
0.3321	21255.94	3.7040	3.7040	-0.7874	25.86	0.28	-1.500			
0.3345	21408.13	3.7010	3.7010	-0.7969	25.87	0.29	-1.500			
0.3369	21562.86	3.6980	3.6980	-0.8070	25.88	0.30	-1.500			
0.3394	21718.77	3.6950	3.6949	-0.8151	25.88	0.30	-1.500			
0.3418	21876.30	3.6920	3.6920	-0.8219	25.89	0.31	-1.500			
0.3443	22034.81	3.6890	3.6891	-0.8327	25.90	0.32	-1.500			
0.3468	22194.90	3.6860	3.6860	-0.8405	25.90	0.32	-1.500			
0.3493	22356.23	3.6830	3.6830	-0.8479	25.91	0.33	-1.500			
0.3519	22520.46	3.6800	3.6800	-0.8620	25.91	0.33	-1.500			
0.3545	22686.33	3.6770	3.6771	-0.8772	25.92	0.34	-1.500			
0.3571	22855.55	3.6740	3.6740	-0.8931	25.93	0.35	-1.500			
0.3598	23029.69	3.6710	3.6710	-0.9075	25.93	0.35	-1.500			
0.3626	23205.48	3.6680	3.6681	-0.9165	25.94	0.36	-1.500			
0.3654	23382.95	3.6650	3.6650	-0.9318	25.94	0.36	-1.500			
0.3682	23562.86	3.6620	3.6622	-0.9435	25.95	0.37	-1.500			
0.3710	23744.48	3.6590	3.6589	-0.9516	25.95	0.37	-1.500			
0.3739	23927.97	3.6560	3.6560	-0.9621	25.96	0.38	-1.500			
0.3768	24113.18	3.6530	3.6531	-0.9753	25.96	0.38	-1.500			
0.3797	24300.99	3.6500	3.6501	-0.9958	25.97	0.39	-1.500			
0.3827	24493.63	3.6470	3.6469	-1.0127	25.97	0.39	-1.500			
0.3858	24688.56	3.6440	3.6440	-1.0270	25.98	0.40	-1.500			
0.3889	24888.98	3.6410	3.6410	-1.0468	25.98	0.40	-1.500			
0.3921	25094.28	3.6380	3.6380	-1.0639	25.99	0.41	-1.500			
0.3953	25300.00	3.6350	3.6350	-1.0739	25.99	0.41	-1.500			
0.3985	25506.03	3.6320	3.6319	-1.0830	25.99	0.41	-1.500			
0.4018	25713.69	3.6290	3.6290	-1.0987	26.00	0.42	-1.500			
0.4051	25925.63	3.6260	3.6260	-1.1127	26.00	0.42	-1.500			
0.4084	26139.85	3.6230	3.6230	-1.1294	26.01	0.43	-1.500			
0.4119	26358.76	3.6200	3.6200	-1.1509	26.01	0.43	-1.500			
0.4153	26581.70	3.6170	3.6170	-1.1721	26.01	0.43	-1.500			
0.4189	26808.30	3.6140	3.6139	-1.1915	26.02	0.44	-1.500			
0.4225	27039.84	3.6110	3.6110	-1.2076	26.02	0.44	-1.500			
0.4261	27273.18	3.6080	3.6080	-1.2242	26.03	0.45	-1.500			
0.4299	27512.77	3.6050	3.6050	-1.2474	26.03	0.45	-1.500			
0.4337	27754.60	3.6020	3.6020	-1.2580	26.04	0.46	-1.500			
0.4374	27995.67	3.5990	3.5990	-1.2729	26.04	0.46	-1.500			
0.4413	28242.27	3.5960	3.5960	-1.2846	26.04	0.46	-1.500			
0.4452	28489.98	3.5930	3.5930	-1.2998	26.05	0.47	-1.500			
0.4491	28739.32	3.5900	3.5900	-1.3286	26.05	0.47	-1.500			
0.4531	28995.81	3.5870	3.5870	-1.3490	26.05	0.47	-1.500			
0.4572	29258.37	3.5840	3.5839	-1.3661	26.06	0.48	-1.500			
0.4613	29524.23	3.5810	3.5810	-1.3861	26.06	0.48	-1.500			
0.4655	29794.06	3.5780	3.5780	-1.3991	26.06	0.48	-1.500			
0.4698	30065.61	3.5750	3.5750	-1.4119	26.07	0.49	-1.500			
0.4740	30333.85	3.5720	3.5720	-1.4338	26.07	0.49	-1.500			
0.4783	30608.17	3.5690	3.5690	-1.4474	26.07	0.49	-1.500			
0.4827	30891.85	3.5660	3.5659	-1.4689	26.08	0.50	-1.500			
0.4871	31175.47	3.5630	3.5631	-1.4921	26.08	0.50	-1.500			
0.4916	31463.83	3.5600	3.5601	-1.5172	26.09	0.51	-1.500			
0.4962	31756.39	3.5570	3.5570	-1.5470	26.09	0.51	-1.500			
0.5009	32057.18	3.5540	3.5539	-1.5509	26.10	0.52	-1.500			
0.5056	32356.01	3.5510	3.5511	-1.5580	26.11	0.53	-1.500			
0.5103	32659.58	3.5480	3.5480	-1.5815	26.12	0.54	-1.500			
0.5151	32964.62	3.5450	3.5450	-1.5848	26.12	0.54	-1.500			
0.5198	33266.58	3.5420	3.5419	-1.5976	26.13	0.55	-1.500			
0.5246	33573.57	3.5390	3.5391	-1.6208	26.13	0.55	-1.500			
0.5295	33887.22	3.5360	3.5360	-1.6516	26.13	0.55	-1.500			
0.5345	34208.08	3.5330	3.5330	-1.6593	26.14	0.56	-1.500			
0.5395	34529.34	3.5300	3.5305	-1.6761	26.14	0.56	-1.500	0.386	0.531	
0.5446	34851.51	3.5270	3.5270	-1.6850	26.15	0.57	-1.500			
0.5497	35180.48	3.5240	3.5240	-1.7049	26.16	0.58	-1.500			
0.5548	35506.05	3.5210	3.5209	-1.7093	26.17	0.59	-1.500			
0.5600	35838.13	3.5180	3.5180	-1.7122	26.18	0.60	-1.500			
0.5651	36166.78	3.5150	3.5151	-1.7171	26.18	0.60	-1.500			
0.5703	36498.44	3.5120	3.5119	-1.7255	26.19	0.61	-1.500			
0.5754	36827.71	3.5090	3.5090	-1.7293	26.20	0.62	-1.500			
0.5806	37161.23	3.5060	3.5059	-1.7260	26.21	0.63	-1.500			
0.5859	37496.34	3.5030	3.5030	-1.7406	26.22	0.64	-1.500			
0.5911	37829.65	3.5000	3.5000	-1.7392	26.23	0.65	-1.500			
0.5963	38165.75	3.4970	3.4970	-1.7423	26.24	0.66	-1.500			
0.6015	38496.11	3.4940	3.4939	-1.7356	26.25	0.67	-1.500			
0.6067	38831.46	3.4910	3.4910	-1.7319	26.27	0.69	-1.500			
0.6119	39164.46	3.4880	3.4880	-1.7273	26.28	0.70	-1.500			
0.6171	39495.96	3.4850	3.4850	-1.7176	26.29	0.71	-1.500			
0.6222	39823.89	3.4820	3.4820	-1.7051	26.30	0.72	-1.500			
0.6274	40152.21	3.4790	3.4790	-1.6841	26.30	0.72	-1.500			
0.6324	40473.32	3.4760	3.4760	-1.6751	26.31	0.73	-1.500			
0.6374	40793.87	3.4730	3.4731	-1.6580	26.32	0.74	-1.500			
0.6424	41111.70	3.4700	3.4699	-1.6460	26.33	0.75	-1.500			
0.6473	41425.17	3.4670	3.4671	-1.6315	26.35	0.77	-1.500			
0.6522	41738.03	3.4640	3.4641	-1.6141	26.36	0.78	-1.500			
0.6570	42047.18	3.4610	3.4609	-1.6040	26.37	0.79	-1.500			
0.6618	42356.44	3.4580	3.4580	-1.5814	26.39	0.81	-1.500			
0.6665	42656.30	3.4550	3.4550	-1.5537	26.40	0.82	-1.500			
0.6711	42951.29	3.4520	3.4521	-1.5346	26.42	0.84	-1.500			
0.6757	43244.43	3.4490	3.4490	-1.5098	26.43	0.85	-1.500			
0.6802	43531.35	3.4460	3.4460	-1.4891	26.45	0.87	-1.500			
0.6846	43815.78	3.4430	3.4430	-1.4711	26.46	0.88	-1.500			
0.6890	44096.00	3.4400	3.4400	-1.4450	26.48	0.90	-1.500			
0.6933	44373.48	3.4370	3.4370	-1.4328	26.49	0.91	-1.500			
0.6976	44643.48	3.4340	3.4340	-1.4164	26.51	0.93	-1.500			
0.7018	44913.88	3.4310	3.4310	-1.3939	26.52	0.94	-1.500			
0.7060	45181.26	3.4280	3.4279	-1.3762	26.54	0.96	-1.500			
0.7100	45442.56	3.4250	3.4250	-1.3603	26.55	0.97	-1.500			
0.7141	45701.74	3.4220	3.4220	-1.3496	26.57	0.99	-1.500			
0.7181	45959.87	3.4190	3.4189	-1.3427	26.59	1.01	-1.500			
0.7221	46216.58	3.4160	3.4160	-1.3206	26.61	1.03	-1.500			
0.7261	46469.39	3.4130	3.4129	-1.3034	26.62	1.04	-1.500			
0.7300	46722.81	3.4100	3.4100	-1.2837	26.64	1.06	-1.500			
0.7339	46968.30	3.4070	3.4072	-1.2535	26.66	1.08	-1.500			
0.7376	47204.60	3.4040	3.4042	-1.2171	26.67	1.09	-1.500			
0.7412	47434.51	3.4010	3.4009	-1.1798	26.69	1.11	-1.500			
0.7447	47657.62	3.3980	3.3981	-1.1440	26.70	1.12	-1.500			
0.7480	47874.21	3.3950	3.3950	-1.1147	26.72	1.14	-1.500			
0.7513	48085.71	3.3920	3.3920	-1.0816	26.73	1.15	-1.500			
0.7545	48289.80	3.3890	3.3889	-1.0447	26.75	1.17	-1.500			
0.7576	48486.29	3.3860	3.3860	-1.0068	26.76	1.18	-1.500			
0.7606	48676.56	3.3830	3.3831	-0.9663	26.77	1.19	-1.500			
0.7634	48858.31	3.3800	3.3800	-0.9336	26.78	1.20	-1.500			
0.7662	49033.69	3.3770	3.3769	-0.8990	26.80	1.22	-1.500			
0.7688	49200.33	3.3740	3.3740	-0.8644	26.81	1.23	-1.500			
0.7713	49363.65	3.3710	3.3710	-0.8410	26.82	1.24	-1.500			
0.7738	49522.36	3.3680	3.3680	-0.8136	26.83	1.25	-1.500			
0.7762	49676.70	3.3650	3.3650	-0.7877	26.84	1.26	-1.500			
0.7785	49826.43	3.3620	3.3620	-0.7602	26.85	1.27	-1.500			
0.7808	49968.19	3.3590	3.3590	-0.7342	26.86	1.28	-1.500			
0.7829	50106.23	3.3560	3.3561	-0.7109	26.87	1.29	-1.500			
0.7850	50240.39	3.3530	3.3529	-0.6866	26.88	1.30	-1.500			
0.7870	50369.03	3.3500	3.3500	-0.6624	26.89	1.31	-1.500			
0.7890	50494.37	3.3470	3.3470	-0.6451	26.90	1.32	-1.500			
0.7909	50616.15	3.3440	3.3440	-0.6260	26.90	1.32	-1.500			
0.7927	50734.20	3.3410	3.3409	-0.6086	26.91	1.33	-1.500			
0.7945	50847.67	3.3380	3.3380	-0.5884	26.92	1.34	-1.500			
0.7962	50960.00	3.3350	3.3350	-0.5731	26.93	1.35	-1.500			
0.7980	51069.22	3.3320	3.3320	-0.5572	26.93	1.35	-1.500			
0.7996	51173.90	3.3290	3.3291	-0.5417	26.94	1.36	-1.500			
0.8012	51275.91	3.3260	3.3260	-0.5257	26.95	1.37	-1.500			
0.8027	51375.81	3.3230	3.3230	-0.5110	26.95	1.37	-1.500			
0.8043	51472.19	3.3200	3.3200	-0.4972	26.96	1.38	-1.500			
0.8057	51566.37	3.3170	3.3171	-0.4832	26.97	1.39	-1.500			
0.8071	51657.59	3.3140	3.3140	-0.4705	26.97	1.39	-1.500			
0.8085	51746.10	3.3110	3.3110	-0.4590	26.98	1.40	-1.500			
0.8099	51832.60	3.3080	3.3079	-0.4470	26.98	1.40	-1.500			
0.8112	51917.57	3.3050	3.3050	-0.4358	26.99	1.41	-1.500			
0.8125	52000.09	3.3020	3.3021	-0.4260	27.00	1.42	-1.500			
0.8138	52081.50	3.2990	3.2990	-0.4144	27.01	1.43	-1.500			
0.8150	52160.21	3.2960	3.2960	-0.4047	27.01	1.43	-1.500			
0.8162	52236.19	3.2930	3.2930	-0.3930	27.02	1.44	-1.500			
0.8173	52309.95	3.2900	3.2900	-0.3830	27.03	1.45	-1.500			
0.8185	52382.70	3.2870	3.2870	-0.3754	27.03	1.45	-1.500			
0.8196	52454.34	3.2840	3.2840	-0.3663	27.04	1.46	-1.500			
0.8207	52523.06	3.2810	3.2810	-0.3586	27.04	1.46	-1.500			
0.8217	52591.67	3.2780	3.2780	-0.3508	27.05	1.47	-1.500			
0.8228	52657.85	3.2750	3.2750	-0.3434	27.06	1.48	-1.500			
0.8238	52723.28	3.2720	3.2720	-0.3372	27.06	1.48	-1.500			
0.8248	52787.38	3.2690	3.2690	-0.3286	27.07	1.49	-1.500			
0.8258	52849.91	3.2660	3.2660	-0.3214	27.07	1.49	-1.500			
0.8267	52911.13	3.2630	3.2631	-0.3152	27.08	1.50	-1.500			
0.8277	52970.30	3.2600	3.2600	-0.3077	27.08	1.50	-1.500			
0.8286	53028.74	3.2570	3.2569	-0.3027	27.09	1.51	-1.500			
0.8295	53085.97	3.2540	3.2540	-0.2959	27.09	1.51	-1.500			
0.8304	53142.54	3.2510	3.2510	-0.2890	27.10	1.52	-1.500			
0.8312	53197.64	3.2480	3.2480	-0.2833	27.10	1.52	-1.500			
0.8320	53251.11	3.2450	3.2451	-0.2781	27.11	1.53	-1.500			
0.8329	53303.74	3.2420	3.2420	-0.2730	27.12	1.54	-1.500			
0.8337	53355.30	3.2390	3.2389	-0.2679	27.12	1.54	-1.500			
0.8345	53406.12	3.2360	3.2361	-0.2645	27.13	1.55	-1.500			
0.8353	53456.69	3.2330	3.2330	-0.2620	27.13	1.55	-1.500			
0.8360	53507.01	3.2300	3.2299	-0.2587	27.14	1.56	-1.500			
0.8368	53556.65	3.2270	3.2269	-0.2534	27.14	1.56	-1.500			
0.8376	53604.78	3.2240	3.2241	-0.2486	27.15	1.57	-1.500			
0.8383	53651.80	3.2210	3.2211	-0.2447	27.16	1.58	-1.500			
0.8390	53698.61	3.2180	3.2181	-0.2408	27.16	1.58	-1.500			
0.8398	53744.22	3.2150	3.2149	-0.2368	27.17	1.59	-1.500			
0.8405	53788.95	3.2120	3.2120	-0.2330	27.17	1.59	-1.500			
0.8411	53833.20	3.2090	3.2091	-0.2298	27.18	1.60	-1.500			
0.8418	53877.08	3.2060	3.2060	-0.2273	27.18	1.60	-1.500			
0.8425	53920.96	3.2030	3.2029	-0.2250	27.19	1.61	-1.500			
0.8432	53963.37	3.2000	3.2000	-0.2220	27.19	1.61	-1.500			
0.8438	54005.68	3.1970	3.1970	-0.2187	27.20	1.62	-1.500			
0.8445	54047.44	3.1940	3.1940	-0.2163	27.20	1.62	-1.500			
0.8451	54088.98	3.1910	3.1909	-0.2135	27.21	1.63	-1.500			
0.8458	54129.61	3.1880	3.1880	-0.2109	27.21	1.63	-1.500			
0.8464	54169.93	3.1850	3.1850	-0.2082	27.22	1.64	-1.500			
0.8470	54209.63	3.1820	3.1821	-0.2053	27.22	1.64	-1.500			
0.8476	54248.60	3.1790	3.1790	-0.2034	27.23	1.65	-1.500			
0.8482	54286.98	3.1760	3.1760	-0.2011	27.23	1.65	-1.500			
0.8488	54325.91	3.1730	3.1729	-0.1992	27.24	1.66	-1.500			
0.8494	54363.93	3.1700	3.1700	-0.1970	27.24	1.66	-1.500			
0.8500	54401.66	3.1670	3.1670	-0.1949	27.25	1.67	-1.500			
0.8506	54438.53	3.1640	3.1641	-0.1936	27.25	1.67	-1.500			
0.8512	54475.83	3.1610	3.1608	-0.1917	27.26	1.68	-1.500			
0.8518	54512.54	3.1580	3.1580	-0.1893	27.26	1.68	-1.500			
0.8523	54548.48	3.1550	3.1549	-0.1867	27.27	1.69	-1.500			
0.8529	54584.11	3.1520	3.1522	-0.1852	27.27	1.69	-1.500			
0.8534	54619.67	3.1490	3.1490	-0.1840	27.28	1.70	-1.500			
0.8540	54654.58	3.1460	3.1459	-0.1815	27.28	1.70	-1.500			
0.8545	54689.19	3.1430	3.1429	-0.1804	27.29	1.71	-1.500			
0.8551	54723.30	3.1400	3.1400	-0.1785	27.29	1.71	-1.500			
0.8556	54757.88	3.1370	3.1369	-0.1780	27.30	1.72	-1.500			
0.8561	54791.93	3.1340	3.1340	-0.1766	27.30	1.72	-1.500			
0.8567	54825.76	3.1310	3.1311	-0.1759	27.31	1.73	-1.500			
0.8572	54859.44	3.1280	3.1280	-0.1738	27.31	1.73	-1.500			
0.8577	54892.72	3.1250	3.1251	-0.1723	27.32	1.74	-1.500			
0.8582	54925.64	3.1220	3.1219	-0.1706	27.32	1.74	-1.500			
0.8587	54958.19	3.1190	3.1191	-0.1692	27.33	1.75	-1.500			
0.8592	54990.63	3.1160	3.1159	-0.1676	27.33	1.75	-1.500			
0.8597	55022.42	3.1130	3.1130	-0.1662	27.34	1.76	-1.500			
0.8602	55054.24	3.1100	3.1100	-0.1650	27.34	1.76	-1.500			
0.8607	55085.57	3.1070	3.1070	-0.1636	27.34	1.76	-1.500			
0.8612	55117.15	3.1040	3.1039	-0.1626	27.35	1.77	-1.500			
0.8617	55148.26	3.1010	3.1010	-0.1609	27.36	1.78	-1.500			
0.8622	55178.82	3.0980	3.0980	-0.1601	27.36	1.78	-1.500			
0.8626	55209.38	3.0950	3.0950	-0.1591	27.37	1.79	-1.500			
0.8631	55239.94	3.0920	3.0920	-0.1576	27.38	1.80	-1.500			
0.8636	55269.89	3.0890	3.0889	-0.1562	27.38	1.80	-1.500			
0.8641	55299.87	3.0860	3.0861	-0.1555	27.39	1.81	-1.500			
0.8645	55329.63	3.0830	3.0831	-0.1545	27.39	1.81	-1.500			
0.8650	55359.14	3.0800	3.0799	-0.1543	27.40	1.82	-1.500			
0.8655	55388.90	3.0770	3.0770	-0.1529	27.41	1.83	-1.500			
0.8659	55417.99	3.0740	3.0739	-0.1514	27.41	1.83	-1.500			
0.8664	55446.97	3.0710	3.0711	-0.1505	27.42	1.84	-1.500			
0.8668	55475.98	3.0680	3.0681	-0.1501	27.42	1.84	-1.500			
0.8673	55504.69	3.0650	3.0649	-0.1488	27.43	1.85	-1.500			
0.8677	55532.95	3.0620	3.0620	-0.1479	27.43	1.85	-1.500			
0.8681	55561.29	3.0590	3.0589	-0.1473	27.44	1.86	-1.500			
0.8686	55589.40	3.0560	3.0561	-0.1457	27.44	1.86	-1.500			
0.8690	55617.54	3.0530	3.0529	-0.1455	27.45	1.87	-1.500			
0.8695	55645.20	3.0500	3.0500	-0.1444	27.45	1.87	-1.500			
0.8699	55672.85	3.0470	3.0471	-0.1436	27.46	1.88	-1.500			
0.8703	55700.24	3.0440	3.0439	-0.1425	27.46	1.88	-1.500			
0.8707	55727.76	3.0410	3.0412	-0.1416	27.47	1.89	-1.500			
0.8712	55754.78	3.0380	3.0378	-0.1404	27.47	1.89	-1.500			
0.8716	55781.66	3.0350	3.0350	-0.1392	27.48	1.90	-1.500			
0.8720	55808.36	3.0320	3.0321	-0.1388	27.48	1.90	-1.500			
0.8724	55834.56	3.0290	3.0290	-0.1376	27.49	1.91	-1.500			
0.8728	55860.95	3.0260	3.0259	-0.1372	27.49	1.91	-1.500			
0.8732	55886.98	3.0230	3.0230	-0.1371	27.50	1.92	-1.500			
0.8737	55913.74	3.0200	3.0200	-0.1360	27.50	1.92	-1.500			
0.8741	55940.07	3.0170	3.0170	-0.1356	27.51	1.93	-1.500			
0.8745	55965.95	3.0140	3.0140	-0.1339	27.51	1.93	-1.500			
0.8749	55991.78	3.0110	3.0111	-0.1324	27.52	1.94	-1.500			
0.8753	56017.06	3.0080	3.0080	-0.1301	27.52	1.94	-1.500			
0.8757	56041.76	3.0050	3.0049	-0.1278	27.53	1.95	-1.500			
0.8760	56066.08	3.0020	3.0020	-0.1256	27.53	1.95	-1.500			
