Ah_balance (normalized)	Ah_balance (mAh)	Voltage - fit (V)	Voltage -  interpolate (V)	dQ/dV (1/V)	Temperature (°C)	Temperature - diff (°C)	Current (C)	R_DC 0ms (mOhm)	R_DC 50ms (mOhm)	R_DC 50 ms PEC (mOhm)
0.2702	17291.91	3.9900	3.9900	0.8467	27.39	1.42	1.500			
0.2727	17455.01	3.9870	3.9870	0.8478	27.38	1.41	1.500			
0.2753	17616.13	3.9840	3.9840	0.8452	27.38	1.41	1.500			
0.2778	17778.84	3.9810	3.9810	0.8455	27.37	1.40	1.500			
0.2803	17940.66	3.9780	3.9780	0.8482	27.36	1.39	1.500			
0.2829	18104.13	3.9750	3.9750	0.8519	27.36	1.39	1.500			
0.2854	18267.02	3.9720	3.9720	0.8541	27.35	1.38	1.500			
0.2880	18430.69	3.9690	3.9691	0.8600	27.35	1.38	1.500			
0.2906	18596.38	3.9660	3.9660	0.8669	27.34	1.37	1.500			
0.2932	18763.14	3.9630	3.9629	0.8740	27.33	1.36	1.500			
0.2958	18932.79	3.9600	3.9600	0.8765	27.33	1.36	1.500			
0.2985	19101.97	3.9570	3.9570	0.8742	27.32	1.35	1.500			
0.3011	19271.29	3.9540	3.9541	0.8762	27.31	1.34	1.500			
0.3037	19437.57	3.9510	3.9510	0.8824	27.31	1.34	1.500			
0.3063	19605.01	3.9480	3.9480	0.8851	27.30	1.33	1.500			
0.3090	19775.55	3.9450	3.9449	0.8922	27.30	1.33	1.500			
0.3117	19947.39	3.9420	3.9420	0.8977	27.29	1.32	1.500			
0.3144	20122.95	3.9390	3.9390	0.9018	27.28	1.31	1.500			
0.3172	20298.43	3.9360	3.9360	0.9072	27.28	1.31	1.500			
0.3198	20470.39	3.9330	3.9331	0.9074	27.27	1.30	1.500			
0.3226	20643.99	3.9300	3.9300	0.9062	27.26	1.29	1.500			
0.3253	20816.91	3.9270	3.9269	0.9125	27.26	1.29	1.500			
0.3280	20992.84	3.9240	3.9240	0.9201	27.25	1.28	1.500			
0.3308	21169.91	3.9210	3.9211	0.9313	27.24	1.27	1.500			
0.3336	21349.76	3.9180	3.9180	0.9419	27.24	1.27	1.500			
0.3364	21532.51	3.9150	3.9150	0.9478	27.23	1.26	1.500			
0.3393	21716.17	3.9120	3.9120	0.9539	27.22	1.25	1.500			
0.3422	21900.88	3.9090	3.9090	0.9589	27.21	1.24	1.500			
0.3450	22082.95	3.9060	3.9061	0.9642	27.20	1.23	1.500			
0.3479	22268.14	3.9030	3.9030	0.9684	27.20	1.23	1.500			
0.3508	22453.50	3.9000	3.8999	0.9749	27.19	1.22	1.500			
0.3538	22640.78	3.8970	3.8970	0.9840	27.18	1.21	1.500			
0.3567	22831.52	3.8940	3.8939	0.9953	27.17	1.20	1.500			
0.3598	23025.23	3.8910	3.8910	1.0053	27.16	1.19	1.500			
0.3628	23218.66	3.8880	3.8880	1.0151	27.15	1.18	1.500			
0.3658	23412.75	3.8850	3.8850	1.0186	27.15	1.18	1.500			
0.3689	23610.87	3.8820	3.8820	1.0306	27.14	1.17	1.500			
0.3720	23808.30	3.8790	3.8789	1.0373	27.13	1.16	1.500			
0.3751	24007.29	3.8760	3.8760	1.0502	27.12	1.15	1.500			
0.3783	24209.81	3.8730	3.8730	1.0619	27.11	1.14	1.500			
0.3815	24414.76	3.8700	3.8700	1.0751	27.10	1.13	1.500			
0.3847	24621.90	3.8670	3.8670	1.0878	27.09	1.12	1.500			
0.3880	24833.55	3.8640	3.8640	1.1039	27.08	1.11	1.500			
0.3913	25046.14	3.8610	3.8610	1.1207	27.07	1.10	1.500			
0.3947	25263.54	3.8580	3.8580	1.1331	27.06	1.09	1.500			
0.3982	25483.23	3.8550	3.8550	1.1403	27.05	1.08	1.500			
0.4016	25703.35	3.8520	3.8520	1.1549	27.04	1.07	1.500			
0.4051	25923.54	3.8490	3.8492	1.1712	27.03	1.06	1.500			
0.4086	26149.91	3.8460	3.8460	1.1863	27.02	1.05	1.500			
0.4122	26379.63	3.8430	3.8429	1.2020	27.00	1.03	1.500			
0.4158	26611.18	3.8400	3.8400	1.2194	26.99	1.02	1.500			
0.4195	26848.63	3.8370	3.8371	1.2442	26.98	1.01	1.500			
0.4233	27090.05	3.8340	3.8340	1.2603	26.96	0.99	1.500			
0.4271	27331.58	3.8310	3.8309	1.2750	26.95	0.98	1.500			
0.4309	27577.48	3.8280	3.8280	1.2973	26.93	0.96	1.500			
0.4348	27830.18	3.8250	3.8250	1.3180	26.92	0.95	1.500			
0.4388	28084.42	3.8220	3.8220	1.3394	26.91	0.94	1.500			
0.4429	28344.88	3.8190	3.8190	1.3550	26.89	0.92	1.500			
0.4470	28605.87	3.8160	3.8160	1.3844	26.88	0.91	1.500			
0.4512	28874.72	3.8130	3.8130	1.4087	26.86	0.89	1.500			
0.4554	29145.89	3.8100	3.8099	1.4335	26.85	0.88	1.500			
0.4598	29424.24	3.8070	3.8071	1.4647	26.83	0.86	1.500			
0.4642	29707.47	3.8040	3.8040	1.5048	26.82	0.85	1.500			
0.4688	30002.26	3.8010	3.8009	1.5173	26.80	0.83	1.500			
0.4733	30293.85	3.7980	3.7981	1.5329	26.79	0.82	1.500			
0.4780	30592.23	3.7950	3.7951	1.5649	26.77	0.80	1.500			
0.4827	30895.32	3.7920	3.7918	1.5793	26.76	0.79	1.500			
0.4874	31195.77	3.7890	3.7890	1.6188	26.74	0.77	1.500			
0.4924	31513.00	3.7860	3.7860	1.6470	26.72	0.75	1.500			
0.4975	31837.45	3.7830	3.7831	1.6813	26.71	0.74	1.500	0.342	0.477	
0.5025	32159.40	3.7800	3.7801	1.6942	26.69	0.72	1.500			
0.5076	32488.03	3.7770	3.7769	1.6978	26.67	0.70	1.500			
0.5127	32813.47	3.7740	3.7740	1.6983	26.65	0.68	1.500			
0.5179	33143.99	3.7710	3.7711	1.6938	26.64	0.67	1.500			
0.5230	33471.08	3.7680	3.7679	1.6954	26.62	0.65	1.500			
0.5280	33790.77	3.7650	3.7651	1.7124	26.60	0.63	1.500			
0.5331	34117.50	3.7620	3.7620	1.7305	26.59	0.62	1.500			
0.5384	34455.02	3.7590	3.7590	1.7439	26.57	0.60	1.500			
0.5437	34798.14	3.7560	3.7560	1.7474	26.55	0.58	1.500			
0.5489	35128.87	3.7530	3.7531	1.7545	26.54	0.57	1.500			
0.5541	35463.11	3.7500	3.7500	1.7676	26.52	0.55	1.500			
0.5594	35803.79	3.7470	3.7470	1.8069	26.50	0.53	1.500			
0.5649	36153.16	3.7440	3.7441	1.8503	26.49	0.52	1.500			
0.5706	36517.53	3.7410	3.7410	1.8899	26.47	0.50	1.500			
0.5763	36884.49	3.7380	3.7380	1.9173	26.45	0.48	1.500			
0.5821	37253.38	3.7350	3.7350	1.9614	26.43	0.46	1.500			
0.5880	37632.41	3.7320	3.7319	2.0121	26.42	0.45	1.500			
0.5941	38021.36	3.7290	3.7290	2.0466	26.40	0.43	1.500			
0.6003	38416.42	3.7260	3.7261	2.1104	26.39	0.42	1.500			
0.6067	38830.06	3.7230	3.7228	2.1692	26.37	0.40	1.500			
0.6133	39253.96	3.7200	3.7201	2.2084	26.36	0.39	1.500			
0.6201	39683.58	3.7170	3.7170	2.2708	26.34	0.37	1.500			
0.6270	40126.20	3.7140	3.7140	2.2983	26.32	0.35	1.500			
0.6340	40575.45	3.7110	3.7110	2.3224	26.31	0.34	1.500			
0.6410	41024.90	3.7080	3.7081	2.2631	26.29	0.32	1.500			
0.6478	41460.34	3.7050	3.7050	2.1627	26.27	0.30	1.500			
0.6541	41864.88	3.7020	3.7020	2.0494	26.26	0.29	1.500			
0.6601	42249.53	3.6990	3.6990	1.9290	26.24	0.27	1.500			
0.6657	42606.43	3.6960	3.6960	1.8070	26.23	0.26	1.500			
0.6710	42942.18	3.6930	3.6930	1.6954	26.22	0.25	1.500			
0.6758	43248.92	3.6900	3.6901	1.5914	26.21	0.24	1.500			
0.6804	43547.21	3.6870	3.6869	1.5152	26.20	0.23	1.500			
0.6848	43827.41	3.6840	3.6840	1.4448	26.19	0.22	1.500			
0.6890	44097.64	3.6810	3.6811	1.3912	26.18	0.21	1.500			
0.6931	44357.09	3.6780	3.6780	1.3465	26.17	0.20	1.500			
0.6970	44606.99	3.6750	3.6750	1.3173	26.16	0.19	1.500			
0.7008	44854.03	3.6720	3.6720	1.2940	26.16	0.19	1.500			
0.7047	45097.86	3.6690	3.6691	1.2895	26.15	0.18	1.500			
0.7085	45344.04	3.6660	3.6660	1.2903	26.14	0.17	1.500			
0.7124	45592.77	3.6630	3.6630	1.2833	26.12	0.15	1.500			
0.7163	45840.20	3.6600	3.6600	1.2799	26.11	0.14	1.500			
0.7201	46086.76	3.6570	3.6571	1.2751	26.10	0.13	1.500			
0.7239	46331.24	3.6540	3.6540	1.2691	26.09	0.12	1.500			
0.7277	46574.44	3.6510	3.6509	1.2621	26.07	0.10	1.500			
0.7315	46815.38	3.6480	3.6479	1.2491	26.06	0.09	1.500			
0.7352	47053.90	3.6450	3.6451	1.2418	26.05	0.08	1.500			
0.7390	47293.00	3.6420	3.6420	1.2378	26.04	0.07	1.500			
0.7426	47529.33	3.6390	3.6389	1.2297	26.04	0.07	1.500			
0.7463	47763.24	3.6360	3.6360	1.2181	26.03	0.06	1.500			
0.7499	47996.72	3.6330	3.6330	1.2124	26.02	0.05	1.500			
0.7536	48229.92	3.6300	3.6300	1.2062	26.01	0.04	1.500			
0.7572	48461.22	3.6270	3.6268	1.2005	26.00	0.03	1.500			
0.7608	48691.30	3.6240	3.6240	1.1851	25.99	0.02	1.500			
0.7643	48918.29	3.6210	3.6209	1.1698	25.99	0.02	1.500			
0.7679	49142.61	3.6180	3.6181	1.1529	25.98	0.01	1.500			
0.7713	49364.31	3.6150	3.6150	1.1264	25.98	0.01	1.500			
0.7747	49577.72	3.6120	3.6120	1.1099	25.97	0.00	1.500			
0.7780	49789.17	3.6090	3.6090	1.0811	25.97	-0.00	1.500			
0.7811	49993.29	3.6060	3.6059	1.0545	25.96	-0.01	1.500			
0.7843	50194.31	3.6030	3.6031	1.0315	25.96	-0.01	1.500			
0.7873	50389.90	3.6000	3.5999	1.0040	25.96	-0.01	1.500			
0.7903	50581.47	3.5970	3.5970	0.9676	25.96	-0.01	1.500			
0.7932	50767.26	3.5940	3.5940	0.9289	25.96	-0.01	1.500			
0.7960	50944.27	3.5910	3.5910	0.8703	25.97	-0.00	1.500			
0.7986	51110.11	3.5880	3.5880	0.8048	25.97	-0.00	1.500			
0.8010	51260.86	3.5850	3.5850	0.7236	25.97	-0.00	1.500			
0.8030	51392.16	3.5820	3.5821	0.6352	25.97	-0.00	1.500			
0.8048	51505.96	3.5790	3.5789	0.5469	25.97	-0.00	1.500			
0.8063	51600.20	3.5760	3.5760	0.4687	25.97	-0.00	1.500			
0.8075	51677.18	3.5730	3.5730	0.3954	25.97	0.00	1.500			
0.8085	51743.62	3.5700	3.5699	0.3411	25.97	0.00	1.500			
0.8094	51800.25	3.5670	3.5670	0.2942	25.97	0.00	1.500			
0.8102	51851.69	3.5640	3.5640	0.2563	25.97	0.00	1.500			
0.8109	51896.31	3.5610	3.5609	0.2286	25.97	0.00	1.500			
0.8115	51935.45	3.5580	3.5579	0.2046	25.97	0.00	1.500			
0.8121	51971.34	3.5550	3.5551	0.1852	25.97	0.00	1.500			
0.8126	52004.91	3.5520	3.5519	0.1675	25.97	0.00	1.500			
0.8130	52034.67	3.5490	3.5490	0.1517	25.97	0.00	1.500			
0.8135	52062.17	3.5460	3.5460	0.1368	25.97	0.00	1.500			
0.8139	52087.03	3.5430	3.5430	0.1217	25.97	0.00	1.500			
0.8142	52109.02	3.5400	3.5401	0.1073	25.97	0.00	1.500			
0.8145	52128.54	3.5370	3.5369	0.0933	25.97	0.00	1.500			
0.8148	52145.11	3.5340	3.5342	0.0786	25.97	0.00	1.500			
0.8150	52158.77	3.5310	3.5312	0.0637	25.97	0.00	1.500			
0.8152	52169.77	3.5280	3.5286	0.0482	25.97	0.00	1.500			
0.8153	52177.54	3.5250	3.5257	0.0328	25.97	0.00	1.500			
