Ah_balance (normalized)	Ah_balance (mAh)	Voltage - fit (V)	Voltage -  interpolate (V)	dQ/dV (1/V)	Temperature (°C)	Temperature - diff (°C)	Current (C)	R_DC 0ms (mOhm)	R_DC 50ms (mOhm)	R_DC 50 ms PEC (mOhm)
0.2817	18030.39	3.9720	3.9720	0.8855	26.92	1.01	1.500			
0.2844	18201.35	3.9690	3.9689	0.8848	26.92	1.01	1.500			
0.2870	18368.17	3.9660	3.9661	0.8776	26.91	1.00	1.500			
0.2896	18535.44	3.9630	3.9630	0.8802	26.91	1.00	1.500			
0.2922	18703.80	3.9600	3.9600	0.8862	26.90	0.99	1.500			
0.2949	18874.27	3.9570	3.9569	0.8873	26.90	0.99	1.500			
0.2976	19045.07	3.9540	3.9540	0.8903	26.89	0.98	1.500			
0.3003	19218.11	3.9510	3.9511	0.8994	26.89	0.98	1.500			
0.3030	19391.32	3.9480	3.9481	0.9022	26.89	0.98	1.500			
0.3057	19564.58	3.9450	3.9450	0.9014	26.88	0.97	1.500			
0.3084	19737.53	3.9420	3.9420	0.9012	26.88	0.97	1.500			
0.3111	19910.63	3.9390	3.9390	0.9061	26.87	0.96	1.500			
0.3138	20085.02	3.9360	3.9361	0.9171	26.87	0.96	1.500			
0.3166	20260.72	3.9330	3.9330	0.9233	26.86	0.95	1.500			
0.3194	20439.12	3.9300	3.9300	0.9275	26.86	0.95	1.500			
0.3222	20618.94	3.9270	3.9270	0.9356	26.86	0.95	1.500			
0.3250	20799.60	3.9240	3.9240	0.9450	26.85	0.94	1.500			
0.3278	20982.07	3.9210	3.9210	0.9469	26.85	0.94	1.500			
0.3307	21163.05	3.9180	3.9180	0.9498	26.84	0.93	1.500			
0.3335	21345.58	3.9150	3.9150	0.9507	26.84	0.93	1.500			
0.3364	21528.53	3.9120	3.9120	0.9593	26.83	0.92	1.500			
0.3393	21713.55	3.9090	3.9090	0.9681	26.83	0.92	1.500			
0.3422	21899.10	3.9060	3.9060	0.9752	26.82	0.91	1.500			
0.3451	22086.21	3.9030	3.9030	0.9860	26.82	0.91	1.500			
0.3481	22278.44	3.9000	3.9000	0.9940	26.81	0.90	1.500			
0.3511	22470.72	3.8970	3.8970	1.0001	26.81	0.90	1.500			
0.3541	22663.66	3.8940	3.8940	1.0104	26.80	0.89	1.500			
0.3572	22858.71	3.8910	3.8912	1.0128	26.79	0.88	1.500			
0.3602	23052.36	3.8880	3.8880	1.0268	26.79	0.88	1.500			
0.3633	23249.79	3.8850	3.8849	1.0363	26.78	0.87	1.500			
0.3664	23450.94	3.8820	3.8820	1.0448	26.78	0.87	1.500			
0.3696	23653.97	3.8790	3.8790	1.0582	26.77	0.86	1.500			
0.3728	23856.74	3.8760	3.8761	1.0669	26.76	0.85	1.500			
0.3760	24061.48	3.8730	3.8730	1.0759	26.76	0.85	1.500			
0.3792	24269.46	3.8700	3.8700	1.0898	26.75	0.84	1.500			
0.3825	24478.02	3.8670	3.8671	1.0981	26.75	0.84	1.500			
0.3858	24692.23	3.8640	3.8640	1.1185	26.74	0.83	1.500			
0.3892	24908.93	3.8610	3.8609	1.1341	26.74	0.83	1.500			
0.3926	25127.35	3.8580	3.8580	1.1509	26.73	0.82	1.500			
0.3961	25349.83	3.8550	3.8551	1.1665	26.73	0.82	1.500			
0.3996	25576.70	3.8520	3.8519	1.1833	26.72	0.81	1.500			
0.4032	25806.02	3.8490	3.8490	1.1970	26.71	0.80	1.500			
0.4068	26036.22	3.8460	3.8460	1.2103	26.70	0.79	1.500			
0.4105	26270.60	3.8430	3.8430	1.2310	26.70	0.79	1.500			
0.4142	26507.24	3.8400	3.8399	1.2505	26.69	0.78	1.500			
0.4179	26748.23	3.8370	3.8370	1.2712	26.68	0.77	1.500			
0.4218	26993.27	3.8340	3.8341	1.3006	26.67	0.76	1.500			
0.4257	27246.16	3.8310	3.8310	1.3263	26.66	0.75	1.500			
0.4298	27505.74	3.8280	3.8279	1.3525	26.65	0.74	1.500			
0.4339	27766.53	3.8250	3.8250	1.3803	26.64	0.73	1.500			
0.4380	28034.00	3.8220	3.8220	1.4077	26.63	0.72	1.500			
0.4423	28306.65	3.8190	3.8190	1.4366	26.62	0.71	1.500			
0.4466	28584.72	3.8160	3.8160	1.4731	26.61	0.70	1.500			
0.4511	28869.63	3.8130	3.8130	1.5007	26.60	0.69	1.500			
0.4557	29161.98	3.8100	3.8100	1.5401	26.59	0.68	1.500			
0.4603	29459.06	3.8070	3.8070	1.5792	26.57	0.66	1.500			
0.4651	29765.75	3.8040	3.8041	1.6234	26.56	0.65	1.500			
0.4700	30082.59	3.8010	3.8010	1.6647	26.55	0.64	1.500			
0.4751	30406.10	3.7980	3.7980	1.7058	26.53	0.62	1.500			
0.4803	30736.46	3.7950	3.7951	1.7536	26.52	0.61	1.500			
0.4856	31081.03	3.7920	3.7920	1.8049	26.50	0.59	1.500			
0.4911	31429.64	3.7890	3.7890	1.8502	26.49	0.58	1.500			
0.4967	31788.37	3.7860	3.7861	1.8968	26.47	0.56	1.500			
0.5025	32160.10	3.7830	3.7830	1.9351	26.45	0.54	1.500			
0.5083	32534.01	3.7800	3.7800	1.9691	26.43	0.52	1.500			
0.5143	32913.05	3.7770	3.7770	2.0135	26.42	0.51	1.500			
0.5204	33305.15	3.7740	3.7740	2.0668	26.40	0.49	1.500			
0.5267	33711.93	3.7710	3.7710	2.0897	26.38	0.47	1.500			
0.5331	34116.09	3.7680	3.7680	2.1356	26.37	0.46	1.500			
0.5395	34525.39	3.7650	3.7651	2.1749	26.35	0.44	1.500			
0.5461	34950.78	3.7620	3.7617	2.1657	26.33	0.42	1.499	0.356	0.454	
0.5527	35372.26	3.7590	3.7590	2.1541	26.31	0.40	1.500			
0.5592	35787.15	3.7560	3.7561	2.1491	26.29	0.38	1.500			
0.5654	36188.75	3.7530	3.7529	2.0873	26.27	0.36	1.500			
0.5717	36586.96	3.7500	3.7500	2.0647	26.25	0.34	1.500			
0.5779	36984.93	3.7470	3.7470	2.0556	26.24	0.33	1.500			
0.5841	37380.02	3.7440	3.7439	2.0515	26.22	0.31	1.500			
0.5901	37769.08	3.7410	3.7411	2.0427	26.21	0.30	1.500			
0.5963	38161.91	3.7380	3.7381	2.0483	26.19	0.28	1.500			
0.6025	38558.56	3.7350	3.7350	2.0498	26.18	0.27	1.500			
0.6085	38946.05	3.7320	3.7320	2.0869	26.17	0.26	1.500			
0.6148	39347.70	3.7290	3.7291	2.1296	26.15	0.24	1.500			
0.6212	39759.96	3.7260	3.7260	2.1772	26.14	0.23	1.500			
0.6279	40187.60	3.7230	3.7231	2.2128	26.13	0.22	1.500			
0.6347	40618.59	3.7200	3.7199	2.2841	26.12	0.21	1.500			
0.6415	41055.11	3.7170	3.7170	2.3295	26.10	0.19	1.500			
0.6486	41511.28	3.7140	3.7140	2.3889	26.09	0.18	1.500			
0.6559	41976.87	3.7110	3.7110	2.4765	26.08	0.17	1.500			
0.6634	42457.79	3.7080	3.7081	2.5659	26.06	0.15	1.500			
0.6712	42957.98	3.7050	3.7050	2.6873	26.05	0.14	1.500			
0.6795	43485.22	3.7020	3.7020	2.7475	26.03	0.12	1.500			
0.6879	44027.93	3.6990	3.6991	2.7441	26.02	0.11	1.500			
0.6962	44558.53	3.6960	3.6960	2.6875	26.01	0.10	1.500			
0.7042	45071.48	3.6930	3.6930	2.5596	26.00	0.09	1.500			
0.7118	45554.30	3.6900	3.6900	2.4306	26.00	0.09	1.500			
0.7188	46004.11	3.6870	3.6868	2.2208	25.99	0.08	1.500			
0.7251	46408.83	3.6840	3.6840	2.0333	25.99	0.08	1.500			
0.7308	46772.66	3.6810	3.6810	1.8490	25.99	0.08	1.500			
0.7361	47109.34	3.6780	3.6780	1.7116	25.98	0.07	1.500			
0.7410	47421.74	3.6750	3.6750	1.6110	25.98	0.07	1.500			
0.7455	47711.19	3.6720	3.6720	1.5077	25.98	0.07	1.500			
0.7499	47993.36	3.6690	3.6690	1.4378	25.98	0.07	1.500			
0.7540	48259.13	3.6660	3.6660	1.3769	25.97	0.06	1.500			
0.7581	48516.09	3.6630	3.6630	1.3249	25.97	0.06	1.500			
0.7619	48761.88	3.6600	3.6600	1.2819	25.97	0.06	1.500			
0.7656	49001.35	3.6570	3.6571	1.2583	25.96	0.05	1.500			
0.7693	49235.05	3.6540	3.6540	1.2433	25.96	0.05	1.500			
0.7730	49473.37	3.6510	3.6509	1.2450	25.96	0.05	1.500			
0.7767	49709.73	3.6480	3.6480	1.2519	25.95	0.04	1.500			
0.7805	49951.65	3.6450	3.6450	1.2591	25.95	0.04	1.500			
0.7843	50194.96	3.6420	3.6420	1.2822	25.94	0.03	1.500			
0.7882	50443.45	3.6390	3.6390	1.2975	25.94	0.03	1.500			
0.7921	50693.55	3.6360	3.6360	1.3060	25.93	0.02	1.500			
0.7961	50947.90	3.6330	3.6331	1.3120	25.93	0.02	1.500			
0.8000	51202.93	3.6300	3.6301	1.3189	25.92	0.01	1.500			
0.8040	51457.60	3.6270	3.6270	1.3114	25.92	0.01	1.500			
0.8080	51710.00	3.6240	3.6239	1.3077	25.91	0.00	1.500			
0.8118	51956.25	3.6210	3.6210	1.3008	25.91	-0.00	1.500			
0.8157	52206.12	3.6180	3.6181	1.2996	25.90	-0.01	1.500			
0.8196	52456.27	3.6150	3.6149	1.2981	25.90	-0.01	1.500			
0.8235	52705.24	3.6120	3.6120	1.2979	25.90	-0.01	1.500			
0.8274	52954.30	3.6090	3.6090	1.2961	25.90	-0.01	1.500			
0.8313	53205.21	3.6060	3.6060	1.2878	25.90	-0.01	1.500			
0.8352	53451.43	3.6030	3.6030	1.2769	25.90	-0.01	1.500			
0.8390	53696.66	3.6000	3.6001	1.2633	25.90	-0.01	1.500			
0.8428	53937.97	3.5970	3.5970	1.2548	25.90	-0.01	1.500			
0.8465	54177.10	3.5940	3.5939	1.2423	25.90	-0.01	1.500			
0.8502	54413.04	3.5910	3.5911	1.2282	25.90	-0.01	1.500			
0.8539	54648.21	3.5880	3.5880	1.2181	25.90	-0.01	1.500			
0.8576	54883.58	3.5850	3.5850	1.2081	25.91	-0.00	1.500			
0.8611	55111.98	3.5820	3.5820	1.2046	25.91	-0.00	1.500			
0.8647	55342.48	3.5790	3.5790	1.1985	25.91	-0.00	1.500			
0.8684	55575.10	3.5760	3.5758	1.1674	25.91	-0.00	1.500			
0.8719	55803.67	3.5730	3.5730	1.1281	25.91	0.00	1.500			
0.8754	56025.34	3.5700	3.5701	1.0309	25.91	0.00	1.500			
0.8786	56229.10	3.5670	3.5671	0.9218	25.91	0.00	1.500			
0.8811	56393.21	3.5640	3.5641	0.7762	25.91	0.00	1.500			
0.8832	56525.63	3.5610	3.5610	0.6320	25.92	0.01	1.500			
0.8847	56622.16	3.5580	3.5579	0.5137	25.92	0.01	1.500			
0.8860	56701.97	3.5550	3.5549	0.4213	25.92	0.01	1.500			
0.8870	56767.35	3.5520	3.5519	0.3358	25.92	0.01	1.500			
0.8879	56823.60	3.5490	3.5489	0.2903	25.92	0.01	1.500			
0.8886	56870.87	3.5460	3.5459	0.2513	25.92	0.01	1.500			
0.8893	56913.66	3.5430	3.5429	0.2223	25.92	0.01	1.500			
0.8899	56951.80	3.5400	3.5400	0.1960	25.92	0.01	1.500			
0.8904	56986.56	3.5370	3.5371	0.1776	25.92	0.01	1.500			
0.8909	57018.25	3.5340	3.5340	0.1611	25.92	0.01	1.500			
0.8914	57047.20	3.5310	3.5309	0.1443	25.92	0.01	1.500			
0.8918	57073.22	3.5280	3.5279	0.1301	25.92	0.01	1.500			
0.8921	57096.29	3.5250	3.5250	0.1148	25.92	0.01	1.500			
0.8925	57117.07	3.5220	3.5222	0.1012	25.92	0.01	1.500			
0.8927	57135.50	3.5190	3.5190	0.0878	25.92	0.01	1.500			
0.8930	57150.99	3.5160	3.5161	0.0736	25.92	0.01	1.500			
0.8932	57163.68	3.5130	3.5134	0.0595	25.92	0.01	1.500			
0.8933	57173.76	3.5100	3.5107	0.0455	25.92	0.01	1.500			
