Ah_balance (normalized)	Ah_balance (mAh)	Voltage - fit (V)	Voltage -  interpolate (V)	dQ/dV (1/V)	Temperature (°C)	Temperature - diff (°C)	Current (C)	R_DC 0ms (mOhm)	R_DC 50ms (mOhm)	R_DC 50 ms PEC (mOhm)
0.2881	18435.91	3.9910	3.9910	0.8474	27.38	1.40	1.500			
0.2906	18595.32	3.9880	3.9881	0.8343	27.37	1.39	1.500			
0.2931	18755.86	3.9850	3.9850	0.8361	27.36	1.38	1.500			
0.2956	18916.23	3.9820	3.9820	0.8385	27.36	1.38	1.500			
0.2981	19077.33	3.9790	3.9789	0.8385	27.35	1.37	1.500			
0.3006	19237.56	3.9760	3.9761	0.8430	27.34	1.36	1.500			
0.3031	19399.93	3.9730	3.9730	0.8484	27.33	1.35	1.500			
0.3057	19563.69	3.9700	3.9700	0.8551	27.33	1.35	1.500			
0.3083	19728.09	3.9670	3.9669	0.8591	27.32	1.34	1.500			
0.3109	19894.73	3.9640	3.9640	0.8636	27.31	1.33	1.500			
0.3135	20062.25	3.9610	3.9610	0.8615	27.31	1.33	1.500			
0.3161	20227.70	3.9580	3.9580	0.8685	27.30	1.32	1.500			
0.3186	20393.46	3.9550	3.9550	0.8680	27.29	1.31	1.500			
0.3212	20559.06	3.9520	3.9520	0.8711	27.28	1.30	1.500			
0.3239	20726.48	3.9490	3.9491	0.8752	27.28	1.30	1.500			
0.3265	20895.42	3.9460	3.9460	0.8824	27.27	1.29	1.500			
0.3292	21066.22	3.9430	3.9430	0.8891	27.26	1.28	1.500			
0.3318	21237.96	3.9400	3.9400	0.8966	27.25	1.27	1.500			
0.3345	21408.60	3.9370	3.9371	0.8992	27.25	1.27	1.500			
0.3372	21583.29	3.9340	3.9340	0.9072	27.24	1.26	1.500			
0.3400	21758.24	3.9310	3.9310	0.9117	27.23	1.25	1.500			
0.3427	21934.35	3.9280	3.9280	0.9152	27.22	1.24	1.500			
0.3455	22110.23	3.9250	3.9250	0.9163	27.22	1.24	1.500			
0.3482	22286.01	3.9220	3.9220	0.9222	27.21	1.23	1.500			
0.3510	22462.59	3.9190	3.9190	0.9273	27.20	1.22	1.500			
0.3538	22640.86	3.9160	3.9160	0.9334	27.19	1.21	1.500			
0.3566	22820.88	3.9130	3.9130	0.9409	27.19	1.21	1.500			
0.3594	23002.18	3.9100	3.9100	0.9498	27.18	1.20	1.500			
0.3623	23185.46	3.9070	3.9070	0.9593	27.17	1.19	1.500			
0.3652	23371.17	3.9040	3.9040	0.9672	27.16	1.18	1.500			
0.3681	23556.85	3.9010	3.9010	0.9736	27.15	1.17	1.500			
0.3710	23744.00	3.8980	3.8980	0.9830	27.14	1.16	1.500			
0.3740	23934.11	3.8950	3.8951	0.9943	27.14	1.16	1.500			
0.3770	24126.86	3.8920	3.8919	1.0024	27.13	1.15	1.500			
0.3800	24319.16	3.8890	3.8890	1.0133	27.12	1.14	1.500			
0.3830	24513.92	3.8860	3.8861	1.0255	27.11	1.13	1.500			
0.3861	24713.26	3.8830	3.8829	1.0341	27.10	1.12	1.500			
0.3893	24912.45	3.8800	3.8799	1.0439	27.09	1.11	1.500			
0.3924	25113.36	3.8770	3.8771	1.0513	27.08	1.10	1.500			
0.3956	25315.60	3.8740	3.8740	1.0636	27.07	1.09	1.500			
0.3988	25521.68	3.8710	3.8710	1.0767	27.06	1.08	1.500			
0.4020	25728.41	3.8680	3.8680	1.0871	27.05	1.07	1.500			
0.4053	25937.98	3.8650	3.8650	1.0981	27.04	1.06	1.500			
0.4086	26150.46	3.8620	3.8620	1.1154	27.03	1.05	1.500			
0.4120	26366.24	3.8590	3.8590	1.1257	27.02	1.04	1.500			
0.4154	26583.97	3.8560	3.8560	1.1390	27.01	1.03	1.500			
0.4188	26803.97	3.8530	3.8530	1.1500	27.00	1.02	1.500			
0.4223	27025.54	3.8500	3.8500	1.1670	26.99	1.01	1.500			
0.4258	27249.70	3.8470	3.8471	1.1851	26.98	1.00	1.500			
0.4293	27477.98	3.8440	3.8441	1.2078	26.96	0.98	1.500			
0.4330	27712.24	3.8410	3.8409	1.2198	26.95	0.97	1.500			
0.4367	27948.73	3.8380	3.8380	1.2435	26.93	0.95	1.500			
0.4405	28189.77	3.8350	3.8350	1.2600	26.91	0.93	1.500			
0.4442	28431.86	3.8320	3.8320	1.2836	26.90	0.92	1.500			
0.4481	28679.15	3.8290	3.8291	1.3048	26.88	0.90	1.500			
0.4521	28931.84	3.8260	3.8260	1.3333	26.87	0.89	1.500			
0.4561	29192.17	3.8230	3.8229	1.3582	26.85	0.87	1.500			
0.4603	29458.69	3.8200	3.8200	1.3843	26.84	0.86	1.500			
0.4645	29724.89	3.8170	3.8170	1.4096	26.83	0.85	1.500			
0.4687	29999.95	3.8140	3.8141	1.4298	26.81	0.83	1.500			
0.4730	30274.73	3.8110	3.8109	1.4439	26.80	0.82	1.500			
0.4774	30553.86	3.8080	3.8081	1.4700	26.78	0.80	1.500			
0.4818	30837.26	3.8050	3.8050	1.4913	26.76	0.78	1.500			
0.4863	31125.60	3.8020	3.8020	1.5197	26.74	0.76	1.500			
0.4909	31420.37	3.7990	3.7990	1.5409	26.72	0.74	1.500			
0.4956	31720.11	3.7960	3.7960	1.5636	26.70	0.72	1.500			
0.5004	32023.93	3.7930	3.7930	1.6086	26.68	0.70	1.500			
0.5053	32336.30	3.7900	3.7900	1.6217	26.66	0.68	1.500			
0.5102	32652.20	3.7870	3.7870	1.6348	26.64	0.66	1.500	0.346	0.490	
0.5151	32966.94	3.7840	3.7842	1.6504	26.63	0.65	1.500			
0.5201	33285.76	3.7810	3.7810	1.6585	26.61	0.63	1.500			
0.5251	33604.37	3.7780	3.7780	1.6663	26.59	0.61	1.500			
0.5300	33922.60	3.7750	3.7751	1.6771	26.57	0.59	1.500			
0.5352	34249.84	3.7720	3.7719	1.6840	26.55	0.57	1.500			
0.5402	34571.92	3.7690	3.7690	1.6891	26.53	0.55	1.500			
0.5453	34896.25	3.7660	3.7660	1.7121	26.51	0.53	1.500			
0.5504	35228.68	3.7630	3.7630	1.7142	26.49	0.51	1.500			
0.5556	35556.76	3.7600	3.7600	1.7200	26.47	0.49	1.500			
0.5608	35889.43	3.7570	3.7570	1.7253	26.46	0.48	1.500			
0.5659	36219.88	3.7540	3.7540	1.7351	26.44	0.46	1.500			
0.5711	36550.23	3.7510	3.7510	1.7431	26.42	0.44	1.500			
0.5764	36888.06	3.7480	3.7480	1.7809	26.41	0.43	1.500			
0.5818	37233.01	3.7450	3.7450	1.8137	26.39	0.41	1.500			
0.5872	37583.86	3.7420	3.7420	1.8555	26.37	0.39	1.500			
0.5929	37943.79	3.7390	3.7390	1.9001	26.36	0.38	1.500			
0.5986	38309.96	3.7360	3.7360	1.9575	26.34	0.36	1.500			
0.6046	38693.05	3.7330	3.7329	1.9976	26.32	0.34	1.500			
0.6106	39081.07	3.7300	3.7300	2.0636	26.30	0.32	1.500			
0.6169	39482.68	3.7270	3.7270	2.1149	26.28	0.30	1.500			
0.6233	39893.79	3.7240	3.7239	2.1687	26.26	0.28	1.500			
0.6299	40310.56	3.7210	3.7210	2.2096	26.24	0.26	1.500			
0.6366	40741.02	3.7180	3.7180	2.2586	26.23	0.25	1.500			
0.6434	41177.61	3.7150	3.7150	2.3049	26.21	0.23	1.500			
0.6505	41630.33	3.7120	3.7120	2.2829	26.19	0.21	1.500			
0.6574	42071.76	3.7090	3.7091	2.2270	26.18	0.20	1.500			
0.6641	42504.66	3.7060	3.7059	2.1273	26.17	0.19	1.500			
0.6702	42892.94	3.7030	3.7030	1.9612	26.15	0.17	1.500			
0.6758	43253.36	3.7000	3.7000	1.8332	26.14	0.16	1.500			
0.6812	43594.61	3.6970	3.6969	1.7223	26.13	0.15	1.500			
0.6862	43914.67	3.6940	3.6940	1.6214	26.12	0.14	1.500			
0.6908	44210.45	3.6910	3.6911	1.5463	26.11	0.13	1.500			
0.6953	44500.86	3.6880	3.6879	1.4741	26.10	0.12	1.500			
0.6996	44772.77	3.6850	3.6849	1.4094	26.10	0.12	1.500			
0.7037	45036.34	3.6820	3.6821	1.3605	26.09	0.11	1.500			
0.7077	45290.76	3.6790	3.6791	1.3204	26.08	0.10	1.500			
0.7116	45542.10	3.6760	3.6759	1.2933	26.08	0.10	1.500			
0.7153	45780.48	3.6730	3.6730	1.2658	26.07	0.09	1.500			
0.7191	46021.78	3.6700	3.6700	1.2591	26.07	0.09	1.500			
0.7229	46262.76	3.6670	3.6670	1.2604	26.06	0.08	1.500			
0.7266	46502.78	3.6640	3.6640	1.2561	26.05	0.07	1.500			
0.7304	46745.57	3.6610	3.6609	1.2578	26.04	0.06	1.500			
0.7342	46989.28	3.6580	3.6580	1.2544	26.03	0.05	1.500			
0.7380	47230.19	3.6550	3.6550	1.2480	26.02	0.04	1.500			
0.7417	47467.66	3.6520	3.6520	1.2402	26.01	0.03	1.500			
0.7454	47706.84	3.6490	3.6490	1.2301	26.01	0.03	1.500			
0.7491	47941.26	3.6460	3.6460	1.2197	26.00	0.02	1.500			
0.7527	48175.80	3.6430	3.6430	1.2053	25.99	0.01	1.500			
0.7563	48405.58	3.6400	3.6400	1.1941	25.99	0.01	1.500			
0.7599	48634.70	3.6370	3.6370	1.1822	25.98	0.00	1.500			
0.7634	48858.41	3.6340	3.6340	1.1726	25.97	-0.01	1.500			
0.7669	49081.23	3.6310	3.6310	1.1630	25.97	-0.01	1.500			
0.7704	49304.97	3.6280	3.6280	1.1543	25.96	-0.02	1.500			
0.7739	49526.74	3.6250	3.6250	1.1415	25.96	-0.02	1.500			
0.7773	49746.81	3.6220	3.6220	1.1257	25.96	-0.02	1.500			
0.7806	49961.53	3.6190	3.6190	1.1059	25.95	-0.03	1.500			
0.7840	50172.89	3.6160	3.6160	1.0875	25.95	-0.03	1.500			
0.7872	50379.70	3.6130	3.6130	1.0593	25.95	-0.03	1.500			
0.7903	50581.54	3.6100	3.6099	1.0356	25.95	-0.03	1.500			
0.7934	50778.62	3.6070	3.6071	1.0079	25.94	-0.04	1.500			
0.7964	50969.86	3.6040	3.6040	0.9808	25.94	-0.04	1.500			
0.7993	51155.26	3.6010	3.6010	0.9491	25.94	-0.04	1.500			
0.8021	51335.13	3.5980	3.5980	0.9136	25.95	-0.03	1.500			
0.8048	51510.14	3.5950	3.5950	0.8650	25.95	-0.03	1.500			
0.8075	51677.90	3.5920	3.5920	0.8160	25.96	-0.02	1.500			
0.8099	51833.05	3.5890	3.5891	0.7442	25.96	-0.02	1.500			
0.8120	51970.26	3.5860	3.5860	0.6644	25.96	-0.02	1.500			
0.8139	52089.88	3.5830	3.5831	0.5788	25.97	-0.01	1.500			
0.8155	52190.55	3.5800	3.5800	0.4979	25.97	-0.01	1.500			
0.8168	52274.49	3.5770	3.5769	0.4219	25.97	-0.01	1.500			
0.8179	52346.15	3.5740	3.5740	0.3635	25.97	-0.01	1.500			
0.8188	52406.38	3.5710	3.5710	0.3109	25.97	-0.01	1.500			
0.8197	52461.42	3.5680	3.5679	0.2700	25.98	-0.00	1.500			
0.8204	52506.49	3.5650	3.5649	0.2353	25.98	-0.00	1.500			
0.8211	52547.44	3.5620	3.5620	0.2102	25.98	-0.00	1.500			
0.8216	52584.41	3.5590	3.5591	0.1897	25.98	-0.00	1.500			
0.8222	52618.52	3.5560	3.5559	0.1699	25.98	-0.00	1.500			
0.8226	52648.52	3.5530	3.5529	0.1532	25.98	0.00	1.500			
0.8231	52675.73	3.5500	3.5500	0.1365	25.98	0.00	1.500			
0.8234	52700.39	3.5470	3.5470	0.1213	25.98	0.00	1.500			
0.8238	52722.29	3.5440	3.5440	0.1068	25.98	0.00	1.500			
0.8241	52741.57	3.5410	3.5411	0.0923	25.98	0.00	1.500			
0.8243	52757.77	3.5380	3.5380	0.0775	25.98	0.00	1.500			
0.8246	52771.43	3.5350	3.5353	0.0627	25.98	0.00	1.500			
0.8247	52782.03	3.5320	3.5326	0.0477	25.98	0.00	1.500			
0.8248	52789.74	3.5290	3.5300	0.0326	25.98	0.00	1.500			
