Ah_balance (normalized)	Ah_balance (mAh)	Voltage - fit (V)	Voltage -  interpolate (V)	dQ/dV (1/V)	Temperature (°C)	Temperature - diff (°C)	Current (C)	R_DC 0ms (mOhm)	R_DC 50ms (mOhm)	R_DC 50 ms PEC (mOhm)
0.2751	17606.32	3.9820	3.9821	0.8411	27.24	1.28	1.500			
0.2776	17767.94	3.9790	3.9790	0.8502	27.23	1.27	1.500			
0.2802	17933.28	3.9760	3.9760	0.8589	27.23	1.27	1.500			
0.2828	18098.93	3.9730	3.9730	0.8667	27.22	1.26	1.500			
0.2854	18267.27	3.9700	3.9700	0.8709	27.22	1.26	1.500			
0.2880	18434.82	3.9670	3.9669	0.8745	27.21	1.25	1.500			
0.2907	18601.96	3.9640	3.9641	0.8765	27.21	1.25	1.500			
0.2933	18771.23	3.9610	3.9610	0.8813	27.20	1.24	1.500			
0.2959	18939.26	3.9580	3.9580	0.8856	27.19	1.23	1.500			
0.2986	19111.99	3.9550	3.9550	0.8870	27.19	1.23	1.500			
0.3013	19282.10	3.9520	3.9520	0.8900	27.18	1.22	1.500			
0.3040	19454.08	3.9490	3.9490	0.8940	27.18	1.22	1.500			
0.3066	19624.72	3.9460	3.9461	0.8963	27.17	1.21	1.500			
0.3093	19796.16	3.9430	3.9429	0.8979	27.17	1.21	1.500			
0.3120	19968.85	3.9400	3.9400	0.9025	27.16	1.20	1.500			
0.3147	20142.09	3.9370	3.9370	0.9061	27.16	1.20	1.500			
0.3175	20317.31	3.9340	3.9341	0.9160	27.15	1.19	1.500			
0.3202	20492.83	3.9310	3.9310	0.9204	27.15	1.19	1.500			
0.3230	20671.27	3.9280	3.9280	0.9271	27.14	1.18	1.500			
0.3258	20850.13	3.9250	3.9249	0.9325	27.14	1.18	1.500			
0.3286	21029.81	3.9220	3.9221	0.9402	27.13	1.17	1.500			
0.3314	21210.89	3.9190	3.9190	0.9461	27.13	1.17	1.500			
0.3343	21393.28	3.9160	3.9159	0.9503	27.12	1.16	1.500			
0.3371	21575.44	3.9130	3.9130	0.9546	27.12	1.16	1.500			
0.3400	21758.49	3.9100	3.9100	0.9605	27.12	1.16	1.500			
0.3429	21944.09	3.9070	3.9070	0.9655	27.11	1.15	1.500			
0.3458	22129.79	3.9040	3.9040	0.9732	27.11	1.15	1.500			
0.3487	22317.06	3.9010	3.9010	0.9817	27.10	1.14	1.500			
0.3517	22506.47	3.8980	3.8980	0.9901	27.09	1.13	1.500			
0.3547	22697.66	3.8950	3.8950	0.9975	27.09	1.13	1.500			
0.3577	22891.53	3.8920	3.8921	1.0001	27.08	1.12	1.500			
0.3607	23083.28	3.8890	3.8890	1.0111	27.08	1.12	1.500			
0.3637	23276.43	3.8860	3.8860	1.0251	27.07	1.11	1.500			
0.3668	23472.92	3.8830	3.8830	1.0302	27.06	1.10	1.500			
0.3699	23671.48	3.8800	3.8801	1.0463	27.06	1.10	1.500			
0.3731	23876.16	3.8770	3.8770	1.0596	27.05	1.09	1.500			
0.3763	24082.81	3.8740	3.8741	1.0652	27.04	1.08	1.500			
0.3795	24288.97	3.8710	3.8710	1.0776	27.03	1.07	1.500			
0.3827	24494.63	3.8680	3.8681	1.0769	27.03	1.07	1.500			
0.3859	24699.06	3.8650	3.8650	1.0909	27.02	1.06	1.500			
0.3892	24909.20	3.8620	3.8619	1.1054	27.01	1.05	1.500			
0.3925	25121.90	3.8590	3.8590	1.1186	27.00	1.04	1.500			
0.3959	25339.83	3.8560	3.8561	1.1427	26.99	1.03	1.500			
0.3994	25560.88	3.8530	3.8530	1.1616	26.99	1.03	1.500			
0.4029	25784.73	3.8500	3.8500	1.1777	26.98	1.02	1.500			
0.4065	26013.96	3.8470	3.8470	1.1905	26.97	1.01	1.500			
0.4100	26241.05	3.8440	3.8440	1.2125	26.96	1.00	1.500			
0.4137	26477.92	3.8410	3.8410	1.2363	26.95	0.99	1.500			
0.4175	26717.94	3.8380	3.8379	1.2532	26.94	0.98	1.500			
0.4213	26960.52	3.8350	3.8350	1.2694	26.93	0.97	1.500			
0.4251	27204.76	3.8320	3.8322	1.2936	26.92	0.96	1.500			
0.4290	27456.40	3.8290	3.8290	1.3132	26.91	0.95	1.500			
0.4329	27707.12	3.8260	3.8260	1.3437	26.91	0.95	1.500			
0.4370	27965.07	3.8230	3.8230	1.3806	26.90	0.94	1.500			
0.4412	28235.38	3.8200	3.8200	1.4181	26.89	0.93	1.500			
0.4455	28512.68	3.8170	3.8170	1.4485	26.87	0.91	1.500			
0.4499	28795.60	3.8140	3.8141	1.4831	26.86	0.90	1.500			
0.4544	29084.56	3.8110	3.8110	1.4960	26.84	0.88	1.500			
0.4590	29373.40	3.8080	3.8079	1.5288	26.83	0.87	1.500			
0.4635	29661.40	3.8050	3.8051	1.5540	26.82	0.86	1.500			
0.4682	29964.03	3.8020	3.8018	1.5947	26.80	0.84	1.500			
0.4730	30274.47	3.7990	3.7990	1.6445	26.79	0.83	1.500			
0.4780	30595.17	3.7960	3.7960	1.6742	26.77	0.81	1.500			
0.4831	30920.97	3.7930	3.7931	1.7212	26.76	0.80	1.500			
0.4884	31257.51	3.7900	3.7900	1.7522	26.74	0.78	1.500			
0.4937	31596.02	3.7870	3.7868	1.7884	26.73	0.77	1.500			
0.4991	31944.24	3.7840	3.7841	1.8197	26.71	0.75	1.500			
0.5047	32298.68	3.7810	3.7810	1.8516	26.70	0.74	1.500			
0.5103	32659.16	3.7780	3.7780	1.8919	26.68	0.72	1.500			
0.5160	33022.23	3.7750	3.7750	1.9058	26.67	0.71	1.500			
0.5217	33391.13	3.7720	3.7720	1.9482	26.65	0.69	1.500			
0.5277	33772.62	3.7690	3.7690	1.9687	26.63	0.67	1.500	0.363	0.460	
0.5337	34159.19	3.7660	3.7661	2.0015	26.62	0.66	1.500			
0.5397	34542.17	3.7630	3.7630	1.9883	26.60	0.64	1.500			
0.5457	34922.88	3.7600	3.7602	1.9759	26.58	0.62	1.500			
0.5516	35299.91	3.7570	3.7570	1.9593	26.57	0.61	1.500			
0.5574	35675.12	3.7540	3.7540	1.9650	26.55	0.59	1.500			
0.5633	36052.98	3.7510	3.7510	1.9687	26.53	0.57	1.500			
0.5692	36430.59	3.7480	3.7480	1.9645	26.52	0.56	1.500			
0.5751	36807.66	3.7450	3.7450	1.9669	26.50	0.54	1.500			
0.5810	37183.90	3.7420	3.7420	1.9678	26.49	0.53	1.500			
0.5868	37556.69	3.7390	3.7390	1.9777	26.48	0.52	1.500			
0.5928	37938.41	3.7360	3.7358	2.0083	26.46	0.50	1.500			
0.5989	38327.65	3.7330	3.7331	2.0516	26.44	0.48	1.500			
0.6051	38725.36	3.7300	3.7300	2.0807	26.42	0.46	1.500			
0.6114	39129.88	3.7270	3.7270	2.1182	26.40	0.44	1.500			
0.6177	39534.18	3.7240	3.7239	2.1557	26.38	0.42	1.500			
0.6243	39953.59	3.7210	3.7210	2.2094	26.37	0.41	1.500			
0.6310	40381.06	3.7180	3.7180	2.2901	26.36	0.40	1.500			
0.6379	40824.26	3.7150	3.7151	2.3722	26.35	0.39	1.500			
0.6451	41289.55	3.7120	3.7120	2.4803	26.34	0.38	1.500			
0.6527	41774.33	3.7090	3.7090	2.5070	26.32	0.36	1.500			
0.6604	42268.62	3.7060	3.7060	2.5932	26.30	0.34	1.500			
0.6683	42771.80	3.7030	3.7028	2.6077	26.28	0.32	1.500			
0.6761	43272.53	3.7000	3.7001	2.5880	26.26	0.30	1.500			
0.6840	43773.81	3.6970	3.6970	2.5348	26.24	0.28	1.500			
0.6915	44259.19	3.6940	3.6940	2.4156	26.22	0.26	1.500			
0.6986	44708.59	3.6910	3.6910	2.2522	26.21	0.25	1.500			
0.7051	45125.10	3.6880	3.6880	2.0761	26.20	0.24	1.500			
0.7109	45498.70	3.6850	3.6850	1.9100	26.18	0.22	1.500			
0.7163	45843.89	3.6820	3.6820	1.7675	26.17	0.21	1.500			
0.7214	46168.35	3.6790	3.6790	1.6538	26.16	0.20	1.500			
0.7262	46475.14	3.6760	3.6760	1.5576	26.15	0.19	1.500			
0.7306	46760.95	3.6730	3.6731	1.4676	26.15	0.19	1.500			
0.7349	47030.83	3.6700	3.6700	1.4030	26.14	0.18	1.500			
0.7389	47288.18	3.6670	3.6671	1.3419	26.13	0.17	1.500			
0.7428	47538.56	3.6640	3.6639	1.3005	26.12	0.16	1.500			
0.7466	47780.36	3.6610	3.6610	1.2850	26.11	0.15	1.500			
0.7504	48024.54	3.6580	3.6580	1.2727	26.10	0.14	1.500			
0.7542	48265.62	3.6550	3.6550	1.2732	26.09	0.13	1.500			
0.7580	48509.02	3.6520	3.6520	1.2750	26.08	0.12	1.500			
0.7618	48754.66	3.6490	3.6490	1.2842	26.08	0.12	1.500			
0.7657	49003.19	3.6460	3.6460	1.2893	26.07	0.11	1.500			
0.7696	49251.37	3.6430	3.6430	1.3009	26.06	0.10	1.500			
0.7734	49500.69	3.6400	3.6400	1.3078	26.05	0.09	1.500			
0.7774	49754.14	3.6370	3.6370	1.3186	26.04	0.08	1.500			
0.7814	50008.54	3.6340	3.6340	1.3107	26.03	0.07	1.500			
0.7853	50260.11	3.6310	3.6311	1.3106	26.02	0.06	1.500			
0.7892	50511.98	3.6280	3.6281	1.3123	26.01	0.05	1.500			
0.7932	50764.01	3.6250	3.6248	1.3099	26.00	0.04	1.500			
0.7971	51012.26	3.6220	3.6219	1.3049	25.99	0.03	1.500			
0.8010	51263.55	3.6190	3.6191	1.3060	25.98	0.02	1.500			
0.8049	51516.23	3.6160	3.6160	1.3070	25.98	0.02	1.500			
0.8089	51768.87	3.6130	3.6130	1.3033	25.97	0.01	1.500			
0.8128	52018.75	3.6100	3.6100	1.2973	25.96	0.00	1.500			
0.8167	52268.20	3.6070	3.6070	1.2840	25.95	-0.01	1.500			
0.8206	52515.27	3.6040	3.6040	1.2704	25.95	-0.01	1.500			
0.8243	52757.64	3.6010	3.6010	1.2564	25.94	-0.02	1.500			
0.8281	52998.01	3.5980	3.5981	1.2389	25.94	-0.02	1.500			
0.8318	53232.86	3.5950	3.5949	1.2235	25.93	-0.03	1.500			
0.8354	53465.32	3.5920	3.5920	1.2077	25.93	-0.03	1.500			
0.8390	53694.65	3.5890	3.5890	1.1953	25.93	-0.03	1.500			
0.8425	53923.19	3.5860	3.5860	1.1896	25.92	-0.04	1.500			
0.8461	54153.23	3.5830	3.5830	1.1743	25.92	-0.04	1.500			
0.8497	54379.92	3.5800	3.5800	1.1462	25.93	-0.03	1.500			
0.8533	54609.85	3.5770	3.5769	1.0936	25.94	-0.02	1.500			
0.8566	54819.79	3.5740	3.5740	1.0071	25.94	-0.02	1.500			
0.8596	55014.60	3.5710	3.5711	0.9001	25.95	-0.01	1.500			
0.8621	55176.38	3.5680	3.5680	0.7670	25.95	-0.01	1.500			
0.8641	55304.94	3.5650	3.5652	0.6387	25.95	-0.01	1.500			
0.8658	55410.85	3.5620	3.5619	0.5223	25.96	-0.00	1.500			
0.8671	55491.94	3.5590	3.5589	0.4230	25.96	-0.00	1.500			
0.8681	55560.51	3.5560	3.5559	0.3578	25.96	-0.00	1.500			
0.8690	55617.96	3.5530	3.5531	0.3045	25.96	0.00	1.500			
0.8699	55671.25	3.5500	3.5499	0.2652	25.96	0.00	1.500			
0.8706	55716.28	3.5470	3.5469	0.2356	25.96	0.00	1.500			
0.8712	55757.65	3.5440	3.5440	0.2124	25.96	0.00	1.500			
0.8718	55795.01	3.5410	3.5411	0.1927	25.97	0.01	1.500			
0.8724	55830.41	3.5380	3.5380	0.1761	25.97	0.01	1.500			
0.8728	55862.13	3.5350	3.5350	0.1617	25.97	0.01	1.500			
0.8733	55890.99	3.5320	3.5319	0.1473	25.97	0.01	1.500			
0.8737	55917.67	3.5290	3.5290	0.1337	25.97	0.01	1.500			
0.8741	55942.39	3.5260	3.5260	0.1208	25.97	0.01	1.500			
0.8744	55964.44	3.5230	3.5231	0.1082	25.97	0.01	1.500			
0.8748	55984.33	3.5200	3.5201	0.0958	25.97	0.01	1.500			
0.8750	56001.45	3.5170	3.5170	0.0825	25.97	0.01	1.500			
0.8752	56016.00	3.5140	3.5142	0.0691	25.97	0.01	1.500			
0.8754	56028.09	3.5110	3.5114	0.0553	25.97	0.01	1.500			
0.8756	56037.39	3.5080	3.5088	0.0416	25.97	0.01	1.500			
