Ah_balance (normalized)	Ah_balance (mAh)	Voltage - fit (V)	Voltage -  interpolate (V)	dQ/dV (1/V)	Temperature (°C)	Temperature - diff (°C)	Current (C)	R_DC 0ms (mOhm)	R_DC 50ms (mOhm)	R_DC 50 ms PEC (mOhm)
0.2069	13238.59	3.9140	3.9138	-0.1020	25.88	-0.02	-1.500			
0.2072	13261.22	3.9110	3.9108	-0.1336	25.88	-0.02	-1.500			
0.2077	13290.36	3.9080	3.9079	-0.1650	25.88	-0.02	-1.500			
0.2082	13324.75	3.9050	3.9051	-0.1953	25.89	-0.01	-1.500			
0.2088	13365.59	3.9020	3.9020	-0.2235	25.89	-0.01	-1.500			
0.2096	13411.42	3.8990	3.8991	-0.2513	25.89	-0.01	-1.500			
0.2104	13462.91	3.8960	3.8960	-0.2801	25.89	-0.01	-1.500			
0.2112	13519.03	3.8930	3.8931	-0.3076	25.89	-0.01	-1.500			
0.2122	13580.99	3.8900	3.8900	-0.3346	25.89	-0.01	-1.500			
0.2132	13647.60	3.8870	3.8870	-0.3616	25.89	-0.01	-1.500			
0.2144	13719.55	3.8840	3.8840	-0.3899	25.89	-0.01	-1.500			
0.2156	13797.42	3.8810	3.8810	-0.4175	25.89	-0.01	-1.500			
0.2169	13880.15	3.8780	3.8780	-0.4431	25.89	-0.01	-1.500			
0.2183	13968.19	3.8750	3.8750	-0.4686	25.89	-0.01	-1.500			
0.2197	14060.67	3.8720	3.8720	-0.4950	25.89	-0.01	-1.500			
0.2212	14158.69	3.8690	3.8690	-0.5206	25.90	-0.00	-1.500			
0.2228	14261.37	3.8660	3.8660	-0.5418	25.90	-0.00	-1.500			
0.2245	14367.63	3.8630	3.8629	-0.5609	25.90	-0.00	-1.500			
0.2262	14477.72	3.8600	3.8601	-0.5802	25.90	-0.00	-1.500			
0.2280	14591.27	3.8570	3.8570	-0.5980	25.90	0.00	-1.500			
0.2298	14707.59	3.8540	3.8538	-0.6132	25.90	0.00	-1.500			
0.2317	14826.48	3.8510	3.8511	-0.6272	25.90	0.00	-1.500			
0.2336	14948.38	3.8480	3.8481	-0.6444	25.91	0.01	-1.500			
0.2356	15076.00	3.8450	3.8450	-0.6575	25.91	0.01	-1.500			
0.2376	15204.38	3.8420	3.8419	-0.6639	25.91	0.01	-1.500			
0.2396	15331.87	3.8390	3.8391	-0.6721	25.91	0.01	-1.500			
0.2416	15461.64	3.8360	3.8361	-0.6785	25.91	0.01	-1.500			
0.2436	15592.10	3.8330	3.8329	-0.6865	25.91	0.01	-1.500			
0.2457	15724.43	3.8300	3.8300	-0.6921	25.92	0.02	-1.500			
0.2478	15857.30	3.8270	3.8270	-0.6979	25.92	0.02	-1.500			
0.2499	15993.46	3.8240	3.8240	-0.7038	25.92	0.02	-1.500			
0.2520	16130.26	3.8210	3.8210	-0.7106	25.92	0.02	-1.500			
0.2542	16266.19	3.8180	3.8180	-0.7123	25.92	0.02	-1.500			
0.2563	16403.60	3.8150	3.8150	-0.7131	25.93	0.03	-1.500			
0.2584	16540.25	3.8120	3.8120	-0.7150	25.93	0.03	-1.500			
0.2606	16677.59	3.8090	3.8090	-0.7167	25.93	0.03	-1.500			
0.2627	16815.43	3.8060	3.8059	-0.7153	25.93	0.03	-1.500			
0.2649	16952.64	3.8030	3.8030	-0.7178	25.94	0.04	-1.500			
0.2670	17089.69	3.8000	3.7999	-0.7179	25.94	0.04	-1.500			
0.2692	17227.42	3.7970	3.7971	-0.7221	25.94	0.04	-1.500			
0.2714	17366.89	3.7940	3.7939	-0.7259	25.94	0.04	-1.500			
0.2735	17506.09	3.7910	3.7911	-0.7276	25.95	0.05	-1.500			
0.2757	17647.12	3.7880	3.7880	-0.7280	25.95	0.05	-1.500			
0.2779	17787.63	3.7850	3.7850	-0.7302	25.95	0.05	-1.500			
0.2801	17927.38	3.7820	3.7820	-0.7246	25.96	0.06	-1.500			
0.2823	18065.13	3.7790	3.7790	-0.7249	25.96	0.06	-1.500			
0.2844	18203.44	3.7760	3.7761	-0.7253	25.97	0.07	-1.500			
0.2866	18342.86	3.7730	3.7728	-0.7275	25.97	0.07	-1.500			
0.2888	18482.66	3.7700	3.7700	-0.7282	25.97	0.07	-1.500			
0.2910	18623.38	3.7670	3.7670	-0.7278	25.98	0.08	-1.500			
0.2932	18763.34	3.7640	3.7640	-0.7287	25.98	0.08	-1.500			
0.2954	18904.46	3.7610	3.7610	-0.7269	25.99	0.09	-1.500			
0.2975	19041.65	3.7580	3.7580	-0.7236	25.99	0.09	-1.500			
0.2997	19180.79	3.7550	3.7550	-0.7241	26.00	0.10	-1.500			
0.3019	19319.43	3.7520	3.7520	-0.7243	26.00	0.10	-1.500			
0.3040	19458.28	3.7490	3.7490	-0.7271	26.01	0.11	-1.500			
0.3062	19597.95	3.7460	3.7460	-0.7291	26.01	0.11	-1.500			
0.3084	19737.80	3.7430	3.7430	-0.7303	26.02	0.12	-1.500			
0.3106	19879.19	3.7400	3.7400	-0.7323	26.02	0.12	-1.500			
0.3128	20019.23	3.7370	3.7370	-0.7339	26.03	0.13	-1.500			
0.3150	20160.52	3.7340	3.7340	-0.7364	26.03	0.13	-1.500			
0.3172	20301.73	3.7310	3.7310	-0.7396	26.04	0.14	-1.500			
0.3194	20443.19	3.7280	3.7280	-0.7441	26.04	0.14	-1.500			
0.3217	20587.10	3.7250	3.7250	-0.7502	26.05	0.15	-1.500			
0.3239	20731.45	3.7220	3.7219	-0.7568	26.05	0.15	-1.500			
0.3262	20877.67	3.7190	3.7191	-0.7620	26.06	0.16	-1.500			
0.3285	21025.30	3.7160	3.7159	-0.7620	26.06	0.16	-1.500			
0.3308	21171.80	3.7130	3.7130	-0.7660	26.07	0.17	-1.500			
0.3331	21318.09	3.7100	3.7101	-0.7715	26.07	0.17	-1.500			
0.3354	21465.72	3.7070	3.7070	-0.7807	26.08	0.18	-1.500			
0.3378	21616.76	3.7040	3.7039	-0.7892	26.08	0.18	-1.500			
0.3401	21768.91	3.7010	3.7011	-0.7988	26.09	0.19	-1.500			
0.3425	21923.17	3.6980	3.6980	-0.8121	26.09	0.19	-1.500			
0.3450	22081.79	3.6950	3.6950	-0.8211	26.10	0.20	-1.500			
0.3475	22239.45	3.6920	3.6920	-0.8297	26.10	0.20	-1.500			
0.3500	22399.06	3.6890	3.6890	-0.8415	26.11	0.21	-1.500			
0.3525	22561.61	3.6860	3.6861	-0.8522	26.11	0.21	-1.500			
0.3551	22727.31	3.6830	3.6829	-0.8618	26.12	0.22	-1.500			
0.3577	22893.42	3.6800	3.6800	-0.8735	26.12	0.22	-1.500			
0.3603	23060.88	3.6770	3.6771	-0.8847	26.13	0.23	-1.500			
0.3630	23232.46	3.6740	3.6739	-0.9039	26.13	0.23	-1.500			
0.3657	23405.80	3.6710	3.6710	-0.9195	26.14	0.24	-1.500			
0.3685	23585.09	3.6680	3.6680	-0.9371	26.14	0.24	-1.500			
0.3714	23768.89	3.6650	3.6649	-0.9506	26.15	0.25	-1.500			
0.3743	23952.74	3.6620	3.6620	-0.9671	26.16	0.26	-1.500			
0.3772	24138.06	3.6590	3.6591	-0.9791	26.16	0.26	-1.500			
0.3801	24327.10	3.6560	3.6559	-0.9946	26.16	0.26	-1.500			
0.3831	24517.74	3.6530	3.6530	-1.0111	26.17	0.27	-1.500			
0.3862	24713.70	3.6500	3.6500	-1.0336	26.17	0.27	-1.500			
0.3893	24915.30	3.6470	3.6470	-1.0569	26.17	0.27	-1.500			
0.3925	25120.55	3.6440	3.6440	-1.0776	26.17	0.27	-1.500			
0.3958	25328.03	3.6410	3.6410	-1.0943	26.18	0.28	-1.500			
0.3991	25540.81	3.6380	3.6379	-1.1190	26.18	0.28	-1.500			
0.4025	25757.82	3.6350	3.6350	-1.1396	26.18	0.28	-1.500			
0.4059	25978.17	3.6320	3.6320	-1.1621	26.18	0.28	-1.500			
0.4094	26202.60	3.6290	3.6290	-1.1874	26.18	0.28	-1.500			
0.4130	26433.38	3.6260	3.6261	-1.2125	26.18	0.28	-1.500			
0.4167	26669.97	3.6230	3.6229	-1.2333	26.19	0.29	-1.500			
0.4205	26909.68	3.6200	3.6199	-1.2528	26.19	0.29	-1.500			
0.4242	27151.66	3.6170	3.6171	-1.2745	26.19	0.29	-1.500			
0.4281	27398.26	3.6140	3.6140	-1.2979	26.19	0.29	-1.500			
0.4320	27649.87	3.6110	3.6109	-1.3166	26.19	0.29	-1.500			
0.4360	27903.39	3.6080	3.6080	-1.3417	26.19	0.29	-1.500			
0.4400	28161.90	3.6050	3.6050	-1.3647	26.20	0.30	-1.500			
0.4442	28428.67	3.6020	3.6020	-1.3912	26.20	0.30	-1.500			
0.4484	28698.09	3.5990	3.5989	-1.4101	26.20	0.30	-1.500			
0.4526	28968.37	3.5960	3.5961	-1.4380	26.20	0.30	-1.500			
0.4570	29247.67	3.5930	3.5930	-1.4608	26.20	0.30	-1.500			
0.4614	29532.05	3.5900	3.5900	-1.4887	26.20	0.30	-1.500			
0.4659	29820.63	3.5870	3.5870	-1.5096	26.20	0.30	-1.500			
0.4705	30114.75	3.5840	3.5840	-1.5331	26.20	0.30	-1.500			
0.4752	30410.96	3.5810	3.5809	-1.5542	26.20	0.30	-1.500			
0.4798	30710.33	3.5780	3.5779	-1.5801	26.20	0.30	-1.500			
0.4846	31014.12	3.5750	3.5750	-1.6019	26.21	0.31	-1.500			
0.4895	31325.70	3.5720	3.5719	-1.6209	26.21	0.31	-1.500			
0.4943	31637.94	3.5690	3.5691	-1.6345	26.21	0.31	-1.500			
0.4993	31955.54	3.5660	3.5661	-1.6643	26.22	0.32	-1.500			
0.5043	32276.59	3.5630	3.5629	-1.6846	26.22	0.32	-1.500			
0.5094	32601.99	3.5600	3.5599	-1.7018	26.22	0.32	-1.500			
0.5145	32929.35	3.5570	3.5570	-1.7186	26.23	0.33	-1.500			
0.5198	33264.24	3.5540	3.5541	-1.7389	26.23	0.33	-1.500			
0.5250	33601.78	3.5510	3.5510	-1.7543	26.23	0.33	-1.500			
0.5303	33939.23	3.5480	3.5480	-1.7680	26.23	0.33	-1.500			
0.5356	34276.16	3.5450	3.5450	-1.7786	26.24	0.34	-1.500			
0.5409	34620.53	3.5420	3.5420	-1.7973	26.25	0.35	-1.500			
0.5464	34968.15	3.5390	3.5390	-1.8056	26.25	0.35	-1.500			
0.5519	35319.38	3.5360	3.5363	-1.8080	26.26	0.36	-1.500	0.382	0.515	
0.5573	35665.69	3.5330	3.5330	-1.8181	26.26	0.36	-1.500			
0.5628	36016.30	3.5300	3.5300	-1.8048	26.27	0.37	-1.500			
0.5681	36361.29	3.5270	3.5269	-1.7971	26.27	0.37	-1.500			
0.5735	36705.13	3.5240	3.5240	-1.7922	26.28	0.38	-1.500			
0.5789	37047.92	3.5210	3.5209	-1.7978	26.28	0.38	-1.500			
0.5842	37390.56	3.5180	3.5181	-1.8102	26.29	0.39	-1.500			
0.5897	37739.35	3.5150	3.5149	-1.8019	26.29	0.39	-1.500			
0.5951	38085.46	3.5120	3.5120	-1.8067	26.29	0.39	-1.500			
0.6006	38437.83	3.5090	3.5091	-1.8070	26.30	0.40	-1.500			
0.6060	38785.67	3.5060	3.5059	-1.8100	26.31	0.41	-1.500			
0.6114	39130.99	3.5030	3.5030	-1.7990	26.32	0.42	-1.500			
0.6168	39475.46	3.5000	3.5000	-1.7896	26.34	0.44	-1.500			
0.6222	39821.45	3.4970	3.4970	-1.7901	26.35	0.45	-1.500			
0.6275	40162.21	3.4940	3.4941	-1.7731	26.36	0.46	-1.500			
0.6329	40502.58	3.4910	3.4910	-1.7606	26.37	0.47	-1.500			
0.6381	40838.66	3.4880	3.4880	-1.7580	26.38	0.48	-1.500			
0.6433	41173.01	3.4850	3.4850	-1.7519	26.39	0.49	-1.500			
0.6486	41510.33	3.4820	3.4819	-1.7498	26.40	0.50	-1.500			
0.6539	41846.68	3.4790	3.4790	-1.7331	26.41	0.51	-1.500			
0.6590	42178.04	3.4760	3.4760	-1.7242	26.42	0.52	-1.500			
0.6642	42510.68	3.4730	3.4730	-1.7046	26.44	0.54	-1.500			
0.6693	42837.18	3.4700	3.4699	-1.6747	26.45	0.55	-1.500			
0.6743	43156.59	3.4670	3.4669	-1.6569	26.46	0.56	-1.500			
0.6792	43471.68	3.4640	3.4640	-1.6319	26.48	0.58	-1.500			
0.6841	43782.03	3.4610	3.4609	-1.6172	26.49	0.59	-1.500			
0.6889	44091.58	3.4580	3.4580	-1.5900	26.50	0.60	-1.500			
0.6936	44393.50	3.4550	3.4550	-1.5624	26.51	0.61	-1.500			
0.6984	44695.79	3.4520	3.4519	-1.5454	26.52	0.62	-1.500			
0.7030	44990.59	3.4490	3.4491	-1.5235	26.53	0.63	-1.500			
0.7075	45278.75	3.4460	3.4459	-1.4927	26.55	0.65	-1.500			
0.7119	45560.09	3.4430	3.4430	-1.4773	26.56	0.66	-1.500			
0.7162	45837.42	3.4400	3.4400	-1.4552	26.58	0.68	-1.500			
0.7206	46120.36	3.4370	3.4369	-1.4499	26.59	0.69	-1.500			
0.7250	46397.83	3.4340	3.4340	-1.4396	26.61	0.71	-1.500			
0.7293	46673.32	3.4310	3.4311	-1.4271	26.62	0.72	-1.500			
0.7336	46947.49	3.4280	3.4280	-1.4152	26.64	0.74	-1.500			
0.7378	47218.71	3.4250	3.4249	-1.4087	26.66	0.76	-1.500			
0.7419	47484.74	3.4220	3.4220	-1.3889	26.67	0.77	-1.500			
0.7461	47751.27	3.4190	3.4190	-1.3799	26.69	0.79	-1.500			
0.7503	48016.01	3.4160	3.4160	-1.3695	26.71	0.81	-1.500			
0.7544	48280.38	3.4130	3.4130	-1.3464	26.73	0.83	-1.500			
0.7584	48538.39	3.4100	3.4099	-1.3223	26.75	0.85	-1.500			
0.7623	48788.98	3.4070	3.4071	-1.2915	26.76	0.86	-1.500			
0.7662	49034.98	3.4040	3.4040	-1.2599	26.78	0.88	-1.500			
0.7700	49278.05	3.4010	3.4009	-1.2168	26.80	0.90	-1.500			
0.7735	49506.89	3.3980	3.3979	-1.1704	26.81	0.91	-1.500			
0.7770	49726.69	3.3950	3.3951	-1.1281	26.82	0.92	-1.500			
0.7803	49939.86	3.3920	3.3919	-1.0854	26.84	0.94	-1.500			
0.7835	50140.83	3.3890	3.3889	-1.0381	26.85	0.95	-1.500			
0.7865	50334.11	3.3860	3.3860	-0.9943	26.87	0.97	-1.500			
0.7894	50523.80	3.3830	3.3830	-0.9642	26.88	0.98	-1.500			
0.7923	50706.09	3.3800	3.3799	-0.9272	26.90	1.00	-1.500			
0.7950	50879.18	3.3770	3.3770	-0.8872	26.91	1.01	-1.500			
0.7976	51045.63	3.3740	3.3740	-0.8528	26.92	1.02	-1.500			
0.8001	51205.34	3.3710	3.3710	-0.8206	26.93	1.03	-1.500			
0.8025	51359.28	3.3680	3.3680	-0.7913	26.93	1.03	-1.500			
0.8048	51506.86	3.3650	3.3650	-0.7658	26.95	1.05	-1.500			
0.8071	51651.22	3.3620	3.3620	-0.7413	26.96	1.06	-1.500			
0.8092	51791.96	3.3590	3.3590	-0.7141	26.97	1.07	-1.500			
0.8114	51926.73	3.3560	3.3561	-0.6910	26.98	1.08	-1.500			
0.8134	52056.93	3.3530	3.3530	-0.6680	26.99	1.09	-1.500			
0.8154	52182.99	3.3500	3.3499	-0.6444	27.00	1.10	-1.500			
0.8172	52301.95	3.3470	3.3470	-0.6236	27.00	1.10	-1.500			
0.8191	52419.58	3.3440	3.3440	-0.6056	27.01	1.11	-1.500			
0.8209	52535.46	3.3410	3.3410	-0.5891	27.02	1.12	-1.500			
0.8226	52647.68	3.3380	3.3380	-0.5713	27.03	1.13	-1.500			
0.8243	52754.85	3.3350	3.3351	-0.5508	27.03	1.13	-1.500			
0.8259	52858.48	3.3320	3.3320	-0.5345	27.04	1.14	-1.500			
0.8275	52959.63	3.3290	3.3290	-0.5147	27.04	1.14	-1.500			
0.8290	53055.58	3.3260	3.3259	-0.4973	27.05	1.15	-1.500			
0.8305	53149.21	3.3230	3.3230	-0.4845	27.06	1.16	-1.500			
0.8319	53240.71	3.3200	3.3200	-0.4706	27.07	1.17	-1.500			
0.8333	53329.77	3.3170	3.3169	-0.4586	27.07	1.17	-1.500			
0.8346	53416.25	3.3140	3.3140	-0.4482	27.08	1.18	-1.500			
0.8360	53501.03	3.3110	3.3110	-0.4351	27.09	1.19	-1.500			
0.8373	53584.77	3.3080	3.3079	-0.4246	27.09	1.19	-1.500			
0.8385	53664.96	3.3050	3.3051	-0.4083	27.10	1.20	-1.500			
0.8397	53741.58	3.3020	3.3020	-0.3958	27.10	1.20	-1.500			
0.8409	53816.26	3.2990	3.2990	-0.3849	27.11	1.21	-1.500			
0.8420	53888.10	3.2960	3.2959	-0.3729	27.11	1.21	-1.500			
0.8431	53958.31	3.2930	3.2930	-0.3627	27.12	1.22	-1.500			
0.8442	54027.49	3.2900	3.2900	-0.3541	27.12	1.22	-1.500			
0.8452	54094.44	3.2870	3.2870	-0.3443	27.13	1.23	-1.500			
0.8463	54160.18	3.2840	3.2840	-0.3364	27.13	1.23	-1.500			
0.8472	54223.07	3.2810	3.2810	-0.3271	27.14	1.24	-1.500			
0.8482	54284.75	3.2780	3.2780	-0.3190	27.15	1.25	-1.500			
0.8492	54345.67	3.2750	3.2750	-0.3116	27.15	1.25	-1.500			
0.8501	54404.80	3.2720	3.2720	-0.3049	27.16	1.26	-1.500			
0.8510	54462.59	3.2690	3.2690	-0.2980	27.17	1.27	-1.500			
0.8519	54519.18	3.2660	3.2660	-0.2908	27.17	1.27	-1.500			
0.8527	54574.05	3.2630	3.2629	-0.2839	27.18	1.28	-1.500			
0.8536	54627.78	3.2600	3.2601	-0.2766	27.18	1.28	-1.500			
0.8544	54680.30	3.2570	3.2570	-0.2705	27.19	1.29	-1.500			
0.8552	54731.90	3.2540	3.2540	-0.2645	27.19	1.29	-1.500			
0.8560	54781.59	3.2510	3.2511	-0.2577	27.20	1.30	-1.500			
0.8567	54830.30	3.2480	3.2480	-0.2529	27.20	1.30	-1.500			
0.8575	54878.39	3.2450	3.2450	-0.2482	27.21	1.31	-1.500			
0.8582	54925.75	3.2420	3.2419	-0.2421	27.21	1.31	-1.500			
0.8589	54971.26	3.2390	3.2390	-0.2378	27.21	1.31	-1.500			
0.8596	55016.48	3.2360	3.2361	-0.2344	27.22	1.32	-1.500			
0.8603	55061.14	3.2330	3.2330	-0.2307	27.22	1.32	-1.500			
0.8610	55105.07	3.2300	3.2300	-0.2269	27.23	1.33	-1.500			
0.8617	55148.15	3.2270	3.2270	-0.2231	27.23	1.33	-1.500			
0.8624	55190.71	3.2240	3.2240	-0.2192	27.24	1.34	-1.500			
0.8630	55232.90	3.2210	3.2210	-0.2165	27.24	1.34	-1.500			
0.8636	55273.51	3.2180	3.2180	-0.2115	27.24	1.34	-1.500			
0.8643	55313.79	3.2150	3.2150	-0.2081	27.25	1.35	-1.500			
0.8649	55353.16	3.2120	3.2120	-0.2053	27.25	1.35	-1.500			
0.8655	55392.14	3.2090	3.2090	-0.2026	27.25	1.35	-1.500			
0.8661	55430.74	3.2060	3.2060	-0.2001	27.26	1.36	-1.500			
0.8667	55468.97	3.2030	3.2030	-0.1981	27.26	1.36	-1.500			
0.8673	55507.08	3.2000	3.2000	-0.1948	27.26	1.36	-1.500			
0.8679	55544.31	3.1970	3.1970	-0.1921	27.27	1.37	-1.500			
0.8685	55580.82	3.1940	3.1940	-0.1892	27.27	1.37	-1.500			
0.8690	55616.86	3.1910	3.1910	-0.1861	27.28	1.38	-1.500			
0.8696	55652.07	3.1880	3.1880	-0.1836	27.28	1.38	-1.500			
0.8701	55686.78	3.1850	3.1851	-0.1816	27.28	1.38	-1.500			
0.8706	55721.34	3.1820	3.1819	-0.1798	27.29	1.39	-1.500			
0.8712	55755.75	3.1790	3.1791	-0.1787	27.29	1.39	-1.500			
0.8717	55790.10	3.1760	3.1761	-0.1776	27.30	1.40	-1.500			
0.8723	55824.22	3.1730	3.1730	-0.1752	27.30	1.40	-1.500			
0.8728	55857.59	3.1700	3.1701	-0.1740	27.30	1.40	-1.500			
0.8733	55890.84	3.1670	3.1670	-0.1723	27.31	1.41	-1.500			
0.8738	55923.83	3.1640	3.1641	-0.1702	27.31	1.41	-1.500			
0.8743	55956.29	3.1610	3.1609	-0.1681	27.31	1.41	-1.500			
0.8748	55988.26	3.1580	3.1581	-0.1663	27.32	1.42	-1.500			
0.8753	56020.03	3.1550	3.1550	-0.1646	27.32	1.42	-1.500			
0.8758	56051.36	3.1520	3.1520	-0.1632	27.33	1.43	-1.500			
0.8763	56082.63	3.1490	3.1489	-0.1623	27.33	1.43	-1.500			
0.8768	56113.48	3.1460	3.1459	-0.1599	27.33	1.43	-1.500			
0.8773	56144.07	3.1430	3.1431	-0.1588	27.34	1.44	-1.500			
0.8777	56174.64	3.1400	3.1399	-0.1581	27.35	1.45	-1.500			
0.8782	56205.04	3.1370	3.1370	-0.1563	27.35	1.45	-1.500			
0.8787	56234.59	3.1340	3.1339	-0.1552	27.36	1.46	-1.500			
0.8791	56264.28	3.1310	3.1310	-0.1541	27.36	1.46	-1.500			
0.8796	56293.73	3.1280	3.1281	-0.1524	27.37	1.47	-1.500			
0.8800	56322.77	3.1250	3.1249	-0.1513	27.37	1.47	-1.500			
0.8805	56351.80	3.1220	3.1220	-0.1507	27.38	1.48	-1.500			
0.8809	56380.64	3.1190	3.1191	-0.1496	27.38	1.48	-1.500			
0.8814	56409.09	3.1160	3.1160	-0.1487	27.39	1.49	-1.500			
0.8818	56437.78	3.1130	3.1130	-0.1479	27.39	1.49	-1.500			
0.8823	56465.85	3.1100	3.1100	-0.1465	27.40	1.50	-1.500			
0.8827	56493.92	3.1070	3.1070	-0.1459	27.40	1.50	-1.500			
0.8832	56522.15	3.1040	3.1040	-0.1450	27.41	1.51	-1.500			
0.8836	56549.89	3.1010	3.1010	-0.1434	27.42	1.52	-1.500			
0.8840	56577.32	3.0980	3.0980	-0.1420	27.42	1.52	-1.500			
0.8844	56604.30	3.0950	3.0950	-0.1416	27.43	1.53	-1.500			
0.8849	56631.26	3.0920	3.0920	-0.1409	27.43	1.53	-1.500			
0.8853	56658.25	3.0890	3.0889	-0.1402	27.44	1.54	-1.500			
0.8857	56685.00	3.0860	3.0860	-0.1396	27.44	1.54	-1.500			
0.8861	56711.91	3.0830	3.0831	-0.1384	27.45	1.55	-1.500			
0.8865	56738.68	3.0800	3.0801	-0.1373	27.45	1.55	-1.500			
0.8870	56764.87	3.0770	3.0771	-0.1368	27.46	1.56	-1.500			
0.8874	56791.01	3.0740	3.0740	-0.1355	27.46	1.56	-1.500			
0.8878	56816.55	3.0710	3.0710	-0.1343	27.47	1.57	-1.500			
0.8882	56842.18	3.0680	3.0679	-0.1337	27.47	1.57	-1.500			
0.8886	56867.82	3.0650	3.0650	-0.1331	27.48	1.58	-1.500			
0.8890	56893.34	3.0620	3.0620	-0.1328	27.48	1.58	-1.500			
0.8894	56918.99	3.0590	3.0590	-0.1323	27.48	1.58	-1.500			
0.8898	56944.37	3.0560	3.0560	-0.1319	27.49	1.59	-1.500			
0.8902	56969.63	3.0530	3.0530	-0.1304	27.49	1.59	-1.500			
0.8905	56994.59	3.0500	3.0500	-0.1295	27.50	1.60	-1.500			
0.8909	57019.45	3.0470	3.0470	-0.1289	27.50	1.60	-1.500			
0.8913	57044.05	3.0440	3.0441	-0.1280	27.51	1.61	-1.500			
0.8917	57068.53	3.0410	3.0410	-0.1271	27.51	1.61	-1.500			
0.8921	57092.84	3.0380	3.0379	-0.1263	27.52	1.62	-1.500			
0.8925	57116.96	3.0350	3.0350	-0.1255	27.52	1.62	-1.500			
0.8928	57140.82	3.0320	3.0321	-0.1249	27.53	1.63	-1.500			
0.8932	57164.93	3.0290	3.0290	-0.1249	27.53	1.63	-1.500			
0.8936	57188.86	3.0260	3.0260	-0.1242	27.54	1.64	-1.500			
0.8939	57212.54	3.0230	3.0230	-0.1234	27.54	1.64	-1.500			
0.8943	57236.25	3.0200	3.0200	-0.1225	27.54	1.64	-1.500			
0.8947	57259.79	3.0170	3.0170	-0.1219	27.55	1.65	-1.500			
0.8950	57283.16	3.0140	3.0140	-0.1207	27.55	1.65	-1.500			
0.8954	57306.43	3.0110	3.0111	-0.1197	27.56	1.66	-1.500			
0.8958	57329.28	3.0080	3.0081	-0.1183	27.56	1.66	-1.499			
0.8961	57351.85	3.0050	3.0049	-0.1171	27.57	1.67	-1.500			
0.8965	57374.21	3.0020	3.0020	-0.1158	27.57	1.67	-1.500			
