Ah_balance (normalized)	Ah_balance (mAh)	Voltage - fit (V)	Voltage -  interpolate (V)	dQ/dV (1/V)	Temperature (°C)	Temperature - diff (°C)	Current (C)	R_DC 0ms (mOhm)	R_DC 50ms (mOhm)	R_DC 50 ms PEC (mOhm)
0.2836	18149.62	3.9890	3.9890	0.8605	27.30	1.36	1.500			
0.2861	18313.14	3.9860	3.9861	0.8489	27.29	1.35	1.500			
0.2887	18474.51	3.9830	3.9830	0.8422	27.29	1.35	1.500			
0.2912	18635.17	3.9800	3.9800	0.8389	27.28	1.34	1.500			
0.2936	18793.23	3.9770	3.9770	0.8413	27.28	1.34	1.500			
0.2962	18954.77	3.9740	3.9740	0.8450	27.27	1.33	1.500			
0.2987	19117.60	3.9710	3.9709	0.8505	27.27	1.33	1.500			
0.3013	19282.31	3.9680	3.9680	0.8568	27.26	1.32	1.500			
0.3039	19447.43	3.9650	3.9651	0.8631	27.26	1.32	1.500			
0.3065	19614.11	3.9620	3.9620	0.8675	27.25	1.31	1.500			
0.3091	19780.78	3.9590	3.9590	0.8744	27.25	1.31	1.500			
0.3117	19948.83	3.9560	3.9560	0.8675	27.24	1.30	1.500			
0.3143	20116.88	3.9530	3.9529	0.8732	27.23	1.29	1.500			
0.3169	20283.60	3.9500	3.9501	0.8775	27.23	1.29	1.500			
0.3196	20451.26	3.9470	3.9470	0.8829	27.22	1.28	1.500			
0.3222	20620.78	3.9440	3.9439	0.8850	27.22	1.28	1.500			
0.3249	20791.80	3.9410	3.9410	0.8905	27.21	1.27	1.500			
0.3275	20962.33	3.9380	3.9381	0.8958	27.20	1.26	1.500			
0.3303	21137.60	3.9350	3.9350	0.9048	27.20	1.26	1.500			
0.3330	21310.53	3.9320	3.9320	0.9045	27.19	1.25	1.500			
0.3357	21484.13	3.9290	3.9290	0.9074	27.18	1.24	1.500			
0.3384	21658.03	3.9260	3.9261	0.9115	27.18	1.24	1.500			
0.3412	21834.50	3.9230	3.9229	0.9179	27.17	1.23	1.500			
0.3439	22010.21	3.9200	3.9200	0.9229	27.16	1.22	1.500			
0.3467	22186.17	3.9170	3.9170	0.9285	27.16	1.22	1.500			
0.3495	22364.93	3.9140	3.9140	0.9383	27.15	1.21	1.500			
0.3523	22546.99	3.9110	3.9110	0.9460	27.14	1.20	1.500			
0.3552	22730.12	3.9080	3.9080	0.9527	27.14	1.20	1.500			
0.3580	22913.94	3.9050	3.9049	0.9593	27.13	1.19	1.500			
0.3609	23099.45	3.9020	3.9019	0.9640	27.12	1.18	1.500			
0.3638	23283.15	3.8990	3.8990	0.9716	27.11	1.17	1.500			
0.3667	23470.05	3.8960	3.8960	0.9815	27.11	1.17	1.500			
0.3697	23659.17	3.8930	3.8930	0.9888	27.10	1.16	1.500			
0.3727	23851.62	3.8900	3.8900	1.0012	27.09	1.15	1.500			
0.3757	24045.41	3.8870	3.8870	1.0121	27.08	1.14	1.500			
0.3788	24241.11	3.8840	3.8841	1.0180	27.07	1.13	1.500			
0.3818	24437.46	3.8810	3.8809	1.0295	27.06	1.12	1.500			
0.3849	24634.67	3.8780	3.8781	1.0410	27.06	1.12	1.500			
0.3880	24834.50	3.8750	3.8750	1.0531	27.05	1.11	1.500			
0.3912	25038.39	3.8720	3.8719	1.0691	27.04	1.10	1.500			
0.3945	25246.34	3.8690	3.8691	1.0820	27.03	1.09	1.500			
0.3978	25457.73	3.8660	3.8659	1.0903	27.02	1.08	1.500			
0.4010	25665.90	3.8630	3.8632	1.1040	27.02	1.08	1.500			
0.4043	25876.36	3.8600	3.8600	1.1158	27.01	1.07	1.500			
0.4077	26092.67	3.8570	3.8568	1.1274	27.00	1.06	1.500			
0.4111	26310.39	3.8540	3.8540	1.1387	26.99	1.05	1.500			
0.4145	26529.91	3.8510	3.8511	1.1564	26.98	1.04	1.500			
0.4181	26756.53	3.8480	3.8480	1.1768	26.97	1.03	1.500			
0.4216	26982.79	3.8450	3.8449	1.1904	26.96	1.02	1.500			
0.4252	27211.81	3.8420	3.8421	1.2079	26.95	1.01	1.500			
0.4288	27444.70	3.8390	3.8390	1.2288	26.94	1.00	1.500			
0.4326	27683.62	3.8360	3.8360	1.2520	26.93	0.99	1.500			
0.4363	27926.18	3.8330	3.8330	1.2711	26.92	0.98	1.500			
0.4402	28170.14	3.8300	3.8300	1.2944	26.90	0.96	1.500			
0.4441	28422.35	3.8270	3.8269	1.3158	26.89	0.95	1.500			
0.4481	28677.13	3.8240	3.8240	1.3388	26.88	0.94	1.500			
0.4521	28936.77	3.8210	3.8210	1.3623	26.86	0.92	1.500			
0.4563	29201.24	3.8180	3.8180	1.3847	26.85	0.91	1.500			
0.4605	29469.17	3.8150	3.8151	1.4103	26.83	0.89	1.500			
0.4647	29741.56	3.8120	3.8120	1.4381	26.82	0.88	1.500			
0.4691	30021.85	3.8090	3.8090	1.4430	26.80	0.86	1.500			
0.4735	30300.90	3.8060	3.8060	1.4703	26.78	0.84	1.500			
0.4779	30585.48	3.8030	3.8032	1.5004	26.77	0.83	1.500			
0.4824	30873.21	3.8000	3.7997	1.5264	26.75	0.81	1.500			
0.4870	31168.57	3.7970	3.7970	1.5581	26.74	0.80	1.500			
0.4918	31472.88	3.7940	3.7940	1.5739	26.72	0.78	1.500			
0.4966	31781.38	3.7910	3.7910	1.6035	26.70	0.76	1.500			
0.5014	32089.43	3.7880	3.7881	1.6458	26.68	0.74	1.500			
0.5064	32409.19	3.7850	3.7849	1.6796	26.67	0.73	1.500			
0.5115	32737.97	3.7820	3.7821	1.6965	26.65	0.71	1.500	0.345	0.476	
0.5167	33068.47	3.7790	3.7790	1.7039	26.63	0.69	1.500			
0.5219	33398.87	3.7760	3.7760	1.7180	26.62	0.68	1.500			
0.5269	33722.57	3.7730	3.7729	1.7045	26.60	0.66	1.500			
0.5320	34049.13	3.7700	3.7699	1.7134	26.58	0.64	1.500			
0.5372	34380.09	3.7670	3.7671	1.7127	26.57	0.63	1.500			
0.5424	34712.57	3.7640	3.7640	1.7157	26.55	0.61	1.500			
0.5475	35037.45	3.7610	3.7610	1.7124	26.53	0.59	1.500			
0.5526	35367.76	3.7580	3.7580	1.7234	26.52	0.58	1.500			
0.5578	35697.56	3.7550	3.7548	1.7376	26.50	0.56	1.500			
0.5630	36031.26	3.7520	3.7521	1.7715	26.48	0.54	1.500			
0.5684	36376.34	3.7490	3.7489	1.7822	26.47	0.53	1.500			
0.5738	36721.96	3.7460	3.7460	1.8033	26.45	0.51	1.500			
0.5792	37067.24	3.7430	3.7430	1.8298	26.43	0.49	1.500			
0.5847	37422.25	3.7400	3.7400	1.8586	26.41	0.47	1.500			
0.5903	37777.07	3.7370	3.7371	1.9026	26.40	0.46	1.500			
0.5961	38150.22	3.7340	3.7340	1.9585	26.38	0.44	1.500			
0.6020	38530.55	3.7310	3.7310	2.0105	26.36	0.42	1.500			
0.6081	38920.01	3.7280	3.7280	2.0721	26.34	0.40	1.500			
0.6145	39326.64	3.7250	3.7249	2.1250	26.32	0.38	1.500			
0.6209	39735.56	3.7220	3.7221	2.1797	26.31	0.37	1.500			
0.6276	40164.47	3.7190	3.7190	2.2452	26.29	0.35	1.500			
0.6344	40599.06	3.7160	3.7160	2.2921	26.28	0.34	1.500			
0.6413	41044.23	3.7130	3.7130	2.3254	26.25	0.31	1.500			
0.6484	41496.84	3.7100	3.7100	2.3210	26.23	0.29	1.500			
0.6554	41943.47	3.7070	3.7069	2.3002	26.21	0.27	1.500			
0.6623	42387.89	3.7040	3.7040	2.2137	26.19	0.25	1.500			
0.6689	42807.91	3.7010	3.7010	2.0808	26.18	0.24	1.500			
0.6748	43185.72	3.6980	3.6981	1.9119	26.17	0.23	1.500			
0.6803	43539.06	3.6950	3.6950	1.7899	26.16	0.22	1.500			
0.6854	43866.41	3.6920	3.6920	1.6856	26.15	0.21	1.500			
0.6903	44177.06	3.6890	3.6890	1.5867	26.14	0.20	1.500			
0.6949	44474.25	3.6860	3.6860	1.5103	26.13	0.19	1.500			
0.6993	44755.65	3.6830	3.6830	1.4458	26.12	0.18	1.500			
0.7035	45023.21	3.6800	3.6799	1.3848	26.11	0.17	1.500			
0.7075	45280.17	3.6770	3.6770	1.3398	26.10	0.16	1.500			
0.7114	45526.70	3.6740	3.6740	1.3080	26.09	0.15	1.500			
0.7152	45775.71	3.6710	3.6709	1.2869	26.08	0.14	1.500			
0.7191	46020.02	3.6680	3.6680	1.2712	26.07	0.13	1.500			
0.7228	46262.34	3.6650	3.6650	1.2641	26.06	0.12	1.500			
0.7266	46502.82	3.6620	3.6621	1.2631	26.06	0.12	1.500			
0.7304	46745.43	3.6590	3.6590	1.2662	26.05	0.11	1.500			
0.7342	46986.43	3.6560	3.6560	1.2634	26.04	0.10	1.500			
0.7380	47230.81	3.6530	3.6530	1.2625	26.03	0.09	1.500			
0.7418	47477.17	3.6500	3.6500	1.2574	26.02	0.08	1.500			
0.7456	47717.48	3.6470	3.6470	1.2439	26.01	0.07	1.500			
0.7493	47954.79	3.6440	3.6440	1.2347	26.00	0.06	1.500			
0.7530	48189.25	3.6410	3.6410	1.2266	25.99	0.05	1.500			
0.7566	48422.42	3.6380	3.6379	1.2173	25.98	0.04	1.500			
0.7603	48656.26	3.6350	3.6350	1.2091	25.98	0.04	1.500			
0.7639	48888.82	3.6320	3.6320	1.2061	25.97	0.03	1.500			
0.7675	49120.66	3.6290	3.6291	1.1930	25.97	0.03	1.500			
0.7711	49349.77	3.6260	3.6260	1.1801	25.96	0.02	1.500			
0.7746	49574.27	3.6230	3.6230	1.1661	25.96	0.02	1.500			
0.7781	49797.90	3.6200	3.6200	1.1514	25.96	0.02	1.500			
0.7815	50017.53	3.6170	3.6169	1.1356	25.95	0.01	1.500			
0.7849	50234.10	3.6140	3.6140	1.1188	25.95	0.01	1.500			
0.7882	50446.96	3.6110	3.6110	1.0982	25.95	0.01	1.500			
0.7915	50657.51	3.6080	3.6080	1.0785	25.95	0.01	1.500			
0.7947	50863.16	3.6050	3.6050	1.0528	25.95	0.01	1.500			
0.7979	51063.41	3.6020	3.6020	1.0237	25.94	0.00	1.500			
0.8009	51258.95	3.5990	3.5990	0.9970	25.94	0.00	1.500			
0.8039	51447.75	3.5960	3.5960	0.9615	25.94	0.00	1.500			
0.8067	51630.49	3.5930	3.5930	0.9233	25.94	0.00	1.500			
0.8095	51807.21	3.5900	3.5901	0.8691	25.94	-0.00	1.500			
0.8121	51973.16	3.5870	3.5869	0.8105	25.94	-0.00	1.500			
0.8145	52125.67	3.5840	3.5841	0.7313	25.94	-0.00	1.500			
0.8166	52262.03	3.5810	3.5810	0.6469	25.94	-0.00	1.500			
0.8184	52376.56	3.5780	3.5780	0.5613	25.94	-0.00	1.500			
0.8199	52473.05	3.5750	3.5750	0.4741	25.94	-0.00	1.500			
0.8211	52551.10	3.5720	3.5720	0.3978	25.93	-0.01	1.500			
0.8222	52618.00	3.5690	3.5689	0.3423	25.93	-0.01	1.500			
0.8230	52674.09	3.5660	3.5660	0.2923	25.93	-0.01	1.500			
0.8238	52724.33	3.5630	3.5630	0.2579	25.93	-0.01	1.500			
0.8245	52769.66	3.5600	3.5600	0.2272	25.93	-0.01	1.500			
0.8251	52808.65	3.5570	3.5570	0.2034	25.93	-0.01	1.500			
0.8257	52844.41	3.5540	3.5539	0.1830	25.93	-0.01	1.500			
0.8262	52877.51	3.5510	3.5510	0.1651	25.93	-0.01	1.500			
0.8267	52907.46	3.5480	3.5480	0.1502	25.93	-0.01	1.500			
0.8271	52934.48	3.5450	3.5451	0.1347	25.93	-0.01	1.500			
0.8275	52959.01	3.5420	3.5420	0.1201	25.93	-0.01	1.500			
0.8278	52980.55	3.5390	3.5389	0.1050	25.93	-0.01	1.500			
0.8281	52999.31	3.5360	3.5361	0.0905	25.93	-0.01	1.500			
0.8284	53015.20	3.5330	3.5332	0.0759	25.93	-0.01	1.500			
0.8286	53028.98	3.5300	3.5300	0.0612	25.93	-0.01	1.500			
0.8287	53039.22	3.5270	3.5274	0.0455	25.93	-0.01	1.500			
0.8289	53046.44	3.5240	3.5250	0.0298	25.93	-0.01	1.500			
