Ah_balance (normalized)	Ah_balance (mAh)	Voltage - fit (V)	Voltage -  interpolate (V)	dQ/dV (1/V)	Temperature (°C)	Temperature - diff (°C)	Current (C)	R_DC 0ms (mOhm)	R_DC 50ms (mOhm)	R_DC 50 ms PEC (mOhm)
0.2890	18497.16	3.9680	3.9679	0.9214	27.09	1.16	1.500			
0.2918	18674.18	3.9650	3.9651	0.9161	27.09	1.16	1.500			
0.2945	18847.83	3.9620	3.9620	0.9100	27.09	1.16	1.500			
0.2972	19022.22	3.9590	3.9591	0.9069	27.08	1.15	1.500			
0.2999	19196.66	3.9560	3.9559	0.9100	27.08	1.15	1.500			
0.3026	19368.80	3.9530	3.9530	0.9107	27.08	1.15	1.500			
0.3054	19544.87	3.9500	3.9500	0.9082	27.08	1.15	1.500			
0.3081	19720.31	3.9470	3.9472	0.9093	27.07	1.14	1.500			
0.3109	19894.93	3.9440	3.9440	0.9179	27.07	1.14	1.500			
0.3136	20070.23	3.9410	3.9408	0.9226	27.07	1.14	1.500			
0.3164	20247.14	3.9380	3.9379	0.9277	27.07	1.14	1.500			
0.3192	20425.61	3.9350	3.9351	0.9310	27.06	1.13	1.500			
0.3220	20606.75	3.9320	3.9320	0.9400	27.06	1.13	1.500			
0.3248	20789.43	3.9290	3.9290	0.9484	27.06	1.13	1.500			
0.3277	20971.56	3.9260	3.9259	0.9513	27.05	1.12	1.500			
0.3305	21153.31	3.9230	3.9230	0.9531	27.05	1.12	1.500			
0.3334	21336.86	3.9200	3.9200	0.9604	27.05	1.12	1.500			
0.3363	21522.29	3.9170	3.9171	0.9666	27.04	1.11	1.500			
0.3392	21708.83	3.9140	3.9139	0.9760	27.04	1.11	1.500			
0.3421	21895.47	3.9110	3.9110	0.9818	27.04	1.11	1.500			
0.3451	22083.77	3.9080	3.9080	0.9917	27.03	1.10	1.500			
0.3481	22275.94	3.9050	3.9050	1.0013	27.03	1.10	1.500			
0.3511	22469.08	3.9020	3.9020	1.0142	27.02	1.09	1.500			
0.3541	22665.44	3.8990	3.8990	1.0220	27.02	1.09	1.500			
0.3573	22865.19	3.8960	3.8961	1.0224	27.02	1.09	1.500			
0.3603	23059.57	3.8930	3.8930	1.0293	27.01	1.08	1.500			
0.3634	23256.56	3.8900	3.8902	1.0388	27.01	1.08	1.500			
0.3665	23455.62	3.8870	3.8867	1.0525	27.00	1.07	1.500			
0.3696	23657.41	3.8840	3.8840	1.0669	27.00	1.07	1.500			
0.3729	23863.34	3.8810	3.8810	1.0829	26.99	1.06	1.500			
0.3762	24078.27	3.8780	3.8780	1.0987	26.98	1.05	1.500			
0.3795	24290.85	3.8750	3.8750	1.1111	26.98	1.05	1.500			
0.3828	24501.05	3.8720	3.8721	1.1185	26.97	1.04	1.500			
0.3862	24717.54	3.8690	3.8691	1.1345	26.96	1.03	1.500			
0.3896	24934.72	3.8660	3.8660	1.1486	26.96	1.03	1.500			
0.3931	25157.12	3.8630	3.8630	1.1684	26.95	1.02	1.500			
0.3966	25384.54	3.8600	3.8600	1.1833	26.94	1.01	1.500			
0.4002	25614.60	3.8570	3.8570	1.1966	26.94	1.01	1.500			
0.4038	25844.05	3.8540	3.8540	1.2124	26.93	1.00	1.500			
0.4075	26078.52	3.8510	3.8510	1.2324	26.92	0.99	1.500			
0.4112	26316.09	3.8480	3.8480	1.2509	26.91	0.98	1.500			
0.4150	26557.76	3.8450	3.8450	1.2726	26.91	0.98	1.500			
0.4188	26805.18	3.8420	3.8421	1.2985	26.90	0.97	1.500			
0.4228	27060.28	3.8390	3.8389	1.3170	26.89	0.96	1.500			
0.4267	27311.90	3.8360	3.8360	1.3455	26.88	0.95	1.500			
0.4308	27572.65	3.8330	3.8330	1.3637	26.88	0.95	1.500			
0.4349	27835.25	3.8300	3.8300	1.3969	26.87	0.94	1.500			
0.4392	28106.94	3.8270	3.8271	1.4282	26.86	0.93	1.500			
0.4435	28383.30	3.8240	3.8241	1.4628	26.85	0.92	1.500			
0.4479	28667.36	3.8210	3.8208	1.4988	26.84	0.91	1.500			
0.4525	28959.14	3.8180	3.8181	1.5338	26.83	0.90	1.500			
0.4571	29253.05	3.8150	3.8150	1.5703	26.82	0.89	1.500			
0.4619	29560.65	3.8120	3.8120	1.6140	26.80	0.87	1.500			
0.4668	29873.98	3.8090	3.8089	1.6477	26.79	0.86	1.500			
0.4718	30196.68	3.8060	3.8060	1.6857	26.78	0.85	1.500			
0.4769	30521.94	3.8030	3.8030	1.7358	26.77	0.84	1.500			
0.4822	30858.11	3.8000	3.8001	1.7923	26.76	0.83	1.500			
0.4876	31204.81	3.7970	3.7969	1.8426	26.74	0.81	1.500			
0.4932	31565.39	3.7940	3.7940	1.8912	26.73	0.80	1.500			
0.4990	31936.03	3.7910	3.7910	1.9597	26.71	0.78	1.500			
0.5050	32318.40	3.7880	3.7880	2.0192	26.69	0.76	1.500			
0.5111	32709.53	3.7850	3.7849	2.0675	26.67	0.74	1.500			
0.5174	33110.92	3.7820	3.7821	2.1293	26.65	0.72	1.500			
0.5238	33525.74	3.7790	3.7790	2.1857	26.63	0.70	1.500			
0.5305	33949.50	3.7760	3.7760	2.2545	26.61	0.68	1.500			
0.5373	34386.36	3.7730	3.7729	2.3319	26.58	0.65	1.500			
0.5445	34847.00	3.7700	3.7699	2.3362	26.56	0.63	1.500			
0.5516	35302.22	3.7670	3.7671	2.3907	26.54	0.61	1.500			
0.5589	35770.56	3.7640	3.7640	2.4260	26.51	0.58	1.500			
0.5662	36239.01	3.7610	3.7609	2.4408	26.49	0.56	1.500	0.366	0.452	
0.5735	36705.91	3.7580	3.7582	2.4389	26.47	0.54	1.500			
0.5810	37181.45	3.7550	3.7549	2.4414	26.44	0.51	1.500			
0.5882	37642.19	3.7520	3.7518	2.3932	26.42	0.49	1.500			
0.5955	38112.00	3.7490	3.7490	2.3820	26.40	0.47	1.500			
0.6024	38555.81	3.7460	3.7460	2.3506	26.38	0.45	1.500			
0.6094	39001.02	3.7430	3.7431	2.3246	26.35	0.42	1.500			
0.6164	39452.07	3.7400	3.7400	2.3250	26.33	0.40	1.500			
0.6234	39899.37	3.7370	3.7371	2.2940	26.32	0.39	1.500			
0.6303	40340.53	3.7340	3.7341	2.2805	26.30	0.37	1.500			
0.6369	40763.64	3.7310	3.7309	2.2282	26.28	0.35	1.500			
0.6436	41190.90	3.7280	3.7280	2.2363	26.26	0.33	1.500			
0.6503	41618.85	3.7250	3.7250	2.2788	26.24	0.31	1.500			
0.6572	42060.53	3.7220	3.7220	2.3139	26.21	0.28	1.500			
0.6642	42506.16	3.7190	3.7190	2.3747	26.19	0.26	1.500			
0.6714	42969.82	3.7160	3.7160	2.4425	26.17	0.24	1.500			
0.6788	43442.06	3.7130	3.7130	2.5283	26.16	0.23	1.500			
0.6864	43929.27	3.7100	3.7100	2.6276	26.14	0.21	1.500			
0.6945	44449.48	3.7070	3.7071	2.7513	26.13	0.20	1.500			
0.7030	44990.56	3.7040	3.7040	2.8894	26.11	0.18	1.500			
0.7119	45562.18	3.7010	3.7009	2.9593	26.08	0.15	1.500			
0.7210	46141.26	3.6980	3.6980	2.9767	26.06	0.13	1.500			
0.7298	46708.86	3.6950	3.6950	2.9731	26.04	0.11	1.500			
0.7388	47284.39	3.6920	3.6919	2.8493	26.02	0.09	1.500			
0.7473	47828.39	3.6890	3.6890	2.6362	26.01	0.08	1.500			
0.7548	48306.81	3.6860	3.6860	2.4218	26.00	0.07	1.500			
0.7617	48748.13	3.6830	3.6828	2.1786	25.99	0.06	1.500			
0.7677	49133.92	3.6800	3.6801	1.9796	25.98	0.05	1.500			
0.7733	49491.18	3.6770	3.6770	1.8234	25.98	0.05	1.500			
0.7785	49825.94	3.6740	3.6739	1.6923	25.97	0.04	1.500			
0.7832	50126.94	3.6710	3.6710	1.5599	25.97	0.04	1.500			
0.7877	50415.22	3.6680	3.6679	1.4686	25.96	0.03	1.500			
0.7920	50686.22	3.6650	3.6651	1.3958	25.96	0.03	1.500			
0.7960	50943.34	3.6620	3.6620	1.3243	25.95	0.02	1.500			
0.7998	51188.56	3.6590	3.6590	1.2714	25.95	0.02	1.500			
0.8035	51424.71	3.6560	3.6560	1.2289	25.95	0.02	1.500			
0.8071	51651.47	3.6530	3.6531	1.2117	25.95	0.02	1.500			
0.8106	51880.42	3.6500	3.6501	1.2092	25.94	0.01	1.500			
0.8142	52108.33	3.6470	3.6468	1.2087	25.94	0.01	1.500			
0.8178	52340.35	3.6440	3.6440	1.2199	25.94	0.01	1.500			
0.8215	52575.10	3.6410	3.6410	1.2400	25.93	0.00	1.500			
0.8253	52816.30	3.6380	3.6380	1.2541	25.93	0.00	1.500			
0.8291	53060.70	3.6350	3.6350	1.2649	25.93	-0.00	1.500			
0.8329	53302.76	3.6320	3.6320	1.2788	25.92	-0.01	1.500			
0.8368	53552.29	3.6290	3.6291	1.2803	25.92	-0.01	1.500			
0.8406	53800.49	3.6260	3.6260	1.2829	25.92	-0.01	1.500			
0.8445	54047.04	3.6230	3.6231	1.2800	25.92	-0.01	1.500			
0.8483	54291.49	3.6200	3.6200	1.2762	25.91	-0.02	1.500			
0.8521	54536.56	3.6170	3.6169	1.2750	25.91	-0.02	1.500			
0.8559	54778.18	3.6140	3.6140	1.2731	25.91	-0.02	1.500			
0.8597	55021.78	3.6110	3.6110	1.2745	25.90	-0.03	1.500			
0.8636	55269.96	3.6080	3.6079	1.2806	25.90	-0.03	1.500			
0.8675	55517.45	3.6050	3.6051	1.2796	25.90	-0.03	1.500			
0.8713	55764.91	3.6020	3.6019	1.2698	25.90	-0.03	1.500			
0.8752	56010.30	3.5990	3.5990	1.2574	25.90	-0.03	1.500			
0.8789	56250.55	3.5960	3.5960	1.2373	25.90	-0.03	1.500			
0.8826	56484.91	3.5930	3.5930	1.2185	25.90	-0.03	1.500			
0.8862	56717.01	3.5900	3.5900	1.2021	25.90	-0.03	1.500			
0.8897	56943.69	3.5870	3.5870	1.1926	25.90	-0.03	1.500			
0.8933	57170.30	3.5840	3.5840	1.1874	25.91	-0.02	1.500			
0.8968	57395.49	3.5810	3.5810	1.1996	25.91	-0.02	1.500			
0.9004	57625.78	3.5780	3.5779	1.2077	25.91	-0.02	1.500			
0.9041	57860.04	3.5750	3.5750	1.2209	25.92	-0.01	1.500			
0.9079	58105.56	3.5720	3.5719	1.1912	25.92	-0.01	1.500			
0.9116	58344.76	3.5690	3.5690	1.1402	25.93	-0.00	1.500			
0.9151	58566.04	3.5660	3.5661	1.0188	25.93	0.00	1.500			
0.9181	58761.40	3.5630	3.5632	0.8887	25.94	0.01	1.500			
0.9205	58914.82	3.5600	3.5600	0.7318	25.94	0.01	1.500			
0.9224	59034.65	3.5570	3.5569	0.5789	25.94	0.01	1.500			
0.9237	59118.93	3.5540	3.5539	0.4584	25.94	0.01	1.500			
0.9248	59189.55	3.5510	3.5510	0.3715	25.94	0.01	1.500			
0.9257	59247.79	3.5480	3.5478	0.2932	25.94	0.01	1.500			
0.9265	59295.81	3.5450	3.5450	0.2461	25.95	0.02	1.500			
0.9271	59334.48	3.5420	3.5419	0.2064	25.95	0.02	1.500			
0.9277	59369.70	3.5390	3.5389	0.1738	25.95	0.02	1.500			
0.9281	59398.02	3.5360	3.5360	0.1486	25.95	0.02	1.500			
0.9285	59423.64	3.5330	3.5330	0.1248	25.95	0.02	1.500			
0.9288	59445.45	3.5300	3.5299	0.1037	25.95	0.02	1.500			
0.9291	59463.00	3.5270	3.5271	0.0831	25.95	0.02	1.500			
0.9293	59477.04	3.5240	3.5244	0.0632	25.95	0.02	1.500			
0.9295	59487.21	3.5210	3.5215	0.0448	25.95	0.02	1.500			
