Ah_balance (normalized)	Ah_balance (mAh)	Voltage - fit (V)	Voltage -  interpolate (V)	dQ/dV (1/V)	Temperature (°C)	Temperature - diff (°C)	Current (C)	R_DC 0ms (mOhm)	R_DC 50ms (mOhm)	R_DC 50 ms PEC (mOhm)
0.2903	18577.35	3.9910	3.9910	0.8054	27.33	1.34	1.500			
0.2927	18734.51	3.9880	3.9880	0.8244	27.33	1.34	1.500			
0.2952	18895.46	3.9850	3.9849	0.8359	27.32	1.33	1.500			
0.2978	19057.07	3.9820	3.9820	0.8422	27.32	1.33	1.500			
0.3003	19220.31	3.9790	3.9790	0.8431	27.31	1.32	1.500			
0.3029	19383.66	3.9760	3.9760	0.8465	27.30	1.31	1.500			
0.3054	19545.33	3.9730	3.9730	0.8482	27.30	1.31	1.500			
0.3079	19706.93	3.9700	3.9699	0.8524	27.29	1.30	1.500			
0.3105	19870.25	3.9670	3.9670	0.8567	27.29	1.30	1.500			
0.3131	20036.20	3.9640	3.9640	0.8601	27.28	1.29	1.500			
0.3157	20203.17	3.9610	3.9610	0.8624	27.27	1.28	1.500			
0.3183	20369.49	3.9580	3.9580	0.8649	27.27	1.28	1.500			
0.3208	20534.13	3.9550	3.9550	0.8686	27.26	1.27	1.500			
0.3234	20700.21	3.9520	3.9520	0.8738	27.25	1.26	1.500			
0.3260	20867.02	3.9490	3.9490	0.8784	27.25	1.26	1.500			
0.3287	21037.55	3.9460	3.9460	0.8844	27.24	1.25	1.500			
0.3314	21209.15	3.9430	3.9430	0.8950	27.23	1.24	1.500			
0.3341	21381.90	3.9400	3.9401	0.8989	27.22	1.23	1.500			
0.3368	21555.16	3.9370	3.9370	0.9013	27.21	1.22	1.500			
0.3395	21728.45	3.9340	3.9340	0.9038	27.20	1.21	1.500			
0.3422	21902.53	3.9310	3.9311	0.9072	27.19	1.20	1.500			
0.3449	22076.59	3.9280	3.9280	0.9105	27.17	1.18	1.500			
0.3477	22250.87	3.9250	3.9250	0.9212	27.16	1.17	1.500			
0.3504	22426.55	3.9220	3.9220	0.9266	27.15	1.16	1.500			
0.3532	22606.46	3.9190	3.9190	0.9368	27.14	1.15	1.500			
0.3561	22789.07	3.9160	3.9160	0.9437	27.13	1.14	1.500			
0.3589	22971.38	3.9130	3.9130	0.9478	27.12	1.13	1.500			
0.3618	23154.50	3.9100	3.9100	0.9508	27.11	1.12	1.500			
0.3646	23336.52	3.9070	3.9070	0.9555	27.10	1.11	1.500			
0.3675	23518.62	3.9040	3.9040	0.9617	27.09	1.10	1.500			
0.3704	23703.60	3.9010	3.9010	0.9708	27.08	1.09	1.500			
0.3733	23890.92	3.8980	3.8980	0.9802	27.07	1.08	1.500			
0.3763	24080.84	3.8950	3.8950	0.9942	27.06	1.07	1.500			
0.3793	24272.49	3.8920	3.8920	1.0037	27.05	1.06	1.500			
0.3823	24467.04	3.8890	3.8890	1.0150	27.04	1.05	1.500			
0.3854	24662.52	3.8860	3.8860	1.0243	27.02	1.03	1.500			
0.3885	24861.27	3.8830	3.8830	1.0294	27.01	1.02	1.500			
0.3916	25059.24	3.8800	3.8801	1.0397	27.00	1.01	1.500			
0.3947	25259.36	3.8770	3.8770	1.0495	26.99	1.00	1.500			
0.3978	25459.95	3.8740	3.8740	1.0616	26.98	0.99	1.500			
0.4010	25665.00	3.8710	3.8710	1.0719	26.97	0.98	1.500			
0.4043	25872.40	3.8680	3.8680	1.0820	26.96	0.97	1.500			
0.4075	26081.94	3.8650	3.8650	1.0965	26.94	0.95	1.500			
0.4108	26294.11	3.8620	3.8620	1.1106	26.93	0.94	1.500			
0.4142	26508.61	3.8590	3.8590	1.1157	26.92	0.93	1.500			
0.4175	26722.47	3.8560	3.8560	1.1346	26.91	0.92	1.500			
0.4209	26939.49	3.8530	3.8531	1.1508	26.90	0.91	1.500			
0.4244	27162.98	3.8500	3.8500	1.1772	26.88	0.89	1.500			
0.4280	27390.83	3.8470	3.8470	1.2014	26.88	0.89	1.500			
0.4316	27623.35	3.8440	3.8440	1.2206	26.86	0.87	1.500			
0.4353	27862.07	3.8410	3.8410	1.2390	26.84	0.85	1.500			
0.4391	28104.26	3.8380	3.8380	1.2437	26.83	0.84	1.500			
0.4428	28340.30	3.8350	3.8350	1.2603	26.81	0.82	1.500			
0.4466	28582.44	3.8320	3.8321	1.2808	26.80	0.81	1.500			
0.4505	28829.61	3.8290	3.8288	1.2999	26.78	0.79	1.500			
0.4544	29079.83	3.8260	3.8261	1.3247	26.77	0.78	1.500			
0.4584	29336.82	3.8230	3.8231	1.3579	26.75	0.76	1.500			
0.4626	29604.91	3.8200	3.8199	1.3732	26.74	0.75	1.500			
0.4667	29869.21	3.8170	3.8170	1.3897	26.72	0.73	1.500			
0.4709	30136.57	3.8140	3.8141	1.4132	26.70	0.71	1.500			
0.4752	30410.73	3.8110	3.8108	1.4443	26.68	0.69	1.500			
0.4795	30689.69	3.8080	3.8081	1.4754	26.66	0.67	1.500			
0.4840	30975.13	3.8050	3.8050	1.4980	26.65	0.66	1.500			
0.4885	31266.13	3.8020	3.8020	1.5294	26.63	0.64	1.500			
0.4932	31566.71	3.7990	3.7990	1.5414	26.62	0.63	1.500			
0.4979	31867.21	3.7960	3.7960	1.5514	26.60	0.61	1.500			
0.5025	32161.23	3.7930	3.7931	1.5868	26.58	0.59	1.500			
0.5073	32467.60	3.7900	3.7899	1.6174	26.56	0.57	1.500			
0.5122	32781.28	3.7870	3.7871	1.6311	26.55	0.56	1.500	0.340	0.484	
0.5172	33099.08	3.7840	3.7841	1.6499	26.53	0.54	1.500			
0.5222	33421.91	3.7810	3.7811	1.6711	26.51	0.52	1.500			
0.5272	33739.20	3.7780	3.7780	1.6568	26.49	0.50	1.500			
0.5321	34057.32	3.7750	3.7750	1.6651	26.48	0.49	1.500			
0.5372	34379.94	3.7720	3.7721	1.6668	26.46	0.47	1.500			
0.5422	34701.93	3.7690	3.7690	1.6744	26.45	0.46	1.500			
0.5472	35021.16	3.7660	3.7661	1.6817	26.43	0.44	1.500			
0.5522	35343.69	3.7630	3.7631	1.7014	26.41	0.42	1.500			
0.5574	35672.40	3.7600	3.7601	1.7125	26.40	0.41	1.500			
0.5626	36004.04	3.7570	3.7570	1.7240	26.38	0.39	1.500			
0.5677	36334.46	3.7540	3.7540	1.7311	26.36	0.37	1.500			
0.5729	36666.51	3.7510	3.7510	1.7570	26.35	0.36	1.500			
0.5782	37006.61	3.7480	3.7479	1.7891	26.33	0.34	1.500			
0.5836	37351.56	3.7450	3.7450	1.8209	26.31	0.32	1.500			
0.5891	37705.28	3.7420	3.7421	1.8616	26.30	0.31	1.500			
0.5948	38066.69	3.7390	3.7390	1.8934	26.28	0.29	1.500			
0.6005	38432.62	3.7360	3.7360	1.9300	26.26	0.27	1.500			
0.6063	38804.12	3.7330	3.7331	1.9924	26.25	0.26	1.500			
0.6124	39191.76	3.7300	3.7299	2.0342	26.24	0.25	1.500			
0.6185	39586.07	3.7270	3.7270	2.1088	26.23	0.24	1.500			
0.6250	39997.96	3.7240	3.7239	2.1762	26.22	0.23	1.500			
0.6316	40423.65	3.7210	3.7210	2.2328	26.20	0.21	1.500			
0.6384	40856.40	3.7180	3.7180	2.2421	26.18	0.19	1.500			
0.6452	41292.00	3.7150	3.7151	2.2593	26.16	0.17	1.500			
0.6520	41730.41	3.7120	3.7119	2.2673	26.15	0.16	1.500			
0.6590	42176.47	3.7090	3.7091	2.2065	26.13	0.14	1.500			
0.6656	42601.51	3.7060	3.7060	2.1264	26.12	0.13	1.500			
0.6718	42994.82	3.7030	3.7031	1.9865	26.11	0.12	1.500			
0.6775	43360.20	3.7000	3.6999	1.8433	26.10	0.11	1.500			
0.6827	43695.78	3.6970	3.6971	1.7236	26.09	0.10	1.500			
0.6877	44015.31	3.6940	3.6940	1.6216	26.08	0.09	1.500			
0.6924	44316.65	3.6910	3.6909	1.5398	26.07	0.08	1.500			
0.6968	44595.51	3.6880	3.6881	1.4567	26.07	0.08	1.500			
0.7011	44869.25	3.6850	3.6850	1.4023	26.06	0.07	1.500			
0.7052	45131.79	3.6820	3.6820	1.3635	26.05	0.06	1.500			
0.7092	45385.92	3.6790	3.6790	1.3202	26.04	0.05	1.500			
0.7130	45633.03	3.6760	3.6760	1.2884	26.03	0.04	1.500			
0.7168	45878.09	3.6730	3.6730	1.2710	26.03	0.04	1.500			
0.7206	46119.10	3.6700	3.6700	1.2557	26.02	0.03	1.500			
0.7243	46356.40	3.6670	3.6670	1.2542	26.01	0.02	1.500			
0.7280	46594.69	3.6640	3.6639	1.2572	26.00	0.01	1.500			
0.7318	46837.00	3.6610	3.6610	1.2530	26.00	0.01	1.500			
0.7356	47080.65	3.6580	3.6580	1.2555	25.99	-0.00	1.500			
0.7394	47323.20	3.6550	3.6551	1.2420	25.98	-0.01	1.500			
0.7431	47561.15	3.6520	3.6520	1.2310	25.97	-0.02	1.500			
0.7468	47795.71	3.6490	3.6490	1.2151	25.97	-0.02	1.500			
0.7504	48025.42	3.6460	3.6458	1.2052	25.96	-0.03	1.500			
0.7540	48254.08	3.6430	3.6431	1.1945	25.96	-0.03	1.500			
0.7576	48484.40	3.6400	3.6400	1.1858	25.95	-0.04	1.500			
0.7611	48712.03	3.6370	3.6371	1.1777	25.95	-0.04	1.500			
0.7646	48936.46	3.6340	3.6340	1.1645	25.95	-0.04	1.500			
0.7681	49159.85	3.6310	3.6309	1.1546	25.95	-0.04	1.500			
0.7716	49380.24	3.6280	3.6280	1.1443	25.94	-0.05	1.500			
0.7750	49598.51	3.6250	3.6250	1.1300	25.94	-0.05	1.500			
0.7784	49816.65	3.6220	3.6220	1.1170	25.94	-0.05	1.500			
0.7817	50031.06	3.6190	3.6190	1.0971	25.94	-0.05	1.500			
0.7850	50240.22	3.6160	3.6160	1.0740	25.94	-0.05	1.500			
0.7882	50444.25	3.6130	3.6131	1.0510	25.93	-0.06	1.500			
0.7913	50644.00	3.6100	3.6100	1.0228	25.93	-0.06	1.500			
0.7943	50837.08	3.6070	3.6070	0.9944	25.93	-0.06	1.500			
0.7973	51024.66	3.6040	3.6040	0.9699	25.93	-0.06	1.500			
0.8001	51208.48	3.6010	3.6009	0.9398	25.93	-0.06	1.500			
0.8029	51388.15	3.5980	3.5979	0.9094	25.94	-0.05	1.500			
0.8057	51561.77	3.5950	3.5950	0.8613	25.94	-0.05	1.500			
0.8082	51726.89	3.5920	3.5920	0.8094	25.95	-0.04	1.500			
0.8106	51880.66	3.5890	3.5890	0.7384	25.95	-0.04	1.500			
0.8128	52017.81	3.5860	3.5860	0.6607	25.96	-0.03	1.500			
0.8146	52137.32	3.5830	3.5830	0.5770	25.96	-0.03	1.500			
0.8162	52239.64	3.5800	3.5801	0.4953	25.97	-0.02	1.500			
0.8176	52323.63	3.5770	3.5769	0.4205	25.97	-0.02	1.500			
0.8187	52394.98	3.5740	3.5740	0.3618	25.97	-0.02	1.500			
0.8196	52454.03	3.5710	3.5709	0.3091	25.98	-0.01	1.500			
0.8204	52506.42	3.5680	3.5680	0.2702	25.98	-0.01	1.500			
0.8211	52552.62	3.5650	3.5650	0.2348	25.98	-0.01	1.500			
0.8218	52593.74	3.5620	3.5620	0.2102	25.98	-0.01	1.500			
0.8223	52630.22	3.5590	3.5590	0.1875	25.98	-0.01	1.500			
0.8229	52663.83	3.5560	3.5560	0.1673	25.98	-0.01	1.500			
0.8233	52693.91	3.5530	3.5530	0.1512	25.99	-0.00	1.500			
0.8238	52720.79	3.5500	3.5499	0.1342	25.99	-0.00	1.500			
0.8241	52744.66	3.5470	3.5470	0.1186	25.99	-0.00	1.500			
0.8245	52765.92	3.5440	3.5439	0.1035	25.99	-0.00	1.500			
0.8248	52784.37	3.5410	3.5410	0.0887	25.99	-0.00	1.500			
0.8250	52799.86	3.5380	3.5382	0.0738	25.99	-0.00	1.500			
0.8252	52813.03	3.5350	3.5352	0.0589	25.99	-0.00	1.500			
0.8254	52822.86	3.5320	3.5325	0.0435	25.99	0.00	1.500			
0.8255	52829.72	3.5290	3.5301	0.0280	25.99	0.00	1.500			
