Ah_balance (normalized)	Ah_balance (mAh)	Voltage - fit (V)	Voltage -  interpolate (V)	dQ/dV (1/V)	Temperature (°C)	Temperature - diff (°C)	Current (C)	R_DC 0ms (mOhm)	R_DC 50ms (mOhm)	R_DC 50 ms PEC (mOhm)
0.2989	19126.85	3.9730	3.9727	0.9027	27.24	1.28	1.500			
0.3015	19295.84	3.9700	3.9700	0.8780	27.24	1.28	1.500			
0.3041	19462.83	3.9670	3.9672	0.8732	27.23	1.27	1.500			
0.3067	19630.12	3.9640	3.9639	0.8722	27.23	1.27	1.500			
0.3093	19797.08	3.9610	3.9610	0.8763	27.23	1.27	1.500			
0.3119	19963.22	3.9580	3.9580	0.8757	27.22	1.26	1.500			
0.3146	20132.42	3.9550	3.9550	0.8794	27.22	1.26	1.500			
0.3172	20303.79	3.9520	3.9520	0.8864	27.22	1.26	1.500			
0.3199	20473.36	3.9490	3.9490	0.8888	27.21	1.25	1.500			
0.3226	20644.32	3.9460	3.9460	0.8908	27.21	1.25	1.500			
0.3252	20815.34	3.9430	3.9430	0.8962	27.21	1.25	1.500			
0.3279	20987.06	3.9400	3.9401	0.8970	27.20	1.24	1.500			
0.3306	21159.68	3.9370	3.9370	0.9064	27.20	1.24	1.500			
0.3334	21334.53	3.9340	3.9340	0.9136	27.19	1.23	1.500			
0.3361	21510.17	3.9310	3.9310	0.9185	27.19	1.23	1.500			
0.3389	21688.34	3.9280	3.9279	0.9224	27.19	1.23	1.500			
0.3417	21867.83	3.9250	3.9251	0.9278	27.18	1.22	1.500			
0.3445	22045.75	3.9220	3.9221	0.9286	27.18	1.22	1.500			
0.3472	22223.70	3.9190	3.9190	0.9353	27.17	1.21	1.500			
0.3500	22402.44	3.9160	3.9160	0.9367	27.17	1.21	1.500			
0.3528	22580.82	3.9130	3.9130	0.9453	27.16	1.20	1.500			
0.3557	22763.53	3.9100	3.9100	0.9532	27.15	1.19	1.500			
0.3586	22949.84	3.9070	3.9070	0.9653	27.14	1.18	1.500			
0.3615	23135.13	3.9040	3.9040	0.9724	27.13	1.17	1.500			
0.3644	23322.97	3.9010	3.9010	0.9788	27.13	1.17	1.500			
0.3674	23510.94	3.8980	3.8980	0.9868	27.12	1.16	1.500			
0.3703	23701.74	3.8950	3.8950	0.9944	27.11	1.15	1.500			
0.3733	23892.68	3.8920	3.8919	0.9999	27.10	1.14	1.500			
0.3764	24086.57	3.8890	3.8890	1.0103	27.09	1.13	1.500			
0.3794	24280.31	3.8860	3.8860	1.0165	27.09	1.13	1.500			
0.3824	24476.01	3.8830	3.8830	1.0257	27.08	1.12	1.500			
0.3855	24673.67	3.8800	3.8800	1.0390	27.07	1.11	1.500			
0.3886	24873.56	3.8770	3.8770	1.0489	27.06	1.10	1.500			
0.3918	25076.87	3.8740	3.8740	1.0613	27.06	1.10	1.500			
0.3950	25281.42	3.8710	3.8710	1.0749	27.05	1.09	1.500			
0.3983	25489.30	3.8680	3.8680	1.0850	27.04	1.08	1.500			
0.4016	25699.22	3.8650	3.8650	1.0971	27.03	1.07	1.500			
0.4049	25910.49	3.8620	3.8620	1.1094	27.03	1.07	1.500			
0.4082	26122.28	3.8590	3.8591	1.1246	27.02	1.06	1.500			
0.4116	26340.27	3.8560	3.8560	1.1432	27.01	1.05	1.500			
0.4150	26562.85	3.8530	3.8530	1.1586	27.01	1.05	1.500			
0.4185	26786.72	3.8500	3.8500	1.1736	27.00	1.04	1.500			
0.4221	27014.79	3.8470	3.8471	1.1904	26.99	1.03	1.500			
0.4257	27243.46	3.8440	3.8441	1.2070	26.99	1.03	1.500			
0.4293	27475.05	3.8410	3.8409	1.2255	26.98	1.02	1.500			
0.4330	27710.54	3.8380	3.8380	1.2512	26.97	1.01	1.500			
0.4368	27953.46	3.8350	3.8350	1.2653	26.96	1.00	1.500			
0.4406	28196.94	3.8320	3.8320	1.2954	26.95	0.99	1.500			
0.4445	28448.04	3.8290	3.8291	1.3247	26.94	0.98	1.500			
0.4485	28705.09	3.8260	3.8257	1.3535	26.93	0.97	1.500			
0.4526	28966.09	3.8230	3.8231	1.3818	26.92	0.96	1.500			
0.4568	29236.12	3.8200	3.8200	1.4131	26.91	0.95	1.500			
0.4611	29510.44	3.8170	3.8170	1.4459	26.90	0.94	1.500			
0.4655	29792.14	3.8140	3.8140	1.4705	26.88	0.92	1.500			
0.4699	30076.44	3.8110	3.8111	1.5002	26.87	0.91	1.500			
0.4745	30366.16	3.8080	3.8080	1.5380	26.86	0.90	1.500			
0.4791	30664.88	3.8050	3.8051	1.5763	26.84	0.88	1.500			
0.4839	30970.22	3.8020	3.8019	1.6118	26.83	0.87	1.500			
0.4888	31283.48	3.7990	3.7990	1.6548	26.81	0.85	1.500			
0.4938	31605.58	3.7960	3.7960	1.6941	26.80	0.84	1.500			
0.4990	31935.60	3.7930	3.7931	1.7402	26.78	0.82	1.500			
0.5043	32275.51	3.7900	3.7900	1.7668	26.76	0.80	1.500			
0.5096	32615.90	3.7870	3.7870	1.8016	26.75	0.79	1.500			
0.5151	32964.35	3.7840	3.7841	1.8583	26.73	0.77	1.500			
0.5207	33326.62	3.7810	3.7810	1.8943	26.72	0.76	1.500			
0.5265	33693.10	3.7780	3.7780	1.9286	26.70	0.74	1.500			
0.5323	34068.42	3.7750	3.7751	1.9513	26.69	0.73	1.500			
0.5382	34447.02	3.7720	3.7720	1.9955	26.67	0.71	1.500			
0.5441	34820.03	3.7690	3.7691	1.9877	26.65	0.69	1.500			
0.5501	35203.48	3.7660	3.7661	2.0305	26.64	0.68	1.500	0.363	0.463	
0.5563	35603.63	3.7630	3.7632	2.0404	26.62	0.66	1.500			
0.5625	35999.59	3.7600	3.7601	2.0390	26.60	0.64	1.500			
0.5688	36403.42	3.7570	3.7571	2.0710	26.58	0.62	1.500			
0.5746	36775.92	3.7540	3.7539	1.9579	26.57	0.61	1.500			
0.5804	37148.51	3.7510	3.7511	1.9470	26.55	0.59	1.500			
0.5862	37515.70	3.7480	3.7480	1.9389	26.54	0.58	1.500			
0.5920	37888.84	3.7450	3.7451	1.9485	26.52	0.56	1.500			
0.5979	38264.49	3.7420	3.7418	1.9600	26.50	0.54	1.500			
0.6038	38643.31	3.7390	3.7391	1.9793	26.49	0.53	1.500			
0.6097	39023.67	3.7360	3.7360	2.0030	26.47	0.51	1.500			
0.6158	39408.41	3.7330	3.7329	2.0178	26.46	0.50	1.500			
0.6218	39796.31	3.7300	3.7300	2.0608	26.44	0.48	1.500			
0.6281	40197.51	3.7270	3.7271	2.1142	26.43	0.47	1.500			
0.6345	40607.35	3.7240	3.7240	2.1536	26.41	0.45	1.500			
0.6410	41022.62	3.7210	3.7211	2.2118	26.40	0.44	1.500			
0.6476	41448.87	3.7180	3.7179	2.2830	26.38	0.42	1.500			
0.6547	41898.13	3.7150	3.7150	2.3401	26.37	0.41	1.500			
0.6618	42354.72	3.7120	3.7121	2.4606	26.35	0.39	1.500			
0.6693	42832.90	3.7090	3.7091	2.5346	26.33	0.37	1.500			
0.6770	43325.93	3.7060	3.7060	2.6153	26.31	0.35	1.500			
0.6850	43838.78	3.7030	3.7031	2.5993	26.30	0.34	1.500			
0.6930	44351.47	3.7000	3.7001	2.6036	26.28	0.32	1.500			
0.7008	44849.56	3.6970	3.6971	2.5589	26.27	0.31	1.500			
0.7085	45345.58	3.6940	3.6940	2.4462	26.25	0.29	1.500			
0.7156	45798.08	3.6910	3.6911	2.2546	26.24	0.28	1.500			
0.7221	46214.14	3.6880	3.6879	2.0759	26.23	0.27	1.500			
0.7280	46593.77	3.6850	3.6850	1.9234	26.22	0.26	1.500			
0.7336	46947.21	3.6820	3.6821	1.7729	26.21	0.25	1.500			
0.7385	47266.99	3.6790	3.6790	1.6563	26.21	0.25	1.500			
0.7433	47569.82	3.6760	3.6760	1.5508	26.20	0.24	1.500			
0.7477	47851.49	3.6730	3.6730	1.4667	26.19	0.23	1.500			
0.7520	48128.23	3.6700	3.6700	1.4097	26.18	0.22	1.500			
0.7561	48391.42	3.6670	3.6670	1.3586	26.18	0.22	1.500			
0.7601	48645.21	3.6640	3.6640	1.3126	26.17	0.21	1.500			
0.7639	48891.10	3.6610	3.6611	1.2829	26.16	0.20	1.500			
0.7677	49129.78	3.6580	3.6580	1.2687	26.15	0.19	1.500			
0.7714	49366.50	3.6550	3.6550	1.2628	26.14	0.18	1.500			
0.7751	49607.74	3.6520	3.6520	1.2749	26.14	0.18	1.500			
0.7790	49855.28	3.6490	3.6490	1.2940	26.13	0.17	1.500			
0.7829	50106.27	3.6460	3.6459	1.3058	26.12	0.16	1.500			
0.7869	50361.88	3.6430	3.6430	1.3133	26.11	0.15	1.500			
0.7908	50614.14	3.6400	3.6401	1.3165	26.10	0.14	1.500			
0.7948	50867.43	3.6370	3.6370	1.3132	26.09	0.13	1.500			
0.7987	51118.69	3.6340	3.6340	1.3076	26.08	0.12	1.500			
0.8027	51369.73	3.6310	3.6310	1.3060	26.07	0.11	1.500			
0.8066	51619.93	3.6280	3.6280	1.3077	26.06	0.10	1.500			
0.8105	51873.14	3.6250	3.6250	1.3018	26.05	0.09	1.500			
0.8144	52121.60	3.6220	3.6219	1.2987	26.04	0.08	1.500			
0.8183	52369.19	3.6190	3.6190	1.2986	26.03	0.07	1.500			
0.8222	52619.98	3.6160	3.6160	1.2914	26.02	0.06	1.500			
0.8261	52867.23	3.6130	3.6130	1.2827	26.02	0.06	1.500			
0.8299	53114.53	3.6100	3.6101	1.2740	26.01	0.05	1.500			
0.8337	53358.35	3.6070	3.6070	1.2609	26.00	0.04	1.500			
0.8375	53602.32	3.6040	3.6040	1.2465	25.99	0.03	1.500			
0.8412	53837.70	3.6010	3.6011	1.2244	25.98	0.02	1.500			
0.8448	54069.54	3.5980	3.5980	1.2079	25.98	0.02	1.500			
0.8485	54301.65	3.5950	3.5949	1.1935	25.97	0.01	1.500			
0.8520	54527.45	3.5920	3.5920	1.1781	25.97	0.01	1.500			
0.8555	54751.55	3.5890	3.5890	1.1667	25.97	0.01	1.500			
0.8590	54974.72	3.5860	3.5860	1.1606	25.97	0.01	1.500			
0.8625	55198.58	3.5830	3.5830	1.1453	25.96	0.00	1.500			
0.8660	55423.44	3.5800	3.5799	1.1076	25.96	0.00	1.500			
0.8694	55638.74	3.5770	3.5770	1.0521	25.96	0.00	1.500			
0.8726	55845.04	3.5740	3.5740	0.9764	25.96	0.00	1.500			
0.8754	56027.88	3.5710	3.5711	0.8596	25.96	-0.00	1.500			
0.8779	56186.89	3.5680	3.5681	0.7390	25.96	-0.00	1.500			
0.8799	56313.28	3.5650	3.5650	0.6168	25.96	-0.00	1.500			
0.8814	56411.88	3.5620	3.5621	0.5003	25.96	-0.00	1.500			
0.8827	56492.55	3.5590	3.5590	0.4163	25.96	-0.00	1.500			
0.8838	56560.50	3.5560	3.5559	0.3527	25.96	-0.00	1.500			
0.8846	56617.29	3.5530	3.5529	0.2924	25.96	-0.00	1.500			
0.8854	56666.59	3.5500	3.5499	0.2571	25.96	-0.00	1.500			
0.8861	56709.35	3.5470	3.5470	0.2272	25.96	-0.00	1.500			
0.8867	56749.31	3.5440	3.5440	0.2047	25.95	-0.01	1.500			
0.8873	56786.28	3.5410	3.5410	0.1839	25.95	-0.01	1.500			
0.8878	56818.49	3.5380	3.5379	0.1669	25.95	-0.01	1.500			
0.8883	56848.17	3.5350	3.5350	0.1512	25.95	-0.01	1.500			
0.8887	56875.55	3.5320	3.5319	0.1364	25.95	-0.01	1.500			
0.8891	56900.43	3.5290	3.5290	0.1227	25.95	-0.01	1.500			
0.8894	56922.46	3.5260	3.5261	0.1086	25.95	-0.01	1.500			
0.8897	56942.13	3.5230	3.5230	0.0953	25.95	-0.01	1.500			
0.8900	56959.35	3.5200	3.5201	0.0818	25.95	-0.01	1.500			
0.8902	56973.70	3.5170	3.5171	0.0677	25.95	-0.01	1.500			
0.8904	56985.40	3.5140	3.5143	0.0534	25.95	-0.01	1.500			
0.8905	56994.29	3.5110	3.5116	0.0392	25.95	-0.01	1.500			
