Ah_balance (normalized)	Ah_balance (mAh)	Voltage - fit (V)	Voltage -  interpolate (V)	dQ/dV (1/V)	Temperature (°C)	Temperature - diff (°C)	Current (C)	R_DC 0ms (mOhm)	R_DC 50ms (mOhm)	R_DC 50 ms PEC (mOhm)
0.2844	18202.51	3.9720	3.9720	0.9027	27.06	1.08	1.500			
0.2871	18374.94	3.9690	3.9690	0.8984	27.06	1.08	1.500			
0.2899	18551.08	3.9660	3.9661	0.9132	27.05	1.07	1.500			
0.2926	18726.72	3.9630	3.9630	0.9165	27.05	1.07	1.500			
0.2954	18903.21	3.9600	3.9600	0.9222	27.05	1.07	1.500			
0.2981	19081.48	3.9570	3.9571	0.9231	27.04	1.06	1.500			
0.3009	19258.97	3.9540	3.9540	0.9245	27.04	1.06	1.500			
0.3037	19435.53	3.9510	3.9510	0.9296	27.04	1.06	1.500			
0.3064	19611.77	3.9480	3.9481	0.9332	27.03	1.05	1.500			
0.3093	19793.64	3.9450	3.9449	0.9419	27.03	1.05	1.500			
0.3121	19975.60	3.9420	3.9419	0.9482	27.03	1.05	1.500			
0.3150	20158.08	3.9390	3.9391	0.9546	27.02	1.04	1.500			
0.3179	20342.84	3.9360	3.9361	0.9621	27.02	1.04	1.500			
0.3208	20528.60	3.9330	3.9329	0.9682	27.02	1.04	1.500			
0.3237	20714.63	3.9300	3.9301	0.9735	27.01	1.03	1.500			
0.3266	20901.07	3.9270	3.9270	0.9793	27.01	1.03	1.500			
0.3295	21090.34	3.9240	3.9240	0.9842	27.00	1.02	1.500			
0.3325	21280.43	3.9210	3.9211	0.9885	27.00	1.02	1.500			
0.3355	21470.40	3.9180	3.9180	0.9926	26.99	1.01	1.500			
0.3385	21661.78	3.9150	3.9149	1.0005	26.99	1.01	1.500			
0.3415	21853.01	3.9120	3.9120	1.0057	26.98	1.00	1.500			
0.3445	22045.77	3.9090	3.9091	1.0191	26.98	1.00	1.500			
0.3475	22242.03	3.9060	3.9060	1.0340	26.98	1.00	1.500			
0.3507	22443.18	3.9030	3.9028	1.0426	26.97	0.99	1.500			
0.3538	22644.88	3.9000	3.9000	1.0508	26.97	0.99	1.500			
0.3570	22847.77	3.8970	3.8971	1.0586	26.96	0.98	1.500			
0.3602	23051.65	3.8940	3.8939	1.0696	26.96	0.98	1.500			
0.3634	23257.25	3.8910	3.8910	1.0756	26.95	0.97	1.500			
0.3666	23463.85	3.8880	3.8880	1.0914	26.95	0.97	1.500			
0.3699	23674.32	3.8850	3.8850	1.1047	26.95	0.97	1.500			
0.3733	23889.11	3.8820	3.8820	1.1235	26.94	0.96	1.500			
0.3767	24106.34	3.8790	3.8790	1.1368	26.94	0.96	1.500			
0.3801	24325.34	3.8760	3.8760	1.1523	26.93	0.95	1.500			
0.3836	24547.67	3.8730	3.8730	1.1646	26.93	0.95	1.500			
0.3871	24773.09	3.8700	3.8700	1.1848	26.92	0.94	1.500			
0.3907	25001.85	3.8670	3.8670	1.1981	26.92	0.94	1.500			
0.3943	25233.37	3.8640	3.8640	1.2200	26.91	0.93	1.500			
0.3980	25468.99	3.8610	3.8610	1.2367	26.90	0.92	1.500			
0.4017	25707.34	3.8580	3.8580	1.2649	26.90	0.92	1.500			
0.4055	25951.42	3.8550	3.8550	1.2881	26.89	0.91	1.500			
0.4094	26201.07	3.8520	3.8520	1.3167	26.89	0.91	1.500			
0.4134	26456.43	3.8490	3.8490	1.3359	26.88	0.90	1.500			
0.4174	26716.15	3.8460	3.8459	1.3633	26.87	0.89	1.500			
0.4216	26979.73	3.8430	3.8431	1.3872	26.87	0.89	1.500			
0.4258	27248.87	3.8400	3.8399	1.4153	26.86	0.88	1.500			
0.4300	27520.13	3.8370	3.8370	1.4412	26.85	0.87	1.500			
0.4344	27803.08	3.8340	3.8340	1.4662	26.84	0.86	1.500			
0.4388	28084.99	3.8310	3.8310	1.4980	26.83	0.85	1.500			
0.4433	28374.37	3.8280	3.8281	1.5317	26.82	0.84	1.500			
0.4480	28671.09	3.8250	3.8251	1.5624	26.81	0.83	1.500			
0.4527	28973.85	3.8220	3.8220	1.6025	26.80	0.82	1.500			
0.4576	29285.05	3.8190	3.8190	1.6369	26.79	0.81	1.500			
0.4626	29603.30	3.8160	3.8161	1.6774	26.78	0.80	1.500			
0.4677	29931.00	3.8130	3.8130	1.7175	26.77	0.79	1.500			
0.4728	30261.48	3.8100	3.8101	1.7632	26.76	0.78	1.500			
0.4782	30605.80	3.8070	3.8070	1.8214	26.75	0.77	1.500			
0.4837	30958.93	3.8040	3.8040	1.8647	26.74	0.76	1.500			
0.4894	31322.38	3.8010	3.8011	1.9254	26.73	0.75	1.500			
0.4952	31695.02	3.7980	3.7981	1.9884	26.71	0.73	1.500			
0.5013	32082.29	3.7950	3.7949	2.0556	26.70	0.72	1.500			
0.5075	32481.23	3.7920	3.7920	2.1005	26.68	0.70	1.500			
0.5139	32889.95	3.7890	3.7890	2.1760	26.66	0.68	1.500			
0.5206	33316.78	3.7860	3.7860	2.2419	26.64	0.66	1.500			
0.5274	33756.38	3.7830	3.7830	2.2930	26.63	0.65	1.500			
0.5344	34199.83	3.7800	3.7801	2.3346	26.61	0.63	1.500			
0.5415	34655.14	3.7770	3.7771	2.4061	26.60	0.62	1.500			
0.5487	35113.90	3.7740	3.7739	2.4727	26.58	0.60	1.500			
0.5563	35601.77	3.7710	3.7710	2.5379	26.56	0.58	1.500			
0.5640	36098.42	3.7680	3.7680	2.6237	26.54	0.56	1.500	0.380	0.468	
0.5721	36612.00	3.7650	3.7650	2.6815	26.51	0.53	1.500			
0.5802	37131.26	3.7620	3.7620	2.7162	26.49	0.51	1.500			
0.5884	37656.54	3.7590	3.7591	2.7029	26.47	0.49	1.500			
0.5964	38171.22	3.7560	3.7561	2.6807	26.45	0.47	1.500			
0.6045	38686.46	3.7530	3.7530	2.6602	26.43	0.45	1.500			
0.6124	39193.11	3.7500	3.7501	2.6337	26.41	0.43	1.500			
0.6204	39706.64	3.7470	3.7469	2.5864	26.39	0.41	1.500			
0.6280	40191.61	3.7440	3.7440	2.5020	26.37	0.39	1.500			
0.6353	40659.45	3.7410	3.7410	2.4349	26.36	0.38	1.500			
0.6425	41120.48	3.7380	3.7380	2.3996	26.34	0.36	1.500			
0.6495	41571.06	3.7350	3.7349	2.3858	26.32	0.34	1.500			
0.6567	42030.84	3.7320	3.7320	2.3751	26.31	0.33	1.500			
0.6639	42489.08	3.7290	3.7290	2.3759	26.29	0.31	1.500			
0.6710	42944.52	3.7260	3.7261	2.3915	26.27	0.29	1.500			
0.6782	43401.78	3.7230	3.7230	2.4399	26.26	0.28	1.500			
0.6854	43867.91	3.7200	3.7200	2.4812	26.24	0.26	1.500			
0.6930	44353.84	3.7170	3.7171	2.5846	26.23	0.25	1.500			
0.7009	44854.90	3.7140	3.7139	2.6766	26.22	0.24	1.500			
0.7090	45374.53	3.7110	3.7110	2.7915	26.21	0.23	1.500			
0.7177	45929.94	3.7080	3.7080	2.9225	26.19	0.21	1.500			
0.7266	46502.64	3.7050	3.7050	2.9939	26.18	0.20	1.500			
0.7357	47082.19	3.7020	3.7020	2.9853	26.16	0.18	1.500			
0.7447	47663.85	3.6990	3.6990	2.9658	26.13	0.15	1.500			
0.7537	48238.56	3.6960	3.6960	2.8575	26.12	0.14	1.500			
0.7622	48777.86	3.6930	3.6930	2.6877	26.11	0.13	1.500			
0.7701	49284.09	3.6900	3.6900	2.4724	26.10	0.12	1.500			
0.7770	49727.55	3.6870	3.6870	2.2126	26.10	0.12	1.500			
0.7831	50121.48	3.6840	3.6840	1.9872	26.09	0.11	1.500			
0.7887	50478.85	3.6810	3.6810	1.8157	26.09	0.11	1.500			
0.7939	50810.89	3.6780	3.6779	1.6764	26.09	0.11	1.500			
0.7986	51108.33	3.6750	3.6751	1.5470	26.08	0.10	1.500			
0.8030	51393.93	3.6720	3.6719	1.4432	26.08	0.10	1.500			
0.8071	51657.26	3.6690	3.6690	1.3552	26.07	0.09	1.500			
0.8110	51905.96	3.6660	3.6660	1.2795	26.06	0.08	1.500			
0.8147	52139.78	3.6630	3.6631	1.2210	26.06	0.08	1.500			
0.8182	52365.02	3.6600	3.6599	1.1759	26.05	0.07	1.500			
0.8216	52581.07	3.6570	3.6570	1.1458	26.05	0.07	1.500			
0.8250	52797.85	3.6540	3.6539	1.1309	26.04	0.06	1.500			
0.8283	53012.13	3.6510	3.6510	1.1313	26.04	0.06	1.500			
0.8317	53227.33	3.6480	3.6481	1.1348	26.04	0.06	1.500			
0.8351	53446.37	3.6450	3.6449	1.1394	26.03	0.05	1.500			
0.8386	53667.49	3.6420	3.6420	1.1432	26.03	0.05	1.500			
0.8420	53887.18	3.6390	3.6390	1.1411	26.03	0.05	1.500			
0.8454	54106.99	3.6360	3.6361	1.1396	26.02	0.04	1.500			
0.8488	54325.19	3.6330	3.6329	1.1459	26.02	0.04	1.500			
0.8522	54543.47	3.6300	3.6299	1.1457	26.02	0.04	1.500			
0.8557	54761.80	3.6270	3.6270	1.1454	26.01	0.03	1.500			
0.8591	54982.47	3.6240	3.6241	1.1570	26.01	0.03	1.500			
0.8626	55208.62	3.6210	3.6210	1.1685	26.00	0.02	1.500			
0.8661	55432.77	3.6180	3.6179	1.1782	26.00	0.02	1.500			
0.8697	55658.46	3.6150	3.6150	1.1874	25.99	0.01	1.500			
0.8733	55888.04	3.6120	3.6121	1.1902	25.98	0.00	1.500			
0.8769	56120.24	3.6090	3.6089	1.1941	25.98	-0.00	1.500			
0.8805	56350.20	3.6060	3.6061	1.1929	25.98	-0.00	1.500			
0.8840	56578.68	3.6030	3.6031	1.1876	25.97	-0.01	1.500			
0.8876	56808.48	3.6000	3.5999	1.1755	25.97	-0.01	1.500			
0.8911	57032.60	3.5970	3.5970	1.1700	25.97	-0.01	1.500			
0.8946	57252.62	3.5940	3.5941	1.1680	25.96	-0.02	1.500			
0.8981	57475.42	3.5910	3.5911	1.1792	25.96	-0.02	1.500			
0.9016	57700.93	3.5880	3.5880	1.1919	25.96	-0.02	1.500			
0.9051	57929.09	3.5850	3.5850	1.2123	25.96	-0.02	1.500			
0.9089	58171.02	3.5820	3.5819	1.2094	25.97	-0.01	1.500			
0.9127	58412.18	3.5790	3.5789	1.1828	25.97	-0.01	1.500			
0.9165	58655.73	3.5760	3.5759	1.1154	25.97	-0.01	1.500			
0.9198	58869.91	3.5730	3.5732	0.9991	25.98	-0.00	1.500			
0.9228	59056.51	3.5700	3.5701	0.8591	25.98	-0.00	1.500			
0.9251	59204.83	3.5670	3.5670	0.6993	25.98	-0.00	1.500			
0.9268	59312.97	3.5640	3.5640	0.5456	25.98	0.00	1.500			
0.9281	59400.45	3.5610	3.5609	0.4394	25.98	0.00	1.500			
0.9291	59465.05	3.5580	3.5580	0.3457	25.98	0.00	1.500			
0.9300	59522.23	3.5550	3.5549	0.2755	25.98	0.00	1.500			
0.9307	59563.80	3.5520	3.5521	0.2259	25.98	0.00	1.500			
0.9313	59600.92	3.5490	3.5489	0.1800	25.98	0.00	1.500			
0.9317	59629.19	3.5460	3.5459	0.1391	25.98	0.00	1.500			
0.9320	59651.10	3.5430	3.5429	0.1047	25.99	0.01	1.500			
0.9323	59668.20	3.5400	3.5402	0.0734	25.99	0.01	1.500			
0.9325	59679.22	3.5370	3.5374	0.0471	25.99	0.01	1.500			
