Ah_balance (normalized)	Ah_balance (mAh)	Voltage - fit (V)	Voltage -  interpolate (V)	dQ/dV (1/V)	Temperature (°C)	Temperature - diff (°C)	Current (C)	R_DC 0ms (mOhm)	R_DC 50ms (mOhm)	R_DC 50 ms PEC (mOhm)
0.1616	10340.62	3.9350	3.9341	-0.0842	25.98	-0.02	-1.500			
0.1619	10359.67	3.9320	3.9318	-0.1118	25.99	-0.01	-1.500			
0.1622	10383.68	3.9290	3.9289	-0.1383	25.99	-0.01	-1.500			
0.1627	10413.45	3.9260	3.9260	-0.1616	25.99	-0.01	-1.500			
0.1632	10446.84	3.9230	3.9231	-0.1850	25.99	-0.01	-1.500			
0.1638	10485.64	3.9200	3.9200	-0.2087	25.99	-0.01	-1.500			
0.1645	10528.00	3.9170	3.9171	-0.2295	25.99	-0.01	-1.500			
0.1652	10574.10	3.9140	3.9140	-0.2503	25.99	-0.01	-1.500			
0.1660	10624.03	3.9110	3.9110	-0.2713	25.99	-0.01	-1.500			
0.1668	10678.03	3.9080	3.9081	-0.2917	25.99	-0.01	-1.500			
0.1678	10736.53	3.9050	3.9049	-0.3129	25.99	-0.01	-1.500			
0.1687	10798.21	3.9020	3.9020	-0.3321	25.99	-0.01	-1.500			
0.1697	10863.82	3.8990	3.8991	-0.3532	25.99	-0.01	-1.500			
0.1708	10933.49	3.8960	3.8960	-0.3745	25.99	-0.01	-1.500			
0.1720	11007.78	3.8930	3.8929	-0.3950	25.99	-0.01	-1.500			
0.1732	11086.15	3.8900	3.8900	-0.4136	25.99	-0.01	-1.500			
0.1745	11168.14	3.8870	3.8869	-0.4313	26.00	-0.00	-1.500			
0.1758	11252.90	3.8840	3.8840	-0.4481	26.00	-0.00	-1.500			
0.1772	11340.59	3.8810	3.8811	-0.4633	26.00	-0.00	-1.500			
0.1786	11430.54	3.8780	3.8779	-0.4791	26.00	-0.00	-1.500			
0.1801	11524.39	3.8750	3.8751	-0.4948	26.00	-0.00	-1.500			
0.1816	11620.21	3.8720	3.8719	-0.5113	26.00	0.00	-1.500			
0.1831	11720.43	3.8690	3.8690	-0.5256	26.00	0.00	-1.500			
0.1848	11824.01	3.8660	3.8660	-0.5374	26.00	0.00	-1.500			
0.1864	11927.98	3.8630	3.8630	-0.5487	26.00	0.00	-1.500			
0.1881	12035.72	3.8600	3.8601	-0.5578	26.01	0.01	-1.500			
0.1897	12143.65	3.8570	3.8569	-0.5639	26.01	0.01	-1.500			
0.1914	12252.79	3.8540	3.8540	-0.5721	26.01	0.01	-1.500			
0.1932	12362.45	3.8510	3.8511	-0.5797	26.01	0.01	-1.500			
0.1949	12474.92	3.8480	3.8480	-0.5886	26.01	0.01	-1.500			
0.1967	12588.47	3.8450	3.8450	-0.5968	26.01	0.01	-1.500			
0.1985	12703.56	3.8420	3.8420	-0.6017	26.01	0.01	-1.500			
0.2003	12820.83	3.8390	3.8390	-0.6089	26.02	0.02	-1.500			
0.2022	12938.65	3.8360	3.8360	-0.6139	26.02	0.02	-1.500			
0.2040	13056.70	3.8330	3.8330	-0.6158	26.02	0.02	-1.500			
0.2059	13174.47	3.8300	3.8301	-0.6201	26.02	0.02	-1.500			
0.2077	13294.53	3.8270	3.8270	-0.6245	26.03	0.03	-1.500			
0.2096	13414.87	3.8240	3.8240	-0.6275	26.03	0.03	-1.500			
0.2115	13535.90	3.8210	3.8210	-0.6337	26.03	0.03	-1.500			
0.2134	13658.31	3.8180	3.8180	-0.6371	26.04	0.04	-1.500			
0.2153	13781.12	3.8150	3.8150	-0.6395	26.04	0.04	-1.500			
0.2172	13903.98	3.8120	3.8120	-0.6451	26.05	0.05	-1.500			
0.2192	14027.93	3.8090	3.8091	-0.6479	26.05	0.05	-1.500			
0.2211	14153.13	3.8060	3.8059	-0.6522	26.06	0.06	-1.500			
0.2231	14278.56	3.8030	3.8030	-0.6539	26.06	0.06	-1.500			
0.2251	14404.18	3.8000	3.8000	-0.6554	26.07	0.07	-1.500			
0.2270	14531.17	3.7970	3.7970	-0.6567	26.07	0.07	-1.500			
0.2290	14657.85	3.7940	3.7940	-0.6575	26.08	0.08	-1.500			
0.2310	14783.48	3.7910	3.7910	-0.6563	26.08	0.08	-1.500			
0.2330	14909.43	3.7880	3.7881	-0.6588	26.09	0.09	-1.500			
0.2349	15035.53	3.7850	3.7850	-0.6610	26.09	0.09	-1.500			
0.2369	15162.23	3.7820	3.7820	-0.6642	26.10	0.10	-1.500			
0.2389	15289.69	3.7790	3.7790	-0.6690	26.10	0.10	-1.500			
0.2409	15418.85	3.7760	3.7760	-0.6739	26.11	0.11	-1.500			
0.2430	15549.52	3.7730	3.7730	-0.6755	26.12	0.12	-1.500			
0.2450	15679.59	3.7700	3.7700	-0.6798	26.12	0.12	-1.500			
0.2470	15810.26	3.7670	3.7671	-0.6817	26.13	0.13	-1.500			
0.2491	15941.62	3.7640	3.7639	-0.6869	26.13	0.13	-1.500			
0.2512	16073.82	3.7610	3.7610	-0.6880	26.14	0.14	-1.500			
0.2532	16205.73	3.7580	3.7580	-0.6935	26.14	0.14	-1.500			
0.2553	16339.29	3.7550	3.7551	-0.6996	26.15	0.15	-1.500			
0.2574	16474.91	3.7520	3.7519	-0.7005	26.15	0.15	-1.500			
0.2595	16609.27	3.7490	3.7490	-0.7005	26.16	0.16	-1.500			
0.2616	16743.76	3.7460	3.7461	-0.7062	26.16	0.16	-1.500			
0.2637	16879.18	3.7430	3.7430	-0.7080	26.17	0.17	-1.500			
0.2659	17016.44	3.7400	3.7399	-0.7132	26.17	0.17	-1.500			
0.2680	17152.67	3.7370	3.7370	-0.7162	26.18	0.18	-1.500			
0.2702	17290.25	3.7340	3.7340	-0.7241	26.18	0.18	-1.500			
0.2724	17430.79	3.7310	3.7310	-0.7315	26.18	0.18	-1.500			
0.2746	17572.86	3.7280	3.7279	-0.7368	26.19	0.19	-1.500			
0.2768	17714.51	3.7250	3.7251	-0.7403	26.19	0.19	-1.500			
0.2790	17858.40	3.7220	3.7220	-0.7440	26.20	0.20	-1.500			
0.2813	18001.10	3.7190	3.7190	-0.7455	26.20	0.20	-1.500			
0.2835	18143.49	3.7160	3.7160	-0.7517	26.21	0.21	-1.500			
0.2857	18287.06	3.7130	3.7130	-0.7584	26.21	0.21	-1.500			
0.2880	18432.58	3.7100	3.7099	-0.7632	26.22	0.22	-1.500			
0.2903	18581.16	3.7070	3.7070	-0.7762	26.22	0.22	-1.500			
0.2927	18731.62	3.7040	3.7040	-0.7832	26.23	0.23	-1.500			
0.2951	18884.37	3.7010	3.7009	-0.7863	26.24	0.24	-1.500			
0.2974	19035.01	3.6980	3.6980	-0.7918	26.24	0.24	-1.500			
0.2998	19186.85	3.6950	3.6951	-0.7951	26.25	0.25	-1.500			
0.3022	19339.76	3.6920	3.6920	-0.8022	26.25	0.25	-1.500			
0.3046	19494.22	3.6890	3.6890	-0.8117	26.26	0.26	-1.500			
0.3070	19649.88	3.6860	3.6860	-0.8160	26.26	0.26	-1.500			
0.3095	19808.18	3.6830	3.6830	-0.8252	26.26	0.26	-1.500			
0.3120	19968.89	3.6800	3.6800	-0.8358	26.27	0.27	-1.500			
0.3145	20128.18	3.6770	3.6770	-0.8384	26.27	0.27	-1.500			
0.3170	20289.76	3.6740	3.6740	-0.8477	26.27	0.27	-1.500			
0.3196	20452.22	3.6710	3.6710	-0.8530	26.28	0.28	-1.500			
0.3221	20616.93	3.6680	3.6679	-0.8629	26.28	0.28	-1.500			
0.3248	20784.22	3.6650	3.6651	-0.8725	26.28	0.28	-1.500			
0.3274	20951.99	3.6620	3.6618	-0.8792	26.29	0.29	-1.500			
0.3300	21122.39	3.6590	3.6591	-0.8864	26.29	0.29	-1.500			
0.3327	21293.11	3.6560	3.6560	-0.8974	26.29	0.29	-1.500			
0.3354	21464.96	3.6530	3.6530	-0.9065	26.30	0.30	-1.500			
0.3381	21640.76	3.6500	3.6500	-0.9158	26.30	0.30	-1.500			
0.3409	21815.91	3.6470	3.6470	-0.9234	26.31	0.31	-1.500			
0.3437	21994.26	3.6440	3.6441	-0.9396	26.31	0.31	-1.500			
0.3465	22176.22	3.6410	3.6410	-0.9546	26.32	0.32	-1.500			
0.3494	22362.81	3.6380	3.6379	-0.9608	26.32	0.32	-1.500			
0.3523	22547.69	3.6350	3.6350	-0.9663	26.33	0.33	-1.500			
0.3552	22734.74	3.6320	3.6322	-0.9738	26.33	0.33	-1.500			
0.3582	22921.81	3.6290	3.6289	-0.9845	26.33	0.33	-1.500			
0.3611	23109.90	3.6260	3.6260	-0.9907	26.34	0.34	-1.500			
0.3640	23298.92	3.6230	3.6230	-1.0031	26.34	0.34	-1.500			
0.3671	23493.14	3.6200	3.6200	-1.0227	26.34	0.34	-1.500			
0.3702	23692.51	3.6170	3.6170	-1.0376	26.35	0.35	-1.500			
0.3733	23891.66	3.6140	3.6140	-1.0497	26.35	0.35	-1.500			
0.3765	24095.64	3.6110	3.6110	-1.0617	26.36	0.36	-1.500			
0.3797	24300.73	3.6080	3.6079	-1.0713	26.36	0.36	-1.500			
0.3829	24506.81	3.6050	3.6050	-1.0874	26.36	0.36	-1.500			
0.3862	24716.09	3.6020	3.6020	-1.1016	26.36	0.36	-1.500			
0.3895	24928.16	3.5990	3.5989	-1.1176	26.37	0.37	-1.500			
0.3929	25144.46	3.5960	3.5960	-1.1332	26.37	0.37	-1.500			
0.3963	25364.36	3.5930	3.5930	-1.1454	26.37	0.37	-1.500			
0.3998	25586.54	3.5900	3.5900	-1.1611	26.38	0.38	-1.500			
0.4033	25811.05	3.5870	3.5871	-1.1757	26.38	0.38	-1.500			
0.4068	26036.81	3.5840	3.5840	-1.1870	26.38	0.38	-1.500			
0.4104	26265.27	3.5810	3.5810	-1.2011	26.39	0.39	-1.500			
0.4140	26496.22	3.5780	3.5781	-1.2221	26.39	0.39	-1.500			
0.4177	26732.18	3.5750	3.5750	-1.2467	26.39	0.39	-1.500			
0.4215	26974.95	3.5720	3.5719	-1.2689	26.40	0.40	-1.500			
0.4253	27221.73	3.5690	3.5690	-1.2809	26.40	0.40	-1.500			
0.4292	27469.22	3.5660	3.5660	-1.2986	26.41	0.41	-1.500			
0.4331	27719.63	3.5630	3.5631	-1.3224	26.41	0.41	-1.500			
0.4371	27975.39	3.5600	3.5599	-1.3398	26.42	0.42	-1.500			
0.4411	28232.28	3.5570	3.5569	-1.3468	26.42	0.42	-1.500			
0.4452	28492.74	3.5540	3.5540	-1.3644	26.43	0.43	-1.500			
0.4493	28757.95	3.5510	3.5512	-1.3886	26.43	0.43	-1.500			
0.4535	29026.74	3.5480	3.5479	-1.4073	26.44	0.44	-1.500			
0.4577	29295.93	3.5450	3.5449	-1.4211	26.44	0.44	-1.500			
0.4620	29570.90	3.5420	3.5420	-1.4392	26.45	0.45	-1.500			
0.4664	29849.72	3.5390	3.5390	-1.4669	26.45	0.45	-1.500			
0.4709	30135.20	3.5360	3.5360	-1.4844	26.45	0.45	-1.500			
0.4754	30422.45	3.5330	3.5330	-1.5012	26.46	0.46	-1.500			
0.4799	30711.91	3.5300	3.5300	-1.5142	26.46	0.46	-1.500			
0.4844	31004.69	3.5270	3.5270	-1.5303	26.46	0.46	-1.500			
0.4890	31298.61	3.5240	3.5241	-1.5480	26.47	0.47	-1.500			
0.4937	31598.61	3.5210	3.5210	-1.5566	26.48	0.48	-1.500			
0.4984	31898.83	3.5180	3.5180	-1.5601	26.48	0.48	-1.500			
0.5031	32200.51	3.5150	3.5150	-1.5726	26.49	0.49	-1.500			
0.5078	32502.30	3.5120	3.5120	-1.5773	26.49	0.49	-1.500			
0.5126	32804.41	3.5090	3.5090	-1.5908	26.50	0.50	-1.500			
0.5173	33110.15	3.5060	3.5059	-1.5990	26.50	0.50	-1.500			
0.5221	33416.86	3.5030	3.5030	-1.6089	26.51	0.51	-1.500			
0.5270	33730.52	3.5000	3.5000	-1.6223	26.52	0.52	-1.500			
0.5320	34045.69	3.4970	3.4970	-1.6296	26.52	0.52	-1.500			
0.5369	34359.03	3.4940	3.4940	-1.6258	26.54	0.54	-1.500			
0.5418	34672.59	3.4910	3.4910	-1.6214	26.55	0.55	-1.500			
0.5466	34981.35	3.4880	3.4880	-1.6147	26.56	0.56	-1.500			
0.5515	35293.43	3.4850	3.4850	-1.6088	26.57	0.57	-1.500			
0.5563	35600.67	3.4820	3.4820	-1.5957	26.58	0.58	-1.500			
0.5610	35905.60	3.4790	3.4791	-1.5874	26.59	0.59	-1.500			
0.5658	36210.03	3.4760	3.4760	-1.5830	26.60	0.60	-1.500			
0.5705	36513.42	3.4730	3.4729	-1.5731	26.60	0.60	-1.500			
0.5752	36815.35	3.4700	3.4700	-1.5604	26.61	0.61	-1.500			
0.5799	37111.95	3.4670	3.4671	-1.5518	26.62	0.62	-1.500			
0.5846	37412.31	3.4640	3.4640	-1.5444	26.63	0.63	-1.500			
0.5892	37707.95	3.4610	3.4609	-1.5255	26.65	0.65	-1.500			
0.5937	37997.11	3.4580	3.4580	-1.5080	26.66	0.66	-1.500			
0.5982	38285.01	3.4550	3.4551	-1.4937	26.68	0.68	-1.500			
0.6027	38572.26	3.4520	3.4520	-1.4810	26.69	0.69	-1.500			
0.6071	38855.89	3.4490	3.4490	-1.4593	26.70	0.70	-1.500			
0.6114	39132.64	3.4460	3.4461	-1.4363	26.71	0.71	-1.500			
0.6157	39407.91	3.4430	3.4430	-1.4199	26.72	0.72	-1.500			
0.6200	39679.04	3.4400	3.4401	-1.4003	26.74	0.74	-1.500			
0.6242	39945.98	3.4370	3.4369	-1.3771	26.75	0.75	-1.500			
0.6282	40207.64	3.4340	3.4340	-1.3578	26.75	0.75	-1.500			
0.6323	40466.83	3.4310	3.4310	-1.3384	26.77	0.77	-1.500			
0.6363	40724.40	3.4280	3.4280	-1.3178	26.78	0.78	-1.500			
0.6402	40973.54	3.4250	3.4250	-1.2926	26.80	0.80	-1.500			
0.6440	41218.78	3.4220	3.4220	-1.2748	26.81	0.81	-1.500			
0.6479	41462.58	3.4190	3.4190	-1.2520	26.82	0.82	-1.500			
0.6516	41701.98	3.4160	3.4159	-1.2298	26.84	0.84	-1.500			
0.6552	41935.58	3.4130	3.4132	-1.2012	26.85	0.85	-1.500			
0.6588	42164.97	3.4100	3.4100	-1.1755	26.86	0.86	-1.500			
0.6623	42387.92	3.4070	3.4070	-1.1484	26.87	0.87	-1.500			
0.6657	42603.70	3.4040	3.4040	-1.1152	26.88	0.88	-1.500			
0.6690	42815.27	3.4010	3.4010	-1.0920	26.89	0.89	-1.500			
0.6722	43022.60	3.3980	3.3980	-1.0697	26.90	0.90	-1.500			
0.6754	43226.94	3.3950	3.3950	-1.0446	26.91	0.91	-1.500			
0.6785	43425.53	3.3920	3.3919	-1.0175	26.92	0.92	-1.500			
0.6815	43618.20	3.3890	3.3891	-0.9892	26.93	0.93	-1.500			
0.6845	43804.84	3.3860	3.3860	-0.9616	26.95	0.95	-1.500			
0.6873	43987.50	3.3830	3.3830	-0.9340	26.96	0.96	-1.500			
0.6900	44161.90	3.3800	3.3800	-0.9047	26.97	0.97	-1.500			
0.6927	44333.88	3.3770	3.3770	-0.8836	26.98	0.98	-1.500			
0.6953	44501.42	3.3740	3.3740	-0.8617	26.99	0.99	-1.500			
0.6979	44664.23	3.3710	3.3710	-0.8413	27.00	1.00	-1.500			
0.7004	44823.59	3.3680	3.3680	-0.8201	27.01	1.01	-1.500			
0.7028	44979.81	3.3650	3.3649	-0.7974	27.02	1.02	-1.500			
0.7052	45131.79	3.3620	3.3621	-0.7765	27.03	1.03	-1.500			
0.7075	45277.89	3.3590	3.3590	-0.7537	27.04	1.04	-1.500			
0.7097	45419.71	3.3560	3.3560	-0.7334	27.05	1.05	-1.500			
0.7119	45558.78	3.3530	3.3529	-0.7131	27.06	1.06	-1.500			
0.7139	45692.60	3.3500	3.3500	-0.6919	27.06	1.06	-1.500			
0.7160	45824.16	3.3470	3.3470	-0.6789	27.07	1.07	-1.500			
0.7180	45953.44	3.3440	3.3441	-0.6614	27.08	1.08	-1.500			
0.7200	46078.50	3.3410	3.3409	-0.6451	27.09	1.09	-1.500			
0.7219	46200.74	3.3380	3.3380	-0.6278	27.10	1.10	-1.500			
0.7237	46318.75	3.3350	3.3351	-0.6121	27.10	1.10	-1.500			
0.7256	46435.78	3.3320	3.3319	-0.5954	27.11	1.11	-1.500			
0.7273	46549.42	3.3290	3.3290	-0.5774	27.12	1.12	-1.500			
0.7290	46657.59	3.3260	3.3261	-0.5599	27.13	1.13	-1.500			
0.7307	46763.65	3.3230	3.3231	-0.5464	27.13	1.13	-1.500			
0.7323	46866.35	3.3200	3.3199	-0.5307	27.14	1.14	-1.500			
0.7338	46966.34	3.3170	3.3170	-0.5156	27.15	1.15	-1.500			
0.7354	47063.85	3.3140	3.3140	-0.5017	27.16	1.16	-1.500			
0.7369	47159.38	3.3110	3.3110	-0.4907	27.16	1.16	-1.500			
0.7383	47252.10	3.3080	3.3079	-0.4767	27.17	1.17	-1.500			
0.7397	47341.88	3.3050	3.3050	-0.4614	27.18	1.18	-1.500			
0.7411	47429.36	3.3020	3.3019	-0.4482	27.19	1.19	-1.500			
0.7424	47513.78	3.2990	3.2991	-0.4369	27.19	1.19	-1.500			
0.7437	47596.75	3.2960	3.2960	-0.4249	27.20	1.20	-1.500			
0.7449	47676.37	3.2930	3.2930	-0.4139	27.21	1.21	-1.500			
0.7462	47754.75	3.2900	3.2900	-0.4021	27.21	1.21	-1.500			
0.7474	47830.89	3.2870	3.2870	-0.3914	27.22	1.22	-1.500			
0.7485	47905.05	3.2840	3.2839	-0.3821	27.22	1.22	-1.500			
0.7496	47977.20	3.2810	3.2812	-0.3724	27.23	1.23	-1.500			
0.7507	48047.24	3.2780	3.2779	-0.3642	27.23	1.23	-1.500			
0.7518	48116.44	3.2750	3.2750	-0.3565	27.24	1.24	-1.500			
0.7529	48183.99	3.2720	3.2720	-0.3480	27.24	1.24	-1.500			
0.7539	48250.26	3.2690	3.2690	-0.3417	27.24	1.24	-1.500			
0.7549	48315.03	3.2660	3.2661	-0.3328	27.25	1.25	-1.500			
0.7559	48377.55	3.2630	3.2629	-0.3251	27.25	1.25	-1.500			
0.7569	48439.42	3.2600	3.2601	-0.3184	27.26	1.26	-1.500			
0.7578	48499.42	3.2570	3.2569	-0.3113	27.27	1.27	-1.500			
0.7587	48558.93	3.2540	3.2540	-0.3061	27.27	1.27	-1.500			
0.7596	48617.19	3.2510	3.2510	-0.3002	27.28	1.28	-1.500			
0.7605	48674.25	3.2480	3.2479	-0.2938	27.29	1.29	-1.500			
0.7614	48730.45	3.2450	3.2450	-0.2876	27.29	1.29	-1.500			
0.7623	48784.36	3.2420	3.2420	-0.2814	27.30	1.30	-1.500			
0.7631	48837.82	3.2390	3.2390	-0.2768	27.31	1.31	-1.500			
0.7639	48890.21	3.2360	3.2359	-0.2716	27.31	1.31	-1.500			
0.7647	48941.97	3.2330	3.2330	-0.2675	27.32	1.32	-1.500			
0.7655	48993.04	3.2300	3.2300	-0.2626	27.32	1.32	-1.500			
0.7663	49043.12	3.2270	3.2270	-0.2586	27.33	1.33	-1.500			
0.7671	49092.43	3.2240	3.2240	-0.2543	27.33	1.33	-1.500			
0.7678	49140.41	3.2210	3.2210	-0.2497	27.34	1.34	-1.500			
0.7686	49188.21	3.2180	3.2179	-0.2463	27.35	1.35	-1.500			
0.7693	49234.62	3.2150	3.2151	-0.2425	27.35	1.35	-1.500			
0.7700	49281.07	3.2120	3.2120	-0.2388	27.36	1.36	-1.500			
0.7707	49326.40	3.2090	3.2090	-0.2365	27.36	1.36	-1.500			
0.7714	49371.58	3.2060	3.2060	-0.2332	27.37	1.37	-1.500			
0.7721	49416.11	3.2030	3.2031	-0.2306	27.38	1.38	-1.500			
0.7728	49460.19	3.2000	3.1999	-0.2278	27.38	1.38	-1.500			
0.7735	49503.77	3.1970	3.1971	-0.2244	27.39	1.39	-1.500			
0.7742	49546.62	3.1940	3.1939	-0.2217	27.39	1.39	-1.500			
0.7748	49588.74	3.1910	3.1911	-0.2183	27.40	1.40	-1.500			
0.7755	49630.79	3.1880	3.1879	-0.2150	27.41	1.41	-1.500			
0.7761	49670.91	3.1850	3.1849	-0.2117	27.41	1.41	-1.500			
0.7767	49711.12	3.1820	3.1820	-0.2101	27.42	1.42	-1.500			
0.7774	49751.32	3.1790	3.1791	-0.2087	27.42	1.42	-1.500			
0.7780	49791.12	3.1760	3.1759	-0.2064	27.43	1.43	-1.500			
0.7786	49830.92	3.1730	3.1730	-0.2040	27.43	1.43	-1.500			
0.7792	49869.74	3.1700	3.1700	-0.2022	27.44	1.44	-1.500			
0.7798	49908.41	3.1670	3.1671	-0.2000	27.44	1.44	-1.500			
0.7804	49946.91	3.1640	3.1641	-0.1980	27.45	1.45	-1.500			
0.7810	49984.23	3.1610	3.1609	-0.1956	27.46	1.46	-1.500			
0.7816	50021.54	3.1580	3.1581	-0.1932	27.46	1.46	-1.500			
0.7822	50058.52	3.1550	3.1550	-0.1915	27.47	1.47	-1.500			
0.7827	50095.34	3.1520	3.1519	-0.1899	27.47	1.47	-1.500			
0.7833	50131.70	3.1490	3.1491	-0.1885	27.48	1.48	-1.500			
0.7839	50167.33	3.1460	3.1460	-0.1864	27.48	1.48	-1.500			
0.7844	50203.01	3.1430	3.1430	-0.1853	27.49	1.49	-1.500			
0.7850	50238.48	3.1400	3.1400	-0.1841	27.49	1.49	-1.500			
0.7855	50273.65	3.1370	3.1370	-0.1824	27.50	1.50	-1.500			
0.7861	50308.90	3.1340	3.1340	-0.1809	27.50	1.50	-1.500			
0.7866	50343.61	3.1310	3.1310	-0.1788	27.51	1.51	-1.500			
0.7872	50377.69	3.1280	3.1280	-0.1762	27.51	1.51	-1.500			
0.7877	50411.14	3.1250	3.1250	-0.1749	27.52	1.52	-1.500			
0.7882	50444.21	3.1220	3.1220	-0.1734	27.52	1.52	-1.500			
0.7887	50477.25	3.1190	3.1191	-0.1718	27.53	1.53	-1.500			
0.7892	50510.17	3.1160	3.1158	-0.1712	27.53	1.53	-1.500			
0.7897	50543.09	3.1130	3.1130	-0.1696	27.54	1.54	-1.500			
0.7902	50575.72	3.1100	3.1101	-0.1687	27.54	1.54	-1.500			
0.7908	50608.01	3.1070	3.1070	-0.1679	27.55	1.55	-1.500			
0.7913	50640.08	3.1040	3.1040	-0.1662	27.56	1.56	-1.500			
0.7917	50671.65	3.1010	3.1009	-0.1644	27.56	1.56	-1.500			
0.7922	50702.98	3.0980	3.0980	-0.1631	27.57	1.57	-1.500			
0.7927	50734.13	3.0950	3.0951	-0.1624	27.57	1.57	-1.500			
0.7932	50765.24	3.0920	3.0920	-0.1617	27.58	1.58	-1.500			
0.7937	50796.37	3.0890	3.0890	-0.1602	27.58	1.58	-1.500			
0.7942	50826.98	3.0860	3.0860	-0.1587	27.59	1.59	-1.500			
0.7946	50857.34	3.0830	3.0830	-0.1573	27.59	1.59	-1.500			
0.7951	50887.39	3.0800	3.0801	-0.1558	27.60	1.60	-1.500			
0.7956	50917.28	3.0770	3.0770	-0.1549	27.60	1.60	-1.500			
0.7960	50946.73	3.0740	3.0740	-0.1533	27.61	1.61	-1.500			
0.7965	50975.64	3.0710	3.0710	-0.1523	27.62	1.62	-1.500			
0.7970	51004.87	3.0680	3.0681	-0.1522	27.62	1.62	-1.500			
0.7974	51034.13	3.0650	3.0650	-0.1518	27.63	1.63	-1.500			
0.7979	51063.35	3.0620	3.0619	-0.1507	27.63	1.63	-1.500			
0.7983	51092.50	3.0590	3.0590	-0.1497	27.64	1.64	-1.500			
0.7988	51121.10	3.0560	3.0560	-0.1482	27.64	1.64	-1.500			
0.7992	51149.47	3.0530	3.0531	-0.1471	27.65	1.65	-1.500			
0.7996	51177.59	3.0500	3.0500	-0.1461	27.65	1.65	-1.500			
0.8001	51205.14	3.0470	3.0470	-0.1443	27.66	1.66	-1.500			
0.8005	51232.79	3.0440	3.0439	-0.1437	27.66	1.66	-1.500			
0.8009	51260.31	3.0410	3.0411	-0.1427	27.67	1.67	-1.500			
0.8014	51287.72	3.0380	3.0380	-0.1422	27.67	1.67	-1.500			
0.8018	51314.94	3.0350	3.0351	-0.1417	27.68	1.68	-1.500			
0.8022	51342.08	3.0320	3.0319	-0.1410	27.68	1.68	-1.500			
0.8026	51369.01	3.0290	3.0290	-0.1400	27.69	1.69	-1.500			
0.8031	51395.93	3.0260	3.0260	-0.1388	27.69	1.69	-1.500			
0.8035	51422.44	3.0230	3.0230	-0.1381	27.70	1.70	-1.500			
0.8039	51448.86	3.0200	3.0201	-0.1372	27.70	1.70	-1.500			
0.8043	51475.17	3.0170	3.0170	-0.1364	27.71	1.71	-1.500			
0.8047	51501.03	3.0140	3.0140	-0.1355	27.71	1.71	-1.500			
0.8051	51526.80	3.0110	3.0110	-0.1348	27.72	1.72	-1.500			
0.8055	51552.69	3.0080	3.0081	-0.1348	27.72	1.72	-1.500			
0.8059	51578.55	3.0050	3.0051	-0.1348	27.73	1.73	-1.500			
0.8063	51604.43	3.0020	3.0019	-0.1338	27.73	1.73	-1.500			
