Ah_balance (normalized)	Ah_balance (mAh)	Voltage - fit (V)	Voltage -  interpolate (V)	dQ/dV (1/V)	Temperature (°C)	Temperature - diff (°C)	Current (C)	R_DC 0ms (mOhm)	R_DC 50ms (mOhm)	R_DC 50 ms PEC (mOhm)
0.2868	18358.09	3.9890	3.9890	0.8384	27.37	1.39	1.500			
0.2894	18518.87	3.9860	3.9860	0.8395	27.37	1.39	1.500			
0.2919	18680.51	3.9830	3.9830	0.8427	27.36	1.38	1.500			
0.2944	18842.29	3.9800	3.9800	0.8468	27.35	1.37	1.500			
0.2970	19006.50	3.9770	3.9770	0.8469	27.34	1.36	1.500			
0.2995	19168.92	3.9740	3.9740	0.8470	27.33	1.35	1.500			
0.3020	19331.06	3.9710	3.9710	0.8521	27.32	1.34	1.500			
0.3046	19494.41	3.9680	3.9681	0.8553	27.32	1.34	1.500			
0.3072	19658.76	3.9650	3.9650	0.8567	27.31	1.33	1.500			
0.3097	19823.04	3.9620	3.9620	0.8631	27.30	1.32	1.500			
0.3123	19989.51	3.9590	3.9591	0.8686	27.29	1.31	1.500			
0.3150	20158.37	3.9560	3.9560	0.8741	27.28	1.30	1.500			
0.3176	20326.28	3.9530	3.9530	0.8767	27.27	1.29	1.500			
0.3202	20494.55	3.9500	3.9501	0.8789	27.27	1.29	1.500			
0.3229	20663.89	3.9470	3.9470	0.8833	27.26	1.28	1.500			
0.3255	20833.70	3.9440	3.9439	0.8891	27.25	1.27	1.500			
0.3282	21003.42	3.9410	3.9411	0.8907	27.24	1.26	1.500			
0.3309	21175.80	3.9380	3.9379	0.8974	27.23	1.25	1.500			
0.3336	21349.95	3.9350	3.9351	0.9050	27.23	1.25	1.500			
0.3363	21524.29	3.9320	3.9320	0.9064	27.22	1.24	1.500			
0.3391	21699.48	3.9290	3.9290	0.9084	27.21	1.23	1.500			
0.3418	21872.02	3.9260	3.9260	0.9070	27.21	1.23	1.500			
0.3445	22046.46	3.9230	3.9230	0.9141	27.20	1.22	1.500			
0.3472	22222.29	3.9200	3.9200	0.9197	27.19	1.21	1.500			
0.3500	22398.91	3.9170	3.9170	0.9280	27.19	1.21	1.500			
0.3528	22578.88	3.9140	3.9140	0.9351	27.18	1.20	1.500			
0.3556	22759.38	3.9110	3.9110	0.9440	27.17	1.19	1.500			
0.3585	22941.00	3.9080	3.9080	0.9528	27.16	1.18	1.500			
0.3613	23123.80	3.9050	3.9050	0.9597	27.16	1.18	1.500			
0.3642	23309.13	3.9020	3.9020	0.9700	27.15	1.17	1.500			
0.3671	23496.39	3.8990	3.8989	0.9784	27.14	1.16	1.500			
0.3701	23686.69	3.8960	3.8961	0.9846	27.13	1.15	1.500			
0.3730	23875.06	3.8930	3.8930	0.9965	27.12	1.14	1.500			
0.3761	24067.44	3.8900	3.8900	1.0035	27.12	1.14	1.500			
0.3791	24260.59	3.8870	3.8870	1.0133	27.11	1.13	1.500			
0.3821	24455.11	3.8840	3.8839	1.0212	27.10	1.12	1.500			
0.3852	24652.07	3.8810	3.8812	1.0328	27.09	1.11	1.500			
0.3883	24851.87	3.8780	3.8780	1.0464	27.08	1.10	1.500			
0.3915	25054.48	3.8750	3.8750	1.0551	27.07	1.09	1.500			
0.3947	25257.81	3.8720	3.8720	1.0641	27.06	1.08	1.500			
0.3979	25463.62	3.8690	3.8690	1.0803	27.05	1.07	1.500			
0.4011	25672.25	3.8660	3.8660	1.0889	27.04	1.06	1.500			
0.4044	25880.79	3.8630	3.8630	1.1056	27.03	1.05	1.500			
0.4077	26094.35	3.8600	3.8601	1.1183	27.02	1.04	1.500			
0.4111	26310.77	3.8570	3.8569	1.1346	27.01	1.03	1.500			
0.4145	26530.15	3.8540	3.8540	1.1530	26.99	1.01	1.500			
0.4180	26752.97	3.8510	3.8511	1.1636	26.98	1.00	1.500			
0.4215	26977.62	3.8480	3.8480	1.1775	26.97	0.99	1.500			
0.4251	27206.51	3.8450	3.8450	1.1943	26.96	0.98	1.500			
0.4287	27434.28	3.8420	3.8420	1.2108	26.95	0.97	1.500			
0.4323	27667.78	3.8390	3.8390	1.2321	26.94	0.96	1.500			
0.4360	27905.61	3.8360	3.8360	1.2539	26.93	0.95	1.500			
0.4398	28148.01	3.8330	3.8329	1.2782	26.91	0.93	1.500			
0.4437	28398.66	3.8300	3.8301	1.2971	26.90	0.92	1.500			
0.4477	28649.65	3.8270	3.8270	1.3190	26.89	0.91	1.500			
0.4516	28903.92	3.8240	3.8240	1.3448	26.88	0.90	1.500			
0.4557	29163.68	3.8210	3.8209	1.3684	26.86	0.88	1.500			
0.4598	29426.11	3.8180	3.8180	1.3941	26.85	0.87	1.500			
0.4640	29696.41	3.8150	3.8151	1.4249	26.84	0.86	1.500			
0.4683	29974.02	3.8120	3.8120	1.4525	26.82	0.84	1.500			
0.4728	30257.48	3.8090	3.8089	1.4756	26.81	0.83	1.500			
0.4772	30542.48	3.8060	3.8061	1.4937	26.79	0.81	1.500			
0.4817	30831.38	3.8030	3.8031	1.5180	26.78	0.80	1.500			
0.4863	31123.16	3.8000	3.8001	1.5443	26.77	0.79	1.500			
0.4910	31423.64	3.7970	3.7969	1.5598	26.75	0.77	1.500			
0.4957	31726.16	3.7940	3.7940	1.5925	26.74	0.76	1.500			
0.5005	32034.08	3.7910	3.7911	1.6036	26.73	0.75	1.500			
0.5054	32344.41	3.7880	3.7879	1.6502	26.71	0.73	1.500			
0.5104	32662.82	3.7850	3.7850	1.6864	26.70	0.72	1.500			
0.5155	32990.95	3.7820	3.7824	1.7012	26.69	0.71	1.499	0.346	0.472	
0.5207	33326.32	3.7790	3.7791	1.7326	26.67	0.69	1.500			
0.5259	33656.38	3.7760	3.7761	1.7366	26.66	0.68	1.500			
0.5311	33992.32	3.7730	3.7729	1.7406	26.64	0.66	1.500			
0.5363	34323.18	3.7700	3.7700	1.7384	26.63	0.65	1.500			
0.5416	34661.54	3.7670	3.7670	1.7425	26.61	0.63	1.500			
0.5468	34996.72	3.7640	3.7640	1.7328	26.60	0.62	1.500			
0.5520	35326.38	3.7610	3.7610	1.7318	26.58	0.60	1.500			
0.5571	35657.22	3.7580	3.7580	1.7392	26.57	0.59	1.500			
0.5623	35990.30	3.7550	3.7550	1.7553	26.55	0.57	1.500			
0.5677	36333.73	3.7520	3.7519	1.7681	26.54	0.56	1.500			
0.5730	36672.20	3.7490	3.7491	1.7928	26.52	0.54	1.500			
0.5784	37016.41	3.7460	3.7460	1.8223	26.51	0.53	1.500			
0.5839	37370.84	3.7430	3.7430	1.8506	26.49	0.51	1.500			
0.5895	37727.53	3.7400	3.7400	1.8794	26.48	0.50	1.500			
0.5952	38092.78	3.7370	3.7371	1.9102	26.47	0.49	1.500			
0.6009	38455.92	3.7340	3.7340	1.9497	26.45	0.47	1.500			
0.6068	38832.28	3.7310	3.7307	2.0118	26.44	0.46	1.500			
0.6130	39230.83	3.7280	3.7280	2.0807	26.42	0.44	1.500			
0.6193	39637.61	3.7250	3.7251	2.1346	26.41	0.43	1.500			
0.6257	40047.12	3.7220	3.7220	2.1906	26.39	0.41	1.500			
0.6324	40475.02	3.7190	3.7190	2.2638	26.38	0.40	1.500			
0.6393	40917.05	3.7160	3.7160	2.3348	26.36	0.38	1.500			
0.6464	41368.38	3.7130	3.7130	2.3735	26.35	0.37	1.500			
0.6536	41833.37	3.7100	3.7099	2.3875	26.34	0.36	1.500			
0.6608	42291.93	3.7070	3.7071	2.3976	26.32	0.34	1.500			
0.6681	42757.93	3.7040	3.7039	2.2987	26.30	0.32	1.500			
0.6748	43189.12	3.7010	3.7011	2.1571	26.29	0.31	1.500			
0.6811	43589.26	3.6980	3.6979	2.0074	26.27	0.29	1.500			
0.6869	43962.32	3.6950	3.6950	1.8821	26.25	0.27	1.500			
0.6923	44305.15	3.6920	3.6920	1.7395	26.24	0.26	1.500			
0.6972	44621.10	3.6890	3.6890	1.6274	26.23	0.25	1.500			
0.7019	44924.46	3.6860	3.6860	1.5511	26.21	0.23	1.500			
0.7064	45211.23	3.6830	3.6829	1.4688	26.20	0.22	1.500			
0.7107	45484.74	3.6800	3.6800	1.4136	26.19	0.21	1.500			
0.7148	45749.38	3.6770	3.6771	1.3664	26.18	0.20	1.500			
0.7188	46002.62	3.6740	3.6739	1.3263	26.17	0.19	1.500			
0.7227	46251.71	3.6710	3.6709	1.2950	26.16	0.18	1.500			
0.7265	46494.29	3.6680	3.6680	1.2762	26.15	0.17	1.500			
0.7303	46737.68	3.6650	3.6651	1.2732	26.14	0.16	1.500			
0.7341	46980.47	3.6620	3.6620	1.2750	26.13	0.15	1.500			
0.7379	47224.38	3.6590	3.6590	1.2774	26.12	0.14	1.500			
0.7417	47471.70	3.6560	3.6559	1.2748	26.12	0.14	1.500			
0.7456	47717.45	3.6530	3.6530	1.2765	26.11	0.13	1.500			
0.7494	47964.52	3.6500	3.6501	1.2747	26.10	0.12	1.500			
0.7533	48208.54	3.6470	3.6470	1.2652	26.09	0.11	1.500			
0.7570	48450.00	3.6440	3.6440	1.2562	26.08	0.10	1.500			
0.7608	48690.74	3.6410	3.6410	1.2456	26.07	0.09	1.500			
0.7645	48928.22	3.6380	3.6380	1.2382	26.06	0.08	1.500			
0.7682	49165.95	3.6350	3.6350	1.2328	26.05	0.07	1.500			
0.7719	49399.49	3.6320	3.6321	1.2277	26.04	0.06	1.500			
0.7756	49635.76	3.6290	3.6289	1.2255	26.03	0.05	1.500			
0.7793	49872.03	3.6260	3.6260	1.2217	26.03	0.05	1.500			
0.7829	50107.88	3.6230	3.6230	1.2105	26.02	0.04	1.500			
0.7866	50342.17	3.6200	3.6200	1.1990	26.01	0.03	1.500			
0.7902	50570.79	3.6170	3.6170	1.1754	26.00	0.02	1.500			
0.7937	50794.44	3.6140	3.6141	1.1507	25.99	0.01	1.500			
0.7970	51011.15	3.6110	3.6110	1.1258	25.98	0.00	1.500			
0.8004	51225.29	3.6080	3.6080	1.1057	25.97	-0.01	1.500			
0.8037	51435.52	3.6050	3.6050	1.0806	25.97	-0.01	1.500			
0.8069	51641.51	3.6020	3.6019	1.0614	25.96	-0.02	1.500			
0.8100	51842.52	3.5990	3.5991	1.0376	25.96	-0.02	1.500			
0.8131	52040.78	3.5960	3.5960	1.0107	25.97	-0.01	1.500			
0.8161	52232.85	3.5930	3.5929	0.9803	25.97	-0.01	1.500			
0.8191	52422.38	3.5900	3.5900	0.9301	25.97	-0.01	1.500			
0.8219	52599.65	3.5870	3.5870	0.8727	25.97	-0.01	1.500			
0.8245	52768.74	3.5840	3.5840	0.7983	25.97	-0.01	1.500			
0.8268	52915.24	3.5810	3.5811	0.7060	25.98	-0.00	1.500			
0.8288	53041.87	3.5780	3.5780	0.6145	25.98	-0.00	1.500			
0.8305	53149.35	3.5750	3.5749	0.5223	25.98	-0.00	1.500			
0.8318	53235.88	3.5720	3.5720	0.4372	25.98	0.00	1.500			
0.8330	53309.76	3.5690	3.5689	0.3750	25.98	0.00	1.500			
0.8339	53370.71	3.5660	3.5660	0.3182	25.98	0.00	1.500			
0.8348	53425.05	3.5630	3.5629	0.2783	25.98	0.00	1.500			
0.8355	53471.74	3.5600	3.5599	0.2395	25.98	0.00	1.500			
0.8361	53513.01	3.5570	3.5570	0.2137	25.98	0.00	1.500			
0.8367	53550.12	3.5540	3.5541	0.1916	25.98	0.00	1.500			
0.8373	53584.74	3.5510	3.5510	0.1721	25.98	0.00	1.500			
0.8377	53615.69	3.5480	3.5479	0.1561	25.98	0.00	1.500			
0.8382	53643.29	3.5450	3.5450	0.1390	25.99	0.01	1.500			
0.8386	53668.35	3.5420	3.5420	0.1238	25.99	0.01	1.500			
0.8389	53690.72	3.5390	3.5390	0.1091	25.99	0.01	1.500			
0.8392	53710.25	3.5360	3.5361	0.0944	25.99	0.01	1.500			
0.8395	53726.89	3.5330	3.5331	0.0796	25.99	0.01	1.500			
0.8397	53741.03	3.5300	3.5302	0.0649	25.99	0.01	1.500			
0.8399	53752.04	3.5270	3.5275	0.0497	25.99	0.01	1.500			
0.8400	53760.13	3.5240	3.5250	0.0346	25.99	0.01	1.500			
