Ah_balance (normalized)	Ah_balance (mAh)	Voltage - fit (V)	Voltage -  interpolate (V)	dQ/dV (1/V)	Temperature (°C)	Temperature - diff (°C)	Current (C)	R_DC 0ms (mOhm)	R_DC 50ms (mOhm)	R_DC 50 ms PEC (mOhm)
0.2810	17985.69	3.9820	3.9820	0.8508	27.15	1.19	1.500			
0.2836	18150.19	3.9790	3.9790	0.8571	27.14	1.18	1.500			
0.2862	18314.95	3.9760	3.9759	0.8602	27.14	1.18	1.500			
0.2888	18481.23	3.9730	3.9730	0.8614	27.13	1.17	1.500			
0.2913	18646.25	3.9700	3.9699	0.8647	27.13	1.17	1.500			
0.2939	18811.94	3.9670	3.9670	0.8687	27.13	1.17	1.500			
0.2966	18980.12	3.9640	3.9640	0.8721	27.12	1.16	1.500			
0.2992	19146.75	3.9610	3.9609	0.8742	27.12	1.16	1.500			
0.3018	19315.91	3.9580	3.9580	0.8781	27.11	1.15	1.500			
0.3044	19484.28	3.9550	3.9550	0.8820	27.11	1.15	1.500			
0.3071	19655.47	3.9520	3.9520	0.8807	27.10	1.14	1.500			
0.3097	19823.21	3.9490	3.9490	0.8842	27.10	1.14	1.500			
0.3124	19992.84	3.9460	3.9461	0.8902	27.10	1.14	1.500			
0.3151	20164.01	3.9430	3.9430	0.8964	27.09	1.13	1.500			
0.3178	20336.41	3.9400	3.9400	0.9017	27.09	1.13	1.500			
0.3205	20510.13	3.9370	3.9370	0.9105	27.08	1.12	1.500			
0.3232	20686.09	3.9340	3.9340	0.9166	27.08	1.12	1.500			
0.3260	20866.35	3.9310	3.9310	0.9209	27.07	1.11	1.500			
0.3288	21040.19	3.9280	3.9280	0.9219	27.07	1.11	1.500			
0.3315	21218.35	3.9250	3.9251	0.9273	27.06	1.10	1.500			
0.3343	21396.39	3.9220	3.9220	0.9295	27.05	1.09	1.500			
0.3371	21575.41	3.9190	3.9189	0.9300	27.05	1.09	1.500			
0.3399	21752.97	3.9160	3.9161	0.9342	27.04	1.08	1.500			
0.3427	21933.04	3.9130	3.9130	0.9410	27.04	1.08	1.500			
0.3455	22114.07	3.9100	3.9100	0.9547	27.03	1.07	1.500			
0.3484	22297.49	3.9070	3.9069	0.9579	27.03	1.07	1.500			
0.3513	22482.03	3.9040	3.9040	0.9702	27.02	1.06	1.500			
0.3542	22670.50	3.9010	3.9010	0.9784	27.02	1.06	1.500			
0.3572	22861.38	3.8980	3.8980	0.9809	27.01	1.05	1.500			
0.3601	23049.12	3.8950	3.8950	0.9800	27.01	1.05	1.500			
0.3631	23235.46	3.8920	3.8921	0.9883	27.01	1.05	1.500			
0.3660	23424.19	3.8890	3.8889	0.9959	27.00	1.04	1.500			
0.3690	23616.23	3.8860	3.8860	1.0103	26.99	1.03	1.500			
0.3720	23810.34	3.8830	3.8830	1.0202	26.99	1.03	1.500			
0.3751	24008.94	3.8800	3.8800	1.0390	26.98	1.02	1.500			
0.3783	24210.90	3.8770	3.8771	1.0534	26.97	1.01	1.500			
0.3815	24412.89	3.8740	3.8740	1.0615	26.96	1.00	1.500			
0.3847	24617.83	3.8710	3.8710	1.0674	26.96	1.00	1.500			
0.3879	24823.41	3.8680	3.8681	1.0813	26.95	0.99	1.500			
0.3911	25031.74	3.8650	3.8649	1.0938	26.94	0.98	1.500			
0.3944	25243.56	3.8620	3.8620	1.1083	26.93	0.97	1.500			
0.3978	25456.84	3.8590	3.8591	1.1207	26.92	0.96	1.500			
0.4011	25672.78	3.8560	3.8560	1.1398	26.92	0.96	1.500			
0.4046	25895.01	3.8530	3.8530	1.1525	26.91	0.95	1.500			
0.4081	26116.84	3.8500	3.8500	1.1746	26.90	0.94	1.500			
0.4116	26341.55	3.8470	3.8471	1.1955	26.89	0.93	1.500			
0.4152	26574.05	3.8440	3.8439	1.2150	26.88	0.92	1.500			
0.4189	26810.29	3.8410	3.8410	1.2309	26.87	0.91	1.500			
0.4226	27049.20	3.8380	3.8380	1.2478	26.86	0.90	1.500			
0.4264	27289.67	3.8350	3.8351	1.2678	26.85	0.89	1.500			
0.4302	27534.68	3.8320	3.8320	1.2937	26.84	0.88	1.500			
0.4341	27782.94	3.8290	3.8289	1.3114	26.83	0.87	1.500			
0.4381	28037.18	3.8260	3.8260	1.3346	26.82	0.86	1.500			
0.4421	28295.53	3.8230	3.8230	1.3696	26.81	0.85	1.500			
0.4463	28560.34	3.8200	3.8200	1.4019	26.80	0.84	1.500			
0.4505	28834.09	3.8170	3.8170	1.4248	26.78	0.82	1.500			
0.4548	29107.80	3.8140	3.8139	1.4602	26.77	0.81	1.500			
0.4592	29391.51	3.8110	3.8111	1.4909	26.76	0.80	1.500			
0.4638	29682.27	3.8080	3.8081	1.5308	26.75	0.79	1.500			
0.4684	29978.69	3.8050	3.8050	1.5663	26.73	0.77	1.500			
0.4732	30285.69	3.8020	3.8020	1.5849	26.72	0.76	1.500			
0.4780	30592.77	3.7990	3.7990	1.6232	26.70	0.74	1.500			
0.4829	30908.20	3.7960	3.7960	1.6684	26.68	0.72	1.500			
0.4879	31227.64	3.7930	3.7931	1.7057	26.66	0.70	1.500			
0.4931	31559.27	3.7900	3.7899	1.7576	26.64	0.68	1.500			
0.4985	31901.73	3.7870	3.7871	1.7940	26.63	0.67	1.500			
0.5040	32255.03	3.7840	3.7840	1.8430	26.61	0.65	1.500			
0.5096	32615.33	3.7810	3.7810	1.8718	26.59	0.63	1.500			
0.5152	32973.17	3.7780	3.7779	1.8851	26.57	0.61	1.500			
0.5209	33338.37	3.7750	3.7750	1.9191	26.55	0.59	1.500			
0.5267	33708.32	3.7720	3.7720	1.9435	26.53	0.57	1.500			
0.5326	34085.32	3.7690	3.7685	1.9728	26.51	0.55	1.500	0.354	0.453	
0.5386	34467.73	3.7660	3.7660	1.9765	26.49	0.53	1.500			
0.5445	34849.27	3.7630	3.7631	1.9752	26.47	0.51	1.500			
0.5505	35230.83	3.7600	3.7600	1.9404	26.45	0.49	1.500			
0.5563	35604.07	3.7570	3.7570	1.9347	26.44	0.48	1.500			
0.5620	35969.94	3.7540	3.7540	1.9242	26.42	0.46	1.500			
0.5678	36340.83	3.7510	3.7510	1.9224	26.41	0.45	1.500			
0.5736	36708.62	3.7480	3.7480	1.9242	26.39	0.43	1.500			
0.5793	37077.67	3.7450	3.7450	1.9294	26.37	0.41	1.500			
0.5851	37446.62	3.7420	3.7420	1.9332	26.36	0.40	1.500			
0.5909	37818.13	3.7390	3.7390	1.9527	26.34	0.38	1.500			
0.5968	38197.56	3.7360	3.7360	1.9858	26.33	0.37	1.500			
0.6028	38579.46	3.7330	3.7331	2.0037	26.32	0.36	1.500			
0.6089	38967.09	3.7300	3.7300	2.0283	26.30	0.34	1.500			
0.6149	39355.23	3.7270	3.7270	2.0814	26.29	0.33	1.500			
0.6213	39761.50	3.7240	3.7240	2.1458	26.28	0.32	1.500			
0.6278	40181.33	3.7210	3.7210	2.2090	26.26	0.30	1.500			
0.6346	40612.99	3.7180	3.7180	2.2834	26.25	0.29	1.500			
0.6414	41051.91	3.7150	3.7150	2.3557	26.23	0.27	1.500			
0.6486	41509.61	3.7120	3.7120	2.4477	26.22	0.26	1.500			
0.6560	41984.60	3.7090	3.7090	2.4887	26.20	0.24	1.500			
0.6636	42472.91	3.7060	3.7060	2.5516	26.19	0.23	1.500			
0.6713	42965.47	3.7030	3.7030	2.5775	26.17	0.21	1.500			
0.6792	43469.78	3.7000	3.7000	2.5970	26.16	0.20	1.500			
0.6869	43964.25	3.6970	3.6970	2.5064	26.15	0.19	1.500			
0.6944	44443.35	3.6940	3.6940	2.3874	26.14	0.18	1.500			
0.7014	44892.06	3.6910	3.6910	2.2219	26.12	0.16	1.500			
0.7078	45300.59	3.6880	3.6880	2.0647	26.11	0.15	1.500			
0.7137	45674.92	3.6850	3.6850	1.8922	26.10	0.14	1.500			
0.7191	46023.33	3.6820	3.6820	1.7464	26.10	0.14	1.500			
0.7241	46342.51	3.6790	3.6791	1.6317	26.09	0.13	1.500			
0.7287	46639.64	3.6760	3.6760	1.5306	26.08	0.12	1.500			
0.7330	46914.41	3.6730	3.6729	1.4472	26.07	0.11	1.500			
0.7372	47182.96	3.6700	3.6700	1.3862	26.07	0.11	1.500			
0.7413	47441.88	3.6670	3.6668	1.3405	26.06	0.10	1.500			
0.7452	47693.76	3.6640	3.6640	1.3070	26.05	0.09	1.500			
0.7491	47940.16	3.6610	3.6611	1.2879	26.05	0.09	1.500			
0.7528	48182.13	3.6580	3.6579	1.2683	26.04	0.08	1.500			
0.7565	48418.77	3.6550	3.6550	1.2614	26.04	0.08	1.500			
0.7603	48661.05	3.6520	3.6520	1.2700	26.03	0.07	1.500			
0.7641	48905.57	3.6490	3.6490	1.2856	26.02	0.06	1.500			
0.7681	49155.94	3.6460	3.6460	1.2939	26.02	0.06	1.500			
0.7720	49406.50	3.6430	3.6430	1.3025	26.01	0.05	1.500			
0.7759	49658.80	3.6400	3.6399	1.3052	26.00	0.04	1.500			
0.7798	49910.39	3.6370	3.6371	1.3037	25.99	0.03	1.500			
0.7837	50157.70	3.6340	3.6339	1.2984	25.99	0.03	1.500			
0.7876	50408.04	3.6310	3.6310	1.2950	25.98	0.02	1.500			
0.7915	50655.13	3.6280	3.6280	1.2909	25.97	0.01	1.500			
0.7954	50904.17	3.6250	3.6249	1.2873	25.97	0.01	1.500			
0.7992	51150.94	3.6220	3.6221	1.2867	25.96	0.00	1.500			
0.8031	51398.48	3.6190	3.6190	1.2837	25.96	-0.00	1.500			
0.8070	51645.50	3.6160	3.6160	1.2820	25.95	-0.01	1.500			
0.8108	51891.78	3.6130	3.6131	1.2735	25.95	-0.01	1.500			
0.8146	52137.00	3.6100	3.6100	1.2645	25.94	-0.02	1.500			
0.8184	52378.15	3.6070	3.6070	1.2513	25.94	-0.02	1.500			
0.8222	52618.04	3.6040	3.6040	1.2406	25.94	-0.02	1.500			
0.8258	52853.18	3.6010	3.6010	1.2244	25.94	-0.02	1.500			
0.8295	53089.21	3.5980	3.5980	1.2069	25.93	-0.03	1.500			
0.8331	53319.40	3.5950	3.5950	1.1903	25.93	-0.03	1.500			
0.8367	53545.76	3.5920	3.5921	1.1769	25.93	-0.03	1.500			
0.8401	53769.57	3.5890	3.5890	1.1627	25.93	-0.03	1.500			
0.8436	53989.47	3.5860	3.5860	1.1565	25.93	-0.03	1.500			
0.8470	54210.96	3.5830	3.5830	1.1398	25.94	-0.02	1.500			
0.8505	54434.59	3.5800	3.5799	1.0994	25.94	-0.02	1.500			
0.8539	54652.67	3.5770	3.5770	1.0485	25.95	-0.01	1.500			
0.8571	54856.73	3.5740	3.5741	0.9575	25.95	-0.01	1.500			
0.8599	55035.29	3.5710	3.5711	0.8451	25.95	-0.01	1.500			
0.8623	55188.17	3.5680	3.5680	0.7270	25.96	-0.00	1.500			
0.8643	55312.20	3.5650	3.5651	0.6014	25.96	-0.00	1.500			
0.8657	55407.83	3.5620	3.5620	0.5002	25.96	-0.00	1.500			
0.8670	55488.46	3.5590	3.5591	0.4166	25.96	0.00	1.500			
0.8680	55554.38	3.5560	3.5560	0.3445	25.96	0.00	1.500			
0.8689	55611.62	3.5530	3.5529	0.2966	25.96	0.00	1.500			
0.8697	55661.73	3.5500	3.5499	0.2541	25.96	0.00	1.500			
0.8704	55705.80	3.5470	3.5471	0.2259	25.96	0.00	1.500			
0.8710	55745.28	3.5440	3.5440	0.2033	25.97	0.01	1.500			
0.8716	55780.68	3.5410	3.5409	0.1830	25.97	0.01	1.500			
0.8721	55813.48	3.5380	3.5380	0.1652	25.97	0.01	1.500			
0.8725	55842.83	3.5350	3.5350	0.1490	25.97	0.01	1.500			
0.8730	55870.44	3.5320	3.5321	0.1364	25.97	0.01	1.500			
0.8734	55895.29	3.5290	3.5290	0.1230	25.97	0.01	1.500			
0.8737	55917.60	3.5260	3.5261	0.1094	25.97	0.01	1.500			
0.8740	55937.46	3.5230	3.5230	0.0961	25.97	0.01	1.500			
0.8743	55954.20	3.5200	3.5201	0.0821	25.97	0.01	1.500			
0.8745	55968.70	3.5170	3.5171	0.0690	25.97	0.01	1.500			
0.8747	55980.62	3.5140	3.5144	0.0562	25.97	0.01	1.500			
0.8748	55990.18	3.5110	3.5111	0.0434	25.97	0.01	1.500			
