Ah_balance (normalized)	Ah_balance (mAh)	Voltage - fit (V)	Voltage -  interpolate (V)	dQ/dV (1/V)	Temperature (°C)	Temperature - diff (°C)	Current (C)	R_DC 0ms (mOhm)	R_DC 50ms (mOhm)	R_DC 50 ms PEC (mOhm)
0.2829	18108.66	3.9860	3.9860	0.8849	27.11	1.18	1.500			
0.2856	18275.43	3.9830	3.9831	0.8625	27.10	1.17	1.500			
0.2881	18439.46	3.9800	3.9799	0.8538	27.10	1.17	1.500			
0.2907	18601.71	3.9770	3.9770	0.8513	27.09	1.16	1.500			
0.2932	18763.23	3.9740	3.9740	0.8536	27.09	1.16	1.500			
0.2957	18927.57	3.9710	3.9710	0.8583	27.08	1.15	1.500			
0.2983	19093.32	3.9680	3.9679	0.8581	27.08	1.15	1.500			
0.3009	19259.53	3.9650	3.9650	0.8663	27.07	1.14	1.500			
0.3035	19425.89	3.9620	3.9621	0.8696	27.07	1.14	1.500			
0.3061	19592.97	3.9590	3.9589	0.8762	27.06	1.13	1.500			
0.3088	19761.81	3.9560	3.9560	0.8780	27.06	1.13	1.500			
0.3114	19930.03	3.9530	3.9529	0.8770	27.05	1.12	1.500			
0.3141	20099.51	3.9500	3.9500	0.8810	27.05	1.12	1.500			
0.3167	20268.70	3.9470	3.9471	0.8807	27.04	1.11	1.500			
0.3194	20439.37	3.9440	3.9440	0.8872	27.04	1.11	1.500			
0.3220	20610.90	3.9410	3.9409	0.8831	27.03	1.10	1.500			
0.3247	20778.54	3.9380	3.9380	0.8887	27.02	1.09	1.500			
0.3273	20949.57	3.9350	3.9350	0.8961	27.02	1.09	1.500			
0.3300	21122.05	3.9320	3.9321	0.8998	27.01	1.08	1.500			
0.3327	21294.70	3.9290	3.9290	0.9061	27.01	1.08	1.500			
0.3355	21469.23	3.9260	3.9261	0.9132	27.00	1.07	1.500			
0.3382	21645.66	3.9230	3.9230	0.9204	27.00	1.07	1.500			
0.3410	21824.07	3.9200	3.9200	0.9263	26.99	1.06	1.500			
0.3438	22001.90	3.9170	3.9170	0.9283	26.99	1.06	1.500			
0.3466	22181.01	3.9140	3.9140	0.9352	26.98	1.05	1.500			
0.3494	22360.53	3.9110	3.9110	0.9469	26.98	1.05	1.500			
0.3522	22541.94	3.9080	3.9080	0.9537	26.97	1.04	1.500			
0.3551	22726.66	3.9050	3.9050	0.9628	26.96	1.03	1.500			
0.3580	22913.18	3.9020	3.9020	0.9715	26.96	1.03	1.500			
0.3609	23100.73	3.8990	3.8990	0.9789	26.95	1.02	1.500			
0.3639	23289.97	3.8960	3.8960	0.9850	26.95	1.02	1.500			
0.3669	23479.54	3.8930	3.8930	0.9867	26.94	1.01	1.500			
0.3698	23667.33	3.8900	3.8900	0.9932	26.93	1.00	1.500			
0.3728	23858.98	3.8870	3.8870	1.0009	26.93	1.00	1.500			
0.3758	24051.66	3.8840	3.8839	1.0082	26.92	0.99	1.500			
0.3788	24245.74	3.8810	3.8810	1.0180	26.92	0.99	1.500			
0.3819	24441.26	3.8780	3.8780	1.0311	26.91	0.98	1.500			
0.3850	24640.02	3.8750	3.8750	1.0479	26.90	0.97	1.500			
0.3882	24843.67	3.8720	3.8720	1.0608	26.89	0.96	1.500			
0.3914	25047.13	3.8690	3.8690	1.0715	26.88	0.95	1.500			
0.3946	25256.38	3.8660	3.8660	1.0836	26.88	0.95	1.500			
0.3979	25465.45	3.8630	3.8630	1.0985	26.87	0.94	1.500			
0.4012	25677.78	3.8600	3.8600	1.1074	26.86	0.93	1.500			
0.4045	25890.69	3.8570	3.8570	1.1184	26.85	0.92	1.500			
0.4079	26105.38	3.8540	3.8540	1.1291	26.84	0.91	1.500			
0.4113	26323.72	3.8510	3.8510	1.1502	26.83	0.90	1.500			
0.4148	26545.16	3.8480	3.8480	1.1680	26.82	0.89	1.500			
0.4183	26773.07	3.8450	3.8449	1.1817	26.81	0.88	1.500			
0.4219	27000.08	3.8420	3.8421	1.2022	26.80	0.87	1.500			
0.4255	27233.79	3.8390	3.8390	1.2272	26.80	0.87	1.500			
0.4292	27470.14	3.8360	3.8361	1.2536	26.79	0.86	1.500			
0.4330	27712.50	3.8330	3.8330	1.2763	26.78	0.85	1.500			
0.4369	27959.47	3.8300	3.8300	1.3006	26.77	0.84	1.500			
0.4408	28214.17	3.8270	3.8271	1.3249	26.76	0.83	1.500			
0.4449	28471.12	3.8240	3.8240	1.3469	26.75	0.82	1.500			
0.4489	28730.36	3.8210	3.8211	1.3684	26.74	0.81	1.500			
0.4530	28994.00	3.8180	3.8180	1.3969	26.73	0.80	1.500			
0.4573	29264.87	3.8150	3.8148	1.4217	26.72	0.79	1.500			
0.4616	29540.79	3.8120	3.8120	1.4538	26.71	0.78	1.500			
0.4660	29824.66	3.8090	3.8091	1.4864	26.69	0.76	1.500			
0.4705	30112.31	3.8060	3.8059	1.5239	26.68	0.75	1.500			
0.4751	30405.51	3.8030	3.8030	1.5494	26.66	0.73	1.500			
0.4798	30706.00	3.8000	3.8000	1.5860	26.65	0.72	1.500			
0.4846	31013.59	3.7970	3.7971	1.6204	26.63	0.70	1.500			
0.4896	31333.16	3.7940	3.7940	1.6465	26.62	0.69	1.500			
0.4945	31650.86	3.7910	3.7910	1.6715	26.61	0.68	1.500			
0.4996	31972.28	3.7880	3.7881	1.6965	26.60	0.67	1.500			
0.5047	32300.39	3.7850	3.7850	1.7285	26.59	0.66	1.500			
0.5099	32635.89	3.7820	3.7820	1.7712	26.57	0.64	1.500			
0.5153	32982.39	3.7790	3.7790	1.7803	26.55	0.62	1.500			
0.5208	33328.61	3.7760	3.7763	1.8063	26.54	0.61	1.500			
0.5262	33677.55	3.7730	3.7731	1.8218	26.52	0.59	1.500	0.343	0.463	
0.5317	34027.27	3.7700	3.7698	1.8268	26.50	0.57	1.500			
0.5372	34378.89	3.7670	3.7671	1.8229	26.48	0.55	1.500			
0.5426	34726.13	3.7640	3.7641	1.8163	26.47	0.54	1.500			
0.5481	35079.45	3.7610	3.7610	1.8208	26.45	0.52	1.500			
0.5535	35421.93	3.7580	3.7580	1.8020	26.43	0.50	1.500			
0.5589	35768.12	3.7550	3.7550	1.8150	26.42	0.49	1.500			
0.5643	36117.61	3.7520	3.7520	1.8187	26.40	0.47	1.500			
0.5698	36468.72	3.7490	3.7490	1.8211	26.39	0.46	1.500			
0.5752	36811.36	3.7460	3.7461	1.8168	26.38	0.45	1.500			
0.5807	37162.13	3.7430	3.7430	1.8446	26.36	0.43	1.500			
0.5862	37518.71	3.7400	3.7400	1.8804	26.35	0.42	1.500			
0.5919	37883.41	3.7370	3.7371	1.9087	26.34	0.41	1.500			
0.5978	38256.29	3.7340	3.7340	1.9518	26.32	0.39	1.500			
0.6036	38631.19	3.7310	3.7311	2.0022	26.31	0.38	1.500			
0.6097	39021.31	3.7280	3.7279	2.0496	26.29	0.36	1.500			
0.6160	39422.47	3.7250	3.7250	2.0834	26.28	0.35	1.500			
0.6223	39828.99	3.7220	3.7221	2.1555	26.26	0.33	1.500			
0.6288	40243.36	3.7190	3.7189	2.2117	26.25	0.32	1.500			
0.6355	40672.78	3.7160	3.7160	2.3105	26.23	0.30	1.500			
0.6426	41128.76	3.7130	3.7130	2.3714	26.21	0.28	1.500			
0.6498	41586.36	3.7100	3.7101	2.4141	26.20	0.27	1.500			
0.6571	42053.86	3.7070	3.7068	2.4599	26.18	0.25	1.500			
0.6645	42528.93	3.7040	3.7041	2.4739	26.17	0.24	1.500			
0.6721	43013.10	3.7010	3.7010	2.4145	26.16	0.23	1.500			
0.6792	43470.85	3.6980	3.6980	2.3333	26.14	0.21	1.500			
0.6861	43912.57	3.6950	3.6951	2.1787	26.13	0.20	1.500			
0.6925	44317.18	3.6920	3.6921	2.0237	26.12	0.19	1.500			
0.6982	44686.30	3.6890	3.6889	1.8562	26.11	0.18	1.500			
0.7034	45016.46	3.6860	3.6860	1.7000	26.11	0.18	1.500			
0.7083	45331.07	3.6830	3.6830	1.5980	26.10	0.17	1.500			
0.7129	45622.60	3.6800	3.6800	1.5127	26.09	0.16	1.500			
0.7172	45902.29	3.6770	3.6770	1.4332	26.08	0.15	1.500			
0.7214	46169.54	3.6740	3.6740	1.3744	26.07	0.14	1.500			
0.7254	46423.70	3.6710	3.6710	1.3291	26.06	0.13	1.500			
0.7292	46671.95	3.6680	3.6681	1.2970	26.05	0.12	1.500			
0.7330	46914.28	3.6650	3.6649	1.2712	26.04	0.11	1.500			
0.7368	47155.04	3.6620	3.6619	1.2568	26.03	0.10	1.500			
0.7405	47391.47	3.6590	3.6591	1.2515	26.03	0.10	1.500			
0.7443	47632.51	3.6560	3.6560	1.2558	26.02	0.09	1.500			
0.7480	47872.45	3.6530	3.6530	1.2629	26.01	0.08	1.500			
0.7518	48115.53	3.6500	3.6500	1.2735	26.01	0.08	1.500			
0.7556	48360.92	3.6470	3.6470	1.2793	26.00	0.07	1.500			
0.7595	48609.37	3.6440	3.6440	1.2883	25.99	0.06	1.500			
0.7634	48859.37	3.6410	3.6410	1.2897	25.98	0.05	1.500			
0.7673	49107.32	3.6380	3.6380	1.2846	25.98	0.05	1.500			
0.7712	49354.35	3.6350	3.6350	1.2802	25.97	0.04	1.500			
0.7750	49598.06	3.6320	3.6321	1.2675	25.96	0.03	1.500			
0.7788	49840.80	3.6290	3.6289	1.2642	25.95	0.02	1.500			
0.7825	50081.99	3.6260	3.6261	1.2639	25.94	0.01	1.500			
0.7863	50322.83	3.6230	3.6229	1.2630	25.94	0.01	1.500			
0.7901	50568.02	3.6200	3.6200	1.2592	25.93	0.00	1.500			
0.7939	50809.31	3.6170	3.6170	1.2555	25.93	0.00	1.500			
0.7977	51052.47	3.6140	3.6140	1.2429	25.93	-0.00	1.500			
0.8014	51290.65	3.6110	3.6110	1.2301	25.92	-0.01	1.500			
0.8051	51523.44	3.6080	3.6080	1.2129	25.92	-0.01	1.500			
0.8087	51754.59	3.6050	3.6050	1.1954	25.92	-0.01	1.500			
0.8122	51982.09	3.6020	3.6020	1.1772	25.92	-0.01	1.500			
0.8158	52208.41	3.5990	3.5990	1.1599	25.92	-0.01	1.500			
0.8192	52428.48	3.5960	3.5961	1.1421	25.92	-0.01	1.500			
0.8226	52647.79	3.5930	3.5929	1.1271	25.93	-0.00	1.500			
0.8260	52861.07	3.5900	3.5900	1.1033	25.93	-0.00	1.500			
0.8293	53072.97	3.5870	3.5870	1.0775	25.93	-0.00	1.500			
0.8326	53284.78	3.5840	3.5839	1.0346	25.93	0.00	1.500			
0.8357	53483.17	3.5810	3.5810	0.9715	25.93	0.00	1.500			
0.8386	53671.37	3.5780	3.5781	0.8929	25.93	0.00	1.500			
0.8412	53835.02	3.5750	3.5751	0.7898	25.93	0.00	1.500			
0.8434	53978.06	3.5720	3.5719	0.6842	25.93	0.00	1.500			
0.8453	54096.63	3.5690	3.5690	0.5747	25.94	0.01	1.500			
0.8467	54190.97	3.5660	3.5661	0.4785	25.94	0.01	1.500			
0.8480	54270.01	3.5630	3.5630	0.3999	25.94	0.01	1.500			
0.8490	54333.28	3.5600	3.5600	0.3346	25.94	0.01	1.500			
0.8498	54389.21	3.5570	3.5569	0.2883	25.94	0.01	1.500			
0.8506	54437.73	3.5540	3.5539	0.2476	25.94	0.01	1.500			
0.8513	54481.45	3.5510	3.5509	0.2222	25.94	0.01	1.500			
0.8519	54520.24	3.5480	3.5482	0.1995	25.94	0.01	1.500			
0.8524	54555.54	3.5450	3.5450	0.1813	25.94	0.01	1.500			
0.8529	54588.34	3.5420	3.5420	0.1638	25.94	0.01	1.500			
0.8534	54617.54	3.5390	3.5390	0.1483	25.94	0.01	1.500			
0.8538	54643.96	3.5360	3.5359	0.1330	25.94	0.01	1.500			
0.8542	54668.77	3.5330	3.5331	0.1199	25.94	0.01	1.500			
0.8545	54690.44	3.5300	3.5300	0.1057	25.94	0.01	1.500			
0.8548	54709.49	3.5270	3.5271	0.0917	25.94	0.01	1.500			
0.8551	54726.01	3.5240	3.5240	0.0775	25.94	0.01	1.500			
0.8553	54739.47	3.5210	3.5212	0.0627	25.94	0.01	1.500			
0.8555	54750.03	3.5180	3.5185	0.0479	25.94	0.01	1.500			
0.8556	54757.82	3.5150	3.5158	0.0332	25.94	0.01	1.500			
