Ah_balance (normalized)	Ah_balance (mAh)	Voltage - fit (V)	Voltage -  interpolate (V)	dQ/dV (1/V)	Temperature (°C)	Temperature - diff (°C)	Current (C)	R_DC 0ms (mOhm)	R_DC 50ms (mOhm)	R_DC 50 ms PEC (mOhm)
0.2688	17204.75	3.9910	3.9910	0.8304	27.20	1.26	1.500			
0.2713	17364.56	3.9880	3.9880	0.8361	27.19	1.25	1.500			
0.2739	17527.36	3.9850	3.9850	0.8486	27.19	1.25	1.500			
0.2764	17692.33	3.9820	3.9820	0.8525	27.18	1.24	1.500			
0.2790	17856.34	3.9790	3.9790	0.8574	27.18	1.24	1.500			
0.2816	18021.60	3.9760	3.9761	0.8559	27.17	1.23	1.500			
0.2842	18186.64	3.9730	3.9730	0.8585	27.16	1.22	1.500			
0.2867	18350.27	3.9700	3.9700	0.8580	27.16	1.22	1.500			
0.2893	18514.15	3.9670	3.9670	0.8579	27.15	1.21	1.500			
0.2919	18679.60	3.9640	3.9640	0.8627	27.14	1.20	1.500			
0.2945	18845.64	3.9610	3.9610	0.8693	27.14	1.20	1.500			
0.2971	19012.50	3.9580	3.9580	0.8724	27.13	1.19	1.500			
0.2997	19181.66	3.9550	3.9550	0.8778	27.13	1.19	1.500			
0.3024	19350.41	3.9520	3.9520	0.8789	27.12	1.18	1.500			
0.3050	19519.24	3.9490	3.9490	0.8836	27.11	1.17	1.500			
0.3076	19688.92	3.9460	3.9460	0.8888	27.11	1.17	1.500			
0.3103	19859.73	3.9430	3.9429	0.8928	27.10	1.16	1.500			
0.3130	20031.11	3.9400	3.9400	0.8983	27.09	1.15	1.500			
0.3157	20204.82	3.9370	3.9370	0.9053	27.09	1.15	1.500			
0.3184	20379.99	3.9340	3.9340	0.9128	27.08	1.14	1.500			
0.3212	20555.71	3.9310	3.9310	0.9183	27.07	1.13	1.500			
0.3240	20733.42	3.9280	3.9280	0.9199	27.07	1.13	1.500			
0.3267	20910.28	3.9250	3.9250	0.9227	27.06	1.12	1.500			
0.3295	21087.49	3.9220	3.9221	0.9284	27.05	1.11	1.500			
0.3323	21265.60	3.9190	3.9190	0.9323	27.05	1.11	1.500			
0.3351	21445.55	3.9160	3.9159	0.9351	27.04	1.10	1.500			
0.3379	21624.14	3.9130	3.9130	0.9420	27.03	1.09	1.500			
0.3407	21805.89	3.9100	3.9101	0.9479	27.03	1.09	1.500			
0.3436	21990.21	3.9070	3.9069	0.9591	27.02	1.08	1.500			
0.3465	22174.37	3.9040	3.9040	0.9624	27.01	1.07	1.500			
0.3494	22358.79	3.9010	3.9010	0.9692	27.01	1.07	1.500			
0.3523	22546.32	3.8980	3.8980	0.9777	27.00	1.06	1.500			
0.3552	22734.87	3.8950	3.8950	0.9870	26.99	1.05	1.500			
0.3582	22924.39	3.8920	3.8920	0.9912	26.99	1.05	1.500			
0.3612	23114.77	3.8890	3.8889	1.0031	26.98	1.04	1.500			
0.3642	23307.37	3.8860	3.8860	1.0131	26.97	1.03	1.500			
0.3672	23503.53	3.8830	3.8831	1.0234	26.97	1.03	1.500			
0.3703	23700.83	3.8800	3.8799	1.0325	26.96	1.02	1.500			
0.3735	23903.47	3.8770	3.8771	1.0395	26.95	1.01	1.500			
0.3766	24103.16	3.8740	3.8740	1.0457	26.95	1.01	1.500			
0.3797	24303.17	3.8710	3.8711	1.0602	26.94	1.00	1.500			
0.3829	24506.69	3.8680	3.8681	1.0676	26.94	1.00	1.500			
0.3861	24710.99	3.8650	3.8648	1.0816	26.93	0.99	1.500			
0.3894	24920.40	3.8620	3.8621	1.0984	26.92	0.98	1.500			
0.3927	25133.37	3.8590	3.8590	1.1131	26.91	0.97	1.500			
0.3961	25348.20	3.8560	3.8560	1.1332	26.90	0.96	1.500			
0.3995	25566.99	3.8530	3.8530	1.1450	26.89	0.95	1.500			
0.4029	25787.84	3.8500	3.8500	1.1624	26.87	0.93	1.500			
0.4065	26013.97	3.8470	3.8470	1.1818	26.86	0.92	1.500			
0.4100	26241.73	3.8440	3.8440	1.1984	26.85	0.91	1.500			
0.4137	26474.78	3.8410	3.8410	1.2146	26.84	0.90	1.500			
0.4173	26709.69	3.8380	3.8380	1.2303	26.83	0.89	1.500			
0.4210	26944.96	3.8350	3.8350	1.2506	26.82	0.88	1.500			
0.4248	27188.22	3.8320	3.8320	1.2749	26.81	0.87	1.500			
0.4287	27433.89	3.8290	3.8289	1.2931	26.80	0.86	1.500			
0.4326	27684.08	3.8260	3.8261	1.3174	26.79	0.85	1.500			
0.4365	27938.65	3.8230	3.8230	1.3428	26.78	0.84	1.500			
0.4406	28199.43	3.8200	3.8199	1.3692	26.77	0.83	1.500			
0.4448	28464.90	3.8170	3.8170	1.3899	26.76	0.82	1.500			
0.4489	28732.77	3.8140	3.8140	1.4156	26.75	0.81	1.500			
0.4533	29009.22	3.8110	3.8110	1.4417	26.74	0.80	1.500			
0.4576	29287.90	3.8080	3.8080	1.4641	26.73	0.79	1.500			
0.4620	29570.99	3.8050	3.8050	1.4915	26.72	0.78	1.500			
0.4665	29858.47	3.8020	3.8021	1.5183	26.70	0.76	1.500			
0.4711	30153.49	3.7990	3.7990	1.5472	26.69	0.75	1.500			
0.4758	30454.00	3.7960	3.7960	1.5781	26.67	0.73	1.500			
0.4806	30758.35	3.7930	3.7930	1.6054	26.66	0.72	1.500			
0.4855	31071.47	3.7900	3.7900	1.6279	26.64	0.70	1.500			
0.4904	31385.22	3.7870	3.7871	1.6537	26.63	0.69	1.500			
0.4954	31705.22	3.7840	3.7840	1.6838	26.61	0.67	1.500			
0.5005	32031.25	3.7810	3.7810	1.7183	26.60	0.66	1.500			
0.5057	32364.58	3.7780	3.7778	1.7366	26.58	0.64	1.500	0.339	0.464	
0.5110	32703.80	3.7750	3.7750	1.7599	26.57	0.63	1.500			
0.5163	33043.52	3.7720	3.7720	1.7638	26.55	0.61	1.500			
0.5216	33381.73	3.7690	3.7690	1.7560	26.54	0.60	1.500			
0.5269	33720.51	3.7660	3.7660	1.7639	26.52	0.58	1.500			
0.5321	34056.62	3.7630	3.7630	1.7635	26.51	0.57	1.500			
0.5374	34395.78	3.7600	3.7600	1.7694	26.50	0.56	1.500			
0.5427	34734.69	3.7570	3.7570	1.7735	26.48	0.54	1.500			
0.5481	35076.34	3.7540	3.7540	1.7712	26.47	0.53	1.500			
0.5534	35417.59	3.7510	3.7510	1.7905	26.46	0.52	1.500			
0.5588	35760.77	3.7480	3.7480	1.8098	26.44	0.50	1.500			
0.5642	36110.30	3.7450	3.7450	1.8318	26.43	0.49	1.500			
0.5698	36464.06	3.7420	3.7420	1.8617	26.41	0.47	1.500			
0.5754	36824.02	3.7390	3.7390	1.8914	26.40	0.46	1.500			
0.5811	37188.17	3.7360	3.7360	1.9333	26.38	0.44	1.500			
0.5869	37564.34	3.7330	3.7330	1.9847	26.37	0.43	1.500			
0.5930	37950.64	3.7300	3.7300	2.0308	26.35	0.41	1.500			
0.5991	38344.21	3.7270	3.7270	2.0866	26.34	0.40	1.500			
0.6055	38751.53	3.7240	3.7240	2.1502	26.32	0.38	1.500			
0.6120	39170.02	3.7210	3.7210	2.2031	26.31	0.37	1.500			
0.6188	39600.40	3.7180	3.7180	2.2442	26.29	0.35	1.500			
0.6256	40036.82	3.7150	3.7150	2.3057	26.27	0.33	1.500			
0.6325	40481.47	3.7120	3.7120	2.3355	26.25	0.31	1.500			
0.6396	40935.12	3.7090	3.7091	2.3703	26.23	0.29	1.500			
0.6468	41397.38	3.7060	3.7060	2.3568	26.21	0.27	1.500			
0.6539	41847.59	3.7030	3.7030	2.3007	26.20	0.26	1.500			
0.6607	42287.89	3.7000	3.6999	2.2060	26.18	0.24	1.500			
0.6673	42707.81	3.6970	3.6970	2.0798	26.17	0.23	1.500			
0.6733	43091.75	3.6940	3.6940	1.9241	26.16	0.22	1.500			
0.6788	43441.69	3.6910	3.6911	1.7910	26.15	0.21	1.500			
0.6839	43771.13	3.6880	3.6879	1.6735	26.14	0.20	1.500			
0.6887	44079.04	3.6850	3.6850	1.5824	26.13	0.19	1.500			
0.6933	44373.08	3.6820	3.6821	1.5023	26.12	0.18	1.500			
0.6977	44653.35	3.6790	3.6790	1.4397	26.12	0.18	1.500			
0.7019	44921.07	3.6760	3.6760	1.3809	26.11	0.17	1.500			
0.7058	45173.34	3.6730	3.6730	1.3295	26.10	0.16	1.500			
0.7097	45423.28	3.6700	3.6699	1.3049	26.09	0.15	1.500			
0.7136	45667.53	3.6670	3.6670	1.2865	26.08	0.14	1.500			
0.7174	45911.92	3.6640	3.6639	1.2799	26.07	0.13	1.500			
0.7212	46158.31	3.6610	3.6610	1.2778	26.06	0.12	1.500			
0.7250	46402.19	3.6580	3.6580	1.2795	26.06	0.12	1.500			
0.7289	46647.40	3.6550	3.6550	1.2801	26.05	0.11	1.500			
0.7327	46894.10	3.6520	3.6520	1.2839	26.04	0.10	1.500			
0.7366	47140.57	3.6490	3.6490	1.2787	26.03	0.09	1.500			
0.7404	47386.26	3.6460	3.6460	1.2814	26.02	0.08	1.500			
0.7443	47632.82	3.6430	3.6430	1.2799	26.01	0.07	1.500			
0.7481	47880.32	3.6400	3.6400	1.2689	26.00	0.06	1.500			
0.7519	48121.90	3.6370	3.6370	1.2633	26.00	0.06	1.500			
0.7557	48364.37	3.6340	3.6340	1.2599	25.99	0.05	1.500			
0.7595	48605.26	3.6310	3.6310	1.2515	25.98	0.04	1.500			
0.7632	48844.86	3.6280	3.6280	1.2492	25.98	0.04	1.500			
0.7669	49083.53	3.6250	3.6250	1.2387	25.97	0.03	1.500			
0.7707	49322.29	3.6220	3.6220	1.2325	25.96	0.02	1.500			
0.7744	49558.92	3.6190	3.6190	1.2193	25.96	0.02	1.500			
0.7780	49792.19	3.6160	3.6160	1.2091	25.95	0.01	1.500			
0.7816	50022.51	3.6130	3.6130	1.2002	25.95	0.01	1.500			
0.7852	50253.80	3.6100	3.6098	1.1816	25.94	0.00	1.500			
0.7887	50478.73	3.6070	3.6070	1.1620	25.94	0.00	1.500			
0.7922	50702.11	3.6040	3.6041	1.1427	25.94	0.00	1.500			
0.7956	50920.97	3.6010	3.6010	1.1209	25.94	0.00	1.500			
0.7989	51132.32	3.5980	3.5979	1.0923	25.94	0.00	1.500			
0.8022	51339.36	3.5950	3.5951	1.0687	25.94	0.00	1.500			
0.8054	51542.51	3.5920	3.5920	1.0440	25.94	0.00	1.500			
0.8085	51744.63	3.5890	3.5890	1.0080	25.94	0.00	1.500			
0.8116	51939.21	3.5860	3.5860	0.9601	25.94	0.00	1.500			
0.8144	52123.81	3.5830	3.5830	0.8840	25.94	0.00	1.500			
0.8171	52293.60	3.5800	3.5800	0.8025	25.94	0.00	1.500			
0.8194	52440.25	3.5770	3.5771	0.7025	25.94	0.00	1.500			
0.8213	52565.13	3.5740	3.5740	0.6002	25.94	0.00	1.500			
0.8229	52664.00	3.5710	3.5711	0.5061	25.94	0.00	1.500			
0.8242	52747.55	3.5680	3.5680	0.4298	25.94	0.00	1.500			
0.8253	52819.25	3.5650	3.5650	0.3577	25.94	0.00	1.500			
0.8263	52880.01	3.5620	3.5619	0.3102	25.94	0.00	1.500			
0.8271	52931.34	3.5590	3.5590	0.2704	25.94	0.00	1.500			
0.8278	52977.69	3.5560	3.5560	0.2411	25.94	0.00	1.500			
0.8284	53019.56	3.5530	3.5530	0.2146	25.94	0.00	1.500			
0.8290	53057.87	3.5500	3.5499	0.1963	25.94	0.00	1.500			
0.8296	53093.32	3.5470	3.5470	0.1791	25.94	0.00	1.500			
0.8301	53125.66	3.5440	3.5440	0.1626	25.94	0.00	1.500			
0.8306	53155.43	3.5410	3.5409	0.1487	25.94	0.00	1.500			
0.8310	53182.82	3.5380	3.5381	0.1348	25.94	0.00	1.500			
0.8314	53207.10	3.5350	3.5349	0.1203	25.94	0.00	1.500			
0.8317	53228.92	3.5320	3.5320	0.1066	25.94	0.00	1.500			
0.8320	53248.03	3.5290	3.5290	0.0926	25.94	0.00	1.500			
0.8323	53264.20	3.5260	3.5262	0.0785	25.94	0.00	1.500			
0.8325	53278.57	3.5230	3.5231	0.0647	25.94	0.00	1.500			
0.8326	53289.57	3.5200	3.5202	0.0499	25.94	0.00	1.500			
0.8328	53297.73	3.5170	3.5178	0.0351	25.94	0.00	1.500			
