Ah_balance (normalized)	Ah_balance (mAh)	Voltage - fit (V)	Voltage -  interpolate (V)	dQ/dV (1/V)	Temperature (°C)	Temperature - diff (°C)	Current (C)	R_DC 0ms (mOhm)	R_DC 50ms (mOhm)	R_DC 50 ms PEC (mOhm)
0.2900	18556.82	3.9840	3.9840	0.8611	27.05	1.07	1.500			
0.2925	18719.85	3.9810	3.9810	0.8480	27.05	1.07	1.500			
0.2950	18882.26	3.9780	3.9780	0.8490	27.04	1.06	1.500			
0.2976	19045.21	3.9750	3.9751	0.8534	27.04	1.06	1.500			
0.3002	19209.99	3.9720	3.9720	0.8553	27.04	1.06	1.500			
0.3027	19372.96	3.9690	3.9690	0.8570	27.04	1.06	1.500			
0.3053	19538.12	3.9660	3.9661	0.8628	27.03	1.05	1.500			
0.3079	19704.91	3.9630	3.9630	0.8703	27.03	1.05	1.500			
0.3105	19871.51	3.9600	3.9600	0.8720	27.03	1.05	1.500			
0.3131	20040.15	3.9570	3.9569	0.8789	27.02	1.04	1.500			
0.3158	20210.31	3.9540	3.9541	0.8765	27.02	1.04	1.500			
0.3184	20378.07	3.9510	3.9511	0.8830	27.02	1.04	1.500			
0.3210	20546.26	3.9480	3.9480	0.8853	27.01	1.03	1.500			
0.3237	20717.01	3.9450	3.9448	0.8933	27.01	1.03	1.500			
0.3264	20888.40	3.9420	3.9420	0.8954	27.00	1.02	1.500			
0.3291	21060.75	3.9390	3.9390	0.9038	27.00	1.02	1.500			
0.3318	21236.72	3.9360	3.9361	0.9130	26.99	1.01	1.500			
0.3346	21413.30	3.9330	3.9329	0.9152	26.98	1.00	1.500			
0.3373	21589.86	3.9300	3.9299	0.9132	26.97	0.99	1.500			
0.3401	21765.03	3.9270	3.9271	0.9145	26.97	0.99	1.500			
0.3428	21940.18	3.9240	3.9241	0.9163	26.96	0.98	1.500			
0.3456	22117.34	3.9210	3.9210	0.9237	26.95	0.97	1.500			
0.3483	22292.93	3.9180	3.9179	0.9266	26.94	0.96	1.500			
0.3511	22470.17	3.9150	3.9150	0.9342	26.94	0.96	1.500			
0.3539	22650.78	3.9120	3.9121	0.9435	26.93	0.95	1.500			
0.3568	22834.80	3.9090	3.9089	0.9581	26.93	0.95	1.500			
0.3597	23019.34	3.9060	3.9060	0.9602	26.92	0.94	1.500			
0.3626	23204.73	3.9030	3.9030	0.9643	26.92	0.94	1.500			
0.3655	23389.65	3.9000	3.9001	0.9687	26.91	0.93	1.500			
0.3684	23575.36	3.8970	3.8970	0.9771	26.91	0.93	1.500			
0.3713	23763.79	3.8940	3.8940	0.9860	26.90	0.92	1.500			
0.3743	23952.93	3.8910	3.8910	0.9999	26.90	0.92	1.500			
0.3773	24145.90	3.8880	3.8880	1.0091	26.89	0.91	1.500			
0.3803	24342.27	3.8850	3.8850	1.0220	26.88	0.90	1.500			
0.3834	24540.58	3.8820	3.8820	1.0312	26.88	0.90	1.500			
0.3865	24739.08	3.8790	3.8791	1.0383	26.87	0.89	1.500			
0.3897	24938.27	3.8760	3.8760	1.0467	26.86	0.88	1.500			
0.3928	25140.30	3.8730	3.8730	1.0552	26.86	0.88	1.500			
0.3960	25342.37	3.8700	3.8700	1.0646	26.85	0.87	1.500			
0.3992	25548.82	3.8670	3.8670	1.0805	26.84	0.86	1.500			
0.4024	25756.31	3.8640	3.8640	1.0936	26.83	0.85	1.500			
0.4057	25967.46	3.8610	3.8610	1.1095	26.82	0.84	1.500			
0.4091	26182.37	3.8580	3.8580	1.1227	26.82	0.84	1.500			
0.4125	26399.67	3.8550	3.8549	1.1356	26.81	0.83	1.500			
0.4159	26618.14	3.8520	3.8520	1.1579	26.80	0.82	1.500			
0.4194	26841.78	3.8490	3.8491	1.1724	26.79	0.81	1.500			
0.4229	27068.44	3.8460	3.8459	1.1920	26.78	0.80	1.500			
0.4265	27299.08	3.8430	3.8430	1.2096	26.77	0.79	1.500			
0.4302	27532.72	3.8400	3.8401	1.2352	26.77	0.79	1.500			
0.4340	27773.38	3.8370	3.8369	1.2493	26.76	0.78	1.500			
0.4377	28014.91	3.8340	3.8340	1.2731	26.75	0.77	1.500			
0.4415	28257.54	3.8310	3.8311	1.2986	26.74	0.76	1.500			
0.4455	28511.94	3.8280	3.8280	1.3266	26.73	0.75	1.500			
0.4495	28769.53	3.8250	3.8249	1.3527	26.72	0.74	1.500			
0.4536	29031.93	3.8220	3.8221	1.3822	26.71	0.73	1.500			
0.4578	29299.94	3.8190	3.8190	1.4062	26.70	0.72	1.500			
0.4621	29573.01	3.8160	3.8160	1.4419	26.69	0.71	1.500			
0.4664	29848.20	3.8130	3.8130	1.4655	26.68	0.70	1.500			
0.4708	30132.73	3.8100	3.8100	1.5014	26.67	0.69	1.500			
0.4754	30426.25	3.8070	3.8070	1.5403	26.66	0.68	1.500			
0.4801	30724.62	3.8040	3.8041	1.5717	26.64	0.66	1.500			
0.4849	31030.70	3.8010	3.8010	1.6122	26.63	0.65	1.500			
0.4897	31342.98	3.7980	3.7980	1.6445	26.61	0.63	1.500			
0.4947	31658.00	3.7950	3.7950	1.6809	26.59	0.61	1.500			
0.4998	31985.51	3.7920	3.7921	1.7249	26.58	0.60	1.500			
0.5050	32320.27	3.7890	3.7890	1.7676	26.56	0.58	1.500			
0.5104	32666.74	3.7860	3.7859	1.7925	26.54	0.56	1.500			
0.5159	33015.07	3.7830	3.7831	1.8254	26.53	0.55	1.500			
0.5214	33369.12	3.7800	3.7800	1.8495	26.51	0.53	1.500			
0.5269	33724.47	3.7770	3.7770	1.8779	26.49	0.51	1.500			
0.5326	34085.76	3.7740	3.7740	1.9032	26.47	0.49	1.500			
0.5384	34454.74	3.7710	3.7706	1.9293	26.45	0.47	1.500	0.355	0.461	
0.5442	34831.62	3.7680	3.7680	1.9380	26.44	0.46	1.500			
0.5501	35205.32	3.7650	3.7650	1.9297	26.42	0.44	1.500			
0.5559	35577.65	3.7620	3.7621	1.9187	26.40	0.42	1.500			
0.5616	35941.18	3.7590	3.7590	1.9046	26.38	0.40	1.500			
0.5672	36303.35	3.7560	3.7560	1.8904	26.37	0.39	1.500			
0.5729	36664.84	3.7530	3.7529	1.8888	26.35	0.37	1.500			
0.5785	37025.98	3.7500	3.7501	1.8923	26.34	0.36	1.500			
0.5843	37392.84	3.7470	3.7470	1.8927	26.33	0.35	1.500			
0.5899	37755.60	3.7440	3.7440	1.8960	26.31	0.33	1.500			
0.5956	38119.94	3.7410	3.7411	1.9128	26.30	0.32	1.500			
0.6014	38489.41	3.7380	3.7380	1.9389	26.28	0.30	1.500			
0.6072	38862.52	3.7350	3.7350	1.9572	26.27	0.29	1.500			
0.6131	39240.28	3.7320	3.7320	2.0010	26.25	0.27	1.500			
0.6192	39626.56	3.7290	3.7290	2.0435	26.23	0.25	1.500			
0.6254	40025.80	3.7260	3.7260	2.1071	26.22	0.24	1.500			
0.6318	40432.81	3.7230	3.7230	2.1567	26.21	0.23	1.500			
0.6382	40847.31	3.7200	3.7201	2.2143	26.20	0.22	1.500			
0.6450	41276.87	3.7170	3.7170	2.2780	26.19	0.21	1.500			
0.6519	41719.53	3.7140	3.7141	2.3796	26.17	0.19	1.500			
0.6592	42186.84	3.7110	3.7110	2.4513	26.16	0.18	1.500			
0.6667	42670.69	3.7080	3.7080	2.5162	26.14	0.16	1.500			
0.6744	43162.11	3.7050	3.7049	2.5676	26.13	0.15	1.500			
0.6823	43664.20	3.7020	3.7020	2.5555	26.12	0.14	1.500			
0.6900	44160.50	3.6990	3.6990	2.5274	26.10	0.12	1.500			
0.6975	44638.45	3.6960	3.6959	2.3994	26.09	0.11	1.500			
0.7045	45086.82	3.6930	3.6930	2.2390	26.08	0.10	1.500			
0.7109	45498.86	3.6900	3.6900	2.0558	26.08	0.10	1.500			
0.7168	45872.65	3.6870	3.6870	1.9017	26.07	0.09	1.500			
0.7222	46220.64	3.6840	3.6839	1.7628	26.06	0.08	1.500			
0.7273	46544.28	3.6810	3.6810	1.6504	26.06	0.08	1.500			
0.7320	46847.59	3.6780	3.6780	1.5582	26.05	0.07	1.500			
0.7365	47134.93	3.6750	3.6750	1.4745	26.05	0.07	1.500			
0.7407	47404.06	3.6720	3.6720	1.4030	26.04	0.06	1.500			
0.7448	47665.97	3.6690	3.6691	1.3522	26.04	0.06	1.500			
0.7487	47918.37	3.6660	3.6658	1.3156	26.03	0.05	1.500			
0.7526	48164.39	3.6630	3.6630	1.2920	26.03	0.05	1.500			
0.7564	48408.93	3.6600	3.6600	1.2755	26.02	0.04	1.500			
0.7602	48652.03	3.6570	3.6570	1.2657	26.02	0.04	1.500			
0.7639	48891.77	3.6540	3.6541	1.2622	26.01	0.03	1.500			
0.7677	49134.68	3.6510	3.6510	1.2670	26.01	0.03	1.500			
0.7715	49377.18	3.6480	3.6479	1.2757	26.00	0.02	1.500			
0.7753	49621.06	3.6450	3.6451	1.2852	26.00	0.02	1.500			
0.7792	49870.85	3.6420	3.6420	1.2876	25.99	0.01	1.500			
0.7831	50121.43	3.6390	3.6390	1.2931	25.98	0.00	1.500			
0.7870	50371.05	3.6360	3.6361	1.2890	25.97	-0.01	1.500			
0.7909	50617.00	3.6330	3.6330	1.2835	25.97	-0.01	1.500			
0.7948	50864.32	3.6300	3.6300	1.2801	25.96	-0.02	1.500			
0.7986	51108.75	3.6270	3.6270	1.2711	25.95	-0.03	1.500			
0.8024	51351.16	3.6240	3.6240	1.2642	25.95	-0.03	1.500			
0.8062	51595.63	3.6210	3.6210	1.2578	25.94	-0.04	1.500			
0.8100	51836.97	3.6180	3.6180	1.2483	25.94	-0.04	1.500			
0.8137	52075.48	3.6150	3.6150	1.2399	25.93	-0.05	1.500			
0.8174	52310.95	3.6120	3.6120	1.2319	25.93	-0.05	1.500			
0.8211	52547.51	3.6090	3.6090	1.2241	25.92	-0.06	1.500			
0.8247	52782.35	3.6060	3.6059	1.2154	25.92	-0.06	1.500			
0.8284	53015.40	3.6030	3.6030	1.2013	25.92	-0.06	1.500			
0.8320	53246.69	3.6000	3.6000	1.1875	25.92	-0.06	1.500			
0.8355	53472.47	3.5970	3.5970	1.1677	25.92	-0.06	1.500			
0.8390	53694.89	3.5940	3.5940	1.1458	25.93	-0.05	1.500			
0.8424	53911.91	3.5910	3.5909	1.1298	25.93	-0.05	1.500			
0.8457	54126.18	3.5880	3.5881	1.1149	25.93	-0.05	1.500			
0.8491	54339.61	3.5850	3.5849	1.0952	25.93	-0.05	1.500			
0.8524	54552.16	3.5820	3.5819	1.0691	25.94	-0.04	1.500			
0.8556	54760.84	3.5790	3.5790	1.0091	25.94	-0.04	1.500			
0.8587	54958.67	3.5760	3.5761	0.9402	25.95	-0.03	1.500			
0.8615	55138.52	3.5730	3.5730	0.8428	25.96	-0.02	1.500			
0.8639	55291.24	3.5700	3.5701	0.7257	25.96	-0.02	1.500			
0.8659	55415.13	3.5670	3.5670	0.6119	25.96	-0.02	1.500			
0.8675	55517.97	3.5640	3.5640	0.5057	25.97	-0.01	1.500			
0.8687	55597.31	3.5610	3.5611	0.4198	25.97	-0.01	1.500			
0.8698	55665.83	3.5580	3.5580	0.3557	25.97	-0.01	1.500			
0.8707	55725.52	3.5550	3.5550	0.2983	25.97	-0.01	1.500			
0.8715	55776.35	3.5520	3.5519	0.2616	25.97	-0.01	1.500			
0.8722	55821.13	3.5490	3.5490	0.2307	25.98	-0.00	1.500			
0.8728	55860.99	3.5460	3.5460	0.2064	25.98	-0.00	1.500			
0.8734	55897.51	3.5430	3.5430	0.1850	25.98	-0.00	1.500			
0.8739	55930.56	3.5400	3.5400	0.1681	25.98	-0.00	1.500			
0.8744	55960.51	3.5370	3.5369	0.1522	25.98	0.00	1.500			
0.8748	55988.01	3.5340	3.5340	0.1372	25.98	0.00	1.500			
0.8752	56013.16	3.5310	3.5310	0.1234	25.98	0.00	1.500			
0.8756	56035.43	3.5280	3.5280	0.1094	25.98	0.00	1.500			
0.8759	56055.40	3.5250	3.5250	0.0961	25.98	0.00	1.500			
0.8761	56072.49	3.5220	3.5221	0.0820	25.98	0.00	1.500			
0.8764	56086.89	3.5190	3.5192	0.0680	25.98	0.00	1.500			
0.8765	56098.82	3.5160	3.5164	0.0532	25.99	0.01	1.500			
0.8767	56107.61	3.5130	3.5136	0.0384	25.99	0.01	1.500			
