Ah_balance (normalized)	Ah_balance (mAh)	Voltage - fit (V)	Voltage -  interpolate (V)	dQ/dV (1/V)	Temperature (°C)	Temperature - diff (°C)	Current (C)	R_DC 0ms (mOhm)	R_DC 50ms (mOhm)	R_DC 50 ms PEC (mOhm)
0.2684	17178.75	3.9930	3.9930	0.8563	27.35	1.39	1.500			
0.2710	17343.30	3.9900	3.9900	0.8538	27.35	1.39	1.500			
0.2735	17505.57	3.9870	3.9870	0.8479	27.35	1.39	1.500			
0.2761	17668.24	3.9840	3.9841	0.8450	27.34	1.38	1.500			
0.2786	17829.63	3.9810	3.9810	0.8458	27.34	1.38	1.500			
0.2811	17990.16	3.9780	3.9780	0.8491	27.33	1.37	1.500			
0.2836	18152.65	3.9750	3.9751	0.8528	27.33	1.37	1.500			
0.2862	18317.58	3.9720	3.9720	0.8566	27.32	1.36	1.500			
0.2888	18483.91	3.9690	3.9690	0.8650	27.32	1.36	1.500			
0.2914	18650.52	3.9660	3.9660	0.8688	27.32	1.36	1.500			
0.2940	18817.93	3.9630	3.9631	0.8739	27.31	1.35	1.500			
0.2966	18985.22	3.9600	3.9600	0.8772	27.31	1.35	1.500			
0.2993	19153.70	3.9570	3.9570	0.8780	27.30	1.34	1.500			
0.3019	19323.62	3.9540	3.9540	0.8836	27.29	1.33	1.500			
0.3046	19493.64	3.9510	3.9510	0.8893	27.29	1.33	1.500			
0.3073	19664.01	3.9480	3.9480	0.8894	27.28	1.32	1.500			
0.3099	19835.98	3.9450	3.9449	0.8933	27.28	1.32	1.500			
0.3126	20007.16	3.9420	3.9420	0.8978	27.27	1.31	1.500			
0.3153	20179.14	3.9390	3.9390	0.9010	27.26	1.30	1.500			
0.3180	20353.43	3.9360	3.9360	0.9045	27.26	1.30	1.500			
0.3207	20526.69	3.9330	3.9330	0.9098	27.25	1.29	1.500			
0.3235	20701.95	3.9300	3.9300	0.9156	27.24	1.28	1.500			
0.3262	20879.13	3.9270	3.9269	0.9215	27.23	1.27	1.500			
0.3290	21054.87	3.9240	3.9240	0.9304	27.22	1.26	1.500			
0.3318	21234.00	3.9210	3.9211	0.9372	27.21	1.25	1.500			
0.3346	21416.77	3.9180	3.9179	0.9424	27.20	1.24	1.500			
0.3375	21598.11	3.9150	3.9149	0.9494	27.20	1.24	1.500			
0.3403	21779.44	3.9120	3.9122	0.9539	27.19	1.23	1.500			
0.3432	21964.09	3.9090	3.9090	0.9614	27.18	1.22	1.500			
0.3461	22149.03	3.9060	3.9060	0.9732	27.17	1.21	1.500			
0.3490	22336.30	3.9030	3.9030	0.9786	27.16	1.20	1.500			
0.3520	22525.89	3.9000	3.9000	0.9874	27.15	1.19	1.500			
0.3550	22717.21	3.8970	3.8970	0.9922	27.14	1.18	1.500			
0.3579	22908.36	3.8940	3.8940	0.9931	27.13	1.17	1.500			
0.3609	23098.13	3.8910	3.8910	1.0035	27.12	1.16	1.500			
0.3639	23291.29	3.8880	3.8880	1.0124	27.11	1.15	1.500			
0.3670	23485.23	3.8850	3.8849	1.0183	27.10	1.14	1.500			
0.3701	23683.25	3.8820	3.8820	1.0293	27.09	1.13	1.500			
0.3732	23881.78	3.8790	3.8791	1.0417	27.08	1.12	1.500			
0.3763	24082.89	3.8760	3.8760	1.0527	27.07	1.11	1.500			
0.3795	24285.19	3.8730	3.8729	1.0660	27.06	1.10	1.500			
0.3827	24490.42	3.8700	3.8700	1.0752	27.05	1.09	1.500			
0.3859	24699.20	3.8670	3.8670	1.0852	27.03	1.07	1.500			
0.3892	24908.46	3.8640	3.8640	1.1021	27.02	1.06	1.500			
0.3925	25121.93	3.8610	3.8611	1.1111	27.01	1.05	1.500			
0.3959	25334.82	3.8580	3.8579	1.1228	27.00	1.04	1.500			
0.3993	25552.07	3.8550	3.8550	1.1348	26.99	1.03	1.500			
0.4027	25770.22	3.8520	3.8520	1.1517	26.97	1.01	1.500			
0.4062	25994.72	3.8490	3.8491	1.1678	26.96	1.00	1.500			
0.4097	26220.15	3.8460	3.8459	1.1779	26.94	0.98	1.500			
0.4132	26446.13	3.8430	3.8431	1.1980	26.93	0.97	1.500			
0.4168	26677.72	3.8400	3.8400	1.2204	26.91	0.95	1.500			
0.4205	26913.46	3.8370	3.8369	1.2345	26.90	0.94	1.500			
0.4243	27152.98	3.8340	3.8340	1.2536	26.89	0.93	1.500			
0.4280	27394.11	3.8310	3.8311	1.2741	26.87	0.91	1.500			
0.4320	27645.09	3.8280	3.8279	1.2905	26.86	0.90	1.500			
0.4358	27891.24	3.8250	3.8250	1.3097	26.84	0.88	1.500			
0.4398	28144.41	3.8220	3.8221	1.3323	26.82	0.86	1.500			
0.4438	28400.54	3.8190	3.8190	1.3618	26.81	0.85	1.500			
0.4479	28666.21	3.8160	3.8160	1.3883	26.80	0.84	1.500			
0.4521	28934.80	3.8130	3.8130	1.4097	26.78	0.82	1.500			
0.4564	29208.27	3.8100	3.8100	1.4288	26.76	0.80	1.500			
0.4607	29484.31	3.8070	3.8071	1.4557	26.74	0.78	1.500			
0.4651	29765.91	3.8040	3.8040	1.4815	26.72	0.76	1.500			
0.4696	30052.72	3.8010	3.8009	1.5093	26.70	0.74	1.500			
0.4741	30345.18	3.7980	3.7980	1.5351	26.69	0.73	1.500			
0.4788	30645.44	3.7950	3.7950	1.5702	26.67	0.71	1.500			
0.4836	30950.05	3.7920	3.7921	1.5991	26.66	0.70	1.500			
0.4884	31260.58	3.7890	3.7889	1.6134	26.64	0.68	1.500			
0.4933	31570.74	3.7860	3.7860	1.6277	26.63	0.67	1.500	0.350	0.489	
0.4982	31886.25	3.7830	3.7831	1.6427	26.61	0.65	1.500			
0.5032	32205.40	3.7800	3.7800	1.6570	26.60	0.64	1.500			
0.5082	32522.64	3.7770	3.7770	1.6621	26.58	0.62	1.500			
0.5132	32842.73	3.7740	3.7740	1.6697	26.56	0.60	1.500			
0.5182	33165.33	3.7710	3.7710	1.6816	26.55	0.59	1.500			
0.5233	33488.86	3.7680	3.7680	1.6874	26.53	0.57	1.500			
0.5283	33811.18	3.7650	3.7650	1.7025	26.51	0.55	1.500			
0.5335	34141.33	3.7620	3.7620	1.7140	26.50	0.54	1.500			
0.5386	34470.76	3.7590	3.7590	1.7284	26.48	0.52	1.500			
0.5438	34804.79	3.7560	3.7560	1.7388	26.47	0.51	1.500			
0.5491	35139.49	3.7530	3.7530	1.7552	26.45	0.49	1.500			
0.5543	35474.40	3.7500	3.7500	1.7619	26.44	0.48	1.500			
0.5596	35815.34	3.7470	3.7470	1.7995	26.43	0.47	1.500			
0.5650	36161.87	3.7440	3.7440	1.8302	26.41	0.45	1.500			
0.5706	36517.44	3.7410	3.7410	1.8821	26.40	0.44	1.500			
0.5763	36883.35	3.7380	3.7380	1.9353	26.39	0.43	1.500			
0.5822	37260.75	3.7350	3.7350	1.9784	26.37	0.41	1.500			
0.5882	37643.52	3.7320	3.7320	2.0193	26.36	0.40	1.500			
0.5943	38034.50	3.7290	3.7289	2.0664	26.34	0.38	1.500			
0.6006	38435.67	3.7260	3.7260	2.1224	26.32	0.36	1.500			
0.6070	38845.51	3.7230	3.7230	2.1740	26.30	0.34	1.500			
0.6136	39272.68	3.7200	3.7200	2.2168	26.28	0.32	1.500			
0.6203	39702.32	3.7170	3.7169	2.2455	26.26	0.30	1.500			
0.6272	40142.53	3.7140	3.7139	2.2321	26.24	0.28	1.500			
0.6339	40569.82	3.7110	3.7110	2.1984	26.23	0.27	1.500			
0.6405	40991.08	3.7080	3.7080	2.1282	26.21	0.25	1.500			
0.6468	41397.86	3.7050	3.7049	2.0342	26.20	0.24	1.500			
0.6528	41776.97	3.7020	3.7021	1.9183	26.19	0.23	1.500			
0.6584	42135.26	3.6990	3.6990	1.8066	26.18	0.22	1.500			
0.6635	42466.18	3.6960	3.6960	1.6842	26.17	0.21	1.500			
0.6684	42778.08	3.6930	3.6930	1.5917	26.16	0.20	1.500			
0.6730	43074.08	3.6900	3.6900	1.5216	26.15	0.19	1.500			
0.6775	43358.26	3.6870	3.6870	1.4533	26.15	0.19	1.500			
0.6817	43628.51	3.6840	3.6840	1.4005	26.14	0.18	1.500			
0.6858	43889.19	3.6810	3.6810	1.3568	26.13	0.17	1.500			
0.6898	44144.31	3.6780	3.6780	1.3242	26.12	0.16	1.500			
0.6936	44392.46	3.6750	3.6751	1.3008	26.11	0.15	1.500			
0.6975	44638.57	3.6720	3.6720	1.2866	26.10	0.14	1.500			
0.7013	44882.33	3.6690	3.6690	1.2784	26.09	0.13	1.500			
0.7051	45127.65	3.6660	3.6660	1.2740	26.08	0.12	1.500			
0.7090	45373.11	3.6630	3.6630	1.2694	26.07	0.11	1.500			
0.7127	45615.37	3.6600	3.6600	1.2639	26.06	0.10	1.500			
0.7165	45856.30	3.6570	3.6570	1.2633	26.05	0.09	1.500			
0.7203	46098.78	3.6540	3.6540	1.2613	26.04	0.08	1.500			
0.7241	46341.57	3.6510	3.6509	1.2524	26.03	0.07	1.500			
0.7278	46581.44	3.6480	3.6480	1.2501	26.03	0.07	1.500			
0.7316	46824.24	3.6450	3.6451	1.2404	26.02	0.06	1.500			
0.7353	47060.94	3.6420	3.6420	1.2312	26.02	0.06	1.500			
0.7390	47295.03	3.6390	3.6390	1.2188	26.01	0.05	1.500			
0.7426	47527.70	3.6360	3.6361	1.2097	26.00	0.04	1.500			
0.7462	47759.80	3.6330	3.6329	1.2003	26.00	0.04	1.500			
0.7498	47989.46	3.6300	3.6300	1.1916	25.99	0.03	1.500			
0.7534	48216.72	3.6270	3.6271	1.1789	25.99	0.03	1.500			
0.7569	48444.18	3.6240	3.6240	1.1689	25.98	0.02	1.500			
0.7604	48667.24	3.6210	3.6210	1.1539	25.98	0.02	1.500			
0.7639	48888.45	3.6180	3.6180	1.1362	25.97	0.01	1.500			
0.7673	49106.74	3.6150	3.6150	1.1110	25.96	0.00	1.500			
0.7706	49319.87	3.6120	3.6120	1.0873	25.96	0.00	1.500			
0.7738	49524.25	3.6090	3.6091	1.0598	25.96	0.00	1.500			
0.7769	49724.23	3.6060	3.6060	1.0330	25.96	0.00	1.500			
0.7800	49920.63	3.6030	3.6029	1.0011	25.96	0.00	1.500			
0.7830	50111.03	3.6000	3.6000	0.9663	25.96	0.00	1.500			
0.7859	50298.13	3.5970	3.5970	0.9263	25.96	0.00	1.500			
0.7886	50473.10	3.5940	3.5940	0.8770	25.96	0.00	1.500			
0.7913	50640.25	3.5910	3.5910	0.8131	25.96	0.00	1.500			
0.7936	50791.27	3.5880	3.5880	0.7363	25.96	0.00	1.500			
0.7957	50927.27	3.5850	3.5850	0.6551	25.96	0.00	1.500			
0.7976	51045.88	3.5820	3.5821	0.5701	25.96	0.00	1.500			
0.7991	51145.40	3.5790	3.5789	0.4909	25.96	0.00	1.500			
0.8005	51229.42	3.5760	3.5760	0.4156	25.96	0.00	1.500			
0.8015	51297.17	3.5730	3.5729	0.3503	25.96	0.00	1.500			
0.8025	51357.08	3.5700	3.5700	0.3066	25.96	0.00	1.500			
0.8033	51408.75	3.5670	3.5670	0.2687	25.96	0.00	1.500			
0.8040	51455.03	3.5640	3.5639	0.2395	25.96	0.00	1.500			
0.8046	51497.18	3.5610	3.5609	0.2137	25.96	0.00	1.500			
0.8052	51534.88	3.5580	3.5580	0.1940	25.96	0.00	1.500			
0.8058	51569.68	3.5550	3.5551	0.1767	25.96	0.00	1.500			
0.8063	51602.13	3.5520	3.5519	0.1611	25.96	0.00	1.500			
0.8067	51631.37	3.5490	3.5491	0.1467	25.96	0.00	1.500			
0.8072	51657.72	3.5460	3.5460	0.1316	25.96	0.00	1.500			
0.8075	51681.57	3.5430	3.5430	0.1171	25.96	0.00	1.500			
0.8079	51702.74	3.5400	3.5400	0.1031	25.96	0.00	1.500			
0.8081	51721.17	3.5370	3.5370	0.0889	25.96	0.00	1.500			
0.8084	51737.03	3.5340	3.5342	0.0748	25.96	0.00	1.500			
0.8086	51750.21	3.5310	3.5312	0.0603	25.96	0.00	1.500			
0.8088	51760.37	3.5280	3.5285	0.0455	25.96	0.00	1.500			
0.8089	51767.67	3.5250	3.5261	0.0307	25.96	0.00	1.500			
