Ah_balance (normalized)	Ah_balance (mAh)	Voltage - fit (V)	Voltage -  interpolate (V)	dQ/dV (1/V)	Temperature (°C)	Temperature - diff (°C)	Current (C)	R_DC 0ms (mOhm)	R_DC 50ms (mOhm)	R_DC 50 ms PEC (mOhm)
0.2890	18492.85	3.9760	3.9760	0.8284	27.13	1.17	1.500			
0.2915	18654.38	3.9730	3.9730	0.8502	27.12	1.16	1.500			
0.2940	18818.89	3.9700	3.9699	0.8612	27.12	1.16	1.500			
0.2967	18986.13	3.9670	3.9671	0.8681	27.12	1.16	1.500			
0.2993	19153.67	3.9640	3.9640	0.8750	27.12	1.16	1.500			
0.3019	19321.70	3.9610	3.9610	0.8790	27.12	1.16	1.500			
0.3046	19491.70	3.9580	3.9580	0.8877	27.11	1.15	1.500			
0.3072	19662.15	3.9550	3.9550	0.8875	27.11	1.15	1.500			
0.3099	19833.19	3.9520	3.9520	0.8923	27.11	1.15	1.500			
0.3126	20005.36	3.9490	3.9490	0.8910	27.11	1.15	1.500			
0.3153	20177.00	3.9460	3.9460	0.8909	27.10	1.14	1.500			
0.3179	20346.99	3.9430	3.9430	0.8923	27.10	1.14	1.500			
0.3206	20518.09	3.9400	3.9398	0.8960	27.10	1.14	1.500			
0.3233	20688.74	3.9370	3.9370	0.8999	27.10	1.14	1.500			
0.3260	20862.77	3.9340	3.9340	0.9130	27.09	1.13	1.500			
0.3287	21038.55	3.9310	3.9310	0.9218	27.09	1.13	1.500			
0.3315	21217.47	3.9280	3.9279	0.9260	27.09	1.13	1.500			
0.3343	21397.78	3.9250	3.9251	0.9301	27.08	1.12	1.500			
0.3371	21576.96	3.9220	3.9220	0.9301	27.08	1.12	1.500			
0.3399	21754.83	3.9190	3.9190	0.9372	27.08	1.12	1.500			
0.3427	21933.53	3.9160	3.9160	0.9401	27.07	1.11	1.500			
0.3455	22113.38	3.9130	3.9129	0.9476	27.07	1.11	1.500			
0.3484	22297.10	3.9100	3.9101	0.9559	27.07	1.11	1.500			
0.3513	22482.21	3.9070	3.9070	0.9657	27.06	1.10	1.500			
0.3542	22670.16	3.9040	3.9040	0.9751	27.06	1.10	1.500			
0.3571	22857.01	3.9010	3.9010	0.9787	27.06	1.10	1.500			
0.3601	23045.79	3.8980	3.8980	0.9823	27.05	1.09	1.500			
0.3630	23235.08	3.8950	3.8950	0.9919	27.05	1.09	1.500			
0.3660	23425.69	3.8920	3.8921	1.0004	27.05	1.09	1.500			
0.3690	23618.16	3.8890	3.8890	1.0124	27.04	1.08	1.500			
0.3721	23812.98	3.8860	3.8860	1.0204	27.04	1.08	1.500			
0.3752	24010.52	3.8830	3.8830	1.0295	27.03	1.07	1.500			
0.3783	24209.29	3.8800	3.8800	1.0375	27.03	1.07	1.500			
0.3814	24410.00	3.8770	3.8770	1.0530	27.03	1.07	1.500			
0.3846	24613.76	3.8740	3.8739	1.0525	27.02	1.06	1.500			
0.3877	24814.75	3.8710	3.8710	1.0676	27.02	1.06	1.500			
0.3909	25020.31	3.8680	3.8681	1.0809	27.02	1.06	1.500			
0.3942	25229.08	3.8650	3.8650	1.0977	27.01	1.05	1.500			
0.3975	25441.38	3.8620	3.8621	1.1128	27.01	1.05	1.500			
0.4009	25655.79	3.8590	3.8590	1.1299	27.00	1.04	1.500			
0.4043	25873.80	3.8560	3.8560	1.1495	26.99	1.03	1.500			
0.4078	26100.58	3.8530	3.8529	1.1685	26.99	1.03	1.500			
0.4113	26324.24	3.8500	3.8500	1.1807	26.98	1.02	1.500			
0.4149	26553.92	3.8470	3.8471	1.1934	26.97	1.01	1.500			
0.4185	26782.85	3.8440	3.8440	1.2104	26.96	1.00	1.500			
0.4221	27016.11	3.8410	3.8410	1.2294	26.96	1.00	1.500			
0.4258	27250.73	3.8380	3.8380	1.2466	26.95	0.99	1.500			
0.4295	27490.89	3.8350	3.8350	1.2764	26.94	0.98	1.500			
0.4335	27741.36	3.8320	3.8320	1.3018	26.93	0.97	1.500			
0.4374	27991.32	3.8290	3.8290	1.3292	26.92	0.96	1.500			
0.4414	28250.54	3.8260	3.8261	1.3607	26.91	0.95	1.500			
0.4455	28513.66	3.8230	3.8228	1.3842	26.90	0.94	1.500			
0.4497	28782.71	3.8200	3.8200	1.4083	26.89	0.93	1.500			
0.4540	29058.12	3.8170	3.8171	1.4295	26.88	0.92	1.500			
0.4583	29333.63	3.8140	3.8140	1.4612	26.87	0.91	1.500			
0.4627	29614.30	3.8110	3.8111	1.4911	26.87	0.91	1.500			
0.4672	29902.53	3.8080	3.8081	1.5360	26.86	0.90	1.500			
0.4719	30199.78	3.8050	3.8050	1.5792	26.85	0.89	1.500			
0.4767	30508.38	3.8020	3.8020	1.6242	26.83	0.87	1.500			
0.4817	30825.92	3.7990	3.7991	1.6612	26.82	0.86	1.500			
0.4867	31147.54	3.7960	3.7960	1.7072	26.81	0.85	1.500			
0.4919	31479.66	3.7930	3.7930	1.7478	26.79	0.83	1.500			
0.4972	31817.97	3.7900	3.7899	1.7793	26.78	0.82	1.500			
0.5026	32166.20	3.7870	3.7871	1.8171	26.76	0.80	1.500			
0.5081	32517.90	3.7840	3.7840	1.8655	26.75	0.79	1.500			
0.5137	32879.41	3.7810	3.7809	1.9094	26.74	0.78	1.500			
0.5195	33246.98	3.7780	3.7779	1.9344	26.72	0.76	1.500			
0.5254	33626.09	3.7750	3.7751	1.9750	26.71	0.75	1.500			
0.5315	34013.81	3.7720	3.7720	1.9647	26.69	0.73	1.500			
0.5373	34386.59	3.7690	3.7691	2.0095	26.67	0.71	1.500			
0.5433	34774.35	3.7660	3.7659	2.0465	26.66	0.70	1.500			
0.5496	35173.44	3.7630	3.7632	2.0595	26.64	0.68	1.500	0.362	0.457	
0.5558	35573.97	3.7600	3.7601	2.0650	26.62	0.66	1.500			
0.5621	35975.53	3.7570	3.7569	2.0194	26.60	0.64	1.500			
0.5680	36355.18	3.7540	3.7541	1.9810	26.58	0.62	1.500			
0.5740	36734.81	3.7510	3.7510	1.9637	26.56	0.60	1.500			
0.5799	37110.76	3.7480	3.7480	1.9498	26.54	0.58	1.500			
0.5856	37480.79	3.7450	3.7450	1.9601	26.53	0.57	1.500			
0.5915	37855.46	3.7420	3.7420	1.9823	26.51	0.55	1.500			
0.5975	38239.10	3.7390	3.7391	2.0040	26.50	0.54	1.500			
0.6036	38633.28	3.7360	3.7359	2.0004	26.48	0.52	1.500			
0.6095	39011.18	3.7330	3.7331	2.0287	26.47	0.51	1.500			
0.6156	39395.89	3.7300	3.7301	2.0553	26.45	0.49	1.500			
0.6217	39791.95	3.7270	3.7268	2.1109	26.44	0.48	1.500			
0.6282	40203.62	3.7240	3.7241	2.1567	26.42	0.46	1.500			
0.6349	40631.88	3.7210	3.7210	2.2640	26.41	0.45	1.500			
0.6416	41063.84	3.7180	3.7180	2.2961	26.39	0.43	1.500			
0.6486	41511.80	3.7150	3.7151	2.3782	26.37	0.41	1.500			
0.6559	41974.54	3.7120	3.7120	2.4491	26.36	0.40	1.500			
0.6633	42453.27	3.7090	3.7090	2.5409	26.34	0.38	1.500			
0.6710	42943.31	3.7060	3.7058	2.6066	26.33	0.37	1.500			
0.6790	43458.55	3.7030	3.7031	2.6293	26.31	0.35	1.500			
0.6871	43974.14	3.7000	3.7000	2.6541	26.28	0.32	1.500			
0.6949	44476.80	3.6970	3.6968	2.5591	26.26	0.30	1.500			
0.7027	44972.31	3.6940	3.6941	2.4534	26.25	0.29	1.500			
0.7098	45429.15	3.6910	3.6910	2.3021	26.24	0.28	1.500			
0.7165	45854.33	3.6880	3.6880	2.1178	26.23	0.27	1.500			
0.7226	46247.69	3.6850	3.6851	1.9567	26.22	0.26	1.500			
0.7282	46605.80	3.6820	3.6820	1.8089	26.21	0.25	1.500			
0.7333	46932.97	3.6790	3.6791	1.6818	26.20	0.24	1.500			
0.7381	47238.98	3.6760	3.6759	1.5753	26.19	0.23	1.500			
0.7426	47524.01	3.6730	3.6731	1.4859	26.18	0.22	1.500			
0.7469	47801.09	3.6700	3.6700	1.4243	26.18	0.22	1.500			
0.7510	48067.02	3.6670	3.6670	1.3710	26.17	0.21	1.500			
0.7551	48325.19	3.6640	3.6640	1.3316	26.16	0.20	1.500			
0.7590	48573.45	3.6610	3.6610	1.2946	26.15	0.19	1.500			
0.7627	48815.04	3.6580	3.6580	1.2777	26.15	0.19	1.500			
0.7665	49053.05	3.6550	3.6550	1.2641	26.14	0.18	1.500			
0.7702	49295.09	3.6520	3.6519	1.2661	26.13	0.17	1.500			
0.7740	49536.78	3.6490	3.6489	1.2734	26.12	0.16	1.500			
0.7778	49781.92	3.6460	3.6461	1.2901	26.12	0.16	1.500			
0.7817	50030.98	3.6430	3.6430	1.3007	26.11	0.15	1.500			
0.7857	50284.50	3.6400	3.6399	1.3117	26.10	0.14	1.500			
0.7897	50538.22	3.6370	3.6370	1.3150	26.09	0.13	1.500			
0.7936	50792.76	3.6340	3.6340	1.3165	26.08	0.12	1.500			
0.7976	51046.17	3.6310	3.6311	1.3140	26.08	0.12	1.500			
0.8015	51295.86	3.6280	3.6280	1.3108	26.07	0.11	1.500			
0.8054	51546.40	3.6250	3.6250	1.3071	26.06	0.10	1.500			
0.8093	51797.63	3.6220	3.6219	1.3045	26.05	0.09	1.500			
0.8133	52048.38	3.6190	3.6190	1.3057	26.04	0.08	1.500			
0.8172	52298.67	3.6160	3.6160	1.3010	26.03	0.07	1.500			
0.8211	52549.94	3.6130	3.6130	1.2983	26.02	0.06	1.500			
0.8250	52798.98	3.6100	3.6100	1.2886	26.01	0.05	1.500			
0.8288	53045.54	3.6070	3.6070	1.2725	26.00	0.04	1.500			
0.8327	53291.34	3.6040	3.6040	1.2579	26.00	0.04	1.500			
0.8364	53531.45	3.6010	3.6010	1.2423	25.99	0.03	1.500			
0.8401	53767.43	3.5980	3.5980	1.2182	25.98	0.02	1.500			
0.8437	53998.45	3.5950	3.5950	1.2016	25.97	0.01	1.500			
0.8473	54226.68	3.5920	3.5920	1.1846	25.97	0.01	1.500			
0.8508	54450.65	3.5890	3.5890	1.1763	25.97	0.01	1.500			
0.8543	54675.29	3.5860	3.5861	1.1709	25.97	0.01	1.500			
0.8578	54900.74	3.5830	3.5829	1.1598	25.97	0.01	1.500			
0.8614	55127.00	3.5800	3.5799	1.1296	25.96	0.00	1.500			
0.8649	55350.56	3.5770	3.5770	1.0923	25.96	0.00	1.500			
0.8682	55564.06	3.5740	3.5740	1.0037	25.96	0.00	1.500			
0.8712	55759.91	3.5710	3.5710	0.9092	25.96	-0.00	1.500			
0.8738	55923.94	3.5680	3.5681	0.7834	25.96	-0.00	1.500			
0.8759	56060.35	3.5650	3.5650	0.6543	25.96	-0.00	1.500			
0.8776	56167.20	3.5620	3.5620	0.5412	25.96	-0.00	1.500			
0.8789	56251.47	3.5590	3.5589	0.4388	25.96	-0.00	1.500			
0.8800	56319.45	3.5560	3.5562	0.3594	25.96	-0.00	1.500			
0.8810	56381.43	3.5530	3.5528	0.3036	25.96	-0.00	1.500			
0.8817	56431.80	3.5500	3.5500	0.2628	25.96	-0.00	1.500			
0.8824	56476.63	3.5470	3.5470	0.2324	25.96	-0.00	1.500			
0.8831	56516.27	3.5440	3.5440	0.2069	25.96	-0.00	1.500			
0.8837	56553.69	3.5410	3.5409	0.1865	25.95	-0.01	1.500			
0.8842	56586.68	3.5380	3.5380	0.1694	25.95	-0.01	1.500			
0.8846	56616.99	3.5350	3.5351	0.1542	25.95	-0.01	1.500			
0.8851	56644.99	3.5320	3.5320	0.1395	25.95	-0.01	1.500			
0.8855	56670.50	3.5290	3.5289	0.1257	25.95	-0.01	1.500			
0.8858	56693.16	3.5260	3.5260	0.1116	25.95	-0.01	1.500			
0.8861	56713.27	3.5230	3.5230	0.0980	25.95	-0.01	1.500			
0.8864	56731.11	3.5200	3.5201	0.0846	25.95	-0.01	1.500			
0.8867	56745.99	3.5170	3.5172	0.0704	25.95	-0.01	1.500			
0.8868	56758.39	3.5140	3.5143	0.0554	25.95	-0.01	1.500			
0.8870	56767.58	3.5110	3.5116	0.0403	25.95	-0.01	1.500			
