Ah_balance (normalized)	Ah_balance (mAh)	Voltage - fit (V)	Voltage -  interpolate (V)	dQ/dV (1/V)	Temperature (°C)	Temperature - diff (°C)	Current (C)	R_DC 0ms (mOhm)	R_DC 50ms (mOhm)	R_DC 50 ms PEC (mOhm)
0.3008	19253.45	3.9710	3.9710	0.8732	27.05	1.08	1.500			
0.3035	19421.03	3.9680	3.9679	0.8734	27.05	1.08	1.500			
0.3061	19588.32	3.9650	3.9650	0.8744	27.04	1.07	1.500			
0.3087	19756.70	3.9620	3.9619	0.8743	27.04	1.07	1.500			
0.3113	19923.95	3.9590	3.9590	0.8762	27.03	1.06	1.500			
0.3140	20093.04	3.9560	3.9559	0.8818	27.03	1.06	1.500			
0.3166	20261.95	3.9530	3.9530	0.8849	27.02	1.05	1.500			
0.3193	20432.96	3.9500	3.9499	0.8875	27.02	1.05	1.500			
0.3219	20603.86	3.9470	3.9471	0.8900	27.02	1.05	1.500			
0.3246	20774.80	3.9440	3.9439	0.8968	27.01	1.04	1.500			
0.3273	20947.21	3.9410	3.9410	0.9026	27.01	1.04	1.500			
0.3300	21119.16	3.9380	3.9379	0.9075	27.00	1.03	1.500			
0.3327	21294.39	3.9350	3.9351	0.9134	27.00	1.03	1.500			
0.3355	21472.67	3.9320	3.9320	0.9173	26.99	1.02	1.500			
0.3383	21649.43	3.9290	3.9290	0.9216	26.99	1.02	1.500			
0.3410	21825.72	3.9260	3.9261	0.9290	26.99	1.02	1.500			
0.3438	22003.50	3.9230	3.9230	0.9342	26.98	1.01	1.500			
0.3466	22184.28	3.9200	3.9199	0.9356	26.98	1.01	1.500			
0.3494	22363.85	3.9170	3.9170	0.9430	26.97	1.00	1.500			
0.3523	22546.77	3.9140	3.9141	0.9523	26.97	1.00	1.500			
0.3552	22729.98	3.9110	3.9109	0.9587	26.96	0.99	1.500			
0.3580	22913.47	3.9080	3.9080	0.9617	26.96	0.99	1.500			
0.3609	23098.22	3.9050	3.9050	0.9686	26.95	0.98	1.500			
0.3638	23285.62	3.9020	3.9020	0.9793	26.95	0.98	1.500			
0.3668	23475.69	3.8990	3.8990	0.9873	26.94	0.97	1.500			
0.3698	23664.41	3.8960	3.8960	0.9924	26.94	0.97	1.500			
0.3727	23855.99	3.8930	3.8930	1.0021	26.93	0.96	1.500			
0.3758	24048.65	3.8900	3.8900	1.0119	26.93	0.96	1.500			
0.3788	24243.96	3.8870	3.8870	1.0244	26.92	0.95	1.500			
0.3819	24442.02	3.8840	3.8839	1.0309	26.92	0.95	1.500			
0.3850	24640.69	3.8810	3.8810	1.0401	26.91	0.94	1.500			
0.3881	24841.47	3.8780	3.8780	1.0524	26.91	0.94	1.500			
0.3913	25043.43	3.8750	3.8750	1.0641	26.90	0.93	1.500			
0.3945	25248.83	3.8720	3.8719	1.0771	26.90	0.93	1.500			
0.3978	25456.61	3.8690	3.8690	1.0909	26.89	0.92	1.500			
0.4011	25668.25	3.8660	3.8660	1.1019	26.89	0.92	1.500			
0.4044	25881.23	3.8630	3.8630	1.1196	26.88	0.91	1.500			
0.4078	26098.37	3.8600	3.8600	1.1279	26.87	0.90	1.500			
0.4112	26314.37	3.8570	3.8570	1.1421	26.87	0.90	1.500			
0.4146	26535.30	3.8540	3.8540	1.1541	26.86	0.89	1.500			
0.4181	26756.74	3.8510	3.8510	1.1745	26.85	0.88	1.500			
0.4216	26984.22	3.8480	3.8481	1.1923	26.85	0.88	1.500			
0.4252	27215.50	3.8450	3.8450	1.2135	26.84	0.87	1.500			
0.4289	27448.54	3.8420	3.8420	1.2351	26.83	0.86	1.500			
0.4326	27688.25	3.8390	3.8390	1.2582	26.83	0.86	1.500			
0.4364	27931.21	3.8360	3.8360	1.2744	26.82	0.85	1.500			
0.4403	28179.07	3.8330	3.8330	1.2978	26.82	0.85	1.500			
0.4442	28428.37	3.8300	3.8299	1.3195	26.81	0.84	1.500			
0.4482	28683.44	3.8270	3.8271	1.3525	26.80	0.83	1.500			
0.4523	28945.74	3.8240	3.8240	1.3766	26.79	0.82	1.500			
0.4564	29211.62	3.8210	3.8210	1.4065	26.78	0.81	1.500			
0.4607	29485.78	3.8180	3.8181	1.4448	26.77	0.80	1.500			
0.4651	29766.30	3.8150	3.8150	1.4792	26.76	0.79	1.500			
0.4696	30052.75	3.8120	3.8121	1.5114	26.75	0.78	1.500			
0.4742	30345.72	3.8090	3.8091	1.5394	26.74	0.77	1.500			
0.4788	30646.31	3.8060	3.8060	1.5554	26.73	0.76	1.500			
0.4835	30946.35	3.8030	3.8031	1.6048	26.72	0.75	1.500			
0.4884	31254.92	3.8000	3.8000	1.6474	26.70	0.73	1.500			
0.4933	31574.10	3.7970	3.7968	1.7000	26.69	0.72	1.500			
0.4985	31906.01	3.7940	3.7941	1.7506	26.68	0.71	1.500			
0.5039	32250.68	3.7910	3.7910	1.8066	26.66	0.69	1.500			
0.5094	32601.58	3.7880	3.7880	1.8646	26.65	0.68	1.500			
0.5150	32960.54	3.7850	3.7850	1.9203	26.63	0.66	1.500			
0.5209	33337.10	3.7820	3.7820	1.9803	26.61	0.64	1.500			
0.5270	33728.51	3.7790	3.7790	2.0042	26.60	0.63	1.500			
0.5331	34118.09	3.7760	3.7761	2.0254	26.58	0.61	1.500			
0.5390	34499.04	3.7730	3.7730	2.0332	26.56	0.59	1.500			
0.5452	34892.49	3.7700	3.7700	2.0662	26.54	0.57	1.500			
0.5515	35296.69	3.7670	3.7669	2.0630	26.52	0.55	1.500			
0.5578	35701.34	3.7640	3.7634	2.1055	26.50	0.53	1.500	0.365	0.461	
0.5642	36107.95	3.7610	3.7610	2.0903	26.48	0.51	1.500			
0.5704	36505.69	3.7580	3.7582	2.0789	26.47	0.50	1.500			
0.5767	36906.38	3.7550	3.7550	2.0566	26.45	0.48	1.500			
0.5828	37296.05	3.7520	3.7520	2.0404	26.44	0.47	1.500			
0.5888	37683.41	3.7490	3.7491	2.0132	26.42	0.45	1.500			
0.5949	38073.24	3.7460	3.7459	2.0023	26.41	0.44	1.500			
0.6009	38454.54	3.7430	3.7431	1.9993	26.39	0.42	1.500			
0.6068	38836.41	3.7400	3.7400	2.0058	26.37	0.40	1.500			
0.6128	39220.08	3.7370	3.7369	2.0068	26.36	0.39	1.500			
0.6188	39603.70	3.7340	3.7339	2.0317	26.34	0.37	1.500			
0.6249	39996.20	3.7310	3.7311	2.0680	26.33	0.36	1.500			
0.6312	40394.41	3.7280	3.7280	2.0914	26.32	0.35	1.500			
0.6375	40798.97	3.7250	3.7250	2.1512	26.30	0.33	1.500			
0.6440	41213.72	3.7220	3.7218	2.2119	26.29	0.32	1.500			
0.6507	41644.77	3.7190	3.7190	2.2740	26.27	0.30	1.500			
0.6577	42092.83	3.7160	3.7160	2.3713	26.26	0.29	1.500			
0.6648	42548.65	3.7130	3.7130	2.4174	26.24	0.27	1.500			
0.6722	43022.13	3.7100	3.7100	2.4971	26.22	0.25	1.500			
0.6799	43511.34	3.7070	3.7070	2.5344	26.21	0.24	1.500			
0.6877	44012.75	3.7040	3.7040	2.6152	26.19	0.22	1.500			
0.6957	44524.73	3.7010	3.7009	2.6764	26.18	0.21	1.500			
0.7038	45042.16	3.6980	3.6980	2.6584	26.16	0.19	1.500			
0.7119	45559.72	3.6950	3.6950	2.5422	26.14	0.17	1.500			
0.7195	46047.79	3.6920	3.6920	2.4413	26.13	0.16	1.500			
0.7265	46498.63	3.6890	3.6890	2.2621	26.12	0.15	1.500			
0.7330	46911.56	3.6860	3.6861	2.0636	26.11	0.14	1.500			
0.7388	47283.95	3.6830	3.6830	1.8888	26.11	0.14	1.500			
0.7442	47628.20	3.6800	3.6800	1.7499	26.10	0.13	1.500			
0.7492	47950.27	3.6770	3.6769	1.6358	26.09	0.12	1.500			
0.7538	48246.33	3.6740	3.6740	1.5312	26.08	0.11	1.500			
0.7582	48526.61	3.6710	3.6710	1.4476	26.08	0.11	1.500			
0.7624	48795.11	3.6680	3.6680	1.3868	26.07	0.10	1.500			
0.7665	49054.26	3.6650	3.6650	1.3359	26.06	0.09	1.500			
0.7703	49299.74	3.6620	3.6620	1.2903	26.06	0.09	1.500			
0.7741	49542.61	3.6590	3.6590	1.2659	26.06	0.09	1.500			
0.7778	49778.76	3.6560	3.6560	1.2524	26.05	0.08	1.500			
0.7815	50018.83	3.6530	3.6529	1.2427	26.05	0.08	1.500			
0.7852	50252.62	3.6500	3.6500	1.2536	26.05	0.08	1.500			
0.7890	50494.63	3.6470	3.6470	1.2683	26.04	0.07	1.500			
0.7928	50739.64	3.6440	3.6439	1.2829	26.04	0.07	1.500			
0.7967	50988.69	3.6410	3.6411	1.2967	26.04	0.07	1.500			
0.8006	51239.29	3.6380	3.6381	1.3065	26.03	0.06	1.500			
0.8046	51492.46	3.6350	3.6350	1.3110	26.02	0.05	1.500			
0.8086	51747.39	3.6320	3.6320	1.3126	26.01	0.04	1.500			
0.8124	51996.36	3.6290	3.6290	1.3042	26.00	0.03	1.500			
0.8164	52248.17	3.6260	3.6260	1.2996	26.00	0.03	1.500			
0.8203	52498.30	3.6230	3.6230	1.2939	25.99	0.02	1.500			
0.8241	52744.95	3.6200	3.6201	1.2929	25.98	0.01	1.500			
0.8280	52992.09	3.6170	3.6170	1.2887	25.97	0.00	1.500			
0.8319	53240.19	3.6140	3.6140	1.2796	25.96	-0.01	1.500			
0.8357	53487.11	3.6110	3.6110	1.2742	25.96	-0.01	1.500			
0.8395	53730.94	3.6080	3.6080	1.2661	25.95	-0.02	1.500			
0.8433	53974.17	3.6050	3.6049	1.2542	25.94	-0.03	1.500			
0.8471	54212.74	3.6020	3.6021	1.2363	25.94	-0.03	1.500			
0.8507	54447.41	3.5990	3.5990	1.2187	25.94	-0.03	1.500			
0.8544	54681.66	3.5960	3.5960	1.2096	25.94	-0.03	1.500			
0.8580	54912.57	3.5930	3.5930	1.1846	25.94	-0.03	1.500			
0.8615	55137.42	3.5900	3.5900	1.1756	25.94	-0.03	1.500			
0.8650	55361.04	3.5870	3.5871	1.1643	25.94	-0.03	1.500			
0.8685	55583.55	3.5840	3.5839	1.1618	25.94	-0.03	1.500			
0.8720	55805.39	3.5810	3.5810	1.1572	25.94	-0.03	1.500			
0.8755	56032.02	3.5780	3.5779	1.1321	25.95	-0.02	1.500			
0.8790	56257.11	3.5750	3.5750	1.0923	25.95	-0.02	1.500			
0.8824	56473.16	3.5720	3.5720	1.0043	25.96	-0.01	1.500			
0.8853	56662.14	3.5690	3.5692	0.8894	25.96	-0.01	1.500			
0.8879	56826.70	3.5660	3.5661	0.7668	25.96	-0.01	1.500			
0.8899	56956.28	3.5630	3.5629	0.6329	25.96	-0.01	1.500			
0.8915	57054.76	3.5600	3.5601	0.5117	25.97	-0.00	1.500			
0.8928	57137.17	3.5570	3.5569	0.4248	25.97	-0.00	1.500			
0.8938	57205.34	3.5540	3.5538	0.3439	25.97	-0.00	1.500			
0.8947	57261.77	3.5510	3.5509	0.2941	25.97	0.00	1.500			
0.8955	57309.08	3.5480	3.5481	0.2545	25.97	0.00	1.500			
0.8961	57352.31	3.5450	3.5449	0.2250	25.97	0.00	1.500			
0.8968	57392.18	3.5420	3.5419	0.1991	25.97	0.00	1.500			
0.8973	57426.66	3.5390	3.5389	0.1790	25.97	0.00	1.500			
0.8978	57457.76	3.5360	3.5360	0.1610	25.97	0.00	1.500			
0.8982	57486.91	3.5330	3.5330	0.1452	25.97	0.00	1.500			
0.8986	57513.27	3.5300	3.5300	0.1308	25.98	0.01	1.500			
0.8990	57536.77	3.5270	3.5269	0.1159	25.98	0.01	1.500			
0.8993	57557.54	3.5240	3.5241	0.1016	25.98	0.01	1.500			
0.8996	57575.82	3.5210	3.5211	0.0878	25.98	0.01	1.500			
0.8999	57591.32	3.5180	3.5182	0.0737	25.98	0.01	1.500			
0.9001	57604.57	3.5150	3.5153	0.0582	25.98	0.01	1.500			
0.9002	57614.25	3.5120	3.5127	0.0427	25.98	0.01	1.500			
