Ah_balance (normalized)	Ah_balance (mAh)	Voltage - fit (V)	Voltage -  interpolate (V)	dQ/dV (1/V)	Temperature (°C)	Temperature - diff (°C)	Current (C)	R_DC 0ms (mOhm)	R_DC 50ms (mOhm)	R_DC 50 ms PEC (mOhm)
0.2007	12841.97	3.9130	3.9126	-0.1081	25.88	0.00	-1.500			
0.2010	12865.62	3.9100	3.9098	-0.1401	25.88	0.00	-1.500			
0.2015	12895.77	3.9070	3.9070	-0.1732	25.88	0.00	-1.500			
0.2021	12932.44	3.9040	3.9040	-0.2057	25.88	0.00	-1.500			
0.2027	12975.28	3.9010	3.9011	-0.2368	25.88	0.00	-1.500			
0.2035	13024.64	3.8980	3.8979	-0.2673	25.88	0.00	-1.500			
0.2044	13078.51	3.8950	3.8950	-0.2973	25.88	0.00	-1.500			
0.2053	13138.63	3.8920	3.8920	-0.3266	25.88	0.00	-1.500			
0.2063	13204.05	3.8890	3.8890	-0.3569	25.88	0.00	-1.500			
0.2074	13275.15	3.8860	3.8860	-0.3860	25.88	0.00	-1.500			
0.2086	13352.50	3.8830	3.8830	-0.4150	25.88	0.00	-1.500			
0.2099	13435.15	3.8800	3.8800	-0.4433	25.88	0.00	-1.500			
0.2113	13523.17	3.8770	3.8770	-0.4729	25.88	0.00	-1.500			
0.2128	13616.32	3.8740	3.8740	-0.5007	25.88	0.00	-1.500			
0.2143	13715.93	3.8710	3.8709	-0.5264	25.88	0.00	-1.500			
0.2159	13820.30	3.8680	3.8680	-0.5495	25.88	0.00	-1.500			
0.2176	13928.45	3.8650	3.8651	-0.5733	25.88	0.00	-1.500			
0.2194	14041.70	3.8620	3.8620	-0.5966	25.88	0.00	-1.500			
0.2212	14158.09	3.8590	3.8589	-0.6158	25.88	0.00	-1.500			
0.2231	14277.98	3.8560	3.8560	-0.6329	25.88	0.00	-1.500			
0.2250	14401.43	3.8530	3.8531	-0.6518	25.88	0.00	-1.500			
0.2270	14530.07	3.8500	3.8499	-0.6702	25.88	0.00	-1.500			
0.2291	14660.41	3.8470	3.8470	-0.6826	25.88	0.00	-1.500			
0.2311	14792.02	3.8440	3.8440	-0.6972	25.88	0.00	-1.500			
0.2333	14928.09	3.8410	3.8410	-0.7083	25.88	0.00	-1.500			
0.2354	15066.17	3.8380	3.8380	-0.7189	25.88	0.00	-1.500			
0.2376	15205.45	3.8350	3.8351	-0.7267	25.88	0.00	-1.500			
0.2398	15346.60	3.8320	3.8320	-0.7322	25.88	0.00	-1.500			
0.2420	15488.72	3.8290	3.8290	-0.7326	25.88	0.00	-1.500			
0.2442	15628.28	3.8260	3.8260	-0.7378	25.88	0.00	-1.500			
0.2464	15769.56	3.8230	3.8230	-0.7404	25.88	0.00	-1.500			
0.2486	15912.58	3.8200	3.8199	-0.7459	25.88	0.00	-1.500			
0.2509	16055.91	3.8170	3.8170	-0.7490	25.88	0.00	-1.500			
0.2531	16200.59	3.8140	3.8140	-0.7533	25.88	0.00	-1.500			
0.2554	16346.32	3.8110	3.8111	-0.7546	25.88	0.00	-1.500			
0.2577	16491.90	3.8080	3.8080	-0.7587	25.88	0.00	-1.500			
0.2599	16636.30	3.8050	3.8051	-0.7604	25.88	0.00	-1.500			
0.2622	16782.96	3.8020	3.8019	-0.7631	25.88	0.00	-1.500			
0.2645	16929.52	3.7990	3.7990	-0.7659	25.88	0.00	-1.500			
0.2668	17077.75	3.7960	3.7961	-0.7687	25.89	0.01	-1.500			
0.2692	17225.66	3.7930	3.7930	-0.7696	25.89	0.01	-1.500			
0.2715	17374.74	3.7900	3.7900	-0.7704	25.89	0.01	-1.500			
0.2738	17521.22	3.7870	3.7870	-0.7692	25.90	0.02	-1.500			
0.2761	17668.83	3.7840	3.7840	-0.7709	25.90	0.02	-1.500			
0.2784	17817.77	3.7810	3.7810	-0.7726	25.91	0.03	-1.500			
0.2807	17965.89	3.7780	3.7780	-0.7717	25.91	0.03	-1.500			
0.2830	18114.87	3.7750	3.7750	-0.7732	25.91	0.03	-1.500			
0.2854	18262.73	3.7720	3.7720	-0.7746	25.92	0.04	-1.500			
0.2877	18412.27	3.7690	3.7690	-0.7753	25.92	0.04	-1.500			
0.2900	18560.94	3.7660	3.7660	-0.7731	25.93	0.05	-1.500			
0.2923	18709.61	3.7630	3.7630	-0.7747	25.93	0.05	-1.500			
0.2947	18858.33	3.7600	3.7601	-0.7756	25.94	0.06	-1.500			
0.2970	19008.02	3.7570	3.7569	-0.7733	25.94	0.06	-1.500			
0.2993	19155.93	3.7540	3.7540	-0.7701	25.95	0.07	-1.500			
0.3016	19302.54	3.7510	3.7510	-0.7675	25.95	0.07	-1.500			
0.3039	19450.06	3.7480	3.7480	-0.7701	25.96	0.08	-1.500			
0.3062	19598.47	3.7450	3.7450	-0.7700	25.96	0.08	-1.500			
0.3085	19745.45	3.7420	3.7420	-0.7707	25.97	0.09	-1.500			
0.3108	19893.52	3.7390	3.7391	-0.7758	25.98	0.10	-1.500			
0.3132	20044.56	3.7360	3.7360	-0.7750	25.98	0.10	-1.500			
0.3155	20192.68	3.7330	3.7330	-0.7740	25.98	0.10	-1.500			
0.3178	20340.23	3.7300	3.7301	-0.7763	25.99	0.11	-1.500			
0.3201	20489.54	3.7270	3.7269	-0.7769	25.99	0.11	-1.500			
0.3225	20639.20	3.7240	3.7240	-0.7800	26.00	0.12	-1.500			
0.3248	20788.42	3.7210	3.7210	-0.7830	26.00	0.12	-1.500			
0.3272	20938.89	3.7180	3.7181	-0.7871	26.00	0.12	-1.500			
0.3296	21092.22	3.7150	3.7150	-0.7920	26.01	0.13	-1.500			
0.3319	21242.98	3.7120	3.7120	-0.7969	26.01	0.13	-1.500			
0.3343	21396.58	3.7090	3.7090	-0.8015	26.01	0.13	-1.500			
0.3367	21550.78	3.7060	3.7060	-0.8098	26.02	0.14	-1.500			
0.3392	21706.70	3.7030	3.7031	-0.8135	26.02	0.14	-1.500			
0.3416	21863.61	3.7000	3.7000	-0.8199	26.03	0.15	-1.500			
0.3441	22021.79	3.6970	3.6970	-0.8271	26.03	0.15	-1.500			
0.3466	22180.96	3.6940	3.6940	-0.8346	26.04	0.16	-1.500			
0.3491	22340.49	3.6910	3.6910	-0.8433	26.04	0.16	-1.500			
0.3516	22503.30	3.6880	3.6880	-0.8578	26.05	0.17	-1.500			
0.3542	22668.38	3.6850	3.6850	-0.8754	26.05	0.17	-1.500			
0.3569	22838.76	3.6820	3.6820	-0.8899	26.06	0.18	-1.500			
0.3596	23011.30	3.6790	3.6790	-0.8999	26.06	0.18	-1.500			
0.3623	23185.95	3.6760	3.6761	-0.9157	26.07	0.19	-1.500			
0.3650	23362.81	3.6730	3.6730	-0.9303	26.07	0.19	-1.500			
0.3678	23541.82	3.6700	3.6699	-0.9419	26.08	0.20	-1.500			
0.3707	23724.01	3.6670	3.6670	-0.9560	26.08	0.20	-1.500			
0.3735	23907.18	3.6640	3.6640	-0.9732	26.08	0.20	-1.500			
0.3765	24096.26	3.6610	3.6610	-1.0058	26.09	0.21	-1.500			
0.3796	24292.59	3.6580	3.6580	-1.0236	26.09	0.21	-1.500			
0.3827	24491.53	3.6550	3.6549	-1.0370	26.09	0.21	-1.500			
0.3858	24692.84	3.6520	3.6521	-1.0562	26.10	0.22	-1.500			
0.3890	24898.50	3.6490	3.6490	-1.0734	26.10	0.22	-1.500			
0.3923	25105.28	3.6460	3.6460	-1.0900	26.10	0.22	-1.500			
0.3955	25313.49	3.6430	3.6430	-1.1067	26.10	0.22	-1.500			
0.3988	25524.68	3.6400	3.6401	-1.1318	26.10	0.22	-1.500			
0.4023	25747.03	3.6370	3.6370	-1.1667	26.10	0.22	-1.500			
0.4059	25974.97	3.6340	3.6339	-1.1963	26.10	0.22	-1.500			
0.4095	26206.93	3.6310	3.6310	-1.2195	26.10	0.22	-1.500			
0.4132	26446.31	3.6280	3.6281	-1.2423	26.10	0.22	-1.500			
0.4170	26686.61	3.6250	3.6250	-1.2623	26.10	0.22	-1.500			
0.4208	26928.75	3.6220	3.6220	-1.2846	26.10	0.22	-1.500			
0.4246	27176.75	3.6190	3.6190	-1.3157	26.10	0.22	-1.500			
0.4286	27431.91	3.6160	3.6160	-1.3411	26.09	0.21	-1.500			
0.4327	27694.04	3.6130	3.6129	-1.3606	26.09	0.21	-1.500			
0.4369	27958.67	3.6100	3.6101	-1.3937	26.09	0.21	-1.500			
0.4411	28228.73	3.6070	3.6070	-1.4218	26.09	0.21	-1.500			
0.4454	28502.45	3.6040	3.6039	-1.4447	26.09	0.21	-1.500			
0.4497	28782.64	3.6010	3.6009	-1.4732	26.09	0.21	-1.500			
0.4541	29065.00	3.5980	3.5981	-1.5042	26.08	0.20	-1.500			
0.4588	29361.73	3.5950	3.5950	-1.5426	26.08	0.20	-1.500			
0.4635	29662.88	3.5920	3.5920	-1.5603	26.08	0.20	-1.500			
0.4682	29964.26	3.5890	3.5890	-1.5732	26.08	0.20	-1.500			
0.4729	30268.00	3.5860	3.5861	-1.6000	26.08	0.20	-1.500			
0.4777	30575.63	3.5830	3.5830	-1.6220	26.08	0.20	-1.500			
0.4826	30889.59	3.5800	3.5799	-1.6544	26.08	0.20	-1.500			
0.4876	31206.42	3.5770	3.5770	-1.6782	26.08	0.20	-1.500			
0.4927	31531.49	3.5740	3.5740	-1.7171	26.08	0.20	-1.500			
0.4979	31866.94	3.5710	3.5710	-1.7516	26.08	0.20	-1.500			
0.5033	32208.24	3.5680	3.5679	-1.7816	26.08	0.20	-1.500			
0.5086	32552.51	3.5650	3.5651	-1.8052	26.08	0.20	-1.500			
0.5141	32903.36	3.5620	3.5620	-1.8227	26.08	0.20	-1.500			
0.5196	33253.90	3.5590	3.5590	-1.8563	26.08	0.20	-1.500			
0.5252	33613.64	3.5560	3.5560	-1.8629	26.08	0.20	-1.500			
0.5308	33971.74	3.5530	3.5529	-1.8819	26.08	0.20	-1.500			
0.5365	34336.60	3.5500	3.5501	-1.8940	26.08	0.20	-1.500			
0.5422	34700.92	3.5470	3.5469	-1.9069	26.08	0.20	-1.500			
0.5480	35071.04	3.5440	3.5440	-1.9174	26.08	0.20	-1.500			
0.5537	35438.62	3.5410	3.5413	-1.9146	26.09	0.21	-1.500	0.386	0.507	
0.5595	35809.49	3.5380	3.5380	-1.9245	26.09	0.21	-1.500			
0.5653	36177.06	3.5350	3.5350	-1.9098	26.09	0.21	-1.500			
0.5710	36543.05	3.5320	3.5320	-1.9098	26.10	0.22	-1.500			
0.5767	36910.88	3.5290	3.5290	-1.9070	26.10	0.22	-1.500			
0.5824	37274.04	3.5260	3.5260	-1.9013	26.11	0.23	-1.500			
0.5881	37638.52	3.5230	3.5231	-1.8973	26.11	0.23	-1.500			
0.5938	38003.97	3.5200	3.5200	-1.8989	26.12	0.24	-1.500			
0.5995	38368.90	3.5170	3.5169	-1.8921	26.12	0.24	-1.500			
0.6052	38734.68	3.5140	3.5140	-1.8736	26.13	0.25	-1.500			
0.6108	39093.70	3.5110	3.5110	-1.8583	26.14	0.26	-1.500			
0.6164	39448.56	3.5080	3.5080	-1.8413	26.15	0.27	-1.500			
0.6218	39797.15	3.5050	3.5049	-1.8348	26.15	0.27	-1.500			
0.6273	40147.17	3.5020	3.5020	-1.8345	26.16	0.28	-1.500			
0.6328	40499.73	3.4990	3.4989	-1.8263	26.17	0.29	-1.500			
0.6383	40851.17	3.4960	3.4961	-1.8156	26.18	0.30	-1.500			
0.6437	41199.79	3.4930	3.4931	-1.8051	26.19	0.31	-1.500			
0.6491	41544.30	3.4900	3.4899	-1.7917	26.20	0.32	-1.500			
0.6544	41882.63	3.4870	3.4870	-1.7734	26.21	0.33	-1.500			
0.6598	42225.05	3.4840	3.4840	-1.7711	26.22	0.34	-1.500			
0.6651	42565.31	3.4810	3.4810	-1.7506	26.23	0.35	-1.500			
0.6703	42900.08	3.4780	3.4780	-1.7415	26.24	0.36	-1.500			
0.6756	43236.31	3.4750	3.4750	-1.7214	26.26	0.38	-1.500			
0.6807	43565.42	3.4720	3.4719	-1.6976	26.27	0.39	-1.500			
0.6858	43888.34	3.4690	3.4690	-1.6772	26.28	0.40	-1.500			
0.6907	44207.07	3.4660	3.4660	-1.6517	26.30	0.42	-1.500			
0.6957	44523.31	3.4630	3.4629	-1.6319	26.31	0.43	-1.500			
0.7005	44833.38	3.4600	3.4600	-1.6061	26.32	0.44	-1.500			
0.7053	45136.97	3.4570	3.4571	-1.5832	26.33	0.45	-1.500			
0.7101	45445.05	3.4540	3.4540	-1.5677	26.34	0.46	-1.500			
0.7147	45742.00	3.4510	3.4510	-1.5442	26.36	0.48	-1.500			
0.7193	46035.32	3.4480	3.4480	-1.5158	26.37	0.49	-1.500			
0.7238	46323.94	3.4450	3.4450	-1.5065	26.39	0.51	-1.500			
0.7283	46611.41	3.4420	3.4419	-1.4865	26.41	0.53	-1.500			
0.7328	46896.34	3.4390	3.4389	-1.4616	26.42	0.54	-1.500			
0.7371	47174.35	3.4360	3.4361	-1.4434	26.44	0.56	-1.500			
0.7414	47449.88	3.4330	3.4330	-1.4333	26.45	0.57	-1.500			
0.7456	47720.41	3.4300	3.4299	-1.4179	26.47	0.59	-1.500			
0.7499	47991.85	3.4270	3.4269	-1.4180	26.48	0.60	-1.500			
0.7541	48262.65	3.4240	3.4240	-1.4002	26.50	0.62	-1.500			
0.7584	48535.33	3.4210	3.4210	-1.4045	26.51	0.63	-1.500			
0.7626	48806.64	3.4180	3.4182	-1.3896	26.53	0.65	-1.500			
0.7668	49072.75	3.4150	3.4150	-1.3688	26.55	0.67	-1.500			
0.7708	49333.22	3.4120	3.4119	-1.3511	26.57	0.69	-1.500			
0.7749	49591.22	3.4090	3.4091	-1.3171	26.59	0.71	-1.500			
0.7788	49845.74	3.4060	3.4059	-1.2841	26.60	0.72	-1.500			
0.7826	50088.52	3.4030	3.4030	-1.2447	26.62	0.74	-1.500			
0.7863	50322.62	3.4000	3.4000	-1.1956	26.64	0.76	-1.500			
0.7898	50548.35	3.3970	3.3970	-1.1557	26.65	0.77	-1.500			
0.7932	50765.06	3.3940	3.3940	-1.1109	26.67	0.79	-1.500			
0.7965	50973.14	3.3910	3.3910	-1.0716	26.69	0.81	-1.500			
0.7997	51178.27	3.3880	3.3880	-1.0317	26.70	0.82	-1.500			
0.8027	51372.02	3.3850	3.3850	-0.9931	26.72	0.84	-1.500			
0.8056	51559.34	3.3820	3.3820	-0.9464	26.74	0.86	-1.500			
0.8084	51738.12	3.3790	3.3790	-0.9033	26.75	0.87	-1.500			
0.8110	51904.19	3.3760	3.3759	-0.8674	26.75	0.87	-1.500			
0.8135	52066.96	3.3730	3.3731	-0.8314	26.76	0.88	-1.500			
0.8160	52221.24	3.3700	3.3699	-0.7970	26.78	0.90	-1.500			
0.8183	52372.49	3.3670	3.3670	-0.7709	26.79	0.91	-1.500			
0.8205	52514.47	3.3640	3.3642	-0.7436	26.80	0.92	-1.500			
0.8228	52657.66	3.3610	3.3609	-0.7242	26.81	0.93	-1.500			
0.8249	52793.94	3.3580	3.3580	-0.6999	26.82	0.94	-1.500			
0.8269	52924.79	3.3550	3.3550	-0.6742	26.83	0.95	-1.500			
0.8290	53054.19	3.3520	3.3521	-0.6560	26.84	0.96	-1.500			
0.8309	53176.95	3.3490	3.3489	-0.6341	26.85	0.97	-1.500			
0.8327	53295.61	3.3460	3.3461	-0.6125	26.86	0.98	-1.500			
0.8345	53410.72	3.3430	3.3430	-0.5910	26.86	0.98	-1.500			
0.8363	53523.64	3.3400	3.3399	-0.5742	26.87	0.99	-1.500			
0.8380	53631.36	3.3370	3.3371	-0.5536	26.87	0.99	-1.500			
0.8396	53735.15	3.3340	3.3340	-0.5379	26.88	1.00	-1.500			
0.8412	53836.30	3.3310	3.3310	-0.5223	26.89	1.01	-1.500			
0.8427	53933.86	3.3280	3.3279	-0.5049	26.89	1.01	-1.500			
0.8442	54030.33	3.3250	3.3250	-0.4906	26.90	1.02	-1.500			
0.8457	54123.56	3.3220	3.3221	-0.4762	26.91	1.03	-1.500			
0.8471	54214.17	3.3190	3.3190	-0.4625	26.91	1.03	-1.500			
0.8485	54301.51	3.3160	3.3159	-0.4462	26.92	1.04	-1.500			
0.8498	54384.05	3.3130	3.3130	-0.4322	26.93	1.05	-1.500			
0.8510	54466.35	3.3100	3.3101	-0.4194	26.93	1.05	-1.500			
0.8523	54545.54	3.3070	3.3069	-0.4072	26.94	1.06	-1.500			
0.8535	54622.83	3.3040	3.3040	-0.3948	26.94	1.06	-1.500			
0.8546	54696.94	3.3010	3.3011	-0.3818	26.95	1.07	-1.500			
0.8558	54769.09	3.2980	3.2979	-0.3684	26.96	1.08	-1.500			
0.8569	54838.87	3.2950	3.2951	-0.3567	26.96	1.08	-1.500			
0.8579	54905.32	3.2920	3.2920	-0.3452	26.97	1.09	-1.500			
0.8589	54970.55	3.2890	3.2891	-0.3367	26.97	1.09	-1.500			
0.8599	55033.82	3.2860	3.2859	-0.3267	26.98	1.10	-1.500			
0.8609	55095.44	3.2830	3.2830	-0.3175	26.98	1.10	-1.500			
0.8618	55155.62	3.2800	3.2800	-0.3090	26.99	1.11	-1.500			
0.8627	55214.71	3.2770	3.2771	-0.3015	26.99	1.11	-1.500			
0.8636	55271.50	3.2740	3.2739	-0.2922	27.00	1.12	-1.500			
0.8645	55326.20	3.2710	3.2710	-0.2837	27.00	1.12	-1.500			
0.8653	55380.00	3.2680	3.2680	-0.2769	27.01	1.13	-1.500			
0.8661	55432.25	3.2650	3.2650	-0.2700	27.01	1.13	-1.500			
0.8669	55483.63	3.2620	3.2620	-0.2623	27.02	1.14	-1.500			
0.8677	55533.08	3.2590	3.2590	-0.2559	27.02	1.14	-1.500			
0.8685	55581.33	3.2560	3.2562	-0.2500	27.03	1.15	-1.500			
0.8692	55628.51	3.2530	3.2529	-0.2439	27.04	1.16	-1.500			
0.8699	55674.83	3.2500	3.2499	-0.2373	27.04	1.16	-1.500			
0.8706	55719.56	3.2470	3.2471	-0.2320	27.04	1.16	-1.500			
0.8713	55763.62	3.2440	3.2440	-0.2275	27.05	1.17	-1.500			
0.8720	55806.85	3.2410	3.2412	-0.2228	27.05	1.17	-1.500			
0.8726	55849.43	3.2380	3.2379	-0.2182	27.06	1.18	-1.500			
0.8733	55890.23	3.2350	3.2350	-0.2132	27.06	1.18	-1.500			
0.8739	55930.83	3.2320	3.2321	-0.2087	27.07	1.19	-1.500			
0.8745	55970.52	3.2290	3.2290	-0.2048	27.07	1.19	-1.500			
0.8752	56009.66	3.2260	3.2260	-0.2025	27.08	1.20	-1.500			
0.8757	56047.82	3.2230	3.2230	-0.1985	27.08	1.20	-1.500			
0.8763	56085.82	3.2200	3.2200	-0.1950	27.08	1.20	-1.500			
0.8769	56122.93	3.2170	3.2169	-0.1916	27.09	1.21	-1.500			
0.8775	56159.60	3.2140	3.2141	-0.1881	27.09	1.21	-1.500			
0.8781	56195.30	3.2110	3.2111	-0.1846	27.10	1.22	-1.500			
0.8786	56230.50	3.2080	3.2079	-0.1816	27.10	1.22	-1.500			
0.8791	56265.00	3.2050	3.2050	-0.1778	27.10	1.22	-1.500			
0.8797	56298.16	3.2020	3.2020	-0.1751	27.11	1.23	-1.500			
0.8802	56331.37	3.1990	3.1990	-0.1734	27.11	1.23	-1.500			
0.8807	56364.58	3.1960	3.1960	-0.1716	27.11	1.23	-1.500			
0.8812	56397.36	3.1930	3.1929	-0.1699	27.12	1.24	-1.500			
0.8817	56429.91	3.1900	3.1900	-0.1674	27.12	1.24	-1.500			
0.8822	56461.96	3.1870	3.1870	-0.1653	27.12	1.24	-1.500			
0.8827	56493.77	3.1840	3.1840	-0.1630	27.13	1.25	-1.500			
0.8832	56524.75	3.1810	3.1810	-0.1597	27.13	1.25	-1.500			
0.8837	56554.81	3.1780	3.1780	-0.1581	27.13	1.25	-1.500			
0.8841	56584.70	3.1750	3.1751	-0.1559	27.14	1.26	-1.500			
0.8846	56614.58	3.1720	3.1719	-0.1541	27.14	1.26	-1.500			
0.8851	56644.00	3.1690	3.1690	-0.1524	27.14	1.26	-1.500			
0.8855	56673.16	3.1660	3.1660	-0.1510	27.15	1.27	-1.500			
0.8860	56701.92	3.1630	3.1630	-0.1495	27.15	1.27	-1.500			
0.8864	56730.55	3.1600	3.1598	-0.1485	27.15	1.27	-1.500			
0.8869	56758.90	3.1570	3.1571	-0.1469	27.15	1.27	-1.500			
0.8873	56786.62	3.1540	3.1540	-0.1452	27.16	1.28	-1.500			
0.8877	56814.47	3.1510	3.1510	-0.1443	27.16	1.28	-1.500			
0.8882	56842.09	3.1480	3.1480	-0.1437	27.17	1.29	-1.500			
0.8886	56869.58	3.1450	3.1450	-0.1427	27.17	1.29	-1.500			
0.8890	56896.86	3.1420	3.1420	-0.1411	27.18	1.30	-1.500			
0.8894	56923.94	3.1390	3.1390	-0.1397	27.18	1.30	-1.500			
0.8899	56950.65	3.1360	3.1362	-0.1384	27.18	1.30	-1.500			
0.8903	56977.09	3.1330	3.1329	-0.1369	27.19	1.31	-1.500			
0.8907	57003.24	3.1300	3.1300	-0.1362	27.19	1.31	-1.500			
0.8911	57029.15	3.1270	3.1270	-0.1349	27.20	1.32	-1.500			
0.8915	57054.90	3.1240	3.1240	-0.1336	27.20	1.32	-1.500			
0.8919	57080.48	3.1210	3.1210	-0.1328	27.21	1.33	-1.500			
0.8923	57106.11	3.1180	3.1180	-0.1317	27.21	1.33	-1.500			
0.8927	57131.42	3.1150	3.1150	-0.1305	27.22	1.34	-1.500			
0.8931	57156.25	3.1120	3.1121	-0.1295	27.22	1.34	-1.500			
0.8935	57180.93	3.1090	3.1089	-0.1287	27.22	1.34	-1.500			
0.8938	57205.36	3.1060	3.1061	-0.1277	27.23	1.35	-1.500			
0.8942	57229.80	3.1030	3.1029	-0.1270	27.23	1.35	-1.500			
0.8946	57254.19	3.1000	3.1000	-0.1262	27.24	1.36	-1.500			
0.8950	57278.38	3.0970	3.0970	-0.1255	27.24	1.36	-1.500			
0.8954	57302.50	3.0940	3.0940	-0.1251	27.24	1.36	-1.500			
0.8957	57326.43	3.0910	3.0910	-0.1242	27.25	1.37	-1.500			
0.8961	57350.02	3.0880	3.0880	-0.1236	27.25	1.37	-1.500			
0.8965	57373.62	3.0850	3.0849	-0.1230	27.26	1.38	-1.500			
0.8968	57397.25	3.0820	3.0821	-0.1223	27.26	1.38	-1.500			
0.8972	57420.70	3.0790	3.0789	-0.1217	27.27	1.39	-1.500			
0.8976	57444.07	3.0760	3.0760	-0.1206	27.27	1.39	-1.500			
0.8979	57467.37	3.0730	3.0730	-0.1198	27.27	1.39	-1.500			
0.8983	57490.14	3.0700	3.0700	-0.1191	27.28	1.40	-1.500			
0.8986	57512.93	3.0670	3.0670	-0.1183	27.28	1.40	-1.500			
0.8990	57535.43	3.0640	3.0640	-0.1175	27.29	1.41	-1.500			
0.8993	57557.93	3.0610	3.0610	-0.1170	27.29	1.41	-1.500			
0.8997	57580.40	3.0580	3.0580	-0.1161	27.30	1.42	-1.500			
0.9000	57602.62	3.0550	3.0550	-0.1153	27.30	1.42	-1.500			
0.9004	57624.69	3.0520	3.0520	-0.1151	27.31	1.43	-1.500			
0.9007	57646.74	3.0490	3.0490	-0.1145	27.31	1.43	-1.500			
0.9011	57668.65	3.0460	3.0459	-0.1135	27.31	1.43	-1.500			
0.9014	57690.37	3.0430	3.0430	-0.1128	27.32	1.44	-1.500			
0.9017	57711.86	3.0400	3.0401	-0.1126	27.32	1.44	-1.500			
0.9021	57733.44	3.0370	3.0370	-0.1123	27.33	1.45	-1.500			
0.9024	57755.05	3.0340	3.0339	-0.1119	27.33	1.45	-1.500			
0.9028	57776.49	3.0310	3.0310	-0.1114	27.34	1.46	-1.500			
0.9031	57797.80	3.0280	3.0280	-0.1105	27.34	1.46	-1.500			
0.9034	57818.98	3.0250	3.0250	-0.1100	27.34	1.46	-1.500			
0.9038	57840.28	3.0220	3.0220	-0.1098	27.35	1.47	-1.500			
0.9041	57861.18	3.0190	3.0191	-0.1090	27.35	1.47	-1.500			
0.9044	57881.90	3.0160	3.0161	-0.1080	27.36	1.48	-1.500			
0.9047	57902.58	3.0130	3.0129	-0.1074	27.36	1.48	-1.500			
0.9050	57923.10	3.0100	3.0100	-0.1069	27.36	1.48	-1.500			
0.9054	57943.60	3.0070	3.0070	-0.1066	27.37	1.49	-1.500			
0.9057	57964.03	3.0040	3.0040	-0.1058	27.37	1.49	-1.500			
