Ah_balance (normalized)	Ah_balance (mAh)	Voltage - fit (V)	Voltage -  interpolate (V)	dQ/dV (1/V)	Temperature (°C)	Temperature - diff (°C)	Current (C)	R_DC 0ms (mOhm)	R_DC 50ms (mOhm)	R_DC 50 ms PEC (mOhm)
0.2804	17946.02	3.9710	3.9710	0.9310	27.09	1.11	1.500			
0.2831	18116.27	3.9680	3.9680	0.8826	27.09	1.11	1.500			
0.2857	18283.86	3.9650	3.9651	0.8873	27.08	1.10	1.500			
0.2884	18456.20	3.9620	3.9621	0.8968	27.08	1.10	1.500			
0.2911	18628.34	3.9590	3.9591	0.9031	27.08	1.10	1.500			
0.2938	18803.81	3.9560	3.9561	0.9094	27.08	1.10	1.500			
0.2966	18980.27	3.9530	3.9530	0.9143	27.07	1.09	1.500			
0.2994	19158.85	3.9500	3.9499	0.9164	27.07	1.09	1.500			
0.3021	19331.96	3.9470	3.9471	0.9107	27.07	1.09	1.500			
0.3048	19505.25	3.9440	3.9440	0.9124	27.07	1.09	1.500			
0.3075	19680.58	3.9410	3.9411	0.9198	27.07	1.09	1.500			
0.3103	19857.30	3.9380	3.9380	0.9233	27.06	1.08	1.500			
0.3131	20035.44	3.9350	3.9349	0.9317	27.06	1.08	1.500			
0.3159	20214.74	3.9320	3.9320	0.9373	27.06	1.08	1.500			
0.3187	20395.43	3.9290	3.9291	0.9449	27.06	1.08	1.500			
0.3215	20575.95	3.9260	3.9260	0.9519	27.05	1.07	1.500			
0.3244	20759.64	3.9230	3.9230	0.9555	27.05	1.07	1.500			
0.3272	20943.79	3.9200	3.9199	0.9649	27.05	1.07	1.500			
0.3302	21131.31	3.9170	3.9170	0.9701	27.04	1.06	1.500			
0.3331	21317.60	3.9140	3.9140	0.9735	27.04	1.06	1.500			
0.3360	21504.20	3.9110	3.9110	0.9812	27.03	1.05	1.500			
0.3389	21692.42	3.9080	3.9080	0.9912	27.03	1.05	1.500			
0.3419	21882.51	3.9050	3.9050	0.9950	27.03	1.05	1.500			
0.3449	22074.75	3.9020	3.9020	1.0093	27.02	1.04	1.500			
0.3480	22269.08	3.8990	3.8991	1.0192	27.02	1.04	1.500			
0.3511	22468.06	3.8960	3.8960	1.0247	27.01	1.03	1.500			
0.3542	22666.76	3.8930	3.8929	1.0261	27.01	1.03	1.500			
0.3572	22862.60	3.8900	3.8901	1.0332	27.00	1.02	1.500			
0.3603	23060.93	3.8870	3.8871	1.0427	27.00	1.02	1.500			
0.3635	23261.02	3.8840	3.8839	1.0563	26.99	1.01	1.500			
0.3666	23463.25	3.8810	3.8810	1.0687	26.99	1.01	1.500			
0.3698	23669.44	3.8780	3.8780	1.0817	26.98	1.00	1.500			
0.3731	23879.93	3.8750	3.8750	1.0974	26.98	1.00	1.500			
0.3765	24093.33	3.8720	3.8721	1.1092	26.97	0.99	1.500			
0.3798	24308.17	3.8690	3.8690	1.1266	26.97	0.99	1.500			
0.3832	24525.59	3.8660	3.8660	1.1367	26.96	0.98	1.500			
0.3866	24745.30	3.8630	3.8630	1.1512	26.96	0.98	1.500			
0.3901	24966.98	3.8600	3.8600	1.1665	26.95	0.97	1.500			
0.3936	25192.61	3.8570	3.8570	1.1862	26.94	0.96	1.500			
0.3972	25420.98	3.8540	3.8541	1.2022	26.94	0.96	1.500			
0.4008	25653.18	3.8510	3.8509	1.2173	26.93	0.95	1.500			
0.4045	25888.62	3.8480	3.8480	1.2349	26.92	0.94	1.500			
0.4082	26127.78	3.8450	3.8450	1.2565	26.91	0.93	1.500			
0.4120	26369.51	3.8420	3.8420	1.2769	26.91	0.93	1.500			
0.4159	26618.39	3.8390	3.8390	1.2913	26.90	0.92	1.500			
0.4198	26867.42	3.8360	3.8359	1.3125	26.89	0.91	1.500			
0.4238	27122.17	3.8330	3.8331	1.3307	26.88	0.90	1.500			
0.4278	27378.64	3.8300	3.8301	1.3540	26.87	0.89	1.500			
0.4318	27637.45	3.8270	3.8269	1.3849	26.86	0.88	1.500			
0.4360	27903.45	3.8240	3.8240	1.4240	26.85	0.87	1.500			
0.4403	28179.44	3.8210	3.8211	1.4601	26.84	0.86	1.500			
0.4448	28465.70	3.8180	3.8180	1.5078	26.83	0.85	1.500			
0.4494	28761.17	3.8150	3.8150	1.5465	26.82	0.84	1.500			
0.4541	29060.94	3.8120	3.8121	1.5768	26.81	0.83	1.500			
0.4588	29361.69	3.8090	3.8090	1.6195	26.79	0.81	1.500			
0.4637	29675.19	3.8060	3.8059	1.6566	26.78	0.80	1.500			
0.4688	30001.13	3.8030	3.8029	1.6934	26.77	0.79	1.500			
0.4739	30332.59	3.8000	3.8001	1.7539	26.76	0.78	1.500			
0.4792	30671.82	3.7970	3.7971	1.8050	26.75	0.77	1.500			
0.4847	31020.32	3.7940	3.7940	1.8616	26.73	0.75	1.500			
0.4903	31380.07	3.7910	3.7909	1.9199	26.72	0.74	1.500			
0.4961	31753.36	3.7880	3.7881	1.9819	26.70	0.72	1.500			
0.5023	32148.08	3.7850	3.7851	2.0312	26.68	0.70	1.500			
0.5084	32539.40	3.7820	3.7820	2.0598	26.66	0.68	1.500			
0.5146	32933.23	3.7790	3.7789	2.1118	26.64	0.66	1.500			
0.5210	33345.24	3.7760	3.7760	2.1666	26.63	0.65	1.500			
0.5276	33769.55	3.7730	3.7730	2.2294	26.61	0.63	1.500			
0.5344	34204.68	3.7700	3.7701	2.2807	26.59	0.61	1.500			
0.5414	34649.57	3.7670	3.7669	2.3191	26.58	0.60	1.500			
0.5484	35094.56	3.7640	3.7640	2.3796	26.56	0.58	1.500			
0.5557	35566.27	3.7610	3.7609	2.4198	26.54	0.56	1.500			
0.5630	36034.42	3.7580	3.7581	2.4275	26.51	0.53	1.500	0.361	0.444	
0.5704	36505.53	3.7550	3.7550	2.3757	26.49	0.51	1.500			
0.5775	36958.35	3.7520	3.7519	2.3278	26.47	0.49	1.500			
0.5842	37389.21	3.7490	3.7491	2.3152	26.46	0.48	1.500			
0.5911	37830.25	3.7460	3.7459	2.3207	26.44	0.46	1.500			
0.5981	38281.16	3.7430	3.7430	2.2768	26.42	0.44	1.500			
0.6050	38719.19	3.7400	3.7401	2.2820	26.40	0.42	1.500			
0.6116	39145.02	3.7370	3.7370	2.2108	26.39	0.41	1.500			
0.6182	39565.84	3.7340	3.7339	2.2073	26.37	0.39	1.500			
0.6248	39985.55	3.7310	3.7310	2.2124	26.36	0.38	1.500			
0.6315	40413.30	3.7280	3.7280	2.2333	26.35	0.37	1.500			
0.6380	40833.90	3.7250	3.7249	2.2491	26.34	0.36	1.500			
0.6449	41273.60	3.7220	3.7220	2.2842	26.33	0.35	1.500			
0.6518	41715.38	3.7190	3.7190	2.3441	26.32	0.34	1.500			
0.6589	42168.37	3.7160	3.7161	2.3987	26.31	0.33	1.500			
0.6662	42636.07	3.7130	3.7129	2.5026	26.30	0.32	1.500			
0.6738	43120.08	3.7100	3.7100	2.5726	26.29	0.31	1.500			
0.6816	43625.39	3.7070	3.7071	2.7439	26.27	0.29	1.500			
0.6901	44168.51	3.7040	3.7039	2.8547	26.26	0.28	1.500			
0.6989	44727.92	3.7010	3.7011	2.9046	26.25	0.27	1.500			
0.7079	45304.85	3.6980	3.6980	2.9413	26.23	0.25	1.500			
0.7167	45869.89	3.6950	3.6950	2.8916	26.22	0.24	1.500			
0.7254	46425.94	3.6920	3.6920	2.7778	26.21	0.23	1.500			
0.7337	46954.91	3.6890	3.6890	2.6288	26.20	0.22	1.500			
0.7414	47451.26	3.6860	3.6861	2.4582	26.20	0.22	1.500			
0.7485	47904.34	3.6830	3.6831	2.2319	26.19	0.21	1.500			
0.7547	48298.31	3.6800	3.6802	2.0268	26.19	0.21	1.500			
0.7602	48654.49	3.6770	3.6770	1.8292	26.18	0.20	1.500			
0.7654	48986.60	3.6740	3.6738	1.6906	26.18	0.20	1.500			
0.7703	49297.68	3.6710	3.6710	1.5881	26.17	0.19	1.500			
0.7749	49595.35	3.6680	3.6681	1.4980	26.16	0.18	1.500			
0.7793	49874.29	3.6650	3.6651	1.4180	26.16	0.18	1.500			
0.7833	50132.49	3.6620	3.6620	1.3414	26.15	0.17	1.500			
0.7872	50380.72	3.6590	3.6589	1.2879	26.14	0.16	1.500			
0.7909	50614.90	3.6560	3.6560	1.2537	26.14	0.16	1.500			
0.7945	50850.49	3.6530	3.6530	1.2358	26.13	0.15	1.500			
0.7982	51083.47	3.6500	3.6500	1.2361	26.13	0.15	1.500			
0.8019	51321.89	3.6470	3.6470	1.2390	26.12	0.14	1.500			
0.8056	51556.73	3.6440	3.6440	1.2524	26.11	0.13	1.500			
0.8094	51798.97	3.6410	3.6411	1.2742	26.11	0.13	1.500			
0.8132	52045.26	3.6380	3.6379	1.2919	26.10	0.12	1.500			
0.8171	52296.58	3.6350	3.6350	1.3015	26.09	0.11	1.500			
0.8211	52550.34	3.6320	3.6321	1.3132	26.08	0.10	1.500			
0.8251	52804.29	3.6290	3.6290	1.3141	26.08	0.10	1.500			
0.8290	53058.78	3.6260	3.6260	1.3216	26.07	0.09	1.500			
0.8330	53310.57	3.6230	3.6230	1.3170	26.06	0.08	1.500			
0.8369	53563.95	3.6200	3.6201	1.3159	26.05	0.07	1.500			
0.8409	53816.52	3.6170	3.6170	1.3207	26.04	0.06	1.500			
0.8449	54070.54	3.6140	3.6140	1.3259	26.03	0.05	1.500			
0.8488	54325.17	3.6110	3.6111	1.3257	26.03	0.05	1.500			
0.8528	54581.09	3.6080	3.6079	1.3174	26.02	0.04	1.500			
0.8568	54834.82	3.6050	3.6050	1.3077	26.01	0.03	1.500			
0.8607	55086.40	3.6020	3.6021	1.3030	26.01	0.03	1.500			
0.8646	55335.38	3.5990	3.5989	1.2903	26.00	0.02	1.500			
0.8685	55581.61	3.5960	3.5960	1.2755	25.99	0.01	1.500			
0.8723	55826.18	3.5930	3.5930	1.2613	25.99	0.01	1.500			
0.8761	56069.95	3.5900	3.5900	1.2429	25.98	0.00	1.500			
0.8798	56305.67	3.5870	3.5871	1.2308	25.98	-0.00	1.500			
0.8834	56537.33	3.5840	3.5840	1.2205	25.97	-0.01	1.500			
0.8870	56767.16	3.5810	3.5810	1.2207	25.96	-0.02	1.500			
0.8906	56997.74	3.5780	3.5779	1.2270	25.96	-0.02	1.500			
0.8943	57238.18	3.5750	3.5750	1.2249	25.96	-0.02	1.500			
0.8982	57484.42	3.5720	3.5719	1.2090	25.97	-0.01	1.500			
0.9020	57729.79	3.5690	3.5689	1.1176	25.97	-0.01	1.500			
0.9055	57949.32	3.5660	3.5662	1.0093	25.97	-0.01	1.500			
0.9084	58139.90	3.5630	3.5632	0.8719	25.97	-0.01	1.500			
0.9108	58290.77	3.5600	3.5598	0.7072	25.98	-0.00	1.500			
0.9124	58394.44	3.5570	3.5570	0.5568	25.98	-0.00	1.500			
0.9137	58479.54	3.5540	3.5541	0.4455	25.98	-0.00	1.500			
0.9148	58550.28	3.5510	3.5508	0.3501	25.98	0.00	1.500			
0.9158	58608.28	3.5480	3.5479	0.2940	25.98	0.00	1.500			
0.9164	58652.65	3.5450	3.5450	0.2418	25.98	0.00	1.500			
0.9171	58693.28	3.5420	3.5420	0.2104	25.98	0.00	1.500			
0.9176	58729.16	3.5390	3.5389	0.1797	25.98	0.00	1.500			
0.9181	58759.54	3.5360	3.5361	0.1564	25.98	0.00	1.500			
0.9186	58787.29	3.5330	3.5330	0.1357	25.98	0.00	1.500			
0.9189	58811.35	3.5300	3.5299	0.1166	25.98	0.00	1.500			
0.9192	58831.96	3.5270	3.5271	0.0981	25.98	0.00	1.500			
0.9195	58848.78	3.5240	3.5242	0.0799	25.98	0.00	1.500			
0.9197	58862.41	3.5210	3.5214	0.0619	25.98	0.00	1.500			
0.9199	58872.57	3.5180	3.5187	0.0439	25.98	0.00	1.500			
