Ah_balance (normalized)	Ah_balance (mAh)	Voltage - fit (V)	Voltage -  interpolate (V)	dQ/dV (1/V)	Temperature (°C)	Temperature - diff (°C)	Current (C)	R_DC 0ms (mOhm)	R_DC 50ms (mOhm)	R_DC 50 ms PEC (mOhm)
0.2807	17967.76	3.9850	3.9850	0.8080	27.26	1.30	1.500			
0.2832	18125.41	3.9820	3.9820	0.8320	27.25	1.29	1.500			
0.2857	18287.36	3.9790	3.9790	0.8457	27.25	1.29	1.500			
0.2883	18450.60	3.9760	3.9760	0.8554	27.24	1.28	1.500			
0.2909	18616.92	3.9730	3.9730	0.8650	27.24	1.28	1.500			
0.2935	18784.15	3.9700	3.9700	0.8657	27.23	1.27	1.500			
0.2961	18951.51	3.9670	3.9670	0.8690	27.23	1.27	1.500			
0.2987	19117.40	3.9640	3.9641	0.8695	27.22	1.26	1.500			
0.3013	19283.52	3.9610	3.9610	0.8754	27.22	1.26	1.500			
0.3040	19454.31	3.9580	3.9579	0.8729	27.21	1.25	1.500			
0.3066	19620.04	3.9550	3.9550	0.8772	27.20	1.24	1.500			
0.3092	19789.18	3.9520	3.9521	0.8833	27.20	1.24	1.500			
0.3119	19958.67	3.9490	3.9491	0.8916	27.19	1.23	1.500			
0.3145	20129.68	3.9460	3.9458	0.8964	27.19	1.23	1.500			
0.3172	20302.50	3.9430	3.9430	0.9029	27.18	1.22	1.500			
0.3200	20477.18	3.9400	3.9400	0.9044	27.18	1.22	1.500			
0.3227	20653.58	3.9370	3.9371	0.9101	27.17	1.21	1.500			
0.3254	20827.64	3.9340	3.9340	0.9094	27.16	1.20	1.500			
0.3282	21003.09	3.9310	3.9310	0.9121	27.16	1.20	1.500			
0.3309	21176.89	3.9280	3.9279	0.9125	27.15	1.19	1.500			
0.3336	21350.07	3.9250	3.9251	0.9204	27.14	1.18	1.500			
0.3364	21527.56	3.9220	3.9220	0.9307	27.14	1.18	1.500			
0.3392	21708.13	3.9190	3.9188	0.9360	27.13	1.17	1.500			
0.3420	21888.85	3.9160	3.9160	0.9425	27.12	1.16	1.500			
0.3449	22070.79	3.9130	3.9132	0.9458	27.11	1.15	1.500			
0.3477	22255.19	3.9100	3.9100	0.9511	27.11	1.15	1.500			
0.3505	22435.16	3.9070	3.9070	0.9535	27.10	1.14	1.500			
0.3534	22618.36	3.9040	3.9039	0.9663	27.09	1.13	1.500			
0.3563	22804.82	3.9010	3.9010	0.9720	27.08	1.12	1.500			
0.3593	22993.10	3.8980	3.8980	0.9823	27.07	1.11	1.500			
0.3622	23183.10	3.8950	3.8951	0.9909	27.06	1.10	1.500			
0.3652	23375.03	3.8920	3.8919	0.9981	27.06	1.10	1.500			
0.3682	23566.52	3.8890	3.8890	1.0044	27.05	1.09	1.500			
0.3712	23758.09	3.8860	3.8860	1.0123	27.04	1.08	1.500			
0.3743	23952.61	3.8830	3.8830	1.0212	27.04	1.08	1.500			
0.3773	24150.16	3.8800	3.8800	1.0397	27.03	1.07	1.500			
0.3805	24350.07	3.8770	3.8770	1.0505	27.02	1.06	1.500			
0.3837	24554.21	3.8740	3.8740	1.0618	27.01	1.05	1.500			
0.3869	24760.85	3.8710	3.8710	1.0739	27.01	1.05	1.500			
0.3901	24967.43	3.8680	3.8681	1.0826	27.00	1.04	1.500			
0.3934	25176.00	3.8650	3.8650	1.0883	26.99	1.03	1.500			
0.3966	25384.68	3.8620	3.8620	1.1058	26.98	1.02	1.500			
0.4000	25597.03	3.8590	3.8589	1.1199	26.97	1.01	1.500			
0.4033	25812.96	3.8560	3.8560	1.1341	26.97	1.01	1.500			
0.4067	26031.97	3.8530	3.8531	1.1537	26.96	1.00	1.500			
0.4103	26256.03	3.8500	3.8500	1.1713	26.95	0.99	1.500			
0.4138	26482.93	3.8470	3.8469	1.1881	26.94	0.98	1.500			
0.4174	26712.63	3.8440	3.8440	1.2075	26.93	0.97	1.500			
0.4210	26943.73	3.8410	3.8410	1.2300	26.92	0.96	1.500			
0.4247	27183.79	3.8380	3.8380	1.2474	26.91	0.95	1.500			
0.4285	27424.13	3.8350	3.8351	1.2741	26.91	0.95	1.500			
0.4323	27669.81	3.8320	3.8320	1.2943	26.90	0.94	1.500			
0.4363	27920.26	3.8290	3.8289	1.3205	26.89	0.93	1.500			
0.4403	28176.16	3.8260	3.8260	1.3423	26.88	0.92	1.500			
0.4443	28435.75	3.8230	3.8231	1.3661	26.87	0.91	1.500			
0.4485	28701.35	3.8200	3.8199	1.3868	26.85	0.89	1.500			
0.4527	28970.17	3.8170	3.8171	1.4208	26.84	0.88	1.500			
0.4569	29242.31	3.8140	3.8140	1.4465	26.83	0.87	1.500			
0.4613	29520.77	3.8110	3.8110	1.4891	26.82	0.86	1.500			
0.4658	29810.23	3.8080	3.8080	1.5306	26.80	0.84	1.500			
0.4705	30109.98	3.8050	3.8050	1.5654	26.79	0.83	1.500			
0.4752	30413.15	3.8020	3.8020	1.6068	26.78	0.82	1.500			
0.4801	30729.54	3.7990	3.7991	1.6414	26.76	0.80	1.500			
0.4851	31043.87	3.7960	3.7960	1.6807	26.75	0.79	1.500			
0.4902	31370.91	3.7930	3.7931	1.7176	26.74	0.78	1.500			
0.4954	31704.96	3.7900	3.7899	1.7399	26.72	0.76	1.500			
0.5007	32044.80	3.7870	3.7871	1.7793	26.71	0.75	1.500			
0.5061	32390.33	3.7840	3.7840	1.8212	26.69	0.73	1.500			
0.5116	32740.63	3.7810	3.7810	1.8556	26.68	0.72	1.500			
0.5172	33099.33	3.7780	3.7780	1.8821	26.66	0.70	1.500			
0.5229	33465.54	3.7750	3.7750	1.9323	26.65	0.69	1.500			
0.5288	33840.59	3.7720	3.7720	1.9841	26.63	0.67	1.500			
0.5348	34230.20	3.7690	3.7690	1.9906	26.61	0.65	1.500	0.354	0.454	
0.5409	34616.85	3.7660	3.7661	2.0007	26.59	0.63	1.500			
0.5469	35003.20	3.7630	3.7631	1.9958	26.57	0.61	1.500			
0.5529	35382.80	3.7600	3.7599	1.9438	26.56	0.60	1.500			
0.5586	35749.90	3.7570	3.7571	1.9138	26.54	0.58	1.500			
0.5643	36114.78	3.7540	3.7538	1.9046	26.52	0.56	1.500			
0.5700	36479.27	3.7510	3.7510	1.9088	26.51	0.55	1.500			
0.5757	36842.31	3.7480	3.7480	1.9062	26.49	0.53	1.500			
0.5814	37211.32	3.7450	3.7450	1.9157	26.48	0.52	1.500			
0.5872	37579.42	3.7420	3.7420	1.9378	26.46	0.50	1.500			
0.5930	37953.46	3.7390	3.7390	1.9567	26.45	0.49	1.500			
0.5989	38331.78	3.7360	3.7360	1.9670	26.44	0.48	1.500			
0.6048	38708.97	3.7330	3.7331	1.9989	26.42	0.46	1.500			
0.6109	39095.89	3.7300	3.7300	2.0567	26.41	0.45	1.500			
0.6171	39492.55	3.7270	3.7270	2.1007	26.39	0.43	1.500			
0.6234	39900.63	3.7240	3.7240	2.1663	26.38	0.42	1.500			
0.6300	40321.98	3.7210	3.7210	2.2178	26.37	0.41	1.500			
0.6367	40747.88	3.7180	3.7179	2.2903	26.35	0.39	1.500			
0.6436	41191.63	3.7150	3.7150	2.3570	26.34	0.38	1.500			
0.6509	41654.66	3.7120	3.7120	2.4556	26.32	0.36	1.500			
0.6585	42142.18	3.7090	3.7089	2.4970	26.30	0.34	1.500			
0.6659	42618.08	3.7060	3.7061	2.5342	26.28	0.32	1.500			
0.6736	43110.42	3.7030	3.7029	2.5496	26.26	0.30	1.500			
0.6813	43600.69	3.7000	3.7000	2.5766	26.25	0.29	1.500			
0.6892	44108.02	3.6970	3.6968	2.5403	26.23	0.27	1.500			
0.6968	44594.92	3.6940	3.6940	2.3816	26.21	0.25	1.500			
0.7036	45029.74	3.6910	3.6911	2.1969	26.20	0.24	1.500			
0.7098	45428.44	3.6880	3.6881	2.0041	26.19	0.23	1.500			
0.7155	45791.93	3.6850	3.6849	1.8402	26.18	0.22	1.500			
0.7208	46128.80	3.6820	3.6821	1.7186	26.17	0.21	1.500			
0.7257	46445.86	3.6790	3.6790	1.6181	26.16	0.20	1.500			
0.7304	46743.15	3.6760	3.6760	1.5341	26.15	0.19	1.500			
0.7348	47025.51	3.6730	3.6730	1.4467	26.14	0.18	1.500			
0.7390	47293.74	3.6700	3.6700	1.3860	26.13	0.17	1.500			
0.7430	47550.70	3.6670	3.6670	1.3348	26.12	0.16	1.500			
0.7468	47796.21	3.6640	3.6641	1.2978	26.11	0.15	1.500			
0.7507	48043.58	3.6610	3.6610	1.2772	26.10	0.14	1.500			
0.7544	48281.32	3.6580	3.6579	1.2669	26.09	0.13	1.500			
0.7582	48522.79	3.6550	3.6550	1.2668	26.08	0.12	1.500			
0.7620	48766.56	3.6520	3.6520	1.2745	26.07	0.11	1.500			
0.7658	49010.60	3.6490	3.6490	1.2838	26.07	0.11	1.500			
0.7696	49257.36	3.6460	3.6460	1.2900	26.06	0.10	1.500			
0.7735	49507.04	3.6430	3.6430	1.2986	26.05	0.09	1.500			
0.7775	49759.59	3.6400	3.6400	1.2985	26.04	0.08	1.500			
0.7814	50006.63	3.6370	3.6370	1.2992	26.04	0.08	1.500			
0.7853	50256.45	3.6340	3.6341	1.3038	26.03	0.07	1.500			
0.7892	50507.35	3.6310	3.6308	1.3001	26.02	0.06	1.500			
0.7931	50756.03	3.6280	3.6280	1.2969	26.01	0.05	1.500			
0.7970	51006.98	3.6250	3.6251	1.2923	26.01	0.05	1.500			
0.8009	51256.38	3.6220	3.6220	1.2878	26.00	0.04	1.500			
0.8047	51500.96	3.6190	3.6190	1.2825	25.99	0.03	1.500			
0.8085	51746.67	3.6160	3.6160	1.2793	25.99	0.03	1.500			
0.8124	51992.50	3.6130	3.6129	1.2699	25.98	0.02	1.500			
0.8162	52237.19	3.6100	3.6100	1.2627	25.98	0.02	1.500			
0.8200	52479.94	3.6070	3.6071	1.2503	25.97	0.01	1.500			
0.8237	52719.27	3.6040	3.6040	1.2368	25.96	0.00	1.500			
0.8274	52955.08	3.6010	3.6010	1.2135	25.96	-0.00	1.500			
0.8310	53186.55	3.5980	3.5980	1.1965	25.95	-0.01	1.500			
0.8346	53413.74	3.5950	3.5950	1.1809	25.95	-0.01	1.500			
0.8381	53639.28	3.5920	3.5919	1.1671	25.94	-0.02	1.500			
0.8416	53860.68	3.5890	3.5890	1.1528	25.94	-0.02	1.500			
0.8450	54081.12	3.5860	3.5860	1.1389	25.94	-0.02	1.500			
0.8485	54302.04	3.5830	3.5829	1.1161	25.95	-0.01	1.500			
0.8519	54519.14	3.5800	3.5799	1.0812	25.95	-0.01	1.500			
0.8551	54729.54	3.5770	3.5770	1.0247	25.95	-0.01	1.500			
0.8582	54925.71	3.5740	3.5740	0.9293	25.96	-0.00	1.500			
0.8610	55102.14	3.5710	3.5711	0.8238	25.96	-0.00	1.500			
0.8633	55248.28	3.5680	3.5680	0.6994	25.96	-0.00	1.500			
0.8651	55365.77	3.5650	3.5651	0.5816	25.96	0.00	1.500			
0.8666	55462.36	3.5620	3.5619	0.4760	25.96	0.00	1.500			
0.8678	55539.92	3.5590	3.5588	0.3938	25.96	0.00	1.500			
0.8688	55601.50	3.5560	3.5559	0.3315	25.96	0.00	1.500			
0.8696	55655.73	3.5530	3.5530	0.2843	25.96	0.00	1.500			
0.8704	55703.82	3.5500	3.5498	0.2497	25.97	0.01	1.500			
0.8710	55746.36	3.5470	3.5469	0.2190	25.97	0.01	1.500			
0.8716	55785.40	3.5440	3.5440	0.1982	25.97	0.01	1.500			
0.8722	55820.25	3.5410	3.5411	0.1797	25.97	0.01	1.500			
0.8727	55853.07	3.5380	3.5380	0.1631	25.97	0.01	1.500			
0.8732	55882.51	3.5350	3.5350	0.1490	25.97	0.01	1.500			
0.8736	55909.03	3.5320	3.5319	0.1338	25.97	0.01	1.500			
0.8740	55933.46	3.5290	3.5291	0.1192	25.97	0.01	1.500			
0.8743	55955.16	3.5260	3.5259	0.1057	25.97	0.01	1.500			
0.8746	55974.11	3.5230	3.5231	0.0916	25.97	0.01	1.500			
0.8749	55990.82	3.5200	3.5201	0.0776	25.97	0.01	1.500			
0.8751	56004.63	3.5170	3.5172	0.0626	25.97	0.01	1.500			
0.8752	56015.17	3.5140	3.5144	0.0471	25.97	0.01	1.500			
0.8754	56022.72	3.5110	3.5120	0.0316	25.97	0.01	1.500			
