Ah_balance (normalized)	Ah_balance (mAh)	Voltage - fit (V)	Voltage -  interpolate (V)	dQ/dV (1/V)	Temperature (°C)	Temperature - diff (°C)	Current (C)	R_DC 0ms (mOhm)	R_DC 50ms (mOhm)	R_DC 50 ms PEC (mOhm)
0.2832	18124.17	3.9870	3.9870	0.8433	27.06	1.09	1.500			
0.2857	18286.12	3.9840	3.9840	0.8447	27.05	1.08	1.500			
0.2883	18448.31	3.9810	3.9810	0.8468	27.05	1.08	1.500			
0.2908	18610.96	3.9780	3.9780	0.8507	27.04	1.07	1.500			
0.2934	18775.27	3.9750	3.9750	0.8546	27.04	1.07	1.500			
0.2959	18940.06	3.9720	3.9720	0.8547	27.03	1.06	1.500			
0.2985	19103.95	3.9690	3.9690	0.8592	27.03	1.06	1.500			
0.3011	19269.10	3.9660	3.9661	0.8637	27.02	1.05	1.500			
0.3037	19435.34	3.9630	3.9629	0.8661	27.01	1.04	1.500			
0.3063	19602.01	3.9600	3.9600	0.8687	27.01	1.04	1.500			
0.3089	19768.26	3.9570	3.9570	0.8704	27.00	1.03	1.500			
0.3115	19937.04	3.9540	3.9540	0.8727	27.00	1.03	1.500			
0.3141	20104.88	3.9510	3.9510	0.8804	26.99	1.02	1.500			
0.3168	20272.76	3.9480	3.9480	0.8831	26.99	1.02	1.500			
0.3194	20443.17	3.9450	3.9451	0.8897	26.98	1.01	1.500			
0.3221	20614.65	3.9420	3.9420	0.8957	26.98	1.01	1.500			
0.3248	20787.40	3.9390	3.9391	0.8981	26.97	1.00	1.500			
0.3275	20960.87	3.9360	3.9360	0.8998	26.97	1.00	1.500			
0.3302	21133.57	3.9330	3.9330	0.9047	26.96	0.99	1.500			
0.3329	21307.37	3.9300	3.9300	0.9071	26.96	0.99	1.500			
0.3356	21481.21	3.9270	3.9270	0.9138	26.95	0.98	1.500			
0.3384	21657.42	3.9240	3.9241	0.9195	26.95	0.98	1.500			
0.3412	21834.52	3.9210	3.9210	0.9247	26.94	0.97	1.500			
0.3440	22012.90	3.9180	3.9180	0.9317	26.93	0.96	1.500			
0.3467	22191.99	3.9150	3.9150	0.9403	26.93	0.96	1.500			
0.3496	22372.25	3.9120	3.9119	0.9476	26.92	0.95	1.500			
0.3524	22555.82	3.9090	3.9090	0.9542	26.91	0.94	1.500			
0.3553	22740.36	3.9060	3.9060	0.9576	26.91	0.94	1.500			
0.3582	22925.41	3.9030	3.9030	0.9650	26.90	0.93	1.500			
0.3611	23110.75	3.9000	3.9000	0.9709	26.89	0.92	1.500			
0.3640	23296.39	3.8970	3.8970	0.9752	26.89	0.92	1.500			
0.3669	23483.62	3.8940	3.8939	0.9824	26.88	0.91	1.500			
0.3699	23672.62	3.8910	3.8910	0.9937	26.87	0.90	1.500			
0.3729	23864.65	3.8880	3.8880	1.0067	26.87	0.90	1.500			
0.3759	24060.22	3.8850	3.8849	1.0183	26.86	0.89	1.500			
0.3790	24255.85	3.8820	3.8821	1.0288	26.85	0.88	1.500			
0.3821	24452.79	3.8790	3.8790	1.0409	26.84	0.87	1.500			
0.3853	24656.47	3.8760	3.8760	1.0447	26.84	0.87	1.500			
0.3884	24858.10	3.8730	3.8730	1.0528	26.83	0.86	1.500			
0.3916	25059.29	3.8700	3.8700	1.0635	26.82	0.85	1.500			
0.3947	25263.77	3.8670	3.8672	1.0775	26.81	0.84	1.500			
0.3980	25472.38	3.8640	3.8640	1.0892	26.81	0.84	1.500			
0.4013	25681.87	3.8610	3.8610	1.1010	26.80	0.83	1.500			
0.4046	25894.70	3.8580	3.8581	1.1205	26.79	0.82	1.500			
0.4080	26113.67	3.8550	3.8550	1.1421	26.78	0.81	1.500			
0.4114	26330.74	3.8520	3.8520	1.1567	26.77	0.80	1.500			
0.4149	26554.13	3.8490	3.8490	1.1706	26.76	0.79	1.500			
0.4185	26781.61	3.8460	3.8461	1.1884	26.76	0.79	1.500			
0.4221	27013.12	3.8430	3.8429	1.2093	26.75	0.78	1.500			
0.4257	27246.82	3.8400	3.8401	1.2243	26.74	0.77	1.500			
0.4294	27481.39	3.8370	3.8369	1.2415	26.73	0.76	1.500			
0.4332	27721.85	3.8340	3.8340	1.2649	26.72	0.75	1.500			
0.4370	27966.55	3.8310	3.8310	1.2854	26.71	0.74	1.500			
0.4409	28215.65	3.8280	3.8279	1.3135	26.70	0.73	1.500			
0.4448	28470.16	3.8250	3.8251	1.3346	26.69	0.72	1.500			
0.4489	28726.77	3.8220	3.8220	1.3613	26.68	0.71	1.500			
0.4530	28990.26	3.8190	3.8190	1.3920	26.67	0.70	1.500			
0.4572	29259.97	3.8160	3.8160	1.4151	26.66	0.69	1.500			
0.4615	29534.81	3.8130	3.8130	1.4451	26.65	0.68	1.500			
0.4659	29816.44	3.8100	3.8100	1.4761	26.63	0.66	1.500			
0.4703	30101.14	3.8070	3.8070	1.5060	26.62	0.65	1.500			
0.4749	30393.82	3.8040	3.8040	1.5409	26.61	0.64	1.500			
0.4796	30693.12	3.8010	3.8010	1.5624	26.60	0.63	1.500			
0.4843	30995.29	3.7980	3.7980	1.6031	26.59	0.62	1.500			
0.4892	31308.12	3.7950	3.7950	1.6362	26.58	0.61	1.500			
0.4942	31625.68	3.7920	3.7919	1.6710	26.56	0.59	1.500			
0.4992	31950.13	3.7890	3.7891	1.7049	26.55	0.58	1.500			
0.5044	32282.59	3.7860	3.7861	1.7174	26.54	0.57	1.500			
0.5096	32616.61	3.7830	3.7830	1.7536	26.52	0.55	1.500			
0.5149	32951.15	3.7800	3.7801	1.7716	26.51	0.54	1.500			
0.5202	33292.87	3.7770	3.7768	1.8030	26.49	0.52	1.500			
0.5257	33644.55	3.7740	3.7740	1.8211	26.48	0.51	1.500	0.347	0.466	
0.5312	33995.49	3.7710	3.7711	1.8192	26.47	0.50	1.500			
0.5368	34353.17	3.7680	3.7680	1.8295	26.46	0.49	1.500			
0.5422	34699.15	3.7650	3.7650	1.7982	26.45	0.48	1.500			
0.5476	35043.72	3.7620	3.7621	1.7911	26.44	0.47	1.500			
0.5529	35385.10	3.7590	3.7591	1.7936	26.42	0.45	1.500			
0.5583	35730.15	3.7560	3.7560	1.7913	26.41	0.44	1.500			
0.5636	36072.51	3.7530	3.7530	1.7999	26.39	0.42	1.500			
0.5690	36415.52	3.7500	3.7500	1.8062	26.38	0.41	1.500			
0.5744	36764.50	3.7470	3.7470	1.8222	26.36	0.39	1.500			
0.5799	37115.58	3.7440	3.7440	1.8255	26.35	0.38	1.500			
0.5854	37464.78	3.7410	3.7410	1.8513	26.34	0.37	1.500			
0.5909	37818.63	3.7380	3.7380	1.8895	26.32	0.35	1.500			
0.5966	38185.03	3.7350	3.7349	1.9343	26.31	0.34	1.500			
0.6025	38562.06	3.7320	3.7321	2.0034	26.30	0.33	1.500			
0.6087	38955.39	3.7290	3.7290	2.0405	26.29	0.32	1.500			
0.6148	39350.02	3.7260	3.7260	2.0902	26.29	0.32	1.500			
0.6211	39752.98	3.7230	3.7228	2.1541	26.28	0.31	1.500			
0.6278	40176.12	3.7200	3.7200	2.2106	26.26	0.29	1.500			
0.6345	40604.83	3.7170	3.7170	2.2651	26.25	0.28	1.500			
0.6413	41043.84	3.7140	3.7140	2.3289	26.23	0.26	1.500			
0.6484	41497.49	3.7110	3.7110	2.4056	26.22	0.25	1.500			
0.6558	41972.11	3.7080	3.7080	2.4627	26.20	0.23	1.500			
0.6633	42450.43	3.7050	3.7050	2.4651	26.19	0.22	1.500			
0.6707	42924.82	3.7020	3.7020	2.4140	26.18	0.21	1.500			
0.6779	43388.76	3.6990	3.6990	2.3293	26.17	0.20	1.500			
0.6848	43826.43	3.6960	3.6960	2.2043	26.16	0.19	1.500			
0.6913	44240.51	3.6930	3.6931	2.0499	26.16	0.19	1.500			
0.6971	44615.33	3.6900	3.6900	1.8917	26.15	0.18	1.500			
0.7024	44956.63	3.6870	3.6870	1.7409	26.14	0.17	1.500			
0.7075	45279.90	3.6840	3.6839	1.6259	26.14	0.17	1.500			
0.7121	45573.69	3.6810	3.6810	1.5373	26.13	0.16	1.500			
0.7165	45856.81	3.6780	3.6781	1.4568	26.13	0.16	1.500			
0.7207	46126.84	3.6750	3.6749	1.3951	26.12	0.15	1.500			
0.7248	46388.13	3.6720	3.6720	1.3424	26.11	0.14	1.500			
0.7287	46638.04	3.6690	3.6690	1.3034	26.11	0.14	1.500			
0.7325	46882.84	3.6660	3.6660	1.2754	26.10	0.13	1.500			
0.7363	47120.35	3.6630	3.6630	1.2582	26.10	0.13	1.500			
0.7400	47359.66	3.6600	3.6600	1.2508	26.09	0.12	1.500			
0.7437	47597.77	3.6570	3.6569	1.2532	26.08	0.11	1.500			
0.7475	47838.24	3.6540	3.6540	1.2637	26.08	0.11	1.500			
0.7513	48082.71	3.6510	3.6510	1.2768	26.07	0.10	1.500			
0.7551	48328.74	3.6480	3.6480	1.2852	26.05	0.08	1.500			
0.7590	48576.30	3.6450	3.6450	1.2931	26.04	0.07	1.500			
0.7629	48826.25	3.6420	3.6421	1.2949	26.03	0.06	1.500			
0.7669	49079.48	3.6390	3.6390	1.2913	26.02	0.05	1.500			
0.7707	49326.66	3.6360	3.6359	1.2794	26.01	0.04	1.500			
0.7745	49570.27	3.6330	3.6331	1.2738	26.00	0.03	1.500			
0.7783	49813.66	3.6300	3.6300	1.2678	26.00	0.03	1.500			
0.7821	50055.93	3.6270	3.6269	1.2615	25.99	0.02	1.500			
0.7859	50297.33	3.6240	3.6240	1.2595	25.99	0.02	1.500			
0.7897	50539.28	3.6210	3.6210	1.2598	25.98	0.01	1.500			
0.7935	50782.16	3.6180	3.6180	1.2533	25.97	0.00	1.500			
0.7972	51023.35	3.6150	3.6151	1.2442	25.97	-0.00	1.500			
0.8010	51261.05	3.6120	3.6119	1.2314	25.97	-0.00	1.500			
0.8047	51497.81	3.6090	3.6091	1.2181	25.96	-0.01	1.500			
0.8083	51730.56	3.6060	3.6060	1.2014	25.96	-0.01	1.500			
0.8119	51960.50	3.6030	3.6030	1.1860	25.96	-0.01	1.500			
0.8154	52186.15	3.6000	3.6000	1.1666	25.95	-0.02	1.500			
0.8189	52409.00	3.5970	3.5969	1.1476	25.95	-0.02	1.500			
0.8223	52626.64	3.5940	3.5940	1.1277	25.95	-0.02	1.500			
0.8256	52841.29	3.5910	3.5910	1.1072	25.95	-0.02	1.500			
0.8290	53054.18	3.5880	3.5879	1.0765	25.96	-0.01	1.500			
0.8322	53261.46	3.5850	3.5850	1.0398	25.96	-0.01	1.500			
0.8354	53463.08	3.5820	3.5820	0.9830	25.96	-0.01	1.500			
0.8383	53650.82	3.5790	3.5790	0.9036	25.96	-0.01	1.500			
0.8410	53823.21	3.5760	3.5760	0.8136	25.97	-0.00	1.500			
0.8433	53969.66	3.5730	3.5731	0.7031	25.97	-0.00	1.500			
0.8452	54093.83	3.5700	3.5701	0.5942	25.97	-0.00	1.500			
0.8468	54194.20	3.5670	3.5669	0.4957	25.97	0.00	1.500			
0.8480	54272.31	3.5640	3.5639	0.4102	25.97	0.00	1.500			
0.8491	54339.96	3.5610	3.5610	0.3481	25.97	0.00	1.500			
0.8500	54397.72	3.5580	3.5580	0.3005	25.97	0.00	1.500			
0.8507	54446.41	3.5550	3.5549	0.2543	25.97	0.00	1.500			
0.8514	54490.54	3.5520	3.5519	0.2277	25.97	0.00	1.500			
0.8520	54529.37	3.5490	3.5490	0.2029	25.97	0.00	1.500			
0.8526	54565.34	3.5460	3.5460	0.1827	25.98	0.01	1.500			
0.8531	54598.79	3.5430	3.5430	0.1657	25.98	0.01	1.500			
0.8536	54628.34	3.5400	3.5401	0.1499	25.98	0.01	1.500			
0.8540	54655.46	3.5370	3.5370	0.1344	25.98	0.01	1.500			
0.8544	54679.57	3.5340	3.5340	0.1193	25.98	0.01	1.500			
0.8547	54701.12	3.5310	3.5310	0.1052	25.98	0.01	1.500			
0.8550	54719.77	3.5280	3.5280	0.0908	25.98	0.01	1.500			
0.8553	54736.08	3.5250	3.5251	0.0770	25.98	0.01	1.500			
0.8555	54749.49	3.5220	3.5223	0.0627	25.98	0.01	1.500			
0.8556	54760.34	3.5190	3.5194	0.0476	25.98	0.01	1.500			
0.8558	54768.05	3.5160	3.5168	0.0326	25.98	0.01	1.500			
