Ah_balance (normalized)	Ah_balance (mAh)	Voltage - fit (V)	Voltage -  interpolate (V)	dQ/dV (1/V)	Temperature (°C)	Temperature - diff (°C)	Current (C)	R_DC 0ms (mOhm)	R_DC 50ms (mOhm)	R_DC 50 ms PEC (mOhm)
0.2854	18266.95	3.9840	3.9840	0.8226	27.16	1.19	1.500			
0.2879	18426.82	3.9810	3.9810	0.8387	27.16	1.19	1.500			
0.2904	18588.01	3.9780	3.9780	0.8464	27.15	1.18	1.500			
0.2930	18751.64	3.9750	3.9750	0.8568	27.15	1.18	1.500			
0.2956	18918.04	3.9720	3.9720	0.8617	27.14	1.17	1.500			
0.2982	19084.23	3.9690	3.9689	0.8690	27.14	1.17	1.500			
0.3008	19252.03	3.9660	3.9661	0.8740	27.14	1.17	1.500			
0.3034	19419.56	3.9630	3.9630	0.8770	27.13	1.16	1.500			
0.3061	19589.43	3.9600	3.9600	0.8812	27.13	1.16	1.500			
0.3087	19758.66	3.9570	3.9569	0.8831	27.12	1.15	1.500			
0.3114	19928.37	3.9540	3.9541	0.8858	27.12	1.15	1.500			
0.3141	20099.57	3.9510	3.9510	0.8880	27.11	1.14	1.500			
0.3167	20268.95	3.9480	3.9480	0.8909	27.11	1.14	1.500			
0.3194	20440.66	3.9450	3.9450	0.8958	27.11	1.14	1.500			
0.3221	20612.27	3.9420	3.9419	0.8957	27.10	1.13	1.500			
0.3248	20784.37	3.9390	3.9390	0.9009	27.10	1.13	1.500			
0.3275	20958.21	3.9360	3.9361	0.9036	27.10	1.13	1.500			
0.3302	21131.37	3.9330	3.9330	0.9101	27.09	1.12	1.500			
0.3329	21307.05	3.9300	3.9300	0.9125	27.09	1.12	1.500			
0.3356	21481.38	3.9270	3.9270	0.9180	27.09	1.12	1.500			
0.3384	21657.63	3.9240	3.9240	0.9270	27.08	1.11	1.500			
0.3412	21837.53	3.9210	3.9208	0.9338	27.08	1.11	1.500			
0.3440	22017.15	3.9180	3.9180	0.9394	27.08	1.11	1.500			
0.3469	22198.87	3.9150	3.9151	0.9474	27.07	1.10	1.500			
0.3497	22381.67	3.9120	3.9120	0.9521	27.07	1.10	1.500			
0.3526	22566.55	3.9090	3.9090	0.9579	27.06	1.09	1.500			
0.3555	22749.69	3.9060	3.9060	0.9558	27.06	1.09	1.500			
0.3583	22932.48	3.9030	3.9031	0.9626	27.05	1.08	1.500			
0.3612	23117.26	3.9000	3.9000	0.9745	27.05	1.08	1.500			
0.3641	23304.55	3.8970	3.8970	0.9808	27.04	1.07	1.500			
0.3671	23493.21	3.8940	3.8941	0.9905	27.04	1.07	1.500			
0.3701	23685.25	3.8910	3.8911	1.0006	27.03	1.06	1.500			
0.3731	23879.66	3.8880	3.8880	1.0129	27.02	1.05	1.500			
0.3762	24075.46	3.8850	3.8850	1.0205	27.02	1.05	1.500			
0.3792	24270.56	3.8820	3.8820	1.0243	27.01	1.04	1.500			
0.3823	24467.68	3.8790	3.8790	1.0353	27.00	1.03	1.500			
0.3854	24668.05	3.8760	3.8760	1.0487	26.99	1.02	1.500			
0.3886	24868.82	3.8730	3.8730	1.0633	26.99	1.02	1.500			
0.3918	25075.49	3.8700	3.8699	1.0758	26.98	1.01	1.500			
0.3950	25282.57	3.8670	3.8670	1.0884	26.97	1.00	1.500			
0.3983	25492.67	3.8640	3.8640	1.1051	26.97	1.00	1.500			
0.4017	25707.27	3.8610	3.8610	1.1164	26.96	0.99	1.500			
0.4051	25923.96	3.8580	3.8579	1.1248	26.95	0.98	1.500			
0.4084	26140.03	3.8550	3.8551	1.1370	26.95	0.98	1.500			
0.4118	26358.03	3.8520	3.8521	1.1546	26.94	0.97	1.500			
0.4153	26580.92	3.8490	3.8488	1.1728	26.93	0.96	1.500			
0.4188	26806.06	3.8460	3.8460	1.1920	26.92	0.95	1.500			
0.4224	27035.41	3.8430	3.8431	1.2113	26.92	0.95	1.500			
0.4261	27270.73	3.8400	3.8400	1.2401	26.91	0.94	1.500			
0.4299	27514.27	3.8370	3.8370	1.2565	26.90	0.93	1.500			
0.4337	27754.77	3.8340	3.8340	1.2777	26.89	0.92	1.500			
0.4375	28001.21	3.8310	3.8311	1.2952	26.88	0.91	1.500			
0.4414	28250.96	3.8280	3.8279	1.3256	26.87	0.90	1.500			
0.4454	28505.68	3.8250	3.8250	1.3504	26.86	0.89	1.500			
0.4495	28768.53	3.8220	3.8221	1.3799	26.85	0.88	1.500			
0.4537	29036.55	3.8190	3.8189	1.4093	26.84	0.87	1.500			
0.4580	29311.39	3.8160	3.8161	1.4414	26.82	0.85	1.500			
0.4623	29590.34	3.8130	3.8130	1.4722	26.81	0.84	1.500			
0.4668	29875.42	3.8100	3.8100	1.5096	26.80	0.83	1.500			
0.4714	30167.50	3.8070	3.8070	1.5400	26.78	0.81	1.500			
0.4760	30466.44	3.8040	3.8040	1.5719	26.77	0.80	1.500			
0.4808	30771.20	3.8010	3.8010	1.6114	26.75	0.78	1.500			
0.4857	31082.24	3.7980	3.7981	1.6552	26.74	0.77	1.500			
0.4907	31403.61	3.7950	3.7948	1.6934	26.72	0.75	1.500			
0.4958	31733.05	3.7920	3.7920	1.7314	26.71	0.74	1.500			
0.5011	32071.22	3.7890	3.7891	1.7619	26.70	0.73	1.500			
0.5065	32413.70	3.7860	3.7860	1.8019	26.68	0.71	1.500			
0.5119	32762.88	3.7830	3.7830	1.8292	26.67	0.70	1.500			
0.5174	33114.27	3.7800	3.7800	1.8522	26.66	0.69	1.500			
0.5230	33474.13	3.7770	3.7771	1.8960	26.64	0.67	1.500			
0.5288	33841.23	3.7740	3.7740	1.9294	26.62	0.65	1.500			
0.5346	34212.58	3.7710	3.7708	1.9584	26.60	0.63	1.500	0.354	0.454	
0.5406	34595.65	3.7680	3.7678	1.9556	26.58	0.61	1.500			
0.5465	34974.62	3.7650	3.7651	1.9570	26.57	0.60	1.500			
0.5523	35349.89	3.7620	3.7619	1.9144	26.55	0.58	1.500			
0.5580	35709.13	3.7590	3.7590	1.8915	26.54	0.57	1.500			
0.5637	36075.92	3.7560	3.7560	1.9084	26.53	0.56	1.500			
0.5695	36444.89	3.7530	3.7531	1.9124	26.51	0.54	1.500			
0.5752	36813.74	3.7500	3.7500	1.8971	26.50	0.53	1.500			
0.5809	37176.04	3.7470	3.7470	1.9029	26.48	0.51	1.500			
0.5865	37534.86	3.7440	3.7440	1.9097	26.46	0.49	1.500			
0.5923	37906.06	3.7410	3.7410	1.9385	26.45	0.48	1.500			
0.5981	38280.40	3.7380	3.7381	1.9611	26.43	0.46	1.500			
0.6041	38662.02	3.7350	3.7351	1.9939	26.41	0.44	1.500			
0.6101	39045.53	3.7320	3.7320	2.0198	26.40	0.43	1.500			
0.6162	39434.59	3.7290	3.7290	2.0555	26.38	0.41	1.500			
0.6224	39835.88	3.7260	3.7260	2.1103	26.37	0.40	1.500			
0.6288	40243.87	3.7230	3.7230	2.1608	26.36	0.39	1.500			
0.6353	40659.85	3.7200	3.7200	2.2159	26.34	0.37	1.500			
0.6421	41091.55	3.7170	3.7170	2.2886	26.33	0.36	1.500			
0.6490	41538.64	3.7140	3.7140	2.3568	26.31	0.34	1.500			
0.6563	42000.34	3.7110	3.7110	2.4347	26.30	0.33	1.500			
0.6636	42473.02	3.7080	3.7080	2.4989	26.29	0.32	1.500			
0.6712	42959.06	3.7050	3.7050	2.5504	26.27	0.30	1.500			
0.6790	43456.30	3.7020	3.7020	2.5685	26.25	0.28	1.500			
0.6867	43948.71	3.6990	3.6991	2.5307	26.24	0.27	1.500			
0.6943	44437.95	3.6960	3.6960	2.4472	26.23	0.26	1.500			
0.7016	44902.85	3.6930	3.6930	2.3032	26.22	0.25	1.500			
0.7083	45333.22	3.6900	3.6900	2.1472	26.21	0.24	1.500			
0.7144	45719.83	3.6870	3.6870	1.9570	26.20	0.23	1.500			
0.7199	46073.32	3.6840	3.6840	1.7949	26.19	0.22	1.500			
0.7251	46404.37	3.6810	3.6810	1.6763	26.18	0.21	1.500			
0.7298	46706.74	3.6780	3.6781	1.5728	26.17	0.20	1.500			
0.7343	46998.20	3.6750	3.6750	1.4926	26.16	0.19	1.500			
0.7387	47273.65	3.6720	3.6720	1.4215	26.15	0.18	1.500			
0.7427	47535.41	3.6690	3.6690	1.3636	26.14	0.17	1.500			
0.7467	47788.99	3.6660	3.6660	1.3270	26.13	0.16	1.500			
0.7506	48039.11	3.6630	3.6630	1.2972	26.12	0.15	1.500			
0.7544	48282.97	3.6600	3.6599	1.2784	26.11	0.14	1.500			
0.7582	48523.03	3.6570	3.6570	1.2659	26.11	0.14	1.500			
0.7619	48764.41	3.6540	3.6540	1.2657	26.10	0.13	1.500			
0.7657	49006.92	3.6510	3.6510	1.2749	26.09	0.12	1.500			
0.7695	49250.93	3.6480	3.6480	1.2782	26.08	0.11	1.500			
0.7734	49498.27	3.6450	3.6449	1.2903	26.08	0.11	1.500			
0.7773	49749.04	3.6420	3.6420	1.2993	26.07	0.10	1.500			
0.7813	50000.08	3.6390	3.6390	1.3022	26.06	0.09	1.500			
0.7852	50250.64	3.6360	3.6361	1.3023	26.05	0.08	1.500			
0.7891	50501.60	3.6330	3.6330	1.3008	26.04	0.07	1.500			
0.7930	50750.46	3.6300	3.6300	1.2977	26.04	0.07	1.500			
0.7969	51000.20	3.6270	3.6270	1.2905	26.03	0.06	1.500			
0.8007	51245.86	3.6240	3.6240	1.2863	26.02	0.05	1.500			
0.8046	51494.04	3.6210	3.6210	1.2817	26.01	0.04	1.500			
0.8084	51738.90	3.6180	3.6180	1.2753	26.00	0.03	1.500			
0.8122	51983.99	3.6150	3.6150	1.2662	25.99	0.02	1.500			
0.8160	52226.56	3.6120	3.6119	1.2570	25.98	0.01	1.500			
0.8198	52468.01	3.6090	3.6090	1.2466	25.98	0.01	1.500			
0.8236	52707.88	3.6060	3.6060	1.2330	25.97	0.00	1.500			
0.8272	52942.37	3.6030	3.6030	1.2161	25.97	-0.00	1.500			
0.8308	53174.03	3.6000	3.6000	1.1983	25.96	-0.01	1.500			
0.8344	53403.68	3.5970	3.5970	1.1819	25.96	-0.01	1.500			
0.8380	53628.97	3.5940	3.5940	1.1672	25.95	-0.02	1.500			
0.8414	53851.05	3.5910	3.5910	1.1522	25.95	-0.02	1.500			
0.8449	54071.65	3.5880	3.5880	1.1345	25.95	-0.02	1.500			
0.8483	54289.66	3.5850	3.5849	1.1152	25.96	-0.01	1.500			
0.8516	54503.49	3.5820	3.5820	1.0827	25.96	-0.01	1.500			
0.8550	54717.41	3.5790	3.5789	1.0312	25.96	-0.01	1.500			
0.8581	54915.81	3.5760	3.5760	0.9539	25.96	-0.01	1.500			
0.8609	55098.75	3.5730	3.5731	0.8590	25.97	-0.00	1.500			
0.8634	55254.70	3.5700	3.5701	0.7408	25.97	-0.00	1.500			
0.8654	55385.24	3.5670	3.5670	0.6222	25.97	-0.00	1.500			
0.8670	55485.95	3.5640	3.5639	0.5158	25.97	0.00	1.500			
0.8682	55566.96	3.5610	3.5610	0.4207	25.97	0.00	1.500			
0.8693	55636.25	3.5580	3.5579	0.3557	25.97	0.00	1.500			
0.8703	55696.27	3.5550	3.5549	0.3079	25.97	0.00	1.500			
0.8711	55747.55	3.5520	3.5520	0.2612	25.97	0.00	1.500			
0.8718	55792.89	3.5490	3.5489	0.2319	25.97	0.00	1.500			
0.8724	55831.77	3.5460	3.5459	0.2053	25.97	0.00	1.500			
0.8729	55867.80	3.5430	3.5430	0.1852	25.98	0.01	1.500			
0.8735	55900.98	3.5400	3.5400	0.1667	25.98	0.01	1.500			
0.8739	55930.81	3.5370	3.5370	0.1515	25.98	0.01	1.500			
0.8743	55958.34	3.5340	3.5340	0.1367	25.98	0.01	1.500			
0.8747	55982.98	3.5310	3.5309	0.1217	25.98	0.01	1.500			
0.8751	56005.00	3.5280	3.5279	0.1078	25.98	0.01	1.500			
0.8754	56024.38	3.5250	3.5251	0.0939	25.98	0.01	1.500			
0.8756	56041.19	3.5220	3.5221	0.0800	25.98	0.01	1.500			
0.8759	56055.18	3.5190	3.5193	0.0658	25.98	0.01	1.500			
0.8760	56066.83	3.5160	3.5163	0.0499	25.98	0.01	1.500			
0.8762	56074.91	3.5130	3.5137	0.0343	25.98	0.01	1.500			
