Ah_balance (normalized)	Ah_balance (mAh)	Voltage - fit (V)	Voltage -  interpolate (V)	dQ/dV (1/V)	Temperature (°C)	Temperature - diff (°C)	Current (C)	R_DC 0ms (mOhm)	R_DC 50ms (mOhm)	R_DC 50 ms PEC (mOhm)
0.2804	17944.65	3.9720	3.9720	0.8944	26.96	0.98	1.500			
0.2831	18115.44	3.9690	3.9690	0.8870	26.96	0.98	1.500			
0.2857	18285.75	3.9660	3.9660	0.8845	26.96	0.98	1.500			
0.2883	18453.88	3.9630	3.9631	0.8871	26.95	0.97	1.500			
0.2910	18624.34	3.9600	3.9599	0.8888	26.95	0.97	1.500			
0.2937	18795.18	3.9570	3.9570	0.8872	26.94	0.96	1.500			
0.2963	18964.86	3.9540	3.9540	0.8906	26.94	0.96	1.500			
0.2990	19137.03	3.9510	3.9511	0.8971	26.93	0.95	1.500			
0.3017	19308.89	3.9480	3.9479	0.9053	26.93	0.95	1.500			
0.3044	19482.55	3.9450	3.9450	0.9087	26.93	0.95	1.500			
0.3071	19656.56	3.9420	3.9420	0.9146	26.92	0.94	1.500			
0.3099	19834.81	3.9390	3.9391	0.9247	26.92	0.94	1.500			
0.3127	20012.57	3.9360	3.9360	0.9278	26.91	0.93	1.500			
0.3155	20191.94	3.9330	3.9329	0.9318	26.91	0.93	1.500			
0.3183	20372.00	3.9300	3.9300	0.9296	26.90	0.92	1.500			
0.3211	20548.46	3.9270	3.9270	0.9340	26.90	0.92	1.500			
0.3239	20728.09	3.9240	3.9241	0.9420	26.90	0.92	1.500			
0.3267	20908.91	3.9210	3.9208	0.9445	26.89	0.91	1.500			
0.3295	21089.62	3.9180	3.9180	0.9536	26.89	0.91	1.500			
0.3324	21274.41	3.9150	3.9151	0.9605	26.89	0.91	1.500			
0.3353	21460.19	3.9120	3.9120	0.9736	26.88	0.90	1.500			
0.3382	21647.74	3.9090	3.9090	0.9783	26.88	0.90	1.500			
0.3412	21836.37	3.9060	3.9060	0.9813	26.88	0.90	1.500			
0.3442	22025.63	3.9030	3.9029	0.9910	26.88	0.90	1.500			
0.3472	22218.29	3.9000	3.9000	0.9967	26.87	0.89	1.500			
0.3501	22407.81	3.8970	3.8970	1.0009	26.87	0.89	1.500			
0.3531	22600.43	3.8940	3.8940	1.0137	26.87	0.89	1.500			
0.3562	22795.85	3.8910	3.8910	1.0237	26.87	0.89	1.500			
0.3593	22993.44	3.8880	3.8880	1.0340	26.86	0.88	1.500			
0.3624	23193.88	3.8850	3.8849	1.0427	26.86	0.88	1.500			
0.3655	23394.88	3.8820	3.8821	1.0489	26.85	0.87	1.500			
0.3687	23596.67	3.8790	3.8790	1.0675	26.85	0.87	1.500			
0.3719	23800.74	3.8760	3.8760	1.0792	26.85	0.87	1.500			
0.3751	24008.47	3.8730	3.8729	1.0892	26.84	0.86	1.500			
0.3784	24219.81	3.8700	3.8700	1.1081	26.84	0.86	1.500			
0.3818	24436.00	3.8670	3.8671	1.1262	26.83	0.85	1.500			
0.3852	24653.85	3.8640	3.8640	1.1420	26.83	0.85	1.500			
0.3887	24875.31	3.8610	3.8610	1.1564	26.82	0.84	1.500			
0.3921	25097.30	3.8580	3.8580	1.1662	26.82	0.84	1.500			
0.3957	25323.26	3.8550	3.8550	1.1807	26.81	0.83	1.500			
0.3992	25551.63	3.8520	3.8521	1.1959	26.80	0.82	1.500			
0.4028	25780.85	3.8490	3.8490	1.2136	26.80	0.82	1.500			
0.4065	26015.34	3.8460	3.8460	1.2309	26.79	0.81	1.500			
0.4102	26251.83	3.8430	3.8430	1.2500	26.79	0.81	1.500			
0.4140	26494.77	3.8400	3.8400	1.2690	26.78	0.80	1.500			
0.4178	26742.17	3.8370	3.8370	1.2917	26.77	0.79	1.500			
0.4217	26991.08	3.8340	3.8340	1.3140	26.77	0.79	1.500			
0.4257	27244.22	3.8310	3.8310	1.3367	26.76	0.78	1.500			
0.4297	27500.97	3.8280	3.8280	1.3691	26.75	0.77	1.500			
0.4338	27765.91	3.8250	3.8250	1.3996	26.75	0.77	1.500			
0.4381	28036.86	3.8220	3.8220	1.4331	26.74	0.76	1.500			
0.4425	28316.83	3.8190	3.8189	1.4696	26.73	0.75	1.500			
0.4469	28603.13	3.8160	3.8161	1.5003	26.72	0.74	1.500			
0.4515	28894.72	3.8130	3.8129	1.5277	26.71	0.73	1.500			
0.4561	29189.30	3.8100	3.8101	1.5639	26.70	0.72	1.500			
0.4608	29493.55	3.8070	3.8069	1.5882	26.69	0.71	1.500			
0.4656	29799.54	3.8040	3.8040	1.6365	26.68	0.70	1.500			
0.4705	30114.65	3.8010	3.8011	1.6753	26.67	0.69	1.500			
0.4756	30441.20	3.7980	3.7979	1.7350	26.66	0.68	1.500			
0.4809	30778.96	3.7950	3.7951	1.7863	26.65	0.67	1.500			
0.4863	31125.51	3.7920	3.7920	1.8400	26.64	0.66	1.500			
0.4920	31485.87	3.7890	3.7890	1.8956	26.62	0.64	1.500			
0.4977	31854.20	3.7860	3.7860	1.9390	26.61	0.63	1.500			
0.5036	32233.04	3.7830	3.7830	2.0025	26.60	0.62	1.500			
0.5098	32628.01	3.7800	3.7799	2.0330	26.58	0.60	1.500			
0.5159	33018.10	3.7770	3.7770	2.0661	26.57	0.59	1.500			
0.5222	33419.50	3.7740	3.7741	2.1224	26.55	0.57	1.500			
0.5286	33830.27	3.7710	3.7709	2.1667	26.54	0.56	1.500			
0.5352	34255.59	3.7680	3.7681	2.1783	26.52	0.54	1.500			
0.5418	34674.88	3.7650	3.7650	2.2526	26.50	0.52	1.500			
0.5486	35108.25	3.7620	3.7622	2.2552	26.49	0.51	1.500			
0.5554	35544.90	3.7590	3.7592	2.2720	26.47	0.49	1.500	0.361	0.451	
0.5623	35987.53	3.7560	3.7561	2.2612	26.45	0.47	1.500			
0.5693	36433.21	3.7530	3.7529	2.2544	26.42	0.44	1.500			
0.5758	36849.29	3.7500	3.7500	2.1888	26.40	0.42	1.500			
0.5823	37266.49	3.7470	3.7470	2.1649	26.39	0.41	1.500			
0.5888	37683.20	3.7440	3.7440	2.1387	26.38	0.40	1.500			
0.5952	38090.80	3.7410	3.7410	2.1116	26.36	0.38	1.500			
0.6014	38488.56	3.7380	3.7380	2.1154	26.35	0.37	1.500			
0.6077	38895.39	3.7350	3.7350	2.1405	26.34	0.36	1.500			
0.6142	39308.35	3.7320	3.7321	2.1433	26.32	0.34	1.500			
0.6207	39722.06	3.7290	3.7291	2.1619	26.31	0.33	1.500			
0.6271	40136.42	3.7260	3.7259	2.1818	26.29	0.31	1.500			
0.6336	40553.26	3.7230	3.7230	2.2231	26.28	0.30	1.500			
0.6404	40983.73	3.7200	3.7200	2.2937	26.26	0.28	1.500			
0.6473	41428.25	3.7170	3.7170	2.3805	26.25	0.27	1.500			
0.6546	41897.51	3.7140	3.7140	2.4391	26.23	0.25	1.500			
0.6620	42370.08	3.7110	3.7110	2.5235	26.22	0.24	1.500			
0.6697	42858.14	3.7080	3.7080	2.6173	26.20	0.22	1.500			
0.6777	43369.86	3.7050	3.7049	2.7148	26.18	0.20	1.500			
0.6860	43903.53	3.7020	3.7020	2.7338	26.17	0.19	1.500			
0.6944	44444.69	3.6990	3.6991	2.7879	26.15	0.17	1.500			
0.7029	44987.13	3.6960	3.6958	2.8121	26.14	0.16	1.500			
0.7114	45530.83	3.6930	3.6931	2.7343	26.13	0.15	1.500			
0.7196	46055.97	3.6900	3.6901	2.6201	26.13	0.15	1.500			
0.7273	46548.94	3.6870	3.6868	2.3871	26.12	0.14	1.500			
0.7342	46988.53	3.6840	3.6841	2.1813	26.11	0.13	1.500			
0.7403	47378.74	3.6810	3.6811	1.9742	26.10	0.12	1.500			
0.7458	47731.52	3.6780	3.6780	1.7828	26.09	0.11	1.500			
0.7509	48055.80	3.6750	3.6749	1.6753	26.08	0.10	1.500			
0.7556	48357.34	3.6720	3.6720	1.5618	26.08	0.10	1.500			
0.7601	48648.13	3.6690	3.6689	1.4821	26.07	0.09	1.500			
0.7644	48922.63	3.6660	3.6660	1.4080	26.07	0.09	1.500			
0.7685	49184.39	3.6630	3.6631	1.3466	26.06	0.08	1.500			
0.7724	49432.60	3.6600	3.6600	1.3007	26.06	0.08	1.500			
0.7761	49673.56	3.6570	3.6569	1.2648	26.05	0.07	1.500			
0.7798	49907.12	3.6540	3.6541	1.2417	26.05	0.07	1.500			
0.7835	50143.86	3.6510	3.6511	1.2455	26.04	0.06	1.500			
0.7872	50382.44	3.6480	3.6480	1.2497	26.03	0.05	1.500			
0.7910	50623.29	3.6450	3.6449	1.2633	26.03	0.05	1.500			
0.7948	50864.11	3.6420	3.6420	1.2763	26.02	0.04	1.500			
0.7986	51111.98	3.6390	3.6390	1.2903	26.02	0.04	1.500			
0.8025	51362.60	3.6360	3.6359	1.3043	26.01	0.03	1.500			
0.8065	51616.38	3.6330	3.6329	1.3087	26.00	0.02	1.500			
0.8104	51867.84	3.6300	3.6301	1.3108	26.00	0.02	1.500			
0.8144	52121.13	3.6270	3.6270	1.3090	26.00	0.02	1.500			
0.8183	52370.29	3.6240	3.6240	1.3076	25.99	0.01	1.500			
0.8222	52619.28	3.6210	3.6210	1.3066	25.99	0.01	1.500			
0.8261	52871.59	3.6180	3.6179	1.3104	25.98	0.00	1.500			
0.8301	53123.27	3.6150	3.6150	1.3143	25.98	-0.00	1.500			
0.8340	53377.53	3.6120	3.6120	1.3171	25.97	-0.01	1.500			
0.8380	53633.16	3.6090	3.6090	1.3119	25.96	-0.02	1.500			
0.8419	53884.29	3.6060	3.6060	1.3059	25.96	-0.02	1.500			
0.8459	54135.76	3.6030	3.6030	1.2922	25.95	-0.03	1.500			
0.8497	54383.25	3.6000	3.6001	1.2778	25.94	-0.04	1.500			
0.8536	54627.41	3.5970	3.5970	1.2637	25.94	-0.04	1.500			
0.8573	54867.68	3.5940	3.5940	1.2448	25.94	-0.04	1.500			
0.8610	55104.77	3.5910	3.5910	1.2339	25.94	-0.04	1.500			
0.8647	55341.19	3.5880	3.5880	1.2198	25.94	-0.04	1.500			
0.8683	55570.23	3.5850	3.5850	1.2099	25.94	-0.04	1.500			
0.8719	55801.45	3.5820	3.5821	1.2140	25.94	-0.04	1.500			
0.8755	56032.61	3.5790	3.5790	1.2159	25.94	-0.04	1.500			
0.8792	56267.63	3.5760	3.5759	1.2138	25.94	-0.04	1.500			
0.8830	56511.44	3.5730	3.5729	1.1776	25.95	-0.03	1.500			
0.8866	56742.54	3.5700	3.5700	1.1107	25.96	-0.02	1.500			
0.8901	56968.61	3.5670	3.5671	1.0095	25.96	-0.02	1.500			
0.8930	57153.98	3.5640	3.5641	0.8683	25.97	-0.01	1.500			
0.8954	57303.55	3.5610	3.5611	0.7217	25.97	-0.01	1.500			
0.8972	57422.05	3.5580	3.5579	0.5789	25.97	-0.01	1.500			
0.8986	57508.82	3.5550	3.5549	0.4554	25.97	-0.01	1.500			
0.8997	57581.83	3.5520	3.5519	0.3746	25.98	-0.00	1.500			
0.9006	57639.64	3.5490	3.5490	0.3091	25.98	-0.00	1.500			
0.9014	57691.11	3.5460	3.5460	0.2658	25.98	-0.00	1.500			
0.9021	57735.02	3.5430	3.5429	0.2255	25.98	0.00	1.500			
0.9027	57774.10	3.5400	3.5400	0.2009	25.98	0.00	1.500			
0.9033	57808.10	3.5370	3.5371	0.1771	25.98	0.00	1.500			
0.9038	57840.18	3.5340	3.5339	0.1588	25.98	0.00	1.500			
0.9042	57868.51	3.5310	3.5311	0.1429	25.98	0.00	1.500			
0.9046	57894.00	3.5280	3.5279	0.1260	25.98	0.00	1.500			
0.9049	57916.27	3.5250	3.5251	0.1099	25.98	0.00	1.500			
0.9052	57935.91	3.5220	3.5221	0.0951	25.99	0.01	1.500			
0.9055	57952.76	3.5190	3.5192	0.0804	25.99	0.01	1.500			
0.9057	57966.91	3.5160	3.5163	0.0653	25.99	0.01	1.500			
0.9059	57977.99	3.5130	3.5136	0.0502	25.99	0.01	1.500			
