Ah_balance (normalized)	Ah_balance (mAh)	Voltage - fit (V)	Voltage -  interpolate (V)	dQ/dV (1/V)	Temperature (°C)	Temperature - diff (°C)	Current (C)	R_DC 0ms (mOhm)	R_DC 50ms (mOhm)	R_DC 50 ms PEC (mOhm)
0.2684	17177.32	3.9910	3.9910	0.8343	27.33	1.38	1.500			
0.2709	17338.03	3.9880	3.9880	0.8394	27.32	1.37	1.500			
0.2734	17499.17	3.9850	3.9851	0.8412	27.32	1.37	1.500			
0.2759	17660.66	3.9820	3.9819	0.8461	27.31	1.36	1.500			
0.2785	17824.42	3.9790	3.9790	0.8481	27.31	1.36	1.500			
0.2810	17986.43	3.9760	3.9760	0.8512	27.30	1.35	1.500			
0.2836	18152.14	3.9730	3.9731	0.8593	27.30	1.35	1.500			
0.2862	18316.34	3.9700	3.9700	0.8578	27.29	1.34	1.500			
0.2888	18480.49	3.9670	3.9670	0.8629	27.29	1.34	1.500			
0.2913	18646.08	3.9640	3.9640	0.8658	27.28	1.33	1.500			
0.2940	18813.20	3.9610	3.9610	0.8672	27.28	1.33	1.500			
0.2966	18981.52	3.9580	3.9580	0.8745	27.27	1.32	1.500			
0.2992	19148.64	3.9550	3.9551	0.8747	27.27	1.32	1.500			
0.3018	19316.96	3.9520	3.9520	0.8815	27.26	1.31	1.500			
0.3045	19486.54	3.9490	3.9490	0.8878	27.26	1.31	1.500			
0.3071	19656.02	3.9460	3.9460	0.8900	27.25	1.30	1.500			
0.3098	19828.81	3.9430	3.9430	0.8966	27.24	1.29	1.500			
0.3126	20003.70	3.9400	3.9400	0.9008	27.23	1.28	1.500			
0.3152	20175.79	3.9370	3.9370	0.9001	27.23	1.28	1.500			
0.3180	20349.26	3.9340	3.9340	0.9047	27.22	1.27	1.500			
0.3207	20522.14	3.9310	3.9311	0.9074	27.21	1.26	1.500			
0.3234	20695.78	3.9280	3.9279	0.9105	27.20	1.25	1.500			
0.3261	20870.75	3.9250	3.9251	0.9194	27.20	1.25	1.500			
0.3289	21048.47	3.9220	3.9220	0.9247	27.19	1.24	1.500			
0.3317	21226.57	3.9190	3.9190	0.9305	27.18	1.23	1.500			
0.3345	21406.27	3.9160	3.9160	0.9353	27.18	1.23	1.500			
0.3373	21585.85	3.9130	3.9130	0.9418	27.17	1.22	1.500			
0.3401	21766.88	3.9100	3.9100	0.9507	27.17	1.22	1.500			
0.3430	21951.40	3.9070	3.9070	0.9559	27.16	1.21	1.500			
0.3459	22134.76	3.9040	3.9040	0.9650	27.15	1.20	1.500			
0.3488	22322.49	3.9010	3.9010	0.9719	27.15	1.20	1.500			
0.3517	22509.39	3.8980	3.8980	0.9768	27.14	1.19	1.500			
0.3546	22695.94	3.8950	3.8951	0.9883	27.14	1.19	1.500			
0.3576	22884.68	3.8920	3.8920	0.9974	27.13	1.18	1.500			
0.3606	23077.03	3.8890	3.8890	1.0118	27.12	1.17	1.500			
0.3637	23275.15	3.8860	3.8859	1.0224	27.11	1.16	1.500			
0.3668	23473.79	3.8830	3.8831	1.0280	27.10	1.15	1.500			
0.3699	23672.17	3.8800	3.8801	1.0400	27.09	1.14	1.500			
0.3730	23871.69	3.8770	3.8770	1.0482	27.08	1.13	1.500			
0.3761	24072.65	3.8740	3.8740	1.0558	27.08	1.13	1.500			
0.3793	24273.76	3.8710	3.8710	1.0659	27.07	1.12	1.500			
0.3825	24480.37	3.8680	3.8680	1.0769	27.06	1.11	1.500			
0.3858	24690.42	3.8650	3.8650	1.0951	27.05	1.10	1.500			
0.3891	24900.75	3.8620	3.8620	1.1071	27.04	1.09	1.500			
0.3924	25113.56	3.8590	3.8591	1.1150	27.03	1.08	1.500			
0.3958	25329.05	3.8560	3.8560	1.1338	27.02	1.07	1.500			
0.3992	25547.37	3.8530	3.8530	1.1504	27.01	1.06	1.500			
0.4027	25770.23	3.8500	3.8500	1.1643	27.00	1.05	1.500			
0.4062	25996.30	3.8470	3.8470	1.1770	26.99	1.04	1.500			
0.4097	26221.68	3.8440	3.8441	1.1913	26.98	1.03	1.500			
0.4133	26452.15	3.8410	3.8410	1.2088	26.97	1.02	1.500			
0.4169	26684.71	3.8380	3.8380	1.2277	26.96	1.01	1.500			
0.4206	26921.22	3.8350	3.8350	1.2495	26.95	1.00	1.500			
0.4244	27163.36	3.8320	3.8320	1.2716	26.94	0.99	1.500			
0.4283	27411.22	3.8290	3.8288	1.2933	26.93	0.98	1.500			
0.4322	27662.02	3.8260	3.8261	1.3180	26.92	0.97	1.500			
0.4362	27915.80	3.8230	3.8231	1.3384	26.90	0.95	1.500			
0.4402	28174.28	3.8200	3.8200	1.3597	26.89	0.94	1.500			
0.4443	28436.39	3.8170	3.8170	1.3773	26.87	0.92	1.500			
0.4485	28703.12	3.8140	3.8141	1.4060	26.86	0.91	1.500			
0.4527	28975.69	3.8110	3.8109	1.4344	26.84	0.89	1.500			
0.4571	29255.24	3.8080	3.8081	1.4599	26.83	0.88	1.500			
0.4615	29536.62	3.8050	3.8050	1.4864	26.81	0.86	1.500			
0.4660	29825.82	3.8020	3.8020	1.5156	26.80	0.85	1.500			
0.4706	30119.21	3.7990	3.7990	1.5409	26.78	0.83	1.500			
0.4753	30418.97	3.7960	3.7961	1.5716	26.77	0.82	1.500			
0.4801	30725.38	3.7930	3.7930	1.5920	26.75	0.80	1.500			
0.4849	31034.03	3.7900	3.7900	1.6030	26.74	0.79	1.500			
0.4897	31338.86	3.7870	3.7871	1.6338	26.72	0.77	1.500			
0.4946	31655.74	3.7840	3.7840	1.6675	26.71	0.76	1.500			
0.4996	31976.67	3.7810	3.7807	1.6940	26.69	0.74	1.500	0.342	0.471	
0.5048	32306.74	3.7780	3.7780	1.7236	26.68	0.73	1.500			
0.5101	32644.58	3.7750	3.7750	1.7257	26.66	0.71	1.500			
0.5153	32976.98	3.7720	3.7720	1.7305	26.65	0.70	1.500			
0.5204	33303.67	3.7690	3.7690	1.7296	26.63	0.68	1.500			
0.5255	33634.41	3.7660	3.7659	1.7428	26.62	0.67	1.500			
0.5308	33971.42	3.7630	3.7630	1.7502	26.60	0.65	1.500			
0.5361	34312.31	3.7600	3.7600	1.7560	26.58	0.63	1.500			
0.5414	34646.85	3.7570	3.7570	1.7572	26.57	0.62	1.500			
0.5466	34979.41	3.7540	3.7540	1.7565	26.55	0.60	1.500			
0.5518	35313.53	3.7510	3.7510	1.7804	26.53	0.58	1.500			
0.5572	35660.72	3.7480	3.7480	1.8231	26.52	0.57	1.500			
0.5628	36020.12	3.7450	3.7449	1.8404	26.51	0.56	1.500			
0.5683	36373.31	3.7420	3.7421	1.8543	26.49	0.54	1.500			
0.5738	36724.34	3.7390	3.7391	1.8933	26.48	0.53	1.500			
0.5795	37089.43	3.7360	3.7360	1.9333	26.47	0.52	1.500			
0.5854	37468.71	3.7330	3.7330	1.9752	26.45	0.50	1.500			
0.5915	37855.21	3.7300	3.7301	2.0305	26.43	0.48	1.500			
0.5976	38246.81	3.7270	3.7270	2.0823	26.42	0.47	1.500			
0.6039	38648.86	3.7240	3.7239	2.1441	26.40	0.45	1.500			
0.6105	39070.53	3.7210	3.7210	2.1958	26.38	0.43	1.500			
0.6172	39501.74	3.7180	3.7180	2.2733	26.36	0.41	1.500			
0.6240	39936.86	3.7150	3.7150	2.2949	26.34	0.39	1.500			
0.6309	40380.72	3.7120	3.7121	2.3338	26.32	0.37	1.500			
0.6382	40842.41	3.7090	3.7090	2.3420	26.30	0.35	1.500			
0.6452	41292.07	3.7060	3.7060	2.2899	26.28	0.33	1.500			
0.6520	41727.75	3.7030	3.7029	2.2022	26.26	0.31	1.500			
0.6585	42144.03	3.7000	3.7000	2.0836	26.25	0.30	1.500			
0.6646	42532.64	3.6970	3.6970	1.9427	26.23	0.28	1.500			
0.6702	42889.94	3.6940	3.6941	1.8091	26.22	0.27	1.500			
0.6754	43222.60	3.6910	3.6910	1.6933	26.21	0.26	1.500			
0.6802	43534.73	3.6880	3.6880	1.6065	26.20	0.25	1.500			
0.6849	43831.67	3.6850	3.6850	1.5296	26.18	0.23	1.500			
0.6894	44119.11	3.6820	3.6820	1.4652	26.17	0.22	1.500			
0.6937	44395.05	3.6790	3.6790	1.4135	26.16	0.21	1.500			
0.6977	44654.41	3.6760	3.6761	1.3600	26.15	0.20	1.500			
0.7017	44911.03	3.6730	3.6730	1.3273	26.14	0.19	1.500			
0.7056	45159.46	3.6700	3.6700	1.2993	26.13	0.18	1.500			
0.7094	45403.51	3.6670	3.6670	1.2776	26.13	0.18	1.500			
0.7132	45645.88	3.6640	3.6640	1.2712	26.12	0.17	1.500			
0.7170	45887.35	3.6610	3.6610	1.2703	26.11	0.16	1.500			
0.7208	46130.32	3.6580	3.6580	1.2703	26.10	0.15	1.500			
0.7246	46374.12	3.6550	3.6550	1.2741	26.09	0.14	1.500			
0.7285	46621.02	3.6520	3.6519	1.2776	26.08	0.13	1.500			
0.7323	46867.82	3.6490	3.6490	1.2782	26.07	0.12	1.500			
0.7362	47114.49	3.6460	3.6460	1.2731	26.06	0.11	1.500			
0.7400	47358.86	3.6430	3.6430	1.2593	26.05	0.10	1.500			
0.7437	47599.55	3.6400	3.6400	1.2486	26.04	0.09	1.500			
0.7475	47838.15	3.6370	3.6370	1.2423	26.03	0.08	1.500			
0.7511	48073.41	3.6340	3.6340	1.2333	26.02	0.07	1.500			
0.7548	48309.21	3.6310	3.6310	1.2290	26.01	0.06	1.500			
0.7585	48544.99	3.6280	3.6280	1.2228	26.00	0.05	1.500			
0.7622	48780.85	3.6250	3.6250	1.2144	25.99	0.04	1.500			
0.7659	49015.59	3.6220	3.6220	1.2053	25.98	0.03	1.500			
0.7695	49245.73	3.6190	3.6191	1.1910	25.98	0.03	1.500			
0.7730	49472.31	3.6160	3.6160	1.1777	25.97	0.02	1.500			
0.7765	49697.31	3.6130	3.6130	1.1579	25.96	0.01	1.500			
0.7800	49918.86	3.6100	3.6100	1.1395	25.96	0.01	1.500			
0.7834	50137.28	3.6070	3.6070	1.1168	25.96	0.01	1.500			
0.7867	50348.92	3.6040	3.6040	1.0944	25.96	0.01	1.500			
0.7899	50556.71	3.6010	3.6010	1.0673	25.96	0.01	1.500			
0.7931	50759.04	3.5980	3.5979	1.0372	25.95	0.00	1.500			
0.7962	50956.88	3.5950	3.5950	1.0071	25.95	0.00	1.500			
0.7992	51150.15	3.5920	3.5920	0.9721	25.95	0.00	1.500			
0.8021	51336.65	3.5890	3.5889	0.9244	25.95	0.00	1.500			
0.8049	51512.45	3.5860	3.5860	0.8551	25.95	-0.00	1.500			
0.8074	51673.10	3.5830	3.5831	0.7787	25.95	-0.00	1.500			
0.8097	51817.85	3.5800	3.5800	0.6880	25.95	-0.00	1.500			
0.8116	51940.81	3.5770	3.5770	0.5926	25.95	-0.00	1.500			
0.8132	52043.29	3.5740	3.5740	0.5057	25.95	-0.00	1.500			
0.8145	52128.64	3.5710	3.5710	0.4249	25.95	-0.00	1.500			
0.8156	52200.74	3.5680	3.5679	0.3618	25.95	-0.00	1.500			
0.8166	52261.31	3.5650	3.5649	0.3137	25.94	-0.01	1.500			
0.8174	52313.36	3.5620	3.5619	0.2726	25.94	-0.01	1.500			
0.8181	52360.87	3.5590	3.5589	0.2436	25.94	-0.01	1.500			
0.8188	52402.50	3.5560	3.5559	0.2149	25.94	-0.01	1.500			
0.8194	52441.25	3.5530	3.5531	0.1954	25.94	-0.01	1.500			
0.8199	52475.31	3.5500	3.5500	0.1762	25.94	-0.01	1.500			
0.8204	52507.48	3.5470	3.5470	0.1601	25.94	-0.01	1.500			
0.8209	52536.54	3.5440	3.5441	0.1462	25.94	-0.01	1.500			
0.8213	52562.69	3.5410	3.5409	0.1314	25.94	-0.01	1.500			
0.8217	52586.78	3.5380	3.5380	0.1171	25.94	-0.01	1.500			
0.8220	52607.85	3.5350	3.5350	0.1028	25.94	-0.01	1.500			
0.8223	52626.23	3.5320	3.5322	0.0887	25.94	-0.01	1.500			
0.8225	52642.31	3.5290	3.5292	0.0747	25.94	-0.01	1.500			
0.8227	52655.63	3.5260	3.5262	0.0598	25.94	-0.01	1.500			
0.8229	52665.63	3.5230	3.5235	0.0444	25.94	-0.01	1.500			
0.8230	52672.68	3.5200	3.5211	0.0290	25.94	-0.01	1.500			
