Ah_balance (normalized)	Ah_balance (mAh)	Voltage - fit (V)	Voltage -  interpolate (V)	dQ/dV (1/V)	Temperature (°C)	Temperature - diff (°C)	Current (C)	R_DC 0ms (mOhm)	R_DC 50ms (mOhm)	R_DC 50 ms PEC (mOhm)
0.2178	13936.99	3.9110	3.9107	-0.1044	25.67	-0.02	-1.500			
0.2181	13960.88	3.9080	3.9080	-0.1416	25.67	-0.02	-1.500			
0.2186	13992.03	3.9050	3.9047	-0.1761	25.67	-0.02	-1.500			
0.2192	14029.14	3.9020	3.9020	-0.2085	25.67	-0.02	-1.500			
0.2199	14072.54	3.8990	3.8990	-0.2394	25.68	-0.01	-1.500			
0.2207	14122.53	3.8960	3.8960	-0.2702	25.68	-0.01	-1.500			
0.2215	14176.94	3.8930	3.8930	-0.2993	25.68	-0.01	-1.500			
0.2225	14237.24	3.8900	3.8900	-0.3273	25.68	-0.01	-1.500			
0.2235	14303.00	3.8870	3.8870	-0.3537	25.68	-0.01	-1.500			
0.2246	14373.10	3.8840	3.8840	-0.3823	25.68	-0.01	-1.500			
0.2258	14449.01	3.8810	3.8810	-0.4106	25.68	-0.01	-1.500			
0.2270	14530.16	3.8780	3.8780	-0.4427	25.68	-0.01	-1.500			
0.2284	14618.03	3.8750	3.8749	-0.4733	25.68	-0.01	-1.500			
0.2299	14712.14	3.8720	3.8720	-0.5002	25.68	-0.01	-1.500			
0.2314	14811.71	3.8690	3.8691	-0.5287	25.68	-0.01	-1.500			
0.2331	14917.16	3.8660	3.8660	-0.5588	25.69	-0.00	-1.500			
0.2348	15027.77	3.8630	3.8628	-0.5788	25.69	-0.00	-1.500			
0.2366	15141.79	3.8600	3.8600	-0.5988	25.69	-0.00	-1.500			
0.2384	15257.93	3.8570	3.8573	-0.6192	25.69	-0.00	-1.500			
0.2403	15379.98	3.8540	3.8540	-0.6383	25.69	0.00	-1.500			
0.2423	15504.17	3.8510	3.8509	-0.6559	25.69	0.00	-1.500			
0.2442	15631.22	3.8480	3.8480	-0.6679	25.69	0.00	-1.500			
0.2463	15762.02	3.8450	3.8451	-0.6859	25.70	0.01	-1.500			
0.2484	15895.71	3.8420	3.8420	-0.6974	25.70	0.01	-1.500			
0.2505	16030.64	3.8390	3.8391	-0.7080	25.70	0.01	-1.500			
0.2526	16166.78	3.8360	3.8360	-0.7164	25.70	0.01	-1.500			
0.2548	16306.27	3.8330	3.8330	-0.7265	25.70	0.01	-1.500			
0.2570	16445.94	3.8300	3.8300	-0.7344	25.70	0.01	-1.500			
0.2592	16588.61	3.8270	3.8270	-0.7431	25.71	0.02	-1.500			
0.2614	16731.68	3.8240	3.8240	-0.7467	25.71	0.02	-1.500			
0.2637	16876.71	3.8210	3.8210	-0.7541	25.71	0.02	-1.500			
0.2660	17022.02	3.8180	3.8180	-0.7560	25.71	0.02	-1.500			
0.2682	17167.60	3.8150	3.8150	-0.7552	25.72	0.03	-1.500			
0.2705	17313.37	3.8120	3.8120	-0.7581	25.72	0.03	-1.500			
0.2728	17457.22	3.8090	3.8090	-0.7603	25.72	0.03	-1.500			
0.2751	17603.98	3.8060	3.8060	-0.7639	25.72	0.03	-1.500			
0.2774	17752.29	3.8030	3.8029	-0.7617	25.73	0.04	-1.500			
0.2796	17897.16	3.8000	3.8000	-0.7639	25.73	0.04	-1.500			
0.2819	18044.58	3.7970	3.7972	-0.7687	25.73	0.04	-1.500			
0.2843	18192.41	3.7940	3.7940	-0.7700	25.73	0.04	-1.500			
0.2866	18339.50	3.7910	3.7908	-0.7696	25.74	0.05	-1.500			
0.2889	18487.06	3.7880	3.7882	-0.7734	25.74	0.05	-1.500			
0.2912	18636.83	3.7850	3.7850	-0.7786	25.75	0.06	-1.500			
0.2936	18787.50	3.7820	3.7820	-0.7804	25.75	0.06	-1.500			
0.2959	18937.84	3.7790	3.7790	-0.7787	25.76	0.07	-1.500			
0.2982	19086.04	3.7760	3.7760	-0.7765	25.76	0.07	-1.500			
0.3006	19235.36	3.7730	3.7730	-0.7769	25.77	0.08	-1.500			
0.3029	19383.77	3.7700	3.7700	-0.7751	25.77	0.08	-1.500			
0.3052	19531.36	3.7670	3.7669	-0.7783	25.78	0.09	-1.500			
0.3075	19680.86	3.7640	3.7641	-0.7814	25.79	0.10	-1.500			
0.3099	19831.57	3.7610	3.7609	-0.7844	25.79	0.10	-1.500			
0.3122	19983.96	3.7580	3.7579	-0.7845	25.80	0.11	-1.500			
0.3146	20135.08	3.7550	3.7551	-0.7819	25.80	0.11	-1.500			
0.3170	20285.05	3.7520	3.7520	-0.7799	25.81	0.12	-1.500			
0.3193	20434.30	3.7490	3.7490	-0.7781	25.82	0.13	-1.500			
0.3216	20581.47	3.7460	3.7460	-0.7747	25.83	0.14	-1.500			
0.3239	20730.44	3.7430	3.7430	-0.7777	25.83	0.14	-1.500			
0.3263	20880.68	3.7400	3.7399	-0.7766	25.84	0.15	-1.500			
0.3286	21029.61	3.7370	3.7371	-0.7795	25.85	0.16	-1.500			
0.3309	21178.69	3.7340	3.7340	-0.7829	25.86	0.17	-1.500			
0.3333	21329.24	3.7310	3.7309	-0.7844	25.86	0.17	-1.500			
0.3356	21480.31	3.7280	3.7279	-0.7843	25.87	0.18	-1.500			
0.3380	21631.03	3.7250	3.7250	-0.7874	25.88	0.19	-1.500			
0.3404	21783.21	3.7220	3.7221	-0.7920	25.88	0.19	-1.500			
0.3428	21936.34	3.7190	3.7190	-0.7943	25.89	0.20	-1.500			
0.3451	22087.56	3.7160	3.7159	-0.7921	25.90	0.21	-1.500			
0.3475	22238.98	3.7130	3.7131	-0.7994	25.90	0.21	-1.500			
0.3499	22392.94	3.7100	3.7100	-0.8031	25.91	0.22	-1.500			
0.3523	22546.78	3.7070	3.7069	-0.8102	25.91	0.22	-1.500			
0.3547	22701.42	3.7040	3.7040	-0.8181	25.92	0.23	-1.500			
0.3572	22860.72	3.7010	3.7009	-0.8247	25.92	0.23	-1.500			
0.3597	23021.63	3.6980	3.6980	-0.8337	25.93	0.24	-1.500			
0.3622	23181.88	3.6950	3.6950	-0.8423	25.94	0.25	-1.500			
0.3647	23342.76	3.6920	3.6920	-0.8510	25.94	0.25	-1.500			
0.3673	23508.09	3.6890	3.6889	-0.8662	25.95	0.26	-1.500			
0.3699	23673.04	3.6860	3.6860	-0.8730	25.96	0.27	-1.500			
0.3725	23842.45	3.6830	3.6830	-0.8820	25.96	0.27	-1.500			
0.3752	24015.04	3.6800	3.6800	-0.8970	25.97	0.28	-1.500			
0.3779	24186.59	3.6770	3.6771	-0.9153	25.97	0.28	-1.500			
0.3807	24363.32	3.6740	3.6740	-0.9282	25.98	0.29	-1.500			
0.3835	24542.36	3.6710	3.6709	-0.9401	25.99	0.30	-1.500			
0.3863	24725.05	3.6680	3.6680	-0.9562	25.99	0.30	-1.500			
0.3893	24912.01	3.6650	3.6651	-0.9726	26.00	0.31	-1.500			
0.3922	25099.69	3.6620	3.6620	-0.9876	26.01	0.32	-1.500			
0.3951	25289.08	3.6590	3.6590	-1.0048	26.01	0.32	-1.500			
0.3982	25482.41	3.6560	3.6561	-1.0221	26.02	0.33	-1.500			
0.4013	25680.49	3.6530	3.6530	-1.0468	26.03	0.34	-1.500			
0.4044	25884.25	3.6500	3.6500	-1.0654	26.03	0.34	-1.500			
0.4077	26090.60	3.6470	3.6470	-1.0886	26.04	0.35	-1.500			
0.4109	26300.69	3.6440	3.6440	-1.1151	26.04	0.35	-1.500			
0.4143	26517.57	3.6410	3.6412	-1.1346	26.05	0.36	-1.500			
0.4178	26737.43	3.6380	3.6379	-1.1609	26.06	0.37	-1.500			
0.4213	26962.08	3.6350	3.6351	-1.1922	26.06	0.37	-1.500			
0.4249	27193.38	3.6320	3.6321	-1.2212	26.06	0.37	-1.500			
0.4286	27432.04	3.6290	3.6289	-1.2451	26.07	0.38	-1.500			
0.4324	27673.43	3.6260	3.6260	-1.2667	26.07	0.38	-1.500			
0.4362	27918.21	3.6230	3.6231	-1.2913	26.08	0.39	-1.500			
0.4401	28169.26	3.6200	3.6200	-1.3145	26.08	0.39	-1.500			
0.4441	28423.21	3.6170	3.6170	-1.3372	26.08	0.39	-1.500			
0.4481	28678.21	3.6140	3.6140	-1.3816	26.09	0.40	-1.500			
0.4523	28949.28	3.6110	3.6111	-1.4075	26.09	0.40	-1.500			
0.4566	29225.00	3.6080	3.6079	-1.4320	26.09	0.40	-1.500			
0.4610	29503.30	3.6050	3.6049	-1.4645	26.10	0.41	-1.500			
0.4654	29787.27	3.6020	3.6021	-1.4900	26.10	0.41	-1.500			
0.4699	30076.18	3.5990	3.5988	-1.5121	26.10	0.41	-1.500			
0.4745	30366.63	3.5960	3.5960	-1.5384	26.10	0.41	-1.500			
0.4791	30660.42	3.5930	3.5930	-1.5565	26.11	0.42	-1.500			
0.4839	30968.24	3.5900	3.5899	-1.5980	26.11	0.42	-1.500			
0.4887	31278.38	3.5870	3.5872	-1.6272	26.11	0.42	-1.500			
0.4936	31590.63	3.5840	3.5841	-1.6537	26.11	0.42	-1.500			
0.4986	31913.15	3.5810	3.5809	-1.6837	26.11	0.42	-1.500			
0.5038	32241.11	3.5780	3.5780	-1.7023	26.12	0.43	-1.500			
0.5089	32571.11	3.5750	3.5750	-1.7260	26.12	0.43	-1.500			
0.5141	32902.72	3.5720	3.5721	-1.7454	26.12	0.43	-1.500			
0.5193	33236.94	3.5690	3.5689	-1.7845	26.12	0.43	-1.500			
0.5247	33581.62	3.5660	3.5660	-1.8102	26.13	0.44	-1.500			
0.5302	33933.19	3.5630	3.5630	-1.8225	26.13	0.44	-1.500			
0.5358	34288.47	3.5600	3.5600	-1.8545	26.14	0.45	-1.500			
0.5414	34646.84	3.5570	3.5570	-1.8747	26.14	0.45	-1.500			
0.5470	35008.73	3.5540	3.5539	-1.8834	26.14	0.45	-1.500			
0.5526	35368.99	3.5510	3.5510	-1.8924	26.14	0.45	-1.500			
0.5583	35732.25	3.5480	3.5481	-1.9068	26.14	0.45	-1.500			
0.5642	36107.66	3.5450	3.5449	-1.9319	26.14	0.45	-1.500			
0.5699	36476.17	3.5420	3.5419	-1.9350	26.15	0.46	-1.500	0.390	0.507	
0.5758	36849.33	3.5390	3.5390	-1.9520	26.15	0.46	-1.500			
0.5817	37228.41	3.5360	3.5360	-1.9558	26.16	0.47	-1.500			
0.5876	37603.46	3.5330	3.5330	-1.9507	26.17	0.48	-1.500			
0.5934	37978.05	3.5300	3.5300	-1.9445	26.18	0.49	-1.500			
0.5993	38355.73	3.5270	3.5270	-1.9377	26.18	0.49	-1.500			
0.6051	38726.69	3.5240	3.5240	-1.9155	26.19	0.50	-1.500			
0.6108	39092.36	3.5210	3.5210	-1.9056	26.20	0.51	-1.500			
0.6165	39457.51	3.5180	3.5180	-1.8869	26.20	0.51	-1.500			
0.6221	39813.69	3.5150	3.5149	-1.8826	26.21	0.52	-1.500			
0.6277	40173.77	3.5120	3.5120	-1.8624	26.22	0.53	-1.500			
0.6333	40530.39	3.5090	3.5090	-1.8487	26.23	0.54	-1.500			
0.6389	40888.80	3.5060	3.5062	-1.8503	26.24	0.55	-1.500			
0.6444	41241.60	3.5030	3.5030	-1.8428	26.25	0.56	-1.500			
0.6499	41592.86	3.5000	3.5000	-1.8326	26.26	0.57	-1.500			
0.6553	41941.72	3.4970	3.4970	-1.8133	26.27	0.58	-1.500			
0.6608	42291.72	3.4940	3.4941	-1.8316	26.28	0.59	-1.500			
0.6663	42642.74	3.4910	3.4910	-1.8323	26.30	0.61	-1.500			
0.6718	42993.72	3.4880	3.4879	-1.8416	26.31	0.62	-1.500			
0.6773	43349.99	3.4850	3.4850	-1.8192	26.32	0.63	-1.500			
0.6828	43701.86	3.4820	3.4820	-1.8033	26.34	0.65	-1.500			
0.6883	44048.08	3.4790	3.4792	-1.7871	26.35	0.66	-1.500			
0.6936	44388.57	3.4760	3.4759	-1.7528	26.36	0.67	-1.500			
0.6987	44717.87	3.4730	3.4731	-1.7184	26.38	0.69	-1.500			
0.7038	45045.54	3.4700	3.4700	-1.6925	26.39	0.70	-1.500			
0.7089	45370.72	3.4670	3.4670	-1.6730	26.41	0.72	-1.500			
0.7139	45687.12	3.4640	3.4641	-1.6401	26.42	0.73	-1.500			
0.7187	45998.45	3.4610	3.4610	-1.6199	26.43	0.74	-1.500			
0.7235	46305.77	3.4580	3.4580	-1.5968	26.45	0.76	-1.500			
0.7283	46609.65	3.4550	3.4549	-1.5798	26.46	0.77	-1.500			
0.7330	46913.68	3.4520	3.4520	-1.5560	26.47	0.78	-1.500			
0.7377	47209.67	3.4490	3.4491	-1.5334	26.49	0.80	-1.500			
0.7422	47501.27	3.4460	3.4460	-1.5234	26.50	0.81	-1.500			
0.7467	47791.80	3.4430	3.4429	-1.5056	26.52	0.83	-1.500			
0.7512	48075.59	3.4400	3.4399	-1.4889	26.54	0.85	-1.500			
0.7557	48361.85	3.4370	3.4370	-1.4782	26.55	0.86	-1.500			
0.7601	48645.96	3.4340	3.4340	-1.4729	26.57	0.88	-1.500			
0.7645	48930.08	3.4310	3.4310	-1.4655	26.59	0.90	-1.500			
0.7689	49207.93	3.4280	3.4279	-1.4534	26.61	0.92	-1.500			
0.7732	49484.85	3.4250	3.4250	-1.4557	26.63	0.94	-1.500			
0.7776	49767.88	3.4220	3.4220	-1.4448	26.65	0.96	-1.500			
0.7820	50047.29	3.4190	3.4189	-1.4361	26.67	0.98	-1.500			
0.7863	50322.74	3.4160	3.4161	-1.4050	26.68	0.99	-1.500			
0.7905	50591.40	3.4130	3.4130	-1.3725	26.69	1.00	-1.500			
0.7946	50851.40	3.4100	3.4100	-1.3413	26.71	1.02	-1.500			
0.7985	51103.21	3.4070	3.4069	-1.2948	26.73	1.04	-1.500			
0.8024	51351.40	3.4040	3.4040	-1.2582	26.75	1.06	-1.500			
0.8061	51590.70	3.4010	3.4010	-1.2190	26.77	1.08	-1.500			
0.8097	51820.95	3.3980	3.3980	-1.1718	26.79	1.10	-1.500			
0.8132	52043.26	3.3950	3.3951	-1.1272	26.80	1.11	-1.500			
0.8165	52253.81	3.3920	3.3920	-1.0777	26.81	1.12	-1.500			
0.8196	52453.43	3.3890	3.3890	-1.0290	26.82	1.13	-1.500			
0.8226	52647.49	3.3860	3.3860	-0.9951	26.83	1.14	-1.500			
0.8255	52833.03	3.3830	3.3830	-0.9507	26.84	1.15	-1.500			
0.8283	53012.08	3.3800	3.3800	-0.9136	26.85	1.16	-1.500			
0.8310	53184.07	3.3770	3.3770	-0.8849	26.86	1.17	-1.500			
0.8336	53351.26	3.3740	3.3740	-0.8488	26.87	1.18	-1.500			
0.8361	53511.09	3.3710	3.3709	-0.8163	26.88	1.19	-1.500			
0.8385	53663.57	3.3680	3.3683	-0.7864	26.89	1.20	-1.500			
0.8408	53811.52	3.3650	3.3649	-0.7574	26.90	1.21	-1.500			
0.8430	53954.26	3.3620	3.3619	-0.7317	26.91	1.22	-1.500			
0.8452	54090.42	3.3590	3.3590	-0.7049	26.92	1.23	-1.500			
0.8472	54223.76	3.3560	3.3560	-0.6821	26.93	1.24	-1.500			
0.8493	54352.02	3.3530	3.3530	-0.6618	26.94	1.25	-1.500			
0.8512	54475.56	3.3500	3.3500	-0.6386	26.95	1.26	-1.500			
0.8531	54595.67	3.3470	3.3470	-0.6198	26.96	1.27	-1.500			
0.8549	54713.97	3.3440	3.3439	-0.6013	26.96	1.27	-1.500			
0.8567	54827.59	3.3410	3.3410	-0.5821	26.97	1.28	-1.500			
0.8584	54937.16	3.3380	3.3381	-0.5665	26.98	1.29	-1.500			
0.8601	55045.13	3.3350	3.3349	-0.5475	26.99	1.30	-1.500			
0.8617	55147.58	3.3320	3.3318	-0.5289	27.00	1.31	-1.500			
0.8632	55247.99	3.3290	3.3292	-0.5141	27.01	1.32	-1.500			
0.8648	55344.74	3.3260	3.3259	-0.4960	27.02	1.33	-1.500			
0.8662	55438.61	3.3230	3.3230	-0.4796	27.02	1.33	-1.500			
0.8676	55528.47	3.3200	3.3200	-0.4634	27.03	1.34	-1.500			
0.8690	55614.88	3.3170	3.3171	-0.4511	27.04	1.35	-1.500			
0.8703	55701.57	3.3140	3.3139	-0.4384	27.04	1.35	-1.500			
0.8716	55783.54	3.3110	3.3109	-0.4245	27.05	1.36	-1.500			
0.8729	55864.04	3.3080	3.3081	-0.4119	27.06	1.37	-1.500			
0.8741	55942.29	3.3050	3.3050	-0.4003	27.06	1.37	-1.500			
0.8753	56018.37	3.3020	3.3019	-0.3872	27.07	1.38	-1.500			
0.8764	56091.13	3.2990	3.2990	-0.3737	27.07	1.38	-1.500			
0.8775	56160.86	3.2960	3.2960	-0.3608	27.08	1.39	-1.500			
0.8786	56229.66	3.2930	3.2930	-0.3506	27.08	1.39	-1.500			
0.8796	56295.08	3.2900	3.2900	-0.3387	27.09	1.40	-1.500			
0.8806	56358.87	3.2870	3.2870	-0.3299	27.09	1.40	-1.500			
0.8816	56421.09	3.2840	3.2840	-0.3208	27.10	1.41	-1.500			
0.8825	56482.25	3.2810	3.2809	-0.3117	27.10	1.41	-1.500			
0.8835	56541.18	3.2780	3.2780	-0.3024	27.11	1.42	-1.500			
0.8844	56598.55	3.2750	3.2751	-0.2930	27.11	1.42	-1.500			
0.8852	56654.11	3.2720	3.2720	-0.2841	27.11	1.42	-1.500			
0.8861	56707.47	3.2690	3.2690	-0.2755	27.12	1.43	-1.500			
0.8869	56758.43	3.2660	3.2660	-0.2668	27.12	1.43	-1.500			
0.8876	56808.85	3.2630	3.2630	-0.2610	27.13	1.44	-1.500			
0.8884	56858.66	3.2600	3.2599	-0.2555	27.13	1.44	-1.500			
0.8892	56907.24	3.2570	3.2570	-0.2502	27.13	1.44	-1.500			
0.8899	56954.84	3.2540	3.2540	-0.2432	27.14	1.45	-1.500			
0.8906	57001.41	3.2510	3.2510	-0.2369	27.14	1.45	-1.500			
0.8913	57046.16	3.2480	3.2481	-0.2303	27.15	1.46	-1.500			
0.8920	57089.57	3.2450	3.2449	-0.2230	27.15	1.46	-1.500			
0.8927	57131.39	3.2420	3.2421	-0.2177	27.16	1.47	-1.500			
0.8933	57172.11	3.2390	3.2390	-0.2125	27.16	1.47	-1.500			
0.8939	57212.09	3.2360	3.2360	-0.2083	27.17	1.48	-1.500			
0.8946	57251.79	3.2330	3.2330	-0.2052	27.17	1.48	-1.500			
0.8952	57290.91	3.2300	3.2300	-0.2013	27.17	1.48	-1.500			
0.8958	57329.30	3.2270	3.2270	-0.1976	27.18	1.49	-1.500			
0.8964	57366.92	3.2240	3.2241	-0.1942	27.18	1.49	-1.500			
0.8969	57403.84	3.2210	3.2210	-0.1904	27.19	1.50	-1.500			
0.8975	57440.15	3.2180	3.2179	-0.1855	27.19	1.50	-1.500			
0.8981	57475.32	3.2150	3.2150	-0.1817	27.19	1.50	-1.500			
0.8986	57509.17	3.2120	3.2121	-0.1782	27.20	1.51	-1.500			
0.8991	57543.13	3.2090	3.2090	-0.1755	27.20	1.51	-1.500			
0.8996	57576.39	3.2060	3.2059	-0.1733	27.20	1.51	-1.500			
0.9001	57609.46	3.2030	3.2030	-0.1698	27.21	1.52	-1.500			
0.9007	57641.88	3.2000	3.2000	-0.1672	27.21	1.52	-1.500			
0.9012	57673.74	3.1970	3.1971	-0.1647	27.21	1.52	-1.500			
0.9016	57705.54	3.1940	3.1941	-0.1625	27.22	1.53	-1.500			
0.9021	57736.21	3.1910	3.1909	-0.1598	27.22	1.53	-1.500			
0.9026	57766.18	3.1880	3.1879	-0.1565	27.22	1.53	-1.500			
0.9031	57796.06	3.1850	3.1851	-0.1549	27.23	1.54	-1.500			
0.9035	57825.53	3.1820	3.1821	-0.1531	27.23	1.54	-1.500			
0.9040	57855.02	3.1790	3.1789	-0.1519	27.23	1.54	-1.500			
0.9044	57883.93	3.1760	3.1760	-0.1499	27.24	1.55	-1.500			
0.9049	57912.50	3.1730	3.1730	-0.1487	27.24	1.55	-1.500			
0.9053	57941.08	3.1700	3.1700	-0.1464	27.25	1.56	-1.500			
0.9058	57969.13	3.1670	3.1669	-0.1445	27.25	1.56	-1.500			
0.9062	57996.65	3.1640	3.1640	-0.1421	27.25	1.56	-1.500			
0.9066	58023.66	3.1610	3.1611	-0.1406	27.26	1.57	-1.500			
0.9070	58050.29	3.1580	3.1579	-0.1392	27.26	1.57	-1.500			
0.9074	58076.72	3.1550	3.1550	-0.1376	27.26	1.57	-1.500			
0.9079	58103.05	3.1520	3.1520	-0.1367	27.27	1.58	-1.500			
0.9083	58129.06	3.1490	3.1489	-0.1353	27.27	1.58	-1.500			
0.9087	58155.19	3.1460	3.1460	-0.1348	27.27	1.58	-1.500			
0.9091	58180.97	3.1430	3.1430	-0.1337	27.28	1.59	-1.500			
0.9095	58206.51	3.1400	3.1400	-0.1324	27.28	1.59	-1.500			
0.9099	58231.78	3.1370	3.1369	-0.1307	27.28	1.59	-1.500			
0.9103	58256.68	3.1340	3.1340	-0.1295	27.28	1.59	-1.500			
0.9106	58281.47	3.1310	3.1310	-0.1284	27.29	1.60	-1.500			
0.9110	58305.97	3.1280	3.1281	-0.1273	27.29	1.60	-1.500			
0.9114	58330.32	3.1250	3.1249	-0.1262	27.29	1.60	-1.500			
0.9118	58354.24	3.1220	3.1221	-0.1250	27.30	1.61	-1.500			
0.9122	58378.13	3.1190	3.1190	-0.1242	27.30	1.61	-1.500			
0.9125	58401.93	3.1160	3.1160	-0.1235	27.30	1.61	-1.500			
0.9129	58425.70	3.1130	3.1130	-0.1229	27.31	1.62	-1.500			
0.9133	58449.12	3.1100	3.1100	-0.1220	27.31	1.62	-1.500			
0.9136	58472.48	3.1070	3.1070	-0.1213	27.31	1.62	-1.500			
0.9140	58495.80	3.1040	3.1040	-0.1205	27.32	1.63	-1.500			
0.9144	58518.85	3.1010	3.1009	-0.1196	27.32	1.63	-1.500			
0.9147	58541.68	3.0980	3.0980	-0.1190	27.33	1.64	-1.500			
0.9151	58564.46	3.0950	3.0950	-0.1182	27.33	1.64	-1.500			
0.9154	58587.08	3.0920	3.0921	-0.1173	27.34	1.65	-1.500			
0.9158	58609.54	3.0890	3.0889	-0.1166	27.34	1.65	-1.500			
0.9161	58631.86	3.0860	3.0860	-0.1157	27.34	1.65	-1.500			
0.9165	58654.00	3.0830	3.0830	-0.1149	27.35	1.66	-1.500			
0.9168	58676.07	3.0800	3.0800	-0.1143	27.35	1.66	-1.500			
0.9172	58697.91	3.0770	3.0770	-0.1133	27.36	1.67	-1.500			
0.9175	58719.46	3.0740	3.0740	-0.1125	27.36	1.67	-1.500			
0.9178	58740.99	3.0710	3.0711	-0.1118	27.37	1.68	-1.500			
0.9182	58762.44	3.0680	3.0680	-0.1111	27.37	1.68	-1.500			
0.9185	58783.71	3.0650	3.0650	-0.1104	27.37	1.68	-1.500			
0.9188	58804.79	3.0620	3.0620	-0.1098	27.38	1.69	-1.500			
0.9192	58825.81	3.0590	3.0591	-0.1092	27.38	1.69	-1.500			
0.9195	58846.57	3.0560	3.0560	-0.1089	27.39	1.70	-1.500			
0.9198	58867.45	3.0530	3.0530	-0.1087	27.39	1.70	-1.500			
0.9201	58888.33	3.0500	3.0500	-0.1080	27.39	1.70	-1.500			
0.9205	58909.02	3.0470	3.0469	-0.1076	27.40	1.71	-1.500			
0.9208	58929.75	3.0440	3.0440	-0.1072	27.40	1.71	-1.500			
0.9211	58950.28	3.0410	3.0411	-0.1066	27.41	1.72	-1.500			
0.9214	58970.63	3.0380	3.0380	-0.1063	27.41	1.72	-1.500			
0.9217	58990.99	3.0350	3.0350	-0.1058	27.41	1.72	-1.500			
0.9221	59011.27	3.0320	3.0321	-0.1047	27.42	1.73	-1.500			
0.9224	59031.31	3.0290	3.0289	-0.1040	27.42	1.73	-1.500			
0.9227	59051.23	3.0260	3.0260	-0.1039	27.43	1.74	-1.500			
0.9230	59071.12	3.0230	3.0231	-0.1033	27.43	1.74	-1.500			
0.9233	59090.83	3.0200	3.0199	-0.1026	27.43	1.74	-1.500			
0.9236	59110.49	3.0170	3.0170	-0.1022	27.44	1.75	-1.500			
0.9239	59129.99	3.0140	3.0141	-0.1014	27.44	1.75	-1.500			
0.9242	59149.41	3.0110	3.0110	-0.1010	27.45	1.76	-1.500			
0.9245	59169.08	3.0080	3.0080	-0.1004	27.45	1.76	-1.500			
0.9248	59188.23	3.0050	3.0050	-0.0991	27.45	1.76	-1.500			
0.9251	59207.15	3.0020	3.0020	-0.0988	27.46	1.77	-1.500			
