Ah_balance (normalized)	Ah_balance (mAh)	Voltage - fit (V)	Voltage -  interpolate (V)	dQ/dV (1/V)	Temperature (°C)	Temperature - diff (°C)	Current (C)	R_DC 0ms (mOhm)	R_DC 50ms (mOhm)	R_DC 50 ms PEC (mOhm)
0.1984	12699.22	3.9370	3.9367	-0.1057	25.69	0.01	-0.750			
0.1988	12725.79	3.9340	3.9338	-0.1621	25.69	0.01	-0.750			
0.1994	12761.38	3.9310	3.9310	-0.2093	25.69	0.01	-0.750			
0.2001	12806.31	3.9280	3.9280	-0.2555	25.69	0.01	-0.750			
0.2009	12860.02	3.9250	3.9251	-0.3004	25.69	0.01	-0.750			
0.2019	12922.17	3.9220	3.9220	-0.3438	25.69	0.01	-0.750			
0.2030	12993.28	3.9190	3.9190	-0.3867	25.69	0.01	-0.750			
0.2043	13072.07	3.9160	3.9160	-0.4260	25.68	0.00	-0.750			
0.2056	13158.43	3.9130	3.9130	-0.4626	25.68	0.00	-0.750			
0.2071	13251.83	3.9100	3.9100	-0.4974	25.68	0.00	-0.750			
0.2086	13351.73	3.9070	3.9070	-0.5255	25.68	-0.00	-0.750			
0.2103	13456.09	3.9040	3.9040	-0.5537	25.68	-0.00	-0.750			
0.2120	13565.58	3.9010	3.9010	-0.5741	25.67	-0.01	-0.750			
0.2137	13678.88	3.8980	3.8980	-0.5927	25.67	-0.01	-0.750			
0.2156	13795.85	3.8950	3.8950	-0.6094	25.67	-0.01	-0.750			
0.2174	13914.46	3.8920	3.8920	-0.6213	25.66	-0.02	-0.750			
0.2193	14034.98	3.8890	3.8890	-0.6342	25.66	-0.02	-0.750			
0.2212	14158.40	3.8860	3.8859	-0.6429	25.66	-0.02	-0.750			
0.2232	14282.15	3.8830	3.8830	-0.6519	25.65	-0.03	-0.750			
0.2251	14408.74	3.8800	3.8800	-0.6605	25.65	-0.03	-0.750			
0.2271	14536.71	3.8770	3.8770	-0.6667	25.65	-0.03	-0.750			
0.2292	14666.41	3.8740	3.8740	-0.6722	25.64	-0.04	-0.750			
0.2312	14796.01	3.8710	3.8710	-0.6745	25.64	-0.04	-0.750			
0.2332	14925.73	3.8680	3.8680	-0.6763	25.64	-0.04	-0.750			
0.2353	15056.45	3.8650	3.8650	-0.6788	25.64	-0.04	-0.750			
0.2373	15185.71	3.8620	3.8620	-0.6810	25.64	-0.04	-0.750			
0.2393	15317.27	3.8590	3.8590	-0.6811	25.64	-0.04	-0.750			
0.2414	15448.95	3.8560	3.8560	-0.6822	25.64	-0.04	-0.750			
0.2434	15580.28	3.8530	3.8530	-0.6846	25.64	-0.04	-0.750			
0.2455	15711.34	3.8500	3.8501	-0.6869	25.64	-0.04	-0.750			
0.2476	15843.21	3.8470	3.8469	-0.6871	25.64	-0.04	-0.750			
0.2496	15974.78	3.8440	3.8440	-0.6897	25.64	-0.04	-0.750			
0.2517	16107.23	3.8410	3.8410	-0.6900	25.63	-0.05	-0.750			
0.2538	16240.76	3.8380	3.8380	-0.6949	25.63	-0.05	-0.750			
0.2559	16375.64	3.8350	3.8350	-0.6945	25.63	-0.05	-0.750			
0.2579	16508.71	3.8320	3.8320	-0.6913	25.63	-0.05	-0.750			
0.2600	16640.63	3.8290	3.8290	-0.6923	25.63	-0.05	-0.750			
0.2621	16773.91	3.8260	3.8260	-0.6940	25.63	-0.05	-0.750			
0.2642	16906.51	3.8230	3.8230	-0.6913	25.63	-0.05	-0.750			
0.2663	17040.04	3.8200	3.8200	-0.6905	25.63	-0.05	-0.750			
0.2683	17172.48	3.8170	3.8170	-0.6907	25.63	-0.05	-0.750			
0.2704	17305.71	3.8140	3.8141	-0.6914	25.63	-0.05	-0.750			
0.2725	17437.15	3.8110	3.8110	-0.6903	25.63	-0.05	-0.750			
0.2745	17568.83	3.8080	3.8079	-0.6893	25.63	-0.05	-0.750			
0.2766	17702.26	3.8050	3.8051	-0.6898	25.64	-0.04	-0.750			
0.2787	17835.09	3.8020	3.8020	-0.6912	25.64	-0.04	-0.750			
0.2808	17968.52	3.7990	3.7990	-0.6935	25.64	-0.04	-0.750			
0.2828	18101.06	3.7960	3.7960	-0.6918	25.64	-0.04	-0.750			
0.2849	18232.84	3.7930	3.7930	-0.6929	25.64	-0.04	-0.750			
0.2870	18365.86	3.7900	3.7900	-0.6954	25.64	-0.04	-0.750			
0.2891	18499.86	3.7870	3.7870	-0.6994	25.63	-0.05	-0.750			
0.2912	18635.08	3.7840	3.7840	-0.7014	25.63	-0.05	-0.750			
0.2933	18770.44	3.7810	3.7810	-0.7012	25.63	-0.05	-0.750			
0.2954	18904.94	3.7780	3.7780	-0.7031	25.63	-0.05	-0.750			
0.2975	19040.23	3.7750	3.7750	-0.7027	25.63	-0.05	-0.750			
0.2996	19173.45	3.7720	3.7720	-0.7096	25.63	-0.05	-0.750			
0.3017	19310.48	3.7690	3.7690	-0.7137	25.63	-0.05	-0.750			
0.3039	19448.08	3.7660	3.7659	-0.7185	25.63	-0.05	-0.750			
0.3061	19587.40	3.7630	3.7630	-0.7210	25.63	-0.05	-0.750			
0.3082	19727.37	3.7600	3.7600	-0.7241	25.63	-0.05	-0.750			
0.3104	19865.50	3.7570	3.7570	-0.7268	25.63	-0.05	-0.750			
0.3126	20005.14	3.7540	3.7540	-0.7312	25.63	-0.05	-0.750			
0.3148	20144.24	3.7510	3.7510	-0.7333	25.64	-0.04	-0.750			
0.3170	20286.37	3.7480	3.7479	-0.7421	25.64	-0.04	-0.750			
0.3192	20429.67	3.7450	3.7451	-0.7486	25.64	-0.04	-0.750			
0.3215	20574.41	3.7420	3.7419	-0.7539	25.64	-0.04	-0.750			
0.3237	20719.85	3.7390	3.7390	-0.7600	25.64	-0.04	-0.750			
0.3260	20865.99	3.7360	3.7360	-0.7643	25.64	-0.04	-0.750			
0.3283	21012.30	3.7330	3.7329	-0.7695	25.64	-0.04	-0.750			
0.3306	21160.87	3.7300	3.7300	-0.7782	25.64	-0.04	-0.750			
0.3330	21310.58	3.7270	3.7271	-0.7856	25.64	-0.04	-0.750			
0.3353	21462.23	3.7240	3.7240	-0.7962	25.64	-0.04	-0.750			
0.3378	21616.05	3.7210	3.7210	-0.8070	25.64	-0.04	-0.750			
0.3402	21771.53	3.7180	3.7180	-0.8155	25.64	-0.04	-0.750			
0.3426	21929.35	3.7150	3.7149	-0.8271	25.64	-0.04	-0.750			
0.3451	22088.80	3.7120	3.7121	-0.8385	25.64	-0.04	-0.750			
0.3477	22251.08	3.7090	3.7090	-0.8482	25.64	-0.04	-0.750			
0.3502	22414.85	3.7060	3.7060	-0.8635	25.64	-0.04	-0.750			
0.3528	22582.18	3.7030	3.7030	-0.8748	25.64	-0.04	-0.750			
0.3555	22750.16	3.7000	3.7000	-0.8908	25.64	-0.04	-0.750			
0.3582	22922.96	3.6970	3.6970	-0.9069	25.64	-0.04	-0.750			
0.3609	23098.40	3.6940	3.6941	-0.9223	25.64	-0.04	-0.750			
0.3637	23277.27	3.6910	3.6910	-0.9378	25.64	-0.04	-0.750			
0.3665	23458.21	3.6880	3.6881	-0.9541	25.64	-0.04	-0.750			
0.3694	23643.39	3.6850	3.6850	-0.9763	25.64	-0.04	-0.750			
0.3724	23832.30	3.6820	3.6820	-0.9970	25.64	-0.04	-0.750			
0.3754	24024.32	3.6790	3.6789	-1.0179	25.64	-0.04	-0.750			
0.3785	24222.75	3.6760	3.6760	-1.0399	25.63	-0.05	-0.750			
0.3816	24424.15	3.6730	3.6730	-1.0646	25.63	-0.05	-0.750			
0.3849	24630.85	3.6700	3.6700	-1.0938	25.63	-0.05	-0.750			
0.3882	24844.14	3.6670	3.6669	-1.1140	25.63	-0.05	-0.750			
0.3916	25059.42	3.6640	3.6640	-1.1368	25.62	-0.06	-0.750			
0.3950	25279.57	3.6610	3.6611	-1.1666	25.62	-0.06	-0.750			
0.3985	25506.32	3.6580	3.6580	-1.1935	25.62	-0.06	-0.750			
0.4022	25738.84	3.6550	3.6549	-1.2195	25.62	-0.06	-0.750			
0.4058	25973.04	3.6520	3.6520	-1.2433	25.62	-0.06	-0.750			
0.4096	26215.94	3.6490	3.6491	-1.2684	25.62	-0.06	-0.750			
0.4135	26462.85	3.6460	3.6460	-1.2949	25.62	-0.06	-0.750			
0.4174	26711.01	3.6430	3.6429	-1.3249	25.62	-0.06	-0.750			
0.4214	26968.09	3.6400	3.6400	-1.3503	25.62	-0.06	-0.750			
0.4255	27231.16	3.6370	3.6370	-1.3773	25.62	-0.06	-0.750			
0.4297	27499.19	3.6340	3.6340	-1.4086	25.62	-0.06	-0.750			
0.4340	27773.35	3.6310	3.6310	-1.4230	25.62	-0.06	-0.750			
0.4383	28048.53	3.6280	3.6280	-1.4568	25.62	-0.06	-0.750			
0.4426	28328.60	3.6250	3.6250	-1.4818	25.62	-0.06	-0.750			
0.4471	28615.44	3.6220	3.6217	-1.5040	25.62	-0.06	-0.750			
0.4517	28909.05	3.6190	3.6190	-1.5417	25.62	-0.06	-0.750			
0.4564	29208.15	3.6160	3.6160	-1.5770	25.62	-0.06	-0.750			
0.4612	29515.27	3.6130	3.6129	-1.6081	25.62	-0.06	-0.750			
0.4661	29829.55	3.6100	3.6101	-1.6415	25.62	-0.06	-0.750			
0.4710	30141.95	3.6070	3.6071	-1.6719	25.62	-0.06	-0.750			
0.4760	30466.94	3.6040	3.6041	-1.7110	25.61	-0.07	-0.750			
0.4813	30800.51	3.6010	3.6010	-1.7536	25.60	-0.08	-0.750			
0.4866	31140.02	3.5980	3.5980	-1.7880	25.60	-0.08	-0.750			
0.4920	31488.69	3.5950	3.5950	-1.8215	25.61	-0.07	-0.750			
0.4976	31846.83	3.5920	3.5920	-1.8559	25.61	-0.07	-0.750			
0.5032	32203.81	3.5890	3.5890	-1.8841	25.60	-0.08	-0.750			
0.5089	32566.55	3.5860	3.5860	-1.9158	25.60	-0.08	-0.750			
0.5146	32935.70	3.5830	3.5830	-1.9499	25.61	-0.07	-0.750			
0.5205	33313.82	3.5800	3.5799	-1.9672	25.62	-0.06	-0.750			
0.5265	33695.15	3.5770	3.5771	-1.9875	25.61	-0.07	-0.750			
0.5325	34077.07	3.5740	3.5741	-2.0117	25.61	-0.07	-0.750			
0.5386	34467.28	3.5710	3.5714	-2.0248	25.62	-0.06	-0.750	0.396	0.560	
0.5446	34853.66	3.5680	3.5680	-2.0514	25.62	-0.06	-0.750			
0.5508	35253.36	3.5650	3.5651	-2.0729	25.62	-0.06	-0.750			
0.5572	35660.06	3.5620	3.5619	-2.0880	25.62	-0.06	-0.750			
0.5634	36057.33	3.5590	3.5592	-2.1034	25.63	-0.05	-0.750			
0.5697	36462.11	3.5560	3.5560	-2.1115	25.64	-0.04	-0.750			
0.5761	36868.55	3.5530	3.5528	-2.1089	25.65	-0.03	-0.750			
0.5824	37272.80	3.5500	3.5502	-2.1062	25.66	-0.02	-0.750			
0.5888	37682.87	3.5470	3.5471	-2.1011	25.67	-0.01	-0.750			
0.5951	38087.35	3.5440	3.5440	-2.0939	25.67	-0.01	-0.750			
0.6013	38483.04	3.5410	3.5410	-2.0745	25.68	-0.00	-0.750			
0.6076	38884.67	3.5380	3.5379	-2.0455	25.68	0.00	-0.750			
0.6137	39275.79	3.5350	3.5349	-2.0193	25.69	0.01	-0.750			
0.6197	39662.83	3.5320	3.5320	-1.9955	25.70	0.02	-0.750			
0.6256	40041.59	3.5290	3.5289	-1.9611	25.71	0.03	-0.750			
0.6315	40417.45	3.5260	3.5260	-1.9198	25.72	0.04	-0.750			
0.6372	40782.23	3.5230	3.5230	-1.8836	25.73	0.05	-0.750			
0.6428	41141.84	3.5200	3.5200	-1.8376	25.74	0.06	-0.750			
0.6482	41487.70	3.5170	3.5170	-1.7868	25.75	0.07	-0.750			
0.6536	41827.47	3.5140	3.5141	-1.7426	25.75	0.07	-0.750			
0.6587	42157.65	3.5110	3.5110	-1.6907	25.76	0.08	-0.750			
0.6637	42477.91	3.5080	3.5081	-1.6469	25.77	0.09	-0.750			
0.6686	42792.01	3.5050	3.5051	-1.6043	25.78	0.10	-0.750			
0.6733	43093.22	3.5020	3.5019	-1.5502	25.79	0.11	-0.750			
0.6779	43387.80	3.4990	3.4990	-1.5021	25.80	0.12	-0.750			
0.6823	43670.36	3.4960	3.4961	-1.4625	25.81	0.13	-0.750			
0.6867	43946.24	3.4930	3.4929	-1.4152	25.82	0.14	-0.750			
0.6909	44214.88	3.4900	3.4900	-1.3764	25.83	0.15	-0.750			
0.6949	44473.14	3.4870	3.4872	-1.3382	25.84	0.16	-0.750			
0.6989	44728.60	3.4840	3.4840	-1.3054	25.85	0.17	-0.750			
0.7027	44975.71	3.4810	3.4809	-1.2648	25.85	0.17	-0.750			
0.7065	45213.39	3.4780	3.4781	-1.2268	25.86	0.18	-0.750			
0.7101	45445.28	3.4750	3.4750	-1.2000	25.87	0.19	-0.750			
0.7136	45671.57	3.4720	3.4719	-1.1720	25.88	0.20	-0.750			
0.7171	45891.23	3.4690	3.4690	-1.1438	25.89	0.21	-0.750			
0.7204	46106.73	3.4660	3.4661	-1.1331	25.90	0.22	-0.750			
0.7238	46324.99	3.4630	3.4629	-1.1171	25.91	0.23	-0.750			
0.7272	46538.30	3.4600	3.4600	-1.1045	25.92	0.24	-0.750			
0.7304	46747.32	3.4570	3.4569	-1.0929	25.93	0.25	-0.750			
0.7337	46956.96	3.4540	3.4540	-1.0876	25.93	0.25	-0.750			
0.7369	47164.24	3.4510	3.4509	-1.0826	25.94	0.26	-0.750			
0.7402	47369.95	3.4480	3.4480	-1.0760	25.95	0.27	-0.750			
0.7434	47574.71	3.4450	3.4450	-1.0687	25.96	0.28	-0.750			
0.7466	47783.17	3.4420	3.4420	-1.0742	25.97	0.29	-0.750			
0.7498	47989.89	3.4390	3.4390	-1.0655	25.98	0.30	-0.750			
0.7530	48193.77	3.4360	3.4360	-1.0585	25.99	0.31	-0.750			
0.7562	48397.04	3.4330	3.4331	-1.0485	26.00	0.32	-0.750			
0.7593	48597.46	3.4300	3.4299	-1.0400	26.00	0.32	-0.750			
0.7624	48796.75	3.4270	3.4269	-1.0278	26.00	0.32	-0.750			
0.7655	48993.26	3.4240	3.4240	-1.0112	26.01	0.33	-0.750			
0.7685	49185.06	3.4210	3.4210	-0.9961	26.01	0.33	-0.750			
0.7715	49376.92	3.4180	3.4180	-0.9850	26.01	0.33	-0.750			
0.7744	49563.67	3.4150	3.4150	-0.9669	26.02	0.34	-0.750			
0.7773	49748.16	3.4120	3.4119	-0.9488	26.03	0.35	-0.750			
0.7801	49928.19	3.4090	3.4089	-0.9282	26.04	0.36	-0.750			
0.7829	50105.99	3.4060	3.4061	-0.9137	26.04	0.36	-0.750			
0.7856	50279.76	3.4030	3.4030	-0.8938	26.05	0.37	-0.750			
0.7883	50449.73	3.4000	3.3999	-0.8685	26.05	0.37	-0.750			
0.7908	50613.68	3.3970	3.3970	-0.8420	26.05	0.37	-0.750			
0.7934	50775.14	3.3940	3.3940	-0.8179	26.06	0.38	-0.750			
0.7958	50931.77	3.3910	3.3910	-0.7914	26.06	0.38	-0.750			
0.7981	51080.57	3.3880	3.3879	-0.7584	26.07	0.39	-0.750			
0.8004	51222.41	3.3850	3.3850	-0.7251	26.08	0.40	-0.750			
0.8025	51358.07	3.3820	3.3820	-0.6929	26.09	0.41	-0.750			
0.8045	51488.10	3.3790	3.3790	-0.6617	26.09	0.41	-0.750			
0.8064	51611.75	3.3760	3.3760	-0.6301	26.10	0.42	-0.750			
0.8083	51729.49	3.3730	3.3730	-0.6019	26.10	0.42	-0.750			
0.8100	51842.24	3.3700	3.3700	-0.5744	26.11	0.43	-0.750			
0.8117	51949.60	3.3670	3.3670	-0.5470	26.11	0.43	-0.750			
0.8133	52051.91	3.3640	3.3640	-0.5209	26.11	0.43	-0.750			
0.8148	52149.39	3.3610	3.3610	-0.4970	26.12	0.44	-0.750			
0.8163	52242.05	3.3580	3.3580	-0.4730	26.12	0.44	-0.750			
0.8177	52330.32	3.3550	3.3550	-0.4508	26.13	0.45	-0.750			
0.8190	52414.02	3.3520	3.3520	-0.4292	26.13	0.45	-0.750			
0.8202	52494.35	3.3490	3.3490	-0.4107	26.13	0.45	-0.750			
0.8214	52570.80	3.3460	3.3460	-0.3944	26.14	0.46	-0.750			
0.8226	52644.55	3.3430	3.3430	-0.3793	26.14	0.46	-0.750			
0.8237	52715.43	3.3400	3.3400	-0.3645	26.15	0.47	-0.750			
0.8248	52784.33	3.3370	3.3369	-0.3517	26.15	0.47	-0.750			
0.8258	52850.54	3.3340	3.3341	-0.3382	26.15	0.47	-0.750			
0.8268	52914.19	3.3310	3.3310	-0.3264	26.16	0.48	-0.750			
0.8277	52975.30	3.3280	3.3280	-0.3151	26.16	0.48	-0.750			
0.8287	53034.21	3.3250	3.3250	-0.3055	26.17	0.49	-0.750			
0.8296	53091.39	3.3220	3.3220	-0.2950	26.17	0.49	-0.750			
0.8304	53147.24	3.3190	3.3190	-0.2871	26.17	0.49	-0.750			
0.8313	53201.83	3.3160	3.3160	-0.2788	26.18	0.50	-0.750			
0.8321	53254.58	3.3130	3.3132	-0.2714	26.18	0.50	-0.750			
0.8329	53305.47	3.3100	3.3100	-0.2636	26.18	0.50	-0.750			
0.8337	53355.32	3.3070	3.3070	-0.2571	26.19	0.51	-0.750			
0.8344	53403.72	3.3040	3.3040	-0.2503	26.19	0.51	-0.750			
0.8352	53451.39	3.3010	3.3010	-0.2452	26.19	0.51	-0.750			
0.8359	53497.52	3.2980	3.2980	-0.2392	26.20	0.52	-0.750			
0.8366	53542.88	3.2950	3.2950	-0.2345	26.20	0.52	-0.750			
0.8373	53587.09	3.2920	3.2920	-0.2291	26.20	0.52	-0.750			
0.8380	53630.67	3.2890	3.2890	-0.2250	26.20	0.52	-0.750			
0.8386	53673.47	3.2860	3.2860	-0.2204	26.21	0.53	-0.750			
0.8393	53715.33	3.2830	3.2830	-0.2164	26.21	0.53	-0.750			
0.8399	53756.48	3.2800	3.2800	-0.2125	26.21	0.53	-0.750			
0.8406	53796.88	3.2770	3.2771	-0.2084	26.21	0.53	-0.750			
0.8412	53836.38	3.2740	3.2740	-0.2044	26.22	0.54	-0.750			
0.8418	53875.07	3.2710	3.2710	-0.2008	26.22	0.54	-0.750			
0.8424	53913.21	3.2680	3.2680	-0.1973	26.22	0.54	-0.750			
0.8430	53950.80	3.2650	3.2651	-0.1944	26.22	0.54	-0.750			
0.8436	53987.92	3.2620	3.2620	-0.1913	26.23	0.55	-0.750			
0.8441	54024.15	3.2590	3.2590	-0.1881	26.23	0.55	-0.750			
0.8447	54060.00	3.2560	3.2561	-0.1853	26.23	0.55	-0.750			
0.8452	54095.25	3.2530	3.2530	-0.1829	26.23	0.55	-0.750			
0.8458	54129.87	3.2500	3.2500	-0.1813	26.24	0.56	-0.750			
0.8463	54164.28	3.2470	3.2470	-0.1793	26.24	0.56	-0.750			
0.8469	54198.60	3.2440	3.2440	-0.1782	26.25	0.57	-0.750			
0.8474	54232.87	3.2410	3.2408	-0.1754	26.25	0.57	-0.750			
0.8479	54266.59	3.2380	3.2380	-0.1736	26.25	0.57	-0.750			
0.8484	54299.79	3.2350	3.2351	-0.1713	26.26	0.58	-0.750			
0.8489	54332.41	3.2320	3.2320	-0.1685	26.26	0.58	-0.750			
0.8494	54364.37	3.2290	3.2289	-0.1668	26.26	0.58	-0.750			
0.8499	54395.84	3.2260	3.2260	-0.1643	26.27	0.59	-0.750			
0.8504	54427.12	3.2230	3.2230	-0.1626	26.27	0.59	-0.750			
0.8509	54458.23	3.2200	3.2200	-0.1614	26.28	0.60	-0.750			
0.8514	54489.40	3.2170	3.2170	-0.1599	26.28	0.60	-0.750			
0.8519	54519.91	3.2140	3.2140	-0.1576	26.28	0.60	-0.750			
0.8523	54549.87	3.2110	3.2110	-0.1564	26.29	0.61	-0.750			
0.8528	54579.73	3.2080	3.2080	-0.1547	26.29	0.61	-0.750			
0.8533	54609.09	3.2050	3.2050	-0.1529	26.29	0.61	-0.750			
0.8537	54638.35	3.2020	3.2019	-0.1517	26.30	0.62	-0.750			
0.8542	54667.22	3.1990	3.1990	-0.1502	26.30	0.62	-0.750			
0.8546	54695.95	3.1960	3.1961	-0.1491	26.30	0.62	-0.750			
0.8551	54724.65	3.1930	3.1930	-0.1476	26.31	0.63	-0.750			
0.8555	54752.94	3.1900	3.1900	-0.1463	26.31	0.63	-0.750			
0.8559	54780.70	3.1870	3.1870	-0.1442	26.31	0.63	-0.750			
0.8564	54808.24	3.1840	3.1841	-0.1429	26.31	0.63	-0.750			
0.8568	54835.57	3.1810	3.1810	-0.1418	26.32	0.64	-0.750			
0.8572	54862.54	3.1780	3.1779	-0.1404	26.32	0.64	-0.750			
0.8576	54889.16	3.1750	3.1750	-0.1395	26.32	0.64	-0.750			
0.8581	54916.09	3.1720	3.1720	-0.1382	26.33	0.65	-0.750			
0.8585	54942.60	3.1690	3.1690	-0.1375	26.33	0.65	-0.750			
0.8589	54968.90	3.1660	3.1660	-0.1364	26.34	0.66	-0.750			
0.8593	54995.02	3.1630	3.1630	-0.1354	26.34	0.66	-0.750			
0.8597	55020.97	3.1600	3.1599	-0.1342	26.34	0.66	-0.750			
0.8601	55046.59	3.1570	3.1569	-0.1329	26.35	0.67	-0.750			
0.8605	55071.99	3.1540	3.1541	-0.1319	26.35	0.67	-0.750			
0.8609	55097.18	3.1510	3.1511	-0.1304	26.35	0.67	-0.750			
0.8613	55122.39	3.1480	3.1479	-0.1295	26.36	0.68	-0.750			
0.8617	55146.73	3.1450	3.1450	-0.1287	26.36	0.68	-0.750			
0.8621	55171.45	3.1420	3.1420	-0.1279	26.36	0.68	-0.750			
0.8624	55195.86	3.1390	3.1389	-0.1271	26.37	0.69	-0.750			
0.8628	55220.25	3.1360	3.1360	-0.1261	26.37	0.69	-0.750			
0.8632	55244.49	3.1330	3.1331	-0.1254	26.37	0.69	-0.750			
0.8636	55268.56	3.1300	3.1300	-0.1242	26.38	0.70	-0.750			
0.8639	55292.50	3.1270	3.1269	-0.1232	26.38	0.70	-0.750			
0.8643	55315.90	3.1240	3.1240	-0.1221	26.38	0.70	-0.750			
0.8647	55338.96	3.1210	3.1211	-0.1207	26.39	0.71	-0.750			
0.8650	55362.06	3.1180	3.1180	-0.1201	26.39	0.71	-0.750			
0.8654	55385.05	3.1150	3.1150	-0.1193	26.39	0.71	-0.750			
0.8657	55407.82	3.1120	3.1121	-0.1184	26.40	0.72	-0.750			
0.8661	55430.48	3.1090	3.1089	-0.1177	26.40	0.72	-0.750			
0.8665	55453.17	3.1060	3.1060	-0.1168	26.40	0.72	-0.750			
0.8668	55475.49	3.1030	3.1029	-0.1157	26.41	0.73	-0.750			
0.8672	55497.64	3.1000	3.1000	-0.1148	26.41	0.73	-0.750			
0.8675	55519.46	3.0970	3.0970	-0.1139	26.41	0.73	-0.750			
0.8678	55541.16	3.0940	3.0940	-0.1129	26.42	0.74	-0.750			
0.8682	55562.65	3.0910	3.0910	-0.1125	26.42	0.74	-0.750			
0.8685	55584.03	3.0880	3.0880	-0.1117	26.42	0.74	-0.750			
0.8688	55605.59	3.0850	3.0850	-0.1112	26.42	0.74	-0.750			
0.8692	55626.98	3.0820	3.0820	-0.1109	26.42	0.74	-0.750			
0.8695	55648.34	3.0790	3.0790	-0.1099	26.42	0.74	-0.750			
0.8698	55669.50	3.0760	3.0761	-0.1092	26.42	0.74	-0.750			
0.8702	55690.32	3.0730	3.0731	-0.1081	26.42	0.74	-0.750			
0.8705	55711.08	3.0700	3.0699	-0.1072	26.42	0.74	-0.750			
0.8708	55731.42	3.0670	3.0669	-0.1063	26.42	0.74	-0.750			
0.8711	55751.56	3.0640	3.0640	-0.1052	26.42	0.74	-0.750			
0.8714	55771.66	3.0610	3.0611	-0.1047	26.42	0.74	-0.750			
0.8717	55791.61	3.0580	3.0580	-0.1041	26.42	0.74	-0.750			
0.8721	55811.57	3.0550	3.0550	-0.1037	26.42	0.74	-0.750			
0.8724	55831.45	3.0520	3.0519	-0.1033	26.42	0.74	-0.750			
0.8727	55851.32	3.0490	3.0490	-0.1026	26.42	0.74	-0.750			
0.8730	55871.04	3.0460	3.0460	-0.1021	26.42	0.74	-0.750			
0.8733	55890.59	3.0430	3.0430	-0.1013	26.42	0.74	-0.750			
0.8736	55910.05	3.0400	3.0401	-0.1006	26.42	0.74	-0.750			
0.8739	55929.31	3.0370	3.0369	-0.0996	26.42	0.74	-0.750			
0.8742	55948.38	3.0340	3.0341	-0.0987	26.42	0.74	-0.750			
0.8745	55967.13	3.0310	3.0310	-0.0981	26.42	0.74	-0.750			
0.8748	55985.79	3.0280	3.0280	-0.0973	26.42	0.74	-0.750			
0.8751	56004.44	3.0250	3.0249	-0.0967	26.42	0.74	-0.750			
0.8754	56022.91	3.0220	3.0219	-0.0961	26.42	0.74	-0.750			
0.8756	56041.23	3.0190	3.0191	-0.0958	26.42	0.74	-0.750			
0.8759	56059.49	3.0160	3.0161	-0.0954	26.42	0.74	-0.750			
0.8762	56077.79	3.0130	3.0130	-0.0952	26.42	0.74	-0.750			
0.8765	56096.08	3.0100	3.0099	-0.0949	26.42	0.74	-0.750			
0.8768	56114.28	3.0070	3.0070	-0.0947	26.42	0.74	-0.750			
0.8771	56132.52	3.0040	3.0039	-0.0965	26.42	0.74	-0.750			
