Ah_balance (normalized)	Ah_balance (mAh)	Voltage - fit (V)	Voltage -  interpolate (V)	dQ/dV (1/V)	Temperature (°C)	Temperature - diff (°C)	Current (C)	R_DC 0ms (mOhm)	R_DC 50ms (mOhm)	R_DC 50 ms PEC (mOhm)
0.1950	12482.64	3.9370	3.9366	-0.1178	25.62	0.00	-0.750			
0.1955	12509.61	3.9340	3.9338	-0.1636	25.62	0.00	-0.750			
0.1960	12544.89	3.9310	3.9309	-0.2109	25.62	0.00	-0.750			
0.1967	12590.52	3.9280	3.9280	-0.2594	25.62	-0.00	-0.750			
0.1976	12645.04	3.9250	3.9249	-0.3071	25.62	-0.00	-0.750			
0.1986	12708.87	3.9220	3.9220	-0.3517	25.62	-0.00	-0.750			
0.1997	12781.89	3.9190	3.9190	-0.3960	25.61	-0.01	-0.750			
0.2010	12863.44	3.9160	3.9160	-0.4370	25.61	-0.01	-0.750			
0.2024	12951.70	3.9130	3.9130	-0.4733	25.61	-0.01	-0.750			
0.2039	13046.67	3.9100	3.9100	-0.5073	25.61	-0.01	-0.750			
0.2054	13148.64	3.9070	3.9069	-0.5361	25.61	-0.01	-0.750			
0.2071	13255.27	3.9040	3.9040	-0.5623	25.60	-0.02	-0.750			
0.2088	13365.90	3.9010	3.9011	-0.5852	25.60	-0.02	-0.750			
0.2106	13481.32	3.8980	3.8980	-0.6055	25.60	-0.02	-0.750			
0.2125	13599.85	3.8950	3.8950	-0.6213	25.59	-0.03	-0.750			
0.2144	13720.14	3.8920	3.8920	-0.6379	25.59	-0.03	-0.750			
0.2163	13845.64	3.8890	3.8891	-0.6509	25.59	-0.03	-0.750			
0.2183	13972.29	3.8860	3.8860	-0.6588	25.58	-0.04	-0.750			
0.2203	14100.25	3.8830	3.8830	-0.6678	25.58	-0.04	-0.750			
0.2223	14228.90	3.8800	3.8800	-0.6744	25.58	-0.04	-0.750			
0.2244	14359.23	3.8770	3.8770	-0.6803	25.58	-0.04	-0.750			
0.2264	14489.87	3.8740	3.8740	-0.6860	25.58	-0.04	-0.750			
0.2285	14622.03	3.8710	3.8710	-0.6886	25.57	-0.05	-0.750			
0.2306	14755.80	3.8680	3.8680	-0.6948	25.57	-0.05	-0.750			
0.2327	14890.07	3.8650	3.8650	-0.6985	25.57	-0.05	-0.750			
0.2347	15023.95	3.8620	3.8620	-0.7000	25.57	-0.05	-0.750			
0.2369	15159.29	3.8590	3.8590	-0.6984	25.57	-0.05	-0.750			
0.2390	15293.07	3.8560	3.8560	-0.7015	25.57	-0.05	-0.750			
0.2410	15427.08	3.8530	3.8530	-0.7017	25.57	-0.05	-0.750			
0.2432	15562.69	3.8500	3.8499	-0.7018	25.57	-0.05	-0.750			
0.2453	15697.08	3.8470	3.8470	-0.7013	25.57	-0.05	-0.750			
0.2474	15831.63	3.8440	3.8441	-0.7027	25.57	-0.05	-0.750			
0.2495	15966.82	3.8410	3.8410	-0.7046	25.57	-0.05	-0.750			
0.2516	16103.02	3.8380	3.8379	-0.7069	25.57	-0.05	-0.750			
0.2537	16237.09	3.8350	3.8351	-0.7049	25.58	-0.04	-0.750			
0.2558	16373.63	3.8320	3.8320	-0.7082	25.58	-0.04	-0.750			
0.2580	16511.41	3.8290	3.8290	-0.7085	25.58	-0.04	-0.750			
0.2601	16646.87	3.8260	3.8259	-0.7058	25.58	-0.04	-0.750			
0.2622	16781.56	3.8230	3.8230	-0.7033	25.58	-0.04	-0.750			
0.2643	16916.15	3.8200	3.8200	-0.7026	25.58	-0.04	-0.750			
0.2664	17050.07	3.8170	3.8169	-0.7013	25.58	-0.04	-0.750			
0.2685	17185.27	3.8140	3.8140	-0.6997	25.58	-0.04	-0.750			
0.2706	17319.96	3.8110	3.8110	-0.6978	25.58	-0.04	-0.750			
0.2727	17455.05	3.8080	3.8080	-0.6990	25.58	-0.04	-0.750			
0.2748	17587.97	3.8050	3.8050	-0.6966	25.59	-0.03	-0.750			
0.2769	17720.83	3.8020	3.8020	-0.6962	25.59	-0.03	-0.750			
0.2790	17854.24	3.7990	3.7990	-0.6972	25.59	-0.03	-0.750			
0.2811	17988.22	3.7960	3.7959	-0.6979	25.60	-0.02	-0.750			
0.2832	18122.87	3.7930	3.7931	-0.7000	25.60	-0.02	-0.750			
0.2853	18257.95	3.7900	3.7900	-0.7020	25.60	-0.02	-0.750			
0.2874	18391.62	3.7870	3.7870	-0.7046	25.60	-0.02	-0.750			
0.2895	18526.80	3.7840	3.7840	-0.7056	25.60	-0.02	-0.750			
0.2916	18663.17	3.7810	3.7810	-0.7081	25.61	-0.01	-0.750			
0.2938	18800.41	3.7780	3.7779	-0.7104	25.61	-0.01	-0.750			
0.2959	18937.04	3.7750	3.7751	-0.7127	25.61	-0.01	-0.750			
0.2980	19073.88	3.7720	3.7719	-0.7144	25.61	-0.01	-0.750			
0.3002	19210.62	3.7690	3.7690	-0.7163	25.61	-0.01	-0.750			
0.3023	19346.90	3.7660	3.7660	-0.7177	25.61	-0.01	-0.750			
0.3045	19485.93	3.7630	3.7630	-0.7238	25.62	-0.00	-0.750			
0.3067	19626.09	3.7600	3.7600	-0.7302	25.62	-0.00	-0.750			
0.3089	19766.75	3.7570	3.7570	-0.7329	25.62	0.00	-0.750			
0.3111	19907.64	3.7540	3.7540	-0.7371	25.62	0.00	-0.750			
0.3133	20049.32	3.7510	3.7510	-0.7449	25.62	0.00	-0.750			
0.3155	20192.64	3.7480	3.7480	-0.7496	25.62	0.00	-0.750			
0.3178	20337.48	3.7450	3.7449	-0.7564	25.62	0.00	-0.750			
0.3201	20483.25	3.7420	3.7420	-0.7615	25.62	0.00	-0.750			
0.3223	20629.78	3.7390	3.7390	-0.7692	25.62	0.00	-0.750			
0.3246	20777.44	3.7360	3.7360	-0.7811	25.62	0.00	-0.750			
0.3270	20927.30	3.7330	3.7329	-0.7892	25.62	0.00	-0.750			
0.3294	21080.61	3.7300	3.7300	-0.7960	25.62	0.00	-0.750			
0.3318	21235.16	3.7270	3.7270	-0.8054	25.62	0.00	-0.750			
0.3342	21390.95	3.7240	3.7241	-0.8146	25.62	0.00	-0.750			
0.3367	21548.34	3.7210	3.7209	-0.8209	25.62	0.00	-0.750			
0.3391	21704.96	3.7180	3.7180	-0.8294	25.62	0.00	-0.750			
0.3416	21864.69	3.7150	3.7149	-0.8398	25.62	0.00	-0.750			
0.3442	22026.52	3.7120	3.7120	-0.8558	25.62	0.00	-0.750			
0.3468	22192.60	3.7090	3.7090	-0.8697	25.62	-0.00	-0.750			
0.3494	22360.98	3.7060	3.7060	-0.8820	25.62	-0.00	-0.750			
0.3521	22532.29	3.7030	3.7030	-0.8921	25.62	-0.00	-0.750			
0.3548	22704.54	3.7000	3.7000	-0.9054	25.61	-0.01	-0.750			
0.3575	22879.05	3.6970	3.6970	-0.9174	25.61	-0.01	-0.750			
0.3602	23055.68	3.6940	3.6940	-0.9324	25.61	-0.01	-0.750			
0.3631	23235.57	3.6910	3.6910	-0.9506	25.61	-0.01	-0.750			
0.3659	23420.65	3.6880	3.6879	-0.9701	25.60	-0.02	-0.750			
0.3689	23609.60	3.6850	3.6850	-0.9883	25.60	-0.02	-0.750			
0.3719	23801.20	3.6820	3.6821	-1.0069	25.60	-0.02	-0.750			
0.3749	23995.33	3.6790	3.6790	-1.0275	25.60	-0.02	-0.750			
0.3780	24194.73	3.6760	3.6760	-1.0489	25.60	-0.02	-0.750			
0.3812	24394.36	3.6730	3.6730	-1.0650	25.60	-0.02	-0.750			
0.3844	24604.24	3.6700	3.6700	-1.0982	25.60	-0.02	-0.750			
0.3878	24817.77	3.6670	3.6670	-1.1184	25.59	-0.03	-0.750			
0.3912	25035.11	3.6640	3.6640	-1.1408	25.59	-0.03	-0.750			
0.3946	25255.06	3.6610	3.6610	-1.1669	25.58	-0.04	-0.750			
0.3981	25479.90	3.6580	3.6580	-1.1914	25.58	-0.04	-0.750			
0.4017	25711.79	3.6550	3.6550	-1.2211	25.58	-0.04	-0.750			
0.4055	25948.81	3.6520	3.6520	-1.2488	25.57	-0.05	-0.750			
0.4092	26191.69	3.6490	3.6491	-1.2736	25.57	-0.05	-0.750			
0.4131	26440.12	3.6460	3.6460	-1.3031	25.57	-0.05	-0.750			
0.4171	26692.51	3.6430	3.6430	-1.3310	25.56	-0.06	-0.750			
0.4211	26950.26	3.6400	3.6400	-1.3633	25.56	-0.06	-0.750			
0.4252	27215.23	3.6370	3.6370	-1.3906	25.55	-0.07	-0.750			
0.4295	27485.01	3.6340	3.6340	-1.4213	25.55	-0.07	-0.750			
0.4338	27761.02	3.6310	3.6312	-1.4632	25.54	-0.08	-0.750			
0.4382	28046.51	3.6280	3.6279	-1.4951	25.54	-0.08	-0.750			
0.4428	28336.11	3.6250	3.6249	-1.5277	25.54	-0.08	-0.750			
0.4474	28633.81	3.6220	3.6221	-1.5593	25.54	-0.08	-0.750			
0.4522	28938.85	3.6190	3.6191	-1.5970	25.54	-0.08	-0.750			
0.4570	29247.22	3.6160	3.6160	-1.6262	25.53	-0.09	-0.750			
0.4618	29558.00	3.6130	3.6132	-1.6496	25.53	-0.09	-0.750			
0.4669	29884.36	3.6100	3.6100	-1.6840	25.54	-0.08	-0.750			
0.4720	30208.92	3.6070	3.6070	-1.7131	25.54	-0.08	-0.750			
0.4772	30538.76	3.6040	3.6040	-1.7428	25.53	-0.09	-0.750			
0.4824	30876.69	3.6010	3.6009	-1.7832	25.52	-0.10	-0.750			
0.4878	31219.82	3.5980	3.5979	-1.8112	25.52	-0.10	-0.750			
0.4933	31570.28	3.5950	3.5950	-1.8495	25.52	-0.10	-0.750			
0.4989	31928.94	3.5920	3.5920	-1.8904	25.52	-0.10	-0.750			
0.5048	32304.55	3.5890	3.5889	-1.9193	25.52	-0.10	-0.750			
0.5105	32674.27	3.5860	3.5860	-1.9402	25.52	-0.10	-0.750			
0.5164	33048.28	3.5830	3.5831	-1.9571	25.53	-0.09	-0.750			
0.5222	33421.65	3.5800	3.5800	-1.9831	25.53	-0.09	-0.750			
0.5282	33802.49	3.5770	3.5770	-2.0088	25.53	-0.09	-0.750			
0.5342	34190.97	3.5740	3.5739	-2.0425	25.53	-0.09	-0.750	0.391	0.551	
0.5404	34588.33	3.5710	3.5712	-2.0837	25.53	-0.09	-0.750			
0.5468	34995.84	3.5680	3.5680	-2.0887	25.53	-0.09	-0.750			
0.5532	35401.88	3.5650	3.5649	-2.0978	25.54	-0.08	-0.750			
0.5593	35798.39	3.5620	3.5621	-2.1135	25.54	-0.08	-0.750			
0.5658	36208.26	3.5590	3.5589	-2.1041	25.54	-0.08	-0.750			
0.5721	36614.34	3.5560	3.5560	-2.1147	25.54	-0.08	-0.750			
0.5784	37018.50	3.5530	3.5531	-2.1138	25.55	-0.07	-0.750			
0.5848	37426.59	3.5500	3.5500	-2.1180	25.55	-0.07	-0.750			
0.5911	37832.51	3.5470	3.5470	-2.1194	25.56	-0.06	-0.750			
0.5975	38238.49	3.5440	3.5440	-2.1062	25.56	-0.06	-0.750			
0.6038	38642.85	3.5410	3.5411	-2.0848	25.56	-0.06	-0.750			
0.6101	39047.64	3.5380	3.5379	-2.0543	25.56	-0.06	-0.750			
0.6162	39436.53	3.5350	3.5350	-2.0263	25.57	-0.05	-0.750			
0.6222	39818.69	3.5320	3.5321	-1.9823	25.57	-0.05	-0.750			
0.6281	40201.32	3.5290	3.5288	-1.9577	25.58	-0.04	-0.750			
0.6340	40572.87	3.5260	3.5261	-1.9141	25.58	-0.04	-0.750			
0.6396	40935.58	3.5230	3.5232	-1.8691	25.59	-0.03	-0.750			
0.6452	41294.25	3.5200	3.5199	-1.8481	25.60	-0.02	-0.750			
0.6507	41643.62	3.5170	3.5170	-1.7916	25.61	-0.01	-0.750			
0.6560	41986.30	3.5140	3.5139	-1.7511	25.62	-0.00	-0.750			
0.6612	42316.39	3.5110	3.5110	-1.6974	25.63	0.01	-0.750			
0.6663	42640.55	3.5080	3.5080	-1.6625	25.64	0.02	-0.750			
0.6712	42954.24	3.5050	3.5053	-1.6113	25.65	0.03	-0.750			
0.6759	43257.78	3.5020	3.5020	-1.5579	25.66	0.04	-0.750			
0.6805	43551.83	3.4990	3.4989	-1.5152	25.66	0.04	-0.750			
0.6850	43840.02	3.4960	3.4960	-1.4724	25.67	0.05	-0.750			
0.6894	44118.58	3.4930	3.4930	-1.4298	25.68	0.06	-0.750			
0.6935	44385.06	3.4900	3.4900	-1.3841	25.69	0.07	-0.750			
0.6976	44646.22	3.4870	3.4870	-1.3379	25.70	0.08	-0.750			
0.7016	44901.38	3.4840	3.4840	-1.3039	25.71	0.09	-0.750			
0.7054	45146.29	3.4810	3.4810	-1.2628	25.71	0.09	-0.750			
0.7091	45382.96	3.4780	3.4781	-1.2267	25.72	0.10	-0.750			
0.7128	45616.58	3.4750	3.4750	-1.1957	25.73	0.11	-0.750			
0.7163	45840.98	3.4720	3.4719	-1.1626	25.74	0.12	-0.750			
0.7197	46060.13	3.4690	3.4690	-1.1386	25.75	0.13	-0.750			
0.7231	46276.22	3.4660	3.4660	-1.1255	25.75	0.13	-0.750			
0.7264	46488.49	3.4630	3.4630	-1.1067	25.76	0.14	-0.750			
0.7297	46698.32	3.4600	3.4599	-1.0958	25.76	0.14	-0.750			
0.7329	46908.04	3.4570	3.4571	-1.0883	25.77	0.15	-0.750			
0.7362	47117.36	3.4540	3.4540	-1.0900	25.77	0.15	-0.750			
0.7395	47326.62	3.4510	3.4509	-1.0839	25.78	0.16	-0.750			
0.7427	47534.54	3.4480	3.4479	-1.0769	25.78	0.16	-0.750			
0.7459	47739.18	3.4450	3.4453	-1.0688	25.79	0.17	-0.750			
0.7492	47945.63	3.4420	3.4420	-1.0668	25.80	0.18	-0.750			
0.7523	48149.38	3.4390	3.4390	-1.0590	25.80	0.18	-0.750			
0.7555	48351.15	3.4360	3.4359	-1.0505	25.81	0.19	-0.750			
0.7586	48552.94	3.4330	3.4332	-1.0491	25.82	0.20	-0.750			
0.7618	48753.59	3.4300	3.4300	-1.0405	25.83	0.21	-0.750			
0.7649	48953.69	3.4270	3.4270	-1.0340	25.83	0.21	-0.750			
0.7680	49152.02	3.4240	3.4240	-1.0199	25.84	0.22	-0.750			
0.7710	49345.91	3.4210	3.4210	-1.0080	25.84	0.22	-0.750			
0.7741	49539.60	3.4180	3.4180	-0.9960	25.85	0.23	-0.750			
0.7771	49731.30	3.4150	3.4149	-0.9773	25.85	0.23	-0.750			
0.7800	49917.78	3.4120	3.4119	-0.9527	25.86	0.24	-0.750			
0.7828	50098.56	3.4090	3.4091	-0.9298	25.87	0.25	-0.750			
0.7855	50275.07	3.4060	3.4059	-0.9063	25.87	0.25	-0.750			
0.7882	50446.53	3.4030	3.4030	-0.8827	25.87	0.25	-0.750			
0.7908	50611.18	3.4000	3.4000	-0.8558	25.88	0.26	-0.750			
0.7933	50773.43	3.3970	3.3970	-0.8315	25.88	0.26	-0.750			
0.7958	50933.50	3.3940	3.3940	-0.8112	25.88	0.26	-0.750			
0.7982	51086.94	3.3910	3.3910	-0.7800	25.89	0.27	-0.750			
0.8005	51233.84	3.3880	3.3880	-0.7511	25.89	0.27	-0.750			
0.8027	51375.46	3.3850	3.3850	-0.7230	25.90	0.28	-0.750			
0.8049	51511.50	3.3820	3.3819	-0.6898	25.91	0.29	-0.750			
0.8069	51641.08	3.3790	3.3790	-0.6600	25.91	0.29	-0.750			
0.8088	51764.45	3.3760	3.3761	-0.6317	25.92	0.30	-0.750			
0.8107	51882.98	3.3730	3.3730	-0.6016	25.92	0.30	-0.750			
0.8124	51995.51	3.3700	3.3699	-0.5747	25.93	0.31	-0.750			
0.8141	52101.88	3.3670	3.3670	-0.5442	25.93	0.31	-0.750			
0.8157	52203.24	3.3640	3.3641	-0.5217	25.94	0.32	-0.750			
0.8172	52301.74	3.3610	3.3610	-0.4983	25.94	0.32	-0.750			
0.8187	52394.48	3.3580	3.3580	-0.4728	25.94	0.32	-0.750			
0.8200	52482.98	3.3550	3.3550	-0.4502	25.95	0.33	-0.750			
0.8214	52567.15	3.3520	3.3521	-0.4312	25.95	0.33	-0.750			
0.8226	52647.19	3.3490	3.3490	-0.4110	25.96	0.34	-0.750			
0.8238	52723.83	3.3460	3.3459	-0.3937	25.96	0.34	-0.750			
0.8249	52796.80	3.3430	3.3429	-0.3768	25.97	0.35	-0.750			
0.8261	52867.82	3.3400	3.3401	-0.3638	25.97	0.35	-0.750			
0.8271	52936.30	3.3370	3.3370	-0.3498	25.97	0.35	-0.750			
0.8282	53002.25	3.3340	3.3340	-0.3368	25.98	0.36	-0.750			
0.8291	53065.35	3.3310	3.3310	-0.3242	25.98	0.36	-0.750			
0.8301	53125.70	3.3280	3.3280	-0.3131	25.99	0.37	-0.750			
0.8310	53184.77	3.3250	3.3250	-0.3028	25.99	0.37	-0.750			
0.8319	53241.44	3.3220	3.3220	-0.2932	25.99	0.37	-0.750			
0.8328	53296.70	3.3190	3.3190	-0.2849	26.00	0.38	-0.750			
0.8336	53350.85	3.3160	3.3160	-0.2771	26.00	0.38	-0.750			
0.8344	53403.17	3.3130	3.3129	-0.2694	26.00	0.38	-0.750			
0.8352	53454.00	3.3100	3.3101	-0.2616	26.01	0.39	-0.750			
0.8360	53503.59	3.3070	3.3070	-0.2544	26.01	0.39	-0.750			
0.8367	53551.74	3.3040	3.3039	-0.2483	26.02	0.40	-0.750			
0.8375	53598.43	3.3010	3.3010	-0.2417	26.02	0.40	-0.750			
0.8382	53643.66	3.2980	3.2980	-0.2359	26.02	0.40	-0.750			
0.8389	53688.52	3.2950	3.2950	-0.2313	26.03	0.41	-0.750			
0.8396	53732.50	3.2920	3.2920	-0.2264	26.03	0.41	-0.750			
0.8402	53775.44	3.2890	3.2890	-0.2213	26.03	0.41	-0.750			
0.8409	53817.27	3.2860	3.2860	-0.2175	26.03	0.41	-0.750			
0.8415	53858.64	3.2830	3.2831	-0.2135	26.04	0.42	-0.750			
0.8422	53899.12	3.2800	3.2800	-0.2092	26.04	0.42	-0.750			
0.8428	53938.86	3.2770	3.2769	-0.2055	26.04	0.42	-0.750			
0.8434	53977.74	3.2740	3.2740	-0.2016	26.05	0.43	-0.750			
0.8440	54016.13	3.2710	3.2711	-0.1984	26.05	0.43	-0.750			
0.8446	54054.05	3.2680	3.2680	-0.1954	26.05	0.43	-0.750			
0.8452	54091.32	3.2650	3.2650	-0.1920	26.06	0.44	-0.750			
0.8457	54127.49	3.2620	3.2621	-0.1884	26.06	0.44	-0.750			
0.8463	54163.40	3.2590	3.2590	-0.1857	26.06	0.44	-0.750			
0.8469	54198.88	3.2560	3.2560	-0.1834	26.07	0.45	-0.750			
0.8474	54233.69	3.2530	3.2530	-0.1809	26.07	0.45	-0.750			
0.8479	54268.03	3.2500	3.2499	-0.1788	26.07	0.45	-0.750			
0.8485	54302.08	3.2470	3.2471	-0.1768	26.08	0.46	-0.750			
0.8490	54335.89	3.2440	3.2438	-0.1753	26.08	0.46	-0.750			
0.8495	54369.55	3.2410	3.2410	-0.1734	26.08	0.46	-0.750			
0.8500	54402.74	3.2380	3.2380	-0.1711	26.09	0.47	-0.750			
0.8506	54435.36	3.2350	3.2350	-0.1688	26.09	0.47	-0.750			
0.8511	54467.52	3.2320	3.2321	-0.1675	26.10	0.48	-0.750			
0.8516	54499.37	3.2290	3.2290	-0.1660	26.10	0.48	-0.750			
0.8520	54531.17	3.2260	3.2258	-0.1637	26.10	0.48	-0.750			
0.8525	54562.43	3.2230	3.2231	-0.1619	26.11	0.49	-0.750			
0.8530	54593.41	3.2200	3.2200	-0.1597	26.11	0.49	-0.750			
0.8535	54624.08	3.2170	3.2171	-0.1578	26.11	0.49	-0.750			
0.8540	54654.11	3.2140	3.2141	-0.1561	26.12	0.50	-0.750			
0.8544	54683.85	3.2110	3.2109	-0.1538	26.12	0.50	-0.750			
0.8549	54712.77	3.2080	3.2080	-0.1521	26.12	0.50	-0.750			
0.8553	54741.67	3.2050	3.2050	-0.1506	26.13	0.51	-0.750			
0.8558	54770.73	3.2020	3.2019	-0.1496	26.13	0.51	-0.750			
0.8562	54799.31	3.1990	3.1990	-0.1481	26.13	0.51	-0.750			
0.8567	54827.59	3.1960	3.1960	-0.1469	26.14	0.52	-0.750			
0.8571	54855.68	3.1930	3.1930	-0.1456	26.14	0.52	-0.750			
0.8576	54883.42	3.1900	3.1900	-0.1441	26.14	0.52	-0.750			
0.8580	54910.95	3.1870	3.1870	-0.1429	26.15	0.53	-0.750			
0.8584	54938.22	3.1840	3.1840	-0.1418	26.15	0.53	-0.750			
0.8588	54965.52	3.1810	3.1810	-0.1402	26.15	0.53	-0.750			
0.8593	54992.46	3.1780	3.1780	-0.1389	26.16	0.54	-0.750			
0.8597	55018.87	3.1750	3.1750	-0.1376	26.16	0.54	-0.750			
0.8601	55044.94	3.1720	3.1721	-0.1367	26.16	0.54	-0.750			
0.8605	55071.17	3.1690	3.1690	-0.1353	26.17	0.55	-0.750			
0.8609	55097.03	3.1660	3.1659	-0.1341	26.17	0.55	-0.750			
0.8613	55122.66	3.1630	3.1630	-0.1326	26.17	0.55	-0.750			
0.8617	55147.91	3.1600	3.1601	-0.1318	26.18	0.56	-0.750			
0.8621	55173.25	3.1570	3.1570	-0.1311	26.18	0.56	-0.750			
0.8625	55198.29	3.1540	3.1539	-0.1298	26.19	0.57	-0.750			
0.8629	55222.88	3.1510	3.1509	-0.1286	26.19	0.57	-0.750			
0.8632	55247.32	3.1480	3.1481	-0.1277	26.19	0.57	-0.750			
0.8636	55271.95	3.1450	3.1450	-0.1275	26.20	0.58	-0.750			
0.8640	55296.40	3.1420	3.1420	-0.1264	26.20	0.58	-0.750			
0.8644	55320.65	3.1390	3.1390	-0.1255	26.20	0.58	-0.750			
0.8648	55344.52	3.1360	3.1361	-0.1242	26.21	0.59	-0.750			
0.8651	55368.44	3.1330	3.1330	-0.1234	26.21	0.59	-0.750			
0.8655	55391.99	3.1300	3.1300	-0.1223	26.21	0.59	-0.750			
0.8659	55415.38	3.1270	3.1270	-0.1212	26.22	0.60	-0.750			
0.8662	55438.26	3.1240	3.1240	-0.1204	26.22	0.60	-0.750			
0.8666	55461.34	3.1210	3.1211	-0.1200	26.22	0.60	-0.750			
0.8669	55484.45	3.1180	3.1179	-0.1190	26.23	0.61	-0.750			
0.8673	55507.22	3.1150	3.1150	-0.1182	26.23	0.61	-0.750			
0.8677	55530.00	3.1120	3.1121	-0.1171	26.23	0.61	-0.750			
0.8680	55552.37	3.1090	3.1090	-0.1158	26.24	0.62	-0.750			
0.8684	55574.43	3.1060	3.1060	-0.1152	26.24	0.62	-0.750			
0.8687	55596.45	3.1030	3.1030	-0.1142	26.24	0.62	-0.750			
0.8690	55617.98	3.1000	3.1000	-0.1131	26.25	0.63	-0.750			
0.8694	55639.66	3.0970	3.0969	-0.1127	26.25	0.63	-0.750			
0.8697	55661.30	3.0940	3.0941	-0.1122	26.25	0.63	-0.750			
0.8700	55682.90	3.0910	3.0910	-0.1115	26.25	0.63	-0.750			
0.8704	55704.24	3.0880	3.0879	-0.1108	26.26	0.64	-0.750			
0.8707	55725.57	3.0850	3.0850	-0.1102	26.26	0.64	-0.750			
0.8710	55746.59	3.0820	3.0820	-0.1092	26.26	0.64	-0.750			
0.8714	55767.57	3.0790	3.0790	-0.1082	26.26	0.64	-0.750			
0.8717	55788.31	3.0760	3.0760	-0.1073	26.27	0.65	-0.750			
0.8720	55808.61	3.0730	3.0730	-0.1067	26.27	0.65	-0.750			
0.8723	55828.91	3.0700	3.0701	-0.1058	26.28	0.66	-0.750			
0.8726	55849.23	3.0670	3.0669	-0.1051	26.28	0.66	-0.750			
0.8730	55869.34	3.0640	3.0639	-0.1045	26.28	0.66	-0.750			
0.8733	55889.33	3.0610	3.0610	-0.1039	26.29	0.67	-0.750			
0.8736	55909.16	3.0580	3.0581	-0.1033	26.29	0.67	-0.750			
0.8739	55929.06	3.0550	3.0550	-0.1024	26.30	0.68	-0.750			
0.8742	55948.88	3.0520	3.0519	-0.1020	26.30	0.68	-0.750			
0.8745	55968.29	3.0490	3.0490	-0.1011	26.30	0.68	-0.750			
0.8748	55987.50	3.0460	3.0460	-0.1000	26.31	0.69	-0.750			
0.8751	56006.51	3.0430	3.0431	-0.0995	26.31	0.69	-0.750			
0.8754	56025.54	3.0400	3.0400	-0.0989	26.32	0.70	-0.750			
0.8757	56044.46	3.0370	3.0370	-0.0985	26.32	0.70	-0.750			
0.8760	56063.16	3.0340	3.0340	-0.0978	26.32	0.70	-0.750			
0.8763	56082.00	3.0310	3.0310	-0.0974	26.33	0.71	-0.750			
0.8766	56100.77	3.0280	3.0280	-0.0972	26.33	0.71	-0.750			
0.8769	56119.49	3.0250	3.0250	-0.0963	26.33	0.71	-0.750			
0.8772	56138.06	3.0220	3.0219	-0.0958	26.34	0.72	-0.750			
0.8774	56156.24	3.0190	3.0191	-0.0950	26.34	0.72	-0.750			
0.8777	56174.35	3.0160	3.0160	-0.0941	26.35	0.73	-0.750			
0.8780	56192.36	3.0130	3.0130	-0.0934	26.35	0.73	-0.750			
0.8783	56210.15	3.0100	3.0099	-0.0928	26.35	0.73	-0.750			
0.8786	56227.91	3.0070	3.0070	-0.0922	26.36	0.74	-0.750			
0.8788	56245.54	3.0040	3.0040	-0.0934	26.36	0.74	-0.750			
