Ah_balance (normalized)	Ah_balance (mAh)	Voltage - fit (V)	Voltage -  interpolate (V)	dQ/dV (1/V)	Temperature (°C)	Temperature - diff (°C)	Current (C)	R_DC 0ms (mOhm)	R_DC 50ms (mOhm)	R_DC 50 ms PEC (mOhm)
0.2002	12812.92	3.9370	3.9367	-0.1023	25.56	0.00	-0.750			
0.2006	12838.40	3.9340	3.9339	-0.1572	25.56	0.00	-0.750			
0.2011	12873.40	3.9310	3.9309	-0.2054	25.56	0.00	-0.750			
0.2018	12917.96	3.9280	3.9280	-0.2516	25.56	0.00	-0.750			
0.2027	12970.83	3.9250	3.9250	-0.2961	25.56	0.00	-0.750			
0.2036	13032.07	3.9220	3.9220	-0.3400	25.56	0.00	-0.750			
0.2047	13102.56	3.9190	3.9190	-0.3826	25.56	0.00	-0.750			
0.2060	13181.02	3.9160	3.9160	-0.4208	25.56	0.00	-0.750			
0.2073	13266.10	3.9130	3.9130	-0.4567	25.56	0.00	-0.750			
0.2087	13358.20	3.9100	3.9100	-0.4898	25.56	0.00	-0.750			
0.2102	13455.75	3.9070	3.9070	-0.5199	25.56	0.00	-0.750			
0.2119	13559.97	3.9040	3.9039	-0.5406	25.56	0.00	-0.750			
0.2135	13666.22	3.9010	3.9010	-0.5589	25.56	0.00	-0.750			
0.2153	13776.12	3.8980	3.8981	-0.5788	25.56	0.00	-0.750			
0.2170	13889.41	3.8950	3.8948	-0.5921	25.56	0.00	-0.750			
0.2188	14004.65	3.8920	3.8920	-0.6094	25.56	0.00	-0.750			
0.2207	14123.35	3.8890	3.8890	-0.6221	25.56	0.00	-0.750			
0.2226	14244.77	3.8860	3.8859	-0.6352	25.56	0.00	-0.750			
0.2245	14369.33	3.8830	3.8831	-0.6462	25.56	-0.00	-0.750			
0.2265	14494.33	3.8800	3.8800	-0.6526	25.56	-0.00	-0.750			
0.2284	14619.73	3.8770	3.8770	-0.6582	25.55	-0.01	-0.750			
0.2304	14746.61	3.8740	3.8741	-0.6630	25.55	-0.01	-0.750			
0.2324	14876.33	3.8710	3.8710	-0.6712	25.55	-0.01	-0.750			
0.2345	15006.02	3.8680	3.8679	-0.6764	25.54	-0.02	-0.750			
0.2365	15136.53	3.8650	3.8652	-0.6758	25.54	-0.02	-0.750			
0.2386	15267.33	3.8620	3.8619	-0.6770	25.54	-0.02	-0.750			
0.2406	15396.17	3.8590	3.8590	-0.6786	25.55	-0.01	-0.750			
0.2426	15526.13	3.8560	3.8560	-0.6762	25.55	-0.01	-0.750			
0.2446	15656.96	3.8530	3.8530	-0.6798	25.55	-0.01	-0.750			
0.2467	15786.46	3.8500	3.8500	-0.6808	25.56	-0.00	-0.750			
0.2487	15917.04	3.8470	3.8471	-0.6836	25.56	-0.00	-0.750			
0.2508	16049.49	3.8440	3.8439	-0.6873	25.56	0.00	-0.750			
0.2528	16181.44	3.8410	3.8410	-0.6875	25.56	0.00	-0.750			
0.2549	16313.30	3.8380	3.8380	-0.6881	25.56	0.00	-0.750			
0.2570	16446.40	3.8350	3.8350	-0.6885	25.56	0.00	-0.750			
0.2590	16578.87	3.8320	3.8320	-0.6902	25.56	0.00	-0.750			
0.2611	16711.10	3.8290	3.8290	-0.6904	25.56	0.00	-0.750			
0.2632	16844.02	3.8260	3.8259	-0.6872	25.56	0.00	-0.750			
0.2652	16975.67	3.8230	3.8230	-0.6873	25.56	0.00	-0.750			
0.2673	17107.50	3.8200	3.8201	-0.6899	25.56	0.00	-0.750			
0.2694	17239.90	3.8170	3.8170	-0.6895	25.57	0.01	-0.750			
0.2715	17373.22	3.8140	3.8139	-0.6892	25.57	0.01	-0.750			
0.2735	17504.53	3.8110	3.8111	-0.6897	25.57	0.01	-0.750			
0.2756	17637.58	3.8080	3.8080	-0.6905	25.57	0.01	-0.750			
0.2777	17770.86	3.8050	3.8050	-0.6903	25.57	0.01	-0.750			
0.2797	17902.23	3.8020	3.8020	-0.6884	25.57	0.01	-0.750			
0.2818	18034.03	3.7990	3.7990	-0.6896	25.58	0.02	-0.750			
0.2839	18167.38	3.7960	3.7960	-0.6915	25.58	0.02	-0.750			
0.2859	18300.09	3.7930	3.7930	-0.6919	25.58	0.02	-0.750			
0.2880	18432.56	3.7900	3.7900	-0.6902	25.58	0.02	-0.750			
0.2901	18565.56	3.7870	3.7870	-0.6927	25.58	0.02	-0.750			
0.2922	18698.55	3.7840	3.7841	-0.6958	25.58	0.02	-0.750			
0.2942	18831.73	3.7810	3.7810	-0.6987	25.58	0.02	-0.750			
0.2963	18966.30	3.7780	3.7780	-0.7027	25.58	0.02	-0.750			
0.2985	19102.06	3.7750	3.7751	-0.7069	25.58	0.02	-0.750			
0.3006	19238.51	3.7720	3.7719	-0.7083	25.58	0.02	-0.750			
0.3027	19374.80	3.7690	3.7690	-0.7109	25.59	0.03	-0.750			
0.3048	19510.24	3.7660	3.7660	-0.7167	25.59	0.03	-0.750			
0.3070	19648.82	3.7630	3.7629	-0.7178	25.59	0.03	-0.750			
0.3092	19787.71	3.7600	3.7599	-0.7211	25.60	0.04	-0.750			
0.3114	19926.86	3.7570	3.7572	-0.7221	25.60	0.04	-0.750			
0.3135	20065.79	3.7540	3.7540	-0.7264	25.60	0.04	-0.750			
0.3157	20204.93	3.7510	3.7510	-0.7316	25.60	0.04	-0.750			
0.3179	20343.41	3.7480	3.7480	-0.7340	25.60	0.04	-0.750			
0.3201	20485.94	3.7450	3.7450	-0.7425	25.60	0.04	-0.750			
0.3223	20629.51	3.7420	3.7420	-0.7516	25.60	0.04	-0.750			
0.3246	20775.01	3.7390	3.7390	-0.7569	25.60	0.04	-0.750			
0.3269	20921.34	3.7360	3.7361	-0.7624	25.60	0.04	-0.750			
0.3292	21066.52	3.7330	3.7330	-0.7676	25.60	0.04	-0.750			
0.3315	21214.70	3.7300	3.7299	-0.7745	25.60	0.04	-0.750			
0.3338	21363.85	3.7270	3.7270	-0.7824	25.60	0.04	-0.750			
0.3362	21514.88	3.7240	3.7239	-0.7898	25.60	0.04	-0.750			
0.3386	21667.68	3.7210	3.7210	-0.7996	25.60	0.04	-0.750			
0.3410	21822.73	3.7180	3.7180	-0.8119	25.60	0.04	-0.750			
0.3434	21979.35	3.7150	3.7149	-0.8196	25.60	0.04	-0.750			
0.3459	22137.34	3.7120	3.7121	-0.8293	25.60	0.04	-0.750			
0.3484	22297.74	3.7090	3.7091	-0.8408	25.60	0.04	-0.750			
0.3509	22458.99	3.7060	3.7060	-0.8547	25.60	0.04	-0.750			
0.3535	22624.27	3.7030	3.7030	-0.8670	25.60	0.04	-0.750			
0.3561	22790.75	3.7000	3.7000	-0.8827	25.60	0.04	-0.750			
0.3588	22961.07	3.6970	3.6970	-0.9005	25.60	0.04	-0.750			
0.3615	23137.07	3.6940	3.6941	-0.9216	25.60	0.04	-0.750			
0.3643	23316.12	3.6910	3.6910	-0.9408	25.60	0.04	-0.750			
0.3672	23499.58	3.6880	3.6880	-0.9576	25.60	0.04	-0.750			
0.3701	23683.97	3.6850	3.6850	-0.9797	25.60	0.04	-0.750			
0.3730	23874.60	3.6820	3.6820	-1.0009	25.60	0.04	-0.750			
0.3761	24068.09	3.6790	3.6789	-1.0208	25.60	0.04	-0.750			
0.3792	24265.72	3.6760	3.6760	-1.0410	25.60	0.04	-0.750			
0.3823	24468.55	3.6730	3.6730	-1.0586	25.60	0.04	-0.750			
0.3855	24672.88	3.6700	3.6700	-1.0800	25.60	0.04	-0.750			
0.3888	24883.02	3.6670	3.6670	-1.1098	25.60	0.04	-0.750			
0.3921	25097.02	3.6640	3.6640	-1.1304	25.59	0.03	-0.750			
0.3956	25315.99	3.6610	3.6609	-1.1598	25.59	0.03	-0.750			
0.3991	25542.32	3.6580	3.6582	-1.1840	25.58	0.02	-0.750			
0.4027	25774.00	3.6550	3.6549	-1.2122	25.58	0.02	-0.750			
0.4064	26009.54	3.6520	3.6520	-1.2368	25.58	0.02	-0.750			
0.4101	26246.87	3.6490	3.6490	-1.2590	25.58	0.02	-0.750			
0.4139	26491.39	3.6460	3.6459	-1.2901	25.58	0.02	-0.750			
0.4178	26742.11	3.6430	3.6430	-1.3161	25.58	0.02	-0.750			
0.4218	26995.73	3.6400	3.6400	-1.3419	25.58	0.02	-0.750			
0.4259	27257.08	3.6370	3.6371	-1.3735	25.58	0.02	-0.750			
0.4301	27524.63	3.6340	3.6340	-1.4012	25.58	0.02	-0.750			
0.4343	27793.75	3.6310	3.6310	-1.4343	25.58	0.02	-0.750			
0.4386	28070.65	3.6280	3.6280	-1.4646	25.58	0.02	-0.750			
0.4431	28356.38	3.6250	3.6250	-1.4966	25.57	0.01	-0.750			
0.4476	28648.88	3.6220	3.6219	-1.5273	25.57	0.01	-0.750			
0.4522	28942.62	3.6190	3.6192	-1.5675	25.57	0.01	-0.750			
0.4570	29249.54	3.6160	3.6160	-1.5912	25.58	0.02	-0.750			
0.4618	29558.30	3.6130	3.6131	-1.6172	25.58	0.02	-0.750			
0.4667	29867.81	3.6100	3.6100	-1.6399	25.58	0.02	-0.750			
0.4716	30184.96	3.6070	3.6071	-1.6752	25.58	0.02	-0.750			
0.4767	30509.27	3.6040	3.6038	-1.7110	25.58	0.02	-0.750			
0.4819	30840.92	3.6010	3.6009	-1.7461	25.59	0.03	-0.750			
0.4872	31178.07	3.5980	3.5980	-1.7806	25.59	0.03	-0.750			
0.4927	31529.78	3.5950	3.5949	-1.8198	25.60	0.04	-0.750			
0.4981	31881.20	3.5920	3.5922	-1.8444	25.60	0.04	-0.750			
0.5037	32239.42	3.5890	3.5889	-1.8651	25.59	0.03	-0.750			
0.5094	32600.41	3.5860	3.5860	-1.8986	25.58	0.02	-0.750			
0.5151	32965.78	3.5830	3.5830	-1.9174	25.59	0.03	-0.750			
0.5209	33338.39	3.5800	3.5800	-1.9648	25.60	0.04	-0.750			
0.5268	33715.67	3.5770	3.5771	-1.9834	25.60	0.04	-0.750			
0.5329	34103.08	3.5740	3.5739	-2.0040	25.60	0.04	-0.750			
0.5389	34490.03	3.5710	3.5712	-2.0281	25.60	0.04	-0.750	0.380	0.555	
0.5450	34879.75	3.5680	3.5681	-2.0440	25.60	0.04	-0.750			
0.5511	35273.31	3.5650	3.5650	-2.0570	25.60	0.04	-0.750			
0.5574	35672.57	3.5620	3.5620	-2.0717	25.60	0.04	-0.750			
0.5636	36070.89	3.5590	3.5591	-2.0811	25.60	0.04	-0.750			
0.5699	36473.88	3.5560	3.5560	-2.0858	25.60	0.04	-0.750			
0.5762	36874.24	3.5530	3.5530	-2.0898	25.60	0.04	-0.750			
0.5824	37274.28	3.5500	3.5501	-2.0857	25.61	0.05	-0.750			
0.5887	37675.89	3.5470	3.5470	-2.0872	25.61	0.05	-0.750			
0.5950	38082.81	3.5440	3.5440	-2.0780	25.62	0.06	-0.750			
0.6012	38477.40	3.5410	3.5410	-2.0583	25.62	0.06	-0.750			
0.6074	38872.24	3.5380	3.5381	-2.0405	25.63	0.07	-0.750			
0.6135	39264.90	3.5350	3.5349	-2.0157	25.63	0.07	-0.750			
0.6195	39645.51	3.5320	3.5321	-1.9835	25.64	0.08	-0.750			
0.6254	40026.76	3.5290	3.5290	-1.9544	25.65	0.09	-0.750			
0.6313	40400.43	3.5260	3.5260	-1.9270	25.67	0.11	-0.750			
0.6370	40766.87	3.5230	3.5231	-1.8770	25.68	0.12	-0.750			
0.6426	41124.39	3.5200	3.5199	-1.8401	25.69	0.13	-0.750			
0.6481	41475.49	3.5170	3.5170	-1.7895	25.70	0.14	-0.750			
0.6533	41812.33	3.5140	3.5139	-1.7502	25.71	0.15	-0.750			
0.6585	42143.42	3.5110	3.5111	-1.6946	25.72	0.16	-0.750			
0.6635	42463.05	3.5080	3.5079	-1.6552	25.73	0.17	-0.750			
0.6684	42778.15	3.5050	3.5050	-1.6022	25.74	0.18	-0.750			
0.6732	43081.68	3.5020	3.5019	-1.5509	25.75	0.19	-0.750			
0.6778	43376.34	3.4990	3.4990	-1.5124	25.76	0.20	-0.750			
0.6822	43661.87	3.4960	3.4959	-1.4645	25.77	0.21	-0.750			
0.6865	43934.16	3.4930	3.4931	-1.4127	25.78	0.22	-0.750			
0.6907	44202.62	3.4900	3.4900	-1.3752	25.79	0.23	-0.750			
0.6947	44461.27	3.4870	3.4870	-1.3353	25.81	0.25	-0.750			
0.6987	44717.20	3.4840	3.4841	-1.3044	25.82	0.26	-0.750			
0.7026	44964.14	3.4810	3.4809	-1.2648	25.83	0.27	-0.750			
0.7063	45200.74	3.4780	3.4780	-1.2254	25.84	0.28	-0.750			
0.7099	45430.96	3.4750	3.4750	-1.1987	25.86	0.30	-0.750			
0.7134	45658.65	3.4720	3.4719	-1.1825	25.86	0.30	-0.750			
0.7169	45882.02	3.4690	3.4689	-1.1556	25.87	0.31	-0.750			
0.7203	46101.62	3.4660	3.4660	-1.1359	25.87	0.31	-0.750			
0.7237	46318.12	3.4630	3.4632	-1.1235	25.88	0.32	-0.750			
0.7271	46533.20	3.4600	3.4600	-1.1101	25.89	0.33	-0.750			
0.7304	46742.90	3.4570	3.4570	-1.0951	25.90	0.34	-0.750			
0.7336	46951.05	3.4540	3.4540	-1.0828	25.91	0.35	-0.750			
0.7368	47156.41	3.4510	3.4511	-1.0815	25.92	0.36	-0.750			
0.7401	47364.44	3.4480	3.4480	-1.0779	25.93	0.37	-0.750			
0.7433	47570.60	3.4450	3.4450	-1.0743	25.93	0.37	-0.750			
0.7465	47776.44	3.4420	3.4420	-1.0694	25.94	0.38	-0.750			
0.7497	47982.29	3.4390	3.4390	-1.0651	25.94	0.38	-0.750			
0.7529	48187.38	3.4360	3.4360	-1.0566	25.95	0.39	-0.750			
0.7561	48390.13	3.4330	3.4330	-1.0480	25.96	0.40	-0.750			
0.7592	48589.39	3.4300	3.4300	-1.0350	25.96	0.40	-0.750			
0.7623	48788.65	3.4270	3.4271	-1.0229	25.97	0.41	-0.750			
0.7654	48982.78	3.4240	3.4240	-1.0123	25.98	0.42	-0.750			
0.7684	49176.74	3.4210	3.4210	-0.9978	25.99	0.43	-0.750			
0.7714	49367.13	3.4180	3.4180	-0.9821	25.99	0.43	-0.750			
0.7743	49554.89	3.4150	3.4151	-0.9650	26.00	0.44	-0.750			
0.7772	49738.10	3.4120	3.4120	-0.9491	26.01	0.45	-0.750			
0.7800	49919.66	3.4090	3.4090	-0.9298	26.01	0.45	-0.750			
0.7828	50096.73	3.4060	3.4060	-0.9113	26.02	0.46	-0.750			
0.7855	50269.61	3.4030	3.4030	-0.8892	26.03	0.47	-0.750			
0.7881	50439.51	3.4000	3.4000	-0.8684	26.03	0.47	-0.750			
0.7907	50604.04	3.3970	3.3969	-0.8453	26.04	0.48	-0.750			
0.7932	50765.04	3.3940	3.3940	-0.8164	26.05	0.49	-0.750			
0.7956	50918.56	3.3910	3.3910	-0.7875	26.05	0.49	-0.750			
0.7980	51069.38	3.3880	3.3880	-0.7602	26.06	0.50	-0.750			
0.8002	51211.67	3.3850	3.3850	-0.7252	26.06	0.50	-0.750			
0.8023	51347.43	3.3820	3.3820	-0.6937	26.07	0.51	-0.750			
0.8043	51476.74	3.3790	3.3790	-0.6625	26.08	0.52	-0.750			
0.8063	51600.49	3.3760	3.3760	-0.6355	26.08	0.52	-0.750			
0.8081	51720.79	3.3730	3.3730	-0.6065	26.09	0.53	-0.750			
0.8099	51834.44	3.3700	3.3699	-0.5759	26.10	0.54	-0.750			
0.8116	51942.25	3.3670	3.3671	-0.5498	26.10	0.54	-0.750			
0.8132	52045.01	3.3640	3.3640	-0.5234	26.11	0.55	-0.750			
0.8147	52142.03	3.3610	3.3609	-0.4975	26.11	0.55	-0.750			
0.8162	52233.92	3.3580	3.3579	-0.4717	26.12	0.56	-0.750			
0.8175	52322.41	3.3550	3.3551	-0.4507	26.12	0.56	-0.750			
0.8189	52407.08	3.3520	3.3519	-0.4294	26.12	0.56	-0.750			
0.8201	52487.17	3.3490	3.3491	-0.4118	26.13	0.57	-0.750			
0.8213	52563.57	3.3460	3.3460	-0.3941	26.13	0.57	-0.750			
0.8225	52636.92	3.3430	3.3429	-0.3780	26.14	0.58	-0.750			
0.8236	52708.16	3.3400	3.3401	-0.3651	26.14	0.58	-0.750			
0.8246	52776.51	3.3370	3.3370	-0.3525	26.14	0.58	-0.750			
0.8257	52842.97	3.3340	3.3340	-0.3396	26.15	0.59	-0.750			
0.8267	52906.79	3.3310	3.3310	-0.3287	26.16	0.60	-0.750			
0.8276	52968.36	3.3280	3.3280	-0.3162	26.16	0.60	-0.750			
0.8286	53028.09	3.3250	3.3250	-0.3070	26.17	0.61	-0.750			
0.8295	53086.17	3.3220	3.3220	-0.2980	26.17	0.61	-0.750			
0.8303	53142.30	3.3190	3.3190	-0.2883	26.18	0.62	-0.750			
0.8312	53196.94	3.3160	3.3160	-0.2792	26.18	0.62	-0.750			
0.8320	53249.54	3.3130	3.3130	-0.2716	26.19	0.63	-0.750			
0.8328	53299.96	3.3100	3.3100	-0.2643	26.19	0.63	-0.750			
0.8336	53349.75	3.3070	3.3070	-0.2581	26.19	0.63	-0.750			
0.8344	53398.40	3.3040	3.3039	-0.2502	26.20	0.64	-0.750			
0.8351	53446.32	3.3010	3.3010	-0.2452	26.20	0.64	-0.750			
0.8358	53492.53	3.2980	3.2980	-0.2404	26.21	0.65	-0.750			
0.8365	53538.20	3.2950	3.2951	-0.2356	26.21	0.65	-0.750			
0.8372	53583.16	3.2920	3.2919	-0.2309	26.22	0.66	-0.750			
0.8379	53626.62	3.2890	3.2889	-0.2252	26.22	0.66	-0.750			
0.8386	53669.19	3.2860	3.2860	-0.2201	26.22	0.66	-0.750			
0.8392	53711.25	3.2830	3.2831	-0.2180	26.23	0.67	-0.750			
0.8399	53752.69	3.2800	3.2800	-0.2137	26.23	0.67	-0.750			
0.8405	53793.00	3.2770	3.2770	-0.2098	26.23	0.67	-0.750			
0.8411	53832.62	3.2740	3.2739	-0.2055	26.24	0.68	-0.750			
0.8417	53871.91	3.2710	3.2710	-0.2029	26.24	0.68	-0.750			
0.8424	53910.63	3.2680	3.2681	-0.1993	26.24	0.68	-0.750			
0.8429	53948.75	3.2650	3.2650	-0.1963	26.25	0.69	-0.750			
0.8435	53985.87	3.2620	3.2620	-0.1934	26.25	0.69	-0.750			
0.8441	54022.30	3.2590	3.2590	-0.1898	26.25	0.69	-0.750			
0.8447	54058.55	3.2560	3.2560	-0.1877	26.26	0.70	-0.750			
0.8452	54094.49	3.2530	3.2530	-0.1847	26.26	0.70	-0.750			
0.8458	54129.75	3.2500	3.2500	-0.1826	26.26	0.70	-0.750			
0.8463	54164.57	3.2470	3.2471	-0.1801	26.27	0.71	-0.750			
0.8469	54198.98	3.2440	3.2440	-0.1779	26.27	0.71	-0.750			
0.8474	54232.87	3.2410	3.2409	-0.1752	26.27	0.71	-0.750			
0.8479	54265.94	3.2380	3.2380	-0.1730	26.27	0.71	-0.750			
0.8484	54299.14	3.2350	3.2351	-0.1708	26.28	0.72	-0.750			
0.8489	54331.75	3.2320	3.2319	-0.1688	26.28	0.72	-0.750			
0.8494	54363.98	3.2290	3.2290	-0.1680	26.29	0.73	-0.750			
0.8499	54395.96	3.2260	3.2260	-0.1656	26.29	0.73	-0.750			
0.8504	54427.61	3.2230	3.2229	-0.1641	26.29	0.73	-0.750			
0.8509	54458.97	3.2200	3.2200	-0.1626	26.30	0.74	-0.750			
0.8514	54490.17	3.2170	3.2171	-0.1609	26.30	0.74	-0.750			
0.8519	54520.80	3.2140	3.2140	-0.1589	26.31	0.75	-0.750			
0.8524	54551.25	3.2110	3.2110	-0.1577	26.31	0.75	-0.750			
0.8528	54581.33	3.2080	3.2080	-0.1557	26.32	0.76	-0.750			
0.8533	54610.71	3.2050	3.2050	-0.1537	26.32	0.76	-0.750			
0.8538	54640.18	3.2020	3.2020	-0.1528	26.32	0.76	-0.750			
0.8542	54669.34	3.1990	3.1990	-0.1510	26.33	0.77	-0.750			
0.8547	54698.21	3.1960	3.1960	-0.1497	26.33	0.77	-0.750			
0.8551	54726.91	3.1930	3.1930	-0.1484	26.34	0.78	-0.750			
0.8556	54755.23	3.1900	3.1900	-0.1472	26.34	0.78	-0.750			
0.8560	54783.37	3.1870	3.1870	-0.1456	26.34	0.78	-0.750			
0.8564	54811.20	3.1840	3.1840	-0.1442	26.35	0.79	-0.750			
0.8569	54838.70	3.1810	3.1810	-0.1432	26.35	0.79	-0.750			
0.8573	54866.06	3.1780	3.1780	-0.1417	26.36	0.80	-0.750			
0.8577	54893.34	3.1750	3.1750	-0.1405	26.36	0.80	-0.750			
0.8581	54920.15	3.1720	3.1720	-0.1388	26.36	0.80	-0.750			
0.8585	54946.59	3.1690	3.1691	-0.1377	26.37	0.81	-0.750			
0.8589	54972.69	3.1660	3.1660	-0.1365	26.37	0.81	-0.750			
0.8594	54998.78	3.1630	3.1629	-0.1356	26.37	0.81	-0.750			
0.8598	55024.73	3.1600	3.1600	-0.1348	26.38	0.82	-0.750			
0.8602	55050.58	3.1570	3.1570	-0.1332	26.38	0.82	-0.750			
0.8606	55076.28	3.1540	3.1540	-0.1325	26.38	0.82	-0.750			
0.8610	55101.67	3.1510	3.1510	-0.1318	26.38	0.82	-0.750			
0.8614	55126.64	3.1480	3.1480	-0.1309	26.38	0.82	-0.750			
0.8617	55151.51	3.1450	3.1450	-0.1297	26.38	0.82	-0.750			
0.8621	55176.20	3.1420	3.1419	-0.1287	26.39	0.83	-0.750			
0.8625	55201.08	3.1390	3.1390	-0.1276	26.39	0.83	-0.750			
0.8629	55225.54	3.1360	3.1360	-0.1267	26.40	0.84	-0.750			
0.8633	55250.04	3.1330	3.1331	-0.1264	26.40	0.84	-0.750			
0.8637	55274.17	3.1300	3.1299	-0.1249	26.40	0.84	-0.750			
0.8640	55297.70	3.1270	3.1270	-0.1237	26.41	0.85	-0.750			
0.8644	55321.16	3.1240	3.1240	-0.1225	26.41	0.85	-0.750			
0.8648	55344.70	3.1210	3.1211	-0.1217	26.41	0.85	-0.750			
0.8651	55367.94	3.1180	3.1179	-0.1210	26.42	0.86	-0.750			
0.8655	55391.15	3.1150	3.1150	-0.1202	26.42	0.86	-0.750			
0.8658	55414.34	3.1120	3.1120	-0.1197	26.42	0.86	-0.750			
0.8662	55437.29	3.1090	3.1090	-0.1184	26.43	0.87	-0.750			
0.8666	55459.99	3.1060	3.1060	-0.1174	26.43	0.87	-0.750			
0.8669	55482.33	3.1030	3.1029	-0.1164	26.43	0.87	-0.750			
0.8673	55504.52	3.1000	3.1001	-0.1153	26.44	0.88	-0.750			
0.8676	55526.51	3.0970	3.0970	-0.1145	26.44	0.88	-0.750			
0.8679	55548.37	3.0940	3.0939	-0.1136	26.44	0.88	-0.750			
0.8683	55570.12	3.0910	3.0910	-0.1127	26.45	0.89	-0.750			
0.8686	55591.59	3.0880	3.0880	-0.1117	26.45	0.89	-0.750			
0.8690	55612.87	3.0850	3.0850	-0.1114	26.45	0.89	-0.750			
0.8693	55634.22	3.0820	3.0820	-0.1109	26.46	0.90	-0.750			
0.8696	55655.52	3.0790	3.0791	-0.1102	26.46	0.90	-0.750			
0.8699	55676.57	3.0760	3.0759	-0.1095	26.46	0.90	-0.750			
0.8703	55697.61	3.0730	3.0730	-0.1087	26.47	0.91	-0.750			
0.8706	55718.49	3.0700	3.0700	-0.1081	26.47	0.91	-0.750			
0.8709	55739.15	3.0670	3.0670	-0.1072	26.47	0.91	-0.750			
0.8712	55759.81	3.0640	3.0639	-0.1066	26.48	0.92	-0.750			
0.8716	55780.10	3.0610	3.0611	-0.1057	26.48	0.92	-0.750			
0.8719	55800.15	3.0580	3.0580	-0.1046	26.48	0.92	-0.750			
0.8722	55820.16	3.0550	3.0549	-0.1040	26.49	0.93	-0.750			
0.8725	55840.06	3.0520	3.0520	-0.1034	26.49	0.93	-0.750			
0.8728	55859.89	3.0490	3.0490	-0.1027	26.49	0.93	-0.750			
0.8731	55879.57	3.0460	3.0460	-0.1021	26.49	0.93	-0.750			
0.8734	55899.12	3.0430	3.0430	-0.1013	26.50	0.94	-0.750			
0.8737	55918.52	3.0400	3.0399	-0.1006	26.50	0.94	-0.750			
0.8740	55937.64	3.0370	3.0371	-0.1001	26.50	0.94	-0.750			
0.8743	55956.76	3.0340	3.0340	-0.0995	26.50	0.94	-0.750			
0.8746	55975.90	3.0310	3.0311	-0.0988	26.51	0.95	-0.750			
0.8749	55994.77	3.0280	3.0280	-0.0981	26.51	0.95	-0.750			
0.8752	56013.50	3.0250	3.0249	-0.0976	26.51	0.95	-0.750			
0.8755	56032.21	3.0220	3.0221	-0.0972	26.51	0.95	-0.750			
0.8758	56050.90	3.0190	3.0190	-0.0964	26.52	0.96	-0.750			
0.8761	56069.43	3.0160	3.0160	-0.0959	26.52	0.96	-0.750			
0.8764	56087.76	3.0130	3.0129	-0.0950	26.52	0.96	-0.750			
0.8767	56105.83	3.0100	3.0101	-0.0943	26.52	0.96	-0.750			
0.8769	56123.87	3.0070	3.0069	-0.0937	26.53	0.97	-0.750			
0.8772	56141.84	3.0040	3.0040	-0.0909	26.53	0.97	-0.750			
