Ah_balance (normalized)	Ah_balance (mAh)	Voltage - fit (V)	Voltage -  interpolate (V)	dQ/dV (1/V)	Temperature (°C)	Temperature - diff (°C)	Current (C)	R_DC 0ms (mOhm)	R_DC 50ms (mOhm)	R_DC 50 ms PEC (mOhm)
0.2154	13785.38	3.9120	3.9119	-0.1111	25.98	0.00	-1.500			
0.2158	13809.40	3.9090	3.9089	-0.1410	25.98	0.00	-1.500			
0.2162	13838.99	3.9060	3.9061	-0.1730	25.98	0.00	-1.500			
0.2168	13876.38	3.9030	3.9029	-0.2041	25.98	0.00	-1.500			
0.2175	13918.51	3.9000	3.8999	-0.2344	25.98	0.00	-1.500			
0.2182	13966.82	3.8970	3.8971	-0.2643	25.98	0.00	-1.500			
0.2191	14020.42	3.8940	3.8941	-0.2922	25.98	0.00	-1.500			
0.2200	14079.61	3.8910	3.8909	-0.3212	25.98	-0.00	-1.500			
0.2210	14144.01	3.8880	3.8880	-0.3484	25.98	-0.00	-1.500			
0.2221	14213.43	3.8850	3.8850	-0.3731	25.98	-0.00	-1.500			
0.2232	14287.73	3.8820	3.8821	-0.4005	25.98	-0.00	-1.500			
0.2245	14366.85	3.8790	3.8791	-0.4286	25.98	-0.00	-1.500			
0.2258	14451.79	3.8760	3.8759	-0.4564	25.97	-0.01	-1.500			
0.2272	14542.40	3.8730	3.8730	-0.4820	25.97	-0.01	-1.500			
0.2287	14637.64	3.8700	3.8701	-0.5071	25.97	-0.01	-1.500			
0.2303	14738.46	3.8670	3.8670	-0.5331	25.97	-0.01	-1.500			
0.2319	14843.57	3.8640	3.8640	-0.5566	25.97	-0.01	-1.500			
0.2336	14952.32	3.8610	3.8610	-0.5762	25.97	-0.01	-1.500			
0.2354	15064.81	3.8580	3.8580	-0.5969	25.97	-0.01	-1.500			
0.2372	15182.15	3.8550	3.8550	-0.6158	25.97	-0.01	-1.500			
0.2391	15303.15	3.8520	3.8520	-0.6316	25.96	-0.02	-1.500			
0.2410	15426.65	3.8490	3.8490	-0.6464	25.96	-0.02	-1.500			
0.2430	15551.97	3.8460	3.8460	-0.6593	25.96	-0.02	-1.500			
0.2450	15680.03	3.8430	3.8430	-0.6713	25.96	-0.02	-1.500			
0.2470	15810.23	3.8400	3.8400	-0.6827	25.96	-0.02	-1.500			
0.2491	15942.28	3.8370	3.8370	-0.6924	25.96	-0.02	-1.500			
0.2512	16076.67	3.8340	3.8340	-0.7025	25.97	-0.01	-1.500			
0.2533	16213.46	3.8310	3.8310	-0.7094	25.97	-0.01	-1.500			
0.2555	16351.68	3.8280	3.8280	-0.7112	25.97	-0.01	-1.500			
0.2576	16488.18	3.8250	3.8250	-0.7123	25.97	-0.01	-1.500			
0.2598	16624.28	3.8220	3.8221	-0.7186	25.97	-0.01	-1.500			
0.2619	16762.58	3.8190	3.8189	-0.7216	25.97	-0.01	-1.500			
0.2641	16900.53	3.8160	3.8159	-0.7257	25.98	-0.00	-1.500			
0.2663	17040.81	3.8130	3.8130	-0.7292	25.98	-0.00	-1.500			
0.2685	17183.17	3.8100	3.8101	-0.7360	25.98	-0.00	-1.500			
0.2707	17325.22	3.8070	3.8069	-0.7376	25.98	0.00	-1.500			
0.2729	17465.71	3.8040	3.8040	-0.7369	25.99	0.01	-1.500			
0.2751	17606.44	3.8010	3.8011	-0.7372	25.99	0.01	-1.500			
0.2773	17748.49	3.7980	3.7980	-0.7409	25.99	0.01	-1.500			
0.2795	17891.09	3.7950	3.7949	-0.7427	26.00	0.02	-1.500			
0.2818	18034.48	3.7920	3.7920	-0.7464	26.00	0.02	-1.500			
0.2840	18178.38	3.7890	3.7890	-0.7476	26.00	0.02	-1.500			
0.2863	18321.78	3.7860	3.7860	-0.7463	26.01	0.03	-1.500			
0.2885	18465.49	3.7830	3.7830	-0.7439	26.01	0.03	-1.500			
0.2908	18608.29	3.7800	3.7800	-0.7407	26.01	0.03	-1.500			
0.2930	18749.88	3.7770	3.7769	-0.7381	26.02	0.04	-1.500			
0.2952	18890.95	3.7740	3.7740	-0.7374	26.02	0.04	-1.500			
0.2974	19031.94	3.7710	3.7710	-0.7386	26.03	0.05	-1.500			
0.2996	19173.53	3.7680	3.7680	-0.7403	26.03	0.05	-1.500			
0.3018	19315.04	3.7650	3.7650	-0.7412	26.03	0.05	-1.500			
0.3040	19458.61	3.7620	3.7621	-0.7462	26.04	0.06	-1.500			
0.3063	19603.34	3.7590	3.7589	-0.7460	26.04	0.06	-1.500			
0.3085	19746.21	3.7560	3.7560	-0.7451	26.04	0.06	-1.500			
0.3108	19888.64	3.7530	3.7531	-0.7439	26.05	0.07	-1.500			
0.3130	20031.27	3.7500	3.7500	-0.7446	26.05	0.07	-1.500			
0.3152	20173.71	3.7470	3.7470	-0.7493	26.05	0.07	-1.500			
0.3175	20318.09	3.7440	3.7439	-0.7514	26.06	0.08	-1.500			
0.3197	20462.27	3.7410	3.7410	-0.7555	26.06	0.08	-1.500			
0.3220	20608.91	3.7380	3.7381	-0.7582	26.07	0.09	-1.500			
0.3243	20755.64	3.7350	3.7350	-0.7560	26.07	0.09	-1.500			
0.3266	20900.27	3.7320	3.7319	-0.7574	26.08	0.10	-1.500			
0.3288	21044.72	3.7290	3.7291	-0.7569	26.08	0.10	-1.500			
0.3311	21189.38	3.7260	3.7259	-0.7571	26.09	0.11	-1.500			
0.3334	21335.05	3.7230	3.7230	-0.7653	26.09	0.11	-1.500			
0.3357	21482.40	3.7200	3.7201	-0.7671	26.10	0.12	-1.500			
0.3380	21631.19	3.7170	3.7169	-0.7718	26.11	0.13	-1.500			
0.3403	21779.42	3.7140	3.7141	-0.7754	26.11	0.13	-1.500			
0.3426	21927.68	3.7110	3.7110	-0.7754	26.12	0.14	-1.500			
0.3450	22076.87	3.7080	3.7080	-0.7846	26.12	0.14	-1.500			
0.3473	22227.26	3.7050	3.7050	-0.7913	26.12	0.14	-1.500			
0.3497	22378.91	3.7020	3.7020	-0.8012	26.13	0.15	-1.500			
0.3521	22534.45	3.6990	3.6990	-0.8144	26.13	0.15	-1.500			
0.3546	22692.74	3.6960	3.6960	-0.8245	26.13	0.15	-1.500			
0.3571	22851.70	3.6930	3.6931	-0.8349	26.14	0.16	-1.500			
0.3596	23012.58	3.6900	3.6900	-0.8478	26.14	0.16	-1.500			
0.3621	23176.48	3.6870	3.6869	-0.8553	26.14	0.16	-1.500			
0.3647	23342.51	3.6840	3.6840	-0.8631	26.14	0.16	-1.500			
0.3673	23508.76	3.6810	3.6809	-0.8728	26.15	0.17	-1.500			
0.3700	23676.87	3.6780	3.6781	-0.8864	26.15	0.17	-1.500			
0.3726	23848.06	3.6750	3.6750	-0.9017	26.15	0.17	-1.500			
0.3753	24020.90	3.6720	3.6720	-0.9135	26.16	0.18	-1.500			
0.3781	24195.60	3.6690	3.6689	-0.9318	26.16	0.18	-1.500			
0.3809	24378.48	3.6660	3.6661	-0.9537	26.16	0.18	-1.500			
0.3838	24563.99	3.6630	3.6630	-0.9774	26.17	0.19	-1.500			
0.3868	24753.58	3.6600	3.6600	-0.9916	26.17	0.19	-1.500			
0.3898	24946.00	3.6570	3.6569	-1.0104	26.17	0.19	-1.500			
0.3928	25140.95	3.6540	3.6540	-1.0302	26.18	0.20	-1.500			
0.3960	25341.30	3.6510	3.6510	-1.0491	26.18	0.20	-1.500			
0.3991	25543.27	3.6480	3.6480	-1.0666	26.18	0.20	-1.500			
0.4024	25751.39	3.6450	3.6450	-1.0836	26.19	0.21	-1.500			
0.4056	25960.33	3.6420	3.6420	-1.0982	26.19	0.21	-1.500			
0.4090	26173.21	3.6390	3.6390	-1.1204	26.19	0.21	-1.500			
0.4123	26389.28	3.6360	3.6360	-1.1396	26.19	0.21	-1.500			
0.4158	26609.50	3.6330	3.6329	-1.1616	26.20	0.22	-1.500			
0.4193	26833.34	3.6300	3.6300	-1.1910	26.20	0.22	-1.500			
0.4229	27065.11	3.6270	3.6271	-1.2163	26.20	0.22	-1.500			
0.4266	27303.25	3.6240	3.6239	-1.2435	26.20	0.22	-1.500			
0.4304	27544.53	3.6210	3.6210	-1.2641	26.20	0.22	-1.500			
0.4342	27787.67	3.6180	3.6181	-1.2878	26.19	0.21	-1.500			
0.4381	28035.99	3.6150	3.6150	-1.3178	26.19	0.21	-1.500			
0.4421	28293.53	3.6120	3.6120	-1.3381	26.19	0.21	-1.500			
0.4461	28550.75	3.6090	3.6090	-1.3662	26.19	0.21	-1.500			
0.4503	28818.15	3.6060	3.6060	-1.3952	26.19	0.21	-1.500			
0.4545	29088.32	3.6030	3.6031	-1.4225	26.19	0.21	-1.500			
0.4588	29364.06	3.6000	3.5999	-1.4495	26.18	0.20	-1.500			
0.4632	29644.23	3.5970	3.5969	-1.4721	26.18	0.20	-1.500			
0.4676	29928.31	3.5940	3.5941	-1.4961	26.18	0.20	-1.500			
0.4722	30221.08	3.5910	3.5909	-1.5200	26.18	0.20	-1.500			
0.4768	30514.19	3.5880	3.5880	-1.5380	26.18	0.20	-1.500			
0.4815	30812.95	3.5850	3.5850	-1.5615	26.18	0.20	-1.500			
0.4861	31110.85	3.5820	3.5820	-1.5837	26.18	0.20	-1.500			
0.4909	31417.95	3.5790	3.5790	-1.6104	26.18	0.20	-1.500			
0.4958	31730.40	3.5760	3.5760	-1.6354	26.18	0.20	-1.500			
0.5007	32047.06	3.5730	3.5730	-1.6603	26.17	0.19	-1.500			
0.5058	32368.85	3.5700	3.5700	-1.6851	26.17	0.19	-1.500			
0.5109	32694.61	3.5670	3.5670	-1.7033	26.17	0.19	-1.500			
0.5160	33023.31	3.5640	3.5640	-1.7251	26.16	0.18	-1.500			
0.5212	33356.46	3.5610	3.5609	-1.7441	26.16	0.18	-1.500			
0.5264	33692.61	3.5580	3.5581	-1.7747	26.16	0.18	-1.500			
0.5318	34037.70	3.5550	3.5550	-1.7872	26.17	0.19	-1.500			
0.5373	34384.86	3.5520	3.5520	-1.7994	26.17	0.19	-1.500			
0.5427	34731.85	3.5490	3.5491	-1.8082	26.17	0.19	-1.500			
0.5482	35082.57	3.5460	3.5460	-1.8219	26.17	0.19	-1.500			
0.5536	35431.80	3.5430	3.5429	-1.8327	26.17	0.19	-1.500			
0.5591	35784.95	3.5400	3.5400	-1.8333	26.18	0.20	-1.500			
0.5646	36136.21	3.5370	3.5370	-1.8337	26.18	0.20	-1.500	0.388	0.515	
0.5702	36492.80	3.5340	3.5341	-1.8432	26.18	0.20	-1.500			
0.5757	36844.79	3.5310	3.5309	-1.8355	26.19	0.21	-1.500			
0.5812	37198.50	3.5280	3.5280	-1.8248	26.19	0.21	-1.500			
0.5867	37549.73	3.5250	3.5250	-1.8141	26.19	0.21	-1.500			
0.5922	37898.29	3.5220	3.5220	-1.8236	26.20	0.22	-1.500			
0.5976	38246.57	3.5190	3.5190	-1.8240	26.20	0.22	-1.500			
0.6031	38595.69	3.5160	3.5159	-1.8282	26.21	0.23	-1.500			
0.6086	38947.47	3.5130	3.5131	-1.8286	26.22	0.24	-1.500			
0.6141	39301.96	3.5100	3.5100	-1.8221	26.22	0.24	-1.500			
0.6196	39654.96	3.5070	3.5070	-1.8173	26.23	0.25	-1.500			
0.6249	39995.37	3.5040	3.5041	-1.8015	26.24	0.26	-1.500			
0.6304	40343.14	3.5010	3.5010	-1.7992	26.24	0.26	-1.500			
0.6358	40689.08	3.4980	3.4980	-1.7861	26.25	0.27	-1.500			
0.6411	41030.68	3.4950	3.4950	-1.7835	26.26	0.28	-1.500			
0.6465	41373.68	3.4920	3.4920	-1.7796	26.26	0.28	-1.500			
0.6518	41714.15	3.4890	3.4889	-1.7724	26.28	0.30	-1.500			
0.6571	42054.40	3.4860	3.4860	-1.7623	26.29	0.31	-1.500			
0.6624	42391.50	3.4830	3.4830	-1.7479	26.30	0.32	-1.500			
0.6677	42730.51	3.4800	3.4800	-1.7321	26.31	0.33	-1.500			
0.6728	43057.97	3.4770	3.4770	-1.7168	26.32	0.34	-1.500			
0.6779	43385.76	3.4740	3.4740	-1.7036	26.33	0.35	-1.500			
0.6830	43713.73	3.4710	3.4709	-1.6858	26.34	0.36	-1.500			
0.6881	44035.72	3.4680	3.4680	-1.6647	26.35	0.37	-1.500			
0.6931	44357.33	3.4650	3.4651	-1.6473	26.36	0.38	-1.500			
0.6980	44672.28	3.4620	3.4619	-1.6241	26.37	0.39	-1.500			
0.7028	44978.87	3.4590	3.4589	-1.6012	26.39	0.41	-1.500			
0.7075	45281.55	3.4560	3.4560	-1.5724	26.40	0.42	-1.500			
0.7122	45581.09	3.4530	3.4531	-1.5550	26.42	0.44	-1.500			
0.7169	45881.88	3.4500	3.4500	-1.5397	26.43	0.45	-1.500			
0.7215	46173.99	3.4470	3.4469	-1.5168	26.45	0.47	-1.500			
0.7260	46462.79	3.4440	3.4440	-1.4980	26.46	0.48	-1.500			
0.7304	46747.40	3.4410	3.4410	-1.4841	26.48	0.50	-1.500			
0.7348	47029.42	3.4380	3.4380	-1.4682	26.49	0.51	-1.500			
0.7393	47313.14	3.4350	3.4349	-1.4603	26.50	0.52	-1.500			
0.7436	47590.10	3.4320	3.4321	-1.4530	26.52	0.54	-1.500			
0.7480	47869.08	3.4290	3.4289	-1.4439	26.54	0.56	-1.500			
0.7523	48144.94	3.4260	3.4260	-1.4349	26.55	0.57	-1.500			
0.7566	48420.11	3.4230	3.4230	-1.4327	26.57	0.59	-1.500			
0.7609	48696.13	3.4200	3.4200	-1.4149	26.59	0.61	-1.500			
0.7652	48971.22	3.4170	3.4169	-1.3995	26.61	0.63	-1.500			
0.7694	49238.64	3.4140	3.4141	-1.3741	26.62	0.64	-1.500			
0.7734	49500.16	3.4110	3.4110	-1.3438	26.64	0.66	-1.500			
0.7775	49757.44	3.4080	3.4079	-1.3127	26.66	0.68	-1.500			
0.7813	50003.53	3.4050	3.4050	-1.2740	26.68	0.70	-1.500			
0.7851	50248.04	3.4020	3.4020	-1.2381	26.70	0.72	-1.500			
0.7888	50483.15	3.3990	3.3990	-1.1944	26.71	0.73	-1.500			
0.7923	50710.07	3.3960	3.3959	-1.1512	26.73	0.75	-1.500			
0.7957	50924.79	3.3930	3.3930	-1.1042	26.75	0.77	-1.500			
0.7989	51130.65	3.3900	3.3900	-1.0598	26.76	0.78	-1.500			
0.8020	51329.52	3.3870	3.3870	-1.0191	26.78	0.80	-1.500			
0.8050	51520.31	3.3840	3.3840	-0.9784	26.79	0.81	-1.500			
0.8079	51706.63	3.3810	3.3810	-0.9393	26.81	0.83	-1.500			
0.8107	51882.84	3.3780	3.3780	-0.9064	26.82	0.84	-1.500			
0.8133	52053.30	3.3750	3.3749	-0.8668	26.83	0.85	-1.500			
0.8158	52214.12	3.3720	3.3720	-0.8295	26.84	0.86	-1.500			
0.8183	52369.89	3.3690	3.3690	-0.7995	26.85	0.87	-1.500			
0.8206	52519.42	3.3660	3.3660	-0.7707	26.86	0.88	-1.500			
0.8229	52662.92	3.3630	3.3629	-0.7422	26.87	0.89	-1.500			
0.8251	52804.37	3.3600	3.3601	-0.7216	26.88	0.90	-1.500			
0.8272	52938.40	3.3570	3.3570	-0.6935	26.89	0.91	-1.500			
0.8293	53072.20	3.3540	3.3540	-0.6778	26.90	0.92	-1.500			
0.8312	53199.93	3.3510	3.3509	-0.6534	26.91	0.93	-1.500			
0.8332	53321.67	3.3480	3.3481	-0.6313	26.92	0.94	-1.500			
0.8350	53441.29	3.3450	3.3450	-0.6111	26.93	0.95	-1.500			
0.8368	53555.63	3.3420	3.3420	-0.5913	26.94	0.96	-1.500			
0.8386	53667.95	3.3390	3.3389	-0.5745	26.95	0.97	-1.500			
0.8403	53776.00	3.3360	3.3360	-0.5563	26.95	0.97	-1.500			
0.8419	53880.68	3.3330	3.3329	-0.5384	26.96	0.98	-1.500			
0.8435	53983.03	3.3300	3.3300	-0.5212	26.96	0.98	-1.500			
0.8450	54080.65	3.3270	3.3269	-0.5030	26.96	0.98	-1.500			
0.8465	54175.85	3.3240	3.3240	-0.4893	26.97	0.99	-1.500			
0.8479	54267.48	3.3210	3.3210	-0.4731	26.98	1.00	-1.500			
0.8493	54356.76	3.3180	3.3179	-0.4608	26.99	1.01	-1.500			
0.8507	54444.49	3.3150	3.3150	-0.4485	26.99	1.01	-1.500			
0.8520	54528.76	3.3120	3.3120	-0.4370	27.00	1.02	-1.500			
0.8533	54611.78	3.3090	3.3090	-0.4262	27.01	1.03	-1.500			
0.8546	54692.58	3.3060	3.3060	-0.4125	27.01	1.03	-1.500			
0.8558	54770.76	3.3030	3.3030	-0.3992	27.02	1.04	-1.500			
0.8570	54846.35	3.3000	3.3000	-0.3871	27.03	1.05	-1.500			
0.8581	54919.33	3.2970	3.2969	-0.3741	27.03	1.05	-1.500			
0.8592	54989.48	3.2940	3.2940	-0.3625	27.04	1.06	-1.500			
0.8603	55057.11	3.2910	3.2910	-0.3520	27.04	1.06	-1.500			
0.8613	55124.09	3.2880	3.2880	-0.3418	27.05	1.07	-1.500			
0.8623	55189.22	3.2850	3.2849	-0.3322	27.05	1.07	-1.500			
0.8633	55251.45	3.2820	3.2821	-0.3245	27.06	1.08	-1.500			
0.8643	55312.57	3.2790	3.2791	-0.3164	27.06	1.08	-1.500			
0.8652	55372.50	3.2760	3.2759	-0.3082	27.07	1.09	-1.500			
0.8661	55431.14	3.2730	3.2730	-0.2991	27.07	1.09	-1.500			
0.8670	55487.70	3.2700	3.2700	-0.2905	27.08	1.10	-1.500			
0.8679	55542.97	3.2670	3.2670	-0.2846	27.08	1.10	-1.500			
0.8687	55596.61	3.2640	3.2639	-0.2765	27.09	1.11	-1.500			
0.8695	55647.83	3.2610	3.2610	-0.2691	27.09	1.11	-1.500			
0.8703	55699.11	3.2580	3.2579	-0.2646	27.10	1.12	-1.500			
0.8711	55749.46	3.2550	3.2550	-0.2596	27.11	1.13	-1.500			
0.8719	55799.12	3.2520	3.2520	-0.2544	27.11	1.13	-1.500			
0.8726	55847.69	3.2490	3.2490	-0.2492	27.12	1.14	-1.500			
0.8734	55894.91	3.2460	3.2460	-0.2427	27.12	1.14	-1.500			
0.8741	55940.66	3.2430	3.2430	-0.2364	27.13	1.15	-1.500			
0.8748	55985.34	3.2400	3.2400	-0.2304	27.13	1.15	-1.500			
0.8754	56028.71	3.2370	3.2370	-0.2253	27.14	1.16	-1.500			
0.8761	56071.52	3.2340	3.2340	-0.2207	27.14	1.16	-1.500			
0.8768	56113.01	3.2310	3.2310	-0.2175	27.15	1.17	-1.500			
0.8774	56154.24	3.2280	3.2280	-0.2141	27.15	1.17	-1.500			
0.8780	56195.09	3.2250	3.2250	-0.2111	27.16	1.18	-1.500			
0.8787	56235.39	3.2220	3.2219	-0.2086	27.16	1.18	-1.500			
0.8793	56275.56	3.2190	3.2190	-0.2046	27.17	1.19	-1.500			
0.8799	56314.91	3.2160	3.2160	-0.2009	27.17	1.19	-1.500			
0.8805	56352.71	3.2130	3.2131	-0.1972	27.18	1.20	-1.500			
0.8811	56390.18	3.2100	3.2100	-0.1932	27.18	1.20	-1.500			
0.8817	56426.44	3.2070	3.2070	-0.1902	27.19	1.21	-1.500			
0.8822	56462.54	3.2040	3.2039	-0.1870	27.19	1.21	-1.500			
0.8828	56497.85	3.2010	3.2011	-0.1848	27.20	1.22	-1.500			
0.8833	56533.20	3.1980	3.1981	-0.1834	27.20	1.22	-1.500			
0.8839	56568.48	3.1950	3.1950	-0.1820	27.21	1.23	-1.500			
0.8844	56603.38	3.1920	3.1919	-0.1799	27.21	1.23	-1.500			
0.8850	56637.65	3.1890	3.1891	-0.1772	27.21	1.23	-1.500			
0.8855	56671.47	3.1860	3.1860	-0.1751	27.22	1.24	-1.500			
0.8860	56705.16	3.1830	3.1829	-0.1720	27.22	1.24	-1.500			
0.8865	56737.97	3.1800	3.1800	-0.1702	27.23	1.25	-1.500			
0.8870	56769.92	3.1770	3.1770	-0.1672	27.23	1.25	-1.500			
0.8875	56801.85	3.1740	3.1741	-0.1654	27.24	1.26	-1.500			
0.8880	56833.17	3.1710	3.1709	-0.1642	27.24	1.26	-1.500			
0.8885	56864.56	3.1680	3.1680	-0.1626	27.24	1.26	-1.500			
0.8890	56895.72	3.1650	3.1649	-0.1614	27.25	1.27	-1.500			
0.8895	56926.59	3.1620	3.1621	-0.1602	27.25	1.27	-1.500			
0.8900	56957.55	3.1590	3.1590	-0.1586	27.26	1.28	-1.500			
0.8904	56987.79	3.1560	3.1560	-0.1563	27.26	1.28	-1.500			
0.8909	57017.58	3.1530	3.1530	-0.1546	27.26	1.28	-1.500			
0.8914	57047.08	3.1500	3.1500	-0.1526	27.27	1.29	-1.500			
0.8918	57076.02	3.1470	3.1470	-0.1511	27.27	1.29	-1.500			
0.8923	57104.64	3.1440	3.1440	-0.1504	27.27	1.29	-1.500			
0.8927	57133.29	3.1410	3.1410	-0.1491	27.28	1.30	-1.500			
0.8932	57161.89	3.1380	3.1380	-0.1488	27.28	1.30	-1.500			
0.8936	57190.60	3.1350	3.1349	-0.1476	27.29	1.31	-1.500			
0.8940	57219.09	3.1320	3.1321	-0.1469	27.29	1.31	-1.500			
0.8945	57247.28	3.1290	3.1291	-0.1456	27.29	1.31	-1.500			
0.8949	57274.95	3.1260	3.1260	-0.1447	27.30	1.32	-1.500			
0.8954	57302.81	3.1230	3.1229	-0.1429	27.30	1.32	-1.500			
0.8958	57329.82	3.1200	3.1199	-0.1412	27.31	1.33	-1.500			
0.8962	57356.81	3.1170	3.1171	-0.1400	27.31	1.33	-1.500			
0.8966	57383.49	3.1140	3.1141	-0.1396	27.32	1.34	-1.500			
0.8970	57410.25	3.1110	3.1109	-0.1389	27.32	1.34	-1.500			
0.8975	57436.81	3.1080	3.1079	-0.1377	27.33	1.35	-1.500			
0.8979	57463.19	3.1050	3.1050	-0.1371	27.33	1.35	-1.500			
0.8983	57489.44	3.1020	3.1021	-0.1358	27.34	1.36	-1.500			
0.8987	57515.73	3.0990	3.0990	-0.1357	27.34	1.36	-1.500			
0.8991	57541.35	3.0960	3.0960	-0.1346	27.35	1.37	-1.500			
0.8995	57567.12	3.0930	3.0930	-0.1340	27.35	1.37	-1.500			
0.8999	57592.63	3.0900	3.0899	-0.1328	27.36	1.38	-1.500			
0.9003	57618.20	3.0870	3.0871	-0.1320	27.36	1.38	-1.500			
0.9007	57643.56	3.0840	3.0840	-0.1315	27.36	1.38	-1.500			
0.9011	57668.71	3.0810	3.0812	-0.1305	27.37	1.39	-1.500			
0.9015	57693.74	3.0780	3.0780	-0.1298	27.37	1.39	-1.500			
0.9019	57718.46	3.0750	3.0749	-0.1285	27.38	1.40	-1.500			
0.9022	57742.91	3.0720	3.0720	-0.1275	27.38	1.40	-1.500			
0.9026	57767.32	3.0690	3.0690	-0.1270	27.39	1.41	-1.500			
0.9030	57791.67	3.0660	3.0660	-0.1268	27.39	1.41	-1.500			
0.9034	57815.94	3.0630	3.0630	-0.1263	27.40	1.42	-1.500			
0.9038	57840.27	3.0600	3.0599	-0.1255	27.40	1.42	-1.500			
0.9041	57864.30	3.0570	3.0571	-0.1249	27.41	1.43	-1.500			
0.9045	57888.38	3.0540	3.0540	-0.1240	27.41	1.43	-1.500			
0.9049	57912.32	3.0510	3.0509	-0.1233	27.42	1.44	-1.500			
0.9052	57935.58	3.0480	3.0481	-0.1227	27.42	1.44	-1.500			
0.9056	57958.92	3.0450	3.0450	-0.1218	27.43	1.45	-1.500			
0.9060	57982.22	3.0420	3.0420	-0.1213	27.43	1.45	-1.500			
0.9063	58005.18	3.0390	3.0390	-0.1205	27.44	1.46	-1.500			
0.9067	58028.50	3.0360	3.0360	-0.1199	27.44	1.46	-1.500			
0.9071	58051.65	3.0330	3.0329	-0.1196	27.45	1.47	-1.500			
0.9074	58074.50	3.0300	3.0301	-0.1190	27.45	1.47	-1.500			
0.9078	58097.47	3.0270	3.0270	-0.1186	27.46	1.48	-1.500			
0.9081	58120.01	3.0240	3.0240	-0.1182	27.46	1.48	-1.500			
0.9085	58142.39	3.0210	3.0210	-0.1173	27.46	1.48	-1.500			
0.9088	58165.09	3.0180	3.0179	-0.1164	27.47	1.49	-1.500			
0.9092	58187.45	3.0150	3.0151	-0.1158	27.47	1.49	-1.500			
0.9095	58209.61	3.0120	3.0120	-0.1150	27.48	1.50	-1.500			
0.9099	58231.96	3.0090	3.0090	-0.1137	27.48	1.50	-1.500			
0.9102	58253.63	3.0060	3.0061	-0.1120	27.49	1.51	-1.500			
0.9105	58274.85	3.0030	3.0030	-0.1076	27.49	1.51	-1.500			
