Ah_balance (normalized)	Ah_balance (mAh)	Voltage - fit (V)	Voltage -  interpolate (V)	dQ/dV (1/V)	Temperature (°C)	Temperature - diff (°C)	Current (C)	R_DC 0ms (mOhm)	R_DC 50ms (mOhm)	R_DC 50 ms PEC (mOhm)
0.2850	18241.69	3.9700	3.9699	0.8845	26.98	1.06	1.500			
0.2877	18410.42	3.9670	3.9670	0.8813	26.98	1.06	1.500			
0.2903	18579.14	3.9640	3.9640	0.8845	26.98	1.06	1.500			
0.2930	18749.09	3.9610	3.9610	0.8881	26.97	1.05	1.500			
0.2956	18920.80	3.9580	3.9581	0.8893	26.97	1.05	1.500			
0.2983	19091.55	3.9550	3.9550	0.8894	26.97	1.05	1.500			
0.3010	19263.25	3.9520	3.9519	0.8912	26.97	1.05	1.500			
0.3037	19434.02	3.9490	3.9491	0.8972	26.97	1.05	1.500			
0.3063	19605.62	3.9460	3.9460	0.9001	26.96	1.04	1.500			
0.3090	19778.95	3.9430	3.9429	0.9047	26.96	1.04	1.500			
0.3118	19953.73	3.9400	3.9401	0.9119	26.96	1.04	1.500			
0.3145	20129.22	3.9370	3.9370	0.9192	26.95	1.03	1.500			
0.3173	20305.86	3.9340	3.9340	0.9240	26.95	1.03	1.500			
0.3200	20483.20	3.9310	3.9310	0.9301	26.95	1.03	1.500			
0.3229	20662.84	3.9280	3.9280	0.9375	26.94	1.02	1.500			
0.3257	20844.64	3.9250	3.9250	0.9432	26.94	1.02	1.500			
0.3285	21026.79	3.9220	3.9220	0.9465	26.94	1.02	1.500			
0.3314	21208.31	3.9190	3.9190	0.9529	26.93	1.01	1.500			
0.3342	21391.30	3.9160	3.9159	0.9595	26.93	1.01	1.500			
0.3371	21575.40	3.9130	3.9130	0.9635	26.93	1.01	1.500			
0.3400	21760.56	3.9100	3.9099	0.9696	26.92	1.00	1.500			
0.3430	21949.36	3.9070	3.9071	0.9776	26.92	1.00	1.500			
0.3459	22138.08	3.9040	3.9040	0.9824	26.91	0.99	1.500			
0.3489	22327.34	3.9010	3.9010	0.9874	26.91	0.99	1.500			
0.3518	22515.81	3.8980	3.8980	0.9947	26.90	0.98	1.500			
0.3548	22705.47	3.8950	3.8950	1.0048	26.90	0.98	1.500			
0.3578	22900.18	3.8920	3.8920	1.0171	26.89	0.97	1.500			
0.3609	23095.97	3.8890	3.8890	1.0312	26.89	0.97	1.500			
0.3640	23295.94	3.8860	3.8860	1.0434	26.89	0.97	1.500			
0.3672	23498.90	3.8830	3.8831	1.0533	26.88	0.96	1.500			
0.3703	23701.48	3.8800	3.8799	1.0651	26.88	0.96	1.500			
0.3736	23907.32	3.8770	3.8770	1.0707	26.87	0.95	1.500			
0.3768	24113.67	3.8740	3.8740	1.0807	26.87	0.95	1.500			
0.3800	24321.54	3.8710	3.8710	1.0958	26.87	0.95	1.500			
0.3833	24531.62	3.8680	3.8681	1.1106	26.86	0.94	1.500			
0.3867	24746.99	3.8650	3.8651	1.1280	26.86	0.94	1.500			
0.3901	24966.77	3.8620	3.8620	1.1424	26.85	0.93	1.500			
0.3935	25186.79	3.8590	3.8590	1.1542	26.85	0.93	1.500			
0.3970	25409.89	3.8560	3.8560	1.1741	26.84	0.92	1.500			
0.4006	25636.28	3.8530	3.8531	1.1894	26.84	0.92	1.500			
0.4041	25864.67	3.8500	3.8499	1.2035	26.83	0.91	1.500			
0.4078	26096.36	3.8470	3.8470	1.2203	26.82	0.90	1.500			
0.4115	26333.60	3.8440	3.8440	1.2425	26.82	0.90	1.500			
0.4152	26574.29	3.8410	3.8410	1.2658	26.81	0.89	1.500			
0.4190	26818.08	3.8380	3.8379	1.2860	26.80	0.88	1.500			
0.4229	27064.41	3.8350	3.8351	1.3055	26.79	0.87	1.500			
0.4268	27318.19	3.8320	3.8320	1.3350	26.78	0.86	1.500			
0.4309	27576.54	3.8290	3.8290	1.3630	26.77	0.85	1.500			
0.4350	27840.97	3.8260	3.8258	1.3908	26.76	0.84	1.500			
0.4392	28109.92	3.8230	3.8231	1.4202	26.75	0.83	1.500			
0.4435	28386.05	3.8200	3.8200	1.4452	26.74	0.82	1.500			
0.4479	28665.19	3.8170	3.8170	1.4811	26.73	0.81	1.500			
0.4524	28951.70	3.8140	3.8140	1.5117	26.72	0.80	1.500			
0.4569	29244.79	3.8110	3.8109	1.5487	26.71	0.79	1.500			
0.4616	29544.99	3.8080	3.8080	1.5922	26.70	0.78	1.500			
0.4665	29856.19	3.8050	3.8051	1.6269	26.69	0.77	1.500			
0.4714	30172.75	3.8020	3.8019	1.6681	26.68	0.76	1.500			
0.4765	30494.47	3.7990	3.7991	1.7126	26.67	0.75	1.500			
0.4817	30826.60	3.7960	3.7960	1.7661	26.66	0.74	1.500			
0.4871	31173.38	3.7930	3.7930	1.8131	26.64	0.72	1.500			
0.4926	31527.05	3.7900	3.7900	1.8443	26.63	0.71	1.500			
0.4982	31884.43	3.7870	3.7871	1.9110	26.61	0.69	1.500			
0.5040	32255.79	3.7840	3.7840	1.9700	26.60	0.68	1.500			
0.5099	32634.65	3.7810	3.7808	2.0199	26.58	0.66	1.500			
0.5161	33030.65	3.7780	3.7781	2.0640	26.57	0.65	1.500			
0.5224	33434.42	3.7750	3.7751	2.1347	26.55	0.63	1.500			
0.5289	33849.57	3.7720	3.7720	2.1489	26.53	0.61	1.500			
0.5355	34274.41	3.7690	3.7689	2.1693	26.52	0.60	1.500			
0.5421	34691.93	3.7660	3.7662	2.1999	26.50	0.58	1.500			
0.5487	35114.52	3.7630	3.7630	2.2498	26.48	0.56	1.500			
0.5554	35547.18	3.7600	3.7601	2.2693	26.45	0.53	1.500	0.360	0.450	
0.5624	35991.77	3.7570	3.7570	2.2796	26.43	0.51	1.500			
0.5693	36436.05	3.7540	3.7541	2.2498	26.41	0.49	1.500			
0.5760	36863.33	3.7510	3.7510	2.2014	26.40	0.48	1.500			
0.5824	37275.29	3.7480	3.7480	2.1579	26.38	0.46	1.500			
0.5888	37686.02	3.7450	3.7449	2.1227	26.36	0.44	1.500			
0.5952	38092.14	3.7420	3.7421	2.0977	26.34	0.42	1.500			
0.6014	38491.23	3.7390	3.7390	2.1110	26.32	0.40	1.500			
0.6077	38894.79	3.7360	3.7359	2.1022	26.31	0.39	1.500			
0.6140	39296.33	3.7330	3.7330	2.1178	26.29	0.37	1.500			
0.6204	39704.55	3.7300	3.7300	2.1397	26.28	0.36	1.500			
0.6268	40116.70	3.7270	3.7271	2.1620	26.26	0.34	1.500			
0.6332	40526.98	3.7240	3.7239	2.1926	26.24	0.32	1.500			
0.6400	40956.93	3.7210	3.7211	2.2484	26.23	0.31	1.500			
0.6467	41390.48	3.7180	3.7180	2.3072	26.22	0.30	1.500			
0.6537	41836.23	3.7150	3.7150	2.3779	26.20	0.28	1.500			
0.6610	42303.32	3.7120	3.7120	2.4869	26.19	0.27	1.500			
0.6686	42790.03	3.7090	3.7090	2.5661	26.17	0.25	1.500			
0.6765	43295.01	3.7060	3.7061	2.6939	26.15	0.23	1.500			
0.6847	43822.68	3.7030	3.7029	2.7707	26.13	0.21	1.500			
0.6932	44365.20	3.7000	3.7001	2.8006	26.11	0.19	1.500			
0.7017	44910.72	3.6970	3.6970	2.8128	26.09	0.17	1.500			
0.7102	45450.66	3.6940	3.6941	2.7515	26.07	0.15	1.500			
0.7185	45984.50	3.6910	3.6910	2.6493	26.06	0.14	1.500			
0.7262	46479.41	3.6880	3.6880	2.4693	26.05	0.13	1.500			
0.7332	46926.20	3.6850	3.6849	2.2258	26.04	0.12	1.500			
0.7395	47327.83	3.6820	3.6821	2.0189	26.04	0.12	1.500			
0.7452	47694.14	3.6790	3.6790	1.8415	26.03	0.11	1.500			
0.7503	48019.30	3.6760	3.6761	1.7006	26.03	0.11	1.500			
0.7552	48331.40	3.6730	3.6730	1.5932	26.02	0.10	1.500			
0.7598	48626.25	3.6700	3.6699	1.5075	26.02	0.10	1.500			
0.7642	48905.84	3.6670	3.6670	1.4288	26.02	0.10	1.500			
0.7683	49170.07	3.6640	3.6640	1.3668	26.01	0.09	1.500			
0.7723	49426.13	3.6610	3.6610	1.3030	26.01	0.09	1.500			
0.7760	49663.01	3.6580	3.6580	1.2652	26.01	0.09	1.500			
0.7797	49899.12	3.6550	3.6550	1.2533	26.00	0.08	1.500			
0.7833	50133.42	3.6520	3.6520	1.2407	26.00	0.08	1.500			
0.7871	50371.34	3.6490	3.6490	1.2492	26.00	0.08	1.500			
0.7908	50611.00	3.6460	3.6461	1.2621	25.99	0.07	1.500			
0.7946	50856.44	3.6430	3.6430	1.2724	25.98	0.06	1.500			
0.7985	51104.28	3.6400	3.6400	1.2929	25.98	0.06	1.500			
0.8024	51350.46	3.6370	3.6370	1.2967	25.97	0.05	1.500			
0.8063	51601.43	3.6340	3.6340	1.3079	25.97	0.05	1.500			
0.8102	51855.74	3.6310	3.6309	1.3140	25.96	0.04	1.500			
0.8142	52108.71	3.6280	3.6280	1.3123	25.95	0.03	1.500			
0.8181	52361.18	3.6250	3.6250	1.3121	25.95	0.03	1.500			
0.8221	52615.25	3.6220	3.6220	1.3029	25.94	0.02	1.500			
0.8260	52861.78	3.6190	3.6190	1.2987	25.93	0.01	1.500			
0.8299	53111.46	3.6160	3.6160	1.3014	25.93	0.01	1.500			
0.8338	53360.47	3.6130	3.6129	1.3013	25.92	0.00	1.500			
0.8377	53610.39	3.6100	3.6100	1.3035	25.92	-0.00	1.500			
0.8416	53862.12	3.6070	3.6070	1.3003	25.91	-0.01	1.500			
0.8455	54113.65	3.6040	3.6040	1.2868	25.91	-0.01	1.500			
0.8494	54363.91	3.6010	3.6010	1.2802	25.91	-0.01	1.500			
0.8532	54605.69	3.5980	3.5981	1.2636	25.91	-0.01	1.500			
0.8570	54847.56	3.5950	3.5950	1.2444	25.90	-0.02	1.500			
0.8607	55084.29	3.5920	3.5920	1.2243	25.90	-0.02	1.500			
0.8643	55316.81	3.5890	3.5890	1.2099	25.90	-0.02	1.500			
0.8679	55547.22	3.5860	3.5860	1.2017	25.91	-0.01	1.500			
0.8715	55775.11	3.5830	3.5830	1.1979	25.91	-0.01	1.500			
0.8750	56001.24	3.5800	3.5800	1.2012	25.91	-0.01	1.500			
0.8786	56230.99	3.5770	3.5770	1.2065	25.91	-0.01	1.500			
0.8824	56470.99	3.5740	3.5739	1.1871	25.92	-0.00	1.500			
0.8860	56706.31	3.5710	3.5710	1.1470	25.92	0.00	1.500			
0.8896	56931.24	3.5680	3.5681	1.0405	25.92	0.00	1.500			
0.8928	57136.19	3.5650	3.5652	0.9250	25.93	0.01	1.500			
0.8954	57302.49	3.5620	3.5621	0.7763	25.93	0.01	1.500			
0.8974	57433.95	3.5590	3.5590	0.6247	25.93	0.01	1.500			
0.8989	57529.48	3.5560	3.5558	0.4949	25.93	0.01	1.500			
0.9001	57606.58	3.5530	3.5529	0.4058	25.93	0.01	1.500			
0.9011	57667.89	3.5500	3.5499	0.3320	25.93	0.01	1.500			
0.9019	57722.27	3.5470	3.5470	0.2834	25.93	0.01	1.500			
0.9026	57768.76	3.5440	3.5439	0.2391	25.93	0.01	1.500			
0.9033	57809.49	3.5410	3.5410	0.2104	25.93	0.01	1.500			
0.9038	57844.77	3.5380	3.5380	0.1857	25.94	0.02	1.500			
0.9043	57877.10	3.5350	3.5350	0.1656	25.94	0.02	1.500			
0.9048	57907.30	3.5320	3.5319	0.1490	25.94	0.02	1.500			
0.9052	57933.62	3.5290	3.5289	0.1322	25.94	0.02	1.500			
0.9056	57957.55	3.5260	3.5260	0.1170	25.94	0.02	1.500			
0.9059	57978.59	3.5230	3.5231	0.1019	25.94	0.02	1.500			
0.9062	57996.69	3.5200	3.5201	0.0866	25.94	0.02	1.500			
0.9064	58012.47	3.5170	3.5172	0.0710	25.94	0.02	1.500			
0.9066	58024.28	3.5140	3.5146	0.0553	25.94	0.02	1.500			
0.9068	58033.39	3.5110	3.5119	0.0396	25.94	0.02	1.500			
