Ah_balance (normalized)	Ah_balance (mAh)	Voltage - fit (V)	Voltage -  interpolate (V)	dQ/dV (1/V)	Temperature (°C)	Temperature - diff (°C)	Current (C)	R_DC 0ms (mOhm)	R_DC 50ms (mOhm)	R_DC 50 ms PEC (mOhm)
0.2102	13452.50	3.9150	3.9158	-0.0908	25.81	0.01	-1.499			
0.2105	13472.98	3.9120	3.9115	-0.1226	25.81	0.01	-1.500			
0.2109	13500.27	3.9090	3.9088	-0.1538	25.81	0.01	-1.500			
0.2114	13532.43	3.9060	3.9060	-0.1820	25.81	0.01	-1.500			
0.2120	13570.00	3.9030	3.9031	-0.2110	25.80	0.00	-1.500			
0.2127	13613.56	3.9000	3.9001	-0.2379	25.80	0.00	-1.500			
0.2135	13662.34	3.8970	3.8969	-0.2650	25.80	0.00	-1.500			
0.2143	13715.73	3.8940	3.8941	-0.2919	25.80	0.00	-1.500			
0.2152	13774.36	3.8910	3.8910	-0.3185	25.80	0.00	-1.500			
0.2162	13838.25	3.8880	3.8880	-0.3455	25.80	0.00	-1.500			
0.2173	13906.84	3.8850	3.8850	-0.3725	25.80	0.00	-1.500			
0.2185	13980.84	3.8820	3.8820	-0.3978	25.80	0.00	-1.500			
0.2197	14059.80	3.8790	3.8790	-0.4260	25.80	0.00	-1.500			
0.2210	14144.39	3.8760	3.8760	-0.4523	25.80	0.00	-1.500			
0.2224	14233.93	3.8730	3.8730	-0.4774	25.80	0.00	-1.500			
0.2239	14328.45	3.8700	3.8700	-0.5027	25.80	0.00	-1.500			
0.2254	14427.54	3.8670	3.8671	-0.5266	25.80	-0.00	-1.500			
0.2271	14531.36	3.8640	3.8640	-0.5487	25.80	-0.00	-1.500			
0.2287	14639.79	3.8610	3.8610	-0.5680	25.80	-0.00	-1.500			
0.2305	14750.51	3.8580	3.8580	-0.5865	25.80	-0.00	-1.500			
0.2323	14865.60	3.8550	3.8550	-0.6044	25.80	-0.00	-1.500			
0.2341	14983.90	3.8520	3.8520	-0.6174	25.80	-0.00	-1.500			
0.2360	15104.08	3.8490	3.8490	-0.6296	25.80	-0.00	-1.500			
0.2379	15225.96	3.8460	3.8461	-0.6407	25.79	-0.01	-1.500			
0.2399	15350.79	3.8430	3.8431	-0.6525	25.79	-0.01	-1.500			
0.2418	15477.13	3.8400	3.8399	-0.6615	25.79	-0.01	-1.500			
0.2438	15604.70	3.8370	3.8370	-0.6677	25.79	-0.01	-1.500			
0.2458	15734.34	3.8340	3.8340	-0.6748	25.79	-0.01	-1.500			
0.2479	15865.29	3.8310	3.8310	-0.6832	25.79	-0.01	-1.500			
0.2499	15996.72	3.8280	3.8280	-0.6853	25.79	-0.01	-1.500			
0.2520	16127.96	3.8250	3.8250	-0.6903	25.79	-0.01	-1.500			
0.2541	16260.95	3.8220	3.8220	-0.6967	25.79	-0.01	-1.500			
0.2562	16395.30	3.8190	3.8189	-0.7045	25.79	-0.01	-1.500			
0.2583	16532.61	3.8160	3.8160	-0.7055	25.79	-0.01	-1.500			
0.2604	16668.32	3.8130	3.8131	-0.7082	25.79	-0.01	-1.500			
0.2626	16804.73	3.8100	3.8100	-0.7097	25.80	-0.00	-1.500			
0.2647	16941.34	3.8070	3.8070	-0.7122	25.80	-0.00	-1.500			
0.2668	17076.71	3.8040	3.8040	-0.7132	25.80	-0.00	-1.500			
0.2690	17214.52	3.8010	3.8009	-0.7137	25.80	-0.00	-1.500			
0.2711	17351.98	3.7980	3.7980	-0.7149	25.80	-0.00	-1.500			
0.2733	17490.17	3.7950	3.7950	-0.7176	25.80	-0.00	-1.500			
0.2754	17628.03	3.7920	3.7920	-0.7158	25.80	0.00	-1.500			
0.2776	17765.59	3.7890	3.7889	-0.7160	25.81	0.01	-1.500			
0.2797	17901.89	3.7860	3.7860	-0.7151	25.81	0.01	-1.500			
0.2819	18039.51	3.7830	3.7830	-0.7148	25.81	0.01	-1.500			
0.2840	18177.61	3.7800	3.7800	-0.7141	25.82	0.02	-1.500			
0.2862	18313.91	3.7770	3.7770	-0.7167	25.82	0.02	-1.500			
0.2883	18451.09	3.7740	3.7740	-0.7195	25.82	0.02	-1.500			
0.2905	18589.69	3.7710	3.7709	-0.7209	25.83	0.03	-1.500			
0.2926	18728.60	3.7680	3.7680	-0.7216	25.83	0.03	-1.500			
0.2948	18868.00	3.7650	3.7650	-0.7216	25.83	0.03	-1.500			
0.2970	19006.64	3.7620	3.7620	-0.7232	25.84	0.04	-1.500			
0.2992	19145.96	3.7590	3.7590	-0.7218	25.84	0.04	-1.500			
0.3013	19283.13	3.7560	3.7559	-0.7199	25.84	0.04	-1.500			
0.3035	19421.17	3.7530	3.7530	-0.7201	25.85	0.05	-1.500			
0.3056	19559.46	3.7500	3.7500	-0.7232	25.85	0.05	-1.500			
0.3078	19698.19	3.7470	3.7470	-0.7247	25.85	0.05	-1.500			
0.3100	19838.16	3.7440	3.7440	-0.7254	25.86	0.06	-1.500			
0.3121	19976.93	3.7410	3.7410	-0.7268	25.86	0.06	-1.500			
0.3143	20116.72	3.7380	3.7381	-0.7307	25.86	0.06	-1.500			
0.3165	20256.89	3.7350	3.7350	-0.7329	25.87	0.07	-1.500			
0.3187	20398.57	3.7320	3.7320	-0.7341	25.87	0.07	-1.500			
0.3209	20539.63	3.7290	3.7290	-0.7347	25.87	0.07	-1.500			
0.3231	20680.54	3.7260	3.7260	-0.7401	25.88	0.08	-1.500			
0.3254	20823.06	3.7230	3.7230	-0.7433	25.88	0.08	-1.500			
0.3276	20964.87	3.7200	3.7199	-0.7471	25.89	0.09	-1.500			
0.3298	21108.45	3.7170	3.7170	-0.7546	25.89	0.09	-1.500			
0.3321	21254.07	3.7140	3.7140	-0.7601	25.90	0.10	-1.500			
0.3344	21400.54	3.7110	3.7110	-0.7699	25.90	0.10	-1.500			
0.3367	21549.20	3.7080	3.7080	-0.7781	25.91	0.11	-1.500			
0.3390	21698.78	3.7050	3.7050	-0.7865	25.92	0.12	-1.500			
0.3414	21851.62	3.7020	3.7020	-0.7956	25.92	0.12	-1.500			
0.3438	22005.27	3.6990	3.6990	-0.8024	25.93	0.13	-1.500			
0.3462	22159.43	3.6960	3.6960	-0.8125	25.93	0.13	-1.500			
0.3487	22316.78	3.6930	3.6930	-0.8224	25.94	0.14	-1.500			
0.3512	22474.01	3.6900	3.6900	-0.8303	25.94	0.14	-1.500			
0.3537	22634.46	3.6870	3.6870	-0.8440	25.94	0.14	-1.500			
0.3562	22797.84	3.6840	3.6841	-0.8568	25.95	0.15	-1.500			
0.3588	22964.32	3.6810	3.6810	-0.8698	25.95	0.15	-1.500			
0.3615	23133.07	3.6780	3.6780	-0.8830	25.95	0.15	-1.500			
0.3641	23303.16	3.6750	3.6751	-0.8946	25.95	0.15	-1.500			
0.3668	23476.00	3.6720	3.6720	-0.9079	25.95	0.15	-1.500			
0.3696	23651.50	3.6690	3.6690	-0.9158	25.96	0.16	-1.500			
0.3723	23827.38	3.6660	3.6660	-0.9280	25.96	0.16	-1.500			
0.3751	24005.82	3.6630	3.6631	-0.9484	25.96	0.16	-1.500			
0.3780	24190.07	3.6600	3.6599	-0.9650	25.96	0.16	-1.500			
0.3809	24375.83	3.6570	3.6570	-0.9821	25.97	0.17	-1.500			
0.3838	24564.47	3.6540	3.6541	-1.0064	25.97	0.17	-1.500			
0.3869	24762.13	3.6510	3.6510	-1.0248	25.97	0.17	-1.500			
0.3900	24962.13	3.6480	3.6478	-1.0497	25.97	0.17	-1.500			
0.3932	25165.99	3.6450	3.6451	-1.0634	25.98	0.18	-1.500			
0.3964	25372.01	3.6420	3.6419	-1.0784	25.98	0.18	-1.500			
0.3997	25581.62	3.6390	3.6392	-1.1024	25.98	0.18	-1.500			
0.4030	25794.29	3.6360	3.6360	-1.1185	25.98	0.18	-1.500			
0.4064	26007.19	3.6330	3.6329	-1.1338	25.99	0.19	-1.500			
0.4098	26227.70	3.6300	3.6299	-1.1603	25.99	0.19	-1.500			
0.4133	26451.77	3.6270	3.6271	-1.1904	25.99	0.19	-1.500			
0.4169	26684.03	3.6240	3.6240	-1.2107	25.99	0.19	-1.500			
0.4206	26920.80	3.6210	3.6209	-1.2318	26.00	0.20	-1.500			
0.4243	27158.18	3.6180	3.6182	-1.2536	26.00	0.20	-1.500			
0.4281	27401.18	3.6150	3.6149	-1.2744	26.00	0.20	-1.500			
0.4320	27646.10	3.6120	3.6121	-1.2994	26.00	0.20	-1.500			
0.4359	27895.65	3.6090	3.6090	-1.3247	26.00	0.20	-1.500			
0.4399	28153.93	3.6060	3.6060	-1.3557	26.00	0.20	-1.500			
0.4441	28420.40	3.6030	3.6029	-1.3763	26.00	0.20	-1.500			
0.4482	28687.54	3.6000	3.6000	-1.3957	26.00	0.20	-1.500			
0.4524	28955.03	3.5970	3.5970	-1.4140	26.00	0.20	-1.500			
0.4567	29227.42	3.5940	3.5940	-1.4390	26.00	0.20	-1.500			
0.4610	29504.70	3.5910	3.5909	-1.4609	26.00	0.20	-1.500			
0.4654	29787.00	3.5880	3.5879	-1.4788	26.00	0.20	-1.500			
0.4700	30077.00	3.5850	3.5850	-1.5050	26.00	0.20	-1.500			
0.4745	30369.74	3.5820	3.5821	-1.5255	26.00	0.20	-1.500			
0.4791	30663.29	3.5790	3.5790	-1.5460	26.00	0.20	-1.500			
0.4838	30960.22	3.5760	3.5760	-1.5686	26.00	0.20	-1.500			
0.4884	31259.44	3.5730	3.5730	-1.5894	26.01	0.21	-1.500			
0.4933	31570.73	3.5700	3.5699	-1.6206	26.01	0.21	-1.500			
0.4982	31885.06	3.5670	3.5671	-1.6400	26.01	0.21	-1.500			
0.5032	32203.47	3.5640	3.5640	-1.6647	26.01	0.21	-1.500			
0.5082	32524.65	3.5610	3.5610	-1.6866	26.01	0.21	-1.500			
0.5133	32851.29	3.5580	3.5580	-1.6959	26.02	0.22	-1.500			
0.5184	33180.73	3.5550	3.5550	-1.7184	26.02	0.22	-1.500			
0.5236	33510.89	3.5520	3.5521	-1.7288	26.02	0.22	-1.500			
0.5288	33845.14	3.5490	3.5489	-1.7363	26.02	0.22	-1.500			
0.5341	34180.00	3.5460	3.5460	-1.7477	26.03	0.23	-1.500			
0.5393	34512.98	3.5430	3.5430	-1.7584	26.03	0.23	-1.500			
0.5446	34854.26	3.5400	3.5399	-1.7743	26.04	0.24	-1.500			
0.5499	35195.61	3.5370	3.5370	-1.7843	26.04	0.24	-1.500			
0.5553	35537.78	3.5340	3.5342	-1.7861	26.04	0.24	-1.500	0.386	0.520	
0.5607	35882.60	3.5310	3.5310	-1.7900	26.05	0.25	-1.500			
0.5661	36228.67	3.5280	3.5280	-1.7886	26.05	0.25	-1.500			
0.5714	36570.93	3.5250	3.5250	-1.7875	26.06	0.26	-1.500			
0.5768	36912.53	3.5220	3.5220	-1.7881	26.06	0.26	-1.500			
0.5821	37256.28	3.5190	3.5190	-1.7992	26.08	0.28	-1.500			
0.5875	37601.79	3.5160	3.5159	-1.7909	26.09	0.29	-1.500			
0.5929	37946.97	3.5130	3.5130	-1.7930	26.10	0.30	-1.500			
0.5983	38293.30	3.5100	3.5101	-1.7898	26.11	0.31	-1.500			
0.6037	38636.83	3.5070	3.5069	-1.7883	26.12	0.32	-1.500			
0.6090	38975.41	3.5040	3.5040	-1.7834	26.13	0.33	-1.500			
0.6143	39318.18	3.5010	3.5010	-1.7848	26.14	0.34	-1.500			
0.6198	39664.36	3.4980	3.4980	-1.7867	26.15	0.35	-1.500			
0.6251	40006.25	3.4950	3.4951	-1.7739	26.16	0.36	-1.500			
0.6304	40346.76	3.4920	3.4920	-1.7692	26.17	0.37	-1.500			
0.6357	40685.81	3.4890	3.4890	-1.7611	26.18	0.38	-1.500			
0.6410	41021.49	3.4860	3.4860	-1.7456	26.19	0.39	-1.500			
0.6462	41355.72	3.4830	3.4830	-1.7367	26.20	0.40	-1.500			
0.6514	41689.82	3.4800	3.4800	-1.7275	26.21	0.41	-1.500			
0.6566	42019.36	3.4770	3.4770	-1.7218	26.22	0.42	-1.500			
0.6617	42351.02	3.4740	3.4740	-1.7080	26.24	0.44	-1.500			
0.6669	42678.85	3.4710	3.4710	-1.6881	26.26	0.46	-1.500			
0.6719	43002.54	3.4680	3.4680	-1.6665	26.27	0.47	-1.500			
0.6769	43322.21	3.4650	3.4651	-1.6508	26.29	0.49	-1.500			
0.6818	43635.41	3.4620	3.4620	-1.6256	26.30	0.50	-1.500			
0.6866	43945.32	3.4590	3.4590	-1.5950	26.31	0.51	-1.500			
0.6913	44246.15	3.4560	3.4560	-1.5729	26.33	0.53	-1.500			
0.6961	44547.86	3.4530	3.4531	-1.5573	26.34	0.54	-1.500			
0.7007	44845.54	3.4500	3.4499	-1.5389	26.36	0.56	-1.500			
0.7053	45138.55	3.4470	3.4470	-1.5154	26.37	0.57	-1.500			
0.7098	45426.15	3.4440	3.4440	-1.5000	26.39	0.59	-1.500			
0.7143	45714.02	3.4410	3.4409	-1.4859	26.40	0.60	-1.500			
0.7187	45999.89	3.4380	3.4380	-1.4699	26.42	0.62	-1.500			
0.7231	46279.16	3.4350	3.4350	-1.4440	26.44	0.64	-1.500			
0.7274	46554.22	3.4320	3.4319	-1.4348	26.45	0.65	-1.500			
0.7317	46827.90	3.4290	3.4290	-1.4213	26.47	0.67	-1.500			
0.7359	47095.96	3.4260	3.4260	-1.4142	26.49	0.69	-1.500			
0.7401	47365.03	3.4230	3.4230	-1.4065	26.51	0.71	-1.500			
0.7444	47640.31	3.4200	3.4200	-1.3940	26.53	0.73	-1.500			
0.7486	47907.66	3.4170	3.4169	-1.3782	26.55	0.75	-1.500			
0.7527	48172.36	3.4140	3.4140	-1.3617	26.57	0.77	-1.500			
0.7567	48428.74	3.4110	3.4109	-1.3411	26.59	0.79	-1.500			
0.7607	48685.46	3.4080	3.4079	-1.3118	26.60	0.80	-1.500			
0.7646	48936.42	3.4050	3.4050	-1.2698	26.62	0.82	-1.500			
0.7685	49181.28	3.4020	3.4020	-1.2392	26.64	0.84	-1.500			
0.7721	49416.27	3.3990	3.3990	-1.1976	26.66	0.86	-1.500			
0.7756	49640.94	3.3960	3.3959	-1.1473	26.68	0.88	-1.500			
0.7790	49854.93	3.3930	3.3930	-1.1017	26.70	0.90	-1.500			
0.7822	50059.08	3.3900	3.3900	-1.0579	26.71	0.91	-1.500			
0.7853	50260.56	3.3870	3.3871	-1.0241	26.73	0.93	-1.500			
0.7884	50455.11	3.3840	3.3839	-0.9857	26.75	0.95	-1.500			
0.7912	50639.40	3.3810	3.3810	-0.9456	26.76	0.96	-1.500			
0.7940	50817.51	3.3780	3.3780	-0.9088	26.78	0.98	-1.500			
0.7967	50988.09	3.3750	3.3749	-0.8744	26.78	0.98	-1.500			
0.7992	51151.64	3.3720	3.3720	-0.8385	26.79	0.99	-1.500			
0.8017	51307.50	3.3690	3.3690	-0.8051	26.80	1.00	-1.500			
0.8041	51460.42	3.3660	3.3661	-0.7794	26.81	1.01	-1.500			
0.8064	51607.11	3.3630	3.3629	-0.7522	26.83	1.03	-1.500			
0.8086	51748.21	3.3600	3.3601	-0.7230	26.84	1.04	-1.500			
0.8107	51883.52	3.3570	3.3570	-0.6991	26.85	1.05	-1.500			
0.8127	52015.40	3.3540	3.3539	-0.6743	26.86	1.06	-1.500			
0.8147	52142.20	3.3510	3.3510	-0.6542	26.87	1.07	-1.500			
0.8166	52265.23	3.3480	3.3481	-0.6339	26.88	1.08	-1.500			
0.8185	52384.68	3.3450	3.3449	-0.6155	26.89	1.09	-1.500			
0.8203	52501.60	3.3420	3.3419	-0.5981	26.90	1.10	-1.500			
0.8221	52614.96	3.3390	3.3390	-0.5791	26.90	1.10	-1.500			
0.8238	52723.83	3.3360	3.3361	-0.5603	26.91	1.11	-1.500			
0.8255	52830.53	3.3330	3.3330	-0.5444	26.92	1.12	-1.500			
0.8271	52932.18	3.3300	3.3300	-0.5254	26.93	1.13	-1.500			
0.8286	53030.95	3.3270	3.3270	-0.5084	26.93	1.13	-1.500			
0.8301	53126.48	3.3240	3.3240	-0.4942	26.94	1.14	-1.500			
0.8316	53220.63	3.3210	3.3210	-0.4804	26.95	1.15	-1.500			
0.8330	53311.53	3.3180	3.3180	-0.4666	26.96	1.16	-1.500			
0.8344	53398.91	3.3150	3.3150	-0.4532	26.96	1.16	-1.500			
0.8357	53484.85	3.3120	3.3120	-0.4414	26.97	1.17	-1.500			
0.8370	53568.32	3.3090	3.3089	-0.4281	26.98	1.18	-1.500			
0.8383	53649.64	3.3060	3.3060	-0.4162	26.99	1.19	-1.500			
0.8395	53728.01	3.3030	3.3031	-0.4034	26.99	1.19	-1.500			
0.8407	53804.52	3.3000	3.3000	-0.3944	27.00	1.20	-1.500			
0.8419	53878.83	3.2970	3.2970	-0.3827	27.01	1.21	-1.500			
0.8430	53951.06	3.2940	3.2939	-0.3715	27.01	1.21	-1.500			
0.8441	54021.52	3.2910	3.2911	-0.3618	27.02	1.22	-1.500			
0.8452	54090.23	3.2880	3.2880	-0.3517	27.02	1.22	-1.500			
0.8462	54156.24	3.2850	3.2849	-0.3416	27.03	1.23	-1.500			
0.8472	54220.65	3.2820	3.2820	-0.3322	27.03	1.23	-1.500			
0.8482	54282.82	3.2790	3.2790	-0.3248	27.04	1.24	-1.500			
0.8491	54344.79	3.2760	3.2759	-0.3176	27.04	1.24	-1.500			
0.8501	54405.34	3.2730	3.2730	-0.3100	27.05	1.25	-1.500			
0.8510	54463.96	3.2700	3.2700	-0.3030	27.05	1.25	-1.500			
0.8519	54521.62	3.2670	3.2671	-0.2954	27.06	1.26	-1.500			
0.8528	54577.28	3.2640	3.2640	-0.2893	27.06	1.26	-1.500			
0.8536	54631.82	3.2610	3.2610	-0.2822	27.07	1.27	-1.500			
0.8545	54685.19	3.2580	3.2580	-0.2761	27.08	1.28	-1.500			
0.8553	54737.73	3.2550	3.2550	-0.2715	27.08	1.28	-1.500			
0.8561	54789.49	3.2520	3.2521	-0.2656	27.09	1.29	-1.500			
0.8569	54840.06	3.2490	3.2490	-0.2599	27.09	1.29	-1.500			
0.8577	54889.61	3.2460	3.2460	-0.2546	27.10	1.30	-1.500			
0.8584	54937.73	3.2430	3.2431	-0.2488	27.10	1.30	-1.500			
0.8591	54984.30	3.2400	3.2400	-0.2431	27.11	1.31	-1.500			
0.8599	55030.57	3.2370	3.2370	-0.2384	27.11	1.31	-1.500			
0.8606	55075.82	3.2340	3.2340	-0.2332	27.12	1.32	-1.500			
0.8613	55120.08	3.2310	3.2310	-0.2290	27.12	1.32	-1.500			
0.8619	55163.45	3.2280	3.2281	-0.2260	27.13	1.33	-1.500			
0.8626	55206.52	3.2250	3.2251	-0.2226	27.13	1.33	-1.500			
0.8633	55248.67	3.2220	3.2219	-0.2193	27.14	1.34	-1.500			
0.8639	55290.59	3.2190	3.2190	-0.2157	27.14	1.34	-1.500			
0.8646	55331.53	3.2160	3.2160	-0.2128	27.15	1.35	-1.500			
0.8652	55372.12	3.2130	3.2131	-0.2101	27.15	1.35	-1.500			
0.8658	55412.48	3.2100	3.2100	-0.2075	27.16	1.36	-1.500			
0.8664	55452.03	3.2070	3.2069	-0.2040	27.16	1.36	-1.500			
0.8670	55490.63	3.2040	3.2040	-0.2005	27.17	1.37	-1.500			
0.8676	55528.85	3.2010	3.2010	-0.1977	27.17	1.37	-1.500			
0.8682	55566.56	3.1980	3.1980	-0.1953	27.18	1.38	-1.500			
0.8688	55603.87	3.1950	3.1950	-0.1931	27.18	1.38	-1.500			
0.8694	55640.26	3.1920	3.1919	-0.1901	27.19	1.39	-1.500			
0.8699	55676.61	3.1890	3.1891	-0.1885	27.19	1.39	-1.500			
0.8705	55712.55	3.1860	3.1860	-0.1870	27.20	1.40	-1.500			
0.8711	55748.62	3.1830	3.1829	-0.1851	27.20	1.40	-1.500			
0.8716	55784.06	3.1800	3.1800	-0.1830	27.21	1.41	-1.500			
0.8722	55818.96	3.1770	3.1771	-0.1806	27.21	1.41	-1.500			
0.8727	55853.37	3.1740	3.1741	-0.1789	27.22	1.42	-1.500			
0.8732	55887.61	3.1710	3.1709	-0.1767	27.22	1.42	-1.500			
0.8738	55921.14	3.1680	3.1680	-0.1741	27.23	1.43	-1.500			
0.8743	55954.33	3.1650	3.1650	-0.1726	27.23	1.43	-1.500			
0.8748	55987.13	3.1620	3.1621	-0.1710	27.24	1.44	-1.500			
0.8753	56019.90	3.1590	3.1590	-0.1701	27.24	1.44	-1.500			
0.8758	56052.42	3.1560	3.1559	-0.1687	27.24	1.44	-1.500			
0.8763	56084.66	3.1530	3.1530	-0.1670	27.25	1.45	-1.500			
0.8768	56116.58	3.1500	3.1500	-0.1650	27.25	1.45	-1.500			
0.8773	56148.40	3.1470	3.1469	-0.1637	27.26	1.46	-1.500			
0.8778	56179.62	3.1440	3.1441	-0.1615	27.26	1.46	-1.500			
0.8783	56210.23	3.1410	3.1410	-0.1606	27.27	1.47	-1.500			
0.8788	56240.84	3.1380	3.1380	-0.1589	27.27	1.47	-1.500			
0.8792	56271.09	3.1350	3.1350	-0.1575	27.28	1.48	-1.500			
0.8797	56301.24	3.1320	3.1319	-0.1566	27.28	1.48	-1.500			
0.8802	56331.29	3.1290	3.1292	-0.1556	27.29	1.49	-1.500			
0.8806	56361.17	3.1260	3.1260	-0.1545	27.29	1.49	-1.500			
0.8811	56390.71	3.1230	3.1230	-0.1534	27.30	1.50	-1.500			
0.8816	56420.03	3.1200	3.1200	-0.1520	27.30	1.50	-1.500			
0.8820	56448.83	3.1170	3.1170	-0.1510	27.30	1.50	-1.500			
0.8825	56477.97	3.1140	3.1140	-0.1500	27.31	1.51	-1.500			
0.8829	56506.46	3.1110	3.1110	-0.1491	27.31	1.51	-1.500			
0.8834	56535.05	3.1080	3.1081	-0.1483	27.32	1.52	-1.500			
0.8838	56563.42	3.1050	3.1050	-0.1475	27.32	1.52	-1.500			
0.8842	56591.83	3.1020	3.1019	-0.1459	27.33	1.53	-1.500			
0.8847	56619.63	3.0990	3.0991	-0.1451	27.33	1.53	-1.500			
0.8851	56647.19	3.0960	3.0960	-0.1446	27.34	1.54	-1.500			
0.8855	56674.76	3.0930	3.0931	-0.1439	27.34	1.54	-1.500			
0.8860	56702.41	3.0900	3.0899	-0.1432	27.35	1.55	-1.500			
0.8864	56729.95	3.0870	3.0870	-0.1415	27.35	1.55	-1.500			
0.8868	56757.27	3.0840	3.0840	-0.1408	27.36	1.56	-1.500			
0.8873	56784.04	3.0810	3.0811	-0.1400	27.36	1.56	-1.500			
0.8877	56811.04	3.0780	3.0780	-0.1392	27.37	1.57	-1.500			
0.8881	56837.36	3.0750	3.0749	-0.1376	27.38	1.58	-1.500			
0.8885	56863.38	3.0720	3.0719	-0.1362	27.38	1.58	-1.500			
0.8889	56889.54	3.0690	3.0691	-0.1359	27.39	1.59	-1.500			
0.8893	56915.76	3.0660	3.0660	-0.1354	27.39	1.59	-1.500			
0.8897	56941.94	3.0630	3.0630	-0.1349	27.40	1.60	-1.500			
0.8901	56967.73	3.0600	3.0600	-0.1337	27.40	1.60	-1.500			
0.8905	56993.06	3.0570	3.0569	-0.1329	27.41	1.61	-1.500			
0.8909	57018.54	3.0540	3.0540	-0.1324	27.41	1.61	-1.500			
0.8913	57043.73	3.0510	3.0511	-0.1319	27.42	1.62	-1.500			
0.8917	57069.03	3.0480	3.0479	-0.1316	27.42	1.62	-1.500			
0.8921	57094.27	3.0450	3.0450	-0.1306	27.43	1.63	-1.500			
0.8925	57119.42	3.0420	3.0421	-0.1301	27.43	1.63	-1.500			
0.8929	57144.43	3.0390	3.0389	-0.1294	27.44	1.64	-1.500			
0.8933	57169.16	3.0360	3.0361	-0.1285	27.44	1.64	-1.500			
0.8937	57193.61	3.0330	3.0330	-0.1278	27.45	1.65	-1.500			
0.8940	57218.00	3.0300	3.0301	-0.1270	27.45	1.65	-1.500			
0.8944	57242.40	3.0270	3.0270	-0.1257	27.46	1.66	-1.500			
0.8948	57266.47	3.0240	3.0240	-0.1250	27.46	1.66	-1.500			
0.8952	57290.62	3.0210	3.0210	-0.1243	27.47	1.67	-1.500			
0.8955	57314.43	3.0180	3.0180	-0.1232	27.47	1.67	-1.500			
0.8959	57337.66	3.0150	3.0151	-0.1232	27.48	1.68	-1.500			
0.8963	57361.07	3.0120	3.0119	-0.1226	27.48	1.68	-1.500			
0.8966	57384.62	3.0090	3.0090	-0.1226	27.49	1.69	-1.500			
0.8970	57407.78	3.0060	3.0059	-0.1243	27.49	1.69	-1.500			
0.8974	57431.81	3.0030	3.0031	-0.1260	27.50	1.70	-1.500			
