Ah_balance (normalized)	Ah_balance (mAh)	Voltage - fit (V)	Voltage -  interpolate (V)	dQ/dV (1/V)	Temperature (°C)	Temperature - diff (°C)	Current (C)	R_DC 0ms (mOhm)	R_DC 50ms (mOhm)	R_DC 50 ms PEC (mOhm)
0.2117	13549.41	3.9110	3.9109	-0.1040	25.98	0.00	-1.500			
0.2121	13572.79	3.9080	3.9079	-0.1377	25.98	0.00	-1.500			
0.2125	13602.90	3.9050	3.9049	-0.1696	25.98	0.00	-1.500			
0.2131	13638.55	3.9020	3.9020	-0.1994	25.98	0.00	-1.500			
0.2138	13680.15	3.8990	3.8991	-0.2272	25.98	0.00	-1.500			
0.2145	13727.38	3.8960	3.8960	-0.2556	25.98	0.00	-1.500			
0.2153	13779.09	3.8930	3.8930	-0.2801	25.98	0.00	-1.500			
0.2162	13835.14	3.8900	3.8900	-0.3064	25.98	0.00	-1.500			
0.2171	13896.28	3.8870	3.8870	-0.3327	25.98	0.00	-1.500			
0.2182	13962.52	3.8840	3.8840	-0.3586	25.98	0.00	-1.500			
0.2193	14033.77	3.8810	3.8809	-0.3847	25.98	0.00	-1.500			
0.2205	14110.31	3.8780	3.8781	-0.4114	25.98	0.00	-1.500			
0.2218	14192.59	3.8750	3.8750	-0.4357	25.98	0.00	-1.500			
0.2231	14279.00	3.8720	3.8720	-0.4584	25.98	0.00	-1.500			
0.2245	14368.63	3.8690	3.8691	-0.4812	25.98	0.00	-1.500			
0.2260	14463.55	3.8660	3.8660	-0.5034	25.98	0.00	-1.500			
0.2275	14562.32	3.8630	3.8630	-0.5257	25.98	0.00	-1.500			
0.2292	14665.60	3.8600	3.8600	-0.5459	25.98	0.00	-1.500			
0.2308	14772.96	3.8570	3.8571	-0.5640	25.98	0.00	-1.500			
0.2326	14883.83	3.8540	3.8540	-0.5809	25.98	0.00	-1.500			
0.2343	14997.96	3.8510	3.8511	-0.5949	25.98	0.00	-1.500			
0.2361	15112.99	3.8480	3.8480	-0.6075	25.98	0.00	-1.500			
0.2380	15230.79	3.8450	3.8450	-0.6221	25.98	0.00	-1.500			
0.2399	15351.27	3.8420	3.8420	-0.6339	25.98	0.00	-1.500			
0.2418	15474.94	3.8390	3.8389	-0.6428	25.98	0.00	-1.500			
0.2437	15599.63	3.8360	3.8360	-0.6509	25.98	0.00	-1.500			
0.2457	15726.11	3.8330	3.8331	-0.6582	25.98	0.00	-1.500			
0.2477	15853.21	3.8300	3.8299	-0.6628	25.98	0.00	-1.500			
0.2497	15980.44	3.8270	3.8270	-0.6676	25.98	0.00	-1.500			
0.2517	16109.44	3.8240	3.8240	-0.6705	25.98	0.00	-1.500			
0.2537	16239.13	3.8210	3.8210	-0.6753	25.99	0.01	-1.500			
0.2558	16369.56	3.8180	3.8180	-0.6794	25.99	0.01	-1.500			
0.2578	16499.92	3.8150	3.8150	-0.6823	25.99	0.01	-1.500			
0.2599	16631.36	3.8120	3.8120	-0.6842	26.00	0.02	-1.500			
0.2619	16763.01	3.8090	3.8090	-0.6872	26.00	0.02	-1.500			
0.2640	16895.19	3.8060	3.8061	-0.6879	26.00	0.02	-1.500			
0.2661	17028.27	3.8030	3.8029	-0.6912	26.01	0.03	-1.500			
0.2681	17160.25	3.8000	3.8000	-0.6917	26.01	0.03	-1.500			
0.2702	17293.09	3.7970	3.7970	-0.6902	26.01	0.03	-1.500			
0.2723	17425.24	3.7940	3.7940	-0.6921	26.02	0.04	-1.500			
0.2744	17559.05	3.7910	3.7910	-0.6924	26.02	0.04	-1.500			
0.2764	17691.47	3.7880	3.7880	-0.6930	26.03	0.05	-1.500			
0.2785	17825.20	3.7850	3.7850	-0.6944	26.03	0.05	-1.500			
0.2806	17958.36	3.7820	3.7820	-0.6941	26.04	0.06	-1.500			
0.2827	18091.75	3.7790	3.7790	-0.6930	26.04	0.06	-1.500			
0.2848	18225.03	3.7760	3.7760	-0.6949	26.05	0.07	-1.500			
0.2868	18357.62	3.7730	3.7731	-0.6941	26.05	0.07	-1.500			
0.2889	18491.87	3.7700	3.7700	-0.6945	26.06	0.08	-1.500			
0.2910	18624.45	3.7670	3.7670	-0.6947	26.06	0.08	-1.500			
0.2931	18758.41	3.7640	3.7641	-0.6958	26.07	0.09	-1.500			
0.2952	18891.70	3.7610	3.7610	-0.6979	26.07	0.09	-1.500			
0.2973	19025.43	3.7580	3.7580	-0.7019	26.08	0.10	-1.500			
0.2994	19160.50	3.7550	3.7550	-0.7002	26.08	0.10	-1.500			
0.3015	19295.01	3.7520	3.7520	-0.7043	26.09	0.11	-1.500			
0.3036	19431.39	3.7490	3.7490	-0.7104	26.09	0.11	-1.500			
0.3057	19567.60	3.7460	3.7460	-0.7118	26.10	0.12	-1.500			
0.3079	19705.05	3.7430	3.7429	-0.7155	26.10	0.12	-1.500			
0.3100	19842.16	3.7400	3.7401	-0.7174	26.11	0.13	-1.500			
0.3122	19980.07	3.7370	3.7370	-0.7202	26.11	0.13	-1.500			
0.3144	20119.57	3.7340	3.7340	-0.7251	26.12	0.14	-1.500			
0.3165	20257.33	3.7310	3.7310	-0.7285	26.12	0.14	-1.500			
0.3187	20398.34	3.7280	3.7280	-0.7313	26.13	0.15	-1.500			
0.3209	20539.98	3.7250	3.7250	-0.7370	26.13	0.15	-1.500			
0.3231	20681.42	3.7220	3.7220	-0.7423	26.14	0.16	-1.500			
0.3254	20824.20	3.7190	3.7190	-0.7494	26.14	0.16	-1.500			
0.3276	20968.98	3.7160	3.7159	-0.7539	26.15	0.17	-1.500			
0.3299	21112.82	3.7130	3.7130	-0.7624	26.15	0.17	-1.500			
0.3322	21259.77	3.7100	3.7101	-0.7682	26.16	0.18	-1.500			
0.3345	21408.85	3.7070	3.7069	-0.7802	26.16	0.18	-1.500			
0.3369	21559.54	3.7040	3.7040	-0.7868	26.17	0.19	-1.500			
0.3392	21711.34	3.7010	3.7009	-0.7951	26.18	0.20	-1.500			
0.3416	21864.72	3.6980	3.6980	-0.8044	26.18	0.20	-1.500			
0.3441	22020.98	3.6950	3.6949	-0.8132	26.19	0.21	-1.500			
0.3465	22176.16	3.6920	3.6920	-0.8225	26.19	0.21	-1.500			
0.3490	22336.16	3.6890	3.6891	-0.8352	26.20	0.22	-1.500			
0.3515	22496.02	3.6860	3.6860	-0.8473	26.20	0.22	-1.500			
0.3541	22660.76	3.6830	3.6830	-0.8606	26.21	0.23	-1.500			
0.3567	22826.97	3.6800	3.6800	-0.8710	26.21	0.23	-1.500			
0.3593	22994.80	3.6770	3.6770	-0.8861	26.22	0.24	-1.500			
0.3620	23167.61	3.6740	3.6740	-0.8969	26.23	0.25	-1.500			
0.3647	23339.53	3.6710	3.6710	-0.9122	26.23	0.25	-1.500			
0.3674	23516.21	3.6680	3.6680	-0.9227	26.24	0.26	-1.500			
0.3702	23694.09	3.6650	3.6650	-0.9360	26.24	0.26	-1.500			
0.3731	23875.97	3.6620	3.6620	-0.9515	26.25	0.27	-1.500			
0.3759	24059.10	3.6590	3.6589	-0.9697	26.25	0.27	-1.500			
0.3788	24245.64	3.6560	3.6560	-0.9845	26.25	0.27	-1.500			
0.3819	24438.56	3.6530	3.6530	-0.9975	26.26	0.28	-1.500			
0.3848	24629.77	3.6500	3.6500	-1.0158	26.26	0.28	-1.500			
0.3879	24827.59	3.6470	3.6470	-1.0397	26.26	0.28	-1.500			
0.3911	25028.00	3.6440	3.6439	-1.0538	26.26	0.28	-1.500			
0.3943	25232.21	3.6410	3.6410	-1.0703	26.27	0.29	-1.500			
0.3975	25438.29	3.6380	3.6380	-1.0915	26.27	0.29	-1.500			
0.4008	25651.64	3.6350	3.6350	-1.1123	26.27	0.29	-1.500			
0.4042	25868.20	3.6320	3.6319	-1.1355	26.27	0.29	-1.500			
0.4076	26086.33	3.6290	3.6291	-1.1478	26.28	0.30	-1.500			
0.4111	26307.54	3.6260	3.6260	-1.1709	26.28	0.30	-1.500			
0.4146	26536.49	3.6230	3.6230	-1.1918	26.28	0.30	-1.500			
0.4182	26766.37	3.6200	3.6200	-1.2122	26.29	0.31	-1.500			
0.4219	27001.23	3.6170	3.6170	-1.2251	26.29	0.31	-1.500			
0.4256	27239.45	3.6140	3.6141	-1.2472	26.29	0.31	-1.500			
0.4294	27478.90	3.6110	3.6110	-1.2664	26.29	0.31	-1.500			
0.4332	27724.23	3.6080	3.6080	-1.2870	26.30	0.32	-1.500			
0.4370	27971.02	3.6050	3.6049	-1.3056	26.30	0.32	-1.500			
0.4410	28225.08	3.6020	3.6020	-1.3312	26.30	0.32	-1.500			
0.4451	28483.33	3.5990	3.5990	-1.3521	26.31	0.33	-1.500			
0.4492	28746.70	3.5960	3.5961	-1.3759	26.31	0.33	-1.500			
0.4533	29012.44	3.5930	3.5930	-1.3927	26.31	0.33	-1.500			
0.4575	29281.98	3.5900	3.5901	-1.4107	26.31	0.33	-1.500			
0.4618	29554.33	3.5870	3.5870	-1.4377	26.32	0.34	-1.500			
0.4662	29834.93	3.5840	3.5840	-1.4550	26.32	0.34	-1.500			
0.4706	30115.83	3.5810	3.5809	-1.4714	26.32	0.34	-1.500			
0.4750	30399.62	3.5780	3.5782	-1.4854	26.32	0.34	-1.500			
0.4795	30687.29	3.5750	3.5750	-1.5026	26.32	0.34	-1.500			
0.4840	30976.54	3.5720	3.5719	-1.5273	26.32	0.34	-1.500			
0.4886	31270.16	3.5690	3.5690	-1.5437	26.32	0.34	-1.500			
0.4933	31570.66	3.5660	3.5659	-1.5625	26.32	0.34	-1.500			
0.4980	31871.62	3.5630	3.5629	-1.5838	26.32	0.34	-1.500			
0.5028	32177.96	3.5600	3.5600	-1.5985	26.32	0.34	-1.500			
0.5076	32486.24	3.5570	3.5569	-1.6184	26.32	0.34	-1.500			
0.5125	32797.51	3.5540	3.5540	-1.6316	26.32	0.34	-1.500			
0.5174	33110.43	3.5510	3.5510	-1.6444	26.32	0.34	-1.500			
0.5224	33432.49	3.5480	3.5480	-1.6679	26.32	0.34	-1.500			
0.5274	33754.49	3.5450	3.5450	-1.6822	26.32	0.34	-1.500			
0.5324	34076.15	3.5420	3.5420	-1.6892	26.33	0.35	-1.500			
0.5376	34403.42	3.5390	3.5390	-1.7072	26.33	0.35	-1.500			
0.5427	34733.61	3.5360	3.5360	-1.7099	26.33	0.35	-1.500			
0.5479	35063.71	3.5330	3.5329	-1.7214	26.34	0.36	-1.500			
0.5531	35395.51	3.5300	3.5301	-1.7286	26.34	0.36	-1.500	0.387	0.520	
0.5582	35727.50	3.5270	3.5270	-1.7374	26.34	0.36	-1.500			
0.5635	36062.28	3.5240	3.5240	-1.7399	26.35	0.37	-1.500			
0.5687	36394.02	3.5210	3.5210	-1.7423	26.35	0.37	-1.500			
0.5739	36730.72	3.5180	3.5181	-1.7474	26.35	0.37	-1.500			
0.5792	37070.63	3.5150	3.5150	-1.7529	26.36	0.38	-1.500			
0.5844	37403.94	3.5120	3.5120	-1.7516	26.36	0.38	-1.500			
0.5897	37739.95	3.5090	3.5090	-1.7537	26.37	0.39	-1.500			
0.5950	38078.36	3.5060	3.5060	-1.7546	26.37	0.39	-1.500			
0.6003	38416.12	3.5030	3.5030	-1.7547	26.38	0.40	-1.500			
0.6055	38751.54	3.5000	3.5001	-1.7621	26.39	0.41	-1.500			
0.6108	39089.19	3.4970	3.4970	-1.7614	26.40	0.42	-1.500			
0.6161	39428.74	3.4940	3.4939	-1.7573	26.41	0.43	-1.500			
0.6213	39765.83	3.4910	3.4910	-1.7501	26.42	0.44	-1.500			
0.6266	40104.42	3.4880	3.4881	-1.7531	26.43	0.45	-1.500			
0.6319	40441.75	3.4850	3.4850	-1.7405	26.44	0.46	-1.500			
0.6371	40774.56	3.4820	3.4819	-1.7333	26.45	0.47	-1.500			
0.6423	41105.79	3.4790	3.4790	-1.7202	26.46	0.48	-1.500			
0.6475	41439.45	3.4760	3.4759	-1.7082	26.48	0.50	-1.500			
0.6526	41765.86	3.4730	3.4729	-1.6887	26.49	0.51	-1.500			
0.6576	42089.15	3.4700	3.4700	-1.6627	26.50	0.52	-1.500			
0.6626	42405.08	3.4670	3.4671	-1.6372	26.51	0.53	-1.500			
0.6674	42713.87	3.4640	3.4640	-1.6124	26.52	0.54	-1.500			
0.6722	43023.14	3.4610	3.4610	-1.5969	26.54	0.56	-1.500			
0.6770	43327.54	3.4580	3.4580	-1.5786	26.55	0.57	-1.500			
0.6817	43630.79	3.4550	3.4549	-1.5596	26.56	0.58	-1.500			
0.6864	43928.06	3.4520	3.4520	-1.5313	26.58	0.60	-1.500			
0.6910	44222.27	3.4490	3.4490	-1.5071	26.59	0.61	-1.500			
0.6954	44506.96	3.4460	3.4460	-1.4809	26.61	0.63	-1.500			
0.6998	44786.31	3.4430	3.4431	-1.4611	26.62	0.64	-1.500			
0.7041	45065.07	3.4400	3.4400	-1.4442	26.64	0.66	-1.500			
0.7084	45337.98	3.4370	3.4370	-1.4371	26.66	0.68	-1.500			
0.7127	45615.88	3.4340	3.4340	-1.4241	26.68	0.70	-1.500			
0.7170	45889.85	3.4310	3.4310	-1.4169	26.70	0.72	-1.500			
0.7213	46161.05	3.4280	3.4281	-1.3996	26.72	0.74	-1.500			
0.7254	46426.80	3.4250	3.4251	-1.3855	26.73	0.75	-1.500			
0.7295	46689.64	3.4220	3.4219	-1.3789	26.75	0.77	-1.500			
0.7336	46953.57	3.4190	3.4190	-1.3649	26.77	0.79	-1.500			
0.7378	47216.16	3.4160	3.4159	-1.3477	26.79	0.81	-1.500			
0.7418	47475.39	3.4130	3.4130	-1.3323	26.80	0.82	-1.500			
0.7458	47731.29	3.4100	3.4101	-1.3077	26.82	0.84	-1.500			
0.7497	47981.33	3.4070	3.4070	-1.2784	26.84	0.86	-1.500			
0.7535	48222.44	3.4040	3.4040	-1.2385	26.86	0.88	-1.500			
0.7571	48456.79	3.4010	3.4011	-1.2069	26.88	0.90	-1.500			
0.7607	48686.28	3.3980	3.3980	-1.1759	26.89	0.91	-1.500			
0.7642	48910.41	3.3950	3.3950	-1.1368	26.91	0.93	-1.500			
0.7676	49123.95	3.3920	3.3920	-1.0912	26.93	0.95	-1.500			
0.7708	49330.38	3.3890	3.3891	-1.0525	26.94	0.96	-1.500			
0.7739	49528.15	3.3860	3.3860	-1.0087	26.95	0.97	-1.500			
0.7768	49716.40	3.3830	3.3829	-0.9688	26.96	0.98	-1.500			
0.7796	49896.52	3.3800	3.3800	-0.9294	26.97	0.99	-1.500			
0.7823	50070.37	3.3770	3.3770	-0.8984	26.98	1.00	-1.500			
0.7850	50241.20	3.3740	3.3740	-0.8654	27.00	1.02	-1.500			
0.7876	50404.51	3.3710	3.3710	-0.8359	27.01	1.03	-1.500			
0.7900	50560.79	3.3680	3.3681	-0.8089	27.02	1.04	-1.500			
0.7924	50713.11	3.3650	3.3650	-0.7820	27.03	1.05	-1.500			
0.7947	50860.74	3.3620	3.3619	-0.7528	27.04	1.06	-1.500			
0.7969	51001.82	3.3590	3.3590	-0.7268	27.05	1.07	-1.500			
0.7990	51138.66	3.3560	3.3561	-0.7017	27.06	1.08	-1.500			
0.8011	51272.96	3.3530	3.3529	-0.6802	27.07	1.09	-1.500			
0.8031	51399.55	3.3500	3.3500	-0.6539	27.08	1.10	-1.500			
0.8050	51521.59	3.3470	3.3470	-0.6322	27.09	1.11	-1.500			
0.8069	51641.03	3.3440	3.3440	-0.6143	27.10	1.12	-1.500			
0.8087	51757.32	3.3410	3.3410	-0.5986	27.11	1.13	-1.500			
0.8105	51869.55	3.3380	3.3380	-0.5784	27.12	1.14	-1.500			
0.8122	51979.17	3.3350	3.3350	-0.5635	27.12	1.14	-1.500			
0.8138	52085.84	3.3320	3.3320	-0.5467	27.13	1.15	-1.500			
0.8155	52189.26	3.3290	3.3290	-0.5300	27.14	1.16	-1.500			
0.8170	52289.70	3.3260	3.3259	-0.5129	27.15	1.17	-1.500			
0.8185	52386.07	3.3230	3.3231	-0.4989	27.15	1.17	-1.500			
0.8200	52479.89	3.3200	3.3200	-0.4862	27.16	1.18	-1.500			
0.8214	52572.18	3.3170	3.3170	-0.4737	27.17	1.19	-1.500			
0.8228	52661.46	3.3140	3.3139	-0.4613	27.17	1.19	-1.500			
0.8242	52749.13	3.3110	3.3110	-0.4489	27.18	1.20	-1.500			
0.8255	52834.53	3.3080	3.3080	-0.4355	27.19	1.21	-1.500			
0.8268	52916.89	3.3050	3.3050	-0.4224	27.19	1.21	-1.500			
0.8281	52996.10	3.3020	3.3021	-0.4091	27.20	1.22	-1.500			
0.8293	53073.13	3.2990	3.2990	-0.3994	27.21	1.23	-1.500			
0.8305	53148.97	3.2960	3.2959	-0.3896	27.21	1.23	-1.500			
0.8316	53222.13	3.2930	3.2930	-0.3791	27.22	1.24	-1.500			
0.8327	53294.65	3.2900	3.2900	-0.3703	27.23	1.25	-1.500			
0.8338	53364.99	3.2870	3.2870	-0.3627	27.23	1.25	-1.500			
0.8349	53433.52	3.2840	3.2840	-0.3522	27.24	1.26	-1.500			
0.8359	53500.25	3.2810	3.2810	-0.3429	27.25	1.27	-1.500			
0.8369	53564.55	3.2780	3.2780	-0.3337	27.25	1.27	-1.500			
0.8379	53628.08	3.2750	3.2750	-0.3266	27.26	1.28	-1.500			
0.8389	53689.98	3.2720	3.2720	-0.3184	27.26	1.28	-1.500			
0.8398	53750.15	3.2690	3.2689	-0.3114	27.27	1.29	-1.500			
0.8408	53808.36	3.2660	3.2661	-0.3055	27.27	1.29	-1.500			
0.8417	53867.23	3.2630	3.2629	-0.2997	27.28	1.30	-1.500			
0.8426	53924.56	3.2600	3.2599	-0.2925	27.28	1.30	-1.500			
0.8434	53979.90	3.2570	3.2571	-0.2870	27.29	1.31	-1.500			
0.8443	54034.25	3.2540	3.2541	-0.2810	27.30	1.32	-1.500			
0.8451	54087.64	3.2510	3.2509	-0.2754	27.30	1.32	-1.500			
0.8459	54139.56	3.2480	3.2480	-0.2700	27.31	1.33	-1.500			
0.8467	54190.14	3.2450	3.2450	-0.2641	27.31	1.33	-1.500			
0.8475	54240.99	3.2420	3.2420	-0.2603	27.32	1.34	-1.500			
0.8483	54290.66	3.2390	3.2390	-0.2565	27.32	1.34	-1.500			
0.8490	54339.08	3.2360	3.2360	-0.2510	27.33	1.35	-1.500			
0.8498	54387.17	3.2330	3.2330	-0.2473	27.33	1.35	-1.500			
0.8505	54434.52	3.2300	3.2299	-0.2420	27.34	1.36	-1.500			
0.8513	54480.28	3.2270	3.2271	-0.2381	27.35	1.37	-1.500			
0.8520	54525.38	3.2240	3.2240	-0.2332	27.35	1.37	-1.500			
0.8526	54569.46	3.2210	3.2210	-0.2307	27.36	1.38	-1.500			
0.8533	54613.31	3.2180	3.2181	-0.2276	27.36	1.38	-1.500			
0.8540	54656.26	3.2150	3.2150	-0.2244	27.37	1.39	-1.500			
0.8547	54699.47	3.2120	3.2119	-0.2221	27.37	1.39	-1.500			
0.8554	54742.51	3.2090	3.2091	-0.2188	27.37	1.39	-1.500			
0.8560	54783.65	3.2060	3.2060	-0.2150	27.38	1.40	-1.500			
0.8566	54824.61	3.2030	3.2031	-0.2117	27.38	1.40	-1.500			
0.8573	54865.18	3.2000	3.2000	-0.2089	27.39	1.41	-1.500			
0.8579	54904.31	3.1970	3.1969	-0.2053	27.39	1.41	-1.500			
0.8585	54943.57	3.1940	3.1940	-0.2026	27.40	1.42	-1.500			
0.8591	54982.25	3.1910	3.1910	-0.2003	27.40	1.42	-1.500			
0.8597	55020.46	3.1880	3.1880	-0.1983	27.41	1.43	-1.500			
0.8603	55058.55	3.1850	3.1851	-0.1967	27.41	1.43	-1.500			
0.8609	55095.66	3.1820	3.1820	-0.1936	27.42	1.44	-1.500			
0.8614	55132.64	3.1790	3.1790	-0.1924	27.42	1.44	-1.500			
0.8620	55169.65	3.1760	3.1760	-0.1901	27.42	1.44	-1.500			
0.8626	55205.88	3.1730	3.1729	-0.1883	27.43	1.45	-1.500			
0.8632	55242.04	3.1700	3.1700	-0.1867	27.43	1.45	-1.500			
0.8637	55277.68	3.1670	3.1670	-0.1845	27.44	1.46	-1.500			
0.8643	55312.81	3.1640	3.1639	-0.1821	27.44	1.46	-1.500			
0.8648	55347.61	3.1610	3.1609	-0.1799	27.45	1.47	-1.500			
0.8653	55381.73	3.1580	3.1581	-0.1776	27.45	1.47	-1.500			
0.8659	55415.66	3.1550	3.1551	-0.1758	27.46	1.48	-1.500			
0.8664	55449.23	3.1520	3.1520	-0.1750	27.46	1.48	-1.500			
0.8669	55482.44	3.1490	3.1491	-0.1730	27.47	1.49	-1.500			
0.8674	55515.40	3.1460	3.1459	-0.1722	27.47	1.49	-1.500			
0.8679	55548.42	3.1430	3.1430	-0.1717	27.48	1.50	-1.500			
0.8685	55581.59	3.1400	3.1400	-0.1699	27.48	1.50	-1.500			
0.8690	55614.44	3.1370	3.1369	-0.1684	27.49	1.51	-1.500			
0.8695	55646.40	3.1340	3.1341	-0.1667	27.49	1.51	-1.500			
0.8700	55678.23	3.1310	3.1311	-0.1648	27.50	1.52	-1.500			
0.8705	55709.54	3.1280	3.1280	-0.1628	27.50	1.52	-1.500			
0.8709	55740.50	3.1250	3.1248	-0.1615	27.51	1.53	-1.500			
0.8714	55770.95	3.1220	3.1220	-0.1596	27.51	1.53	-1.500			
0.8719	55801.72	3.1190	3.1192	-0.1590	27.52	1.54	-1.500			
0.8724	55832.41	3.1160	3.1160	-0.1586	27.52	1.54	-1.500			
0.8729	55862.84	3.1130	3.1129	-0.1576	27.53	1.55	-1.500			
0.8733	55893.06	3.1100	3.1101	-0.1559	27.53	1.55	-1.500			
0.8738	55922.71	3.1070	3.1070	-0.1550	27.53	1.55	-1.500			
0.8743	55952.51	3.1040	3.1039	-0.1540	27.53	1.55	-1.500			
0.8747	55981.76	3.1010	3.1011	-0.1529	27.54	1.56	-1.500			
0.8752	56010.80	3.0980	3.0979	-0.1522	27.54	1.56	-1.500			
0.8756	56040.34	3.0950	3.0949	-0.1514	27.55	1.57	-1.500			
0.8761	56069.31	3.0920	3.0921	-0.1504	27.56	1.58	-1.500			
0.8765	56098.20	3.0890	3.0890	-0.1493	27.56	1.58	-1.500			
0.8770	56126.94	3.0860	3.0860	-0.1487	27.57	1.59	-1.500			
0.8774	56155.05	3.0830	3.0830	-0.1470	27.57	1.59	-1.500			
0.8779	56183.20	3.0800	3.0800	-0.1462	27.58	1.60	-1.500			
0.8783	56211.11	3.0770	3.0770	-0.1452	27.58	1.60	-1.500			
0.8787	56238.75	3.0740	3.0740	-0.1441	27.59	1.61	-1.500			
0.8792	56266.88	3.0710	3.0710	-0.1437	27.60	1.62	-1.500			
0.8796	56294.31	3.0680	3.0680	-0.1420	27.60	1.62	-1.500			
0.8800	56321.31	3.0650	3.0650	-0.1411	27.61	1.63	-1.500			
0.8804	56348.27	3.0620	3.0620	-0.1399	27.61	1.63	-1.500			
0.8809	56374.94	3.0590	3.0590	-0.1386	27.62	1.64	-1.500			
0.8813	56401.33	3.0560	3.0560	-0.1384	27.62	1.64	-1.500			
0.8817	56427.80	3.0530	3.0529	-0.1375	27.63	1.65	-1.500			
0.8821	56454.08	3.0500	3.0500	-0.1370	27.64	1.66	-1.500			
0.8825	56480.52	3.0470	3.0469	-0.1372	27.64	1.66	-1.500			
0.8829	56506.92	3.0440	3.0441	-0.1361	27.65	1.67	-1.500			
0.8833	56532.98	3.0410	3.0410	-0.1349	27.65	1.67	-1.500			
0.8837	56558.78	3.0380	3.0380	-0.1339	27.66	1.68	-1.500			
0.8841	56584.57	3.0350	3.0351	-0.1331	27.66	1.68	-1.500			
0.8845	56609.75	3.0320	3.0320	-0.1320	27.67	1.69	-1.500			
0.8849	56635.05	3.0290	3.0290	-0.1313	27.67	1.69	-1.500			
0.8853	56660.21	3.0260	3.0260	-0.1304	27.68	1.70	-1.500			
0.8857	56684.93	3.0230	3.0230	-0.1294	27.68	1.70	-1.500			
0.8861	56709.90	3.0200	3.0200	-0.1289	27.69	1.71	-1.500			
0.8865	56734.64	3.0170	3.0169	-0.1281	27.69	1.71	-1.500			
0.8869	56759.13	3.0140	3.0140	-0.1273	27.70	1.72	-1.500			
0.8872	56783.44	3.0110	3.0109	-0.1264	27.70	1.72	-1.500			
0.8876	56807.63	3.0080	3.0081	-0.1256	27.71	1.73	-1.500			
0.8880	56831.59	3.0050	3.0049	-0.1253	27.71	1.73	-1.500			
0.8884	56855.58	3.0020	3.0020	-0.1239	27.72	1.74	-1.501			
