Ah_balance (normalized)	Ah_balance (mAh)	Voltage - fit (V)	Voltage -  interpolate (V)	dQ/dV (1/V)	Temperature (°C)	Temperature - diff (°C)	Current (C)	R_DC 0ms (mOhm)	R_DC 50ms (mOhm)	R_DC 50 ms PEC (mOhm)
0.2906	18597.27	3.9870	3.9871	0.8409	27.30	1.32	1.500			
0.2931	18758.34	3.9840	3.9840	0.8432	27.29	1.31	1.500			
0.2957	18922.23	3.9810	3.9809	0.8491	27.29	1.31	1.500			
0.2982	19085.80	3.9780	3.9781	0.8495	27.29	1.31	1.500			
0.3008	19248.80	3.9750	3.9750	0.8518	27.28	1.30	1.500			
0.3033	19412.81	3.9720	3.9720	0.8539	27.28	1.30	1.500			
0.3059	19576.95	3.9690	3.9690	0.8542	27.27	1.29	1.500			
0.3085	19741.11	3.9660	3.9660	0.8534	27.27	1.29	1.500			
0.3110	19904.52	3.9630	3.9630	0.8597	27.27	1.29	1.500			
0.3136	20070.89	3.9600	3.9600	0.8655	27.26	1.28	1.500			
0.3162	20236.89	3.9570	3.9569	0.8715	27.26	1.28	1.500			
0.3188	20404.12	3.9540	3.9540	0.8766	27.25	1.27	1.500			
0.3215	20574.34	3.9510	3.9510	0.8795	27.25	1.27	1.500			
0.3241	20744.01	3.9480	3.9480	0.8834	27.24	1.26	1.500			
0.3268	20914.97	3.9450	3.9450	0.8885	27.24	1.26	1.500			
0.3294	21084.37	3.9420	3.9420	0.8882	27.23	1.25	1.500			
0.3321	21254.58	3.9390	3.9390	0.8921	27.22	1.24	1.500			
0.3348	21425.57	3.9360	3.9360	0.8953	27.22	1.24	1.500			
0.3375	21598.24	3.9330	3.9330	0.9002	27.21	1.23	1.500			
0.3402	21771.14	3.9300	3.9300	0.9097	27.20	1.22	1.500			
0.3429	21945.86	3.9270	3.9271	0.9157	27.20	1.22	1.500			
0.3457	22123.09	3.9240	3.9239	0.9214	27.19	1.21	1.500			
0.3485	22301.52	3.9210	3.9210	0.9284	27.18	1.20	1.500			
0.3512	22479.90	3.9180	3.9181	0.9372	27.18	1.20	1.500			
0.3541	22660.89	3.9150	3.9150	0.9416	27.17	1.19	1.500			
0.3569	22841.86	3.9120	3.9120	0.9472	27.16	1.18	1.500			
0.3597	23022.69	3.9090	3.9090	0.9500	27.16	1.18	1.500			
0.3626	23207.13	3.9060	3.9060	0.9569	27.15	1.17	1.500			
0.3655	23392.33	3.9030	3.9030	0.9639	27.14	1.16	1.500			
0.3684	23576.51	3.9000	3.9000	0.9706	27.14	1.16	1.500			
0.3713	23762.91	3.8970	3.8970	0.9752	27.13	1.15	1.500			
0.3742	23951.76	3.8940	3.8939	0.9864	27.12	1.14	1.500			
0.3772	24141.51	3.8910	3.8910	0.9900	27.12	1.14	1.500			
0.3802	24331.68	3.8880	3.8880	1.0026	27.11	1.13	1.500			
0.3832	24525.44	3.8850	3.8850	1.0124	27.10	1.12	1.500			
0.3862	24719.20	3.8820	3.8820	1.0247	27.09	1.11	1.500			
0.3893	24916.61	3.8790	3.8790	1.0391	27.09	1.11	1.500			
0.3925	25118.93	3.8760	3.8760	1.0521	27.08	1.10	1.500			
0.3957	25323.04	3.8730	3.8729	1.0599	27.07	1.09	1.500			
0.3989	25527.68	3.8700	3.8701	1.0768	27.06	1.08	1.500			
0.4021	25734.72	3.8670	3.8670	1.0837	27.06	1.08	1.500			
0.4054	25942.94	3.8640	3.8640	1.0990	27.05	1.07	1.500			
0.4087	26154.91	3.8610	3.8609	1.1052	27.04	1.06	1.500			
0.4120	26368.10	3.8580	3.8581	1.1236	27.03	1.05	1.500			
0.4154	26585.34	3.8550	3.8550	1.1428	27.02	1.04	1.500			
0.4188	26806.19	3.8520	3.8521	1.1625	27.02	1.04	1.500			
0.4223	27030.00	3.8490	3.8490	1.1778	27.01	1.03	1.500			
0.4259	27259.06	3.8460	3.8460	1.1998	27.00	1.02	1.500			
0.4296	27491.93	3.8430	3.8430	1.2138	26.99	1.01	1.500			
0.4332	27727.54	3.8400	3.8400	1.2269	26.98	1.00	1.500			
0.4369	27963.97	3.8370	3.8370	1.2449	26.97	0.99	1.500			
0.4407	28203.14	3.8340	3.8341	1.2678	26.95	0.97	1.500			
0.4445	28446.42	3.8310	3.8308	1.2906	26.94	0.96	1.500			
0.4484	28697.50	3.8280	3.8280	1.3143	26.93	0.95	1.500			
0.4524	28951.55	3.8250	3.8250	1.3443	26.92	0.94	1.500			
0.4565	29214.34	3.8220	3.8221	1.3675	26.91	0.93	1.500			
0.4606	29481.12	3.8190	3.8189	1.3960	26.89	0.91	1.500			
0.4648	29750.17	3.8160	3.8160	1.4166	26.88	0.90	1.500			
0.4691	30021.68	3.8130	3.8131	1.4396	26.87	0.89	1.500			
0.4735	30303.59	3.8100	3.8100	1.4731	26.85	0.87	1.500			
0.4779	30587.76	3.8070	3.8070	1.5018	26.84	0.86	1.500			
0.4824	30876.31	3.8040	3.8040	1.5264	26.82	0.84	1.500			
0.4871	31174.94	3.8010	3.8010	1.5613	26.81	0.83	1.500			
0.4918	31475.62	3.7980	3.7980	1.5965	26.79	0.81	1.500			
0.4967	31785.67	3.7950	3.7950	1.6259	26.78	0.80	1.500			
0.5016	32101.82	3.7920	3.7920	1.6574	26.76	0.78	1.500			
0.5067	32426.41	3.7890	3.7890	1.6728	26.75	0.77	1.500			
0.5117	32748.92	3.7860	3.7860	1.7016	26.73	0.75	1.500			
0.5168	33076.12	3.7830	3.7830	1.7253	26.71	0.73	1.500			
0.5220	33408.97	3.7800	3.7797	1.7426	26.70	0.72	1.500	0.344	0.471	
0.5273	33745.97	3.7770	3.7771	1.7559	26.68	0.70	1.500			
0.5326	34089.55	3.7740	3.7740	1.7625	26.66	0.68	1.500			
0.5379	34425.06	3.7710	3.7710	1.7515	26.65	0.67	1.500			
0.5431	34760.56	3.7680	3.7681	1.7513	26.63	0.65	1.500			
0.5484	35096.43	3.7650	3.7650	1.7590	26.61	0.63	1.500			
0.5537	35435.05	3.7620	3.7620	1.7618	26.60	0.62	1.500			
0.5589	35772.63	3.7590	3.7590	1.7547	26.58	0.60	1.500			
0.5642	36108.15	3.7560	3.7561	1.7590	26.57	0.59	1.500			
0.5695	36447.22	3.7530	3.7529	1.7734	26.55	0.57	1.500			
0.5748	36787.64	3.7500	3.7501	1.7854	26.54	0.56	1.500			
0.5802	37130.82	3.7470	3.7470	1.8044	26.52	0.54	1.500			
0.5856	37479.77	3.7440	3.7440	1.8429	26.51	0.53	1.500			
0.5911	37832.85	3.7410	3.7410	1.8664	26.49	0.51	1.500			
0.5968	38196.04	3.7380	3.7380	1.9132	26.48	0.50	1.500			
0.6026	38567.62	3.7350	3.7350	1.9557	26.46	0.48	1.500			
0.6086	38948.00	3.7320	3.7320	1.9869	26.45	0.47	1.500			
0.6145	39330.14	3.7290	3.7290	2.0362	26.44	0.46	1.500			
0.6207	39726.44	3.7260	3.7259	2.1005	26.42	0.44	1.500			
0.6271	40136.60	3.7230	3.7230	2.1498	26.41	0.43	1.500			
0.6337	40556.08	3.7200	3.7200	2.2282	26.39	0.41	1.500			
0.6405	40990.38	3.7170	3.7170	2.3079	26.37	0.39	1.500			
0.6475	41439.72	3.7140	3.7141	2.3855	26.36	0.38	1.500			
0.6549	41914.11	3.7110	3.7110	2.4316	26.34	0.36	1.500			
0.6622	42377.86	3.7080	3.7080	2.4125	26.32	0.34	1.500			
0.6696	42852.05	3.7050	3.7049	2.4042	26.30	0.32	1.500			
0.6767	43307.23	3.7020	3.7021	2.3144	26.29	0.31	1.500			
0.6836	43750.58	3.6990	3.6990	2.1850	26.28	0.30	1.500			
0.6899	44156.08	3.6960	3.6960	2.0321	26.27	0.29	1.500			
0.6957	44525.08	3.6930	3.6930	1.8784	26.26	0.28	1.500			
0.7011	44871.88	3.6900	3.6900	1.7475	26.25	0.27	1.500			
0.7061	45192.15	3.6870	3.6870	1.6174	26.24	0.26	1.500			
0.7107	45485.72	3.6840	3.6841	1.5318	26.22	0.24	1.500			
0.7151	45765.11	3.6810	3.6810	1.4557	26.21	0.23	1.500			
0.7193	46036.31	3.6780	3.6779	1.3934	26.20	0.22	1.500			
0.7234	46296.85	3.6750	3.6751	1.3502	26.19	0.21	1.500			
0.7273	46549.74	3.6720	3.6721	1.3143	26.18	0.20	1.500			
0.7312	46798.26	3.6690	3.6690	1.2923	26.17	0.19	1.500			
0.7350	47042.61	3.6660	3.6659	1.2784	26.15	0.17	1.500			
0.7387	47278.93	3.6630	3.6630	1.2650	26.14	0.16	1.500			
0.7425	47520.63	3.6600	3.6600	1.2766	26.13	0.15	1.500			
0.7464	47769.09	3.6570	3.6569	1.2874	26.12	0.14	1.500			
0.7503	48017.94	3.6540	3.6540	1.2906	26.11	0.13	1.500			
0.7542	48268.77	3.6510	3.6510	1.2900	26.10	0.12	1.500			
0.7581	48517.19	3.6480	3.6480	1.2825	26.09	0.11	1.500			
0.7619	48761.41	3.6450	3.6450	1.2759	26.08	0.10	1.500			
0.7657	49006.03	3.6420	3.6419	1.2699	26.06	0.08	1.500			
0.7695	49247.79	3.6390	3.6389	1.2575	26.05	0.07	1.500			
0.7733	49488.95	3.6360	3.6361	1.2563	26.05	0.07	1.500			
0.7770	49730.27	3.6330	3.6331	1.2537	26.04	0.06	1.500			
0.7808	49971.25	3.6300	3.6299	1.2462	26.03	0.05	1.500			
0.7845	50209.93	3.6270	3.6270	1.2364	26.02	0.04	1.500			
0.7882	50446.03	3.6240	3.6240	1.2246	26.02	0.04	1.500			
0.7919	50681.19	3.6210	3.6210	1.2193	26.01	0.03	1.500			
0.7956	50915.32	3.6180	3.6178	1.2059	26.00	0.02	1.500			
0.7991	51144.78	3.6150	3.6150	1.1848	25.99	0.01	1.500			
0.8027	51371.94	3.6120	3.6120	1.1660	25.99	0.01	1.500			
0.8062	51594.20	3.6090	3.6091	1.1511	25.98	0.00	1.500			
0.8096	51813.46	3.6060	3.6059	1.1285	25.98	-0.00	1.500			
0.8129	52027.26	3.6030	3.6030	1.1067	25.97	-0.01	1.500			
0.8162	52237.53	3.6000	3.6000	1.0827	25.97	-0.01	1.500			
0.8195	52445.48	3.5970	3.5971	1.0613	25.96	-0.02	1.500			
0.8226	52648.01	3.5940	3.5940	1.0330	25.96	-0.02	1.500			
0.8257	52845.65	3.5910	3.5910	0.9983	25.96	-0.02	1.500			
0.8287	53035.28	3.5880	3.5880	0.9498	25.97	-0.01	1.500			
0.8315	53219.07	3.5850	3.5849	0.8923	25.97	-0.01	1.500			
0.8342	53386.88	3.5820	3.5820	0.8156	25.97	-0.01	1.500			
0.8366	53541.76	3.5790	3.5791	0.7281	25.97	-0.01	1.500			
0.8386	53672.27	3.5760	3.5761	0.6272	25.97	-0.01	1.500			
0.8403	53780.37	3.5730	3.5731	0.5331	25.98	-0.00	1.500			
0.8417	53869.54	3.5700	3.5700	0.4462	25.98	-0.00	1.500			
0.8428	53940.96	3.5670	3.5669	0.3711	25.98	-0.00	1.500			
0.8438	54002.23	3.5640	3.5639	0.3151	25.98	-0.00	1.500			
0.8446	54054.11	3.5610	3.5611	0.2706	25.98	-0.00	1.500			
0.8453	54102.01	3.5580	3.5579	0.2373	25.98	-0.00	1.500			
0.8460	54142.25	3.5550	3.5550	0.2102	25.98	0.00	1.500			
0.8465	54179.11	3.5520	3.5520	0.1892	25.98	0.00	1.500			
0.8471	54213.05	3.5490	3.5489	0.1701	25.98	0.00	1.500			
0.8476	54243.52	3.5460	3.5460	0.1543	25.98	0.00	1.500			
0.8480	54271.13	3.5430	3.5430	0.1383	25.98	0.00	1.500			
0.8484	54296.37	3.5400	3.5400	0.1237	25.98	0.00	1.500			
0.8487	54318.69	3.5370	3.5370	0.1090	25.98	0.00	1.500			
0.8490	54338.21	3.5340	3.5340	0.0944	25.98	0.00	1.500			
0.8493	54354.95	3.5310	3.5312	0.0798	25.98	0.00	1.500			
0.8495	54369.20	3.5280	3.5282	0.0649	25.98	0.00	1.500			
0.8497	54380.19	3.5250	3.5255	0.0496	25.98	0.00	1.500			
0.8498	54388.24	3.5220	3.5229	0.0342	25.98	0.00	1.500			
