Ah_balance (normalized)	Ah_balance (mAh)	Voltage - fit (V)	Voltage -  interpolate (V)	dQ/dV (1/V)	Temperature (°C)	Temperature - diff (°C)	Current (C)	R_DC 0ms (mOhm)	R_DC 50ms (mOhm)	R_DC 50 ms PEC (mOhm)
0.2112	13515.45	3.9110	3.9108	-0.1000	25.96	-0.02	-1.500			
0.2115	13538.52	3.9080	3.9078	-0.1354	25.96	-0.02	-1.500			
0.2120	13567.32	3.9050	3.9049	-0.1646	25.96	-0.02	-1.500			
0.2125	13602.11	3.9020	3.9020	-0.1925	25.96	-0.02	-1.500			
0.2132	13641.63	3.8990	3.8990	-0.2210	25.97	-0.01	-1.500			
0.2139	13687.23	3.8960	3.8961	-0.2491	25.97	-0.01	-1.500			
0.2147	13737.93	3.8930	3.8929	-0.2741	25.97	-0.01	-1.500			
0.2155	13792.93	3.8900	3.8900	-0.3003	25.97	-0.01	-1.500			
0.2165	13852.89	3.8870	3.8870	-0.3265	25.97	-0.01	-1.500			
0.2175	13918.55	3.8840	3.8840	-0.3523	25.97	-0.01	-1.500			
0.2186	13988.51	3.8810	3.8810	-0.3780	25.97	-0.01	-1.500			
0.2197	14063.16	3.8780	3.8780	-0.4047	25.97	-0.01	-1.500			
0.2210	14143.88	3.8750	3.8750	-0.4296	25.97	-0.01	-1.500			
0.2223	14229.57	3.8720	3.8719	-0.4547	25.97	-0.01	-1.500			
0.2237	14318.98	3.8690	3.8691	-0.4782	25.97	-0.01	-1.500			
0.2252	14413.22	3.8660	3.8660	-0.5004	25.97	-0.01	-1.500			
0.2267	14511.63	3.8630	3.8631	-0.5229	25.98	-0.00	-1.500			
0.2283	14614.25	3.8600	3.8600	-0.5412	25.98	-0.00	-1.500			
0.2300	14720.03	3.8570	3.8569	-0.5606	25.98	-0.00	-1.500			
0.2317	14830.92	3.8540	3.8541	-0.5787	25.98	0.00	-1.500			
0.2335	14943.05	3.8510	3.8510	-0.5957	25.98	0.00	-1.500			
0.2353	15060.41	3.8480	3.8480	-0.6090	25.98	0.00	-1.500			
0.2372	15179.18	3.8450	3.8450	-0.6218	25.98	0.00	-1.500			
0.2391	15300.31	3.8420	3.8419	-0.6317	25.99	0.01	-1.500			
0.2410	15423.18	3.8390	3.8390	-0.6402	25.99	0.01	-1.500			
0.2429	15546.90	3.8360	3.8360	-0.6467	25.99	0.01	-1.500			
0.2449	15671.23	3.8330	3.8330	-0.6544	25.99	0.01	-1.500			
0.2468	15796.63	3.8300	3.8300	-0.6603	25.99	0.01	-1.500			
0.2488	15925.24	3.8270	3.8270	-0.6692	25.99	0.01	-1.500			
0.2509	16054.42	3.8240	3.8239	-0.6742	26.00	0.02	-1.500			
0.2529	16185.00	3.8210	3.8210	-0.6796	26.00	0.02	-1.500			
0.2549	16316.44	3.8180	3.8181	-0.6850	26.00	0.02	-1.500			
0.2570	16448.13	3.8150	3.8150	-0.6869	26.00	0.02	-1.500			
0.2591	16581.62	3.8120	3.8120	-0.6841	26.01	0.03	-1.500			
0.2611	16712.46	3.8090	3.8090	-0.6864	26.01	0.03	-1.500			
0.2632	16843.85	3.8060	3.8060	-0.6869	26.02	0.04	-1.500			
0.2653	16976.14	3.8030	3.8031	-0.6882	26.02	0.04	-1.500			
0.2673	17108.04	3.8000	3.7999	-0.6885	26.03	0.05	-1.500			
0.2694	17240.31	3.7970	3.7970	-0.6884	26.03	0.05	-1.500			
0.2715	17373.59	3.7940	3.7940	-0.6884	26.04	0.06	-1.500			
0.2735	17505.58	3.7910	3.7910	-0.6948	26.04	0.06	-1.500			
0.2756	17637.69	3.7880	3.7880	-0.6933	26.05	0.07	-1.500			
0.2777	17770.46	3.7850	3.7850	-0.6960	26.05	0.07	-1.500			
0.2798	17905.10	3.7820	3.7820	-0.6975	26.06	0.08	-1.500			
0.2819	18040.11	3.7790	3.7791	-0.6997	26.06	0.08	-1.500			
0.2840	18174.84	3.7760	3.7760	-0.7007	26.07	0.09	-1.500			
0.2861	18309.44	3.7730	3.7731	-0.7011	26.07	0.09	-1.500			
0.2882	18442.91	3.7700	3.7700	-0.6982	26.08	0.10	-1.500			
0.2903	18577.56	3.7670	3.7670	-0.7005	26.08	0.10	-1.500			
0.2924	18711.90	3.7640	3.7640	-0.7011	26.09	0.11	-1.500			
0.2945	18846.78	3.7610	3.7610	-0.7032	26.09	0.11	-1.500			
0.2966	18981.51	3.7580	3.7581	-0.7022	26.10	0.12	-1.500			
0.2987	19115.48	3.7550	3.7550	-0.7045	26.10	0.12	-1.500			
0.3008	19251.10	3.7520	3.7520	-0.7072	26.11	0.13	-1.500			
0.3029	19387.02	3.7490	3.7490	-0.7100	26.11	0.13	-1.500			
0.3050	19523.02	3.7460	3.7459	-0.7150	26.12	0.14	-1.500			
0.3072	19661.41	3.7430	3.7431	-0.7183	26.12	0.14	-1.500			
0.3094	19800.33	3.7400	3.7401	-0.7205	26.13	0.15	-1.500			
0.3115	19938.70	3.7370	3.7370	-0.7250	26.13	0.15	-1.500			
0.3137	20078.16	3.7340	3.7339	-0.7252	26.14	0.16	-1.500			
0.3159	20216.97	3.7310	3.7310	-0.7293	26.14	0.16	-1.500			
0.3181	20356.72	3.7280	3.7280	-0.7337	26.15	0.17	-1.500			
0.3203	20498.05	3.7250	3.7250	-0.7367	26.15	0.17	-1.500			
0.3225	20640.44	3.7220	3.7220	-0.7434	26.16	0.18	-1.500			
0.3247	20783.62	3.7190	3.7190	-0.7504	26.16	0.18	-1.500			
0.3270	20927.62	3.7160	3.7160	-0.7571	26.17	0.19	-1.500			
0.3293	21074.59	3.7130	3.7130	-0.7626	26.17	0.19	-1.500			
0.3316	21220.75	3.7100	3.7101	-0.7685	26.18	0.20	-1.500			
0.3339	21368.48	3.7070	3.7070	-0.7781	26.19	0.21	-1.500			
0.3362	21519.25	3.7040	3.7040	-0.7858	26.19	0.21	-1.500			
0.3386	21670.24	3.7010	3.7010	-0.7923	26.20	0.22	-1.500			
0.3410	21823.22	3.6980	3.6980	-0.7993	26.20	0.22	-1.500			
0.3434	21977.04	3.6950	3.6951	-0.8132	26.21	0.23	-1.500			
0.3459	22134.73	3.6920	3.6920	-0.8251	26.21	0.23	-1.500			
0.3483	22293.23	3.6890	3.6889	-0.8360	26.22	0.24	-1.500			
0.3509	22455.49	3.6860	3.6860	-0.8463	26.23	0.25	-1.500			
0.3534	22619.91	3.6830	3.6830	-0.8606	26.23	0.25	-1.500			
0.3560	22786.49	3.6800	3.6800	-0.8699	26.24	0.26	-1.500			
0.3586	22953.37	3.6770	3.6771	-0.8858	26.24	0.26	-1.500			
0.3613	23124.38	3.6740	3.6740	-0.8942	26.25	0.27	-1.500			
0.3640	23297.56	3.6710	3.6710	-0.9080	26.25	0.27	-1.500			
0.3668	23472.45	3.6680	3.6680	-0.9229	26.26	0.28	-1.500			
0.3696	23651.55	3.6650	3.6651	-0.9415	26.26	0.28	-1.500			
0.3724	23833.42	3.6620	3.6619	-0.9566	26.27	0.29	-1.500			
0.3753	24018.57	3.6590	3.6590	-0.9751	26.27	0.29	-1.500			
0.3782	24207.05	3.6560	3.6561	-0.9881	26.27	0.29	-1.500			
0.3813	24401.24	3.6530	3.6530	-1.0059	26.28	0.30	-1.500			
0.3843	24594.82	3.6500	3.6500	-1.0169	26.28	0.30	-1.500			
0.3873	24789.56	3.6470	3.6469	-1.0286	26.28	0.30	-1.500			
0.3904	24986.73	3.6440	3.6441	-1.0527	26.29	0.31	-1.500			
0.3936	25190.69	3.6410	3.6410	-1.0727	26.29	0.31	-1.500			
0.3969	25399.24	3.6380	3.6379	-1.0924	26.29	0.31	-1.500			
0.4002	25612.62	3.6350	3.6351	-1.1120	26.29	0.31	-1.500			
0.4036	25828.48	3.6320	3.6320	-1.1330	26.30	0.32	-1.500			
0.4070	26046.30	3.6290	3.6290	-1.1510	26.30	0.32	-1.500			
0.4104	26267.34	3.6260	3.6260	-1.1714	26.30	0.32	-1.500			
0.4140	26493.93	3.6230	3.6230	-1.1903	26.31	0.33	-1.500			
0.4176	26726.94	3.6200	3.6199	-1.2139	26.31	0.33	-1.500			
0.4213	26962.49	3.6170	3.6170	-1.2388	26.31	0.33	-1.500			
0.4251	27203.59	3.6140	3.6140	-1.2585	26.31	0.33	-1.500			
0.4289	27446.68	3.6110	3.6110	-1.2759	26.32	0.34	-1.500			
0.4327	27693.66	3.6080	3.6081	-1.2946	26.32	0.34	-1.500			
0.4366	27942.46	3.6050	3.6050	-1.3115	26.32	0.34	-1.500			
0.4406	28197.03	3.6020	3.6020	-1.3358	26.32	0.34	-1.500			
0.4446	28454.60	3.5990	3.5990	-1.3573	26.32	0.34	-1.500			
0.4497	28782.65	3.5960	3.5952	-2.3050	26.32	0.34	-1.500			
0.4568	29234.22	3.5930	3.5903	-5.8659	26.32	0.34	-1.500			
0.4756	30438.67	3.5900	3.5772	-10.1965	26.32	0.34	-1.500			
0.4829	30907.33	3.5870	3.5726	-2.6408	26.32	0.34	-1.500			
0.5174	33115.76	3.5720	3.5508	-2.5353	26.34	0.36	-1.500			
0.5235	33505.03	3.5660	3.5471	-1.5128	26.35	0.37	-1.500			
0.5312	33998.69	3.5600	3.5427	-1.5476	26.35	0.37	-1.500			
0.5375	34402.84	3.5540	3.5389	-1.5472	26.09	0.11	-1.500			
0.5441	34825.43	3.5480	3.5351	-1.3678	25.79	-0.19	-1.500			
0.5470	35008.02	3.5420	3.5334	-1.8739	25.66	-0.32	-1.500	0.207	1.022	
0.5541	35464.13	3.5360	3.5725	-3.7993	25.51	-0.47	-1.500			
0.5657	36205.09	3.5330	3.5466	-2.2486	25.52	-0.46	-1.500			
0.5712	36556.38	3.5300	3.5385	-2.9001	25.53	-0.45	-1.500			
0.5784	37018.95	3.5270	3.5296	-2.2247	25.54	-0.44	-1.500			
0.5853	37458.52	3.5240	3.5226	-1.6875	25.56	-0.42	-1.500			
0.5870	37564.87	3.5210	3.5210	-1.0877	25.56	-0.42	-1.500			
0.5903	37781.51	3.5180	3.5179	-1.1462	25.57	-0.41	-1.500			
0.5939	38008.45	3.5150	3.5150	-1.2061	25.58	-0.40	-1.500			
0.5976	38246.28	3.5120	3.5120	-1.2625	25.59	-0.39	-1.500			
0.6015	38496.48	3.5090	3.5090	-1.3155	25.61	-0.37	-1.500			
0.6055	38754.71	3.5060	3.5060	-1.3526	25.62	-0.36	-1.500			
0.6097	39019.63	3.5030	3.5030	-1.3951	25.64	-0.34	-1.500			
0.6140	39293.03	3.5000	3.5000	-1.4204	25.66	-0.32	-1.500			
0.6183	39570.74	3.4970	3.4969	-1.4479	25.68	-0.30	-1.500			
0.6217	39790.51	3.5840	3.4946	-37.4458	25.69	-0.29	-1.500			
0.6227	39849.83	3.4940	3.4940	-1.4716	25.69	-0.29	-1.500			
0.6271	40133.98	3.4910	3.4910	-1.4940	25.71	-0.27	-1.500			
0.6316	40423.77	3.4880	3.4880	-1.5199	25.73	-0.25	-1.500			
0.6362	40719.61	3.4850	3.4850	-1.5365	25.75	-0.23	-1.500			
0.6409	41019.48	3.4820	3.4820	-1.5447	25.78	-0.20	-1.500			
0.6456	41319.30	3.4790	3.4791	-1.5490	25.80	-0.18	-1.500			
0.6503	41617.13	3.4760	3.4760	-1.5494	25.81	-0.17	-1.500			
0.6549	41913.42	3.4730	3.4730	-1.5450	25.84	-0.14	-1.500			
0.6595	42209.30	3.4700	3.4699	-1.5411	25.86	-0.12	-1.500			
0.6642	42505.62	3.4670	3.4670	-1.5390	25.88	-0.10	-1.500			
0.6688	42803.15	3.4640	3.4640	-1.5302	25.91	-0.07	-1.500			
0.6734	43096.12	3.4610	3.4610	-1.5221	25.93	-0.05	-1.500			
0.6779	43387.70	3.4580	3.4579	-1.5122	25.96	-0.02	-1.500			
0.6824	43675.95	3.4550	3.4550	-1.4966	25.99	0.01	-1.500			
0.6869	43962.86	3.4520	3.4519	-1.4840	26.02	0.04	-1.500			
0.6914	44247.07	3.4490	3.4491	-1.4670	26.04	0.06	-1.500			
0.6958	44529.00	3.4460	3.4459	-1.4558	26.06	0.08	-1.500			
0.7001	44806.38	3.4430	3.4431	-1.4450	26.08	0.10	-1.500			
0.7044	45080.19	3.4400	3.4399	-1.4295	26.11	0.13	-1.500			
0.7087	45354.45	3.4370	3.4370	-1.4259	26.14	0.16	-1.500			
0.7112	45517.85	3.5390	3.4352	-8.3992	26.15	0.17	-1.500			
0.7129	45626.86	3.4340	3.4340	-1.4257	26.16	0.18	-1.500			
0.7172	45902.52	3.4310	3.4310	-1.4203	26.19	0.21	-1.500			
0.7215	46175.99	3.4280	3.4279	-1.4028	26.21	0.23	-1.500			
0.7257	46443.72	3.4250	3.4251	-1.3937	26.24	0.26	-1.500			
0.7298	46708.78	3.4220	3.4220	-1.3810	26.26	0.28	-1.500			
0.7340	46972.88	3.4190	3.4189	-1.3719	26.29	0.31	-1.500			
0.7380	47234.19	3.4160	3.4160	-1.3547	26.32	0.34	-1.500			
0.7421	47495.77	3.4130	3.4130	-1.3390	26.35	0.37	-1.500			
0.7461	47752.49	3.4100	3.4100	-1.3219	26.37	0.39	-1.500			
0.7501	48006.79	3.4070	3.4070	-1.3002	26.40	0.42	-1.500			
0.7540	48252.86	3.4040	3.4040	-1.2615	26.43	0.45	-1.500			
0.7577	48492.73	3.4010	3.4010	-1.2286	26.46	0.48	-1.500			
0.7614	48727.46	3.3980	3.3980	-1.1872	26.49	0.51	-1.500			
0.7649	48953.00	3.3950	3.3949	-1.1478	26.51	0.53	-1.500			
0.7683	49168.97	3.3920	3.3920	-1.1056	26.53	0.55	-1.500			
0.7715	49374.71	3.3890	3.3890	-1.0619	26.56	0.58	-1.500			
0.7746	49574.40	3.3860	3.3860	-1.0235	26.58	0.60	-1.500			
0.7776	49768.13	3.3830	3.3829	-0.9901	26.60	0.62	-1.500			
0.7805	49952.67	3.3800	3.3801	-0.9525	26.62	0.64	-1.500			
0.7833	50133.70	3.3770	3.3770	-0.9224	26.63	0.65	-1.500			
0.7860	50307.01	3.3740	3.3739	-0.8899	26.65	0.67	-1.500			
0.7887	50474.89	3.3710	3.3710	-0.8571	26.67	0.69	-1.500			
0.7912	50636.64	3.3680	3.3680	-0.8275	26.69	0.71	-1.500			
0.7936	50792.97	3.3650	3.3649	-0.7970	26.70	0.72	-1.500			
0.7960	50942.80	3.3620	3.3619	-0.7679	26.72	0.74	-1.500			
0.7982	51085.03	3.3590	3.3591	-0.7362	26.73	0.75	-1.500			
0.8004	51224.72	3.3560	3.3561	-0.7197	26.74	0.76	-1.500			
0.8025	51359.37	3.3530	3.3530	-0.6942	26.76	0.78	-1.500			
0.8046	51491.50	3.3500	3.3499	-0.6718	26.77	0.79	-1.500			
0.8065	51617.59	3.3470	3.3471	-0.6508	26.78	0.80	-1.500			
0.8084	51740.24	3.3440	3.3441	-0.6356	26.80	0.82	-1.500			
0.8103	51860.64	3.3410	3.3409	-0.6170	26.81	0.83	-1.500			
0.8121	51977.03	3.3380	3.3379	-0.5983	26.82	0.84	-1.500			
0.8139	52089.35	3.3350	3.3351	-0.5805	26.83	0.85	-1.500			
0.8156	52200.46	3.3320	3.3321	-0.5652	26.84	0.86	-1.500			
0.8173	52307.86	3.3290	3.3289	-0.5456	26.85	0.87	-1.500			
0.8189	52409.13	3.3260	3.3260	-0.5276	26.86	0.88	-1.500			
0.8204	52508.22	3.3230	3.3230	-0.5114	26.87	0.89	-1.500			
0.8220	52605.59	3.3200	3.3200	-0.4978	26.87	0.89	-1.500			
0.8234	52699.43	3.3170	3.3169	-0.4831	26.88	0.90	-1.500			
0.8249	52790.47	3.3140	3.3141	-0.4692	26.89	0.91	-1.500			
0.8262	52879.73	3.3110	3.3110	-0.4568	26.90	0.92	-1.500			
0.8276	52966.13	3.3080	3.3079	-0.4458	26.91	0.93	-1.500			
0.8289	53049.90	3.3050	3.3050	-0.4328	26.92	0.94	-1.500			
0.8302	53131.85	3.3020	3.3021	-0.4210	26.93	0.95	-1.500			
0.8314	53211.87	3.2990	3.2990	-0.4068	26.94	0.96	-1.500			
0.8326	53288.89	3.2960	3.2960	-0.3944	26.94	0.96	-1.500			
0.8338	53362.46	3.2930	3.2931	-0.3836	26.95	0.97	-1.500			
0.8349	53434.54	3.2900	3.2899	-0.3735	26.96	0.98	-1.500			
0.8360	53504.58	3.2870	3.2870	-0.3630	26.97	0.99	-1.500			
0.8371	53573.72	3.2840	3.2839	-0.3554	26.98	1.00	-1.500			
0.8382	53641.87	3.2810	3.2811	-0.3475	26.98	1.00	-1.500			
0.8392	53708.31	3.2780	3.2780	-0.3386	26.99	1.01	-1.500			
0.8402	53771.93	3.2750	3.2750	-0.3290	27.00	1.02	-1.500			
0.8412	53833.86	3.2720	3.2720	-0.3217	27.01	1.03	-1.500			
0.8421	53894.27	3.2690	3.2690	-0.3137	27.01	1.03	-1.500			
0.8430	53954.05	3.2660	3.2659	-0.3068	27.02	1.04	-1.500			
0.8439	54012.32	3.2630	3.2631	-0.2996	27.03	1.05	-1.500			
0.8448	54069.49	3.2600	3.2600	-0.2937	27.03	1.05	-1.500			
0.8457	54125.11	3.2570	3.2570	-0.2862	27.04	1.06	-1.500			
0.8465	54178.75	3.2540	3.2540	-0.2795	27.05	1.07	-1.500			
0.8474	54231.62	3.2510	3.2511	-0.2737	27.05	1.07	-1.500			
0.8482	54283.83	3.2480	3.2479	-0.2681	27.06	1.08	-1.500			
0.8490	54334.98	3.2450	3.2449	-0.2624	27.06	1.08	-1.500			
0.8498	54384.85	3.2420	3.2421	-0.2582	27.07	1.09	-1.500			
0.8505	54433.57	3.2390	3.2390	-0.2537	27.08	1.10	-1.500			
0.8513	54482.08	3.2360	3.2359	-0.2493	27.08	1.10	-1.500			
0.8520	54529.51	3.2330	3.2329	-0.2442	27.09	1.11	-1.500			
0.8527	54575.85	3.2300	3.2301	-0.2391	27.10	1.12	-1.500			
0.8535	54621.70	3.2270	3.2270	-0.2350	27.11	1.13	-1.500			
0.8542	54666.53	3.2240	3.2240	-0.2312	27.11	1.13	-1.500			
0.8548	54709.88	3.2210	3.2210	-0.2256	27.12	1.14	-1.500			
0.8555	54752.84	3.2180	3.2180	-0.2215	27.13	1.15	-1.500			
0.8562	54795.04	3.2150	3.2150	-0.2181	27.13	1.15	-1.500			
0.8568	54836.76	3.2120	3.2119	-0.2145	27.14	1.16	-1.500			
0.8575	54877.38	3.2090	3.2090	-0.2118	27.15	1.17	-1.500			
0.8581	54917.44	3.2060	3.2060	-0.2089	27.15	1.17	-1.500			
0.8587	54957.34	3.2030	3.2030	-0.2066	27.16	1.18	-1.500			
0.8593	54996.46	3.2000	3.1999	-0.2039	27.16	1.18	-1.500			
0.8599	55035.83	3.1970	3.1971	-0.2008	27.17	1.19	-1.500			
0.8605	55074.37	3.1940	3.1940	-0.1986	27.18	1.20	-1.500			
0.8611	55112.15	3.1910	3.1910	-0.1950	27.18	1.20	-1.500			
0.8617	55149.26	3.1880	3.1880	-0.1926	27.19	1.21	-1.500			
0.8623	55185.50	3.1850	3.1848	-0.1895	27.19	1.21	-1.500			
0.8628	55221.35	3.1820	3.1820	-0.1870	27.20	1.22	-1.500			
0.8634	55257.13	3.1790	3.1790	-0.1857	27.20	1.22	-1.500			
0.8639	55292.71	3.1760	3.1760	-0.1834	27.21	1.23	-1.500			
0.8645	55328.22	3.1730	3.1730	-0.1816	27.21	1.23	-1.500			
0.8650	55362.77	3.1700	3.1700	-0.1790	27.22	1.24	-1.500			
0.8656	55396.87	3.1670	3.1670	-0.1762	27.22	1.24	-1.500			
0.8661	55430.22	3.1640	3.1640	-0.1745	27.23	1.25	-1.500			
0.8666	55463.25	3.1610	3.1609	-0.1729	27.23	1.25	-1.500			
0.8671	55496.37	3.1580	3.1580	-0.1706	27.24	1.26	-1.500			
0.8676	55528.98	3.1550	3.1550	-0.1692	27.24	1.26	-1.500			
0.8681	55561.49	3.1520	3.1520	-0.1679	27.25	1.27	-1.500			
0.8687	55593.78	3.1490	3.1490	-0.1663	27.25	1.27	-1.500			
0.8692	55625.61	3.1460	3.1459	-0.1643	27.26	1.28	-1.500			
0.8696	55656.73	3.1430	3.1430	-0.1635	27.26	1.28	-1.500			
0.8701	55687.79	3.1400	3.1400	-0.1615	27.27	1.29	-1.500			
0.8706	55718.69	3.1370	3.1369	-0.1600	27.27	1.29	-1.500			
0.8711	55749.60	3.1340	3.1340	-0.1592	27.28	1.30	-1.500			
0.8716	55779.92	3.1310	3.1310	-0.1578	27.28	1.30	-1.500			
0.8720	55809.83	3.1280	3.1280	-0.1568	27.29	1.31	-1.500			
0.8725	55840.11	3.1250	3.1249	-0.1553	27.29	1.31	-1.500			
0.8730	55869.77	3.1220	3.1220	-0.1537	27.30	1.32	-1.500			
0.8734	55898.87	3.1190	3.1189	-0.1523	27.30	1.32	-1.500			
0.8739	55928.21	3.1160	3.1161	-0.1516	27.31	1.33	-1.500			
0.8743	55957.14	3.1130	3.1129	-0.1504	27.31	1.33	-1.500			
0.8748	55985.88	3.1100	3.1099	-0.1492	27.32	1.34	-1.500			
0.8752	56014.27	3.1070	3.1071	-0.1479	27.32	1.34	-1.500			
0.8757	56042.51	3.1040	3.1040	-0.1464	27.33	1.35	-1.500			
0.8761	56070.85	3.1010	3.1010	-0.1459	27.34	1.36	-1.500			
0.8765	56098.37	3.0980	3.0980	-0.1445	27.34	1.36	-1.500			
0.8770	56126.03	3.0950	3.0951	-0.1436	27.35	1.37	-1.500			
0.8774	56153.44	3.0920	3.0920	-0.1426	27.35	1.37	-1.500			
0.8778	56180.66	3.0890	3.0889	-0.1419	27.36	1.38	-1.500			
0.8782	56207.89	3.0860	3.0861	-0.1413	27.36	1.38	-1.500			
0.8787	56234.96	3.0830	3.0830	-0.1407	27.37	1.39	-1.500			
0.8791	56262.11	3.0800	3.0800	-0.1399	27.37	1.39	-1.500			
0.8795	56288.90	3.0770	3.0771	-0.1390	27.38	1.40	-1.500			
0.8799	56315.45	3.0740	3.0740	-0.1376	27.38	1.40	-1.500			
0.8803	56341.76	3.0710	3.0710	-0.1365	27.39	1.41	-1.500			
0.8807	56367.94	3.0680	3.0680	-0.1357	27.39	1.41	-1.500			
0.8812	56393.65	3.0650	3.0651	-0.1348	27.40	1.42	-1.500			
0.8816	56419.47	3.0620	3.0620	-0.1340	27.40	1.42	-1.500			
0.8820	56445.14	3.0590	3.0589	-0.1334	27.41	1.43	-1.500			
0.8824	56470.63	3.0560	3.0560	-0.1332	27.41	1.43	-1.500			
0.8828	56496.24	3.0530	3.0530	-0.1325	27.42	1.44	-1.500			
0.8832	56521.80	3.0500	3.0499	-0.1323	27.42	1.44	-1.500			
0.8835	56547.15	3.0470	3.0470	-0.1313	27.43	1.45	-1.500			
0.8839	56572.32	3.0440	3.0441	-0.1304	27.43	1.45	-1.500			
0.8843	56597.23	3.0410	3.0410	-0.1293	27.44	1.46	-1.500			
0.8847	56621.93	3.0380	3.0380	-0.1284	27.44	1.46	-1.500			
0.8851	56646.59	3.0350	3.0351	-0.1276	27.45	1.47	-1.500			
0.8855	56670.63	3.0320	3.0320	-0.1268	27.45	1.47	-1.500			
0.8859	56694.95	3.0290	3.0290	-0.1266	27.46	1.48	-1.500			
0.8862	56719.33	3.0260	3.0259	-0.1257	27.46	1.48	-1.500			
0.8866	56743.43	3.0230	3.0229	-0.1251	27.47	1.49	-1.500			
0.8870	56767.41	3.0200	3.0201	-0.1243	27.47	1.49	-1.500			
0.8874	56791.35	3.0170	3.0170	-0.1237	27.48	1.50	-1.500			
0.8877	56814.99	3.0140	3.0140	-0.1229	27.48	1.50	-1.500			
0.8881	56838.53	3.0110	3.0110	-0.1220	27.49	1.51	-1.500			
0.8885	56861.65	3.0080	3.0080	-0.1212	27.49	1.51	-1.500			
0.8888	56884.90	3.0050	3.0050	-0.1209	27.50	1.52	-1.500			
0.8892	56908.05	3.0020	3.0020	-0.1197	27.50	1.52	-1.501	0.390	0.684	
0.9996	63973.93	3.5810	1.8932	-108.9587	28.90	2.92	-1.532			
2.8985	185505.56	3.5780	-17.1821	-430.1915	52.88	26.90	-2.069			
4.3584	278938.08	3.5750	-31.8471	-543.0639	71.33	45.35	-2.482			
8.2940	530817.62	3.5690	-71.3816	-768.8087	121.04	95.06	-3.595			
13.5841	869383.16	3.5630	-124.5221	-994.5535	187.87	161.89	-5.092			
20.2287	1294634.69	3.5570	-191.2687	-1220.2983	271.81	245.83	-6.972			
28.2277	1806572.22	3.5510	-271.6214	-1446.0430	372.86	346.88	-9.235			
37.5812	2405195.75	3.5450	-365.5801	-1671.7878	491.02	465.04	-11.881			
