Ah_balance (normalized)	Ah_balance (mAh)	Voltage - fit (V)	Voltage -  interpolate (V)	dQ/dV (1/V)	Temperature (°C)	Temperature - diff (°C)	Current (C)	R_DC 0ms (mOhm)	R_DC 50ms (mOhm)	R_DC 50 ms PEC (mOhm)
0.2853	18257.74	3.9840	3.9840	0.8699	27.15	1.19	1.500			
0.2879	18422.98	3.9810	3.9810	0.8575	27.15	1.19	1.500			
0.2904	18587.49	3.9780	3.9781	0.8571	27.14	1.18	1.500			
0.2930	18752.10	3.9750	3.9749	0.8574	27.13	1.17	1.500			
0.2956	18915.86	3.9720	3.9720	0.8571	27.12	1.16	1.500			
0.2981	19079.94	3.9690	3.9690	0.8641	27.12	1.16	1.500			
0.3007	19245.61	3.9660	3.9660	0.8711	27.11	1.15	1.500			
0.3033	19413.92	3.9630	3.9629	0.8782	27.10	1.14	1.500			
0.3060	19584.24	3.9600	3.9600	0.8789	27.09	1.13	1.500			
0.3087	19754.53	3.9570	3.9571	0.8821	27.09	1.13	1.500			
0.3113	19924.77	3.9540	3.9540	0.8862	27.08	1.12	1.500			
0.3140	20095.20	3.9510	3.9510	0.8830	27.07	1.11	1.500			
0.3166	20261.32	3.9480	3.9480	0.8818	27.06	1.10	1.500			
0.3192	20430.62	3.9450	3.9451	0.8889	27.06	1.10	1.500			
0.3219	20602.17	3.9420	3.9420	0.8958	27.06	1.10	1.500			
0.3246	20775.91	3.9390	3.9390	0.9018	27.05	1.09	1.500			
0.3273	20949.50	3.9360	3.9360	0.9046	27.05	1.09	1.500			
0.3301	21123.32	3.9330	3.9330	0.9082	27.05	1.09	1.500			
0.3328	21299.39	3.9300	3.9300	0.9169	27.05	1.09	1.500			
0.3355	21474.83	3.9270	3.9270	0.9194	27.05	1.09	1.500			
0.3383	21651.50	3.9240	3.9240	0.9244	27.04	1.08	1.500			
0.3411	21829.77	3.9210	3.9211	0.9317	27.04	1.08	1.500			
0.3439	22009.82	3.9180	3.9179	0.9388	27.04	1.08	1.500			
0.3467	22190.34	3.9150	3.9150	0.9442	27.03	1.07	1.500			
0.3496	22372.06	3.9120	3.9120	0.9474	27.02	1.06	1.500			
0.3524	22554.06	3.9090	3.9090	0.9511	27.02	1.06	1.500			
0.3553	22737.79	3.9060	3.9060	0.9587	27.01	1.05	1.500			
0.3582	22922.39	3.9030	3.9030	0.9626	27.00	1.04	1.500			
0.3610	23106.30	3.9000	3.9000	0.9731	27.00	1.04	1.500			
0.3640	23294.45	3.8970	3.8969	0.9818	26.99	1.03	1.500			
0.3669	23484.12	3.8940	3.8940	0.9883	26.98	1.02	1.500			
0.3699	23674.54	3.8910	3.8911	1.0002	26.98	1.02	1.500			
0.3729	23868.61	3.8880	3.8881	1.0082	26.97	1.01	1.500			
0.3760	24062.46	3.8850	3.8849	1.0160	26.97	1.01	1.500			
0.3790	24255.83	3.8820	3.8820	1.0241	26.96	1.00	1.500			
0.3821	24455.18	3.8790	3.8790	1.0360	26.96	1.00	1.500			
0.3852	24654.97	3.8760	3.8759	1.0512	26.95	0.99	1.500			
0.3884	24858.80	3.8730	3.8730	1.0594	26.95	0.99	1.500			
0.3916	25062.27	3.8700	3.8701	1.0659	26.94	0.98	1.500			
0.3948	25268.66	3.8670	3.8670	1.0786	26.94	0.98	1.500			
0.3981	25475.34	3.8640	3.8641	1.0904	26.93	0.97	1.500			
0.4013	25684.59	3.8610	3.8610	1.1079	26.92	0.96	1.500			
0.4047	25898.35	3.8580	3.8580	1.1289	26.91	0.95	1.500			
0.4081	26116.21	3.8550	3.8550	1.1475	26.90	0.94	1.500			
0.4116	26340.58	3.8520	3.8519	1.1677	26.89	0.93	1.500			
0.4151	26566.76	3.8490	3.8490	1.1823	26.88	0.92	1.500			
0.4187	26794.60	3.8460	3.8461	1.1988	26.87	0.91	1.500			
0.4223	27025.77	3.8430	3.8429	1.2147	26.86	0.90	1.500			
0.4259	27258.25	3.8400	3.8400	1.2337	26.85	0.89	1.500			
0.4296	27497.40	3.8370	3.8370	1.2580	26.84	0.88	1.500			
0.4335	27742.62	3.8340	3.8340	1.2782	26.83	0.87	1.500			
0.4374	27990.84	3.8310	3.8310	1.3003	26.82	0.86	1.500			
0.4413	28242.25	3.8280	3.8280	1.3238	26.81	0.85	1.500			
0.4453	28496.96	3.8250	3.8251	1.3507	26.80	0.84	1.500			
0.4493	28757.35	3.8220	3.8219	1.3788	26.79	0.83	1.500			
0.4535	29026.06	3.8190	3.8190	1.3989	26.78	0.82	1.500			
0.4578	29296.09	3.8160	3.8160	1.4348	26.77	0.81	1.500			
0.4621	29574.53	3.8130	3.8131	1.4693	26.75	0.79	1.500			
0.4666	29859.69	3.8100	3.8099	1.4995	26.74	0.78	1.500			
0.4711	30149.46	3.8070	3.8070	1.5378	26.73	0.77	1.500			
0.4757	30446.62	3.8040	3.8041	1.5683	26.72	0.76	1.500			
0.4805	30751.59	3.8010	3.8010	1.6152	26.71	0.75	1.500			
0.4854	31066.32	3.7980	3.7980	1.6527	26.69	0.73	1.500			
0.4904	31387.46	3.7950	3.7950	1.6961	26.68	0.72	1.500			
0.4956	31719.80	3.7920	3.7920	1.7345	26.66	0.70	1.500			
0.5009	32058.75	3.7890	3.7890	1.7619	26.65	0.69	1.500			
0.5063	32400.47	3.7860	3.7860	1.7982	26.63	0.67	1.500			
0.5117	32747.93	3.7830	3.7830	1.8244	26.62	0.66	1.500			
0.5172	33098.15	3.7800	3.7799	1.8565	26.60	0.64	1.500			
0.5227	33455.30	3.7770	3.7771	1.8966	26.59	0.63	1.500			
0.5285	33824.83	3.7740	3.7740	1.9286	26.58	0.62	1.500			
0.5344	34199.27	3.7710	3.7708	1.9597	26.56	0.60	1.500	0.352	0.458	
0.5403	34579.80	3.7680	3.7681	1.9561	26.55	0.59	1.500			
0.5462	34959.03	3.7650	3.7651	1.9696	26.53	0.57	1.500			
0.5521	35337.56	3.7620	3.7620	1.9494	26.51	0.55	1.500			
0.5580	35710.21	3.7590	3.7590	1.9400	26.49	0.53	1.500			
0.5638	36083.14	3.7560	3.7560	1.9236	26.47	0.51	1.500			
0.5695	36451.09	3.7530	3.7530	1.9162	26.46	0.50	1.500			
0.5753	36816.84	3.7500	3.7500	1.8951	26.44	0.48	1.500			
0.5809	37176.86	3.7470	3.7470	1.9017	26.43	0.47	1.500			
0.5866	37540.09	3.7440	3.7440	1.8974	26.42	0.46	1.500			
0.5923	37904.88	3.7410	3.7409	1.9190	26.40	0.44	1.500			
0.5981	38275.60	3.7380	3.7380	1.9410	26.39	0.43	1.500			
0.6039	38649.46	3.7350	3.7350	1.9574	26.37	0.41	1.500			
0.6098	39025.68	3.7320	3.7321	2.0009	26.36	0.40	1.500			
0.6159	39416.63	3.7290	3.7289	2.0512	26.35	0.39	1.500			
0.6221	39814.36	3.7260	3.7261	2.1021	26.33	0.37	1.500			
0.6285	40223.50	3.7230	3.7230	2.1589	26.32	0.36	1.500			
0.6350	40639.94	3.7200	3.7200	2.2220	26.31	0.35	1.500			
0.6417	41070.52	3.7170	3.7170	2.2897	26.29	0.33	1.500			
0.6487	41517.76	3.7140	3.7140	2.3741	26.28	0.32	1.500			
0.6559	41978.44	3.7110	3.7110	2.4384	26.26	0.30	1.500			
0.6634	42454.83	3.7080	3.7080	2.5084	26.25	0.29	1.500			
0.6710	42943.82	3.7050	3.7050	2.5563	26.23	0.27	1.500			
0.6788	43443.87	3.7020	3.7020	2.5571	26.21	0.25	1.500			
0.6866	43945.21	3.6990	3.6990	2.5166	26.20	0.24	1.500			
0.6941	44424.22	3.6960	3.6959	2.4338	26.18	0.22	1.500			
0.7013	44885.52	3.6930	3.6931	2.2967	26.17	0.21	1.500			
0.7081	45315.88	3.6900	3.6900	2.1270	26.16	0.20	1.500			
0.7141	45702.64	3.6870	3.6871	1.9532	26.15	0.19	1.500			
0.7197	46057.90	3.6840	3.6840	1.7985	26.14	0.18	1.500			
0.7247	46382.80	3.6810	3.6810	1.6613	26.13	0.17	1.500			
0.7295	46690.68	3.6780	3.6780	1.5711	26.13	0.17	1.500			
0.7340	46977.01	3.6750	3.6750	1.4888	26.13	0.17	1.500			
0.7383	47253.80	3.6720	3.6720	1.4177	26.12	0.16	1.500			
0.7425	47517.61	3.6690	3.6690	1.3627	26.12	0.16	1.500			
0.7464	47770.54	3.6660	3.6660	1.3203	26.11	0.15	1.500			
0.7503	48017.84	3.6630	3.6631	1.2886	26.10	0.14	1.500			
0.7540	48258.88	3.6600	3.6600	1.2712	26.09	0.13	1.500			
0.7578	48499.59	3.6570	3.6570	1.2672	26.08	0.12	1.500			
0.7616	48739.54	3.6540	3.6540	1.2687	26.08	0.12	1.500			
0.7654	48982.46	3.6510	3.6510	1.2774	26.07	0.11	1.500			
0.7692	49229.66	3.6480	3.6480	1.2867	26.06	0.10	1.500			
0.7731	49479.23	3.6450	3.6450	1.2933	26.05	0.09	1.500			
0.7770	49729.09	3.6420	3.6420	1.3010	26.04	0.08	1.500			
0.7809	49980.22	3.6390	3.6390	1.2983	26.03	0.07	1.500			
0.7848	50229.36	3.6360	3.6360	1.2986	26.02	0.06	1.500			
0.7887	50477.31	3.6330	3.6330	1.2978	26.01	0.05	1.500			
0.7926	50728.06	3.6300	3.6299	1.2920	26.00	0.04	1.500			
0.7965	50977.11	3.6270	3.6270	1.2878	25.99	0.03	1.500			
0.8004	51223.41	3.6240	3.6241	1.2812	25.99	0.03	1.500			
0.8042	51468.36	3.6210	3.6210	1.2769	25.98	0.02	1.500			
0.8080	51713.79	3.6180	3.6180	1.2718	25.98	0.02	1.500			
0.8118	51955.40	3.6150	3.6150	1.2610	25.97	0.01	1.500			
0.8156	52197.87	3.6120	3.6121	1.2515	25.96	0.00	1.500			
0.8194	52440.77	3.6090	3.6089	1.2420	25.96	-0.00	1.500			
0.8231	52677.07	3.6060	3.6060	1.2260	25.96	-0.00	1.500			
0.8267	52910.32	3.6030	3.6030	1.2098	25.95	-0.01	1.500			
0.8303	53141.61	3.6000	3.6000	1.1916	25.95	-0.01	1.500			
0.8339	53369.62	3.5970	3.5970	1.1773	25.95	-0.01	1.500			
0.8374	53593.30	3.5940	3.5940	1.1632	25.94	-0.02	1.500			
0.8409	53814.89	3.5910	3.5910	1.1499	25.94	-0.02	1.500			
0.8443	54035.28	3.5880	3.5880	1.1348	25.94	-0.02	1.500			
0.8477	54251.53	3.5850	3.5850	1.1150	25.94	-0.02	1.500			
0.8511	54469.05	3.5820	3.5819	1.0835	25.95	-0.01	1.500			
0.8544	54678.72	3.5790	3.5790	1.0342	25.95	-0.01	1.500			
0.8576	54883.78	3.5760	3.5759	0.9611	25.95	-0.01	1.500			
0.8604	55063.47	3.5730	3.5730	0.8610	25.95	-0.01	1.500			
0.8629	55222.47	3.5700	3.5702	0.7521	25.96	-0.00	1.500			
0.8649	55353.82	3.5670	3.5670	0.6334	25.96	-0.00	1.500			
0.8666	55459.65	3.5640	3.5640	0.5182	25.96	-0.00	1.500			
0.8679	55542.70	3.5610	3.5610	0.4340	25.96	-0.00	1.500			
0.8689	55611.02	3.5580	3.5580	0.3596	25.96	0.00	1.500			
0.8699	55673.07	3.5550	3.5549	0.3045	25.96	0.00	1.500			
0.8707	55723.33	3.5520	3.5520	0.2630	25.96	0.00	1.500			
0.8714	55768.97	3.5490	3.5490	0.2330	25.96	0.00	1.500			
0.8720	55809.55	3.5460	3.5460	0.2090	25.96	0.00	1.500			
0.8726	55845.81	3.5430	3.5430	0.1855	25.96	0.00	1.500			
0.8731	55878.81	3.5400	3.5400	0.1685	25.96	0.00	1.500			
0.8736	55908.69	3.5370	3.5370	0.1525	25.96	0.00	1.500			
0.8740	55936.31	3.5340	3.5340	0.1377	25.96	0.00	1.500			
0.8744	55961.56	3.5310	3.5310	0.1237	25.96	0.00	1.500			
0.8747	55983.86	3.5280	3.5281	0.1096	25.97	0.01	1.500			
0.8751	56003.80	3.5250	3.5249	0.0960	25.97	0.01	1.500			
0.8753	56020.95	3.5220	3.5221	0.0819	25.97	0.01	1.500			
0.8756	56035.30	3.5190	3.5193	0.0676	25.97	0.01	1.500			
0.8757	56047.20	3.5160	3.5162	0.0522	25.97	0.01	1.500			
0.8759	56055.75	3.5130	3.5136	0.0369	25.97	0.01	1.500			
