Ah_balance (normalized)	Ah_balance (mAh)	Voltage - fit (V)	Voltage -  interpolate (V)	dQ/dV (1/V)	Temperature (°C)	Temperature - diff (°C)	Current (C)	R_DC 0ms (mOhm)	R_DC 50ms (mOhm)	R_DC 50 ms PEC (mOhm)
0.2806	17955.81	3.9720	3.9720	0.8901	27.04	1.09	1.500			
0.2832	18127.25	3.9690	3.9690	0.8925	27.04	1.09	1.500			
0.2859	18297.42	3.9660	3.9660	0.8859	27.03	1.08	1.500			
0.2885	18466.24	3.9630	3.9631	0.8848	27.03	1.08	1.500			
0.2912	18635.00	3.9600	3.9600	0.8845	27.03	1.08	1.500			
0.2938	18805.42	3.9570	3.9569	0.8890	27.02	1.07	1.500			
0.2965	18975.45	3.9540	3.9540	0.8918	27.02	1.07	1.500			
0.2992	19146.92	3.9510	3.9509	0.8989	27.01	1.06	1.500			
0.3019	19321.50	3.9480	3.9480	0.9059	27.01	1.06	1.500			
0.3046	19495.93	3.9450	3.9450	0.9098	27.00	1.05	1.500			
0.3074	19670.42	3.9420	3.9420	0.9157	27.00	1.05	1.500			
0.3101	19847.90	3.9390	3.9389	0.9193	26.99	1.04	1.500			
0.3129	20023.90	3.9360	3.9360	0.9250	26.99	1.04	1.500			
0.3157	20202.44	3.9330	3.9331	0.9260	26.99	1.04	1.500			
0.3184	20380.41	3.9300	3.9299	0.9321	26.98	1.03	1.500			
0.3213	20560.51	3.9270	3.9270	0.9343	26.98	1.03	1.500			
0.3240	20738.90	3.9240	3.9240	0.9426	26.97	1.02	1.500			
0.3269	20920.28	3.9210	3.9211	0.9477	26.97	1.02	1.500			
0.3298	21104.29	3.9180	3.9179	0.9560	26.96	1.01	1.500			
0.3326	21287.68	3.9150	3.9151	0.9617	26.96	1.01	1.500			
0.3355	21473.49	3.9120	3.9120	0.9701	26.95	1.00	1.500			
0.3384	21659.42	3.9090	3.9091	0.9740	26.95	1.00	1.500			
0.3414	21847.21	3.9060	3.9060	0.9853	26.94	0.99	1.500			
0.3443	22035.82	3.9030	3.9029	0.9917	26.94	0.99	1.500			
0.3473	22228.65	3.9000	3.9000	0.9999	26.93	0.98	1.500			
0.3503	22421.01	3.8970	3.8970	1.0060	26.93	0.98	1.500			
0.3534	22615.82	3.8940	3.8940	1.0145	26.92	0.97	1.500			
0.3564	22810.76	3.8910	3.8910	1.0252	26.92	0.97	1.500			
0.3595	23007.18	3.8880	3.8880	1.0322	26.91	0.96	1.500			
0.3626	23204.99	3.8850	3.8851	1.0428	26.90	0.95	1.500			
0.3657	23406.67	3.8820	3.8820	1.0598	26.90	0.95	1.500			
0.3689	23611.84	3.8790	3.8788	1.0757	26.89	0.94	1.500			
0.3722	23820.35	3.8760	3.8760	1.0854	26.88	0.93	1.500			
0.3755	24029.68	3.8730	3.8731	1.0985	26.88	0.93	1.500			
0.3788	24242.75	3.8700	3.8700	1.1087	26.87	0.92	1.500			
0.3821	24457.08	3.8670	3.8670	1.1124	26.86	0.91	1.500			
0.3855	24671.85	3.8640	3.8640	1.1225	26.86	0.91	1.500			
0.3888	24885.71	3.8610	3.8611	1.1380	26.85	0.90	1.500			
0.3923	25105.45	3.8580	3.8580	1.1536	26.84	0.89	1.500			
0.3958	25329.32	3.8550	3.8550	1.1713	26.84	0.89	1.500			
0.3993	25554.45	3.8520	3.8520	1.1874	26.83	0.88	1.500			
0.4029	25784.45	3.8490	3.8491	1.2167	26.82	0.87	1.500			
0.4066	26024.23	3.8460	3.8460	1.2303	26.81	0.86	1.500			
0.4103	26260.58	3.8430	3.8429	1.2488	26.80	0.85	1.500			
0.4141	26501.06	3.8400	3.8401	1.2676	26.79	0.84	1.500			
0.4179	26746.64	3.8370	3.8370	1.2926	26.78	0.83	1.500			
0.4218	26995.96	3.8340	3.8340	1.3174	26.77	0.82	1.500			
0.4258	27249.85	3.8310	3.8310	1.3374	26.76	0.81	1.500			
0.4298	27509.25	3.8280	3.8281	1.3572	26.75	0.80	1.500			
0.4340	27774.37	3.8250	3.8250	1.3875	26.74	0.79	1.500			
0.4382	28041.86	3.8220	3.8220	1.4195	26.73	0.78	1.500			
0.4424	28315.98	3.8190	3.8190	1.4545	26.72	0.77	1.500			
0.4468	28597.20	3.8160	3.8161	1.4968	26.71	0.76	1.500			
0.4514	28890.89	3.8130	3.8129	1.5275	26.70	0.75	1.500			
0.4561	29188.37	3.8100	3.8101	1.5724	26.69	0.74	1.500			
0.4609	29495.83	3.8070	3.8070	1.6087	26.68	0.73	1.500			
0.4657	29805.53	3.8040	3.8039	1.6428	26.67	0.72	1.500			
0.4707	30121.75	3.8010	3.8010	1.6795	26.66	0.71	1.500			
0.4758	30448.60	3.7980	3.7979	1.7305	26.64	0.69	1.500			
0.4810	30784.06	3.7950	3.7950	1.7746	26.63	0.68	1.500			
0.4864	31129.47	3.7920	3.7920	1.8336	26.62	0.67	1.500			
0.4920	31484.96	3.7890	3.7891	1.8849	26.61	0.66	1.500			
0.4977	31853.32	3.7860	3.7859	1.9440	26.59	0.64	1.500			
0.5037	32234.55	3.7830	3.7831	1.9779	26.58	0.63	1.500			
0.5096	32616.33	3.7800	3.7800	2.0273	26.56	0.61	1.500			
0.5158	33009.63	3.7770	3.7772	2.0828	26.55	0.60	1.500			
0.5221	33413.28	3.7740	3.7739	2.1282	26.53	0.58	1.500			
0.5286	33830.32	3.7710	3.7711	2.1546	26.52	0.57	1.500			
0.5353	34256.54	3.7680	3.7680	2.2294	26.50	0.55	1.500			
0.5418	34675.03	3.7650	3.7650	2.2564	26.49	0.54	1.500			
0.5486	35112.06	3.7620	3.7620	2.2917	26.47	0.52	1.500			
0.5557	35563.87	3.7590	3.7591	2.2969	26.45	0.50	1.500	0.358	0.453	
0.5626	36007.01	3.7560	3.7560	2.2742	26.44	0.49	1.500			
0.5692	36431.91	3.7530	3.7529	2.2073	26.42	0.47	1.500			
0.5759	36854.48	3.7500	3.7500	2.1806	26.40	0.45	1.500			
0.5823	37270.11	3.7470	3.7470	2.1595	26.38	0.43	1.500			
0.5888	37682.60	3.7440	3.7441	2.1419	26.36	0.41	1.500			
0.5952	38090.14	3.7410	3.7409	2.1215	26.34	0.39	1.500			
0.6015	38499.09	3.7380	3.7380	2.1099	26.32	0.37	1.500			
0.6078	38901.24	3.7350	3.7350	2.1106	26.31	0.36	1.500			
0.6141	39304.21	3.7320	3.7320	2.1261	26.29	0.34	1.500			
0.6205	39713.02	3.7290	3.7290	2.1667	26.28	0.33	1.500			
0.6271	40133.15	3.7260	3.7260	2.2049	26.27	0.32	1.500			
0.6337	40555.33	3.7230	3.7231	2.2386	26.26	0.31	1.500			
0.6404	40984.81	3.7200	3.7200	2.2884	26.25	0.30	1.500			
0.6473	41427.99	3.7170	3.7170	2.3484	26.23	0.28	1.500			
0.6545	41886.14	3.7140	3.7141	2.4362	26.22	0.27	1.500			
0.6620	42368.76	3.7110	3.7110	2.5427	26.20	0.25	1.500			
0.6696	42856.10	3.7080	3.7080	2.6124	26.18	0.23	1.500			
0.6776	43364.54	3.7050	3.7050	2.7028	26.17	0.22	1.500			
0.6859	43897.20	3.7020	3.7020	2.8006	26.15	0.20	1.500			
0.6945	44449.43	3.6990	3.6989	2.8522	26.14	0.19	1.500			
0.7032	45002.12	3.6960	3.6960	2.7910	26.13	0.18	1.500			
0.7115	45532.88	3.6930	3.6931	2.7107	26.11	0.16	1.500			
0.7195	46048.76	3.6900	3.6898	2.5688	26.10	0.15	1.500			
0.7271	46533.25	3.6870	3.6870	2.3703	26.09	0.14	1.500			
0.7339	46967.84	3.6840	3.6841	2.1775	26.08	0.13	1.500			
0.7399	47354.50	3.6810	3.6810	1.9623	26.08	0.13	1.500			
0.7455	47709.14	3.6780	3.6781	1.7952	26.07	0.12	1.500			
0.7506	48040.38	3.6750	3.6750	1.6839	26.06	0.11	1.500			
0.7554	48346.36	3.6720	3.6719	1.5762	26.06	0.11	1.500			
0.7599	48634.36	3.6690	3.6691	1.4817	26.05	0.10	1.500			
0.7642	48909.23	3.6660	3.6660	1.4124	26.05	0.10	1.500			
0.7683	49171.42	3.6630	3.6630	1.3560	26.04	0.09	1.500			
0.7722	49420.87	3.6600	3.6600	1.2998	26.04	0.09	1.500			
0.7760	49666.04	3.6570	3.6570	1.2672	26.03	0.08	1.500			
0.7797	49902.38	3.6540	3.6541	1.2443	26.02	0.07	1.500			
0.7834	50136.18	3.6510	3.6511	1.2408	26.02	0.07	1.500			
0.7870	50369.66	3.6480	3.6480	1.2393	26.01	0.06	1.500			
0.7907	50605.97	3.6450	3.6450	1.2553	26.01	0.06	1.500			
0.7945	50848.61	3.6420	3.6419	1.2716	26.00	0.05	1.500			
0.7984	51097.41	3.6390	3.6390	1.2938	25.99	0.04	1.500			
0.8023	51350.35	3.6360	3.6361	1.3099	25.99	0.04	1.500			
0.8063	51603.14	3.6330	3.6330	1.3156	25.98	0.03	1.500			
0.8103	51856.94	3.6300	3.6299	1.3156	25.97	0.02	1.500			
0.8142	52111.15	3.6270	3.6271	1.3127	25.97	0.02	1.500			
0.8181	52361.06	3.6240	3.6240	1.3124	25.96	0.01	1.500			
0.8221	52614.62	3.6210	3.6211	1.3153	25.96	0.01	1.500			
0.8260	52866.38	3.6180	3.6180	1.3098	25.95	-0.00	1.500			
0.8300	53117.63	3.6150	3.6149	1.3077	25.94	-0.01	1.500			
0.8339	53367.20	3.6120	3.6121	1.3010	25.94	-0.01	1.500			
0.8378	53618.91	3.6090	3.6090	1.3023	25.93	-0.02	1.500			
0.8417	53870.95	3.6060	3.6060	1.2988	25.92	-0.03	1.500			
0.8456	54118.59	3.6030	3.6030	1.2844	25.92	-0.03	1.500			
0.8495	54364.87	3.6000	3.6001	1.2762	25.92	-0.03	1.500			
0.8533	54608.95	3.5970	3.5970	1.2628	25.92	-0.03	1.500			
0.8570	54850.57	3.5940	3.5940	1.2441	25.92	-0.03	1.500			
0.8607	55087.44	3.5910	3.5910	1.2268	25.92	-0.03	1.500			
0.8644	55320.36	3.5880	3.5879	1.2127	25.92	-0.03	1.500			
0.8680	55550.79	3.5850	3.5851	1.2040	25.92	-0.03	1.500			
0.8715	55778.42	3.5820	3.5820	1.2055	25.92	-0.03	1.500			
0.8751	56006.50	3.5790	3.5790	1.2095	25.93	-0.02	1.500			
0.8788	56244.31	3.5760	3.5759	1.2009	25.93	-0.02	1.500			
0.8825	56482.11	3.5730	3.5729	1.1807	25.94	-0.01	1.500			
0.8863	56722.80	3.5700	3.5699	1.1174	25.94	-0.01	1.500			
0.8896	56937.50	3.5670	3.5671	1.0140	25.94	-0.01	1.500			
0.8927	57130.54	3.5640	3.5641	0.8881	25.95	-0.00	1.500			
0.8951	57285.49	3.5610	3.5611	0.7337	25.95	0.00	1.500			
0.8969	57398.73	3.5580	3.5581	0.5883	25.95	0.00	1.500			
0.8983	57490.73	3.5550	3.5551	0.4785	25.95	0.00	1.500			
0.8995	57565.54	3.5520	3.5521	0.3723	25.96	0.01	1.500			
0.9004	57625.84	3.5490	3.5488	0.3128	25.96	0.01	1.500			
0.9012	57674.72	3.5460	3.5460	0.2616	25.96	0.01	1.500			
0.9019	57719.03	3.5430	3.5430	0.2300	25.96	0.01	1.500			
0.9025	57758.94	3.5400	3.5401	0.2012	25.96	0.01	1.500			
0.9030	57793.90	3.5370	3.5371	0.1801	25.96	0.01	1.500			
0.9035	57825.80	3.5340	3.5339	0.1590	25.96	0.01	1.500			
0.9040	57853.68	3.5310	3.5310	0.1404	25.96	0.01	1.500			
0.9044	57879.15	3.5280	3.5279	0.1250	25.96	0.01	1.500			
0.9047	57901.41	3.5250	3.5250	0.1092	25.96	0.01	1.500			
0.9050	57921.15	3.5220	3.5222	0.0943	25.96	0.01	1.500			
0.9053	57937.77	3.5190	3.5193	0.0788	25.96	0.01	1.500			
0.9055	57951.68	3.5160	3.5163	0.0626	25.96	0.01	1.500			
0.9057	57962.13	3.5130	3.5137	0.0463	25.96	0.01	1.500			
