Ah_balance (normalized)	Ah_balance (mAh)	Voltage - fit (V)	Voltage -  interpolate (V)	dQ/dV (1/V)	Temperature (°C)	Temperature - diff (°C)	Current (C)	R_DC 0ms (mOhm)	R_DC 50ms (mOhm)	R_DC 50 ms PEC (mOhm)
0.2785	17823.01	3.9830	3.9831	0.8495	27.21	1.26	1.500			
0.2810	17987.03	3.9800	3.9800	0.8551	27.21	1.26	1.500			
0.2836	18151.75	3.9770	3.9769	0.8578	27.20	1.25	1.500			
0.2862	18316.98	3.9740	3.9740	0.8579	27.20	1.25	1.500			
0.2888	18480.21	3.9710	3.9710	0.8635	27.20	1.25	1.500			
0.2914	18647.39	3.9680	3.9680	0.8662	27.20	1.25	1.500			
0.2940	18814.53	3.9650	3.9649	0.8655	27.20	1.25	1.500			
0.2965	18978.74	3.9620	3.9620	0.8691	27.19	1.24	1.500			
0.2991	19145.36	3.9590	3.9592	0.8778	27.19	1.24	1.500			
0.3018	19315.02	3.9560	3.9559	0.8820	27.19	1.24	1.500			
0.3045	19485.00	3.9530	3.9530	0.8906	27.19	1.24	1.500			
0.3071	19656.70	3.9500	3.9501	0.8910	27.18	1.23	1.500			
0.3099	19830.83	3.9470	3.9470	0.8961	27.18	1.23	1.500			
0.3125	20002.57	3.9440	3.9440	0.8969	27.17	1.22	1.500			
0.3152	20173.36	3.9410	3.9410	0.8979	27.17	1.22	1.500			
0.3179	20343.33	3.9380	3.9381	0.9049	27.16	1.21	1.500			
0.3206	20520.25	3.9350	3.9350	0.9085	27.16	1.21	1.500			
0.3234	20695.00	3.9320	3.9319	0.9119	27.16	1.21	1.500			
0.3261	20871.96	3.9290	3.9291	0.9193	27.15	1.20	1.500			
0.3289	21049.01	3.9260	3.9259	0.9221	27.15	1.20	1.500			
0.3316	21224.64	3.9230	3.9230	0.9257	27.14	1.19	1.500			
0.3344	21401.46	3.9200	3.9201	0.9275	27.14	1.19	1.500			
0.3372	21580.64	3.9170	3.9170	0.9352	27.13	1.18	1.500			
0.3400	21762.12	3.9140	3.9140	0.9442	27.13	1.18	1.500			
0.3429	21942.76	3.9110	3.9110	0.9468	27.12	1.17	1.500			
0.3457	22124.84	3.9080	3.9080	0.9538	27.12	1.17	1.500			
0.3486	22307.98	3.9050	3.9050	0.9648	27.12	1.17	1.500			
0.3515	22494.27	3.9020	3.9019	0.9716	27.11	1.16	1.500			
0.3544	22681.89	3.8990	3.8990	0.9837	27.11	1.16	1.500			
0.3574	22871.81	3.8960	3.8960	0.9900	27.10	1.15	1.500			
0.3604	23063.19	3.8930	3.8930	0.9975	27.09	1.14	1.500			
0.3634	23254.97	3.8900	3.8900	1.0033	27.09	1.14	1.500			
0.3664	23448.63	3.8870	3.8869	1.0084	27.08	1.13	1.500			
0.3694	23641.88	3.8840	3.8840	1.0155	27.08	1.13	1.500			
0.3725	23836.94	3.8810	3.8810	1.0338	27.07	1.12	1.500			
0.3755	24034.96	3.8780	3.8780	1.0490	27.06	1.11	1.500			
0.3788	24240.20	3.8750	3.8749	1.0583	27.06	1.11	1.500			
0.3819	24444.42	3.8720	3.8720	1.0728	27.05	1.10	1.500			
0.3852	24653.55	3.8690	3.8691	1.0784	27.04	1.09	1.500			
0.3885	24862.48	3.8660	3.8659	1.0880	27.04	1.09	1.500			
0.3917	25069.63	3.8630	3.8630	1.0965	27.03	1.08	1.500			
0.3950	25278.60	3.8600	3.8601	1.1077	27.02	1.07	1.500			
0.3983	25492.15	3.8570	3.8569	1.1224	27.02	1.07	1.500			
0.4017	25709.90	3.8540	3.8539	1.1448	27.01	1.06	1.500			
0.4052	25929.64	3.8510	3.8510	1.1624	27.00	1.05	1.500			
0.4087	26156.93	3.8480	3.8480	1.1842	27.00	1.05	1.500			
0.4123	26386.59	3.8450	3.8449	1.1998	26.99	1.04	1.500			
0.4159	26617.26	3.8420	3.8421	1.2185	26.98	1.03	1.500			
0.4196	26852.37	3.8390	3.8391	1.2419	26.97	1.02	1.500			
0.4234	27094.40	3.8360	3.8359	1.2602	26.97	1.02	1.500			
0.4271	27336.65	3.8330	3.8330	1.2821	26.96	1.01	1.500			
0.4310	27586.05	3.8300	3.8301	1.3040	26.95	1.00	1.500			
0.4350	27840.07	3.8270	3.8269	1.3301	26.93	0.98	1.500			
0.4390	28096.30	3.8240	3.8240	1.3522	26.92	0.97	1.500			
0.4431	28356.10	3.8210	3.8210	1.3742	26.91	0.96	1.500			
0.4472	28620.05	3.8180	3.8180	1.4074	26.90	0.95	1.500			
0.4515	28894.65	3.8150	3.8149	1.4426	26.88	0.93	1.500			
0.4558	29172.93	3.8120	3.8120	1.4725	26.87	0.92	1.500			
0.4603	29461.44	3.8090	3.8090	1.5075	26.86	0.91	1.500			
0.4649	29753.43	3.8060	3.8061	1.5446	26.85	0.90	1.500			
0.4696	30053.58	3.8030	3.8030	1.5761	26.84	0.89	1.500			
0.4744	30359.82	3.8000	3.8000	1.6096	26.83	0.88	1.500			
0.4792	30670.73	3.7970	3.7970	1.6473	26.81	0.86	1.500			
0.4842	30991.58	3.7940	3.7940	1.6889	26.80	0.85	1.500			
0.4894	31319.04	3.7910	3.7909	1.7307	26.78	0.83	1.500			
0.4946	31656.32	3.7880	3.7880	1.7687	26.76	0.81	1.500			
0.5000	31997.08	3.7850	3.7850	1.8085	26.75	0.80	1.500			
0.5055	32352.09	3.7820	3.7820	1.8528	26.73	0.78	1.500			
0.5111	32713.13	3.7790	3.7790	1.8647	26.71	0.76	1.500			
0.5168	33072.64	3.7760	3.7760	1.9004	26.69	0.74	1.500			
0.5225	33440.28	3.7730	3.7731	1.9325	26.67	0.72	1.500			
0.5283	33813.97	3.7700	3.7700	1.9646	26.66	0.71	1.500			
0.5343	34195.15	3.7670	3.7671	1.9776	26.64	0.69	1.500	0.356	0.455	
0.5403	34580.96	3.7640	3.7640	1.9918	26.62	0.67	1.500			
0.5464	34966.48	3.7610	3.7610	1.9815	26.60	0.65	1.500			
0.5522	35343.20	3.7580	3.7580	1.9659	26.58	0.63	1.500			
0.5581	35720.58	3.7550	3.7550	1.9573	26.56	0.61	1.500			
0.5639	36092.16	3.7520	3.7520	1.9392	26.55	0.60	1.500			
0.5697	36459.74	3.7490	3.7491	1.9248	26.54	0.59	1.500			
0.5755	36830.48	3.7460	3.7459	1.9411	26.52	0.57	1.500			
0.5813	37202.88	3.7430	3.7431	1.9459	26.51	0.56	1.500			
0.5872	37578.21	3.7400	3.7400	1.9347	26.49	0.54	1.500			
0.5929	37947.75	3.7370	3.7371	1.9576	26.48	0.53	1.500			
0.5989	38326.49	3.7340	3.7340	2.0020	26.46	0.51	1.500			
0.6049	38713.26	3.7310	3.7310	2.0361	26.44	0.49	1.500			
0.6111	39111.63	3.7280	3.7281	2.0845	26.43	0.48	1.500			
0.6175	39518.99	3.7250	3.7250	2.1498	26.42	0.47	1.500			
0.6239	39929.69	3.7220	3.7220	2.1804	26.41	0.46	1.500			
0.6305	40352.88	3.7190	3.7190	2.2359	26.39	0.44	1.500			
0.6373	40788.34	3.7160	3.7160	2.3141	26.37	0.42	1.500			
0.6444	41239.16	3.7130	3.7130	2.3880	26.36	0.41	1.500			
0.6516	41701.06	3.7100	3.7099	2.4673	26.34	0.39	1.500			
0.6591	42184.18	3.7070	3.7070	2.5573	26.32	0.37	1.500			
0.6669	42683.00	3.7040	3.7040	2.5663	26.30	0.35	1.500			
0.6746	43175.60	3.7010	3.7009	2.5800	26.29	0.34	1.500			
0.6824	43672.32	3.6980	3.6981	2.5608	26.27	0.32	1.500			
0.6902	44173.14	3.6950	3.6950	2.5454	26.25	0.30	1.500			
0.6975	44640.96	3.6920	3.6920	2.3253	26.23	0.28	1.500			
0.7042	45067.44	3.6890	3.6890	2.1464	26.22	0.27	1.500			
0.7103	45461.54	3.6860	3.6860	1.9622	26.21	0.26	1.500			
0.7158	45811.02	3.6830	3.6830	1.8029	26.20	0.25	1.500			
0.7210	46143.75	3.6800	3.6800	1.6882	26.19	0.24	1.500			
0.7258	46451.77	3.6770	3.6769	1.5800	26.18	0.23	1.500			
0.7304	46743.93	3.6740	3.6740	1.4916	26.17	0.22	1.500			
0.7347	47020.02	3.6710	3.6710	1.4173	26.16	0.21	1.500			
0.7388	47282.73	3.6680	3.6681	1.3536	26.15	0.20	1.500			
0.7427	47531.79	3.6650	3.6649	1.3080	26.14	0.19	1.500			
0.7465	47775.17	3.6620	3.6620	1.2826	26.13	0.18	1.500			
0.7502	48014.73	3.6590	3.6589	1.2652	26.12	0.17	1.500			
0.7540	48254.74	3.6560	3.6560	1.2651	26.11	0.16	1.500			
0.7578	48496.89	3.6530	3.6530	1.2676	26.11	0.16	1.500			
0.7616	48741.94	3.6500	3.6500	1.2723	26.10	0.15	1.500			
0.7654	48986.18	3.6470	3.6470	1.2822	26.09	0.14	1.500			
0.7693	49233.51	3.6440	3.6441	1.2879	26.08	0.13	1.500			
0.7731	49481.43	3.6410	3.6410	1.2974	26.07	0.12	1.500			
0.7771	49733.21	3.6380	3.6379	1.2957	26.06	0.11	1.500			
0.7810	49982.71	3.6350	3.6350	1.2935	26.05	0.10	1.500			
0.7849	50231.52	3.6320	3.6320	1.2937	26.04	0.09	1.500			
0.7888	50480.66	3.6290	3.6290	1.2840	26.03	0.08	1.500			
0.7925	50722.44	3.6260	3.6260	1.2865	26.02	0.07	1.500			
0.7964	50970.65	3.6230	3.6230	1.2911	26.01	0.06	1.500			
0.8003	51217.38	3.6200	3.6199	1.2900	26.00	0.05	1.500			
0.8042	51468.04	3.6170	3.6171	1.2926	26.00	0.05	1.500			
0.8081	51718.74	3.6140	3.6140	1.2885	25.99	0.04	1.500			
0.8120	51966.99	3.6110	3.6110	1.2746	25.98	0.03	1.500			
0.8158	52212.94	3.6080	3.6080	1.2621	25.98	0.03	1.500			
0.8195	52450.38	3.6050	3.6051	1.2423	25.97	0.02	1.500			
0.8232	52687.59	3.6020	3.6020	1.2300	25.97	0.02	1.500			
0.8269	52922.40	3.5990	3.5990	1.2112	25.96	0.01	1.500			
0.8305	53153.43	3.5960	3.5960	1.1937	25.96	0.01	1.500			
0.8341	53381.05	3.5930	3.5931	1.1851	25.96	0.01	1.500			
0.8376	53606.95	3.5900	3.5900	1.1732	25.96	0.01	1.500			
0.8411	53830.48	3.5870	3.5869	1.1606	25.95	0.00	1.500			
0.8446	54053.05	3.5840	3.5840	1.1474	25.95	0.00	1.500			
0.8481	54277.85	3.5810	3.5810	1.1187	25.95	0.00	1.500			
0.8515	54494.86	3.5780	3.5780	1.0740	25.95	0.00	1.500			
0.8548	54707.14	3.5750	3.5749	0.9988	25.95	-0.00	1.500			
0.8577	54894.61	3.5720	3.5721	0.8965	25.95	-0.00	1.500			
0.8604	55063.90	3.5690	3.5691	0.7805	25.95	-0.00	1.500			
0.8625	55200.17	3.5660	3.5660	0.6580	25.95	-0.00	1.500			
0.8642	55308.23	3.5630	3.5630	0.5341	25.95	-0.00	1.500			
0.8655	55393.37	3.5600	3.5600	0.4447	25.94	-0.01	1.500			
0.8666	55463.14	3.5570	3.5570	0.3658	25.94	-0.01	1.500			
0.8676	55526.36	3.5540	3.5539	0.3093	25.94	-0.01	1.500			
0.8684	55577.32	3.5510	3.5510	0.2669	25.94	-0.01	1.500			
0.8691	55623.83	3.5480	3.5480	0.2375	25.94	-0.01	1.500			
0.8698	55664.59	3.5450	3.5449	0.2118	25.94	-0.01	1.500			
0.8703	55701.08	3.5420	3.5419	0.1881	25.94	-0.01	1.500			
0.8709	55734.84	3.5390	3.5391	0.1716	25.94	-0.01	1.500			
0.8713	55765.54	3.5360	3.5361	0.1556	25.94	-0.01	1.500			
0.8718	55793.85	3.5330	3.5330	0.1406	25.94	-0.01	1.500			
0.8722	55819.44	3.5300	3.5299	0.1263	25.94	-0.01	1.500			
0.8725	55842.14	3.5270	3.5271	0.1117	25.94	-0.01	1.500			
0.8728	55862.24	3.5240	3.5240	0.0977	25.94	-0.01	1.500			
0.8731	55879.97	3.5210	3.5211	0.0838	25.94	-0.01	1.500			
0.8734	55894.66	3.5180	3.5180	0.0691	25.94	-0.01	1.500			
0.8735	55906.48	3.5150	3.5153	0.0546	25.94	-0.01	1.500			
0.8737	55915.58	3.5120	3.5126	0.0401	25.94	-0.01	1.500			
