Ah_balance (normalized)	Ah_balance (mAh)	Voltage - fit (V)	Voltage -  interpolate (V)	dQ/dV (1/V)	Temperature (°C)	Temperature - diff (°C)	Current (C)	R_DC 0ms (mOhm)	R_DC 50ms (mOhm)	R_DC 50 ms PEC (mOhm)
0.2871	18374.84	3.9710	3.9710	0.8549	27.05	1.07	1.500			
0.2897	18541.53	3.9680	3.9679	0.8724	27.04	1.06	1.500			
0.2924	18711.05	3.9650	3.9650	0.8798	27.04	1.06	1.500			
0.2950	18881.28	3.9620	3.9621	0.8824	27.03	1.05	1.500			
0.2977	19050.75	3.9590	3.9590	0.8876	27.03	1.05	1.500			
0.3003	19219.72	3.9560	3.9561	0.8909	27.02	1.04	1.500			
0.3030	19392.23	3.9530	3.9530	0.8929	27.01	1.03	1.500			
0.3057	19564.75	3.9500	3.9498	0.8963	27.01	1.03	1.500			
0.3084	19736.17	3.9470	3.9471	0.9026	27.00	1.02	1.500			
0.3111	19909.38	3.9440	3.9441	0.9087	27.00	1.02	1.500			
0.3138	20083.80	3.9410	3.9410	0.9144	26.99	1.01	1.500			
0.3166	20260.74	3.9380	3.9379	0.9191	26.99	1.01	1.500			
0.3193	20437.80	3.9350	3.9351	0.9216	26.98	1.00	1.500			
0.3221	20616.90	3.9320	3.9321	0.9295	26.98	1.00	1.500			
0.3249	20795.43	3.9290	3.9290	0.9338	26.97	0.99	1.500			
0.3277	20973.65	3.9260	3.9259	0.9358	26.97	0.99	1.500			
0.3305	21152.76	3.9230	3.9230	0.9398	26.96	0.98	1.500			
0.3333	21333.39	3.9200	3.9200	0.9486	26.95	0.97	1.500			
0.3362	21517.47	3.9170	3.9170	0.9575	26.95	0.97	1.500			
0.3391	21702.24	3.9140	3.9140	0.9649	26.94	0.96	1.500			
0.3420	21886.79	3.9110	3.9110	0.9715	26.93	0.95	1.500			
0.3449	22074.53	3.9080	3.9080	0.9786	26.93	0.95	1.500			
0.3479	22263.69	3.9050	3.9050	0.9830	26.92	0.94	1.500			
0.3508	22452.71	3.9020	3.9020	0.9903	26.91	0.93	1.500			
0.3538	22642.98	3.8990	3.8991	0.9947	26.90	0.92	1.500			
0.3568	22835.17	3.8960	3.8960	1.0012	26.90	0.92	1.500			
0.3598	23025.96	3.8930	3.8930	1.0084	26.89	0.91	1.500			
0.3628	23219.49	3.8900	3.8900	1.0213	26.89	0.91	1.500			
0.3659	23416.87	3.8870	3.8870	1.0365	26.88	0.90	1.500			
0.3690	23618.61	3.8840	3.8839	1.0467	26.87	0.89	1.500			
0.3722	23820.52	3.8810	3.8810	1.0569	26.87	0.89	1.500			
0.3754	24025.25	3.8780	3.8781	1.0701	26.86	0.88	1.500			
0.3786	24231.19	3.8750	3.8750	1.0823	26.85	0.87	1.500			
0.3819	24439.09	3.8720	3.8720	1.0924	26.85	0.87	1.500			
0.3851	24648.62	3.8690	3.8690	1.1023	26.84	0.86	1.500			
0.3885	24861.86	3.8660	3.8660	1.1188	26.83	0.85	1.500			
0.3919	25080.14	3.8630	3.8630	1.1368	26.83	0.85	1.500			
0.3953	25298.88	3.8600	3.8600	1.1471	26.82	0.84	1.500			
0.3988	25520.46	3.8570	3.8570	1.1613	26.81	0.83	1.500			
0.4023	25745.45	3.8540	3.8540	1.1731	26.81	0.83	1.500			
0.4058	25969.69	3.8510	3.8510	1.1929	26.80	0.82	1.500			
0.4094	26199.49	3.8480	3.8481	1.2151	26.79	0.81	1.500			
0.4130	26434.72	3.8450	3.8449	1.2333	26.78	0.80	1.500			
0.4168	26675.49	3.8420	3.8419	1.2493	26.78	0.80	1.500			
0.4206	26916.48	3.8390	3.8391	1.2758	26.77	0.79	1.500			
0.4244	27162.46	3.8360	3.8361	1.3020	26.76	0.78	1.500			
0.4284	27416.33	3.8330	3.8329	1.3261	26.75	0.77	1.500			
0.4324	27670.68	3.8300	3.8300	1.3506	26.74	0.76	1.500			
0.4364	27931.79	3.8270	3.8271	1.3801	26.73	0.75	1.500			
0.4407	28203.01	3.8240	3.8240	1.4045	26.72	0.74	1.500			
0.4449	28476.69	3.8210	3.8209	1.4366	26.71	0.73	1.500			
0.4492	28750.34	3.8180	3.8181	1.4653	26.70	0.72	1.500			
0.4536	29032.62	3.8150	3.8150	1.5002	26.69	0.71	1.500			
0.4582	29324.98	3.8120	3.8120	1.5398	26.67	0.69	1.500			
0.4629	29626.17	3.8090	3.8090	1.5611	26.66	0.68	1.500			
0.4676	29928.32	3.8060	3.8060	1.6061	26.65	0.67	1.500			
0.4725	30239.66	3.8030	3.8031	1.6533	26.63	0.65	1.500			
0.4775	30561.29	3.8000	3.8000	1.6959	26.62	0.64	1.500			
0.4827	30890.07	3.7970	3.7970	1.7401	26.60	0.62	1.500			
0.4880	31230.23	3.7940	3.7941	1.7818	26.59	0.61	1.500			
0.4934	31579.16	3.7910	3.7910	1.8480	26.57	0.59	1.500			
0.4990	31938.64	3.7880	3.7880	1.9061	26.56	0.58	1.500			
0.5047	32303.95	3.7850	3.7849	1.9503	26.54	0.56	1.500			
0.5107	32687.74	3.7820	3.7821	2.0102	26.53	0.55	1.500			
0.5168	33076.18	3.7790	3.7790	2.0589	26.51	0.53	1.500			
0.5231	33476.08	3.7760	3.7760	2.0887	26.49	0.51	1.500			
0.5294	33882.27	3.7730	3.7729	2.1262	26.47	0.49	1.500			
0.5359	34296.89	3.7700	3.7701	2.1669	26.45	0.47	1.500			
0.5424	34711.82	3.7670	3.7670	2.2017	26.44	0.46	1.500			
0.5490	35136.27	3.7640	3.7640	2.2490	26.42	0.44	1.500			
0.5558	35573.45	3.7610	3.7604	2.2779	26.40	0.42	1.500	0.353	0.451	
0.5627	36015.61	3.7580	3.7581	2.2860	26.38	0.40	1.500			
0.5698	36468.12	3.7550	3.7550	2.3026	26.36	0.38	1.500			
0.5765	36897.17	3.7520	3.7520	2.2103	26.34	0.36	1.500			
0.5830	37314.26	3.7490	3.7491	2.1719	26.32	0.34	1.500			
0.5896	37732.57	3.7460	3.7460	2.1200	26.30	0.32	1.500			
0.5958	38129.42	3.7430	3.7430	2.1009	26.29	0.31	1.500			
0.6020	38527.62	3.7400	3.7401	2.0960	26.27	0.29	1.500			
0.6083	38929.46	3.7370	3.7370	2.1065	26.25	0.27	1.500			
0.6146	39335.15	3.7340	3.7340	2.1169	26.24	0.26	1.500			
0.6211	39748.94	3.7310	3.7310	2.1598	26.22	0.24	1.500			
0.6275	40157.24	3.7280	3.7280	2.1657	26.21	0.23	1.500			
0.6340	40575.87	3.7250	3.7250	2.1979	26.19	0.21	1.500			
0.6406	40998.27	3.7220	3.7220	2.2430	26.18	0.20	1.500			
0.6474	41433.94	3.7190	3.7190	2.2989	26.16	0.18	1.500			
0.6543	41877.40	3.7160	3.7160	2.3634	26.14	0.16	1.500			
0.6616	42339.85	3.7130	3.7130	2.4269	26.13	0.15	1.500			
0.6689	42808.73	3.7100	3.7100	2.5291	26.11	0.13	1.500			
0.6766	43301.29	3.7070	3.7070	2.6477	26.09	0.11	1.500			
0.6847	43819.09	3.7040	3.7040	2.7351	26.07	0.09	1.500			
0.6931	44355.30	3.7010	3.7011	2.7920	26.06	0.08	1.500			
0.7016	44900.13	3.6980	3.6979	2.7845	26.05	0.07	1.500			
0.7099	45434.06	3.6950	3.6951	2.7437	26.04	0.06	1.500			
0.7182	45962.33	3.6920	3.6920	2.6236	26.03	0.05	1.500			
0.7258	46452.52	3.6890	3.6891	2.4445	26.03	0.05	1.500			
0.7329	46906.65	3.6860	3.6860	2.2530	26.02	0.04	1.500			
0.7393	47316.57	3.6830	3.6831	2.0463	26.01	0.03	1.500			
0.7451	47686.29	3.6800	3.6800	1.8804	26.01	0.03	1.500			
0.7504	48022.94	3.6770	3.6770	1.7184	26.00	0.02	1.500			
0.7553	48339.51	3.6740	3.6737	1.6229	26.00	0.02	1.500			
0.7599	48635.58	3.6710	3.6710	1.5291	26.00	0.02	1.500			
0.7644	48920.65	3.6680	3.6680	1.4454	25.99	0.01	1.500			
0.7686	49187.31	3.6650	3.6650	1.3807	25.99	0.01	1.500			
0.7726	49445.60	3.6620	3.6621	1.3225	25.99	0.01	1.500			
0.7763	49686.39	3.6590	3.6590	1.2875	25.98	0.00	1.500			
0.7801	49927.43	3.6560	3.6559	1.2557	25.98	0.00	1.500			
0.7838	50161.69	3.6530	3.6530	1.2387	25.97	-0.01	1.500			
0.7875	50398.45	3.6500	3.6501	1.2369	25.97	-0.01	1.500			
0.7912	50635.81	3.6470	3.6470	1.2467	25.96	-0.02	1.500			
0.7949	50872.45	3.6440	3.6440	1.2566	25.96	-0.02	1.500			
0.7986	51112.78	3.6410	3.6410	1.2712	25.95	-0.03	1.500			
0.8025	51357.73	3.6380	3.6380	1.2834	25.94	-0.04	1.500			
0.8064	51608.44	3.6350	3.6350	1.3065	25.94	-0.04	1.500			
0.8104	51862.43	3.6320	3.6321	1.3071	25.94	-0.04	1.500			
0.8143	52116.99	3.6290	3.6289	1.3102	25.93	-0.05	1.500			
0.8183	52368.40	3.6260	3.6261	1.3023	25.93	-0.05	1.500			
0.8221	52616.85	3.6230	3.6230	1.3013	25.93	-0.05	1.500			
0.8260	52863.68	3.6200	3.6200	1.3005	25.92	-0.06	1.500			
0.8299	53113.56	3.6170	3.6168	1.3026	25.92	-0.06	1.500			
0.8338	53363.50	3.6140	3.6141	1.2965	25.92	-0.06	1.500			
0.8377	53615.48	3.6110	3.6109	1.2938	25.92	-0.06	1.500			
0.8417	53866.47	3.6080	3.6080	1.2864	25.92	-0.06	1.500			
0.8455	54109.87	3.6050	3.6050	1.2723	25.91	-0.07	1.500			
0.8493	54352.71	3.6020	3.6020	1.2639	25.91	-0.07	1.500			
0.8531	54595.60	3.5990	3.5991	1.2544	25.91	-0.07	1.500			
0.8568	54835.84	3.5960	3.5960	1.2384	25.91	-0.07	1.500			
0.8605	55072.90	3.5930	3.5931	1.2251	25.91	-0.07	1.500			
0.8642	55306.73	3.5900	3.5900	1.2129	25.91	-0.07	1.500			
0.8678	55537.27	3.5870	3.5869	1.1968	25.91	-0.07	1.500			
0.8713	55762.67	3.5840	3.5840	1.1832	25.92	-0.06	1.500			
0.8748	55986.74	3.5810	3.5810	1.1894	25.92	-0.06	1.500			
0.8784	56216.12	3.5780	3.5780	1.1922	25.92	-0.06	1.500			
0.8820	56449.77	3.5750	3.5749	1.1780	25.92	-0.06	1.500			
0.8856	56681.47	3.5720	3.5719	1.1460	25.93	-0.05	1.500			
0.8892	56909.88	3.5690	3.5691	1.0566	25.94	-0.04	1.500			
0.8925	57118.64	3.5660	3.5661	0.9522	25.95	-0.03	1.500			
0.8952	57291.85	3.5630	3.5631	0.8132	25.96	-0.02	1.500			
0.8974	57431.46	3.5600	3.5600	0.6635	25.96	-0.02	1.500			
0.8989	57532.76	3.5570	3.5570	0.5370	25.96	-0.02	1.500			
0.9002	57615.42	3.5540	3.5540	0.4354	25.97	-0.01	1.500			
0.9013	57683.97	3.5510	3.5509	0.3453	25.97	-0.01	1.500			
0.9022	57740.87	3.5480	3.5479	0.2926	25.97	-0.01	1.500			
0.9029	57786.82	3.5450	3.5450	0.2482	25.97	-0.01	1.500			
0.9036	57828.45	3.5420	3.5420	0.2183	25.98	-0.00	1.500			
0.9042	57865.82	3.5390	3.5390	0.1902	25.98	-0.00	1.500			
0.9047	57898.83	3.5360	3.5360	0.1698	25.98	-0.00	1.500			
0.9051	57929.31	3.5330	3.5330	0.1517	25.98	-0.00	1.500			
0.9056	57956.34	3.5300	3.5300	0.1352	25.98	0.00	1.500			
0.9060	57980.84	3.5270	3.5270	0.1200	25.98	0.00	1.500			
0.9063	58002.42	3.5240	3.5240	0.1048	25.98	0.00	1.500			
0.9066	58020.97	3.5210	3.5211	0.0896	25.98	0.00	1.500			
0.9068	58036.74	3.5180	3.5182	0.0746	25.98	0.00	1.500			
0.9070	58049.61	3.5150	3.5155	0.0597	25.98	0.00	1.500			
0.9072	58059.63	3.5120	3.5127	0.0447	25.98	0.00	1.500			
