Ah_balance (normalized)	Ah_balance (mAh)	Voltage - fit (V)	Voltage -  interpolate (V)	dQ/dV (1/V)	Temperature (°C)	Temperature - diff (°C)	Current (C)	R_DC 0ms (mOhm)	R_DC 50ms (mOhm)	R_DC 50 ms PEC (mOhm)
0.2795	17890.99	3.9690	3.9690	0.8780	27.54	1.56	1.500			
0.2822	18063.35	3.9660	3.9660	0.9033	27.54	1.56	1.500			
0.2850	18240.43	3.9630	3.9629	0.9119	27.54	1.56	1.500			
0.2878	18416.38	3.9600	3.9601	0.9061	27.54	1.56	1.500			
0.2905	18588.91	3.9570	3.9571	0.9131	27.53	1.55	1.500			
0.2932	18763.20	3.9540	3.9541	0.9183	27.53	1.55	1.500			
0.2959	18939.19	3.9510	3.9506	0.9189	27.53	1.55	1.500			
0.2987	19115.28	3.9480	3.9480	0.9192	27.53	1.55	1.500			
0.3015	19293.10	3.9450	3.9451	0.9243	27.53	1.55	1.500			
0.3043	19473.88	3.9420	3.9419	0.9343	27.52	1.54	1.500			
0.3070	19650.61	3.9390	3.9390	0.9325	27.52	1.54	1.500			
0.3098	19830.02	3.9360	3.9360	0.9382	27.52	1.54	1.500			
0.3127	20010.95	3.9330	3.9330	0.9372	27.52	1.54	1.500			
0.3155	20192.07	3.9300	3.9301	0.9435	27.51	1.53	1.500			
0.3183	20373.04	3.9270	3.9271	0.9494	27.51	1.53	1.500			
0.3211	20553.54	3.9240	3.9237	0.9567	27.51	1.53	1.500			
0.3240	20736.48	3.9210	3.9210	0.9634	27.51	1.53	1.500			
0.3269	20922.79	3.9180	3.9180	0.9736	27.51	1.53	1.500			
0.3299	21112.46	3.9150	3.9149	0.9868	27.50	1.52	1.500			
0.3329	21303.16	3.9120	3.9121	0.9900	27.50	1.52	1.500			
0.3359	21495.96	3.9090	3.9089	0.9941	27.50	1.52	1.500			
0.3388	21686.03	3.9060	3.9060	1.0016	27.50	1.52	1.500			
0.3418	21877.46	3.9030	3.9031	1.0127	27.49	1.51	1.500			
0.3449	22071.96	3.9000	3.8999	1.0216	27.49	1.51	1.500			
0.3480	22269.54	3.8970	3.8970	1.0298	27.49	1.51	1.500			
0.3511	22467.83	3.8940	3.8940	1.0397	27.48	1.50	1.500			
0.3542	22668.89	3.8910	3.8911	1.0504	27.48	1.50	1.500			
0.3574	22873.66	3.8880	3.8880	1.0604	27.47	1.49	1.500			
0.3605	23074.99	3.8850	3.8850	1.0663	27.47	1.49	1.500			
0.3638	23280.86	3.8820	3.8820	1.0803	27.46	1.48	1.500			
0.3670	23488.48	3.8790	3.8791	1.0949	27.46	1.48	1.500			
0.3703	23700.46	3.8760	3.8760	1.1083	27.45	1.47	1.500			
0.3737	23915.10	3.8730	3.8730	1.1226	27.45	1.47	1.500			
0.3771	24132.65	3.8700	3.8699	1.1352	27.44	1.46	1.500			
0.3805	24352.41	3.8670	3.8670	1.1481	27.43	1.45	1.500			
0.3840	24574.07	3.8640	3.8641	1.1537	27.43	1.45	1.500			
0.3874	24794.42	3.8610	3.8610	1.1765	27.42	1.44	1.500			
0.3910	25021.20	3.8580	3.8580	1.1982	27.42	1.44	1.500			
0.3946	25253.10	3.8550	3.8549	1.2144	27.41	1.43	1.500			
0.3982	25487.65	3.8520	3.8521	1.2358	27.41	1.43	1.500			
0.4020	25729.22	3.8490	3.8491	1.2573	27.40	1.42	1.500			
0.4058	25972.98	3.8460	3.8460	1.2755	27.39	1.41	1.500			
0.4097	26218.01	3.8430	3.8430	1.2998	27.38	1.40	1.500			
0.4135	26465.66	3.8400	3.8401	1.3203	27.37	1.39	1.500			
0.4175	26722.89	3.8370	3.8370	1.3490	27.37	1.39	1.500			
0.4216	26985.30	3.8340	3.8339	1.3825	27.36	1.38	1.500			
0.4258	27253.80	3.8310	3.8311	1.4035	27.35	1.37	1.500			
0.4301	27529.07	3.8280	3.8280	1.4301	27.33	1.35	1.500			
0.4344	27804.78	3.8250	3.8250	1.4545	27.32	1.34	1.500			
0.4388	28083.91	3.8220	3.8220	1.4813	27.31	1.33	1.500			
0.4432	28365.89	3.8190	3.8190	1.5232	27.30	1.32	1.500			
0.4479	28662.72	3.8160	3.8160	1.5687	27.29	1.31	1.500			
0.4527	28972.44	3.8130	3.8129	1.5954	27.27	1.29	1.500			
0.4575	29281.71	3.8100	3.8100	1.6448	27.26	1.28	1.500			
0.4625	29601.40	3.8070	3.8072	1.6900	27.25	1.27	1.500			
0.4676	29927.13	3.8040	3.8040	1.7349	27.24	1.26	1.500			
0.4728	30261.06	3.8010	3.8009	1.7900	27.22	1.24	1.500			
0.4783	30612.87	3.7980	3.7980	1.8103	27.21	1.23	1.500			
0.4838	30965.96	3.7950	3.7951	1.8923	27.19	1.21	1.500			
0.4896	31335.18	3.7920	3.7921	1.9538	27.17	1.19	1.500			
0.4954	31707.07	3.7890	3.7887	2.0084	27.15	1.17	1.500			
0.5015	32098.15	3.7860	3.7861	2.0819	27.14	1.16	1.500			
0.5079	32503.76	3.7830	3.7831	2.1267	27.12	1.14	1.500			
0.5145	32927.45	3.7800	3.7800	2.2019	27.11	1.13	1.500			
0.5210	33343.99	3.7770	3.7768	2.2483	27.09	1.11	1.500			
0.5279	33784.87	3.7740	3.7740	2.3116	27.06	1.08	1.500			
0.5350	34238.76	3.7710	3.7711	2.3887	27.04	1.06	1.500			
0.5422	34702.35	3.7680	3.7680	2.4465	27.01	1.03	1.500			
0.5497	35183.15	3.7650	3.7650	2.4937	26.98	1.00	1.500			
0.5573	35667.69	3.7620	3.7620	2.5278	26.96	0.98	1.500			
0.5650	36157.68	3.7590	3.7590	2.5763	26.94	0.96	1.500	0.358	0.442	
0.5727	36652.19	3.7560	3.7559	2.5703	26.92	0.94	1.500			
0.5805	37151.28	3.7530	3.7529	2.5388	26.90	0.92	1.500			
0.5880	37633.37	3.7500	3.7502	2.5160	26.87	0.89	1.500			
0.5956	38117.02	3.7470	3.7468	2.4616	26.84	0.86	1.500			
0.6029	38584.29	3.7440	3.7440	2.3830	26.82	0.84	1.500			
0.6098	39028.81	3.7410	3.7411	2.3535	26.80	0.82	1.500			
0.6168	39473.22	3.7380	3.7380	2.3053	26.77	0.79	1.500			
0.6236	39910.95	3.7350	3.7350	2.2899	26.75	0.77	1.500			
0.6305	40349.28	3.7320	3.7321	2.2858	26.73	0.75	1.500			
0.6373	40784.58	3.7290	3.7291	2.3130	26.71	0.73	1.500			
0.6441	41222.58	3.7260	3.7259	2.3352	26.69	0.71	1.500			
0.6513	41682.68	3.7230	3.7230	2.3526	26.67	0.69	1.500			
0.6585	42141.73	3.7200	3.7201	2.4140	26.65	0.67	1.500			
0.6658	42610.10	3.7170	3.7171	2.4770	26.62	0.64	1.500			
0.6732	43082.63	3.7140	3.7140	2.5392	26.60	0.62	1.500			
0.6809	43580.60	3.7110	3.7110	2.6781	26.58	0.60	1.500			
0.6894	44123.28	3.7080	3.7080	2.7992	26.56	0.58	1.500			
0.6978	44661.29	3.7050	3.7050	2.8925	26.53	0.55	1.500			
0.7066	45223.26	3.7020	3.7020	2.9461	26.51	0.53	1.500			
0.7156	45799.52	3.6990	3.6991	3.0812	26.48	0.50	1.500			
0.7250	46403.00	3.6960	3.6960	3.1334	26.45	0.47	1.500			
0.7346	47011.92	3.6930	3.6931	3.0129	26.43	0.45	1.500			
0.7435	47585.65	3.6900	3.6899	2.8238	26.41	0.43	1.500			
0.7517	48107.44	3.6870	3.6870	2.5693	26.39	0.41	1.500			
0.7589	48568.54	3.6840	3.6841	2.3093	26.37	0.39	1.500			
0.7653	48976.42	3.6810	3.6811	2.0461	26.35	0.37	1.500			
0.7710	49345.94	3.6780	3.6780	1.8631	26.34	0.36	1.500			
0.7764	49686.54	3.6750	3.6749	1.7368	26.33	0.35	1.500			
0.7813	50000.23	3.6720	3.6720	1.6046	26.32	0.34	1.500			
0.7859	50294.69	3.6690	3.6690	1.5083	26.30	0.32	1.500			
0.7902	50571.92	3.6660	3.6660	1.4203	26.29	0.31	1.500			
0.7943	50833.28	3.6630	3.6631	1.3456	26.28	0.30	1.500			
0.7982	51081.68	3.6600	3.6599	1.2868	26.27	0.29	1.500			
0.8018	51316.93	3.6570	3.6571	1.2419	26.27	0.29	1.500			
0.8055	51549.32	3.6540	3.6540	1.2173	26.26	0.28	1.500			
0.8090	51775.52	3.6510	3.6510	1.2067	26.25	0.27	1.500			
0.8126	52004.40	3.6480	3.6480	1.2124	26.24	0.26	1.500			
0.8162	52235.27	3.6450	3.6450	1.2255	26.23	0.25	1.500			
0.8199	52473.24	3.6420	3.6419	1.2472	26.22	0.24	1.500			
0.8237	52714.59	3.6390	3.6391	1.2625	26.21	0.23	1.500			
0.8275	52961.40	3.6360	3.6360	1.2764	26.20	0.22	1.500			
0.8314	53211.02	3.6330	3.6330	1.2825	26.19	0.21	1.500			
0.8353	53457.49	3.6300	3.6300	1.2815	26.17	0.19	1.500			
0.8391	53701.08	3.6270	3.6271	1.2812	26.16	0.18	1.500			
0.8429	53946.62	3.6240	3.6240	1.2851	26.15	0.17	1.500			
0.8467	54191.84	3.6210	3.6210	1.2900	26.14	0.16	1.500			
0.8506	54440.40	3.6180	3.6179	1.2959	26.13	0.15	1.500			
0.8546	54691.29	3.6150	3.6150	1.3052	26.11	0.13	1.500			
0.8585	54943.86	3.6120	3.6120	1.3024	26.10	0.12	1.500			
0.8624	55193.49	3.6090	3.6090	1.3049	26.09	0.11	1.500			
0.8663	55445.51	3.6060	3.6060	1.2983	26.07	0.09	1.500			
0.8702	55695.34	3.6030	3.6028	1.2925	26.06	0.08	1.500			
0.8741	55944.08	3.6000	3.6000	1.2803	26.05	0.07	1.500			
0.8780	56189.74	3.5970	3.5971	1.2687	26.04	0.06	1.500			
0.8818	56433.39	3.5940	3.5939	1.2542	26.03	0.05	1.500			
0.8855	56671.88	3.5910	3.5910	1.2423	26.03	0.05	1.500			
0.8891	56904.35	3.5880	3.5880	1.2234	26.02	0.04	1.500			
0.8928	57137.13	3.5850	3.5851	1.2280	26.01	0.03	1.500			
0.8964	57371.07	3.5820	3.5819	1.2312	26.00	0.02	1.500			
0.9001	57608.87	3.5790	3.5789	1.2399	26.00	0.02	1.500			
0.9039	57851.56	3.5760	3.5760	1.2379	25.99	0.01	1.500			
0.9079	58102.80	3.5730	3.5729	1.1838	25.99	0.01	1.500			
0.9115	58338.63	3.5700	3.5700	1.1051	25.99	0.01	1.500			
0.9150	58558.38	3.5670	3.5671	0.9908	25.98	0.00	1.500			
0.9178	58736.06	3.5640	3.5642	0.8306	25.98	0.00	1.500			
0.9200	58877.81	3.5610	3.5609	0.6650	25.98	0.00	1.500			
0.9215	58978.27	3.5580	3.5579	0.5311	25.98	-0.00	1.500			
0.9227	59055.12	3.5550	3.5550	0.4098	25.98	-0.00	1.500			
0.9238	59122.81	3.5520	3.5518	0.3251	25.98	-0.00	1.500			
0.9246	59172.92	3.5490	3.5491	0.2642	25.98	-0.00	1.500			
0.9252	59214.10	3.5460	3.5461	0.2220	25.98	-0.00	1.500			
0.9258	59251.30	3.5430	3.5429	0.1825	25.98	-0.00	1.500			
0.9263	59280.40	3.5400	3.5399	0.1466	25.98	-0.00	1.500			
0.9266	59304.28	3.5370	3.5371	0.1177	25.98	-0.00	1.500			
0.9269	59324.40	3.5340	3.5341	0.0927	25.98	-0.00	1.500			
0.9272	59339.84	3.5310	3.5313	0.0676	25.98	-0.00	1.500			
0.9274	59350.42	3.5280	3.5287	0.0426	25.97	-0.01	1.500			
