Ah_balance (normalized)	Ah_balance (mAh)	Voltage - fit (V)	Voltage -  interpolate (V)	dQ/dV (1/V)	Temperature (°C)	Temperature - diff (°C)	Current (C)	R_DC 0ms (mOhm)	R_DC 50ms (mOhm)	R_DC 50 ms PEC (mOhm)
0.1993	12757.41	3.9760	3.9758	-98.1517	26.53	0.57	0.193			
0.2696	17251.75	3.9730	3.9751	1.9200	27.03	1.07	1.417			
0.2748	17587.70	3.9700	3.9722	1.4178	27.02	1.06	1.501			
0.2787	17835.16	3.9670	3.9676	1.2694	27.02	1.06	1.500			
0.2820	18047.22	3.9640	3.9640	0.8957	27.01	1.05	1.500			
0.2846	18214.64	3.9610	3.9610	0.8883	27.01	1.05	1.500			
0.2873	18387.16	3.9580	3.9579	0.8914	27.00	1.04	1.500			
0.2900	18557.47	3.9550	3.9550	0.8925	27.00	1.04	1.500			
0.2926	18729.07	3.9520	3.9521	0.8952	26.99	1.03	1.500			
0.2953	18901.42	3.9490	3.9490	0.8977	26.99	1.03	1.500			
0.2980	19073.62	3.9460	3.9459	0.9013	26.99	1.03	1.500			
0.3007	19245.17	3.9430	3.9431	0.9065	26.98	1.02	1.500			
0.3034	19419.90	3.9400	3.9400	0.9168	26.98	1.02	1.500			
0.3062	19598.49	3.9370	3.9370	0.9213	26.98	1.02	1.500			
0.3090	19776.55	3.9340	3.9340	0.9220	26.97	1.01	1.500			
0.3118	19953.95	3.9310	3.9311	0.9250	26.97	1.01	1.500			
0.3146	20131.80	3.9280	3.9280	0.9283	26.97	1.01	1.500			
0.3173	20308.50	3.9250	3.9250	0.9327	26.96	1.00	1.500			
0.3201	20487.48	3.9220	3.9218	0.9386	26.96	1.00	1.500			
0.3229	20667.49	3.9190	3.9191	0.9456	26.95	0.99	1.500			
0.3258	20851.22	3.9160	3.9159	0.9540	26.95	0.99	1.500			
0.3287	21036.13	3.9130	3.9130	0.9656	26.94	0.98	1.500			
0.3316	21220.13	3.9100	3.9100	0.9672	26.94	0.98	1.500			
0.3345	21407.84	3.9070	3.9070	0.9776	26.93	0.97	1.500			
0.3374	21596.56	3.9040	3.9040	0.9822	26.93	0.97	1.500			
0.3404	21786.93	3.9010	3.9010	0.9888	26.92	0.96	1.500			
0.3434	21977.99	3.8980	3.8981	0.9952	26.91	0.95	1.500			
0.3464	22168.47	3.8950	3.8950	1.0035	26.91	0.95	1.500			
0.3494	22361.19	3.8920	3.8920	1.0073	26.90	0.94	1.500			
0.3524	22556.36	3.8890	3.8890	1.0152	26.90	0.94	1.500			
0.3555	22750.70	3.8860	3.8859	1.0255	26.89	0.93	1.500			
0.3586	22948.30	3.8830	3.8831	1.0362	26.89	0.93	1.500			
0.3617	23148.55	3.8800	3.8800	1.0462	26.88	0.92	1.500			
0.3648	23349.61	3.8770	3.8770	1.0572	26.88	0.92	1.500			
0.3680	23552.62	3.8740	3.8740	1.0713	26.87	0.91	1.500			
0.3713	23761.69	3.8710	3.8710	1.0853	26.87	0.91	1.500			
0.3746	23972.14	3.8680	3.8680	1.0956	26.86	0.90	1.500			
0.3778	24182.09	3.8650	3.8650	1.1079	26.85	0.89	1.500			
0.3812	24396.59	3.8620	3.8620	1.1213	26.85	0.89	1.500			
0.3846	24613.04	3.8590	3.8590	1.1352	26.84	0.88	1.500			
0.3880	24831.31	3.8560	3.8560	1.1506	26.83	0.87	1.500			
0.3915	25052.82	3.8530	3.8530	1.1681	26.83	0.87	1.500			
0.3950	25279.83	3.8500	3.8499	1.1896	26.82	0.86	1.500			
0.3986	25510.32	3.8470	3.8470	1.2104	26.81	0.85	1.500			
0.4022	25743.89	3.8440	3.8441	1.2298	26.80	0.84	1.500			
0.4060	25984.75	3.8410	3.8409	1.2445	26.79	0.83	1.500			
0.4098	26224.47	3.8380	3.8381	1.2606	26.78	0.82	1.500			
0.4135	26466.10	3.8350	3.8350	1.2801	26.78	0.82	1.500			
0.4174	26712.08	3.8320	3.8321	1.3041	26.77	0.81	1.500			
0.4213	26961.03	3.8290	3.8289	1.3349	26.76	0.80	1.500			
0.4253	27222.21	3.8260	3.8260	1.3563	26.75	0.79	1.500			
0.4295	27487.32	3.8230	3.8230	1.3844	26.74	0.78	1.500			
0.4337	27756.08	3.8200	3.8200	1.4189	26.73	0.77	1.500			
0.4380	28031.58	3.8170	3.8171	1.4486	26.72	0.76	1.500			
0.4424	28310.50	3.8140	3.8139	1.4770	26.71	0.75	1.500			
0.4468	28598.15	3.8110	3.8110	1.5100	26.70	0.74	1.500			
0.4514	28890.91	3.8080	3.8080	1.5385	26.68	0.72	1.500			
0.4561	29192.10	3.8050	3.8051	1.5835	26.67	0.71	1.500			
0.4609	29495.80	3.8020	3.8020	1.6193	26.66	0.70	1.500			
0.4657	29806.99	3.7990	3.7990	1.6619	26.65	0.69	1.500			
0.4708	30129.25	3.7960	3.7961	1.7059	26.64	0.68	1.500			
0.4760	30464.85	3.7930	3.7930	1.7431	26.62	0.66	1.500			
0.4814	30806.61	3.7900	3.7901	1.7987	26.60	0.64	1.500			
0.4868	31157.32	3.7870	3.7870	1.8494	26.59	0.63	1.500			
0.4924	31513.06	3.7840	3.7841	1.8869	26.57	0.61	1.500			
0.4981	31881.07	3.7810	3.7811	1.9224	26.55	0.59	1.500			
0.5039	32252.25	3.7780	3.7781	1.9584	26.53	0.57	1.500			
0.5099	32634.60	3.7750	3.7750	1.9922	26.51	0.55	1.500			
0.5159	33020.20	3.7720	3.7719	2.0102	26.49	0.53	1.500			
0.5220	33410.92	3.7690	3.7691	2.0280	26.47	0.51	1.500			
0.5282	33802.50	3.7660	3.7660	2.0324	26.45	0.49	1.500			
0.5343	34194.49	3.7630	3.7630	2.0440	26.43	0.47	1.500			
0.5404	34583.49	3.7600	3.7601	2.0337	26.41	0.45	1.500			
0.5465	34977.16	3.7570	3.7571	2.0443	26.40	0.44	1.500			
0.5526	35369.42	3.7540	3.7541	2.0472	26.38	0.42	1.500			
0.5588	35763.51	3.7510	3.7510	2.0542	26.37	0.41	1.500			
0.5651	36164.64	3.7480	3.7480	2.0681	26.36	0.40	1.500			
0.5711	36552.73	3.7450	3.7451	2.0398	26.35	0.39	1.500			
0.5773	36946.79	3.7420	3.7420	2.0466	26.33	0.37	1.500			
0.5834	37336.68	3.7390	3.7391	2.0534	26.31	0.35	1.500			
0.5895	37727.01	3.7360	3.7360	2.0622	26.30	0.34	1.500			
0.5957	38126.55	3.7330	3.7329	2.0916	26.28	0.32	1.500			
0.6020	38530.77	3.7300	3.7301	2.1225	26.26	0.30	1.500			
0.6085	38944.23	3.7270	3.7270	2.1593	26.25	0.29	1.500			
0.6150	39360.76	3.7240	3.7240	2.1991	26.23	0.27	1.500			
0.6216	39780.68	3.7210	3.7210	2.2424	26.22	0.26	1.500			
0.6284	40216.93	3.7180	3.7180	2.2839	26.21	0.25	1.500			
0.6353	40662.13	3.7150	3.7150	2.3698	26.20	0.24	1.500			
0.6425	41120.08	3.7120	3.7120	2.4720	26.18	0.22	1.500			
0.6501	41604.19	3.7090	3.7090	2.5595	26.17	0.21	1.500			
0.6580	42110.33	3.7060	3.7060	2.6491	26.16	0.20	1.500			
0.6662	42634.24	3.7030	3.7030	2.6932	26.15	0.19	1.500			
0.6744	43159.14	3.7000	3.7001	2.6743	26.13	0.17	1.500			
0.6823	43669.51	3.6970	3.6970	2.6294	26.12	0.16	1.500			
0.6903	44178.05	3.6940	3.6941	2.5285	26.11	0.15	1.500			
0.6977	44651.62	3.6910	3.6911	2.3832	26.10	0.14	1.500			
0.7047	45099.13	3.6880	3.6880	2.2009	26.09	0.13	1.500			
0.7109	45497.79	3.6850	3.6851	2.0155	26.09	0.13	1.500			
0.7165	45858.50	3.6820	3.6821	1.8592	26.08	0.12	1.500			
0.7218	46198.31	3.6790	3.6790	1.7270	26.08	0.12	1.500			
0.7268	46514.50	3.6760	3.6760	1.6183	26.07	0.11	1.500			
0.7314	46809.11	3.6730	3.6730	1.5239	26.07	0.11	1.500			
0.7358	47094.04	3.6700	3.6700	1.4518	26.06	0.10	1.500			
0.7400	47360.71	3.6670	3.6670	1.3806	26.06	0.10	1.500			
0.7440	47617.81	3.6640	3.6639	1.3277	26.05	0.09	1.500			
0.7479	47863.26	3.6610	3.6610	1.2887	26.05	0.09	1.500			
0.7516	48105.39	3.6580	3.6580	1.2697	26.04	0.08	1.500			
0.7554	48343.65	3.6550	3.6549	1.2512	26.04	0.08	1.500			
0.7591	48580.52	3.6520	3.6520	1.2568	26.03	0.07	1.500			
0.7628	48819.67	3.6490	3.6490	1.2613	26.03	0.07	1.500			
0.7666	49062.85	3.6460	3.6460	1.2776	26.02	0.06	1.500			
0.7705	49309.82	3.6430	3.6429	1.2946	26.02	0.06	1.500			
0.7744	49561.11	3.6400	3.6401	1.3037	26.01	0.05	1.500			
0.7784	49814.54	3.6370	3.6370	1.3108	26.01	0.05	1.500			
0.7823	50069.66	3.6340	3.6340	1.3126	26.00	0.04	1.500			
0.7862	50319.84	3.6310	3.6310	1.3098	25.99	0.03	1.500			
0.7902	50570.62	3.6280	3.6281	1.3138	25.99	0.03	1.500			
0.7941	50822.15	3.6250	3.6249	1.3124	25.98	0.02	1.500			
0.7980	51073.84	3.6220	3.6220	1.3141	25.98	0.02	1.500			
0.8020	51328.31	3.6190	3.6190	1.3173	25.97	0.01	1.500			
0.8060	51583.28	3.6160	3.6160	1.3178	25.96	0.00	1.500			
0.8099	51835.72	3.6130	3.6130	1.3093	25.96	-0.00	1.500			
0.8139	52086.42	3.6100	3.6100	1.3031	25.95	-0.01	1.500			
0.8177	52335.33	3.6070	3.6070	1.2986	25.94	-0.02	1.500			
0.8216	52584.99	3.6040	3.6040	1.2965	25.94	-0.02	1.500			
0.8255	52834.99	3.6010	3.6009	1.2827	25.94	-0.02	1.500			
0.8294	53080.92	3.5980	3.5980	1.2703	25.93	-0.03	1.500			
0.8332	53324.95	3.5950	3.5950	1.2565	25.93	-0.03	1.500			
0.8369	53562.65	3.5920	3.5920	1.2455	25.93	-0.03	1.500			
0.8406	53797.64	3.5890	3.5890	1.2353	25.92	-0.04	1.500			
0.8443	54033.19	3.5860	3.5859	1.2280	25.92	-0.04	1.500			
0.8479	54268.69	3.5830	3.5830	1.2249	25.92	-0.04	1.500			
0.8517	54507.70	3.5800	3.5800	1.2155	25.93	-0.03	1.500			
0.8554	54745.96	3.5770	3.5769	1.1915	25.94	-0.02	1.500			
0.8591	54982.95	3.5740	3.5739	1.1230	25.94	-0.02	1.500			
0.8625	55197.17	3.5710	3.5710	1.0330	25.95	-0.01	1.500			
0.8656	55396.49	3.5680	3.5681	0.9176	25.95	-0.01	1.500			
0.8682	55562.50	3.5650	3.5651	0.7779	25.96	-0.00	1.500			
0.8702	55692.80	3.5620	3.5619	0.6420	25.96	0.00	1.500			
0.8718	55797.90	3.5590	3.5589	0.5177	25.96	0.00	1.500			
0.8731	55877.46	3.5560	3.5559	0.4170	25.97	0.01	1.500			
0.8741	55945.14	3.5530	3.5529	0.3516	25.97	0.01	1.500			
0.8750	56000.91	3.5500	3.5500	0.2971	25.97	0.01	1.500			
0.8758	56051.63	3.5470	3.5470	0.2622	25.97	0.01	1.500			
0.8765	56096.75	3.5440	3.5439	0.2304	25.97	0.01	1.500			
0.8771	56136.65	3.5410	3.5409	0.2084	25.97	0.01	1.500			
0.8777	56173.29	3.5380	3.5380	0.1889	25.97	0.01	1.500			
0.8782	56207.34	3.5350	3.5350	0.1732	25.97	0.01	1.500			
0.8787	56239.24	3.5320	3.5320	0.1590	25.97	0.01	1.500			
0.8792	56267.93	3.5290	3.5290	0.1457	25.97	0.01	1.500			
0.8796	56294.28	3.5260	3.5260	0.1323	25.98	0.02	1.500			
0.8800	56319.04	3.5230	3.5229	0.1190	25.98	0.02	1.500			
0.8803	56340.57	3.5200	3.5200	0.1053	25.98	0.02	1.500			
0.8806	56359.70	3.5170	3.5170	0.0919	25.98	0.02	1.500			
0.8809	56376.59	3.5140	3.5142	0.0783	25.98	0.02	1.500			
0.8811	56390.19	3.5110	3.5113	0.0634	25.98	0.02	1.500			
0.8813	56401.32	3.5080	3.5085	0.0472	25.98	0.02	1.500			
0.8814	56408.83	3.5050	3.5063	0.0311	25.98	0.02	1.500			
