Ah_balance (normalized)	Ah_balance (mAh)	Voltage - fit (V)	Voltage -  interpolate (V)	dQ/dV (1/V)	Temperature (°C)	Temperature - diff (°C)	Current (C)	R_DC 0ms (mOhm)	R_DC 50ms (mOhm)	R_DC 50 ms PEC (mOhm)
0.3015	19296.80	3.9740	3.9740	0.8195	27.01	1.05	1.500			
0.3040	19457.65	3.9710	3.9711	0.8481	27.00	1.04	1.500			
0.3066	19623.55	3.9680	3.9679	0.8582	27.00	1.04	1.500			
0.3092	19787.34	3.9650	3.9649	0.8637	26.99	1.03	1.500			
0.3118	19953.41	3.9620	3.9622	0.8722	26.99	1.03	1.500			
0.3144	20121.56	3.9590	3.9589	0.8783	26.98	1.02	1.500			
0.3170	20290.99	3.9560	3.9560	0.8821	26.97	1.01	1.500			
0.3197	20462.54	3.9530	3.9530	0.8863	26.97	1.01	1.500			
0.3224	20632.66	3.9500	3.9501	0.8918	26.96	1.00	1.500			
0.3251	20804.63	3.9470	3.9469	0.8946	26.96	1.00	1.500			
0.3277	20974.50	3.9440	3.9440	0.8953	26.95	0.99	1.500			
0.3304	21147.04	3.9410	3.9409	0.9018	26.95	0.99	1.500			
0.3331	21321.17	3.9380	3.9381	0.9073	26.94	0.98	1.500			
0.3359	21496.34	3.9350	3.9350	0.9115	26.94	0.98	1.500			
0.3386	21672.74	3.9320	3.9320	0.9159	26.93	0.97	1.500			
0.3414	21847.46	3.9290	3.9290	0.9201	26.92	0.96	1.500			
0.3441	22023.91	3.9260	3.9260	0.9243	26.92	0.96	1.500			
0.3469	22201.36	3.9230	3.9230	0.9294	26.91	0.95	1.500			
0.3497	22382.61	3.9200	3.9200	0.9260	26.90	0.94	1.500			
0.3525	22559.47	3.9170	3.9171	0.9375	26.90	0.94	1.500			
0.3553	22739.24	3.9140	3.9140	0.9446	26.89	0.93	1.500			
0.3581	22921.01	3.9110	3.9111	0.9516	26.88	0.92	1.500			
0.3610	23103.72	3.9080	3.9081	0.9587	26.88	0.92	1.500			
0.3639	23289.20	3.9050	3.9051	0.9681	26.87	0.91	1.500			
0.3668	23476.39	3.9020	3.9020	0.9783	26.86	0.90	1.500			
0.3698	23667.87	3.8990	3.8989	0.9867	26.86	0.90	1.500			
0.3727	23854.44	3.8960	3.8960	0.9863	26.85	0.89	1.500			
0.3757	24044.49	3.8930	3.8930	0.9977	26.84	0.88	1.500			
0.3787	24235.91	3.8900	3.8900	1.0082	26.83	0.87	1.500			
0.3817	24430.47	3.8870	3.8869	1.0189	26.83	0.87	1.500			
0.3848	24627.25	3.8840	3.8840	1.0282	26.82	0.86	1.500			
0.3879	24825.58	3.8810	3.8810	1.0380	26.81	0.85	1.500			
0.3911	25027.31	3.8780	3.8781	1.0526	26.81	0.85	1.500			
0.3942	25229.25	3.8750	3.8750	1.0631	26.80	0.84	1.500			
0.3974	25435.48	3.8720	3.8720	1.0645	26.79	0.83	1.500			
0.4006	25639.45	3.8690	3.8690	1.0796	26.79	0.83	1.500			
0.4039	25846.88	3.8660	3.8661	1.0933	26.78	0.82	1.500			
0.4072	26057.65	3.8630	3.8630	1.1106	26.77	0.81	1.500			
0.4105	26272.09	3.8600	3.8599	1.1241	26.77	0.81	1.500			
0.4139	26490.24	3.8570	3.8570	1.1337	26.76	0.80	1.500			
0.4173	26709.74	3.8540	3.8541	1.1474	26.75	0.79	1.500			
0.4208	26932.48	3.8510	3.8510	1.1646	26.74	0.78	1.500			
0.4243	27153.96	3.8480	3.8480	1.1783	26.73	0.77	1.500			
0.4278	27378.78	3.8450	3.8450	1.2017	26.73	0.77	1.500			
0.4315	27612.92	3.8420	3.8420	1.2233	26.72	0.76	1.500			
0.4352	27852.12	3.8390	3.8389	1.2483	26.71	0.75	1.500			
0.4390	28095.20	3.8360	3.8361	1.2692	26.70	0.74	1.500			
0.4428	28340.68	3.8330	3.8331	1.2917	26.69	0.73	1.500			
0.4467	28589.34	3.8300	3.8300	1.3177	26.68	0.72	1.500			
0.4507	28844.30	3.8270	3.8270	1.3391	26.67	0.71	1.500			
0.4547	29101.96	3.8240	3.8240	1.3633	26.66	0.70	1.500			
0.4589	29366.82	3.8210	3.8211	1.3998	26.65	0.69	1.500			
0.4631	29639.13	3.8180	3.8180	1.4326	26.64	0.68	1.500			
0.4675	29916.85	3.8150	3.8149	1.4637	26.63	0.67	1.500			
0.4718	30198.26	3.8120	3.8120	1.5002	26.62	0.66	1.500			
0.4764	30492.02	3.8090	3.8090	1.5334	26.61	0.65	1.500			
0.4811	30790.31	3.8060	3.8060	1.5765	26.60	0.64	1.500			
0.4859	31096.51	3.8030	3.8030	1.6102	26.59	0.63	1.500			
0.4908	31408.04	3.8000	3.8000	1.6494	26.57	0.61	1.500			
0.4957	31727.58	3.7970	3.7970	1.6838	26.56	0.60	1.500			
0.5008	32053.11	3.7940	3.7940	1.7255	26.55	0.59	1.500			
0.5061	32389.18	3.7910	3.7911	1.7655	26.54	0.58	1.500			
0.5114	32730.70	3.7880	3.7881	1.8165	26.53	0.57	1.500			
0.5169	33084.22	3.7850	3.7850	1.8599	26.51	0.55	1.500			
0.5226	33447.39	3.7820	3.7819	1.8878	26.50	0.54	1.500			
0.5283	33812.98	3.7790	3.7791	1.9047	26.48	0.52	1.500			
0.5341	34184.85	3.7760	3.7760	1.9309	26.47	0.51	1.500			
0.5399	34555.13	3.7730	3.7730	1.9691	26.45	0.49	1.500			
0.5458	34933.02	3.7700	3.7700	1.9914	26.44	0.48	1.500			
0.5519	35323.43	3.7670	3.7669	2.0183	26.42	0.46	1.500	0.354	0.457	
0.5580	35712.33	3.7640	3.7641	2.0092	26.40	0.44	1.500			
0.5641	36102.64	3.7610	3.7610	2.0077	26.39	0.43	1.500			
0.5701	36488.46	3.7580	3.7580	1.9646	26.38	0.42	1.500			
0.5759	36857.75	3.7550	3.7550	1.9596	26.37	0.41	1.500			
0.5818	37233.04	3.7520	3.7520	1.9546	26.36	0.40	1.500			
0.5876	37606.81	3.7490	3.7491	1.9482	26.35	0.39	1.500			
0.5935	37983.32	3.7460	3.7460	1.9363	26.34	0.38	1.500			
0.5993	38355.62	3.7430	3.7430	1.9453	26.32	0.36	1.500			
0.6051	38724.92	3.7400	3.7400	1.9529	26.31	0.35	1.500			
0.6109	39100.34	3.7370	3.7371	1.9862	26.30	0.34	1.500			
0.6170	39490.11	3.7340	3.7340	2.0054	26.29	0.33	1.500			
0.6231	39875.96	3.7310	3.7310	2.0271	26.28	0.32	1.500			
0.6291	40264.34	3.7280	3.7281	2.0516	26.27	0.31	1.500			
0.6353	40657.51	3.7250	3.7249	2.1020	26.26	0.30	1.500			
0.6417	41068.40	3.7220	3.7220	2.1768	26.24	0.28	1.500			
0.6484	41498.81	3.7190	3.7190	2.2771	26.23	0.27	1.500			
0.6553	41936.80	3.7160	3.7162	2.3287	26.21	0.25	1.500			
0.6623	42387.66	3.7130	3.7130	2.4172	26.20	0.24	1.500			
0.6697	42857.88	3.7100	3.7099	2.4979	26.19	0.23	1.500			
0.6773	43347.22	3.7070	3.7071	2.5547	26.19	0.23	1.500			
0.6851	43846.37	3.7040	3.7040	2.6141	26.18	0.22	1.500			
0.6930	44350.02	3.7010	3.7009	2.6021	26.17	0.21	1.500			
0.7009	44854.79	3.6980	3.6981	2.5806	26.15	0.19	1.500			
0.7087	45353.61	3.6950	3.6949	2.4728	26.14	0.18	1.500			
0.7158	45809.45	3.6920	3.6920	2.2946	26.13	0.17	1.500			
0.7224	46232.91	3.6890	3.6890	2.1225	26.12	0.16	1.500			
0.7285	46621.13	3.6860	3.6860	1.9544	26.11	0.15	1.500			
0.7340	46974.29	3.6830	3.6828	1.7990	26.10	0.14	1.500			
0.7391	47305.06	3.6800	3.6801	1.6818	26.10	0.14	1.500			
0.7440	47616.81	3.6770	3.6770	1.5830	26.09	0.13	1.500			
0.7485	47904.63	3.6740	3.6740	1.4960	26.09	0.13	1.500			
0.7528	48180.69	3.6710	3.6710	1.4199	26.09	0.13	1.500			
0.7569	48443.74	3.6680	3.6680	1.3623	26.08	0.12	1.500			
0.7609	48698.39	3.6650	3.6650	1.3195	26.08	0.12	1.500			
0.7647	48942.82	3.6620	3.6620	1.2869	26.07	0.11	1.500			
0.7685	49184.77	3.6590	3.6589	1.2657	26.07	0.11	1.500			
0.7722	49423.66	3.6560	3.6560	1.2580	26.06	0.10	1.500			
0.7760	49661.37	3.6530	3.6531	1.2608	26.05	0.09	1.500			
0.7797	49903.98	3.6500	3.6500	1.2705	26.05	0.09	1.500			
0.7836	50150.28	3.6470	3.6469	1.2837	26.04	0.08	1.500			
0.7875	50397.05	3.6440	3.6441	1.2917	26.03	0.07	1.500			
0.7914	50647.16	3.6410	3.6410	1.3028	26.03	0.07	1.500			
0.7953	50902.33	3.6380	3.6380	1.3066	26.02	0.06	1.500			
0.7992	51151.19	3.6350	3.6350	1.3021	26.01	0.05	1.500			
0.8032	51401.94	3.6320	3.6320	1.3025	26.00	0.04	1.500			
0.8071	51652.53	3.6290	3.6291	1.2995	25.99	0.03	1.500			
0.8110	51901.51	3.6260	3.6259	1.2934	25.99	0.03	1.500			
0.8148	52149.39	3.6230	3.6231	1.2886	25.98	0.02	1.500			
0.8187	52395.81	3.6200	3.6200	1.2847	25.97	0.01	1.500			
0.8226	52644.68	3.6170	3.6170	1.2837	25.96	0.00	1.500			
0.8264	52888.91	3.6140	3.6140	1.2752	25.96	-0.00	1.500			
0.8302	53133.97	3.6110	3.6110	1.2680	25.95	-0.01	1.500			
0.8340	53377.57	3.6080	3.6080	1.2582	25.94	-0.02	1.500			
0.8378	53619.36	3.6050	3.6051	1.2446	25.94	-0.02	1.500			
0.8415	53857.47	3.6020	3.6020	1.2222	25.94	-0.02	1.500			
0.8452	54090.25	3.5990	3.5990	1.2055	25.94	-0.02	1.500			
0.8487	54319.36	3.5960	3.5960	1.1839	25.94	-0.02	1.500			
0.8522	54542.45	3.5930	3.5930	1.1728	25.94	-0.02	1.500			
0.8557	54766.23	3.5900	3.5900	1.1595	25.94	-0.02	1.500			
0.8592	54987.79	3.5870	3.5869	1.1451	25.94	-0.02	1.500			
0.8626	55208.24	3.5840	3.5840	1.1347	25.94	-0.02	1.500			
0.8661	55428.36	3.5810	3.5810	1.1060	25.95	-0.01	1.500			
0.8694	55643.25	3.5780	3.5779	1.0628	25.95	-0.01	1.500			
0.8727	55852.16	3.5750	3.5749	0.9888	25.95	-0.01	1.500			
0.8756	56038.24	3.5720	3.5721	0.8908	25.95	-0.01	1.500			
0.8782	56206.95	3.5690	3.5691	0.7842	25.96	-0.00	1.500			
0.8804	56344.59	3.5660	3.5660	0.6602	25.96	-0.00	1.500			
0.8821	56452.41	3.5630	3.5630	0.5443	25.96	-0.00	1.500			
0.8835	56541.07	3.5600	3.5599	0.4488	25.96	-0.00	1.500			
0.8845	56610.23	3.5570	3.5570	0.3694	25.96	0.00	1.500			
0.8855	56670.79	3.5540	3.5540	0.3151	25.96	0.00	1.500			
0.8863	56723.53	3.5510	3.5509	0.2672	25.96	0.00	1.500			
0.8870	56769.43	3.5480	3.5479	0.2368	25.96	0.00	1.500			
0.8876	56809.47	3.5450	3.5451	0.2097	25.96	0.00	1.500			
0.8882	56847.43	3.5420	3.5420	0.1893	25.96	0.00	1.500			
0.8888	56881.31	3.5390	3.5390	0.1723	25.96	0.00	1.500			
0.8893	56912.09	3.5360	3.5360	0.1565	25.96	0.00	1.500			
0.8897	56940.23	3.5330	3.5330	0.1407	25.96	0.00	1.500			
0.8901	56965.68	3.5300	3.5299	0.1263	25.96	0.00	1.500			
0.8904	56988.62	3.5270	3.5270	0.1127	25.96	0.00	1.500			
0.8908	57008.90	3.5240	3.5241	0.0991	25.97	0.01	1.500			
0.8910	57026.80	3.5210	3.5211	0.0857	25.97	0.01	1.500			
0.8913	57041.94	3.5180	3.5182	0.0719	25.97	0.01	1.500			
0.8915	57054.48	3.5150	3.5154	0.0580	25.97	0.01	1.500			
0.8916	57064.27	3.5120	3.5125	0.0440	25.97	0.01	1.500			
