Ah_balance (normalized)	Ah_balance (mAh)	Voltage - fit (V)	Voltage -  interpolate (V)	dQ/dV (1/V)	Temperature (°C)	Temperature - diff (°C)	Current (C)	R_DC 0ms (mOhm)	R_DC 50ms (mOhm)	R_DC 50 ms PEC (mOhm)
0.2903	18580.02	3.9880	3.9880	0.8404	27.28	1.32	1.500			
0.2928	18741.06	3.9850	3.9850	0.8383	27.27	1.31	1.500			
0.2953	18901.88	3.9820	3.9819	0.8384	27.27	1.31	1.500			
0.2979	19062.40	3.9790	3.9791	0.8414	27.26	1.30	1.500			
0.3004	19223.29	3.9760	3.9759	0.8464	27.25	1.29	1.500			
0.3029	19386.91	3.9730	3.9730	0.8501	27.25	1.29	1.500			
0.3054	19548.70	3.9700	3.9701	0.8544	27.24	1.28	1.500			
0.3080	19715.14	3.9670	3.9670	0.8599	27.24	1.28	1.500			
0.3106	19881.30	3.9640	3.9640	0.8642	27.23	1.27	1.500			
0.3133	20048.54	3.9610	3.9610	0.8681	27.22	1.26	1.500			
0.3158	20214.40	3.9580	3.9581	0.8701	27.22	1.26	1.500			
0.3185	20382.24	3.9550	3.9549	0.8706	27.21	1.25	1.500			
0.3211	20549.67	3.9520	3.9521	0.8759	27.20	1.24	1.500			
0.3237	20717.03	3.9490	3.9489	0.8745	27.20	1.24	1.500			
0.3263	20885.42	3.9460	3.9460	0.8826	27.19	1.23	1.500			
0.3290	21054.07	3.9430	3.9430	0.8865	27.18	1.22	1.500			
0.3316	21224.71	3.9400	3.9399	0.8936	27.18	1.22	1.500			
0.3343	21398.37	3.9370	3.9370	0.8946	27.17	1.21	1.500			
0.3371	21571.47	3.9340	3.9339	0.8982	27.16	1.20	1.500			
0.3397	21743.61	3.9310	3.9311	0.9024	27.15	1.19	1.500			
0.3425	21917.93	3.9280	3.9280	0.9076	27.15	1.19	1.500			
0.3452	22090.57	3.9250	3.9249	0.9119	27.14	1.18	1.500			
0.3479	22266.57	3.9220	3.9220	0.9212	27.13	1.17	1.500			
0.3507	22443.59	3.9190	3.9189	0.9287	27.12	1.16	1.500			
0.3535	22623.95	3.9160	3.9160	0.9365	27.11	1.15	1.500			
0.3563	22803.55	3.9130	3.9130	0.9455	27.11	1.15	1.500			
0.3591	22985.33	3.9100	3.9100	0.9539	27.10	1.14	1.500			
0.3620	23169.63	3.9070	3.9070	0.9597	27.09	1.13	1.500			
0.3649	23354.89	3.9040	3.9040	0.9640	27.08	1.12	1.500			
0.3678	23540.43	3.9010	3.9011	0.9702	27.07	1.11	1.500			
0.3707	23727.49	3.8980	3.8979	0.9764	27.06	1.10	1.500			
0.3737	23914.36	3.8950	3.8951	0.9856	27.05	1.09	1.500			
0.3766	24103.67	3.8920	3.8918	0.9922	27.04	1.08	1.500			
0.3796	24294.30	3.8890	3.8891	1.0040	27.03	1.07	1.500			
0.3826	24488.95	3.8860	3.8860	1.0175	27.02	1.06	1.500			
0.3857	24686.28	3.8830	3.8830	1.0272	27.01	1.05	1.500			
0.3888	24884.48	3.8800	3.8799	1.0345	27.00	1.04	1.500			
0.3919	25083.33	3.8770	3.8771	1.0442	26.99	1.03	1.500			
0.3951	25284.52	3.8740	3.8740	1.0517	26.98	1.02	1.500			
0.3982	25486.21	3.8710	3.8710	1.0669	26.97	1.01	1.500			
0.4014	25691.74	3.8680	3.8678	1.0779	26.96	1.00	1.500			
0.4047	25899.54	3.8650	3.8650	1.0906	26.95	0.99	1.500			
0.4080	26110.76	3.8620	3.8620	1.1063	26.94	0.98	1.500			
0.4113	26324.45	3.8590	3.8590	1.1225	26.93	0.97	1.500			
0.4147	26542.24	3.8560	3.8560	1.1244	26.92	0.96	1.500			
0.4181	26758.81	3.8530	3.8530	1.1486	26.91	0.95	1.500			
0.4215	26979.19	3.8500	3.8501	1.1656	26.90	0.94	1.500			
0.4251	27206.30	3.8470	3.8470	1.1837	26.89	0.93	1.500			
0.4287	27434.34	3.8440	3.8440	1.2053	26.87	0.91	1.500			
0.4323	27667.25	3.8410	3.8411	1.2238	26.86	0.90	1.500			
0.4360	27904.17	3.8380	3.8380	1.2479	26.85	0.89	1.500			
0.4398	28149.53	3.8350	3.8349	1.2685	26.84	0.88	1.500			
0.4436	28390.93	3.8320	3.8320	1.2781	26.83	0.87	1.500			
0.4475	28638.21	3.8290	3.8291	1.3034	26.82	0.86	1.500			
0.4514	28890.67	3.8260	3.8259	1.3268	26.81	0.85	1.500			
0.4554	29145.42	3.8230	3.8230	1.3512	26.80	0.84	1.500			
0.4595	29408.64	3.8200	3.8200	1.3783	26.79	0.83	1.500			
0.4637	29675.50	3.8170	3.8170	1.3976	26.78	0.82	1.500			
0.4679	29948.41	3.8140	3.8140	1.4329	26.76	0.80	1.500			
0.4723	30225.27	3.8110	3.8110	1.4606	26.75	0.79	1.500			
0.4767	30508.59	3.8080	3.8078	1.4811	26.74	0.78	1.500			
0.4812	30794.03	3.8050	3.8050	1.5139	26.72	0.76	1.500			
0.4858	31090.67	3.8020	3.8020	1.5314	26.71	0.75	1.500			
0.4904	31386.75	3.7990	3.7989	1.5592	26.69	0.73	1.500			
0.4951	31686.50	3.7960	3.7961	1.5808	26.67	0.71	1.500			
0.4999	31993.40	3.7930	3.7930	1.6012	26.66	0.70	1.500			
0.5047	32301.97	3.7900	3.7901	1.6395	26.64	0.68	1.500			
0.5096	32617.55	3.7870	3.7870	1.6697	26.62	0.66	1.500			
0.5148	32945.17	3.7840	3.7839	1.7019	26.61	0.65	1.500			
0.5199	33271.11	3.7810	3.7811	1.7181	26.59	0.63	1.500	0.348	0.474	
0.5251	33604.72	3.7780	3.7780	1.7466	26.58	0.62	1.500			
0.5304	33944.41	3.7750	3.7749	1.7622	26.56	0.60	1.500			
0.5356	34280.66	3.7720	3.7720	1.7560	26.55	0.59	1.500			
0.5410	34624.58	3.7690	3.7691	1.7460	26.53	0.57	1.500			
0.5462	34956.48	3.7660	3.7660	1.7429	26.52	0.56	1.500			
0.5514	35288.17	3.7630	3.7629	1.7371	26.50	0.54	1.500			
0.5566	35619.30	3.7600	3.7600	1.7364	26.48	0.52	1.500			
0.5618	35956.67	3.7570	3.7571	1.7438	26.47	0.51	1.500			
0.5670	36289.72	3.7540	3.7540	1.7569	26.45	0.49	1.500			
0.5723	36626.49	3.7510	3.7509	1.7674	26.43	0.47	1.500			
0.5776	36964.17	3.7480	3.7480	1.7862	26.42	0.46	1.500			
0.5830	37310.76	3.7450	3.7450	1.8192	26.41	0.45	1.500			
0.5885	37662.73	3.7420	3.7420	1.8353	26.39	0.43	1.500			
0.5940	38016.32	3.7390	3.7390	1.8769	26.38	0.42	1.500			
0.5997	38381.13	3.7360	3.7360	1.9214	26.36	0.40	1.500			
0.6055	38755.00	3.7330	3.7330	1.9714	26.35	0.39	1.500			
0.6115	39137.66	3.7300	3.7300	2.0028	26.33	0.37	1.500			
0.6176	39525.70	3.7270	3.7270	2.0658	26.32	0.36	1.500			
0.6239	39927.55	3.7240	3.7240	2.1452	26.30	0.34	1.500			
0.6304	40346.53	3.7210	3.7211	2.2138	26.28	0.32	1.500			
0.6372	40783.19	3.7180	3.7180	2.2678	26.27	0.31	1.500			
0.6441	41223.18	3.7150	3.7150	2.3147	26.26	0.30	1.500			
0.6511	41668.61	3.7120	3.7118	2.3528	26.24	0.28	1.500			
0.6582	42124.64	3.7090	3.7091	2.3771	26.23	0.27	1.500			
0.6655	42594.33	3.7060	3.7060	2.3334	26.21	0.25	1.500			
0.6726	43044.45	3.7030	3.7030	2.2540	26.20	0.24	1.500			
0.6792	43466.47	3.7000	3.7000	2.1154	26.19	0.23	1.500			
0.6853	43856.40	3.6970	3.6971	1.9567	26.17	0.21	1.500			
0.6907	44205.79	3.6940	3.6940	1.7994	26.16	0.20	1.500			
0.6959	44536.95	3.6910	3.6911	1.6828	26.15	0.19	1.500			
0.7008	44850.18	3.6880	3.6879	1.5911	26.14	0.18	1.500			
0.7054	45146.95	3.6850	3.6850	1.5169	26.13	0.17	1.500			
0.7098	45428.43	3.6820	3.6821	1.4493	26.12	0.16	1.500			
0.7141	45700.40	3.6790	3.6789	1.3805	26.11	0.15	1.500			
0.7180	45954.34	3.6760	3.6760	1.3356	26.10	0.14	1.500			
0.7219	46203.27	3.6730	3.6731	1.3076	26.09	0.13	1.500			
0.7258	46448.07	3.6700	3.6698	1.2879	26.08	0.12	1.500			
0.7296	46692.27	3.6670	3.6670	1.2795	26.08	0.12	1.500			
0.7333	46934.20	3.6640	3.6640	1.2692	26.07	0.11	1.500			
0.7372	47178.61	3.6610	3.6610	1.2706	26.06	0.10	1.500			
0.7410	47425.32	3.6580	3.6580	1.2769	26.06	0.10	1.500			
0.7448	47667.69	3.6550	3.6550	1.2688	26.05	0.09	1.500			
0.7486	47912.94	3.6520	3.6519	1.2678	26.04	0.08	1.500			
0.7525	48157.28	3.6490	3.6490	1.2607	26.04	0.08	1.500			
0.7563	48400.13	3.6460	3.6461	1.2514	26.03	0.07	1.500			
0.7600	48638.93	3.6430	3.6430	1.2450	26.02	0.06	1.500			
0.7637	48876.52	3.6400	3.6400	1.2308	26.01	0.05	1.500			
0.7673	49109.40	3.6370	3.6370	1.2205	26.00	0.04	1.500			
0.7710	49343.15	3.6340	3.6340	1.2177	25.99	0.03	1.500			
0.7746	49577.40	3.6310	3.6311	1.2130	25.99	0.03	1.500			
0.7783	49810.55	3.6280	3.6280	1.2048	25.98	0.02	1.500			
0.7819	50041.91	3.6250	3.6250	1.1993	25.97	0.01	1.500			
0.7855	50270.87	3.6220	3.6220	1.1891	25.97	0.01	1.500			
0.7891	50500.60	3.6190	3.6189	1.1720	25.96	0.00	1.500			
0.7925	50723.13	3.6160	3.6160	1.1523	25.95	-0.01	1.500			
0.7960	50943.57	3.6130	3.6131	1.1334	25.95	-0.01	1.500			
0.7994	51159.83	3.6100	3.6100	1.1115	25.94	-0.02	1.500			
0.8027	51371.65	3.6070	3.6070	1.0887	25.94	-0.02	1.500			
0.8059	51576.90	3.6040	3.6040	1.0653	25.94	-0.02	1.500			
0.8091	51779.28	3.6010	3.6010	1.0425	25.95	-0.01	1.500			
0.8122	51978.68	3.5980	3.5980	1.0204	25.95	-0.01	1.500			
0.8152	52172.26	3.5950	3.5950	0.9907	25.95	-0.01	1.500			
0.8182	52362.85	3.5920	3.5920	0.9561	25.95	-0.01	1.500			
0.8211	52547.60	3.5890	3.5889	0.9032	25.96	-0.00	1.500			
0.8238	52720.98	3.5860	3.5860	0.8439	25.96	-0.00	1.500			
0.8262	52879.06	3.5830	3.5830	0.7612	25.96	-0.00	1.500			
0.8284	53020.06	3.5800	3.5800	0.6755	25.96	0.00	1.500			
0.8303	53139.34	3.5770	3.5770	0.5832	25.96	0.00	1.500			
0.8319	53239.82	3.5740	3.5741	0.4939	25.96	0.00	1.500			
0.8332	53322.98	3.5710	3.5709	0.4151	25.97	0.01	1.500			
0.8343	53392.90	3.5680	3.5679	0.3558	25.97	0.01	1.500			
0.8352	53450.61	3.5650	3.5650	0.3014	25.97	0.01	1.500			
0.8360	53501.76	3.5620	3.5620	0.2644	25.97	0.01	1.500			
0.8367	53547.04	3.5590	3.5589	0.2301	25.97	0.01	1.500			
0.8373	53586.97	3.5560	3.5560	0.2062	25.97	0.01	1.500			
0.8379	53623.03	3.5530	3.5529	0.1845	25.97	0.01	1.500			
0.8384	53656.79	3.5500	3.5500	0.1671	25.97	0.01	1.500			
0.8389	53686.86	3.5470	3.5470	0.1517	25.97	0.01	1.500			
0.8393	53713.91	3.5440	3.5440	0.1352	25.97	0.01	1.500			
0.8397	53738.20	3.5410	3.5409	0.1208	25.97	0.01	1.500			
0.8400	53759.60	3.5380	3.5380	0.1052	25.97	0.01	1.500			
0.8403	53778.49	3.5350	3.5351	0.0915	25.97	0.01	1.500			
0.8405	53794.77	3.5320	3.5322	0.0778	25.97	0.01	1.500			
0.8408	53808.91	3.5290	3.5292	0.0637	25.97	0.01	1.500			
0.8409	53819.71	3.5260	3.5265	0.0488	25.97	0.01	1.500			
0.8411	53827.65	3.5230	3.5240	0.0339	25.97	0.01	1.500			
