Ah_balance (normalized)	Ah_balance (mAh)	Voltage - fit (V)	Voltage -  interpolate (V)	dQ/dV (1/V)	Temperature (°C)	Temperature - diff (°C)	Current (C)	R_DC 0ms (mOhm)	R_DC 50ms (mOhm)	R_DC 50 ms PEC (mOhm)
0.2125	13597.33	3.9110	3.9109	-0.1259	25.73	-0.01	-1.500			
0.2129	13624.64	3.9080	3.9080	-0.1575	25.74	-0.00	-1.500			
0.2134	13656.96	3.9050	3.9050	-0.1897	25.74	-0.00	-1.500			
0.2140	13697.03	3.9020	3.9020	-0.2229	25.74	-0.00	-1.500			
0.2147	13743.24	3.8990	3.8989	-0.2550	25.74	-0.00	-1.500			
0.2156	13795.34	3.8960	3.8960	-0.2877	25.74	-0.00	-1.500			
0.2165	13854.04	3.8930	3.8931	-0.3178	25.74	-0.00	-1.500			
0.2175	13918.28	3.8900	3.8900	-0.3478	25.74	-0.00	-1.500			
0.2186	13987.91	3.8870	3.8870	-0.3786	25.74	-0.00	-1.500			
0.2197	14063.06	3.8840	3.8841	-0.4083	25.74	0.00	-1.500			
0.2210	14144.23	3.8810	3.8809	-0.4398	25.74	0.00	-1.500			
0.2224	14231.51	3.8780	3.8780	-0.4706	25.74	0.00	-1.500			
0.2238	14324.94	3.8750	3.8750	-0.5018	25.74	0.00	-1.500			
0.2254	14425.13	3.8720	3.8720	-0.5354	25.75	0.01	-1.500			
0.2271	14531.46	3.8690	3.8690	-0.5605	25.75	0.01	-1.500			
0.2288	14641.74	3.8660	3.8660	-0.5858	25.75	0.01	-1.500			
0.2306	14756.58	3.8630	3.8631	-0.6134	25.75	0.01	-1.500			
0.2325	14876.86	3.8600	3.8599	-0.6383	25.75	0.01	-1.500			
0.2344	15002.65	3.8570	3.8569	-0.6563	25.75	0.01	-1.500			
0.2364	15130.04	3.8540	3.8541	-0.6792	25.75	0.01	-1.500			
0.2385	15262.99	3.8510	3.8511	-0.6968	25.76	0.02	-1.500			
0.2406	15399.70	3.8480	3.8479	-0.7145	25.76	0.02	-1.500			
0.2428	15539.16	3.8450	3.8450	-0.7257	25.76	0.02	-1.500			
0.2450	15679.51	3.8420	3.8420	-0.7361	25.76	0.02	-1.500			
0.2472	15822.41	3.8390	3.8391	-0.7507	25.77	0.03	-1.500			
0.2495	15968.73	3.8360	3.8360	-0.7598	25.77	0.03	-1.500			
0.2518	16114.77	3.8330	3.8329	-0.7613	25.77	0.03	-1.500			
0.2541	16262.76	3.8300	3.8300	-0.7684	25.78	0.04	-1.500			
0.2564	16410.33	3.8270	3.8271	-0.7752	25.78	0.04	-1.500			
0.2587	16559.34	3.8240	3.8240	-0.7833	25.78	0.04	-1.500			
0.2611	16709.96	3.8210	3.8209	-0.7870	25.79	0.05	-1.500			
0.2635	16860.91	3.8180	3.8180	-0.7942	25.79	0.05	-1.500			
0.2659	17016.02	3.8150	3.8150	-0.7993	25.80	0.06	-1.500			
0.2683	17170.98	3.8120	3.8120	-0.8002	25.80	0.06	-1.500			
0.2707	17324.57	3.8090	3.8090	-0.8022	25.80	0.06	-1.500			
0.2731	17477.90	3.8060	3.8060	-0.8028	25.81	0.07	-1.500			
0.2755	17631.90	3.8030	3.8031	-0.8025	25.82	0.08	-1.500			
0.2779	17786.33	3.8000	3.8000	-0.8068	25.83	0.09	-1.500			
0.2803	17941.05	3.7970	3.7969	-0.8082	25.83	0.09	-1.500			
0.2828	18098.08	3.7940	3.7940	-0.8115	25.84	0.10	-1.500			
0.2852	18253.48	3.7910	3.7909	-0.8115	25.85	0.11	-1.500			
0.2876	18407.92	3.7880	3.7880	-0.8168	25.85	0.11	-1.500			
0.2901	18565.40	3.7850	3.7851	-0.8220	25.86	0.12	-1.500			
0.2926	18725.02	3.7820	3.7819	-0.8242	25.87	0.13	-1.500			
0.2951	18884.59	3.7790	3.7790	-0.8237	25.87	0.13	-1.500			
0.2975	19042.71	3.7760	3.7761	-0.8273	25.88	0.14	-1.500			
0.3000	19202.77	3.7730	3.7730	-0.8246	25.89	0.15	-1.500			
0.3025	19358.90	3.7700	3.7699	-0.8190	25.90	0.16	-1.500			
0.3049	19516.53	3.7670	3.7670	-0.8195	25.91	0.17	-1.500			
0.3074	19672.79	3.7640	3.7641	-0.8208	25.92	0.18	-1.500			
0.3099	19830.68	3.7610	3.7610	-0.8244	25.93	0.19	-1.500			
0.3123	19989.69	3.7580	3.7580	-0.8249	25.94	0.20	-1.500			
0.3148	20146.84	3.7550	3.7550	-0.8260	25.95	0.21	-1.500			
0.3173	20307.28	3.7520	3.7520	-0.8323	25.95	0.21	-1.500			
0.3198	20467.37	3.7490	3.7490	-0.8295	25.96	0.22	-1.500			
0.3223	20626.85	3.7460	3.7459	-0.8305	25.97	0.23	-1.500			
0.3248	20786.26	3.7430	3.7430	-0.8277	25.98	0.24	-1.500			
0.3273	20945.21	3.7400	3.7401	-0.8255	25.99	0.25	-1.500			
0.3297	21103.68	3.7370	3.7370	-0.8268	26.00	0.26	-1.500			
0.3322	21260.52	3.7340	3.7341	-0.8267	26.01	0.27	-1.500			
0.3347	21419.41	3.7310	3.7310	-0.8316	26.02	0.28	-1.500			
0.3372	21581.03	3.7280	3.7281	-0.8323	26.03	0.29	-1.500			
0.3397	21740.11	3.7250	3.7250	-0.8321	26.03	0.29	-1.500			
0.3422	21899.80	3.7220	3.7220	-0.8327	26.04	0.30	-1.500			
0.3447	22059.83	3.7190	3.7190	-0.8343	26.05	0.31	-1.500			
0.3472	22219.32	3.7160	3.7160	-0.8337	26.06	0.32	-1.500			
0.3497	22379.02	3.7130	3.7130	-0.8347	26.07	0.33	-1.500			
0.3522	22540.18	3.7100	3.7101	-0.8389	26.08	0.34	-1.500			
0.3547	22702.51	3.7070	3.7070	-0.8449	26.09	0.35	-1.500			
0.3572	22862.71	3.7040	3.7040	-0.8493	26.10	0.36	-1.500			
0.3598	23026.16	3.7010	3.7010	-0.8604	26.11	0.37	-1.500			
0.3624	23192.18	3.6980	3.6979	-0.8647	26.12	0.38	-1.500			
0.3650	23359.81	3.6950	3.6950	-0.8721	26.13	0.39	-1.500			
0.3676	23528.42	3.6920	3.6920	-0.8788	26.14	0.40	-1.500			
0.3703	23697.82	3.6890	3.6890	-0.8836	26.14	0.40	-1.500			
0.3729	23866.83	3.6860	3.6860	-0.8921	26.15	0.41	-1.500			
0.3756	24037.94	3.6830	3.6830	-0.9004	26.16	0.42	-1.500			
0.3783	24209.83	3.6800	3.6800	-0.9185	26.17	0.43	-1.500			
0.3811	24389.04	3.6770	3.6770	-0.9390	26.17	0.43	-1.500			
0.3839	24570.97	3.6740	3.6739	-0.9536	26.18	0.44	-1.500			
0.3868	24756.46	3.6710	3.6711	-0.9682	26.19	0.45	-1.500			
0.3898	24945.51	3.6680	3.6680	-0.9814	26.20	0.46	-1.500			
0.3927	25134.28	3.6650	3.6650	-0.9957	26.21	0.47	-1.500			
0.3957	25326.07	3.6620	3.6620	-1.0127	26.21	0.47	-1.500			
0.3988	25520.17	3.6590	3.6590	-1.0289	26.22	0.48	-1.500			
0.4019	25719.12	3.6560	3.6561	-1.0540	26.23	0.49	-1.500			
0.4051	25923.89	3.6530	3.6530	-1.0805	26.24	0.50	-1.500			
0.4083	26133.78	3.6500	3.6500	-1.1197	26.24	0.50	-1.500			
0.4118	26355.35	3.6470	3.6469	-1.1452	26.25	0.51	-1.500			
0.4153	26578.22	3.6440	3.6440	-1.1666	26.26	0.52	-1.500			
0.4189	26806.74	3.6410	3.6413	-1.1862	26.27	0.53	-1.500			
0.4225	27037.00	3.6380	3.6381	-1.2028	26.28	0.54	-1.500			
0.4260	27266.81	3.6350	3.6349	-1.2217	26.28	0.54	-1.500			
0.4297	27499.54	3.6320	3.6320	-1.2504	26.29	0.55	-1.500			
0.4334	27740.12	3.6290	3.6290	-1.2793	26.29	0.55	-1.500			
0.4373	27989.62	3.6260	3.6261	-1.3164	26.30	0.56	-1.500			
0.4414	28247.49	3.6230	3.6229	-1.3505	26.31	0.57	-1.500			
0.4455	28511.82	3.6200	3.6200	-1.3809	26.31	0.57	-1.500			
0.4497	28778.66	3.6170	3.6171	-1.4154	26.32	0.58	-1.500			
0.4539	29052.75	3.6140	3.6140	-1.4490	26.32	0.58	-1.500			
0.4584	29334.70	3.6110	3.6110	-1.4778	26.33	0.59	-1.500			
0.4629	29623.57	3.6080	3.6080	-1.5155	26.33	0.59	-1.500			
0.4675	29918.99	3.6050	3.6050	-1.5440	26.34	0.60	-1.500			
0.4722	30218.12	3.6020	3.6019	-1.5741	26.34	0.60	-1.500			
0.4769	30522.47	3.5990	3.5990	-1.6110	26.34	0.60	-1.500			
0.4818	30833.85	3.5960	3.5960	-1.6357	26.35	0.61	-1.500			
0.4867	31151.29	3.5930	3.5929	-1.6593	26.35	0.61	-1.500			
0.4918	31476.33	3.5900	3.5900	-1.6889	26.35	0.61	-1.500			
0.4969	31801.40	3.5870	3.5870	-1.7105	26.35	0.61	-1.500			
0.5021	32131.95	3.5840	3.5839	-1.7415	26.36	0.62	-1.500			
0.5073	32465.17	3.5810	3.5811	-1.7678	26.36	0.62	-1.500			
0.5126	32806.25	3.5780	3.5780	-1.7836	26.36	0.62	-1.500			
0.5181	33156.89	3.5750	3.5749	-1.8231	26.37	0.63	-1.500			
0.5236	33510.07	3.5720	3.5721	-1.8467	26.37	0.63	-1.500			
0.5292	33867.11	3.5690	3.5690	-1.8834	26.37	0.63	-1.500			
0.5349	34230.86	3.5660	3.5659	-1.9080	26.38	0.64	-1.500			
0.5406	34597.80	3.5630	3.5630	-1.9374	26.38	0.64	-1.500			
0.5465	34975.74	3.5600	3.5601	-1.9617	26.38	0.64	-1.500			
0.5525	35359.23	3.5570	3.5569	-2.0044	26.39	0.65	-1.500			
0.5587	35754.16	3.5540	3.5539	-2.0215	26.40	0.66	-1.500			
0.5647	36141.54	3.5510	3.5509	-2.0242	26.41	0.67	-1.500			
0.5708	36533.00	3.5480	3.5481	-2.0505	26.42	0.68	-1.500	0.394	0.501	
0.5770	36926.52	3.5450	3.5449	-2.0505	26.43	0.69	-1.500			
0.5831	37318.75	3.5420	3.5419	-2.0488	26.43	0.69	-1.500			
0.5892	37705.71	3.5390	3.5391	-2.0339	26.44	0.70	-1.500			
0.5953	38101.45	3.5360	3.5361	-2.0495	26.44	0.70	-1.500			
0.6017	38506.08	3.5330	3.5329	-2.0549	26.45	0.71	-1.500			
0.6078	38896.06	3.5300	3.5299	-2.0358	26.46	0.72	-1.500			
0.6138	39284.65	3.5270	3.5271	-2.0237	26.47	0.73	-1.500			
0.6199	39674.84	3.5240	3.5241	-2.0191	26.48	0.74	-1.500			
0.6260	40063.09	3.5210	3.5210	-2.0171	26.50	0.76	-1.500			
0.6320	40449.86	3.5180	3.5180	-1.9941	26.51	0.77	-1.500			
0.6380	40834.59	3.5150	3.5149	-1.9710	26.53	0.79	-1.500			
0.6440	41213.75	3.5120	3.5125	-1.9502	26.54	0.80	-1.500			
0.6497	41581.21	3.5090	3.5089	-1.9279	26.55	0.81	-1.500			
0.6554	41948.13	3.5060	3.5060	-1.9043	26.57	0.83	-1.500			
0.6610	42304.71	3.5030	3.5030	-1.8679	26.58	0.84	-1.500			
0.6668	42672.08	3.5000	3.5000	-1.8833	26.59	0.85	-1.500			
0.6724	43032.23	3.4970	3.4969	-1.8675	26.61	0.87	-1.500			
0.6780	43391.74	3.4940	3.4940	-1.8594	26.63	0.89	-1.500			
0.6835	43744.97	3.4910	3.4910	-1.8408	26.65	0.91	-1.500			
0.6890	44095.49	3.4880	3.4880	-1.8266	26.66	0.92	-1.500			
0.6945	44447.40	3.4850	3.4850	-1.8150	26.68	0.94	-1.500			
0.6999	44791.09	3.4820	3.4820	-1.8020	26.70	0.96	-1.500			
0.7053	45140.35	3.4790	3.4789	-1.7797	26.73	0.99	-1.500			
0.7107	45482.09	3.4760	3.4759	-1.7524	26.75	1.01	-1.500			
0.7159	45817.54	3.4730	3.4730	-1.7283	26.77	1.03	-1.500			
0.7210	46145.80	3.4700	3.4700	-1.6927	26.79	1.05	-1.500			
0.7260	46465.86	3.4670	3.4669	-1.6672	26.81	1.07	-1.500			
0.7310	46784.09	3.4640	3.4640	-1.6393	26.82	1.08	-1.500			
0.7358	47092.68	3.4610	3.4610	-1.6086	26.84	1.10	-1.500			
0.7406	47401.09	3.4580	3.4580	-1.5953	26.86	1.12	-1.500			
0.7454	47705.45	3.4550	3.4551	-1.5743	26.88	1.14	-1.500			
0.7501	48004.78	3.4520	3.4519	-1.5525	26.90	1.16	-1.500			
0.7547	48302.95	3.4490	3.4490	-1.5397	26.92	1.18	-1.500			
0.7593	48596.18	3.4460	3.4460	-1.5171	26.94	1.20	-1.500			
0.7639	48888.38	3.4430	3.4429	-1.4995	26.96	1.22	-1.500			
0.7684	49175.10	3.4400	3.4403	-1.4775	26.98	1.24	-1.500			
0.7727	49454.65	3.4370	3.4369	-1.4690	27.00	1.26	-1.500			
0.7771	49732.87	3.4340	3.4340	-1.4594	27.03	1.29	-1.500			
0.7814	50011.84	3.4310	3.4309	-1.4602	27.05	1.31	-1.500			
0.7858	50293.64	3.4280	3.4280	-1.4577	27.07	1.33	-1.500			
0.7903	50579.34	3.4250	3.4248	-1.4547	27.10	1.36	-1.500			
0.7947	50858.83	3.4220	3.4223	-1.4426	27.13	1.39	-1.500			
0.7990	51136.42	3.4190	3.4189	-1.4344	27.16	1.42	-1.500			
0.8033	51409.56	3.4160	3.4159	-1.4093	27.18	1.44	-1.500			
0.8075	51678.09	3.4130	3.4130	-1.3644	27.20	1.46	-1.500			
0.8116	51944.68	3.4100	3.4102	-1.3421	27.22	1.48	-1.500			
0.8156	52199.39	3.4070	3.4070	-1.2990	27.24	1.50	-1.500			
0.8195	52444.82	3.4040	3.4039	-1.2517	27.26	1.52	-1.500			
0.8231	52678.70	3.4010	3.4009	-1.1979	27.28	1.54	-1.500			
0.8266	52900.31	3.3980	3.3980	-1.1557	27.30	1.56	-1.500			
0.8300	53122.97	3.3950	3.3950	-1.1169	27.32	1.58	-1.500			
0.8333	53333.70	3.3920	3.3919	-1.0741	27.34	1.60	-1.500			
0.8365	53535.21	3.3890	3.3893	-1.0231	27.36	1.62	-1.500			
0.8395	53726.49	3.3860	3.3859	-0.9781	27.38	1.64	-1.500			
0.8423	53909.02	3.3830	3.3831	-0.9376	27.39	1.65	-1.500			
0.8450	54083.15	3.3800	3.3800	-0.8961	27.41	1.67	-1.500			
0.8477	54251.87	3.3770	3.3770	-0.8636	27.42	1.68	-1.500			
0.8502	54413.92	3.3740	3.3739	-0.8282	27.43	1.69	-1.500			
0.8526	54567.31	3.3710	3.3711	-0.7977	27.45	1.71	-1.500			
0.8550	54718.07	3.3680	3.3680	-0.7765	27.46	1.72	-1.500			
0.8572	54863.34	3.3650	3.3650	-0.7486	27.47	1.73	-1.500			
0.8595	55005.18	3.3620	3.3619	-0.7254	27.49	1.75	-1.500			
0.8616	55142.27	3.3590	3.3591	-0.7033	27.50	1.76	-1.500			
0.8637	55275.89	3.3560	3.3560	-0.6779	27.51	1.77	-1.500			
0.8657	55403.58	3.3530	3.3529	-0.6555	27.52	1.78	-1.500			
0.8676	55526.12	3.3500	3.3500	-0.6309	27.52	1.78	-1.500			
0.8694	55642.85	3.3470	3.3470	-0.6080	27.53	1.79	-1.500			
0.8712	55758.05	3.3440	3.3440	-0.5946	27.54	1.80	-1.500			
0.8730	55870.76	3.3410	3.3411	-0.5764	27.55	1.81	-1.500			
0.8747	55979.87	3.3380	3.3379	-0.5596	27.56	1.82	-1.500			
0.8764	56086.90	3.3350	3.3350	-0.5425	27.57	1.83	-1.500			
0.8779	56188.47	3.3320	3.3320	-0.5225	27.58	1.84	-1.500			
0.8795	56287.51	3.3290	3.3290	-0.5068	27.59	1.85	-1.500			
0.8810	56382.66	3.3260	3.3260	-0.4925	27.60	1.86	-1.500			
0.8824	56474.18	3.3230	3.3229	-0.4744	27.61	1.87	-1.500			
0.8838	56564.75	3.3200	3.3200	-0.4619	27.62	1.88	-1.500			
0.8852	56652.46	3.3170	3.3170	-0.4462	27.63	1.89	-1.500			
0.8865	56736.80	3.3140	3.3140	-0.4305	27.63	1.89	-1.500			
0.8878	56817.79	3.3110	3.3110	-0.4160	27.64	1.90	-1.500			
0.8890	56896.03	3.3080	3.3080	-0.3998	27.65	1.91	-1.500			
0.8902	56970.57	3.3050	3.3050	-0.3850	27.65	1.91	-1.500			
0.8913	57043.30	3.3020	3.3020	-0.3731	27.66	1.92	-1.500			
0.8924	57113.21	3.2990	3.2990	-0.3614	27.66	1.92	-1.500			
0.8935	57181.89	3.2960	3.2960	-0.3520	27.67	1.93	-1.500			
0.8945	57248.42	3.2930	3.2930	-0.3395	27.67	1.93	-1.500			
0.8955	57312.26	3.2900	3.2900	-0.3288	27.68	1.94	-1.500			
0.8965	57375.00	3.2870	3.2871	-0.3197	27.69	1.95	-1.500			
0.8974	57435.00	3.2840	3.2839	-0.3076	27.70	1.96	-1.500			
0.8983	57493.12	3.2810	3.2809	-0.2970	27.70	1.96	-1.500			
0.8992	57548.66	3.2780	3.2781	-0.2872	27.71	1.97	-1.500			
0.9000	57602.80	3.2750	3.2750	-0.2780	27.71	1.97	-1.500			
0.9009	57655.83	3.2720	3.2719	-0.2698	27.72	1.98	-1.500			
0.9017	57706.29	3.2690	3.2691	-0.2601	27.73	1.99	-1.500			
0.9024	57755.11	3.2660	3.2660	-0.2518	27.73	1.99	-1.500			
0.9032	57802.76	3.2630	3.2630	-0.2446	27.74	2.00	-1.500			
0.9039	57848.81	3.2600	3.2600	-0.2365	27.74	2.00	-1.500			
0.9046	57892.98	3.2570	3.2569	-0.2299	27.75	2.01	-1.500			
0.9053	57936.58	3.2540	3.2540	-0.2241	27.75	2.01	-1.500			
0.9059	57978.97	3.2510	3.2510	-0.2179	27.76	2.02	-1.500			
0.9066	58020.14	3.2480	3.2480	-0.2126	27.76	2.02	-1.500			
0.9072	58060.49	3.2450	3.2450	-0.2073	27.77	2.03	-1.500			
0.9078	58099.72	3.2420	3.2420	-0.2020	27.77	2.03	-1.500			
0.9084	58138.20	3.2390	3.2390	-0.1962	27.78	2.04	-1.500			
0.9090	58174.96	3.2360	3.2360	-0.1915	27.78	2.04	-1.500			
0.9095	58211.01	3.2330	3.2330	-0.1864	27.78	2.04	-1.500			
0.9101	58246.30	3.2300	3.2300	-0.1819	27.79	2.05	-1.500			
0.9106	58280.68	3.2270	3.2271	-0.1777	27.79	2.05	-1.500			
0.9112	58314.09	3.2240	3.2239	-0.1733	27.80	2.06	-1.500			
0.9117	58347.23	3.2210	3.2211	-0.1688	27.80	2.06	-1.500			
0.9122	58379.18	3.2180	3.2180	-0.1658	27.80	2.06	-1.500			
0.9127	58410.87	3.2150	3.2152	-0.1626	27.81	2.07	-1.500			
0.9132	58441.71	3.2120	3.2118	-0.1586	27.81	2.07	-1.500			
0.9136	58471.33	3.2090	3.2089	-0.1550	27.81	2.07	-1.500			
0.9141	58500.71	3.2060	3.2061	-0.1526	27.82	2.08	-1.500			
0.9145	58529.77	3.2030	3.2029	-0.1496	27.82	2.08	-1.500			
0.9150	58558.25	3.2000	3.2000	-0.1470	27.82	2.08	-1.500			
0.9154	58586.39	3.1970	3.1969	-0.1448	27.83	2.09	-1.500			
0.9158	58613.70	3.1940	3.1940	-0.1416	27.83	2.09	-1.500			
0.9163	58640.88	3.1910	3.1909	-0.1395	27.83	2.09	-1.500			
0.9167	58667.33	3.1880	3.1881	-0.1374	27.83	2.09	-1.500			
0.9171	58693.42	3.1850	3.1849	-0.1350	27.84	2.10	-1.500			
0.9175	58718.92	3.1820	3.1821	-0.1325	27.84	2.10	-1.500			
0.9179	58744.29	3.1790	3.1787	-0.1307	27.84	2.10	-1.500			
0.9183	58769.18	3.1760	3.1760	-0.1285	27.85	2.11	-1.500			
0.9186	58793.45	3.1730	3.1732	-0.1268	27.85	2.11	-1.500			
0.9190	58817.67	3.1700	3.1699	-0.1252	27.85	2.11	-1.500			
0.9194	58841.46	3.1670	3.1670	-0.1240	27.86	2.12	-1.500			
0.9198	58864.86	3.1640	3.1640	-0.1224	27.86	2.12	-1.500			
0.9201	58888.44	3.1610	3.1610	-0.1205	27.86	2.12	-1.500			
0.9205	58911.57	3.1580	3.1580	-0.1191	27.87	2.13	-1.500			
0.9209	58934.42	3.1550	3.1552	-0.1178	27.87	2.13	-1.500			
0.9212	58956.84	3.1520	3.1520	-0.1158	27.88	2.14	-1.500			
0.9215	58978.63	3.1490	3.1490	-0.1144	27.88	2.14	-1.500			
0.9219	59000.47	3.1460	3.1460	-0.1131	27.88	2.14	-1.500			
0.9222	59021.87	3.1430	3.1430	-0.1114	27.89	2.15	-1.500			
0.9225	59043.17	3.1400	3.1400	-0.1105	27.89	2.15	-1.500			
0.9229	59064.60	3.1370	3.1370	-0.1094	27.89	2.15	-1.500			
0.9232	59085.44	3.1340	3.1340	-0.1077	27.90	2.16	-1.500			
0.9235	59105.76	3.1310	3.1309	-0.1069	27.90	2.16	-1.500			
0.9238	59126.19	3.1280	3.1281	-0.1059	27.90	2.16	-1.500			
0.9242	59146.23	3.1250	3.1249	-0.1045	27.91	2.17	-1.500			
0.9245	59166.24	3.1220	3.1220	-0.1039	27.91	2.17	-1.500			
0.9248	59186.24	3.1190	3.1191	-0.1027	27.91	2.17	-1.500			
0.9251	59205.95	3.1160	3.1161	-0.1018	27.92	2.18	-1.500			
0.9254	59225.33	3.1130	3.1131	-0.1011	27.92	2.18	-1.500			
0.9257	59244.84	3.1100	3.1100	-0.1003	27.92	2.18	-1.500			
0.9260	59263.91	3.1070	3.1070	-0.0996	27.93	2.19	-1.500			
0.9263	59282.63	3.1040	3.1039	-0.0985	27.93	2.19	-1.500			
0.9266	59301.55	3.1010	3.1011	-0.0979	27.93	2.19	-1.500			
0.9269	59320.28	3.0980	3.0980	-0.0973	27.94	2.20	-1.500			
0.9272	59338.99	3.0950	3.0949	-0.0965	27.94	2.20	-1.500			
0.9275	59357.66	3.0920	3.0920	-0.0959	27.94	2.20	-1.500			
0.9277	59375.94	3.0890	3.0888	-0.0950	27.95	2.21	-1.500			
0.9280	59394.04	3.0860	3.0861	-0.0940	27.95	2.21	-1.500			
0.9283	59411.94	3.0830	3.0829	-0.0933	27.95	2.21	-1.500			
0.9286	59429.73	3.0800	3.0800	-0.0925	27.96	2.22	-1.500			
0.9289	59447.36	3.0770	3.0772	-0.0920	27.96	2.22	-1.500			
0.9291	59464.86	3.0740	3.0739	-0.0914	27.97	2.23	-1.500			
0.9294	59482.42	3.0710	3.0710	-0.0908	27.97	2.23	-1.500			
0.9297	59499.83	3.0680	3.0681	-0.0903	27.97	2.23	-1.500			
0.9300	59517.05	3.0650	3.0651	-0.0899	27.98	2.24	-1.500			
0.9302	59534.28	3.0620	3.0619	-0.0895	27.98	2.24	-1.500			
0.9305	59551.55	3.0590	3.0589	-0.0887	27.98	2.24	-1.500			
0.9308	59568.57	3.0560	3.0560	-0.0881	27.99	2.25	-1.500			
0.9310	59585.41	3.0530	3.0530	-0.0873	27.99	2.25	-1.500			
0.9313	59602.10	3.0500	3.0500	-0.0866	28.00	2.26	-1.500			
0.9315	59618.66	3.0470	3.0471	-0.0859	28.00	2.26	-1.500			
0.9318	59635.01	3.0440	3.0440	-0.0855	28.00	2.26	-1.500			
0.9321	59651.38	3.0410	3.0409	-0.0850	28.01	2.27	-1.500			
0.9323	59667.42	3.0380	3.0381	-0.0843	28.01	2.27	-1.500			
0.9326	59683.59	3.0350	3.0349	-0.0841	28.01	2.27	-1.500			
0.9328	59699.80	3.0320	3.0321	-0.0841	28.02	2.28	-1.500			
0.9331	59716.09	3.0290	3.0290	-0.0832	28.02	2.28	-1.500			
0.9333	59731.99	3.0260	3.0259	-0.0825	28.02	2.28	-1.500			
0.9336	59747.58	3.0230	3.0232	-0.0826	28.03	2.29	-1.500			
0.9338	59763.41	3.0200	3.0201	-0.0823	28.03	2.29	-1.500			
0.9340	59778.96	3.0170	3.0170	-0.0820	28.03	2.29	-1.500			
0.9343	59794.76	3.0140	3.0138	-0.0817	28.04	2.30	-1.500			
0.9345	59810.43	3.0110	3.0109	-0.0816	28.04	2.30	-1.500			
0.9348	59825.86	3.0080	3.0082	-0.0819	28.05	2.31	-1.500			
0.9350	59841.62	3.0050	3.0051	-0.0823	28.05	2.31	-1.498			
0.9353	59857.18	3.0020	3.0020	-0.0772	28.05	2.31	-1.501			
