Ah_balance (normalized)	Ah_balance (mAh)	Voltage - fit (V)	Voltage -  interpolate (V)	dQ/dV (1/V)	Temperature (°C)	Temperature - diff (°C)	Current (C)	R_DC 0ms (mOhm)	R_DC 50ms (mOhm)	R_DC 50 ms PEC (mOhm)
0.2840	18176.26	3.9870	3.9870	0.8628	27.08	1.14	1.500			
0.2865	18338.80	3.9840	3.9840	0.8426	27.08	1.14	1.500			
0.2890	18498.31	3.9810	3.9810	0.8373	27.07	1.13	1.500			
0.2915	18658.30	3.9780	3.9780	0.8398	27.07	1.13	1.500			
0.2940	18818.17	3.9750	3.9750	0.8442	27.06	1.12	1.500			
0.2966	18980.17	3.9720	3.9720	0.8497	27.06	1.12	1.500			
0.2991	19145.12	3.9690	3.9690	0.8583	27.05	1.11	1.500			
0.3017	19310.93	3.9660	3.9660	0.8656	27.05	1.11	1.500			
0.3044	19478.67	3.9630	3.9630	0.8673	27.04	1.10	1.500			
0.3070	19645.37	3.9600	3.9600	0.8692	27.04	1.10	1.500			
0.3096	19812.86	3.9570	3.9570	0.8720	27.03	1.09	1.500			
0.3122	19981.48	3.9540	3.9540	0.8698	27.03	1.09	1.500			
0.3148	20146.85	3.9510	3.9510	0.8755	27.02	1.08	1.500			
0.3174	20314.65	3.9480	3.9480	0.8805	27.02	1.08	1.500			
0.3201	20483.82	3.9450	3.9450	0.8838	27.01	1.07	1.500			
0.3227	20654.54	3.9420	3.9420	0.8916	27.01	1.07	1.500			
0.3254	20826.42	3.9390	3.9391	0.8957	27.00	1.06	1.500			
0.3281	20999.05	3.9360	3.9360	0.9021	27.00	1.06	1.500			
0.3308	21173.79	3.9330	3.9330	0.9096	26.99	1.05	1.500			
0.3335	21346.48	3.9300	3.9300	0.9080	26.99	1.05	1.500			
0.3363	21523.50	3.9270	3.9269	0.9109	26.98	1.04	1.500			
0.3390	21698.87	3.9240	3.9240	0.9180	26.97	1.03	1.500			
0.3418	21874.78	3.9210	3.9210	0.9196	26.97	1.03	1.500			
0.3445	22051.14	3.9180	3.9181	0.9271	26.96	1.02	1.500			
0.3473	22229.05	3.9150	3.9149	0.9326	26.96	1.02	1.500			
0.3501	22408.75	3.9120	3.9120	0.9390	26.95	1.01	1.500			
0.3530	22590.19	3.9090	3.9090	0.9496	26.94	1.00	1.500			
0.3558	22772.99	3.9060	3.9060	0.9569	26.94	1.00	1.500			
0.3587	22957.68	3.9030	3.9030	0.9629	26.93	0.99	1.500			
0.3616	23144.15	3.9000	3.8999	0.9701	26.92	0.98	1.500			
0.3645	23330.58	3.8970	3.8969	0.9748	26.92	0.98	1.500			
0.3675	23518.78	3.8940	3.8941	0.9815	26.91	0.97	1.500			
0.3704	23707.01	3.8910	3.8910	0.9928	26.90	0.96	1.500			
0.3734	23897.86	3.8880	3.8880	1.0021	26.89	0.95	1.500			
0.3764	24092.13	3.8850	3.8849	1.0134	26.89	0.95	1.500			
0.3795	24287.36	3.8820	3.8821	1.0239	26.88	0.94	1.500			
0.3826	24483.92	3.8790	3.8790	1.0383	26.87	0.93	1.500			
0.3857	24685.46	3.8760	3.8760	1.0491	26.87	0.93	1.500			
0.3889	24887.65	3.8730	3.8730	1.0583	26.86	0.92	1.500			
0.3921	25091.69	3.8700	3.8699	1.0655	26.85	0.91	1.500			
0.3953	25297.26	3.8670	3.8670	1.0792	26.84	0.90	1.500			
0.3985	25504.95	3.8640	3.8640	1.0939	26.83	0.89	1.500			
0.4018	25715.91	3.8610	3.8610	1.1074	26.83	0.89	1.500			
0.4051	25929.31	3.8580	3.8579	1.1220	26.82	0.88	1.500			
0.4085	26146.66	3.8550	3.8550	1.1384	26.81	0.87	1.500			
0.4120	26366.45	3.8520	3.8521	1.1579	26.80	0.86	1.500			
0.4155	26590.56	3.8490	3.8490	1.1762	26.79	0.85	1.500			
0.4190	26817.77	3.8460	3.8460	1.1900	26.79	0.85	1.500			
0.4226	27047.91	3.8430	3.8430	1.2097	26.78	0.84	1.500			
0.4263	27281.08	3.8400	3.8400	1.2320	26.77	0.83	1.500			
0.4300	27520.17	3.8370	3.8370	1.2512	26.76	0.82	1.500			
0.4338	27762.44	3.8340	3.8339	1.2675	26.74	0.80	1.500			
0.4376	28005.66	3.8310	3.8310	1.2871	26.73	0.79	1.500			
0.4415	28254.49	3.8280	3.8281	1.3134	26.72	0.78	1.500			
0.4455	28509.34	3.8250	3.8249	1.3382	26.71	0.77	1.500			
0.4495	28768.13	3.8220	3.8220	1.3625	26.70	0.76	1.500			
0.4536	29032.09	3.8190	3.8190	1.3919	26.69	0.75	1.500			
0.4579	29302.84	3.8160	3.8160	1.4260	26.68	0.74	1.500			
0.4622	29578.40	3.8130	3.8131	1.4502	26.67	0.73	1.500			
0.4666	29860.38	3.8100	3.8100	1.4748	26.65	0.71	1.500			
0.4710	30146.89	3.8070	3.8068	1.5018	26.64	0.70	1.500			
0.4756	30438.22	3.8040	3.8041	1.5278	26.63	0.69	1.500			
0.4802	30735.47	3.8010	3.8009	1.5522	26.61	0.67	1.500			
0.4849	31033.82	3.7980	3.7980	1.5776	26.60	0.66	1.500			
0.4896	31336.30	3.7950	3.7950	1.6111	26.58	0.64	1.500			
0.4945	31650.33	3.7920	3.7920	1.6521	26.57	0.63	1.500			
0.4996	31972.05	3.7890	3.7890	1.6787	26.55	0.61	1.500			
0.5047	32300.17	3.7860	3.7860	1.6985	26.53	0.59	1.500			
0.5098	32628.43	3.7830	3.7831	1.7287	26.52	0.58	1.500			
0.5150	32961.27	3.7800	3.7800	1.7514	26.50	0.56	1.500			
0.5203	33299.89	3.7770	3.7770	1.7722	26.48	0.54	1.500	0.350	0.472	
0.5257	33642.95	3.7740	3.7740	1.7854	26.47	0.53	1.500			
0.5311	33992.07	3.7710	3.7710	1.7921	26.46	0.52	1.500			
0.5364	34332.61	3.7680	3.7680	1.7699	26.44	0.50	1.500			
0.5417	34671.61	3.7650	3.7650	1.7748	26.43	0.49	1.500			
0.5471	35014.41	3.7620	3.7620	1.7746	26.42	0.48	1.500			
0.5525	35356.83	3.7590	3.7590	1.7750	26.40	0.46	1.500			
0.5577	35695.31	3.7560	3.7561	1.7747	26.39	0.45	1.500			
0.5630	36033.40	3.7530	3.7530	1.7716	26.38	0.44	1.500			
0.5684	36375.29	3.7500	3.7499	1.7866	26.37	0.43	1.500			
0.5737	36717.19	3.7470	3.7471	1.8064	26.35	0.41	1.500			
0.5792	37067.98	3.7440	3.7440	1.8329	26.34	0.40	1.500			
0.5847	37421.21	3.7410	3.7410	1.8628	26.33	0.39	1.500			
0.5903	37780.20	3.7380	3.7380	1.8815	26.31	0.37	1.500			
0.5960	38144.00	3.7350	3.7349	1.9348	26.30	0.36	1.500			
0.6019	38519.92	3.7320	3.7320	1.9855	26.29	0.35	1.500			
0.6079	38903.61	3.7290	3.7290	2.0415	26.27	0.33	1.500			
0.6141	39300.26	3.7260	3.7260	2.0941	26.26	0.32	1.500			
0.6205	39712.90	3.7230	3.7229	2.1582	26.24	0.30	1.500			
0.6271	40131.20	3.7200	3.7200	2.2142	26.23	0.29	1.500			
0.6338	40562.30	3.7170	3.7170	2.2730	26.21	0.27	1.500			
0.6407	41002.67	3.7140	3.7141	2.3310	26.20	0.26	1.500			
0.6478	41457.94	3.7110	3.7110	2.3995	26.19	0.25	1.500			
0.6551	41926.54	3.7080	3.7080	2.4215	26.18	0.24	1.500			
0.6624	42396.79	3.7050	3.7050	2.4140	26.16	0.22	1.500			
0.6698	42864.44	3.7020	3.7020	2.3577	26.15	0.21	1.500			
0.6767	43311.74	3.6990	3.6990	2.2297	26.14	0.20	1.500			
0.6833	43731.81	3.6960	3.6960	2.0581	26.13	0.19	1.500			
0.6891	44103.08	3.6930	3.6931	1.9074	26.11	0.17	1.500			
0.6945	44449.03	3.6900	3.6899	1.7572	26.10	0.16	1.500			
0.6995	44770.42	3.6870	3.6870	1.6549	26.10	0.16	1.500			
0.7043	45076.79	3.6840	3.6841	1.5575	26.09	0.15	1.500			
0.7088	45365.07	3.6810	3.6810	1.4814	26.08	0.14	1.500			
0.7131	45635.39	3.6780	3.6781	1.4117	26.08	0.14	1.500			
0.7172	45898.89	3.6750	3.6749	1.3650	26.07	0.13	1.500			
0.7211	46153.56	3.6720	3.6719	1.3218	26.07	0.13	1.500			
0.7250	46400.49	3.6690	3.6690	1.2901	26.06	0.12	1.500			
0.7288	46644.49	3.6660	3.6661	1.2803	26.05	0.11	1.500			
0.7326	46889.16	3.6630	3.6630	1.2663	26.05	0.11	1.500			
0.7364	47128.39	3.6600	3.6599	1.2569	26.04	0.10	1.500			
0.7401	47367.70	3.6570	3.6571	1.2598	26.03	0.09	1.500			
0.7439	47609.22	3.6540	3.6541	1.2661	26.02	0.08	1.500			
0.7477	47854.32	3.6510	3.6509	1.2767	26.02	0.08	1.500			
0.7516	48099.65	3.6480	3.6480	1.2766	26.01	0.07	1.500			
0.7554	48345.68	3.6450	3.6450	1.2781	26.01	0.07	1.500			
0.7593	48596.77	3.6420	3.6420	1.2771	26.00	0.06	1.500			
0.7631	48840.76	3.6390	3.6390	1.2616	25.99	0.05	1.500			
0.7669	49080.43	3.6360	3.6360	1.2522	25.99	0.05	1.500			
0.7706	49318.98	3.6330	3.6330	1.2462	25.98	0.04	1.500			
0.7743	49555.50	3.6300	3.6299	1.2371	25.98	0.04	1.500			
0.7780	49792.98	3.6270	3.6270	1.2326	25.97	0.03	1.500			
0.7817	50030.23	3.6240	3.6240	1.2295	25.97	0.03	1.500			
0.7854	50268.07	3.6210	3.6210	1.2227	25.96	0.02	1.500			
0.7891	50502.95	3.6180	3.6180	1.2133	25.96	0.02	1.500			
0.7927	50734.83	3.6150	3.6150	1.1933	25.95	0.01	1.500			
0.7963	50962.55	3.6120	3.6120	1.1776	25.95	0.01	1.500			
0.7998	51187.60	3.6090	3.6090	1.1626	25.95	0.01	1.500			
0.8033	51409.13	3.6060	3.6060	1.1425	25.95	0.01	1.500			
0.8067	51625.70	3.6030	3.6030	1.1212	25.95	0.01	1.500			
0.8100	51840.17	3.6000	3.6001	1.1018	25.94	0.00	1.500			
0.8133	52049.50	3.5970	3.5970	1.0819	25.94	0.00	1.500			
0.8165	52256.08	3.5940	3.5939	1.0639	25.94	0.00	1.500			
0.8197	52458.42	3.5910	3.5910	1.0355	25.94	0.00	1.500			
0.8228	52658.67	3.5880	3.5879	0.9963	25.94	-0.00	1.500			
0.8258	52852.61	3.5850	3.5850	0.9519	25.94	-0.00	1.500			
0.8287	53035.74	3.5820	3.5820	0.8729	25.94	-0.00	1.500			
0.8313	53201.58	3.5790	3.5790	0.7891	25.94	-0.00	1.500			
0.8335	53343.83	3.5760	3.5760	0.6865	25.94	-0.00	1.500			
0.8354	53464.23	3.5730	3.5730	0.5850	25.93	-0.01	1.500			
0.8369	53560.99	3.5700	3.5700	0.4931	25.93	-0.01	1.500			
0.8382	53641.97	3.5670	3.5671	0.4162	25.93	-0.01	1.500			
0.8392	53711.73	3.5640	3.5640	0.3453	25.93	-0.01	1.500			
0.8402	53770.54	3.5610	3.5609	0.2991	25.93	-0.01	1.500			
0.8409	53819.19	3.5580	3.5580	0.2573	25.93	-0.01	1.500			
0.8416	53863.95	3.5550	3.5549	0.2296	25.93	-0.01	1.500			
0.8422	53903.35	3.5520	3.5521	0.2020	25.93	-0.01	1.500			
0.8428	53939.77	3.5490	3.5489	0.1834	25.93	-0.01	1.500			
0.8433	53971.98	3.5460	3.5460	0.1650	25.93	-0.01	1.500			
0.8438	54001.66	3.5430	3.5431	0.1480	25.93	-0.01	1.500			
0.8442	54028.61	3.5400	3.5400	0.1333	25.93	-0.01	1.500			
0.8446	54052.72	3.5370	3.5369	0.1185	25.93	-0.01	1.500			
0.8449	54073.90	3.5340	3.5341	0.1036	25.93	-0.01	1.500			
0.8452	54092.53	3.5310	3.5311	0.0895	25.93	-0.01	1.500			
0.8454	54108.32	3.5280	3.5282	0.0750	25.93	-0.01	1.500			
0.8457	54121.91	3.5250	3.5252	0.0600	25.93	-0.01	1.500			
0.8458	54131.92	3.5220	3.5225	0.0443	25.93	-0.01	1.500			
0.8459	54138.93	3.5190	3.5201	0.0286	25.93	-0.01	1.500			
