Ah_balance (normalized)	Ah_balance (mAh)	Voltage - fit (V)	Voltage -  interpolate (V)	dQ/dV (1/V)	Temperature (°C)	Temperature - diff (°C)	Current (C)	R_DC 0ms (mOhm)	R_DC 50ms (mOhm)	R_DC 50 ms PEC (mOhm)
0.2694	17239.78	3.9920	3.9920	0.8341	27.56	1.58	1.500			
0.2719	17399.70	3.9890	3.9890	0.8345	27.55	1.57	1.500			
0.2744	17560.94	3.9860	3.9860	0.8404	27.54	1.56	1.500			
0.2769	17723.88	3.9830	3.9830	0.8407	27.53	1.55	1.500			
0.2795	17885.76	3.9800	3.9800	0.8465	27.53	1.55	1.500			
0.2820	18046.88	3.9770	3.9770	0.8487	27.52	1.54	1.500			
0.2845	18209.42	3.9740	3.9740	0.8521	27.51	1.53	1.500			
0.2871	18375.23	3.9710	3.9710	0.8547	27.51	1.53	1.500			
0.2897	18539.17	3.9680	3.9681	0.8562	27.50	1.52	1.500			
0.2923	18704.03	3.9650	3.9650	0.8621	27.49	1.51	1.500			
0.2948	18870.19	3.9620	3.9620	0.8691	27.48	1.50	1.500			
0.2974	19035.74	3.9590	3.9589	0.8702	27.48	1.50	1.500			
0.3001	19203.42	3.9560	3.9561	0.8778	27.47	1.49	1.500			
0.3027	19373.80	3.9530	3.9530	0.8822	27.46	1.48	1.500			
0.3054	19544.34	3.9500	3.9501	0.8852	27.45	1.47	1.500			
0.3080	19714.43	3.9470	3.9470	0.8858	27.45	1.47	1.500			
0.3107	19884.24	3.9440	3.9439	0.8882	27.44	1.46	1.500			
0.3133	20054.36	3.9410	3.9409	0.8906	27.43	1.45	1.500			
0.3160	20225.22	3.9380	3.9381	0.9009	27.43	1.45	1.500			
0.3187	20398.67	3.9350	3.9351	0.9082	27.42	1.44	1.500			
0.3215	20573.59	3.9320	3.9319	0.9154	27.41	1.43	1.500			
0.3242	20751.91	3.9290	3.9290	0.9243	27.40	1.42	1.500			
0.3270	20930.24	3.9260	3.9260	0.9292	27.39	1.41	1.500			
0.3298	21109.42	3.9230	3.9230	0.9325	27.39	1.41	1.500			
0.3326	21288.99	3.9200	3.9200	0.9398	27.38	1.40	1.500			
0.3355	21468.87	3.9170	3.9169	0.9454	27.37	1.39	1.500			
0.3383	21651.31	3.9140	3.9140	0.9507	27.36	1.38	1.500			
0.3412	21834.28	3.9110	3.9111	0.9560	27.35	1.37	1.500			
0.3441	22019.49	3.9080	3.9080	0.9619	27.34	1.36	1.500			
0.3469	22204.47	3.9050	3.9050	0.9657	27.33	1.35	1.500			
0.3498	22389.43	3.9020	3.9020	0.9752	27.32	1.34	1.500			
0.3527	22575.87	3.8990	3.8989	0.9856	27.32	1.34	1.500			
0.3557	22767.29	3.8960	3.8960	0.9881	27.31	1.33	1.500			
0.3587	22958.47	3.8930	3.8931	0.9941	27.30	1.32	1.500			
0.3617	23150.21	3.8900	3.8901	1.0040	27.29	1.31	1.500			
0.3647	23343.81	3.8870	3.8869	1.0098	27.28	1.30	1.500			
0.3678	23536.30	3.8840	3.8839	1.0192	27.27	1.29	1.500			
0.3708	23731.39	3.8810	3.8810	1.0316	27.26	1.28	1.500			
0.3739	23932.22	3.8780	3.8780	1.0428	27.25	1.27	1.500			
0.3771	24135.82	3.8750	3.8750	1.0580	27.24	1.26	1.500			
0.3803	24340.12	3.8720	3.8720	1.0675	27.23	1.25	1.500			
0.3835	24545.46	3.8690	3.8691	1.0763	27.23	1.25	1.500			
0.3868	24752.72	3.8660	3.8660	1.0890	27.22	1.24	1.500			
0.3900	24961.07	3.8630	3.8629	1.1033	27.20	1.22	1.500			
0.3933	25172.97	3.8600	3.8600	1.1199	27.19	1.21	1.500			
0.3967	25390.89	3.8570	3.8570	1.1362	27.18	1.20	1.500			
0.4002	25611.34	3.8540	3.8540	1.1510	27.17	1.19	1.500			
0.4037	25836.42	3.8510	3.8510	1.1663	27.16	1.18	1.500			
0.4072	26061.41	3.8480	3.8480	1.1797	27.14	1.16	1.500			
0.4107	26287.10	3.8450	3.8449	1.1943	27.13	1.15	1.500			
0.4144	26518.69	3.8420	3.8420	1.2046	27.12	1.14	1.500			
0.4180	26750.51	3.8390	3.8390	1.2167	27.10	1.12	1.500			
0.4217	26986.23	3.8360	3.8361	1.2345	27.09	1.11	1.500			
0.4254	27223.88	3.8330	3.8330	1.2592	27.08	1.10	1.500			
0.4292	27465.75	3.8300	3.8299	1.2823	27.06	1.08	1.500			
0.4330	27713.42	3.8270	3.8271	1.3074	27.05	1.07	1.500			
0.4370	27965.83	3.8240	3.8240	1.3309	27.04	1.06	1.500			
0.4410	28226.24	3.8210	3.8210	1.3599	27.02	1.04	1.500			
0.4452	28493.23	3.8180	3.8180	1.3755	27.01	1.03	1.500			
0.4494	28759.44	3.8150	3.8149	1.3971	26.99	1.01	1.500			
0.4535	29025.25	3.8120	3.8121	1.4139	26.97	0.99	1.500			
0.4578	29298.23	3.8090	3.8091	1.4420	26.95	0.97	1.500			
0.4622	29578.02	3.8060	3.8060	1.4688	26.93	0.95	1.500			
0.4666	29862.04	3.8030	3.8030	1.4892	26.92	0.94	1.500			
0.4712	30154.99	3.8000	3.8000	1.5029	26.90	0.92	1.500			
0.4757	30444.88	3.7970	3.7970	1.5370	26.89	0.91	1.500			
0.4803	30740.71	3.7940	3.7941	1.5689	26.87	0.89	1.500			
0.4850	31041.92	3.7910	3.7908	1.6021	26.85	0.87	1.500			
0.4899	31354.82	3.7880	3.7881	1.6413	26.83	0.85	1.500			
0.4950	31677.43	3.7850	3.7850	1.6682	26.82	0.84	1.500	0.344	0.478	
0.5001	32006.52	3.7820	3.7820	1.6931	26.80	0.82	1.500			
0.5051	32326.51	3.7790	3.7791	1.6839	26.78	0.80	1.500			
0.5102	32652.14	3.7760	3.7759	1.6941	26.76	0.78	1.500			
0.5152	32974.49	3.7730	3.7731	1.7046	26.74	0.76	1.500			
0.5204	33305.41	3.7700	3.7700	1.7060	26.72	0.74	1.500			
0.5255	33634.71	3.7670	3.7670	1.7144	26.71	0.73	1.500			
0.5307	33962.64	3.7640	3.7640	1.7205	26.69	0.71	1.500			
0.5358	34293.68	3.7610	3.7609	1.7283	26.67	0.69	1.500			
0.5410	34624.18	3.7580	3.7580	1.7417	26.65	0.67	1.500			
0.5463	34963.68	3.7550	3.7550	1.7541	26.63	0.65	1.500			
0.5516	35300.39	3.7520	3.7520	1.7818	26.61	0.63	1.500			
0.5569	35642.73	3.7490	3.7490	1.8037	26.59	0.61	1.500			
0.5624	35990.95	3.7460	3.7461	1.8305	26.57	0.59	1.500			
0.5679	36346.01	3.7430	3.7430	1.8561	26.56	0.58	1.500			
0.5735	36705.31	3.7400	3.7400	1.8917	26.54	0.56	1.500			
0.5792	37066.64	3.7370	3.7370	1.9204	26.52	0.54	1.500			
0.5850	37440.54	3.7340	3.7339	1.9808	26.50	0.52	1.500			
0.5910	37826.44	3.7310	3.7310	2.0444	26.48	0.50	1.500			
0.5973	38227.86	3.7280	3.7280	2.0779	26.46	0.48	1.500			
0.6036	38631.44	3.7250	3.7251	2.1312	26.44	0.46	1.500			
0.6100	39039.24	3.7220	3.7219	2.1809	26.42	0.44	1.500			
0.6165	39458.05	3.7190	3.7191	2.2442	26.40	0.42	1.500			
0.6234	39898.04	3.7160	3.7160	2.2849	26.38	0.40	1.500			
0.6304	40347.05	3.7130	3.7131	2.3060	26.36	0.38	1.500			
0.6374	40791.19	3.7100	3.7099	2.2993	26.34	0.36	1.500			
0.6443	41237.16	3.7070	3.7070	2.2364	26.32	0.34	1.500			
0.6511	41669.31	3.7040	3.7040	2.1726	26.30	0.32	1.500			
0.6574	42070.73	3.7010	3.7010	2.0088	26.28	0.30	1.500			
0.6632	42444.55	3.6980	3.6980	1.8838	26.26	0.28	1.500			
0.6686	42790.95	3.6950	3.6950	1.7467	26.25	0.27	1.500			
0.6736	43107.42	3.6920	3.6920	1.6427	26.23	0.25	1.500			
0.6782	43407.78	3.6890	3.6890	1.5456	26.22	0.24	1.500			
0.6827	43694.62	3.6860	3.6860	1.4789	26.21	0.23	1.500			
0.6871	43974.85	3.6830	3.6830	1.4249	26.20	0.22	1.500			
0.6912	44239.58	3.6800	3.6800	1.3768	26.18	0.20	1.500			
0.6953	44499.97	3.6770	3.6771	1.3413	26.17	0.19	1.500			
0.6992	44751.07	3.6740	3.6739	1.3038	26.16	0.18	1.500			
0.7030	44992.35	3.6710	3.6710	1.2831	26.14	0.16	1.500			
0.7068	45233.68	3.6680	3.6681	1.2742	26.13	0.15	1.500			
0.7106	45476.50	3.6650	3.6648	1.2774	26.12	0.14	1.500			
0.7144	45723.06	3.6620	3.6620	1.2805	26.11	0.13	1.500			
0.7183	45968.81	3.6590	3.6590	1.2803	26.10	0.12	1.500			
0.7221	46217.49	3.6560	3.6561	1.2837	26.08	0.10	1.500			
0.7260	46465.23	3.6530	3.6530	1.2760	26.07	0.09	1.500			
0.7298	46708.92	3.6500	3.6500	1.2684	26.06	0.08	1.500			
0.7336	46952.45	3.6470	3.6470	1.2536	26.05	0.07	1.500			
0.7374	47191.41	3.6440	3.6440	1.2420	26.04	0.06	1.500			
0.7411	47429.55	3.6410	3.6410	1.2346	26.03	0.05	1.500			
0.7448	47664.18	3.6380	3.6380	1.2261	26.02	0.04	1.500			
0.7484	47898.86	3.6350	3.6349	1.2158	26.01	0.03	1.500			
0.7520	48130.04	3.6320	3.6321	1.2085	26.00	0.02	1.500			
0.7557	48362.29	3.6290	3.6290	1.2011	25.99	0.01	1.500			
0.7593	48594.44	3.6260	3.6259	1.1983	25.98	0.00	1.500			
0.7629	48824.10	3.6230	3.6229	1.1795	25.98	-0.00	1.500			
0.7664	49048.70	3.6200	3.6201	1.1636	25.98	-0.00	1.500			
0.7699	49270.92	3.6170	3.6171	1.1479	25.97	-0.01	1.500			
0.7733	49492.91	3.6140	3.6140	1.1249	25.97	-0.01	1.500			
0.7766	49704.79	3.6110	3.6109	1.1006	25.97	-0.01	1.500			
0.7799	49913.80	3.6080	3.6081	1.0759	25.96	-0.02	1.500			
0.7831	50117.14	3.6050	3.6050	1.0515	25.96	-0.02	1.500			
0.7862	50318.86	3.6020	3.6020	1.0283	25.96	-0.02	1.500			
0.7893	50513.26	3.5990	3.5990	0.9944	25.96	-0.02	1.500			
0.7922	50703.54	3.5960	3.5960	0.9580	25.97	-0.01	1.500			
0.7951	50888.08	3.5930	3.5930	0.9075	25.97	-0.01	1.500			
0.7978	51058.99	3.5900	3.5900	0.8448	25.97	-0.01	1.500			
0.8003	51219.88	3.5870	3.5870	0.7732	25.97	-0.01	1.500			
0.8025	51361.85	3.5840	3.5841	0.6871	25.97	-0.01	1.500			
0.8045	51486.84	3.5810	3.5810	0.6023	25.98	-0.00	1.500			
0.8061	51592.65	3.5780	3.5781	0.5145	25.98	-0.00	1.500			
0.8075	51677.90	3.5750	3.5751	0.4431	25.98	-0.00	1.500			
0.8087	51754.20	3.5720	3.5719	0.3732	25.98	-0.00	1.500			
0.8096	51815.50	3.5690	3.5690	0.3196	25.98	-0.00	1.500			
0.8105	51869.95	3.5660	3.5661	0.2814	25.98	-0.00	1.500			
0.8112	51917.69	3.5630	3.5630	0.2488	25.98	0.00	1.500			
0.8119	51961.62	3.5600	3.5598	0.2213	25.98	0.00	1.500			
0.8125	52000.44	3.5570	3.5569	0.1992	25.98	0.00	1.500			
0.8131	52035.62	3.5540	3.5541	0.1796	25.98	0.00	1.500			
0.8136	52068.38	3.5510	3.5510	0.1625	25.98	0.00	1.500			
0.8140	52097.59	3.5480	3.5480	0.1480	25.98	0.00	1.500			
0.8144	52124.21	3.5450	3.5449	0.1326	25.98	0.00	1.500			
0.8148	52147.85	3.5420	3.5420	0.1172	25.98	0.00	1.500			
0.8151	52169.11	3.5390	3.5390	0.1036	25.98	0.00	1.500			
0.8154	52187.66	3.5360	3.5362	0.0896	25.98	0.00	1.500			
0.8157	52203.95	3.5330	3.5331	0.0758	25.98	0.00	1.500			
0.8159	52217.66	3.5300	3.5302	0.0608	25.98	0.00	1.500			
0.8161	52227.83	3.5270	3.5275	0.0451	25.98	0.00	1.500			
0.8162	52234.97	3.5240	3.5250	0.0293	25.98	0.00	1.500			
