Ah_balance (normalized)	Ah_balance (mAh)	Voltage - fit (V)	Voltage -  interpolate (V)	dQ/dV (1/V)	Temperature (°C)	Temperature - diff (°C)	Current (C)	R_DC 0ms (mOhm)	R_DC 50ms (mOhm)	R_DC 50 ms PEC (mOhm)
0.2054	13142.72	3.9120	3.9119	-0.1247	25.82	0.00	-1.500			
0.2058	13169.80	3.9090	3.9089	-0.1598	25.82	0.00	-1.500			
0.2063	13205.00	3.9060	3.9060	-0.1954	25.82	0.00	-1.500			
0.2070	13246.05	3.9030	3.9030	-0.2278	25.82	0.00	-1.500			
0.2077	13292.91	3.9000	3.9001	-0.2601	25.82	0.00	-1.500			
0.2085	13346.44	3.8970	3.8971	-0.2922	25.82	0.00	-1.500			
0.2095	13405.28	3.8940	3.8939	-0.3236	25.82	0.00	-1.500			
0.2105	13470.50	3.8910	3.8910	-0.3551	25.82	0.00	-1.500			
0.2116	13541.16	3.8880	3.8880	-0.3860	25.82	-0.00	-1.500			
0.2128	13618.44	3.8850	3.8850	-0.4178	25.82	-0.00	-1.500			
0.2141	13702.20	3.8820	3.8819	-0.4509	25.82	-0.00	-1.500			
0.2155	13791.55	3.8790	3.8790	-0.4829	25.82	-0.00	-1.500			
0.2170	13887.69	3.8760	3.8760	-0.5140	25.82	-0.00	-1.500			
0.2186	13989.78	3.8730	3.8730	-0.5438	25.81	-0.01	-1.500			
0.2203	14097.25	3.8700	3.8700	-0.5745	25.81	-0.01	-1.500			
0.2220	14210.67	3.8670	3.8670	-0.6023	25.81	-0.01	-1.500			
0.2239	14329.49	3.8640	3.8640	-0.6279	25.81	-0.01	-1.500			
0.2258	14452.93	3.8610	3.8610	-0.6530	25.81	-0.01	-1.500			
0.2278	14581.09	3.8580	3.8581	-0.6756	25.81	-0.01	-1.500			
0.2299	14713.67	3.8550	3.8550	-0.6978	25.80	-0.02	-1.500			
0.2320	14850.42	3.8520	3.8520	-0.7137	25.80	-0.02	-1.500			
0.2342	14989.74	3.8490	3.8490	-0.7271	25.80	-0.02	-1.500			
0.2364	15131.17	3.8460	3.8460	-0.7404	25.80	-0.02	-1.500			
0.2387	15275.45	3.8430	3.8430	-0.7522	25.80	-0.02	-1.500			
0.2409	15420.43	3.8400	3.8400	-0.7595	25.80	-0.02	-1.500			
0.2432	15566.79	3.8370	3.8370	-0.7693	25.80	-0.02	-1.500			
0.2455	15714.83	3.8340	3.8340	-0.7777	25.80	-0.02	-1.500			
0.2479	15865.53	3.8310	3.8310	-0.7880	25.80	-0.02	-1.500			
0.2503	16019.03	3.8280	3.8280	-0.7945	25.81	-0.01	-1.500			
0.2527	16171.37	3.8250	3.8250	-0.8025	25.81	-0.01	-1.500			
0.2551	16327.25	3.8220	3.8220	-0.8084	25.81	-0.01	-1.500			
0.2576	16483.63	3.8190	3.8190	-0.8113	25.81	-0.01	-1.500			
0.2600	16639.52	3.8160	3.8160	-0.8113	25.81	-0.01	-1.500			
0.2624	16795.50	3.8130	3.8130	-0.8130	25.81	-0.01	-1.500			
0.2649	16951.16	3.8100	3.8100	-0.8169	25.82	-0.00	-1.500			
0.2673	17108.57	3.8070	3.8069	-0.8180	25.82	0.00	-1.500			
0.2698	17264.60	3.8040	3.8040	-0.8202	25.82	0.00	-1.500			
0.2722	17423.63	3.8010	3.8010	-0.8245	25.83	0.01	-1.500			
0.2747	17582.86	3.7980	3.7980	-0.8279	25.83	0.01	-1.500			
0.2772	17742.01	3.7950	3.7951	-0.8302	25.84	0.02	-1.500			
0.2797	17900.91	3.7920	3.7920	-0.8302	25.84	0.02	-1.500			
0.2822	18059.97	3.7890	3.7890	-0.8332	25.84	0.02	-1.500			
0.2847	18220.62	3.7860	3.7860	-0.8356	25.85	0.03	-1.500			
0.2872	18380.88	3.7830	3.7829	-0.8350	25.85	0.03	-1.500			
0.2897	18541.88	3.7800	3.7801	-0.8389	25.86	0.04	-1.500			
0.2922	18702.93	3.7770	3.7770	-0.8397	25.86	0.04	-1.500			
0.2948	18864.18	3.7740	3.7740	-0.8409	25.87	0.05	-1.500			
0.2973	19025.95	3.7710	3.7710	-0.8441	25.87	0.05	-1.500			
0.2998	19187.40	3.7680	3.7681	-0.8432	25.88	0.06	-1.500			
0.3023	19350.03	3.7650	3.7650	-0.8459	25.88	0.06	-1.500			
0.3049	19513.02	3.7620	3.7620	-0.8454	25.89	0.07	-1.500			
0.3074	19674.86	3.7590	3.7589	-0.8433	25.89	0.07	-1.500			
0.3099	19836.58	3.7560	3.7561	-0.8449	25.90	0.08	-1.500			
0.3125	19998.63	3.7530	3.7530	-0.8454	25.90	0.08	-1.500			
0.3150	20160.73	3.7500	3.7500	-0.8462	25.91	0.09	-1.500			
0.3176	20324.27	3.7470	3.7470	-0.8466	25.92	0.10	-1.500			
0.3201	20486.74	3.7440	3.7440	-0.8467	25.92	0.10	-1.500			
0.3227	20649.64	3.7410	3.7410	-0.8479	25.93	0.11	-1.500			
0.3252	20812.24	3.7380	3.7380	-0.8447	25.93	0.11	-1.500			
0.3277	20973.46	3.7350	3.7351	-0.8471	25.94	0.12	-1.500			
0.3303	21136.51	3.7320	3.7320	-0.8466	25.95	0.13	-1.500			
0.3328	21299.49	3.7290	3.7289	-0.8477	25.95	0.13	-1.500			
0.3354	21462.66	3.7260	3.7261	-0.8501	25.96	0.14	-1.500			
0.3379	21625.60	3.7230	3.7230	-0.8497	25.96	0.14	-1.500			
0.3405	21789.23	3.7200	3.7201	-0.8516	25.97	0.15	-1.500			
0.3430	21953.25	3.7170	3.7169	-0.8539	25.98	0.16	-1.500			
0.3456	22115.22	3.7140	3.7140	-0.8538	25.98	0.16	-1.500			
0.3481	22280.98	3.7110	3.7110	-0.8590	25.99	0.17	-1.500			
0.3507	22445.31	3.7080	3.7080	-0.8618	26.00	0.18	-1.500			
0.3533	22612.18	3.7050	3.7050	-0.8647	26.00	0.18	-1.500			
0.3559	22779.29	3.7020	3.7020	-0.8661	26.01	0.19	-1.500			
0.3585	22945.75	3.6990	3.6990	-0.8664	26.01	0.19	-1.500			
0.3611	23111.25	3.6960	3.6961	-0.8718	26.02	0.20	-1.500			
0.3637	23277.15	3.6930	3.6930	-0.8784	26.03	0.21	-1.500			
0.3663	23446.18	3.6900	3.6899	-0.8885	26.03	0.21	-1.500			
0.3690	23617.13	3.6870	3.6870	-0.8987	26.04	0.22	-1.500			
0.3717	23791.97	3.6840	3.6840	-0.9139	26.04	0.22	-1.500			
0.3745	23968.81	3.6810	3.6810	-0.9271	26.05	0.23	-1.500			
0.3773	24148.35	3.6780	3.6780	-0.9443	26.05	0.23	-1.500			
0.3802	24330.80	3.6750	3.6750	-0.9546	26.06	0.24	-1.500			
0.3830	24515.18	3.6720	3.6720	-0.9665	26.06	0.24	-1.500			
0.3860	24702.87	3.6690	3.6692	-0.9827	26.07	0.25	-1.500			
0.3890	24892.95	3.6660	3.6659	-0.9967	26.07	0.25	-1.500			
0.3919	25084.27	3.6630	3.6630	-1.0130	26.08	0.26	-1.500			
0.3950	25278.25	3.6600	3.6601	-1.0301	26.08	0.26	-1.500			
0.3981	25477.98	3.6570	3.6570	-1.0571	26.09	0.27	-1.500			
0.4013	25682.75	3.6540	3.6540	-1.0840	26.09	0.27	-1.500			
0.4046	25893.63	3.6510	3.6510	-1.1049	26.10	0.28	-1.500			
0.4079	26107.94	3.6480	3.6480	-1.1299	26.11	0.29	-1.500			
0.4114	26326.73	3.6450	3.6451	-1.1606	26.11	0.29	-1.500			
0.4149	26551.66	3.6420	3.6420	-1.1896	26.11	0.29	-1.500			
0.4185	26784.26	3.6390	3.6389	-1.2116	26.12	0.30	-1.500			
0.4222	27019.19	3.6360	3.6360	-1.2375	26.12	0.30	-1.500			
0.4259	27257.11	3.6330	3.6331	-1.2693	26.13	0.31	-1.500			
0.4298	27505.05	3.6300	3.6300	-1.3012	26.13	0.31	-1.500			
0.4337	27757.01	3.6270	3.6269	-1.3279	26.14	0.32	-1.500			
0.4377	28014.11	3.6240	3.6240	-1.3584	26.14	0.32	-1.500			
0.4418	28278.21	3.6210	3.6212	-1.3949	26.15	0.33	-1.500			
0.4461	28551.43	3.6180	3.6180	-1.4339	26.15	0.33	-1.500			
0.4505	28830.16	3.6150	3.6149	-1.4646	26.16	0.34	-1.500			
0.4549	29115.94	3.6120	3.6120	-1.4862	26.16	0.34	-1.500			
0.4594	29404.12	3.6090	3.6090	-1.5152	26.17	0.35	-1.500			
0.4640	29694.55	3.6060	3.6060	-1.5482	26.17	0.35	-1.500			
0.4686	29991.90	3.6030	3.6030	-1.5815	26.18	0.36	-1.500			
0.4734	30299.46	3.6000	3.5999	-1.6119	26.18	0.36	-1.500			
0.4783	30611.48	3.5970	3.5970	-1.6468	26.18	0.36	-1.500			
0.4834	30935.74	3.5940	3.5941	-1.6885	26.19	0.37	-1.500			
0.4885	31266.12	3.5910	3.5910	-1.7195	26.19	0.37	-1.500			
0.4937	31599.04	3.5880	3.5879	-1.7426	26.20	0.38	-1.500			
0.4990	31934.10	3.5850	3.5851	-1.7675	26.20	0.38	-1.500			
0.5043	32274.27	3.5820	3.5820	-1.7918	26.20	0.38	-1.500			
0.5097	32623.07	3.5790	3.5790	-1.8246	26.21	0.39	-1.500			
0.5152	32974.28	3.5760	3.5760	-1.8457	26.22	0.40	-1.500			
0.5208	33333.76	3.5730	3.5730	-1.8796	26.22	0.40	-1.500			
0.5265	33698.67	3.5700	3.5700	-1.9028	26.23	0.41	-1.500			
0.5323	34066.80	3.5670	3.5670	-1.9310	26.24	0.42	-1.500			
0.5381	34438.06	3.5640	3.5640	-1.9497	26.24	0.42	-1.500			
0.5440	34816.31	3.5610	3.5610	-1.9768	26.25	0.43	-1.500			
0.5499	35195.82	3.5580	3.5580	-2.0127	26.26	0.44	-1.500			
0.5560	35585.79	3.5550	3.5549	-2.0307	26.26	0.44	-1.500			
0.5622	35983.36	3.5520	3.5520	-2.0468	26.27	0.45	-1.500			
0.5684	36379.51	3.5490	3.5490	-2.0646	26.28	0.46	-1.500	0.386	0.489	
0.5746	36776.95	3.5460	3.5459	-2.0721	26.29	0.47	-1.500			
0.5808	37171.13	3.5430	3.5429	-2.0769	26.29	0.47	-1.500			
0.5870	37569.29	3.5400	3.5401	-2.0796	26.30	0.48	-1.500			
0.5934	37979.83	3.5370	3.5370	-2.1069	26.31	0.49	-1.500			
0.5998	38385.12	3.5340	3.5340	-2.1009	26.32	0.50	-1.500			
0.6060	38786.70	3.5310	3.5310	-2.0776	26.33	0.51	-1.500			
0.6123	39187.59	3.5280	3.5281	-2.0670	26.34	0.52	-1.500			
0.6185	39582.68	3.5250	3.5250	-2.0475	26.35	0.53	-1.500			
0.6246	39973.07	3.5220	3.5220	-2.0282	26.36	0.54	-1.500			
0.6306	40361.49	3.5190	3.5190	-2.0033	26.37	0.55	-1.500			
0.6366	40745.56	3.5160	3.5161	-1.9825	26.38	0.56	-1.500			
0.6425	41123.04	3.5130	3.5130	-1.9692	26.40	0.58	-1.500			
0.6484	41499.44	3.5100	3.5100	-1.9483	26.41	0.59	-1.500			
0.6542	41870.08	3.5070	3.5069	-1.9235	26.42	0.60	-1.500			
0.6600	42239.96	3.5040	3.5041	-1.9098	26.44	0.62	-1.500			
0.6657	42604.34	3.5010	3.5010	-1.8819	26.45	0.63	-1.500			
0.6713	42964.42	3.4980	3.4980	-1.8730	26.46	0.64	-1.500			
0.6769	43320.58	3.4950	3.4950	-1.8532	26.48	0.66	-1.500			
0.6824	43675.13	3.4920	3.4919	-1.8322	26.49	0.67	-1.500			
0.6879	44023.49	3.4890	3.4891	-1.8196	26.51	0.69	-1.500			
0.6933	44372.79	3.4860	3.4860	-1.8063	26.52	0.70	-1.500			
0.6987	44718.19	3.4830	3.4829	-1.7931	26.54	0.72	-1.500			
0.7041	45061.34	3.4800	3.4799	-1.7690	26.56	0.74	-1.500			
0.7094	45400.84	3.4770	3.4772	-1.7477	26.58	0.76	-1.500			
0.7147	45739.25	3.4740	3.4738	-1.7195	26.59	0.77	-1.500			
0.7198	46065.17	3.4710	3.4710	-1.6980	26.61	0.79	-1.500			
0.7248	46384.33	3.4680	3.4680	-1.6540	26.62	0.80	-1.500			
0.7297	46698.03	3.4650	3.4650	-1.6326	26.64	0.82	-1.500			
0.7345	47011.15	3.4620	3.4620	-1.6039	26.66	0.84	-1.500			
0.7393	47316.71	3.4590	3.4590	-1.5837	26.67	0.85	-1.500			
0.7440	47618.42	3.4560	3.4560	-1.5659	26.69	0.87	-1.500			
0.7487	47918.41	3.4530	3.4531	-1.5427	26.71	0.89	-1.500			
0.7533	48208.81	3.4500	3.4500	-1.5137	26.73	0.91	-1.500			
0.7579	48502.80	3.4470	3.4470	-1.5013	26.75	0.93	-1.500			
0.7623	48786.82	3.4440	3.4440	-1.4773	26.77	0.95	-1.500			
0.7667	49069.36	3.4410	3.4410	-1.4607	26.79	0.97	-1.500			
0.7710	49343.23	3.4380	3.4380	-1.4547	26.80	0.98	-1.500			
0.7753	49620.65	3.4350	3.4349	-1.4455	26.82	1.00	-1.500			
0.7797	49899.61	3.4320	3.4319	-1.4452	26.84	1.02	-1.500			
0.7840	50176.02	3.4290	3.4291	-1.4417	26.86	1.04	-1.500			
0.7883	50453.43	3.4260	3.4260	-1.4422	26.87	1.05	-1.500			
0.7927	50732.36	3.4230	3.4229	-1.4323	26.90	1.08	-1.500			
0.7970	51008.92	3.4200	3.4200	-1.4115	26.93	1.11	-1.500			
0.8012	51278.60	3.4170	3.4170	-1.3897	26.95	1.13	-1.500			
0.8054	51545.90	3.4140	3.4141	-1.3623	26.98	1.16	-1.500			
0.8095	51805.69	3.4110	3.4110	-1.3300	27.00	1.18	-1.500			
0.8134	52056.30	3.4080	3.4079	-1.2952	27.02	1.20	-1.500			
0.8172	52301.06	3.4050	3.4050	-1.2508	27.04	1.22	-1.500			
0.8209	52540.39	3.4020	3.4021	-1.2156	27.06	1.24	-1.500			
0.8245	52770.01	3.3990	3.3990	-1.1678	27.08	1.26	-1.500			
0.8280	52990.89	3.3960	3.3959	-1.1185	27.10	1.28	-1.500			
0.8312	53199.99	3.3930	3.3931	-1.0677	27.11	1.29	-1.500			
0.8344	53398.93	3.3900	3.3900	-1.0183	27.12	1.30	-1.500			
0.8373	53589.40	3.3870	3.3869	-0.9699	27.14	1.32	-1.500			
0.8402	53771.22	3.3840	3.3840	-0.9343	27.15	1.33	-1.500			
0.8429	53943.78	3.3810	3.3810	-0.8959	27.17	1.35	-1.500			
0.8455	54112.04	3.3780	3.3779	-0.8627	27.18	1.36	-1.500			
0.8480	54274.92	3.3750	3.3750	-0.8339	27.19	1.37	-1.500			
0.8505	54431.56	3.3720	3.3720	-0.8006	27.21	1.39	-1.500			
0.8529	54582.85	3.3690	3.3690	-0.7702	27.22	1.40	-1.500			
0.8551	54727.70	3.3660	3.3660	-0.7441	27.23	1.41	-1.500			
0.8573	54866.80	3.3630	3.3628	-0.7136	27.24	1.42	-1.500			
0.8594	55000.94	3.3600	3.3600	-0.6881	27.25	1.43	-1.500			
0.8614	55130.99	3.3570	3.3571	-0.6648	27.26	1.44	-1.500			
0.8634	55255.99	3.3540	3.3540	-0.6418	27.27	1.45	-1.500			
0.8653	55377.07	3.3510	3.3509	-0.6231	27.28	1.46	-1.500			
0.8671	55492.83	3.3480	3.3480	-0.6019	27.29	1.47	-1.500			
0.8688	55606.19	3.3450	3.3450	-0.5862	27.30	1.48	-1.500			
0.8706	55717.44	3.3420	3.3419	-0.5706	27.31	1.49	-1.500			
0.8723	55826.01	3.3390	3.3390	-0.5504	27.31	1.49	-1.500			
0.8739	55930.56	3.3360	3.3360	-0.5313	27.32	1.50	-1.500			
0.8755	56030.74	3.3330	3.3331	-0.5142	27.33	1.51	-1.500			
0.8770	56127.38	3.3300	3.3299	-0.4958	27.34	1.52	-1.500			
0.8784	56219.75	3.3270	3.3269	-0.4791	27.34	1.52	-1.500			
0.8798	56309.45	3.3240	3.3240	-0.4642	27.35	1.53	-1.500			
0.8812	56397.30	3.3210	3.3211	-0.4507	27.36	1.54	-1.500			
0.8826	56483.50	3.3180	3.3179	-0.4360	27.36	1.54	-1.500			
0.8838	56565.83	3.3150	3.3149	-0.4215	27.36	1.54	-1.500			
0.8851	56644.72	3.3120	3.3120	-0.4072	27.37	1.55	-1.500			
0.8863	56721.58	3.3090	3.3090	-0.3931	27.37	1.55	-1.500			
0.8874	56795.52	3.3060	3.3059	-0.3784	27.38	1.56	-1.500			
0.8885	56866.92	3.3030	3.3030	-0.3658	27.39	1.57	-1.500			
0.8896	56935.96	3.3000	3.3000	-0.3528	27.39	1.57	-1.500			
0.8907	57002.14	3.2970	3.2969	-0.3419	27.40	1.58	-1.500			
0.8917	57066.40	3.2940	3.2941	-0.3303	27.41	1.59	-1.500			
0.8926	57128.23	3.2910	3.2909	-0.3166	27.41	1.59	-1.500			
0.8936	57188.09	3.2880	3.2880	-0.3066	27.42	1.60	-1.500			
0.8945	57245.85	3.2850	3.2851	-0.2969	27.43	1.61	-1.500			
0.8953	57301.58	3.2820	3.2819	-0.2868	27.43	1.61	-1.500			
0.8962	57355.90	3.2790	3.2790	-0.2775	27.44	1.62	-1.500			
0.8970	57407.98	3.2760	3.2761	-0.2682	27.44	1.62	-1.500			
0.8978	57458.73	3.2730	3.2730	-0.2598	27.45	1.63	-1.500			
0.8986	57508.01	3.2700	3.2700	-0.2526	27.45	1.63	-1.500			
0.8993	57554.56	3.2670	3.2670	-0.2437	27.46	1.64	-1.500			
0.9000	57600.47	3.2640	3.2640	-0.2370	27.46	1.64	-1.500			
0.9007	57645.45	3.2610	3.2609	-0.2300	27.47	1.65	-1.500			
0.9014	57689.05	3.2580	3.2580	-0.2236	27.47	1.65	-1.500			
0.9021	57731.21	3.2550	3.2551	-0.2178	27.47	1.65	-1.500			
0.9027	57772.46	3.2520	3.2520	-0.2118	27.48	1.66	-1.500			
0.9033	57812.61	3.2490	3.2490	-0.2062	27.48	1.66	-1.500			
0.9039	57851.45	3.2460	3.2460	-0.1995	27.49	1.67	-1.500			
0.9045	57888.95	3.2430	3.2430	-0.1940	27.49	1.67	-1.500			
0.9051	57925.71	3.2400	3.2401	-0.1890	27.49	1.67	-1.500			
0.9057	57961.74	3.2370	3.2371	-0.1840	27.50	1.68	-1.500			
0.9062	57996.33	3.2340	3.2338	-0.1789	27.50	1.68	-1.500			
0.9067	58029.77	3.2310	3.2310	-0.1738	27.50	1.68	-1.500			
0.9072	58062.77	3.2280	3.2281	-0.1700	27.51	1.69	-1.500			
0.9077	58094.93	3.2250	3.2250	-0.1662	27.51	1.69	-1.500			
0.9082	58126.65	3.2220	3.2220	-0.1627	27.51	1.69	-1.500			
0.9087	58157.23	3.2190	3.2190	-0.1586	27.52	1.70	-1.500			
0.9092	58187.39	3.2160	3.2161	-0.1555	27.52	1.70	-1.500			
0.9096	58217.10	3.2130	3.2130	-0.1522	27.52	1.70	-1.500			
0.9101	58245.95	3.2100	3.2100	-0.1486	27.52	1.70	-1.500			
0.9105	58273.93	3.2070	3.2070	-0.1457	27.53	1.71	-1.500			
0.9110	58301.60	3.2040	3.2041	-0.1432	27.53	1.71	-1.500			
0.9114	58328.78	3.2010	3.2009	-0.1405	27.53	1.71	-1.500			
0.9118	58355.55	3.1980	3.1980	-0.1381	27.54	1.72	-1.500			
0.9122	58381.87	3.1950	3.1951	-0.1354	27.54	1.72	-1.500			
0.9126	58407.50	3.1920	3.1920	-0.1329	27.55	1.73	-1.500			
0.9130	58432.93	3.1890	3.1890	-0.1308	27.55	1.73	-1.500			
0.9134	58457.70	3.1860	3.1860	-0.1286	27.55	1.73	-1.500			
0.9138	58481.96	3.1830	3.1829	-0.1261	27.56	1.74	-1.500			
0.9142	58505.91	3.1800	3.1799	-0.1240	27.56	1.74	-1.500			
0.9145	58529.52	3.1770	3.1771	-0.1221	27.56	1.74	-1.500			
0.9149	58552.71	3.1740	3.1739	-0.1204	27.57	1.75	-1.500			
0.9152	58575.71	3.1710	3.1710	-0.1188	27.57	1.75	-1.500			
0.9156	58598.31	3.1680	3.1680	-0.1171	27.58	1.76	-1.500			
0.9159	58620.53	3.1650	3.1650	-0.1152	27.58	1.76	-1.500			
0.9163	58642.44	3.1620	3.1620	-0.1139	27.58	1.76	-1.500			
0.9166	58664.10	3.1590	3.1590	-0.1123	27.59	1.77	-1.500			
0.9170	58685.56	3.1560	3.1560	-0.1110	27.59	1.77	-1.500			
0.9173	58706.76	3.1530	3.1530	-0.1097	27.59	1.77	-1.500			
0.9176	58727.74	3.1500	3.1499	-0.1082	27.59	1.77	-1.500			
0.9179	58748.37	3.1470	3.1470	-0.1067	27.60	1.78	-1.500			
0.9183	58768.69	3.1440	3.1440	-0.1053	27.60	1.78	-1.500			
0.9186	58788.85	3.1410	3.1410	-0.1040	27.60	1.78	-1.500			
0.9189	58808.59	3.1380	3.1380	-0.1026	27.61	1.79	-1.500			
0.9192	58828.06	3.1350	3.1350	-0.1011	27.61	1.79	-1.500			
0.9195	58847.32	3.1320	3.1320	-0.0999	27.61	1.79	-1.500			
0.9198	58866.33	3.1290	3.1291	-0.0986	27.62	1.80	-1.500			
0.9201	58885.17	3.1260	3.1259	-0.0976	27.62	1.80	-1.500			
0.9204	58903.80	3.1230	3.1230	-0.0966	27.62	1.80	-1.500			
0.9207	58922.25	3.1200	3.1200	-0.0956	27.62	1.80	-1.500			
0.9209	58940.30	3.1170	3.1171	-0.0949	27.63	1.81	-1.500			
0.9212	58958.47	3.1140	3.1140	-0.0944	27.63	1.81	-1.500			
0.9215	58976.52	3.1110	3.1111	-0.0935	27.63	1.81	-1.500			
0.9218	58994.42	3.1080	3.1079	-0.0929	27.64	1.82	-1.500			
0.9221	59012.38	3.1050	3.1051	-0.0920	27.64	1.82	-1.500			
0.9223	59029.94	3.1020	3.1020	-0.0909	27.64	1.82	-1.500			
0.9226	59047.46	3.0990	3.0990	-0.0901	27.64	1.82	-1.500			
0.9229	59064.62	3.0960	3.0960	-0.0887	27.65	1.83	-1.500			
0.9231	59081.13	3.0930	3.0929	-0.0878	27.65	1.83	-1.500			
0.9234	59097.94	3.0900	3.0901	-0.0873	27.65	1.83	-1.500			
0.9237	59114.63	3.0870	3.0868	-0.0864	27.66	1.84	-1.500			
0.9239	59131.18	3.0840	3.0840	-0.0860	27.66	1.84	-1.500			
0.9242	59147.74	3.0810	3.0811	-0.0856	27.66	1.84	-1.500			
0.9244	59164.11	3.0780	3.0781	-0.0849	27.67	1.85	-1.500			
0.9247	59180.36	3.0750	3.0750	-0.0846	27.67	1.85	-1.500			
0.9249	59196.54	3.0720	3.0720	-0.0840	27.67	1.85	-1.500			
0.9252	59212.60	3.0690	3.0691	-0.0833	27.67	1.85	-1.500			
0.9254	59228.42	3.0660	3.0660	-0.0823	27.68	1.86	-1.500			
0.9257	59244.18	3.0630	3.0629	-0.0818	27.68	1.86	-1.500			
0.9259	59260.01	3.0600	3.0600	-0.0813	27.68	1.86	-1.500			
0.9262	59275.48	3.0570	3.0570	-0.0808	27.69	1.87	-1.500			
0.9264	59290.92	3.0540	3.0540	-0.0801	27.69	1.87	-1.500			
0.9267	59306.18	3.0510	3.0511	-0.0796	27.69	1.87	-1.500			
0.9269	59321.41	3.0480	3.0479	-0.0791	27.69	1.87	-1.500			
0.9271	59336.38	3.0450	3.0449	-0.0785	27.70	1.88	-1.500			
0.9274	59351.43	3.0420	3.0421	-0.0781	27.70	1.88	-1.500			
0.9276	59366.43	3.0390	3.0390	-0.0778	27.70	1.88	-1.500			
0.9278	59381.34	3.0360	3.0359	-0.0774	27.70	1.88	-1.500			
0.9281	59396.18	3.0330	3.0329	-0.0768	27.71	1.89	-1.500			
0.9283	59410.91	3.0300	3.0302	-0.0764	27.71	1.89	-1.500			
0.9285	59425.54	3.0270	3.0269	-0.0758	27.71	1.89	-1.500			
0.9288	59440.04	3.0240	3.0241	-0.0752	27.72	1.90	-1.500			
0.9290	59454.48	3.0210	3.0209	-0.0747	27.72	1.90	-1.500			
0.9292	59468.65	3.0180	3.0181	-0.0744	27.72	1.90	-1.500			
0.9294	59482.75	3.0150	3.0151	-0.0738	27.72	1.90	-1.500			
0.9296	59496.90	3.0120	3.0121	-0.0736	27.73	1.91	-1.500			
0.9299	59511.01	3.0090	3.0089	-0.0734	27.73	1.91	-1.500			
0.9301	59524.96	3.0060	3.0059	-0.0737	27.73	1.91	-1.500			
0.9303	59539.13	3.0030	3.0031	-0.0739	27.73	1.91	-1.499			
