Ah_balance (normalized)	Ah_balance (mAh)	Voltage - fit (V)	Voltage -  interpolate (V)	dQ/dV (1/V)	Temperature (°C)	Temperature - diff (°C)	Current (C)	R_DC 0ms (mOhm)	R_DC 50ms (mOhm)	R_DC 50 ms PEC (mOhm)
0.2921	18694.34	3.9730	3.9730	0.8469	26.96	1.02	1.500			
0.2947	18861.78	3.9700	3.9700	0.8730	26.95	1.01	1.500			
0.2973	19028.52	3.9670	3.9670	0.8717	26.95	1.01	1.500			
0.2999	19195.87	3.9640	3.9640	0.8743	26.95	1.01	1.500			
0.3026	19363.42	3.9610	3.9610	0.8775	26.94	1.00	1.500			
0.3052	19533.67	3.9580	3.9579	0.8819	26.94	1.00	1.500			
0.3078	19701.37	3.9550	3.9551	0.8808	26.93	0.99	1.500			
0.3105	19871.06	3.9520	3.9520	0.8867	26.93	0.99	1.500			
0.3132	20043.09	3.9490	3.9490	0.8950	26.92	0.98	1.500			
0.3158	20213.75	3.9460	3.9459	0.8955	26.92	0.98	1.500			
0.3185	20386.34	3.9430	3.9430	0.8998	26.92	0.98	1.500			
0.3212	20559.91	3.9400	3.9400	0.9037	26.91	0.97	1.500			
0.3240	20733.96	3.9370	3.9370	0.9085	26.91	0.97	1.500			
0.3267	20908.24	3.9340	3.9341	0.9131	26.90	0.96	1.500			
0.3294	21083.55	3.9310	3.9310	0.9198	26.90	0.96	1.500			
0.3322	21260.87	3.9280	3.9279	0.9263	26.90	0.96	1.500			
0.3350	21439.94	3.9250	3.9250	0.9354	26.89	0.95	1.500			
0.3378	21620.53	3.9220	3.9221	0.9430	26.89	0.95	1.500			
0.3407	21802.18	3.9190	3.9190	0.9519	26.89	0.95	1.500			
0.3435	21986.71	3.9160	3.9160	0.9532	26.88	0.94	1.500			
0.3464	22169.66	3.9130	3.9130	0.9570	26.88	0.94	1.500			
0.3493	22353.76	3.9100	3.9101	0.9603	26.87	0.93	1.500			
0.3522	22537.98	3.9070	3.9070	0.9660	26.87	0.93	1.500			
0.3550	22722.75	3.9040	3.9040	0.9727	26.87	0.93	1.500			
0.3579	22908.73	3.9010	3.9010	0.9828	26.86	0.92	1.500			
0.3609	23098.29	3.8980	3.8980	0.9925	26.86	0.92	1.500			
0.3639	23291.72	3.8950	3.8950	1.0038	26.86	0.92	1.500			
0.3670	23486.77	3.8920	3.8920	1.0088	26.85	0.91	1.500			
0.3700	23681.22	3.8890	3.8890	1.0197	26.85	0.91	1.500			
0.3731	23877.43	3.8860	3.8860	1.0249	26.85	0.91	1.500			
0.3761	24072.91	3.8830	3.8829	1.0360	26.84	0.90	1.500			
0.3793	24272.42	3.8800	3.8800	1.0437	26.84	0.90	1.500			
0.3824	24473.74	3.8770	3.8770	1.0581	26.83	0.89	1.500			
0.3856	24678.94	3.8740	3.8741	1.0708	26.83	0.89	1.500			
0.3889	24886.53	3.8710	3.8710	1.0824	26.82	0.88	1.500			
0.3921	25095.02	3.8680	3.8679	1.0877	26.82	0.88	1.500			
0.3954	25304.02	3.8650	3.8651	1.1040	26.81	0.87	1.500			
0.3987	25515.60	3.8620	3.8621	1.1194	26.81	0.87	1.500			
0.4021	25732.75	3.8590	3.8589	1.1381	26.80	0.86	1.500			
0.4055	25952.18	3.8560	3.8560	1.1540	26.79	0.85	1.500			
0.4090	26175.77	3.8530	3.8530	1.1706	26.79	0.85	1.500			
0.4125	26402.36	3.8500	3.8500	1.1878	26.78	0.84	1.500			
0.4162	26635.26	3.8470	3.8470	1.1964	26.77	0.83	1.500			
0.4197	26863.20	3.8440	3.8440	1.2186	26.76	0.82	1.500			
0.4234	27098.46	3.8410	3.8410	1.2419	26.75	0.81	1.500			
0.4272	27337.78	3.8380	3.8379	1.2646	26.74	0.80	1.500			
0.4310	27582.71	3.8350	3.8351	1.2912	26.73	0.79	1.500			
0.4349	27835.42	3.8320	3.8320	1.3110	26.72	0.78	1.500			
0.4389	28089.28	3.8290	3.8290	1.3310	26.71	0.77	1.500			
0.4429	28344.26	3.8260	3.8261	1.3597	26.70	0.76	1.500			
0.4470	28608.11	3.8230	3.8230	1.3911	26.69	0.75	1.500			
0.4512	28877.91	3.8200	3.8199	1.4200	26.68	0.74	1.500			
0.4555	29154.28	3.8170	3.8170	1.4513	26.67	0.73	1.500			
0.4599	29436.22	3.8140	3.8141	1.4877	26.66	0.72	1.500			
0.4645	29725.51	3.8110	3.8110	1.5243	26.65	0.71	1.500			
0.4690	30018.42	3.8080	3.8080	1.5550	26.64	0.70	1.500			
0.4738	30321.75	3.8050	3.8050	1.5924	26.63	0.69	1.500			
0.4786	30632.72	3.8020	3.8020	1.6366	26.62	0.68	1.500			
0.4836	30951.08	3.7990	3.7990	1.6772	26.61	0.67	1.500			
0.4887	31277.41	3.7960	3.7961	1.7184	26.59	0.65	1.500			
0.4939	31608.78	3.7930	3.7929	1.7709	26.58	0.64	1.500			
0.4993	31952.24	3.7900	3.7900	1.8165	26.57	0.63	1.500			
0.5048	32305.51	3.7870	3.7871	1.8764	26.56	0.62	1.500			
0.5105	32674.61	3.7840	3.7841	1.9238	26.54	0.60	1.500			
0.5164	33048.79	3.7810	3.7809	1.9606	26.53	0.59	1.500			
0.5223	33426.92	3.7780	3.7780	1.9857	26.51	0.57	1.500			
0.5283	33814.26	3.7750	3.7750	2.0211	26.50	0.56	1.500			
0.5345	34206.76	3.7720	3.7720	2.0493	26.48	0.54	1.500			
0.5406	34599.18	3.7690	3.7690	2.0851	26.46	0.52	1.500			
0.5469	35002.45	3.7660	3.7660	2.1191	26.44	0.50	1.500			
0.5533	35412.93	3.7630	3.7624	2.1268	26.42	0.48	1.499	0.354	0.459	
0.5598	35826.28	3.7600	3.7601	2.1218	26.40	0.46	1.500			
0.5662	36233.93	3.7570	3.7570	2.0984	26.39	0.45	1.500			
0.5724	36631.85	3.7540	3.7540	2.0722	26.37	0.43	1.500			
0.5785	37023.18	3.7510	3.7509	2.0532	26.36	0.42	1.500			
0.5846	37417.35	3.7480	3.7481	2.0440	26.34	0.40	1.500			
0.5908	37810.33	3.7450	3.7450	2.0287	26.33	0.39	1.500			
0.5968	38194.44	3.7420	3.7420	2.0065	26.32	0.38	1.500			
0.6028	38577.15	3.7390	3.7388	2.0084	26.30	0.36	1.500			
0.6088	38962.75	3.7360	3.7360	2.0228	26.29	0.35	1.500			
0.6149	39351.98	3.7330	3.7330	2.0408	26.27	0.33	1.500			
0.6210	39743.26	3.7300	3.7301	2.0614	26.26	0.32	1.500			
0.6272	40143.30	3.7270	3.7269	2.1114	26.24	0.30	1.500			
0.6337	40553.69	3.7240	3.7240	2.1660	26.23	0.29	1.500			
0.6401	40969.26	3.7210	3.7211	2.2145	26.22	0.28	1.500			
0.6469	41399.81	3.7180	3.7180	2.2989	26.21	0.27	1.500			
0.6538	41843.56	3.7150	3.7148	2.3903	26.20	0.26	1.500			
0.6612	42315.91	3.7120	3.7121	2.4802	26.19	0.25	1.500			
0.6688	42802.73	3.7090	3.7090	2.5634	26.17	0.23	1.500			
0.6765	43298.63	3.7060	3.7060	2.6164	26.16	0.22	1.500			
0.6846	43813.03	3.7030	3.7030	2.6653	26.15	0.21	1.500			
0.6927	44331.76	3.7000	3.7000	2.6876	26.14	0.20	1.500			
0.7008	44853.61	3.6970	3.6970	2.6621	26.12	0.18	1.500			
0.7088	45364.59	3.6940	3.6940	2.5720	26.11	0.17	1.500			
0.7164	45846.67	3.6910	3.6910	2.4337	26.10	0.16	1.500			
0.7235	46305.33	3.6880	3.6880	2.2365	26.10	0.16	1.500			
0.7299	46713.24	3.6850	3.6851	2.0436	26.09	0.15	1.500			
0.7356	47080.30	3.6820	3.6820	1.8629	26.08	0.14	1.500			
0.7409	47415.93	3.6790	3.6790	1.7269	26.07	0.13	1.500			
0.7458	47729.38	3.6760	3.6760	1.6115	26.07	0.13	1.500			
0.7504	48027.68	3.6730	3.6730	1.5269	26.06	0.12	1.500			
0.7549	48310.50	3.6700	3.6701	1.4522	26.06	0.12	1.500			
0.7591	48580.50	3.6670	3.6670	1.3868	26.05	0.11	1.500			
0.7631	48840.76	3.6640	3.6640	1.3386	26.05	0.11	1.500			
0.7670	49088.06	3.6610	3.6610	1.2940	26.04	0.10	1.500			
0.7708	49328.81	3.6580	3.6579	1.2700	26.04	0.10	1.500			
0.7745	49568.51	3.6550	3.6550	1.2547	26.03	0.09	1.500			
0.7782	49804.99	3.6520	3.6519	1.2532	26.03	0.09	1.500			
0.7819	50043.38	3.6490	3.6491	1.2599	26.03	0.09	1.500			
0.7857	50286.57	3.6460	3.6460	1.2743	26.02	0.08	1.500			
0.7896	50532.16	3.6430	3.6429	1.2816	26.02	0.08	1.500			
0.7934	50779.15	3.6400	3.6400	1.2940	26.01	0.07	1.500			
0.7974	51030.68	3.6370	3.6371	1.3046	26.01	0.07	1.500			
0.8013	51284.17	3.6340	3.6340	1.3127	26.00	0.06	1.500			
0.8053	51537.61	3.6310	3.6310	1.3068	26.00	0.06	1.500			
0.8092	51788.43	3.6280	3.6281	1.3025	25.99	0.05	1.500			
0.8131	52038.36	3.6250	3.6250	1.3009	25.98	0.04	1.500			
0.8170	52288.50	3.6220	3.6219	1.2992	25.98	0.04	1.500			
0.8209	52535.63	3.6190	3.6189	1.2930	25.97	0.03	1.500			
0.8248	52784.24	3.6160	3.6161	1.2921	25.97	0.03	1.500			
0.8287	53033.87	3.6130	3.6129	1.2910	25.96	0.02	1.500			
0.8326	53283.36	3.6100	3.6101	1.2835	25.96	0.02	1.500			
0.8364	53528.57	3.6070	3.6069	1.2713	25.95	0.01	1.500			
0.8402	53771.06	3.6040	3.6040	1.2570	25.95	0.01	1.500			
0.8439	54011.95	3.6010	3.6010	1.2423	25.95	0.01	1.500			
0.8476	54248.72	3.5980	3.5980	1.2280	25.94	0.00	1.500			
0.8513	54484.03	3.5950	3.5950	1.2168	25.94	0.00	1.500			
0.8549	54716.48	3.5920	3.5920	1.1995	25.94	0.00	1.500			
0.8585	54945.71	3.5890	3.5890	1.1867	25.94	0.00	1.500			
0.8620	55169.78	3.5860	3.5860	1.1796	25.94	0.00	1.500			
0.8655	55394.15	3.5830	3.5830	1.1741	25.94	0.00	1.500			
0.8690	55619.11	3.5800	3.5800	1.1707	25.94	0.00	1.500			
0.8726	55849.09	3.5770	3.5769	1.1443	25.94	0.00	1.500			
0.8762	56074.95	3.5740	3.5740	1.1036	25.94	0.00	1.500			
0.8796	56291.27	3.5710	3.5710	1.0108	25.94	0.00	1.500			
0.8826	56486.50	3.5680	3.5681	0.9042	25.94	0.00	1.500			
0.8851	56647.90	3.5650	3.5652	0.7678	25.94	0.00	1.500			
0.8872	56779.86	3.5620	3.5620	0.6307	25.94	0.00	1.500			
0.8887	56877.84	3.5590	3.5590	0.5138	25.94	0.00	1.500			
0.8900	56958.99	3.5560	3.5560	0.4240	25.94	0.00	1.500			
0.8910	57026.51	3.5530	3.5530	0.3414	25.94	0.00	1.500			
0.8919	57083.42	3.5500	3.5498	0.2927	25.94	0.00	1.500			
0.8927	57130.91	3.5470	3.5469	0.2525	25.94	0.00	1.500			
0.8933	57173.13	3.5440	3.5440	0.2229	25.94	0.00	1.500			
0.8939	57211.33	3.5410	3.5410	0.1970	25.94	0.00	1.500			
0.8945	57246.69	3.5380	3.5379	0.1785	25.94	0.00	1.500			
0.8950	57278.17	3.5350	3.5351	0.1612	25.94	0.00	1.500			
0.8954	57307.39	3.5320	3.5320	0.1454	25.94	0.00	1.500			
0.8958	57333.78	3.5290	3.5291	0.1311	25.94	0.00	1.500			
0.8962	57357.46	3.5260	3.5259	0.1165	25.94	0.00	1.500			
0.8965	57378.30	3.5230	3.5230	0.1021	25.94	0.00	1.500			
0.8968	57396.36	3.5200	3.5202	0.0880	25.94	0.00	1.500			
0.8971	57411.95	3.5170	3.5172	0.0744	25.94	0.00	1.500			
0.8973	57425.54	3.5140	3.5142	0.0593	25.94	0.00	1.500			
0.8974	57435.44	3.5110	3.5117	0.0439	25.94	0.00	1.500			
