Ah_balance (normalized)	Ah_balance (mAh)	Voltage - fit (V)	Voltage -  interpolate (V)	dQ/dV (1/V)	Temperature (°C)	Temperature - diff (°C)	Current (C)	R_DC 0ms (mOhm)	R_DC 50ms (mOhm)	R_DC 50 ms PEC (mOhm)
0.2152	13774.60	3.9110	3.9109	-0.1172	25.62	-0.01	-1.500			
0.2156	13799.97	3.9080	3.9080	-0.1489	25.62	-0.01	-1.500			
0.2161	13831.79	3.9050	3.9050	-0.1816	25.62	-0.01	-1.500			
0.2167	13870.19	3.9020	3.9020	-0.2130	25.62	-0.01	-1.500			
0.2174	13914.53	3.8990	3.8989	-0.2419	25.62	-0.01	-1.500			
0.2182	13964.33	3.8960	3.8960	-0.2713	25.62	-0.01	-1.500			
0.2190	14019.12	3.8930	3.8931	-0.3008	25.62	-0.01	-1.500			
0.2200	14079.45	3.8900	3.8900	-0.3309	25.62	-0.01	-1.500			
0.2210	14145.52	3.8870	3.8869	-0.3611	25.62	-0.01	-1.500			
0.2221	14217.46	3.8840	3.8840	-0.3909	25.62	-0.01	-1.500			
0.2234	14295.70	3.8810	3.8810	-0.4209	25.62	-0.01	-1.500			
0.2247	14380.41	3.8780	3.8780	-0.4510	25.62	-0.01	-1.500			
0.2261	14469.62	3.8750	3.8751	-0.4789	25.62	-0.01	-1.500			
0.2276	14564.62	3.8720	3.8719	-0.5037	25.63	-0.00	-1.500			
0.2291	14663.99	3.8690	3.8690	-0.5284	25.63	-0.00	-1.500			
0.2307	14767.46	3.8660	3.8661	-0.5534	25.63	-0.00	-1.500			
0.2324	14876.11	3.8630	3.8630	-0.5783	25.63	-0.00	-1.500			
0.2342	14990.57	3.8600	3.8600	-0.5995	25.63	-0.00	-1.500			
0.2361	15107.91	3.8570	3.8570	-0.6199	25.63	-0.00	-1.500			
0.2380	15229.78	3.8540	3.8540	-0.6392	25.63	-0.00	-1.500			
0.2399	15354.78	3.8510	3.8511	-0.6585	25.63	0.00	-1.500			
0.2419	15483.54	3.8480	3.8479	-0.6718	25.63	0.00	-1.500			
0.2440	15613.42	3.8450	3.8450	-0.6863	25.63	0.00	-1.500			
0.2460	15746.91	3.8420	3.8420	-0.7003	25.63	0.00	-1.500			
0.2482	15882.96	3.8390	3.8390	-0.7147	25.63	0.00	-1.500			
0.2503	16021.66	3.8360	3.8360	-0.7242	25.63	0.00	-1.500			
0.2525	16162.15	3.8330	3.8331	-0.7330	25.64	0.01	-1.500			
0.2548	16305.14	3.8300	3.8299	-0.7395	25.64	0.01	-1.500			
0.2570	16447.88	3.8270	3.8270	-0.7483	25.64	0.01	-1.500			
0.2592	16591.84	3.8240	3.8241	-0.7486	25.64	0.01	-1.500			
0.2615	16736.09	3.8210	3.8210	-0.7522	25.64	0.01	-1.500			
0.2638	16880.85	3.8180	3.8180	-0.7568	25.64	0.01	-1.500			
0.2661	17027.34	3.8150	3.8150	-0.7583	25.64	0.01	-1.500			
0.2683	17172.67	3.8120	3.8120	-0.7600	25.65	0.02	-1.500			
0.2706	17318.10	3.8090	3.8090	-0.7615	25.65	0.02	-1.500			
0.2729	17463.66	3.8060	3.8060	-0.7638	25.65	0.02	-1.500			
0.2752	17611.07	3.8030	3.8030	-0.7728	25.66	0.03	-1.500			
0.2775	17759.66	3.8000	3.7999	-0.7754	25.66	0.03	-1.500			
0.2798	17909.63	3.7970	3.7970	-0.7780	25.67	0.04	-1.500			
0.2822	18060.73	3.7940	3.7940	-0.7820	25.67	0.04	-1.500			
0.2845	18211.17	3.7910	3.7910	-0.7830	25.67	0.04	-1.500			
0.2869	18362.09	3.7880	3.7880	-0.7814	25.68	0.05	-1.500			
0.2892	18510.52	3.7850	3.7849	-0.7803	25.68	0.05	-1.500			
0.2916	18659.72	3.7820	3.7820	-0.7808	25.68	0.05	-1.500			
0.2939	18810.60	3.7790	3.7790	-0.7816	25.69	0.06	-1.500			
0.2963	18960.11	3.7760	3.7760	-0.7823	25.69	0.06	-1.500			
0.2986	19110.70	3.7730	3.7730	-0.7843	25.70	0.07	-1.500			
0.3010	19261.05	3.7700	3.7700	-0.7873	25.70	0.07	-1.500			
0.3033	19413.29	3.7670	3.7670	-0.7871	25.70	0.07	-1.500			
0.3057	19563.80	3.7640	3.7641	-0.7851	25.71	0.08	-1.500			
0.3081	19715.58	3.7610	3.7609	-0.7841	25.71	0.08	-1.500			
0.3104	19865.99	3.7580	3.7580	-0.7832	25.71	0.08	-1.500			
0.3127	20013.82	3.7550	3.7550	-0.7803	25.72	0.09	-1.500			
0.3151	20163.79	3.7520	3.7520	-0.7805	25.72	0.09	-1.500			
0.3174	20314.58	3.7490	3.7490	-0.7831	25.73	0.10	-1.500			
0.3198	20465.38	3.7460	3.7460	-0.7844	25.73	0.10	-1.500			
0.3221	20615.48	3.7430	3.7431	-0.7840	25.74	0.11	-1.500			
0.3245	20766.53	3.7400	3.7399	-0.7879	25.74	0.11	-1.500			
0.3268	20917.19	3.7370	3.7370	-0.7862	25.75	0.12	-1.500			
0.3292	21068.23	3.7340	3.7340	-0.7881	25.76	0.13	-1.500			
0.3316	21220.84	3.7310	3.7310	-0.7919	25.76	0.13	-1.500			
0.3339	21372.38	3.7280	3.7280	-0.7936	25.77	0.14	-1.500			
0.3363	21525.04	3.7250	3.7249	-0.7935	25.77	0.14	-1.500			
0.3387	21677.14	3.7220	3.7221	-0.7936	25.78	0.15	-1.500			
0.3411	21828.65	3.7190	3.7190	-0.7967	25.78	0.15	-1.500			
0.3435	21982.43	3.7160	3.7160	-0.8011	25.79	0.16	-1.500			
0.3459	22136.82	3.7130	3.7130	-0.8002	25.79	0.16	-1.500			
0.3483	22290.53	3.7100	3.7100	-0.8020	25.79	0.16	-1.500			
0.3507	22444.09	3.7070	3.7071	-0.8093	25.80	0.17	-1.500			
0.3531	22600.56	3.7040	3.7040	-0.8164	25.80	0.17	-1.500			
0.3556	22756.39	3.7010	3.7009	-0.8226	25.81	0.18	-1.500			
0.3581	22915.35	3.6980	3.6980	-0.8302	25.81	0.18	-1.500			
0.3606	23076.49	3.6950	3.6950	-0.8406	25.81	0.18	-1.500			
0.3631	23239.16	3.6920	3.6920	-0.8526	25.82	0.19	-1.500			
0.3657	23403.41	3.6890	3.6891	-0.8615	25.82	0.19	-1.500			
0.3683	23568.88	3.6860	3.6859	-0.8708	25.83	0.20	-1.500			
0.3709	23737.11	3.6830	3.6831	-0.8842	25.84	0.21	-1.500			
0.3736	23907.23	3.6800	3.6800	-0.9001	25.84	0.21	-1.500			
0.3763	24081.58	3.6770	3.6770	-0.9153	25.85	0.22	-1.500			
0.3790	24258.60	3.6740	3.6740	-0.9332	25.86	0.23	-1.500			
0.3819	24439.52	3.6710	3.6710	-0.9471	25.86	0.23	-1.500			
0.3848	24624.71	3.6680	3.6680	-0.9623	25.87	0.24	-1.500			
0.3877	24810.67	3.6650	3.6651	-0.9761	25.88	0.25	-1.500			
0.3906	24998.94	3.6620	3.6620	-0.9885	25.88	0.25	-1.500			
0.3936	25188.74	3.6590	3.6590	-1.0073	25.88	0.25	-1.500			
0.3966	25382.81	3.6560	3.6559	-1.0261	25.89	0.26	-1.500			
0.3997	25581.94	3.6530	3.6530	-1.0474	25.89	0.26	-1.500			
0.4029	25785.26	3.6500	3.6500	-1.0714	25.89	0.26	-1.500			
0.4061	25992.95	3.6470	3.6470	-1.0979	25.89	0.26	-1.500			
0.4095	26205.83	3.6440	3.6440	-1.1229	25.90	0.27	-1.500			
0.4129	26424.04	3.6410	3.6409	-1.1456	25.90	0.27	-1.500			
0.4163	26645.57	3.6380	3.6380	-1.1702	25.90	0.27	-1.500			
0.4199	26873.20	3.6350	3.6350	-1.1979	25.90	0.27	-1.500			
0.4235	27106.56	3.6320	3.6321	-1.2191	25.91	0.28	-1.500			
0.4272	27343.54	3.6290	3.6289	-1.2413	25.91	0.28	-1.500			
0.4310	27584.10	3.6260	3.6261	-1.2620	25.91	0.28	-1.500			
0.4348	27826.79	3.6230	3.6230	-1.2918	25.92	0.29	-1.500			
0.4387	28077.50	3.6200	3.6201	-1.3183	25.92	0.29	-1.500			
0.4427	28332.12	3.6170	3.6169	-1.3453	25.92	0.29	-1.500			
0.4468	28592.52	3.6140	3.6141	-1.3798	25.93	0.30	-1.500			
0.4510	28864.07	3.6110	3.6110	-1.4130	25.93	0.30	-1.500			
0.4553	29137.60	3.6080	3.6080	-1.4404	25.93	0.30	-1.500			
0.4597	29418.50	3.6050	3.6050	-1.4696	25.94	0.31	-1.500			
0.4641	29701.86	3.6020	3.6023	-1.4978	25.94	0.31	-1.500			
0.4687	29995.43	3.5990	3.5989	-1.5214	25.94	0.31	-1.500			
0.4733	30288.35	3.5960	3.5960	-1.5482	25.94	0.31	-1.500			
0.4779	30586.32	3.5930	3.5931	-1.5702	25.94	0.31	-1.500			
0.4827	30893.54	3.5900	3.5900	-1.6070	25.94	0.31	-1.500			
0.4875	31200.73	3.5870	3.5869	-1.6296	25.94	0.31	-1.500			
0.4924	31515.81	3.5840	3.5840	-1.6561	25.94	0.31	-1.500			
0.4974	31836.29	3.5810	3.5810	-1.6876	25.94	0.31	-1.500			
0.5026	32166.68	3.5780	3.5780	-1.7213	25.94	0.31	-1.500			
0.5078	32499.92	3.5750	3.5751	-1.7500	25.94	0.31	-1.500			
0.5131	32837.38	3.5720	3.5720	-1.7751	25.94	0.31	-1.500			
0.5184	33180.26	3.5690	3.5690	-1.8009	25.94	0.31	-1.500			
0.5239	33527.88	3.5660	3.5660	-1.8138	25.95	0.32	-1.500			
0.5294	33880.03	3.5630	3.5630	-1.8304	25.95	0.32	-1.500			
0.5349	34233.51	3.5600	3.5601	-1.8485	25.96	0.33	-1.500			
0.5404	34588.73	3.5570	3.5570	-1.8671	25.96	0.33	-1.500			
0.5460	34945.26	3.5540	3.5540	-1.8905	25.96	0.33	-1.500			
0.5517	35311.61	3.5510	3.5509	-1.9256	25.96	0.33	-1.500			
0.5576	35687.14	3.5480	3.5480	-1.9409	25.96	0.33	-1.500			
0.5635	36064.45	3.5450	3.5451	-1.9549	25.96	0.33	-1.500			
0.5694	36441.10	3.5420	3.5420	-1.9704	25.96	0.33	-1.500	0.394	0.509	
0.5753	36818.27	3.5390	3.5389	-1.9581	25.97	0.34	-1.500			
0.5812	37195.70	3.5360	3.5359	-1.9353	25.97	0.34	-1.500			
0.5869	37563.86	3.5330	3.5332	-1.9261	25.98	0.35	-1.500			
0.5927	37934.72	3.5300	3.5300	-1.9311	25.98	0.35	-1.500			
0.5985	38303.81	3.5270	3.5269	-1.9238	25.99	0.36	-1.500			
0.6042	38670.49	3.5240	3.5240	-1.9043	25.99	0.36	-1.500			
0.6099	39035.89	3.5210	3.5211	-1.9037	26.00	0.37	-1.500			
0.6158	39411.51	3.5180	3.5180	-1.8833	26.00	0.37	-1.500			
0.6214	39766.62	3.5150	3.5150	-1.8589	26.01	0.38	-1.500			
0.6268	40117.70	3.5120	3.5121	-1.8330	26.02	0.39	-1.500			
0.6322	40462.87	3.5090	3.5088	-1.8212	26.03	0.40	-1.500			
0.6377	40812.11	3.5060	3.5060	-1.8219	26.04	0.41	-1.500			
0.6431	41160.49	3.5030	3.5030	-1.8220	26.05	0.42	-1.500			
0.6486	41510.65	3.5000	3.5000	-1.8296	26.06	0.43	-1.500			
0.6542	41867.57	3.4970	3.4969	-1.8289	26.06	0.43	-1.500			
0.6597	42218.51	3.4940	3.4940	-1.8229	26.07	0.44	-1.500			
0.6652	42570.46	3.4910	3.4911	-1.8104	26.08	0.45	-1.500			
0.6705	42914.70	3.4880	3.4880	-1.7990	26.10	0.47	-1.500			
0.6760	43260.91	3.4850	3.4850	-1.7746	26.11	0.48	-1.500			
0.6812	43598.42	3.4820	3.4820	-1.7567	26.12	0.49	-1.500			
0.6865	43935.01	3.4790	3.4789	-1.7448	26.13	0.50	-1.500			
0.6917	44266.96	3.4760	3.4759	-1.7252	26.15	0.52	-1.500			
0.6968	44594.86	3.4730	3.4730	-1.7050	26.16	0.53	-1.500			
0.7019	44922.79	3.4700	3.4699	-1.6806	26.17	0.54	-1.500			
0.7069	45242.87	3.4670	3.4671	-1.6558	26.18	0.55	-1.500			
0.7119	45560.51	3.4640	3.4640	-1.6405	26.19	0.56	-1.500			
0.7167	45870.52	3.4610	3.4609	-1.6163	26.21	0.58	-1.500			
0.7215	46178.34	3.4580	3.4580	-1.6045	26.22	0.59	-1.500			
0.7263	46483.93	3.4550	3.4550	-1.5842	26.24	0.61	-1.500			
0.7311	46789.08	3.4520	3.4520	-1.5600	26.25	0.62	-1.500			
0.7358	47088.75	3.4490	3.4491	-1.5425	26.27	0.64	-1.500			
0.7403	47381.88	3.4460	3.4460	-1.5227	26.29	0.66	-1.500			
0.7448	47670.29	3.4430	3.4429	-1.5074	26.31	0.68	-1.500			
0.7493	47954.11	3.4400	3.4400	-1.5014	26.33	0.70	-1.500			
0.7538	48243.58	3.4370	3.4370	-1.4911	26.35	0.72	-1.500			
0.7583	48532.32	3.4340	3.4339	-1.4860	26.37	0.74	-1.500			
0.7628	48816.69	3.4310	3.4311	-1.4768	26.38	0.75	-1.500			
0.7672	49098.88	3.4280	3.4280	-1.4625	26.39	0.76	-1.500			
0.7715	49378.20	3.4250	3.4249	-1.4516	26.42	0.79	-1.500			
0.7759	49655.32	3.4220	3.4220	-1.4335	26.44	0.81	-1.500			
0.7801	49927.85	3.4190	3.4190	-1.4236	26.46	0.83	-1.500			
0.7845	50206.20	3.4160	3.4160	-1.4128	26.48	0.85	-1.500			
0.7887	50475.79	3.4130	3.4130	-1.3783	26.50	0.87	-1.500			
0.7928	50737.48	3.4100	3.4100	-1.3478	26.52	0.89	-1.500			
0.7968	50994.62	3.4070	3.4070	-1.3142	26.54	0.91	-1.500			
0.8007	51243.60	3.4040	3.4040	-1.2738	26.55	0.92	-1.500			
0.8045	51484.96	3.4010	3.4010	-1.2355	26.57	0.94	-1.500			
0.8081	51718.73	3.3980	3.3980	-1.1875	26.59	0.96	-1.500			
0.8116	51944.28	3.3950	3.3950	-1.1446	26.61	0.98	-1.500			
0.8150	52161.43	3.3920	3.3920	-1.0975	26.62	0.99	-1.500			
0.8182	52365.08	3.3890	3.3890	-1.0462	26.64	1.01	-1.500			
0.8213	52560.96	3.3860	3.3860	-0.9976	26.65	1.02	-1.500			
0.8242	52747.77	3.3830	3.3830	-0.9545	26.67	1.04	-1.500			
0.8269	52923.68	3.3800	3.3800	-0.9179	26.68	1.05	-1.500			
0.8296	53096.68	3.3770	3.3769	-0.8852	26.69	1.06	-1.500			
0.8322	53262.84	3.3740	3.3739	-0.8542	26.71	1.08	-1.500			
0.8348	53424.19	3.3710	3.3709	-0.8241	26.72	1.09	-1.500			
0.8372	53580.05	3.3680	3.3680	-0.7945	26.73	1.10	-1.500			
0.8395	53730.54	3.3650	3.3650	-0.7650	26.73	1.10	-1.500			
0.8418	53872.95	3.3620	3.3619	-0.7321	26.74	1.11	-1.500			
0.8439	54009.21	3.3590	3.3591	-0.7054	26.75	1.12	-1.500			
0.8460	54142.41	3.3560	3.3559	-0.6820	26.76	1.13	-1.500			
0.8480	54270.87	3.3530	3.3530	-0.6633	26.77	1.14	-1.500			
0.8499	54395.61	3.3500	3.3500	-0.6440	26.78	1.15	-1.500			
0.8518	54516.82	3.3470	3.3469	-0.6277	26.79	1.16	-1.500			
0.8537	54636.79	3.3440	3.3441	-0.6088	26.80	1.17	-1.500			
0.8555	54752.11	3.3410	3.3409	-0.5917	26.81	1.18	-1.500			
0.8573	54864.07	3.3380	3.3381	-0.5710	26.81	1.18	-1.500			
0.8589	54972.42	3.3350	3.3350	-0.5502	26.82	1.19	-1.500			
0.8606	55075.35	3.3320	3.3321	-0.5289	26.83	1.20	-1.500			
0.8621	55174.51	3.3290	3.3290	-0.5109	26.84	1.21	-1.500			
0.8636	55269.92	3.3260	3.3260	-0.4951	26.85	1.22	-1.500			
0.8651	55363.51	3.3230	3.3229	-0.4810	26.85	1.22	-1.500			
0.8665	55453.85	3.3200	3.3200	-0.4648	26.86	1.23	-1.500			
0.8679	55542.96	3.3170	3.3169	-0.4520	26.87	1.24	-1.500			
0.8692	55628.67	3.3140	3.3141	-0.4365	26.88	1.25	-1.500			
0.8705	55710.09	3.3110	3.3110	-0.4237	26.88	1.25	-1.500			
0.8717	55789.51	3.3080	3.3080	-0.4113	26.89	1.26	-1.500			
0.8729	55866.76	3.3050	3.3050	-0.3981	26.89	1.26	-1.500			
0.8741	55942.73	3.3020	3.3020	-0.3871	26.90	1.27	-1.500			
0.8753	56016.71	3.2990	3.2991	-0.3767	26.91	1.28	-1.500			
0.8764	56088.09	3.2960	3.2960	-0.3639	26.91	1.28	-1.500			
0.8775	56156.82	3.2930	3.2929	-0.3517	26.92	1.29	-1.500			
0.8785	56221.95	3.2900	3.2900	-0.3391	26.92	1.29	-1.500			
0.8795	56285.38	3.2870	3.2871	-0.3313	26.93	1.30	-1.500			
0.8804	56348.53	3.2840	3.2839	-0.3223	26.93	1.30	-1.500			
0.8814	56409.71	3.2810	3.2808	-0.3121	26.94	1.31	-1.500			
0.8823	56468.93	3.2780	3.2781	-0.3024	26.94	1.31	-1.500			
0.8832	56526.26	3.2750	3.2750	-0.2924	26.95	1.32	-1.500			
0.8841	56581.35	3.2720	3.2721	-0.2832	26.95	1.32	-1.500			
0.8849	56634.36	3.2690	3.2690	-0.2752	26.96	1.33	-1.500			
0.8857	56685.10	3.2660	3.2660	-0.2657	26.96	1.33	-1.500			
0.8865	56736.09	3.2630	3.2630	-0.2601	26.96	1.33	-1.500			
0.8873	56785.80	3.2600	3.2599	-0.2541	26.97	1.34	-1.500			
0.8880	56833.75	3.2570	3.2570	-0.2473	26.97	1.34	-1.500			
0.8888	56880.52	3.2540	3.2541	-0.2418	26.98	1.35	-1.500			
0.8895	56925.99	3.2510	3.2509	-0.2351	26.98	1.35	-1.500			
0.8902	56970.64	3.2480	3.2480	-0.2300	26.99	1.36	-1.500			
0.8908	57014.17	3.2450	3.2450	-0.2241	26.99	1.36	-1.500			
0.8915	57056.73	3.2420	3.2421	-0.2191	27.00	1.37	-1.500			
0.8922	57098.52	3.2390	3.2390	-0.2145	27.00	1.37	-1.500			
0.8928	57139.17	3.2360	3.2360	-0.2089	27.01	1.38	-1.500			
0.8934	57178.68	3.2330	3.2329	-0.2032	27.01	1.38	-1.500			
0.8940	57216.78	3.2300	3.2300	-0.1984	27.02	1.39	-1.500			
0.8946	57253.99	3.2270	3.2270	-0.1948	27.02	1.39	-1.500			
0.8952	57291.09	3.2240	3.2241	-0.1917	27.03	1.40	-1.500			
0.8957	57327.47	3.2210	3.2209	-0.1881	27.03	1.40	-1.500			
0.8963	57363.07	3.2180	3.2180	-0.1849	27.03	1.40	-1.500			
0.8969	57398.63	3.2150	3.2151	-0.1819	27.04	1.41	-1.500			
0.8974	57433.24	3.2120	3.2120	-0.1786	27.04	1.41	-1.500			
0.8979	57467.62	3.2090	3.2089	-0.1752	27.05	1.42	-1.500			
0.8985	57500.83	3.2060	3.2061	-0.1712	27.05	1.42	-1.500			
0.8989	57532.66	3.2030	3.2031	-0.1678	27.05	1.42	-1.500			
0.8994	57564.65	3.2000	3.1999	-0.1654	27.06	1.43	-1.500			
0.8999	57596.09	3.1970	3.1970	-0.1630	27.06	1.43	-1.500			
0.9004	57626.93	3.1940	3.1939	-0.1603	27.07	1.44	-1.500			
0.9009	57657.68	3.1910	3.1910	-0.1586	27.07	1.44	-1.500			
0.9014	57687.92	3.1880	3.1881	-0.1565	27.07	1.44	-1.500			
0.9018	57717.85	3.1850	3.1850	-0.1546	27.08	1.45	-1.500			
0.9023	57747.37	3.1820	3.1820	-0.1527	27.08	1.45	-1.500			
0.9028	57776.10	3.1790	3.1790	-0.1499	27.08	1.45	-1.500			
0.9032	57804.71	3.1760	3.1760	-0.1488	27.09	1.46	-1.500			
0.9036	57833.27	3.1730	3.1730	-0.1473	27.09	1.46	-1.500			
0.9041	57861.37	3.1700	3.1701	-0.1459	27.10	1.47	-1.500			
0.9045	57889.25	3.1670	3.1669	-0.1445	27.10	1.47	-1.500			
0.9050	57916.94	3.1640	3.1641	-0.1426	27.10	1.47	-1.500			
0.9054	57944.32	3.1610	3.1610	-0.1406	27.11	1.48	-1.500			
0.9058	57971.19	3.1580	3.1580	-0.1388	27.11	1.48	-1.500			
0.9062	57997.60	3.1550	3.1551	-0.1364	27.12	1.49	-1.500			
0.9066	58023.42	3.1520	3.1520	-0.1346	27.12	1.49	-1.500			
0.9070	58048.96	3.1490	3.1489	-0.1332	27.12	1.49	-1.500			
0.9074	58074.22	3.1460	3.1459	-0.1313	27.13	1.50	-1.500			
0.9078	58099.33	3.1430	3.1431	-0.1303	27.13	1.50	-1.500			
0.9082	58124.19	3.1400	3.1400	-0.1296	27.14	1.51	-1.500			
0.9086	58149.00	3.1370	3.1370	-0.1289	27.14	1.51	-1.500			
0.9090	58173.66	3.1340	3.1340	-0.1282	27.14	1.51	-1.500			
0.9093	58198.29	3.1310	3.1310	-0.1270	27.15	1.52	-1.500			
0.9097	58222.59	3.1280	3.1280	-0.1260	27.15	1.52	-1.500			
0.9101	58246.74	3.1250	3.1252	-0.1251	27.15	1.52	-1.500			
0.9105	58270.73	3.1220	3.1219	-0.1243	27.16	1.53	-1.500			
0.9109	58294.47	3.1190	3.1191	-0.1230	27.16	1.53	-1.500			
0.9112	58317.75	3.1160	3.1159	-0.1219	27.16	1.53	-1.500			
0.9116	58340.99	3.1130	3.1130	-0.1209	27.17	1.54	-1.500			
0.9119	58364.09	3.1100	3.1101	-0.1206	27.17	1.54	-1.500			
0.9123	58387.17	3.1070	3.1069	-0.1201	27.18	1.55	-1.500			
0.9127	58410.28	3.1040	3.1041	-0.1195	27.18	1.55	-1.500			
0.9130	58433.14	3.1010	3.1009	-0.1189	27.18	1.55	-1.500			
0.9134	58456.03	3.0980	3.0979	-0.1179	27.18	1.55	-1.500			
0.9137	58478.73	3.0950	3.0951	-0.1171	27.19	1.56	-1.500			
0.9141	58501.13	3.0920	3.0921	-0.1158	27.19	1.56	-1.500			
0.9144	58523.37	3.0890	3.0889	-0.1146	27.20	1.57	-1.500			
0.9148	58545.11	3.0860	3.0860	-0.1141	27.20	1.57	-1.500			
0.9151	58566.62	3.0830	3.0831	-0.1130	27.20	1.57	-1.500			
0.9154	58588.23	3.0800	3.0800	-0.1123	27.21	1.58	-1.500			
0.9158	58609.75	3.0770	3.0770	-0.1119	27.21	1.58	-1.500			
0.9161	58631.34	3.0740	3.0740	-0.1110	27.22	1.59	-1.500			
0.9164	58652.56	3.0710	3.0710	-0.1101	27.22	1.59	-1.500			
0.9168	58673.67	3.0680	3.0681	-0.1099	27.23	1.60	-1.500			
0.9171	58694.68	3.0650	3.0650	-0.1090	27.23	1.60	-1.500			
0.9174	58715.20	3.0620	3.0620	-0.1083	27.24	1.61	-1.500			
0.9177	58735.98	3.0590	3.0589	-0.1082	27.24	1.61	-1.500			
0.9181	58756.86	3.0560	3.0560	-0.1074	27.25	1.62	-1.500			
0.9184	58777.44	3.0530	3.0530	-0.1070	27.25	1.62	-1.500			
0.9187	58798.08	3.0500	3.0501	-0.1069	27.26	1.63	-1.500			
0.9190	58818.55	3.0470	3.0470	-0.1062	27.26	1.63	-1.500			
0.9194	58838.72	3.0440	3.0440	-0.1056	27.26	1.63	-1.500			
0.9197	58858.96	3.0410	3.0409	-0.1052	27.27	1.64	-1.500			
0.9200	58879.01	3.0380	3.0381	-0.1045	27.27	1.64	-1.500			
0.9203	58899.06	3.0350	3.0350	-0.1044	27.28	1.65	-1.500			
0.9206	58919.38	3.0320	3.0321	-0.1039	27.28	1.65	-1.500			
0.9209	58939.24	3.0290	3.0290	-0.1030	27.29	1.66	-1.500			
0.9212	58958.91	3.0260	3.0260	-0.1022	27.29	1.66	-1.500			
0.9215	58978.44	3.0230	3.0231	-0.1013	27.30	1.67	-1.500			
0.9218	58997.68	3.0200	3.0200	-0.1006	27.30	1.67	-1.500			
0.9221	59016.95	3.0170	3.0170	-0.1001	27.30	1.67	-1.500			
0.9224	59035.88	3.0140	3.0140	-0.1000	27.31	1.68	-1.500			
0.9227	59055.09	3.0110	3.0110	-0.1001	27.31	1.68	-1.500			
0.9230	59074.22	3.0080	3.0079	-0.1004	27.32	1.69	-1.500			
0.9233	59093.54	3.0050	3.0050	-0.1008	27.32	1.69	-1.500			
0.9236	59112.98	3.0020	3.0021	-0.1026	27.33	1.70	-1.500			
