Ah_balance (normalized)	Ah_balance (mAh)	Voltage - fit (V)	Voltage -  interpolate (V)	dQ/dV (1/V)	Temperature (°C)	Temperature - diff (°C)	Current (C)	R_DC 0ms (mOhm)	R_DC 50ms (mOhm)	R_DC 50 ms PEC (mOhm)
0.2830	18114.90	3.9910	3.9909	0.8349	27.32	1.34	1.500			
0.2855	18274.13	3.9880	3.9880	0.8362	27.31	1.33	1.500			
0.2881	18437.74	3.9850	3.9850	0.8456	27.30	1.32	1.500			
0.2906	18600.76	3.9820	3.9820	0.8473	27.29	1.31	1.500			
0.2932	18764.91	3.9790	3.9791	0.8504	27.29	1.31	1.500			
0.2957	18926.88	3.9760	3.9761	0.8529	27.28	1.30	1.500			
0.2983	19091.40	3.9730	3.9729	0.8524	27.27	1.29	1.500			
0.3009	19254.76	3.9700	3.9700	0.8537	27.26	1.28	1.500			
0.3034	19417.22	3.9670	3.9670	0.8585	27.25	1.27	1.500			
0.3060	19582.82	3.9640	3.9640	0.8655	27.24	1.26	1.500			
0.3086	19750.29	3.9610	3.9610	0.8650	27.24	1.26	1.500			
0.3112	19915.65	3.9580	3.9581	0.8698	27.23	1.25	1.500			
0.3138	20083.13	3.9550	3.9551	0.8720	27.22	1.24	1.500			
0.3164	20252.45	3.9520	3.9518	0.8789	27.21	1.23	1.500			
0.3191	20420.05	3.9490	3.9491	0.8786	27.20	1.22	1.500			
0.3217	20588.60	3.9460	3.9460	0.8815	27.20	1.22	1.500			
0.3244	20758.51	3.9430	3.9430	0.8917	27.19	1.21	1.500			
0.3271	20931.89	3.9400	3.9399	0.8971	27.19	1.21	1.500			
0.3297	21102.37	3.9370	3.9370	0.8969	27.18	1.20	1.500			
0.3324	21275.98	3.9340	3.9340	0.9032	27.17	1.19	1.500			
0.3351	21449.40	3.9310	3.9311	0.9103	27.17	1.19	1.500			
0.3379	21624.83	3.9280	3.9280	0.9177	27.16	1.18	1.500			
0.3406	21801.39	3.9250	3.9250	0.9218	27.15	1.17	1.500			
0.3434	21977.88	3.9220	3.9220	0.9299	27.14	1.16	1.500			
0.3462	22158.45	3.9190	3.9190	0.9363	27.13	1.15	1.500			
0.3490	22338.46	3.9160	3.9160	0.9426	27.12	1.14	1.500			
0.3519	22519.84	3.9130	3.9130	0.9474	27.11	1.13	1.500			
0.3547	22701.53	3.9100	3.9099	0.9540	27.10	1.12	1.500			
0.3576	22884.61	3.9070	3.9071	0.9626	27.09	1.11	1.500			
0.3605	23071.25	3.9040	3.9040	0.9704	27.08	1.10	1.500			
0.3634	23258.19	3.9010	3.9010	0.9774	27.07	1.09	1.500			
0.3664	23446.99	3.8980	3.8980	0.9903	27.06	1.08	1.500			
0.3693	23636.77	3.8950	3.8951	0.9970	27.05	1.07	1.500			
0.3723	23829.85	3.8920	3.8919	1.0051	27.04	1.06	1.500			
0.3754	24022.54	3.8890	3.8890	1.0167	27.03	1.05	1.500			
0.3784	24219.71	3.8860	3.8860	1.0211	27.02	1.04	1.500			
0.3815	24417.91	3.8830	3.8829	1.0291	27.01	1.03	1.500			
0.3846	24613.82	3.8800	3.8801	1.0390	27.00	1.02	1.500			
0.3877	24813.42	3.8770	3.8769	1.0506	26.99	1.01	1.500			
0.3909	25015.92	3.8740	3.8739	1.0621	26.98	1.00	1.500			
0.3941	25221.26	3.8710	3.8710	1.0731	26.97	0.99	1.500			
0.3973	25427.40	3.8680	3.8681	1.0852	26.96	0.98	1.500			
0.4006	25638.73	3.8650	3.8650	1.1030	26.95	0.97	1.500			
0.4039	25850.90	3.8620	3.8620	1.1195	26.94	0.96	1.500			
0.4073	26065.99	3.8590	3.8589	1.1328	26.92	0.94	1.500			
0.4107	26285.06	3.8560	3.8560	1.1489	26.91	0.93	1.500			
0.4142	26508.01	3.8530	3.8531	1.1660	26.90	0.92	1.500			
0.4177	26735.19	3.8500	3.8499	1.1786	26.89	0.91	1.500			
0.4213	26962.05	3.8470	3.8470	1.1901	26.87	0.89	1.500			
0.4248	27189.88	3.8440	3.8441	1.2057	26.86	0.88	1.500			
0.4285	27423.85	3.8410	3.8410	1.2158	26.85	0.87	1.500			
0.4322	27658.99	3.8380	3.8379	1.2334	26.83	0.85	1.500			
0.4359	27896.25	3.8350	3.8351	1.2586	26.82	0.84	1.500			
0.4397	28140.05	3.8320	3.8320	1.2770	26.81	0.83	1.500			
0.4436	28387.66	3.8290	3.8290	1.3001	26.79	0.81	1.500			
0.4475	28637.61	3.8260	3.8261	1.3219	26.78	0.80	1.500			
0.4515	28894.33	3.8230	3.8230	1.3450	26.77	0.79	1.500			
0.4556	29158.08	3.8200	3.8200	1.3705	26.76	0.78	1.500			
0.4597	29422.68	3.8170	3.8170	1.3912	26.74	0.76	1.500			
0.4639	29690.28	3.8140	3.8141	1.4159	26.73	0.75	1.500			
0.4682	29965.54	3.8110	3.8111	1.4416	26.71	0.73	1.500			
0.4725	30242.95	3.8080	3.8080	1.4652	26.70	0.72	1.500			
0.4770	30527.27	3.8050	3.8050	1.4811	26.68	0.70	1.500			
0.4815	30814.56	3.8020	3.8020	1.5087	26.67	0.69	1.500			
0.4860	31107.14	3.7990	3.7990	1.5411	26.65	0.67	1.500			
0.4907	31402.49	3.7960	3.7959	1.5661	26.63	0.65	1.500			
0.4954	31706.94	3.7930	3.7930	1.5934	26.62	0.64	1.500			
0.5003	32016.18	3.7900	3.7901	1.6218	26.61	0.63	1.500			
0.5052	32335.19	3.7870	3.7881	1.6507	26.59	0.61	1.500	0.346	0.486	
0.5102	32651.20	3.7840	3.7841	1.6566	26.58	0.60	1.500			
0.5152	32971.06	3.7810	3.7810	1.6629	26.56	0.58	1.500			
0.5202	33292.58	3.7780	3.7780	1.6705	26.55	0.57	1.500			
0.5252	33611.18	3.7750	3.7750	1.6672	26.53	0.55	1.500			
0.5302	33930.21	3.7720	3.7720	1.6729	26.52	0.54	1.500			
0.5352	34253.30	3.7690	3.7689	1.6805	26.50	0.52	1.500			
0.5402	34575.52	3.7660	3.7660	1.6982	26.48	0.50	1.500			
0.5454	34903.88	3.7630	3.7630	1.7081	26.47	0.49	1.500			
0.5505	35234.83	3.7600	3.7599	1.7230	26.46	0.48	1.500			
0.5557	35564.13	3.7570	3.7571	1.7286	26.45	0.47	1.500			
0.5609	35895.71	3.7540	3.7540	1.7396	26.43	0.45	1.500			
0.5661	36229.20	3.7510	3.7509	1.7529	26.42	0.44	1.500			
0.5714	36568.66	3.7480	3.7481	1.7821	26.41	0.43	1.500			
0.5768	36914.06	3.7450	3.7450	1.8139	26.39	0.41	1.500			
0.5823	37266.05	3.7420	3.7420	1.8501	26.37	0.39	1.500			
0.5878	37621.67	3.7390	3.7390	1.8916	26.35	0.37	1.500			
0.5935	37986.25	3.7360	3.7360	1.9598	26.34	0.36	1.500			
0.5995	38370.35	3.7330	3.7330	2.0121	26.32	0.34	1.500			
0.6057	38762.39	3.7300	3.7300	2.0826	26.31	0.33	1.500			
0.6120	39170.88	3.7270	3.7270	2.1332	26.29	0.31	1.500			
0.6185	39584.16	3.7240	3.7240	2.1766	26.28	0.30	1.500			
0.6250	40001.24	3.7210	3.7210	2.2147	26.26	0.28	1.500			
0.6318	40432.73	3.7180	3.7179	2.2526	26.24	0.26	1.500			
0.6385	40866.41	3.7150	3.7151	2.2870	26.23	0.25	1.500			
0.6455	41311.35	3.7120	3.7120	2.3112	26.21	0.23	1.500			
0.6525	41762.39	3.7090	3.7090	2.2372	26.19	0.21	1.500			
0.6592	42189.46	3.7060	3.7060	2.1425	26.18	0.20	1.500			
0.6654	42588.61	3.7030	3.7030	2.0097	26.16	0.18	1.500			
0.6712	42957.89	3.7000	3.7000	1.8641	26.15	0.17	1.500			
0.6766	43304.43	3.6970	3.6969	1.7445	26.14	0.16	1.500			
0.6816	43621.98	3.6940	3.6940	1.6372	26.14	0.16	1.500			
0.6863	43925.64	3.6910	3.6910	1.5580	26.13	0.15	1.500			
0.6908	44212.12	3.6880	3.6879	1.4821	26.12	0.14	1.500			
0.6951	44488.71	3.6850	3.6850	1.4190	26.11	0.13	1.500			
0.6993	44754.80	3.6820	3.6820	1.3720	26.10	0.12	1.500			
0.7033	45013.09	3.6790	3.6790	1.3306	26.09	0.11	1.500			
0.7072	45260.65	3.6760	3.6761	1.2942	26.08	0.10	1.500			
0.7110	45505.38	3.6730	3.6730	1.2731	26.07	0.09	1.500			
0.7147	45742.04	3.6700	3.6700	1.2591	26.06	0.08	1.500			
0.7185	45982.83	3.6670	3.6670	1.2598	26.06	0.08	1.500			
0.7222	46223.81	3.6640	3.6640	1.2579	26.05	0.07	1.500			
0.7260	46465.34	3.6610	3.6610	1.2606	26.04	0.06	1.500			
0.7298	46710.06	3.6580	3.6581	1.2574	26.03	0.05	1.500			
0.7336	46952.53	3.6550	3.6550	1.2502	26.03	0.05	1.500			
0.7374	47192.66	3.6520	3.6520	1.2406	26.02	0.04	1.500			
0.7411	47428.06	3.6490	3.6490	1.2320	26.01	0.03	1.500			
0.7447	47661.97	3.6460	3.6461	1.2239	26.01	0.03	1.500			
0.7484	47897.81	3.6430	3.6429	1.2124	26.00	0.02	1.500			
0.7520	48129.08	3.6400	3.6399	1.2016	26.00	0.02	1.500			
0.7556	48359.54	3.6370	3.6371	1.1910	25.99	0.01	1.500			
0.7592	48586.81	3.6340	3.6340	1.1837	25.99	0.01	1.500			
0.7627	48813.67	3.6310	3.6309	1.1739	25.98	0.00	1.500			
0.7662	49038.03	3.6280	3.6280	1.1618	25.98	0.00	1.500			
0.7697	49259.91	3.6250	3.6250	1.1502	25.98	-0.00	1.500			
0.7732	49481.72	3.6220	3.6220	1.1368	25.97	-0.01	1.500			
0.7765	49699.11	3.6190	3.6190	1.1189	25.97	-0.01	1.500			
0.7799	49913.86	3.6160	3.6160	1.0913	25.97	-0.01	1.500			
0.7831	50120.42	3.6130	3.6130	1.0672	25.97	-0.01	1.500			
0.7863	50323.28	3.6100	3.6101	1.0433	25.96	-0.02	1.500			
0.7894	50520.87	3.6070	3.6070	1.0172	25.96	-0.02	1.500			
0.7924	50713.80	3.6040	3.6040	0.9909	25.96	-0.02	1.500			
0.7953	50901.76	3.6010	3.6010	0.9627	25.96	-0.02	1.500			
0.7982	51084.78	3.5980	3.5980	0.9301	25.97	-0.01	1.500			
0.8010	51263.79	3.5950	3.5950	0.8854	25.97	-0.01	1.500			
0.8036	51432.78	3.5920	3.5920	0.8327	25.97	-0.01	1.500			
0.8061	51590.20	3.5890	3.5890	0.7598	25.97	-0.01	1.500			
0.8083	51731.70	3.5860	3.5861	0.6813	25.97	-0.01	1.500			
0.8102	51855.49	3.5830	3.5830	0.5980	25.97	-0.01	1.500			
0.8119	51961.22	3.5800	3.5800	0.5128	25.98	-0.00	1.500			
0.8132	52047.88	3.5770	3.5770	0.4387	25.98	-0.00	1.500			
0.8144	52121.66	3.5740	3.5739	0.3753	25.98	-0.00	1.500			
0.8154	52183.52	3.5710	3.5710	0.3207	25.98	-0.00	1.500			
0.8162	52239.61	3.5680	3.5679	0.2758	25.98	-0.00	1.500			
0.8170	52285.79	3.5650	3.5649	0.2415	25.98	0.00	1.500			
0.8176	52327.68	3.5620	3.5620	0.2153	25.98	0.00	1.500			
0.8182	52364.29	3.5590	3.5590	0.1923	25.98	0.00	1.500			
0.8187	52398.72	3.5560	3.5559	0.1722	25.98	0.00	1.500			
0.8192	52429.36	3.5530	3.5530	0.1554	25.98	0.00	1.500			
0.8196	52457.14	3.5500	3.5500	0.1388	25.98	0.00	1.500			
0.8200	52482.34	3.5470	3.5471	0.1238	25.98	0.00	1.500			
0.8204	52504.67	3.5440	3.5440	0.1088	25.98	0.00	1.500			
0.8207	52524.05	3.5410	3.5409	0.0937	25.98	0.00	1.500			
0.8209	52540.63	3.5380	3.5382	0.0788	25.98	0.00	1.500			
0.8212	52554.34	3.5350	3.5353	0.0639	25.98	0.00	1.500			
0.8213	52565.31	3.5320	3.5324	0.0486	25.98	0.00	1.500			
0.8215	52573.17	3.5290	3.5298	0.0333	25.98	0.00	1.500			
