Ah_balance (normalized)	Ah_balance (mAh)	Voltage - fit (V)	Voltage -  interpolate (V)	dQ/dV (1/V)	Temperature (°C)	Temperature - diff (°C)	Current (C)	R_DC 0ms (mOhm)	R_DC 50ms (mOhm)	R_DC 50 ms PEC (mOhm)
0.2186	13987.74	3.9140	3.9137	-0.0880	25.90	0.00	-1.500			
0.2189	14007.80	3.9110	3.9108	-0.1209	25.90	0.00	-1.500			
0.2193	14034.34	3.9080	3.9080	-0.1537	25.90	0.00	-1.500			
0.2198	14068.06	3.9050	3.9049	-0.1835	25.90	0.00	-1.500			
0.2204	14106.33	3.9020	3.9020	-0.2111	25.90	0.00	-1.500			
0.2211	14149.80	3.8990	3.8990	-0.2385	25.90	0.00	-1.500			
0.2219	14198.93	3.8960	3.8961	-0.2664	25.90	0.00	-1.500			
0.2227	14252.67	3.8930	3.8929	-0.2920	25.90	0.00	-1.500			
0.2236	14311.07	3.8900	3.8901	-0.3172	25.90	0.00	-1.500			
0.2246	14374.12	3.8870	3.8870	-0.3432	25.90	0.00	-1.500			
0.2257	14442.83	3.8840	3.8840	-0.3691	25.90	0.00	-1.500			
0.2268	14516.35	3.8810	3.8810	-0.3939	25.90	0.00	-1.500			
0.2280	14594.12	3.8780	3.8780	-0.4187	25.90	0.00	-1.500			
0.2293	14677.56	3.8750	3.8751	-0.4419	25.90	0.00	-1.500			
0.2307	14765.03	3.8720	3.8720	-0.4648	25.90	0.00	-1.500			
0.2321	14856.51	3.8690	3.8690	-0.4867	25.90	0.00	-1.500			
0.2336	14951.94	3.8660	3.8660	-0.5081	25.90	0.00	-1.500			
0.2352	15051.97	3.8630	3.8630	-0.5282	25.90	0.00	-1.500			
0.2368	15156.09	3.8600	3.8599	-0.5437	25.90	0.00	-1.500			
0.2385	15261.86	3.8570	3.8571	-0.5624	25.90	0.00	-1.500			
0.2402	15371.99	3.8540	3.8540	-0.5790	25.90	0.00	-1.500			
0.2420	15485.10	3.8510	3.8510	-0.5927	25.90	0.00	-1.500			
0.2438	15600.30	3.8480	3.8480	-0.6057	25.90	0.00	-1.500			
0.2456	15718.01	3.8450	3.8451	-0.6165	25.90	0.00	-1.500			
0.2475	15838.38	3.8420	3.8420	-0.6256	25.90	0.00	-1.500			
0.2494	15960.20	3.8390	3.8390	-0.6357	25.90	0.00	-1.500			
0.2513	16081.62	3.8360	3.8360	-0.6406	25.90	0.00	-1.500			
0.2532	16205.58	3.8330	3.8330	-0.6478	25.90	0.00	-1.500			
0.2552	16330.80	3.8300	3.8299	-0.6539	25.90	0.00	-1.500			
0.2571	16456.97	3.8270	3.8270	-0.6603	25.90	0.00	-1.500			
0.2591	16585.18	3.8240	3.8240	-0.6645	25.91	0.01	-1.500			
0.2612	16713.66	3.8210	3.8210	-0.6680	25.91	0.01	-1.500			
0.2631	16841.48	3.8180	3.8180	-0.6703	25.91	0.01	-1.500			
0.2652	16970.26	3.8150	3.8151	-0.6715	25.91	0.01	-1.500			
0.2672	17099.73	3.8120	3.8119	-0.6734	25.91	0.01	-1.500			
0.2692	17228.96	3.8090	3.8090	-0.6763	25.91	0.01	-1.500			
0.2712	17359.02	3.8060	3.8060	-0.6768	25.92	0.02	-1.500			
0.2733	17489.69	3.8030	3.8030	-0.6806	25.92	0.02	-1.500			
0.2753	17620.44	3.8000	3.8000	-0.6797	25.92	0.02	-1.500			
0.2773	17750.27	3.7970	3.7970	-0.6787	25.92	0.02	-1.500			
0.2794	17881.22	3.7940	3.7940	-0.6774	25.92	0.02	-1.500			
0.2814	18010.40	3.7910	3.7910	-0.6788	25.93	0.03	-1.500			
0.2834	18140.05	3.7880	3.7881	-0.6792	25.93	0.03	-1.500			
0.2855	18270.62	3.7850	3.7849	-0.6830	25.93	0.03	-1.500			
0.2875	18401.63	3.7820	3.7820	-0.6828	25.94	0.04	-1.500			
0.2896	18533.63	3.7790	3.7790	-0.6865	25.94	0.04	-1.500			
0.2917	18666.63	3.7760	3.7761	-0.6875	25.94	0.04	-1.500			
0.2937	18798.77	3.7730	3.7730	-0.6891	25.95	0.05	-1.500			
0.2958	18929.66	3.7700	3.7700	-0.6853	25.95	0.05	-1.500			
0.2978	19061.92	3.7670	3.7670	-0.6862	25.95	0.05	-1.500			
0.2999	19191.85	3.7640	3.7640	-0.6877	25.96	0.06	-1.500			
0.3020	19324.81	3.7610	3.7611	-0.6902	25.96	0.06	-1.500			
0.3040	19457.08	3.7580	3.7579	-0.6920	25.96	0.06	-1.500			
0.3061	19590.59	3.7550	3.7550	-0.6943	25.97	0.07	-1.500			
0.3082	19724.04	3.7520	3.7520	-0.6965	25.97	0.07	-1.500			
0.3103	19857.99	3.7490	3.7490	-0.6990	25.98	0.08	-1.500			
0.3124	19992.48	3.7460	3.7460	-0.6995	25.98	0.08	-1.500			
0.3145	20125.37	3.7430	3.7430	-0.7020	25.99	0.09	-1.500			
0.3166	20261.30	3.7400	3.7399	-0.7071	25.99	0.09	-1.500			
0.3187	20396.87	3.7370	3.7370	-0.7120	25.99	0.09	-1.500			
0.3209	20534.42	3.7340	3.7340	-0.7166	26.00	0.10	-1.500			
0.3230	20673.16	3.7310	3.7310	-0.7190	26.00	0.10	-1.500			
0.3252	20811.32	3.7280	3.7280	-0.7247	26.01	0.11	-1.500			
0.3273	20950.36	3.7250	3.7250	-0.7294	26.01	0.11	-1.500			
0.3295	21090.44	3.7220	3.7220	-0.7317	26.02	0.12	-1.500			
0.3317	21231.27	3.7190	3.7190	-0.7387	26.02	0.12	-1.500			
0.3339	21372.79	3.7160	3.7160	-0.7457	26.02	0.12	-1.500			
0.3362	21517.86	3.7130	3.7130	-0.7533	26.03	0.13	-1.500			
0.3385	21664.23	3.7100	3.7100	-0.7598	26.03	0.13	-1.500			
0.3408	21808.57	3.7070	3.7070	-0.7673	26.04	0.14	-1.500			
0.3431	21956.22	3.7040	3.7041	-0.7796	26.04	0.14	-1.500			
0.3454	22107.95	3.7010	3.7009	-0.7860	26.05	0.15	-1.500			
0.3478	22259.57	3.6980	3.6979	-0.7896	26.05	0.15	-1.500			
0.3502	22410.95	3.6950	3.6951	-0.8004	26.06	0.16	-1.500			
0.3526	22565.59	3.6920	3.6921	-0.8115	26.06	0.16	-1.500			
0.3550	22721.49	3.6890	3.6889	-0.8255	26.07	0.17	-1.500			
0.3575	22880.35	3.6860	3.6859	-0.8372	26.07	0.17	-1.500			
0.3600	23042.54	3.6830	3.6831	-0.8478	26.07	0.17	-1.500			
0.3626	23208.57	3.6800	3.6800	-0.8632	26.08	0.18	-1.500			
0.3653	23376.69	3.6770	3.6771	-0.8760	26.08	0.18	-1.500			
0.3679	23543.64	3.6740	3.6740	-0.8867	26.09	0.19	-1.500			
0.3705	23714.97	3.6710	3.6709	-0.8962	26.09	0.19	-1.500			
0.3732	23887.10	3.6680	3.6680	-0.9107	26.09	0.19	-1.500			
0.3760	24063.59	3.6650	3.6650	-0.9250	26.10	0.20	-1.500			
0.3788	24242.83	3.6620	3.6621	-0.9408	26.10	0.20	-1.500			
0.3816	24425.38	3.6590	3.6590	-0.9562	26.10	0.20	-1.500			
0.3845	24610.18	3.6560	3.6560	-0.9698	26.11	0.21	-1.500			
0.3874	24796.80	3.6530	3.6530	-0.9834	26.11	0.21	-1.500			
0.3904	24986.65	3.6500	3.6500	-1.0085	26.11	0.21	-1.500			
0.3935	25181.45	3.6470	3.6470	-1.0250	26.11	0.21	-1.500			
0.3966	25380.73	3.6440	3.6440	-1.0463	26.12	0.22	-1.500			
0.3998	25584.51	3.6410	3.6410	-1.0575	26.12	0.22	-1.500			
0.4030	25790.49	3.6380	3.6380	-1.0754	26.12	0.22	-1.500			
0.4062	25998.13	3.6350	3.6351	-1.0918	26.12	0.22	-1.500			
0.4095	26206.46	3.6320	3.6320	-1.1086	26.13	0.23	-1.500			
0.4128	26418.43	3.6290	3.6290	-1.1287	26.13	0.23	-1.500			
0.4162	26639.13	3.6260	3.6260	-1.1554	26.13	0.23	-1.500			
0.4198	26865.09	3.6230	3.6230	-1.1754	26.13	0.23	-1.500			
0.4233	27094.31	3.6200	3.6200	-1.1971	26.14	0.24	-1.500			
0.4269	27324.61	3.6170	3.6171	-1.2181	26.14	0.24	-1.500			
0.4306	27560.51	3.6140	3.6140	-1.2368	26.14	0.24	-1.500			
0.4344	27799.90	3.6110	3.6109	-1.2487	26.15	0.25	-1.500			
0.4381	28041.15	3.6080	3.6080	-1.2753	26.15	0.25	-1.500			
0.4420	28288.67	3.6050	3.6051	-1.2991	26.15	0.25	-1.500			
0.4460	28541.84	3.6020	3.6020	-1.3123	26.16	0.26	-1.500			
0.4499	28795.31	3.5990	3.5989	-1.3280	26.16	0.26	-1.500			
0.4539	29051.21	3.5960	3.5959	-1.3416	26.16	0.26	-1.500			
0.4580	29309.73	3.5930	3.5930	-1.3610	26.16	0.26	-1.500			
0.4621	29571.87	3.5900	3.5900	-1.3791	26.16	0.26	-1.500			
0.4662	29834.33	3.5870	3.5870	-1.3982	26.16	0.26	-1.500			
0.4705	30109.16	3.5840	3.5840	-1.4264	26.16	0.26	-1.500			
0.4748	30388.25	3.5810	3.5810	-1.4450	26.16	0.26	-1.500			
0.4792	30666.65	3.5780	3.5781	-1.4624	26.16	0.26	-1.500			
0.4836	30949.45	3.5750	3.5750	-1.4824	26.16	0.26	-1.500			
0.4881	31235.69	3.5720	3.5719	-1.5031	26.16	0.26	-1.500			
0.4926	31525.28	3.5690	3.5690	-1.5205	26.17	0.27	-1.500			
0.4972	31819.26	3.5660	3.5660	-1.5358	26.17	0.27	-1.500			
0.5018	32118.34	3.5630	3.5632	-1.5589	26.17	0.27	-1.500			
0.5066	32420.00	3.5600	3.5600	-1.5702	26.17	0.27	-1.500			
0.5112	32719.36	3.5570	3.5570	-1.5936	26.17	0.27	-1.500			
0.5161	33028.63	3.5540	3.5540	-1.6068	26.18	0.28	-1.500			
0.5210	33340.99	3.5510	3.5509	-1.6262	26.18	0.28	-1.500			
0.5258	33653.86	3.5480	3.5481	-1.6364	26.18	0.28	-1.500			
0.5308	33970.97	3.5450	3.5450	-1.6509	26.18	0.28	-1.500			
0.5357	34285.97	3.5420	3.5420	-1.6749	26.19	0.29	-1.500			
0.5407	34606.67	3.5390	3.5390	-1.7028	26.19	0.29	-1.500			
0.5459	34938.00	3.5360	3.5358	-1.7152	26.20	0.30	-1.500			
0.5512	35277.20	3.5330	3.5331	-1.7329	26.20	0.30	-1.500			
0.5564	35610.97	3.5300	3.5302	-1.7285	26.21	0.31	-1.500	0.378	0.521	
0.5617	35947.42	3.5270	3.5270	-1.7364	26.21	0.31	-1.500			
0.5669	36280.42	3.5240	3.5239	-1.7230	26.22	0.32	-1.500			
0.5719	36602.62	3.5210	3.5210	-1.7237	26.22	0.32	-1.500			
0.5771	36934.64	3.5180	3.5182	-1.7315	26.23	0.33	-1.500			
0.5823	37269.17	3.5150	3.5149	-1.7390	26.24	0.34	-1.500			
0.5876	37605.86	3.5120	3.5120	-1.7553	26.25	0.35	-1.500			
0.5928	37941.98	3.5090	3.5090	-1.7520	26.26	0.36	-1.500			
0.5982	38284.18	3.5060	3.5059	-1.7597	26.27	0.37	-1.500			
0.6035	38621.07	3.5030	3.5030	-1.7610	26.28	0.38	-1.500			
0.6087	38958.02	3.5000	3.5000	-1.7553	26.29	0.39	-1.500			
0.6140	39297.56	3.4970	3.4969	-1.7518	26.30	0.40	-1.500			
0.6192	39631.45	3.4940	3.4940	-1.7394	26.31	0.41	-1.500			
0.6245	39969.12	3.4910	3.4910	-1.7406	26.32	0.42	-1.500			
0.6297	40302.64	3.4880	3.4880	-1.7381	26.33	0.43	-1.500			
0.6349	40635.28	3.4850	3.4849	-1.7297	26.34	0.44	-1.500			
0.6401	40966.02	3.4820	3.4819	-1.7265	26.35	0.45	-1.500			
0.6453	41298.15	3.4790	3.4790	-1.7196	26.36	0.46	-1.500			
0.6505	41633.66	3.4760	3.4759	-1.7045	26.38	0.48	-1.500			
0.6556	41958.91	3.4730	3.4729	-1.6764	26.39	0.49	-1.500			
0.6606	42277.09	3.4700	3.4700	-1.6561	26.40	0.50	-1.500			
0.6655	42591.30	3.4670	3.4670	-1.6308	26.41	0.51	-1.500			
0.6703	42900.90	3.4640	3.4640	-1.6068	26.43	0.53	-1.500			
0.6752	43210.18	3.4610	3.4611	-1.5934	26.44	0.54	-1.500			
0.6799	43515.04	3.4580	3.4579	-1.5720	26.45	0.55	-1.500			
0.6846	43815.31	3.4550	3.4550	-1.5538	26.47	0.57	-1.500			
0.6892	44110.68	3.4520	3.4520	-1.5347	26.48	0.58	-1.500			
0.6938	44400.85	3.4490	3.4490	-1.5111	26.50	0.60	-1.500			
0.6983	44693.43	3.4460	3.4459	-1.4972	26.51	0.61	-1.500			
0.7028	44979.53	3.4430	3.4430	-1.4737	26.53	0.63	-1.500			
0.7072	45260.66	3.4400	3.4400	-1.4529	26.54	0.64	-1.500			
0.7115	45535.24	3.4370	3.4370	-1.4493	26.56	0.66	-1.500			
0.7158	45812.46	3.4340	3.4340	-1.4266	26.58	0.68	-1.500			
0.7201	46085.33	3.4310	3.4309	-1.4115	26.59	0.69	-1.500			
0.7243	46355.10	3.4280	3.4281	-1.3981	26.61	0.71	-1.500			
0.7285	46622.95	3.4250	3.4250	-1.3889	26.63	0.73	-1.500			
0.7326	46887.82	3.4220	3.4219	-1.3780	26.65	0.75	-1.500			
0.7367	47148.19	3.4190	3.4189	-1.3669	26.66	0.76	-1.500			
0.7408	47411.63	3.4160	3.4160	-1.3473	26.68	0.78	-1.500			
0.7449	47674.24	3.4130	3.4130	-1.3362	26.70	0.80	-1.500			
0.7489	47931.87	3.4100	3.4099	-1.3064	26.72	0.82	-1.500			
0.7528	48179.99	3.4070	3.4071	-1.2711	26.73	0.83	-1.500			
0.7566	48420.66	3.4040	3.4040	-1.2309	26.74	0.84	-1.500			
0.7602	48651.09	3.4010	3.4010	-1.1996	26.76	0.86	-1.500			
0.7637	48876.34	3.3980	3.3980	-1.1527	26.78	0.88	-1.500			
0.7672	49097.71	3.3950	3.3950	-1.1229	26.79	0.89	-1.500			
0.7705	49309.03	3.3920	3.3919	-1.0854	26.81	0.91	-1.500			
0.7737	49515.07	3.3890	3.3890	-1.0466	26.83	0.93	-1.500			
0.7767	49711.54	3.3860	3.3860	-1.0059	26.84	0.94	-1.500			
0.7797	49900.17	3.3830	3.3830	-0.9694	26.85	0.95	-1.500			
0.7825	50081.48	3.3800	3.3801	-0.9241	26.87	0.97	-1.500			
0.7853	50257.88	3.3770	3.3769	-0.8959	26.88	0.98	-1.500			
0.7879	50424.44	3.3740	3.3740	-0.8619	26.89	0.99	-1.500			
0.7904	50586.19	3.3710	3.3710	-0.8297	26.90	1.00	-1.500			
0.7928	50742.35	3.3680	3.3679	-0.8017	26.91	1.01	-1.500			
0.7952	50892.39	3.3650	3.3650	-0.7740	26.92	1.02	-1.500			
0.7975	51037.88	3.3620	3.3620	-0.7470	26.93	1.03	-1.500			
0.7997	51179.83	3.3590	3.3589	-0.7258	26.94	1.04	-1.500			
0.8018	51315.92	3.3560	3.3561	-0.6998	26.94	1.04	-1.500			
0.8039	51448.01	3.3530	3.3530	-0.6771	26.95	1.05	-1.500			
0.8059	51576.55	3.3500	3.3500	-0.6577	26.96	1.06	-1.500			
0.8078	51700.59	3.3470	3.3470	-0.6361	26.97	1.07	-1.500			
0.8097	51819.57	3.3440	3.3440	-0.6163	26.98	1.08	-1.500			
0.8115	51936.50	3.3410	3.3410	-0.5975	26.99	1.09	-1.500			
0.8133	52048.57	3.3380	3.3379	-0.5806	27.00	1.10	-1.500			
0.8150	52158.66	3.3350	3.3350	-0.5642	27.01	1.11	-1.500			
0.8167	52266.12	3.3320	3.3320	-0.5466	27.01	1.11	-1.500			
0.8183	52369.11	3.3290	3.3291	-0.5285	27.02	1.12	-1.500			
0.8198	52469.04	3.3260	3.3260	-0.5132	27.03	1.13	-1.500			
0.8213	52564.95	3.3230	3.3228	-0.5000	27.04	1.14	-1.500			
0.8228	52659.70	3.3200	3.3199	-0.4851	27.04	1.14	-1.500			
0.8242	52751.22	3.3170	3.3170	-0.4693	27.05	1.15	-1.500			
0.8256	52840.99	3.3140	3.3140	-0.4579	27.06	1.16	-1.500			
0.8270	52927.55	3.3110	3.3111	-0.4451	27.06	1.16	-1.500			
0.8283	53011.13	3.3080	3.3080	-0.4343	27.07	1.17	-1.500			
0.8296	53092.48	3.3050	3.3050	-0.4202	27.08	1.18	-1.500			
0.8308	53171.92	3.3020	3.3019	-0.4077	27.08	1.18	-1.500			
0.8320	53249.53	3.2990	3.2991	-0.4006	27.09	1.19	-1.500			
0.8332	53325.86	3.2960	3.2961	-0.3915	27.09	1.19	-1.500			
0.8344	53399.65	3.2930	3.2929	-0.3806	27.10	1.20	-1.500			
0.8355	53471.16	3.2900	3.2899	-0.3711	27.10	1.20	-1.500			
0.8366	53541.55	3.2870	3.2871	-0.3632	27.11	1.21	-1.500			
0.8377	53611.43	3.2840	3.2839	-0.3569	27.12	1.22	-1.500			
0.8387	53678.93	3.2810	3.2809	-0.3481	27.12	1.22	-1.500			
0.8398	53744.57	3.2780	3.2781	-0.3383	27.13	1.23	-1.500			
0.8408	53809.11	3.2750	3.2750	-0.3315	27.13	1.23	-1.500			
0.8418	53872.44	3.2720	3.2719	-0.3223	27.14	1.24	-1.500			
0.8427	53933.07	3.2690	3.2691	-0.3131	27.14	1.24	-1.500			
0.8436	53991.75	3.2660	3.2659	-0.3060	27.15	1.25	-1.500			
0.8445	54049.52	3.2630	3.2630	-0.2996	27.15	1.25	-1.500			
0.8454	54105.89	3.2600	3.2599	-0.2932	27.15	1.25	-1.500			
0.8463	54161.66	3.2570	3.2571	-0.2890	27.16	1.26	-1.500			
0.8472	54217.69	3.2540	3.2539	-0.2843	27.16	1.26	-1.500			
0.8480	54272.38	3.2510	3.2510	-0.2789	27.17	1.27	-1.500			
0.8488	54324.90	3.2480	3.2480	-0.2727	27.17	1.27	-1.500			
0.8496	54376.33	3.2450	3.2450	-0.2659	27.18	1.28	-1.500			
0.8504	54426.72	3.2420	3.2420	-0.2613	27.18	1.28	-1.500			
0.8512	54476.12	3.2390	3.2389	-0.2570	27.19	1.29	-1.500			
0.8520	54525.02	3.2360	3.2361	-0.2519	27.19	1.29	-1.500			
0.8527	54573.09	3.2330	3.2330	-0.2488	27.20	1.30	-1.500			
0.8534	54620.72	3.2300	3.2301	-0.2443	27.20	1.30	-1.500			
0.8542	54667.16	3.2270	3.2269	-0.2403	27.21	1.31	-1.500			
0.8549	54712.62	3.2240	3.2241	-0.2355	27.21	1.31	-1.500			
0.8556	54757.39	3.2210	3.2210	-0.2312	27.22	1.32	-1.500			
0.8563	54801.25	3.2180	3.2180	-0.2284	27.22	1.32	-1.500			
0.8569	54844.69	3.2150	3.2150	-0.2265	27.23	1.33	-1.500			
0.8576	54887.90	3.2120	3.2119	-0.2226	27.23	1.33	-1.500			
0.8583	54930.42	3.2090	3.2090	-0.2203	27.24	1.34	-1.500			
0.8590	54972.93	3.2060	3.2060	-0.2169	27.24	1.34	-1.500			
0.8596	55014.34	3.2030	3.2031	-0.2136	27.25	1.35	-1.500			
0.8602	55054.90	3.2000	3.2000	-0.2112	27.25	1.35	-1.500			
0.8609	55095.11	3.1970	3.1970	-0.2077	27.25	1.35	-1.500			
0.8615	55134.07	3.1940	3.1940	-0.2058	27.26	1.36	-1.500			
0.8621	55173.21	3.1910	3.1909	-0.2025	27.26	1.36	-1.500			
0.8627	55212.30	3.1880	3.1880	-0.2012	27.27	1.37	-1.500			
0.8633	55250.69	3.1850	3.1850	-0.1988	27.27	1.37	-1.500			
0.8639	55288.84	3.1820	3.1820	-0.1969	27.27	1.37	-1.500			
0.8645	55326.61	3.1790	3.1789	-0.1938	27.28	1.38	-1.500			
0.8650	55363.03	3.1760	3.1759	-0.1914	27.28	1.38	-1.500			
0.8656	55399.58	3.1730	3.1731	-0.1895	27.29	1.39	-1.500			
0.8662	55435.52	3.1700	3.1700	-0.1875	27.29	1.39	-1.500			
0.8667	55471.61	3.1670	3.1669	-0.1863	27.30	1.40	-1.500			
0.8673	55507.29	3.1640	3.1640	-0.1838	27.30	1.40	-1.500			
0.8678	55542.13	3.1610	3.1611	-0.1825	27.31	1.41	-1.500			
0.8684	55576.95	3.1580	3.1580	-0.1810	27.31	1.41	-1.500			
0.8689	55611.82	3.1550	3.1550	-0.1795	27.32	1.42	-1.500			
0.8695	55645.89	3.1520	3.1519	-0.1769	27.32	1.42	-1.500			
0.8700	55679.75	3.1490	3.1490	-0.1755	27.33	1.43	-1.500			
0.8705	55713.28	3.1460	3.1461	-0.1738	27.33	1.43	-1.500			
0.8710	55746.51	3.1430	3.1430	-0.1721	27.34	1.44	-1.500			
0.8716	55779.59	3.1400	3.1399	-0.1705	27.34	1.44	-1.500			
0.8721	55811.50	3.1370	3.1371	-0.1681	27.35	1.45	-1.500			
0.8726	55843.70	3.1340	3.1340	-0.1673	27.35	1.45	-1.500			
0.8731	55875.74	3.1310	3.1310	-0.1667	27.36	1.46	-1.500			
0.8736	55907.73	3.1280	3.1279	-0.1657	27.36	1.46	-1.500			
0.8741	55939.37	3.1250	3.1250	-0.1646	27.37	1.47	-1.500			
0.8745	55970.92	3.1220	3.1221	-0.1639	27.37	1.47	-1.500			
0.8750	56002.54	3.1190	3.1190	-0.1628	27.38	1.48	-1.500			
0.8755	56033.96	3.1160	3.1160	-0.1616	27.38	1.48	-1.500			
0.8760	56064.72	3.1130	3.1129	-0.1596	27.38	1.48	-1.500			
0.8765	56095.20	3.1100	3.1102	-0.1579	27.39	1.49	-1.500			
0.8770	56125.40	3.1070	3.1070	-0.1563	27.39	1.49	-1.500			
0.8774	56154.99	3.1040	3.1040	-0.1552	27.40	1.50	-1.500			
0.8779	56184.69	3.1010	3.1010	-0.1541	27.41	1.51	-1.500			
0.8783	56213.78	3.0980	3.0980	-0.1537	27.41	1.51	-1.500			
0.8788	56243.34	3.0950	3.0949	-0.1529	27.42	1.52	-1.500			
0.8793	56273.03	3.0920	3.0919	-0.1519	27.42	1.52	-1.500			
0.8797	56302.06	3.0890	3.0891	-0.1505	27.43	1.53	-1.500			
0.8802	56330.98	3.0860	3.0861	-0.1498	27.43	1.53	-1.500			
0.8806	56359.69	3.0830	3.0830	-0.1487	27.44	1.54	-1.500			
0.8811	56387.71	3.0800	3.0800	-0.1471	27.44	1.54	-1.500			
0.8815	56415.90	3.0770	3.0769	-0.1465	27.45	1.55	-1.500			
0.8819	56443.82	3.0740	3.0741	-0.1450	27.45	1.55	-1.500			
0.8824	56471.74	3.0710	3.0710	-0.1444	27.46	1.56	-1.500			
0.8828	56499.52	3.0680	3.0681	-0.1438	27.46	1.56	-1.500			
0.8832	56527.00	3.0650	3.0650	-0.1425	27.47	1.57	-1.500			
0.8837	56554.01	3.0620	3.0619	-0.1414	27.47	1.57	-1.500			
0.8841	56581.00	3.0590	3.0590	-0.1409	27.48	1.58	-1.500			
0.8845	56607.82	3.0560	3.0560	-0.1401	27.48	1.58	-1.500			
0.8849	56634.79	3.0530	3.0530	-0.1394	27.49	1.59	-1.500			
0.8853	56661.70	3.0500	3.0501	-0.1390	27.49	1.59	-1.500			
0.8858	56688.32	3.0470	3.0470	-0.1381	27.50	1.60	-1.500			
0.8862	56714.82	3.0440	3.0440	-0.1373	27.50	1.60	-1.500			
0.8866	56741.05	3.0410	3.0410	-0.1365	27.50	1.60	-1.500			
0.8870	56767.21	3.0380	3.0380	-0.1353	27.51	1.61	-1.500			
0.8874	56793.03	3.0350	3.0350	-0.1342	27.51	1.61	-1.500			
0.8878	56818.72	3.0320	3.0319	-0.1333	27.52	1.62	-1.500			
0.8882	56844.24	3.0290	3.0291	-0.1328	27.52	1.62	-1.500			
0.8886	56869.50	3.0260	3.0259	-0.1321	27.53	1.63	-1.500			
0.8890	56894.84	3.0230	3.0229	-0.1314	27.53	1.63	-1.500			
0.8894	56920.04	3.0200	3.0201	-0.1310	27.54	1.64	-1.500			
0.8898	56945.10	3.0170	3.0170	-0.1303	27.54	1.64	-1.500			
0.8902	56970.24	3.0140	3.0140	-0.1298	27.55	1.65	-1.500			
0.8905	56995.12	3.0110	3.0110	-0.1289	27.55	1.65	-1.500			
0.8909	57019.77	3.0080	3.0080	-0.1279	27.55	1.65	-1.500			
0.8913	57044.21	3.0050	3.0050	-0.1270	27.56	1.66	-1.500			
0.8917	57068.51	3.0020	3.0021	-0.1265	27.56	1.66	-1.500			
