Ah_balance (normalized)	Ah_balance (mAh)	Voltage - fit (V)	Voltage -  interpolate (V)	dQ/dV (1/V)	Temperature (°C)	Temperature - diff (°C)	Current (C)	R_DC 0ms (mOhm)	R_DC 50ms (mOhm)	R_DC 50 ms PEC (mOhm)
0.2989	19127.07	3.9760	3.9760	0.8259	27.15	1.17	1.500			
0.3014	19289.12	3.9730	3.9730	0.8553	27.15	1.17	1.500			
0.3039	19452.46	3.9700	3.9699	0.8562	27.15	1.17	1.500			
0.3065	19617.44	3.9670	3.9671	0.8616	27.14	1.16	1.500			
0.3091	19783.48	3.9640	3.9641	0.8664	27.14	1.16	1.500			
0.3117	19950.33	3.9610	3.9610	0.8732	27.13	1.15	1.500			
0.3144	20118.49	3.9580	3.9580	0.8778	27.13	1.15	1.500			
0.3170	20287.61	3.9550	3.9550	0.8819	27.13	1.15	1.500			
0.3196	20457.57	3.9520	3.9520	0.8864	27.12	1.14	1.500			
0.3223	20628.71	3.9490	3.9490	0.8884	27.12	1.14	1.500			
0.3250	20799.95	3.9460	3.9461	0.8920	27.11	1.13	1.500			
0.3277	20970.48	3.9430	3.9430	0.8990	27.11	1.13	1.500			
0.3304	21144.02	3.9400	3.9400	0.8994	27.10	1.12	1.500			
0.3331	21316.78	3.9370	3.9370	0.9066	27.10	1.12	1.500			
0.3358	21491.06	3.9340	3.9340	0.9129	27.10	1.12	1.500			
0.3386	21667.74	3.9310	3.9310	0.9164	27.09	1.11	1.500			
0.3413	21844.48	3.9280	3.9281	0.9200	27.09	1.11	1.500			
0.3441	22021.02	3.9250	3.9250	0.9255	27.08	1.10	1.500			
0.3469	22198.85	3.9220	3.9220	0.9300	27.08	1.10	1.500			
0.3497	22378.00	3.9190	3.9190	0.9397	27.07	1.09	1.500			
0.3525	22557.53	3.9160	3.9160	0.9427	27.06	1.08	1.500			
0.3553	22740.33	3.9130	3.9130	0.9482	27.06	1.08	1.500			
0.3582	22923.63	3.9100	3.9100	0.9584	27.05	1.07	1.500			
0.3611	23108.30	3.9070	3.9071	0.9645	27.05	1.07	1.500			
0.3640	23294.11	3.9040	3.9038	0.9704	27.04	1.06	1.500			
0.3669	23481.64	3.9010	3.9012	0.9767	27.03	1.05	1.500			
0.3698	23668.96	3.8980	3.8979	0.9833	27.03	1.05	1.500			
0.3728	23858.85	3.8950	3.8951	0.9925	27.02	1.04	1.500			
0.3757	24047.89	3.8920	3.8920	0.9950	27.02	1.04	1.500			
0.3788	24240.63	3.8890	3.8890	1.0015	27.01	1.03	1.500			
0.3818	24434.00	3.8860	3.8861	1.0160	27.01	1.03	1.500			
0.3848	24629.69	3.8830	3.8830	1.0294	27.00	1.02	1.500			
0.3880	24830.33	3.8800	3.8800	1.0384	26.99	1.01	1.500			
0.3911	25029.97	3.8770	3.8770	1.0500	26.99	1.01	1.500			
0.3943	25232.36	3.8740	3.8741	1.0632	26.98	1.00	1.500			
0.3975	25438.94	3.8710	3.8710	1.0727	26.97	0.99	1.500			
0.4007	25646.21	3.8680	3.8679	1.0837	26.96	0.98	1.500			
0.4040	25853.12	3.8650	3.8651	1.0883	26.96	0.98	1.500			
0.4072	26061.50	3.8620	3.8621	1.1090	26.95	0.97	1.500			
0.4106	26276.73	3.8590	3.8590	1.1283	26.94	0.96	1.500			
0.4140	26493.04	3.8560	3.8558	1.1460	26.93	0.95	1.500			
0.4174	26714.95	3.8530	3.8531	1.1651	26.92	0.94	1.500			
0.4210	26942.47	3.8500	3.8500	1.1829	26.91	0.93	1.500			
0.4246	27172.91	3.8470	3.8469	1.1992	26.90	0.92	1.500			
0.4282	27401.94	3.8440	3.8441	1.2121	26.89	0.91	1.500			
0.4318	27636.69	3.8410	3.8410	1.2265	26.88	0.90	1.500			
0.4355	27872.80	3.8380	3.8380	1.2487	26.87	0.89	1.500			
0.4393	28114.26	3.8350	3.8349	1.2680	26.86	0.88	1.500			
0.4431	28357.53	3.8320	3.8322	1.2971	26.85	0.87	1.500			
0.4470	28609.03	3.8290	3.8290	1.3254	26.84	0.86	1.500			
0.4511	28868.19	3.8260	3.8260	1.3404	26.83	0.85	1.500			
0.4551	29124.52	3.8230	3.8230	1.3704	26.82	0.84	1.500			
0.4592	29389.81	3.8200	3.8202	1.4078	26.80	0.82	1.500			
0.4635	29662.06	3.8170	3.8168	1.4373	26.79	0.81	1.500			
0.4678	29941.26	3.8140	3.8140	1.4716	26.78	0.80	1.500			
0.4723	30227.89	3.8110	3.8111	1.4980	26.77	0.79	1.500			
0.4769	30520.21	3.8080	3.8080	1.5410	26.75	0.77	1.500			
0.4815	30817.61	3.8050	3.8050	1.5765	26.74	0.76	1.500			
0.4863	31121.13	3.8020	3.8020	1.6092	26.73	0.75	1.500			
0.4912	31435.04	3.7990	3.7990	1.6525	26.71	0.73	1.500			
0.4962	31758.84	3.7960	3.7961	1.6949	26.70	0.72	1.500			
0.5014	32089.15	3.7930	3.7930	1.7350	26.68	0.70	1.500			
0.5066	32425.60	3.7900	3.7900	1.7740	26.66	0.68	1.500			
0.5120	32769.55	3.7870	3.7870	1.8121	26.65	0.67	1.500			
0.5175	33122.08	3.7840	3.7840	1.8560	26.63	0.65	1.500			
0.5232	33482.75	3.7810	3.7810	1.8939	26.61	0.63	1.500			
0.5289	33849.03	3.7780	3.7780	1.9231	26.59	0.61	1.500			
0.5348	34224.87	3.7750	3.7750	1.9451	26.57	0.59	1.500			
0.5406	34599.68	3.7720	3.7720	1.9671	26.56	0.58	1.500			
0.5466	34979.29	3.7690	3.7690	1.9933	26.54	0.56	1.500			
0.5526	35365.09	3.7660	3.7658	2.0136	26.52	0.54	1.500	0.351	0.457	
0.5587	35758.24	3.7630	3.7631	2.0204	26.50	0.52	1.500			
0.5648	36148.57	3.7600	3.7600	2.0122	26.48	0.50	1.500			
0.5709	36536.18	3.7570	3.7570	1.9807	26.46	0.48	1.500			
0.5767	36906.92	3.7540	3.7540	1.9502	26.44	0.46	1.500			
0.5825	37277.47	3.7510	3.7510	1.9396	26.42	0.44	1.500			
0.5882	37647.38	3.7480	3.7479	1.9412	26.40	0.42	1.500			
0.5941	38023.59	3.7450	3.7450	1.9534	26.39	0.41	1.500			
0.6000	38400.15	3.7420	3.7420	1.9532	26.38	0.40	1.500			
0.6059	38775.33	3.7390	3.7390	1.9653	26.37	0.39	1.500			
0.6118	39152.36	3.7360	3.7359	1.9900	26.36	0.38	1.500			
0.6177	39532.10	3.7330	3.7330	2.0154	26.34	0.36	1.500			
0.6239	39929.84	3.7300	3.7300	2.0443	26.33	0.35	1.500			
0.6301	40323.45	3.7270	3.7270	2.0979	26.32	0.34	1.500			
0.6364	40727.23	3.7240	3.7240	2.1442	26.31	0.33	1.500			
0.6428	41140.90	3.7210	3.7210	2.1925	26.29	0.31	1.500			
0.6495	41566.90	3.7180	3.7181	2.2437	26.28	0.30	1.500			
0.6563	42001.95	3.7150	3.7150	2.3356	26.27	0.29	1.500			
0.6633	42450.51	3.7120	3.7118	2.4116	26.26	0.28	1.500			
0.6708	42928.63	3.7090	3.7091	2.5352	26.25	0.27	1.500			
0.6786	43429.21	3.7060	3.7060	2.6049	26.24	0.26	1.500			
0.6865	43939.13	3.7030	3.7030	2.6078	26.22	0.24	1.500			
0.6944	44443.51	3.7000	3.7000	2.5968	26.21	0.23	1.500			
0.7022	44939.62	3.6970	3.6970	2.5057	26.20	0.22	1.500			
0.7096	45412.82	3.6940	3.6941	2.4160	26.19	0.21	1.500			
0.7167	45868.73	3.6910	3.6910	2.2640	26.18	0.20	1.500			
0.7233	46289.88	3.6880	3.6881	2.1088	26.17	0.19	1.500			
0.7293	46677.35	3.6850	3.6850	1.9360	26.17	0.19	1.500			
0.7348	47025.44	3.6820	3.6820	1.7703	26.16	0.18	1.500			
0.7398	47349.97	3.6790	3.6790	1.6548	26.16	0.18	1.500			
0.7445	47650.33	3.6760	3.6759	1.5545	26.15	0.17	1.500			
0.7490	47935.63	3.6730	3.6730	1.4678	26.14	0.16	1.500			
0.7532	48207.04	3.6700	3.6699	1.3973	26.13	0.15	1.500			
0.7573	48465.81	3.6670	3.6670	1.3454	26.12	0.14	1.500			
0.7612	48717.51	3.6640	3.6641	1.3073	26.11	0.13	1.500			
0.7650	48961.06	3.6610	3.6609	1.2814	26.10	0.12	1.500			
0.7688	49202.95	3.6580	3.6579	1.2677	26.09	0.11	1.500			
0.7725	49439.41	3.6550	3.6550	1.2555	26.09	0.11	1.500			
0.7763	49681.49	3.6520	3.6521	1.2678	26.08	0.10	1.500			
0.7801	49925.68	3.6490	3.6490	1.2758	26.07	0.09	1.500			
0.7839	50171.76	3.6460	3.6459	1.2856	26.07	0.09	1.500			
0.7878	50418.11	3.6430	3.6430	1.2962	26.06	0.08	1.500			
0.7917	50669.90	3.6400	3.6400	1.3002	26.06	0.08	1.500			
0.7957	50921.66	3.6370	3.6370	1.3076	26.05	0.07	1.500			
0.7996	51175.01	3.6340	3.6340	1.3066	26.04	0.06	1.500			
0.8035	51425.11	3.6310	3.6310	1.2988	26.04	0.06	1.500			
0.8074	51674.95	3.6280	3.6280	1.3007	26.03	0.05	1.500			
0.8113	51923.41	3.6250	3.6250	1.2925	26.02	0.04	1.500			
0.8152	52169.89	3.6220	3.6220	1.2879	26.02	0.04	1.500			
0.8190	52417.82	3.6190	3.6190	1.2870	26.01	0.03	1.500			
0.8229	52663.60	3.6160	3.6160	1.2796	26.01	0.03	1.500			
0.8267	52911.08	3.6130	3.6130	1.2718	26.00	0.02	1.500			
0.8306	53156.16	3.6100	3.6100	1.2632	25.99	0.01	1.500			
0.8343	53396.57	3.6070	3.6070	1.2526	25.99	0.01	1.500			
0.8381	53637.38	3.6040	3.6040	1.2404	25.98	0.00	1.500			
0.8418	53874.63	3.6010	3.6010	1.2211	25.98	-0.00	1.500			
0.8454	54107.69	3.5980	3.5981	1.2047	25.97	-0.01	1.500			
0.8490	54337.33	3.5950	3.5950	1.1872	25.96	-0.02	1.500			
0.8526	54564.29	3.5920	3.5920	1.1702	25.96	-0.02	1.500			
0.8560	54783.92	3.5890	3.5890	1.1571	25.95	-0.03	1.500			
0.8594	55003.00	3.5860	3.5860	1.1489	25.95	-0.03	1.500			
0.8629	55224.48	3.5830	3.5830	1.1393	25.94	-0.04	1.500			
0.8664	55447.97	3.5800	3.5799	1.1042	25.94	-0.04	1.500			
0.8698	55665.68	3.5770	3.5769	1.0597	25.95	-0.03	1.500			
0.8730	55872.29	3.5740	3.5742	0.9721	25.95	-0.03	1.500			
0.8759	56059.84	3.5710	3.5710	0.8736	25.96	-0.02	1.500			
0.8784	56216.60	3.5680	3.5680	0.7516	25.96	-0.02	1.500			
0.8804	56346.51	3.5650	3.5650	0.6267	25.97	-0.01	1.500			
0.8820	56446.52	3.5620	3.5621	0.5153	25.97	-0.01	1.500			
0.8833	56530.81	3.5590	3.5589	0.4265	25.97	-0.01	1.500			
0.8843	56597.95	3.5560	3.5561	0.3529	25.97	-0.01	1.500			
0.8853	56656.78	3.5530	3.5530	0.3027	25.97	-0.01	1.500			
0.8861	56707.75	3.5500	3.5500	0.2575	25.97	-0.01	1.500			
0.8868	56752.21	3.5470	3.5469	0.2285	25.98	-0.00	1.500			
0.8874	56790.52	3.5440	3.5439	0.2026	25.98	-0.00	1.500			
0.8879	56826.26	3.5410	3.5410	0.1835	25.98	-0.00	1.500			
0.8884	56859.36	3.5380	3.5380	0.1663	25.98	-0.00	1.500			
0.8889	56889.51	3.5350	3.5350	0.1514	25.98	-0.00	1.500			
0.8893	56917.01	3.5320	3.5320	0.1367	25.98	0.00	1.500			
0.8897	56941.99	3.5290	3.5290	0.1226	25.98	0.00	1.500			
0.8901	56964.18	3.5260	3.5262	0.1085	25.98	0.00	1.500			
0.8904	56983.73	3.5230	3.5230	0.0944	25.98	0.00	1.500			
0.8906	57000.46	3.5200	3.5201	0.0801	25.98	0.00	1.500			
0.8909	57014.46	3.5170	3.5173	0.0658	25.98	0.00	1.500			
0.8910	57025.77	3.5140	3.5144	0.0513	25.98	0.00	1.500			
0.8912	57034.24	3.5110	3.5117	0.0369	25.98	0.00	1.500			
