Ah_balance (normalized)	Ah_balance (mAh)	Voltage - fit (V)	Voltage -  interpolate (V)	dQ/dV (1/V)	Temperature (°C)	Temperature - diff (°C)	Current (C)	R_DC 0ms (mOhm)	R_DC 50ms (mOhm)	R_DC 50 ms PEC (mOhm)
0.2892	18510.35	3.9700	3.9700	0.8791	26.82	0.88	1.500			
0.2919	18682.05	3.9670	3.9669	0.8938	26.82	0.88	1.500			
0.2945	18849.83	3.9640	3.9640	0.8863	26.82	0.88	1.500			
0.2972	19019.87	3.9610	3.9611	0.8901	26.81	0.87	1.500			
0.2999	19190.83	3.9580	3.9580	0.8940	26.81	0.87	1.500			
0.3026	19363.48	3.9550	3.9550	0.8958	26.81	0.87	1.500			
0.3052	19535.70	3.9520	3.9520	0.8998	26.80	0.86	1.500			
0.3079	19708.36	3.9490	3.9491	0.9044	26.80	0.86	1.500			
0.3107	19883.66	3.9460	3.9459	0.9125	26.80	0.86	1.500			
0.3134	20056.60	3.9430	3.9430	0.9187	26.79	0.85	1.500			
0.3162	20235.70	3.9400	3.9400	0.9243	26.79	0.85	1.500			
0.3190	20414.06	3.9370	3.9369	0.9293	26.79	0.85	1.500			
0.3218	20593.21	3.9340	3.9341	0.9361	26.78	0.84	1.500			
0.3246	20772.76	3.9310	3.9310	0.9394	26.78	0.84	1.500			
0.3274	20954.13	3.9280	3.9279	0.9391	26.78	0.84	1.500			
0.3302	21133.44	3.9250	3.9250	0.9439	26.77	0.83	1.500			
0.3330	21314.50	3.9220	3.9221	0.9497	26.77	0.83	1.500			
0.3359	21499.96	3.9190	3.9190	0.9594	26.76	0.82	1.500			
0.3388	21683.58	3.9160	3.9160	0.9615	26.76	0.82	1.500			
0.3417	21866.47	3.9130	3.9130	0.9658	26.75	0.81	1.500			
0.3446	22052.56	3.9100	3.9100	0.9782	26.75	0.81	1.500			
0.3475	22242.03	3.9070	3.9070	0.9893	26.75	0.81	1.500			
0.3505	22431.39	3.9040	3.9038	0.9965	26.74	0.80	1.500			
0.3535	22624.80	3.9010	3.9011	1.0076	26.74	0.80	1.500			
0.3566	22819.87	3.8980	3.8980	1.0184	26.74	0.80	1.500			
0.3596	23017.06	3.8950	3.8950	1.0263	26.73	0.79	1.500			
0.3627	23214.25	3.8920	3.8920	1.0351	26.73	0.79	1.500			
0.3658	23412.03	3.8890	3.8890	1.0406	26.73	0.79	1.500			
0.3690	23612.88	3.8860	3.8860	1.0526	26.73	0.79	1.500			
0.3721	23815.43	3.8830	3.8830	1.0650	26.72	0.78	1.500			
0.3753	24020.94	3.8800	3.8799	1.0789	26.72	0.78	1.500			
0.3786	24231.18	3.8770	3.8770	1.0860	26.72	0.78	1.500			
0.3819	24440.62	3.8740	3.8740	1.0974	26.71	0.77	1.500			
0.3852	24652.39	3.8710	3.8710	1.1064	26.70	0.76	1.500			
0.3885	24866.32	3.8680	3.8680	1.1164	26.70	0.76	1.500			
0.3919	25079.38	3.8650	3.8649	1.1246	26.69	0.75	1.500			
0.3952	25295.14	3.8620	3.8621	1.1426	26.69	0.75	1.500			
0.3987	25515.20	3.8590	3.8590	1.1614	26.68	0.74	1.500			
0.4022	25741.05	3.8560	3.8560	1.1836	26.68	0.74	1.500			
0.4058	25969.12	3.8530	3.8531	1.2015	26.67	0.73	1.500			
0.4094	26202.96	3.8500	3.8500	1.2247	26.67	0.73	1.500			
0.4131	26441.34	3.8470	3.8469	1.2451	26.66	0.72	1.500			
0.4169	26681.10	3.8440	3.8440	1.2662	26.65	0.71	1.500			
0.4207	26926.43	3.8410	3.8410	1.2822	26.65	0.71	1.500			
0.4246	27174.55	3.8380	3.8379	1.3030	26.64	0.70	1.500			
0.4285	27425.95	3.8350	3.8350	1.3274	26.64	0.70	1.500			
0.4325	27680.48	3.8320	3.8320	1.3546	26.63	0.69	1.500			
0.4366	27943.84	3.8290	3.8289	1.3771	26.62	0.68	1.500			
0.4408	28210.21	3.8260	3.8260	1.4130	26.62	0.68	1.500			
0.4451	28484.44	3.8230	3.8230	1.4449	26.61	0.67	1.500			
0.4495	28766.23	3.8200	3.8200	1.4843	26.60	0.66	1.500			
0.4539	29051.73	3.8170	3.8171	1.5230	26.59	0.65	1.500			
0.4585	29344.79	3.8140	3.8140	1.5638	26.58	0.64	1.500			
0.4633	29649.25	3.8110	3.8110	1.6141	26.57	0.63	1.500			
0.4682	29964.15	3.8080	3.8079	1.6642	26.56	0.62	1.500			
0.4733	30289.09	3.8050	3.8051	1.7032	26.55	0.61	1.500			
0.4785	30622.69	3.8020	3.8020	1.7461	26.53	0.59	1.500			
0.4838	30962.41	3.7990	3.7990	1.7742	26.52	0.58	1.500			
0.4891	31301.32	3.7960	3.7960	1.8103	26.51	0.57	1.500			
0.4946	31653.34	3.7930	3.7930	1.8609	26.49	0.55	1.500			
0.5002	32011.65	3.7900	3.7898	1.9166	26.48	0.54	1.500			
0.5060	32385.11	3.7870	3.7870	1.9821	26.47	0.53	1.500			
0.5121	32773.70	3.7840	3.7840	2.0320	26.45	0.51	1.500			
0.5183	33172.52	3.7810	3.7810	2.0851	26.44	0.50	1.500			
0.5246	33574.62	3.7780	3.7780	2.1323	26.42	0.48	1.500			
0.5311	33990.64	3.7750	3.7750	2.1789	26.41	0.47	1.500			
0.5377	34410.63	3.7720	3.7720	2.2315	26.39	0.45	1.500			
0.5445	34846.68	3.7690	3.7691	2.2821	26.38	0.44	1.500			
0.5514	35286.46	3.7660	3.7659	2.3389	26.36	0.42	1.500			
0.5585	35746.43	3.7630	3.7630	2.3481	26.34	0.40	1.500			
0.5656	36200.73	3.7600	3.7601	2.3735	26.32	0.38	1.500	0.363	0.455	
0.5728	36660.68	3.7570	3.7570	2.3708	26.31	0.37	1.500			
0.5800	37118.53	3.7540	3.7540	2.3267	26.29	0.35	1.500			
0.5869	37558.80	3.7510	3.7511	2.2656	26.27	0.33	1.500			
0.5936	37989.51	3.7480	3.7480	2.2291	26.26	0.32	1.500			
0.6001	38403.52	3.7450	3.7449	2.1701	26.24	0.30	1.500			
0.6065	38817.15	3.7420	3.7420	2.1581	26.23	0.29	1.500			
0.6130	39230.07	3.7390	3.7390	2.1657	26.21	0.27	1.500			
0.6194	39643.41	3.7360	3.7360	2.1579	26.20	0.26	1.500			
0.6259	40057.56	3.7330	3.7329	2.1622	26.18	0.24	1.500			
0.6325	40482.06	3.7300	3.7299	2.1687	26.17	0.23	1.500			
0.6389	40888.83	3.7270	3.7271	2.1952	26.16	0.22	1.500			
0.6455	41310.31	3.7240	3.7240	2.2241	26.15	0.21	1.500			
0.6522	41743.98	3.7210	3.7210	2.2872	26.14	0.20	1.500			
0.6592	42186.76	3.7180	3.7181	2.3243	26.13	0.19	1.500			
0.6663	42644.08	3.7150	3.7150	2.4002	26.12	0.18	1.500			
0.6735	43106.42	3.7120	3.7120	2.4885	26.10	0.16	1.500			
0.6811	43590.87	3.7090	3.7090	2.6309	26.10	0.16	1.500			
0.6893	44113.51	3.7060	3.7060	2.7571	26.09	0.15	1.500			
0.6978	44659.67	3.7030	3.7030	2.8381	26.08	0.14	1.500			
0.7066	45219.43	3.7000	3.7000	2.8331	26.07	0.13	1.500			
0.7150	45757.81	3.6970	3.6971	2.8264	26.06	0.12	1.500			
0.7234	46300.55	3.6940	3.6939	2.7927	26.05	0.11	1.500			
0.7320	46848.50	3.6910	3.6910	2.7027	26.05	0.11	1.500			
0.7400	47362.78	3.6880	3.6880	2.5836	26.04	0.10	1.500			
0.7474	47834.56	3.6850	3.6849	2.3317	26.04	0.10	1.500			
0.7539	48252.53	3.6820	3.6820	2.0925	26.04	0.10	1.500			
0.7599	48630.88	3.6790	3.6791	1.9002	26.03	0.09	1.500			
0.7651	48967.71	3.6760	3.6759	1.7400	26.03	0.09	1.500			
0.7699	49276.34	3.6730	3.6730	1.6132	26.02	0.08	1.500			
0.7746	49573.36	3.6700	3.6699	1.5238	26.02	0.08	1.500			
0.7790	49855.65	3.6670	3.6670	1.4431	26.02	0.08	1.500			
0.7832	50125.75	3.6640	3.6641	1.3782	26.01	0.07	1.500			
0.7872	50382.37	3.6610	3.6610	1.3176	26.01	0.07	1.500			
0.7911	50627.61	3.6580	3.6580	1.2812	26.01	0.07	1.500			
0.7947	50861.17	3.6550	3.6550	1.2409	26.00	0.06	1.500			
0.7983	51091.99	3.6520	3.6520	1.2328	26.00	0.06	1.500			
0.8019	51323.63	3.6490	3.6490	1.2335	26.00	0.06	1.500			
0.8056	51561.04	3.6460	3.6460	1.2480	26.00	0.06	1.500			
0.8094	51801.66	3.6430	3.6431	1.2626	25.99	0.05	1.500			
0.8132	52047.91	3.6400	3.6399	1.2761	25.99	0.05	1.500			
0.8171	52295.14	3.6370	3.6370	1.2822	25.99	0.05	1.500			
0.8210	52543.57	3.6340	3.6340	1.2886	25.98	0.04	1.500			
0.8249	52791.14	3.6310	3.6310	1.2938	25.98	0.04	1.500			
0.8288	53040.42	3.6280	3.6280	1.2956	25.98	0.04	1.500			
0.8326	53289.30	3.6250	3.6250	1.2972	25.97	0.03	1.500			
0.8365	53538.76	3.6220	3.6220	1.2972	25.96	0.02	1.500			
0.8404	53788.57	3.6190	3.6190	1.2983	25.96	0.02	1.500			
0.8444	54038.51	3.6160	3.6159	1.2953	25.95	0.01	1.500			
0.8482	54285.23	3.6130	3.6131	1.2944	25.94	0.00	1.500			
0.8521	54532.72	3.6100	3.6100	1.2937	25.94	-0.00	1.500			
0.8560	54784.34	3.6070	3.6070	1.2913	25.94	-0.00	1.500			
0.8599	55032.83	3.6040	3.6040	1.2833	25.93	-0.01	1.500			
0.8637	55279.43	3.6010	3.6010	1.2721	25.93	-0.01	1.500			
0.8675	55522.23	3.5980	3.5980	1.2568	25.93	-0.01	1.500			
0.8713	55761.93	3.5950	3.5950	1.2440	25.92	-0.02	1.500			
0.8750	55997.42	3.5920	3.5919	1.2286	25.92	-0.02	1.500			
0.8786	56231.14	3.5890	3.5890	1.2175	25.92	-0.02	1.500			
0.8823	56465.11	3.5860	3.5860	1.2085	25.93	-0.01	1.500			
0.8859	56695.22	3.5830	3.5830	1.2047	25.93	-0.01	1.500			
0.8894	56923.67	3.5800	3.5801	1.2008	25.93	-0.01	1.500			
0.8930	57155.09	3.5770	3.5770	1.2104	25.93	-0.01	1.500			
0.8967	57390.34	3.5740	3.5739	1.2006	25.94	-0.00	1.500			
0.9004	57628.69	3.5710	3.5709	1.1513	25.94	-0.00	1.500			
0.9040	57857.73	3.5680	3.5681	1.0845	25.94	0.00	1.500			
0.9073	58067.01	3.5650	3.5651	0.9592	25.95	0.01	1.500			
0.9101	58248.22	3.5620	3.5621	0.8212	25.95	0.01	1.500			
0.9123	58387.02	3.5590	3.5591	0.6724	25.95	0.01	1.500			
0.9140	58495.56	3.5560	3.5558	0.5323	25.95	0.01	1.500			
0.9153	58576.15	3.5530	3.5529	0.4210	25.95	0.01	1.500			
0.9163	58641.46	3.5500	3.5499	0.3442	25.95	0.01	1.500			
0.9171	58694.75	3.5470	3.5469	0.2849	25.95	0.01	1.500			
0.9178	58741.18	3.5440	3.5440	0.2423	25.95	0.01	1.500			
0.9184	58780.70	3.5410	3.5409	0.2041	25.95	0.01	1.500			
0.9190	58815.37	3.5380	3.5378	0.1795	25.95	0.01	1.500			
0.9195	58845.84	3.5350	3.5351	0.1567	25.95	0.01	1.500			
0.9199	58873.75	3.5320	3.5319	0.1365	25.96	0.02	1.500			
0.9203	58898.24	3.5290	3.5291	0.1186	25.96	0.02	1.500			
0.9206	58919.26	3.5260	3.5260	0.1007	25.96	0.02	1.500			
0.9209	58936.57	3.5230	3.5231	0.0830	25.96	0.02	1.500			
0.9211	58950.95	3.5200	3.5202	0.0655	25.96	0.02	1.500			
0.9213	58961.84	3.5170	3.5175	0.0480	25.96	0.02	1.500			
