Ah_balance (normalized)	Ah_balance (mAh)	Voltage - fit (V)	Voltage -  interpolate (V)	dQ/dV (1/V)	Temperature (°C)	Temperature - diff (°C)	Current (C)	R_DC 0ms (mOhm)	R_DC 50ms (mOhm)	R_DC 50 ms PEC (mOhm)
0.2721	17414.28	3.9890	3.9889	0.8623	27.25	1.29	1.500			
0.2747	17578.38	3.9860	3.9861	0.8509	27.24	1.28	1.500			
0.2772	17739.39	3.9830	3.9830	0.8468	27.24	1.28	1.500			
0.2797	17902.20	3.9800	3.9800	0.8483	27.23	1.27	1.500			
0.2822	18063.98	3.9770	3.9770	0.8500	27.22	1.26	1.500			
0.2848	18227.35	3.9740	3.9740	0.8566	27.22	1.26	1.500			
0.2874	18394.00	3.9710	3.9710	0.8619	27.21	1.25	1.500			
0.2900	18560.21	3.9680	3.9680	0.8670	27.20	1.24	1.500			
0.2926	18727.96	3.9650	3.9650	0.8668	27.19	1.23	1.500			
0.2952	18893.97	3.9620	3.9620	0.8657	27.19	1.23	1.500			
0.2978	19059.41	3.9590	3.9590	0.8704	27.18	1.22	1.500			
0.3004	19225.72	3.9560	3.9560	0.8729	27.17	1.21	1.500			
0.3030	19393.75	3.9530	3.9529	0.8746	27.17	1.21	1.500			
0.3057	19562.74	3.9500	3.9500	0.8787	27.16	1.20	1.500			
0.3083	19731.85	3.9470	3.9471	0.8829	27.16	1.20	1.500			
0.3110	19901.74	3.9440	3.9440	0.8921	27.15	1.19	1.500			
0.3136	20073.09	3.9410	3.9410	0.8946	27.15	1.19	1.500			
0.3163	20244.84	3.9380	3.9380	0.9007	27.14	1.18	1.500			
0.3191	20419.23	3.9350	3.9350	0.9077	27.14	1.18	1.500			
0.3218	20595.45	3.9320	3.9320	0.9124	27.13	1.17	1.500			
0.3246	20771.84	3.9290	3.9291	0.9144	27.12	1.16	1.500			
0.3273	20946.22	3.9260	3.9260	0.9165	27.11	1.15	1.500			
0.3300	21120.76	3.9230	3.9230	0.9191	27.11	1.15	1.500			
0.3328	21297.00	3.9200	3.9200	0.9249	27.10	1.14	1.500			
0.3355	21474.86	3.9170	3.9170	0.9343	27.09	1.13	1.500			
0.3384	21656.98	3.9140	3.9140	0.9395	27.08	1.12	1.500			
0.3412	21837.43	3.9110	3.9110	0.9479	27.07	1.11	1.500			
0.3441	22020.27	3.9080	3.9081	0.9581	27.06	1.10	1.500			
0.3469	22204.77	3.9050	3.9049	0.9646	27.05	1.09	1.500			
0.3499	22390.56	3.9020	3.9020	0.9720	27.04	1.08	1.500			
0.3528	22578.96	3.8990	3.8990	0.9797	27.03	1.07	1.500			
0.3557	22767.83	3.8960	3.8961	0.9901	27.02	1.06	1.500			
0.3587	22958.52	3.8930	3.8929	0.9984	27.01	1.05	1.500			
0.3618	23152.86	3.8900	3.8900	0.9982	27.00	1.04	1.500			
0.3647	23342.82	3.8870	3.8869	1.0085	26.99	1.03	1.500			
0.3678	23536.63	3.8840	3.8841	1.0234	26.99	1.03	1.500			
0.3709	23734.40	3.8810	3.8810	1.0355	26.98	1.02	1.500			
0.3740	23934.88	3.8780	3.8780	1.0458	26.97	1.01	1.500			
0.3771	24136.22	3.8750	3.8751	1.0543	26.96	1.00	1.500			
0.3803	24340.09	3.8720	3.8721	1.0690	26.95	0.99	1.500			
0.3836	24550.33	3.8690	3.8689	1.0858	26.94	0.98	1.500			
0.3868	24757.27	3.8660	3.8660	1.0801	26.93	0.97	1.500			
0.3901	24965.24	3.8630	3.8630	1.0918	26.92	0.96	1.500			
0.3933	25174.28	3.8600	3.8601	1.1103	26.91	0.95	1.500			
0.3967	25389.07	3.8570	3.8570	1.1250	26.90	0.94	1.500			
0.4001	25605.23	3.8540	3.8540	1.1406	26.89	0.93	1.500			
0.4035	25825.33	3.8510	3.8511	1.1584	26.88	0.92	1.500			
0.4070	26050.98	3.8480	3.8480	1.1821	26.86	0.90	1.500			
0.4107	26284.18	3.8450	3.8449	1.1897	26.85	0.89	1.500			
0.4142	26509.89	3.8420	3.8420	1.2054	26.83	0.87	1.500			
0.4178	26741.47	3.8390	3.8391	1.2240	26.82	0.86	1.500			
0.4215	26977.28	3.8360	3.8359	1.2476	26.80	0.84	1.500			
0.4253	27218.14	3.8330	3.8330	1.2700	26.79	0.83	1.500			
0.4291	27463.78	3.8300	3.8300	1.2909	26.78	0.82	1.500			
0.4331	27716.17	3.8270	3.8270	1.3066	26.77	0.81	1.500			
0.4370	27970.53	3.8240	3.8241	1.3320	26.75	0.79	1.500			
0.4410	28226.01	3.8210	3.8210	1.3588	26.74	0.78	1.500			
0.4451	28488.38	3.8180	3.8181	1.3822	26.73	0.77	1.500			
0.4493	28755.99	3.8150	3.8151	1.4138	26.72	0.76	1.500			
0.4536	29031.18	3.8120	3.8120	1.4382	26.70	0.74	1.500			
0.4580	29310.91	3.8090	3.8091	1.4686	26.68	0.72	1.500			
0.4624	29595.80	3.8060	3.8060	1.4928	26.66	0.70	1.500			
0.4669	29884.74	3.8030	3.8030	1.5177	26.64	0.68	1.500			
0.4715	30177.84	3.8000	3.8000	1.5501	26.62	0.66	1.500			
0.4762	30479.74	3.7970	3.7970	1.5813	26.61	0.65	1.500			
0.4811	30788.20	3.7940	3.7939	1.6086	26.59	0.63	1.500			
0.4859	31099.51	3.7910	3.7910	1.6304	26.58	0.62	1.500			
0.4909	31414.52	3.7880	3.7880	1.6481	26.56	0.60	1.500			
0.4958	31733.83	3.7850	3.7850	1.6757	26.55	0.59	1.500			
0.5009	32055.51	3.7820	3.7820	1.7090	26.53	0.57	1.500			
0.5060	32386.17	3.7790	3.7789	1.7394	26.51	0.55	1.500	0.353	0.469	
0.5113	32725.76	3.7760	3.7761	1.7536	26.49	0.53	1.500			
0.5166	33063.37	3.7730	3.7730	1.7587	26.47	0.51	1.500			
0.5219	33402.58	3.7700	3.7698	1.7592	26.45	0.49	1.500			
0.5271	33736.95	3.7670	3.7671	1.7560	26.44	0.48	1.500			
0.5324	34071.58	3.7640	3.7641	1.7680	26.42	0.46	1.500			
0.5377	34412.93	3.7610	3.7610	1.7874	26.40	0.44	1.500			
0.5430	34754.56	3.7580	3.7580	1.7924	26.38	0.42	1.500			
0.5485	35100.84	3.7550	3.7549	1.8147	26.37	0.41	1.500			
0.5540	35455.63	3.7520	3.7520	1.8244	26.35	0.39	1.500			
0.5595	35805.58	3.7490	3.7490	1.8041	26.34	0.38	1.500			
0.5648	36145.67	3.7460	3.7461	1.8232	26.33	0.37	1.500			
0.5703	36500.41	3.7430	3.7429	1.8636	26.32	0.36	1.500			
0.5759	36859.79	3.7400	3.7400	1.8837	26.30	0.34	1.500			
0.5817	37227.26	3.7370	3.7371	1.9054	26.29	0.33	1.500			
0.5875	37599.41	3.7340	3.7340	1.9326	26.27	0.31	1.500			
0.5932	37966.22	3.7310	3.7311	1.9983	26.26	0.30	1.500			
0.5994	38358.73	3.7280	3.7279	2.0629	26.24	0.28	1.500			
0.6057	38765.22	3.7250	3.7252	2.1333	26.23	0.27	1.500			
0.6123	39187.09	3.7220	3.7220	2.2141	26.21	0.25	1.500			
0.6189	39611.33	3.7190	3.7189	2.2339	26.19	0.23	1.500			
0.6257	40045.33	3.7160	3.7161	2.2990	26.17	0.21	1.500			
0.6327	40493.50	3.7130	3.7129	2.3367	26.16	0.20	1.500			
0.6397	40941.35	3.7100	3.7101	2.3607	26.15	0.19	1.500			
0.6469	41400.67	3.7070	3.7068	2.3633	26.14	0.18	1.500			
0.6541	41862.51	3.7040	3.7040	2.3093	26.13	0.17	1.500			
0.6610	42305.50	3.7010	3.7010	2.2365	26.12	0.16	1.500			
0.6676	42724.78	3.6980	3.6981	2.0833	26.11	0.15	1.500			
0.6736	43111.54	3.6950	3.6950	1.9477	26.10	0.14	1.500			
0.6792	43469.66	3.6920	3.6920	1.8148	26.09	0.13	1.500			
0.6844	43798.47	3.6890	3.6890	1.6912	26.08	0.12	1.500			
0.6893	44113.00	3.6860	3.6860	1.5938	26.07	0.11	1.500			
0.6938	44404.27	3.6830	3.6830	1.5068	26.07	0.11	1.500			
0.6982	44683.95	3.6800	3.6800	1.4379	26.06	0.10	1.500			
0.7023	44949.89	3.6770	3.6770	1.3811	26.05	0.09	1.500			
0.7064	45207.29	3.6740	3.6740	1.3362	26.05	0.09	1.500			
0.7103	45456.48	3.6710	3.6710	1.3028	26.04	0.08	1.500			
0.7141	45700.58	3.6680	3.6680	1.2841	26.03	0.07	1.500			
0.7179	45943.66	3.6650	3.6650	1.2746	26.03	0.07	1.500			
0.7217	46185.80	3.6620	3.6620	1.2695	26.02	0.06	1.500			
0.7255	46428.98	3.6590	3.6590	1.2691	26.02	0.06	1.500			
0.7293	46673.47	3.6560	3.6560	1.2744	26.01	0.05	1.500			
0.7331	46920.68	3.6530	3.6530	1.2720	26.00	0.04	1.500			
0.7370	47165.01	3.6500	3.6500	1.2713	26.00	0.04	1.500			
0.7407	47406.65	3.6470	3.6470	1.2706	25.99	0.03	1.500			
0.7446	47651.83	3.6440	3.6441	1.2727	25.98	0.02	1.500			
0.7484	47895.28	3.6410	3.6409	1.2691	25.98	0.02	1.500			
0.7522	48139.66	3.6380	3.6380	1.2640	25.97	0.01	1.500			
0.7560	48382.20	3.6350	3.6351	1.2555	25.97	0.01	1.500			
0.7597	48623.41	3.6320	3.6319	1.2501	25.96	0.00	1.500			
0.7635	48862.48	3.6290	3.6291	1.2428	25.95	-0.01	1.500			
0.7672	49100.62	3.6260	3.6259	1.2346	25.95	-0.01	1.500			
0.7709	49337.45	3.6230	3.6230	1.2269	25.94	-0.02	1.500			
0.7746	49572.56	3.6200	3.6200	1.2217	25.94	-0.02	1.500			
0.7782	49807.27	3.6170	3.6170	1.2152	25.94	-0.02	1.500			
0.7819	50040.46	3.6140	3.6139	1.1993	25.94	-0.02	1.500			
0.7855	50269.47	3.6110	3.6110	1.1811	25.94	-0.02	1.500			
0.7890	50495.55	3.6080	3.6080	1.1622	25.94	-0.02	1.500			
0.7925	50717.74	3.6050	3.6050	1.1397	25.94	-0.02	1.500			
0.7958	50934.18	3.6020	3.6020	1.1173	25.94	-0.02	1.500			
0.7991	51144.90	3.5990	3.5990	1.0927	25.94	-0.02	1.500			
0.8024	51352.81	3.5960	3.5960	1.0713	25.94	-0.02	1.500			
0.8056	51558.20	3.5930	3.5929	1.0452	25.95	-0.01	1.500			
0.8087	51758.39	3.5900	3.5899	1.0137	25.95	-0.01	1.500			
0.8118	51955.15	3.5870	3.5870	0.9643	25.95	-0.01	1.500			
0.8147	52139.71	3.5840	3.5840	0.8962	25.95	-0.01	1.500			
0.8174	52311.13	3.5810	3.5810	0.8145	25.96	-0.00	1.500			
0.8197	52460.45	3.5780	3.5782	0.7190	25.96	-0.00	1.500			
0.8217	52588.68	3.5750	3.5750	0.6183	25.96	-0.00	1.500			
0.8233	52694.07	3.5720	3.5720	0.5263	25.96	0.00	1.500			
0.8247	52780.92	3.5690	3.5691	0.4377	25.96	0.00	1.500			
0.8259	52854.43	3.5660	3.5660	0.3724	25.96	0.00	1.500			
0.8268	52916.79	3.5630	3.5629	0.3213	25.96	0.00	1.500			
0.8277	52969.70	3.5600	3.5600	0.2764	25.96	0.00	1.500			
0.8284	53017.99	3.5570	3.5570	0.2467	25.96	0.00	1.500			
0.8291	53061.69	3.5540	3.5540	0.2199	25.97	0.01	1.500			
0.8297	53100.33	3.5510	3.5509	0.1988	25.97	0.01	1.500			
0.8302	53135.58	3.5480	3.5480	0.1797	25.97	0.01	1.500			
0.8308	53168.48	3.5450	3.5450	0.1638	25.97	0.01	1.500			
0.8312	53198.19	3.5420	3.5420	0.1495	25.97	0.01	1.500			
0.8316	53225.29	3.5390	3.5390	0.1347	25.97	0.01	1.500			
0.8320	53249.56	3.5360	3.5360	0.1200	25.97	0.01	1.500			
0.8324	53271.35	3.5330	3.5330	0.1065	25.97	0.01	1.500			
0.8327	53290.46	3.5300	3.5300	0.0926	25.97	0.01	1.500			
0.8329	53306.94	3.5270	3.5272	0.0788	25.97	0.01	1.500			
0.8331	53320.73	3.5240	3.5244	0.0649	25.97	0.01	1.500			
0.8333	53332.19	3.5210	3.5214	0.0499	25.97	0.01	1.500			
0.8334	53340.34	3.5180	3.5189	0.0350	25.97	0.01	1.500			
