Ah_balance (normalized)	Ah_balance (mAh)	Voltage - fit (V)	Voltage -  interpolate (V)	dQ/dV (1/V)	Temperature (°C)	Temperature - diff (°C)	Current (C)	R_DC 0ms (mOhm)	R_DC 50ms (mOhm)	R_DC 50 ms PEC (mOhm)
0.2742	17549.21	3.9920	3.9920	0.8067	27.24	1.27	1.500			
0.2766	17704.29	3.9890	3.9890	0.8168	27.24	1.27	1.500			
0.2791	17864.93	3.9860	3.9861	0.8367	27.23	1.26	1.500			
0.2817	18027.30	3.9830	3.9830	0.8445	27.23	1.26	1.500			
0.2842	18191.20	3.9800	3.9801	0.8491	27.22	1.25	1.500			
0.2868	18355.21	3.9770	3.9770	0.8525	27.21	1.24	1.500			
0.2894	18521.11	3.9740	3.9739	0.8555	27.21	1.24	1.500			
0.2919	18682.26	3.9710	3.9710	0.8496	27.20	1.23	1.500			
0.2944	18844.11	3.9680	3.9680	0.8511	27.20	1.23	1.500			
0.2970	19009.24	3.9650	3.9650	0.8587	27.19	1.22	1.500			
0.2996	19173.23	3.9620	3.9620	0.8650	27.18	1.21	1.500			
0.3022	19340.39	3.9590	3.9590	0.8688	27.18	1.21	1.500			
0.3048	19506.82	3.9560	3.9560	0.8754	27.17	1.20	1.500			
0.3075	19677.04	3.9530	3.9530	0.8802	27.17	1.20	1.500			
0.3101	19846.30	3.9500	3.9499	0.8842	27.16	1.19	1.500			
0.3128	20016.27	3.9470	3.9470	0.8879	27.15	1.18	1.500			
0.3154	20187.03	3.9440	3.9440	0.8918	27.15	1.18	1.500			
0.3181	20358.25	3.9410	3.9409	0.8932	27.14	1.17	1.500			
0.3208	20531.51	3.9380	3.9380	0.8976	27.13	1.16	1.500			
0.3235	20702.65	3.9350	3.9350	0.8976	27.13	1.16	1.500			
0.3262	20875.28	3.9320	3.9320	0.9063	27.12	1.15	1.500			
0.3289	21048.66	3.9290	3.9290	0.9105	27.11	1.14	1.500			
0.3316	21223.94	3.9260	3.9260	0.9176	27.11	1.14	1.500			
0.3344	21400.84	3.9230	3.9230	0.9252	27.10	1.13	1.500			
0.3372	21579.85	3.9200	3.9201	0.9339	27.09	1.12	1.500			
0.3400	21760.79	3.9170	3.9169	0.9403	27.09	1.12	1.500			
0.3428	21940.94	3.9140	3.9140	0.9470	27.08	1.11	1.500			
0.3457	22123.29	3.9110	3.9110	0.9512	27.07	1.10	1.500			
0.3485	22305.78	3.9080	3.9080	0.9606	27.07	1.10	1.500			
0.3514	22491.48	3.9050	3.9050	0.9673	27.06	1.09	1.500			
0.3543	22677.46	3.9020	3.9020	0.9738	27.05	1.08	1.500			
0.3573	22864.69	3.8990	3.8990	0.9828	27.04	1.07	1.500			
0.3602	23054.80	3.8960	3.8961	0.9917	27.04	1.07	1.500			
0.3632	23245.50	3.8930	3.8930	0.9988	27.03	1.06	1.500			
0.3662	23438.18	3.8900	3.8900	1.0080	27.02	1.05	1.500			
0.3693	23633.17	3.8870	3.8870	1.0128	27.01	1.04	1.500			
0.3723	23828.51	3.8840	3.8840	1.0262	27.00	1.03	1.500			
0.3754	24025.02	3.8810	3.8811	1.0360	26.99	1.02	1.500			
0.3785	24223.75	3.8780	3.8780	1.0451	26.99	1.02	1.500			
0.3817	24426.66	3.8750	3.8750	1.0557	26.98	1.01	1.500			
0.3848	24629.79	3.8720	3.8720	1.0685	26.97	1.00	1.500			
0.3881	24836.60	3.8690	3.8691	1.0786	26.96	0.99	1.500			
0.3913	25046.35	3.8660	3.8660	1.0920	26.95	0.98	1.500			
0.3946	25254.65	3.8630	3.8630	1.1000	26.95	0.98	1.500			
0.3979	25467.21	3.8600	3.8600	1.1151	26.94	0.97	1.500			
0.4013	25681.23	3.8570	3.8570	1.1315	26.93	0.96	1.500			
0.4047	25900.12	3.8540	3.8539	1.1527	26.92	0.95	1.500			
0.4082	26122.64	3.8510	3.8510	1.1688	26.91	0.94	1.500			
0.4117	26351.01	3.8480	3.8480	1.1870	26.90	0.93	1.500			
0.4153	26580.78	3.8450	3.8451	1.2057	26.89	0.92	1.500			
0.4190	26813.85	3.8420	3.8420	1.2124	26.88	0.91	1.500			
0.4226	27047.50	3.8390	3.8390	1.2276	26.86	0.89	1.500			
0.4263	27281.67	3.8360	3.8360	1.2412	26.85	0.88	1.500			
0.4300	27520.70	3.8330	3.8327	1.2643	26.84	0.87	1.500			
0.4338	27765.42	3.8300	3.8300	1.2903	26.83	0.86	1.500			
0.4377	28015.92	3.8270	3.8270	1.3140	26.82	0.85	1.500			
0.4418	28272.76	3.8240	3.8240	1.3356	26.81	0.84	1.500			
0.4458	28528.89	3.8210	3.8210	1.3585	26.80	0.83	1.500			
0.4499	28792.55	3.8180	3.8180	1.3880	26.79	0.82	1.500			
0.4541	29061.06	3.8150	3.8150	1.4193	26.78	0.81	1.500			
0.4584	29337.59	3.8120	3.8120	1.4419	26.77	0.80	1.500			
0.4628	29617.87	3.8090	3.8091	1.4641	26.76	0.79	1.500			
0.4672	29903.74	3.8060	3.8060	1.4853	26.74	0.77	1.500			
0.4717	30189.62	3.8030	3.8030	1.5036	26.73	0.76	1.500			
0.4762	30477.38	3.8000	3.8000	1.5227	26.71	0.74	1.500			
0.4808	30773.23	3.7970	3.7969	1.5496	26.70	0.73	1.500			
0.4855	31073.77	3.7940	3.7940	1.5706	26.69	0.72	1.500			
0.4903	31377.73	3.7910	3.7911	1.5913	26.68	0.71	1.500			
0.4950	31682.12	3.7880	3.7880	1.6305	26.66	0.69	1.500			
0.5000	31997.75	3.7850	3.7850	1.6541	26.65	0.68	1.500	0.343	0.483	
0.5050	32318.01	3.7820	3.7820	1.6687	26.64	0.67	1.500			
0.5101	32645.98	3.7790	3.7792	1.6925	26.63	0.66	1.500			
0.5152	32973.84	3.7760	3.7759	1.6925	26.61	0.64	1.500			
0.5202	33293.86	3.7730	3.7730	1.6906	26.60	0.63	1.500			
0.5253	33616.96	3.7700	3.7700	1.6921	26.58	0.61	1.500			
0.5304	33944.64	3.7670	3.7668	1.7097	26.57	0.60	1.500			
0.5355	34273.12	3.7640	3.7640	1.7216	26.56	0.59	1.500			
0.5407	34604.70	3.7610	3.7610	1.7170	26.55	0.58	1.500			
0.5458	34934.39	3.7580	3.7580	1.7218	26.53	0.56	1.500			
0.5510	35264.10	3.7550	3.7551	1.7416	26.52	0.55	1.500			
0.5563	35600.66	3.7520	3.7519	1.7642	26.51	0.54	1.500			
0.5615	35938.07	3.7490	3.7490	1.7902	26.50	0.53	1.500			
0.5669	36284.33	3.7460	3.7461	1.8260	26.48	0.51	1.500			
0.5725	36640.04	3.7430	3.7429	1.8444	26.47	0.50	1.500			
0.5781	36996.66	3.7400	3.7400	1.8806	26.46	0.49	1.500			
0.5837	37359.82	3.7370	3.7370	1.9255	26.44	0.47	1.500			
0.5896	37737.27	3.7340	3.7339	1.9514	26.43	0.46	1.500			
0.5955	38113.50	3.7310	3.7310	2.0062	26.41	0.44	1.500			
0.6016	38502.89	3.7280	3.7281	2.0789	26.40	0.43	1.500			
0.6079	38905.87	3.7250	3.7250	2.1353	26.38	0.41	1.500			
0.6144	39321.84	3.7220	3.7221	2.2174	26.37	0.40	1.500			
0.6212	39757.40	3.7190	3.7190	2.2745	26.36	0.39	1.500			
0.6280	40192.36	3.7160	3.7160	2.3178	26.34	0.37	1.500			
0.6350	40641.65	3.7130	3.7131	2.3537	26.33	0.36	1.500			
0.6422	41100.03	3.7100	3.7100	2.2868	26.31	0.34	1.500			
0.6490	41535.45	3.7070	3.7070	2.2070	26.30	0.33	1.500			
0.6555	41950.95	3.7040	3.7039	2.0864	26.28	0.31	1.500			
0.6616	42343.58	3.7010	3.7010	1.9663	26.27	0.30	1.500			
0.6673	42709.02	3.6980	3.6980	1.8442	26.25	0.28	1.500			
0.6726	43043.68	3.6950	3.6950	1.7129	26.24	0.27	1.500			
0.6775	43360.68	3.6920	3.6920	1.6087	26.23	0.26	1.500			
0.6822	43659.61	3.6890	3.6890	1.5330	26.22	0.25	1.500			
0.6867	43945.66	3.6860	3.6859	1.4650	26.20	0.23	1.500			
0.6909	44218.82	3.6830	3.6830	1.4029	26.19	0.22	1.500			
0.6950	44476.83	3.6800	3.6801	1.3542	26.19	0.22	1.500			
0.6989	44730.87	3.6770	3.6770	1.3217	26.18	0.21	1.500			
0.7028	44980.20	3.6740	3.6740	1.3016	26.17	0.20	1.500			
0.7066	45225.13	3.6710	3.6709	1.2800	26.16	0.19	1.500			
0.7104	45467.22	3.6680	3.6681	1.2717	26.14	0.17	1.500			
0.7142	45709.88	3.6650	3.6650	1.2743	26.13	0.16	1.500			
0.7181	45955.68	3.6620	3.6620	1.2741	26.12	0.15	1.500			
0.7219	46199.82	3.6590	3.6590	1.2717	26.11	0.14	1.500			
0.7257	46444.56	3.6560	3.6560	1.2713	26.09	0.12	1.500			
0.7295	46690.22	3.6530	3.6531	1.2650	26.08	0.11	1.500			
0.7334	46934.93	3.6500	3.6500	1.2579	26.08	0.11	1.500			
0.7371	47173.80	3.6470	3.6470	1.2479	26.07	0.10	1.500			
0.7408	47410.78	3.6440	3.6440	1.2343	26.06	0.09	1.500			
0.7445	47648.27	3.6410	3.6410	1.2244	26.06	0.09	1.500			
0.7482	47882.13	3.6380	3.6380	1.2157	26.05	0.08	1.500			
0.7518	48114.02	3.6350	3.6350	1.2079	26.05	0.08	1.500			
0.7554	48345.49	3.6320	3.6319	1.1994	26.04	0.07	1.500			
0.7590	48574.54	3.6290	3.6290	1.1904	26.03	0.06	1.500			
0.7625	48802.75	3.6260	3.6260	1.1763	26.02	0.05	1.500			
0.7661	49029.08	3.6230	3.6230	1.1678	26.01	0.04	1.500			
0.7696	49252.71	3.6200	3.6200	1.1471	26.01	0.04	1.500			
0.7730	49471.25	3.6170	3.6170	1.1274	26.00	0.03	1.500			
0.7763	49686.18	3.6140	3.6140	1.1058	25.99	0.02	1.500			
0.7796	49896.49	3.6110	3.6110	1.0841	25.98	0.01	1.500			
0.7829	50102.78	3.6080	3.6080	1.0596	25.98	0.01	1.500			
0.7860	50305.10	3.6050	3.6050	1.0330	25.98	0.01	1.500			
0.7891	50500.97	3.6020	3.6020	1.0035	25.98	0.01	1.500			
0.7921	50692.52	3.5990	3.5991	0.9686	25.98	0.01	1.500			
0.7950	50876.92	3.5960	3.5959	0.9300	25.97	0.00	1.500			
0.7977	51055.34	3.5930	3.5930	0.8792	25.97	0.00	1.500			
0.8003	51221.08	3.5900	3.5900	0.8172	25.97	0.00	1.500			
0.8028	51376.89	3.5870	3.5870	0.7448	25.97	0.00	1.500			
0.8049	51513.56	3.5840	3.5840	0.6597	25.97	0.00	1.500			
0.8067	51631.25	3.5810	3.5810	0.5746	25.97	-0.00	1.500			
0.8083	51731.51	3.5780	3.5781	0.4905	25.97	-0.00	1.500			
0.8096	51813.26	3.5750	3.5749	0.4140	25.97	-0.00	1.500			
0.8107	51883.00	3.5720	3.5720	0.3555	25.97	-0.00	1.500			
0.8116	51941.46	3.5690	3.5690	0.3040	25.97	-0.00	1.500			
0.8124	51993.78	3.5660	3.5660	0.2680	25.97	-0.00	1.500			
0.8131	52040.28	3.5630	3.5629	0.2343	25.97	-0.00	1.500			
0.8138	52081.11	3.5600	3.5600	0.2099	25.97	-0.00	1.500			
0.8143	52118.06	3.5570	3.5570	0.1881	25.97	-0.00	1.500			
0.8149	52152.08	3.5540	3.5541	0.1692	25.97	-0.00	1.500			
0.8154	52182.54	3.5510	3.5510	0.1537	25.97	-0.00	1.500			
0.8158	52210.27	3.5480	3.5480	0.1375	25.97	-0.00	1.500			
0.8162	52234.74	3.5450	3.5448	0.1220	25.97	-0.00	1.500			
0.8165	52256.61	3.5420	3.5420	0.1070	25.97	-0.00	1.500			
0.8168	52275.79	3.5390	3.5391	0.0928	25.97	-0.00	1.500			
0.8171	52292.28	3.5360	3.5362	0.0786	25.97	-0.00	1.500			
0.8173	52306.68	3.5330	3.5332	0.0641	25.97	-0.00	1.500			
0.8175	52317.48	3.5300	3.5304	0.0484	25.97	-0.00	1.500			
0.8176	52325.26	3.5270	3.5278	0.0327	25.97	-0.00	1.500			
