Ah_balance (normalized)	Ah_balance (mAh)	Voltage - fit (V)	Voltage -  interpolate (V)	dQ/dV (1/V)	Temperature (°C)	Temperature - diff (°C)	Current (C)	R_DC 0ms (mOhm)	R_DC 50ms (mOhm)	R_DC 50 ms PEC (mOhm)
0.2742	17549.71	3.9910	3.9910	0.8070	27.40	1.44	1.500			
0.2767	17707.72	3.9880	3.9881	0.8273	27.40	1.44	1.500			
0.2792	17865.63	3.9850	3.9848	0.8373	27.39	1.43	1.500			
0.2817	18029.31	3.9820	3.9821	0.8462	27.38	1.42	1.500			
0.2842	18191.84	3.9790	3.9790	0.8562	27.38	1.42	1.500			
0.2869	18359.57	3.9760	3.9760	0.8653	27.37	1.41	1.500			
0.2895	18525.72	3.9730	3.9730	0.8636	27.37	1.41	1.500			
0.2921	18693.83	3.9700	3.9700	0.8662	27.36	1.40	1.500			
0.2947	18861.27	3.9670	3.9671	0.8710	27.35	1.39	1.500			
0.2973	19027.58	3.9640	3.9641	0.8663	27.35	1.39	1.500			
0.2999	19194.83	3.9610	3.9609	0.8715	27.34	1.38	1.500			
0.3025	19359.90	3.9580	3.9581	0.8706	27.33	1.37	1.500			
0.3051	19527.42	3.9550	3.9550	0.8728	27.33	1.37	1.500			
0.3077	19695.14	3.9520	3.9520	0.8726	27.32	1.36	1.500			
0.3104	19863.44	3.9490	3.9490	0.8790	27.32	1.36	1.500			
0.3130	20030.91	3.9460	3.9460	0.8845	27.31	1.35	1.500			
0.3157	20201.79	3.9430	3.9430	0.8921	27.30	1.34	1.500			
0.3183	20372.69	3.9400	3.9400	0.8987	27.30	1.34	1.500			
0.3210	20546.60	3.9370	3.9370	0.9042	27.29	1.33	1.500			
0.3238	20722.21	3.9340	3.9339	0.9103	27.28	1.32	1.500			
0.3265	20897.71	3.9310	3.9311	0.9154	27.28	1.32	1.500			
0.3293	21072.62	3.9280	3.9280	0.9184	27.27	1.31	1.500			
0.3320	21248.84	3.9250	3.9250	0.9245	27.26	1.30	1.500			
0.3348	21427.66	3.9220	3.9219	0.9313	27.26	1.30	1.500			
0.3376	21606.27	3.9190	3.9190	0.9372	27.25	1.29	1.500			
0.3404	21788.34	3.9160	3.9160	0.9423	27.24	1.28	1.500			
0.3433	21970.73	3.9130	3.9130	0.9485	27.24	1.28	1.500			
0.3461	22151.92	3.9100	3.9100	0.9502	27.23	1.27	1.500			
0.3489	22332.58	3.9070	3.9071	0.9524	27.22	1.26	1.500			
0.3518	22515.31	3.9040	3.9040	0.9618	27.22	1.26	1.500			
0.3547	22701.21	3.9010	3.9009	0.9727	27.21	1.25	1.500			
0.3576	22887.78	3.8980	3.8981	0.9846	27.20	1.24	1.500			
0.3606	23078.86	3.8950	3.8950	0.9948	27.19	1.23	1.500			
0.3636	23272.25	3.8920	3.8920	1.0063	27.18	1.22	1.500			
0.3667	23465.88	3.8890	3.8890	1.0142	27.17	1.21	1.500			
0.3697	23662.69	3.8860	3.8860	1.0219	27.16	1.20	1.500			
0.3728	23859.11	3.8830	3.8830	1.0307	27.15	1.19	1.500			
0.3759	24057.67	3.8800	3.8800	1.0402	27.14	1.18	1.500			
0.3790	24257.74	3.8770	3.8770	1.0498	27.13	1.17	1.500			
0.3822	24460.67	3.8740	3.8740	1.0632	27.12	1.16	1.500			
0.3854	24664.97	3.8710	3.8710	1.0715	27.11	1.15	1.500			
0.3886	24872.35	3.8680	3.8680	1.0811	27.10	1.14	1.500			
0.3919	25081.83	3.8650	3.8650	1.0926	27.09	1.13	1.500			
0.3952	25290.75	3.8620	3.8620	1.1045	27.08	1.12	1.500			
0.3985	25503.17	3.8590	3.8590	1.1177	27.07	1.11	1.500			
0.4019	25718.72	3.8560	3.8559	1.1357	27.06	1.10	1.500			
0.4053	25937.16	3.8530	3.8531	1.1576	27.05	1.09	1.500			
0.4088	26162.49	3.8500	3.8500	1.1758	27.03	1.07	1.500			
0.4124	26391.30	3.8470	3.8470	1.1948	27.02	1.06	1.500			
0.4160	26622.98	3.8440	3.8440	1.2061	27.01	1.05	1.500			
0.4196	26854.18	3.8410	3.8410	1.2229	27.00	1.04	1.500			
0.4233	27091.24	3.8380	3.8380	1.2409	26.98	1.02	1.500			
0.4270	27330.45	3.8350	3.8350	1.2574	26.97	1.01	1.500			
0.4308	27573.00	3.8320	3.8320	1.2732	26.96	1.00	1.500			
0.4347	27819.62	3.8290	3.8291	1.2995	26.94	0.98	1.500			
0.4386	28070.94	3.8260	3.8260	1.3211	26.93	0.97	1.500			
0.4426	28326.71	3.8230	3.8230	1.3396	26.91	0.95	1.500			
0.4466	28583.45	3.8200	3.8199	1.3587	26.90	0.94	1.500			
0.4508	28848.16	3.8170	3.8171	1.3872	26.88	0.92	1.500			
0.4550	29117.34	3.8140	3.8139	1.4056	26.87	0.91	1.500			
0.4592	29389.09	3.8110	3.8110	1.4270	26.85	0.89	1.500			
0.4635	29664.31	3.8080	3.8081	1.4494	26.84	0.88	1.500			
0.4679	29946.13	3.8050	3.8050	1.4793	26.82	0.86	1.500			
0.4723	30229.63	3.8020	3.8020	1.5073	26.81	0.85	1.500			
0.4769	30521.70	3.7990	3.7990	1.5391	26.79	0.83	1.500			
0.4816	30821.61	3.7960	3.7960	1.5622	26.77	0.81	1.500			
0.4863	31126.18	3.7930	3.7931	1.5918	26.76	0.80	1.500			
0.4912	31434.78	3.7900	3.7900	1.6098	26.74	0.78	1.500			
0.4960	31745.93	3.7870	3.7869	1.6358	26.73	0.77	1.500			
0.5009	32060.63	3.7840	3.7841	1.6598	26.71	0.75	1.500	0.345	0.481	
0.5060	32383.52	3.7810	3.7811	1.6891	26.70	0.74	1.500			
0.5111	32713.25	3.7780	3.7780	1.7009	26.68	0.72	1.500			
0.5163	33040.47	3.7750	3.7751	1.6931	26.66	0.70	1.500			
0.5214	33366.50	3.7720	3.7720	1.6976	26.65	0.69	1.500			
0.5264	33690.42	3.7690	3.7690	1.6995	26.63	0.67	1.500			
0.5315	34014.52	3.7660	3.7660	1.7121	26.61	0.65	1.500			
0.5366	34344.76	3.7630	3.7630	1.7243	26.60	0.64	1.500			
0.5419	34679.41	3.7600	3.7600	1.7229	26.58	0.62	1.500			
0.5470	35008.30	3.7570	3.7570	1.7455	26.56	0.60	1.500			
0.5523	35345.93	3.7540	3.7540	1.7716	26.55	0.59	1.500			
0.5576	35686.49	3.7510	3.7511	1.7793	26.53	0.57	1.500			
0.5630	36029.88	3.7480	3.7480	1.7994	26.51	0.55	1.500			
0.5684	36379.27	3.7450	3.7449	1.8303	26.50	0.54	1.500			
0.5739	36727.70	3.7420	3.7420	1.8505	26.48	0.52	1.500			
0.5795	37085.47	3.7390	3.7390	1.8866	26.46	0.50	1.500			
0.5852	37453.90	3.7360	3.7360	1.9443	26.44	0.48	1.500			
0.5911	37830.03	3.7330	3.7330	1.9890	26.42	0.46	1.500			
0.5971	38215.14	3.7300	3.7300	2.0486	26.40	0.44	1.500			
0.6033	38612.85	3.7270	3.7270	2.1098	26.38	0.42	1.500			
0.6098	39028.33	3.7240	3.7240	2.1699	26.37	0.41	1.500			
0.6164	39448.28	3.7210	3.7210	2.2239	26.35	0.39	1.500			
0.6231	39879.85	3.7180	3.7180	2.2805	26.33	0.37	1.500			
0.6301	40326.02	3.7150	3.7149	2.3150	26.31	0.35	1.500			
0.6371	40776.43	3.7120	3.7120	2.3203	26.29	0.33	1.500			
0.6442	41226.76	3.7090	3.7090	2.2577	26.27	0.31	1.500			
0.6509	41655.60	3.7060	3.7060	2.1658	26.25	0.29	1.500			
0.6572	42062.70	3.7030	3.7030	2.0522	26.23	0.27	1.500			
0.6633	42449.67	3.7000	3.7000	1.9315	26.22	0.26	1.500			
0.6688	42805.16	3.6970	3.6970	1.8127	26.21	0.25	1.500			
0.6740	43134.77	3.6940	3.6940	1.6848	26.19	0.23	1.500			
0.6789	43446.60	3.6910	3.6909	1.5946	26.18	0.22	1.500			
0.6835	43744.54	3.6880	3.6880	1.5184	26.17	0.21	1.500			
0.6879	44025.47	3.6850	3.6850	1.4483	26.16	0.20	1.500			
0.6921	44295.78	3.6820	3.6820	1.3881	26.15	0.19	1.500			
0.6961	44553.48	3.6790	3.6790	1.3401	26.14	0.18	1.500			
0.7000	44801.21	3.6760	3.6760	1.3088	26.13	0.17	1.500			
0.7039	45046.96	3.6730	3.6729	1.2870	26.12	0.16	1.500			
0.7076	45288.83	3.6700	3.6700	1.2776	26.11	0.15	1.500			
0.7115	45533.11	3.6670	3.6671	1.2808	26.10	0.14	1.500			
0.7153	45781.46	3.6640	3.6640	1.2780	26.09	0.13	1.500			
0.7192	46027.11	3.6610	3.6610	1.2831	26.08	0.12	1.500			
0.7230	46272.86	3.6580	3.6581	1.2776	26.08	0.12	1.500			
0.7269	46519.43	3.6550	3.6550	1.2727	26.07	0.11	1.500			
0.7307	46765.07	3.6520	3.6520	1.2653	26.06	0.10	1.500			
0.7345	47006.94	3.6490	3.6491	1.2534	26.05	0.09	1.500			
0.7382	47246.04	3.6460	3.6460	1.2398	26.04	0.08	1.500			
0.7419	47483.96	3.6430	3.6430	1.2276	26.03	0.07	1.500			
0.7455	47714.97	3.6400	3.6400	1.2134	26.02	0.06	1.500			
0.7492	47947.17	3.6370	3.6370	1.2117	26.01	0.05	1.500			
0.7528	48179.87	3.6340	3.6340	1.2068	26.00	0.04	1.500			
0.7564	48411.85	3.6310	3.6310	1.1984	26.00	0.04	1.500			
0.7601	48643.29	3.6280	3.6280	1.1890	25.99	0.03	1.500			
0.7636	48872.14	3.6250	3.6251	1.1776	25.99	0.03	1.500			
0.7672	49097.81	3.6220	3.6220	1.1623	25.98	0.02	1.500			
0.7706	49319.64	3.6190	3.6189	1.1412	25.97	0.01	1.500			
0.7740	49536.09	3.6160	3.6160	1.1204	25.97	0.01	1.500			
0.7773	49749.59	3.6130	3.6129	1.0995	25.96	0.00	1.500			
0.7806	49959.04	3.6100	3.6100	1.0736	25.96	0.00	1.500			
0.7838	50164.18	3.6070	3.6070	1.0480	25.96	0.00	1.500			
0.7869	50361.16	3.6040	3.6041	1.0187	25.96	0.00	1.500			
0.7899	50554.75	3.6010	3.6010	0.9927	25.96	0.00	1.500			
0.7929	50745.25	3.5980	3.5980	0.9615	25.96	0.00	1.500			
0.7957	50927.81	3.5950	3.5949	0.9155	25.96	0.00	1.500			
0.7985	51104.80	3.5920	3.5920	0.8635	25.96	0.00	1.500			
0.8011	51268.17	3.5890	3.5890	0.7953	25.96	0.00	1.500			
0.8034	51417.71	3.5860	3.5860	0.7184	25.96	0.00	1.500			
0.8054	51547.31	3.5830	3.5830	0.6300	25.96	0.00	1.500			
0.8072	51657.80	3.5800	3.5800	0.5428	25.96	0.00	1.500			
0.8086	51752.39	3.5770	3.5770	0.4639	25.96	0.00	1.500			
0.8099	51831.25	3.5740	3.5740	0.3945	25.96	0.00	1.500			
0.8109	51897.52	3.5710	3.5709	0.3392	25.96	0.00	1.500			
0.8118	51953.98	3.5680	3.5679	0.2927	25.96	0.00	1.500			
0.8126	52003.42	3.5650	3.5650	0.2575	25.96	0.00	1.500			
0.8132	52047.26	3.5620	3.5620	0.2258	25.96	0.00	1.500			
0.8139	52087.52	3.5590	3.5589	0.2036	25.96	0.00	1.500			
0.8144	52122.91	3.5560	3.5559	0.1824	25.96	0.00	1.500			
0.8149	52156.22	3.5530	3.5531	0.1651	25.96	0.00	1.500			
0.8154	52186.00	3.5500	3.5500	0.1498	25.96	0.00	1.500			
0.8158	52212.88	3.5470	3.5469	0.1337	25.96	0.00	1.500			
0.8162	52236.84	3.5440	3.5439	0.1187	25.96	0.00	1.500			
0.8165	52257.86	3.5410	3.5411	0.1031	25.96	0.00	1.500			
0.8168	52276.31	3.5380	3.5381	0.0891	25.96	0.00	1.500			
0.8171	52292.55	3.5350	3.5352	0.0751	25.96	0.00	1.500			
0.8173	52305.80	3.5320	3.5322	0.0602	25.96	0.00	1.500			
0.8174	52315.89	3.5290	3.5297	0.0449	25.96	0.00	1.500			
0.8175	52323.05	3.5260	3.5271	0.0296	25.96	0.00	1.500			
