Ah_balance (normalized)	Ah_balance (mAh)	Voltage - fit (V)	Voltage -  interpolate (V)	dQ/dV (1/V)	Temperature (°C)	Temperature - diff (°C)	Current (C)	R_DC 0ms (mOhm)	R_DC 50ms (mOhm)	R_DC 50 ms PEC (mOhm)
0.2150	13759.89	3.9110	3.9109	-0.1187	25.80	0.00	-1.500			
0.2154	13786.27	3.9080	3.9079	-0.1527	25.80	0.00	-1.500			
0.2159	13818.98	3.9050	3.9050	-0.1848	25.80	0.00	-1.500			
0.2165	13858.12	3.9020	3.9020	-0.2143	25.80	0.00	-1.500			
0.2172	13902.46	3.8990	3.8991	-0.2420	25.80	0.00	-1.500			
0.2180	13952.39	3.8960	3.8959	-0.2720	25.80	0.00	-1.500			
0.2189	14007.33	3.8930	3.8931	-0.2979	25.80	0.00	-1.500			
0.2198	14066.87	3.8900	3.8900	-0.3253	25.80	0.00	-1.500			
0.2208	14131.00	3.8870	3.8871	-0.3538	25.80	0.00	-1.500			
0.2219	14202.25	3.8840	3.8840	-0.3805	25.80	0.00	-1.500			
0.2231	14278.07	3.8810	3.8809	-0.4091	25.80	0.00	-1.500			
0.2244	14359.91	3.8780	3.8780	-0.4363	25.80	0.00	-1.500			
0.2257	14446.00	3.8750	3.8751	-0.4637	25.80	0.00	-1.500			
0.2272	14538.10	3.8720	3.8719	-0.4933	25.80	0.00	-1.500			
0.2287	14635.64	3.8690	3.8690	-0.5164	25.80	0.00	-1.500			
0.2303	14736.70	3.8660	3.8661	-0.5407	25.80	0.00	-1.500			
0.2319	14844.43	3.8630	3.8630	-0.5657	25.80	0.00	-1.500			
0.2337	14955.41	3.8600	3.8599	-0.5858	25.80	0.00	-1.500			
0.2355	15070.21	3.8570	3.8570	-0.6034	25.80	0.00	-1.500			
0.2373	15187.20	3.8540	3.8540	-0.6208	25.80	0.00	-1.500			
0.2392	15309.23	3.8510	3.8510	-0.6355	25.80	0.00	-1.500			
0.2411	15433.49	3.8480	3.8479	-0.6508	25.80	0.00	-1.500			
0.2431	15559.89	3.8450	3.8450	-0.6604	25.80	0.00	-1.500			
0.2451	15688.03	3.8420	3.8421	-0.6710	25.80	0.00	-1.500			
0.2472	15818.65	3.8390	3.8390	-0.6815	25.80	0.00	-1.500			
0.2492	15950.59	3.8360	3.8360	-0.6890	25.80	0.00	-1.500			
0.2513	16082.52	3.8330	3.8330	-0.6966	25.80	0.00	-1.500			
0.2534	16217.32	3.8300	3.8300	-0.7062	25.80	0.00	-1.500			
0.2555	16353.73	3.8270	3.8270	-0.7150	25.80	0.00	-1.500			
0.2577	16492.94	3.8240	3.8240	-0.7212	25.80	0.00	-1.500			
0.2599	16633.30	3.8210	3.8210	-0.7230	25.80	0.00	-1.500			
0.2621	16772.57	3.8180	3.8181	-0.7246	25.80	0.00	-1.500			
0.2642	16911.70	3.8150	3.8151	-0.7284	25.80	0.00	-1.500			
0.2664	17050.87	3.8120	3.8119	-0.7304	25.81	0.01	-1.500			
0.2686	17190.79	3.8090	3.8090	-0.7314	25.81	0.01	-1.500			
0.2708	17331.38	3.8060	3.8060	-0.7347	25.81	0.01	-1.500			
0.2730	17474.94	3.8030	3.8030	-0.7384	25.82	0.02	-1.500			
0.2753	17617.11	3.8000	3.8000	-0.7376	25.82	0.02	-1.500			
0.2775	17757.78	3.7970	3.7970	-0.7381	25.82	0.02	-1.500			
0.2797	17898.65	3.7940	3.7940	-0.7403	25.83	0.03	-1.500			
0.2819	18040.74	3.7910	3.7909	-0.7398	25.83	0.03	-1.500			
0.2841	18183.06	3.7880	3.7880	-0.7436	25.83	0.03	-1.500			
0.2864	18326.69	3.7850	3.7850	-0.7444	25.84	0.04	-1.500			
0.2886	18470.66	3.7820	3.7820	-0.7435	25.84	0.04	-1.500			
0.2908	18613.20	3.7790	3.7790	-0.7437	25.85	0.05	-1.500			
0.2931	18755.53	3.7760	3.7760	-0.7408	25.85	0.05	-1.500			
0.2953	18896.89	3.7730	3.7730	-0.7404	25.86	0.06	-1.500			
0.2975	19039.65	3.7700	3.7700	-0.7422	25.86	0.06	-1.500			
0.2997	19181.49	3.7670	3.7670	-0.7412	25.86	0.06	-1.500			
0.3019	19324.49	3.7640	3.7640	-0.7431	25.87	0.07	-1.500			
0.3042	19467.37	3.7610	3.7610	-0.7458	25.87	0.07	-1.500			
0.3064	19610.32	3.7580	3.7580	-0.7448	25.88	0.08	-1.500			
0.3087	19754.77	3.7550	3.7549	-0.7425	25.88	0.08	-1.500			
0.3109	19896.46	3.7520	3.7520	-0.7408	25.89	0.09	-1.500			
0.3131	20038.50	3.7490	3.7490	-0.7404	25.89	0.09	-1.500			
0.3153	20179.92	3.7460	3.7460	-0.7417	25.90	0.10	-1.500			
0.3175	20320.95	3.7430	3.7430	-0.7449	25.90	0.10	-1.500			
0.3198	20464.04	3.7400	3.7401	-0.7492	25.90	0.10	-1.500			
0.3220	20609.79	3.7370	3.7369	-0.7509	25.91	0.11	-1.500			
0.3243	20755.05	3.7340	3.7340	-0.7513	25.91	0.11	-1.500			
0.3265	20898.38	3.7310	3.7311	-0.7540	25.92	0.12	-1.500			
0.3288	21043.60	3.7280	3.7279	-0.7561	25.92	0.12	-1.500			
0.3311	21188.49	3.7250	3.7250	-0.7592	25.93	0.13	-1.500			
0.3334	21335.54	3.7220	3.7220	-0.7609	25.93	0.13	-1.500			
0.3357	21481.92	3.7190	3.7190	-0.7680	25.94	0.14	-1.500			
0.3380	21629.91	3.7160	3.7161	-0.7744	25.94	0.14	-1.500			
0.3403	21779.02	3.7130	3.7130	-0.7763	25.95	0.15	-1.500			
0.3426	21927.28	3.7100	3.7099	-0.7785	25.95	0.15	-1.500			
0.3449	22076.75	3.7070	3.7070	-0.7843	25.96	0.16	-1.500			
0.3473	22227.60	3.7040	3.7041	-0.7950	25.96	0.16	-1.500			
0.3497	22379.99	3.7010	3.7009	-0.8050	25.97	0.17	-1.500			
0.3521	22534.47	3.6980	3.6980	-0.8139	25.97	0.17	-1.500			
0.3546	22693.52	3.6950	3.6950	-0.8272	25.98	0.18	-1.500			
0.3571	22854.79	3.6920	3.6920	-0.8414	25.99	0.19	-1.500			
0.3597	23018.00	3.6890	3.6890	-0.8474	25.99	0.19	-1.500			
0.3622	23181.22	3.6860	3.6861	-0.8560	26.00	0.20	-1.500			
0.3648	23345.69	3.6830	3.6829	-0.8642	26.00	0.20	-1.500			
0.3674	23510.84	3.6800	3.6800	-0.8742	26.01	0.21	-1.500			
0.3700	23679.16	3.6770	3.6770	-0.8892	26.01	0.21	-1.500			
0.3727	23849.95	3.6740	3.6740	-0.9064	26.01	0.21	-1.500			
0.3754	24025.81	3.6710	3.6710	-0.9258	26.02	0.22	-1.500			
0.3782	24206.72	3.6680	3.6680	-0.9452	26.02	0.22	-1.500			
0.3811	24390.29	3.6650	3.6650	-0.9611	26.02	0.22	-1.500			
0.3840	24577.32	3.6620	3.6620	-0.9777	26.03	0.23	-1.500			
0.3870	24767.27	3.6590	3.6590	-0.9901	26.03	0.23	-1.500			
0.3900	24958.56	3.6560	3.6560	-1.0069	26.03	0.23	-1.500			
0.3930	25152.74	3.6530	3.6530	-1.0178	26.04	0.24	-1.500			
0.3961	25347.51	3.6500	3.6500	-1.0403	26.04	0.24	-1.500			
0.3992	25548.05	3.6470	3.6471	-1.0643	26.04	0.24	-1.500			
0.4024	25753.79	3.6440	3.6439	-1.0897	26.05	0.25	-1.500			
0.4057	25966.14	3.6410	3.6409	-1.1137	26.05	0.25	-1.500			
0.4091	26184.31	3.6380	3.6381	-1.1385	26.06	0.26	-1.500			
0.4126	26404.49	3.6350	3.6350	-1.1578	26.06	0.26	-1.500			
0.4161	26631.87	3.6320	3.6320	-1.1801	26.06	0.26	-1.500			
0.4197	26858.20	3.6290	3.6291	-1.1954	26.07	0.27	-1.500			
0.4232	27087.05	3.6260	3.6260	-1.2216	26.07	0.27	-1.500			
0.4269	27323.04	3.6230	3.6231	-1.2491	26.07	0.27	-1.500			
0.4307	27566.61	3.6200	3.6199	-1.2776	26.07	0.27	-1.500			
0.4346	27816.14	3.6170	3.6170	-1.3046	26.08	0.28	-1.500			
0.4386	28070.64	3.6140	3.6140	-1.3259	26.08	0.28	-1.500			
0.4426	28326.42	3.6110	3.6110	-1.3476	26.08	0.28	-1.500			
0.4467	28585.80	3.6080	3.6080	-1.3778	26.08	0.28	-1.500			
0.4508	28852.18	3.6050	3.6051	-1.4001	26.08	0.28	-1.500			
0.4551	29123.39	3.6020	3.6019	-1.4258	26.08	0.28	-1.500			
0.4594	29400.49	3.5990	3.5990	-1.4515	26.08	0.28	-1.500			
0.4638	29683.08	3.5960	3.5960	-1.4791	26.08	0.28	-1.500			
0.4683	29969.49	3.5930	3.5930	-1.5004	26.08	0.28	-1.500			
0.4728	30259.21	3.5900	3.5900	-1.5291	26.08	0.28	-1.500			
0.4774	30553.95	3.5870	3.5871	-1.5489	26.09	0.29	-1.500			
0.4821	30857.42	3.5840	3.5839	-1.5795	26.09	0.29	-1.500			
0.4869	31162.35	3.5810	3.5810	-1.5971	26.09	0.29	-1.500			
0.4918	31473.18	3.5780	3.5780	-1.6165	26.09	0.29	-1.500			
0.4966	31782.67	3.5750	3.5751	-1.6442	26.09	0.29	-1.500			
0.5016	32101.95	3.5720	3.5720	-1.6632	26.10	0.30	-1.500			
0.5066	32421.89	3.5690	3.5690	-1.6818	26.10	0.30	-1.500			
0.5117	32747.50	3.5660	3.5660	-1.7103	26.10	0.30	-1.500			
0.5168	33077.14	3.5630	3.5631	-1.7317	26.10	0.30	-1.500			
0.5221	33413.55	3.5600	3.5599	-1.7558	26.11	0.31	-1.500			
0.5274	33753.15	3.5570	3.5570	-1.7687	26.11	0.31	-1.500			
0.5327	34092.31	3.5540	3.5540	-1.7942	26.12	0.32	-1.500			
0.5382	34443.94	3.5510	3.5511	-1.8148	26.12	0.32	-1.500			
0.5436	34787.92	3.5480	3.5479	-1.8464	26.12	0.32	-1.500			
0.5492	35150.85	3.5450	3.5451	-1.8500	26.12	0.32	-1.500			
0.5548	35509.20	3.5420	3.5419	-1.8584	26.12	0.32	-1.500			
0.5605	35869.67	3.5390	3.5390	-1.8565	26.12	0.32	-1.500	0.387	0.517	
0.5660	36226.29	3.5360	3.5359	-1.8478	26.13	0.33	-1.500			
0.5716	36579.73	3.5330	3.5330	-1.8431	26.13	0.33	-1.500			
0.5771	36932.83	3.5300	3.5299	-1.8302	26.14	0.34	-1.500			
0.5825	37280.65	3.5270	3.5270	-1.8340	26.15	0.35	-1.500			
0.5880	37631.59	3.5240	3.5241	-1.8372	26.16	0.36	-1.500			
0.5935	37983.27	3.5210	3.5209	-1.8397	26.17	0.37	-1.500			
0.5990	38337.37	3.5180	3.5180	-1.8333	26.17	0.37	-1.500			
0.6045	38690.10	3.5150	3.5150	-1.8224	26.18	0.38	-1.500			
0.6100	39042.05	3.5120	3.5120	-1.8197	26.19	0.39	-1.500			
0.6155	39389.81	3.5090	3.5090	-1.7976	26.20	0.40	-1.500			
0.6208	39730.78	3.5060	3.5060	-1.7936	26.21	0.41	-1.500			
0.6262	40073.95	3.5030	3.5030	-1.8001	26.22	0.42	-1.500			
0.6315	40417.48	3.5000	3.4999	-1.8040	26.23	0.43	-1.500			
0.6370	40768.90	3.4970	3.4969	-1.7994	26.24	0.44	-1.500			
0.6424	41116.09	3.4940	3.4941	-1.7877	26.25	0.45	-1.500			
0.6478	41459.79	3.4910	3.4910	-1.7901	26.26	0.46	-1.500			
0.6532	41802.17	3.4880	3.4880	-1.7764	26.27	0.47	-1.500			
0.6584	42137.17	3.4850	3.4849	-1.7594	26.28	0.48	-1.500			
0.6637	42478.39	3.4820	3.4822	-1.7458	26.29	0.49	-1.500			
0.6689	42810.27	3.4790	3.4790	-1.7376	26.30	0.50	-1.500			
0.6742	43146.73	3.4760	3.4760	-1.7259	26.31	0.51	-1.500			
0.6793	43475.84	3.4730	3.4729	-1.7012	26.32	0.52	-1.500			
0.6844	43799.98	3.4700	3.4700	-1.6860	26.33	0.53	-1.500			
0.6894	44121.46	3.4670	3.4670	-1.6663	26.35	0.55	-1.500			
0.6943	44437.72	3.4640	3.4640	-1.6555	26.36	0.56	-1.500			
0.6993	44757.67	3.4610	3.4610	-1.6313	26.37	0.57	-1.500			
0.7042	45067.78	3.4580	3.4580	-1.6101	26.39	0.59	-1.500			
0.7090	45377.36	3.4550	3.4550	-1.5875	26.40	0.60	-1.500			
0.7137	45678.76	3.4520	3.4521	-1.5599	26.41	0.61	-1.500			
0.7183	45974.03	3.4490	3.4489	-1.5340	26.43	0.63	-1.500			
0.7229	46265.99	3.4460	3.4460	-1.5097	26.45	0.65	-1.500			
0.7274	46552.09	3.4430	3.4430	-1.4808	26.46	0.66	-1.500			
0.7318	46837.43	3.4400	3.4400	-1.4748	26.48	0.68	-1.500			
0.7362	47116.00	3.4370	3.4370	-1.4583	26.50	0.70	-1.500			
0.7405	47394.66	3.4340	3.4339	-1.4520	26.51	0.71	-1.500			
0.7448	47669.48	3.4310	3.4310	-1.4402	26.53	0.73	-1.500			
0.7492	47946.32	3.4280	3.4280	-1.4387	26.54	0.74	-1.500			
0.7535	48223.27	3.4250	3.4250	-1.4341	26.56	0.76	-1.500			
0.7578	48502.32	3.4220	3.4220	-1.4286	26.57	0.77	-1.500			
0.7621	48774.96	3.4190	3.4191	-1.4091	26.59	0.79	-1.500			
0.7663	49045.44	3.4160	3.4160	-1.3862	26.61	0.81	-1.500			
0.7705	49310.48	3.4130	3.4130	-1.3638	26.62	0.82	-1.500			
0.7746	49572.75	3.4100	3.4100	-1.3388	26.64	0.84	-1.500			
0.7786	49828.10	3.4070	3.4070	-1.3018	26.66	0.86	-1.500			
0.7824	50076.74	3.4040	3.4039	-1.2657	26.68	0.88	-1.500			
0.7862	50315.54	3.4010	3.4011	-1.2246	26.69	0.89	-1.500			
0.7898	50547.54	3.3980	3.3979	-1.1826	26.70	0.90	-1.500			
0.7933	50770.04	3.3950	3.3949	-1.1368	26.72	0.92	-1.500			
0.7966	50981.28	3.3920	3.3921	-1.0924	26.74	0.94	-1.500			
0.7998	51189.14	3.3890	3.3890	-1.0532	26.75	0.95	-1.500			
0.8029	51387.81	3.3860	3.3860	-1.0138	26.77	0.97	-1.500			
0.8059	51578.35	3.3830	3.3829	-0.9661	26.78	0.98	-1.500			
0.8087	51759.35	3.3800	3.3799	-0.9203	26.80	1.00	-1.500			
0.8114	51930.88	3.3770	3.3771	-0.8858	26.81	1.01	-1.500			
0.8140	52095.87	3.3740	3.3740	-0.8502	26.83	1.03	-1.500			
0.8165	52254.48	3.3710	3.3709	-0.8158	26.84	1.04	-1.500			
0.8189	52409.03	3.3680	3.3680	-0.7886	26.85	1.05	-1.500			
0.8212	52555.64	3.3650	3.3651	-0.7618	26.86	1.06	-1.500			
0.8235	52701.08	3.3620	3.3620	-0.7392	26.87	1.07	-1.500			
0.8256	52840.91	3.3590	3.3589	-0.7156	26.88	1.08	-1.500			
0.8277	52974.52	3.3560	3.3560	-0.6912	26.89	1.09	-1.500			
0.8298	53104.87	3.3530	3.3530	-0.6701	26.90	1.10	-1.500			
0.8318	53232.18	3.3500	3.3501	-0.6481	26.91	1.11	-1.500			
0.8337	53354.32	3.3470	3.3470	-0.6274	26.91	1.11	-1.500			
0.8355	53472.45	3.3440	3.3440	-0.6049	26.92	1.12	-1.500			
0.8373	53586.33	3.3410	3.3410	-0.5848	26.93	1.13	-1.500			
0.8390	53695.88	3.3380	3.3380	-0.5660	26.94	1.14	-1.500			
0.8407	53802.20	3.3350	3.3350	-0.5499	26.95	1.15	-1.500			
0.8423	53906.26	3.3320	3.3320	-0.5336	26.95	1.15	-1.500			
0.8439	54007.27	3.3290	3.3290	-0.5188	26.96	1.16	-1.500			
0.8454	54105.09	3.3260	3.3260	-0.5019	26.97	1.17	-1.500			
0.8469	54200.71	3.3230	3.3229	-0.4873	26.98	1.18	-1.500			
0.8483	54292.54	3.3200	3.3200	-0.4713	26.98	1.18	-1.500			
0.8497	54381.33	3.3170	3.3170	-0.4560	26.99	1.19	-1.500			
0.8510	54466.85	3.3140	3.3140	-0.4417	27.00	1.20	-1.500			
0.8524	54550.85	3.3110	3.3109	-0.4294	27.00	1.20	-1.500			
0.8536	54631.54	3.3080	3.3080	-0.4159	27.01	1.21	-1.500			
0.8548	54710.02	3.3050	3.3051	-0.4059	27.02	1.22	-1.500			
0.8560	54786.84	3.3020	3.3019	-0.3940	27.02	1.22	-1.500			
0.8572	54861.45	3.2990	3.2990	-0.3820	27.03	1.23	-1.500			
0.8583	54933.30	3.2960	3.2960	-0.3709	27.03	1.23	-1.500			
0.8594	55003.32	3.2930	3.2930	-0.3600	27.03	1.23	-1.500			
0.8605	55071.86	3.2900	3.2900	-0.3502	27.04	1.24	-1.500			
0.8615	55137.69	3.2870	3.2870	-0.3404	27.04	1.24	-1.500			
0.8625	55201.85	3.2840	3.2841	-0.3296	27.04	1.24	-1.500			
0.8635	55264.67	3.2810	3.2810	-0.3222	27.05	1.25	-1.500			
0.8645	55325.41	3.2780	3.2780	-0.3142	27.05	1.25	-1.500			
0.8654	55384.89	3.2750	3.2750	-0.3050	27.06	1.26	-1.500			
0.8663	55442.86	3.2720	3.2719	-0.2972	27.07	1.27	-1.500			
0.8672	55498.97	3.2690	3.2691	-0.2892	27.07	1.27	-1.500			
0.8680	55553.33	3.2660	3.2660	-0.2809	27.08	1.28	-1.500			
0.8689	55606.52	3.2630	3.2630	-0.2747	27.08	1.28	-1.500			
0.8697	55658.27	3.2600	3.2600	-0.2672	27.09	1.29	-1.500			
0.8705	55708.93	3.2570	3.2570	-0.2610	27.09	1.29	-1.500			
0.8712	55759.08	3.2540	3.2541	-0.2558	27.10	1.30	-1.500			
0.8720	55807.05	3.2510	3.2510	-0.2502	27.10	1.30	-1.500			
0.8727	55854.64	3.2480	3.2480	-0.2443	27.11	1.31	-1.500			
0.8735	55900.90	3.2450	3.2450	-0.2397	27.11	1.31	-1.500			
0.8742	55946.23	3.2420	3.2419	-0.2343	27.12	1.32	-1.500			
0.8749	55990.57	3.2390	3.2391	-0.2297	27.12	1.32	-1.500			
0.8755	56034.38	3.2360	3.2360	-0.2254	27.13	1.33	-1.500			
0.8762	56077.53	3.2330	3.2329	-0.2209	27.13	1.33	-1.500			
0.8769	56119.38	3.2300	3.2301	-0.2168	27.14	1.34	-1.500			
0.8775	56160.21	3.2270	3.2271	-0.2119	27.14	1.34	-1.500			
0.8781	56200.68	3.2240	3.2240	-0.2092	27.14	1.34	-1.500			
0.8788	56240.16	3.2210	3.2210	-0.2046	27.15	1.35	-1.500			
0.8794	56279.21	3.2180	3.2180	-0.2014	27.15	1.35	-1.500			
0.8800	56317.49	3.2150	3.2150	-0.1981	27.16	1.36	-1.500			
0.8805	56355.19	3.2120	3.2121	-0.1960	27.16	1.36	-1.500			
0.8811	56392.84	3.2090	3.2090	-0.1929	27.17	1.37	-1.500			
0.8817	56429.20	3.2060	3.2060	-0.1896	27.17	1.37	-1.500			
0.8823	56465.36	3.2030	3.2030	-0.1871	27.17	1.37	-1.500			
0.8828	56500.87	3.2000	3.2001	-0.1845	27.18	1.38	-1.500			
0.8834	56536.37	3.1970	3.1968	-0.1819	27.18	1.38	-1.500			
0.8839	56570.84	3.1940	3.1941	-0.1795	27.19	1.39	-1.500			
0.8845	56605.05	3.1910	3.1910	-0.1770	27.19	1.39	-1.500			
0.8850	56638.50	3.1880	3.1881	-0.1746	27.19	1.39	-1.500			
0.8855	56671.98	3.1850	3.1849	-0.1732	27.20	1.40	-1.500			
0.8860	56704.89	3.1820	3.1819	-0.1704	27.20	1.40	-1.500			
0.8865	56737.45	3.1790	3.1792	-0.1688	27.20	1.40	-1.500			
0.8870	56769.75	3.1760	3.1760	-0.1671	27.21	1.41	-1.500			
0.8875	56801.90	3.1730	3.1730	-0.1654	27.21	1.41	-1.500			
0.8880	56833.11	3.1700	3.1700	-0.1632	27.22	1.42	-1.500			
0.8885	56864.29	3.1670	3.1669	-0.1616	27.22	1.42	-1.500			
0.8890	56895.02	3.1640	3.1641	-0.1605	27.23	1.43	-1.500			
0.8895	56925.64	3.1610	3.1610	-0.1590	27.23	1.43	-1.500			
0.8899	56956.36	3.1580	3.1580	-0.1578	27.23	1.43	-1.500			
0.8904	56986.50	3.1550	3.1549	-0.1562	27.24	1.44	-1.500			
0.8909	57016.49	3.1520	3.1520	-0.1540	27.24	1.44	-1.500			
0.8913	57045.84	3.1490	3.1490	-0.1529	27.25	1.45	-1.500			
0.8918	57074.73	3.1460	3.1460	-0.1509	27.25	1.45	-1.500			
0.8922	57103.58	3.1430	3.1431	-0.1497	27.26	1.46	-1.500			
0.8927	57131.98	3.1400	3.1399	-0.1484	27.26	1.46	-1.500			
0.8931	57160.41	3.1370	3.1370	-0.1474	27.27	1.47	-1.500			
0.8936	57188.94	3.1340	3.1341	-0.1466	27.27	1.47	-1.500			
0.8940	57216.93	3.1310	3.1310	-0.1450	27.28	1.48	-1.500			
0.8944	57244.69	3.1280	3.1280	-0.1443	27.28	1.48	-1.500			
0.8949	57271.98	3.1250	3.1250	-0.1429	27.28	1.48	-1.500			
0.8953	57299.44	3.1220	3.1220	-0.1419	27.29	1.49	-1.500			
0.8957	57326.60	3.1190	3.1190	-0.1410	27.29	1.49	-1.500			
0.8961	57353.50	3.1160	3.1160	-0.1403	27.30	1.50	-1.500			
0.8966	57380.43	3.1130	3.1130	-0.1396	27.30	1.50	-1.500			
0.8970	57407.31	3.1100	3.1100	-0.1390	27.31	1.51	-1.500			
0.8974	57433.90	3.1070	3.1069	-0.1376	27.31	1.51	-1.500			
0.8978	57460.10	3.1040	3.1040	-0.1361	27.31	1.51	-1.500			
0.8982	57486.15	3.1010	3.1010	-0.1351	27.32	1.52	-1.500			
0.8986	57511.98	3.0980	3.0980	-0.1340	27.32	1.52	-1.500			
0.8990	57537.56	3.0950	3.0950	-0.1337	27.33	1.53	-1.500			
0.8994	57562.85	3.0920	3.0920	-0.1330	27.33	1.53	-1.500			
0.8998	57588.58	3.0890	3.0889	-0.1322	27.34	1.54	-1.500			
0.9002	57613.91	3.0860	3.0860	-0.1316	27.34	1.54	-1.500			
0.9006	57639.25	3.0830	3.0830	-0.1312	27.35	1.55	-1.500			
0.9010	57664.44	3.0800	3.0800	-0.1307	27.35	1.55	-1.500			
0.9014	57689.46	3.0770	3.0771	-0.1298	27.36	1.56	-1.500			
0.9018	57714.31	3.0740	3.0739	-0.1287	27.36	1.56	-1.500			
0.9022	57738.74	3.0710	3.0710	-0.1274	27.37	1.57	-1.500			
0.9025	57763.08	3.0680	3.0680	-0.1266	27.37	1.57	-1.500			
0.9029	57787.52	3.0650	3.0650	-0.1263	27.38	1.58	-1.500			
0.9033	57811.45	3.0620	3.0620	-0.1256	27.38	1.58	-1.500			
0.9037	57835.26	3.0590	3.0590	-0.1245	27.38	1.58	-1.500			
0.9041	57859.20	3.0560	3.0560	-0.1240	27.39	1.59	-1.500			
0.9044	57882.88	3.0530	3.0530	-0.1234	27.39	1.59	-1.500			
0.9048	57906.68	3.0500	3.0499	-0.1227	27.40	1.60	-1.500			
0.9052	57930.39	3.0470	3.0470	-0.1223	27.40	1.60	-1.500			
0.9055	57953.67	3.0440	3.0440	-0.1217	27.41	1.61	-1.500			
0.9059	57976.95	3.0410	3.0410	-0.1209	27.41	1.61	-1.500			
0.9063	58000.07	3.0380	3.0380	-0.1203	27.42	1.62	-1.500			
0.9066	58022.93	3.0350	3.0349	-0.1195	27.42	1.62	-1.500			
0.9070	58045.90	3.0320	3.0320	-0.1188	27.42	1.62	-1.500			
0.9073	58068.72	3.0290	3.0291	-0.1183	27.43	1.63	-1.500			
0.9077	58091.37	3.0260	3.0261	-0.1177	27.43	1.63	-1.500			
0.9080	58114.00	3.0230	3.0229	-0.1171	27.44	1.64	-1.500			
0.9084	58136.41	3.0200	3.0199	-0.1162	27.44	1.64	-1.500			
0.9087	58158.59	3.0170	3.0171	-0.1154	27.45	1.65	-1.500			
0.9091	58180.65	3.0140	3.0140	-0.1147	27.45	1.65	-1.500			
0.9094	58202.61	3.0110	3.0110	-0.1140	27.45	1.65	-1.500			
0.9098	58224.44	3.0080	3.0080	-0.1133	27.46	1.66	-1.500			
0.9101	58246.15	3.0050	3.0050	-0.1126	27.46	1.66	-1.500			
0.9104	58267.69	3.0020	3.0020	-0.1118	27.47	1.67	-1.500			
