Ah_balance (normalized)	Ah_balance (mAh)	Voltage - fit (V)	Voltage -  interpolate (V)	dQ/dV (1/V)	Temperature (°C)	Temperature - diff (°C)	Current (C)	R_DC 0ms (mOhm)	R_DC 50ms (mOhm)	R_DC 50 ms PEC (mOhm)
0.2839	18170.66	3.9690	3.9690	0.8551	27.17	1.17	1.500			
0.2865	18338.16	3.9660	3.9659	0.8814	27.17	1.17	1.500			
0.2892	18510.94	3.9630	3.9630	0.9001	27.17	1.17	1.500			
0.2920	18685.69	3.9600	3.9600	0.9126	27.16	1.16	1.500			
0.2948	18865.34	3.9570	3.9570	0.9251	27.16	1.16	1.500			
0.2975	19043.08	3.9540	3.9540	0.9235	27.16	1.16	1.500			
0.3003	19220.71	3.9510	3.9510	0.9266	27.16	1.16	1.500			
0.3031	19398.52	3.9480	3.9480	0.9302	27.16	1.16	1.500			
0.3059	19577.55	3.9450	3.9449	0.9292	27.16	1.16	1.500			
0.3087	19755.41	3.9420	3.9420	0.9331	27.16	1.16	1.500			
0.3115	19935.28	3.9390	3.9391	0.9373	27.16	1.16	1.500			
0.3143	20114.90	3.9360	3.9359	0.9434	27.16	1.16	1.500			
0.3172	20297.82	3.9330	3.9330	0.9446	27.15	1.15	1.500			
0.3200	20477.08	3.9300	3.9300	0.9516	27.15	1.15	1.500			
0.3228	20661.10	3.9270	3.9270	0.9555	27.15	1.15	1.500			
0.3257	20846.41	3.9240	3.9241	0.9664	27.15	1.15	1.500			
0.3286	21031.35	3.9210	3.9211	0.9712	27.15	1.15	1.500			
0.3315	21218.82	3.9180	3.9180	0.9801	27.15	1.15	1.500			
0.3345	21407.91	3.9150	3.9150	0.9878	27.14	1.14	1.500			
0.3375	21598.43	3.9120	3.9120	0.9992	27.14	1.14	1.500			
0.3405	21791.11	3.9090	3.9090	1.0021	27.14	1.14	1.500			
0.3435	21984.72	3.9060	3.9060	1.0155	27.14	1.14	1.500			
0.3466	22179.45	3.9030	3.9030	1.0219	27.13	1.13	1.500			
0.3496	22377.55	3.9000	3.9000	1.0313	27.13	1.13	1.500			
0.3528	22576.31	3.8970	3.8970	1.0379	27.13	1.13	1.500			
0.3559	22776.16	3.8940	3.8940	1.0472	27.13	1.13	1.500			
0.3590	22976.85	3.8910	3.8911	1.0581	27.13	1.13	1.500			
0.3622	23180.84	3.8880	3.8880	1.0742	27.13	1.13	1.500			
0.3654	23387.58	3.8850	3.8850	1.0806	27.12	1.12	1.500			
0.3687	23596.66	3.8820	3.8820	1.0965	27.12	1.12	1.500			
0.3720	23809.30	3.8790	3.8790	1.1101	27.12	1.12	1.500			
0.3754	24025.21	3.8760	3.8761	1.1224	27.12	1.12	1.500			
0.3788	24240.06	3.8730	3.8730	1.1377	27.12	1.12	1.500			
0.3822	24459.34	3.8700	3.8701	1.1474	27.11	1.11	1.500			
0.3856	24680.55	3.8670	3.8670	1.1654	27.11	1.11	1.500			
0.3892	24908.80	3.8640	3.8640	1.1774	27.11	1.11	1.500			
0.3927	25132.00	3.8610	3.8611	1.1933	27.10	1.10	1.500			
0.3963	25362.19	3.8580	3.8580	1.2187	27.10	1.10	1.500			
0.4000	25598.22	3.8550	3.8551	1.2417	27.09	1.09	1.500			
0.4037	25839.27	3.8520	3.8520	1.2577	27.09	1.09	1.500			
0.4076	26085.00	3.8490	3.8490	1.2831	27.08	1.08	1.500			
0.4115	26332.84	3.8460	3.8461	1.3016	27.08	1.08	1.500			
0.4154	26584.09	3.8430	3.8430	1.3323	27.07	1.07	1.500			
0.4193	26837.70	3.8400	3.8400	1.3488	27.07	1.07	1.500			
0.4235	27101.33	3.8370	3.8370	1.3780	27.06	1.06	1.500			
0.4276	27368.56	3.8340	3.8340	1.4112	27.06	1.06	1.500			
0.4319	27644.48	3.8310	3.8311	1.4370	27.06	1.06	1.500			
0.4363	27924.43	3.8280	3.8281	1.4584	27.05	1.05	1.500			
0.4407	28205.65	3.8250	3.8249	1.4853	27.05	1.05	1.500			
0.4451	28488.41	3.8220	3.8220	1.5249	27.05	1.05	1.500			
0.4497	28781.86	3.8190	3.8190	1.5707	27.04	1.04	1.500			
0.4545	29087.74	3.8160	3.8160	1.6158	27.04	1.04	1.500			
0.4595	29405.76	3.8130	3.8130	1.6431	27.03	1.03	1.500			
0.4645	29726.14	3.8100	3.8101	1.6934	27.02	1.02	1.500			
0.4696	30054.21	3.8070	3.8071	1.7333	27.01	1.01	1.500			
0.4749	30391.23	3.8040	3.8039	1.7749	27.00	1.00	1.500			
0.4802	30731.84	3.8010	3.8011	1.8350	26.99	0.99	1.500			
0.4858	31090.23	3.7980	3.7981	1.8892	26.99	0.99	1.500			
0.4915	31459.10	3.7950	3.7950	1.9509	26.98	0.98	1.500			
0.4974	31836.23	3.7920	3.7921	2.0025	26.97	0.97	1.500			
0.5035	32226.77	3.7890	3.7889	2.0700	26.96	0.96	1.500			
0.5099	32633.96	3.7860	3.7860	2.1309	26.94	0.94	1.500			
0.5164	33051.39	3.7830	3.7830	2.2322	26.93	0.93	1.500			
0.5232	33484.68	3.7800	3.7800	2.2788	26.91	0.91	1.500			
0.5301	33929.16	3.7770	3.7771	2.3536	26.89	0.89	1.500			
0.5373	34387.40	3.7740	3.7740	2.4096	26.88	0.88	1.500			
0.5446	34852.28	3.7710	3.7710	2.5022	26.87	0.87	1.500			
0.5521	35337.11	3.7680	3.7679	2.6068	26.86	0.86	1.500			
0.5603	35859.43	3.7650	3.7650	2.6761	26.85	0.85	1.500			
0.5685	36381.53	3.7620	3.7620	2.6953	26.83	0.83	1.500	0.370	0.450	
0.5767	36906.33	3.7590	3.7588	2.6715	26.82	0.82	1.500			
0.5846	37416.28	3.7560	3.7560	2.5750	26.80	0.80	1.500			
0.5923	37904.32	3.7530	3.7531	2.5523	26.78	0.78	1.500			
0.5998	38390.33	3.7500	3.7499	2.5175	26.76	0.76	1.500			
0.6073	38869.11	3.7470	3.7471	2.4710	26.74	0.74	1.500			
0.6147	39341.06	3.7440	3.7440	2.4359	26.72	0.72	1.500			
0.6220	39806.72	3.7410	3.7411	2.3877	26.70	0.70	1.500			
0.6291	40262.03	3.7380	3.7380	2.3638	26.69	0.69	1.500			
0.6361	40710.75	3.7350	3.7350	2.3404	26.67	0.67	1.500			
0.6431	41156.29	3.7320	3.7320	2.3422	26.66	0.66	1.500			
0.6501	41607.37	3.7290	3.7289	2.3478	26.64	0.64	1.500			
0.6572	42060.03	3.7260	3.7260	2.3532	26.63	0.63	1.500			
0.6643	42512.71	3.7230	3.7230	2.3972	26.61	0.61	1.500			
0.6714	42971.78	3.7200	3.7200	2.4510	26.59	0.59	1.500			
0.6789	43449.15	3.7170	3.7170	2.5542	26.57	0.57	1.500			
0.6867	43948.02	3.7140	3.7140	2.6294	26.55	0.55	1.500			
0.6947	44457.81	3.7110	3.7111	2.7473	26.53	0.53	1.500			
0.7029	44986.26	3.7080	3.7080	2.8917	26.52	0.52	1.500			
0.7120	45568.80	3.7050	3.7050	3.0202	26.50	0.50	1.500			
0.7213	46165.19	3.7020	3.7021	3.1107	26.47	0.47	1.500			
0.7308	46774.31	3.6990	3.6990	3.1505	26.45	0.45	1.500			
0.7401	47368.49	3.6960	3.6961	3.0729	26.42	0.42	1.500			
0.7495	47968.29	3.6930	3.6929	2.9776	26.40	0.40	1.500			
0.7580	48515.16	3.6900	3.6901	2.6909	26.38	0.38	1.500			
0.7658	49008.63	3.6870	3.6870	2.4246	26.36	0.36	1.500			
0.7725	49442.80	3.6840	3.6840	2.1746	26.34	0.34	1.500			
0.7786	49830.22	3.6810	3.6809	1.9553	26.33	0.33	1.500			
0.7841	50181.46	3.6780	3.6781	1.7955	26.31	0.31	1.500			
0.7891	50505.02	3.6750	3.6749	1.6438	26.30	0.30	1.500			
0.7938	50803.13	3.6720	3.6720	1.5285	26.29	0.29	1.500			
0.7981	51081.02	3.6690	3.6690	1.4230	26.28	0.28	1.500			
0.8022	51341.15	3.6660	3.6659	1.3436	26.27	0.27	1.500			
0.8061	51590.35	3.6630	3.6630	1.2729	26.26	0.26	1.500			
0.8097	51821.38	3.6600	3.6600	1.2220	26.25	0.25	1.500			
0.8133	52050.10	3.6570	3.6571	1.1901	26.24	0.24	1.500			
0.8167	52270.43	3.6540	3.6539	1.1678	26.23	0.23	1.500			
0.8202	52490.48	3.6510	3.6511	1.1636	26.23	0.23	1.500			
0.8236	52709.81	3.6480	3.6480	1.1698	26.22	0.22	1.500			
0.8271	52934.71	3.6450	3.6448	1.1828	26.21	0.21	1.500			
0.8307	53163.19	3.6420	3.6420	1.2018	26.20	0.20	1.500			
0.8343	53395.97	3.6390	3.6390	1.2128	26.19	0.19	1.500			
0.8380	53634.34	3.6360	3.6360	1.2219	26.18	0.18	1.500			
0.8417	53870.45	3.6330	3.6330	1.2211	26.17	0.17	1.500			
0.8454	54106.28	3.6300	3.6301	1.2204	26.16	0.16	1.500			
0.8491	54339.39	3.6270	3.6270	1.2213	26.15	0.15	1.500			
0.8527	54571.11	3.6240	3.6242	1.2250	26.14	0.14	1.500			
0.8563	54805.25	3.6210	3.6210	1.2308	26.13	0.13	1.500			
0.8601	55043.31	3.6180	3.6179	1.2449	26.12	0.12	1.500			
0.8638	55284.77	3.6150	3.6150	1.2471	26.11	0.11	1.500			
0.8676	55527.01	3.6120	3.6120	1.2533	26.10	0.10	1.500			
0.8714	55768.03	3.6090	3.6091	1.2557	26.09	0.09	1.500			
0.8751	56009.16	3.6060	3.6060	1.2508	26.07	0.07	1.500			
0.8789	56249.74	3.6030	3.6030	1.2432	26.07	0.07	1.500			
0.8826	56488.40	3.6000	3.6001	1.2314	26.06	0.06	1.500			
0.8863	56723.27	3.5970	3.5970	1.2207	26.05	0.05	1.500			
0.8900	56959.02	3.5940	3.5940	1.2117	26.04	0.04	1.500			
0.8935	57186.79	3.5910	3.5910	1.2068	26.04	0.04	1.500			
0.8971	57416.33	3.5880	3.5880	1.2035	26.03	0.03	1.500			
0.9007	57644.86	3.5850	3.5850	1.2155	26.02	0.02	1.500			
0.9044	57878.58	3.5820	3.5820	1.2314	26.02	0.02	1.500			
0.9082	58122.12	3.5790	3.5789	1.2225	26.02	0.02	1.500			
0.9119	58362.35	3.5760	3.5759	1.1867	26.01	0.01	1.500			
0.9157	58606.58	3.5730	3.5730	1.1000	26.01	0.01	1.500			
0.9190	58816.25	3.5700	3.5702	0.9741	26.01	0.01	1.500			
0.9218	58998.19	3.5670	3.5672	0.8366	26.00	0.00	1.500			
0.9240	59137.58	3.5640	3.5640	0.6779	26.00	0.00	1.500			
0.9256	59238.37	3.5610	3.5611	0.5279	26.00	0.00	1.500			
0.9269	59323.50	3.5580	3.5575	0.4067	26.00	-0.00	1.500			
0.9278	59380.80	3.5550	3.5550	0.3205	26.00	-0.00	1.500			
0.9286	59428.46	3.5520	3.5520	0.2635	26.00	-0.00	1.500			
0.9292	59469.72	3.5490	3.5490	0.2050	26.00	-0.00	1.500			
0.9297	59503.87	3.5460	3.5459	0.1636	26.00	-0.00	1.500			
0.9301	59529.16	3.5430	3.5429	0.1259	26.00	-0.00	1.500			
0.9305	59550.50	3.5400	3.5401	0.0945	26.00	-0.00	1.500			
0.9307	59564.71	3.5370	3.5374	0.0663	26.00	-0.00	1.500			
0.9309	59574.76	3.5340	3.5346	0.0384	26.00	-0.00	1.500			
