Ah_balance (normalized)	Ah_balance (mAh)	Voltage - fit (V)	Voltage -  interpolate (V)	dQ/dV (1/V)	Temperature (°C)	Temperature - diff (°C)	Current (C)	R_DC 0ms (mOhm)	R_DC 50ms (mOhm)	R_DC 50 ms PEC (mOhm)
0.2747	17583.40	3.9910	3.9911	0.8202	27.33	1.37	1.500			
0.2772	17743.67	3.9880	3.9879	0.8397	27.32	1.36	1.500			
0.2798	17904.01	3.9850	3.9849	0.8372	27.32	1.36	1.500			
0.2823	18064.21	3.9820	3.9822	0.8391	27.31	1.35	1.500			
0.2848	18226.43	3.9790	3.9789	0.8442	27.30	1.34	1.500			
0.2873	18387.43	3.9760	3.9760	0.8494	27.30	1.34	1.500			
0.2898	18547.99	3.9730	3.9730	0.8524	27.29	1.33	1.500			
0.2924	18714.70	3.9700	3.9700	0.8598	27.28	1.32	1.500			
0.2950	18882.30	3.9670	3.9670	0.8685	27.28	1.32	1.500			
0.2976	19049.31	3.9640	3.9640	0.8717	27.27	1.31	1.500			
0.3003	19217.72	3.9610	3.9610	0.8713	27.27	1.31	1.500			
0.3029	19385.59	3.9580	3.9579	0.8705	27.26	1.30	1.500			
0.3055	19551.12	3.9550	3.9550	0.8730	27.25	1.29	1.500			
0.3081	19718.35	3.9520	3.9521	0.8731	27.25	1.29	1.500			
0.3107	19886.81	3.9490	3.9489	0.8759	27.24	1.28	1.500			
0.3133	20054.30	3.9460	3.9461	0.8784	27.23	1.27	1.500			
0.3160	20222.94	3.9430	3.9430	0.8880	27.23	1.27	1.500			
0.3187	20395.22	3.9400	3.9400	0.8960	27.22	1.26	1.500			
0.3214	20567.00	3.9370	3.9370	0.9049	27.22	1.26	1.500			
0.3241	20741.19	3.9340	3.9340	0.9068	27.21	1.25	1.500			
0.3268	20917.71	3.9310	3.9311	0.9136	27.20	1.24	1.500			
0.3296	21094.43	3.9280	3.9280	0.9182	27.20	1.24	1.500			
0.3324	21270.66	3.9250	3.9250	0.9189	27.19	1.23	1.500			
0.3351	21445.12	3.9220	3.9220	0.9221	27.18	1.22	1.500			
0.3379	21622.94	3.9190	3.9190	0.9286	27.17	1.21	1.500			
0.3406	21801.34	3.9160	3.9160	0.9317	27.17	1.21	1.500			
0.3435	21981.38	3.9130	3.9129	0.9430	27.16	1.20	1.500			
0.3463	22163.14	3.9100	3.9101	0.9493	27.15	1.19	1.500			
0.3491	22345.55	3.9070	3.9070	0.9598	27.14	1.18	1.500			
0.3520	22531.09	3.9040	3.9040	0.9670	27.14	1.18	1.500			
0.3550	22717.86	3.9010	3.9010	0.9722	27.13	1.17	1.500			
0.3579	22904.81	3.8980	3.8980	0.9804	27.12	1.16	1.500			
0.3608	23093.63	3.8950	3.8949	0.9876	27.11	1.15	1.500			
0.3638	23283.42	3.8920	3.8921	0.9929	27.10	1.14	1.500			
0.3668	23475.54	3.8890	3.8889	1.0006	27.09	1.13	1.500			
0.3698	23666.35	3.8860	3.8861	1.0120	27.09	1.13	1.500			
0.3729	23862.80	3.8830	3.8830	1.0261	27.08	1.12	1.500			
0.3760	24061.06	3.8800	3.8799	1.0360	27.07	1.11	1.500			
0.3791	24260.50	3.8770	3.8770	1.0461	27.06	1.10	1.500			
0.3822	24462.92	3.8740	3.8741	1.0560	27.05	1.09	1.500			
0.3854	24666.81	3.8710	3.8710	1.0673	27.04	1.08	1.500			
0.3886	24872.54	3.8680	3.8680	1.0787	27.03	1.07	1.500			
0.3919	25079.26	3.8650	3.8650	1.0883	27.02	1.06	1.500			
0.3951	25289.40	3.8620	3.8620	1.1038	27.01	1.05	1.500			
0.3985	25503.38	3.8590	3.8590	1.1178	27.01	1.05	1.500			
0.4019	25718.89	3.8560	3.8560	1.1338	27.00	1.04	1.500			
0.4053	25937.63	3.8530	3.8530	1.1542	26.99	1.03	1.500			
0.4088	26160.53	3.8500	3.8501	1.1713	26.98	1.02	1.500			
0.4123	26387.02	3.8470	3.8470	1.1896	26.97	1.01	1.500			
0.4159	26618.35	3.8440	3.8440	1.2053	26.96	1.00	1.500			
0.4195	26851.00	3.8410	3.8410	1.2242	26.95	0.99	1.500			
0.4233	27088.25	3.8380	3.8380	1.2399	26.94	0.98	1.500			
0.4270	27327.29	3.8350	3.8350	1.2569	26.93	0.97	1.500			
0.4308	27569.90	3.8320	3.8321	1.2755	26.92	0.96	1.500			
0.4346	27815.85	3.8290	3.8290	1.2960	26.91	0.95	1.500			
0.4385	28066.59	3.8260	3.8260	1.3160	26.90	0.94	1.500			
0.4425	28321.61	3.8230	3.8230	1.3395	26.89	0.93	1.500			
0.4466	28581.49	3.8200	3.8200	1.3509	26.87	0.91	1.500			
0.4507	28842.69	3.8170	3.8170	1.3844	26.86	0.90	1.500			
0.4548	29108.28	3.8140	3.8141	1.4079	26.84	0.88	1.500			
0.4591	29380.90	3.8110	3.8109	1.4417	26.83	0.87	1.500			
0.4635	29661.36	3.8080	3.8081	1.4669	26.81	0.85	1.500			
0.4679	29945.91	3.8050	3.8049	1.4971	26.80	0.84	1.500			
0.4725	30237.53	3.8020	3.8021	1.5128	26.79	0.83	1.500			
0.4770	30530.25	3.7990	3.7989	1.5326	26.78	0.82	1.500			
0.4817	30827.65	3.7960	3.7961	1.5565	26.77	0.81	1.500			
0.4864	31127.28	3.7930	3.7931	1.5778	26.76	0.80	1.500			
0.4911	31431.31	3.7900	3.7901	1.6142	26.74	0.78	1.500			
0.4960	31745.18	3.7870	3.7870	1.6323	26.73	0.77	1.500			
0.5010	32062.37	3.7840	3.7840	1.6676	26.71	0.75	1.500			
0.5060	32382.63	3.7810	3.7809	1.6889	26.70	0.74	1.500	0.343	0.475	
0.5111	32711.26	3.7780	3.7778	1.7099	26.68	0.72	1.500			
0.5163	33041.64	3.7750	3.7750	1.7244	26.66	0.70	1.500			
0.5215	33376.22	3.7720	3.7720	1.7152	26.65	0.69	1.500			
0.5267	33709.54	3.7690	3.7690	1.7126	26.63	0.67	1.500			
0.5318	34033.45	3.7660	3.7661	1.7062	26.61	0.65	1.500			
0.5369	34361.39	3.7630	3.7630	1.7159	26.60	0.64	1.500			
0.5420	34690.11	3.7600	3.7600	1.7251	26.59	0.63	1.500			
0.5473	35024.86	3.7570	3.7570	1.7414	26.57	0.61	1.500			
0.5525	35360.03	3.7540	3.7540	1.7661	26.56	0.60	1.500			
0.5578	35700.44	3.7510	3.7510	1.7933	26.55	0.59	1.500			
0.5633	36049.25	3.7480	3.7480	1.8138	26.53	0.57	1.500			
0.5688	36400.12	3.7450	3.7450	1.8246	26.52	0.56	1.500			
0.5742	36749.83	3.7420	3.7420	1.8528	26.50	0.54	1.500			
0.5798	37104.45	3.7390	3.7390	1.8813	26.49	0.53	1.500			
0.5854	37468.70	3.7360	3.7359	1.9293	26.47	0.51	1.500			
0.5913	37846.23	3.7330	3.7331	1.9837	26.45	0.49	1.500			
0.5974	38235.49	3.7300	3.7300	2.0316	26.43	0.47	1.500			
0.6035	38624.61	3.7270	3.7270	2.0753	26.41	0.45	1.500			
0.6098	39026.90	3.7240	3.7239	2.1512	26.39	0.43	1.500			
0.6164	39450.06	3.7210	3.7210	2.2169	26.37	0.41	1.500			
0.6232	39883.85	3.7180	3.7180	2.2754	26.36	0.40	1.500			
0.6301	40324.70	3.7150	3.7150	2.3126	26.34	0.38	1.500			
0.6371	40771.47	3.7120	3.7120	2.3528	26.32	0.36	1.500			
0.6442	41228.09	3.7090	3.7090	2.3742	26.31	0.35	1.500			
0.6514	41692.34	3.7060	3.7060	2.3178	26.30	0.34	1.500			
0.6584	42134.78	3.7030	3.7030	2.2096	26.28	0.32	1.500			
0.6648	42545.47	3.7000	3.7001	2.0646	26.27	0.31	1.500			
0.6707	42927.22	3.6970	3.6970	1.9135	26.26	0.30	1.500			
0.6761	43271.60	3.6940	3.6940	1.7680	26.24	0.28	1.500			
0.6811	43592.90	3.6910	3.6911	1.6480	26.23	0.27	1.500			
0.6859	43897.06	3.6880	3.6877	1.5689	26.22	0.26	1.500			
0.6905	44190.18	3.6850	3.6850	1.4999	26.21	0.25	1.500			
0.6948	44468.73	3.6820	3.6820	1.4430	26.20	0.24	1.500			
0.6991	44741.58	3.6790	3.6790	1.3917	26.18	0.22	1.500			
0.7031	45000.19	3.6760	3.6760	1.3408	26.17	0.21	1.500			
0.7071	45251.23	3.6730	3.6730	1.3054	26.16	0.20	1.500			
0.7109	45496.49	3.6700	3.6700	1.2902	26.15	0.19	1.500			
0.7147	45738.17	3.6670	3.6670	1.2743	26.14	0.18	1.500			
0.7185	45981.98	3.6640	3.6640	1.2721	26.13	0.17	1.500			
0.7222	46223.72	3.6610	3.6610	1.2717	26.12	0.16	1.500			
0.7261	46469.89	3.6580	3.6580	1.2791	26.11	0.15	1.500			
0.7299	46716.12	3.6550	3.6550	1.2803	26.10	0.14	1.500			
0.7338	46963.55	3.6520	3.6519	1.2786	26.10	0.14	1.500			
0.7376	47209.29	3.6490	3.6490	1.2721	26.09	0.13	1.500			
0.7415	47453.89	3.6460	3.6461	1.2624	26.07	0.11	1.500			
0.7452	47695.27	3.6430	3.6430	1.2523	26.06	0.10	1.500			
0.7490	47934.16	3.6400	3.6401	1.2400	26.05	0.09	1.500			
0.7527	48169.95	3.6370	3.6370	1.2324	26.04	0.08	1.500			
0.7563	48405.67	3.6340	3.6340	1.2240	26.03	0.07	1.500			
0.7600	48639.75	3.6310	3.6310	1.2203	26.02	0.06	1.500			
0.7636	48873.44	3.6280	3.6280	1.2178	26.01	0.05	1.500			
0.7673	49109.25	3.6250	3.6250	1.2075	26.01	0.05	1.500			
0.7710	49341.39	3.6220	3.6219	1.1945	26.00	0.04	1.500			
0.7745	49569.63	3.6190	3.6190	1.1761	25.99	0.03	1.500			
0.7780	49793.61	3.6160	3.6161	1.1615	25.99	0.03	1.500			
0.7815	50015.10	3.6130	3.6129	1.1445	25.98	0.02	1.500			
0.7849	50232.44	3.6100	3.6100	1.1203	25.97	0.01	1.500			
0.7882	50446.37	3.6070	3.6070	1.0968	25.97	0.01	1.500			
0.7915	50656.45	3.6040	3.6040	1.0754	25.97	0.01	1.500			
0.7947	50861.87	3.6010	3.6010	1.0503	25.97	0.01	1.500			
0.7978	51060.33	3.5980	3.5981	1.0203	25.97	0.01	1.500			
0.8008	51253.19	3.5950	3.5949	0.9831	25.96	0.00	1.500			
0.8038	51442.15	3.5920	3.5920	0.9460	25.96	0.00	1.500			
0.8066	51624.97	3.5890	3.5889	0.8894	25.96	0.00	1.500			
0.8093	51792.26	3.5860	3.5860	0.8190	25.96	0.00	1.500			
0.8117	51947.43	3.5830	3.5830	0.7380	25.96	-0.00	1.500			
0.8138	52081.48	3.5800	3.5800	0.6477	25.96	-0.00	1.500			
0.8156	52196.13	3.5770	3.5771	0.5597	25.96	-0.00	1.500			
0.8171	52293.15	3.5740	3.5739	0.4752	25.96	-0.00	1.500			
0.8183	52371.27	3.5710	3.5710	0.3982	25.96	-0.00	1.500			
0.8194	52438.42	3.5680	3.5680	0.3422	25.96	-0.00	1.500			
0.8202	52494.70	3.5650	3.5650	0.2934	25.96	-0.00	1.500			
0.8210	52544.91	3.5620	3.5619	0.2587	25.96	-0.00	1.500			
0.8217	52588.60	3.5590	3.5589	0.2253	25.96	-0.00	1.500			
0.8223	52628.28	3.5560	3.5560	0.2031	25.96	-0.00	1.500			
0.8229	52664.01	3.5530	3.5530	0.1838	25.96	-0.00	1.500			
0.8234	52697.53	3.5500	3.5501	0.1670	25.96	-0.00	1.500			
0.8239	52727.88	3.5470	3.5470	0.1522	25.95	-0.01	1.500			
0.8243	52755.31	3.5440	3.5439	0.1368	25.95	-0.01	1.500			
0.8247	52780.13	3.5410	3.5411	0.1219	25.95	-0.01	1.500			
0.8250	52802.14	3.5380	3.5380	0.1075	25.95	-0.01	1.500			
0.8253	52821.40	3.5350	3.5350	0.0931	25.95	-0.01	1.500			
0.8256	52838.36	3.5320	3.5321	0.0789	25.95	-0.01	1.500			
0.8258	52852.01	3.5290	3.5290	0.0638	25.95	-0.01	1.500			
0.8260	52862.83	3.5260	3.5265	0.0489	25.95	-0.01	1.500			
0.8261	52870.78	3.5230	3.5240	0.0339	25.95	-0.01	1.500			
