Ah_balance (normalized)	Ah_balance (mAh)	Voltage - fit (V)	Voltage -  interpolate (V)	dQ/dV (1/V)	Temperature (°C)	Temperature - diff (°C)	Current (C)	R_DC 0ms (mOhm)	R_DC 50ms (mOhm)	R_DC 50 ms PEC (mOhm)
0.2845	18211.10	3.9690	3.9689	0.9228	27.38	1.42	1.500			
0.2873	18388.22	3.9660	3.9661	0.9199	27.38	1.42	1.500			
0.2900	18562.63	3.9630	3.9630	0.9102	27.37	1.41	1.500			
0.2927	18735.82	3.9600	3.9600	0.9076	27.36	1.40	1.500			
0.2954	18908.57	3.9570	3.9571	0.9155	27.36	1.40	1.500			
0.2982	19082.52	3.9540	3.9539	0.9209	27.35	1.39	1.500			
0.3010	19263.00	3.9510	3.9509	0.9254	27.34	1.38	1.500			
0.3038	19441.27	3.9480	3.9481	0.9266	27.34	1.38	1.500			
0.3065	19619.13	3.9450	3.9451	0.9327	27.33	1.37	1.500			
0.3094	19798.48	3.9420	3.9420	0.9383	27.32	1.36	1.500			
0.3122	19979.58	3.9390	3.9389	0.9362	27.32	1.36	1.500			
0.3150	20158.21	3.9360	3.9360	0.9392	27.31	1.35	1.500			
0.3178	20339.01	3.9330	3.9331	0.9487	27.30	1.34	1.500			
0.3207	20523.02	3.9300	3.9301	0.9603	27.30	1.34	1.500			
0.3236	20707.44	3.9270	3.9269	0.9653	27.29	1.33	1.500			
0.3264	20892.07	3.9240	3.9240	0.9710	27.28	1.32	1.500			
0.3294	21080.22	3.9210	3.9211	0.9770	27.27	1.31	1.500			
0.3323	21270.24	3.9180	3.9180	0.9858	27.27	1.31	1.500			
0.3353	21459.94	3.9150	3.9149	0.9888	27.26	1.30	1.500			
0.3383	21648.32	3.9120	3.9122	0.9921	27.25	1.29	1.500			
0.3412	21838.53	3.9090	3.9090	1.0041	27.25	1.29	1.500			
0.3443	22032.75	3.9060	3.9060	1.0136	27.24	1.28	1.500			
0.3473	22229.49	3.9030	3.9029	1.0201	27.23	1.27	1.500			
0.3504	22426.02	3.9000	3.9001	1.0326	27.22	1.26	1.500			
0.3535	22623.89	3.8970	3.8971	1.0427	27.21	1.25	1.500			
0.3566	22824.99	3.8940	3.8940	1.0531	27.20	1.24	1.500			
0.3598	23027.80	3.8910	3.8909	1.0654	27.19	1.23	1.500			
0.3630	23231.54	3.8880	3.8881	1.0680	27.18	1.22	1.500			
0.3662	23437.96	3.8850	3.8850	1.0853	27.17	1.21	1.500			
0.3695	23649.05	3.8820	3.8821	1.1000	27.16	1.20	1.500			
0.3728	23859.49	3.8790	3.8787	1.1157	27.15	1.19	1.500			
0.3762	24074.57	3.8760	3.8761	1.1280	27.14	1.18	1.500			
0.3796	24293.99	3.8730	3.8730	1.1442	27.13	1.17	1.500			
0.3831	24516.84	3.8700	3.8700	1.1564	27.12	1.16	1.500			
0.3865	24738.81	3.8670	3.8670	1.1593	27.11	1.15	1.500			
0.3900	24962.01	3.8640	3.8640	1.1779	27.10	1.14	1.500			
0.3936	25188.33	3.8610	3.8611	1.1938	27.08	1.12	1.500			
0.3971	25417.48	3.8580	3.8579	1.2122	27.07	1.11	1.500			
0.4008	25653.48	3.8550	3.8550	1.2402	27.06	1.10	1.500			
0.4046	25894.38	3.8520	3.8520	1.2603	27.05	1.09	1.500			
0.4085	26141.08	3.8490	3.8489	1.2826	27.04	1.08	1.500			
0.4123	26388.16	3.8460	3.8461	1.3030	27.03	1.07	1.500			
0.4162	26638.07	3.8430	3.8430	1.3200	27.02	1.06	1.500			
0.4202	26893.14	3.8400	3.8400	1.3510	27.01	1.05	1.500			
0.4243	27153.56	3.8370	3.8370	1.3775	27.00	1.04	1.500			
0.4285	27420.88	3.8340	3.8340	1.4011	26.98	1.02	1.500			
0.4327	27695.12	3.8310	3.8310	1.4296	26.97	1.01	1.500			
0.4370	27970.41	3.8280	3.8281	1.4628	26.95	0.99	1.500			
0.4414	28252.26	3.8250	3.8250	1.4969	26.94	0.98	1.500			
0.4460	28541.39	3.8220	3.8220	1.5388	26.93	0.97	1.500			
0.4506	28838.57	3.8190	3.8190	1.5893	26.91	0.95	1.500			
0.4555	29151.58	3.8160	3.8160	1.6165	26.90	0.94	1.500			
0.4604	29465.49	3.8130	3.8130	1.6638	26.88	0.92	1.500			
0.4654	29786.93	3.8100	3.8102	1.7042	26.86	0.90	1.500			
0.4706	30117.31	3.8070	3.8069	1.7488	26.85	0.89	1.500			
0.4759	30456.44	3.8040	3.8040	1.8127	26.83	0.87	1.500			
0.4814	30806.71	3.8010	3.8011	1.8590	26.81	0.85	1.500			
0.4871	31175.30	3.7980	3.7980	1.9292	26.79	0.83	1.500			
0.4929	31547.63	3.7950	3.7951	1.9830	26.77	0.81	1.500			
0.4990	31933.17	3.7920	3.7921	2.0299	26.75	0.79	1.500			
0.5052	32335.20	3.7890	3.7890	2.0574	26.73	0.77	1.500			
0.5115	32732.88	3.7860	3.7861	2.1281	26.71	0.75	1.500			
0.5178	33140.39	3.7830	3.7831	2.1913	26.69	0.73	1.500			
0.5245	33570.14	3.7800	3.7801	2.2748	26.67	0.71	1.500			
0.5315	34016.09	3.7770	3.7771	2.3526	26.65	0.69	1.500			
0.5387	34475.38	3.7740	3.7741	2.4246	26.63	0.67	1.500			
0.5461	34953.11	3.7710	3.7709	2.4486	26.61	0.65	1.500			
0.5535	35425.51	3.7680	3.7681	2.5018	26.58	0.62	1.500			
0.5611	35909.19	3.7650	3.7650	2.5812	26.56	0.60	1.500			
0.5690	36415.09	3.7620	3.7621	2.6467	26.53	0.57	1.500	0.388	0.456	
0.5770	36929.35	3.7590	3.7592	2.6587	26.51	0.55	1.500			
0.5851	37445.54	3.7560	3.7560	2.6332	26.49	0.53	1.500			
0.5929	37943.46	3.7530	3.7530	2.5645	26.47	0.51	1.500			
0.6004	38428.46	3.7500	3.7501	2.5188	26.45	0.49	1.500			
0.6080	38909.72	3.7470	3.7470	2.4664	26.43	0.47	1.500			
0.6153	39379.72	3.7440	3.7440	2.4295	26.40	0.44	1.500			
0.6225	39837.94	3.7410	3.7409	2.3684	26.38	0.42	1.500			
0.6296	40292.41	3.7380	3.7380	2.3367	26.36	0.40	1.500			
0.6365	40735.03	3.7350	3.7350	2.3252	26.35	0.39	1.500			
0.6433	41174.20	3.7320	3.7320	2.3177	26.33	0.37	1.500			
0.6503	41619.38	3.7290	3.7290	2.3490	26.32	0.36	1.500			
0.6574	42071.90	3.7260	3.7260	2.3592	26.30	0.34	1.500			
0.6644	42521.61	3.7230	3.7231	2.4306	26.29	0.33	1.500			
0.6717	42988.09	3.7200	3.7198	2.4873	26.28	0.32	1.500			
0.6794	43479.75	3.7170	3.7171	2.5598	26.26	0.30	1.500			
0.6872	43981.40	3.7140	3.7140	2.6447	26.25	0.29	1.500			
0.6953	44502.07	3.7110	3.7110	2.7388	26.23	0.27	1.500			
0.7035	45025.18	3.7080	3.7080	2.8513	26.21	0.25	1.500			
0.7122	45583.85	3.7050	3.7051	2.9885	26.19	0.23	1.500			
0.7215	46178.93	3.7020	3.7019	3.0604	26.16	0.20	1.500			
0.7309	46775.64	3.6990	3.6990	3.0315	26.15	0.19	1.500			
0.7401	47367.18	3.6960	3.6960	3.0130	26.13	0.17	1.500			
0.7491	47943.50	3.6930	3.6928	2.8957	26.12	0.16	1.500			
0.7577	48495.00	3.6900	3.6901	2.6916	26.10	0.14	1.500			
0.7655	48992.59	3.6870	3.6871	2.4491	26.09	0.13	1.500			
0.7723	49428.88	3.6840	3.6839	2.1818	26.08	0.12	1.500			
0.7785	49822.64	3.6810	3.6810	1.9741	26.07	0.11	1.500			
0.7839	50169.56	3.6780	3.6780	1.7915	26.06	0.10	1.500			
0.7891	50501.18	3.6750	3.6750	1.6630	26.05	0.09	1.500			
0.7938	50802.03	3.6720	3.6720	1.5450	26.05	0.09	1.500			
0.7982	51084.88	3.6690	3.6690	1.4399	26.04	0.08	1.500			
0.8023	51349.55	3.6660	3.6660	1.3649	26.03	0.07	1.500			
0.8063	51601.04	3.6630	3.6630	1.2925	26.03	0.07	1.500			
0.8100	51839.41	3.6600	3.6600	1.2403	26.03	0.07	1.500			
0.8136	52069.78	3.6570	3.6569	1.2026	26.02	0.06	1.500			
0.8170	52290.35	3.6540	3.6541	1.1851	26.02	0.06	1.500			
0.8205	52514.29	3.6510	3.6510	1.1894	26.01	0.05	1.500			
0.8241	52740.48	3.6480	3.6479	1.1957	26.01	0.05	1.500			
0.8276	52969.52	3.6450	3.6450	1.2107	26.00	0.04	1.500			
0.8313	53205.69	3.6420	3.6420	1.2264	26.00	0.04	1.500			
0.8351	53443.46	3.6390	3.6390	1.2380	26.00	0.04	1.500			
0.8388	53684.39	3.6360	3.6360	1.2422	25.99	0.03	1.500			
0.8425	53922.81	3.6330	3.6330	1.2444	25.99	0.03	1.500			
0.8463	54161.55	3.6300	3.6300	1.2419	25.98	0.02	1.500			
0.8500	54401.21	3.6270	3.6270	1.2443	25.98	0.02	1.500			
0.8537	54638.28	3.6240	3.6240	1.2455	25.97	0.01	1.500			
0.8575	54877.83	3.6210	3.6210	1.2506	25.97	0.01	1.500			
0.8612	55117.39	3.6180	3.6180	1.2502	25.96	0.00	1.500			
0.8650	55357.93	3.6150	3.6150	1.2563	25.96	-0.00	1.500			
0.8688	55600.38	3.6120	3.6121	1.2582	25.95	-0.01	1.500			
0.8725	55842.94	3.6090	3.6089	1.2623	25.95	-0.01	1.500			
0.8763	56086.13	3.6060	3.6060	1.2583	25.95	-0.01	1.500			
0.8801	56328.50	3.6030	3.6030	1.2495	25.95	-0.01	1.500			
0.8839	56570.29	3.6000	3.6000	1.2364	25.95	-0.01	1.500			
0.8876	56805.86	3.5970	3.5970	1.2180	25.94	-0.02	1.500			
0.8912	57037.33	3.5940	3.5941	1.2037	25.94	-0.02	1.500			
0.8948	57265.63	3.5910	3.5910	1.1949	25.94	-0.02	1.500			
0.8983	57491.35	3.5880	3.5880	1.1864	25.94	-0.02	1.500			
0.9018	57716.57	3.5850	3.5850	1.2015	25.94	-0.02	1.500			
0.9054	57945.29	3.5820	3.5820	1.2193	25.95	-0.01	1.500			
0.9091	58185.47	3.5790	3.5789	1.2240	25.95	-0.01	1.500			
0.9130	58429.13	3.5760	3.5759	1.2021	25.95	-0.01	1.500			
0.9168	58672.79	3.5730	3.5730	1.1559	25.96	-0.00	1.500			
0.9203	58901.38	3.5700	3.5701	1.0312	25.96	-0.00	1.500			
0.9234	59100.38	3.5670	3.5671	0.8963	25.96	0.00	1.500			
0.9259	59254.76	3.5640	3.5640	0.7363	25.96	0.00	1.500			
0.9277	59372.44	3.5610	3.5609	0.5754	25.96	0.00	1.500			
0.9291	59461.77	3.5580	3.5577	0.4533	25.96	0.00	1.500			
0.9302	59529.61	3.5550	3.5548	0.3618	25.97	0.01	1.500			
0.9310	59582.76	3.5520	3.5519	0.2890	25.97	0.01	1.500			
0.9317	59631.20	3.5490	3.5488	0.2333	25.97	0.01	1.500			
0.9323	59666.43	3.5460	3.5460	0.1929	25.97	0.01	1.500			
0.9328	59698.46	3.5430	3.5429	0.1559	25.97	0.01	1.500			
0.9332	59723.40	3.5400	3.5399	0.1228	25.97	0.01	1.500			
0.9335	59743.37	3.5370	3.5371	0.0947	25.97	0.01	1.500			
0.9337	59759.02	3.5340	3.5341	0.0683	25.97	0.01	1.500			
0.9339	59769.60	3.5310	3.5315	0.0444	25.97	0.01	1.500			
