Ah_balance (normalized)	Ah_balance (mAh)	Voltage - fit (V)	Voltage -  interpolate (V)	dQ/dV (1/V)	Temperature (°C)	Temperature - diff (°C)	Current (C)	R_DC 0ms (mOhm)	R_DC 50ms (mOhm)	R_DC 50 ms PEC (mOhm)
0.1954	12505.94	3.9270	3.9268	-0.0978	25.68	-0.00	-1.500			
0.1957	12527.32	3.9240	3.9238	-0.1248	25.68	-0.00	-1.500			
0.1962	12553.72	3.9210	3.9210	-0.1520	25.68	-0.00	-1.500			
0.1966	12585.31	3.9180	3.9180	-0.1798	25.68	-0.00	-1.500			
0.1972	12622.78	3.9150	3.9150	-0.2072	25.68	-0.00	-1.500			
0.1979	12665.37	3.9120	3.9120	-0.2332	25.68	-0.00	-1.500			
0.1986	12713.39	3.9090	3.9090	-0.2579	25.68	-0.00	-1.500			
0.1995	12765.32	3.9060	3.9061	-0.2840	25.68	-0.00	-1.500			
0.2004	12822.48	3.9030	3.9030	-0.3088	25.68	-0.00	-1.500			
0.2013	12884.05	3.9000	3.9000	-0.3325	25.68	-0.00	-1.500			
0.2023	12949.95	3.8970	3.8970	-0.3574	25.68	-0.00	-1.500			
0.2035	13021.08	3.8940	3.8940	-0.3815	25.68	-0.00	-1.500			
0.2046	13096.63	3.8910	3.8910	-0.4064	25.68	-0.00	-1.500			
0.2059	13177.36	3.8880	3.8880	-0.4301	25.68	0.00	-1.500			
0.2072	13261.69	3.8850	3.8850	-0.4525	25.68	0.00	-1.500			
0.2086	13351.67	3.8820	3.8820	-0.4757	25.68	0.00	-1.500			
0.2101	13445.40	3.8790	3.8789	-0.4957	25.68	0.00	-1.500			
0.2116	13543.11	3.8760	3.8760	-0.5147	25.68	0.00	-1.500			
0.2132	13644.28	3.8730	3.8731	-0.5325	25.68	0.00	-1.500			
0.2148	13748.24	3.8700	3.8700	-0.5496	25.68	0.00	-1.500			
0.2165	13855.57	3.8670	3.8671	-0.5663	25.68	0.00	-1.500			
0.2182	13965.79	3.8640	3.8640	-0.5790	25.69	0.01	-1.500			
0.2200	14078.57	3.8610	3.8610	-0.5916	25.69	0.01	-1.500			
0.2218	14194.16	3.8580	3.8581	-0.6050	25.69	0.01	-1.500			
0.2236	14311.34	3.8550	3.8550	-0.6188	25.69	0.01	-1.500			
0.2255	14432.02	3.8520	3.8519	-0.6299	25.69	0.01	-1.500			
0.2274	14554.98	3.8490	3.8489	-0.6351	25.69	0.01	-1.500			
0.2294	14678.42	3.8460	3.8461	-0.6416	25.69	0.01	-1.500			
0.2313	14802.72	3.8430	3.8430	-0.6458	25.69	0.01	-1.500			
0.2332	14927.08	3.8400	3.8400	-0.6509	25.70	0.02	-1.500			
0.2352	15051.51	3.8370	3.8369	-0.6533	25.70	0.02	-1.500			
0.2371	15175.54	3.8340	3.8340	-0.6576	25.71	0.03	-1.500			
0.2391	15303.88	3.8310	3.8310	-0.6624	25.71	0.03	-1.500			
0.2411	15431.85	3.8280	3.8280	-0.6670	25.72	0.04	-1.500			
0.2431	15560.67	3.8250	3.8250	-0.6714	25.72	0.04	-1.500			
0.2452	15690.33	3.8220	3.8220	-0.6722	25.73	0.05	-1.500			
0.2472	15818.96	3.8190	3.8190	-0.6740	25.73	0.05	-1.500			
0.2492	15949.63	3.8160	3.8160	-0.6754	25.74	0.06	-1.500			
0.2512	16079.22	3.8130	3.8130	-0.6748	25.74	0.06	-1.500			
0.2533	16208.31	3.8100	3.8100	-0.6792	25.75	0.07	-1.500			
0.2553	16338.53	3.8070	3.8070	-0.6785	25.75	0.07	-1.500			
0.2573	16468.56	3.8040	3.8040	-0.6822	25.76	0.08	-1.500			
0.2594	16600.77	3.8010	3.8010	-0.6860	25.76	0.08	-1.500			
0.2615	16732.81	3.7980	3.7981	-0.6854	25.77	0.09	-1.500			
0.2635	16865.03	3.7950	3.7950	-0.6870	25.77	0.09	-1.500			
0.2656	16997.30	3.7920	3.7921	-0.6855	25.78	0.10	-1.500			
0.2676	17127.59	3.7890	3.7890	-0.6837	25.78	0.10	-1.500			
0.2697	17258.88	3.7860	3.7859	-0.6837	25.79	0.11	-1.500			
0.2717	17388.62	3.7830	3.7831	-0.6862	25.79	0.11	-1.500			
0.2738	17521.30	3.7800	3.7799	-0.6870	25.80	0.12	-1.500			
0.2759	17654.52	3.7770	3.7770	-0.6893	25.80	0.12	-1.500			
0.2779	17787.25	3.7740	3.7741	-0.6865	25.81	0.13	-1.500			
0.2800	17918.27	3.7710	3.7711	-0.6920	25.81	0.13	-1.500			
0.2820	18050.77	3.7680	3.7680	-0.6959	25.82	0.14	-1.500			
0.2841	18183.62	3.7650	3.7650	-0.6975	25.83	0.15	-1.500			
0.2862	18317.22	3.7620	3.7620	-0.7019	25.83	0.15	-1.500			
0.2884	18454.60	3.7590	3.7591	-0.7056	25.84	0.16	-1.500			
0.2905	18590.42	3.7560	3.7559	-0.7043	25.85	0.17	-1.500			
0.2926	18726.38	3.7530	3.7530	-0.7060	25.86	0.18	-1.500			
0.2947	18860.44	3.7500	3.7500	-0.7025	25.86	0.18	-1.500			
0.2968	18993.90	3.7470	3.7470	-0.7076	25.87	0.19	-1.500			
0.2989	19131.15	3.7440	3.7440	-0.7110	25.88	0.20	-1.500			
0.3010	19266.97	3.7410	3.7410	-0.7150	25.89	0.21	-1.500			
0.3032	19405.52	3.7380	3.7380	-0.7209	25.89	0.21	-1.500			
0.3054	19544.80	3.7350	3.7351	-0.7245	25.90	0.22	-1.500			
0.3076	19683.47	3.7320	3.7319	-0.7292	25.91	0.23	-1.500			
0.3097	19823.99	3.7290	3.7290	-0.7325	25.92	0.24	-1.500			
0.3119	19963.76	3.7260	3.7260	-0.7357	25.92	0.24	-1.500			
0.3142	20106.66	3.7230	3.7230	-0.7438	25.93	0.25	-1.500			
0.3164	20249.85	3.7200	3.7201	-0.7490	25.94	0.26	-1.500			
0.3187	20394.09	3.7170	3.7170	-0.7583	25.94	0.26	-1.500			
0.3209	20540.67	3.7140	3.7140	-0.7651	25.95	0.27	-1.500			
0.3233	20688.42	3.7110	3.7110	-0.7686	25.96	0.28	-1.500			
0.3256	20835.79	3.7080	3.7080	-0.7793	25.97	0.29	-1.500			
0.3279	20985.92	3.7050	3.7050	-0.7860	25.97	0.29	-1.500			
0.3303	21137.63	3.7020	3.7020	-0.7952	25.98	0.30	-1.500			
0.3327	21290.81	3.6990	3.6990	-0.8039	25.99	0.31	-1.500			
0.3351	21445.96	3.6960	3.6961	-0.8141	26.00	0.32	-1.500			
0.3376	21604.39	3.6930	3.6930	-0.8257	26.01	0.33	-1.500			
0.3401	21763.92	3.6900	3.6900	-0.8382	26.01	0.33	-1.500			
0.3426	21924.78	3.6870	3.6870	-0.8473	26.02	0.34	-1.500			
0.3451	22088.82	3.6840	3.6840	-0.8607	26.03	0.35	-1.500			
0.3477	22255.60	3.6810	3.6810	-0.8687	26.04	0.36	-1.500			
0.3504	22424.62	3.6780	3.6780	-0.8767	26.05	0.37	-1.500			
0.3530	22592.54	3.6750	3.6751	-0.8880	26.05	0.37	-1.500			
0.3557	22764.29	3.6720	3.6720	-0.8963	26.06	0.38	-1.500			
0.3584	22935.86	3.6690	3.6690	-0.9109	26.07	0.39	-1.500			
0.3611	23111.47	3.6660	3.6660	-0.9231	26.07	0.39	-1.500			
0.3639	23290.65	3.6630	3.6631	-0.9394	26.08	0.40	-1.500			
0.3668	23472.41	3.6600	3.6600	-0.9566	26.08	0.40	-1.500			
0.3697	23657.70	3.6570	3.6570	-0.9747	26.09	0.41	-1.500			
0.3726	23846.14	3.6540	3.6540	-0.9871	26.10	0.42	-1.500			
0.3756	24037.71	3.6510	3.6509	-1.0054	26.10	0.42	-1.500			
0.3786	24231.16	3.6480	3.6481	-1.0183	26.11	0.43	-1.500			
0.3817	24430.03	3.6450	3.6450	-1.0372	26.11	0.43	-1.500			
0.3848	24629.74	3.6420	3.6420	-1.0521	26.12	0.44	-1.500			
0.3880	24831.54	3.6390	3.6390	-1.0675	26.12	0.44	-1.500			
0.3912	25038.11	3.6360	3.6360	-1.0878	26.13	0.45	-1.500			
0.3945	25250.98	3.6330	3.6329	-1.1055	26.13	0.45	-1.500			
0.3979	25464.35	3.6300	3.6300	-1.1185	26.14	0.46	-1.500			
0.4013	25682.23	3.6270	3.6270	-1.1345	26.14	0.46	-1.500			
0.4047	25900.32	3.6240	3.6241	-1.1500	26.15	0.47	-1.500			
0.4081	26121.26	3.6210	3.6209	-1.1628	26.15	0.47	-1.500			
0.4117	26345.69	3.6180	3.6181	-1.1807	26.16	0.48	-1.500			
0.4152	26573.54	3.6150	3.6150	-1.1982	26.16	0.48	-1.500			
0.4189	26808.38	3.6120	3.6120	-1.2236	26.17	0.49	-1.500			
0.4226	27044.11	3.6090	3.6090	-1.2401	26.17	0.49	-1.500			
0.4263	27284.83	3.6060	3.6060	-1.2555	26.18	0.50	-1.500			
0.4301	27526.50	3.6030	3.6031	-1.2704	26.18	0.50	-1.500			
0.4339	27771.88	3.6000	3.6000	-1.2850	26.19	0.51	-1.500			
0.4378	28018.08	3.5970	3.5970	-1.3081	26.19	0.51	-1.500			
0.4417	28270.01	3.5940	3.5940	-1.3353	26.19	0.51	-1.500			
0.4458	28532.34	3.5910	3.5909	-1.3578	26.20	0.52	-1.500			
0.4499	28795.22	3.5880	3.5880	-1.3751	26.20	0.52	-1.500			
0.4541	29065.10	3.5850	3.5851	-1.3894	26.21	0.53	-1.500			
0.4583	29331.58	3.5820	3.5819	-1.4013	26.22	0.54	-1.500			
0.4625	29600.86	3.5790	3.5791	-1.4130	26.22	0.54	-1.500			
0.4667	29869.73	3.5760	3.5760	-1.4381	26.23	0.55	-1.500			
0.4711	30147.23	3.5730	3.5729	-1.4551	26.24	0.56	-1.500			
0.4755	30432.75	3.5700	3.5700	-1.4848	26.24	0.56	-1.500			
0.4800	30719.76	3.5670	3.5672	-1.5009	26.25	0.57	-1.500			
0.4846	31013.91	3.5640	3.5640	-1.5259	26.26	0.58	-1.500			
0.4892	31305.65	3.5610	3.5610	-1.5431	26.26	0.58	-1.500			
0.4938	31601.43	3.5580	3.5580	-1.5571	26.27	0.59	-1.500			
0.4985	31903.98	3.5550	3.5549	-1.5791	26.27	0.59	-1.500			
0.5033	32209.56	3.5520	3.5519	-1.5912	26.28	0.60	-1.500			
0.5081	32516.33	3.5490	3.5491	-1.6076	26.28	0.60	-1.500			
0.5129	32826.64	3.5460	3.5460	-1.6276	26.29	0.61	-1.500			
0.5178	33140.21	3.5430	3.5430	-1.6430	26.29	0.61	-1.500			
0.5227	33455.49	3.5400	3.5400	-1.6600	26.29	0.61	-1.500			
0.5278	33779.01	3.5370	3.5370	-1.6802	26.30	0.62	-1.500			
0.5329	34103.61	3.5340	3.5339	-1.6926	26.31	0.63	-1.500			
0.5380	34430.84	3.5310	3.5311	-1.7124	26.32	0.64	-1.500	0.377	0.524	
0.5431	34761.10	3.5280	3.5280	-1.7150	26.33	0.65	-1.500			
0.5483	35090.84	3.5250	3.5249	-1.7169	26.34	0.66	-1.500			
0.5535	35422.89	3.5220	3.5221	-1.7276	26.35	0.67	-1.500			
0.5587	35754.80	3.5190	3.5190	-1.7304	26.35	0.67	-1.500			
0.5639	36087.35	3.5160	3.5159	-1.7442	26.36	0.68	-1.500			
0.5691	36422.12	3.5130	3.5130	-1.7487	26.37	0.69	-1.500			
0.5744	36759.47	3.5100	3.5100	-1.7584	26.37	0.69	-1.500			
0.5797	37099.31	3.5070	3.5070	-1.7646	26.38	0.70	-1.500			
0.5849	37434.79	3.5040	3.5040	-1.7655	26.39	0.71	-1.500			
0.5902	37775.33	3.5010	3.5010	-1.7686	26.41	0.73	-1.500			
0.5956	38116.32	3.4980	3.4980	-1.7595	26.42	0.74	-1.500			
0.6008	38453.92	3.4950	3.4950	-1.7595	26.43	0.75	-1.500			
0.6062	38793.87	3.4920	3.4922	-1.7477	26.44	0.76	-1.500			
0.6114	39127.18	3.4890	3.4889	-1.7394	26.45	0.77	-1.500			
0.6165	39458.91	3.4860	3.4861	-1.7265	26.46	0.78	-1.500			
0.6217	39789.17	3.4830	3.4830	-1.7151	26.47	0.79	-1.500			
0.6269	40121.86	3.4800	3.4800	-1.7166	26.48	0.80	-1.500			
0.6320	40449.32	3.4770	3.4770	-1.6929	26.50	0.82	-1.500			
0.6371	40771.85	3.4740	3.4740	-1.6846	26.51	0.83	-1.500			
0.6422	41097.68	3.4710	3.4710	-1.6639	26.53	0.85	-1.500			
0.6471	41413.54	3.4680	3.4680	-1.6412	26.54	0.86	-1.500			
0.6520	41728.35	3.4650	3.4650	-1.6225	26.55	0.87	-1.500			
0.6568	42036.16	3.4620	3.4619	-1.6012	26.57	0.89	-1.500			
0.6616	42340.42	3.4590	3.4590	-1.5832	26.58	0.90	-1.500			
0.6663	42646.08	3.4560	3.4560	-1.5587	26.59	0.91	-1.500			
0.6709	42940.57	3.4530	3.4530	-1.5329	26.61	0.93	-1.500			
0.6756	43236.75	3.4500	3.4501	-1.5170	26.62	0.94	-1.500			
0.6801	43523.48	3.4470	3.4471	-1.4915	26.63	0.95	-1.500			
0.6845	43806.77	3.4440	3.4440	-1.4723	26.65	0.97	-1.500			
0.6888	44085.26	3.4410	3.4410	-1.4523	26.66	0.98	-1.500			
0.6932	44362.88	3.4380	3.4380	-1.4383	26.68	1.00	-1.500			
0.6975	44640.77	3.4350	3.4350	-1.4289	26.69	1.01	-1.500			
0.7017	44911.67	3.4320	3.4320	-1.4077	26.71	1.03	-1.500			
0.7060	45181.53	3.4290	3.4290	-1.3932	26.73	1.05	-1.500			
0.7101	45447.59	3.4260	3.4260	-1.3737	26.74	1.06	-1.500			
0.7142	45706.82	3.4230	3.4230	-1.3588	26.76	1.08	-1.500			
0.7183	45968.32	3.4200	3.4200	-1.3391	26.78	1.10	-1.500			
0.7223	46224.30	3.4170	3.4170	-1.3203	26.80	1.12	-1.500			
0.7262	46476.11	3.4140	3.4139	-1.2969	26.81	1.13	-1.500			
0.7301	46723.43	3.4110	3.4112	-1.2803	26.82	1.14	-1.500			
0.7339	46968.08	3.4080	3.4079	-1.2535	26.84	1.16	-1.500			
0.7376	47208.32	3.4050	3.4050	-1.2247	26.86	1.18	-1.500			
0.7412	47439.96	3.4020	3.4021	-1.1884	26.88	1.20	-1.500			
0.7448	47667.93	3.3990	3.3990	-1.1649	26.90	1.22	-1.500			
0.7482	47886.96	3.3960	3.3960	-1.1240	26.91	1.23	-1.500			
0.7515	48099.00	3.3930	3.3930	-1.0843	26.93	1.25	-1.500			
0.7547	48302.20	3.3900	3.3901	-1.0444	26.94	1.26	-1.500			
0.7578	48501.30	3.3870	3.3870	-1.0141	26.95	1.27	-1.500			
0.7608	48691.78	3.3840	3.3840	-0.9754	26.97	1.29	-1.500			
0.7637	48874.83	3.3810	3.3810	-0.9413	26.98	1.30	-1.500			
0.7664	49050.62	3.3780	3.3780	-0.9077	26.99	1.31	-1.500			
0.7691	49223.27	3.3750	3.3750	-0.8769	27.01	1.33	-1.500			
0.7717	49388.44	3.3720	3.3719	-0.8481	27.02	1.34	-1.500			
0.7742	49548.08	3.3690	3.3690	-0.8155	27.03	1.35	-1.500			
0.7766	49700.97	3.3660	3.3661	-0.7854	27.04	1.36	-1.500			
0.7789	49849.32	3.3630	3.3630	-0.7585	27.05	1.37	-1.500			
0.7811	49990.18	3.3600	3.3600	-0.7319	27.06	1.38	-1.500			
0.7833	50128.17	3.3570	3.3570	-0.7103	27.07	1.39	-1.500			
0.7853	50262.25	3.3540	3.3540	-0.6880	27.08	1.40	-1.500			
0.7874	50391.62	3.3510	3.3510	-0.6672	27.09	1.41	-1.500			
0.7894	50518.63	3.3480	3.3481	-0.6515	27.10	1.42	-1.500			
0.7913	50642.08	3.3450	3.3449	-0.6311	27.11	1.43	-1.500			
0.7932	50761.89	3.3420	3.3420	-0.6113	27.12	1.44	-1.500			
0.7950	50877.31	3.3390	3.3390	-0.5896	27.13	1.45	-1.500			
0.7967	50987.98	3.3360	3.3361	-0.5728	27.14	1.46	-1.500			
0.7984	51096.03	3.3330	3.3330	-0.5562	27.15	1.47	-1.500			
0.8000	51199.70	3.3300	3.3299	-0.5383	27.15	1.47	-1.500			
0.8016	51301.45	3.3270	3.3270	-0.5231	27.16	1.48	-1.500			
0.8031	51400.71	3.3240	3.3240	-0.5110	27.17	1.49	-1.500			
0.8047	51497.65	3.3210	3.3210	-0.4971	27.17	1.49	-1.500			
0.8061	51592.44	3.3180	3.3179	-0.4840	27.18	1.50	-1.500			
0.8076	51683.44	3.3150	3.3150	-0.4687	27.19	1.51	-1.500			
0.8089	51771.84	3.3120	3.3120	-0.4562	27.19	1.51	-1.500			
0.8103	51858.31	3.3090	3.3090	-0.4431	27.20	1.52	-1.500			
0.8116	51941.87	3.3060	3.3060	-0.4327	27.21	1.53	-1.500			
0.8129	52023.14	3.3030	3.3030	-0.4212	27.21	1.53	-1.500			
0.8141	52103.21	3.3000	3.3000	-0.4117	27.22	1.54	-1.500			
0.8153	52181.60	3.2970	3.2969	-0.4020	27.23	1.55	-1.500			
0.8165	52257.81	3.2940	3.2941	-0.3925	27.23	1.55	-1.500			
0.8177	52332.36	3.2910	3.2910	-0.3819	27.24	1.56	-1.500			
0.8188	52404.78	3.2880	3.2880	-0.3727	27.25	1.57	-1.500			
0.8199	52474.47	3.2850	3.2850	-0.3619	27.25	1.57	-1.500			
0.8210	52543.05	3.2820	3.2820	-0.3555	27.26	1.58	-1.500			
0.8220	52610.98	3.2790	3.2789	-0.3481	27.26	1.58	-1.500			
0.8231	52677.49	3.2760	3.2760	-0.3393	27.27	1.59	-1.500			
0.8241	52741.52	3.2730	3.2730	-0.3319	27.27	1.59	-1.500			
0.8251	52804.61	3.2700	3.2701	-0.3262	27.28	1.60	-1.500			
0.8260	52866.39	3.2670	3.2669	-0.3194	27.28	1.60	-1.500			
0.8270	52926.35	3.2640	3.2639	-0.3129	27.29	1.61	-1.500			
0.8279	52985.98	3.2610	3.2610	-0.3053	27.29	1.61	-1.500			
0.8288	53044.39	3.2580	3.2581	-0.3000	27.30	1.62	-1.500			
0.8297	53101.95	3.2550	3.2550	-0.2949	27.30	1.62	-1.500			
0.8306	53157.42	3.2520	3.2519	-0.2867	27.31	1.63	-1.500			
0.8314	53211.40	3.2490	3.2490	-0.2795	27.31	1.63	-1.500			
0.8323	53264.38	3.2460	3.2460	-0.2753	27.32	1.64	-1.500			
0.8331	53316.46	3.2430	3.2430	-0.2704	27.32	1.64	-1.500			
0.8339	53368.32	3.2400	3.2399	-0.2668	27.33	1.65	-1.500			
0.8347	53418.74	3.2370	3.2370	-0.2618	27.33	1.65	-1.500			
0.8354	53468.74	3.2340	3.2340	-0.2577	27.34	1.66	-1.500			
0.8362	53518.00	3.2310	3.2310	-0.2538	27.34	1.66	-1.500			
0.8370	53566.73	3.2280	3.2280	-0.2490	27.35	1.67	-1.500			
0.8377	53614.13	3.2250	3.2249	-0.2435	27.35	1.67	-1.500			
0.8384	53659.82	3.2220	3.2220	-0.2393	27.36	1.68	-1.500			
0.8391	53705.26	3.2190	3.2191	-0.2354	27.36	1.68	-1.500			
0.8398	53749.83	3.2160	3.2160	-0.2319	27.37	1.69	-1.500			
0.8405	53794.08	3.2130	3.2129	-0.2289	27.37	1.69	-1.500			
0.8412	53837.29	3.2100	3.2100	-0.2266	27.38	1.70	-1.500			
0.8419	53880.83	3.2070	3.2070	-0.2234	27.38	1.70	-1.500			
0.8426	53923.76	3.2040	3.2040	-0.2222	27.38	1.70	-1.500			
0.8432	53966.07	3.2010	3.2010	-0.2194	27.39	1.71	-1.500			
0.8439	54007.68	3.1980	3.1981	-0.2164	27.39	1.71	-1.500			
0.8445	54049.31	3.1950	3.1949	-0.2132	27.40	1.72	-1.500			
0.8452	54089.86	3.1920	3.1921	-0.2099	27.40	1.72	-1.500			
0.8458	54129.61	3.1890	3.1890	-0.2078	27.41	1.73	-1.500			
0.8464	54168.95	3.1860	3.1860	-0.2051	27.41	1.73	-1.500			
0.8470	54208.13	3.1830	3.1830	-0.2041	27.42	1.74	-1.500			
0.8476	54247.15	3.1800	3.1799	-0.2005	27.42	1.74	-1.500			
0.8482	54285.71	3.1770	3.1771	-0.1986	27.43	1.75	-1.500			
0.8488	54323.60	3.1740	3.1741	-0.1962	27.43	1.75	-1.500			
0.8494	54361.39	3.1710	3.1711	-0.1942	27.44	1.76	-1.500			
0.8500	54398.24	3.1680	3.1679	-0.1920	27.44	1.76	-1.500			
0.8505	54434.38	3.1650	3.1650	-0.1892	27.45	1.77	-1.500			
0.8511	54470.58	3.1620	3.1620	-0.1879	27.45	1.77	-1.500			
0.8517	54506.36	3.1590	3.1590	-0.1858	27.46	1.78	-1.500			
0.8522	54542.44	3.1560	3.1560	-0.1844	27.46	1.78	-1.500			
0.8528	54577.35	3.1530	3.1530	-0.1826	27.46	1.78	-1.500			
0.8533	54612.24	3.1500	3.1500	-0.1808	27.47	1.79	-1.500			
0.8539	54646.69	3.1470	3.1470	-0.1792	27.47	1.79	-1.500			
0.8544	54680.63	3.1440	3.1440	-0.1781	27.48	1.80	-1.500			
0.8549	54714.78	3.1410	3.1410	-0.1768	27.48	1.80	-1.500			
0.8554	54748.66	3.1380	3.1381	-0.1761	27.49	1.81	-1.500			
0.8560	54782.63	3.1350	3.1350	-0.1746	27.50	1.82	-1.500			
0.8565	54816.27	3.1320	3.1320	-0.1729	27.50	1.82	-1.500			
0.8570	54849.34	3.1290	3.1291	-0.1704	27.51	1.83	-1.500			
0.8575	54881.82	3.1260	3.1260	-0.1679	27.51	1.83	-1.500			
0.8580	54913.84	3.1230	3.1229	-0.1669	27.52	1.84	-1.500			
0.8585	54945.38	3.1200	3.1200	-0.1646	27.52	1.84	-1.500			
0.8590	54976.48	3.1170	3.1169	-0.1640	27.53	1.85	-1.500			
0.8595	55007.94	3.1140	3.1140	-0.1637	27.53	1.85	-1.500			
0.8600	55039.15	3.1110	3.1111	-0.1632	27.54	1.86	-1.500			
0.8605	55070.68	3.1080	3.1079	-0.1624	27.54	1.86	-1.500			
0.8610	55102.30	3.1050	3.1050	-0.1616	27.55	1.87	-1.500			
0.8615	55133.14	3.1020	3.1021	-0.1597	27.56	1.88	-1.500			
0.8619	55163.59	3.0990	3.0990	-0.1586	27.56	1.88	-1.500			
0.8624	55194.16	3.0960	3.0960	-0.1572	27.57	1.89	-1.500			
0.8629	55223.78	3.0930	3.0930	-0.1547	27.57	1.89	-1.500			
0.8633	55253.31	3.0900	3.0900	-0.1538	27.58	1.90	-1.500			
0.8638	55282.75	3.0870	3.0871	-0.1522	27.58	1.90	-1.500			
0.8642	55311.79	3.0840	3.0840	-0.1514	27.59	1.91	-1.500			
0.8647	55340.82	3.0810	3.0811	-0.1504	27.59	1.91	-1.500			
0.8651	55369.56	3.0780	3.0780	-0.1493	27.60	1.92	-1.500			
0.8656	55397.72	3.0750	3.0749	-0.1488	27.60	1.92	-1.500			
0.8660	55426.40	3.0720	3.0720	-0.1484	27.61	1.93	-1.500			
0.8665	55454.86	3.0690	3.0690	-0.1480	27.61	1.93	-1.500			
0.8669	55483.20	3.0660	3.0659	-0.1471	27.62	1.94	-1.500			
0.8674	55511.65	3.0630	3.0631	-0.1468	27.62	1.94	-1.500			
0.8678	55539.89	3.0600	3.0599	-0.1452	27.63	1.95	-1.500			
0.8682	55567.62	3.0570	3.0570	-0.1437	27.63	1.95	-1.500			
0.8687	55595.21	3.0540	3.0539	-0.1427	27.64	1.96	-1.500			
0.8691	55621.98	3.0510	3.0511	-0.1419	27.64	1.96	-1.500			
0.8695	55649.38	3.0480	3.0478	-0.1409	27.65	1.97	-1.500			
0.8699	55676.35	3.0450	3.0450	-0.1400	27.65	1.97	-1.500			
0.8704	55703.04	3.0420	3.0419	-0.1396	27.66	1.98	-1.500			
0.8708	55729.85	3.0390	3.0391	-0.1385	27.66	1.98	-1.500			
0.8712	55756.60	3.0360	3.0359	-0.1383	27.67	1.99	-1.500			
0.8716	55783.03	3.0330	3.0330	-0.1370	27.67	1.99	-1.500			
0.8720	55808.99	3.0300	3.0300	-0.1364	27.68	2.00	-1.500			
0.8724	55834.99	3.0270	3.0270	-0.1351	27.68	2.00	-1.500			
0.8728	55861.27	3.0240	3.0239	-0.1349	27.69	2.01	-1.500			
0.8732	55887.04	3.0210	3.0210	-0.1335	27.69	2.01	-1.500			
0.8736	55912.44	3.0180	3.0181	-0.1323	27.70	2.02	-1.500			
0.8740	55937.69	3.0150	3.0151	-0.1322	27.70	2.02	-1.500			
0.8744	55962.82	3.0120	3.0120	-0.1313	27.71	2.03	-1.500			
0.8748	55987.99	3.0090	3.0089	-0.1310	27.71	2.03	-1.500			
0.8752	56012.82	3.0060	3.0059	-0.1324	27.72	2.04	-1.500			
0.8756	56038.39	3.0030	3.0030	-0.1349	27.72	2.04	-1.500			
