Ah_balance (normalized)	Ah_balance (mAh)	Voltage - fit (V)	Voltage -  interpolate (V)	dQ/dV (1/V)	Temperature (°C)	Temperature - diff (°C)	Current (C)	R_DC 0ms (mOhm)	R_DC 50ms (mOhm)	R_DC 50 ms PEC (mOhm)
0.2660	17024.36	3.9940	3.9940	0.8296	27.47	1.49	1.500			
0.2685	17184.91	3.9910	3.9910	0.8402	27.46	1.48	1.500			
0.2710	17347.09	3.9880	3.9880	0.8455	27.46	1.48	1.500			
0.2736	17511.73	3.9850	3.9849	0.8429	27.45	1.47	1.500			
0.2761	17672.29	3.9820	3.9821	0.8429	27.44	1.46	1.500			
0.2786	17833.32	3.9790	3.9791	0.8478	27.44	1.46	1.500			
0.2812	17996.30	3.9760	3.9760	0.8499	27.43	1.45	1.500			
0.2837	18159.25	3.9730	3.9730	0.8524	27.43	1.45	1.500			
0.2863	18323.26	3.9700	3.9700	0.8549	27.42	1.44	1.500			
0.2889	18487.41	3.9670	3.9671	0.8628	27.41	1.43	1.500			
0.2915	18655.63	3.9640	3.9641	0.8653	27.41	1.43	1.500			
0.2941	18821.83	3.9610	3.9609	0.8699	27.40	1.42	1.500			
0.2967	18989.44	3.9580	3.9581	0.8729	27.40	1.42	1.500			
0.2993	19157.02	3.9550	3.9550	0.8783	27.39	1.41	1.500			
0.3020	19325.63	3.9520	3.9521	0.8817	27.38	1.40	1.500			
0.3046	19495.12	3.9490	3.9490	0.8897	27.38	1.40	1.500			
0.3073	19665.38	3.9460	3.9460	0.8954	27.37	1.39	1.500			
0.3100	19839.68	3.9430	3.9429	0.9015	27.36	1.38	1.500			
0.3127	20013.31	3.9400	3.9400	0.9027	27.36	1.38	1.500			
0.3155	20188.98	3.9370	3.9370	0.9055	27.35	1.37	1.500			
0.3181	20361.45	3.9340	3.9341	0.9071	27.34	1.36	1.500			
0.3209	20536.14	3.9310	3.9309	0.9105	27.34	1.36	1.500			
0.3236	20708.56	3.9280	3.9280	0.9083	27.33	1.35	1.500			
0.3263	20883.16	3.9250	3.9250	0.9175	27.32	1.34	1.500			
0.3291	21059.94	3.9220	3.9221	0.9286	27.32	1.34	1.500			
0.3319	21239.12	3.9190	3.9189	0.9356	27.31	1.33	1.500			
0.3347	21419.66	3.9160	3.9161	0.9433	27.30	1.32	1.500			
0.3375	21601.11	3.9130	3.9130	0.9507	27.30	1.32	1.500			
0.3404	21785.21	3.9100	3.9101	0.9594	27.29	1.31	1.500			
0.3433	21970.72	3.9070	3.9069	0.9656	27.28	1.30	1.500			
0.3462	22155.58	3.9040	3.9040	0.9665	27.27	1.29	1.500			
0.3491	22341.16	3.9010	3.9010	0.9740	27.26	1.28	1.500			
0.3520	22528.15	3.8980	3.8981	0.9827	27.25	1.27	1.500			
0.3550	22717.47	3.8950	3.8950	0.9891	27.25	1.27	1.500			
0.3579	22907.23	3.8920	3.8919	0.9986	27.25	1.27	1.500			
0.3609	23100.03	3.8890	3.8891	1.0109	27.24	1.26	1.500			
0.3640	23295.43	3.8860	3.8860	1.0204	27.23	1.25	1.500			
0.3671	23493.18	3.8830	3.8830	1.0294	27.21	1.23	1.500			
0.3702	23691.38	3.8800	3.8800	1.0323	27.20	1.22	1.500			
0.3733	23890.85	3.8770	3.8770	1.0428	27.19	1.21	1.500			
0.3764	24090.76	3.8740	3.8740	1.0546	27.17	1.19	1.500			
0.3796	24292.76	3.8710	3.8710	1.0662	27.16	1.18	1.500			
0.3828	24498.02	3.8680	3.8680	1.0801	27.15	1.17	1.500			
0.3861	24708.73	3.8650	3.8650	1.0931	27.14	1.16	1.500			
0.3894	24921.61	3.8620	3.8620	1.1055	27.12	1.14	1.500			
0.3927	25134.94	3.8590	3.8591	1.1163	27.11	1.13	1.500			
0.3961	25349.55	3.8560	3.8560	1.1262	27.10	1.12	1.500			
0.3995	25565.82	3.8530	3.8530	1.1371	27.09	1.11	1.500			
0.4029	25782.66	3.8500	3.8499	1.1511	27.08	1.10	1.500			
0.4063	26005.06	3.8470	3.8470	1.1686	27.06	1.08	1.500			
0.4099	26232.69	3.8440	3.8440	1.1920	27.05	1.07	1.500			
0.4135	26462.74	3.8410	3.8410	1.2113	27.04	1.06	1.500			
0.4171	26697.51	3.8380	3.8379	1.2306	27.03	1.05	1.500			
0.4209	26937.58	3.8350	3.8350	1.2444	27.02	1.04	1.500			
0.4247	27178.13	3.8320	3.8321	1.2599	27.00	1.02	1.500			
0.4284	27419.92	3.8290	3.8290	1.2825	26.99	1.01	1.500			
0.4323	27668.51	3.8260	3.8259	1.3027	26.98	1.00	1.500			
0.4362	27918.95	3.8230	3.8229	1.3202	26.96	0.98	1.500			
0.4402	28174.04	3.8200	3.8200	1.3432	26.95	0.97	1.500			
0.4443	28435.96	3.8170	3.8170	1.3644	26.93	0.95	1.500			
0.4484	28699.86	3.8140	3.8140	1.3955	26.92	0.94	1.500			
0.4526	28968.95	3.8110	3.8110	1.4166	26.90	0.92	1.500			
0.4569	29242.23	3.8080	3.8079	1.4447	26.88	0.90	1.500			
0.4613	29523.67	3.8050	3.8050	1.4751	26.87	0.89	1.500			
0.4658	29813.40	3.8020	3.8020	1.4968	26.85	0.87	1.500			
0.4703	30101.19	3.7990	3.7991	1.5137	26.84	0.86	1.500			
0.4749	30392.53	3.7960	3.7960	1.5331	26.82	0.84	1.500			
0.4795	30685.79	3.7930	3.7930	1.5617	26.81	0.83	1.500			
0.4842	30988.10	3.7900	3.7899	1.5995	26.80	0.82	1.500			
0.4890	31297.18	3.7870	3.7870	1.6320	26.78	0.80	1.500			
0.4940	31618.66	3.7840	3.7841	1.6522	26.76	0.78	1.500	0.339	0.479	
0.4991	31939.70	3.7810	3.7810	1.6682	26.73	0.75	1.500			
0.5041	32260.78	3.7780	3.7781	1.6749	26.71	0.73	1.500			
0.5091	32580.41	3.7750	3.7750	1.6732	26.69	0.71	1.500			
0.5141	32903.24	3.7720	3.7720	1.6810	26.68	0.70	1.500			
0.5192	33227.64	3.7690	3.7690	1.6871	26.66	0.68	1.500			
0.5242	33551.39	3.7660	3.7660	1.6948	26.65	0.67	1.500			
0.5293	33877.25	3.7630	3.7630	1.7084	26.63	0.65	1.500			
0.5345	34205.87	3.7600	3.7601	1.7229	26.61	0.63	1.500			
0.5397	34538.76	3.7570	3.7570	1.7332	26.60	0.62	1.500			
0.5449	34875.27	3.7540	3.7540	1.7306	26.58	0.60	1.500			
0.5500	35202.64	3.7510	3.7511	1.7586	26.56	0.58	1.500			
0.5553	35541.75	3.7480	3.7480	1.7993	26.55	0.57	1.500			
0.5608	35890.07	3.7450	3.7450	1.8392	26.53	0.55	1.500			
0.5664	36250.61	3.7420	3.7420	1.8488	26.51	0.53	1.500			
0.5721	36613.23	3.7390	3.7391	1.8832	26.49	0.51	1.500			
0.5776	36967.52	3.7360	3.7360	1.9231	26.47	0.49	1.500			
0.5835	37341.38	3.7330	3.7329	1.9840	26.46	0.48	1.500			
0.5895	37729.19	3.7300	3.7301	2.0517	26.44	0.46	1.500			
0.5958	38134.31	3.7270	3.7270	2.1201	26.42	0.44	1.500			
0.6023	38544.49	3.7240	3.7240	2.1708	26.40	0.42	1.500			
0.6089	38968.94	3.7210	3.7210	2.2319	26.38	0.40	1.500			
0.6157	39403.31	3.7180	3.7180	2.2417	26.36	0.38	1.500			
0.6225	39838.33	3.7150	3.7150	2.2491	26.34	0.36	1.500			
0.6292	40269.07	3.7120	3.7119	2.2291	26.33	0.35	1.500			
0.6359	40700.38	3.7090	3.7090	2.1785	26.31	0.33	1.500			
0.6424	41116.32	3.7060	3.7060	2.0972	26.29	0.31	1.500			
0.6487	41515.60	3.7030	3.7030	1.9872	26.27	0.29	1.500			
0.6544	41882.32	3.7000	3.7000	1.8604	26.25	0.27	1.500			
0.6597	42222.83	3.6970	3.6970	1.7447	26.23	0.25	1.500			
0.6648	42547.98	3.6940	3.6940	1.6487	26.22	0.24	1.500			
0.6696	42855.15	3.6910	3.6910	1.5647	26.21	0.23	1.500			
0.6741	43142.63	3.6880	3.6881	1.4930	26.20	0.22	1.500			
0.6785	43421.65	3.6850	3.6850	1.4319	26.19	0.21	1.500			
0.6826	43686.09	3.6820	3.6819	1.3802	26.18	0.20	1.500			
0.6866	43945.59	3.6790	3.6790	1.3443	26.17	0.19	1.500			
0.6906	44197.39	3.6760	3.6760	1.3164	26.15	0.17	1.500			
0.6945	44449.51	3.6730	3.6730	1.2924	26.14	0.16	1.500			
0.6983	44691.98	3.6700	3.6700	1.2789	26.13	0.15	1.500			
0.7021	44934.78	3.6670	3.6670	1.2767	26.12	0.14	1.500			
0.7059	45178.30	3.6640	3.6639	1.2754	26.10	0.12	1.500			
0.7097	45423.51	3.6610	3.6610	1.2716	26.09	0.11	1.500			
0.7136	45668.60	3.6580	3.6580	1.2707	26.08	0.10	1.500			
0.7174	45913.38	3.6550	3.6550	1.2686	26.07	0.09	1.500			
0.7212	46158.71	3.6520	3.6520	1.2622	26.06	0.08	1.500			
0.7250	46397.62	3.6490	3.6490	1.2489	26.05	0.07	1.500			
0.7287	46635.71	3.6460	3.6460	1.2387	26.04	0.06	1.500			
0.7324	46873.54	3.6430	3.6429	1.2305	26.03	0.05	1.500			
0.7361	47109.70	3.6400	3.6400	1.2230	26.02	0.04	1.500			
0.7397	47343.58	3.6370	3.6370	1.2114	26.01	0.03	1.500			
0.7434	47576.05	3.6340	3.6340	1.2009	26.00	0.02	1.500			
0.7470	47805.30	3.6310	3.6310	1.1886	25.99	0.01	1.500			
0.7505	48031.40	3.6280	3.6280	1.1820	25.99	0.01	1.500			
0.7540	48257.81	3.6250	3.6250	1.1755	25.98	-0.00	1.500			
0.7576	48484.37	3.6220	3.6219	1.1616	25.97	-0.01	1.500			
0.7610	48706.72	3.6190	3.6191	1.1451	25.97	-0.01	1.500			
0.7645	48927.15	3.6160	3.6160	1.1264	25.97	-0.01	1.500			
0.7678	49141.65	3.6130	3.6130	1.0999	25.97	-0.01	1.500			
0.7711	49351.09	3.6100	3.6099	1.0684	25.96	-0.02	1.500			
0.7743	49552.04	3.6070	3.6070	1.0398	25.96	-0.02	1.500			
0.7773	49749.34	3.6040	3.6040	1.0106	25.96	-0.02	1.500			
0.7803	49941.21	3.6010	3.6010	0.9814	25.96	-0.02	1.500			
0.7833	50128.25	3.5980	3.5979	0.9464	25.96	-0.02	1.500			
0.7861	50308.37	3.5950	3.5950	0.9037	25.96	-0.02	1.500			
0.7888	50483.56	3.5920	3.5919	0.8469	25.97	-0.01	1.500			
0.7913	50643.40	3.5890	3.5891	0.7774	25.97	-0.01	1.500			
0.7936	50789.73	3.5860	3.5861	0.6987	25.97	-0.01	1.500			
0.7956	50916.39	3.5830	3.5830	0.6121	25.97	-0.01	1.500			
0.7972	51022.33	3.5800	3.5800	0.5250	25.97	-0.01	1.500			
0.7986	51112.21	3.5770	3.5770	0.4466	25.97	-0.01	1.500			
0.7998	51186.96	3.5740	3.5740	0.3801	25.97	-0.01	1.500			
0.8008	51251.52	3.5710	3.5709	0.3305	25.97	-0.01	1.500			
0.8017	51306.92	3.5680	3.5679	0.2865	25.98	-0.00	1.500			
0.8025	51356.92	3.5650	3.5650	0.2558	25.98	-0.00	1.500			
0.8032	51402.12	3.5620	3.5621	0.2281	25.98	-0.00	1.500			
0.8038	51442.88	3.5590	3.5590	0.2066	25.98	-0.00	1.500			
0.8044	51478.97	3.5560	3.5560	0.1864	25.98	-0.00	1.500			
0.8049	51512.90	3.5530	3.5530	0.1697	25.98	-0.00	1.500			
0.8054	51543.83	3.5500	3.5501	0.1553	25.98	-0.00	1.500			
0.8058	51571.96	3.5470	3.5469	0.1404	25.98	-0.00	1.500			
0.8062	51597.50	3.5440	3.5441	0.1262	25.98	-0.00	1.500			
0.8066	51620.40	3.5410	3.5410	0.1124	25.98	-0.00	1.500			
0.8069	51640.61	3.5380	3.5382	0.0985	25.98	-0.00	1.500			
0.8072	51658.59	3.5350	3.5350	0.0852	25.98	-0.00	1.500			
0.8074	51673.57	3.5320	3.5322	0.0709	25.98	0.00	1.500			
0.8076	51685.59	3.5290	3.5294	0.0569	25.98	0.00	1.500			
0.8077	51695.19	3.5260	3.5267	0.0430	25.98	0.00	1.500			
0.8078	51702.12	3.5230	3.5242	0.0292	25.98	0.00	1.500			
