Ah_balance (normalized)	Ah_balance (mAh)	Voltage - fit (V)	Voltage -  interpolate (V)	dQ/dV (1/V)	Temperature (°C)	Temperature - diff (°C)	Current (C)	R_DC 0ms (mOhm)	R_DC 50ms (mOhm)	R_DC 50 ms PEC (mOhm)
0.2754	17626.97	3.9900	3.9900	0.8262	27.39	1.41	1.500			
0.2779	17788.22	3.9870	3.9870	0.8391	27.39	1.41	1.500			
0.2805	17949.74	3.9840	3.9840	0.8416	27.38	1.40	1.500			
0.2830	18111.11	3.9810	3.9811	0.8472	27.38	1.40	1.500			
0.2855	18274.74	3.9780	3.9780	0.8529	27.37	1.39	1.500			
0.2881	18439.41	3.9750	3.9748	0.8523	27.37	1.39	1.500			
0.2907	18602.98	3.9720	3.9720	0.8579	27.37	1.39	1.500			
0.2932	18767.12	3.9690	3.9691	0.8583	27.36	1.38	1.500			
0.2958	18934.33	3.9660	3.9660	0.8631	27.36	1.38	1.500			
0.2984	19099.16	3.9630	3.9629	0.8617	27.35	1.37	1.500			
0.3010	19263.65	3.9600	3.9601	0.8631	27.35	1.37	1.500			
0.3036	19430.19	3.9570	3.9570	0.8681	27.35	1.37	1.500			
0.3062	19597.78	3.9540	3.9540	0.8758	27.34	1.36	1.500			
0.3088	19764.91	3.9510	3.9510	0.8779	27.34	1.36	1.500			
0.3115	19934.24	3.9480	3.9480	0.8858	27.33	1.35	1.500			
0.3142	20105.79	3.9450	3.9450	0.8879	27.33	1.35	1.500			
0.3168	20276.29	3.9420	3.9420	0.8948	27.32	1.34	1.500			
0.3195	20448.93	3.9390	3.9390	0.8994	27.31	1.33	1.500			
0.3222	20621.55	3.9360	3.9360	0.9051	27.31	1.33	1.500			
0.3249	20795.76	3.9330	3.9330	0.9089	27.30	1.32	1.500			
0.3277	20972.07	3.9300	3.9300	0.9103	27.29	1.31	1.500			
0.3304	21146.59	3.9270	3.9270	0.9151	27.29	1.31	1.500			
0.3332	21322.52	3.9240	3.9241	0.9237	27.28	1.30	1.500			
0.3359	21498.35	3.9210	3.9210	0.9291	27.28	1.30	1.500			
0.3387	21678.14	3.9180	3.9179	0.9365	27.27	1.29	1.500			
0.3415	21858.77	3.9150	3.9151	0.9426	27.26	1.28	1.500			
0.3444	22041.31	3.9120	3.9120	0.9501	27.25	1.27	1.500			
0.3473	22224.13	3.9090	3.9090	0.9585	27.24	1.26	1.500			
0.3501	22407.42	3.9060	3.9060	0.9624	27.24	1.26	1.500			
0.3530	22593.25	3.9030	3.9029	0.9692	27.23	1.25	1.500			
0.3559	22778.97	3.9000	3.9001	0.9823	27.22	1.24	1.500			
0.3589	22970.31	3.8970	3.8970	0.9897	27.21	1.23	1.500			
0.3619	23161.75	3.8940	3.8939	0.9964	27.20	1.22	1.500			
0.3649	23353.06	3.8910	3.8910	1.0048	27.19	1.21	1.500			
0.3679	23545.30	3.8880	3.8881	1.0101	27.19	1.21	1.500			
0.3709	23739.52	3.8850	3.8849	1.0257	27.18	1.20	1.500			
0.3740	23938.07	3.8820	3.8820	1.0348	27.17	1.19	1.500			
0.3771	24136.95	3.8790	3.8790	1.0440	27.16	1.18	1.500			
0.3803	24341.55	3.8760	3.8760	1.0585	27.15	1.17	1.500			
0.3835	24544.96	3.8730	3.8730	1.0659	27.14	1.16	1.500			
0.3867	24749.02	3.8700	3.8700	1.0713	27.13	1.15	1.500			
0.3899	24955.27	3.8670	3.8671	1.0845	27.12	1.14	1.500			
0.3931	25160.56	3.8640	3.8640	1.1009	27.11	1.13	1.500			
0.3965	25374.92	3.8610	3.8610	1.1246	27.10	1.12	1.500			
0.3999	25594.14	3.8580	3.8579	1.1379	27.09	1.11	1.500			
0.4034	25815.25	3.8550	3.8550	1.1525	27.08	1.10	1.500			
0.4069	26039.58	3.8520	3.8521	1.1684	27.07	1.09	1.500			
0.4104	26266.59	3.8490	3.8491	1.1777	27.06	1.08	1.500			
0.4139	26491.09	3.8460	3.8459	1.1889	27.05	1.07	1.500			
0.4175	26718.48	3.8430	3.8430	1.2063	27.04	1.06	1.500			
0.4211	26951.03	3.8400	3.8400	1.2215	27.02	1.04	1.500			
0.4248	27188.62	3.8370	3.8370	1.2385	27.01	1.03	1.500			
0.4286	27429.09	3.8340	3.8340	1.2553	27.00	1.02	1.500			
0.4323	27670.07	3.8310	3.8310	1.2759	26.99	1.01	1.500			
0.4362	27916.51	3.8280	3.8280	1.3011	26.98	1.00	1.500			
0.4401	28166.76	3.8250	3.8250	1.3235	26.96	0.98	1.500			
0.4441	28423.18	3.8220	3.8219	1.3473	26.95	0.97	1.500			
0.4483	28688.43	3.8190	3.8190	1.3688	26.94	0.96	1.500			
0.4524	28954.45	3.8160	3.8160	1.4003	26.92	0.94	1.500			
0.4566	29224.06	3.8130	3.8131	1.4227	26.91	0.93	1.500			
0.4609	29498.07	3.8100	3.8099	1.4422	26.90	0.92	1.500			
0.4653	29777.81	3.8070	3.8071	1.4649	26.88	0.90	1.500			
0.4697	30061.35	3.8040	3.8040	1.4912	26.87	0.89	1.500			
0.4742	30351.13	3.8010	3.8010	1.5085	26.85	0.87	1.500			
0.4788	30642.15	3.7980	3.7980	1.5317	26.83	0.85	1.500			
0.4834	30939.36	3.7950	3.7951	1.5592	26.82	0.84	1.500			
0.4881	31238.35	3.7920	3.7919	1.5969	26.80	0.82	1.500			
0.4929	31548.63	3.7890	3.7890	1.6301	26.78	0.80	1.500			
0.4979	31867.90	3.7860	3.7858	1.6460	26.76	0.78	1.500	0.347	0.481	
0.5030	32192.11	3.7830	3.7832	1.6702	26.75	0.77	1.500			
0.5080	32512.00	3.7800	3.7801	1.6731	26.73	0.75	1.500			
0.5130	32834.37	3.7770	3.7768	1.6885	26.71	0.73	1.500			
0.5180	33152.64	3.7740	3.7740	1.6831	26.70	0.72	1.500			
0.5231	33481.28	3.7710	3.7710	1.7005	26.68	0.70	1.500			
0.5283	33809.50	3.7680	3.7681	1.7061	26.67	0.69	1.500			
0.5334	34137.84	3.7650	3.7650	1.7143	26.65	0.67	1.500			
0.5386	34467.85	3.7620	3.7619	1.7222	26.64	0.66	1.500			
0.5437	34796.96	3.7590	3.7591	1.7404	26.62	0.64	1.500			
0.5490	35138.86	3.7560	3.7559	1.7419	26.60	0.62	1.500			
0.5542	35471.07	3.7530	3.7530	1.7621	26.59	0.61	1.500			
0.5595	35807.87	3.7500	3.7501	1.7761	26.57	0.59	1.500			
0.5648	36148.42	3.7470	3.7469	1.8138	26.55	0.57	1.500			
0.5703	36499.11	3.7440	3.7441	1.8478	26.53	0.55	1.500			
0.5759	36856.92	3.7410	3.7410	1.8856	26.51	0.53	1.500			
0.5816	37224.91	3.7380	3.7381	1.9185	26.49	0.51	1.500			
0.5875	37598.55	3.7350	3.7349	1.9650	26.47	0.49	1.500			
0.5934	37977.92	3.7320	3.7320	1.9961	26.46	0.48	1.500			
0.5994	38363.19	3.7290	3.7291	2.0472	26.44	0.46	1.500			
0.6056	38758.96	3.7260	3.7260	2.1050	26.42	0.44	1.500			
0.6120	39165.95	3.7230	3.7229	2.1794	26.40	0.42	1.500			
0.6187	39594.87	3.7200	3.7200	2.2606	26.38	0.40	1.500			
0.6256	40036.36	3.7170	3.7170	2.2845	26.36	0.38	1.500			
0.6325	40477.51	3.7140	3.7140	2.3070	26.34	0.36	1.500			
0.6394	40923.93	3.7110	3.7109	2.3046	26.32	0.34	1.500			
0.6465	41374.42	3.7080	3.7081	2.2388	26.30	0.32	1.500			
0.6532	41805.81	3.7050	3.7050	2.1705	26.28	0.30	1.500			
0.6595	42204.90	3.7020	3.7021	2.0156	26.27	0.29	1.500			
0.6653	42577.43	3.6990	3.6990	1.8811	26.25	0.27	1.500			
0.6707	42926.19	3.6960	3.6961	1.7576	26.24	0.26	1.500			
0.6757	43246.73	3.6930	3.6930	1.6537	26.23	0.25	1.500			
0.6805	43549.90	3.6900	3.6901	1.5553	26.22	0.24	1.500			
0.6850	43838.13	3.6870	3.6869	1.4824	26.21	0.23	1.500			
0.6893	44116.28	3.6840	3.6840	1.4278	26.20	0.22	1.500			
0.6935	44383.49	3.6810	3.6811	1.3868	26.18	0.20	1.500			
0.6976	44643.29	3.6780	3.6780	1.3470	26.17	0.19	1.500			
0.7015	44898.82	3.6750	3.6749	1.3188	26.16	0.18	1.500			
0.7054	45143.92	3.6720	3.6720	1.2907	26.14	0.16	1.500			
0.7092	45388.30	3.6690	3.6691	1.2771	26.13	0.15	1.500			
0.7130	45631.58	3.6660	3.6659	1.2742	26.12	0.14	1.500			
0.7168	45874.20	3.6630	3.6630	1.2701	26.11	0.13	1.500			
0.7206	46117.17	3.6600	3.6600	1.2708	26.10	0.12	1.500			
0.7244	46363.03	3.6570	3.6570	1.2723	26.09	0.11	1.500			
0.7283	46608.33	3.6540	3.6540	1.2646	26.08	0.10	1.500			
0.7321	46852.10	3.6510	3.6510	1.2574	26.07	0.09	1.500			
0.7358	47093.66	3.6480	3.6481	1.2448	26.07	0.09	1.500			
0.7395	47330.06	3.6450	3.6450	1.2342	26.06	0.08	1.500			
0.7432	47565.06	3.6420	3.6420	1.2232	26.05	0.07	1.500			
0.7468	47798.07	3.6390	3.6390	1.2162	26.04	0.06	1.500			
0.7505	48031.53	3.6360	3.6360	1.2100	26.04	0.06	1.500			
0.7541	48263.60	3.6330	3.6330	1.2025	26.03	0.05	1.500			
0.7577	48493.61	3.6300	3.6300	1.1955	26.02	0.04	1.500			
0.7613	48723.24	3.6270	3.6270	1.1876	26.01	0.03	1.500			
0.7648	48950.37	3.6240	3.6240	1.1744	26.01	0.03	1.500			
0.7684	49175.93	3.6210	3.6210	1.1590	26.00	0.02	1.500			
0.7718	49398.04	3.6180	3.6180	1.1374	26.00	0.02	1.500			
0.7752	49615.89	3.6150	3.6150	1.1160	26.00	0.02	1.500			
0.7785	49827.10	3.6120	3.6120	1.0894	25.99	0.01	1.500			
0.7818	50033.25	3.6090	3.6090	1.0660	25.99	0.01	1.500			
0.7849	50234.98	3.6060	3.6060	1.0408	25.98	0.00	1.500			
0.7880	50432.83	3.6030	3.6029	1.0137	25.98	0.00	1.500			
0.7910	50626.84	3.6000	3.6001	0.9871	25.98	0.00	1.500			
0.7940	50815.01	3.5970	3.5970	0.9476	25.98	0.00	1.500			
0.7968	50995.84	3.5940	3.5940	0.9053	25.98	0.00	1.500			
0.7995	51167.76	3.5910	3.5910	0.8437	25.98	0.00	1.500			
0.8020	51326.91	3.5880	3.5880	0.7743	25.98	0.00	1.500			
0.8043	51473.60	3.5850	3.5850	0.6939	25.98	0.00	1.500			
0.8062	51599.48	3.5820	3.5821	0.6043	25.98	0.00	1.500			
0.8079	51704.55	3.5790	3.5791	0.5222	25.98	0.00	1.500			
0.8093	51793.25	3.5760	3.5760	0.4469	25.98	0.00	1.500			
0.8104	51865.73	3.5730	3.5729	0.3758	25.98	0.00	1.500			
0.8114	51930.62	3.5700	3.5699	0.3199	25.98	0.00	1.500			
0.8122	51983.55	3.5670	3.5670	0.2785	25.98	0.00	1.500			
0.8130	52030.96	3.5640	3.5640	0.2469	25.98	0.00	1.500			
0.8136	52073.09	3.5610	3.5609	0.2197	25.98	0.00	1.500			
0.8143	52112.18	3.5580	3.5580	0.1967	25.98	0.00	1.500			
0.8148	52147.28	3.5550	3.5550	0.1779	25.98	0.00	1.500			
0.8153	52179.11	3.5520	3.5521	0.1610	25.98	0.00	1.500			
0.8158	52208.37	3.5490	3.5490	0.1450	25.98	0.00	1.500			
0.8162	52234.50	3.5460	3.5460	0.1300	25.98	0.00	1.500			
0.8165	52257.85	3.5430	3.5430	0.1146	25.98	0.00	1.500			
0.8168	52278.29	3.5400	3.5400	0.0996	25.98	0.00	1.500			
0.8171	52295.96	3.5370	3.5371	0.0851	25.98	0.00	1.500			
0.8174	52310.91	3.5340	3.5342	0.0707	25.98	0.00	1.500			
0.8176	52323.55	3.5310	3.5313	0.0559	25.98	0.00	1.500			
0.8177	52332.82	3.5280	3.5287	0.0407	25.98	0.00	1.500			
0.8178	52339.18	3.5250	3.5265	0.0255	25.98	0.00	1.500			
