Ah_balance (normalized)	Ah_balance (mAh)	Voltage - fit (V)	Voltage -  interpolate (V)	dQ/dV (1/V)	Temperature (°C)	Temperature - diff (°C)	Current (C)	R_DC 0ms (mOhm)	R_DC 50ms (mOhm)	R_DC 50 ms PEC (mOhm)
0.2071	13252.30	3.9130	3.9112	-0.1068	25.72	0.00	-1.500			
0.2074	13276.47	3.9100	3.9095	-0.1413	25.72	0.00	-1.500			
0.2079	13306.26	3.9070	3.9069	-0.1705	25.72	0.00	-1.500			
0.2085	13341.48	3.9040	3.9041	-0.2013	25.72	0.00	-1.500			
0.2091	13383.12	3.9010	3.9010	-0.2324	25.72	0.00	-1.500			
0.2099	13431.11	3.8980	3.8979	-0.2619	25.72	-0.00	-1.500			
0.2107	13484.13	3.8950	3.8950	-0.2917	25.72	-0.00	-1.500			
0.2116	13542.77	3.8920	3.8920	-0.3215	25.72	-0.00	-1.500			
0.2126	13607.55	3.8890	3.8890	-0.3519	25.72	-0.00	-1.500			
0.2137	13677.20	3.8860	3.8860	-0.3829	25.72	-0.00	-1.500			
0.2149	13753.74	3.8830	3.8830	-0.4136	25.72	-0.00	-1.500			
0.2162	13836.57	3.8800	3.8800	-0.4447	25.71	-0.01	-1.500			
0.2176	13925.25	3.8770	3.8770	-0.4762	25.71	-0.01	-1.500			
0.2191	14019.78	3.8740	3.8742	-0.5058	25.71	-0.01	-1.500			
0.2206	14120.02	3.8710	3.8709	-0.5352	25.71	-0.01	-1.500			
0.2223	14226.24	3.8680	3.8680	-0.5625	25.71	-0.01	-1.500			
0.2240	14337.53	3.8650	3.8650	-0.5822	25.71	-0.01	-1.500			
0.2258	14451.94	3.8620	3.8620	-0.6068	25.71	-0.01	-1.500			
0.2277	14569.89	3.8590	3.8591	-0.6319	25.71	-0.01	-1.500			
0.2296	14692.95	3.8560	3.8558	-0.6520	25.70	-0.02	-1.500			
0.2316	14821.35	3.8530	3.8529	-0.6695	25.70	-0.02	-1.500			
0.2336	14952.60	3.8500	3.8501	-0.6879	25.70	-0.02	-1.500			
0.2357	15087.65	3.8470	3.8470	-0.7023	25.70	-0.02	-1.500			
0.2379	15224.50	3.8440	3.8439	-0.7142	25.70	-0.02	-1.500			
0.2400	15360.76	3.8410	3.8411	-0.7230	25.70	-0.02	-1.500			
0.2422	15500.15	3.8380	3.8380	-0.7335	25.71	-0.01	-1.500			
0.2444	15644.25	3.8350	3.8350	-0.7442	25.71	-0.01	-1.500			
0.2467	15788.57	3.8320	3.8320	-0.7520	25.71	-0.01	-1.500			
0.2490	15934.16	3.8290	3.8290	-0.7576	25.71	-0.01	-1.500			
0.2513	16080.31	3.8260	3.8260	-0.7636	25.71	-0.01	-1.500			
0.2535	16226.71	3.8230	3.8229	-0.7636	25.72	-0.00	-1.500			
0.2558	16373.06	3.8200	3.8200	-0.7670	25.72	-0.00	-1.500			
0.2581	16519.44	3.8170	3.8170	-0.7751	25.72	-0.00	-1.500			
0.2605	16669.30	3.8140	3.8139	-0.7817	25.72	0.00	-1.500			
0.2628	16821.35	3.8110	3.8109	-0.7845	25.73	0.01	-1.500			
0.2652	16973.02	3.8080	3.8080	-0.7866	25.73	0.01	-1.500			
0.2676	17125.32	3.8050	3.8051	-0.7875	25.74	0.02	-1.500			
0.2700	17277.27	3.8020	3.8020	-0.7892	25.74	0.02	-1.500			
0.2723	17426.63	3.7990	3.7989	-0.7889	25.75	0.03	-1.500			
0.2746	17577.26	3.7960	3.7961	-0.7912	25.75	0.03	-1.500			
0.2770	17730.23	3.7930	3.7929	-0.7968	25.76	0.04	-1.500			
0.2795	17885.02	3.7900	3.7900	-0.7969	25.76	0.04	-1.500			
0.2819	18039.20	3.7870	3.7870	-0.7985	25.77	0.05	-1.500			
0.2843	18192.24	3.7840	3.7842	-0.7970	25.77	0.05	-1.500			
0.2866	18344.77	3.7810	3.7810	-0.7962	25.77	0.05	-1.500			
0.2890	18496.81	3.7780	3.7779	-0.7978	25.78	0.06	-1.500			
0.2914	18649.04	3.7750	3.7750	-0.7962	25.78	0.06	-1.500			
0.2938	18803.52	3.7720	3.7720	-0.8030	25.79	0.07	-1.500			
0.2962	18957.33	3.7690	3.7691	-0.8044	25.79	0.07	-1.500			
0.2986	19111.92	3.7660	3.7660	-0.8066	25.80	0.08	-1.500			
0.3010	19266.98	3.7630	3.7630	-0.8106	25.80	0.08	-1.500			
0.3035	19423.20	3.7600	3.7600	-0.8112	25.81	0.09	-1.500			
0.3059	19579.63	3.7570	3.7570	-0.8106	25.81	0.09	-1.500			
0.3084	19737.16	3.7540	3.7540	-0.8039	25.82	0.10	-1.500			
0.3108	19891.32	3.7510	3.7510	-0.7985	25.82	0.10	-1.500			
0.3132	20042.62	3.7480	3.7480	-0.8027	25.83	0.11	-1.500			
0.3155	20195.09	3.7450	3.7450	-0.8014	25.84	0.12	-1.500			
0.3180	20349.06	3.7420	3.7418	-0.8005	25.85	0.13	-1.500			
0.3204	20503.39	3.7390	3.7391	-0.8030	25.86	0.14	-1.500			
0.3228	20658.55	3.7360	3.7361	-0.8090	25.86	0.14	-1.500			
0.3252	20814.88	3.7330	3.7330	-0.8101	25.87	0.15	-1.500			
0.3277	20970.28	3.7300	3.7299	-0.8073	25.88	0.16	-1.500			
0.3301	21124.26	3.7270	3.7271	-0.8060	25.89	0.17	-1.500			
0.3325	21280.34	3.7240	3.7240	-0.8086	25.89	0.17	-1.500			
0.3349	21435.69	3.7210	3.7210	-0.8064	25.90	0.18	-1.500			
0.3373	21589.71	3.7180	3.7180	-0.8075	25.91	0.19	-1.500			
0.3397	21743.81	3.7150	3.7150	-0.8112	25.91	0.19	-1.500			
0.3422	21899.69	3.7120	3.7119	-0.8170	25.92	0.20	-1.500			
0.3446	22057.04	3.7090	3.7090	-0.8237	25.92	0.20	-1.500			
0.3471	22215.50	3.7060	3.7061	-0.8302	25.93	0.21	-1.500			
0.3496	22376.43	3.7030	3.7030	-0.8360	25.93	0.21	-1.500			
0.3522	22537.67	3.7000	3.7000	-0.8425	25.94	0.22	-1.500			
0.3547	22698.23	3.6970	3.6971	-0.8449	25.94	0.22	-1.500			
0.3572	22861.51	3.6940	3.6940	-0.8501	25.95	0.23	-1.500			
0.3598	23024.83	3.6910	3.6911	-0.8587	25.95	0.23	-1.500			
0.3623	23189.13	3.6880	3.6879	-0.8730	25.96	0.24	-1.500			
0.3650	23358.02	3.6850	3.6850	-0.8813	25.96	0.24	-1.500			
0.3676	23528.54	3.6820	3.6819	-0.8951	25.97	0.25	-1.500			
0.3703	23701.21	3.6790	3.6791	-0.9091	25.97	0.25	-1.500			
0.3731	23877.43	3.6760	3.6760	-0.9270	25.98	0.26	-1.500			
0.3759	24056.80	3.6730	3.6729	-0.9492	25.98	0.26	-1.500			
0.3788	24241.76	3.6700	3.6700	-0.9595	25.99	0.27	-1.500			
0.3817	24426.91	3.6670	3.6669	-0.9729	25.99	0.27	-1.500			
0.3846	24616.50	3.6640	3.6642	-0.9906	26.00	0.28	-1.500			
0.3876	24807.23	3.6610	3.6610	-1.0044	26.00	0.28	-1.500			
0.3906	24999.99	3.6580	3.6579	-1.0246	26.01	0.29	-1.500			
0.3937	25195.36	3.6550	3.6550	-1.0429	26.01	0.29	-1.500			
0.3968	25397.98	3.6520	3.6520	-1.0775	26.01	0.29	-1.500			
0.4002	25610.22	3.6490	3.6490	-1.0993	26.01	0.29	-1.500			
0.4035	25824.62	3.6460	3.6459	-1.1233	26.02	0.30	-1.500			
0.4069	26042.70	3.6430	3.6430	-1.1453	26.02	0.30	-1.500			
0.4104	26265.68	3.6400	3.6401	-1.1599	26.02	0.30	-1.500			
0.4139	26488.78	3.6370	3.6369	-1.1820	26.02	0.30	-1.500			
0.4174	26715.48	3.6340	3.6340	-1.2060	26.02	0.30	-1.500			
0.4210	26946.81	3.6310	3.6311	-1.2292	26.02	0.30	-1.500			
0.4248	27187.92	3.6280	3.6280	-1.2652	26.03	0.31	-1.500			
0.4286	27432.56	3.6250	3.6249	-1.2955	26.03	0.31	-1.500			
0.4326	27684.93	3.6220	3.6220	-1.3248	26.03	0.31	-1.500			
0.4366	27943.58	3.6190	3.6190	-1.3612	26.03	0.31	-1.500			
0.4407	28205.66	3.6160	3.6160	-1.3830	26.03	0.31	-1.500			
0.4449	28473.51	3.6130	3.6128	-1.4158	26.03	0.31	-1.500			
0.4492	28749.86	3.6100	3.6101	-1.4418	26.02	0.30	-1.500			
0.4536	29030.94	3.6070	3.6069	-1.4712	26.02	0.30	-1.500			
0.4581	29317.23	3.6040	3.6041	-1.4978	26.02	0.30	-1.500			
0.4626	29607.41	3.6010	3.6010	-1.5276	26.02	0.30	-1.500			
0.4671	29897.44	3.5980	3.5980	-1.5654	26.02	0.30	-1.500			
0.4719	30203.99	3.5950	3.5950	-1.5936	26.02	0.30	-1.500			
0.4767	30510.51	3.5920	3.5919	-1.6217	26.02	0.30	-1.500			
0.4817	30831.20	3.5890	3.5890	-1.6541	26.02	0.30	-1.500			
0.4867	31151.35	3.5860	3.5859	-1.6737	26.02	0.30	-1.500			
0.4918	31473.40	3.5830	3.5830	-1.7026	26.01	0.29	-1.500			
0.4969	31801.72	3.5800	3.5800	-1.7215	26.01	0.29	-1.500			
0.5021	32131.58	3.5770	3.5770	-1.7353	26.01	0.29	-1.500			
0.5073	32470.06	3.5740	3.5739	-1.7753	26.00	0.28	-1.500			
0.5127	32812.90	3.5710	3.5711	-1.7963	26.00	0.28	-1.500			
0.5181	33161.19	3.5680	3.5680	-1.8330	26.00	0.28	-1.500			
0.5237	33514.86	3.5650	3.5649	-1.8589	26.00	0.28	-1.500			
0.5293	33873.13	3.5620	3.5620	-1.8773	26.00	0.28	-1.500			
0.5350	34239.69	3.5590	3.5591	-1.9095	26.00	0.28	-1.500			
0.5408	34608.36	3.5560	3.5560	-1.9304	26.00	0.28	-1.500			
0.5465	34979.11	3.5530	3.5529	-1.9480	26.00	0.28	-1.500			
0.5525	35358.52	3.5500	3.5500	-1.9476	26.00	0.28	-1.500			
0.5583	35733.65	3.5470	3.5471	-1.9692	26.00	0.28	-1.500			
0.5643	36112.80	3.5440	3.5441	-1.9857	26.00	0.28	-1.499	0.389	0.507	
0.5702	36492.27	3.5410	3.5409	-1.9810	26.01	0.29	-1.500			
0.5762	36874.83	3.5380	3.5380	-1.9934	26.01	0.29	-1.500			
0.5822	37261.79	3.5350	3.5350	-1.9943	26.02	0.30	-1.500			
0.5883	37648.11	3.5320	3.5319	-1.9899	26.02	0.30	-1.500			
0.5942	38028.38	3.5290	3.5290	-1.9720	26.02	0.30	-1.500			
0.6001	38404.23	3.5260	3.5259	-1.9524	26.02	0.30	-1.500			
0.6059	38778.33	3.5230	3.5230	-1.9532	26.02	0.30	-1.500			
0.6117	39151.03	3.5200	3.5200	-1.9398	26.02	0.30	-1.500			
0.6176	39524.04	3.5170	3.5169	-1.9327	26.03	0.31	-1.500			
0.6234	39895.48	3.5140	3.5141	-1.9149	26.04	0.32	-1.500			
0.6291	40262.13	3.5110	3.5110	-1.9000	26.05	0.33	-1.500			
0.6348	40628.89	3.5080	3.5081	-1.8879	26.06	0.34	-1.500			
0.6404	40987.22	3.5050	3.5050	-1.8745	26.07	0.35	-1.500			
0.6460	41344.33	3.5020	3.5020	-1.8542	26.08	0.36	-1.500			
0.6516	41699.43	3.4990	3.4990	-1.8416	26.09	0.37	-1.500			
0.6571	42054.48	3.4960	3.4960	-1.8341	26.10	0.38	-1.500			
0.6626	42404.63	3.4930	3.4930	-1.8216	26.11	0.39	-1.500			
0.6680	42753.10	3.4900	3.4899	-1.8085	26.11	0.39	-1.500			
0.6734	43100.08	3.4870	3.4870	-1.7893	26.12	0.40	-1.500			
0.6787	43438.26	3.4840	3.4840	-1.7752	26.13	0.41	-1.500			
0.6841	43781.89	3.4810	3.4810	-1.7721	26.14	0.42	-1.500			
0.6894	44120.00	3.4780	3.4779	-1.7554	26.15	0.43	-1.500			
0.6946	44456.71	3.4750	3.4749	-1.7381	26.16	0.44	-1.500			
0.6998	44790.39	3.4720	3.4720	-1.7109	26.18	0.46	-1.500			
0.7050	45119.92	3.4690	3.4690	-1.6967	26.19	0.47	-1.500			
0.7100	45442.15	3.4660	3.4660	-1.6680	26.20	0.48	-1.500			
0.7149	45755.61	3.4630	3.4630	-1.6335	26.21	0.49	-1.500			
0.7198	46068.56	3.4600	3.4599	-1.6106	26.23	0.51	-1.500			
0.7246	46374.88	3.4570	3.4570	-1.5865	26.24	0.52	-1.500			
0.7294	46679.28	3.4540	3.4540	-1.5644	26.25	0.53	-1.500			
0.7340	46976.59	3.4510	3.4511	-1.5406	26.26	0.54	-1.500			
0.7386	47268.06	3.4480	3.4480	-1.5172	26.27	0.55	-1.500			
0.7431	47557.71	3.4450	3.4450	-1.4980	26.29	0.57	-1.500			
0.7475	47842.28	3.4420	3.4420	-1.4829	26.30	0.58	-1.500			
0.7520	48125.66	3.4390	3.4390	-1.4719	26.32	0.60	-1.500			
0.7564	48407.18	3.4360	3.4360	-1.4609	26.33	0.61	-1.500			
0.7607	48686.45	3.4330	3.4330	-1.4524	26.35	0.63	-1.500			
0.7651	48963.95	3.4300	3.4300	-1.4402	26.36	0.64	-1.500			
0.7693	49238.38	3.4270	3.4270	-1.4430	26.38	0.66	-1.500			
0.7737	49516.07	3.4240	3.4240	-1.4299	26.40	0.68	-1.500			
0.7780	49793.07	3.4210	3.4209	-1.4269	26.42	0.70	-1.500			
0.7823	50067.14	3.4180	3.4180	-1.4099	26.44	0.72	-1.500			
0.7865	50337.71	3.4150	3.4150	-1.3865	26.45	0.73	-1.500			
0.7907	50602.76	3.4120	3.4120	-1.3619	26.47	0.75	-1.500			
0.7947	50862.77	3.4090	3.4090	-1.3303	26.49	0.77	-1.500			
0.7987	51113.94	3.4060	3.4059	-1.2894	26.50	0.78	-1.500			
0.8025	51361.69	3.4030	3.4029	-1.2468	26.52	0.80	-1.500			
0.8062	51597.22	3.4000	3.4001	-1.1985	26.54	0.82	-1.500			
0.8097	51823.08	3.3970	3.3970	-1.1504	26.54	0.82	-1.500			
0.8131	52040.98	3.3940	3.3939	-1.0967	26.56	0.84	-1.500			
0.8163	52244.27	3.3910	3.3910	-1.0412	26.57	0.85	-1.500			
0.8193	52436.81	3.3880	3.3881	-0.9932	26.59	0.87	-1.500			
0.8222	52622.78	3.3850	3.3851	-0.9536	26.60	0.88	-1.500			
0.8250	52800.05	3.3820	3.3819	-0.9200	26.61	0.89	-1.500			
0.8277	52969.77	3.3790	3.3790	-0.8858	26.63	0.91	-1.500			
0.8303	53137.50	3.3760	3.3760	-0.8602	26.64	0.92	-1.500			
0.8329	53302.92	3.3730	3.3729	-0.8361	26.65	0.93	-1.500			
0.8353	53460.56	3.3700	3.3700	-0.8074	26.65	0.93	-1.500			
0.8377	53612.19	3.3670	3.3671	-0.7777	26.66	0.94	-1.500			
0.8400	53759.15	3.3640	3.3639	-0.7484	26.67	0.95	-1.500			
0.8422	53898.50	3.3610	3.3610	-0.7182	26.68	0.96	-1.500			
0.8443	54035.02	3.3580	3.3581	-0.6924	26.69	0.97	-1.500			
0.8463	54164.91	3.3550	3.3550	-0.6670	26.70	0.98	-1.500			
0.8483	54289.74	3.3520	3.3520	-0.6433	26.71	0.99	-1.500			
0.8501	54408.71	3.3490	3.3491	-0.6200	26.72	1.00	-1.500			
0.8520	54525.59	3.3460	3.3459	-0.6028	26.72	1.00	-1.500			
0.8538	54640.30	3.3430	3.3430	-0.5856	26.73	1.01	-1.500			
0.8555	54751.00	3.3400	3.3401	-0.5678	26.74	1.02	-1.500			
0.8572	54859.84	3.3370	3.3369	-0.5523	26.74	1.02	-1.500			
0.8588	54963.76	3.3340	3.3340	-0.5330	26.75	1.03	-1.500			
0.8604	55062.94	3.3310	3.3309	-0.5140	26.77	1.05	-1.500			
0.8619	55159.85	3.3280	3.3281	-0.4983	26.77	1.05	-1.500			
0.8633	55253.35	3.3250	3.3249	-0.4831	26.78	1.06	-1.500			
0.8648	55345.24	3.3220	3.3220	-0.4682	26.78	1.06	-1.500			
0.8662	55433.92	3.3190	3.3190	-0.4538	26.79	1.07	-1.500			
0.8675	55519.83	3.3160	3.3160	-0.4385	26.80	1.08	-1.500			
0.8688	55602.53	3.3130	3.3131	-0.4247	26.80	1.08	-1.500			
0.8700	55682.69	3.3100	3.3100	-0.4103	26.81	1.09	-1.500			
0.8712	55759.41	3.3070	3.3070	-0.3966	26.81	1.09	-1.500			
0.8724	55834.02	3.3040	3.3040	-0.3846	26.82	1.10	-1.500			
0.8736	55907.41	3.3010	3.3010	-0.3734	26.82	1.10	-1.500			
0.8747	55977.74	3.2980	3.2979	-0.3596	26.83	1.11	-1.500			
0.8757	56045.61	3.2950	3.2951	-0.3496	26.83	1.11	-1.500			
0.8767	56111.39	3.2920	3.2921	-0.3372	26.84	1.12	-1.500			
0.8777	56175.72	3.2890	3.2889	-0.3263	26.84	1.12	-1.500			
0.8787	56236.49	3.2860	3.2860	-0.3168	26.85	1.13	-1.500			
0.8796	56295.76	3.2830	3.2830	-0.3066	26.85	1.13	-1.500			
0.8805	56354.01	3.2800	3.2799	-0.2988	26.85	1.13	-1.500			
0.8814	56410.66	3.2770	3.2770	-0.2902	26.86	1.14	-1.500			
0.8823	56465.03	3.2740	3.2741	-0.2811	26.86	1.14	-1.500			
0.8831	56519.07	3.2710	3.2710	-0.2741	26.87	1.15	-1.500			
0.8839	56570.98	3.2680	3.2680	-0.2657	26.87	1.15	-1.500			
0.8847	56620.13	3.2650	3.2650	-0.2575	26.87	1.15	-1.500			
0.8854	56668.62	3.2620	3.2620	-0.2507	26.88	1.16	-1.500			
0.8862	56715.98	3.2590	3.2590	-0.2434	26.88	1.16	-1.500			
0.8869	56762.56	3.2560	3.2559	-0.2375	26.89	1.17	-1.500			
0.8876	56807.28	3.2530	3.2531	-0.2314	26.89	1.17	-1.500			
0.8883	56851.14	3.2500	3.2501	-0.2255	26.90	1.18	-1.500			
0.8890	56893.98	3.2470	3.2470	-0.2190	26.90	1.18	-1.500			
0.8896	56935.32	3.2440	3.2439	-0.2136	26.91	1.19	-1.500			
0.8902	56975.16	3.2410	3.2411	-0.2072	26.91	1.19	-1.500			
0.8909	57014.51	3.2380	3.2380	-0.2028	26.92	1.20	-1.500			
0.8915	57053.08	3.2350	3.2350	-0.1990	26.92	1.20	-1.500			
0.8920	57090.78	3.2320	3.2320	-0.1946	26.93	1.21	-1.500			
0.8926	57127.36	3.2290	3.2290	-0.1904	26.93	1.21	-1.500			
0.8932	57163.62	3.2260	3.2260	-0.1873	26.93	1.21	-1.500			
0.8937	57199.65	3.2230	3.2230	-0.1830	26.94	1.22	-1.500			
0.8943	57234.27	3.2200	3.2200	-0.1791	26.94	1.22	-1.500			
0.8948	57268.23	3.2170	3.2171	-0.1754	26.94	1.22	-1.500			
0.8953	57301.52	3.2140	3.2140	-0.1715	26.95	1.23	-1.500			
0.8958	57333.86	3.2110	3.2110	-0.1681	26.95	1.23	-1.500			
0.8963	57365.72	3.2080	3.2079	-0.1649	26.96	1.24	-1.500			
0.8968	57396.72	3.2050	3.2050	-0.1618	26.96	1.24	-1.500			
0.8973	57427.49	3.2020	3.2020	-0.1601	26.96	1.24	-1.500			
0.8978	57458.13	3.1990	3.1991	-0.1583	26.97	1.25	-1.500			
0.8983	57488.13	3.1960	3.1960	-0.1562	26.97	1.25	-1.500			
0.8987	57518.23	3.1930	3.1930	-0.1540	26.97	1.25	-1.500			
0.8992	57547.62	3.1900	3.1900	-0.1516	26.98	1.26	-1.500			
0.8996	57576.66	3.1870	3.1871	-0.1493	26.98	1.26	-1.500			
0.9001	57605.20	3.1840	3.1840	-0.1471	26.99	1.27	-1.500			
0.9005	57632.94	3.1810	3.1809	-0.1446	26.99	1.27	-1.500			
0.9009	57660.22	3.1780	3.1780	-0.1420	26.99	1.27	-1.500			
0.9014	57687.36	3.1750	3.1751	-0.1403	27.00	1.28	-1.500			
0.9018	57714.12	3.1720	3.1720	-0.1382	27.00	1.28	-1.500			
0.9022	57740.64	3.1690	3.1690	-0.1366	27.01	1.29	-1.500			
0.9026	57766.66	3.1660	3.1660	-0.1344	27.01	1.29	-1.500			
0.9030	57792.09	3.1630	3.1630	-0.1329	27.01	1.29	-1.500			
0.9034	57817.36	3.1600	3.1600	-0.1312	27.02	1.30	-1.500			
0.9038	57842.18	3.1570	3.1571	-0.1297	27.02	1.30	-1.500			
0.9042	57867.00	3.1540	3.1539	-0.1288	27.02	1.30	-1.500			
0.9046	57891.67	3.1510	3.1511	-0.1273	27.03	1.31	-1.500			
0.9049	57916.15	3.1480	3.1479	-0.1263	27.03	1.31	-1.500			
0.9053	57940.19	3.1450	3.1450	-0.1254	27.03	1.31	-1.500			
0.9057	57964.22	3.1420	3.1420	-0.1244	27.04	1.32	-1.500			
0.9061	57987.98	3.1390	3.1389	-0.1232	27.04	1.32	-1.500			
0.9064	58011.41	3.1360	3.1360	-0.1220	27.04	1.32	-1.500			
0.9068	58034.73	3.1330	3.1330	-0.1210	27.05	1.33	-1.500			
0.9072	58057.95	3.1300	3.1300	-0.1197	27.05	1.33	-1.500			
0.9075	58081.01	3.1270	3.1270	-0.1188	27.05	1.33	-1.500			
0.9079	58103.55	3.1240	3.1239	-0.1177	27.06	1.34	-1.500			
0.9082	58125.88	3.1210	3.1210	-0.1164	27.06	1.34	-1.500			
0.9086	58148.12	3.1180	3.1180	-0.1156	27.06	1.34	-1.500			
0.9089	58170.20	3.1150	3.1150	-0.1147	27.07	1.35	-1.500			
0.9093	58192.13	3.1120	3.1120	-0.1139	27.07	1.35	-1.500			
0.9096	58213.82	3.1090	3.1091	-0.1131	27.07	1.35	-1.500			
0.9099	58235.57	3.1060	3.1059	-0.1118	27.08	1.36	-1.500			
0.9103	58257.20	3.1030	3.1030	-0.1110	27.08	1.36	-1.500			
0.9106	58278.15	3.1000	3.1001	-0.1102	27.09	1.37	-1.500			
0.9109	58299.23	3.0970	3.0970	-0.1095	27.09	1.37	-1.500			
0.9113	58320.06	3.0940	3.0939	-0.1088	27.09	1.37	-1.500			
0.9116	58340.91	3.0910	3.0910	-0.1084	27.10	1.38	-1.500			
0.9119	58361.65	3.0880	3.0881	-0.1076	27.10	1.38	-1.500			
0.9122	58382.27	3.0850	3.0850	-0.1072	27.10	1.38	-1.500			
0.9125	58403.05	3.0820	3.0821	-0.1069	27.11	1.39	-1.500			
0.9129	58423.48	3.0790	3.0790	-0.1059	27.11	1.39	-1.500			
0.9132	58443.56	3.0760	3.0759	-0.1051	27.12	1.40	-1.500			
0.9135	58463.68	3.0730	3.0731	-0.1045	27.12	1.40	-1.500			
0.9138	58483.75	3.0700	3.0702	-0.1036	27.12	1.40	-1.500			
0.9141	58503.56	3.0670	3.0669	-0.1028	27.13	1.41	-1.500			
0.9144	58523.15	3.0640	3.0641	-0.1023	27.13	1.41	-1.500			
0.9147	58542.73	3.0610	3.0610	-0.1017	27.13	1.41	-1.500			
0.9150	58562.17	3.0580	3.0579	-0.1011	27.14	1.42	-1.500			
0.9153	58581.54	3.0550	3.0550	-0.1006	27.14	1.42	-1.500			
0.9156	58600.72	3.0520	3.0521	-0.0999	27.14	1.42	-1.500			
0.9159	58619.88	3.0490	3.0490	-0.0996	27.15	1.43	-1.500			
0.9162	58638.98	3.0460	3.0459	-0.0992	27.15	1.43	-1.500			
0.9165	58658.12	3.0430	3.0430	-0.0989	27.15	1.43	-1.500			
0.9168	58677.10	3.0400	3.0400	-0.0981	27.16	1.44	-1.500			
0.9171	58695.85	3.0370	3.0370	-0.0974	27.16	1.44	-1.500			
0.9174	58714.44	3.0340	3.0340	-0.0970	27.16	1.44	-1.500			
0.9177	58733.03	3.0310	3.0311	-0.0965	27.17	1.45	-1.500			
0.9180	58751.45	3.0280	3.0280	-0.0961	27.17	1.45	-1.500			
0.9183	58769.79	3.0250	3.0250	-0.0957	27.17	1.45	-1.500			
0.9186	58788.15	3.0220	3.0221	-0.0953	27.18	1.46	-1.500			
0.9188	58806.32	3.0190	3.0190	-0.0949	27.18	1.46	-1.500			
0.9191	58824.88	3.0160	3.0159	-0.0943	27.18	1.46	-1.500			
0.9194	58842.88	3.0130	3.0131	-0.0932	27.19	1.47	-1.500			
0.9197	58860.82	3.0100	3.0102	-0.0920	27.19	1.47	-1.500			
0.9200	58878.33	3.0070	3.0070	-0.0904	27.19	1.47	-1.500			
0.9202	58895.56	3.0040	3.0041	-0.0872	27.20	1.48	-1.500			
