Ah_balance (normalized)	Ah_balance (mAh)	Voltage - fit (V)	Voltage -  interpolate (V)	dQ/dV (1/V)	Temperature (°C)	Temperature - diff (°C)	Current (C)	R_DC 0ms (mOhm)	R_DC 50ms (mOhm)	R_DC 50 ms PEC (mOhm)
0.2999	19193.97	3.9730	3.9730	0.8377	27.28	1.32	1.500			
0.3025	19357.26	3.9700	3.9700	0.8561	27.28	1.32	1.500			
0.3051	19524.78	3.9670	3.9669	0.8660	27.27	1.31	1.500			
0.3077	19691.99	3.9640	3.9640	0.8709	27.27	1.31	1.500			
0.3103	19860.69	3.9610	3.9611	0.8748	27.26	1.30	1.500			
0.3130	20029.55	3.9580	3.9580	0.8796	27.26	1.30	1.500			
0.3156	20198.41	3.9550	3.9550	0.8794	27.25	1.29	1.500			
0.3182	20366.64	3.9520	3.9520	0.8812	27.25	1.29	1.500			
0.3209	20536.18	3.9490	3.9490	0.8828	27.25	1.29	1.500			
0.3235	20705.51	3.9460	3.9461	0.8913	27.24	1.28	1.500			
0.3262	20876.61	3.9430	3.9430	0.8973	27.24	1.28	1.500			
0.3289	21049.32	3.9400	3.9399	0.9039	27.23	1.27	1.500			
0.3316	21223.73	3.9370	3.9371	0.9069	27.23	1.27	1.500			
0.3344	21398.89	3.9340	3.9340	0.9139	27.22	1.26	1.500			
0.3371	21575.40	3.9310	3.9310	0.9187	27.22	1.26	1.500			
0.3399	21752.23	3.9280	3.9280	0.9235	27.22	1.26	1.500			
0.3426	21928.40	3.9250	3.9250	0.9244	27.21	1.25	1.500			
0.3454	22106.45	3.9220	3.9220	0.9318	27.21	1.25	1.500			
0.3482	22286.11	3.9190	3.9190	0.9388	27.20	1.24	1.500			
0.3511	22468.35	3.9160	3.9160	0.9439	27.20	1.24	1.500			
0.3539	22648.61	3.9130	3.9130	0.9496	27.19	1.23	1.500			
0.3567	22831.91	3.9100	3.9100	0.9537	27.19	1.23	1.500			
0.3596	23015.29	3.9070	3.9070	0.9607	27.18	1.22	1.500			
0.3625	23200.36	3.9040	3.9040	0.9675	27.18	1.22	1.500			
0.3654	23386.51	3.9010	3.9010	0.9736	27.18	1.22	1.500			
0.3683	23573.59	3.8980	3.8980	0.9817	27.17	1.21	1.500			
0.3713	23763.58	3.8950	3.8950	0.9907	27.17	1.21	1.500			
0.3743	23953.03	3.8920	3.8921	0.9988	27.16	1.20	1.500			
0.3773	24146.12	3.8890	3.8889	1.0133	27.16	1.20	1.500			
0.3803	24341.50	3.8860	3.8860	1.0204	27.15	1.19	1.500			
0.3834	24539.15	3.8830	3.8830	1.0285	27.14	1.18	1.500			
0.3865	24738.01	3.8800	3.8801	1.0341	27.14	1.18	1.500			
0.3896	24936.31	3.8770	3.8770	1.0496	27.13	1.17	1.500			
0.3928	25138.85	3.8740	3.8740	1.0612	27.12	1.16	1.500			
0.3960	25341.87	3.8710	3.8709	1.0682	27.11	1.15	1.500			
0.3992	25547.06	3.8680	3.8681	1.0879	27.11	1.15	1.500			
0.4025	25759.00	3.8650	3.8650	1.1080	27.10	1.14	1.500			
0.4058	25973.29	3.8620	3.8617	1.1255	27.09	1.13	1.500			
0.4092	26191.28	3.8590	3.8591	1.1420	27.08	1.12	1.500			
0.4127	26411.73	3.8560	3.8561	1.1522	27.07	1.11	1.500			
0.4162	26638.69	3.8530	3.8529	1.1682	27.06	1.10	1.500			
0.4197	26861.90	3.8500	3.8501	1.1708	27.05	1.09	1.500			
0.4232	27086.91	3.8470	3.8471	1.1869	27.04	1.08	1.500			
0.4268	27314.80	3.8440	3.8440	1.2042	27.03	1.07	1.500			
0.4304	27546.02	3.8410	3.8409	1.2254	27.02	1.06	1.500			
0.4341	27782.21	3.8380	3.8381	1.2481	27.01	1.05	1.500			
0.4379	28024.91	3.8350	3.8350	1.2748	27.00	1.04	1.500			
0.4418	28275.24	3.8320	3.8320	1.2998	26.99	1.03	1.500			
0.4457	28524.62	3.8290	3.8291	1.3187	26.98	1.02	1.500			
0.4497	28779.33	3.8260	3.8260	1.3510	26.97	1.01	1.500			
0.4537	29039.28	3.8230	3.8231	1.3841	26.96	1.00	1.500			
0.4580	29310.15	3.8200	3.8200	1.4109	26.94	0.98	1.500			
0.4623	29584.06	3.8170	3.8170	1.4430	26.93	0.97	1.500			
0.4666	29865.58	3.8140	3.8141	1.4654	26.92	0.96	1.500			
0.4711	30149.15	3.8110	3.8110	1.5002	26.91	0.95	1.500			
0.4756	30437.77	3.8080	3.8080	1.5240	26.90	0.94	1.500			
0.4802	30729.95	3.8050	3.8049	1.5699	26.88	0.92	1.500			
0.4849	31032.73	3.8020	3.8021	1.6096	26.87	0.91	1.500			
0.4899	31350.48	3.7990	3.7990	1.6529	26.85	0.89	1.500			
0.4949	31674.45	3.7960	3.7961	1.7089	26.84	0.88	1.500			
0.5001	32004.07	3.7930	3.7930	1.7380	26.82	0.86	1.500			
0.5054	32343.10	3.7900	3.7899	1.7777	26.80	0.84	1.500			
0.5107	32683.69	3.7870	3.7871	1.8125	26.79	0.83	1.500			
0.5163	33040.16	3.7840	3.7840	1.8514	26.77	0.81	1.500			
0.5219	33402.78	3.7810	3.7810	1.8984	26.75	0.79	1.500			
0.5276	33767.11	3.7780	3.7781	1.9302	26.73	0.77	1.500			
0.5335	34144.11	3.7750	3.7750	1.9604	26.71	0.75	1.500			
0.5394	34523.22	3.7720	3.7720	1.9794	26.69	0.73	1.500			
0.5454	34904.56	3.7690	3.7691	2.0044	26.67	0.71	1.500			
0.5514	35287.15	3.7660	3.7659	2.0263	26.65	0.69	1.500	0.362	0.457	
0.5575	35681.74	3.7630	3.7631	2.0343	26.63	0.67	1.500			
0.5637	36077.62	3.7600	3.7601	2.0345	26.61	0.65	1.500			
0.5698	36465.38	3.7570	3.7570	2.0061	26.59	0.63	1.500			
0.5756	36841.32	3.7540	3.7540	1.9708	26.56	0.60	1.500			
0.5816	37220.17	3.7510	3.7510	1.9625	26.54	0.58	1.500			
0.5874	37596.43	3.7480	3.7480	1.9663	26.52	0.56	1.500			
0.5933	37973.87	3.7450	3.7450	1.9711	26.51	0.55	1.500			
0.5992	38350.52	3.7420	3.7420	1.9782	26.50	0.54	1.500			
0.6052	38729.67	3.7390	3.7389	1.9826	26.48	0.52	1.500			
0.6111	39112.86	3.7360	3.7360	2.0084	26.47	0.51	1.500			
0.6172	39499.05	3.7330	3.7330	2.0209	26.45	0.49	1.500			
0.6232	39885.19	3.7300	3.7300	2.0671	26.44	0.48	1.500			
0.6295	40286.45	3.7270	3.7269	2.1128	26.42	0.46	1.500			
0.6359	40699.08	3.7240	3.7240	2.1726	26.40	0.44	1.500			
0.6425	41120.77	3.7210	3.7210	2.2238	26.38	0.42	1.500			
0.6493	41554.05	3.7180	3.7180	2.2869	26.36	0.40	1.500			
0.6561	41990.64	3.7150	3.7150	2.3470	26.34	0.38	1.500			
0.6633	42451.55	3.7120	3.7120	2.4420	26.32	0.36	1.500			
0.6707	42926.93	3.7090	3.7090	2.5213	26.30	0.34	1.500			
0.6784	43418.21	3.7060	3.7060	2.6066	26.29	0.33	1.500			
0.6863	43924.64	3.7030	3.7030	2.6428	26.27	0.31	1.500			
0.6944	44440.31	3.7000	3.7000	2.6307	26.25	0.29	1.500			
0.7022	44942.96	3.6970	3.6970	2.5450	26.23	0.27	1.500			
0.7098	45428.16	3.6940	3.6940	2.4072	26.21	0.25	1.500			
0.7169	45880.61	3.6910	3.6910	2.2398	26.20	0.24	1.500			
0.7233	46292.93	3.6880	3.6880	2.0771	26.19	0.23	1.500			
0.7291	46664.95	3.6850	3.6849	1.8905	26.18	0.22	1.500			
0.7345	47006.84	3.6820	3.6821	1.7525	26.17	0.21	1.500			
0.7396	47331.53	3.6790	3.6789	1.6482	26.17	0.21	1.500			
0.7443	47632.31	3.6760	3.6760	1.5537	26.16	0.20	1.500			
0.7488	47920.10	3.6730	3.6730	1.4714	26.15	0.19	1.500			
0.7530	48190.73	3.6700	3.6701	1.4084	26.14	0.18	1.500			
0.7571	48452.68	3.6670	3.6670	1.3551	26.14	0.18	1.500			
0.7610	48704.70	3.6640	3.6640	1.3168	26.13	0.17	1.500			
0.7648	48949.47	3.6610	3.6610	1.2835	26.12	0.16	1.500			
0.7686	49192.44	3.6580	3.6580	1.2696	26.11	0.15	1.500			
0.7724	49433.91	3.6550	3.6550	1.2568	26.11	0.15	1.500			
0.7761	49671.38	3.6520	3.6520	1.2606	26.10	0.14	1.500			
0.7799	49912.14	3.6490	3.6490	1.2668	26.09	0.13	1.500			
0.7837	50156.23	3.6460	3.6460	1.2753	26.08	0.12	1.500			
0.7875	50401.79	3.6430	3.6430	1.2933	26.07	0.11	1.500			
0.7915	50653.48	3.6400	3.6400	1.3019	26.06	0.10	1.500			
0.7954	50906.49	3.6370	3.6370	1.3056	26.06	0.10	1.500			
0.7994	51158.77	3.6340	3.6340	1.3092	26.05	0.09	1.500			
0.8033	51408.57	3.6310	3.6310	1.3046	26.04	0.08	1.500			
0.8072	51659.61	3.6280	3.6280	1.3009	26.03	0.07	1.500			
0.8111	51908.91	3.6250	3.6250	1.2927	26.02	0.06	1.500			
0.8149	52154.32	3.6220	3.6220	1.2867	26.01	0.05	1.500			
0.8188	52403.13	3.6190	3.6191	1.2809	26.00	0.04	1.500			
0.8226	52648.20	3.6160	3.6159	1.2748	26.00	0.04	1.500			
0.8264	52891.25	3.6130	3.6130	1.2683	25.99	0.03	1.500			
0.8302	53134.79	3.6100	3.6099	1.2634	25.98	0.02	1.500			
0.8340	53377.80	3.6070	3.6069	1.2575	25.98	0.02	1.500			
0.8378	53619.57	3.6040	3.6040	1.2445	25.97	0.01	1.500			
0.8415	53857.09	3.6010	3.6010	1.2295	25.97	0.01	1.500			
0.8452	54092.87	3.5980	3.5980	1.2097	25.96	0.00	1.500			
0.8488	54323.77	3.5950	3.5950	1.1950	25.96	-0.00	1.500			
0.8523	54550.27	3.5920	3.5920	1.1761	25.95	-0.01	1.500			
0.8558	54773.73	3.5890	3.5888	1.1666	25.95	-0.01	1.500			
0.8593	54995.16	3.5860	3.5861	1.1582	25.95	-0.01	1.500			
0.8628	55217.96	3.5830	3.5829	1.1437	25.95	-0.01	1.500			
0.8662	55439.71	3.5800	3.5800	1.1203	25.95	-0.01	1.500			
0.8697	55659.54	3.5770	3.5770	1.0573	25.96	-0.00	1.500			
0.8729	55863.40	3.5740	3.5741	0.9799	25.96	-0.00	1.500			
0.8759	56054.46	3.5710	3.5711	0.8752	25.96	-0.00	1.500			
0.8783	56211.87	3.5680	3.5681	0.7515	25.96	-0.00	1.500			
0.8803	56342.27	3.5650	3.5650	0.6255	25.96	-0.00	1.500			
0.8819	56444.59	3.5620	3.5620	0.5202	25.96	0.00	1.500			
0.8832	56525.26	3.5590	3.5590	0.4228	25.96	0.00	1.500			
0.8843	56593.52	3.5560	3.5559	0.3574	25.96	0.00	1.500			
0.8852	56651.16	3.5530	3.5529	0.2962	25.96	0.00	1.500			
0.8860	56700.88	3.5500	3.5500	0.2577	25.96	0.00	1.500			
0.8867	56745.98	3.5470	3.5470	0.2298	25.96	0.00	1.500			
0.8873	56785.65	3.5440	3.5439	0.2056	25.96	0.00	1.500			
0.8878	56822.32	3.5410	3.5410	0.1843	25.96	0.00	1.500			
0.8884	56855.09	3.5380	3.5380	0.1674	25.96	0.00	1.500			
0.8888	56885.01	3.5350	3.5350	0.1523	25.96	0.00	1.500			
0.8893	56912.50	3.5320	3.5321	0.1375	25.96	0.00	1.500			
0.8897	56937.70	3.5290	3.5290	0.1240	25.96	0.00	1.500			
0.8900	56960.23	3.5260	3.5260	0.1106	25.96	0.00	1.500			
0.8903	56980.20	3.5230	3.5231	0.0972	25.96	0.00	1.500			
0.8906	56997.56	3.5200	3.5201	0.0837	25.96	0.00	1.500			
0.8908	57012.35	3.5170	3.5173	0.0703	25.96	0.00	1.500			
0.8910	57024.85	3.5140	3.5144	0.0556	25.96	0.00	1.500			
0.8912	57034.14	3.5110	3.5115	0.0411	25.96	0.00	1.500			
