Ah_balance (normalized)	Ah_balance (mAh)	Voltage - fit (V)	Voltage -  interpolate (V)	dQ/dV (1/V)	Temperature (°C)	Temperature - diff (°C)	Current (C)	R_DC 0ms (mOhm)	R_DC 50ms (mOhm)	R_DC 50 ms PEC (mOhm)
0.2816	18023.66	3.9900	3.9900	0.8436	27.44	1.47	1.500			
0.2841	18184.22	3.9870	3.9870	0.8375	27.43	1.46	1.500			
0.2866	18343.70	3.9840	3.9840	0.8400	27.43	1.46	1.500			
0.2892	18506.04	3.9810	3.9810	0.8435	27.42	1.45	1.500			
0.2917	18668.46	3.9780	3.9780	0.8475	27.42	1.45	1.500			
0.2942	18830.79	3.9750	3.9750	0.8529	27.41	1.44	1.500			
0.2968	18995.40	3.9720	3.9720	0.8602	27.40	1.43	1.500			
0.2994	19161.98	3.9690	3.9690	0.8622	27.40	1.43	1.500			
0.3020	19327.33	3.9660	3.9660	0.8661	27.39	1.42	1.500			
0.3046	19494.15	3.9630	3.9630	0.8659	27.39	1.42	1.500			
0.3072	19661.77	3.9600	3.9600	0.8672	27.38	1.41	1.500			
0.3098	19827.91	3.9570	3.9570	0.8637	27.37	1.40	1.500			
0.3124	19991.92	3.9540	3.9541	0.8676	27.37	1.40	1.500			
0.3150	20158.24	3.9510	3.9510	0.8744	27.36	1.39	1.500			
0.3176	20326.64	3.9480	3.9479	0.8800	27.35	1.38	1.500			
0.3202	20495.70	3.9450	3.9450	0.8836	27.35	1.38	1.500			
0.3229	20666.53	3.9420	3.9421	0.8918	27.34	1.37	1.500			
0.3256	20838.27	3.9390	3.9390	0.8975	27.33	1.36	1.500			
0.3283	21011.05	3.9360	3.9360	0.9053	27.33	1.36	1.500			
0.3310	21185.48	3.9330	3.9329	0.9042	27.32	1.35	1.500			
0.3337	21358.85	3.9300	3.9301	0.9130	27.32	1.35	1.500			
0.3365	21535.88	3.9270	3.9270	0.9182	27.31	1.34	1.500			
0.3393	21713.20	3.9240	3.9239	0.9245	27.30	1.33	1.500			
0.3420	21891.12	3.9210	3.9210	0.9253	27.29	1.32	1.500			
0.3448	22068.00	3.9180	3.9180	0.9321	27.29	1.32	1.500			
0.3476	22247.60	3.9150	3.9151	0.9369	27.28	1.31	1.500			
0.3505	22428.85	3.9120	3.9119	0.9443	27.27	1.30	1.500			
0.3533	22608.59	3.9090	3.9091	0.9459	27.26	1.29	1.500			
0.3561	22789.74	3.9060	3.9060	0.9573	27.26	1.29	1.500			
0.3590	22973.89	3.9030	3.9029	0.9660	27.25	1.28	1.500			
0.3619	23161.20	3.9000	3.9000	0.9759	27.24	1.27	1.500			
0.3648	23348.73	3.8970	3.8968	0.9850	27.23	1.26	1.500			
0.3678	23540.69	3.8940	3.8942	0.9966	27.22	1.25	1.500			
0.3708	23733.54	3.8910	3.8910	1.0035	27.21	1.24	1.500			
0.3739	23927.06	3.8880	3.8880	1.0114	27.20	1.23	1.500			
0.3769	24119.76	3.8850	3.8850	1.0161	27.19	1.22	1.500			
0.3800	24318.91	3.8820	3.8820	1.0186	27.18	1.21	1.500			
0.3830	24513.40	3.8790	3.8790	1.0366	27.17	1.20	1.500			
0.3861	24712.89	3.8760	3.8760	1.0495	27.16	1.19	1.500			
0.3893	24915.85	3.8730	3.8728	1.0595	27.15	1.18	1.500			
0.3925	25119.87	3.8700	3.8701	1.0742	27.14	1.17	1.500			
0.3957	25327.67	3.8670	3.8670	1.0845	27.13	1.16	1.500			
0.3990	25536.98	3.8640	3.8640	1.1011	27.12	1.15	1.500			
0.4023	25749.44	3.8610	3.8610	1.1063	27.11	1.14	1.500			
0.4057	25964.88	3.8580	3.8580	1.1249	27.10	1.13	1.500			
0.4091	26181.61	3.8550	3.8550	1.1430	27.09	1.12	1.500			
0.4125	26402.61	3.8520	3.8521	1.1634	27.08	1.11	1.500			
0.4160	26626.71	3.8490	3.8489	1.1777	27.07	1.10	1.500			
0.4196	26855.10	3.8460	3.8460	1.2001	27.06	1.09	1.500			
0.4232	27087.71	3.8430	3.8430	1.2104	27.05	1.08	1.500			
0.4269	27323.36	3.8400	3.8400	1.2250	27.04	1.07	1.500			
0.4306	27559.11	3.8370	3.8370	1.2440	27.03	1.06	1.500			
0.4343	27797.28	3.8340	3.8340	1.2647	27.02	1.05	1.500			
0.4381	28041.37	3.8310	3.8310	1.2825	27.01	1.04	1.500			
0.4420	28290.24	3.8280	3.8280	1.3081	26.99	1.02	1.500			
0.4460	28544.00	3.8250	3.8250	1.3298	26.98	1.01	1.500			
0.4501	28804.80	3.8220	3.8220	1.3505	26.96	0.99	1.500			
0.4541	29063.84	3.8190	3.8190	1.3683	26.94	0.97	1.500			
0.4582	29325.75	3.8160	3.8161	1.3908	26.93	0.96	1.500			
0.4624	29595.72	3.8130	3.8130	1.4140	26.91	0.94	1.500			
0.4667	29870.83	3.8100	3.8098	1.4428	26.90	0.93	1.500			
0.4711	30148.43	3.8070	3.8071	1.4758	26.88	0.91	1.500			
0.4756	30437.62	3.8040	3.8040	1.4956	26.86	0.89	1.500			
0.4801	30727.82	3.8010	3.8009	1.5322	26.84	0.87	1.500			
0.4847	31021.93	3.7980	3.7981	1.5548	26.82	0.85	1.500			
0.4895	31326.70	3.7950	3.7948	1.5802	26.80	0.83	1.500			
0.4943	31632.97	3.7920	3.7921	1.6142	26.79	0.82	1.500			
0.4992	31945.94	3.7890	3.7890	1.6319	26.77	0.80	1.500			
0.5041	32260.80	3.7860	3.7859	1.6653	26.75	0.78	1.500			
0.5091	32582.43	3.7830	3.7831	1.6884	26.74	0.77	1.500	0.350	0.478	
0.5142	32910.54	3.7800	3.7799	1.7196	26.72	0.75	1.500			
0.5195	33247.00	3.7770	3.7770	1.7214	26.71	0.74	1.500			
0.5246	33577.31	3.7740	3.7740	1.7087	26.69	0.72	1.500			
0.5298	33908.19	3.7710	3.7712	1.7087	26.67	0.70	1.500			
0.5349	34235.15	3.7680	3.7679	1.7047	26.66	0.69	1.500			
0.5400	34560.25	3.7650	3.7649	1.7160	26.64	0.67	1.500			
0.5451	34886.45	3.7620	3.7620	1.7181	26.62	0.65	1.500			
0.5504	35222.89	3.7590	3.7590	1.7315	26.61	0.64	1.500			
0.5555	35551.70	3.7560	3.7561	1.7367	26.59	0.62	1.500			
0.5607	35887.35	3.7530	3.7531	1.7578	26.57	0.60	1.500			
0.5661	36227.29	3.7500	3.7498	1.7833	26.56	0.59	1.500			
0.5714	36569.98	3.7470	3.7471	1.8060	26.54	0.57	1.500			
0.5769	36921.44	3.7440	3.7440	1.8216	26.52	0.55	1.500			
0.5824	37272.58	3.7410	3.7410	1.8625	26.50	0.53	1.500			
0.5880	37633.28	3.7380	3.7380	1.9230	26.49	0.52	1.500			
0.5939	38010.18	3.7350	3.7351	1.9706	26.47	0.50	1.500			
0.5999	38395.36	3.7320	3.7320	1.9991	26.45	0.48	1.500			
0.6060	38781.79	3.7290	3.7290	2.0409	26.43	0.46	1.500			
0.6121	39174.67	3.7260	3.7260	2.1063	26.41	0.44	1.500			
0.6185	39584.54	3.7230	3.7230	2.1665	26.39	0.42	1.500			
0.6252	40012.36	3.7200	3.7200	2.2403	26.37	0.40	1.500			
0.6320	40451.06	3.7170	3.7170	2.2928	26.35	0.38	1.500			
0.6389	40892.24	3.7140	3.7138	2.3419	26.32	0.35	1.500			
0.6461	41348.89	3.7110	3.7110	2.3745	26.30	0.33	1.500			
0.6533	41814.17	3.7080	3.7080	2.3250	26.28	0.31	1.500			
0.6603	42257.17	3.7050	3.7050	2.2394	26.26	0.29	1.500			
0.6668	42677.23	3.7020	3.7019	2.0996	26.24	0.27	1.500			
0.6729	43067.39	3.6990	3.6991	1.9687	26.23	0.26	1.500			
0.6786	43430.12	3.6960	3.6960	1.8408	26.22	0.25	1.500			
0.6839	43766.56	3.6930	3.6930	1.7086	26.21	0.24	1.500			
0.6887	44078.41	3.6900	3.6900	1.6090	26.20	0.23	1.500			
0.6934	44378.16	3.6870	3.6870	1.5243	26.19	0.22	1.500			
0.6978	44661.29	3.6840	3.6840	1.4612	26.18	0.21	1.500			
0.7020	44930.34	3.6810	3.6810	1.3987	26.17	0.20	1.500			
0.7061	45192.88	3.6780	3.6780	1.3543	26.15	0.18	1.500			
0.7101	45443.25	3.6750	3.6750	1.3171	26.14	0.17	1.500			
0.7139	45692.33	3.6720	3.6720	1.2921	26.13	0.16	1.500			
0.7177	45934.94	3.6690	3.6691	1.2789	26.12	0.15	1.500			
0.7216	46180.83	3.6660	3.6659	1.2746	26.11	0.14	1.500			
0.7253	46421.84	3.6630	3.6630	1.2708	26.10	0.13	1.500			
0.7292	46667.25	3.6600	3.6600	1.2763	26.09	0.12	1.500			
0.7330	46912.89	3.6570	3.6570	1.2733	26.08	0.11	1.500			
0.7368	47157.95	3.6540	3.6540	1.2720	26.07	0.10	1.500			
0.7407	47404.01	3.6510	3.6511	1.2663	26.06	0.09	1.500			
0.7445	47645.99	3.6480	3.6480	1.2529	26.05	0.08	1.500			
0.7482	47885.92	3.6450	3.6450	1.2461	26.04	0.07	1.500			
0.7519	48122.82	3.6420	3.6421	1.2331	26.03	0.06	1.500			
0.7556	48357.93	3.6390	3.6389	1.2230	26.02	0.05	1.500			
0.7593	48592.06	3.6360	3.6360	1.2163	26.01	0.04	1.500			
0.7629	48823.76	3.6330	3.6331	1.2081	26.01	0.04	1.500			
0.7665	49055.84	3.6300	3.6300	1.2035	26.00	0.03	1.500			
0.7701	49287.34	3.6270	3.6270	1.1948	25.99	0.02	1.500			
0.7737	49515.58	3.6240	3.6240	1.1843	25.99	0.02	1.500			
0.7773	49744.54	3.6210	3.6210	1.1693	25.98	0.01	1.500			
0.7807	49967.47	3.6180	3.6179	1.1520	25.97	0.00	1.500			
0.7842	50187.85	3.6150	3.6150	1.1314	25.97	-0.00	1.500			
0.7875	50402.99	3.6120	3.6121	1.1089	25.96	-0.01	1.500			
0.7908	50613.32	3.6090	3.6089	1.0863	25.96	-0.01	1.500			
0.7941	50819.51	3.6060	3.6061	1.0651	25.96	-0.01	1.500			
0.7972	51021.82	3.6030	3.6030	1.0384	25.96	-0.01	1.500			
0.8003	51220.02	3.6000	3.6000	1.0127	25.96	-0.01	1.500			
0.8033	51413.07	3.5970	3.5970	0.9826	25.97	-0.00	1.500			
0.8063	51601.35	3.5940	3.5940	0.9476	25.97	-0.00	1.500			
0.8091	51782.64	3.5910	3.5909	0.8911	25.97	-0.00	1.500			
0.8118	51952.46	3.5880	3.5880	0.8296	25.97	-0.00	1.500			
0.8142	52108.57	3.5850	3.5850	0.7471	25.97	-0.00	1.500			
0.8163	52246.10	3.5820	3.5821	0.6599	25.97	0.00	1.500			
0.8182	52363.78	3.5790	3.5791	0.5728	25.97	0.00	1.500			
0.8197	52462.58	3.5760	3.5760	0.4862	25.97	0.00	1.500			
0.8210	52543.38	3.5730	3.5729	0.4095	25.97	0.00	1.500			
0.8221	52612.08	3.5700	3.5700	0.3512	25.97	0.00	1.500			
0.8230	52670.10	3.5670	3.5670	0.3016	25.97	0.00	1.500			
0.8238	52721.94	3.5640	3.5640	0.2653	25.97	0.00	1.500			
0.8245	52767.27	3.5610	3.5609	0.2305	25.97	0.00	1.500			
0.8251	52807.42	3.5580	3.5579	0.2066	25.97	0.00	1.500			
0.8257	52843.37	3.5550	3.5550	0.1851	25.97	0.00	1.500			
0.8262	52877.08	3.5520	3.5519	0.1673	25.97	0.00	1.500			
0.8267	52907.24	3.5490	3.5491	0.1521	25.97	0.00	1.500			
0.8271	52934.45	3.5460	3.5460	0.1359	25.97	0.00	1.500			
0.8275	52958.85	3.5430	3.5430	0.1205	25.98	0.01	1.500			
0.8278	52980.67	3.5400	3.5400	0.1063	25.98	0.01	1.500			
0.8281	52999.70	3.5370	3.5371	0.0918	25.98	0.01	1.500			
0.8284	53016.05	3.5340	3.5341	0.0773	25.98	0.01	1.500			
0.8286	53029.89	3.5310	3.5312	0.0624	25.98	0.01	1.500			
0.8288	53040.38	3.5280	3.5284	0.0469	25.98	0.01	1.500			
0.8289	53047.89	3.5250	3.5258	0.0313	25.98	0.01	1.500			
