Ah_balance (normalized)	Ah_balance (mAh)	Voltage - fit (V)	Voltage -  interpolate (V)	dQ/dV (1/V)	Temperature (°C)	Temperature - diff (°C)	Current (C)	R_DC 0ms (mOhm)	R_DC 50ms (mOhm)	R_DC 50 ms PEC (mOhm)
0.2687	17196.03	3.9880	3.9880	0.8479	27.21	1.25	1.500			
0.2712	17357.49	3.9850	3.9850	0.8427	27.21	1.25	1.500			
0.2738	17520.20	3.9820	3.9821	0.8473	27.20	1.24	1.500			
0.2763	17683.52	3.9790	3.9789	0.8496	27.20	1.24	1.500			
0.2789	17846.54	3.9760	3.9760	0.8547	27.19	1.23	1.500			
0.2814	18010.04	3.9730	3.9729	0.8586	27.19	1.23	1.500			
0.2840	18175.63	3.9700	3.9700	0.8652	27.19	1.23	1.500			
0.2866	18343.12	3.9670	3.9670	0.8730	27.18	1.22	1.500			
0.2892	18511.33	3.9640	3.9640	0.8720	27.18	1.22	1.500			
0.2919	18679.70	3.9610	3.9610	0.8778	27.17	1.21	1.500			
0.2945	18849.55	3.9580	3.9580	0.8779	27.17	1.21	1.500			
0.2971	19017.16	3.9550	3.9550	0.8777	27.16	1.20	1.500			
0.2997	19183.93	3.9520	3.9520	0.8849	27.16	1.20	1.500			
0.3024	19354.97	3.9490	3.9490	0.8887	27.16	1.20	1.500			
0.3051	19526.10	3.9460	3.9459	0.8938	27.15	1.19	1.500			
0.3078	19699.03	3.9430	3.9430	0.9023	27.15	1.19	1.500			
0.3105	19873.33	3.9400	3.9401	0.9033	27.14	1.18	1.500			
0.3133	20048.01	3.9370	3.9369	0.9095	27.13	1.17	1.500			
0.3160	20222.37	3.9340	3.9340	0.9096	27.13	1.17	1.500			
0.3187	20396.07	3.9310	3.9310	0.9133	27.12	1.16	1.500			
0.3215	20574.16	3.9280	3.9280	0.9162	27.11	1.15	1.500			
0.3242	20749.60	3.9250	3.9250	0.9198	27.11	1.15	1.500			
0.3270	20925.35	3.9220	3.9221	0.9247	27.10	1.14	1.500			
0.3297	21103.12	3.9190	3.9190	0.9375	27.09	1.13	1.500			
0.3326	21283.29	3.9160	3.9160	0.9426	27.09	1.13	1.500			
0.3354	21466.38	3.9130	3.9129	0.9510	27.08	1.12	1.500			
0.3383	21649.70	3.9100	3.9101	0.9584	27.08	1.12	1.500			
0.3412	21837.46	3.9070	3.9071	0.9686	27.07	1.11	1.500			
0.3441	22022.27	3.9040	3.9040	0.9673	27.06	1.10	1.500			
0.3470	22208.35	3.9010	3.9009	0.9669	27.06	1.10	1.500			
0.3499	22392.72	3.8980	3.8980	0.9720	27.05	1.09	1.500			
0.3528	22578.81	3.8950	3.8951	0.9834	27.05	1.09	1.500			
0.3557	22767.22	3.8920	3.8919	0.9944	27.04	1.08	1.500			
0.3587	22959.62	3.8890	3.8890	1.0064	27.03	1.07	1.500			
0.3618	23154.92	3.8860	3.8860	1.0209	27.03	1.07	1.500			
0.3649	23353.48	3.8830	3.8830	1.0336	27.02	1.06	1.500			
0.3680	23553.81	3.8800	3.8800	1.0446	27.01	1.05	1.500			
0.3712	23753.73	3.8770	3.8770	1.0518	27.00	1.04	1.500			
0.3743	23957.00	3.8740	3.8739	1.0608	27.00	1.04	1.500			
0.3775	24161.17	3.8710	3.8710	1.0695	26.99	1.03	1.500			
0.3807	24367.72	3.8680	3.8679	1.0793	26.98	1.02	1.500			
0.3840	24575.13	3.8650	3.8650	1.0933	26.97	1.01	1.500			
0.3873	24785.50	3.8620	3.8620	1.1092	26.97	1.01	1.500			
0.3906	24999.64	3.8590	3.8590	1.1193	26.96	1.00	1.500			
0.3940	25217.23	3.8560	3.8560	1.1291	26.95	0.99	1.500			
0.3974	25433.93	3.8530	3.8531	1.1511	26.95	0.99	1.500			
0.4009	25656.44	3.8500	3.8501	1.1664	26.94	0.98	1.500			
0.4044	25881.47	3.8470	3.8469	1.1847	26.93	0.97	1.500			
0.4080	26111.03	3.8440	3.8440	1.1973	26.93	0.97	1.500			
0.4116	26340.01	3.8410	3.8411	1.2206	26.92	0.96	1.500			
0.4153	26579.21	3.8380	3.8380	1.2413	26.90	0.94	1.500			
0.4191	26819.71	3.8350	3.8350	1.2604	26.89	0.93	1.500			
0.4228	27060.62	3.8320	3.8319	1.2745	26.88	0.92	1.500			
0.4267	27306.51	3.8290	3.8292	1.3035	26.87	0.91	1.500			
0.4306	27558.74	3.8260	3.8259	1.3288	26.86	0.90	1.500			
0.4347	27818.83	3.8230	3.8230	1.3528	26.85	0.89	1.500			
0.4387	28078.12	3.8200	3.8200	1.3769	26.84	0.88	1.500			
0.4429	28347.49	3.8170	3.8170	1.4079	26.82	0.86	1.500			
0.4472	28619.64	3.8140	3.8139	1.4285	26.81	0.85	1.500			
0.4515	28895.52	3.8110	3.8110	1.4496	26.80	0.84	1.500			
0.4558	29174.26	3.8080	3.8080	1.4748	26.78	0.82	1.500			
0.4603	29460.39	3.8050	3.8050	1.5069	26.77	0.81	1.500			
0.4649	29753.12	3.8020	3.8020	1.5351	26.76	0.80	1.500			
0.4695	30048.14	3.7990	3.7990	1.5726	26.74	0.78	1.500			
0.4743	30356.93	3.7960	3.7960	1.6066	26.73	0.77	1.500			
0.4792	30668.69	3.7930	3.7930	1.6355	26.72	0.76	1.500			
0.4842	30987.24	3.7900	3.7901	1.6628	26.70	0.74	1.500			
0.4892	31309.55	3.7870	3.7869	1.6724	26.68	0.72	1.500			
0.4943	31633.07	3.7840	3.7840	1.6871	26.67	0.71	1.500			
0.4993	31955.22	3.7810	3.7811	1.7256	26.65	0.69	1.500			
0.5045	32291.14	3.7780	3.7780	1.7601	26.64	0.68	1.500			
0.5099	32632.53	3.7750	3.7747	1.7884	26.62	0.66	1.500	0.352	0.464	
0.5154	32983.49	3.7720	3.7721	1.8089	26.60	0.64	1.500			
0.5209	33335.08	3.7690	3.7690	1.8176	26.59	0.63	1.500			
0.5263	33683.55	3.7660	3.7661	1.8049	26.57	0.61	1.500			
0.5317	34030.04	3.7630	3.7630	1.8044	26.56	0.60	1.500			
0.5371	34374.94	3.7600	3.7600	1.8046	26.54	0.58	1.500			
0.5425	34720.43	3.7570	3.7570	1.7900	26.52	0.56	1.500			
0.5479	35065.68	3.7540	3.7540	1.7977	26.51	0.55	1.500			
0.5532	35405.41	3.7510	3.7512	1.8024	26.49	0.53	1.500			
0.5586	35752.15	3.7480	3.7480	1.8155	26.47	0.51	1.500			
0.5641	36102.08	3.7450	3.7450	1.8324	26.46	0.50	1.500			
0.5696	36453.95	3.7420	3.7421	1.8576	26.45	0.49	1.500			
0.5752	36813.96	3.7390	3.7390	1.8926	26.43	0.47	1.500			
0.5809	37178.94	3.7360	3.7359	1.9372	26.42	0.46	1.500			
0.5868	37554.25	3.7330	3.7330	1.9827	26.41	0.45	1.500			
0.5929	37944.17	3.7300	3.7300	2.0395	26.39	0.43	1.500			
0.5991	38340.17	3.7270	3.7270	2.0817	26.38	0.42	1.500			
0.6054	38743.55	3.7240	3.7240	2.1436	26.36	0.40	1.500			
0.6119	39164.20	3.7210	3.7209	2.2035	26.35	0.39	1.500			
0.6186	39591.00	3.7180	3.7181	2.2649	26.33	0.37	1.500			
0.6255	40029.09	3.7150	3.7150	2.3232	26.31	0.35	1.500			
0.6325	40480.48	3.7120	3.7120	2.4097	26.30	0.34	1.500			
0.6399	40953.03	3.7090	3.7090	2.4369	26.29	0.33	1.500			
0.6472	41423.73	3.7060	3.7061	2.4488	26.27	0.31	1.500			
0.6547	41898.02	3.7030	3.7028	2.4035	26.26	0.30	1.500			
0.6619	42358.98	3.7000	3.7001	2.3238	26.25	0.29	1.500			
0.6688	42804.12	3.6970	3.6970	2.2100	26.24	0.28	1.500			
0.6752	43213.59	3.6940	3.6940	2.0647	26.23	0.27	1.500			
0.6810	43586.29	3.6910	3.6908	1.8927	26.22	0.26	1.500			
0.6865	43936.67	3.6880	3.6880	1.7717	26.21	0.25	1.500			
0.6916	44262.14	3.6850	3.6851	1.6493	26.20	0.24	1.500			
0.6963	44565.64	3.6820	3.6820	1.5546	26.18	0.22	1.500			
0.7007	44846.31	3.6790	3.6791	1.4626	26.17	0.21	1.500			
0.7050	45117.80	3.6760	3.6760	1.4019	26.16	0.20	1.500			
0.7090	45375.39	3.6730	3.6730	1.3540	26.15	0.19	1.500			
0.7130	45631.88	3.6700	3.6700	1.3205	26.14	0.18	1.500			
0.7169	45881.63	3.6670	3.6669	1.2883	26.13	0.17	1.500			
0.7207	46123.31	3.6640	3.6640	1.2731	26.13	0.17	1.500			
0.7244	46362.89	3.6610	3.6612	1.2603	26.12	0.16	1.500			
0.7281	46601.40	3.6580	3.6580	1.2622	26.11	0.15	1.500			
0.7319	46841.07	3.6550	3.6548	1.2681	26.10	0.14	1.500			
0.7357	47086.75	3.6520	3.6520	1.2768	26.09	0.13	1.500			
0.7396	47335.55	3.6490	3.6490	1.2898	26.08	0.12	1.500			
0.7435	47585.53	3.6460	3.6460	1.2927	26.07	0.11	1.500			
0.7474	47834.88	3.6430	3.6430	1.2897	26.06	0.10	1.500			
0.7513	48082.23	3.6400	3.6400	1.2917	26.05	0.09	1.500			
0.7552	48329.91	3.6370	3.6370	1.2883	26.04	0.08	1.500			
0.7590	48576.14	3.6340	3.6340	1.2843	26.03	0.07	1.500			
0.7629	48823.98	3.6310	3.6310	1.2860	26.02	0.06	1.500			
0.7668	49072.60	3.6280	3.6280	1.2814	26.01	0.05	1.500			
0.7706	49317.24	3.6250	3.6250	1.2765	26.01	0.05	1.500			
0.7744	49560.57	3.6220	3.6220	1.2748	26.00	0.04	1.500			
0.7782	49805.44	3.6190	3.6190	1.2700	25.99	0.03	1.500			
0.7820	50049.35	3.6160	3.6160	1.2679	25.98	0.02	1.500			
0.7858	50293.80	3.6130	3.6130	1.2527	25.97	0.01	1.500			
0.7896	50534.90	3.6100	3.6101	1.2453	25.97	0.01	1.500			
0.7934	50775.74	3.6070	3.6069	1.2224	25.97	0.01	1.500			
0.7970	51007.68	3.6040	3.6040	1.2029	25.96	0.00	1.500			
0.8005	51233.90	3.6010	3.6010	1.1837	25.96	-0.00	1.500			
0.8041	51459.22	3.5980	3.5981	1.1707	25.95	-0.01	1.500			
0.8075	51682.73	3.5950	3.5950	1.1542	25.95	-0.01	1.500			
0.8110	51904.46	3.5920	3.5920	1.1368	25.95	-0.01	1.500			
0.8144	52121.77	3.5890	3.5890	1.1092	25.95	-0.01	1.500			
0.8178	52337.91	3.5860	3.5860	1.0678	25.95	-0.01	1.500			
0.8210	52543.27	3.5830	3.5830	1.0093	25.96	-0.00	1.500			
0.8240	52739.05	3.5800	3.5800	0.9289	25.96	-0.00	1.500			
0.8268	52912.62	3.5770	3.5770	0.8325	25.96	-0.00	1.500			
0.8291	53065.43	3.5740	3.5740	0.7303	25.96	-0.00	1.500			
0.8312	53194.00	3.5710	3.5710	0.6194	25.96	-0.00	1.500			
0.8328	53297.38	3.5680	3.5680	0.5207	25.96	0.00	1.500			
0.8341	53384.13	3.5650	3.5649	0.4331	25.96	0.00	1.500			
0.8352	53453.67	3.5620	3.5621	0.3611	25.96	0.00	1.500			
0.8361	53513.43	3.5590	3.5589	0.3107	25.96	0.00	1.500			
0.8370	53564.83	3.5560	3.5559	0.2690	25.96	0.00	1.500			
0.8377	53611.27	3.5530	3.5530	0.2392	25.96	0.00	1.500			
0.8383	53653.51	3.5500	3.5500	0.2138	25.96	0.00	1.500			
0.8389	53691.23	3.5470	3.5470	0.1941	25.96	0.00	1.500			
0.8395	53725.60	3.5440	3.5439	0.1762	25.96	0.00	1.500			
0.8400	53757.85	3.5410	3.5411	0.1613	25.96	0.00	1.500			
0.8404	53787.32	3.5380	3.5380	0.1479	25.96	0.00	1.500			
0.8408	53814.14	3.5350	3.5350	0.1341	25.96	0.00	1.500			
0.8412	53838.76	3.5320	3.5321	0.1205	25.96	0.00	1.500			
0.8416	53860.71	3.5290	3.5290	0.1074	25.96	0.00	1.500			
0.8419	53880.03	3.5260	3.5260	0.0938	25.96	0.00	1.500			
0.8421	53896.85	3.5230	3.5231	0.0802	25.96	0.00	1.500			
0.8424	53911.22	3.5200	3.5204	0.0663	25.96	0.00	1.500			
0.8425	53922.58	3.5170	3.5175	0.0519	25.96	0.00	1.500			
0.8427	53931.17	3.5140	3.5149	0.0375	25.96	0.00	1.500			
