Ah_balance (normalized)	Ah_balance (mAh)	Voltage - fit (V)	Voltage -  interpolate (V)	dQ/dV (1/V)	Temperature (°C)	Temperature - diff (°C)	Current (C)	R_DC 0ms (mOhm)	R_DC 50ms (mOhm)	R_DC 50 ms PEC (mOhm)
0.2832	18123.50	3.9860	3.9859	0.8338	27.14	1.20	1.500			
0.2857	18283.53	3.9830	3.9831	0.8379	27.13	1.19	1.500			
0.2882	18445.72	3.9800	3.9800	0.8431	27.13	1.19	1.500			
0.2907	18607.68	3.9770	3.9769	0.8495	27.12	1.18	1.500			
0.2933	18772.64	3.9740	3.9740	0.8517	27.12	1.18	1.500			
0.2959	18934.97	3.9710	3.9711	0.8551	27.11	1.17	1.500			
0.2984	19099.64	3.9680	3.9681	0.8585	27.11	1.17	1.500			
0.3010	19266.13	3.9650	3.9649	0.8637	27.10	1.16	1.500			
0.3036	19430.56	3.9620	3.9620	0.8684	27.10	1.16	1.500			
0.3062	19598.84	3.9590	3.9591	0.8704	27.09	1.15	1.500			
0.3088	19766.30	3.9560	3.9560	0.8764	27.09	1.15	1.500			
0.3115	19936.15	3.9530	3.9530	0.8799	27.08	1.14	1.500			
0.3141	20103.80	3.9500	3.9501	0.8774	27.08	1.14	1.500			
0.3168	20273.07	3.9470	3.9470	0.8805	27.07	1.13	1.500			
0.3194	20441.60	3.9440	3.9441	0.8853	27.07	1.13	1.500			
0.3220	20611.07	3.9410	3.9409	0.8894	27.06	1.12	1.500			
0.3247	20782.47	3.9380	3.9380	0.8970	27.05	1.11	1.500			
0.3274	20954.20	3.9350	3.9350	0.9003	27.05	1.11	1.500			
0.3301	21128.73	3.9320	3.9321	0.9099	27.04	1.10	1.500			
0.3329	21304.95	3.9290	3.9288	0.9131	27.03	1.09	1.500			
0.3356	21480.60	3.9260	3.9260	0.9176	27.02	1.08	1.500			
0.3384	21658.13	3.9230	3.9230	0.9132	27.02	1.08	1.500			
0.3411	21833.17	3.9200	3.9200	0.9200	27.01	1.07	1.500			
0.3439	22008.95	3.9170	3.9171	0.9276	27.00	1.06	1.500			
0.3466	22185.15	3.9140	3.9139	0.9352	26.99	1.05	1.500			
0.3495	22365.61	3.9110	3.9110	0.9432	26.99	1.05	1.500			
0.3523	22548.03	3.9080	3.9080	0.9559	26.98	1.04	1.500			
0.3552	22733.71	3.9050	3.9050	0.9590	26.97	1.03	1.500			
0.3582	22921.92	3.9020	3.9020	0.9686	26.96	1.02	1.500			
0.3610	23105.76	3.8990	3.8990	0.9723	26.96	1.02	1.500			
0.3639	23292.04	3.8960	3.8960	0.9794	26.95	1.01	1.500			
0.3669	23480.43	3.8930	3.8929	0.9845	26.94	1.00	1.500			
0.3698	23670.09	3.8900	3.8901	0.9974	26.94	1.00	1.500			
0.3729	23863.32	3.8870	3.8870	1.0075	26.93	0.99	1.500			
0.3759	24059.36	3.8840	3.8840	1.0183	26.92	0.98	1.500			
0.3790	24254.57	3.8810	3.8809	1.0255	26.91	0.97	1.500			
0.3821	24451.73	3.8780	3.8781	1.0331	26.91	0.97	1.500			
0.3852	24650.65	3.8750	3.8750	1.0439	26.90	0.96	1.500			
0.3883	24851.92	3.8720	3.8720	1.0574	26.89	0.95	1.500			
0.3915	25055.30	3.8690	3.8690	1.0678	26.88	0.94	1.500			
0.3947	25262.16	3.8660	3.8660	1.0844	26.88	0.94	1.500			
0.3980	25473.13	3.8630	3.8631	1.0991	26.87	0.93	1.500			
0.4013	25685.41	3.8600	3.8600	1.1114	26.86	0.92	1.500			
0.4047	25900.12	3.8570	3.8570	1.1272	26.85	0.91	1.500			
0.4081	26117.80	3.8540	3.8540	1.1388	26.84	0.90	1.500			
0.4115	26335.60	3.8510	3.8510	1.1530	26.83	0.89	1.500			
0.4150	26558.04	3.8480	3.8480	1.1744	26.82	0.88	1.500			
0.4185	26785.06	3.8450	3.8450	1.1944	26.81	0.87	1.500			
0.4222	27017.75	3.8420	3.8418	1.2132	26.80	0.86	1.500			
0.4258	27253.21	3.8390	3.8391	1.2328	26.79	0.85	1.500			
0.4296	27491.29	3.8360	3.8360	1.2543	26.78	0.84	1.500			
0.4334	27736.24	3.8330	3.8330	1.2730	26.77	0.83	1.500			
0.4372	27978.60	3.8300	3.8299	1.2874	26.77	0.83	1.500			
0.4411	28228.57	3.8270	3.8270	1.3128	26.76	0.82	1.500			
0.4450	28481.80	3.8240	3.8240	1.3444	26.75	0.81	1.500			
0.4491	28743.20	3.8210	3.8211	1.3746	26.74	0.80	1.500			
0.4533	29010.17	3.8180	3.8180	1.4026	26.72	0.78	1.500			
0.4575	29282.67	3.8150	3.8150	1.4292	26.71	0.77	1.500			
0.4619	29561.24	3.8120	3.8121	1.4555	26.69	0.75	1.500			
0.4663	29843.11	3.8090	3.8090	1.4868	26.68	0.74	1.500			
0.4708	30130.94	3.8060	3.8060	1.5111	26.67	0.73	1.500			
0.4753	30422.17	3.8030	3.8029	1.5384	26.65	0.71	1.500			
0.4800	30719.97	3.8000	3.8001	1.5681	26.64	0.70	1.500			
0.4848	31025.41	3.7970	3.7970	1.5998	26.62	0.68	1.500			
0.4896	31335.81	3.7940	3.7940	1.6319	26.61	0.67	1.500			
0.4945	31650.57	3.7910	3.7910	1.6579	26.59	0.65	1.500			
0.4996	31974.44	3.7880	3.7880	1.6850	26.57	0.63	1.500			
0.5047	32299.37	3.7850	3.7851	1.7119	26.56	0.62	1.500			
0.5099	32631.06	3.7820	3.7820	1.7261	26.54	0.60	1.500			
0.5151	32964.63	3.7790	3.7790	1.7434	26.52	0.58	1.500			
0.5203	33299.21	3.7760	3.7761	1.7576	26.51	0.57	1.500	0.346	0.466	
0.5256	33638.02	3.7730	3.7730	1.7731	26.49	0.55	1.500			
0.5310	33980.90	3.7700	3.7700	1.7877	26.48	0.54	1.500			
0.5363	34325.19	3.7670	3.7670	1.7699	26.47	0.53	1.500			
0.5416	34663.69	3.7640	3.7641	1.7676	26.45	0.51	1.500			
0.5469	35002.08	3.7610	3.7608	1.7709	26.44	0.50	1.500			
0.5522	35341.00	3.7580	3.7580	1.7788	26.43	0.49	1.500			
0.5575	35681.98	3.7550	3.7550	1.7818	26.42	0.48	1.500			
0.5630	36031.33	3.7520	3.7520	1.8083	26.40	0.46	1.500			
0.5683	36372.28	3.7490	3.7490	1.8030	26.39	0.45	1.500			
0.5737	36719.06	3.7460	3.7460	1.8299	26.38	0.44	1.500			
0.5793	37073.08	3.7430	3.7430	1.8448	26.36	0.42	1.500			
0.5848	37428.24	3.7400	3.7400	1.8687	26.35	0.41	1.500			
0.5904	37786.84	3.7370	3.7371	1.8947	26.33	0.39	1.500			
0.5961	38150.45	3.7340	3.7339	1.9402	26.31	0.37	1.500			
0.6020	38529.24	3.7310	3.7311	1.9911	26.30	0.36	1.500			
0.6081	38920.83	3.7280	3.7280	2.0460	26.29	0.35	1.500			
0.6143	39312.96	3.7250	3.7251	2.0935	26.28	0.34	1.500			
0.6206	39719.78	3.7220	3.7219	2.1612	26.26	0.32	1.500			
0.6272	40142.06	3.7190	3.7190	2.2179	26.25	0.31	1.500			
0.6341	40580.18	3.7160	3.7160	2.2958	26.23	0.29	1.500			
0.6410	41025.13	3.7130	3.7130	2.3570	26.22	0.28	1.500			
0.6482	41483.68	3.7100	3.7100	2.4055	26.20	0.26	1.500			
0.6555	41949.34	3.7070	3.7071	2.4611	26.18	0.24	1.500			
0.6630	42430.50	3.7040	3.7039	2.4152	26.17	0.23	1.500			
0.6702	42890.06	3.7010	3.7010	2.3224	26.15	0.21	1.500			
0.6770	43329.17	3.6980	3.6980	2.2009	26.14	0.20	1.500			
0.6834	43736.11	3.6950	3.6950	2.0372	26.14	0.20	1.500			
0.6893	44112.65	3.6920	3.6920	1.9000	26.13	0.19	1.500			
0.6947	44461.77	3.6890	3.6891	1.7647	26.12	0.18	1.500			
0.6998	44785.67	3.6860	3.6860	1.6541	26.12	0.18	1.500			
0.7045	45090.16	3.6830	3.6830	1.5541	26.11	0.17	1.500			
0.7090	45376.46	3.6800	3.6800	1.4695	26.10	0.16	1.500			
0.7132	45647.87	3.6770	3.6770	1.4034	26.09	0.15	1.500			
0.7173	45905.94	3.6740	3.6741	1.3484	26.09	0.15	1.500			
0.7212	46158.00	3.6710	3.6710	1.3081	26.08	0.14	1.500			
0.7250	46401.94	3.6680	3.6680	1.2878	26.08	0.14	1.500			
0.7288	46642.36	3.6650	3.6650	1.2664	26.07	0.13	1.500			
0.7326	46883.94	3.6620	3.6620	1.2663	26.06	0.12	1.500			
0.7363	47125.80	3.6590	3.6590	1.2711	26.06	0.12	1.500			
0.7402	47370.42	3.6560	3.6560	1.2711	26.05	0.11	1.500			
0.7440	47615.59	3.6530	3.6530	1.2736	26.05	0.11	1.500			
0.7478	47861.89	3.6500	3.6500	1.2758	26.04	0.10	1.500			
0.7517	48106.26	3.6470	3.6470	1.2746	26.03	0.09	1.500			
0.7555	48351.67	3.6440	3.6440	1.2731	26.02	0.08	1.500			
0.7593	48595.54	3.6410	3.6410	1.2651	26.01	0.07	1.500			
0.7631	48837.47	3.6380	3.6380	1.2608	26.00	0.06	1.500			
0.7669	49080.39	3.6350	3.6350	1.2600	25.99	0.05	1.500			
0.7707	49321.61	3.6320	3.6320	1.2549	25.98	0.04	1.500			
0.7744	49561.75	3.6290	3.6290	1.2495	25.98	0.04	1.500			
0.7781	49801.28	3.6260	3.6260	1.2420	25.97	0.03	1.500			
0.7819	50039.87	3.6230	3.6230	1.2373	25.97	0.03	1.500			
0.7856	50277.59	3.6200	3.6200	1.2297	25.96	0.02	1.500			
0.7893	50513.08	3.6170	3.6169	1.2143	25.95	0.01	1.500			
0.7929	50746.48	3.6140	3.6140	1.2005	25.95	0.01	1.500			
0.7965	50975.55	3.6110	3.6110	1.1833	25.94	0.00	1.500			
0.8000	51201.78	3.6080	3.6080	1.1647	25.94	0.00	1.500			
0.8035	51423.92	3.6050	3.6050	1.1426	25.94	0.00	1.500			
0.8069	51639.40	3.6020	3.6020	1.1202	25.94	0.00	1.500			
0.8102	51853.26	3.5990	3.5991	1.0980	25.94	0.00	1.500			
0.8135	52062.26	3.5960	3.5960	1.0793	25.94	0.00	1.500			
0.8167	52267.44	3.5930	3.5930	1.0584	25.94	0.00	1.500			
0.8198	52469.37	3.5900	3.5900	1.0334	25.94	0.00	1.500			
0.8230	52670.63	3.5870	3.5868	0.9945	25.94	0.00	1.500			
0.8260	52861.83	3.5840	3.5840	0.9384	25.94	0.00	1.500			
0.8288	53044.05	3.5810	3.5810	0.8630	25.94	0.00	1.500			
0.8313	53204.82	3.5780	3.5781	0.7700	25.94	0.00	1.500			
0.8335	53344.21	3.5750	3.5751	0.6691	25.94	0.00	1.500			
0.8353	53460.65	3.5720	3.5719	0.5650	25.94	0.00	1.500			
0.8367	53551.90	3.5690	3.5691	0.4727	25.94	0.00	1.500			
0.8380	53629.96	3.5660	3.5661	0.4009	25.94	0.00	1.500			
0.8390	53697.32	3.5630	3.5629	0.3339	25.94	0.00	1.500			
0.8399	53753.68	3.5600	3.5599	0.2895	25.94	0.00	1.500			
0.8406	53801.41	3.5570	3.5570	0.2511	25.94	0.00	1.500			
0.8413	53844.90	3.5540	3.5540	0.2239	25.94	0.00	1.500			
0.8419	53884.49	3.5510	3.5510	0.1995	25.94	0.00	1.500			
0.8425	53919.86	3.5480	3.5480	0.1807	25.94	0.00	1.500			
0.8430	53951.85	3.5450	3.5451	0.1633	25.94	0.00	1.500			
0.8435	53981.34	3.5420	3.5420	0.1469	25.94	0.00	1.500			
0.8439	54008.18	3.5390	3.5389	0.1326	25.94	0.00	1.500			
0.8443	54032.11	3.5360	3.5360	0.1182	25.94	0.00	1.500			
0.8446	54053.44	3.5330	3.5331	0.1042	25.94	0.00	1.500			
0.8449	54072.23	3.5300	3.5301	0.0904	25.94	0.00	1.500			
0.8451	54088.24	3.5270	3.5273	0.0763	25.94	0.00	1.500			
0.8453	54101.62	3.5240	3.5242	0.0620	25.94	0.00	1.500			
0.8455	54112.14	3.5210	3.5216	0.0476	25.94	0.00	1.500			
0.8456	54119.90	3.5180	3.5187	0.0332	25.94	0.00	1.500			
