Ah_balance (normalized)	Ah_balance (mAh)	Voltage - fit (V)	Voltage -  interpolate (V)	dQ/dV (1/V)	Temperature (°C)	Temperature - diff (°C)	Current (C)	R_DC 0ms (mOhm)	R_DC 50ms (mOhm)	R_DC 50 ms PEC (mOhm)
0.2866	18344.03	3.9700	3.9699	0.9114	27.01	1.03	1.500			
0.2894	18519.29	3.9670	3.9671	0.9150	27.01	1.03	1.500			
0.2921	18696.33	3.9640	3.9640	0.9185	27.01	1.03	1.500			
0.2949	18872.74	3.9610	3.9611	0.9196	27.01	1.03	1.500			
0.2977	19049.66	3.9580	3.9580	0.9230	27.01	1.03	1.500			
0.3004	19224.59	3.9550	3.9551	0.9277	27.01	1.03	1.500			
0.3032	19405.40	3.9520	3.9520	0.9326	27.01	1.03	1.500			
0.3060	19584.19	3.9490	3.9489	0.9327	27.01	1.03	1.500			
0.3088	19764.18	3.9460	3.9460	0.9373	27.01	1.03	1.500			
0.3116	19945.57	3.9430	3.9431	0.9436	27.01	1.03	1.500			
0.3145	20125.51	3.9400	3.9400	0.9475	27.01	1.03	1.500			
0.3173	20307.35	3.9370	3.9369	0.9486	27.01	1.03	1.500			
0.3201	20488.58	3.9340	3.9341	0.9589	27.01	1.03	1.500			
0.3230	20674.94	3.9310	3.9310	0.9713	27.01	1.03	1.500			
0.3260	20862.33	3.9280	3.9279	0.9749	27.01	1.03	1.500			
0.3289	21050.51	3.9250	3.9250	0.9815	27.01	1.03	1.500			
0.3319	21239.62	3.9220	3.9221	0.9831	27.00	1.02	1.500			
0.3348	21428.52	3.9190	3.9190	0.9903	27.00	1.02	1.500			
0.3378	21619.92	3.9160	3.9159	0.9970	27.00	1.02	1.500			
0.3408	21808.23	3.9130	3.9131	1.0038	27.00	1.02	1.500			
0.3438	22003.37	3.9100	3.9101	1.0153	27.00	1.02	1.500			
0.3469	22202.11	3.9070	3.9069	1.0215	27.00	1.02	1.500			
0.3500	22400.54	3.9040	3.9039	1.0160	26.99	1.01	1.500			
0.3531	22596.59	3.9010	3.9012	1.0175	26.99	1.01	1.500			
0.3561	22789.29	3.8980	3.8980	1.0146	26.99	1.01	1.500			
0.3591	22980.53	3.8950	3.8951	1.0201	26.98	1.00	1.500			
0.3621	23173.41	3.8920	3.8920	1.0342	26.98	1.00	1.500			
0.3652	23370.60	3.8890	3.8890	1.0572	26.97	0.99	1.500			
0.3684	23577.09	3.8860	3.8859	1.0859	26.97	0.99	1.500			
0.3718	23792.60	3.8830	3.8830	1.1120	26.97	0.99	1.500			
0.3751	24008.15	3.8800	3.8800	1.1258	26.97	0.99	1.500			
0.3785	24227.12	3.8770	3.8771	1.1468	26.96	0.98	1.500			
0.3821	24451.31	3.8740	3.8739	1.1518	26.96	0.98	1.500			
0.3855	24669.01	3.8710	3.8710	1.1665	26.96	0.98	1.500			
0.3890	24894.61	3.8680	3.8681	1.1821	26.95	0.97	1.500			
0.3925	25122.08	3.8650	3.8650	1.2020	26.95	0.97	1.500			
0.3962	25354.42	3.8620	3.8620	1.2253	26.95	0.97	1.500			
0.3999	25590.77	3.8590	3.8591	1.2450	26.94	0.96	1.500			
0.4036	25831.86	3.8560	3.8559	1.2635	26.94	0.96	1.500			
0.4075	26080.83	3.8530	3.8530	1.2879	26.93	0.95	1.500			
0.4113	26326.36	3.8500	3.8501	1.3033	26.93	0.95	1.500			
0.4153	26578.63	3.8470	3.8470	1.3299	26.92	0.94	1.500			
0.4193	26835.12	3.8440	3.8438	1.3536	26.92	0.94	1.500			
0.4234	27095.71	3.8410	3.8411	1.3753	26.91	0.93	1.500			
0.4275	27363.19	3.8380	3.8380	1.4056	26.91	0.93	1.500			
0.4318	27635.79	3.8350	3.8350	1.4425	26.90	0.92	1.500			
0.4362	27913.75	3.8320	3.8320	1.4660	26.89	0.91	1.500			
0.4406	28198.48	3.8290	3.8291	1.5040	26.89	0.91	1.500			
0.4452	28489.93	3.8260	3.8259	1.5410	26.88	0.90	1.500			
0.4499	28793.01	3.8230	3.8231	1.5697	26.87	0.89	1.500			
0.4547	29097.96	3.8200	3.8200	1.6079	26.85	0.87	1.500			
0.4595	29406.37	3.8170	3.8171	1.6546	26.84	0.86	1.500			
0.4645	29727.28	3.8140	3.8140	1.6977	26.83	0.85	1.500			
0.4696	30057.57	3.8110	3.8108	1.7450	26.82	0.84	1.500			
0.4750	30398.65	3.8080	3.8081	1.7837	26.81	0.83	1.500			
0.4804	30745.77	3.8050	3.8050	1.8327	26.80	0.82	1.500			
0.4860	31102.56	3.8020	3.8020	1.8935	26.79	0.81	1.500			
0.4916	31465.12	3.7990	3.7990	1.9397	26.78	0.80	1.500			
0.4975	31840.07	3.7960	3.7960	2.0147	26.77	0.79	1.500			
0.5037	32236.36	3.7930	3.7930	2.0497	26.76	0.78	1.500			
0.5099	32635.90	3.7900	3.7900	2.1405	26.74	0.76	1.500			
0.5164	33049.65	3.7870	3.7871	2.1939	26.73	0.75	1.500			
0.5231	33477.55	3.7840	3.7840	2.2468	26.71	0.73	1.500			
0.5298	33907.59	3.7810	3.7812	2.3025	26.69	0.71	1.500			
0.5369	34361.35	3.7780	3.7780	2.3829	26.68	0.70	1.500			
0.5440	34816.29	3.7750	3.7746	2.4433	26.66	0.68	1.500			
0.5515	35297.82	3.7720	3.7722	2.5390	26.64	0.66	1.500			
0.5594	35798.89	3.7690	3.7690	2.6519	26.62	0.64	1.500			
0.5674	36311.00	3.7660	3.7659	2.6952	26.60	0.62	1.500	0.371	0.460	
0.5756	36836.85	3.7630	3.7631	2.6701	26.58	0.60	1.500			
0.5839	37367.17	3.7600	3.7601	2.7247	26.55	0.57	1.500			
0.5920	37885.02	3.7570	3.7568	2.6995	26.53	0.55	1.500			
0.6000	38402.07	3.7540	3.7542	2.6591	26.51	0.53	1.500			
0.6081	38918.39	3.7510	3.7510	2.6492	26.49	0.51	1.500			
0.6160	39423.13	3.7480	3.7480	2.5848	26.47	0.49	1.500			
0.6236	39908.77	3.7450	3.7450	2.5104	26.45	0.47	1.500			
0.6309	40380.62	3.7420	3.7420	2.4612	26.42	0.44	1.500			
0.6382	40846.64	3.7390	3.7391	2.4151	26.40	0.42	1.500			
0.6455	41308.93	3.7360	3.7360	2.3956	26.38	0.40	1.500			
0.6526	41766.27	3.7330	3.7331	2.3630	26.36	0.38	1.500			
0.6597	42220.58	3.7300	3.7300	2.3709	26.35	0.37	1.500			
0.6668	42673.46	3.7270	3.7269	2.3812	26.33	0.35	1.500			
0.6739	43130.24	3.7240	3.7241	2.4028	26.32	0.34	1.500			
0.6812	43594.71	3.7210	3.7209	2.4404	26.31	0.33	1.500			
0.6885	44066.41	3.7180	3.7180	2.5078	26.29	0.31	1.500			
0.6962	44553.95	3.7150	3.7149	2.6386	26.28	0.30	1.500			
0.7042	45066.35	3.7120	3.7121	2.7308	26.26	0.28	1.500			
0.7126	45608.20	3.7090	3.7090	2.8473	26.25	0.27	1.500			
0.7212	46159.69	3.7060	3.7062	2.9704	26.24	0.26	1.500			
0.7304	46747.41	3.7030	3.7030	3.0097	26.22	0.24	1.500			
0.7396	47336.83	3.7000	3.7001	2.9993	26.20	0.22	1.500			
0.7487	47917.43	3.6970	3.6971	2.9573	26.18	0.20	1.500			
0.7574	48475.72	3.6940	3.6940	2.7861	26.17	0.19	1.500			
0.7657	49002.26	3.6910	3.6910	2.5902	26.16	0.18	1.500			
0.7732	49483.97	3.6880	3.6881	2.3585	26.16	0.18	1.500			
0.7798	49907.40	3.6850	3.6851	2.1253	26.15	0.17	1.500			
0.7857	50287.69	3.6820	3.6820	1.9122	26.15	0.17	1.500			
0.7911	50628.00	3.6790	3.6790	1.7574	26.14	0.16	1.500			
0.7959	50938.84	3.6760	3.6761	1.6070	26.14	0.16	1.500			
0.8005	51231.43	3.6730	3.6730	1.4975	26.13	0.15	1.500			
0.8048	51507.38	3.6700	3.6700	1.4037	26.12	0.14	1.500			
0.8088	51766.26	3.6670	3.6669	1.3177	26.12	0.14	1.500			
0.8126	52004.12	3.6640	3.6641	1.2512	26.11	0.13	1.500			
0.8162	52236.80	3.6610	3.6610	1.2011	26.10	0.12	1.500			
0.8196	52456.65	3.6580	3.6579	1.1605	26.10	0.12	1.500			
0.8231	52675.63	3.6550	3.6550	1.1401	26.09	0.11	1.500			
0.8264	52887.53	3.6520	3.6521	1.1311	26.09	0.11	1.500			
0.8298	53105.19	3.6490	3.6490	1.1343	26.08	0.10	1.500			
0.8331	53320.54	3.6460	3.6459	1.1391	26.08	0.10	1.500			
0.8365	53538.26	3.6430	3.6431	1.1495	26.07	0.09	1.500			
0.8400	53761.65	3.6400	3.6400	1.1621	26.07	0.09	1.500			
0.8436	53987.47	3.6370	3.6369	1.1665	26.06	0.08	1.500			
0.8471	54214.20	3.6340	3.6341	1.1659	26.06	0.08	1.500			
0.8506	54437.78	3.6310	3.6310	1.1605	26.05	0.07	1.500			
0.8541	54662.16	3.6280	3.6280	1.1574	26.04	0.06	1.500			
0.8575	54882.59	3.6250	3.6251	1.1488	26.04	0.06	1.500			
0.8609	55096.98	3.6220	3.6220	1.1602	26.03	0.05	1.500			
0.8644	55320.91	3.6190	3.6190	1.1692	26.03	0.05	1.500			
0.8679	55547.20	3.6160	3.6159	1.1771	26.02	0.04	1.500			
0.8715	55774.29	3.6130	3.6131	1.1853	26.02	0.04	1.500			
0.8751	56005.44	3.6100	3.6102	1.1915	26.01	0.03	1.500			
0.8787	56235.27	3.6070	3.6069	1.1945	26.00	0.02	1.500			
0.8822	56463.23	3.6040	3.6040	1.1879	26.00	0.02	1.500			
0.8858	56691.86	3.6010	3.6010	1.1884	25.99	0.01	1.500			
0.8894	56923.35	3.5980	3.5980	1.1893	25.99	0.01	1.500			
0.8930	57149.45	3.5950	3.5950	1.1871	25.98	0.00	1.500			
0.8965	57376.59	3.5920	3.5921	1.1843	25.98	0.00	1.500			
0.9000	57601.95	3.5890	3.5890	1.1928	25.98	0.00	1.500			
0.9035	57826.91	3.5860	3.5859	1.2009	25.98	0.00	1.500			
0.9072	58061.64	3.5830	3.5830	1.2088	25.98	0.00	1.500			
0.9109	58299.67	3.5800	3.5799	1.1982	25.98	0.00	1.500			
0.9148	58547.89	3.5770	3.5769	1.1395	25.98	0.00	1.500			
0.9182	58767.72	3.5740	3.5741	1.0346	25.98	0.00	1.500			
0.9214	58968.41	3.5710	3.5711	0.9056	25.98	0.00	1.500			
0.9239	59126.95	3.5680	3.5680	0.7435	25.98	0.00	1.500			
0.9257	59242.86	3.5650	3.5651	0.5957	25.98	0.00	1.500			
0.9271	59334.98	3.5620	3.5619	0.4751	25.98	0.00	1.500			
0.9283	59408.76	3.5590	3.5589	0.3635	25.98	0.00	1.500			
0.9292	59466.71	3.5560	3.5559	0.2943	25.98	0.00	1.500			
0.9298	59509.75	3.5530	3.5531	0.2371	25.98	0.00	1.500			
0.9305	59549.54	3.5500	3.5498	0.1904	25.98	0.00	1.500			
0.9309	59578.87	3.5470	3.5468	0.1465	25.98	0.00	1.500			
0.9313	59602.79	3.5440	3.5441	0.1112	25.98	0.00	1.500			
0.9316	59620.51	3.5410	3.5412	0.0789	25.98	0.00	1.500			
0.9318	59632.72	3.5380	3.5384	0.0436	25.98	0.00	1.500			
