Ah_balance (normalized)	Ah_balance (mAh)	Voltage - fit (V)	Voltage -  interpolate (V)	dQ/dV (1/V)	Temperature (°C)	Temperature - diff (°C)	Current (C)	R_DC 0ms (mOhm)	R_DC 50ms (mOhm)	R_DC 50 ms PEC (mOhm)
0.2663	17042.43	3.9910	3.9910	0.8522	27.41	1.45	1.500			
0.2688	17205.92	3.9880	3.9880	0.8515	27.40	1.44	1.500			
0.2714	17369.74	3.9850	3.9850	0.8509	27.40	1.44	1.500			
0.2739	17531.46	3.9820	3.9819	0.8546	27.39	1.43	1.500			
0.2765	17694.89	3.9790	3.9791	0.8565	27.39	1.43	1.500			
0.2791	17860.82	3.9760	3.9760	0.8605	27.38	1.42	1.500			
0.2817	18026.81	3.9730	3.9729	0.8627	27.37	1.41	1.500			
0.2843	18192.78	3.9700	3.9702	0.8626	27.37	1.41	1.500			
0.2869	18359.54	3.9670	3.9670	0.8656	27.36	1.40	1.500			
0.2895	18526.89	3.9640	3.9639	0.8657	27.35	1.39	1.500			
0.2920	18690.92	3.9610	3.9610	0.8689	27.35	1.39	1.500			
0.2946	18855.98	3.9580	3.9580	0.8752	27.34	1.38	1.500			
0.2973	19025.30	3.9550	3.9550	0.8810	27.34	1.38	1.500			
0.2999	19195.48	3.9520	3.9519	0.8881	27.33	1.37	1.500			
0.3026	19367.43	3.9490	3.9490	0.8912	27.32	1.36	1.500			
0.3053	19539.54	3.9460	3.9460	0.8982	27.32	1.36	1.500			
0.3080	19712.13	3.9430	3.9430	0.9030	27.31	1.35	1.500			
0.3107	19884.86	3.9400	3.9400	0.9016	27.30	1.34	1.500			
0.3134	20058.67	3.9370	3.9369	0.9066	27.30	1.34	1.500			
0.3162	20234.22	3.9340	3.9340	0.9128	27.29	1.33	1.500			
0.3189	20409.79	3.9310	3.9311	0.9161	27.28	1.32	1.500			
0.3217	20585.98	3.9280	3.9279	0.9223	27.28	1.32	1.500			
0.3244	20762.00	3.9250	3.9251	0.9272	27.27	1.31	1.500			
0.3272	20942.22	3.9220	3.9220	0.9338	27.26	1.30	1.500			
0.3300	21122.19	3.9190	3.9190	0.9452	27.25	1.29	1.500			
0.3329	21305.08	3.9160	3.9160	0.9465	27.24	1.28	1.500			
0.3357	21486.93	3.9130	3.9131	0.9499	27.23	1.27	1.500			
0.3386	21670.39	3.9100	3.9100	0.9550	27.22	1.26	1.500			
0.3414	21852.65	3.9070	3.9070	0.9636	27.21	1.25	1.500			
0.3443	22037.40	3.9040	3.9040	0.9698	27.20	1.24	1.500			
0.3473	22225.21	3.9010	3.9010	0.9786	27.19	1.23	1.500			
0.3502	22414.00	3.8980	3.8981	0.9840	27.18	1.22	1.500			
0.3532	22605.48	3.8950	3.8950	0.9989	27.17	1.21	1.500			
0.3562	22798.27	3.8920	3.8920	1.0044	27.16	1.20	1.500			
0.3592	22991.24	3.8890	3.8889	1.0134	27.15	1.19	1.500			
0.3623	23184.83	3.8860	3.8862	1.0247	27.14	1.18	1.500			
0.3654	23382.78	3.8830	3.8829	1.0320	27.13	1.17	1.500			
0.3685	23581.59	3.8800	3.8800	1.0419	27.12	1.16	1.500			
0.3716	23783.27	3.8770	3.8771	1.0511	27.11	1.15	1.500			
0.3748	23984.71	3.8740	3.8738	1.0610	27.10	1.14	1.500			
0.3780	24190.82	3.8710	3.8711	1.0770	27.09	1.13	1.500			
0.3812	24398.10	3.8680	3.8681	1.0890	27.08	1.12	1.500			
0.3845	24608.63	3.8650	3.8649	1.1016	27.06	1.10	1.500			
0.3878	24821.34	3.8620	3.8620	1.1098	27.05	1.09	1.500			
0.3912	25036.01	3.8590	3.8590	1.1245	27.04	1.08	1.500			
0.3946	25253.33	3.8560	3.8560	1.1351	27.03	1.07	1.500			
0.3980	25471.99	3.8530	3.8530	1.1490	27.02	1.06	1.500			
0.4015	25692.91	3.8500	3.8500	1.1684	27.00	1.04	1.500			
0.4050	25918.23	3.8470	3.8470	1.1875	26.99	1.03	1.500			
0.4086	26148.91	3.8440	3.8440	1.2022	26.98	1.02	1.500			
0.4122	26384.00	3.8410	3.8410	1.2150	26.97	1.01	1.500			
0.4159	26615.64	3.8380	3.8381	1.2320	26.96	1.00	1.500			
0.4196	26853.51	3.8350	3.8350	1.2525	26.95	0.99	1.500			
0.4233	27093.95	3.8320	3.8319	1.2677	26.93	0.97	1.500			
0.4272	27338.76	3.8290	3.8290	1.2906	26.92	0.96	1.500			
0.4311	27589.01	3.8260	3.8260	1.3176	26.90	0.94	1.500			
0.4351	27848.18	3.8230	3.8230	1.3317	26.88	0.92	1.500			
0.4392	28106.72	3.8200	3.8200	1.3604	26.86	0.90	1.500			
0.4432	28365.85	3.8170	3.8171	1.3779	26.85	0.89	1.500			
0.4474	28632.90	3.8140	3.8140	1.4063	26.83	0.87	1.500			
0.4517	28906.33	3.8110	3.8111	1.4303	26.81	0.85	1.500			
0.4560	29181.21	3.8080	3.8081	1.4525	26.80	0.84	1.500			
0.4604	29463.50	3.8050	3.8050	1.4715	26.79	0.83	1.500			
0.4648	29748.09	3.8020	3.8020	1.4996	26.77	0.81	1.500			
0.4694	30039.19	3.7990	3.7990	1.5300	26.76	0.80	1.500			
0.4740	30337.21	3.7960	3.7959	1.5542	26.74	0.78	1.500			
0.4787	30639.94	3.7930	3.7931	1.5829	26.73	0.77	1.500			
0.4835	30945.50	3.7900	3.7900	1.6093	26.71	0.75	1.500			
0.4883	31253.43	3.7870	3.7870	1.6460	26.70	0.74	1.500			
0.4933	31572.23	3.7840	3.7836	1.6678	26.68	0.72	1.500	0.346	0.473	
0.4984	31897.74	3.7810	3.7810	1.6934	26.66	0.70	1.500			
0.5036	32227.90	3.7780	3.7781	1.7091	26.65	0.69	1.500			
0.5087	32556.80	3.7750	3.7749	1.7077	26.63	0.67	1.500			
0.5138	32880.42	3.7720	3.7721	1.6952	26.61	0.65	1.500			
0.5188	33205.75	3.7690	3.7690	1.7139	26.60	0.64	1.500			
0.5240	33536.41	3.7660	3.7658	1.7268	26.58	0.62	1.500			
0.5292	33867.53	3.7630	3.7631	1.7266	26.56	0.60	1.500			
0.5345	34205.24	3.7600	3.7600	1.7393	26.55	0.59	1.500			
0.5396	34533.34	3.7570	3.7570	1.7433	26.53	0.57	1.500			
0.5448	34868.59	3.7540	3.7540	1.7566	26.51	0.55	1.500			
0.5502	35210.23	3.7510	3.7509	1.7822	26.50	0.54	1.500			
0.5555	35553.93	3.7480	3.7481	1.8256	26.48	0.52	1.500			
0.5611	35908.17	3.7450	3.7449	1.8529	26.47	0.51	1.500			
0.5666	36262.07	3.7420	3.7420	1.8628	26.45	0.49	1.500			
0.5722	36621.54	3.7390	3.7391	1.8948	26.44	0.48	1.500			
0.5780	36989.24	3.7360	3.7361	1.9424	26.42	0.46	1.500			
0.5838	37362.37	3.7330	3.7330	1.9988	26.41	0.45	1.500			
0.5900	37756.92	3.7300	3.7299	2.0976	26.39	0.43	1.500			
0.5963	38160.46	3.7270	3.7270	2.1386	26.38	0.42	1.500			
0.6029	38584.53	3.7240	3.7241	2.2033	26.36	0.40	1.500			
0.6096	39013.85	3.7210	3.7209	2.2238	26.34	0.38	1.500			
0.6162	39437.58	3.7180	3.7181	2.2565	26.32	0.36	1.500			
0.6230	39874.90	3.7150	3.7149	2.2962	26.30	0.34	1.500			
0.6301	40328.97	3.7120	3.7120	2.2977	26.29	0.33	1.500			
0.6370	40770.94	3.7090	3.7091	2.2769	26.27	0.31	1.500			
0.6439	41209.80	3.7060	3.7060	2.1970	26.25	0.29	1.500			
0.6503	41621.15	3.7030	3.7029	2.0877	26.24	0.28	1.500			
0.6565	42014.58	3.7000	3.7000	1.9701	26.22	0.26	1.500			
0.6622	42381.67	3.6970	3.6970	1.8429	26.21	0.25	1.500			
0.6674	42716.35	3.6940	3.6940	1.7094	26.20	0.24	1.500			
0.6724	43033.44	3.6910	3.6910	1.6173	26.18	0.22	1.500			
0.6771	43332.33	3.6880	3.6880	1.5352	26.17	0.21	1.500			
0.6815	43617.14	3.6850	3.6850	1.4651	26.16	0.20	1.500			
0.6858	43890.74	3.6820	3.6820	1.4082	26.15	0.19	1.500			
0.6899	44153.09	3.6790	3.6790	1.3672	26.14	0.18	1.500			
0.6939	44409.04	3.6760	3.6760	1.3315	26.13	0.17	1.500			
0.6978	44657.20	3.6730	3.6730	1.3053	26.12	0.16	1.500			
0.7016	44905.57	3.6700	3.6700	1.2863	26.11	0.15	1.500			
0.7055	45149.75	3.6670	3.6670	1.2765	26.11	0.15	1.500			
0.7093	45393.06	3.6640	3.6640	1.2741	26.10	0.14	1.500			
0.7131	45635.95	3.6610	3.6610	1.2659	26.09	0.13	1.500			
0.7168	45877.44	3.6580	3.6579	1.2672	26.08	0.12	1.500			
0.7206	46121.28	3.6550	3.6551	1.2691	26.07	0.11	1.500			
0.7245	46366.33	3.6520	3.6518	1.2682	26.06	0.10	1.500			
0.7283	46612.17	3.6490	3.6490	1.2671	26.05	0.09	1.500			
0.7321	46854.08	3.6460	3.6461	1.2616	26.04	0.08	1.500			
0.7359	47096.63	3.6430	3.6429	1.2464	26.04	0.08	1.500			
0.7396	47335.23	3.6400	3.6400	1.2421	26.03	0.07	1.500			
0.7433	47570.19	3.6370	3.6371	1.2296	26.02	0.06	1.500			
0.7470	47805.54	3.6340	3.6340	1.2227	26.01	0.05	1.500			
0.7506	48040.37	3.6310	3.6310	1.2178	26.01	0.05	1.500			
0.7543	48273.32	3.6280	3.6280	1.2082	26.00	0.04	1.500			
0.7579	48505.13	3.6250	3.6250	1.1978	25.99	0.03	1.500			
0.7615	48737.06	3.6220	3.6220	1.1829	25.99	0.03	1.500			
0.7650	48961.64	3.6190	3.6190	1.1676	25.98	0.02	1.500			
0.7685	49185.66	3.6160	3.6160	1.1502	25.97	0.01	1.500			
0.7720	49404.81	3.6130	3.6129	1.1308	25.96	0.00	1.500			
0.7753	49619.53	3.6100	3.6101	1.1101	25.96	0.00	1.500			
0.7786	49831.49	3.6070	3.6070	1.0885	25.96	0.00	1.500			
0.7819	50040.07	3.6040	3.6040	1.0637	25.96	0.00	1.500			
0.7850	50242.59	3.6010	3.6010	1.0330	25.96	0.00	1.500			
0.7881	50437.40	3.5980	3.5981	0.9971	25.96	0.00	1.500			
0.7911	50629.21	3.5950	3.5950	0.9619	25.96	0.00	1.500			
0.7939	50810.87	3.5920	3.5920	0.9130	25.96	0.00	1.500			
0.7967	50986.38	3.5890	3.5889	0.8479	25.96	0.00	1.500			
0.7991	51145.52	3.5860	3.5860	0.7740	25.96	0.00	1.500			
0.8014	51291.63	3.5830	3.5831	0.6927	25.96	0.00	1.500			
0.8034	51416.16	3.5800	3.5800	0.5996	25.96	0.00	1.500			
0.8050	51519.61	3.5770	3.5770	0.5136	25.96	0.00	1.500			
0.8064	51606.58	3.5740	3.5740	0.4329	25.96	0.00	1.500			
0.8075	51677.41	3.5710	3.5710	0.3658	25.96	0.00	1.500			
0.8084	51739.90	3.5680	3.5679	0.3183	25.96	0.00	1.500			
0.8093	51792.57	3.5650	3.5650	0.2758	25.96	0.00	1.500			
0.8100	51840.73	3.5620	3.5620	0.2461	25.96	0.00	1.500			
0.8107	51884.24	3.5590	3.5590	0.2191	25.96	0.00	1.500			
0.8113	51922.74	3.5560	3.5559	0.1982	25.96	0.00	1.500			
0.8118	51957.71	3.5530	3.5531	0.1794	25.96	0.00	1.500			
0.8123	51990.29	3.5500	3.5500	0.1628	25.96	0.00	1.500			
0.8128	52020.02	3.5470	3.5470	0.1483	25.96	0.00	1.500			
0.8132	52047.02	3.5440	3.5440	0.1335	25.96	0.00	1.500			
0.8136	52071.01	3.5410	3.5411	0.1186	25.96	0.00	1.500			
0.8139	52092.59	3.5380	3.5380	0.1050	25.96	0.00	1.500			
0.8142	52111.38	3.5350	3.5349	0.0907	25.96	0.00	1.500			
0.8145	52127.35	3.5320	3.5322	0.0763	25.96	0.00	1.500			
0.8147	52140.71	3.5290	3.5292	0.0621	25.96	0.00	1.500			
0.8149	52151.25	3.5260	3.5267	0.0477	25.96	0.00	1.500			
0.8150	52159.03	3.5230	3.5240	0.0334	25.96	0.00	1.500			
