Ah_balance (normalized)	Ah_balance (mAh)	Voltage - fit (V)	Voltage -  interpolate (V)	dQ/dV (1/V)	Temperature (°C)	Temperature - diff (°C)	Current (C)	R_DC 0ms (mOhm)	R_DC 50ms (mOhm)	R_DC 50 ms PEC (mOhm)
0.2837	18157.57	3.9920	3.9920	0.8383	27.31	1.33	1.500			
0.2862	18319.47	3.9890	3.9889	0.8362	27.30	1.32	1.500			
0.2887	18474.26	3.9860	3.9861	0.8249	27.30	1.32	1.500			
0.2911	18632.65	3.9830	3.9830	0.8317	27.30	1.32	1.500			
0.2936	18792.39	3.9800	3.9799	0.8340	27.29	1.31	1.500			
0.2962	18953.78	3.9770	3.9771	0.8401	27.29	1.31	1.500			
0.2987	19115.24	3.9740	3.9742	0.8462	27.28	1.30	1.500			
0.3012	19278.54	3.9710	3.9710	0.8545	27.28	1.30	1.500			
0.3038	19443.69	3.9680	3.9680	0.8615	27.27	1.29	1.500			
0.3064	19607.64	3.9650	3.9650	0.8622	27.27	1.29	1.500			
0.3090	19774.81	3.9620	3.9619	0.8668	27.27	1.29	1.500			
0.3116	19944.41	3.9590	3.9591	0.8661	27.26	1.28	1.500			
0.3142	20109.66	3.9560	3.9561	0.8659	27.26	1.28	1.500			
0.3168	20274.28	3.9530	3.9530	0.8690	27.25	1.27	1.500			
0.3194	20440.24	3.9500	3.9498	0.8766	27.25	1.27	1.500			
0.3220	20607.47	3.9470	3.9470	0.8809	27.24	1.26	1.500			
0.3247	20778.17	3.9440	3.9439	0.8866	27.24	1.26	1.500			
0.3274	20951.35	3.9410	3.9411	0.8963	27.23	1.25	1.500			
0.3301	21124.66	3.9380	3.9380	0.8978	27.22	1.24	1.500			
0.3328	21296.86	3.9350	3.9349	0.8997	27.22	1.24	1.500			
0.3354	21468.30	3.9320	3.9321	0.8983	27.21	1.23	1.500			
0.3381	21640.95	3.9290	3.9290	0.9059	27.20	1.22	1.500			
0.3409	21815.50	3.9260	3.9260	0.9172	27.20	1.22	1.500			
0.3436	21993.16	3.9230	3.9229	0.9201	27.19	1.21	1.500			
0.3464	22169.29	3.9200	3.9200	0.9264	27.19	1.21	1.500			
0.3492	22347.43	3.9170	3.9171	0.9396	27.18	1.20	1.500			
0.3520	22528.39	3.9140	3.9139	0.9489	27.17	1.19	1.500			
0.3549	22713.03	3.9110	3.9109	0.9542	27.16	1.18	1.500			
0.3578	22896.69	3.9080	3.9081	0.9585	27.16	1.18	1.500			
0.3607	23082.22	3.9050	3.9051	0.9591	27.15	1.17	1.500			
0.3635	23267.08	3.9020	3.9020	0.9652	27.14	1.16	1.500			
0.3664	23448.93	3.8990	3.8990	0.9716	27.14	1.16	1.500			
0.3693	23635.96	3.8960	3.8958	0.9768	27.13	1.15	1.500			
0.3722	23823.66	3.8930	3.8930	0.9894	27.12	1.14	1.500			
0.3752	24015.84	3.8900	3.8900	1.0018	27.11	1.13	1.500			
0.3783	24210.45	3.8870	3.8871	1.0140	27.10	1.12	1.500			
0.3813	24405.91	3.8840	3.8839	1.0230	27.10	1.12	1.500			
0.3844	24602.58	3.8810	3.8811	1.0317	27.09	1.11	1.500			
0.3875	24802.05	3.8780	3.8780	1.0423	27.08	1.10	1.500			
0.3907	25003.95	3.8750	3.8750	1.0599	27.07	1.09	1.500			
0.3939	25207.52	3.8720	3.8719	1.0682	27.06	1.08	1.500			
0.3971	25414.66	3.8690	3.8690	1.0802	27.05	1.07	1.500			
0.4003	25622.21	3.8660	3.8660	1.0921	27.04	1.06	1.500			
0.4036	25833.21	3.8630	3.8630	1.1054	27.03	1.05	1.500			
0.4070	26047.31	3.8600	3.8600	1.1179	27.02	1.04	1.500			
0.4104	26262.75	3.8570	3.8569	1.1295	27.01	1.03	1.500			
0.4137	26479.14	3.8540	3.8541	1.1464	27.00	1.02	1.500			
0.4172	26701.91	3.8510	3.8510	1.1643	26.99	1.01	1.500			
0.4207	26927.23	3.8480	3.8479	1.1794	26.98	1.00	1.500			
0.4243	27153.81	3.8450	3.8451	1.1959	26.97	0.99	1.500			
0.4279	27385.35	3.8420	3.8420	1.2155	26.96	0.98	1.500			
0.4316	27622.39	3.8390	3.8390	1.2282	26.95	0.97	1.500			
0.4353	27859.90	3.8360	3.8360	1.2488	26.94	0.96	1.500			
0.4391	28100.02	3.8330	3.8330	1.2668	26.92	0.94	1.500			
0.4429	28344.42	3.8300	3.8300	1.2915	26.91	0.93	1.500			
0.4468	28594.11	3.8270	3.8270	1.3146	26.90	0.92	1.500			
0.4507	28846.61	3.8240	3.8240	1.3392	26.89	0.91	1.500			
0.4548	29108.28	3.8210	3.8209	1.3616	26.87	0.89	1.500			
0.4590	29373.42	3.8180	3.8181	1.3825	26.86	0.88	1.500			
0.4632	29642.91	3.8150	3.8150	1.4119	26.84	0.86	1.500			
0.4674	29916.34	3.8120	3.8121	1.4288	26.83	0.85	1.500			
0.4717	30191.18	3.8090	3.8090	1.4460	26.81	0.83	1.500			
0.4761	30471.56	3.8060	3.8060	1.4722	26.80	0.82	1.500			
0.4805	30752.93	3.8030	3.8030	1.4991	26.78	0.80	1.500			
0.4851	31043.34	3.8000	3.8001	1.5344	26.77	0.79	1.500			
0.4898	31346.43	3.7970	3.7969	1.5591	26.75	0.77	1.500			
0.4945	31645.55	3.7940	3.7941	1.5941	26.74	0.76	1.500			
0.4994	31958.79	3.7910	3.7911	1.6184	26.72	0.74	1.500			
0.5043	32273.07	3.7880	3.7879	1.6412	26.71	0.73	1.500			
0.5092	32588.06	3.7850	3.7852	1.6526	26.69	0.71	1.500	0.348	0.486	
0.5142	32906.93	3.7820	3.7820	1.6651	26.68	0.70	1.500			
0.5192	33230.20	3.7790	3.7790	1.6787	26.66	0.68	1.500			
0.5242	33547.92	3.7760	3.7761	1.6763	26.64	0.66	1.500			
0.5293	33876.51	3.7730	3.7730	1.6702	26.63	0.65	1.500			
0.5343	34197.56	3.7700	3.7700	1.6858	26.61	0.63	1.500			
0.5394	34519.96	3.7670	3.7670	1.6792	26.60	0.62	1.500			
0.5444	34843.52	3.7640	3.7638	1.6952	26.58	0.60	1.500			
0.5495	35168.10	3.7610	3.7611	1.7018	26.57	0.59	1.500			
0.5547	35500.67	3.7580	3.7580	1.7164	26.55	0.57	1.500			
0.5598	35824.20	3.7550	3.7550	1.7187	26.54	0.56	1.500			
0.5650	36157.02	3.7520	3.7520	1.7512	26.52	0.54	1.500			
0.5702	36493.74	3.7490	3.7489	1.7662	26.51	0.53	1.500			
0.5756	36836.32	3.7460	3.7461	1.8045	26.49	0.51	1.500			
0.5811	37187.44	3.7430	3.7430	1.8289	26.48	0.50	1.500			
0.5866	37541.52	3.7400	3.7400	1.8754	26.46	0.48	1.500			
0.5922	37902.88	3.7370	3.7369	1.9141	26.45	0.47	1.500			
0.5981	38277.41	3.7340	3.7341	1.9810	26.43	0.45	1.500			
0.6041	38662.14	3.7310	3.7310	2.0235	26.41	0.43	1.500			
0.6103	39058.70	3.7280	3.7280	2.0885	26.39	0.41	1.500			
0.6166	39460.96	3.7250	3.7250	2.1408	26.37	0.39	1.500			
0.6231	39880.22	3.7220	3.7220	2.1974	26.35	0.37	1.500			
0.6298	40307.36	3.7190	3.7190	2.2455	26.33	0.35	1.500			
0.6366	40745.46	3.7160	3.7160	2.2921	26.31	0.33	1.500			
0.6436	41192.02	3.7130	3.7129	2.3016	26.29	0.31	1.500			
0.6507	41642.00	3.7100	3.7100	2.2586	26.27	0.29	1.500			
0.6574	42071.00	3.7070	3.7069	2.1743	26.26	0.28	1.500			
0.6637	42479.05	3.7040	3.7041	2.0551	26.24	0.26	1.500			
0.6697	42862.75	3.7010	3.7009	1.9364	26.23	0.25	1.500			
0.6753	43219.54	3.6980	3.6980	1.7981	26.22	0.24	1.500			
0.6806	43556.20	3.6950	3.6950	1.6860	26.20	0.22	1.500			
0.6853	43861.72	3.6920	3.6921	1.5828	26.19	0.21	1.500			
0.6899	44156.73	3.6890	3.6890	1.5085	26.18	0.20	1.500			
0.6943	44433.76	3.6860	3.6858	1.4402	26.17	0.19	1.500			
0.6985	44703.00	3.6830	3.6830	1.3911	26.16	0.18	1.500			
0.7026	44964.34	3.6800	3.6800	1.3483	26.15	0.17	1.500			
0.7065	45216.64	3.6770	3.6770	1.3210	26.14	0.16	1.500			
0.7104	45465.21	3.6740	3.6740	1.2926	26.12	0.14	1.500			
0.7142	45709.19	3.6710	3.6710	1.2776	26.11	0.13	1.500			
0.7180	45953.36	3.6680	3.6680	1.2706	26.10	0.12	1.500			
0.7218	46196.15	3.6650	3.6651	1.2649	26.09	0.11	1.500			
0.7256	46438.77	3.6620	3.6620	1.2645	26.08	0.10	1.500			
0.7294	46682.55	3.6590	3.6590	1.2598	26.08	0.10	1.500			
0.7332	46923.06	3.6560	3.6560	1.2520	26.07	0.09	1.500			
0.7369	47163.97	3.6530	3.6530	1.2474	26.06	0.08	1.500			
0.7407	47402.48	3.6500	3.6500	1.2372	26.05	0.07	1.500			
0.7444	47640.42	3.6470	3.6469	1.2243	26.04	0.06	1.500			
0.7480	47873.55	3.6440	3.6440	1.2129	26.03	0.05	1.500			
0.7516	48104.30	3.6410	3.6410	1.2014	26.02	0.04	1.500			
0.7552	48334.50	3.6380	3.6380	1.1942	26.01	0.03	1.500			
0.7588	48562.08	3.6350	3.6350	1.1795	26.01	0.03	1.500			
0.7623	48786.36	3.6320	3.6321	1.1743	26.00	0.02	1.500			
0.7658	49011.76	3.6290	3.6290	1.1660	25.99	0.01	1.500			
0.7693	49236.02	3.6260	3.6258	1.1556	25.98	-0.00	1.500			
0.7728	49457.12	3.6230	3.6230	1.1402	25.98	-0.00	1.500			
0.7762	49675.99	3.6200	3.6201	1.1255	25.97	-0.01	1.500			
0.7796	49892.82	3.6170	3.6170	1.1091	25.97	-0.01	1.500			
0.7829	50103.74	3.6140	3.6140	1.0830	25.97	-0.01	1.500			
0.7861	50309.09	3.6110	3.6110	1.0574	25.97	-0.01	1.500			
0.7892	50511.30	3.6080	3.6080	1.0355	25.96	-0.02	1.500			
0.7923	50708.24	3.6050	3.6050	1.0103	25.96	-0.02	1.500			
0.7953	50899.71	3.6020	3.6020	0.9793	25.96	-0.02	1.500			
0.7982	51087.51	3.5990	3.5989	0.9455	25.96	-0.02	1.500			
0.8010	51266.94	3.5960	3.5960	0.9029	25.97	-0.01	1.500			
0.8038	51440.60	3.5930	3.5930	0.8519	25.97	-0.01	1.500			
0.8063	51600.56	3.5900	3.5900	0.7871	25.97	-0.01	1.500			
0.8086	51749.49	3.5870	3.5870	0.7134	25.97	-0.01	1.500			
0.8106	51879.22	3.5840	3.5840	0.6287	25.97	-0.01	1.500			
0.8124	51990.81	3.5810	3.5811	0.5478	25.97	-0.01	1.500			
0.8138	52086.04	3.5780	3.5780	0.4673	25.98	-0.00	1.500			
0.8151	52164.61	3.5750	3.5749	0.3960	25.98	-0.00	1.500			
0.8161	52231.57	3.5720	3.5720	0.3402	25.98	-0.00	1.500			
0.8170	52287.95	3.5690	3.5690	0.2922	25.98	-0.00	1.500			
0.8178	52338.41	3.5660	3.5660	0.2578	25.98	-0.00	1.500			
0.8185	52382.84	3.5630	3.5631	0.2250	25.98	-0.00	1.500			
0.8191	52421.71	3.5600	3.5599	0.2017	25.98	-0.00	1.500			
0.8197	52457.74	3.5570	3.5572	0.1818	25.98	0.00	1.500			
0.8202	52490.51	3.5540	3.5540	0.1635	25.98	0.00	1.500			
0.8206	52520.27	3.5510	3.5510	0.1480	25.98	0.00	1.500			
0.8211	52547.32	3.5480	3.5480	0.1325	25.98	0.00	1.500			
0.8214	52570.62	3.5450	3.5450	0.1171	25.98	0.00	1.500			
0.8217	52591.67	3.5420	3.5420	0.1026	25.98	0.00	1.500			
0.8220	52609.99	3.5390	3.5390	0.0883	25.98	0.00	1.500			
0.8223	52625.21	3.5360	3.5361	0.0739	25.98	0.00	1.500			
0.8225	52638.20	3.5330	3.5333	0.0601	25.98	0.00	1.500			
0.8226	52648.40	3.5300	3.5307	0.0461	25.98	0.00	1.500			
0.8227	52655.91	3.5270	3.5280	0.0321	25.98	0.00	1.500			
