Ah_balance (normalized)	Ah_balance (mAh)	Voltage - fit (V)	Voltage -  interpolate (V)	dQ/dV (1/V)	Temperature (°C)	Temperature - diff (°C)	Current (C)	R_DC 0ms (mOhm)	R_DC 50ms (mOhm)	R_DC 50 ms PEC (mOhm)
0.2803	17941.41	3.9880	3.9880	0.8723	27.04	1.10	1.500			
0.2829	18106.59	3.9850	3.9850	0.8572	27.03	1.09	1.500			
0.2855	18272.48	3.9820	3.9820	0.8559	27.03	1.09	1.500			
0.2881	18435.97	3.9790	3.9790	0.8499	27.02	1.08	1.500			
0.2906	18597.96	3.9760	3.9760	0.8466	27.02	1.08	1.500			
0.2931	18759.02	3.9730	3.9731	0.8493	27.01	1.07	1.500			
0.2957	18922.13	3.9700	3.9700	0.8523	27.01	1.07	1.500			
0.2982	19085.74	3.9670	3.9669	0.8540	27.00	1.06	1.500			
0.3008	19248.98	3.9640	3.9641	0.8619	27.00	1.06	1.500			
0.3034	19416.63	3.9610	3.9609	0.8714	26.99	1.05	1.500			
0.3060	19583.87	3.9580	3.9580	0.8772	26.99	1.05	1.500			
0.3086	19753.47	3.9550	3.9549	0.8775	26.98	1.04	1.500			
0.3113	19922.48	3.9520	3.9520	0.8782	26.97	1.03	1.500			
0.3140	20093.26	3.9490	3.9490	0.8818	26.97	1.03	1.500			
0.3166	20261.50	3.9460	3.9461	0.8842	26.96	1.02	1.500			
0.3192	20429.38	3.9430	3.9430	0.8835	26.96	1.02	1.500			
0.3219	20600.22	3.9400	3.9399	0.8880	26.95	1.01	1.500			
0.3245	20769.62	3.9370	3.9370	0.8927	26.94	1.00	1.500			
0.3272	20942.33	3.9340	3.9341	0.9034	26.94	1.00	1.500			
0.3300	21117.19	3.9310	3.9310	0.9094	26.93	0.99	1.500			
0.3327	21292.47	3.9280	3.9279	0.9124	26.92	0.98	1.500			
0.3354	21467.35	3.9250	3.9251	0.9146	26.92	0.98	1.500			
0.3382	21644.35	3.9220	3.9219	0.9217	26.91	0.97	1.500			
0.3410	21822.81	3.9190	3.9190	0.9267	26.91	0.97	1.500			
0.3437	21999.83	3.9160	3.9161	0.9305	26.90	0.96	1.500			
0.3465	22177.62	3.9130	3.9130	0.9310	26.90	0.96	1.500			
0.3493	22356.45	3.9100	3.9100	0.9399	26.89	0.95	1.500			
0.3521	22536.49	3.9070	3.9070	0.9508	26.89	0.95	1.500			
0.3550	22719.58	3.9040	3.9038	0.9608	26.88	0.94	1.500			
0.3579	22905.88	3.9010	3.9010	0.9713	26.87	0.93	1.500			
0.3608	23094.00	3.8980	3.8981	0.9833	26.86	0.92	1.500			
0.3638	23286.26	3.8950	3.8949	0.9905	26.85	0.91	1.500			
0.3668	23476.73	3.8920	3.8920	0.9945	26.85	0.91	1.500			
0.3698	23667.72	3.8890	3.8889	0.9976	26.84	0.90	1.500			
0.3728	23857.75	3.8860	3.8861	1.0100	26.83	0.89	1.500			
0.3758	24053.35	3.8830	3.8829	1.0160	26.82	0.88	1.500			
0.3789	24248.32	3.8800	3.8800	1.0283	26.81	0.87	1.500			
0.3820	24447.26	3.8770	3.8771	1.0437	26.80	0.86	1.500			
0.3852	24650.12	3.8740	3.8738	1.0587	26.80	0.86	1.500			
0.3884	24855.29	3.8710	3.8710	1.0705	26.79	0.85	1.500			
0.3916	25063.37	3.8680	3.8681	1.0801	26.78	0.84	1.500			
0.3948	25270.29	3.8650	3.8650	1.0881	26.77	0.83	1.500			
0.3982	25481.81	3.8620	3.8621	1.1042	26.77	0.83	1.500			
0.4014	25692.37	3.8590	3.8590	1.1101	26.76	0.82	1.500			
0.4048	25906.29	3.8560	3.8559	1.1235	26.75	0.81	1.500			
0.4082	26123.77	3.8530	3.8530	1.1385	26.74	0.80	1.500			
0.4116	26342.69	3.8500	3.8500	1.1591	26.73	0.79	1.500			
0.4151	26566.95	3.8470	3.8470	1.1833	26.72	0.78	1.500			
0.4187	26795.54	3.8440	3.8439	1.1954	26.71	0.77	1.500			
0.4223	27027.20	3.8410	3.8410	1.2185	26.70	0.76	1.500			
0.4260	27264.52	3.8380	3.8381	1.2398	26.69	0.75	1.500			
0.4297	27503.92	3.8350	3.8349	1.2593	26.68	0.74	1.500			
0.4336	27747.23	3.8320	3.8320	1.2826	26.67	0.73	1.500			
0.4374	27994.44	3.8290	3.8290	1.3050	26.66	0.72	1.500			
0.4414	28247.19	3.8260	3.8260	1.3271	26.65	0.71	1.500			
0.4454	28504.62	3.8230	3.8231	1.3536	26.64	0.70	1.500			
0.4495	28766.87	3.8200	3.8200	1.3780	26.62	0.68	1.500			
0.4537	29033.87	3.8170	3.8170	1.4076	26.61	0.67	1.500			
0.4579	29305.43	3.8140	3.8140	1.4340	26.60	0.66	1.500			
0.4622	29583.56	3.8110	3.8110	1.4603	26.59	0.65	1.500			
0.4667	29867.64	3.8080	3.8080	1.4934	26.58	0.64	1.500			
0.4712	30157.23	3.8050	3.8050	1.5199	26.56	0.62	1.500			
0.4758	30451.96	3.8020	3.8020	1.5458	26.55	0.61	1.500			
0.4805	30751.62	3.7990	3.7990	1.5766	26.54	0.60	1.500			
0.4853	31056.72	3.7960	3.7960	1.6009	26.52	0.58	1.500			
0.4901	31367.48	3.7930	3.7930	1.6287	26.51	0.57	1.500			
0.4950	31680.24	3.7900	3.7901	1.6555	26.49	0.55	1.500			
0.5000	32003.08	3.7870	3.7870	1.6830	26.48	0.54	1.500			
0.5051	32328.38	3.7840	3.7839	1.7088	26.46	0.52	1.500			
0.5103	32656.62	3.7810	3.7811	1.7497	26.45	0.51	1.500			
0.5156	32999.91	3.7780	3.7779	1.7702	26.43	0.49	1.500	0.349	0.463	
0.5210	33342.42	3.7750	3.7751	1.7867	26.42	0.48	1.500			
0.5264	33686.85	3.7720	3.7721	1.7906	26.41	0.47	1.500			
0.5318	34033.14	3.7690	3.7690	1.7878	26.39	0.45	1.500			
0.5371	34373.47	3.7660	3.7660	1.7623	26.38	0.44	1.500			
0.5424	34712.99	3.7630	3.7630	1.7678	26.36	0.42	1.500			
0.5476	35048.97	3.7600	3.7600	1.7663	26.35	0.41	1.500			
0.5530	35389.35	3.7570	3.7569	1.7793	26.34	0.40	1.500			
0.5583	35729.47	3.7540	3.7540	1.7824	26.32	0.38	1.500			
0.5636	36073.41	3.7510	3.7510	1.7915	26.31	0.37	1.500			
0.5690	36416.42	3.7480	3.7480	1.8026	26.29	0.35	1.500			
0.5744	36762.13	3.7450	3.7450	1.8174	26.28	0.34	1.500			
0.5799	37112.46	3.7420	3.7418	1.8468	26.26	0.32	1.500			
0.5854	37467.95	3.7390	3.7391	1.8843	26.25	0.31	1.500			
0.5912	37834.87	3.7360	3.7360	1.8945	26.24	0.30	1.500			
0.5969	38200.20	3.7330	3.7330	1.9540	26.23	0.29	1.500			
0.6028	38580.54	3.7300	3.7299	2.0121	26.21	0.27	1.500			
0.6090	38973.68	3.7270	3.7272	2.0675	26.20	0.26	1.500			
0.6153	39379.04	3.7240	3.7240	2.1232	26.19	0.25	1.500			
0.6218	39794.67	3.7210	3.7210	2.1716	26.18	0.24	1.500			
0.6283	40208.46	3.7180	3.7179	2.2356	26.16	0.22	1.500			
0.6350	40642.09	3.7150	3.7150	2.3225	26.15	0.21	1.500			
0.6422	41100.87	3.7120	3.7120	2.3860	26.14	0.20	1.500			
0.6495	41565.17	3.7090	3.7091	2.4215	26.13	0.19	1.500			
0.6568	42032.81	3.7060	3.7059	2.4216	26.12	0.18	1.500			
0.6641	42501.72	3.7030	3.7030	2.3802	26.11	0.17	1.500			
0.6713	42964.50	3.7000	3.6999	2.3016	26.09	0.15	1.500			
0.6780	43389.80	3.6970	3.6970	2.1443	26.08	0.14	1.500			
0.6842	43790.12	3.6940	3.6940	1.9954	26.07	0.13	1.500			
0.6899	44156.71	3.6910	3.6910	1.8406	26.06	0.12	1.500			
0.6951	44486.87	3.6880	3.6881	1.7028	26.06	0.12	1.500			
0.7000	44800.20	3.6850	3.6850	1.5999	26.05	0.11	1.500			
0.7046	45094.90	3.6820	3.6819	1.5128	26.04	0.10	1.500			
0.7090	45374.44	3.6790	3.6791	1.4419	26.03	0.09	1.500			
0.7132	45642.56	3.6760	3.6760	1.3842	26.03	0.09	1.500			
0.7172	45900.38	3.6730	3.6731	1.3396	26.02	0.08	1.500			
0.7211	46150.83	3.6700	3.6700	1.3005	26.01	0.07	1.500			
0.7249	46393.70	3.6670	3.6670	1.2758	26.01	0.07	1.500			
0.7287	46634.20	3.6640	3.6640	1.2625	26.00	0.06	1.500			
0.7324	46873.90	3.6610	3.6611	1.2615	26.00	0.06	1.500			
0.7362	47115.08	3.6580	3.6580	1.2631	25.99	0.05	1.500			
0.7400	47358.72	3.6550	3.6550	1.2659	25.98	0.04	1.500			
0.7438	47601.73	3.6520	3.6521	1.2767	25.98	0.04	1.500			
0.7476	47848.16	3.6490	3.6490	1.2802	25.97	0.03	1.500			
0.7515	48095.57	3.6460	3.6460	1.2797	25.97	0.03	1.500			
0.7553	48342.34	3.6430	3.6431	1.2718	25.96	0.02	1.500			
0.7592	48586.12	3.6400	3.6400	1.2646	25.95	0.01	1.500			
0.7629	48828.69	3.6370	3.6371	1.2590	25.95	0.01	1.500			
0.7667	49069.38	3.6340	3.6340	1.2497	25.95	0.01	1.500			
0.7704	49304.69	3.6310	3.6310	1.2405	25.94	0.00	1.500			
0.7741	49544.64	3.6280	3.6279	1.2400	25.94	-0.00	1.500			
0.7779	49782.87	3.6250	3.6251	1.2369	25.93	-0.01	1.500			
0.7816	50020.86	3.6220	3.6220	1.2301	25.93	-0.01	1.500			
0.7853	50257.52	3.6190	3.6190	1.2205	25.93	-0.01	1.500			
0.7889	50491.46	3.6160	3.6160	1.2079	25.93	-0.01	1.500			
0.7925	50721.83	3.6130	3.6130	1.1936	25.92	-0.02	1.500			
0.7961	50949.23	3.6100	3.6100	1.1747	25.92	-0.02	1.500			
0.7996	51173.53	3.6070	3.6070	1.1598	25.92	-0.02	1.500			
0.8030	51394.84	3.6040	3.6040	1.1420	25.92	-0.02	1.500			
0.8065	51612.82	3.6010	3.6010	1.1218	25.92	-0.02	1.500			
0.8098	51827.04	3.5980	3.5980	1.1035	25.92	-0.02	1.500			
0.8131	52036.45	3.5950	3.5950	1.0842	25.93	-0.01	1.500			
0.8163	52243.64	3.5920	3.5920	1.0598	25.93	-0.01	1.500			
0.8195	52446.67	3.5890	3.5889	1.0312	25.93	-0.01	1.500			
0.8226	52644.72	3.5860	3.5860	0.9909	25.93	-0.01	1.500			
0.8256	52836.07	3.5830	3.5830	0.9247	25.94	-0.00	1.500			
0.8283	53014.26	3.5800	3.5800	0.8535	25.94	-0.00	1.500			
0.8308	53172.24	3.5770	3.5771	0.7541	25.94	0.00	1.500			
0.8329	53308.65	3.5740	3.5741	0.6524	25.94	0.00	1.500			
0.8347	53420.94	3.5710	3.5710	0.5577	25.94	0.00	1.500			
0.8361	53511.96	3.5680	3.5681	0.4652	25.95	0.01	1.500			
0.8374	53591.91	3.5650	3.5649	0.3876	25.95	0.01	1.500			
0.8384	53656.87	3.5620	3.5619	0.3326	25.95	0.01	1.500			
0.8392	53709.89	3.5590	3.5589	0.2845	25.95	0.01	1.500			
0.8400	53758.31	3.5560	3.5559	0.2515	25.95	0.01	1.500			
0.8406	53801.13	3.5530	3.5530	0.2203	25.95	0.01	1.500			
0.8413	53840.10	3.5500	3.5500	0.1990	25.95	0.01	1.500			
0.8418	53875.46	3.5470	3.5470	0.1801	25.95	0.01	1.500			
0.8423	53907.77	3.5440	3.5439	0.1617	25.95	0.01	1.500			
0.8428	53936.98	3.5410	3.5410	0.1472	25.95	0.01	1.500			
0.8432	53963.26	3.5380	3.5381	0.1318	25.95	0.01	1.500			
0.8435	53987.04	3.5350	3.5349	0.1174	25.95	0.01	1.500			
0.8439	54008.24	3.5320	3.5320	0.1035	25.95	0.01	1.500			
0.8442	54026.77	3.5290	3.5290	0.0895	25.95	0.01	1.500			
0.8444	54042.60	3.5260	3.5262	0.0756	25.95	0.01	1.500			
0.8446	54056.26	3.5230	3.5233	0.0614	25.95	0.01	1.500			
0.8448	54066.61	3.5200	3.5206	0.0465	25.95	0.01	1.500			
0.8449	54074.11	3.5170	3.5180	0.0316	25.95	0.01	1.500			
