Ah_balance (normalized)	Ah_balance (mAh)	Voltage - fit (V)	Voltage -  interpolate (V)	dQ/dV (1/V)	Temperature (°C)	Temperature - diff (°C)	Current (C)	R_DC 0ms (mOhm)	R_DC 50ms (mOhm)	R_DC 50 ms PEC (mOhm)
0.2900	18557.62	3.9690	3.9690	0.8930	26.94	0.98	1.500			
0.2926	18724.68	3.9660	3.9661	0.8805	26.93	0.97	1.500			
0.2952	18894.33	3.9630	3.9630	0.8860	26.93	0.97	1.500			
0.2979	19065.24	3.9600	3.9599	0.8891	26.92	0.96	1.500			
0.3006	19236.16	3.9570	3.9570	0.8900	26.92	0.96	1.500			
0.3032	19406.98	3.9540	3.9541	0.8907	26.91	0.95	1.500			
0.3059	19579.21	3.9510	3.9510	0.8952	26.91	0.95	1.500			
0.3086	19750.58	3.9480	3.9480	0.9041	26.91	0.95	1.500			
0.3113	19922.70	3.9450	3.9449	0.9053	26.90	0.94	1.500			
0.3140	20097.77	3.9420	3.9420	0.9100	26.90	0.94	1.500			
0.3168	20274.21	3.9390	3.9390	0.9138	26.89	0.93	1.500			
0.3195	20450.53	3.9360	3.9362	0.9216	26.89	0.93	1.500			
0.3223	20627.57	3.9330	3.9330	0.9250	26.88	0.92	1.500			
0.3251	20804.06	3.9300	3.9300	0.9287	26.88	0.92	1.500			
0.3279	20983.01	3.9270	3.9270	0.9312	26.87	0.91	1.500			
0.3307	21162.13	3.9240	3.9240	0.9412	26.87	0.91	1.500			
0.3335	21343.75	3.9210	3.9210	0.9480	26.87	0.91	1.500			
0.3364	21527.24	3.9180	3.9180	0.9527	26.86	0.90	1.500			
0.3392	21709.62	3.9150	3.9150	0.9551	26.86	0.90	1.500			
0.3421	21892.81	3.9120	3.9120	0.9634	26.85	0.89	1.500			
0.3450	22077.93	3.9090	3.9090	0.9735	26.85	0.89	1.500			
0.3479	22266.49	3.9060	3.9059	0.9832	26.84	0.88	1.500			
0.3509	22455.38	3.9030	3.9030	0.9867	26.84	0.88	1.500			
0.3538	22646.05	3.9000	3.9000	0.9985	26.83	0.87	1.500			
0.3569	22839.71	3.8970	3.8970	1.0048	26.83	0.87	1.500			
0.3599	23032.08	3.8940	3.8939	1.0132	26.82	0.86	1.500			
0.3629	23227.86	3.8910	3.8910	1.0176	26.82	0.86	1.500			
0.3660	23423.25	3.8880	3.8880	1.0313	26.81	0.85	1.500			
0.3691	23623.06	3.8850	3.8850	1.0441	26.81	0.85	1.500			
0.3723	23825.24	3.8820	3.8820	1.0529	26.80	0.84	1.500			
0.3754	24027.16	3.8790	3.8791	1.0627	26.80	0.84	1.500			
0.3786	24232.66	3.8760	3.8760	1.0800	26.79	0.83	1.500			
0.3819	24439.39	3.8730	3.8730	1.0922	26.79	0.83	1.500			
0.3852	24652.47	3.8700	3.8699	1.1040	26.78	0.82	1.500			
0.3885	24866.56	3.8670	3.8670	1.1147	26.78	0.82	1.500			
0.3919	25080.96	3.8640	3.8640	1.1300	26.77	0.81	1.500			
0.3953	25299.82	3.8610	3.8610	1.1433	26.77	0.81	1.500			
0.3987	25518.66	3.8580	3.8578	1.1569	26.76	0.80	1.500			
0.4022	25741.46	3.8550	3.8551	1.1736	26.75	0.79	1.500			
0.4058	25968.06	3.8520	3.8520	1.1920	26.75	0.79	1.500			
0.4094	26199.20	3.8490	3.8490	1.2151	26.74	0.78	1.500			
0.4130	26434.72	3.8460	3.8460	1.2342	26.73	0.77	1.500			
0.4168	26672.89	3.8430	3.8429	1.2515	26.72	0.76	1.500			
0.4206	26915.54	3.8400	3.8401	1.2733	26.71	0.75	1.500			
0.4244	27161.66	3.8370	3.8371	1.2926	26.70	0.74	1.500			
0.4283	27412.26	3.8340	3.8340	1.3156	26.69	0.73	1.500			
0.4323	27666.35	3.8310	3.8310	1.3392	26.68	0.72	1.500			
0.4363	27923.33	3.8280	3.8280	1.3638	26.67	0.71	1.500			
0.4405	28188.88	3.8250	3.8250	1.3910	26.66	0.70	1.500			
0.4447	28458.31	3.8220	3.8220	1.4201	26.65	0.69	1.500			
0.4489	28732.72	3.8190	3.8189	1.4517	26.64	0.68	1.500			
0.4534	29014.45	3.8160	3.8160	1.4813	26.63	0.67	1.500			
0.4578	29301.11	3.8130	3.8129	1.5134	26.62	0.66	1.500			
0.4624	29593.27	3.8100	3.8100	1.5515	26.61	0.65	1.500			
0.4671	29894.11	3.8070	3.8070	1.5852	26.60	0.64	1.500			
0.4719	30203.22	3.8040	3.8040	1.6398	26.59	0.63	1.500			
0.4769	30519.17	3.8010	3.8011	1.6847	26.57	0.61	1.500			
0.4820	30850.39	3.7980	3.7980	1.7282	26.56	0.60	1.500			
0.4873	31188.67	3.7950	3.7950	1.7891	26.55	0.59	1.500			
0.4928	31536.72	3.7920	3.7920	1.8346	26.54	0.58	1.500			
0.4983	31893.07	3.7890	3.7889	1.8932	26.52	0.56	1.500			
0.5040	32257.78	3.7860	3.7861	1.9443	26.51	0.55	1.500			
0.5100	32640.38	3.7830	3.7830	1.9883	26.49	0.53	1.500			
0.5160	33026.19	3.7800	3.7801	2.0452	26.47	0.51	1.500			
0.5223	33427.53	3.7770	3.7770	2.1024	26.46	0.50	1.500			
0.5287	33835.72	3.7740	3.7740	2.1265	26.44	0.48	1.500			
0.5351	34246.65	3.7710	3.7711	2.1565	26.42	0.46	1.500			
0.5417	34666.93	3.7680	3.7679	2.1921	26.40	0.44	1.500			
0.5482	35085.20	3.7650	3.7650	2.2356	26.38	0.42	1.500			
0.5552	35531.37	3.7620	3.7618	2.2685	26.37	0.41	1.500	0.381	0.462	
0.5620	35965.50	3.7590	3.7591	2.2502	26.35	0.39	1.500			
0.5687	36396.08	3.7560	3.7560	2.2189	26.33	0.37	1.500			
0.5752	36815.91	3.7530	3.7529	2.1724	26.32	0.36	1.500			
0.5817	37229.99	3.7500	3.7501	2.1461	26.30	0.34	1.500			
0.5882	37642.91	3.7470	3.7470	2.1301	26.28	0.32	1.500			
0.5945	38044.98	3.7440	3.7440	2.1018	26.26	0.30	1.500			
0.6007	38446.12	3.7410	3.7410	2.1102	26.25	0.29	1.500			
0.6071	38855.66	3.7380	3.7380	2.1003	26.23	0.27	1.500			
0.6134	39255.90	3.7350	3.7350	2.1145	26.22	0.26	1.500			
0.6197	39661.71	3.7320	3.7320	2.1344	26.20	0.24	1.500			
0.6261	40072.43	3.7290	3.7290	2.1601	26.19	0.23	1.500			
0.6326	40488.11	3.7260	3.7260	2.2030	26.17	0.21	1.500			
0.6393	40914.69	3.7230	3.7230	2.2413	26.16	0.20	1.500			
0.6460	41344.24	3.7200	3.7200	2.2722	26.15	0.19	1.500			
0.6529	41786.08	3.7170	3.7169	2.3427	26.13	0.17	1.500			
0.6600	42238.12	3.7140	3.7140	2.4063	26.12	0.16	1.500			
0.6673	42706.08	3.7110	3.7110	2.5069	26.10	0.14	1.500			
0.6750	43197.70	3.7080	3.7079	2.6356	26.09	0.13	1.500			
0.6831	43718.40	3.7050	3.7050	2.7050	26.08	0.12	1.500			
0.6914	44248.73	3.7020	3.7021	2.7776	26.06	0.10	1.500			
0.6999	44791.93	3.6990	3.6988	2.7981	26.05	0.09	1.500			
0.7083	45329.91	3.6960	3.6960	2.7634	26.04	0.08	1.500			
0.7166	45864.85	3.6930	3.6931	2.6939	26.02	0.06	1.500			
0.7247	46379.19	3.6900	3.6899	2.5165	26.01	0.05	1.500			
0.7319	46843.56	3.6870	3.6870	2.2978	26.01	0.05	1.500			
0.7385	47261.44	3.6840	3.6840	2.0938	26.00	0.04	1.500			
0.7443	47635.30	3.6810	3.6810	1.9067	26.00	0.04	1.500			
0.7496	47974.20	3.6780	3.6779	1.7546	26.00	0.04	1.500			
0.7546	48294.08	3.6750	3.6750	1.6321	26.00	0.04	1.500			
0.7593	48594.58	3.6720	3.6719	1.5301	25.99	0.03	1.500			
0.7637	48875.51	3.6690	3.6690	1.4495	25.99	0.03	1.500			
0.7678	49141.21	3.6660	3.6661	1.3815	25.99	0.03	1.500			
0.7719	49399.37	3.6630	3.6630	1.3304	25.98	0.02	1.500			
0.7757	49646.21	3.6600	3.6599	1.2880	25.98	0.02	1.500			
0.7795	49887.21	3.6570	3.6570	1.2566	25.97	0.01	1.500			
0.7832	50123.63	3.6540	3.6540	1.2437	25.97	0.01	1.500			
0.7869	50359.34	3.6510	3.6510	1.2409	25.96	0.00	1.500			
0.7905	50591.77	3.6480	3.6480	1.2418	25.95	-0.01	1.500			
0.7942	50830.29	3.6450	3.6450	1.2625	25.95	-0.01	1.500			
0.7980	51074.49	3.6420	3.6420	1.2785	25.94	-0.02	1.500			
0.8019	51323.24	3.6390	3.6390	1.2930	25.94	-0.02	1.500			
0.8059	51575.65	3.6360	3.6360	1.3050	25.94	-0.02	1.500			
0.8098	51828.75	3.6330	3.6331	1.3052	25.94	-0.02	1.500			
0.8138	52080.04	3.6300	3.6300	1.3055	25.93	-0.03	1.500			
0.8177	52330.03	3.6270	3.6270	1.3028	25.93	-0.03	1.500			
0.8216	52579.40	3.6240	3.6240	1.3006	25.93	-0.03	1.500			
0.8255	52829.38	3.6210	3.6209	1.2999	25.93	-0.03	1.500			
0.8293	53077.68	3.6180	3.6181	1.2988	25.93	-0.03	1.500			
0.8332	53327.53	3.6150	3.6150	1.2983	25.92	-0.04	1.500			
0.8371	53577.04	3.6120	3.6120	1.2960	25.92	-0.04	1.500			
0.8410	53826.63	3.6090	3.6090	1.2903	25.92	-0.04	1.500			
0.8449	54075.51	3.6060	3.6060	1.2801	25.91	-0.05	1.500			
0.8488	54320.81	3.6030	3.6029	1.2683	25.91	-0.05	1.500			
0.8526	54564.03	3.6000	3.6000	1.2524	25.91	-0.05	1.500			
0.8563	54801.74	3.5970	3.5970	1.2379	25.91	-0.05	1.500			
0.8600	55037.33	3.5940	3.5940	1.2230	25.91	-0.05	1.500			
0.8636	55268.84	3.5910	3.5910	1.2056	25.91	-0.05	1.500			
0.8672	55500.06	3.5880	3.5881	1.1972	25.91	-0.05	1.500			
0.8708	55728.57	3.5850	3.5850	1.1925	25.91	-0.05	1.500			
0.8743	55954.05	3.5820	3.5820	1.1936	25.91	-0.05	1.500			
0.8778	56182.35	3.5790	3.5789	1.1954	25.92	-0.04	1.500			
0.8815	56416.05	3.5760	3.5759	1.1792	25.92	-0.04	1.500			
0.8852	56651.08	3.5730	3.5729	1.1525	25.93	-0.03	1.500			
0.8888	56884.70	3.5700	3.5700	1.0762	25.94	-0.02	1.500			
0.8920	57090.58	3.5670	3.5671	0.9656	25.94	-0.02	1.500			
0.8948	57270.06	3.5640	3.5641	0.8355	25.95	-0.01	1.500			
0.8971	57413.74	3.5610	3.5610	0.6865	25.95	-0.01	1.500			
0.8987	57519.19	3.5580	3.5581	0.5522	25.96	-0.00	1.500			
0.9001	57605.45	3.5550	3.5551	0.4491	25.96	0.00	1.500			
0.9012	57677.36	3.5520	3.5520	0.3570	25.96	0.00	1.500			
0.9021	57736.52	3.5490	3.5488	0.3030	25.97	0.01	1.500			
0.9029	57783.99	3.5460	3.5460	0.2550	25.97	0.01	1.500			
0.9035	57826.68	3.5430	3.5430	0.2236	25.97	0.01	1.500			
0.9041	57865.15	3.5400	3.5401	0.1951	25.97	0.01	1.500			
0.9047	57899.50	3.5370	3.5370	0.1755	25.97	0.01	1.500			
0.9052	57930.67	3.5340	3.5340	0.1556	25.97	0.01	1.500			
0.9056	57958.23	3.5310	3.5310	0.1382	25.97	0.01	1.500			
0.9060	57983.27	3.5280	3.5279	0.1226	25.97	0.01	1.500			
0.9063	58005.08	3.5250	3.5250	0.1068	25.97	0.01	1.500			
0.9066	58024.22	3.5220	3.5221	0.0917	25.97	0.01	1.500			
0.9069	58040.36	3.5190	3.5191	0.0764	25.97	0.01	1.500			
0.9071	58053.74	3.5160	3.5163	0.0604	25.97	0.01	1.500			
0.9072	58063.80	3.5130	3.5135	0.0444	25.98	0.02	1.500			
