Ah_balance (normalized)	Ah_balance (mAh)	Voltage - fit (V)	Voltage -  interpolate (V)	dQ/dV (1/V)	Temperature (°C)	Temperature - diff (°C)	Current (C)	R_DC 0ms (mOhm)	R_DC 50ms (mOhm)	R_DC 50 ms PEC (mOhm)
0.2864	18328.13	3.9740	3.9741	0.8680	27.10	1.14	1.500			
0.2890	18494.38	3.9710	3.9710	0.8675	27.09	1.13	1.500			
0.2916	18661.12	3.9680	3.9679	0.8708	27.09	1.13	1.500			
0.2942	18828.95	3.9650	3.9650	0.8744	27.09	1.13	1.500			
0.2968	18996.27	3.9620	3.9619	0.8797	27.08	1.12	1.500			
0.2995	19165.99	3.9590	3.9590	0.8837	27.08	1.12	1.500			
0.3021	19337.27	3.9560	3.9560	0.8841	27.07	1.11	1.500			
0.3048	19506.33	3.9530	3.9530	0.8899	27.07	1.11	1.500			
0.3075	19679.01	3.9500	3.9499	0.8851	27.06	1.10	1.500			
0.3101	19847.21	3.9470	3.9470	0.8906	27.06	1.10	1.500			
0.3128	20017.78	3.9440	3.9440	0.8951	27.06	1.10	1.500			
0.3154	20188.78	3.9410	3.9410	0.9001	27.05	1.09	1.500			
0.3182	20363.34	3.9380	3.9380	0.9066	27.05	1.09	1.500			
0.3209	20538.43	3.9350	3.9350	0.9129	27.04	1.08	1.500			
0.3236	20713.44	3.9320	3.9320	0.9165	27.04	1.08	1.500			
0.3264	20890.89	3.9290	3.9291	0.9210	27.03	1.07	1.500			
0.3292	21068.15	3.9260	3.9259	0.9270	27.03	1.07	1.500			
0.3320	21247.63	3.9230	3.9230	0.9289	27.02	1.06	1.500			
0.3348	21425.96	3.9200	3.9200	0.9400	27.02	1.06	1.500			
0.3376	21606.94	3.9170	3.9171	0.9528	27.02	1.06	1.500			
0.3405	21791.60	3.9140	3.9138	0.9551	27.01	1.05	1.500			
0.3434	21975.00	3.9110	3.9111	0.9632	27.01	1.05	1.500			
0.3463	22161.08	3.9080	3.9081	0.9675	27.00	1.04	1.500			
0.3492	22347.84	3.9050	3.9050	0.9735	27.00	1.04	1.500			
0.3521	22536.01	3.9020	3.9020	0.9798	26.99	1.03	1.500			
0.3551	22723.58	3.8990	3.8990	0.9833	26.99	1.03	1.500			
0.3580	22911.52	3.8960	3.8961	0.9926	26.98	1.02	1.500			
0.3610	23104.71	3.8930	3.8929	1.0044	26.98	1.02	1.500			
0.3640	23296.48	3.8900	3.8901	1.0113	26.97	1.01	1.500			
0.3671	23492.49	3.8870	3.8869	1.0231	26.97	1.01	1.500			
0.3701	23688.75	3.8840	3.8840	1.0348	26.96	1.00	1.500			
0.3733	23889.68	3.8810	3.8810	1.0419	26.95	0.99	1.500			
0.3764	24091.20	3.8780	3.8781	1.0487	26.95	0.99	1.500			
0.3796	24294.51	3.8750	3.8750	1.0501	26.94	0.98	1.500			
0.3827	24495.32	3.8720	3.8720	1.0645	26.93	0.97	1.500			
0.3859	24697.59	3.8690	3.8690	1.0774	26.92	0.96	1.500			
0.3891	24905.33	3.8660	3.8660	1.0927	26.92	0.96	1.500			
0.3924	25116.35	3.8630	3.8630	1.1070	26.91	0.95	1.500			
0.3958	25331.93	3.8600	3.8601	1.1268	26.90	0.94	1.500			
0.3992	25550.94	3.8570	3.8570	1.1456	26.90	0.94	1.500			
0.4027	25773.46	3.8540	3.8540	1.1563	26.89	0.93	1.500			
0.4062	25994.71	3.8510	3.8510	1.1657	26.89	0.93	1.500			
0.4097	26218.03	3.8480	3.8481	1.1829	26.88	0.92	1.500			
0.4132	26447.20	3.8450	3.8450	1.2055	26.87	0.91	1.500			
0.4169	26679.37	3.8420	3.8419	1.2279	26.87	0.91	1.500			
0.4206	26917.35	3.8390	3.8390	1.2500	26.86	0.90	1.500			
0.4244	27159.54	3.8360	3.8360	1.2777	26.85	0.89	1.500			
0.4283	27410.35	3.8330	3.8330	1.2968	26.85	0.89	1.500			
0.4322	27660.61	3.8300	3.8301	1.3189	26.84	0.88	1.500			
0.4361	27913.27	3.8270	3.8270	1.3404	26.83	0.87	1.500			
0.4402	28171.71	3.8240	3.8240	1.3730	26.82	0.86	1.500			
0.4443	28436.45	3.8210	3.8210	1.3987	26.81	0.85	1.500			
0.4486	28709.34	3.8180	3.8180	1.4285	26.80	0.84	1.500			
0.4529	28984.59	3.8150	3.8151	1.4725	26.79	0.83	1.500			
0.4574	29272.89	3.8120	3.8121	1.5152	26.78	0.82	1.500			
0.4620	29567.77	3.8090	3.8089	1.5490	26.77	0.81	1.500			
0.4667	29868.85	3.8060	3.8059	1.5840	26.76	0.80	1.500			
0.4715	30176.18	3.8030	3.8031	1.6264	26.74	0.78	1.500			
0.4765	30496.46	3.8000	3.8000	1.6549	26.73	0.77	1.500			
0.4815	30813.01	3.7970	3.7970	1.6893	26.71	0.75	1.500			
0.4865	31136.13	3.7940	3.7941	1.7275	26.70	0.74	1.500			
0.4918	31472.57	3.7910	3.7908	1.7835	26.68	0.72	1.500			
0.4972	31820.43	3.7880	3.7881	1.8337	26.67	0.71	1.500			
0.5028	32178.15	3.7850	3.7850	1.8619	26.65	0.69	1.500			
0.5085	32544.92	3.7820	3.7820	1.9040	26.64	0.68	1.500			
0.5143	32912.43	3.7790	3.7789	1.9337	26.62	0.66	1.500			
0.5201	33286.90	3.7760	3.7760	1.9670	26.61	0.65	1.500			
0.5261	33671.62	3.7730	3.7730	1.9740	26.59	0.63	1.500			
0.5320	34050.94	3.7700	3.7701	1.9955	26.57	0.61	1.500			
0.5381	34438.40	3.7670	3.7671	2.0355	26.55	0.59	1.500			
0.5442	34831.02	3.7640	3.7638	2.0426	26.53	0.57	1.499	0.355	0.457	
0.5505	35228.91	3.7610	3.7610	2.0255	26.52	0.56	1.500			
0.5566	35621.19	3.7580	3.7581	2.0338	26.50	0.54	1.500			
0.5626	36009.26	3.7550	3.7551	2.0011	26.49	0.53	1.500			
0.5686	36393.01	3.7520	3.7521	1.9899	26.47	0.51	1.500			
0.5746	36774.51	3.7490	3.7491	1.9775	26.46	0.50	1.500			
0.5806	37155.62	3.7460	3.7460	1.9829	26.45	0.49	1.500			
0.5864	37531.82	3.7430	3.7430	1.9784	26.43	0.47	1.500			
0.5924	37914.49	3.7400	3.7402	2.0005	26.42	0.46	1.500			
0.5985	38301.80	3.7370	3.7370	2.0129	26.40	0.44	1.500			
0.6045	38687.87	3.7340	3.7340	2.0277	26.39	0.43	1.500			
0.6106	39079.02	3.7310	3.7310	2.0700	26.37	0.41	1.500			
0.6168	39476.05	3.7280	3.7279	2.1096	26.36	0.40	1.500			
0.6233	39888.07	3.7250	3.7251	2.1432	26.35	0.39	1.500			
0.6297	40303.31	3.7220	3.7220	2.1916	26.34	0.38	1.500			
0.6363	40723.89	3.7190	3.7190	2.2506	26.33	0.37	1.500			
0.6431	41158.44	3.7160	3.7160	2.3318	26.32	0.36	1.500			
0.6502	41611.87	3.7130	3.7130	2.4390	26.30	0.34	1.500			
0.6577	42095.32	3.7100	3.7100	2.5383	26.28	0.32	1.500			
0.6656	42599.15	3.7070	3.7070	2.6205	26.26	0.30	1.500			
0.6736	43108.73	3.7040	3.7040	2.6417	26.25	0.29	1.500			
0.6816	43619.68	3.7010	3.7011	2.6529	26.24	0.28	1.500			
0.6896	44131.51	3.6980	3.6979	2.6105	26.23	0.27	1.500			
0.6974	44631.93	3.6950	3.6950	2.5124	26.22	0.26	1.500			
0.7048	45110.18	3.6920	3.6920	2.3868	26.21	0.25	1.500			
0.7118	45553.49	3.6890	3.6891	2.1997	26.21	0.25	1.500			
0.7181	45957.94	3.6860	3.6860	2.0273	26.20	0.24	1.500			
0.7238	46321.54	3.6830	3.6830	1.8508	26.19	0.23	1.500			
0.7290	46656.49	3.6800	3.6800	1.7172	26.18	0.22	1.500			
0.7339	46970.98	3.6770	3.6770	1.6090	26.18	0.22	1.500			
0.7386	47268.54	3.6740	3.6739	1.5218	26.17	0.21	1.500			
0.7430	47552.25	3.6710	3.6710	1.4480	26.17	0.21	1.500			
0.7472	47821.48	3.6680	3.6680	1.3815	26.16	0.20	1.500			
0.7512	48078.25	3.6650	3.6650	1.3345	26.15	0.19	1.500			
0.7551	48324.34	3.6620	3.6620	1.2921	26.14	0.18	1.500			
0.7588	48564.34	3.6590	3.6589	1.2688	26.13	0.17	1.500			
0.7626	48804.74	3.6560	3.6560	1.2622	26.13	0.17	1.500			
0.7663	49045.33	3.6530	3.6529	1.2599	26.12	0.16	1.500			
0.7701	49287.13	3.6500	3.6500	1.2706	26.11	0.15	1.500			
0.7739	49530.72	3.6470	3.6470	1.2799	26.10	0.14	1.500			
0.7778	49777.94	3.6440	3.6440	1.2855	26.10	0.14	1.500			
0.7817	50026.55	3.6410	3.6410	1.3015	26.09	0.13	1.500			
0.7856	50278.24	3.6380	3.6381	1.3145	26.08	0.12	1.500			
0.7896	50532.26	3.6350	3.6349	1.3239	26.07	0.11	1.500			
0.7936	50789.10	3.6320	3.6320	1.3226	26.07	0.11	1.500			
0.7976	51043.21	3.6290	3.6291	1.3185	26.06	0.10	1.500			
0.8015	51297.69	3.6260	3.6260	1.3163	26.05	0.09	1.500			
0.8055	51551.77	3.6230	3.6229	1.3136	26.04	0.08	1.500			
0.8094	51800.18	3.6200	3.6200	1.3022	26.03	0.07	1.500			
0.8133	52049.68	3.6170	3.6171	1.2975	26.03	0.07	1.500			
0.8172	52300.61	3.6140	3.6140	1.2939	26.02	0.06	1.500			
0.8211	52548.76	3.6110	3.6110	1.2933	26.01	0.05	1.500			
0.8250	52796.82	3.6080	3.6080	1.2804	26.00	0.04	1.500			
0.8288	53042.63	3.6050	3.6050	1.2626	25.99	0.03	1.500			
0.8326	53284.77	3.6020	3.6020	1.2507	25.98	0.02	1.500			
0.8363	53524.13	3.5990	3.5990	1.2351	25.97	0.01	1.500			
0.8400	53760.51	3.5960	3.5959	1.2143	25.96	0.00	1.500			
0.8436	53989.80	3.5930	3.5931	1.2004	25.96	0.00	1.500			
0.8471	54216.45	3.5900	3.5901	1.1855	25.96	0.00	1.500			
0.8507	54444.67	3.5870	3.5869	1.1791	25.96	0.00	1.500			
0.8542	54671.50	3.5840	3.5839	1.1666	25.96	0.00	1.500			
0.8577	54893.80	3.5810	3.5810	1.1528	25.96	0.00	1.500			
0.8613	55121.59	3.5780	3.5780	1.1100	25.96	0.00	1.500			
0.8647	55341.36	3.5750	3.5749	1.0541	25.96	0.00	1.500			
0.8679	55542.43	3.5720	3.5721	0.9464	25.96	0.00	1.500			
0.8707	55722.02	3.5690	3.5691	0.8368	25.96	0.00	1.500			
0.8730	55869.92	3.5660	3.5661	0.7083	25.96	0.00	1.500			
0.8748	55989.49	3.5630	3.5629	0.5785	25.96	0.00	1.500			
0.8762	56077.25	3.5600	3.5601	0.4700	25.96	0.00	1.500			
0.8774	56152.96	3.5570	3.5570	0.3938	25.96	0.00	1.500			
0.8784	56217.24	3.5540	3.5539	0.3230	25.96	0.00	1.500			
0.8792	56271.53	3.5510	3.5508	0.2797	25.96	0.00	1.500			
0.8800	56317.32	3.5480	3.5481	0.2427	25.96	0.00	1.500			
0.8806	56359.63	3.5450	3.5450	0.2174	25.96	0.00	1.500			
0.8812	56398.13	3.5420	3.5420	0.1938	25.96	0.00	1.500			
0.8818	56432.38	3.5390	3.5390	0.1759	25.96	0.00	1.500			
0.8822	56463.44	3.5360	3.5360	0.1584	25.96	0.00	1.500			
0.8827	56492.15	3.5330	3.5330	0.1432	25.96	0.00	1.500			
0.8831	56518.34	3.5300	3.5300	0.1293	25.96	0.00	1.500			
0.8835	56541.78	3.5270	3.5270	0.1153	25.96	0.00	1.500			
0.8838	56562.65	3.5240	3.5242	0.1015	25.96	0.00	1.500			
0.8841	56580.87	3.5210	3.5210	0.0876	25.96	0.00	1.500			
0.8843	56596.33	3.5180	3.5182	0.0734	25.96	0.00	1.500			
0.8845	56609.01	3.5150	3.5154	0.0595	25.96	0.00	1.500			
0.8847	56619.09	3.5120	3.5125	0.0455	25.96	0.00	1.500			
