Ah_balance (normalized)	Ah_balance (mAh)	Voltage - fit (V)	Voltage -  interpolate (V)	dQ/dV (1/V)	Temperature (°C)	Temperature - diff (°C)	Current (C)	R_DC 0ms (mOhm)	R_DC 50ms (mOhm)	R_DC 50 ms PEC (mOhm)
0.2051	13128.10	3.9130	3.9127	-0.1142	25.84	-0.02	-1.500			
0.2055	13152.17	3.9100	3.9099	-0.1420	25.84	-0.02	-1.500			
0.2060	13182.77	3.9070	3.9070	-0.1734	25.84	-0.02	-1.500			
0.2066	13219.35	3.9040	3.9041	-0.2030	25.85	-0.01	-1.500			
0.2072	13260.91	3.9010	3.9010	-0.2330	25.85	-0.01	-1.500			
0.2080	13309.23	3.8980	3.8980	-0.2615	25.85	-0.01	-1.500			
0.2088	13362.25	3.8950	3.8950	-0.2889	25.85	-0.01	-1.500			
0.2097	13420.65	3.8920	3.8920	-0.3157	25.85	-0.01	-1.500			
0.2107	13483.68	3.8890	3.8892	-0.3450	25.85	-0.01	-1.500			
0.2118	13552.38	3.8860	3.8860	-0.3713	25.85	-0.01	-1.500			
0.2129	13626.65	3.8830	3.8829	-0.3977	25.85	-0.01	-1.500			
0.2141	13705.49	3.8800	3.8800	-0.4230	25.85	-0.01	-1.500			
0.2155	13789.14	3.8770	3.8771	-0.4515	25.85	-0.01	-1.500			
0.2168	13877.84	3.8740	3.8739	-0.4782	25.85	-0.01	-1.500			
0.2183	13973.60	3.8710	3.8710	-0.5029	25.85	-0.01	-1.500			
0.2199	14072.59	3.8680	3.8680	-0.5253	25.86	-0.00	-1.500			
0.2215	14177.05	3.8650	3.8650	-0.5496	25.86	-0.00	-1.500			
0.2232	14284.98	3.8620	3.8621	-0.5686	25.86	-0.00	-1.500			
0.2249	14395.72	3.8590	3.8589	-0.5866	25.86	0.00	-1.500			
0.2267	14509.48	3.8560	3.8560	-0.6035	25.86	0.00	-1.500			
0.2285	14626.48	3.8530	3.8531	-0.6215	25.86	0.00	-1.500			
0.2304	14748.59	3.8500	3.8500	-0.6385	25.86	0.00	-1.500			
0.2324	14874.54	3.8470	3.8470	-0.6519	25.87	0.01	-1.500			
0.2344	15001.17	3.8440	3.8440	-0.6624	25.87	0.01	-1.500			
0.2364	15129.83	3.8410	3.8410	-0.6715	25.87	0.01	-1.500			
0.2384	15259.39	3.8380	3.8380	-0.6765	25.87	0.01	-1.500			
0.2405	15389.63	3.8350	3.8350	-0.6833	25.87	0.01	-1.500			
0.2425	15520.43	3.8320	3.8321	-0.6925	25.87	0.01	-1.500			
0.2446	15655.52	3.8290	3.8289	-0.6964	25.88	0.02	-1.500			
0.2467	15791.12	3.8260	3.8260	-0.6998	25.88	0.02	-1.500			
0.2488	15925.03	3.8230	3.8230	-0.7036	25.88	0.02	-1.500			
0.2510	16061.28	3.8200	3.8200	-0.7058	25.88	0.02	-1.500			
0.2531	16196.22	3.8170	3.8169	-0.7153	25.88	0.02	-1.500			
0.2552	16332.50	3.8140	3.8140	-0.7181	25.88	0.02	-1.500			
0.2574	16471.47	3.8110	3.8110	-0.7181	25.89	0.03	-1.500			
0.2596	16611.39	3.8080	3.8081	-0.7249	25.89	0.03	-1.500			
0.2617	16751.87	3.8050	3.8051	-0.7269	25.89	0.03	-1.500			
0.2639	16890.94	3.8020	3.8019	-0.7245	25.89	0.03	-1.500			
0.2661	17029.67	3.7990	3.7990	-0.7241	25.89	0.03	-1.500			
0.2682	17166.59	3.7960	3.7961	-0.7240	25.89	0.03	-1.500			
0.2704	17307.38	3.7930	3.7930	-0.7274	25.90	0.04	-1.500			
0.2726	17447.24	3.7900	3.7899	-0.7272	25.90	0.04	-1.500			
0.2748	17585.75	3.7870	3.7870	-0.7254	25.90	0.04	-1.500			
0.2770	17725.61	3.7840	3.7841	-0.7255	25.91	0.05	-1.500			
0.2791	17864.87	3.7810	3.7808	-0.7278	25.91	0.05	-1.500			
0.2813	18004.29	3.7780	3.7781	-0.7273	25.92	0.06	-1.500			
0.2835	18143.50	3.7750	3.7750	-0.7262	25.92	0.06	-1.500			
0.2857	18283.84	3.7720	3.7720	-0.7286	25.93	0.07	-1.500			
0.2879	18423.92	3.7690	3.7689	-0.7283	25.93	0.07	-1.500			
0.2900	18562.85	3.7660	3.7660	-0.7307	25.94	0.08	-1.500			
0.2922	18703.24	3.7630	3.7630	-0.7333	25.94	0.08	-1.500			
0.2944	18844.30	3.7600	3.7599	-0.7317	25.95	0.09	-1.500			
0.2967	18985.85	3.7570	3.7570	-0.7321	25.95	0.09	-1.500			
0.2988	19126.29	3.7540	3.7540	-0.7311	25.96	0.10	-1.500			
0.3010	19265.88	3.7510	3.7511	-0.7308	25.96	0.10	-1.500			
0.3032	19406.22	3.7480	3.7480	-0.7283	25.97	0.11	-1.500			
0.3054	19545.16	3.7450	3.7449	-0.7273	25.97	0.11	-1.500			
0.3076	19684.07	3.7420	3.7421	-0.7305	25.98	0.12	-1.500			
0.3098	19824.85	3.7390	3.7390	-0.7355	25.98	0.12	-1.500			
0.3120	19966.71	3.7360	3.7359	-0.7384	25.99	0.13	-1.500			
0.3142	20108.66	3.7330	3.7330	-0.7433	25.99	0.13	-1.500			
0.3164	20251.07	3.7300	3.7300	-0.7463	26.00	0.14	-1.500			
0.3187	20396.43	3.7270	3.7270	-0.7473	26.01	0.15	-1.500			
0.3209	20538.94	3.7240	3.7240	-0.7533	26.01	0.15	-1.500			
0.3232	20683.49	3.7210	3.7210	-0.7575	26.02	0.16	-1.500			
0.3255	20828.95	3.7180	3.7180	-0.7617	26.02	0.16	-1.500			
0.3277	20975.70	3.7150	3.7150	-0.7688	26.03	0.17	-1.500			
0.3301	21123.34	3.7120	3.7121	-0.7731	26.03	0.17	-1.500			
0.3324	21273.36	3.7090	3.7089	-0.7787	26.04	0.18	-1.500			
0.3347	21423.40	3.7060	3.7060	-0.7881	26.04	0.18	-1.500			
0.3371	21573.82	3.7030	3.7028	-0.7923	26.04	0.18	-1.500			
0.3395	21726.89	3.7000	3.7000	-0.8019	26.05	0.19	-1.500			
0.3419	21881.59	3.6970	3.6970	-0.8095	26.05	0.19	-1.500			
0.3443	22037.38	3.6940	3.6940	-0.8187	26.06	0.20	-1.500			
0.3468	22195.69	3.6910	3.6911	-0.8296	26.06	0.20	-1.500			
0.3493	22355.10	3.6880	3.6879	-0.8397	26.07	0.21	-1.500			
0.3518	22516.45	3.6850	3.6851	-0.8510	26.07	0.21	-1.500			
0.3544	22680.29	3.6820	3.6820	-0.8659	26.08	0.22	-1.500			
0.3570	22848.46	3.6790	3.6790	-0.8768	26.08	0.22	-1.500			
0.3597	23018.33	3.6760	3.6760	-0.8959	26.09	0.23	-1.500			
0.3624	23190.97	3.6730	3.6730	-0.9092	26.10	0.24	-1.500			
0.3651	23367.67	3.6700	3.6700	-0.9235	26.10	0.24	-1.500			
0.3679	23546.37	3.6670	3.6669	-0.9355	26.11	0.25	-1.500			
0.3707	23726.42	3.6640	3.6641	-0.9516	26.11	0.25	-1.500			
0.3736	23910.42	3.6610	3.6610	-0.9666	26.12	0.26	-1.500			
0.3765	24097.94	3.6580	3.6579	-0.9855	26.12	0.26	-1.500			
0.3795	24286.38	3.6550	3.6550	-1.0023	26.12	0.26	-1.500			
0.3825	24482.23	3.6520	3.6520	-1.0281	26.13	0.27	-1.500			
0.3857	24682.58	3.6490	3.6490	-1.0527	26.13	0.27	-1.500			
0.3889	24887.93	3.6460	3.6461	-1.0714	26.13	0.27	-1.500			
0.3921	25095.40	3.6430	3.6429	-1.0876	26.13	0.27	-1.500			
0.3954	25305.76	3.6400	3.6400	-1.1098	26.14	0.28	-1.500			
0.3987	25519.82	3.6370	3.6371	-1.1265	26.14	0.28	-1.500			
0.4021	25736.87	3.6340	3.6339	-1.1461	26.14	0.28	-1.500			
0.4056	25959.19	3.6310	3.6310	-1.1682	26.14	0.28	-1.500			
0.4091	26185.46	3.6280	3.6281	-1.1914	26.14	0.28	-1.500			
0.4128	26416.47	3.6250	3.6250	-1.2187	26.15	0.29	-1.500			
0.4165	26654.72	3.6220	3.6220	-1.2407	26.15	0.29	-1.500			
0.4202	26895.41	3.6190	3.6190	-1.2576	26.15	0.29	-1.500			
0.4241	27139.74	3.6160	3.6160	-1.2789	26.15	0.29	-1.500			
0.4279	27385.29	3.6130	3.6131	-1.3035	26.15	0.29	-1.500			
0.4318	27635.47	3.6100	3.6100	-1.3267	26.15	0.29	-1.500			
0.4358	27892.21	3.6070	3.6069	-1.3556	26.15	0.29	-1.500			
0.4399	28155.94	3.6040	3.6040	-1.3818	26.16	0.30	-1.500			
0.4442	28427.57	3.6010	3.6010	-1.4104	26.16	0.30	-1.500			
0.4484	28700.56	3.5980	3.5978	-1.4322	26.16	0.30	-1.500			
0.4528	28977.18	3.5950	3.5950	-1.4572	26.16	0.30	-1.500			
0.4572	29258.71	3.5920	3.5920	-1.4732	26.16	0.30	-1.500			
0.4616	29541.93	3.5890	3.5890	-1.4993	26.16	0.30	-1.500			
0.4662	29835.73	3.5860	3.5860	-1.5286	26.15	0.29	-1.500			
0.4708	30129.97	3.5830	3.5830	-1.5426	26.15	0.29	-1.500			
0.4754	30426.77	3.5800	3.5801	-1.5617	26.15	0.29	-1.500			
0.4801	30726.99	3.5770	3.5770	-1.5837	26.15	0.29	-1.500			
0.4849	31033.45	3.5740	3.5740	-1.6078	26.15	0.29	-1.500			
0.4898	31344.59	3.5710	3.5709	-1.6338	26.16	0.30	-1.500			
0.4947	31659.82	3.5680	3.5680	-1.6594	26.16	0.30	-1.500			
0.4997	31982.57	3.5650	3.5651	-1.6877	26.16	0.30	-1.500			
0.5049	32311.90	3.5620	3.5619	-1.7049	26.16	0.30	-1.500			
0.5100	32640.94	3.5590	3.5590	-1.7241	26.17	0.31	-1.500			
0.5152	32973.38	3.5560	3.5560	-1.7382	26.17	0.31	-1.500			
0.5205	33310.58	3.5530	3.5530	-1.7618	26.18	0.32	-1.500			
0.5258	33649.03	3.5500	3.5501	-1.7699	26.18	0.32	-1.500			
0.5311	33988.13	3.5470	3.5470	-1.7784	26.19	0.33	-1.500			
0.5364	34331.63	3.5440	3.5440	-1.7947	26.19	0.33	-1.500			
0.5419	34680.13	3.5410	3.5410	-1.7935	26.19	0.33	-1.500			
0.5473	35027.29	3.5380	3.5379	-1.8040	26.20	0.34	-1.500			
0.5527	35373.24	3.5350	3.5351	-1.8137	26.20	0.34	-1.500	0.382	0.516	
0.5581	35720.92	3.5320	3.5319	-1.8135	26.21	0.35	-1.500			
0.5636	36071.45	3.5290	3.5290	-1.8055	26.21	0.35	-1.500			
0.5690	36415.30	3.5260	3.5261	-1.8046	26.22	0.36	-1.500			
0.5745	36765.49	3.5230	3.5230	-1.8099	26.22	0.36	-1.500			
0.5798	37108.65	3.5200	3.5199	-1.8137	26.23	0.37	-1.500			
0.5853	37457.68	3.5170	3.5170	-1.8071	26.24	0.38	-1.500			
0.5907	37805.83	3.5140	3.5140	-1.8078	26.25	0.39	-1.500			
0.5962	38155.68	3.5110	3.5110	-1.8090	26.25	0.39	-1.500			
0.6016	38501.08	3.5080	3.5080	-1.7990	26.26	0.40	-1.500			
0.6069	38843.03	3.5050	3.5050	-1.7956	26.27	0.41	-1.500			
0.6123	39186.60	3.5020	3.5019	-1.7974	26.28	0.42	-1.500			
0.6177	39530.37	3.4990	3.4990	-1.7866	26.28	0.42	-1.500			
0.6231	39879.20	3.4960	3.4960	-1.7862	26.29	0.43	-1.500			
0.6285	40222.00	3.4930	3.4930	-1.7804	26.30	0.44	-1.500			
0.6338	40560.44	3.4900	3.4900	-1.7689	26.31	0.45	-1.500			
0.6391	40900.06	3.4870	3.4870	-1.7613	26.32	0.46	-1.500			
0.6444	41238.48	3.4840	3.4840	-1.7476	26.33	0.47	-1.500			
0.6496	41572.11	3.4810	3.4811	-1.7407	26.34	0.48	-1.500			
0.6548	41907.70	3.4780	3.4780	-1.7387	26.35	0.49	-1.500			
0.6600	42242.47	3.4750	3.4749	-1.7213	26.36	0.50	-1.500			
0.6651	42569.48	3.4720	3.4720	-1.7012	26.38	0.52	-1.500			
0.6702	42895.95	3.4690	3.4691	-1.6794	26.39	0.53	-1.500			
0.6753	43216.91	3.4660	3.4660	-1.6576	26.40	0.54	-1.500			
0.6802	43532.04	3.4630	3.4630	-1.6332	26.41	0.55	-1.500			
0.6850	43840.86	3.4600	3.4599	-1.6065	26.42	0.56	-1.500			
0.6898	44147.79	3.4570	3.4570	-1.5835	26.44	0.58	-1.500			
0.6946	44453.16	3.4540	3.4540	-1.5651	26.45	0.59	-1.500			
0.6992	44749.12	3.4510	3.4511	-1.5375	26.46	0.60	-1.500			
0.7038	45040.86	3.4480	3.4480	-1.5152	26.48	0.62	-1.500			
0.7083	45329.72	3.4450	3.4449	-1.4968	26.49	0.63	-1.500			
0.7127	45613.67	3.4420	3.4420	-1.4728	26.51	0.65	-1.500			
0.7171	45895.19	3.4390	3.4390	-1.4588	26.53	0.67	-1.500			
0.7215	46176.18	3.4360	3.4360	-1.4469	26.55	0.69	-1.500			
0.7258	46451.08	3.4330	3.4330	-1.4317	26.56	0.70	-1.500			
0.7300	46722.41	3.4300	3.4301	-1.4163	26.58	0.72	-1.500			
0.7342	46991.53	3.4270	3.4270	-1.4123	26.60	0.74	-1.500			
0.7385	47263.58	3.4240	3.4239	-1.3991	26.62	0.76	-1.500			
0.7427	47533.51	3.4210	3.4210	-1.3889	26.63	0.77	-1.500			
0.7469	47798.72	3.4180	3.4179	-1.3716	26.65	0.79	-1.500			
0.7510	48062.05	3.4150	3.4151	-1.3604	26.67	0.81	-1.500			
0.7550	48322.75	3.4120	3.4119	-1.3380	26.68	0.82	-1.500			
0.7590	48576.29	3.4090	3.4090	-1.3172	26.70	0.84	-1.500			
0.7630	48828.89	3.4060	3.4059	-1.2798	26.72	0.86	-1.500			
0.7668	49076.46	3.4030	3.4030	-1.2497	26.74	0.88	-1.500			
0.7705	49314.40	3.4000	3.4000	-1.2088	26.75	0.89	-1.500			
0.7741	49541.21	3.3970	3.3969	-1.1602	26.76	0.90	-1.500			
0.7775	49758.29	3.3940	3.3939	-1.1125	26.77	0.91	-1.500			
0.7807	49967.80	3.3910	3.3910	-1.0708	26.79	0.93	-1.500			
0.7838	50166.30	3.3880	3.3880	-1.0264	26.81	0.95	-1.500			
0.7869	50362.04	3.3850	3.3850	-0.9902	26.82	0.96	-1.500			
0.7898	50549.78	3.3820	3.3820	-0.9483	26.84	0.98	-1.500			
0.7926	50727.14	3.3790	3.3790	-0.9090	26.85	0.99	-1.500			
0.7953	50897.51	3.3760	3.3761	-0.8734	26.86	1.00	-1.500			
0.7978	51061.32	3.3730	3.3729	-0.8375	26.87	1.01	-1.500			
0.8003	51216.37	3.3700	3.3700	-0.8109	26.88	1.02	-1.500			
0.8026	51368.49	3.3670	3.3671	-0.7848	26.89	1.03	-1.500			
0.8050	51517.70	3.3640	3.3639	-0.7574	26.90	1.04	-1.500			
0.8072	51662.44	3.3610	3.3611	-0.7327	26.91	1.05	-1.500			
0.8094	51799.87	3.3580	3.3580	-0.7076	26.92	1.06	-1.500			
0.8115	51932.83	3.3550	3.3550	-0.6829	26.93	1.07	-1.500			
0.8134	52060.65	3.3520	3.3519	-0.6588	26.94	1.08	-1.500			
0.8154	52183.65	3.3490	3.3490	-0.6356	26.95	1.09	-1.500			
0.8173	52305.07	3.3460	3.3460	-0.6168	26.96	1.10	-1.500			
0.8191	52421.39	3.3430	3.3429	-0.6007	26.97	1.11	-1.500			
0.8209	52534.53	3.3400	3.3401	-0.5819	26.98	1.12	-1.500			
0.8226	52644.26	3.3370	3.3369	-0.5637	26.98	1.12	-1.500			
0.8242	52750.81	3.3340	3.3339	-0.5467	26.99	1.13	-1.500			
0.8259	52854.55	3.3310	3.3310	-0.5299	27.00	1.14	-1.500			
0.8274	52954.14	3.3280	3.3280	-0.5117	27.00	1.14	-1.500			
0.8289	53051.20	3.3250	3.3250	-0.4977	27.01	1.15	-1.500			
0.8304	53144.07	3.3220	3.3220	-0.4803	27.02	1.16	-1.500			
0.8318	53234.69	3.3190	3.3190	-0.4659	27.03	1.17	-1.500			
0.8332	53322.59	3.3160	3.3160	-0.4536	27.04	1.18	-1.500			
0.8345	53408.43	3.3130	3.3130	-0.4391	27.04	1.18	-1.500			
0.8358	53491.22	3.3100	3.3099	-0.4278	27.05	1.19	-1.500			
0.8371	53572.62	3.3070	3.3070	-0.4144	27.06	1.20	-1.500			
0.8383	53650.32	3.3040	3.3040	-0.4016	27.07	1.21	-1.500			
0.8395	53726.34	3.3010	3.3010	-0.3907	27.07	1.21	-1.500			
0.8406	53800.07	3.2980	3.2980	-0.3815	27.08	1.22	-1.500			
0.8417	53871.69	3.2950	3.2949	-0.3704	27.08	1.22	-1.500			
0.8429	53942.46	3.2920	3.2921	-0.3618	27.09	1.23	-1.500			
0.8439	54010.05	3.2890	3.2891	-0.3526	27.10	1.24	-1.500			
0.8450	54077.70	3.2860	3.2860	-0.3451	27.10	1.24	-1.500			
0.8460	54142.81	3.2830	3.2829	-0.3362	27.10	1.24	-1.500			
0.8470	54206.43	3.2800	3.2800	-0.3264	27.11	1.25	-1.500			
0.8479	54268.34	3.2770	3.2769	-0.3161	27.11	1.25	-1.500			
0.8489	54328.49	3.2740	3.2740	-0.3084	27.12	1.26	-1.500			
0.8498	54386.22	3.2710	3.2712	-0.2999	27.12	1.26	-1.500			
0.8507	54442.09	3.2680	3.2680	-0.2911	27.13	1.27	-1.500			
0.8515	54497.38	3.2650	3.2649	-0.2869	27.13	1.27	-1.500			
0.8524	54551.60	3.2620	3.2620	-0.2806	27.14	1.28	-1.500			
0.8532	54605.93	3.2590	3.2590	-0.2746	27.14	1.28	-1.500			
0.8540	54658.12	3.2560	3.2560	-0.2680	27.15	1.29	-1.500			
0.8548	54708.37	3.2530	3.2531	-0.2617	27.15	1.29	-1.500			
0.8556	54757.85	3.2500	3.2501	-0.2564	27.16	1.30	-1.500			
0.8563	54805.68	3.2470	3.2469	-0.2498	27.16	1.30	-1.500			
0.8571	54852.75	3.2440	3.2439	-0.2447	27.17	1.31	-1.500			
0.8578	54899.78	3.2410	3.2412	-0.2413	27.17	1.31	-1.500			
0.8585	54946.21	3.2380	3.2380	-0.2372	27.18	1.32	-1.500			
0.8593	54992.16	3.2350	3.2350	-0.2333	27.18	1.32	-1.500			
0.8599	55035.74	3.2320	3.2320	-0.2287	27.18	1.32	-1.500			
0.8606	55078.66	3.2290	3.2290	-0.2244	27.19	1.33	-1.500			
0.8613	55121.74	3.2260	3.2260	-0.2206	27.19	1.33	-1.500			
0.8619	55163.75	3.2230	3.2228	-0.2170	27.20	1.34	-1.500			
0.8626	55204.99	3.2200	3.2200	-0.2140	27.20	1.34	-1.500			
0.8632	55245.87	3.2170	3.2170	-0.2106	27.20	1.34	-1.500			
0.8638	55285.95	3.2140	3.2140	-0.2077	27.21	1.35	-1.500			
0.8645	55325.49	3.2110	3.2109	-0.2041	27.21	1.35	-1.500			
0.8651	55363.93	3.2080	3.2081	-0.2008	27.22	1.36	-1.500			
0.8657	55402.02	3.2050	3.2050	-0.1984	27.22	1.36	-1.500			
0.8663	55440.27	3.2020	3.2019	-0.1965	27.23	1.37	-1.500			
0.8668	55477.72	3.1990	3.1991	-0.1937	27.23	1.37	-1.500			
0.8674	55514.34	3.1960	3.1960	-0.1912	27.24	1.38	-1.500			
0.8680	55551.34	3.1930	3.1931	-0.1882	27.24	1.38	-1.500			
0.8685	55586.89	3.1900	3.1900	-0.1856	27.25	1.39	-1.500			
0.8691	55622.25	3.1870	3.1870	-0.1828	27.25	1.39	-1.500			
0.8696	55656.98	3.1840	3.1841	-0.1805	27.26	1.40	-1.500			
0.8702	55690.92	3.1810	3.1809	-0.1784	27.26	1.40	-1.500			
0.8707	55725.42	3.1780	3.1780	-0.1764	27.26	1.40	-1.500			
0.8712	55759.09	3.1750	3.1750	-0.1743	27.27	1.41	-1.500			
0.8718	55792.12	3.1720	3.1720	-0.1730	27.27	1.41	-1.500			
0.8723	55825.57	3.1690	3.1691	-0.1721	27.28	1.42	-1.500			
0.8728	55858.13	3.1660	3.1660	-0.1695	27.28	1.42	-1.500			
0.8733	55890.64	3.1630	3.1629	-0.1675	27.29	1.43	-1.500			
0.8738	55922.69	3.1600	3.1601	-0.1658	27.29	1.43	-1.500			
0.8743	55953.97	3.1570	3.1571	-0.1642	27.30	1.44	-1.500			
0.8748	55985.68	3.1540	3.1540	-0.1637	27.30	1.44	-1.500			
0.8753	56016.79	3.1510	3.1510	-0.1626	27.30	1.44	-1.500			
0.8757	56047.61	3.1480	3.1480	-0.1605	27.31	1.45	-1.500			
0.8762	56078.44	3.1450	3.1450	-0.1599	27.31	1.45	-1.500			
0.8767	56109.12	3.1420	3.1420	-0.1585	27.32	1.46	-1.500			
0.8772	56139.72	3.1390	3.1390	-0.1572	27.32	1.46	-1.500			
0.8777	56169.68	3.1360	3.1361	-0.1559	27.33	1.47	-1.500			
0.8781	56199.45	3.1330	3.1329	-0.1542	27.33	1.47	-1.500			
0.8786	56228.60	3.1300	3.1300	-0.1530	27.34	1.48	-1.500			
0.8790	56257.86	3.1270	3.1270	-0.1514	27.34	1.48	-1.500			
0.8795	56286.94	3.1240	3.1240	-0.1506	27.35	1.49	-1.500			
0.8799	56315.73	3.1210	3.1210	-0.1493	27.35	1.49	-1.500			
0.8804	56344.20	3.1180	3.1181	-0.1487	27.36	1.50	-1.500			
0.8808	56372.57	3.1150	3.1149	-0.1480	27.36	1.50	-1.500			
0.8813	56400.98	3.1120	3.1120	-0.1467	27.36	1.50	-1.500			
0.8817	56429.06	3.1090	3.1089	-0.1458	27.37	1.51	-1.500			
0.8821	56456.98	3.1060	3.1061	-0.1451	27.37	1.51	-1.500			
0.8826	56485.02	3.1030	3.1031	-0.1442	27.38	1.52	-1.500			
0.8830	56512.54	3.1000	3.1000	-0.1429	27.38	1.52	-1.500			
0.8834	56539.85	3.0970	3.0969	-0.1416	27.39	1.53	-1.500			
0.8839	56566.74	3.0940	3.0941	-0.1405	27.39	1.53	-1.500			
0.8843	56593.58	3.0910	3.0910	-0.1395	27.40	1.54	-1.500			
0.8847	56620.44	3.0880	3.0881	-0.1388	27.40	1.54	-1.500			
0.8851	56646.97	3.0850	3.0849	-0.1376	27.40	1.54	-1.500			
0.8855	56673.07	3.0820	3.0820	-0.1369	27.41	1.55	-1.500			
0.8859	56699.31	3.0790	3.0790	-0.1365	27.41	1.55	-1.500			
0.8863	56725.37	3.0760	3.0760	-0.1358	27.42	1.56	-1.500			
0.8867	56751.42	3.0730	3.0729	-0.1354	27.42	1.56	-1.500			
0.8871	56777.47	3.0700	3.0700	-0.1345	27.43	1.57	-1.500			
0.8876	56803.35	3.0670	3.0670	-0.1340	27.44	1.58	-1.500			
0.8880	56829.14	3.0640	3.0641	-0.1334	27.44	1.58	-1.500			
0.8884	56854.63	3.0610	3.0610	-0.1321	27.45	1.59	-1.500			
0.8887	56879.70	3.0580	3.0580	-0.1314	27.45	1.59	-1.500			
0.8891	56904.91	3.0550	3.0550	-0.1304	27.46	1.60	-1.500			
0.8895	56929.84	3.0520	3.0518	-0.1296	27.46	1.60	-1.500			
0.8899	56954.57	3.0490	3.0491	-0.1287	27.47	1.61	-1.500			
0.8903	56979.19	3.0460	3.0461	-0.1280	27.47	1.61	-1.500			
0.8907	57003.80	3.0430	3.0430	-0.1274	27.47	1.61	-1.500			
0.8911	57028.23	3.0400	3.0400	-0.1263	27.48	1.62	-1.500			
0.8914	57052.32	3.0370	3.0369	-0.1255	27.48	1.62	-1.500			
0.8918	57076.25	3.0340	3.0340	-0.1246	27.49	1.63	-1.500			
0.8922	57100.08	3.0310	3.0310	-0.1244	27.49	1.63	-1.500			
0.8926	57123.91	3.0280	3.0280	-0.1239	27.50	1.64	-1.500			
0.8929	57147.60	3.0250	3.0249	-0.1230	27.50	1.64	-1.500			
0.8933	57171.13	3.0220	3.0220	-0.1224	27.51	1.65	-1.500			
0.8937	57194.73	3.0190	3.0190	-0.1215	27.51	1.65	-1.500			
0.8940	57218.27	3.0160	3.0161	-0.1210	27.52	1.66	-1.500			
0.8944	57241.28	3.0130	3.0130	-0.1202	27.52	1.66	-1.500			
0.8948	57264.25	3.0100	3.0100	-0.1192	27.53	1.67	-1.500			
0.8951	57287.05	3.0070	3.0069	-0.1183	27.53	1.67	-1.500			
0.8955	57309.53	3.0040	3.0040	-0.1184	27.54	1.68	-1.500			
0.8958	57332.25	3.0010	3.0010	-0.1183	27.54	1.68	-1.500			
