Ah_balance (normalized)	Ah_balance (mAh)	Voltage - fit (V)	Voltage -  interpolate (V)	dQ/dV (1/V)	Temperature (°C)	Temperature - diff (°C)	Current (C)	R_DC 0ms (mOhm)	R_DC 50ms (mOhm)	R_DC 50 ms PEC (mOhm)
0.1986	12710.26	3.9120	3.9118	-0.1300	25.74	0.00	-1.500			
0.1990	12738.00	3.9090	3.9090	-0.1605	25.74	0.00	-1.500			
0.1996	12772.36	3.9060	3.9060	-0.1906	25.74	0.00	-1.500			
0.2002	12811.44	3.9030	3.9030	-0.2208	25.74	0.00	-1.500			
0.2009	12856.94	3.9000	3.9000	-0.2498	25.74	0.00	-1.500			
0.2017	12908.19	3.8970	3.8970	-0.2788	25.74	0.00	-1.500			
0.2026	12964.66	3.8940	3.8940	-0.3064	25.74	0.00	-1.500			
0.2035	13026.06	3.8910	3.8911	-0.3337	25.74	0.00	-1.500			
0.2046	13093.16	3.8880	3.8881	-0.3598	25.74	0.00	-1.500			
0.2057	13164.39	3.8850	3.8850	-0.3889	25.74	0.00	-1.500			
0.2069	13241.27	3.8820	3.8820	-0.4161	25.74	0.00	-1.500			
0.2082	13323.93	3.8790	3.8790	-0.4424	25.74	0.00	-1.500			
0.2096	13411.52	3.8760	3.8760	-0.4688	25.74	0.00	-1.500			
0.2110	13504.92	3.8730	3.8731	-0.4961	25.74	0.00	-1.500			
0.2125	13603.01	3.8700	3.8699	-0.5196	25.74	0.00	-1.500			
0.2141	13705.48	3.8670	3.8670	-0.5457	25.74	0.00	-1.500			
0.2158	13812.18	3.8640	3.8641	-0.5677	25.74	0.00	-1.500			
0.2176	13924.19	3.8610	3.8609	-0.5888	25.74	0.00	-1.500			
0.2194	14039.85	3.8580	3.8581	-0.6080	25.74	0.00	-1.500			
0.2212	14159.12	3.8550	3.8550	-0.6223	25.74	0.00	-1.500			
0.2231	14279.74	3.8520	3.8520	-0.6375	25.74	0.00	-1.500			
0.2251	14404.22	3.8490	3.8490	-0.6497	25.74	0.00	-1.500			
0.2270	14529.60	3.8460	3.8460	-0.6589	25.74	0.00	-1.500			
0.2290	14657.72	3.8430	3.8430	-0.6715	25.74	0.00	-1.500			
0.2311	14788.01	3.8400	3.8399	-0.6817	25.74	0.00	-1.500			
0.2331	14920.49	3.8370	3.8370	-0.6882	25.74	0.00	-1.500			
0.2352	15053.51	3.8340	3.8340	-0.6969	25.74	0.00	-1.500			
0.2373	15187.99	3.8310	3.8310	-0.7017	25.74	0.00	-1.500			
0.2394	15323.78	3.8280	3.8279	-0.7099	25.74	0.00	-1.500			
0.2416	15460.29	3.8250	3.8250	-0.7154	25.75	0.01	-1.500			
0.2437	15598.04	3.8220	3.8220	-0.7188	25.75	0.01	-1.500			
0.2459	15737.73	3.8190	3.8190	-0.7252	25.75	0.01	-1.500			
0.2481	15877.42	3.8160	3.8161	-0.7306	25.75	0.01	-1.500			
0.2503	16018.07	3.8130	3.8129	-0.7316	25.76	0.02	-1.500			
0.2525	16159.72	3.8100	3.8100	-0.7328	25.76	0.02	-1.500			
0.2547	16300.72	3.8070	3.8069	-0.7292	25.76	0.02	-1.500			
0.2569	16439.99	3.8040	3.8041	-0.7321	25.77	0.03	-1.500			
0.2591	16580.96	3.8010	3.8010	-0.7329	25.77	0.03	-1.500			
0.2613	16720.89	3.7980	3.7979	-0.7324	25.77	0.03	-1.500			
0.2635	16861.10	3.7950	3.7950	-0.7315	25.77	0.03	-1.500			
0.2657	17002.20	3.7920	3.7921	-0.7364	25.78	0.04	-1.500			
0.2679	17144.46	3.7890	3.7890	-0.7417	25.78	0.04	-1.500			
0.2701	17287.84	3.7860	3.7859	-0.7426	25.79	0.05	-1.500			
0.2723	17429.93	3.7830	3.7830	-0.7401	25.79	0.05	-1.500			
0.2746	17572.54	3.7800	3.7800	-0.7412	25.79	0.05	-1.500			
0.2768	17714.91	3.7770	3.7770	-0.7408	25.80	0.06	-1.500			
0.2790	17857.35	3.7740	3.7740	-0.7429	25.80	0.06	-1.500			
0.2812	17999.49	3.7710	3.7709	-0.7405	25.80	0.06	-1.500			
0.2835	18141.22	3.7680	3.7680	-0.7423	25.81	0.07	-1.500			
0.2857	18284.80	3.7650	3.7652	-0.7414	25.81	0.07	-1.500			
0.2879	18428.21	3.7620	3.7619	-0.7390	25.82	0.08	-1.500			
0.2901	18568.79	3.7590	3.7590	-0.7365	25.82	0.08	-1.500			
0.2923	18708.61	3.7560	3.7560	-0.7347	25.83	0.09	-1.500			
0.2945	18850.00	3.7530	3.7531	-0.7378	25.83	0.09	-1.500			
0.2967	18990.72	3.7500	3.7499	-0.7395	25.84	0.10	-1.500			
0.2989	19132.46	3.7470	3.7471	-0.7395	25.84	0.10	-1.500			
0.3012	19276.17	3.7440	3.7440	-0.7441	25.85	0.11	-1.500			
0.3034	19419.35	3.7410	3.7410	-0.7477	25.85	0.11	-1.500			
0.3057	19562.92	3.7380	3.7380	-0.7461	25.86	0.12	-1.500			
0.3079	19705.05	3.7350	3.7350	-0.7486	25.86	0.12	-1.500			
0.3101	19849.30	3.7320	3.7320	-0.7510	25.87	0.13	-1.500			
0.3124	19993.36	3.7290	3.7290	-0.7524	25.87	0.13	-1.500			
0.3147	20139.15	3.7260	3.7259	-0.7550	25.88	0.14	-1.500			
0.3169	20283.50	3.7230	3.7231	-0.7597	25.89	0.15	-1.500			
0.3192	20429.17	3.7200	3.7201	-0.7642	25.89	0.15	-1.500			
0.3215	20576.15	3.7170	3.7169	-0.7708	25.90	0.16	-1.500			
0.3238	20724.22	3.7140	3.7140	-0.7750	25.90	0.16	-1.500			
0.3261	20873.56	3.7110	3.7110	-0.7820	25.91	0.17	-1.500			
0.3285	21024.91	3.7080	3.7080	-0.7859	25.91	0.17	-1.500			
0.3309	21177.04	3.7050	3.7051	-0.7945	25.92	0.18	-1.500			
0.3333	21329.64	3.7020	3.7019	-0.7961	25.92	0.18	-1.500			
0.3357	21482.01	3.6990	3.6992	-0.8055	25.93	0.19	-1.500			
0.3381	21636.60	3.6960	3.6960	-0.8178	25.93	0.19	-1.500			
0.3405	21793.91	3.6930	3.6930	-0.8300	25.94	0.20	-1.500			
0.3430	21954.82	3.6900	3.6900	-0.8425	25.94	0.20	-1.500			
0.3456	22118.51	3.6870	3.6870	-0.8565	25.95	0.21	-1.500			
0.3482	22283.35	3.6840	3.6840	-0.8678	25.95	0.21	-1.500			
0.3508	22451.86	3.6810	3.6811	-0.8863	25.95	0.21	-1.500			
0.3535	22622.35	3.6780	3.6780	-0.8959	25.96	0.22	-1.500			
0.3562	22795.60	3.6750	3.6749	-0.9083	25.96	0.22	-1.500			
0.3589	22972.18	3.6720	3.6720	-0.9233	25.97	0.23	-1.500			
0.3617	23151.89	3.6690	3.6690	-0.9345	25.97	0.23	-1.500			
0.3646	23331.36	3.6660	3.6661	-0.9479	25.97	0.23	-1.500			
0.3674	23513.30	3.6630	3.6630	-0.9612	25.98	0.24	-1.500			
0.3703	23697.23	3.6600	3.6600	-0.9785	25.98	0.24	-1.500			
0.3733	23888.38	3.6570	3.6570	-1.0032	25.99	0.25	-1.500			
0.3763	24082.35	3.6540	3.6540	-1.0253	25.99	0.25	-1.500			
0.3794	24283.04	3.6510	3.6510	-1.0423	25.99	0.25	-1.500			
0.3826	24487.71	3.6480	3.6480	-1.0605	26.00	0.26	-1.500			
0.3858	24690.27	3.6450	3.6451	-1.0787	26.00	0.26	-1.500			
0.3891	24899.98	3.6420	3.6419	-1.0914	26.00	0.26	-1.500			
0.3923	25109.73	3.6390	3.6390	-1.1080	26.01	0.27	-1.500			
0.3957	25322.71	3.6360	3.6360	-1.1259	26.01	0.27	-1.500			
0.3991	25540.64	3.6330	3.6331	-1.1558	26.01	0.27	-1.500			
0.4026	25766.15	3.6300	3.6299	-1.1779	26.01	0.27	-1.500			
0.4062	25994.10	3.6270	3.6270	-1.1999	26.02	0.28	-1.500			
0.4098	26225.20	3.6240	3.6241	-1.2207	26.02	0.28	-1.500			
0.4135	26463.02	3.6210	3.6210	-1.2573	26.02	0.28	-1.500			
0.4173	26706.53	3.6180	3.6179	-1.2772	26.02	0.28	-1.500			
0.4211	26950.50	3.6150	3.6150	-1.3096	26.02	0.28	-1.500			
0.4251	27206.93	3.6120	3.6120	-1.3311	26.02	0.28	-1.500			
0.4292	27470.35	3.6090	3.6090	-1.3602	26.02	0.28	-1.500			
0.4333	27733.40	3.6060	3.6059	-1.3787	26.02	0.28	-1.500			
0.4375	27999.57	3.6030	3.6030	-1.3985	26.02	0.28	-1.500			
0.4417	28267.95	3.6000	3.6000	-1.4204	26.02	0.28	-1.500			
0.4460	28541.98	3.5970	3.5970	-1.4470	26.02	0.28	-1.500			
0.4503	28819.25	3.5940	3.5940	-1.4668	26.03	0.29	-1.500			
0.4548	29106.96	3.5910	3.5910	-1.5047	26.03	0.29	-1.500			
0.4594	29398.91	3.5880	3.5880	-1.5293	26.03	0.29	-1.500			
0.4640	29695.50	3.5850	3.5850	-1.5491	26.03	0.29	-1.500			
0.4687	29994.68	3.5820	3.5820	-1.5752	26.03	0.29	-1.500			
0.4735	30300.95	3.5790	3.5791	-1.5916	26.04	0.30	-1.500			
0.4782	30607.65	3.5760	3.5760	-1.6135	26.04	0.30	-1.500			
0.4831	30920.15	3.5730	3.5730	-1.6343	26.04	0.30	-1.500			
0.4880	31234.70	3.5700	3.5700	-1.6547	26.04	0.30	-1.500			
0.4930	31552.60	3.5670	3.5670	-1.6856	26.04	0.30	-1.500			
0.4981	31880.51	3.5640	3.5640	-1.7054	26.04	0.30	-1.500			
0.5033	32209.38	3.5610	3.5610	-1.7258	26.04	0.30	-1.500			
0.5085	32545.92	3.5580	3.5580	-1.7526	26.04	0.30	-1.500			
0.5138	32883.22	3.5550	3.5550	-1.7663	26.04	0.30	-1.500			
0.5191	33224.17	3.5520	3.5520	-1.7982	26.05	0.31	-1.500			
0.5246	33571.73	3.5490	3.5490	-1.8037	26.05	0.31	-1.500			
0.5300	33918.38	3.5460	3.5460	-1.8198	26.06	0.32	-1.500			
0.5356	34275.31	3.5430	3.5432	-1.8362	26.06	0.32	-1.500			
0.5411	34628.80	3.5400	3.5399	-1.8423	26.06	0.32	-1.500			
0.5466	34982.82	3.5370	3.5372	-1.8405	26.07	0.33	-1.500	0.386	0.515	
0.5521	35334.63	3.5340	3.5340	-1.8424	26.07	0.33	-1.500			
0.5577	35689.93	3.5310	3.5310	-1.8428	26.08	0.34	-1.500			
0.5632	36043.28	3.5280	3.5280	-1.8322	26.08	0.34	-1.500			
0.5687	36393.63	3.5250	3.5250	-1.8327	26.09	0.35	-1.500			
0.5742	36746.84	3.5220	3.5220	-1.8357	26.10	0.36	-1.500			
0.5797	37098.01	3.5190	3.5190	-1.8372	26.11	0.37	-1.500			
0.5852	37451.43	3.5160	3.5160	-1.8328	26.12	0.38	-1.500			
0.5907	37803.65	3.5130	3.5130	-1.8234	26.13	0.39	-1.500			
0.5962	38157.33	3.5100	3.5100	-1.8249	26.14	0.40	-1.500			
0.6017	38506.23	3.5070	3.5070	-1.8178	26.15	0.41	-1.500			
0.6071	38852.67	3.5040	3.5039	-1.8097	26.16	0.42	-1.500			
0.6125	39199.51	3.5010	3.5010	-1.7968	26.17	0.43	-1.500			
0.6179	39542.51	3.4980	3.4979	-1.7977	26.18	0.44	-1.500			
0.6232	39887.65	3.4950	3.4951	-1.7884	26.20	0.46	-1.500			
0.6286	40228.36	3.4920	3.4919	-1.7830	26.21	0.47	-1.500			
0.6340	40573.32	3.4890	3.4890	-1.7863	26.22	0.48	-1.500			
0.6393	40917.30	3.4860	3.4859	-1.7699	26.23	0.49	-1.500			
0.6447	41258.52	3.4830	3.4830	-1.7677	26.24	0.50	-1.500			
0.6500	41599.80	3.4800	3.4800	-1.7501	26.25	0.51	-1.500			
0.6552	41933.12	3.4770	3.4769	-1.7288	26.27	0.53	-1.500			
0.6604	42264.39	3.4740	3.4743	-1.7089	26.28	0.54	-1.500			
0.6655	42590.46	3.4710	3.4709	-1.6796	26.29	0.55	-1.500			
0.6705	42910.17	3.4680	3.4680	-1.6638	26.30	0.56	-1.500			
0.6754	43227.93	3.4650	3.4650	-1.6427	26.32	0.58	-1.500			
0.6803	43541.80	3.4620	3.4620	-1.6318	26.33	0.59	-1.500			
0.6852	43852.87	3.4590	3.4591	-1.6047	26.34	0.60	-1.500			
0.6900	44158.28	3.4560	3.4560	-1.5764	26.35	0.61	-1.500			
0.6947	44458.84	3.4530	3.4530	-1.5542	26.37	0.63	-1.500			
0.6993	44755.91	3.4500	3.4500	-1.5344	26.38	0.64	-1.500			
0.7038	45045.22	3.4470	3.4470	-1.5097	26.40	0.66	-1.500			
0.7083	45334.32	3.4440	3.4440	-1.4930	26.41	0.67	-1.500			
0.7128	45618.64	3.4410	3.4410	-1.4725	26.43	0.69	-1.500			
0.7172	45900.90	3.4380	3.4380	-1.4550	26.45	0.71	-1.500			
0.7215	46177.10	3.4350	3.4350	-1.4412	26.47	0.73	-1.500			
0.7258	46450.78	3.4320	3.4321	-1.4227	26.48	0.74	-1.500			
0.7301	46723.33	3.4290	3.4290	-1.4158	26.50	0.76	-1.500			
0.7343	46992.73	3.4260	3.4260	-1.4024	26.52	0.78	-1.500			
0.7385	47262.29	3.4230	3.4230	-1.3914	26.53	0.79	-1.500			
0.7427	47529.82	3.4200	3.4200	-1.3794	26.55	0.81	-1.500			
0.7468	47793.65	3.4170	3.4170	-1.3641	26.57	0.83	-1.500			
0.7508	48054.26	3.4140	3.4140	-1.3444	26.58	0.84	-1.500			
0.7549	48311.78	3.4110	3.4109	-1.3263	26.60	0.86	-1.500			
0.7588	48564.97	3.4080	3.4080	-1.2957	26.62	0.88	-1.500			
0.7627	48812.42	3.4050	3.4050	-1.2666	26.63	0.89	-1.500			
0.7665	49054.01	3.4020	3.4020	-1.2282	26.65	0.91	-1.500			
0.7701	49287.09	3.3990	3.3990	-1.1907	26.67	0.93	-1.500			
0.7736	49511.56	3.3960	3.3960	-1.1497	26.69	0.95	-1.500			
0.7770	49728.24	3.3930	3.3930	-1.1030	26.70	0.96	-1.500			
0.7802	49935.81	3.3900	3.3900	-1.0583	26.72	0.98	-1.500			
0.7834	50135.58	3.3870	3.3870	-1.0136	26.73	0.99	-1.500			
0.7863	50325.23	3.3840	3.3840	-0.9713	26.74	1.00	-1.500			
0.7892	50507.30	3.3810	3.3810	-0.9295	26.76	1.02	-1.500			
0.7919	50679.47	3.3780	3.3780	-0.8927	26.77	1.03	-1.500			
0.7945	50846.84	3.3750	3.3750	-0.8582	26.78	1.04	-1.500			
0.7970	51008.67	3.3720	3.3720	-0.8276	26.79	1.05	-1.500			
0.7994	51164.00	3.3690	3.3691	-0.7956	26.80	1.06	-1.500			
0.8018	51314.39	3.3660	3.3660	-0.7700	26.81	1.07	-1.500			
0.8040	51458.16	3.3630	3.3629	-0.7464	26.82	1.08	-1.500			
0.8062	51598.68	3.3600	3.3600	-0.7205	26.83	1.09	-1.500			
0.8083	51734.35	3.3570	3.3571	-0.6956	26.84	1.10	-1.500			
0.8104	51866.94	3.3540	3.3541	-0.6743	26.85	1.11	-1.500			
0.8124	51993.77	3.3510	3.3510	-0.6521	26.86	1.12	-1.500			
0.8143	52116.06	3.3480	3.3479	-0.6298	26.87	1.13	-1.500			
0.8162	52234.62	3.3450	3.3450	-0.6077	26.87	1.13	-1.500			
0.8179	52348.53	3.3420	3.3420	-0.5859	26.88	1.14	-1.500			
0.8197	52459.97	3.3390	3.3390	-0.5708	26.89	1.15	-1.500			
0.8214	52567.48	3.3360	3.3360	-0.5513	26.89	1.15	-1.500			
0.8230	52670.97	3.3330	3.3329	-0.5331	26.90	1.16	-1.500			
0.8246	52771.42	3.3300	3.3300	-0.5156	26.91	1.17	-1.500			
0.8261	52868.21	3.3270	3.3270	-0.5015	26.91	1.17	-1.500			
0.8276	52963.31	3.3240	3.3239	-0.4873	26.92	1.18	-1.500			
0.8290	53054.92	3.3210	3.3210	-0.4753	26.93	1.19	-1.500			
0.8304	53145.24	3.3180	3.3181	-0.4612	26.93	1.19	-1.500			
0.8318	53233.63	3.3150	3.3149	-0.4483	26.94	1.20	-1.500			
0.8331	53318.31	3.3120	3.3120	-0.4350	26.94	1.20	-1.500			
0.8344	53400.40	3.3090	3.3091	-0.4215	26.95	1.21	-1.500			
0.8356	53479.45	3.3060	3.3058	-0.4073	26.95	1.21	-1.500			
0.8368	53556.22	3.3030	3.3029	-0.3953	26.96	1.22	-1.500			
0.8380	53630.33	3.3000	3.3000	-0.3826	26.96	1.22	-1.500			
0.8391	53702.68	3.2970	3.2970	-0.3734	26.97	1.23	-1.500			
0.8402	53774.03	3.2940	3.2939	-0.3645	26.98	1.24	-1.500			
0.8413	53842.03	3.2910	3.2910	-0.3541	26.98	1.24	-1.500			
0.8423	53909.60	3.2880	3.2881	-0.3451	26.99	1.25	-1.500			
0.8434	53975.17	3.2850	3.2849	-0.3354	26.99	1.25	-1.500			
0.8444	54038.49	3.2820	3.2820	-0.3268	27.00	1.26	-1.500			
0.8453	54100.21	3.2790	3.2790	-0.3177	27.01	1.27	-1.500			
0.8462	54159.95	3.2760	3.2759	-0.3088	27.01	1.27	-1.500			
0.8472	54218.34	3.2730	3.2730	-0.3013	27.02	1.28	-1.500			
0.8481	54275.43	3.2700	3.2700	-0.2937	27.02	1.28	-1.500			
0.8489	54331.55	3.2670	3.2670	-0.2868	27.03	1.29	-1.500			
0.8498	54385.71	3.2640	3.2640	-0.2795	27.03	1.29	-1.500			
0.8506	54438.11	3.2610	3.2610	-0.2722	27.04	1.30	-1.500			
0.8514	54489.92	3.2580	3.2580	-0.2668	27.04	1.30	-1.500			
0.8522	54540.12	3.2550	3.2550	-0.2612	27.04	1.30	-1.500			
0.8530	54589.74	3.2520	3.2520	-0.2559	27.05	1.31	-1.500			
0.8537	54638.66	3.2490	3.2490	-0.2515	27.05	1.31	-1.500			
0.8545	54686.49	3.2460	3.2461	-0.2465	27.06	1.32	-1.500			
0.8552	54733.25	3.2430	3.2430	-0.2411	27.06	1.32	-1.500			
0.8559	54779.09	3.2400	3.2400	-0.2368	27.07	1.33	-1.500			
0.8566	54823.82	3.2370	3.2370	-0.2318	27.07	1.33	-1.500			
0.8573	54867.76	3.2340	3.2340	-0.2273	27.08	1.34	-1.500			
0.8580	54911.02	3.2310	3.2310	-0.2234	27.08	1.34	-1.500			
0.8586	54953.55	3.2280	3.2280	-0.2199	27.09	1.35	-1.500			
0.8593	54995.34	3.2250	3.2250	-0.2161	27.09	1.35	-1.500			
0.8599	55036.46	3.2220	3.2220	-0.2125	27.10	1.36	-1.500			
0.8606	55077.00	3.2190	3.2190	-0.2083	27.10	1.36	-1.500			
0.8612	55116.31	3.2160	3.2160	-0.2055	27.11	1.37	-1.500			
0.8618	55155.44	3.2130	3.2131	-0.2026	27.11	1.37	-1.500			
0.8624	55194.06	3.2100	3.2099	-0.1997	27.12	1.38	-1.500			
0.8630	55231.92	3.2070	3.2070	-0.1975	27.12	1.38	-1.500			
0.8636	55269.77	3.2040	3.2040	-0.1940	27.13	1.39	-1.500			
0.8642	55306.72	3.2010	3.2009	-0.1918	27.13	1.39	-1.500			
0.8647	55343.29	3.1980	3.1981	-0.1891	27.14	1.40	-1.500			
0.8653	55379.51	3.1950	3.1951	-0.1869	27.14	1.40	-1.500			
0.8659	55414.81	3.1920	3.1919	-0.1837	27.15	1.41	-1.500			
0.8664	55449.84	3.1890	3.1892	-0.1816	27.15	1.41	-1.500			
0.8669	55484.50	3.1860	3.1859	-0.1794	27.15	1.41	-1.500			
0.8675	55518.63	3.1830	3.1831	-0.1769	27.16	1.42	-1.500			
0.8680	55552.73	3.1800	3.1799	-0.1753	27.16	1.42	-1.500			
0.8685	55585.70	3.1770	3.1769	-0.1726	27.17	1.43	-1.500			
0.8690	55618.67	3.1740	3.1742	-0.1709	27.17	1.43	-1.500			
0.8695	55651.20	3.1710	3.1710	-0.1697	27.18	1.44	-1.500			
0.8701	55683.67	3.1680	3.1680	-0.1682	27.18	1.44	-1.500			
0.8706	55715.85	3.1650	3.1650	-0.1665	27.19	1.45	-1.500			
0.8711	55747.68	3.1620	3.1620	-0.1651	27.19	1.45	-1.500			
0.8716	55779.51	3.1590	3.1590	-0.1630	27.19	1.45	-1.500			
0.8720	55810.58	3.1560	3.1561	-0.1614	27.20	1.46	-1.500			
0.8725	55841.02	3.1530	3.1530	-0.1598	27.20	1.46	-1.500			
0.8730	55871.60	3.1500	3.1500	-0.1587	27.21	1.47	-1.500			
0.8735	55901.76	3.1470	3.1470	-0.1574	27.21	1.47	-1.500			
0.8739	55932.01	3.1440	3.1440	-0.1560	27.22	1.48	-1.500			
0.8744	55962.03	3.1410	3.1409	-0.1549	27.22	1.48	-1.500			
0.8749	55991.63	3.1380	3.1381	-0.1534	27.22	1.48	-1.500			
0.8753	56021.15	3.1350	3.1350	-0.1523	27.23	1.49	-1.500			
0.8758	56049.98	3.1320	3.1320	-0.1508	27.23	1.49	-1.500			
0.8762	56078.71	3.1290	3.1290	-0.1490	27.24	1.50	-1.500			
0.8767	56107.23	3.1260	3.1260	-0.1481	27.24	1.50	-1.500			
0.8771	56135.66	3.1230	3.1230	-0.1469	27.25	1.51	-1.500			
0.8776	56163.71	3.1200	3.1200	-0.1464	27.25	1.51	-1.500			
0.8780	56191.54	3.1170	3.1171	-0.1455	27.25	1.51	-1.500			
0.8784	56219.43	3.1140	3.1139	-0.1450	27.26	1.52	-1.500			
0.8789	56247.18	3.1110	3.1109	-0.1437	27.26	1.52	-1.500			
0.8793	56274.81	3.1080	3.1080	-0.1425	27.27	1.53	-1.500			
0.8797	56302.19	3.1050	3.1050	-0.1420	27.27	1.53	-1.500			
0.8801	56329.32	3.1020	3.1021	-0.1405	27.28	1.54	-1.500			
0.8806	56356.16	3.0990	3.0990	-0.1398	27.28	1.54	-1.500			
0.8810	56382.56	3.0960	3.0960	-0.1385	27.28	1.54	-1.500			
0.8814	56409.15	3.0930	3.0930	-0.1375	27.29	1.55	-1.500			
0.8818	56435.50	3.0900	3.0900	-0.1370	27.29	1.55	-1.500			
0.8822	56461.90	3.0870	3.0870	-0.1366	27.30	1.56	-1.500			
0.8826	56488.17	3.0840	3.0841	-0.1359	27.30	1.56	-1.500			
0.8830	56514.10	3.0810	3.0809	-0.1347	27.30	1.56	-1.500			
0.8834	56539.88	3.0780	3.0780	-0.1338	27.31	1.57	-1.500			
0.8838	56565.46	3.0750	3.0750	-0.1327	27.31	1.57	-1.500			
0.8842	56590.85	3.0720	3.0719	-0.1317	27.32	1.58	-1.500			
0.8846	56616.05	3.0690	3.0691	-0.1307	27.32	1.58	-1.500			
0.8850	56641.12	3.0660	3.0660	-0.1300	27.32	1.58	-1.500			
0.8854	56665.81	3.0630	3.0630	-0.1291	27.33	1.59	-1.500			
0.8858	56690.46	3.0600	3.0600	-0.1286	27.33	1.59	-1.500			
0.8862	56715.12	3.0570	3.0570	-0.1283	27.34	1.60	-1.500			
0.8866	56739.79	3.0540	3.0540	-0.1273	27.34	1.60	-1.500			
0.8869	56764.28	3.0510	3.0511	-0.1268	27.35	1.61	-1.500			
0.8873	56788.63	3.0480	3.0480	-0.1261	27.36	1.62	-1.500			
0.8877	56812.59	3.0450	3.0451	-0.1255	27.36	1.62	-1.500			
0.8881	56836.58	3.0420	3.0420	-0.1248	27.37	1.63	-1.500			
0.8884	56860.42	3.0390	3.0390	-0.1241	27.37	1.63	-1.500			
0.8888	56884.21	3.0360	3.0360	-0.1237	27.38	1.64	-1.500			
0.8892	56907.85	3.0330	3.0331	-0.1229	27.38	1.64	-1.500			
0.8896	56931.67	3.0300	3.0300	-0.1227	27.39	1.65	-1.500			
0.8899	56955.19	3.0270	3.0270	-0.1216	27.39	1.65	-1.500			
0.8903	56978.51	3.0240	3.0239	-0.1206	27.40	1.66	-1.500			
0.8906	57001.32	3.0210	3.0210	-0.1198	27.41	1.67	-1.500			
0.8910	57024.26	3.0180	3.0181	-0.1192	27.41	1.67	-1.500			
0.8914	57047.11	3.0150	3.0150	-0.1183	27.42	1.68	-1.500			
0.8917	57069.75	3.0120	3.0119	-0.1175	27.42	1.68	-1.500			
0.8921	57092.23	3.0090	3.0090	-0.1168	27.43	1.69	-1.500			
0.8924	57114.59	3.0060	3.0061	-0.1161	27.43	1.69	-1.500			
0.8928	57136.79	3.0030	3.0030	-0.1123	27.44	1.70	-1.500			
