Ah_balance (normalized)	Ah_balance (mAh)	Voltage - fit (V)	Voltage -  interpolate (V)	dQ/dV (1/V)	Temperature (°C)	Temperature - diff (°C)	Current (C)	R_DC 0ms (mOhm)	R_DC 50ms (mOhm)	R_DC 50 ms PEC (mOhm)
0.2832	18126.85	3.9890	3.9889	0.8211	27.33	1.39	1.500			
0.2857	18285.83	3.9860	3.9861	0.8303	27.33	1.39	1.500			
0.2882	18446.04	3.9830	3.9829	0.8361	27.32	1.38	1.500			
0.2907	18606.95	3.9800	3.9801	0.8421	27.32	1.38	1.500			
0.2933	18769.56	3.9770	3.9770	0.8472	27.31	1.37	1.500			
0.2958	18932.56	3.9740	3.9740	0.8513	27.30	1.36	1.500			
0.2984	19096.69	3.9710	3.9710	0.8554	27.30	1.36	1.500			
0.3010	19261.85	3.9680	3.9680	0.8555	27.29	1.35	1.500			
0.3036	19428.04	3.9650	3.9650	0.8605	27.28	1.34	1.500			
0.3061	19593.48	3.9620	3.9621	0.8597	27.28	1.34	1.500			
0.3087	19757.55	3.9590	3.9589	0.8633	27.27	1.33	1.500			
0.3113	19923.22	3.9560	3.9562	0.8677	27.27	1.33	1.500			
0.3139	20089.34	3.9530	3.9529	0.8710	27.26	1.32	1.500			
0.3165	20256.57	3.9500	3.9500	0.8776	27.25	1.31	1.500			
0.3192	20426.93	3.9470	3.9470	0.8849	27.24	1.30	1.500			
0.3218	20596.76	3.9440	3.9440	0.8865	27.24	1.30	1.500			
0.3245	20770.49	3.9410	3.9410	0.8883	27.23	1.29	1.500			
0.3272	20939.38	3.9380	3.9381	0.8941	27.22	1.28	1.500			
0.3299	21110.93	3.9350	3.9350	0.8991	27.21	1.27	1.500			
0.3326	21283.90	3.9320	3.9319	0.9056	27.21	1.27	1.500			
0.3353	21457.31	3.9290	3.9291	0.9109	27.20	1.26	1.500			
0.3380	21632.98	3.9260	3.9261	0.9210	27.19	1.25	1.500			
0.3408	21812.63	3.9230	3.9229	0.9286	27.18	1.24	1.500			
0.3436	21991.12	3.9200	3.9200	0.9350	27.17	1.23	1.500			
0.3464	22170.48	3.9170	3.9170	0.9378	27.17	1.23	1.500			
0.3493	22352.61	3.9140	3.9140	0.9400	27.16	1.22	1.500			
0.3521	22531.64	3.9110	3.9110	0.9474	27.15	1.21	1.500			
0.3549	22713.99	3.9080	3.9081	0.9528	27.14	1.20	1.500			
0.3578	22897.19	3.9050	3.9050	0.9578	27.13	1.19	1.500			
0.3607	23082.13	3.9020	3.9020	0.9672	27.13	1.19	1.500			
0.3636	23268.70	3.8990	3.8991	0.9721	27.12	1.18	1.500			
0.3665	23456.56	3.8960	3.8960	0.9802	27.10	1.16	1.500			
0.3695	23645.32	3.8930	3.8930	0.9883	27.09	1.15	1.500			
0.3724	23833.53	3.8900	3.8901	0.9919	27.08	1.14	1.500			
0.3754	24025.55	3.8870	3.8870	1.0063	27.07	1.13	1.500			
0.3784	24218.07	3.8840	3.8840	1.0195	27.06	1.12	1.500			
0.3815	24415.85	3.8810	3.8810	1.0324	27.05	1.11	1.500			
0.3846	24615.59	3.8780	3.8779	1.0472	27.04	1.10	1.500			
0.3878	24818.99	3.8750	3.8750	1.0598	27.03	1.09	1.500			
0.3910	25024.45	3.8720	3.8721	1.0698	27.02	1.08	1.500			
0.3942	25231.94	3.8690	3.8689	1.0814	27.01	1.07	1.500			
0.3975	25438.72	3.8660	3.8660	1.0898	27.00	1.06	1.500			
0.4008	25648.21	3.8630	3.8630	1.1004	26.99	1.05	1.500			
0.4041	25861.43	3.8600	3.8600	1.1152	26.99	1.05	1.500			
0.4074	26075.75	3.8570	3.8570	1.1318	26.98	1.04	1.500			
0.4109	26294.86	3.8540	3.8540	1.1501	26.97	1.03	1.500			
0.4144	26518.52	3.8510	3.8510	1.1678	26.95	1.01	1.500			
0.4179	26744.29	3.8480	3.8479	1.1823	26.94	1.00	1.500			
0.4215	26973.18	3.8450	3.8450	1.1948	26.93	0.99	1.500			
0.4251	27204.51	3.8420	3.8420	1.2189	26.91	0.97	1.500			
0.4287	27438.78	3.8390	3.8390	1.2350	26.90	0.96	1.500			
0.4324	27676.51	3.8360	3.8359	1.2496	26.89	0.95	1.500			
0.4362	27919.21	3.8330	3.8332	1.2703	26.87	0.93	1.500			
0.4401	28165.48	3.8300	3.8299	1.2914	26.86	0.92	1.500			
0.4440	28416.31	3.8270	3.8271	1.3057	26.85	0.91	1.500			
0.4479	28666.10	3.8240	3.8240	1.3333	26.83	0.89	1.500			
0.4519	28924.14	3.8210	3.8210	1.3586	26.82	0.88	1.500			
0.4561	29187.84	3.8180	3.8180	1.3859	26.80	0.86	1.500			
0.4602	29455.68	3.8150	3.8150	1.4138	26.79	0.85	1.500			
0.4645	29730.04	3.8120	3.8121	1.4406	26.77	0.83	1.500			
0.4689	30011.08	3.8090	3.8091	1.4649	26.76	0.82	1.500			
0.4734	30295.94	3.8060	3.8059	1.4813	26.74	0.80	1.500			
0.4778	30577.53	3.8030	3.8031	1.5073	26.72	0.78	1.500			
0.4823	30870.03	3.8000	3.8000	1.5398	26.71	0.77	1.500			
0.4870	31167.91	3.7970	3.7969	1.5634	26.70	0.76	1.500			
0.4917	31468.59	3.7940	3.7940	1.5962	26.68	0.74	1.500			
0.4965	31778.10	3.7910	3.7911	1.6342	26.66	0.72	1.500			
0.5016	32100.18	3.7880	3.7879	1.6581	26.63	0.69	1.500			
0.5066	32420.94	3.7850	3.7851	1.6650	26.61	0.67	1.500			
0.5116	32742.17	3.7820	3.7821	1.6805	26.59	0.65	1.500	0.340	0.479	
0.5167	33067.60	3.7790	3.7790	1.6898	26.57	0.63	1.500			
0.5217	33391.38	3.7760	3.7759	1.6913	26.56	0.62	1.500			
0.5268	33714.03	3.7730	3.7731	1.6996	26.54	0.60	1.500			
0.5319	34044.03	3.7700	3.7700	1.7202	26.52	0.58	1.500			
0.5371	34373.59	3.7670	3.7670	1.7176	26.50	0.56	1.500			
0.5422	34702.79	3.7640	3.7640	1.7243	26.49	0.55	1.500			
0.5475	35038.85	3.7610	3.7610	1.7310	26.47	0.53	1.500			
0.5527	35370.48	3.7580	3.7580	1.7287	26.46	0.52	1.500			
0.5578	35700.56	3.7550	3.7550	1.7390	26.44	0.50	1.500			
0.5630	36034.91	3.7520	3.7519	1.7645	26.43	0.49	1.500			
0.5683	36372.87	3.7490	3.7490	1.7876	26.41	0.47	1.500			
0.5737	36718.70	3.7460	3.7460	1.8094	26.39	0.45	1.500			
0.5792	37068.77	3.7430	3.7430	1.8414	26.38	0.44	1.500			
0.5847	37420.46	3.7400	3.7398	1.8770	26.36	0.42	1.500			
0.5904	37784.99	3.7370	3.7370	1.9273	26.34	0.40	1.500			
0.5963	38161.38	3.7340	3.7340	1.9581	26.33	0.39	1.500			
0.6022	38540.03	3.7310	3.7311	1.9914	26.31	0.37	1.500			
0.6082	38925.42	3.7280	3.7279	2.0530	26.29	0.35	1.500			
0.6144	39323.64	3.7250	3.7250	2.1230	26.28	0.34	1.500			
0.6209	39737.67	3.7220	3.7221	2.1898	26.26	0.32	1.500			
0.6277	40170.56	3.7190	3.7190	2.2498	26.24	0.30	1.500			
0.6344	40604.77	3.7160	3.7159	2.3081	26.22	0.28	1.500			
0.6415	41053.68	3.7130	3.7130	2.3593	26.20	0.26	1.500			
0.6487	41516.24	3.7100	3.7100	2.3366	26.19	0.25	1.500			
0.6557	41963.99	3.7070	3.7070	2.2903	26.17	0.23	1.500			
0.6625	42397.14	3.7040	3.7041	2.1934	26.15	0.21	1.500			
0.6690	42816.13	3.7010	3.7010	2.0681	26.14	0.20	1.500			
0.6750	43198.42	3.6980	3.6980	1.9312	26.13	0.19	1.500			
0.6804	43548.09	3.6950	3.6951	1.7904	26.12	0.18	1.500			
0.6855	43874.92	3.6920	3.6919	1.6727	26.11	0.17	1.500			
0.6904	44184.06	3.6890	3.6890	1.5722	26.10	0.16	1.500			
0.6949	44475.56	3.6860	3.6860	1.4979	26.08	0.14	1.500			
0.6993	44754.37	3.6830	3.6831	1.4376	26.07	0.13	1.500			
0.7034	45019.65	3.6800	3.6799	1.3786	26.06	0.12	1.500			
0.7074	45275.46	3.6770	3.6771	1.3386	26.05	0.11	1.500			
0.7114	45527.18	3.6740	3.6739	1.3095	26.05	0.11	1.500			
0.7152	45775.83	3.6710	3.6710	1.2885	26.04	0.10	1.500			
0.7191	46019.62	3.6680	3.6679	1.2714	26.03	0.09	1.500			
0.7228	46260.42	3.6650	3.6651	1.2674	26.02	0.08	1.500			
0.7266	46502.00	3.6620	3.6620	1.2621	26.02	0.08	1.500			
0.7303	46742.25	3.6590	3.6589	1.2589	26.01	0.07	1.500			
0.7341	46984.71	3.6560	3.6559	1.2598	26.00	0.06	1.500			
0.7379	47226.60	3.6530	3.6531	1.2597	25.99	0.05	1.500			
0.7417	47469.50	3.6500	3.6500	1.2585	25.99	0.05	1.500			
0.7455	47713.20	3.6470	3.6469	1.2465	25.98	0.04	1.500			
0.7492	47951.00	3.6440	3.6439	1.2358	25.98	0.04	1.500			
0.7529	48186.77	3.6410	3.6411	1.2247	25.97	0.03	1.500			
0.7566	48420.29	3.6380	3.6380	1.2145	25.96	0.02	1.500			
0.7602	48652.32	3.6350	3.6349	1.2044	25.96	0.02	1.500			
0.7638	48881.85	3.6320	3.6320	1.1981	25.96	0.02	1.500			
0.7674	49111.00	3.6290	3.6290	1.1899	25.95	0.01	1.500			
0.7710	49340.98	3.6260	3.6260	1.1813	25.95	0.01	1.500			
0.7745	49567.10	3.6230	3.6230	1.1707	25.95	0.01	1.500			
0.7780	49791.53	3.6200	3.6200	1.1581	25.95	0.01	1.500			
0.7815	50013.02	3.6170	3.6170	1.1413	25.94	0.00	1.500			
0.7849	50230.61	3.6140	3.6140	1.1244	25.94	0.00	1.500			
0.7882	50444.62	3.6110	3.6110	1.0995	25.94	0.00	1.500			
0.7915	50654.89	3.6080	3.6080	1.0811	25.94	0.00	1.500			
0.7947	50860.66	3.6050	3.6050	1.0529	25.94	0.00	1.500			
0.7978	51060.54	3.6020	3.6018	1.0244	25.94	0.00	1.500			
0.8009	51255.68	3.5990	3.5991	0.9938	25.94	0.00	1.500			
0.8038	51443.40	3.5960	3.5960	0.9635	25.94	0.00	1.500			
0.8067	51627.07	3.5930	3.5930	0.9260	25.94	0.00	1.500			
0.8095	51804.89	3.5900	3.5898	0.8718	25.94	0.00	1.500			
0.8120	51969.74	3.5870	3.5871	0.8096	25.94	0.00	1.500			
0.8144	52122.82	3.5840	3.5841	0.7314	25.94	0.00	1.500			
0.8166	52259.25	3.5810	3.5809	0.6489	25.94	0.00	1.500			
0.8183	52373.87	3.5780	3.5781	0.5579	25.94	0.00	1.500			
0.8198	52470.08	3.5750	3.5750	0.4718	25.94	0.00	1.500			
0.8211	52549.74	3.5720	3.5720	0.3989	25.94	0.00	1.500			
0.8221	52616.60	3.5690	3.5689	0.3436	25.94	0.00	1.500			
0.8230	52672.30	3.5660	3.5659	0.2938	25.94	0.00	1.500			
0.8238	52722.35	3.5630	3.5629	0.2585	25.94	0.00	1.500			
0.8245	52766.13	3.5600	3.5600	0.2260	25.94	0.00	1.500			
0.8251	52806.65	3.5570	3.5570	0.2039	25.94	0.00	1.500			
0.8257	52842.50	3.5540	3.5540	0.1837	25.94	0.00	1.500			
0.8262	52875.56	3.5510	3.5509	0.1645	25.94	0.00	1.500			
0.8266	52905.11	3.5480	3.5480	0.1495	25.94	0.00	1.500			
0.8271	52931.42	3.5450	3.5449	0.1332	25.94	0.00	1.500			
0.8274	52955.63	3.5420	3.5420	0.1188	25.94	0.00	1.500			
0.8278	52976.94	3.5390	3.5390	0.1041	25.94	0.00	1.500			
0.8281	52995.58	3.5360	3.5361	0.0901	25.94	0.00	1.500			
0.8283	53011.86	3.5330	3.5332	0.0762	25.94	0.00	1.500			
0.8285	53025.36	3.5300	3.5301	0.0615	25.94	0.00	1.500			
0.8287	53035.73	3.5270	3.5275	0.0465	25.94	0.00	1.500			
0.8288	53043.21	3.5240	3.5249	0.0314	25.94	0.00	1.500			
