Ah_balance (normalized)	Ah_balance (mAh)	Voltage - fit (V)	Voltage -  interpolate (V)	dQ/dV (1/V)	Temperature (°C)	Temperature - diff (°C)	Current (C)	R_DC 0ms (mOhm)	R_DC 50ms (mOhm)	R_DC 50 ms PEC (mOhm)
0.3025	19361.85	3.9750	3.9750	0.8434	27.02	1.07	1.500			
0.3051	19523.74	3.9720	3.9721	0.8471	27.01	1.06	1.500			
0.3076	19688.14	3.9690	3.9689	0.8589	27.01	1.06	1.500			
0.3102	19854.85	3.9660	3.9660	0.8658	27.00	1.05	1.500			
0.3128	20021.83	3.9630	3.9630	0.8684	27.00	1.05	1.500			
0.3155	20189.08	3.9600	3.9601	0.8723	26.99	1.04	1.500			
0.3181	20358.43	3.9570	3.9570	0.8785	26.99	1.04	1.500			
0.3207	20526.48	3.9540	3.9539	0.8760	26.98	1.03	1.500			
0.3233	20693.74	3.9510	3.9510	0.8800	26.98	1.03	1.500			
0.3260	20862.93	3.9480	3.9481	0.8877	26.97	1.02	1.500			
0.3287	21035.04	3.9450	3.9449	0.8949	26.97	1.02	1.500			
0.3314	21207.30	3.9420	3.9419	0.9002	26.96	1.01	1.500			
0.3341	21380.51	3.9390	3.9390	0.9034	26.96	1.01	1.500			
0.3368	21554.09	3.9360	3.9361	0.9101	26.95	1.00	1.500			
0.3396	21731.60	3.9330	3.9329	0.9136	26.95	1.00	1.500			
0.3423	21906.02	3.9300	3.9300	0.9136	26.94	0.99	1.500			
0.3450	22081.31	3.9270	3.9270	0.9175	26.94	0.99	1.500			
0.3478	22258.23	3.9240	3.9240	0.9203	26.93	0.98	1.500			
0.3505	22434.28	3.9210	3.9210	0.9316	26.93	0.98	1.500			
0.3534	22614.78	3.9180	3.9181	0.9370	26.93	0.98	1.500			
0.3562	22794.86	3.9150	3.9149	0.9430	26.92	0.97	1.500			
0.3590	22977.70	3.9120	3.9121	0.9510	26.92	0.97	1.500			
0.3619	23161.03	3.9090	3.9091	0.9567	26.91	0.96	1.500			
0.3648	23344.62	3.9060	3.9059	0.9652	26.90	0.95	1.500			
0.3677	23531.10	3.9030	3.9030	0.9705	26.90	0.95	1.500			
0.3706	23718.54	3.9000	3.9000	0.9734	26.89	0.94	1.500			
0.3735	23906.29	3.8970	3.8970	0.9814	26.89	0.94	1.500			
0.3765	24094.44	3.8940	3.8941	0.9918	26.88	0.93	1.500			
0.3795	24285.62	3.8910	3.8910	1.0007	26.88	0.93	1.500			
0.3825	24477.41	3.8880	3.8878	1.0094	26.87	0.92	1.500			
0.3855	24671.71	3.8850	3.8851	1.0221	26.86	0.91	1.500			
0.3886	24871.00	3.8820	3.8820	1.0368	26.85	0.90	1.500			
0.3917	25071.52	3.8790	3.8789	1.0466	26.85	0.90	1.500			
0.3949	25274.82	3.8760	3.8760	1.0481	26.84	0.89	1.500			
0.3981	25475.51	3.8730	3.8731	1.0559	26.83	0.88	1.500			
0.4012	25679.04	3.8700	3.8700	1.0731	26.82	0.87	1.500			
0.4045	25885.51	3.8670	3.8670	1.0850	26.82	0.87	1.500			
0.4077	26093.50	3.8640	3.8639	1.0983	26.81	0.86	1.500			
0.4110	26306.12	3.8610	3.8611	1.1172	26.80	0.85	1.500			
0.4144	26522.87	3.8580	3.8580	1.1373	26.79	0.84	1.500			
0.4179	26743.85	3.8550	3.8550	1.1565	26.78	0.83	1.500			
0.4214	26966.91	3.8520	3.8520	1.1603	26.77	0.82	1.500			
0.4248	27189.39	3.8490	3.8489	1.1801	26.76	0.81	1.500			
0.4284	27418.96	3.8460	3.8461	1.1974	26.75	0.80	1.500			
0.4320	27649.46	3.8430	3.8427	1.2143	26.74	0.79	1.500			
0.4357	27883.33	3.8400	3.8401	1.2378	26.73	0.78	1.500			
0.4394	28122.78	3.8370	3.8370	1.2642	26.73	0.78	1.500			
0.4432	28367.03	3.8340	3.8339	1.2932	26.72	0.77	1.500			
0.4471	28617.43	3.8310	3.8310	1.3215	26.71	0.76	1.500			
0.4512	28874.87	3.8280	3.8280	1.3517	26.70	0.75	1.500			
0.4553	29140.44	3.8250	3.8250	1.3844	26.69	0.74	1.500			
0.4595	29409.18	3.8220	3.8221	1.4085	26.68	0.73	1.500			
0.4638	29681.14	3.8190	3.8190	1.4291	26.67	0.72	1.500			
0.4681	29958.06	3.8160	3.8160	1.4564	26.66	0.71	1.500			
0.4725	30237.39	3.8130	3.8130	1.4828	26.65	0.70	1.500			
0.4770	30524.97	3.8100	3.8100	1.5132	26.63	0.68	1.500			
0.4815	30815.85	3.8070	3.8070	1.5465	26.62	0.67	1.500			
0.4862	31117.13	3.8040	3.8040	1.5850	26.61	0.66	1.500			
0.4910	31425.95	3.8010	3.8010	1.6162	26.60	0.65	1.500			
0.4959	31739.41	3.7980	3.7980	1.6645	26.58	0.63	1.500			
0.5010	32063.58	3.7950	3.7950	1.7112	26.57	0.62	1.500			
0.5061	32392.87	3.7920	3.7919	1.7654	26.55	0.60	1.500			
0.5115	32737.42	3.7890	3.7891	1.8273	26.54	0.59	1.500			
0.5171	33094.99	3.7860	3.7859	1.8418	26.52	0.57	1.500			
0.5227	33454.32	3.7830	3.7831	1.8682	26.51	0.56	1.500			
0.5283	33814.10	3.7800	3.7800	1.9003	26.49	0.54	1.500			
0.5341	34180.60	3.7770	3.7770	1.9142	26.47	0.52	1.500			
0.5398	34546.92	3.7740	3.7741	1.9452	26.46	0.51	1.500			
0.5457	34926.06	3.7710	3.7710	1.9880	26.44	0.49	1.500			
0.5518	35312.07	3.7680	3.7679	2.0001	26.42	0.47	1.500			
0.5578	35698.96	3.7650	3.7650	2.0096	26.40	0.45	1.500	0.358	0.462	
0.5639	36087.39	3.7620	3.7620	2.0154	26.38	0.43	1.500			
0.5699	36475.59	3.7590	3.7590	1.9971	26.36	0.41	1.500			
0.5758	36852.78	3.7560	3.7560	1.9746	26.35	0.40	1.500			
0.5818	37234.37	3.7530	3.7529	1.9654	26.33	0.38	1.500			
0.5876	37607.16	3.7500	3.7501	1.9523	26.32	0.37	1.500			
0.5935	37982.58	3.7470	3.7470	1.9377	26.30	0.35	1.500			
0.5992	38351.93	3.7440	3.7440	1.9433	26.29	0.34	1.500			
0.6051	38724.04	3.7410	3.7410	1.9506	26.27	0.32	1.500			
0.6110	39102.49	3.7380	3.7380	1.9656	26.26	0.31	1.500			
0.6169	39480.20	3.7350	3.7350	1.9853	26.25	0.30	1.500			
0.6228	39859.99	3.7320	3.7320	2.0184	26.24	0.29	1.500			
0.6289	40250.67	3.7290	3.7289	2.0512	26.23	0.28	1.500			
0.6351	40647.26	3.7260	3.7260	2.1156	26.22	0.27	1.500			
0.6416	41061.93	3.7230	3.7230	2.1496	26.20	0.25	1.500			
0.6481	41476.54	3.7200	3.7200	2.2124	26.19	0.24	1.500			
0.6548	41905.13	3.7170	3.7170	2.2959	26.18	0.23	1.500			
0.6618	42353.33	3.7140	3.7140	2.3855	26.17	0.22	1.500			
0.6690	42814.54	3.7110	3.7110	2.4480	26.16	0.21	1.500			
0.6765	43298.70	3.7080	3.7080	2.5235	26.15	0.20	1.500			
0.6842	43788.67	3.7050	3.7049	2.5803	26.14	0.19	1.500			
0.6920	44289.25	3.7020	3.7020	2.5879	26.13	0.18	1.500			
0.7000	44802.28	3.6990	3.6990	2.5699	26.12	0.17	1.500			
0.7077	45293.11	3.6960	3.6959	2.5027	26.11	0.16	1.500			
0.7152	45770.93	3.6930	3.6931	2.3545	26.10	0.15	1.500			
0.7220	46207.60	3.6900	3.6900	2.1717	26.09	0.14	1.500			
0.7282	46603.41	3.6870	3.6870	1.9842	26.08	0.13	1.500			
0.7338	46962.89	3.6840	3.6840	1.8206	26.08	0.13	1.500			
0.7389	47292.79	3.6810	3.6810	1.7009	26.07	0.12	1.500			
0.7438	47601.54	3.6780	3.6779	1.5914	26.07	0.12	1.500			
0.7483	47892.66	3.6750	3.6750	1.5156	26.06	0.11	1.500			
0.7527	48175.33	3.6720	3.6720	1.4467	26.06	0.11	1.500			
0.7570	48447.23	3.6690	3.6690	1.3899	26.05	0.10	1.500			
0.7611	48707.55	3.6660	3.6660	1.3368	26.04	0.09	1.500			
0.7649	48955.22	3.6630	3.6631	1.3032	26.04	0.09	1.500			
0.7687	49196.91	3.6600	3.6600	1.2732	26.03	0.08	1.500			
0.7724	49435.59	3.6570	3.6569	1.2592	26.03	0.08	1.500			
0.7762	49674.93	3.6540	3.6540	1.2561	26.02	0.07	1.500			
0.7799	49914.59	3.6510	3.6510	1.2685	26.01	0.06	1.500			
0.7837	50159.36	3.6480	3.6480	1.2791	26.01	0.06	1.500			
0.7876	50406.16	3.6450	3.6450	1.2867	26.00	0.05	1.500			
0.7915	50654.14	3.6420	3.6420	1.2902	25.99	0.04	1.500			
0.7954	50904.42	3.6390	3.6391	1.2956	25.98	0.03	1.500			
0.7993	51153.44	3.6360	3.6360	1.2994	25.98	0.03	1.500			
0.8032	51403.36	3.6330	3.6330	1.3007	25.97	0.02	1.500			
0.8071	51653.07	3.6300	3.6299	1.2951	25.96	0.01	1.500			
0.8110	51901.40	3.6270	3.6270	1.2956	25.96	0.01	1.500			
0.8149	52151.21	3.6240	3.6240	1.2921	25.95	0.00	1.500			
0.8188	52403.60	3.6210	3.6209	1.2794	25.95	-0.00	1.500			
0.8226	52645.85	3.6180	3.6180	1.2685	25.94	-0.01	1.500			
0.8264	52887.42	3.6150	3.6151	1.2616	25.94	-0.01	1.500			
0.8301	53128.76	3.6120	3.6120	1.2519	25.93	-0.02	1.500			
0.8339	53368.59	3.6090	3.6090	1.2456	25.93	-0.02	1.500			
0.8376	53606.22	3.6060	3.6060	1.2312	25.93	-0.02	1.500			
0.8413	53843.48	3.6030	3.6030	1.2193	25.93	-0.02	1.500			
0.8450	54082.28	3.6000	3.6000	1.2034	25.92	-0.03	1.500			
0.8486	54307.29	3.5970	3.5970	1.1854	25.92	-0.03	1.500			
0.8521	54532.50	3.5940	3.5940	1.1725	25.92	-0.03	1.500			
0.8555	54754.87	3.5910	3.5910	1.1605	25.92	-0.03	1.500			
0.8590	54975.45	3.5880	3.5881	1.1522	25.92	-0.03	1.500			
0.8625	55198.49	3.5850	3.5850	1.1438	25.93	-0.02	1.500			
0.8659	55418.92	3.5820	3.5820	1.1258	25.93	-0.02	1.500			
0.8694	55641.20	3.5790	3.5790	1.0821	25.93	-0.02	1.500			
0.8727	55851.55	3.5760	3.5760	1.0235	25.94	-0.01	1.500			
0.8758	56052.43	3.5730	3.5730	0.9384	25.94	-0.01	1.500			
0.8785	56226.43	3.5700	3.5701	0.8240	25.95	-0.00	1.500			
0.8808	56373.26	3.5670	3.5671	0.7033	25.95	-0.00	1.500			
0.8827	56492.78	3.5640	3.5641	0.5855	25.95	0.00	1.500			
0.8842	56586.48	3.5610	3.5609	0.4764	25.95	0.00	1.500			
0.8854	56664.55	3.5580	3.5579	0.3966	25.95	0.00	1.500			
0.8863	56726.37	3.5550	3.5551	0.3323	25.96	0.01	1.500			
0.8872	56782.54	3.5520	3.5519	0.2896	25.96	0.01	1.500			
0.8880	56831.60	3.5490	3.5489	0.2498	25.96	0.01	1.500			
0.8887	56875.19	3.5460	3.5460	0.2235	25.96	0.01	1.500			
0.8893	56914.11	3.5430	3.5430	0.2013	25.96	0.01	1.500			
0.8898	56949.37	3.5400	3.5400	0.1824	25.96	0.01	1.500			
0.8903	56982.15	3.5370	3.5369	0.1646	25.96	0.01	1.500			
0.8908	57011.37	3.5340	3.5340	0.1493	25.96	0.01	1.500			
0.8912	57038.24	3.5310	3.5310	0.1346	25.96	0.01	1.500			
0.8916	57062.87	3.5280	3.5281	0.1214	25.96	0.01	1.500			
0.8920	57084.90	3.5250	3.5250	0.1080	25.96	0.01	1.500			
0.8923	57104.25	3.5220	3.5220	0.0945	25.96	0.01	1.500			
0.8925	57121.07	3.5190	3.5191	0.0812	25.96	0.01	1.500			
0.8927	57135.38	3.5160	3.5163	0.0679	25.96	0.01	1.500			
0.8929	57147.33	3.5130	3.5136	0.0539	25.96	0.01	1.500			
0.8931	57156.35	3.5100	3.5106	0.0401	25.96	0.01	1.500			
