Ah_balance (normalized)	Ah_balance (mAh)	Voltage - fit (V)	Voltage -  interpolate (V)	dQ/dV (1/V)	Temperature (°C)	Temperature - diff (°C)	Current (C)	R_DC 0ms (mOhm)	R_DC 50ms (mOhm)	R_DC 50 ms PEC (mOhm)
0.2907	18606.72	3.9860	3.9861	0.8150	27.13	1.19	1.500			
0.2932	18767.56	3.9830	3.9829	0.8401	27.13	1.19	1.500			
0.2958	18930.64	3.9800	3.9800	0.8481	27.12	1.18	1.500			
0.2984	19094.59	3.9770	3.9770	0.8490	27.12	1.18	1.500			
0.3009	19258.07	3.9740	3.9740	0.8533	27.11	1.17	1.500			
0.3035	19423.51	3.9710	3.9710	0.8550	27.11	1.17	1.500			
0.3060	19585.72	3.9680	3.9679	0.8556	27.10	1.16	1.500			
0.3086	19749.53	3.9650	3.9650	0.8589	27.10	1.16	1.500			
0.3112	19914.73	3.9620	3.9620	0.8666	27.09	1.15	1.500			
0.3138	20082.71	3.9590	3.9590	0.8710	27.09	1.15	1.500			
0.3164	20251.05	3.9560	3.9560	0.8738	27.08	1.14	1.500			
0.3190	20418.02	3.9530	3.9530	0.8776	27.08	1.14	1.500			
0.3217	20587.32	3.9500	3.9500	0.8841	27.07	1.13	1.500			
0.3243	20756.44	3.9470	3.9470	0.8872	27.07	1.13	1.500			
0.3270	20927.77	3.9440	3.9440	0.8922	27.06	1.12	1.500			
0.3297	21099.48	3.9410	3.9410	0.8914	27.06	1.12	1.500			
0.3324	21271.09	3.9380	3.9380	0.8966	27.05	1.11	1.500			
0.3351	21443.88	3.9350	3.9351	0.8996	27.05	1.11	1.500			
0.3378	21616.21	3.9320	3.9318	0.9027	27.04	1.10	1.500			
0.3405	21788.94	3.9290	3.9290	0.9072	27.04	1.10	1.500			
0.3432	21963.86	3.9260	3.9260	0.9134	27.03	1.09	1.500			
0.3459	22140.18	3.9230	3.9230	0.9211	27.03	1.09	1.500			
0.3487	22316.87	3.9200	3.9200	0.9254	27.02	1.08	1.500			
0.3515	22495.12	3.9170	3.9170	0.9346	27.02	1.08	1.500			
0.3543	22675.86	3.9140	3.9140	0.9350	27.01	1.07	1.500			
0.3571	22855.58	3.9110	3.9109	0.9399	27.01	1.07	1.500			
0.3599	23036.62	3.9080	3.9081	0.9454	27.00	1.06	1.500			
0.3628	23218.20	3.9050	3.9049	0.9521	27.00	1.06	1.500			
0.3656	23399.64	3.9020	3.9021	0.9629	26.99	1.05	1.500			
0.3685	23586.09	3.8990	3.8990	0.9698	26.99	1.05	1.500			
0.3715	23773.61	3.8960	3.8959	0.9762	26.98	1.04	1.500			
0.3744	23962.02	3.8930	3.8931	0.9868	26.97	1.03	1.500			
0.3774	24152.07	3.8900	3.8900	0.9956	26.97	1.03	1.500			
0.3804	24343.61	3.8870	3.8870	1.0063	26.96	1.02	1.500			
0.3834	24537.80	3.8840	3.8840	1.0167	26.95	1.01	1.500			
0.3864	24731.78	3.8810	3.8811	1.0279	26.94	1.00	1.500			
0.3896	24933.06	3.8780	3.8780	1.0423	26.94	1.00	1.500			
0.3927	25135.15	3.8750	3.8750	1.0543	26.93	0.99	1.500			
0.3959	25338.04	3.8720	3.8720	1.0574	26.92	0.98	1.500			
0.3991	25541.69	3.8690	3.8690	1.0685	26.91	0.97	1.500			
0.4023	25746.27	3.8660	3.8660	1.0753	26.91	0.97	1.500			
0.4055	25953.16	3.8630	3.8630	1.0901	26.90	0.96	1.500			
0.4088	26162.26	3.8600	3.8600	1.1015	26.89	0.95	1.500			
0.4121	26376.11	3.8570	3.8570	1.1206	26.88	0.94	1.500			
0.4155	26592.88	3.8540	3.8540	1.1386	26.87	0.93	1.500			
0.4190	26813.78	3.8510	3.8510	1.1588	26.86	0.92	1.500			
0.4224	27036.64	3.8480	3.8480	1.1736	26.85	0.91	1.500			
0.4260	27263.40	3.8450	3.8450	1.1904	26.84	0.90	1.500			
0.4296	27494.14	3.8420	3.8420	1.2138	26.83	0.89	1.500			
0.4333	27730.42	3.8390	3.8390	1.2328	26.82	0.88	1.500			
0.4370	27967.71	3.8360	3.8359	1.2566	26.81	0.87	1.500			
0.4408	28210.95	3.8330	3.8332	1.2800	26.80	0.86	1.500			
0.4447	28459.91	3.8300	3.8299	1.3028	26.79	0.85	1.500			
0.4486	28712.87	3.8270	3.8270	1.3245	26.78	0.84	1.500			
0.4526	28966.17	3.8240	3.8241	1.3447	26.77	0.83	1.500			
0.4567	29227.97	3.8210	3.8211	1.3720	26.76	0.82	1.500			
0.4609	29495.06	3.8180	3.8179	1.4020	26.75	0.81	1.500			
0.4651	29764.86	3.8150	3.8150	1.4291	26.73	0.79	1.500			
0.4694	30041.82	3.8120	3.8120	1.4579	26.72	0.78	1.500			
0.4738	30325.41	3.8090	3.8090	1.4856	26.71	0.77	1.500			
0.4783	30613.91	3.8060	3.8060	1.5250	26.69	0.75	1.500			
0.4830	30909.82	3.8030	3.8030	1.5506	26.68	0.74	1.500			
0.4877	31210.33	3.8000	3.7999	1.5875	26.66	0.72	1.500			
0.4925	31518.44	3.7970	3.7971	1.6217	26.65	0.71	1.500			
0.4975	31837.50	3.7940	3.7939	1.6389	26.63	0.69	1.500			
0.5024	32153.68	3.7910	3.7911	1.6754	26.61	0.67	1.500			
0.5074	32474.83	3.7880	3.7881	1.7081	26.60	0.66	1.500			
0.5126	32809.04	3.7850	3.7847	1.7460	26.58	0.64	1.500			
0.5179	33143.32	3.7820	3.7820	1.7698	26.56	0.62	1.500			
0.5233	33490.82	3.7790	3.7791	1.8002	26.55	0.61	1.500			
0.5289	33847.50	3.7760	3.7757	1.8232	26.53	0.59	1.500	0.345	0.462	
0.5343	34195.62	3.7730	3.7730	1.8185	26.51	0.57	1.500			
0.5397	34543.06	3.7700	3.7701	1.8165	26.49	0.55	1.500			
0.5452	34890.88	3.7670	3.7670	1.7978	26.48	0.54	1.500			
0.5506	35235.24	3.7640	3.7641	1.7919	26.46	0.52	1.500			
0.5559	35577.72	3.7610	3.7610	1.7881	26.44	0.50	1.500			
0.5612	35919.08	3.7580	3.7578	1.7879	26.43	0.49	1.500			
0.5666	36261.25	3.7550	3.7551	1.7910	26.41	0.47	1.500			
0.5720	36608.81	3.7520	3.7520	1.7958	26.39	0.45	1.500			
0.5774	36952.51	3.7490	3.7490	1.8159	26.38	0.44	1.500			
0.5828	37298.70	3.7460	3.7460	1.8290	26.36	0.42	1.500			
0.5883	37652.37	3.7430	3.7429	1.8571	26.35	0.41	1.500			
0.5939	38011.86	3.7400	3.7400	1.8785	26.33	0.39	1.500			
0.5996	38375.41	3.7370	3.7370	1.9128	26.32	0.38	1.500			
0.6053	38741.03	3.7340	3.7341	1.9456	26.30	0.36	1.500			
0.6112	39118.89	3.7310	3.7309	1.9845	26.28	0.34	1.500			
0.6173	39504.30	3.7280	3.7281	2.0455	26.27	0.33	1.500			
0.6235	39903.83	3.7250	3.7250	2.1093	26.25	0.31	1.500			
0.6299	40313.79	3.7220	3.7220	2.1589	26.24	0.30	1.500			
0.6364	40729.52	3.7190	3.7190	2.2206	26.22	0.28	1.500			
0.6432	41163.85	3.7160	3.7160	2.2873	26.21	0.27	1.500			
0.6501	41606.92	3.7130	3.7130	2.3798	26.20	0.26	1.500			
0.6573	42069.00	3.7100	3.7100	2.4303	26.18	0.24	1.500			
0.6647	42540.65	3.7070	3.7071	2.4566	26.17	0.23	1.500			
0.6722	43020.71	3.7040	3.7040	2.4712	26.15	0.21	1.500			
0.6797	43500.03	3.7010	3.7009	2.4223	26.14	0.20	1.500			
0.6868	43956.20	3.6980	3.6980	2.2991	26.12	0.18	1.500			
0.6935	44384.46	3.6950	3.6950	2.1330	26.11	0.17	1.500			
0.6995	44770.22	3.6920	3.6920	1.9581	26.10	0.16	1.500			
0.7051	45125.69	3.6890	3.6890	1.8064	26.09	0.15	1.500			
0.7103	45457.57	3.6860	3.6859	1.6817	26.08	0.14	1.500			
0.7151	45768.05	3.6830	3.6830	1.5858	26.08	0.14	1.500			
0.7196	46056.42	3.6800	3.6801	1.4982	26.07	0.13	1.500			
0.7240	46334.90	3.6770	3.6769	1.4233	26.06	0.12	1.500			
0.7281	46596.71	3.6740	3.6741	1.3610	26.06	0.12	1.500			
0.7320	46851.14	3.6710	3.6710	1.3128	26.05	0.11	1.500			
0.7359	47094.80	3.6680	3.6680	1.2847	26.04	0.10	1.500			
0.7396	47334.89	3.6650	3.6650	1.2651	26.04	0.10	1.500			
0.7433	47573.01	3.6620	3.6620	1.2574	26.03	0.09	1.500			
0.7471	47812.55	3.6590	3.6590	1.2571	26.03	0.09	1.500			
0.7509	48055.12	3.6560	3.6560	1.2619	26.02	0.08	1.500			
0.7546	48296.81	3.6530	3.6530	1.2697	26.01	0.07	1.500			
0.7585	48541.68	3.6500	3.6500	1.2785	26.01	0.07	1.500			
0.7623	48786.54	3.6470	3.6469	1.2858	26.00	0.06	1.500			
0.7662	49035.58	3.6440	3.6440	1.2827	25.99	0.05	1.500			
0.7701	49283.45	3.6410	3.6410	1.2841	25.99	0.05	1.500			
0.7740	49532.84	3.6380	3.6380	1.2767	25.98	0.04	1.500			
0.7778	49777.05	3.6350	3.6349	1.2682	25.98	0.04	1.500			
0.7815	50016.64	3.6320	3.6320	1.2562	25.97	0.03	1.500			
0.7853	50256.62	3.6290	3.6289	1.2522	25.96	0.02	1.500			
0.7890	50495.00	3.6260	3.6261	1.2470	25.96	0.02	1.500			
0.7928	50736.10	3.6230	3.6230	1.2460	25.96	0.02	1.500			
0.7965	50974.51	3.6200	3.6200	1.2415	25.95	0.01	1.500			
0.8002	51214.59	3.6170	3.6170	1.2347	25.95	0.01	1.500			
0.8039	51451.21	3.6140	3.6140	1.2210	25.95	0.01	1.500			
0.8076	51685.19	3.6110	3.6110	1.2065	25.94	0.00	1.500			
0.8112	51915.53	3.6080	3.6081	1.1879	25.94	0.00	1.500			
0.8147	52142.46	3.6050	3.6050	1.1660	25.94	0.00	1.500			
0.8182	52364.76	3.6020	3.6019	1.1449	25.94	0.00	1.500			
0.8216	52581.13	3.5990	3.5991	1.1237	25.94	0.00	1.500			
0.8249	52794.85	3.5960	3.5960	1.1054	25.94	0.00	1.500			
0.8282	53005.61	3.5930	3.5930	1.0845	25.94	0.00	1.500			
0.8314	53212.46	3.5900	3.5899	1.0611	25.94	0.00	1.500			
0.8346	53416.17	3.5870	3.5870	1.0312	25.94	0.00	1.500			
0.8378	53616.06	3.5840	3.5839	0.9768	25.94	0.00	1.500			
0.8407	53804.75	3.5810	3.5810	0.9154	25.94	0.00	1.500			
0.8434	53978.01	3.5780	3.5781	0.8242	25.94	0.00	1.500			
0.8458	54132.10	3.5750	3.5750	0.7277	25.94	0.00	1.500			
0.8478	54260.32	3.5720	3.5720	0.6229	25.94	0.00	1.500			
0.8495	54366.98	3.5690	3.5690	0.5202	25.94	0.00	1.500			
0.8508	54452.79	3.5660	3.5660	0.4322	25.94	0.00	1.500			
0.8519	54524.16	3.5630	3.5629	0.3655	25.94	0.00	1.500			
0.8529	54582.41	3.5600	3.5600	0.3081	25.94	0.00	1.500			
0.8537	54634.58	3.5570	3.5569	0.2688	25.94	0.00	1.500			
0.8544	54679.87	3.5540	3.5540	0.2323	25.94	0.00	1.500			
0.8550	54720.15	3.5510	3.5509	0.2081	25.94	0.00	1.500			
0.8556	54756.38	3.5480	3.5481	0.1875	25.94	0.00	1.500			
0.8561	54790.04	3.5450	3.5450	0.1686	25.94	0.00	1.500			
0.8566	54820.61	3.5420	3.5419	0.1538	25.94	0.00	1.500			
0.8570	54848.38	3.5390	3.5390	0.1384	25.94	0.00	1.500			
0.8574	54873.27	3.5360	3.5360	0.1232	25.94	0.00	1.500			
0.8577	54895.75	3.5330	3.5330	0.1096	25.94	0.00	1.500			
0.8581	54915.41	3.5300	3.5301	0.0952	25.94	0.00	1.500			
0.8583	54932.42	3.5270	3.5271	0.0808	25.94	0.00	1.500			
0.8585	54946.80	3.5240	3.5244	0.0661	25.94	0.00	1.500			
0.8587	54958.05	3.5210	3.5214	0.0510	25.94	0.00	1.500			
0.8588	54966.40	3.5180	3.5189	0.0359	25.94	0.00	1.500			
