Ah_balance (normalized)	Ah_balance (mAh)	Voltage - fit (V)	Voltage -  interpolate (V)	dQ/dV (1/V)	Temperature (°C)	Temperature - diff (°C)	Current (C)	R_DC 0ms (mOhm)	R_DC 50ms (mOhm)	R_DC 50 ms PEC (mOhm)
0.1914	12250.37	3.9270	3.9267	-0.0918	25.70	0.00	-1.500			
0.1917	12271.04	3.9240	3.9237	-0.1194	25.70	0.00	-1.500			
0.1921	12296.43	3.9210	3.9211	-0.1451	25.70	0.00	-1.500			
0.1926	12327.08	3.9180	3.9180	-0.1694	25.70	0.00	-1.500			
0.1932	12362.23	3.9150	3.9151	-0.1916	25.70	0.00	-1.500			
0.1938	12402.27	3.9120	3.9120	-0.2152	25.70	0.00	-1.500			
0.1945	12445.56	3.9090	3.9091	-0.2358	25.70	0.00	-1.500			
0.1952	12492.98	3.9060	3.9060	-0.2567	25.70	0.00	-1.500			
0.1960	12543.95	3.9030	3.9030	-0.2773	25.70	0.00	-1.500			
0.1969	12599.12	3.9000	3.9000	-0.2978	25.70	0.00	-1.500			
0.1978	12658.41	3.8970	3.8970	-0.3189	25.70	0.00	-1.500			
0.1988	12721.92	3.8940	3.8939	-0.3379	25.70	0.00	-1.500			
0.1998	12788.74	3.8910	3.8911	-0.3593	25.70	0.00	-1.500			
0.2009	12859.94	3.8880	3.8880	-0.3789	25.70	0.00	-1.500			
0.2021	12934.93	3.8850	3.8849	-0.3969	25.70	0.00	-1.500			
0.2033	13013.21	3.8820	3.8820	-0.4136	25.70	0.00	-1.500			
0.2046	13094.37	3.8790	3.8790	-0.4299	25.70	0.00	-1.500			
0.2059	13178.54	3.8760	3.8760	-0.4448	25.70	0.00	-1.500			
0.2073	13265.47	3.8730	3.8730	-0.4612	25.70	0.00	-1.500			
0.2087	13354.91	3.8700	3.8700	-0.4743	25.70	0.00	-1.500			
0.2101	13448.28	3.8670	3.8670	-0.4879	25.70	0.00	-1.500			
0.2116	13543.32	3.8640	3.8640	-0.5010	25.70	0.00	-1.500			
0.2131	13641.57	3.8610	3.8611	-0.5115	25.70	0.00	-1.500			
0.2147	13740.67	3.8580	3.8580	-0.5209	25.70	0.00	-1.500			
0.2163	13841.83	3.8550	3.8550	-0.5307	25.70	0.00	-1.500			
0.2179	13944.25	3.8520	3.8520	-0.5391	25.70	0.00	-1.500			
0.2195	14048.61	3.8490	3.8490	-0.5481	25.70	0.00	-1.500			
0.2212	14155.01	3.8460	3.8460	-0.5552	25.71	0.01	-1.500			
0.2229	14262.76	3.8430	3.8430	-0.5609	25.71	0.01	-1.500			
0.2246	14371.57	3.8400	3.8400	-0.5670	25.71	0.01	-1.500			
0.2263	14480.77	3.8370	3.8371	-0.5713	25.71	0.01	-1.500			
0.2280	14590.71	3.8340	3.8340	-0.5761	25.72	0.02	-1.500			
0.2297	14701.51	3.8310	3.8310	-0.5804	25.72	0.02	-1.500			
0.2315	14813.41	3.8280	3.8280	-0.5857	25.72	0.02	-1.500			
0.2332	14926.63	3.8250	3.8250	-0.5897	25.73	0.03	-1.500			
0.2350	15040.06	3.8220	3.8219	-0.5940	25.73	0.03	-1.500			
0.2368	15155.21	3.8190	3.8191	-0.5969	25.73	0.03	-1.500			
0.2386	15270.47	3.8160	3.8160	-0.5984	25.73	0.03	-1.500			
0.2404	15385.49	3.8130	3.8130	-0.6004	25.74	0.04	-1.500			
0.2422	15500.40	3.8100	3.8100	-0.6065	25.74	0.04	-1.500			
0.2440	15616.79	3.8070	3.8070	-0.6085	25.74	0.04	-1.500			
0.2459	15734.40	3.8040	3.8039	-0.6112	25.75	0.05	-1.500			
0.2477	15851.61	3.8010	3.8011	-0.6147	25.75	0.05	-1.500			
0.2496	15971.25	3.7980	3.7980	-0.6174	25.76	0.06	-1.500			
0.2514	16090.07	3.7950	3.7949	-0.6165	25.76	0.06	-1.500			
0.2532	16207.24	3.7920	3.7920	-0.6193	25.77	0.07	-1.500			
0.2551	16325.41	3.7890	3.7890	-0.6229	25.77	0.07	-1.500			
0.2570	16447.25	3.7860	3.7859	-0.6264	25.78	0.08	-1.500			
0.2589	16567.54	3.7830	3.7830	-0.6286	25.78	0.08	-1.500			
0.2607	16687.46	3.7800	3.7800	-0.6331	25.78	0.08	-1.500			
0.2627	16810.45	3.7770	3.7770	-0.6379	25.79	0.09	-1.500			
0.2646	16933.05	3.7740	3.7739	-0.6408	25.79	0.09	-1.500			
0.2665	17055.54	3.7710	3.7710	-0.6421	25.80	0.10	-1.500			
0.2684	17179.77	3.7680	3.7681	-0.6484	25.80	0.10	-1.500			
0.2704	17305.80	3.7650	3.7650	-0.6530	25.81	0.11	-1.500			
0.2724	17431.11	3.7620	3.7619	-0.6544	25.81	0.11	-1.500			
0.2743	17556.82	3.7590	3.7590	-0.6563	25.82	0.12	-1.500			
0.2763	17682.87	3.7560	3.7560	-0.6632	25.82	0.12	-1.500			
0.2783	17810.02	3.7530	3.7530	-0.6678	25.83	0.13	-1.500			
0.2803	17939.70	3.7500	3.7500	-0.6712	25.83	0.13	-1.500			
0.2823	18069.05	3.7470	3.7470	-0.6733	25.84	0.14	-1.500			
0.2844	18198.71	3.7440	3.7440	-0.6824	25.84	0.14	-1.500			
0.2864	18330.29	3.7410	3.7410	-0.6854	25.85	0.15	-1.500			
0.2885	18461.45	3.7380	3.7379	-0.6900	25.85	0.15	-1.500			
0.2905	18593.52	3.7350	3.7350	-0.6956	25.86	0.16	-1.500			
0.2926	18728.42	3.7320	3.7320	-0.7032	25.86	0.16	-1.500			
0.2948	18864.95	3.7290	3.7289	-0.7103	25.87	0.17	-1.500			
0.2969	19002.51	3.7260	3.7260	-0.7150	25.87	0.17	-1.500			
0.2991	19139.56	3.7230	3.7231	-0.7166	25.88	0.18	-1.500			
0.3012	19278.39	3.7200	3.7200	-0.7255	25.88	0.18	-1.500			
0.3034	19417.35	3.7170	3.7170	-0.7313	25.89	0.19	-1.500			
0.3056	19556.81	3.7140	3.7140	-0.7396	25.89	0.19	-1.500			
0.3078	19699.59	3.7110	3.7110	-0.7497	25.90	0.20	-1.500			
0.3101	19845.75	3.7080	3.7080	-0.7553	25.90	0.20	-1.500			
0.3124	19991.54	3.7050	3.7051	-0.7628	25.91	0.21	-1.500			
0.3147	20139.11	3.7020	3.7020	-0.7701	25.91	0.21	-1.500			
0.3170	20286.88	3.6990	3.6989	-0.7751	25.92	0.22	-1.500			
0.3193	20435.26	3.6960	3.6960	-0.7816	25.93	0.23	-1.500			
0.3217	20585.95	3.6930	3.6930	-0.7895	25.93	0.23	-1.500			
0.3240	20738.87	3.6900	3.6900	-0.7975	25.94	0.24	-1.500			
0.3265	20893.31	3.6870	3.6869	-0.8066	25.94	0.24	-1.500			
0.3289	21048.24	3.6840	3.6840	-0.8116	25.95	0.25	-1.500			
0.3313	21205.09	3.6810	3.6810	-0.8190	25.95	0.25	-1.500			
0.3338	21362.33	3.6780	3.6780	-0.8283	25.96	0.26	-1.500			
0.3363	21522.14	3.6750	3.6750	-0.8369	25.97	0.27	-1.500			
0.3388	21683.77	3.6720	3.6720	-0.8441	25.97	0.27	-1.500			
0.3413	21846.08	3.6690	3.6690	-0.8545	25.98	0.28	-1.500			
0.3439	22010.90	3.6660	3.6661	-0.8616	25.98	0.28	-1.500			
0.3465	22177.30	3.6630	3.6630	-0.8726	25.99	0.29	-1.500			
0.3492	22346.19	3.6600	3.6600	-0.8790	25.99	0.29	-1.500			
0.3518	22515.26	3.6570	3.6570	-0.8870	26.00	0.30	-1.500			
0.3545	22686.91	3.6540	3.6540	-0.8951	26.00	0.30	-1.500			
0.3572	22858.51	3.6510	3.6510	-0.9075	26.00	0.30	-1.500			
0.3599	23032.84	3.6480	3.6480	-0.9137	26.01	0.31	-1.500			
0.3627	23210.02	3.6450	3.6450	-0.9265	26.01	0.31	-1.500			
0.3655	23389.18	3.6420	3.6419	-0.9312	26.02	0.32	-1.500			
0.3683	23569.80	3.6390	3.6390	-0.9393	26.02	0.32	-1.500			
0.3711	23749.83	3.6360	3.6360	-0.9503	26.03	0.33	-1.500			
0.3740	23933.58	3.6330	3.6329	-0.9586	26.03	0.33	-1.500			
0.3768	24116.06	3.6300	3.6300	-0.9652	26.04	0.34	-1.500			
0.3797	24303.45	3.6270	3.6271	-0.9834	26.05	0.35	-1.500			
0.3827	24493.03	3.6240	3.6240	-0.9985	26.05	0.35	-1.500			
0.3857	24687.44	3.6210	3.6209	-1.0143	26.06	0.36	-1.500			
0.3888	24882.91	3.6180	3.6180	-1.0228	26.06	0.36	-1.500			
0.3919	25079.46	3.6150	3.6151	-1.0346	26.07	0.37	-1.500			
0.3950	25281.92	3.6120	3.6120	-1.0472	26.08	0.38	-1.500			
0.3982	25483.18	3.6090	3.6089	-1.0551	26.08	0.38	-1.500			
0.4013	25684.05	3.6060	3.6061	-1.0722	26.09	0.39	-1.500			
0.4046	25892.14	3.6030	3.6030	-1.0871	26.10	0.40	-1.500			
0.4079	26103.23	3.6000	3.5999	-1.1037	26.10	0.40	-1.500			
0.4112	26318.11	3.5970	3.5971	-1.1125	26.11	0.41	-1.500			
0.4146	26532.69	3.5940	3.5940	-1.1229	26.12	0.42	-1.500			
0.4180	26749.06	3.5910	3.5911	-1.1404	26.12	0.42	-1.500			
0.4214	26967.95	3.5880	3.5879	-1.1494	26.12	0.42	-1.500			
0.4248	27188.26	3.5850	3.5850	-1.1649	26.13	0.43	-1.500			
0.4283	27414.26	3.5820	3.5821	-1.1856	26.13	0.43	-1.500			
0.4319	27644.11	3.5790	3.5790	-1.2073	26.13	0.43	-1.500			
0.4356	27878.46	3.5760	3.5760	-1.2244	26.13	0.43	-1.500			
0.4393	28114.38	3.5730	3.5730	-1.2399	26.14	0.44	-1.500			
0.4430	28353.84	3.5700	3.5700	-1.2549	26.14	0.44	-1.500			
0.4468	28597.36	3.5670	3.5669	-1.2749	26.15	0.45	-1.500			
0.4507	28843.60	3.5640	3.5640	-1.2879	26.16	0.46	-1.500			
0.4546	29091.65	3.5610	3.5610	-1.3056	26.17	0.47	-1.500			
0.4585	29344.33	3.5580	3.5580	-1.3229	26.17	0.47	-1.500			
0.4625	29600.36	3.5550	3.5551	-1.3374	26.18	0.48	-1.500			
0.4665	29856.58	3.5520	3.5520	-1.3581	26.19	0.49	-1.500			
0.4706	30119.34	3.5490	3.5491	-1.3797	26.20	0.50	-1.500			
0.4748	30385.54	3.5460	3.5459	-1.3987	26.21	0.51	-1.500			
0.4790	30657.73	3.5430	3.5430	-1.4192	26.21	0.51	-1.500			
0.4833	30933.03	3.5400	3.5401	-1.4375	26.22	0.52	-1.500			
0.4877	31212.61	3.5370	3.5370	-1.4549	26.23	0.53	-1.500			
0.4920	31490.97	3.5340	3.5341	-1.4775	26.24	0.54	-1.500			
0.4964	31772.68	3.5310	3.5310	-1.4913	26.25	0.55	-1.500			
0.5010	32062.25	3.5280	3.5280	-1.5142	26.25	0.55	-1.500			
0.5056	32358.80	3.5250	3.5249	-1.5256	26.26	0.56	-1.500			
0.5102	32655.95	3.5220	3.5219	-1.5404	26.27	0.57	-1.500	0.372	0.555	
0.5149	32951.02	3.5190	3.5190	-1.5494	26.28	0.58	-1.500			
0.5195	33250.44	3.5160	3.5160	-1.5547	26.29	0.59	-1.500			
0.5242	33546.39	3.5130	3.5129	-1.5570	26.30	0.60	-1.500			
0.5288	33844.32	3.5100	3.5100	-1.5646	26.31	0.61	-1.500			
0.5335	34145.84	3.5070	3.5071	-1.5765	26.32	0.62	-1.500			
0.5383	34451.61	3.5040	3.5039	-1.5881	26.33	0.63	-1.500			
0.5431	34756.23	3.5010	3.5010	-1.5960	26.34	0.64	-1.500			
0.5479	35063.19	3.4980	3.4980	-1.6044	26.35	0.65	-1.500			
0.5527	35374.69	3.4950	3.4950	-1.6129	26.36	0.66	-1.500			
0.5576	35685.06	3.4920	3.4920	-1.6167	26.37	0.67	-1.500			
0.5625	35996.82	3.4890	3.4890	-1.6206	26.38	0.68	-1.500			
0.5673	36308.86	3.4860	3.4860	-1.6139	26.39	0.69	-1.500			
0.5722	36619.88	3.4830	3.4831	-1.6101	26.40	0.70	-1.500			
0.5770	36928.46	3.4800	3.4799	-1.6075	26.42	0.72	-1.500			
0.5818	37237.50	3.4770	3.4769	-1.5973	26.43	0.73	-1.500			
0.5866	37542.82	3.4740	3.4740	-1.5874	26.44	0.74	-1.500			
0.5913	37845.56	3.4710	3.4712	-1.5736	26.46	0.76	-1.500			
0.5961	38147.89	3.4680	3.4679	-1.5689	26.47	0.77	-1.500			
0.6008	38450.13	3.4650	3.4649	-1.5532	26.48	0.78	-1.500			
0.6054	38745.99	3.4620	3.4620	-1.5306	26.50	0.80	-1.500			
0.6100	39037.16	3.4590	3.4590	-1.5142	26.51	0.81	-1.500			
0.6145	39330.97	3.4560	3.4560	-1.4997	26.52	0.82	-1.500			
0.6190	39615.48	3.4530	3.4530	-1.4808	26.54	0.84	-1.500			
0.6234	39895.96	3.4500	3.4500	-1.4626	26.55	0.85	-1.500			
0.6277	40173.97	3.4470	3.4470	-1.4477	26.57	0.87	-1.500			
0.6321	40452.00	3.4440	3.4440	-1.4333	26.58	0.88	-1.500			
0.6364	40727.63	3.4410	3.4410	-1.4152	26.60	0.90	-1.500			
0.6406	40997.75	3.4380	3.4380	-1.3971	26.61	0.91	-1.500			
0.6448	41264.32	3.4350	3.4350	-1.3810	26.63	0.93	-1.500			
0.6488	41525.09	3.4320	3.4320	-1.3609	26.65	0.95	-1.500			
0.6529	41784.88	3.4290	3.4289	-1.3509	26.67	0.97	-1.500			
0.6569	42043.60	3.4260	3.4260	-1.3316	26.68	0.98	-1.500			
0.6609	42300.31	3.4230	3.4230	-1.3182	26.70	1.00	-1.500			
0.6649	42552.64	3.4200	3.4201	-1.2948	26.72	1.02	-1.500			
0.6687	42799.37	3.4170	3.4170	-1.2705	26.73	1.03	-1.500			
0.6725	43041.28	3.4140	3.4140	-1.2407	26.74	1.04	-1.500			
0.6762	43274.72	3.4110	3.4110	-1.2098	26.76	1.06	-1.500			
0.6797	43503.92	3.4080	3.4080	-1.1922	26.78	1.08	-1.500			
0.6833	43731.72	3.4050	3.4050	-1.1685	26.79	1.09	-1.500			
0.6868	43953.71	3.4020	3.4019	-1.1433	26.81	1.11	-1.500			
0.6902	44171.90	3.3990	3.3991	-1.1139	26.82	1.12	-1.500			
0.6935	44383.76	3.3960	3.3961	-1.0878	26.83	1.13	-1.500			
0.6967	44590.91	3.3930	3.3930	-1.0603	26.85	1.15	-1.500			
0.6999	44790.73	3.3900	3.3899	-1.0252	26.87	1.17	-1.500			
0.7029	44984.91	3.3870	3.3870	-0.9935	26.88	1.18	-1.500			
0.7058	45172.64	3.3840	3.3841	-0.9632	26.90	1.20	-1.500			
0.7087	45354.37	3.3810	3.3811	-0.9368	26.92	1.22	-1.500			
0.7114	45531.86	3.3780	3.3779	-0.9081	26.93	1.23	-1.500			
0.7141	45701.12	3.3750	3.3749	-0.8788	26.94	1.24	-1.500			
0.7167	45867.68	3.3720	3.3721	-0.8546	26.95	1.25	-1.500			
0.7192	46030.09	3.3690	3.3690	-0.8300	26.96	1.26	-1.500			
0.7217	46188.16	3.3660	3.3660	-0.8072	26.97	1.27	-1.500			
0.7241	46339.78	3.3630	3.3630	-0.7832	26.98	1.28	-1.500			
0.7263	46485.85	3.3600	3.3600	-0.7628	26.99	1.29	-1.500			
0.7286	46632.06	3.3570	3.3569	-0.7403	27.00	1.30	-1.500			
0.7308	46772.00	3.3540	3.3540	-0.7164	27.01	1.31	-1.500			
0.7329	46907.08	3.3510	3.3511	-0.7005	27.02	1.32	-1.500			
0.7350	47039.03	3.3480	3.3480	-0.6838	27.03	1.33	-1.500			
0.7370	47168.59	3.3450	3.3449	-0.6631	27.04	1.34	-1.500			
0.7390	47293.98	3.3420	3.3421	-0.6474	27.05	1.35	-1.500			
0.7409	47416.14	3.3390	3.3390	-0.6297	27.06	1.36	-1.500			
0.7428	47536.72	3.3360	3.3360	-0.6176	27.06	1.36	-1.500			
0.7446	47653.51	3.3330	3.3329	-0.6004	27.07	1.37	-1.500			
0.7463	47766.07	3.3300	3.3300	-0.5823	27.08	1.38	-1.500			
0.7481	47876.53	3.3270	3.3270	-0.5681	27.09	1.39	-1.500			
0.7498	47984.92	3.3240	3.3240	-0.5565	27.10	1.40	-1.500			
0.7514	48089.64	3.3210	3.3210	-0.5401	27.11	1.41	-1.500			
0.7530	48192.07	3.3180	3.3180	-0.5283	27.12	1.42	-1.500			
0.7546	48291.48	3.3150	3.3150	-0.5149	27.13	1.43	-1.500			
0.7561	48390.10	3.3120	3.3120	-0.5026	27.14	1.44	-1.500			
0.7576	48485.19	3.3090	3.3090	-0.4910	27.15	1.45	-1.500			
0.7590	48577.82	3.3060	3.3060	-0.4801	27.16	1.46	-1.500			
0.7605	48669.07	3.3030	3.3030	-0.4674	27.16	1.46	-1.500			
0.7618	48757.71	3.3000	3.2999	-0.4579	27.17	1.47	-1.500			
0.7632	48844.28	3.2970	3.2970	-0.4454	27.18	1.48	-1.500			
0.7645	48929.15	3.2940	3.2940	-0.4334	27.19	1.49	-1.500			
0.7658	49011.62	3.2910	3.2910	-0.4236	27.20	1.50	-1.500			
0.7670	49090.66	3.2880	3.2881	-0.4126	27.21	1.51	-1.500			
0.7683	49168.91	3.2850	3.2850	-0.4038	27.22	1.52	-1.500			
0.7695	49245.82	3.2820	3.2819	-0.3952	27.23	1.53	-1.500			
0.7706	49320.32	3.2790	3.2790	-0.3854	27.23	1.53	-1.500			
0.7718	49393.49	3.2760	3.2761	-0.3792	27.24	1.54	-1.500			
0.7729	49465.68	3.2730	3.2729	-0.3707	27.25	1.55	-1.500			
0.7740	49535.86	3.2700	3.2701	-0.3613	27.25	1.55	-1.500			
0.7751	49604.37	3.2670	3.2669	-0.3537	27.26	1.56	-1.500			
0.7761	49671.77	3.2640	3.2642	-0.3468	27.27	1.57	-1.500			
0.7772	49737.90	3.2610	3.2609	-0.3389	27.27	1.57	-1.500			
0.7782	49801.71	3.2580	3.2580	-0.3311	27.28	1.58	-1.500			
0.7791	49864.27	3.2550	3.2550	-0.3241	27.28	1.58	-1.500			
0.7801	49925.36	3.2520	3.2520	-0.3198	27.29	1.59	-1.500			
0.7810	49986.20	3.2490	3.2490	-0.3145	27.30	1.60	-1.500			
0.7820	50046.16	3.2460	3.2459	-0.3079	27.30	1.60	-1.500			
0.7829	50104.88	3.2430	3.2430	-0.3029	27.31	1.61	-1.500			
0.7838	50162.76	3.2400	3.2401	-0.2976	27.31	1.61	-1.500			
0.7847	50219.15	3.2370	3.2370	-0.2911	27.32	1.62	-1.500			
0.7855	50274.06	3.2340	3.2340	-0.2848	27.33	1.63	-1.500			
0.7864	50327.75	3.2310	3.2310	-0.2806	27.33	1.63	-1.500			
0.7872	50381.39	3.2280	3.2281	-0.2771	27.34	1.64	-1.500			
0.7880	50434.66	3.2250	3.2250	-0.2728	27.34	1.64	-1.500			
0.7888	50486.38	3.2220	3.2219	-0.2683	27.35	1.65	-1.500			
0.7897	50537.74	3.2190	3.2190	-0.2641	27.35	1.65	-1.500			
0.7904	50587.73	3.2160	3.2160	-0.2581	27.36	1.66	-1.500			
0.7912	50636.89	3.2130	3.2130	-0.2545	27.36	1.66	-1.500			
0.7920	50685.10	3.2100	3.2101	-0.2500	27.37	1.67	-1.500			
0.7927	50732.49	3.2070	3.2070	-0.2460	27.38	1.68	-1.500			
0.7934	50779.18	3.2040	3.2039	-0.2434	27.38	1.68	-1.500			
0.7941	50825.54	3.2010	3.2011	-0.2405	27.39	1.69	-1.500			
0.7949	50871.36	3.1980	3.1980	-0.2368	27.39	1.69	-1.500			
0.7956	50916.85	3.1950	3.1950	-0.2342	27.40	1.70	-1.500			
0.7963	50961.64	3.1920	3.1920	-0.2315	27.41	1.71	-1.500			
0.7970	51005.65	3.1890	3.1890	-0.2275	27.41	1.71	-1.500			
0.7976	51049.13	3.1860	3.1859	-0.2249	27.42	1.72	-1.500			
0.7983	51091.97	3.1830	3.1830	-0.2214	27.42	1.72	-1.500			
0.7990	51133.75	3.1800	3.1801	-0.2187	27.43	1.73	-1.500			
0.7996	51175.39	3.1770	3.1770	-0.2163	27.44	1.74	-1.500			
0.8003	51216.94	3.1740	3.1739	-0.2139	27.44	1.74	-1.500			
0.8009	51257.75	3.1710	3.1710	-0.2112	27.45	1.75	-1.500			
0.8015	51297.93	3.1680	3.1681	-0.2086	27.45	1.75	-1.500			
0.8022	51337.80	3.1650	3.1650	-0.2072	27.46	1.76	-1.500			
0.8028	51377.30	3.1620	3.1620	-0.2044	27.46	1.76	-1.500			
0.8034	51416.35	3.1590	3.1589	-0.2023	27.47	1.77	-1.500			
0.8040	51454.89	3.1560	3.1560	-0.1999	27.47	1.77	-1.500			
0.8046	51493.08	3.1530	3.1531	-0.1978	27.48	1.78	-1.500			
0.8052	51530.86	3.1500	3.1500	-0.1963	27.49	1.79	-1.500			
0.8058	51568.24	3.1470	3.1469	-0.1941	27.49	1.79	-1.500			
0.8063	51605.35	3.1440	3.1440	-0.1923	27.50	1.80	-1.500			
0.8069	51641.94	3.1410	3.1409	-0.1900	27.51	1.81	-1.500			
0.8075	51678.45	3.1380	3.1381	-0.1887	27.51	1.81	-1.500			
0.8080	51714.49	3.1350	3.1350	-0.1867	27.52	1.82	-1.500			
0.8086	51750.30	3.1320	3.1320	-0.1843	27.53	1.83	-1.500			
0.8091	51785.26	3.1290	3.1290	-0.1827	27.53	1.83	-1.500			
0.8097	51819.88	3.1260	3.1261	-0.1808	27.54	1.84	-1.500			
0.8102	51854.48	3.1230	3.1229	-0.1797	27.55	1.85	-1.500			
0.8108	51888.85	3.1200	3.1199	-0.1782	27.55	1.85	-1.500			
0.8113	51923.05	3.1170	3.1171	-0.1767	27.56	1.86	-1.500			
0.8118	51956.90	3.1140	3.1139	-0.1753	27.56	1.86	-1.500			
0.8123	51990.33	3.1110	3.1111	-0.1742	27.57	1.87	-1.500			
0.8129	52023.71	3.1080	3.1080	-0.1736	27.57	1.87	-1.500			
0.8134	52056.93	3.1050	3.1049	-0.1713	27.58	1.88	-1.500			
0.8139	52089.69	3.1020	3.1020	-0.1700	27.58	1.88	-1.500			
0.8144	52122.26	3.0990	3.0990	-0.1686	27.59	1.89	-1.500			
0.8149	52154.46	3.0960	3.0962	-0.1678	27.59	1.89	-1.500			
0.8154	52186.63	3.0930	3.0929	-0.1665	27.60	1.90	-1.500			
0.8159	52218.46	3.0900	3.0899	-0.1651	27.60	1.90	-1.500			
0.8164	52249.79	3.0870	3.0870	-0.1638	27.60	1.90	-1.500			
0.8169	52281.22	3.0840	3.0841	-0.1622	27.61	1.91	-1.500			
0.8174	52312.72	3.0810	3.0809	-0.1615	27.62	1.92	-1.500			
0.8179	52343.48	3.0780	3.0779	-0.1596	27.62	1.92	-1.500			
0.8183	52373.68	3.0750	3.0750	-0.1586	27.63	1.93	-1.500			
0.8188	52403.73	3.0720	3.0720	-0.1572	27.64	1.94	-1.500			
0.8193	52433.87	3.0690	3.0690	-0.1567	27.64	1.94	-1.500			
0.8197	52463.87	3.0660	3.0659	-0.1559	27.65	1.95	-1.500			
0.8202	52493.79	3.0630	3.0630	-0.1547	27.66	1.96	-1.500			
0.8207	52523.70	3.0600	3.0600	-0.1542	27.66	1.96	-1.500			
0.8211	52553.17	3.0570	3.0570	-0.1527	27.67	1.97	-1.500			
0.8216	52582.41	3.0540	3.0540	-0.1518	27.68	1.98	-1.500			
0.8220	52611.06	3.0510	3.0510	-0.1506	27.68	1.98	-1.500			
0.8225	52639.86	3.0480	3.0480	-0.1499	27.69	1.99	-1.500			
0.8229	52668.61	3.0450	3.0450	-0.1496	27.69	1.99	-1.500			
0.8234	52697.37	3.0420	3.0420	-0.1482	27.70	2.00	-1.500			
0.8238	52725.84	3.0390	3.0390	-0.1478	27.71	2.01	-1.500			
0.8243	52754.20	3.0360	3.0360	-0.1469	27.71	2.01	-1.500			
0.8247	52782.29	3.0330	3.0330	-0.1457	27.72	2.02	-1.500			
0.8252	52809.99	3.0300	3.0299	-0.1453	27.73	2.03	-1.500			
0.8256	52837.92	3.0270	3.0270	-0.1438	27.73	2.03	-1.500			
0.8260	52865.53	3.0240	3.0240	-0.1428	27.74	2.04	-1.500			
0.8265	52892.84	3.0210	3.0210	-0.1416	27.74	2.04	-1.500			
0.8269	52920.04	3.0180	3.0181	-0.1411	27.75	2.05	-1.500			
0.8273	52946.83	3.0150	3.0149	-0.1397	27.76	2.06	-1.500			
0.8277	52973.56	3.0120	3.0120	-0.1389	27.76	2.06	-1.500			
0.8281	53000.15	3.0090	3.0089	-0.1380	27.77	2.07	-1.500			
0.8285	53026.32	3.0060	3.0061	-0.1387	27.77	2.07	-1.500			
0.8290	53052.91	3.0030	3.0030	-0.1357	27.78	2.08	-1.500			
