Ah_balance (normalized)	Ah_balance (mAh)	Voltage - fit (V)	Voltage -  interpolate (V)	dQ/dV (1/V)	Temperature (°C)	Temperature - diff (°C)	Current (C)	R_DC 0ms (mOhm)	R_DC 50ms (mOhm)	R_DC 50 ms PEC (mOhm)
0.2400	15357.51	3.9740	3.9740	0.8801	25.99	0.02	0.750			
0.2426	15524.95	3.9710	3.9710	0.8693	25.99	0.02	0.750			
0.2452	15691.86	3.9680	3.9681	0.8713	26.00	0.03	0.750			
0.2478	15858.95	3.9650	3.9648	0.8751	26.00	0.03	0.750			
0.2504	16027.11	3.9620	3.9620	0.8775	26.00	0.03	0.750			
0.2531	16195.53	3.9590	3.9590	0.8825	26.01	0.04	0.750			
0.2557	16367.47	3.9560	3.9560	0.8848	26.01	0.04	0.750			
0.2584	16537.39	3.9530	3.9530	0.8850	26.02	0.05	0.750			
0.2610	16706.31	3.9500	3.9500	0.8860	26.02	0.05	0.750			
0.2637	16877.33	3.9470	3.9470	0.8843	26.02	0.05	0.750			
0.2664	17046.83	3.9440	3.9440	0.8855	26.02	0.05	0.750			
0.2690	17216.56	3.9410	3.9411	0.8898	26.03	0.06	0.750			
0.2717	17386.81	3.9380	3.9380	0.8924	26.03	0.06	0.750			
0.2744	17559.83	3.9350	3.9350	0.8968	26.03	0.06	0.750			
0.2770	17730.92	3.9320	3.9320	0.8982	26.03	0.06	0.750			
0.2797	17903.94	3.9290	3.9290	0.9016	26.03	0.06	0.750			
0.2825	18079.12	3.9260	3.9260	0.9056	26.03	0.06	0.750			
0.2852	18252.25	3.9230	3.9229	0.9022	26.03	0.06	0.750			
0.2879	18425.95	3.9200	3.9201	0.9019	26.03	0.06	0.750			
0.2906	18598.96	3.9170	3.9170	0.9056	26.03	0.06	0.750			
0.2933	18772.46	3.9140	3.9140	0.9090	26.04	0.07	0.750			
0.2960	18946.73	3.9110	3.9110	0.9112	26.04	0.07	0.750			
0.2988	19121.72	3.9080	3.9080	0.9153	26.04	0.07	0.750			
0.3015	19298.70	3.9050	3.9050	0.9154	26.04	0.07	0.750			
0.3043	19475.24	3.9020	3.9020	0.9225	26.04	0.07	0.750			
0.3071	19652.01	3.8990	3.8990	0.9264	26.04	0.07	0.750			
0.3098	19830.03	3.8960	3.8959	0.9285	26.04	0.07	0.750			
0.3126	20009.12	3.8930	3.8931	0.9319	26.04	0.07	0.750			
0.3154	20188.67	3.8900	3.8900	0.9396	26.04	0.07	0.750			
0.3183	20369.61	3.8870	3.8870	0.9444	26.03	0.06	0.750			
0.3211	20552.51	3.8840	3.8840	0.9482	26.03	0.06	0.750			
0.3240	20734.11	3.8810	3.8810	0.9511	26.03	0.06	0.750			
0.3268	20917.02	3.8780	3.8780	0.9522	26.03	0.06	0.750			
0.3297	21099.89	3.8750	3.8750	0.9576	26.02	0.05	0.750			
0.3326	21283.78	3.8720	3.8720	0.9601	26.02	0.05	0.750			
0.3354	21467.77	3.8690	3.8689	0.9623	26.02	0.05	0.750			
0.3384	21655.07	3.8660	3.8660	0.9614	26.02	0.05	0.750			
0.3412	21839.07	3.8630	3.8630	0.9719	26.02	0.05	0.750			
0.3442	22025.76	3.8600	3.8600	0.9768	26.02	0.05	0.750			
0.3471	22213.53	3.8570	3.8569	0.9829	26.02	0.05	0.750			
0.3501	22403.48	3.8540	3.8541	0.9871	26.02	0.05	0.750			
0.3530	22593.80	3.8510	3.8510	0.9969	26.02	0.05	0.750			
0.3560	22786.22	3.8480	3.8480	1.0027	26.02	0.05	0.750			
0.3590	22978.19	3.8450	3.8450	1.0068	26.02	0.05	0.750			
0.3621	23174.46	3.8420	3.8419	1.0129	26.02	0.05	0.750			
0.3651	23368.96	3.8390	3.8391	1.0243	26.01	0.04	0.750			
0.3682	23566.00	3.8360	3.8361	1.0339	26.01	0.04	0.750			
0.3714	23766.45	3.8330	3.8330	1.0462	26.00	0.03	0.750			
0.3745	23967.50	3.8300	3.8300	1.0509	26.00	0.03	0.750			
0.3776	24169.53	3.8270	3.8270	1.0643	26.00	0.03	0.750			
0.3809	24375.18	3.8240	3.8240	1.0715	26.00	0.03	0.750			
0.3841	24584.04	3.8210	3.8210	1.0848	26.00	0.03	0.750			
0.3874	24790.72	3.8180	3.8181	1.0897	26.00	0.03	0.750			
0.3906	25001.56	3.8150	3.8150	1.1003	25.99	0.02	0.750			
0.3940	25213.78	3.8120	3.8120	1.1106	25.99	0.02	0.750			
0.3973	25428.47	3.8090	3.8090	1.1180	25.98	0.01	0.750			
0.4007	25641.87	3.8060	3.8060	1.1314	25.98	0.01	0.750			
0.4041	25860.85	3.8030	3.8030	1.1476	25.97	0.00	0.750			
0.4075	26081.69	3.8000	3.8000	1.1600	25.96	-0.01	0.750			
0.4110	26306.52	3.7970	3.7970	1.1686	25.96	-0.01	0.750			
0.4146	26531.72	3.7940	3.7941	1.1919	25.96	-0.01	0.750			
0.4181	26761.31	3.7910	3.7910	1.2132	25.95	-0.02	0.750			
0.4218	26997.87	3.7880	3.7879	1.2272	25.95	-0.02	0.750			
0.4255	27233.99	3.7850	3.7850	1.2411	25.95	-0.02	0.750			
0.4293	27475.24	3.7820	3.7821	1.2624	25.95	-0.02	0.750			
0.4331	27719.30	3.7790	3.7790	1.2836	25.94	-0.03	0.750			
0.4370	27967.18	3.7760	3.7760	1.3046	25.94	-0.03	0.750			
0.4409	28216.79	3.7730	3.7730	1.3214	25.93	-0.04	0.750			
0.4449	28472.84	3.7700	3.7700	1.3448	25.93	-0.04	0.750			
0.4490	28734.47	3.7670	3.7670	1.3719	25.92	-0.05	0.750			
0.4531	28998.60	3.7640	3.7640	1.3994	25.92	-0.05	0.750			
0.4574	29271.23	3.7610	3.7610	1.4215	25.91	-0.06	0.750			
0.4617	29547.05	3.7580	3.7580	1.4461	25.91	-0.06	0.750			
0.4661	29827.43	3.7550	3.7550	1.4728	25.90	-0.07	0.750			
0.4705	30109.32	3.7520	3.7521	1.5137	25.89	-0.08	0.750			
0.4751	30404.16	3.7490	3.7490	1.5447	25.88	-0.09	0.750			
0.4797	30703.32	3.7460	3.7460	1.5795	25.87	-0.10	0.750			
0.4845	31010.04	3.7430	3.7429	1.6176	25.87	-0.10	0.750			
0.4895	31326.02	3.7400	3.7401	1.6646	25.86	-0.11	0.750			
0.4945	31649.65	3.7370	3.7371	1.7021	25.85	-0.12	0.750			
0.4997	31980.94	3.7340	3.7339	1.7340	25.84	-0.13	0.750			
0.5049	32313.80	3.7310	3.7311	1.7657	25.83	-0.14	0.750			
0.5103	32658.37	3.7280	3.7279	1.8155	25.82	-0.15	0.750			
0.5158	33010.11	3.7250	3.7250	1.8604	25.81	-0.16	0.750			
0.5214	33369.96	3.7220	3.7219	1.9031	25.80	-0.17	0.750			
0.5272	33738.21	3.7190	3.7190	1.9600	25.79	-0.18	0.750			
0.5331	34120.79	3.7160	3.7160	2.0076	25.77	-0.20	0.750			
0.5393	34513.86	3.7130	3.7130	2.0644	25.75	-0.22	0.750	0.361	0.496	
0.5455	34913.28	3.7100	3.7100	2.1073	25.74	-0.23	0.750			
0.5519	35322.19	3.7070	3.7070	2.1578	25.73	-0.24	0.750			
0.5584	35738.75	3.7040	3.7041	2.2114	25.72	-0.25	0.750			
0.5652	36170.29	3.7010	3.7010	2.2874	25.71	-0.26	0.750			
0.5721	36614.17	3.6980	3.6979	2.3319	25.70	-0.27	0.750			
0.5792	37068.63	3.6950	3.6951	2.3881	25.69	-0.28	0.750			
0.5865	37533.13	3.6920	3.6919	2.4328	25.68	-0.29	0.750			
0.5938	38000.48	3.6890	3.6890	2.4859	25.68	-0.29	0.750			
0.6014	38487.86	3.6860	3.6859	2.5688	25.67	-0.30	0.750			
0.6092	38991.57	3.6830	3.6830	2.6264	25.66	-0.31	0.750			
0.6173	39505.95	3.6800	3.6802	2.6530	25.65	-0.32	0.750			
0.6252	40015.20	3.6770	3.6771	2.6639	25.65	-0.32	0.750			
0.6333	40528.58	3.6740	3.6739	2.6203	25.65	-0.32	0.750			
0.6412	41035.60	3.6710	3.6710	2.5673	25.65	-0.32	0.750			
0.6489	41532.40	3.6680	3.6679	2.4478	25.64	-0.33	0.750			
0.6561	41988.35	3.6650	3.6651	2.2618	25.64	-0.33	0.750			
0.6625	42400.35	3.6620	3.6620	2.0633	25.64	-0.33	0.750			
0.6684	42780.03	3.6590	3.6590	1.8918	25.64	-0.33	0.750			
0.6737	43114.67	3.6560	3.6560	1.7215	25.64	-0.33	0.750			
0.6786	43431.00	3.6530	3.6530	1.6025	25.64	-0.33	0.750			
0.6832	43722.66	3.6500	3.6500	1.5074	25.64	-0.33	0.750			
0.6874	43994.57	3.6470	3.6470	1.4266	25.64	-0.33	0.750			
0.6915	44256.99	3.6440	3.6440	1.3566	25.64	-0.33	0.750			
0.6955	44511.79	3.6410	3.6411	1.3074	25.64	-0.33	0.750			
0.6994	44758.60	3.6380	3.6381	1.2616	25.64	-0.33	0.750			
0.7030	44993.49	3.6350	3.6350	1.2259	25.64	-0.33	0.750			
0.7066	45221.33	3.6320	3.6320	1.1981	25.65	-0.32	0.750			
0.7101	45446.79	3.6290	3.6289	1.1838	25.65	-0.32	0.750			
0.7136	45669.31	3.6260	3.6261	1.1769	25.65	-0.32	0.750			
0.7171	45896.63	3.6230	3.6230	1.1796	25.66	-0.31	0.750			
0.7207	46123.15	3.6200	3.6200	1.1806	25.66	-0.31	0.750			
0.7242	46350.85	3.6170	3.6170	1.1738	25.66	-0.31	0.750			
0.7277	46575.81	3.6140	3.6140	1.1742	25.66	-0.31	0.750			
0.7313	46801.18	3.6110	3.6110	1.1737	25.66	-0.31	0.750			
0.7348	47026.49	3.6080	3.6079	1.1763	25.66	-0.31	0.750			
0.7383	47250.53	3.6050	3.6051	1.1736	25.66	-0.31	0.750			
0.7418	47475.57	3.6020	3.6020	1.1878	25.67	-0.30	0.750			
0.7454	47703.79	3.5990	3.5990	1.1994	25.68	-0.29	0.750			
0.7490	47933.89	3.5960	3.5960	1.2183	25.68	-0.29	0.750			
0.7526	48166.73	3.5930	3.5931	1.2493	25.69	-0.28	0.750			
0.7564	48407.27	3.5900	3.5900	1.2856	25.69	-0.28	0.750			
0.7603	48658.15	3.5870	3.5869	1.3192	25.70	-0.27	0.750			
0.7643	48914.56	3.5840	3.5840	1.3623	25.70	-0.27	0.750			
0.7685	49181.08	3.5810	3.5811	1.3982	25.71	-0.26	0.750			
0.7727	49453.58	3.5780	3.5779	1.4480	25.71	-0.26	0.750			
0.7771	49734.41	3.5750	3.5750	1.4870	25.72	-0.25	0.750			
0.7816	50025.55	3.5720	3.5721	1.5218	25.72	-0.25	0.750			
0.7863	50323.51	3.5690	3.5688	1.5584	25.73	-0.24	0.750			
0.7910	50626.50	3.5660	3.5661	1.5911	25.73	-0.24	0.750			
0.7959	50936.76	3.5630	3.5630	1.6081	25.74	-0.23	0.750			
0.8008	51250.60	3.5600	3.5600	1.6181	25.74	-0.23	0.750			
0.8057	51564.45	3.5570	3.5570	1.6111	25.75	-0.22	0.750			
0.8106	51876.19	3.5540	3.5539	1.6085	25.76	-0.21	0.750			
0.8154	52185.25	3.5510	3.5510	1.6056	25.77	-0.20	0.750			
0.8202	52490.22	3.5480	3.5480	1.5869	25.78	-0.19	0.750			
0.8249	52793.38	3.5450	3.5450	1.5651	25.78	-0.19	0.750			
0.8298	53104.61	3.5420	3.5419	1.4894	25.79	-0.18	0.750			
0.8344	53398.58	3.5390	3.5390	1.3944	25.79	-0.18	0.750			
0.8385	53664.92	3.5360	3.5362	1.2209	25.80	-0.17	0.750			
0.8421	53896.15	3.5330	3.5331	1.0461	25.81	-0.16	0.750			
0.8449	54071.93	3.5300	3.5301	0.8552	25.81	-0.16	0.750			
0.8470	54210.77	3.5270	3.5268	0.6817	25.82	-0.15	0.750			
0.8486	54308.48	3.5240	3.5239	0.5470	25.82	-0.15	0.750			
0.8499	54396.35	3.5210	3.5208	0.4561	25.83	-0.14	0.750			
0.8510	54465.96	3.5180	3.5179	0.3917	25.84	-0.13	0.750			
0.8521	54534.86	3.5150	3.5149	0.3547	25.85	-0.12	0.750			
0.8531	54595.85	3.5120	3.5120	0.3270	25.85	-0.12	0.750			
0.8540	54655.93	3.5090	3.5089	0.3092	25.86	-0.11	0.750			
0.8549	54712.20	3.5060	3.5060	0.2948	25.86	-0.11	0.750			
0.8557	54767.33	3.5030	3.5030	0.2842	25.87	-0.10	0.750			
0.8566	54820.47	3.5000	3.5000	0.2749	25.87	-0.10	0.750			
0.8574	54872.42	3.4970	3.4969	0.2679	25.88	-0.09	0.750			
0.8582	54922.61	3.4940	3.4941	0.2601	25.88	-0.09	0.750			
0.8589	54971.83	3.4910	3.4910	0.2541	25.89	-0.08	0.750			
0.8597	55020.03	3.4880	3.4880	0.2491	25.89	-0.08	0.750			
0.8604	55067.56	3.4850	3.4850	0.2436	25.90	-0.07	0.750			
0.8611	55113.41	3.4820	3.4820	0.2376	25.90	-0.07	0.750			
0.8619	55158.77	3.4790	3.4790	0.2329	25.91	-0.06	0.750			
0.8625	55202.86	3.4760	3.4761	0.2276	25.91	-0.06	0.750			
0.8632	55245.94	3.4730	3.4730	0.2229	25.91	-0.06	0.750			
0.8639	55288.17	3.4700	3.4700	0.2181	25.92	-0.05	0.750			
0.8645	55329.65	3.4670	3.4670	0.2134	25.92	-0.05	0.750			
0.8652	55369.99	3.4640	3.4640	0.2088	25.93	-0.04	0.750			
0.8658	55409.99	3.4610	3.4611	0.2047	25.93	-0.04	0.750			
0.8664	55448.82	3.4580	3.4580	0.1999	25.93	-0.04	0.750			
0.8670	55486.62	3.4550	3.4549	0.1956	25.94	-0.03	0.750			
0.8676	55523.73	3.4520	3.4520	0.1914	25.94	-0.03	0.750			
0.8681	55560.05	3.4490	3.4490	0.1867	25.94	-0.03	0.750			
0.8687	55595.49	3.4460	3.4460	0.1825	25.95	-0.02	0.750			
0.8692	55630.23	3.4430	3.4430	0.1781	25.95	-0.02	0.750			
0.8698	55664.06	3.4400	3.4400	0.1732	25.95	-0.02	0.750			
0.8703	55696.92	3.4370	3.4369	0.1688	25.95	-0.02	0.750			
0.8708	55728.85	3.4340	3.4340	0.1638	25.96	-0.01	0.750			
0.8712	55759.71	3.4310	3.4311	0.1589	25.96	-0.01	0.750			
0.8717	55789.72	3.4280	3.4280	0.1542	25.96	-0.01	0.750			
0.8722	55818.93	3.4250	3.4250	0.1497	25.97	-0.00	0.750			
0.8726	55847.26	3.4220	3.4221	0.1445	25.97	-0.00	0.750			
0.8730	55874.51	3.4190	3.4190	0.1397	25.97	-0.00	0.750			
0.8735	55900.97	3.4160	3.4161	0.1349	25.97	0.00	0.750			
0.8738	55926.34	3.4130	3.4129	0.1296	25.97	0.00	0.750			
0.8742	55950.75	3.4100	3.4100	0.1246	25.98	0.01	0.750			
0.8746	55974.27	3.4070	3.4070	0.1194	25.98	0.01	0.750			
0.8749	55996.69	3.4040	3.4040	0.1141	25.98	0.01	0.750			
0.8753	56018.35	3.4010	3.4009	0.1076	25.98	0.01	0.750			
0.8756	56038.73	3.3980	3.3981	0.1018	25.98	0.01	0.750			
0.8759	56058.65	3.3950	3.3949	0.0939	25.99	0.02	0.750			
0.8762	56075.83	3.3920	3.3921	0.0851	25.99	0.02	0.750			
0.8764	56092.00	3.3890	3.3890	0.0776	25.99	0.02	0.750			
0.8767	56105.97	3.3860	3.3862	0.0679	25.99	0.02	0.750			
0.8769	56118.51	3.3830	3.3833	0.0583	25.99	0.02	0.750			
0.8770	56128.71	3.3800	3.3807	0.0479	25.99	0.02	0.750			
0.8771	56136.92	3.3770	3.3781	0.0376	25.99	0.02	0.750			
0.8772	56143.14	3.3740	3.3756	0.0272	25.99	0.02	0.750			
