Ah_balance (normalized)	Ah_balance (mAh)	Voltage - fit (V)	Voltage -  interpolate (V)	dQ/dV (1/V)	Temperature (°C)	Temperature - diff (°C)	Current (C)	R_DC 0ms (mOhm)	R_DC 50ms (mOhm)	R_DC 50 ms PEC (mOhm)
0.2904	18587.97	3.9690	3.9690	0.8949	27.40	1.46	1.500			
0.2931	18758.89	3.9660	3.9660	0.8918	27.40	1.46	1.500			
0.2958	18930.19	3.9630	3.9630	0.8983	27.39	1.45	1.500			
0.2985	19104.81	3.9600	3.9600	0.9007	27.39	1.45	1.500			
0.3012	19279.19	3.9570	3.9569	0.8991	27.39	1.45	1.500			
0.3039	19451.27	3.9540	3.9541	0.9029	27.38	1.44	1.500			
0.3066	19624.37	3.9510	3.9510	0.9069	27.38	1.44	1.500			
0.3093	19798.12	3.9480	3.9480	0.9114	27.37	1.43	1.500			
0.3121	19972.11	3.9450	3.9451	0.9199	27.37	1.43	1.500			
0.3148	20149.39	3.9420	3.9420	0.9258	27.36	1.42	1.500			
0.3177	20329.93	3.9390	3.9390	0.9362	27.36	1.42	1.500			
0.3205	20510.94	3.9360	3.9360	0.9409	27.35	1.41	1.500			
0.3233	20692.76	3.9330	3.9330	0.9397	27.35	1.41	1.500			
0.3262	20873.67	3.9300	3.9300	0.9379	27.35	1.41	1.500			
0.3289	21051.73	3.9270	3.9271	0.9438	27.34	1.40	1.500			
0.3318	21232.50	3.9240	3.9240	0.9492	27.34	1.40	1.500			
0.3346	21415.02	3.9210	3.9209	0.9598	27.33	1.39	1.500			
0.3375	21599.86	3.9180	3.9181	0.9678	27.33	1.39	1.500			
0.3404	21787.65	3.9150	3.9150	0.9792	27.32	1.38	1.500			
0.3434	21978.18	3.9120	3.9119	0.9844	27.31	1.37	1.500			
0.3464	22167.82	3.9090	3.9091	0.9881	27.30	1.36	1.500			
0.3493	22356.32	3.9060	3.9060	0.9939	27.30	1.36	1.500			
0.3523	22547.88	3.9030	3.9030	1.0016	27.29	1.35	1.500			
0.3553	22738.65	3.9000	3.9000	1.0119	27.28	1.34	1.500			
0.3584	22934.82	3.8970	3.8970	1.0212	27.28	1.34	1.500			
0.3615	23133.33	3.8940	3.8940	1.0325	27.27	1.33	1.500			
0.3646	23333.31	3.8910	3.8910	1.0423	27.26	1.32	1.500			
0.3677	23533.95	3.8880	3.8880	1.0532	27.26	1.32	1.500			
0.3709	23736.37	3.8850	3.8850	1.0650	27.25	1.31	1.500			
0.3741	23944.46	3.8820	3.8819	1.0682	27.24	1.30	1.500			
0.3773	24148.03	3.8790	3.8791	1.0829	27.24	1.30	1.500			
0.3806	24357.74	3.8760	3.8760	1.0971	27.23	1.29	1.500			
0.3839	24567.82	3.8730	3.8731	1.1123	27.22	1.28	1.500			
0.3872	24781.99	3.8700	3.8700	1.1278	27.22	1.28	1.500			
0.3906	25000.27	3.8670	3.8671	1.1404	27.21	1.27	1.500			
0.3941	25221.48	3.8640	3.8640	1.1613	27.20	1.26	1.500			
0.3976	25448.93	3.8610	3.8610	1.1765	27.19	1.25	1.500			
0.4012	25674.50	3.8580	3.8580	1.1896	27.18	1.24	1.500			
0.4048	25905.02	3.8550	3.8550	1.2074	27.17	1.23	1.500			
0.4084	26137.41	3.8520	3.8521	1.2239	27.17	1.23	1.500			
0.4121	26374.72	3.8490	3.8490	1.2397	27.16	1.22	1.500			
0.4158	26613.25	3.8460	3.8460	1.2624	27.15	1.21	1.500			
0.4196	26854.93	3.8430	3.8430	1.2821	27.14	1.20	1.500			
0.4235	27104.08	3.8400	3.8400	1.3041	27.13	1.19	1.500			
0.4274	27355.78	3.8370	3.8370	1.3334	27.12	1.18	1.500			
0.4315	27613.84	3.8340	3.8341	1.3654	27.11	1.17	1.500			
0.4356	27880.26	3.8310	3.8308	1.3909	27.10	1.16	1.500			
0.4399	28150.59	3.8280	3.8281	1.4243	27.09	1.15	1.500			
0.4442	28429.16	3.8250	3.8250	1.4414	27.07	1.13	1.500			
0.4485	28706.29	3.8220	3.8220	1.4784	27.06	1.12	1.500			
0.4530	28990.04	3.8190	3.8190	1.5062	27.05	1.11	1.500			
0.4575	29282.15	3.8160	3.8161	1.5462	27.03	1.09	1.500			
0.4622	29581.48	3.8130	3.8130	1.5926	27.02	1.08	1.500			
0.4671	29892.89	3.8100	3.8101	1.6388	27.00	1.06	1.500			
0.4721	30211.39	3.8070	3.8070	1.6772	26.98	1.04	1.500			
0.4772	30540.06	3.8040	3.8040	1.7207	26.96	1.02	1.500			
0.4824	30872.18	3.8010	3.8010	1.7555	26.94	1.00	1.500			
0.4877	31212.69	3.7980	3.7981	1.8213	26.92	0.98	1.500			
0.4932	31567.86	3.7950	3.7949	1.8675	26.90	0.96	1.500			
0.4989	31930.50	3.7920	3.7920	1.9251	26.88	0.94	1.500			
0.5048	32304.92	3.7890	3.7891	1.9878	26.86	0.92	1.500			
0.5108	32692.92	3.7860	3.7859	2.0488	26.84	0.90	1.500			
0.5170	33090.54	3.7830	3.7831	2.0983	26.81	0.87	1.500			
0.5234	33496.09	3.7800	3.7801	2.1625	26.79	0.85	1.500			
0.5300	33920.00	3.7770	3.7770	2.2016	26.76	0.82	1.500			
0.5368	34354.52	3.7740	3.7739	2.2914	26.73	0.79	1.500			
0.5438	34803.01	3.7710	3.7711	2.3102	26.70	0.76	1.500			
0.5508	35252.09	3.7680	3.7680	2.3616	26.68	0.74	1.500			
0.5579	35706.09	3.7650	3.7651	2.4257	26.65	0.71	1.500			
0.5652	36173.16	3.7620	3.7621	2.4728	26.63	0.69	1.500			
0.5727	36654.06	3.7590	3.7590	2.4863	26.60	0.66	1.500	0.366	0.453	
0.5804	37144.32	3.7560	3.7560	2.4677	26.56	0.62	1.500			
0.5878	37616.69	3.7530	3.7530	2.4337	26.53	0.59	1.500			
0.5950	38080.33	3.7500	3.7500	2.3753	26.51	0.57	1.500			
0.6021	38532.85	3.7470	3.7470	2.3425	26.49	0.55	1.500			
0.6090	38973.24	3.7440	3.7439	2.2855	26.47	0.53	1.500			
0.6158	39411.08	3.7410	3.7410	2.2721	26.44	0.50	1.500			
0.6226	39843.27	3.7380	3.7381	2.2440	26.42	0.48	1.500			
0.6292	40270.98	3.7350	3.7350	2.2343	26.40	0.46	1.500			
0.6358	40690.50	3.7320	3.7319	2.2271	26.38	0.44	1.500			
0.6426	41123.80	3.7290	3.7290	2.2326	26.37	0.43	1.500			
0.6493	41553.53	3.7260	3.7260	2.2612	26.35	0.41	1.500			
0.6560	41984.43	3.7230	3.7231	2.2902	26.34	0.40	1.500			
0.6629	42426.41	3.7200	3.7200	2.3532	26.33	0.39	1.500			
0.6700	42879.79	3.7170	3.7170	2.3883	26.31	0.37	1.500			
0.6772	43343.67	3.7140	3.7141	2.4991	26.29	0.35	1.500			
0.6848	43829.72	3.7110	3.7108	2.6231	26.27	0.33	1.500			
0.6929	44345.49	3.7080	3.7081	2.7351	26.26	0.32	1.500			
0.7014	44890.24	3.7050	3.7051	2.8684	26.24	0.30	1.500			
0.7102	45453.25	3.7020	3.7019	2.9153	26.22	0.28	1.500			
0.7191	46023.50	3.6990	3.6990	2.9297	26.21	0.27	1.500			
0.7280	46594.61	3.6960	3.6960	2.9454	26.20	0.26	1.500			
0.7369	47158.86	3.6930	3.6929	2.8789	26.19	0.25	1.500			
0.7455	47713.36	3.6900	3.6900	2.7202	26.17	0.23	1.500			
0.7533	48213.93	3.6870	3.6870	2.5209	26.16	0.22	1.500			
0.7604	48666.92	3.6840	3.6837	2.2725	26.15	0.21	1.500			
0.7669	49082.63	3.6810	3.6811	2.0737	26.14	0.20	1.500			
0.7728	49459.09	3.6780	3.6780	1.9064	26.14	0.20	1.500			
0.7782	49803.64	3.6750	3.6750	1.7650	26.13	0.19	1.500			
0.7831	50120.88	3.6720	3.6720	1.6173	26.12	0.18	1.500			
0.7878	50417.36	3.6690	3.6690	1.5170	26.12	0.18	1.500			
0.7921	50697.02	3.6660	3.6660	1.4318	26.11	0.17	1.500			
0.7963	50960.31	3.6630	3.6630	1.3612	26.10	0.16	1.500			
0.8002	51214.07	3.6600	3.6600	1.3053	26.10	0.16	1.500			
0.8039	51451.91	3.6570	3.6570	1.2606	26.09	0.15	1.500			
0.8076	51687.33	3.6540	3.6540	1.2476	26.09	0.15	1.500			
0.8112	51919.20	3.6510	3.6510	1.2460	26.08	0.14	1.500			
0.8150	52157.63	3.6480	3.6479	1.2576	26.07	0.13	1.500			
0.8188	52400.51	3.6450	3.6449	1.2680	26.07	0.13	1.500			
0.8227	52650.00	3.6420	3.6420	1.2748	26.06	0.12	1.500			
0.8265	52897.16	3.6390	3.6391	1.2963	26.05	0.11	1.500			
0.8304	53146.65	3.6360	3.6360	1.3063	26.05	0.11	1.500			
0.8343	53395.68	3.6330	3.6329	1.3108	26.04	0.10	1.500			
0.8383	53650.01	3.6300	3.6301	1.3179	26.04	0.10	1.500			
0.8423	53905.71	3.6270	3.6271	1.3213	26.03	0.09	1.500			
0.8463	54161.92	3.6240	3.6240	1.3175	26.02	0.08	1.500			
0.8502	54415.52	3.6210	3.6210	1.3187	26.02	0.08	1.500			
0.8541	54664.28	3.6180	3.6180	1.3083	26.01	0.07	1.500			
0.8580	54915.08	3.6150	3.6150	1.3066	26.00	0.06	1.500			
0.8620	55165.52	3.6120	3.6120	1.3030	26.00	0.06	1.500			
0.8659	55416.77	3.6090	3.6090	1.3014	25.99	0.05	1.500			
0.8698	55669.39	3.6060	3.6060	1.2966	25.99	0.05	1.500			
0.8737	55917.77	3.6030	3.6030	1.2843	25.98	0.04	1.500			
0.8775	56162.98	3.6000	3.6000	1.2717	25.97	0.03	1.500			
0.8814	56406.73	3.5970	3.5970	1.2585	25.97	0.03	1.500			
0.8851	56647.35	3.5940	3.5940	1.2421	25.96	0.02	1.500			
0.8888	56884.09	3.5910	3.5911	1.2263	25.96	0.02	1.500			
0.8924	57116.26	3.5880	3.5880	1.2172	25.95	0.01	1.500			
0.8961	57348.68	3.5850	3.5850	1.2113	25.95	0.01	1.500			
0.8997	57577.66	3.5820	3.5820	1.2141	25.95	0.01	1.500			
0.9033	57808.60	3.5790	3.5790	1.2289	25.95	0.01	1.500			
0.9070	58046.80	3.5760	3.5760	1.2391	25.94	0.00	1.500			
0.9109	58295.02	3.5730	3.5728	1.2022	25.94	0.00	1.500			
0.9146	58536.91	3.5700	3.5700	1.1476	25.94	-0.00	1.500			
0.9181	58761.55	3.5670	3.5672	1.0245	25.93	-0.01	1.500			
0.9213	58961.88	3.5640	3.5642	0.8926	25.93	-0.01	1.500			
0.9237	59114.46	3.5610	3.5610	0.7349	25.93	-0.01	1.500			
0.9255	59233.82	3.5580	3.5579	0.5801	25.93	-0.01	1.500			
0.9269	59318.85	3.5550	3.5549	0.4505	25.93	-0.01	1.500			
0.9280	59389.54	3.5520	3.5520	0.3677	25.93	-0.01	1.500			
0.9288	59445.71	3.5490	3.5489	0.3003	25.93	-0.01	1.500			
0.9296	59494.17	3.5460	3.5459	0.2530	25.93	-0.01	1.500			
0.9302	59535.10	3.5430	3.5429	0.2108	25.92	-0.02	1.500			
0.9308	59570.01	3.5400	3.5400	0.1833	25.92	-0.02	1.500			
0.9313	59601.64	3.5370	3.5371	0.1604	25.92	-0.02	1.500			
0.9317	59630.17	3.5340	3.5340	0.1388	25.92	-0.02	1.500			
0.9321	59654.96	3.5310	3.5310	0.1195	25.92	-0.02	1.500			
0.9324	59675.72	3.5280	3.5281	0.0999	25.92	-0.02	1.500			
0.9327	59692.80	3.5250	3.5251	0.0812	25.92	-0.02	1.500			
0.9329	59706.83	3.5220	3.5222	0.0625	25.92	-0.02	1.500			
0.9331	59717.02	3.5190	3.5196	0.0436	25.92	-0.02	1.500			
