Ah_balance (normalized)	Ah_balance (mAh)	Voltage - fit (V)	Voltage -  interpolate (V)	dQ/dV (1/V)	Temperature (°C)	Temperature - diff (°C)	Current (C)	R_DC 0ms (mOhm)	R_DC 50ms (mOhm)	R_DC 50 ms PEC (mOhm)
0.1823	11670.22	3.9290	3.9287	-0.0956	25.74	0.00	-1.500			
0.1827	11691.29	3.9260	3.9259	-0.1238	25.74	0.00	-1.500			
0.1831	11717.68	3.9230	3.9229	-0.1521	25.74	0.00	-1.500			
0.1836	11750.22	3.9200	3.9200	-0.1788	25.74	0.00	-1.500			
0.1842	11787.47	3.9170	3.9169	-0.2032	25.74	0.00	-1.500			
0.1848	11828.90	3.9140	3.9141	-0.2282	25.74	0.00	-1.500			
0.1856	11875.61	3.9110	3.9111	-0.2540	25.74	0.00	-1.500			
0.1864	11926.84	3.9080	3.9080	-0.2772	25.74	0.00	-1.500			
0.1872	11982.22	3.9050	3.9050	-0.3010	25.74	-0.00	-1.500			
0.1882	12042.56	3.9020	3.9020	-0.3227	25.74	-0.00	-1.500			
0.1892	12106.57	3.8990	3.8991	-0.3450	25.74	-0.00	-1.500			
0.1902	12175.48	3.8960	3.8960	-0.3674	25.74	-0.00	-1.500			
0.1914	12248.30	3.8930	3.8930	-0.3863	25.74	-0.00	-1.500			
0.1926	12324.24	3.8900	3.8900	-0.4066	25.74	-0.00	-1.500			
0.1938	12404.02	3.8870	3.8871	-0.4298	25.73	-0.01	-1.500			
0.1951	12488.53	3.8840	3.8839	-0.4507	25.73	-0.01	-1.500			
0.1965	12577.87	3.8810	3.8810	-0.4702	25.73	-0.01	-1.500			
0.1980	12669.99	3.8780	3.8781	-0.4883	25.73	-0.01	-1.500			
0.1995	12766.11	3.8750	3.8750	-0.5061	25.73	-0.01	-1.500			
0.2010	12865.80	3.8720	3.8719	-0.5200	25.73	-0.01	-1.500			
0.2026	12966.48	3.8690	3.8690	-0.5334	25.73	-0.01	-1.500			
0.2042	13069.95	3.8660	3.8660	-0.5458	25.73	-0.01	-1.500			
0.2059	13177.41	3.8630	3.8630	-0.5562	25.72	-0.02	-1.500			
0.2076	13285.28	3.8600	3.8600	-0.5660	25.72	-0.02	-1.500			
0.2093	13394.57	3.8570	3.8570	-0.5759	25.72	-0.02	-1.500			
0.2110	13506.34	3.8540	3.8541	-0.5842	25.72	-0.02	-1.500			
0.2128	13619.42	3.8510	3.8509	-0.5929	25.72	-0.02	-1.500			
0.2146	13733.50	3.8480	3.8480	-0.5996	25.73	-0.01	-1.500			
0.2164	13850.89	3.8450	3.8450	-0.6046	25.73	-0.01	-1.500			
0.2182	13967.49	3.8420	3.8420	-0.6109	25.73	-0.01	-1.500			
0.2201	14084.90	3.8390	3.8390	-0.6137	25.73	-0.01	-1.500			
0.2219	14202.54	3.8360	3.8360	-0.6190	25.74	-0.00	-1.500			
0.2238	14322.18	3.8330	3.8329	-0.6228	25.74	-0.00	-1.500			
0.2257	14441.80	3.8300	3.8301	-0.6270	25.74	0.00	-1.500			
0.2275	14563.14	3.8270	3.8269	-0.6311	25.75	0.01	-1.500			
0.2295	14685.25	3.8240	3.8240	-0.6356	25.75	0.01	-1.500			
0.2314	14806.56	3.8210	3.8211	-0.6343	25.75	0.01	-1.500			
0.2333	14929.02	3.8180	3.8180	-0.6378	25.75	0.01	-1.500			
0.2352	15051.62	3.8150	3.8151	-0.6394	25.76	0.02	-1.500			
0.2371	15175.53	3.8120	3.8119	-0.6421	25.76	0.02	-1.500			
0.2390	15298.40	3.8090	3.8091	-0.6413	25.77	0.03	-1.500			
0.2410	15421.58	3.8060	3.8060	-0.6439	25.77	0.03	-1.500			
0.2429	15545.14	3.8030	3.8030	-0.6447	25.77	0.03	-1.500			
0.2448	15669.60	3.8000	3.7999	-0.6456	25.78	0.04	-1.500			
0.2468	15792.02	3.7970	3.7970	-0.6484	25.78	0.04	-1.500			
0.2487	15916.76	3.7940	3.7941	-0.6524	25.78	0.04	-1.500			
0.2507	16043.01	3.7910	3.7909	-0.6560	25.79	0.05	-1.500			
0.2526	16169.59	3.7880	3.7880	-0.6578	25.79	0.05	-1.500			
0.2546	16295.66	3.7850	3.7851	-0.6575	25.80	0.06	-1.500			
0.2566	16422.14	3.7820	3.7820	-0.6623	25.80	0.06	-1.500			
0.2586	16549.71	3.7790	3.7791	-0.6647	25.80	0.06	-1.500			
0.2606	16676.99	3.7760	3.7759	-0.6646	25.81	0.07	-1.500			
0.2626	16805.20	3.7730	3.7730	-0.6689	25.81	0.07	-1.500			
0.2646	16934.80	3.7700	3.7700	-0.6687	25.82	0.08	-1.500			
0.2666	17062.99	3.7670	3.7670	-0.6703	25.82	0.08	-1.500			
0.2686	17190.96	3.7640	3.7640	-0.6714	25.82	0.08	-1.500			
0.2706	17319.00	3.7610	3.7609	-0.6731	25.83	0.09	-1.500			
0.2726	17448.43	3.7580	3.7580	-0.6767	25.83	0.09	-1.500			
0.2747	17578.40	3.7550	3.7550	-0.6835	25.84	0.10	-1.500			
0.2767	17710.88	3.7520	3.7520	-0.6877	25.84	0.10	-1.500			
0.2788	17843.94	3.7490	3.7490	-0.6949	25.84	0.10	-1.500			
0.2809	17977.46	3.7460	3.7460	-0.6984	25.85	0.11	-1.500			
0.2830	18112.29	3.7430	3.7431	-0.7036	25.85	0.11	-1.500			
0.2851	18247.97	3.7400	3.7399	-0.7065	25.86	0.12	-1.500			
0.2872	18383.97	3.7370	3.7371	-0.7095	25.86	0.12	-1.500			
0.2894	18519.41	3.7340	3.7340	-0.7131	25.87	0.13	-1.500			
0.2915	18656.65	3.7310	3.7310	-0.7211	25.87	0.13	-1.500			
0.2937	18795.35	3.7280	3.7280	-0.7230	25.88	0.14	-1.500			
0.2959	18935.13	3.7250	3.7250	-0.7292	25.88	0.14	-1.500			
0.2980	19075.11	3.7220	3.7221	-0.7379	25.89	0.15	-1.500			
0.3003	19218.19	3.7190	3.7189	-0.7455	25.89	0.15	-1.500			
0.3025	19360.91	3.7160	3.7161	-0.7561	25.90	0.16	-1.500			
0.3048	19507.03	3.7130	3.7130	-0.7657	25.90	0.16	-1.500			
0.3071	19655.94	3.7100	3.7100	-0.7713	25.91	0.17	-1.500			
0.3095	19805.76	3.7070	3.7070	-0.7812	25.92	0.18	-1.500			
0.3118	19956.22	3.7040	3.7041	-0.7873	25.92	0.18	-1.500			
0.3142	20107.27	3.7010	3.7009	-0.7922	25.92	0.18	-1.500			
0.3166	20260.78	3.6980	3.6979	-0.7958	25.93	0.19	-1.500			
0.3189	20412.39	3.6950	3.6951	-0.8002	25.93	0.19	-1.500			
0.3213	20565.88	3.6920	3.6920	-0.8121	25.94	0.20	-1.500			
0.3238	20722.76	3.6890	3.6890	-0.8229	25.94	0.20	-1.500			
0.3262	20879.59	3.6860	3.6860	-0.8302	25.94	0.20	-1.500			
0.3288	21040.85	3.6830	3.6829	-0.8420	25.95	0.21	-1.500			
0.3313	21204.79	3.6800	3.6801	-0.8548	25.95	0.21	-1.500			
0.3339	21371.25	3.6770	3.6769	-0.8654	25.96	0.22	-1.500			
0.3365	21537.47	3.6740	3.6742	-0.8715	25.96	0.22	-1.500			
0.3391	21705.23	3.6710	3.6710	-0.8820	25.96	0.22	-1.500			
0.3418	21874.60	3.6680	3.6680	-0.8925	25.97	0.23	-1.500			
0.3445	22047.59	3.6650	3.6649	-0.9021	25.97	0.23	-1.500			
0.3472	22221.39	3.6620	3.6621	-0.9116	25.98	0.24	-1.500			
0.3499	22396.63	3.6590	3.6590	-0.9221	25.98	0.24	-1.500			
0.3527	22575.68	3.6560	3.6560	-0.9348	25.99	0.25	-1.500			
0.3556	22755.48	3.6530	3.6529	-0.9486	25.99	0.25	-1.500			
0.3584	22937.55	3.6500	3.6500	-0.9552	26.00	0.26	-1.500			
0.3613	23122.78	3.6470	3.6470	-0.9668	26.00	0.26	-1.500			
0.3642	23310.66	3.6440	3.6440	-0.9793	26.00	0.26	-1.500			
0.3672	23498.95	3.6410	3.6409	-0.9901	26.00	0.26	-1.500			
0.3701	23689.06	3.6380	3.6380	-1.0008	26.01	0.27	-1.500			
0.3732	23882.23	3.6350	3.6350	-1.0157	26.01	0.27	-1.500			
0.3762	24077.80	3.6320	3.6320	-1.0306	26.01	0.27	-1.500			
0.3794	24279.61	3.6290	3.6290	-1.0454	26.01	0.27	-1.500			
0.3825	24481.58	3.6260	3.6260	-1.0605	26.02	0.28	-1.500			
0.3857	24686.90	3.6230	3.6230	-1.0695	26.02	0.28	-1.500			
0.3889	24892.62	3.6200	3.6199	-1.0855	26.02	0.28	-1.500			
0.3922	25101.97	3.6170	3.6170	-1.1029	26.02	0.28	-1.500			
0.3955	25314.05	3.6140	3.6140	-1.1158	26.03	0.29	-1.500			
0.3989	25529.00	3.6110	3.6110	-1.1331	26.03	0.29	-1.500			
0.4024	25751.13	3.6080	3.6080	-1.1531	26.03	0.29	-1.500			
0.4058	25974.29	3.6050	3.6050	-1.1618	26.04	0.30	-1.500			
0.4094	26200.53	3.6020	3.6020	-1.1768	26.04	0.30	-1.500			
0.4129	26425.76	3.5990	3.5991	-1.1844	26.04	0.30	-1.500			
0.4164	26652.60	3.5960	3.5961	-1.1981	26.04	0.30	-1.500			
0.4201	26884.51	3.5930	3.5930	-1.2133	26.05	0.31	-1.500			
0.4237	27117.43	3.5900	3.5900	-1.2300	26.05	0.31	-1.500			
0.4274	27356.04	3.5870	3.5869	-1.2490	26.05	0.31	-1.500			
0.4312	27599.61	3.5840	3.5841	-1.2697	26.06	0.32	-1.500			
0.4350	27843.18	3.5810	3.5811	-1.2882	26.06	0.32	-1.500			
0.4389	28092.68	3.5780	3.5779	-1.3070	26.06	0.32	-1.500			
0.4429	28345.37	3.5750	3.5750	-1.3255	26.07	0.33	-1.500			
0.4469	28600.69	3.5720	3.5720	-1.3435	26.07	0.33	-1.500			
0.4509	28859.58	3.5690	3.5690	-1.3597	26.07	0.33	-1.500			
0.4551	29124.58	3.5660	3.5660	-1.3822	26.07	0.33	-1.500			
0.4592	29390.92	3.5630	3.5630	-1.3994	26.08	0.34	-1.500			
0.4634	29659.25	3.5600	3.5600	-1.4173	26.08	0.34	-1.500			
0.4677	29935.40	3.5570	3.5570	-1.4379	26.09	0.35	-1.500			
0.4721	30214.71	3.5540	3.5539	-1.4530	26.10	0.36	-1.500			
0.4765	30494.65	3.5510	3.5511	-1.4711	26.10	0.36	-1.500			
0.4809	30778.77	3.5480	3.5480	-1.4926	26.11	0.37	-1.500			
0.4854	31066.85	3.5450	3.5450	-1.5074	26.12	0.38	-1.500			
0.4900	31357.54	3.5420	3.5419	-1.5271	26.12	0.38	-1.500			
0.4945	31649.97	3.5390	3.5391	-1.5478	26.13	0.39	-1.500			
0.4992	31951.39	3.5360	3.5360	-1.5760	26.13	0.39	-1.500			
0.5040	32257.17	3.5330	3.5329	-1.5988	26.13	0.39	-1.500			
0.5089	32567.04	3.5300	3.5300	-1.6098	26.14	0.40	-1.500			
0.5137	32878.95	3.5270	3.5274	-1.6220	26.14	0.40	-1.500	0.374	0.536	
0.5186	33193.44	3.5240	3.5240	-1.6417	26.15	0.41	-1.500			
0.5236	33509.19	3.5210	3.5210	-1.6452	26.16	0.42	-1.500			
0.5285	33824.27	3.5180	3.5180	-1.6484	26.17	0.43	-1.500			
0.5335	34141.92	3.5150	3.5149	-1.6574	26.18	0.44	-1.500			
0.5385	34461.16	3.5120	3.5121	-1.6687	26.19	0.45	-1.500			
0.5435	34782.80	3.5090	3.5090	-1.6819	26.20	0.46	-1.500			
0.5486	35108.73	3.5060	3.5060	-1.6910	26.21	0.47	-1.500			
0.5536	35432.09	3.5030	3.5029	-1.6925	26.22	0.48	-1.500			
0.5588	35763.36	3.5000	3.5000	-1.7028	26.23	0.49	-1.500			
0.5639	36089.46	3.4970	3.4970	-1.7019	26.25	0.51	-1.500			
0.5690	36416.40	3.4940	3.4939	-1.6902	26.26	0.52	-1.500			
0.5741	36740.33	3.4910	3.4910	-1.6892	26.27	0.53	-1.500			
0.5791	37063.86	3.4880	3.4880	-1.6830	26.28	0.54	-1.500			
0.5842	37389.30	3.4850	3.4849	-1.6828	26.29	0.55	-1.500			
0.5892	37710.51	3.4820	3.4819	-1.6727	26.31	0.57	-1.500			
0.5942	38031.51	3.4790	3.4790	-1.6633	26.32	0.58	-1.500			
0.5992	38349.46	3.4760	3.4760	-1.6515	26.33	0.59	-1.500			
0.6042	38665.85	3.4730	3.4730	-1.6355	26.34	0.60	-1.500			
0.6091	38982.09	3.4700	3.4699	-1.6267	26.35	0.61	-1.500			
0.6140	39293.45	3.4670	3.4671	-1.6060	26.37	0.63	-1.500			
0.6187	39599.12	3.4640	3.4640	-1.5888	26.38	0.64	-1.500			
0.6235	39903.10	3.4610	3.4610	-1.5660	26.40	0.66	-1.500			
0.6281	40201.44	3.4580	3.4580	-1.5396	26.41	0.67	-1.500			
0.6327	40495.19	3.4550	3.4550	-1.5173	26.43	0.69	-1.500			
0.6373	40785.01	3.4520	3.4520	-1.4997	26.44	0.70	-1.500			
0.6417	41068.99	3.4490	3.4490	-1.4832	26.46	0.72	-1.500			
0.6461	41352.39	3.4460	3.4460	-1.4718	26.48	0.74	-1.500			
0.6505	41633.94	3.4430	3.4430	-1.4517	26.50	0.76	-1.500			
0.6549	41913.84	3.4400	3.4400	-1.4372	26.52	0.78	-1.500			
0.6592	42188.37	3.4370	3.4371	-1.4144	26.54	0.80	-1.500			
0.6634	42457.84	3.4340	3.4340	-1.3961	26.55	0.81	-1.500			
0.6675	42722.84	3.4310	3.4310	-1.3725	26.57	0.83	-1.500			
0.6716	42981.45	3.4280	3.4280	-1.3562	26.59	0.85	-1.500			
0.6757	43243.73	3.4250	3.4250	-1.3411	26.60	0.86	-1.500			
0.6797	43499.79	3.4220	3.4220	-1.3218	26.62	0.88	-1.500			
0.6836	43752.75	3.4190	3.4192	-1.3029	26.64	0.90	-1.500			
0.6875	44001.13	3.4160	3.4159	-1.2770	26.67	0.93	-1.500			
0.6913	44243.22	3.4130	3.4131	-1.2457	26.68	0.94	-1.500			
0.6950	44479.27	3.4100	3.4100	-1.2265	26.70	0.96	-1.500			
0.6986	44713.57	3.4070	3.4070	-1.1996	26.72	0.98	-1.500			
0.7022	44943.47	3.4040	3.4039	-1.1642	26.74	1.00	-1.500			
0.7057	45163.05	3.4010	3.4010	-1.1268	26.75	1.01	-1.500			
0.7090	45377.01	3.3980	3.3981	-1.0951	26.76	1.02	-1.500			
0.7122	45583.64	3.3950	3.3951	-1.0643	26.77	1.03	-1.500			
0.7154	45783.41	3.3920	3.3919	-1.0327	26.79	1.05	-1.500			
0.7184	45974.87	3.3890	3.3890	-1.0005	26.81	1.07	-1.500			
0.7214	46167.19	3.3860	3.3860	-0.9823	26.82	1.08	-1.500			
0.7243	46356.01	3.3830	3.3830	-0.9573	26.84	1.10	-1.500			
0.7272	46538.20	3.3800	3.3799	-0.9252	26.86	1.12	-1.500			
0.7299	46711.55	3.3770	3.3772	-0.8960	26.87	1.13	-1.500			
0.7325	46881.43	3.3740	3.3740	-0.8639	26.88	1.14	-1.500			
0.7350	47043.11	3.3710	3.3710	-0.8354	26.89	1.15	-1.500			
0.7375	47199.59	3.3680	3.3680	-0.8106	26.90	1.16	-1.500			
0.7399	47351.90	3.3650	3.3651	-0.7868	26.91	1.17	-1.500			
0.7422	47500.34	3.3620	3.3619	-0.7640	26.92	1.18	-1.500			
0.7445	47646.03	3.3590	3.3590	-0.7414	26.93	1.19	-1.500			
0.7466	47785.00	3.3560	3.3560	-0.7173	26.94	1.20	-1.500			
0.7488	47920.56	3.3530	3.3530	-0.7017	26.96	1.22	-1.500			
0.7508	48052.50	3.3500	3.3500	-0.6789	26.97	1.23	-1.500			
0.7528	48180.03	3.3470	3.3469	-0.6583	26.98	1.24	-1.500			
0.7548	48305.19	3.3440	3.3440	-0.6435	26.99	1.25	-1.500			
0.7567	48427.11	3.3410	3.3411	-0.6280	27.00	1.26	-1.500			
0.7585	48546.95	3.3380	3.3379	-0.6116	27.00	1.26	-1.500			
0.7603	48662.00	3.3350	3.3350	-0.5938	27.01	1.27	-1.500			
0.7621	48774.27	3.3320	3.3321	-0.5776	27.01	1.27	-1.500			
0.7638	48884.53	3.3290	3.3289	-0.5625	27.02	1.28	-1.500			
0.7655	48990.17	3.3260	3.3260	-0.5467	27.03	1.29	-1.500			
0.7671	49092.52	3.3230	3.3230	-0.5304	27.04	1.30	-1.500			
0.7686	49192.89	3.3200	3.3200	-0.5167	27.05	1.31	-1.500			
0.7702	49291.47	3.3170	3.3169	-0.5035	27.06	1.32	-1.500			
0.7717	49386.42	3.3140	3.3141	-0.4896	27.07	1.33	-1.500			
0.7731	49478.81	3.3110	3.3110	-0.4789	27.07	1.33	-1.500			
0.7745	49569.70	3.3080	3.3079	-0.4681	27.08	1.34	-1.500			
0.7759	49657.58	3.3050	3.3050	-0.4555	27.09	1.35	-1.500			
0.7773	49744.69	3.3020	3.3021	-0.4451	27.10	1.36	-1.500			
0.7786	49829.73	3.2990	3.2990	-0.4351	27.10	1.36	-1.500			
0.7799	49912.34	3.2960	3.2960	-0.4243	27.11	1.37	-1.500			
0.7811	49992.01	3.2930	3.2930	-0.4124	27.12	1.38	-1.500			
0.7823	50069.71	3.2900	3.2900	-0.4019	27.13	1.39	-1.500			
0.7835	50146.37	3.2870	3.2870	-0.3926	27.13	1.39	-1.500			
0.7847	50220.72	3.2840	3.2840	-0.3831	27.14	1.40	-1.500			
0.7858	50293.14	3.2810	3.2810	-0.3760	27.15	1.41	-1.500			
0.7869	50363.93	3.2780	3.2780	-0.3684	27.15	1.41	-1.500			
0.7880	50434.38	3.2750	3.2749	-0.3597	27.16	1.42	-1.500			
0.7891	50502.99	3.2720	3.2720	-0.3517	27.17	1.43	-1.500			
0.7902	50569.89	3.2690	3.2690	-0.3429	27.17	1.43	-1.500			
0.7912	50634.76	3.2660	3.2660	-0.3358	27.18	1.44	-1.500			
0.7922	50698.01	3.2630	3.2629	-0.3280	27.19	1.45	-1.500			
0.7931	50759.70	3.2600	3.2599	-0.3213	27.19	1.45	-1.500			
0.7941	50820.73	3.2570	3.2570	-0.3148	27.20	1.46	-1.500			
0.7950	50881.19	3.2540	3.2540	-0.3092	27.21	1.47	-1.500			
0.7959	50940.22	3.2510	3.2510	-0.3042	27.21	1.47	-1.500			
0.7968	50998.28	3.2480	3.2480	-0.2975	27.22	1.48	-1.500			
0.7977	51054.17	3.2450	3.2450	-0.2898	27.22	1.48	-1.500			
0.7986	51109.40	3.2420	3.2421	-0.2845	27.23	1.49	-1.500			
0.7994	51163.24	3.2390	3.2391	-0.2782	27.23	1.49	-1.500			
0.8002	51215.98	3.2360	3.2359	-0.2742	27.24	1.50	-1.500			
0.8011	51268.09	3.2330	3.2330	-0.2689	27.25	1.51	-1.500			
0.8019	51318.78	3.2300	3.2300	-0.2641	27.25	1.51	-1.500			
0.8027	51369.63	3.2270	3.2270	-0.2606	27.26	1.52	-1.500			
0.8034	51419.50	3.2240	3.2241	-0.2562	27.26	1.52	-1.500			
0.8042	51468.01	3.2210	3.2209	-0.2517	27.27	1.53	-1.500			
0.8049	51515.77	3.2180	3.2181	-0.2479	27.27	1.53	-1.500			
0.8057	51562.70	3.2150	3.2149	-0.2437	27.27	1.53	-1.500			
0.8064	51609.18	3.2120	3.2120	-0.2406	27.28	1.54	-1.500			
0.8071	51655.13	3.2090	3.2090	-0.2373	27.28	1.54	-1.500			
0.8078	51700.09	3.2060	3.2061	-0.2341	27.29	1.55	-1.500			
0.8085	51745.34	3.2030	3.2030	-0.2310	27.29	1.55	-1.500			
0.8092	51789.45	3.2000	3.2000	-0.2272	27.30	1.56	-1.500			
0.8099	51832.48	3.1970	3.1970	-0.2243	27.30	1.56	-1.500			
0.8105	51875.02	3.1940	3.1942	-0.2213	27.31	1.57	-1.500			
0.8112	51917.21	3.1910	3.1909	-0.2185	27.31	1.57	-1.500			
0.8119	51958.92	3.1880	3.1880	-0.2160	27.32	1.58	-1.500			
0.8125	52000.20	3.1850	3.1850	-0.2128	27.32	1.58	-1.500			
0.8131	52040.47	3.1820	3.1821	-0.2106	27.33	1.59	-1.500			
0.8138	52080.88	3.1790	3.1790	-0.2092	27.34	1.60	-1.500			
0.8144	52120.81	3.1760	3.1760	-0.2068	27.34	1.60	-1.500			
0.8150	52159.95	3.1730	3.1729	-0.2043	27.35	1.61	-1.500			
0.8156	52199.41	3.1700	3.1700	-0.2012	27.35	1.61	-1.500			
0.8162	52237.83	3.1670	3.1671	-0.1991	27.36	1.62	-1.500			
0.8168	52275.77	3.1640	3.1640	-0.1960	27.37	1.63	-1.500			
0.8174	52313.12	3.1610	3.1611	-0.1945	27.37	1.63	-1.500			
0.8180	52349.60	3.1580	3.1580	-0.1919	27.38	1.64	-1.500			
0.8185	52386.43	3.1550	3.1549	-0.1897	27.39	1.65	-1.500			
0.8191	52422.71	3.1520	3.1521	-0.1883	27.39	1.65	-1.500			
0.8197	52458.83	3.1490	3.1490	-0.1862	27.40	1.66	-1.500			
0.8202	52494.65	3.1460	3.1461	-0.1859	27.40	1.66	-1.500			
0.8208	52530.00	3.1430	3.1430	-0.1832	27.41	1.67	-1.500			
0.8213	52564.99	3.1400	3.1399	-0.1813	27.41	1.67	-1.500			
0.8219	52599.41	3.1370	3.1369	-0.1793	27.42	1.68	-1.500			
0.8224	52633.58	3.1340	3.1341	-0.1780	27.43	1.69	-1.500			
0.8229	52668.04	3.1310	3.1310	-0.1770	27.43	1.69	-1.500			
0.8235	52701.81	3.1280	3.1280	-0.1749	27.44	1.70	-1.500			
0.8240	52735.21	3.1250	3.1250	-0.1730	27.44	1.70	-1.500			
0.8245	52767.84	3.1220	3.1221	-0.1710	27.45	1.71	-1.500			
0.8250	52800.50	3.1190	3.1190	-0.1705	27.45	1.71	-1.500			
0.8255	52833.14	3.1160	3.1159	-0.1695	27.46	1.72	-1.500			
0.8260	52865.55	3.1130	3.1129	-0.1678	27.47	1.73	-1.500			
0.8265	52897.56	3.1100	3.1100	-0.1665	27.47	1.73	-1.500			
0.8270	52929.72	3.1070	3.1070	-0.1660	27.48	1.74	-1.500			
0.8275	52961.47	3.1040	3.1041	-0.1642	27.48	1.74	-1.500			
0.8280	52992.87	3.1010	3.1009	-0.1629	27.49	1.75	-1.500			
0.8285	53023.77	3.0980	3.0982	-0.1615	27.49	1.75	-1.500			
0.8290	53054.61	3.0950	3.0950	-0.1599	27.50	1.76	-1.500			
0.8295	53085.22	3.0920	3.0919	-0.1590	27.50	1.76	-1.500			
0.8299	53115.83	3.0890	3.0890	-0.1583	27.51	1.77	-1.500			
0.8304	53146.05	3.0860	3.0860	-0.1569	27.51	1.77	-1.500			
0.8309	53175.97	3.0830	3.0830	-0.1562	27.52	1.78	-1.500			
0.8313	53205.94	3.0800	3.0800	-0.1555	27.53	1.79	-1.500			
0.8318	53235.69	3.0770	3.0770	-0.1542	27.53	1.79	-1.500			
0.8323	53265.35	3.0740	3.0741	-0.1527	27.54	1.80	-1.500			
0.8327	53294.72	3.0710	3.0710	-0.1517	27.54	1.80	-1.500			
0.8332	53323.67	3.0680	3.0681	-0.1499	27.55	1.81	-1.500			
0.8336	53352.13	3.0650	3.0650	-0.1489	27.56	1.82	-1.500			
0.8341	53380.46	3.0620	3.0618	-0.1479	27.56	1.82	-1.500			
0.8345	53408.40	3.0590	3.0591	-0.1465	27.57	1.83	-1.500			
0.8349	53436.50	3.0560	3.0560	-0.1469	27.57	1.83	-1.500			
0.8354	53464.95	3.0530	3.0530	-0.1458	27.58	1.84	-1.500			
0.8358	53493.14	3.0500	3.0499	-0.1452	27.58	1.84	-1.500			
0.8363	53520.87	3.0470	3.0470	-0.1438	27.59	1.85	-1.500			
0.8367	53548.50	3.0440	3.0441	-0.1425	27.59	1.85	-1.500			
0.8371	53575.47	3.0410	3.0409	-0.1420	27.60	1.86	-1.500			
0.8375	53602.56	3.0380	3.0380	-0.1410	27.61	1.87	-1.500			
0.8380	53629.67	3.0350	3.0350	-0.1396	27.61	1.87	-1.500			
0.8384	53656.40	3.0320	3.0319	-0.1388	27.62	1.88	-1.500			
0.8388	53683.22	3.0290	3.0291	-0.1386	27.62	1.88	-1.500			
0.8392	53709.50	3.0260	3.0262	-0.1384	27.63	1.89	-1.500			
0.8396	53735.91	3.0230	3.0229	-0.1380	27.63	1.89	-1.500			
0.8400	53762.40	3.0200	3.0199	-0.1380	27.64	1.90	-1.500			
0.8405	53788.82	3.0170	3.0170	-0.1365	27.64	1.90	-1.500			
0.8409	53815.28	3.0140	3.0141	-0.1361	27.65	1.91	-1.500			
0.8413	53841.78	3.0110	3.0110	-0.1356	27.65	1.91	-1.500			
0.8417	53867.60	3.0080	3.0081	-0.1334	27.66	1.92	-1.500			
0.8421	53893.01	3.0050	3.0049	-0.1311	27.66	1.92	-1.500			
0.8425	53918.02	3.0020	3.0019	-0.1314	27.67	1.93	-1.499			
