Ah_balance (normalized)	Ah_balance (mAh)	Voltage - fit (V)	Voltage -  interpolate (V)	dQ/dV (1/V)	Temperature (°C)	Temperature - diff (°C)	Current (C)	R_DC 0ms (mOhm)	R_DC 50ms (mOhm)	R_DC 50 ms PEC (mOhm)
0.2866	18344.34	3.9690	3.9689	0.8788	27.51	1.52	1.500			
0.2893	18512.83	3.9660	3.9661	0.8809	27.50	1.51	1.500			
0.2919	18681.91	3.9630	3.9630	0.8884	27.50	1.51	1.500			
0.2946	18853.34	3.9600	3.9601	0.8974	27.49	1.50	1.500			
0.2973	19027.41	3.9570	3.9570	0.9036	27.49	1.50	1.500			
0.3000	19200.75	3.9540	3.9540	0.9110	27.48	1.49	1.500			
0.3028	19376.35	3.9510	3.9510	0.9200	27.48	1.49	1.500			
0.3055	19553.87	3.9480	3.9481	0.9264	27.48	1.49	1.500			
0.3083	19732.75	3.9450	3.9448	0.9305	27.47	1.48	1.500			
0.3111	19912.05	3.9420	3.9421	0.9347	27.47	1.48	1.500			
0.3139	20091.60	3.9390	3.9390	0.9449	27.46	1.47	1.500			
0.3168	20275.01	3.9360	3.9361	0.9494	27.46	1.47	1.500			
0.3196	20456.98	3.9330	3.9329	0.9412	27.45	1.46	1.500			
0.3225	20638.17	3.9300	3.9300	0.9419	27.45	1.46	1.500			
0.3253	20819.26	3.9270	3.9272	0.9445	27.44	1.45	1.500			
0.3281	20998.24	3.9240	3.9239	0.9540	27.44	1.45	1.500			
0.3309	21180.75	3.9210	3.9210	0.9623	27.43	1.44	1.500			
0.3338	21365.23	3.9180	3.9179	0.9736	27.43	1.44	1.500			
0.3368	21554.40	3.9150	3.9151	0.9902	27.43	1.44	1.500			
0.3398	21748.04	3.9120	3.9120	0.9959	27.43	1.44	1.500			
0.3428	21941.55	3.9090	3.9089	1.0005	27.42	1.43	1.500			
0.3458	22132.61	3.9060	3.9061	1.0047	27.42	1.43	1.500			
0.3489	22327.58	3.9030	3.9029	0.9970	27.42	1.43	1.500			
0.3518	22517.53	3.9000	3.9000	1.0114	27.42	1.43	1.500			
0.3549	22711.44	3.8970	3.8971	1.0207	27.41	1.42	1.500			
0.3579	22906.29	3.8940	3.8939	1.0353	27.41	1.42	1.500			
0.3611	23107.86	3.8910	3.8911	1.0479	27.41	1.42	1.500			
0.3642	23309.85	3.8880	3.8880	1.0624	27.40	1.41	1.500			
0.3674	23515.28	3.8850	3.8851	1.0766	27.39	1.40	1.500			
0.3707	23724.81	3.8820	3.8820	1.0853	27.39	1.40	1.500			
0.3740	23934.33	3.8790	3.8790	1.1032	27.38	1.39	1.500			
0.3773	24146.02	3.8760	3.8761	1.1208	27.37	1.38	1.500			
0.3807	24365.20	3.8730	3.8730	1.1284	27.37	1.38	1.500			
0.3842	24585.81	3.8700	3.8699	1.1440	27.36	1.37	1.500			
0.3876	24803.50	3.8670	3.8671	1.1544	27.35	1.36	1.500			
0.3910	25024.81	3.8640	3.8641	1.1714	27.34	1.35	1.500			
0.3946	25252.35	3.8610	3.8609	1.1845	27.33	1.34	1.500			
0.3981	25480.15	3.8580	3.8579	1.2004	27.33	1.34	1.500			
0.4017	25710.06	3.8550	3.8551	1.2254	27.32	1.33	1.500			
0.4055	25949.26	3.8520	3.8521	1.2601	27.31	1.32	1.500			
0.4093	26194.19	3.8490	3.8489	1.2802	27.30	1.31	1.500			
0.4132	26442.07	3.8460	3.8459	1.2984	27.29	1.30	1.500			
0.4171	26693.54	3.8430	3.8431	1.3183	27.28	1.29	1.500			
0.4211	26951.26	3.8400	3.8401	1.3345	27.27	1.28	1.500			
0.4251	27206.05	3.8370	3.8369	1.3573	27.26	1.27	1.500			
0.4291	27462.96	3.8340	3.8341	1.3840	27.25	1.26	1.500			
0.4333	27732.28	3.8310	3.8308	1.4168	27.24	1.25	1.500			
0.4377	28009.98	3.8280	3.8280	1.4515	27.23	1.24	1.500			
0.4421	28295.39	3.8250	3.8251	1.4719	27.22	1.23	1.500			
0.4466	28582.58	3.8220	3.8219	1.5080	27.20	1.21	1.500			
0.4511	28869.39	3.8190	3.8191	1.5413	27.19	1.20	1.500			
0.4557	29167.23	3.8160	3.8161	1.5830	27.18	1.19	1.500			
0.4605	29471.75	3.8130	3.8131	1.6223	27.16	1.17	1.500			
0.4655	29790.75	3.8100	3.8101	1.6670	27.15	1.16	1.500			
0.4706	30116.77	3.8070	3.8070	1.7215	27.13	1.14	1.500			
0.4758	30450.86	3.8040	3.8040	1.7618	27.12	1.13	1.500			
0.4812	30794.12	3.8010	3.8010	1.8209	27.10	1.11	1.500			
0.4867	31146.33	3.7980	3.7980	1.8654	27.08	1.09	1.500			
0.4924	31514.32	3.7950	3.7950	1.9085	27.06	1.07	1.500			
0.4982	31882.56	3.7920	3.7921	1.9608	27.04	1.05	1.500			
0.5040	32255.72	3.7890	3.7891	2.0298	27.03	1.04	1.500			
0.5102	32651.17	3.7860	3.7859	2.1149	27.01	1.02	1.500			
0.5166	33065.15	3.7830	3.7830	2.1933	26.98	0.99	1.497			
0.5234	33496.82	3.7800	3.7802	2.2717	26.95	0.96	1.500			
0.5304	33945.87	3.7770	3.7770	2.3270	26.92	0.93	1.500			
0.5375	34399.98	3.7740	3.7740	2.3792	26.90	0.91	1.500			
0.5446	34852.49	3.7710	3.7711	2.3784	26.86	0.87	1.500			
0.5517	35307.34	3.7680	3.7681	2.4449	26.83	0.84	1.500			
0.5591	35782.36	3.7650	3.7649	2.5512	26.80	0.81	1.500			
0.5670	36285.58	3.7620	3.7620	2.6006	26.77	0.78	1.500			
0.5749	36796.27	3.7590	3.7591	2.6335	26.74	0.75	1.500	0.373	0.450	
0.5830	37311.14	3.7560	3.7558	2.6206	26.70	0.71	1.500			
0.5908	37810.79	3.7530	3.7530	2.5557	26.68	0.69	1.500			
0.5984	38296.14	3.7500	3.7501	2.5201	26.64	0.65	1.500			
0.6059	38778.38	3.7470	3.7470	2.4658	26.61	0.62	1.500			
0.6132	39246.30	3.7440	3.7440	2.4179	26.58	0.59	1.500			
0.6204	39704.23	3.7410	3.7411	2.3669	26.56	0.57	1.500			
0.6275	40160.34	3.7380	3.7380	2.3310	26.53	0.54	1.500			
0.6344	40598.92	3.7350	3.7350	2.3084	26.51	0.52	1.500			
0.6413	41040.38	3.7320	3.7321	2.2766	26.48	0.49	1.500			
0.6479	41468.05	3.7290	3.7290	2.3023	26.46	0.47	1.500			
0.6549	41910.73	3.7260	3.7262	2.3411	26.43	0.44	1.500			
0.6619	42362.31	3.7230	3.7230	2.3889	26.41	0.42	1.500			
0.6692	42828.20	3.7200	3.7201	2.4146	26.39	0.40	1.500			
0.6764	43292.39	3.7170	3.7171	2.4739	26.36	0.37	1.500			
0.6839	43770.57	3.7140	3.7137	2.5512	26.34	0.35	1.500			
0.6916	44261.03	3.7110	3.7111	2.6794	26.32	0.33	1.500			
0.6998	44784.26	3.7080	3.7080	2.8127	26.30	0.31	1.500			
0.7083	45332.48	3.7050	3.7051	2.9217	26.28	0.29	1.500			
0.7174	45912.22	3.7020	3.7021	3.0094	26.26	0.27	1.500			
0.7267	46511.96	3.6990	3.6990	3.1179	26.24	0.25	1.500			
0.7359	47096.28	3.6960	3.6960	3.0145	26.22	0.23	1.500			
0.7449	47670.65	3.6930	3.6931	2.8830	26.20	0.21	1.500			
0.7535	48223.79	3.6900	3.6901	2.7231	26.19	0.20	1.500			
0.7614	48730.08	3.6870	3.6869	2.5142	26.18	0.19	1.500			
0.7687	49196.22	3.6840	3.6842	2.2736	26.16	0.17	1.500			
0.7749	49595.60	3.6810	3.6811	2.0684	26.15	0.16	1.500			
0.7807	49964.52	3.6780	3.6781	1.8461	26.14	0.15	1.500			
0.7860	50305.25	3.6750	3.6749	1.7150	26.14	0.15	1.500			
0.7909	50614.45	3.6720	3.6720	1.5910	26.13	0.14	1.500			
0.7954	50907.66	3.6690	3.6691	1.4827	26.13	0.14	1.500			
0.7997	51180.23	3.6660	3.6660	1.4022	26.12	0.13	1.500			
0.8037	51436.01	3.6630	3.6629	1.3287	26.12	0.13	1.500			
0.8074	51675.66	3.6600	3.6600	1.2721	26.11	0.12	1.500			
0.8111	51911.33	3.6570	3.6570	1.2359	26.11	0.12	1.500			
0.8147	52143.41	3.6540	3.6539	1.2156	26.10	0.11	1.500			
0.8183	52374.03	3.6510	3.6510	1.2062	26.10	0.11	1.500			
0.8219	52603.00	3.6480	3.6480	1.2025	26.09	0.10	1.500			
0.8255	52832.54	3.6450	3.6450	1.2092	26.09	0.10	1.500			
0.8291	53061.98	3.6420	3.6420	1.2190	26.09	0.10	1.500			
0.8328	53297.48	3.6390	3.6389	1.2426	26.08	0.09	1.500			
0.8365	53538.27	3.6360	3.6360	1.2663	26.08	0.09	1.500			
0.8404	53787.27	3.6330	3.6331	1.2794	26.07	0.08	1.500			
0.8444	54038.44	3.6300	3.6299	1.2843	26.06	0.07	1.500			
0.8482	54287.21	3.6270	3.6272	1.2749	26.06	0.07	1.500			
0.8520	54529.33	3.6240	3.6240	1.2667	26.05	0.06	1.500			
0.8558	54769.82	3.6210	3.6209	1.2621	26.04	0.05	1.500			
0.8595	55008.03	3.6180	3.6180	1.2584	26.04	0.05	1.500			
0.8633	55249.04	3.6150	3.6150	1.2608	26.03	0.04	1.500			
0.8671	55496.33	3.6120	3.6120	1.2675	26.02	0.03	1.500			
0.8709	55739.66	3.6090	3.6091	1.2649	26.01	0.02	1.500			
0.8748	55984.78	3.6060	3.6060	1.2626	26.00	0.01	1.500			
0.8785	56226.22	3.6030	3.6030	1.2522	25.99	0.00	1.500			
0.8823	56465.62	3.6000	3.6000	1.2398	25.98	-0.01	1.500			
0.8860	56703.26	3.5970	3.5970	1.2264	25.98	-0.01	1.500			
0.8897	56938.97	3.5940	3.5940	1.2147	25.98	-0.01	1.500			
0.8933	57169.06	3.5910	3.5910	1.2019	25.97	-0.02	1.500			
0.8968	57397.72	3.5880	3.5880	1.1854	25.97	-0.02	1.500			
0.9003	57621.18	3.5850	3.5850	1.1931	25.97	-0.02	1.500			
0.9038	57846.28	3.5820	3.5820	1.2089	25.96	-0.03	1.500			
0.9075	58078.33	3.5790	3.5790	1.2250	25.96	-0.03	1.500			
0.9113	58323.98	3.5760	3.5759	1.2110	25.96	-0.03	1.500			
0.9151	58568.87	3.5730	3.5730	1.1831	25.97	-0.02	1.500			
0.9189	58807.00	3.5700	3.5701	1.0838	25.97	-0.02	1.500			
0.9222	59023.49	3.5670	3.5671	0.9732	25.98	-0.01	1.500			
0.9249	59195.78	3.5640	3.5641	0.8175	25.98	-0.01	1.500			
0.9271	59331.87	3.5610	3.5610	0.6543	25.98	-0.01	1.500			
0.9285	59427.14	3.5580	3.5581	0.5107	25.98	-0.01	1.500			
0.9298	59506.41	3.5550	3.5550	0.4093	25.99	-0.00	1.500			
0.9308	59570.52	3.5520	3.5519	0.3171	25.99	-0.00	1.500			
0.9316	59621.82	3.5490	3.5490	0.2628	25.99	-0.00	1.500			
0.9322	59661.75	3.5460	3.5461	0.2151	25.99	-0.00	1.500			
0.9328	59698.48	3.5430	3.5429	0.1784	25.99	-0.00	1.500			
0.9332	59727.30	3.5400	3.5400	0.1436	25.99	-0.00	1.500			
0.9336	59751.52	3.5370	3.5370	0.1167	25.99	-0.00	1.500			
0.9339	59771.44	3.5340	3.5340	0.0923	25.99	0.00	1.500			
0.9342	59786.68	3.5310	3.5312	0.0687	25.99	0.00	1.500			
0.9343	59797.62	3.5280	3.5283	0.0453	25.99	0.00	1.500			
