Ah_balance (normalized)	Ah_balance (mAh)	Voltage - fit (V)	Voltage -  interpolate (V)	dQ/dV (1/V)	Temperature (°C)	Temperature - diff (°C)	Current (C)	R_DC 0ms (mOhm)	R_DC 50ms (mOhm)	R_DC 50 ms PEC (mOhm)
0.2082	13324.25	3.9140	3.9137	-0.0963	25.87	0.00	-1.500			
0.2085	13346.44	3.9110	3.9109	-0.1313	25.87	0.00	-1.500			
0.2090	13374.92	3.9080	3.9079	-0.1624	25.87	0.00	-1.500			
0.2095	13409.12	3.9050	3.9050	-0.1924	25.87	-0.00	-1.500			
0.2101	13449.29	3.9020	3.9020	-0.2210	25.87	-0.00	-1.500			
0.2109	13494.64	3.8990	3.8990	-0.2489	25.87	-0.00	-1.500			
0.2116	13545.49	3.8960	3.8960	-0.2777	25.87	-0.00	-1.500			
0.2125	13601.89	3.8930	3.8930	-0.3031	25.87	-0.00	-1.500			
0.2135	13662.33	3.8900	3.8900	-0.3290	25.87	-0.00	-1.500			
0.2145	13727.85	3.8870	3.8870	-0.3561	25.87	-0.00	-1.500			
0.2156	13798.17	3.8840	3.8841	-0.3835	25.86	-0.01	-1.500			
0.2168	13874.62	3.8810	3.8809	-0.4107	25.86	-0.01	-1.500			
0.2181	13956.13	3.8780	3.8780	-0.4383	25.86	-0.01	-1.500			
0.2194	14042.71	3.8750	3.8750	-0.4673	25.86	-0.01	-1.500			
0.2209	14136.75	3.8720	3.8720	-0.4943	25.86	-0.01	-1.500			
0.2224	14234.26	3.8690	3.8689	-0.5169	25.86	-0.01	-1.500			
0.2240	14336.59	3.8660	3.8660	-0.5368	25.86	-0.01	-1.500			
0.2256	14441.59	3.8630	3.8631	-0.5575	25.86	-0.01	-1.500			
0.2273	14550.25	3.8600	3.8600	-0.5803	25.86	-0.01	-1.500			
0.2291	14663.52	3.8570	3.8570	-0.5981	25.85	-0.02	-1.500			
0.2309	14780.43	3.8540	3.8539	-0.6126	25.85	-0.02	-1.500			
0.2328	14900.77	3.8510	3.8511	-0.6283	25.85	-0.02	-1.500			
0.2347	15023.86	3.8480	3.8480	-0.6435	25.85	-0.02	-1.500			
0.2367	15149.37	3.8450	3.8450	-0.6521	25.85	-0.02	-1.500			
0.2387	15274.75	3.8420	3.8420	-0.6589	25.85	-0.02	-1.500			
0.2407	15401.78	3.8390	3.8391	-0.6673	25.85	-0.02	-1.500			
0.2427	15531.19	3.8360	3.8360	-0.6788	25.85	-0.02	-1.500			
0.2447	15662.68	3.8330	3.8330	-0.6851	25.85	-0.02	-1.500			
0.2468	15795.19	3.8300	3.8300	-0.6902	25.86	-0.01	-1.500			
0.2489	15927.71	3.8270	3.8270	-0.6972	25.86	-0.01	-1.500			
0.2510	16063.39	3.8240	3.8240	-0.7031	25.86	-0.01	-1.500			
0.2531	16198.65	3.8210	3.8209	-0.7051	25.86	-0.01	-1.500			
0.2552	16334.73	3.8180	3.8180	-0.7064	25.86	-0.01	-1.500			
0.2573	16470.19	3.8150	3.8150	-0.7087	25.86	-0.01	-1.500			
0.2595	16607.29	3.8120	3.8120	-0.7128	25.86	-0.01	-1.500			
0.2616	16744.42	3.8090	3.8090	-0.7116	25.86	-0.01	-1.500			
0.2637	16879.89	3.8060	3.8060	-0.7126	25.87	-0.00	-1.500			
0.2659	17017.82	3.8030	3.8031	-0.7141	25.87	-0.00	-1.500			
0.2680	17154.81	3.8000	3.8000	-0.7161	25.87	0.00	-1.500			
0.2702	17292.79	3.7970	3.7970	-0.7150	25.87	0.00	-1.500			
0.2723	17428.82	3.7940	3.7941	-0.7177	25.88	0.01	-1.500			
0.2745	17567.50	3.7910	3.7910	-0.7191	25.88	0.01	-1.500			
0.2767	17706.21	3.7880	3.7880	-0.7236	25.88	0.01	-1.500			
0.2788	17844.76	3.7850	3.7850	-0.7253	25.88	0.01	-1.500			
0.2810	17984.45	3.7820	3.7820	-0.7307	25.89	0.02	-1.500			
0.2832	18125.36	3.7790	3.7789	-0.7292	25.89	0.02	-1.500			
0.2854	18266.26	3.7760	3.7760	-0.7304	25.89	0.02	-1.500			
0.2876	18405.41	3.7730	3.7730	-0.7280	25.90	0.03	-1.500			
0.2898	18547.37	3.7700	3.7699	-0.7271	25.90	0.03	-1.500			
0.2920	18684.93	3.7670	3.7670	-0.7223	25.91	0.04	-1.500			
0.2941	18824.24	3.7640	3.7640	-0.7197	25.91	0.04	-1.500			
0.2963	18961.63	3.7610	3.7610	-0.7199	25.91	0.04	-1.500			
0.2984	19100.32	3.7580	3.7580	-0.7211	25.92	0.05	-1.500			
0.3006	19237.94	3.7550	3.7550	-0.7200	25.92	0.05	-1.500			
0.3028	19376.37	3.7520	3.7521	-0.7192	25.93	0.06	-1.500			
0.3049	19514.59	3.7490	3.7490	-0.7226	25.93	0.06	-1.500			
0.3071	19652.21	3.7460	3.7460	-0.7251	25.94	0.07	-1.500			
0.3092	19791.71	3.7430	3.7432	-0.7295	25.94	0.07	-1.500			
0.3114	19931.14	3.7400	3.7400	-0.7330	25.94	0.07	-1.500			
0.3137	20073.94	3.7370	3.7370	-0.7361	25.95	0.08	-1.500			
0.3159	20216.36	3.7340	3.7340	-0.7381	25.95	0.08	-1.500			
0.3181	20358.40	3.7310	3.7310	-0.7425	25.95	0.08	-1.500			
0.3203	20500.87	3.7280	3.7280	-0.7405	25.96	0.09	-1.500			
0.3225	20641.65	3.7250	3.7250	-0.7420	25.96	0.09	-1.500			
0.3248	20784.41	3.7220	3.7220	-0.7469	25.96	0.09	-1.500			
0.3270	20927.19	3.7190	3.7191	-0.7550	25.97	0.10	-1.500			
0.3293	21073.71	3.7160	3.7159	-0.7633	25.97	0.10	-1.500			
0.3316	21221.42	3.7130	3.7130	-0.7694	25.98	0.11	-1.500			
0.3339	21369.80	3.7100	3.7101	-0.7740	25.98	0.11	-1.500			
0.3362	21519.65	3.7070	3.7070	-0.7840	25.98	0.11	-1.500			
0.3386	21669.85	3.7040	3.7040	-0.7886	25.99	0.12	-1.500			
0.3410	21821.02	3.7010	3.7010	-0.7925	26.00	0.13	-1.500			
0.3433	21972.50	3.6980	3.6980	-0.8031	26.00	0.13	-1.500			
0.3458	22128.34	3.6950	3.6951	-0.8144	26.01	0.14	-1.500			
0.3482	22285.57	3.6920	3.6919	-0.8250	26.01	0.14	-1.500			
0.3507	22444.35	3.6890	3.6890	-0.8368	26.02	0.15	-1.500			
0.3532	22606.18	3.6860	3.6859	-0.8475	26.03	0.16	-1.500			
0.3558	22770.48	3.6830	3.6831	-0.8611	26.03	0.16	-1.500			
0.3584	22936.91	3.6800	3.6799	-0.8762	26.04	0.17	-1.500			
0.3610	23105.42	3.6770	3.6771	-0.8864	26.04	0.17	-1.500			
0.3637	23277.88	3.6740	3.6740	-0.9017	26.04	0.17	-1.500			
0.3664	23452.47	3.6710	3.6710	-0.9136	26.05	0.18	-1.500			
0.3692	23627.87	3.6680	3.6680	-0.9277	26.05	0.18	-1.500			
0.3720	23807.37	3.6650	3.6650	-0.9472	26.05	0.18	-1.500			
0.3749	23990.44	3.6620	3.6620	-0.9639	26.05	0.18	-1.500			
0.3778	24177.11	3.6590	3.6589	-0.9784	26.05	0.18	-1.500			
0.3807	24367.24	3.6560	3.6561	-1.0008	26.06	0.19	-1.500			
0.3838	24560.92	3.6530	3.6530	-1.0213	26.06	0.19	-1.500			
0.3869	24759.91	3.6500	3.6499	-1.0357	26.06	0.19	-1.500			
0.3900	24959.03	3.6470	3.6470	-1.0505	26.06	0.19	-1.500			
0.3932	25163.06	3.6440	3.6440	-1.0678	26.07	0.20	-1.500			
0.3964	25370.18	3.6410	3.6410	-1.0848	26.07	0.20	-1.500			
0.3997	25579.89	3.6380	3.6380	-1.1095	26.07	0.20	-1.500			
0.4030	25793.06	3.6350	3.6351	-1.1302	26.08	0.21	-1.500			
0.4064	26012.29	3.6320	3.6319	-1.1532	26.08	0.21	-1.500			
0.4100	26236.98	3.6290	3.6291	-1.1787	26.08	0.21	-1.500			
0.4135	26464.95	3.6260	3.6260	-1.1999	26.08	0.21	-1.500			
0.4172	26698.80	3.6230	3.6230	-1.2200	26.08	0.21	-1.500			
0.4209	26934.52	3.6200	3.6200	-1.2450	26.08	0.21	-1.500			
0.4246	27175.09	3.6170	3.6170	-1.2632	26.08	0.21	-1.500			
0.4284	27419.37	3.6140	3.6140	-1.2911	26.08	0.21	-1.500			
0.4323	27669.69	3.6110	3.6110	-1.3127	26.08	0.21	-1.500			
0.4363	27923.38	3.6080	3.6080	-1.3386	26.08	0.21	-1.500			
0.4404	28184.03	3.6050	3.6050	-1.3603	26.08	0.21	-1.500			
0.4445	28447.64	3.6020	3.6019	-1.3833	26.08	0.21	-1.500			
0.4487	28713.70	3.5990	3.5990	-1.4073	26.08	0.21	-1.500			
0.4529	28988.35	3.5960	3.5960	-1.4321	26.08	0.21	-1.500			
0.4573	29264.11	3.5930	3.5929	-1.4509	26.08	0.21	-1.500			
0.4617	29546.23	3.5900	3.5901	-1.4756	26.08	0.21	-1.500			
0.4661	29830.21	3.5870	3.5870	-1.4987	26.08	0.21	-1.500			
0.4706	30121.52	3.5840	3.5840	-1.5249	26.08	0.21	-1.500			
0.4753	30416.70	3.5810	3.5810	-1.5416	26.08	0.21	-1.500			
0.4799	30714.32	3.5780	3.5780	-1.5627	26.08	0.21	-1.500			
0.4847	31018.26	3.5750	3.5751	-1.5859	26.08	0.21	-1.500			
0.4894	31324.09	3.5720	3.5720	-1.6044	26.08	0.21	-1.500			
0.4943	31633.72	3.5690	3.5690	-1.6291	26.08	0.21	-1.500			
0.4992	31947.59	3.5660	3.5660	-1.6540	26.08	0.21	-1.500			
0.5042	32268.69	3.5630	3.5630	-1.6828	26.08	0.21	-1.500			
0.5093	32596.33	3.5600	3.5602	-1.6998	26.08	0.21	-1.500			
0.5145	32925.88	3.5570	3.5569	-1.7147	26.08	0.21	-1.500			
0.5197	33257.77	3.5540	3.5540	-1.7297	26.08	0.21	-1.500			
0.5248	33589.97	3.5510	3.5510	-1.7376	26.09	0.22	-1.500			
0.5301	33925.89	3.5480	3.5479	-1.7573	26.09	0.22	-1.500			
0.5353	34262.05	3.5450	3.5451	-1.7592	26.09	0.22	-1.500			
0.5406	34599.77	3.5420	3.5420	-1.7809	26.09	0.22	-1.500			
0.5460	34944.81	3.5390	3.5390	-1.7953	26.09	0.22	-1.500			
0.5514	35292.24	3.5360	3.5359	-1.7925	26.10	0.23	-1.500	0.388	0.520	
0.5569	35640.86	3.5330	3.5330	-1.7957	26.10	0.23	-1.500			
0.5623	35985.47	3.5300	3.5300	-1.7914	26.10	0.23	-1.500			
0.5676	36326.64	3.5270	3.5270	-1.7896	26.11	0.24	-1.500			
0.5730	36669.20	3.5240	3.5240	-1.7807	26.11	0.24	-1.500			
0.5783	37009.07	3.5210	3.5210	-1.7874	26.12	0.25	-1.500			
0.5837	37354.72	3.5180	3.5180	-1.7890	26.12	0.25	-1.500			
0.5890	37698.65	3.5150	3.5150	-1.7910	26.13	0.26	-1.500			
0.5944	38043.53	3.5120	3.5121	-1.7925	26.14	0.27	-1.500			
0.5998	38385.22	3.5090	3.5090	-1.7917	26.14	0.27	-1.500			
0.6052	38731.28	3.5060	3.5060	-1.7926	26.15	0.28	-1.500			
0.6106	39075.90	3.5030	3.5030	-1.7893	26.16	0.29	-1.500			
0.6159	39419.33	3.5000	3.5000	-1.7843	26.17	0.30	-1.500			
0.6213	39761.00	3.4970	3.4970	-1.7776	26.18	0.31	-1.500			
0.6266	40099.87	3.4940	3.4940	-1.7749	26.19	0.32	-1.500			
0.6319	40440.65	3.4910	3.4910	-1.7691	26.20	0.33	-1.500			
0.6372	40779.60	3.4880	3.4880	-1.7622	26.20	0.33	-1.500			
0.6425	41118.14	3.4850	3.4850	-1.7607	26.21	0.34	-1.500			
0.6478	41458.16	3.4820	3.4820	-1.7405	26.22	0.35	-1.500			
0.6530	41790.38	3.4790	3.4790	-1.7240	26.23	0.36	-1.500			
0.6581	42119.40	3.4760	3.4761	-1.7079	26.24	0.37	-1.500			
0.6632	42443.69	3.4730	3.4729	-1.6925	26.25	0.38	-1.500			
0.6683	42769.69	3.4700	3.4700	-1.6762	26.27	0.40	-1.500			
0.6733	43088.96	3.4670	3.4670	-1.6580	26.28	0.41	-1.500			
0.6782	43407.44	3.4640	3.4640	-1.6369	26.29	0.42	-1.500			
0.6832	43722.11	3.4610	3.4610	-1.6196	26.31	0.44	-1.500			
0.6879	44028.51	3.4580	3.4580	-1.5965	26.32	0.45	-1.500			
0.6927	44332.50	3.4550	3.4550	-1.5768	26.33	0.46	-1.500			
0.6974	44632.85	3.4520	3.4520	-1.5540	26.35	0.48	-1.500			
0.7020	44930.75	3.4490	3.4490	-1.5345	26.36	0.49	-1.500			
0.7066	45224.21	3.4460	3.4460	-1.5066	26.37	0.50	-1.500			
0.7111	45511.48	3.4430	3.4430	-1.4841	26.39	0.52	-1.500			
0.7155	45793.22	3.4400	3.4400	-1.4572	26.40	0.53	-1.500			
0.7198	46068.78	3.4370	3.4369	-1.4404	26.41	0.54	-1.500			
0.7241	46340.41	3.4340	3.4340	-1.4274	26.43	0.56	-1.500			
0.7283	46613.40	3.4310	3.4310	-1.4218	26.44	0.57	-1.500			
0.7326	46885.63	3.4280	3.4279	-1.4174	26.45	0.58	-1.500			
0.7368	47158.25	3.4250	3.4250	-1.4142	26.47	0.60	-1.500			
0.7411	47429.87	3.4220	3.4220	-1.3998	26.49	0.62	-1.500			
0.7453	47698.18	3.4190	3.4190	-1.3913	26.51	0.64	-1.500			
0.7494	47963.81	3.4160	3.4161	-1.3715	26.53	0.66	-1.500			
0.7535	48227.14	3.4130	3.4129	-1.3554	26.55	0.68	-1.500			
0.7576	48487.64	3.4100	3.4100	-1.3274	26.57	0.70	-1.500			
0.7616	48740.85	3.4070	3.4070	-1.2955	26.59	0.72	-1.500			
0.7654	48988.31	3.4040	3.4040	-1.2588	26.61	0.74	-1.500			
0.7692	49226.59	3.4010	3.4011	-1.2232	26.63	0.76	-1.500			
0.7728	49456.32	3.3980	3.3980	-1.1849	26.65	0.78	-1.500			
0.7763	49683.05	3.3950	3.3948	-1.1398	26.67	0.80	-1.500			
0.7797	49897.77	3.3920	3.3921	-1.0957	26.68	0.81	-1.500			
0.7829	50104.37	3.3890	3.3890	-1.0525	26.69	0.82	-1.500			
0.7860	50302.86	3.3860	3.3859	-1.0088	26.71	0.84	-1.500			
0.7889	50491.48	3.3830	3.3829	-0.9643	26.72	0.85	-1.500			
0.7917	50669.95	3.3800	3.3800	-0.9216	26.74	0.87	-1.500			
0.7944	50841.52	3.3770	3.3771	-0.8873	26.75	0.88	-1.500			
0.7970	51010.04	3.3740	3.3740	-0.8578	26.77	0.90	-1.500			
0.7995	51170.23	3.3710	3.3709	-0.8252	26.78	0.91	-1.500			
0.8020	51325.11	3.3680	3.3681	-0.8002	26.79	0.92	-1.500			
0.8043	51476.03	3.3650	3.3650	-0.7739	26.80	0.93	-1.500			
0.8066	51623.58	3.3620	3.3620	-0.7449	26.81	0.94	-1.500			
0.8088	51763.94	3.3590	3.3590	-0.7175	26.82	0.95	-1.500			
0.8109	51897.78	3.3560	3.3561	-0.6918	26.83	0.96	-1.500			
0.8129	52027.68	3.3530	3.3530	-0.6681	26.84	0.97	-1.500			
0.8149	52152.87	3.3500	3.3499	-0.6457	26.85	0.98	-1.500			
0.8168	52273.55	3.3470	3.3470	-0.6243	26.86	0.99	-1.500			
0.8186	52393.25	3.3440	3.3441	-0.6054	26.87	1.00	-1.500			
0.8204	52507.97	3.3410	3.3410	-0.5863	26.88	1.01	-1.500			
0.8222	52617.62	3.3380	3.3380	-0.5686	26.88	1.01	-1.500			
0.8238	52724.65	3.3350	3.3351	-0.5535	26.89	1.02	-1.500			
0.8254	52828.59	3.3320	3.3318	-0.5376	26.90	1.03	-1.500			
0.8271	52931.38	3.3290	3.3290	-0.5207	26.91	1.04	-1.500			
0.8286	53029.57	3.3260	3.3260	-0.5062	26.92	1.05	-1.500			
0.8301	53125.50	3.3230	3.3230	-0.4920	26.92	1.05	-1.500			
0.8315	53218.30	3.3200	3.3200	-0.4761	26.93	1.06	-1.500			
0.8329	53307.54	3.3170	3.3169	-0.4617	26.94	1.07	-1.500			
0.8343	53395.12	3.3140	3.3141	-0.4455	26.94	1.07	-1.500			
0.8356	53479.72	3.3110	3.3110	-0.4339	26.95	1.08	-1.500			
0.8369	53561.94	3.3080	3.3080	-0.4223	26.95	1.08	-1.500			
0.8381	53641.27	3.3050	3.3050	-0.4095	26.96	1.09	-1.500			
0.8393	53717.85	3.3020	3.3019	-0.3966	26.97	1.10	-1.500			
0.8405	53792.98	3.2990	3.2991	-0.3863	26.97	1.10	-1.500			
0.8417	53865.89	3.2960	3.2960	-0.3762	26.98	1.11	-1.500			
0.8428	53937.43	3.2930	3.2930	-0.3680	26.99	1.12	-1.500			
0.8439	54006.57	3.2900	3.2900	-0.3567	26.99	1.12	-1.500			
0.8449	54074.24	3.2870	3.2870	-0.3483	27.00	1.13	-1.500			
0.8459	54140.25	3.2840	3.2840	-0.3396	27.00	1.13	-1.500			
0.8470	54204.87	3.2810	3.2810	-0.3318	27.01	1.14	-1.500			
0.8479	54268.16	3.2780	3.2780	-0.3226	27.01	1.14	-1.500			
0.8489	54329.20	3.2750	3.2749	-0.3134	27.02	1.15	-1.500			
0.8498	54388.14	3.2720	3.2721	-0.3046	27.02	1.15	-1.500			
0.8507	54445.80	3.2690	3.2691	-0.2972	27.03	1.16	-1.500			
0.8516	54501.59	3.2660	3.2659	-0.2897	27.03	1.16	-1.500			
0.8524	54556.32	3.2630	3.2630	-0.2837	27.04	1.17	-1.500			
0.8533	54610.55	3.2600	3.2599	-0.2764	27.04	1.17	-1.500			
0.8541	54662.89	3.2570	3.2570	-0.2710	27.05	1.18	-1.500			
0.8549	54714.27	3.2540	3.2541	-0.2657	27.05	1.18	-1.500			
0.8557	54764.67	3.2510	3.2511	-0.2601	27.06	1.19	-1.500			
0.8565	54814.03	3.2480	3.2478	-0.2554	27.06	1.19	-1.500			
0.8572	54861.80	3.2450	3.2451	-0.2498	27.07	1.20	-1.500			
0.8580	54909.64	3.2420	3.2421	-0.2452	27.07	1.20	-1.500			
0.8587	54956.49	3.2390	3.2390	-0.2423	27.08	1.21	-1.500			
0.8594	55002.98	3.2360	3.2360	-0.2397	27.08	1.21	-1.500			
0.8601	55048.24	3.2330	3.2330	-0.2333	27.09	1.22	-1.500			
0.8608	55092.83	3.2300	3.2300	-0.2288	27.09	1.22	-1.500			
0.8615	55136.53	3.2270	3.2270	-0.2246	27.10	1.23	-1.500			
0.8622	55179.00	3.2240	3.2241	-0.2211	27.10	1.23	-1.500			
0.8628	55221.03	3.2210	3.2209	-0.2172	27.11	1.24	-1.500			
0.8635	55261.73	3.2180	3.2179	-0.2119	27.11	1.24	-1.500			
0.8641	55302.10	3.2150	3.2149	-0.2096	27.12	1.25	-1.500			
0.8647	55341.85	3.2120	3.2121	-0.2068	27.12	1.25	-1.500			
0.8653	55381.84	3.2090	3.2090	-0.2048	27.13	1.26	-1.500			
0.8660	55421.05	3.2060	3.2059	-0.2020	27.13	1.26	-1.500			
0.8666	55459.41	3.2030	3.2030	-0.1990	27.14	1.27	-1.500			
0.8671	55497.02	3.2000	3.2000	-0.1961	27.14	1.27	-1.500			
0.8677	55534.50	3.1970	3.1970	-0.1942	27.15	1.28	-1.500			
0.8683	55571.55	3.1940	3.1940	-0.1918	27.15	1.28	-1.500			
0.8689	55607.99	3.1910	3.1910	-0.1888	27.16	1.29	-1.500			
0.8694	55643.88	3.1880	3.1880	-0.1870	27.16	1.29	-1.500			
0.8700	55679.84	3.1850	3.1850	-0.1848	27.16	1.29	-1.500			
0.8705	55715.05	3.1820	3.1821	-0.1825	27.17	1.30	-1.500			
0.8711	55749.82	3.1790	3.1788	-0.1800	27.17	1.30	-1.500			
0.8716	55784.05	3.1760	3.1761	-0.1780	27.18	1.31	-1.500			
0.8722	55818.00	3.1730	3.1730	-0.1759	27.18	1.31	-1.500			
0.8727	55851.60	3.1700	3.1699	-0.1740	27.19	1.32	-1.500			
0.8732	55884.94	3.1670	3.1670	-0.1721	27.19	1.32	-1.500			
0.8737	55917.46	3.1640	3.1641	-0.1703	27.20	1.33	-1.500			
0.8742	55950.17	3.1610	3.1610	-0.1692	27.20	1.33	-1.500			
0.8747	55982.37	3.1580	3.1580	-0.1675	27.21	1.34	-1.500			
0.8752	56014.41	3.1550	3.1550	-0.1662	27.21	1.34	-1.500			
0.8757	56046.22	3.1520	3.1520	-0.1644	27.22	1.35	-1.500			
0.8762	56077.52	3.1490	3.1490	-0.1638	27.22	1.35	-1.500			
0.8767	56109.06	3.1460	3.1461	-0.1623	27.22	1.35	-1.500			
0.8772	56140.07	3.1430	3.1429	-0.1607	27.23	1.36	-1.500			
0.8777	56170.66	3.1400	3.1399	-0.1596	27.23	1.36	-1.500			
0.8781	56201.23	3.1370	3.1372	-0.1583	27.24	1.37	-1.500			
0.8786	56231.49	3.1340	3.1339	-0.1571	27.24	1.37	-1.500			
0.8791	56261.54	3.1310	3.1310	-0.1559	27.25	1.38	-1.500			
0.8796	56291.51	3.1280	3.1280	-0.1544	27.25	1.38	-1.500			
0.8800	56320.63	3.1250	3.1250	-0.1529	27.26	1.39	-1.500			
0.8805	56350.06	3.1220	3.1220	-0.1525	27.26	1.39	-1.500			
0.8809	56379.24	3.1190	3.1191	-0.1514	27.27	1.40	-1.500			
0.8814	56408.02	3.1160	3.1159	-0.1501	27.27	1.40	-1.500			
0.8818	56436.76	3.1130	3.1132	-0.1494	27.27	1.40	-1.500			
0.8823	56465.35	3.1100	3.1100	-0.1487	27.28	1.41	-1.500			
0.8827	56493.81	3.1070	3.1069	-0.1481	27.28	1.41	-1.500			
0.8832	56522.50	3.1040	3.1039	-0.1468	27.29	1.42	-1.500			
0.8836	56550.54	3.1010	3.1010	-0.1452	27.29	1.42	-1.500			
0.8840	56578.10	3.0980	3.0981	-0.1444	27.30	1.43	-1.500			
0.8845	56605.73	3.0950	3.0951	-0.1434	27.30	1.43	-1.500			
0.8849	56633.20	3.0920	3.0919	-0.1420	27.31	1.44	-1.500			
0.8853	56660.11	3.0890	3.0889	-0.1409	27.31	1.44	-1.500			
0.8857	56687.05	3.0860	3.0861	-0.1400	27.32	1.45	-1.500			
0.8862	56713.87	3.0830	3.0830	-0.1395	27.33	1.46	-1.500			
0.8866	56740.80	3.0800	3.0799	-0.1391	27.33	1.46	-1.500			
0.8870	56767.67	3.0770	3.0770	-0.1375	27.34	1.47	-1.500			
0.8874	56793.56	3.0740	3.0741	-0.1363	27.34	1.47	-1.500			
0.8878	56819.66	3.0710	3.0709	-0.1356	27.35	1.48	-1.500			
0.8882	56845.78	3.0680	3.0681	-0.1350	27.35	1.48	-1.500			
0.8886	56871.42	3.0650	3.0649	-0.1338	27.36	1.49	-1.500			
0.8890	56896.97	3.0620	3.0619	-0.1331	27.36	1.49	-1.500			
0.8894	56922.48	3.0590	3.0592	-0.1327	27.37	1.50	-1.500			
0.8898	56947.82	3.0560	3.0560	-0.1326	27.37	1.50	-1.500			
0.8902	56973.58	3.0530	3.0529	-0.1325	27.38	1.51	-1.500			
0.8906	56998.66	3.0500	3.0501	-0.1312	27.38	1.51	-1.500			
0.8910	57023.89	3.0470	3.0469	-0.1305	27.39	1.52	-1.500			
0.8914	57049.14	3.0440	3.0441	-0.1298	27.39	1.52	-1.500			
0.8918	57073.94	3.0410	3.0411	-0.1292	27.40	1.53	-1.500			
0.8922	57098.59	3.0380	3.0379	-0.1280	27.40	1.53	-1.500			
0.8925	57123.11	3.0350	3.0350	-0.1271	27.41	1.54	-1.500			
0.8929	57147.27	3.0320	3.0320	-0.1260	27.41	1.54	-1.500			
0.8933	57171.50	3.0290	3.0291	-0.1254	27.42	1.55	-1.500			
0.8937	57195.42	3.0260	3.0260	-0.1248	27.42	1.55	-1.500			
0.8941	57219.30	3.0230	3.0229	-0.1242	27.43	1.56	-1.500			
0.8944	57243.02	3.0200	3.0200	-0.1238	27.43	1.56	-1.500			
0.8948	57266.75	3.0170	3.0170	-0.1234	27.43	1.56	-1.500			
0.8952	57290.33	3.0140	3.0140	-0.1224	27.44	1.57	-1.500			
0.8955	57313.99	3.0110	3.0110	-0.1221	27.44	1.57	-1.500			
0.8959	57337.34	3.0080	3.0081	-0.1212	27.45	1.58	-1.500			
0.8963	57360.63	3.0050	3.0050	-0.1197	27.45	1.58	-1.499			
0.8966	57383.48	3.0020	3.0020	-0.1171	27.46	1.59	-1.500			
