Ah_balance (normalized)	Ah_balance (mAh)	Voltage - fit (V)	Voltage -  interpolate (V)	dQ/dV (1/V)	Temperature (°C)	Temperature - diff (°C)	Current (C)	R_DC 0ms (mOhm)	R_DC 50ms (mOhm)	R_DC 50 ms PEC (mOhm)
0.2848	18227.92	3.9870	3.9870	0.8258	27.16	1.18	1.500			
0.2873	18386.65	3.9840	3.9840	0.8312	27.15	1.17	1.500			
0.2898	18547.73	3.9810	3.9810	0.8430	27.15	1.17	1.500			
0.2924	18712.10	3.9780	3.9779	0.8497	27.14	1.16	1.500			
0.2949	18875.44	3.9750	3.9750	0.8511	27.14	1.16	1.500			
0.2975	19040.50	3.9720	3.9720	0.8571	27.13	1.15	1.500			
0.3001	19206.22	3.9690	3.9691	0.8586	27.13	1.15	1.500			
0.3027	19370.09	3.9660	3.9658	0.8561	27.12	1.14	1.500			
0.3052	19532.71	3.9630	3.9631	0.8584	27.12	1.14	1.500			
0.3078	19698.11	3.9600	3.9600	0.8638	27.11	1.13	1.500			
0.3104	19863.81	3.9570	3.9570	0.8742	27.11	1.13	1.500			
0.3130	20032.38	3.9540	3.9540	0.8783	27.10	1.12	1.500			
0.3157	20202.47	3.9510	3.9510	0.8831	27.09	1.11	1.500			
0.3183	20373.84	3.9480	3.9480	0.8869	27.09	1.11	1.500			
0.3210	20543.67	3.9450	3.9451	0.8897	27.08	1.10	1.500			
0.3237	20713.97	3.9420	3.9420	0.8914	27.08	1.10	1.500			
0.3263	20885.21	3.9390	3.9390	0.8933	27.07	1.09	1.500			
0.3290	21056.01	3.9360	3.9360	0.8983	27.07	1.09	1.500			
0.3317	21229.88	3.9330	3.9330	0.9084	27.06	1.08	1.500			
0.3344	21404.76	3.9300	3.9300	0.9150	27.06	1.08	1.500			
0.3372	21582.34	3.9270	3.9270	0.9189	27.06	1.08	1.500			
0.3400	21758.73	3.9240	3.9240	0.9216	27.05	1.07	1.500			
0.3428	21936.74	3.9210	3.9210	0.9233	27.05	1.07	1.500			
0.3455	22114.38	3.9180	3.9181	0.9273	27.04	1.06	1.500			
0.3483	22291.08	3.9150	3.9150	0.9299	27.04	1.06	1.500			
0.3511	22469.05	3.9120	3.9119	0.9373	27.03	1.05	1.500			
0.3539	22649.68	3.9090	3.9091	0.9480	27.03	1.05	1.500			
0.3568	22832.89	3.9060	3.9059	0.9583	27.02	1.04	1.500			
0.3597	23019.19	3.9030	3.9030	0.9656	27.01	1.03	1.500			
0.3626	23205.82	3.9000	3.9000	0.9737	27.01	1.03	1.500			
0.3655	23393.12	3.8970	3.8970	0.9775	27.00	1.02	1.500			
0.3685	23580.96	3.8940	3.8941	0.9856	26.99	1.01	1.500			
0.3714	23770.48	3.8910	3.8910	0.9931	26.99	1.01	1.500			
0.3744	23961.80	3.8880	3.8880	1.0019	26.98	1.00	1.500			
0.3774	24155.14	3.8850	3.8850	1.0128	26.97	0.99	1.500			
0.3805	24351.62	3.8820	3.8820	1.0228	26.97	0.99	1.500			
0.3836	24548.28	3.8790	3.8790	1.0304	26.96	0.98	1.500			
0.3867	24745.67	3.8760	3.8760	1.0458	26.96	0.98	1.500			
0.3898	24947.39	3.8730	3.8730	1.0555	26.95	0.97	1.500			
0.3930	25151.35	3.8700	3.8700	1.0645	26.95	0.97	1.500			
0.3962	25355.86	3.8670	3.8670	1.0810	26.94	0.96	1.500			
0.3994	25564.74	3.8640	3.8641	1.0965	26.94	0.96	1.500			
0.4028	25778.15	3.8610	3.8608	1.1069	26.93	0.95	1.500			
0.4061	25990.85	3.8580	3.8581	1.1207	26.92	0.94	1.500			
0.4095	26206.92	3.8550	3.8550	1.1356	26.92	0.94	1.500			
0.4129	26428.77	3.8520	3.8519	1.1509	26.91	0.93	1.500			
0.4164	26648.19	3.8490	3.8490	1.1625	26.90	0.92	1.500			
0.4199	26871.75	3.8460	3.8461	1.1833	26.90	0.92	1.500			
0.4235	27101.56	3.8430	3.8430	1.2066	26.89	0.91	1.500			
0.4271	27335.65	3.8400	3.8399	1.2338	26.88	0.90	1.500			
0.4308	27573.08	3.8370	3.8371	1.2536	26.87	0.89	1.500			
0.4347	27818.03	3.8340	3.8340	1.2768	26.86	0.88	1.500			
0.4386	28069.51	3.8310	3.8310	1.2979	26.85	0.87	1.500			
0.4425	28316.87	3.8280	3.8280	1.3186	26.85	0.87	1.500			
0.4464	28571.78	3.8250	3.8250	1.3415	26.84	0.86	1.500			
0.4505	28831.13	3.8220	3.8220	1.3647	26.83	0.85	1.500			
0.4546	29093.92	3.8190	3.8191	1.3934	26.82	0.84	1.500			
0.4588	29365.22	3.8160	3.8160	1.4242	26.81	0.83	1.500			
0.4632	29643.55	3.8130	3.8130	1.4492	26.80	0.82	1.500			
0.4676	29924.62	3.8100	3.8100	1.4797	26.78	0.80	1.500			
0.4720	30208.86	3.8070	3.8071	1.5072	26.77	0.79	1.500			
0.4766	30501.51	3.8040	3.8039	1.5426	26.76	0.78	1.500			
0.4813	30800.04	3.8010	3.8010	1.5732	26.75	0.77	1.500			
0.4860	31106.91	3.7980	3.7980	1.6023	26.74	0.76	1.500			
0.4909	31418.40	3.7950	3.7950	1.6374	26.72	0.74	1.500			
0.4959	31734.84	3.7920	3.7920	1.6733	26.71	0.73	1.500			
0.5009	32059.90	3.7890	3.7890	1.7025	26.70	0.72	1.500			
0.5061	32390.19	3.7860	3.7860	1.7253	26.68	0.70	1.500			
0.5113	32725.44	3.7830	3.7831	1.7577	26.67	0.69	1.500			
0.5166	33063.86	3.7800	3.7800	1.7858	26.65	0.67	1.500			
0.5220	33408.97	3.7770	3.7770	1.8010	26.64	0.66	1.500			
0.5275	33759.17	3.7740	3.7739	1.8302	26.62	0.64	1.500	0.353	0.464	
0.5330	34114.68	3.7710	3.7710	1.8303	26.60	0.62	1.500			
0.5386	34467.67	3.7680	3.7680	1.8155	26.59	0.61	1.500			
0.5439	34812.46	3.7650	3.7650	1.7989	26.57	0.59	1.500			
0.5493	35152.19	3.7620	3.7621	1.7911	26.55	0.57	1.500			
0.5546	35497.46	3.7590	3.7589	1.7960	26.54	0.56	1.500			
0.5600	35840.19	3.7560	3.7560	1.8036	26.52	0.54	1.500			
0.5654	36188.04	3.7530	3.7530	1.8136	26.51	0.53	1.500			
0.5709	36538.60	3.7500	3.7500	1.8291	26.50	0.52	1.500			
0.5764	36888.51	3.7470	3.7470	1.8357	26.48	0.50	1.500			
0.5819	37242.54	3.7440	3.7440	1.8522	26.47	0.49	1.500			
0.5875	37602.84	3.7410	3.7410	1.8607	26.46	0.48	1.500			
0.5931	37961.07	3.7380	3.7381	1.8776	26.44	0.46	1.500			
0.5987	38317.26	3.7350	3.7350	1.9116	26.43	0.45	1.500			
0.6045	38688.12	3.7320	3.7321	1.9566	26.42	0.44	1.500			
0.6105	39073.46	3.7290	3.7290	2.0095	26.40	0.42	1.500			
0.6165	39459.08	3.7260	3.7261	2.0732	26.38	0.40	1.500			
0.6228	39861.58	3.7230	3.7230	2.1443	26.36	0.38	1.500			
0.6294	40279.42	3.7200	3.7200	2.2168	26.35	0.37	1.500			
0.6362	40716.75	3.7170	3.7170	2.2943	26.33	0.35	1.500			
0.6432	41164.17	3.7140	3.7141	2.3861	26.32	0.34	1.500			
0.6504	41625.25	3.7110	3.7110	2.4307	26.31	0.33	1.500			
0.6578	42099.07	3.7080	3.7081	2.4647	26.29	0.31	1.500			
0.6653	42580.79	3.7050	3.7049	2.4451	26.27	0.29	1.500			
0.6727	43050.12	3.7020	3.7020	2.4177	26.24	0.26	1.500			
0.6801	43523.59	3.6990	3.6989	2.3718	26.23	0.25	1.500			
0.6871	43975.02	3.6960	3.6961	2.2170	26.22	0.24	1.500			
0.6935	44385.81	3.6930	3.6930	2.0462	26.21	0.23	1.500			
0.6993	44755.17	3.6900	3.6900	1.8641	26.20	0.22	1.500			
0.7046	45093.01	3.6870	3.6870	1.7289	26.20	0.22	1.500			
0.7095	45408.88	3.6840	3.6840	1.6152	26.18	0.20	1.500			
0.7142	45706.89	3.6810	3.6810	1.5227	26.17	0.19	1.500			
0.7185	45985.24	3.6780	3.6781	1.4443	26.16	0.18	1.500			
0.7227	46253.77	3.6750	3.6750	1.3871	26.15	0.17	1.500			
0.7268	46513.80	3.6720	3.6719	1.3421	26.14	0.16	1.500			
0.7307	46761.91	3.6690	3.6690	1.3032	26.14	0.16	1.500			
0.7345	47009.29	3.6660	3.6660	1.2830	26.13	0.15	1.500			
0.7383	47252.00	3.6630	3.6630	1.2693	26.12	0.14	1.500			
0.7421	47492.68	3.6600	3.6600	1.2698	26.12	0.14	1.500			
0.7458	47733.30	3.6570	3.6570	1.2662	26.11	0.13	1.500			
0.7496	47976.17	3.6540	3.6540	1.2750	26.11	0.13	1.500			
0.7535	48222.77	3.6510	3.6509	1.2851	26.10	0.12	1.500			
0.7574	48471.25	3.6480	3.6480	1.2914	26.09	0.11	1.500			
0.7613	48721.68	3.6450	3.6450	1.2976	26.08	0.10	1.500			
0.7652	48971.35	3.6420	3.6420	1.2963	26.07	0.09	1.500			
0.7690	49218.93	3.6390	3.6390	1.2942	26.06	0.08	1.500			
0.7729	49468.31	3.6360	3.6360	1.2945	26.05	0.07	1.500			
0.7768	49716.30	3.6330	3.6330	1.2900	26.04	0.06	1.500			
0.7807	49965.81	3.6300	3.6300	1.2845	26.03	0.05	1.500			
0.7846	50212.08	3.6270	3.6270	1.2751	26.02	0.04	1.500			
0.7884	50455.20	3.6240	3.6241	1.2727	26.01	0.03	1.500			
0.7922	50698.86	3.6210	3.6210	1.2674	26.01	0.03	1.500			
0.7960	50940.93	3.6180	3.6179	1.2590	26.00	0.02	1.500			
0.7998	51184.69	3.6150	3.6150	1.2476	25.99	0.01	1.500			
0.8035	51424.67	3.6120	3.6121	1.2385	25.98	-0.00	1.500			
0.8072	51662.29	3.6090	3.6090	1.2212	25.98	-0.00	1.500			
0.8109	51896.17	3.6060	3.6060	1.2001	25.97	-0.01	1.500			
0.8144	52122.50	3.6030	3.6029	1.1788	25.97	-0.01	1.500			
0.8179	52345.94	3.6000	3.6000	1.1561	25.97	-0.01	1.500			
0.8213	52566.03	3.5970	3.5970	1.1385	25.97	-0.01	1.500			
0.8247	52783.11	3.5940	3.5940	1.1212	25.96	-0.02	1.500			
0.8281	52996.70	3.5910	3.5909	1.0984	25.96	-0.02	1.500			
0.8314	53207.89	3.5880	3.5880	1.0717	25.96	-0.02	1.500			
0.8346	53415.84	3.5850	3.5850	1.0316	25.97	-0.01	1.500			
0.8377	53612.61	3.5820	3.5820	0.9713	25.97	-0.01	1.500			
0.8406	53799.81	3.5790	3.5790	0.8870	25.97	-0.01	1.500			
0.8432	53965.21	3.5760	3.5761	0.7894	25.97	-0.01	1.500			
0.8455	54109.60	3.5730	3.5731	0.6838	25.97	-0.01	1.500			
0.8473	54229.25	3.5700	3.5700	0.5748	25.98	-0.00	1.500			
0.8488	54323.25	3.5670	3.5670	0.4820	25.98	-0.00	1.500			
0.8500	54402.20	3.5640	3.5639	0.4007	25.98	-0.00	1.500			
0.8510	54465.07	3.5610	3.5610	0.3351	25.98	-0.00	1.500			
0.8519	54520.83	3.5580	3.5579	0.2901	25.98	-0.00	1.500			
0.8526	54569.56	3.5550	3.5549	0.2494	25.98	-0.00	1.500			
0.8533	54613.08	3.5520	3.5520	0.2230	25.98	0.00	1.500			
0.8539	54651.48	3.5490	3.5491	0.2002	25.98	0.00	1.500			
0.8545	54687.08	3.5460	3.5460	0.1819	25.98	0.00	1.500			
0.8550	54719.79	3.5430	3.5430	0.1643	25.98	0.00	1.500			
0.8555	54749.24	3.5400	3.5400	0.1487	25.98	0.00	1.500			
0.8559	54776.27	3.5370	3.5370	0.1342	25.98	0.00	1.500			
0.8563	54800.71	3.5340	3.5341	0.1200	25.98	0.00	1.500			
0.8566	54822.40	3.5310	3.5309	0.1060	25.98	0.00	1.500			
0.8569	54841.55	3.5280	3.5280	0.0921	25.98	0.00	1.500			
0.8572	54857.74	3.5250	3.5251	0.0778	25.98	0.00	1.500			
0.8574	54871.33	3.5220	3.5222	0.0638	25.98	0.00	1.500			
0.8575	54882.32	3.5190	3.5195	0.0495	25.98	0.00	1.500			
0.8577	54890.45	3.5160	3.5168	0.0352	25.98	0.00	1.500			
