Ah_balance (normalized)	Ah_balance (mAh)	Voltage - fit (V)	Voltage -  interpolate (V)	dQ/dV (1/V)	Temperature (°C)	Temperature - diff (°C)	Current (C)	R_DC 0ms (mOhm)	R_DC 50ms (mOhm)	R_DC 50 ms PEC (mOhm)
0.2720	17408.79	3.9860	3.9859	0.8706	27.07	1.15	1.500			
0.2746	17573.05	3.9830	3.9830	0.8573	27.06	1.14	1.500			
0.2771	17736.52	3.9800	3.9801	0.8576	27.06	1.14	1.500			
0.2797	17901.42	3.9770	3.9770	0.8609	27.05	1.13	1.500			
0.2823	18066.52	3.9740	3.9740	0.8639	27.05	1.13	1.500			
0.2849	18232.94	3.9710	3.9710	0.8642	27.05	1.13	1.500			
0.2875	18399.88	3.9680	3.9680	0.8694	27.04	1.12	1.500			
0.2901	18567.16	3.9650	3.9650	0.8758	27.04	1.12	1.500			
0.2927	18735.98	3.9620	3.9620	0.8746	27.03	1.11	1.500			
0.2954	18903.24	3.9590	3.9589	0.8801	27.03	1.11	1.500			
0.2980	19073.99	3.9560	3.9561	0.8793	27.02	1.10	1.500			
0.3007	19242.53	3.9530	3.9530	0.8877	27.02	1.10	1.500			
0.3033	19414.29	3.9500	3.9500	0.8895	27.02	1.10	1.500			
0.3060	19584.52	3.9470	3.9469	0.8898	27.01	1.09	1.500			
0.3087	19754.70	3.9440	3.9441	0.8929	27.01	1.09	1.500			
0.3114	19927.69	3.9410	3.9410	0.8995	27.00	1.08	1.500			
0.3141	20099.56	3.9380	3.9380	0.9045	26.99	1.07	1.500			
0.3168	20274.06	3.9350	3.9349	0.9165	26.98	1.06	1.500			
0.3195	20450.80	3.9320	3.9320	0.9166	26.97	1.05	1.500			
0.3223	20629.46	3.9290	3.9290	0.9205	26.97	1.05	1.500			
0.3251	20806.93	3.9260	3.9260	0.9232	26.96	1.04	1.500			
0.3279	20983.72	3.9230	3.9230	0.9250	26.95	1.03	1.500			
0.3306	21159.05	3.9200	3.9199	0.9263	26.94	1.02	1.500			
0.3334	21335.94	3.9170	3.9170	0.9320	26.94	1.02	1.500			
0.3362	21514.42	3.9140	3.9140	0.9390	26.93	1.01	1.500			
0.3390	21698.29	3.9110	3.9109	0.9493	26.92	1.00	1.500			
0.3419	21882.12	3.9080	3.9080	0.9582	26.92	1.00	1.500			
0.3448	22066.62	3.9050	3.9050	0.9620	26.91	0.99	1.500			
0.3477	22251.23	3.9020	3.9020	0.9675	26.90	0.98	1.500			
0.3506	22437.58	3.8990	3.8990	0.9756	26.90	0.98	1.500			
0.3535	22623.26	3.8960	3.8960	0.9836	26.89	0.97	1.500			
0.3565	22813.04	3.8930	3.8928	0.9954	26.88	0.96	1.500			
0.3595	23007.18	3.8900	3.8900	1.0082	26.87	0.95	1.500			
0.3625	23201.00	3.8870	3.8870	1.0170	26.86	0.94	1.500			
0.3656	23399.02	3.8840	3.8840	1.0269	26.86	0.94	1.500			
0.3687	23596.00	3.8810	3.8811	1.0365	26.85	0.93	1.500			
0.3718	23795.05	3.8780	3.8779	1.0410	26.84	0.92	1.500			
0.3749	23994.25	3.8750	3.8750	1.0531	26.83	0.91	1.500			
0.3781	24197.10	3.8720	3.8720	1.0630	26.82	0.90	1.500			
0.3813	24402.10	3.8690	3.8689	1.0723	26.81	0.89	1.500			
0.3845	24610.07	3.8660	3.8660	1.0816	26.80	0.88	1.500			
0.3878	24818.11	3.8630	3.8631	1.0983	26.79	0.87	1.500			
0.3911	25028.95	3.8600	3.8599	1.1100	26.78	0.86	1.500			
0.3945	25245.50	3.8570	3.8570	1.1236	26.77	0.85	1.500			
0.3978	25459.75	3.8540	3.8540	1.1383	26.76	0.84	1.500			
0.4013	25680.96	3.8510	3.8511	1.1567	26.75	0.83	1.500			
0.4048	25904.39	3.8480	3.8479	1.1762	26.74	0.82	1.500			
0.4083	26130.28	3.8450	3.8451	1.1968	26.72	0.80	1.500			
0.4119	26361.60	3.8420	3.8420	1.2131	26.71	0.79	1.500			
0.4156	26597.70	3.8390	3.8390	1.2346	26.70	0.78	1.500			
0.4193	26835.45	3.8360	3.8360	1.2566	26.69	0.77	1.500			
0.4231	27078.59	3.8330	3.8330	1.2737	26.67	0.75	1.500			
0.4270	27324.81	3.8300	3.8300	1.2964	26.66	0.74	1.500			
0.4309	27574.99	3.8270	3.8269	1.3157	26.64	0.72	1.500			
0.4348	27829.30	3.8240	3.8242	1.3374	26.63	0.71	1.500			
0.4389	28090.22	3.8210	3.8209	1.3611	26.62	0.70	1.500			
0.4430	28351.99	3.8180	3.8181	1.3884	26.61	0.69	1.500			
0.4472	28620.05	3.8150	3.8150	1.4157	26.60	0.68	1.500			
0.4515	28894.19	3.8120	3.8120	1.4456	26.59	0.67	1.500			
0.4558	29174.09	3.8090	3.8090	1.4735	26.57	0.65	1.500			
0.4603	29458.48	3.8060	3.8061	1.5116	26.56	0.64	1.500			
0.4649	29755.93	3.8030	3.8030	1.5386	26.55	0.63	1.500			
0.4696	30053.67	3.8000	3.8000	1.5725	26.53	0.61	1.500			
0.4743	30356.04	3.7970	3.7971	1.6017	26.52	0.60	1.500			
0.4792	30666.29	3.7940	3.7941	1.6396	26.51	0.59	1.500			
0.4841	30985.07	3.7910	3.7910	1.6742	26.49	0.57	1.500			
0.4892	31311.91	3.7880	3.7880	1.6909	26.48	0.56	1.500			
0.4943	31638.08	3.7850	3.7850	1.7124	26.46	0.54	1.500			
0.4995	31970.00	3.7820	3.7821	1.7511	26.44	0.52	1.500			
0.5048	32309.59	3.7790	3.7789	1.7839	26.43	0.51	1.500			
0.5102	32655.24	3.7760	3.7760	1.8173	26.41	0.49	1.500			
0.5158	33013.30	3.7730	3.7730	1.8454	26.39	0.47	1.500	0.342	0.460	
0.5215	33373.48	3.7700	3.7701	1.8569	26.37	0.45	1.500			
0.5270	33730.09	3.7670	3.7670	1.8496	26.36	0.44	1.500			
0.5326	34084.13	3.7640	3.7639	1.8457	26.34	0.42	1.500			
0.5381	34435.22	3.7610	3.7610	1.8423	26.32	0.40	1.500			
0.5436	34791.06	3.7580	3.7580	1.8380	26.31	0.39	1.500			
0.5491	35143.46	3.7550	3.7550	1.8398	26.29	0.37	1.500			
0.5547	35498.63	3.7520	3.7520	1.8483	26.28	0.36	1.500			
0.5602	35852.32	3.7490	3.7491	1.8647	26.26	0.34	1.500			
0.5658	36211.65	3.7460	3.7460	1.8743	26.24	0.32	1.500			
0.5715	36573.39	3.7430	3.7430	1.8993	26.23	0.31	1.500			
0.5771	36936.82	3.7400	3.7401	1.9195	26.21	0.29	1.500			
0.5830	37310.01	3.7370	3.7370	1.9677	26.20	0.28	1.500			
0.5889	37689.60	3.7340	3.7340	1.9878	26.19	0.27	1.500			
0.5950	38077.14	3.7310	3.7310	2.0276	26.18	0.26	1.500			
0.6011	38470.90	3.7280	3.7280	2.0591	26.17	0.25	1.500			
0.6073	38867.03	3.7250	3.7250	2.1036	26.16	0.24	1.500			
0.6136	39271.62	3.7220	3.7220	2.1484	26.14	0.22	1.500			
0.6202	39692.02	3.7190	3.7190	2.2191	26.13	0.21	1.500			
0.6269	40124.61	3.7160	3.7160	2.2944	26.11	0.19	1.500			
0.6340	40573.15	3.7130	3.7130	2.3640	26.10	0.18	1.500			
0.6412	41035.00	3.7100	3.7100	2.4071	26.09	0.17	1.500			
0.6484	41499.86	3.7070	3.7070	2.4513	26.07	0.15	1.500			
0.6558	41974.17	3.7040	3.7039	2.4636	26.06	0.14	1.500			
0.6634	42456.18	3.7010	3.7010	2.4350	26.05	0.13	1.500			
0.6708	42929.35	3.6980	3.6980	2.3511	26.05	0.13	1.500			
0.6776	43366.77	3.6950	3.6949	2.2046	26.04	0.12	1.500			
0.6840	43775.66	3.6920	3.6920	2.0553	26.04	0.12	1.500			
0.6900	44159.05	3.6890	3.6890	1.9063	26.03	0.11	1.500			
0.6954	44504.93	3.6860	3.6860	1.7616	26.02	0.10	1.500			
0.7003	44822.00	3.6830	3.6830	1.6383	26.02	0.10	1.500			
0.7050	45123.16	3.6800	3.6800	1.5356	26.01	0.09	1.500			
0.7094	45403.23	3.6770	3.6770	1.4600	26.01	0.09	1.500			
0.7136	45671.12	3.6740	3.6741	1.3922	26.00	0.08	1.500			
0.7177	45932.09	3.6710	3.6709	1.3442	26.00	0.08	1.500			
0.7216	46185.28	3.6680	3.6680	1.3077	25.99	0.07	1.500			
0.7254	46426.34	3.6650	3.6651	1.2784	25.99	0.07	1.500			
0.7292	46668.64	3.6620	3.6620	1.2656	25.98	0.06	1.500			
0.7329	46908.66	3.6590	3.6590	1.2578	25.98	0.06	1.500			
0.7367	47147.93	3.6560	3.6560	1.2554	25.98	0.06	1.500			
0.7404	47388.67	3.6530	3.6530	1.2646	25.97	0.05	1.500			
0.7443	47633.90	3.6500	3.6500	1.2645	25.97	0.05	1.500			
0.7481	47876.24	3.6470	3.6470	1.2702	25.97	0.05	1.500			
0.7519	48119.68	3.6440	3.6442	1.2831	25.96	0.04	1.500			
0.7557	48366.34	3.6410	3.6409	1.2912	25.96	0.04	1.500			
0.7596	48616.22	3.6380	3.6380	1.2949	25.96	0.04	1.500			
0.7635	48866.27	3.6350	3.6351	1.2952	25.95	0.03	1.500			
0.7674	49116.32	3.6320	3.6320	1.2895	25.94	0.02	1.500			
0.7713	49366.12	3.6290	3.6290	1.2954	25.94	0.02	1.500			
0.7752	49610.85	3.6260	3.6260	1.2891	25.93	0.01	1.500			
0.7790	49857.02	3.6230	3.6230	1.2860	25.92	0.00	1.500			
0.7829	50104.36	3.6200	3.6199	1.2895	25.92	-0.00	1.500			
0.7868	50353.82	3.6170	3.6170	1.2877	25.92	-0.00	1.500			
0.7907	50603.29	3.6140	3.6140	1.2849	25.91	-0.01	1.500			
0.7945	50850.31	3.6110	3.6110	1.2738	25.91	-0.01	1.500			
0.7983	51093.72	3.6080	3.6080	1.2602	25.91	-0.01	1.500			
0.8021	51334.95	3.6050	3.6050	1.2470	25.90	-0.02	1.500			
0.8058	51573.53	3.6020	3.6020	1.2342	25.90	-0.02	1.500			
0.8095	51807.07	3.5990	3.5990	1.2184	25.90	-0.02	1.500			
0.8131	52040.71	3.5960	3.5960	1.2040	25.91	-0.01	1.500			
0.8167	52271.07	3.5930	3.5930	1.1899	25.91	-0.01	1.500			
0.8203	52499.05	3.5900	3.5899	1.1679	25.91	-0.01	1.500			
0.8238	52722.80	3.5870	3.5870	1.1458	25.91	-0.01	1.500			
0.8272	52943.65	3.5840	3.5840	1.1092	25.92	-0.00	1.500			
0.8306	53157.44	3.5810	3.5810	1.0617	25.92	-0.00	1.500			
0.8338	53361.94	3.5780	3.5780	0.9781	25.92	0.00	1.500			
0.8367	53549.61	3.5750	3.5750	0.8894	25.92	0.00	1.500			
0.8393	53712.56	3.5720	3.5721	0.7718	25.93	0.01	1.500			
0.8414	53851.41	3.5690	3.5690	0.6564	25.93	0.01	1.500			
0.8431	53959.48	3.5660	3.5660	0.5471	25.93	0.01	1.500			
0.8445	54049.91	3.5630	3.5628	0.4511	25.93	0.01	1.500			
0.8456	54120.95	3.5600	3.5599	0.3743	25.93	0.01	1.500			
0.8466	54183.99	3.5570	3.5570	0.3231	25.93	0.01	1.500			
0.8475	54237.29	3.5540	3.5539	0.2794	25.93	0.01	1.500			
0.8482	54285.78	3.5510	3.5510	0.2489	25.93	0.01	1.500			
0.8489	54328.04	3.5480	3.5479	0.2183	25.93	0.01	1.500			
0.8495	54366.68	3.5450	3.5449	0.1979	25.93	0.01	1.500			
0.8500	54401.83	3.5420	3.5420	0.1797	25.93	0.01	1.500			
0.8505	54434.42	3.5390	3.5391	0.1632	25.93	0.01	1.500			
0.8510	54464.18	3.5360	3.5360	0.1491	25.94	0.02	1.500			
0.8514	54491.30	3.5330	3.5329	0.1347	25.94	0.02	1.500			
0.8518	54515.70	3.5300	3.5299	0.1204	25.94	0.02	1.500			
0.8521	54537.43	3.5270	3.5271	0.1064	25.94	0.02	1.500			
0.8524	54556.54	3.5240	3.5240	0.0926	25.94	0.02	1.500			
0.8527	54573.30	3.5210	3.5212	0.0789	25.94	0.02	1.500			
0.8529	54587.25	3.5180	3.5184	0.0646	25.94	0.02	1.500			
0.8531	54598.25	3.5150	3.5156	0.0500	25.94	0.02	1.500			
0.8532	54606.46	3.5120	3.5130	0.0354	25.94	0.02	1.500			
