Ah_balance (normalized)	Ah_balance (mAh)	Voltage - fit (V)	Voltage -  interpolate (V)	dQ/dV (1/V)	Temperature (°C)	Temperature - diff (°C)	Current (C)	R_DC 0ms (mOhm)	R_DC 50ms (mOhm)	R_DC 50 ms PEC (mOhm)
0.2101	13444.09	3.9110	3.9107	-0.1145	25.73	-0.00	-1.500			
0.2105	13469.82	3.9080	3.9078	-0.1506	25.73	-0.00	-1.500			
0.2110	13501.99	3.9050	3.9050	-0.1843	25.73	-0.00	-1.500			
0.2116	13541.72	3.9020	3.9020	-0.2158	25.73	-0.00	-1.500			
0.2123	13585.95	3.8990	3.8990	-0.2481	25.73	-0.00	-1.500			
0.2131	13636.68	3.8960	3.8960	-0.2813	25.73	-0.00	-1.500			
0.2140	13694.05	3.8930	3.8932	-0.3119	25.73	-0.00	-1.500			
0.2150	13756.91	3.8900	3.8900	-0.3419	25.73	-0.00	-1.500			
0.2160	13826.37	3.8870	3.8870	-0.3715	25.73	-0.00	-1.500			
0.2172	13900.44	3.8840	3.8841	-0.4007	25.73	-0.00	-1.500			
0.2184	13979.99	3.8810	3.8810	-0.4314	25.73	-0.00	-1.500			
0.2198	14064.94	3.8780	3.8780	-0.4579	25.73	-0.00	-1.500			
0.2212	14155.05	3.8750	3.8749	-0.4872	25.73	-0.00	-1.500			
0.2227	14252.86	3.8720	3.8720	-0.5127	25.73	0.00	-1.500			
0.2243	14354.54	3.8690	3.8691	-0.5398	25.73	0.00	-1.500			
0.2259	14460.08	3.8660	3.8661	-0.5666	25.73	0.00	-1.500			
0.2277	14570.71	3.8630	3.8630	-0.5926	25.73	0.00	-1.500			
0.2295	14687.30	3.8600	3.8599	-0.6173	25.73	0.00	-1.500			
0.2314	14809.35	3.8570	3.8569	-0.6389	25.73	0.00	-1.500			
0.2334	14934.62	3.8540	3.8541	-0.6595	25.73	0.00	-1.500			
0.2354	15064.53	3.8510	3.8510	-0.6781	25.74	0.01	-1.500			
0.2375	15197.53	3.8480	3.8480	-0.6904	25.74	0.01	-1.500			
0.2395	15330.91	3.8450	3.8451	-0.7048	25.74	0.01	-1.500			
0.2417	15468.02	3.8420	3.8420	-0.7133	25.74	0.01	-1.500			
0.2439	15606.48	3.8390	3.8390	-0.7242	25.74	0.01	-1.500			
0.2460	15746.71	3.8360	3.8360	-0.7359	25.74	0.01	-1.500			
0.2482	15887.91	3.8330	3.8331	-0.7430	25.74	0.01	-1.500			
0.2505	16032.00	3.8300	3.8299	-0.7495	25.74	0.01	-1.500			
0.2528	16176.51	3.8270	3.8270	-0.7572	25.75	0.02	-1.500			
0.2550	16322.38	3.8240	3.8241	-0.7610	25.75	0.02	-1.500			
0.2573	16469.66	3.8210	3.8209	-0.7707	25.75	0.02	-1.500			
0.2597	16618.84	3.8180	3.8181	-0.7717	25.75	0.02	-1.500			
0.2620	16767.92	3.8150	3.8150	-0.7726	25.76	0.03	-1.500			
0.2643	16917.93	3.8120	3.8120	-0.7765	25.76	0.03	-1.500			
0.2667	17067.56	3.8090	3.8089	-0.7764	25.76	0.03	-1.500			
0.2690	17215.23	3.8060	3.8060	-0.7761	25.77	0.04	-1.500			
0.2713	17363.76	3.8030	3.8031	-0.7797	25.77	0.04	-1.500			
0.2736	17512.59	3.8000	3.7999	-0.7825	25.77	0.04	-1.500			
0.2760	17665.01	3.7970	3.7970	-0.7881	25.78	0.05	-1.500			
0.2784	17816.79	3.7940	3.7938	-0.7904	25.78	0.05	-1.500			
0.2808	17968.46	3.7910	3.7910	-0.7899	25.79	0.06	-1.500			
0.2831	18121.16	3.7880	3.7881	-0.7930	25.79	0.06	-1.500			
0.2855	18273.14	3.7850	3.7849	-0.7914	25.80	0.07	-1.500			
0.2879	18426.24	3.7820	3.7820	-0.7945	25.80	0.07	-1.500			
0.2903	18576.87	3.7790	3.7790	-0.7982	25.81	0.08	-1.500			
0.2927	18731.18	3.7760	3.7760	-0.8004	25.81	0.08	-1.500			
0.2951	18887.17	3.7730	3.7729	-0.7985	25.82	0.09	-1.500			
0.2975	19039.86	3.7700	3.7701	-0.7982	25.82	0.09	-1.500			
0.2999	19192.36	3.7670	3.7671	-0.7999	25.83	0.10	-1.500			
0.3023	19346.53	3.7640	3.7640	-0.7979	25.83	0.10	-1.500			
0.3047	19498.56	3.7610	3.7609	-0.7939	25.84	0.11	-1.500			
0.3070	19650.10	3.7580	3.7581	-0.7965	25.84	0.11	-1.500			
0.3094	19804.13	3.7550	3.7550	-0.7961	25.85	0.12	-1.500			
0.3119	19958.83	3.7520	3.7520	-0.7995	25.86	0.13	-1.500			
0.3142	20110.89	3.7490	3.7490	-0.8001	25.86	0.13	-1.500			
0.3166	20264.17	3.7460	3.7461	-0.7987	25.87	0.14	-1.500			
0.3191	20419.36	3.7430	3.7429	-0.7998	25.87	0.14	-1.500			
0.3214	20572.25	3.7400	3.7400	-0.7997	25.88	0.15	-1.500			
0.3238	20724.49	3.7370	3.7369	-0.8003	25.88	0.15	-1.500			
0.3262	20878.38	3.7340	3.7339	-0.8027	25.89	0.16	-1.500			
0.3286	21031.82	3.7310	3.7310	-0.7993	25.90	0.17	-1.500			
0.3310	21185.20	3.7280	3.7280	-0.7934	25.90	0.17	-1.500			
0.3334	21339.64	3.7250	3.7251	-0.8024	25.91	0.18	-1.500			
0.3358	21492.80	3.7220	3.7220	-0.8042	25.91	0.18	-1.500			
0.3382	21644.98	3.7190	3.7190	-0.8057	25.92	0.19	-1.500			
0.3406	21800.69	3.7160	3.7160	-0.8102	25.92	0.19	-1.500			
0.3431	21957.81	3.7130	3.7130	-0.8144	25.93	0.20	-1.500			
0.3455	22115.08	3.7100	3.7100	-0.8204	25.94	0.21	-1.500			
0.3480	22273.90	3.7070	3.7070	-0.8248	25.94	0.21	-1.500			
0.3505	22430.14	3.7040	3.7041	-0.8240	25.95	0.22	-1.500			
0.3529	22588.42	3.7010	3.7010	-0.8273	25.95	0.22	-1.500			
0.3554	22747.20	3.6980	3.6981	-0.8330	25.96	0.23	-1.500			
0.3579	22907.60	3.6950	3.6950	-0.8473	25.97	0.24	-1.500			
0.3605	23071.13	3.6920	3.6920	-0.8556	25.97	0.24	-1.500			
0.3630	23234.49	3.6890	3.6890	-0.8691	25.98	0.25	-1.500			
0.3657	23403.46	3.6860	3.6860	-0.8795	25.98	0.25	-1.500			
0.3684	23574.40	3.6830	3.6830	-0.8876	25.99	0.26	-1.500			
0.3710	23745.85	3.6800	3.6800	-0.9035	26.00	0.27	-1.500			
0.3737	23919.50	3.6770	3.6769	-0.9163	26.00	0.27	-1.500			
0.3765	24095.35	3.6740	3.6740	-0.9246	26.01	0.28	-1.500			
0.3793	24275.12	3.6710	3.6710	-0.9439	26.01	0.28	-1.500			
0.3821	24455.96	3.6680	3.6681	-0.9575	26.02	0.29	-1.500			
0.3851	24643.30	3.6650	3.6650	-0.9807	26.02	0.29	-1.500			
0.3880	24832.50	3.6620	3.6620	-1.0083	26.03	0.30	-1.500			
0.3911	25029.41	3.6590	3.6589	-1.0206	26.03	0.30	-1.500			
0.3942	25227.69	3.6560	3.6559	-1.0421	26.04	0.31	-1.500			
0.3973	25430.21	3.6530	3.6532	-1.0623	26.04	0.31	-1.500			
0.4006	25635.50	3.6500	3.6500	-1.0794	26.04	0.31	-1.500			
0.4038	25843.34	3.6470	3.6469	-1.1022	26.05	0.32	-1.500			
0.4071	26054.50	3.6440	3.6440	-1.1185	26.05	0.32	-1.500			
0.4105	26271.57	3.6410	3.6411	-1.1507	26.05	0.32	-1.500			
0.4140	26496.15	3.6380	3.6380	-1.1819	26.05	0.32	-1.500			
0.4176	26726.29	3.6350	3.6350	-1.2034	26.06	0.33	-1.500			
0.4213	26960.45	3.6320	3.6321	-1.2304	26.06	0.33	-1.500			
0.4250	27197.29	3.6290	3.6290	-1.2619	26.06	0.33	-1.500			
0.4288	27443.43	3.6260	3.6259	-1.2853	26.06	0.33	-1.500			
0.4327	27692.99	3.6230	3.6230	-1.3084	26.06	0.33	-1.500			
0.4366	27945.29	3.6200	3.6201	-1.3312	26.07	0.34	-1.500			
0.4407	28204.76	3.6170	3.6171	-1.3631	26.07	0.34	-1.500			
0.4448	28470.21	3.6140	3.6138	-1.3902	26.07	0.34	-1.500			
0.4490	28736.21	3.6110	3.6111	-1.4172	26.07	0.34	-1.500			
0.4533	29010.65	3.6080	3.6079	-1.4455	26.07	0.34	-1.500			
0.4577	29294.00	3.6050	3.6050	-1.4882	26.07	0.34	-1.500			
0.4622	29580.44	3.6020	3.6019	-1.5166	26.07	0.34	-1.500			
0.4668	29876.94	3.5990	3.5990	-1.5463	26.07	0.34	-1.500			
0.4715	30179.03	3.5960	3.5960	-1.5725	26.07	0.34	-1.500			
0.4763	30484.60	3.5930	3.5930	-1.5955	26.07	0.34	-1.500			
0.4811	30791.34	3.5900	3.5901	-1.6261	26.07	0.34	-1.500			
0.4861	31107.92	3.5870	3.5869	-1.6520	26.07	0.34	-1.500			
0.4910	31424.93	3.5840	3.5839	-1.6741	26.07	0.34	-1.500			
0.4961	31751.02	3.5810	3.5811	-1.7012	26.07	0.34	-1.500			
0.5013	32080.70	3.5780	3.5780	-1.7348	26.07	0.34	-1.500			
0.5065	32419.04	3.5750	3.5750	-1.7677	26.07	0.34	-1.500			
0.5119	32760.37	3.5720	3.5720	-1.7927	26.06	0.33	-1.500			
0.5173	33109.95	3.5690	3.5690	-1.8119	26.06	0.33	-1.500			
0.5228	33459.28	3.5660	3.5661	-1.8291	26.06	0.33	-1.500			
0.5283	33808.17	3.5630	3.5630	-1.8625	26.06	0.33	-1.500			
0.5339	34167.34	3.5600	3.5599	-1.8940	26.06	0.33	-1.500			
0.5396	34532.12	3.5570	3.5569	-1.9047	26.06	0.33	-1.500			
0.5454	34905.70	3.5540	3.5541	-1.9308	26.06	0.33	-1.500			
0.5513	35282.05	3.5510	3.5510	-1.9717	26.06	0.33	-1.500			
0.5573	35666.99	3.5480	3.5478	-1.9732	26.07	0.34	-1.500			
0.5632	36045.37	3.5450	3.5449	-1.9670	26.07	0.34	-1.500			
0.5691	36425.41	3.5420	3.5419	-1.9714	26.08	0.35	-1.500	0.388	0.506	
0.5750	36802.96	3.5390	3.5390	-1.9674	26.08	0.35	-1.500			
0.5809	37176.58	3.5360	3.5359	-1.9653	26.08	0.35	-1.500			
0.5867	37549.00	3.5330	3.5330	-1.9613	26.08	0.35	-1.500			
0.5926	37925.38	3.5300	3.5299	-1.9597	26.08	0.35	-1.500			
0.5985	38305.79	3.5270	3.5270	-1.9613	26.08	0.35	-1.500			
0.6044	38684.07	3.5240	3.5239	-1.9561	26.09	0.36	-1.500			
0.6103	39060.30	3.5210	3.5210	-1.9416	26.09	0.36	-1.500			
0.6161	39431.12	3.5180	3.5180	-1.9223	26.10	0.37	-1.500			
0.6218	39797.42	3.5150	3.5151	-1.9104	26.10	0.37	-1.500			
0.6276	40164.13	3.5120	3.5120	-1.9033	26.10	0.37	-1.500			
0.6333	40531.28	3.5090	3.5089	-1.8929	26.11	0.38	-1.500			
0.6390	40895.34	3.5060	3.5060	-1.8683	26.11	0.38	-1.500			
0.6446	41254.59	3.5030	3.5030	-1.8563	26.12	0.39	-1.500			
0.6501	41607.60	3.5000	3.5000	-1.8347	26.12	0.39	-1.500			
0.6556	41955.99	3.4970	3.4969	-1.8229	26.13	0.40	-1.500			
0.6609	42297.41	3.4940	3.4939	-1.8101	26.14	0.41	-1.500			
0.6663	42643.55	3.4910	3.4910	-1.7960	26.15	0.42	-1.500			
0.6718	42996.18	3.4880	3.4880	-1.7951	26.16	0.43	-1.500			
0.6772	43342.73	3.4850	3.4850	-1.7877	26.17	0.44	-1.500			
0.6826	43683.97	3.4820	3.4820	-1.7685	26.18	0.45	-1.500			
0.6878	44018.75	3.4790	3.4789	-1.7453	26.19	0.46	-1.500			
0.6930	44353.28	3.4760	3.4761	-1.7236	26.20	0.47	-1.500			
0.6982	44682.57	3.4730	3.4731	-1.7053	26.21	0.48	-1.500			
0.7032	45007.72	3.4700	3.4699	-1.6874	26.22	0.49	-1.500			
0.7083	45329.59	3.4670	3.4671	-1.6758	26.23	0.50	-1.500			
0.7133	45649.07	3.4640	3.4640	-1.6464	26.24	0.51	-1.500			
0.7182	45967.02	3.4610	3.4610	-1.6279	26.25	0.52	-1.500			
0.7231	46277.27	3.4580	3.4581	-1.6002	26.26	0.53	-1.500			
0.7279	46582.74	3.4550	3.4548	-1.5734	26.27	0.54	-1.500			
0.7325	46878.26	3.4520	3.4520	-1.5428	26.28	0.55	-1.500			
0.7370	47166.90	3.4490	3.4490	-1.5186	26.30	0.57	-1.500			
0.7415	47457.31	3.4460	3.4460	-1.5035	26.31	0.58	-1.500			
0.7460	47745.60	3.4430	3.4428	-1.4894	26.32	0.59	-1.500			
0.7504	48028.32	3.4400	3.4401	-1.4716	26.33	0.60	-1.500			
0.7548	48308.64	3.4370	3.4369	-1.4621	26.34	0.61	-1.500			
0.7592	48588.41	3.4340	3.4341	-1.4600	26.36	0.63	-1.500			
0.7635	48867.01	3.4310	3.4309	-1.4501	26.37	0.64	-1.500			
0.7679	49145.97	3.4280	3.4279	-1.4475	26.39	0.66	-1.500			
0.7723	49426.14	3.4250	3.4252	-1.4468	26.40	0.67	-1.500			
0.7766	49703.73	3.4220	3.4220	-1.4403	26.42	0.69	-1.500			
0.7810	49981.05	3.4190	3.4189	-1.4224	26.44	0.71	-1.500			
0.7852	50253.13	3.4160	3.4160	-1.3973	26.46	0.73	-1.500			
0.7894	50522.53	3.4130	3.4129	-1.3757	26.48	0.75	-1.500			
0.7935	50783.22	3.4100	3.4100	-1.3402	26.50	0.77	-1.500			
0.7975	51038.62	3.4070	3.4071	-1.3020	26.51	0.78	-1.500			
0.8013	51283.97	3.4040	3.4040	-1.2589	26.53	0.80	-1.500			
0.8050	51522.67	3.4010	3.4010	-1.2167	26.54	0.81	-1.500			
0.8086	51753.02	3.3980	3.3980	-1.1716	26.56	0.83	-1.500			
0.8121	51976.00	3.3950	3.3950	-1.1297	26.57	0.84	-1.500			
0.8154	52186.62	3.3920	3.3920	-1.0786	26.59	0.86	-1.500			
0.8186	52388.97	3.3890	3.3890	-1.0335	26.60	0.87	-1.500			
0.8216	52582.86	3.3860	3.3861	-0.9911	26.61	0.88	-1.500			
0.8245	52767.69	3.3830	3.3829	-0.9487	26.62	0.89	-1.500			
0.8273	52945.36	3.3800	3.3800	-0.9097	26.63	0.90	-1.500			
0.8299	53115.09	3.3770	3.3770	-0.8761	26.65	0.92	-1.500			
0.8325	53279.16	3.3740	3.3739	-0.8440	26.66	0.93	-1.500			
0.8350	53439.02	3.3710	3.3710	-0.8119	26.67	0.94	-1.500			
0.8374	53591.21	3.3680	3.3681	-0.7861	26.68	0.95	-1.500			
0.8397	53739.08	3.3650	3.3650	-0.7609	26.69	0.96	-1.500			
0.8419	53883.69	3.3620	3.3619	-0.7354	26.70	0.97	-1.500			
0.8441	54022.28	3.3590	3.3591	-0.7080	26.71	0.98	-1.500			
0.8462	54155.26	3.3560	3.3560	-0.6824	26.72	0.99	-1.500			
0.8482	54284.53	3.3530	3.3531	-0.6583	26.72	0.99	-1.500			
0.8501	54408.07	3.3500	3.3499	-0.6348	26.73	1.00	-1.500			
0.8520	54525.90	3.3470	3.3470	-0.6089	26.74	1.01	-1.500			
0.8537	54639.99	3.3440	3.3440	-0.5903	26.75	1.02	-1.500			
0.8555	54751.79	3.3410	3.3409	-0.5729	26.76	1.03	-1.500			
0.8572	54860.22	3.3380	3.3380	-0.5556	26.77	1.04	-1.500			
0.8588	54964.56	3.3350	3.3350	-0.5392	26.77	1.04	-1.500			
0.8604	55066.40	3.3320	3.3320	-0.5244	26.78	1.05	-1.500			
0.8620	55165.82	3.3290	3.3289	-0.5096	26.79	1.06	-1.500			
0.8635	55262.19	3.3260	3.3260	-0.4941	26.80	1.07	-1.500			
0.8649	55355.43	3.3230	3.3229	-0.4781	26.80	1.07	-1.500			
0.8664	55446.84	3.3200	3.3200	-0.4628	26.81	1.08	-1.500			
0.8677	55533.47	3.3170	3.3170	-0.4489	26.82	1.09	-1.500			
0.8690	55617.49	3.3140	3.3140	-0.4329	26.82	1.09	-1.500			
0.8703	55699.30	3.3110	3.3109	-0.4192	26.83	1.10	-1.500			
0.8715	55777.97	3.3080	3.3080	-0.4051	26.83	1.10	-1.500			
0.8727	55854.50	3.3050	3.3051	-0.3919	26.83	1.10	-1.500			
0.8739	55928.15	3.3020	3.3020	-0.3797	26.84	1.11	-1.500			
0.8750	56000.18	3.2990	3.2989	-0.3676	26.85	1.12	-1.500			
0.8761	56068.72	3.2960	3.2961	-0.3545	26.85	1.12	-1.500			
0.8771	56136.11	3.2930	3.2929	-0.3427	26.86	1.13	-1.500			
0.8781	56201.11	3.2900	3.2901	-0.3324	26.87	1.14	-1.500			
0.8791	56263.95	3.2870	3.2870	-0.3211	26.87	1.14	-1.500			
0.8801	56323.63	3.2840	3.2840	-0.3117	26.88	1.15	-1.500			
0.8810	56382.31	3.2810	3.2811	-0.3025	26.88	1.15	-1.500			
0.8819	56439.44	3.2780	3.2779	-0.2937	26.89	1.16	-1.500			
0.8827	56494.86	3.2750	3.2750	-0.2857	26.90	1.17	-1.500			
0.8836	56549.37	3.2720	3.2721	-0.2785	26.90	1.17	-1.500			
0.8844	56601.78	3.2690	3.2690	-0.2691	26.91	1.18	-1.500			
0.8852	56653.01	3.2660	3.2659	-0.2617	26.91	1.18	-1.500			
0.8860	56702.02	3.2630	3.2631	-0.2539	26.92	1.19	-1.500			
0.8867	56749.83	3.2600	3.2599	-0.2470	26.92	1.19	-1.500			
0.8874	56796.56	3.2570	3.2570	-0.2406	26.92	1.19	-1.500			
0.8882	56842.04	3.2540	3.2540	-0.2336	26.93	1.20	-1.500			
0.8889	56886.46	3.2510	3.2510	-0.2279	26.93	1.20	-1.500			
0.8895	56929.48	3.2480	3.2480	-0.2231	26.94	1.21	-1.500			
0.8902	56971.55	3.2450	3.2450	-0.2170	26.94	1.21	-1.500			
0.8908	57012.49	3.2420	3.2419	-0.2121	26.94	1.21	-1.500			
0.8914	57052.79	3.2390	3.2390	-0.2077	26.95	1.22	-1.500			
0.8921	57092.13	3.2360	3.2361	-0.2037	26.95	1.22	-1.500			
0.8927	57131.01	3.2330	3.2329	-0.1993	26.95	1.22	-1.500			
0.8933	57169.05	3.2300	3.2300	-0.1952	26.96	1.23	-1.500			
0.8938	57206.14	3.2270	3.2270	-0.1898	26.96	1.23	-1.500			
0.8944	57241.65	3.2240	3.2241	-0.1860	26.96	1.23	-1.500			
0.8950	57277.09	3.2210	3.2209	-0.1824	26.97	1.24	-1.500			
0.8955	57311.30	3.2180	3.2180	-0.1781	26.97	1.24	-1.500			
0.8960	57345.22	3.2150	3.2149	-0.1752	26.97	1.24	-1.500			
0.8965	57378.45	3.2120	3.2121	-0.1717	26.98	1.25	-1.500			
0.8971	57411.47	3.2090	3.2090	-0.1689	26.98	1.25	-1.500			
0.8976	57443.56	3.2060	3.2059	-0.1654	26.98	1.25	-1.500			
0.8980	57475.15	3.2030	3.2030	-0.1626	26.99	1.26	-1.500			
0.8985	57505.42	3.2000	3.2000	-0.1598	26.99	1.26	-1.500			
0.8990	57536.08	3.1970	3.1969	-0.1574	27.00	1.27	-1.500			
0.8995	57566.05	3.1940	3.1940	-0.1549	27.00	1.27	-1.500			
0.8999	57595.34	3.1910	3.1910	-0.1526	27.01	1.28	-1.500			
0.9004	57624.47	3.1880	3.1883	-0.1510	27.01	1.28	-1.500			
0.9008	57653.43	3.1850	3.1849	-0.1491	27.01	1.28	-1.500			
0.9013	57681.85	3.1820	3.1820	-0.1469	27.02	1.29	-1.500			
0.9017	57709.63	3.1790	3.1790	-0.1452	27.02	1.29	-1.500			
0.9021	57737.30	3.1760	3.1760	-0.1428	27.03	1.30	-1.500			
0.9026	57764.73	3.1730	3.1730	-0.1418	27.03	1.30	-1.500			
0.9030	57791.76	3.1700	3.1700	-0.1397	27.03	1.30	-1.500			
0.9034	57818.24	3.1670	3.1671	-0.1381	27.04	1.31	-1.500			
0.9038	57844.54	3.1640	3.1639	-0.1362	27.04	1.31	-1.500			
0.9042	57870.61	3.1610	3.1609	-0.1348	27.05	1.32	-1.500			
0.9046	57896.34	3.1580	3.1581	-0.1332	27.05	1.32	-1.500			
0.9050	57921.58	3.1550	3.1551	-0.1317	27.05	1.32	-1.500			
0.9054	57946.85	3.1520	3.1520	-0.1308	27.06	1.33	-1.500			
0.9058	57971.65	3.1490	3.1490	-0.1290	27.06	1.33	-1.500			
0.9062	57996.28	3.1460	3.1460	-0.1281	27.06	1.33	-1.500			
0.9066	58020.68	3.1430	3.1431	-0.1271	27.07	1.34	-1.500			
0.9070	58045.15	3.1400	3.1399	-0.1261	27.07	1.34	-1.500			
0.9073	58069.44	3.1370	3.1369	-0.1247	27.07	1.34	-1.500			
0.9077	58093.22	3.1340	3.1341	-0.1230	27.08	1.35	-1.500			
0.9081	58116.52	3.1310	3.1310	-0.1221	27.08	1.35	-1.500			
0.9084	58139.84	3.1280	3.1281	-0.1209	27.09	1.36	-1.500			
0.9088	58162.85	3.1250	3.1249	-0.1197	27.09	1.36	-1.500			
0.9091	58185.55	3.1220	3.1218	-0.1184	27.09	1.36	-1.500			
0.9095	58208.21	3.1190	3.1190	-0.1178	27.10	1.37	-1.500			
0.9099	58230.74	3.1160	3.1160	-0.1172	27.10	1.37	-1.500			
0.9102	58253.27	3.1130	3.1131	-0.1164	27.11	1.38	-1.500			
0.9106	58275.77	3.1100	3.1100	-0.1160	27.11	1.38	-1.500			
0.9109	58297.94	3.1070	3.1070	-0.1149	27.11	1.38	-1.500			
0.9112	58319.79	3.1040	3.1041	-0.1138	27.12	1.39	-1.500			
0.9116	58341.50	3.1010	3.1010	-0.1131	27.12	1.39	-1.500			
0.9119	58363.22	3.0980	3.0979	-0.1125	27.13	1.40	-1.500			
0.9123	58384.83	3.0950	3.0950	-0.1114	27.13	1.40	-1.500			
0.9126	58406.08	3.0920	3.0919	-0.1103	27.13	1.40	-1.500			
0.9129	58427.05	3.0890	3.0891	-0.1097	27.14	1.41	-1.500			
0.9133	58448.02	3.0860	3.0861	-0.1090	27.14	1.41	-1.500			
0.9136	58468.91	3.0830	3.0829	-0.1082	27.14	1.41	-1.500			
0.9139	58489.62	3.0800	3.0799	-0.1074	27.15	1.42	-1.500			
0.9142	58510.03	3.0770	3.0771	-0.1072	27.15	1.42	-1.500			
0.9145	58530.34	3.0740	3.0740	-0.1064	27.16	1.43	-1.500			
0.9149	58550.92	3.0710	3.0710	-0.1059	27.16	1.43	-1.500			
0.9152	58571.39	3.0680	3.0680	-0.1058	27.16	1.43	-1.500			
0.9155	58591.63	3.0650	3.0650	-0.1051	27.17	1.44	-1.500			
0.9158	58611.75	3.0620	3.0621	-0.1041	27.17	1.44	-1.500			
0.9161	58631.52	3.0590	3.0589	-0.1037	27.17	1.44	-1.500			
0.9164	58651.45	3.0560	3.0560	-0.1033	27.18	1.45	-1.500			
0.9167	58671.31	3.0530	3.0530	-0.1024	27.18	1.45	-1.500			
0.9170	58690.75	3.0500	3.0500	-0.1015	27.18	1.45	-1.500			
0.9173	58710.09	3.0470	3.0469	-0.1012	27.19	1.46	-1.500			
0.9176	58729.50	3.0440	3.0441	-0.1009	27.19	1.46	-1.500			
0.9180	58748.83	3.0410	3.0411	-0.1005	27.19	1.46	-1.500			
0.9183	58768.13	3.0380	3.0379	-0.1002	27.20	1.47	-1.500			
0.9186	58787.39	3.0350	3.0349	-0.0997	27.20	1.47	-1.500			
0.9188	58806.35	3.0320	3.0320	-0.0990	27.20	1.47	-1.500			
0.9191	58825.35	3.0290	3.0291	-0.0986	27.21	1.48	-1.500			
0.9194	58844.47	3.0260	3.0260	-0.0986	27.21	1.48	-1.500			
0.9197	58863.33	3.0230	3.0229	-0.0978	27.21	1.48	-1.500			
0.9200	58881.95	3.0200	3.0200	-0.0969	27.22	1.49	-1.500			
0.9203	58900.50	3.0170	3.0169	-0.0963	27.22	1.49	-1.500			
0.9206	58918.95	3.0140	3.0140	-0.0957	27.22	1.49	-1.500			
0.9209	58937.25	3.0110	3.0111	-0.0950	27.23	1.50	-1.500			
0.9212	58955.53	3.0080	3.0079	-0.0942	27.23	1.50	-1.500			
0.9215	58973.54	3.0050	3.0051	-0.0933	27.23	1.50	-1.500			
0.9217	58991.43	3.0020	3.0020	-0.0937	27.24	1.51	-1.499			
