Ah_balance (normalized)	Ah_balance (mAh)	Voltage - fit (V)	Voltage -  interpolate (V)	dQ/dV (1/V)	Temperature (°C)	Temperature - diff (°C)	Current (C)	R_DC 0ms (mOhm)	R_DC 50ms (mOhm)	R_DC 50 ms PEC (mOhm)
0.2619	16763.86	3.9890	3.9910	1.7354	27.43	1.47	1.420			
0.2666	17060.29	3.9860	3.9885	1.4863	27.42	1.46	1.501			
0.2706	17319.56	3.9830	3.9837	1.0919	27.41	1.45	1.500			
0.2737	17519.86	3.9800	3.9799	0.8525	27.40	1.44	1.500			
0.2763	17683.46	3.9770	3.9770	0.8553	27.39	1.43	1.500			
0.2789	17847.90	3.9740	3.9740	0.8568	27.39	1.43	1.500			
0.2814	18011.78	3.9710	3.9711	0.8669	27.38	1.42	1.500			
0.2840	18179.02	3.9680	3.9680	0.8687	27.37	1.41	1.500			
0.2867	18347.62	3.9650	3.9649	0.8735	27.37	1.41	1.500			
0.2893	18515.42	3.9620	3.9620	0.8759	27.36	1.40	1.500			
0.2920	18686.13	3.9590	3.9591	0.8785	27.35	1.39	1.500			
0.2946	18852.52	3.9560	3.9561	0.8807	27.35	1.39	1.500			
0.2972	19020.93	3.9530	3.9530	0.8828	27.34	1.38	1.500			
0.2998	19189.02	3.9500	3.9500	0.8880	27.33	1.37	1.500			
0.3025	19361.07	3.9470	3.9469	0.8961	27.33	1.37	1.500			
0.3052	19533.97	3.9440	3.9442	0.9005	27.32	1.36	1.500			
0.3080	19709.45	3.9410	3.9410	0.9066	27.31	1.35	1.500			
0.3107	19884.27	3.9380	3.9380	0.9113	27.31	1.35	1.500			
0.3134	20059.75	3.9350	3.9350	0.9111	27.30	1.34	1.500			
0.3162	20234.01	3.9320	3.9319	0.9145	27.29	1.33	1.500			
0.3189	20409.34	3.9290	3.9290	0.9166	27.28	1.32	1.500			
0.3216	20585.03	3.9260	3.9260	0.9235	27.27	1.31	1.500			
0.3244	20762.05	3.9230	3.9231	0.9297	27.27	1.31	1.500			
0.3272	20942.35	3.9200	3.9199	0.9368	27.26	1.30	1.500			
0.3300	21122.33	3.9170	3.9169	0.9438	27.25	1.29	1.500			
0.3329	21304.75	3.9140	3.9141	0.9518	27.24	1.28	1.500			
0.3357	21487.90	3.9110	3.9111	0.9570	27.24	1.28	1.500			
0.3386	21673.37	3.9080	3.9079	0.9673	27.23	1.27	1.500			
0.3416	21859.54	3.9050	3.9050	0.9731	27.22	1.26	1.500			
0.3445	22046.92	3.9020	3.9020	0.9788	27.21	1.25	1.500			
0.3474	22235.80	3.8990	3.8991	0.9850	27.20	1.24	1.500			
0.3504	22425.24	3.8960	3.8960	0.9946	27.19	1.23	1.500			
0.3534	22616.95	3.8930	3.8931	1.0039	27.19	1.23	1.500			
0.3564	22809.77	3.8900	3.8899	1.0126	27.18	1.22	1.500			
0.3594	23004.54	3.8870	3.8870	1.0212	27.17	1.21	1.500			
0.3626	23203.76	3.8840	3.8840	1.0291	27.16	1.20	1.500			
0.3657	23402.14	3.8810	3.8810	1.0357	27.15	1.19	1.500			
0.3688	23602.13	3.8780	3.8780	1.0420	27.14	1.18	1.500			
0.3719	23800.80	3.8750	3.8750	1.0495	27.13	1.17	1.500			
0.3750	24001.61	3.8720	3.8720	1.0626	27.13	1.17	1.500			
0.3782	24206.38	3.8690	3.8690	1.0788	27.12	1.16	1.500			
0.3815	24416.00	3.8660	3.8659	1.0923	27.11	1.15	1.500			
0.3848	24628.32	3.8630	3.8631	1.1068	27.09	1.13	1.500			
0.3882	24842.19	3.8600	3.8600	1.1222	27.08	1.12	1.500			
0.3915	25058.82	3.8570	3.8570	1.1365	27.07	1.11	1.500			
0.3950	25276.82	3.8540	3.8540	1.1454	27.06	1.10	1.500			
0.3984	25497.48	3.8510	3.8510	1.1648	27.05	1.09	1.500			
0.4019	25724.19	3.8480	3.8480	1.1803	27.04	1.08	1.500			
0.4055	25953.38	3.8450	3.8450	1.1952	27.03	1.07	1.500			
0.4091	26184.33	3.8420	3.8421	1.2091	27.02	1.06	1.500			
0.4128	26417.54	3.8390	3.8390	1.2220	27.01	1.05	1.500			
0.4164	26651.70	3.8360	3.8359	1.2428	26.99	1.03	1.500			
0.4202	26890.18	3.8330	3.8330	1.2657	26.98	1.02	1.500			
0.4240	27135.37	3.8300	3.8301	1.2846	26.97	1.01	1.500			
0.4279	27387.45	3.8270	3.8271	1.3123	26.96	1.00	1.500			
0.4319	27641.32	3.8240	3.8241	1.3320	26.94	0.98	1.500			
0.4359	27898.58	3.8210	3.8210	1.3545	26.93	0.97	1.500			
0.4400	28158.95	3.8180	3.8180	1.3829	26.92	0.96	1.500			
0.4441	28425.11	3.8150	3.8150	1.4051	26.90	0.94	1.500			
0.4484	28698.93	3.8120	3.8120	1.4337	26.89	0.93	1.500			
0.4528	28978.94	3.8090	3.8090	1.4638	26.88	0.92	1.500			
0.4572	29261.93	3.8060	3.8060	1.4841	26.86	0.90	1.500			
0.4618	29552.49	3.8030	3.8029	1.4986	26.85	0.89	1.500			
0.4662	29838.94	3.8000	3.8000	1.5294	26.83	0.87	1.500			
0.4708	30133.15	3.7970	3.7970	1.5499	26.82	0.86	1.500			
0.4755	30434.22	3.7940	3.7939	1.5808	26.80	0.84	1.500			
0.4803	30740.12	3.7910	3.7911	1.6058	26.79	0.83	1.500			
0.4852	31052.44	3.7880	3.7880	1.6317	26.77	0.81	1.500			
0.4902	31370.12	3.7850	3.7850	1.6595	26.76	0.80	1.500			
0.4952	31690.83	3.7820	3.7820	1.6702	26.74	0.78	1.500			
0.5002	32012.87	3.7790	3.7790	1.6956	26.73	0.77	1.500			
0.5053	32341.11	3.7760	3.7760	1.7150	26.71	0.75	1.500			
0.5105	32673.84	3.7730	3.7730	1.7165	26.69	0.73	1.500			
0.5157	33005.80	3.7700	3.7700	1.7271	26.68	0.72	1.500			
0.5209	33337.32	3.7670	3.7671	1.7303	26.66	0.70	1.500			
0.5261	33668.02	3.7640	3.7638	1.7431	26.64	0.68	1.500			
0.5313	34003.11	3.7610	3.7610	1.7554	26.63	0.67	1.500			
0.5365	34338.67	3.7580	3.7580	1.7635	26.61	0.65	1.500			
0.5419	34681.61	3.7550	3.7551	1.7833	26.59	0.63	1.500			
0.5473	35025.94	3.7520	3.7520	1.8020	26.57	0.61	1.500			
0.5527	35371.33	3.7490	3.7489	1.8219	26.56	0.60	1.500			
0.5582	35723.57	3.7460	3.7460	1.8382	26.54	0.58	1.500			
0.5637	36078.75	3.7430	3.7430	1.8666	26.53	0.57	1.500			
0.5694	36439.11	3.7400	3.7401	1.9022	26.52	0.56	1.500			
0.5751	36803.48	3.7370	3.7369	1.9427	26.50	0.54	1.500			
0.5809	37178.14	3.7340	3.7340	1.9885	26.49	0.53	1.500			
0.5870	37564.98	3.7310	3.7310	2.0339	26.47	0.51	1.500			
0.5932	37961.67	3.7280	3.7281	2.0960	26.45	0.49	1.500			
0.5995	38367.81	3.7250	3.7250	2.1407	26.43	0.47	1.500			
0.6060	38783.81	3.7220	3.7220	2.1980	26.41	0.45	1.500			
0.6126	39205.84	3.7190	3.7191	2.2302	26.39	0.43	1.500			
0.6194	39640.33	3.7160	3.7160	2.2913	26.38	0.42	1.500			
0.6263	40082.35	3.7130	3.7128	2.3313	26.36	0.40	1.500			
0.6335	40541.51	3.7100	3.7100	2.3262	26.34	0.38	1.500			
0.6405	40992.92	3.7070	3.7071	2.3161	26.33	0.37	1.500			
0.6476	41446.47	3.7040	3.7041	2.2490	26.31	0.35	1.500			
0.6543	41874.74	3.7010	3.7010	2.1418	26.29	0.33	1.500			
0.6606	42279.28	3.6980	3.6981	2.0075	26.28	0.32	1.500			
0.6664	42650.31	3.6950	3.6951	1.8921	26.27	0.31	1.500			
0.6719	43000.92	3.6920	3.6920	1.7700	26.25	0.29	1.500			
0.6769	43318.60	3.6890	3.6888	1.6431	26.24	0.28	1.500			
0.6816	43621.35	3.6860	3.6861	1.5536	26.23	0.27	1.500			
0.6861	43910.24	3.6830	3.6830	1.4799	26.22	0.26	1.500			
0.6904	44184.35	3.6800	3.6800	1.4174	26.21	0.25	1.500			
0.6945	44445.56	3.6770	3.6770	1.3627	26.20	0.24	1.500			
0.6985	44701.18	3.6740	3.6740	1.3254	26.19	0.23	1.500			
0.7023	44950.15	3.6710	3.6709	1.3029	26.18	0.22	1.500			
0.7062	45196.09	3.6680	3.6680	1.2913	26.17	0.21	1.500			
0.7100	45440.96	3.6650	3.6650	1.2782	26.16	0.20	1.500			
0.7139	45686.85	3.6620	3.6619	1.2733	26.15	0.19	1.500			
0.7176	45928.90	3.6590	3.6591	1.2720	26.14	0.18	1.500			
0.7215	46173.50	3.6560	3.6561	1.2799	26.13	0.17	1.500			
0.7253	46420.15	3.6530	3.6529	1.2821	26.11	0.15	1.500			
0.7292	46666.39	3.6500	3.6500	1.2814	26.10	0.14	1.500			
0.7330	46912.40	3.6470	3.6470	1.2761	26.09	0.13	1.500			
0.7369	47160.19	3.6440	3.6440	1.2713	26.08	0.12	1.500			
0.7407	47404.19	3.6410	3.6410	1.2650	26.07	0.11	1.500			
0.7444	47644.16	3.6380	3.6380	1.2553	26.06	0.10	1.500			
0.7482	47883.56	3.6350	3.6350	1.2426	26.05	0.09	1.500			
0.7519	48121.75	3.6320	3.6318	1.2384	26.04	0.08	1.500			
0.7556	48358.16	3.6290	3.6291	1.2339	26.03	0.07	1.500			
0.7593	48594.76	3.6260	3.6260	1.2305	26.02	0.06	1.500			
0.7630	48832.23	3.6230	3.6229	1.2233	26.01	0.05	1.500			
0.7667	49065.92	3.6200	3.6200	1.2155	26.00	0.04	1.500			
0.7703	49298.32	3.6170	3.6170	1.2055	26.00	0.04	1.500			
0.7739	49531.49	3.6140	3.6139	1.1915	25.99	0.03	1.500			
0.7775	49759.96	3.6110	3.6110	1.1707	25.98	0.02	1.500			
0.7810	49983.65	3.6080	3.6080	1.1461	25.98	0.02	1.500			
0.7844	50202.31	3.6050	3.6050	1.1217	25.97	0.01	1.500			
0.7877	50414.19	3.6020	3.6020	1.0984	25.97	0.01	1.500			
0.7909	50620.76	3.5990	3.5990	1.0667	25.97	0.01	1.500			
0.7941	50822.35	3.5960	3.5960	1.0505	25.97	0.01	1.500			
0.7973	51025.11	3.5930	3.5929	1.0210	25.96	0.00	1.500			
0.8004	51222.81	3.5900	3.5900	0.9855	25.96	0.00	1.500			
0.8033	51412.19	3.5870	3.5871	0.9205	25.96	-0.00	1.500			
0.8061	51588.96	3.5840	3.5841	0.8515	25.96	-0.00	1.500			
0.8086	51747.26	3.5810	3.5810	0.7558	25.95	-0.01	1.500			
0.8107	51884.72	3.5780	3.5780	0.6553	25.95	-0.01	1.500			
0.8124	51996.52	3.5750	3.5750	0.5570	25.95	-0.01	1.500			
0.8139	52091.65	3.5720	3.5720	0.4723	25.95	-0.01	1.500			
0.8151	52168.72	3.5690	3.5689	0.3999	25.95	-0.01	1.500			
0.8162	52235.77	3.5660	3.5659	0.3449	25.95	-0.01	1.500			
0.8171	52292.45	3.5630	3.5629	0.2916	25.95	-0.01	1.500			
0.8179	52343.33	3.5600	3.5598	0.2593	25.95	-0.01	1.500			
0.8186	52387.38	3.5570	3.5570	0.2312	25.95	-0.01	1.500			
0.8192	52427.70	3.5540	3.5540	0.2090	25.95	-0.01	1.500			
0.8198	52465.43	3.5510	3.5510	0.1891	25.95	-0.01	1.500			
0.8203	52499.18	3.5480	3.5478	0.1722	25.95	-0.01	1.500			
0.8208	52529.82	3.5450	3.5450	0.1559	25.94	-0.02	1.500			
0.8212	52558.35	3.5420	3.5421	0.1416	25.94	-0.02	1.500			
0.8216	52584.28	3.5390	3.5389	0.1273	25.94	-0.02	1.500			
0.8220	52607.42	3.5360	3.5360	0.1131	25.94	-0.02	1.500			
0.8223	52627.74	3.5330	3.5329	0.0987	25.94	-0.02	1.500			
0.8226	52645.21	3.5300	3.5301	0.0841	25.94	-0.02	1.500			
0.8228	52659.98	3.5270	3.5274	0.0698	25.94	-0.02	1.500			
0.8230	52672.48	3.5240	3.5246	0.0552	25.94	-0.02	1.500			
0.8232	52681.63	3.5210	3.5219	0.0401	25.94	-0.02	1.500			
0.8232	52687.88	3.5180	3.5199	0.0250	25.94	-0.02	1.500			
