Ah_balance (normalized)	Ah_balance (mAh)	Voltage - fit (V)	Voltage -  interpolate (V)	dQ/dV (1/V)	Temperature (°C)	Temperature - diff (°C)	Current (C)	R_DC 0ms (mOhm)	R_DC 50ms (mOhm)	R_DC 50 ms PEC (mOhm)
0.1937	12395.05	3.9280	3.9277	-0.0945	25.71	-0.01	-1.500			
0.1940	12415.56	3.9250	3.9249	-0.1207	25.71	-0.01	-1.500			
0.1944	12441.51	3.9220	3.9220	-0.1478	25.71	-0.01	-1.500			
0.1949	12472.82	3.9190	3.9191	-0.1736	25.71	-0.01	-1.500			
0.1954	12508.61	3.9160	3.9159	-0.1992	25.71	-0.01	-1.500			
0.1961	12550.11	3.9130	3.9130	-0.2236	25.71	-0.01	-1.500			
0.1968	12595.49	3.9100	3.9101	-0.2452	25.71	-0.01	-1.500			
0.1976	12644.72	3.9070	3.9070	-0.2686	25.71	-0.01	-1.500			
0.1984	12698.50	3.9040	3.9041	-0.2921	25.71	-0.01	-1.500			
0.1993	12756.49	3.9010	3.9010	-0.3144	25.71	-0.01	-1.500			
0.2003	12819.19	3.8980	3.8980	-0.3354	25.71	-0.01	-1.500			
0.2013	12886.02	3.8950	3.8950	-0.3562	25.71	-0.01	-1.500			
0.2024	12956.58	3.8920	3.8921	-0.3790	25.71	-0.01	-1.500			
0.2036	13031.62	3.8890	3.8889	-0.3982	25.72	-0.00	-1.500			
0.2048	13109.53	3.8860	3.8860	-0.4175	25.72	-0.00	-1.500			
0.2061	13191.90	3.8830	3.8830	-0.4372	25.72	-0.00	-1.500			
0.2075	13278.19	3.8800	3.8801	-0.4563	25.72	-0.00	-1.500			
0.2089	13368.12	3.8770	3.8770	-0.4741	25.72	-0.00	-1.500			
0.2103	13460.90	3.8740	3.8740	-0.4910	25.72	0.00	-1.500			
0.2118	13556.92	3.8710	3.8710	-0.5037	25.72	0.00	-1.500			
0.2134	13655.51	3.8680	3.8680	-0.5193	25.72	0.00	-1.500			
0.2149	13756.28	3.8650	3.8650	-0.5307	25.72	0.00	-1.500			
0.2166	13859.32	3.8620	3.8620	-0.5435	25.73	0.01	-1.500			
0.2182	13965.62	3.8590	3.8590	-0.5533	25.73	0.01	-1.500			
0.2199	14072.50	3.8560	3.8560	-0.5639	25.73	0.01	-1.500			
0.2216	14182.21	3.8530	3.8530	-0.5736	25.73	0.01	-1.500			
0.2233	14293.71	3.8500	3.8500	-0.5833	25.73	0.01	-1.500			
0.2251	14407.05	3.8470	3.8469	-0.5869	25.73	0.01	-1.500			
0.2269	14520.58	3.8440	3.8441	-0.5930	25.73	0.01	-1.500			
0.2287	14634.85	3.8410	3.8410	-0.5982	25.74	0.02	-1.500			
0.2305	14750.60	3.8380	3.8380	-0.6028	25.74	0.02	-1.500			
0.2323	14865.85	3.8350	3.8349	-0.6043	25.74	0.02	-1.500			
0.2341	14982.69	3.8320	3.8320	-0.6077	25.74	0.02	-1.500			
0.2359	15099.87	3.8290	3.8290	-0.6123	25.74	0.02	-1.500			
0.2378	15218.73	3.8260	3.8260	-0.6148	25.75	0.03	-1.500			
0.2396	15335.99	3.8230	3.8230	-0.6171	25.75	0.03	-1.500			
0.2415	15454.60	3.8200	3.8200	-0.6212	25.75	0.03	-1.500			
0.2434	15575.24	3.8170	3.8170	-0.6227	25.76	0.04	-1.500			
0.2452	15694.77	3.8140	3.8140	-0.6254	25.76	0.04	-1.500			
0.2471	15815.55	3.8110	3.8110	-0.6273	25.76	0.04	-1.500			
0.2490	15935.40	3.8080	3.8080	-0.6284	25.77	0.05	-1.500			
0.2509	16056.38	3.8050	3.8050	-0.6321	25.77	0.05	-1.500			
0.2528	16177.27	3.8020	3.8021	-0.6327	25.78	0.06	-1.500			
0.2547	16299.78	3.7990	3.7989	-0.6353	25.78	0.06	-1.500			
0.2566	16422.59	3.7960	3.7960	-0.6381	25.78	0.06	-1.500			
0.2585	16544.57	3.7930	3.7930	-0.6383	25.79	0.07	-1.500			
0.2604	16667.73	3.7900	3.7900	-0.6402	25.79	0.07	-1.500			
0.2623	16790.37	3.7870	3.7870	-0.6414	25.80	0.08	-1.500			
0.2643	16914.05	3.7840	3.7840	-0.6425	25.80	0.08	-1.500			
0.2662	17037.72	3.7810	3.7810	-0.6459	25.80	0.08	-1.500			
0.2682	17162.02	3.7780	3.7780	-0.6470	25.81	0.09	-1.500			
0.2701	17285.68	3.7750	3.7750	-0.6483	25.81	0.09	-1.500			
0.2720	17410.37	3.7720	3.7720	-0.6498	25.81	0.09	-1.500			
0.2740	17535.27	3.7690	3.7690	-0.6528	25.82	0.10	-1.500			
0.2759	17660.74	3.7660	3.7659	-0.6547	25.82	0.10	-1.500			
0.2779	17787.17	3.7630	3.7631	-0.6594	25.83	0.11	-1.500			
0.2799	17914.07	3.7600	3.7600	-0.6600	25.83	0.11	-1.500			
0.2819	18040.67	3.7570	3.7570	-0.6676	25.83	0.11	-1.500			
0.2839	18169.30	3.7540	3.7540	-0.6713	25.84	0.12	-1.500			
0.2859	18298.65	3.7510	3.7510	-0.6746	25.84	0.12	-1.500			
0.2879	18428.30	3.7480	3.7480	-0.6808	25.85	0.13	-1.500			
0.2900	18560.09	3.7450	3.7450	-0.6868	25.86	0.14	-1.500			
0.2921	18692.65	3.7420	3.7419	-0.6883	25.86	0.14	-1.500			
0.2941	18825.19	3.7390	3.7391	-0.6937	25.87	0.15	-1.500			
0.2962	18957.84	3.7360	3.7360	-0.6953	25.88	0.16	-1.500			
0.2983	19092.32	3.7330	3.7330	-0.7038	25.88	0.16	-1.500			
0.3004	19227.13	3.7300	3.7300	-0.7110	25.89	0.17	-1.500			
0.3026	19363.73	3.7270	3.7270	-0.7174	25.90	0.18	-1.500			
0.3047	19503.33	3.7240	3.7240	-0.7271	25.90	0.18	-1.500			
0.3069	19644.67	3.7210	3.7210	-0.7311	25.91	0.19	-1.500			
0.3091	19785.54	3.7180	3.7180	-0.7346	25.92	0.20	-1.500			
0.3114	19926.71	3.7150	3.7150	-0.7437	25.92	0.20	-1.500			
0.3136	20068.69	3.7120	3.7119	-0.7494	25.93	0.21	-1.500			
0.3158	20213.68	3.7090	3.7090	-0.7559	25.93	0.21	-1.500			
0.3181	20359.30	3.7060	3.7060	-0.7644	25.93	0.21	-1.500			
0.3204	20507.78	3.7030	3.7030	-0.7735	25.94	0.22	-1.500			
0.3228	20658.09	3.7000	3.7000	-0.7808	25.94	0.22	-1.500			
0.3251	20806.66	3.6970	3.6970	-0.7895	25.94	0.22	-1.500			
0.3275	20958.49	3.6940	3.6940	-0.7970	25.95	0.23	-1.500			
0.3299	21112.86	3.6910	3.6910	-0.8083	25.95	0.23	-1.500			
0.3323	21269.77	3.6880	3.6880	-0.8197	25.96	0.24	-1.500			
0.3348	21428.93	3.6850	3.6852	-0.8260	25.96	0.24	-1.500			
0.3373	21588.86	3.6820	3.6821	-0.8321	25.97	0.25	-1.500			
0.3398	21748.45	3.6790	3.6790	-0.8428	25.97	0.25	-1.500			
0.3423	21909.24	3.6760	3.6760	-0.8528	25.98	0.26	-1.500			
0.3449	22073.79	3.6730	3.6729	-0.8638	25.98	0.26	-1.500			
0.3475	22240.82	3.6700	3.6700	-0.8731	25.99	0.27	-1.500			
0.3502	22410.82	3.6670	3.6670	-0.8871	25.99	0.27	-1.500			
0.3529	22584.29	3.6640	3.6640	-0.8938	26.00	0.28	-1.500			
0.3556	22756.16	3.6610	3.6610	-0.9031	26.00	0.28	-1.500			
0.3583	22928.65	3.6580	3.6580	-0.9109	26.01	0.29	-1.500			
0.3610	23103.08	3.6550	3.6550	-0.9204	26.01	0.29	-1.500			
0.3638	23281.88	3.6520	3.6519	-0.9300	26.01	0.29	-1.500			
0.3666	23462.02	3.6490	3.6490	-0.9412	26.02	0.30	-1.500			
0.3694	23642.13	3.6460	3.6461	-0.9546	26.02	0.30	-1.500			
0.3723	23827.20	3.6430	3.6429	-0.9711	26.03	0.31	-1.500			
0.3752	24013.18	3.6400	3.6400	-0.9836	26.03	0.31	-1.500			
0.3782	24205.39	3.6370	3.6370	-0.9974	26.03	0.31	-1.500			
0.3812	24399.80	3.6340	3.6340	-1.0097	26.04	0.32	-1.500			
0.3843	24595.80	3.6310	3.6311	-1.0220	26.04	0.32	-1.500			
0.3874	24792.10	3.6280	3.6280	-1.0325	26.04	0.32	-1.500			
0.3905	24990.74	3.6250	3.6250	-1.0398	26.05	0.33	-1.500			
0.3936	25189.63	3.6220	3.6220	-1.0523	26.05	0.33	-1.500			
0.3968	25392.67	3.6190	3.6191	-1.0677	26.05	0.33	-1.500			
0.4000	25601.37	3.6160	3.6160	-1.0842	26.06	0.34	-1.500			
0.4033	25809.76	3.6130	3.6130	-1.0972	26.06	0.34	-1.500			
0.4066	26021.51	3.6100	3.6100	-1.1106	26.07	0.35	-1.500			
0.4100	26237.32	3.6070	3.6070	-1.1228	26.07	0.35	-1.500			
0.4134	26455.40	3.6040	3.6040	-1.1360	26.07	0.35	-1.500			
0.4168	26672.95	3.6010	3.6010	-1.1472	26.08	0.36	-1.500			
0.4202	26894.12	3.5980	3.5981	-1.1593	26.08	0.36	-1.500			
0.4237	27117.41	3.5950	3.5949	-1.1840	26.09	0.37	-1.500			
0.4273	27347.66	3.5920	3.5919	-1.1936	26.09	0.37	-1.500			
0.4309	27578.65	3.5890	3.5890	-1.2096	26.10	0.38	-1.500			
0.4346	27812.44	3.5860	3.5862	-1.2248	26.10	0.38	-1.500			
0.4383	28050.42	3.5830	3.5830	-1.2389	26.10	0.38	-1.500			
0.4420	28289.07	3.5800	3.5799	-1.2500	26.11	0.39	-1.500			
0.4457	28527.13	3.5770	3.5770	-1.2637	26.11	0.39	-1.500			
0.4495	28770.89	3.5740	3.5741	-1.2818	26.11	0.39	-1.500			
0.4534	29020.11	3.5710	3.5710	-1.3025	26.12	0.40	-1.500			
0.4574	29271.74	3.5680	3.5679	-1.3214	26.12	0.40	-1.500			
0.4614	29527.41	3.5650	3.5650	-1.3428	26.12	0.40	-1.500			
0.4654	29787.90	3.5620	3.5620	-1.3643	26.12	0.40	-1.500			
0.4696	30051.98	3.5590	3.5590	-1.3831	26.13	0.41	-1.500			
0.4737	30318.21	3.5560	3.5560	-1.4036	26.13	0.41	-1.500			
0.4780	30592.61	3.5530	3.5530	-1.4192	26.13	0.41	-1.500			
0.4823	30866.28	3.5500	3.5499	-1.4375	26.14	0.42	-1.500			
0.4866	31142.83	3.5470	3.5471	-1.4525	26.14	0.42	-1.500			
0.4910	31422.49	3.5440	3.5440	-1.4699	26.15	0.43	-1.500			
0.4954	31706.35	3.5410	3.5410	-1.4912	26.16	0.44	-1.500			
0.4999	31994.90	3.5380	3.5380	-1.5100	26.16	0.44	-1.500			
0.5045	32285.88	3.5350	3.5349	-1.5297	26.17	0.45	-1.500			
0.5091	32585.03	3.5320	3.5321	-1.5548	26.18	0.46	-1.500			
0.5138	32884.12	3.5290	3.5290	-1.5662	26.19	0.47	-1.500			
0.5186	33187.75	3.5260	3.5259	-1.5802	26.19	0.47	-1.500	0.372	0.543	
0.5233	33493.17	3.5230	3.5231	-1.5891	26.20	0.48	-1.500			
0.5281	33797.97	3.5200	3.5200	-1.5973	26.21	0.49	-1.500			
0.5329	34106.63	3.5170	3.5170	-1.6109	26.22	0.50	-1.500			
0.5377	34415.34	3.5140	3.5140	-1.6175	26.22	0.50	-1.500			
0.5426	34726.09	3.5110	3.5110	-1.6353	26.23	0.51	-1.500			
0.5475	35042.79	3.5080	3.5080	-1.6438	26.24	0.52	-1.500			
0.5525	35361.63	3.5050	3.5050	-1.6520	26.24	0.52	-1.500			
0.5575	35680.78	3.5020	3.5020	-1.6605	26.25	0.53	-1.500			
0.5625	35998.96	3.4990	3.4990	-1.6606	26.26	0.54	-1.500			
0.5675	36317.91	3.4960	3.4960	-1.6618	26.27	0.55	-1.500			
0.5724	36636.79	3.4930	3.4930	-1.6596	26.28	0.56	-1.500			
0.5774	36952.84	3.4900	3.4901	-1.6622	26.29	0.57	-1.500			
0.5825	37276.90	3.4870	3.4870	-1.6608	26.30	0.58	-1.500			
0.5874	37596.19	3.4840	3.4839	-1.6493	26.31	0.59	-1.500			
0.5924	37910.79	3.4810	3.4811	-1.6457	26.32	0.60	-1.500			
0.5973	38226.17	3.4780	3.4780	-1.6405	26.33	0.61	-1.500			
0.6022	38542.24	3.4750	3.4749	-1.6296	26.34	0.62	-1.500			
0.6071	38854.14	3.4720	3.4720	-1.6159	26.35	0.63	-1.500			
0.6119	39162.89	3.4690	3.4690	-1.6050	26.37	0.65	-1.500			
0.6168	39473.30	3.4660	3.4660	-1.5896	26.38	0.66	-1.500			
0.6215	39777.50	3.4630	3.4630	-1.5668	26.40	0.68	-1.500			
0.6261	40073.07	3.4600	3.4600	-1.5478	26.41	0.69	-1.500			
0.6308	40369.00	3.4570	3.4570	-1.5349	26.43	0.71	-1.500			
0.6353	40662.34	3.4540	3.4540	-1.5175	26.44	0.72	-1.500			
0.6399	40951.42	3.4510	3.4510	-1.4950	26.46	0.74	-1.500			
0.6443	41237.02	3.4480	3.4480	-1.4806	26.48	0.76	-1.500			
0.6488	41523.10	3.4450	3.4450	-1.4590	26.49	0.77	-1.500			
0.6531	41800.99	3.4420	3.4420	-1.4354	26.51	0.79	-1.500			
0.6574	42071.35	3.4390	3.4390	-1.4186	26.52	0.80	-1.500			
0.6616	42341.03	3.4360	3.4360	-1.4016	26.54	0.82	-1.500			
0.6658	42610.77	3.4330	3.4329	-1.3799	26.56	0.84	-1.500			
0.6699	42872.80	3.4300	3.4300	-1.3676	26.57	0.85	-1.500			
0.6740	43133.91	3.4270	3.4271	-1.3477	26.59	0.87	-1.500			
0.6780	43392.72	3.4240	3.4240	-1.3349	26.61	0.89	-1.500			
0.6820	43646.02	3.4210	3.4209	-1.3153	26.62	0.90	-1.500			
0.6859	43895.24	3.4180	3.4181	-1.3012	26.65	0.93	-1.500			
0.6898	44144.51	3.4150	3.4149	-1.2885	26.66	0.94	-1.500			
0.6936	44393.54	3.4120	3.4119	-1.2653	26.68	0.96	-1.500			
0.6974	44634.96	3.4090	3.4090	-1.2432	26.70	0.98	-1.500			
0.7012	44874.05	3.4060	3.4060	-1.2151	26.71	0.99	-1.500			
0.7048	45105.57	3.4030	3.4030	-1.1807	26.73	1.01	-1.500			
0.7082	45327.97	3.4000	3.4001	-1.1451	26.75	1.03	-1.500			
0.7116	45541.83	3.3970	3.3969	-1.1074	26.77	1.05	-1.500			
0.7149	45752.79	3.3940	3.3939	-1.0750	26.78	1.06	-1.500			
0.7181	45955.57	3.3910	3.3910	-1.0431	26.80	1.08	-1.500			
0.7211	46150.13	3.3880	3.3881	-1.0096	26.81	1.09	-1.500			
0.7241	46344.70	3.3850	3.3850	-0.9848	26.83	1.11	-1.500			
0.7270	46529.91	3.3820	3.3820	-0.9543	26.84	1.12	-1.500			
0.7298	46708.88	3.3790	3.3790	-0.9214	26.86	1.14	-1.500			
0.7326	46883.68	3.3760	3.3760	-0.8936	26.86	1.14	-1.500			
0.7352	47053.50	3.3730	3.3730	-0.8681	26.87	1.15	-1.500			
0.7377	47215.73	3.3700	3.3700	-0.8393	26.88	1.16	-1.500			
0.7402	47374.26	3.3670	3.3670	-0.8120	26.90	1.18	-1.500			
0.7426	47527.96	3.3640	3.3639	-0.7877	26.91	1.19	-1.500			
0.7449	47675.56	3.3610	3.3611	-0.7633	26.92	1.20	-1.500			
0.7472	47820.78	3.3580	3.3580	-0.7393	26.93	1.21	-1.500			
0.7494	47959.99	3.3550	3.3550	-0.7202	26.94	1.22	-1.500			
0.7515	48095.66	3.3520	3.3520	-0.6995	26.95	1.23	-1.500			
0.7535	48226.70	3.3490	3.3490	-0.6800	26.96	1.24	-1.500			
0.7556	48356.53	3.3460	3.3459	-0.6604	26.97	1.25	-1.500			
0.7575	48481.39	3.3430	3.3431	-0.6441	26.98	1.26	-1.500			
0.7594	48603.54	3.3400	3.3400	-0.6261	26.99	1.27	-1.500			
0.7613	48722.40	3.3370	3.3370	-0.6113	27.00	1.28	-1.500			
0.7631	48836.73	3.3340	3.3340	-0.5882	27.01	1.29	-1.500			
0.7648	48949.07	3.3310	3.3310	-0.5734	27.02	1.30	-1.500			
0.7665	49057.43	3.3280	3.3281	-0.5570	27.03	1.31	-1.500			
0.7682	49162.10	3.3250	3.3250	-0.5468	27.03	1.31	-1.500			
0.7698	49264.13	3.3220	3.3220	-0.5346	27.04	1.32	-1.500			
0.7714	49366.60	3.3190	3.3189	-0.5204	27.05	1.33	-1.500			
0.7729	49465.15	3.3160	3.3160	-0.5087	27.06	1.34	-1.500			
0.7744	49563.01	3.3130	3.3131	-0.5002	27.07	1.35	-1.500			
0.7759	49658.04	3.3100	3.3100	-0.4848	27.07	1.35	-1.500			
0.7773	49749.36	3.3070	3.3069	-0.4698	27.08	1.36	-1.500			
0.7787	49837.43	3.3040	3.3039	-0.4550	27.09	1.37	-1.500			
0.7800	49922.78	3.3010	3.3011	-0.4446	27.10	1.38	-1.500			
0.7814	50007.85	3.2980	3.2979	-0.4353	27.11	1.39	-1.500			
0.7826	50089.52	3.2950	3.2950	-0.4228	27.12	1.40	-1.500			
0.7839	50169.24	3.2920	3.2921	-0.4155	27.12	1.40	-1.500			
0.7851	50248.86	3.2890	3.2890	-0.4096	27.13	1.41	-1.500			
0.7864	50326.91	3.2860	3.2859	-0.4005	27.14	1.42	-1.500			
0.7875	50403.07	3.2830	3.2830	-0.3912	27.15	1.43	-1.500			
0.7887	50477.04	3.2800	3.2801	-0.3815	27.15	1.43	-1.500			
0.7898	50549.83	3.2770	3.2770	-0.3737	27.16	1.44	-1.500			
0.7909	50620.39	3.2740	3.2740	-0.3650	27.17	1.45	-1.500			
0.7920	50689.21	3.2710	3.2710	-0.3558	27.17	1.45	-1.500			
0.7931	50756.47	3.2680	3.2680	-0.3479	27.18	1.46	-1.500			
0.7941	50822.60	3.2650	3.2649	-0.3412	27.19	1.47	-1.500			
0.7951	50887.34	3.2620	3.2621	-0.3356	27.19	1.47	-1.500			
0.7961	50951.00	3.2590	3.2590	-0.3298	27.20	1.48	-1.500			
0.7971	51014.14	3.2560	3.2560	-0.3217	27.21	1.49	-1.500			
0.7980	51075.14	3.2530	3.2530	-0.3162	27.21	1.49	-1.500			
0.7990	51135.05	3.2500	3.2501	-0.3106	27.22	1.50	-1.500			
0.7999	51194.28	3.2470	3.2469	-0.3033	27.22	1.50	-1.500			
0.8008	51251.54	3.2440	3.2439	-0.2967	27.23	1.51	-1.500			
0.8017	51307.61	3.2410	3.2410	-0.2909	27.23	1.51	-1.500			
0.8025	51363.04	3.2380	3.2381	-0.2857	27.24	1.52	-1.500			
0.8034	51417.67	3.2350	3.2350	-0.2814	27.25	1.53	-1.500			
0.8042	51470.15	3.2320	3.2320	-0.2762	27.25	1.53	-1.500			
0.8050	51523.10	3.2290	3.2290	-0.2736	27.26	1.54	-1.500			
0.8059	51575.56	3.2260	3.2259	-0.2705	27.26	1.54	-1.500			
0.8067	51626.94	3.2230	3.2231	-0.2665	27.27	1.55	-1.500			
0.8075	51678.07	3.2200	3.2200	-0.2618	27.27	1.55	-1.500			
0.8083	51728.29	3.2170	3.2170	-0.2569	27.28	1.56	-1.500			
0.8090	51776.72	3.2140	3.2139	-0.2523	27.29	1.57	-1.500			
0.8098	51824.32	3.2110	3.2111	-0.2483	27.29	1.57	-1.500			
0.8105	51871.52	3.2080	3.2079	-0.2445	27.30	1.58	-1.500			
0.8112	51918.05	3.2050	3.2050	-0.2413	27.30	1.58	-1.500			
0.8119	51964.01	3.2020	3.2020	-0.2379	27.31	1.59	-1.500			
0.8127	52009.63	3.1990	3.1991	-0.2344	27.31	1.59	-1.500			
0.8134	52054.72	3.1960	3.1960	-0.2318	27.32	1.60	-1.500			
0.8140	52098.96	3.1930	3.1930	-0.2280	27.33	1.61	-1.500			
0.8147	52141.87	3.1900	3.1900	-0.2251	27.33	1.61	-1.500			
0.8154	52184.74	3.1870	3.1870	-0.2223	27.34	1.62	-1.500			
0.8160	52227.05	3.1840	3.1840	-0.2199	27.34	1.62	-1.500			
0.8167	52269.08	3.1810	3.1810	-0.2179	27.35	1.63	-1.500			
0.8174	52310.70	3.1780	3.1780	-0.2157	27.35	1.63	-1.500			
0.8180	52352.30	3.1750	3.1750	-0.2131	27.36	1.64	-1.500			
0.8186	52392.79	3.1720	3.1721	-0.2104	27.36	1.64	-1.500			
0.8193	52432.92	3.1690	3.1690	-0.2077	27.37	1.65	-1.500			
0.8199	52472.39	3.1660	3.1660	-0.2057	27.37	1.65	-1.500			
0.8205	52511.58	3.1630	3.1629	-0.2041	27.38	1.66	-1.500			
0.8211	52550.53	3.1600	3.1599	-0.2015	27.38	1.66	-1.500			
0.8217	52589.16	3.1570	3.1570	-0.1992	27.39	1.67	-1.500			
0.8223	52627.06	3.1540	3.1541	-0.1979	27.39	1.67	-1.500			
0.8229	52665.07	3.1510	3.1510	-0.1965	27.40	1.68	-1.500			
0.8235	52702.44	3.1480	3.1480	-0.1943	27.40	1.68	-1.500			
0.8241	52739.58	3.1450	3.1450	-0.1921	27.41	1.69	-1.500			
0.8246	52776.29	3.1420	3.1420	-0.1904	27.41	1.69	-1.500			
0.8252	52812.70	3.1390	3.1391	-0.1889	27.42	1.70	-1.500			
0.8258	52849.28	3.1360	3.1360	-0.1865	27.43	1.71	-1.500			
0.8263	52884.86	3.1330	3.1330	-0.1844	27.43	1.71	-1.500			
0.8269	52919.41	3.1300	3.1300	-0.1814	27.44	1.72	-1.500			
0.8274	52954.11	3.1270	3.1272	-0.1801	27.44	1.72	-1.500			
0.8279	52988.60	3.1240	3.1239	-0.1783	27.45	1.73	-1.500			
0.8285	53022.69	3.1210	3.1209	-0.1764	27.45	1.73	-1.500			
0.8290	53056.29	3.1180	3.1180	-0.1746	27.46	1.74	-1.500			
0.8295	53089.51	3.1150	3.1152	-0.1744	27.46	1.74	-1.500			
0.8301	53123.21	3.1120	3.1120	-0.1734	27.47	1.75	-1.500			
0.8306	53156.21	3.1090	3.1089	-0.1720	27.47	1.75	-1.500			
0.8311	53189.27	3.1060	3.1060	-0.1703	27.48	1.76	-1.500			
0.8316	53221.85	3.1030	3.1032	-0.1691	27.48	1.76	-1.500			
0.8321	53254.47	3.1000	3.1000	-0.1681	27.49	1.77	-1.500			
0.8326	53286.55	3.0970	3.0970	-0.1669	27.49	1.77	-1.500			
0.8331	53318.33	3.0940	3.0940	-0.1657	27.50	1.78	-1.500			
0.8336	53349.59	3.0910	3.0910	-0.1641	27.50	1.78	-1.500			
0.8341	53381.21	3.0880	3.0880	-0.1630	27.51	1.79	-1.500			
0.8346	53412.25	3.0850	3.0851	-0.1620	27.51	1.79	-1.500			
0.8351	53443.46	3.0820	3.0820	-0.1614	27.52	1.80	-1.500			
0.8355	53474.38	3.0790	3.0790	-0.1599	27.52	1.80	-1.500			
0.8360	53504.93	3.0760	3.0759	-0.1584	27.53	1.81	-1.500			
0.8365	53535.17	3.0730	3.0730	-0.1571	27.54	1.82	-1.500			
0.8370	53565.22	3.0700	3.0701	-0.1558	27.54	1.82	-1.500			
0.8374	53594.90	3.0670	3.0670	-0.1554	27.55	1.83	-1.500			
0.8379	53624.71	3.0640	3.0640	-0.1544	27.56	1.84	-1.500			
0.8383	53654.10	3.0610	3.0611	-0.1531	27.56	1.84	-1.500			
0.8388	53683.45	3.0580	3.0580	-0.1526	27.57	1.85	-1.500			
0.8393	53712.84	3.0550	3.0551	-0.1519	27.58	1.86	-1.500			
0.8397	53742.02	3.0520	3.0520	-0.1509	27.58	1.86	-1.500			
0.8402	53770.99	3.0490	3.0489	-0.1496	27.59	1.87	-1.500			
0.8406	53799.57	3.0460	3.0461	-0.1481	27.60	1.88	-1.500			
0.8411	53827.78	3.0430	3.0430	-0.1467	27.60	1.88	-1.500			
0.8415	53855.95	3.0400	3.0400	-0.1457	27.61	1.89	-1.500			
0.8419	53883.39	3.0370	3.0371	-0.1449	27.61	1.89	-1.500			
0.8424	53911.17	3.0340	3.0340	-0.1445	27.62	1.90	-1.500			
0.8428	53938.68	3.0310	3.0310	-0.1437	27.63	1.91	-1.500			
0.8432	53966.33	3.0280	3.0279	-0.1430	27.63	1.91	-1.500			
0.8437	53993.98	3.0250	3.0249	-0.1425	27.64	1.92	-1.500			
0.8441	54021.24	3.0220	3.0222	-0.1415	27.64	1.92	-1.500			
0.8445	54048.48	3.0190	3.0190	-0.1401	27.65	1.93	-1.500			
0.8449	54075.19	3.0160	3.0160	-0.1394	27.66	1.94	-1.500			
0.8453	54101.59	3.0130	3.0130	-0.1377	27.66	1.94	-1.500			
0.8457	54127.96	3.0100	3.0100	-0.1370	27.67	1.95	-1.500			
0.8462	54154.23	3.0070	3.0070	-0.1363	27.67	1.95	-1.500			
0.8466	54180.31	3.0040	3.0041	-0.1355	27.68	1.96	-1.500			
0.8470	54206.24	3.0010	3.0010	-0.1344	27.68	1.96	-1.500			
