Ah_balance (normalized)	Ah_balance (mAh)	Voltage - fit (V)	Voltage -  interpolate (V)	dQ/dV (1/V)	Temperature (°C)	Temperature - diff (°C)	Current (C)	R_DC 0ms (mOhm)	R_DC 50ms (mOhm)	R_DC 50 ms PEC (mOhm)
0.1859	11898.52	3.9300	3.9297	-0.0690	25.93	-0.02	-1.500			
0.1862	11914.60	3.9270	3.9268	-0.0986	25.93	-0.02	-1.500			
0.1865	11937.10	3.9240	3.9239	-0.1278	25.93	-0.02	-1.500			
0.1870	11964.92	3.9210	3.9208	-0.1534	25.93	-0.02	-1.500			
0.1875	11996.93	3.9180	3.9181	-0.1775	25.93	-0.02	-1.500			
0.1880	12033.43	3.9150	3.9150	-0.2011	25.94	-0.01	-1.500			
0.1887	12075.36	3.9120	3.9120	-0.2248	25.94	-0.01	-1.500			
0.1894	12121.08	3.9090	3.9089	-0.2451	25.94	-0.01	-1.500			
0.1902	12170.06	3.9060	3.9060	-0.2655	25.94	-0.01	-1.500			
0.1910	12222.67	3.9030	3.9031	-0.2875	25.94	-0.01	-1.500			
0.1919	12279.77	3.9000	3.9000	-0.3092	25.94	-0.01	-1.500			
0.1928	12341.58	3.8970	3.8969	-0.3294	25.94	-0.01	-1.500			
0.1939	12406.91	3.8940	3.8940	-0.3492	25.94	-0.01	-1.500			
0.1949	12476.11	3.8910	3.8910	-0.3704	25.94	-0.01	-1.500			
0.1961	12549.65	3.8880	3.8880	-0.3899	25.95	-0.00	-1.500			
0.1973	12626.41	3.8850	3.8849	-0.4068	25.95	-0.00	-1.500			
0.1985	12705.87	3.8820	3.8820	-0.4238	25.95	-0.00	-1.500			
0.1998	12789.12	3.8790	3.8790	-0.4410	25.95	-0.00	-1.500			
0.2012	12875.83	3.8760	3.8760	-0.4578	25.95	0.00	-1.500			
0.2026	12965.68	3.8730	3.8730	-0.4718	25.95	0.00	-1.500			
0.2040	13057.21	3.8700	3.8700	-0.4860	25.95	0.00	-1.500			
0.2055	13152.37	3.8670	3.8670	-0.5000	25.96	0.01	-1.500			
0.2070	13250.62	3.8640	3.8640	-0.5113	25.96	0.01	-1.500			
0.2086	13350.35	3.8610	3.8610	-0.5178	25.96	0.01	-1.500			
0.2102	13450.22	3.8580	3.8581	-0.5293	25.96	0.01	-1.500			
0.2118	13552.72	3.8550	3.8550	-0.5379	25.96	0.01	-1.500			
0.2134	13656.84	3.8520	3.8519	-0.5487	25.97	0.02	-1.500			
0.2150	13762.85	3.8490	3.8490	-0.5565	25.97	0.02	-1.500			
0.2167	13871.40	3.8460	3.8460	-0.5650	25.97	0.02	-1.500			
0.2185	13981.26	3.8430	3.8431	-0.5720	25.97	0.02	-1.500			
0.2202	14093.00	3.8400	3.8399	-0.5781	25.97	0.02	-1.500			
0.2219	14203.25	3.8370	3.8370	-0.5811	25.98	0.03	-1.500			
0.2237	14315.48	3.8340	3.8340	-0.5849	25.98	0.03	-1.500			
0.2254	14427.31	3.8310	3.8310	-0.5892	25.98	0.03	-1.500			
0.2272	14541.84	3.8280	3.8281	-0.5941	25.99	0.04	-1.500			
0.2290	14656.52	3.8250	3.8250	-0.5956	25.99	0.04	-1.500			
0.2308	14771.49	3.8220	3.8220	-0.5984	25.99	0.04	-1.500			
0.2326	14886.20	3.8190	3.8191	-0.6023	26.00	0.05	-1.500			
0.2344	15001.68	3.8160	3.8160	-0.6059	26.00	0.05	-1.500			
0.2362	15118.98	3.8130	3.8129	-0.6082	26.01	0.06	-1.500			
0.2381	15235.59	3.8100	3.8101	-0.6103	26.01	0.06	-1.500			
0.2399	15353.70	3.8070	3.8070	-0.6132	26.02	0.07	-1.500			
0.2417	15471.44	3.8040	3.8040	-0.6162	26.02	0.07	-1.500			
0.2436	15589.52	3.8010	3.8010	-0.6181	26.02	0.07	-1.500			
0.2454	15707.78	3.7980	3.7980	-0.6221	26.03	0.08	-1.500			
0.2473	15827.93	3.7950	3.7950	-0.6263	26.03	0.08	-1.500			
0.2492	15949.69	3.7920	3.7920	-0.6295	26.04	0.09	-1.500			
0.2511	16070.84	3.7890	3.7890	-0.6323	26.04	0.09	-1.500			
0.2530	16192.73	3.7860	3.7860	-0.6348	26.05	0.10	-1.500			
0.2549	16314.14	3.7830	3.7830	-0.6356	26.05	0.10	-1.500			
0.2568	16436.81	3.7800	3.7799	-0.6362	26.06	0.11	-1.500			
0.2587	16558.43	3.7770	3.7770	-0.6410	26.06	0.11	-1.500			
0.2607	16681.75	3.7740	3.7740	-0.6418	26.07	0.12	-1.500			
0.2626	16804.45	3.7710	3.7710	-0.6476	26.07	0.12	-1.500			
0.2645	16928.89	3.7680	3.7680	-0.6512	26.07	0.12	-1.500			
0.2665	17054.60	3.7650	3.7649	-0.6570	26.08	0.13	-1.500			
0.2685	17181.70	3.7620	3.7620	-0.6615	26.08	0.13	-1.500			
0.2705	17309.86	3.7590	3.7590	-0.6651	26.09	0.14	-1.500			
0.2725	17437.29	3.7560	3.7560	-0.6678	26.09	0.14	-1.500			
0.2745	17566.41	3.7530	3.7530	-0.6757	26.10	0.15	-1.500			
0.2765	17695.02	3.7500	3.7500	-0.6768	26.10	0.15	-1.500			
0.2785	17826.32	3.7470	3.7470	-0.6834	26.11	0.16	-1.500			
0.2806	17958.42	3.7440	3.7440	-0.6883	26.12	0.17	-1.500			
0.2827	18091.44	3.7410	3.7410	-0.6924	26.12	0.17	-1.500			
0.2848	18225.05	3.7380	3.7380	-0.6975	26.13	0.18	-1.500			
0.2868	18357.94	3.7350	3.7351	-0.7032	26.13	0.18	-1.500			
0.2889	18492.65	3.7320	3.7319	-0.7084	26.14	0.19	-1.500			
0.2911	18629.89	3.7290	3.7290	-0.7188	26.15	0.20	-1.500			
0.2933	18768.81	3.7260	3.7259	-0.7278	26.15	0.20	-1.500			
0.2955	18910.38	3.7230	3.7230	-0.7313	26.16	0.21	-1.500			
0.2977	19052.08	3.7200	3.7200	-0.7400	26.16	0.21	-1.500			
0.2999	19194.68	3.7170	3.7172	-0.7418	26.17	0.22	-1.500			
0.3021	19337.25	3.7140	3.7138	-0.7410	26.18	0.23	-1.500			
0.3044	19479.46	3.7110	3.7110	-0.7475	26.18	0.23	-1.500			
0.3066	19621.45	3.7080	3.7081	-0.7549	26.19	0.24	-1.500			
0.3089	19768.57	3.7050	3.7050	-0.7672	26.19	0.24	-1.500			
0.3112	19916.27	3.7020	3.7019	-0.7790	26.20	0.25	-1.500			
0.3135	20065.79	3.6990	3.6991	-0.7843	26.21	0.26	-1.500			
0.3159	20219.26	3.6960	3.6960	-0.7923	26.21	0.26	-1.500			
0.3183	20371.59	3.6930	3.6931	-0.8007	26.22	0.27	-1.500			
0.3207	20525.69	3.6900	3.6900	-0.8031	26.23	0.28	-1.500			
0.3231	20680.74	3.6870	3.6869	-0.8068	26.23	0.28	-1.500			
0.3256	20835.66	3.6840	3.6840	-0.8142	26.24	0.29	-1.500			
0.3280	20991.40	3.6810	3.6810	-0.8226	26.24	0.29	-1.500			
0.3305	21150.77	3.6780	3.6780	-0.8343	26.25	0.30	-1.500			
0.3330	21311.41	3.6750	3.6750	-0.8442	26.25	0.30	-1.500			
0.3355	21472.96	3.6720	3.6720	-0.8528	26.26	0.31	-1.500			
0.3381	21639.88	3.6690	3.6690	-0.8639	26.26	0.31	-1.500			
0.3407	21807.56	3.6660	3.6660	-0.8737	26.27	0.32	-1.500			
0.3434	21976.06	3.6630	3.6630	-0.8777	26.27	0.32	-1.500			
0.3460	22145.18	3.6600	3.6600	-0.8816	26.27	0.32	-1.500			
0.3487	22313.97	3.6570	3.6570	-0.8932	26.28	0.33	-1.500			
0.3513	22485.04	3.6540	3.6540	-0.9015	26.28	0.33	-1.500			
0.3541	22659.80	3.6510	3.6509	-0.9118	26.29	0.34	-1.500			
0.3568	22836.63	3.6480	3.6480	-0.9234	26.29	0.34	-1.500			
0.3596	23014.30	3.6450	3.6451	-0.9335	26.30	0.35	-1.500			
0.3624	23195.79	3.6420	3.6421	-0.9435	26.30	0.35	-1.500			
0.3653	23378.29	3.6390	3.6389	-0.9533	26.30	0.35	-1.500			
0.3682	23561.61	3.6360	3.6360	-0.9567	26.31	0.36	-1.500			
0.3710	23745.67	3.6330	3.6330	-0.9668	26.31	0.36	-1.500			
0.3739	23930.65	3.6300	3.6301	-0.9824	26.32	0.37	-1.500			
0.3769	24120.24	3.6270	3.6270	-0.9955	26.32	0.37	-1.500			
0.3799	24313.21	3.6240	3.6239	-1.0085	26.33	0.38	-1.500			
0.3830	24509.12	3.6210	3.6210	-1.0232	26.33	0.38	-1.500			
0.3860	24707.13	3.6180	3.6181	-1.0360	26.34	0.39	-1.500			
0.3892	24908.52	3.6150	3.6151	-1.0507	26.34	0.39	-1.500			
0.3924	25111.04	3.6120	3.6119	-1.0596	26.35	0.40	-1.500			
0.3956	25315.37	3.6090	3.6091	-1.0687	26.35	0.40	-1.500			
0.3988	25520.85	3.6060	3.6060	-1.0835	26.36	0.41	-1.500			
0.4020	25729.99	3.6030	3.6030	-1.0963	26.36	0.41	-1.500			
0.4054	25942.88	3.6000	3.6000	-1.1062	26.37	0.42	-1.500			
0.4087	26155.69	3.5970	3.5970	-1.1180	26.37	0.42	-1.500			
0.4120	26369.24	3.5940	3.5941	-1.1443	26.38	0.43	-1.500			
0.4155	26593.15	3.5910	3.5910	-1.1588	26.38	0.43	-1.500			
0.4190	26818.17	3.5880	3.5879	-1.1738	26.39	0.44	-1.500			
0.4226	27044.62	3.5850	3.5851	-1.1877	26.40	0.45	-1.500			
0.4262	27274.82	3.5820	3.5821	-1.2064	26.40	0.45	-1.500			
0.4298	27507.52	3.5790	3.5789	-1.2248	26.41	0.46	-1.500			
0.4335	27743.90	3.5760	3.5760	-1.2341	26.41	0.46	-1.500			
0.4372	27979.37	3.5730	3.5730	-1.2509	26.42	0.47	-1.500			
0.4410	28224.79	3.5700	3.5700	-1.2764	26.43	0.48	-1.500			
0.4449	28472.63	3.5670	3.5670	-1.2931	26.43	0.48	-1.500			
0.4488	28721.50	3.5640	3.5639	-1.3097	26.44	0.49	-1.500			
0.4527	28973.45	3.5610	3.5610	-1.3267	26.44	0.49	-1.500			
0.4567	29231.27	3.5580	3.5580	-1.3427	26.45	0.50	-1.500			
0.4608	29490.55	3.5550	3.5550	-1.3694	26.45	0.50	-1.500			
0.4649	29753.90	3.5520	3.5520	-1.3855	26.45	0.50	-1.500			
0.4691	30023.05	3.5490	3.5490	-1.4090	26.46	0.51	-1.500			
0.4734	30296.10	3.5460	3.5460	-1.4246	26.46	0.51	-1.500			
0.4777	30571.30	3.5430	3.5430	-1.4418	26.46	0.51	-1.500			
0.4820	30850.29	3.5400	3.5400	-1.4605	26.47	0.52	-1.500			
0.4865	31134.33	3.5370	3.5369	-1.4790	26.48	0.53	-1.500			
0.4909	31417.84	3.5340	3.5340	-1.4866	26.49	0.54	-1.500			
0.4954	31704.50	3.5310	3.5310	-1.5071	26.49	0.54	-1.500			
0.4999	31995.35	3.5280	3.5281	-1.5254	26.50	0.55	-1.500			
0.5045	32290.03	3.5250	3.5249	-1.5400	26.51	0.56	-1.500	0.375	0.555	
0.5092	32586.36	3.5220	3.5220	-1.5613	26.52	0.57	-1.500			
0.5139	32888.93	3.5190	3.5191	-1.5776	26.53	0.58	-1.500			
0.5187	33197.60	3.5160	3.5160	-1.5968	26.54	0.59	-1.500			
0.5235	33504.94	3.5130	3.5130	-1.6015	26.55	0.60	-1.500			
0.5283	33813.43	3.5100	3.5100	-1.6069	26.56	0.61	-1.500			
0.5332	34122.60	3.5070	3.5070	-1.6193	26.57	0.62	-1.500			
0.5381	34435.93	3.5040	3.5040	-1.6206	26.58	0.63	-1.500			
0.5429	34746.46	3.5010	3.5010	-1.6172	26.59	0.64	-1.500			
0.5478	35060.02	3.4980	3.4980	-1.6243	26.60	0.65	-1.500			
0.5527	35369.92	3.4950	3.4949	-1.6272	26.61	0.66	-1.500			
0.5575	35680.31	3.4920	3.4919	-1.6347	26.62	0.67	-1.500			
0.5624	35996.45	3.4890	3.4890	-1.6315	26.63	0.68	-1.500			
0.5673	36307.11	3.4860	3.4860	-1.6301	26.64	0.69	-1.500			
0.5723	36629.34	3.4830	3.4830	-1.6355	26.65	0.70	-1.500			
0.5772	36941.90	3.4800	3.4800	-1.6229	26.67	0.72	-1.500			
0.5821	37251.48	3.4770	3.4770	-1.6124	26.68	0.73	-1.500			
0.5868	37558.10	3.4740	3.4740	-1.6008	26.69	0.74	-1.500			
0.5916	37865.06	3.4710	3.4710	-1.5875	26.70	0.75	-1.500			
0.5964	38172.77	3.4680	3.4680	-1.5745	26.71	0.76	-1.500			
0.6011	38473.44	3.4650	3.4650	-1.5564	26.72	0.77	-1.500			
0.6058	38772.47	3.4620	3.4620	-1.5365	26.74	0.79	-1.500			
0.6104	39063.00	3.4590	3.4590	-1.5155	26.75	0.80	-1.500			
0.6149	39350.50	3.4560	3.4560	-1.4992	26.77	0.82	-1.500			
0.6193	39637.62	3.4530	3.4530	-1.4875	26.78	0.83	-1.500			
0.6238	39921.87	3.4500	3.4499	-1.4712	26.80	0.85	-1.500			
0.6282	40204.79	3.4470	3.4470	-1.4547	26.81	0.86	-1.500			
0.6325	40481.52	3.4440	3.4441	-1.4334	26.83	0.88	-1.500			
0.6368	40757.27	3.4410	3.4410	-1.4214	26.85	0.90	-1.500			
0.6410	41027.04	3.4380	3.4379	-1.3960	26.87	0.92	-1.500			
0.6452	41294.02	3.4350	3.4350	-1.3761	26.88	0.93	-1.500			
0.6493	41555.46	3.4320	3.4323	-1.3621	26.90	0.95	-1.500			
0.6534	41816.87	3.4290	3.4289	-1.3445	26.91	0.96	-1.500			
0.6574	42072.77	3.4260	3.4259	-1.3271	26.93	0.98	-1.500			
0.6613	42322.89	3.4230	3.4230	-1.3082	26.95	1.00	-1.500			
0.6653	42577.39	3.4200	3.4200	-1.2874	26.96	1.01	-1.500			
0.6691	42823.06	3.4170	3.4170	-1.2666	26.98	1.03	-1.500			
0.6729	43063.70	3.4140	3.4141	-1.2391	26.99	1.04	-1.500			
0.6765	43297.37	3.4110	3.4110	-1.2095	27.02	1.07	-1.500			
0.6801	43528.34	3.4080	3.4079	-1.1863	27.03	1.08	-1.500			
0.6836	43752.33	3.4050	3.4050	-1.1545	27.04	1.09	-1.500			
0.6871	43971.70	3.4020	3.4020	-1.1302	27.06	1.11	-1.500			
0.6904	44187.34	3.3990	3.3990	-1.1069	27.07	1.12	-1.500			
0.6937	44396.00	3.3960	3.3960	-1.0719	27.08	1.13	-1.500			
0.6969	44600.04	3.3930	3.3929	-1.0460	27.10	1.15	-1.500			
0.7000	44798.78	3.3900	3.3903	-1.0133	27.11	1.16	-1.500			
0.7030	44990.29	3.3870	3.3870	-0.9827	27.12	1.17	-1.500			
0.7059	45175.88	3.3840	3.3840	-0.9559	27.14	1.19	-1.500			
0.7087	45355.51	3.3810	3.3810	-0.9250	27.15	1.20	-1.500			
0.7114	45528.26	3.3780	3.3780	-0.8988	27.16	1.21	-1.500			
0.7141	45699.79	3.3750	3.3749	-0.8749	27.18	1.23	-1.500			
0.7166	45864.92	3.3720	3.3721	-0.8520	27.19	1.24	-1.500			
0.7192	46026.68	3.3690	3.3690	-0.8336	27.20	1.25	-1.500			
0.7216	46185.10	3.3660	3.3661	-0.8084	27.21	1.26	-1.500			
0.7240	46338.36	3.3630	3.3629	-0.7859	27.22	1.27	-1.500			
0.7264	46486.52	3.3600	3.3601	-0.7645	27.23	1.28	-1.500			
0.7286	46630.76	3.3570	3.3570	-0.7410	27.24	1.29	-1.500			
0.7308	46771.87	3.3540	3.3540	-0.7213	27.25	1.30	-1.500			
0.7329	46906.41	3.3510	3.3510	-0.6985	27.25	1.30	-1.500			
0.7350	47038.27	3.3480	3.3480	-0.6792	27.26	1.31	-1.500			
0.7370	47168.04	3.3450	3.3450	-0.6613	27.27	1.32	-1.500			
0.7389	47292.30	3.3420	3.3420	-0.6412	27.28	1.33	-1.500			
0.7408	47413.61	3.3390	3.3390	-0.6226	27.29	1.34	-1.500			
0.7427	47531.72	3.3360	3.3361	-0.6060	27.30	1.35	-1.500			
0.7445	47645.62	3.3330	3.3330	-0.5896	27.31	1.36	-1.500			
0.7462	47756.98	3.3300	3.3300	-0.5742	27.31	1.36	-1.500			
0.7479	47865.26	3.3270	3.3270	-0.5596	27.32	1.37	-1.500			
0.7496	47971.40	3.3240	3.3240	-0.5457	27.32	1.37	-1.500			
0.7512	48074.85	3.3210	3.3210	-0.5339	27.33	1.38	-1.500			
0.7528	48176.60	3.3180	3.3180	-0.5204	27.34	1.39	-1.500			
0.7543	48274.61	3.3150	3.3150	-0.5083	27.34	1.39	-1.500			
0.7558	48370.92	3.3120	3.3120	-0.4965	27.35	1.40	-1.500			
0.7573	48465.62	3.3090	3.3090	-0.4845	27.36	1.41	-1.500			
0.7587	48557.61	3.3060	3.3059	-0.4722	27.37	1.42	-1.500			
0.7601	48647.16	3.3030	3.3030	-0.4608	27.38	1.43	-1.500			
0.7615	48734.07	3.3000	3.3000	-0.4485	27.39	1.44	-1.500			
0.7628	48819.48	3.2970	3.2969	-0.4395	27.39	1.44	-1.500			
0.7641	48902.10	3.2940	3.2941	-0.4283	27.40	1.45	-1.500			
0.7654	48982.98	3.2910	3.2909	-0.4195	27.41	1.46	-1.500			
0.7666	49063.26	3.2880	3.2880	-0.4089	27.42	1.47	-1.500			
0.7678	49140.74	3.2850	3.2850	-0.3985	27.42	1.47	-1.500			
0.7690	49215.88	3.2820	3.2820	-0.3887	27.43	1.48	-1.500			
0.7702	49289.73	3.2790	3.2790	-0.3795	27.43	1.48	-1.500			
0.7713	49361.35	3.2760	3.2759	-0.3696	27.44	1.49	-1.500			
0.7724	49431.35	3.2730	3.2731	-0.3616	27.44	1.49	-1.500			
0.7734	49499.83	3.2700	3.2700	-0.3546	27.44	1.49	-1.500			
0.7745	49567.88	3.2670	3.2669	-0.3477	27.45	1.50	-1.500			
0.7755	49633.63	3.2640	3.2639	-0.3386	27.45	1.50	-1.500			
0.7765	49697.04	3.2610	3.2611	-0.3330	27.46	1.51	-1.500			
0.7775	49760.66	3.2580	3.2579	-0.3265	27.47	1.52	-1.500			
0.7785	49822.95	3.2550	3.2549	-0.3188	27.48	1.53	-1.500			
0.7794	49883.24	3.2520	3.2521	-0.3124	27.48	1.53	-1.500			
0.7804	49942.43	3.2490	3.2491	-0.3054	27.49	1.54	-1.500			
0.7813	50000.57	3.2460	3.2459	-0.2999	27.50	1.55	-1.500			
0.7821	50057.21	3.2430	3.2430	-0.2931	27.50	1.55	-1.500			
0.7830	50112.48	3.2400	3.2400	-0.2864	27.51	1.56	-1.500			
0.7839	50167.08	3.2370	3.2370	-0.2840	27.52	1.57	-1.500			
0.7847	50221.28	3.2340	3.2340	-0.2793	27.52	1.57	-1.500			
0.7855	50274.03	3.2310	3.2309	-0.2738	27.53	1.58	-1.500			
0.7864	50326.48	3.2280	3.2280	-0.2703	27.54	1.59	-1.500			
0.7872	50377.97	3.2250	3.2250	-0.2657	27.54	1.59	-1.500			
0.7880	50428.99	3.2220	3.2220	-0.2609	27.55	1.60	-1.500			
0.7887	50478.59	3.2190	3.2190	-0.2561	27.55	1.60	-1.500			
0.7895	50526.48	3.2160	3.2160	-0.2518	27.56	1.61	-1.500			
0.7902	50574.59	3.2130	3.2130	-0.2484	27.56	1.61	-1.500			
0.7910	50621.65	3.2100	3.2100	-0.2456	27.57	1.62	-1.500			
0.7917	50668.74	3.2070	3.2071	-0.2419	27.57	1.62	-1.500			
0.7924	50714.94	3.2040	3.2040	-0.2382	27.58	1.63	-1.500			
0.7931	50760.34	3.2010	3.2011	-0.2353	27.58	1.63	-1.500			
0.7938	50805.19	3.1980	3.1981	-0.2317	27.59	1.64	-1.500			
0.7945	50849.23	3.1950	3.1950	-0.2283	27.59	1.64	-1.500			
0.7952	50892.98	3.1920	3.1919	-0.2248	27.60	1.65	-1.500			
0.7959	50935.54	3.1890	3.1891	-0.2211	27.60	1.65	-1.500			
0.7965	50977.73	3.1860	3.1860	-0.2183	27.61	1.66	-1.500			
0.7972	51019.63	3.1830	3.1830	-0.2160	27.61	1.66	-1.500			
0.7978	51060.64	3.1800	3.1799	-0.2134	27.62	1.67	-1.500			
0.7985	51101.08	3.1770	3.1770	-0.2101	27.62	1.67	-1.500			
0.7991	51141.06	3.1740	3.1740	-0.2088	27.62	1.67	-1.500			
0.7997	51180.95	3.1710	3.1711	-0.2073	27.63	1.68	-1.500			
0.8003	51220.83	3.1680	3.1680	-0.2051	27.63	1.68	-1.500			
0.8009	51260.05	3.1650	3.1649	-0.2025	27.64	1.69	-1.500			
0.8015	51298.69	3.1620	3.1620	-0.2002	27.65	1.70	-1.500			
0.8021	51336.96	3.1590	3.1591	-0.1978	27.65	1.70	-1.500			
0.8027	51374.70	3.1560	3.1559	-0.1954	27.66	1.71	-1.500			
0.8033	51411.93	3.1530	3.1530	-0.1937	27.67	1.72	-1.500			
0.8039	51448.55	3.1500	3.1500	-0.1908	27.67	1.72	-1.500			
0.8045	51485.06	3.1470	3.1470	-0.1895	27.68	1.73	-1.500			
0.8050	51521.44	3.1440	3.1440	-0.1879	27.68	1.73	-1.500			
0.8056	51557.46	3.1410	3.1410	-0.1860	27.69	1.74	-1.500			
0.8061	51593.00	3.1380	3.1381	-0.1841	27.69	1.74	-1.500			
0.8067	51628.14	3.1350	3.1350	-0.1820	27.70	1.75	-1.500			
0.8072	51662.86	3.1320	3.1319	-0.1807	27.71	1.76	-1.500			
0.8078	51697.23	3.1290	3.1290	-0.1788	27.71	1.76	-1.500			
0.8083	51731.35	3.1260	3.1259	-0.1776	27.72	1.77	-1.500			
0.8088	51765.33	3.1230	3.1230	-0.1764	27.72	1.77	-1.500			
0.8094	51799.06	3.1200	3.1200	-0.1747	27.73	1.78	-1.500			
0.8099	51832.70	3.1170	3.1170	-0.1732	27.73	1.78	-1.500			
0.8104	51865.66	3.1140	3.1140	-0.1719	27.74	1.79	-1.500			
0.8109	51898.51	3.1110	3.1111	-0.1704	27.75	1.80	-1.500			
0.8114	51930.89	3.1080	3.1080	-0.1691	27.75	1.80	-1.500			
0.8119	51963.23	3.1050	3.1050	-0.1680	27.76	1.81	-1.500			
0.8124	51995.52	3.1020	3.1020	-0.1663	27.76	1.81	-1.500			
0.8129	52027.32	3.0990	3.0989	-0.1650	27.77	1.82	-1.500			
0.8134	52059.04	3.0960	3.0960	-0.1638	27.77	1.82	-1.500			
0.8139	52090.35	3.0930	3.0930	-0.1628	27.78	1.83	-1.500			
0.8144	52121.20	3.0900	3.0899	-0.1610	27.79	1.84	-1.500			
0.8149	52152.02	3.0870	3.0871	-0.1600	27.79	1.84	-1.500			
0.8154	52182.44	3.0840	3.0840	-0.1593	27.80	1.85	-1.500			
0.8158	52212.95	3.0810	3.0809	-0.1586	27.80	1.85	-1.500			
0.8163	52243.55	3.0780	3.0780	-0.1585	27.81	1.86	-1.500			
0.8168	52274.06	3.0750	3.0750	-0.1563	27.81	1.86	-1.500			
0.8172	52303.95	3.0720	3.0720	-0.1549	27.82	1.87	-1.500			
0.8177	52333.45	3.0690	3.0691	-0.1537	27.82	1.87	-1.500			
0.8182	52362.64	3.0660	3.0660	-0.1528	27.83	1.88	-1.500			
0.8186	52391.76	3.0630	3.0629	-0.1517	27.83	1.88	-1.500			
0.8191	52420.57	3.0600	3.0600	-0.1505	27.84	1.89	-1.500			
0.8195	52449.54	3.0570	3.0570	-0.1496	27.84	1.89	-1.500			
0.8200	52478.54	3.0540	3.0540	-0.1495	27.85	1.90	-1.500			
0.8204	52507.10	3.0510	3.0511	-0.1480	27.86	1.91	-1.500			
0.8209	52535.18	3.0480	3.0480	-0.1474	27.86	1.91	-1.500			
0.8213	52563.40	3.0450	3.0450	-0.1462	27.87	1.92	-1.500			
0.8217	52591.40	3.0420	3.0419	-0.1449	27.87	1.92	-1.500			
0.8222	52619.14	3.0390	3.0390	-0.1441	27.88	1.93	-1.500			
0.8226	52646.89	3.0360	3.0361	-0.1431	27.88	1.93	-1.500			
0.8230	52674.23	3.0330	3.0331	-0.1424	27.89	1.94	-1.500			
0.8235	52701.43	3.0300	3.0300	-0.1412	27.89	1.94	-1.500			
0.8239	52728.39	3.0270	3.0269	-0.1405	27.90	1.95	-1.500			
0.8243	52755.12	3.0240	3.0240	-0.1390	27.90	1.95	-1.500			
0.8247	52781.94	3.0210	3.0210	-0.1386	27.91	1.96	-1.500			
0.8251	52808.55	3.0180	3.0179	-0.1378	27.91	1.96	-1.500			
0.8255	52834.94	3.0150	3.0150	-0.1364	27.92	1.97	-1.500			
0.8260	52861.11	3.0120	3.0120	-0.1351	27.92	1.97	-1.500			
0.8264	52886.83	3.0090	3.0090	-0.1336	27.93	1.98	-1.500			
0.8268	52912.35	3.0060	3.0060	-0.1323	27.93	1.98	-1.500			
0.8272	52937.64	3.0030	3.0030	-0.1316	27.94	1.99	-1.501			
