Ah_balance (normalized)	Ah_balance (mAh)	Voltage - fit (V)	Voltage -  interpolate (V)	dQ/dV (1/V)	Temperature (°C)	Temperature - diff (°C)	Current (C)	R_DC 0ms (mOhm)	R_DC 50ms (mOhm)	R_DC 50 ms PEC (mOhm)
0.2158	13810.35	3.9110	3.9108	-0.1123	25.98	0.00	-1.500			
0.2162	13834.94	3.9080	3.9079	-0.1449	25.98	0.00	-1.500			
0.2167	13866.68	3.9050	3.9050	-0.1778	25.98	0.00	-1.500			
0.2172	13903.99	3.9020	3.9020	-0.2085	25.98	0.00	-1.500			
0.2179	13947.39	3.8990	3.8990	-0.2365	25.98	0.00	-1.500			
0.2187	13996.20	3.8960	3.8961	-0.2662	25.98	0.00	-1.500			
0.2195	14050.18	3.8930	3.8930	-0.2926	25.98	0.00	-1.500			
0.2205	14108.83	3.8900	3.8900	-0.3204	25.98	0.00	-1.500			
0.2215	14172.93	3.8870	3.8870	-0.3471	25.98	0.00	-1.500			
0.2225	14241.56	3.8840	3.8841	-0.3756	25.98	0.00	-1.500			
0.2237	14316.55	3.8810	3.8809	-0.4037	25.98	0.00	-1.500			
0.2250	14396.88	3.8780	3.8780	-0.4325	25.98	0.00	-1.500			
0.2263	14482.22	3.8750	3.8750	-0.4606	25.98	0.00	-1.500			
0.2277	14574.44	3.8720	3.8721	-0.4860	25.98	-0.00	-1.500			
0.2292	14670.94	3.8690	3.8690	-0.5104	25.98	-0.00	-1.500			
0.2308	14771.54	3.8660	3.8661	-0.5340	25.98	-0.00	-1.500			
0.2324	14876.04	3.8630	3.8630	-0.5579	25.98	-0.00	-1.500			
0.2342	14985.68	3.8600	3.8599	-0.5784	25.98	-0.00	-1.500			
0.2359	15098.69	3.8570	3.8569	-0.5985	25.98	-0.00	-1.500			
0.2378	15216.10	3.8540	3.8540	-0.6158	25.98	-0.00	-1.500			
0.2396	15336.84	3.8510	3.8510	-0.6332	25.98	-0.00	-1.500			
0.2416	15460.13	3.8480	3.8480	-0.6504	25.97	-0.01	-1.500			
0.2435	15586.41	3.8450	3.8450	-0.6647	25.97	-0.01	-1.500			
0.2456	15715.78	3.8420	3.8420	-0.6755	25.97	-0.01	-1.500			
0.2476	15848.11	3.8390	3.8390	-0.6858	25.97	-0.01	-1.500			
0.2497	15981.35	3.8360	3.8360	-0.6947	25.97	-0.01	-1.500			
0.2518	16115.90	3.8330	3.8330	-0.7014	25.97	-0.01	-1.500			
0.2539	16250.60	3.8300	3.8299	-0.7067	25.97	-0.01	-1.500			
0.2560	16386.40	3.8270	3.8269	-0.7109	25.97	-0.01	-1.500			
0.2582	16523.79	3.8240	3.8240	-0.7137	25.98	-0.00	-1.500			
0.2603	16661.08	3.8210	3.8210	-0.7194	25.98	-0.00	-1.500			
0.2625	16801.14	3.8180	3.8180	-0.7236	25.98	0.00	-1.500			
0.2647	16938.96	3.8150	3.8150	-0.7272	25.98	0.00	-1.500			
0.2669	17078.88	3.8120	3.8120	-0.7308	25.99	0.01	-1.500			
0.2691	17219.59	3.8090	3.8090	-0.7354	25.99	0.01	-1.500			
0.2713	17362.54	3.8060	3.8059	-0.7393	25.99	0.01	-1.500			
0.2735	17504.92	3.8030	3.8031	-0.7434	26.00	0.02	-1.500			
0.2757	17647.25	3.8000	3.7999	-0.7439	26.00	0.02	-1.500			
0.2780	17792.06	3.7970	3.7970	-0.7411	26.00	0.02	-1.500			
0.2802	17933.21	3.7940	3.7940	-0.7360	26.00	0.02	-1.500			
0.2824	18074.10	3.7910	3.7911	-0.7357	26.01	0.03	-1.500			
0.2846	18215.71	3.7880	3.7880	-0.7365	26.01	0.03	-1.500			
0.2868	18355.09	3.7850	3.7849	-0.7388	26.01	0.03	-1.500			
0.2890	18496.13	3.7820	3.7819	-0.7419	26.02	0.04	-1.500			
0.2912	18639.25	3.7790	3.7790	-0.7475	26.02	0.04	-1.500			
0.2935	18784.90	3.7760	3.7760	-0.7519	26.03	0.05	-1.500			
0.2958	18931.29	3.7730	3.7730	-0.7517	26.03	0.05	-1.500			
0.2981	19075.48	3.7700	3.7701	-0.7516	26.03	0.05	-1.500			
0.3003	19219.70	3.7670	3.7670	-0.7473	26.04	0.06	-1.500			
0.3025	19361.99	3.7640	3.7640	-0.7447	26.04	0.06	-1.500			
0.3048	19504.15	3.7610	3.7610	-0.7424	26.05	0.07	-1.500			
0.3070	19646.26	3.7580	3.7581	-0.7401	26.05	0.07	-1.500			
0.3092	19788.57	3.7550	3.7550	-0.7418	26.06	0.08	-1.500			
0.3114	19931.39	3.7520	3.7520	-0.7425	26.07	0.09	-1.500			
0.3136	20073.48	3.7490	3.7490	-0.7403	26.07	0.09	-1.500			
0.3159	20216.04	3.7460	3.7460	-0.7423	26.08	0.10	-1.500			
0.3181	20357.74	3.7430	3.7431	-0.7420	26.08	0.10	-1.500			
0.3203	20499.59	3.7400	3.7400	-0.7458	26.09	0.11	-1.500			
0.3225	20642.83	3.7370	3.7370	-0.7512	26.10	0.12	-1.500			
0.3248	20787.51	3.7340	3.7340	-0.7516	26.10	0.12	-1.500			
0.3271	20932.94	3.7310	3.7310	-0.7549	26.11	0.13	-1.500			
0.3294	21079.33	3.7280	3.7280	-0.7593	26.11	0.13	-1.500			
0.3316	21224.94	3.7250	3.7251	-0.7599	26.12	0.14	-1.500			
0.3339	21369.91	3.7220	3.7219	-0.7638	26.12	0.14	-1.500			
0.3362	21515.33	3.7190	3.7190	-0.7678	26.13	0.15	-1.500			
0.3385	21662.84	3.7160	3.7160	-0.7729	26.13	0.15	-1.500			
0.3408	21812.78	3.7130	3.7130	-0.7811	26.14	0.16	-1.500			
0.3432	21963.77	3.7100	3.7101	-0.7896	26.14	0.16	-1.500			
0.3456	22116.20	3.7070	3.7070	-0.7948	26.15	0.17	-1.500			
0.3480	22269.95	3.7040	3.7040	-0.8012	26.15	0.17	-1.500			
0.3504	22423.87	3.7010	3.7010	-0.8075	26.16	0.18	-1.500			
0.3528	22579.08	3.6980	3.6980	-0.8144	26.16	0.18	-1.500			
0.3552	22735.89	3.6950	3.6950	-0.8247	26.16	0.18	-1.500			
0.3577	22894.81	3.6920	3.6920	-0.8329	26.17	0.19	-1.500			
0.3602	23054.69	3.6890	3.6891	-0.8444	26.17	0.19	-1.500			
0.3628	23217.76	3.6860	3.6860	-0.8587	26.18	0.20	-1.500			
0.3654	23384.09	3.6830	3.6830	-0.8697	26.18	0.20	-1.500			
0.3680	23551.61	3.6800	3.6800	-0.8843	26.18	0.20	-1.500			
0.3707	23723.64	3.6770	3.6770	-0.8970	26.19	0.21	-1.500			
0.3734	23897.52	3.6740	3.6741	-0.9105	26.19	0.21	-1.500			
0.3762	24073.75	3.6710	3.6710	-0.9262	26.20	0.22	-1.500			
0.3789	24251.74	3.6680	3.6680	-0.9387	26.20	0.22	-1.500			
0.3818	24433.05	3.6650	3.6650	-0.9580	26.20	0.22	-1.500			
0.3847	24618.34	3.6620	3.6620	-0.9754	26.21	0.23	-1.500			
0.3876	24807.63	3.6590	3.6590	-0.9954	26.21	0.23	-1.500			
0.3906	25000.17	3.6560	3.6560	-1.0185	26.21	0.23	-1.500			
0.3937	25198.80	3.6530	3.6530	-1.0334	26.21	0.23	-1.500			
0.3969	25399.23	3.6500	3.6501	-1.0506	26.22	0.24	-1.500			
0.4000	25601.69	3.6470	3.6470	-1.0717	26.22	0.24	-1.500			
0.4033	25809.37	3.6440	3.6440	-1.0904	26.22	0.24	-1.500			
0.4066	26020.32	3.6410	3.6410	-1.1111	26.22	0.24	-1.500			
0.4099	26234.92	3.6380	3.6380	-1.1321	26.23	0.25	-1.500			
0.4133	26454.00	3.6350	3.6351	-1.1568	26.23	0.25	-1.500			
0.4169	26679.86	3.6320	3.6319	-1.1831	26.23	0.25	-1.500			
0.4204	26907.39	3.6290	3.6291	-1.2063	26.23	0.25	-1.500			
0.4241	27139.81	3.6260	3.6260	-1.2311	26.24	0.26	-1.500			
0.4278	27380.12	3.6230	3.6229	-1.2566	26.24	0.26	-1.500			
0.4316	27624.74	3.6200	3.6200	-1.2812	26.24	0.26	-1.500			
0.4355	27872.95	3.6170	3.6171	-1.3053	26.24	0.26	-1.500			
0.4395	28126.44	3.6140	3.6140	-1.3329	26.24	0.26	-1.500			
0.4435	28384.88	3.6110	3.6111	-1.3539	26.24	0.26	-1.500			
0.4476	28647.88	3.6080	3.6079	-1.3766	26.24	0.26	-1.500			
0.4518	28914.31	3.6050	3.6050	-1.4010	26.24	0.26	-1.500			
0.4560	29185.47	3.6020	3.6020	-1.4287	26.24	0.26	-1.500			
0.4603	29461.03	3.5990	3.5989	-1.4487	26.24	0.26	-1.500			
0.4647	29742.25	3.5960	3.5960	-1.4766	26.24	0.26	-1.500			
0.4692	30026.74	3.5930	3.5929	-1.4982	26.24	0.26	-1.500			
0.4738	30320.26	3.5900	3.5900	-1.5245	26.24	0.26	-1.500			
0.4784	30614.86	3.5870	3.5871	-1.5449	26.24	0.26	-1.500			
0.4830	30911.89	3.5840	3.5839	-1.5678	26.24	0.26	-1.500			
0.4877	31215.41	3.5810	3.5811	-1.5900	26.24	0.26	-1.500			
0.4925	31521.36	3.5780	3.5780	-1.6119	26.24	0.26	-1.500			
0.4974	31836.70	3.5750	3.5750	-1.6452	26.24	0.26	-1.500			
0.5024	32153.02	3.5720	3.5720	-1.6664	26.24	0.26	-1.500			
0.5074	32473.76	3.5690	3.5689	-1.6965	26.24	0.26	-1.500			
0.5125	32801.96	3.5660	3.5660	-1.7293	26.24	0.26	-1.500			
0.5178	33138.17	3.5630	3.5629	-1.7444	26.24	0.26	-1.500			
0.5231	33479.48	3.5600	3.5600	-1.7682	26.24	0.26	-1.500			
0.5285	33820.99	3.5570	3.5571	-1.7677	26.24	0.26	-1.500			
0.5338	34160.86	3.5540	3.5539	-1.7791	26.24	0.26	-1.500			
0.5391	34500.39	3.5510	3.5511	-1.7812	26.24	0.26	-1.500			
0.5444	34838.89	3.5480	3.5479	-1.7912	26.24	0.26	-1.500			
0.5498	35185.23	3.5450	3.5450	-1.8152	26.24	0.26	-1.500			
0.5553	35536.40	3.5420	3.5420	-1.8260	26.24	0.26	-1.500			
0.5608	35891.14	3.5390	3.5390	-1.8433	26.25	0.27	-1.500	0.382	0.512	
0.5664	36249.32	3.5360	3.5360	-1.8401	26.25	0.27	-1.500			
0.5719	36601.26	3.5330	3.5331	-1.8355	26.26	0.28	-1.500			
0.5774	36954.26	3.5300	3.5300	-1.8390	26.26	0.28	-1.500			
0.5828	37301.80	3.5270	3.5270	-1.8386	26.26	0.28	-1.500			
0.5885	37661.01	3.5240	3.5240	-1.8385	26.27	0.29	-1.500			
0.5940	38017.98	3.5210	3.5210	-1.8356	26.27	0.29	-1.500			
0.5995	38370.73	3.5180	3.5180	-1.8328	26.28	0.30	-1.500			
0.6050	38720.83	3.5150	3.5151	-1.8206	26.28	0.30	-1.500			
0.6104	39067.61	3.5120	3.5119	-1.8151	26.29	0.31	-1.500			
0.6158	39411.83	3.5090	3.5090	-1.8120	26.30	0.32	-1.500			
0.6212	39756.30	3.5060	3.5060	-1.8105	26.30	0.32	-1.500			
0.6268	40112.35	3.5030	3.5030	-1.8153	26.31	0.33	-1.500			
0.6322	40459.26	3.5000	3.5000	-1.8079	26.32	0.34	-1.500			
0.6376	40804.78	3.4970	3.4970	-1.7996	26.33	0.35	-1.500			
0.6430	41149.64	3.4940	3.4940	-1.7889	26.34	0.36	-1.500			
0.6483	41491.12	3.4910	3.4910	-1.7807	26.35	0.37	-1.500			
0.6537	41833.92	3.4880	3.4882	-1.7667	26.36	0.38	-1.500			
0.6589	42172.69	3.4850	3.4850	-1.7578	26.37	0.39	-1.500			
0.6642	42511.57	3.4820	3.4820	-1.7533	26.38	0.40	-1.500			
0.6695	42846.12	3.4790	3.4790	-1.7367	26.39	0.41	-1.500			
0.6747	43179.50	3.4760	3.4759	-1.7278	26.40	0.42	-1.500			
0.6799	43511.57	3.4730	3.4731	-1.7057	26.41	0.43	-1.500			
0.6850	43837.23	3.4700	3.4699	-1.6876	26.43	0.45	-1.500			
0.6900	44160.37	3.4670	3.4670	-1.6683	26.44	0.46	-1.500			
0.6949	44475.25	3.4640	3.4640	-1.6381	26.44	0.46	-1.500			
0.6999	44792.35	3.4610	3.4610	-1.6162	26.45	0.47	-1.500			
0.7047	45100.23	3.4580	3.4580	-1.5894	26.47	0.49	-1.500			
0.7094	45400.13	3.4550	3.4551	-1.5734	26.48	0.50	-1.500			
0.7141	45701.99	3.4520	3.4520	-1.5560	26.50	0.52	-1.500			
0.7187	45996.93	3.4490	3.4489	-1.5315	26.51	0.53	-1.500			
0.7233	46289.05	3.4460	3.4461	-1.5145	26.53	0.55	-1.500			
0.7278	46579.18	3.4430	3.4431	-1.4958	26.54	0.56	-1.500			
0.7323	46864.43	3.4400	3.4400	-1.4816	26.56	0.58	-1.500			
0.7366	47144.66	3.4370	3.4370	-1.4656	26.57	0.59	-1.500			
0.7410	47424.10	3.4340	3.4340	-1.4526	26.58	0.60	-1.500			
0.7454	47705.09	3.4310	3.4309	-1.4453	26.60	0.62	-1.500			
0.7497	47980.21	3.4280	3.4280	-1.4375	26.61	0.63	-1.500			
0.7540	48254.66	3.4250	3.4251	-1.4299	26.63	0.65	-1.500			
0.7583	48528.71	3.4220	3.4219	-1.4248	26.65	0.67	-1.500			
0.7625	48799.48	3.4190	3.4189	-1.4114	26.67	0.69	-1.500			
0.7668	49074.60	3.4160	3.4161	-1.3916	26.69	0.71	-1.500			
0.7710	49342.56	3.4130	3.4130	-1.3681	26.71	0.73	-1.500			
0.7751	49606.92	3.4100	3.4100	-1.3423	26.72	0.74	-1.500			
0.7791	49860.28	3.4070	3.4070	-1.2976	26.73	0.75	-1.500			
0.7829	50103.21	3.4040	3.4039	-1.2584	26.75	0.77	-1.500			
0.7866	50339.42	3.4010	3.4010	-1.2184	26.77	0.79	-1.500			
0.7902	50570.35	3.3980	3.3980	-1.1793	26.79	0.81	-1.500			
0.7937	50796.94	3.3950	3.3950	-1.1403	26.81	0.83	-1.500			
0.7971	51012.94	3.3920	3.3920	-1.0949	26.82	0.84	-1.500			
0.8003	51218.18	3.3890	3.3890	-1.0487	26.83	0.85	-1.500			
0.8034	51415.23	3.3860	3.3860	-1.0017	26.84	0.86	-1.500			
0.8063	51600.67	3.3830	3.3830	-0.9593	26.86	0.88	-1.500			
0.8091	51779.82	3.3800	3.3800	-0.9220	26.87	0.89	-1.500			
0.8118	51952.20	3.3770	3.3769	-0.8854	26.88	0.90	-1.500			
0.8144	52119.81	3.3740	3.3740	-0.8559	26.89	0.91	-1.500			
0.8169	52281.06	3.3710	3.3710	-0.8248	26.90	0.92	-1.500			
0.8193	52435.32	3.3680	3.3680	-0.7978	26.92	0.94	-1.500			
0.8217	52587.02	3.3650	3.3649	-0.7698	26.93	0.95	-1.500			
0.8239	52730.85	3.3620	3.3620	-0.7385	26.94	0.96	-1.500			
0.8261	52870.58	3.3590	3.3590	-0.7143	26.94	0.96	-1.500			
0.8282	53005.82	3.3560	3.3560	-0.6884	26.94	0.96	-1.500			
0.8302	53134.60	3.3530	3.3529	-0.6639	26.95	0.97	-1.500			
0.8322	53258.31	3.3500	3.3501	-0.6399	26.96	0.98	-1.500			
0.8340	53377.61	3.3470	3.3470	-0.6189	26.97	0.99	-1.500			
0.8359	53495.46	3.3440	3.3439	-0.6036	26.98	1.00	-1.500			
0.8377	53609.68	3.3410	3.3410	-0.5858	26.99	1.01	-1.500			
0.8394	53720.33	3.3380	3.3381	-0.5677	27.00	1.02	-1.500			
0.8411	53828.24	3.3350	3.3350	-0.5539	27.00	1.02	-1.500			
0.8427	53932.77	3.3320	3.3320	-0.5368	27.01	1.03	-1.500			
0.8443	54033.81	3.3290	3.3290	-0.5190	27.02	1.04	-1.500			
0.8458	54131.52	3.3260	3.3260	-0.5031	27.03	1.05	-1.500			
0.8473	54226.65	3.3230	3.3231	-0.4892	27.03	1.05	-1.500			
0.8487	54319.32	3.3200	3.3201	-0.4742	27.04	1.06	-1.500			
0.8502	54409.66	3.3170	3.3169	-0.4565	27.04	1.06	-1.500			
0.8515	54494.99	3.3140	3.3141	-0.4407	27.04	1.06	-1.500			
0.8528	54577.29	3.3110	3.3111	-0.4272	27.04	1.06	-1.500			
0.8540	54658.23	3.3080	3.3078	-0.4152	27.05	1.07	-1.500			
0.8553	54736.12	3.3050	3.3050	-0.4051	27.06	1.08	-1.500			
0.8564	54812.20	3.3020	3.3020	-0.3942	27.06	1.08	-1.500			
0.8576	54887.82	3.2990	3.2990	-0.3851	27.07	1.09	-1.500			
0.8588	54961.42	3.2960	3.2961	-0.3748	27.08	1.10	-1.500			
0.8599	55031.99	3.2930	3.2930	-0.3613	27.08	1.10	-1.500			
0.8609	55100.09	3.2900	3.2899	-0.3513	27.09	1.11	-1.500			
0.8620	55165.89	3.2870	3.2871	-0.3419	27.10	1.12	-1.500			
0.8630	55230.20	3.2840	3.2839	-0.3324	27.10	1.12	-1.500			
0.8640	55293.62	3.2810	3.2810	-0.3244	27.11	1.13	-1.500			
0.8649	55355.26	3.2780	3.2781	-0.3152	27.11	1.13	-1.500			
0.8659	55415.06	3.2750	3.2750	-0.3067	27.12	1.14	-1.500			
0.8668	55473.22	3.2720	3.2720	-0.2980	27.12	1.14	-1.500			
0.8676	55528.79	3.2690	3.2690	-0.2873	27.13	1.15	-1.500			
0.8685	55582.90	3.2660	3.2660	-0.2805	27.13	1.15	-1.500			
0.8693	55635.91	3.2630	3.2630	-0.2731	27.14	1.16	-1.500			
0.8701	55687.22	3.2600	3.2600	-0.2676	27.14	1.16	-1.500			
0.8709	55738.38	3.2570	3.2570	-0.2618	27.15	1.17	-1.500			
0.8717	55787.92	3.2540	3.2540	-0.2563	27.15	1.17	-1.500			
0.8724	55836.42	3.2510	3.2510	-0.2519	27.16	1.18	-1.500			
0.8732	55884.80	3.2480	3.2482	-0.2464	27.16	1.18	-1.500			
0.8739	55931.20	3.2450	3.2449	-0.2406	27.17	1.19	-1.500			
0.8746	55977.27	3.2420	3.2420	-0.2356	27.17	1.19	-1.500			
0.8753	56021.54	3.2390	3.2392	-0.2302	27.18	1.20	-1.500			
0.8760	56064.98	3.2360	3.2359	-0.2256	27.18	1.20	-1.500			
0.8767	56108.11	3.2330	3.2330	-0.2219	27.19	1.21	-1.500			
0.8773	56149.90	3.2300	3.2299	-0.2172	27.19	1.21	-1.500			
0.8780	56191.11	3.2270	3.2271	-0.2131	27.19	1.21	-1.500			
0.8786	56232.19	3.2240	3.2239	-0.2104	27.20	1.22	-1.500			
0.8792	56271.90	3.2210	3.2212	-0.2060	27.20	1.22	-1.500			
0.8799	56311.46	3.2180	3.2180	-0.2022	27.21	1.23	-1.500			
0.8805	56349.37	3.2150	3.2151	-0.1984	27.21	1.23	-1.500			
0.8810	56387.08	3.2120	3.2120	-0.1948	27.22	1.24	-1.500			
0.8816	56424.19	3.2090	3.2089	-0.1918	27.22	1.24	-1.500			
0.8822	56460.62	3.2060	3.2060	-0.1893	27.23	1.25	-1.500			
0.8828	56496.68	3.2030	3.2030	-0.1865	27.23	1.25	-1.500			
0.8833	56531.75	3.2000	3.2001	-0.1846	27.24	1.26	-1.500			
0.8839	56567.08	3.1970	3.1970	-0.1834	27.24	1.26	-1.500			
0.8844	56602.10	3.1940	3.1940	-0.1820	27.25	1.27	-1.500			
0.8850	56637.10	3.1910	3.1909	-0.1791	27.25	1.27	-1.500			
0.8855	56671.91	3.1880	3.1880	-0.1771	27.25	1.27	-1.500			
0.8860	56705.58	3.1850	3.1850	-0.1735	27.26	1.28	-1.500			
0.8865	56738.74	3.1820	3.1821	-0.1706	27.26	1.28	-1.500			
0.8870	56770.80	3.1790	3.1790	-0.1691	27.27	1.29	-1.500			
0.8875	56802.48	3.1760	3.1759	-0.1653	27.27	1.29	-1.500			
0.8880	56834.11	3.1730	3.1730	-0.1642	27.27	1.29	-1.500			
0.8885	56865.18	3.1700	3.1700	-0.1634	27.28	1.30	-1.500			
0.8890	56896.78	3.1670	3.1671	-0.1630	27.28	1.30	-1.500			
0.8895	56928.39	3.1640	3.1640	-0.1620	27.29	1.31	-1.500			
0.8900	56959.30	3.1610	3.1608	-0.1601	27.29	1.31	-1.500			
0.8905	56989.93	3.1580	3.1580	-0.1585	27.29	1.31	-1.500			
0.8909	57019.92	3.1550	3.1552	-0.1564	27.30	1.32	-1.500			
0.8914	57049.90	3.1520	3.1520	-0.1548	27.30	1.32	-1.500			
0.8919	57079.82	3.1490	3.1488	-0.1535	27.31	1.33	-1.500			
0.8923	57108.75	3.1460	3.1460	-0.1516	27.31	1.33	-1.500			
0.8928	57137.84	3.1430	3.1430	-0.1499	27.32	1.34	-1.500			
0.8932	57166.33	3.1400	3.1400	-0.1492	27.32	1.34	-1.500			
0.8937	57194.86	3.1370	3.1370	-0.1480	27.32	1.34	-1.500			
0.8941	57223.00	3.1340	3.1340	-0.1467	27.33	1.35	-1.500			
0.8946	57251.21	3.1310	3.1309	-0.1451	27.33	1.35	-1.500			
0.8950	57278.94	3.1280	3.1280	-0.1443	27.34	1.36	-1.500			
0.8954	57306.52	3.1250	3.1251	-0.1430	27.34	1.36	-1.500			
0.8958	57333.73	3.1220	3.1221	-0.1423	27.34	1.36	-1.500			
0.8963	57361.12	3.1190	3.1188	-0.1415	27.35	1.37	-1.500			
0.8967	57387.82	3.1160	3.1159	-0.1399	27.35	1.37	-1.500			
0.8971	57414.74	3.1130	3.1131	-0.1390	27.35	1.37	-1.500			
0.8975	57441.36	3.1100	3.1101	-0.1390	27.36	1.38	-1.500			
0.8979	57468.19	3.1070	3.1069	-0.1385	27.36	1.38	-1.500			
0.8984	57494.51	3.1040	3.1040	-0.1373	27.36	1.38	-1.500			
0.8988	57520.86	3.1010	3.1010	-0.1365	27.37	1.39	-1.500			
0.8992	57547.00	3.0980	3.0981	-0.1356	27.37	1.39	-1.500			
0.8996	57573.18	3.0950	3.0949	-0.1350	27.38	1.40	-1.500			
0.9000	57598.98	3.0920	3.0920	-0.1338	27.38	1.40	-1.500			
0.9004	57624.63	3.0890	3.0890	-0.1326	27.38	1.40	-1.500			
0.9008	57649.64	3.0860	3.0860	-0.1316	27.39	1.41	-1.500			
0.9012	57674.99	3.0830	3.0830	-0.1309	27.39	1.41	-1.500			
0.9016	57700.04	3.0800	3.0799	-0.1301	27.40	1.42	-1.500			
0.9020	57724.85	3.0770	3.0770	-0.1293	27.40	1.42	-1.500			
0.9023	57749.60	3.0740	3.0740	-0.1286	27.41	1.43	-1.500			
0.9027	57774.29	3.0710	3.0711	-0.1279	27.41	1.43	-1.500			
0.9031	57798.77	3.0680	3.0680	-0.1271	27.42	1.44	-1.500			
0.9035	57823.09	3.0650	3.0648	-0.1265	27.42	1.44	-1.500			
0.9039	57847.13	3.0620	3.0620	-0.1255	27.43	1.45	-1.500			
0.9042	57871.24	3.0590	3.0591	-0.1248	27.43	1.45	-1.500			
0.9046	57895.23	3.0560	3.0560	-0.1244	27.44	1.46	-1.500			
0.9050	57919.06	3.0530	3.0531	-0.1237	27.44	1.46	-1.500			
0.9054	57942.62	3.0500	3.0500	-0.1230	27.45	1.47	-1.500			
0.9057	57966.18	3.0470	3.0469	-0.1225	27.45	1.47	-1.500			
0.9061	57989.70	3.0440	3.0440	-0.1219	27.46	1.48	-1.500			
0.9065	58013.02	3.0410	3.0411	-0.1213	27.46	1.48	-1.500			
0.9068	58036.30	3.0380	3.0380	-0.1207	27.47	1.49	-1.500			
0.9072	58059.49	3.0350	3.0350	-0.1201	27.47	1.49	-1.500			
0.9075	58082.54	3.0320	3.0320	-0.1192	27.47	1.49	-1.500			
0.9079	58105.38	3.0290	3.0290	-0.1183	27.48	1.50	-1.500			
0.9082	58127.88	3.0260	3.0261	-0.1178	27.48	1.50	-1.500			
0.9086	58150.35	3.0230	3.0230	-0.1171	27.49	1.51	-1.500			
0.9090	58172.82	3.0200	3.0199	-0.1163	27.49	1.51	-1.500			
0.9093	58195.05	3.0170	3.0170	-0.1156	27.50	1.52	-1.500			
0.9096	58217.07	3.0140	3.0140	-0.1159	27.50	1.52	-1.500			
0.9100	58239.11	3.0110	3.0111	-0.1158	27.51	1.53	-1.500			
0.9103	58261.36	3.0080	3.0080	-0.1160	27.51	1.53	-1.500			
0.9107	58283.64	3.0050	3.0049	-0.1164	27.51	1.53	-1.500			
0.9110	58306.04	3.0020	3.0020	-0.1168	27.52	1.54	-1.497			
