Ah_balance (normalized)	Ah_balance (mAh)	Voltage - fit (V)	Voltage -  interpolate (V)	dQ/dV (1/V)	Temperature (°C)	Temperature - diff (°C)	Current (C)	R_DC 0ms (mOhm)	R_DC 50ms (mOhm)	R_DC 50 ms PEC (mOhm)
0.2673	17109.82	3.9920	3.9920	0.8265	27.51	1.55	1.500			
0.2699	17270.65	3.9890	3.9890	0.8406	27.50	1.54	1.500			
0.2724	17433.31	3.9860	3.9859	0.8488	27.50	1.54	1.500			
0.2750	17597.98	3.9830	3.9830	0.8501	27.49	1.53	1.500			
0.2775	17762.80	3.9800	3.9800	0.8514	27.49	1.53	1.500			
0.2801	17926.19	3.9770	3.9771	0.8534	27.48	1.52	1.500			
0.2826	18088.79	3.9740	3.9740	0.8533	27.48	1.52	1.500			
0.2852	18252.19	3.9710	3.9710	0.8580	27.47	1.51	1.500			
0.2878	18416.90	3.9680	3.9680	0.8648	27.47	1.51	1.500			
0.2904	18583.92	3.9650	3.9650	0.8669	27.46	1.50	1.500			
0.2930	18751.60	3.9620	3.9620	0.8725	27.46	1.50	1.500			
0.2956	18919.71	3.9590	3.9590	0.8775	27.45	1.49	1.500			
0.2983	19088.06	3.9560	3.9559	0.8786	27.45	1.49	1.500			
0.3009	19256.39	3.9530	3.9530	0.8809	27.44	1.48	1.500			
0.3035	19425.33	3.9500	3.9501	0.8871	27.43	1.47	1.500			
0.3062	19596.43	3.9470	3.9470	0.8932	27.43	1.47	1.500			
0.3089	19770.11	3.9440	3.9439	0.8982	27.42	1.46	1.500			
0.3116	19942.42	3.9410	3.9410	0.8998	27.42	1.46	1.500			
0.3143	20115.03	3.9380	3.9380	0.9047	27.41	1.45	1.500			
0.3170	20290.01	3.9350	3.9350	0.9101	27.40	1.44	1.500			
0.3198	20464.38	3.9320	3.9320	0.9137	27.40	1.44	1.500			
0.3225	20639.19	3.9290	3.9290	0.9154	27.39	1.43	1.500			
0.3252	20815.25	3.9260	3.9261	0.9227	27.38	1.42	1.500			
0.3280	20993.82	3.9230	3.9229	0.9281	27.37	1.41	1.500			
0.3308	21171.41	3.9200	3.9200	0.9325	27.36	1.40	1.500			
0.3336	21351.21	3.9170	3.9169	0.9367	27.35	1.39	1.500			
0.3364	21531.79	3.9140	3.9141	0.9457	27.34	1.38	1.500			
0.3393	21714.01	3.9110	3.9109	0.9555	27.33	1.37	1.500			
0.3422	21897.95	3.9080	3.9080	0.9654	27.33	1.37	1.500			
0.3451	22083.83	3.9050	3.9051	0.9731	27.32	1.36	1.500			
0.3480	22272.58	3.9020	3.9020	0.9802	27.31	1.35	1.500			
0.3510	22461.19	3.8990	3.8990	0.9822	27.30	1.34	1.500			
0.3539	22649.95	3.8960	3.8959	0.9873	27.29	1.33	1.500			
0.3568	22838.17	3.8930	3.8931	0.9940	27.29	1.33	1.500			
0.3598	23029.11	3.8900	3.8899	1.0028	27.28	1.32	1.500			
0.3628	23221.90	3.8870	3.8870	1.0114	27.27	1.31	1.500			
0.3659	23417.50	3.8840	3.8840	1.0229	27.26	1.30	1.500			
0.3690	23615.46	3.8810	3.8811	1.0361	27.26	1.30	1.500			
0.3721	23815.31	3.8780	3.8778	1.0491	27.25	1.29	1.500			
0.3753	24016.92	3.8750	3.8750	1.0585	27.24	1.28	1.500			
0.3784	24220.74	3.8720	3.8720	1.0714	27.23	1.27	1.500			
0.3817	24428.13	3.8690	3.8690	1.0810	27.22	1.26	1.500			
0.3850	24637.29	3.8660	3.8660	1.0879	27.21	1.25	1.500			
0.3883	24848.45	3.8630	3.8629	1.0990	27.20	1.24	1.500			
0.3915	25059.01	3.8600	3.8601	1.1112	27.19	1.23	1.500			
0.3949	25273.79	3.8570	3.8571	1.1199	27.18	1.22	1.500			
0.3983	25489.97	3.8540	3.8540	1.1309	27.17	1.21	1.500			
0.4017	25706.67	3.8510	3.8511	1.1498	27.15	1.19	1.500			
0.4051	25927.90	3.8480	3.8481	1.1665	27.14	1.18	1.500			
0.4086	26153.13	3.8450	3.8449	1.1833	27.12	1.16	1.500			
0.4122	26382.28	3.8420	3.8420	1.2005	27.10	1.14	1.500			
0.4159	26615.33	3.8390	3.8391	1.2219	27.09	1.13	1.500			
0.4196	26852.21	3.8360	3.8361	1.2384	27.07	1.11	1.500			
0.4233	27091.56	3.8330	3.8330	1.2599	27.06	1.10	1.500			
0.4271	27334.20	3.8300	3.8300	1.2783	27.04	1.08	1.500			
0.4310	27580.87	3.8270	3.8269	1.3016	27.03	1.07	1.500			
0.4349	27832.87	3.8240	3.8240	1.3208	27.02	1.06	1.500			
0.4389	28088.87	3.8210	3.8210	1.3434	27.01	1.05	1.500			
0.4430	28349.95	3.8180	3.8180	1.3621	26.99	1.03	1.500			
0.4471	28612.79	3.8150	3.8150	1.3891	26.98	1.02	1.500			
0.4513	28880.34	3.8120	3.8120	1.4057	26.97	1.01	1.500			
0.4555	29153.34	3.8090	3.8090	1.4296	26.95	0.99	1.500			
0.4598	29428.56	3.8060	3.8061	1.4529	26.94	0.98	1.500			
0.4642	29710.97	3.8030	3.8030	1.4748	26.92	0.96	1.500			
0.4687	29994.73	3.8000	3.8000	1.5001	26.90	0.94	1.500			
0.4732	30285.70	3.7970	3.7970	1.5265	26.88	0.92	1.500			
0.4778	30579.05	3.7940	3.7940	1.5579	26.86	0.90	1.500			
0.4825	30882.04	3.7910	3.7910	1.5941	26.85	0.89	1.500			
0.4874	31193.07	3.7880	3.7879	1.6257	26.83	0.87	1.500			
0.4923	31507.43	3.7850	3.7851	1.6562	26.82	0.86	1.500	0.350	0.481	
0.4974	31831.66	3.7820	3.7820	1.6665	26.80	0.84	1.500			
0.5024	32154.36	3.7790	3.7790	1.6692	26.78	0.82	1.500			
0.5074	32472.55	3.7760	3.7761	1.6700	26.76	0.80	1.500			
0.5124	32793.17	3.7730	3.7730	1.6791	26.74	0.78	1.500			
0.5174	33115.94	3.7700	3.7700	1.6872	26.73	0.77	1.500			
0.5225	33439.62	3.7670	3.7670	1.7014	26.71	0.75	1.500			
0.5277	33769.76	3.7640	3.7640	1.7111	26.69	0.73	1.500			
0.5328	34098.29	3.7610	3.7610	1.7203	26.68	0.72	1.500			
0.5379	34428.23	3.7580	3.7580	1.7299	26.66	0.70	1.500			
0.5432	34762.26	3.7550	3.7550	1.7363	26.64	0.68	1.500			
0.5484	35095.36	3.7520	3.7520	1.7584	26.63	0.67	1.500			
0.5536	35432.99	3.7490	3.7490	1.7938	26.61	0.65	1.500			
0.5591	35781.69	3.7460	3.7459	1.8047	26.60	0.64	1.500			
0.5645	36128.30	3.7430	3.7431	1.8519	26.58	0.62	1.500			
0.5701	36488.45	3.7400	3.7400	1.8932	26.57	0.61	1.500			
0.5758	36851.99	3.7370	3.7370	1.9290	26.55	0.59	1.500			
0.5817	37229.86	3.7340	3.7341	1.9607	26.53	0.57	1.500			
0.5876	37608.21	3.7310	3.7310	2.0331	26.50	0.54	1.500			
0.5938	38003.73	3.7280	3.7281	2.0949	26.48	0.52	1.500			
0.6003	38416.31	3.7250	3.7250	2.1420	26.46	0.50	1.500			
0.6068	38833.22	3.7220	3.7221	2.1897	26.43	0.47	1.500			
0.6135	39261.77	3.7190	3.7190	2.2274	26.41	0.45	1.500			
0.6200	39682.17	3.7160	3.7160	2.2377	26.39	0.43	1.500			
0.6269	40120.46	3.7130	3.7130	2.2968	26.37	0.41	1.500			
0.6339	40572.30	3.7100	3.7100	2.2258	26.35	0.39	1.500			
0.6405	40994.10	3.7070	3.7070	2.1240	26.33	0.37	1.500			
0.6467	41388.49	3.7040	3.7039	2.0202	26.31	0.35	1.500			
0.6525	41762.52	3.7010	3.7010	1.8944	26.29	0.33	1.500			
0.6581	42115.21	3.6980	3.6980	1.7838	26.28	0.32	1.500			
0.6632	42445.74	3.6950	3.6951	1.6751	26.26	0.30	1.500			
0.6680	42754.80	3.6920	3.6920	1.5950	26.25	0.29	1.500			
0.6727	43050.63	3.6890	3.6890	1.5150	26.24	0.28	1.500			
0.6770	43329.57	3.6860	3.6860	1.4487	26.23	0.27	1.500			
0.6813	43603.62	3.6830	3.6831	1.4052	26.21	0.25	1.500			
0.6854	43865.75	3.6800	3.6800	1.3573	26.20	0.24	1.500			
0.6894	44120.75	3.6770	3.6770	1.3264	26.19	0.23	1.500			
0.6933	44370.73	3.6740	3.6740	1.3020	26.18	0.22	1.500			
0.6971	44616.27	3.6710	3.6709	1.2903	26.17	0.21	1.500			
0.7010	44861.23	3.6680	3.6680	1.2863	26.16	0.20	1.500			
0.7048	45106.86	3.6650	3.6650	1.2792	26.15	0.19	1.500			
0.7087	45354.20	3.6620	3.6620	1.2768	26.13	0.17	1.500			
0.7125	45599.85	3.6590	3.6589	1.2760	26.12	0.16	1.500			
0.7163	45845.93	3.6560	3.6560	1.2689	26.11	0.15	1.500			
0.7201	46087.36	3.6530	3.6530	1.2643	26.10	0.14	1.500			
0.7239	46329.41	3.6500	3.6501	1.2546	26.08	0.12	1.500			
0.7277	46571.04	3.6470	3.6470	1.2435	26.07	0.11	1.500			
0.7314	46809.74	3.6440	3.6440	1.2388	26.06	0.10	1.500			
0.7351	47046.91	3.6410	3.6411	1.2294	26.05	0.09	1.500			
0.7388	47280.68	3.6380	3.6380	1.2152	26.04	0.08	1.500			
0.7424	47513.69	3.6350	3.6349	1.2085	26.03	0.07	1.500			
0.7460	47742.88	3.6320	3.6320	1.1985	26.02	0.06	1.500			
0.7496	47973.10	3.6290	3.6290	1.1960	26.02	0.06	1.500			
0.7532	48202.54	3.6260	3.6260	1.1861	26.01	0.05	1.500			
0.7567	48430.00	3.6230	3.6230	1.1748	26.00	0.04	1.500			
0.7603	48656.74	3.6200	3.6200	1.1612	26.00	0.04	1.500			
0.7638	48880.09	3.6170	3.6170	1.1406	25.99	0.03	1.500			
0.7671	49096.82	3.6140	3.6140	1.1160	25.99	0.03	1.500			
0.7705	49309.01	3.6110	3.6111	1.0887	25.98	0.02	1.500			
0.7737	49515.14	3.6080	3.6080	1.0622	25.98	0.02	1.500			
0.7768	49717.08	3.6050	3.6050	1.0353	25.98	0.02	1.500			
0.7799	49913.00	3.6020	3.6020	1.0036	25.97	0.01	1.500			
0.7829	50105.37	3.5990	3.5990	0.9696	25.97	0.01	1.500			
0.7858	50289.82	3.5960	3.5960	0.9248	25.97	0.01	1.500			
0.7886	50467.55	3.5930	3.5930	0.8670	25.97	0.01	1.500			
0.7911	50630.10	3.5900	3.5900	0.8015	25.96	0.00	1.500			
0.7934	50780.79	3.5870	3.5871	0.7213	25.96	0.00	1.500			
0.7955	50911.88	3.5840	3.5840	0.6359	25.96	0.00	1.500			
0.7973	51024.80	3.5810	3.5810	0.5515	25.96	-0.00	1.500			
0.7988	51120.90	3.5780	3.5780	0.4697	25.96	-0.00	1.500			
0.8000	51199.70	3.5750	3.5749	0.3994	25.96	-0.00	1.500			
0.8011	51267.23	3.5720	3.5719	0.3460	25.96	-0.00	1.500			
0.8019	51324.66	3.5690	3.5690	0.3002	25.96	-0.00	1.500			
0.8028	51377.32	3.5660	3.5660	0.2681	25.96	-0.00	1.500			
0.8035	51422.96	3.5630	3.5630	0.2357	25.95	-0.01	1.500			
0.8041	51465.16	3.5600	3.5599	0.2149	25.95	-0.01	1.500			
0.8047	51503.25	3.5570	3.5570	0.1946	25.95	-0.01	1.500			
0.8053	51537.90	3.5540	3.5539	0.1765	25.95	-0.01	1.500			
0.8058	51570.26	3.5510	3.5510	0.1606	25.95	-0.01	1.500			
0.8062	51598.94	3.5480	3.5480	0.1462	25.95	-0.01	1.500			
0.8066	51625.22	3.5450	3.5449	0.1316	25.95	-0.01	1.500			
0.8070	51649.39	3.5420	3.5419	0.1178	25.95	-0.01	1.500			
0.8074	51670.68	3.5390	3.5390	0.1040	25.95	-0.01	1.500			
0.8076	51689.16	3.5360	3.5362	0.0900	25.95	-0.01	1.500			
0.8079	51705.77	3.5330	3.5331	0.0768	25.95	-0.01	1.500			
0.8081	51719.13	3.5300	3.5303	0.0623	25.95	-0.01	1.500			
0.8083	51730.03	3.5270	3.5274	0.0468	25.95	-0.01	1.500			
0.8084	51737.53	3.5240	3.5249	0.0313	25.95	-0.01	1.500			
