Ah_balance (normalized)	Ah_balance (mAh)	Voltage - fit (V)	Voltage -  interpolate (V)	dQ/dV (1/V)	Temperature (°C)	Temperature - diff (°C)	Current (C)	R_DC 0ms (mOhm)	R_DC 50ms (mOhm)	R_DC 50 ms PEC (mOhm)
0.2782	17804.79	3.9730	3.9730	0.9221	27.06	1.12	1.500			
0.2809	17975.11	3.9700	3.9701	0.8731	27.06	1.12	1.500			
0.2835	18141.86	3.9670	3.9670	0.8726	27.05	1.11	1.500			
0.2861	18307.78	3.9640	3.9641	0.8827	27.05	1.11	1.500			
0.2887	18477.99	3.9610	3.9609	0.8902	27.05	1.11	1.500			
0.2914	18650.26	3.9580	3.9580	0.8937	27.05	1.11	1.500			
0.2942	18825.94	3.9550	3.9550	0.9017	27.05	1.11	1.500			
0.2969	18998.81	3.9520	3.9521	0.9053	27.04	1.10	1.500			
0.2996	19172.61	3.9490	3.9490	0.9069	27.04	1.10	1.500			
0.3023	19346.43	3.9460	3.9460	0.9078	27.04	1.10	1.500			
0.3050	19520.25	3.9430	3.9429	0.9081	27.04	1.10	1.500			
0.3078	19696.18	3.9400	3.9402	0.9163	27.03	1.09	1.500			
0.3105	19872.97	3.9370	3.9370	0.9217	27.03	1.09	1.500			
0.3133	20051.39	3.9340	3.9340	0.9259	27.03	1.09	1.500			
0.3161	20228.45	3.9310	3.9309	0.9296	27.03	1.09	1.500			
0.3188	20405.88	3.9280	3.9281	0.9338	27.02	1.08	1.500			
0.3217	20586.67	3.9250	3.9250	0.9410	27.02	1.08	1.500			
0.3245	20768.25	3.9220	3.9221	0.9451	27.01	1.07	1.500			
0.3274	20950.43	3.9190	3.9190	0.9493	27.01	1.07	1.500			
0.3302	21132.23	3.9160	3.9161	0.9577	27.00	1.06	1.500			
0.3331	21316.16	3.9130	3.9130	0.9658	27.00	1.06	1.500			
0.3360	21501.93	3.9100	3.9101	0.9736	26.99	1.05	1.500			
0.3389	21689.39	3.9070	3.9070	0.9844	26.99	1.05	1.500			
0.3419	21880.26	3.9040	3.9040	0.9917	26.99	1.05	1.500			
0.3449	22072.42	3.9010	3.9010	1.0012	26.98	1.04	1.500			
0.3479	22264.55	3.8980	3.8980	1.0102	26.98	1.04	1.500			
0.3509	22460.01	3.8950	3.8951	1.0137	26.97	1.03	1.500			
0.3540	22654.69	3.8920	3.8919	1.0260	26.97	1.03	1.500			
0.3571	22851.62	3.8890	3.8890	1.0364	26.97	1.03	1.500			
0.3602	23051.66	3.8860	3.8860	1.0476	26.96	1.02	1.500			
0.3634	23255.79	3.8830	3.8829	1.0595	26.96	1.02	1.500			
0.3666	23460.01	3.8800	3.8801	1.0627	26.96	1.02	1.500			
0.3697	23663.55	3.8770	3.8771	1.0733	26.95	1.01	1.500			
0.3730	23871.14	3.8740	3.8740	1.0876	26.95	1.01	1.500			
0.3763	24080.41	3.8710	3.8709	1.0922	26.94	1.00	1.500			
0.3795	24289.57	3.8680	3.8679	1.1073	26.94	1.00	1.500			
0.3829	24504.40	3.8650	3.8651	1.1210	26.94	1.00	1.500			
0.3863	24722.41	3.8620	3.8619	1.1385	26.93	0.99	1.500			
0.3897	24941.68	3.8590	3.8591	1.1521	26.93	0.99	1.500			
0.3932	25161.98	3.8560	3.8560	1.1625	26.92	0.98	1.500			
0.3967	25386.45	3.8530	3.8530	1.1843	26.91	0.97	1.500			
0.4003	25617.68	3.8500	3.8500	1.2014	26.91	0.97	1.500			
0.4038	25846.36	3.8470	3.8470	1.2267	26.90	0.96	1.500			
0.4076	26085.84	3.8440	3.8440	1.2498	26.89	0.95	1.500			
0.4114	26328.07	3.8410	3.8410	1.2736	26.88	0.94	1.500			
0.4152	26574.75	3.8380	3.8380	1.3006	26.88	0.94	1.500			
0.4192	26828.72	3.8350	3.8351	1.3223	26.87	0.93	1.500			
0.4232	27085.91	3.8320	3.8320	1.3392	26.86	0.92	1.500			
0.4272	27343.05	3.8290	3.8290	1.3671	26.86	0.92	1.500			
0.4314	27606.83	3.8260	3.8261	1.3922	26.85	0.91	1.500			
0.4356	27877.98	3.8230	3.8229	1.4253	26.84	0.90	1.500			
0.4399	28153.16	3.8200	3.8201	1.4529	26.84	0.90	1.500			
0.4443	28435.02	3.8170	3.8170	1.4851	26.83	0.89	1.500			
0.4488	28723.95	3.8140	3.8140	1.5219	26.81	0.87	1.500			
0.4534	29018.81	3.8110	3.8110	1.5548	26.80	0.86	1.500			
0.4581	29317.04	3.8080	3.8080	1.5920	26.79	0.85	1.500			
0.4629	29627.03	3.8050	3.8050	1.6457	26.78	0.84	1.500			
0.4679	29946.94	3.8020	3.8020	1.6894	26.77	0.83	1.500			
0.4731	30277.47	3.7990	3.7990	1.7261	26.76	0.82	1.500			
0.4783	30613.12	3.7960	3.7960	1.7622	26.74	0.80	1.500			
0.4837	30953.78	3.7930	3.7931	1.8174	26.73	0.79	1.500			
0.4892	31306.81	3.7900	3.7899	1.8739	26.72	0.78	1.500			
0.4948	31669.36	3.7870	3.7870	1.9176	26.70	0.76	1.500			
0.5006	32040.75	3.7840	3.7840	1.9749	26.69	0.75	1.500			
0.5066	32424.47	3.7810	3.7811	2.0278	26.68	0.74	1.500			
0.5128	32818.21	3.7780	3.7778	2.0716	26.66	0.72	1.500			
0.5191	33223.16	3.7750	3.7751	2.1166	26.64	0.70	1.500			
0.5256	33637.87	3.7720	3.7721	2.1814	26.62	0.68	1.500			
0.5321	34057.40	3.7690	3.7690	2.1882	26.61	0.67	1.500			
0.5387	34479.29	3.7660	3.7661	2.2474	26.59	0.65	1.500			
0.5457	34926.32	3.7630	3.7629	2.2765	26.57	0.63	1.500			
0.5526	35363.86	3.7600	3.7598	2.2714	26.56	0.62	1.499	0.357	0.447	
0.5594	35799.47	3.7570	3.7571	2.2633	26.54	0.60	1.500			
0.5662	36235.59	3.7540	3.7539	2.2372	26.52	0.58	1.500			
0.5728	36657.50	3.7510	3.7510	2.1718	26.50	0.56	1.500			
0.5794	37079.30	3.7480	3.7480	2.1774	26.48	0.54	1.500			
0.5858	37488.52	3.7450	3.7449	2.1434	26.47	0.53	1.500			
0.5921	37892.55	3.7420	3.7421	2.1337	26.45	0.51	1.500			
0.5985	38304.57	3.7390	3.7390	2.1420	26.43	0.49	1.500			
0.6049	38715.85	3.7360	3.7360	2.1497	26.41	0.47	1.500			
0.6113	39125.57	3.7330	3.7329	2.1501	26.39	0.45	1.500			
0.6178	39539.36	3.7300	3.7300	2.1648	26.38	0.44	1.500			
0.6243	39953.72	3.7270	3.7270	2.1962	26.37	0.43	1.500			
0.6309	40378.85	3.7240	3.7240	2.2399	26.35	0.41	1.500			
0.6376	40808.98	3.7210	3.7210	2.2806	26.34	0.40	1.500			
0.6446	41253.63	3.7180	3.7180	2.3163	26.32	0.38	1.500			
0.6516	41700.57	3.7150	3.7150	2.3946	26.31	0.37	1.500			
0.6588	42160.81	3.7120	3.7121	2.4919	26.29	0.35	1.500			
0.6663	42645.63	3.7090	3.7090	2.6239	26.27	0.33	1.500			
0.6745	43166.98	3.7060	3.7060	2.7302	26.26	0.32	1.500			
0.6829	43705.65	3.7030	3.7030	2.8086	26.25	0.31	1.500			
0.6914	44252.42	3.7000	3.7000	2.8497	26.23	0.29	1.500			
0.7001	44803.50	3.6970	3.6970	2.8376	26.22	0.28	1.500			
0.7086	45350.67	3.6940	3.6940	2.7718	26.20	0.26	1.500			
0.7169	45880.26	3.6910	3.6910	2.6398	26.19	0.25	1.500			
0.7247	46379.73	3.6880	3.6880	2.4565	26.18	0.24	1.500			
0.7317	46828.20	3.6850	3.6850	2.2355	26.17	0.23	1.500			
0.7379	47227.66	3.6820	3.6819	2.0235	26.16	0.22	1.500			
0.7437	47594.42	3.6790	3.6790	1.8532	26.15	0.21	1.500			
0.7489	47928.08	3.6760	3.6760	1.7122	26.14	0.20	1.500			
0.7537	48237.25	3.6730	3.6731	1.6026	26.13	0.19	1.500			
0.7583	48532.08	3.6700	3.6699	1.5070	26.13	0.19	1.500			
0.7627	48811.65	3.6670	3.6669	1.4337	26.12	0.18	1.500			
0.7668	49075.72	3.6640	3.6641	1.3680	26.11	0.17	1.500			
0.7708	49330.60	3.6610	3.6611	1.3271	26.11	0.17	1.500			
0.7747	49579.10	3.6580	3.6580	1.2826	26.10	0.16	1.500			
0.7784	49816.21	3.6550	3.6549	1.2511	26.10	0.16	1.500			
0.7821	50051.55	3.6520	3.6521	1.2414	26.09	0.15	1.500			
0.7857	50286.56	3.6490	3.6491	1.2497	26.08	0.14	1.500			
0.7895	50526.17	3.6460	3.6459	1.2637	26.08	0.14	1.500			
0.7933	50768.33	3.6430	3.6430	1.2770	26.07	0.13	1.500			
0.7971	51016.11	3.6400	3.6401	1.2980	26.06	0.12	1.500			
0.8011	51272.30	3.6370	3.6370	1.3141	26.05	0.11	1.500			
0.8051	51524.79	3.6340	3.6340	1.3189	26.05	0.11	1.500			
0.8090	51779.14	3.6310	3.6310	1.3210	26.04	0.10	1.500			
0.8130	52032.98	3.6280	3.6278	1.3212	26.03	0.09	1.500			
0.8170	52287.70	3.6250	3.6250	1.3177	26.02	0.08	1.500			
0.8209	52540.00	3.6220	3.6220	1.3175	26.01	0.07	1.500			
0.8249	52791.64	3.6190	3.6191	1.3201	26.01	0.07	1.500			
0.8288	53044.40	3.6160	3.6160	1.3170	26.00	0.06	1.500			
0.8328	53297.82	3.6130	3.6129	1.3199	25.99	0.05	1.500			
0.8368	53553.27	3.6100	3.6100	1.3199	25.98	0.04	1.500			
0.8408	53809.22	3.6070	3.6070	1.3145	25.98	0.04	1.500			
0.8447	54062.40	3.6040	3.6040	1.3027	25.97	0.03	1.500			
0.8486	54310.50	3.6010	3.6011	1.2894	25.96	0.02	1.500			
0.8525	54557.09	3.5980	3.5980	1.2757	25.96	0.02	1.500			
0.8563	54800.52	3.5950	3.5949	1.2614	25.95	0.01	1.500			
0.8600	55040.68	3.5920	3.5921	1.2446	25.94	0.00	1.500			
0.8637	55278.36	3.5890	3.5891	1.2339	25.94	0.00	1.500			
0.8674	55513.15	3.5860	3.5860	1.2226	25.94	0.00	1.500			
0.8710	55743.72	3.5830	3.5830	1.2204	25.94	0.00	1.500			
0.8746	55976.59	3.5800	3.5800	1.2182	25.94	0.00	1.500			
0.8783	56211.92	3.5770	3.5769	1.2233	25.94	0.00	1.500			
0.8821	56455.82	3.5740	3.5739	1.1960	25.94	0.00	1.500			
0.8859	56694.80	3.5710	3.5709	1.1531	25.94	0.00	1.500			
0.8894	56920.34	3.5680	3.5680	1.0445	25.94	0.00	1.500			
0.8925	57121.33	3.5650	3.5651	0.9268	25.94	0.00	1.500			
0.8951	57283.55	3.5620	3.5622	0.7752	25.94	0.00	1.500			
0.8971	57411.55	3.5590	3.5589	0.6280	25.94	0.00	1.500			
0.8985	57505.35	3.5560	3.5561	0.4942	25.94	0.00	1.500			
0.8997	57583.24	3.5530	3.5530	0.4047	25.94	0.00	1.500			
0.9007	57646.96	3.5500	3.5499	0.3241	25.94	0.00	1.500			
0.9016	57700.44	3.5470	3.5468	0.2784	25.94	0.00	1.500			
0.9023	57744.43	3.5440	3.5440	0.2379	25.94	0.00	1.500			
0.9029	57784.95	3.5410	3.5410	0.2112	25.94	0.00	1.500			
0.9035	57822.66	3.5380	3.5380	0.1877	25.94	0.00	1.500			
0.9040	57855.19	3.5350	3.5351	0.1689	25.94	0.00	1.500			
0.9045	57885.03	3.5320	3.5319	0.1503	25.94	0.00	1.500			
0.9049	57912.30	3.5290	3.5289	0.1345	25.94	0.00	1.500			
0.9053	57936.68	3.5260	3.5260	0.1196	25.94	0.00	1.500			
0.9056	57957.91	3.5230	3.5231	0.1043	25.94	0.00	1.500			
0.9059	57977.28	3.5200	3.5201	0.0902	25.94	0.00	1.500			
0.9061	57993.09	3.5170	3.5172	0.0744	25.94	0.00	1.500			
0.9063	58006.07	3.5140	3.5144	0.0578	25.94	0.00	1.500			
0.9065	58015.58	3.5110	3.5116	0.0413	25.94	0.00	1.500			
