Ah_balance (normalized)	Ah_balance (mAh)	Voltage - fit (V)	Voltage -  interpolate (V)	dQ/dV (1/V)	Temperature (°C)	Temperature - diff (°C)	Current (C)	R_DC 0ms (mOhm)	R_DC 50ms (mOhm)	R_DC 50 ms PEC (mOhm)
0.2730	17468.95	3.9860	3.9860	0.8487	27.15	1.20	1.500			
0.2755	17635.11	3.9830	3.9830	0.8595	27.15	1.20	1.500			
0.2781	17799.41	3.9800	3.9800	0.8563	27.15	1.20	1.500			
0.2807	17962.93	3.9770	3.9770	0.8587	27.14	1.19	1.500			
0.2833	18128.39	3.9740	3.9740	0.8590	27.14	1.19	1.500			
0.2858	18292.53	3.9710	3.9709	0.8604	27.13	1.18	1.500			
0.2884	18458.14	3.9680	3.9680	0.8622	27.13	1.18	1.500			
0.2910	18624.32	3.9650	3.9650	0.8608	27.13	1.18	1.500			
0.2936	18790.85	3.9620	3.9620	0.8650	27.12	1.17	1.500			
0.2962	18955.62	3.9590	3.9590	0.8687	27.12	1.17	1.500			
0.2988	19122.12	3.9560	3.9560	0.8721	27.11	1.16	1.500			
0.3014	19289.94	3.9530	3.9529	0.8804	27.11	1.16	1.500			
0.3041	19459.78	3.9500	3.9501	0.8825	27.11	1.16	1.500			
0.3067	19630.82	3.9470	3.9470	0.8899	27.10	1.15	1.500			
0.3094	19802.32	3.9440	3.9440	0.8939	27.10	1.15	1.500			
0.3121	19974.42	3.9410	3.9411	0.8934	27.09	1.14	1.500			
0.3148	20145.21	3.9380	3.9380	0.8971	27.09	1.14	1.500			
0.3175	20318.35	3.9350	3.9350	0.9017	27.08	1.13	1.500			
0.3202	20490.65	3.9320	3.9320	0.9087	27.08	1.13	1.500			
0.3229	20665.73	3.9290	3.9290	0.9178	27.07	1.12	1.500			
0.3257	20842.33	3.9260	3.9259	0.9211	27.07	1.12	1.500			
0.3284	21020.74	3.9230	3.9230	0.9287	27.07	1.12	1.500			
0.3313	21200.94	3.9200	3.9200	0.9321	27.06	1.11	1.500			
0.3341	21379.82	3.9170	3.9171	0.9343	27.05	1.10	1.500			
0.3369	21559.18	3.9140	3.9140	0.9400	27.05	1.10	1.500			
0.3397	21738.52	3.9110	3.9111	0.9420	27.04	1.09	1.500			
0.3425	21919.72	3.9080	3.9080	0.9537	27.04	1.09	1.500			
0.3454	22103.54	3.9050	3.9050	0.9651	27.03	1.08	1.500			
0.3483	22290.07	3.9020	3.9020	0.9716	27.03	1.08	1.500			
0.3512	22479.03	3.8990	3.8989	0.9822	27.02	1.07	1.500			
0.3542	22667.89	3.8960	3.8960	0.9872	27.01	1.06	1.500			
0.3572	22857.86	3.8930	3.8930	0.9907	27.01	1.06	1.500			
0.3601	23048.62	3.8900	3.8900	0.9976	27.00	1.05	1.500			
0.3631	23239.46	3.8870	3.8870	1.0040	26.99	1.04	1.500			
0.3661	23433.21	3.8840	3.8840	1.0118	26.98	1.03	1.500			
0.3692	23627.56	3.8810	3.8810	1.0265	26.98	1.03	1.500			
0.3723	23824.80	3.8780	3.8780	1.0390	26.97	1.02	1.500			
0.3754	24026.00	3.8750	3.8750	1.0510	26.96	1.01	1.500			
0.3786	24229.90	3.8720	3.8720	1.0641	26.95	1.00	1.500			
0.3818	24434.69	3.8690	3.8691	1.0760	26.95	1.00	1.500			
0.3851	24644.07	3.8660	3.8660	1.0835	26.94	0.99	1.500			
0.3883	24853.45	3.8630	3.8630	1.0924	26.93	0.98	1.500			
0.3916	25062.21	3.8600	3.8600	1.1032	26.92	0.97	1.500			
0.3949	25273.63	3.8570	3.8571	1.1203	26.91	0.96	1.500			
0.3983	25489.83	3.8540	3.8541	1.1399	26.91	0.96	1.500			
0.4017	25709.43	3.8510	3.8510	1.1610	26.90	0.95	1.500			
0.4052	25934.69	3.8480	3.8480	1.1798	26.89	0.94	1.500			
0.4088	26165.88	3.8450	3.8449	1.1992	26.88	0.93	1.500			
0.4125	26398.32	3.8420	3.8420	1.2051	26.87	0.92	1.500			
0.4161	26630.86	3.8390	3.8390	1.2231	26.86	0.91	1.500			
0.4198	26864.82	3.8360	3.8361	1.2410	26.85	0.90	1.500			
0.4235	27104.74	3.8330	3.8330	1.2622	26.85	0.90	1.500			
0.4273	27346.65	3.8300	3.8301	1.2877	26.84	0.89	1.500			
0.4312	27597.03	3.8270	3.8271	1.3177	26.83	0.88	1.500			
0.4352	27855.21	3.8240	3.8239	1.3441	26.81	0.86	1.500			
0.4393	28115.52	3.8210	3.8210	1.3701	26.80	0.85	1.500			
0.4434	28379.89	3.8180	3.8180	1.3954	26.79	0.84	1.500			
0.4477	28650.79	3.8150	3.8151	1.4202	26.78	0.83	1.500			
0.4520	28925.69	3.8120	3.8120	1.4490	26.77	0.82	1.500			
0.4563	29205.84	3.8090	3.8090	1.4713	26.75	0.80	1.500			
0.4608	29493.75	3.8060	3.8060	1.4877	26.73	0.78	1.500			
0.4653	29780.13	3.8030	3.8030	1.5229	26.72	0.77	1.500			
0.4699	30071.31	3.8000	3.8000	1.5633	26.70	0.75	1.500			
0.4746	30374.98	3.7970	3.7969	1.6054	26.68	0.73	1.500			
0.4795	30688.80	3.7940	3.7940	1.6380	26.67	0.72	1.500			
0.4845	31009.22	3.7910	3.7911	1.6632	26.66	0.71	1.500			
0.4897	31340.43	3.7880	3.7880	1.7060	26.65	0.70	1.500			
0.4948	31664.27	3.7850	3.7850	1.7016	26.63	0.68	1.500			
0.4998	31987.79	3.7820	3.7820	1.7250	26.62	0.67	1.500			
0.5050	32321.89	3.7790	3.7791	1.7581	26.61	0.66	1.500			
0.5104	32665.40	3.7760	3.7757	1.7825	26.59	0.64	1.500	0.350	0.464	
0.5158	33011.96	3.7730	3.7731	1.8092	26.57	0.62	1.500			
0.5213	33363.35	3.7700	3.7700	1.8134	26.55	0.60	1.500			
0.5268	33712.86	3.7670	3.7669	1.8049	26.54	0.59	1.500			
0.5321	34054.55	3.7640	3.7640	1.7937	26.52	0.57	1.500			
0.5375	34399.55	3.7610	3.7610	1.7825	26.50	0.55	1.500			
0.5428	34738.43	3.7580	3.7580	1.7915	26.49	0.54	1.500			
0.5481	35080.50	3.7550	3.7550	1.7925	26.47	0.52	1.500			
0.5535	35425.16	3.7520	3.7520	1.8003	26.45	0.50	1.500			
0.5589	35771.91	3.7490	3.7491	1.8162	26.44	0.49	1.500			
0.5644	36121.38	3.7460	3.7460	1.8421	26.43	0.48	1.500			
0.5699	36474.52	3.7430	3.7430	1.8596	26.41	0.46	1.500			
0.5755	36833.60	3.7400	3.7400	1.8938	26.40	0.45	1.500			
0.5813	37201.39	3.7370	3.7371	1.9339	26.39	0.44	1.500			
0.5871	37575.63	3.7340	3.7340	1.9667	26.37	0.42	1.500			
0.5930	37955.15	3.7310	3.7311	2.0047	26.36	0.41	1.500			
0.5991	38343.20	3.7280	3.7280	2.0690	26.34	0.39	1.500			
0.6054	38747.22	3.7250	3.7250	2.1333	26.33	0.38	1.500			
0.6119	39163.61	3.7220	3.7220	2.1856	26.31	0.36	1.500			
0.6186	39587.54	3.7190	3.7190	2.2505	26.30	0.35	1.500			
0.6254	40023.60	3.7160	3.7159	2.3035	26.28	0.33	1.500			
0.6323	40469.81	3.7130	3.7130	2.3641	26.26	0.31	1.500			
0.6396	40935.09	3.7100	3.7100	2.4163	26.25	0.30	1.500			
0.6469	41402.72	3.7070	3.7070	2.4470	26.23	0.28	1.500			
0.6542	41871.34	3.7040	3.7040	2.4447	26.21	0.26	1.500			
0.6617	42345.88	3.7010	3.7010	2.3600	26.20	0.25	1.500			
0.6686	42791.68	3.6980	3.6980	2.2411	26.19	0.24	1.500			
0.6752	43209.90	3.6950	3.6949	2.0990	26.18	0.23	1.500			
0.6812	43596.12	3.6920	3.6920	1.9387	26.17	0.22	1.500			
0.6868	43954.36	3.6890	3.6890	1.7893	26.16	0.21	1.500			
0.6918	44277.44	3.6860	3.6861	1.6629	26.15	0.20	1.500			
0.6966	44584.42	3.6830	3.6830	1.5701	26.15	0.20	1.500			
0.7011	44870.14	3.6800	3.6799	1.4851	26.14	0.19	1.500			
0.7054	45147.73	3.6770	3.6770	1.4226	26.13	0.18	1.500			
0.7096	45412.86	3.6740	3.6740	1.3692	26.13	0.18	1.500			
0.7136	45669.04	3.6710	3.6710	1.3316	26.12	0.17	1.500			
0.7175	45917.93	3.6680	3.6680	1.2962	26.11	0.16	1.500			
0.7213	46160.34	3.6650	3.6649	1.2770	26.11	0.16	1.500			
0.7250	46402.37	3.6620	3.6620	1.2676	26.10	0.15	1.500			
0.7288	46643.00	3.6590	3.6590	1.2695	26.09	0.14	1.500			
0.7326	46886.51	3.6560	3.6561	1.2767	26.08	0.13	1.500			
0.7365	47133.92	3.6530	3.6529	1.2767	26.07	0.12	1.500			
0.7403	47379.35	3.6500	3.6499	1.2816	26.07	0.12	1.500			
0.7442	47626.28	3.6470	3.6471	1.2866	26.06	0.11	1.500			
0.7480	47873.74	3.6440	3.6440	1.2894	26.05	0.10	1.500			
0.7519	48121.78	3.6410	3.6409	1.2936	26.04	0.09	1.500			
0.7558	48370.83	3.6380	3.6380	1.2899	26.03	0.08	1.500			
0.7597	48618.33	3.6350	3.6350	1.2887	26.02	0.07	1.500			
0.7635	48867.00	3.6320	3.6320	1.2859	26.01	0.06	1.500			
0.7674	49113.87	3.6290	3.6290	1.2767	26.00	0.05	1.500			
0.7712	49358.73	3.6260	3.6260	1.2672	25.99	0.04	1.500			
0.7750	49600.52	3.6230	3.6230	1.2602	25.98	0.03	1.500			
0.7788	49840.75	3.6200	3.6201	1.2531	25.98	0.03	1.500			
0.7825	50082.53	3.6170	3.6170	1.2477	25.97	0.02	1.500			
0.7863	50321.02	3.6140	3.6140	1.2392	25.97	0.02	1.500			
0.7900	50560.06	3.6110	3.6110	1.2252	25.96	0.01	1.500			
0.7937	50793.67	3.6080	3.6081	1.2111	25.96	0.01	1.500			
0.7973	51026.48	3.6050	3.6050	1.1963	25.95	0.00	1.500			
0.8008	51254.22	3.6020	3.6020	1.1761	25.95	0.00	1.500			
0.8043	51477.64	3.5990	3.5990	1.1569	25.95	0.00	1.500			
0.8078	51697.97	3.5960	3.5960	1.1372	25.95	0.00	1.500			
0.8112	51914.66	3.5930	3.5930	1.1187	25.95	0.00	1.500			
0.8145	52130.18	3.5900	3.5900	1.0933	25.95	0.00	1.500			
0.8178	52339.18	3.5870	3.5869	1.0601	25.95	0.00	1.500			
0.8210	52546.58	3.5840	3.5840	1.0040	25.95	0.00	1.500			
0.8240	52738.11	3.5810	3.5810	0.9296	25.95	0.00	1.500			
0.8268	52915.80	3.5780	3.5781	0.8394	25.95	0.00	1.500			
0.8292	53069.30	3.5750	3.5751	0.7338	25.95	0.00	1.500			
0.8312	53198.47	3.5720	3.5720	0.6269	25.95	0.00	1.500			
0.8329	53306.17	3.5690	3.5689	0.5247	25.95	0.00	1.500			
0.8342	53390.97	3.5660	3.5660	0.4344	25.95	0.00	1.500			
0.8354	53463.24	3.5630	3.5630	0.3703	25.95	0.00	1.500			
0.8363	53523.29	3.5600	3.5599	0.3150	25.95	0.00	1.500			
0.8371	53576.08	3.5570	3.5570	0.2748	25.95	0.00	1.500			
0.8379	53622.50	3.5540	3.5539	0.2394	25.95	0.00	1.500			
0.8385	53664.68	3.5510	3.5510	0.2159	25.95	0.00	1.500			
0.8391	53702.61	3.5480	3.5480	0.1951	25.95	0.00	1.500			
0.8396	53737.29	3.5450	3.5451	0.1767	25.95	0.00	1.500			
0.8402	53769.75	3.5420	3.5419	0.1613	25.95	0.00	1.500			
0.8406	53798.68	3.5390	3.5390	0.1463	25.95	0.00	1.500			
0.8410	53825.21	3.5360	3.5360	0.1319	25.95	0.00	1.500			
0.8414	53849.26	3.5330	3.5330	0.1178	25.95	0.00	1.500			
0.8417	53870.55	3.5300	3.5300	0.1039	25.95	0.00	1.500			
0.8420	53889.36	3.5270	3.5270	0.0902	25.95	0.00	1.500			
0.8423	53905.27	3.5240	3.5241	0.0761	25.95	0.00	1.500			
0.8425	53918.52	3.5210	3.5212	0.0620	25.95	0.00	1.500			
0.8426	53929.13	3.5180	3.5185	0.0477	25.95	0.00	1.500			
0.8428	53936.93	3.5150	3.5158	0.0335	25.95	0.00	1.500			
