Ah_balance (normalized)	Ah_balance (mAh)	Voltage - fit (V)	Voltage -  interpolate (V)	dQ/dV (1/V)	Temperature (°C)	Temperature - diff (°C)	Current (C)	R_DC 0ms (mOhm)	R_DC 50ms (mOhm)	R_DC 50 ms PEC (mOhm)
0.2869	18362.62	3.9890	3.9890	0.8330	27.40	1.42	1.500			
0.2895	18526.05	3.9860	3.9859	0.8437	27.40	1.42	1.500			
0.2920	18686.61	3.9830	3.9830	0.8414	27.39	1.41	1.500			
0.2945	18847.27	3.9800	3.9801	0.8434	27.38	1.40	1.500			
0.2970	19009.16	3.9770	3.9770	0.8470	27.38	1.40	1.500			
0.2996	19171.84	3.9740	3.9739	0.8500	27.37	1.39	1.500			
0.3021	19334.00	3.9710	3.9709	0.8550	27.37	1.39	1.500			
0.3047	19499.44	3.9680	3.9681	0.8587	27.36	1.38	1.500			
0.3073	19666.09	3.9650	3.9650	0.8662	27.35	1.37	1.500			
0.3099	19833.53	3.9620	3.9620	0.8658	27.35	1.37	1.500			
0.3125	20001.28	3.9590	3.9589	0.8628	27.34	1.36	1.500			
0.3151	20164.75	3.9560	3.9560	0.8682	27.34	1.36	1.500			
0.3177	20331.30	3.9530	3.9531	0.8743	27.33	1.35	1.500			
0.3203	20498.61	3.9500	3.9499	0.8751	27.32	1.34	1.500			
0.3229	20667.83	3.9470	3.9470	0.8813	27.32	1.34	1.500			
0.3256	20836.80	3.9440	3.9441	0.8871	27.31	1.33	1.500			
0.3283	21009.44	3.9410	3.9409	0.8900	27.31	1.33	1.500			
0.3310	21180.91	3.9380	3.9380	0.8986	27.30	1.32	1.500			
0.3336	21351.94	3.9350	3.9350	0.8991	27.30	1.32	1.500			
0.3363	21525.51	3.9320	3.9320	0.9038	27.29	1.31	1.500			
0.3391	21699.84	3.9290	3.9290	0.9131	27.28	1.30	1.500			
0.3418	21875.60	3.9260	3.9260	0.9174	27.28	1.30	1.500			
0.3446	22052.38	3.9230	3.9230	0.9210	27.27	1.29	1.500			
0.3473	22230.06	3.9200	3.9200	0.9322	27.27	1.29	1.500			
0.3501	22408.51	3.9170	3.9171	0.9348	27.26	1.28	1.500			
0.3530	22589.96	3.9140	3.9139	0.9382	27.25	1.27	1.500			
0.3558	22770.15	3.9110	3.9110	0.9423	27.24	1.26	1.500			
0.3586	22949.32	3.9080	3.9081	0.9497	27.24	1.26	1.500			
0.3615	23133.49	3.9050	3.9049	0.9571	27.23	1.25	1.500			
0.3643	23317.87	3.9020	3.9019	0.9684	27.22	1.24	1.500			
0.3673	23504.29	3.8990	3.8990	0.9750	27.21	1.23	1.500			
0.3702	23693.33	3.8960	3.8960	0.9885	27.20	1.22	1.500			
0.3732	23884.83	3.8930	3.8931	0.9965	27.19	1.21	1.500			
0.3762	24075.81	3.8900	3.8899	1.0035	27.18	1.20	1.500			
0.3792	24268.84	3.8870	3.8870	1.0121	27.18	1.20	1.500			
0.3823	24464.70	3.8840	3.8840	1.0215	27.17	1.19	1.500			
0.3853	24659.93	3.8810	3.8810	1.0295	27.16	1.18	1.500			
0.3884	24860.28	3.8780	3.8780	1.0453	27.15	1.17	1.500			
0.3916	25061.61	3.8750	3.8750	1.0556	27.14	1.16	1.500			
0.3948	25266.03	3.8720	3.8719	1.0665	27.13	1.15	1.500			
0.3980	25471.08	3.8690	3.8691	1.0781	27.12	1.14	1.500			
0.4012	25679.21	3.8660	3.8660	1.0906	27.10	1.12	1.500			
0.4045	25889.57	3.8630	3.8630	1.1021	27.09	1.11	1.500			
0.4078	26100.84	3.8600	3.8600	1.1151	27.08	1.10	1.500			
0.4112	26316.23	3.8570	3.8571	1.1275	27.07	1.09	1.500			
0.4146	26533.07	3.8540	3.8539	1.1486	27.06	1.08	1.500			
0.4181	26755.74	3.8510	3.8511	1.1658	27.05	1.07	1.500			
0.4216	26980.83	3.8480	3.8478	1.1839	27.04	1.06	1.500			
0.4252	27210.20	3.8450	3.8451	1.2027	27.03	1.05	1.500			
0.4288	27443.62	3.8420	3.8420	1.2216	27.01	1.03	1.500			
0.4325	27680.55	3.8390	3.8390	1.2354	27.00	1.02	1.500			
0.4363	27920.29	3.8360	3.8360	1.2505	26.99	1.01	1.500			
0.4400	28158.32	3.8330	3.8330	1.2661	26.97	0.99	1.500			
0.4438	28403.66	3.8300	3.8300	1.2904	26.96	0.98	1.500			
0.4477	28651.17	3.8270	3.8270	1.3166	26.95	0.97	1.500			
0.4517	28906.61	3.8240	3.8240	1.3429	26.93	0.95	1.500			
0.4558	29168.81	3.8210	3.8210	1.3670	26.92	0.94	1.500			
0.4600	29436.91	3.8180	3.8180	1.3899	26.91	0.93	1.500			
0.4641	29704.19	3.8150	3.8150	1.4103	26.89	0.91	1.500			
0.4684	29975.68	3.8120	3.8121	1.4310	26.88	0.90	1.500			
0.4727	30250.44	3.8090	3.8090	1.4571	26.87	0.89	1.500			
0.4770	30530.85	3.8060	3.8060	1.4884	26.85	0.87	1.500			
0.4816	30822.07	3.8030	3.8029	1.5135	26.83	0.85	1.500			
0.4862	31118.56	3.8000	3.8000	1.5412	26.82	0.84	1.500			
0.4909	31416.75	3.7970	3.7971	1.5620	26.80	0.82	1.500			
0.4956	31717.69	3.7940	3.7939	1.5864	26.78	0.80	1.500			
0.5003	32020.23	3.7910	3.7910	1.6064	26.77	0.79	1.500			
0.5052	32334.28	3.7880	3.7880	1.6325	26.75	0.77	1.500			
0.5102	32654.61	3.7850	3.7850	1.6708	26.73	0.75	1.500	0.341	0.478	
0.5153	32976.39	3.7820	3.7821	1.6828	26.71	0.73	1.500			
0.5204	33302.89	3.7790	3.7789	1.6867	26.69	0.71	1.500			
0.5254	33625.37	3.7760	3.7761	1.6985	26.68	0.70	1.500			
0.5305	33952.90	3.7730	3.7730	1.6933	26.66	0.68	1.500			
0.5356	34278.61	3.7700	3.7700	1.7160	26.64	0.66	1.500			
0.5408	34608.91	3.7670	3.7671	1.7150	26.63	0.65	1.500			
0.5459	34939.98	3.7640	3.7639	1.7205	26.61	0.63	1.500			
0.5511	35270.67	3.7610	3.7612	1.7291	26.60	0.62	1.500			
0.5563	35605.58	3.7580	3.7579	1.7333	26.58	0.60	1.500			
0.5615	35933.64	3.7550	3.7550	1.7312	26.57	0.59	1.500			
0.5667	36266.12	3.7520	3.7521	1.7634	26.55	0.57	1.500			
0.5720	36605.00	3.7490	3.7489	1.7862	26.54	0.56	1.500			
0.5774	36951.16	3.7460	3.7460	1.8149	26.53	0.55	1.500			
0.5829	37302.48	3.7430	3.7431	1.8358	26.51	0.53	1.500			
0.5884	37658.86	3.7400	3.7400	1.8689	26.50	0.52	1.500			
0.5940	38017.88	3.7370	3.7370	1.9052	26.49	0.51	1.500			
0.5998	38384.77	3.7340	3.7340	1.9519	26.47	0.49	1.500			
0.6057	38765.65	3.7310	3.7310	2.0020	26.45	0.47	1.500			
0.6118	39155.26	3.7280	3.7280	2.0819	26.43	0.45	1.500			
0.6181	39561.41	3.7250	3.7250	2.1463	26.41	0.43	1.500			
0.6247	39981.50	3.7220	3.7221	2.1981	26.39	0.41	1.500			
0.6314	40409.65	3.7190	3.7190	2.2429	26.38	0.40	1.500			
0.6382	40843.88	3.7160	3.7160	2.2965	26.36	0.38	1.500			
0.6451	41287.37	3.7130	3.7129	2.3294	26.34	0.36	1.500			
0.6523	41745.88	3.7100	3.7101	2.3747	26.33	0.35	1.500			
0.6595	42207.23	3.7070	3.7071	2.3028	26.31	0.33	1.500			
0.6663	42644.31	3.7040	3.7041	2.1940	26.30	0.32	1.500			
0.6727	43055.11	3.7010	3.7010	2.0583	26.29	0.31	1.500			
0.6787	43439.41	3.6980	3.6980	1.9205	26.27	0.29	1.500			
0.6842	43786.50	3.6950	3.6951	1.7820	26.25	0.27	1.500			
0.6892	44111.53	3.6920	3.6920	1.6450	26.24	0.26	1.500			
0.6940	44418.09	3.6890	3.6890	1.5622	26.23	0.25	1.500			
0.6985	44707.19	3.6860	3.6861	1.4856	26.21	0.23	1.500			
0.7029	44983.79	3.6830	3.6829	1.4275	26.20	0.22	1.500			
0.7070	45250.99	3.6800	3.6800	1.3761	26.19	0.21	1.500			
0.7111	45509.17	3.6770	3.6770	1.3310	26.18	0.20	1.500			
0.7149	45754.99	3.6740	3.6741	1.3014	26.18	0.20	1.500			
0.7188	46003.30	3.6710	3.6710	1.2843	26.17	0.19	1.500			
0.7226	46244.19	3.6680	3.6679	1.2702	26.16	0.18	1.500			
0.7263	46486.01	3.6650	3.6651	1.2628	26.14	0.16	1.500			
0.7301	46727.56	3.6620	3.6620	1.2641	26.13	0.15	1.500			
0.7339	46971.33	3.6590	3.6590	1.2576	26.12	0.14	1.500			
0.7377	47212.69	3.6560	3.6560	1.2643	26.11	0.13	1.500			
0.7415	47455.09	3.6530	3.6531	1.2616	26.10	0.12	1.500			
0.7453	47699.64	3.6500	3.6499	1.2559	26.08	0.10	1.500			
0.7491	47940.23	3.6470	3.6471	1.2491	26.07	0.09	1.500			
0.7528	48180.39	3.6440	3.6440	1.2400	26.06	0.08	1.500			
0.7565	48417.16	3.6410	3.6409	1.2267	26.06	0.08	1.500			
0.7602	48650.21	3.6380	3.6380	1.2115	26.05	0.07	1.500			
0.7638	48882.38	3.6350	3.6350	1.2052	26.04	0.06	1.500			
0.7674	49113.19	3.6320	3.6320	1.2015	26.03	0.05	1.500			
0.7710	49344.40	3.6290	3.6289	1.1910	26.02	0.04	1.500			
0.7746	49571.83	3.6260	3.6260	1.1777	26.01	0.03	1.500			
0.7781	49797.75	3.6230	3.6230	1.1671	26.01	0.03	1.500			
0.7816	50022.65	3.6200	3.6200	1.1509	26.00	0.02	1.500			
0.7850	50242.34	3.6170	3.6169	1.1278	26.00	0.02	1.500			
0.7884	50456.04	3.6140	3.6140	1.1085	25.99	0.01	1.500			
0.7917	50666.75	3.6110	3.6110	1.0848	25.99	0.01	1.500			
0.7949	50873.92	3.6080	3.6080	1.0660	25.98	0.00	1.500			
0.7981	51076.48	3.6050	3.6050	1.0375	25.98	0.00	1.500			
0.8012	51273.63	3.6020	3.6020	1.0106	25.98	0.00	1.500			
0.8042	51467.02	3.5990	3.5990	0.9798	25.98	0.00	1.500			
0.8071	51653.47	3.5960	3.5960	0.9464	25.98	0.00	1.500			
0.8099	51833.65	3.5930	3.5929	0.8990	25.98	0.00	1.500			
0.8126	52004.78	3.5900	3.5900	0.8455	25.98	0.00	1.500			
0.8151	52166.09	3.5870	3.5869	0.7768	25.98	0.00	1.500			
0.8174	52310.77	3.5840	3.5841	0.6984	25.98	0.00	1.500			
0.8194	52439.02	3.5810	3.5810	0.6129	25.98	0.00	1.500			
0.8210	52546.48	3.5780	3.5780	0.5272	25.98	0.00	1.500			
0.8224	52635.20	3.5750	3.5751	0.4443	25.98	0.00	1.500			
0.8236	52710.30	3.5720	3.5720	0.3802	25.98	0.00	1.500			
0.8246	52772.69	3.5690	3.5690	0.3229	25.98	0.00	1.500			
0.8254	52828.47	3.5660	3.5659	0.2767	25.98	0.00	1.500			
0.8262	52875.58	3.5630	3.5629	0.2436	25.98	0.00	1.500			
0.8268	52916.67	3.5600	3.5599	0.2156	25.98	0.00	1.500			
0.8274	52954.28	3.5570	3.5571	0.1940	25.98	0.00	1.500			
0.8280	52989.15	3.5540	3.5540	0.1740	25.98	0.00	1.500			
0.8284	53019.95	3.5510	3.5509	0.1568	25.98	0.00	1.500			
0.8289	53048.22	3.5480	3.5480	0.1402	25.98	0.00	1.500			
0.8293	53073.20	3.5450	3.5451	0.1242	25.98	0.00	1.500			
0.8296	53095.63	3.5420	3.5420	0.1095	25.98	0.00	1.500			
0.8299	53115.36	3.5390	3.5389	0.0949	25.98	0.00	1.500			
0.8302	53132.16	3.5360	3.5361	0.0801	25.98	0.00	1.500			
0.8304	53146.11	3.5330	3.5332	0.0652	25.98	0.00	1.500			
0.8306	53157.16	3.5300	3.5304	0.0504	25.98	0.00	1.500			
0.8307	53165.42	3.5270	3.5279	0.0356	25.98	0.00	1.500			
