Ah_balance (normalized)	Ah_balance (mAh)	Voltage - fit (V)	Voltage -  interpolate (V)	dQ/dV (1/V)	Temperature (°C)	Temperature - diff (°C)	Current (C)	R_DC 0ms (mOhm)	R_DC 50ms (mOhm)	R_DC 50 ms PEC (mOhm)
0.2848	18226.85	3.9840	3.9840	0.8457	27.12	1.19	1.500			
0.2873	18390.14	3.9810	3.9810	0.8550	27.11	1.18	1.500			
0.2900	18557.02	3.9780	3.9779	0.8628	27.11	1.18	1.500			
0.2925	18723.10	3.9750	3.9750	0.8599	27.10	1.17	1.500			
0.2951	18888.28	3.9720	3.9720	0.8598	27.10	1.17	1.500			
0.2977	19052.20	3.9690	3.9690	0.8633	27.09	1.16	1.500			
0.3003	19217.12	3.9660	3.9660	0.8606	27.09	1.16	1.500			
0.3028	19382.05	3.9630	3.9629	0.8660	27.08	1.15	1.500			
0.3054	19547.94	3.9600	3.9601	0.8731	27.08	1.15	1.500			
0.3081	19717.28	3.9570	3.9570	0.8823	27.07	1.14	1.500			
0.3108	19888.63	3.9540	3.9540	0.8861	27.07	1.14	1.500			
0.3134	20058.43	3.9510	3.9510	0.8865	27.06	1.13	1.500			
0.3161	20228.27	3.9480	3.9481	0.8920	27.05	1.12	1.500			
0.3188	20403.60	3.9450	3.9450	0.8906	27.05	1.12	1.500			
0.3214	20571.96	3.9420	3.9419	0.8939	27.04	1.11	1.500			
0.3241	20741.77	3.9390	3.9391	0.8987	27.04	1.11	1.500			
0.3268	20915.58	3.9360	3.9361	0.9038	27.03	1.10	1.500			
0.3295	21089.98	3.9330	3.9330	0.9136	27.03	1.10	1.500			
0.3323	21265.28	3.9300	3.9301	0.9217	27.02	1.09	1.500			
0.3350	21443.14	3.9270	3.9271	0.9274	27.01	1.08	1.500			
0.3379	21623.79	3.9240	3.9239	0.9358	27.01	1.08	1.500			
0.3407	21804.26	3.9210	3.9210	0.9339	27.00	1.07	1.500			
0.3435	21986.02	3.9180	3.9180	0.9344	26.99	1.06	1.500			
0.3463	22165.25	3.9150	3.9150	0.9428	26.99	1.06	1.500			
0.3491	22344.35	3.9120	3.9121	0.9426	26.98	1.05	1.500			
0.3519	22523.21	3.9090	3.9089	0.9478	26.97	1.04	1.500			
0.3548	22706.10	3.9060	3.9060	0.9572	26.97	1.04	1.500			
0.3577	22890.15	3.9030	3.9030	0.9680	26.96	1.03	1.500			
0.3606	23078.64	3.9000	3.9000	0.9765	26.96	1.03	1.500			
0.3636	23269.85	3.8970	3.8969	0.9851	26.95	1.02	1.500			
0.3665	23457.93	3.8940	3.8941	0.9864	26.94	1.01	1.500			
0.3695	23648.12	3.8910	3.8910	0.9974	26.94	1.01	1.500			
0.3725	23837.14	3.8880	3.8881	1.0052	26.93	1.00	1.500			
0.3755	24032.11	3.8850	3.8849	1.0189	26.93	1.00	1.500			
0.3786	24228.35	3.8820	3.8819	1.0288	26.92	0.99	1.500			
0.3817	24428.65	3.8790	3.8790	1.0428	26.91	0.98	1.500			
0.3849	24630.85	3.8760	3.8761	1.0549	26.90	0.97	1.500			
0.3880	24833.52	3.8730	3.8731	1.0639	26.89	0.96	1.500			
0.3912	25037.97	3.8700	3.8699	1.0675	26.88	0.95	1.500			
0.3944	25243.90	3.8670	3.8669	1.0789	26.87	0.94	1.500			
0.3977	25450.30	3.8640	3.8641	1.0936	26.86	0.93	1.500			
0.4010	25661.77	3.8610	3.8610	1.1044	26.85	0.92	1.500			
0.4043	25875.00	3.8580	3.8580	1.1206	26.84	0.91	1.500			
0.4077	26091.35	3.8550	3.8550	1.1369	26.83	0.90	1.500			
0.4111	26309.99	3.8520	3.8520	1.1545	26.82	0.89	1.500			
0.4146	26535.65	3.8490	3.8489	1.1722	26.81	0.88	1.500			
0.4181	26761.57	3.8460	3.8460	1.1899	26.80	0.87	1.500			
0.4217	26990.49	3.8430	3.8430	1.2085	26.80	0.87	1.500			
0.4254	27224.81	3.8400	3.8401	1.2347	26.79	0.86	1.500			
0.4291	27462.58	3.8370	3.8369	1.2534	26.78	0.85	1.500			
0.4329	27705.91	3.8340	3.8340	1.2786	26.77	0.84	1.500			
0.4368	27953.48	3.8310	3.8310	1.3027	26.76	0.83	1.500			
0.4407	28206.98	3.8280	3.8281	1.3246	26.76	0.83	1.500			
0.4447	28462.55	3.8250	3.8250	1.3506	26.75	0.82	1.500			
0.4488	28723.32	3.8220	3.8220	1.3772	26.74	0.81	1.500			
0.4530	28990.42	3.8190	3.8188	1.4082	26.73	0.80	1.500			
0.4572	29262.15	3.8160	3.8160	1.4444	26.72	0.79	1.500			
0.4616	29543.15	3.8130	3.8130	1.4736	26.70	0.77	1.500			
0.4661	29830.16	3.8100	3.8100	1.5042	26.69	0.76	1.500			
0.4706	30119.41	3.8070	3.8070	1.5341	26.68	0.75	1.500			
0.4752	30415.03	3.8040	3.8040	1.5738	26.66	0.73	1.500			
0.4800	30721.77	3.8010	3.8011	1.6152	26.65	0.72	1.500			
0.4850	31038.44	3.7980	3.7980	1.6496	26.63	0.70	1.500			
0.4900	31357.64	3.7950	3.7950	1.6873	26.62	0.69	1.500			
0.4951	31687.06	3.7920	3.7921	1.7264	26.60	0.67	1.500			
0.5004	32023.01	3.7890	3.7890	1.7659	26.59	0.66	1.500			
0.5057	32363.88	3.7860	3.7860	1.7991	26.57	0.64	1.500			
0.5112	32713.81	3.7830	3.7831	1.8218	26.56	0.63	1.500			
0.5167	33069.36	3.7800	3.7800	1.8621	26.54	0.61	1.500			
0.5223	33427.12	3.7770	3.7770	1.8849	26.52	0.59	1.500			
0.5280	33791.52	3.7740	3.7739	1.9267	26.50	0.57	1.500			
0.5339	34168.13	3.7710	3.7709	1.9532	26.48	0.55	1.500	0.354	0.457	
0.5399	34551.26	3.7680	3.7681	1.9711	26.47	0.54	1.500			
0.5458	34929.34	3.7650	3.7650	1.9656	26.45	0.52	1.500			
0.5516	35303.62	3.7620	3.7619	1.9588	26.44	0.51	1.500			
0.5575	35677.99	3.7590	3.7590	1.9300	26.42	0.49	1.500			
0.5633	36050.60	3.7560	3.7560	1.9238	26.40	0.47	1.500			
0.5690	36417.02	3.7530	3.7531	1.9129	26.39	0.46	1.500			
0.5748	36784.21	3.7500	3.7499	1.9029	26.37	0.44	1.500			
0.5804	37146.19	3.7470	3.7470	1.8988	26.36	0.43	1.500			
0.5861	37509.85	3.7440	3.7441	1.9147	26.34	0.41	1.500			
0.5919	37879.88	3.7410	3.7409	1.9294	26.33	0.40	1.500			
0.5976	38247.14	3.7380	3.7380	1.9537	26.32	0.39	1.500			
0.6035	38624.03	3.7350	3.7349	1.9839	26.31	0.38	1.500			
0.6095	39010.73	3.7320	3.7320	2.0140	26.30	0.37	1.500			
0.6156	39398.61	3.7290	3.7290	2.0419	26.29	0.36	1.500			
0.6217	39792.00	3.7260	3.7260	2.0864	26.27	0.34	1.500			
0.6280	40192.85	3.7230	3.7229	2.1510	26.26	0.33	1.500			
0.6347	40618.12	3.7200	3.7200	2.2194	26.25	0.32	1.500			
0.6414	41051.84	3.7170	3.7170	2.2922	26.24	0.31	1.500			
0.6484	41496.29	3.7140	3.7141	2.3403	26.23	0.30	1.500			
0.6555	41952.04	3.7110	3.7110	2.4028	26.22	0.29	1.500			
0.6628	42421.33	3.7080	3.7080	2.4541	26.20	0.27	1.500			
0.6704	42904.64	3.7050	3.7050	2.5507	26.19	0.26	1.500			
0.6781	43396.09	3.7020	3.7019	2.5785	26.17	0.24	1.500			
0.6860	43904.11	3.6990	3.6990	2.5272	26.15	0.22	1.500			
0.6936	44390.92	3.6960	3.6961	2.4300	26.14	0.21	1.500			
0.7007	44843.37	3.6930	3.6929	2.2892	26.13	0.20	1.500			
0.7074	45271.27	3.6900	3.6902	2.1339	26.12	0.19	1.500			
0.7135	45661.66	3.6870	3.6870	1.9737	26.11	0.18	1.500			
0.7191	46022.49	3.6840	3.6840	1.8205	26.11	0.18	1.500			
0.7242	46349.56	3.6810	3.6810	1.6842	26.10	0.17	1.500			
0.7291	46662.59	3.6780	3.6780	1.5905	26.10	0.17	1.500			
0.7337	46954.16	3.6750	3.6750	1.4964	26.09	0.16	1.500			
0.7380	47230.60	3.6720	3.6721	1.4238	26.08	0.15	1.500			
0.7421	47496.41	3.6690	3.6690	1.3650	26.07	0.14	1.500			
0.7460	47745.82	3.6660	3.6659	1.3135	26.06	0.13	1.500			
0.7499	47991.09	3.6630	3.6631	1.2850	26.06	0.13	1.500			
0.7536	48230.55	3.6600	3.6599	1.2700	26.05	0.12	1.500			
0.7574	48472.93	3.6570	3.6570	1.2623	26.04	0.11	1.500			
0.7611	48712.31	3.6540	3.6540	1.2651	26.03	0.10	1.500			
0.7649	48956.75	3.6510	3.6511	1.2704	26.03	0.10	1.500			
0.7688	49201.65	3.6480	3.6480	1.2795	26.02	0.09	1.500			
0.7726	49448.01	3.6450	3.6450	1.2909	26.01	0.08	1.500			
0.7765	49696.91	3.6420	3.6421	1.2901	26.00	0.07	1.500			
0.7804	49945.86	3.6390	3.6390	1.2946	26.00	0.07	1.500			
0.7843	50197.09	3.6360	3.6361	1.2973	25.99	0.06	1.500			
0.7882	50444.92	3.6330	3.6330	1.2916	25.98	0.05	1.500			
0.7921	50694.69	3.6300	3.6300	1.2855	25.98	0.05	1.500			
0.7959	50937.69	3.6270	3.6270	1.2817	25.97	0.04	1.500			
0.7997	51182.33	3.6240	3.6240	1.2772	25.97	0.04	1.500			
0.8036	51428.71	3.6210	3.6210	1.2770	25.96	0.03	1.500			
0.8074	51673.05	3.6180	3.6180	1.2693	25.95	0.02	1.500			
0.8112	51916.48	3.6150	3.6151	1.2673	25.95	0.02	1.500			
0.8150	52161.96	3.6120	3.6120	1.2542	25.94	0.01	1.500			
0.8188	52402.03	3.6090	3.6089	1.2441	25.94	0.01	1.500			
0.8225	52638.66	3.6060	3.6061	1.2272	25.93	-0.00	1.500			
0.8261	52873.14	3.6030	3.6029	1.2116	25.92	-0.01	1.500			
0.8298	53105.90	3.6000	3.6001	1.1959	25.92	-0.01	1.500			
0.8333	53333.99	3.5970	3.5970	1.1780	25.92	-0.01	1.500			
0.8368	53557.58	3.5940	3.5940	1.1602	25.92	-0.01	1.500			
0.8403	53779.73	3.5910	3.5910	1.1433	25.92	-0.01	1.500			
0.8437	53996.11	3.5880	3.5880	1.1263	25.93	-0.00	1.500			
0.8470	54210.83	3.5850	3.5850	1.1138	25.93	-0.00	1.500			
0.8504	54427.92	3.5820	3.5820	1.0842	25.93	-0.00	1.500			
0.8537	54639.89	3.5790	3.5788	1.0466	25.93	0.00	1.500			
0.8569	54843.17	3.5760	3.5760	0.9691	25.93	0.00	1.500			
0.8599	55030.42	3.5730	3.5731	0.8844	25.93	0.00	1.500			
0.8624	55192.49	3.5700	3.5701	0.7694	25.93	0.00	1.500			
0.8645	55328.00	3.5670	3.5670	0.6477	25.93	0.00	1.500			
0.8662	55435.33	3.5640	3.5640	0.5288	25.94	0.01	1.500			
0.8675	55521.20	3.5610	3.5610	0.4441	25.94	0.01	1.500			
0.8686	55591.08	3.5580	3.5580	0.3663	25.94	0.01	1.500			
0.8696	55653.87	3.5550	3.5549	0.3083	25.94	0.01	1.500			
0.8704	55704.75	3.5520	3.5520	0.2670	25.94	0.01	1.500			
0.8711	55750.98	3.5490	3.5490	0.2375	25.94	0.01	1.500			
0.8718	55792.50	3.5460	3.5459	0.2126	25.94	0.01	1.500			
0.8723	55829.28	3.5430	3.5430	0.1888	25.94	0.01	1.500			
0.8729	55863.09	3.5400	3.5399	0.1715	25.94	0.01	1.500			
0.8733	55893.76	3.5370	3.5371	0.1555	25.94	0.01	1.500			
0.8738	55922.12	3.5340	3.5338	0.1403	25.94	0.01	1.500			
0.8742	55947.34	3.5310	3.5310	0.1260	25.94	0.01	1.500			
0.8745	55969.58	3.5280	3.5280	0.1105	25.94	0.01	1.500			
0.8748	55989.34	3.5250	3.5250	0.0966	25.94	0.01	1.500			
0.8751	56007.08	3.5220	3.5220	0.0834	25.94	0.01	1.500			
0.8753	56021.71	3.5190	3.5192	0.0690	25.94	0.01	1.500			
0.8755	56033.61	3.5160	3.5164	0.0544	25.94	0.01	1.500			
0.8757	56042.66	3.5130	3.5136	0.0398	25.94	0.01	1.500			
