Ah_balance (normalized)	Ah_balance (mAh)	Voltage - fit (V)	Voltage -  interpolate (V)	dQ/dV (1/V)	Temperature (°C)	Temperature - diff (°C)	Current (C)	R_DC 0ms (mOhm)	R_DC 50ms (mOhm)	R_DC 50 ms PEC (mOhm)
0.2742	17550.66	3.9920	3.9920	0.8452	27.41	1.43	1.500			
0.2768	17715.41	3.9890	3.9890	0.8557	27.40	1.42	1.500			
0.2794	17878.75	3.9860	3.9860	0.8476	27.40	1.42	1.500			
0.2819	18039.41	3.9830	3.9831	0.8447	27.39	1.41	1.500			
0.2844	18201.54	3.9800	3.9801	0.8426	27.39	1.41	1.500			
0.2869	18361.85	3.9770	3.9769	0.8435	27.38	1.40	1.500			
0.2894	18522.62	3.9740	3.9740	0.8455	27.37	1.39	1.500			
0.2920	18685.76	3.9710	3.9711	0.8502	27.37	1.39	1.500			
0.2946	18851.32	3.9680	3.9679	0.8600	27.36	1.38	1.500			
0.2971	19016.39	3.9650	3.9651	0.8613	27.36	1.38	1.500			
0.2997	19180.82	3.9620	3.9620	0.8634	27.35	1.37	1.500			
0.3023	19348.57	3.9590	3.9590	0.8683	27.34	1.36	1.500			
0.3049	19514.57	3.9560	3.9560	0.8688	27.34	1.36	1.500			
0.3075	19681.34	3.9530	3.9530	0.8772	27.33	1.35	1.500			
0.3102	19851.06	3.9500	3.9500	0.8826	27.33	1.35	1.500			
0.3128	20020.77	3.9470	3.9469	0.8886	27.32	1.34	1.500			
0.3155	20192.80	3.9440	3.9440	0.8929	27.32	1.34	1.500			
0.3182	20364.86	3.9410	3.9410	0.8956	27.31	1.33	1.500			
0.3209	20537.29	3.9380	3.9381	0.9009	27.31	1.33	1.500			
0.3236	20710.39	3.9350	3.9350	0.9051	27.30	1.32	1.500			
0.3263	20883.84	3.9320	3.9319	0.9088	27.30	1.32	1.500			
0.3290	21058.92	3.9290	3.9289	0.9151	27.29	1.31	1.500			
0.3318	21234.66	3.9260	3.9261	0.9197	27.28	1.30	1.500			
0.3346	21412.62	3.9230	3.9230	0.9280	27.28	1.30	1.500			
0.3374	21591.39	3.9200	3.9200	0.9321	27.27	1.29	1.500			
0.3401	21769.59	3.9170	3.9170	0.9395	27.26	1.28	1.500			
0.3430	21951.26	3.9140	3.9140	0.9472	27.26	1.28	1.500			
0.3458	22134.23	3.9110	3.9110	0.9545	27.25	1.27	1.500			
0.3487	22318.73	3.9080	3.9080	0.9587	27.24	1.26	1.500			
0.3516	22503.19	3.9050	3.9050	0.9671	27.23	1.25	1.500			
0.3545	22689.62	3.9020	3.9020	0.9714	27.23	1.25	1.500			
0.3574	22875.69	3.8990	3.8990	0.9789	27.22	1.24	1.500			
0.3604	23062.86	3.8960	3.8960	0.9880	27.21	1.23	1.500			
0.3634	23255.04	3.8930	3.8930	0.9970	27.20	1.22	1.500			
0.3664	23446.66	3.8900	3.8900	1.0061	27.19	1.21	1.500			
0.3694	23641.85	3.8870	3.8870	1.0140	27.18	1.20	1.500			
0.3724	23835.83	3.8840	3.8840	1.0216	27.18	1.20	1.500			
0.3755	24032.68	3.8810	3.8810	1.0322	27.17	1.19	1.500			
0.3786	24230.60	3.8780	3.8781	1.0412	27.16	1.18	1.500			
0.3817	24430.76	3.8750	3.8749	1.0522	27.15	1.17	1.500			
0.3849	24635.29	3.8720	3.8721	1.0624	27.14	1.16	1.500			
0.3881	24840.51	3.8690	3.8689	1.0724	27.13	1.15	1.500			
0.3914	25047.65	3.8660	3.8661	1.0892	27.12	1.14	1.500			
0.3946	25256.72	3.8630	3.8630	1.1043	27.11	1.13	1.500			
0.3980	25469.42	3.8600	3.8600	1.1179	27.10	1.12	1.500			
0.4013	25686.16	3.8570	3.8571	1.1338	27.08	1.10	1.500			
0.4048	25905.31	3.8540	3.8540	1.1507	27.07	1.09	1.500			
0.4083	26128.94	3.8510	3.8510	1.1659	27.06	1.08	1.500			
0.4118	26354.71	3.8480	3.8480	1.1736	27.05	1.07	1.500			
0.4153	26579.53	3.8450	3.8450	1.1918	27.03	1.05	1.500			
0.4189	26809.48	3.8420	3.8421	1.2035	27.02	1.04	1.500			
0.4225	27042.36	3.8390	3.8390	1.2215	27.01	1.03	1.500			
0.4262	27275.64	3.8360	3.8361	1.2468	27.00	1.02	1.500			
0.4299	27515.11	3.8330	3.8330	1.2717	26.98	1.00	1.500			
0.4338	27764.81	3.8300	3.8299	1.2951	26.97	0.99	1.500			
0.4378	28017.67	3.8270	3.8269	1.3209	26.96	0.98	1.500			
0.4418	28272.99	3.8240	3.8241	1.3454	26.95	0.97	1.500			
0.4458	28534.34	3.8210	3.8211	1.3720	26.93	0.95	1.500			
0.4500	28798.75	3.8180	3.8179	1.3906	26.92	0.94	1.500			
0.4541	29065.27	3.8150	3.8150	1.4177	26.91	0.93	1.500			
0.4585	29342.70	3.8120	3.8120	1.4316	26.89	0.91	1.500			
0.4628	29620.17	3.8090	3.8089	1.4584	26.88	0.90	1.500			
0.4672	29902.23	3.8060	3.8061	1.4782	26.86	0.88	1.500			
0.4717	30187.13	3.8030	3.8029	1.4957	26.85	0.87	1.500			
0.4762	30475.67	3.8000	3.8000	1.5162	26.84	0.86	1.500			
0.4807	30767.49	3.7970	3.7971	1.5409	26.82	0.84	1.500			
0.4854	31066.93	3.7940	3.7940	1.5608	26.81	0.83	1.500			
0.4902	31371.36	3.7910	3.7910	1.6103	26.79	0.81	1.500			
0.4950	31680.56	3.7880	3.7880	1.6396	26.77	0.79	1.500			
0.5000	32001.45	3.7850	3.7846	1.6637	26.76	0.78	1.499	0.349	0.482	
0.5051	32325.84	3.7820	3.7821	1.6753	26.74	0.76	1.500			
0.5102	32650.99	3.7790	3.7790	1.6871	26.73	0.75	1.500			
0.5152	32972.26	3.7760	3.7760	1.6886	26.71	0.73	1.500			
0.5202	33292.96	3.7730	3.7730	1.6900	26.69	0.71	1.500			
0.5253	33619.96	3.7700	3.7700	1.7027	26.68	0.70	1.500			
0.5304	33948.63	3.7670	3.7671	1.7036	26.67	0.69	1.500			
0.5356	34276.49	3.7640	3.7640	1.7106	26.65	0.67	1.500			
0.5407	34603.21	3.7610	3.7610	1.7063	26.64	0.66	1.500			
0.5458	34929.56	3.7580	3.7580	1.7205	26.63	0.65	1.500			
0.5510	35261.91	3.7550	3.7550	1.7420	26.62	0.64	1.500			
0.5562	35597.56	3.7520	3.7521	1.7648	26.60	0.62	1.500			
0.5616	35941.60	3.7490	3.7490	1.7726	26.59	0.61	1.500			
0.5668	36275.94	3.7460	3.7461	1.8069	26.58	0.60	1.500			
0.5723	36629.49	3.7430	3.7430	1.8511	26.57	0.59	1.500			
0.5780	36989.44	3.7400	3.7400	1.8917	26.55	0.57	1.500			
0.5837	37358.65	3.7370	3.7371	1.9237	26.53	0.55	1.500			
0.5896	37731.95	3.7340	3.7340	1.9671	26.51	0.53	1.500			
0.5955	38109.57	3.7310	3.7310	2.0262	26.49	0.51	1.500			
0.6017	38506.76	3.7280	3.7280	2.0981	26.48	0.50	1.500			
0.6081	38919.29	3.7250	3.7250	2.1391	26.46	0.48	1.500			
0.6146	39335.97	3.7220	3.7220	2.1987	26.44	0.46	1.500			
0.6212	39757.54	3.7190	3.7190	2.2334	26.43	0.45	1.500			
0.6280	40189.25	3.7160	3.7160	2.2924	26.41	0.43	1.500			
0.6349	40636.67	3.7130	3.7130	2.3299	26.40	0.42	1.500			
0.6421	41091.66	3.7100	3.7100	2.3248	26.38	0.40	1.500			
0.6491	41541.76	3.7070	3.7070	2.2540	26.36	0.38	1.500			
0.6557	41964.66	3.7040	3.7041	2.1209	26.35	0.37	1.500			
0.6619	42358.97	3.7010	3.7010	1.9677	26.33	0.35	1.500			
0.6674	42715.76	3.6980	3.6980	1.8358	26.32	0.34	1.500			
0.6727	43054.20	3.6950	3.6950	1.7220	26.30	0.32	1.500			
0.6777	43375.13	3.6920	3.6920	1.6243	26.29	0.31	1.500			
0.6824	43672.90	3.6890	3.6890	1.5407	26.28	0.30	1.500			
0.6869	43959.41	3.6860	3.6860	1.4666	26.27	0.29	1.500			
0.6911	44233.24	3.6830	3.6829	1.4059	26.26	0.28	1.500			
0.6952	44491.48	3.6800	3.6801	1.3569	26.25	0.27	1.500			
0.6992	44746.49	3.6770	3.6769	1.3256	26.24	0.26	1.500			
0.7030	44995.01	3.6740	3.6740	1.3071	26.23	0.25	1.500			
0.7069	45243.87	3.6710	3.6711	1.2904	26.22	0.24	1.500			
0.7108	45490.05	3.6680	3.6679	1.2759	26.20	0.22	1.500			
0.7146	45733.21	3.6650	3.6651	1.2749	26.19	0.21	1.500			
0.7183	45973.49	3.6620	3.6621	1.2727	26.18	0.20	1.500			
0.7222	46217.84	3.6590	3.6590	1.2705	26.17	0.19	1.500			
0.7260	46462.48	3.6560	3.6559	1.2679	26.16	0.18	1.500			
0.7298	46706.72	3.6530	3.6531	1.2638	26.14	0.16	1.500			
0.7336	46952.63	3.6500	3.6501	1.2633	26.13	0.15	1.500			
0.7374	47195.17	3.6470	3.6470	1.2519	26.12	0.14	1.500			
0.7411	47433.01	3.6440	3.6440	1.2386	26.11	0.13	1.500			
0.7448	47667.65	3.6410	3.6410	1.2233	26.10	0.12	1.500			
0.7485	47902.92	3.6380	3.6380	1.2190	26.08	0.10	1.500			
0.7521	48136.28	3.6350	3.6350	1.2088	26.07	0.09	1.500			
0.7557	48367.53	3.6320	3.6319	1.1953	26.07	0.09	1.500			
0.7593	48595.65	3.6290	3.6291	1.1856	26.06	0.08	1.500			
0.7629	48822.84	3.6260	3.6260	1.1725	26.05	0.07	1.500			
0.7664	49047.40	3.6230	3.6230	1.1597	26.04	0.06	1.500			
0.7698	49269.70	3.6200	3.6200	1.1470	26.03	0.05	1.500			
0.7732	49487.99	3.6170	3.6170	1.1303	26.02	0.04	1.500			
0.7766	49704.81	3.6140	3.6140	1.1114	26.02	0.04	1.500			
0.7800	49918.00	3.6110	3.6109	1.0874	26.01	0.03	1.500			
0.7832	50124.24	3.6080	3.6080	1.0577	26.01	0.03	1.500			
0.7863	50324.79	3.6050	3.6051	1.0292	26.00	0.02	1.500			
0.7894	50520.45	3.6020	3.6019	0.9986	26.00	0.02	1.500			
0.7923	50709.87	3.5990	3.5990	0.9628	25.99	0.01	1.500			
0.7952	50892.17	3.5960	3.5960	0.9248	25.99	0.01	1.500			
0.7980	51070.80	3.5930	3.5930	0.8787	25.98	0.00	1.500			
0.8006	51236.64	3.5900	3.5900	0.8181	25.98	-0.00	1.500			
0.8030	51391.52	3.5870	3.5870	0.7434	25.97	-0.01	1.500			
0.8051	51527.44	3.5840	3.5841	0.6575	25.97	-0.01	1.500			
0.8070	51646.27	3.5810	3.5810	0.5744	25.97	-0.01	1.500			
0.8085	51746.56	3.5780	3.5780	0.4884	25.97	-0.01	1.500			
0.8098	51828.31	3.5750	3.5749	0.4120	25.96	-0.02	1.500			
0.8109	51897.74	3.5720	3.5720	0.3534	25.96	-0.02	1.500			
0.8118	51956.06	3.5690	3.5689	0.3033	25.96	-0.02	1.500			
0.8126	52008.03	3.5660	3.5660	0.2668	25.96	-0.02	1.500			
0.8133	52053.15	3.5630	3.5629	0.2315	25.96	-0.02	1.500			
0.8140	52093.04	3.5600	3.5600	0.2078	25.96	-0.02	1.500			
0.8145	52130.01	3.5570	3.5571	0.1871	25.96	-0.02	1.500			
0.8151	52163.65	3.5540	3.5540	0.1678	25.96	-0.02	1.500			
0.8155	52193.97	3.5510	3.5510	0.1521	25.95	-0.03	1.500			
0.8160	52221.45	3.5480	3.5480	0.1357	25.95	-0.03	1.500			
0.8163	52245.48	3.5450	3.5449	0.1201	25.95	-0.03	1.500			
0.8167	52267.09	3.5420	3.5419	0.1052	25.95	-0.03	1.500			
0.8170	52285.87	3.5390	3.5390	0.0905	25.95	-0.03	1.500			
0.8172	52301.48	3.5360	3.5362	0.0756	25.95	-0.03	1.500			
0.8174	52315.31	3.5330	3.5331	0.0611	25.95	-0.03	1.500			
0.8176	52325.54	3.5300	3.5305	0.0455	25.95	-0.03	1.500			
0.8177	52332.80	3.5270	3.5281	0.0300	25.95	-0.03	1.500			
