Ah_balance (normalized)	Ah_balance (mAh)	Voltage - fit (V)	Voltage -  interpolate (V)	dQ/dV (1/V)	Temperature (°C)	Temperature - diff (°C)	Current (C)	R_DC 0ms (mOhm)	R_DC 50ms (mOhm)	R_DC 50 ms PEC (mOhm)
0.2018	12917.98	3.9110	3.9109	-0.1323	25.96	0.01	-1.500			
0.2023	12947.59	3.9080	3.9079	-0.1702	25.96	0.01	-1.500			
0.2029	12984.35	3.9050	3.9049	-0.2043	25.96	0.01	-1.500			
0.2035	13027.18	3.9020	3.9021	-0.2362	25.96	0.01	-1.500			
0.2043	13075.58	3.8990	3.8990	-0.2686	25.96	0.01	-1.500			
0.2052	13130.96	3.8960	3.8960	-0.3006	25.95	0.00	-1.500			
0.2061	13191.46	3.8930	3.8930	-0.3309	25.95	0.00	-1.500			
0.2072	13257.92	3.8900	3.8900	-0.3627	25.95	0.00	-1.500			
0.2083	13330.57	3.8870	3.8870	-0.3921	25.95	0.00	-1.500			
0.2095	13408.86	3.8840	3.8840	-0.4255	25.95	0.00	-1.500			
0.2108	13493.68	3.8810	3.8810	-0.4553	25.95	0.00	-1.500			
0.2123	13584.14	3.8780	3.8780	-0.4854	25.95	0.00	-1.500			
0.2138	13680.34	3.8750	3.8751	-0.5162	25.95	0.00	-1.500			
0.2154	13783.16	3.8720	3.8720	-0.5434	25.95	0.00	-1.500			
0.2170	13890.09	3.8690	3.8690	-0.5711	25.95	0.00	-1.500			
0.2188	14003.08	3.8660	3.8660	-0.5976	25.95	-0.00	-1.500			
0.2206	14119.49	3.8630	3.8630	-0.6227	25.95	-0.00	-1.500			
0.2225	14242.51	3.8600	3.8600	-0.6475	25.95	-0.00	-1.500			
0.2245	14368.90	3.8570	3.8570	-0.6700	25.95	-0.00	-1.500			
0.2266	14501.27	3.8540	3.8540	-0.6871	25.95	-0.00	-1.500			
0.2287	14635.61	3.8510	3.8510	-0.7047	25.95	-0.00	-1.500			
0.2308	14773.33	3.8480	3.8480	-0.7169	25.94	-0.01	-1.500			
0.2330	14912.05	3.8450	3.8450	-0.7311	25.94	-0.01	-1.500			
0.2352	15053.79	3.8420	3.8420	-0.7405	25.94	-0.01	-1.500			
0.2375	15197.77	3.8390	3.8389	-0.7481	25.94	-0.01	-1.500			
0.2397	15342.53	3.8360	3.8360	-0.7543	25.94	-0.01	-1.500			
0.2420	15488.41	3.8330	3.8332	-0.7621	25.94	-0.01	-1.500			
0.2443	15635.59	3.8300	3.8299	-0.7655	25.94	-0.01	-1.500			
0.2466	15784.08	3.8270	3.8269	-0.7645	25.95	-0.00	-1.500			
0.2489	15929.59	3.8240	3.8241	-0.7625	25.95	-0.00	-1.500			
0.2512	16076.20	3.8210	3.8212	-0.7669	25.95	0.00	-1.500			
0.2535	16223.73	3.8180	3.8179	-0.7753	25.95	0.00	-1.500			
0.2558	16372.13	3.8150	3.8149	-0.7809	25.96	0.01	-1.500			
0.2581	16520.92	3.8120	3.8120	-0.7862	25.96	0.01	-1.500			
0.2605	16673.85	3.8090	3.8091	-0.7942	25.96	0.01	-1.500			
0.2630	16830.03	3.8060	3.8060	-0.8041	25.96	0.01	-1.500			
0.2654	16984.95	3.8030	3.8030	-0.8037	25.97	0.02	-1.500			
0.2678	17138.64	3.8000	3.8000	-0.8030	25.97	0.02	-1.500			
0.2702	17292.45	3.7970	3.7971	-0.8043	25.98	0.03	-1.500			
0.2726	17447.44	3.7940	3.7940	-0.8048	25.98	0.03	-1.500			
0.2750	17601.41	3.7910	3.7910	-0.8085	25.99	0.04	-1.500			
0.2775	17756.80	3.7880	3.7880	-0.8109	25.99	0.04	-1.500			
0.2799	17912.21	3.7850	3.7850	-0.8121	26.00	0.05	-1.500			
0.2823	18068.18	3.7820	3.7820	-0.8190	26.00	0.05	-1.500			
0.2848	18226.92	3.7790	3.7790	-0.8167	26.01	0.06	-1.500			
0.2872	18383.90	3.7760	3.7760	-0.8175	26.01	0.06	-1.500			
0.2897	18541.10	3.7730	3.7729	-0.8186	26.02	0.07	-1.500			
0.2922	18697.65	3.7700	3.7704	-0.8178	26.02	0.07	-1.500			
0.2946	18855.17	3.7670	3.7669	-0.8206	26.03	0.08	-1.500			
0.2971	19013.37	3.7640	3.7640	-0.8189	26.03	0.08	-1.500			
0.2995	19169.70	3.7610	3.7611	-0.8202	26.04	0.09	-1.500			
0.3020	19328.47	3.7580	3.7579	-0.8242	26.04	0.09	-1.500			
0.3045	19485.46	3.7550	3.7550	-0.8202	26.05	0.10	-1.500			
0.3069	19641.69	3.7520	3.7519	-0.8209	26.06	0.11	-1.500			
0.3094	19799.38	3.7490	3.7490	-0.8231	26.06	0.11	-1.500			
0.3118	19958.11	3.7460	3.7460	-0.8243	26.07	0.12	-1.500			
0.3143	20118.22	3.7430	3.7430	-0.8204	26.07	0.12	-1.500			
0.3168	20275.85	3.7400	3.7400	-0.8148	26.08	0.13	-1.500			
0.3192	20431.12	3.7370	3.7371	-0.8192	26.08	0.13	-1.500			
0.3217	20587.27	3.7340	3.7340	-0.8171	26.09	0.14	-1.500			
0.3241	20744.08	3.7310	3.7309	-0.8162	26.10	0.15	-1.500			
0.3266	20900.48	3.7280	3.7281	-0.8179	26.10	0.15	-1.500			
0.3290	21058.42	3.7250	3.7251	-0.8218	26.11	0.16	-1.500			
0.3315	21217.67	3.7220	3.7220	-0.8217	26.11	0.16	-1.500			
0.3340	21374.62	3.7190	3.7189	-0.8240	26.12	0.17	-1.500			
0.3364	21531.61	3.7160	3.7160	-0.8239	26.13	0.18	-1.500			
0.3389	21690.24	3.7130	3.7130	-0.8275	26.13	0.18	-1.500			
0.3414	21848.73	3.7100	3.7101	-0.8335	26.14	0.19	-1.500			
0.3439	22009.60	3.7070	3.7070	-0.8382	26.14	0.19	-1.500			
0.3464	22171.92	3.7040	3.7039	-0.8410	26.15	0.20	-1.500			
0.3490	22333.76	3.7010	3.7010	-0.8482	26.16	0.21	-1.500			
0.3515	22496.24	3.6980	3.6981	-0.8504	26.16	0.21	-1.500			
0.3541	22661.13	3.6950	3.6950	-0.8575	26.17	0.22	-1.500			
0.3567	22825.81	3.6920	3.6920	-0.8684	26.17	0.22	-1.500			
0.3592	22990.85	3.6890	3.6890	-0.8765	26.18	0.23	-1.500			
0.3619	23162.20	3.6860	3.6859	-0.8875	26.19	0.24	-1.500			
0.3646	23334.01	3.6830	3.6831	-0.9016	26.19	0.24	-1.500			
0.3673	23506.18	3.6800	3.6801	-0.9143	26.20	0.25	-1.500			
0.3701	23684.25	3.6770	3.6770	-0.9287	26.20	0.25	-1.500			
0.3729	23863.74	3.6740	3.6739	-0.9382	26.20	0.25	-1.500			
0.3757	24043.74	3.6710	3.6710	-0.9519	26.21	0.26	-1.500			
0.3786	24228.31	3.6680	3.6682	-0.9703	26.21	0.26	-1.500			
0.3815	24415.22	3.6650	3.6650	-0.9944	26.21	0.26	-1.500			
0.3845	24607.82	3.6620	3.6619	-1.0058	26.21	0.26	-1.500			
0.3875	24802.68	3.6590	3.6590	-1.0261	26.22	0.27	-1.500			
0.3907	25002.18	3.6560	3.6560	-1.0496	26.22	0.27	-1.500			
0.3938	25204.96	3.6530	3.6529	-1.0729	26.22	0.27	-1.500			
0.3971	25412.19	3.6500	3.6500	-1.0916	26.22	0.27	-1.500			
0.4004	25623.32	3.6470	3.6469	-1.1166	26.23	0.28	-1.500			
0.4037	25836.76	3.6440	3.6441	-1.1462	26.23	0.28	-1.500			
0.4073	26064.58	3.6410	3.6409	-1.1738	26.23	0.28	-1.500			
0.4108	26293.06	3.6380	3.6380	-1.1952	26.23	0.28	-1.500			
0.4145	26525.06	3.6350	3.6349	-1.2174	26.24	0.29	-1.500			
0.4181	26758.99	3.6320	3.6321	-1.2429	26.24	0.29	-1.500			
0.4219	27000.15	3.6290	3.6290	-1.2739	26.24	0.29	-1.500			
0.4257	27244.42	3.6260	3.6260	-1.3043	26.24	0.29	-1.500			
0.4296	27496.74	3.6230	3.6229	-1.3354	26.24	0.29	-1.500			
0.4338	27763.20	3.6200	3.6200	-1.3727	26.23	0.28	-1.500			
0.4380	28030.08	3.6170	3.6170	-1.4052	26.23	0.28	-1.500			
0.4422	28302.16	3.6140	3.6141	-1.4287	26.23	0.28	-1.500			
0.4465	28578.65	3.6110	3.6110	-1.4535	26.22	0.27	-1.500			
0.4509	28854.97	3.6080	3.6079	-1.4910	26.22	0.27	-1.500			
0.4554	29145.81	3.6050	3.6050	-1.5191	26.21	0.26	-1.500			
0.4600	29443.18	3.6020	3.6019	-1.5535	26.21	0.26	-1.500			
0.4648	29744.91	3.5990	3.5989	-1.5778	26.20	0.25	-1.500			
0.4695	30050.83	3.5960	3.5959	-1.6008	26.20	0.25	-1.500			
0.4744	30361.41	3.5930	3.5930	-1.6275	26.20	0.25	-1.500			
0.4793	30674.92	3.5900	3.5900	-1.6419	26.20	0.25	-1.500			
0.4842	30988.71	3.5870	3.5870	-1.6589	26.20	0.25	-1.500			
0.4893	31313.35	3.5840	3.5840	-1.6975	26.20	0.25	-1.500			
0.4944	31640.77	3.5810	3.5810	-1.7208	26.20	0.25	-1.500			
0.4996	31971.79	3.5780	3.5779	-1.7600	26.19	0.24	-1.500			
0.5049	32312.33	3.5750	3.5750	-1.7836	26.19	0.24	-1.500			
0.5103	32660.58	3.5720	3.5720	-1.8107	26.19	0.24	-1.500			
0.5159	33015.71	3.5690	3.5691	-1.8421	26.18	0.23	-1.500			
0.5214	33369.92	3.5660	3.5659	-1.8497	26.18	0.23	-1.500			
0.5269	33724.68	3.5630	3.5631	-1.8751	26.17	0.22	-1.500			
0.5326	34086.42	3.5600	3.5599	-1.8974	26.17	0.22	-1.500			
0.5383	34453.03	3.5570	3.5569	-1.9174	26.16	0.21	-1.500			
0.5441	34822.37	3.5540	3.5541	-1.9492	26.16	0.21	-1.500			
0.5500	35200.49	3.5510	3.5510	-1.9908	26.15	0.20	-1.500			
0.5561	35588.86	3.5480	3.5479	-2.0009	26.15	0.20	-1.500			
0.5621	35972.88	3.5450	3.5449	-2.0107	26.14	0.19	-1.500	0.390	0.500	
0.5682	36365.17	3.5420	3.5421	-2.0234	26.14	0.19	-1.500			
0.5743	36755.38	3.5390	3.5389	-2.0319	26.14	0.19	-1.500			
0.5803	37141.14	3.5360	3.5360	-2.0186	26.14	0.19	-1.500			
0.5864	37532.42	3.5330	3.5330	-2.0083	26.14	0.19	-1.500			
0.5925	37920.95	3.5300	3.5302	-1.9990	26.14	0.19	-1.500			
0.5985	38303.03	3.5270	3.5270	-2.0069	26.15	0.20	-1.500			
0.6045	38688.73	3.5240	3.5239	-1.9950	26.15	0.20	-1.500			
0.6105	39072.18	3.5210	3.5208	-1.9648	26.15	0.20	-1.500			
0.6164	39451.46	3.5180	3.5182	-1.9553	26.16	0.21	-1.500			
0.6223	39824.77	3.5150	3.5150	-1.9488	26.16	0.21	-1.500			
0.6281	40196.17	3.5120	3.5119	-1.9268	26.17	0.22	-1.500			
0.6337	40557.74	3.5090	3.5090	-1.8783	26.17	0.22	-1.500			
0.6395	40925.05	3.5060	3.5060	-1.8951	26.18	0.23	-1.500			
0.6452	41290.75	3.5030	3.5030	-1.8789	26.18	0.23	-1.500			
0.6508	41651.07	3.5000	3.4999	-1.8685	26.19	0.24	-1.500			
0.6564	42007.94	3.4970	3.4970	-1.8429	26.20	0.25	-1.500			
0.6618	42355.62	3.4940	3.4940	-1.8241	26.21	0.26	-1.500			
0.6673	42707.90	3.4910	3.4912	-1.8144	26.22	0.27	-1.500			
0.6727	43053.92	3.4880	3.4880	-1.8023	26.23	0.28	-1.500			
0.6781	43398.42	3.4850	3.4849	-1.7834	26.24	0.29	-1.500			
0.6834	43739.52	3.4820	3.4821	-1.7709	26.25	0.30	-1.500			
0.6887	44079.39	3.4790	3.4789	-1.7560	26.26	0.31	-1.500			
0.6940	44414.88	3.4760	3.4761	-1.7355	26.27	0.32	-1.500			
0.6991	44744.07	3.4730	3.4730	-1.7124	26.28	0.33	-1.500			
0.7043	45075.46	3.4700	3.4700	-1.6864	26.29	0.34	-1.500			
0.7093	45395.73	3.4670	3.4670	-1.6608	26.30	0.35	-1.500			
0.7143	45712.16	3.4640	3.4640	-1.6419	26.31	0.36	-1.500			
0.7191	46023.31	3.4610	3.4610	-1.6157	26.32	0.37	-1.500			
0.7239	46332.42	3.4580	3.4579	-1.5944	26.34	0.39	-1.500			
0.7287	46636.11	3.4550	3.4550	-1.5686	26.35	0.40	-1.500			
0.7334	46934.48	3.4520	3.4521	-1.5428	26.36	0.41	-1.500			
0.7380	47231.88	3.4490	3.4490	-1.5253	26.37	0.42	-1.500			
0.7425	47520.53	3.4460	3.4460	-1.4938	26.38	0.43	-1.500			
0.7470	47805.41	3.4430	3.4429	-1.4678	26.40	0.45	-1.500			
0.7512	48079.98	3.4400	3.4401	-1.4565	26.41	0.46	-1.500			
0.7556	48358.77	3.4370	3.4370	-1.4448	26.43	0.48	-1.500			
0.7599	48635.58	3.4340	3.4339	-1.4347	26.44	0.49	-1.500			
0.7642	48909.91	3.4310	3.4309	-1.4261	26.46	0.51	-1.500			
0.7685	49182.36	3.4280	3.4282	-1.4235	26.47	0.52	-1.500			
0.7728	49456.93	3.4250	3.4249	-1.4168	26.49	0.54	-1.500			
0.7770	49726.63	3.4220	3.4220	-1.4163	26.51	0.56	-1.500			
0.7812	49998.78	3.4190	3.4189	-1.3883	26.52	0.57	-1.500			
0.7854	50268.49	3.4160	3.4160	-1.3786	26.54	0.59	-1.500			
0.7896	50533.80	3.4130	3.4129	-1.3596	26.55	0.60	-1.500			
0.7936	50792.47	3.4100	3.4100	-1.3275	26.57	0.62	-1.500			
0.7976	51045.19	3.4070	3.4069	-1.2863	26.58	0.63	-1.500			
0.8014	51288.69	3.4040	3.4040	-1.2508	26.60	0.65	-1.500			
0.8051	51523.52	3.4010	3.4011	-1.2085	26.62	0.67	-1.500			
0.8087	51757.15	3.3980	3.3979	-1.1743	26.63	0.68	-1.500			
0.8122	51977.78	3.3950	3.3949	-1.1226	26.65	0.70	-1.500			
0.8154	52188.16	3.3920	3.3921	-1.0747	26.66	0.71	-1.500			
0.8186	52391.23	3.3890	3.3890	-1.0307	26.68	0.73	-1.500			
0.8216	52583.75	3.3860	3.3860	-0.9872	26.69	0.74	-1.500			
0.8245	52765.60	3.3830	3.3829	-0.9411	26.70	0.75	-1.500			
0.8272	52942.49	3.3800	3.3800	-0.9030	26.71	0.76	-1.500			
0.8299	53112.01	3.3770	3.3770	-0.8671	26.72	0.77	-1.500			
0.8324	53274.95	3.3740	3.3741	-0.8384	26.73	0.78	-1.500			
0.8349	53432.56	3.3710	3.3710	-0.8070	26.74	0.79	-1.500			
0.8373	53584.39	3.3680	3.3679	-0.7758	26.75	0.80	-1.500			
0.8395	53730.25	3.3650	3.3650	-0.7467	26.76	0.81	-1.500			
0.8417	53870.55	3.3620	3.3621	-0.7186	26.77	0.82	-1.500			
0.8438	54005.65	3.3590	3.3589	-0.6950	26.78	0.83	-1.500			
0.8459	54136.40	3.3560	3.3560	-0.6667	26.79	0.84	-1.500			
0.8478	54260.77	3.3530	3.3530	-0.6435	26.79	0.84	-1.500			
0.8497	54381.83	3.3500	3.3501	-0.6234	26.80	0.85	-1.500			
0.8516	54499.89	3.3470	3.3470	-0.6031	26.81	0.86	-1.500			
0.8533	54612.75	3.3440	3.3440	-0.5848	26.82	0.87	-1.500			
0.8550	54722.32	3.3410	3.3410	-0.5689	26.83	0.88	-1.500			
0.8567	54829.76	3.3380	3.3379	-0.5542	26.83	0.88	-1.500			
0.8584	54936.61	3.3350	3.3350	-0.5371	26.84	0.89	-1.500			
0.8600	55037.72	3.3320	3.3321	-0.5168	26.85	0.90	-1.500			
0.8615	55135.44	3.3290	3.3291	-0.5016	26.85	0.90	-1.500			
0.8630	55230.26	3.3260	3.3259	-0.4843	26.86	0.91	-1.500			
0.8644	55318.81	3.3230	3.3230	-0.4667	26.87	0.92	-1.500			
0.8657	55406.97	3.3200	3.3199	-0.4537	26.87	0.92	-1.500			
0.8671	55493.64	3.3170	3.3172	-0.4412	26.88	0.93	-1.500			
0.8684	55578.35	3.3140	3.3139	-0.4282	26.89	0.94	-1.500			
0.8697	55659.19	3.3110	3.3111	-0.4137	26.89	0.94	-1.500			
0.8709	55736.63	3.3080	3.3080	-0.3987	26.90	0.95	-1.500			
0.8720	55810.72	3.3050	3.3050	-0.3850	26.90	0.95	-1.500			
0.8732	55882.84	3.3020	3.3019	-0.3716	26.91	0.96	-1.500			
0.8743	55953.19	3.2990	3.2990	-0.3600	26.92	0.97	-1.500			
0.8753	56021.06	3.2960	3.2959	-0.3491	26.92	0.97	-1.500			
0.8764	56087.67	3.2930	3.2931	-0.3388	26.93	0.98	-1.500			
0.8774	56151.25	3.2900	3.2900	-0.3274	26.93	0.98	-1.500			
0.8783	56212.97	3.2870	3.2869	-0.3151	26.94	0.99	-1.500			
0.8793	56272.36	3.2840	3.2840	-0.3054	26.94	0.99	-1.500			
0.8801	56329.30	3.2810	3.2810	-0.2962	26.95	1.00	-1.500			
0.8810	56385.32	3.2780	3.2780	-0.2867	26.95	1.00	-1.500			
0.8819	56439.31	3.2750	3.2750	-0.2774	26.95	1.00	-1.500			
0.8827	56491.94	3.2720	3.2720	-0.2693	26.96	1.01	-1.500			
0.8835	56542.99	3.2690	3.2691	-0.2602	26.96	1.01	-1.500			
0.8843	56592.15	3.2660	3.2659	-0.2534	26.97	1.02	-1.500			
0.8850	56639.32	3.2630	3.2631	-0.2470	26.97	1.02	-1.500			
0.8857	56685.59	3.2600	3.2599	-0.2403	26.97	1.02	-1.500			
0.8864	56731.59	3.2570	3.2570	-0.2352	26.98	1.03	-1.500			
0.8871	56776.26	3.2540	3.2543	-0.2294	26.98	1.03	-1.500			
0.8878	56820.19	3.2510	3.2509	-0.2236	26.98	1.03	-1.500			
0.8885	56862.94	3.2480	3.2480	-0.2173	26.99	1.04	-1.500			
0.8891	56903.41	3.2450	3.2450	-0.2102	26.99	1.04	-1.500			
0.8897	56942.73	3.2420	3.2421	-0.2044	27.00	1.05	-1.500			
0.8903	56981.13	3.2390	3.2389	-0.1996	27.00	1.05	-1.500			
0.8909	57019.05	3.2360	3.2360	-0.1954	27.00	1.05	-1.500			
0.8915	57055.91	3.2330	3.2330	-0.1907	27.01	1.06	-1.500			
0.8921	57091.91	3.2300	3.2300	-0.1869	27.01	1.06	-1.500			
0.8926	57127.72	3.2270	3.2270	-0.1840	27.01	1.06	-1.500			
0.8932	57162.70	3.2240	3.2240	-0.1802	27.02	1.07	-1.500			
0.8937	57197.05	3.2210	3.2209	-0.1758	27.02	1.07	-1.500			
0.8942	57230.24	3.2180	3.2181	-0.1720	27.03	1.08	-1.500			
0.8947	57262.89	3.2150	3.2150	-0.1682	27.03	1.08	-1.500			
0.8952	57294.70	3.2120	3.2120	-0.1647	27.03	1.08	-1.500			
0.8957	57325.89	3.2090	3.2089	-0.1619	27.04	1.09	-1.500			
0.8962	57356.28	3.2060	3.2060	-0.1586	27.04	1.09	-1.500			
0.8967	57386.53	3.2030	3.2031	-0.1565	27.05	1.10	-1.500			
0.8971	57416.37	3.2000	3.1998	-0.1541	27.05	1.10	-1.500			
0.8976	57446.01	3.1970	3.1970	-0.1517	27.05	1.10	-1.500			
0.8980	57474.88	3.1940	3.1940	-0.1488	27.06	1.11	-1.500			
0.8985	57503.18	3.1910	3.1910	-0.1460	27.06	1.11	-1.500			
0.8989	57530.97	3.1880	3.1881	-0.1441	27.06	1.11	-1.500			
0.8993	57558.31	3.1850	3.1850	-0.1412	27.07	1.12	-1.500			
0.8998	57584.76	3.1820	3.1820	-0.1394	27.07	1.12	-1.500			
0.9002	57611.40	3.1790	3.1789	-0.1381	27.07	1.12	-1.500			
0.9006	57637.70	3.1760	3.1761	-0.1363	27.08	1.13	-1.500			
0.9010	57663.82	3.1730	3.1729	-0.1348	27.08	1.13	-1.500			
0.9014	57689.62	3.1700	3.1700	-0.1334	27.08	1.13	-1.500			
0.9018	57715.02	3.1670	3.1672	-0.1320	27.09	1.14	-1.500			
0.9022	57740.15	3.1640	3.1640	-0.1305	27.09	1.14	-1.500			
0.9026	57765.43	3.1610	3.1610	-0.1289	27.09	1.14	-1.500			
0.9030	57789.63	3.1580	3.1579	-0.1263	27.10	1.15	-1.500			
0.9033	57813.79	3.1550	3.1552	-0.1245	27.10	1.15	-1.500			
0.9037	57837.49	3.1520	3.1520	-0.1238	27.10	1.15	-1.500			
0.9041	57860.97	3.1490	3.1490	-0.1221	27.11	1.16	-1.500			
0.9044	57884.36	3.1460	3.1459	-0.1207	27.11	1.16	-1.500			
0.9048	57907.19	3.1430	3.1430	-0.1191	27.11	1.16	-1.500			
0.9052	57929.95	3.1400	3.1402	-0.1186	27.12	1.17	-1.500			
0.9055	57952.78	3.1370	3.1370	-0.1181	27.12	1.17	-1.500			
0.9059	57975.50	3.1340	3.1339	-0.1166	27.12	1.17	-1.500			
0.9062	57997.90	3.1310	3.1310	-0.1154	27.13	1.18	-1.500			
0.9066	58019.76	3.1280	3.1280	-0.1138	27.13	1.18	-1.500			
0.9069	58041.51	3.1250	3.1251	-0.1127	27.13	1.18	-1.500			
0.9072	58063.07	3.1220	3.1220	-0.1121	27.14	1.19	-1.500			
0.9076	58084.48	3.1190	3.1188	-0.1109	27.14	1.19	-1.500			
0.9079	58105.32	3.1160	3.1159	-0.1096	27.14	1.19	-1.500			
0.9082	58126.33	3.1130	3.1130	-0.1092	27.15	1.20	-1.500			
0.9086	58147.58	3.1100	3.1099	-0.1083	27.15	1.20	-1.500			
0.9089	58168.27	3.1070	3.1071	-0.1071	27.15	1.20	-1.500			
0.9092	58188.71	3.1040	3.1040	-0.1064	27.16	1.21	-1.500			
0.9095	58209.02	3.1010	3.1011	-0.1052	27.16	1.21	-1.500			
0.9098	58228.83	3.0980	3.0979	-0.1044	27.16	1.21	-1.500			
0.9101	58248.84	3.0950	3.0950	-0.1040	27.17	1.22	-1.500			
0.9104	58268.64	3.0920	3.0922	-0.1032	27.17	1.22	-1.500			
0.9108	58288.43	3.0890	3.0889	-0.1030	27.17	1.22	-1.500			
0.9111	58308.41	3.0860	3.0860	-0.1028	27.18	1.23	-1.500			
0.9114	58328.08	3.0830	3.0830	-0.1021	27.18	1.23	-1.500			
0.9117	58347.72	3.0800	3.0799	-0.1014	27.18	1.23	-1.500			
0.9120	58367.10	3.0770	3.0770	-0.1005	27.19	1.24	-1.500			
0.9123	58386.31	3.0740	3.0739	-0.0995	27.19	1.24	-1.500			
0.9126	58405.32	3.0710	3.0711	-0.0985	27.19	1.24	-1.500			
0.9129	58423.98	3.0680	3.0678	-0.0981	27.20	1.25	-1.500			
0.9132	58442.77	3.0650	3.0651	-0.0977	27.20	1.25	-1.500			
0.9135	58461.40	3.0620	3.0619	-0.0969	27.20	1.25	-1.500			
0.9137	58479.97	3.0590	3.0590	-0.0965	27.21	1.26	-1.500			
0.9140	58498.49	3.0560	3.0561	-0.0960	27.21	1.26	-1.500			
0.9143	58516.94	3.0530	3.0530	-0.0956	27.21	1.26	-1.500			
0.9146	58535.28	3.0500	3.0501	-0.0949	27.22	1.27	-1.500			
0.9149	58553.61	3.0470	3.0469	-0.0944	27.22	1.27	-1.500			
0.9152	58571.49	3.0440	3.0439	-0.0936	27.22	1.27	-1.500			
0.9155	58589.41	3.0410	3.0411	-0.0931	27.23	1.28	-1.500			
0.9157	58607.31	3.0380	3.0381	-0.0926	27.23	1.28	-1.500			
0.9160	58625.03	3.0350	3.0349	-0.0920	27.24	1.29	-1.500			
0.9163	58642.61	3.0320	3.0320	-0.0914	27.24	1.29	-1.500			
0.9166	58660.10	3.0290	3.0290	-0.0908	27.24	1.29	-1.500			
0.9168	58677.41	3.0260	3.0260	-0.0905	27.25	1.30	-1.500			
0.9171	58694.75	3.0230	3.0232	-0.0901	27.25	1.30	-1.500			
0.9174	58711.93	3.0200	3.0200	-0.0897	27.25	1.30	-1.500			
0.9176	58729.13	3.0170	3.0169	-0.0895	27.26	1.31	-1.500			
0.9179	58746.29	3.0140	3.0140	-0.0893	27.26	1.31	-1.500			
0.9182	58763.42	3.0110	3.0111	-0.0891	27.26	1.31	-1.500			
0.9184	58780.51	3.0080	3.0082	-0.0889	27.27	1.32	-1.500			
0.9187	58797.58	3.0050	3.0049	-0.0882	27.27	1.32	-1.500			
