Ah_balance (normalized)	Ah_balance (mAh)	Voltage - fit (V)	Voltage -  interpolate (V)	dQ/dV (1/V)	Temperature (°C)	Temperature - diff (°C)	Current (C)	R_DC 0ms (mOhm)	R_DC 50ms (mOhm)	R_DC 50 ms PEC (mOhm)
0.2703	17302.27	3.9900	3.9900	0.8290	27.42	1.45	1.500			
0.2728	17462.17	3.9870	3.9870	0.8368	27.41	1.44	1.500			
0.2754	17624.92	3.9840	3.9840	0.8427	27.40	1.43	1.500			
0.2779	17786.33	3.9810	3.9810	0.8471	27.39	1.42	1.500			
0.2805	17949.32	3.9780	3.9780	0.8523	27.39	1.42	1.500			
0.2830	18113.81	3.9750	3.9750	0.8583	27.38	1.41	1.500			
0.2856	18278.28	3.9720	3.9719	0.8617	27.37	1.40	1.500			
0.2882	18444.95	3.9690	3.9690	0.8650	27.36	1.39	1.500			
0.2908	18611.60	3.9660	3.9660	0.8672	27.35	1.38	1.500			
0.2934	18778.43	3.9630	3.9630	0.8716	27.34	1.37	1.500			
0.2960	18945.56	3.9600	3.9599	0.8721	27.34	1.37	1.500			
0.2987	19113.90	3.9570	3.9570	0.8717	27.33	1.36	1.500			
0.3013	19281.84	3.9540	3.9540	0.8700	27.32	1.35	1.500			
0.3039	19448.49	3.9510	3.9511	0.8765	27.31	1.34	1.500			
0.3065	19616.80	3.9480	3.9480	0.8825	27.30	1.33	1.500			
0.3091	19784.44	3.9450	3.9449	0.8897	27.29	1.32	1.500			
0.3118	19956.16	3.9420	3.9421	0.8957	27.29	1.32	1.500			
0.3145	20129.59	3.9390	3.9390	0.9051	27.28	1.31	1.500			
0.3173	20305.03	3.9360	3.9360	0.9111	27.27	1.30	1.500			
0.3200	20481.72	3.9330	3.9330	0.9161	27.26	1.29	1.500			
0.3228	20657.71	3.9300	3.9300	0.9166	27.25	1.28	1.500			
0.3255	20833.36	3.9270	3.9269	0.9201	27.24	1.27	1.500			
0.3283	21008.84	3.9240	3.9241	0.9224	27.23	1.26	1.500			
0.3311	21187.52	3.9210	3.9210	0.9298	27.22	1.25	1.500			
0.3338	21366.13	3.9180	3.9179	0.9377	27.22	1.25	1.500			
0.3367	21546.59	3.9150	3.9150	0.9480	27.21	1.24	1.500			
0.3395	21729.16	3.9120	3.9120	0.9561	27.20	1.23	1.500			
0.3424	21914.63	3.9090	3.9090	0.9633	27.18	1.21	1.500			
0.3453	22100.58	3.9060	3.9060	0.9676	27.17	1.20	1.500			
0.3482	22286.77	3.9030	3.9031	0.9756	27.16	1.19	1.500			
0.3512	22475.12	3.9000	3.9000	0.9787	27.15	1.18	1.500			
0.3541	22661.89	3.8970	3.8970	0.9849	27.14	1.17	1.500			
0.3570	22850.57	3.8940	3.8940	0.9924	27.13	1.16	1.500			
0.3600	23042.02	3.8910	3.8910	1.0058	27.12	1.15	1.500			
0.3631	23237.10	3.8880	3.8880	1.0148	27.11	1.14	1.500			
0.3661	23432.62	3.8850	3.8850	1.0246	27.10	1.13	1.500			
0.3692	23629.99	3.8820	3.8820	1.0340	27.09	1.12	1.500			
0.3724	23830.45	3.8790	3.8789	1.0469	27.08	1.11	1.500			
0.3755	24030.76	3.8760	3.8760	1.0528	27.07	1.10	1.500			
0.3787	24234.00	3.8730	3.8730	1.0656	27.05	1.08	1.500			
0.3819	24439.68	3.8700	3.8700	1.0788	27.04	1.07	1.500			
0.3851	24649.26	3.8670	3.8668	1.0921	27.03	1.06	1.500			
0.3884	24859.46	3.8640	3.8640	1.1022	27.02	1.05	1.500			
0.3917	25071.93	3.8610	3.8611	1.1169	27.00	1.03	1.500			
0.3951	25286.97	3.8580	3.8580	1.1357	26.99	1.02	1.500			
0.3986	25508.70	3.8550	3.8550	1.1451	26.98	1.01	1.500			
0.4020	25729.10	3.8520	3.8519	1.1565	26.96	0.99	1.500			
0.4055	25951.94	3.8490	3.8491	1.1703	26.95	0.98	1.500			
0.4090	26177.72	3.8460	3.8460	1.1915	26.94	0.97	1.500			
0.4126	26407.02	3.8430	3.8430	1.2111	26.92	0.95	1.500			
0.4163	26640.24	3.8400	3.8400	1.2258	26.91	0.94	1.500			
0.4200	26877.76	3.8370	3.8371	1.2462	26.90	0.93	1.500			
0.4238	27125.82	3.8340	3.8340	1.2571	26.88	0.91	1.500			
0.4276	27364.89	3.8310	3.8310	1.2726	26.87	0.90	1.500			
0.4314	27607.63	3.8280	3.8281	1.2962	26.85	0.88	1.500			
0.4353	27857.74	3.8250	3.8250	1.3161	26.84	0.87	1.500			
0.4393	28112.09	3.8220	3.8221	1.3392	26.83	0.86	1.500			
0.4433	28372.57	3.8190	3.8191	1.3664	26.81	0.84	1.500			
0.4475	28637.72	3.8160	3.8160	1.3945	26.79	0.82	1.500			
0.4517	28907.66	3.8130	3.8130	1.4113	26.78	0.81	1.500			
0.4560	29181.13	3.8100	3.8100	1.4403	26.76	0.79	1.500			
0.4603	29459.64	3.8070	3.8068	1.4695	26.74	0.77	1.500			
0.4648	29746.01	3.8040	3.8041	1.4995	26.72	0.75	1.500			
0.4693	30037.97	3.8010	3.8010	1.5218	26.71	0.74	1.500			
0.4740	30332.84	3.7980	3.7980	1.5411	26.69	0.72	1.500			
0.4786	30629.86	3.7950	3.7950	1.5574	26.67	0.70	1.500			
0.4833	30931.54	3.7920	3.7920	1.5915	26.66	0.69	1.500			
0.4881	31236.63	3.7890	3.7890	1.6315	26.64	0.67	1.500			
0.4930	31553.83	3.7860	3.7859	1.6643	26.62	0.65	1.500			
0.4981	31879.21	3.7830	3.7830	1.6749	26.60	0.63	1.500	0.344	0.481	
0.5032	32205.47	3.7800	3.7801	1.6934	26.59	0.62	1.500			
0.5083	32531.24	3.7770	3.7770	1.6949	26.57	0.60	1.500			
0.5134	32854.64	3.7740	3.7740	1.6950	26.55	0.58	1.500			
0.5184	33178.39	3.7710	3.7711	1.7069	26.53	0.56	1.500			
0.5236	33511.06	3.7680	3.7680	1.7088	26.52	0.55	1.500			
0.5287	33838.28	3.7650	3.7650	1.7139	26.50	0.53	1.500			
0.5339	34167.60	3.7620	3.7619	1.7273	26.48	0.51	1.500			
0.5391	34499.93	3.7590	3.7590	1.7447	26.47	0.50	1.500			
0.5443	34835.14	3.7560	3.7560	1.7536	26.46	0.49	1.500			
0.5496	35175.43	3.7530	3.7530	1.7737	26.45	0.48	1.500			
0.5549	35513.31	3.7500	3.7500	1.7877	26.43	0.46	1.500			
0.5603	35856.04	3.7470	3.7469	1.8063	26.42	0.45	1.500			
0.5657	36205.55	3.7440	3.7440	1.8365	26.40	0.43	1.500			
0.5713	36560.34	3.7410	3.7411	1.8633	26.39	0.42	1.500			
0.5769	36920.32	3.7380	3.7380	1.9182	26.37	0.40	1.500			
0.5827	37292.59	3.7350	3.7350	1.9759	26.35	0.38	1.500			
0.5887	37678.22	3.7320	3.7320	2.0325	26.33	0.36	1.500			
0.5950	38077.20	3.7290	3.7290	2.0614	26.32	0.35	1.500			
0.6012	38478.09	3.7260	3.7260	2.1334	26.30	0.33	1.500			
0.6076	38888.56	3.7230	3.7230	2.1809	26.29	0.32	1.500			
0.6142	39311.64	3.7200	3.7201	2.2421	26.27	0.30	1.500			
0.6211	39751.74	3.7170	3.7170	2.2905	26.25	0.28	1.500			
0.6281	40200.69	3.7140	3.7140	2.3140	26.24	0.27	1.500			
0.6351	40646.64	3.7110	3.7109	2.3168	26.22	0.25	1.500			
0.6422	41099.27	3.7080	3.7079	2.2465	26.21	0.24	1.500			
0.6488	41522.67	3.7050	3.7050	2.1349	26.20	0.23	1.500			
0.6550	41921.05	3.7020	3.7021	2.0169	26.19	0.22	1.500			
0.6609	42294.69	3.6990	3.6989	1.8878	26.18	0.21	1.500			
0.6663	42640.18	3.6960	3.6960	1.7714	26.17	0.20	1.500			
0.6714	42968.77	3.6930	3.6930	1.6738	26.15	0.18	1.500			
0.6763	43281.62	3.6900	3.6900	1.5952	26.14	0.17	1.500			
0.6809	43575.80	3.6870	3.6870	1.5144	26.13	0.16	1.500			
0.6853	43856.37	3.6840	3.6840	1.4490	26.12	0.15	1.500			
0.6895	44127.79	3.6810	3.6810	1.3959	26.11	0.14	1.500			
0.6936	44389.55	3.6780	3.6780	1.3518	26.10	0.13	1.500			
0.6975	44640.92	3.6750	3.6749	1.3140	26.10	0.13	1.500			
0.7014	44887.71	3.6720	3.6720	1.2925	26.09	0.12	1.500			
0.7052	45131.42	3.6690	3.6690	1.2813	26.08	0.11	1.500			
0.7089	45372.59	3.6660	3.6660	1.2731	26.07	0.10	1.500			
0.7128	45617.76	3.6630	3.6630	1.2711	26.07	0.10	1.500			
0.7166	45860.87	3.6600	3.6600	1.2724	26.06	0.09	1.500			
0.7204	46106.73	3.6570	3.6571	1.2714	26.05	0.08	1.500			
0.7242	46351.89	3.6540	3.6540	1.2674	26.04	0.07	1.500			
0.7281	46595.49	3.6510	3.6510	1.2614	26.03	0.06	1.500			
0.7318	46837.51	3.6480	3.6480	1.2532	26.03	0.06	1.500			
0.7356	47076.27	3.6450	3.6450	1.2425	26.02	0.05	1.500			
0.7393	47314.21	3.6420	3.6420	1.2383	26.01	0.04	1.500			
0.7430	47549.91	3.6390	3.6390	1.2285	26.01	0.04	1.500			
0.7467	47786.92	3.6360	3.6360	1.2192	26.00	0.03	1.500			
0.7503	48019.55	3.6330	3.6330	1.2138	26.00	0.03	1.500			
0.7539	48252.41	3.6300	3.6300	1.2028	25.99	0.02	1.500			
0.7575	48482.19	3.6270	3.6270	1.1942	25.98	0.01	1.500			
0.7611	48711.42	3.6240	3.6240	1.1789	25.98	0.01	1.500			
0.7646	48935.79	3.6210	3.6210	1.1654	25.97	0.00	1.500			
0.7681	49159.07	3.6180	3.6180	1.1540	25.97	0.00	1.500			
0.7716	49380.11	3.6150	3.6150	1.1391	25.97	-0.00	1.500			
0.7750	49598.21	3.6120	3.6119	1.1118	25.96	-0.01	1.500			
0.7783	49811.54	3.6090	3.6090	1.0890	25.96	-0.01	1.500			
0.7815	50018.23	3.6060	3.6061	1.0590	25.95	-0.02	1.500			
0.7847	50219.64	3.6030	3.6030	1.0299	25.95	-0.02	1.500			
0.7877	50413.12	3.6000	3.6000	0.9943	25.95	-0.02	1.500			
0.7906	50601.15	3.5970	3.5970	0.9605	25.95	-0.02	1.500			
0.7935	50785.91	3.5940	3.5940	0.9196	25.96	-0.01	1.500			
0.7963	50961.56	3.5910	3.5910	0.8714	25.96	-0.01	1.500			
0.7989	51129.80	3.5880	3.5879	0.8048	25.96	-0.01	1.500			
0.8012	51279.37	3.5850	3.5851	0.7247	25.96	-0.01	1.500			
0.8033	51412.60	3.5820	3.5819	0.6361	25.96	-0.01	1.500			
0.8051	51524.16	3.5790	3.5791	0.5468	25.97	-0.00	1.500			
0.8065	51616.32	3.5760	3.5759	0.4610	25.97	-0.00	1.500			
0.8077	51694.34	3.5730	3.5730	0.3917	25.97	-0.00	1.500			
0.8087	51758.32	3.5700	3.5700	0.3328	25.97	-0.00	1.500			
0.8096	51815.81	3.5670	3.5670	0.2929	25.97	-0.00	1.500			
0.8104	51864.74	3.5640	3.5640	0.2553	25.97	-0.00	1.500			
0.8111	51910.76	3.5610	3.5610	0.2286	25.97	0.00	1.500			
0.8117	51951.00	3.5580	3.5580	0.2059	25.97	0.00	1.500			
0.8123	51987.65	3.5550	3.5550	0.1867	25.97	0.00	1.500			
0.8128	52020.71	3.5520	3.5520	0.1669	25.97	0.00	1.500			
0.8133	52050.80	3.5490	3.5491	0.1519	25.97	0.00	1.500			
0.8137	52077.99	3.5460	3.5460	0.1360	25.97	0.00	1.500			
0.8141	52102.46	3.5430	3.5430	0.1213	25.97	0.00	1.500			
0.8144	52124.28	3.5400	3.5400	0.1068	25.97	0.00	1.500			
0.8147	52143.46	3.5370	3.5371	0.0929	25.97	0.00	1.500			
0.8150	52160.08	3.5340	3.5341	0.0790	25.97	0.00	1.500			
0.8152	52174.33	3.5310	3.5314	0.0648	25.97	0.00	1.500			
0.8154	52185.33	3.5280	3.5284	0.0498	25.97	0.00	1.500			
0.8155	52193.45	3.5250	3.5259	0.0348	25.97	0.00	1.500			
