Ah_balance (normalized)	Ah_balance (mAh)	Voltage - fit (V)	Voltage -  interpolate (V)	dQ/dV (1/V)	Temperature (°C)	Temperature - diff (°C)	Current (C)	R_DC 0ms (mOhm)	R_DC 50ms (mOhm)	R_DC 50 ms PEC (mOhm)
0.2921	18696.98	3.9850	3.9850	0.8320	27.09	1.13	1.500			
0.2947	18858.90	3.9820	3.9820	0.8400	27.09	1.13	1.500			
0.2972	19019.55	3.9790	3.9789	0.8426	27.08	1.12	1.500			
0.2997	19181.75	3.9760	3.9761	0.8472	27.08	1.12	1.500			
0.3022	19343.97	3.9730	3.9731	0.8488	27.07	1.11	1.500			
0.3048	19508.63	3.9700	3.9700	0.8549	27.07	1.11	1.500			
0.3074	19671.76	3.9670	3.9671	0.8588	27.06	1.10	1.500			
0.3100	19838.06	3.9640	3.9640	0.8619	27.06	1.10	1.500			
0.3126	20004.46	3.9610	3.9610	0.8679	27.06	1.10	1.500			
0.3152	20172.00	3.9580	3.9580	0.8645	27.05	1.09	1.500			
0.3178	20337.63	3.9550	3.9550	0.8711	27.05	1.09	1.500			
0.3204	20505.51	3.9520	3.9520	0.8747	27.04	1.08	1.500			
0.3230	20673.35	3.9490	3.9488	0.8781	27.04	1.08	1.500			
0.3256	20841.16	3.9460	3.9460	0.8811	27.04	1.08	1.500			
0.3283	21011.85	3.9430	3.9430	0.8898	27.03	1.07	1.500			
0.3310	21183.88	3.9400	3.9400	0.8943	27.03	1.07	1.500			
0.3337	21356.50	3.9370	3.9369	0.8971	27.02	1.06	1.500			
0.3364	21527.99	3.9340	3.9341	0.8980	27.02	1.06	1.500			
0.3391	21701.48	3.9310	3.9310	0.9033	27.01	1.05	1.500			
0.3418	21874.63	3.9280	3.9280	0.9070	27.01	1.05	1.500			
0.3445	22048.44	3.9250	3.9251	0.9130	27.01	1.05	1.500			
0.3473	22224.06	3.9220	3.9219	0.9199	27.00	1.04	1.500			
0.3500	22402.95	3.9190	3.9190	0.9295	27.00	1.04	1.500			
0.3529	22582.48	3.9160	3.9160	0.9354	26.99	1.03	1.500			
0.3557	22763.12	3.9130	3.9130	0.9410	26.99	1.03	1.500			
0.3585	22943.66	3.9100	3.9100	0.9476	26.98	1.02	1.500			
0.3613	23124.60	3.9070	3.9070	0.9523	26.98	1.02	1.500			
0.3642	23307.67	3.9040	3.9040	0.9610	26.97	1.01	1.500			
0.3671	23494.28	3.9010	3.9009	0.9696	26.97	1.01	1.500			
0.3700	23682.13	3.8980	3.8980	0.9748	26.96	1.00	1.500			
0.3730	23870.90	3.8950	3.8950	0.9820	26.96	1.00	1.500			
0.3759	24058.01	3.8920	3.8920	0.9913	26.95	0.99	1.500			
0.3789	24247.53	3.8890	3.8890	0.9945	26.95	0.99	1.500			
0.3819	24439.19	3.8860	3.8859	1.0063	26.94	0.98	1.500			
0.3849	24633.20	3.8830	3.8829	1.0150	26.94	0.98	1.500			
0.3880	24829.87	3.8800	3.8802	1.0290	26.93	0.97	1.500			
0.3911	25029.19	3.8770	3.8770	1.0372	26.92	0.96	1.500			
0.3942	25229.11	3.8740	3.8740	1.0484	26.92	0.96	1.500			
0.3974	25430.70	3.8710	3.8709	1.0613	26.91	0.95	1.500			
0.4006	25635.49	3.8680	3.8681	1.0749	26.90	0.94	1.500			
0.4038	25842.80	3.8650	3.8650	1.0868	26.90	0.94	1.500			
0.4071	26054.47	3.8620	3.8620	1.0999	26.89	0.93	1.500			
0.4104	26265.95	3.8590	3.8590	1.1140	26.89	0.93	1.500			
0.4137	26479.49	3.8560	3.8561	1.1277	26.88	0.92	1.500			
0.4171	26696.99	3.8530	3.8530	1.1423	26.87	0.91	1.500			
0.4206	26917.61	3.8500	3.8501	1.1606	26.86	0.90	1.500			
0.4241	27143.40	3.8470	3.8470	1.1787	26.86	0.90	1.500			
0.4277	27371.46	3.8440	3.8440	1.1946	26.85	0.89	1.500			
0.4313	27602.86	3.8410	3.8410	1.2151	26.84	0.88	1.500			
0.4349	27836.77	3.8380	3.8381	1.2316	26.83	0.87	1.500			
0.4387	28073.92	3.8350	3.8349	1.2569	26.82	0.86	1.500			
0.4425	28317.52	3.8320	3.8320	1.2825	26.81	0.85	1.500			
0.4463	28565.95	3.8290	3.8289	1.3037	26.80	0.84	1.500			
0.4503	28818.43	3.8260	3.8261	1.3315	26.79	0.83	1.500			
0.4544	29078.44	3.8230	3.8230	1.3577	26.78	0.82	1.500			
0.4585	29342.09	3.8200	3.8200	1.3755	26.77	0.81	1.500			
0.4626	29606.93	3.8170	3.8170	1.4046	26.76	0.80	1.500			
0.4668	29877.30	3.8140	3.8141	1.4329	26.75	0.79	1.500			
0.4712	30154.58	3.8110	3.8110	1.4647	26.74	0.78	1.500			
0.4756	30437.23	3.8080	3.8080	1.5099	26.73	0.77	1.500			
0.4802	30730.91	3.8050	3.8050	1.5392	26.71	0.75	1.500			
0.4849	31033.07	3.8020	3.8019	1.5792	26.70	0.74	1.500			
0.4897	31340.55	3.7990	3.7990	1.6141	26.68	0.72	1.500			
0.4946	31652.36	3.7960	3.7960	1.6361	26.66	0.70	1.500			
0.4995	31970.44	3.7930	3.7930	1.6619	26.65	0.69	1.500			
0.5045	32291.01	3.7900	3.7900	1.6797	26.63	0.67	1.500			
0.5096	32616.96	3.7870	3.7870	1.6945	26.62	0.66	1.500			
0.5147	32942.34	3.7840	3.7840	1.7072	26.60	0.64	1.500			
0.5198	33269.65	3.7810	3.7810	1.7480	26.59	0.63	1.500			
0.5251	33607.64	3.7780	3.7781	1.7798	26.57	0.61	1.500			
0.5305	33953.68	3.7750	3.7751	1.8136	26.56	0.60	1.500	0.344	0.463	
0.5361	34310.96	3.7720	3.7720	1.8367	26.54	0.58	1.500			
0.5415	34657.98	3.7690	3.7691	1.8184	26.53	0.57	1.500			
0.5470	35006.77	3.7660	3.7658	1.8079	26.51	0.55	1.500			
0.5524	35356.72	3.7630	3.7632	1.8104	26.50	0.54	1.500			
0.5579	35704.23	3.7600	3.7600	1.7924	26.49	0.53	1.500			
0.5633	36049.38	3.7570	3.7570	1.7955	26.47	0.51	1.500			
0.5685	36384.25	3.7540	3.7541	1.7890	26.46	0.50	1.500			
0.5739	36729.19	3.7510	3.7509	1.8041	26.45	0.49	1.500			
0.5793	37073.09	3.7480	3.7480	1.8140	26.43	0.47	1.500			
0.5847	37423.14	3.7450	3.7451	1.8145	26.42	0.46	1.500			
0.5903	37776.39	3.7420	3.7419	1.8599	26.40	0.44	1.500			
0.5958	38133.54	3.7390	3.7390	1.8850	26.39	0.43	1.500			
0.6016	38499.59	3.7360	3.7361	1.9270	26.37	0.41	1.500			
0.6074	38876.03	3.7330	3.7330	1.9673	26.36	0.40	1.500			
0.6133	39253.34	3.7300	3.7301	1.9933	26.35	0.39	1.500			
0.6194	39642.28	3.7270	3.7270	2.0547	26.34	0.38	1.500			
0.6256	40041.38	3.7240	3.7240	2.1155	26.32	0.36	1.500			
0.6321	40454.79	3.7210	3.7210	2.1550	26.31	0.35	1.500			
0.6387	40876.98	3.7180	3.7181	2.2327	26.30	0.34	1.500			
0.6455	41310.32	3.7150	3.7149	2.3013	26.28	0.32	1.500			
0.6524	41755.27	3.7120	3.7121	2.3687	26.27	0.31	1.500			
0.6598	42225.94	3.7090	3.7090	2.4077	26.26	0.30	1.500			
0.6671	42696.66	3.7060	3.7060	2.4523	26.24	0.28	1.500			
0.6746	43171.36	3.7030	3.7030	2.4524	26.23	0.27	1.500			
0.6820	43647.87	3.7000	3.7000	2.3551	26.22	0.26	1.500			
0.6891	44100.90	3.6970	3.6970	2.2308	26.20	0.24	1.500			
0.6955	44513.72	3.6940	3.6940	2.0675	26.19	0.23	1.500			
0.7015	44894.14	3.6910	3.6911	1.9200	26.18	0.22	1.500			
0.7069	45244.75	3.6880	3.6880	1.7727	26.17	0.21	1.500			
0.7120	45569.15	3.6850	3.6850	1.6545	26.16	0.20	1.500			
0.7167	45869.08	3.6820	3.6820	1.5465	26.15	0.19	1.500			
0.7212	46156.35	3.6790	3.6790	1.4758	26.14	0.18	1.500			
0.7255	46428.93	3.6760	3.6760	1.4089	26.13	0.17	1.500			
0.7295	46688.38	3.6730	3.6730	1.3520	26.13	0.17	1.500			
0.7335	46943.06	3.6700	3.6700	1.3159	26.12	0.16	1.500			
0.7373	47190.00	3.6670	3.6669	1.2884	26.11	0.15	1.500			
0.7411	47431.45	3.6640	3.6640	1.2704	26.10	0.14	1.500			
0.7449	47671.70	3.6610	3.6610	1.2618	26.10	0.14	1.500			
0.7486	47910.21	3.6580	3.6580	1.2609	26.09	0.13	1.500			
0.7524	48154.51	3.6550	3.6550	1.2664	26.08	0.12	1.500			
0.7562	48396.46	3.6520	3.6520	1.2713	26.07	0.11	1.500			
0.7600	48642.93	3.6490	3.6490	1.2730	26.07	0.11	1.500			
0.7639	48887.00	3.6460	3.6460	1.2760	26.06	0.10	1.500			
0.7677	49133.83	3.6430	3.6430	1.2788	26.05	0.09	1.500			
0.7716	49379.60	3.6400	3.6400	1.2760	26.04	0.08	1.500			
0.7754	49623.79	3.6370	3.6370	1.2753	26.03	0.07	1.500			
0.7792	49869.21	3.6340	3.6341	1.2771	26.02	0.06	1.500			
0.7831	50115.64	3.6310	3.6309	1.2646	26.02	0.06	1.500			
0.7869	50358.94	3.6280	3.6279	1.2594	26.01	0.05	1.500			
0.7906	50598.06	3.6250	3.6251	1.2469	26.00	0.04	1.500			
0.7943	50835.45	3.6220	3.6221	1.2432	25.99	0.03	1.500			
0.7980	51074.16	3.6190	3.6189	1.2376	25.98	0.02	1.500			
0.8017	51311.88	3.6160	3.6160	1.2251	25.98	0.02	1.500			
0.8054	51545.83	3.6130	3.6130	1.2171	25.97	0.01	1.500			
0.8091	51783.06	3.6100	3.6101	1.2038	25.97	0.01	1.500			
0.8127	52013.29	3.6070	3.6070	1.1822	25.97	0.01	1.500			
0.8162	52237.60	3.6040	3.6039	1.1603	25.97	0.01	1.500			
0.8196	52457.29	3.6010	3.6011	1.1365	25.96	0.00	1.500			
0.8230	52672.92	3.5980	3.5979	1.1155	25.96	0.00	1.500			
0.8263	52884.87	3.5950	3.5950	1.0965	25.96	0.00	1.500			
0.8296	53092.92	3.5920	3.5920	1.0739	25.96	0.00	1.500			
0.8328	53299.33	3.5890	3.5890	1.0534	25.96	0.00	1.500			
0.8360	53504.61	3.5860	3.5859	1.0129	25.96	0.00	1.500			
0.8390	53698.81	3.5830	3.5830	0.9577	25.96	0.00	1.500			
0.8419	53883.77	3.5800	3.5800	0.8891	25.96	0.00	1.500			
0.8445	54051.02	3.5770	3.5770	0.7941	25.96	0.00	1.500			
0.8468	54196.28	3.5740	3.5740	0.6937	25.96	0.00	1.500			
0.8487	54317.41	3.5710	3.5710	0.5910	25.96	0.00	1.500			
0.8503	54417.61	3.5680	3.5681	0.4911	25.96	0.00	1.500			
0.8516	54499.88	3.5650	3.5648	0.4114	25.96	0.00	1.500			
0.8526	54565.49	3.5620	3.5619	0.3466	25.96	0.00	1.500			
0.8535	54622.16	3.5590	3.5590	0.2941	25.96	0.00	1.500			
0.8543	54672.20	3.5560	3.5560	0.2584	25.96	0.00	1.500			
0.8549	54716.43	3.5530	3.5531	0.2250	25.96	0.00	1.500			
0.8556	54756.35	3.5500	3.5500	0.2033	25.96	0.00	1.500			
0.8561	54791.61	3.5470	3.5469	0.1822	25.96	0.00	1.500			
0.8566	54824.38	3.5440	3.5439	0.1638	25.96	0.00	1.500			
0.8571	54854.03	3.5410	3.5411	0.1494	25.96	0.00	1.500			
0.8575	54880.83	3.5380	3.5381	0.1341	25.96	0.00	1.500			
0.8579	54905.38	3.5350	3.5349	0.1201	25.96	0.00	1.500			
0.8582	54926.82	3.5320	3.5320	0.1050	25.96	0.00	1.500			
0.8585	54945.62	3.5290	3.5291	0.0909	25.96	0.00	1.500			
0.8588	54961.82	3.5260	3.5262	0.0769	25.96	0.00	1.500			
0.8590	54975.98	3.5230	3.5230	0.0623	25.96	0.00	1.500			
0.8592	54986.43	3.5200	3.5204	0.0466	25.96	0.00	1.500			
0.8593	54993.85	3.5170	3.5180	0.0308	25.96	0.00	1.500			
