Ah_balance (normalized)	Ah_balance (mAh)	Voltage - fit (V)	Voltage -  interpolate (V)	dQ/dV (1/V)	Temperature (°C)	Temperature - diff (°C)	Current (C)	R_DC 0ms (mOhm)	R_DC 50ms (mOhm)	R_DC 50 ms PEC (mOhm)
0.1965	12578.82	3.9370	3.9367	-0.1116	25.62	0.01	-0.750			
0.1970	12605.58	3.9340	3.9339	-0.1640	25.62	0.01	-0.750			
0.1975	12642.46	3.9310	3.9309	-0.2130	25.62	0.01	-0.750			
0.1983	12688.15	3.9280	3.9280	-0.2588	25.62	0.01	-0.750			
0.1991	12742.16	3.9250	3.9250	-0.3049	25.62	0.01	-0.750			
0.2001	12805.27	3.9220	3.9221	-0.3492	25.62	0.01	-0.750			
0.2012	12877.55	3.9190	3.9190	-0.3917	25.61	0.00	-0.750			
0.2025	12957.74	3.9160	3.9160	-0.4314	25.61	0.00	-0.750			
0.2038	13044.81	3.9130	3.9131	-0.4687	25.61	0.00	-0.750			
0.2053	13139.92	3.9100	3.9100	-0.5015	25.61	0.00	-0.750			
0.2069	13239.40	3.9070	3.9070	-0.5317	25.61	0.00	-0.750			
0.2085	13345.14	3.9040	3.9040	-0.5573	25.61	-0.00	-0.750			
0.2102	13455.04	3.9010	3.9009	-0.5818	25.61	-0.00	-0.750			
0.2120	13570.45	3.8980	3.8980	-0.6018	25.61	-0.00	-0.750			
0.2139	13688.13	3.8950	3.8951	-0.6180	25.60	-0.01	-0.750			
0.2158	13809.93	3.8920	3.8920	-0.6314	25.60	-0.01	-0.750			
0.2177	13932.95	3.8890	3.8890	-0.6422	25.60	-0.01	-0.750			
0.2196	14056.72	3.8860	3.8860	-0.6504	25.60	-0.01	-0.750			
0.2216	14182.51	3.8830	3.8830	-0.6599	25.60	-0.01	-0.750			
0.2236	14309.91	3.8800	3.8800	-0.6682	25.60	-0.01	-0.750			
0.2256	14439.81	3.8770	3.8770	-0.6746	25.60	-0.01	-0.750			
0.2277	14570.71	3.8740	3.8740	-0.6793	25.60	-0.01	-0.750			
0.2297	14701.89	3.8710	3.8710	-0.6835	25.60	-0.01	-0.750			
0.2318	14833.18	3.8680	3.8680	-0.6865	25.60	-0.01	-0.750			
0.2338	14965.35	3.8650	3.8650	-0.6878	25.60	-0.01	-0.750			
0.2359	15097.65	3.8620	3.8620	-0.6901	25.60	-0.01	-0.750			
0.2380	15229.62	3.8590	3.8590	-0.6937	25.60	-0.01	-0.750			
0.2401	15363.78	3.8560	3.8560	-0.6959	25.60	-0.01	-0.750			
0.2422	15498.66	3.8530	3.8529	-0.6962	25.60	-0.01	-0.750			
0.2442	15631.68	3.8500	3.8500	-0.6962	25.60	-0.01	-0.750			
0.2463	15764.65	3.8470	3.8471	-0.6980	25.60	-0.01	-0.750			
0.2484	15899.41	3.8440	3.8439	-0.6986	25.61	-0.00	-0.750			
0.2505	16033.69	3.8410	3.8410	-0.6973	25.61	-0.00	-0.750			
0.2526	16167.52	3.8380	3.8380	-0.6965	25.61	0.00	-0.750			
0.2547	16302.05	3.8350	3.8351	-0.6989	25.62	0.01	-0.750			
0.2568	16435.99	3.8320	3.8320	-0.6983	25.62	0.01	-0.750			
0.2589	16568.95	3.8290	3.8290	-0.6969	25.62	0.01	-0.750			
0.2610	16702.99	3.8260	3.8260	-0.6976	25.62	0.01	-0.750			
0.2631	16837.54	3.8230	3.8230	-0.7007	25.62	0.01	-0.750			
0.2652	16972.72	3.8200	3.8200	-0.6976	25.62	0.01	-0.750			
0.2673	17107.18	3.8170	3.8170	-0.6963	25.62	0.01	-0.750			
0.2694	17240.21	3.8140	3.8141	-0.6936	25.62	0.01	-0.750			
0.2714	17372.31	3.8110	3.8110	-0.6933	25.62	0.01	-0.750			
0.2735	17505.37	3.8080	3.8080	-0.6922	25.62	0.01	-0.750			
0.2756	17638.08	3.8050	3.8050	-0.6932	25.62	0.01	-0.750			
0.2777	17770.95	3.8020	3.8020	-0.6940	25.63	0.02	-0.750			
0.2798	17905.73	3.7990	3.7990	-0.6962	25.63	0.02	-0.750			
0.2819	18038.90	3.7960	3.7960	-0.6945	25.63	0.02	-0.750			
0.2839	18172.00	3.7930	3.7930	-0.6958	25.63	0.02	-0.750			
0.2860	18305.58	3.7900	3.7900	-0.6962	25.63	0.02	-0.750			
0.2881	18439.24	3.7870	3.7870	-0.6997	25.63	0.02	-0.750			
0.2902	18573.20	3.7840	3.7840	-0.7017	25.64	0.03	-0.750			
0.2923	18709.12	3.7810	3.7810	-0.7042	25.64	0.03	-0.750			
0.2944	18844.52	3.7780	3.7780	-0.7075	25.64	0.03	-0.750			
0.2966	18980.61	3.7750	3.7750	-0.7100	25.64	0.03	-0.750			
0.2987	19116.87	3.7720	3.7721	-0.7122	25.64	0.03	-0.750			
0.3008	19253.80	3.7690	3.7690	-0.7174	25.64	0.03	-0.750			
0.3030	19391.56	3.7660	3.7660	-0.7200	25.64	0.03	-0.750			
0.3052	19530.62	3.7630	3.7630	-0.7235	25.64	0.03	-0.750			
0.3073	19669.72	3.7600	3.7600	-0.7291	25.64	0.03	-0.750			
0.3095	19810.56	3.7570	3.7570	-0.7316	25.64	0.03	-0.750			
0.3117	19951.04	3.7540	3.7540	-0.7387	25.64	0.03	-0.750			
0.3140	20092.88	3.7510	3.7510	-0.7437	25.63	0.02	-0.750			
0.3162	20236.29	3.7480	3.7480	-0.7493	25.63	0.02	-0.750			
0.3185	20381.39	3.7450	3.7449	-0.7539	25.63	0.02	-0.750			
0.3207	20526.63	3.7420	3.7421	-0.7594	25.63	0.02	-0.750			
0.3230	20671.82	3.7390	3.7390	-0.7664	25.63	0.02	-0.750			
0.3253	20820.20	3.7360	3.7360	-0.7735	25.63	0.02	-0.750			
0.3276	20967.77	3.7330	3.7330	-0.7778	25.63	0.02	-0.750			
0.3300	21119.36	3.7300	3.7300	-0.7875	25.63	0.02	-0.750			
0.3324	21271.81	3.7270	3.7271	-0.7961	25.63	0.02	-0.750			
0.3348	21425.09	3.7240	3.7240	-0.8050	25.63	0.02	-0.750			
0.3372	21579.80	3.7210	3.7210	-0.8140	25.63	0.02	-0.750			
0.3396	21737.20	3.7180	3.7179	-0.8217	25.62	0.01	-0.750			
0.3421	21895.66	3.7150	3.7150	-0.8338	25.62	0.01	-0.750			
0.3446	22056.25	3.7120	3.7121	-0.8442	25.62	0.01	-0.750			
0.3472	22220.00	3.7090	3.7090	-0.8576	25.62	0.01	-0.750			
0.3498	22385.07	3.7060	3.7060	-0.8696	25.62	0.01	-0.750			
0.3524	22552.54	3.7030	3.7030	-0.8794	25.62	0.01	-0.750			
0.3551	22723.56	3.7000	3.7000	-0.8968	25.62	0.01	-0.750			
0.3578	22897.99	3.6970	3.6970	-0.9082	25.62	0.01	-0.750			
0.3605	23072.81	3.6940	3.6940	-0.9213	25.62	0.01	-0.750			
0.3633	23251.36	3.6910	3.6910	-0.9350	25.62	0.01	-0.750			
0.3661	23430.80	3.6880	3.6881	-0.9525	25.62	0.01	-0.750			
0.3690	23614.46	3.6850	3.6850	-0.9704	25.62	0.01	-0.750			
0.3719	23802.49	3.6820	3.6819	-0.9933	25.62	0.01	-0.750			
0.3749	23994.49	3.6790	3.6790	-1.0125	25.61	0.00	-0.750			
0.3780	24191.48	3.6760	3.6760	-1.0381	25.61	-0.00	-0.750			
0.3811	24393.47	3.6730	3.6730	-1.0596	25.60	-0.01	-0.750			
0.3844	24600.04	3.6700	3.6700	-1.0902	25.60	-0.01	-0.750			
0.3877	24811.66	3.6670	3.6670	-1.1138	25.60	-0.01	-0.750			
0.3911	25027.93	3.6640	3.6639	-1.1394	25.59	-0.02	-0.750			
0.3945	25249.08	3.6610	3.6611	-1.1637	25.59	-0.02	-0.750			
0.3980	25475.03	3.6580	3.6580	-1.1920	25.59	-0.02	-0.750			
0.4016	25705.57	3.6550	3.6550	-1.2164	25.58	-0.03	-0.750			
0.4053	25940.53	3.6520	3.6520	-1.2465	25.58	-0.03	-0.750			
0.4091	26183.17	3.6490	3.6490	-1.2752	25.58	-0.03	-0.750			
0.4130	26431.45	3.6460	3.6460	-1.3035	25.58	-0.03	-0.750			
0.4169	26683.93	3.6430	3.6429	-1.3368	25.58	-0.03	-0.750			
0.4210	26945.15	3.6400	3.6401	-1.3595	25.58	-0.03	-0.750			
0.4252	27209.63	3.6370	3.6369	-1.3842	25.58	-0.03	-0.750			
0.4293	27475.82	3.6340	3.6340	-1.4223	25.58	-0.03	-0.750			
0.4336	27750.24	3.6310	3.6311	-1.4454	25.58	-0.03	-0.750			
0.4380	28033.05	3.6280	3.6279	-1.4888	25.58	-0.03	-0.750			
0.4426	28323.47	3.6250	3.6250	-1.5183	25.59	-0.02	-0.750			
0.4471	28617.01	3.6220	3.6220	-1.5472	25.59	-0.02	-0.750			
0.4519	28919.48	3.6190	3.6191	-1.5894	25.60	-0.01	-0.750			
0.4567	29225.78	3.6160	3.6159	-1.6158	25.60	-0.01	-0.750			
0.4615	29538.24	3.6130	3.6130	-1.6389	25.60	-0.01	-0.750			
0.4665	29856.42	3.6100	3.6101	-1.6778	25.60	-0.01	-0.750			
0.4716	30180.42	3.6070	3.6069	-1.7102	25.60	-0.01	-0.750			
0.4768	30516.67	3.6040	3.6040	-1.7474	25.61	0.00	-0.750			
0.4821	30853.40	3.6010	3.6010	-1.7775	25.62	0.01	-0.750			
0.4875	31197.58	3.5980	3.5982	-1.8109	25.62	0.01	-0.750			
0.4930	31549.31	3.5950	3.5949	-1.8511	25.62	0.01	-0.750			
0.4986	31907.75	3.5920	3.5920	-1.8860	25.63	0.02	-0.750			
0.5042	32270.97	3.5890	3.5889	-1.9027	25.64	0.03	-0.750			
0.5100	32642.44	3.5860	3.5861	-1.9476	25.64	0.03	-0.750			
0.5159	33016.18	3.5830	3.5830	-1.9729	25.64	0.03	-0.750			
0.5219	33400.15	3.5800	3.5799	-1.9944	25.64	0.03	-0.750			
0.5279	33785.74	3.5770	3.5770	-2.0060	25.64	0.03	-0.750			
0.5340	34174.11	3.5740	3.5741	-2.0397	25.64	0.03	-0.750			
0.5401	34565.96	3.5710	3.5709	-2.0510	25.65	0.04	-0.750	0.393	0.549	
0.5462	34959.74	3.5680	3.5679	-2.0755	25.66	0.05	-0.750			
0.5525	35359.40	3.5650	3.5651	-2.0954	25.67	0.06	-0.750			
0.5589	35770.96	3.5620	3.5620	-2.1132	25.67	0.06	-0.750			
0.5653	36181.85	3.5590	3.5590	-2.1295	25.68	0.07	-0.750			
0.5717	36587.77	3.5560	3.5561	-2.1198	25.69	0.08	-0.750			
0.5780	36993.49	3.5530	3.5530	-2.1266	25.70	0.09	-0.750			
0.5844	37404.06	3.5500	3.5499	-2.1205	25.72	0.11	-0.750			
0.5908	37811.57	3.5470	3.5470	-2.1218	25.73	0.12	-0.750			
0.5972	38219.48	3.5440	3.5440	-2.0980	25.74	0.13	-0.750			
0.6036	38628.25	3.5410	3.5408	-2.0916	25.75	0.14	-0.750			
0.6097	39021.52	3.5380	3.5380	-2.0489	25.77	0.16	-0.750			
0.6158	39412.43	3.5350	3.5350	-2.0194	25.79	0.18	-0.750			
0.6219	39799.21	3.5320	3.5319	-1.9922	25.80	0.19	-0.750			
0.6277	40174.87	3.5290	3.5290	-1.9482	25.81	0.20	-0.750			
0.6335	40546.32	3.5260	3.5260	-1.9156	25.82	0.21	-0.750			
0.6392	40909.04	3.5230	3.5230	-1.8821	25.83	0.22	-0.750			
0.6448	41269.05	3.5200	3.5200	-1.8390	25.84	0.23	-0.750			
0.6503	41619.66	3.5170	3.5170	-1.7983	25.85	0.24	-0.750			
0.6557	41962.59	3.5140	3.5141	-1.7458	25.87	0.26	-0.750			
0.6608	42294.17	3.5110	3.5109	-1.6930	25.88	0.27	-0.750			
0.6658	42611.45	3.5080	3.5080	-1.6512	25.89	0.28	-0.750			
0.6707	42922.93	3.5050	3.5050	-1.6035	25.90	0.29	-0.750			
0.6754	43227.51	3.5020	3.5020	-1.5622	25.91	0.30	-0.750			
0.6801	43523.40	3.4990	3.4990	-1.5176	25.93	0.32	-0.750			
0.6846	43813.74	3.4960	3.4960	-1.4753	25.94	0.33	-0.750			
0.6890	44094.14	3.4930	3.4929	-1.4320	25.95	0.34	-0.750			
0.6932	44362.28	3.4900	3.4899	-1.3821	25.96	0.35	-0.750			
0.6972	44621.99	3.4870	3.4870	-1.3342	25.97	0.36	-0.750			
0.7012	44873.99	3.4840	3.4839	-1.2912	25.98	0.37	-0.750			
0.7049	45114.65	3.4810	3.4811	-1.2554	25.99	0.38	-0.750			
0.7086	45349.95	3.4780	3.4781	-1.2189	26.01	0.40	-0.750			
0.7123	45584.50	3.4750	3.4749	-1.1961	26.02	0.41	-0.750			
0.7158	45809.96	3.4720	3.4720	-1.1691	26.03	0.42	-0.750			
0.7192	46030.42	3.4690	3.4691	-1.1444	26.05	0.44	-0.750			
0.7226	46248.92	3.4660	3.4659	-1.1354	26.06	0.45	-0.750			
0.7260	46465.08	3.4630	3.4630	-1.1178	26.07	0.46	-0.750			
0.7293	46677.77	3.4600	3.4599	-1.0992	26.07	0.46	-0.750			
0.7326	46886.57	3.4570	3.4572	-1.0946	26.08	0.47	-0.750			
0.7359	47095.23	3.4540	3.4540	-1.0897	26.09	0.48	-0.750			
0.7391	47303.36	3.4510	3.4509	-1.0833	26.10	0.49	-0.750			
0.7423	47509.63	3.4480	3.4480	-1.0759	26.11	0.50	-0.750			
0.7456	47716.19	3.4450	3.4450	-1.0843	26.12	0.51	-0.750			
0.7488	47925.22	3.4420	3.4421	-1.0792	26.13	0.52	-0.750			
0.7521	48133.52	3.4390	3.4389	-1.0759	26.13	0.52	-0.750			
0.7553	48338.80	3.4360	3.4359	-1.0657	26.14	0.53	-0.750			
0.7585	48543.33	3.4330	3.4330	-1.0601	26.14	0.53	-0.750			
0.7617	48748.60	3.4300	3.4300	-1.0490	26.15	0.54	-0.750			
0.7648	48948.18	3.4270	3.4270	-1.0336	26.15	0.54	-0.750			
0.7679	49143.05	3.4240	3.4240	-1.0150	26.16	0.55	-0.750			
0.7709	49338.57	3.4210	3.4211	-1.0064	26.16	0.55	-0.750			
0.7739	49529.98	3.4180	3.4179	-0.9898	26.17	0.56	-0.750			
0.7769	49719.22	3.4150	3.4149	-0.9709	26.18	0.57	-0.750			
0.7798	49904.53	3.4120	3.4120	-0.9512	26.18	0.57	-0.750			
0.7826	50085.96	3.4090	3.4091	-0.9320	26.19	0.58	-0.750			
0.7854	50262.48	3.4060	3.4060	-0.9102	26.20	0.59	-0.750			
0.7881	50435.42	3.4030	3.4030	-0.8879	26.20	0.59	-0.750			
0.7907	50603.00	3.4000	3.3999	-0.8626	26.21	0.60	-0.750			
0.7933	50768.27	3.3970	3.3970	-0.8403	26.22	0.61	-0.750			
0.7957	50927.51	3.3940	3.3940	-0.8109	26.22	0.61	-0.750			
0.7981	51081.02	3.3910	3.3910	-0.7843	26.22	0.61	-0.750			
0.8005	51228.99	3.3880	3.3880	-0.7558	26.22	0.61	-0.750			
0.8027	51370.97	3.3850	3.3850	-0.7232	26.23	0.62	-0.750			
0.8048	51507.61	3.3820	3.3820	-0.6916	26.23	0.62	-0.750			
0.8068	51638.00	3.3790	3.3792	-0.6603	26.23	0.62	-0.750			
0.8088	51761.05	3.3760	3.3759	-0.6313	26.23	0.62	-0.750			
0.8106	51878.90	3.3730	3.3729	-0.6003	26.24	0.63	-0.750			
0.8123	51989.96	3.3700	3.3700	-0.5702	26.24	0.63	-0.750			
0.8140	52097.74	3.3670	3.3671	-0.5462	26.25	0.64	-0.750			
0.8156	52199.20	3.3640	3.3640	-0.5191	26.25	0.64	-0.750			
0.8171	52295.80	3.3610	3.3609	-0.4930	26.25	0.64	-0.750			
0.8186	52387.23	3.3580	3.3580	-0.4677	26.26	0.65	-0.750			
0.8199	52473.80	3.3550	3.3550	-0.4464	26.26	0.65	-0.750			
0.8212	52557.97	3.3520	3.3519	-0.4270	26.27	0.66	-0.750			
0.8225	52637.64	3.3490	3.3490	-0.4090	26.27	0.66	-0.750			
0.8237	52713.85	3.3460	3.3460	-0.3912	26.27	0.66	-0.750			
0.8248	52786.92	3.3430	3.3430	-0.3747	26.28	0.67	-0.750			
0.8259	52857.68	3.3400	3.3400	-0.3601	26.28	0.67	-0.750			
0.8269	52924.67	3.3370	3.3370	-0.3471	26.28	0.67	-0.750			
0.8280	52989.70	3.3340	3.3340	-0.3345	26.29	0.68	-0.750			
0.8289	53052.67	3.3310	3.3309	-0.3226	26.29	0.68	-0.750			
0.8299	53113.31	3.3280	3.3280	-0.3109	26.29	0.68	-0.750			
0.8308	53171.76	3.3250	3.3251	-0.3022	26.30	0.69	-0.750			
0.8317	53228.88	3.3220	3.3219	-0.2923	26.30	0.69	-0.750			
0.8326	53283.93	3.3190	3.3190	-0.2829	26.30	0.69	-0.750			
0.8334	53336.83	3.3160	3.3160	-0.2749	26.31	0.70	-0.750			
0.8342	53388.66	3.3130	3.3131	-0.2681	26.31	0.70	-0.750			
0.8350	53439.58	3.3100	3.3099	-0.2615	26.31	0.70	-0.750			
0.8358	53489.10	3.3070	3.3070	-0.2542	26.32	0.71	-0.750			
0.8365	53537.15	3.3040	3.3040	-0.2478	26.32	0.71	-0.750			
0.8372	53583.49	3.3010	3.3011	-0.2416	26.32	0.71	-0.750			
0.8380	53629.47	3.2980	3.2980	-0.2361	26.33	0.72	-0.750			
0.8387	53673.85	3.2950	3.2949	-0.2315	26.33	0.72	-0.750			
0.8393	53718.02	3.2920	3.2920	-0.2268	26.34	0.73	-0.750			
0.8400	53761.21	3.2890	3.2889	-0.2218	26.34	0.73	-0.750			
0.8407	53803.34	3.2860	3.2861	-0.2172	26.34	0.73	-0.750			
0.8413	53844.82	3.2830	3.2831	-0.2135	26.34	0.73	-0.750			
0.8420	53885.24	3.2800	3.2800	-0.2091	26.35	0.74	-0.750			
0.8426	53924.75	3.2770	3.2769	-0.2046	26.35	0.74	-0.750			
0.8432	53963.41	3.2740	3.2740	-0.2015	26.35	0.74	-0.750			
0.8438	54001.45	3.2710	3.2711	-0.1981	26.36	0.75	-0.750			
0.8444	54039.27	3.2680	3.2680	-0.1956	26.36	0.75	-0.750			
0.8449	54076.76	3.2650	3.2649	-0.1927	26.36	0.75	-0.750			
0.8455	54113.44	3.2620	3.2620	-0.1897	26.37	0.76	-0.750			
0.8461	54149.44	3.2590	3.2590	-0.1866	26.37	0.76	-0.750			
0.8466	54185.05	3.2560	3.2560	-0.1846	26.37	0.76	-0.750			
0.8472	54220.30	3.2530	3.2529	-0.1819	26.37	0.76	-0.750			
0.8477	54254.69	3.2500	3.2500	-0.1788	26.38	0.77	-0.750			
0.8483	54288.77	3.2470	3.2470	-0.1771	26.38	0.77	-0.750			
0.8488	54322.63	3.2440	3.2441	-0.1747	26.38	0.77	-0.750			
0.8493	54356.02	3.2410	3.2410	-0.1732	26.39	0.78	-0.750			
0.8498	54388.99	3.2380	3.2379	-0.1710	26.39	0.78	-0.750			
0.8503	54421.70	3.2350	3.2351	-0.1685	26.39	0.78	-0.750			
0.8508	54453.72	3.2320	3.2320	-0.1664	26.40	0.79	-0.750			
0.8513	54485.52	3.2290	3.2291	-0.1649	26.40	0.79	-0.750			
0.8518	54516.98	3.2260	3.2260	-0.1629	26.40	0.79	-0.750			
0.8523	54547.94	3.2230	3.2229	-0.1607	26.40	0.79	-0.750			
0.8528	54578.73	3.2200	3.2200	-0.1590	26.41	0.80	-0.750			
0.8533	54608.96	3.2170	3.2170	-0.1568	26.41	0.80	-0.750			
0.8537	54638.89	3.2140	3.2140	-0.1551	26.41	0.80	-0.750			
0.8542	54668.58	3.2110	3.2110	-0.1540	26.41	0.80	-0.750			
0.8547	54697.81	3.2080	3.2080	-0.1526	26.42	0.81	-0.750			
0.8551	54726.97	3.2050	3.2049	-0.1510	26.42	0.81	-0.750			
0.8556	54755.85	3.2020	3.2020	-0.1499	26.42	0.81	-0.750			
0.8560	54784.63	3.1990	3.1989	-0.1486	26.42	0.81	-0.750			
0.8565	54813.16	3.1960	3.1960	-0.1471	26.43	0.82	-0.750			
0.8569	54841.39	3.1930	3.1930	-0.1455	26.43	0.82	-0.750			
0.8573	54869.04	3.1900	3.1900	-0.1442	26.43	0.82	-0.750			
0.8578	54896.44	3.1870	3.1870	-0.1425	26.44	0.83	-0.750			
0.8582	54923.53	3.1840	3.1840	-0.1414	26.44	0.83	-0.750			
0.8586	54950.58	3.1810	3.1809	-0.1404	26.44	0.83	-0.750			
0.8590	54977.49	3.1780	3.1781	-0.1389	26.45	0.84	-0.750			
0.8594	55003.93	3.1750	3.1750	-0.1381	26.45	0.84	-0.750			
0.8599	55030.44	3.1720	3.1721	-0.1371	26.45	0.84	-0.750			
0.8603	55056.65	3.1690	3.1690	-0.1360	26.46	0.85	-0.750			
0.8607	55082.57	3.1660	3.1659	-0.1347	26.46	0.85	-0.750			
0.8611	55108.38	3.1630	3.1631	-0.1340	26.46	0.85	-0.750			
0.8615	55133.94	3.1600	3.1600	-0.1327	26.47	0.86	-0.750			
0.8619	55159.34	3.1570	3.1570	-0.1318	26.47	0.86	-0.750			
0.8623	55184.76	3.1540	3.1539	-0.1304	26.47	0.86	-0.750			
0.8626	55209.50	3.1510	3.1511	-0.1293	26.47	0.86	-0.750			
0.8630	55234.25	3.1480	3.1480	-0.1284	26.48	0.87	-0.750			
0.8634	55258.81	3.1450	3.1450	-0.1274	26.48	0.87	-0.750			
0.8638	55283.12	3.1420	3.1419	-0.1264	26.48	0.87	-0.750			
0.8642	55307.27	3.1390	3.1390	-0.1252	26.49	0.88	-0.750			
0.8646	55331.29	3.1360	3.1360	-0.1244	26.49	0.88	-0.750			
0.8649	55355.14	3.1330	3.1330	-0.1231	26.49	0.88	-0.750			
0.8653	55378.86	3.1300	3.1300	-0.1221	26.50	0.89	-0.750			
0.8657	55401.91	3.1270	3.1270	-0.1209	26.50	0.89	-0.750			
0.8660	55424.96	3.1240	3.1241	-0.1198	26.50	0.89	-0.750			
0.8664	55447.84	3.1210	3.1211	-0.1190	26.50	0.89	-0.750			
0.8667	55470.49	3.1180	3.1179	-0.1181	26.51	0.90	-0.750			
0.8671	55493.12	3.1150	3.1150	-0.1175	26.51	0.90	-0.750			
0.8674	55515.60	3.1120	3.1121	-0.1169	26.51	0.90	-0.750			
0.8678	55538.10	3.1090	3.1090	-0.1160	26.52	0.91	-0.750			
0.8681	55560.46	3.1060	3.1061	-0.1154	26.52	0.91	-0.750			
0.8685	55582.54	3.1030	3.1029	-0.1142	26.52	0.91	-0.750			
0.8688	55604.40	3.1000	3.1001	-0.1131	26.52	0.91	-0.750			
0.8692	55625.85	3.0970	3.0970	-0.1124	26.53	0.92	-0.750			
0.8695	55647.28	3.0940	3.0939	-0.1115	26.53	0.92	-0.750			
0.8698	55668.54	3.0910	3.0910	-0.1110	26.53	0.92	-0.750			
0.8701	55689.59	3.0880	3.0879	-0.1102	26.53	0.92	-0.750			
0.8705	55710.92	3.0850	3.0850	-0.1095	26.54	0.93	-0.750			
0.8708	55731.97	3.0820	3.0820	-0.1090	26.54	0.93	-0.750			
0.8711	55752.83	3.0790	3.0791	-0.1082	26.54	0.93	-0.750			
0.8715	55773.73	3.0760	3.0760	-0.1077	26.55	0.94	-0.750			
0.8718	55794.25	3.0730	3.0730	-0.1068	26.55	0.94	-0.750			
0.8721	55814.58	3.0700	3.0700	-0.1058	26.55	0.94	-0.750			
0.8724	55834.77	3.0670	3.0669	-0.1052	26.55	0.94	-0.750			
0.8727	55854.77	3.0640	3.0639	-0.1043	26.56	0.95	-0.750			
0.8730	55874.86	3.0610	3.0611	-0.1035	26.56	0.95	-0.750			
0.8734	55894.81	3.0580	3.0580	-0.1030	26.56	0.95	-0.750			
0.8737	55914.38	3.0550	3.0550	-0.1024	26.56	0.95	-0.750			
0.8740	55933.89	3.0520	3.0521	-0.1016	26.57	0.96	-0.750			
0.8743	55953.32	3.0490	3.0490	-0.1010	26.57	0.96	-0.750			
0.8746	55972.62	3.0460	3.0459	-0.1004	26.57	0.96	-0.750			
0.8749	55991.90	3.0430	3.0430	-0.0998	26.57	0.96	-0.750			
0.8752	56010.98	3.0400	3.0400	-0.0992	26.58	0.97	-0.750			
0.8755	56030.06	3.0370	3.0370	-0.0984	26.58	0.97	-0.750			
0.8758	56049.08	3.0340	3.0341	-0.0980	26.58	0.97	-0.750			
0.8761	56067.72	3.0310	3.0309	-0.0972	26.58	0.97	-0.750			
0.8763	56086.24	3.0280	3.0280	-0.0963	26.58	0.97	-0.750			
0.8766	56104.56	3.0250	3.0250	-0.0959	26.59	0.98	-0.750			
0.8769	56122.81	3.0220	3.0219	-0.0952	26.59	0.98	-0.750			
0.8772	56141.17	3.0190	3.0190	-0.0946	26.59	0.98	-0.750			
0.8775	56159.28	3.0160	3.0160	-0.0940	26.59	0.98	-0.750			
0.8778	56177.28	3.0130	3.0130	-0.0934	26.60	0.99	-0.750			
0.8781	56195.33	3.0100	3.0100	-0.0927	26.60	0.99	-0.750			
0.8783	56213.04	3.0070	3.0070	-0.0918	26.60	0.99	-0.750			
0.8786	56230.57	3.0040	3.0040	-0.0892	26.60	0.99	-0.750			
