Ah_balance (normalized)	Ah_balance (mAh)	Voltage - fit (V)	Voltage -  interpolate (V)	dQ/dV (1/V)	Temperature (°C)	Temperature - diff (°C)	Current (C)	R_DC 0ms (mOhm)	R_DC 50ms (mOhm)	R_DC 50 ms PEC (mOhm)
0.1982	12686.24	3.9130	3.9127	-0.1109	25.76	-0.01	-1.500			
0.1986	12711.26	3.9100	3.9098	-0.1449	25.76	-0.01	-1.500			
0.1991	12742.40	3.9070	3.9069	-0.1765	25.77	-0.00	-1.500			
0.1997	12779.21	3.9040	3.9041	-0.2079	25.77	-0.00	-1.500			
0.2004	12822.77	3.9010	3.9010	-0.2356	25.77	-0.00	-1.500			
0.2011	12871.83	3.8980	3.8980	-0.2650	25.77	-0.00	-1.500			
0.2020	12925.38	3.8950	3.8950	-0.2898	25.77	-0.00	-1.500			
0.2029	12983.52	3.8920	3.8920	-0.3158	25.77	-0.00	-1.500			
0.2039	13046.57	3.8890	3.8890	-0.3420	25.77	-0.00	-1.500			
0.2049	13114.35	3.8860	3.8860	-0.3686	25.77	-0.00	-1.500			
0.2061	13187.28	3.8830	3.8830	-0.3947	25.77	-0.00	-1.500			
0.2073	13266.21	3.8800	3.8800	-0.4215	25.77	-0.00	-1.500			
0.2086	13349.50	3.8770	3.8770	-0.4493	25.77	-0.00	-1.500			
0.2100	13438.80	3.8740	3.8741	-0.4763	25.77	-0.00	-1.500			
0.2115	13533.37	3.8710	3.8710	-0.5002	25.77	0.00	-1.500			
0.2130	13632.18	3.8680	3.8680	-0.5232	25.77	0.00	-1.500			
0.2146	13735.31	3.8650	3.8651	-0.5436	25.77	0.00	-1.500			
0.2163	13841.97	3.8620	3.8620	-0.5635	25.77	0.00	-1.500			
0.2180	13952.83	3.8590	3.8590	-0.5822	25.77	0.00	-1.500			
0.2198	14066.19	3.8560	3.8560	-0.5961	25.77	0.00	-1.500			
0.2216	14182.68	3.8530	3.8530	-0.6104	25.77	0.00	-1.500			
0.2235	14301.32	3.8500	3.8501	-0.6236	25.77	0.00	-1.500			
0.2254	14423.09	3.8470	3.8470	-0.6348	25.78	0.01	-1.500			
0.2273	14546.00	3.8440	3.8440	-0.6447	25.78	0.01	-1.500			
0.2292	14670.45	3.8410	3.8410	-0.6535	25.78	0.01	-1.500			
0.2312	14797.32	3.8380	3.8380	-0.6600	25.78	0.01	-1.500			
0.2332	14925.34	3.8350	3.8350	-0.6694	25.78	0.01	-1.500			
0.2352	15054.62	3.8320	3.8321	-0.6735	25.78	0.01	-1.500			
0.2373	15184.21	3.8290	3.8290	-0.6787	25.78	0.01	-1.500			
0.2393	15315.56	3.8260	3.8260	-0.6844	25.78	0.01	-1.500			
0.2414	15447.35	3.8230	3.8230	-0.6888	25.78	0.01	-1.500			
0.2434	15580.41	3.8200	3.8200	-0.6924	25.79	0.02	-1.500			
0.2455	15714.19	3.8170	3.8171	-0.6955	25.79	0.02	-1.500			
0.2476	15848.03	3.8140	3.8139	-0.6953	25.79	0.02	-1.500			
0.2497	15981.82	3.8110	3.8110	-0.6984	25.79	0.02	-1.500			
0.2518	16115.05	3.8080	3.8080	-0.6995	25.79	0.02	-1.500			
0.2539	16249.02	3.8050	3.8050	-0.7046	25.79	0.02	-1.500			
0.2560	16385.27	3.8020	3.8020	-0.7061	25.80	0.03	-1.500			
0.2581	16521.49	3.7990	3.7990	-0.7098	25.80	0.03	-1.500			
0.2603	16659.11	3.7960	3.7960	-0.7098	25.80	0.03	-1.500			
0.2624	16795.73	3.7930	3.7929	-0.7093	25.80	0.03	-1.500			
0.2646	16931.41	3.7900	3.7900	-0.7059	25.81	0.04	-1.500			
0.2667	17066.65	3.7870	3.7870	-0.7041	25.81	0.04	-1.500			
0.2688	17200.67	3.7840	3.7840	-0.7055	25.82	0.05	-1.500			
0.2709	17336.96	3.7810	3.7810	-0.7074	25.82	0.05	-1.500			
0.2730	17472.30	3.7780	3.7780	-0.7080	25.82	0.05	-1.500			
0.2751	17609.20	3.7750	3.7751	-0.7092	25.83	0.06	-1.500			
0.2773	17745.50	3.7720	3.7720	-0.7100	25.83	0.06	-1.500			
0.2794	17881.97	3.7690	3.7690	-0.7114	25.84	0.07	-1.500			
0.2815	18019.05	3.7660	3.7660	-0.7082	25.84	0.07	-1.500			
0.2837	18153.93	3.7630	3.7630	-0.7093	25.84	0.07	-1.500			
0.2858	18290.91	3.7600	3.7600	-0.7105	25.85	0.08	-1.500			
0.2879	18426.87	3.7570	3.7570	-0.7101	25.85	0.08	-1.500			
0.2901	18563.56	3.7540	3.7540	-0.7111	25.86	0.09	-1.500			
0.2922	18699.21	3.7510	3.7510	-0.7135	25.87	0.10	-1.500			
0.2943	18836.22	3.7480	3.7480	-0.7172	25.87	0.10	-1.500			
0.2965	18974.68	3.7450	3.7450	-0.7218	25.88	0.11	-1.500			
0.2986	19112.92	3.7420	3.7420	-0.7219	25.88	0.11	-1.500			
0.3008	19253.35	3.7390	3.7390	-0.7276	25.89	0.12	-1.500			
0.3030	19393.28	3.7360	3.7360	-0.7296	25.90	0.13	-1.500			
0.3052	19532.63	3.7330	3.7330	-0.7349	25.90	0.13	-1.500			
0.3074	19674.07	3.7300	3.7300	-0.7359	25.91	0.14	-1.500			
0.3096	19815.90	3.7270	3.7269	-0.7385	25.92	0.15	-1.500			
0.3118	19958.11	3.7240	3.7240	-0.7416	25.92	0.15	-1.500			
0.3141	20100.00	3.7210	3.7210	-0.7489	25.92	0.15	-1.500			
0.3163	20243.53	3.7180	3.7180	-0.7553	25.93	0.16	-1.500			
0.3186	20389.54	3.7150	3.7149	-0.7656	25.93	0.16	-1.500			
0.3209	20536.48	3.7120	3.7120	-0.7691	25.94	0.17	-1.500			
0.3232	20686.60	3.7090	3.7090	-0.7774	25.94	0.17	-1.500			
0.3256	20837.47	3.7060	3.7060	-0.7836	25.94	0.17	-1.500			
0.3279	20987.90	3.7030	3.7030	-0.7886	25.95	0.18	-1.500			
0.3303	21136.97	3.7000	3.7000	-0.7973	25.95	0.18	-1.500			
0.3327	21291.13	3.6970	3.6970	-0.8102	25.95	0.18	-1.500			
0.3351	21447.82	3.6940	3.6940	-0.8197	25.96	0.19	-1.500			
0.3376	21606.99	3.6910	3.6910	-0.8343	25.96	0.19	-1.500			
0.3402	21769.84	3.6880	3.6880	-0.8432	25.97	0.20	-1.500			
0.3427	21932.62	3.6850	3.6850	-0.8512	25.97	0.20	-1.500			
0.3452	22095.72	3.6820	3.6820	-0.8620	25.97	0.20	-1.500			
0.3478	22261.80	3.6790	3.6790	-0.8708	25.98	0.21	-1.500			
0.3505	22429.56	3.6760	3.6760	-0.8830	25.98	0.21	-1.500			
0.3531	22599.85	3.6730	3.6730	-0.8978	25.99	0.22	-1.500			
0.3558	22773.26	3.6700	3.6700	-0.9121	25.99	0.22	-1.500			
0.3586	22950.75	3.6670	3.6669	-0.9295	26.00	0.23	-1.500			
0.3614	23129.67	3.6640	3.6640	-0.9464	26.00	0.23	-1.500			
0.3643	23312.36	3.6610	3.6611	-0.9662	26.00	0.23	-1.500			
0.3672	23501.12	3.6580	3.6579	-0.9872	26.01	0.24	-1.500			
0.3702	23692.84	3.6550	3.6550	-1.0025	26.01	0.24	-1.500			
0.3732	23885.42	3.6520	3.6520	-1.0203	26.02	0.25	-1.500			
0.3763	24083.73	3.6490	3.6491	-1.0382	26.02	0.25	-1.500			
0.3795	24284.96	3.6460	3.6460	-1.0551	26.03	0.26	-1.500			
0.3826	24489.01	3.6430	3.6429	-1.0693	26.03	0.26	-1.500			
0.3859	24696.81	3.6400	3.6400	-1.0816	26.04	0.27	-1.500			
0.3891	24905.39	3.6370	3.6370	-1.1003	26.04	0.27	-1.500			
0.3925	25117.37	3.6340	3.6341	-1.1227	26.04	0.27	-1.500			
0.3958	25333.66	3.6310	3.6309	-1.1406	26.04	0.27	-1.500			
0.3993	25552.87	3.6280	3.6280	-1.1653	26.05	0.28	-1.500			
0.4028	25779.24	3.6250	3.6251	-1.1945	26.05	0.28	-1.500			
0.4065	26013.50	3.6220	3.6219	-1.2144	26.05	0.28	-1.500			
0.4102	26250.40	3.6190	3.6190	-1.2429	26.05	0.28	-1.500			
0.4139	26490.23	3.6160	3.6160	-1.2607	26.05	0.28	-1.500			
0.4177	26732.90	3.6130	3.6130	-1.2824	26.05	0.28	-1.500			
0.4216	26982.16	3.6100	3.6099	-1.3070	26.05	0.28	-1.500			
0.4255	27234.48	3.6070	3.6070	-1.3210	26.06	0.29	-1.500			
0.4295	27490.77	3.6040	3.6040	-1.3444	26.06	0.29	-1.500			
0.4336	27752.27	3.6010	3.6010	-1.3666	26.06	0.29	-1.500			
0.4377	28015.05	3.5980	3.5980	-1.3808	26.06	0.29	-1.500			
0.4419	28282.73	3.5950	3.5949	-1.4053	26.06	0.29	-1.500			
0.4461	28551.62	3.5920	3.5920	-1.4312	26.06	0.29	-1.500			
0.4505	28831.71	3.5890	3.5889	-1.4510	26.07	0.30	-1.500			
0.4549	29114.40	3.5860	3.5860	-1.4751	26.07	0.30	-1.500			
0.4594	29399.54	3.5830	3.5830	-1.4921	26.07	0.30	-1.500			
0.4639	29687.03	3.5800	3.5800	-1.5140	26.07	0.30	-1.500			
0.4685	29980.92	3.5770	3.5769	-1.5256	26.07	0.30	-1.500			
0.4730	30273.14	3.5740	3.5740	-1.5513	26.07	0.30	-1.500			
0.4777	30571.20	3.5710	3.5710	-1.5689	26.08	0.31	-1.500			
0.4825	30881.41	3.5680	3.5680	-1.6007	26.08	0.31	-1.500			
0.4873	31189.97	3.5650	3.5651	-1.6115	26.08	0.31	-1.500			
0.4922	31499.72	3.5620	3.5620	-1.6340	26.08	0.31	-1.500			
0.4971	31814.66	3.5590	3.5590	-1.6579	26.08	0.31	-1.500			
0.5021	32135.69	3.5560	3.5560	-1.6732	26.08	0.31	-1.500			
0.5072	32459.45	3.5530	3.5529	-1.6900	26.08	0.31	-1.500			
0.5123	32785.93	3.5500	3.5501	-1.7026	26.08	0.31	-1.500			
0.5174	33116.55	3.5470	3.5469	-1.7137	26.08	0.31	-1.500			
0.5226	33447.35	3.5440	3.5440	-1.7346	26.09	0.32	-1.500			
0.5278	33779.92	3.5410	3.5410	-1.7443	26.09	0.32	-1.500			
0.5331	34120.69	3.5380	3.5379	-1.7539	26.10	0.33	-1.500			
0.5384	34457.80	3.5350	3.5350	-1.7612	26.10	0.33	-1.500	0.372	0.517	
0.5437	34797.39	3.5320	3.5320	-1.7626	26.11	0.34	-1.500			
0.5490	35133.17	3.5290	3.5289	-1.7650	26.12	0.35	-1.500			
0.5542	35468.71	3.5260	3.5260	-1.7660	26.12	0.35	-1.500			
0.5596	35814.01	3.5230	3.5230	-1.7769	26.13	0.36	-1.500			
0.5649	36155.83	3.5200	3.5201	-1.7841	26.13	0.36	-1.500			
0.5703	36499.31	3.5170	3.5170	-1.7849	26.14	0.37	-1.500			
0.5757	36841.96	3.5140	3.5140	-1.7838	26.15	0.38	-1.500			
0.5810	37184.06	3.5110	3.5110	-1.7848	26.15	0.38	-1.500			
0.5864	37528.25	3.5080	3.5080	-1.7891	26.16	0.39	-1.500			
0.5917	37869.83	3.5050	3.5050	-1.7975	26.17	0.40	-1.500			
0.5971	38215.67	3.5020	3.5020	-1.7998	26.19	0.42	-1.500			
0.6026	38564.17	3.4990	3.4990	-1.7874	26.20	0.43	-1.500			
0.6079	38908.07	3.4960	3.4959	-1.7827	26.21	0.44	-1.500			
0.6133	39249.82	3.4930	3.4931	-1.7748	26.22	0.45	-1.500			
0.6186	39589.62	3.4900	3.4899	-1.7659	26.24	0.47	-1.500			
0.6238	39926.18	3.4870	3.4870	-1.7552	26.25	0.48	-1.500			
0.6291	40259.91	3.4840	3.4840	-1.7407	26.26	0.49	-1.500			
0.6344	40600.53	3.4810	3.4809	-1.7397	26.28	0.51	-1.500			
0.6396	40932.43	3.4780	3.4780	-1.7227	26.29	0.52	-1.500			
0.6447	41259.40	3.4750	3.4750	-1.7144	26.30	0.53	-1.500			
0.6498	41589.31	3.4720	3.4719	-1.6916	26.31	0.54	-1.500			
0.6549	41913.78	3.4690	3.4690	-1.6646	26.32	0.55	-1.500			
0.6599	42231.50	3.4660	3.4660	-1.6451	26.34	0.57	-1.500			
0.6648	42546.25	3.4630	3.4630	-1.6236	26.35	0.58	-1.500			
0.6696	42855.07	3.4600	3.4600	-1.6026	26.37	0.60	-1.500			
0.6743	43157.37	3.4570	3.4569	-1.5738	26.38	0.61	-1.500			
0.6790	43456.23	3.4540	3.4540	-1.5504	26.40	0.63	-1.500			
0.6837	43756.54	3.4510	3.4510	-1.5319	26.41	0.64	-1.500			
0.6882	44047.55	3.4480	3.4481	-1.5107	26.43	0.66	-1.500			
0.6927	44334.37	3.4450	3.4450	-1.4887	26.45	0.68	-1.500			
0.6972	44618.32	3.4420	3.4419	-1.4732	26.47	0.70	-1.500			
0.7015	44898.41	3.4390	3.4390	-1.4467	26.49	0.72	-1.500			
0.7059	45174.72	3.4360	3.4361	-1.4355	26.51	0.74	-1.500			
0.7101	45449.43	3.4330	3.4330	-1.4200	26.52	0.75	-1.500			
0.7144	45720.06	3.4300	3.4300	-1.4060	26.54	0.77	-1.500			
0.7185	45985.89	3.4270	3.4270	-1.3919	26.56	0.79	-1.500			
0.7227	46253.45	3.4240	3.4240	-1.3826	26.58	0.81	-1.500			
0.7269	46519.30	3.4210	3.4210	-1.3701	26.60	0.83	-1.500			
0.7310	46784.31	3.4180	3.4181	-1.3587	26.62	0.85	-1.500			
0.7350	47042.04	3.4150	3.4150	-1.3319	26.64	0.87	-1.500			
0.7390	47296.65	3.4120	3.4120	-1.3120	26.65	0.88	-1.500			
0.7429	47545.96	3.4090	3.4090	-1.2837	26.67	0.90	-1.500			
0.7467	47789.13	3.4060	3.4060	-1.2549	26.69	0.92	-1.500			
0.7505	48030.26	3.4030	3.4030	-1.2231	26.71	0.94	-1.500			
0.7541	48264.58	3.4000	3.4000	-1.1894	26.73	0.96	-1.500			
0.7576	48489.49	3.3970	3.3970	-1.1493	26.75	0.98	-1.500			
0.7610	48706.90	3.3940	3.3941	-1.1073	26.76	0.99	-1.500			
0.7643	48913.99	3.3910	3.3909	-1.0676	26.78	1.01	-1.500			
0.7674	49114.36	3.3880	3.3880	-1.0293	26.79	1.02	-1.500			
0.7704	49306.90	3.3850	3.3850	-0.9943	26.81	1.04	-1.500			
0.7734	49497.42	3.3820	3.3820	-0.9582	26.83	1.06	-1.500			
0.7762	49676.51	3.3790	3.3790	-0.9195	26.84	1.07	-1.500			
0.7789	49849.33	3.3760	3.3760	-0.8842	26.85	1.08	-1.500			
0.7815	50015.44	3.3730	3.3729	-0.8489	26.87	1.10	-1.500			
0.7840	50174.14	3.3700	3.3699	-0.8133	26.88	1.11	-1.500			
0.7863	50325.76	3.3670	3.3671	-0.7825	26.89	1.12	-1.500			
0.7886	50471.81	3.3640	3.3640	-0.7535	26.90	1.13	-1.500			
0.7909	50615.09	3.3610	3.3610	-0.7315	26.91	1.14	-1.500			
0.7930	50751.30	3.3580	3.3580	-0.7046	26.92	1.15	-1.500			
0.7951	50884.35	3.3550	3.3550	-0.6858	26.93	1.16	-1.500			
0.7971	51014.37	3.3520	3.3520	-0.6652	26.94	1.17	-1.500			
0.7991	51140.53	3.3490	3.3490	-0.6429	26.95	1.18	-1.500			
0.8010	51261.11	3.3460	3.3460	-0.6229	26.96	1.19	-1.500			
0.8028	51378.40	3.3430	3.3431	-0.6026	26.97	1.20	-1.500			
0.8046	51492.05	3.3400	3.3400	-0.5844	26.98	1.21	-1.500			
0.8063	51601.82	3.3370	3.3369	-0.5669	26.98	1.21	-1.500			
0.8079	51708.76	3.3340	3.3341	-0.5505	26.99	1.22	-1.500			
0.8096	51813.80	3.3310	3.3310	-0.5349	27.00	1.23	-1.500			
0.8112	51915.08	3.3280	3.3280	-0.5187	27.01	1.24	-1.500			
0.8127	52012.38	3.3250	3.3250	-0.5001	27.02	1.25	-1.500			
0.8142	52107.20	3.3220	3.3221	-0.4860	27.03	1.26	-1.500			
0.8156	52197.91	3.3190	3.3190	-0.4709	27.04	1.27	-1.500			
0.8170	52286.59	3.3160	3.3159	-0.4583	27.04	1.27	-1.500			
0.8183	52373.62	3.3130	3.3130	-0.4464	27.05	1.28	-1.500			
0.8197	52458.17	3.3100	3.3100	-0.4339	27.06	1.29	-1.500			
0.8209	52540.73	3.3070	3.3070	-0.4227	27.07	1.30	-1.500			
0.8222	52621.06	3.3040	3.3040	-0.4110	27.07	1.30	-1.500			
0.8234	52698.21	3.3010	3.3010	-0.3986	27.08	1.31	-1.500			
0.8246	52773.67	3.2980	3.2980	-0.3871	27.09	1.32	-1.500			
0.8257	52846.87	3.2950	3.2950	-0.3768	27.10	1.33	-1.500			
0.8268	52918.25	3.2920	3.2920	-0.3668	27.10	1.33	-1.500			
0.8279	52987.54	3.2890	3.2890	-0.3581	27.11	1.34	-1.500			
0.8290	53055.16	3.2860	3.2862	-0.3485	27.11	1.34	-1.500			
0.8300	53121.14	3.2830	3.2829	-0.3402	27.12	1.35	-1.500			
0.8310	53185.58	3.2800	3.2800	-0.3322	27.12	1.35	-1.500			
0.8320	53248.50	3.2770	3.2770	-0.3255	27.13	1.36	-1.500			
0.8330	53310.03	3.2740	3.2740	-0.3183	27.13	1.36	-1.500			
0.8339	53370.94	3.2710	3.2710	-0.3111	27.14	1.37	-1.500			
0.8348	53429.97	3.2680	3.2681	-0.3037	27.14	1.37	-1.500			
0.8357	53487.77	3.2650	3.2649	-0.2960	27.15	1.38	-1.500			
0.8366	53543.58	3.2620	3.2620	-0.2883	27.15	1.38	-1.500			
0.8375	53597.49	3.2590	3.2591	-0.2823	27.16	1.39	-1.500			
0.8383	53650.71	3.2560	3.2559	-0.2769	27.17	1.40	-1.500			
0.8391	53703.78	3.2530	3.2530	-0.2711	27.17	1.40	-1.500			
0.8399	53755.55	3.2500	3.2499	-0.2660	27.18	1.41	-1.500			
0.8407	53806.22	3.2470	3.2472	-0.2615	27.18	1.41	-1.500			
0.8415	53856.45	3.2440	3.2440	-0.2560	27.19	1.42	-1.500			
0.8423	53904.34	3.2410	3.2409	-0.2501	27.20	1.43	-1.500			
0.8430	53951.22	3.2380	3.2380	-0.2451	27.20	1.43	-1.500			
0.8437	53997.26	3.2350	3.2351	-0.2403	27.21	1.44	-1.500			
0.8444	54043.07	3.2320	3.2319	-0.2382	27.21	1.44	-1.500			
0.8451	54089.02	3.2290	3.2290	-0.2345	27.22	1.45	-1.500			
0.8458	54133.56	3.2260	3.2260	-0.2308	27.22	1.45	-1.500			
0.8465	54177.57	3.2230	3.2230	-0.2274	27.23	1.46	-1.500			
0.8472	54221.39	3.2200	3.2201	-0.2247	27.23	1.46	-1.500			
0.8479	54263.70	3.2170	3.2169	-0.2202	27.24	1.47	-1.500			
0.8485	54305.54	3.2140	3.2140	-0.2166	27.24	1.47	-1.500			
0.8492	54346.81	3.2110	3.2110	-0.2133	27.25	1.48	-1.500			
0.8498	54387.22	3.2080	3.2080	-0.2098	27.25	1.48	-1.500			
0.8504	54427.56	3.2050	3.2050	-0.2077	27.26	1.49	-1.500			
0.8510	54466.53	3.2020	3.2020	-0.2045	27.26	1.49	-1.500			
0.8516	54505.60	3.1990	3.1990	-0.2025	27.27	1.50	-1.500			
0.8523	54544.29	3.1960	3.1960	-0.1995	27.27	1.50	-1.500			
0.8528	54582.39	3.1930	3.1930	-0.1971	27.28	1.51	-1.500			
0.8534	54620.20	3.1900	3.1901	-0.1947	27.28	1.51	-1.500			
0.8540	54657.31	3.1870	3.1870	-0.1919	27.28	1.51	-1.500			
0.8546	54693.88	3.1840	3.1840	-0.1898	27.29	1.52	-1.500			
0.8552	54729.78	3.1810	3.1811	-0.1876	27.29	1.52	-1.500			
0.8557	54765.47	3.1780	3.1779	-0.1849	27.30	1.53	-1.500			
0.8563	54800.83	3.1750	3.1750	-0.1834	27.30	1.53	-1.500			
0.8568	54836.11	3.1720	3.1720	-0.1821	27.31	1.54	-1.500			
0.8574	54870.88	3.1690	3.1691	-0.1801	27.31	1.54	-1.500			
0.8579	54905.44	3.1660	3.1660	-0.1786	27.31	1.54	-1.500			
0.8584	54939.51	3.1630	3.1630	-0.1764	27.32	1.55	-1.500			
0.8590	54972.97	3.1600	3.1600	-0.1745	27.32	1.55	-1.500			
0.8595	55006.12	3.1570	3.1571	-0.1729	27.33	1.56	-1.500			
0.8600	55039.25	3.1540	3.1539	-0.1718	27.33	1.56	-1.500			
0.8605	55072.10	3.1510	3.1510	-0.1704	27.33	1.56	-1.500			
0.8610	55104.59	3.1480	3.1480	-0.1688	27.34	1.57	-1.500			
0.8615	55137.17	3.1450	3.1450	-0.1672	27.34	1.57	-1.500			
0.8620	55169.27	3.1420	3.1420	-0.1656	27.35	1.58	-1.500			
0.8625	55200.72	3.1390	3.1391	-0.1640	27.35	1.58	-1.500			
0.8630	55231.84	3.1360	3.1360	-0.1629	27.36	1.59	-1.500			
0.8635	55263.11	3.1330	3.1329	-0.1608	27.37	1.60	-1.500			
0.8640	55293.83	3.1300	3.1300	-0.1592	27.37	1.60	-1.500			
0.8644	55324.21	3.1270	3.1270	-0.1581	27.38	1.61	-1.500			
0.8649	55354.47	3.1240	3.1241	-0.1567	27.38	1.61	-1.500			
0.8654	55384.51	3.1210	3.1207	-0.1556	27.39	1.62	-1.500			
0.8658	55414.23	3.1180	3.1181	-0.1540	27.39	1.62	-1.500			
0.8663	55443.32	3.1150	3.1150	-0.1532	27.40	1.63	-1.500			
0.8668	55472.56	3.1120	3.1120	-0.1519	27.40	1.63	-1.500			
0.8672	55501.90	3.1090	3.1090	-0.1519	27.41	1.64	-1.500			
0.8677	55530.96	3.1060	3.1060	-0.1508	27.41	1.64	-1.500			
0.8681	55559.63	3.1030	3.1031	-0.1500	27.42	1.65	-1.500			
0.8686	55588.42	3.1000	3.1000	-0.1496	27.42	1.65	-1.500			
0.8690	55617.15	3.0970	3.0970	-0.1487	27.43	1.66	-1.500			
0.8695	55645.62	3.0940	3.0940	-0.1479	27.43	1.66	-1.500			
0.8699	55673.96	3.0910	3.0910	-0.1465	27.44	1.67	-1.500			
0.8703	55702.30	3.0880	3.0881	-0.1455	27.44	1.67	-1.500			
0.8708	55729.72	3.0850	3.0850	-0.1445	27.45	1.68	-1.500			
0.8712	55757.37	3.0820	3.0821	-0.1436	27.45	1.68	-1.500			
0.8716	55784.90	3.0790	3.0790	-0.1418	27.46	1.69	-1.500			
0.8721	55811.83	3.0760	3.0761	-0.1406	27.46	1.69	-1.500			
0.8725	55838.78	3.0730	3.0730	-0.1398	27.47	1.70	-1.500			
0.8729	55865.45	3.0700	3.0702	-0.1396	27.47	1.70	-1.500			
0.8733	55892.25	3.0670	3.0669	-0.1391	27.48	1.71	-1.500			
0.8737	55919.07	3.0640	3.0639	-0.1381	27.49	1.72	-1.500			
0.8741	55945.50	3.0610	3.0610	-0.1371	27.49	1.72	-1.500			
0.8746	55971.63	3.0580	3.0581	-0.1354	27.50	1.73	-1.500			
0.8750	55997.89	3.0550	3.0550	-0.1352	27.50	1.73	-1.500			
0.8754	56023.46	3.0520	3.0519	-0.1338	27.51	1.74	-1.500			
0.8758	56049.04	3.0490	3.0489	-0.1327	27.51	1.74	-1.500			
0.8762	56074.11	3.0460	3.0460	-0.1322	27.52	1.75	-1.500			
0.8766	56099.47	3.0430	3.0430	-0.1315	27.52	1.75	-1.500			
0.8770	56124.83	3.0400	3.0399	-0.1314	27.53	1.76	-1.500			
0.8773	56150.05	3.0370	3.0371	-0.1306	27.53	1.76	-1.500			
0.8777	56175.23	3.0340	3.0339	-0.1299	27.54	1.77	-1.500			
0.8781	56199.94	3.0310	3.0312	-0.1291	27.54	1.77	-1.500			
0.8785	56224.72	3.0280	3.0279	-0.1285	27.55	1.78	-1.500			
0.8789	56249.32	3.0250	3.0251	-0.1277	27.55	1.78	-1.500			
0.8793	56273.77	3.0220	3.0219	-0.1266	27.56	1.79	-1.500			
0.8797	56298.11	3.0190	3.0191	-0.1259	27.56	1.79	-1.500			
0.8800	56321.95	3.0160	3.0160	-0.1256	27.57	1.80	-1.500			
0.8804	56345.94	3.0130	3.0128	-0.1250	27.57	1.80	-1.500			
0.8808	56369.90	3.0100	3.0101	-0.1246	27.58	1.81	-1.500			
0.8811	56393.55	3.0070	3.0069	-0.1252	27.58	1.81	-1.500			
0.8815	56417.67	3.0040	3.0041	-0.1261	27.59	1.82	-1.500			
