Ah_balance (normalized)	Ah_balance (mAh)	Voltage - fit (V)	Voltage -  interpolate (V)	dQ/dV (1/V)	Temperature (°C)	Temperature - diff (°C)	Current (C)	R_DC 0ms (mOhm)	R_DC 50ms (mOhm)	R_DC 50 ms PEC (mOhm)
0.2924	18714.32	3.9880	3.9880	0.8591	27.15	1.19	1.500			
0.2950	18879.37	3.9850	3.9851	0.8566	27.15	1.19	1.500			
0.2975	19042.17	3.9820	3.9819	0.8457	27.14	1.18	1.500			
0.3000	19201.36	3.9790	3.9791	0.8438	27.13	1.17	1.500			
0.3025	19362.20	3.9760	3.9761	0.8450	27.13	1.17	1.500			
0.3051	19524.53	3.9730	3.9729	0.8491	27.12	1.16	1.500			
0.3076	19688.04	3.9700	3.9700	0.8570	27.12	1.16	1.500			
0.3102	19853.44	3.9670	3.9670	0.8601	27.11	1.15	1.500			
0.3128	20020.79	3.9640	3.9640	0.8702	27.10	1.14	1.500			
0.3154	20187.67	3.9610	3.9610	0.8724	27.10	1.14	1.500			
0.3180	20355.07	3.9580	3.9580	0.8733	27.09	1.13	1.500			
0.3207	20524.57	3.9550	3.9550	0.8735	27.08	1.12	1.500			
0.3233	20691.78	3.9520	3.9520	0.8767	27.08	1.12	1.500			
0.3259	20858.90	3.9490	3.9491	0.8802	27.07	1.11	1.500			
0.3286	21028.82	3.9460	3.9460	0.8855	27.06	1.10	1.500			
0.3312	21197.55	3.9430	3.9430	0.8888	27.06	1.10	1.500			
0.3339	21370.24	3.9400	3.9400	0.8937	27.05	1.09	1.500			
0.3366	21543.20	3.9370	3.9370	0.8996	27.05	1.09	1.500			
0.3393	21716.18	3.9340	3.9340	0.9052	27.04	1.08	1.500			
0.3420	21889.19	3.9310	3.9310	0.9077	27.04	1.08	1.500			
0.3448	22064.59	3.9280	3.9279	0.9077	27.03	1.07	1.500			
0.3475	22239.01	3.9250	3.9250	0.9151	27.03	1.07	1.500			
0.3502	22414.13	3.9220	3.9220	0.9223	27.02	1.06	1.500			
0.3530	22592.67	3.9190	3.9190	0.9308	27.02	1.06	1.500			
0.3558	22771.11	3.9160	3.9159	0.9362	27.01	1.05	1.500			
0.3586	22951.84	3.9130	3.9131	0.9413	27.00	1.04	1.500			
0.3615	23134.70	3.9100	3.9100	0.9478	27.00	1.04	1.500			
0.3643	23317.16	3.9070	3.9070	0.9568	26.99	1.03	1.500			
0.3672	23499.12	3.9040	3.9041	0.9582	26.98	1.02	1.500			
0.3701	23684.42	3.9010	3.9009	0.9646	26.98	1.02	1.500			
0.3730	23870.28	3.8980	3.8980	0.9744	26.97	1.01	1.500			
0.3759	24058.46	3.8950	3.8950	0.9819	26.96	1.00	1.500			
0.3789	24248.60	3.8920	3.8921	0.9917	26.95	0.99	1.500			
0.3819	24439.10	3.8890	3.8890	0.9988	26.95	0.99	1.500			
0.3848	24629.34	3.8860	3.8861	1.0082	26.94	0.98	1.500			
0.3879	24825.07	3.8830	3.8830	1.0234	26.94	0.98	1.500			
0.3910	25023.45	3.8800	3.8799	1.0318	26.93	0.97	1.500			
0.3941	25221.78	3.8770	3.8770	1.0393	26.92	0.96	1.500			
0.3972	25421.52	3.8740	3.8741	1.0550	26.92	0.96	1.500			
0.4004	25625.08	3.8710	3.8709	1.0665	26.91	0.95	1.500			
0.4036	25830.40	3.8680	3.8680	1.0774	26.90	0.94	1.500			
0.4069	26038.82	3.8650	3.8650	1.0888	26.90	0.94	1.500			
0.4102	26250.43	3.8620	3.8621	1.1069	26.89	0.93	1.500			
0.4135	26465.26	3.8590	3.8590	1.1217	26.88	0.92	1.500			
0.4169	26680.69	3.8560	3.8560	1.1305	26.88	0.92	1.500			
0.4203	26897.02	3.8530	3.8530	1.1457	26.87	0.91	1.500			
0.4237	27117.07	3.8500	3.8501	1.1672	26.86	0.90	1.500			
0.4272	27343.57	3.8470	3.8470	1.1859	26.86	0.90	1.500			
0.4309	27574.98	3.8440	3.8439	1.2073	26.85	0.89	1.500			
0.4345	27808.16	3.8410	3.8410	1.2238	26.84	0.88	1.500			
0.4382	28045.12	3.8380	3.8381	1.2442	26.83	0.87	1.500			
0.4420	28286.03	3.8350	3.8350	1.2618	26.82	0.86	1.500			
0.4458	28528.32	3.8320	3.8320	1.2798	26.81	0.85	1.500			
0.4496	28776.12	3.8290	3.8290	1.3036	26.80	0.84	1.500			
0.4536	29029.44	3.8260	3.8260	1.3310	26.79	0.83	1.500			
0.4576	29286.55	3.8230	3.8231	1.3556	26.79	0.83	1.500			
0.4617	29549.99	3.8200	3.8199	1.3791	26.78	0.82	1.500			
0.4659	29817.33	3.8170	3.8170	1.4009	26.77	0.81	1.500			
0.4701	30087.21	3.8140	3.8140	1.4325	26.76	0.80	1.500			
0.4745	30365.78	3.8110	3.8110	1.4603	26.75	0.79	1.500			
0.4789	30647.01	3.8080	3.8079	1.4898	26.74	0.78	1.500			
0.4834	30935.39	3.8050	3.8051	1.5190	26.73	0.77	1.500			
0.4880	31229.97	3.8020	3.8020	1.5490	26.72	0.76	1.500			
0.4927	31532.51	3.7990	3.7990	1.5758	26.71	0.75	1.500			
0.4974	31835.45	3.7960	3.7960	1.6019	26.70	0.74	1.500			
0.5022	32143.96	3.7930	3.7930	1.6294	26.69	0.73	1.500			
0.5072	32461.16	3.7900	3.7901	1.6576	26.68	0.72	1.500			
0.5122	32781.26	3.7870	3.7870	1.6835	26.67	0.71	1.500			
0.5173	33105.77	3.7840	3.7841	1.7134	26.66	0.70	1.500			
0.5225	33439.28	3.7810	3.7810	1.7289	26.65	0.69	1.500			
0.5277	33773.99	3.7780	3.7781	1.7542	26.64	0.68	1.500	0.344	0.471	
0.5331	34116.22	3.7750	3.7750	1.7650	26.62	0.66	1.500			
0.5384	34457.83	3.7720	3.7720	1.7603	26.61	0.65	1.500			
0.5436	34791.20	3.7690	3.7690	1.7525	26.60	0.64	1.500			
0.5489	35126.94	3.7660	3.7660	1.7524	26.59	0.63	1.500			
0.5541	35461.27	3.7630	3.7630	1.7475	26.57	0.61	1.500			
0.5594	35799.65	3.7600	3.7600	1.7608	26.56	0.60	1.500			
0.5647	36137.88	3.7570	3.7570	1.7636	26.55	0.59	1.500			
0.5699	36474.34	3.7540	3.7540	1.7702	26.54	0.58	1.500			
0.5752	36812.77	3.7510	3.7510	1.7896	26.53	0.57	1.500			
0.5806	37158.69	3.7480	3.7479	1.8087	26.52	0.56	1.500			
0.5861	37507.95	3.7450	3.7450	1.8295	26.51	0.55	1.500			
0.5916	37862.51	3.7420	3.7420	1.8559	26.49	0.53	1.500			
0.5972	38220.68	3.7390	3.7390	1.8912	26.48	0.52	1.500			
0.6029	38586.49	3.7360	3.7360	1.9271	26.47	0.51	1.500			
0.6088	38961.25	3.7330	3.7330	1.9763	26.45	0.49	1.500			
0.6148	39345.22	3.7300	3.7300	2.0097	26.44	0.48	1.500			
0.6208	39732.86	3.7270	3.7270	2.0705	26.42	0.46	1.500			
0.6271	40132.54	3.7240	3.7240	2.1436	26.41	0.45	1.500			
0.6336	40550.76	3.7210	3.7210	2.2253	26.39	0.43	1.500			
0.6405	40990.20	3.7180	3.7180	2.2794	26.38	0.42	1.500			
0.6474	41435.38	3.7150	3.7150	2.3263	26.36	0.40	1.500			
0.6544	41881.22	3.7120	3.7119	2.3805	26.34	0.38	1.500			
0.6616	42344.07	3.7090	3.7090	2.4186	26.33	0.37	1.500			
0.6690	42816.01	3.7060	3.7060	2.4073	26.31	0.35	1.500			
0.6763	43282.87	3.7030	3.7030	2.3590	26.29	0.33	1.500			
0.6833	43731.86	3.7000	3.7000	2.2405	26.27	0.31	1.500			
0.6900	44157.28	3.6970	3.6970	2.0975	26.26	0.30	1.500			
0.6959	44534.68	3.6940	3.6941	1.9153	26.25	0.29	1.500			
0.7011	44871.91	3.6910	3.6911	1.7450	26.24	0.28	1.500			
0.7062	45193.97	3.6880	3.6879	1.6397	26.23	0.27	1.500			
0.7109	45495.53	3.6850	3.6850	1.5487	26.22	0.26	1.500			
0.7154	45786.94	3.6820	3.6820	1.4848	26.21	0.25	1.500			
0.7198	46064.40	3.6790	3.6790	1.4322	26.20	0.24	1.500			
0.7239	46329.96	3.6760	3.6760	1.3752	26.19	0.23	1.500			
0.7279	46585.43	3.6730	3.6730	1.3361	26.19	0.23	1.500			
0.7318	46837.68	3.6700	3.6700	1.3037	26.18	0.22	1.500			
0.7357	47083.89	3.6670	3.6670	1.2870	26.17	0.21	1.500			
0.7395	47327.54	3.6640	3.6641	1.2750	26.15	0.19	1.500			
0.7433	47569.19	3.6610	3.6610	1.2744	26.14	0.18	1.500			
0.7471	47811.65	3.6580	3.6579	1.2742	26.13	0.17	1.500			
0.7509	48055.58	3.6550	3.6550	1.2790	26.12	0.16	1.500			
0.7547	48302.72	3.6520	3.6521	1.2843	26.11	0.15	1.500			
0.7587	48554.87	3.6490	3.6489	1.2868	26.10	0.14	1.500			
0.7625	48801.40	3.6460	3.6460	1.2790	26.09	0.13	1.500			
0.7664	49048.23	3.6430	3.6430	1.2643	26.08	0.12	1.500			
0.7701	49287.99	3.6400	3.6400	1.2544	26.07	0.11	1.500			
0.7739	49527.01	3.6370	3.6370	1.2446	26.06	0.10	1.500			
0.7776	49763.84	3.6340	3.6340	1.2370	26.05	0.09	1.500			
0.7813	50000.48	3.6310	3.6311	1.2356	26.04	0.08	1.500			
0.7850	50237.84	3.6280	3.6280	1.2325	26.03	0.07	1.500			
0.7887	50475.60	3.6250	3.6249	1.2260	26.03	0.07	1.500			
0.7924	50712.19	3.6220	3.6221	1.2170	26.02	0.06	1.500			
0.7960	50944.67	3.6190	3.6189	1.2042	26.02	0.06	1.500			
0.7996	51176.10	3.6160	3.6160	1.1873	26.01	0.05	1.500			
0.8032	51402.68	3.6130	3.6130	1.1636	26.00	0.04	1.500			
0.8066	51623.25	3.6100	3.6100	1.1415	26.00	0.04	1.500			
0.8100	51842.42	3.6070	3.6071	1.1249	25.99	0.03	1.500			
0.8134	52056.30	3.6040	3.6040	1.1034	25.99	0.03	1.500			
0.8167	52265.69	3.6010	3.6009	1.0778	25.98	0.02	1.500			
0.8198	52470.20	3.5980	3.5980	1.0528	25.98	0.02	1.500			
0.8230	52671.92	3.5950	3.5950	1.0292	25.97	0.01	1.500			
0.8261	52867.23	3.5920	3.5920	0.9976	25.97	0.01	1.500			
0.8290	53058.48	3.5890	3.5890	0.9546	25.96	0.00	1.500			
0.8319	53240.34	3.5860	3.5860	0.9000	25.96	-0.00	1.500			
0.8346	53414.85	3.5830	3.5830	0.8301	25.95	-0.01	1.500			
0.8370	53570.23	3.5800	3.5800	0.7429	25.95	-0.01	1.500			
0.8392	53706.08	3.5770	3.5771	0.6496	25.95	-0.01	1.500			
0.8409	53819.78	3.5740	3.5740	0.5500	25.94	-0.02	1.500			
0.8423	53909.55	3.5710	3.5710	0.4609	25.94	-0.02	1.500			
0.8435	53986.61	3.5680	3.5679	0.3879	25.94	-0.02	1.500			
0.8445	54049.13	3.5650	3.5650	0.3270	25.94	-0.02	1.500			
0.8454	54104.25	3.5620	3.5620	0.2838	25.94	-0.02	1.500			
0.8461	54153.16	3.5590	3.5590	0.2451	25.94	-0.02	1.500			
0.8468	54195.60	3.5560	3.5558	0.2174	25.93	-0.03	1.500			
0.8474	54232.57	3.5530	3.5530	0.1930	25.93	-0.03	1.500			
0.8479	54266.97	3.5500	3.5500	0.1727	25.93	-0.03	1.500			
0.8484	54297.81	3.5470	3.5471	0.1560	25.93	-0.03	1.500			
0.8489	54326.45	3.5440	3.5439	0.1403	25.93	-0.03	1.500			
0.8492	54351.28	3.5410	3.5409	0.1246	25.93	-0.03	1.500			
0.8496	54373.41	3.5380	3.5381	0.1087	25.93	-0.03	1.500			
0.8499	54392.91	3.5350	3.5350	0.0944	25.93	-0.03	1.500			
0.8502	54409.90	3.5320	3.5322	0.0803	25.93	-0.03	1.500			
0.8504	54424.19	3.5290	3.5292	0.0655	25.93	-0.03	1.500			
0.8506	54435.31	3.5260	3.5265	0.0504	25.93	-0.03	1.500			
0.8507	54443.52	3.5230	3.5239	0.0352	25.93	-0.03	1.500			
