Ah_balance (normalized)	Ah_balance (mAh)	Voltage - fit (V)	Voltage -  interpolate (V)	dQ/dV (1/V)	Temperature (°C)	Temperature - diff (°C)	Current (C)	R_DC 0ms (mOhm)	R_DC 50ms (mOhm)	R_DC 50 ms PEC (mOhm)
0.2860	18305.81	3.9700	3.9700	0.8693	27.48	1.52	1.500			
0.2887	18476.70	3.9670	3.9669	0.8980	27.48	1.52	1.500			
0.2914	18651.76	3.9640	3.9639	0.9088	27.47	1.51	1.500			
0.2942	18827.82	3.9610	3.9611	0.9111	27.47	1.51	1.500			
0.2969	19003.37	3.9580	3.9580	0.9149	27.46	1.50	1.500			
0.2997	19180.58	3.9550	3.9550	0.9139	27.46	1.50	1.500			
0.3024	19355.32	3.9520	3.9520	0.9148	27.45	1.49	1.500			
0.3052	19529.96	3.9490	3.9490	0.9126	27.45	1.49	1.500			
0.3079	19705.45	3.9460	3.9460	0.9127	27.44	1.48	1.500			
0.3106	19880.09	3.9430	3.9430	0.9190	27.44	1.48	1.500			
0.3134	20055.75	3.9400	3.9401	0.9253	27.44	1.48	1.500			
0.3161	20233.00	3.9370	3.9369	0.9320	27.43	1.47	1.500			
0.3190	20414.25	3.9340	3.9340	0.9371	27.43	1.47	1.500			
0.3218	20593.94	3.9310	3.9311	0.9470	27.42	1.46	1.500			
0.3247	20778.17	3.9280	3.9280	0.9549	27.42	1.46	1.500			
0.3276	20963.44	3.9250	3.9249	0.9593	27.41	1.45	1.500			
0.3304	21146.49	3.9220	3.9221	0.9660	27.41	1.45	1.500			
0.3333	21332.17	3.9190	3.9190	0.9669	27.40	1.44	1.500			
0.3362	21518.06	3.9160	3.9159	0.9754	27.40	1.44	1.500			
0.3392	21706.67	3.9130	3.9130	0.9864	27.39	1.43	1.500			
0.3421	21894.74	3.9100	3.9098	0.9921	27.39	1.43	1.500			
0.3451	22088.39	3.9070	3.9070	1.0020	27.38	1.42	1.500			
0.3481	22281.02	3.9040	3.9041	1.0111	27.38	1.42	1.500			
0.3512	22474.19	3.9010	3.9010	1.0196	27.37	1.41	1.500			
0.3543	22672.55	3.8980	3.8980	1.0331	27.37	1.41	1.500			
0.3573	22869.92	3.8950	3.8949	1.0351	27.36	1.40	1.500			
0.3605	23069.20	3.8920	3.8920	1.0466	27.35	1.39	1.500			
0.3636	23272.69	3.8890	3.8891	1.0561	27.35	1.39	1.500			
0.3668	23475.68	3.8860	3.8858	1.0697	27.34	1.38	1.500			
0.3700	23680.92	3.8830	3.8830	1.0802	27.33	1.37	1.500			
0.3733	23889.76	3.8800	3.8800	1.0966	27.33	1.37	1.500			
0.3766	24101.89	3.8770	3.8769	1.1143	27.32	1.36	1.500			
0.3800	24318.12	3.8740	3.8740	1.1220	27.31	1.35	1.500			
0.3834	24537.16	3.8710	3.8710	1.1406	27.30	1.34	1.500			
0.3868	24757.93	3.8680	3.8681	1.1535	27.29	1.33	1.500			
0.3903	24978.24	3.8650	3.8649	1.1647	27.28	1.32	1.500			
0.3938	25203.24	3.8620	3.8621	1.1821	27.28	1.32	1.500			
0.3973	25430.07	3.8590	3.8589	1.1976	27.27	1.31	1.500			
0.4010	25661.39	3.8560	3.8560	1.2185	27.26	1.30	1.500			
0.4047	25900.95	3.8530	3.8530	1.2393	27.25	1.29	1.500			
0.4084	26138.43	3.8500	3.8500	1.2549	27.24	1.28	1.500			
0.4122	26381.75	3.8470	3.8470	1.2756	27.23	1.27	1.500			
0.4160	26626.86	3.8440	3.8440	1.3034	27.22	1.26	1.500			
0.4200	26879.70	3.8410	3.8409	1.3252	27.21	1.25	1.500			
0.4240	27136.89	3.8380	3.8380	1.3496	27.20	1.24	1.500			
0.4281	27400.30	3.8350	3.8351	1.3723	27.19	1.23	1.500			
0.4323	27665.93	3.8320	3.8320	1.3996	27.18	1.22	1.500			
0.4365	27933.87	3.8290	3.8290	1.4367	27.17	1.21	1.500			
0.4408	28209.75	3.8260	3.8260	1.4669	27.15	1.19	1.500			
0.4452	28494.17	3.8230	3.8230	1.5012	27.14	1.18	1.500			
0.4498	28788.88	3.8200	3.8200	1.5408	27.13	1.17	1.500			
0.4545	29088.47	3.8170	3.8171	1.5734	27.12	1.16	1.500			
0.4593	29394.04	3.8140	3.8140	1.6186	27.11	1.15	1.500			
0.4641	29704.29	3.8110	3.8111	1.6552	27.10	1.14	1.500			
0.4691	30024.76	3.8080	3.8080	1.6979	27.08	1.12	1.500			
0.4744	30358.41	3.8050	3.8049	1.7430	27.07	1.11	1.500			
0.4796	30696.71	3.8020	3.8021	1.7972	27.05	1.09	1.500			
0.4851	31047.85	3.7990	3.7990	1.8507	27.03	1.07	1.500			
0.4907	31405.79	3.7960	3.7959	1.8998	27.01	1.05	1.500			
0.4965	31773.10	3.7930	3.7930	1.9529	26.99	1.03	1.500			
0.5024	32155.06	3.7900	3.7900	1.9880	26.97	1.01	1.500			
0.5085	32541.38	3.7870	3.7871	2.0793	26.95	0.99	1.500			
0.5148	32946.61	3.7840	3.7839	2.1401	26.93	0.97	1.500			
0.5213	33364.37	3.7810	3.7812	2.2145	26.91	0.95	1.500			
0.5280	33794.67	3.7780	3.7781	2.2632	26.88	0.92	1.500			
0.5349	34235.91	3.7750	3.7750	2.3395	26.85	0.89	1.500			
0.5420	34686.50	3.7720	3.7719	2.3845	26.82	0.86	1.500			
0.5493	35155.58	3.7690	3.7691	2.4365	26.80	0.84	1.500			
0.5567	35626.71	3.7660	3.7661	2.5069	26.77	0.81	1.500			
0.5643	36113.78	3.7630	3.7630	2.5869	26.73	0.77	1.500			
0.5720	36608.42	3.7600	3.7602	2.6586	26.70	0.74	1.500	0.350	0.441	
0.5802	37133.32	3.7570	3.7571	2.6425	26.67	0.71	1.500			
0.5882	37644.64	3.7540	3.7540	2.6021	26.64	0.68	1.500			
0.5958	38130.38	3.7510	3.7508	2.4970	26.62	0.66	1.500			
0.6032	38604.54	3.7480	3.7481	2.4542	26.59	0.63	1.500			
0.6105	39073.40	3.7450	3.7450	2.4243	26.55	0.59	1.500			
0.6177	39530.75	3.7420	3.7419	2.3738	26.52	0.56	1.500			
0.6248	39984.64	3.7390	3.7391	2.3548	26.50	0.54	1.500			
0.6319	40439.15	3.7360	3.7359	2.3359	26.47	0.51	1.500			
0.6388	40884.05	3.7330	3.7330	2.3219	26.45	0.49	1.500			
0.6457	41325.51	3.7300	3.7300	2.3044	26.43	0.47	1.500			
0.6525	41762.22	3.7270	3.7271	2.3226	26.40	0.44	1.500			
0.6595	42206.20	3.7240	3.7240	2.3348	26.37	0.41	1.500			
0.6665	42654.21	3.7210	3.7208	2.3775	26.34	0.38	1.500			
0.6737	43116.32	3.7180	3.7182	2.4083	26.32	0.36	1.500			
0.6810	43584.72	3.7150	3.7150	2.5132	26.30	0.34	1.500			
0.6886	44069.23	3.7120	3.7120	2.6216	26.27	0.31	1.500			
0.6966	44583.94	3.7090	3.7091	2.7901	26.25	0.29	1.500			
0.7051	45124.89	3.7060	3.7061	2.8585	26.22	0.26	1.500			
0.7138	45682.07	3.7030	3.7031	2.9628	26.19	0.23	1.500			
0.7228	46261.79	3.7000	3.7000	2.9947	26.17	0.21	1.500			
0.7320	46845.69	3.6970	3.6971	3.0376	26.14	0.18	1.500			
0.7413	47443.00	3.6940	3.6939	2.9337	26.12	0.16	1.500			
0.7502	48010.93	3.6910	3.6910	2.8551	26.10	0.14	1.500			
0.7583	48532.83	3.6880	3.6880	2.5955	26.09	0.13	1.500			
0.7657	49003.87	3.6850	3.6849	2.3421	26.07	0.11	1.500			
0.7723	49424.73	3.6820	3.6821	2.1139	26.06	0.10	1.500			
0.7782	49806.67	3.6790	3.6791	1.9311	26.06	0.10	1.500			
0.7837	50155.55	3.6760	3.6759	1.7671	26.05	0.09	1.500			
0.7887	50474.11	3.6730	3.6730	1.6369	26.04	0.08	1.500			
0.7932	50766.61	3.6700	3.6699	1.5105	26.04	0.08	1.500			
0.7975	51043.12	3.6670	3.6670	1.4253	26.04	0.08	1.500			
0.8016	51305.45	3.6640	3.6640	1.3462	26.03	0.07	1.500			
0.8055	51554.33	3.6610	3.6610	1.2857	26.03	0.07	1.500			
0.8092	51791.47	3.6580	3.6581	1.2408	26.03	0.07	1.500			
0.8129	52023.01	3.6550	3.6550	1.2022	26.02	0.06	1.500			
0.8164	52247.99	3.6520	3.6520	1.1883	26.02	0.06	1.500			
0.8198	52470.36	3.6490	3.6491	1.1806	26.02	0.06	1.500			
0.8233	52693.90	3.6460	3.6460	1.1899	26.01	0.05	1.500			
0.8269	52923.55	3.6430	3.6429	1.2011	26.00	0.04	1.500			
0.8305	53154.77	3.6400	3.6400	1.2192	26.00	0.04	1.500			
0.8342	53390.29	3.6370	3.6370	1.2392	25.99	0.03	1.500			
0.8380	53634.63	3.6340	3.6340	1.2529	25.99	0.03	1.500			
0.8418	53876.05	3.6310	3.6309	1.2576	25.98	0.02	1.500			
0.8456	54119.72	3.6280	3.6280	1.2536	25.98	0.02	1.500			
0.8494	54360.61	3.6250	3.6251	1.2534	25.97	0.01	1.500			
0.8532	54602.33	3.6220	3.6220	1.2501	25.97	0.01	1.500			
0.8568	54838.27	3.6190	3.6189	1.2482	25.97	0.01	1.500			
0.8606	55075.80	3.6160	3.6160	1.2465	25.97	0.01	1.500			
0.8643	55315.57	3.6130	3.6130	1.2558	25.96	0.00	1.500			
0.8681	55559.80	3.6100	3.6100	1.2563	25.96	-0.00	1.500			
0.8719	55802.78	3.6070	3.6070	1.2591	25.96	-0.00	1.500			
0.8757	56046.03	3.6040	3.6040	1.2497	25.95	-0.01	1.500			
0.8795	56287.24	3.6010	3.6011	1.2385	25.95	-0.01	1.500			
0.8832	56522.22	3.5980	3.5979	1.2225	25.95	-0.01	1.500			
0.8868	56755.55	3.5950	3.5951	1.2138	25.94	-0.02	1.500			
0.8904	56985.83	3.5920	3.5920	1.2003	25.94	-0.02	1.500			
0.8940	57216.19	3.5890	3.5890	1.1917	25.94	-0.02	1.500			
0.8975	57442.92	3.5860	3.5859	1.1859	25.94	-0.02	1.500			
0.9011	57668.85	3.5830	3.5831	1.1977	25.95	-0.01	1.500			
0.9046	57896.74	3.5800	3.5800	1.2061	25.95	-0.01	1.500			
0.9083	58130.25	3.5770	3.5769	1.2182	25.95	-0.01	1.500			
0.9121	58376.95	3.5740	3.5739	1.1984	25.96	-0.00	1.500			
0.9158	58614.35	3.5710	3.5710	1.1510	25.96	-0.00	1.500			
0.9194	58843.34	3.5680	3.5682	1.0414	25.96	0.00	1.500			
0.9226	59046.68	3.5650	3.5651	0.9193	25.96	0.00	1.500			
0.9251	59208.32	3.5620	3.5621	0.7678	25.97	0.01	1.500			
0.9271	59333.93	3.5590	3.5590	0.6164	25.97	0.01	1.500			
0.9285	59425.89	3.5560	3.5560	0.4818	25.97	0.01	1.500			
0.9297	59500.58	3.5530	3.5529	0.3862	25.97	0.01	1.500			
0.9306	59560.06	3.5500	3.5500	0.2992	25.97	0.01	1.500			
0.9314	59608.16	3.5470	3.5468	0.2496	25.97	0.01	1.500			
0.9319	59644.76	3.5440	3.5442	0.2039	25.97	0.01	1.500			
0.9325	59679.60	3.5410	3.5410	0.1693	25.97	0.01	1.500			
0.9329	59708.12	3.5380	3.5379	0.1392	25.97	0.01	1.500			
0.9333	59731.87	3.5350	3.5350	0.1130	25.97	0.01	1.500			
0.9336	59750.75	3.5320	3.5321	0.0883	25.97	0.01	1.500			
0.9338	59765.35	3.5290	3.5292	0.0644	25.97	0.01	1.500			
0.9340	59775.42	3.5260	3.5265	0.0405	25.97	0.01	1.500			
