Ah_balance (normalized)	Ah_balance (mAh)	Voltage - fit (V)	Voltage -  interpolate (V)	dQ/dV (1/V)	Temperature (°C)	Temperature - diff (°C)	Current (C)	R_DC 0ms (mOhm)	R_DC 50ms (mOhm)	R_DC 50 ms PEC (mOhm)
0.2879	18423.26	3.9840	3.9840	0.8713	27.14	1.15	1.500			
0.2905	18591.44	3.9810	3.9810	0.8707	27.13	1.14	1.500			
0.2931	18756.01	3.9780	3.9780	0.8610	27.13	1.14	1.500			
0.2956	18920.08	3.9750	3.9750	0.8589	27.12	1.13	1.500			
0.2982	19084.62	3.9720	3.9720	0.8571	27.11	1.12	1.500			
0.3008	19248.17	3.9690	3.9689	0.8577	27.11	1.12	1.500			
0.3033	19412.98	3.9660	3.9660	0.8607	27.10	1.11	1.500			
0.3059	19578.06	3.9630	3.9630	0.8644	27.10	1.11	1.500			
0.3085	19745.20	3.9600	3.9600	0.8734	27.09	1.10	1.500			
0.3111	19912.37	3.9570	3.9570	0.8733	27.09	1.10	1.500			
0.3138	20080.84	3.9540	3.9540	0.8806	27.08	1.09	1.500			
0.3164	20252.08	3.9510	3.9511	0.8826	27.08	1.09	1.500			
0.3191	20421.81	3.9480	3.9480	0.8863	27.07	1.08	1.500			
0.3218	20592.24	3.9450	3.9450	0.8906	27.07	1.08	1.500			
0.3244	20762.68	3.9420	3.9420	0.8928	27.06	1.07	1.500			
0.3271	20933.97	3.9390	3.9390	0.8960	27.06	1.07	1.500			
0.3298	21106.96	3.9360	3.9361	0.9044	27.05	1.06	1.500			
0.3325	21280.26	3.9330	3.9330	0.9074	27.04	1.05	1.500			
0.3352	21455.43	3.9300	3.9299	0.9171	27.04	1.05	1.500			
0.3380	21631.52	3.9270	3.9271	0.9199	27.03	1.04	1.500			
0.3408	21808.90	3.9240	3.9239	0.9255	27.02	1.03	1.500			
0.3436	21988.34	3.9210	3.9210	0.9323	27.02	1.03	1.500			
0.3464	22167.67	3.9180	3.9180	0.9392	27.01	1.02	1.500			
0.3492	22348.62	3.9150	3.9150	0.9393	27.00	1.01	1.500			
0.3520	22529.70	3.9120	3.9120	0.9442	27.00	1.01	1.500			
0.3548	22709.78	3.9090	3.9090	0.9501	26.99	1.00	1.500			
0.3577	22893.28	3.9060	3.9060	0.9587	26.98	0.99	1.500			
0.3606	23077.27	3.9030	3.9029	0.9683	26.98	0.99	1.500			
0.3635	23263.33	3.9000	3.9001	0.9809	26.97	0.98	1.500			
0.3665	23453.03	3.8970	3.8970	0.9860	26.96	0.97	1.500			
0.3694	23644.72	3.8940	3.8940	0.9974	26.95	0.96	1.500			
0.3725	23837.15	3.8910	3.8910	1.0022	26.95	0.96	1.500			
0.3755	24029.23	3.8880	3.8878	1.0110	26.94	0.95	1.500			
0.3785	24224.95	3.8850	3.8851	1.0168	26.93	0.94	1.500			
0.3816	24419.50	3.8820	3.8820	1.0264	26.92	0.93	1.500			
0.3846	24617.04	3.8790	3.8790	1.0374	26.91	0.92	1.500			
0.3878	24817.15	3.8760	3.8761	1.0468	26.91	0.92	1.500			
0.3909	25019.91	3.8730	3.8729	1.0583	26.90	0.91	1.500			
0.3941	25224.47	3.8700	3.8701	1.0726	26.89	0.90	1.500			
0.3974	25430.87	3.8670	3.8670	1.0849	26.88	0.89	1.500			
0.4006	25641.53	3.8640	3.8640	1.0998	26.87	0.88	1.500			
0.4039	25851.65	3.8610	3.8610	1.1149	26.86	0.87	1.500			
0.4073	26067.19	3.8580	3.8581	1.1287	26.85	0.86	1.500			
0.4107	26286.12	3.8550	3.8550	1.1458	26.84	0.85	1.500			
0.4142	26508.73	3.8520	3.8520	1.1576	26.83	0.84	1.500			
0.4177	26731.77	3.8490	3.8490	1.1707	26.82	0.83	1.500			
0.4212	26956.98	3.8460	3.8461	1.1883	26.81	0.82	1.500			
0.4248	27185.98	3.8430	3.8430	1.2093	26.80	0.81	1.500			
0.4284	27417.20	3.8400	3.8400	1.2304	26.79	0.80	1.500			
0.4322	27658.21	3.8370	3.8370	1.2569	26.78	0.79	1.500			
0.4360	27902.02	3.8340	3.8340	1.2802	26.77	0.78	1.500			
0.4398	28150.16	3.8310	3.8310	1.3052	26.76	0.77	1.500			
0.4438	28402.45	3.8280	3.8280	1.3251	26.75	0.76	1.500			
0.4478	28658.35	3.8250	3.8250	1.3488	26.74	0.75	1.500			
0.4518	28918.13	3.8220	3.8220	1.3746	26.73	0.74	1.500			
0.4560	29183.97	3.8190	3.8191	1.4059	26.71	0.72	1.500			
0.4603	29458.44	3.8160	3.8160	1.4340	26.70	0.71	1.500			
0.4646	29735.33	3.8130	3.8130	1.4643	26.69	0.70	1.500			
0.4690	30019.05	3.8100	3.8100	1.5012	26.67	0.68	1.500			
0.4736	30310.07	3.8070	3.8070	1.5380	26.66	0.67	1.500			
0.4782	30607.94	3.8040	3.8040	1.5782	26.64	0.65	1.500			
0.4831	30915.39	3.8010	3.8011	1.6112	26.62	0.63	1.500			
0.4880	31229.03	3.7980	3.7980	1.6511	26.61	0.62	1.500			
0.4930	31551.27	3.7950	3.7950	1.6868	26.59	0.60	1.500			
0.4981	31877.36	3.7920	3.7921	1.7188	26.57	0.58	1.500			
0.5033	32210.10	3.7890	3.7890	1.7639	26.55	0.56	1.500			
0.5086	32550.80	3.7860	3.7860	1.8041	26.53	0.54	1.500			
0.5141	32900.44	3.7830	3.7830	1.8304	26.52	0.53	1.500			
0.5197	33259.75	3.7800	3.7800	1.8543	26.50	0.51	1.500			
0.5252	33615.40	3.7770	3.7769	1.8988	26.48	0.49	1.500			
0.5310	33982.83	3.7740	3.7740	1.9355	26.46	0.47	1.500			
0.5369	34361.50	3.7710	3.7719	1.9458	26.44	0.45	1.500	0.342	0.456	
0.5428	34738.85	3.7680	3.7681	1.9497	26.42	0.43	1.500			
0.5486	35112.70	3.7650	3.7650	1.9599	26.41	0.42	1.500			
0.5545	35489.54	3.7620	3.7619	1.9500	26.39	0.40	1.500			
0.5603	35860.78	3.7590	3.7590	1.9116	26.38	0.39	1.500			
0.5661	36227.70	3.7560	3.7561	1.9089	26.36	0.37	1.500			
0.5718	36593.76	3.7530	3.7530	1.8957	26.35	0.36	1.500			
0.5774	36953.86	3.7500	3.7500	1.8889	26.33	0.34	1.500			
0.5830	37313.67	3.7470	3.7471	1.8867	26.32	0.33	1.500			
0.5887	37677.64	3.7440	3.7440	1.8990	26.30	0.31	1.500			
0.5944	38039.99	3.7410	3.7411	1.9122	26.28	0.29	1.500			
0.6001	38408.17	3.7380	3.7379	1.9349	26.26	0.27	1.500			
0.6060	38782.50	3.7350	3.7351	1.9860	26.25	0.26	1.500			
0.6120	39169.75	3.7320	3.7320	2.0182	26.24	0.25	1.500			
0.6181	39557.97	3.7290	3.7290	2.0545	26.22	0.23	1.500			
0.6243	39954.12	3.7260	3.7260	2.1006	26.21	0.22	1.500			
0.6307	40362.74	3.7230	3.7230	2.1608	26.20	0.21	1.500			
0.6371	40775.10	3.7200	3.7200	2.2233	26.19	0.20	1.500			
0.6440	41214.19	3.7170	3.7170	2.3234	26.17	0.18	1.500			
0.6510	41664.29	3.7140	3.7140	2.4089	26.16	0.17	1.500			
0.6585	42142.65	3.7110	3.7111	2.4711	26.14	0.15	1.500			
0.6661	42629.68	3.7080	3.7080	2.5285	26.12	0.13	1.500			
0.6735	43104.66	3.7050	3.7050	2.5367	26.10	0.11	1.500			
0.6812	43598.31	3.7020	3.7020	2.5627	26.09	0.10	1.500			
0.6890	44098.54	3.6990	3.6990	2.5449	26.08	0.09	1.500			
0.6965	44577.95	3.6960	3.6960	2.4346	26.07	0.08	1.500			
0.7037	45034.79	3.6930	3.6930	2.2666	26.06	0.07	1.500			
0.7102	45450.98	3.6900	3.6901	2.0948	26.05	0.06	1.500			
0.7161	45833.18	3.6870	3.6870	1.9299	26.05	0.06	1.500			
0.7216	46180.79	3.6840	3.6839	1.7638	26.04	0.05	1.500			
0.7266	46505.01	3.6810	3.6810	1.6591	26.04	0.05	1.500			
0.7314	46808.29	3.6780	3.6781	1.5612	26.03	0.04	1.500			
0.7359	47098.00	3.6750	3.6749	1.4748	26.02	0.03	1.500			
0.7402	47370.61	3.6720	3.6720	1.4105	26.02	0.03	1.500			
0.7442	47628.12	3.6690	3.6691	1.3499	26.01	0.02	1.500			
0.7481	47879.66	3.6660	3.6660	1.3140	26.00	0.01	1.500			
0.7520	48127.25	3.6630	3.6629	1.2878	26.00	0.01	1.500			
0.7557	48366.02	3.6600	3.6600	1.2714	26.00	0.01	1.500			
0.7595	48609.24	3.6570	3.6570	1.2722	25.99	0.00	1.500			
0.7634	48854.85	3.6540	3.6539	1.2736	25.99	-0.00	1.500			
0.7672	49099.06	3.6510	3.6510	1.2724	25.99	-0.00	1.500			
0.7710	49343.35	3.6480	3.6481	1.2772	25.98	-0.01	1.500			
0.7748	49589.62	3.6450	3.6450	1.2832	25.98	-0.01	1.500			
0.7787	49836.59	3.6420	3.6420	1.2831	25.98	-0.01	1.500			
0.7825	50082.43	3.6390	3.6391	1.2815	25.97	-0.02	1.500			
0.7864	50330.64	3.6360	3.6360	1.2808	25.96	-0.03	1.500			
0.7903	50577.16	3.6330	3.6330	1.2771	25.96	-0.03	1.500			
0.7941	50821.69	3.6300	3.6300	1.2730	25.95	-0.04	1.500			
0.7979	51064.21	3.6270	3.6271	1.2682	25.94	-0.05	1.500			
0.8017	51307.27	3.6240	3.6240	1.2656	25.94	-0.05	1.500			
0.8055	51550.95	3.6210	3.6210	1.2617	25.94	-0.05	1.500			
0.8093	51792.64	3.6180	3.6180	1.2587	25.93	-0.06	1.500			
0.8131	52035.22	3.6150	3.6150	1.2485	25.93	-0.06	1.500			
0.8168	52275.39	3.6120	3.6120	1.2432	25.93	-0.06	1.500			
0.8205	52514.37	3.6090	3.6091	1.2294	25.92	-0.07	1.500			
0.8242	52749.16	3.6060	3.6060	1.2173	25.92	-0.07	1.500			
0.8279	52982.73	3.6030	3.6031	1.2003	25.92	-0.07	1.500			
0.8315	53212.95	3.6000	3.6000	1.1825	25.92	-0.07	1.500			
0.8350	53436.88	3.5970	3.5969	1.1653	25.92	-0.07	1.500			
0.8384	53660.66	3.5940	3.5940	1.1484	25.92	-0.07	1.500			
0.8418	53876.06	3.5910	3.5910	1.1325	25.92	-0.07	1.500			
0.8452	54093.15	3.5880	3.5880	1.1174	25.92	-0.07	1.500			
0.8486	54307.82	3.5850	3.5849	1.0979	25.92	-0.07	1.500			
0.8519	54520.20	3.5820	3.5820	1.0717	25.92	-0.07	1.500			
0.8552	54732.26	3.5790	3.5789	1.0193	25.93	-0.06	1.500			
0.8582	54925.98	3.5760	3.5760	0.9416	25.94	-0.05	1.500			
0.8611	55108.52	3.5730	3.5730	0.8478	25.95	-0.04	1.500			
0.8634	55260.19	3.5700	3.5701	0.7289	25.96	-0.03	1.500			
0.8654	55387.59	3.5670	3.5670	0.6195	25.96	-0.03	1.500			
0.8670	55490.88	3.5640	3.5639	0.5094	25.97	-0.02	1.500			
0.8683	55572.65	3.5610	3.5610	0.4187	25.97	-0.02	1.500			
0.8694	55641.60	3.5580	3.5580	0.3551	25.97	-0.02	1.500			
0.8703	55698.79	3.5550	3.5550	0.3008	25.98	-0.01	1.500			
0.8711	55750.07	3.5520	3.5519	0.2641	25.98	-0.01	1.500			
0.8718	55794.31	3.5490	3.5489	0.2287	25.98	-0.01	1.500			
0.8724	55834.42	3.5460	3.5460	0.2055	25.98	-0.01	1.500			
0.8730	55870.68	3.5430	3.5431	0.1853	25.98	-0.01	1.500			
0.8735	55904.12	3.5400	3.5400	0.1665	25.98	-0.01	1.500			
0.8740	55934.15	3.5370	3.5370	0.1514	25.99	-0.00	1.500			
0.8744	55961.27	3.5340	3.5340	0.1354	25.99	-0.00	1.500			
0.8748	55985.57	3.5310	3.5310	0.1203	25.99	-0.00	1.500			
0.8751	56007.21	3.5280	3.5280	0.1057	25.99	-0.00	1.500			
0.8754	56026.15	3.5250	3.5251	0.0915	25.99	-0.00	1.500			
0.8757	56042.57	3.5220	3.5221	0.0774	25.99	0.00	1.500			
0.8759	56056.43	3.5190	3.5192	0.0626	25.99	0.00	1.500			
0.8760	56066.98	3.5160	3.5165	0.0473	25.99	0.00	1.500			
0.8762	56074.58	3.5130	3.5139	0.0319	25.99	0.00	1.500			
