Ah_balance (normalized)	Ah_balance (mAh)	Voltage - fit (V)	Voltage -  interpolate (V)	dQ/dV (1/V)	Temperature (°C)	Temperature - diff (°C)	Current (C)	R_DC 0ms (mOhm)	R_DC 50ms (mOhm)	R_DC 50 ms PEC (mOhm)
0.2799	17915.55	3.9870	3.9871	0.8871	26.94	1.00	1.500			
0.2826	18083.39	3.9840	3.9839	0.8676	26.93	0.99	1.500			
0.2851	18247.39	3.9810	3.9812	0.8553	26.93	0.99	1.500			
0.2876	18409.55	3.9780	3.9780	0.8518	26.92	0.98	1.500			
0.2902	18571.17	3.9750	3.9750	0.8504	26.92	0.98	1.500			
0.2927	18733.30	3.9720	3.9719	0.8523	26.91	0.97	1.500			
0.2953	18896.94	3.9690	3.9690	0.8565	26.91	0.97	1.500			
0.2979	19062.78	3.9660	3.9660	0.8605	26.90	0.96	1.500			
0.3004	19228.34	3.9630	3.9631	0.8667	26.90	0.96	1.500			
0.3031	19395.28	3.9600	3.9599	0.8717	26.89	0.95	1.500			
0.3057	19562.57	3.9570	3.9570	0.8703	26.89	0.95	1.500			
0.3083	19730.42	3.9540	3.9540	0.8753	26.88	0.94	1.500			
0.3109	19897.97	3.9510	3.9510	0.8781	26.88	0.94	1.500			
0.3135	20067.03	3.9480	3.9480	0.8834	26.87	0.93	1.500			
0.3162	20236.72	3.9450	3.9450	0.8861	26.86	0.92	1.500			
0.3188	20406.22	3.9420	3.9420	0.8892	26.86	0.92	1.500			
0.3215	20577.29	3.9390	3.9391	0.8991	26.85	0.91	1.500			
0.3243	20752.19	3.9360	3.9360	0.9068	26.85	0.91	1.500			
0.3270	20926.63	3.9330	3.9329	0.9107	26.84	0.90	1.500			
0.3297	21101.98	3.9300	3.9301	0.9165	26.84	0.90	1.500			
0.3325	21277.98	3.9270	3.9271	0.9221	26.83	0.89	1.500			
0.3352	21455.88	3.9240	3.9239	0.9270	26.83	0.89	1.500			
0.3380	21633.94	3.9210	3.9209	0.9275	26.82	0.88	1.500			
0.3408	21811.98	3.9180	3.9181	0.9322	26.82	0.88	1.500			
0.3436	21993.34	3.9150	3.9150	0.9309	26.82	0.88	1.500			
0.3464	22171.32	3.9120	3.9121	0.9395	26.81	0.87	1.500			
0.3492	22350.99	3.9090	3.9090	0.9462	26.81	0.87	1.500			
0.3521	22531.26	3.9060	3.9061	0.9545	26.80	0.86	1.500			
0.3550	22716.83	3.9030	3.9030	0.9638	26.80	0.86	1.500			
0.3579	22903.52	3.9000	3.9000	0.9731	26.79	0.85	1.500			
0.3608	23090.84	3.8970	3.8970	0.9810	26.79	0.85	1.500			
0.3638	23282.25	3.8940	3.8940	0.9920	26.78	0.84	1.500			
0.3667	23471.66	3.8910	3.8910	0.9890	26.77	0.83	1.500			
0.3697	23661.50	3.8880	3.8880	0.9987	26.77	0.83	1.500			
0.3727	23851.65	3.8850	3.8851	1.0082	26.76	0.82	1.500			
0.3757	24045.77	3.8820	3.8820	1.0268	26.76	0.82	1.500			
0.3788	24244.58	3.8790	3.8789	1.0387	26.75	0.81	1.500			
0.3820	24446.43	3.8760	3.8760	1.0498	26.74	0.80	1.500			
0.3852	24650.86	3.8730	3.8730	1.0654	26.74	0.80	1.500			
0.3884	24857.84	3.8700	3.8701	1.0755	26.73	0.79	1.500			
0.3916	25065.48	3.8670	3.8670	1.0803	26.72	0.78	1.500			
0.3948	25270.06	3.8640	3.8639	1.0911	26.72	0.78	1.500			
0.3981	25480.89	3.8610	3.8610	1.1052	26.71	0.77	1.500			
0.4015	25694.59	3.8580	3.8581	1.1235	26.70	0.76	1.500			
0.4049	25911.26	3.8550	3.8550	1.1395	26.70	0.76	1.500			
0.4083	26132.50	3.8520	3.8521	1.1546	26.69	0.75	1.500			
0.4118	26356.32	3.8490	3.8490	1.1709	26.68	0.74	1.500			
0.4154	26582.81	3.8460	3.8460	1.1856	26.67	0.73	1.500			
0.4189	26811.05	3.8430	3.8430	1.1964	26.66	0.72	1.500			
0.4225	27043.16	3.8400	3.8400	1.2206	26.65	0.71	1.500			
0.4262	27276.79	3.8370	3.8370	1.2427	26.65	0.71	1.500			
0.4299	27516.31	3.8340	3.8341	1.2768	26.64	0.70	1.500			
0.4338	27765.27	3.8310	3.8310	1.3062	26.63	0.69	1.500			
0.4378	28021.34	3.8280	3.8279	1.3279	26.61	0.67	1.500			
0.4419	28279.62	3.8250	3.8251	1.3585	26.60	0.66	1.500			
0.4460	28543.87	3.8220	3.8221	1.3882	26.59	0.65	1.500			
0.4502	28810.90	3.8190	3.8190	1.4094	26.58	0.64	1.500			
0.4544	29082.31	3.8160	3.8160	1.4297	26.57	0.63	1.500			
0.4587	29359.04	3.8130	3.8130	1.4533	26.56	0.62	1.500			
0.4632	29645.18	3.8100	3.8100	1.4711	26.54	0.60	1.500			
0.4676	29926.20	3.8070	3.8071	1.5026	26.53	0.59	1.500			
0.4721	30214.78	3.8040	3.8040	1.5257	26.52	0.58	1.500			
0.4767	30509.30	3.8010	3.8009	1.5582	26.51	0.57	1.500			
0.4814	30812.34	3.7980	3.7981	1.5909	26.49	0.55	1.500			
0.4863	31122.25	3.7950	3.7950	1.6243	26.48	0.54	1.500			
0.4913	31440.67	3.7920	3.7920	1.6582	26.46	0.52	1.500			
0.4963	31760.13	3.7890	3.7890	1.6753	26.45	0.51	1.500			
0.5013	32084.54	3.7860	3.7860	1.6957	26.44	0.50	1.500			
0.5065	32413.21	3.7830	3.7830	1.7358	26.42	0.48	1.500			
0.5117	32751.91	3.7800	3.7800	1.7499	26.41	0.47	1.500			
0.5170	33088.21	3.7770	3.7770	1.7689	26.39	0.45	1.500	0.348	0.470	
0.5224	33432.21	3.7740	3.7741	1.7753	26.38	0.44	1.500			
0.5278	33776.31	3.7710	3.7707	1.7881	26.36	0.42	1.500			
0.5331	34118.38	3.7680	3.7681	1.7858	26.35	0.41	1.500			
0.5384	34458.84	3.7650	3.7650	1.7695	26.34	0.40	1.500			
0.5438	34801.72	3.7620	3.7620	1.7780	26.32	0.38	1.500			
0.5490	35138.56	3.7590	3.7590	1.7749	26.31	0.37	1.500			
0.5544	35479.77	3.7560	3.7559	1.7794	26.30	0.36	1.500			
0.5597	35818.36	3.7530	3.7530	1.7941	26.29	0.35	1.500			
0.5651	36165.65	3.7500	3.7500	1.7998	26.27	0.33	1.500			
0.5705	36511.63	3.7470	3.7470	1.8213	26.26	0.32	1.500			
0.5760	36861.71	3.7440	3.7440	1.8447	26.25	0.31	1.500			
0.5815	37218.02	3.7410	3.7410	1.8702	26.24	0.30	1.500			
0.5872	37579.41	3.7380	3.7381	1.8938	26.23	0.29	1.500			
0.5929	37946.81	3.7350	3.7350	1.9277	26.22	0.28	1.500			
0.5987	38317.67	3.7320	3.7320	1.9752	26.21	0.27	1.500			
0.6047	38698.71	3.7290	3.7290	2.0427	26.20	0.26	1.500			
0.6110	39102.88	3.7260	3.7260	2.0848	26.18	0.24	1.500			
0.6173	39507.01	3.7230	3.7231	2.1500	26.17	0.23	1.500			
0.6238	39924.39	3.7200	3.7200	2.2126	26.15	0.21	1.500			
0.6305	40353.75	3.7170	3.7171	2.2787	26.14	0.20	1.500			
0.6375	40802.33	3.7140	3.7140	2.3565	26.13	0.19	1.500			
0.6447	41257.77	3.7110	3.7110	2.4125	26.11	0.17	1.500			
0.6520	41727.02	3.7080	3.7079	2.4436	26.10	0.16	1.500			
0.6595	42207.43	3.7050	3.7050	2.4219	26.09	0.15	1.500			
0.6668	42672.72	3.7020	3.7021	2.3464	26.08	0.14	1.500			
0.6737	43114.63	3.6990	3.6990	2.2173	26.08	0.14	1.500			
0.6801	43524.77	3.6960	3.6960	2.0633	26.07	0.13	1.500			
0.6861	43910.66	3.6930	3.6930	1.9242	26.06	0.12	1.500			
0.6916	44261.39	3.6900	3.6901	1.7823	26.05	0.11	1.500			
0.6966	44580.59	3.6870	3.6871	1.6454	26.05	0.11	1.500			
0.7013	44886.16	3.6840	3.6839	1.5601	26.04	0.10	1.500			
0.7058	45173.86	3.6810	3.6810	1.4858	26.04	0.10	1.500			
0.7101	45448.88	3.6780	3.6779	1.4165	26.03	0.09	1.500			
0.7143	45713.58	3.6750	3.6750	1.3642	26.03	0.09	1.500			
0.7183	45969.80	3.6720	3.6721	1.3270	26.03	0.09	1.500			
0.7221	46215.73	3.6690	3.6690	1.2911	26.03	0.09	1.500			
0.7259	46458.67	3.6660	3.6660	1.2747	26.02	0.08	1.500			
0.7296	46697.12	3.6630	3.6630	1.2613	26.02	0.08	1.500			
0.7334	46937.13	3.6600	3.6600	1.2643	26.01	0.07	1.500			
0.7372	47181.28	3.6570	3.6570	1.2689	26.01	0.07	1.500			
0.7410	47424.53	3.6540	3.6540	1.2755	26.00	0.06	1.500			
0.7448	47669.07	3.6510	3.6510	1.2842	25.99	0.05	1.500			
0.7487	47918.64	3.6480	3.6480	1.2838	25.99	0.05	1.500			
0.7526	48166.94	3.6450	3.6450	1.2844	25.98	0.04	1.500			
0.7565	48415.14	3.6420	3.6420	1.2757	25.98	0.04	1.500			
0.7603	48658.69	3.6390	3.6390	1.2687	25.97	0.03	1.500			
0.7641	48901.70	3.6360	3.6360	1.2629	25.96	0.02	1.500			
0.7678	49140.81	3.6330	3.6329	1.2566	25.96	0.02	1.500			
0.7716	49379.90	3.6300	3.6300	1.2522	25.95	0.01	1.500			
0.7753	49622.05	3.6270	3.6270	1.2528	25.95	0.01	1.500			
0.7791	49863.14	3.6240	3.6240	1.2490	25.94	-0.00	1.500			
0.7829	50103.80	3.6210	3.6210	1.2428	25.94	-0.00	1.500			
0.7866	50340.57	3.6180	3.6180	1.2327	25.94	-0.00	1.500			
0.7903	50579.64	3.6150	3.6150	1.2134	25.94	-0.00	1.500			
0.7939	50810.62	3.6120	3.6120	1.1971	25.93	-0.01	1.500			
0.7975	51039.28	3.6090	3.6091	1.1806	25.93	-0.01	1.500			
0.8010	51263.37	3.6060	3.6061	1.1637	25.93	-0.01	1.500			
0.8044	51484.43	3.6030	3.6029	1.1445	25.93	-0.01	1.500			
0.8079	51702.44	3.6000	3.6001	1.1250	25.93	-0.01	1.500			
0.8112	51916.39	3.5970	3.5970	1.1082	25.93	-0.01	1.500			
0.8145	52129.57	3.5940	3.5940	1.0898	25.93	-0.01	1.500			
0.8178	52338.11	3.5910	3.5910	1.0602	25.94	-0.00	1.500			
0.8210	52542.97	3.5880	3.5879	1.0223	25.94	-0.00	1.500			
0.8240	52738.29	3.5850	3.5850	0.9698	25.94	-0.00	1.500			
0.8270	52926.59	3.5820	3.5821	0.8993	25.94	-0.00	1.500			
0.8296	53094.39	3.5790	3.5790	0.8084	25.94	0.00	1.500			
0.8319	53243.23	3.5760	3.5760	0.7080	25.94	0.00	1.500			
0.8339	53368.41	3.5730	3.5730	0.6045	25.94	0.00	1.500			
0.8355	53471.19	3.5700	3.5700	0.5074	25.94	0.00	1.500			
0.8368	53555.78	3.5670	3.5669	0.4288	25.94	0.00	1.500			
0.8379	53624.38	3.5640	3.5639	0.3597	25.94	0.00	1.500			
0.8388	53684.17	3.5610	3.5610	0.3103	25.94	0.00	1.500			
0.8396	53736.01	3.5580	3.5578	0.2652	25.94	0.00	1.500			
0.8403	53781.64	3.5550	3.5550	0.2354	25.94	0.00	1.500			
0.8410	53821.28	3.5520	3.5520	0.2081	25.94	0.00	1.500			
0.8415	53858.09	3.5490	3.5491	0.1887	25.95	0.01	1.500			
0.8421	53892.64	3.5460	3.5460	0.1712	25.95	0.01	1.500			
0.8425	53922.82	3.5430	3.5429	0.1546	25.95	0.01	1.500			
0.8430	53950.69	3.5400	3.5400	0.1391	25.95	0.01	1.500			
0.8434	53975.93	3.5370	3.5371	0.1243	25.95	0.01	1.500			
0.8437	53998.45	3.5340	3.5340	0.1102	25.95	0.01	1.500			
0.8440	54018.52	3.5310	3.5310	0.0964	25.95	0.01	1.500			
0.8443	54035.81	3.5280	3.5280	0.0821	25.95	0.01	1.500			
0.8445	54050.16	3.5250	3.5252	0.0674	25.95	0.01	1.500			
0.8447	54061.49	3.5220	3.5224	0.0532	25.95	0.01	1.500			
0.8448	54070.34	3.5190	3.5199	0.0391	25.95	0.01	1.500			
