Ah_balance (normalized)	Ah_balance (mAh)	Voltage - fit (V)	Voltage -  interpolate (V)	dQ/dV (1/V)	Temperature (°C)	Temperature - diff (°C)	Current (C)	R_DC 0ms (mOhm)	R_DC 50ms (mOhm)	R_DC 50 ms PEC (mOhm)
0.2818	18032.63	3.9740	3.9739	0.8719	27.12	1.18	1.500			
0.2844	18199.25	3.9710	3.9711	0.8678	27.12	1.18	1.500			
0.2870	18365.76	3.9680	3.9679	0.8674	27.11	1.17	1.500			
0.2895	18531.02	3.9650	3.9651	0.8722	27.11	1.17	1.500			
0.2922	18698.49	3.9620	3.9620	0.8782	27.10	1.16	1.500			
0.2948	18866.71	3.9590	3.9590	0.8839	27.10	1.16	1.500			
0.2975	19039.37	3.9560	3.9559	0.8884	27.10	1.16	1.500			
0.3002	19209.96	3.9530	3.9531	0.8894	27.09	1.15	1.500			
0.3028	19381.81	3.9500	3.9500	0.8938	27.09	1.15	1.500			
0.3055	19553.17	3.9470	3.9469	0.8969	27.08	1.14	1.500			
0.3082	19723.30	3.9440	3.9440	0.8953	27.08	1.14	1.500			
0.3109	19896.58	3.9410	3.9410	0.9009	27.07	1.13	1.500			
0.3136	20071.12	3.9380	3.9380	0.9063	27.07	1.13	1.500			
0.3163	20245.55	3.9350	3.9350	0.9150	27.07	1.13	1.500			
0.3191	20420.95	3.9320	3.9320	0.9185	27.06	1.12	1.500			
0.3218	20597.08	3.9290	3.9290	0.9246	27.06	1.12	1.500			
0.3246	20775.52	3.9260	3.9260	0.9276	27.05	1.11	1.500			
0.3274	20955.14	3.9230	3.9230	0.9347	27.05	1.11	1.500			
0.3302	21135.26	3.9200	3.9200	0.9400	27.04	1.10	1.500			
0.3331	21315.83	3.9170	3.9171	0.9454	27.04	1.10	1.500			
0.3359	21497.07	3.9140	3.9140	0.9486	27.03	1.09	1.500			
0.3387	21679.12	3.9110	3.9110	0.9591	27.03	1.09	1.500			
0.3416	21864.54	3.9080	3.9080	0.9645	27.02	1.08	1.500			
0.3445	22050.96	3.9050	3.9050	0.9745	27.02	1.08	1.500			
0.3475	22238.31	3.9020	3.9019	0.9781	27.01	1.07	1.500			
0.3504	22427.38	3.8990	3.8991	0.9855	27.00	1.06	1.500			
0.3534	22617.94	3.8960	3.8961	0.9878	26.99	1.05	1.500			
0.3564	22807.33	3.8930	3.8930	0.9981	26.99	1.05	1.500			
0.3594	22998.52	3.8900	3.8900	1.0087	26.98	1.04	1.500			
0.3624	23192.52	3.8870	3.8870	1.0216	26.97	1.03	1.500			
0.3655	23389.87	3.8840	3.8840	1.0271	26.97	1.03	1.500			
0.3686	23589.11	3.8810	3.8811	1.0417	26.96	1.02	1.500			
0.3717	23789.50	3.8780	3.8780	1.0528	26.96	1.02	1.500			
0.3749	23993.58	3.8750	3.8750	1.0647	26.95	1.01	1.500			
0.3781	24197.55	3.8720	3.8719	1.0671	26.95	1.01	1.500			
0.3813	24402.15	3.8690	3.8690	1.0791	26.94	1.00	1.500			
0.3845	24611.14	3.8660	3.8661	1.0935	26.94	1.00	1.500			
0.3879	24823.21	3.8630	3.8628	1.1076	26.93	0.99	1.500			
0.3912	25034.20	3.8600	3.8601	1.1241	26.92	0.98	1.500			
0.3946	25252.30	3.8570	3.8570	1.1459	26.91	0.97	1.500			
0.3981	25477.06	3.8540	3.8539	1.1584	26.90	0.96	1.500			
0.4016	25702.79	3.8510	3.8510	1.1668	26.89	0.95	1.500			
0.4051	25924.56	3.8480	3.8481	1.1831	26.88	0.94	1.500			
0.4086	26152.58	3.8450	3.8450	1.2047	26.87	0.93	1.500			
0.4123	26384.71	3.8420	3.8419	1.2208	26.86	0.92	1.500			
0.4159	26619.18	3.8390	3.8390	1.2454	26.85	0.91	1.500			
0.4197	26861.45	3.8360	3.8361	1.2724	26.85	0.91	1.500			
0.4236	27110.77	3.8330	3.8329	1.2959	26.84	0.90	1.500			
0.4275	27361.55	3.8300	3.8300	1.3190	26.83	0.89	1.500			
0.4315	27614.24	3.8270	3.8270	1.3394	26.82	0.88	1.500			
0.4355	27873.54	3.8240	3.8240	1.3692	26.81	0.87	1.500			
0.4397	28139.60	3.8210	3.8210	1.3982	26.80	0.86	1.500			
0.4439	28409.50	3.8180	3.8180	1.4319	26.78	0.84	1.500			
0.4483	28688.95	3.8150	3.8149	1.4648	26.77	0.83	1.500			
0.4527	28972.58	3.8120	3.8120	1.5020	26.76	0.82	1.500			
0.4572	29263.79	3.8090	3.8091	1.5334	26.75	0.81	1.500			
0.4619	29562.51	3.8060	3.8060	1.5670	26.73	0.79	1.500			
0.4667	29866.97	3.8030	3.8030	1.6034	26.72	0.78	1.500			
0.4715	30179.09	3.8000	3.8000	1.6390	26.71	0.77	1.500			
0.4765	30495.89	3.7970	3.7970	1.6782	26.69	0.75	1.500			
0.4816	30822.48	3.7940	3.7940	1.7258	26.68	0.74	1.500			
0.4868	31155.80	3.7910	3.7910	1.7767	26.66	0.72	1.500			
0.4922	31502.60	3.7880	3.7880	1.8298	26.65	0.71	1.500			
0.4978	31859.89	3.7850	3.7850	1.8566	26.63	0.69	1.500			
0.5034	32220.57	3.7820	3.7821	1.9011	26.62	0.68	1.500			
0.5092	32589.21	3.7790	3.7790	1.9491	26.60	0.66	1.500			
0.5152	32970.25	3.7760	3.7760	1.9782	26.59	0.65	1.500			
0.5212	33358.94	3.7730	3.7730	1.9923	26.57	0.63	1.500			
0.5272	33742.26	3.7700	3.7701	2.0030	26.55	0.61	1.500			
0.5331	34120.21	3.7670	3.7671	2.0233	26.53	0.59	1.500			
0.5392	34509.86	3.7640	3.7638	2.0495	26.52	0.58	1.500	0.351	0.456	
0.5454	34908.41	3.7610	3.7612	2.0824	26.50	0.56	1.500			
0.5518	35317.53	3.7580	3.7580	2.0511	26.48	0.54	1.500			
0.5580	35714.36	3.7550	3.7550	2.0216	26.46	0.52	1.500			
0.5638	36085.39	3.7520	3.7518	1.9922	26.44	0.50	1.500			
0.5698	36468.53	3.7490	3.7490	2.0057	26.42	0.48	1.500			
0.5758	36853.70	3.7460	3.7460	2.0035	26.41	0.47	1.500			
0.5819	37241.19	3.7430	3.7431	1.9999	26.40	0.46	1.500			
0.5879	37625.75	3.7400	3.7399	2.0058	26.38	0.44	1.500			
0.5939	38010.50	3.7370	3.7370	2.0089	26.37	0.43	1.500			
0.5999	38394.95	3.7340	3.7340	2.0229	26.35	0.41	1.500			
0.6060	38783.30	3.7310	3.7310	2.0469	26.34	0.40	1.500			
0.6122	39178.91	3.7280	3.7280	2.0986	26.32	0.38	1.500			
0.6185	39586.65	3.7250	3.7250	2.1502	26.31	0.37	1.500			
0.6250	40002.42	3.7220	3.7221	2.1999	26.29	0.35	1.500			
0.6317	40428.86	3.7190	3.7190	2.2595	26.28	0.34	1.500			
0.6385	40863.57	3.7160	3.7157	2.3343	26.26	0.32	1.500			
0.6456	41320.51	3.7130	3.7131	2.3928	26.24	0.30	1.500			
0.6530	41793.93	3.7100	3.7100	2.5404	26.22	0.28	1.500			
0.6607	42285.93	3.7070	3.7069	2.6015	26.21	0.27	1.500			
0.6685	42785.39	3.7040	3.7041	2.6523	26.19	0.25	1.500			
0.6766	43304.65	3.7010	3.7011	2.7036	26.18	0.24	1.500			
0.6846	43813.90	3.6980	3.6980	2.6333	26.17	0.23	1.500			
0.6924	44316.11	3.6950	3.6951	2.5851	26.15	0.21	1.500			
0.7002	44814.78	3.6920	3.6920	2.4415	26.14	0.20	1.500			
0.7073	45264.40	3.6890	3.6891	2.2389	26.13	0.19	1.500			
0.7137	45675.28	3.6860	3.6857	2.0608	26.12	0.18	1.500			
0.7196	46054.65	3.6830	3.6831	1.9018	26.11	0.17	1.500			
0.7249	46395.94	3.6800	3.6801	1.7571	26.10	0.16	1.500			
0.7300	46719.88	3.6770	3.6770	1.6496	26.09	0.15	1.500			
0.7346	47015.58	3.6740	3.6740	1.5379	26.09	0.15	1.500			
0.7391	47302.40	3.6710	3.6709	1.4667	26.08	0.14	1.500			
0.7434	47576.69	3.6680	3.6681	1.4053	26.07	0.13	1.500			
0.7475	47840.68	3.6650	3.6650	1.3581	26.07	0.13	1.500			
0.7515	48093.75	3.6620	3.6620	1.3148	26.06	0.12	1.500			
0.7553	48338.00	3.6590	3.6589	1.2770	26.05	0.11	1.500			
0.7590	48575.96	3.6560	3.6560	1.2623	26.05	0.11	1.500			
0.7627	48815.02	3.6530	3.6530	1.2617	26.04	0.10	1.500			
0.7665	49056.48	3.6500	3.6500	1.2665	26.03	0.09	1.500			
0.7703	49300.32	3.6470	3.6470	1.2759	26.02	0.08	1.500			
0.7742	49546.23	3.6440	3.6440	1.2839	26.01	0.07	1.500			
0.7780	49793.41	3.6410	3.6410	1.3037	26.00	0.06	1.500			
0.7820	50045.97	3.6380	3.6380	1.3114	26.00	0.06	1.500			
0.7859	50299.35	3.6350	3.6351	1.3160	25.99	0.05	1.500			
0.7899	50553.95	3.6320	3.6320	1.3159	25.98	0.04	1.500			
0.7939	50808.22	3.6290	3.6291	1.3148	25.97	0.03	1.500			
0.7978	51060.89	3.6260	3.6260	1.3136	25.96	0.02	1.500			
0.8018	51312.03	3.6230	3.6230	1.3092	25.96	0.02	1.500			
0.8056	51560.96	3.6200	3.6200	1.2981	25.95	0.01	1.500			
0.8096	51812.74	3.6170	3.6170	1.3005	25.95	0.01	1.500			
0.8135	52063.13	3.6140	3.6140	1.2980	25.94	-0.00	1.500			
0.8174	52310.96	3.6110	3.6110	1.2964	25.94	-0.00	1.500			
0.8213	52560.44	3.6080	3.6079	1.2854	25.93	-0.01	1.500			
0.8251	52806.93	3.6050	3.6050	1.2703	25.93	-0.01	1.500			
0.8289	53050.44	3.6020	3.6020	1.2584	25.93	-0.01	1.500			
0.8327	53291.45	3.5990	3.5991	1.2441	25.92	-0.02	1.500			
0.8364	53529.59	3.5960	3.5960	1.2281	25.92	-0.02	1.500			
0.8400	53762.50	3.5930	3.5929	1.2130	25.92	-0.02	1.500			
0.8436	53991.12	3.5900	3.5901	1.1992	25.92	-0.02	1.500			
0.8472	54222.44	3.5870	3.5869	1.1932	25.93	-0.01	1.500			
0.8508	54451.19	3.5840	3.5840	1.1833	25.93	-0.01	1.500			
0.8543	54676.53	3.5810	3.5809	1.1673	25.93	-0.01	1.500			
0.8579	54902.65	3.5780	3.5780	1.1461	25.94	-0.00	1.500			
0.8614	55132.04	3.5750	3.5749	1.0904	25.94	-0.00	1.500			
0.8647	55340.89	3.5720	3.5720	1.0042	25.94	0.00	1.500			
0.8677	55535.63	3.5690	3.5691	0.8966	25.94	0.00	1.500			
0.8703	55698.64	3.5660	3.5661	0.7650	25.95	0.01	1.500			
0.8723	55827.47	3.5630	3.5630	0.6353	25.95	0.01	1.500			
0.8739	55930.88	3.5600	3.5599	0.5178	25.95	0.01	1.500			
0.8751	56009.14	3.5570	3.5570	0.4206	25.95	0.01	1.500			
0.8762	56077.75	3.5540	3.5540	0.3553	25.95	0.01	1.500			
0.8771	56135.74	3.5510	3.5508	0.2946	25.95	0.01	1.500			
0.8779	56185.06	3.5480	3.5478	0.2578	25.95	0.01	1.500			
0.8786	56227.43	3.5450	3.5450	0.2273	25.95	0.01	1.500			
0.8792	56267.05	3.5420	3.5420	0.2049	25.95	0.01	1.500			
0.8798	56304.29	3.5390	3.5390	0.1860	25.95	0.01	1.500			
0.8803	56337.57	3.5360	3.5360	0.1698	25.95	0.01	1.500			
0.8807	56367.82	3.5330	3.5330	0.1541	25.95	0.01	1.500			
0.8812	56396.00	3.5300	3.5300	0.1401	25.95	0.01	1.500			
0.8816	56421.60	3.5270	3.5270	0.1264	25.95	0.01	1.500			
0.8819	56444.50	3.5240	3.5240	0.1126	25.95	0.01	1.500			
0.8823	56464.75	3.5210	3.5211	0.0989	25.96	0.02	1.500			
0.8825	56482.61	3.5180	3.5181	0.0855	25.96	0.02	1.500			
0.8828	56497.71	3.5150	3.5152	0.0717	25.96	0.02	1.500			
0.8830	56510.31	3.5120	3.5123	0.0574	25.96	0.02	1.500			
0.8831	56519.95	3.5090	3.5097	0.0430	25.96	0.02	1.500			
