Ah_balance (normalized)	Ah_balance (mAh)	Voltage - fit (V)	Voltage -  interpolate (V)	dQ/dV (1/V)	Temperature (°C)	Temperature - diff (°C)	Current (C)	R_DC 0ms (mOhm)	R_DC 50ms (mOhm)	R_DC 50 ms PEC (mOhm)
0.2716	17383.70	3.9890	3.9891	0.8351	27.32	1.37	1.500			
0.2741	17544.88	3.9860	3.9860	0.8427	27.31	1.36	1.500			
0.2767	17708.07	3.9830	3.9830	0.8479	27.30	1.35	1.500			
0.2792	17871.75	3.9800	3.9800	0.8485	27.30	1.35	1.500			
0.2818	18035.39	3.9770	3.9770	0.8524	27.29	1.34	1.500			
0.2844	18198.69	3.9740	3.9740	0.8530	27.29	1.34	1.500			
0.2869	18361.82	3.9710	3.9710	0.8540	27.28	1.33	1.500			
0.2895	18524.86	3.9680	3.9680	0.8556	27.27	1.32	1.500			
0.2920	18689.35	3.9650	3.9650	0.8590	27.27	1.32	1.500			
0.2946	18855.47	3.9620	3.9620	0.8651	27.26	1.31	1.500			
0.2972	19021.35	3.9590	3.9590	0.8716	27.25	1.30	1.500			
0.2998	19189.19	3.9560	3.9561	0.8756	27.25	1.30	1.500			
0.3025	19358.49	3.9530	3.9530	0.8810	27.24	1.29	1.500			
0.3051	19528.33	3.9500	3.9500	0.8860	27.23	1.28	1.500			
0.3078	19699.43	3.9470	3.9470	0.8893	27.23	1.28	1.500			
0.3105	19870.36	3.9440	3.9440	0.8913	27.22	1.27	1.500			
0.3131	20040.19	3.9410	3.9410	0.8964	27.21	1.26	1.500			
0.3158	20212.76	3.9380	3.9380	0.8971	27.21	1.26	1.500			
0.3185	20385.69	3.9350	3.9350	0.9045	27.20	1.25	1.500			
0.3212	20559.79	3.9320	3.9320	0.9108	27.19	1.24	1.500			
0.3240	20734.82	3.9290	3.9291	0.9177	27.18	1.23	1.500			
0.3268	20912.52	3.9260	3.9259	0.9229	27.17	1.22	1.500			
0.3295	21090.30	3.9230	3.9230	0.9267	27.17	1.22	1.500			
0.3323	21267.31	3.9200	3.9201	0.9294	27.16	1.21	1.500			
0.3351	21447.22	3.9170	3.9170	0.9369	27.15	1.20	1.500			
0.3379	21627.74	3.9140	3.9140	0.9370	27.15	1.20	1.500			
0.3407	21807.26	3.9110	3.9110	0.9462	27.14	1.19	1.500			
0.3436	21988.51	3.9080	3.9080	0.9532	27.13	1.18	1.500			
0.3465	22173.06	3.9050	3.9050	0.9638	27.13	1.18	1.500			
0.3494	22358.47	3.9020	3.9021	0.9736	27.12	1.17	1.500			
0.3523	22547.22	3.8990	3.8990	0.9800	27.11	1.16	1.500			
0.3553	22736.49	3.8960	3.8960	0.9888	27.10	1.15	1.500			
0.3582	22927.35	3.8930	3.8930	0.9969	27.09	1.14	1.500			
0.3612	23118.40	3.8900	3.8900	0.9992	27.08	1.13	1.500			
0.3642	23310.63	3.8870	3.8870	1.0068	27.08	1.13	1.500			
0.3673	23504.54	3.8840	3.8840	1.0149	27.07	1.12	1.500			
0.3703	23697.95	3.8810	3.8811	1.0281	27.06	1.11	1.500			
0.3734	23897.57	3.8780	3.8779	1.0415	27.05	1.10	1.500			
0.3765	24098.70	3.8750	3.8750	1.0535	27.04	1.09	1.500			
0.3797	24303.14	3.8720	3.8721	1.0653	27.03	1.08	1.500			
0.3830	24509.93	3.8690	3.8690	1.0779	27.02	1.07	1.500			
0.3862	24717.22	3.8660	3.8660	1.0881	27.01	1.06	1.500			
0.3895	24925.16	3.8630	3.8630	1.1007	27.00	1.05	1.500			
0.3928	25137.17	3.8600	3.8600	1.1163	26.99	1.04	1.500			
0.3962	25353.76	3.8570	3.8570	1.1341	26.98	1.03	1.500			
0.3996	25574.21	3.8540	3.8540	1.1467	26.97	1.02	1.500			
0.4031	25796.35	3.8510	3.8510	1.1594	26.96	1.01	1.500			
0.4066	26019.49	3.8480	3.8480	1.1763	26.95	1.00	1.500			
0.4101	26245.50	3.8450	3.8450	1.1939	26.94	0.99	1.500			
0.4137	26476.42	3.8420	3.8419	1.2038	26.93	0.98	1.500			
0.4173	26707.71	3.8390	3.8390	1.2242	26.92	0.97	1.500			
0.4210	26945.59	3.8360	3.8360	1.2446	26.90	0.95	1.500			
0.4248	27186.94	3.8330	3.8330	1.2656	26.89	0.94	1.500			
0.4286	27430.74	3.8300	3.8299	1.2867	26.88	0.93	1.500			
0.4325	27679.27	3.8270	3.8271	1.3051	26.87	0.92	1.500			
0.4364	27930.86	3.8240	3.8240	1.3327	26.85	0.90	1.500			
0.4405	28192.45	3.8210	3.8210	1.3517	26.84	0.89	1.500			
0.4446	28451.81	3.8180	3.8180	1.3718	26.83	0.88	1.500			
0.4487	28717.17	3.8150	3.8150	1.4005	26.81	0.86	1.500			
0.4529	28988.17	3.8120	3.8119	1.4220	26.80	0.85	1.500			
0.4572	29262.78	3.8090	3.8090	1.4450	26.78	0.83	1.500			
0.4616	29543.40	3.8060	3.8060	1.4742	26.77	0.82	1.500			
0.4661	29828.27	3.8030	3.8030	1.4982	26.75	0.80	1.500			
0.4706	30118.16	3.8000	3.8000	1.5315	26.73	0.78	1.500			
0.4752	30414.66	3.7970	3.7970	1.5572	26.71	0.76	1.500			
0.4799	30716.52	3.7940	3.7941	1.5865	26.69	0.74	1.500			
0.4848	31026.86	3.7910	3.7911	1.6086	26.68	0.73	1.500			
0.4897	31338.21	3.7880	3.7880	1.6306	26.66	0.71	1.500			
0.4945	31650.48	3.7850	3.7851	1.6646	26.65	0.70	1.500			
0.4996	31975.13	3.7820	3.7819	1.6959	26.63	0.68	1.500	0.342	0.472	
0.5048	32305.78	3.7790	3.7790	1.7094	26.62	0.67	1.500			
0.5100	32638.82	3.7760	3.7761	1.7234	26.60	0.65	1.500			
0.5152	32971.71	3.7730	3.7730	1.7235	26.58	0.63	1.500			
0.5203	33298.36	3.7700	3.7700	1.7148	26.57	0.62	1.500			
0.5254	33624.98	3.7670	3.7670	1.7331	26.55	0.60	1.500			
0.5306	33958.75	3.7640	3.7640	1.7498	26.53	0.58	1.500			
0.5359	34299.66	3.7610	3.7610	1.7642	26.52	0.57	1.500			
0.5413	34640.14	3.7580	3.7580	1.7726	26.51	0.56	1.500			
0.5466	34980.13	3.7550	3.7550	1.7699	26.50	0.55	1.500			
0.5518	35314.09	3.7520	3.7520	1.7650	26.48	0.53	1.500			
0.5571	35655.30	3.7490	3.7490	1.7892	26.47	0.52	1.500			
0.5625	35999.16	3.7460	3.7460	1.8164	26.45	0.50	1.500			
0.5680	36351.50	3.7430	3.7430	1.8398	26.43	0.48	1.500			
0.5735	36705.76	3.7400	3.7400	1.8777	26.42	0.47	1.500			
0.5792	37069.22	3.7370	3.7370	1.9268	26.40	0.45	1.500			
0.5850	37441.91	3.7340	3.7340	1.9855	26.38	0.43	1.500			
0.5910	37826.66	3.7310	3.7310	2.0145	26.37	0.42	1.500			
0.5972	38219.17	3.7280	3.7281	2.0703	26.35	0.40	1.500			
0.6034	38620.74	3.7250	3.7248	2.1193	26.34	0.39	1.500			
0.6099	39035.40	3.7220	3.7220	2.1644	26.32	0.37	1.500			
0.6165	39456.32	3.7190	3.7190	2.2333	26.31	0.36	1.500			
0.6233	39892.07	3.7160	3.7161	2.2857	26.29	0.34	1.500			
0.6303	40336.65	3.7130	3.7131	2.3365	26.28	0.33	1.500			
0.6374	40792.55	3.7100	3.7100	2.3874	26.26	0.31	1.500			
0.6445	41249.38	3.7070	3.7070	2.3056	26.24	0.29	1.500			
0.6515	41693.12	3.7040	3.7039	2.2344	26.22	0.27	1.500			
0.6580	42114.38	3.7010	3.7011	2.1211	26.21	0.26	1.500			
0.6643	42513.65	3.6980	3.6979	1.9728	26.19	0.24	1.500			
0.6700	42880.61	3.6950	3.6950	1.8472	26.18	0.23	1.500			
0.6751	43209.09	3.6920	3.6921	1.7247	26.17	0.22	1.500			
0.6802	43532.61	3.6890	3.6890	1.6365	26.16	0.21	1.500			
0.6849	43836.09	3.6860	3.6860	1.5490	26.14	0.19	1.500			
0.6894	44124.03	3.6830	3.6831	1.4756	26.13	0.18	1.500			
0.6938	44400.94	3.6800	3.6800	1.4190	26.12	0.17	1.500			
0.6978	44658.51	3.6770	3.6770	1.3633	26.11	0.16	1.500			
0.7017	44911.75	3.6740	3.6740	1.3274	26.10	0.15	1.500			
0.7057	45162.13	3.6710	3.6709	1.3094	26.10	0.15	1.500			
0.7096	45411.48	3.6680	3.6680	1.2961	26.09	0.14	1.500			
0.7134	45660.34	3.6650	3.6651	1.2821	26.08	0.13	1.500			
0.7173	45905.63	3.6620	3.6620	1.2728	26.07	0.12	1.500			
0.7211	46148.08	3.6590	3.6591	1.2664	26.06	0.11	1.500			
0.7248	46389.42	3.6560	3.6560	1.2641	26.06	0.11	1.500			
0.7286	46630.55	3.6530	3.6529	1.2601	26.05	0.10	1.500			
0.7324	46873.18	3.6500	3.6500	1.2599	26.04	0.09	1.500			
0.7362	47115.58	3.6470	3.6470	1.2594	26.03	0.08	1.500			
0.7400	47358.90	3.6440	3.6440	1.2531	26.02	0.07	1.500			
0.7437	47599.16	3.6410	3.6410	1.2462	26.01	0.06	1.500			
0.7475	47836.82	3.6380	3.6380	1.2406	26.00	0.05	1.500			
0.7512	48074.28	3.6350	3.6350	1.2313	26.00	0.05	1.500			
0.7549	48310.76	3.6320	3.6320	1.2268	25.99	0.04	1.500			
0.7585	48545.78	3.6290	3.6290	1.2210	25.98	0.03	1.500			
0.7622	48780.09	3.6260	3.6260	1.2141	25.98	0.03	1.500			
0.7658	49014.12	3.6230	3.6230	1.2061	25.97	0.02	1.500			
0.7695	49245.00	3.6200	3.6200	1.1926	25.97	0.02	1.500			
0.7730	49472.15	3.6170	3.6171	1.1813	25.97	0.02	1.500			
0.7766	49700.28	3.6140	3.6139	1.1641	25.96	0.01	1.500			
0.7800	49921.31	3.6110	3.6110	1.1443	25.96	0.01	1.500			
0.7834	50139.75	3.6080	3.6080	1.1199	25.96	0.01	1.500			
0.7868	50352.29	3.6050	3.6050	1.0978	25.96	0.01	1.500			
0.7900	50562.52	3.6020	3.6020	1.0733	25.96	0.01	1.500			
0.7932	50766.70	3.5990	3.5989	1.0410	25.95	0.00	1.500			
0.7963	50963.45	3.5960	3.5960	1.0140	25.95	0.00	1.500			
0.7993	51157.51	3.5930	3.5930	0.9817	25.95	0.00	1.500			
0.8023	51345.57	3.5900	3.5899	0.9329	25.95	0.00	1.500			
0.8051	51523.27	3.5870	3.5871	0.8758	25.95	-0.00	1.500			
0.8077	51690.65	3.5840	3.5840	0.7979	25.95	-0.00	1.500			
0.8100	51839.11	3.5810	3.5811	0.7095	25.95	-0.00	1.500			
0.8120	51968.91	3.5780	3.5780	0.6197	25.95	-0.00	1.500			
0.8137	52075.40	3.5750	3.5750	0.5240	25.95	-0.00	1.500			
0.8150	52163.18	3.5720	3.5719	0.4462	25.95	-0.00	1.500			
0.8162	52238.02	3.5690	3.5689	0.3794	25.94	-0.01	1.500			
0.8172	52299.98	3.5660	3.5660	0.3243	25.94	-0.01	1.500			
0.8181	52355.85	3.5630	3.5630	0.2846	25.94	-0.01	1.500			
0.8188	52405.18	3.5600	3.5599	0.2469	25.94	-0.01	1.500			
0.8195	52447.78	3.5570	3.5570	0.2210	25.94	-0.01	1.500			
0.8201	52485.40	3.5540	3.5540	0.1982	25.94	-0.01	1.500			
0.8206	52520.55	3.5510	3.5509	0.1804	25.94	-0.01	1.500			
0.8211	52553.09	3.5480	3.5480	0.1638	25.94	-0.01	1.500			
0.8216	52582.85	3.5450	3.5450	0.1492	25.94	-0.01	1.500			
0.8220	52610.00	3.5420	3.5420	0.1348	25.94	-0.01	1.500			
0.8224	52634.65	3.5390	3.5390	0.1210	25.94	-0.01	1.500			
0.8228	52656.51	3.5360	3.5360	0.1067	25.94	-0.01	1.500			
0.8231	52675.42	3.5330	3.5330	0.0923	25.94	-0.01	1.500			
0.8233	52691.95	3.5300	3.5301	0.0784	25.94	-0.01	1.500			
0.8235	52705.63	3.5270	3.5273	0.0642	25.94	-0.01	1.500			
0.8237	52716.66	3.5240	3.5245	0.0497	25.94	-0.01	1.500			
0.8238	52724.81	3.5210	3.5219	0.0352	25.94	-0.01	1.500			
