Ah_balance (normalized)	Ah_balance (mAh)	Voltage - fit (V)	Voltage -  interpolate (V)	dQ/dV (1/V)	Temperature (°C)	Temperature - diff (°C)	Current (C)	R_DC 0ms (mOhm)	R_DC 50ms (mOhm)	R_DC 50 ms PEC (mOhm)
0.2020	12925.54	3.9140	3.9136	-0.0953	25.75	0.01	-1.500			
0.2023	12947.00	3.9110	3.9110	-0.1284	25.75	0.01	-1.500			
0.2027	12974.75	3.9080	3.9078	-0.1616	25.75	0.01	-1.500			
0.2033	13009.53	3.9050	3.9051	-0.1941	25.75	0.01	-1.500			
0.2039	13050.04	3.9020	3.9019	-0.2251	25.75	0.01	-1.500			
0.2046	13096.48	3.8990	3.8990	-0.2536	25.75	0.01	-1.500			
0.2054	13148.61	3.8960	3.8961	-0.2839	25.74	0.00	-1.500			
0.2063	13205.82	3.8930	3.8930	-0.3134	25.74	0.00	-1.500			
0.2073	13268.83	3.8900	3.8899	-0.3436	25.74	0.00	-1.500			
0.2084	13337.15	3.8870	3.8870	-0.3737	25.74	0.00	-1.500			
0.2096	13411.63	3.8840	3.8841	-0.4042	25.74	0.00	-1.500			
0.2108	13492.93	3.8810	3.8809	-0.4330	25.74	0.00	-1.500			
0.2122	13579.25	3.8780	3.8780	-0.4609	25.74	-0.00	-1.500			
0.2136	13669.90	3.8750	3.8751	-0.4900	25.74	-0.00	-1.500			
0.2151	13766.79	3.8720	3.8720	-0.5180	25.74	-0.00	-1.500			
0.2167	13869.84	3.8690	3.8690	-0.5419	25.74	-0.00	-1.500			
0.2184	13976.60	3.8660	3.8660	-0.5658	25.73	-0.01	-1.500			
0.2201	14088.22	3.8630	3.8631	-0.5881	25.73	-0.01	-1.500			
0.2219	14203.94	3.8600	3.8600	-0.6073	25.73	-0.01	-1.500			
0.2238	14322.43	3.8570	3.8570	-0.6262	25.73	-0.01	-1.500			
0.2257	14444.02	3.8540	3.8540	-0.6428	25.73	-0.01	-1.500			
0.2277	14569.65	3.8510	3.8510	-0.6596	25.73	-0.01	-1.500			
0.2297	14698.36	3.8480	3.8480	-0.6763	25.73	-0.01	-1.500			
0.2317	14830.45	3.8450	3.8450	-0.6891	25.72	-0.02	-1.500			
0.2338	14964.55	3.8420	3.8420	-0.7001	25.72	-0.02	-1.500			
0.2360	15100.83	3.8390	3.8390	-0.7094	25.72	-0.02	-1.500			
0.2381	15237.17	3.8360	3.8360	-0.7171	25.72	-0.02	-1.500			
0.2403	15376.01	3.8330	3.8330	-0.7244	25.72	-0.02	-1.500			
0.2424	15515.18	3.8300	3.8300	-0.7319	25.72	-0.02	-1.500			
0.2446	15656.56	3.8270	3.8269	-0.7356	25.73	-0.01	-1.500			
0.2469	15799.60	3.8240	3.8241	-0.7425	25.73	-0.01	-1.500			
0.2491	15942.75	3.8210	3.8210	-0.7448	25.73	-0.01	-1.500			
0.2514	16086.43	3.8180	3.8181	-0.7489	25.73	-0.01	-1.500			
0.2536	16230.48	3.8150	3.8150	-0.7487	25.73	-0.01	-1.500			
0.2558	16373.80	3.8120	3.8120	-0.7522	25.74	-0.00	-1.500			
0.2581	16518.67	3.8090	3.8090	-0.7515	25.74	-0.00	-1.500			
0.2604	16663.42	3.8060	3.8060	-0.7557	25.74	-0.00	-1.500			
0.2626	16807.22	3.8030	3.8030	-0.7598	25.74	0.00	-1.500			
0.2649	16954.15	3.8000	3.8000	-0.7634	25.74	0.00	-1.500			
0.2672	17101.06	3.7970	3.7970	-0.7658	25.75	0.01	-1.500			
0.2695	17248.91	3.7940	3.7940	-0.7657	25.75	0.01	-1.500			
0.2718	17395.39	3.7910	3.7911	-0.7661	25.75	0.01	-1.500			
0.2741	17543.36	3.7880	3.7880	-0.7687	25.76	0.02	-1.500			
0.2764	17689.91	3.7850	3.7848	-0.7667	25.76	0.02	-1.500			
0.2787	17836.66	3.7820	3.7821	-0.7646	25.76	0.02	-1.500			
0.2810	17984.51	3.7790	3.7790	-0.7676	25.76	0.02	-1.500			
0.2833	18132.58	3.7760	3.7760	-0.7694	25.77	0.03	-1.500			
0.2856	18280.93	3.7730	3.7729	-0.7696	25.77	0.03	-1.500			
0.2879	18426.74	3.7700	3.7700	-0.7692	25.77	0.03	-1.500			
0.2902	18574.52	3.7670	3.7670	-0.7724	25.77	0.03	-1.500			
0.2926	18723.35	3.7640	3.7640	-0.7724	25.78	0.04	-1.500			
0.2949	18872.54	3.7610	3.7610	-0.7706	25.78	0.04	-1.500			
0.2972	19021.50	3.7580	3.7580	-0.7689	25.78	0.04	-1.500			
0.2995	19168.81	3.7550	3.7550	-0.7651	25.79	0.05	-1.500			
0.3018	19313.39	3.7520	3.7521	-0.7654	25.79	0.05	-1.500			
0.3041	19459.68	3.7490	3.7490	-0.7649	25.79	0.05	-1.500			
0.3064	19606.90	3.7460	3.7459	-0.7654	25.79	0.05	-1.500			
0.3087	19754.94	3.7430	3.7430	-0.7675	25.80	0.06	-1.500			
0.3110	19902.55	3.7400	3.7400	-0.7723	25.80	0.06	-1.500			
0.3133	20051.26	3.7370	3.7370	-0.7717	25.80	0.06	-1.500			
0.3156	20199.04	3.7340	3.7339	-0.7715	25.81	0.07	-1.500			
0.3179	20346.29	3.7310	3.7310	-0.7720	25.82	0.08	-1.500			
0.3202	20495.91	3.7280	3.7281	-0.7729	25.82	0.08	-1.500			
0.3226	20644.74	3.7250	3.7249	-0.7775	25.83	0.09	-1.500			
0.3249	20793.53	3.7220	3.7220	-0.7795	25.83	0.09	-1.500			
0.3272	20941.72	3.7190	3.7190	-0.7815	25.84	0.10	-1.500			
0.3296	21092.85	3.7160	3.7160	-0.7881	25.84	0.10	-1.500			
0.3320	21244.88	3.7130	3.7130	-0.7914	25.85	0.11	-1.500			
0.3343	21397.61	3.7100	3.7099	-0.7953	25.86	0.12	-1.500			
0.3367	21551.18	3.7070	3.7072	-0.8048	25.86	0.12	-1.500			
0.3391	21705.15	3.7040	3.7040	-0.8091	25.86	0.12	-1.500			
0.3416	21860.46	3.7010	3.7010	-0.8183	25.87	0.13	-1.500			
0.3440	22019.03	3.6980	3.6981	-0.8256	25.87	0.13	-1.500			
0.3465	22178.45	3.6950	3.6950	-0.8346	25.88	0.14	-1.500			
0.3491	22339.41	3.6920	3.6920	-0.8447	25.88	0.14	-1.500			
0.3516	22501.04	3.6890	3.6891	-0.8591	25.88	0.14	-1.500			
0.3542	22667.09	3.6860	3.6860	-0.8687	25.89	0.15	-1.500			
0.3568	22835.79	3.6830	3.6829	-0.8821	25.89	0.15	-1.500			
0.3595	23007.01	3.6800	3.6800	-0.8895	25.90	0.16	-1.500			
0.3622	23179.40	3.6770	3.6771	-0.9031	25.90	0.16	-1.500			
0.3649	23351.60	3.6740	3.6740	-0.9181	25.91	0.17	-1.500			
0.3676	23527.69	3.6710	3.6709	-0.9308	25.91	0.17	-1.500			
0.3704	23706.43	3.6680	3.6680	-0.9476	25.91	0.17	-1.500			
0.3733	23892.28	3.6650	3.6650	-0.9715	25.92	0.18	-1.500			
0.3763	24082.17	3.6620	3.6620	-0.9942	25.92	0.18	-1.500			
0.3793	24276.52	3.6590	3.6590	-1.0130	25.93	0.19	-1.500			
0.3824	24471.17	3.6560	3.6560	-1.0279	25.93	0.19	-1.500			
0.3855	24669.98	3.6530	3.6531	-1.0432	25.94	0.20	-1.500			
0.3886	24872.23	3.6500	3.6499	-1.0599	25.94	0.20	-1.500			
0.3918	25075.34	3.6470	3.6470	-1.0793	25.94	0.20	-1.500			
0.3951	25284.56	3.6440	3.6440	-1.1013	25.94	0.20	-1.500			
0.3984	25495.81	3.6410	3.6410	-1.1254	25.94	0.20	-1.500			
0.4018	25715.88	3.6380	3.6380	-1.1501	25.94	0.20	-1.500			
0.4053	25939.17	3.6350	3.6350	-1.1740	25.94	0.20	-1.500			
0.4089	26167.93	3.6320	3.6320	-1.2021	25.94	0.20	-1.500			
0.4125	26401.39	3.6290	3.6290	-1.2254	25.94	0.20	-1.500			
0.4162	26637.18	3.6260	3.6260	-1.2465	25.94	0.20	-1.500			
0.4200	26879.17	3.6230	3.6230	-1.2755	25.95	0.21	-1.500			
0.4238	27125.84	3.6200	3.6200	-1.3047	25.95	0.21	-1.500			
0.4278	27380.84	3.6170	3.6169	-1.3356	25.95	0.21	-1.500			
0.4319	27641.09	3.6140	3.6140	-1.3607	25.96	0.22	-1.500			
0.4360	27905.51	3.6110	3.6112	-1.3811	25.96	0.22	-1.500			
0.4402	28173.65	3.6080	3.6079	-1.4082	25.96	0.22	-1.500			
0.4445	28444.91	3.6050	3.6051	-1.4318	25.96	0.22	-1.500			
0.4487	28717.85	3.6020	3.6020	-1.4562	25.96	0.22	-1.500			
0.4532	29003.64	3.5990	3.5989	-1.4872	25.96	0.22	-1.500			
0.4577	29290.73	3.5960	3.5960	-1.5106	25.96	0.22	-1.500			
0.4623	29585.05	3.5930	3.5930	-1.5395	25.96	0.22	-1.500			
0.4669	29882.43	3.5900	3.5900	-1.5645	25.96	0.22	-1.500			
0.4716	30182.73	3.5870	3.5870	-1.5917	25.96	0.22	-1.500			
0.4765	30493.30	3.5840	3.5840	-1.6154	25.96	0.22	-1.500			
0.4813	30805.63	3.5810	3.5810	-1.6418	25.96	0.22	-1.500			
0.4863	31125.20	3.5780	3.5781	-1.6709	25.96	0.22	-1.500			
0.4914	31447.82	3.5750	3.5750	-1.6960	25.96	0.22	-1.500			
0.4965	31776.12	3.5720	3.5719	-1.7303	25.96	0.22	-1.500			
0.5017	32110.95	3.5690	3.5690	-1.7522	25.96	0.22	-1.500			
0.5071	32452.08	3.5660	3.5659	-1.7823	25.96	0.22	-1.500			
0.5125	32798.33	3.5630	3.5631	-1.8041	25.96	0.22	-1.500			
0.5179	33145.38	3.5600	3.5600	-1.8218	25.96	0.22	-1.500			
0.5234	33497.38	3.5570	3.5570	-1.8349	25.96	0.22	-1.500			
0.5289	33846.84	3.5540	3.5540	-1.8463	25.97	0.23	-1.500			
0.5345	34207.85	3.5510	3.5510	-1.8729	25.97	0.23	-1.500			
0.5401	34568.65	3.5480	3.5480	-1.8923	25.97	0.23	-1.500			
0.5459	34935.70	3.5450	3.5450	-1.9085	25.97	0.23	-1.500			
0.5516	35304.15	3.5420	3.5420	-1.9210	25.98	0.24	-1.500	0.384	0.511	
0.5574	35675.75	3.5390	3.5390	-1.9264	25.98	0.24	-1.500			
0.5632	36046.18	3.5360	3.5360	-1.9192	25.98	0.24	-1.500			
0.5690	36415.60	3.5330	3.5330	-1.9210	25.99	0.25	-1.500			
0.5748	36785.02	3.5300	3.5300	-1.9067	26.00	0.26	-1.500			
0.5805	37150.20	3.5270	3.5270	-1.8915	26.00	0.26	-1.500			
0.5861	37512.91	3.5240	3.5242	-1.8830	26.01	0.27	-1.500			
0.5917	37870.93	3.5210	3.5210	-1.8750	26.02	0.28	-1.500			
0.5973	38229.04	3.5180	3.5179	-1.8681	26.02	0.28	-1.500			
0.6029	38584.11	3.5150	3.5150	-1.8504	26.03	0.29	-1.500			
0.6085	38945.88	3.5120	3.5120	-1.8576	26.04	0.30	-1.500			
0.6141	39302.94	3.5090	3.5090	-1.8515	26.04	0.30	-1.500			
0.6197	39658.42	3.5060	3.5060	-1.8316	26.05	0.31	-1.500			
0.6251	40006.48	3.5030	3.5029	-1.8133	26.06	0.32	-1.500			
0.6305	40349.50	3.5000	3.5001	-1.8046	26.07	0.33	-1.500			
0.6359	40695.62	3.4970	3.4970	-1.7976	26.08	0.34	-1.500			
0.6413	41040.28	3.4940	3.4939	-1.7968	26.09	0.35	-1.500			
0.6466	41384.24	3.4910	3.4910	-1.7874	26.10	0.36	-1.500			
0.6520	41728.23	3.4880	3.4881	-1.7804	26.11	0.37	-1.500			
0.6573	42069.72	3.4850	3.4850	-1.7729	26.11	0.37	-1.500			
0.6627	42410.98	3.4820	3.4820	-1.7543	26.12	0.38	-1.500			
0.6679	42745.34	3.4790	3.4789	-1.7422	26.14	0.40	-1.500			
0.6731	43079.03	3.4760	3.4760	-1.7257	26.16	0.42	-1.500			
0.6782	43407.48	3.4730	3.4730	-1.7095	26.17	0.43	-1.500			
0.6834	43736.63	3.4700	3.4700	-1.6910	26.19	0.45	-1.500			
0.6884	44059.52	3.4670	3.4670	-1.6669	26.21	0.47	-1.500			
0.6934	44376.07	3.4640	3.4640	-1.6445	26.22	0.48	-1.500			
0.6983	44691.02	3.4610	3.4610	-1.6226	26.23	0.49	-1.500			
0.7031	44999.47	3.4580	3.4580	-1.5977	26.25	0.51	-1.500			
0.7079	45304.14	3.4550	3.4549	-1.5711	26.26	0.52	-1.500			
0.7125	45602.13	3.4520	3.4521	-1.5454	26.27	0.53	-1.500			
0.7171	45897.33	3.4490	3.4489	-1.5256	26.29	0.55	-1.500			
0.7217	46187.58	3.4460	3.4460	-1.5073	26.31	0.57	-1.500			
0.7262	46474.91	3.4430	3.4429	-1.4862	26.32	0.58	-1.500			
0.7306	46758.32	3.4400	3.4400	-1.4709	26.34	0.60	-1.500			
0.7350	47039.01	3.4370	3.4370	-1.4561	26.36	0.62	-1.500			
0.7393	47316.49	3.4340	3.4339	-1.4471	26.37	0.63	-1.500			
0.7436	47591.18	3.4310	3.4310	-1.4433	26.39	0.65	-1.500			
0.7479	47866.27	3.4280	3.4279	-1.4357	26.41	0.67	-1.500			
0.7522	48141.81	3.4250	3.4250	-1.4280	26.43	0.69	-1.500			
0.7566	48420.21	3.4220	3.4219	-1.4206	26.45	0.71	-1.500			
0.7608	48692.29	3.4190	3.4191	-1.4017	26.46	0.72	-1.500			
0.7650	48961.49	3.4160	3.4159	-1.3835	26.48	0.74	-1.500			
0.7691	49225.57	3.4130	3.4129	-1.3531	26.50	0.76	-1.500			
0.7731	49480.67	3.4100	3.4100	-1.3222	26.52	0.78	-1.500			
0.7771	49734.33	3.4070	3.4071	-1.2939	26.54	0.80	-1.500			
0.7810	49982.20	3.4040	3.4040	-1.2618	26.56	0.82	-1.500			
0.7847	50221.53	3.4010	3.4010	-1.2197	26.58	0.84	-1.500			
0.7883	50451.86	3.3980	3.3981	-1.1795	26.60	0.86	-1.500			
0.7918	50674.40	3.3950	3.3950	-1.1340	26.62	0.88	-1.500			
0.7952	50889.79	3.3920	3.3920	-1.0925	26.63	0.89	-1.500			
0.7983	51092.67	3.3890	3.3890	-1.0484	26.65	0.91	-1.500			
0.8014	51289.80	3.3860	3.3860	-1.0090	26.67	0.93	-1.500			
0.8044	51481.12	3.3830	3.3829	-0.9653	26.68	0.94	-1.500			
0.8072	51662.17	3.3800	3.3800	-0.9258	26.70	0.96	-1.500			
0.8099	51835.10	3.3770	3.3771	-0.8850	26.71	0.97	-1.500			
0.8125	52001.17	3.3740	3.3740	-0.8498	26.73	0.99	-1.500			
0.8150	52158.24	3.3710	3.3709	-0.8141	26.74	1.00	-1.500			
0.8174	52311.39	3.3680	3.3679	-0.7843	26.75	1.01	-1.500			
0.8197	52458.94	3.3650	3.3650	-0.7569	26.76	1.02	-1.500			
0.8219	52602.02	3.3620	3.3620	-0.7336	26.77	1.03	-1.500			
0.8241	52740.12	3.3590	3.3590	-0.7072	26.79	1.05	-1.500			
0.8262	52874.00	3.3560	3.3559	-0.6853	26.80	1.06	-1.500			
0.8282	53001.97	3.3530	3.3530	-0.6609	26.81	1.07	-1.500			
0.8301	53126.74	3.3500	3.3500	-0.6397	26.82	1.08	-1.500			
0.8320	53248.53	3.3470	3.3469	-0.6195	26.82	1.08	-1.500			
0.8338	53364.54	3.3440	3.3440	-0.5997	26.83	1.09	-1.500			
0.8356	53476.47	3.3410	3.3409	-0.5798	26.84	1.10	-1.500			
0.8373	53586.31	3.3380	3.3381	-0.5630	26.85	1.11	-1.500			
0.8390	53693.38	3.3350	3.3349	-0.5462	26.85	1.11	-1.500			
0.8406	53796.42	3.3320	3.3320	-0.5280	26.86	1.12	-1.500			
0.8421	53895.72	3.3290	3.3290	-0.5112	26.87	1.13	-1.500			
0.8436	53992.64	3.3260	3.3261	-0.4957	26.88	1.14	-1.500			
0.8451	54085.75	3.3230	3.3229	-0.4784	26.89	1.15	-1.500			
0.8465	54176.41	3.3200	3.3200	-0.4641	26.89	1.15	-1.500			
0.8479	54263.50	3.3170	3.3170	-0.4497	26.90	1.16	-1.500			
0.8492	54348.02	3.3140	3.3141	-0.4375	26.91	1.17	-1.500			
0.8505	54430.78	3.3110	3.3110	-0.4239	26.91	1.17	-1.500			
0.8517	54510.89	3.3080	3.3079	-0.4097	26.92	1.18	-1.500			
0.8529	54588.62	3.3050	3.3051	-0.3970	26.93	1.19	-1.500			
0.8541	54663.21	3.3020	3.3019	-0.3865	26.93	1.19	-1.500			
0.8553	54736.20	3.2990	3.2991	-0.3756	26.94	1.20	-1.500			
0.8564	54807.39	3.2960	3.2959	-0.3641	26.94	1.20	-1.500			
0.8574	54875.37	3.2930	3.2930	-0.3533	26.95	1.21	-1.500			
0.8585	54943.19	3.2900	3.2901	-0.3427	26.96	1.22	-1.500			
0.8595	55007.49	3.2870	3.2870	-0.3323	26.96	1.22	-1.500			
0.8605	55070.55	3.2840	3.2839	-0.3225	26.97	1.23	-1.500			
0.8614	55130.71	3.2810	3.2811	-0.3122	26.97	1.23	-1.500			
0.8623	55189.29	3.2780	3.2780	-0.3036	26.98	1.24	-1.500			
0.8632	55247.07	3.2750	3.2750	-0.2953	26.98	1.24	-1.500			
0.8641	55302.74	3.2720	3.2719	-0.2874	26.99	1.25	-1.500			
0.8650	55357.61	3.2690	3.2691	-0.2811	26.99	1.25	-1.500			
0.8658	55410.42	3.2660	3.2660	-0.2734	27.00	1.26	-1.500			
0.8666	55462.20	3.2630	3.2630	-0.2671	27.01	1.27	-1.500			
0.8674	55513.03	3.2600	3.2600	-0.2611	27.01	1.27	-1.500			
0.8682	55562.20	3.2570	3.2570	-0.2544	27.02	1.28	-1.500			
0.8689	55610.46	3.2540	3.2541	-0.2493	27.02	1.28	-1.500			
0.8697	55657.71	3.2510	3.2510	-0.2426	27.03	1.29	-1.500			
0.8704	55703.59	3.2480	3.2480	-0.2374	27.03	1.29	-1.500			
0.8711	55748.63	3.2450	3.2450	-0.2321	27.04	1.30	-1.500			
0.8718	55792.75	3.2420	3.2421	-0.2262	27.04	1.30	-1.500			
0.8724	55835.60	3.2390	3.2389	-0.2210	27.04	1.30	-1.500			
0.8731	55877.34	3.2360	3.2359	-0.2163	27.05	1.31	-1.500			
0.8737	55918.38	3.2330	3.2332	-0.2115	27.05	1.31	-1.500			
0.8743	55958.05	3.2300	3.2300	-0.2072	27.06	1.32	-1.500			
0.8750	55997.31	3.2270	3.2270	-0.2049	27.06	1.32	-1.500			
0.8756	56036.42	3.2240	3.2239	-0.2004	27.07	1.33	-1.500			
0.8762	56074.60	3.2210	3.2211	-0.1974	27.07	1.33	-1.500			
0.8768	56112.51	3.2180	3.2179	-0.1946	27.07	1.33	-1.500			
0.8773	56149.57	3.2150	3.2151	-0.1914	27.08	1.34	-1.500			
0.8779	56185.98	3.2120	3.2119	-0.1878	27.08	1.34	-1.500			
0.8785	56221.44	3.2090	3.2091	-0.1845	27.09	1.35	-1.500			
0.8790	56256.57	3.2060	3.2059	-0.1815	27.09	1.35	-1.500			
0.8795	56290.89	3.2030	3.2030	-0.1781	27.10	1.36	-1.500			
0.8801	56324.99	3.2000	3.2000	-0.1767	27.10	1.36	-1.500			
0.8806	56358.41	3.1970	3.1971	-0.1735	27.10	1.36	-1.500			
0.8811	56391.54	3.1940	3.1939	-0.1715	27.11	1.37	-1.500			
0.8816	56424.35	3.1910	3.1910	-0.1689	27.11	1.37	-1.500			
0.8821	56456.69	3.1880	3.1881	-0.1667	27.12	1.38	-1.500			
0.8826	56488.32	3.1850	3.1849	-0.1642	27.12	1.38	-1.500			
0.8831	56519.63	3.1820	3.1821	-0.1619	27.12	1.38	-1.500			
0.8836	56550.52	3.1790	3.1790	-0.1602	27.13	1.39	-1.500			
0.8841	56580.54	3.1760	3.1760	-0.1583	27.13	1.39	-1.500			
0.8845	56610.77	3.1730	3.1730	-0.1574	27.14	1.40	-1.500			
0.8850	56640.96	3.1700	3.1700	-0.1566	27.14	1.40	-1.500			
0.8855	56671.28	3.1670	3.1669	-0.1545	27.14	1.40	-1.500			
0.8860	56700.92	3.1640	3.1640	-0.1530	27.15	1.41	-1.500			
0.8864	56730.29	3.1610	3.1611	-0.1512	27.15	1.41	-1.500			
0.8869	56759.02	3.1580	3.1581	-0.1490	27.16	1.42	-1.500			
0.8873	56787.30	3.1550	3.1549	-0.1473	27.16	1.42	-1.500			
0.8877	56814.90	3.1520	3.1520	-0.1456	27.17	1.43	-1.500			
0.8882	56842.80	3.1490	3.1490	-0.1450	27.17	1.43	-1.500			
0.8886	56870.43	3.1460	3.1459	-0.1437	27.18	1.44	-1.500			
0.8890	56898.24	3.1430	3.1429	-0.1430	27.18	1.44	-1.500			
0.8895	56925.65	3.1400	3.1401	-0.1413	27.19	1.45	-1.500			
0.8899	56952.63	3.1370	3.1369	-0.1397	27.19	1.45	-1.500			
0.8903	56979.44	3.1340	3.1341	-0.1388	27.20	1.46	-1.500			
0.8907	57005.98	3.1310	3.1310	-0.1369	27.20	1.46	-1.500			
0.8911	57031.68	3.1280	3.1280	-0.1356	27.21	1.47	-1.500			
0.8915	57057.65	3.1250	3.1249	-0.1349	27.21	1.47	-1.500			
0.8919	57083.48	3.1220	3.1221	-0.1340	27.21	1.47	-1.500			
0.8923	57109.10	3.1190	3.1189	-0.1329	27.22	1.48	-1.500			
0.8927	57134.60	3.1160	3.1160	-0.1323	27.22	1.48	-1.500			
0.8931	57159.91	3.1130	3.1130	-0.1313	27.23	1.49	-1.500			
0.8935	57184.96	3.1100	3.1101	-0.1304	27.23	1.49	-1.500			
0.8939	57210.01	3.1070	3.1069	-0.1301	27.24	1.50	-1.500			
0.8943	57234.55	3.1040	3.1041	-0.1288	27.24	1.50	-1.500			
0.8947	57259.34	3.1010	3.1010	-0.1283	27.25	1.51	-1.500			
0.8951	57284.10	3.0980	3.0979	-0.1277	27.25	1.51	-1.500			
0.8954	57308.65	3.0950	3.0950	-0.1271	27.26	1.52	-1.500			
0.8958	57332.96	3.0920	3.0922	-0.1262	27.26	1.52	-1.500			
0.8962	57357.20	3.0890	3.0890	-0.1250	27.26	1.52	-1.500			
0.8966	57381.18	3.0860	3.0860	-0.1239	27.27	1.53	-1.500			
0.8969	57404.60	3.0830	3.0830	-0.1230	27.27	1.53	-1.500			
0.8973	57428.19	3.0800	3.0800	-0.1223	27.28	1.54	-1.500			
0.8977	57451.58	3.0770	3.0770	-0.1215	27.28	1.54	-1.500			
0.8980	57474.69	3.0740	3.0740	-0.1211	27.29	1.55	-1.500			
0.8984	57497.92	3.0710	3.0711	-0.1209	27.29	1.55	-1.500			
0.8988	57521.17	3.0680	3.0680	-0.1200	27.30	1.56	-1.500			
0.8991	57544.36	3.0650	3.0649	-0.1197	27.30	1.56	-1.500			
0.8995	57567.13	3.0620	3.0621	-0.1192	27.31	1.57	-1.500			
0.8998	57589.81	3.0590	3.0591	-0.1184	27.31	1.57	-1.500			
0.9002	57612.58	3.0560	3.0559	-0.1176	27.32	1.58	-1.500			
0.9006	57635.24	3.0530	3.0529	-0.1170	27.32	1.58	-1.500			
0.9009	57657.55	3.0500	3.0501	-0.1158	27.32	1.58	-1.500			
0.9012	57679.72	3.0470	3.0470	-0.1151	27.33	1.59	-1.500			
0.9016	57701.83	3.0440	3.0440	-0.1148	27.33	1.59	-1.500			
0.9019	57723.78	3.0410	3.0410	-0.1139	27.34	1.60	-1.500			
0.9023	57745.30	3.0380	3.0380	-0.1129	27.34	1.60	-1.500			
0.9026	57766.95	3.0350	3.0350	-0.1126	27.35	1.61	-1.500			
0.9029	57788.56	3.0320	3.0320	-0.1123	27.35	1.61	-1.500			
0.9033	57810.09	3.0290	3.0290	-0.1119	27.35	1.61	-1.500			
0.9036	57831.55	3.0260	3.0260	-0.1116	27.36	1.62	-1.500			
0.9040	57853.00	3.0230	3.0230	-0.1113	27.36	1.62	-1.500			
0.9043	57874.47	3.0200	3.0200	-0.1105	27.37	1.63	-1.500			
0.9046	57895.60	3.0170	3.0170	-0.1096	27.37	1.63	-1.500			
0.9049	57916.71	3.0140	3.0141	-0.1089	27.38	1.64	-1.500			
0.9053	57937.51	3.0110	3.0110	-0.1077	27.38	1.64	-1.500			
0.9056	57958.18	3.0080	3.0079	-0.1065	27.38	1.64	-1.500			
0.9059	57978.48	3.0050	3.0050	-0.1050	27.39	1.65	-1.500			
0.9062	57998.50	3.0020	3.0020	-0.1036	27.39	1.65	-1.500			
