Ah_balance (normalized)	Ah_balance (mAh)	Voltage - fit (V)	Voltage -  interpolate (V)	dQ/dV (1/V)	Temperature (°C)	Temperature - diff (°C)	Current (C)	R_DC 0ms (mOhm)	R_DC 50ms (mOhm)	R_DC 50 ms PEC (mOhm)
0.2665	17053.89	3.9890	3.9889	0.8446	27.42	1.46	1.500			
0.2690	17216.44	3.9860	3.9860	0.8490	27.42	1.46	1.500			
0.2716	17381.90	3.9830	3.9830	0.8517	27.41	1.45	1.500			
0.2741	17544.34	3.9800	3.9800	0.8522	27.41	1.45	1.500			
0.2767	17707.07	3.9770	3.9771	0.8555	27.40	1.44	1.500			
0.2793	17872.22	3.9740	3.9740	0.8590	27.39	1.43	1.500			
0.2818	18037.44	3.9710	3.9709	0.8605	27.39	1.43	1.500			
0.2844	18203.05	3.9680	3.9680	0.8665	27.38	1.42	1.500			
0.2870	18370.15	3.9650	3.9651	0.8695	27.38	1.42	1.500			
0.2897	18538.08	3.9620	3.9619	0.8739	27.37	1.41	1.500			
0.2923	18705.61	3.9590	3.9591	0.8750	27.37	1.41	1.500			
0.2949	18873.32	3.9560	3.9560	0.8765	27.36	1.40	1.500			
0.2976	19043.58	3.9530	3.9530	0.8767	27.36	1.40	1.500			
0.3002	19211.75	3.9500	3.9500	0.8852	27.35	1.39	1.500			
0.3028	19381.54	3.9470	3.9470	0.8865	27.35	1.39	1.500			
0.3055	19552.84	3.9440	3.9439	0.8917	27.34	1.38	1.500			
0.3082	19723.34	3.9410	3.9412	0.8984	27.34	1.38	1.500			
0.3109	19895.57	3.9380	3.9380	0.9074	27.33	1.37	1.500			
0.3136	20071.50	3.9350	3.9350	0.9132	27.32	1.36	1.500			
0.3164	20247.32	3.9320	3.9320	0.9248	27.31	1.35	1.500			
0.3192	20426.34	3.9290	3.9290	0.9256	27.30	1.34	1.500			
0.3220	20606.26	3.9260	3.9259	0.9278	27.30	1.34	1.500			
0.3248	20784.24	3.9230	3.9230	0.9321	27.29	1.33	1.500			
0.3275	20961.22	3.9200	3.9200	0.9376	27.28	1.32	1.500			
0.3303	21140.78	3.9170	3.9170	0.9418	27.27	1.31	1.500			
0.3332	21323.34	3.9140	3.9140	0.9494	27.27	1.31	1.500			
0.3360	21505.02	3.9110	3.9110	0.9527	27.26	1.30	1.500			
0.3389	21690.56	3.9080	3.9082	0.9657	27.25	1.29	1.500			
0.3418	21876.71	3.9050	3.9050	0.9723	27.25	1.29	1.500			
0.3447	22062.86	3.9020	3.9020	0.9778	27.24	1.28	1.500			
0.3477	22252.00	3.8990	3.8990	0.9820	27.23	1.27	1.500			
0.3506	22440.94	3.8960	3.8960	0.9914	27.22	1.26	1.500			
0.3536	22631.39	3.8930	3.8930	1.0008	27.22	1.26	1.500			
0.3566	22824.67	3.8900	3.8901	1.0062	27.21	1.25	1.500			
0.3596	23016.96	3.8870	3.8870	1.0188	27.20	1.24	1.500			
0.3627	23213.90	3.8840	3.8840	1.0305	27.19	1.23	1.500			
0.3658	23413.17	3.8810	3.8810	1.0405	27.18	1.22	1.500			
0.3690	23614.28	3.8780	3.8781	1.0498	27.17	1.21	1.500			
0.3721	23817.45	3.8750	3.8750	1.0528	27.16	1.20	1.500			
0.3753	24018.80	3.8720	3.8719	1.0668	27.15	1.19	1.500			
0.3785	24224.24	3.8690	3.8691	1.0776	27.14	1.18	1.500			
0.3817	24430.74	3.8660	3.8658	1.0871	27.13	1.17	1.500			
0.3850	24641.23	3.8630	3.8630	1.1041	27.12	1.16	1.500			
0.3884	24856.13	3.8600	3.8601	1.1138	27.11	1.15	1.500			
0.3918	25072.03	3.8570	3.8570	1.1268	27.09	1.13	1.500			
0.3951	25286.88	3.8540	3.8540	1.1398	27.08	1.12	1.500			
0.3985	25506.45	3.8510	3.8510	1.1525	27.07	1.11	1.500			
0.4020	25729.12	3.8480	3.8479	1.1710	27.06	1.10	1.500			
0.4055	25955.19	3.8450	3.8450	1.1905	27.04	1.08	1.500			
0.4091	26184.63	3.8420	3.8421	1.2138	27.03	1.07	1.500			
0.4128	26422.02	3.8390	3.8390	1.2372	27.02	1.06	1.500			
0.4166	26662.70	3.8360	3.8359	1.2537	27.01	1.05	1.500			
0.4204	26905.42	3.8330	3.8330	1.2671	27.00	1.04	1.500			
0.4242	27150.00	3.8300	3.8301	1.2941	26.98	1.02	1.500			
0.4281	27399.50	3.8270	3.8270	1.3112	26.97	1.01	1.500			
0.4320	27651.10	3.8240	3.8240	1.3320	26.96	1.00	1.500			
0.4361	27909.01	3.8210	3.8210	1.3538	26.94	0.98	1.500			
0.4402	28175.60	3.8180	3.8180	1.3743	26.93	0.97	1.500			
0.4444	28440.23	3.8150	3.8150	1.3972	26.91	0.95	1.500			
0.4486	28710.21	3.8120	3.8120	1.4207	26.90	0.94	1.500			
0.4529	28983.64	3.8090	3.8090	1.4394	26.88	0.92	1.500			
0.4572	29260.42	3.8060	3.8061	1.4683	26.87	0.91	1.500			
0.4616	29544.00	3.8030	3.8031	1.4999	26.85	0.89	1.500			
0.4662	29838.98	3.8000	3.7999	1.5242	26.84	0.88	1.500			
0.4709	30134.55	3.7970	3.7970	1.5519	26.82	0.86	1.500			
0.4756	30435.40	3.7940	3.7941	1.5806	26.81	0.85	1.500			
0.4803	30741.11	3.7910	3.7909	1.6074	26.79	0.83	1.500			
0.4851	31047.99	3.7880	3.7881	1.6259	26.78	0.82	1.500			
0.4901	31365.70	3.7850	3.7850	1.6626	26.76	0.80	1.500			
0.4952	31693.75	3.7820	3.7819	1.6960	26.74	0.78	1.500			
0.5003	32018.42	3.7790	3.7792	1.7085	26.72	0.76	1.500	0.345	0.470	
0.5055	32350.54	3.7760	3.7760	1.7240	26.70	0.74	1.500			
0.5107	32682.56	3.7730	3.7730	1.7368	26.69	0.73	1.500			
0.5158	33011.58	3.7700	3.7700	1.7408	26.67	0.71	1.500			
0.5211	33350.05	3.7670	3.7670	1.7458	26.65	0.69	1.500			
0.5263	33684.68	3.7640	3.7640	1.7596	26.64	0.68	1.500			
0.5316	34021.18	3.7610	3.7608	1.7727	26.62	0.66	1.500			
0.5369	34362.91	3.7580	3.7580	1.7868	26.60	0.64	1.500			
0.5423	34709.64	3.7550	3.7549	1.7798	26.59	0.63	1.500			
0.5477	35050.18	3.7520	3.7521	1.7866	26.57	0.61	1.500			
0.5530	35391.02	3.7490	3.7491	1.7937	26.55	0.59	1.500			
0.5584	35736.02	3.7460	3.7460	1.8245	26.53	0.57	1.500			
0.5638	36085.17	3.7430	3.7431	1.8722	26.52	0.56	1.500			
0.5696	36451.39	3.7400	3.7400	1.9037	26.50	0.54	1.500			
0.5753	36820.25	3.7370	3.7371	1.9233	26.48	0.52	1.500			
0.5812	37197.64	3.7340	3.7338	1.9877	26.46	0.50	1.500			
0.5872	37580.72	3.7310	3.7310	2.0219	26.44	0.48	1.500			
0.5933	37970.20	3.7280	3.7281	2.0559	26.43	0.47	1.500			
0.5996	38373.27	3.7250	3.7250	2.1145	26.41	0.45	1.500			
0.6060	38780.90	3.7220	3.7218	2.1812	26.39	0.43	1.500			
0.6126	39204.78	3.7190	3.7190	2.2685	26.37	0.41	1.500			
0.6195	39648.84	3.7160	3.7160	2.3105	26.35	0.39	1.500			
0.6265	40098.39	3.7130	3.7131	2.3424	26.33	0.37	1.500			
0.6336	40550.51	3.7100	3.7100	2.3563	26.32	0.36	1.500			
0.6407	41005.33	3.7070	3.7070	2.3449	26.30	0.34	1.500			
0.6478	41457.00	3.7040	3.7040	2.2633	26.28	0.32	1.500			
0.6544	41884.38	3.7010	3.7009	2.1574	26.27	0.31	1.500			
0.6607	42286.31	3.6980	3.6981	2.0147	26.25	0.29	1.500			
0.6666	42661.77	3.6950	3.6950	1.8728	26.23	0.27	1.500			
0.6719	43001.84	3.6920	3.6920	1.7365	26.22	0.26	1.500			
0.6769	43320.28	3.6890	3.6891	1.6263	26.20	0.24	1.500			
0.6816	43621.89	3.6860	3.6857	1.5538	26.19	0.23	1.500			
0.6861	43910.00	3.6830	3.6830	1.4871	26.18	0.22	1.500			
0.6905	44189.67	3.6800	3.6799	1.4300	26.17	0.21	1.500			
0.6946	44457.07	3.6770	3.6770	1.3799	26.15	0.19	1.500			
0.6987	44714.41	3.6740	3.6741	1.3335	26.14	0.18	1.500			
0.7026	44964.45	3.6710	3.6710	1.3035	26.13	0.17	1.500			
0.7064	45209.05	3.6680	3.6680	1.2868	26.12	0.16	1.500			
0.7101	45448.73	3.6650	3.6650	1.2701	26.11	0.15	1.500			
0.7139	45690.55	3.6620	3.6620	1.2743	26.10	0.14	1.500			
0.7178	45937.80	3.6590	3.6590	1.2754	26.09	0.13	1.500			
0.7216	46183.66	3.6560	3.6560	1.2802	26.08	0.12	1.500			
0.7255	46430.58	3.6530	3.6530	1.2812	26.07	0.11	1.500			
0.7293	46676.71	3.6500	3.6501	1.2760	26.07	0.11	1.500			
0.7331	46921.20	3.6470	3.6470	1.2743	26.06	0.10	1.500			
0.7369	47164.73	3.6440	3.6440	1.2692	26.05	0.09	1.500			
0.7408	47408.46	3.6410	3.6410	1.2634	26.04	0.08	1.500			
0.7446	47653.27	3.6380	3.6379	1.2597	26.03	0.07	1.500			
0.7483	47891.11	3.6350	3.6351	1.2490	26.02	0.06	1.500			
0.7521	48131.55	3.6320	3.6320	1.2445	26.01	0.05	1.500			
0.7558	48370.18	3.6290	3.6289	1.2370	26.00	0.04	1.500			
0.7595	48604.87	3.6260	3.6260	1.2280	26.00	0.04	1.500			
0.7631	48841.53	3.6230	3.6230	1.2203	25.99	0.03	1.500			
0.7668	49077.50	3.6200	3.6200	1.2175	25.98	0.02	1.500			
0.7705	49310.12	3.6170	3.6170	1.1981	25.98	0.02	1.500			
0.7741	49540.12	3.6140	3.6140	1.1831	25.97	0.01	1.500			
0.7776	49766.66	3.6110	3.6110	1.1651	25.97	0.01	1.500			
0.7811	49988.41	3.6080	3.6080	1.1450	25.96	0.00	1.500			
0.7845	50205.27	3.6050	3.6050	1.1246	25.96	0.00	1.500			
0.7878	50419.89	3.6020	3.6019	1.1063	25.96	0.00	1.500			
0.7911	50630.37	3.5990	3.5990	1.0813	25.96	0.00	1.500			
0.7943	50838.16	3.5960	3.5960	1.0578	25.96	0.00	1.500			
0.7975	51040.90	3.5930	3.5930	1.0273	25.96	0.00	1.500			
0.8006	51238.42	3.5900	3.5900	0.9800	25.96	0.00	1.500			
0.8035	51426.41	3.5870	3.5869	0.9233	25.96	0.00	1.500			
0.8063	51601.92	3.5840	3.5840	0.8425	25.96	0.00	1.500			
0.8088	51760.75	3.5810	3.5810	0.7592	25.96	0.00	1.500			
0.8109	51897.81	3.5780	3.5781	0.6636	25.96	0.00	1.500			
0.8127	52014.73	3.5750	3.5749	0.5659	25.96	0.00	1.500			
0.8142	52107.62	3.5720	3.5721	0.4768	25.96	0.00	1.500			
0.8154	52186.88	3.5690	3.5691	0.4062	25.96	0.00	1.500			
0.8165	52255.66	3.5660	3.5660	0.3405	25.96	0.00	1.500			
0.8174	52313.41	3.5630	3.5629	0.2973	25.96	0.00	1.500			
0.8182	52362.27	3.5600	3.5600	0.2589	25.96	0.00	1.500			
0.8189	52407.22	3.5570	3.5570	0.2327	25.96	0.00	1.500			
0.8195	52448.58	3.5540	3.5539	0.2100	25.96	0.00	1.500			
0.8201	52486.39	3.5510	3.5510	0.1920	25.96	0.00	1.500			
0.8206	52521.45	3.5480	3.5481	0.1765	25.96	0.00	1.500			
0.8211	52553.57	3.5450	3.5449	0.1605	25.96	0.00	1.500			
0.8216	52582.73	3.5420	3.5421	0.1469	25.96	0.00	1.500			
0.8220	52609.26	3.5390	3.5390	0.1327	25.96	0.00	1.500			
0.8224	52633.64	3.5360	3.5360	0.1188	25.96	0.00	1.500			
0.8227	52655.22	3.5330	3.5329	0.1054	25.96	0.00	1.500			
0.8230	52674.11	3.5300	3.5301	0.0915	25.96	0.00	1.500			
0.8233	52690.56	3.5270	3.5272	0.0777	25.96	0.00	1.500			
0.8235	52704.11	3.5240	3.5242	0.0635	25.96	0.00	1.500			
0.8237	52715.36	3.5210	3.5214	0.0478	25.96	0.00	1.500			
0.8238	52723.06	3.5180	3.5189	0.0324	25.96	0.00	1.500			
