Ah_balance (normalized)	Ah_balance (mAh)	Voltage - fit (V)	Voltage -  interpolate (V)	dQ/dV (1/V)	Temperature (°C)	Temperature - diff (°C)	Current (C)	R_DC 0ms (mOhm)	R_DC 50ms (mOhm)	R_DC 50 ms PEC (mOhm)
0.2850	18242.67	3.9700	3.9700	0.8878	27.05	1.09	1.500			
0.2877	18415.62	3.9670	3.9670	0.8964	27.05	1.09	1.500			
0.2904	18586.18	3.9640	3.9640	0.8905	27.04	1.08	1.500			
0.2931	18756.23	3.9610	3.9611	0.8900	27.04	1.08	1.500			
0.2957	18926.38	3.9580	3.9579	0.8944	27.04	1.08	1.500			
0.2984	19098.30	3.9550	3.9550	0.8937	27.04	1.08	1.500			
0.3011	19268.72	3.9520	3.9520	0.8961	27.04	1.08	1.500			
0.3038	19440.63	3.9490	3.9491	0.9059	27.03	1.07	1.500			
0.3065	19616.33	3.9460	3.9461	0.9101	27.03	1.07	1.500			
0.3093	19792.11	3.9430	3.9429	0.9165	27.03	1.07	1.500			
0.3120	19967.30	3.9400	3.9401	0.9233	27.03	1.07	1.500			
0.3148	20145.53	3.9370	3.9371	0.9318	27.03	1.07	1.500			
0.3176	20327.61	3.9340	3.9339	0.9398	27.02	1.06	1.500			
0.3204	20507.88	3.9310	3.9309	0.9399	27.02	1.06	1.500			
0.3232	20687.19	3.9280	3.9281	0.9404	27.02	1.06	1.500			
0.3261	20868.73	3.9250	3.9250	0.9481	27.01	1.05	1.500			
0.3289	21051.01	3.9220	3.9220	0.9508	27.01	1.05	1.500			
0.3318	21232.69	3.9190	3.9189	0.9570	27.00	1.04	1.500			
0.3346	21416.04	3.9160	3.9161	0.9655	27.00	1.04	1.500			
0.3375	21601.88	3.9130	3.9130	0.9807	26.99	1.03	1.500			
0.3405	21791.60	3.9100	3.9100	0.9926	26.99	1.03	1.500			
0.3435	21984.40	3.9070	3.9069	1.0015	26.98	1.02	1.500			
0.3465	22178.57	3.9040	3.9040	1.0079	26.98	1.02	1.500			
0.3496	22373.70	3.9010	3.9010	1.0157	26.98	1.02	1.500			
0.3526	22568.16	3.8980	3.8981	1.0249	26.97	1.01	1.500			
0.3557	22765.51	3.8950	3.8950	1.0341	26.97	1.01	1.500			
0.3588	22963.85	3.8920	3.8919	1.0360	26.96	1.00	1.500			
0.3619	23164.58	3.8890	3.8890	1.0462	26.96	1.00	1.500			
0.3651	23367.64	3.8860	3.8860	1.0567	26.96	1.00	1.500			
0.3683	23570.53	3.8830	3.8830	1.0630	26.95	0.99	1.500			
0.3715	23773.63	3.8800	3.8799	1.0728	26.95	0.99	1.500			
0.3747	23979.85	3.8770	3.8770	1.0806	26.94	0.98	1.500			
0.3779	24187.53	3.8740	3.8740	1.0956	26.94	0.98	1.500			
0.3812	24399.82	3.8710	3.8710	1.1150	26.93	0.97	1.500			
0.3846	24616.98	3.8680	3.8679	1.1270	26.92	0.96	1.500			
0.3880	24833.55	3.8650	3.8650	1.1428	26.92	0.96	1.500			
0.3915	25054.37	3.8620	3.8621	1.1600	26.91	0.95	1.500			
0.3950	25278.12	3.8590	3.8589	1.1719	26.90	0.94	1.500			
0.3985	25505.21	3.8560	3.8560	1.1935	26.90	0.94	1.500			
0.4021	25733.90	3.8530	3.8531	1.2072	26.89	0.93	1.500			
0.4057	25967.06	3.8500	3.8499	1.2291	26.88	0.92	1.500			
0.4095	26206.14	3.8470	3.8470	1.2539	26.88	0.92	1.500			
0.4132	26447.63	3.8440	3.8440	1.2738	26.87	0.91	1.500			
0.4171	26695.60	3.8410	3.8410	1.2896	26.87	0.91	1.500			
0.4210	26945.49	3.8380	3.8378	1.3116	26.86	0.90	1.500			
0.4250	27197.18	3.8350	3.8351	1.3306	26.85	0.89	1.500			
0.4290	27455.30	3.8320	3.8319	1.3551	26.84	0.88	1.500			
0.4330	27714.30	3.8290	3.8290	1.3805	26.84	0.88	1.500			
0.4372	27981.08	3.8260	3.8260	1.4141	26.83	0.87	1.500			
0.4415	28254.97	3.8230	3.8230	1.4493	26.82	0.86	1.500			
0.4459	28538.35	3.8200	3.8197	1.4845	26.81	0.85	1.500			
0.4504	28825.95	3.8170	3.8171	1.5143	26.80	0.84	1.500			
0.4550	29122.39	3.8140	3.8140	1.5401	26.79	0.83	1.500			
0.4597	29419.87	3.8110	3.8110	1.5793	26.78	0.82	1.500			
0.4645	29726.38	3.8080	3.8080	1.6175	26.77	0.81	1.500			
0.4693	30034.15	3.8050	3.8049	1.6554	26.76	0.80	1.500			
0.4743	30354.97	3.8020	3.8020	1.7070	26.75	0.79	1.500			
0.4796	30691.50	3.7990	3.7990	1.7427	26.74	0.78	1.500			
0.4848	31029.94	3.7960	3.7961	1.8018	26.72	0.76	1.500			
0.4903	31379.67	3.7930	3.7930	1.8652	26.71	0.75	1.500			
0.4959	31738.73	3.7900	3.7897	1.9185	26.69	0.73	1.500			
0.5018	32112.64	3.7870	3.7870	1.9918	26.68	0.72	1.500			
0.5078	32502.18	3.7840	3.7841	2.0394	26.66	0.70	1.500			
0.5140	32898.46	3.7810	3.7810	2.0925	26.65	0.69	1.500			
0.5204	33307.19	3.7780	3.7778	2.1367	26.63	0.67	1.500			
0.5269	33719.55	3.7750	3.7750	2.1862	26.61	0.65	1.500			
0.5335	34146.64	3.7720	3.7721	2.2466	26.59	0.63	1.500			
0.5403	34581.57	3.7690	3.7690	2.2920	26.57	0.61	1.500			
0.5473	35029.83	3.7660	3.7660	2.3328	26.55	0.59	1.500			
0.5545	35487.46	3.7630	3.7630	2.3643	26.53	0.57	1.500			
0.5616	35943.73	3.7600	3.7599	2.3874	26.51	0.55	1.500	0.358	0.446	
0.5688	36403.97	3.7570	3.7570	2.3993	26.49	0.53	1.500			
0.5762	36874.77	3.7540	3.7540	2.3516	26.47	0.51	1.500			
0.5832	37325.11	3.7510	3.7510	2.3097	26.45	0.49	1.500			
0.5900	37759.12	3.7480	3.7481	2.2718	26.43	0.47	1.500			
0.5966	38182.57	3.7450	3.7447	2.2249	26.41	0.45	1.500			
0.6033	38610.25	3.7420	3.7421	2.1984	26.40	0.44	1.500			
0.6098	39028.00	3.7390	3.7390	2.1982	26.38	0.42	1.500			
0.6164	39449.79	3.7360	3.7361	2.1908	26.37	0.41	1.500			
0.6230	39873.39	3.7330	3.7330	2.1885	26.36	0.40	1.500			
0.6296	40295.05	3.7300	3.7300	2.1770	26.34	0.38	1.500			
0.6361	40709.02	3.7270	3.7270	2.2144	26.33	0.37	1.500			
0.6427	41131.38	3.7240	3.7240	2.2338	26.32	0.36	1.500			
0.6494	41564.33	3.7210	3.7211	2.2923	26.30	0.34	1.500			
0.6564	42011.58	3.7180	3.7180	2.3599	26.29	0.33	1.500			
0.6636	42468.65	3.7150	3.7150	2.4354	26.28	0.32	1.500			
0.6709	42938.96	3.7120	3.7119	2.5422	26.27	0.31	1.500			
0.6787	43439.76	3.7090	3.7090	2.6486	26.25	0.29	1.500			
0.6869	43959.53	3.7060	3.7060	2.7725	26.24	0.28	1.500			
0.6953	44499.30	3.7030	3.7030	2.8560	26.22	0.26	1.500			
0.7040	45057.77	3.7000	3.7001	2.8986	26.21	0.25	1.500			
0.7128	45620.16	3.6970	3.6970	2.9399	26.21	0.25	1.500			
0.7218	46192.98	3.6940	3.6938	2.8760	26.20	0.24	1.500			
0.7305	46754.88	3.6910	3.6911	2.7570	26.18	0.22	1.500			
0.7384	47258.85	3.6880	3.6881	2.5439	26.17	0.21	1.500			
0.7458	47731.01	3.6850	3.6848	2.3135	26.16	0.20	1.500			
0.7524	48154.20	3.6820	3.6821	2.1132	26.15	0.19	1.500			
0.7584	48539.29	3.6790	3.6790	1.9288	26.15	0.19	1.500			
0.7638	48883.88	3.6760	3.6760	1.7777	26.15	0.19	1.500			
0.7688	49203.18	3.6730	3.6730	1.6353	26.14	0.18	1.500			
0.7735	49501.87	3.6700	3.6699	1.5441	26.14	0.18	1.500			
0.7779	49784.21	3.6670	3.6670	1.4546	26.13	0.17	1.500			
0.7821	50057.55	3.6640	3.6640	1.3853	26.12	0.16	1.500			
0.7861	50313.41	3.6610	3.6611	1.3268	26.12	0.16	1.500			
0.7900	50560.18	3.6580	3.6580	1.2791	26.11	0.15	1.500			
0.7936	50793.30	3.6550	3.6550	1.2429	26.10	0.14	1.500			
0.7973	51025.20	3.6520	3.6519	1.2293	26.10	0.14	1.500			
0.8009	51256.32	3.6490	3.6490	1.2323	26.09	0.13	1.500			
0.8046	51492.50	3.6460	3.6460	1.2437	26.08	0.12	1.500			
0.8083	51732.67	3.6430	3.6430	1.2607	26.08	0.12	1.500			
0.8121	51976.73	3.6400	3.6400	1.2790	26.07	0.11	1.500			
0.8160	52225.60	3.6370	3.6370	1.2952	26.06	0.10	1.500			
0.8199	52476.74	3.6340	3.6339	1.3076	26.05	0.09	1.500			
0.8239	52729.65	3.6310	3.6311	1.3129	26.04	0.08	1.500			
0.8279	52983.80	3.6280	3.6280	1.3171	26.04	0.08	1.500			
0.8319	53239.79	3.6250	3.6250	1.3142	26.03	0.07	1.500			
0.8357	53487.28	3.6220	3.6221	1.3078	26.02	0.06	1.500			
0.8397	53739.71	3.6190	3.6190	1.3075	26.01	0.05	1.500			
0.8436	53990.35	3.6160	3.6160	1.3103	26.00	0.04	1.500			
0.8475	54241.29	3.6130	3.6130	1.3109	26.00	0.04	1.500			
0.8515	54494.17	3.6100	3.6100	1.3103	25.99	0.03	1.500			
0.8554	54747.35	3.6070	3.6070	1.3086	25.98	0.02	1.500			
0.8594	54998.73	3.6040	3.6040	1.3001	25.98	0.02	1.500			
0.8632	55247.56	3.6010	3.6010	1.2887	25.97	0.01	1.500			
0.8671	55496.12	3.5980	3.5980	1.2784	25.97	0.01	1.500			
0.8709	55739.83	3.5950	3.5949	1.2578	25.96	0.00	1.500			
0.8747	55980.54	3.5920	3.5921	1.2418	25.96	0.00	1.500			
0.8784	56216.84	3.5890	3.5890	1.2273	25.96	0.00	1.500			
0.8820	56450.94	3.5860	3.5860	1.2116	25.96	0.00	1.500			
0.8856	56679.90	3.5830	3.5830	1.2011	25.96	0.00	1.500			
0.8891	56902.86	3.5800	3.5800	1.2107	25.96	0.00	1.500			
0.8928	57137.25	3.5770	3.5770	1.2196	25.96	0.00	1.500			
0.8966	57380.97	3.5740	3.5738	1.2072	25.96	0.00	1.500			
0.9003	57618.89	3.5710	3.5710	1.1651	25.96	0.00	1.500			
0.9040	57858.22	3.5680	3.5681	1.0820	25.96	0.00	1.500			
0.9073	58064.20	3.5650	3.5651	0.9554	25.96	0.00	1.500			
0.9099	58236.16	3.5620	3.5621	0.8088	25.96	0.00	1.500			
0.9120	58371.04	3.5590	3.5589	0.6504	25.96	0.00	1.500			
0.9136	58468.76	3.5560	3.5560	0.5197	25.96	0.00	1.500			
0.9148	58548.39	3.5530	3.5530	0.4181	25.96	0.00	1.500			
0.9159	58614.99	3.5500	3.5501	0.3310	25.96	0.00	1.500			
0.9167	58669.63	3.5470	3.5468	0.2785	25.96	0.00	1.500			
0.9174	58712.98	3.5440	3.5440	0.2327	25.96	0.00	1.500			
0.9180	58751.51	3.5410	3.5410	0.2014	25.96	0.00	1.500			
0.9185	58785.94	3.5380	3.5381	0.1736	25.96	0.00	1.500			
0.9190	58815.73	3.5350	3.5350	0.1525	25.96	0.00	1.500			
0.9194	58842.73	3.5320	3.5322	0.1323	25.96	0.00	1.500			
0.9198	58866.09	3.5290	3.5290	0.1139	25.96	0.00	1.500			
0.9201	58886.32	3.5260	3.5260	0.0968	25.96	0.00	1.500			
0.9204	58903.37	3.5230	3.5231	0.0796	25.96	0.00	1.500			
0.9206	58916.50	3.5200	3.5203	0.0640	25.96	0.00	1.500			
0.9207	58927.31	3.5170	3.5175	0.0485	25.96	0.00	1.500			
