Ah_balance (normalized)	Ah_balance (mAh)	Voltage - fit (V)	Voltage -  interpolate (V)	dQ/dV (1/V)	Temperature (°C)	Temperature - diff (°C)	Current (C)	R_DC 0ms (mOhm)	R_DC 50ms (mOhm)	R_DC 50 ms PEC (mOhm)
0.2942	18831.89	3.9710	3.9710	0.8475	26.90	0.96	1.500			
0.2968	18994.61	3.9680	3.9680	0.8538	26.90	0.96	1.500			
0.2994	19160.53	3.9650	3.9650	0.8711	26.90	0.96	1.500			
0.3020	19330.32	3.9620	3.9618	0.8830	26.90	0.96	1.500			
0.3047	19500.84	3.9590	3.9590	0.8895	26.90	0.96	1.500			
0.3074	19674.98	3.9560	3.9560	0.8955	26.90	0.96	1.500			
0.3101	19848.36	3.9530	3.9530	0.9021	26.90	0.96	1.500			
0.3128	20020.63	3.9500	3.9500	0.9007	26.90	0.96	1.500			
0.3155	20193.99	3.9470	3.9470	0.9040	26.89	0.95	1.500			
0.3182	20367.04	3.9440	3.9439	0.9085	26.89	0.95	1.500			
0.3210	20542.06	3.9410	3.9411	0.9149	26.89	0.95	1.500			
0.3237	20718.91	3.9380	3.9379	0.9203	26.89	0.95	1.500			
0.3265	20895.88	3.9350	3.9350	0.9249	26.89	0.95	1.500			
0.3293	21073.29	3.9320	3.9320	0.9271	26.89	0.95	1.500			
0.3321	21252.51	3.9290	3.9290	0.9326	26.88	0.94	1.500			
0.3349	21431.75	3.9260	3.9260	0.9391	26.88	0.94	1.500			
0.3377	21612.58	3.9230	3.9230	0.9420	26.88	0.94	1.500			
0.3405	21793.02	3.9200	3.9200	0.9481	26.87	0.93	1.500			
0.3434	21975.24	3.9170	3.9170	0.9575	26.87	0.93	1.500			
0.3463	22160.52	3.9140	3.9141	0.9630	26.87	0.93	1.500			
0.3492	22346.11	3.9110	3.9109	0.9724	26.86	0.92	1.500			
0.3521	22533.00	3.9080	3.9081	0.9830	26.86	0.92	1.500			
0.3551	22724.04	3.9050	3.9050	0.9875	26.86	0.92	1.500			
0.3581	22915.76	3.9020	3.9019	0.9971	26.85	0.91	1.500			
0.3610	23106.05	3.8990	3.8990	1.0047	26.85	0.91	1.500			
0.3640	23298.32	3.8960	3.8961	1.0140	26.85	0.91	1.500			
0.3671	23494.83	3.8930	3.8928	1.0237	26.84	0.90	1.500			
0.3702	23691.35	3.8900	3.8900	1.0297	26.84	0.90	1.500			
0.3733	23888.76	3.8870	3.8870	1.0414	26.83	0.89	1.500			
0.3764	24091.20	3.8840	3.8839	1.0549	26.83	0.89	1.500			
0.3796	24295.18	3.8810	3.8810	1.0622	26.83	0.89	1.500			
0.3828	24499.03	3.8780	3.8780	1.0747	26.82	0.88	1.500			
0.3860	24706.89	3.8750	3.8750	1.0878	26.82	0.88	1.500			
0.3893	24917.10	3.8720	3.8720	1.0974	26.82	0.88	1.500			
0.3927	25129.66	3.8690	3.8690	1.1149	26.81	0.87	1.500			
0.3960	25343.70	3.8660	3.8660	1.1294	26.81	0.87	1.500			
0.3994	25561.95	3.8630	3.8630	1.1501	26.80	0.86	1.500			
0.4029	25784.69	3.8600	3.8600	1.1675	26.80	0.86	1.500			
0.4064	26011.17	3.8570	3.8570	1.1751	26.79	0.85	1.500			
0.4100	26240.06	3.8540	3.8539	1.1891	26.79	0.85	1.500			
0.4136	26469.34	3.8510	3.8511	1.2011	26.78	0.84	1.500			
0.4172	26699.84	3.8480	3.8480	1.2223	26.78	0.84	1.500			
0.4208	26933.14	3.8450	3.8449	1.2436	26.77	0.83	1.500			
0.4246	27173.82	3.8420	3.8420	1.2691	26.76	0.82	1.500			
0.4285	27420.86	3.8390	3.8391	1.2939	26.76	0.82	1.500			
0.4324	27673.06	3.8360	3.8360	1.3204	26.75	0.81	1.500			
0.4364	27927.65	3.8330	3.8331	1.3501	26.74	0.80	1.500			
0.4405	28189.58	3.8300	3.8300	1.3686	26.73	0.79	1.500			
0.4446	28451.28	3.8270	3.8270	1.3987	26.73	0.79	1.500			
0.4488	28722.35	3.8240	3.8240	1.4332	26.72	0.78	1.500			
0.4531	29000.94	3.8210	3.8212	1.4626	26.71	0.77	1.500			
0.4576	29285.53	3.8180	3.8180	1.4940	26.70	0.76	1.500			
0.4621	29575.08	3.8150	3.8151	1.5296	26.69	0.75	1.500			
0.4668	29872.11	3.8120	3.8120	1.5628	26.68	0.74	1.500			
0.4715	30173.37	3.8090	3.8090	1.6013	26.67	0.73	1.500			
0.4763	30481.29	3.8060	3.8060	1.6362	26.66	0.72	1.500			
0.4813	30802.40	3.8030	3.8031	1.6763	26.65	0.71	1.500			
0.4864	31126.76	3.8000	3.8000	1.7279	26.64	0.70	1.500			
0.4916	31462.89	3.7970	3.7971	1.7833	26.63	0.69	1.500			
0.4970	31808.49	3.7940	3.7939	1.8305	26.61	0.67	1.500			
0.5026	32167.60	3.7910	3.7910	1.8852	26.60	0.66	1.500			
0.5083	32534.02	3.7880	3.7881	1.9317	26.59	0.65	1.500			
0.5143	32912.71	3.7850	3.7850	1.9962	26.57	0.63	1.500			
0.5203	33296.92	3.7820	3.7820	2.0378	26.56	0.62	1.500			
0.5264	33689.56	3.7790	3.7789	2.1081	26.54	0.60	1.500			
0.5329	34106.11	3.7760	3.7760	2.1656	26.53	0.59	1.500			
0.5395	34530.58	3.7730	3.7729	2.2044	26.51	0.57	1.500			
0.5462	34959.04	3.7700	3.7701	2.2249	26.49	0.55	1.500			
0.5530	35390.61	3.7670	3.7671	2.2637	26.48	0.54	1.500			
0.5596	35814.00	3.7640	3.7641	2.1532	26.46	0.52	1.500			
0.5657	36203.42	3.7610	3.7614	2.2140	26.45	0.51	1.500	0.369	0.451	
0.5722	36618.04	3.7580	3.7588	2.3154	26.43	0.49	1.500			
0.5793	37075.73	3.7550	3.7557	2.3886	26.41	0.47	1.500			
0.5880	37630.92	3.7520	3.7519	2.7583	26.39	0.45	1.500			
0.5946	38052.97	3.7490	3.7490	2.2469	26.38	0.44	1.500			
0.6011	38471.72	3.7460	3.7459	2.2077	26.36	0.42	1.500			
0.6077	38895.79	3.7430	3.7430	2.1939	26.34	0.40	1.500			
0.6142	39307.71	3.7400	3.7401	2.1586	26.33	0.39	1.500			
0.6207	39727.23	3.7370	3.7370	2.1576	26.31	0.37	1.500			
0.6270	40129.91	3.7340	3.7338	2.1459	26.29	0.35	1.500			
0.6336	40548.04	3.7310	3.7311	2.1629	26.28	0.34	1.500			
0.6401	40963.22	3.7280	3.7280	2.1898	26.26	0.32	1.500			
0.6466	41384.01	3.7250	3.7251	2.2058	26.25	0.31	1.500			
0.6532	41807.56	3.7220	3.7219	2.2420	26.24	0.30	1.500			
0.6601	42244.42	3.7190	3.7190	2.2929	26.22	0.28	1.500			
0.6670	42685.16	3.7160	3.7160	2.3878	26.20	0.26	1.500			
0.6742	43151.94	3.7130	3.7130	2.4937	26.19	0.25	1.500			
0.6819	43639.47	3.7100	3.7101	2.6369	26.17	0.23	1.500			
0.6899	44156.54	3.7070	3.7070	2.6947	26.15	0.21	1.500			
0.6981	44679.59	3.7040	3.7041	2.7567	26.14	0.20	1.500			
0.7065	45217.77	3.7010	3.7010	2.8352	26.12	0.18	1.500			
0.7151	45764.80	3.6980	3.6980	2.8490	26.11	0.17	1.500			
0.7238	46324.36	3.6950	3.6949	2.8155	26.10	0.16	1.500			
0.7322	46860.52	3.6920	3.6921	2.7014	26.08	0.14	1.500			
0.7401	47368.68	3.6890	3.6890	2.5250	26.07	0.13	1.500			
0.7475	47838.55	3.6860	3.6860	2.3286	26.07	0.13	1.500			
0.7541	48261.96	3.6830	3.6831	2.1285	26.06	0.12	1.500			
0.7601	48648.71	3.6800	3.6801	1.9414	26.05	0.11	1.500			
0.7656	48996.56	3.6770	3.6770	1.7853	26.05	0.11	1.500			
0.7706	49321.52	3.6740	3.6740	1.6708	26.05	0.11	1.500			
0.7754	49624.96	3.6710	3.6709	1.5585	26.04	0.10	1.500			
0.7799	49912.11	3.6680	3.6680	1.4697	26.04	0.10	1.500			
0.7841	50184.15	3.6650	3.6650	1.3899	26.03	0.09	1.500			
0.7882	50442.26	3.6620	3.6620	1.3305	26.03	0.09	1.500			
0.7920	50689.20	3.6590	3.6590	1.2768	26.03	0.09	1.500			
0.7957	50921.70	3.6560	3.6560	1.2465	26.03	0.09	1.500			
0.7993	51155.79	3.6530	3.6530	1.2344	26.02	0.08	1.500			
0.8029	51387.74	3.6500	3.6499	1.2265	26.02	0.08	1.500			
0.8066	51622.89	3.6470	3.6470	1.2384	26.01	0.07	1.500			
0.8103	51860.83	3.6440	3.6441	1.2522	26.01	0.07	1.500			
0.8141	52103.63	3.6410	3.6409	1.2610	26.00	0.06	1.500			
0.8179	52346.94	3.6380	3.6380	1.2780	25.99	0.05	1.500			
0.8218	52593.10	3.6350	3.6350	1.2897	25.99	0.05	1.500			
0.8257	52842.98	3.6320	3.6320	1.3016	25.98	0.04	1.500			
0.8296	53095.73	3.6290	3.6290	1.3045	25.98	0.04	1.500			
0.8335	53346.95	3.6260	3.6260	1.3026	25.97	0.03	1.500			
0.8375	53598.82	3.6230	3.6231	1.2953	25.96	0.02	1.500			
0.8414	53847.57	3.6200	3.6199	1.2930	25.96	0.02	1.500			
0.8452	54091.33	3.6170	3.6171	1.2867	25.95	0.01	1.500			
0.8490	54338.08	3.6140	3.6139	1.2851	25.94	0.00	1.500			
0.8529	54584.24	3.6110	3.6110	1.2845	25.94	-0.00	1.500			
0.8568	54832.01	3.6080	3.6079	1.2846	25.94	-0.00	1.500			
0.8606	55079.92	3.6050	3.6051	1.2794	25.93	-0.01	1.500			
0.8645	55327.88	3.6020	3.6020	1.2629	25.93	-0.01	1.500			
0.8683	55568.48	3.5990	3.5990	1.2480	25.93	-0.01	1.500			
0.8720	55806.48	3.5960	3.5960	1.2344	25.92	-0.02	1.500			
0.8756	56040.18	3.5930	3.5930	1.2221	25.92	-0.02	1.500			
0.8793	56272.73	3.5900	3.5900	1.2068	25.92	-0.02	1.500			
0.8828	56502.32	3.5870	3.5870	1.1947	25.92	-0.02	1.500			
0.8864	56730.25	3.5840	3.5841	1.1926	25.93	-0.01	1.500			
0.8900	56959.68	3.5810	3.5809	1.1913	25.93	-0.01	1.500			
0.8935	57184.75	3.5780	3.5780	1.1968	25.93	-0.01	1.500			
0.8971	57416.60	3.5750	3.5750	1.1951	25.94	-0.00	1.500			
0.9009	57656.45	3.5720	3.5718	1.1560	25.94	-0.00	1.500			
0.9045	57885.18	3.5690	3.5691	1.0898	25.94	0.00	1.500			
0.9079	58103.62	3.5660	3.5661	0.9847	25.94	0.00	1.500			
0.9107	58284.68	3.5630	3.5632	0.8439	25.95	0.01	1.500			
0.9130	58432.82	3.5600	3.5600	0.7039	25.95	0.01	1.500			
0.9148	58546.09	3.5570	3.5569	0.5572	25.95	0.01	1.500			
0.9161	58627.28	3.5540	3.5541	0.4442	25.95	0.01	1.500			
0.9171	58697.01	3.5510	3.5511	0.3644	25.95	0.01	1.500			
0.9181	58756.10	3.5480	3.5478	0.2942	25.95	0.01	1.500			
0.9188	58804.65	3.5450	3.5449	0.2512	25.95	0.01	1.500			
0.9195	58845.35	3.5420	3.5420	0.2145	25.95	0.01	1.500			
0.9200	58881.70	3.5390	3.5391	0.1881	25.95	0.01	1.500			
0.9205	58914.78	3.5360	3.5359	0.1644	25.95	0.01	1.500			
0.9210	58943.25	3.5330	3.5331	0.1447	25.96	0.02	1.500			
0.9214	58968.99	3.5300	3.5299	0.1261	25.96	0.02	1.500			
0.9217	58991.53	3.5270	3.5270	0.1091	25.96	0.02	1.500			
0.9220	59010.86	3.5240	3.5241	0.0923	25.96	0.02	1.500			
0.9223	59026.51	3.5210	3.5213	0.0760	25.96	0.02	1.500			
0.9225	59039.85	3.5180	3.5186	0.0591	25.96	0.02	1.500			
0.9226	59049.57	3.5150	3.5156	0.0422	25.96	0.02	1.500			
