Ah_balance (normalized)	Ah_balance (mAh)	Voltage - fit (V)	Voltage -  interpolate (V)	dQ/dV (1/V)	Temperature (°C)	Temperature - diff (°C)	Current (C)	R_DC 0ms (mOhm)	R_DC 50ms (mOhm)	R_DC 50 ms PEC (mOhm)
0.2879	18427.34	3.9890	3.9890	0.8448	27.28	1.34	1.500			
0.2904	18588.51	3.9860	3.9860	0.8399	27.28	1.34	1.500			
0.2930	18749.61	3.9830	3.9830	0.8404	27.27	1.33	1.500			
0.2955	18911.43	3.9800	3.9800	0.8406	27.27	1.33	1.500			
0.2980	19071.70	3.9770	3.9770	0.8445	27.26	1.32	1.500			
0.3005	19233.39	3.9740	3.9740	0.8489	27.26	1.32	1.500			
0.3031	19396.38	3.9710	3.9710	0.8530	27.25	1.31	1.500			
0.3057	19561.80	3.9680	3.9679	0.8587	27.25	1.31	1.500			
0.3083	19728.19	3.9650	3.9651	0.8600	27.24	1.30	1.500			
0.3108	19893.66	3.9620	3.9620	0.8651	27.23	1.29	1.500			
0.3134	20060.49	3.9590	3.9590	0.8695	27.23	1.29	1.500			
0.3160	20226.69	3.9560	3.9560	0.8705	27.22	1.28	1.500			
0.3186	20392.73	3.9530	3.9529	0.8736	27.22	1.28	1.500			
0.3213	20560.97	3.9500	3.9501	0.8789	27.21	1.27	1.500			
0.3239	20731.01	3.9470	3.9470	0.8850	27.21	1.27	1.500			
0.3266	20901.78	3.9440	3.9440	0.8869	27.20	1.26	1.500			
0.3292	21071.38	3.9410	3.9410	0.8874	27.20	1.26	1.500			
0.3319	21242.04	3.9380	3.9380	0.8943	27.19	1.25	1.500			
0.3346	21413.97	3.9350	3.9350	0.8988	27.19	1.25	1.500			
0.3373	21586.65	3.9320	3.9320	0.9060	27.18	1.24	1.500			
0.3400	21761.07	3.9290	3.9290	0.9119	27.18	1.24	1.500			
0.3428	21937.31	3.9260	3.9260	0.9163	27.17	1.23	1.500			
0.3455	22114.22	3.9230	3.9230	0.9246	27.16	1.22	1.500			
0.3483	22292.27	3.9200	3.9200	0.9272	27.16	1.22	1.500			
0.3511	22469.79	3.9170	3.9169	0.9317	27.15	1.21	1.500			
0.3539	22649.32	3.9140	3.9140	0.9388	27.14	1.20	1.500			
0.3567	22829.20	3.9110	3.9110	0.9453	27.14	1.20	1.500			
0.3596	23011.90	3.9080	3.9080	0.9539	27.13	1.19	1.500			
0.3624	23196.32	3.9050	3.9049	0.9596	27.12	1.18	1.500			
0.3653	23380.75	3.9020	3.9020	0.9655	27.12	1.18	1.500			
0.3682	23567.14	3.8990	3.8990	0.9747	27.11	1.17	1.500			
0.3712	23754.69	3.8960	3.8960	0.9804	27.10	1.16	1.500			
0.3741	23943.79	3.8930	3.8930	0.9876	27.09	1.15	1.500			
0.3771	24132.99	3.8900	3.8900	0.9967	27.09	1.15	1.500			
0.3801	24324.30	3.8870	3.8870	1.0082	27.08	1.14	1.500			
0.3831	24520.56	3.8840	3.8840	1.0181	27.07	1.13	1.500			
0.3862	24715.56	3.8810	3.8810	1.0294	27.06	1.12	1.500			
0.3893	24914.35	3.8780	3.8780	1.0406	27.05	1.11	1.500			
0.3924	25115.72	3.8750	3.8750	1.0539	27.04	1.10	1.500			
0.3956	25318.21	3.8720	3.8720	1.0685	27.03	1.09	1.500			
0.3988	25525.04	3.8690	3.8690	1.0788	27.02	1.08	1.500			
0.4021	25733.85	3.8660	3.8660	1.0928	27.02	1.08	1.500			
0.4054	25947.00	3.8630	3.8630	1.1021	27.01	1.07	1.500			
0.4087	26158.37	3.8600	3.8600	1.1128	27.00	1.06	1.500			
0.4121	26371.57	3.8570	3.8570	1.1308	26.99	1.05	1.500			
0.4155	26589.36	3.8540	3.8540	1.1476	26.98	1.04	1.500			
0.4189	26810.45	3.8510	3.8510	1.1622	26.97	1.03	1.500			
0.4225	27037.63	3.8480	3.8480	1.1825	26.96	1.02	1.500			
0.4260	27266.91	3.8450	3.8451	1.2001	26.95	1.01	1.500			
0.4297	27498.76	3.8420	3.8421	1.2217	26.93	0.99	1.500			
0.4333	27734.18	3.8390	3.8389	1.2356	26.92	0.98	1.500			
0.4371	27972.82	3.8360	3.8360	1.2579	26.91	0.97	1.500			
0.4409	28215.09	3.8330	3.8330	1.2815	26.90	0.96	1.500			
0.4448	28464.67	3.8300	3.8300	1.3044	26.88	0.94	1.500			
0.4487	28719.06	3.8270	3.8271	1.3318	26.87	0.93	1.500			
0.4528	28978.26	3.8240	3.8239	1.3445	26.86	0.92	1.500			
0.4568	29233.97	3.8210	3.8211	1.3767	26.84	0.90	1.500			
0.4609	29499.71	3.8180	3.8180	1.4109	26.83	0.89	1.500			
0.4652	29774.92	3.8150	3.8149	1.4428	26.81	0.87	1.500			
0.4696	30054.04	3.8120	3.8121	1.4726	26.80	0.86	1.500			
0.4741	30343.06	3.8090	3.8091	1.5048	26.78	0.84	1.500			
0.4787	30636.21	3.8060	3.8060	1.5163	26.77	0.83	1.500			
0.4832	30927.08	3.8030	3.8030	1.5299	26.75	0.81	1.500			
0.4879	31222.42	3.8000	3.8000	1.5532	26.74	0.80	1.500			
0.4926	31524.73	3.7970	3.7968	1.5762	26.72	0.78	1.500			
0.4974	31830.53	3.7940	3.7941	1.5983	26.71	0.77	1.500			
0.5022	32138.45	3.7910	3.7910	1.6207	26.69	0.75	1.500			
0.5070	32449.65	3.7880	3.7880	1.6533	26.67	0.73	1.500			
0.5120	32771.10	3.7850	3.7850	1.6720	26.65	0.71	1.500			
0.5171	33095.64	3.7820	3.7814	1.6993	26.62	0.68	1.500	0.344	0.475	
0.5223	33428.22	3.7790	3.7791	1.7169	26.61	0.67	1.500			
0.5275	33759.58	3.7760	3.7760	1.7247	26.59	0.65	1.500			
0.5326	34089.22	3.7730	3.7730	1.7331	26.57	0.63	1.500			
0.5379	34422.56	3.7700	3.7700	1.7463	26.56	0.62	1.500			
0.5432	34762.38	3.7670	3.7670	1.7487	26.54	0.60	1.500			
0.5484	35096.20	3.7640	3.7641	1.7472	26.52	0.58	1.500			
0.5536	35431.89	3.7610	3.7610	1.7442	26.51	0.57	1.500			
0.5588	35764.08	3.7580	3.7580	1.7362	26.49	0.55	1.500			
0.5640	36095.43	3.7550	3.7551	1.7505	26.47	0.53	1.500			
0.5693	36433.82	3.7520	3.7519	1.7744	26.46	0.52	1.500			
0.5746	36776.39	3.7490	3.7490	1.8005	26.44	0.50	1.500			
0.5801	37124.73	3.7460	3.7460	1.8070	26.43	0.49	1.500			
0.5855	37474.18	3.7430	3.7430	1.8343	26.41	0.47	1.500			
0.5911	37828.43	3.7400	3.7400	1.8703	26.40	0.46	1.500			
0.5967	38186.94	3.7370	3.7370	1.9081	26.38	0.44	1.500			
0.6025	38559.19	3.7340	3.7340	1.9420	26.36	0.42	1.500			
0.6084	38937.27	3.7310	3.7310	2.0058	26.35	0.41	1.500			
0.6145	39325.95	3.7280	3.7281	2.0797	26.33	0.39	1.500			
0.6208	39729.42	3.7250	3.7250	2.1407	26.31	0.37	1.500			
0.6274	40152.83	3.7220	3.7220	2.1843	26.30	0.36	1.500			
0.6341	40582.98	3.7190	3.7189	2.2407	26.28	0.34	1.500			
0.6408	41009.31	3.7160	3.7161	2.2869	26.27	0.33	1.500			
0.6477	41451.95	3.7130	3.7130	2.3641	26.25	0.31	1.500			
0.6549	41915.08	3.7100	3.7100	2.3872	26.23	0.29	1.500			
0.6623	42386.41	3.7070	3.7071	2.3679	26.21	0.27	1.500			
0.6693	42835.57	3.7040	3.7040	2.2815	26.20	0.26	1.500			
0.6760	43266.31	3.7010	3.7010	2.1571	26.19	0.25	1.500			
0.6824	43672.90	3.6980	3.6980	2.0204	26.18	0.24	1.500			
0.6881	44041.02	3.6950	3.6950	1.8530	26.18	0.24	1.500			
0.6934	44374.96	3.6920	3.6919	1.7292	26.17	0.23	1.500			
0.6983	44694.35	3.6890	3.6890	1.6248	26.16	0.22	1.500			
0.7030	44995.08	3.6860	3.6860	1.5419	26.15	0.21	1.500			
0.7075	45281.13	3.6830	3.6831	1.4681	26.14	0.20	1.500			
0.7118	45552.44	3.6800	3.6800	1.4011	26.13	0.19	1.500			
0.7158	45811.78	3.6770	3.6770	1.3543	26.12	0.18	1.500			
0.7198	46064.03	3.6740	3.6740	1.3172	26.12	0.18	1.500			
0.7236	46311.59	3.6710	3.6710	1.2939	26.11	0.17	1.500			
0.7275	46557.79	3.6680	3.6680	1.2821	26.10	0.16	1.500			
0.7313	46800.39	3.6650	3.6650	1.2754	26.09	0.15	1.500			
0.7351	47043.34	3.6620	3.6619	1.2770	26.08	0.14	1.500			
0.7389	47287.82	3.6590	3.6590	1.2759	26.07	0.13	1.500			
0.7427	47533.51	3.6560	3.6560	1.2792	26.06	0.12	1.500			
0.7466	47782.84	3.6530	3.6530	1.2717	26.05	0.11	1.500			
0.7504	48027.28	3.6500	3.6500	1.2657	26.04	0.10	1.500			
0.7542	48269.92	3.6470	3.6470	1.2533	26.03	0.09	1.500			
0.7579	48508.22	3.6440	3.6439	1.2423	26.02	0.08	1.500			
0.7616	48743.22	3.6410	3.6410	1.2303	26.02	0.08	1.500			
0.7653	48978.73	3.6380	3.6381	1.2302	26.01	0.07	1.500			
0.7690	49214.09	3.6350	3.6350	1.2251	26.00	0.06	1.500			
0.7727	49450.63	3.6320	3.6320	1.2222	25.99	0.05	1.500			
0.7763	49683.58	3.6290	3.6291	1.2131	25.99	0.05	1.500			
0.7800	49917.67	3.6260	3.6260	1.2058	25.99	0.05	1.500			
0.7836	50148.68	3.6230	3.6230	1.1954	25.98	0.04	1.500			
0.7871	50377.44	3.6200	3.6200	1.1828	25.98	0.04	1.500			
0.7907	50604.07	3.6170	3.6170	1.1641	25.97	0.03	1.500			
0.7942	50828.02	3.6140	3.6140	1.1495	25.97	0.03	1.500			
0.7976	51047.27	3.6110	3.6110	1.1273	25.96	0.02	1.500			
0.8010	51262.44	3.6080	3.6080	1.1029	25.96	0.02	1.500			
0.8042	51471.39	3.6050	3.6049	1.0792	25.96	0.02	1.500			
0.8074	51676.44	3.6020	3.6020	1.0507	25.95	0.01	1.500			
0.8105	51875.16	3.5990	3.5990	1.0289	25.95	0.01	1.500			
0.8136	52071.49	3.5960	3.5960	1.0019	25.95	0.01	1.500			
0.8166	52262.65	3.5930	3.5930	0.9690	25.94	0.00	1.500			
0.8195	52448.92	3.5900	3.5900	0.9230	25.94	-0.00	1.500			
0.8223	52626.75	3.5870	3.5870	0.8724	25.94	-0.00	1.500			
0.8249	52791.71	3.5840	3.5840	0.7948	25.93	-0.01	1.500			
0.8272	52941.77	3.5810	3.5810	0.7124	25.93	-0.01	1.500			
0.8292	53068.51	3.5780	3.5781	0.6168	25.93	-0.01	1.500			
0.8309	53176.85	3.5750	3.5750	0.5259	25.92	-0.02	1.500			
0.8323	53265.61	3.5720	3.5720	0.4420	25.92	-0.02	1.500			
0.8334	53339.09	3.5690	3.5689	0.3756	25.92	-0.02	1.500			
0.8344	53399.65	3.5660	3.5659	0.3175	25.92	-0.02	1.500			
0.8352	53453.43	3.5630	3.5630	0.2769	25.92	-0.02	1.500			
0.8359	53500.65	3.5600	3.5600	0.2402	25.92	-0.02	1.500			
0.8366	53542.45	3.5570	3.5569	0.2141	25.92	-0.02	1.500			
0.8372	53579.36	3.5540	3.5540	0.1910	25.92	-0.02	1.500			
0.8377	53613.87	3.5510	3.5510	0.1716	25.92	-0.02	1.500			
0.8382	53644.77	3.5480	3.5480	0.1558	25.92	-0.02	1.500			
0.8386	53672.60	3.5450	3.5449	0.1390	25.92	-0.02	1.500			
0.8390	53697.36	3.5420	3.5420	0.1235	25.92	-0.02	1.500			
0.8394	53719.66	3.5390	3.5391	0.1090	25.91	-0.03	1.500			
0.8397	53739.22	3.5360	3.5360	0.0947	25.91	-0.03	1.500			
0.8399	53756.28	3.5330	3.5331	0.0805	25.91	-0.03	1.500			
0.8402	53770.36	3.5300	3.5302	0.0658	25.91	-0.03	1.500			
0.8403	53781.59	3.5270	3.5274	0.0511	25.91	-0.03	1.500			
0.8405	53789.98	3.5240	3.5248	0.0364	25.91	-0.03	1.500			
