Ah_balance (normalized)	Ah_balance (mAh)	Voltage - fit (V)	Voltage -  interpolate (V)	dQ/dV (1/V)	Temperature (°C)	Temperature - diff (°C)	Current (C)	R_DC 0ms (mOhm)	R_DC 50ms (mOhm)	R_DC 50 ms PEC (mOhm)
0.1978	12657.71	3.9280	3.9280	-0.0837	25.90	-0.01	-1.500			
0.1981	12676.46	3.9250	3.9249	-0.1092	25.90	-0.01	-1.500			
0.1984	12699.84	3.9220	3.9220	-0.1326	25.90	-0.01	-1.500			
0.1989	12727.68	3.9190	3.9190	-0.1554	25.90	-0.01	-1.500			
0.1994	12759.69	3.9160	3.9160	-0.1780	25.90	-0.01	-1.500			
0.1999	12796.08	3.9130	3.9130	-0.1994	25.90	-0.01	-1.500			
0.2006	12837.06	3.9100	3.9100	-0.2207	25.90	-0.01	-1.500			
0.2013	12881.76	3.9070	3.9070	-0.2406	25.90	-0.01	-1.500			
0.2020	12929.73	3.9040	3.9040	-0.2614	25.90	-0.01	-1.500			
0.2028	12982.10	3.9010	3.9010	-0.2805	25.90	-0.01	-1.500			
0.2037	13037.99	3.8980	3.8980	-0.2995	25.91	-0.00	-1.500			
0.2046	13097.19	3.8950	3.8951	-0.3190	25.91	-0.00	-1.500			
0.2056	13160.77	3.8920	3.8920	-0.3365	25.91	-0.00	-1.500			
0.2067	13226.94	3.8890	3.8890	-0.3550	25.91	-0.00	-1.500			
0.2078	13297.22	3.8860	3.8860	-0.3719	25.91	0.00	-1.500			
0.2089	13369.73	3.8830	3.8831	-0.3887	25.91	0.00	-1.500			
0.2101	13446.00	3.8800	3.8800	-0.4077	25.91	0.00	-1.500			
0.2113	13526.13	3.8770	3.8770	-0.4251	25.91	0.00	-1.500			
0.2127	13609.64	3.8740	3.8739	-0.4407	25.92	0.01	-1.500			
0.2140	13696.83	3.8710	3.8710	-0.4569	25.92	0.01	-1.500			
0.2154	13786.01	3.8680	3.8681	-0.4683	25.92	0.01	-1.500			
0.2168	13878.20	3.8650	3.8650	-0.4823	25.92	0.01	-1.500			
0.2183	13971.46	3.8620	3.8619	-0.4919	25.92	0.01	-1.500			
0.2198	14066.26	3.8590	3.8591	-0.5005	25.92	0.01	-1.500			
0.2213	14163.88	3.8560	3.8560	-0.5105	25.93	0.02	-1.500			
0.2229	14263.45	3.8530	3.8530	-0.5205	25.93	0.02	-1.500			
0.2244	14363.88	3.8500	3.8500	-0.5290	25.93	0.02	-1.500			
0.2260	14466.23	3.8470	3.8470	-0.5367	25.93	0.02	-1.500			
0.2277	14569.69	3.8440	3.8440	-0.5434	25.93	0.02	-1.500			
0.2293	14675.27	3.8410	3.8410	-0.5498	25.94	0.03	-1.500			
0.2310	14782.10	3.8380	3.8380	-0.5541	25.94	0.03	-1.500			
0.2326	14889.46	3.8350	3.8350	-0.5612	25.94	0.03	-1.500			
0.2343	14997.60	3.8320	3.8320	-0.5640	25.94	0.03	-1.500			
0.2360	15105.22	3.8290	3.8290	-0.5695	25.95	0.04	-1.500			
0.2377	15215.62	3.8260	3.8260	-0.5750	25.95	0.04	-1.500			
0.2395	15326.50	3.8230	3.8230	-0.5786	25.95	0.04	-1.500			
0.2412	15438.71	3.8200	3.8200	-0.5802	25.96	0.05	-1.500			
0.2430	15550.93	3.8170	3.8170	-0.5859	25.96	0.05	-1.500			
0.2447	15663.19	3.8140	3.8140	-0.5857	25.96	0.05	-1.500			
0.2465	15775.70	3.8110	3.8110	-0.5897	25.97	0.06	-1.500			
0.2483	15888.38	3.8080	3.8081	-0.5926	25.97	0.06	-1.500			
0.2500	16002.46	3.8050	3.8050	-0.5999	25.98	0.07	-1.500			
0.2518	16118.26	3.8020	3.8020	-0.6057	25.98	0.07	-1.500			
0.2537	16236.05	3.7990	3.7990	-0.6091	25.98	0.07	-1.500			
0.2555	16352.56	3.7960	3.7960	-0.6115	25.99	0.08	-1.500			
0.2574	16471.73	3.7930	3.7931	-0.6164	25.99	0.08	-1.500			
0.2592	16589.69	3.7900	3.7900	-0.6181	25.99	0.08	-1.500			
0.2611	16708.26	3.7870	3.7870	-0.6201	26.00	0.09	-1.500			
0.2629	16826.94	3.7840	3.7840	-0.6239	26.00	0.09	-1.500			
0.2648	16948.10	3.7810	3.7810	-0.6269	26.01	0.10	-1.500			
0.2667	17069.07	3.7780	3.7780	-0.6304	26.01	0.10	-1.500			
0.2686	17189.96	3.7750	3.7750	-0.6314	26.02	0.11	-1.500			
0.2705	17311.37	3.7720	3.7720	-0.6344	26.02	0.11	-1.500			
0.2724	17432.77	3.7690	3.7689	-0.6373	26.03	0.12	-1.500			
0.2743	17555.41	3.7660	3.7660	-0.6418	26.03	0.12	-1.500			
0.2762	17678.49	3.7630	3.7630	-0.6466	26.04	0.13	-1.500			
0.2782	17804.33	3.7600	3.7600	-0.6513	26.04	0.13	-1.500			
0.2802	17930.24	3.7570	3.7570	-0.6554	26.04	0.13	-1.500			
0.2821	18056.61	3.7540	3.7540	-0.6596	26.05	0.14	-1.500			
0.2841	18182.96	3.7510	3.7510	-0.6634	26.06	0.15	-1.500			
0.2861	18310.19	3.7480	3.7481	-0.6695	26.06	0.15	-1.500			
0.2881	18439.47	3.7450	3.7449	-0.6750	26.07	0.16	-1.500			
0.2902	18570.01	3.7420	3.7420	-0.6791	26.07	0.16	-1.500			
0.2922	18701.11	3.7390	3.7390	-0.6886	26.08	0.17	-1.500			
0.2943	18833.72	3.7360	3.7361	-0.6917	26.08	0.17	-1.500			
0.2964	18967.64	3.7330	3.7329	-0.6979	26.09	0.18	-1.500			
0.2985	19101.95	3.7300	3.7300	-0.7036	26.10	0.19	-1.500			
0.3006	19237.35	3.7270	3.7270	-0.7077	26.10	0.19	-1.500			
0.3027	19373.81	3.7240	3.7241	-0.7155	26.11	0.20	-1.500			
0.3049	19512.26	3.7210	3.7210	-0.7209	26.11	0.20	-1.500			
0.3070	19649.99	3.7180	3.7179	-0.7265	26.12	0.21	-1.500			
0.3092	19791.32	3.7150	3.7150	-0.7295	26.12	0.21	-1.500			
0.3114	19930.80	3.7120	3.7119	-0.7337	26.13	0.22	-1.500			
0.3136	20072.25	3.7090	3.7091	-0.7395	26.14	0.23	-1.500			
0.3159	20214.68	3.7060	3.7058	-0.7462	26.14	0.23	-1.500			
0.3181	20357.28	3.7030	3.7030	-0.7558	26.15	0.24	-1.500			
0.3204	20503.69	3.7000	3.7000	-0.7677	26.15	0.24	-1.500			
0.3227	20653.17	3.6970	3.6969	-0.7724	26.16	0.25	-1.500			
0.3251	20804.04	3.6940	3.6940	-0.7826	26.16	0.25	-1.500			
0.3274	20953.65	3.6910	3.6911	-0.7872	26.17	0.26	-1.500			
0.3298	21105.56	3.6880	3.6880	-0.7933	26.17	0.26	-1.500			
0.3322	21258.55	3.6850	3.6852	-0.7975	26.18	0.27	-1.500			
0.3345	21411.17	3.6820	3.6819	-0.8033	26.18	0.27	-1.500			
0.3370	21566.41	3.6790	3.6791	-0.8097	26.19	0.28	-1.500			
0.3394	21722.89	3.6760	3.6760	-0.8176	26.19	0.28	-1.500			
0.3419	21881.74	3.6730	3.6729	-0.8252	26.20	0.29	-1.500			
0.3444	22039.46	3.6700	3.6701	-0.8308	26.20	0.29	-1.500			
0.3469	22199.03	3.6670	3.6669	-0.8368	26.20	0.29	-1.500			
0.3494	22360.06	3.6640	3.6640	-0.8454	26.21	0.30	-1.500			
0.3519	22522.72	3.6610	3.6611	-0.8538	26.21	0.30	-1.500			
0.3545	22688.23	3.6580	3.6580	-0.8657	26.22	0.31	-1.500			
0.3571	22855.99	3.6550	3.6549	-0.8768	26.22	0.31	-1.500			
0.3598	23025.02	3.6520	3.6520	-0.8871	26.22	0.31	-1.500			
0.3624	23196.31	3.6490	3.6491	-0.8947	26.23	0.32	-1.500			
0.3652	23369.87	3.6460	3.6460	-0.9047	26.24	0.33	-1.500			
0.3679	23544.16	3.6430	3.6430	-0.9116	26.24	0.33	-1.500			
0.3706	23719.50	3.6400	3.6400	-0.9168	26.25	0.34	-1.500			
0.3734	23895.51	3.6370	3.6370	-0.9274	26.25	0.34	-1.500			
0.3762	24074.58	3.6340	3.6340	-0.9364	26.26	0.35	-1.500			
0.3790	24255.85	3.6310	3.6309	-0.9429	26.26	0.35	-1.500			
0.3818	24438.29	3.6280	3.6281	-0.9528	26.27	0.36	-1.500			
0.3847	24620.65	3.6250	3.6250	-0.9648	26.27	0.36	-1.500			
0.3876	24806.66	3.6220	3.6220	-0.9769	26.28	0.37	-1.500			
0.3906	24995.64	3.6190	3.6189	-0.9897	26.28	0.37	-1.500			
0.3935	25185.35	3.6160	3.6160	-0.9998	26.29	0.38	-1.500			
0.3966	25379.59	3.6130	3.6131	-1.0169	26.29	0.38	-1.500			
0.3996	25577.09	3.6100	3.6100	-1.0265	26.30	0.39	-1.500			
0.4027	25775.43	3.6070	3.6070	-1.0357	26.30	0.39	-1.500			
0.4059	25974.43	3.6040	3.6040	-1.0476	26.31	0.40	-1.500			
0.4090	26176.08	3.6010	3.6009	-1.0591	26.31	0.40	-1.500			
0.4122	26380.55	3.5980	3.5980	-1.0740	26.32	0.41	-1.500			
0.4154	26588.26	3.5950	3.5950	-1.0879	26.32	0.41	-1.500			
0.4187	26798.53	3.5920	3.5920	-1.1037	26.32	0.41	-1.500			
0.4221	27013.67	3.5890	3.5891	-1.1217	26.33	0.42	-1.500			
0.4255	27230.31	3.5860	3.5859	-1.1324	26.33	0.42	-1.500			
0.4289	27448.07	3.5830	3.5831	-1.1465	26.34	0.43	-1.500			
0.4323	27668.87	3.5800	3.5801	-1.1644	26.34	0.43	-1.500			
0.4358	27893.53	3.5770	3.5770	-1.1793	26.35	0.44	-1.500			
0.4394	28121.91	3.5740	3.5739	-1.1954	26.35	0.44	-1.500			
0.4430	28352.05	3.5710	3.5711	-1.2135	26.36	0.45	-1.500			
0.4467	28588.50	3.5680	3.5680	-1.2366	26.36	0.45	-1.500			
0.4504	28828.31	3.5650	3.5650	-1.2534	26.37	0.46	-1.500			
0.4542	29070.43	3.5620	3.5619	-1.2649	26.38	0.47	-1.500			
0.4580	29314.56	3.5590	3.5591	-1.2819	26.38	0.47	-1.500			
0.4619	29563.97	3.5560	3.5560	-1.2972	26.39	0.48	-1.500			
0.4658	29812.67	3.5530	3.5530	-1.3161	26.40	0.49	-1.500			
0.4698	30065.22	3.5500	3.5500	-1.3383	26.40	0.49	-1.500			
0.4738	30326.19	3.5470	3.5470	-1.3599	26.41	0.50	-1.500			
0.4780	30590.87	3.5440	3.5440	-1.3770	26.42	0.51	-1.500			
0.4822	30858.49	3.5410	3.5412	-1.3969	26.43	0.52	-1.500			
0.4864	31128.05	3.5380	3.5380	-1.4086	26.44	0.53	-1.500			
0.4906	31399.25	3.5350	3.5350	-1.4278	26.44	0.53	-1.500			
0.4949	31673.34	3.5320	3.5320	-1.4353	26.45	0.54	-1.500			
0.4992	31950.59	3.5290	3.5290	-1.4589	26.46	0.55	-1.500			
0.5036	32232.68	3.5260	3.5260	-1.4745	26.46	0.55	-1.500			
0.5081	32519.52	3.5230	3.5230	-1.4926	26.47	0.56	-1.500			
0.5126	32806.63	3.5200	3.5188	-1.5034	26.48	0.57	-1.500	0.372	0.562	
0.5171	33096.75	3.5170	3.5170	-1.5221	26.49	0.58	-1.500			
0.5217	33389.58	3.5140	3.5140	-1.5356	26.50	0.59	-1.500			
0.5264	33688.30	3.5110	3.5109	-1.5458	26.51	0.60	-1.500			
0.5310	33984.73	3.5080	3.5081	-1.5472	26.52	0.61	-1.500			
0.5357	34285.39	3.5050	3.5050	-1.5588	26.53	0.62	-1.500			
0.5404	34585.64	3.5020	3.5020	-1.5625	26.54	0.63	-1.500			
0.5451	34885.62	3.4990	3.4990	-1.5630	26.55	0.64	-1.500			
0.5497	35183.94	3.4960	3.4960	-1.5722	26.56	0.65	-1.500			
0.5545	35486.78	3.4930	3.4930	-1.5720	26.57	0.66	-1.500			
0.5592	35790.29	3.4900	3.4900	-1.5772	26.58	0.67	-1.500			
0.5640	36093.13	3.4870	3.4870	-1.5797	26.59	0.68	-1.500			
0.5687	36396.69	3.4840	3.4840	-1.5791	26.60	0.69	-1.500			
0.5734	36700.29	3.4810	3.4810	-1.5731	26.61	0.70	-1.500			
0.5782	37003.32	3.4780	3.4780	-1.5655	26.61	0.70	-1.500			
0.5829	37302.47	3.4750	3.4750	-1.5582	26.62	0.71	-1.500			
0.5875	37601.87	3.4720	3.4720	-1.5531	26.63	0.72	-1.500			
0.5922	37898.39	3.4690	3.4690	-1.5420	26.64	0.73	-1.500			
0.5968	38193.60	3.4660	3.4660	-1.5322	26.65	0.74	-1.500			
0.6014	38488.55	3.4630	3.4630	-1.5144	26.67	0.76	-1.500			
0.6059	38778.90	3.4600	3.4600	-1.5012	26.68	0.77	-1.500			
0.6104	39066.31	3.4570	3.4570	-1.4904	26.69	0.78	-1.500			
0.6148	39349.47	3.4540	3.4540	-1.4725	26.70	0.79	-1.500			
0.6192	39629.72	3.4510	3.4509	-1.4611	26.72	0.81	-1.500			
0.6236	39911.40	3.4480	3.4480	-1.4424	26.73	0.82	-1.500			
0.6279	40188.60	3.4450	3.4450	-1.4300	26.75	0.84	-1.500			
0.6322	40462.41	3.4420	3.4423	-1.4089	26.76	0.85	-1.500			
0.6364	40729.01	3.4390	3.4389	-1.3861	26.77	0.86	-1.500			
0.6405	40991.83	3.4360	3.4360	-1.3651	26.79	0.88	-1.500			
0.6445	41251.01	3.4330	3.4329	-1.3442	26.80	0.89	-1.500			
0.6486	41510.04	3.4300	3.4300	-1.3356	26.81	0.90	-1.500			
0.6526	41763.88	3.4270	3.4270	-1.3177	26.83	0.92	-1.500			
0.6565	42014.23	3.4240	3.4240	-1.2998	26.84	0.93	-1.500			
0.6604	42264.13	3.4210	3.4209	-1.2826	26.85	0.94	-1.500			
0.6642	42506.49	3.4180	3.4180	-1.2604	26.87	0.96	-1.500			
0.6679	42748.28	3.4150	3.4151	-1.2415	26.89	0.98	-1.500			
0.6717	42985.72	3.4120	3.4120	-1.2198	26.91	1.00	-1.500			
0.6753	43218.77	3.4090	3.4089	-1.1953	26.92	1.01	-1.500			
0.6788	43446.01	3.4060	3.4060	-1.1679	26.94	1.03	-1.500			
0.6823	43667.96	3.4030	3.4031	-1.1373	26.94	1.03	-1.500			
0.6857	43883.02	3.4000	3.4000	-1.1122	26.96	1.05	-1.500			
0.6889	44092.53	3.3970	3.3970	-1.0839	26.97	1.06	-1.500			
0.6922	44298.44	3.3940	3.3940	-1.0571	26.99	1.08	-1.500			
0.6953	44500.27	3.3910	3.3909	-1.0328	27.00	1.09	-1.500			
0.6984	44695.65	3.3880	3.3881	-1.0051	27.01	1.10	-1.500			
0.7014	44887.57	3.3850	3.3850	-0.9749	27.03	1.12	-1.500			
0.7042	45071.28	3.3820	3.3820	-0.9457	27.04	1.13	-1.500			
0.7070	45248.33	3.3790	3.3792	-0.9106	27.05	1.14	-1.500			
0.7097	45420.66	3.3760	3.3759	-0.8871	27.06	1.15	-1.500			
0.7123	45587.71	3.3730	3.3729	-0.8624	27.07	1.16	-1.500			
0.7148	45750.24	3.3700	3.3700	-0.8387	27.09	1.18	-1.500			
0.7173	45908.55	3.3670	3.3671	-0.8159	27.10	1.19	-1.500			
0.7198	46065.31	3.3640	3.3640	-0.7988	27.11	1.20	-1.500			
0.7221	46215.89	3.3610	3.3610	-0.7747	27.12	1.21	-1.500			
0.7244	46362.51	3.3580	3.3580	-0.7524	27.13	1.22	-1.500			
0.7266	46503.73	3.3550	3.3550	-0.7322	27.14	1.23	-1.500			
0.7288	46642.52	3.3520	3.3520	-0.7124	27.15	1.24	-1.500			
0.7309	46777.59	3.3490	3.3490	-0.6923	27.16	1.25	-1.500			
0.7329	46908.69	3.3460	3.3460	-0.6753	27.17	1.26	-1.500			
0.7349	47036.57	3.3430	3.3430	-0.6556	27.18	1.27	-1.500			
0.7369	47161.01	3.3400	3.3399	-0.6394	27.19	1.28	-1.500			
0.7388	47280.98	3.3370	3.3371	-0.6232	27.20	1.29	-1.500			
0.7406	47398.44	3.3340	3.3340	-0.6064	27.21	1.30	-1.500			
0.7424	47513.74	3.3310	3.3310	-0.5929	27.22	1.31	-1.500			
0.7442	47626.66	3.3280	3.3280	-0.5783	27.23	1.32	-1.500			
0.7459	47735.70	3.3250	3.3250	-0.5641	27.23	1.32	-1.500			
0.7476	47843.70	3.3220	3.3220	-0.5491	27.24	1.33	-1.500			
0.7492	47946.90	3.3190	3.3191	-0.5361	27.25	1.34	-1.500			
0.7507	48047.68	3.3160	3.3160	-0.5221	27.26	1.35	-1.500			
0.7523	48147.12	3.3130	3.3128	-0.5094	27.26	1.35	-1.500			
0.7538	48243.40	3.3100	3.3102	-0.4975	27.27	1.36	-1.500			
0.7553	48337.92	3.3070	3.3070	-0.4851	27.27	1.36	-1.500			
0.7567	48430.25	3.3040	3.3039	-0.4733	27.27	1.36	-1.500			
0.7581	48520.30	3.3010	3.3010	-0.4622	27.28	1.37	-1.500			
0.7595	48606.63	3.2980	3.2980	-0.4506	27.28	1.37	-1.500			
0.7608	48692.91	3.2950	3.2950	-0.4410	27.29	1.38	-1.500			
0.7621	48776.59	3.2920	3.2919	-0.4285	27.30	1.39	-1.500			
0.7634	48857.63	3.2890	3.2891	-0.4186	27.31	1.40	-1.500			
0.7646	48936.94	3.2860	3.2860	-0.4103	27.31	1.40	-1.500			
0.7659	49014.42	3.2830	3.2829	-0.4010	27.32	1.41	-1.500			
0.7670	49090.15	3.2800	3.2800	-0.3925	27.33	1.42	-1.500			
0.7682	49164.72	3.2770	3.2770	-0.3848	27.34	1.43	-1.500			
0.7694	49238.91	3.2740	3.2740	-0.3751	27.34	1.43	-1.500			
0.7705	49310.02	3.2710	3.2711	-0.3671	27.35	1.44	-1.500			
0.7716	49379.21	3.2680	3.2680	-0.3573	27.36	1.45	-1.500			
0.7726	49446.52	3.2650	3.2648	-0.3507	27.36	1.45	-1.500			
0.7736	49512.72	3.2620	3.2620	-0.3425	27.37	1.46	-1.500			
0.7747	49577.84	3.2590	3.2590	-0.3362	27.38	1.47	-1.500			
0.7757	49642.12	3.2560	3.2560	-0.3316	27.38	1.47	-1.500			
0.7767	49705.66	3.2530	3.2530	-0.3251	27.39	1.48	-1.500			
0.7776	49766.93	3.2500	3.2500	-0.3169	27.40	1.49	-1.500			
0.7786	49827.34	3.2470	3.2469	-0.3107	27.40	1.49	-1.500			
0.7795	49886.15	3.2440	3.2440	-0.3033	27.41	1.50	-1.500			
0.7804	49944.15	3.2410	3.2410	-0.2966	27.42	1.51	-1.500			
0.7812	49999.45	3.2380	3.2380	-0.2911	27.42	1.51	-1.500			
0.7821	50054.48	3.2350	3.2351	-0.2861	27.43	1.52	-1.500			
0.7830	50109.52	3.2320	3.2319	-0.2821	27.44	1.53	-1.500			
0.7838	50163.18	3.2290	3.2290	-0.2776	27.44	1.53	-1.500			
0.7846	50216.07	3.2260	3.2261	-0.2733	27.45	1.54	-1.500			
0.7854	50268.04	3.2230	3.2230	-0.2703	27.45	1.54	-1.500			
0.7863	50320.02	3.2200	3.2199	-0.2658	27.46	1.55	-1.500			
0.7870	50370.18	3.2170	3.2170	-0.2606	27.47	1.56	-1.500			
0.7878	50419.69	3.2140	3.2140	-0.2573	27.47	1.56	-1.500			
0.7886	50468.88	3.2110	3.2111	-0.2539	27.48	1.57	-1.500			
0.7893	50517.04	3.2080	3.2079	-0.2507	27.48	1.57	-1.500			
0.7901	50564.78	3.2050	3.2051	-0.2474	27.49	1.58	-1.500			
0.7908	50611.98	3.2020	3.2019	-0.2447	27.50	1.59	-1.500			
0.7915	50658.43	3.1990	3.1989	-0.2411	27.50	1.59	-1.500			
0.7923	50705.21	3.1960	3.1961	-0.2381	27.51	1.60	-1.500			
0.7930	50750.41	3.1930	3.1930	-0.2346	27.51	1.60	-1.500			
0.7937	50795.09	3.1900	3.1900	-0.2311	27.52	1.61	-1.500			
0.7944	50839.22	3.1870	3.1870	-0.2277	27.52	1.61	-1.500			
0.7950	50882.39	3.1840	3.1840	-0.2237	27.53	1.62	-1.500			
0.7957	50924.96	3.1810	3.1811	-0.2208	27.53	1.62	-1.500			
0.7964	50966.91	3.1780	3.1781	-0.2184	27.54	1.63	-1.500			
0.7970	51008.50	3.1750	3.1749	-0.2158	27.55	1.64	-1.500			
0.7977	51049.66	3.1720	3.1720	-0.2133	27.55	1.64	-1.500			
0.7983	51090.15	3.1690	3.1691	-0.2109	27.56	1.65	-1.500			
0.7989	51130.68	3.1660	3.1660	-0.2090	27.56	1.65	-1.500			
0.7995	51170.61	3.1630	3.1631	-0.2069	27.57	1.66	-1.500			
0.8002	51210.30	3.1600	3.1600	-0.2049	27.57	1.66	-1.500			
0.8008	51249.68	3.1570	3.1570	-0.2013	27.58	1.67	-1.500			
0.8014	51287.39	3.1540	3.1541	-0.1993	27.58	1.67	-1.500			
0.8020	51325.48	3.1510	3.1509	-0.1975	27.59	1.68	-1.500			
0.8025	51363.20	3.1480	3.1481	-0.1954	27.59	1.68	-1.500			
0.8031	51400.14	3.1450	3.1449	-0.1937	27.60	1.69	-1.500			
0.8037	51437.53	3.1420	3.1420	-0.1921	27.60	1.69	-1.500			
0.8043	51474.26	3.1390	3.1391	-0.1905	27.61	1.70	-1.500			
0.8049	51510.81	3.1360	3.1360	-0.1887	27.61	1.70	-1.500			
0.8054	51547.34	3.1330	3.1330	-0.1875	27.62	1.71	-1.500			
0.8060	51582.43	3.1300	3.1300	-0.1840	27.62	1.71	-1.500			
0.8065	51617.62	3.1270	3.1270	-0.1826	27.63	1.72	-1.500			
0.8071	51652.61	3.1240	3.1240	-0.1817	27.63	1.72	-1.500			
0.8076	51687.11	3.1210	3.1210	-0.1797	27.63	1.72	-1.500			
0.8082	51721.74	3.1180	3.1180	-0.1791	27.64	1.73	-1.500			
0.8087	51755.97	3.1150	3.1149	-0.1776	27.65	1.74	-1.500			
0.8092	51789.90	3.1120	3.1120	-0.1762	27.66	1.75	-1.500			
0.8097	51823.62	3.1090	3.1090	-0.1751	27.66	1.75	-1.500			
0.8103	51857.03	3.1060	3.1060	-0.1736	27.67	1.76	-1.500			
0.8108	51890.26	3.1030	3.1029	-0.1725	27.67	1.76	-1.500			
0.8113	51923.18	3.1000	3.1000	-0.1713	27.68	1.77	-1.500			
0.8118	51956.09	3.0970	3.0970	-0.1702	27.69	1.78	-1.500			
0.8123	51988.83	3.0940	3.0940	-0.1688	27.69	1.78	-1.500			
0.8128	52021.07	3.0910	3.0911	-0.1670	27.70	1.79	-1.500			
0.8133	52052.92	3.0880	3.0880	-0.1660	27.71	1.80	-1.500			
0.8138	52084.75	3.0850	3.0850	-0.1642	27.71	1.80	-1.500			
0.8143	52116.16	3.0820	3.0819	-0.1626	27.72	1.81	-1.500			
0.8148	52147.16	3.0790	3.0790	-0.1611	27.73	1.82	-1.500			
0.8153	52177.79	3.0760	3.0761	-0.1600	27.73	1.82	-1.500			
0.8158	52208.44	3.0730	3.0730	-0.1586	27.74	1.83	-1.500			
0.8162	52238.87	3.0700	3.0699	-0.1576	27.74	1.83	-1.500			
0.8167	52268.92	3.0670	3.0671	-0.1566	27.75	1.84	-1.500			
0.8172	52298.60	3.0640	3.0641	-0.1556	27.75	1.84	-1.500			
0.8176	52328.66	3.0610	3.0610	-0.1552	27.76	1.85	-1.500			
0.8181	52358.37	3.0580	3.0579	-0.1543	27.76	1.85	-1.500			
0.8186	52387.78	3.0550	3.0550	-0.1537	27.77	1.86	-1.500			
0.8190	52417.22	3.0520	3.0521	-0.1529	27.77	1.86	-1.500			
0.8195	52446.84	3.0490	3.0489	-0.1521	27.78	1.87	-1.500			
0.8199	52475.92	3.0460	3.0460	-0.1508	27.78	1.87	-1.500			
0.8204	52504.64	3.0430	3.0430	-0.1503	27.79	1.88	-1.500			
0.8208	52533.57	3.0400	3.0400	-0.1486	27.80	1.89	-1.500			
0.8213	52561.93	3.0370	3.0370	-0.1478	27.80	1.89	-1.500			
0.8217	52590.18	3.0340	3.0339	-0.1465	27.81	1.90	-1.500			
0.8222	52618.10	3.0310	3.0311	-0.1450	27.81	1.90	-1.500			
0.8226	52645.64	3.0280	3.0279	-0.1448	27.82	1.91	-1.500			
0.8230	52673.50	3.0250	3.0250	-0.1440	27.82	1.91	-1.500			
0.8235	52701.09	3.0220	3.0220	-0.1433	27.82	1.91	-1.500			
0.8239	52728.42	3.0190	3.0188	-0.1417	27.83	1.92	-1.500			
0.8243	52755.95	3.0160	3.0161	-0.1411	27.83	1.92	-1.500			
0.8247	52782.62	3.0130	3.0130	-0.1398	27.84	1.93	-1.500			
0.8251	52809.37	3.0100	3.0100	-0.1388	27.84	1.93	-1.500			
0.8256	52836.01	3.0070	3.0070	-0.1377	27.85	1.94	-1.500			
0.8260	52861.93	3.0040	3.0040	-0.1392	27.85	1.94	-1.500			
0.8264	52888.85	3.0010	3.0010	-0.1423	27.86	1.95	-1.500			
