Ah_balance (normalized)	Ah_balance (mAh)	Voltage - fit (V)	Voltage -  interpolate (V)	dQ/dV (1/V)	Temperature (°C)	Temperature - diff (°C)	Current (C)	R_DC 0ms (mOhm)	R_DC 50ms (mOhm)	R_DC 50 ms PEC (mOhm)
0.2841	18184.22	3.9820	3.9821	0.8663	27.16	1.21	1.500			
0.2867	18348.19	3.9790	3.9789	0.8541	27.15	1.20	1.500			
0.2893	18512.45	3.9760	3.9761	0.8556	27.15	1.20	1.500			
0.2918	18675.59	3.9730	3.9730	0.8607	27.14	1.19	1.500			
0.2944	18840.98	3.9700	3.9700	0.8634	27.14	1.19	1.500			
0.2970	19007.50	3.9670	3.9670	0.8689	27.13	1.18	1.500			
0.2996	19174.87	3.9640	3.9640	0.8719	27.13	1.18	1.500			
0.3023	19344.37	3.9610	3.9611	0.8780	27.12	1.17	1.500			
0.3049	19513.03	3.9580	3.9580	0.8784	27.12	1.17	1.500			
0.3075	19681.91	3.9550	3.9550	0.8791	27.11	1.16	1.500			
0.3102	19849.83	3.9520	3.9520	0.8796	27.11	1.16	1.500			
0.3128	20018.24	3.9490	3.9491	0.8861	27.10	1.15	1.500			
0.3154	20188.63	3.9460	3.9459	0.8878	27.10	1.15	1.500			
0.3181	20360.48	3.9430	3.9430	0.8940	27.09	1.14	1.500			
0.3208	20531.60	3.9400	3.9401	0.9007	27.09	1.14	1.500			
0.3235	20705.65	3.9370	3.9370	0.9074	27.08	1.13	1.500			
0.3263	20881.06	3.9340	3.9340	0.9115	27.07	1.12	1.500			
0.3290	21055.62	3.9310	3.9310	0.9151	27.07	1.12	1.500			
0.3317	21231.62	3.9280	3.9281	0.9217	27.06	1.11	1.500			
0.3345	21409.64	3.9250	3.9250	0.9321	27.06	1.11	1.500			
0.3373	21588.84	3.9220	3.9219	0.9355	27.06	1.11	1.500			
0.3402	21770.11	3.9190	3.9191	0.9363	27.05	1.10	1.500			
0.3430	21953.00	3.9160	3.9160	0.9404	27.05	1.10	1.500			
0.3458	22132.66	3.9130	3.9130	0.9450	27.04	1.09	1.500			
0.3486	22312.76	3.9100	3.9100	0.9491	27.04	1.09	1.500			
0.3515	22494.85	3.9070	3.9071	0.9544	27.03	1.08	1.500			
0.3543	22676.88	3.9040	3.9040	0.9665	27.03	1.08	1.500			
0.3573	22865.20	3.9010	3.9011	0.9814	27.02	1.07	1.500			
0.3603	23056.92	3.8980	3.8979	0.9908	27.01	1.06	1.500			
0.3632	23247.67	3.8950	3.8950	0.9963	27.01	1.06	1.500			
0.3663	23440.32	3.8920	3.8922	1.0043	27.00	1.05	1.500			
0.3693	23634.35	3.8890	3.8889	1.0105	26.99	1.04	1.500			
0.3723	23829.15	3.8860	3.8860	1.0191	26.98	1.03	1.500			
0.3754	24022.40	3.8830	3.8830	1.0248	26.98	1.03	1.500			
0.3785	24221.71	3.8800	3.8800	1.0332	26.97	1.02	1.500			
0.3816	24423.02	3.8770	3.8770	1.0461	26.96	1.01	1.500			
0.3847	24623.19	3.8740	3.8740	1.0579	26.96	1.01	1.500			
0.3879	24826.88	3.8710	3.8710	1.0688	26.95	1.00	1.500			
0.3912	25034.17	3.8680	3.8679	1.0785	26.94	0.99	1.500			
0.3944	25240.96	3.8650	3.8651	1.0938	26.94	0.99	1.500			
0.3977	25452.76	3.8620	3.8620	1.1060	26.93	0.98	1.500			
0.4011	25667.50	3.8590	3.8590	1.1185	26.92	0.97	1.500			
0.4044	25882.58	3.8560	3.8560	1.1305	26.92	0.97	1.500			
0.4078	26099.81	3.8530	3.8531	1.1533	26.91	0.96	1.500			
0.4113	26323.66	3.8500	3.8500	1.1728	26.90	0.95	1.500			
0.4149	26552.51	3.8470	3.8469	1.1879	26.89	0.94	1.500			
0.4185	26781.90	3.8440	3.8441	1.2037	26.88	0.93	1.500			
0.4221	27014.53	3.8410	3.8410	1.2273	26.88	0.93	1.500			
0.4258	27251.14	3.8380	3.8381	1.2464	26.87	0.92	1.500			
0.4295	27490.52	3.8350	3.8350	1.2666	26.86	0.91	1.500			
0.4334	27734.79	3.8320	3.8320	1.2904	26.85	0.90	1.500			
0.4373	27987.84	3.8290	3.8290	1.3183	26.84	0.89	1.500			
0.4413	28243.88	3.8260	3.8261	1.3422	26.82	0.87	1.500			
0.4454	28504.50	3.8230	3.8229	1.3695	26.81	0.86	1.500			
0.4495	28767.10	3.8200	3.8201	1.3989	26.80	0.85	1.500			
0.4537	29036.58	3.8170	3.8169	1.4275	26.79	0.84	1.500			
0.4580	29313.41	3.8140	3.8140	1.4629	26.78	0.83	1.500			
0.4625	29601.22	3.8110	3.8109	1.4932	26.76	0.81	1.500			
0.4670	29890.67	3.8080	3.8081	1.5266	26.75	0.80	1.500			
0.4717	30186.66	3.8050	3.8051	1.5609	26.74	0.79	1.500			
0.4764	30486.96	3.8020	3.8020	1.5970	26.73	0.78	1.500			
0.4812	30794.58	3.7990	3.7990	1.6333	26.71	0.76	1.500			
0.4862	31114.31	3.7960	3.7959	1.6778	26.70	0.75	1.500			
0.4913	31442.23	3.7930	3.7931	1.7252	26.69	0.74	1.500			
0.4966	31779.25	3.7900	3.7900	1.7617	26.68	0.73	1.500			
0.5019	32123.47	3.7870	3.7870	1.7986	26.66	0.71	1.500			
0.5073	32469.50	3.7840	3.7840	1.8225	26.65	0.70	1.500			
0.5129	32824.29	3.7810	3.7810	1.8380	26.63	0.68	1.500			
0.5184	33177.87	3.7780	3.7781	1.8569	26.61	0.66	1.500			
0.5239	33530.76	3.7750	3.7750	1.8956	26.59	0.64	1.500			
0.5297	33901.45	3.7720	3.7719	1.9410	26.58	0.63	1.500			
0.5356	34276.56	3.7690	3.7692	1.9823	26.56	0.61	1.500	0.349	0.457	
0.5417	34667.19	3.7660	3.7661	1.9846	26.55	0.60	1.500			
0.5477	35050.84	3.7630	3.7630	1.9748	26.53	0.58	1.500			
0.5535	35425.74	3.7600	3.7599	1.9466	26.52	0.57	1.500			
0.5593	35798.14	3.7570	3.7570	1.9467	26.51	0.56	1.500			
0.5652	36172.78	3.7540	3.7540	1.9171	26.49	0.54	1.500			
0.5709	36537.50	3.7510	3.7510	1.9017	26.48	0.53	1.500			
0.5766	36899.65	3.7480	3.7481	1.9043	26.46	0.51	1.500			
0.5822	37263.86	3.7450	3.7450	1.9085	26.45	0.50	1.500			
0.5880	37629.08	3.7420	3.7420	1.9322	26.44	0.49	1.500			
0.5937	37998.71	3.7390	3.7391	1.9342	26.42	0.47	1.500			
0.5995	38371.15	3.7360	3.7361	1.9728	26.41	0.46	1.500			
0.6055	38754.88	3.7330	3.7331	2.0046	26.40	0.45	1.500			
0.6117	39146.01	3.7300	3.7301	2.0445	26.38	0.43	1.500			
0.6178	39541.72	3.7270	3.7270	2.0986	26.37	0.42	1.500			
0.6242	39947.69	3.7240	3.7241	2.1505	26.35	0.40	1.500			
0.6307	40363.82	3.7210	3.7211	2.2112	26.34	0.39	1.500			
0.6374	40796.49	3.7180	3.7180	2.3012	26.33	0.38	1.500			
0.6445	41246.16	3.7150	3.7150	2.3869	26.31	0.36	1.500			
0.6517	41709.96	3.7120	3.7120	2.4264	26.30	0.35	1.500			
0.6591	42182.61	3.7090	3.7090	2.5062	26.29	0.34	1.500			
0.6667	42665.70	3.7060	3.7060	2.5302	26.27	0.32	1.500			
0.6743	43157.77	3.7030	3.7031	2.5943	26.25	0.30	1.500			
0.6823	43665.44	3.7000	3.7000	2.5946	26.23	0.28	1.500			
0.6900	44163.02	3.6970	3.6971	2.4988	26.22	0.27	1.500			
0.6975	44641.00	3.6940	3.6940	2.3636	26.21	0.26	1.500			
0.7043	45074.73	3.6910	3.6909	2.2007	26.20	0.25	1.500			
0.7106	45480.41	3.6880	3.6880	2.0171	26.19	0.24	1.500			
0.7163	45845.05	3.6850	3.6851	1.8524	26.18	0.23	1.500			
0.7216	46180.67	3.6820	3.6820	1.7303	26.17	0.22	1.500			
0.7265	46495.84	3.6790	3.6789	1.6137	26.16	0.21	1.500			
0.7312	46794.34	3.6760	3.6760	1.5246	26.16	0.21	1.500			
0.7355	47071.08	3.6730	3.6731	1.4427	26.15	0.20	1.500			
0.7398	47346.02	3.6700	3.6700	1.3815	26.14	0.19	1.500			
0.7437	47597.99	3.6670	3.6670	1.3286	26.14	0.19	1.500			
0.7476	47845.82	3.6640	3.6640	1.2924	26.13	0.18	1.500			
0.7513	48084.88	3.6610	3.6611	1.2693	26.12	0.17	1.500			
0.7551	48326.13	3.6580	3.6581	1.2682	26.12	0.17	1.500			
0.7589	48567.24	3.6550	3.6550	1.2765	26.10	0.15	1.500			
0.7627	48813.13	3.6520	3.6519	1.2864	26.09	0.14	1.500			
0.7666	49063.58	3.6490	3.6490	1.2985	26.08	0.13	1.500			
0.7705	49311.87	3.6460	3.6461	1.2985	26.07	0.12	1.500			
0.7745	49564.94	3.6430	3.6430	1.3105	26.06	0.11	1.500			
0.7784	49817.93	3.6400	3.6399	1.3094	26.05	0.10	1.500			
0.7823	50067.54	3.6370	3.6370	1.3095	26.04	0.09	1.500			
0.7862	50319.52	3.6340	3.6340	1.3084	26.03	0.08	1.500			
0.7902	50572.72	3.6310	3.6310	1.3084	26.03	0.08	1.500			
0.7941	50824.01	3.6280	3.6280	1.2993	26.02	0.07	1.500			
0.7980	51073.11	3.6250	3.6251	1.2935	26.01	0.06	1.500			
0.8019	51320.01	3.6220	3.6220	1.2867	26.00	0.05	1.500			
0.8057	51566.94	3.6190	3.6189	1.2818	26.00	0.05	1.500			
0.8095	51810.32	3.6160	3.6160	1.2764	25.99	0.04	1.500			
0.8134	52056.23	3.6130	3.6130	1.2729	25.98	0.03	1.500			
0.8172	52302.63	3.6100	3.6100	1.2609	25.98	0.03	1.500			
0.8210	52545.11	3.6070	3.6071	1.2458	25.97	0.02	1.500			
0.8247	52783.39	3.6040	3.6040	1.2272	25.97	0.02	1.500			
0.8284	53016.69	3.6010	3.6008	1.2107	25.96	0.01	1.500			
0.8320	53245.74	3.5980	3.5980	1.1922	25.96	0.01	1.500			
0.8355	53472.05	3.5950	3.5950	1.1761	25.96	0.01	1.500			
0.8390	53697.77	3.5920	3.5920	1.1653	25.96	0.01	1.500			
0.8425	53919.61	3.5890	3.5890	1.1473	25.95	0.00	1.500			
0.8459	54139.75	3.5860	3.5860	1.1382	25.95	0.00	1.500			
0.8494	54359.35	3.5830	3.5830	1.1169	25.95	0.00	1.500			
0.8528	54576.60	3.5800	3.5799	1.0630	25.95	0.00	1.500			
0.8560	54782.93	3.5770	3.5771	1.0036	25.95	-0.00	1.500			
0.8590	54974.39	3.5740	3.5741	0.9053	25.95	-0.00	1.500			
0.8617	55145.62	3.5710	3.5710	0.7981	25.95	-0.00	1.500			
0.8638	55284.97	3.5680	3.5680	0.6719	25.95	-0.00	1.500			
0.8656	55399.26	3.5650	3.5650	0.5552	25.95	-0.00	1.500			
0.8670	55490.08	3.5620	3.5620	0.4558	25.94	-0.01	1.500			
0.8682	55565.31	3.5590	3.5588	0.3802	25.94	-0.01	1.500			
0.8691	55624.66	3.5560	3.5559	0.3154	25.94	-0.01	1.500			
0.8700	55677.19	3.5530	3.5529	0.2736	25.94	-0.01	1.500			
0.8707	55722.00	3.5500	3.5500	0.2387	25.94	-0.01	1.500			
0.8713	55763.89	3.5470	3.5469	0.2146	25.94	-0.01	1.500			
0.8719	55801.30	3.5440	3.5439	0.1903	25.94	-0.01	1.500			
0.8724	55835.04	3.5410	3.5410	0.1726	25.94	-0.01	1.500			
0.8729	55865.80	3.5380	3.5380	0.1560	25.94	-0.01	1.500			
0.8734	55894.52	3.5350	3.5350	0.1422	25.94	-0.01	1.500			
0.8738	55920.38	3.5320	3.5320	0.1279	25.94	-0.01	1.500			
0.8741	55943.38	3.5290	3.5290	0.1133	25.94	-0.01	1.500			
0.8744	55963.88	3.5260	3.5261	0.0994	25.94	-0.01	1.500			
0.8747	55981.64	3.5230	3.5230	0.0853	25.94	-0.01	1.500			
0.8749	55996.66	3.5200	3.5202	0.0711	25.94	-0.01	1.500			
0.8751	56009.06	3.5170	3.5174	0.0565	25.94	-0.01	1.500			
0.8753	56018.51	3.5140	3.5147	0.0420	25.94	-0.01	1.500			
