Ah_balance (normalized)	Ah_balance (mAh)	Voltage - fit (V)	Voltage -  interpolate (V)	dQ/dV (1/V)	Temperature (°C)	Temperature - diff (°C)	Current (C)	R_DC 0ms (mOhm)	R_DC 50ms (mOhm)	R_DC 50 ms PEC (mOhm)
0.1824	11676.65	3.9300	3.9296	-0.0800	25.80	-0.02	-1.500			
0.1827	11694.72	3.9270	3.9268	-0.1082	25.80	-0.02	-1.500			
0.1831	11718.30	3.9240	3.9240	-0.1365	25.80	-0.02	-1.500			
0.1836	11747.52	3.9210	3.9210	-0.1638	25.80	-0.02	-1.500			
0.1841	11781.94	3.9180	3.9179	-0.1889	25.80	-0.02	-1.500			
0.1847	11820.97	3.9150	3.9150	-0.2131	25.80	-0.02	-1.500			
0.1854	11865.09	3.9120	3.9121	-0.2380	25.80	-0.02	-1.500			
0.1861	11913.16	3.9090	3.9090	-0.2607	25.81	-0.01	-1.500			
0.1870	11965.62	3.9060	3.9060	-0.2823	25.81	-0.01	-1.500			
0.1878	12021.75	3.9030	3.9030	-0.3038	25.81	-0.01	-1.500			
0.1888	12081.81	3.9000	3.9000	-0.3261	25.81	-0.01	-1.500			
0.1898	12147.25	3.8970	3.8970	-0.3464	25.81	-0.01	-1.500			
0.1909	12215.47	3.8940	3.8940	-0.3662	25.81	-0.01	-1.500			
0.1920	12287.74	3.8910	3.8910	-0.3864	25.81	-0.01	-1.500			
0.1932	12363.92	3.8880	3.8880	-0.4069	25.81	-0.01	-1.500			
0.1944	12444.12	3.8850	3.8849	-0.4267	25.81	-0.01	-1.500			
0.1957	12527.89	3.8820	3.8820	-0.4450	25.81	-0.01	-1.500			
0.1971	12615.27	3.8790	3.8790	-0.4628	25.81	-0.01	-1.500			
0.1985	12706.52	3.8760	3.8760	-0.4820	25.82	-0.00	-1.500			
0.2000	12800.77	3.8730	3.8730	-0.4975	25.82	-0.00	-1.500			
0.2015	12898.53	3.8700	3.8700	-0.5094	25.82	-0.00	-1.500			
0.2031	12997.96	3.8670	3.8670	-0.5202	25.82	-0.00	-1.500			
0.2047	13098.58	3.8640	3.8642	-0.5318	25.82	0.00	-1.500			
0.2063	13202.00	3.8610	3.8610	-0.5416	25.82	0.00	-1.500			
0.2079	13307.13	3.8580	3.8580	-0.5491	25.82	0.00	-1.500			
0.2096	13412.83	3.8550	3.8550	-0.5577	25.82	0.00	-1.500			
0.2113	13520.84	3.8520	3.8521	-0.5673	25.83	0.01	-1.500			
0.2130	13630.98	3.8490	3.8490	-0.5773	25.83	0.01	-1.500			
0.2147	13742.83	3.8460	3.8460	-0.5835	25.83	0.01	-1.500			
0.2165	13855.49	3.8430	3.8430	-0.5885	25.83	0.01	-1.500			
0.2183	13969.22	3.8400	3.8401	-0.5978	25.83	0.01	-1.500			
0.2201	14085.37	3.8370	3.8369	-0.6017	25.83	0.01	-1.500			
0.2219	14201.04	3.8340	3.8340	-0.6072	25.83	0.01	-1.500			
0.2237	14318.31	3.8310	3.8310	-0.6122	25.84	0.02	-1.500			
0.2256	14436.53	3.8280	3.8280	-0.6157	25.84	0.02	-1.500			
0.2274	14556.07	3.8250	3.8250	-0.6171	25.84	0.02	-1.500			
0.2293	14674.57	3.8220	3.8220	-0.6185	25.84	0.02	-1.500			
0.2311	14793.03	3.8190	3.8190	-0.6163	25.84	0.02	-1.500			
0.2330	14911.78	3.8160	3.8160	-0.6192	25.85	0.03	-1.500			
0.2348	15029.19	3.8130	3.8130	-0.6208	25.85	0.03	-1.500			
0.2367	15148.81	3.8100	3.8100	-0.6263	25.85	0.03	-1.500			
0.2386	15269.90	3.8070	3.8069	-0.6272	25.85	0.03	-1.500			
0.2405	15390.86	3.8040	3.8040	-0.6296	25.86	0.04	-1.500			
0.2424	15511.76	3.8010	3.8011	-0.6337	25.86	0.04	-1.500			
0.2443	15634.02	3.7980	3.7979	-0.6386	25.86	0.04	-1.500			
0.2462	15756.43	3.7950	3.7949	-0.6392	25.87	0.05	-1.500			
0.2481	15879.14	3.7920	3.7921	-0.6441	25.87	0.05	-1.500			
0.2501	16003.87	3.7890	3.7890	-0.6476	25.87	0.05	-1.500			
0.2520	16129.70	3.7860	3.7860	-0.6493	25.88	0.06	-1.500			
0.2540	16254.53	3.7830	3.7830	-0.6485	25.88	0.06	-1.500			
0.2559	16378.45	3.7800	3.7801	-0.6468	25.88	0.06	-1.500			
0.2578	16502.29	3.7770	3.7770	-0.6476	25.89	0.07	-1.500			
0.2598	16626.36	3.7740	3.7740	-0.6505	25.89	0.07	-1.500			
0.2617	16750.30	3.7710	3.7710	-0.6525	25.90	0.08	-1.500			
0.2637	16875.91	3.7680	3.7680	-0.6592	25.90	0.08	-1.500			
0.2657	17003.05	3.7650	3.7650	-0.6656	25.91	0.09	-1.500			
0.2677	17132.01	3.7620	3.7620	-0.6729	25.91	0.09	-1.500			
0.2697	17262.09	3.7590	3.7590	-0.6793	25.92	0.10	-1.500			
0.2718	17393.07	3.7560	3.7560	-0.6823	25.92	0.10	-1.500			
0.2738	17524.88	3.7530	3.7530	-0.6860	25.93	0.11	-1.500			
0.2759	17657.19	3.7500	3.7500	-0.6885	25.93	0.11	-1.500			
0.2780	17788.91	3.7470	3.7469	-0.6930	25.94	0.12	-1.500			
0.2800	17921.86	3.7440	3.7440	-0.6948	25.94	0.12	-1.500			
0.2821	18055.27	3.7410	3.7411	-0.6989	25.95	0.13	-1.500			
0.2842	18189.86	3.7380	3.7380	-0.7064	25.95	0.13	-1.500			
0.2864	18326.57	3.7350	3.7348	-0.7134	25.96	0.14	-1.500			
0.2885	18463.43	3.7320	3.7320	-0.7187	25.96	0.14	-1.500			
0.2907	18602.06	3.7290	3.7291	-0.7255	25.97	0.15	-1.500			
0.2928	18742.13	3.7260	3.7260	-0.7292	25.97	0.15	-1.500			
0.2951	18883.52	3.7230	3.7229	-0.7363	25.98	0.16	-1.500			
0.2972	19023.97	3.7200	3.7201	-0.7429	25.98	0.16	-1.500			
0.2995	19166.80	3.7170	3.7169	-0.7503	25.99	0.17	-1.500			
0.3018	19312.60	3.7140	3.7140	-0.7580	25.99	0.17	-1.500			
0.3041	19459.24	3.7110	3.7109	-0.7642	26.00	0.18	-1.500			
0.3064	19606.71	3.7080	3.7080	-0.7707	26.00	0.18	-1.500			
0.3087	19756.17	3.7050	3.7050	-0.7742	26.01	0.19	-1.500			
0.3110	19903.40	3.7020	3.7020	-0.7811	26.01	0.19	-1.500			
0.3133	20053.40	3.6990	3.6990	-0.7885	26.02	0.20	-1.500			
0.3157	20205.83	3.6960	3.6960	-0.7969	26.02	0.20	-1.500			
0.3181	20359.46	3.6930	3.6930	-0.8075	26.03	0.21	-1.500			
0.3206	20515.22	3.6900	3.6900	-0.8185	26.03	0.21	-1.500			
0.3230	20674.34	3.6870	3.6871	-0.8257	26.04	0.22	-1.500			
0.3255	20834.52	3.6840	3.6839	-0.8349	26.04	0.22	-1.500			
0.3280	20994.61	3.6810	3.6809	-0.8404	26.05	0.23	-1.500			
0.3306	21156.96	3.6780	3.6780	-0.8475	26.05	0.23	-1.500			
0.3331	21319.58	3.6750	3.6750	-0.8572	26.06	0.24	-1.500			
0.3357	21484.92	3.6720	3.6720	-0.8644	26.06	0.24	-1.500			
0.3383	21651.46	3.6690	3.6690	-0.8702	26.06	0.24	-1.500			
0.3410	21821.55	3.6660	3.6660	-0.8803	26.07	0.25	-1.500			
0.3436	21989.89	3.6630	3.6631	-0.8945	26.07	0.25	-1.500			
0.3463	22163.20	3.6600	3.6600	-0.9050	26.08	0.26	-1.500			
0.3490	22338.31	3.6570	3.6569	-0.9149	26.08	0.26	-1.500			
0.3518	22514.59	3.6540	3.6541	-0.9245	26.09	0.27	-1.500			
0.3546	22694.16	3.6510	3.6511	-0.9357	26.09	0.27	-1.500			
0.3574	22873.61	3.6480	3.6480	-0.9487	26.10	0.28	-1.500			
0.3603	23057.30	3.6450	3.6450	-0.9603	26.10	0.28	-1.500			
0.3632	23241.69	3.6420	3.6420	-0.9667	26.11	0.29	-1.500			
0.3661	23429.75	3.6390	3.6389	-0.9826	26.11	0.29	-1.500			
0.3690	23618.87	3.6360	3.6361	-0.9957	26.12	0.30	-1.500			
0.3721	23811.88	3.6330	3.6330	-1.0054	26.13	0.31	-1.500			
0.3751	24005.82	3.6300	3.6299	-1.0161	26.13	0.31	-1.500			
0.3781	24201.12	3.6270	3.6270	-1.0231	26.14	0.32	-1.500			
0.3813	24400.13	3.6240	3.6240	-1.0338	26.14	0.32	-1.500			
0.3844	24600.09	3.6210	3.6210	-1.0456	26.15	0.33	-1.500			
0.3875	24799.99	3.6180	3.6181	-1.0549	26.15	0.33	-1.500			
0.3907	25001.87	3.6150	3.6150	-1.0666	26.16	0.34	-1.500			
0.3939	25208.17	3.6120	3.6119	-1.0882	26.16	0.34	-1.500			
0.3972	25417.74	3.6090	3.6091	-1.1046	26.17	0.35	-1.500			
0.4005	25632.79	3.6060	3.6059	-1.1181	26.17	0.35	-1.500			
0.4039	25850.48	3.6030	3.6031	-1.1376	26.18	0.36	-1.500			
0.4074	26070.59	3.6000	3.6000	-1.1481	26.18	0.36	-1.500			
0.4108	26291.49	3.5970	3.5969	-1.1619	26.19	0.37	-1.500			
0.4143	26516.17	3.5940	3.5940	-1.1760	26.19	0.37	-1.500			
0.4178	26740.28	3.5910	3.5910	-1.1948	26.19	0.37	-1.500			
0.4215	26972.89	3.5880	3.5880	-1.2155	26.19	0.37	-1.500			
0.4251	27208.76	3.5850	3.5850	-1.2360	26.20	0.38	-1.500			
0.4289	27447.31	3.5820	3.5820	-1.2505	26.20	0.38	-1.500			
0.4327	27690.25	3.5790	3.5790	-1.2700	26.21	0.39	-1.500			
0.4365	27935.83	3.5760	3.5760	-1.2836	26.21	0.39	-1.500			
0.4404	28183.85	3.5730	3.5730	-1.2977	26.22	0.40	-1.500			
0.4442	28431.72	3.5700	3.5700	-1.3150	26.22	0.40	-1.500			
0.4482	28687.18	3.5670	3.5670	-1.3340	26.23	0.41	-1.500			
0.4523	28944.39	3.5640	3.5639	-1.3517	26.24	0.42	-1.500			
0.4564	29206.83	3.5610	3.5610	-1.3703	26.24	0.42	-1.500			
0.4605	29471.11	3.5580	3.5581	-1.3885	26.25	0.43	-1.500			
0.4647	29739.59	3.5550	3.5550	-1.4143	26.25	0.43	-1.500			
0.4690	30013.69	3.5520	3.5520	-1.4263	26.26	0.44	-1.500			
0.4733	30288.51	3.5490	3.5490	-1.4478	26.26	0.44	-1.500			
0.4776	30569.51	3.5460	3.5460	-1.4685	26.27	0.45	-1.500			
0.4821	30852.10	3.5430	3.5430	-1.4900	26.27	0.45	-1.500			
0.4866	31141.35	3.5400	3.5400	-1.5043	26.28	0.46	-1.500			
0.4911	31431.11	3.5370	3.5369	-1.5213	26.28	0.46	-1.500			
0.4957	31725.50	3.5340	3.5341	-1.5427	26.29	0.47	-1.500			
0.5004	32025.69	3.5310	3.5309	-1.5649	26.30	0.48	-1.500			
0.5051	32327.72	3.5280	3.5280	-1.5771	26.30	0.48	-1.500			
0.5099	32631.97	3.5250	3.5252	-1.5924	26.31	0.49	-1.500	0.369	0.536	
0.5147	32939.15	3.5220	3.5220	-1.6090	26.32	0.50	-1.500			
0.5195	33250.24	3.5190	3.5190	-1.6225	26.33	0.51	-1.500			
0.5244	33562.41	3.5160	3.5160	-1.6271	26.34	0.52	-1.500			
0.5293	33878.29	3.5130	3.5131	-1.6496	26.35	0.53	-1.500			
0.5343	34196.53	3.5100	3.5100	-1.6586	26.36	0.54	-1.500			
0.5393	34517.60	3.5070	3.5070	-1.6678	26.37	0.55	-1.500			
0.5444	34838.67	3.5040	3.5040	-1.6701	26.38	0.56	-1.500			
0.5494	35161.11	3.5010	3.5010	-1.6760	26.39	0.57	-1.500			
0.5544	35483.39	3.4980	3.4981	-1.6751	26.40	0.58	-1.500			
0.5595	35805.76	3.4950	3.4949	-1.6666	26.41	0.59	-1.500			
0.5644	36121.34	3.4920	3.4921	-1.6645	26.42	0.60	-1.500			
0.5694	36441.08	3.4890	3.4890	-1.6588	26.44	0.62	-1.500			
0.5744	36760.98	3.4860	3.4859	-1.6644	26.45	0.63	-1.500			
0.5794	37079.60	3.4830	3.4831	-1.6617	26.46	0.64	-1.500			
0.5844	37399.88	3.4800	3.4800	-1.6464	26.48	0.66	-1.500			
0.5893	37715.28	3.4770	3.4770	-1.6416	26.49	0.67	-1.500			
0.5942	38030.07	3.4740	3.4741	-1.6302	26.51	0.69	-1.500			
0.5991	38342.83	3.4710	3.4709	-1.6102	26.52	0.70	-1.500			
0.6040	38653.02	3.4680	3.4680	-1.5884	26.54	0.72	-1.500			
0.6086	38952.38	3.4650	3.4651	-1.5691	26.55	0.73	-1.500			
0.6133	39250.90	3.4620	3.4621	-1.5599	26.56	0.74	-1.500			
0.6180	39549.32	3.4590	3.4589	-1.5352	26.58	0.76	-1.500			
0.6225	39840.09	3.4560	3.4559	-1.5211	26.59	0.77	-1.500			
0.6271	40132.65	3.4530	3.4531	-1.5079	26.60	0.78	-1.500			
0.6316	40422.51	3.4500	3.4498	-1.4955	26.62	0.80	-1.500			
0.6361	40711.47	3.4470	3.4470	-1.4767	26.64	0.82	-1.500			
0.6405	40991.30	3.4440	3.4440	-1.4508	26.65	0.83	-1.500			
0.6448	41265.66	3.4410	3.4410	-1.4312	26.67	0.85	-1.500			
0.6491	41541.16	3.4380	3.4380	-1.4156	26.69	0.87	-1.500			
0.6532	41807.07	3.4350	3.4350	-1.3910	26.71	0.89	-1.500			
0.6574	42073.02	3.4320	3.4320	-1.3742	26.72	0.90	-1.500			
0.6615	42334.68	3.4290	3.4290	-1.3599	26.74	0.92	-1.500			
0.6656	42595.71	3.4260	3.4260	-1.3408	26.76	0.94	-1.500			
0.6696	42852.62	3.4230	3.4230	-1.3172	26.78	0.96	-1.500			
0.6735	43104.68	3.4200	3.4200	-1.2910	26.80	0.98	-1.500			
0.6774	43350.81	3.4170	3.4170	-1.2678	26.81	0.99	-1.500			
0.6811	43590.99	3.4140	3.4140	-1.2404	26.83	1.01	-1.500			
0.6848	43825.79	3.4110	3.4109	-1.2193	26.85	1.03	-1.500			
0.6884	44057.27	3.4080	3.4080	-1.1877	26.87	1.05	-1.500			
0.6919	44284.33	3.4050	3.4050	-1.1618	26.89	1.07	-1.500			
0.6954	44505.12	3.4020	3.4019	-1.1354	26.91	1.09	-1.500			
0.6988	44721.66	3.3990	3.3990	-1.1077	26.93	1.11	-1.500			
0.7020	44930.68	3.3960	3.3959	-1.0740	26.93	1.11	-1.500			
0.7052	45133.00	3.3930	3.3930	-1.0428	26.94	1.12	-1.500			
0.7083	45328.99	3.3900	3.3901	-1.0096	26.96	1.14	-1.500			
0.7113	45523.53	3.3870	3.3870	-0.9834	26.98	1.16	-1.500			
0.7142	45709.17	3.3840	3.3839	-0.9536	26.99	1.17	-1.500			
0.7170	45889.06	3.3810	3.3810	-0.9215	27.01	1.19	-1.500			
0.7197	46062.23	3.3780	3.3780	-0.8965	27.02	1.20	-1.500			
0.7224	46232.35	3.3750	3.3751	-0.8676	27.04	1.22	-1.500			
0.7249	46395.31	3.3720	3.3719	-0.8431	27.05	1.23	-1.500			
0.7274	46553.92	3.3690	3.3690	-0.8200	27.06	1.24	-1.500			
0.7298	46708.59	3.3660	3.3661	-0.7975	27.07	1.25	-1.500			
0.7322	46858.78	3.3630	3.3630	-0.7748	27.08	1.26	-1.500			
0.7345	47007.94	3.3600	3.3600	-0.7537	27.10	1.28	-1.500			
0.7367	47150.09	3.3570	3.3569	-0.7286	27.11	1.29	-1.500			
0.7389	47288.02	3.3540	3.3540	-0.7111	27.12	1.30	-1.500			
0.7410	47421.49	3.3510	3.3510	-0.6875	27.13	1.31	-1.500			
0.7430	47550.38	3.3480	3.3479	-0.6716	27.14	1.32	-1.500			
0.7450	47678.10	3.3450	3.3450	-0.6548	27.15	1.33	-1.500			
0.7469	47801.95	3.3420	3.3419	-0.6382	27.16	1.34	-1.500			
0.7488	47923.24	3.3390	3.3391	-0.6212	27.17	1.35	-1.500			
0.7506	48041.09	3.3360	3.3360	-0.6064	27.18	1.36	-1.500			
0.7524	48155.34	3.3330	3.3330	-0.5889	27.18	1.36	-1.500			
0.7542	48267.23	3.3300	3.3299	-0.5720	27.19	1.37	-1.500			
0.7559	48374.67	3.3270	3.3270	-0.5571	27.20	1.38	-1.500			
0.7575	48480.57	3.3240	3.3240	-0.5424	27.21	1.39	-1.500			
0.7591	48582.98	3.3210	3.3210	-0.5292	27.22	1.40	-1.500			
0.7607	48683.40	3.3180	3.3180	-0.5146	27.23	1.41	-1.500			
0.7622	48779.84	3.3150	3.3150	-0.5015	27.24	1.42	-1.500			
0.7637	48875.45	3.3120	3.3119	-0.4917	27.25	1.43	-1.500			
0.7651	48969.28	3.3090	3.3090	-0.4798	27.26	1.44	-1.500			
0.7666	49059.93	3.3060	3.3060	-0.4667	27.27	1.45	-1.500			
0.7679	49148.76	3.3030	3.3030	-0.4571	27.27	1.45	-1.500			
0.7693	49235.06	3.3000	3.3001	-0.4455	27.28	1.46	-1.500			
0.7706	49319.33	3.2970	3.2969	-0.4352	27.29	1.47	-1.500			
0.7719	49401.61	3.2940	3.2940	-0.4223	27.30	1.48	-1.500			
0.7732	49482.01	3.2910	3.2910	-0.4108	27.30	1.48	-1.500			
0.7744	49559.83	3.2880	3.2880	-0.4002	27.31	1.49	-1.500			
0.7756	49635.81	3.2850	3.2850	-0.3907	27.31	1.49	-1.500			
0.7767	49708.44	3.2820	3.2820	-0.3814	27.32	1.50	-1.500			
0.7778	49780.99	3.2790	3.2790	-0.3742	27.32	1.50	-1.500			
0.7789	49852.21	3.2760	3.2760	-0.3643	27.33	1.51	-1.500			
0.7800	49921.79	3.2730	3.2731	-0.3563	27.34	1.52	-1.500			
0.7811	49990.00	3.2700	3.2700	-0.3472	27.34	1.52	-1.500			
0.7821	50055.22	3.2670	3.2669	-0.3387	27.35	1.53	-1.500			
0.7831	50118.33	3.2640	3.2640	-0.3305	27.36	1.54	-1.500			
0.7841	50180.63	3.2610	3.2610	-0.3252	27.37	1.55	-1.500			
0.7850	50242.73	3.2580	3.2580	-0.3198	27.37	1.55	-1.500			
0.7860	50303.94	3.2550	3.2549	-0.3152	27.38	1.56	-1.500			
0.7869	50364.36	3.2520	3.2520	-0.3075	27.39	1.57	-1.500			
0.7879	50422.78	3.2490	3.2490	-0.3016	27.40	1.58	-1.500			
0.7887	50479.69	3.2460	3.2461	-0.2942	27.40	1.58	-1.500			
0.7896	50535.51	3.2430	3.2429	-0.2895	27.41	1.59	-1.500			
0.7905	50589.77	3.2400	3.2400	-0.2837	27.42	1.60	-1.500			
0.7913	50644.17	3.2370	3.2369	-0.2786	27.42	1.60	-1.500			
0.7921	50697.30	3.2340	3.2339	-0.2734	27.43	1.61	-1.500			
0.7930	50749.54	3.2310	3.2311	-0.2696	27.43	1.61	-1.500			
0.7938	50800.57	3.2280	3.2280	-0.2642	27.44	1.62	-1.500			
0.7945	50850.43	3.2250	3.2249	-0.2588	27.45	1.63	-1.500			
0.7953	50899.55	3.2220	3.2219	-0.2553	27.45	1.63	-1.500			
0.7961	50948.18	3.2190	3.2191	-0.2503	27.46	1.64	-1.500			
0.7968	50995.82	3.2160	3.2160	-0.2473	27.46	1.64	-1.500			
0.7975	51042.90	3.2130	3.2129	-0.2430	27.46	1.64	-1.500			
0.7983	51088.99	3.2100	3.2101	-0.2394	27.47	1.65	-1.500			
0.7990	51134.28	3.2070	3.2069	-0.2356	27.47	1.65	-1.500			
0.7997	51179.40	3.2040	3.2040	-0.2323	27.48	1.66	-1.500			
0.8004	51223.67	3.2010	3.2011	-0.2289	27.48	1.66	-1.500			
0.8010	51267.05	3.1980	3.1980	-0.2261	27.49	1.67	-1.500			
0.8017	51310.67	3.1950	3.1950	-0.2237	27.49	1.67	-1.500			
0.8024	51352.77	3.1920	3.1920	-0.2200	27.50	1.68	-1.500			
0.8030	51394.82	3.1890	3.1889	-0.2176	27.50	1.68	-1.500			
0.8037	51436.30	3.1860	3.1860	-0.2151	27.51	1.69	-1.500			
0.8043	51477.34	3.1830	3.1830	-0.2128	27.51	1.69	-1.500			
0.8050	51518.12	3.1800	3.1800	-0.2108	27.52	1.70	-1.500			
0.8056	51558.38	3.1770	3.1770	-0.2081	27.52	1.70	-1.500			
0.8062	51597.95	3.1740	3.1740	-0.2054	27.53	1.71	-1.500			
0.8068	51637.40	3.1710	3.1710	-0.2025	27.54	1.72	-1.500			
0.8074	51675.92	3.1680	3.1680	-0.1994	27.54	1.72	-1.500			
0.8080	51713.90	3.1650	3.1649	-0.1970	27.55	1.73	-1.500			
0.8086	51751.45	3.1620	3.1621	-0.1941	27.56	1.74	-1.500			
0.8092	51788.28	3.1590	3.1589	-0.1918	27.56	1.74	-1.500			
0.8098	51824.61	3.1560	3.1560	-0.1898	27.57	1.75	-1.500			
0.8103	51860.62	3.1530	3.1531	-0.1886	27.58	1.76	-1.500			
0.8109	51896.76	3.1500	3.1500	-0.1878	27.58	1.76	-1.500			
0.8114	51932.69	3.1470	3.1469	-0.1870	27.59	1.77	-1.500			
0.8120	51968.64	3.1440	3.1440	-0.1854	27.59	1.77	-1.500			
0.8126	52004.32	3.1410	3.1411	-0.1838	27.60	1.78	-1.500			
0.8131	52039.41	3.1380	3.1380	-0.1820	27.61	1.79	-1.500			
0.8137	52074.38	3.1350	3.1350	-0.1802	27.61	1.79	-1.500			
0.8142	52108.76	3.1320	3.1320	-0.1784	27.62	1.80	-1.500			
0.8147	52142.46	3.1290	3.1290	-0.1765	27.62	1.80	-1.500			
0.8153	52176.47	3.1260	3.1260	-0.1745	27.63	1.81	-1.500			
0.8158	52209.79	3.1230	3.1230	-0.1726	27.63	1.81	-1.500			
0.8163	52242.89	3.1200	3.1200	-0.1714	27.64	1.82	-1.500			
0.8168	52275.52	3.1170	3.1171	-0.1700	27.65	1.83	-1.500			
0.8173	52307.86	3.1140	3.1140	-0.1683	27.65	1.83	-1.500			
0.8178	52340.07	3.1110	3.1109	-0.1671	27.66	1.84	-1.500			
0.8183	52371.99	3.1080	3.1079	-0.1656	27.66	1.84	-1.500			
0.8188	52403.57	3.1050	3.1050	-0.1643	27.67	1.85	-1.500			
0.8193	52435.20	3.1020	3.1021	-0.1639	27.67	1.85	-1.500			
0.8198	52466.52	3.0990	3.0989	-0.1624	27.68	1.86	-1.500			
0.8203	52497.42	3.0960	3.0960	-0.1608	27.68	1.86	-1.500			
0.8208	52528.16	3.0930	3.0930	-0.1595	27.69	1.87	-1.500			
0.8212	52558.55	3.0900	3.0901	-0.1587	27.69	1.87	-1.500			
0.8217	52588.94	3.0870	3.0870	-0.1579	27.70	1.88	-1.500			
0.8222	52619.18	3.0840	3.0839	-0.1572	27.70	1.88	-1.500			
0.8226	52649.27	3.0810	3.0809	-0.1560	27.71	1.89	-1.500			
0.8231	52679.10	3.0780	3.0780	-0.1552	27.72	1.90	-1.500			
0.8236	52708.91	3.0750	3.0750	-0.1538	27.72	1.90	-1.500			
0.8240	52738.67	3.0720	3.0721	-0.1524	27.73	1.91	-1.500			
0.8245	52767.80	3.0690	3.0689	-0.1510	27.73	1.91	-1.500			
0.8249	52796.61	3.0660	3.0660	-0.1491	27.74	1.92	-1.500			
0.8254	52824.75	3.0630	3.0631	-0.1483	27.74	1.92	-1.500			
0.8258	52852.88	3.0600	3.0600	-0.1475	27.75	1.93	-1.500			
0.8263	52881.20	3.0570	3.0569	-0.1468	27.75	1.93	-1.500			
0.8267	52909.34	3.0540	3.0540	-0.1464	27.76	1.94	-1.500			
0.8271	52937.48	3.0510	3.0510	-0.1457	27.76	1.94	-1.500			
0.8276	52965.64	3.0480	3.0480	-0.1451	27.77	1.95	-1.500			
0.8280	52993.31	3.0450	3.0450	-0.1443	27.77	1.95	-1.500			
0.8285	53020.92	3.0420	3.0420	-0.1433	27.78	1.96	-1.500			
0.8289	53048.18	3.0390	3.0390	-0.1421	27.78	1.96	-1.500			
0.8293	53075.50	3.0360	3.0360	-0.1409	27.79	1.97	-1.500			
0.8297	53102.61	3.0330	3.0330	-0.1400	27.79	1.97	-1.500			
0.8301	53129.28	3.0300	3.0300	-0.1391	27.80	1.98	-1.500			
0.8306	53155.93	3.0270	3.0270	-0.1379	27.80	1.98	-1.500			
0.8310	53182.25	3.0240	3.0240	-0.1369	27.81	1.99	-1.500			
0.8314	53208.42	3.0210	3.0209	-0.1358	27.81	1.99	-1.500			
0.8318	53234.15	3.0180	3.0181	-0.1353	27.82	2.00	-1.500			
0.8322	53260.13	3.0150	3.0150	-0.1344	27.82	2.00	-1.500			
0.8326	53285.99	3.0120	3.0119	-0.1339	27.83	2.01	-1.500			
0.8330	53311.61	3.0090	3.0090	-0.1330	27.83	2.01	-1.500			
0.8334	53336.98	3.0060	3.0061	-0.1326	27.84	2.02	-1.500			
0.8338	53362.27	3.0030	3.0030	-0.1294	27.84	2.02	-1.500			
