Ah_balance (normalized)	Ah_balance (mAh)	Voltage - fit (V)	Voltage -  interpolate (V)	dQ/dV (1/V)	Temperature (°C)	Temperature - diff (°C)	Current (C)	R_DC 0ms (mOhm)	R_DC 50ms (mOhm)	R_DC 50 ms PEC (mOhm)
0.2032	13003.22	3.9110	3.9109	-0.1279	25.62	0.00	-1.500			
0.2036	13032.60	3.9080	3.9079	-0.1665	25.62	0.00	-1.500			
0.2042	13067.59	3.9050	3.9050	-0.1995	25.62	0.00	-1.500			
0.2048	13108.89	3.9020	3.9020	-0.2329	25.62	0.00	-1.500			
0.2056	13157.26	3.8990	3.8991	-0.2642	25.62	0.00	-1.500			
0.2064	13211.62	3.8960	3.8959	-0.2956	25.62	0.00	-1.500			
0.2074	13271.46	3.8930	3.8930	-0.3266	25.62	0.00	-1.500			
0.2084	13336.88	3.8900	3.8901	-0.3574	25.62	-0.00	-1.500			
0.2095	13407.78	3.8870	3.8870	-0.3897	25.62	-0.00	-1.500			
0.2107	13485.37	3.8840	3.8840	-0.4222	25.62	-0.00	-1.500			
0.2120	13569.80	3.8810	3.8810	-0.4550	25.62	-0.00	-1.500			
0.2134	13660.79	3.8780	3.8780	-0.4883	25.62	-0.00	-1.500			
0.2150	13758.17	3.8750	3.8750	-0.5177	25.61	-0.01	-1.500			
0.2166	13861.02	3.8720	3.8720	-0.5480	25.61	-0.01	-1.500			
0.2183	13968.68	3.8690	3.8690	-0.5777	25.61	-0.01	-1.500			
0.2200	14081.86	3.8660	3.8661	-0.6051	25.61	-0.01	-1.500			
0.2219	14201.32	3.8630	3.8630	-0.6335	25.61	-0.01	-1.500			
0.2239	14326.58	3.8600	3.8600	-0.6609	25.61	-0.01	-1.500			
0.2259	14456.18	3.8570	3.8570	-0.6864	25.61	-0.01	-1.500			
0.2280	14593.29	3.8540	3.8540	-0.7046	25.60	-0.02	-1.500			
0.2302	14729.67	3.8510	3.8510	-0.7203	25.60	-0.02	-1.500			
0.2323	14870.12	3.8480	3.8480	-0.7321	25.60	-0.02	-1.500			
0.2346	15012.54	3.8450	3.8450	-0.7414	25.60	-0.02	-1.500			
0.2368	15155.26	3.8420	3.8420	-0.7514	25.61	-0.01	-1.500			
0.2391	15299.82	3.8390	3.8390	-0.7600	25.61	-0.01	-1.500			
0.2413	15446.33	3.8360	3.8360	-0.7734	25.61	-0.01	-1.500			
0.2437	15596.90	3.8330	3.8330	-0.7861	25.62	-0.00	-1.500			
0.2461	15748.60	3.8300	3.8300	-0.7916	25.62	0.00	-1.500			
0.2485	15903.46	3.8270	3.8271	-0.7976	25.62	0.00	-1.500			
0.2509	16058.74	3.8240	3.8240	-0.8060	25.63	0.01	-1.500			
0.2533	16213.96	3.8210	3.8209	-0.8042	25.63	0.01	-1.500			
0.2558	16368.45	3.8180	3.8180	-0.8049	25.64	0.02	-1.500			
0.2581	16521.06	3.8150	3.8153	-0.8086	25.64	0.02	-1.500			
0.2606	16676.30	3.8120	3.8119	-0.8142	25.65	0.03	-1.500			
0.2630	16833.18	3.8090	3.8089	-0.8202	25.65	0.03	-1.500			
0.2655	16992.06	3.8060	3.8060	-0.8206	25.66	0.04	-1.500			
0.2680	17150.83	3.8030	3.8031	-0.8281	25.66	0.04	-1.500			
0.2705	17310.16	3.8000	3.8000	-0.8290	25.67	0.05	-1.500			
0.2729	17468.77	3.7970	3.7970	-0.8278	25.68	0.06	-1.500			
0.2754	17626.33	3.7940	3.7940	-0.8344	25.68	0.06	-1.500			
0.2779	17787.09	3.7910	3.7910	-0.8359	25.69	0.07	-1.500			
0.2805	17949.70	3.7880	3.7879	-0.8386	25.69	0.07	-1.500			
0.2830	18111.71	3.7850	3.7850	-0.8395	25.70	0.08	-1.500			
0.2855	18272.50	3.7820	3.7820	-0.8381	25.71	0.09	-1.500			
0.2880	18433.37	3.7790	3.7791	-0.8403	25.71	0.09	-1.500			
0.2905	18593.75	3.7760	3.7760	-0.8393	25.72	0.10	-1.500			
0.2930	18753.13	3.7730	3.7730	-0.8445	25.72	0.10	-1.500			
0.2956	18917.61	3.7700	3.7700	-0.8483	25.73	0.11	-1.500			
0.2981	19079.73	3.7670	3.7670	-0.8537	25.74	0.12	-1.500			
0.3007	19245.51	3.7640	3.7640	-0.8547	25.74	0.12	-1.500			
0.3033	19410.88	3.7610	3.7609	-0.8525	25.75	0.13	-1.500			
0.3058	19574.28	3.7580	3.7580	-0.8515	25.75	0.13	-1.500			
0.3084	19737.95	3.7550	3.7550	-0.8515	25.76	0.14	-1.500			
0.3109	19899.99	3.7520	3.7520	-0.8480	25.77	0.15	-1.500			
0.3135	20063.29	3.7490	3.7489	-0.8508	25.77	0.15	-1.500			
0.3160	20224.28	3.7460	3.7461	-0.8505	25.78	0.16	-1.500			
0.3186	20388.89	3.7430	3.7429	-0.8587	25.79	0.17	-1.500			
0.3212	20554.83	3.7400	3.7400	-0.8619	25.80	0.18	-1.500			
0.3238	20721.84	3.7370	3.7370	-0.8591	25.80	0.18	-1.500			
0.3264	20888.50	3.7340	3.7340	-0.8642	25.81	0.19	-1.500			
0.3290	21055.34	3.7310	3.7310	-0.8625	25.82	0.20	-1.500			
0.3316	21220.52	3.7280	3.7279	-0.8573	25.83	0.21	-1.500			
0.3341	21384.58	3.7250	3.7251	-0.8528	25.83	0.21	-1.500			
0.3367	21546.09	3.7220	3.7220	-0.8527	25.84	0.22	-1.500			
0.3392	21709.19	3.7190	3.7190	-0.8554	25.85	0.23	-1.500			
0.3417	21871.44	3.7160	3.7160	-0.8513	25.86	0.24	-1.500			
0.3444	22039.17	3.7130	3.7130	-0.8612	25.87	0.25	-1.500			
0.3470	22205.38	3.7100	3.7100	-0.8641	25.88	0.26	-1.500			
0.3496	22371.73	3.7070	3.7070	-0.8697	25.89	0.27	-1.500			
0.3522	22538.15	3.7040	3.7041	-0.8727	25.90	0.28	-1.500			
0.3548	22705.34	3.7010	3.7010	-0.8762	25.91	0.29	-1.500			
0.3574	22875.08	3.6980	3.6979	-0.8804	25.92	0.30	-1.500			
0.3601	23044.86	3.6950	3.6949	-0.8847	25.92	0.30	-1.500			
0.3627	23215.16	3.6920	3.6920	-0.8907	25.93	0.31	-1.500			
0.3654	23384.69	3.6890	3.6891	-0.8955	25.94	0.32	-1.500			
0.3680	23555.04	3.6860	3.6860	-0.9046	25.94	0.32	-1.500			
0.3708	23729.86	3.6830	3.6830	-0.9168	25.95	0.33	-1.500			
0.3736	23907.46	3.6800	3.6800	-0.9334	25.96	0.34	-1.500			
0.3764	24090.40	3.6770	3.6769	-0.9480	25.96	0.34	-1.500			
0.3793	24273.22	3.6740	3.6740	-0.9602	25.97	0.35	-1.500			
0.3822	24457.71	3.6710	3.6710	-0.9748	25.98	0.36	-1.500			
0.3851	24646.43	3.6680	3.6680	-0.9874	25.99	0.37	-1.500			
0.3881	24835.65	3.6650	3.6650	-1.0048	25.99	0.37	-1.500			
0.3911	25031.45	3.6620	3.6620	-1.0233	26.00	0.38	-1.500			
0.3942	25230.46	3.6590	3.6590	-1.0387	26.01	0.39	-1.500			
0.3973	25430.29	3.6560	3.6561	-1.0687	26.02	0.40	-1.500			
0.4006	25637.32	3.6530	3.6530	-1.0886	26.03	0.41	-1.500			
0.4039	25849.28	3.6500	3.6499	-1.1116	26.04	0.42	-1.500			
0.4073	26064.08	3.6470	3.6471	-1.1402	26.05	0.43	-1.500			
0.4107	26285.23	3.6440	3.6440	-1.1597	26.05	0.43	-1.500			
0.4143	26512.58	3.6410	3.6410	-1.1880	26.06	0.44	-1.500			
0.4178	26739.33	3.6380	3.6380	-1.2241	26.07	0.45	-1.500			
0.4215	26974.13	3.6350	3.6350	-1.2469	26.08	0.46	-1.500			
0.4253	27220.06	3.6320	3.6319	-1.2827	26.08	0.46	-1.500			
0.4292	27468.91	3.6290	3.6290	-1.3142	26.09	0.47	-1.500			
0.4332	27724.05	3.6260	3.6263	-1.3474	26.10	0.48	-1.500			
0.4373	27988.60	3.6230	3.6229	-1.3816	26.11	0.49	-1.500			
0.4415	28253.56	3.6200	3.6200	-1.4145	26.11	0.49	-1.500			
0.4457	28527.48	3.6170	3.6170	-1.4457	26.12	0.50	-1.500			
0.4502	28811.10	3.6140	3.6140	-1.4887	26.13	0.51	-1.500			
0.4547	29100.86	3.6110	3.6110	-1.5171	26.13	0.51	-1.500			
0.4593	29395.56	3.6080	3.6080	-1.5462	26.14	0.52	-1.500			
0.4640	29695.15	3.6050	3.6050	-1.5762	26.15	0.53	-1.500			
0.4687	29999.46	3.6020	3.6020	-1.6102	26.16	0.54	-1.500			
0.4736	30309.84	3.5990	3.5991	-1.6382	26.16	0.54	-1.500			
0.4786	30628.52	3.5960	3.5959	-1.6732	26.17	0.55	-1.500			
0.4836	30952.13	3.5930	3.5930	-1.7034	26.18	0.56	-1.500			
0.4888	31282.24	3.5900	3.5900	-1.7425	26.19	0.57	-1.500			
0.4941	31621.62	3.5870	3.5870	-1.7657	26.19	0.57	-1.500			
0.4995	31964.93	3.5840	3.5840	-1.7919	26.20	0.58	-1.500			
0.5049	32313.16	3.5810	3.5810	-1.8127	26.21	0.59	-1.500			
0.5104	32663.31	3.5780	3.5781	-1.8404	26.21	0.59	-1.500			
0.5159	33017.96	3.5750	3.5750	-1.8702	26.22	0.60	-1.500			
0.5215	33378.56	3.5720	3.5720	-1.8987	26.23	0.61	-1.500			
0.5273	33744.29	3.5690	3.5689	-1.9268	26.23	0.61	-1.500			
0.5331	34121.25	3.5660	3.5662	-1.9618	26.24	0.62	-1.500			
0.5391	34499.97	3.5630	3.5630	-1.9930	26.25	0.63	-1.500			
0.5451	34887.73	3.5600	3.5600	-2.0216	26.26	0.64	-1.500			
0.5512	35274.05	3.5570	3.5570	-2.0329	26.27	0.65	-1.500			
0.5574	35672.41	3.5540	3.5540	-2.0591	26.28	0.66	-1.500			
0.5636	36067.54	3.5510	3.5509	-2.0665	26.29	0.67	-1.500	0.382	0.497	
0.5698	36469.41	3.5480	3.5480	-2.0825	26.30	0.68	-1.500			
0.5761	36870.85	3.5450	3.5449	-2.0896	26.31	0.69	-1.500			
0.5824	37273.93	3.5420	3.5421	-2.1010	26.32	0.70	-1.500			
0.5887	37677.46	3.5390	3.5390	-2.1088	26.33	0.71	-1.500			
0.5951	38084.36	3.5360	3.5359	-2.1046	26.33	0.71	-1.500			
0.6013	38486.30	3.5330	3.5330	-2.0961	26.34	0.72	-1.500			
0.6077	38890.59	3.5300	3.5298	-2.1007	26.35	0.73	-1.500			
0.6140	39295.07	3.5270	3.5269	-2.0871	26.36	0.74	-1.500			
0.6202	39690.68	3.5240	3.5240	-2.0589	26.37	0.75	-1.500			
0.6263	40082.19	3.5210	3.5211	-2.0434	26.38	0.76	-1.500			
0.6324	40476.36	3.5180	3.5179	-2.0280	26.39	0.77	-1.500			
0.6385	40864.35	3.5150	3.5150	-1.9976	26.40	0.78	-1.500			
0.6445	41247.47	3.5120	3.5121	-1.9785	26.41	0.79	-1.500			
0.6504	41624.06	3.5090	3.5090	-1.9568	26.42	0.80	-1.500			
0.6562	41997.47	3.5060	3.5059	-1.9376	26.44	0.82	-1.500			
0.6620	42366.31	3.5030	3.5028	-1.9167	26.45	0.83	-1.500			
0.6677	42732.76	3.5000	3.5000	-1.8892	26.47	0.85	-1.500			
0.6734	43095.69	3.4970	3.4971	-1.8752	26.48	0.86	-1.500			
0.6789	43451.37	3.4940	3.4941	-1.8453	26.50	0.88	-1.500			
0.6845	43806.83	3.4910	3.4909	-1.8215	26.51	0.89	-1.500			
0.6899	44150.83	3.4880	3.4880	-1.8135	26.53	0.91	-1.500			
0.6953	44497.91	3.4850	3.4850	-1.7955	26.54	0.92	-1.500			
0.7007	44842.80	3.4820	3.4819	-1.7800	26.56	0.94	-1.500			
0.7060	45185.81	3.4790	3.4790	-1.7616	26.57	0.95	-1.500			
0.7113	45521.76	3.4760	3.4760	-1.7320	26.59	0.97	-1.500			
0.7165	45854.78	3.4730	3.4730	-1.7124	26.61	0.99	-1.500			
0.7216	46181.13	3.4700	3.4700	-1.6785	26.63	1.01	-1.500			
0.7265	46495.37	3.4670	3.4670	-1.6446	26.65	1.03	-1.500			
0.7314	46811.30	3.4640	3.4641	-1.6282	26.66	1.04	-1.500			
0.7363	47121.48	3.4610	3.4609	-1.6000	26.68	1.06	-1.500			
0.7410	47426.50	3.4580	3.4580	-1.5716	26.70	1.08	-1.500			
0.7457	47725.68	3.4550	3.4550	-1.5472	26.72	1.10	-1.500			
0.7503	48018.46	3.4520	3.4520	-1.5267	26.74	1.12	-1.500			
0.7549	48311.12	3.4490	3.4490	-1.5121	26.76	1.14	-1.500			
0.7593	48596.31	3.4460	3.4460	-1.4838	26.77	1.15	-1.500			
0.7637	48878.83	3.4430	3.4430	-1.4716	26.79	1.17	-1.500			
0.7681	49159.10	3.4400	3.4401	-1.4677	26.81	1.19	-1.500			
0.7725	49441.14	3.4370	3.4368	-1.4531	26.83	1.21	-1.500			
0.7769	49719.99	3.4340	3.4340	-1.4380	26.85	1.23	-1.500			
0.7811	49993.39	3.4310	3.4311	-1.4338	26.87	1.25	-1.500			
0.7854	50268.58	3.4280	3.4280	-1.4270	26.89	1.27	-1.500			
0.7897	50543.84	3.4250	3.4249	-1.4259	26.91	1.29	-1.500			
0.7940	50814.55	3.4220	3.4220	-1.4142	26.94	1.32	-1.500			
0.7983	51088.68	3.4190	3.4190	-1.4045	26.96	1.34	-1.500			
0.8025	51361.52	3.4160	3.4161	-1.3821	26.98	1.36	-1.500			
0.8067	51627.95	3.4130	3.4129	-1.3559	27.00	1.38	-1.500			
0.8107	51882.03	3.4100	3.4100	-1.3254	27.02	1.40	-1.500			
0.8146	52133.76	3.4070	3.4070	-1.2869	27.05	1.43	-1.500			
0.8184	52380.33	3.4040	3.4039	-1.2390	27.07	1.45	-1.500			
0.8221	52612.52	3.4010	3.4010	-1.1899	27.09	1.47	-1.500			
0.8256	52841.42	3.3980	3.3983	-1.1482	27.11	1.49	-1.500			
0.8290	53055.11	3.3950	3.3949	-1.0968	27.13	1.51	-1.500			
0.8322	53258.38	3.3920	3.3920	-1.0418	27.14	1.52	-1.500			
0.8352	53451.78	3.3890	3.3890	-0.9929	27.16	1.54	-1.500			
0.8381	53639.01	3.3860	3.3860	-0.9566	27.18	1.56	-1.500			
0.8409	53816.75	3.3830	3.3831	-0.9218	27.19	1.57	-1.500			
0.8436	53987.80	3.3800	3.3800	-0.8819	27.21	1.59	-1.500			
0.8462	54155.62	3.3770	3.3769	-0.8520	27.22	1.60	-1.500			
0.8487	54315.98	3.3740	3.3740	-0.8152	27.23	1.61	-1.500			
0.8511	54469.80	3.3710	3.3710	-0.7859	27.25	1.63	-1.500			
0.8534	54616.66	3.3680	3.3680	-0.7581	27.26	1.64	-1.500			
0.8556	54757.21	3.3650	3.3649	-0.7299	27.26	1.64	-1.500			
0.8577	54894.34	3.3620	3.3620	-0.7051	27.27	1.65	-1.500			
0.8598	55027.11	3.3590	3.3589	-0.6812	27.28	1.66	-1.500			
0.8618	55157.22	3.3560	3.3561	-0.6632	27.29	1.67	-1.500			
0.8638	55283.06	3.3530	3.3530	-0.6403	27.30	1.68	-1.500			
0.8657	55402.98	3.3500	3.3499	-0.6128	27.31	1.69	-1.500			
0.8675	55516.82	3.3470	3.3471	-0.5929	27.32	1.70	-1.500			
0.8692	55628.88	3.3440	3.3440	-0.5767	27.33	1.71	-1.500			
0.8709	55738.37	3.3410	3.3410	-0.5587	27.34	1.72	-1.500			
0.8726	55843.95	3.3380	3.3380	-0.5418	27.35	1.73	-1.500			
0.8741	55945.54	3.3350	3.3351	-0.5244	27.36	1.74	-1.500			
0.8757	56045.48	3.3320	3.3319	-0.5095	27.37	1.75	-1.500			
0.8772	56142.26	3.3290	3.3289	-0.4918	27.37	1.75	-1.500			
0.8786	56233.14	3.3260	3.3260	-0.4730	27.38	1.76	-1.500			
0.8800	56323.14	3.3230	3.3231	-0.4570	27.38	1.76	-1.500			
0.8814	56409.37	3.3200	3.3200	-0.4427	27.38	1.76	-1.500			
0.8827	56492.28	3.3170	3.3169	-0.4256	27.39	1.77	-1.500			
0.8839	56572.64	3.3140	3.3141	-0.4100	27.39	1.77	-1.500			
0.8851	56649.27	3.3110	3.3110	-0.3969	27.40	1.78	-1.500			
0.8863	56724.14	3.3080	3.3079	-0.3846	27.41	1.79	-1.500			
0.8874	56796.43	3.3050	3.3050	-0.3708	27.42	1.80	-1.500			
0.8885	56867.08	3.3020	3.3021	-0.3600	27.43	1.81	-1.500			
0.8896	56935.26	3.2990	3.2990	-0.3463	27.43	1.81	-1.500			
0.8906	57000.87	3.2960	3.2961	-0.3356	27.44	1.82	-1.500			
0.8916	57063.43	3.2930	3.2930	-0.3247	27.45	1.83	-1.500			
0.8926	57124.09	3.2900	3.2900	-0.3132	27.45	1.83	-1.500			
0.8935	57183.32	3.2870	3.2869	-0.3021	27.46	1.84	-1.500			
0.8944	57240.29	3.2840	3.2839	-0.2926	27.47	1.85	-1.500			
0.8952	57295.66	3.2810	3.2811	-0.2838	27.47	1.85	-1.500			
0.8961	57349.45	3.2780	3.2780	-0.2744	27.48	1.86	-1.500			
0.8969	57400.87	3.2750	3.2749	-0.2639	27.48	1.86	-1.500			
0.8977	57450.67	3.2720	3.2721	-0.2560	27.49	1.87	-1.500			
0.8984	57498.70	3.2690	3.2691	-0.2483	27.49	1.87	-1.500			
0.8991	57545.53	3.2660	3.2660	-0.2412	27.50	1.88	-1.500			
0.8999	57590.69	3.2630	3.2628	-0.2332	27.50	1.88	-1.500			
0.9005	57634.99	3.2600	3.2600	-0.2256	27.51	1.89	-1.500			
0.9012	57677.73	3.2570	3.2570	-0.2184	27.51	1.89	-1.500			
0.9019	57718.91	3.2540	3.2541	-0.2129	27.51	1.89	-1.500			
0.9025	57759.11	3.2510	3.2509	-0.2060	27.52	1.90	-1.500			
0.9031	57797.50	3.2480	3.2480	-0.1996	27.52	1.90	-1.500			
0.9037	57834.74	3.2450	3.2449	-0.1943	27.52	1.90	-1.500			
0.9042	57871.33	3.2420	3.2421	-0.1894	27.53	1.91	-1.500			
0.9048	57907.36	3.2390	3.2391	-0.1859	27.53	1.91	-1.500			
0.9054	57943.16	3.2360	3.2359	-0.1812	27.53	1.91	-1.500			
0.9059	57977.57	3.2330	3.2331	-0.1769	27.54	1.92	-1.500			
0.9064	58010.94	3.2300	3.2300	-0.1717	27.54	1.92	-1.500			
0.9069	58043.35	3.2270	3.2272	-0.1680	27.54	1.92	-1.500			
0.9074	58075.13	3.2240	3.2239	-0.1646	27.55	1.93	-1.500			
0.9079	58106.03	3.2210	3.2211	-0.1604	27.55	1.93	-1.500			
0.9084	58136.41	3.2180	3.2179	-0.1574	27.55	1.93	-1.500			
0.9089	58166.63	3.2150	3.2151	-0.1529	27.56	1.94	-1.500			
0.9093	58195.87	3.2120	3.2120	-0.1503	27.56	1.94	-1.500			
0.9098	58224.17	3.2090	3.2090	-0.1466	27.56	1.94	-1.500			
0.9102	58251.98	3.2060	3.2060	-0.1431	27.57	1.95	-1.500			
0.9106	58278.96	3.2030	3.2029	-0.1393	27.57	1.95	-1.500			
0.9110	58304.87	3.2000	3.2001	-0.1372	27.57	1.95	-1.500			
0.9114	58330.84	3.1970	3.1970	-0.1352	27.58	1.96	-1.500			
0.9118	58356.77	3.1940	3.1940	-0.1330	27.58	1.96	-1.500			
0.9122	58382.43	3.1910	3.1908	-0.1309	27.59	1.97	-1.500			
0.9126	58407.08	3.1880	3.1882	-0.1281	27.59	1.97	-1.500			
0.9130	58431.57	3.1850	3.1851	-0.1266	27.59	1.97	-1.500			
0.9134	58455.66	3.1820	3.1820	-0.1243	27.60	1.98	-1.500			
0.9137	58479.51	3.1790	3.1790	-0.1223	27.60	1.98	-1.500			
0.9141	58502.24	3.1760	3.1759	-0.1191	27.60	1.98	-1.500			
0.9145	58524.90	3.1730	3.1731	-0.1177	27.61	1.99	-1.500			
0.9148	58547.45	3.1700	3.1700	-0.1164	27.61	1.99	-1.500			
0.9151	58569.58	3.1670	3.1670	-0.1151	27.61	1.99	-1.500			
0.9155	58591.51	3.1640	3.1639	-0.1137	27.61	1.99	-1.500			
0.9158	58613.31	3.1610	3.1609	-0.1118	27.62	2.00	-1.500			
0.9162	58634.53	3.1580	3.1580	-0.1101	27.62	2.00	-1.500			
0.9165	58655.54	3.1550	3.1551	-0.1085	27.62	2.00	-1.500			
0.9168	58676.48	3.1520	3.1521	-0.1071	27.63	2.01	-1.500			
0.9171	58696.71	3.1490	3.1490	-0.1059	27.63	2.01	-1.500			
0.9174	58716.69	3.1460	3.1460	-0.1042	27.63	2.01	-1.500			
0.9178	58736.65	3.1430	3.1430	-0.1027	27.63	2.01	-1.500			
0.9181	58756.11	3.1400	3.1399	-0.1012	27.64	2.02	-1.500			
0.9184	58775.40	3.1370	3.1370	-0.1001	27.64	2.02	-1.500			
0.9187	58794.64	3.1340	3.1341	-0.0991	27.64	2.02	-1.500			
0.9190	58813.39	3.1310	3.1310	-0.0982	27.65	2.03	-1.500			
0.9193	58832.02	3.1280	3.1281	-0.0971	27.65	2.03	-1.500			
0.9195	58850.58	3.1250	3.1249	-0.0962	27.65	2.03	-1.500			
0.9198	58868.78	3.1220	3.1219	-0.0952	27.65	2.03	-1.500			
0.9201	58887.14	3.1190	3.1190	-0.0941	27.66	2.04	-1.500			
0.9204	58905.37	3.1160	3.1160	-0.0936	27.66	2.04	-1.500			
0.9207	58923.18	3.1130	3.1130	-0.0925	27.66	2.04	-1.500			
0.9210	58940.88	3.1100	3.1100	-0.0914	27.67	2.05	-1.500			
0.9212	58958.19	3.1070	3.1071	-0.0905	27.67	2.05	-1.500			
0.9215	58975.32	3.1040	3.1040	-0.0892	27.67	2.05	-1.500			
0.9218	58992.38	3.1010	3.1010	-0.0884	27.68	2.06	-1.500			
0.9220	59009.28	3.0980	3.0980	-0.0874	27.68	2.06	-1.500			
0.9223	59025.98	3.0950	3.0950	-0.0865	27.68	2.06	-1.500			
0.9225	59042.44	3.0920	3.0922	-0.0860	27.69	2.07	-1.500			
0.9228	59058.88	3.0890	3.0890	-0.0853	27.69	2.07	-1.500			
0.9230	59075.10	3.0860	3.0860	-0.0845	27.69	2.07	-1.500			
0.9233	59091.20	3.0830	3.0829	-0.0842	27.70	2.08	-1.500			
0.9235	59107.14	3.0800	3.0800	-0.0835	27.70	2.08	-1.500			
0.9238	59123.36	3.0770	3.0769	-0.0829	27.70	2.08	-1.500			
0.9241	59139.24	3.0740	3.0741	-0.0824	27.70	2.08	-1.500			
0.9243	59155.26	3.0710	3.0710	-0.0821	27.71	2.09	-1.500			
0.9245	59170.92	3.0680	3.0680	-0.0813	27.71	2.09	-1.500			
0.9248	59186.48	3.0650	3.0651	-0.0805	27.71	2.09	-1.500			
0.9250	59201.77	3.0620	3.0620	-0.0798	27.72	2.10	-1.500			
0.9253	59217.01	3.0590	3.0589	-0.0790	27.72	2.10	-1.500			
0.9255	59231.99	3.0560	3.0559	-0.0782	27.72	2.10	-1.500			
0.9257	59246.86	3.0530	3.0529	-0.0779	27.73	2.11	-1.500			
0.9260	59261.68	3.0500	3.0502	-0.0774	27.73	2.11	-1.500			
0.9262	59276.51	3.0470	3.0471	-0.0771	27.73	2.11	-1.500			
0.9264	59291.37	3.0440	3.0438	-0.0765	27.73	2.11	-1.500			
0.9267	59306.06	3.0410	3.0412	-0.0761	27.74	2.12	-1.500			
0.9269	59320.71	3.0380	3.0381	-0.0754	27.74	2.12	-1.500			
0.9271	59335.12	3.0350	3.0351	-0.0747	27.74	2.12	-1.500			
0.9273	59349.60	3.0320	3.0320	-0.0742	27.74	2.12	-1.500			
0.9276	59363.58	3.0290	3.0291	-0.0739	27.75	2.13	-1.500			
0.9278	59377.51	3.0260	3.0260	-0.0730	27.75	2.13	-1.500			
0.9280	59391.50	3.0230	3.0229	-0.0727	27.75	2.13	-1.500			
0.9282	59405.48	3.0200	3.0199	-0.0723	27.75	2.13	-1.500			
0.9284	59419.31	3.0170	3.0170	-0.0719	27.76	2.14	-1.500			
0.9286	59433.08	3.0140	3.0140	-0.0716	27.76	2.14	-1.500			
0.9289	59446.80	3.0110	3.0111	-0.0713	27.76	2.14	-1.500			
0.9291	59460.63	3.0080	3.0081	-0.0703	27.77	2.15	-1.500			
0.9293	59474.04	3.0050	3.0049	-0.0694	27.77	2.15	-1.500			
