Ah_balance (normalized)	Ah_balance (mAh)	Voltage - fit (V)	Voltage -  interpolate (V)	dQ/dV (1/V)	Temperature (°C)	Temperature - diff (°C)	Current (C)	R_DC 0ms (mOhm)	R_DC 50ms (mOhm)	R_DC 50 ms PEC (mOhm)
0.2703	17297.46	3.9910	3.9910	0.8265	27.28	1.29	1.500			
0.2728	17458.56	3.9880	3.9880	0.8416	27.28	1.29	1.500			
0.2753	17622.40	3.9850	3.9850	0.8451	27.27	1.28	1.500			
0.2779	17784.61	3.9820	3.9820	0.8468	27.26	1.27	1.500			
0.2804	17947.44	3.9790	3.9791	0.8500	27.26	1.27	1.500			
0.2830	18110.73	3.9760	3.9759	0.8509	27.25	1.26	1.500			
0.2855	18273.60	3.9730	3.9730	0.8563	27.24	1.25	1.500			
0.2881	18437.49	3.9700	3.9700	0.8610	27.24	1.25	1.500			
0.2907	18604.54	3.9670	3.9670	0.8658	27.23	1.24	1.500			
0.2933	18771.62	3.9640	3.9640	0.8678	27.23	1.24	1.500			
0.2959	18939.08	3.9610	3.9610	0.8718	27.22	1.23	1.500			
0.2985	19106.43	3.9580	3.9580	0.8749	27.21	1.22	1.500			
0.3012	19273.94	3.9550	3.9550	0.8777	27.21	1.22	1.500			
0.3038	19442.19	3.9520	3.9520	0.8782	27.20	1.21	1.500			
0.3064	19611.03	3.9490	3.9490	0.8830	27.19	1.20	1.500			
0.3091	19781.19	3.9460	3.9460	0.8908	27.19	1.20	1.500			
0.3118	19953.54	3.9430	3.9430	0.8936	27.18	1.19	1.500			
0.3145	20125.33	3.9400	3.9400	0.8968	27.18	1.19	1.500			
0.3171	20296.64	3.9370	3.9370	0.9021	27.17	1.18	1.500			
0.3199	20470.64	3.9340	3.9340	0.9093	27.17	1.18	1.500			
0.3226	20647.05	3.9310	3.9309	0.9133	27.16	1.17	1.500			
0.3253	20821.56	3.9280	3.9279	0.9192	27.16	1.17	1.500			
0.3281	20998.69	3.9250	3.9251	0.9234	27.15	1.16	1.500			
0.3309	21177.82	3.9220	3.9220	0.9283	27.14	1.15	1.500			
0.3337	21355.37	3.9190	3.9189	0.9353	27.14	1.15	1.500			
0.3365	21534.49	3.9160	3.9161	0.9441	27.13	1.14	1.500			
0.3393	21716.15	3.9130	3.9130	0.9520	27.13	1.14	1.500			
0.3422	21900.93	3.9100	3.9100	0.9590	27.12	1.13	1.500			
0.3451	22085.60	3.9070	3.9070	0.9651	27.11	1.12	1.500			
0.3480	22273.10	3.9040	3.9041	0.9733	27.10	1.11	1.500			
0.3510	22461.73	3.9010	3.9009	0.9798	27.10	1.11	1.500			
0.3539	22648.94	3.8980	3.8980	0.9822	27.09	1.10	1.500			
0.3568	22836.27	3.8950	3.8950	0.9895	27.08	1.09	1.500			
0.3598	23027.81	3.8920	3.8921	0.9986	27.08	1.09	1.500			
0.3628	23220.60	3.8890	3.8889	1.0105	27.07	1.08	1.500			
0.3659	23415.44	3.8860	3.8860	1.0150	27.06	1.07	1.500			
0.3689	23609.97	3.8830	3.8831	1.0305	27.05	1.06	1.500			
0.3720	23809.60	3.8800	3.8800	1.0396	27.04	1.05	1.500			
0.3752	24011.03	3.8770	3.8770	1.0499	27.03	1.04	1.500			
0.3783	24212.84	3.8740	3.8740	1.0599	27.02	1.03	1.500			
0.3815	24419.14	3.8710	3.8711	1.0669	27.01	1.02	1.500			
0.3847	24622.77	3.8680	3.8680	1.0783	27.01	1.02	1.500			
0.3880	24830.78	3.8650	3.8649	1.0926	26.99	1.00	1.500			
0.3912	25039.14	3.8620	3.8620	1.1044	26.98	0.99	1.500			
0.3946	25254.73	3.8590	3.8589	1.1206	26.97	0.98	1.500			
0.3980	25470.78	3.8560	3.8561	1.1306	26.96	0.97	1.500			
0.4014	25689.74	3.8530	3.8530	1.1420	26.95	0.96	1.500			
0.4049	25910.79	3.8500	3.8500	1.1605	26.94	0.95	1.500			
0.4083	26133.11	3.8470	3.8469	1.1702	26.93	0.94	1.500			
0.4118	26357.44	3.8440	3.8440	1.1877	26.92	0.93	1.500			
0.4154	26586.56	3.8410	3.8411	1.2122	26.91	0.92	1.500			
0.4191	26823.25	3.8380	3.8379	1.2319	26.90	0.91	1.500			
0.4228	27060.91	3.8350	3.8350	1.2537	26.88	0.89	1.500			
0.4266	27303.46	3.8320	3.8320	1.2724	26.87	0.88	1.500			
0.4305	27549.46	3.8290	3.8290	1.2889	26.86	0.87	1.500			
0.4344	27798.60	3.8260	3.8259	1.3134	26.85	0.86	1.500			
0.4383	28051.76	3.8230	3.8230	1.3296	26.83	0.84	1.500			
0.4423	28308.20	3.8200	3.8200	1.3520	26.82	0.83	1.500			
0.4464	28571.50	3.8170	3.8169	1.3703	26.81	0.82	1.500			
0.4505	28832.29	3.8140	3.8142	1.3933	26.79	0.80	1.500			
0.4547	29103.17	3.8110	3.8111	1.4201	26.78	0.79	1.500			
0.4590	29378.81	3.8080	3.8079	1.4458	26.77	0.78	1.500			
0.4634	29658.18	3.8050	3.8051	1.4706	26.76	0.77	1.500			
0.4679	29947.05	3.8020	3.8020	1.4899	26.74	0.75	1.500			
0.4724	30235.27	3.7990	3.7990	1.5105	26.73	0.74	1.500			
0.4769	30524.39	3.7960	3.7960	1.5379	26.72	0.73	1.500			
0.4816	30819.87	3.7930	3.7930	1.5749	26.70	0.71	1.500			
0.4864	31126.82	3.7900	3.7900	1.6111	26.69	0.70	1.500			
0.4913	31444.56	3.7870	3.7868	1.6330	26.67	0.68	1.500	0.354	0.491	
0.4963	31762.29	3.7840	3.7841	1.6504	26.66	0.67	1.500			
0.5013	32081.77	3.7810	3.7810	1.6570	26.64	0.65	1.500			
0.5062	32399.18	3.7780	3.7780	1.6641	26.63	0.64	1.500			
0.5112	32717.70	3.7750	3.7750	1.6691	26.61	0.62	1.500			
0.5163	33040.82	3.7720	3.7720	1.6775	26.59	0.60	1.500			
0.5213	33364.22	3.7690	3.7690	1.6894	26.58	0.59	1.500			
0.5264	33688.75	3.7660	3.7660	1.7013	26.56	0.57	1.500			
0.5315	34017.19	3.7630	3.7629	1.7040	26.55	0.56	1.500			
0.5366	34345.05	3.7600	3.7600	1.7159	26.53	0.54	1.500			
0.5418	34675.89	3.7570	3.7570	1.7290	26.52	0.53	1.500			
0.5470	35004.94	3.7540	3.7540	1.7352	26.50	0.51	1.500			
0.5522	35340.22	3.7510	3.7510	1.7627	26.49	0.50	1.500			
0.5575	35680.46	3.7480	3.7480	1.8043	26.47	0.48	1.500			
0.5630	36030.22	3.7450	3.7450	1.8404	26.46	0.47	1.500			
0.5686	36390.14	3.7420	3.7420	1.8715	26.44	0.45	1.500			
0.5743	36753.73	3.7390	3.7391	1.9102	26.42	0.43	1.500			
0.5800	37121.80	3.7360	3.7360	1.9423	26.41	0.42	1.500			
0.5859	37495.22	3.7330	3.7330	1.9751	26.39	0.40	1.500			
0.5919	37879.23	3.7300	3.7300	2.0283	26.38	0.39	1.500			
0.5981	38278.87	3.7270	3.7270	2.0955	26.36	0.37	1.500			
0.6044	38684.02	3.7240	3.7240	2.1421	26.34	0.35	1.500			
0.6109	39100.68	3.7210	3.7211	2.1959	26.32	0.33	1.500			
0.6176	39527.91	3.7180	3.7180	2.2438	26.30	0.31	1.500			
0.6244	39958.66	3.7150	3.7150	2.2479	26.28	0.29	1.500			
0.6312	40395.87	3.7120	3.7120	2.2427	26.27	0.28	1.500			
0.6379	40827.95	3.7090	3.7090	2.1845	26.25	0.26	1.500			
0.6444	41243.10	3.7060	3.7060	2.0727	26.23	0.24	1.500			
0.6505	41629.09	3.7030	3.7030	1.9584	26.22	0.23	1.500			
0.6561	41993.11	3.7000	3.7000	1.8438	26.20	0.21	1.500			
0.6615	42333.17	3.6970	3.6970	1.7315	26.19	0.20	1.500			
0.6665	42655.44	3.6940	3.6941	1.6499	26.18	0.19	1.500			
0.6713	42964.50	3.6910	3.6909	1.5630	26.17	0.18	1.500			
0.6759	43254.92	3.6880	3.6880	1.4927	26.16	0.17	1.500			
0.6801	43528.79	3.6850	3.6851	1.4214	26.15	0.16	1.500			
0.6843	43794.35	3.6820	3.6819	1.3737	26.14	0.15	1.500			
0.6883	44051.05	3.6790	3.6790	1.3383	26.13	0.14	1.500			
0.6922	44299.60	3.6760	3.6760	1.3051	26.12	0.13	1.500			
0.6960	44544.82	3.6730	3.6730	1.2881	26.11	0.12	1.500			
0.6999	44792.40	3.6700	3.6700	1.2794	26.11	0.12	1.500			
0.7036	45032.48	3.6670	3.6670	1.2748	26.10	0.11	1.500			
0.7075	45278.50	3.6640	3.6639	1.2773	26.09	0.10	1.500			
0.7113	45523.43	3.6610	3.6610	1.2721	26.08	0.09	1.500			
0.7151	45769.22	3.6580	3.6580	1.2702	26.07	0.08	1.500			
0.7190	46016.69	3.6550	3.6550	1.2620	26.06	0.07	1.500			
0.7228	46258.13	3.6520	3.6520	1.2515	26.05	0.06	1.500			
0.7265	46496.13	3.6490	3.6490	1.2391	26.05	0.06	1.500			
0.7302	46730.10	3.6460	3.6460	1.2268	26.04	0.05	1.500			
0.7338	46963.83	3.6430	3.6430	1.2229	26.03	0.04	1.500			
0.7375	47198.71	3.6400	3.6400	1.2150	26.02	0.03	1.500			
0.7411	47432.16	3.6370	3.6370	1.2116	26.01	0.02	1.500			
0.7448	47665.33	3.6340	3.6340	1.2026	26.01	0.02	1.500			
0.7484	47895.83	3.6310	3.6310	1.1926	26.00	0.01	1.500			
0.7519	48124.08	3.6280	3.6280	1.1837	25.99	0.00	1.500			
0.7555	48351.25	3.6250	3.6250	1.1695	25.99	-0.00	1.500			
0.7590	48574.29	3.6220	3.6220	1.1526	25.98	-0.01	1.500			
0.7624	48795.23	3.6190	3.6190	1.1356	25.98	-0.01	1.500			
0.7658	49012.40	3.6160	3.6160	1.1138	25.97	-0.02	1.500			
0.7691	49224.84	3.6130	3.6130	1.0901	25.97	-0.02	1.500			
0.7724	49432.27	3.6100	3.6100	1.0593	25.97	-0.02	1.500			
0.7755	49632.83	3.6070	3.6071	1.0360	25.97	-0.02	1.500			
0.7786	49830.10	3.6040	3.6040	1.0102	25.96	-0.03	1.500			
0.7816	50022.59	3.6010	3.6010	0.9766	25.96	-0.03	1.500			
0.7845	50207.61	3.5980	3.5981	0.9403	25.96	-0.03	1.500			
0.7873	50387.83	3.5950	3.5950	0.8941	25.96	-0.03	1.500			
0.7899	50556.74	3.5920	3.5920	0.8365	25.97	-0.02	1.500			
0.7924	50716.70	3.5890	3.5890	0.7645	25.97	-0.02	1.500			
0.7946	50855.28	3.5860	3.5861	0.6789	25.97	-0.02	1.500			
0.7966	50980.27	3.5830	3.5830	0.5957	25.98	-0.01	1.500			
0.7982	51085.66	3.5800	3.5801	0.5104	25.98	-0.01	1.500			
0.7996	51171.72	3.5770	3.5769	0.4338	25.98	-0.01	1.500			
0.8007	51245.37	3.5740	3.5739	0.3743	25.98	-0.01	1.500			
0.8017	51306.72	3.5710	3.5709	0.3214	25.98	-0.01	1.500			
0.8025	51361.85	3.5680	3.5681	0.2835	25.98	-0.01	1.500			
0.8033	51410.32	3.5650	3.5650	0.2475	25.98	-0.01	1.500			
0.8040	51454.06	3.5620	3.5620	0.2234	25.98	-0.01	1.500			
0.8046	51492.86	3.5590	3.5590	0.2006	25.99	-0.00	1.500			
0.8051	51528.29	3.5560	3.5561	0.1811	25.99	-0.00	1.500			
0.8056	51561.50	3.5530	3.5530	0.1649	25.99	-0.00	1.500			
0.8061	51591.14	3.5500	3.5500	0.1500	25.99	-0.00	1.500			
0.8065	51618.21	3.5470	3.5470	0.1349	25.99	-0.00	1.500			
0.8069	51642.73	3.5440	3.5439	0.1202	25.99	-0.00	1.500			
0.8073	51664.44	3.5410	3.5410	0.1060	25.99	-0.00	1.500			
0.8076	51683.42	3.5380	3.5380	0.0917	25.99	-0.00	1.500			
0.8078	51699.96	3.5350	3.5353	0.0777	25.99	-0.00	1.500			
0.8080	51713.46	3.5320	3.5321	0.0630	25.99	-0.00	1.500			
0.8082	51724.45	3.5290	3.5295	0.0474	25.99	0.00	1.500			
0.8083	51732.06	3.5260	3.5269	0.0319	25.99	0.00	1.500			
