Ah_balance (normalized)	Ah_balance (mAh)	Voltage - fit (V)	Voltage -  interpolate (V)	dQ/dV (1/V)	Temperature (°C)	Temperature - diff (°C)	Current (C)	R_DC 0ms (mOhm)	R_DC 50ms (mOhm)	R_DC 50 ms PEC (mOhm)
0.2838	18162.45	3.9830	3.9830	0.8464	27.14	1.18	1.500			
0.2863	18324.84	3.9800	3.9800	0.8503	27.14	1.18	1.500			
0.2889	18491.06	3.9770	3.9770	0.8569	27.13	1.17	1.500			
0.2915	18655.57	3.9740	3.9740	0.8569	27.13	1.17	1.500			
0.2941	18819.44	3.9710	3.9711	0.8599	27.12	1.16	1.500			
0.2966	18984.82	3.9680	3.9680	0.8636	27.12	1.16	1.500			
0.2992	19151.77	3.9650	3.9649	0.8656	27.11	1.15	1.500			
0.3018	19317.53	3.9620	3.9620	0.8628	27.11	1.15	1.500			
0.3044	19482.31	3.9590	3.9591	0.8682	27.11	1.15	1.500			
0.3070	19649.56	3.9560	3.9560	0.8787	27.10	1.14	1.500			
0.3097	19817.68	3.9530	3.9529	0.8835	27.10	1.14	1.500			
0.3123	19988.97	3.9500	3.9500	0.8857	27.09	1.13	1.500			
0.3150	20160.20	3.9470	3.9470	0.8933	27.09	1.13	1.500			
0.3177	20333.30	3.9440	3.9440	0.8980	27.09	1.13	1.500			
0.3204	20506.87	3.9410	3.9410	0.9013	27.08	1.12	1.500			
0.3231	20677.88	3.9380	3.9379	0.9043	27.08	1.12	1.500			
0.3258	20851.20	3.9350	3.9350	0.9060	27.08	1.12	1.500			
0.3285	21026.02	3.9320	3.9320	0.9151	27.07	1.11	1.500			
0.3313	21203.05	3.9290	3.9290	0.9196	27.07	1.11	1.500			
0.3341	21380.23	3.9260	3.9260	0.9196	27.07	1.11	1.500			
0.3368	21557.51	3.9230	3.9230	0.9241	27.06	1.10	1.500			
0.3396	21734.21	3.9200	3.9199	0.9283	27.06	1.10	1.500			
0.3424	21912.22	3.9170	3.9170	0.9332	27.06	1.10	1.500			
0.3452	22093.28	3.9140	3.9140	0.9377	27.05	1.09	1.500			
0.3480	22272.22	3.9110	3.9110	0.9499	27.05	1.09	1.500			
0.3509	22456.63	3.9080	3.9080	0.9601	27.05	1.09	1.500			
0.3538	22642.73	3.9050	3.9049	0.9626	27.04	1.08	1.500			
0.3567	22827.14	3.9020	3.9021	0.9672	27.04	1.08	1.500			
0.3596	23013.47	3.8990	3.8991	0.9736	27.04	1.08	1.500			
0.3625	23200.62	3.8960	3.8959	0.9852	27.03	1.07	1.500			
0.3655	23391.42	3.8930	3.8930	0.9915	27.03	1.07	1.500			
0.3684	23580.35	3.8900	3.8901	0.9976	27.03	1.07	1.500			
0.3715	23773.80	3.8870	3.8870	1.0133	27.02	1.06	1.500			
0.3745	23970.44	3.8840	3.8840	1.0241	27.02	1.06	1.500			
0.3776	24167.12	3.8810	3.8809	1.0293	27.02	1.06	1.500			
0.3807	24365.76	3.8780	3.8780	1.0371	27.02	1.06	1.500			
0.3838	24564.90	3.8750	3.8751	1.0483	27.01	1.05	1.500			
0.3870	24768.57	3.8720	3.8720	1.0607	27.01	1.05	1.500			
0.3902	24972.37	3.8690	3.8690	1.0698	27.01	1.05	1.500			
0.3934	25178.24	3.8660	3.8661	1.0821	27.00	1.04	1.500			
0.3967	25387.10	3.8630	3.8630	1.0996	27.00	1.04	1.500			
0.4000	25599.88	3.8600	3.8600	1.1155	26.99	1.03	1.500			
0.4034	25816.18	3.8570	3.8570	1.1271	26.98	1.02	1.500			
0.4068	26032.29	3.8540	3.8540	1.1428	26.98	1.02	1.500			
0.4102	26253.79	3.8510	3.8511	1.1643	26.97	1.01	1.500			
0.4137	26478.78	3.8480	3.8479	1.1818	26.96	1.00	1.500			
0.4173	26706.66	3.8450	3.8449	1.2012	26.95	0.99	1.500			
0.4209	26938.60	3.8420	3.8420	1.2236	26.94	0.98	1.500			
0.4247	27179.70	3.8390	3.8390	1.2397	26.94	0.98	1.500			
0.4284	27419.58	3.8360	3.8360	1.2564	26.93	0.97	1.500			
0.4322	27658.99	3.8330	3.8330	1.2784	26.92	0.96	1.500			
0.4360	27906.37	3.8300	3.8301	1.3027	26.91	0.95	1.500			
0.4400	28157.52	3.8270	3.8268	1.3265	26.90	0.94	1.500			
0.4440	28413.46	3.8240	3.8241	1.3569	26.89	0.93	1.500			
0.4481	28677.27	3.8210	3.8211	1.3853	26.89	0.93	1.500			
0.4523	28948.30	3.8180	3.8179	1.4182	26.88	0.92	1.500			
0.4566	29222.35	3.8150	3.8150	1.4485	26.87	0.91	1.500			
0.4610	29503.00	3.8120	3.8120	1.4791	26.87	0.91	1.500			
0.4655	29790.51	3.8090	3.8090	1.5138	26.86	0.90	1.500			
0.4700	30082.84	3.8060	3.8061	1.5476	26.85	0.89	1.500			
0.4748	30384.37	3.8030	3.8030	1.5778	26.84	0.88	1.500			
0.4795	30689.37	3.8000	3.7999	1.6190	26.82	0.86	1.500			
0.4844	31003.54	3.7970	3.7971	1.6598	26.81	0.85	1.500			
0.4895	31325.71	3.7940	3.7937	1.7008	26.80	0.84	1.500			
0.4946	31656.04	3.7910	3.7910	1.7515	26.78	0.82	1.500			
0.5000	31997.92	3.7880	3.7880	1.7685	26.77	0.81	1.500			
0.5053	32340.78	3.7850	3.7850	1.8114	26.75	0.79	1.500			
0.5108	32691.71	3.7820	3.7822	1.8406	26.73	0.77	1.500			
0.5164	33048.37	3.7790	3.7789	1.8657	26.72	0.76	1.500			
0.5220	33408.56	3.7760	3.7761	1.9015	26.70	0.74	1.500			
0.5277	33774.14	3.7730	3.7731	1.9261	26.69	0.73	1.500			
0.5336	34149.24	3.7700	3.7697	1.9611	26.67	0.71	1.500	0.358	0.455	
0.5396	34531.82	3.7670	3.7668	1.9675	26.66	0.70	1.500			
0.5455	34910.12	3.7640	3.7641	1.9625	26.64	0.68	1.500			
0.5513	35284.81	3.7610	3.7611	1.9445	26.63	0.67	1.500			
0.5571	35657.43	3.7580	3.7579	1.9290	26.61	0.65	1.500			
0.5629	36025.58	3.7550	3.7549	1.9284	26.59	0.63	1.500			
0.5687	36395.65	3.7520	3.7521	1.9285	26.58	0.62	1.500			
0.5746	36771.98	3.7490	3.7490	1.9077	26.56	0.60	1.500			
0.5802	37133.51	3.7460	3.7461	1.8951	26.55	0.59	1.500			
0.5858	37488.95	3.7430	3.7431	1.8984	26.53	0.57	1.500			
0.5915	37855.50	3.7400	3.7400	1.9218	26.51	0.55	1.500			
0.5973	38228.54	3.7370	3.7370	1.9447	26.50	0.54	1.500			
0.6032	38605.42	3.7340	3.7341	1.9893	26.48	0.52	1.500			
0.6092	38986.58	3.7310	3.7310	2.0281	26.46	0.50	1.500			
0.6154	39382.46	3.7280	3.7279	2.0830	26.45	0.49	1.500			
0.6217	39791.54	3.7250	3.7250	2.1294	26.44	0.48	1.500			
0.6282	40203.37	3.7220	3.7220	2.1892	26.42	0.46	1.500			
0.6348	40625.94	3.7190	3.7190	2.2332	26.41	0.45	1.500			
0.6416	41060.29	3.7160	3.7161	2.3132	26.40	0.44	1.500			
0.6486	41511.98	3.7130	3.7130	2.3846	26.38	0.42	1.500			
0.6559	41976.96	3.7100	3.7100	2.4545	26.36	0.40	1.500			
0.6633	42453.53	3.7070	3.7070	2.5280	26.34	0.38	1.500			
0.6710	42947.01	3.7040	3.7040	2.5985	26.32	0.36	1.500			
0.6790	43455.18	3.7010	3.7010	2.6105	26.30	0.34	1.500			
0.6868	43954.64	3.6980	3.6980	2.5400	26.28	0.32	1.500			
0.6944	44440.36	3.6950	3.6951	2.4175	26.26	0.30	1.500			
0.7014	44892.70	3.6920	3.6920	2.2638	26.25	0.29	1.500			
0.7080	45312.19	3.6890	3.6890	2.1029	26.24	0.28	1.500			
0.7139	45692.06	3.6860	3.6859	1.9256	26.23	0.27	1.500			
0.7195	46046.81	3.6830	3.6831	1.7904	26.22	0.26	1.500			
0.7246	46377.33	3.6800	3.6799	1.6675	26.21	0.25	1.500			
0.7294	46679.33	3.6770	3.6770	1.5624	26.20	0.24	1.500			
0.7338	46960.92	3.6740	3.6741	1.4664	26.19	0.23	1.500			
0.7381	47235.39	3.6710	3.6710	1.4046	26.18	0.22	1.500			
0.7421	47496.66	3.6680	3.6680	1.3600	26.17	0.21	1.500			
0.7461	47747.47	3.6650	3.6650	1.3107	26.16	0.20	1.500			
0.7499	47994.85	3.6620	3.6620	1.2857	26.15	0.19	1.500			
0.7537	48236.53	3.6590	3.6590	1.2759	26.15	0.19	1.500			
0.7574	48476.08	3.6560	3.6561	1.2660	26.14	0.18	1.500			
0.7612	48717.12	3.6530	3.6530	1.2719	26.13	0.17	1.500			
0.7650	48960.92	3.6500	3.6499	1.2826	26.12	0.16	1.500			
0.7689	49208.57	3.6470	3.6470	1.2946	26.11	0.15	1.500			
0.7728	49461.20	3.6440	3.6439	1.3067	26.10	0.14	1.500			
0.7768	49713.85	3.6410	3.6410	1.3070	26.09	0.13	1.500			
0.7807	49965.59	3.6380	3.6381	1.3035	26.08	0.12	1.500			
0.7846	50216.37	3.6350	3.6350	1.3060	26.07	0.11	1.500			
0.7885	50466.18	3.6320	3.6319	1.3035	26.06	0.10	1.500			
0.7924	50714.88	3.6290	3.6290	1.2983	26.05	0.09	1.500			
0.7963	50964.51	3.6260	3.6260	1.2964	26.05	0.09	1.500			
0.8003	51218.18	3.6230	3.6230	1.2920	26.04	0.08	1.500			
0.8041	51464.95	3.6200	3.6201	1.2835	26.03	0.07	1.500			
0.8079	51708.36	3.6170	3.6170	1.2787	26.02	0.06	1.500			
0.8118	51952.36	3.6140	3.6140	1.2713	26.02	0.06	1.500			
0.8155	52195.10	3.6110	3.6110	1.2618	26.01	0.05	1.500			
0.8193	52437.41	3.6080	3.6081	1.2544	26.00	0.04	1.500			
0.8231	52680.22	3.6050	3.6050	1.2459	25.99	0.03	1.500			
0.8269	52920.35	3.6020	3.6020	1.2263	25.99	0.03	1.500			
0.8305	53152.82	3.5990	3.5990	1.2058	25.98	0.02	1.500			
0.8341	53381.51	3.5960	3.5960	1.1865	25.97	0.01	1.500			
0.8376	53606.98	3.5930	3.5931	1.1712	25.96	0.00	1.500			
0.8411	53829.59	3.5900	3.5899	1.1591	25.96	0.00	1.500			
0.8446	54051.35	3.5870	3.5871	1.1461	25.96	0.00	1.500			
0.8480	54271.62	3.5840	3.5839	1.1303	25.96	0.00	1.500			
0.8515	54496.13	3.5810	3.5809	1.0982	25.96	0.00	1.500			
0.8548	54707.64	3.5780	3.5780	1.0370	25.96	0.00	1.500			
0.8580	54910.82	3.5750	3.5749	0.9592	25.96	0.00	1.500			
0.8608	55089.41	3.5720	3.5720	0.8495	25.96	0.00	1.500			
0.8632	55243.67	3.5690	3.5690	0.7278	25.96	0.00	1.500			
0.8651	55367.69	3.5660	3.5661	0.6094	25.96	0.00	1.500			
0.8667	55466.90	3.5630	3.5630	0.4983	25.96	0.00	1.500			
0.8679	55548.29	3.5600	3.5599	0.4178	25.96	0.00	1.500			
0.8690	55613.75	3.5570	3.5570	0.3456	25.96	0.00	1.500			
0.8699	55671.93	3.5540	3.5540	0.2930	25.96	0.00	1.500			
0.8707	55723.26	3.5510	3.5508	0.2597	25.96	0.00	1.500			
0.8714	55766.54	3.5480	3.5480	0.2296	25.96	0.00	1.500			
0.8720	55806.51	3.5450	3.5450	0.2065	25.96	0.00	1.500			
0.8726	55843.50	3.5420	3.5419	0.1854	25.96	0.00	1.500			
0.8731	55876.39	3.5390	3.5390	0.1686	25.96	0.00	1.500			
0.8735	55906.15	3.5360	3.5360	0.1528	25.96	0.00	1.500			
0.8740	55933.79	3.5330	3.5330	0.1381	25.96	0.00	1.500			
0.8744	55959.14	3.5300	3.5299	0.1245	25.96	0.00	1.500			
0.8747	55981.68	3.5270	3.5271	0.1108	25.96	0.00	1.500			
0.8750	56001.68	3.5240	3.5240	0.0973	25.96	0.00	1.500			
0.8753	56019.20	3.5210	3.5212	0.0838	25.96	0.00	1.500			
0.8755	56033.95	3.5180	3.5181	0.0699	25.96	0.00	1.500			
0.8757	56046.46	3.5150	3.5153	0.0546	25.96	0.00	1.500			
0.8759	56055.49	3.5120	3.5127	0.0394	25.96	0.00	1.500			
