Ah_balance (normalized)	Ah_balance (mAh)	Voltage - fit (V)	Voltage -  interpolate (V)	dQ/dV (1/V)	Temperature (°C)	Temperature - diff (°C)	Current (C)	R_DC 0ms (mOhm)	R_DC 50ms (mOhm)	R_DC 50 ms PEC (mOhm)
0.2851	18248.60	3.9730	3.9729	0.8350	27.29	1.33	1.500			
0.2877	18410.80	3.9700	3.9700	0.8543	27.29	1.33	1.500			
0.2903	18577.99	3.9670	3.9670	0.8725	27.28	1.32	1.500			
0.2930	18749.23	3.9640	3.9640	0.8778	27.28	1.32	1.500			
0.2956	18919.33	3.9610	3.9610	0.8838	27.27	1.31	1.500			
0.2983	19090.20	3.9580	3.9581	0.8867	27.27	1.31	1.500			
0.3009	19259.94	3.9550	3.9550	0.8859	27.27	1.31	1.500			
0.3036	19429.13	3.9520	3.9519	0.8854	27.26	1.30	1.500			
0.3062	19597.12	3.9490	3.9490	0.8908	27.26	1.30	1.500			
0.3089	19768.17	3.9460	3.9460	0.8991	27.25	1.29	1.500			
0.3116	19943.27	3.9430	3.9429	0.9026	27.25	1.29	1.500			
0.3143	20116.91	3.9400	3.9400	0.9064	27.25	1.29	1.500			
0.3171	20291.73	3.9370	3.9371	0.9109	27.24	1.28	1.500			
0.3198	20467.26	3.9340	3.9340	0.9148	27.24	1.28	1.500			
0.3225	20641.78	3.9310	3.9310	0.9165	27.24	1.28	1.500			
0.3253	20817.55	3.9280	3.9280	0.9200	27.24	1.28	1.500			
0.3280	20995.10	3.9250	3.9251	0.9274	27.24	1.28	1.500			
0.3309	21175.35	3.9220	3.9220	0.9336	27.23	1.27	1.500			
0.3337	21353.65	3.9190	3.9191	0.9382	27.23	1.27	1.500			
0.3365	21534.58	3.9160	3.9160	0.9451	27.23	1.27	1.500			
0.3393	21715.94	3.9130	3.9130	0.9501	27.22	1.26	1.500			
0.3422	21897.79	3.9100	3.9100	0.9617	27.22	1.26	1.500			
0.3451	22084.16	3.9070	3.9070	0.9680	27.21	1.25	1.500			
0.3480	22270.76	3.9040	3.9040	0.9760	27.21	1.25	1.500			
0.3509	22459.27	3.9010	3.9010	0.9827	27.21	1.25	1.500			
0.3539	22647.46	3.8980	3.8981	0.9887	27.20	1.24	1.500			
0.3568	22836.43	3.8950	3.8950	0.9987	27.20	1.24	1.500			
0.3598	23029.87	3.8920	3.8918	1.0056	27.19	1.23	1.500			
0.3628	23222.33	3.8890	3.8892	1.0119	27.19	1.23	1.500			
0.3659	23420.01	3.8860	3.8859	1.0253	27.18	1.22	1.500			
0.3690	23617.29	3.8830	3.8831	1.0356	27.18	1.22	1.500			
0.3722	23817.88	3.8800	3.8799	1.0451	27.17	1.21	1.500			
0.3753	24016.62	3.8770	3.8770	1.0528	27.17	1.21	1.500			
0.3784	24219.57	3.8740	3.8740	1.0671	27.16	1.20	1.500			
0.3817	24425.69	3.8710	3.8710	1.0840	27.16	1.20	1.500			
0.3849	24634.97	3.8680	3.8679	1.0940	27.15	1.19	1.500			
0.3882	24846.67	3.8650	3.8650	1.1076	27.14	1.18	1.500			
0.3916	25059.23	3.8620	3.8621	1.1245	27.14	1.18	1.500			
0.3950	25276.80	3.8590	3.8590	1.1419	27.13	1.17	1.500			
0.3984	25499.31	3.8560	3.8559	1.1486	27.12	1.16	1.500			
0.4019	25720.76	3.8530	3.8530	1.1585	27.12	1.16	1.500			
0.4054	25943.58	3.8500	3.8501	1.1739	27.11	1.15	1.500			
0.4089	26170.34	3.8470	3.8470	1.1941	27.10	1.14	1.500			
0.4125	26399.54	3.8440	3.8439	1.2120	27.10	1.14	1.500			
0.4161	26630.84	3.8410	3.8410	1.2289	27.09	1.13	1.500			
0.4199	26870.63	3.8380	3.8381	1.2549	27.08	1.12	1.500			
0.4237	27117.83	3.8350	3.8350	1.2799	27.07	1.11	1.500			
0.4275	27362.91	3.8320	3.8320	1.2996	27.06	1.10	1.500			
0.4315	27612.81	3.8290	3.8290	1.3191	27.05	1.09	1.500			
0.4354	27867.83	3.8260	3.8259	1.3452	27.04	1.08	1.500			
0.4395	28126.89	3.8230	3.8231	1.3740	27.03	1.07	1.500			
0.4437	28397.15	3.8200	3.8200	1.3931	27.02	1.06	1.500			
0.4480	28669.60	3.8170	3.8169	1.4177	27.00	1.04	1.500			
0.4522	28939.89	3.8140	3.8141	1.4455	26.99	1.03	1.500			
0.4565	29218.11	3.8110	3.8111	1.4821	26.98	1.02	1.500			
0.4610	29504.79	3.8080	3.8078	1.5185	26.97	1.01	1.500			
0.4656	29798.86	3.8050	3.8050	1.5641	26.96	1.00	1.500			
0.4703	30101.28	3.8020	3.8021	1.6087	26.94	0.98	1.500			
0.4753	30418.63	3.7990	3.7989	1.6608	26.93	0.97	1.500			
0.4804	30742.64	3.7960	3.7960	1.7069	26.91	0.95	1.500			
0.4855	31073.35	3.7930	3.7929	1.7506	26.90	0.94	1.500			
0.4910	31421.60	3.7900	3.7900	1.7871	26.88	0.92	1.500			
0.4964	31766.85	3.7870	3.7870	1.8147	26.87	0.91	1.500			
0.5018	32115.84	3.7840	3.7841	1.8641	26.85	0.89	1.500			
0.5074	32475.02	3.7810	3.7811	1.8993	26.83	0.87	1.500			
0.5131	32841.49	3.7780	3.7781	1.9511	26.81	0.85	1.500			
0.5191	33222.48	3.7750	3.7751	1.9822	26.79	0.83	1.500			
0.5252	33610.47	3.7720	3.7720	2.0171	26.77	0.81	1.500			
0.5313	34000.68	3.7690	3.7690	2.0434	26.75	0.79	1.500			
0.5375	34399.57	3.7660	3.7659	2.0655	26.72	0.76	1.500			
0.5437	34799.39	3.7630	3.7629	2.0522	26.71	0.75	1.500	0.358	0.455	
0.5499	35196.55	3.7600	3.7600	2.0449	26.69	0.73	1.500			
0.5560	35584.41	3.7570	3.7570	2.0314	26.67	0.71	1.500			
0.5620	35970.18	3.7540	3.7541	2.0067	26.65	0.69	1.500			
0.5681	36356.58	3.7510	3.7510	2.0062	26.64	0.68	1.500			
0.5740	36738.51	3.7480	3.7481	1.9843	26.62	0.66	1.500			
0.5799	37115.22	3.7450	3.7450	1.9782	26.60	0.64	1.500			
0.5858	37493.33	3.7420	3.7419	1.9915	26.58	0.62	1.500			
0.5919	37878.81	3.7390	3.7391	2.0081	26.56	0.60	1.500			
0.5980	38269.49	3.7360	3.7361	2.0152	26.54	0.58	1.500			
0.6040	38656.25	3.7330	3.7330	2.0280	26.53	0.57	1.500			
0.6100	39042.75	3.7300	3.7299	2.0682	26.51	0.55	1.500			
0.6164	39447.74	3.7270	3.7270	2.1093	26.49	0.53	1.500			
0.6227	39854.43	3.7240	3.7241	2.1741	26.48	0.52	1.500			
0.6293	40274.95	3.7210	3.7210	2.2221	26.46	0.50	1.500			
0.6360	40705.54	3.7180	3.7179	2.2865	26.44	0.48	1.500			
0.6430	41151.84	3.7150	3.7151	2.3348	26.42	0.46	1.500			
0.6501	41606.55	3.7120	3.7121	2.4472	26.40	0.44	1.500			
0.6575	42081.66	3.7090	3.7089	2.5418	26.39	0.43	1.500			
0.6653	42580.54	3.7060	3.7061	2.6493	26.37	0.41	1.500			
0.6735	43102.44	3.7030	3.7030	2.6995	26.35	0.39	1.500			
0.6817	43626.69	3.7000	3.7000	2.6650	26.33	0.37	1.500			
0.6897	44139.81	3.6970	3.6971	2.6369	26.31	0.35	1.500			
0.6976	44644.62	3.6940	3.6939	2.5153	26.30	0.34	1.500			
0.7050	45118.17	3.6910	3.6911	2.3601	26.29	0.33	1.500			
0.7118	45554.90	3.6880	3.6879	2.1699	26.28	0.32	1.500			
0.7180	45953.29	3.6850	3.6850	1.9859	26.26	0.30	1.500			
0.7236	46312.40	3.6820	3.6820	1.8318	26.25	0.29	1.500			
0.7288	46643.52	3.6790	3.6791	1.7076	26.24	0.28	1.500			
0.7337	46954.47	3.6760	3.6759	1.5925	26.22	0.26	1.500			
0.7382	47247.41	3.6730	3.6731	1.5086	26.21	0.25	1.500			
0.7426	47526.69	3.6700	3.6700	1.4396	26.20	0.24	1.500			
0.7468	47795.17	3.6670	3.6670	1.3754	26.19	0.23	1.500			
0.7508	48051.36	3.6640	3.6640	1.3260	26.18	0.22	1.500			
0.7547	48299.04	3.6610	3.6611	1.2866	26.17	0.21	1.500			
0.7584	48537.90	3.6580	3.6579	1.2669	26.16	0.20	1.500			
0.7622	48778.88	3.6550	3.6550	1.2606	26.16	0.20	1.500			
0.7659	49015.94	3.6520	3.6520	1.2570	26.15	0.19	1.500			
0.7696	49256.45	3.6490	3.6491	1.2681	26.14	0.18	1.500			
0.7735	49503.69	3.6460	3.6460	1.2799	26.13	0.17	1.500			
0.7773	49748.17	3.6430	3.6430	1.2964	26.12	0.16	1.500			
0.7812	49999.03	3.6400	3.6400	1.3129	26.11	0.15	1.500			
0.7852	50252.52	3.6370	3.6368	1.3247	26.10	0.14	1.500			
0.7892	50511.17	3.6340	3.6341	1.3349	26.09	0.13	1.500			
0.7933	50770.01	3.6310	3.6310	1.3363	26.08	0.12	1.500			
0.7974	51031.48	3.6280	3.6280	1.3252	26.07	0.11	1.500			
0.8013	51282.47	3.6250	3.6250	1.3154	26.06	0.10	1.500			
0.8052	51532.90	3.6220	3.6221	1.3128	26.05	0.09	1.500			
0.8091	51783.05	3.6190	3.6189	1.3130	26.04	0.08	1.500			
0.8131	52035.77	3.6160	3.6160	1.3054	26.03	0.07	1.500			
0.8170	52287.06	3.6130	3.6130	1.3075	26.02	0.06	1.500			
0.8209	52538.79	3.6100	3.6101	1.2959	26.01	0.05	1.500			
0.8249	52791.06	3.6070	3.6070	1.2880	26.01	0.05	1.500			
0.8287	53035.19	3.6040	3.6040	1.2653	26.00	0.04	1.500			
0.8324	53275.37	3.6010	3.6009	1.2531	25.99	0.03	1.500			
0.8361	53513.29	3.5980	3.5980	1.2361	25.98	0.02	1.500			
0.8399	53751.45	3.5950	3.5950	1.2198	25.98	0.02	1.500			
0.8435	53983.02	3.5920	3.5920	1.2018	25.97	0.01	1.500			
0.8471	54212.85	3.5890	3.5891	1.1964	25.97	0.01	1.500			
0.8506	54439.12	3.5860	3.5860	1.1924	25.97	0.01	1.500			
0.8542	54667.96	3.5830	3.5829	1.1784	25.96	0.00	1.500			
0.8577	54894.04	3.5800	3.5800	1.1610	25.96	0.00	1.500			
0.8614	55126.70	3.5770	3.5770	1.1148	25.96	-0.00	1.500			
0.8647	55343.47	3.5740	3.5740	1.0405	25.96	-0.00	1.500			
0.8679	55547.31	3.5710	3.5711	0.9393	25.95	-0.01	1.500			
0.8706	55718.46	3.5680	3.5681	0.8089	25.95	-0.01	1.500			
0.8728	55858.87	3.5650	3.5651	0.6795	25.95	-0.01	1.500			
0.8746	55973.91	3.5620	3.5619	0.5584	25.95	-0.01	1.500			
0.8759	56056.98	3.5590	3.5591	0.4521	25.95	-0.01	1.500			
0.8770	56130.78	3.5560	3.5559	0.3809	25.95	-0.01	1.500			
0.8780	56193.10	3.5530	3.5529	0.3135	25.95	-0.01	1.500			
0.8788	56245.86	3.5500	3.5500	0.2723	25.95	-0.01	1.500			
0.8796	56291.90	3.5470	3.5470	0.2399	25.94	-0.02	1.500			
0.8802	56333.22	3.5440	3.5439	0.2139	25.94	-0.02	1.500			
0.8808	56370.33	3.5410	3.5410	0.1901	25.94	-0.02	1.500			
0.8813	56404.44	3.5380	3.5379	0.1737	25.94	-0.02	1.500			
0.8818	56435.70	3.5350	3.5352	0.1582	25.94	-0.02	1.500			
0.8823	56464.60	3.5320	3.5320	0.1439	25.94	-0.02	1.500			
0.8827	56491.15	3.5290	3.5289	0.1296	25.94	-0.02	1.500			
0.8830	56514.65	3.5260	3.5260	0.1152	25.94	-0.02	1.500			
0.8834	56535.42	3.5230	3.5230	0.1010	25.94	-0.02	1.500			
0.8837	56554.00	3.5200	3.5200	0.0877	25.94	-0.02	1.500			
0.8839	56569.37	3.5170	3.5173	0.0724	25.94	-0.02	1.500			
0.8841	56582.06	3.5140	3.5146	0.0569	25.94	-0.02	1.500			
0.8842	56591.47	3.5110	3.5121	0.0411	25.94	-0.02	1.500			
0.8843	56597.85	3.5080	3.5104	0.0254	25.94	-0.02	1.500			
