Ah_balance (normalized)	Ah_balance (mAh)	Voltage - fit (V)	Voltage -  interpolate (V)	dQ/dV (1/V)	Temperature (°C)	Temperature - diff (°C)	Current (C)	R_DC 0ms (mOhm)	R_DC 50ms (mOhm)	R_DC 50 ms PEC (mOhm)
0.2856	18278.92	3.9830	3.9830	0.8174	27.06	1.10	1.500			
0.2881	18438.54	3.9800	3.9800	0.8376	27.06	1.10	1.500			
0.2906	18600.57	3.9770	3.9771	0.8482	27.06	1.10	1.500			
0.2932	18764.81	3.9740	3.9739	0.8562	27.06	1.10	1.500			
0.2958	18930.51	3.9710	3.9710	0.8610	27.05	1.09	1.500			
0.2984	19098.30	3.9680	3.9680	0.8655	27.05	1.09	1.500			
0.3010	19262.65	3.9650	3.9650	0.8667	27.05	1.09	1.500			
0.3036	19430.35	3.9620	3.9620	0.8753	27.04	1.08	1.500			
0.3062	19598.52	3.9590	3.9590	0.8781	27.04	1.08	1.500			
0.3089	19767.78	3.9560	3.9560	0.8798	27.04	1.08	1.500			
0.3115	19938.04	3.9530	3.9530	0.8825	27.03	1.07	1.500			
0.3142	20106.59	3.9500	3.9500	0.8888	27.03	1.07	1.500			
0.3168	20277.60	3.9470	3.9470	0.8915	27.02	1.06	1.500			
0.3195	20448.97	3.9440	3.9439	0.8930	27.02	1.06	1.500			
0.3222	20620.91	3.9410	3.9410	0.8954	27.01	1.05	1.500			
0.3249	20793.22	3.9380	3.9381	0.9017	27.01	1.05	1.500			
0.3276	20967.18	3.9350	3.9350	0.9064	27.00	1.04	1.500			
0.3303	21141.43	3.9320	3.9319	0.9113	27.00	1.04	1.500			
0.3331	21316.01	3.9290	3.9290	0.9136	26.99	1.03	1.500			
0.3358	21492.36	3.9260	3.9260	0.9210	26.99	1.03	1.500			
0.3386	21669.48	3.9230	3.9230	0.9294	26.98	1.02	1.500			
0.3414	21849.58	3.9200	3.9200	0.9353	26.98	1.02	1.500			
0.3442	22028.71	3.9170	3.9170	0.9444	26.97	1.01	1.500			
0.3471	22212.04	3.9140	3.9141	0.9501	26.96	1.00	1.500			
0.3499	22394.87	3.9110	3.9109	0.9539	26.96	1.00	1.500			
0.3528	22580.04	3.9080	3.9081	0.9556	26.95	0.99	1.500			
0.3557	22762.49	3.9050	3.9050	0.9579	26.95	0.99	1.500			
0.3585	22944.96	3.9020	3.9020	0.9643	26.94	0.98	1.500			
0.3614	23129.36	3.8990	3.8990	0.9754	26.94	0.98	1.500			
0.3643	23316.22	3.8960	3.8956	0.9869	26.93	0.97	1.500			
0.3673	23509.85	3.8930	3.8931	0.9965	26.92	0.96	1.500			
0.3703	23702.32	3.8900	3.8900	1.0041	26.92	0.96	1.500			
0.3734	23898.28	3.8870	3.8871	1.0165	26.91	0.95	1.500			
0.3765	24093.14	3.8840	3.8840	1.0217	26.91	0.95	1.500			
0.3795	24286.56	3.8810	3.8810	1.0311	26.90	0.94	1.500			
0.3826	24486.49	3.8780	3.8780	1.0410	26.89	0.93	1.500			
0.3858	24688.34	3.8750	3.8750	1.0508	26.89	0.93	1.500			
0.3889	24891.36	3.8720	3.8720	1.0634	26.88	0.92	1.500			
0.3921	25096.29	3.8690	3.8690	1.0735	26.88	0.92	1.500			
0.3954	25303.21	3.8660	3.8659	1.0819	26.87	0.91	1.500			
0.3986	25509.28	3.8630	3.8630	1.0972	26.87	0.91	1.500			
0.4019	25721.82	3.8600	3.8601	1.1118	26.86	0.90	1.500			
0.4053	25938.90	3.8570	3.8569	1.1321	26.85	0.89	1.500			
0.4087	26157.25	3.8540	3.8540	1.1468	26.85	0.89	1.500			
0.4121	26377.54	3.8510	3.8511	1.1629	26.84	0.88	1.500			
0.4157	26603.50	3.8480	3.8480	1.1805	26.84	0.88	1.500			
0.4192	26830.97	3.8450	3.8450	1.2053	26.83	0.87	1.500			
0.4229	27062.96	3.8420	3.8420	1.2164	26.82	0.86	1.500			
0.4266	27301.13	3.8390	3.8390	1.2291	26.81	0.85	1.500			
0.4303	27537.87	3.8360	3.8360	1.2556	26.80	0.84	1.500			
0.4341	27779.33	3.8330	3.8330	1.2803	26.79	0.83	1.500			
0.4379	28026.05	3.8300	3.8299	1.3026	26.78	0.82	1.500			
0.4419	28278.98	3.8270	3.8271	1.3298	26.77	0.81	1.500			
0.4459	28534.98	3.8240	3.8241	1.3564	26.76	0.80	1.500			
0.4500	28801.11	3.8210	3.8211	1.3913	26.75	0.79	1.500			
0.4543	29072.09	3.8180	3.8179	1.4224	26.74	0.78	1.500			
0.4585	29342.92	3.8150	3.8150	1.4502	26.73	0.77	1.500			
0.4629	29626.26	3.8120	3.8120	1.4843	26.72	0.76	1.500			
0.4674	29914.96	3.8090	3.8090	1.5184	26.71	0.75	1.500			
0.4720	30210.46	3.8060	3.8060	1.5477	26.70	0.74	1.500			
0.4767	30510.46	3.8030	3.8031	1.5783	26.69	0.73	1.500			
0.4814	30811.81	3.8000	3.8000	1.6206	26.68	0.72	1.500			
0.4864	31128.01	3.7970	3.7971	1.6610	26.67	0.71	1.500			
0.4914	31449.71	3.7940	3.7940	1.7053	26.65	0.69	1.500			
0.4967	31787.81	3.7910	3.7910	1.7437	26.64	0.68	1.500			
0.5020	32127.61	3.7880	3.7880	1.7804	26.62	0.66	1.500			
0.5074	32474.87	3.7850	3.7850	1.8089	26.61	0.65	1.500			
0.5128	32820.83	3.7820	3.7819	1.8336	26.59	0.63	1.500			
0.5183	33173.91	3.7790	3.7791	1.8652	26.58	0.62	1.500			
0.5240	33533.38	3.7760	3.7760	1.8937	26.56	0.60	1.500			
0.5297	33901.54	3.7730	3.7731	1.9469	26.55	0.59	1.500			
0.5357	34284.24	3.7700	3.7698	1.9745	26.53	0.57	1.500	0.358	0.458	
0.5417	34667.03	3.7670	3.7671	1.9734	26.51	0.55	1.500			
0.5477	35051.70	3.7640	3.7640	1.9661	26.50	0.54	1.500			
0.5535	35424.89	3.7610	3.7610	1.9486	26.49	0.53	1.500			
0.5592	35790.83	3.7580	3.7580	1.9142	26.47	0.51	1.500			
0.5649	36156.70	3.7550	3.7550	1.9037	26.46	0.50	1.500			
0.5707	36521.63	3.7520	3.7521	1.9078	26.44	0.48	1.500			
0.5764	36886.68	3.7490	3.7490	1.9004	26.43	0.47	1.500			
0.5820	37247.43	3.7460	3.7460	1.9072	26.42	0.46	1.500			
0.5878	37617.42	3.7430	3.7430	1.9320	26.40	0.44	1.500			
0.5936	37989.09	3.7400	3.7400	1.9451	26.39	0.43	1.500			
0.5995	38364.99	3.7370	3.7371	1.9586	26.38	0.42	1.500			
0.6054	38742.77	3.7340	3.7340	1.9855	26.37	0.41	1.500			
0.6113	39125.18	3.7310	3.7310	2.0213	26.36	0.40	1.500			
0.6174	39512.74	3.7280	3.7280	2.0668	26.34	0.38	1.500			
0.6237	39918.57	3.7250	3.7250	2.1044	26.33	0.37	1.500			
0.6301	40325.84	3.7220	3.7220	2.1763	26.32	0.36	1.500			
0.6367	40747.34	3.7190	3.7190	2.2358	26.31	0.35	1.500			
0.6436	41188.65	3.7160	3.7160	2.2985	26.29	0.33	1.500			
0.6505	41634.73	3.7130	3.7130	2.3858	26.28	0.32	1.500			
0.6578	42099.12	3.7100	3.7101	2.4489	26.26	0.30	1.500			
0.6653	42577.03	3.7070	3.7068	2.5334	26.25	0.29	1.500			
0.6730	43069.83	3.7040	3.7040	2.5671	26.23	0.27	1.500			
0.6810	43581.75	3.7010	3.7010	2.6046	26.22	0.26	1.500			
0.6887	44078.28	3.6980	3.6979	2.5373	26.20	0.24	1.500			
0.6963	44560.01	3.6950	3.6950	2.4030	26.19	0.23	1.500			
0.7033	45011.29	3.6920	3.6920	2.2484	26.18	0.22	1.500			
0.7097	45423.80	3.6890	3.6891	2.0715	26.18	0.22	1.500			
0.7156	45801.53	3.6860	3.6860	1.9018	26.17	0.21	1.500			
0.7210	46145.02	3.6830	3.6830	1.7547	26.16	0.20	1.500			
0.7261	46470.54	3.6800	3.6800	1.6338	26.15	0.19	1.500			
0.7307	46765.05	3.6770	3.6770	1.5455	26.14	0.18	1.500			
0.7352	47049.81	3.6740	3.6740	1.4641	26.13	0.17	1.500			
0.7394	47319.70	3.6710	3.6709	1.4013	26.12	0.16	1.500			
0.7434	47580.59	3.6680	3.6680	1.3521	26.11	0.15	1.500			
0.7474	47834.62	3.6650	3.6650	1.3180	26.11	0.15	1.500			
0.7513	48081.55	3.6620	3.6620	1.2905	26.10	0.14	1.500			
0.7551	48324.15	3.6590	3.6590	1.2753	26.09	0.13	1.500			
0.7588	48566.08	3.6560	3.6559	1.2704	26.09	0.13	1.500			
0.7626	48807.62	3.6530	3.6530	1.2751	26.08	0.12	1.500			
0.7664	49051.93	3.6500	3.6500	1.2871	26.07	0.11	1.500			
0.7703	49300.09	3.6470	3.6469	1.2972	26.07	0.11	1.500			
0.7743	49552.03	3.6440	3.6440	1.3020	26.06	0.10	1.500			
0.7782	49803.34	3.6410	3.6410	1.3054	26.05	0.09	1.500			
0.7821	50055.65	3.6380	3.6381	1.3079	26.04	0.08	1.500			
0.7861	50307.73	3.6350	3.6349	1.3018	26.03	0.07	1.500			
0.7899	50554.94	3.6320	3.6321	1.2953	26.02	0.06	1.500			
0.7938	50803.22	3.6290	3.6290	1.2910	26.01	0.05	1.500			
0.7977	51051.99	3.6260	3.6259	1.2894	26.00	0.04	1.500			
0.8016	51299.89	3.6230	3.6230	1.2815	25.99	0.03	1.500			
0.8054	51543.79	3.6200	3.6200	1.2749	25.98	0.02	1.500			
0.8092	51790.20	3.6170	3.6171	1.2703	25.97	0.01	1.500			
0.8130	52033.14	3.6140	3.6139	1.2656	25.96	0.00	1.500			
0.8168	52274.16	3.6110	3.6110	1.2537	25.96	-0.00	1.500			
0.8205	52514.45	3.6080	3.6080	1.2444	25.95	-0.01	1.500			
0.8243	52752.64	3.6050	3.6050	1.2318	25.95	-0.01	1.500			
0.8280	52990.86	3.6020	3.6020	1.2127	25.95	-0.01	1.500			
0.8316	53222.08	3.5990	3.5990	1.1956	25.95	-0.01	1.500			
0.8352	53449.89	3.5960	3.5960	1.1782	25.94	-0.02	1.500			
0.8386	53673.18	3.5930	3.5930	1.1582	25.94	-0.02	1.500			
0.8421	53892.26	3.5900	3.5900	1.1453	25.94	-0.02	1.500			
0.8455	54110.41	3.5870	3.5870	1.1330	25.94	-0.02	1.500			
0.8489	54330.38	3.5840	3.5839	1.1140	25.95	-0.01	1.500			
0.8523	54546.34	3.5810	3.5809	1.0808	25.95	-0.01	1.500			
0.8556	54758.74	3.5780	3.5780	1.0197	25.95	-0.01	1.500			
0.8586	54953.55	3.5750	3.5751	0.9378	25.96	-0.00	1.500			
0.8615	55133.17	3.5720	3.5720	0.8334	25.96	-0.00	1.500			
0.8638	55282.28	3.5690	3.5690	0.7098	25.96	-0.00	1.500			
0.8657	55403.01	3.5660	3.5660	0.5930	25.96	0.00	1.500			
0.8672	55502.16	3.5630	3.5629	0.4868	25.96	0.00	1.500			
0.8684	55579.94	3.5600	3.5599	0.3998	25.96	0.00	1.500			
0.8695	55645.50	3.5570	3.5569	0.3409	25.96	0.00	1.500			
0.8703	55700.75	3.5540	3.5539	0.2906	25.96	0.00	1.500			
0.8711	55750.36	3.5510	3.5509	0.2563	25.97	0.01	1.500			
0.8718	55793.82	3.5480	3.5480	0.2241	25.97	0.01	1.500			
0.8724	55833.24	3.5450	3.5451	0.2018	25.97	0.01	1.500			
0.8729	55868.54	3.5420	3.5419	0.1819	25.97	0.01	1.500			
0.8735	55901.41	3.5390	3.5390	0.1640	25.97	0.01	1.500			
0.8739	55931.07	3.5360	3.5360	0.1493	25.97	0.01	1.500			
0.8743	55957.54	3.5330	3.5330	0.1336	25.97	0.01	1.500			
0.8747	55981.93	3.5300	3.5300	0.1195	25.97	0.01	1.500			
0.8751	56003.32	3.5270	3.5270	0.1047	25.97	0.01	1.500			
0.8753	56022.07	3.5240	3.5241	0.0907	25.97	0.01	1.500			
0.8756	56038.41	3.5210	3.5212	0.0767	25.97	0.01	1.500			
0.8758	56051.96	3.5180	3.5183	0.0621	25.97	0.01	1.500			
0.8760	56062.45	3.5150	3.5156	0.0472	25.97	0.01	1.500			
0.8761	56070.07	3.5120	3.5131	0.0323	25.97	0.01	1.500			
