Ah_balance (normalized)	Ah_balance (mAh)	Voltage - fit (V)	Voltage -  interpolate (V)	dQ/dV (1/V)	Temperature (°C)	Temperature - diff (°C)	Current (C)	R_DC 0ms (mOhm)	R_DC 50ms (mOhm)	R_DC 50 ms PEC (mOhm)
0.2903	18577.88	3.9830	3.9830	0.8087	27.12	1.16	1.500			
0.2927	18735.80	3.9800	3.9800	0.8325	27.11	1.15	1.500			
0.2953	18898.50	3.9770	3.9771	0.8481	27.11	1.15	1.500			
0.2978	19062.34	3.9740	3.9740	0.8559	27.10	1.14	1.500			
0.3004	19228.37	3.9710	3.9711	0.8611	27.10	1.14	1.500			
0.3030	19394.98	3.9680	3.9681	0.8660	27.10	1.14	1.500			
0.3057	19561.72	3.9650	3.9649	0.8669	27.09	1.13	1.500			
0.3083	19728.06	3.9620	3.9620	0.8687	27.09	1.13	1.500			
0.3108	19893.97	3.9590	3.9590	0.8717	27.08	1.12	1.500			
0.3135	20061.17	3.9560	3.9560	0.8760	27.08	1.12	1.500			
0.3161	20231.20	3.9530	3.9530	0.8788	27.08	1.12	1.500			
0.3187	20399.91	3.9500	3.9500	0.8849	27.07	1.11	1.500			
0.3214	20570.36	3.9470	3.9470	0.8880	27.07	1.11	1.500			
0.3241	20741.54	3.9440	3.9440	0.8925	27.06	1.10	1.500			
0.3268	20913.05	3.9410	3.9409	0.8939	27.06	1.10	1.500			
0.3294	21084.70	3.9380	3.9380	0.8969	27.05	1.09	1.500			
0.3321	21256.63	3.9350	3.9350	0.9053	27.05	1.09	1.500			
0.3349	21431.87	3.9320	3.9320	0.9106	27.05	1.09	1.500			
0.3376	21606.91	3.9290	3.9289	0.9115	27.04	1.08	1.500			
0.3404	21782.92	3.9260	3.9260	0.9213	27.04	1.08	1.500			
0.3431	21960.51	3.9230	3.9231	0.9253	27.03	1.07	1.500			
0.3459	22139.25	3.9200	3.9199	0.9274	27.03	1.07	1.500			
0.3487	22317.76	3.9170	3.9171	0.9288	27.02	1.06	1.500			
0.3515	22494.92	3.9140	3.9140	0.9333	27.02	1.06	1.500			
0.3543	22675.07	3.9110	3.9110	0.9423	27.01	1.05	1.500			
0.3571	22855.35	3.9080	3.9080	0.9522	27.01	1.05	1.500			
0.3600	23038.22	3.9050	3.9050	0.9584	27.00	1.04	1.500			
0.3629	23224.46	3.9020	3.9020	0.9720	26.99	1.03	1.500			
0.3658	23412.20	3.8990	3.8991	0.9845	26.99	1.03	1.500			
0.3688	23603.66	3.8960	3.8959	0.9888	26.98	1.02	1.500			
0.3718	23793.82	3.8930	3.8931	0.9945	26.98	1.02	1.500			
0.3748	23984.52	3.8900	3.8900	1.0033	26.97	1.01	1.500			
0.3778	24177.78	3.8870	3.8870	1.0092	26.96	1.00	1.500			
0.3808	24372.60	3.8840	3.8839	1.0184	26.96	1.00	1.500			
0.3839	24567.14	3.8810	3.8810	1.0270	26.95	0.99	1.500			
0.3870	24765.47	3.8780	3.8781	1.0367	26.95	0.99	1.500			
0.3901	24966.23	3.8750	3.8750	1.0517	26.94	0.98	1.500			
0.3933	25168.88	3.8720	3.8720	1.0613	26.93	0.97	1.500			
0.3965	25373.28	3.8690	3.8690	1.0763	26.93	0.97	1.500			
0.3997	25582.08	3.8660	3.8660	1.0889	26.92	0.96	1.500			
0.4030	25792.13	3.8630	3.8630	1.0997	26.91	0.95	1.500			
0.4063	26004.19	3.8600	3.8600	1.1130	26.91	0.95	1.500			
0.4097	26218.98	3.8570	3.8570	1.1278	26.90	0.94	1.500			
0.4130	26434.25	3.8540	3.8540	1.1416	26.89	0.93	1.500			
0.4165	26654.81	3.8510	3.8510	1.1632	26.89	0.93	1.500			
0.4200	26880.91	3.8480	3.8481	1.1765	26.88	0.92	1.500			
0.4236	27109.18	3.8450	3.8450	1.1996	26.87	0.91	1.500			
0.4272	27341.66	3.8420	3.8421	1.2179	26.86	0.90	1.500			
0.4309	27577.15	3.8390	3.8390	1.2350	26.85	0.89	1.500			
0.4346	27813.81	3.8360	3.8359	1.2564	26.84	0.88	1.500			
0.4384	28056.89	3.8330	3.8331	1.2796	26.84	0.88	1.500			
0.4422	28303.58	3.8300	3.8299	1.3047	26.83	0.87	1.500			
0.4462	28558.04	3.8270	3.8270	1.3344	26.82	0.86	1.500			
0.4502	28814.55	3.8240	3.8241	1.3593	26.80	0.84	1.500			
0.4544	29080.73	3.8210	3.8210	1.3857	26.79	0.83	1.500			
0.4586	29347.78	3.8180	3.8180	1.4204	26.78	0.82	1.500			
0.4628	29622.33	3.8150	3.8150	1.4533	26.77	0.81	1.500			
0.4673	29904.37	3.8120	3.8121	1.4861	26.76	0.80	1.500			
0.4718	30193.27	3.8090	3.8089	1.5192	26.74	0.78	1.500			
0.4764	30488.99	3.8060	3.8061	1.5535	26.73	0.77	1.500			
0.4811	30790.60	3.8030	3.8030	1.5826	26.72	0.76	1.500			
0.4859	31097.87	3.8000	3.8000	1.6205	26.70	0.74	1.500			
0.4907	31407.75	3.7970	3.7970	1.6477	26.69	0.73	1.500			
0.4957	31727.90	3.7940	3.7939	1.6968	26.68	0.72	1.500			
0.5010	32060.95	3.7910	3.7910	1.7277	26.66	0.70	1.500			
0.5062	32397.59	3.7880	3.7880	1.7625	26.65	0.69	1.500			
0.5116	32740.20	3.7850	3.7851	1.7978	26.64	0.68	1.500			
0.5169	33084.49	3.7820	3.7820	1.8266	26.63	0.67	1.500			
0.5224	33435.94	3.7790	3.7790	1.8664	26.61	0.65	1.500			
0.5281	33798.70	3.7760	3.7760	1.9071	26.60	0.64	1.500			
0.5340	34173.05	3.7730	3.7730	1.9566	26.59	0.63	1.500			
0.5399	34552.56	3.7700	3.7699	1.9621	26.57	0.61	1.500	0.355	0.459	
0.5458	34932.93	3.7670	3.7670	1.9608	26.56	0.60	1.500			
0.5517	35309.88	3.7640	3.7640	1.9415	26.54	0.58	1.500			
0.5575	35678.35	3.7610	3.7610	1.9299	26.52	0.56	1.500			
0.5632	36046.54	3.7580	3.7580	1.9072	26.51	0.55	1.500			
0.5689	36412.47	3.7550	3.7549	1.9048	26.49	0.53	1.500			
0.5746	36776.59	3.7520	3.7521	1.8937	26.48	0.52	1.500			
0.5804	37143.10	3.7490	3.7489	1.8711	26.46	0.50	1.500			
0.5859	37494.56	3.7460	3.7461	1.8713	26.44	0.48	1.500			
0.5915	37855.94	3.7430	3.7430	1.8982	26.43	0.47	1.500			
0.5972	38223.20	3.7400	3.7400	1.9243	26.42	0.46	1.500			
0.6031	38595.67	3.7370	3.7371	1.9432	26.41	0.45	1.500			
0.6089	38971.72	3.7340	3.7340	1.9797	26.40	0.44	1.500			
0.6149	39351.51	3.7310	3.7310	2.0155	26.39	0.43	1.500			
0.6209	39739.30	3.7280	3.7280	2.0797	26.38	0.42	1.500			
0.6273	40148.95	3.7250	3.7250	2.1218	26.36	0.40	1.500			
0.6338	40560.01	3.7220	3.7221	2.1760	26.35	0.39	1.500			
0.6403	40980.19	3.7190	3.7190	2.2281	26.33	0.37	1.500			
0.6471	41415.18	3.7160	3.7160	2.3050	26.31	0.35	1.500			
0.6541	41864.19	3.7130	3.7130	2.3855	26.30	0.34	1.500			
0.6614	42331.03	3.7100	3.7100	2.4526	26.28	0.32	1.500			
0.6688	42803.68	3.7070	3.7069	2.4980	26.26	0.30	1.500			
0.6764	43290.25	3.7040	3.7040	2.5559	26.25	0.29	1.500			
0.6841	43785.40	3.7010	3.7010	2.5339	26.23	0.27	1.500			
0.6917	44268.49	3.6980	3.6980	2.4885	26.22	0.26	1.500			
0.6992	44745.99	3.6950	3.6951	2.3768	26.20	0.24	1.500			
0.7062	45197.54	3.6920	3.6921	2.2312	26.19	0.23	1.500			
0.7127	45611.66	3.6890	3.6890	2.0655	26.17	0.21	1.500			
0.7184	45979.77	3.6860	3.6859	1.8815	26.16	0.20	1.500			
0.7238	46323.83	3.6830	3.6831	1.7415	26.15	0.19	1.500			
0.7288	46646.26	3.6800	3.6800	1.6343	26.15	0.19	1.500			
0.7335	46943.46	3.6770	3.6770	1.5369	26.14	0.18	1.500			
0.7379	47226.83	3.6740	3.6740	1.4566	26.13	0.17	1.500			
0.7421	47493.46	3.6710	3.6711	1.3867	26.12	0.16	1.500			
0.7461	47752.15	3.6680	3.6680	1.3376	26.12	0.16	1.500			
0.7500	48001.28	3.6650	3.6650	1.3011	26.11	0.15	1.500			
0.7538	48244.44	3.6620	3.6620	1.2792	26.10	0.14	1.500			
0.7576	48487.25	3.6590	3.6590	1.2629	26.09	0.13	1.500			
0.7613	48724.22	3.6560	3.6560	1.2595	26.08	0.12	1.500			
0.7651	48963.24	3.6530	3.6530	1.2633	26.07	0.11	1.500			
0.7689	49207.69	3.6500	3.6499	1.2770	26.06	0.10	1.500			
0.7727	49453.50	3.6470	3.6470	1.2867	26.05	0.09	1.500			
0.7766	49702.60	3.6440	3.6440	1.2963	26.05	0.09	1.500			
0.7806	49955.84	3.6410	3.6410	1.2932	26.04	0.08	1.500			
0.7845	50204.97	3.6380	3.6381	1.2926	26.03	0.07	1.500			
0.7883	50452.45	3.6350	3.6350	1.2838	26.02	0.06	1.500			
0.7921	50697.26	3.6320	3.6319	1.2766	26.01	0.05	1.500			
0.7960	50941.68	3.6290	3.6290	1.2715	26.01	0.05	1.500			
0.7998	51184.71	3.6260	3.6261	1.2668	26.00	0.04	1.500			
0.8036	51428.16	3.6230	3.6230	1.2656	26.00	0.04	1.500			
0.8074	51672.18	3.6200	3.6199	1.2596	25.99	0.03	1.500			
0.8111	51911.87	3.6170	3.6170	1.2519	25.98	0.02	1.500			
0.8149	52152.73	3.6140	3.6140	1.2475	25.98	0.02	1.500			
0.8186	52391.60	3.6110	3.6110	1.2370	25.97	0.01	1.500			
0.8223	52629.51	3.6080	3.6080	1.2242	25.97	0.01	1.500			
0.8260	52863.55	3.6050	3.6050	1.2086	25.96	0.00	1.500			
0.8296	53095.86	3.6020	3.6020	1.1879	25.96	-0.00	1.500			
0.8332	53322.34	3.5990	3.5989	1.1681	25.95	-0.01	1.500			
0.8366	53541.84	3.5960	3.5961	1.1496	25.95	-0.01	1.500			
0.8400	53760.29	3.5930	3.5930	1.1359	25.95	-0.01	1.500			
0.8434	53976.48	3.5900	3.5900	1.1227	25.94	-0.02	1.500			
0.8467	54191.82	3.5870	3.5870	1.1060	25.94	-0.02	1.500			
0.8501	54403.59	3.5840	3.5840	1.0906	25.94	-0.02	1.500			
0.8534	54617.18	3.5810	3.5810	1.0467	25.95	-0.01	1.500			
0.8566	54821.28	3.5780	3.5780	0.9882	25.95	-0.01	1.500			
0.8596	55012.60	3.5750	3.5750	0.8988	25.95	-0.01	1.500			
0.8622	55180.14	3.5720	3.5722	0.7919	25.95	-0.01	1.500			
0.8644	55322.31	3.5690	3.5690	0.6833	25.96	-0.00	1.500			
0.8662	55438.74	3.5660	3.5660	0.5726	25.96	-0.00	1.500			
0.8677	55530.01	3.5630	3.5630	0.4669	25.96	-0.00	1.500			
0.8689	55606.89	3.5600	3.5600	0.3945	25.96	-0.00	1.500			
0.8698	55669.11	3.5570	3.5570	0.3300	25.96	0.00	1.500			
0.8707	55725.69	3.5540	3.5539	0.2811	25.96	0.00	1.500			
0.8714	55771.87	3.5510	3.5509	0.2445	25.96	0.00	1.500			
0.8721	55813.25	3.5480	3.5480	0.2163	25.96	0.00	1.500			
0.8727	55851.07	3.5450	3.5450	0.1947	25.96	0.00	1.500			
0.8732	55885.79	3.5420	3.5421	0.1744	25.96	0.00	1.500			
0.8737	55916.97	3.5390	3.5390	0.1580	25.96	0.00	1.500			
0.8741	55945.21	3.5360	3.5360	0.1411	25.96	0.00	1.500			
0.8745	55970.63	3.5330	3.5330	0.1259	25.96	0.00	1.500			
0.8749	55993.43	3.5300	3.5300	0.1116	25.96	0.00	1.500			
0.8752	56013.51	3.5270	3.5270	0.0973	25.96	0.00	1.500			
0.8755	56030.65	3.5240	3.5242	0.0827	25.96	0.00	1.500			
0.8757	56045.18	3.5210	3.5212	0.0686	25.96	0.00	1.500			
0.8759	56057.21	3.5180	3.5184	0.0537	25.97	0.01	1.500			
0.8760	56066.10	3.5150	3.5157	0.0389	25.97	0.01	1.500			
