Ah_balance (normalized)	Ah_balance (mAh)	Voltage - fit (V)	Voltage -  interpolate (V)	dQ/dV (1/V)	Temperature (°C)	Temperature - diff (°C)	Current (C)	R_DC 0ms (mOhm)	R_DC 50ms (mOhm)	R_DC 50 ms PEC (mOhm)
0.2822	18061.57	3.9900	3.9900	0.8249	27.27	1.29	1.500			
0.2847	18220.93	3.9870	3.9870	0.8332	27.26	1.28	1.500			
0.2872	18379.88	3.9840	3.9840	0.8343	27.26	1.28	1.500			
0.2897	18540.02	3.9810	3.9811	0.8412	27.25	1.27	1.500			
0.2922	18702.98	3.9780	3.9780	0.8481	27.24	1.26	1.500			
0.2948	18866.43	3.9750	3.9751	0.8519	27.24	1.26	1.500			
0.2973	19029.93	3.9720	3.9720	0.8558	27.23	1.25	1.500			
0.2999	19196.04	3.9690	3.9691	0.8629	27.23	1.25	1.500			
0.3025	19362.20	3.9660	3.9660	0.8664	27.22	1.24	1.500			
0.3051	19529.14	3.9630	3.9630	0.8669	27.21	1.23	1.500			
0.3077	19695.56	3.9600	3.9600	0.8689	27.21	1.23	1.500			
0.3104	19862.74	3.9570	3.9570	0.8725	27.20	1.22	1.500			
0.3130	20029.99	3.9540	3.9540	0.8747	27.19	1.21	1.500			
0.3156	20198.19	3.9510	3.9510	0.8738	27.19	1.21	1.500			
0.3182	20365.53	3.9480	3.9480	0.8777	27.18	1.20	1.500			
0.3208	20534.29	3.9450	3.9450	0.8835	27.18	1.20	1.500			
0.3235	20704.97	3.9420	3.9420	0.8880	27.17	1.19	1.500			
0.3262	20875.36	3.9390	3.9389	0.8909	27.17	1.19	1.500			
0.3289	21046.77	3.9360	3.9360	0.8968	27.16	1.18	1.500			
0.3316	21219.58	3.9330	3.9330	0.9024	27.15	1.17	1.500			
0.3343	21394.03	3.9300	3.9300	0.9079	27.15	1.17	1.500			
0.3370	21568.18	3.9270	3.9270	0.9113	27.14	1.16	1.500			
0.3397	21743.55	3.9240	3.9241	0.9185	27.14	1.16	1.500			
0.3425	21921.41	3.9210	3.9209	0.9248	27.13	1.15	1.500			
0.3453	22098.88	3.9180	3.9180	0.9306	27.13	1.15	1.500			
0.3481	22277.88	3.9150	3.9150	0.9350	27.12	1.14	1.500			
0.3509	22458.51	3.9120	3.9120	0.9392	27.11	1.13	1.500			
0.3537	22639.57	3.9090	3.9090	0.9457	27.10	1.12	1.500			
0.3566	22821.04	3.9060	3.9060	0.9511	27.09	1.11	1.500			
0.3594	23003.28	3.9030	3.9030	0.9574	27.09	1.11	1.500			
0.3623	23188.22	3.9000	3.9000	0.9667	27.08	1.10	1.500			
0.3652	23374.18	3.8970	3.8970	0.9747	27.07	1.09	1.500			
0.3682	23562.83	3.8940	3.8939	0.9847	27.06	1.08	1.500			
0.3711	23752.72	3.8910	3.8911	0.9976	27.05	1.07	1.500			
0.3741	23944.51	3.8880	3.8880	1.0071	27.05	1.07	1.500			
0.3772	24139.11	3.8850	3.8850	1.0169	27.04	1.06	1.500			
0.3802	24334.90	3.8820	3.8820	1.0258	27.03	1.05	1.500			
0.3834	24534.94	3.8790	3.8790	1.0324	27.02	1.04	1.500			
0.3865	24734.58	3.8760	3.8760	1.0415	27.01	1.03	1.500			
0.3896	24933.91	3.8730	3.8730	1.0548	27.00	1.02	1.500			
0.3927	25134.14	3.8700	3.8700	1.0717	26.99	1.01	1.500			
0.3960	25342.79	3.8670	3.8670	1.0877	26.98	1.00	1.500			
0.3993	25554.07	3.8640	3.8640	1.1032	26.98	1.00	1.500			
0.4026	25767.50	3.8610	3.8611	1.1202	26.97	0.99	1.500			
0.4061	25988.24	3.8580	3.8580	1.1355	26.96	0.98	1.500			
0.4095	26205.43	3.8550	3.8550	1.1443	26.95	0.97	1.500			
0.4129	26422.42	3.8520	3.8520	1.1603	26.94	0.96	1.500			
0.4164	26647.28	3.8490	3.8490	1.1775	26.94	0.96	1.500			
0.4199	26876.57	3.8460	3.8459	1.1961	26.93	0.95	1.500			
0.4235	27107.01	3.8430	3.8430	1.2100	26.91	0.93	1.500			
0.4272	27341.38	3.8400	3.8401	1.2260	26.90	0.92	1.500			
0.4309	27579.13	3.8370	3.8369	1.2428	26.88	0.90	1.500			
0.4346	27817.48	3.8340	3.8340	1.2619	26.87	0.89	1.500			
0.4385	28061.13	3.8310	3.8310	1.2829	26.85	0.87	1.500			
0.4423	28309.95	3.8280	3.8280	1.3108	26.84	0.86	1.500			
0.4463	28563.35	3.8250	3.8251	1.3372	26.82	0.84	1.500			
0.4503	28820.99	3.8220	3.8220	1.3697	26.81	0.83	1.500			
0.4545	29087.99	3.8190	3.8190	1.3951	26.80	0.82	1.500			
0.4587	29358.56	3.8160	3.8160	1.4236	26.79	0.81	1.500			
0.4631	29636.07	3.8130	3.8130	1.4512	26.78	0.80	1.500			
0.4675	29917.52	3.8100	3.8100	1.4732	26.76	0.78	1.500			
0.4719	30200.77	3.8070	3.8070	1.5024	26.75	0.77	1.500			
0.4764	30490.62	3.8040	3.8040	1.5361	26.73	0.75	1.500			
0.4811	30787.71	3.8010	3.8010	1.5571	26.72	0.74	1.500			
0.4858	31091.32	3.7980	3.7980	1.5898	26.70	0.72	1.500			
0.4906	31397.61	3.7950	3.7951	1.6177	26.68	0.70	1.500			
0.4955	31712.37	3.7920	3.7920	1.6464	26.66	0.68	1.500			
0.5005	32031.41	3.7890	3.7890	1.6661	26.65	0.67	1.500			
0.5056	32355.88	3.7860	3.7860	1.6898	26.63	0.65	1.500			
0.5106	32681.50	3.7830	3.7830	1.7215	26.61	0.63	1.500			
0.5159	33015.33	3.7800	3.7801	1.7493	26.59	0.61	1.500			
0.5212	33355.51	3.7770	3.7770	1.7667	26.57	0.59	1.500	0.351	0.470	
0.5265	33697.53	3.7740	3.7741	1.7852	26.56	0.58	1.500			
0.5320	34047.06	3.7710	3.7710	1.7983	26.54	0.56	1.500			
0.5373	34389.06	3.7680	3.7679	1.7858	26.52	0.54	1.500			
0.5427	34731.93	3.7650	3.7650	1.7811	26.50	0.52	1.500			
0.5480	35073.14	3.7620	3.7620	1.7721	26.49	0.51	1.500			
0.5533	35409.50	3.7590	3.7591	1.7664	26.47	0.49	1.500			
0.5586	35747.75	3.7560	3.7560	1.7723	26.45	0.47	1.500			
0.5639	36088.32	3.7530	3.7530	1.7785	26.44	0.46	1.500			
0.5692	36430.79	3.7500	3.7500	1.7920	26.42	0.44	1.500			
0.5747	36778.12	3.7470	3.7470	1.8126	26.40	0.42	1.500			
0.5801	37126.85	3.7440	3.7440	1.8277	26.39	0.41	1.500			
0.5856	37475.47	3.7410	3.7410	1.8526	26.37	0.39	1.500			
0.5912	37834.41	3.7380	3.7380	1.8916	26.36	0.38	1.500			
0.5969	38201.90	3.7350	3.7350	1.9355	26.34	0.36	1.500			
0.6028	38577.72	3.7320	3.7320	1.9721	26.32	0.34	1.500			
0.6087	38956.37	3.7290	3.7290	2.0353	26.31	0.33	1.500			
0.6149	39354.73	3.7260	3.7260	2.1020	26.29	0.31	1.500			
0.6213	39764.02	3.7230	3.7230	2.1713	26.27	0.29	1.500			
0.6280	40191.86	3.7200	3.7200	2.2124	26.25	0.27	1.500			
0.6347	40623.10	3.7170	3.7170	2.2701	26.23	0.25	1.500			
0.6415	41056.39	3.7140	3.7140	2.3288	26.21	0.23	1.500			
0.6486	41507.47	3.7110	3.7110	2.3948	26.19	0.21	1.500			
0.6558	41971.82	3.7080	3.7080	2.4445	26.17	0.19	1.500			
0.6634	42456.95	3.7050	3.7050	2.4326	26.15	0.17	1.500			
0.6707	42922.92	3.7020	3.7020	2.3613	26.14	0.16	1.500			
0.6777	43369.77	3.6990	3.6990	2.2131	26.13	0.15	1.500			
0.6842	43786.62	3.6960	3.6960	2.0684	26.12	0.14	1.500			
0.6901	44165.66	3.6930	3.6930	1.9124	26.11	0.13	1.500			
0.6955	44513.69	3.6900	3.6901	1.7719	26.10	0.12	1.500			
0.7005	44834.06	3.6870	3.6870	1.6473	26.09	0.11	1.500			
0.7053	45140.22	3.6840	3.6840	1.5545	26.08	0.10	1.500			
0.7098	45424.56	3.6810	3.6810	1.4777	26.07	0.09	1.500			
0.7141	45702.83	3.6780	3.6780	1.4197	26.06	0.08	1.500			
0.7182	45967.59	3.6750	3.6749	1.3637	26.05	0.07	1.500			
0.7222	46220.80	3.6720	3.6720	1.3255	26.04	0.06	1.500			
0.7261	46470.28	3.6690	3.6691	1.2884	26.04	0.06	1.500			
0.7299	46711.67	3.6660	3.6659	1.2678	26.03	0.05	1.500			
0.7336	46951.16	3.6630	3.6631	1.2583	26.02	0.04	1.500			
0.7373	47187.95	3.6600	3.6600	1.2542	26.01	0.03	1.500			
0.7410	47426.94	3.6570	3.6570	1.2604	26.01	0.03	1.500			
0.7448	47669.51	3.6540	3.6540	1.2682	26.00	0.02	1.500			
0.7487	47914.97	3.6510	3.6510	1.2720	25.99	0.01	1.500			
0.7526	48164.13	3.6480	3.6480	1.2800	25.99	0.01	1.500			
0.7564	48410.66	3.6450	3.6450	1.2704	25.98	-0.00	1.500			
0.7602	48655.12	3.6420	3.6420	1.2624	25.97	-0.01	1.500			
0.7640	48894.75	3.6390	3.6390	1.2510	25.97	-0.01	1.500			
0.7677	49132.31	3.6360	3.6360	1.2483	25.96	-0.02	1.500			
0.7714	49371.10	3.6330	3.6330	1.2419	25.96	-0.02	1.500			
0.7751	49609.26	3.6300	3.6300	1.2408	25.95	-0.03	1.500			
0.7789	49848.62	3.6270	3.6269	1.2382	25.95	-0.03	1.500			
0.7826	50088.19	3.6240	3.6241	1.2287	25.95	-0.03	1.500			
0.7863	50322.89	3.6210	3.6210	1.2155	25.95	-0.03	1.500			
0.7899	50554.90	3.6180	3.6181	1.2047	25.94	-0.04	1.500			
0.7935	50785.32	3.6150	3.6148	1.1902	25.94	-0.04	1.500			
0.7971	51013.13	3.6120	3.6120	1.1743	25.94	-0.04	1.500			
0.8006	51236.52	3.6090	3.6091	1.1542	25.93	-0.05	1.500			
0.8040	51457.81	3.6060	3.6060	1.1401	25.93	-0.05	1.500			
0.8074	51675.80	3.6030	3.6030	1.1191	25.93	-0.05	1.500			
0.8107	51887.16	3.6000	3.6000	1.0942	25.93	-0.05	1.500			
0.8140	52094.38	3.5970	3.5970	1.0734	25.92	-0.06	1.500			
0.8172	52300.56	3.5940	3.5940	1.0538	25.92	-0.06	1.500			
0.8203	52501.30	3.5910	3.5910	1.0288	25.92	-0.06	1.500			
0.8234	52700.37	3.5880	3.5879	0.9898	25.93	-0.05	1.500			
0.8264	52889.32	3.5850	3.5850	0.9379	25.94	-0.04	1.500			
0.8293	53072.79	3.5820	3.5819	0.8696	25.95	-0.03	1.500			
0.8318	53235.05	3.5790	3.5790	0.7799	25.95	-0.03	1.500			
0.8340	53378.24	3.5760	3.5761	0.6827	25.96	-0.02	1.500			
0.8359	53497.83	3.5730	3.5730	0.5818	25.96	-0.02	1.500			
0.8374	53594.54	3.5700	3.5700	0.4881	25.96	-0.02	1.500			
0.8387	53676.50	3.5670	3.5669	0.4120	25.97	-0.01	1.500			
0.8397	53742.50	3.5640	3.5640	0.3458	25.97	-0.01	1.500			
0.8406	53801.15	3.5610	3.5610	0.3006	25.97	-0.01	1.500			
0.8414	53852.72	3.5580	3.5580	0.2584	25.97	-0.01	1.500			
0.8422	53897.61	3.5550	3.5549	0.2291	25.98	-0.00	1.500			
0.8427	53935.76	3.5520	3.5521	0.2021	25.98	-0.00	1.500			
0.8433	53971.98	3.5490	3.5490	0.1836	25.98	-0.00	1.500			
0.8438	54005.06	3.5460	3.5460	0.1652	25.98	0.00	1.500			
0.8443	54034.60	3.5430	3.5430	0.1492	25.98	0.00	1.500			
0.8447	54061.53	3.5400	3.5401	0.1336	25.98	0.00	1.500			
0.8451	54085.71	3.5370	3.5369	0.1193	25.98	0.00	1.500			
0.8454	54107.11	3.5340	3.5341	0.1047	25.98	0.00	1.500			
0.8457	54125.78	3.5310	3.5310	0.0903	25.98	0.00	1.500			
0.8460	54141.70	3.5280	3.5282	0.0761	25.99	0.01	1.500			
0.8462	54154.96	3.5250	3.5252	0.0620	25.99	0.01	1.500			
0.8463	54165.75	3.5220	3.5224	0.0473	25.99	0.01	1.500			
0.8465	54173.41	3.5190	3.5199	0.0325	25.99	0.01	1.500			
