Ah_balance (normalized)	Ah_balance (mAh)	Voltage - fit (V)	Voltage -  interpolate (V)	dQ/dV (1/V)	Temperature (°C)	Temperature - diff (°C)	Current (C)	R_DC 0ms (mOhm)	R_DC 50ms (mOhm)	R_DC 50 ms PEC (mOhm)
0.2973	19025.68	3.9720	3.9720	0.8715	27.02	1.07	1.500			
0.2999	19192.33	3.9690	3.9690	0.8688	27.02	1.07	1.500			
0.3025	19358.81	3.9660	3.9660	0.8704	27.02	1.07	1.500			
0.3051	19525.75	3.9630	3.9630	0.8747	27.01	1.06	1.500			
0.3077	19693.35	3.9600	3.9600	0.8817	27.01	1.06	1.500			
0.3104	19863.10	3.9570	3.9570	0.8849	27.00	1.05	1.500			
0.3130	20034.33	3.9540	3.9539	0.8898	27.00	1.05	1.500			
0.3157	20206.85	3.9510	3.9510	0.8937	27.00	1.05	1.500			
0.3184	20378.78	3.9480	3.9480	0.8960	26.99	1.04	1.500			
0.3211	20550.77	3.9450	3.9450	0.8970	26.99	1.04	1.500			
0.3238	20721.91	3.9420	3.9420	0.8999	26.98	1.03	1.500			
0.3265	20895.03	3.9390	3.9390	0.9032	26.98	1.03	1.500			
0.3292	21068.82	3.9360	3.9360	0.9107	26.97	1.02	1.500			
0.3319	21243.84	3.9330	3.9330	0.9154	26.97	1.02	1.500			
0.3347	21420.23	3.9300	3.9300	0.9224	26.96	1.01	1.500			
0.3375	21598.33	3.9270	3.9268	0.9249	26.96	1.01	1.500			
0.3403	21776.30	3.9240	3.9241	0.9311	26.95	1.00	1.500			
0.3430	21954.99	3.9210	3.9210	0.9372	26.95	1.00	1.500			
0.3459	22136.31	3.9180	3.9180	0.9443	26.94	0.99	1.500			
0.3487	22317.43	3.9150	3.9150	0.9503	26.93	0.98	1.500			
0.3516	22500.24	3.9120	3.9120	0.9552	26.93	0.98	1.500			
0.3544	22683.59	3.9090	3.9090	0.9659	26.92	0.97	1.500			
0.3574	22871.49	3.9060	3.9060	0.9724	26.91	0.96	1.500			
0.3603	23057.58	3.9030	3.9029	0.9781	26.91	0.96	1.500			
0.3632	23246.46	3.9000	3.9001	0.9825	26.90	0.95	1.500			
0.3662	23435.83	3.8970	3.8970	0.9929	26.89	0.94	1.500			
0.3692	23626.92	3.8940	3.8940	0.9984	26.89	0.94	1.500			
0.3722	23818.82	3.8910	3.8910	1.0124	26.88	0.93	1.500			
0.3752	24012.26	3.8880	3.8881	1.0238	26.88	0.93	1.500			
0.3783	24211.98	3.8850	3.8849	1.0331	26.87	0.92	1.500			
0.3814	24410.40	3.8820	3.8821	1.0412	26.86	0.91	1.500			
0.3846	24612.12	3.8790	3.8791	1.0528	26.86	0.91	1.500			
0.3877	24814.24	3.8760	3.8759	1.0600	26.85	0.90	1.500			
0.3909	25019.38	3.8730	3.8731	1.0706	26.84	0.89	1.500			
0.3941	25224.13	3.8700	3.8701	1.0812	26.84	0.89	1.500			
0.3974	25433.42	3.8670	3.8669	1.0961	26.83	0.88	1.500			
0.4007	25646.48	3.8640	3.8640	1.1062	26.82	0.87	1.500			
0.4040	25858.48	3.8610	3.8610	1.1218	26.82	0.87	1.500			
0.4074	26074.68	3.8580	3.8581	1.1433	26.81	0.86	1.500			
0.4109	26296.88	3.8550	3.8550	1.1622	26.80	0.85	1.500			
0.4144	26522.44	3.8520	3.8520	1.1757	26.80	0.85	1.500			
0.4180	26749.95	3.8490	3.8491	1.1883	26.79	0.84	1.500			
0.4215	26978.16	3.8460	3.8460	1.2103	26.78	0.83	1.500			
0.4252	27213.22	3.8430	3.8430	1.2255	26.77	0.82	1.500			
0.4289	27446.97	3.8400	3.8400	1.2479	26.76	0.81	1.500			
0.4326	27688.34	3.8370	3.8370	1.2664	26.75	0.80	1.500			
0.4365	27934.92	3.8340	3.8340	1.2914	26.74	0.79	1.500			
0.4404	28185.44	3.8310	3.8310	1.3175	26.73	0.78	1.500			
0.4444	28439.94	3.8280	3.8281	1.3448	26.72	0.77	1.500			
0.4484	28699.53	3.8250	3.8249	1.3699	26.71	0.76	1.500			
0.4526	28963.99	3.8220	3.8221	1.4067	26.70	0.75	1.500			
0.4568	29235.87	3.8190	3.8190	1.4382	26.69	0.74	1.500			
0.4612	29517.22	3.8160	3.8159	1.4804	26.68	0.73	1.500			
0.4657	29805.22	3.8130	3.8130	1.5089	26.67	0.72	1.500			
0.4703	30101.49	3.8100	3.8100	1.5310	26.66	0.71	1.500			
0.4750	30398.21	3.8070	3.8070	1.5612	26.65	0.70	1.500			
0.4797	30698.59	3.8040	3.8040	1.5996	26.63	0.68	1.500			
0.4844	31003.65	3.8010	3.8011	1.6405	26.62	0.67	1.500			
0.4894	31321.34	3.7980	3.7979	1.7031	26.61	0.66	1.500			
0.4946	31654.27	3.7950	3.7951	1.7463	26.59	0.64	1.500			
0.5000	32000.71	3.7920	3.7920	1.8015	26.58	0.63	1.500			
0.5056	32355.88	3.7890	3.7891	1.8424	26.56	0.61	1.500			
0.5110	32706.98	3.7860	3.7860	1.8659	26.54	0.59	1.500			
0.5167	33066.65	3.7830	3.7830	1.9012	26.53	0.58	1.500			
0.5224	33434.12	3.7800	3.7800	1.9366	26.51	0.56	1.500			
0.5283	33813.25	3.7770	3.7770	1.9929	26.48	0.53	1.500			
0.5345	34204.82	3.7740	3.7740	2.0465	26.46	0.51	1.500			
0.5406	34601.16	3.7710	3.7711	2.0803	26.44	0.49	1.500			
0.5470	35009.46	3.7680	3.7680	2.1010	26.42	0.47	1.500			
0.5533	35413.77	3.7650	3.7649	2.1054	26.40	0.45	1.500			
0.5597	35818.39	3.7620	3.7621	2.0894	26.38	0.43	1.500	0.358	0.463	
0.5660	36221.56	3.7590	3.7590	2.0930	26.36	0.41	1.500			
0.5722	36621.96	3.7560	3.7560	2.0584	26.35	0.40	1.500			
0.5783	37013.91	3.7530	3.7530	2.0485	26.33	0.38	1.500			
0.5845	37408.46	3.7500	3.7500	2.0244	26.32	0.37	1.500			
0.5905	37794.77	3.7470	3.7470	2.0084	26.30	0.35	1.500			
0.5965	38178.04	3.7440	3.7441	1.9957	26.29	0.34	1.500			
0.6025	38560.22	3.7410	3.7409	2.0007	26.28	0.33	1.500			
0.6084	38940.38	3.7380	3.7381	2.0052	26.27	0.32	1.500			
0.6145	39328.98	3.7350	3.7350	2.0378	26.26	0.31	1.500			
0.6207	39724.67	3.7320	3.7320	2.0533	26.24	0.29	1.500			
0.6269	40120.00	3.7290	3.7290	2.0886	26.23	0.28	1.500			
0.6332	40522.70	3.7260	3.7260	2.1194	26.21	0.26	1.500			
0.6396	40931.74	3.7230	3.7230	2.1874	26.20	0.25	1.500			
0.6462	41358.04	3.7200	3.7200	2.2362	26.18	0.23	1.500			
0.6530	41793.68	3.7170	3.7170	2.3088	26.16	0.21	1.500			
0.6600	42239.62	3.7140	3.7140	2.3944	26.15	0.20	1.500			
0.6673	42706.22	3.7110	3.7110	2.4936	26.13	0.18	1.500			
0.6748	43190.19	3.7080	3.7080	2.5259	26.12	0.17	1.500			
0.6827	43694.17	3.7050	3.7051	2.6471	26.11	0.16	1.500			
0.6908	44210.19	3.7020	3.7020	2.6950	26.10	0.15	1.500			
0.6989	44730.28	3.6990	3.6991	2.6829	26.08	0.13	1.500			
0.7071	45257.56	3.6960	3.6960	2.6064	26.07	0.12	1.500			
0.7150	45757.65	3.6930	3.6929	2.4876	26.06	0.11	1.500			
0.7222	46222.54	3.6900	3.6901	2.3119	26.05	0.10	1.500			
0.7289	46649.22	3.6870	3.6870	2.1395	26.05	0.10	1.500			
0.7349	47036.35	3.6840	3.6840	1.9470	26.04	0.09	1.500			
0.7404	47384.91	3.6810	3.6811	1.7941	26.04	0.09	1.500			
0.7456	47716.09	3.6780	3.6779	1.6827	26.03	0.08	1.500			
0.7504	48024.28	3.6750	3.6749	1.5784	26.03	0.08	1.500			
0.7549	48311.76	3.6720	3.6720	1.4951	26.03	0.08	1.500			
0.7592	48589.53	3.6690	3.6691	1.4225	26.02	0.07	1.500			
0.7634	48854.76	3.6660	3.6659	1.3638	26.02	0.07	1.500			
0.7673	49109.23	3.6630	3.6630	1.3143	26.01	0.06	1.500			
0.7711	49351.36	3.6600	3.6601	1.2740	26.01	0.06	1.500			
0.7749	49591.65	3.6570	3.6569	1.2532	26.00	0.05	1.500			
0.7785	49826.84	3.6540	3.6540	1.2447	25.99	0.04	1.500			
0.7822	50061.05	3.6510	3.6511	1.2515	25.99	0.04	1.500			
0.7860	50301.58	3.6480	3.6479	1.2626	25.98	0.03	1.500			
0.7898	50545.05	3.6450	3.6450	1.2763	25.98	0.03	1.500			
0.7936	50791.18	3.6420	3.6420	1.2909	25.98	0.03	1.500			
0.7976	51043.47	3.6390	3.6391	1.2962	25.97	0.02	1.500			
0.8015	51294.73	3.6360	3.6359	1.3039	25.97	0.02	1.500			
0.8054	51546.00	3.6330	3.6331	1.3029	25.97	0.02	1.500			
0.8093	51794.98	3.6300	3.6300	1.3030	25.96	0.01	1.500			
0.8132	52045.29	3.6270	3.6269	1.3065	25.96	0.01	1.500			
0.8171	52295.36	3.6240	3.6240	1.3054	25.95	0.00	1.500			
0.8210	52544.62	3.6210	3.6210	1.3090	25.95	0.00	1.500			
0.8250	52798.12	3.6180	3.6180	1.3122	25.95	-0.00	1.500			
0.8289	53051.33	3.6150	3.6150	1.3062	25.94	-0.01	1.500			
0.8329	53304.98	3.6120	3.6120	1.3009	25.94	-0.01	1.500			
0.8368	53553.86	3.6090	3.6090	1.2860	25.93	-0.02	1.500			
0.8406	53800.58	3.6060	3.6061	1.2710	25.93	-0.02	1.500			
0.8444	54042.61	3.6030	3.6029	1.2567	25.93	-0.02	1.500			
0.8481	54280.34	3.6000	3.6000	1.2353	25.93	-0.02	1.500			
0.8518	54517.22	3.5970	3.5970	1.2175	25.92	-0.03	1.500			
0.8555	54749.29	3.5940	3.5940	1.1992	25.92	-0.03	1.500			
0.8590	54978.26	3.5910	3.5910	1.1859	25.92	-0.03	1.500			
0.8625	55202.56	3.5880	3.5880	1.1791	25.92	-0.03	1.500			
0.8660	55426.50	3.5850	3.5850	1.1711	25.92	-0.03	1.500			
0.8695	55650.71	3.5820	3.5819	1.1640	25.93	-0.02	1.500			
0.8731	55876.26	3.5790	3.5791	1.1544	25.93	-0.02	1.500			
0.8766	56105.58	3.5760	3.5759	1.1119	25.94	-0.01	1.500			
0.8800	56322.61	3.5730	3.5730	1.0377	25.94	-0.01	1.500			
0.8832	56525.49	3.5700	3.5701	0.9467	25.94	-0.01	1.500			
0.8859	56700.62	3.5670	3.5672	0.8187	25.95	-0.00	1.500			
0.8883	56848.14	3.5640	3.5640	0.6898	25.95	0.00	1.500			
0.8900	56962.54	3.5610	3.5609	0.5689	25.95	0.00	1.500			
0.8914	57050.14	3.5580	3.5579	0.4557	25.95	0.00	1.500			
0.8925	57122.55	3.5550	3.5549	0.3803	25.96	0.01	1.500			
0.8935	57182.48	3.5520	3.5520	0.3196	25.96	0.01	1.500			
0.8943	57234.85	3.5490	3.5489	0.2685	25.96	0.01	1.500			
0.8950	57281.14	3.5460	3.5458	0.2372	25.96	0.01	1.500			
0.8956	57320.50	3.5430	3.5430	0.2094	25.96	0.01	1.500			
0.8962	57357.42	3.5400	3.5401	0.1894	25.96	0.01	1.500			
0.8967	57391.76	3.5370	3.5370	0.1710	25.96	0.01	1.500			
0.8972	57422.15	3.5340	3.5340	0.1553	25.96	0.01	1.500			
0.8977	57449.84	3.5310	3.5310	0.1391	25.96	0.01	1.500			
0.8980	57474.91	3.5280	3.5281	0.1242	25.96	0.01	1.500			
0.8984	57497.46	3.5250	3.5250	0.1107	25.96	0.01	1.500			
0.8987	57517.65	3.5220	3.5220	0.0974	25.96	0.01	1.500			
0.8990	57535.07	3.5190	3.5191	0.0835	25.96	0.01	1.500			
0.8992	57549.77	3.5160	3.5163	0.0696	25.96	0.01	1.500			
0.8994	57562.00	3.5130	3.5134	0.0546	25.96	0.01	1.500			
0.8995	57571.08	3.5100	3.5106	0.0399	25.96	0.01	1.500			
