Ah_balance (normalized)	Ah_balance (mAh)	Voltage - fit (V)	Voltage -  interpolate (V)	dQ/dV (1/V)	Temperature (°C)	Temperature - diff (°C)	Current (C)	R_DC 0ms (mOhm)	R_DC 50ms (mOhm)	R_DC 50 ms PEC (mOhm)
0.1649	10556.45	4.1150	4.1149	0.7559	27.59	1.61	1.500			
0.1672	10701.00	4.1120	4.1121	0.7555	27.59	1.61	1.500			
0.1695	10846.85	4.1090	4.1090	0.7596	27.59	1.61	1.500			
0.1718	10993.19	4.1060	4.1060	0.7620	27.59	1.61	1.500			
0.1741	11140.40	4.1030	4.1030	0.7628	27.58	1.60	1.500			
0.1764	11286.79	4.1000	4.1000	0.7627	27.58	1.60	1.500			
0.1786	11433.11	4.0970	4.0970	0.7650	27.58	1.60	1.500			
0.1809	11580.47	4.0940	4.0940	0.7639	27.57	1.59	1.500			
0.1832	11727.02	4.0910	4.0909	0.7626	27.57	1.59	1.500			
0.1855	11873.03	4.0880	4.0879	0.7665	27.57	1.59	1.500			
0.1878	12020.33	4.0850	4.0851	0.7679	27.57	1.59	1.500			
0.1901	12168.44	4.0820	4.0819	0.7697	27.56	1.58	1.500			
0.1924	12315.86	4.0790	4.0791	0.7712	27.56	1.58	1.500			
0.1947	12462.79	4.0760	4.0760	0.7728	27.56	1.58	1.500			
0.1971	12612.37	4.0730	4.0729	0.7767	27.56	1.58	1.500			
0.1994	12762.57	4.0700	4.0700	0.7772	27.55	1.57	1.500			
0.2017	12911.47	4.0670	4.0670	0.7758	27.55	1.57	1.500			
0.2041	13062.01	4.0640	4.0641	0.7791	27.55	1.57	1.500			
0.2064	13210.59	4.0610	4.0610	0.7838	27.54	1.56	1.500			
0.2087	13359.78	4.0580	4.0580	0.7862	27.54	1.56	1.500			
0.2111	13511.80	4.0550	4.0550	0.7875	27.54	1.56	1.500			
0.2135	13663.81	4.0520	4.0520	0.7924	27.54	1.56	1.500			
0.2159	13816.14	4.0490	4.0490	0.7962	27.53	1.55	1.500			
0.2183	13970.19	4.0460	4.0459	0.7973	27.53	1.55	1.500			
0.2207	14122.44	4.0430	4.0430	0.7989	27.53	1.55	1.500			
0.2230	14274.86	4.0400	4.0400	0.7989	27.52	1.54	1.500			
0.2255	14429.78	4.0370	4.0371	0.8027	27.52	1.54	1.500			
0.2279	14584.50	4.0340	4.0339	0.8089	27.52	1.54	1.500			
0.2303	14739.26	4.0310	4.0311	0.8081	27.52	1.54	1.500			
0.2327	14894.71	4.0280	4.0280	0.8116	27.51	1.53	1.500			
0.2352	15051.85	4.0250	4.0250	0.8151	27.51	1.53	1.500			
0.2376	15208.16	4.0220	4.0220	0.8147	27.50	1.52	1.500			
0.2401	15364.95	4.0190	4.0191	0.8166	27.50	1.52	1.500			
0.2425	15521.45	4.0160	4.0160	0.8198	27.50	1.52	1.500			
0.2450	15678.51	4.0130	4.0130	0.8236	27.49	1.51	1.500			
0.2474	15836.26	4.0100	4.0100	0.8287	27.49	1.51	1.500			
0.2499	15995.59	4.0070	4.0070	0.8308	27.48	1.50	1.500			
0.2524	16156.67	4.0040	4.0040	0.8333	27.48	1.50	1.500			
0.2550	16316.84	4.0010	4.0010	0.8347	27.47	1.49	1.500			
0.2575	16477.74	3.9980	3.9981	0.8348	27.47	1.49	1.500			
0.2600	16637.29	3.9950	3.9950	0.8381	27.46	1.48	1.500			
0.2625	16797.28	3.9920	3.9920	0.8438	27.46	1.48	1.500			
0.2650	16959.54	3.9890	3.9890	0.8494	27.45	1.47	1.500			
0.2675	17122.74	3.9860	3.9860	0.8594	27.45	1.47	1.500			
0.2702	17289.68	3.9830	3.9830	0.8599	27.44	1.46	1.500			
0.2727	17455.87	3.9800	3.9798	0.8629	27.43	1.45	1.500			
0.2754	17622.85	3.9770	3.9771	0.8626	27.43	1.45	1.500			
0.2779	17787.63	3.9740	3.9740	0.8602	27.42	1.44	1.500			
0.2805	17951.51	3.9710	3.9710	0.8613	27.42	1.44	1.500			
0.2831	18117.29	3.9680	3.9679	0.8653	27.41	1.43	1.500			
0.2856	18280.98	3.9650	3.9651	0.8688	27.41	1.43	1.500			
0.2883	18450.33	3.9620	3.9620	0.8763	27.40	1.42	1.500			
0.2909	18619.88	3.9590	3.9590	0.8788	27.39	1.41	1.500			
0.2936	18789.56	3.9560	3.9560	0.8826	27.39	1.41	1.500			
0.2962	18958.39	3.9530	3.9531	0.8861	27.38	1.40	1.500			
0.2989	19128.35	3.9500	3.9500	0.8895	27.37	1.39	1.500			
0.3015	19298.98	3.9470	3.9469	0.8902	27.36	1.38	1.500			
0.3042	19470.10	3.9440	3.9440	0.8925	27.36	1.38	1.500			
0.3069	19641.69	3.9410	3.9411	0.9015	27.35	1.37	1.500			
0.3096	19815.13	3.9380	3.9378	0.9071	27.34	1.36	1.500			
0.3123	19989.26	3.9350	3.9350	0.9131	27.33	1.35	1.500			
0.3151	20165.38	3.9320	3.9320	0.9189	27.33	1.35	1.500			
0.3179	20342.95	3.9290	3.9291	0.9277	27.32	1.34	1.500			
0.3207	20522.04	3.9260	3.9260	0.9274	27.31	1.33	1.500			
0.3235	20702.00	3.9230	3.9229	0.9347	27.31	1.33	1.500			
0.3263	20881.09	3.9200	3.9200	0.9329	27.30	1.32	1.500			
0.3291	21060.45	3.9170	3.9170	0.9388	27.29	1.31	1.500			
0.3319	21240.24	3.9140	3.9140	0.9435	27.29	1.31	1.500			
0.3347	21421.82	3.9110	3.9110	0.9508	27.28	1.30	1.500			
0.3375	21603.03	3.9080	3.9080	0.9608	27.27	1.29	1.500			
0.3405	21789.67	3.9050	3.9050	0.9731	27.26	1.28	1.500			
0.3434	21978.01	3.9020	3.9020	0.9817	27.25	1.27	1.500			
0.3464	22168.29	3.8990	3.8990	0.9906	27.24	1.26	1.500			
0.3494	22359.27	3.8960	3.8961	0.9957	27.23	1.25	1.500			
0.3524	22551.21	3.8930	3.8930	1.0041	27.22	1.24	1.500			
0.3554	22744.44	3.8900	3.8899	1.0117	27.21	1.23	1.500			
0.3584	22936.88	3.8870	3.8871	1.0181	27.21	1.23	1.500			
0.3615	23133.90	3.8840	3.8840	1.0324	27.19	1.21	1.500			
0.3646	23335.08	3.8810	3.8810	1.0438	27.18	1.20	1.500			
0.3678	23537.07	3.8780	3.8779	1.0493	27.17	1.19	1.500			
0.3709	23739.32	3.8750	3.8750	1.0606	27.16	1.18	1.500			
0.3741	23943.55	3.8720	3.8721	1.0656	27.15	1.17	1.500			
0.3773	24147.96	3.8690	3.8689	1.0793	27.14	1.16	1.500			
0.3806	24355.64	3.8660	3.8660	1.0924	27.13	1.15	1.500			
0.3838	24564.60	3.8630	3.8630	1.1101	27.11	1.13	1.500			
0.3872	24779.99	3.8600	3.8600	1.1272	27.10	1.12	1.500			
0.3906	24999.39	3.8570	3.8570	1.1461	27.09	1.11	1.500			
0.3941	25221.36	3.8540	3.8540	1.1564	27.08	1.10	1.500			
0.3976	25446.89	3.8510	3.8510	1.1692	27.07	1.09	1.500			
0.4011	25671.36	3.8480	3.8480	1.1814	27.07	1.09	1.500			
0.4047	25898.77	3.8450	3.8450	1.1949	27.06	1.08	1.500			
0.4082	26126.93	3.8420	3.8420	1.2116	27.05	1.07	1.500			
0.4119	26362.33	3.8390	3.8390	1.2323	27.03	1.05	1.500			
0.4156	26600.83	3.8360	3.8360	1.2472	27.02	1.04	1.500			
0.4194	26842.49	3.8330	3.8331	1.2682	27.01	1.03	1.500			
0.4233	27088.15	3.8300	3.8300	1.2854	26.99	1.01	1.500			
0.4271	27334.53	3.8270	3.8270	1.3084	26.98	1.00	1.500			
0.4310	27586.22	3.8240	3.8240	1.3306	26.96	0.98	1.500			
0.4351	27843.32	3.8210	3.8209	1.3565	26.95	0.97	1.500			
0.4392	28107.98	3.8180	3.8180	1.3835	26.94	0.96	1.500			
0.4434	28377.66	3.8150	3.8150	1.4041	26.92	0.94	1.500			
0.4476	28649.05	3.8120	3.8120	1.4285	26.90	0.92	1.500			
0.4519	28924.54	3.8090	3.8091	1.4486	26.89	0.91	1.500			
0.4563	29204.26	3.8060	3.8060	1.4751	26.87	0.89	1.500			
0.4608	29490.11	3.8030	3.8030	1.5014	26.86	0.88	1.500			
0.4653	29781.41	3.8000	3.8000	1.5267	26.84	0.86	1.500			
0.4700	30077.85	3.7970	3.7970	1.5537	26.82	0.84	1.500			
0.4747	30377.90	3.7940	3.7940	1.5807	26.80	0.82	1.500			
0.4794	30683.21	3.7910	3.7910	1.6012	26.78	0.80	1.500			
0.4843	30994.16	3.7880	3.7879	1.6249	26.76	0.78	1.500			
0.4892	31309.29	3.7850	3.7850	1.6409	26.75	0.77	1.500			
0.4942	31628.46	3.7820	3.7820	1.6464	26.73	0.75	1.500			
0.4991	31944.89	3.7790	3.7790	1.6695	26.71	0.73	1.500			
0.5041	32263.80	3.7760	3.7761	1.6828	26.70	0.72	1.500			
0.5092	32589.11	3.7730	3.7728	1.6964	26.68	0.70	1.500			
0.5143	32917.51	3.7700	3.7700	1.7130	26.66	0.68	1.500			
0.5195	33249.03	3.7670	3.7671	1.7190	26.65	0.67	1.500			
0.5247	33583.57	3.7640	3.7640	1.7419	26.63	0.65	1.500			
0.5299	33916.14	3.7610	3.7610	1.7564	26.61	0.63	1.500			
0.5352	34252.82	3.7580	3.7579	1.7681	26.59	0.61	1.500			
0.5406	34597.37	3.7550	3.7550	1.7897	26.57	0.59	1.500			
0.5460	34943.69	3.7520	3.7521	1.8123	26.55	0.57	1.500			
0.5515	35293.34	3.7490	3.7490	1.8375	26.53	0.55	1.500			
0.5569	35644.19	3.7460	3.7460	1.8575	26.51	0.53	1.500			
0.5625	36002.52	3.7430	3.7430	1.8771	26.49	0.51	1.500			
0.5682	36367.02	3.7400	3.7400	1.9165	26.47	0.49	1.500			
0.5740	36733.48	3.7370	3.7371	1.9550	26.46	0.48	1.500			
0.5799	37110.84	3.7340	3.7340	1.9988	26.44	0.46	1.500			
0.5859	37499.02	3.7310	3.7309	2.0595	26.42	0.44	1.500			
0.5922	37902.94	3.7280	3.7281	2.1075	26.40	0.42	1.500			
0.5987	38315.76	3.7250	3.7250	2.1667	26.38	0.40	1.500			
0.6053	38737.92	3.7220	3.7221	2.2095	26.36	0.38	1.500			
0.6120	39166.09	3.7190	3.7190	2.2581	26.34	0.36	1.500			
0.6189	39608.11	3.7160	3.7161	2.3140	26.33	0.35	1.500			
0.6259	40056.03	3.7130	3.7129	2.3452	26.31	0.33	1.500			
0.6331	40521.56	3.7100	3.7100	2.3297	26.29	0.31	1.500			
0.6401	40969.19	3.7070	3.7070	2.2684	26.27	0.29	1.500			
0.6470	41407.23	3.7040	3.7041	2.1619	26.25	0.27	1.500			
0.6532	41806.52	3.7010	3.7009	2.0150	26.24	0.26	1.500			
0.6590	42175.58	3.6980	3.6980	1.8675	26.22	0.24	1.500			
0.6644	42519.91	3.6950	3.6950	1.7560	26.21	0.23	1.500			
0.6694	42843.87	3.6920	3.6920	1.6438	26.20	0.22	1.500			
0.6741	43144.27	3.6890	3.6890	1.5545	26.19	0.21	1.500			
0.6786	43431.17	3.6860	3.6860	1.4881	26.18	0.20	1.500			
0.6829	43706.35	3.6830	3.6830	1.4217	26.17	0.19	1.500			
0.6871	43972.22	3.6800	3.6800	1.3756	26.15	0.17	1.500			
0.6911	44230.77	3.6770	3.6770	1.3358	26.14	0.16	1.500			
0.6950	44481.56	3.6740	3.6740	1.3081	26.13	0.15	1.500			
0.6989	44729.11	3.6710	3.6710	1.2872	26.12	0.14	1.500			
0.7026	44969.47	3.6680	3.6680	1.2658	26.11	0.13	1.500			
0.7064	45210.60	3.6650	3.6650	1.2632	26.10	0.12	1.500			
0.7102	45452.24	3.6620	3.6620	1.2625	26.09	0.11	1.500			
0.7140	45693.96	3.6590	3.6590	1.2643	26.08	0.10	1.500			
0.7178	45937.87	3.6560	3.6560	1.2665	26.07	0.09	1.500			
0.7216	46182.51	3.6530	3.6530	1.2620	26.06	0.08	1.500			
0.7254	46424.86	3.6500	3.6500	1.2630	26.05	0.07	1.500			
0.7292	46668.51	3.6470	3.6470	1.2566	26.04	0.06	1.500			
0.7330	46909.14	3.6440	3.6440	1.2476	26.03	0.05	1.500			
0.7367	47148.08	3.6410	3.6411	1.2407	26.03	0.05	1.500			
0.7404	47383.86	3.6380	3.6380	1.2324	26.02	0.04	1.500			
0.7441	47620.25	3.6350	3.6350	1.2277	26.01	0.03	1.500			
0.7478	47856.90	3.6320	3.6320	1.2183	26.00	0.02	1.500			
0.7514	48088.77	3.6290	3.6290	1.2080	25.99	0.01	1.500			
0.7550	48321.40	3.6260	3.6261	1.1981	25.98	0.00	1.500			
0.7586	48550.70	3.6230	3.6229	1.1868	25.97	-0.01	1.500			
0.7621	48777.43	3.6200	3.6200	1.1717	25.97	-0.01	1.500			
0.7656	49000.72	3.6170	3.6170	1.1546	25.96	-0.02	1.500			
0.7691	49221.42	3.6140	3.6140	1.1395	25.96	-0.02	1.500			
0.7725	49441.17	3.6110	3.6110	1.1220	25.96	-0.02	1.500			
0.7758	49653.05	3.6080	3.6080	1.1010	25.95	-0.03	1.500			
0.7791	49863.05	3.6050	3.6050	1.0821	25.95	-0.03	1.500			
0.7823	50068.80	3.6020	3.6020	1.0598	25.94	-0.04	1.500			
0.7855	50270.63	3.5990	3.5990	1.0374	25.94	-0.04	1.500			
0.7886	50469.22	3.5960	3.5960	1.0030	25.95	-0.03	1.500			
0.7916	50662.76	3.5930	3.5931	0.9649	25.95	-0.03	1.500			
0.7945	50847.84	3.5900	3.5900	0.9059	25.96	-0.02	1.500			
0.7972	51018.52	3.5870	3.5870	0.8332	25.96	-0.02	1.500			
0.7996	51176.14	3.5840	3.5840	0.7492	25.96	-0.02	1.500			
0.8018	51312.20	3.5810	3.5811	0.6548	25.97	-0.01	1.500			
0.8036	51428.39	3.5780	3.5780	0.5641	25.97	-0.01	1.500			
0.8051	51526.23	3.5750	3.5750	0.4764	25.97	-0.01	1.500			
0.8063	51602.80	3.5720	3.5720	0.4048	25.97	-0.01	1.500			
0.8073	51669.90	3.5690	3.5690	0.3474	25.98	-0.00	1.500			
0.8083	51728.80	3.5660	3.5659	0.2956	25.98	-0.00	1.500			
0.8091	51779.76	3.5630	3.5630	0.2616	25.98	-0.00	1.500			
0.8098	51824.38	3.5600	3.5599	0.2323	25.98	-0.00	1.500			
0.8104	51864.95	3.5570	3.5569	0.2095	25.98	0.00	1.500			
0.8110	51902.29	3.5540	3.5541	0.1886	25.98	0.00	1.500			
0.8115	51935.96	3.5510	3.5510	0.1708	25.98	0.00	1.500			
0.8120	51967.02	3.5480	3.5479	0.1557	25.98	0.00	1.500			
0.8124	51995.20	3.5450	3.5450	0.1401	25.98	0.00	1.500			
0.8128	52020.69	3.5420	3.5420	0.1256	25.98	0.00	1.500			
0.8132	52043.37	3.5390	3.5389	0.1110	25.99	0.01	1.500			
0.8135	52063.36	3.5360	3.5359	0.0967	25.99	0.01	1.500			
0.8138	52080.40	3.5330	3.5331	0.0820	25.99	0.01	1.500			
0.8140	52094.79	3.5300	3.5303	0.0678	25.99	0.01	1.500			
0.8142	52106.89	3.5270	3.5273	0.0532	25.99	0.01	1.500			
0.8143	52115.67	3.5240	3.5246	0.0382	25.99	0.01	1.500			
0.8144	52121.57	3.5210	3.5220	0.0232	25.99	0.01	1.500			
