Ah_balance (normalized)	Ah_balance (mAh)	Voltage - fit (V)	Voltage -  interpolate (V)	dQ/dV (1/V)	Temperature (°C)	Temperature - diff (°C)	Current (C)	R_DC 0ms (mOhm)	R_DC 50ms (mOhm)	R_DC 50 ms PEC (mOhm)
0.2873	18384.05	3.9700	3.9699	0.8986	26.94	1.01	1.500			
0.2899	18553.01	3.9670	3.9670	0.8828	26.94	1.01	1.500			
0.2925	18721.88	3.9640	3.9641	0.8835	26.93	1.00	1.500			
0.2952	18891.39	3.9610	3.9610	0.8879	26.93	1.00	1.500			
0.2979	19062.58	3.9580	3.9580	0.8900	26.93	1.00	1.500			
0.3005	19234.75	3.9550	3.9550	0.8856	26.93	1.00	1.500			
0.3032	19403.64	3.9520	3.9521	0.8902	26.93	1.00	1.500			
0.3059	19574.68	3.9490	3.9491	0.8993	26.92	0.99	1.500			
0.3085	19746.72	3.9460	3.9460	0.9003	26.92	0.99	1.500			
0.3112	19919.08	3.9430	3.9430	0.9057	26.92	0.99	1.500			
0.3140	20093.46	3.9400	3.9401	0.9150	26.91	0.98	1.500			
0.3167	20271.87	3.9370	3.9370	0.9253	26.91	0.98	1.500			
0.3196	20451.41	3.9340	3.9340	0.9297	26.91	0.98	1.500			
0.3223	20629.89	3.9310	3.9309	0.9288	26.90	0.97	1.500			
0.3252	20809.88	3.9280	3.9281	0.9283	26.90	0.97	1.500			
0.3279	20988.66	3.9250	3.9250	0.9344	26.89	0.96	1.500			
0.3307	21166.39	3.9220	3.9220	0.9354	26.89	0.96	1.500			
0.3335	21343.63	3.9190	3.9191	0.9426	26.88	0.95	1.500			
0.3363	21525.32	3.9160	3.9161	0.9545	26.88	0.95	1.500			
0.3392	21711.65	3.9130	3.9130	0.9653	26.87	0.94	1.500			
0.3422	21898.83	3.9100	3.9099	0.9728	26.87	0.94	1.500			
0.3451	22088.09	3.9070	3.9071	0.9832	26.86	0.93	1.500			
0.3481	22275.53	3.9040	3.9041	0.9881	26.86	0.93	1.500			
0.3510	22466.84	3.9010	3.9009	0.9916	26.85	0.92	1.500			
0.3540	22656.40	3.8980	3.8981	0.9995	26.85	0.92	1.500			
0.3570	22847.78	3.8950	3.8950	1.0099	26.85	0.92	1.500			
0.3600	23042.94	3.8920	3.8920	1.0213	26.84	0.91	1.500			
0.3631	23240.22	3.8890	3.8890	1.0332	26.84	0.91	1.500			
0.3662	23439.36	3.8860	3.8860	1.0413	26.83	0.90	1.500			
0.3694	23641.01	3.8830	3.8831	1.0529	26.83	0.90	1.500			
0.3726	23846.26	3.8800	3.8800	1.0622	26.82	0.89	1.500			
0.3758	24050.01	3.8770	3.8770	1.0674	26.82	0.89	1.500			
0.3790	24253.88	3.8740	3.8741	1.0777	26.81	0.88	1.500			
0.3822	24461.24	3.8710	3.8710	1.0928	26.80	0.87	1.500			
0.3855	24672.66	3.8680	3.8679	1.1073	26.80	0.87	1.500			
0.3889	24887.22	3.8650	3.8650	1.1240	26.80	0.87	1.500			
0.3923	25104.68	3.8620	3.8620	1.1372	26.79	0.86	1.500			
0.3957	25325.70	3.8590	3.8591	1.1497	26.79	0.86	1.500			
0.3992	25547.47	3.8560	3.8560	1.1603	26.78	0.85	1.500			
0.4026	25768.53	3.8530	3.8530	1.1787	26.78	0.85	1.500			
0.4062	25993.68	3.8500	3.8500	1.1987	26.77	0.84	1.500			
0.4098	26226.21	3.8470	3.8469	1.2216	26.77	0.84	1.500			
0.4135	26462.92	3.8440	3.8440	1.2479	26.76	0.83	1.500			
0.4173	26707.12	3.8410	3.8411	1.2688	26.76	0.83	1.500			
0.4212	26955.04	3.8380	3.8379	1.2938	26.75	0.82	1.500			
0.4250	27202.74	3.8350	3.8351	1.3152	26.74	0.81	1.500			
0.4290	27457.40	3.8320	3.8320	1.3380	26.73	0.80	1.500			
0.4330	27715.04	3.8290	3.8290	1.3641	26.72	0.79	1.500			
0.4372	27980.43	3.8260	3.8260	1.3922	26.72	0.79	1.500			
0.4414	28249.95	3.8230	3.8230	1.4178	26.71	0.78	1.500			
0.4457	28526.34	3.8200	3.8200	1.4429	26.69	0.76	1.500			
0.4500	28802.09	3.8170	3.8170	1.4735	26.68	0.75	1.500			
0.4545	29085.87	3.8140	3.8141	1.5046	26.67	0.74	1.500			
0.4590	29379.12	3.8110	3.8109	1.5447	26.66	0.73	1.500			
0.4637	29677.58	3.8080	3.8080	1.5816	26.65	0.72	1.500			
0.4686	29987.22	3.8050	3.8051	1.6203	26.64	0.71	1.500			
0.4735	30301.37	3.8020	3.8020	1.6758	26.63	0.70	1.500			
0.4785	30625.66	3.7990	3.7990	1.7219	26.62	0.69	1.500			
0.4837	30959.81	3.7960	3.7959	1.7714	26.60	0.67	1.500			
0.4892	31306.30	3.7930	3.7931	1.8307	26.59	0.66	1.500			
0.4948	31664.21	3.7900	3.7900	1.8780	26.58	0.65	1.500			
0.5005	32030.86	3.7870	3.7870	1.9250	26.56	0.63	1.500			
0.5063	32403.10	3.7840	3.7841	1.9551	26.55	0.62	1.500			
0.5122	32782.81	3.7810	3.7810	2.0205	26.54	0.61	1.500			
0.5184	33177.04	3.7780	3.7779	2.0533	26.52	0.59	1.500			
0.5246	33575.13	3.7750	3.7750	2.1123	26.51	0.58	1.500			
0.5311	33987.23	3.7720	3.7721	2.1541	26.49	0.56	1.500			
0.5376	34408.47	3.7690	3.7689	2.1834	26.47	0.54	1.500			
0.5442	34829.03	3.7660	3.7660	2.1975	26.45	0.52	1.500			
0.5509	35258.16	3.7630	3.7629	2.2493	26.43	0.50	1.500			
0.5576	35687.44	3.7600	3.7600	2.2541	26.41	0.48	1.500	0.367	0.455	
0.5644	36124.32	3.7570	3.7571	2.2461	26.39	0.46	1.500			
0.5713	36560.10	3.7540	3.7540	2.2090	26.37	0.44	1.500			
0.5779	36984.43	3.7510	3.7510	2.1698	26.36	0.43	1.500			
0.5842	37388.31	3.7480	3.7479	2.1394	26.34	0.41	1.500			
0.5906	37796.29	3.7450	3.7450	2.1169	26.32	0.39	1.500			
0.5969	38199.65	3.7420	3.7420	2.1059	26.31	0.38	1.500			
0.6032	38603.89	3.7390	3.7391	2.1039	26.29	0.36	1.500			
0.6095	39005.95	3.7360	3.7358	2.1052	26.27	0.34	1.500			
0.6158	39408.14	3.7330	3.7331	2.1040	26.25	0.32	1.500			
0.6221	39812.67	3.7300	3.7301	2.1349	26.24	0.31	1.500			
0.6285	40222.43	3.7270	3.7270	2.1684	26.22	0.29	1.500			
0.6349	40636.74	3.7240	3.7239	2.2003	26.20	0.27	1.500			
0.6416	41063.80	3.7210	3.7210	2.2567	26.19	0.26	1.500			
0.6485	41503.90	3.7180	3.7180	2.3310	26.18	0.25	1.500			
0.6555	41954.58	3.7150	3.7150	2.3943	26.17	0.24	1.500			
0.6628	42420.47	3.7120	3.7120	2.4916	26.15	0.22	1.500			
0.6705	42911.82	3.7090	3.7090	2.5576	26.14	0.21	1.500			
0.6783	43408.61	3.7060	3.7061	2.6877	26.12	0.19	1.500			
0.6866	43942.54	3.7030	3.7030	2.7886	26.10	0.17	1.500			
0.6951	44488.62	3.7000	3.7000	2.8335	26.08	0.15	1.500			
0.7038	45044.97	3.6970	3.6970	2.7925	26.07	0.14	1.500			
0.7122	45578.50	3.6940	3.6941	2.7034	26.06	0.13	1.500			
0.7202	46090.11	3.6910	3.6910	2.5926	26.05	0.12	1.500			
0.7278	46578.72	3.6880	3.6879	2.3916	26.04	0.11	1.500			
0.7346	47015.40	3.6850	3.6850	2.1818	26.03	0.10	1.500			
0.7408	47412.76	3.6820	3.6820	1.9914	26.02	0.09	1.500			
0.7463	47760.19	3.6790	3.6790	1.8030	26.02	0.09	1.500			
0.7514	48087.60	3.6760	3.6761	1.6800	26.01	0.08	1.500			
0.7562	48398.17	3.6730	3.6730	1.5821	26.00	0.07	1.500			
0.7608	48692.70	3.6700	3.6699	1.4964	26.00	0.07	1.500			
0.7651	48968.92	3.6670	3.6670	1.4243	26.00	0.07	1.500			
0.7693	49235.13	3.6640	3.6641	1.3602	25.99	0.06	1.500			
0.7732	49486.59	3.6610	3.6609	1.3092	25.99	0.06	1.500			
0.7770	49728.19	3.6580	3.6580	1.2635	25.99	0.06	1.500			
0.7806	49960.52	3.6550	3.6551	1.2391	25.98	0.05	1.500			
0.7843	50195.94	3.6520	3.6519	1.2349	25.98	0.05	1.500			
0.7880	50429.51	3.6490	3.6490	1.2391	25.98	0.05	1.500			
0.7917	50666.90	3.6460	3.6460	1.2501	25.97	0.04	1.500			
0.7955	50909.76	3.6430	3.6430	1.2687	25.96	0.03	1.500			
0.7993	51155.14	3.6400	3.6400	1.2848	25.96	0.03	1.500			
0.8032	51404.89	3.6370	3.6370	1.2973	25.95	0.02	1.500			
0.8071	51656.74	3.6340	3.6340	1.3011	25.94	0.01	1.500			
0.8111	51908.72	3.6310	3.6310	1.3027	25.94	0.01	1.500			
0.8150	52158.81	3.6280	3.6280	1.2999	25.94	0.01	1.500			
0.8189	52408.15	3.6250	3.6250	1.2962	25.93	0.00	1.500			
0.8227	52654.50	3.6220	3.6220	1.2942	25.93	-0.00	1.500			
0.8266	52901.61	3.6190	3.6190	1.2929	25.93	-0.00	1.500			
0.8305	53150.81	3.6160	3.6160	1.2971	25.92	-0.01	1.500			
0.8344	53401.17	3.6130	3.6129	1.2939	25.92	-0.01	1.500			
0.8383	53650.75	3.6100	3.6101	1.2950	25.92	-0.01	1.500			
0.8422	53900.05	3.6070	3.6070	1.2862	25.92	-0.01	1.500			
0.8461	54148.33	3.6040	3.6040	1.2770	25.92	-0.01	1.500			
0.8499	54392.29	3.6010	3.6010	1.2621	25.92	-0.01	1.500			
0.8536	54633.31	3.5980	3.5980	1.2445	25.92	-0.01	1.500			
0.8573	54869.80	3.5950	3.5950	1.2300	25.92	-0.01	1.500			
0.8610	55105.10	3.5920	3.5920	1.2170	25.92	-0.01	1.500			
0.8646	55334.86	3.5890	3.5890	1.2024	25.92	-0.01	1.500			
0.8682	55565.40	3.5860	3.5860	1.1930	25.92	-0.01	1.500			
0.8717	55791.29	3.5830	3.5830	1.1890	25.92	-0.01	1.500			
0.8753	56018.12	3.5800	3.5799	1.1913	25.93	-0.00	1.500			
0.8789	56247.14	3.5770	3.5770	1.1901	25.93	-0.00	1.500			
0.8825	56480.17	3.5740	3.5739	1.1644	25.93	-0.00	1.500			
0.8861	56711.12	3.5710	3.5710	1.1205	25.93	0.00	1.500			
0.8895	56930.72	3.5680	3.5681	1.0177	25.93	0.00	1.500			
0.8927	57130.77	3.5650	3.5652	0.9050	25.93	0.00	1.500			
0.8952	57292.16	3.5620	3.5621	0.7586	25.93	0.00	1.500			
0.8972	57420.80	3.5590	3.5589	0.6111	25.93	0.00	1.500			
0.8986	57511.04	3.5560	3.5561	0.4899	25.94	0.01	1.500			
0.8998	57585.73	3.5530	3.5529	0.3985	25.94	0.01	1.500			
0.9008	57648.93	3.5500	3.5499	0.3197	25.94	0.01	1.500			
0.9016	57701.44	3.5470	3.5467	0.2720	25.94	0.01	1.500			
0.9023	57745.73	3.5440	3.5441	0.2342	25.94	0.01	1.500			
0.9029	57785.60	3.5410	3.5411	0.2062	25.94	0.01	1.500			
0.9035	57821.31	3.5380	3.5380	0.1805	25.94	0.01	1.500			
0.9040	57852.83	3.5350	3.5349	0.1611	25.94	0.01	1.500			
0.9044	57880.73	3.5320	3.5320	0.1418	25.94	0.01	1.500			
0.9048	57906.20	3.5290	3.5289	0.1251	25.94	0.01	1.500			
0.9051	57928.74	3.5260	3.5261	0.1096	25.94	0.01	1.500			
0.9054	57948.63	3.5230	3.5230	0.0943	25.94	0.01	1.500			
0.9057	57965.21	3.5200	3.5202	0.0783	25.94	0.01	1.500			
0.9059	57978.69	3.5170	3.5174	0.0624	25.94	0.01	1.500			
0.9061	57989.13	3.5140	3.5146	0.0464	25.94	0.01	1.500			
