Ah_balance (normalized)	Ah_balance (mAh)	Voltage - fit (V)	Voltage -  interpolate (V)	dQ/dV (1/V)	Temperature (°C)	Temperature - diff (°C)	Current (C)	R_DC 0ms (mOhm)	R_DC 50ms (mOhm)	R_DC 50 ms PEC (mOhm)
0.2812	17993.94	3.9890	3.9890	0.8353	27.37	1.39	1.500			
0.2836	18152.57	3.9860	3.9860	0.8324	27.37	1.39	1.500			
0.2861	18313.52	3.9830	3.9830	0.8364	27.36	1.38	1.500			
0.2887	18474.64	3.9800	3.9801	0.8375	27.36	1.38	1.500			
0.2912	18635.00	3.9770	3.9770	0.8441	27.35	1.37	1.500			
0.2937	18798.27	3.9740	3.9740	0.8474	27.34	1.36	1.500			
0.2963	18961.46	3.9710	3.9709	0.8546	27.34	1.36	1.500			
0.2988	19124.51	3.9680	3.9681	0.8571	27.33	1.35	1.500			
0.3014	19289.44	3.9650	3.9650	0.8615	27.32	1.34	1.500			
0.3040	19456.02	3.9620	3.9620	0.8693	27.32	1.34	1.500			
0.3066	19623.79	3.9590	3.9590	0.8749	27.31	1.33	1.500			
0.3093	19792.49	3.9560	3.9560	0.8747	27.31	1.33	1.500			
0.3119	19961.60	3.9530	3.9530	0.8779	27.30	1.32	1.500			
0.3145	20129.98	3.9500	3.9501	0.8745	27.29	1.31	1.500			
0.3171	20297.27	3.9470	3.9469	0.8783	27.29	1.31	1.500			
0.3198	20465.60	3.9440	3.9440	0.8824	27.28	1.30	1.500			
0.3224	20634.80	3.9410	3.9410	0.8845	27.27	1.29	1.500			
0.3251	20804.97	3.9380	3.9380	0.8919	27.27	1.29	1.500			
0.3278	20977.38	3.9350	3.9350	0.9008	27.26	1.28	1.500			
0.3305	21149.82	3.9320	3.9320	0.9084	27.25	1.27	1.500			
0.3332	21324.73	3.9290	3.9290	0.9175	27.24	1.26	1.500			
0.3360	21501.77	3.9260	3.9260	0.9206	27.23	1.25	1.500			
0.3388	21680.67	3.9230	3.9230	0.9224	27.22	1.24	1.500			
0.3415	21857.94	3.9200	3.9199	0.9283	27.21	1.23	1.500			
0.3443	22036.17	3.9170	3.9171	0.9302	27.21	1.23	1.500			
0.3471	22213.82	3.9140	3.9139	0.9381	27.20	1.22	1.500			
0.3499	22393.86	3.9110	3.9110	0.9427	27.19	1.21	1.500			
0.3527	22575.46	3.9080	3.9080	0.9538	27.18	1.20	1.500			
0.3556	22759.87	3.9050	3.9050	0.9662	27.17	1.19	1.500			
0.3585	22946.46	3.9020	3.9021	0.9762	27.17	1.19	1.500			
0.3615	23135.34	3.8990	3.8989	0.9772	27.16	1.18	1.500			
0.3645	23326.21	3.8960	3.8960	0.9780	27.15	1.17	1.500			
0.3674	23511.39	3.8930	3.8931	0.9911	27.15	1.17	1.500			
0.3703	23701.54	3.8900	3.8900	1.0020	27.14	1.16	1.500			
0.3733	23893.65	3.8870	3.8868	1.0124	27.13	1.15	1.500			
0.3764	24089.18	3.8840	3.8841	1.0200	27.12	1.14	1.500			
0.3795	24287.01	3.8810	3.8810	1.0333	27.11	1.13	1.500			
0.3826	24487.59	3.8780	3.8781	1.0458	27.10	1.12	1.500			
0.3858	24689.89	3.8750	3.8749	1.0569	27.09	1.11	1.500			
0.3889	24890.77	3.8720	3.8720	1.0644	27.08	1.10	1.500			
0.3921	25097.38	3.8690	3.8689	1.0786	27.07	1.09	1.500			
0.3954	25306.58	3.8660	3.8660	1.0879	27.06	1.08	1.500			
0.3987	25517.34	3.8630	3.8630	1.0991	27.05	1.07	1.500			
0.4020	25727.59	3.8600	3.8600	1.1151	27.04	1.06	1.500			
0.4054	25942.54	3.8570	3.8570	1.1312	27.03	1.05	1.500			
0.4087	26159.40	3.8540	3.8539	1.1458	27.02	1.04	1.500			
0.4122	26382.38	3.8510	3.8510	1.1595	27.01	1.03	1.500			
0.4157	26607.69	3.8480	3.8481	1.1787	27.00	1.02	1.500			
0.4193	26836.05	3.8450	3.8450	1.1953	26.99	1.01	1.500			
0.4229	27066.58	3.8420	3.8419	1.2098	26.98	1.00	1.500			
0.4265	27298.74	3.8390	3.8390	1.2296	26.97	0.99	1.500			
0.4302	27535.72	3.8360	3.8361	1.2500	26.96	0.98	1.500			
0.4340	27778.90	3.8330	3.8329	1.2700	26.95	0.97	1.500			
0.4379	28025.35	3.8300	3.8300	1.2965	26.94	0.96	1.500			
0.4418	28274.97	3.8270	3.8270	1.3162	26.92	0.94	1.500			
0.4458	28529.50	3.8240	3.8240	1.3422	26.91	0.93	1.500			
0.4498	28789.88	3.8210	3.8209	1.3646	26.90	0.92	1.500			
0.4540	29054.04	3.8180	3.8180	1.3868	26.88	0.90	1.500			
0.4582	29324.78	3.8150	3.8150	1.4049	26.87	0.89	1.500			
0.4624	29595.63	3.8120	3.8120	1.4278	26.86	0.88	1.500			
0.4667	29870.00	3.8090	3.8090	1.4512	26.84	0.86	1.500			
0.4711	30149.68	3.8060	3.8060	1.4789	26.83	0.85	1.500			
0.4756	30436.23	3.8030	3.8030	1.5081	26.82	0.84	1.500			
0.4801	30728.63	3.8000	3.8001	1.5378	26.80	0.82	1.500			
0.4849	31030.75	3.7970	3.7970	1.5515	26.79	0.81	1.500			
0.4896	31332.08	3.7940	3.7940	1.5797	26.77	0.79	1.500			
0.4943	31634.23	3.7910	3.7911	1.5963	26.76	0.78	1.500			
0.4991	31940.91	3.7880	3.7878	1.6480	26.74	0.76	1.500			
0.5041	32261.86	3.7850	3.7850	1.6746	26.72	0.74	1.500			
0.5092	32589.51	3.7820	3.7821	1.6947	26.71	0.73	1.500	0.346	0.474	
0.5144	32924.59	3.7790	3.7791	1.7180	26.69	0.71	1.500			
0.5195	33250.70	3.7760	3.7760	1.7165	26.67	0.69	1.500			
0.5247	33579.53	3.7730	3.7729	1.7135	26.66	0.68	1.500			
0.5298	33906.55	3.7700	3.7700	1.7127	26.64	0.66	1.500			
0.5350	34237.48	3.7670	3.7671	1.7142	26.63	0.65	1.500			
0.5401	34565.18	3.7640	3.7640	1.7265	26.61	0.63	1.500			
0.5453	34896.87	3.7610	3.7610	1.7387	26.59	0.61	1.500			
0.5505	35232.53	3.7580	3.7581	1.7530	26.58	0.60	1.500			
0.5558	35574.34	3.7550	3.7551	1.7602	26.56	0.58	1.500			
0.5611	35913.03	3.7520	3.7520	1.7486	26.54	0.56	1.500			
0.5663	36242.60	3.7490	3.7490	1.7636	26.52	0.54	1.500			
0.5716	36584.51	3.7460	3.7460	1.7971	26.51	0.53	1.500			
0.5771	36932.07	3.7430	3.7431	1.8494	26.49	0.51	1.500			
0.5827	37294.01	3.7400	3.7400	1.8783	26.47	0.49	1.500			
0.5884	37659.00	3.7370	3.7370	1.9113	26.45	0.47	1.500			
0.5941	38024.61	3.7340	3.7341	1.9646	26.44	0.46	1.500			
0.6001	38408.18	3.7310	3.7309	2.0289	26.42	0.44	1.500			
0.6063	38803.80	3.7280	3.7280	2.0690	26.40	0.42	1.500			
0.6127	39211.42	3.7250	3.7250	2.1296	26.38	0.40	1.500			
0.6191	39624.85	3.7220	3.7220	2.1879	26.36	0.38	1.500			
0.6257	40046.03	3.7190	3.7190	2.2418	26.35	0.37	1.500			
0.6325	40482.94	3.7160	3.7160	2.3269	26.33	0.35	1.500			
0.6395	40928.95	3.7130	3.7130	2.3357	26.32	0.34	1.500			
0.6466	41381.86	3.7100	3.7100	2.3731	26.30	0.32	1.500			
0.6538	41842.40	3.7070	3.7071	2.3715	26.28	0.30	1.500			
0.6610	42302.96	3.7040	3.7041	2.2460	26.26	0.28	1.500			
0.6676	42726.28	3.7010	3.7010	2.0742	26.24	0.26	1.500			
0.6734	43100.45	3.6980	3.6980	1.9173	26.22	0.24	1.500			
0.6790	43454.35	3.6950	3.6950	1.7902	26.21	0.23	1.500			
0.6841	43785.20	3.6920	3.6920	1.6749	26.20	0.22	1.500			
0.6890	44093.02	3.6890	3.6890	1.5853	26.19	0.21	1.500			
0.6935	44382.83	3.6860	3.6860	1.5084	26.18	0.20	1.500			
0.6979	44663.22	3.6830	3.6829	1.4488	26.17	0.19	1.500			
0.7021	44933.34	3.6800	3.6800	1.3955	26.16	0.18	1.500			
0.7062	45195.25	3.6770	3.6771	1.3504	26.15	0.17	1.500			
0.7102	45450.44	3.6740	3.6740	1.3131	26.14	0.16	1.500			
0.7140	45696.61	3.6710	3.6709	1.2946	26.13	0.15	1.500			
0.7177	45935.93	3.6680	3.6680	1.2719	26.12	0.14	1.500			
0.7215	46176.59	3.6650	3.6650	1.2706	26.11	0.13	1.500			
0.7253	46418.15	3.6620	3.6619	1.2713	26.10	0.12	1.500			
0.7291	46665.21	3.6590	3.6591	1.2785	26.09	0.11	1.500			
0.7330	46913.70	3.6560	3.6560	1.2820	26.07	0.09	1.500			
0.7369	47162.78	3.6530	3.6530	1.2696	26.06	0.08	1.500			
0.7407	47406.16	3.6500	3.6500	1.2602	26.05	0.07	1.500			
0.7445	47645.62	3.6470	3.6471	1.2465	26.04	0.06	1.500			
0.7482	47882.93	3.6440	3.6439	1.2377	26.03	0.05	1.500			
0.7519	48118.63	3.6410	3.6410	1.2242	26.02	0.04	1.500			
0.7555	48352.37	3.6380	3.6380	1.2170	26.02	0.04	1.500			
0.7592	48586.74	3.6350	3.6350	1.2156	26.01	0.03	1.500			
0.7628	48818.91	3.6320	3.6320	1.2063	26.00	0.02	1.500			
0.7664	49049.50	3.6290	3.6290	1.1997	26.00	0.02	1.500			
0.7700	49280.12	3.6260	3.6260	1.1927	25.99	0.01	1.500			
0.7736	49509.22	3.6230	3.6229	1.1827	25.98	0.00	1.500			
0.7772	49737.83	3.6200	3.6200	1.1706	25.98	-0.00	1.500			
0.7806	49960.71	3.6170	3.6170	1.1515	25.97	-0.01	1.500			
0.7841	50180.57	3.6140	3.6141	1.1309	25.97	-0.01	1.500			
0.7874	50395.30	3.6110	3.6110	1.1065	25.97	-0.01	1.500			
0.7907	50606.47	3.6080	3.6080	1.0856	25.97	-0.01	1.500			
0.7939	50812.69	3.6050	3.6050	1.0629	25.96	-0.02	1.500			
0.7971	51015.09	3.6020	3.6020	1.0383	25.96	-0.02	1.500			
0.8002	51212.83	3.5990	3.5990	1.0074	25.96	-0.02	1.500			
0.8032	51404.34	3.5960	3.5960	0.9753	25.96	-0.02	1.500			
0.8061	51590.50	3.5930	3.5930	0.9334	25.97	-0.01	1.500			
0.8089	51768.07	3.5900	3.5899	0.8848	25.97	-0.01	1.500			
0.8115	51936.81	3.5870	3.5870	0.8137	25.97	-0.01	1.500			
0.8139	52088.49	3.5840	3.5840	0.7340	25.97	-0.01	1.500			
0.8160	52225.32	3.5810	3.5811	0.6491	25.97	-0.01	1.500			
0.8178	52341.03	3.5780	3.5780	0.5577	25.98	-0.00	1.500			
0.8193	52436.17	3.5750	3.5749	0.4716	25.98	-0.00	1.500			
0.8206	52515.61	3.5720	3.5719	0.4037	25.98	-0.00	1.500			
0.8216	52581.25	3.5690	3.5689	0.3422	25.98	-0.00	1.500			
0.8225	52639.32	3.5660	3.5660	0.2986	25.98	-0.00	1.500			
0.8233	52688.19	3.5630	3.5629	0.2593	25.98	-0.00	1.500			
0.8240	52733.88	3.5600	3.5601	0.2290	25.98	-0.00	1.500			
0.8246	52773.39	3.5570	3.5569	0.2042	25.98	0.00	1.500			
0.8251	52809.41	3.5540	3.5541	0.1843	25.98	0.00	1.500			
0.8257	52843.08	3.5510	3.5509	0.1664	25.98	0.00	1.500			
0.8261	52872.10	3.5480	3.5481	0.1504	25.98	0.00	1.500			
0.8266	52899.34	3.5450	3.5449	0.1354	25.98	0.00	1.500			
0.8269	52923.80	3.5420	3.5420	0.1203	25.98	0.00	1.500			
0.8273	52945.65	3.5390	3.5390	0.1065	25.98	0.00	1.500			
0.8276	52964.73	3.5360	3.5362	0.0923	25.98	0.00	1.500			
0.8278	52981.44	3.5330	3.5331	0.0781	25.98	0.00	1.500			
0.8281	52995.37	3.5300	3.5300	0.0632	25.98	0.00	1.500			
0.8282	53006.01	3.5270	3.5273	0.0476	25.98	0.00	1.500			
0.8283	53013.67	3.5240	3.5249	0.0321	25.98	0.00	1.500			
