Ah_balance (normalized)	Ah_balance (mAh)	Voltage - fit (V)	Voltage -  interpolate (V)	dQ/dV (1/V)	Temperature (°C)	Temperature - diff (°C)	Current (C)	R_DC 0ms (mOhm)	R_DC 50ms (mOhm)	R_DC 50 ms PEC (mOhm)
0.2766	17703.14	3.9900	3.9900	0.8266	27.40	1.42	1.500			
0.2791	17862.61	3.9870	3.9870	0.8311	27.39	1.41	1.500			
0.2816	18021.16	3.9840	3.9841	0.8355	27.39	1.41	1.500			
0.2841	18182.55	3.9810	3.9810	0.8417	27.38	1.40	1.500			
0.2866	18345.06	3.9780	3.9780	0.8448	27.38	1.40	1.500			
0.2892	18507.90	3.9750	3.9750	0.8483	27.38	1.40	1.500			
0.2917	18671.27	3.9720	3.9721	0.8507	27.37	1.39	1.500			
0.2943	18834.27	3.9690	3.9690	0.8581	27.37	1.39	1.500			
0.2969	18998.67	3.9660	3.9659	0.8622	27.36	1.38	1.500			
0.2994	19164.33	3.9630	3.9630	0.8659	27.36	1.38	1.500			
0.3021	19331.76	3.9600	3.9600	0.8731	27.36	1.38	1.500			
0.3047	19501.12	3.9570	3.9570	0.8765	27.35	1.37	1.500			
0.3073	19669.72	3.9540	3.9540	0.8776	27.35	1.37	1.500			
0.3100	19838.48	3.9510	3.9510	0.8794	27.34	1.36	1.500			
0.3126	20006.64	3.9480	3.9480	0.8801	27.34	1.36	1.500			
0.3152	20175.64	3.9450	3.9450	0.8834	27.33	1.35	1.500			
0.3179	20344.75	3.9420	3.9420	0.8912	27.33	1.35	1.500			
0.3206	20515.54	3.9390	3.9390	0.8987	27.32	1.34	1.500			
0.3233	20689.75	3.9360	3.9359	0.9047	27.32	1.34	1.500			
0.3260	20864.61	3.9330	3.9330	0.9105	27.31	1.33	1.500			
0.3288	21041.14	3.9300	3.9300	0.9160	27.30	1.32	1.500			
0.3315	21217.02	3.9270	3.9270	0.9182	27.30	1.32	1.500			
0.3343	21392.73	3.9240	3.9240	0.9200	27.29	1.31	1.500			
0.3370	21568.51	3.9210	3.9210	0.9229	27.28	1.30	1.500			
0.3398	21745.20	3.9180	3.9180	0.9297	27.28	1.30	1.500			
0.3426	21925.50	3.9150	3.9149	0.9373	27.27	1.29	1.500			
0.3454	22106.60	3.9120	3.9121	0.9457	27.26	1.28	1.500			
0.3483	22289.50	3.9090	3.9090	0.9518	27.26	1.28	1.500			
0.3511	22472.20	3.9060	3.9060	0.9647	27.25	1.27	1.500			
0.3540	22659.15	3.9030	3.9030	0.9728	27.24	1.26	1.500			
0.3570	22846.85	3.9000	3.8999	0.9759	27.24	1.26	1.500			
0.3599	23034.20	3.8970	3.8971	0.9842	27.23	1.25	1.500			
0.3629	23224.55	3.8940	3.8941	0.9955	27.22	1.24	1.500			
0.3659	23415.85	3.8910	3.8910	1.0005	27.22	1.24	1.500			
0.3689	23608.35	3.8880	3.8879	1.0102	27.21	1.23	1.500			
0.3719	23801.75	3.8850	3.8851	1.0178	27.20	1.22	1.500			
0.3750	23998.99	3.8820	3.8820	1.0313	27.19	1.21	1.500			
0.3781	24197.79	3.8790	3.8790	1.0433	27.18	1.20	1.500			
0.3812	24398.08	3.8760	3.8760	1.0504	27.17	1.19	1.500			
0.3844	24601.26	3.8730	3.8729	1.0637	27.16	1.18	1.500			
0.3876	24807.95	3.8700	3.8701	1.0751	27.15	1.17	1.500			
0.3909	25014.72	3.8670	3.8669	1.0868	27.14	1.16	1.500			
0.3941	25225.07	3.8640	3.8641	1.0997	27.13	1.15	1.500			
0.3975	25436.99	3.8610	3.8610	1.1132	27.12	1.14	1.500			
0.4008	25650.85	3.8580	3.8580	1.1261	27.11	1.13	1.500			
0.4042	25869.09	3.8550	3.8550	1.1407	27.10	1.12	1.500			
0.4076	26088.70	3.8520	3.8520	1.1518	27.10	1.12	1.500			
0.4111	26309.80	3.8490	3.8490	1.1701	27.09	1.11	1.500			
0.4146	26534.64	3.8460	3.8460	1.1870	27.08	1.10	1.500			
0.4182	26764.08	3.8430	3.8428	1.2111	27.07	1.09	1.500			
0.4219	26998.84	3.8400	3.8400	1.2291	27.06	1.08	1.500			
0.4256	27237.73	3.8370	3.8371	1.2492	27.05	1.07	1.500			
0.4294	27482.54	3.8340	3.8340	1.2647	27.03	1.05	1.500			
0.4332	27724.10	3.8310	3.8311	1.2839	27.02	1.04	1.500			
0.4371	27971.56	3.8280	3.8280	1.3070	27.01	1.03	1.500			
0.4410	28222.92	3.8250	3.8251	1.3244	27.00	1.02	1.500			
0.4450	28478.76	3.8220	3.8219	1.3498	26.98	1.00	1.500			
0.4491	28743.44	3.8190	3.8191	1.3794	26.97	0.99	1.500			
0.4533	29012.98	3.8160	3.8159	1.3915	26.96	0.98	1.500			
0.4575	29282.16	3.8130	3.8130	1.4231	26.94	0.96	1.500			
0.4617	29550.78	3.8100	3.8101	1.4476	26.93	0.95	1.500			
0.4661	29833.04	3.8070	3.8069	1.4836	26.92	0.94	1.500			
0.4707	30122.68	3.8040	3.8041	1.5065	26.90	0.92	1.500			
0.4752	30415.43	3.8010	3.8011	1.5306	26.88	0.90	1.500			
0.4799	30716.37	3.7980	3.7980	1.5543	26.87	0.89	1.500			
0.4846	31012.42	3.7950	3.7950	1.5596	26.85	0.87	1.500			
0.4892	31310.45	3.7920	3.7920	1.5874	26.83	0.85	1.500			
0.4940	31617.64	3.7890	3.7890	1.6230	26.82	0.84	1.500			
0.4990	31936.38	3.7860	3.7862	1.6424	26.80	0.82	1.500	0.348	0.483	
0.5040	32256.13	3.7830	3.7830	1.6660	26.78	0.80	1.500			
0.5091	32579.44	3.7800	3.7800	1.6724	26.76	0.78	1.500			
0.5140	32895.50	3.7770	3.7770	1.6745	26.74	0.76	1.500			
0.5190	33218.48	3.7740	3.7740	1.6887	26.73	0.75	1.500			
0.5241	33543.05	3.7710	3.7710	1.6964	26.71	0.73	1.500			
0.5293	33872.69	3.7680	3.7680	1.7034	26.69	0.71	1.500			
0.5344	34198.82	3.7650	3.7650	1.7067	26.68	0.70	1.500			
0.5395	34526.26	3.7620	3.7620	1.7212	26.66	0.68	1.500			
0.5447	34857.62	3.7590	3.7591	1.7253	26.65	0.67	1.500			
0.5499	35190.81	3.7560	3.7561	1.7505	26.63	0.65	1.500			
0.5551	35529.27	3.7530	3.7530	1.7610	26.61	0.63	1.500			
0.5604	35867.04	3.7500	3.7500	1.7791	26.59	0.61	1.500			
0.5658	36210.53	3.7470	3.7470	1.7979	26.58	0.60	1.500			
0.5712	36559.05	3.7440	3.7440	1.8290	26.56	0.58	1.500			
0.5768	36912.84	3.7410	3.7410	1.8519	26.54	0.56	1.500			
0.5823	37269.41	3.7380	3.7380	1.9120	26.52	0.54	1.500			
0.5881	37636.80	3.7350	3.7351	1.9704	26.50	0.52	1.500			
0.5941	38021.40	3.7320	3.7319	2.0472	26.48	0.50	1.500			
0.6004	38426.46	3.7290	3.7289	2.0860	26.46	0.48	1.500			
0.6068	38833.22	3.7260	3.7261	2.1258	26.44	0.46	1.500			
0.6132	39242.15	3.7230	3.7230	2.1533	26.42	0.44	1.500			
0.6196	39655.06	3.7200	3.7200	2.2062	26.40	0.42	1.500			
0.6263	40085.97	3.7170	3.7170	2.2797	26.38	0.40	1.500			
0.6333	40533.93	3.7140	3.7141	2.3269	26.36	0.38	1.500			
0.6404	40988.58	3.7110	3.7110	2.3355	26.35	0.37	1.500			
0.6475	41440.52	3.7080	3.7080	2.2564	26.33	0.35	1.500			
0.6542	41868.36	3.7050	3.7049	2.1421	26.30	0.32	1.500			
0.6604	42264.32	3.7020	3.7021	2.0075	26.28	0.30	1.500			
0.6662	42634.96	3.6990	3.6989	1.8723	26.27	0.29	1.500			
0.6716	42980.45	3.6960	3.6960	1.7604	26.25	0.27	1.500			
0.6766	43304.08	3.6930	3.6930	1.6630	26.24	0.26	1.500			
0.6815	43613.04	3.6900	3.6900	1.5753	26.22	0.24	1.500			
0.6860	43904.97	3.6870	3.6870	1.4914	26.21	0.23	1.500			
0.6903	44178.06	3.6840	3.6841	1.4280	26.20	0.22	1.500			
0.6944	44444.71	3.6810	3.6810	1.3786	26.19	0.21	1.500			
0.6985	44700.91	3.6780	3.6780	1.3361	26.18	0.20	1.500			
0.7024	44954.31	3.6750	3.6749	1.3081	26.16	0.18	1.500			
0.7062	45198.87	3.6720	3.6721	1.2904	26.15	0.17	1.500			
0.7101	45445.02	3.6690	3.6690	1.2823	26.14	0.16	1.500			
0.7139	45689.38	3.6660	3.6659	1.2758	26.13	0.15	1.500			
0.7177	45932.67	3.6630	3.6631	1.2695	26.12	0.14	1.500			
0.7215	46175.43	3.6600	3.6600	1.2679	26.11	0.13	1.500			
0.7253	46419.74	3.6570	3.6570	1.2661	26.10	0.12	1.500			
0.7292	46665.78	3.6540	3.6540	1.2564	26.08	0.10	1.500			
0.7329	46904.81	3.6510	3.6510	1.2469	26.07	0.09	1.500			
0.7366	47142.79	3.6480	3.6480	1.2415	26.06	0.08	1.500			
0.7403	47380.21	3.6450	3.6450	1.2368	26.05	0.07	1.500			
0.7440	47616.16	3.6420	3.6420	1.2304	26.04	0.06	1.500			
0.7477	47851.28	3.6390	3.6390	1.2244	26.03	0.05	1.500			
0.7514	48087.46	3.6360	3.6360	1.2192	26.02	0.04	1.500			
0.7550	48322.82	3.6330	3.6330	1.2063	26.01	0.03	1.500			
0.7586	48552.88	3.6300	3.6300	1.1959	26.00	0.02	1.500			
0.7622	48781.48	3.6270	3.6270	1.1829	25.99	0.01	1.500			
0.7657	49007.80	3.6240	3.6240	1.1748	25.99	0.01	1.500			
0.7693	49232.82	3.6210	3.6211	1.1606	25.98	-0.00	1.500			
0.7727	49455.67	3.6180	3.6180	1.1378	25.98	-0.00	1.500			
0.7762	49674.29	3.6150	3.6151	1.1173	25.97	-0.01	1.500			
0.7795	49886.87	3.6120	3.6120	1.0916	25.97	-0.01	1.500			
0.7827	50092.54	3.6090	3.6089	1.0620	25.97	-0.01	1.500			
0.7859	50294.81	3.6060	3.6060	1.0359	25.97	-0.01	1.500			
0.7889	50490.17	3.6030	3.6030	1.0069	25.96	-0.02	1.500			
0.7919	50682.86	3.6000	3.6000	0.9809	25.96	-0.02	1.500			
0.7948	50869.89	3.5970	3.5970	0.9467	25.96	-0.02	1.500			
0.7977	51051.72	3.5940	3.5939	0.8994	25.96	-0.02	1.500			
0.8004	51222.48	3.5910	3.5910	0.8414	25.97	-0.01	1.500			
0.8029	51384.71	3.5880	3.5880	0.7723	25.97	-0.01	1.500			
0.8051	51526.87	3.5850	3.5850	0.6897	25.97	-0.01	1.500			
0.8071	51652.28	3.5820	3.5820	0.6013	25.97	-0.01	1.500			
0.8087	51756.47	3.5790	3.5790	0.5174	25.97	-0.01	1.500			
0.8101	51844.46	3.5760	3.5760	0.4378	25.97	-0.01	1.500			
0.8112	51919.11	3.5730	3.5729	0.3740	25.97	-0.01	1.500			
0.8122	51981.99	3.5700	3.5701	0.3215	25.98	-0.00	1.500			
0.8131	52037.47	3.5670	3.5669	0.2815	25.98	-0.00	1.500			
0.8138	52084.68	3.5640	3.5640	0.2458	25.98	-0.00	1.500			
0.8145	52128.48	3.5610	3.5609	0.2180	25.98	-0.00	1.500			
0.8151	52166.35	3.5580	3.5580	0.1957	25.98	-0.00	1.500			
0.8156	52200.52	3.5550	3.5550	0.1767	25.98	-0.00	1.500			
0.8161	52232.50	3.5520	3.5520	0.1598	25.98	-0.00	1.500			
0.8166	52261.54	3.5490	3.5490	0.1454	25.98	-0.00	1.500			
0.8170	52287.71	3.5460	3.5459	0.1305	25.98	-0.00	1.500			
0.8174	52311.42	3.5430	3.5431	0.1157	25.98	-0.00	1.500			
0.8177	52332.25	3.5400	3.5400	0.1013	25.98	-0.00	1.500			
0.8180	52350.33	3.5370	3.5371	0.0869	25.98	-0.00	1.500			
0.8182	52366.15	3.5340	3.5340	0.0726	25.98	0.00	1.500			
0.8184	52378.71	3.5310	3.5312	0.0574	25.98	0.00	1.500			
0.8186	52388.26	3.5280	3.5285	0.0421	25.98	0.00	1.500			
0.8187	52394.86	3.5250	3.5262	0.0268	25.98	0.00	1.500			
