Ah_balance (normalized)	Ah_balance (mAh)	Voltage - fit (V)	Voltage -  interpolate (V)	dQ/dV (1/V)	Temperature (°C)	Temperature - diff (°C)	Current (C)	R_DC 0ms (mOhm)	R_DC 50ms (mOhm)	R_DC 50 ms PEC (mOhm)
0.2741	17543.71	3.9930	3.9930	0.8179	27.43	1.47	1.500			
0.2766	17701.70	3.9900	3.9901	0.8266	27.42	1.46	1.500			
0.2791	17859.95	3.9870	3.9869	0.8299	27.42	1.46	1.500			
0.2816	18020.02	3.9840	3.9841	0.8376	27.41	1.45	1.500			
0.2841	18181.85	3.9810	3.9810	0.8404	27.41	1.45	1.500			
0.2866	18344.75	3.9780	3.9780	0.8465	27.40	1.44	1.500			
0.2892	18506.74	3.9750	3.9751	0.8518	27.40	1.44	1.500			
0.2917	18670.15	3.9720	3.9720	0.8571	27.39	1.43	1.500			
0.2943	18837.15	3.9690	3.9689	0.8583	27.39	1.43	1.500			
0.2969	19001.28	3.9660	3.9660	0.8620	27.38	1.42	1.500			
0.2995	19167.50	3.9630	3.9631	0.8638	27.38	1.42	1.500			
0.3021	19333.02	3.9600	3.9599	0.8712	27.37	1.41	1.500			
0.3047	19500.36	3.9570	3.9569	0.8724	27.36	1.40	1.500			
0.3073	19667.21	3.9540	3.9540	0.8788	27.36	1.40	1.500			
0.3100	19837.85	3.9510	3.9509	0.8815	27.35	1.39	1.500			
0.3126	20008.88	3.9480	3.9480	0.8848	27.35	1.39	1.500			
0.3153	20177.19	3.9450	3.9450	0.8849	27.34	1.38	1.500			
0.3180	20349.07	3.9420	3.9420	0.8839	27.33	1.37	1.500			
0.3206	20515.45	3.9390	3.9390	0.8880	27.33	1.37	1.500			
0.3232	20686.87	3.9360	3.9360	0.8983	27.32	1.36	1.500			
0.3259	20858.28	3.9330	3.9331	0.9050	27.31	1.35	1.500			
0.3287	21035.57	3.9300	3.9301	0.9137	27.31	1.35	1.500			
0.3314	21212.22	3.9270	3.9270	0.9222	27.30	1.34	1.500			
0.3342	21390.58	3.9240	3.9241	0.9259	27.29	1.33	1.500			
0.3370	21570.49	3.9210	3.9210	0.9285	27.29	1.33	1.500			
0.3398	21746.16	3.9180	3.9180	0.9287	27.28	1.32	1.500			
0.3426	21925.93	3.9150	3.9150	0.9323	27.27	1.31	1.500			
0.3454	22102.87	3.9120	3.9120	0.9438	27.27	1.31	1.500			
0.3482	22285.28	3.9090	3.9090	0.9538	27.26	1.30	1.500			
0.3511	22468.81	3.9060	3.9059	0.9621	27.25	1.29	1.500			
0.3540	22655.00	3.9030	3.9031	0.9776	27.25	1.29	1.500			
0.3570	22844.84	3.9000	3.8999	0.9895	27.24	1.28	1.500			
0.3599	23035.94	3.8970	3.8970	0.9955	27.23	1.27	1.500			
0.3630	23229.53	3.8940	3.8940	1.0025	27.22	1.26	1.500			
0.3660	23422.67	3.8910	3.8910	1.0072	27.21	1.25	1.500			
0.3690	23617.39	3.8880	3.8880	1.0135	27.20	1.24	1.500			
0.3720	23810.82	3.8850	3.8850	1.0198	27.19	1.23	1.500			
0.3751	24005.16	3.8820	3.8821	1.0340	27.19	1.23	1.500			
0.3782	24204.86	3.8790	3.8790	1.0460	27.18	1.22	1.500			
0.3814	24407.98	3.8760	3.8759	1.0545	27.17	1.21	1.500			
0.3846	24612.80	3.8730	3.8731	1.0651	27.16	1.20	1.500			
0.3878	24817.72	3.8700	3.8701	1.0791	27.15	1.19	1.500			
0.3910	25027.19	3.8670	3.8670	1.0857	27.14	1.18	1.500			
0.3943	25235.14	3.8640	3.8639	1.0955	27.13	1.17	1.500			
0.3976	25445.40	3.8610	3.8611	1.1095	27.12	1.16	1.500			
0.4009	25660.78	3.8580	3.8580	1.1279	27.11	1.15	1.500			
0.4044	25878.96	3.8550	3.8550	1.1412	27.10	1.14	1.500			
0.4078	26098.44	3.8520	3.8520	1.1555	27.09	1.13	1.500			
0.4113	26321.41	3.8490	3.8491	1.1677	27.08	1.12	1.500			
0.4148	26550.13	3.8460	3.8460	1.1833	27.07	1.11	1.500			
0.4184	26776.89	3.8430	3.8430	1.2022	27.06	1.10	1.500			
0.4220	27007.57	3.8400	3.8400	1.2262	27.05	1.09	1.500			
0.4257	27244.17	3.8370	3.8369	1.2482	27.04	1.08	1.500			
0.4295	27487.65	3.8340	3.8340	1.2689	27.02	1.06	1.500			
0.4333	27734.18	3.8310	3.8311	1.2883	27.01	1.05	1.500			
0.4373	27985.58	3.8280	3.8280	1.3045	26.99	1.03	1.500			
0.4412	28236.43	3.8250	3.8250	1.3260	26.98	1.02	1.500			
0.4452	28489.87	3.8220	3.8220	1.3425	26.97	1.01	1.500			
0.4492	28748.90	3.8190	3.8190	1.3681	26.95	0.99	1.500			
0.4533	29014.20	3.8160	3.8160	1.3952	26.94	0.98	1.500			
0.4576	29285.16	3.8130	3.8130	1.4230	26.92	0.96	1.500			
0.4620	29565.08	3.8100	3.8101	1.4412	26.91	0.95	1.500			
0.4663	29843.72	3.8070	3.8069	1.4651	26.89	0.93	1.500			
0.4707	30124.81	3.8040	3.8040	1.4900	26.87	0.91	1.500			
0.4752	30413.11	3.8010	3.8010	1.5173	26.86	0.90	1.500			
0.4798	30708.86	3.7980	3.7981	1.5471	26.84	0.88	1.500			
0.4845	31007.77	3.7950	3.7950	1.5701	26.82	0.86	1.500			
0.4893	31313.17	3.7920	3.7920	1.5911	26.80	0.84	1.500			
0.4940	31617.16	3.7890	3.7890	1.6162	26.78	0.82	1.500			
0.4989	31932.03	3.7860	3.7858	1.6435	26.76	0.80	1.500	0.341	0.479	
0.5039	32252.09	3.7830	3.7829	1.6659	26.75	0.79	1.500			
0.5091	32579.25	3.7800	3.7801	1.6874	26.73	0.77	1.500			
0.5141	32903.91	3.7770	3.7769	1.6889	26.71	0.75	1.500			
0.5191	33225.46	3.7740	3.7740	1.6932	26.69	0.73	1.500			
0.5242	33550.50	3.7710	3.7711	1.6936	26.66	0.70	1.500			
0.5293	33877.56	3.7680	3.7680	1.7105	26.64	0.68	1.500			
0.5345	34206.78	3.7650	3.7651	1.7109	26.62	0.66	1.500			
0.5396	34535.63	3.7620	3.7620	1.7121	26.61	0.65	1.500			
0.5447	34863.57	3.7590	3.7590	1.7246	26.59	0.63	1.500			
0.5499	35196.16	3.7560	3.7560	1.7420	26.57	0.61	1.500			
0.5552	35532.69	3.7530	3.7530	1.7570	26.55	0.59	1.500			
0.5605	35872.03	3.7500	3.7500	1.7786	26.53	0.57	1.500			
0.5658	36214.21	3.7470	3.7470	1.8115	26.52	0.56	1.500			
0.5713	36562.62	3.7440	3.7440	1.8481	26.50	0.54	1.500			
0.5769	36923.52	3.7410	3.7410	1.8892	26.48	0.52	1.500			
0.5827	37290.04	3.7380	3.7379	1.9244	26.46	0.50	1.500			
0.5885	37662.20	3.7350	3.7350	1.9623	26.44	0.48	1.500			
0.5944	38039.61	3.7320	3.7320	2.0082	26.43	0.47	1.500			
0.6005	38430.88	3.7290	3.7289	2.0777	26.41	0.45	1.500			
0.6068	38834.67	3.7260	3.7260	2.1358	26.38	0.42	1.500			
0.6134	39255.35	3.7230	3.7230	2.1921	26.36	0.40	1.500			
0.6200	39681.19	3.7200	3.7200	2.2355	26.34	0.38	1.500			
0.6267	40111.16	3.7170	3.7169	2.2817	26.31	0.35	1.500			
0.6337	40553.79	3.7140	3.7140	2.3016	26.29	0.33	1.500			
0.6407	41002.61	3.7110	3.7110	2.2925	26.27	0.31	1.500			
0.6476	41447.49	3.7080	3.7079	2.2376	26.25	0.29	1.500			
0.6543	41872.55	3.7050	3.7050	2.1319	26.24	0.28	1.500			
0.6605	42270.08	3.7020	3.7020	2.0023	26.22	0.26	1.500			
0.6662	42639.53	3.6990	3.6990	1.8662	26.21	0.25	1.500			
0.6716	42981.34	3.6960	3.6960	1.7404	26.19	0.23	1.500			
0.6766	43300.43	3.6930	3.6929	1.6397	26.18	0.22	1.500			
0.6813	43606.08	3.6900	3.6901	1.5592	26.17	0.21	1.500			
0.6859	43898.31	3.6870	3.6870	1.4931	26.16	0.20	1.500			
0.6903	44176.68	3.6840	3.6840	1.4355	26.15	0.19	1.500			
0.6944	44444.05	3.6810	3.6810	1.3784	26.14	0.18	1.500			
0.6985	44704.39	3.6780	3.6780	1.3382	26.13	0.17	1.500			
0.7024	44953.91	3.6750	3.6750	1.3052	26.12	0.16	1.500			
0.7062	45198.74	3.6720	3.6720	1.2817	26.11	0.15	1.500			
0.7100	45439.81	3.6690	3.6690	1.2737	26.10	0.14	1.500			
0.7138	45683.21	3.6660	3.6660	1.2714	26.09	0.13	1.500			
0.7176	45926.61	3.6630	3.6630	1.2679	26.08	0.12	1.500			
0.7214	46172.02	3.6600	3.6600	1.2717	26.07	0.11	1.500			
0.7253	46417.94	3.6570	3.6570	1.2718	26.06	0.10	1.500			
0.7291	46661.63	3.6540	3.6540	1.2668	26.06	0.10	1.500			
0.7329	46904.86	3.6510	3.6510	1.2567	26.05	0.09	1.500			
0.7366	47145.04	3.6480	3.6480	1.2468	26.04	0.08	1.500			
0.7404	47385.57	3.6450	3.6450	1.2354	26.03	0.07	1.500			
0.7441	47621.09	3.6420	3.6420	1.2232	26.02	0.06	1.500			
0.7477	47853.63	3.6390	3.6390	1.2141	26.01	0.05	1.500			
0.7513	48085.36	3.6360	3.6359	1.2047	26.00	0.04	1.500			
0.7549	48314.71	3.6330	3.6330	1.1958	26.00	0.04	1.500			
0.7585	48544.08	3.6300	3.6301	1.1933	25.99	0.03	1.500			
0.7621	48773.76	3.6270	3.6270	1.1864	25.98	0.02	1.500			
0.7657	49002.93	3.6240	3.6239	1.1734	25.98	0.02	1.500			
0.7692	49226.33	3.6210	3.6210	1.1552	25.97	0.01	1.500			
0.7726	49447.57	3.6180	3.6180	1.1351	25.97	0.01	1.500			
0.7760	49665.73	3.6150	3.6150	1.1135	25.96	0.00	1.500			
0.7793	49876.68	3.6120	3.6120	1.0884	25.96	0.00	1.500			
0.7825	50082.25	3.6090	3.6090	1.0600	25.96	0.00	1.500			
0.7857	50283.81	3.6060	3.6060	1.0358	25.96	0.00	1.500			
0.7888	50480.91	3.6030	3.6030	1.0123	25.96	0.00	1.500			
0.7918	50672.85	3.6000	3.6000	0.9803	25.96	0.00	1.500			
0.7947	50860.55	3.5970	3.5970	0.9460	25.96	0.00	1.500			
0.7975	51042.71	3.5940	3.5940	0.9057	25.96	0.00	1.500			
0.8002	51215.68	3.5910	3.5910	0.8438	25.96	0.00	1.500			
0.8028	51376.16	3.5880	3.5880	0.7785	25.96	0.00	1.500			
0.8050	51519.78	3.5850	3.5850	0.6933	25.96	0.00	1.500			
0.8070	51645.84	3.5820	3.5820	0.6069	25.96	0.00	1.500			
0.8086	51752.14	3.5790	3.5790	0.5234	25.96	0.00	1.500			
0.8100	51841.48	3.5760	3.5759	0.4430	25.96	0.00	1.500			
0.8112	51914.80	3.5730	3.5730	0.3748	25.96	0.00	1.500			
0.8122	51978.04	3.5700	3.5700	0.3249	25.96	0.00	1.500			
0.8130	52032.42	3.5670	3.5669	0.2811	25.96	0.00	1.500			
0.8138	52081.56	3.5640	3.5640	0.2503	25.96	0.00	1.500			
0.8145	52124.96	3.5610	3.5610	0.2206	25.96	0.00	1.500			
0.8151	52164.06	3.5580	3.5580	0.1992	25.96	0.00	1.500			
0.8156	52198.91	3.5550	3.5550	0.1790	25.96	0.00	1.500			
0.8161	52231.21	3.5520	3.5520	0.1615	25.96	0.00	1.500			
0.8166	52260.62	3.5490	3.5490	0.1468	25.96	0.00	1.500			
0.8170	52286.99	3.5460	3.5460	0.1317	25.96	0.00	1.500			
0.8174	52311.03	3.5430	3.5431	0.1177	25.96	0.00	1.500			
0.8177	52332.22	3.5400	3.5400	0.1033	25.96	0.00	1.500			
0.8180	52350.70	3.5370	3.5370	0.0892	25.96	0.00	1.500			
0.8182	52366.51	3.5340	3.5341	0.0750	25.96	0.00	1.500			
0.8184	52379.51	3.5310	3.5312	0.0608	25.96	0.00	1.500			
0.8186	52389.82	3.5280	3.5286	0.0466	25.96	0.00	1.500			
0.8187	52397.41	3.5250	3.5261	0.0325	25.96	0.00	1.500			
