Ah_balance (normalized)	Ah_balance (mAh)	Voltage - fit (V)	Voltage -  interpolate (V)	dQ/dV (1/V)	Temperature (°C)	Temperature - diff (°C)	Current (C)	R_DC 0ms (mOhm)	R_DC 50ms (mOhm)	R_DC 50 ms PEC (mOhm)
0.2868	18355.20	3.9750	3.9752	0.8713	27.31	1.35	1.500			
0.2894	18522.11	3.9720	3.9720	0.8685	27.30	1.34	1.500			
0.2920	18688.71	3.9690	3.9690	0.8683	27.30	1.34	1.500			
0.2946	18854.84	3.9660	3.9661	0.8699	27.29	1.33	1.500			
0.2972	19021.09	3.9630	3.9629	0.8760	27.28	1.32	1.500			
0.2999	19190.58	3.9600	3.9600	0.8780	27.28	1.32	1.500			
0.3025	19359.47	3.9570	3.9569	0.8789	27.27	1.31	1.500			
0.3051	19528.33	3.9540	3.9541	0.8828	27.26	1.30	1.500			
0.3078	19698.19	3.9510	3.9511	0.8885	27.26	1.30	1.500			
0.3105	19868.89	3.9480	3.9480	0.8927	27.25	1.29	1.500			
0.3131	20039.60	3.9450	3.9450	0.8963	27.25	1.29	1.500			
0.3158	20212.37	3.9420	3.9420	0.9019	27.24	1.28	1.500			
0.3186	20387.85	3.9390	3.9390	0.9138	27.24	1.28	1.500			
0.3213	20563.55	3.9360	3.9360	0.9182	27.23	1.27	1.500			
0.3241	20740.50	3.9330	3.9330	0.9218	27.23	1.27	1.500			
0.3269	20918.84	3.9300	3.9300	0.9221	27.22	1.26	1.500			
0.3296	21095.81	3.9270	3.9270	0.9284	27.22	1.26	1.500			
0.3324	21274.15	3.9240	3.9240	0.9320	27.22	1.26	1.500			
0.3352	21452.96	3.9210	3.9209	0.9364	27.21	1.25	1.500			
0.3380	21632.43	3.9180	3.9180	0.9410	27.21	1.25	1.500			
0.3408	21812.95	3.9150	3.9150	0.9515	27.20	1.24	1.500			
0.3437	21996.95	3.9120	3.9120	0.9620	27.19	1.23	1.500			
0.3466	22184.34	3.9090	3.9090	0.9709	27.18	1.22	1.500			
0.3495	22370.31	3.9060	3.9059	0.9775	27.18	1.22	1.500			
0.3525	22560.94	3.9030	3.9031	0.9782	27.17	1.21	1.500			
0.3554	22748.75	3.9000	3.9000	0.9836	27.16	1.20	1.500			
0.3584	22936.85	3.8970	3.8970	0.9883	27.16	1.20	1.500			
0.3613	23124.95	3.8940	3.8940	0.9921	27.15	1.19	1.500			
0.3643	23316.99	3.8910	3.8910	0.9990	27.14	1.18	1.500			
0.3674	23510.46	3.8880	3.8880	1.0073	27.14	1.18	1.500			
0.3704	23703.23	3.8850	3.8851	1.0224	27.13	1.17	1.500			
0.3735	23902.21	3.8820	3.8819	1.0348	27.12	1.16	1.500			
0.3766	24100.65	3.8790	3.8789	1.0423	27.11	1.15	1.500			
0.3797	24301.98	3.8760	3.8761	1.0598	27.11	1.15	1.500			
0.3829	24507.18	3.8730	3.8730	1.0701	27.10	1.14	1.500			
0.3862	24715.63	3.8700	3.8699	1.0785	27.09	1.13	1.500			
0.3894	24922.47	3.8670	3.8670	1.0896	27.08	1.12	1.500			
0.3927	25130.70	3.8640	3.8640	1.1011	27.07	1.11	1.500			
0.3960	25344.78	3.8610	3.8610	1.1155	27.06	1.10	1.500			
0.3994	25559.95	3.8580	3.8579	1.1252	27.05	1.09	1.500			
0.4027	25775.50	3.8550	3.8551	1.1419	27.04	1.08	1.500			
0.4062	25996.16	3.8520	3.8521	1.1714	27.03	1.07	1.500			
0.4097	26223.12	3.8490	3.8489	1.1941	27.01	1.05	1.500			
0.4133	26454.06	3.8460	3.8460	1.2127	27.00	1.04	1.500			
0.4170	26689.20	3.8430	3.8431	1.2352	26.99	1.03	1.500			
0.4208	26929.64	3.8400	3.8401	1.2596	26.98	1.02	1.500			
0.4246	27176.76	3.8370	3.8369	1.2721	26.97	1.01	1.500			
0.4284	27419.07	3.8340	3.8340	1.2913	26.96	1.00	1.500			
0.4323	27666.05	3.8310	3.8311	1.3061	26.95	0.99	1.500			
0.4362	27918.69	3.8280	3.8279	1.3398	26.94	0.98	1.500			
0.4403	28178.79	3.8250	3.8250	1.3655	26.93	0.97	1.500			
0.4444	28443.84	3.8220	3.8220	1.3909	26.92	0.96	1.500			
0.4487	28714.63	3.8190	3.8190	1.4213	26.91	0.95	1.500			
0.4530	28990.45	3.8160	3.8161	1.4542	26.89	0.93	1.500			
0.4574	29271.16	3.8130	3.8130	1.4810	26.88	0.92	1.500			
0.4618	29558.18	3.8100	3.8099	1.5200	26.87	0.91	1.500			
0.4664	29852.19	3.8070	3.8070	1.5524	26.86	0.90	1.500			
0.4712	30154.98	3.8040	3.8040	1.5851	26.84	0.88	1.500			
0.4760	30460.83	3.8010	3.8011	1.6307	26.83	0.87	1.500			
0.4809	30776.14	3.7980	3.7980	1.6652	26.81	0.85	1.500			
0.4859	31098.06	3.7950	3.7947	1.7087	26.80	0.84	1.500			
0.4911	31430.00	3.7920	3.7921	1.7606	26.79	0.83	1.500			
0.4965	31774.67	3.7890	3.7889	1.7984	26.78	0.82	1.500			
0.5019	32124.64	3.7860	3.7860	1.8527	26.76	0.80	1.500			
0.5075	32481.94	3.7830	3.7831	1.8791	26.75	0.79	1.500			
0.5133	32848.40	3.7800	3.7801	1.9319	26.74	0.78	1.500			
0.5191	33223.64	3.7770	3.7770	1.9535	26.72	0.76	1.500			
0.5250	33602.53	3.7740	3.7740	1.9779	26.71	0.75	1.500			
0.5309	33979.63	3.7710	3.7711	1.9988	26.69	0.73	1.500			
0.5370	34370.64	3.7680	3.7680	2.0456	26.68	0.72	1.500			
0.5433	34769.85	3.7650	3.7649	2.0416	26.66	0.70	1.500	0.360	0.459	
0.5494	35164.76	3.7620	3.7621	2.0597	26.64	0.68	1.500			
0.5557	35563.23	3.7590	3.7590	2.0469	26.62	0.66	1.500			
0.5617	35950.88	3.7560	3.7559	2.0143	26.60	0.64	1.500			
0.5677	36335.09	3.7530	3.7531	1.9959	26.58	0.62	1.500			
0.5737	36717.68	3.7500	3.7500	1.9857	26.56	0.60	1.500			
0.5796	37094.60	3.7470	3.7471	1.9643	26.55	0.59	1.500			
0.5855	37469.98	3.7440	3.7439	1.9738	26.53	0.57	1.500			
0.5914	37849.88	3.7410	3.7411	1.9854	26.52	0.56	1.500			
0.5974	38232.67	3.7380	3.7380	1.9699	26.51	0.55	1.500			
0.6033	38610.22	3.7350	3.7351	2.0004	26.50	0.54	1.500			
0.6093	38995.68	3.7320	3.7319	2.0357	26.48	0.52	1.500			
0.6155	39389.62	3.7290	3.7290	2.0921	26.47	0.51	1.500			
0.6218	39795.32	3.7260	3.7260	2.1399	26.45	0.49	1.500			
0.6283	40212.65	3.7230	3.7230	2.2006	26.44	0.48	1.500			
0.6349	40632.77	3.7200	3.7200	2.2415	26.42	0.46	1.500			
0.6418	41072.83	3.7170	3.7170	2.3085	26.41	0.45	1.500			
0.6487	41519.53	3.7140	3.7140	2.3909	26.39	0.43	1.500			
0.6561	41988.35	3.7110	3.7111	2.4813	26.37	0.41	1.500			
0.6636	42469.67	3.7080	3.7080	2.5578	26.35	0.39	1.500			
0.6714	42970.67	3.7050	3.7050	2.6219	26.34	0.38	1.500			
0.6794	43480.28	3.7020	3.7020	2.6662	26.32	0.36	1.500			
0.6876	44003.70	3.6990	3.6989	2.6702	26.30	0.34	1.500			
0.6957	44522.22	3.6960	3.6961	2.5982	26.28	0.32	1.500			
0.7033	45013.45	3.6930	3.6930	2.4546	26.27	0.31	1.500			
0.7104	45465.98	3.6900	3.6899	2.2730	26.26	0.30	1.500			
0.7169	45882.16	3.6870	3.6870	2.0864	26.25	0.29	1.500			
0.7229	46263.08	3.6840	3.6841	1.9076	26.24	0.28	1.500			
0.7283	46609.33	3.6810	3.6810	1.7616	26.23	0.27	1.500			
0.7333	46931.19	3.6780	3.6779	1.6438	26.22	0.26	1.500			
0.7379	47226.33	3.6750	3.6750	1.5438	26.21	0.25	1.500			
0.7423	47509.66	3.6720	3.6721	1.4646	26.20	0.24	1.500			
0.7466	47781.81	3.6690	3.6689	1.3993	26.19	0.23	1.500			
0.7507	48043.27	3.6660	3.6661	1.3532	26.18	0.22	1.500			
0.7546	48293.08	3.6630	3.6630	1.3078	26.17	0.21	1.500			
0.7584	48537.42	3.6600	3.6600	1.2853	26.17	0.21	1.500			
0.7622	48779.09	3.6570	3.6570	1.2672	26.16	0.20	1.500			
0.7659	49018.41	3.6540	3.6540	1.2618	26.15	0.19	1.500			
0.7697	49259.28	3.6510	3.6510	1.2664	26.14	0.18	1.500			
0.7735	49502.50	3.6480	3.6481	1.2840	26.14	0.18	1.500			
0.7773	49749.75	3.6450	3.6450	1.2942	26.13	0.17	1.500			
0.7812	49999.93	3.6420	3.6420	1.3109	26.12	0.16	1.500			
0.7853	50256.42	3.6390	3.6390	1.3178	26.11	0.15	1.500			
0.7893	50512.10	3.6360	3.6360	1.3237	26.10	0.14	1.500			
0.7932	50766.99	3.6330	3.6330	1.3222	26.09	0.13	1.500			
0.7972	51022.37	3.6300	3.6300	1.3108	26.08	0.12	1.500			
0.8011	51269.04	3.6270	3.6270	1.3067	26.07	0.11	1.500			
0.8050	51519.68	3.6240	3.6240	1.3095	26.06	0.10	1.500			
0.8089	51770.81	3.6210	3.6210	1.3020	26.05	0.09	1.500			
0.8128	52021.97	3.6180	3.6180	1.3050	26.04	0.08	1.500			
0.8168	52273.61	3.6150	3.6151	1.2996	26.03	0.07	1.500			
0.8207	52524.02	3.6120	3.6120	1.2892	26.02	0.06	1.500			
0.8246	52772.68	3.6090	3.6090	1.2829	26.02	0.06	1.500			
0.8284	53015.69	3.6060	3.6060	1.2618	26.01	0.05	1.500			
0.8321	53256.37	3.6030	3.6030	1.2524	26.01	0.05	1.500			
0.8359	53496.26	3.6000	3.6000	1.2402	26.00	0.04	1.500			
0.8396	53731.65	3.5970	3.5970	1.2255	25.99	0.03	1.500			
0.8432	53967.11	3.5940	3.5940	1.2110	25.99	0.03	1.500			
0.8469	54199.21	3.5910	3.5910	1.1977	25.98	0.02	1.500			
0.8504	54426.61	3.5880	3.5880	1.1840	25.98	0.02	1.500			
0.8539	54651.98	3.5850	3.5850	1.1730	25.97	0.01	1.500			
0.8575	54877.29	3.5820	3.5819	1.1522	25.97	0.01	1.500			
0.8609	55100.19	3.5790	3.5788	1.1244	25.96	0.00	1.500			
0.8644	55322.41	3.5760	3.5759	1.0665	25.95	-0.01	1.500			
0.8676	55528.20	3.5730	3.5731	0.9846	25.95	-0.01	1.500			
0.8706	55720.45	3.5700	3.5701	0.8794	25.94	-0.02	1.500			
0.8731	55878.50	3.5670	3.5671	0.7462	25.94	-0.02	1.500			
0.8750	56002.79	3.5640	3.5641	0.6207	25.94	-0.02	1.500			
0.8766	56102.41	3.5610	3.5611	0.5121	25.94	-0.02	1.500			
0.8779	56184.59	3.5580	3.5581	0.4059	25.93	-0.03	1.500			
0.8789	56250.60	3.5550	3.5548	0.3419	25.93	-0.03	1.500			
0.8798	56304.83	3.5520	3.5521	0.2887	25.93	-0.03	1.500			
0.8805	56353.15	3.5490	3.5490	0.2526	25.93	-0.03	1.500			
0.8812	56397.09	3.5460	3.5460	0.2227	25.93	-0.03	1.500			
0.8818	56436.21	3.5430	3.5430	0.2001	25.93	-0.03	1.500			
0.8824	56471.44	3.5400	3.5401	0.1803	25.93	-0.03	1.500			
0.8829	56503.87	3.5370	3.5370	0.1622	25.93	-0.03	1.500			
0.8833	56533.16	3.5340	3.5340	0.1482	25.92	-0.04	1.500			
0.8837	56559.77	3.5310	3.5310	0.1333	25.92	-0.04	1.500			
0.8841	56584.17	3.5280	3.5280	0.1188	25.92	-0.04	1.500			
0.8845	56605.69	3.5250	3.5249	0.1049	25.92	-0.04	1.500			
0.8848	56624.48	3.5220	3.5220	0.0908	25.92	-0.04	1.500			
0.8850	56640.82	3.5190	3.5193	0.0767	25.92	-0.04	1.500			
0.8852	56654.14	3.5160	3.5165	0.0621	25.92	-0.04	1.500			
0.8854	56665.22	3.5130	3.5136	0.0455	25.92	-0.04	1.500			
0.8855	56672.39	3.5100	3.5110	0.0292	25.92	-0.04	1.500			
