Ah_balance (normalized)	Ah_balance (mAh)	Voltage - fit (V)	Voltage -  interpolate (V)	dQ/dV (1/V)	Temperature (°C)	Temperature - diff (°C)	Current (C)	R_DC 0ms (mOhm)	R_DC 50ms (mOhm)	R_DC 50 ms PEC (mOhm)
0.2841	18179.42	3.9690	3.9690	0.8909	27.36	1.38	1.500			
0.2868	18352.86	3.9660	3.9659	0.9025	27.35	1.37	1.500			
0.2895	18526.50	3.9630	3.9631	0.9061	27.35	1.37	1.500			
0.2922	18700.58	3.9600	3.9600	0.9105	27.35	1.37	1.500			
0.2949	18876.66	3.9570	3.9570	0.9154	27.35	1.37	1.500			
0.2977	19052.88	3.9540	3.9540	0.9135	27.35	1.37	1.500			
0.3004	19228.48	3.9510	3.9510	0.9186	27.34	1.36	1.500			
0.3032	19404.94	3.9480	3.9481	0.9190	27.34	1.36	1.500			
0.3060	19581.57	3.9450	3.9450	0.9239	27.34	1.36	1.500			
0.3087	19758.23	3.9420	3.9419	0.9226	27.34	1.36	1.500			
0.3115	19933.24	3.9390	3.9391	0.9336	27.34	1.36	1.500			
0.3143	20112.69	3.9360	3.9360	0.9425	27.33	1.35	1.500			
0.3171	20295.98	3.9330	3.9329	0.9508	27.33	1.35	1.500			
0.3200	20480.07	3.9300	3.9300	0.9573	27.33	1.35	1.500			
0.3229	20666.13	3.9270	3.9271	0.9645	27.32	1.34	1.500			
0.3258	20852.39	3.9240	3.9240	0.9705	27.32	1.34	1.500			
0.3287	21039.55	3.9210	3.9210	0.9763	27.32	1.34	1.500			
0.3316	21223.60	3.9180	3.9180	0.9756	27.31	1.33	1.500			
0.3346	21413.02	3.9150	3.9150	0.9888	27.31	1.33	1.500			
0.3376	21605.13	3.9120	3.9120	0.9969	27.31	1.33	1.500			
0.3406	21796.11	3.9090	3.9091	1.0037	27.30	1.32	1.500			
0.3436	21990.49	3.9060	3.9061	1.0120	27.30	1.32	1.500			
0.3466	22184.86	3.9030	3.9031	1.0187	27.30	1.32	1.500			
0.3497	22380.09	3.9000	3.9000	1.0255	27.29	1.31	1.500			
0.3528	22577.43	3.8970	3.8970	1.0363	27.29	1.31	1.500			
0.3559	22778.91	3.8940	3.8940	1.0404	27.29	1.31	1.500			
0.3590	22978.33	3.8910	3.8910	1.0555	27.29	1.31	1.500			
0.3622	23181.91	3.8880	3.8880	1.0630	27.28	1.30	1.500			
0.3654	23387.77	3.8850	3.8850	1.0729	27.28	1.30	1.500			
0.3686	23592.99	3.8820	3.8820	1.0858	27.28	1.30	1.500			
0.3719	23802.16	3.8790	3.8790	1.1030	27.27	1.29	1.500			
0.3752	24014.79	3.8760	3.8760	1.1213	27.27	1.29	1.500			
0.3787	24234.03	3.8730	3.8730	1.1352	27.27	1.29	1.500			
0.3821	24452.47	3.8700	3.8700	1.1393	27.26	1.28	1.500			
0.3855	24673.52	3.8670	3.8671	1.1608	27.26	1.28	1.500			
0.3890	24896.37	3.8640	3.8641	1.1783	27.25	1.27	1.500			
0.3926	25123.28	3.8610	3.8607	1.1909	27.25	1.27	1.500			
0.3961	25350.93	3.8580	3.8581	1.2079	27.24	1.26	1.500			
0.3998	25584.84	3.8550	3.8551	1.2331	27.24	1.26	1.500			
0.4036	25828.32	3.8520	3.8520	1.2570	27.23	1.25	1.500			
0.4073	26070.17	3.8490	3.8489	1.2774	27.23	1.25	1.500			
0.4111	26313.42	3.8460	3.8461	1.2912	27.22	1.24	1.500			
0.4151	26564.53	3.8430	3.8430	1.3166	27.21	1.23	1.500			
0.4191	26819.50	3.8400	3.8400	1.3480	27.21	1.23	1.500			
0.4231	27081.25	3.8370	3.8370	1.3697	27.20	1.22	1.500			
0.4273	27346.18	3.8340	3.8340	1.3923	27.19	1.21	1.500			
0.4315	27615.43	3.8310	3.8310	1.4266	27.19	1.21	1.500			
0.4358	27892.09	3.8280	3.8281	1.4526	27.18	1.20	1.500			
0.4402	28174.12	3.8250	3.8249	1.4801	27.17	1.19	1.500			
0.4447	28458.69	3.8220	3.8220	1.5150	27.17	1.19	1.500			
0.4492	28751.55	3.8190	3.8191	1.5421	27.16	1.18	1.500			
0.4539	29051.76	3.8160	3.8159	1.5867	27.15	1.17	1.500			
0.4587	29357.33	3.8130	3.8130	1.6345	27.14	1.16	1.500			
0.4637	29673.67	3.8100	3.8101	1.6839	27.13	1.15	1.500			
0.4688	30004.01	3.8070	3.8069	1.7337	27.12	1.14	1.500			
0.4741	30345.11	3.8040	3.8039	1.7700	27.10	1.12	1.500			
0.4795	30686.30	3.8010	3.8011	1.8184	27.09	1.11	1.500			
0.4850	31040.57	3.7980	3.7980	1.8806	27.08	1.10	1.500			
0.4907	31402.61	3.7950	3.7950	1.9399	27.06	1.08	1.500			
0.4965	31777.58	3.7920	3.7921	1.9945	27.05	1.07	1.500			
0.5026	32169.05	3.7890	3.7891	2.0359	27.04	1.06	1.500			
0.5089	32568.55	3.7860	3.7861	2.0962	27.02	1.04	1.500			
0.5152	32972.70	3.7830	3.7829	2.1598	27.01	1.03	1.500			
0.5218	33392.47	3.7800	3.7801	2.2379	26.99	1.01	1.500			
0.5285	33825.57	3.7770	3.7770	2.2981	26.97	0.99	1.500			
0.5356	34279.91	3.7740	3.7741	2.3779	26.96	0.98	1.500			
0.5428	34740.72	3.7710	3.7707	2.4211	26.94	0.96	1.500			
0.5502	35213.71	3.7680	3.7681	2.4700	26.92	0.94	1.500			
0.5577	35692.93	3.7650	3.7650	2.5538	26.89	0.91	1.500			
0.5654	36187.73	3.7620	3.7620	2.6142	26.87	0.89	1.500	0.364	0.447	
0.5736	36708.70	3.7590	3.7591	2.6173	26.84	0.86	1.500			
0.5815	37215.02	3.7560	3.7561	2.6237	26.82	0.84	1.500			
0.5893	37713.56	3.7530	3.7529	2.5702	26.79	0.81	1.500			
0.5969	38199.37	3.7500	3.7500	2.4965	26.77	0.79	1.500			
0.6043	38675.88	3.7470	3.7471	2.4810	26.75	0.77	1.500			
0.6117	39150.07	3.7440	3.7441	2.4211	26.73	0.75	1.500			
0.6190	39613.88	3.7410	3.7410	2.3951	26.71	0.73	1.500			
0.6261	40069.46	3.7380	3.7381	2.3436	26.68	0.70	1.500			
0.6330	40512.41	3.7350	3.7350	2.3184	26.66	0.68	1.500			
0.6399	40951.34	3.7320	3.7320	2.2922	26.64	0.66	1.500			
0.6467	41391.26	3.7290	3.7290	2.3143	26.62	0.64	1.500			
0.6537	41836.38	3.7260	3.7260	2.3324	26.59	0.61	1.500			
0.6607	42284.65	3.7230	3.7230	2.3759	26.57	0.59	1.500			
0.6679	42743.11	3.7200	3.7199	2.4254	26.55	0.57	1.500			
0.6752	43215.18	3.7170	3.7170	2.4570	26.53	0.55	1.500			
0.6827	43690.83	3.7140	3.7140	2.5608	26.51	0.53	1.500			
0.6905	44193.66	3.7110	3.7109	2.6511	26.49	0.51	1.500			
0.6986	44708.90	3.7080	3.7081	2.7958	26.47	0.49	1.500			
0.7072	45260.47	3.7050	3.7050	2.9353	26.45	0.47	1.500			
0.7162	45836.77	3.7020	3.7020	3.0154	26.42	0.44	1.500			
0.7255	46430.63	3.6990	3.6991	3.0451	26.40	0.42	1.500			
0.7347	47021.26	3.6960	3.6960	3.0609	26.37	0.39	1.500			
0.7439	47609.58	3.6930	3.6929	2.9601	26.35	0.37	1.500			
0.7527	48175.77	3.6900	3.6901	2.7829	26.33	0.35	1.500			
0.7607	48684.05	3.6870	3.6871	2.5437	26.31	0.33	1.500			
0.7680	49150.53	3.6840	3.6839	2.2936	26.30	0.32	1.500			
0.7744	49559.19	3.6810	3.6811	2.0540	26.29	0.31	1.500			
0.7802	49931.77	3.6780	3.6780	1.8804	26.27	0.29	1.500			
0.7855	50272.47	3.6750	3.6750	1.7334	26.26	0.28	1.500			
0.7903	50580.57	3.6720	3.6719	1.5874	26.25	0.27	1.500			
0.7949	50870.41	3.6690	3.6691	1.4831	26.25	0.27	1.500			
0.7991	51144.45	3.6660	3.6661	1.3918	26.24	0.26	1.500			
0.8031	51400.63	3.6630	3.6629	1.3070	26.23	0.25	1.500			
0.8069	51639.43	3.6600	3.6600	1.2325	26.22	0.24	1.500			
0.8104	51862.50	3.6570	3.6571	1.1930	26.21	0.23	1.500			
0.8138	52083.17	3.6540	3.6540	1.1681	26.21	0.23	1.500			
0.8172	52301.83	3.6510	3.6508	1.1674	26.20	0.22	1.500			
0.8206	52521.27	3.6480	3.6481	1.1688	26.19	0.21	1.500			
0.8242	52749.30	3.6450	3.6450	1.1861	26.19	0.21	1.500			
0.8278	52980.01	3.6420	3.6420	1.2060	26.18	0.20	1.500			
0.8315	53213.79	3.6390	3.6390	1.2112	26.17	0.19	1.500			
0.8351	53447.49	3.6360	3.6360	1.2169	26.17	0.19	1.500			
0.8388	53684.50	3.6330	3.6330	1.2185	26.16	0.18	1.500			
0.8425	53918.82	3.6300	3.6300	1.2145	26.15	0.17	1.500			
0.8461	54150.82	3.6270	3.6270	1.2171	26.14	0.16	1.500			
0.8497	54383.26	3.6240	3.6240	1.2186	26.13	0.15	1.500			
0.8534	54615.40	3.6210	3.6210	1.2195	26.12	0.14	1.500			
0.8570	54850.83	3.6180	3.6179	1.2300	26.12	0.14	1.500			
0.8607	55087.90	3.6150	3.6151	1.2370	26.11	0.13	1.500			
0.8645	55326.82	3.6120	3.6121	1.2466	26.10	0.12	1.500			
0.8683	55568.61	3.6090	3.6090	1.2526	26.09	0.11	1.500			
0.8720	55809.61	3.6060	3.6060	1.2507	26.08	0.10	1.500			
0.8758	56048.86	3.6030	3.6030	1.2521	26.07	0.09	1.500			
0.8796	56291.98	3.6000	3.6000	1.2425	26.06	0.08	1.500			
0.8833	56532.44	3.5970	3.5970	1.2296	26.05	0.07	1.500			
0.8870	56766.78	3.5940	3.5940	1.2150	26.04	0.06	1.500			
0.8906	56997.37	3.5910	3.5912	1.1974	26.03	0.05	1.500			
0.8941	57223.16	3.5880	3.5880	1.1957	26.02	0.04	1.500			
0.8977	57449.86	3.5850	3.5850	1.1903	26.01	0.03	1.500			
0.9012	57674.95	3.5820	3.5820	1.2034	26.01	0.03	1.500			
0.9049	57910.47	3.5790	3.5790	1.2174	26.00	0.02	1.500			
0.9086	58153.10	3.5760	3.5759	1.2083	25.99	0.01	1.500			
0.9124	58393.12	3.5730	3.5729	1.1692	25.99	0.01	1.500			
0.9161	58632.27	3.5700	3.5699	1.0873	25.98	0.00	1.500			
0.9193	58837.11	3.5670	3.5672	0.9590	25.98	-0.00	1.500			
0.9222	59018.32	3.5640	3.5642	0.8163	25.97	-0.01	1.500			
0.9243	59153.66	3.5610	3.5610	0.6587	25.97	-0.01	1.500			
0.9258	59253.35	3.5580	3.5580	0.5059	25.97	-0.01	1.500			
0.9270	59330.58	3.5550	3.5549	0.4009	25.97	-0.01	1.500			
0.9280	59389.95	3.5520	3.5520	0.3141	25.96	-0.02	1.500			
0.9288	59441.76	3.5490	3.5489	0.2513	25.96	-0.02	1.500			
0.9294	59481.17	3.5460	3.5458	0.2105	25.96	-0.02	1.500			
0.9299	59514.76	3.5430	3.5429	0.1676	25.96	-0.02	1.500			
0.9304	59542.70	3.5400	3.5400	0.1337	25.96	-0.02	1.500			
0.9307	59564.46	3.5370	3.5370	0.1032	25.96	-0.02	1.500			
0.9310	59581.49	3.5340	3.5342	0.0738	25.96	-0.02	1.500			
0.9311	59592.83	3.5310	3.5316	0.0457	25.96	-0.02	1.500			
