Ah_balance (normalized)	Ah_balance (mAh)	Voltage - fit (V)	Voltage -  interpolate (V)	dQ/dV (1/V)	Temperature (°C)	Temperature - diff (°C)	Current (C)	R_DC 0ms (mOhm)	R_DC 50ms (mOhm)	R_DC 50 ms PEC (mOhm)
0.2705	17314.84	3.9880	3.9879	0.8626	27.21	1.23	1.500			
0.2731	17476.38	3.9850	3.9851	0.8482	27.21	1.23	1.500			
0.2756	17639.22	3.9820	3.9820	0.8495	27.20	1.22	1.500			
0.2782	17802.28	3.9790	3.9788	0.8532	27.20	1.22	1.500			
0.2807	17965.26	3.9760	3.9761	0.8536	27.20	1.22	1.500			
0.2833	18129.40	3.9730	3.9730	0.8586	27.19	1.21	1.500			
0.2859	18297.79	3.9700	3.9700	0.8648	27.19	1.21	1.500			
0.2885	18461.61	3.9670	3.9670	0.8646	27.19	1.21	1.500			
0.2911	18628.31	3.9640	3.9640	0.8691	27.18	1.20	1.500			
0.2937	18796.91	3.9610	3.9610	0.8707	27.18	1.20	1.500			
0.2963	18963.69	3.9580	3.9580	0.8761	27.18	1.20	1.500			
0.2989	19132.55	3.9550	3.9550	0.8809	27.18	1.20	1.500			
0.3016	19301.48	3.9520	3.9520	0.8846	27.17	1.19	1.500			
0.3043	19472.13	3.9490	3.9490	0.8895	27.17	1.19	1.500			
0.3069	19642.75	3.9460	3.9460	0.8939	27.16	1.18	1.500			
0.3096	19815.76	3.9430	3.9429	0.8982	27.15	1.17	1.500			
0.3123	19988.34	3.9400	3.9400	0.9031	27.15	1.17	1.500			
0.3150	20161.88	3.9370	3.9370	0.9021	27.14	1.16	1.500			
0.3178	20336.30	3.9340	3.9340	0.9078	27.14	1.16	1.500			
0.3205	20510.35	3.9310	3.9310	0.9130	27.13	1.15	1.500			
0.3232	20685.13	3.9280	3.9281	0.9169	27.12	1.14	1.500			
0.3260	20861.37	3.9250	3.9250	0.9226	27.12	1.14	1.500			
0.3287	21039.46	3.9220	3.9221	0.9292	27.11	1.13	1.500			
0.3315	21217.20	3.9190	3.9190	0.9376	27.10	1.12	1.500			
0.3344	21399.21	3.9160	3.9160	0.9450	27.10	1.12	1.500			
0.3372	21580.89	3.9130	3.9129	0.9472	27.09	1.11	1.500			
0.3401	21763.47	3.9100	3.9100	0.9518	27.09	1.11	1.500			
0.3429	21947.77	3.9070	3.9070	0.9559	27.08	1.10	1.500			
0.3458	22130.97	3.9040	3.9041	0.9629	27.08	1.10	1.500			
0.3487	22315.41	3.9010	3.9010	0.9706	27.07	1.09	1.500			
0.3516	22500.89	3.8980	3.8980	0.9749	27.06	1.08	1.500			
0.3545	22689.63	3.8950	3.8950	0.9903	27.06	1.08	1.500			
0.3575	22880.85	3.8920	3.8920	0.9989	27.05	1.07	1.500			
0.3605	23073.86	3.8890	3.8890	1.0059	27.05	1.07	1.500			
0.3636	23268.69	3.8860	3.8860	1.0166	27.04	1.06	1.500			
0.3666	23464.19	3.8830	3.8830	1.0213	27.04	1.06	1.500			
0.3697	23661.03	3.8800	3.8800	1.0324	27.03	1.05	1.500			
0.3728	23858.60	3.8770	3.8770	1.0453	27.03	1.05	1.500			
0.3759	24059.62	3.8740	3.8740	1.0564	27.02	1.04	1.500			
0.3791	24264.92	3.8710	3.8710	1.0692	27.02	1.04	1.500			
0.3824	24471.22	3.8680	3.8680	1.0800	27.01	1.03	1.500			
0.3856	24679.28	3.8650	3.8651	1.0910	27.00	1.02	1.500			
0.3889	24890.79	3.8620	3.8620	1.1022	26.99	1.01	1.500			
0.3922	25101.71	3.8590	3.8590	1.1144	26.99	1.01	1.500			
0.3956	25316.03	3.8560	3.8560	1.1313	26.98	1.00	1.500			
0.3990	25535.23	3.8530	3.8530	1.1480	26.97	0.99	1.500			
0.4025	25757.32	3.8500	3.8499	1.1662	26.96	0.98	1.500			
0.4060	25982.21	3.8470	3.8470	1.1863	26.95	0.97	1.500			
0.4096	26212.44	3.8440	3.8440	1.2029	26.94	0.96	1.500			
0.4132	26445.10	3.8410	3.8409	1.2225	26.93	0.95	1.500			
0.4169	26679.68	3.8380	3.8381	1.2351	26.92	0.94	1.500			
0.4206	26919.52	3.8350	3.8350	1.2557	26.91	0.93	1.500			
0.4244	27162.50	3.8320	3.8320	1.2774	26.90	0.92	1.500			
0.4283	27409.41	3.8290	3.8287	1.2936	26.89	0.91	1.500			
0.4322	27658.30	3.8260	3.8261	1.3147	26.88	0.90	1.500			
0.4361	27913.09	3.8230	3.8230	1.3429	26.87	0.89	1.500			
0.4402	28172.22	3.8200	3.8200	1.3654	26.86	0.88	1.500			
0.4444	28438.60	3.8170	3.8170	1.3887	26.85	0.87	1.500			
0.4485	28705.55	3.8140	3.8140	1.4126	26.83	0.85	1.500			
0.4528	28978.72	3.8110	3.8109	1.4409	26.82	0.84	1.500			
0.4572	29259.14	3.8080	3.8080	1.4687	26.81	0.83	1.500			
0.4616	29542.43	3.8050	3.8050	1.4949	26.80	0.82	1.500			
0.4661	29830.91	3.8020	3.8021	1.5129	26.78	0.80	1.500			
0.4707	30121.68	3.7990	3.7991	1.5441	26.77	0.79	1.500			
0.4753	30421.95	3.7960	3.7961	1.5800	26.76	0.78	1.500			
0.4801	30728.35	3.7930	3.7931	1.6031	26.74	0.76	1.500			
0.4850	31039.21	3.7900	3.7900	1.6304	26.73	0.75	1.500			
0.4900	31359.71	3.7870	3.7870	1.6543	26.71	0.73	1.500			
0.4950	31676.92	3.7840	3.7840	1.6872	26.69	0.71	1.500			
0.5000	31997.42	3.7810	3.7810	1.7174	26.67	0.69	1.500			
0.5052	32330.57	3.7780	3.7776	1.7447	26.65	0.67	1.500	0.338	0.463	
0.5106	32676.74	3.7750	3.7751	1.7734	26.64	0.66	1.500			
0.5159	33020.01	3.7720	3.7721	1.7733	26.62	0.64	1.500			
0.5213	33360.68	3.7690	3.7690	1.7673	26.61	0.63	1.500			
0.5265	33694.59	3.7660	3.7659	1.7528	26.60	0.62	1.500			
0.5317	34031.88	3.7630	3.7630	1.7546	26.58	0.60	1.500			
0.5371	34371.90	3.7600	3.7600	1.7566	26.57	0.59	1.500			
0.5423	34709.54	3.7570	3.7571	1.7649	26.55	0.57	1.500			
0.5476	35045.62	3.7540	3.7539	1.7663	26.54	0.56	1.500			
0.5528	35378.98	3.7510	3.7509	1.7787	26.52	0.54	1.500			
0.5581	35719.46	3.7480	3.7480	1.8039	26.51	0.53	1.500			
0.5636	36072.86	3.7450	3.7450	1.8362	26.49	0.51	1.500			
0.5692	36427.86	3.7420	3.7420	1.8678	26.48	0.50	1.500			
0.5749	36790.60	3.7390	3.7390	1.9067	26.46	0.48	1.500			
0.5806	37158.47	3.7360	3.7360	1.9383	26.44	0.46	1.500			
0.5865	37534.85	3.7330	3.7330	1.9741	26.43	0.45	1.500			
0.5924	37916.29	3.7300	3.7300	2.0392	26.42	0.44	1.500			
0.5986	38309.78	3.7270	3.7270	2.0872	26.40	0.42	1.500			
0.6050	38717.83	3.7240	3.7240	2.1519	26.39	0.41	1.500			
0.6116	39141.16	3.7210	3.7209	2.1963	26.37	0.39	1.500			
0.6183	39568.38	3.7180	3.7180	2.2543	26.36	0.38	1.500			
0.6250	40000.19	3.7150	3.7151	2.3099	26.35	0.37	1.500			
0.6321	40452.38	3.7120	3.7120	2.3697	26.33	0.35	1.500			
0.6393	40916.91	3.7090	3.7090	2.4006	26.31	0.33	1.500			
0.6467	41389.68	3.7060	3.7060	2.3865	26.30	0.32	1.500			
0.6538	41843.21	3.7030	3.7030	2.3104	26.28	0.30	1.500			
0.6607	42282.96	3.7000	3.7000	2.1939	26.26	0.28	1.500			
0.6671	42695.38	3.6970	3.6970	2.0679	26.25	0.27	1.500			
0.6730	43073.48	3.6940	3.6941	1.9205	26.23	0.25	1.500			
0.6786	43428.57	3.6910	3.6910	1.7960	26.22	0.24	1.500			
0.6837	43759.27	3.6880	3.6880	1.6827	26.21	0.23	1.500			
0.6886	44068.84	3.6850	3.6851	1.5814	26.20	0.22	1.500			
0.6932	44362.22	3.6820	3.6820	1.5022	26.20	0.22	1.500			
0.6975	44637.26	3.6790	3.6791	1.4302	26.19	0.21	1.500			
0.7016	44902.69	3.6760	3.6760	1.3797	26.18	0.20	1.500			
0.7056	45160.02	3.6730	3.6729	1.3407	26.17	0.19	1.500			
0.7095	45410.50	3.6700	3.6700	1.3118	26.16	0.18	1.500			
0.7134	45659.81	3.6670	3.6670	1.2905	26.15	0.17	1.500			
0.7173	45904.12	3.6640	3.6641	1.2794	26.14	0.16	1.500			
0.7210	46145.22	3.6610	3.6611	1.2715	26.13	0.15	1.500			
0.7248	46386.85	3.6580	3.6580	1.2782	26.12	0.14	1.500			
0.7286	46630.07	3.6550	3.6548	1.2812	26.11	0.13	1.500			
0.7325	46879.90	3.6520	3.6520	1.2919	26.10	0.12	1.500			
0.7364	47130.79	3.6490	3.6491	1.2992	26.09	0.11	1.500			
0.7404	47386.05	3.6460	3.6460	1.3048	26.08	0.10	1.500			
0.7443	47635.85	3.6430	3.6430	1.2902	26.07	0.09	1.500			
0.7482	47882.82	3.6400	3.6400	1.2825	26.05	0.07	1.500			
0.7520	48128.28	3.6370	3.6370	1.2712	26.04	0.06	1.500			
0.7558	48370.36	3.6340	3.6340	1.2665	26.03	0.05	1.500			
0.7596	48613.36	3.6310	3.6310	1.2586	26.02	0.04	1.500			
0.7633	48853.50	3.6280	3.6280	1.2543	26.02	0.04	1.500			
0.7671	49093.25	3.6250	3.6250	1.2520	26.01	0.03	1.500			
0.7709	49334.47	3.6220	3.6220	1.2480	26.00	0.02	1.500			
0.7746	49573.52	3.6190	3.6189	1.2408	25.99	0.01	1.500			
0.7783	49813.63	3.6160	3.6160	1.2299	25.98	-0.00	1.500			
0.7820	50047.42	3.6130	3.6130	1.2159	25.98	-0.00	1.500			
0.7857	50282.28	3.6100	3.6100	1.2056	25.97	-0.01	1.500			
0.7892	50511.98	3.6070	3.6069	1.1824	25.97	-0.01	1.500			
0.7928	50737.57	3.6040	3.6040	1.1540	25.97	-0.01	1.500			
0.7962	50957.16	3.6010	3.6011	1.1312	25.97	-0.01	1.500			
0.7995	51171.15	3.5980	3.5981	1.1078	25.96	-0.02	1.500			
0.8028	51381.72	3.5950	3.5948	1.0829	25.96	-0.02	1.500			
0.8060	51585.83	3.5920	3.5920	1.0519	25.96	-0.02	1.500			
0.8092	51787.62	3.5890	3.5890	1.0188	25.96	-0.02	1.500			
0.8123	51988.90	3.5860	3.5860	0.9674	25.97	-0.01	1.500			
0.8152	52173.49	3.5830	3.5830	0.8942	25.97	-0.01	1.500			
0.8178	52341.95	3.5800	3.5801	0.8000	25.97	-0.01	1.500			
0.8201	52487.79	3.5770	3.5770	0.6967	25.97	-0.01	1.500			
0.8220	52608.24	3.5740	3.5741	0.5982	25.98	-0.00	1.500			
0.8236	52708.30	3.5710	3.5710	0.5066	25.98	-0.00	1.500			
0.8249	52793.55	3.5680	3.5679	0.4185	25.98	-0.00	1.500			
0.8260	52863.98	3.5650	3.5649	0.3567	25.98	-0.00	1.500			
0.8269	52920.93	3.5620	3.5621	0.3057	25.98	-0.00	1.500			
0.8277	52973.10	3.5590	3.5589	0.2703	25.98	-0.00	1.500			
0.8284	53018.19	3.5560	3.5559	0.2385	25.98	0.00	1.500			
0.8291	53060.70	3.5530	3.5530	0.2136	25.98	0.00	1.500			
0.8297	53098.62	3.5500	3.5501	0.1939	25.98	0.00	1.500			
0.8302	53133.27	3.5470	3.5470	0.1776	25.98	0.00	1.500			
0.8307	53165.26	3.5440	3.5440	0.1611	25.98	0.00	1.500			
0.8312	53194.87	3.5410	3.5410	0.1474	25.98	0.00	1.500			
0.8316	53221.55	3.5380	3.5379	0.1334	25.98	0.00	1.500			
0.8320	53246.17	3.5350	3.5351	0.1197	25.98	0.00	1.500			
0.8323	53267.94	3.5320	3.5321	0.1062	25.98	0.00	1.500			
0.8326	53286.97	3.5290	3.5290	0.0921	25.98	0.00	1.500			
0.8329	53303.61	3.5260	3.5260	0.0780	25.98	0.00	1.500			
0.8331	53316.82	3.5230	3.5234	0.0636	25.98	0.00	1.500			
0.8332	53327.70	3.5200	3.5206	0.0498	25.98	0.00	1.500			
0.8334	53335.93	3.5170	3.5181	0.0359	25.98	0.00	1.500			
