Ah_balance (normalized)	Ah_balance (mAh)	Voltage - fit (V)	Voltage -  interpolate (V)	dQ/dV (1/V)	Temperature (°C)	Temperature - diff (°C)	Current (C)	R_DC 0ms (mOhm)	R_DC 50ms (mOhm)	R_DC 50 ms PEC (mOhm)
0.1873	11988.71	3.9290	3.9288	-0.0896	25.72	0.00	-1.500			
0.1877	12009.80	3.9260	3.9258	-0.1227	25.72	0.00	-1.500			
0.1881	12035.98	3.9230	3.9228	-0.1500	25.72	0.00	-1.500			
0.1886	12068.05	3.9200	3.9200	-0.1748	25.72	0.00	-1.500			
0.1891	12103.70	3.9170	3.9171	-0.2003	25.72	0.00	-1.500			
0.1898	12145.45	3.9140	3.9141	-0.2259	25.72	0.00	-1.500			
0.1905	12191.20	3.9110	3.9109	-0.2487	25.72	0.00	-1.500			
0.1913	12241.14	3.9080	3.9079	-0.2708	25.72	0.00	-1.500			
0.1921	12295.39	3.9050	3.9051	-0.2929	25.72	0.00	-1.500			
0.1930	12353.90	3.9020	3.9020	-0.3162	25.72	0.00	-1.500			
0.1940	12416.78	3.8990	3.8990	-0.3394	25.72	0.00	-1.500			
0.1951	12484.17	3.8960	3.8959	-0.3592	25.72	0.00	-1.500			
0.1962	12555.08	3.8930	3.8930	-0.3813	25.72	0.00	-1.500			
0.1974	12630.52	3.8900	3.8901	-0.4022	25.72	0.00	-1.500			
0.1986	12710.28	3.8870	3.8870	-0.4230	25.72	0.00	-1.500			
0.1999	12793.23	3.8840	3.8840	-0.4430	25.72	0.00	-1.500			
0.2012	12879.76	3.8810	3.8811	-0.4620	25.72	0.00	-1.500			
0.2027	12970.95	3.8780	3.8780	-0.4800	25.72	0.00	-1.500			
0.2042	13065.95	3.8750	3.8750	-0.4999	25.72	0.00	-1.500			
0.2057	13163.88	3.8720	3.8720	-0.5124	25.72	0.00	-1.500			
0.2073	13264.46	3.8690	3.8690	-0.5256	25.72	0.00	-1.500			
0.2088	13366.28	3.8660	3.8661	-0.5373	25.72	0.00	-1.500			
0.2105	13470.35	3.8630	3.8630	-0.5474	25.72	0.00	-1.500			
0.2121	13576.08	3.8600	3.8599	-0.5603	25.72	0.00	-1.500			
0.2138	13685.31	3.8570	3.8570	-0.5699	25.72	0.00	-1.500			
0.2156	13795.56	3.8540	3.8540	-0.5777	25.72	0.00	-1.500			
0.2173	13909.29	3.8510	3.8510	-0.5886	25.72	0.00	-1.500			
0.2191	14022.52	3.8480	3.8480	-0.5951	25.72	0.00	-1.500			
0.2209	14137.30	3.8450	3.8450	-0.5985	25.72	0.00	-1.500			
0.2227	14252.61	3.8420	3.8420	-0.6050	25.72	0.00	-1.500			
0.2245	14368.92	3.8390	3.8390	-0.6082	25.73	0.01	-1.500			
0.2264	14486.96	3.8360	3.8360	-0.6148	25.73	0.01	-1.500			
0.2282	14605.80	3.8330	3.8330	-0.6168	25.73	0.01	-1.500			
0.2301	14724.44	3.8300	3.8300	-0.6174	25.73	0.01	-1.500			
0.2319	14842.58	3.8270	3.8270	-0.6209	25.73	0.01	-1.500			
0.2338	14962.58	3.8240	3.8239	-0.6250	25.73	0.01	-1.500			
0.2357	15082.12	3.8210	3.8210	-0.6265	25.73	0.01	-1.500			
0.2376	15203.31	3.8180	3.8180	-0.6303	25.74	0.02	-1.500			
0.2395	15324.93	3.8150	3.8151	-0.6328	25.74	0.02	-1.500			
0.2414	15447.25	3.8120	3.8120	-0.6359	25.74	0.02	-1.500			
0.2433	15569.79	3.8090	3.8090	-0.6356	25.74	0.02	-1.500			
0.2452	15691.29	3.8060	3.8060	-0.6341	25.74	0.02	-1.500			
0.2471	15811.98	3.8030	3.8030	-0.6373	25.75	0.03	-1.500			
0.2490	15934.45	3.8000	3.8000	-0.6396	25.75	0.03	-1.500			
0.2509	16057.96	3.7970	3.7970	-0.6408	25.75	0.03	-1.500			
0.2528	16181.32	3.7940	3.7940	-0.6428	25.76	0.04	-1.500			
0.2548	16305.07	3.7910	3.7911	-0.6458	25.76	0.04	-1.500			
0.2567	16429.62	3.7880	3.7880	-0.6481	25.76	0.04	-1.500			
0.2586	16553.36	3.7850	3.7851	-0.6498	25.76	0.04	-1.500			
0.2606	16677.73	3.7820	3.7820	-0.6516	25.77	0.05	-1.500			
0.2625	16803.09	3.7790	3.7789	-0.6557	25.77	0.05	-1.500			
0.2645	16930.79	3.7760	3.7760	-0.6584	25.77	0.05	-1.500			
0.2665	17057.20	3.7730	3.7730	-0.6581	25.78	0.06	-1.500			
0.2685	17183.87	3.7700	3.7701	-0.6598	25.78	0.06	-1.500			
0.2705	17310.54	3.7670	3.7670	-0.6622	25.78	0.06	-1.500			
0.2724	17436.77	3.7640	3.7640	-0.6631	25.79	0.07	-1.500			
0.2744	17564.49	3.7610	3.7609	-0.6662	25.79	0.07	-1.500			
0.2764	17692.14	3.7580	3.7581	-0.6709	25.79	0.07	-1.500			
0.2785	17822.10	3.7550	3.7550	-0.6750	25.80	0.08	-1.500			
0.2805	17952.59	3.7520	3.7520	-0.6800	25.80	0.08	-1.500			
0.2826	18083.52	3.7490	3.7491	-0.6824	25.80	0.08	-1.500			
0.2846	18214.51	3.7460	3.7460	-0.6842	25.81	0.09	-1.500			
0.2867	18346.18	3.7430	3.7430	-0.6882	25.81	0.09	-1.500			
0.2887	18478.67	3.7400	3.7400	-0.6895	25.81	0.09	-1.500			
0.2908	18610.24	3.7370	3.7370	-0.6949	25.82	0.10	-1.500			
0.2929	18744.54	3.7340	3.7340	-0.7022	25.82	0.10	-1.500			
0.2950	18879.53	3.7310	3.7310	-0.7083	25.82	0.10	-1.500			
0.2971	19016.55	3.7280	3.7280	-0.7156	25.83	0.11	-1.500			
0.2993	19154.34	3.7250	3.7250	-0.7256	25.83	0.11	-1.500			
0.3015	19295.10	3.7220	3.7220	-0.7303	25.84	0.12	-1.500			
0.3037	19436.00	3.7190	3.7190	-0.7400	25.84	0.12	-1.500			
0.3059	19577.88	3.7160	3.7161	-0.7460	25.85	0.13	-1.500			
0.3082	19722.37	3.7130	3.7130	-0.7528	25.85	0.13	-1.500			
0.3104	19867.34	3.7100	3.7100	-0.7611	25.85	0.13	-1.500			
0.3127	20014.71	3.7070	3.7071	-0.7672	25.86	0.14	-1.500			
0.3150	20161.82	3.7040	3.7040	-0.7748	25.86	0.14	-1.500			
0.3174	20312.75	3.7010	3.7010	-0.7845	25.87	0.15	-1.500			
0.3197	20462.48	3.6980	3.6980	-0.7918	25.87	0.15	-1.500			
0.3221	20615.60	3.6950	3.6950	-0.7978	25.87	0.15	-1.500			
0.3245	20769.54	3.6920	3.6920	-0.8069	25.88	0.16	-1.500			
0.3269	20924.66	3.6890	3.6891	-0.8153	25.88	0.16	-1.500			
0.3294	21082.20	3.6860	3.6859	-0.8273	25.88	0.16	-1.500			
0.3319	21241.88	3.6830	3.6830	-0.8338	25.89	0.17	-1.500			
0.3344	21403.12	3.6800	3.6800	-0.8444	25.89	0.17	-1.500			
0.3370	21566.22	3.6770	3.6770	-0.8514	25.89	0.17	-1.500			
0.3395	21731.14	3.6740	3.6740	-0.8637	25.90	0.18	-1.500			
0.3421	21896.25	3.6710	3.6710	-0.8742	25.90	0.18	-1.500			
0.3448	22065.59	3.6680	3.6680	-0.8838	25.90	0.18	-1.500			
0.3474	22236.47	3.6650	3.6650	-0.8940	25.90	0.18	-1.500			
0.3502	22410.27	3.6620	3.6620	-0.9040	25.91	0.19	-1.500			
0.3529	22584.36	3.6590	3.6590	-0.9156	25.91	0.19	-1.500			
0.3556	22761.46	3.6560	3.6560	-0.9264	25.91	0.19	-1.500			
0.3584	22939.08	3.6530	3.6529	-0.9338	25.91	0.19	-1.500			
0.3612	23119.37	3.6500	3.6501	-0.9456	25.91	0.19	-1.500			
0.3641	23302.02	3.6470	3.6470	-0.9607	25.92	0.20	-1.500			
0.3670	23487.09	3.6440	3.6439	-0.9734	25.92	0.20	-1.500			
0.3699	23675.97	3.6410	3.6410	-0.9857	25.92	0.20	-1.500			
0.3729	23865.49	3.6380	3.6380	-0.9998	25.93	0.21	-1.500			
0.3759	24060.41	3.6350	3.6350	-1.0125	25.93	0.21	-1.500			
0.3790	24255.56	3.6320	3.6320	-1.0204	25.93	0.21	-1.500			
0.3821	24452.45	3.6290	3.6290	-1.0354	25.94	0.22	-1.500			
0.3852	24651.35	3.6260	3.6261	-1.0417	25.94	0.22	-1.500			
0.3883	24852.66	3.6230	3.6229	-1.0536	25.94	0.22	-1.500			
0.3915	25055.52	3.6200	3.6201	-1.0681	25.95	0.23	-1.500			
0.3947	25260.49	3.6170	3.6169	-1.0848	25.95	0.23	-1.500			
0.3980	25472.21	3.6140	3.6140	-1.1025	25.95	0.23	-1.500			
0.4013	25686.07	3.6110	3.6109	-1.1142	25.96	0.24	-1.500			
0.4047	25899.93	3.6080	3.6080	-1.1287	25.96	0.24	-1.500			
0.4081	26119.16	3.6050	3.6051	-1.1489	25.96	0.24	-1.500			
0.4116	26339.51	3.6020	3.6019	-1.1636	25.96	0.24	-1.500			
0.4151	26565.53	3.5990	3.5989	-1.1719	25.97	0.25	-1.500			
0.4186	26789.99	3.5960	3.5960	-1.1876	25.97	0.25	-1.500			
0.4222	27020.58	3.5930	3.5931	-1.2044	25.97	0.25	-1.500			
0.4259	27254.89	3.5900	3.5900	-1.2212	25.98	0.26	-1.500			
0.4295	27489.16	3.5870	3.5869	-1.2352	25.98	0.26	-1.500			
0.4332	27726.61	3.5840	3.5841	-1.2459	25.98	0.26	-1.500			
0.4370	27968.51	3.5810	3.5810	-1.2624	25.99	0.27	-1.500			
0.4408	28213.37	3.5780	3.5780	-1.2865	25.99	0.27	-1.500			
0.4447	28459.67	3.5750	3.5751	-1.2975	25.99	0.27	-1.500			
0.4486	28710.69	3.5720	3.5720	-1.3187	25.99	0.27	-1.500			
0.4526	28965.82	3.5690	3.5690	-1.3362	26.00	0.28	-1.500			
0.4566	29222.80	3.5660	3.5661	-1.3601	26.00	0.28	-1.500			
0.4608	29489.46	3.5630	3.5630	-1.3768	26.00	0.28	-1.500			
0.4649	29755.96	3.5600	3.5600	-1.3957	26.01	0.29	-1.500			
0.4691	30024.03	3.5570	3.5571	-1.4110	26.01	0.29	-1.500			
0.4734	30297.28	3.5540	3.5540	-1.4285	26.01	0.29	-1.500			
0.4777	30571.95	3.5510	3.5509	-1.4450	26.02	0.30	-1.500			
0.4820	30849.67	3.5480	3.5480	-1.4631	26.02	0.30	-1.500			
0.4864	31132.50	3.5450	3.5450	-1.4867	26.02	0.30	-1.500			
0.4910	31421.16	3.5420	3.5420	-1.5081	26.03	0.31	-1.500			
0.4955	31713.11	3.5390	3.5390	-1.5221	26.03	0.31	-1.500			
0.5001	32007.44	3.5360	3.5360	-1.5501	26.04	0.32	-1.500			
0.5048	32308.00	3.5330	3.5330	-1.5720	26.04	0.32	-1.500			
0.5096	32614.94	3.5300	3.5299	-1.5783	26.05	0.33	-1.500			
0.5144	32919.10	3.5270	3.5269	-1.5890	26.06	0.34	-1.500	0.375	0.540	
0.5191	33225.20	3.5240	3.5241	-1.6015	26.06	0.34	-1.500			
0.5240	33534.08	3.5210	3.5209	-1.6079	26.07	0.35	-1.500			
0.5288	33842.60	3.5180	3.5179	-1.6185	26.08	0.36	-1.500			
0.5336	34151.75	3.5150	3.5151	-1.6324	26.08	0.36	-1.500			
0.5386	34468.04	3.5120	3.5120	-1.6495	26.09	0.37	-1.500			
0.5436	34787.29	3.5090	3.5091	-1.6609	26.10	0.38	-1.500			
0.5485	35106.41	3.5060	3.5059	-1.6645	26.11	0.39	-1.500			
0.5535	35426.91	3.5030	3.5031	-1.6718	26.12	0.40	-1.500			
0.5586	35749.34	3.5000	3.5000	-1.6737	26.13	0.41	-1.500			
0.5637	36073.92	3.4970	3.4970	-1.6795	26.14	0.42	-1.500			
0.5687	36395.20	3.4940	3.4940	-1.6739	26.15	0.43	-1.500			
0.5737	36716.36	3.4910	3.4910	-1.6729	26.16	0.44	-1.500			
0.5787	37036.90	3.4880	3.4881	-1.6817	26.18	0.46	-1.500			
0.5838	37363.53	3.4850	3.4849	-1.6728	26.19	0.47	-1.500			
0.5888	37684.92	3.4820	3.4820	-1.6592	26.20	0.48	-1.500			
0.5938	38003.25	3.4790	3.4792	-1.6520	26.21	0.49	-1.500			
0.5987	38318.76	3.4760	3.4759	-1.6437	26.23	0.51	-1.500			
0.6036	38633.06	3.4730	3.4729	-1.6273	26.24	0.52	-1.500			
0.6085	38943.05	3.4700	3.4700	-1.6077	26.25	0.53	-1.500			
0.6133	39251.29	3.4670	3.4670	-1.5992	26.27	0.55	-1.500			
0.6181	39560.39	3.4640	3.4641	-1.5832	26.28	0.56	-1.500			
0.6229	39862.70	3.4610	3.4609	-1.5573	26.29	0.57	-1.500			
0.6275	40156.89	3.4580	3.4580	-1.5334	26.31	0.59	-1.500			
0.6320	40449.41	3.4550	3.4551	-1.5143	26.32	0.60	-1.500			
0.6365	40738.82	3.4520	3.4519	-1.5047	26.34	0.62	-1.500			
0.6410	41026.35	3.4490	3.4489	-1.4807	26.35	0.63	-1.500			
0.6454	41307.85	3.4460	3.4460	-1.4606	26.37	0.65	-1.500			
0.6498	41588.01	3.4430	3.4430	-1.4465	26.39	0.67	-1.500			
0.6542	41866.01	3.4400	3.4400	-1.4340	26.40	0.68	-1.500			
0.6584	42137.54	3.4370	3.4369	-1.4109	26.42	0.70	-1.500			
0.6626	42407.86	3.4340	3.4340	-1.3986	26.44	0.72	-1.500			
0.6668	42673.56	3.4310	3.4311	-1.3778	26.45	0.73	-1.500			
0.6709	42938.47	3.4280	3.4279	-1.3613	26.47	0.75	-1.500			
0.6750	43197.43	3.4250	3.4250	-1.3396	26.49	0.77	-1.500			
0.6789	43452.09	3.4220	3.4221	-1.3219	26.51	0.79	-1.500			
0.6829	43703.43	3.4190	3.4190	-1.2995	26.53	0.81	-1.500			
0.6868	43954.68	3.4160	3.4160	-1.2783	26.55	0.83	-1.500			
0.6906	44197.33	3.4130	3.4131	-1.2530	26.56	0.84	-1.500			
0.6943	44435.97	3.4100	3.4100	-1.2320	26.57	0.85	-1.500			
0.6980	44670.34	3.4070	3.4070	-1.2064	26.59	0.87	-1.500			
0.7016	44899.68	3.4040	3.4040	-1.1726	26.61	0.89	-1.500			
0.7050	45122.20	3.4010	3.4010	-1.1453	26.62	0.90	-1.500			
0.7084	45340.10	3.3980	3.3981	-1.1154	26.64	0.92	-1.500			
0.7117	45551.19	3.3950	3.3950	-1.0844	26.66	0.94	-1.500			
0.7149	45756.00	3.3920	3.3919	-1.0470	26.68	0.96	-1.500			
0.7180	45953.36	3.3890	3.3891	-1.0136	26.69	0.97	-1.500			
0.7210	46144.24	3.3860	3.3860	-0.9858	26.70	0.98	-1.500			
0.7239	46332.16	3.3830	3.3829	-0.9586	26.72	1.00	-1.500			
0.7267	46510.93	3.3800	3.3799	-0.9275	26.73	1.01	-1.500			
0.7295	46685.82	3.3770	3.3771	-0.8973	26.74	1.02	-1.500			
0.7321	46856.08	3.3740	3.3740	-0.8724	26.75	1.03	-1.500			
0.7347	47022.02	3.3710	3.3710	-0.8473	26.77	1.05	-1.500			
0.7372	47181.93	3.3680	3.3680	-0.8160	26.78	1.06	-1.500			
0.7396	47335.18	3.3650	3.3651	-0.7877	26.79	1.07	-1.500			
0.7419	47483.01	3.3620	3.3620	-0.7669	26.80	1.08	-1.500			
0.7442	47627.66	3.3590	3.3590	-0.7427	26.81	1.09	-1.500			
0.7464	47767.64	3.3560	3.3559	-0.7229	26.82	1.10	-1.500			
0.7485	47903.37	3.3530	3.3530	-0.7026	26.83	1.11	-1.500			
0.7506	48036.89	3.3500	3.3501	-0.6856	26.84	1.12	-1.500			
0.7526	48167.58	3.3470	3.3470	-0.6690	26.85	1.13	-1.500			
0.7546	48293.77	3.3440	3.3440	-0.6492	26.86	1.14	-1.500			
0.7565	48416.32	3.3410	3.3410	-0.6297	26.87	1.15	-1.500			
0.7584	48536.33	3.3380	3.3380	-0.6140	26.88	1.16	-1.500			
0.7602	48651.89	3.3350	3.3350	-0.5946	26.89	1.17	-1.500			
0.7619	48763.98	3.3320	3.3320	-0.5781	26.90	1.18	-1.500			
0.7636	48872.92	3.3290	3.3290	-0.5640	26.91	1.19	-1.500			
0.7653	48979.13	3.3260	3.3260	-0.5490	26.92	1.20	-1.500			
0.7669	49083.17	3.3230	3.3230	-0.5370	26.92	1.20	-1.500			
0.7685	49185.86	3.3200	3.3200	-0.5223	26.93	1.21	-1.500			
0.7701	49284.63	3.3170	3.3170	-0.5079	26.94	1.22	-1.500			
0.7716	49380.67	3.3140	3.3141	-0.4958	26.95	1.23	-1.500			
0.7730	49474.11	3.3110	3.3110	-0.4834	26.96	1.24	-1.500			
0.7745	49565.22	3.3080	3.3079	-0.4703	26.97	1.25	-1.500			
0.7759	49654.91	3.3050	3.3050	-0.4593	26.98	1.26	-1.500			
0.7772	49741.70	3.3020	3.3020	-0.4490	26.99	1.27	-1.500			
0.7786	49827.67	3.2990	3.2990	-0.4383	27.00	1.28	-1.500			
0.7798	49910.28	3.2960	3.2959	-0.4276	27.00	1.28	-1.500			
0.7811	49991.15	3.2930	3.2930	-0.4169	27.01	1.29	-1.500			
0.7823	50069.44	3.2900	3.2900	-0.4074	27.02	1.30	-1.500			
0.7835	50146.79	3.2870	3.2870	-0.4003	27.03	1.31	-1.500			
0.7847	50223.22	3.2840	3.2839	-0.3919	27.03	1.31	-1.500			
0.7859	50298.00	3.2810	3.2809	-0.3809	27.04	1.32	-1.500			
0.7870	50370.42	3.2780	3.2781	-0.3737	27.05	1.33	-1.500			
0.7881	50440.89	3.2750	3.2751	-0.3640	27.05	1.33	-1.500			
0.7892	50510.24	3.2720	3.2720	-0.3551	27.06	1.34	-1.500			
0.7903	50576.99	3.2690	3.2689	-0.3464	27.06	1.34	-1.500			
0.7913	50641.77	3.2660	3.2662	-0.3387	27.07	1.35	-1.500			
0.7923	50706.52	3.2630	3.2630	-0.3334	27.08	1.36	-1.500			
0.7933	50771.05	3.2600	3.2599	-0.3282	27.08	1.36	-1.500			
0.7943	50832.47	3.2570	3.2570	-0.3203	27.09	1.37	-1.500			
0.7952	50893.32	3.2540	3.2541	-0.3149	27.10	1.38	-1.500			
0.7961	50953.18	3.2510	3.2510	-0.3099	27.10	1.38	-1.500			
0.7971	51011.51	3.2480	3.2479	-0.3034	27.11	1.39	-1.500			
0.7980	51069.41	3.2450	3.2450	-0.2986	27.12	1.40	-1.500			
0.7989	51126.90	3.2420	3.2420	-0.2931	27.12	1.40	-1.500			
0.7997	51182.61	3.2390	3.2390	-0.2875	27.13	1.41	-1.500			
0.8006	51236.90	3.2360	3.2361	-0.2812	27.14	1.42	-1.500			
0.8014	51290.50	3.2330	3.2330	-0.2759	27.14	1.42	-1.500			
0.8022	51342.38	3.2300	3.2299	-0.2702	27.15	1.43	-1.500			
0.8030	51393.87	3.2270	3.2270	-0.2663	27.16	1.44	-1.500			
0.8038	51444.40	3.2240	3.2240	-0.2627	27.16	1.44	-1.500			
0.8046	51494.57	3.2210	3.2210	-0.2593	27.17	1.45	-1.500			
0.8054	51543.89	3.2180	3.2181	-0.2535	27.17	1.45	-1.500			
0.8061	51592.27	3.2150	3.2151	-0.2497	27.18	1.46	-1.500			
0.8069	51639.85	3.2120	3.2121	-0.2465	27.19	1.47	-1.500			
0.8076	51686.43	3.2090	3.2091	-0.2429	27.19	1.47	-1.500			
0.8083	51732.39	3.2060	3.2059	-0.2395	27.20	1.48	-1.500			
0.8090	51777.98	3.2030	3.2030	-0.2370	27.20	1.48	-1.500			
0.8097	51823.33	3.2000	3.2000	-0.2337	27.21	1.49	-1.500			
0.8104	51868.39	3.1970	3.1971	-0.2328	27.21	1.49	-1.500			
0.8111	51912.98	3.1940	3.1940	-0.2286	27.22	1.50	-1.500			
0.8118	51956.51	3.1910	3.1910	-0.2248	27.22	1.50	-1.500			
0.8125	51999.34	3.1880	3.1879	-0.2217	27.23	1.51	-1.500			
0.8131	52041.54	3.1850	3.1851	-0.2179	27.23	1.51	-1.500			
0.8138	52082.75	3.1820	3.1820	-0.2145	27.24	1.52	-1.500			
0.8144	52123.65	3.1790	3.1789	-0.2116	27.24	1.52	-1.500			
0.8151	52163.74	3.1760	3.1760	-0.2099	27.25	1.53	-1.500			
0.8157	52203.37	3.1730	3.1729	-0.2071	27.25	1.53	-1.500			
0.8163	52243.58	3.1700	3.1700	-0.2060	27.26	1.54	-1.500			
0.8169	52282.90	3.1670	3.1670	-0.2036	27.26	1.54	-1.500			
0.8175	52321.69	3.1640	3.1641	-0.2014	27.27	1.55	-1.500			
0.8181	52360.46	3.1610	3.1611	-0.1997	27.27	1.55	-1.500			
0.8187	52398.49	3.1580	3.1580	-0.1968	27.28	1.56	-1.500			
0.8193	52435.86	3.1550	3.1549	-0.1953	27.28	1.56	-1.500			
0.8199	52472.92	3.1520	3.1520	-0.1929	27.29	1.57	-1.500			
0.8205	52509.83	3.1490	3.1490	-0.1914	27.30	1.58	-1.500			
0.8210	52546.44	3.1460	3.1459	-0.1900	27.31	1.59	-1.500			
0.8216	52582.94	3.1430	3.1431	-0.1885	27.31	1.59	-1.500			
0.8222	52618.88	3.1400	3.1400	-0.1866	27.32	1.60	-1.500			
0.8227	52654.79	3.1370	3.1370	-0.1846	27.33	1.61	-1.500			
0.8233	52690.01	3.1340	3.1339	-0.1823	27.33	1.61	-1.500			
0.8238	52724.55	3.1310	3.1311	-0.1810	27.34	1.62	-1.500			
0.8244	52759.20	3.1280	3.1280	-0.1797	27.35	1.63	-1.500			
0.8249	52793.65	3.1250	3.1249	-0.1774	27.36	1.64	-1.500			
0.8254	52827.54	3.1220	3.1220	-0.1756	27.36	1.64	-1.500			
0.8260	52860.98	3.1190	3.1192	-0.1746	27.37	1.65	-1.500			
0.8265	52894.38	3.1160	3.1161	-0.1733	27.37	1.65	-1.500			
0.8270	52927.56	3.1130	3.1129	-0.1722	27.38	1.66	-1.500			
0.8275	52960.49	3.1100	3.1100	-0.1708	27.39	1.67	-1.500			
0.8280	52992.85	3.1070	3.1070	-0.1690	27.39	1.67	-1.500			
0.8285	53025.40	3.1040	3.1041	-0.1678	27.40	1.68	-1.500			
0.8290	53057.91	3.1010	3.1010	-0.1667	27.40	1.68	-1.500			
0.8295	53089.67	3.0980	3.0980	-0.1642	27.41	1.69	-1.500			
0.8300	53120.46	3.0950	3.0950	-0.1634	27.41	1.69	-1.500			
0.8305	53151.77	3.0920	3.0919	-0.1621	27.42	1.70	-1.500			
0.8310	53182.61	3.0890	3.0890	-0.1608	27.42	1.70	-1.500			
0.8315	53213.47	3.0860	3.0859	-0.1601	27.43	1.71	-1.500			
0.8319	53244.21	3.0830	3.0832	-0.1590	27.43	1.71	-1.500			
0.8324	53274.68	3.0800	3.0800	-0.1585	27.44	1.72	-1.500			
0.8329	53305.20	3.0770	3.0770	-0.1577	27.44	1.72	-1.500			
0.8334	53335.31	3.0740	3.0739	-0.1564	27.45	1.73	-1.500			
0.8338	53364.79	3.0710	3.0710	-0.1548	27.45	1.73	-1.500			
0.8343	53394.96	3.0680	3.0680	-0.1541	27.46	1.74	-1.500			
0.8348	53424.37	3.0650	3.0651	-0.1524	27.46	1.74	-1.500			
0.8352	53453.39	3.0620	3.0619	-0.1518	27.47	1.75	-1.500			
0.8357	53482.31	3.0590	3.0591	-0.1513	27.48	1.76	-1.500			
0.8361	53511.28	3.0560	3.0558	-0.1498	27.48	1.76	-1.500			
0.8366	53539.97	3.0530	3.0530	-0.1491	27.49	1.77	-1.500			
0.8370	53568.53	3.0500	3.0500	-0.1487	27.49	1.77	-1.500			
0.8375	53597.16	3.0470	3.0471	-0.1477	27.50	1.78	-1.500			
0.8379	53625.71	3.0440	3.0438	-0.1471	27.51	1.79	-1.500			
0.8383	53653.79	3.0410	3.0410	-0.1454	27.51	1.79	-1.500			
0.8388	53681.33	3.0380	3.0381	-0.1438	27.52	1.80	-1.500			
0.8392	53708.60	3.0350	3.0350	-0.1433	27.52	1.80	-1.500			
0.8396	53736.32	3.0320	3.0319	-0.1426	27.53	1.81	-1.500			
0.8401	53763.59	3.0290	3.0290	-0.1415	27.53	1.81	-1.500			
0.8405	53790.34	3.0260	3.0260	-0.1410	27.54	1.82	-1.500			
0.8409	53817.69	3.0230	3.0231	-0.1400	27.55	1.83	-1.500			
0.8413	53844.43	3.0200	3.0199	-0.1395	27.55	1.83	-1.500			
0.8417	53871.12	3.0170	3.0170	-0.1386	27.56	1.84	-1.500			
0.8422	53897.67	3.0140	3.0140	-0.1376	27.56	1.84	-1.500			
0.8426	53923.77	3.0110	3.0110	-0.1365	27.57	1.85	-1.500			
0.8430	53950.17	3.0080	3.0080	-0.1358	27.57	1.85	-1.500			
0.8434	53976.11	3.0050	3.0050	-0.1345	27.57	1.85	-1.500			
0.8438	54001.91	3.0020	3.0020	-0.1362	27.57	1.85	-1.500			
