Ah_balance (normalized)	Ah_balance (mAh)	Voltage - fit (V)	Voltage -  interpolate (V)	dQ/dV (1/V)	Temperature (°C)	Temperature - diff (°C)	Current (C)	R_DC 0ms (mOhm)	R_DC 50ms (mOhm)	R_DC 50 ms PEC (mOhm)
0.2130	13633.21	3.9120	3.9118	-0.1061	25.84	0.00	-1.500			
0.2134	13657.13	3.9090	3.9090	-0.1415	25.84	0.00	-1.500			
0.2139	13688.04	3.9060	3.9058	-0.1754	25.84	0.00	-1.500			
0.2145	13725.84	3.9030	3.9029	-0.2057	25.84	0.00	-1.500			
0.2151	13768.24	3.9000	3.9000	-0.2357	25.84	0.00	-1.500			
0.2159	13817.24	3.8970	3.8970	-0.2661	25.84	0.00	-1.500			
0.2167	13870.59	3.8940	3.8941	-0.2945	25.84	0.00	-1.500			
0.2177	13929.77	3.8910	3.8910	-0.3225	25.84	0.00	-1.500			
0.2187	13994.44	3.8880	3.8880	-0.3499	25.84	0.00	-1.500			
0.2198	14064.62	3.8850	3.8850	-0.3766	25.84	0.00	-1.500			
0.2209	14140.43	3.8820	3.8821	-0.4042	25.84	0.00	-1.500			
0.2222	14219.89	3.8790	3.8790	-0.4305	25.84	0.00	-1.500			
0.2235	14305.20	3.8760	3.8760	-0.4580	25.84	0.00	-1.500			
0.2249	14395.81	3.8730	3.8729	-0.4835	25.84	0.00	-1.500			
0.2264	14491.49	3.8700	3.8701	-0.5083	25.84	0.00	-1.500			
0.2280	14591.23	3.8670	3.8670	-0.5340	25.84	0.00	-1.500			
0.2296	14696.71	3.8640	3.8641	-0.5578	25.84	0.00	-1.500			
0.2313	14805.98	3.8610	3.8610	-0.5811	25.84	0.00	-1.500			
0.2331	14920.14	3.8580	3.8579	-0.6001	25.84	0.00	-1.500			
0.2350	15038.05	3.8550	3.8550	-0.6205	25.84	0.00	-1.500			
0.2369	15159.79	3.8520	3.8520	-0.6382	25.84	0.00	-1.500			
0.2388	15285.41	3.8490	3.8490	-0.6537	25.84	0.00	-1.500			
0.2408	15412.44	3.8460	3.8460	-0.6624	25.84	0.00	-1.500			
0.2428	15541.55	3.8430	3.8430	-0.6726	25.84	0.00	-1.500			
0.2449	15670.61	3.8400	3.8401	-0.6841	25.84	0.00	-1.500			
0.2469	15803.91	3.8370	3.8370	-0.6926	25.84	0.00	-1.500			
0.2490	15937.67	3.8340	3.8339	-0.6997	25.84	0.00	-1.500			
0.2511	16072.80	3.8310	3.8310	-0.7077	25.84	0.00	-1.500			
0.2533	16210.28	3.8280	3.8281	-0.7166	25.84	0.00	-1.500			
0.2554	16348.51	3.8250	3.8250	-0.7218	25.84	0.00	-1.500			
0.2576	16487.72	3.8220	3.8219	-0.7243	25.84	0.00	-1.500			
0.2598	16626.55	3.8190	3.8191	-0.7254	25.84	0.00	-1.500			
0.2620	16767.41	3.8160	3.8159	-0.7307	25.84	0.00	-1.500			
0.2642	16907.43	3.8130	3.8131	-0.7296	25.84	0.00	-1.500			
0.2664	17048.52	3.8100	3.8100	-0.7315	25.85	0.01	-1.500			
0.2686	17188.27	3.8070	3.8070	-0.7322	25.85	0.01	-1.500			
0.2708	17328.96	3.8040	3.8040	-0.7353	25.85	0.01	-1.500			
0.2730	17469.21	3.8010	3.8010	-0.7409	25.85	0.01	-1.500			
0.2752	17612.10	3.7980	3.7980	-0.7434	25.85	0.01	-1.500			
0.2774	17755.83	3.7950	3.7950	-0.7444	25.85	0.01	-1.500			
0.2797	17898.98	3.7920	3.7921	-0.7488	25.86	0.02	-1.500			
0.2819	18044.09	3.7890	3.7890	-0.7486	25.86	0.02	-1.500			
0.2842	18187.90	3.7860	3.7860	-0.7471	25.86	0.02	-1.500			
0.2864	18330.89	3.7830	3.7830	-0.7428	25.86	0.02	-1.500			
0.2886	18472.62	3.7800	3.7801	-0.7428	25.87	0.03	-1.500			
0.2909	18615.41	3.7770	3.7770	-0.7459	25.87	0.03	-1.500			
0.2931	18758.03	3.7740	3.7739	-0.7476	25.87	0.03	-1.500			
0.2953	18900.67	3.7710	3.7710	-0.7455	25.88	0.04	-1.500			
0.2976	19045.13	3.7680	3.7680	-0.7482	25.88	0.04	-1.500			
0.2998	19189.48	3.7650	3.7650	-0.7503	25.88	0.04	-1.500			
0.3021	19334.16	3.7620	3.7619	-0.7508	25.89	0.05	-1.500			
0.3043	19477.12	3.7590	3.7590	-0.7492	25.89	0.05	-1.500			
0.3066	19621.44	3.7560	3.7560	-0.7480	25.90	0.06	-1.500			
0.3088	19765.26	3.7530	3.7531	-0.7473	25.90	0.06	-1.500			
0.3111	19909.38	3.7500	3.7500	-0.7447	25.90	0.06	-1.500			
0.3133	20051.50	3.7470	3.7470	-0.7439	25.91	0.07	-1.500			
0.3155	20193.27	3.7440	3.7440	-0.7439	25.91	0.07	-1.500			
0.3177	20335.09	3.7410	3.7409	-0.7456	25.92	0.08	-1.500			
0.3200	20478.61	3.7380	3.7380	-0.7468	25.92	0.08	-1.500			
0.3222	20622.58	3.7350	3.7350	-0.7510	25.93	0.09	-1.500			
0.3245	20767.39	3.7320	3.7320	-0.7558	25.93	0.09	-1.500			
0.3268	20913.87	3.7290	3.7290	-0.7577	25.94	0.10	-1.500			
0.3290	21058.54	3.7260	3.7259	-0.7580	25.94	0.10	-1.500			
0.3313	21204.05	3.7230	3.7231	-0.7620	25.94	0.10	-1.500			
0.3336	21350.70	3.7200	3.7200	-0.7631	25.95	0.11	-1.500			
0.3359	21497.25	3.7170	3.7169	-0.7688	25.95	0.11	-1.500			
0.3382	21643.66	3.7140	3.7140	-0.7745	25.96	0.12	-1.500			
0.3405	21793.14	3.7110	3.7111	-0.7802	25.96	0.12	-1.500			
0.3429	21944.05	3.7080	3.7080	-0.7898	25.97	0.13	-1.500			
0.3453	22096.56	3.7050	3.7050	-0.7962	25.97	0.13	-1.500			
0.3477	22250.35	3.7020	3.7020	-0.8047	25.98	0.14	-1.500			
0.3501	22405.33	3.6990	3.6990	-0.8162	25.98	0.14	-1.500			
0.3525	22562.11	3.6960	3.6960	-0.8220	25.99	0.15	-1.500			
0.3550	22720.70	3.6930	3.6930	-0.8311	25.99	0.15	-1.500			
0.3575	22882.11	3.6900	3.6900	-0.8440	26.00	0.16	-1.500			
0.3601	23044.69	3.6870	3.6869	-0.8523	26.00	0.16	-1.500			
0.3626	23209.15	3.6840	3.6841	-0.8662	26.01	0.17	-1.500			
0.3652	23375.01	3.6810	3.6810	-0.8791	26.01	0.17	-1.500			
0.3679	23544.88	3.6780	3.6780	-0.8968	26.01	0.17	-1.500			
0.3706	23719.78	3.6750	3.6750	-0.9132	26.02	0.18	-1.500			
0.3734	23895.77	3.6720	3.6719	-0.9251	26.02	0.18	-1.500			
0.3762	24075.66	3.6690	3.6691	-0.9423	26.03	0.19	-1.500			
0.3790	24258.28	3.6660	3.6660	-0.9580	26.03	0.19	-1.500			
0.3819	24442.98	3.6630	3.6630	-0.9718	26.04	0.20	-1.500			
0.3849	24631.24	3.6600	3.6600	-0.9903	26.04	0.20	-1.500			
0.3878	24821.77	3.6570	3.6570	-1.0074	26.04	0.20	-1.500			
0.3909	25017.43	3.6540	3.6540	-1.0251	26.04	0.20	-1.500			
0.3940	25216.37	3.6510	3.6511	-1.0443	26.04	0.20	-1.500			
0.3972	25417.90	3.6480	3.6480	-1.0630	26.05	0.21	-1.500			
0.4004	25623.68	3.6450	3.6450	-1.0841	26.05	0.21	-1.500			
0.4036	25832.70	3.6420	3.6420	-1.1056	26.05	0.21	-1.500			
0.4070	26047.66	3.6390	3.6389	-1.1233	26.05	0.21	-1.500			
0.4104	26265.89	3.6360	3.6361	-1.1456	26.05	0.21	-1.500			
0.4139	26487.72	3.6330	3.6330	-1.1707	26.05	0.21	-1.500			
0.4174	26714.86	3.6300	3.6300	-1.1895	26.05	0.21	-1.500			
0.4210	26942.72	3.6270	3.6270	-1.2155	26.05	0.21	-1.500			
0.4247	27178.60	3.6240	3.6241	-1.2448	26.06	0.22	-1.500			
0.4284	27420.78	3.6210	3.6210	-1.2734	26.06	0.22	-1.500			
0.4324	27671.25	3.6180	3.6179	-1.2942	26.06	0.22	-1.500			
0.4363	27921.61	3.6150	3.6150	-1.3107	26.06	0.22	-1.500			
0.4402	28173.81	3.6120	3.6121	-1.3345	26.06	0.22	-1.500			
0.4442	28431.14	3.6090	3.6090	-1.3678	26.07	0.23	-1.500			
0.4483	28693.60	3.6060	3.6059	-1.3874	26.07	0.23	-1.500			
0.4526	28964.09	3.6030	3.6029	-1.4191	26.07	0.23	-1.500			
0.4569	29240.20	3.6000	3.6000	-1.4512	26.08	0.24	-1.500			
0.4613	29524.14	3.5970	3.5970	-1.4783	26.08	0.24	-1.500			
0.4658	29810.45	3.5940	3.5940	-1.5024	26.08	0.24	-1.500			
0.4703	30099.47	3.5910	3.5910	-1.5285	26.08	0.24	-1.500			
0.4749	30393.33	3.5880	3.5880	-1.5494	26.08	0.24	-1.500			
0.4796	30696.47	3.5850	3.5849	-1.5772	26.08	0.24	-1.500			
0.4844	31002.85	3.5820	3.5821	-1.5946	26.08	0.24	-1.500			
0.4892	31310.11	3.5790	3.5790	-1.6141	26.08	0.24	-1.500			
0.4941	31622.63	3.5760	3.5760	-1.6428	26.08	0.24	-1.500			
0.4990	31938.42	3.5730	3.5729	-1.6669	26.09	0.25	-1.500			
0.5040	32258.80	3.5700	3.5700	-1.6877	26.09	0.25	-1.500			
0.5092	32585.98	3.5670	3.5671	-1.7173	26.09	0.25	-1.500			
0.5144	32920.27	3.5640	3.5640	-1.7442	26.09	0.25	-1.500			
0.5196	33257.17	3.5610	3.5610	-1.7708	26.09	0.25	-1.500			
0.5250	33600.55	3.5580	3.5580	-1.7802	26.10	0.26	-1.500			
0.5304	33945.24	3.5550	3.5549	-1.7938	26.10	0.26	-1.500			
0.5358	34289.20	3.5520	3.5522	-1.8159	26.10	0.26	-1.500			
0.5413	34640.31	3.5490	3.5491	-1.8343	26.10	0.26	-1.500			
0.5468	34997.93	3.5460	3.5458	-1.8497	26.11	0.27	-1.500			
0.5524	35352.88	3.5430	3.5430	-1.8492	26.11	0.27	-1.500			
0.5580	35712.18	3.5400	3.5400	-1.8624	26.11	0.27	-1.500			
0.5636	36070.59	3.5370	3.5371	-1.8705	26.11	0.27	-1.500	0.393	0.513	
0.5692	36427.07	3.5340	3.5339	-1.8593	26.12	0.28	-1.500			
0.5747	36779.05	3.5310	3.5310	-1.8498	26.12	0.28	-1.500			
0.5802	37134.33	3.5280	3.5280	-1.8457	26.13	0.29	-1.500			
0.5859	37494.44	3.5250	3.5251	-1.8577	26.13	0.29	-1.500			
0.5914	37848.02	3.5220	3.5220	-1.8581	26.14	0.30	-1.500			
0.5970	38205.33	3.5190	3.5190	-1.8471	26.15	0.31	-1.500			
0.6025	38561.97	3.5160	3.5160	-1.8330	26.16	0.32	-1.500			
0.6081	38915.25	3.5130	3.5131	-1.8320	26.17	0.33	-1.500			
0.6135	39264.81	3.5100	3.5100	-1.8170	26.18	0.34	-1.500			
0.6189	39611.00	3.5070	3.5070	-1.8207	26.19	0.35	-1.500			
0.6243	39956.94	3.5040	3.5039	-1.8197	26.20	0.36	-1.500			
0.6298	40305.56	3.5010	3.5010	-1.8143	26.21	0.37	-1.500			
0.6353	40656.97	3.4980	3.4981	-1.8108	26.22	0.38	-1.500			
0.6407	41005.75	3.4950	3.4951	-1.8033	26.24	0.40	-1.500			
0.6461	41348.07	3.4920	3.4920	-1.7847	26.25	0.41	-1.500			
0.6514	41688.89	3.4890	3.4890	-1.7765	26.26	0.42	-1.500			
0.6567	42026.41	3.4860	3.4859	-1.7647	26.27	0.43	-1.500			
0.6620	42365.54	3.4830	3.4830	-1.7510	26.29	0.45	-1.500			
0.6672	42702.53	3.4800	3.4800	-1.7407	26.30	0.46	-1.500			
0.6724	43036.79	3.4770	3.4770	-1.7340	26.31	0.47	-1.500			
0.6776	43368.23	3.4740	3.4739	-1.7045	26.32	0.48	-1.500			
0.6827	43695.76	3.4710	3.4709	-1.6844	26.34	0.50	-1.500			
0.6878	44017.36	3.4680	3.4679	-1.6600	26.35	0.51	-1.500			
0.6927	44333.40	3.4650	3.4650	-1.6438	26.37	0.53	-1.500			
0.6976	44644.34	3.4620	3.4620	-1.6185	26.38	0.54	-1.500			
0.7023	44950.04	3.4590	3.4590	-1.6006	26.40	0.56	-1.500			
0.7071	45257.57	3.4560	3.4560	-1.5800	26.41	0.57	-1.500			
0.7119	45562.20	3.4530	3.4529	-1.5670	26.43	0.59	-1.500			
0.7166	45862.38	3.4500	3.4500	-1.5484	26.45	0.61	-1.500			
0.7212	46158.63	3.4470	3.4468	-1.5190	26.46	0.62	-1.500			
0.7257	46444.30	3.4440	3.4441	-1.4965	26.48	0.64	-1.500			
0.7302	46730.30	3.4410	3.4410	-1.4876	26.50	0.66	-1.500			
0.7346	47011.70	3.4380	3.4380	-1.4728	26.51	0.67	-1.500			
0.7390	47294.42	3.4350	3.4350	-1.4676	26.53	0.69	-1.500			
0.7433	47573.06	3.4320	3.4320	-1.4600	26.54	0.70	-1.500			
0.7477	47854.37	3.4290	3.4290	-1.4504	26.55	0.71	-1.500			
0.7521	48135.29	3.4260	3.4260	-1.4442	26.57	0.73	-1.500			
0.7564	48410.04	3.4230	3.4230	-1.4233	26.58	0.74	-1.500			
0.7607	48682.41	3.4200	3.4200	-1.4077	26.60	0.76	-1.500			
0.7649	48950.88	3.4170	3.4171	-1.3981	26.62	0.78	-1.500			
0.7690	49218.77	3.4140	3.4140	-1.3761	26.64	0.80	-1.500			
0.7732	49483.34	3.4110	3.4109	-1.3527	26.66	0.82	-1.500			
0.7772	49743.21	3.4080	3.4080	-1.3239	26.68	0.84	-1.500			
0.7812	49996.52	3.4050	3.4050	-1.2856	26.70	0.86	-1.500			
0.7850	50239.25	3.4020	3.4020	-1.2414	26.72	0.88	-1.500			
0.7886	50472.35	3.3990	3.3991	-1.1931	26.74	0.90	-1.500			
0.7921	50694.95	3.3960	3.3960	-1.1453	26.76	0.92	-1.500			
0.7955	50912.64	3.3930	3.3929	-1.1060	26.78	0.94	-1.500			
0.7988	51120.20	3.3900	3.3900	-1.0615	26.79	0.95	-1.500			
0.8019	51319.20	3.3870	3.3870	-1.0152	26.81	0.97	-1.500			
0.8049	51511.44	3.3840	3.3841	-0.9770	26.82	0.98	-1.500			
0.8077	51693.09	3.3810	3.3809	-0.9376	26.83	0.99	-1.500			
0.8104	51867.71	3.3780	3.3779	-0.9000	26.85	1.01	-1.500			
0.8131	52036.68	3.3750	3.3750	-0.8658	26.86	1.02	-1.500			
0.8156	52200.11	3.3720	3.3720	-0.8331	26.87	1.03	-1.500			
0.8181	52356.19	3.3690	3.3691	-0.8026	26.88	1.04	-1.500			
0.8205	52509.00	3.3660	3.3659	-0.7749	26.90	1.06	-1.500			
0.8227	52652.92	3.3630	3.3630	-0.7466	26.91	1.07	-1.500			
0.8249	52793.74	3.3600	3.3600	-0.7200	26.92	1.08	-1.500			
0.8270	52929.08	3.3570	3.3570	-0.6949	26.93	1.09	-1.500			
0.8291	53060.38	3.3540	3.3541	-0.6700	26.94	1.10	-1.500			
0.8310	53186.07	3.3510	3.3510	-0.6474	26.95	1.11	-1.500			
0.8329	53306.67	3.3480	3.3480	-0.6255	26.95	1.11	-1.500			
0.8348	53424.63	3.3450	3.3450	-0.6052	26.96	1.12	-1.500			
0.8365	53537.62	3.3420	3.3420	-0.5889	26.97	1.13	-1.500			
0.8383	53649.36	3.3390	3.3390	-0.5748	26.98	1.14	-1.500			
0.8400	53759.12	3.3360	3.3361	-0.5587	26.99	1.15	-1.500			
0.8417	53865.63	3.3330	3.3329	-0.5418	26.99	1.15	-1.500			
0.8432	53967.58	3.3300	3.3301	-0.5237	27.00	1.16	-1.500			
0.8448	54066.83	3.3270	3.3270	-0.5070	27.01	1.17	-1.500			
0.8463	54161.53	3.3240	3.3240	-0.4917	27.01	1.17	-1.500			
0.8477	54253.55	3.3210	3.3210	-0.4746	27.02	1.18	-1.500			
0.8491	54343.21	3.3180	3.3179	-0.4600	27.03	1.19	-1.500			
0.8505	54430.51	3.3150	3.3150	-0.4470	27.03	1.19	-1.500			
0.8518	54514.94	3.3120	3.3121	-0.4341	27.04	1.20	-1.500			
0.8531	54596.77	3.3090	3.3090	-0.4205	27.04	1.20	-1.500			
0.8543	54676.25	3.3060	3.3059	-0.4085	27.05	1.21	-1.500			
0.8555	54753.55	3.3030	3.3030	-0.3957	27.05	1.21	-1.500			
0.8567	54828.18	3.3000	3.3000	-0.3858	27.06	1.22	-1.500			
0.8578	54901.27	3.2970	3.2969	-0.3741	27.06	1.22	-1.500			
0.8589	54971.86	3.2940	3.2941	-0.3631	27.07	1.23	-1.500			
0.8600	55040.23	3.2910	3.2909	-0.3526	27.08	1.24	-1.500			
0.8610	55106.89	3.2880	3.2880	-0.3432	27.08	1.24	-1.500			
0.8621	55171.76	3.2850	3.2850	-0.3336	27.09	1.25	-1.500			
0.8631	55235.25	3.2820	3.2820	-0.3245	27.10	1.26	-1.500			
0.8640	55297.03	3.2790	3.2790	-0.3143	27.10	1.26	-1.500			
0.8649	55356.68	3.2760	3.2761	-0.3066	27.11	1.27	-1.500			
0.8658	55414.04	3.2730	3.2730	-0.2974	27.11	1.27	-1.500			
0.8667	55470.19	3.2700	3.2700	-0.2899	27.12	1.28	-1.500			
0.8676	55524.82	3.2670	3.2669	-0.2814	27.12	1.28	-1.500			
0.8684	55578.09	3.2640	3.2640	-0.2742	27.13	1.29	-1.500			
0.8692	55630.55	3.2610	3.2610	-0.2684	27.14	1.30	-1.500			
0.8700	55681.06	3.2580	3.2580	-0.2625	27.14	1.30	-1.500			
0.8708	55730.22	3.2550	3.2549	-0.2559	27.15	1.31	-1.500			
0.8715	55779.20	3.2520	3.2520	-0.2510	27.15	1.31	-1.500			
0.8723	55826.73	3.2490	3.2490	-0.2459	27.16	1.32	-1.500			
0.8730	55874.24	3.2460	3.2460	-0.2407	27.16	1.32	-1.500			
0.8737	55919.65	3.2430	3.2430	-0.2350	27.16	1.32	-1.500			
0.8744	55963.56	3.2400	3.2400	-0.2297	27.17	1.33	-1.500			
0.8751	56007.21	3.2370	3.2369	-0.2250	27.17	1.33	-1.500			
0.8758	56049.44	3.2340	3.2339	-0.2202	27.18	1.34	-1.500			
0.8764	56091.34	3.2310	3.2310	-0.2157	27.18	1.34	-1.500			
0.8771	56132.32	3.2280	3.2281	-0.2128	27.19	1.35	-1.500			
0.8777	56172.86	3.2250	3.2250	-0.2094	27.19	1.35	-1.500			
0.8783	56212.96	3.2220	3.2219	-0.2059	27.19	1.35	-1.500			
0.8789	56251.90	3.2190	3.2189	-0.2020	27.20	1.36	-1.500			
0.8795	56290.17	3.2160	3.2160	-0.1981	27.20	1.36	-1.500			
0.8801	56327.91	3.2130	3.2132	-0.1951	27.20	1.36	-1.500			
0.8807	56365.13	3.2100	3.2099	-0.1931	27.21	1.37	-1.500			
0.8813	56402.16	3.2070	3.2070	-0.1899	27.21	1.37	-1.500			
0.8818	56437.91	3.2040	3.2040	-0.1864	27.22	1.38	-1.500			
0.8824	56473.48	3.2010	3.2010	-0.1841	27.22	1.38	-1.500			
0.8829	56508.68	3.1980	3.1981	-0.1821	27.22	1.38	-1.500			
0.8835	56543.38	3.1950	3.1949	-0.1796	27.23	1.39	-1.500			
0.8840	56577.73	3.1920	3.1920	-0.1771	27.23	1.39	-1.500			
0.8846	56611.49	3.1890	3.1889	-0.1745	27.23	1.39	-1.500			
0.8851	56644.56	3.1860	3.1860	-0.1720	27.24	1.40	-1.500			
0.8856	56677.60	3.1830	3.1830	-0.1704	27.24	1.40	-1.500			
0.8861	56709.85	3.1800	3.1799	-0.1677	27.25	1.41	-1.500			
0.8866	56741.85	3.1770	3.1770	-0.1657	27.25	1.41	-1.500			
0.8871	56773.41	3.1740	3.1740	-0.1633	27.26	1.42	-1.500			
0.8876	56804.48	3.1710	3.1709	-0.1617	27.26	1.42	-1.500			
0.8880	56835.16	3.1680	3.1681	-0.1605	27.27	1.43	-1.500			
0.8885	56865.86	3.1650	3.1651	-0.1593	27.27	1.43	-1.500			
0.8890	56896.13	3.1620	3.1619	-0.1581	27.28	1.44	-1.500			
0.8895	56926.66	3.1590	3.1590	-0.1563	27.28	1.44	-1.500			
0.8899	56956.61	3.1560	3.1561	-0.1552	27.29	1.45	-1.500			
0.8904	56986.25	3.1530	3.1530	-0.1535	27.29	1.45	-1.500			
0.8909	57015.76	3.1500	3.1501	-0.1522	27.30	1.46	-1.500			
0.8913	57044.38	3.1470	3.1469	-0.1509	27.30	1.46	-1.500			
0.8918	57073.22	3.1440	3.1439	-0.1490	27.31	1.47	-1.500			
0.8922	57101.76	3.1410	3.1411	-0.1483	27.31	1.47	-1.500			
0.8927	57130.36	3.1380	3.1379	-0.1467	27.31	1.47	-1.500			
0.8931	57158.89	3.1350	3.1350	-0.1458	27.32	1.48	-1.500			
0.8935	57186.41	3.1320	3.1321	-0.1446	27.32	1.48	-1.500			
0.8940	57213.98	3.1290	3.1290	-0.1434	27.33	1.49	-1.500			
0.8944	57241.37	3.1260	3.1260	-0.1420	27.33	1.49	-1.500			
0.8948	57268.19	3.1230	3.1230	-0.1404	27.34	1.50	-1.500			
0.8952	57295.09	3.1200	3.1201	-0.1401	27.34	1.50	-1.500			
0.8957	57322.17	3.1170	3.1170	-0.1393	27.35	1.51	-1.500			
0.8961	57348.86	3.1140	3.1140	-0.1388	27.35	1.51	-1.500			
0.8965	57375.42	3.1110	3.1110	-0.1378	27.36	1.52	-1.500			
0.8969	57401.54	3.1080	3.1081	-0.1367	27.36	1.52	-1.500			
0.8973	57427.90	3.1050	3.1050	-0.1358	27.37	1.53	-1.500			
0.8977	57453.95	3.1020	3.1020	-0.1351	27.37	1.53	-1.500			
0.8981	57479.77	3.0990	3.0990	-0.1339	27.38	1.54	-1.500			
0.8985	57505.23	3.0960	3.0960	-0.1330	27.38	1.54	-1.500			
0.8989	57530.72	3.0930	3.0930	-0.1325	27.38	1.54	-1.500			
0.8993	57555.95	3.0900	3.0899	-0.1313	27.39	1.55	-1.500			
0.8997	57581.12	3.0870	3.0870	-0.1308	27.39	1.55	-1.500			
0.9001	57606.23	3.0840	3.0840	-0.1300	27.40	1.56	-1.500			
0.9005	57631.23	3.0810	3.0810	-0.1294	27.40	1.56	-1.500			
0.9009	57655.98	3.0780	3.0781	-0.1285	27.41	1.57	-1.500			
0.9013	57680.49	3.0750	3.0750	-0.1279	27.41	1.57	-1.500			
0.9016	57704.91	3.0720	3.0720	-0.1272	27.42	1.58	-1.500			
0.9020	57729.29	3.0690	3.0691	-0.1261	27.42	1.58	-1.500			
0.9024	57753.47	3.0660	3.0659	-0.1254	27.42	1.58	-1.500			
0.9028	57777.47	3.0630	3.0630	-0.1246	27.43	1.59	-1.500			
0.9031	57801.28	3.0600	3.0601	-0.1241	27.43	1.59	-1.500			
0.9035	57824.97	3.0570	3.0570	-0.1233	27.44	1.60	-1.500			
0.9039	57848.61	3.0540	3.0540	-0.1226	27.44	1.60	-1.500			
0.9043	57872.01	3.0510	3.0510	-0.1217	27.45	1.61	-1.500			
0.9046	57895.32	3.0480	3.0479	-0.1211	27.45	1.61	-1.500			
0.9050	57918.73	3.0450	3.0451	-0.1206	27.46	1.62	-1.500			
0.9053	57941.80	3.0420	3.0419	-0.1197	27.46	1.62	-1.500			
0.9057	57964.53	3.0390	3.0390	-0.1192	27.47	1.63	-1.500			
0.9061	57987.21	3.0360	3.0360	-0.1184	27.47	1.63	-1.500			
0.9064	58009.89	3.0330	3.0330	-0.1181	27.47	1.63	-1.500			
0.9068	58032.49	3.0300	3.0300	-0.1178	27.48	1.64	-1.500			
0.9071	58055.25	3.0270	3.0270	-0.1171	27.48	1.64	-1.500			
0.9075	58077.75	3.0240	3.0240	-0.1167	27.49	1.65	-1.500			
0.9078	58100.08	3.0210	3.0210	-0.1161	27.49	1.65	-1.500			
0.9082	58122.54	3.0180	3.0180	-0.1156	27.50	1.66	-1.500			
0.9085	58144.56	3.0150	3.0150	-0.1152	27.50	1.66	-1.500			
0.9089	58166.46	3.0120	3.0120	-0.1144	27.51	1.67	-1.500			
0.9092	58188.39	3.0090	3.0090	-0.1140	27.51	1.67	-1.500			
0.9095	58210.10	3.0060	3.0060	-0.1144	27.51	1.67	-1.500			
0.9099	58232.10	3.0030	3.0030	-0.1147	27.52	1.68	-1.499			
