Ah_balance (normalized)	Ah_balance (mAh)	Voltage - fit (V)	Voltage -  interpolate (V)	dQ/dV (1/V)	Temperature (°C)	Temperature - diff (°C)	Current (C)	R_DC 0ms (mOhm)	R_DC 50ms (mOhm)	R_DC 50 ms PEC (mOhm)
0.2979	19067.27	3.9730	3.9728	0.8629	27.01	1.02	1.500			
0.3005	19232.68	3.9700	3.9701	0.8650	27.01	1.02	1.500			
0.3031	19400.25	3.9670	3.9670	0.8705	27.00	1.01	1.500			
0.3057	19567.30	3.9640	3.9639	0.8737	27.00	1.01	1.500			
0.3084	19735.38	3.9610	3.9610	0.8784	26.99	1.00	1.500			
0.3110	19904.59	3.9580	3.9580	0.8816	26.99	1.00	1.500			
0.3137	20074.87	3.9550	3.9549	0.8858	26.99	1.00	1.500			
0.3163	20244.43	3.9520	3.9520	0.8854	26.98	0.99	1.500			
0.3190	20414.80	3.9490	3.9491	0.8902	26.98	0.99	1.500			
0.3217	20586.23	3.9460	3.9459	0.8972	26.97	0.98	1.500			
0.3244	20758.68	3.9430	3.9430	0.9014	26.97	0.98	1.500			
0.3270	20931.03	3.9400	3.9400	0.9070	26.96	0.97	1.500			
0.3298	21107.22	3.9370	3.9369	0.9114	26.96	0.97	1.500			
0.3326	21284.23	3.9340	3.9340	0.9140	26.95	0.96	1.500			
0.3353	21459.70	3.9310	3.9309	0.9190	26.95	0.96	1.500			
0.3381	21635.66	3.9280	3.9281	0.9198	26.95	0.96	1.500			
0.3408	21812.28	3.9250	3.9249	0.9210	26.94	0.95	1.500			
0.3436	21989.18	3.9220	3.9220	0.9258	26.94	0.95	1.500			
0.3463	22165.83	3.9190	3.9190	0.9356	26.93	0.94	1.500			
0.3492	22347.91	3.9160	3.9160	0.9439	26.93	0.94	1.500			
0.3520	22530.39	3.9130	3.9129	0.9522	26.92	0.93	1.500			
0.3549	22712.73	3.9100	3.9101	0.9598	26.92	0.93	1.500			
0.3578	22899.24	3.9070	3.9071	0.9672	26.91	0.92	1.500			
0.3607	23085.55	3.9040	3.9039	0.9734	26.90	0.91	1.500			
0.3636	23272.49	3.9010	3.9010	0.9803	26.90	0.91	1.500			
0.3666	23460.29	3.8980	3.8980	0.9886	26.89	0.90	1.500			
0.3696	23652.90	3.8950	3.8950	0.9997	26.89	0.90	1.500			
0.3726	23844.97	3.8920	3.8919	1.0042	26.88	0.89	1.500			
0.3756	24036.98	3.8890	3.8890	1.0155	26.88	0.89	1.500			
0.3787	24234.29	3.8860	3.8860	1.0259	26.87	0.88	1.500			
0.3817	24431.89	3.8830	3.8830	1.0336	26.86	0.87	1.500			
0.3849	24630.79	3.8800	3.8800	1.0433	26.86	0.87	1.500			
0.3880	24832.26	3.8770	3.8771	1.0516	26.85	0.86	1.500			
0.3912	25034.97	3.8740	3.8740	1.0652	26.84	0.85	1.500			
0.3944	25239.58	3.8710	3.8710	1.0789	26.84	0.85	1.500			
0.3976	25447.17	3.8680	3.8679	1.0914	26.83	0.84	1.500			
0.4009	25658.80	3.8650	3.8650	1.1094	26.82	0.83	1.500			
0.4043	25873.71	3.8620	3.8620	1.1210	26.82	0.83	1.500			
0.4077	26090.57	3.8590	3.8590	1.1387	26.81	0.82	1.500			
0.4111	26311.82	3.8560	3.8560	1.1504	26.80	0.81	1.500			
0.4146	26532.02	3.8530	3.8530	1.1605	26.80	0.81	1.500			
0.4180	26755.09	3.8500	3.8501	1.1790	26.79	0.80	1.500			
0.4216	26982.84	3.8470	3.8470	1.1967	26.78	0.79	1.500			
0.4252	27213.17	3.8440	3.8440	1.2186	26.77	0.78	1.500			
0.4289	27448.04	3.8410	3.8410	1.2456	26.76	0.77	1.500			
0.4327	27690.52	3.8380	3.8380	1.2634	26.75	0.76	1.500			
0.4365	27938.23	3.8350	3.8350	1.2891	26.74	0.75	1.500			
0.4404	28186.36	3.8320	3.8320	1.3139	26.73	0.74	1.500			
0.4444	28441.24	3.8290	3.8291	1.3347	26.72	0.73	1.500			
0.4484	28699.17	3.8260	3.8259	1.3592	26.71	0.72	1.500			
0.4525	28961.19	3.8230	3.8231	1.3837	26.70	0.71	1.500			
0.4567	29228.01	3.8200	3.8200	1.4094	26.69	0.70	1.500			
0.4610	29502.14	3.8170	3.8170	1.4480	26.67	0.68	1.500			
0.4653	29781.06	3.8140	3.8140	1.4834	26.66	0.67	1.500			
0.4698	30069.16	3.8110	3.8110	1.5192	26.65	0.66	1.500			
0.4745	30366.35	3.8080	3.8080	1.5600	26.64	0.65	1.500			
0.4792	30668.97	3.8050	3.8050	1.5999	26.63	0.64	1.500			
0.4841	30980.63	3.8020	3.8021	1.6330	26.61	0.62	1.500			
0.4890	31297.66	3.7990	3.7990	1.6724	26.60	0.61	1.500			
0.4940	31618.61	3.7960	3.7961	1.7254	26.59	0.60	1.500			
0.4993	31953.88	3.7930	3.7929	1.7768	26.58	0.59	1.500			
0.5047	32302.05	3.7900	3.7900	1.8319	26.56	0.57	1.500			
0.5103	32660.60	3.7870	3.7870	1.8726	26.54	0.55	1.500			
0.5160	33026.74	3.7840	3.7840	1.9110	26.52	0.53	1.500			
0.5218	33393.02	3.7810	3.7810	1.9382	26.50	0.51	1.500			
0.5277	33770.01	3.7780	3.7780	1.9778	26.49	0.50	1.500			
0.5337	34155.46	3.7750	3.7750	1.9895	26.47	0.48	1.500			
0.5396	34535.84	3.7720	3.7721	2.0496	26.45	0.46	1.500			
0.5458	34931.32	3.7690	3.7690	2.1023	26.43	0.44	1.500			
0.5522	35339.78	3.7660	3.7660	2.1419	26.41	0.42	1.500			
0.5587	35757.60	3.7630	3.7630	2.1043	26.39	0.40	1.500	0.363	0.464	
0.5651	36167.22	3.7600	3.7600	2.1000	26.37	0.38	1.500			
0.5713	36565.03	3.7570	3.7569	2.0745	26.35	0.36	1.500			
0.5775	36957.93	3.7540	3.7540	2.0480	26.34	0.35	1.500			
0.5836	37352.18	3.7510	3.7511	2.0345	26.32	0.33	1.500			
0.5897	37741.06	3.7480	3.7480	2.0105	26.30	0.31	1.500			
0.5957	38126.80	3.7450	3.7450	1.9938	26.29	0.30	1.500			
0.6017	38506.98	3.7420	3.7420	1.9938	26.27	0.28	1.500			
0.6077	38890.01	3.7390	3.7390	2.0020	26.26	0.27	1.500			
0.6137	39274.88	3.7360	3.7360	2.0267	26.24	0.25	1.500			
0.6197	39661.71	3.7330	3.7330	2.0522	26.23	0.24	1.500			
0.6260	40064.24	3.7300	3.7301	2.0832	26.21	0.22	1.500			
0.6323	40465.99	3.7270	3.7270	2.0828	26.20	0.21	1.500			
0.6385	40862.70	3.7240	3.7240	2.1450	26.18	0.19	1.500			
0.6449	41276.09	3.7210	3.7210	2.2131	26.17	0.18	1.500			
0.6517	41710.23	3.7180	3.7181	2.2938	26.15	0.16	1.500			
0.6587	42157.47	3.7150	3.7150	2.3642	26.14	0.15	1.500			
0.6660	42621.08	3.7120	3.7120	2.4450	26.13	0.14	1.500			
0.6732	43085.58	3.7090	3.7088	2.5656	26.12	0.13	1.500			
0.6812	43598.47	3.7060	3.7060	2.5919	26.10	0.11	1.500			
0.6893	44113.45	3.7030	3.7031	2.6821	26.08	0.09	1.500			
0.6971	44617.59	3.7000	3.6998	2.6602	26.06	0.07	1.500			
0.7051	45128.63	3.6970	3.6971	2.6099	26.05	0.06	1.500			
0.7133	45650.12	3.6940	3.6940	2.5946	26.05	0.06	1.500			
0.7208	46128.16	3.6910	3.6909	2.4026	26.04	0.05	1.500			
0.7277	46570.82	3.6880	3.6880	2.2120	26.03	0.04	1.500			
0.7340	46974.20	3.6850	3.6851	2.0225	26.03	0.04	1.500			
0.7396	47334.81	3.6820	3.6820	1.8362	26.02	0.03	1.500			
0.7448	47667.55	3.6790	3.6791	1.7003	26.01	0.02	1.500			
0.7497	47980.79	3.6760	3.6759	1.6023	26.01	0.02	1.500			
0.7542	48270.91	3.6730	3.6730	1.5054	26.00	0.01	1.500			
0.7586	48552.84	3.6700	3.6700	1.4335	26.00	0.01	1.500			
0.7628	48817.84	3.6670	3.6670	1.3724	25.99	0.00	1.500			
0.7668	49072.31	3.6640	3.6640	1.3232	25.99	-0.00	1.500			
0.7706	49317.86	3.6610	3.6610	1.2872	25.98	-0.01	1.500			
0.7743	49556.19	3.6580	3.6579	1.2559	25.98	-0.01	1.500			
0.7780	49793.29	3.6550	3.6550	1.2537	25.98	-0.01	1.500			
0.7817	50028.81	3.6520	3.6521	1.2544	25.97	-0.02	1.500			
0.7855	50271.41	3.6490	3.6490	1.2606	25.97	-0.02	1.500			
0.7893	50513.45	3.6460	3.6460	1.2734	25.97	-0.02	1.500			
0.7931	50758.74	3.6430	3.6430	1.2854	25.96	-0.03	1.500			
0.7970	51008.86	3.6400	3.6400	1.3013	25.96	-0.03	1.500			
0.8009	51260.25	3.6370	3.6370	1.3117	25.96	-0.03	1.500			
0.8049	51513.68	3.6340	3.6339	1.3138	25.95	-0.04	1.500			
0.8089	51769.05	3.6310	3.6310	1.3128	25.95	-0.04	1.500			
0.8128	52020.67	3.6280	3.6280	1.3143	25.94	-0.05	1.500			
0.8168	52272.47	3.6250	3.6250	1.3059	25.94	-0.05	1.500			
0.8207	52524.40	3.6220	3.6220	1.2999	25.93	-0.06	1.500			
0.8246	52772.57	3.6190	3.6190	1.2918	25.93	-0.06	1.500			
0.8284	53019.78	3.6160	3.6161	1.2845	25.93	-0.06	1.500			
0.8323	53265.96	3.6130	3.6130	1.2807	25.93	-0.06	1.500			
0.8361	53511.90	3.6100	3.6100	1.2684	25.92	-0.07	1.500			
0.8399	53753.27	3.6070	3.6070	1.2530	25.92	-0.07	1.500			
0.8437	53994.12	3.6040	3.6040	1.2505	25.92	-0.07	1.500			
0.8474	54233.54	3.6010	3.6009	1.2352	25.92	-0.07	1.500			
0.8511	54469.25	3.5980	3.5980	1.2205	25.92	-0.07	1.500			
0.8547	54702.89	3.5950	3.5950	1.2061	25.92	-0.07	1.500			
0.8583	54933.24	3.5920	3.5920	1.1923	25.92	-0.07	1.500			
0.8619	55160.66	3.5890	3.5890	1.1761	25.92	-0.07	1.500			
0.8654	55384.27	3.5860	3.5860	1.1704	25.92	-0.07	1.500			
0.8688	55604.99	3.5830	3.5830	1.1608	25.92	-0.07	1.500			
0.8724	55830.52	3.5800	3.5799	1.1505	25.92	-0.07	1.500			
0.8758	56053.13	3.5770	3.5769	1.1283	25.93	-0.06	1.500			
0.8793	56275.10	3.5740	3.5740	1.0653	25.94	-0.05	1.500			
0.8826	56487.23	3.5710	3.5710	0.9867	25.95	-0.04	1.500			
0.8855	56672.89	3.5680	3.5681	0.8630	25.95	-0.04	1.500			
0.8879	56827.98	3.5650	3.5651	0.7301	25.96	-0.03	1.500			
0.8898	56949.62	3.5620	3.5620	0.6071	25.97	-0.02	1.500			
0.8914	57047.89	3.5590	3.5589	0.4975	25.97	-0.02	1.500			
0.8926	57123.21	3.5560	3.5560	0.3996	25.97	-0.02	1.500			
0.8936	57187.26	3.5530	3.5529	0.3370	25.98	-0.01	1.500			
0.8944	57242.34	3.5500	3.5498	0.2816	25.98	-0.01	1.500			
0.8952	57289.83	3.5470	3.5469	0.2475	25.98	-0.01	1.500			
0.8958	57331.12	3.5440	3.5440	0.2180	25.98	-0.01	1.500			
0.8964	57369.59	3.5410	3.5411	0.1971	25.99	-0.00	1.500			
0.8969	57404.76	3.5380	3.5380	0.1764	25.99	-0.00	1.500			
0.8974	57435.65	3.5350	3.5350	0.1593	25.99	-0.00	1.500			
0.8979	57464.52	3.5320	3.5320	0.1438	25.99	-0.00	1.500			
0.8983	57490.27	3.5290	3.5290	0.1287	25.99	0.00	1.500			
0.8987	57513.66	3.5260	3.5261	0.1150	25.99	0.00	1.500			
0.8990	57534.34	3.5230	3.5231	0.1013	25.99	0.00	1.500			
0.8993	57552.73	3.5200	3.5201	0.0879	25.99	0.00	1.500			
0.8995	57568.26	3.5170	3.5171	0.0740	25.99	0.00	1.500			
0.8997	57581.27	3.5140	3.5144	0.0595	25.99	0.00	1.500			
0.8999	57591.31	3.5110	3.5114	0.0451	26.00	0.01	1.500			
