Ah_balance (normalized)	Ah_balance (mAh)	Voltage - fit (V)	Voltage -  interpolate (V)	dQ/dV (1/V)	Temperature (°C)	Temperature - diff (°C)	Current (C)	R_DC 0ms (mOhm)	R_DC 50ms (mOhm)	R_DC 50 ms PEC (mOhm)
0.2709	17335.88	3.9910	3.9910	0.8275	27.36	1.39	1.500			
0.2734	17495.98	3.9880	3.9881	0.8378	27.35	1.38	1.500			
0.2759	17658.14	3.9850	3.9850	0.8449	27.35	1.38	1.500			
0.2785	17821.23	3.9820	3.9819	0.8478	27.34	1.37	1.500			
0.2810	17984.16	3.9790	3.9791	0.8506	27.34	1.37	1.500			
0.2836	18149.28	3.9760	3.9760	0.8532	27.33	1.36	1.500			
0.2861	18312.58	3.9730	3.9730	0.8549	27.33	1.36	1.500			
0.2887	18475.59	3.9700	3.9700	0.8578	27.32	1.35	1.500			
0.2913	18640.31	3.9670	3.9670	0.8601	27.32	1.35	1.500			
0.2938	18804.82	3.9640	3.9640	0.8677	27.31	1.34	1.500			
0.2965	18973.28	3.9610	3.9610	0.8728	27.31	1.34	1.500			
0.2991	19141.90	3.9580	3.9580	0.8745	27.30	1.33	1.500			
0.3017	19311.07	3.9550	3.9549	0.8792	27.30	1.33	1.500			
0.3044	19479.01	3.9520	3.9521	0.8789	27.29	1.32	1.500			
0.3070	19647.28	3.9490	3.9490	0.8791	27.29	1.32	1.500			
0.3096	19815.97	3.9460	3.9459	0.8861	27.28	1.31	1.500			
0.3123	19985.06	3.9430	3.9431	0.8880	27.28	1.31	1.500			
0.3150	20158.19	3.9400	3.9400	0.8939	27.27	1.30	1.500			
0.3177	20329.63	3.9370	3.9370	0.9056	27.26	1.29	1.500			
0.3204	20504.64	3.9340	3.9340	0.9111	27.26	1.29	1.500			
0.3231	20680.28	3.9310	3.9309	0.9147	27.25	1.28	1.500			
0.3259	20856.63	3.9280	3.9281	0.9228	27.25	1.28	1.500			
0.3287	21034.27	3.9250	3.9251	0.9273	27.24	1.27	1.500			
0.3315	21214.12	3.9220	3.9219	0.9329	27.23	1.26	1.500			
0.3343	21393.75	3.9190	3.9189	0.9354	27.22	1.25	1.500			
0.3371	21571.79	3.9160	3.9161	0.9343	27.21	1.24	1.500			
0.3399	21752.63	3.9130	3.9131	0.9404	27.20	1.23	1.500			
0.3427	21933.67	3.9100	3.9100	0.9483	27.19	1.22	1.500			
0.3455	22114.35	3.9070	3.9070	0.9569	27.18	1.21	1.500			
0.3484	22298.29	3.9040	3.9040	0.9672	27.17	1.20	1.500			
0.3513	22485.79	3.9010	3.9010	0.9766	27.17	1.20	1.500			
0.3543	22675.57	3.8980	3.8980	0.9873	27.16	1.19	1.500			
0.3573	22866.35	3.8950	3.8950	0.9967	27.15	1.18	1.500			
0.3603	23058.16	3.8920	3.8921	1.0070	27.15	1.18	1.500			
0.3633	23252.41	3.8890	3.8889	1.0123	27.14	1.17	1.500			
0.3664	23447.34	3.8860	3.8860	1.0222	27.13	1.16	1.500			
0.3695	23645.08	3.8830	3.8830	1.0301	27.12	1.15	1.500			
0.3726	23843.89	3.8800	3.8801	1.0379	27.12	1.15	1.500			
0.3757	24044.32	3.8770	3.8770	1.0460	27.11	1.14	1.500			
0.3788	24244.57	3.8740	3.8740	1.0579	27.10	1.13	1.500			
0.3820	24446.92	3.8710	3.8710	1.0679	27.08	1.11	1.500			
0.3852	24654.59	3.8680	3.8679	1.0801	27.07	1.10	1.500			
0.3885	24864.67	3.8650	3.8650	1.0845	27.06	1.09	1.500			
0.3918	25074.05	3.8620	3.8621	1.1058	27.05	1.08	1.500			
0.3951	25286.51	3.8590	3.8590	1.1228	27.04	1.07	1.500			
0.3985	25503.04	3.8560	3.8559	1.1373	27.03	1.06	1.500			
0.4019	25722.76	3.8530	3.8531	1.1513	27.01	1.04	1.500			
0.4054	25946.29	3.8500	3.8501	1.1693	27.00	1.03	1.500			
0.4089	26172.16	3.8470	3.8470	1.1896	26.99	1.02	1.500			
0.4126	26403.68	3.8440	3.8439	1.2026	26.98	1.01	1.500			
0.4161	26633.24	3.8410	3.8410	1.2173	26.97	1.00	1.500			
0.4198	26868.87	3.8380	3.8380	1.2363	26.96	0.99	1.500			
0.4236	27109.11	3.8350	3.8350	1.2567	26.94	0.97	1.500			
0.4274	27352.49	3.8320	3.8320	1.2745	26.93	0.96	1.500			
0.4312	27598.60	3.8290	3.8290	1.2927	26.92	0.95	1.500			
0.4351	27848.34	3.8260	3.8260	1.3099	26.90	0.93	1.500			
0.4391	28099.48	3.8230	3.8230	1.3353	26.89	0.92	1.500			
0.4431	28358.74	3.8200	3.8200	1.3620	26.87	0.90	1.500			
0.4472	28622.50	3.8170	3.8169	1.3897	26.86	0.89	1.500			
0.4514	28892.33	3.8140	3.8140	1.4164	26.85	0.88	1.500			
0.4558	29168.62	3.8110	3.8110	1.4409	26.83	0.86	1.500			
0.4602	29449.62	3.8080	3.8080	1.4526	26.82	0.85	1.500			
0.4645	29729.95	3.8050	3.8050	1.4747	26.80	0.83	1.500			
0.4689	30011.42	3.8020	3.8021	1.4946	26.79	0.82	1.500			
0.4734	30300.34	3.7990	3.7989	1.5241	26.77	0.80	1.500			
0.4780	30594.94	3.7960	3.7960	1.5483	26.76	0.79	1.500			
0.4827	30895.43	3.7930	3.7930	1.5784	26.74	0.77	1.500			
0.4875	31201.92	3.7900	3.7901	1.6124	26.72	0.75	1.500			
0.4924	31513.87	3.7870	3.7869	1.6355	26.71	0.74	1.500			
0.4974	31830.42	3.7840	3.7839	1.6585	26.69	0.72	1.500	0.347	0.479	
0.5024	32151.93	3.7810	3.7811	1.6871	26.67	0.70	1.500			
0.5075	32482.72	3.7780	3.7780	1.7057	26.66	0.69	1.500			
0.5127	32809.67	3.7750	3.7750	1.7059	26.64	0.67	1.500			
0.5178	33138.07	3.7720	3.7721	1.7269	26.62	0.65	1.500			
0.5230	33471.77	3.7690	3.7689	1.7292	26.61	0.64	1.500			
0.5282	33803.07	3.7660	3.7660	1.7336	26.59	0.62	1.500			
0.5334	34137.91	3.7630	3.7631	1.7372	26.57	0.60	1.500			
0.5386	34467.76	3.7600	3.7600	1.7288	26.56	0.59	1.500			
0.5438	34800.01	3.7570	3.7571	1.7410	26.54	0.57	1.500			
0.5490	35134.53	3.7540	3.7538	1.7566	26.52	0.55	1.500			
0.5543	35474.98	3.7510	3.7511	1.7786	26.51	0.54	1.500			
0.5596	35817.37	3.7480	3.7480	1.7930	26.49	0.52	1.500			
0.5651	36166.48	3.7450	3.7450	1.8408	26.48	0.51	1.500			
0.5706	36516.82	3.7420	3.7420	1.8641	26.46	0.49	1.500			
0.5763	36881.44	3.7390	3.7390	1.9091	26.45	0.48	1.500			
0.5821	37254.28	3.7360	3.7361	1.9478	26.43	0.46	1.500			
0.5880	37630.73	3.7330	3.7330	1.9909	26.41	0.44	1.500			
0.5939	38010.59	3.7300	3.7300	2.0376	26.40	0.43	1.500			
0.6002	38411.32	3.7270	3.7269	2.1007	26.38	0.41	1.500			
0.6067	38826.89	3.7240	3.7240	2.1568	26.36	0.39	1.500			
0.6132	39245.22	3.7210	3.7210	2.2028	26.35	0.38	1.500			
0.6198	39669.63	3.7180	3.7180	2.2635	26.33	0.36	1.500			
0.6267	40111.69	3.7150	3.7150	2.3107	26.32	0.35	1.500			
0.6338	40562.84	3.7120	3.7121	2.3283	26.30	0.33	1.500			
0.6408	41010.45	3.7090	3.7090	2.2611	26.29	0.32	1.500			
0.6475	41439.79	3.7060	3.7060	2.1877	26.27	0.30	1.500			
0.6540	41858.27	3.7030	3.7031	2.0770	26.26	0.29	1.500			
0.6601	42248.69	3.7000	3.7000	1.9549	26.25	0.28	1.500			
0.6658	42609.45	3.6970	3.6970	1.8216	26.23	0.26	1.500			
0.6709	42937.11	3.6940	3.6941	1.6898	26.22	0.25	1.500			
0.6758	43249.90	3.6910	3.6910	1.5971	26.21	0.24	1.500			
0.6804	43545.61	3.6880	3.6880	1.5199	26.20	0.23	1.500			
0.6848	43830.00	3.6850	3.6850	1.4557	26.19	0.22	1.500			
0.6890	44099.13	3.6820	3.6820	1.4056	26.18	0.21	1.500			
0.6932	44363.08	3.6790	3.6790	1.3642	26.17	0.20	1.500			
0.6971	44616.36	3.6760	3.6760	1.3291	26.17	0.20	1.500			
0.7011	44869.28	3.6730	3.6730	1.3063	26.16	0.19	1.500			
0.7049	45116.44	3.6700	3.6700	1.2884	26.15	0.18	1.500			
0.7088	45360.19	3.6670	3.6670	1.2783	26.14	0.17	1.500			
0.7125	45602.76	3.6640	3.6640	1.2782	26.13	0.16	1.500			
0.7163	45846.03	3.6610	3.6609	1.2735	26.12	0.15	1.500			
0.7202	46091.97	3.6580	3.6580	1.2722	26.11	0.14	1.500			
0.7240	46336.99	3.6550	3.6549	1.2716	26.10	0.13	1.500			
0.7279	46585.12	3.6520	3.6521	1.2683	26.09	0.12	1.500			
0.7317	46827.68	3.6490	3.6490	1.2559	26.08	0.11	1.500			
0.7354	47066.21	3.6460	3.6460	1.2424	26.07	0.10	1.500			
0.7391	47303.47	3.6430	3.6430	1.2327	26.07	0.10	1.500			
0.7428	47538.12	3.6400	3.6400	1.2242	26.06	0.09	1.500			
0.7464	47771.88	3.6370	3.6371	1.2167	26.05	0.08	1.500			
0.7501	48004.05	3.6340	3.6340	1.2132	26.04	0.07	1.500			
0.7537	48237.41	3.6310	3.6310	1.2104	26.03	0.06	1.500			
0.7573	48469.43	3.6280	3.6280	1.1970	26.03	0.06	1.500			
0.7609	48698.69	3.6250	3.6250	1.1871	26.02	0.05	1.500			
0.7645	48927.54	3.6220	3.6221	1.1711	26.01	0.04	1.500			
0.7680	49151.48	3.6190	3.6189	1.1546	26.00	0.03	1.500			
0.7714	49371.44	3.6160	3.6160	1.1347	26.00	0.03	1.500			
0.7748	49587.44	3.6130	3.6129	1.1118	25.99	0.02	1.500			
0.7781	49799.33	3.6100	3.6100	1.0898	25.99	0.02	1.500			
0.7814	50007.67	3.6070	3.6070	1.0666	25.98	0.01	1.500			
0.7845	50210.16	3.6040	3.6040	1.0381	25.98	0.01	1.500			
0.7876	50407.30	3.6010	3.6010	1.0053	25.98	0.01	1.500			
0.7906	50598.17	3.5980	3.5981	0.9693	25.98	0.01	1.500			
0.7935	50782.92	3.5950	3.5950	0.9290	25.98	0.01	1.500			
0.7963	50960.18	3.5920	3.5919	0.8757	25.97	0.00	1.500			
0.7989	51126.99	3.5890	3.5890	0.8133	25.97	0.00	1.500			
0.8012	51278.90	3.5860	3.5860	0.7329	25.97	-0.00	1.500			
0.8034	51415.91	3.5830	3.5832	0.6518	25.97	-0.00	1.500			
0.8052	51531.96	3.5800	3.5800	0.5648	25.97	-0.00	1.500			
0.8067	51629.92	3.5770	3.5769	0.4786	25.96	-0.01	1.500			
0.8080	51709.10	3.5740	3.5740	0.4027	25.96	-0.01	1.500			
0.8090	51776.42	3.5710	3.5710	0.3463	25.96	-0.01	1.500			
0.8099	51834.59	3.5680	3.5679	0.3000	25.96	-0.01	1.500			
0.8107	51885.78	3.5650	3.5650	0.2636	25.96	-0.01	1.500			
0.8114	51930.80	3.5620	3.5619	0.2308	25.96	-0.01	1.500			
0.8121	51971.44	3.5590	3.5590	0.2075	25.96	-0.01	1.500			
0.8126	52008.10	3.5560	3.5561	0.1874	25.96	-0.01	1.500			
0.8131	52041.57	3.5530	3.5529	0.1674	25.96	-0.01	1.500			
0.8136	52071.76	3.5500	3.5500	0.1523	25.96	-0.01	1.500			
0.8140	52098.97	3.5470	3.5469	0.1362	25.96	-0.01	1.500			
0.8144	52123.45	3.5440	3.5439	0.1207	25.96	-0.01	1.500			
0.8148	52145.35	3.5410	3.5411	0.1065	25.96	-0.01	1.500			
0.8151	52164.40	3.5380	3.5381	0.0919	25.96	-0.01	1.500			
0.8153	52180.80	3.5350	3.5351	0.0772	25.96	-0.01	1.500			
0.8155	52194.59	3.5320	3.5320	0.0620	25.96	-0.01	1.500			
0.8157	52204.98	3.5290	3.5294	0.0462	25.96	-0.01	1.500			
0.8158	52212.34	3.5260	3.5271	0.0304	25.96	-0.01	1.500			
