Ah_balance (normalized)	Ah_balance (mAh)	Voltage - fit (V)	Voltage -  interpolate (V)	dQ/dV (1/V)	Temperature (°C)	Temperature - diff (°C)	Current (C)	R_DC 0ms (mOhm)	R_DC 50ms (mOhm)	R_DC 50 ms PEC (mOhm)
0.2904	18585.13	3.9860	3.9860	0.8084	27.14	1.16	1.500			
0.2929	18742.50	3.9830	3.9830	0.8277	27.14	1.16	1.500			
0.2954	18904.42	3.9800	3.9800	0.8397	27.13	1.15	1.500			
0.2979	19066.32	3.9770	3.9770	0.8485	27.13	1.15	1.500			
0.3005	19231.18	3.9740	3.9741	0.8552	27.12	1.14	1.500			
0.3031	19396.64	3.9710	3.9709	0.8587	27.12	1.14	1.500			
0.3056	19561.00	3.9680	3.9680	0.8619	27.11	1.13	1.500			
0.3082	19727.12	3.9650	3.9651	0.8646	27.11	1.13	1.500			
0.3108	19893.24	3.9620	3.9620	0.8685	27.10	1.12	1.500			
0.3135	20061.41	3.9590	3.9589	0.8696	27.10	1.12	1.500			
0.3160	20227.17	3.9560	3.9561	0.8701	27.09	1.11	1.500			
0.3187	20394.81	3.9530	3.9530	0.8737	27.09	1.11	1.500			
0.3213	20562.74	3.9500	3.9500	0.8794	27.08	1.10	1.500			
0.3239	20730.82	3.9470	3.9470	0.8853	27.08	1.10	1.500			
0.3266	20901.07	3.9440	3.9440	0.8903	27.07	1.09	1.500			
0.3293	21073.55	3.9410	3.9409	0.8937	27.07	1.09	1.500			
0.3320	21246.44	3.9380	3.9380	0.9020	27.06	1.08	1.500			
0.3347	21419.21	3.9350	3.9351	0.9047	27.06	1.08	1.500			
0.3374	21593.37	3.9320	3.9320	0.9097	27.05	1.07	1.500			
0.3401	21768.81	3.9290	3.9289	0.9086	27.04	1.06	1.500			
0.3429	21942.75	3.9260	3.9260	0.9179	27.04	1.06	1.500			
0.3456	22119.57	3.9230	3.9231	0.9231	27.03	1.05	1.500			
0.3484	22297.03	3.9200	3.9199	0.9303	27.03	1.05	1.500			
0.3512	22476.54	3.9170	3.9170	0.9320	27.02	1.04	1.500			
0.3540	22656.58	3.9140	3.9140	0.9388	27.01	1.03	1.500			
0.3568	22836.61	3.9110	3.9111	0.9482	27.00	1.02	1.500			
0.3597	23019.99	3.9080	3.9080	0.9532	27.00	1.02	1.500			
0.3625	23202.34	3.9050	3.9050	0.9535	26.99	1.01	1.500			
0.3654	23385.32	3.9020	3.9021	0.9678	26.98	1.00	1.500			
0.3683	23572.26	3.8990	3.8989	0.9734	26.97	0.99	1.500			
0.3713	23761.03	3.8960	3.8959	0.9837	26.96	0.98	1.500			
0.3742	23949.71	3.8930	3.8931	0.9907	26.96	0.98	1.500			
0.3772	24139.74	3.8900	3.8901	1.0008	26.95	0.97	1.500			
0.3802	24335.39	3.8870	3.8869	1.0086	26.94	0.96	1.500			
0.3832	24527.37	3.8840	3.8840	1.0164	26.93	0.95	1.500			
0.3863	24724.87	3.8810	3.8811	1.0243	26.93	0.95	1.500			
0.3894	24924.26	3.8780	3.8780	1.0379	26.92	0.94	1.500			
0.3925	25122.49	3.8750	3.8750	1.0466	26.91	0.93	1.500			
0.3957	25322.52	3.8720	3.8721	1.0553	26.90	0.92	1.500			
0.3989	25526.80	3.8690	3.8690	1.0655	26.90	0.92	1.500			
0.4021	25732.78	3.8660	3.8660	1.0852	26.89	0.91	1.500			
0.4053	25940.75	3.8630	3.8630	1.0971	26.88	0.90	1.500			
0.4087	26154.89	3.8600	3.8600	1.1206	26.87	0.89	1.500			
0.4120	26371.03	3.8570	3.8570	1.1334	26.86	0.88	1.500			
0.4155	26590.33	3.8540	3.8540	1.1463	26.86	0.88	1.500			
0.4190	26812.86	3.8510	3.8511	1.1612	26.85	0.87	1.500			
0.4225	27036.87	3.8480	3.8480	1.1798	26.84	0.86	1.500			
0.4260	27262.60	3.8450	3.8450	1.1953	26.83	0.85	1.500			
0.4296	27493.42	3.8420	3.8419	1.2126	26.82	0.84	1.500			
0.4333	27729.23	3.8390	3.8390	1.2248	26.81	0.83	1.500			
0.4370	27966.23	3.8360	3.8361	1.2516	26.80	0.82	1.500			
0.4408	28208.41	3.8330	3.8330	1.2754	26.79	0.81	1.500			
0.4446	28454.35	3.8300	3.8300	1.3020	26.78	0.80	1.500			
0.4485	28703.52	3.8270	3.8270	1.3248	26.77	0.79	1.500			
0.4525	28961.50	3.8240	3.8240	1.3577	26.76	0.78	1.500			
0.4567	29226.95	3.8210	3.8211	1.3919	26.74	0.76	1.500			
0.4609	29498.28	3.8180	3.8179	1.4196	26.73	0.75	1.500			
0.4652	29772.09	3.8150	3.8150	1.4421	26.72	0.74	1.500			
0.4696	30052.80	3.8120	3.8120	1.4656	26.71	0.73	1.500			
0.4740	30336.76	3.8090	3.8090	1.4937	26.69	0.71	1.500			
0.4785	30623.79	3.8060	3.8060	1.5204	26.68	0.70	1.500			
0.4831	30917.09	3.8030	3.8030	1.5510	26.67	0.69	1.500			
0.4877	31215.61	3.8000	3.8000	1.5927	26.65	0.67	1.500			
0.4926	31528.03	3.7970	3.7970	1.6265	26.63	0.65	1.500			
0.4975	31843.17	3.7940	3.7940	1.6607	26.62	0.64	1.500			
0.5026	32167.97	3.7910	3.7910	1.6935	26.61	0.63	1.500			
0.5078	32496.68	3.7880	3.7880	1.7187	26.59	0.61	1.500			
0.5130	32829.64	3.7850	3.7850	1.7435	26.58	0.60	1.500			
0.5182	33164.00	3.7820	3.7820	1.7588	26.57	0.59	1.500			
0.5235	33503.63	3.7790	3.7790	1.7893	26.56	0.58	1.500			
0.5289	33849.49	3.7760	3.7750	1.8016	26.54	0.56	1.500	0.358	0.468	
0.5344	34198.91	3.7730	3.7731	1.8036	26.53	0.55	1.500			
0.5398	34546.15	3.7700	3.7701	1.8082	26.52	0.54	1.500			
0.5452	34893.33	3.7670	3.7669	1.7956	26.50	0.52	1.500			
0.5506	35235.98	3.7640	3.7640	1.7973	26.49	0.51	1.500			
0.5560	35581.39	3.7610	3.7610	1.8049	26.48	0.50	1.500			
0.5614	35930.04	3.7580	3.7580	1.7965	26.47	0.49	1.500			
0.5668	36273.75	3.7550	3.7550	1.7907	26.45	0.47	1.500			
0.5721	36615.38	3.7520	3.7519	1.7880	26.44	0.46	1.500			
0.5774	36956.19	3.7490	3.7490	1.8009	26.43	0.45	1.500			
0.5828	37301.86	3.7460	3.7460	1.8117	26.41	0.43	1.500			
0.5883	37650.35	3.7430	3.7430	1.8348	26.40	0.42	1.500			
0.5939	38007.95	3.7400	3.7401	1.8702	26.39	0.41	1.500			
0.5995	38368.60	3.7370	3.7370	1.9037	26.37	0.39	1.500			
0.6053	38738.72	3.7340	3.7340	1.9371	26.36	0.38	1.500			
0.6111	39111.71	3.7310	3.7310	1.9869	26.35	0.37	1.500			
0.6171	39497.26	3.7280	3.7281	2.0373	26.33	0.35	1.500			
0.6233	39894.09	3.7250	3.7250	2.1060	26.32	0.34	1.500			
0.6298	40304.39	3.7220	3.7220	2.1709	26.31	0.33	1.500			
0.6365	40733.20	3.7190	3.7190	2.2472	26.30	0.32	1.500			
0.6432	41165.71	3.7160	3.7161	2.3026	26.29	0.31	1.500			
0.6502	41615.72	3.7130	3.7130	2.3568	26.28	0.30	1.500			
0.6574	42074.35	3.7100	3.7100	2.4096	26.26	0.28	1.500			
0.6648	42544.93	3.7070	3.7070	2.4697	26.25	0.27	1.500			
0.6723	43027.65	3.7040	3.7039	2.4599	26.24	0.26	1.500			
0.6798	43507.16	3.7010	3.7010	2.3938	26.23	0.25	1.500			
0.6869	43962.39	3.6980	3.6980	2.2740	26.22	0.24	1.500			
0.6935	44383.78	3.6950	3.6952	2.1086	26.21	0.23	1.500			
0.6996	44771.40	3.6920	3.6919	1.9482	26.20	0.22	1.500			
0.7051	45125.11	3.6890	3.6891	1.7966	26.19	0.21	1.500			
0.7102	45450.97	3.6860	3.6860	1.6710	26.18	0.20	1.500			
0.7150	45761.23	3.6830	3.6829	1.5771	26.17	0.19	1.500			
0.7195	46044.87	3.6800	3.6801	1.4865	26.16	0.18	1.500			
0.7238	46323.75	3.6770	3.6770	1.4242	26.16	0.18	1.500			
0.7280	46590.44	3.6740	3.6740	1.3716	26.15	0.17	1.500			
0.7320	46846.62	3.6710	3.6711	1.3235	26.14	0.16	1.500			
0.7358	47094.24	3.6680	3.6680	1.2835	26.14	0.16	1.500			
0.7396	47332.44	3.6650	3.6651	1.2590	26.13	0.15	1.500			
0.7432	47567.22	3.6620	3.6620	1.2445	26.13	0.15	1.500			
0.7469	47802.01	3.6590	3.6589	1.2481	26.12	0.14	1.500			
0.7506	48040.43	3.6560	3.6560	1.2604	26.11	0.13	1.500			
0.7544	48284.78	3.6530	3.6530	1.2698	26.10	0.12	1.500			
0.7583	48534.03	3.6500	3.6500	1.2802	26.09	0.11	1.500			
0.7622	48781.48	3.6470	3.6470	1.2917	26.08	0.10	1.500			
0.7661	49031.16	3.6440	3.6440	1.2932	26.07	0.09	1.500			
0.7700	49280.02	3.6410	3.6410	1.2878	26.06	0.08	1.500			
0.7739	49527.89	3.6380	3.6381	1.2788	26.05	0.07	1.500			
0.7777	49772.26	3.6350	3.6350	1.2731	26.04	0.06	1.500			
0.7815	50017.06	3.6320	3.6320	1.2667	26.03	0.05	1.500			
0.7853	50258.32	3.6290	3.6290	1.2592	26.02	0.04	1.500			
0.7890	50496.13	3.6260	3.6260	1.2513	26.02	0.04	1.500			
0.7928	50738.62	3.6230	3.6230	1.2510	26.01	0.03	1.500			
0.7965	50978.04	3.6200	3.6200	1.2513	26.00	0.02	1.500			
0.8003	51220.02	3.6170	3.6170	1.2468	26.00	0.02	1.500			
0.8041	51459.55	3.6140	3.6140	1.2281	25.99	0.01	1.500			
0.8077	51695.84	3.6110	3.6110	1.2163	25.99	0.01	1.500			
0.8114	51928.71	3.6080	3.6081	1.1937	25.98	0.00	1.500			
0.8149	52154.76	3.6050	3.6049	1.1715	25.98	-0.00	1.500			
0.8184	52377.32	3.6020	3.6020	1.1496	25.97	-0.01	1.500			
0.8218	52594.25	3.5990	3.5990	1.1303	25.97	-0.01	1.500			
0.8252	52810.18	3.5960	3.5960	1.1155	25.97	-0.01	1.500			
0.8285	53023.92	3.5930	3.5930	1.0939	25.97	-0.01	1.500			
0.8318	53232.62	3.5900	3.5901	1.0670	25.97	-0.01	1.500			
0.8350	53438.51	3.5870	3.5870	1.0318	25.98	-0.00	1.500			
0.8381	53635.55	3.5840	3.5840	0.9845	25.98	-0.00	1.500			
0.8410	53825.87	3.5810	3.5809	0.9161	25.98	-0.00	1.500			
0.8437	53999.56	3.5780	3.5780	0.8192	25.98	-0.00	1.500			
0.8461	54152.84	3.5750	3.5751	0.7222	25.98	-0.00	1.500			
0.8481	54280.07	3.5720	3.5721	0.6173	25.98	0.00	1.500			
0.8498	54385.22	3.5690	3.5689	0.5128	25.98	0.00	1.500			
0.8511	54469.33	3.5660	3.5659	0.4262	25.98	0.00	1.500			
0.8521	54536.35	3.5630	3.5629	0.3572	25.98	0.00	1.500			
0.8531	54596.20	3.5600	3.5600	0.3068	25.98	0.00	1.500			
0.8539	54648.56	3.5570	3.5569	0.2686	25.98	0.00	1.500			
0.8546	54693.66	3.5540	3.5540	0.2313	25.98	0.00	1.500			
0.8552	54733.91	3.5510	3.5509	0.2082	25.98	0.00	1.500			
0.8558	54769.42	3.5480	3.5481	0.1861	25.98	0.00	1.500			
0.8563	54802.98	3.5450	3.5449	0.1681	25.98	0.00	1.500			
0.8568	54833.60	3.5420	3.5420	0.1531	25.98	0.00	1.500			
0.8572	54861.32	3.5390	3.5391	0.1377	25.98	0.00	1.500			
0.8576	54886.25	3.5360	3.5360	0.1227	25.98	0.00	1.500			
0.8579	54908.46	3.5330	3.5330	0.1081	25.98	0.00	1.500			
0.8582	54927.79	3.5300	3.5300	0.0932	25.98	0.00	1.500			
0.8585	54943.94	3.5270	3.5272	0.0783	25.98	0.00	1.500			
0.8587	54958.07	3.5240	3.5242	0.0636	25.98	0.00	1.500			
0.8589	54968.80	3.5210	3.5215	0.0482	25.98	0.00	1.500			
0.8590	54976.57	3.5180	3.5190	0.0328	25.98	0.00	1.500			
