Ah_balance (normalized)	Ah_balance (mAh)	Voltage - fit (V)	Voltage -  interpolate (V)	dQ/dV (1/V)	Temperature (°C)	Temperature - diff (°C)	Current (C)	R_DC 0ms (mOhm)	R_DC 50ms (mOhm)	R_DC 50 ms PEC (mOhm)
0.3008	19253.03	3.9740	3.9739	0.8274	27.25	1.27	1.500			
0.3033	19413.66	3.9710	3.9710	0.8441	27.25	1.27	1.500			
0.3059	19577.98	3.9680	3.9680	0.8573	27.24	1.26	1.500			
0.3085	19744.11	3.9650	3.9650	0.8650	27.24	1.26	1.500			
0.3111	19911.56	3.9620	3.9621	0.8752	27.23	1.25	1.500			
0.3138	20081.13	3.9590	3.9590	0.8813	27.23	1.25	1.500			
0.3164	20250.29	3.9560	3.9560	0.8851	27.22	1.24	1.500			
0.3191	20420.81	3.9530	3.9530	0.8870	27.22	1.24	1.500			
0.3217	20591.42	3.9500	3.9500	0.8893	27.21	1.23	1.500			
0.3244	20762.97	3.9470	3.9470	0.8944	27.20	1.22	1.500			
0.3271	20934.82	3.9440	3.9439	0.8961	27.20	1.22	1.500			
0.3298	21106.40	3.9410	3.9410	0.8962	27.19	1.21	1.500			
0.3325	21280.21	3.9380	3.9380	0.8942	27.19	1.21	1.500			
0.3352	21450.80	3.9350	3.9351	0.9043	27.18	1.20	1.500			
0.3379	21624.45	3.9320	3.9320	0.9134	27.18	1.20	1.500			
0.3406	21799.99	3.9290	3.9289	0.9173	27.17	1.19	1.500			
0.3434	21976.65	3.9260	3.9261	0.9243	27.17	1.19	1.500			
0.3462	22155.93	3.9230	3.9231	0.9302	27.16	1.18	1.500			
0.3490	22335.42	3.9200	3.9200	0.9364	27.16	1.18	1.500			
0.3518	22515.17	3.9170	3.9170	0.9363	27.15	1.17	1.500			
0.3546	22695.05	3.9140	3.9140	0.9456	27.14	1.16	1.500			
0.3575	22877.23	3.9110	3.9110	0.9498	27.14	1.16	1.500			
0.3603	23060.80	3.9080	3.9080	0.9617	27.13	1.15	1.500			
0.3632	23245.53	3.9050	3.9050	0.9707	27.13	1.15	1.500			
0.3662	23433.75	3.9020	3.9019	0.9787	27.12	1.14	1.500			
0.3691	23621.93	3.8990	3.8991	0.9869	27.11	1.13	1.500			
0.3721	23812.98	3.8960	3.8960	0.9932	27.11	1.13	1.500			
0.3751	24004.76	3.8930	3.8930	0.9967	27.10	1.12	1.500			
0.3781	24196.55	3.8900	3.8900	1.0011	27.09	1.11	1.500			
0.3811	24389.14	3.8870	3.8870	1.0019	27.09	1.11	1.500			
0.3841	24581.16	3.8840	3.8840	1.0111	27.08	1.10	1.500			
0.3871	24775.29	3.8810	3.8810	1.0238	27.07	1.09	1.500			
0.3902	24971.50	3.8780	3.8780	1.0368	27.06	1.08	1.500			
0.3933	25172.64	3.8750	3.8750	1.0494	27.06	1.08	1.500			
0.3965	25375.42	3.8720	3.8721	1.0646	27.05	1.07	1.500			
0.3997	25581.55	3.8690	3.8690	1.0731	27.04	1.06	1.500			
0.4030	25789.41	3.8660	3.8659	1.0897	27.04	1.06	1.500			
0.4062	25998.69	3.8630	3.8631	1.0985	27.03	1.05	1.500			
0.4095	26209.69	3.8600	3.8599	1.1174	27.02	1.04	1.500			
0.4129	26425.92	3.8570	3.8570	1.1327	27.02	1.04	1.500			
0.4163	26646.31	3.8540	3.8541	1.1497	27.01	1.03	1.500			
0.4198	26867.55	3.8510	3.8510	1.1676	27.00	1.02	1.500			
0.4234	27094.44	3.8480	3.8480	1.1861	26.99	1.01	1.500			
0.4269	27322.60	3.8450	3.8450	1.1988	26.98	1.00	1.500			
0.4305	27554.39	3.8420	3.8420	1.2193	26.97	0.99	1.500			
0.4342	27787.68	3.8390	3.8391	1.2361	26.96	0.98	1.500			
0.4379	28026.87	3.8360	3.8360	1.2597	26.95	0.97	1.500			
0.4417	28269.62	3.8330	3.8328	1.2871	26.94	0.96	1.500			
0.4456	28518.62	3.8300	3.8301	1.3120	26.93	0.95	1.500			
0.4496	28773.69	3.8270	3.8270	1.3455	26.92	0.94	1.500			
0.4537	29036.71	3.8240	3.8240	1.3747	26.91	0.93	1.500			
0.4578	29301.80	3.8210	3.8211	1.3959	26.89	0.91	1.500			
0.4621	29572.98	3.8180	3.8180	1.4290	26.88	0.90	1.500			
0.4664	29850.11	3.8150	3.8148	1.4583	26.87	0.89	1.500			
0.4708	30131.25	3.8120	3.8121	1.4891	26.86	0.88	1.500			
0.4753	30421.59	3.8090	3.8090	1.5205	26.85	0.87	1.500			
0.4799	30716.61	3.8060	3.8060	1.5586	26.83	0.85	1.500			
0.4847	31018.37	3.8030	3.8030	1.5968	26.82	0.84	1.500			
0.4895	31328.98	3.8000	3.8000	1.6441	26.81	0.83	1.500			
0.4945	31647.90	3.7970	3.7970	1.6832	26.79	0.81	1.500			
0.4996	31976.55	3.7940	3.7940	1.7221	26.77	0.79	1.500			
0.5049	32311.30	3.7910	3.7911	1.7713	26.76	0.78	1.500			
0.5102	32654.71	3.7880	3.7880	1.8093	26.74	0.76	1.500			
0.5158	33008.13	3.7850	3.7849	1.8529	26.72	0.74	1.500			
0.5214	33367.88	3.7820	3.7820	1.8922	26.70	0.72	1.500			
0.5272	33738.27	3.7790	3.7790	1.9142	26.69	0.71	1.500			
0.5330	34110.65	3.7760	3.7760	1.9295	26.67	0.69	1.500			
0.5388	34482.85	3.7730	3.7730	1.9364	26.65	0.67	1.500			
0.5446	34853.21	3.7700	3.7700	1.9771	26.63	0.65	1.500			
0.5506	35236.25	3.7670	3.7669	2.0004	26.61	0.63	1.500			
0.5566	35622.23	3.7640	3.7642	2.0237	26.59	0.61	1.500	0.354	0.457	
0.5628	36017.76	3.7610	3.7611	2.0227	26.57	0.59	1.500			
0.5690	36413.30	3.7580	3.7580	2.0133	26.55	0.57	1.500			
0.5749	36791.08	3.7550	3.7551	1.9619	26.53	0.55	1.500			
0.5807	37167.33	3.7520	3.7520	1.9552	26.51	0.53	1.500			
0.5865	37537.49	3.7490	3.7490	1.9323	26.50	0.52	1.500			
0.5923	37907.19	3.7460	3.7460	1.9401	26.48	0.50	1.500			
0.5982	38282.19	3.7430	3.7430	1.9467	26.46	0.48	1.500			
0.6040	38655.12	3.7400	3.7400	1.9602	26.45	0.47	1.500			
0.6099	39030.93	3.7370	3.7370	1.9729	26.44	0.46	1.500			
0.6158	39412.46	3.7340	3.7339	2.0027	26.42	0.44	1.500			
0.6219	39799.15	3.7310	3.7310	2.0294	26.41	0.43	1.500			
0.6280	40190.22	3.7280	3.7280	2.0733	26.39	0.41	1.500			
0.6342	40590.78	3.7250	3.7250	2.1133	26.37	0.39	1.500			
0.6406	40998.49	3.7220	3.7219	2.1799	26.35	0.37	1.500			
0.6473	41426.35	3.7190	3.7190	2.2499	26.34	0.36	1.500			
0.6541	41864.48	3.7160	3.7160	2.3344	26.32	0.34	1.500			
0.6612	42317.96	3.7130	3.7131	2.4167	26.30	0.32	1.500			
0.6686	42791.08	3.7100	3.7100	2.5077	26.28	0.30	1.500			
0.6763	43281.27	3.7070	3.7070	2.5701	26.26	0.28	1.500			
0.6842	43789.64	3.7040	3.7040	2.6073	26.24	0.26	1.500			
0.6921	44291.31	3.7010	3.7010	2.6542	26.22	0.24	1.500			
0.7001	44805.76	3.6980	3.6979	2.5896	26.20	0.22	1.500			
0.7078	45299.07	3.6950	3.6951	2.4876	26.18	0.20	1.500			
0.7151	45767.17	3.6920	3.6919	2.3312	26.16	0.18	1.500			
0.7218	46194.37	3.6890	3.6890	2.1340	26.15	0.17	1.500			
0.7278	46581.06	3.6860	3.6860	1.9615	26.13	0.15	1.500			
0.7333	46932.05	3.6830	3.6830	1.7903	26.12	0.14	1.500			
0.7384	47255.72	3.6800	3.6800	1.6824	26.11	0.13	1.500			
0.7432	47564.71	3.6770	3.6769	1.5838	26.10	0.12	1.500			
0.7478	47858.37	3.6740	3.6740	1.5017	26.09	0.11	1.500			
0.7522	48138.58	3.6710	3.6710	1.4366	26.08	0.10	1.500			
0.7564	48407.66	3.6680	3.6680	1.3838	26.08	0.10	1.500			
0.7604	48662.78	3.6650	3.6650	1.3258	26.07	0.09	1.500			
0.7642	48908.88	3.6620	3.6619	1.2899	26.06	0.08	1.500			
0.7680	49150.88	3.6590	3.6590	1.2736	26.06	0.08	1.500			
0.7717	49389.97	3.6560	3.6560	1.2640	26.05	0.07	1.500			
0.7755	49631.78	3.6530	3.6530	1.2642	26.04	0.06	1.500			
0.7793	49873.57	3.6500	3.6500	1.2665	26.03	0.05	1.500			
0.7831	50116.94	3.6470	3.6470	1.2801	26.02	0.04	1.500			
0.7870	50365.06	3.6440	3.6440	1.2901	26.01	0.03	1.500			
0.7908	50614.08	3.6410	3.6409	1.2980	26.00	0.02	1.500			
0.7947	50863.84	3.6380	3.6380	1.3007	25.99	0.01	1.500			
0.7987	51116.56	3.6350	3.6351	1.3023	25.99	0.01	1.500			
0.8026	51369.28	3.6320	3.6320	1.3005	25.98	-0.00	1.500			
0.8065	51615.08	3.6290	3.6290	1.2975	25.97	-0.01	1.500			
0.8104	51864.40	3.6260	3.6260	1.2938	25.96	-0.02	1.500			
0.8143	52113.51	3.6230	3.6230	1.2885	25.95	-0.03	1.500			
0.8181	52359.84	3.6200	3.6200	1.2816	25.95	-0.03	1.500			
0.8220	52607.38	3.6170	3.6171	1.2792	25.94	-0.04	1.500			
0.8258	52853.43	3.6140	3.6140	1.2694	25.94	-0.04	1.500			
0.8296	53095.16	3.6110	3.6110	1.2598	25.93	-0.05	1.500			
0.8334	53334.48	3.6080	3.6080	1.2456	25.93	-0.05	1.500			
0.8371	53575.03	3.6050	3.6050	1.2375	25.93	-0.05	1.500			
0.8408	53811.28	3.6020	3.6020	1.2243	25.92	-0.06	1.500			
0.8445	54045.39	3.5990	3.5990	1.2102	25.92	-0.06	1.500			
0.8481	54276.94	3.5960	3.5960	1.1917	25.92	-0.06	1.500			
0.8516	54503.94	3.5930	3.5930	1.1787	25.92	-0.06	1.500			
0.8551	54728.36	3.5900	3.5901	1.1591	25.92	-0.06	1.500			
0.8586	54949.60	3.5870	3.5869	1.1489	25.92	-0.06	1.500			
0.8620	55168.03	3.5840	3.5840	1.1379	25.92	-0.06	1.500			
0.8654	55385.39	3.5810	3.5810	1.1193	25.92	-0.06	1.500			
0.8688	55603.78	3.5780	3.5780	1.0753	25.93	-0.05	1.500			
0.8721	55816.59	3.5750	3.5750	1.0223	25.93	-0.05	1.500			
0.8752	56013.40	3.5720	3.5721	0.9175	25.94	-0.04	1.500			
0.8780	56189.31	3.5690	3.5691	0.8087	25.95	-0.03	1.500			
0.8802	56330.97	3.5660	3.5661	0.6871	25.95	-0.03	1.500			
0.8820	56447.07	3.5630	3.5629	0.5643	25.96	-0.02	1.500			
0.8834	56535.30	3.5600	3.5599	0.4622	25.96	-0.02	1.500			
0.8845	56610.50	3.5570	3.5569	0.3839	25.96	-0.02	1.500			
0.8855	56671.13	3.5540	3.5541	0.3228	25.97	-0.01	1.500			
0.8863	56725.89	3.5510	3.5509	0.2822	25.97	-0.01	1.500			
0.8871	56773.15	3.5480	3.5479	0.2421	25.97	-0.01	1.500			
0.8877	56814.83	3.5450	3.5448	0.2166	25.97	-0.01	1.500			
0.8883	56852.48	3.5420	3.5420	0.1958	25.97	-0.01	1.500			
0.8889	56887.34	3.5390	3.5391	0.1789	25.97	-0.01	1.500			
0.8894	56919.87	3.5360	3.5360	0.1632	25.97	-0.01	1.500			
0.8898	56949.53	3.5330	3.5329	0.1494	25.98	-0.00	1.500			
0.8903	56976.50	3.5300	3.5300	0.1351	25.98	-0.00	1.500			
0.8906	57001.25	3.5270	3.5270	0.1213	25.98	-0.00	1.500			
0.8910	57023.27	3.5240	3.5240	0.1081	25.98	-0.00	1.500			
0.8913	57043.03	3.5210	3.5211	0.0951	25.98	-0.00	1.500			
0.8916	57060.23	3.5180	3.5181	0.0815	25.98	0.00	1.500			
0.8918	57074.53	3.5150	3.5151	0.0674	25.98	0.00	1.500			
0.8920	57086.17	3.5120	3.5122	0.0531	25.98	0.00	1.500			
0.8921	57095.00	3.5090	3.5100	0.0388	25.98	0.00	1.500			
