Ah_balance (normalized)	Ah_balance (mAh)	Voltage - fit (V)	Voltage -  interpolate (V)	dQ/dV (1/V)	Temperature (°C)	Temperature - diff (°C)	Current (C)	R_DC 0ms (mOhm)	R_DC 50ms (mOhm)	R_DC 50 ms PEC (mOhm)
0.2737	17517.12	3.9880	3.9880	0.8667	27.29	1.31	1.500			
0.2763	17681.10	3.9850	3.9850	0.8527	27.29	1.31	1.500			
0.2788	17843.03	3.9820	3.9820	0.8483	27.28	1.30	1.500			
0.2813	18005.17	3.9790	3.9790	0.8511	27.27	1.29	1.500			
0.2839	18167.60	3.9760	3.9760	0.8522	27.27	1.29	1.500			
0.2864	18331.77	3.9730	3.9730	0.8545	27.26	1.28	1.500			
0.2890	18496.40	3.9700	3.9701	0.8583	27.26	1.28	1.500			
0.2916	18662.24	3.9670	3.9670	0.8624	27.25	1.27	1.500			
0.2942	18827.93	3.9640	3.9640	0.8627	27.24	1.26	1.500			
0.2968	18992.33	3.9610	3.9610	0.8645	27.24	1.26	1.500			
0.2994	19158.80	3.9580	3.9579	0.8664	27.23	1.25	1.500			
0.3020	19325.72	3.9550	3.9551	0.8724	27.23	1.25	1.500			
0.3046	19493.40	3.9520	3.9520	0.8791	27.22	1.24	1.500			
0.3072	19663.57	3.9490	3.9490	0.8827	27.21	1.23	1.500			
0.3099	19833.30	3.9460	3.9460	0.8901	27.21	1.23	1.500			
0.3126	20004.46	3.9430	3.9430	0.8956	27.20	1.22	1.500			
0.3153	20177.02	3.9400	3.9400	0.8985	27.20	1.22	1.500			
0.3180	20350.06	3.9370	3.9370	0.9059	27.19	1.21	1.500			
0.3207	20523.95	3.9340	3.9340	0.9072	27.19	1.21	1.500			
0.3234	20698.52	3.9310	3.9310	0.9101	27.18	1.20	1.500			
0.3262	20875.26	3.9280	3.9280	0.9126	27.17	1.19	1.500			
0.3289	21048.16	3.9250	3.9250	0.9163	27.17	1.19	1.500			
0.3316	21224.15	3.9220	3.9221	0.9244	27.16	1.18	1.500			
0.3344	21402.82	3.9190	3.9189	0.9291	27.16	1.18	1.500			
0.3372	21580.95	3.9160	3.9159	0.9326	27.15	1.17	1.500			
0.3400	21762.24	3.9130	3.9131	0.9408	27.14	1.16	1.500			
0.3429	21943.11	3.9100	3.9100	0.9500	27.14	1.16	1.500			
0.3457	22126.45	3.9070	3.9069	0.9581	27.13	1.15	1.500			
0.3486	22310.24	3.9040	3.9040	0.9623	27.12	1.14	1.500			
0.3515	22494.79	3.9010	3.9010	0.9710	27.12	1.14	1.500			
0.3544	22682.42	3.8980	3.8981	0.9831	27.11	1.13	1.500			
0.3574	22872.24	3.8950	3.8949	0.9918	27.10	1.12	1.500			
0.3604	23063.22	3.8920	3.8920	0.9999	27.09	1.11	1.500			
0.3634	23256.00	3.8890	3.8890	1.0035	27.09	1.11	1.500			
0.3664	23449.33	3.8860	3.8861	1.0155	27.08	1.10	1.500			
0.3695	23645.59	3.8830	3.8830	1.0222	27.07	1.09	1.500			
0.3726	23843.37	3.8800	3.8799	1.0230	27.06	1.08	1.500			
0.3756	24039.03	3.8770	3.8770	1.0364	27.05	1.07	1.500			
0.3787	24239.09	3.8740	3.8740	1.0495	27.04	1.06	1.500			
0.3819	24441.02	3.8710	3.8710	1.0641	27.03	1.05	1.500			
0.3851	24646.98	3.8680	3.8681	1.0804	27.03	1.05	1.500			
0.3884	24854.98	3.8650	3.8650	1.0914	27.02	1.04	1.500			
0.3917	25067.83	3.8620	3.8620	1.1094	27.01	1.03	1.500			
0.3950	25282.79	3.8590	3.8591	1.1171	27.00	1.02	1.500			
0.3984	25498.93	3.8560	3.8560	1.1344	26.99	1.01	1.500			
0.4018	25718.30	3.8530	3.8529	1.1480	26.98	1.00	1.500			
0.4053	25939.84	3.8500	3.8500	1.1594	26.97	0.99	1.500			
0.4088	26161.40	3.8470	3.8470	1.1771	26.96	0.98	1.500			
0.4123	26388.86	3.8440	3.8440	1.1973	26.95	0.97	1.500			
0.4159	26620.73	3.8410	3.8410	1.2150	26.94	0.96	1.500			
0.4196	26856.52	3.8380	3.8380	1.2337	26.92	0.94	1.500			
0.4234	27095.52	3.8350	3.8350	1.2517	26.91	0.93	1.500			
0.4271	27337.58	3.8320	3.8320	1.2773	26.90	0.92	1.500			
0.4310	27584.47	3.8290	3.8290	1.2993	26.89	0.91	1.500			
0.4349	27835.46	3.8260	3.8259	1.3194	26.88	0.90	1.500			
0.4389	28091.63	3.8230	3.8230	1.3441	26.86	0.88	1.500			
0.4430	28354.03	3.8200	3.8200	1.3650	26.85	0.87	1.500			
0.4472	28618.16	3.8170	3.8170	1.3913	26.84	0.86	1.500			
0.4513	28885.41	3.8140	3.8140	1.4172	26.83	0.85	1.500			
0.4556	29159.24	3.8110	3.8111	1.4424	26.82	0.84	1.500			
0.4600	29437.99	3.8080	3.8080	1.4718	26.80	0.82	1.500			
0.4644	29723.95	3.8050	3.8051	1.5084	26.79	0.81	1.500			
0.4690	30018.45	3.8020	3.8020	1.5232	26.78	0.80	1.500			
0.4737	30314.07	3.7990	3.7990	1.5466	26.76	0.78	1.500			
0.4783	30612.00	3.7960	3.7961	1.5772	26.75	0.77	1.500			
0.4831	30916.99	3.7930	3.7928	1.6080	26.73	0.75	1.500			
0.4879	31227.81	3.7900	3.7900	1.6295	26.71	0.73	1.500			
0.4929	31544.52	3.7870	3.7871	1.6518	26.70	0.72	1.500			
0.4980	31868.83	3.7840	3.7840	1.6970	26.68	0.70	1.500			
0.5030	32193.31	3.7810	3.7810	1.7223	26.66	0.68	1.500			
0.5082	32525.58	3.7780	3.7780	1.7444	26.64	0.66	1.500	0.349	0.472	
0.5135	32865.91	3.7750	3.7751	1.7556	26.62	0.64	1.500			
0.5189	33209.21	3.7720	3.7720	1.7633	26.61	0.63	1.500			
0.5241	33543.21	3.7690	3.7690	1.7446	26.59	0.61	1.500			
0.5293	33875.53	3.7660	3.7660	1.7486	26.57	0.59	1.500			
0.5345	34210.37	3.7630	3.7630	1.7576	26.56	0.58	1.500			
0.5398	34549.79	3.7600	3.7600	1.7712	26.54	0.56	1.500			
0.5452	34891.13	3.7570	3.7570	1.7677	26.53	0.55	1.500			
0.5505	35229.89	3.7540	3.7541	1.7782	26.51	0.53	1.500			
0.5558	35570.12	3.7510	3.7510	1.7892	26.50	0.52	1.500			
0.5612	35914.12	3.7480	3.7480	1.8113	26.48	0.50	1.500			
0.5666	36262.74	3.7450	3.7450	1.8423	26.47	0.49	1.500			
0.5722	36620.64	3.7420	3.7420	1.8687	26.45	0.47	1.500			
0.5779	36983.02	3.7390	3.7390	1.8854	26.44	0.46	1.500			
0.5835	37344.14	3.7360	3.7359	1.9221	26.42	0.44	1.500			
0.5893	37716.01	3.7330	3.7330	1.9596	26.40	0.42	1.500			
0.5952	38092.52	3.7300	3.7299	2.0048	26.39	0.41	1.500			
0.6012	38479.21	3.7270	3.7271	2.0659	26.37	0.39	1.500			
0.6076	38887.30	3.7240	3.7239	2.1350	26.35	0.37	1.500			
0.6141	39304.74	3.7210	3.7210	2.1844	26.34	0.36	1.500			
0.6208	39734.26	3.7180	3.7180	2.2474	26.32	0.34	1.500			
0.6276	40166.76	3.7150	3.7151	2.2942	26.30	0.32	1.500			
0.6346	40613.80	3.7120	3.7120	2.3624	26.29	0.31	1.500			
0.6417	41071.39	3.7090	3.7090	2.4271	26.27	0.29	1.500			
0.6491	41540.73	3.7060	3.7060	2.3904	26.25	0.27	1.500			
0.6562	41999.09	3.7030	3.7030	2.3441	26.23	0.25	1.500			
0.6633	42448.22	3.7000	3.7001	2.2079	26.21	0.23	1.500			
0.6697	42859.56	3.6970	3.6970	2.0541	26.20	0.22	1.500			
0.6755	43234.66	3.6940	3.6940	1.8938	26.19	0.21	1.500			
0.6809	43576.31	3.6910	3.6910	1.7521	26.18	0.20	1.500			
0.6859	43900.58	3.6880	3.6880	1.6515	26.17	0.19	1.500			
0.6907	44205.29	3.6850	3.6850	1.5645	26.16	0.18	1.500			
0.6953	44496.97	3.6820	3.6820	1.4888	26.15	0.17	1.500			
0.6996	44772.45	3.6790	3.6790	1.4203	26.14	0.16	1.500			
0.7037	45033.60	3.6760	3.6760	1.3734	26.13	0.15	1.500			
0.7077	45291.69	3.6730	3.6729	1.3363	26.12	0.14	1.500			
0.7116	45541.85	3.6700	3.6700	1.3077	26.11	0.13	1.500			
0.7155	45789.46	3.6670	3.6670	1.2906	26.10	0.12	1.500			
0.7193	46035.48	3.6640	3.6641	1.2750	26.09	0.11	1.500			
0.7231	46277.95	3.6610	3.6610	1.2751	26.08	0.10	1.500			
0.7269	46518.47	3.6580	3.6580	1.2715	26.08	0.10	1.500			
0.7307	46762.15	3.6550	3.6550	1.2744	26.07	0.09	1.500			
0.7345	47007.28	3.6520	3.6519	1.2819	26.06	0.08	1.500			
0.7384	47255.00	3.6490	3.6490	1.2859	26.05	0.07	1.500			
0.7422	47503.90	3.6460	3.6460	1.2895	26.04	0.06	1.500			
0.7462	47754.61	3.6430	3.6429	1.2809	26.03	0.05	1.500			
0.7500	47999.38	3.6400	3.6400	1.2699	26.02	0.04	1.500			
0.7538	48241.35	3.6370	3.6370	1.2611	26.01	0.03	1.500			
0.7575	48482.98	3.6340	3.6339	1.2518	26.00	0.02	1.500			
0.7613	48720.67	3.6310	3.6310	1.2421	26.00	0.02	1.500			
0.7650	48957.21	3.6280	3.6280	1.2436	25.99	0.01	1.500			
0.7687	49196.84	3.6250	3.6250	1.2409	25.98	0.00	1.500			
0.7725	49437.16	3.6220	3.6219	1.2353	25.98	-0.00	1.500			
0.7762	49673.68	3.6190	3.6191	1.2255	25.97	-0.01	1.500			
0.7798	49908.80	3.6160	3.6160	1.2162	25.97	-0.01	1.500			
0.7835	50142.00	3.6130	3.6129	1.1966	25.96	-0.02	1.500			
0.7870	50370.92	3.6100	3.6100	1.1780	25.96	-0.02	1.500			
0.7905	50594.82	3.6070	3.6071	1.1556	25.95	-0.03	1.500			
0.7940	50816.96	3.6040	3.6040	1.1377	25.95	-0.03	1.500			
0.7974	51033.23	3.6010	3.6010	1.1054	25.95	-0.03	1.500			
0.8006	51241.26	3.5980	3.5980	1.0854	25.95	-0.03	1.500			
0.8039	51447.57	3.5950	3.5950	1.0622	25.94	-0.04	1.500			
0.8071	51651.80	3.5920	3.5919	1.0385	25.94	-0.04	1.500			
0.8102	51850.59	3.5890	3.5890	0.9937	25.94	-0.04	1.500			
0.8132	52043.16	3.5860	3.5861	0.9465	25.95	-0.03	1.500			
0.8160	52224.55	3.5830	3.5830	0.8694	25.95	-0.03	1.500			
0.8186	52391.51	3.5800	3.5800	0.7885	25.96	-0.02	1.500			
0.8208	52531.99	3.5770	3.5771	0.6842	25.96	-0.02	1.500			
0.8227	52653.51	3.5740	3.5740	0.5867	25.96	-0.02	1.500			
0.8243	52752.15	3.5710	3.5710	0.4949	25.97	-0.01	1.500			
0.8256	52835.72	3.5680	3.5679	0.4157	25.97	-0.01	1.500			
0.8266	52903.16	3.5650	3.5650	0.3499	25.97	-0.01	1.500			
0.8275	52962.14	3.5620	3.5619	0.3045	25.97	-0.01	1.500			
0.8283	53012.96	3.5590	3.5589	0.2653	25.97	-0.01	1.500			
0.8291	53059.64	3.5560	3.5560	0.2375	25.97	-0.01	1.500			
0.8297	53101.30	3.5530	3.5529	0.2115	25.97	-0.01	1.500			
0.8303	53139.25	3.5500	3.5500	0.1928	25.98	-0.00	1.500			
0.8308	53173.30	3.5470	3.5471	0.1744	25.98	-0.00	1.500			
0.8313	53205.02	3.5440	3.5439	0.1584	25.98	-0.00	1.500			
0.8318	53233.79	3.5410	3.5409	0.1448	25.98	-0.00	1.500			
0.8322	53259.80	3.5380	3.5380	0.1305	25.98	-0.00	1.500			
0.8326	53283.75	3.5350	3.5352	0.1165	25.98	-0.00	1.500			
0.8329	53305.11	3.5320	3.5319	0.1038	25.98	-0.00	1.500			
0.8332	53323.69	3.5290	3.5292	0.0897	25.98	-0.00	1.500			
0.8334	53339.57	3.5260	3.5261	0.0757	25.98	0.00	1.500			
0.8336	53353.20	3.5230	3.5233	0.0613	25.98	0.00	1.500			
0.8338	53363.52	3.5200	3.5204	0.0462	25.98	0.00	1.500			
0.8339	53370.96	3.5170	3.5179	0.0312	25.98	0.00	1.500			
