Ah_balance (normalized)	Ah_balance (mAh)	Voltage - fit (V)	Voltage -  interpolate (V)	dQ/dV (1/V)	Temperature (°C)	Temperature - diff (°C)	Current (C)	R_DC 0ms (mOhm)	R_DC 50ms (mOhm)	R_DC 50 ms PEC (mOhm)
0.2690	17217.07	3.9910	3.9910	0.8753	27.36	1.40	1.500			
0.2716	17380.93	3.9880	3.9881	0.8551	27.35	1.39	1.500			
0.2741	17543.17	3.9850	3.9850	0.8513	27.35	1.39	1.500			
0.2766	17704.61	3.9820	3.9820	0.8522	27.34	1.38	1.500			
0.2792	17868.67	3.9790	3.9790	0.8562	27.34	1.38	1.500			
0.2818	18034.75	3.9760	3.9759	0.8607	27.33	1.37	1.500			
0.2844	18200.67	3.9730	3.9731	0.8640	27.32	1.36	1.500			
0.2870	18368.20	3.9700	3.9700	0.8693	27.32	1.36	1.500			
0.2896	18534.15	3.9670	3.9670	0.8714	27.31	1.35	1.500			
0.2922	18701.34	3.9640	3.9639	0.8710	27.31	1.35	1.500			
0.2948	18868.21	3.9610	3.9610	0.8758	27.30	1.34	1.500			
0.2975	19037.90	3.9580	3.9579	0.8815	27.29	1.33	1.500			
0.3001	19207.88	3.9550	3.9550	0.8823	27.29	1.33	1.500			
0.3028	19377.18	3.9520	3.9519	0.8856	27.28	1.32	1.500			
0.3054	19546.85	3.9490	3.9491	0.8888	27.27	1.31	1.500			
0.3081	19718.07	3.9460	3.9460	0.8884	27.26	1.30	1.500			
0.3108	19888.25	3.9430	3.9429	0.8961	27.26	1.30	1.500			
0.3134	20059.62	3.9400	3.9401	0.8998	27.25	1.29	1.500			
0.3161	20233.56	3.9370	3.9370	0.9091	27.24	1.28	1.500			
0.3189	20410.60	3.9340	3.9340	0.9161	27.23	1.27	1.500			
0.3217	20586.62	3.9310	3.9311	0.9200	27.23	1.27	1.500			
0.3244	20764.30	3.9280	3.9280	0.9258	27.22	1.26	1.500			
0.3272	20942.69	3.9250	3.9250	0.9272	27.21	1.25	1.500			
0.3300	21120.15	3.9220	3.9220	0.9303	27.20	1.24	1.500			
0.3328	21297.66	3.9190	3.9190	0.9372	27.20	1.24	1.500			
0.3356	21477.67	3.9160	3.9160	0.9467	27.19	1.23	1.500			
0.3385	21661.01	3.9130	3.9130	0.9573	27.18	1.22	1.500			
0.3413	21845.85	3.9100	3.9099	0.9633	27.17	1.21	1.500			
0.3443	22032.16	3.9070	3.9071	0.9742	27.16	1.20	1.500			
0.3472	22221.03	3.9040	3.9040	0.9797	27.16	1.20	1.500			
0.3502	22410.25	3.9010	3.9010	0.9826	27.15	1.19	1.500			
0.3531	22597.25	3.8980	3.8980	0.9829	27.14	1.18	1.500			
0.3561	22787.98	3.8950	3.8950	0.9877	27.13	1.17	1.500			
0.3590	22977.30	3.8920	3.8920	0.9973	27.12	1.16	1.500			
0.3620	23168.94	3.8890	3.8890	1.0052	27.11	1.15	1.500			
0.3650	23361.28	3.8860	3.8861	1.0142	27.11	1.15	1.500			
0.3681	23557.55	3.8830	3.8831	1.0303	27.10	1.14	1.500			
0.3712	23756.97	3.8800	3.8800	1.0433	27.09	1.13	1.500			
0.3743	23958.07	3.8770	3.8770	1.0572	27.08	1.12	1.500			
0.3776	24164.19	3.8740	3.8740	1.0667	27.07	1.11	1.500			
0.3808	24369.18	3.8710	3.8710	1.0689	27.06	1.10	1.500			
0.3840	24575.33	3.8680	3.8680	1.0842	27.05	1.09	1.500			
0.3873	24784.38	3.8650	3.8649	1.0927	27.03	1.07	1.500			
0.3905	24993.49	3.8620	3.8620	1.1025	27.02	1.06	1.500			
0.3939	25206.69	3.8590	3.8590	1.1169	27.01	1.05	1.500			
0.3972	25421.85	3.8560	3.8561	1.1327	27.00	1.04	1.500			
0.4007	25641.89	3.8530	3.8529	1.1511	26.99	1.03	1.500			
0.4041	25864.03	3.8500	3.8500	1.1663	26.98	1.02	1.500			
0.4076	26088.62	3.8470	3.8469	1.1759	26.96	1.00	1.500			
0.4112	26316.37	3.8440	3.8440	1.1976	26.95	0.99	1.500			
0.4148	26548.42	3.8410	3.8410	1.2096	26.94	0.98	1.500			
0.4185	26781.56	3.8380	3.8380	1.2264	26.92	0.96	1.500			
0.4222	27018.38	3.8350	3.8350	1.2433	26.91	0.95	1.500			
0.4259	27258.60	3.8320	3.8320	1.2641	26.90	0.94	1.500			
0.4297	27503.07	3.8290	3.8290	1.2828	26.89	0.93	1.500			
0.4336	27750.95	3.8260	3.8260	1.3064	26.88	0.92	1.500			
0.4375	28002.00	3.8230	3.8230	1.3281	26.86	0.90	1.500			
0.4416	28261.05	3.8200	3.8200	1.3539	26.85	0.89	1.500			
0.4457	28523.39	3.8170	3.8170	1.3739	26.84	0.88	1.500			
0.4498	28790.11	3.8140	3.8140	1.3942	26.82	0.86	1.500			
0.4540	29058.10	3.8110	3.8111	1.4234	26.81	0.85	1.500			
0.4583	29333.76	3.8080	3.8080	1.4518	26.80	0.84	1.500			
0.4627	29615.15	3.8050	3.8049	1.4698	26.78	0.82	1.500			
0.4672	29898.86	3.8020	3.8020	1.4982	26.77	0.81	1.500			
0.4717	30191.69	3.7990	3.7991	1.5234	26.75	0.79	1.500			
0.4764	30488.17	3.7960	3.7959	1.5389	26.74	0.78	1.500			
0.4809	30780.41	3.7930	3.7931	1.5700	26.72	0.76	1.500			
0.4857	31082.68	3.7900	3.7900	1.6003	26.71	0.75	1.500			
0.4906	31397.26	3.7870	3.7868	1.6323	26.69	0.73	1.500	0.343	0.478	
0.4956	31715.46	3.7840	3.7841	1.6515	26.68	0.72	1.500			
0.5006	32039.69	3.7810	3.7810	1.6640	26.66	0.70	1.500			
0.5056	32357.78	3.7780	3.7780	1.6760	26.65	0.69	1.500			
0.5105	32674.89	3.7750	3.7750	1.6792	26.63	0.67	1.500			
0.5156	32998.36	3.7720	3.7719	1.6954	26.61	0.65	1.500			
0.5208	33329.02	3.7690	3.7691	1.7006	26.60	0.64	1.500			
0.5259	33656.81	3.7660	3.7660	1.6998	26.58	0.62	1.500			
0.5310	33982.66	3.7630	3.7631	1.6948	26.57	0.61	1.500			
0.5361	34307.88	3.7600	3.7599	1.7093	26.56	0.60	1.500			
0.5411	34633.29	3.7570	3.7569	1.7256	26.54	0.58	1.500			
0.5463	34964.68	3.7540	3.7541	1.7564	26.53	0.57	1.500			
0.5517	35311.75	3.7510	3.7509	1.7755	26.51	0.55	1.500			
0.5571	35651.72	3.7480	3.7480	1.8059	26.50	0.54	1.500			
0.5625	35997.91	3.7450	3.7451	1.8425	26.48	0.52	1.500			
0.5681	36358.59	3.7420	3.7420	1.8724	26.47	0.51	1.500			
0.5737	36719.77	3.7390	3.7391	1.9011	26.45	0.49	1.500			
0.5795	37088.07	3.7360	3.7361	1.9545	26.43	0.47	1.500			
0.5854	37463.77	3.7330	3.7329	2.0042	26.42	0.46	1.500			
0.5914	37852.27	3.7300	3.7299	2.0371	26.40	0.44	1.500			
0.5977	38255.79	3.7270	3.7271	2.1124	26.38	0.42	1.500			
0.6041	38662.43	3.7240	3.7239	2.1446	26.36	0.40	1.500			
0.6105	39074.94	3.7210	3.7210	2.1859	26.34	0.38	1.500			
0.6172	39502.85	3.7180	3.7179	2.2379	26.32	0.36	1.500			
0.6241	39941.35	3.7150	3.7151	2.2733	26.30	0.34	1.500			
0.6310	40384.34	3.7120	3.7119	2.2448	26.29	0.33	1.500			
0.6377	40811.27	3.7090	3.7091	2.1755	26.27	0.31	1.500			
0.6441	41225.47	3.7060	3.7060	2.0856	26.25	0.29	1.500			
0.6502	41615.66	3.7030	3.7030	1.9616	26.24	0.28	1.500			
0.6559	41978.52	3.7000	3.7000	1.8461	26.23	0.27	1.500			
0.6613	42320.38	3.6970	3.6970	1.7258	26.21	0.25	1.500			
0.6662	42635.63	3.6940	3.6940	1.6268	26.20	0.24	1.500			
0.6709	42939.69	3.6910	3.6910	1.5495	26.19	0.23	1.500			
0.6754	43225.45	3.6880	3.6879	1.4756	26.18	0.22	1.500			
0.6797	43502.37	3.6850	3.6850	1.4212	26.17	0.21	1.500			
0.6838	43765.72	3.6820	3.6820	1.3717	26.16	0.20	1.500			
0.6879	44023.68	3.6790	3.6790	1.3363	26.15	0.19	1.500			
0.6918	44274.81	3.6760	3.6759	1.3129	26.14	0.18	1.500			
0.6956	44519.60	3.6730	3.6730	1.2911	26.13	0.17	1.500			
0.6995	44765.83	3.6700	3.6700	1.2847	26.12	0.16	1.500			
0.7033	45011.53	3.6670	3.6669	1.2771	26.11	0.15	1.500			
0.7071	45255.55	3.6640	3.6640	1.2737	26.10	0.14	1.500			
0.7109	45499.34	3.6610	3.6611	1.2749	26.09	0.13	1.500			
0.7148	45745.98	3.6580	3.6579	1.2727	26.08	0.12	1.500			
0.7186	45990.73	3.6550	3.6550	1.2671	26.08	0.12	1.500			
0.7224	46232.95	3.6520	3.6520	1.2612	26.07	0.11	1.500			
0.7262	46475.69	3.6490	3.6491	1.2534	26.06	0.10	1.500			
0.7300	46717.37	3.6460	3.6459	1.2442	26.05	0.09	1.500			
0.7336	46953.59	3.6430	3.6430	1.2307	26.04	0.08	1.500			
0.7373	47187.18	3.6400	3.6400	1.2174	26.03	0.07	1.500			
0.7409	47419.96	3.6370	3.6369	1.2128	26.02	0.06	1.500			
0.7446	47652.35	3.6340	3.6341	1.2039	26.01	0.05	1.500			
0.7482	47882.66	3.6310	3.6310	1.1942	26.01	0.05	1.500			
0.7518	48113.69	3.6280	3.6280	1.1885	26.00	0.04	1.500			
0.7553	48340.52	3.6250	3.6251	1.1716	25.99	0.03	1.500			
0.7588	48565.65	3.6220	3.6220	1.1585	25.99	0.03	1.500			
0.7623	48787.75	3.6190	3.6190	1.1398	25.98	0.02	1.500			
0.7657	49004.90	3.6160	3.6160	1.1156	25.97	0.01	1.500			
0.7690	49217.49	3.6130	3.6130	1.0936	25.97	0.01	1.500			
0.7723	49424.46	3.6100	3.6100	1.0690	25.97	0.01	1.500			
0.7754	49627.35	3.6070	3.6070	1.0426	25.97	0.01	1.500			
0.7785	49825.09	3.6040	3.6040	1.0155	25.97	0.01	1.500			
0.7816	50019.84	3.6010	3.6010	0.9817	25.96	0.00	1.500			
0.7845	50207.38	3.5980	3.5979	0.9394	25.96	0.00	1.500			
0.7873	50387.45	3.5950	3.5950	0.8942	25.96	0.00	1.500			
0.7899	50556.38	3.5920	3.5920	0.8295	25.96	0.00	1.500			
0.7924	50712.31	3.5890	3.5889	0.7590	25.96	-0.00	1.500			
0.7946	50852.80	3.5860	3.5860	0.6772	25.96	-0.00	1.500			
0.7965	50975.48	3.5830	3.5830	0.5931	25.96	-0.00	1.500			
0.7981	51079.49	3.5800	3.5801	0.5139	25.96	-0.00	1.500			
0.7995	51168.20	3.5770	3.5770	0.4367	25.96	-0.00	1.500			
0.8006	51240.12	3.5740	3.5739	0.3686	25.96	-0.00	1.500			
0.8016	51302.63	3.5710	3.5710	0.3206	25.96	-0.00	1.500			
0.8024	51356.61	3.5680	3.5680	0.2795	25.96	-0.00	1.500			
0.8032	51404.97	3.5650	3.5649	0.2484	25.96	-0.00	1.500			
0.8039	51448.19	3.5620	3.5620	0.2197	25.96	-0.00	1.500			
0.8045	51486.94	3.5590	3.5590	0.1988	25.95	-0.01	1.500			
0.8050	51522.58	3.5560	3.5560	0.1810	25.95	-0.01	1.500			
0.8056	51555.45	3.5530	3.5530	0.1639	25.95	-0.01	1.500			
0.8060	51585.16	3.5500	3.5500	0.1495	25.95	-0.01	1.500			
0.8064	51612.00	3.5470	3.5470	0.1344	25.95	-0.01	1.500			
0.8068	51636.58	3.5440	3.5440	0.1199	25.95	-0.01	1.500			
0.8072	51658.28	3.5410	3.5410	0.1057	25.95	-0.01	1.500			
0.8075	51677.20	3.5380	3.5381	0.0914	25.95	-0.01	1.500			
0.8077	51693.60	3.5350	3.5352	0.0771	25.95	-0.01	1.500			
0.8079	51707.43	3.5320	3.5321	0.0621	25.95	-0.01	1.500			
0.8081	51717.85	3.5290	3.5295	0.0464	25.95	-0.01	1.500			
0.8082	51725.26	3.5260	3.5270	0.0308	25.95	-0.01	1.500			
