Ah_balance (normalized)	Ah_balance (mAh)	Voltage - fit (V)	Voltage -  interpolate (V)	dQ/dV (1/V)	Temperature (°C)	Temperature - diff (°C)	Current (C)	R_DC 0ms (mOhm)	R_DC 50ms (mOhm)	R_DC 50 ms PEC (mOhm)
0.2799	17912.33	3.9880	3.9881	0.8606	27.29	1.29	1.500			
0.2824	18075.15	3.9850	3.9850	0.8484	27.29	1.29	1.500			
0.2850	18237.77	3.9820	3.9820	0.8473	27.28	1.28	1.500			
0.2875	18400.01	3.9790	3.9790	0.8490	27.28	1.28	1.500			
0.2900	18562.19	3.9760	3.9760	0.8493	27.27	1.27	1.500			
0.2926	18725.97	3.9730	3.9730	0.8528	27.27	1.27	1.500			
0.2952	18890.06	3.9700	3.9700	0.8575	27.26	1.26	1.500			
0.2977	19055.27	3.9670	3.9670	0.8645	27.25	1.25	1.500			
0.3004	19222.60	3.9640	3.9639	0.8634	27.25	1.25	1.500			
0.3030	19388.96	3.9610	3.9610	0.8683	27.24	1.24	1.500			
0.3055	19554.82	3.9580	3.9580	0.8725	27.24	1.24	1.500			
0.3082	19723.59	3.9550	3.9551	0.8740	27.23	1.23	1.500			
0.3108	19891.29	3.9520	3.9519	0.8784	27.23	1.23	1.500			
0.3134	20059.89	3.9490	3.9490	0.8814	27.22	1.22	1.500			
0.3161	20229.25	3.9460	3.9460	0.8852	27.22	1.22	1.500			
0.3188	20400.53	3.9430	3.9430	0.8918	27.21	1.21	1.500			
0.3214	20571.02	3.9400	3.9400	0.8944	27.20	1.20	1.500			
0.3241	20743.53	3.9370	3.9370	0.9005	27.20	1.20	1.500			
0.3268	20917.70	3.9340	3.9340	0.9071	27.19	1.19	1.500			
0.3296	21091.56	3.9310	3.9309	0.9096	27.18	1.18	1.500			
0.3323	21267.31	3.9280	3.9281	0.9150	27.18	1.18	1.500			
0.3351	21443.46	3.9250	3.9249	0.9184	27.17	1.17	1.500			
0.3378	21620.25	3.9220	3.9220	0.9247	27.16	1.16	1.500			
0.3406	21798.04	3.9190	3.9190	0.9315	27.16	1.16	1.500			
0.3434	21977.11	3.9160	3.9160	0.9358	27.15	1.15	1.500			
0.3462	22156.87	3.9130	3.9130	0.9438	27.14	1.14	1.500			
0.3491	22339.88	3.9100	3.9100	0.9468	27.14	1.14	1.500			
0.3519	22520.89	3.9070	3.9070	0.9543	27.13	1.13	1.500			
0.3548	22704.65	3.9040	3.9040	0.9615	27.12	1.12	1.500			
0.3577	22889.85	3.9010	3.9010	0.9672	27.12	1.12	1.500			
0.3606	23076.40	3.8980	3.8979	0.9747	27.11	1.11	1.500			
0.3635	23264.94	3.8950	3.8951	0.9841	27.10	1.10	1.500			
0.3665	23452.94	3.8920	3.8921	0.9939	27.09	1.09	1.500			
0.3695	23646.04	3.8890	3.8889	1.0065	27.08	1.08	1.500			
0.3725	23839.63	3.8860	3.8860	1.0141	27.08	1.08	1.500			
0.3756	24035.29	3.8830	3.8830	1.0251	27.07	1.07	1.500			
0.3786	24232.90	3.8800	3.8801	1.0384	27.06	1.06	1.500			
0.3818	24433.95	3.8770	3.8770	1.0488	27.05	1.05	1.500			
0.3849	24636.65	3.8740	3.8739	1.0568	27.04	1.04	1.500			
0.3881	24839.09	3.8710	3.8710	1.0687	27.03	1.03	1.500			
0.3914	25046.54	3.8680	3.8680	1.0812	27.03	1.03	1.500			
0.3946	25255.99	3.8650	3.8650	1.0925	27.02	1.02	1.500			
0.3979	25465.67	3.8620	3.8620	1.1012	27.01	1.01	1.500			
0.4012	25677.85	3.8590	3.8591	1.1153	27.00	1.00	1.500			
0.4046	25892.91	3.8560	3.8560	1.1352	26.99	0.99	1.500			
0.4080	26111.96	3.8530	3.8530	1.1534	26.99	0.99	1.500			
0.4115	26334.69	3.8500	3.8500	1.1667	26.98	0.98	1.500			
0.4150	26561.35	3.8470	3.8470	1.1912	26.96	0.96	1.500			
0.4186	26791.49	3.8440	3.8441	1.2086	26.95	0.95	1.500			
0.4223	27026.67	3.8410	3.8409	1.2206	26.94	0.94	1.500			
0.4259	27259.75	3.8380	3.8380	1.2406	26.93	0.93	1.500			
0.4297	27499.33	3.8350	3.8350	1.2604	26.92	0.92	1.500			
0.4335	27742.35	3.8320	3.8321	1.2834	26.91	0.91	1.500			
0.4374	27991.67	3.8290	3.8290	1.3078	26.89	0.89	1.500			
0.4413	28244.16	3.8260	3.8261	1.3274	26.88	0.88	1.500			
0.4454	28505.12	3.8230	3.8229	1.3438	26.87	0.87	1.500			
0.4494	28764.09	3.8200	3.8201	1.3677	26.86	0.86	1.500			
0.4535	29027.08	3.8170	3.8170	1.3932	26.85	0.85	1.500			
0.4577	29295.10	3.8140	3.8141	1.4208	26.84	0.84	1.500			
0.4620	29569.90	3.8110	3.8110	1.4525	26.82	0.82	1.500			
0.4664	29851.87	3.8080	3.8081	1.4784	26.81	0.81	1.500			
0.4709	30140.02	3.8050	3.8050	1.5044	26.79	0.79	1.500			
0.4755	30431.50	3.8020	3.8021	1.5315	26.77	0.77	1.500			
0.4801	30725.97	3.7990	3.7990	1.5676	26.76	0.76	1.500			
0.4849	31031.93	3.7960	3.7959	1.5921	26.74	0.74	1.500			
0.4897	31340.59	3.7930	3.7930	1.6195	26.73	0.73	1.500			
0.4947	31658.76	3.7900	3.7900	1.6336	26.71	0.71	1.500			
0.4996	31973.19	3.7870	3.7870	1.6575	26.69	0.69	1.500			
0.5045	32289.33	3.7840	3.7841	1.6874	26.68	0.68	1.500			
0.5096	32614.03	3.7810	3.7808	1.7062	26.66	0.66	1.500			
0.5148	32947.10	3.7780	3.7781	1.7283	26.65	0.65	1.500	0.341	0.470	
0.5201	33285.27	3.7750	3.7751	1.7505	26.63	0.63	1.500			
0.5254	33625.40	3.7720	3.7719	1.7477	26.61	0.61	1.500			
0.5305	33953.33	3.7690	3.7690	1.7356	26.59	0.59	1.500			
0.5357	34287.02	3.7660	3.7661	1.7488	26.58	0.58	1.500			
0.5410	34623.57	3.7630	3.7630	1.7573	26.56	0.56	1.500			
0.5463	34962.02	3.7600	3.7599	1.7540	26.55	0.55	1.500			
0.5515	35297.47	3.7570	3.7570	1.7691	26.53	0.53	1.500			
0.5568	35636.76	3.7540	3.7541	1.7709	26.52	0.52	1.500			
0.5622	35979.42	3.7510	3.7509	1.7868	26.51	0.51	1.500			
0.5675	36322.32	3.7480	3.7481	1.7953	26.50	0.50	1.500			
0.5729	36668.40	3.7450	3.7450	1.8226	26.48	0.48	1.500			
0.5784	37017.77	3.7420	3.7420	1.8442	26.47	0.47	1.500			
0.5840	37373.59	3.7390	3.7390	1.8877	26.46	0.46	1.500			
0.5897	37740.67	3.7360	3.7360	1.9363	26.45	0.45	1.500			
0.5956	38119.54	3.7330	3.7330	1.9489	26.43	0.43	1.500			
0.6015	38493.17	3.7300	3.7301	2.0192	26.42	0.42	1.500			
0.6076	38887.63	3.7270	3.7270	2.0922	26.41	0.41	1.500			
0.6140	39294.92	3.7240	3.7241	2.1778	26.39	0.39	1.500			
0.6207	39724.92	3.7210	3.7210	2.2549	26.37	0.37	1.500			
0.6277	40170.47	3.7180	3.7180	2.3075	26.35	0.35	1.500			
0.6345	40610.26	3.7150	3.7149	2.3298	26.33	0.33	1.500			
0.6416	41060.44	3.7120	3.7121	2.3854	26.31	0.31	1.500			
0.6489	41527.22	3.7090	3.7090	2.4004	26.30	0.30	1.500			
0.6562	41998.03	3.7060	3.7060	2.3754	26.28	0.28	1.500			
0.6634	42456.76	3.7030	3.7030	2.3133	26.26	0.26	1.500			
0.6702	42890.35	3.7000	3.7000	2.1518	26.25	0.25	1.500			
0.6764	43286.57	3.6970	3.6970	2.0099	26.24	0.24	1.500			
0.6821	43653.55	3.6940	3.6941	1.8608	26.23	0.23	1.500			
0.6874	43996.03	3.6910	3.6910	1.7360	26.22	0.22	1.500			
0.6924	44310.62	3.6880	3.6881	1.6225	26.21	0.21	1.500			
0.6971	44614.59	3.6850	3.6850	1.5414	26.20	0.20	1.500			
0.7015	44899.15	3.6820	3.6820	1.4681	26.19	0.19	1.500			
0.7058	45172.61	3.6790	3.6791	1.4057	26.18	0.18	1.500			
0.7099	45433.30	3.6760	3.6760	1.3599	26.17	0.17	1.500			
0.7139	45688.08	3.6730	3.6730	1.3215	26.16	0.16	1.500			
0.7177	45934.87	3.6700	3.6700	1.3013	26.15	0.15	1.500			
0.7216	46180.54	3.6670	3.6670	1.2846	26.14	0.14	1.500			
0.7254	46423.90	3.6640	3.6640	1.2817	26.13	0.13	1.500			
0.7292	46668.50	3.6610	3.6610	1.2798	26.12	0.12	1.500			
0.7331	46915.49	3.6580	3.6580	1.2847	26.11	0.11	1.500			
0.7369	47162.47	3.6550	3.6550	1.2858	26.10	0.10	1.500			
0.7408	47411.21	3.6520	3.6520	1.2881	26.09	0.09	1.500			
0.7447	47658.97	3.6490	3.6491	1.2821	26.08	0.08	1.500			
0.7485	47905.64	3.6460	3.6460	1.2792	26.07	0.07	1.500			
0.7523	48149.69	3.6430	3.6430	1.2689	26.06	0.06	1.500			
0.7561	48392.41	3.6400	3.6400	1.2641	26.05	0.05	1.500			
0.7599	48633.56	3.6370	3.6369	1.2577	26.04	0.04	1.500			
0.7637	48874.87	3.6340	3.6340	1.2534	26.03	0.03	1.500			
0.7674	49115.35	3.6310	3.6310	1.2465	26.02	0.02	1.500			
0.7712	49356.05	3.6280	3.6280	1.2424	26.01	0.01	1.500			
0.7749	49593.91	3.6250	3.6250	1.2311	26.00	0.00	1.500			
0.7786	49830.02	3.6220	3.6220	1.2204	26.00	-0.00	1.500			
0.7822	50063.50	3.6190	3.6190	1.2033	25.99	-0.01	1.500			
0.7858	50292.75	3.6160	3.6159	1.1902	25.98	-0.02	1.500			
0.7894	50520.69	3.6130	3.6130	1.1702	25.98	-0.02	1.500			
0.7929	50744.68	3.6100	3.6100	1.1521	25.97	-0.03	1.500			
0.7963	50963.75	3.6070	3.6070	1.1282	25.97	-0.03	1.500			
0.7997	51178.82	3.6040	3.6041	1.1077	25.97	-0.03	1.500			
0.8030	51389.19	3.6010	3.6010	1.0842	25.97	-0.03	1.500			
0.8062	51595.99	3.5980	3.5980	1.0610	25.96	-0.04	1.500			
0.8093	51796.76	3.5950	3.5950	1.0328	25.96	-0.04	1.500			
0.8125	51997.02	3.5920	3.5920	1.0003	25.96	-0.04	1.500			
0.8154	52187.03	3.5890	3.5890	0.9529	25.97	-0.03	1.500			
0.8183	52373.16	3.5860	3.5860	0.8928	25.97	-0.03	1.500			
0.8209	52540.67	3.5830	3.5830	0.8117	25.98	-0.02	1.500			
0.8233	52692.47	3.5800	3.5800	0.7234	25.98	-0.02	1.500			
0.8253	52821.56	3.5770	3.5771	0.6234	25.98	-0.02	1.500			
0.8270	52929.62	3.5740	3.5740	0.5246	25.99	-0.01	1.500			
0.8284	53017.68	3.5710	3.5710	0.4439	25.99	-0.01	1.500			
0.8295	53089.23	3.5680	3.5680	0.3687	25.99	-0.01	1.500			
0.8305	53151.94	3.5650	3.5649	0.3169	25.99	-0.01	1.500			
0.8313	53205.04	3.5620	3.5619	0.2755	25.99	-0.01	1.500			
0.8321	53253.17	3.5590	3.5590	0.2441	26.00	-0.00	1.500			
0.8327	53295.60	3.5560	3.5559	0.2178	26.00	-0.00	1.500			
0.8334	53334.85	3.5530	3.5530	0.1952	26.00	-0.00	1.500			
0.8339	53369.18	3.5500	3.5501	0.1773	26.00	-0.00	1.500			
0.8344	53400.19	3.5470	3.5470	0.1586	26.00	-0.00	1.500			
0.8348	53429.09	3.5440	3.5440	0.1446	26.00	-0.00	1.500			
0.8352	53455.49	3.5410	3.5410	0.1305	26.00	0.00	1.500			
0.8356	53479.00	3.5380	3.5380	0.1156	26.00	0.00	1.500			
0.8359	53500.12	3.5350	3.5351	0.1022	26.00	0.00	1.500			
0.8362	53518.53	3.5320	3.5321	0.0882	26.00	0.00	1.500			
0.8365	53534.06	3.5290	3.5291	0.0736	26.00	0.00	1.500			
0.8367	53547.02	3.5260	3.5263	0.0589	26.00	0.00	1.500			
0.8368	53556.89	3.5230	3.5236	0.0439	26.00	0.00	1.500			
0.8369	53563.88	3.5200	3.5211	0.0289	26.00	0.00	1.500			
