Ah_balance (normalized)	Ah_balance (mAh)	Voltage - fit (V)	Voltage -  interpolate (V)	dQ/dV (1/V)	Temperature (°C)	Temperature - diff (°C)	Current (C)	R_DC 0ms (mOhm)	R_DC 50ms (mOhm)	R_DC 50 ms PEC (mOhm)
0.1781	11400.51	3.9270	3.9267	-0.0960	25.99	-0.00	-1.500			
0.1785	11421.83	3.9240	3.9239	-0.1230	25.99	-0.00	-1.500			
0.1789	11448.30	3.9210	3.9209	-0.1482	25.99	-0.00	-1.500			
0.1794	11479.43	3.9180	3.9180	-0.1719	25.99	-0.00	-1.500			
0.1799	11514.78	3.9150	3.9151	-0.1952	25.99	-0.00	-1.500			
0.1806	11555.39	3.9120	3.9120	-0.2178	25.99	-0.00	-1.500			
0.1812	11599.30	3.9090	3.9090	-0.2392	25.99	0.00	-1.500			
0.1820	11647.40	3.9060	3.9060	-0.2590	25.99	0.00	-1.500			
0.1828	11699.17	3.9030	3.9030	-0.2790	25.99	0.00	-1.500			
0.1837	11754.58	3.9000	3.9000	-0.2991	25.99	0.00	-1.500			
0.1846	11813.93	3.8970	3.8970	-0.3195	25.99	0.00	-1.500			
0.1856	11877.18	3.8940	3.8940	-0.3392	26.00	0.01	-1.500			
0.1866	11944.27	3.8910	3.8910	-0.3595	26.00	0.01	-1.500			
0.1877	12015.29	3.8880	3.8880	-0.3786	26.00	0.01	-1.500			
0.1889	12090.37	3.8850	3.8850	-0.3980	26.00	0.01	-1.500			
0.1901	12168.75	3.8820	3.8820	-0.4148	26.00	0.01	-1.500			
0.1914	12250.11	3.8790	3.8790	-0.4311	26.00	0.01	-1.500			
0.1927	12334.38	3.8760	3.8760	-0.4480	26.00	0.01	-1.500			
0.1941	12422.30	3.8730	3.8730	-0.4631	26.01	0.02	-1.500			
0.1955	12512.93	3.8700	3.8699	-0.4756	26.01	0.02	-1.500			
0.1970	12606.08	3.8670	3.8670	-0.4892	26.01	0.02	-1.500			
0.1985	12701.27	3.8640	3.8641	-0.5006	26.01	0.02	-1.500			
0.2000	12798.60	3.8610	3.8610	-0.5137	26.01	0.02	-1.500			
0.2015	12897.95	3.8580	3.8580	-0.5260	26.01	0.02	-1.500			
0.2031	13000.55	3.8550	3.8550	-0.5319	26.02	0.03	-1.500			
0.2047	13103.79	3.8520	3.8520	-0.5422	26.02	0.03	-1.500			
0.2064	13209.85	3.8490	3.8491	-0.5507	26.02	0.03	-1.500			
0.2081	13315.72	3.8460	3.8459	-0.5573	26.02	0.03	-1.500			
0.2097	13423.15	3.8430	3.8430	-0.5642	26.03	0.04	-1.500			
0.2114	13531.83	3.8400	3.8400	-0.5707	26.03	0.04	-1.500			
0.2132	13642.89	3.8370	3.8370	-0.5765	26.03	0.04	-1.500			
0.2149	13754.92	3.8340	3.8340	-0.5849	26.03	0.04	-1.500			
0.2167	13867.46	3.8310	3.8310	-0.5869	26.04	0.05	-1.500			
0.2184	13980.64	3.8280	3.8281	-0.5931	26.04	0.05	-1.500			
0.2202	14094.39	3.8250	3.8249	-0.5973	26.04	0.05	-1.500			
0.2220	14209.86	3.8220	3.8220	-0.6018	26.05	0.06	-1.500			
0.2238	14325.94	3.8190	3.8190	-0.6051	26.05	0.06	-1.500			
0.2257	14442.57	3.8160	3.8160	-0.6089	26.05	0.06	-1.500			
0.2275	14560.45	3.8130	3.8130	-0.6103	26.05	0.06	-1.500			
0.2294	14678.65	3.8100	3.8099	-0.6121	26.06	0.07	-1.500			
0.2312	14795.21	3.8070	3.8071	-0.6140	26.06	0.07	-1.500			
0.2330	14913.67	3.8040	3.8040	-0.6165	26.07	0.08	-1.500			
0.2349	15032.43	3.8010	3.8009	-0.6215	26.07	0.08	-1.500			
0.2368	15152.14	3.7980	3.7980	-0.6240	26.08	0.09	-1.500			
0.2386	15271.90	3.7950	3.7950	-0.6262	26.08	0.09	-1.500			
0.2405	15392.19	3.7920	3.7921	-0.6318	26.09	0.10	-1.500			
0.2424	15514.32	3.7890	3.7890	-0.6355	26.09	0.10	-1.500			
0.2443	15636.40	3.7860	3.7860	-0.6368	26.10	0.11	-1.500			
0.2462	15759.71	3.7830	3.7829	-0.6405	26.10	0.11	-1.500			
0.2482	15882.26	3.7800	3.7801	-0.6427	26.11	0.12	-1.500			
0.2501	16006.39	3.7770	3.7770	-0.6493	26.11	0.12	-1.500			
0.2520	16131.14	3.7740	3.7740	-0.6540	26.12	0.13	-1.500			
0.2540	16256.74	3.7710	3.7709	-0.6565	26.12	0.13	-1.500			
0.2560	16384.74	3.7680	3.7681	-0.6579	26.13	0.14	-1.500			
0.2580	16511.66	3.7650	3.7650	-0.6623	26.14	0.15	-1.500			
0.2600	16637.73	3.7620	3.7621	-0.6669	26.14	0.15	-1.500			
0.2620	16765.28	3.7590	3.7589	-0.6694	26.15	0.16	-1.500			
0.2640	16893.84	3.7560	3.7559	-0.6759	26.15	0.16	-1.500			
0.2660	17024.44	3.7530	3.7531	-0.6795	26.16	0.17	-1.500			
0.2681	17156.80	3.7500	3.7501	-0.6881	26.16	0.17	-1.500			
0.2702	17290.08	3.7470	3.7470	-0.6959	26.17	0.18	-1.500			
0.2722	17422.63	3.7440	3.7439	-0.6964	26.18	0.19	-1.500			
0.2743	17557.03	3.7410	3.7410	-0.7001	26.18	0.19	-1.500			
0.2764	17692.45	3.7380	3.7381	-0.7041	26.19	0.20	-1.500			
0.2786	17828.53	3.7350	3.7350	-0.7091	26.19	0.20	-1.500			
0.2807	17964.90	3.7320	3.7319	-0.7152	26.20	0.21	-1.500			
0.2828	18102.01	3.7290	3.7290	-0.7161	26.21	0.22	-1.500			
0.2850	18239.19	3.7260	3.7260	-0.7222	26.21	0.22	-1.500			
0.2872	18378.43	3.7230	3.7230	-0.7334	26.22	0.23	-1.500			
0.2894	18520.40	3.7200	3.7201	-0.7406	26.22	0.23	-1.500			
0.2916	18664.30	3.7170	3.7169	-0.7457	26.23	0.24	-1.500			
0.2939	18807.92	3.7140	3.7141	-0.7497	26.24	0.25	-1.500			
0.2961	18952.00	3.7110	3.7111	-0.7563	26.24	0.25	-1.500			
0.2984	19098.05	3.7080	3.7080	-0.7657	26.25	0.26	-1.500			
0.3007	19244.80	3.7050	3.7049	-0.7697	26.26	0.27	-1.500			
0.3030	19394.35	3.7020	3.7020	-0.7720	26.26	0.27	-1.500			
0.3054	19544.27	3.6990	3.6990	-0.7800	26.27	0.28	-1.500			
0.3077	19693.59	3.6960	3.6961	-0.7874	26.27	0.28	-1.500			
0.3101	19844.75	3.6930	3.6930	-0.7930	26.28	0.29	-1.500			
0.3124	19996.18	3.6900	3.6899	-0.8015	26.29	0.30	-1.500			
0.3148	20150.03	3.6870	3.6870	-0.8115	26.29	0.30	-1.500			
0.3173	20308.49	3.6840	3.6841	-0.8210	26.30	0.31	-1.500			
0.3198	20468.54	3.6810	3.6810	-0.8288	26.30	0.31	-1.500			
0.3223	20628.54	3.6780	3.6781	-0.8338	26.31	0.32	-1.500			
0.3248	20788.24	3.6750	3.6750	-0.8406	26.32	0.33	-1.500			
0.3274	20950.51	3.6720	3.6720	-0.8448	26.32	0.33	-1.500			
0.3299	21112.35	3.6690	3.6689	-0.8524	26.33	0.34	-1.500			
0.3324	21275.89	3.6660	3.6661	-0.8622	26.33	0.34	-1.500			
0.3350	21443.03	3.6630	3.6630	-0.8742	26.34	0.35	-1.500			
0.3377	21611.47	3.6600	3.6599	-0.8851	26.34	0.35	-1.500			
0.3403	21782.29	3.6570	3.6570	-0.8885	26.35	0.36	-1.500			
0.3430	21954.93	3.6540	3.6540	-0.8963	26.35	0.36	-1.500			
0.3458	22128.36	3.6510	3.6510	-0.9109	26.36	0.37	-1.500			
0.3485	22303.51	3.6480	3.6480	-0.9156	26.36	0.37	-1.500			
0.3512	22478.71	3.6450	3.6449	-0.9238	26.37	0.38	-1.500			
0.3540	22657.37	3.6420	3.6420	-0.9327	26.38	0.39	-1.500			
0.3568	22837.62	3.6390	3.6390	-0.9419	26.38	0.39	-1.500			
0.3597	23020.27	3.6360	3.6360	-0.9516	26.39	0.40	-1.500			
0.3625	23203.11	3.6330	3.6330	-0.9610	26.39	0.40	-1.500			
0.3654	23386.74	3.6300	3.6301	-0.9718	26.40	0.41	-1.500			
0.3684	23574.61	3.6270	3.6270	-0.9889	26.40	0.41	-1.500			
0.3713	23765.56	3.6240	3.6239	-1.0068	26.41	0.42	-1.500			
0.3744	23961.36	3.6210	3.6210	-1.0228	26.42	0.43	-1.500			
0.3775	24159.78	3.6180	3.6180	-1.0342	26.42	0.43	-1.500			
0.3806	24361.55	3.6150	3.6151	-1.0463	26.43	0.44	-1.500			
0.3838	24563.07	3.6120	3.6119	-1.0575	26.43	0.44	-1.500			
0.3870	24765.55	3.6090	3.6090	-1.0662	26.44	0.45	-1.500			
0.3902	24971.33	3.6060	3.6060	-1.0741	26.44	0.45	-1.500			
0.3934	25177.46	3.6030	3.6030	-1.0829	26.44	0.45	-1.500			
0.3967	25387.75	3.6000	3.6001	-1.1020	26.45	0.46	-1.500			
0.4000	25599.80	3.5970	3.5970	-1.1195	26.45	0.46	-1.500			
0.4034	25815.56	3.5940	3.5939	-1.1360	26.46	0.47	-1.500			
0.4068	26035.64	3.5910	3.5910	-1.1467	26.46	0.47	-1.500			
0.4103	26258.01	3.5880	3.5880	-1.1625	26.47	0.48	-1.500			
0.4138	26483.27	3.5850	3.5851	-1.1809	26.48	0.49	-1.500			
0.4174	26711.41	3.5820	3.5819	-1.1948	26.49	0.50	-1.500			
0.4209	26940.26	3.5790	3.5790	-1.2107	26.50	0.51	-1.500			
0.4246	27174.43	3.5760	3.5761	-1.2303	26.50	0.51	-1.500			
0.4283	27412.74	3.5730	3.5730	-1.2534	26.51	0.52	-1.500			
0.4321	27656.32	3.5700	3.5700	-1.2779	26.52	0.53	-1.500			
0.4360	27903.21	3.5670	3.5670	-1.2935	26.52	0.53	-1.500			
0.4399	28152.81	3.5640	3.5640	-1.3109	26.53	0.54	-1.500			
0.4439	28408.65	3.5610	3.5611	-1.3300	26.53	0.54	-1.500			
0.4479	28666.27	3.5580	3.5580	-1.3457	26.53	0.54	-1.500			
0.4520	28926.09	3.5550	3.5549	-1.3592	26.54	0.55	-1.500			
0.4561	29187.27	3.5520	3.5521	-1.3751	26.54	0.55	-1.500			
0.4602	29451.45	3.5490	3.5490	-1.3981	26.55	0.56	-1.500			
0.4644	29721.21	3.5460	3.5460	-1.4245	26.55	0.56	-1.500			
0.4687	29997.33	3.5430	3.5430	-1.4425	26.56	0.57	-1.500			
0.4731	30277.80	3.5400	3.5399	-1.4673	26.57	0.58	-1.500			
0.4775	30561.18	3.5370	3.5370	-1.4850	26.57	0.58	-1.500			
0.4820	30849.94	3.5340	3.5340	-1.5026	26.58	0.59	-1.500			
0.4866	31139.53	3.5310	3.5310	-1.5135	26.59	0.60	-1.500			
0.4911	31430.81	3.5280	3.5280	-1.5260	26.60	0.61	-1.500			
0.4957	31726.21	3.5250	3.5249	-1.5415	26.60	0.61	-1.500	0.367	0.549	
0.5004	32025.28	3.5220	3.5219	-1.5548	26.61	0.62	-1.500			
0.5050	32322.34	3.5190	3.5191	-1.5662	26.62	0.63	-1.500			
0.5098	32624.02	3.5160	3.5160	-1.5759	26.63	0.64	-1.500			
0.5145	32927.35	3.5130	3.5130	-1.5890	26.63	0.64	-1.500			
0.5193	33238.15	3.5100	3.5100	-1.5988	26.64	0.65	-1.500			
0.5242	33547.56	3.5070	3.5069	-1.6103	26.65	0.66	-1.500			
0.5290	33858.06	3.5040	3.5040	-1.6081	26.66	0.67	-1.500			
0.5338	34166.27	3.5010	3.5009	-1.6113	26.67	0.68	-1.500			
0.5386	34472.40	3.4980	3.4980	-1.6113	26.68	0.69	-1.500			
0.5435	34782.18	3.4950	3.4950	-1.6217	26.69	0.70	-1.500			
0.5483	35092.51	3.4920	3.4920	-1.6170	26.70	0.71	-1.500			
0.5533	35408.17	3.4890	3.4890	-1.6316	26.71	0.72	-1.500			
0.5582	35722.34	3.4860	3.4860	-1.6326	26.73	0.74	-1.500			
0.5631	36036.33	3.4830	3.4830	-1.6249	26.74	0.75	-1.500			
0.5679	36347.86	3.4800	3.4800	-1.6140	26.75	0.76	-1.500			
0.5728	36657.81	3.4770	3.4770	-1.6061	26.76	0.77	-1.500			
0.5776	36966.72	3.4740	3.4739	-1.5966	26.77	0.78	-1.500			
0.5824	37272.40	3.4710	3.4710	-1.5804	26.78	0.79	-1.500			
0.5871	37572.01	3.4680	3.4680	-1.5604	26.79	0.80	-1.500			
0.5917	37869.51	3.4650	3.4650	-1.5483	26.81	0.82	-1.500			
0.5963	38163.51	3.4620	3.4620	-1.5322	26.82	0.83	-1.500			
0.6010	38461.10	3.4590	3.4590	-1.5197	26.83	0.84	-1.500			
0.6055	38750.15	3.4560	3.4560	-1.4996	26.84	0.85	-1.500			
0.6100	39037.27	3.4530	3.4530	-1.4791	26.85	0.86	-1.500			
0.6144	39318.51	3.4500	3.4499	-1.4597	26.87	0.88	-1.500			
0.6187	39596.15	3.4470	3.4470	-1.4489	26.89	0.90	-1.500			
0.6230	39873.81	3.4440	3.4439	-1.4242	26.90	0.91	-1.500			
0.6273	40147.78	3.4410	3.4409	-1.4066	26.92	0.93	-1.500			
0.6315	40416.64	3.4380	3.4382	-1.3887	26.93	0.94	-1.500			
0.6356	40680.77	3.4350	3.4350	-1.3658	26.94	0.95	-1.500			
0.6397	40940.44	3.4320	3.4319	-1.3498	26.96	0.97	-1.500			
0.6437	41194.27	3.4290	3.4290	-1.3283	26.97	0.98	-1.500			
0.6477	41450.82	3.4260	3.4260	-1.3183	26.98	0.99	-1.500			
0.6516	41702.80	3.4230	3.4230	-1.2960	27.00	1.01	-1.500			
0.6555	41950.31	3.4200	3.4201	-1.2773	27.01	1.02	-1.500			
0.6593	42193.15	3.4170	3.4169	-1.2505	27.03	1.04	-1.500			
0.6630	42430.56	3.4140	3.4139	-1.2250	27.04	1.05	-1.500			
0.6666	42663.14	3.4110	3.4111	-1.1985	27.06	1.07	-1.500			
0.6702	42891.41	3.4080	3.4079	-1.1722	27.08	1.09	-1.500			
0.6737	43117.25	3.4050	3.4050	-1.1475	27.09	1.10	-1.500			
0.6771	43334.63	3.4020	3.4020	-1.1158	27.11	1.12	-1.500			
0.6804	43544.57	3.3990	3.3991	-1.0842	27.11	1.12	-1.500			
0.6836	43750.37	3.3960	3.3959	-1.0584	27.12	1.13	-1.500			
0.6867	43948.80	3.3930	3.3929	-1.0256	27.13	1.14	-1.500			
0.6897	44143.27	3.3900	3.3900	-0.9920	27.15	1.16	-1.500			
0.6927	44330.76	3.3870	3.3871	-0.9656	27.16	1.17	-1.500			
0.6955	44514.85	3.3840	3.3841	-0.9392	27.17	1.18	-1.500			
0.6983	44691.75	3.3810	3.3809	-0.9146	27.18	1.19	-1.500			
0.7010	44862.48	3.3780	3.3780	-0.8877	27.19	1.20	-1.500			
0.7036	45030.90	3.3750	3.3750	-0.8653	27.21	1.22	-1.500			
0.7062	45196.13	3.3720	3.3720	-0.8450	27.21	1.22	-1.500			
0.7087	45357.03	3.3690	3.3690	-0.8206	27.22	1.23	-1.500			
0.7111	45510.57	3.3660	3.3661	-0.7955	27.23	1.24	-1.500			
0.7135	45660.87	3.3630	3.3630	-0.7754	27.24	1.25	-1.500			
0.7158	45808.01	3.3600	3.3600	-0.7522	27.25	1.26	-1.500			
0.7180	45950.32	3.3570	3.3569	-0.7328	27.26	1.27	-1.500			
0.7201	46088.59	3.3540	3.3540	-0.7150	27.27	1.28	-1.500			
0.7223	46224.41	3.3510	3.3511	-0.6948	27.28	1.29	-1.500			
0.7243	46356.35	3.3480	3.3478	-0.6775	27.29	1.30	-1.500			
0.7263	46483.61	3.3450	3.3450	-0.6591	27.30	1.31	-1.500			
0.7283	46608.19	3.3420	3.3420	-0.6384	27.31	1.32	-1.500			
0.7301	46728.82	3.3390	3.3390	-0.6254	27.31	1.32	-1.500			
0.7320	46847.28	3.3360	3.3360	-0.6076	27.32	1.33	-1.500			
0.7338	46962.43	3.3330	3.3330	-0.5918	27.32	1.33	-1.500			
0.7355	47074.79	3.3300	3.3300	-0.5772	27.33	1.34	-1.500			
0.7372	47183.59	3.3270	3.3271	-0.5619	27.34	1.35	-1.500			
0.7389	47289.99	3.3240	3.3240	-0.5500	27.35	1.36	-1.500			
0.7405	47395.02	3.3210	3.3210	-0.5378	27.36	1.37	-1.500			
0.7421	47496.30	3.3180	3.3179	-0.5210	27.37	1.38	-1.500			
0.7437	47595.42	3.3150	3.3151	-0.5096	27.37	1.38	-1.500			
0.7452	47692.09	3.3120	3.3120	-0.4953	27.38	1.39	-1.500			
0.7466	47785.45	3.3090	3.3090	-0.4827	27.39	1.40	-1.500			
0.7481	47876.68	3.3060	3.3059	-0.4699	27.40	1.41	-1.500			
0.7494	47964.79	3.3030	3.3030	-0.4564	27.40	1.41	-1.500			
0.7508	48051.54	3.3000	3.3000	-0.4467	27.41	1.42	-1.500			
0.7521	48136.60	3.2970	3.2970	-0.4383	27.41	1.42	-1.500			
0.7534	48219.60	3.2940	3.2940	-0.4260	27.42	1.43	-1.500			
0.7547	48300.35	3.2910	3.2909	-0.4155	27.42	1.43	-1.500			
0.7559	48378.87	3.2880	3.2881	-0.4044	27.43	1.44	-1.500			
0.7571	48455.83	3.2850	3.2850	-0.3935	27.44	1.45	-1.500			
0.7583	48530.10	3.2820	3.2819	-0.3836	27.44	1.45	-1.500			
0.7594	48601.98	3.2790	3.2791	-0.3740	27.45	1.46	-1.500			
0.7605	48672.81	3.2760	3.2760	-0.3657	27.46	1.47	-1.500			
0.7616	48742.87	3.2730	3.2729	-0.3597	27.46	1.47	-1.500			
0.7627	48811.03	3.2700	3.2700	-0.3519	27.47	1.48	-1.500			
0.7637	48877.70	3.2670	3.2670	-0.3451	27.48	1.49	-1.500			
0.7647	48943.63	3.2640	3.2641	-0.3370	27.48	1.49	-1.500			
0.7657	49007.25	3.2610	3.2610	-0.3296	27.49	1.50	-1.500			
0.7667	49069.95	3.2580	3.2580	-0.3225	27.49	1.50	-1.500			
0.7677	49131.16	3.2550	3.2550	-0.3153	27.50	1.51	-1.500			
0.7686	49190.54	3.2520	3.2520	-0.3091	27.51	1.52	-1.500			
0.7695	49249.41	3.2490	3.2490	-0.3027	27.51	1.52	-1.500			
0.7704	49306.98	3.2460	3.2460	-0.2964	27.52	1.53	-1.500			
0.7713	49363.70	3.2430	3.2430	-0.2909	27.52	1.53	-1.500			
0.7722	49418.64	3.2400	3.2399	-0.2836	27.53	1.54	-1.500			
0.7730	49472.51	3.2370	3.2371	-0.2785	27.53	1.54	-1.500			
0.7738	49525.19	3.2340	3.2340	-0.2731	27.54	1.55	-1.500			
0.7746	49576.61	3.2310	3.2310	-0.2674	27.54	1.55	-1.500			
0.7754	49627.72	3.2280	3.2280	-0.2633	27.55	1.56	-1.500			
0.7762	49677.61	3.2250	3.2250	-0.2594	27.56	1.57	-1.500			
0.7770	49727.11	3.2220	3.2220	-0.2560	27.56	1.57	-1.500			
0.7778	49776.12	3.2190	3.2190	-0.2524	27.57	1.58	-1.500			
0.7785	49823.83	3.2160	3.2160	-0.2481	27.57	1.58	-1.500			
0.7792	49871.34	3.2130	3.2130	-0.2447	27.58	1.59	-1.500			
0.7800	49918.15	3.2100	3.2101	-0.2402	27.58	1.59	-1.500			
0.7807	49963.84	3.2070	3.2070	-0.2365	27.59	1.60	-1.500			
0.7814	50008.79	3.2040	3.2040	-0.2329	27.59	1.60	-1.500			
0.7821	50052.74	3.2010	3.2010	-0.2286	27.60	1.61	-1.500			
0.7828	50096.21	3.1980	3.1979	-0.2256	27.61	1.62	-1.500			
0.7834	50139.19	3.1950	3.1950	-0.2230	27.61	1.62	-1.500			
0.7841	50181.82	3.1920	3.1920	-0.2200	27.62	1.63	-1.500			
0.7847	50223.80	3.1890	3.1890	-0.2173	27.62	1.63	-1.500			
0.7854	50265.28	3.1860	3.1860	-0.2161	27.63	1.64	-1.500			
0.7860	50306.36	3.1830	3.1830	-0.2135	27.64	1.65	-1.500			
0.7867	50347.44	3.1800	3.1799	-0.2110	27.64	1.65	-1.500			
0.7873	50387.71	3.1770	3.1770	-0.2085	27.65	1.66	-1.500			
0.7879	50427.66	3.1740	3.1741	-0.2056	27.65	1.66	-1.500			
0.7885	50466.78	3.1710	3.1711	-0.2036	27.66	1.67	-1.500			
0.7892	50505.64	3.1680	3.1679	-0.2012	27.66	1.67	-1.500			
0.7898	50544.02	3.1650	3.1650	-0.1986	27.67	1.68	-1.500			
0.7903	50581.36	3.1620	3.1619	-0.1961	27.67	1.68	-1.500			
0.7909	50619.06	3.1590	3.1591	-0.1938	27.68	1.69	-1.500			
0.7915	50656.19	3.1560	3.1560	-0.1924	27.68	1.69	-1.500			
0.7921	50692.77	3.1530	3.1530	-0.1906	27.69	1.70	-1.500			
0.7926	50729.11	3.1500	3.1500	-0.1886	27.69	1.70	-1.500			
0.7932	50764.74	3.1470	3.1470	-0.1871	27.70	1.71	-1.500			
0.7938	50800.68	3.1440	3.1440	-0.1858	27.71	1.72	-1.500			
0.7943	50836.73	3.1410	3.1410	-0.1839	27.71	1.72	-1.500			
0.7949	50871.80	3.1380	3.1380	-0.1815	27.72	1.73	-1.500			
0.7954	50906.75	3.1350	3.1351	-0.1801	27.72	1.73	-1.500			
0.7959	50940.79	3.1320	3.1321	-0.1782	27.73	1.74	-1.500			
0.7965	50974.59	3.1290	3.1289	-0.1761	27.73	1.74	-1.500			
0.7970	51008.29	3.1260	3.1260	-0.1749	27.74	1.75	-1.500			
0.7975	51041.54	3.1230	3.1230	-0.1729	27.75	1.76	-1.500			
0.7980	51074.61	3.1200	3.1201	-0.1721	27.75	1.76	-1.500			
0.7986	51107.86	3.1170	3.1170	-0.1718	27.76	1.77	-1.500			
0.7991	51140.68	3.1140	3.1140	-0.1701	27.76	1.77	-1.500			
0.7996	51173.03	3.1110	3.1109	-0.1681	27.77	1.78	-1.500			
0.8001	51205.09	3.1080	3.1081	-0.1667	27.77	1.78	-1.500			
0.8006	51237.07	3.1050	3.1050	-0.1656	27.78	1.79	-1.500			
0.8011	51268.65	3.1020	3.1020	-0.1645	27.78	1.79	-1.500			
0.8016	51300.19	3.0990	3.0990	-0.1635	27.79	1.80	-1.500			
0.8021	51331.32	3.0960	3.0960	-0.1618	27.79	1.80	-1.500			
0.8025	51362.34	3.0930	3.0930	-0.1609	27.80	1.81	-1.500			
0.8030	51393.08	3.0900	3.0901	-0.1600	27.80	1.81	-1.500			
0.8035	51423.80	3.0870	3.0870	-0.1591	27.81	1.82	-1.500			
0.8040	51454.20	3.0840	3.0840	-0.1578	27.81	1.82	-1.500			
0.8044	51484.38	3.0810	3.0809	-0.1566	27.82	1.83	-1.500			
0.8049	51514.34	3.0780	3.0780	-0.1552	27.82	1.83	-1.500			
0.8054	51544.05	3.0750	3.0750	-0.1541	27.82	1.83	-1.500			
0.8058	51573.57	3.0720	3.0720	-0.1530	27.83	1.84	-1.500			
0.8063	51602.81	3.0690	3.0689	-0.1516	27.83	1.84	-1.500			
0.8067	51631.56	3.0660	3.0660	-0.1508	27.84	1.85	-1.500			
0.8072	51660.48	3.0630	3.0630	-0.1497	27.85	1.86	-1.500			
0.8076	51689.12	3.0600	3.0600	-0.1489	27.85	1.86	-1.500			
0.8081	51717.62	3.0570	3.0570	-0.1480	27.86	1.87	-1.500			
0.8085	51746.07	3.0540	3.0540	-0.1470	27.86	1.87	-1.500			
0.8090	51774.27	3.0510	3.0509	-0.1457	27.87	1.88	-1.500			
0.8094	51802.07	3.0480	3.0480	-0.1447	27.88	1.89	-1.500			
0.8098	51829.74	3.0450	3.0450	-0.1435	27.88	1.89	-1.500			
0.8103	51856.93	3.0420	3.0420	-0.1428	27.89	1.90	-1.500			
0.8107	51884.28	3.0390	3.0389	-0.1425	27.89	1.90	-1.500			
0.8111	51911.68	3.0360	3.0360	-0.1414	27.90	1.91	-1.500			
0.8115	51938.77	3.0330	3.0329	-0.1408	27.90	1.91	-1.500			
0.8120	51965.83	3.0300	3.0300	-0.1403	27.91	1.92	-1.500			
0.8124	51992.80	3.0270	3.0270	-0.1399	27.92	1.93	-1.500			
0.8128	52019.68	3.0240	3.0240	-0.1386	27.92	1.93	-1.500			
0.8132	52046.17	3.0210	3.0209	-0.1374	27.93	1.94	-1.500			
0.8136	52072.35	3.0180	3.0180	-0.1363	27.93	1.94	-1.500			
0.8140	52098.29	3.0150	3.0151	-0.1357	27.94	1.95	-1.500			
0.8144	52124.40	3.0120	3.0120	-0.1352	27.94	1.95	-1.500			
0.8148	52150.28	3.0090	3.0089	-0.1344	27.95	1.96	-1.500			
0.8152	52175.78	3.0060	3.0060	-0.1346	27.95	1.96	-1.500			
0.8157	52201.68	3.0030	3.0029	-0.1375	27.96	1.97	-1.500			
