Ah_balance (normalized)	Ah_balance (mAh)	Voltage - fit (V)	Voltage -  interpolate (V)	dQ/dV (1/V)	Temperature (°C)	Temperature - diff (°C)	Current (C)	R_DC 0ms (mOhm)	R_DC 50ms (mOhm)	R_DC 50 ms PEC (mOhm)
0.2960	18941.75	3.9730	3.9730	0.8514	27.00	1.06	1.500			
0.2986	19109.26	3.9700	3.9700	0.8801	26.99	1.05	1.500			
0.3013	19280.11	3.9670	3.9669	0.8890	26.99	1.05	1.500			
0.3040	19452.86	3.9640	3.9640	0.8892	26.99	1.05	1.500			
0.3066	19624.65	3.9610	3.9611	0.8898	26.98	1.04	1.500			
0.3093	19794.78	3.9580	3.9580	0.8873	26.98	1.04	1.500			
0.3119	19964.77	3.9550	3.9550	0.8879	26.97	1.03	1.500			
0.3146	20131.73	3.9520	3.9520	0.8851	26.97	1.03	1.500			
0.3172	20301.55	3.9490	3.9490	0.8926	26.96	1.02	1.500			
0.3199	20474.73	3.9460	3.9460	0.8983	26.96	1.02	1.500			
0.3226	20648.81	3.9430	3.9430	0.9043	26.96	1.02	1.500			
0.3254	20823.38	3.9400	3.9400	0.9099	26.95	1.01	1.500			
0.3281	20999.26	3.9370	3.9370	0.9122	26.95	1.01	1.500			
0.3308	21173.87	3.9340	3.9339	0.9114	26.94	1.00	1.500			
0.3336	21348.69	3.9310	3.9310	0.9153	26.94	1.00	1.500			
0.3363	21523.28	3.9280	3.9281	0.9190	26.94	1.00	1.500			
0.3391	21700.58	3.9250	3.9249	0.9265	26.93	0.99	1.500			
0.3419	21878.58	3.9220	3.9220	0.9379	26.93	0.99	1.500			
0.3447	22058.15	3.9190	3.9190	0.9440	26.93	0.99	1.500			
0.3475	22241.57	3.9160	3.9160	0.9524	26.92	0.98	1.500			
0.3504	22426.54	3.9130	3.9130	0.9564	26.92	0.98	1.500			
0.3533	22609.78	3.9100	3.9100	0.9613	26.92	0.98	1.500			
0.3562	22794.56	3.9070	3.9071	0.9676	26.91	0.97	1.500			
0.3591	22980.92	3.9040	3.9039	0.9759	26.91	0.97	1.500			
0.3620	23167.12	3.9010	3.9010	0.9827	26.90	0.96	1.500			
0.3650	23358.25	3.8980	3.8980	0.9933	26.90	0.96	1.500			
0.3680	23551.53	3.8950	3.8950	1.0003	26.89	0.95	1.500			
0.3710	23745.22	3.8920	3.8919	1.0033	26.88	0.94	1.500			
0.3740	23937.02	3.8890	3.8890	1.0087	26.88	0.94	1.500			
0.3770	24129.43	3.8860	3.8861	1.0144	26.87	0.93	1.500			
0.3801	24323.81	3.8830	3.8831	1.0280	26.86	0.92	1.500			
0.3831	24520.87	3.8800	3.8800	1.0427	26.86	0.92	1.500			
0.3863	24723.87	3.8770	3.8770	1.0561	26.85	0.91	1.500			
0.3895	24929.53	3.8740	3.8740	1.0720	26.85	0.91	1.500			
0.3928	25136.09	3.8710	3.8710	1.0848	26.84	0.90	1.500			
0.3960	25346.52	3.8680	3.8679	1.0935	26.84	0.90	1.500			
0.3993	25556.84	3.8650	3.8650	1.1043	26.83	0.89	1.500			
0.4026	25769.08	3.8620	3.8620	1.1165	26.83	0.89	1.500			
0.4060	25983.87	3.8590	3.8590	1.1319	26.82	0.88	1.500			
0.4094	26203.64	3.8560	3.8560	1.1499	26.82	0.88	1.500			
0.4129	26425.21	3.8530	3.8530	1.1640	26.81	0.87	1.500			
0.4164	26649.81	3.8500	3.8500	1.1849	26.81	0.87	1.500			
0.4200	26880.79	3.8470	3.8470	1.2037	26.80	0.86	1.500			
0.4236	27111.75	3.8440	3.8440	1.2215	26.79	0.85	1.500			
0.4273	27348.36	3.8410	3.8411	1.2435	26.79	0.85	1.500			
0.4311	27588.56	3.8380	3.8380	1.2616	26.78	0.84	1.500			
0.4349	27833.69	3.8350	3.8349	1.2800	26.78	0.84	1.500			
0.4387	28079.88	3.8320	3.8321	1.3053	26.77	0.83	1.500			
0.4427	28332.30	3.8290	3.8290	1.3252	26.76	0.82	1.500			
0.4467	28588.69	3.8260	3.8260	1.3541	26.75	0.81	1.500			
0.4508	28850.43	3.8230	3.8230	1.3880	26.74	0.80	1.500			
0.4550	29118.11	3.8200	3.8201	1.4229	26.74	0.80	1.500			
0.4593	29396.12	3.8170	3.8170	1.4564	26.73	0.79	1.500			
0.4638	29680.96	3.8140	3.8141	1.4893	26.71	0.77	1.500			
0.4683	29969.85	3.8110	3.8110	1.5082	26.70	0.76	1.500			
0.4728	30261.95	3.8080	3.8080	1.5525	26.69	0.75	1.500			
0.4775	30557.45	3.8050	3.8051	1.5958	26.67	0.73	1.500			
0.4823	30866.63	3.8020	3.8018	1.6435	26.66	0.72	1.500			
0.4873	31187.90	3.7990	3.7990	1.6777	26.65	0.71	1.500			
0.4924	31514.48	3.7960	3.7961	1.7168	26.64	0.70	1.500			
0.4977	31851.38	3.7930	3.7931	1.7574	26.62	0.68	1.500			
0.5029	32185.19	3.7900	3.7900	1.8033	26.61	0.67	1.500			
0.5084	32534.89	3.7870	3.7868	1.8615	26.60	0.66	1.500			
0.5140	32897.03	3.7840	3.7841	1.9183	26.58	0.64	1.500			
0.5199	33276.61	3.7810	3.7810	1.9599	26.57	0.63	1.500			
0.5258	33653.04	3.7780	3.7781	1.9804	26.56	0.62	1.500			
0.5318	34037.86	3.7750	3.7749	2.0132	26.54	0.60	1.500			
0.5379	34425.81	3.7720	3.7721	2.0363	26.53	0.59	1.500			
0.5441	34819.29	3.7690	3.7690	2.0823	26.51	0.57	1.500			
0.5504	35224.73	3.7660	3.7660	2.1094	26.50	0.56	1.500			
0.5568	35632.02	3.7630	3.7629	2.1344	26.48	0.54	1.500	0.355	0.455	
0.5633	36048.10	3.7600	3.7601	2.1233	26.46	0.52	1.500			
0.5696	36454.01	3.7570	3.7570	2.0832	26.44	0.50	1.500			
0.5757	36843.03	3.7540	3.7540	2.0313	26.42	0.48	1.500			
0.5817	37230.69	3.7510	3.7507	2.0070	26.40	0.46	1.500			
0.5877	37610.72	3.7480	3.7482	2.0010	26.39	0.45	1.500			
0.5937	37997.39	3.7450	3.7450	2.0017	26.37	0.43	1.500			
0.5997	38381.37	3.7420	3.7419	1.9991	26.36	0.42	1.500			
0.6057	38767.02	3.7390	3.7390	2.0126	26.34	0.40	1.500			
0.6119	39160.09	3.7360	3.7361	2.0311	26.33	0.39	1.500			
0.6180	39548.95	3.7330	3.7330	2.0340	26.31	0.37	1.500			
0.6240	39937.54	3.7300	3.7300	2.0689	26.30	0.36	1.500			
0.6302	40333.57	3.7270	3.7270	2.1076	26.29	0.35	1.500			
0.6366	40742.69	3.7240	3.7240	2.1708	26.27	0.33	1.500			
0.6432	41165.79	3.7210	3.7210	2.2033	26.26	0.32	1.500			
0.6498	41587.75	3.7180	3.7181	2.2683	26.25	0.31	1.500			
0.6566	42020.70	3.7150	3.7148	2.3727	26.23	0.29	1.500			
0.6638	42485.94	3.7120	3.7121	2.5250	26.22	0.28	1.500			
0.6716	42980.10	3.7090	3.7091	2.5822	26.20	0.26	1.500			
0.6796	43491.70	3.7060	3.7060	2.6314	26.19	0.25	1.500			
0.6875	44001.85	3.7030	3.7030	2.6915	26.17	0.23	1.500			
0.6956	44519.94	3.7000	3.7000	2.6801	26.16	0.22	1.500			
0.7038	45043.19	3.6970	3.6970	2.6455	26.15	0.21	1.500			
0.7117	45548.53	3.6940	3.6941	2.5441	26.13	0.19	1.500			
0.7192	46031.60	3.6910	3.6910	2.3847	26.12	0.18	1.500			
0.7262	46474.65	3.6880	3.6881	2.2086	26.11	0.17	1.500			
0.7324	46872.05	3.6850	3.6847	2.0115	26.10	0.16	1.500			
0.7381	47238.37	3.6820	3.6821	1.8610	26.10	0.16	1.500			
0.7434	47579.14	3.6790	3.6790	1.7179	26.09	0.15	1.500			
0.7483	47892.00	3.6760	3.6760	1.6232	26.09	0.15	1.500			
0.7529	48188.24	3.6730	3.6730	1.5208	26.08	0.14	1.500			
0.7573	48469.72	3.6700	3.6698	1.4483	26.08	0.14	1.500			
0.7616	48739.98	3.6670	3.6671	1.3892	26.07	0.13	1.500			
0.7656	48997.90	3.6640	3.6640	1.3366	26.07	0.13	1.500			
0.7695	49248.73	3.6610	3.6610	1.2886	26.06	0.12	1.500			
0.7732	49487.15	3.6580	3.6580	1.2577	26.05	0.11	1.500			
0.7769	49723.29	3.6550	3.6550	1.2458	26.05	0.11	1.500			
0.7806	49957.96	3.6520	3.6521	1.2442	26.04	0.10	1.500			
0.7843	50195.91	3.6490	3.6490	1.2540	26.04	0.10	1.500			
0.7881	50436.66	3.6460	3.6460	1.2647	26.03	0.09	1.500			
0.7919	50682.54	3.6430	3.6430	1.2840	26.02	0.08	1.500			
0.7958	50932.81	3.6400	3.6400	1.2936	26.02	0.08	1.500			
0.7997	51180.30	3.6370	3.6370	1.2954	26.01	0.07	1.500			
0.8036	51429.62	3.6340	3.6341	1.3031	26.01	0.07	1.500			
0.8075	51681.58	3.6310	3.6309	1.3047	26.00	0.06	1.500			
0.8115	51933.01	3.6280	3.6280	1.3033	25.99	0.05	1.500			
0.8154	52184.01	3.6250	3.6250	1.3007	25.98	0.04	1.500			
0.8193	52433.28	3.6220	3.6220	1.2988	25.98	0.04	1.500			
0.8232	52682.09	3.6190	3.6190	1.2945	25.97	0.03	1.500			
0.8270	52930.79	3.6160	3.6160	1.2918	25.96	0.02	1.500			
0.8309	53177.82	3.6130	3.6130	1.2849	25.95	0.01	1.500			
0.8348	53425.65	3.6100	3.6100	1.2798	25.95	0.01	1.500			
0.8386	53672.01	3.6070	3.6070	1.2722	25.95	0.01	1.500			
0.8424	53915.68	3.6040	3.6040	1.2577	25.95	0.01	1.500			
0.8462	54157.14	3.6010	3.6010	1.2390	25.94	0.00	1.500			
0.8499	54393.87	3.5980	3.5980	1.2203	25.94	0.00	1.500			
0.8535	54624.87	3.5950	3.5950	1.2045	25.94	0.00	1.500			
0.8571	54853.73	3.5920	3.5920	1.1901	25.94	0.00	1.500			
0.8606	55079.24	3.5890	3.5890	1.1778	25.94	0.00	1.500			
0.8641	55303.06	3.5860	3.5859	1.1715	25.94	0.00	1.500			
0.8676	55527.11	3.5830	3.5831	1.1707	25.94	0.00	1.500			
0.8712	55754.14	3.5800	3.5800	1.1571	25.94	0.00	1.500			
0.8747	55980.13	3.5770	3.5769	1.1320	25.94	0.00	1.500			
0.8782	56203.43	3.5740	3.5740	1.0682	25.94	0.00	1.500			
0.8815	56413.09	3.5710	3.5710	0.9910	25.94	0.00	1.500			
0.8844	56600.48	3.5680	3.5681	0.8711	25.94	0.00	1.500			
0.8869	56760.43	3.5650	3.5651	0.7465	25.94	0.00	1.500			
0.8888	56885.43	3.5620	3.5621	0.6239	25.94	0.00	1.500			
0.8904	56985.16	3.5590	3.5590	0.5089	25.94	0.00	1.500			
0.8916	57062.55	3.5560	3.5559	0.4052	25.94	0.00	1.500			
0.8926	57127.49	3.5530	3.5531	0.3399	25.94	0.00	1.500			
0.8935	57183.55	3.5500	3.5499	0.2834	25.94	0.00	1.500			
0.8942	57231.34	3.5470	3.5469	0.2478	25.94	0.00	1.500			
0.8949	57272.44	3.5440	3.5440	0.2162	25.94	0.00	1.500			
0.8955	57310.45	3.5410	3.5409	0.1948	25.94	0.00	1.500			
0.8960	57345.57	3.5380	3.5381	0.1752	25.94	0.00	1.500			
0.8965	57376.27	3.5350	3.5350	0.1580	25.94	0.00	1.500			
0.8970	57405.02	3.5320	3.5320	0.1429	25.94	0.00	1.500			
0.8974	57430.90	3.5290	3.5290	0.1276	25.94	0.00	1.500			
0.8977	57454.06	3.5260	3.5260	0.1136	25.94	0.00	1.500			
0.8980	57474.68	3.5230	3.5231	0.0997	25.94	0.00	1.500			
0.8983	57492.66	3.5200	3.5200	0.0856	25.94	0.00	1.500			
0.8986	57507.68	3.5170	3.5173	0.0709	25.94	0.00	1.500			
0.8988	57520.18	3.5140	3.5144	0.0552	25.94	0.00	1.500			
0.8989	57529.27	3.5110	3.5116	0.0396	25.94	0.00	1.500			
