Ah_balance (normalized)	Ah_balance (mAh)	Voltage - fit (V)	Voltage -  interpolate (V)	dQ/dV (1/V)	Temperature (°C)	Temperature - diff (°C)	Current (C)	R_DC 0ms (mOhm)	R_DC 50ms (mOhm)	R_DC 50 ms PEC (mOhm)
0.2797	17902.16	3.9840	3.9840	0.8414	27.06	1.12	1.500			
0.2823	18064.96	3.9810	3.9811	0.8502	27.06	1.12	1.500			
0.2848	18228.55	3.9780	3.9780	0.8531	27.05	1.11	1.500			
0.2874	18392.22	3.9750	3.9749	0.8569	27.05	1.11	1.500			
0.2900	18558.47	3.9720	3.9720	0.8565	27.05	1.11	1.500			
0.2925	18722.08	3.9690	3.9690	0.8631	27.04	1.10	1.500			
0.2951	18887.54	3.9660	3.9660	0.8702	27.04	1.10	1.500			
0.2977	19055.92	3.9630	3.9631	0.8734	27.03	1.09	1.500			
0.3004	19223.83	3.9600	3.9599	0.8785	27.03	1.09	1.500			
0.3030	19392.90	3.9570	3.9570	0.8823	27.02	1.08	1.500			
0.3057	19563.50	3.9540	3.9540	0.8842	27.02	1.08	1.500			
0.3083	19733.65	3.9510	3.9510	0.8895	27.02	1.08	1.500			
0.3110	19903.32	3.9480	3.9480	0.8903	27.01	1.07	1.500			
0.3137	20075.94	3.9450	3.9450	0.8928	27.01	1.07	1.500			
0.3164	20248.08	3.9420	3.9420	0.9008	27.00	1.06	1.500			
0.3191	20421.25	3.9390	3.9390	0.9012	27.00	1.06	1.500			
0.3218	20594.33	3.9360	3.9360	0.9046	26.99	1.05	1.500			
0.3245	20767.50	3.9330	3.9329	0.9128	26.99	1.05	1.500			
0.3272	20942.84	3.9300	3.9301	0.9157	26.98	1.04	1.500			
0.3300	21119.87	3.9270	3.9269	0.9209	26.98	1.04	1.500			
0.3328	21297.42	3.9240	3.9240	0.9294	26.97	1.03	1.500			
0.3356	21475.95	3.9210	3.9211	0.9351	26.97	1.03	1.500			
0.3384	21659.17	3.9180	3.9179	0.9392	26.96	1.02	1.500			
0.3412	21838.19	3.9150	3.9149	0.9413	26.96	1.02	1.500			
0.3440	22016.84	3.9120	3.9121	0.9419	26.95	1.01	1.500			
0.3469	22199.03	3.9090	3.9090	0.9519	26.95	1.01	1.500			
0.3497	22382.16	3.9060	3.9059	0.9593	26.94	1.00	1.500			
0.3526	22566.47	3.9030	3.9030	0.9653	26.93	0.99	1.500			
0.3555	22751.81	3.9000	3.9001	0.9783	26.93	0.99	1.500			
0.3585	22943.32	3.8970	3.8969	0.9880	26.93	0.99	1.500			
0.3615	23133.32	3.8940	3.8940	0.9931	26.92	0.98	1.500			
0.3644	23324.71	3.8910	3.8909	1.0022	26.92	0.98	1.500			
0.3675	23517.80	3.8880	3.8881	1.0091	26.91	0.97	1.500			
0.3705	23711.94	3.8850	3.8849	1.0179	26.91	0.97	1.500			
0.3736	23908.52	3.8820	3.8820	1.0242	26.90	0.96	1.500			
0.3766	24104.11	3.8790	3.8790	1.0336	26.90	0.96	1.500			
0.3798	24304.58	3.8760	3.8760	1.0492	26.89	0.95	1.500			
0.3829	24508.14	3.8730	3.8730	1.0571	26.89	0.95	1.500			
0.3861	24711.90	3.8700	3.8700	1.0678	26.88	0.94	1.500			
0.3893	24918.39	3.8670	3.8670	1.0776	26.88	0.94	1.500			
0.3926	25125.27	3.8640	3.8640	1.0910	26.87	0.93	1.500			
0.3959	25335.42	3.8610	3.8610	1.1060	26.87	0.93	1.500			
0.3992	25547.37	3.8580	3.8579	1.1230	26.86	0.92	1.500			
0.4026	25764.33	3.8550	3.8550	1.1425	26.85	0.91	1.500			
0.4060	25986.62	3.8520	3.8520	1.1612	26.85	0.91	1.500			
0.4096	26212.44	3.8490	3.8490	1.1766	26.84	0.90	1.500			
0.4131	26439.16	3.8460	3.8460	1.1966	26.84	0.90	1.500			
0.4167	26670.43	3.8430	3.8430	1.2178	26.83	0.89	1.500			
0.4204	26906.38	3.8400	3.8400	1.2350	26.83	0.89	1.500			
0.4241	27145.24	3.8370	3.8370	1.2558	26.82	0.88	1.500			
0.4279	27388.17	3.8340	3.8341	1.2807	26.81	0.87	1.500			
0.4318	27636.83	3.8310	3.8310	1.2981	26.81	0.87	1.500			
0.4358	27889.65	3.8280	3.8280	1.3101	26.80	0.86	1.500			
0.4397	28138.16	3.8250	3.8251	1.3416	26.79	0.85	1.500			
0.4437	28396.54	3.8220	3.8220	1.3757	26.78	0.84	1.500			
0.4479	28664.48	3.8190	3.8189	1.4072	26.77	0.83	1.500			
0.4521	28937.52	3.8160	3.8160	1.4384	26.76	0.82	1.500			
0.4565	29218.73	3.8130	3.8131	1.4681	26.76	0.82	1.500			
0.4610	29504.44	3.8100	3.8101	1.5045	26.75	0.81	1.500			
0.4655	29793.34	3.8070	3.8070	1.5315	26.74	0.80	1.500			
0.4701	30088.57	3.8040	3.8040	1.5659	26.73	0.79	1.500			
0.4749	30394.85	3.8010	3.8009	1.6068	26.72	0.78	1.500			
0.4798	30708.42	3.7980	3.7981	1.6524	26.70	0.76	1.500			
0.4849	31033.19	3.7950	3.7950	1.6886	26.69	0.75	1.500			
0.4900	31361.44	3.7920	3.7920	1.7252	26.68	0.74	1.500			
0.4952	31693.47	3.7890	3.7890	1.7547	26.66	0.72	1.500			
0.5005	32034.67	3.7860	3.7860	1.7892	26.65	0.71	1.500			
0.5060	32382.13	3.7830	3.7831	1.8231	26.63	0.69	1.500			
0.5115	32735.78	3.7800	3.7800	1.8578	26.62	0.68	1.500			
0.5172	33098.29	3.7770	3.7770	1.8869	26.60	0.66	1.500			
0.5229	33463.04	3.7740	3.7740	1.9265	26.58	0.64	1.500			
0.5287	33839.81	3.7710	3.7709	1.9543	26.57	0.63	1.500			
0.5347	34217.67	3.7680	3.7681	1.9621	26.55	0.61	1.500	0.362	0.455	
0.5406	34596.63	3.7650	3.7650	1.9706	26.53	0.59	1.500			
0.5465	34976.04	3.7620	3.7619	1.9724	26.52	0.58	1.500			
0.5524	35351.69	3.7590	3.7591	1.9523	26.50	0.56	1.500			
0.5583	35732.02	3.7560	3.7560	1.9387	26.48	0.54	1.500			
0.5641	36101.51	3.7530	3.7530	1.9301	26.47	0.53	1.500			
0.5698	36465.91	3.7500	3.7501	1.9343	26.45	0.51	1.500			
0.5756	36835.34	3.7470	3.7470	1.9326	26.44	0.50	1.500			
0.5814	37208.35	3.7440	3.7440	1.9453	26.42	0.48	1.500			
0.5873	37586.99	3.7410	3.7411	1.9449	26.41	0.47	1.500			
0.5931	37960.14	3.7380	3.7380	1.9428	26.39	0.45	1.500			
0.5989	38326.90	3.7350	3.7351	1.9755	26.38	0.44	1.500			
0.6048	38708.91	3.7320	3.7319	2.0222	26.37	0.43	1.500			
0.6109	39100.74	3.7290	3.7290	2.0549	26.36	0.42	1.500			
0.6172	39498.94	3.7260	3.7261	2.1156	26.34	0.40	1.500			
0.6236	39908.91	3.7230	3.7228	2.1583	26.33	0.39	1.500			
0.6301	40326.46	3.7200	3.7200	2.2197	26.32	0.38	1.500			
0.6369	40759.12	3.7170	3.7171	2.2879	26.31	0.37	1.500			
0.6439	41208.43	3.7140	3.7140	2.3590	26.29	0.35	1.500			
0.6510	41666.98	3.7110	3.7110	2.4369	26.28	0.34	1.500			
0.6585	42145.07	3.7080	3.7080	2.4976	26.26	0.32	1.500			
0.6661	42631.22	3.7050	3.7050	2.5677	26.25	0.31	1.500			
0.6739	43130.71	3.7020	3.7018	2.5846	26.23	0.29	1.500			
0.6817	43629.75	3.6990	3.6990	2.5816	26.22	0.28	1.500			
0.6895	44127.26	3.6960	3.6960	2.4804	26.20	0.26	1.500			
0.6967	44587.58	3.6930	3.6930	2.3330	26.19	0.25	1.500			
0.7035	45024.06	3.6900	3.6900	2.1736	26.18	0.24	1.500			
0.7098	45425.82	3.6870	3.6870	2.0030	26.17	0.23	1.500			
0.7155	45794.32	3.6840	3.6840	1.8500	26.16	0.22	1.500			
0.7207	46123.18	3.6810	3.6811	1.6927	26.15	0.21	1.500			
0.7255	46434.30	3.6780	3.6780	1.5932	26.15	0.21	1.500			
0.7301	46725.46	3.6750	3.6750	1.5003	26.14	0.20	1.500			
0.7344	47000.90	3.6720	3.6720	1.4252	26.13	0.19	1.500			
0.7385	47266.18	3.6690	3.6690	1.3674	26.12	0.18	1.500			
0.7425	47520.12	3.6660	3.6660	1.3279	26.11	0.17	1.500			
0.7464	47769.32	3.6630	3.6631	1.2938	26.11	0.17	1.500			
0.7502	48010.90	3.6600	3.6599	1.2703	26.10	0.16	1.500			
0.7539	48251.39	3.6570	3.6571	1.2643	26.09	0.15	1.500			
0.7577	48489.97	3.6540	3.6540	1.2653	26.08	0.14	1.500			
0.7615	48733.39	3.6510	3.6509	1.2713	26.08	0.14	1.500			
0.7653	48977.69	3.6480	3.6480	1.2792	26.07	0.13	1.500			
0.7691	49224.64	3.6450	3.6450	1.2897	26.06	0.12	1.500			
0.7731	49475.89	3.6420	3.6420	1.3040	26.05	0.11	1.500			
0.7770	49728.50	3.6390	3.6390	1.3039	26.04	0.10	1.500			
0.7809	49978.06	3.6360	3.6360	1.3027	26.04	0.10	1.500			
0.7848	50230.10	3.6330	3.6330	1.2966	26.03	0.09	1.500			
0.7887	50479.91	3.6300	3.6300	1.2934	26.02	0.08	1.500			
0.7926	50726.04	3.6270	3.6270	1.2887	26.01	0.07	1.500			
0.7964	50971.61	3.6240	3.6240	1.2847	26.01	0.07	1.500			
0.8003	51217.12	3.6210	3.6210	1.2835	26.00	0.06	1.500			
0.8041	51464.13	3.6180	3.6180	1.2883	25.99	0.05	1.500			
0.8080	51713.08	3.6150	3.6150	1.2802	25.99	0.05	1.500			
0.8119	51961.24	3.6120	3.6120	1.2686	25.98	0.04	1.500			
0.8157	52204.26	3.6090	3.6090	1.2589	25.97	0.03	1.500			
0.8195	52445.26	3.6060	3.6060	1.2423	25.97	0.03	1.500			
0.8231	52681.23	3.6030	3.6029	1.2269	25.96	0.02	1.500			
0.8268	52914.49	3.6000	3.6001	1.2143	25.96	0.02	1.500			
0.8304	53145.64	3.5970	3.5970	1.1993	25.96	0.02	1.500			
0.8340	53376.36	3.5940	3.5940	1.1866	25.95	0.01	1.500			
0.8376	53604.59	3.5910	3.5910	1.1685	25.95	0.01	1.500			
0.8410	53825.31	3.5880	3.5880	1.1540	25.95	0.01	1.500			
0.8445	54045.88	3.5850	3.5850	1.1395	25.94	0.00	1.500			
0.8479	54265.03	3.5820	3.5820	1.1103	25.94	0.00	1.500			
0.8512	54479.17	3.5790	3.5790	1.0710	25.94	-0.00	1.500			
0.8546	54692.23	3.5760	3.5760	1.0095	25.94	-0.00	1.500			
0.8576	54885.31	3.5730	3.5731	0.9179	25.93	-0.01	1.500			
0.8603	55060.22	3.5700	3.5700	0.8105	25.93	-0.01	1.500			
0.8625	55202.87	3.5670	3.5670	0.6826	25.93	-0.01	1.500			
0.8643	55314.36	3.5640	3.5641	0.5637	25.93	-0.01	1.500			
0.8657	55406.27	3.5610	3.5610	0.4644	25.93	-0.01	1.500			
0.8669	55479.04	3.5580	3.5581	0.3814	25.93	-0.01	1.500			
0.8679	55543.75	3.5550	3.5549	0.3192	25.93	-0.01	1.500			
0.8687	55596.76	3.5520	3.5520	0.2751	25.92	-0.02	1.500			
0.8694	55643.96	3.5490	3.5489	0.2428	25.92	-0.02	1.500			
0.8701	55685.44	3.5460	3.5460	0.2151	25.92	-0.02	1.500			
0.8707	55723.50	3.5430	3.5430	0.1914	25.92	-0.02	1.500			
0.8712	55757.37	3.5400	3.5400	0.1739	25.92	-0.02	1.500			
0.8717	55788.43	3.5370	3.5370	0.1577	25.92	-0.02	1.500			
0.8721	55816.77	3.5340	3.5339	0.1418	25.92	-0.02	1.500			
0.8725	55842.65	3.5310	3.5310	0.1276	25.92	-0.02	1.500			
0.8729	55865.75	3.5280	3.5280	0.1134	25.92	-0.02	1.500			
0.8732	55886.10	3.5250	3.5251	0.0993	25.92	-0.02	1.500			
0.8735	55904.18	3.5220	3.5221	0.0856	25.92	-0.02	1.500			
0.8737	55919.21	3.5190	3.5191	0.0710	25.92	-0.02	1.500			
0.8739	55931.30	3.5160	3.5164	0.0568	25.92	-0.02	1.500			
0.8741	55940.85	3.5130	3.5138	0.0426	25.92	-0.02	1.500			
