Ah_balance (normalized)	Ah_balance (mAh)	Voltage - fit (V)	Voltage -  interpolate (V)	dQ/dV (1/V)	Temperature (°C)	Temperature - diff (°C)	Current (C)	R_DC 0ms (mOhm)	R_DC 50ms (mOhm)	R_DC 50 ms PEC (mOhm)
0.2749	17594.48	3.9930	3.9930	0.8535	27.33	1.35	1.500			
0.2775	17757.10	3.9900	3.9901	0.8428	27.32	1.34	1.500			
0.2800	17917.75	3.9870	3.9870	0.8408	27.32	1.34	1.500			
0.2825	18079.88	3.9840	3.9840	0.8417	27.31	1.33	1.500			
0.2850	18241.30	3.9810	3.9810	0.8408	27.31	1.33	1.500			
0.2875	18401.94	3.9780	3.9781	0.8447	27.30	1.32	1.500			
0.2901	18564.75	3.9750	3.9750	0.8503	27.30	1.32	1.500			
0.2926	18729.07	3.9720	3.9720	0.8535	27.29	1.31	1.500			
0.2952	18892.48	3.9690	3.9690	0.8564	27.29	1.31	1.500			
0.2978	19057.48	3.9660	3.9660	0.8630	27.28	1.30	1.500			
0.3004	19224.30	3.9630	3.9630	0.8671	27.28	1.30	1.500			
0.3030	19391.22	3.9600	3.9599	0.8712	27.27	1.29	1.500			
0.3056	19558.30	3.9570	3.9570	0.8725	27.27	1.29	1.500			
0.3082	19726.21	3.9540	3.9540	0.8779	27.26	1.28	1.500			
0.3109	19896.11	3.9510	3.9510	0.8810	27.25	1.27	1.500			
0.3135	20064.65	3.9480	3.9479	0.8827	27.25	1.27	1.500			
0.3162	20233.75	3.9450	3.9450	0.8880	27.24	1.26	1.500			
0.3188	20405.09	3.9420	3.9421	0.8916	27.23	1.25	1.500			
0.3215	20575.72	3.9390	3.9390	0.8972	27.22	1.24	1.500			
0.3242	20749.90	3.9360	3.9360	0.9019	27.22	1.24	1.500			
0.3269	20922.99	3.9330	3.9330	0.9069	27.21	1.23	1.500			
0.3297	21098.05	3.9300	3.9300	0.9119	27.20	1.22	1.500			
0.3324	21272.61	3.9270	3.9270	0.9162	27.19	1.21	1.500			
0.3351	21448.58	3.9240	3.9240	0.9181	27.18	1.20	1.500			
0.3379	21625.66	3.9210	3.9208	0.9253	27.17	1.19	1.500			
0.3407	21803.50	3.9180	3.9180	0.9302	27.16	1.18	1.500			
0.3435	21983.97	3.9150	3.9150	0.9365	27.16	1.18	1.500			
0.3463	22162.98	3.9120	3.9120	0.9416	27.15	1.17	1.500			
0.3491	22344.31	3.9090	3.9091	0.9518	27.14	1.16	1.500			
0.3520	22527.13	3.9060	3.9060	0.9580	27.14	1.16	1.500			
0.3549	22712.06	3.9030	3.9029	0.9706	27.13	1.15	1.500			
0.3578	22899.49	3.9000	3.9000	0.9762	27.12	1.14	1.500			
0.3607	23087.88	3.8970	3.8971	0.9862	27.12	1.14	1.500			
0.3637	23279.78	3.8940	3.8940	0.9949	27.11	1.13	1.500			
0.3667	23469.86	3.8910	3.8911	1.0024	27.10	1.12	1.500			
0.3697	23662.10	3.8880	3.8879	1.0091	27.09	1.11	1.500			
0.3728	23857.33	3.8850	3.8850	1.0192	27.08	1.10	1.500			
0.3758	24053.35	3.8820	3.8820	1.0283	27.07	1.09	1.500			
0.3789	24252.73	3.8790	3.8791	1.0415	27.06	1.08	1.500			
0.3821	24453.00	3.8760	3.8760	1.0560	27.05	1.07	1.500			
0.3853	24658.59	3.8730	3.8730	1.0667	27.04	1.06	1.500			
0.3885	24862.68	3.8700	3.8700	1.0756	27.03	1.05	1.500			
0.3917	25071.61	3.8670	3.8670	1.0871	27.02	1.04	1.500			
0.3950	25281.83	3.8640	3.8640	1.1003	27.01	1.03	1.500			
0.3983	25493.46	3.8610	3.8610	1.1097	26.99	1.01	1.500			
0.4017	25707.79	3.8580	3.8579	1.1200	26.98	1.00	1.500			
0.4050	25921.55	3.8550	3.8550	1.1343	26.97	0.99	1.500			
0.4085	26142.13	3.8520	3.8520	1.1527	26.96	0.98	1.500			
0.4119	26363.26	3.8490	3.8490	1.1733	26.95	0.97	1.500			
0.4155	26591.80	3.8460	3.8460	1.1917	26.93	0.95	1.500			
0.4191	26822.03	3.8430	3.8430	1.2105	26.92	0.94	1.500			
0.4228	27057.27	3.8400	3.8400	1.2313	26.91	0.93	1.500			
0.4265	27296.89	3.8370	3.8370	1.2465	26.90	0.92	1.500			
0.4302	27535.91	3.8340	3.8340	1.2640	26.89	0.91	1.500			
0.4341	27779.77	3.8310	3.8310	1.2851	26.88	0.90	1.500			
0.4379	28026.81	3.8280	3.8279	1.3065	26.87	0.89	1.500			
0.4419	28279.66	3.8250	3.8250	1.3315	26.86	0.88	1.500			
0.4459	28537.34	3.8220	3.8220	1.3513	26.84	0.86	1.500			
0.4500	28801.84	3.8190	3.8190	1.3696	26.83	0.85	1.500			
0.4541	29064.24	3.8160	3.8160	1.3979	26.81	0.83	1.500			
0.4583	29333.85	3.8130	3.8131	1.4205	26.80	0.82	1.500			
0.4627	29610.12	3.8100	3.8098	1.4428	26.78	0.80	1.500			
0.4670	29889.70	3.8070	3.8071	1.4681	26.77	0.79	1.500			
0.4715	30174.95	3.8040	3.8041	1.4938	26.75	0.77	1.500			
0.4760	30465.80	3.8010	3.8010	1.5161	26.73	0.75	1.500			
0.4806	30755.92	3.7980	3.7980	1.5312	26.71	0.73	1.500			
0.4852	31050.48	3.7950	3.7950	1.5566	26.69	0.71	1.500			
0.4899	31351.99	3.7920	3.7921	1.5922	26.68	0.70	1.500			
0.4947	31660.73	3.7890	3.7890	1.6228	26.66	0.68	1.500			
0.4996	31976.92	3.7860	3.7858	1.6432	26.64	0.66	1.500	0.344	0.483	
0.5046	32296.88	3.7830	3.7831	1.6589	26.63	0.65	1.500			
0.5096	32617.56	3.7800	3.7800	1.6769	26.61	0.63	1.500			
0.5147	32938.79	3.7770	3.7770	1.6810	26.60	0.62	1.500			
0.5197	33262.71	3.7740	3.7740	1.6907	26.58	0.60	1.500			
0.5249	33592.09	3.7710	3.7710	1.6937	26.56	0.58	1.500			
0.5299	33915.18	3.7680	3.7680	1.6999	26.55	0.57	1.500			
0.5350	34241.58	3.7650	3.7651	1.7004	26.53	0.55	1.500			
0.5402	34570.09	3.7620	3.7621	1.7177	26.51	0.53	1.500			
0.5453	34901.77	3.7590	3.7590	1.7292	26.50	0.52	1.500			
0.5506	35237.31	3.7560	3.7559	1.7164	26.48	0.50	1.500			
0.5557	35563.08	3.7530	3.7531	1.7381	26.46	0.48	1.500			
0.5609	35899.34	3.7500	3.7499	1.7753	26.45	0.47	1.500			
0.5663	36243.03	3.7470	3.7471	1.8009	26.43	0.45	1.500			
0.5717	36591.08	3.7440	3.7440	1.8292	26.41	0.43	1.500			
0.5774	36952.10	3.7410	3.7410	1.8739	26.40	0.42	1.500			
0.5829	37305.20	3.7380	3.7380	1.9052	26.38	0.40	1.500			
0.5887	37676.00	3.7350	3.7350	1.9641	26.36	0.38	1.500			
0.5947	38063.43	3.7320	3.7320	2.0192	26.34	0.36	1.500			
0.6009	38456.38	3.7290	3.7290	2.0510	26.32	0.34	1.500			
0.6071	38853.71	3.7260	3.7260	2.1129	26.30	0.32	1.500			
0.6134	39258.63	3.7230	3.7229	2.1720	26.28	0.30	1.500			
0.6201	39686.44	3.7200	3.7201	2.2180	26.26	0.28	1.500			
0.6269	40119.79	3.7170	3.7170	2.2685	26.25	0.27	1.500			
0.6338	40562.78	3.7140	3.7140	2.2839	26.23	0.25	1.500			
0.6407	41004.27	3.7110	3.7110	2.2670	26.21	0.23	1.500			
0.6475	41440.21	3.7080	3.7080	2.1999	26.20	0.22	1.500			
0.6541	41864.69	3.7050	3.7050	2.1423	26.18	0.20	1.500			
0.6604	42264.97	3.7020	3.7020	2.0010	26.17	0.19	1.500			
0.6662	42637.16	3.6990	3.6991	1.8783	26.16	0.18	1.500			
0.6716	42982.69	3.6960	3.6960	1.7660	26.15	0.17	1.500			
0.6767	43310.39	3.6930	3.6929	1.6603	26.14	0.16	1.500			
0.6815	43613.76	3.6900	3.6900	1.5652	26.13	0.15	1.500			
0.6860	43905.60	3.6870	3.6870	1.4953	26.12	0.14	1.500			
0.6904	44185.51	3.6840	3.6840	1.4348	26.11	0.13	1.500			
0.6946	44453.26	3.6810	3.6809	1.3742	26.10	0.12	1.500			
0.6986	44709.89	3.6780	3.6780	1.3326	26.10	0.12	1.500			
0.7025	44957.94	3.6750	3.6751	1.2979	26.09	0.11	1.500			
0.7062	45199.86	3.6720	3.6720	1.2801	26.08	0.10	1.500			
0.7100	45442.98	3.6690	3.6689	1.2704	26.07	0.09	1.500			
0.7138	45683.50	3.6660	3.6660	1.2629	26.06	0.08	1.500			
0.7176	45926.34	3.6630	3.6630	1.2649	26.05	0.07	1.500			
0.7214	46171.68	3.6600	3.6601	1.2704	26.04	0.06	1.500			
0.7252	46415.75	3.6570	3.6570	1.2642	26.03	0.05	1.500			
0.7290	46657.93	3.6540	3.6540	1.2586	26.02	0.04	1.500			
0.7328	46899.84	3.6510	3.6510	1.2499	26.01	0.03	1.500			
0.7366	47140.08	3.6480	3.6480	1.2420	26.00	0.02	1.500			
0.7403	47377.79	3.6450	3.6450	1.2291	26.00	0.02	1.500			
0.7439	47611.51	3.6420	3.6419	1.2198	25.99	0.01	1.500			
0.7476	47844.55	3.6390	3.6390	1.2060	25.99	0.01	1.500			
0.7512	48075.83	3.6360	3.6360	1.1922	25.98	-0.00	1.500			
0.7547	48302.57	3.6330	3.6330	1.1858	25.97	-0.01	1.500			
0.7583	48529.23	3.6300	3.6300	1.1782	25.97	-0.01	1.500			
0.7618	48753.86	3.6270	3.6270	1.1693	25.96	-0.02	1.500			
0.7653	48978.11	3.6240	3.6240	1.1575	25.96	-0.02	1.500			
0.7687	49199.63	3.6210	3.6210	1.1425	25.96	-0.02	1.500			
0.7722	49420.23	3.6180	3.6180	1.1287	25.95	-0.03	1.500			
0.7756	49636.56	3.6150	3.6150	1.1068	25.95	-0.03	1.500			
0.7788	49845.49	3.6120	3.6120	1.0792	25.95	-0.03	1.500			
0.7820	50050.69	3.6090	3.6090	1.0568	25.95	-0.03	1.500			
0.7852	50251.46	3.6060	3.6060	1.0311	25.94	-0.04	1.500			
0.7882	50447.50	3.6030	3.6030	1.0050	25.94	-0.04	1.500			
0.7912	50638.63	3.6000	3.6000	0.9759	25.94	-0.04	1.500			
0.7941	50824.72	3.5970	3.5970	0.9354	25.95	-0.03	1.500			
0.7969	51003.70	3.5940	3.5940	0.8970	25.95	-0.03	1.500			
0.7996	51175.13	3.5910	3.5910	0.8404	25.96	-0.02	1.500			
0.8021	51332.91	3.5880	3.5880	0.7735	25.96	-0.02	1.500			
0.8044	51478.63	3.5850	3.5849	0.6964	25.97	-0.01	1.500			
0.8063	51604.94	3.5820	3.5821	0.6103	25.97	-0.01	1.500			
0.8080	51713.39	3.5790	3.5790	0.5275	25.97	-0.01	1.500			
0.8094	51804.60	3.5760	3.5760	0.4477	25.97	-0.01	1.500			
0.8106	51877.88	3.5730	3.5729	0.3745	25.98	-0.00	1.500			
0.8116	51941.33	3.5700	3.5698	0.3246	25.98	-0.00	1.500			
0.8124	51995.26	3.5670	3.5670	0.2806	25.98	-0.00	1.500			
0.8132	52044.16	3.5640	3.5639	0.2490	25.98	-0.00	1.500			
0.8139	52087.21	3.5610	3.5611	0.2214	25.98	0.00	1.500			
0.8145	52127.28	3.5580	3.5580	0.1981	25.98	0.00	1.500			
0.8150	52161.12	3.5550	3.5550	0.1775	25.98	0.00	1.500			
0.8155	52192.78	3.5520	3.5519	0.1609	25.98	0.00	1.500			
0.8160	52221.57	3.5490	3.5490	0.1440	25.98	0.00	1.500			
0.8164	52248.18	3.5460	3.5460	0.1297	25.98	0.00	1.500			
0.8167	52271.81	3.5430	3.5430	0.1157	25.99	0.01	1.500			
0.8171	52292.73	3.5400	3.5400	0.1015	25.99	0.01	1.500			
0.8174	52311.00	3.5370	3.5371	0.0872	25.99	0.01	1.500			
0.8176	52326.32	3.5340	3.5342	0.0724	25.99	0.01	1.500			
0.8178	52339.21	3.5310	3.5312	0.0572	25.99	0.01	1.500			
0.8179	52348.69	3.5280	3.5286	0.0415	25.99	0.01	1.500			
0.8180	52355.15	3.5250	3.5261	0.0258	25.99	0.01	1.500			
