Ah_balance (normalized)	Ah_balance (mAh)	Voltage - fit (V)	Voltage -  interpolate (V)	dQ/dV (1/V)	Temperature (°C)	Temperature - diff (°C)	Current (C)	R_DC 0ms (mOhm)	R_DC 50ms (mOhm)	R_DC 50 ms PEC (mOhm)
0.2020	12929.02	3.9110	3.9107	-0.1357	25.91	-0.01	-1.500			
0.2025	12957.77	3.9080	3.9080	-0.1684	25.91	-0.01	-1.500			
0.2030	12994.29	3.9050	3.9049	-0.2020	25.91	-0.01	-1.500			
0.2037	13036.62	3.9020	3.9020	-0.2329	25.91	-0.01	-1.500			
0.2044	13084.16	3.8990	3.8990	-0.2648	25.91	-0.01	-1.500			
0.2053	13138.60	3.8960	3.8961	-0.2951	25.91	-0.01	-1.500			
0.2062	13197.92	3.8930	3.8930	-0.3255	25.91	-0.01	-1.500			
0.2072	13262.93	3.8900	3.8900	-0.3576	25.91	-0.01	-1.500			
0.2083	13334.20	3.8870	3.8870	-0.3901	25.91	-0.01	-1.500			
0.2096	13412.31	3.8840	3.8839	-0.4241	25.91	-0.01	-1.500			
0.2109	13497.20	3.8810	3.8810	-0.4557	25.91	-0.01	-1.500			
0.2123	13588.04	3.8780	3.8780	-0.4868	25.91	-0.01	-1.500			
0.2138	13685.70	3.8750	3.8751	-0.5158	25.92	-0.00	-1.500			
0.2154	13788.07	3.8720	3.8720	-0.5435	25.92	-0.00	-1.500			
0.2171	13894.56	3.8690	3.8690	-0.5708	25.92	-0.00	-1.500			
0.2189	14006.54	3.8660	3.8661	-0.5966	25.92	-0.00	-1.500			
0.2207	14123.93	3.8630	3.8630	-0.6220	25.92	-0.00	-1.500			
0.2226	14247.41	3.8600	3.8599	-0.6459	25.92	-0.00	-1.500			
0.2246	14374.03	3.8570	3.8570	-0.6653	25.92	-0.00	-1.500			
0.2266	14505.13	3.8540	3.8540	-0.6834	25.92	0.00	-1.500			
0.2287	14636.65	3.8510	3.8511	-0.6997	25.92	0.00	-1.500			
0.2308	14772.78	3.8480	3.8480	-0.7137	25.92	0.00	-1.500			
0.2330	14912.44	3.8450	3.8450	-0.7266	25.92	0.00	-1.500			
0.2352	15053.62	3.8420	3.8420	-0.7372	25.92	0.00	-1.500			
0.2375	15197.16	3.8390	3.8391	-0.7494	25.92	0.00	-1.500			
0.2397	15342.66	3.8360	3.8360	-0.7500	25.93	0.01	-1.500			
0.2420	15486.92	3.8330	3.8330	-0.7589	25.93	0.01	-1.500			
0.2443	15632.14	3.8300	3.8300	-0.7648	25.93	0.01	-1.500			
0.2466	15780.11	3.8270	3.8269	-0.7727	25.93	0.01	-1.500			
0.2489	15929.14	3.8240	3.8240	-0.7798	25.93	0.01	-1.500			
0.2513	16080.10	3.8210	3.8211	-0.7860	25.93	0.01	-1.500			
0.2536	16231.91	3.8180	3.8180	-0.7902	25.93	0.01	-1.500			
0.2560	16385.71	3.8150	3.8150	-0.7909	25.94	0.02	-1.500			
0.2584	16535.29	3.8120	3.8120	-0.7898	25.94	0.02	-1.500			
0.2608	16688.51	3.8090	3.8091	-0.7988	25.94	0.02	-1.500			
0.2631	16841.08	3.8060	3.8060	-0.8002	25.94	0.02	-1.500			
0.2655	16994.68	3.8030	3.8029	-0.8024	25.95	0.03	-1.500			
0.2680	17149.55	3.8000	3.8001	-0.8086	25.95	0.03	-1.500			
0.2704	17306.44	3.7970	3.7970	-0.8115	25.95	0.03	-1.500			
0.2729	17462.51	3.7940	3.7939	-0.8146	25.96	0.04	-1.500			
0.2753	17619.12	3.7910	3.7911	-0.8108	25.96	0.04	-1.500			
0.2777	17774.56	3.7880	3.7880	-0.8083	25.96	0.04	-1.500			
0.2802	17930.33	3.7850	3.7850	-0.8060	25.97	0.05	-1.500			
0.2826	18083.46	3.7820	3.7821	-0.8086	25.97	0.05	-1.500			
0.2849	18236.58	3.7790	3.7789	-0.8095	25.97	0.05	-1.500			
0.2874	18393.80	3.7760	3.7760	-0.8140	25.98	0.06	-1.500			
0.2898	18549.88	3.7730	3.7730	-0.8171	25.98	0.06	-1.500			
0.2923	18709.42	3.7700	3.7700	-0.8215	25.99	0.07	-1.500			
0.2948	18867.69	3.7670	3.7670	-0.8193	25.99	0.07	-1.500			
0.2973	19024.41	3.7640	3.7640	-0.8186	25.99	0.07	-1.500			
0.2997	19180.06	3.7610	3.7610	-0.8186	26.00	0.08	-1.500			
0.3021	19337.01	3.7580	3.7580	-0.8185	26.00	0.08	-1.500			
0.3046	19494.88	3.7550	3.7549	-0.8183	26.01	0.09	-1.500			
0.3071	19653.13	3.7520	3.7521	-0.8159	26.01	0.09	-1.500			
0.3095	19809.85	3.7490	3.7490	-0.8144	26.01	0.09	-1.500			
0.3120	19965.15	3.7460	3.7460	-0.8131	26.02	0.10	-1.500			
0.3144	20119.53	3.7430	3.7430	-0.8101	26.02	0.10	-1.500			
0.3168	20273.70	3.7400	3.7399	-0.8153	26.03	0.11	-1.500			
0.3193	20432.39	3.7370	3.7370	-0.8162	26.03	0.11	-1.500			
0.3217	20589.51	3.7340	3.7340	-0.8189	26.03	0.11	-1.500			
0.3242	20748.99	3.7310	3.7309	-0.8215	26.04	0.12	-1.500			
0.3267	20906.19	3.7280	3.7281	-0.8194	26.04	0.12	-1.500			
0.3291	21061.85	3.7250	3.7249	-0.8170	26.05	0.13	-1.500			
0.3315	21218.22	3.7220	3.7221	-0.8202	26.05	0.13	-1.500			
0.3340	21375.11	3.7190	3.7189	-0.8181	26.06	0.14	-1.500			
0.3365	21533.63	3.7160	3.7160	-0.8243	26.06	0.14	-1.500			
0.3389	21691.49	3.7130	3.7130	-0.8256	26.07	0.15	-1.500			
0.3414	21849.87	3.7100	3.7100	-0.8332	26.07	0.15	-1.500			
0.3439	22010.34	3.7070	3.7070	-0.8368	26.08	0.16	-1.500			
0.3464	22172.28	3.7040	3.7040	-0.8406	26.08	0.16	-1.500			
0.3489	22332.79	3.7010	3.7010	-0.8469	26.09	0.17	-1.500			
0.3515	22497.41	3.6980	3.6981	-0.8500	26.09	0.17	-1.500			
0.3541	22660.47	3.6950	3.6951	-0.8546	26.09	0.17	-1.500			
0.3566	22824.03	3.6920	3.6920	-0.8651	26.10	0.18	-1.500			
0.3592	22989.02	3.6890	3.6889	-0.8723	26.10	0.18	-1.500			
0.3619	23159.00	3.6860	3.6860	-0.8869	26.10	0.18	-1.500			
0.3645	23330.23	3.6830	3.6831	-0.9014	26.11	0.19	-1.500			
0.3672	23503.70	3.6800	3.6800	-0.9147	26.11	0.19	-1.500			
0.3700	23683.09	3.6770	3.6770	-0.9263	26.11	0.19	-1.500			
0.3728	23860.48	3.6740	3.6740	-0.9371	26.12	0.20	-1.500			
0.3756	24040.91	3.6710	3.6710	-0.9510	26.12	0.20	-1.500			
0.3785	24224.54	3.6680	3.6680	-0.9671	26.12	0.20	-1.500			
0.3814	24410.75	3.6650	3.6650	-0.9859	26.12	0.20	-1.500			
0.3844	24601.70	3.6620	3.6620	-1.0009	26.12	0.20	-1.500			
0.3874	24795.00	3.6590	3.6590	-1.0260	26.12	0.20	-1.500			
0.3906	24995.69	3.6560	3.6560	-1.0491	26.13	0.21	-1.500			
0.3937	25197.26	3.6530	3.6530	-1.0737	26.13	0.21	-1.500			
0.3970	25406.24	3.6500	3.6500	-1.0945	26.13	0.21	-1.500			
0.4003	25618.59	3.6470	3.6471	-1.1198	26.13	0.21	-1.500			
0.4037	25836.27	3.6440	3.6439	-1.1403	26.13	0.21	-1.500			
0.4071	26057.21	3.6410	3.6410	-1.1682	26.13	0.21	-1.500			
0.4106	26281.54	3.6380	3.6380	-1.1920	26.13	0.21	-1.500			
0.4143	26514.77	3.6350	3.6349	-1.2239	26.13	0.21	-1.500			
0.4180	26754.26	3.6320	3.6319	-1.2450	26.13	0.21	-1.500			
0.4218	26996.79	3.6290	3.6290	-1.2744	26.13	0.21	-1.500			
0.4257	27243.47	3.6260	3.6262	-1.3021	26.13	0.21	-1.500			
0.4296	27495.75	3.6230	3.6230	-1.3324	26.13	0.21	-1.500			
0.4336	27751.72	3.6200	3.6198	-1.3492	26.13	0.21	-1.500			
0.4377	28013.19	3.6170	3.6170	-1.3816	26.13	0.21	-1.500			
0.4419	28283.29	3.6140	3.6140	-1.4194	26.12	0.20	-1.500			
0.4462	28557.98	3.6110	3.6110	-1.4483	26.12	0.20	-1.500			
0.4506	28838.74	3.6080	3.6080	-1.4744	26.12	0.20	-1.500			
0.4551	29126.80	3.6050	3.6050	-1.4893	26.12	0.20	-1.500			
0.4596	29416.68	3.6020	3.6020	-1.5074	26.11	0.19	-1.500			
0.4642	29707.93	3.5990	3.5991	-1.5388	26.11	0.19	-1.500			
0.4688	30001.54	3.5960	3.5959	-1.5621	26.11	0.19	-1.500			
0.4735	30301.30	3.5930	3.5929	-1.5952	26.10	0.18	-1.500			
0.4783	30610.82	3.5900	3.5901	-1.6311	26.10	0.18	-1.500			
0.4833	30928.74	3.5870	3.5870	-1.6699	26.09	0.17	-1.500			
0.4884	31256.62	3.5840	3.5840	-1.7039	26.08	0.16	-1.500			
0.4935	31586.34	3.5810	3.5810	-1.7256	26.07	0.15	-1.500			
0.4988	31922.33	3.5780	3.5780	-1.7527	26.06	0.14	-1.500			
0.5041	32260.18	3.5750	3.5750	-1.7779	26.06	0.14	-1.500			
0.5094	32603.91	3.5720	3.5720	-1.8117	26.06	0.14	-1.500			
0.5150	32957.72	3.5690	3.5690	-1.8330	26.05	0.13	-1.500			
0.5205	33312.52	3.5660	3.5659	-1.8504	26.05	0.13	-1.500			
0.5261	33669.01	3.5630	3.5632	-1.8813	26.05	0.13	-1.500			
0.5318	34032.28	3.5600	3.5600	-1.9152	26.05	0.13	-1.500			
0.5375	34402.90	3.5570	3.5569	-1.9379	26.05	0.13	-1.500			
0.5434	34778.07	3.5540	3.5540	-1.9478	26.04	0.12	-1.500			
0.5494	35159.19	3.5510	3.5510	-1.9742	26.04	0.12	-1.500			
0.5553	35540.22	3.5480	3.5480	-1.9867	26.04	0.12	-1.500			
0.5613	35924.38	3.5450	3.5449	-2.0183	26.04	0.12	-1.500	0.386	0.502	
0.5673	36309.26	3.5420	3.5419	-2.0345	26.04	0.12	-1.500			
0.5735	36704.03	3.5390	3.5389	-2.0289	26.04	0.12	-1.500			
0.5796	37096.76	3.5360	3.5360	-2.0345	26.04	0.12	-1.500			
0.5857	37487.66	3.5330	3.5329	-2.0304	26.04	0.12	-1.500			
0.5918	37875.80	3.5300	3.5299	-2.0108	26.05	0.13	-1.500			
0.5978	38259.73	3.5270	3.5270	-2.0097	26.05	0.13	-1.500			
0.6038	38644.83	3.5240	3.5239	-1.9935	26.05	0.13	-1.500			
0.6098	39029.36	3.5210	3.5210	-1.9827	26.05	0.13	-1.500			
0.6157	39404.74	3.5180	3.5180	-1.9510	26.06	0.14	-1.500			
0.6215	39776.02	3.5150	3.5150	-1.9339	26.06	0.14	-1.500			
0.6273	40149.80	3.5120	3.5121	-1.9270	26.06	0.14	-1.500			
0.6331	40517.79	3.5090	3.5088	-1.9126	26.08	0.16	-1.500			
0.6388	40881.21	3.5060	3.5060	-1.8953	26.09	0.17	-1.500			
0.6444	41244.71	3.5030	3.5030	-1.8764	26.10	0.18	-1.500			
0.6501	41606.36	3.5000	3.5001	-1.8677	26.12	0.20	-1.500			
0.6557	41963.56	3.4970	3.4969	-1.8510	26.13	0.21	-1.500			
0.6612	42313.84	3.4940	3.4940	-1.8352	26.14	0.22	-1.500			
0.6666	42664.78	3.4910	3.4910	-1.8181	26.15	0.23	-1.500			
0.6721	43011.27	3.4880	3.4880	-1.8055	26.15	0.23	-1.500			
0.6775	43359.41	3.4850	3.4850	-1.7918	26.16	0.24	-1.500			
0.6829	43703.25	3.4820	3.4819	-1.7746	26.18	0.26	-1.500			
0.6881	44041.48	3.4790	3.4790	-1.7532	26.19	0.27	-1.500			
0.6934	44377.30	3.4760	3.4760	-1.7292	26.20	0.28	-1.500			
0.6986	44708.85	3.4730	3.4730	-1.7113	26.21	0.29	-1.500			
0.7037	45036.32	3.4700	3.4700	-1.6825	26.23	0.31	-1.500			
0.7086	45353.17	3.4670	3.4670	-1.6664	26.25	0.33	-1.500			
0.7136	45672.91	3.4640	3.4641	-1.6430	26.26	0.34	-1.500			
0.7185	45987.13	3.4610	3.4609	-1.6168	26.28	0.36	-1.500			
0.7234	46295.96	3.4580	3.4579	-1.5838	26.29	0.37	-1.500			
0.7281	46597.64	3.4550	3.4551	-1.5615	26.31	0.39	-1.500			
0.7327	46891.09	3.4520	3.4520	-1.5420	26.33	0.41	-1.500			
0.7373	47186.63	3.4490	3.4489	-1.5226	26.35	0.43	-1.500			
0.7418	47475.17	3.4460	3.4459	-1.4913	26.37	0.45	-1.500			
0.7463	47762.20	3.4430	3.4430	-1.4847	26.39	0.47	-1.500			
0.7507	48046.76	3.4400	3.4402	-1.4717	26.40	0.48	-1.500			
0.7551	48326.10	3.4370	3.4369	-1.4638	26.42	0.50	-1.500			
0.7594	48598.95	3.4340	3.4340	-1.4518	26.44	0.52	-1.500			
0.7637	48878.97	3.4310	3.4310	-1.4433	26.47	0.55	-1.500			
0.7681	49159.80	3.4280	3.4280	-1.4469	26.49	0.57	-1.500			
0.7725	49437.15	3.4250	3.4250	-1.4336	26.51	0.59	-1.500			
0.7767	49712.00	3.4220	3.4220	-1.4161	26.53	0.61	-1.500			
0.7810	49982.78	3.4190	3.4190	-1.4055	26.55	0.63	-1.500			
0.7851	50247.33	3.4160	3.4160	-1.3828	26.57	0.65	-1.500			
0.7893	50515.89	3.4130	3.4130	-1.3666	26.60	0.68	-1.500			
0.7935	50781.12	3.4100	3.4101	-1.3384	26.62	0.70	-1.500			
0.7974	51033.33	3.4070	3.4070	-1.2983	26.64	0.72	-1.500			
0.8013	51280.05	3.4040	3.4042	-1.2635	26.66	0.74	-1.500			
0.8050	51518.83	3.4010	3.4009	-1.2208	26.68	0.76	-1.500			
0.8086	51747.68	3.3980	3.3980	-1.1747	26.70	0.78	-1.500			
0.8120	51970.47	3.3950	3.3950	-1.1302	26.72	0.80	-1.500			
0.8154	52186.43	3.3920	3.3920	-1.0963	26.74	0.82	-1.500			
0.8186	52392.51	3.3890	3.3889	-1.0441	26.76	0.84	-1.500			
0.8217	52586.82	3.3860	3.3859	-0.9909	26.77	0.85	-1.500			
0.8246	52771.88	3.3830	3.3830	-0.9460	26.78	0.86	-1.500			
0.8273	52947.99	3.3800	3.3799	-0.9058	26.79	0.87	-1.500			
0.8300	53116.92	3.3770	3.3770	-0.8676	26.80	0.88	-1.500			
0.8325	53278.83	3.3740	3.3740	-0.8364	26.82	0.90	-1.500			
0.8349	53433.76	3.3710	3.3710	-0.8093	26.83	0.91	-1.500			
0.8373	53589.77	3.3680	3.3680	-0.7819	26.85	0.93	-1.500			
0.8397	53737.63	3.3650	3.3649	-0.7527	26.86	0.94	-1.500			
0.8419	53878.48	3.3620	3.3620	-0.7258	26.87	0.95	-1.500			
0.8440	54014.73	3.3590	3.3590	-0.6982	26.88	0.96	-1.500			
0.8460	54146.24	3.3560	3.3559	-0.6741	26.89	0.97	-1.500			
0.8480	54270.79	3.3530	3.3530	-0.6502	26.89	0.97	-1.500			
0.8499	54392.96	3.3500	3.3500	-0.6313	26.90	0.98	-1.500			
0.8518	54514.27	3.3470	3.3469	-0.6165	26.91	0.99	-1.500			
0.8536	54630.83	3.3440	3.3440	-0.5970	26.92	1.00	-1.500			
0.8554	54744.17	3.3410	3.3410	-0.5740	26.93	1.01	-1.500			
0.8571	54852.75	3.3380	3.3380	-0.5564	26.93	1.01	-1.500			
0.8587	54957.92	3.3350	3.3350	-0.5352	26.94	1.02	-1.500			
0.8603	55056.74	3.3320	3.3320	-0.5167	26.95	1.03	-1.500			
0.8618	55154.41	3.3290	3.3290	-0.4991	26.96	1.04	-1.500			
0.8632	55247.92	3.3260	3.3260	-0.4842	26.97	1.05	-1.500			
0.8647	55339.50	3.3230	3.3230	-0.4718	26.98	1.06	-1.500			
0.8661	55429.76	3.3200	3.3200	-0.4603	26.98	1.06	-1.500			
0.8674	55516.45	3.3170	3.3170	-0.4427	26.99	1.07	-1.500			
0.8688	55600.66	3.3140	3.3140	-0.4295	27.00	1.08	-1.500			
0.8700	55681.04	3.3110	3.3109	-0.4150	27.00	1.08	-1.500			
0.8712	55759.46	3.3080	3.3080	-0.4020	27.01	1.09	-1.500			
0.8724	55834.39	3.3050	3.3049	-0.3872	27.01	1.09	-1.500			
0.8735	55906.66	3.3020	3.3021	-0.3756	27.02	1.10	-1.500			
0.8747	55978.98	3.2990	3.2990	-0.3624	27.03	1.11	-1.500			
0.8758	56048.08	3.2960	3.2960	-0.3476	27.03	1.11	-1.500			
0.8768	56112.61	3.2930	3.2931	-0.3351	27.04	1.12	-1.500			
0.8777	56175.27	3.2900	3.2899	-0.3237	27.04	1.12	-1.500			
0.8787	56235.63	3.2870	3.2869	-0.3142	27.05	1.13	-1.500			
0.8796	56294.93	3.2840	3.2840	-0.3065	27.06	1.14	-1.500			
0.8805	56352.50	3.2810	3.2810	-0.2983	27.06	1.14	-1.500			
0.8814	56410.24	3.2780	3.2781	-0.2920	27.07	1.15	-1.500			
0.8823	56466.36	3.2750	3.2750	-0.2834	27.07	1.15	-1.500			
0.8831	56519.15	3.2720	3.2719	-0.2726	27.08	1.16	-1.500			
0.8839	56570.26	3.2690	3.2691	-0.2642	27.08	1.16	-1.500			
0.8847	56620.01	3.2660	3.2660	-0.2554	27.09	1.17	-1.500			
0.8854	56667.95	3.2630	3.2630	-0.2493	27.09	1.17	-1.500			
0.8862	56714.70	3.2600	3.2600	-0.2415	27.10	1.18	-1.500			
0.8869	56760.24	3.2570	3.2571	-0.2353	27.10	1.18	-1.500			
0.8876	56805.19	3.2540	3.2539	-0.2285	27.11	1.19	-1.500			
0.8883	56848.42	3.2510	3.2512	-0.2236	27.11	1.19	-1.500			
0.8889	56890.56	3.2480	3.2480	-0.2175	27.12	1.20	-1.500			
0.8896	56931.55	3.2450	3.2450	-0.2116	27.12	1.20	-1.500			
0.8902	56971.76	3.2420	3.2419	-0.2063	27.13	1.21	-1.500			
0.8908	57010.13	3.2390	3.2392	-0.2005	27.13	1.21	-1.500			
0.8914	57048.76	3.2360	3.2360	-0.1970	27.13	1.21	-1.500			
0.8920	57086.11	3.2330	3.2329	-0.1920	27.14	1.22	-1.500			
0.8925	57122.43	3.2300	3.2299	-0.1883	27.14	1.22	-1.500			
0.8931	57157.76	3.2270	3.2269	-0.1830	27.15	1.23	-1.500			
0.8936	57192.52	3.2240	3.2241	-0.1798	27.15	1.23	-1.500			
0.8942	57226.70	3.2210	3.2208	-0.1762	27.15	1.23	-1.500			
0.8947	57260.06	3.2180	3.2181	-0.1732	27.16	1.24	-1.500			
0.8952	57292.84	3.2150	3.2149	-0.1697	27.16	1.24	-1.500			
0.8957	57325.28	3.2120	3.2120	-0.1672	27.16	1.24	-1.500			
0.8962	57357.19	3.2090	3.2090	-0.1633	27.17	1.25	-1.500			
0.8967	57388.11	3.2060	3.2061	-0.1597	27.17	1.25	-1.500			
0.8972	57418.64	3.2030	3.2030	-0.1571	27.17	1.25	-1.500			
0.8976	57448.25	3.2000	3.2000	-0.1530	27.18	1.26	-1.500			
0.8981	57477.18	3.1970	3.1970	-0.1509	27.18	1.26	-1.500			
0.8985	57505.42	3.1940	3.1940	-0.1490	27.18	1.26	-1.500			
0.8990	57533.80	3.1910	3.1909	-0.1473	27.19	1.27	-1.500			
0.8994	57561.98	3.1880	3.1880	-0.1463	27.19	1.27	-1.500			
0.8998	57590.22	3.1850	3.1850	-0.1439	27.19	1.27	-1.500			
0.9003	57617.97	3.1820	3.1820	-0.1413	27.20	1.28	-1.500			
0.9007	57644.90	3.1790	3.1790	-0.1392	27.20	1.28	-1.500			
0.9011	57671.34	3.1760	3.1761	-0.1362	27.20	1.28	-1.500			
0.9015	57697.03	3.1730	3.1730	-0.1339	27.21	1.29	-1.500			
0.9019	57722.11	3.1700	3.1699	-0.1317	27.21	1.29	-1.500			
0.9023	57747.07	3.1670	3.1670	-0.1300	27.22	1.30	-1.500			
0.9027	57771.95	3.1640	3.1641	-0.1288	27.22	1.30	-1.500			
0.9031	57796.53	3.1610	3.1610	-0.1278	27.22	1.30	-1.500			
0.9035	57821.04	3.1580	3.1581	-0.1269	27.23	1.31	-1.500			
0.9038	57845.24	3.1550	3.1549	-0.1253	27.23	1.31	-1.500			
0.9042	57869.19	3.1520	3.1520	-0.1242	27.24	1.32	-1.500			
0.9046	57893.04	3.1490	3.1490	-0.1230	27.24	1.32	-1.500			
0.9049	57916.60	3.1460	3.1460	-0.1218	27.24	1.32	-1.500			
0.9053	57939.72	3.1430	3.1430	-0.1207	27.25	1.33	-1.500			
0.9057	57962.76	3.1400	3.1401	-0.1195	27.25	1.33	-1.500			
0.9060	57985.63	3.1370	3.1370	-0.1182	27.25	1.33	-1.500			
0.9064	58008.08	3.1340	3.1340	-0.1168	27.26	1.34	-1.500			
0.9067	58030.40	3.1310	3.1310	-0.1157	27.26	1.34	-1.500			
0.9071	58052.57	3.1280	3.1281	-0.1147	27.27	1.35	-1.500			
0.9074	58074.41	3.1250	3.1249	-0.1139	27.27	1.35	-1.500			
0.9078	58096.16	3.1220	3.1220	-0.1129	27.27	1.35	-1.500			
0.9081	58117.92	3.1190	3.1190	-0.1114	27.28	1.36	-1.500			
0.9084	58139.16	3.1160	3.1159	-0.1101	27.28	1.36	-1.500			
0.9088	58160.01	3.1130	3.1131	-0.1094	27.28	1.36	-1.500			
0.9091	58180.99	3.1100	3.1101	-0.1086	27.29	1.37	-1.500			
0.9094	58201.68	3.1070	3.1071	-0.1079	27.29	1.37	-1.500			
0.9097	58222.16	3.1040	3.1038	-0.1070	27.29	1.37	-1.500			
0.9100	58242.73	3.1010	3.1009	-0.1062	27.30	1.38	-1.500			
0.9104	58262.92	3.0980	3.0980	-0.1054	27.30	1.38	-1.500			
0.9107	58283.22	3.0950	3.0952	-0.1044	27.30	1.38	-1.500			
0.9110	58303.60	3.0920	3.0919	-0.1041	27.31	1.39	-1.500			
0.9113	58323.32	3.0890	3.0889	-0.1031	27.31	1.39	-1.500			
0.9116	58342.83	3.0860	3.0861	-0.1018	27.31	1.39	-1.500			
0.9119	58362.22	3.0830	3.0830	-0.1013	27.32	1.40	-1.500			
0.9122	58381.47	3.0800	3.0799	-0.1005	27.32	1.40	-1.500			
0.9125	58400.80	3.0770	3.0770	-0.0999	27.32	1.40	-1.500			
0.9128	58419.92	3.0740	3.0741	-0.0993	27.33	1.41	-1.500			
0.9131	58438.88	3.0710	3.0709	-0.0989	27.33	1.41	-1.500			
0.9134	58457.86	3.0680	3.0681	-0.0985	27.33	1.41	-1.500			
0.9137	58476.63	3.0650	3.0650	-0.0983	27.34	1.42	-1.500			
0.9140	58495.37	3.0620	3.0621	-0.0979	27.34	1.42	-1.500			
0.9143	58514.36	3.0590	3.0589	-0.0971	27.34	1.42	-1.500			
0.9146	58532.99	3.0560	3.0560	-0.0966	27.35	1.43	-1.500			
0.9149	58551.46	3.0530	3.0530	-0.0959	27.35	1.43	-1.500			
0.9152	58570.02	3.0500	3.0501	-0.0955	27.35	1.43	-1.500			
0.9154	58588.28	3.0470	3.0470	-0.0945	27.36	1.44	-1.500			
0.9157	58606.34	3.0440	3.0441	-0.0936	27.36	1.44	-1.500			
0.9160	58624.01	3.0410	3.0409	-0.0932	27.36	1.44	-1.500			
0.9163	58641.58	3.0380	3.0380	-0.0924	27.37	1.45	-1.500			
0.9166	58659.36	3.0350	3.0350	-0.0921	27.37	1.45	-1.500			
0.9168	58677.10	3.0320	3.0320	-0.0920	27.37	1.45	-1.500			
0.9171	58694.78	3.0290	3.0289	-0.0916	27.38	1.46	-1.500			
0.9174	58712.26	3.0260	3.0261	-0.0912	27.38	1.46	-1.500			
0.9177	58729.84	3.0230	3.0230	-0.0906	27.38	1.46	-1.500			
0.9179	58747.44	3.0200	3.0200	-0.0905	27.39	1.47	-1.500			
0.9182	58764.50	3.0170	3.0170	-0.0903	27.39	1.47	-1.500			
0.9185	58781.55	3.0140	3.0140	-0.0896	27.39	1.47	-1.500			
0.9187	58798.77	3.0110	3.0110	-0.0897	27.40	1.48	-1.500			
0.9190	58815.81	3.0080	3.0081	-0.0900	27.40	1.48	-1.500			
0.9193	58833.13	3.0050	3.0047	-0.0905	27.40	1.48	-1.500			
0.9195	58850.66	3.0020	3.0020	-0.0939	27.40	1.48	-1.501			
