Ah_balance (normalized)	Ah_balance (mAh)	Voltage - fit (V)	Voltage -  interpolate (V)	dQ/dV (1/V)	Temperature (°C)	Temperature - diff (°C)	Current (C)	R_DC 0ms (mOhm)	R_DC 50ms (mOhm)	R_DC 50 ms PEC (mOhm)
0.2824	18073.08	3.9920	3.9920	0.8314	27.47	1.49	1.500			
0.2849	18230.82	3.9890	3.9890	0.8245	27.46	1.48	1.500			
0.2873	18389.55	3.9860	3.9861	0.8338	27.45	1.47	1.500			
0.2899	18551.51	3.9830	3.9830	0.8386	27.44	1.46	1.500			
0.2924	18713.48	3.9800	3.9800	0.8427	27.44	1.46	1.500			
0.2949	18875.37	3.9770	3.9771	0.8480	27.43	1.45	1.500			
0.2975	19039.05	3.9740	3.9739	0.8499	27.42	1.44	1.500			
0.3000	19203.07	3.9710	3.9710	0.8552	27.42	1.44	1.500			
0.3026	19366.50	3.9680	3.9680	0.8563	27.41	1.43	1.500			
0.3052	19531.51	3.9650	3.9650	0.8607	27.40	1.42	1.500			
0.3078	19699.10	3.9620	3.9620	0.8597	27.39	1.41	1.500			
0.3104	19863.57	3.9590	3.9590	0.8656	27.39	1.41	1.500			
0.3130	20029.09	3.9560	3.9561	0.8700	27.38	1.40	1.500			
0.3156	20196.90	3.9530	3.9529	0.8764	27.37	1.39	1.500			
0.3182	20364.87	3.9500	3.9502	0.8786	27.36	1.38	1.500			
0.3208	20534.39	3.9470	3.9470	0.8823	27.36	1.38	1.500			
0.3235	20703.83	3.9440	3.9441	0.8874	27.35	1.37	1.500			
0.3262	20875.63	3.9410	3.9410	0.8944	27.34	1.36	1.500			
0.3289	21047.03	3.9380	3.9381	0.8981	27.34	1.36	1.500			
0.3316	21219.42	3.9350	3.9349	0.9003	27.33	1.35	1.500			
0.3343	21392.21	3.9320	3.9321	0.9094	27.32	1.34	1.500			
0.3370	21568.98	3.9290	3.9290	0.9130	27.31	1.33	1.500			
0.3398	21745.24	3.9260	3.9260	0.9161	27.30	1.32	1.500			
0.3425	21920.80	3.9230	3.9230	0.9197	27.30	1.32	1.500			
0.3453	22097.62	3.9200	3.9200	0.9217	27.29	1.31	1.500			
0.3480	22273.05	3.9170	3.9170	0.9373	27.28	1.30	1.500			
0.3508	22453.57	3.9140	3.9141	0.9429	27.27	1.29	1.500			
0.3537	22635.31	3.9110	3.9109	0.9491	27.26	1.28	1.500			
0.3566	22819.93	3.9080	3.9081	0.9598	27.25	1.27	1.500			
0.3595	23005.42	3.9050	3.9051	0.9658	27.24	1.26	1.500			
0.3624	23190.91	3.9020	3.9020	0.9715	27.23	1.25	1.500			
0.3653	23378.15	3.8990	3.8990	0.9787	27.22	1.24	1.500			
0.3682	23564.58	3.8960	3.8960	0.9858	27.21	1.23	1.500			
0.3712	23756.70	3.8930	3.8930	0.9982	27.20	1.22	1.500			
0.3742	23948.61	3.8900	3.8900	1.0072	27.19	1.21	1.500			
0.3772	24143.41	3.8870	3.8870	1.0168	27.19	1.21	1.500			
0.3803	24339.93	3.8840	3.8840	1.0201	27.18	1.20	1.500			
0.3834	24535.78	3.8810	3.8810	1.0264	27.17	1.19	1.500			
0.3864	24732.01	3.8780	3.8780	1.0377	27.16	1.18	1.500			
0.3895	24929.83	3.8750	3.8751	1.0515	27.15	1.17	1.500			
0.3927	25133.38	3.8720	3.8720	1.0681	27.14	1.16	1.500			
0.3959	25340.28	3.8690	3.8690	1.0807	27.13	1.15	1.500			
0.3992	25551.57	3.8660	3.8660	1.0926	27.11	1.13	1.500			
0.4026	25764.23	3.8630	3.8629	1.1068	27.10	1.12	1.500			
0.4059	25975.28	3.8600	3.8601	1.1158	27.09	1.11	1.500			
0.4092	26189.86	3.8570	3.8570	1.1283	27.08	1.10	1.500			
0.4126	26404.81	3.8540	3.8540	1.1476	27.07	1.09	1.500			
0.4161	26627.36	3.8510	3.8509	1.1768	27.06	1.08	1.500			
0.4197	26857.76	3.8480	3.8479	1.1941	27.05	1.07	1.500			
0.4233	27089.82	3.8450	3.8450	1.2094	27.04	1.06	1.500			
0.4270	27325.41	3.8420	3.8420	1.2206	27.02	1.04	1.500			
0.4306	27559.42	3.8390	3.8391	1.2303	27.01	1.03	1.500			
0.4343	27797.29	3.8360	3.8359	1.2433	27.00	1.02	1.500			
0.4380	28034.50	3.8330	3.8330	1.2583	26.98	1.00	1.500			
0.4418	28275.41	3.8300	3.8300	1.2815	26.97	0.99	1.500			
0.4457	28525.80	3.8270	3.8270	1.3079	26.95	0.97	1.500			
0.4497	28778.82	3.8240	3.8240	1.3342	26.94	0.96	1.500			
0.4537	29039.64	3.8210	3.8210	1.3467	26.93	0.95	1.500			
0.4578	29297.51	3.8180	3.8180	1.3832	26.91	0.93	1.500			
0.4620	29566.10	3.8150	3.8151	1.4136	26.90	0.92	1.500			
0.4663	29840.20	3.8120	3.8117	1.4370	26.88	0.90	1.500			
0.4706	30119.12	3.8090	3.8091	1.4601	26.86	0.88	1.500			
0.4751	30405.49	3.8060	3.8060	1.4796	26.85	0.87	1.500			
0.4796	30691.92	3.8030	3.8030	1.5042	26.83	0.85	1.500			
0.4841	30979.45	3.8000	3.8000	1.5175	26.82	0.84	1.500			
0.4886	31273.49	3.7970	3.7970	1.5425	26.80	0.82	1.500			
0.4933	31571.07	3.7940	3.7941	1.5741	26.78	0.80	1.500			
0.4981	31875.86	3.7910	3.7910	1.6049	26.77	0.79	1.500			
0.5029	32188.66	3.7880	3.7880	1.6252	26.75	0.77	1.500			
0.5078	32502.19	3.7850	3.7851	1.6380	26.73	0.75	1.500	0.344	0.481	
0.5128	32821.51	3.7820	3.7821	1.6619	26.71	0.73	1.500			
0.5179	33142.74	3.7790	3.7791	1.6757	26.70	0.72	1.500			
0.5228	33462.00	3.7760	3.7760	1.6804	26.68	0.70	1.500			
0.5280	33788.84	3.7730	3.7730	1.6787	26.66	0.68	1.500			
0.5330	34111.94	3.7700	3.7700	1.6864	26.65	0.67	1.500			
0.5380	34433.25	3.7670	3.7669	1.7025	26.63	0.65	1.500			
0.5431	34759.15	3.7640	3.7640	1.7048	26.61	0.63	1.500			
0.5483	35088.82	3.7610	3.7611	1.7208	26.60	0.62	1.500			
0.5535	35422.07	3.7580	3.7580	1.7242	26.58	0.60	1.500			
0.5585	35746.01	3.7550	3.7550	1.7197	26.56	0.58	1.500			
0.5637	36076.94	3.7520	3.7521	1.7463	26.55	0.57	1.500			
0.5690	36415.62	3.7490	3.7490	1.7798	26.53	0.55	1.500			
0.5744	36761.89	3.7460	3.7460	1.8147	26.51	0.53	1.500			
0.5799	37116.12	3.7430	3.7430	1.8499	26.50	0.52	1.500			
0.5854	37466.35	3.7400	3.7400	1.8744	26.48	0.50	1.500			
0.5911	37828.85	3.7370	3.7369	1.9128	26.46	0.48	1.500			
0.5969	38200.47	3.7340	3.7340	1.9665	26.44	0.46	1.500			
0.6029	38583.10	3.7310	3.7310	2.0172	26.42	0.44	1.500			
0.6089	38972.43	3.7280	3.7280	2.0940	26.40	0.42	1.500			
0.6153	39381.79	3.7250	3.7248	2.1568	26.38	0.40	1.500			
0.6220	39809.09	3.7220	3.7221	2.2264	26.36	0.38	1.500			
0.6288	40244.18	3.7190	3.7190	2.2651	26.34	0.36	1.500			
0.6356	40681.29	3.7160	3.7160	2.2948	26.32	0.34	1.500			
0.6426	41127.89	3.7130	3.7130	2.3192	26.30	0.32	1.500			
0.6497	41581.39	3.7100	3.7100	2.2802	26.28	0.30	1.500			
0.6566	42021.39	3.7070	3.7070	2.2083	26.26	0.28	1.500			
0.6630	42434.21	3.7040	3.7040	2.0744	26.25	0.27	1.500			
0.6691	42820.22	3.7010	3.7011	1.9389	26.23	0.25	1.500			
0.6747	43180.37	3.6980	3.6980	1.8089	26.22	0.24	1.500			
0.6799	43512.78	3.6950	3.6950	1.6841	26.21	0.23	1.500			
0.6846	43814.79	3.6920	3.6921	1.5829	26.20	0.22	1.500			
0.6892	44111.08	3.6890	3.6890	1.5168	26.18	0.20	1.500			
0.6936	44391.69	3.6860	3.6860	1.4477	26.17	0.19	1.500			
0.6979	44663.88	3.6830	3.6830	1.3962	26.16	0.18	1.500			
0.7020	44927.91	3.6800	3.6800	1.3477	26.15	0.17	1.500			
0.7060	45182.27	3.6770	3.6770	1.3139	26.14	0.16	1.500			
0.7098	45424.05	3.6740	3.6740	1.2859	26.14	0.16	1.500			
0.7135	45666.98	3.6710	3.6710	1.2690	26.13	0.15	1.500			
0.7173	45906.89	3.6680	3.6679	1.2598	26.12	0.14	1.500			
0.7211	46148.08	3.6650	3.6651	1.2609	26.10	0.12	1.500			
0.7248	46390.13	3.6620	3.6620	1.2646	26.09	0.11	1.500			
0.7287	46635.38	3.6590	3.6590	1.2625	26.08	0.10	1.500			
0.7325	46877.52	3.6560	3.6560	1.2545	26.07	0.09	1.500			
0.7362	47119.83	3.6530	3.6531	1.2487	26.06	0.08	1.500			
0.7400	47360.85	3.6500	3.6500	1.2412	26.04	0.06	1.500			
0.7437	47597.35	3.6470	3.6471	1.2292	26.04	0.06	1.500			
0.7474	47831.16	3.6440	3.6440	1.2144	26.03	0.05	1.500			
0.7510	48062.38	3.6410	3.6410	1.2043	26.02	0.04	1.500			
0.7546	48292.54	3.6380	3.6380	1.1931	26.01	0.03	1.500			
0.7581	48521.11	3.6350	3.6350	1.1866	26.01	0.03	1.500			
0.7617	48748.75	3.6320	3.6320	1.1822	26.00	0.02	1.500			
0.7652	48974.93	3.6290	3.6290	1.1725	25.99	0.01	1.500			
0.7687	49198.82	3.6260	3.6260	1.1631	25.99	0.01	1.500			
0.7723	49424.04	3.6230	3.6230	1.1481	25.98	0.00	1.500			
0.7757	49644.75	3.6200	3.6200	1.1301	25.97	-0.01	1.500			
0.7791	49861.13	3.6170	3.6170	1.1045	25.97	-0.01	1.500			
0.7823	50070.13	3.6140	3.6140	1.0802	25.96	-0.02	1.500			
0.7855	50274.02	3.6110	3.6110	1.0547	25.96	-0.02	1.500			
0.7887	50474.42	3.6080	3.6080	1.0303	25.95	-0.03	1.500			
0.7917	50668.76	3.6050	3.6050	1.0042	25.95	-0.03	1.500			
0.7947	50860.79	3.6020	3.6020	0.9801	25.95	-0.03	1.500			
0.7976	51048.48	3.5990	3.5990	0.9486	25.96	-0.02	1.500			
0.8005	51229.04	3.5960	3.5960	0.9104	25.96	-0.02	1.500			
0.8032	51402.83	3.5930	3.5930	0.8549	25.96	-0.02	1.500			
0.8057	51564.89	3.5900	3.5900	0.7936	25.97	-0.01	1.500			
0.8081	51715.32	3.5870	3.5870	0.7181	25.97	-0.01	1.500			
0.8101	51846.27	3.5840	3.5841	0.6343	25.97	-0.01	1.500			
0.8119	51959.97	3.5810	3.5810	0.5509	25.97	-0.01	1.500			
0.8134	52055.64	3.5780	3.5779	0.4697	25.98	-0.00	1.500			
0.8146	52134.12	3.5750	3.5750	0.3970	25.98	-0.00	1.500			
0.8156	52201.39	3.5720	3.5719	0.3422	25.98	-0.00	1.500			
0.8165	52257.96	3.5690	3.5689	0.2946	25.98	0.00	1.500			
0.8173	52308.50	3.5660	3.5659	0.2591	25.98	0.00	1.500			
0.8180	52352.03	3.5630	3.5629	0.2248	25.98	0.00	1.500			
0.8186	52391.61	3.5600	3.5600	0.2032	25.98	0.00	1.500			
0.8192	52426.66	3.5570	3.5570	0.1816	25.98	0.00	1.500			
0.8197	52459.70	3.5540	3.5538	0.1643	25.98	0.00	1.500			
0.8201	52489.44	3.5510	3.5510	0.1492	25.98	0.00	1.500			
0.8206	52516.18	3.5480	3.5481	0.1335	25.99	0.01	1.500			
0.8209	52540.29	3.5450	3.5450	0.1184	25.99	0.01	1.500			
0.8213	52561.80	3.5420	3.5420	0.1043	25.99	0.01	1.500			
0.8216	52580.40	3.5390	3.5390	0.0894	25.99	0.01	1.500			
0.8218	52595.75	3.5360	3.5362	0.0745	25.99	0.01	1.500			
0.8220	52609.32	3.5330	3.5332	0.0599	25.99	0.01	1.500			
0.8222	52619.32	3.5300	3.5305	0.0443	25.99	0.01	1.500			
0.8223	52626.32	3.5270	3.5281	0.0287	25.99	0.01	1.500			
