Ah_balance (normalized)	Ah_balance (mAh)	Voltage - fit (V)	Voltage -  interpolate (V)	dQ/dV (1/V)	Temperature (°C)	Temperature - diff (°C)	Current (C)	R_DC 0ms (mOhm)	R_DC 50ms (mOhm)	R_DC 50 ms PEC (mOhm)
0.1908	12213.68	3.9270	3.9269	-0.1036	25.61	-0.03	-1.500			
0.1912	12236.70	3.9240	3.9239	-0.1333	25.61	-0.03	-1.500			
0.1916	12265.06	3.9210	3.9209	-0.1615	25.61	-0.03	-1.500			
0.1922	12299.14	3.9180	3.9180	-0.1882	25.62	-0.02	-1.500			
0.1928	12338.00	3.9150	3.9150	-0.2138	25.62	-0.02	-1.500			
0.1935	12382.04	3.9120	3.9120	-0.2403	25.62	-0.02	-1.500			
0.1942	12430.74	3.9090	3.9090	-0.2636	25.62	-0.02	-1.500			
0.1951	12483.72	3.9060	3.9060	-0.2878	25.62	-0.02	-1.500			
0.1960	12541.29	3.9030	3.9031	-0.3110	25.62	-0.02	-1.500			
0.1969	12603.39	3.9000	3.9000	-0.3335	25.62	-0.02	-1.500			
0.1980	12670.13	3.8970	3.8970	-0.3564	25.63	-0.01	-1.500			
0.1991	12740.58	3.8940	3.8940	-0.3782	25.63	-0.01	-1.500			
0.2002	12815.04	3.8910	3.8910	-0.4004	25.63	-0.01	-1.500			
0.2015	12894.49	3.8880	3.8881	-0.4214	25.63	-0.01	-1.500			
0.2028	12977.37	3.8850	3.8849	-0.4422	25.63	-0.01	-1.500			
0.2041	13064.54	3.8820	3.8820	-0.4623	25.63	-0.01	-1.500			
0.2056	13155.68	3.8790	3.8790	-0.4813	25.64	-0.00	-1.500			
0.2070	13249.69	3.8760	3.8760	-0.5000	25.64	-0.00	-1.500			
0.2086	13348.50	3.8730	3.8730	-0.5150	25.64	0.00	-1.500			
0.2101	13449.15	3.8700	3.8700	-0.5293	25.64	0.00	-1.500			
0.2118	13552.19	3.8670	3.8670	-0.5448	25.65	0.01	-1.500			
0.2134	13657.71	3.8640	3.8640	-0.5581	25.65	0.01	-1.500			
0.2151	13766.42	3.8610	3.8610	-0.5706	25.65	0.01	-1.500			
0.2168	13877.58	3.8580	3.8580	-0.5811	25.66	0.02	-1.500			
0.2186	13990.77	3.8550	3.8551	-0.5925	25.66	0.02	-1.500			
0.2204	14106.49	3.8520	3.8520	-0.6026	25.66	0.02	-1.500			
0.2222	14223.61	3.8490	3.8490	-0.6071	25.66	0.02	-1.500			
0.2241	14340.62	3.8460	3.8460	-0.6104	25.67	0.03	-1.500			
0.2259	14457.74	3.8430	3.8431	-0.6165	25.67	0.03	-1.500			
0.2278	14576.63	3.8400	3.8400	-0.6220	25.67	0.03	-1.500			
0.2296	14696.51	3.8370	3.8370	-0.6266	25.68	0.04	-1.500			
0.2315	14817.23	3.8340	3.8340	-0.6292	25.68	0.04	-1.500			
0.2334	14939.78	3.8310	3.8310	-0.6324	25.68	0.04	-1.500			
0.2353	15061.50	3.8280	3.8280	-0.6368	25.69	0.05	-1.500			
0.2372	15183.71	3.8250	3.8251	-0.6376	25.69	0.05	-1.500			
0.2391	15305.15	3.8220	3.8219	-0.6402	25.70	0.06	-1.500			
0.2411	15428.67	3.8190	3.8190	-0.6436	25.70	0.06	-1.500			
0.2430	15552.26	3.8160	3.8160	-0.6462	25.71	0.07	-1.500			
0.2450	15677.10	3.8130	3.8130	-0.6475	25.71	0.07	-1.500			
0.2469	15802.50	3.8100	3.8101	-0.6511	25.71	0.07	-1.500			
0.2489	15927.03	3.8070	3.8069	-0.6511	25.72	0.08	-1.500			
0.2508	16052.55	3.8040	3.8040	-0.6531	25.72	0.08	-1.500			
0.2528	16177.91	3.8010	3.8010	-0.6537	25.73	0.09	-1.500			
0.2547	16302.95	3.7980	3.7980	-0.6562	25.73	0.09	-1.500			
0.2567	16428.99	3.7950	3.7950	-0.6584	25.74	0.10	-1.500			
0.2587	16555.75	3.7920	3.7920	-0.6592	25.74	0.10	-1.500			
0.2607	16682.32	3.7890	3.7889	-0.6577	25.75	0.11	-1.500			
0.2626	16808.14	3.7860	3.7862	-0.6620	25.76	0.12	-1.500			
0.2646	16935.78	3.7830	3.7830	-0.6633	25.76	0.12	-1.500			
0.2666	17063.40	3.7800	3.7800	-0.6669	25.77	0.13	-1.500			
0.2686	17191.87	3.7770	3.7769	-0.6686	25.78	0.14	-1.500			
0.2706	17319.90	3.7740	3.7741	-0.6701	25.78	0.14	-1.500			
0.2727	17449.61	3.7710	3.7710	-0.6695	25.79	0.15	-1.500			
0.2746	17577.44	3.7680	3.7681	-0.6732	25.80	0.16	-1.500			
0.2767	17706.34	3.7650	3.7650	-0.6726	25.80	0.16	-1.500			
0.2787	17836.05	3.7620	3.7618	-0.6772	25.81	0.17	-1.500			
0.2807	17965.65	3.7590	3.7590	-0.6798	25.81	0.17	-1.500			
0.2828	18097.54	3.7560	3.7560	-0.6844	25.82	0.18	-1.500			
0.2848	18229.47	3.7530	3.7530	-0.6873	25.83	0.19	-1.500			
0.2869	18361.67	3.7500	3.7500	-0.6907	25.83	0.19	-1.500			
0.2889	18492.59	3.7470	3.7471	-0.6915	25.84	0.20	-1.500			
0.2910	18626.71	3.7440	3.7439	-0.7005	25.84	0.20	-1.500			
0.2931	18761.15	3.7410	3.7410	-0.7007	25.85	0.21	-1.500			
0.2953	18896.46	3.7380	3.7380	-0.7050	25.86	0.22	-1.500			
0.2974	19032.73	3.7350	3.7350	-0.7074	25.86	0.22	-1.500			
0.2995	19168.50	3.7320	3.7320	-0.7145	25.87	0.23	-1.500			
0.3016	19305.59	3.7290	3.7291	-0.7207	25.87	0.23	-1.500			
0.3038	19444.08	3.7260	3.7259	-0.7254	25.88	0.24	-1.500			
0.3060	19584.02	3.7230	3.7230	-0.7329	25.89	0.25	-1.500			
0.3082	19726.90	3.7200	3.7200	-0.7406	25.89	0.25	-1.500			
0.3104	19868.45	3.7170	3.7171	-0.7463	25.90	0.26	-1.500			
0.3127	20013.60	3.7140	3.7140	-0.7523	25.91	0.27	-1.500			
0.3150	20157.27	3.7110	3.7110	-0.7560	25.91	0.27	-1.500			
0.3172	20303.22	3.7080	3.7079	-0.7653	25.92	0.28	-1.500			
0.3195	20450.10	3.7050	3.7051	-0.7741	25.92	0.28	-1.500			
0.3219	20599.13	3.7020	3.7020	-0.7829	25.93	0.29	-1.500			
0.3243	20752.57	3.6990	3.6989	-0.7925	25.94	0.30	-1.500			
0.3266	20904.76	3.6960	3.6960	-0.7995	25.94	0.30	-1.500			
0.3291	21059.86	3.6930	3.6930	-0.8072	25.95	0.31	-1.500			
0.3315	21214.74	3.6900	3.6900	-0.8121	25.96	0.32	-1.500			
0.3339	21370.22	3.6870	3.6869	-0.8230	25.96	0.32	-1.500			
0.3364	21529.46	3.6840	3.6840	-0.8321	25.97	0.33	-1.500			
0.3389	21689.50	3.6810	3.6809	-0.8447	25.98	0.34	-1.500			
0.3414	21852.71	3.6780	3.6781	-0.8596	25.98	0.34	-1.500			
0.3441	22020.50	3.6750	3.6750	-0.8691	25.99	0.35	-1.500			
0.3467	22189.60	3.6720	3.6720	-0.8791	25.99	0.35	-1.500			
0.3493	22358.37	3.6690	3.6690	-0.8892	26.00	0.36	-1.500			
0.3520	22529.58	3.6660	3.6661	-0.8968	26.01	0.37	-1.500			
0.3547	22703.30	3.6630	3.6630	-0.9090	26.01	0.37	-1.500			
0.3575	22876.92	3.6600	3.6600	-0.9208	26.02	0.38	-1.500			
0.3602	23055.65	3.6570	3.6571	-0.9329	26.02	0.38	-1.500			
0.3631	23237.09	3.6540	3.6539	-0.9495	26.03	0.39	-1.500			
0.3659	23420.34	3.6510	3.6510	-0.9641	26.03	0.39	-1.500			
0.3689	23606.79	3.6480	3.6481	-0.9742	26.04	0.40	-1.500			
0.3718	23795.63	3.6450	3.6450	-0.9921	26.04	0.40	-1.500			
0.3748	23987.51	3.6420	3.6420	-1.0042	26.05	0.41	-1.500			
0.3778	24181.26	3.6390	3.6390	-1.0172	26.05	0.41	-1.500			
0.3809	24378.78	3.6360	3.6359	-1.0325	26.06	0.42	-1.500			
0.3840	24577.29	3.6330	3.6330	-1.0429	26.06	0.42	-1.500			
0.3871	24777.16	3.6300	3.6300	-1.0587	26.07	0.43	-1.500			
0.3904	24983.58	3.6270	3.6269	-1.0719	26.07	0.43	-1.500			
0.3936	25189.43	3.6240	3.6240	-1.0869	26.08	0.44	-1.500			
0.3969	25400.12	3.6210	3.6210	-1.1091	26.08	0.44	-1.500			
0.4003	25616.81	3.6180	3.6180	-1.1213	26.09	0.45	-1.500			
0.4037	25834.51	3.6150	3.6150	-1.1306	26.09	0.45	-1.500			
0.4071	26052.08	3.6120	3.6121	-1.1439	26.10	0.46	-1.500			
0.4105	26271.67	3.6090	3.6090	-1.1600	26.10	0.46	-1.500			
0.4140	26495.57	3.6060	3.6059	-1.1789	26.10	0.46	-1.500			
0.4175	26721.80	3.6030	3.6030	-1.1879	26.10	0.46	-1.500			
0.4211	26950.87	3.6000	3.6000	-1.2110	26.11	0.47	-1.500			
0.4248	27190.13	3.5970	3.5970	-1.2307	26.11	0.47	-1.500			
0.4286	27427.25	3.5940	3.5938	-1.2424	26.11	0.47	-1.500			
0.4323	27666.10	3.5910	3.5913	-1.2536	26.11	0.47	-1.500			
0.4361	27907.89	3.5880	3.5880	-1.2680	26.11	0.47	-1.500			
0.4399	28151.45	3.5850	3.5849	-1.2842	26.12	0.48	-1.500			
0.4437	28399.44	3.5820	3.5820	-1.3058	26.12	0.48	-1.500			
0.4477	28651.00	3.5790	3.5790	-1.3250	26.13	0.49	-1.500			
0.4517	28908.38	3.5760	3.5760	-1.3399	26.13	0.49	-1.500			
0.4557	29166.38	3.5730	3.5730	-1.3597	26.14	0.50	-1.500			
0.4598	29429.50	3.5700	3.5700	-1.3799	26.14	0.50	-1.500			
0.4640	29696.96	3.5670	3.5669	-1.3970	26.15	0.51	-1.500			
0.4682	29965.66	3.5640	3.5640	-1.4190	26.15	0.51	-1.500			
0.4725	30239.03	3.5610	3.5611	-1.4390	26.15	0.51	-1.500			
0.4769	30519.14	3.5580	3.5581	-1.4611	26.16	0.52	-1.500			
0.4813	30802.54	3.5550	3.5550	-1.4834	26.16	0.52	-1.500			
0.4857	31087.73	3.5520	3.5520	-1.5000	26.17	0.53	-1.500			
0.4903	31376.87	3.5490	3.5490	-1.5225	26.17	0.53	-1.500			
0.4949	31672.09	3.5460	3.5460	-1.5414	26.18	0.54	-1.500			
0.4995	31970.32	3.5430	3.5430	-1.5564	26.19	0.55	-1.500			
0.5042	32270.46	3.5400	3.5400	-1.5788	26.20	0.56	-1.500			
0.5090	32576.75	3.5370	3.5371	-1.5942	26.20	0.56	-1.500			
0.5138	32883.34	3.5340	3.5340	-1.6139	26.21	0.57	-1.500			
0.5187	33198.19	3.5310	3.5309	-1.6319	26.21	0.57	-1.500			
0.5237	33514.35	3.5280	3.5274	-1.6414	26.22	0.58	-1.500	0.376	0.533	
0.5286	33831.86	3.5250	3.5249	-1.6519	26.23	0.59	-1.500			
0.5336	34152.07	3.5220	3.5221	-1.6592	26.23	0.59	-1.500			
0.5386	34468.22	3.5190	3.5189	-1.6678	26.24	0.60	-1.500			
0.5435	34787.03	3.5160	3.5160	-1.6806	26.24	0.60	-1.500			
0.5486	35109.51	3.5130	3.5130	-1.6871	26.25	0.61	-1.500			
0.5537	35439.26	3.5100	3.5100	-1.7074	26.26	0.62	-1.500			
0.5589	35770.67	3.5070	3.5070	-1.7126	26.26	0.62	-1.500			
0.5641	36099.55	3.5040	3.5040	-1.7083	26.27	0.63	-1.500			
0.5692	36428.83	3.5010	3.5010	-1.7091	26.28	0.64	-1.500			
0.5743	36752.61	3.4980	3.4980	-1.7030	26.29	0.65	-1.500			
0.5794	37081.04	3.4950	3.4950	-1.7056	26.30	0.66	-1.500			
0.5845	37410.33	3.4920	3.4919	-1.6996	26.30	0.66	-1.500			
0.5896	37736.21	3.4890	3.4890	-1.6941	26.31	0.67	-1.500			
0.5947	38062.99	3.4860	3.4860	-1.6949	26.32	0.68	-1.500			
0.5998	38387.12	3.4830	3.4830	-1.6852	26.34	0.70	-1.500			
0.6049	38711.84	3.4800	3.4799	-1.6719	26.35	0.71	-1.500			
0.6099	39031.97	3.4770	3.4770	-1.6592	26.36	0.72	-1.500			
0.6148	39349.45	3.4740	3.4740	-1.6502	26.37	0.73	-1.500			
0.6198	39669.81	3.4710	3.4710	-1.6291	26.38	0.74	-1.500			
0.6246	39976.89	3.4680	3.4680	-1.6016	26.39	0.75	-1.500			
0.6294	40283.92	3.4650	3.4650	-1.5861	26.40	0.76	-1.500			
0.6341	40585.10	3.4620	3.4620	-1.5660	26.41	0.77	-1.500			
0.6388	40884.18	3.4590	3.4589	-1.5480	26.43	0.79	-1.500			
0.6434	41179.38	3.4560	3.4560	-1.5280	26.44	0.80	-1.500			
0.6480	41470.39	3.4530	3.4530	-1.5127	26.45	0.81	-1.500			
0.6525	41762.08	3.4500	3.4500	-1.4977	26.46	0.82	-1.500			
0.6570	42046.42	3.4470	3.4470	-1.4712	26.47	0.83	-1.500			
0.6613	42326.19	3.4440	3.4440	-1.4558	26.48	0.84	-1.500			
0.6657	42603.26	3.4410	3.4410	-1.4345	26.50	0.86	-1.500			
0.6700	42877.19	3.4380	3.4380	-1.4227	26.52	0.88	-1.500			
0.6742	43149.77	3.4350	3.4350	-1.4019	26.53	0.89	-1.500			
0.6784	43417.76	3.4320	3.4320	-1.3855	26.55	0.91	-1.500			
0.6825	43683.06	3.4290	3.4291	-1.3702	26.56	0.92	-1.500			
0.6866	43944.78	3.4260	3.4259	-1.3493	26.58	0.94	-1.500			
0.6906	44200.85	3.4230	3.4230	-1.3291	26.60	0.96	-1.500			
0.6946	44453.95	3.4200	3.4200	-1.3131	26.61	0.97	-1.500			
0.6985	44705.75	3.4170	3.4170	-1.2957	26.63	0.99	-1.500			
0.7024	44953.75	3.4140	3.4140	-1.2705	26.64	1.00	-1.500			
0.7062	45193.96	3.4110	3.4110	-1.2455	26.66	1.02	-1.500			
0.7099	45431.42	3.4080	3.4080	-1.2188	26.67	1.03	-1.500			
0.7135	45663.98	3.4050	3.4049	-1.1924	26.69	1.05	-1.500			
0.7170	45888.26	3.4020	3.4020	-1.1635	26.70	1.06	-1.500			
0.7205	46108.82	3.3990	3.3990	-1.1322	26.72	1.08	-1.500			
0.7238	46325.73	3.3960	3.3960	-1.1033	26.73	1.09	-1.500			
0.7271	46535.04	3.3930	3.3930	-1.0676	26.75	1.11	-1.500			
0.7302	46735.11	3.3900	3.3901	-1.0334	26.76	1.12	-1.500			
0.7333	46931.59	3.3870	3.3870	-1.0002	26.77	1.13	-1.500			
0.7362	47118.71	3.3840	3.3840	-0.9685	26.78	1.14	-1.500			
0.7391	47301.70	3.3810	3.3810	-0.9369	26.79	1.15	-1.500			
0.7419	47479.67	3.3780	3.3780	-0.9083	26.81	1.17	-1.500			
0.7445	47649.48	3.3750	3.3750	-0.8786	26.82	1.18	-1.500			
0.7471	47816.09	3.3720	3.3721	-0.8534	26.83	1.19	-1.500			
0.7496	47976.00	3.3690	3.3689	-0.8250	26.85	1.21	-1.500			
0.7521	48132.69	3.3660	3.3660	-0.8015	26.86	1.22	-1.500			
0.7544	48282.97	3.3630	3.3630	-0.7737	26.86	1.22	-1.500			
0.7567	48430.78	3.3600	3.3599	-0.7482	26.87	1.23	-1.500			
0.7589	48571.91	3.3570	3.3570	-0.7238	26.88	1.24	-1.500			
0.7611	48707.55	3.3540	3.3540	-0.6988	26.89	1.25	-1.500			
0.7631	48837.85	3.3510	3.3511	-0.6781	26.90	1.26	-1.500			
0.7651	48965.95	3.3480	3.3479	-0.6590	26.91	1.27	-1.500			
0.7670	49089.89	3.3450	3.3451	-0.6409	26.92	1.28	-1.500			
0.7689	49211.28	3.3420	3.3420	-0.6272	26.93	1.29	-1.500			
0.7708	49331.28	3.3390	3.3390	-0.6146	26.93	1.29	-1.500			
0.7726	49447.55	3.3360	3.3359	-0.5966	26.94	1.30	-1.500			
0.7744	49560.35	3.3330	3.3330	-0.5804	26.95	1.31	-1.500			
0.7761	49670.49	3.3300	3.3300	-0.5627	26.96	1.32	-1.500			
0.7778	49777.35	3.3270	3.3271	-0.5473	26.97	1.33	-1.500			
0.7794	49879.99	3.3240	3.3240	-0.5316	26.97	1.33	-1.500			
0.7809	49979.79	3.3210	3.3210	-0.5146	26.98	1.34	-1.500			
0.7825	50077.51	3.3180	3.3179	-0.5010	26.98	1.34	-1.500			
0.7839	50171.99	3.3150	3.3151	-0.4881	26.99	1.35	-1.500			
0.7854	50264.34	3.3120	3.3120	-0.4756	27.00	1.36	-1.500			
0.7868	50354.67	3.3090	3.3090	-0.4638	27.01	1.37	-1.500			
0.7882	50442.08	3.3060	3.3059	-0.4516	27.01	1.37	-1.500			
0.7895	50527.55	3.3030	3.3030	-0.4406	27.02	1.38	-1.500			
0.7908	50611.77	3.3000	3.3000	-0.4303	27.03	1.39	-1.500			
0.7921	50692.77	3.2970	3.2971	-0.4208	27.03	1.39	-1.500			
0.7933	50772.39	3.2940	3.2940	-0.4111	27.04	1.40	-1.500			
0.7945	50850.91	3.2910	3.2910	-0.4018	27.05	1.41	-1.500			
0.7957	50927.03	3.2880	3.2879	-0.3921	27.06	1.42	-1.500			
0.7969	51001.24	3.2850	3.2851	-0.3826	27.06	1.42	-1.500			
0.7980	51073.88	3.2820	3.2820	-0.3752	27.07	1.43	-1.500			
0.7991	51144.71	3.2790	3.2790	-0.3681	27.07	1.43	-1.500			
0.8002	51214.16	3.2760	3.2761	-0.3576	27.08	1.44	-1.500			
0.8013	51282.44	3.2730	3.2730	-0.3516	27.08	1.44	-1.500			
0.8023	51349.92	3.2700	3.2700	-0.3452	27.09	1.45	-1.500			
0.8034	51415.35	3.2670	3.2670	-0.3366	27.09	1.45	-1.500			
0.8044	51479.26	3.2640	3.2640	-0.3278	27.10	1.46	-1.500			
0.8053	51540.99	3.2610	3.2610	-0.3201	27.10	1.46	-1.500			
0.8063	51601.51	3.2580	3.2580	-0.3123	27.11	1.47	-1.500			
0.8072	51661.06	3.2550	3.2551	-0.3078	27.11	1.47	-1.500			
0.8081	51718.98	3.2520	3.2520	-0.3009	27.12	1.48	-1.500			
0.8090	51776.38	3.2490	3.2491	-0.2954	27.12	1.48	-1.500			
0.8099	51832.35	3.2460	3.2460	-0.2897	27.13	1.49	-1.500			
0.8107	51887.58	3.2430	3.2429	-0.2849	27.14	1.50	-1.500			
0.8116	51941.68	3.2400	3.2400	-0.2788	27.14	1.50	-1.500			
0.8124	51994.88	3.2370	3.2369	-0.2734	27.15	1.51	-1.500			
0.8132	52046.51	3.2340	3.2341	-0.2686	27.15	1.51	-1.500			
0.8140	52097.78	3.2310	3.2310	-0.2654	27.16	1.52	-1.500			
0.8148	52148.06	3.2280	3.2280	-0.2613	27.16	1.52	-1.500			
0.8156	52197.67	3.2250	3.2249	-0.2581	27.17	1.53	-1.500			
0.8164	52247.01	3.2220	3.2221	-0.2539	27.18	1.54	-1.500			
0.8171	52295.78	3.2190	3.2190	-0.2502	27.18	1.54	-1.500			
0.8179	52343.76	3.2160	3.2160	-0.2459	27.19	1.55	-1.500			
0.8186	52390.72	3.2130	3.2130	-0.2410	27.19	1.55	-1.500			
0.8193	52435.87	3.2100	3.2100	-0.2369	27.20	1.56	-1.500			
0.8200	52480.78	3.2070	3.2070	-0.2339	27.20	1.56	-1.500			
0.8207	52525.26	3.2040	3.2039	-0.2307	27.21	1.57	-1.500			
0.8214	52569.19	3.2010	3.2011	-0.2268	27.21	1.57	-1.500			
0.8221	52612.80	3.1980	3.1980	-0.2242	27.22	1.58	-1.500			
0.8227	52655.56	3.1950	3.1951	-0.2215	27.22	1.58	-1.500			
0.8234	52697.67	3.1920	3.1920	-0.2188	27.23	1.59	-1.500			
0.8240	52739.10	3.1890	3.1889	-0.2154	27.23	1.59	-1.500			
0.8247	52780.25	3.1860	3.1860	-0.2132	27.24	1.60	-1.500			
0.8253	52820.97	3.1830	3.1830	-0.2101	27.24	1.60	-1.500			
0.8260	52860.97	3.1800	3.1800	-0.2083	27.25	1.61	-1.500			
0.8266	52900.78	3.1770	3.1771	-0.2066	27.25	1.61	-1.500			
0.8272	52940.24	3.1740	3.1740	-0.2044	27.25	1.61	-1.500			
0.8278	52979.08	3.1710	3.1709	-0.2018	27.26	1.62	-1.500			
0.8284	53017.81	3.1680	3.1680	-0.1990	27.26	1.62	-1.500			
0.8290	53055.76	3.1650	3.1651	-0.1972	27.27	1.63	-1.500			
0.8296	53093.38	3.1620	3.1620	-0.1947	27.27	1.63	-1.500			
0.8302	53130.66	3.1590	3.1590	-0.1929	27.28	1.64	-1.500			
0.8307	53167.16	3.1560	3.1559	-0.1900	27.28	1.64	-1.500			
0.8313	53203.34	3.1530	3.1530	-0.1880	27.28	1.64	-1.500			
0.8319	53239.32	3.1500	3.1500	-0.1864	27.29	1.65	-1.500			
0.8324	53274.96	3.1470	3.1471	-0.1852	27.29	1.65	-1.500			
0.8330	53310.24	3.1440	3.1439	-0.1845	27.30	1.66	-1.500			
0.8335	53345.14	3.1410	3.1411	-0.1829	27.30	1.66	-1.500			
0.8341	53380.44	3.1380	3.1380	-0.1812	27.31	1.67	-1.500			
0.8346	53415.20	3.1350	3.1350	-0.1799	27.32	1.68	-1.500			
0.8352	53449.97	3.1320	3.1321	-0.1786	27.32	1.68	-1.500			
0.8357	53484.04	3.1290	3.1290	-0.1764	27.33	1.69	-1.500			
0.8362	53517.82	3.1260	3.1259	-0.1743	27.34	1.70	-1.500			
0.8367	53550.80	3.1230	3.1230	-0.1727	27.34	1.70	-1.500			
0.8372	53583.61	3.1200	3.1201	-0.1706	27.35	1.71	-1.500			
0.8378	53616.25	3.1170	3.1170	-0.1694	27.36	1.72	-1.500			
0.8383	53648.85	3.1140	3.1139	-0.1681	27.36	1.72	-1.500			
0.8388	53680.85	3.1110	3.1111	-0.1665	27.37	1.73	-1.500			
0.8393	53712.74	3.1080	3.1080	-0.1654	27.37	1.73	-1.500			
0.8398	53744.36	3.1050	3.1049	-0.1639	27.38	1.74	-1.500			
0.8402	53775.67	3.1020	3.1021	-0.1627	27.39	1.75	-1.500			
0.8407	53806.51	3.0990	3.0990	-0.1616	27.39	1.75	-1.500			
0.8412	53837.45	3.0960	3.0959	-0.1612	27.40	1.76	-1.500			
0.8417	53868.36	3.0930	3.0931	-0.1608	27.40	1.76	-1.500			
0.8422	53899.31	3.0900	3.0899	-0.1587	27.41	1.77	-1.500			
0.8427	53929.72	3.0870	3.0870	-0.1578	27.41	1.77	-1.500			
0.8431	53959.84	3.0840	3.0840	-0.1569	27.42	1.78	-1.500			
0.8436	53989.86	3.0810	3.0811	-0.1558	27.42	1.78	-1.500			
0.8441	54019.57	3.0780	3.0779	-0.1551	27.43	1.79	-1.500			
0.8445	54049.10	3.0750	3.0750	-0.1539	27.43	1.79	-1.500			
0.8450	54078.85	3.0720	3.0719	-0.1525	27.44	1.80	-1.500			
0.8454	54108.01	3.0690	3.0691	-0.1513	27.44	1.80	-1.500			
0.8459	54137.36	3.0660	3.0659	-0.1506	27.45	1.81	-1.500			
0.8463	54165.83	3.0630	3.0631	-0.1493	27.45	1.81	-1.500			
0.8468	54194.26	3.0600	3.0599	-0.1479	27.46	1.82	-1.500			
0.8472	54222.57	3.0570	3.0569	-0.1470	27.46	1.82	-1.500			
0.8477	54250.40	3.0540	3.0541	-0.1469	27.47	1.83	-1.500			
0.8481	54278.59	3.0510	3.0511	-0.1467	27.47	1.83	-1.500			
0.8486	54307.33	3.0480	3.0479	-0.1463	27.48	1.84	-1.500			
0.8490	54335.29	3.0450	3.0449	-0.1449	27.48	1.84	-1.500			
0.8494	54363.00	3.0420	3.0421	-0.1439	27.49	1.85	-1.500			
0.8499	54390.63	3.0390	3.0391	-0.1425	27.49	1.85	-1.500			
0.8503	54417.78	3.0360	3.0358	-0.1416	27.50	1.86	-1.500			
0.8507	54444.83	3.0330	3.0329	-0.1402	27.50	1.86	-1.500			
0.8511	54471.23	3.0300	3.0301	-0.1389	27.50	1.86	-1.500			
0.8515	54497.80	3.0270	3.0270	-0.1382	27.51	1.87	-1.500			
0.8519	54524.44	3.0240	3.0240	-0.1381	27.51	1.87	-1.500			
0.8524	54550.87	3.0210	3.0210	-0.1373	27.52	1.88	-1.500			
0.8528	54577.05	3.0180	3.0180	-0.1362	27.52	1.88	-1.500			
0.8532	54603.15	3.0150	3.0151	-0.1361	27.53	1.89	-1.500			
0.8536	54629.05	3.0120	3.0120	-0.1354	27.53	1.89	-1.500			
0.8540	54655.02	3.0090	3.0090	-0.1352	27.54	1.90	-1.500			
0.8544	54680.96	3.0060	3.0059	-0.1351	27.54	1.90	-1.500			
0.8548	54706.92	3.0030	3.0030	-0.1360	27.54	1.90	-1.500			
