Ah_balance (normalized)	Ah_balance (mAh)	Voltage - fit (V)	Voltage -  interpolate (V)	dQ/dV (1/V)	Temperature (°C)	Temperature - diff (°C)	Current (C)	R_DC 0ms (mOhm)	R_DC 50ms (mOhm)	R_DC 50 ms PEC (mOhm)
0.2864	18332.61	3.9720	3.9720	0.8414	27.04	1.06	1.500			
0.2890	18495.51	3.9690	3.9691	0.8598	27.04	1.06	1.500			
0.2916	18663.41	3.9660	3.9660	0.8760	27.04	1.06	1.500			
0.2943	18834.63	3.9630	3.9630	0.8810	27.04	1.06	1.500			
0.2970	19006.21	3.9600	3.9601	0.8862	27.04	1.06	1.500			
0.2996	19176.03	3.9570	3.9570	0.8875	27.03	1.05	1.500			
0.3023	19348.42	3.9540	3.9540	0.8929	27.03	1.05	1.500			
0.3050	19518.14	3.9510	3.9509	0.8893	27.03	1.05	1.500			
0.3076	19687.54	3.9480	3.9480	0.8910	27.03	1.05	1.500			
0.3103	19858.92	3.9450	3.9451	0.9003	27.03	1.05	1.500			
0.3130	20033.43	3.9420	3.9420	0.9108	27.02	1.04	1.500			
0.3158	20208.11	3.9390	3.9389	0.9140	27.02	1.04	1.500			
0.3185	20383.84	3.9360	3.9360	0.9188	27.02	1.04	1.500			
0.3213	20561.01	3.9330	3.9331	0.9267	27.01	1.03	1.500			
0.3241	20742.08	3.9300	3.9299	0.9287	27.01	1.03	1.500			
0.3269	20920.20	3.9270	3.9269	0.9286	27.01	1.03	1.500			
0.3296	21096.95	3.9240	3.9241	0.9281	27.00	1.02	1.500			
0.3324	21275.30	3.9210	3.9211	0.9318	27.00	1.02	1.500			
0.3352	21454.38	3.9180	3.9179	0.9387	26.99	1.01	1.500			
0.3380	21635.02	3.9150	3.9150	0.9429	26.99	1.01	1.500			
0.3409	21815.33	3.9120	3.9120	0.9524	26.98	1.00	1.500			
0.3438	22000.74	3.9090	3.9090	0.9628	26.98	1.00	1.500			
0.3467	22186.96	3.9060	3.9060	0.9699	26.97	0.99	1.500			
0.3496	22374.51	3.9030	3.9031	0.9753	26.97	0.99	1.500			
0.3525	22561.23	3.9000	3.9000	0.9892	26.96	0.98	1.500			
0.3555	22752.11	3.8970	3.8971	0.9973	26.96	0.98	1.500			
0.3585	22944.59	3.8940	3.8939	1.0030	26.95	0.97	1.500			
0.3615	23136.96	3.8910	3.8911	1.0097	26.95	0.97	1.500			
0.3646	23332.95	3.8880	3.8881	1.0204	26.94	0.96	1.500			
0.3676	23528.76	3.8850	3.8848	1.0289	26.94	0.96	1.500			
0.3707	23727.37	3.8820	3.8821	1.0386	26.94	0.96	1.500			
0.3738	23926.08	3.8790	3.8790	1.0498	26.93	0.95	1.500			
0.3770	24130.95	3.8760	3.8760	1.0641	26.92	0.94	1.500			
0.3803	24336.87	3.8730	3.8730	1.0711	26.92	0.94	1.500			
0.3835	24543.85	3.8700	3.8701	1.0843	26.91	0.93	1.500			
0.3868	24752.63	3.8670	3.8670	1.0985	26.91	0.93	1.500			
0.3901	24963.76	3.8640	3.8641	1.1133	26.90	0.92	1.500			
0.3934	25177.47	3.8610	3.8609	1.1286	26.90	0.92	1.500			
0.3968	25395.28	3.8580	3.8580	1.1466	26.90	0.92	1.500			
0.4003	25618.03	3.8550	3.8550	1.1688	26.89	0.91	1.500			
0.4038	25845.14	3.8520	3.8520	1.1872	26.89	0.91	1.500			
0.4074	26076.05	3.8490	3.8490	1.2083	26.88	0.90	1.500			
0.4111	26309.88	3.8460	3.8460	1.2260	26.88	0.90	1.500			
0.4148	26547.41	3.8430	3.8431	1.2469	26.87	0.89	1.500			
0.4186	26788.48	3.8400	3.8400	1.2634	26.87	0.89	1.500			
0.4224	27032.97	3.8370	3.8370	1.2788	26.86	0.88	1.500			
0.4262	27279.42	3.8340	3.8340	1.2940	26.85	0.87	1.500			
0.4301	27527.49	3.8310	3.8311	1.3218	26.84	0.86	1.500			
0.4341	27783.44	3.8280	3.8280	1.3453	26.83	0.85	1.500			
0.4382	28042.81	3.8250	3.8250	1.3761	26.82	0.84	1.500			
0.4423	28309.42	3.8220	3.8221	1.4092	26.81	0.83	1.500			
0.4466	28584.66	3.8190	3.8190	1.4409	26.80	0.82	1.500			
0.4510	28865.54	3.8160	3.8159	1.4720	26.79	0.81	1.500			
0.4555	29149.56	3.8130	3.8131	1.5054	26.78	0.80	1.500			
0.4600	29440.86	3.8100	3.8100	1.5366	26.77	0.79	1.500			
0.4647	29739.35	3.8070	3.8070	1.5713	26.76	0.78	1.500			
0.4694	30042.09	3.8040	3.8040	1.6116	26.75	0.77	1.500			
0.4743	30355.94	3.8010	3.8010	1.6438	26.73	0.75	1.500			
0.4793	30675.94	3.7980	3.7980	1.6838	26.72	0.74	1.500			
0.4844	30999.66	3.7950	3.7951	1.7378	26.70	0.72	1.500			
0.4896	31337.24	3.7920	3.7920	1.7984	26.69	0.71	1.500			
0.4951	31688.14	3.7890	3.7890	1.8504	26.67	0.69	1.500			
0.5008	32053.88	3.7860	3.7860	1.8787	26.66	0.68	1.500			
0.5066	32420.02	3.7830	3.7831	1.9182	26.64	0.66	1.500			
0.5122	32783.97	3.7800	3.7801	1.9325	26.63	0.65	1.500			
0.5181	33159.98	3.7770	3.7768	1.9919	26.61	0.63	1.500			
0.5241	33545.54	3.7740	3.7740	2.0319	26.59	0.61	1.500			
0.5304	33945.16	3.7710	3.7711	2.0699	26.57	0.59	1.500			
0.5367	34348.78	3.7680	3.7680	2.1055	26.56	0.58	1.500			
0.5430	34751.06	3.7650	3.7650	2.1337	26.54	0.56	1.500			
0.5495	35166.47	3.7620	3.7620	2.1224	26.52	0.54	1.501	0.364	0.453	
0.5559	35579.79	3.7590	3.7590	2.1320	26.50	0.52	1.500			
0.5624	35990.94	3.7560	3.7561	2.1216	26.48	0.50	1.500			
0.5686	36389.25	3.7530	3.7530	2.0952	26.46	0.48	1.500			
0.5749	36792.49	3.7500	3.7500	2.0584	26.44	0.46	1.500			
0.5811	37191.80	3.7470	3.7470	2.0561	26.43	0.45	1.500			
0.5872	37581.69	3.7440	3.7441	2.0309	26.41	0.43	1.500			
0.5933	37968.63	3.7410	3.7411	2.0204	26.40	0.42	1.500			
0.5992	38351.28	3.7380	3.7380	2.0078	26.38	0.40	1.500			
0.6053	38741.16	3.7350	3.7350	2.0338	26.37	0.39	1.500			
0.6114	39131.06	3.7320	3.7320	2.0676	26.35	0.37	1.500			
0.6177	39530.43	3.7290	3.7290	2.0997	26.34	0.36	1.500			
0.6240	39939.00	3.7260	3.7260	2.1459	26.32	0.34	1.500			
0.6306	40355.69	3.7230	3.7230	2.1946	26.31	0.33	1.500			
0.6371	40777.07	3.7200	3.7201	2.2631	26.29	0.31	1.500			
0.6440	41215.75	3.7170	3.7170	2.3400	26.28	0.30	1.500			
0.6512	41674.21	3.7140	3.7140	2.4185	26.26	0.28	1.500			
0.6585	42144.95	3.7110	3.7111	2.5079	26.25	0.27	1.500			
0.6662	42637.34	3.7080	3.7079	2.6031	26.23	0.25	1.500			
0.6742	43148.46	3.7050	3.7050	2.6621	26.22	0.24	1.500			
0.6823	43666.96	3.7020	3.7021	2.7479	26.20	0.22	1.500			
0.6906	44201.48	3.6990	3.6989	2.7481	26.18	0.20	1.500			
0.6989	44730.33	3.6960	3.6961	2.7203	26.17	0.19	1.500			
0.7071	45254.81	3.6930	3.6930	2.5996	26.15	0.17	1.500			
0.7145	45727.08	3.6900	3.6901	2.3913	26.14	0.16	1.500			
0.7215	46174.83	3.6870	3.6870	2.2133	26.13	0.15	1.500			
0.7278	46577.50	3.6840	3.6841	2.0223	26.12	0.14	1.500			
0.7336	46947.90	3.6810	3.6810	1.8652	26.11	0.13	1.500			
0.7388	47283.39	3.6780	3.6780	1.7311	26.10	0.12	1.500			
0.7436	47590.01	3.6750	3.6750	1.6072	26.10	0.12	1.500			
0.7482	47885.83	3.6720	3.6720	1.5136	26.09	0.11	1.500			
0.7526	48166.00	3.6690	3.6690	1.4373	26.08	0.10	1.500			
0.7568	48433.78	3.6660	3.6661	1.3746	26.08	0.10	1.500			
0.7608	48688.71	3.6630	3.6630	1.3258	26.07	0.09	1.500			
0.7646	48936.12	3.6600	3.6599	1.2834	26.06	0.08	1.500			
0.7683	49172.75	3.6570	3.6570	1.2601	26.06	0.08	1.500			
0.7720	49410.72	3.6540	3.6540	1.2515	26.05	0.07	1.500			
0.7758	49649.23	3.6510	3.6510	1.2579	26.05	0.07	1.500			
0.7796	49893.04	3.6480	3.6480	1.2532	26.04	0.06	1.500			
0.7833	50131.78	3.6450	3.6450	1.2671	26.03	0.05	1.500			
0.7871	50374.92	3.6420	3.6421	1.2867	26.03	0.05	1.500			
0.7910	50623.83	3.6390	3.6389	1.3041	26.02	0.04	1.500			
0.7949	50875.94	3.6360	3.6360	1.3145	26.02	0.04	1.500			
0.7989	51132.59	3.6330	3.6331	1.3237	26.01	0.03	1.500			
0.8030	51391.25	3.6300	3.6300	1.3142	26.00	0.02	1.500			
0.8070	51647.31	3.6270	3.6271	1.3192	25.99	0.01	1.500			
0.8109	51894.72	3.6240	3.6240	1.2998	25.98	0.00	1.500			
0.8147	52140.59	3.6210	3.6210	1.3009	25.98	-0.00	1.500			
0.8186	52389.53	3.6180	3.6179	1.2986	25.97	-0.01	1.500			
0.8225	52639.72	3.6150	3.6150	1.2970	25.96	-0.02	1.500			
0.8264	52892.11	3.6120	3.6121	1.3022	25.96	-0.02	1.500			
0.8304	53144.41	3.6090	3.6090	1.2910	25.95	-0.03	1.500			
0.8342	53390.17	3.6060	3.6060	1.2778	25.95	-0.03	1.500			
0.8381	53635.65	3.6030	3.6030	1.2643	25.95	-0.03	1.500			
0.8418	53875.07	3.6000	3.6000	1.2509	25.94	-0.04	1.500			
0.8456	54115.46	3.5970	3.5970	1.2414	25.94	-0.04	1.500			
0.8493	54352.24	3.5940	3.5940	1.2279	25.94	-0.04	1.500			
0.8529	54586.50	3.5910	3.5910	1.2156	25.94	-0.04	1.500			
0.8565	54818.02	3.5880	3.5881	1.2017	25.94	-0.04	1.500			
0.8601	55045.33	3.5850	3.5850	1.1978	25.94	-0.04	1.500			
0.8637	55274.16	3.5820	3.5821	1.1965	25.94	-0.04	1.500			
0.8673	55504.59	3.5790	3.5788	1.1856	25.94	-0.04	1.500			
0.8709	55735.55	3.5760	3.5760	1.1670	25.95	-0.03	1.500			
0.8745	55965.69	3.5730	3.5731	1.0994	25.95	-0.03	1.500			
0.8779	56185.48	3.5700	3.5701	1.0182	25.96	-0.02	1.500			
0.8809	56377.38	3.5670	3.5671	0.8863	25.96	-0.02	1.500			
0.8834	56535.43	3.5640	3.5641	0.7435	25.97	-0.01	1.500			
0.8853	56660.47	3.5610	3.5610	0.6138	25.97	-0.01	1.500			
0.8869	56759.05	3.5580	3.5578	0.4972	25.97	-0.01	1.500			
0.8880	56833.21	3.5550	3.5550	0.4031	25.97	-0.01	1.500			
0.8890	56898.11	3.5520	3.5519	0.3391	25.97	-0.01	1.500			
0.8899	56952.58	3.5490	3.5489	0.2811	25.98	-0.00	1.500			
0.8906	57000.45	3.5460	3.5458	0.2475	25.98	-0.00	1.500			
0.8913	57041.04	3.5430	3.5431	0.2182	25.98	-0.00	1.500			
0.8919	57079.18	3.5400	3.5401	0.1959	25.98	-0.00	1.500			
0.8924	57114.29	3.5370	3.5368	0.1754	25.98	-0.00	1.500			
0.8929	57145.16	3.5340	3.5341	0.1587	25.98	0.00	1.500			
0.8933	57173.35	3.5310	3.5311	0.1418	25.98	0.00	1.500			
0.8937	57198.91	3.5280	3.5280	0.1274	25.98	0.00	1.500			
0.8941	57222.01	3.5250	3.5249	0.1133	25.98	0.00	1.500			
0.8944	57242.02	3.5220	3.5221	0.0988	25.98	0.00	1.500			
0.8947	57259.62	3.5190	3.5193	0.0852	25.98	0.00	1.500			
0.8949	57274.70	3.5160	3.5162	0.0718	25.98	0.00	1.500			
0.8951	57287.62	3.5130	3.5134	0.0568	25.98	0.00	1.500			
0.8953	57297.09	3.5100	3.5107	0.0419	25.98	0.00	1.500			
