Ah_balance (normalized)	Ah_balance (mAh)	Voltage - fit (V)	Voltage -  interpolate (V)	dQ/dV (1/V)	Temperature (°C)	Temperature - diff (°C)	Current (C)	R_DC 0ms (mOhm)	R_DC 50ms (mOhm)	R_DC 50 ms PEC (mOhm)
0.2741	17545.18	3.9900	3.9900	0.8478	27.15	1.20	1.500			
0.2767	17707.39	3.9870	3.9870	0.8424	27.15	1.20	1.500			
0.2792	17868.83	3.9840	3.9840	0.8390	27.14	1.19	1.500			
0.2817	18028.15	3.9810	3.9810	0.8402	27.14	1.19	1.500			
0.2842	18189.12	3.9780	3.9780	0.8467	27.14	1.19	1.500			
0.2867	18351.83	3.9750	3.9749	0.8521	27.13	1.18	1.500			
0.2893	18516.60	3.9720	3.9720	0.8589	27.13	1.18	1.500			
0.2919	18682.84	3.9690	3.9691	0.8622	27.12	1.17	1.500			
0.2945	18849.51	3.9660	3.9660	0.8682	27.12	1.17	1.500			
0.2971	19017.02	3.9630	3.9630	0.8702	27.12	1.17	1.500			
0.2997	19182.65	3.9600	3.9600	0.8680	27.11	1.16	1.500			
0.3023	19349.78	3.9570	3.9570	0.8702	27.11	1.16	1.500			
0.3050	19517.16	3.9540	3.9541	0.8721	27.11	1.16	1.500			
0.3076	19684.77	3.9510	3.9510	0.8725	27.10	1.15	1.500			
0.3102	19851.35	3.9480	3.9481	0.8816	27.10	1.15	1.500			
0.3128	20020.60	3.9450	3.9449	0.8856	27.10	1.15	1.500			
0.3155	20192.46	3.9420	3.9420	0.8890	27.10	1.15	1.500			
0.3182	20363.70	3.9390	3.9390	0.8933	27.10	1.15	1.500			
0.3209	20535.51	3.9360	3.9361	0.9001	27.09	1.14	1.500			
0.3236	20708.21	3.9330	3.9331	0.9084	27.09	1.14	1.500			
0.3263	20882.81	3.9300	3.9299	0.9115	27.09	1.14	1.500			
0.3290	21057.22	3.9270	3.9270	0.9149	27.08	1.13	1.500			
0.3318	21234.81	3.9240	3.9241	0.9242	27.08	1.13	1.500			
0.3346	21413.32	3.9210	3.9210	0.9273	27.07	1.12	1.500			
0.3374	21592.14	3.9180	3.9179	0.9311	27.06	1.11	1.500			
0.3401	21769.59	3.9150	3.9150	0.9307	27.06	1.11	1.500			
0.3429	21948.22	3.9120	3.9120	0.9367	27.05	1.10	1.500			
0.3458	22128.86	3.9090	3.9090	0.9452	27.04	1.09	1.500			
0.3486	22310.57	3.9060	3.9059	0.9506	27.04	1.09	1.500			
0.3515	22493.10	3.9030	3.9030	0.9597	27.03	1.08	1.500			
0.3544	22678.48	3.9000	3.9000	0.9704	27.02	1.07	1.500			
0.3573	22865.67	3.8970	3.8970	0.9787	27.02	1.07	1.500			
0.3602	23055.57	3.8940	3.8939	0.9892	27.01	1.06	1.500			
0.3632	23245.38	3.8910	3.8910	0.9980	27.01	1.06	1.500			
0.3662	23437.58	3.8880	3.8880	1.0055	27.01	1.06	1.500			
0.3693	23632.01	3.8850	3.8850	1.0134	27.00	1.05	1.500			
0.3723	23826.85	3.8820	3.8820	1.0196	27.00	1.05	1.500			
0.3753	24022.38	3.8790	3.8789	1.0326	26.99	1.04	1.500			
0.3785	24221.34	3.8760	3.8760	1.0451	26.98	1.03	1.500			
0.3816	24423.02	3.8730	3.8730	1.0555	26.98	1.03	1.500			
0.3848	24627.87	3.8700	3.8700	1.0665	26.97	1.02	1.500			
0.3880	24834.02	3.8670	3.8671	1.0745	26.96	1.01	1.500			
0.3913	25041.53	3.8640	3.8640	1.0940	26.95	1.00	1.500			
0.3946	25252.74	3.8610	3.8610	1.1050	26.94	0.99	1.500			
0.3979	25463.84	3.8580	3.8580	1.1240	26.94	0.99	1.500			
0.4013	25681.61	3.8550	3.8550	1.1394	26.93	0.98	1.500			
0.4047	25902.88	3.8520	3.8520	1.1539	26.92	0.97	1.500			
0.4082	26126.12	3.8490	3.8490	1.1742	26.91	0.96	1.500			
0.4118	26353.80	3.8460	3.8461	1.1851	26.90	0.95	1.500			
0.4153	26581.17	3.8430	3.8429	1.2019	26.89	0.94	1.500			
0.4190	26814.67	3.8400	3.8400	1.2208	26.88	0.93	1.500			
0.4226	27049.45	3.8370	3.8370	1.2348	26.87	0.92	1.500			
0.4264	27289.25	3.8340	3.8340	1.2613	26.86	0.91	1.500			
0.4302	27532.02	3.8310	3.8310	1.2840	26.85	0.90	1.500			
0.4340	27777.06	3.8280	3.8279	1.3042	26.84	0.89	1.500			
0.4380	28032.89	3.8250	3.8250	1.3232	26.83	0.88	1.500			
0.4420	28286.34	3.8220	3.8220	1.3484	26.81	0.86	1.500			
0.4461	28548.48	3.8190	3.8191	1.3843	26.80	0.85	1.500			
0.4503	28817.40	3.8160	3.8159	1.4132	26.79	0.84	1.500			
0.4545	29089.14	3.8130	3.8130	1.4410	26.78	0.83	1.500			
0.4589	29370.10	3.8100	3.8100	1.4712	26.77	0.82	1.500			
0.4634	29655.70	3.8070	3.8070	1.4934	26.75	0.80	1.500			
0.4679	29943.39	3.8040	3.8040	1.5232	26.74	0.79	1.500			
0.4724	30235.04	3.8010	3.8011	1.5478	26.73	0.78	1.500			
0.4771	30534.40	3.7980	3.7979	1.5910	26.72	0.77	1.500			
0.4820	30845.33	3.7950	3.7951	1.6327	26.70	0.75	1.500			
0.4870	31170.55	3.7920	3.7919	1.6613	26.68	0.73	1.500			
0.4921	31494.00	3.7890	3.7891	1.6716	26.67	0.72	1.500			
0.4970	31809.59	3.7860	3.7861	1.6823	26.65	0.70	1.500			
0.5021	32133.17	3.7830	3.7830	1.7199	26.64	0.69	1.500			
0.5073	32464.52	3.7800	3.7800	1.7466	26.62	0.67	1.500			
0.5126	32808.72	3.7770	3.7768	1.7690	26.60	0.65	1.500	0.352	0.467	
0.5180	33151.24	3.7740	3.7740	1.7844	26.58	0.63	1.500			
0.5234	33496.33	3.7710	3.7710	1.7852	26.57	0.62	1.500			
0.5287	33837.45	3.7680	3.7680	1.7717	26.55	0.60	1.500			
0.5341	34180.23	3.7650	3.7651	1.7773	26.54	0.59	1.500			
0.5394	34518.85	3.7620	3.7620	1.7799	26.52	0.57	1.500			
0.5447	34861.07	3.7590	3.7590	1.7795	26.51	0.56	1.500			
0.5500	35200.58	3.7560	3.7560	1.7726	26.49	0.54	1.500			
0.5553	35542.26	3.7530	3.7530	1.7835	26.48	0.53	1.500			
0.5607	35885.94	3.7500	3.7500	1.7966	26.47	0.52	1.500			
0.5661	36229.44	3.7470	3.7470	1.8190	26.46	0.51	1.500			
0.5715	36575.92	3.7440	3.7440	1.8438	26.45	0.50	1.500			
0.5771	36936.67	3.7410	3.7410	1.8828	26.44	0.49	1.500			
0.5829	37302.40	3.7380	3.7380	1.9113	26.42	0.47	1.500			
0.5886	37671.77	3.7350	3.7351	1.9252	26.40	0.45	1.500			
0.5944	38040.45	3.7320	3.7320	1.9687	26.39	0.44	1.500			
0.6003	38417.71	3.7290	3.7288	2.0273	26.37	0.42	1.500			
0.6066	38819.52	3.7260	3.7260	2.0985	26.36	0.41	1.500			
0.6130	39230.96	3.7230	3.7230	2.1586	26.35	0.40	1.500			
0.6195	39648.30	3.7200	3.7201	2.2042	26.33	0.38	1.500			
0.6262	40075.71	3.7170	3.7169	2.2716	26.32	0.37	1.500			
0.6331	40515.94	3.7140	3.7140	2.3548	26.30	0.35	1.500			
0.6403	40979.31	3.7110	3.7110	2.4086	26.29	0.34	1.500			
0.6476	41443.48	3.7080	3.7080	2.4367	26.27	0.32	1.500			
0.6549	41915.08	3.7050	3.7051	2.4439	26.25	0.30	1.500			
0.6624	42392.88	3.7020	3.7020	2.3809	26.24	0.29	1.500			
0.6695	42847.88	3.6990	3.6990	2.2865	26.23	0.28	1.500			
0.6761	43271.48	3.6960	3.6960	2.1354	26.22	0.27	1.500			
0.6823	43668.89	3.6930	3.6930	1.9747	26.21	0.26	1.500			
0.6879	44026.78	3.6900	3.6900	1.8206	26.20	0.25	1.500			
0.6931	44361.24	3.6870	3.6870	1.7018	26.19	0.24	1.500			
0.6980	44670.64	3.6840	3.6840	1.5915	26.18	0.23	1.500			
0.7025	44961.49	3.6810	3.6810	1.5055	26.18	0.23	1.500			
0.7069	45240.63	3.6780	3.6781	1.4385	26.17	0.22	1.500			
0.7111	45508.14	3.6750	3.6750	1.3830	26.16	0.21	1.500			
0.7151	45767.81	3.6720	3.6720	1.3355	26.15	0.20	1.500			
0.7190	46014.09	3.6690	3.6690	1.3012	26.14	0.19	1.500			
0.7228	46258.70	3.6660	3.6660	1.2862	26.13	0.18	1.500			
0.7266	46502.99	3.6630	3.6629	1.2691	26.12	0.17	1.500			
0.7304	46744.29	3.6600	3.6600	1.2608	26.11	0.16	1.500			
0.7341	46984.11	3.6570	3.6571	1.2642	26.10	0.15	1.500			
0.7379	47228.24	3.6540	3.6539	1.2668	26.09	0.14	1.500			
0.7417	47471.31	3.6510	3.6509	1.2728	26.08	0.13	1.500			
0.7455	47715.15	3.6480	3.6480	1.2768	26.07	0.12	1.500			
0.7494	47961.11	3.6450	3.6450	1.2810	26.06	0.11	1.500			
0.7533	48211.02	3.6420	3.6420	1.2836	26.05	0.10	1.500			
0.7572	48457.83	3.6390	3.6390	1.2808	26.04	0.09	1.500			
0.7610	48704.56	3.6360	3.6360	1.2689	26.04	0.09	1.500			
0.7648	48947.95	3.6330	3.6330	1.2661	26.03	0.08	1.500			
0.7686	49188.72	3.6300	3.6300	1.2568	26.02	0.07	1.500			
0.7723	49427.40	3.6270	3.6271	1.2562	26.01	0.06	1.500			
0.7761	49668.39	3.6240	3.6239	1.2532	26.00	0.05	1.500			
0.7798	49910.12	3.6210	3.6210	1.2437	25.99	0.04	1.500			
0.7836	50148.86	3.6180	3.6180	1.2378	25.99	0.04	1.500			
0.7873	50387.91	3.6150	3.6151	1.2263	25.98	0.03	1.500			
0.7910	50621.62	3.6120	3.6119	1.2110	25.98	0.03	1.500			
0.7946	50853.60	3.6090	3.6090	1.1954	25.97	0.02	1.500			
0.7981	51081.03	3.6060	3.6060	1.1770	25.96	0.01	1.500			
0.8017	51306.31	3.6030	3.6030	1.1640	25.96	0.01	1.500			
0.8051	51529.05	3.6000	3.6000	1.1441	25.96	0.01	1.500			
0.8085	51745.85	3.5970	3.5970	1.1214	25.96	0.01	1.500			
0.8119	51959.76	3.5940	3.5940	1.1017	25.96	0.01	1.500			
0.8152	52169.69	3.5910	3.5910	1.0759	25.95	0.00	1.500			
0.8184	52378.26	3.5880	3.5879	1.0431	25.95	0.00	1.500			
0.8215	52577.35	3.5850	3.5850	0.9961	25.95	0.00	1.500			
0.8246	52771.42	3.5820	3.5819	0.9262	25.95	0.00	1.500			
0.8273	52946.17	3.5790	3.5791	0.8421	25.95	-0.00	1.500			
0.8297	53103.89	3.5760	3.5760	0.7443	25.95	-0.00	1.500			
0.8318	53236.26	3.5730	3.5730	0.6358	25.95	-0.00	1.500			
0.8335	53344.02	3.5700	3.5700	0.5363	25.95	-0.00	1.500			
0.8349	53433.82	3.5670	3.5669	0.4455	25.95	-0.00	1.500			
0.8360	53505.45	3.5640	3.5640	0.3704	25.95	-0.00	1.500			
0.8370	53567.65	3.5610	3.5610	0.3200	25.95	-0.00	1.500			
0.8378	53619.87	3.5580	3.5579	0.2744	25.95	-0.00	1.500			
0.8386	53667.64	3.5550	3.5549	0.2443	25.94	-0.01	1.500			
0.8392	53709.95	3.5520	3.5520	0.2156	25.94	-0.01	1.500			
0.8398	53747.97	3.5490	3.5490	0.1945	25.94	-0.01	1.500			
0.8403	53782.39	3.5460	3.5460	0.1761	25.94	-0.01	1.500			
0.8408	53814.31	3.5430	3.5430	0.1593	25.94	-0.01	1.500			
0.8413	53843.21	3.5400	3.5400	0.1450	25.94	-0.01	1.500			
0.8417	53869.10	3.5370	3.5369	0.1300	25.94	-0.01	1.500			
0.8421	53892.96	3.5340	3.5340	0.1159	25.94	-0.01	1.500			
0.8424	53913.90	3.5310	3.5310	0.1019	25.94	-0.01	1.500			
0.8427	53932.10	3.5280	3.5280	0.0877	25.94	-0.01	1.500			
0.8429	53947.92	3.5250	3.5252	0.0736	25.94	-0.01	1.500			
0.8431	53960.69	3.5220	3.5222	0.0588	25.94	-0.01	1.500			
0.8433	53970.54	3.5190	3.5194	0.0438	25.94	-0.01	1.500			
0.8434	53977.53	3.5160	3.5169	0.0289	25.94	-0.01	1.500			
