Ah_balance (normalized)	Ah_balance (mAh)	Voltage - fit (V)	Voltage -  interpolate (V)	dQ/dV (1/V)	Temperature (°C)	Temperature - diff (°C)	Current (C)	R_DC 0ms (mOhm)	R_DC 50ms (mOhm)	R_DC 50 ms PEC (mOhm)
0.2907	18605.13	3.9690	3.9690	0.8844	26.87	0.95	1.500			
0.2934	18776.15	3.9660	3.9659	0.8859	26.87	0.95	1.500			
0.2960	18945.25	3.9630	3.9630	0.8832	26.87	0.95	1.500			
0.2987	19114.08	3.9600	3.9600	0.8859	26.86	0.94	1.500			
0.3013	19283.32	3.9570	3.9570	0.8905	26.86	0.94	1.500			
0.3040	19455.29	3.9540	3.9539	0.8926	26.86	0.94	1.500			
0.3067	19626.00	3.9510	3.9510	0.8982	26.85	0.93	1.500			
0.3094	19800.25	3.9480	3.9480	0.9026	26.85	0.93	1.500			
0.3121	19974.90	3.9450	3.9449	0.9088	26.85	0.93	1.500			
0.3148	20149.21	3.9420	3.9420	0.9107	26.84	0.92	1.500			
0.3176	20323.45	3.9390	3.9391	0.9109	26.84	0.92	1.500			
0.3203	20498.13	3.9360	3.9360	0.9189	26.84	0.92	1.500			
0.3231	20675.70	3.9330	3.9330	0.9246	26.83	0.91	1.500			
0.3258	20852.48	3.9300	3.9300	0.9256	26.83	0.91	1.500			
0.3286	21031.58	3.9270	3.9270	0.9317	26.83	0.91	1.500			
0.3314	21210.79	3.9240	3.9241	0.9378	26.82	0.90	1.500			
0.3342	21391.11	3.9210	3.9209	0.9490	26.82	0.90	1.500			
0.3371	21574.30	3.9180	3.9180	0.9554	26.82	0.90	1.500			
0.3400	21757.72	3.9150	3.9149	0.9621	26.81	0.89	1.500			
0.3429	21944.02	3.9120	3.9121	0.9707	26.81	0.89	1.500			
0.3458	22131.35	3.9090	3.9090	0.9742	26.80	0.88	1.500			
0.3488	22320.10	3.9060	3.9060	0.9792	26.80	0.88	1.500			
0.3517	22506.26	3.9030	3.9029	0.9856	26.79	0.87	1.500			
0.3546	22694.84	3.9000	3.9001	0.9969	26.79	0.87	1.500			
0.3577	22889.68	3.8970	3.8971	1.0079	26.78	0.86	1.500			
0.3607	23084.42	3.8940	3.8939	1.0141	26.78	0.86	1.500			
0.3638	23280.12	3.8910	3.8910	1.0211	26.77	0.85	1.500			
0.3668	23475.87	3.8880	3.8881	1.0323	26.77	0.85	1.500			
0.3699	23674.73	3.8850	3.8850	1.0409	26.76	0.84	1.500			
0.3730	23874.65	3.8820	3.8819	1.0481	26.76	0.84	1.500			
0.3762	24075.87	3.8790	3.8790	1.0586	26.75	0.83	1.500			
0.3794	24281.23	3.8760	3.8761	1.0762	26.75	0.83	1.500			
0.3827	24490.26	3.8730	3.8729	1.0904	26.74	0.82	1.500			
0.3860	24701.21	3.8700	3.8699	1.0987	26.74	0.82	1.500			
0.3892	24911.00	3.8670	3.8671	1.1057	26.73	0.81	1.500			
0.3926	25124.73	3.8640	3.8641	1.1223	26.73	0.81	1.500			
0.3960	25342.55	3.8610	3.8610	1.1366	26.72	0.80	1.500			
0.3994	25560.94	3.8580	3.8579	1.1535	26.72	0.80	1.500			
0.4028	25780.73	3.8550	3.8551	1.1735	26.71	0.79	1.500			
0.4064	26009.15	3.8520	3.8521	1.1974	26.70	0.78	1.500			
0.4100	26242.89	3.8490	3.8489	1.2216	26.70	0.78	1.500			
0.4137	26479.28	3.8460	3.8460	1.2425	26.69	0.77	1.500			
0.4175	26720.49	3.8430	3.8430	1.2549	26.68	0.76	1.500			
0.4213	26965.00	3.8400	3.8399	1.2639	26.67	0.75	1.500			
0.4251	27206.38	3.8370	3.8371	1.2840	26.66	0.74	1.500			
0.4289	27451.33	3.8340	3.8340	1.3129	26.65	0.73	1.500			
0.4329	27705.68	3.8310	3.8309	1.3372	26.64	0.72	1.500			
0.4369	27964.46	3.8280	3.8280	1.3670	26.64	0.72	1.500			
0.4411	28228.51	3.8250	3.8250	1.4006	26.63	0.71	1.500			
0.4454	28502.85	3.8220	3.8221	1.4378	26.62	0.70	1.500			
0.4497	28783.81	3.8190	3.8190	1.4707	26.61	0.69	1.500			
0.4541	29065.09	3.8160	3.8160	1.5011	26.60	0.68	1.500			
0.4587	29357.32	3.8130	3.8130	1.5377	26.59	0.67	1.500			
0.4634	29656.54	3.8100	3.8100	1.5790	26.58	0.66	1.500			
0.4682	29962.93	3.8070	3.8069	1.6077	26.57	0.65	1.500			
0.4730	30273.80	3.8040	3.8040	1.6492	26.56	0.64	1.500			
0.4780	30594.29	3.8010	3.8010	1.6890	26.55	0.63	1.500			
0.4831	30921.07	3.7980	3.7980	1.7350	26.54	0.62	1.500			
0.4884	31256.95	3.7950	3.7950	1.7808	26.53	0.61	1.500			
0.4938	31604.26	3.7920	3.7920	1.8321	26.51	0.59	1.500			
0.4994	31961.48	3.7890	3.7890	1.8850	26.50	0.58	1.500			
0.5051	32328.47	3.7860	3.7860	1.9395	26.48	0.56	1.500			
0.5110	32706.45	3.7830	3.7830	2.0007	26.47	0.55	1.500			
0.5172	33102.45	3.7800	3.7800	2.0074	26.45	0.53	1.500			
0.5232	33486.90	3.7770	3.7770	2.0523	26.43	0.51	1.500			
0.5293	33876.91	3.7740	3.7741	2.0943	26.41	0.49	1.500			
0.5357	34283.33	3.7710	3.7709	2.1490	26.40	0.48	1.500			
0.5422	34702.04	3.7680	3.7681	2.2265	26.38	0.46	1.500			
0.5491	35145.18	3.7650	3.7650	2.2694	26.36	0.44	1.500			
0.5560	35586.53	3.7620	3.7614	2.2560	26.35	0.43	1.500	0.360	0.459	
0.5628	36018.22	3.7590	3.7590	2.2475	26.33	0.41	1.500			
0.5695	36449.08	3.7560	3.7560	2.1972	26.32	0.40	1.500			
0.5760	36866.85	3.7530	3.7530	2.1789	26.30	0.38	1.500			
0.5825	37282.32	3.7500	3.7500	2.1443	26.28	0.36	1.500			
0.5890	37693.28	3.7470	3.7470	2.1239	26.27	0.35	1.500			
0.5953	38096.93	3.7440	3.7440	2.0826	26.25	0.33	1.500			
0.6014	38490.39	3.7410	3.7411	2.0816	26.23	0.31	1.500			
0.6077	38890.35	3.7380	3.7379	2.0901	26.21	0.29	1.500			
0.6139	39291.56	3.7350	3.7350	2.1032	26.19	0.27	1.500			
0.6202	39695.94	3.7320	3.7321	2.1138	26.18	0.26	1.500			
0.6265	40098.98	3.7290	3.7290	2.1374	26.17	0.25	1.500			
0.6329	40504.05	3.7260	3.7259	2.1516	26.16	0.24	1.500			
0.6394	40924.72	3.7230	3.7230	2.2034	26.15	0.23	1.500			
0.6461	41351.23	3.7200	3.7201	2.2679	26.13	0.21	1.500			
0.6530	41791.50	3.7170	3.7170	2.3392	26.12	0.20	1.500			
0.6601	42246.47	3.7140	3.7141	2.4340	26.10	0.18	1.500			
0.6676	42725.57	3.7110	3.7110	2.5117	26.09	0.17	1.500			
0.6752	43215.60	3.7080	3.7080	2.6127	26.08	0.16	1.500			
0.6832	43722.65	3.7050	3.7049	2.7083	26.07	0.15	1.500			
0.6915	44257.21	3.7020	3.7020	2.7742	26.06	0.14	1.500			
0.7000	44798.90	3.6990	3.6991	2.8154	26.05	0.13	1.500			
0.7085	45342.60	3.6960	3.6959	2.7709	26.03	0.11	1.500			
0.7168	45872.72	3.6930	3.6930	2.6979	26.02	0.10	1.500			
0.7248	46390.09	3.6900	3.6900	2.5361	26.01	0.09	1.500			
0.7320	46850.54	3.6870	3.6870	2.2944	26.00	0.08	1.500			
0.7386	47267.31	3.6840	3.6841	2.0951	26.00	0.08	1.500			
0.7445	47646.73	3.6810	3.6810	1.8985	26.00	0.08	1.500			
0.7498	47984.87	3.6780	3.6781	1.7560	26.00	0.08	1.500			
0.7548	48308.06	3.6750	3.6750	1.6414	26.00	0.08	1.500			
0.7594	48604.58	3.6720	3.6718	1.5413	26.00	0.08	1.500			
0.7639	48887.96	3.6690	3.6691	1.4531	25.99	0.07	1.500			
0.7681	49157.80	3.6660	3.6660	1.3862	25.99	0.07	1.500			
0.7722	49419.05	3.6630	3.6629	1.3262	25.98	0.06	1.500			
0.7760	49662.82	3.6600	3.6600	1.2844	25.98	0.06	1.500			
0.7797	49898.61	3.6570	3.6570	1.2562	25.98	0.06	1.500			
0.7834	50136.85	3.6540	3.6539	1.2439	25.97	0.05	1.500			
0.7870	50370.41	3.6510	3.6511	1.2421	25.97	0.05	1.500			
0.7908	50610.38	3.6480	3.6480	1.2552	25.96	0.04	1.500			
0.7946	50851.46	3.6450	3.6450	1.2675	25.96	0.04	1.500			
0.7984	51097.66	3.6420	3.6420	1.2794	25.95	0.03	1.500			
0.8023	51344.64	3.6390	3.6390	1.2897	25.95	0.03	1.500			
0.8062	51594.11	3.6360	3.6360	1.2963	25.94	0.02	1.500			
0.8101	51845.50	3.6330	3.6330	1.3027	25.94	0.02	1.500			
0.8140	52095.61	3.6300	3.6299	1.3008	25.94	0.02	1.500			
0.8179	52345.02	3.6270	3.6270	1.3031	25.93	0.01	1.500			
0.8218	52595.40	3.6240	3.6240	1.2990	25.93	0.01	1.500			
0.8257	52844.66	3.6210	3.6210	1.2970	25.93	0.01	1.500			
0.8296	53093.07	3.6180	3.6180	1.2967	25.92	0.00	1.500			
0.8335	53341.56	3.6150	3.6150	1.2968	25.92	0.00	1.500			
0.8374	53591.05	3.6120	3.6120	1.2942	25.92	-0.00	1.500			
0.8412	53839.19	3.6090	3.6090	1.2936	25.91	-0.01	1.500			
0.8452	54091.02	3.6060	3.6060	1.2818	25.91	-0.01	1.500			
0.8490	54337.97	3.6030	3.6030	1.2718	25.91	-0.01	1.500			
0.8528	54581.32	3.6000	3.6000	1.2537	25.91	-0.01	1.500			
0.8565	54818.80	3.5970	3.5971	1.2387	25.90	-0.02	1.500			
0.8602	55053.37	3.5940	3.5940	1.2239	25.90	-0.02	1.500			
0.8639	55287.18	3.5910	3.5910	1.2102	25.90	-0.02	1.500			
0.8675	55517.46	3.5880	3.5880	1.1959	25.91	-0.01	1.500			
0.8710	55747.12	3.5850	3.5850	1.1902	25.91	-0.01	1.500			
0.8746	55972.22	3.5820	3.5821	1.1895	25.91	-0.01	1.500			
0.8781	56198.82	3.5790	3.5790	1.1907	25.91	-0.01	1.500			
0.8817	56431.51	3.5760	3.5759	1.1753	25.92	-0.00	1.500			
0.8854	56663.20	3.5730	3.5729	1.1493	25.92	0.00	1.500			
0.8890	56893.42	3.5700	3.5700	1.0667	25.92	0.00	1.500			
0.8923	57106.57	3.5670	3.5671	0.9746	25.93	0.01	1.500			
0.8951	57284.93	3.5640	3.5641	0.8352	25.93	0.01	1.500			
0.8974	57430.93	3.5610	3.5610	0.6867	25.93	0.01	1.500			
0.8990	57535.38	3.5580	3.5581	0.5497	25.93	0.01	1.500			
0.9003	57620.74	3.5550	3.5550	0.4463	25.93	0.01	1.500			
0.9014	57691.16	3.5520	3.5521	0.3522	25.93	0.01	1.500			
0.9023	57749.72	3.5490	3.5488	0.2996	25.93	0.01	1.500			
0.9031	57797.46	3.5460	3.5459	0.2533	25.93	0.01	1.500			
0.9037	57839.57	3.5430	3.5431	0.2220	25.94	0.02	1.500			
0.9043	57878.14	3.5400	3.5400	0.1948	25.94	0.02	1.500			
0.9049	57912.13	3.5370	3.5370	0.1746	25.94	0.02	1.500			
0.9054	57943.15	3.5340	3.5339	0.1551	25.94	0.02	1.500			
0.9058	57970.88	3.5310	3.5310	0.1380	25.94	0.02	1.500			
0.9062	57995.92	3.5280	3.5281	0.1228	25.94	0.02	1.500			
0.9065	58018.05	3.5250	3.5250	0.1076	25.94	0.02	1.500			
0.9068	58037.59	3.5220	3.5220	0.0926	25.94	0.02	1.500			
0.9071	58053.85	3.5190	3.5192	0.0768	25.94	0.02	1.500			
0.9073	58067.01	3.5160	3.5163	0.0612	25.94	0.02	1.500			
0.9075	58077.25	3.5130	3.5137	0.0455	25.94	0.02	1.500			
