Ah_balance (normalized)	Ah_balance (mAh)	Voltage - fit (V)	Voltage -  interpolate (V)	dQ/dV (1/V)	Temperature (°C)	Temperature - diff (°C)	Current (C)	R_DC 0ms (mOhm)	R_DC 50ms (mOhm)	R_DC 50 ms PEC (mOhm)
0.2957	18923.46	3.9710	3.9711	0.8867	26.96	0.98	1.500			
0.2983	19093.18	3.9680	3.9680	0.8861	26.96	0.98	1.500			
0.3010	19264.82	3.9650	3.9650	0.8900	26.95	0.97	1.500			
0.3037	19434.66	3.9620	3.9620	0.8948	26.95	0.97	1.500			
0.3064	19608.16	3.9590	3.9590	0.8917	26.95	0.97	1.500			
0.3090	19779.19	3.9560	3.9559	0.8912	26.95	0.97	1.500			
0.3117	19949.19	3.9530	3.9531	0.8987	26.95	0.97	1.500			
0.3144	20121.86	3.9500	3.9499	0.9012	26.94	0.96	1.500			
0.3171	20295.48	3.9470	3.9469	0.9033	26.94	0.96	1.500			
0.3198	20469.34	3.9440	3.9438	0.9115	26.94	0.96	1.500			
0.3226	20644.44	3.9410	3.9411	0.9132	26.94	0.96	1.500			
0.3253	20822.27	3.9380	3.9380	0.9210	26.93	0.95	1.500			
0.3281	20999.25	3.9350	3.9349	0.9208	26.93	0.95	1.500			
0.3308	21173.76	3.9320	3.9321	0.9187	26.92	0.94	1.500			
0.3336	21352.58	3.9290	3.9290	0.9302	26.92	0.94	1.500			
0.3364	21530.58	3.9260	3.9260	0.9371	26.91	0.93	1.500			
0.3392	21710.70	3.9230	3.9229	0.9399	26.91	0.93	1.500			
0.3421	21892.87	3.9200	3.9200	0.9493	26.90	0.92	1.500			
0.3449	22075.09	3.9170	3.9170	0.9600	26.90	0.92	1.500			
0.3478	22261.67	3.9140	3.9139	0.9658	26.90	0.92	1.500			
0.3507	22447.89	3.9110	3.9110	0.9747	26.89	0.91	1.500			
0.3537	22635.49	3.9080	3.9081	0.9818	26.89	0.91	1.500			
0.3566	22823.27	3.9050	3.9050	0.9939	26.89	0.91	1.500			
0.3597	23017.74	3.9020	3.9021	0.9969	26.88	0.90	1.500			
0.3626	23208.18	3.8990	3.8990	1.0052	26.88	0.90	1.500			
0.3656	23401.36	3.8960	3.8960	1.0117	26.87	0.89	1.500			
0.3687	23596.95	3.8930	3.8931	1.0253	26.87	0.89	1.500			
0.3718	23793.58	3.8900	3.8900	1.0297	26.87	0.89	1.500			
0.3749	23992.42	3.8870	3.8870	1.0415	26.86	0.88	1.500			
0.3780	24193.25	3.8840	3.8840	1.0536	26.85	0.87	1.500			
0.3812	24399.57	3.8810	3.8809	1.0678	26.85	0.87	1.500			
0.3844	24602.19	3.8780	3.8780	1.0705	26.84	0.86	1.500			
0.3876	24809.41	3.8750	3.8751	1.0868	26.83	0.85	1.500			
0.3909	25016.98	3.8720	3.8720	1.1016	26.83	0.85	1.500			
0.3942	25231.56	3.8690	3.8689	1.1174	26.82	0.84	1.500			
0.3976	25445.91	3.8660	3.8661	1.1316	26.82	0.84	1.500			
0.4010	25666.33	3.8630	3.8630	1.1449	26.81	0.83	1.500			
0.4045	25889.90	3.8600	3.8600	1.1623	26.81	0.83	1.500			
0.4080	26111.91	3.8570	3.8570	1.1722	26.80	0.82	1.500			
0.4115	26338.24	3.8540	3.8540	1.1892	26.80	0.82	1.500			
0.4151	26566.47	3.8510	3.8509	1.2048	26.80	0.82	1.500			
0.4188	26800.69	3.8480	3.8480	1.2273	26.79	0.81	1.500			
0.4224	27036.57	3.8450	3.8451	1.2492	26.78	0.80	1.500			
0.4262	27279.64	3.8420	3.8420	1.2759	26.78	0.80	1.500			
0.4302	27531.20	3.8390	3.8389	1.2861	26.77	0.79	1.500			
0.4340	27778.52	3.8360	3.8360	1.3052	26.76	0.78	1.500			
0.4379	28028.51	3.8330	3.8331	1.3302	26.75	0.77	1.500			
0.4420	28284.85	3.8300	3.8301	1.3592	26.75	0.77	1.500			
0.4460	28545.70	3.8270	3.8271	1.3912	26.74	0.76	1.500			
0.4503	28816.20	3.8240	3.8240	1.4198	26.73	0.75	1.500			
0.4546	29093.31	3.8210	3.8210	1.4535	26.72	0.74	1.500			
0.4590	29377.39	3.8180	3.8180	1.4988	26.71	0.73	1.500			
0.4636	29667.94	3.8150	3.8150	1.5308	26.70	0.72	1.500			
0.4682	29964.67	3.8120	3.8119	1.5620	26.69	0.71	1.500			
0.4729	30268.23	3.8090	3.8091	1.6042	26.68	0.70	1.500			
0.4778	30578.88	3.8060	3.8060	1.6445	26.67	0.69	1.500			
0.4828	30901.27	3.8030	3.8030	1.6878	26.66	0.68	1.500			
0.4879	31225.65	3.8000	3.8000	1.7210	26.65	0.67	1.500			
0.4932	31562.19	3.7970	3.7970	1.7703	26.64	0.66	1.500			
0.4985	31904.66	3.7940	3.7940	1.8246	26.63	0.65	1.500			
0.5040	32257.99	3.7910	3.7910	1.8777	26.62	0.64	1.500			
0.5097	32622.00	3.7880	3.7880	1.9344	26.60	0.62	1.500			
0.5156	32998.84	3.7850	3.7851	2.0047	26.59	0.61	1.500			
0.5218	33392.10	3.7820	3.7821	2.0670	26.57	0.59	1.500			
0.5281	33798.35	3.7790	3.7789	2.0898	26.56	0.58	1.500			
0.5345	34205.56	3.7760	3.7760	2.1582	26.54	0.56	1.500			
0.5409	34619.27	3.7730	3.7731	2.1948	26.52	0.54	1.500			
0.5476	35046.40	3.7700	3.7701	2.2425	26.50	0.52	1.500			
0.5544	35479.55	3.7670	3.7670	2.2839	26.48	0.50	1.500			
0.5613	35923.63	3.7640	3.7641	2.3341	26.46	0.48	1.500			
0.5684	36378.93	3.7610	3.7611	2.3516	26.44	0.46	1.500	0.363	0.452	
0.5757	36845.95	3.7580	3.7580	2.3331	26.42	0.44	1.500			
0.5827	37291.15	3.7550	3.7551	2.2955	26.40	0.42	1.500			
0.5893	37718.07	3.7520	3.7521	2.2476	26.38	0.40	1.500			
0.5960	38145.95	3.7490	3.7488	2.2264	26.37	0.39	1.500			
0.6027	38575.12	3.7460	3.7460	2.1976	26.35	0.37	1.500			
0.6094	39000.81	3.7430	3.7430	2.2052	26.33	0.35	1.500			
0.6158	39409.31	3.7400	3.7401	2.1336	26.31	0.33	1.500			
0.6221	39814.37	3.7370	3.7370	2.1159	26.29	0.31	1.500			
0.6284	40220.73	3.7340	3.7340	2.1162	26.28	0.30	1.500			
0.6348	40625.28	3.7310	3.7310	2.1470	26.26	0.28	1.500			
0.6412	41034.87	3.7280	3.7280	2.1733	26.25	0.27	1.500			
0.6478	41457.31	3.7250	3.7250	2.2102	26.23	0.25	1.500			
0.6545	41885.35	3.7220	3.7221	2.2478	26.22	0.24	1.500			
0.6612	42316.25	3.7190	3.7190	2.3022	26.20	0.22	1.500			
0.6681	42756.82	3.7160	3.7159	2.3736	26.18	0.20	1.500			
0.6754	43225.20	3.7130	3.7131	2.4687	26.17	0.19	1.500			
0.6830	43711.87	3.7100	3.7101	2.5920	26.15	0.17	1.500			
0.6910	44221.82	3.7070	3.7070	2.7053	26.14	0.16	1.500			
0.6991	44743.56	3.7040	3.7040	2.7896	26.12	0.14	1.500			
0.7076	45288.00	3.7010	3.7011	2.8548	26.10	0.12	1.500			
0.7163	45844.30	3.6980	3.6979	2.8816	26.09	0.11	1.500			
0.7250	46400.09	3.6950	3.6951	2.8580	26.07	0.09	1.500			
0.7336	46951.94	3.6920	3.6920	2.7379	26.06	0.08	1.500			
0.7417	47466.85	3.6890	3.6889	2.5218	26.04	0.06	1.500			
0.7490	47933.99	3.6860	3.6860	2.3176	26.04	0.06	1.500			
0.7555	48352.46	3.6830	3.6831	2.1022	26.03	0.05	1.500			
0.7613	48723.56	3.6800	3.6800	1.8998	26.03	0.05	1.500			
0.7668	49073.07	3.6770	3.6770	1.7712	26.02	0.04	1.500			
0.7718	49394.18	3.6740	3.6740	1.6470	26.02	0.04	1.500			
0.7765	49697.27	3.6710	3.6710	1.5514	26.01	0.03	1.500			
0.7810	49985.11	3.6680	3.6679	1.4627	26.01	0.03	1.500			
0.7852	50253.05	3.6650	3.6650	1.4067	26.01	0.03	1.500			
0.7893	50513.31	3.6620	3.6620	1.3462	26.00	0.02	1.500			
0.7932	50763.86	3.6590	3.6589	1.3063	26.00	0.02	1.500			
0.7971	51011.36	3.6560	3.6562	1.2760	26.00	0.02	1.500			
0.8008	51250.22	3.6530	3.6530	1.2549	25.99	0.01	1.500			
0.8045	51488.06	3.6500	3.6499	1.2460	25.98	0.00	1.500			
0.8082	51721.84	3.6470	3.6470	1.2444	25.98	-0.00	1.500			
0.8118	51956.71	3.6440	3.6440	1.2535	25.97	-0.01	1.500			
0.8156	52201.56	3.6410	3.6410	1.2745	25.97	-0.01	1.500			
0.8195	52447.30	3.6380	3.6379	1.2892	25.96	-0.02	1.500			
0.8234	52698.80	3.6350	3.6351	1.3016	25.95	-0.03	1.500			
0.8274	52950.99	3.6320	3.6320	1.3058	25.95	-0.03	1.500			
0.8313	53204.55	3.6290	3.6289	1.3014	25.94	-0.04	1.500			
0.8352	53453.10	3.6260	3.6261	1.3001	25.94	-0.04	1.500			
0.8391	53702.14	3.6230	3.6230	1.2973	25.93	-0.05	1.500			
0.8430	53952.32	3.6200	3.6199	1.2936	25.92	-0.06	1.500			
0.8469	54199.77	3.6170	3.6170	1.2896	25.92	-0.06	1.500			
0.8507	54446.82	3.6140	3.6141	1.2887	25.92	-0.06	1.500			
0.8546	54693.45	3.6110	3.6110	1.2853	25.91	-0.07	1.500			
0.8585	54942.07	3.6080	3.6079	1.2825	25.91	-0.07	1.500			
0.8623	55186.72	3.6050	3.6050	1.2704	25.91	-0.07	1.500			
0.8661	55431.11	3.6020	3.6020	1.2620	25.90	-0.08	1.500			
0.8699	55674.96	3.5990	3.5990	1.2509	25.90	-0.08	1.500			
0.8736	55913.39	3.5960	3.5960	1.2312	25.90	-0.08	1.500			
0.8773	56147.65	3.5930	3.5930	1.2117	25.90	-0.08	1.500			
0.8809	56377.10	3.5900	3.5900	1.1986	25.90	-0.08	1.500			
0.8845	56605.14	3.5870	3.5870	1.1892	25.91	-0.07	1.500			
0.8880	56828.85	3.5840	3.5840	1.1866	25.91	-0.07	1.500			
0.8915	57054.67	3.5810	3.5810	1.1921	25.91	-0.07	1.500			
0.8951	57285.44	3.5780	3.5780	1.1983	25.91	-0.07	1.500			
0.8987	57519.38	3.5750	3.5749	1.1943	25.92	-0.06	1.500			
0.9025	57762.14	3.5720	3.5719	1.1528	25.93	-0.05	1.500			
0.9060	57987.01	3.5690	3.5690	1.0760	25.94	-0.04	1.500			
0.9094	58200.58	3.5660	3.5661	0.9699	25.95	-0.03	1.500			
0.9121	58377.05	3.5630	3.5631	0.8247	25.96	-0.02	1.500			
0.9143	58516.98	3.5600	3.5601	0.6797	25.97	-0.01	1.500			
0.9160	58626.95	3.5570	3.5569	0.5432	25.97	-0.01	1.500			
0.9173	58707.35	3.5540	3.5541	0.4277	25.97	-0.01	1.500			
0.9184	58775.28	3.5510	3.5509	0.3530	25.98	-0.00	1.500			
0.9192	58829.20	3.5480	3.5480	0.2889	25.98	-0.00	1.500			
0.9200	58878.41	3.5450	3.5450	0.2449	25.98	0.00	1.500			
0.9206	58918.50	3.5420	3.5420	0.2136	25.98	0.00	1.500			
0.9212	58955.01	3.5390	3.5389	0.1888	25.98	0.00	1.500			
0.9217	58988.56	3.5360	3.5360	0.1668	25.99	0.01	1.500			
0.9221	59017.41	3.5330	3.5331	0.1483	25.99	0.01	1.500			
0.9226	59043.79	3.5300	3.5301	0.1304	25.99	0.01	1.500			
0.9229	59067.01	3.5270	3.5270	0.1138	25.99	0.01	1.500			
0.9232	59087.02	3.5240	3.5240	0.0977	25.99	0.01	1.500			
0.9235	59104.32	3.5210	3.5211	0.0825	25.99	0.01	1.500			
0.9237	59118.41	3.5180	3.5184	0.0683	25.99	0.01	1.500			
0.9239	59130.17	3.5150	3.5154	0.0542	25.99	0.01	1.500			
