Ah_balance (normalized)	Ah_balance (mAh)	Voltage - fit (V)	Voltage -  interpolate (V)	dQ/dV (1/V)	Temperature (°C)	Temperature - diff (°C)	Current (C)	R_DC 0ms (mOhm)	R_DC 50ms (mOhm)	R_DC 50 ms PEC (mOhm)
0.2740	17537.49	3.9870	3.9870	0.8518	26.98	1.02	1.500			
0.2766	17702.17	3.9840	3.9839	0.8575	26.97	1.01	1.500			
0.2791	17864.84	3.9810	3.9810	0.8513	26.97	1.01	1.500			
0.2817	18028.22	3.9780	3.9780	0.8512	26.97	1.01	1.500			
0.2842	18191.72	3.9750	3.9750	0.8526	26.97	1.01	1.500			
0.2868	18354.43	3.9720	3.9719	0.8564	26.97	1.01	1.500			
0.2893	18517.78	3.9690	3.9691	0.8599	26.96	1.00	1.500			
0.2919	18684.56	3.9660	3.9660	0.8675	26.96	1.00	1.500			
0.2946	18852.22	3.9630	3.9630	0.8766	26.96	1.00	1.500			
0.2972	19021.19	3.9600	3.9600	0.8776	26.96	1.00	1.500			
0.2999	19190.74	3.9570	3.9571	0.8814	26.96	1.00	1.500			
0.3025	19360.32	3.9540	3.9540	0.8825	26.95	0.99	1.500			
0.3051	19529.26	3.9510	3.9509	0.8827	26.95	0.99	1.500			
0.3078	19699.13	3.9480	3.9480	0.8855	26.95	0.99	1.500			
0.3105	19871.25	3.9450	3.9450	0.8737	26.95	0.99	1.500			
0.3131	20036.82	3.9420	3.9420	0.8845	26.94	0.98	1.500			
0.3157	20206.81	3.9390	3.9392	0.8922	26.94	0.98	1.500			
0.3184	20377.61	3.9360	3.9357	0.8959	26.94	0.98	1.500			
0.3211	20549.96	3.9330	3.9331	0.9046	26.94	0.98	1.500			
0.3238	20724.95	3.9300	3.9301	0.9100	26.93	0.97	1.500			
0.3266	20901.18	3.9270	3.9271	0.9173	26.92	0.96	1.500			
0.3294	21079.90	3.9240	3.9239	0.9193	26.92	0.96	1.500			
0.3321	21256.85	3.9210	3.9210	0.9244	26.91	0.95	1.500			
0.3349	21434.75	3.9180	3.9179	0.9290	26.91	0.95	1.500			
0.3377	21613.78	3.9150	3.9151	0.9348	26.90	0.94	1.500			
0.3405	21793.12	3.9120	3.9120	0.9417	26.90	0.94	1.500			
0.3434	21974.75	3.9090	3.9090	0.9504	26.89	0.93	1.500			
0.3462	22157.59	3.9060	3.9060	0.9557	26.89	0.93	1.500			
0.3491	22341.16	3.9030	3.9030	0.9651	26.88	0.92	1.500			
0.3520	22528.81	3.9000	3.9000	0.9749	26.88	0.92	1.500			
0.3550	22717.43	3.8970	3.8969	0.9808	26.87	0.91	1.500			
0.3579	22908.26	3.8940	3.8940	0.9797	26.87	0.91	1.500			
0.3608	23093.97	3.8910	3.8911	0.9905	26.86	0.90	1.500			
0.3638	23284.46	3.8880	3.8880	0.9983	26.86	0.90	1.500			
0.3668	23476.56	3.8850	3.8850	1.0097	26.85	0.89	1.500			
0.3698	23669.73	3.8820	3.8819	1.0185	26.85	0.89	1.500			
0.3729	23867.36	3.8790	3.8791	1.0323	26.84	0.88	1.500			
0.3761	24068.80	3.8760	3.8760	1.0465	26.84	0.88	1.500			
0.3792	24271.19	3.8730	3.8730	1.0584	26.83	0.87	1.500			
0.3824	24473.57	3.8700	3.8700	1.0607	26.82	0.86	1.500			
0.3856	24679.52	3.8670	3.8670	1.0770	26.82	0.86	1.500			
0.3889	24886.51	3.8640	3.8640	1.0892	26.81	0.85	1.500			
0.3921	25097.41	3.8610	3.8610	1.1007	26.80	0.84	1.500			
0.3954	25308.67	3.8580	3.8581	1.1186	26.80	0.84	1.500			
0.3988	25524.66	3.8550	3.8550	1.1360	26.79	0.83	1.500			
0.4023	25744.48	3.8520	3.8520	1.1499	26.78	0.82	1.500			
0.4057	25967.16	3.8490	3.8490	1.1709	26.77	0.81	1.500			
0.4093	26193.91	3.8460	3.8461	1.1869	26.76	0.80	1.500			
0.4129	26422.85	3.8430	3.8430	1.2063	26.75	0.79	1.500			
0.4165	26657.27	3.8400	3.8400	1.2225	26.74	0.78	1.500			
0.4202	26891.94	3.8370	3.8370	1.2376	26.73	0.77	1.500			
0.4239	27130.89	3.8340	3.8340	1.2600	26.72	0.76	1.500			
0.4277	27375.71	3.8310	3.8309	1.2803	26.71	0.75	1.500			
0.4316	27620.69	3.8280	3.8280	1.2974	26.69	0.73	1.500			
0.4355	27871.64	3.8250	3.8250	1.3295	26.68	0.72	1.500			
0.4395	28128.81	3.8220	3.8221	1.3554	26.67	0.71	1.500			
0.4436	28392.93	3.8190	3.8188	1.3856	26.66	0.70	1.500			
0.4478	28660.29	3.8160	3.8161	1.4154	26.65	0.69	1.500			
0.4521	28935.48	3.8130	3.8130	1.4466	26.64	0.68	1.500			
0.4565	29216.67	3.8100	3.8099	1.4709	26.63	0.67	1.500			
0.4609	29498.81	3.8070	3.8071	1.4914	26.62	0.66	1.500			
0.4654	29786.61	3.8040	3.8041	1.5286	26.61	0.65	1.500			
0.4701	30083.23	3.8010	3.8009	1.5653	26.60	0.64	1.500			
0.4748	30387.35	3.7980	3.7980	1.5947	26.58	0.62	1.500			
0.4796	30695.13	3.7950	3.7950	1.6286	26.57	0.61	1.500			
0.4846	31013.96	3.7920	3.7921	1.6750	26.55	0.59	1.500			
0.4897	31339.18	3.7890	3.7889	1.6949	26.53	0.57	1.500			
0.4948	31668.68	3.7860	3.7860	1.7217	26.52	0.56	1.500			
0.5001	32004.03	3.7830	3.7831	1.7327	26.50	0.54	1.500			
0.5053	32340.21	3.7800	3.7800	1.7594	26.49	0.53	1.500			
0.5106	32678.24	3.7770	3.7770	1.7918	26.47	0.51	1.500			
0.5160	33024.01	3.7740	3.7740	1.8126	26.46	0.50	1.500			
0.5215	33377.06	3.7710	3.7711	1.8356	26.44	0.48	1.500	0.343	0.459	
0.5271	33732.52	3.7680	3.7680	1.8520	26.43	0.47	1.500			
0.5326	34088.90	3.7650	3.7650	1.8426	26.42	0.46	1.500			
0.5381	34438.84	3.7620	3.7620	1.8213	26.40	0.44	1.500			
0.5436	34789.02	3.7590	3.7588	1.8305	26.39	0.43	1.500			
0.5491	35141.03	3.7560	3.7561	1.8300	26.38	0.42	1.500			
0.5546	35493.50	3.7530	3.7529	1.8257	26.37	0.41	1.500			
0.5601	35843.67	3.7500	3.7500	1.8343	26.36	0.40	1.500			
0.5656	36198.43	3.7470	3.7470	1.8509	26.35	0.39	1.500			
0.5712	36556.55	3.7440	3.7440	1.8682	26.33	0.37	1.500			
0.5768	36915.29	3.7410	3.7410	1.8799	26.32	0.36	1.500			
0.5825	37279.09	3.7380	3.7380	1.9001	26.31	0.35	1.500			
0.5881	37640.13	3.7350	3.7350	1.9286	26.29	0.33	1.500			
0.5939	38011.76	3.7320	3.7319	1.9850	26.28	0.32	1.500			
0.6000	38398.09	3.7290	3.7290	2.0393	26.27	0.31	1.500			
0.6062	38795.93	3.7260	3.7259	2.0849	26.25	0.29	1.500			
0.6125	39201.65	3.7230	3.7231	2.1434	26.24	0.28	1.500			
0.6190	39615.34	3.7200	3.7199	2.2059	26.22	0.26	1.500			
0.6257	40046.27	3.7170	3.7170	2.2461	26.21	0.25	1.500			
0.6326	40485.14	3.7140	3.7140	2.3242	26.20	0.24	1.500			
0.6396	40935.38	3.7110	3.7110	2.3873	26.19	0.23	1.500			
0.6469	41399.27	3.7080	3.7080	2.4489	26.18	0.22	1.500			
0.6543	41877.30	3.7050	3.7050	2.4706	26.16	0.20	1.500			
0.6618	42356.77	3.7020	3.7020	2.4629	26.15	0.19	1.500			
0.6691	42824.86	3.6990	3.6989	2.3766	26.14	0.18	1.500			
0.6764	43287.53	3.6960	3.6960	2.2748	26.13	0.17	1.500			
0.6830	43712.11	3.6930	3.6930	2.1249	26.13	0.17	1.500			
0.6890	44098.24	3.6900	3.6901	1.9529	26.12	0.16	1.500			
0.6946	44457.38	3.6870	3.6870	1.8144	26.12	0.16	1.500			
0.6999	44791.22	3.6840	3.6840	1.6827	26.11	0.15	1.500			
0.7047	45098.39	3.6810	3.6810	1.5711	26.10	0.14	1.500			
0.7092	45386.33	3.6780	3.6780	1.4900	26.10	0.14	1.500			
0.7135	45661.57	3.6750	3.6749	1.4135	26.09	0.13	1.500			
0.7175	45919.90	3.6720	3.6720	1.3624	26.08	0.12	1.500			
0.7215	46175.12	3.6690	3.6690	1.3200	26.08	0.12	1.500			
0.7253	46422.12	3.6660	3.6660	1.2879	26.07	0.11	1.500			
0.7292	46666.94	3.6630	3.6630	1.2695	26.06	0.10	1.500			
0.7329	46905.33	3.6600	3.6601	1.2576	26.06	0.10	1.500			
0.7366	47143.02	3.6570	3.6570	1.2570	26.05	0.09	1.500			
0.7403	47382.35	3.6540	3.6540	1.2616	26.05	0.09	1.500			
0.7441	47624.89	3.6510	3.6508	1.2652	26.04	0.08	1.500			
0.7480	47869.27	3.6480	3.6481	1.2793	26.03	0.07	1.500			
0.7518	48116.60	3.6450	3.6450	1.2858	26.03	0.07	1.500			
0.7557	48366.49	3.6420	3.6419	1.2852	26.02	0.06	1.500			
0.7595	48610.75	3.6390	3.6390	1.2843	26.02	0.06	1.500			
0.7634	48858.53	3.6360	3.6361	1.2889	26.01	0.05	1.500			
0.7673	49107.38	3.6330	3.6330	1.2896	26.00	0.04	1.500			
0.7712	49355.48	3.6300	3.6300	1.2929	26.00	0.04	1.500			
0.7750	49601.96	3.6270	3.6271	1.2900	25.99	0.03	1.500			
0.7789	49852.77	3.6240	3.6240	1.2854	25.98	0.02	1.500			
0.7828	50101.29	3.6210	3.6210	1.2844	25.97	0.01	1.500			
0.7866	50344.40	3.6180	3.6180	1.2731	25.96	0.00	1.500			
0.7905	50589.40	3.6150	3.6150	1.2667	25.96	-0.00	1.500			
0.7942	50831.08	3.6120	3.6119	1.2613	25.95	-0.01	1.500			
0.7980	51071.75	3.6090	3.6091	1.2542	25.95	-0.01	1.500			
0.8018	51313.81	3.6060	3.6060	1.2470	25.95	-0.01	1.500			
0.8056	51555.70	3.6030	3.6030	1.2316	25.95	-0.01	1.500			
0.8092	51790.32	3.6000	3.6001	1.2144	25.94	-0.02	1.500			
0.8128	52021.37	3.5970	3.5970	1.1981	25.94	-0.02	1.500			
0.8164	52250.13	3.5940	3.5940	1.1806	25.94	-0.02	1.500			
0.8199	52472.59	3.5910	3.5909	1.1620	25.94	-0.02	1.500			
0.8234	52695.76	3.5880	3.5881	1.1397	25.94	-0.02	1.500			
0.8268	52916.37	3.5850	3.5850	1.1163	25.95	-0.01	1.500			
0.8302	53132.32	3.5820	3.5820	1.0635	25.95	-0.01	1.500			
0.8334	53336.83	3.5790	3.5791	0.9950	25.95	-0.01	1.500			
0.8364	53529.46	3.5760	3.5760	0.8988	25.95	-0.01	1.500			
0.8390	53695.21	3.5730	3.5731	0.7891	25.96	-0.00	1.500			
0.8412	53836.42	3.5700	3.5701	0.6735	25.96	-0.00	1.500			
0.8430	53950.18	3.5670	3.5670	0.5720	25.96	-0.00	1.500			
0.8444	54041.98	3.5640	3.5640	0.4736	25.96	0.00	1.500			
0.8457	54122.38	3.5610	3.5609	0.3919	25.96	0.00	1.500			
0.8467	54185.64	3.5580	3.5579	0.3329	25.96	0.00	1.500			
0.8475	54241.92	3.5550	3.5549	0.2901	25.96	0.00	1.500			
0.8483	54289.13	3.5520	3.5520	0.2531	25.96	0.00	1.500			
0.8489	54332.29	3.5490	3.5490	0.2219	25.96	0.00	1.500			
0.8496	54371.48	3.5460	3.5459	0.2009	25.96	0.00	1.500			
0.8501	54406.86	3.5430	3.5430	0.1817	25.96	0.00	1.500			
0.8506	54439.70	3.5400	3.5400	0.1644	25.97	0.01	1.500			
0.8511	54469.58	3.5370	3.5369	0.1500	25.97	0.01	1.500			
0.8515	54496.57	3.5340	3.5341	0.1350	25.97	0.01	1.500			
0.8519	54521.14	3.5310	3.5310	0.1208	25.97	0.01	1.500			
0.8522	54542.92	3.5280	3.5280	0.1065	25.97	0.01	1.500			
0.8525	54562.01	3.5250	3.5250	0.0924	25.97	0.01	1.500			
0.8528	54578.40	3.5220	3.5222	0.0783	25.97	0.01	1.500			
0.8530	54592.47	3.5190	3.5193	0.0640	25.97	0.01	1.500			
0.8532	54603.32	3.5160	3.5167	0.0491	25.97	0.01	1.500			
0.8533	54611.32	3.5130	3.5140	0.0342	25.97	0.01	1.500			
