Ah_balance (normalized)	Ah_balance (mAh)	Voltage - fit (V)	Voltage -  interpolate (V)	dQ/dV (1/V)	Temperature (°C)	Temperature - diff (°C)	Current (C)	R_DC 0ms (mOhm)	R_DC 50ms (mOhm)	R_DC 50 ms PEC (mOhm)
0.2936	18788.70	3.9740	3.9740	0.8693	27.36	1.40	1.500			
0.2962	18954.92	3.9710	3.9710	0.8644	27.36	1.40	1.500			
0.2988	19120.25	3.9680	3.9679	0.8647	27.35	1.39	1.500			
0.3013	19285.62	3.9650	3.9650	0.8700	27.35	1.39	1.500			
0.3039	19452.31	3.9620	3.9620	0.8760	27.34	1.38	1.500			
0.3066	19621.47	3.9590	3.9591	0.8815	27.34	1.38	1.500			
0.3093	19792.28	3.9560	3.9560	0.8871	27.33	1.37	1.500			
0.3119	19963.30	3.9530	3.9530	0.8894	27.33	1.37	1.500			
0.3146	20135.44	3.9500	3.9500	0.8908	27.32	1.36	1.500			
0.3173	20305.91	3.9470	3.9471	0.8951	27.31	1.35	1.500			
0.3200	20477.62	3.9440	3.9440	0.8958	27.31	1.35	1.500			
0.3227	20650.05	3.9410	3.9410	0.9017	27.30	1.34	1.500			
0.3254	20822.65	3.9380	3.9381	0.9108	27.30	1.34	1.500			
0.3281	20998.39	3.9350	3.9350	0.9127	27.29	1.33	1.500			
0.3309	21174.46	3.9320	3.9320	0.9224	27.29	1.33	1.500			
0.3336	21352.64	3.9290	3.9290	0.9252	27.28	1.32	1.500			
0.3364	21529.78	3.9260	3.9259	0.9287	27.28	1.32	1.500			
0.3392	21711.13	3.9230	3.9230	0.9299	27.27	1.31	1.500			
0.3420	21887.83	3.9200	3.9200	0.9342	27.27	1.31	1.500			
0.3448	22065.63	3.9170	3.9170	0.9407	27.26	1.30	1.500			
0.3476	22248.57	3.9140	3.9140	0.9468	27.25	1.29	1.500			
0.3505	22429.11	3.9110	3.9109	0.9499	27.25	1.29	1.500			
0.3533	22613.14	3.9080	3.9081	0.9613	27.24	1.28	1.500			
0.3562	22798.23	3.9050	3.9050	0.9722	27.24	1.28	1.500			
0.3592	22987.26	3.9020	3.9019	0.9810	27.23	1.27	1.500			
0.3621	23175.65	3.8990	3.8990	0.9857	27.23	1.27	1.500			
0.3651	23366.20	3.8960	3.8960	0.9870	27.23	1.27	1.500			
0.3681	23557.14	3.8930	3.8931	0.9949	27.22	1.26	1.500			
0.3710	23746.13	3.8900	3.8900	1.0071	27.22	1.26	1.500			
0.3741	23939.38	3.8870	3.8869	1.0178	27.21	1.25	1.500			
0.3771	24135.23	3.8840	3.8840	1.0265	27.20	1.24	1.500			
0.3802	24335.17	3.8810	3.8811	1.0385	27.19	1.23	1.500			
0.3834	24537.56	3.8780	3.8781	1.0512	27.19	1.23	1.500			
0.3866	24741.34	3.8750	3.8750	1.0602	27.18	1.22	1.500			
0.3897	24942.36	3.8720	3.8720	1.0662	27.17	1.21	1.500			
0.3929	25147.45	3.8690	3.8689	1.0745	27.16	1.20	1.500			
0.3962	25354.56	3.8660	3.8660	1.0892	27.15	1.19	1.500			
0.3994	25564.33	3.8630	3.8629	1.1073	27.14	1.18	1.500			
0.4028	25779.57	3.8600	3.8600	1.1226	27.13	1.17	1.500			
0.4062	25995.54	3.8570	3.8569	1.1403	27.13	1.17	1.500			
0.4096	26216.69	3.8540	3.8540	1.1545	27.12	1.16	1.500			
0.4131	26440.31	3.8510	3.8511	1.1642	27.11	1.15	1.500			
0.4166	26663.53	3.8480	3.8480	1.1886	27.11	1.15	1.500			
0.4202	26891.28	3.8450	3.8451	1.2067	27.10	1.14	1.500			
0.4238	27125.75	3.8420	3.8418	1.2233	27.09	1.13	1.500			
0.4275	27361.77	3.8390	3.8390	1.2500	27.08	1.12	1.500			
0.4313	27603.59	3.8360	3.8362	1.2705	27.07	1.11	1.500			
0.4352	27853.30	3.8330	3.8329	1.2979	27.06	1.10	1.500			
0.4391	28102.15	3.8300	3.8300	1.3201	27.05	1.09	1.500			
0.4431	28357.53	3.8270	3.8270	1.3417	27.04	1.08	1.500			
0.4472	28617.86	3.8240	3.8240	1.3712	27.03	1.07	1.500			
0.4513	28884.49	3.8210	3.8211	1.4031	27.01	1.05	1.500			
0.4555	29153.63	3.8180	3.8180	1.4275	27.00	1.04	1.500			
0.4599	29432.65	3.8150	3.8150	1.4572	26.99	1.03	1.500			
0.4643	29712.87	3.8120	3.8120	1.4893	26.97	1.01	1.500			
0.4688	30001.16	3.8090	3.8090	1.5259	26.96	1.00	1.500			
0.4734	30296.64	3.8060	3.8059	1.5685	26.94	0.98	1.500			
0.4781	30600.18	3.8030	3.8031	1.6038	26.93	0.97	1.500			
0.4830	30913.06	3.8000	3.8000	1.6399	26.91	0.95	1.500			
0.4880	31232.92	3.7970	3.7970	1.6899	26.90	0.94	1.500			
0.4931	31559.99	3.7940	3.7941	1.7346	26.88	0.92	1.500			
0.4984	31898.53	3.7910	3.7909	1.7812	26.86	0.90	1.500			
0.5038	32244.68	3.7880	3.7881	1.8254	26.84	0.88	1.500			
0.5094	32601.44	3.7850	3.7850	1.8486	26.82	0.86	1.500			
0.5150	32961.38	3.7820	3.7820	1.8896	26.80	0.84	1.500			
0.5207	33324.86	3.7790	3.7791	1.9290	26.78	0.82	1.500			
0.5265	33697.20	3.7760	3.7760	1.9621	26.76	0.80	1.500			
0.5325	34082.43	3.7730	3.7731	1.9737	26.74	0.78	1.500			
0.5385	34463.07	3.7700	3.7700	2.0111	26.72	0.76	1.500			
0.5445	34849.64	3.7670	3.7669	2.0130	26.70	0.74	1.500			
0.5506	35240.97	3.7640	3.7641	2.0226	26.68	0.72	1.500	0.353	0.452	
0.5568	35632.36	3.7610	3.7611	2.0254	26.66	0.70	1.500			
0.5629	36023.01	3.7580	3.7581	2.0094	26.64	0.68	1.500			
0.5687	36399.15	3.7550	3.7550	1.9793	26.62	0.66	1.500			
0.5747	36779.38	3.7520	3.7518	1.9830	26.60	0.64	1.500			
0.5806	37160.47	3.7490	3.7491	1.9754	26.58	0.62	1.500			
0.5866	37541.79	3.7460	3.7461	1.9727	26.56	0.60	1.500			
0.5925	37917.70	3.7430	3.7430	1.9656	26.54	0.58	1.500			
0.5983	38289.67	3.7400	3.7399	1.9702	26.52	0.56	1.500			
0.6042	38670.03	3.7370	3.7371	1.9958	26.51	0.55	1.500			
0.6103	39061.24	3.7340	3.7340	2.0300	26.49	0.53	1.500			
0.6164	39449.74	3.7310	3.7311	2.0388	26.47	0.51	1.500			
0.6225	39842.27	3.7280	3.7280	2.0875	26.46	0.50	1.500			
0.6289	40248.06	3.7250	3.7250	2.1412	26.44	0.48	1.500			
0.6354	40664.35	3.7220	3.7220	2.1922	26.42	0.46	1.500			
0.6420	41089.07	3.7190	3.7190	2.2615	26.40	0.44	1.500			
0.6488	41522.59	3.7160	3.7159	2.3465	26.38	0.42	1.500			
0.6559	41979.37	3.7130	3.7130	2.4600	26.36	0.40	1.500			
0.6635	42462.67	3.7100	3.7100	2.5153	26.35	0.39	1.500			
0.6712	42957.32	3.7070	3.7071	2.5876	26.33	0.37	1.500			
0.6790	43457.15	3.7040	3.7040	2.6316	26.31	0.35	1.500			
0.6870	43967.57	3.7010	3.7010	2.6249	26.29	0.33	1.500			
0.6950	44479.78	3.6980	3.6980	2.6180	26.27	0.31	1.500			
0.7029	44983.78	3.6950	3.6950	2.5199	26.25	0.29	1.500			
0.7104	45463.23	3.6920	3.6920	2.3707	26.23	0.27	1.500			
0.7172	45901.35	3.6890	3.6890	2.1827	26.22	0.26	1.500			
0.7233	46293.90	3.6860	3.6860	1.9893	26.20	0.24	1.500			
0.7290	46653.70	3.6830	3.6830	1.8185	26.19	0.23	1.500			
0.7341	46985.18	3.6800	3.6799	1.6883	26.18	0.22	1.500			
0.7390	47293.64	3.6770	3.6770	1.5893	26.18	0.22	1.500			
0.7435	47582.65	3.6740	3.6740	1.5038	26.17	0.21	1.500			
0.7479	47863.38	3.6710	3.6709	1.4379	26.16	0.20	1.500			
0.7521	48132.09	3.6680	3.6680	1.3859	26.15	0.19	1.500			
0.7561	48390.19	3.6650	3.6651	1.3376	26.14	0.18	1.500			
0.7600	48641.34	3.6620	3.6620	1.3027	26.13	0.17	1.500			
0.7638	48884.00	3.6590	3.6590	1.2812	26.13	0.17	1.500			
0.7675	49122.78	3.6560	3.6560	1.2619	26.12	0.16	1.500			
0.7713	49360.86	3.6530	3.6530	1.2642	26.11	0.15	1.500			
0.7751	49603.81	3.6500	3.6500	1.2752	26.10	0.14	1.500			
0.7789	49849.96	3.6470	3.6470	1.2878	26.09	0.13	1.500			
0.7828	50099.57	3.6440	3.6440	1.3019	26.08	0.12	1.500			
0.7868	50352.52	3.6410	3.6410	1.3087	26.08	0.12	1.500			
0.7907	50603.96	3.6380	3.6380	1.3132	26.07	0.11	1.500			
0.7947	50858.53	3.6350	3.6350	1.3168	26.06	0.10	1.500			
0.7986	51111.03	3.6320	3.6319	1.3128	26.05	0.09	1.500			
0.8025	51362.62	3.6290	3.6291	1.3096	26.04	0.08	1.500			
0.8065	51614.03	3.6260	3.6261	1.3047	26.03	0.07	1.500			
0.8104	51865.40	3.6230	3.6229	1.3010	26.02	0.06	1.500			
0.8143	52112.46	3.6200	3.6201	1.2941	26.01	0.05	1.500			
0.8181	52360.74	3.6170	3.6170	1.2948	26.01	0.05	1.500			
0.8220	52610.61	3.6140	3.6140	1.2928	26.00	0.04	1.500			
0.8259	52859.60	3.6110	3.6110	1.2821	25.99	0.03	1.500			
0.8298	53104.94	3.6080	3.6080	1.2759	25.98	0.02	1.500			
0.8336	53350.90	3.6050	3.6050	1.2593	25.98	0.02	1.500			
0.8374	53590.85	3.6020	3.6019	1.2398	25.97	0.01	1.500			
0.8410	53826.66	3.5990	3.5990	1.2191	25.97	0.01	1.500			
0.8447	54058.97	3.5960	3.5960	1.2027	25.97	0.01	1.500			
0.8482	54287.35	3.5930	3.5930	1.1895	25.96	0.00	1.500			
0.8518	54513.45	3.5900	3.5899	1.1769	25.96	0.00	1.500			
0.8553	54736.18	3.5870	3.5870	1.1623	25.96	0.00	1.500			
0.8587	54959.29	3.5840	3.5840	1.1594	25.96	0.00	1.500			
0.8623	55185.27	3.5810	3.5810	1.1336	25.96	0.00	1.500			
0.8657	55406.09	3.5780	3.5779	1.0907	25.96	0.00	1.500			
0.8691	55623.17	3.5750	3.5749	1.0167	25.96	0.00	1.500			
0.8721	55816.09	3.5720	3.5721	0.9171	25.96	0.00	1.500			
0.8748	55988.54	3.5690	3.5692	0.8036	25.96	0.00	1.500			
0.8770	56129.72	3.5660	3.5660	0.6743	25.96	0.00	1.500			
0.8787	56237.95	3.5630	3.5630	0.5526	25.96	0.00	1.500			
0.8801	56328.62	3.5600	3.5599	0.4568	25.96	0.00	1.500			
0.8812	56397.88	3.5570	3.5571	0.3732	25.96	0.00	1.500			
0.8822	56460.10	3.5540	3.5539	0.3191	25.96	0.00	1.500			
0.8830	56513.46	3.5510	3.5510	0.2698	25.96	0.00	1.500			
0.8838	56560.15	3.5480	3.5479	0.2392	25.96	0.00	1.500			
0.8844	56600.88	3.5450	3.5451	0.2120	25.96	0.00	1.500			
0.8850	56638.07	3.5420	3.5421	0.1912	25.96	0.00	1.500			
0.8855	56672.42	3.5390	3.5389	0.1719	25.96	0.00	1.500			
0.8860	56703.01	3.5360	3.5360	0.1562	25.96	0.00	1.500			
0.8864	56730.86	3.5330	3.5330	0.1401	25.96	0.00	1.500			
0.8868	56756.56	3.5300	3.5300	0.1267	25.96	0.00	1.500			
0.8872	56779.58	3.5270	3.5270	0.1131	25.96	0.00	1.500			
0.8875	56799.75	3.5240	3.5240	0.0991	25.96	0.00	1.500			
0.8878	56817.70	3.5210	3.5211	0.0859	25.96	0.00	1.500			
0.8880	56832.87	3.5180	3.5182	0.0722	25.96	0.00	1.500			
0.8882	56845.62	3.5150	3.5154	0.0577	25.96	0.00	1.500			
0.8884	56855.32	3.5120	3.5126	0.0433	25.96	0.00	1.500			
