Ah_balance (normalized)	Ah_balance (mAh)	Voltage - fit (V)	Voltage -  interpolate (V)	dQ/dV (1/V)	Temperature (°C)	Temperature - diff (°C)	Current (C)	R_DC 0ms (mOhm)	R_DC 50ms (mOhm)	R_DC 50 ms PEC (mOhm)
0.2928	18736.82	3.9690	3.9690	0.8827	26.94	0.97	1.500			
0.2954	18907.83	3.9660	3.9660	0.8885	26.94	0.97	1.500			
0.2981	19079.30	3.9630	3.9629	0.8867	26.94	0.97	1.500			
0.3008	19248.43	3.9600	3.9601	0.8873	26.94	0.97	1.500			
0.3034	19416.76	3.9570	3.9571	0.8965	26.94	0.97	1.500			
0.3061	19589.23	3.9540	3.9540	0.9063	26.93	0.96	1.500			
0.3088	19763.61	3.9510	3.9509	0.9097	26.93	0.96	1.500			
0.3116	19939.67	3.9480	3.9480	0.9177	26.93	0.96	1.500			
0.3144	20119.36	3.9450	3.9451	0.9249	26.93	0.96	1.500			
0.3172	20297.69	3.9420	3.9420	0.9269	26.93	0.96	1.500			
0.3199	20475.44	3.9390	3.9390	0.9266	26.93	0.96	1.500			
0.3227	20652.67	3.9360	3.9360	0.9279	26.92	0.95	1.500			
0.3255	20829.64	3.9330	3.9330	0.9320	26.92	0.95	1.500			
0.3283	21009.16	3.9300	3.9300	0.9373	26.91	0.94	1.500			
0.3311	21190.09	3.9270	3.9270	0.9417	26.91	0.94	1.500			
0.3339	21371.00	3.9240	3.9239	0.9478	26.90	0.93	1.500			
0.3368	21553.57	3.9210	3.9211	0.9550	26.90	0.93	1.500			
0.3396	21737.41	3.9180	3.9181	0.9612	26.89	0.92	1.500			
0.3426	21923.26	3.9150	3.9149	0.9659	26.89	0.92	1.500			
0.3454	22108.65	3.9120	3.9120	0.9720	26.89	0.92	1.500			
0.3483	22294.03	3.9090	3.9090	0.9793	26.88	0.91	1.500			
0.3513	22483.02	3.9060	3.9061	0.9875	26.88	0.91	1.500			
0.3543	22675.01	3.9030	3.9029	0.9931	26.88	0.91	1.500			
0.3573	22866.57	3.9000	3.9001	0.9994	26.87	0.90	1.500			
0.3603	23058.83	3.8970	3.8971	1.0105	26.87	0.90	1.500			
0.3633	23253.64	3.8940	3.8940	1.0204	26.86	0.89	1.500			
0.3664	23449.12	3.8910	3.8909	1.0306	26.86	0.89	1.500			
0.3695	23646.41	3.8880	3.8880	1.0403	26.86	0.89	1.500			
0.3726	23848.11	3.8850	3.8851	1.0571	26.85	0.88	1.500			
0.3758	24054.14	3.8820	3.8820	1.0725	26.85	0.88	1.500			
0.3791	24260.51	3.8790	3.8790	1.0834	26.85	0.88	1.500			
0.3823	24469.60	3.8760	3.8760	1.0855	26.84	0.87	1.500			
0.3856	24678.32	3.8730	3.8730	1.1023	26.84	0.87	1.500			
0.3889	24890.05	3.8700	3.8701	1.1140	26.83	0.86	1.500			
0.3923	25106.00	3.8670	3.8668	1.1269	26.83	0.86	1.500			
0.3957	25322.62	3.8640	3.8640	1.1418	26.82	0.85	1.500			
0.3991	25543.54	3.8610	3.8611	1.1573	26.82	0.85	1.500			
0.4026	25768.55	3.8580	3.8580	1.1711	26.81	0.84	1.500			
0.4062	25995.02	3.8550	3.8550	1.1860	26.81	0.84	1.500			
0.4097	26221.50	3.8520	3.8520	1.2057	26.80	0.83	1.500			
0.4133	26453.65	3.8490	3.8490	1.2291	26.80	0.83	1.500			
0.4171	26692.13	3.8460	3.8460	1.2521	26.79	0.82	1.500			
0.4209	26935.13	3.8430	3.8430	1.2729	26.78	0.81	1.500			
0.4247	27183.20	3.8400	3.8400	1.2942	26.77	0.80	1.500			
0.4287	27436.22	3.8370	3.8370	1.3104	26.77	0.80	1.500			
0.4326	27685.58	3.8340	3.8340	1.3377	26.76	0.79	1.500			
0.4366	27942.54	3.8310	3.8310	1.3654	26.75	0.78	1.500			
0.4407	28206.53	3.8280	3.8279	1.3933	26.74	0.77	1.500			
0.4450	28477.63	3.8250	3.8250	1.4266	26.73	0.76	1.500			
0.4493	28757.00	3.8220	3.8220	1.4559	26.73	0.76	1.500			
0.4537	29038.56	3.8190	3.8190	1.4878	26.72	0.75	1.500			
0.4582	29326.59	3.8160	3.8160	1.5149	26.71	0.74	1.500			
0.4628	29617.92	3.8130	3.8130	1.5553	26.70	0.73	1.500			
0.4675	29919.75	3.8100	3.8099	1.5912	26.69	0.72	1.500			
0.4723	30229.13	3.8070	3.8070	1.6407	26.68	0.71	1.500			
0.4773	30548.39	3.8040	3.8040	1.6808	26.67	0.70	1.500			
0.4824	30875.69	3.8010	3.8011	1.7290	26.65	0.68	1.500			
0.4877	31211.00	3.7980	3.7980	1.7757	26.64	0.67	1.500			
0.4931	31556.81	3.7950	3.7949	1.8312	26.63	0.66	1.500			
0.4987	31919.95	3.7920	3.7920	1.8555	26.61	0.64	1.500			
0.5044	32280.62	3.7890	3.7890	1.8933	26.60	0.63	1.500			
0.5101	32644.50	3.7860	3.7861	1.9604	26.59	0.62	1.500			
0.5159	33019.95	3.7830	3.7828	2.0096	26.57	0.60	1.500			
0.5220	33407.27	3.7800	3.7800	2.0718	26.56	0.59	1.500			
0.5283	33809.85	3.7770	3.7771	2.1212	26.54	0.57	1.500			
0.5349	34232.39	3.7740	3.7740	2.2050	26.52	0.55	1.500			
0.5414	34647.61	3.7710	3.7708	2.2368	26.50	0.53	1.500			
0.5483	35089.63	3.7680	3.7681	2.2775	26.49	0.52	1.500			
0.5552	35533.86	3.7650	3.7651	2.3464	26.47	0.50	1.500			
0.5624	35990.77	3.7620	3.7620	2.3669	26.45	0.48	1.500			
0.5695	36449.80	3.7590	3.7592	2.3712	26.43	0.46	1.500	0.359	0.447	
0.5767	36911.81	3.7560	3.7560	2.3694	26.41	0.44	1.500			
0.5838	37360.90	3.7530	3.7530	2.3160	26.39	0.42	1.500			
0.5906	37798.98	3.7500	3.7499	2.2555	26.37	0.40	1.500			
0.5972	38220.48	3.7470	3.7471	2.2082	26.35	0.38	1.500			
0.6038	38640.41	3.7440	3.7440	2.1725	26.33	0.36	1.500			
0.6102	39054.90	3.7410	3.7410	2.1540	26.32	0.35	1.500			
0.6166	39459.68	3.7380	3.7378	2.1557	26.30	0.33	1.500			
0.6232	39881.80	3.7350	3.7350	2.1598	26.29	0.32	1.500			
0.6295	40288.98	3.7320	3.7321	2.1711	26.27	0.30	1.500			
0.6361	40711.12	3.7290	3.7290	2.2040	26.25	0.28	1.500			
0.6427	41129.62	3.7260	3.7258	2.2270	26.24	0.27	1.500			
0.6494	41562.41	3.7230	3.7231	2.2302	26.23	0.26	1.500			
0.6562	41997.98	3.7200	3.7200	2.2912	26.21	0.24	1.500			
0.6630	42432.09	3.7170	3.7170	2.3367	26.20	0.23	1.500			
0.6701	42889.38	3.7140	3.7140	2.4230	26.18	0.21	1.500			
0.6775	43362.70	3.7110	3.7110	2.5362	26.17	0.20	1.500			
0.6854	43867.70	3.7080	3.7081	2.6655	26.15	0.18	1.500			
0.6935	44381.52	3.7050	3.7049	2.7514	26.14	0.17	1.500			
0.7019	44923.34	3.7020	3.7020	2.8077	26.12	0.15	1.500			
0.7106	45478.86	3.6990	3.6990	2.8620	26.11	0.14	1.500			
0.7192	46031.65	3.6960	3.6960	2.8944	26.10	0.13	1.500			
0.7280	46593.34	3.6930	3.6931	2.7926	26.08	0.11	1.500			
0.7364	47130.80	3.6900	3.6901	2.6295	26.07	0.10	1.500			
0.7440	47615.04	3.6870	3.6870	2.4032	26.06	0.09	1.500			
0.7509	48054.53	3.6840	3.6840	2.2054	26.05	0.08	1.500			
0.7570	48450.38	3.6810	3.6810	1.9989	26.04	0.07	1.500			
0.7626	48809.51	3.6780	3.6780	1.8308	26.04	0.07	1.500			
0.7679	49148.66	3.6750	3.6750	1.7113	26.03	0.06	1.500			
0.7728	49462.04	3.6720	3.6719	1.5974	26.02	0.05	1.500			
0.7774	49755.08	3.6690	3.6690	1.5010	26.02	0.05	1.500			
0.7817	50031.36	3.6660	3.6661	1.4171	26.01	0.04	1.500			
0.7858	50290.84	3.6630	3.6630	1.3565	26.01	0.04	1.500			
0.7897	50542.87	3.6600	3.6600	1.3068	26.00	0.03	1.500			
0.7935	50783.59	3.6570	3.6570	1.2658	26.00	0.03	1.500			
0.7972	51021.57	3.6540	3.6540	1.2432	26.00	0.03	1.500			
0.8008	51253.96	3.6510	3.6511	1.2399	25.99	0.02	1.500			
0.8046	51492.89	3.6480	3.6480	1.2311	25.99	0.02	1.500			
0.8082	51726.29	3.6450	3.6449	1.2408	25.99	0.02	1.500			
0.8119	51963.00	3.6420	3.6421	1.2586	25.98	0.01	1.500			
0.8157	52205.18	3.6390	3.6390	1.2774	25.98	0.01	1.500			
0.8196	52454.68	3.6360	3.6360	1.2917	25.98	0.01	1.500			
0.8235	52705.83	3.6330	3.6330	1.3030	25.97	-0.00	1.500			
0.8275	52960.03	3.6300	3.6300	1.2968	25.96	-0.01	1.500			
0.8314	53211.84	3.6270	3.6270	1.3088	25.96	-0.01	1.500			
0.8353	53458.86	3.6240	3.6240	1.2994	25.95	-0.02	1.500			
0.8392	53707.27	3.6210	3.6210	1.2977	25.94	-0.03	1.500			
0.8431	53956.16	3.6180	3.6179	1.2966	25.94	-0.03	1.500			
0.8470	54205.98	3.6150	3.6151	1.2945	25.94	-0.03	1.500			
0.8509	54455.95	3.6120	3.6121	1.2942	25.93	-0.04	1.500			
0.8548	54705.51	3.6090	3.6090	1.2912	25.93	-0.04	1.500			
0.8586	54951.25	3.6060	3.6059	1.2771	25.93	-0.04	1.500			
0.8624	55196.72	3.6030	3.6031	1.2702	25.92	-0.05	1.500			
0.8662	55439.88	3.6000	3.6000	1.2624	25.92	-0.05	1.500			
0.8700	55683.07	3.5970	3.5970	1.2538	25.92	-0.05	1.500			
0.8738	55923.43	3.5940	3.5939	1.2351	25.92	-0.05	1.500			
0.8775	56158.13	3.5910	3.5910	1.2159	25.92	-0.05	1.500			
0.8811	56389.47	3.5880	3.5881	1.2017	25.92	-0.05	1.500			
0.8846	56616.65	3.5850	3.5849	1.1954	25.92	-0.05	1.500			
0.8882	56841.96	3.5820	3.5820	1.1950	25.92	-0.05	1.500			
0.8917	57069.71	3.5790	3.5789	1.2036	25.92	-0.05	1.500			
0.8953	57302.11	3.5760	3.5761	1.2119	25.93	-0.04	1.500			
0.8991	57543.43	3.5730	3.5729	1.1860	25.93	-0.04	1.500			
0.9028	57781.30	3.5700	3.5699	1.1409	25.94	-0.03	1.500			
0.9064	58006.48	3.5670	3.5671	1.0335	25.95	-0.02	1.500			
0.9094	58200.45	3.5640	3.5641	0.8997	25.95	-0.02	1.500			
0.9119	58363.13	3.5610	3.5611	0.7584	25.96	-0.01	1.500			
0.9139	58489.86	3.5580	3.5579	0.6141	25.96	-0.01	1.500			
0.9154	58582.68	3.5550	3.5550	0.4833	25.97	-0.00	1.500			
0.9165	58657.55	3.5520	3.5519	0.3940	25.97	-0.00	1.500			
0.9174	58715.31	3.5490	3.5490	0.3173	25.97	0.00	1.500			
0.9183	58768.65	3.5460	3.5458	0.2641	25.97	0.00	1.500			
0.9189	58810.71	3.5430	3.5430	0.2278	25.97	0.00	1.500			
0.9195	58848.75	3.5400	3.5401	0.1992	25.97	0.00	1.500			
0.9201	58883.63	3.5370	3.5369	0.1738	25.98	0.01	1.500			
0.9205	58913.10	3.5340	3.5340	0.1534	25.98	0.01	1.500			
0.9209	58940.02	3.5310	3.5311	0.1333	25.98	0.01	1.500			
0.9213	58963.44	3.5280	3.5280	0.1152	25.98	0.01	1.500			
0.9216	58984.26	3.5250	3.5249	0.0989	25.98	0.01	1.500			
0.9219	59001.61	3.5220	3.5221	0.0818	25.98	0.01	1.500			
0.9221	59015.10	3.5190	3.5194	0.0662	25.98	0.01	1.500			
0.9223	59026.33	3.5160	3.5166	0.0508	25.98	0.01	1.500			
