Ah_balance (normalized)	Ah_balance (mAh)	Voltage - fit (V)	Voltage -  interpolate (V)	dQ/dV (1/V)	Temperature (°C)	Temperature - diff (°C)	Current (C)	R_DC 0ms (mOhm)	R_DC 50ms (mOhm)	R_DC 50 ms PEC (mOhm)
0.2839	18170.31	3.9690	3.9690	0.9238	27.20	1.22	1.500			
0.2867	18347.56	3.9660	3.9659	0.9199	27.19	1.21	1.500			
0.2894	18522.33	3.9630	3.9631	0.9139	27.19	1.21	1.500			
0.2921	18697.21	3.9600	3.9600	0.9142	27.18	1.20	1.500			
0.2949	18872.35	3.9570	3.9569	0.9187	27.18	1.20	1.500			
0.2976	19047.96	3.9540	3.9540	0.9216	27.18	1.20	1.500			
0.3004	19225.14	3.9510	3.9510	0.9299	27.17	1.19	1.500			
0.3032	19406.59	3.9480	3.9480	0.9293	27.17	1.19	1.500			
0.3060	19585.50	3.9450	3.9451	0.9373	27.16	1.18	1.500			
0.3088	19765.54	3.9420	3.9420	0.9376	27.16	1.18	1.500			
0.3117	19945.68	3.9390	3.9390	0.9433	27.15	1.17	1.500			
0.3145	20125.59	3.9360	3.9360	0.9457	27.15	1.17	1.500			
0.3173	20307.99	3.9330	3.9330	0.9535	27.14	1.16	1.500			
0.3202	20492.77	3.9300	3.9300	0.9581	27.14	1.16	1.500			
0.3231	20677.98	3.9270	3.9269	0.9666	27.13	1.15	1.500			
0.3260	20862.34	3.9240	3.9241	0.9695	27.13	1.15	1.500			
0.3289	21050.41	3.9210	3.9210	0.9766	27.13	1.15	1.500			
0.3318	21237.38	3.9180	3.9180	0.9816	27.12	1.14	1.500			
0.3348	21426.85	3.9150	3.9150	0.9871	27.12	1.14	1.500			
0.3378	21616.35	3.9120	3.9119	0.9954	27.11	1.13	1.500			
0.3408	21808.84	3.9090	3.9090	1.0063	27.10	1.12	1.500			
0.3438	22001.22	3.9060	3.9060	1.0162	27.09	1.11	1.500			
0.3468	22197.91	3.9030	3.9030	1.0253	27.09	1.11	1.500			
0.3500	22397.16	3.9000	3.9000	1.0351	27.08	1.10	1.500			
0.3531	22595.50	3.8970	3.8970	1.0454	27.07	1.09	1.500			
0.3562	22797.94	3.8940	3.8940	1.0554	27.06	1.08	1.500			
0.3594	23000.31	3.8910	3.8910	1.0670	27.05	1.07	1.500			
0.3626	23205.92	3.8880	3.8879	1.0821	27.04	1.06	1.500			
0.3659	23415.31	3.8850	3.8851	1.0892	27.03	1.05	1.500			
0.3692	23626.70	3.8820	3.8820	1.1041	27.03	1.05	1.500			
0.3725	23839.35	3.8790	3.8790	1.1206	27.02	1.04	1.500			
0.3759	24055.84	3.8760	3.8760	1.1285	27.01	1.03	1.500			
0.3793	24272.93	3.8730	3.8729	1.1423	27.00	1.02	1.500			
0.3827	24491.78	3.8700	3.8701	1.1562	26.99	1.01	1.500			
0.3862	24715.13	3.8670	3.8671	1.1754	26.99	1.01	1.500			
0.3897	24943.56	3.8640	3.8640	1.1986	26.98	1.00	1.500			
0.3933	25174.40	3.8610	3.8609	1.2116	26.96	0.98	1.500			
0.3970	25408.47	3.8580	3.8580	1.2316	26.95	0.97	1.500			
0.4008	25649.45	3.8550	3.8551	1.2546	26.94	0.96	1.500			
0.4045	25889.71	3.8520	3.8520	1.2697	26.93	0.95	1.500			
0.4084	26135.18	3.8490	3.8490	1.2880	26.92	0.94	1.500			
0.4123	26384.24	3.8460	3.8460	1.3086	26.90	0.92	1.500			
0.4162	26636.12	3.8430	3.8429	1.3283	26.89	0.91	1.500			
0.4202	26895.05	3.8400	3.8401	1.3438	26.88	0.90	1.500			
0.4243	27154.91	3.8370	3.8370	1.3621	26.87	0.89	1.500			
0.4284	27417.45	3.8340	3.8341	1.3889	26.85	0.87	1.500			
0.4326	27684.39	3.8310	3.8309	1.4231	26.84	0.86	1.500			
0.4368	27956.41	3.8280	3.8280	1.4559	26.82	0.84	1.500			
0.4412	28239.81	3.8250	3.8250	1.4921	26.81	0.83	1.500			
0.4458	28531.63	3.8220	3.8220	1.5295	26.80	0.82	1.500			
0.4505	28829.46	3.8190	3.8190	1.5738	26.79	0.81	1.500			
0.4552	29132.32	3.8160	3.8160	1.6186	26.77	0.79	1.500			
0.4601	29447.43	3.8130	3.8130	1.6587	26.76	0.78	1.500			
0.4651	29768.15	3.8100	3.8100	1.7026	26.75	0.77	1.500			
0.4703	30101.38	3.8070	3.8070	1.7553	26.73	0.75	1.500			
0.4757	30443.72	3.8040	3.8041	1.8089	26.72	0.74	1.500			
0.4812	30796.15	3.8010	3.8009	1.8612	26.71	0.73	1.500			
0.4868	31155.56	3.7980	3.7980	1.9116	26.69	0.71	1.500			
0.4926	31526.75	3.7950	3.7950	1.9649	26.68	0.70	1.500			
0.4986	31912.19	3.7920	3.7920	2.0188	26.66	0.68	1.500			
0.5048	32305.28	3.7890	3.7890	2.0945	26.64	0.66	1.500			
0.5112	32713.74	3.7860	3.7859	2.1702	26.62	0.64	1.500			
0.5178	33140.29	3.7830	3.7830	2.2264	26.60	0.62	1.500			
0.5246	33575.40	3.7800	3.7799	2.2816	26.59	0.61	1.500			
0.5315	34016.84	3.7770	3.7771	2.3346	26.57	0.59	1.500			
0.5386	34471.27	3.7740	3.7739	2.3973	26.56	0.58	1.500			
0.5459	34940.47	3.7710	3.7710	2.4235	26.54	0.56	1.500			
0.5532	35404.40	3.7680	3.7681	2.5027	26.52	0.54	1.500			
0.5608	35889.21	3.7650	3.7650	2.5894	26.51	0.53	1.500			
0.5686	36392.97	3.7620	3.7622	2.6197	26.49	0.51	1.500	0.376	0.451	
0.5768	36913.38	3.7590	3.7591	2.6805	26.46	0.48	1.500			
0.5850	37437.58	3.7560	3.7559	2.6498	26.44	0.46	1.500			
0.5928	37939.63	3.7530	3.7530	2.5632	26.42	0.44	1.500			
0.6004	38426.10	3.7500	3.7501	2.5273	26.40	0.42	1.500			
0.6079	38905.42	3.7470	3.7470	2.4983	26.38	0.40	1.500			
0.6153	39379.36	3.7440	3.7440	2.4375	26.36	0.38	1.500			
0.6226	39845.62	3.7410	3.7411	2.4045	26.34	0.36	1.500			
0.6297	40298.26	3.7380	3.7380	2.3563	26.33	0.35	1.500			
0.6365	40738.68	3.7350	3.7349	2.3145	26.31	0.33	1.500			
0.6435	41181.56	3.7320	3.7321	2.3137	26.30	0.32	1.500			
0.6505	41629.19	3.7290	3.7290	2.3421	26.29	0.31	1.500			
0.6575	42082.05	3.7260	3.7260	2.3571	26.27	0.29	1.500			
0.6646	42535.76	3.7230	3.7230	2.3858	26.26	0.28	1.500			
0.6718	42994.58	3.7200	3.7200	2.4288	26.24	0.26	1.500			
0.6791	43463.54	3.7170	3.7170	2.4994	26.23	0.25	1.500			
0.6866	43945.24	3.7140	3.7139	2.5953	26.21	0.23	1.500			
0.6947	44461.28	3.7110	3.7110	2.6812	26.20	0.22	1.500			
0.7029	44985.77	3.7080	3.7080	2.8354	26.18	0.20	1.500			
0.7115	45534.24	3.7050	3.7049	2.9392	26.16	0.18	1.500			
0.7205	46112.97	3.7020	3.7021	3.0758	26.15	0.17	1.500			
0.7301	46725.48	3.6990	3.6990	3.0713	26.15	0.17	1.500			
0.7395	47330.81	3.6960	3.6960	3.0538	26.14	0.16	1.500			
0.7487	47916.19	3.6930	3.6930	2.9111	26.13	0.15	1.500			
0.7572	48458.27	3.6900	3.6899	2.7262	26.12	0.14	1.500			
0.7649	48954.89	3.6870	3.6871	2.4454	26.12	0.14	1.500			
0.7718	49395.94	3.6840	3.6841	2.2123	26.11	0.13	1.500			
0.7781	49796.38	3.6810	3.6810	2.0020	26.11	0.13	1.500			
0.7835	50143.78	3.6780	3.6780	1.8038	26.10	0.12	1.500			
0.7886	50471.60	3.6750	3.6750	1.6550	26.10	0.12	1.500			
0.7933	50773.56	3.6720	3.6720	1.5483	26.10	0.12	1.500			
0.7978	51056.64	3.6690	3.6689	1.4448	26.10	0.12	1.500			
0.8019	51322.85	3.6660	3.6660	1.3586	26.10	0.12	1.500			
0.8058	51572.65	3.6630	3.6631	1.2941	26.10	0.12	1.500			
0.8095	51809.17	3.6600	3.6600	1.2404	26.10	0.12	1.500			
0.8131	52039.67	3.6570	3.6570	1.2049	26.10	0.12	1.500			
0.8166	52262.31	3.6540	3.6540	1.1757	26.09	0.11	1.500			
0.8200	52482.47	3.6510	3.6510	1.1771	26.09	0.11	1.500			
0.8235	52707.07	3.6480	3.6480	1.1831	26.08	0.10	1.500			
0.8271	52933.05	3.6450	3.6449	1.1963	26.08	0.10	1.500			
0.8307	53163.17	3.6420	3.6420	1.2110	26.07	0.09	1.500			
0.8343	53397.51	3.6390	3.6391	1.2266	26.07	0.09	1.500			
0.8381	53638.59	3.6360	3.6358	1.2387	26.06	0.08	1.500			
0.8419	53880.10	3.6330	3.6331	1.2392	26.06	0.08	1.500			
0.8456	54117.00	3.6300	3.6300	1.2379	26.05	0.07	1.500			
0.8493	54356.91	3.6270	3.6271	1.2356	26.05	0.07	1.500			
0.8530	54592.57	3.6240	3.6240	1.2314	26.05	0.07	1.500			
0.8566	54823.13	3.6210	3.6210	1.2391	26.05	0.07	1.500			
0.8603	55061.22	3.6180	3.6180	1.2469	26.04	0.06	1.500			
0.8641	55302.34	3.6150	3.6149	1.2584	26.04	0.06	1.500			
0.8679	55546.19	3.6120	3.6120	1.2600	26.03	0.05	1.500			
0.8717	55790.37	3.6090	3.6091	1.2628	26.03	0.05	1.500			
0.8756	56035.31	3.6060	3.6059	1.2616	26.02	0.04	1.500			
0.8793	56277.04	3.6030	3.6030	1.2527	26.01	0.03	1.500			
0.8831	56515.52	3.6000	3.6001	1.2461	26.01	0.03	1.500			
0.8868	56755.50	3.5970	3.5970	1.2365	26.00	0.02	1.500			
0.8905	56991.91	3.5940	3.5940	1.2233	26.00	0.02	1.500			
0.8942	57225.97	3.5910	3.5910	1.2143	26.00	0.02	1.500			
0.8977	57454.54	3.5880	3.5880	1.2074	25.99	0.01	1.500			
0.9013	57683.09	3.5850	3.5850	1.2104	25.99	0.01	1.500			
0.9049	57914.07	3.5820	3.5819	1.2214	25.99	0.01	1.500			
0.9086	58149.88	3.5790	3.5789	1.2285	25.98	0.00	1.500			
0.9125	58397.76	3.5760	3.5759	1.1987	25.98	0.00	1.500			
0.9162	58638.72	3.5730	3.5730	1.1491	25.98	-0.00	1.500			
0.9197	58863.19	3.5700	3.5701	1.0303	25.97	-0.01	1.500			
0.9228	59060.47	3.5670	3.5672	0.8941	25.97	-0.01	1.500			
0.9252	59213.82	3.5640	3.5640	0.7346	25.97	-0.01	1.500			
0.9271	59332.99	3.5610	3.5609	0.5846	25.97	-0.01	1.500			
0.9284	59417.90	3.5580	3.5580	0.4530	25.97	-0.01	1.500			
0.9295	59487.17	3.5550	3.5551	0.3649	25.97	-0.01	1.500			
0.9304	59543.88	3.5520	3.5518	0.2822	25.97	-0.01	1.500			
0.9310	59585.35	3.5490	3.5489	0.2323	25.97	-0.01	1.500			
0.9316	59621.87	3.5460	3.5460	0.1830	25.97	-0.01	1.500			
0.9321	59652.24	3.5430	3.5430	0.1472	25.96	-0.02	1.500			
0.9325	59677.10	3.5400	3.5400	0.1159	25.96	-0.02	1.500			
0.9328	59696.31	3.5370	3.5370	0.0855	25.96	-0.02	1.500			
0.9330	59709.33	3.5340	3.5346	0.0572	25.96	-0.02	1.500			
0.9331	59717.60	3.5310	3.5322	0.0289	25.96	-0.02	1.500			
