Ah_balance (normalized)	Ah_balance (mAh)	Voltage - fit (V)	Voltage -  interpolate (V)	dQ/dV (1/V)	Temperature (°C)	Temperature - diff (°C)	Current (C)	R_DC 0ms (mOhm)	R_DC 50ms (mOhm)	R_DC 50 ms PEC (mOhm)
0.1794	11478.60	3.9290	3.9288	-0.0956	25.79	-0.01	-1.500			
0.1797	11500.98	3.9260	3.9258	-0.1286	25.79	-0.01	-1.500			
0.1801	11528.31	3.9230	3.9229	-0.1560	25.79	-0.01	-1.500			
0.1806	11561.30	3.9200	3.9200	-0.1812	25.79	-0.01	-1.500			
0.1812	11598.40	3.9170	3.9171	-0.2070	25.80	-0.00	-1.500			
0.1819	11641.47	3.9140	3.9140	-0.2323	25.80	-0.00	-1.500			
0.1826	11688.41	3.9110	3.9110	-0.2552	25.80	-0.00	-1.500			
0.1834	11739.37	3.9080	3.9080	-0.2794	25.80	-0.00	-1.500			
0.1843	11795.38	3.9050	3.9051	-0.3026	25.80	-0.00	-1.500			
0.1853	11856.17	3.9020	3.9020	-0.3261	25.80	-0.00	-1.500			
0.1863	11921.25	3.8990	3.8990	-0.3487	25.80	-0.00	-1.500			
0.1873	11990.05	3.8960	3.8961	-0.3710	25.80	-0.00	-1.500			
0.1885	12063.53	3.8930	3.8930	-0.3932	25.80	-0.00	-1.500			
0.1897	12141.06	3.8900	3.8900	-0.4150	25.80	-0.00	-1.500			
0.1910	12222.55	3.8870	3.8870	-0.4343	25.80	-0.00	-1.500			
0.1923	12307.91	3.8840	3.8840	-0.4571	25.80	-0.00	-1.500			
0.1937	12398.48	3.8810	3.8811	-0.4761	25.80	0.00	-1.500			
0.1952	12491.97	3.8780	3.8779	-0.4940	25.80	0.00	-1.500			
0.1967	12589.45	3.8750	3.8750	-0.5096	25.80	0.00	-1.500			
0.1983	12689.42	3.8720	3.8720	-0.5236	25.80	0.00	-1.500			
0.1999	12791.55	3.8690	3.8690	-0.5371	25.80	0.00	-1.500			
0.2015	12895.88	3.8660	3.8661	-0.5506	25.80	0.00	-1.500			
0.2032	13002.19	3.8630	3.8629	-0.5613	25.80	0.00	-1.500			
0.2049	13111.81	3.8600	3.8600	-0.5739	25.80	0.00	-1.500			
0.2066	13223.29	3.8570	3.8570	-0.5842	25.81	0.01	-1.500			
0.2084	13336.94	3.8540	3.8541	-0.5929	25.81	0.01	-1.500			
0.2102	13452.38	3.8510	3.8509	-0.6011	25.81	0.01	-1.500			
0.2120	13568.11	3.8480	3.8480	-0.6079	25.81	0.01	-1.500			
0.2138	13685.74	3.8450	3.8450	-0.6113	25.81	0.01	-1.500			
0.2157	13804.05	3.8420	3.8420	-0.6156	25.81	0.01	-1.500			
0.2175	13923.08	3.8390	3.8390	-0.6192	25.81	0.01	-1.500			
0.2194	14042.03	3.8360	3.8360	-0.6227	25.81	0.01	-1.500			
0.2213	14161.61	3.8330	3.8330	-0.6273	25.82	0.02	-1.500			
0.2232	14282.52	3.8300	3.8299	-0.6283	25.82	0.02	-1.500			
0.2251	14403.48	3.8270	3.8270	-0.6294	25.82	0.02	-1.500			
0.2270	14525.02	3.8240	3.8240	-0.6325	25.83	0.03	-1.500			
0.2289	14646.83	3.8210	3.8211	-0.6359	25.83	0.03	-1.500			
0.2308	14768.56	3.8180	3.8179	-0.6396	25.83	0.03	-1.500			
0.2327	14891.52	3.8150	3.8150	-0.6405	25.84	0.04	-1.500			
0.2346	15014.91	3.8120	3.8121	-0.6440	25.84	0.04	-1.500			
0.2366	15139.60	3.8090	3.8090	-0.6504	25.85	0.05	-1.500			
0.2385	15264.82	3.8060	3.8061	-0.6522	25.85	0.05	-1.500			
0.2405	15389.88	3.8030	3.8029	-0.6536	25.85	0.05	-1.500			
0.2424	15515.49	3.8000	3.7999	-0.6542	25.86	0.06	-1.500			
0.2444	15641.25	3.7970	3.7971	-0.6557	25.86	0.06	-1.500			
0.2464	15767.94	3.7940	3.7940	-0.6581	25.86	0.06	-1.500			
0.2484	15894.44	3.7910	3.7909	-0.6585	25.87	0.07	-1.500			
0.2503	16019.64	3.7880	3.7880	-0.6601	25.87	0.07	-1.500			
0.2523	16147.70	3.7850	3.7850	-0.6626	25.87	0.07	-1.500			
0.2543	16274.98	3.7820	3.7820	-0.6681	25.88	0.08	-1.500			
0.2563	16404.03	3.7790	3.7790	-0.6712	25.88	0.08	-1.500			
0.2583	16533.32	3.7760	3.7760	-0.6720	25.88	0.08	-1.500			
0.2604	16662.54	3.7730	3.7730	-0.6745	25.89	0.09	-1.500			
0.2624	16792.67	3.7700	3.7701	-0.6762	25.89	0.09	-1.500			
0.2644	16922.26	3.7670	3.7670	-0.6765	25.89	0.09	-1.500			
0.2664	17052.78	3.7640	3.7640	-0.6786	25.90	0.10	-1.500			
0.2685	17181.60	3.7610	3.7611	-0.6798	25.90	0.10	-1.500			
0.2705	17312.41	3.7580	3.7580	-0.6851	25.91	0.11	-1.500			
0.2726	17444.54	3.7550	3.7550	-0.6889	25.91	0.11	-1.500			
0.2746	17576.43	3.7520	3.7520	-0.6933	25.92	0.12	-1.500			
0.2767	17710.80	3.7490	3.7490	-0.7009	25.92	0.12	-1.500			
0.2788	17845.91	3.7460	3.7460	-0.7067	25.93	0.13	-1.500			
0.2810	17983.29	3.7430	3.7429	-0.7086	25.94	0.14	-1.500			
0.2831	18118.78	3.7400	3.7400	-0.7118	25.94	0.14	-1.500			
0.2852	18255.02	3.7370	3.7370	-0.7176	25.95	0.15	-1.500			
0.2874	18392.94	3.7340	3.7340	-0.7252	25.95	0.15	-1.500			
0.2896	18533.39	3.7310	3.7308	-0.7272	25.96	0.16	-1.500			
0.2918	18673.45	3.7280	3.7280	-0.7335	25.97	0.17	-1.500			
0.2940	18814.98	3.7250	3.7250	-0.7403	25.97	0.17	-1.500			
0.2962	18958.32	3.7220	3.7221	-0.7475	25.98	0.18	-1.500			
0.2985	19102.05	3.7190	3.7189	-0.7552	25.98	0.18	-1.500			
0.3007	19245.66	3.7160	3.7159	-0.7605	25.98	0.18	-1.500			
0.3030	19392.43	3.7130	3.7130	-0.7682	25.99	0.19	-1.500			
0.3053	19541.73	3.7100	3.7100	-0.7782	25.99	0.19	-1.500			
0.3077	19692.57	3.7070	3.7070	-0.7820	26.00	0.20	-1.500			
0.3100	19843.13	3.7040	3.7040	-0.7897	26.00	0.20	-1.500			
0.3124	19994.11	3.7010	3.7011	-0.7975	26.01	0.21	-1.500			
0.3148	20147.70	3.6980	3.6979	-0.8060	26.01	0.21	-1.500			
0.3172	20303.50	3.6950	3.6950	-0.8128	26.02	0.22	-1.500			
0.3197	20460.00	3.6920	3.6920	-0.8237	26.02	0.22	-1.500			
0.3222	20619.23	3.6890	3.6891	-0.8340	26.03	0.23	-1.500			
0.3247	20781.31	3.6860	3.6859	-0.8424	26.04	0.24	-1.500			
0.3272	20942.47	3.6830	3.6830	-0.8485	26.04	0.24	-1.500			
0.3298	21106.22	3.6800	3.6800	-0.8595	26.05	0.25	-1.500			
0.3324	21272.59	3.6770	3.6770	-0.8694	26.05	0.25	-1.500			
0.3350	21440.62	3.6740	3.6739	-0.8824	26.06	0.26	-1.500			
0.3377	21611.15	3.6710	3.6710	-0.8864	26.07	0.27	-1.500			
0.3404	21782.49	3.6680	3.6680	-0.8967	26.07	0.27	-1.500			
0.3431	21956.59	3.6650	3.6651	-0.9033	26.08	0.28	-1.500			
0.3458	22129.42	3.6620	3.6619	-0.9120	26.08	0.28	-1.500			
0.3485	22303.25	3.6590	3.6590	-0.9209	26.08	0.28	-1.500			
0.3513	22481.01	3.6560	3.6560	-0.9336	26.09	0.29	-1.500			
0.3541	22659.79	3.6530	3.6530	-0.9491	26.09	0.29	-1.500			
0.3570	22846.33	3.6500	3.6500	-0.9634	26.09	0.29	-1.500			
0.3599	23031.88	3.6470	3.6470	-0.9723	26.09	0.29	-1.500			
0.3628	23220.40	3.6440	3.6440	-0.9896	26.10	0.30	-1.500			
0.3658	23411.89	3.6410	3.6408	-0.9949	26.10	0.30	-1.500			
0.3688	23602.98	3.6380	3.6380	-1.0067	26.10	0.30	-1.500			
0.3718	23797.07	3.6350	3.6351	-1.0206	26.10	0.30	-1.500			
0.3749	23993.73	3.6320	3.6320	-1.0317	26.11	0.31	-1.500			
0.3780	24193.54	3.6290	3.6290	-1.0509	26.11	0.31	-1.500			
0.3811	24393.34	3.6260	3.6260	-1.0716	26.12	0.32	-1.500			
0.3844	24603.00	3.6230	3.6229	-1.0845	26.12	0.32	-1.500			
0.3878	24816.72	3.6200	3.6199	-1.1036	26.12	0.32	-1.500			
0.3911	25028.14	3.6170	3.6171	-1.1139	26.13	0.33	-1.500			
0.3944	25244.33	3.6140	3.6141	-1.1264	26.13	0.33	-1.500			
0.3978	25461.35	3.6110	3.6109	-1.1385	26.14	0.34	-1.500			
0.4012	25678.47	3.6080	3.6080	-1.1431	26.14	0.34	-1.500			
0.4046	25896.10	3.6050	3.6051	-1.1640	26.14	0.34	-1.500			
0.4082	26124.54	3.6020	3.6020	-1.1891	26.15	0.35	-1.500			
0.4118	26356.11	3.5990	3.5990	-1.2031	26.15	0.35	-1.500			
0.4154	26587.96	3.5960	3.5960	-1.2174	26.16	0.36	-1.500			
0.4191	26824.52	3.5930	3.5931	-1.2357	26.16	0.36	-1.500			
0.4229	27063.22	3.5900	3.5900	-1.2489	26.16	0.36	-1.500			
0.4266	27303.19	3.5870	3.5869	-1.2637	26.17	0.37	-1.500			
0.4304	27544.79	3.5840	3.5840	-1.2812	26.17	0.37	-1.500			
0.4343	27794.51	3.5810	3.5810	-1.3022	26.17	0.37	-1.500			
0.4382	28046.63	3.5780	3.5780	-1.3214	26.18	0.38	-1.500			
0.4422	28303.15	3.5750	3.5751	-1.3374	26.18	0.38	-1.500			
0.4463	28561.02	3.5720	3.5720	-1.3583	26.18	0.38	-1.500			
0.4504	28824.74	3.5690	3.5690	-1.3721	26.19	0.39	-1.500			
0.4545	29088.86	3.5660	3.5660	-1.3902	26.19	0.39	-1.500			
0.4587	29355.47	3.5630	3.5630	-1.4057	26.19	0.39	-1.500			
0.4629	29628.69	3.5600	3.5601	-1.4315	26.20	0.40	-1.500			
0.4673	29905.83	3.5570	3.5569	-1.4442	26.20	0.40	-1.500			
0.4716	30184.97	3.5540	3.5540	-1.4673	26.21	0.41	-1.500			
0.4761	30467.61	3.5510	3.5510	-1.4857	26.21	0.41	-1.500			
0.4806	30757.79	3.5480	3.5480	-1.5153	26.22	0.42	-1.500			
0.4851	31049.02	3.5450	3.5450	-1.5348	26.23	0.43	-1.500			
0.4898	31347.79	3.5420	3.5420	-1.5534	26.23	0.43	-1.500			
0.4945	31649.14	3.5390	3.5391	-1.5627	26.24	0.44	-1.500			
0.4992	31951.34	3.5360	3.5360	-1.5867	26.25	0.45	-1.500			
0.5040	32253.71	3.5330	3.5330	-1.5995	26.26	0.46	-1.500			
0.5088	32560.09	3.5300	3.5300	-1.6078	26.26	0.46	-1.500			
0.5137	32875.20	3.5270	3.5269	-1.6400	26.27	0.47	-1.500	0.370	0.528	
0.5186	33190.23	3.5240	3.5240	-1.6582	26.28	0.48	-1.500			
0.5237	33513.93	3.5210	3.5210	-1.6743	26.29	0.49	-1.500			
0.5287	33839.44	3.5180	3.5179	-1.6955	26.30	0.50	-1.500			
0.5338	34166.29	3.5150	3.5150	-1.6968	26.30	0.50	-1.500			
0.5389	34492.22	3.5120	3.5120	-1.7039	26.31	0.51	-1.500			
0.5441	34820.58	3.5090	3.5092	-1.7118	26.32	0.52	-1.500			
0.5492	35150.60	3.5060	3.5060	-1.7031	26.33	0.53	-1.500			
0.5543	35477.29	3.5030	3.5029	-1.7076	26.35	0.55	-1.500			
0.5595	35805.56	3.5000	3.5001	-1.6952	26.36	0.56	-1.500			
0.5646	36132.36	3.4970	3.4969	-1.7098	26.37	0.57	-1.500			
0.5697	36461.56	3.4940	3.4941	-1.7046	26.38	0.58	-1.500			
0.5748	36785.68	3.4910	3.4910	-1.6990	26.40	0.60	-1.500			
0.5799	37115.79	3.4880	3.4880	-1.7035	26.41	0.61	-1.500			
0.5850	37439.70	3.4850	3.4850	-1.6918	26.42	0.62	-1.500			
0.5901	37769.57	3.4820	3.4819	-1.6936	26.43	0.63	-1.500			
0.5952	38094.40	3.4790	3.4790	-1.6783	26.44	0.64	-1.500			
0.6002	38411.97	3.4760	3.4760	-1.6613	26.46	0.66	-1.500			
0.6052	38733.04	3.4730	3.4730	-1.6451	26.47	0.67	-1.500			
0.6101	39046.33	3.4700	3.4700	-1.6177	26.48	0.68	-1.500			
0.6150	39357.47	3.4670	3.4670	-1.6047	26.49	0.69	-1.500			
0.6197	39660.88	3.4640	3.4641	-1.5817	26.50	0.70	-1.500			
0.6244	39964.04	3.4610	3.4610	-1.5600	26.52	0.72	-1.500			
0.6291	40261.26	3.4580	3.4579	-1.5403	26.53	0.73	-1.500			
0.6336	40553.27	3.4550	3.4550	-1.5183	26.54	0.74	-1.500			
0.6382	40845.34	3.4520	3.4520	-1.5094	26.56	0.76	-1.500			
0.6427	41133.23	3.4490	3.4490	-1.4947	26.57	0.77	-1.500			
0.6472	41418.60	3.4460	3.4459	-1.4700	26.58	0.78	-1.500			
0.6515	41698.62	3.4430	3.4430	-1.4504	26.60	0.80	-1.500			
0.6559	41976.17	3.4400	3.4401	-1.4369	26.62	0.82	-1.500			
0.6601	42248.85	3.4370	3.4370	-1.4125	26.63	0.83	-1.500			
0.6644	42520.39	3.4340	3.4339	-1.3942	26.65	0.85	-1.500			
0.6685	42784.91	3.4310	3.4310	-1.3793	26.66	0.86	-1.500			
0.6726	43046.94	3.4280	3.4280	-1.3631	26.68	0.88	-1.500			
0.6767	43308.87	3.4250	3.4250	-1.3480	26.70	0.90	-1.500			
0.6807	43567.92	3.4220	3.4220	-1.3248	26.72	0.92	-1.500			
0.6847	43822.03	3.4190	3.4190	-1.2999	26.73	0.93	-1.500			
0.6886	44069.64	3.4160	3.4160	-1.2764	26.75	0.95	-1.500			
0.6924	44312.38	3.4130	3.4130	-1.2449	26.76	0.96	-1.500			
0.6960	44545.83	3.4100	3.4099	-1.2136	26.77	0.97	-1.500			
0.6996	44776.11	3.4070	3.4070	-1.1840	26.79	0.99	-1.500			
0.7031	45001.45	3.4040	3.4040	-1.1602	26.81	1.01	-1.500			
0.7066	45221.58	3.4010	3.4010	-1.1312	26.83	1.03	-1.500			
0.7100	45436.82	3.3980	3.3981	-1.1045	26.84	1.04	-1.500			
0.7132	45645.76	3.3950	3.3951	-1.0718	26.86	1.06	-1.500			
0.7164	45849.81	3.3920	3.3919	-1.0434	26.87	1.07	-1.500			
0.7195	46047.30	3.3890	3.3890	-1.0066	26.89	1.09	-1.500			
0.7224	46236.23	3.3860	3.3861	-0.9783	26.90	1.10	-1.500			
0.7253	46420.95	3.3830	3.3830	-0.9469	26.91	1.11	-1.500			
0.7281	46598.88	3.3800	3.3801	-0.9150	26.93	1.13	-1.500			
0.7308	46772.20	3.3770	3.3769	-0.8862	26.94	1.14	-1.500			
0.7334	46939.82	3.3740	3.3741	-0.8599	26.95	1.15	-1.500			
0.7360	47101.82	3.3710	3.3710	-0.8379	26.97	1.17	-1.500			
0.7384	47260.14	3.3680	3.3679	-0.8169	26.98	1.18	-1.500			
0.7408	47413.69	3.3650	3.3649	-0.7902	26.98	1.18	-1.500			
0.7432	47564.20	3.3620	3.3622	-0.7690	26.99	1.19	-1.500			
0.7455	47709.27	3.3590	3.3590	-0.7490	27.00	1.20	-1.500			
0.7477	47851.50	3.3560	3.3561	-0.7285	27.01	1.21	-1.500			
0.7498	47988.66	3.3530	3.3529	-0.7050	27.03	1.23	-1.500			
0.7519	48122.74	3.3500	3.3501	-0.6858	27.04	1.24	-1.500			
0.7539	48251.66	3.3470	3.3470	-0.6619	27.05	1.25	-1.500			
0.7559	48376.32	3.3440	3.3440	-0.6438	27.06	1.26	-1.500			
0.7578	48497.71	3.3410	3.3410	-0.6266	27.07	1.27	-1.500			
0.7596	48615.29	3.3380	3.3379	-0.6090	27.08	1.28	-1.500			
0.7614	48730.64	3.3350	3.3351	-0.5948	27.09	1.29	-1.500			
0.7632	48844.14	3.3320	3.3320	-0.5785	27.10	1.30	-1.500			
0.7649	48954.23	3.3290	3.3290	-0.5652	27.10	1.30	-1.500			
0.7666	49061.30	3.3260	3.3260	-0.5499	27.11	1.31	-1.500			
0.7682	49164.31	3.3230	3.3230	-0.5338	27.12	1.32	-1.500			
0.7698	49265.34	3.3200	3.3200	-0.5203	27.13	1.33	-1.500			
0.7713	49364.13	3.3170	3.3170	-0.5083	27.14	1.34	-1.500			
0.7728	49460.24	3.3140	3.3140	-0.4948	27.14	1.34	-1.500			
0.7743	49554.48	3.3110	3.3109	-0.4820	27.15	1.35	-1.500			
0.7757	49645.54	3.3080	3.3081	-0.4670	27.16	1.36	-1.500			
0.7771	49734.02	3.3050	3.3050	-0.4560	27.16	1.36	-1.500			
0.7784	49819.87	3.3020	3.3020	-0.4442	27.17	1.37	-1.500			
0.7797	49903.80	3.2990	3.2989	-0.4339	27.18	1.38	-1.500			
0.7810	49985.80	3.2960	3.2960	-0.4216	27.18	1.38	-1.500			
0.7823	50065.84	3.2930	3.2929	-0.4121	27.19	1.39	-1.500			
0.7835	50143.92	3.2900	3.2901	-0.4046	27.20	1.40	-1.500			
0.7847	50220.80	3.2870	3.2869	-0.3954	27.20	1.40	-1.500			
0.7859	50295.53	3.2840	3.2840	-0.3848	27.21	1.41	-1.500			
0.7870	50368.85	3.2810	3.2810	-0.3766	27.22	1.42	-1.500			
0.7881	50440.20	3.2780	3.2781	-0.3680	27.22	1.42	-1.500			
0.7892	50510.56	3.2750	3.2750	-0.3589	27.23	1.43	-1.500			
0.7903	50577.97	3.2720	3.2720	-0.3489	27.23	1.43	-1.500			
0.7913	50643.76	3.2690	3.2690	-0.3403	27.24	1.44	-1.500			
0.7923	50708.39	3.2660	3.2660	-0.3331	27.24	1.44	-1.500			
0.7933	50771.70	3.2630	3.2631	-0.3248	27.25	1.45	-1.500			
0.7943	50833.10	3.2600	3.2600	-0.3166	27.26	1.46	-1.500			
0.7952	50893.11	3.2570	3.2571	-0.3094	27.26	1.46	-1.500			
0.7961	50951.76	3.2540	3.2540	-0.3036	27.27	1.47	-1.500			
0.7970	51009.04	3.2510	3.2510	-0.2979	27.28	1.48	-1.500			
0.7979	51065.41	3.2480	3.2480	-0.2931	27.29	1.49	-1.500			
0.7988	51121.33	3.2450	3.2451	-0.2882	27.29	1.49	-1.500			
0.7996	51176.74	3.2420	3.2420	-0.2830	27.30	1.50	-1.500			
0.8005	51230.62	3.2390	3.2390	-0.2770	27.31	1.51	-1.500			
0.8013	51282.97	3.2360	3.2361	-0.2724	27.31	1.51	-1.500			
0.8021	51334.53	3.2330	3.2330	-0.2676	27.32	1.52	-1.500			
0.8029	51385.24	3.2300	3.2300	-0.2629	27.32	1.52	-1.500			
0.8037	51435.52	3.2270	3.2270	-0.2586	27.33	1.53	-1.500			
0.8045	51485.12	3.2240	3.2240	-0.2551	27.34	1.54	-1.500			
0.8052	51533.77	3.2210	3.2210	-0.2508	27.34	1.54	-1.500			
0.8060	51581.57	3.2180	3.2180	-0.2460	27.35	1.55	-1.500			
0.8067	51628.14	3.2150	3.2149	-0.2403	27.35	1.55	-1.500			
0.8074	51673.35	3.2120	3.2120	-0.2370	27.36	1.56	-1.500			
0.8081	51718.22	3.2090	3.2091	-0.2333	27.36	1.56	-1.500			
0.8088	51762.52	3.2060	3.2060	-0.2301	27.37	1.57	-1.500			
0.8095	51806.46	3.2030	3.2029	-0.2276	27.37	1.57	-1.500			
0.8102	51849.94	3.2000	3.2001	-0.2252	27.38	1.58	-1.500			
0.8108	51892.91	3.1970	3.1971	-0.2221	27.38	1.58	-1.500			
0.8115	51935.71	3.1940	3.1939	-0.2197	27.39	1.59	-1.500			
0.8122	51977.78	3.1910	3.1909	-0.2168	27.39	1.59	-1.500			
0.8128	52018.70	3.1880	3.1880	-0.2126	27.40	1.60	-1.500			
0.8134	52059.55	3.1850	3.1849	-0.2099	27.40	1.60	-1.500			
0.8141	52099.49	3.1820	3.1820	-0.2062	27.41	1.61	-1.500			
0.8147	52138.48	3.1790	3.1790	-0.2040	27.41	1.61	-1.500			
0.8153	52177.08	3.1760	3.1760	-0.2015	27.42	1.62	-1.500			
0.8159	52215.57	3.1730	3.1730	-0.1994	27.42	1.62	-1.500			
0.8165	52253.69	3.1700	3.1699	-0.1976	27.43	1.63	-1.500			
0.8171	52291.29	3.1670	3.1671	-0.1961	27.43	1.63	-1.500			
0.8176	52328.99	3.1640	3.1641	-0.1944	27.43	1.63	-1.500			
0.8182	52366.36	3.1610	3.1609	-0.1927	27.44	1.64	-1.500			
0.8188	52403.14	3.1580	3.1580	-0.1903	27.44	1.64	-1.500			
0.8194	52439.24	3.1550	3.1551	-0.1883	27.45	1.65	-1.500			
0.8199	52475.23	3.1520	3.1520	-0.1867	27.46	1.66	-1.500			
0.8205	52511.14	3.1490	3.1489	-0.1845	27.46	1.66	-1.500			
0.8210	52546.34	3.1460	3.1460	-0.1821	27.47	1.67	-1.500			
0.8216	52580.83	3.1430	3.1431	-0.1808	27.47	1.67	-1.500			
0.8221	52615.46	3.1400	3.1400	-0.1792	27.48	1.68	-1.500			
0.8227	52649.71	3.1370	3.1369	-0.1776	27.48	1.68	-1.500			
0.8232	52683.65	3.1340	3.1339	-0.1760	27.49	1.69	-1.500			
0.8237	52717.14	3.1310	3.1311	-0.1743	27.49	1.69	-1.500			
0.8242	52750.35	3.1280	3.1281	-0.1734	27.50	1.70	-1.500			
0.8247	52783.82	3.1250	3.1249	-0.1725	27.50	1.70	-1.500			
0.8253	52816.79	3.1220	3.1220	-0.1709	27.51	1.71	-1.500			
0.8258	52849.21	3.1190	3.1190	-0.1690	27.51	1.71	-1.500			
0.8263	52881.74	3.1160	3.1162	-0.1680	27.52	1.72	-1.500			
0.8268	52913.93	3.1130	3.1129	-0.1664	27.52	1.72	-1.500			
0.8273	52945.71	3.1100	3.1100	-0.1646	27.53	1.73	-1.500			
0.8278	52977.07	3.1070	3.1070	-0.1631	27.53	1.73	-1.500			
0.8282	53007.97	3.1040	3.1040	-0.1614	27.54	1.74	-1.500			
0.8287	53038.92	3.1010	3.1009	-0.1604	27.54	1.74	-1.500			
0.8292	53069.59	3.0980	3.0980	-0.1594	27.55	1.75	-1.500			
0.8297	53099.97	3.0950	3.0950	-0.1584	27.56	1.76	-1.500			
0.8302	53130.38	3.0920	3.0919	-0.1572	27.56	1.76	-1.500			
0.8306	53160.47	3.0890	3.0891	-0.1562	27.57	1.77	-1.500			
0.8311	53190.56	3.0860	3.0860	-0.1547	27.57	1.77	-1.500			
0.8316	53220.21	3.0830	3.0830	-0.1530	27.58	1.78	-1.500			
0.8320	53248.96	3.0800	3.0800	-0.1523	27.58	1.78	-1.500			
0.8325	53278.14	3.0770	3.0771	-0.1516	27.59	1.79	-1.500			
0.8329	53307.05	3.0740	3.0740	-0.1505	27.60	1.80	-1.500			
0.8334	53335.76	3.0710	3.0709	-0.1496	27.60	1.80	-1.500			
0.8338	53364.66	3.0680	3.0681	-0.1491	27.61	1.81	-1.500			
0.8343	53393.20	3.0650	3.0652	-0.1482	27.61	1.81	-1.500			
0.8347	53421.80	3.0620	3.0619	-0.1475	27.62	1.82	-1.500			
0.8352	53450.12	3.0590	3.0590	-0.1463	27.62	1.82	-1.500			
0.8356	53477.68	3.0560	3.0560	-0.1442	27.63	1.83	-1.500			
0.8360	53505.30	3.0530	3.0530	-0.1435	27.63	1.83	-1.500			
0.8365	53532.97	3.0500	3.0501	-0.1428	27.64	1.84	-1.500			
0.8369	53560.29	3.0470	3.0469	-0.1413	27.64	1.84	-1.500			
0.8373	53587.37	3.0440	3.0440	-0.1402	27.65	1.85	-1.500			
0.8377	53614.02	3.0410	3.0410	-0.1398	27.65	1.85	-1.500			
0.8381	53640.70	3.0380	3.0380	-0.1388	27.66	1.86	-1.500			
0.8386	53667.25	3.0350	3.0350	-0.1383	27.66	1.86	-1.500			
0.8390	53693.75	3.0320	3.0319	-0.1377	27.67	1.87	-1.500			
0.8394	53720.19	3.0290	3.0291	-0.1363	27.67	1.87	-1.500			
0.8398	53746.34	3.0260	3.0260	-0.1357	27.68	1.88	-1.500			
0.8402	53772.49	3.0230	3.0231	-0.1349	27.68	1.88	-1.500			
0.8406	53798.25	3.0200	3.0200	-0.1335	27.69	1.89	-1.500			
0.8410	53823.39	3.0170	3.0169	-0.1330	27.69	1.89	-1.500			
0.8414	53849.04	3.0140	3.0140	-0.1319	27.70	1.90	-1.500			
0.8418	53874.21	3.0110	3.0111	-0.1310	27.70	1.90	-1.500			
0.8422	53899.29	3.0080	3.0079	-0.1303	27.71	1.91	-1.500			
0.8426	53924.47	3.0050	3.0051	-0.1285	27.71	1.91	-1.499			
0.8430	53948.97	3.0020	3.0021	-0.1266	27.72	1.92	-1.500			
