Ah_balance (normalized)	Ah_balance (mAh)	Voltage - fit (V)	Voltage -  interpolate (V)	dQ/dV (1/V)	Temperature (°C)	Temperature - diff (°C)	Current (C)	R_DC 0ms (mOhm)	R_DC 50ms (mOhm)	R_DC 50 ms PEC (mOhm)
0.2726	17447.33	3.9900	3.9900	0.8338	27.44	1.48	1.500			
0.2751	17607.28	3.9870	3.9870	0.8378	27.43	1.47	1.500			
0.2777	17770.00	3.9840	3.9840	0.8407	27.43	1.47	1.500			
0.2802	17930.82	3.9810	3.9811	0.8453	27.42	1.46	1.500			
0.2827	18094.33	3.9780	3.9780	0.8490	27.41	1.45	1.500			
0.2853	18256.34	3.9750	3.9749	0.8546	27.41	1.45	1.500			
0.2878	18420.09	3.9720	3.9720	0.8584	27.40	1.44	1.500			
0.2904	18585.71	3.9690	3.9690	0.8651	27.39	1.43	1.500			
0.2930	18754.13	3.9660	3.9659	0.8658	27.39	1.43	1.500			
0.2956	18921.51	3.9630	3.9630	0.8697	27.38	1.42	1.500			
0.2982	19087.10	3.9600	3.9601	0.8693	27.38	1.42	1.500			
0.3009	19255.25	3.9570	3.9569	0.8700	27.37	1.41	1.500			
0.3035	19420.93	3.9540	3.9540	0.8690	27.36	1.40	1.500			
0.3061	19588.26	3.9510	3.9510	0.8746	27.36	1.40	1.500			
0.3087	19756.23	3.9480	3.9481	0.8797	27.35	1.39	1.500			
0.3113	19925.97	3.9450	3.9449	0.8867	27.34	1.38	1.500			
0.3140	20093.87	3.9420	3.9420	0.8915	27.34	1.38	1.500			
0.3167	20266.71	3.9390	3.9390	0.9005	27.33	1.37	1.500			
0.3194	20442.47	3.9360	3.9360	0.9087	27.33	1.37	1.500			
0.3221	20617.34	3.9330	3.9330	0.9109	27.32	1.36	1.500			
0.3249	20793.24	3.9300	3.9301	0.9147	27.31	1.35	1.500			
0.3276	20968.04	3.9270	3.9270	0.9185	27.31	1.35	1.500			
0.3304	21144.82	3.9240	3.9240	0.9241	27.30	1.34	1.500			
0.3331	21321.23	3.9210	3.9210	0.9243	27.29	1.33	1.500			
0.3359	21499.42	3.9180	3.9180	0.9346	27.29	1.33	1.500			
0.3387	21679.83	3.9150	3.9150	0.9441	27.28	1.32	1.500			
0.3416	21861.29	3.9120	3.9120	0.9507	27.27	1.31	1.500			
0.3445	22044.94	3.9090	3.9090	0.9565	27.26	1.30	1.500			
0.3473	22229.13	3.9060	3.9059	0.9628	27.25	1.29	1.500			
0.3502	22415.28	3.9030	3.9031	0.9710	27.24	1.28	1.500			
0.3532	22602.56	3.9000	3.9000	0.9789	27.24	1.28	1.500			
0.3561	22792.22	3.8970	3.8969	0.9783	27.23	1.27	1.500			
0.3591	22979.53	3.8940	3.8939	0.9863	27.22	1.26	1.500			
0.3620	23167.30	3.8910	3.8911	0.9920	27.21	1.25	1.500			
0.3649	23356.14	3.8880	3.8881	1.0098	27.20	1.24	1.500			
0.3680	23550.66	3.8850	3.8848	1.0247	27.19	1.23	1.500			
0.3711	23750.47	3.8820	3.8820	1.0373	27.18	1.22	1.500			
0.3742	23951.84	3.8790	3.8790	1.0505	27.17	1.21	1.500			
0.3774	24156.57	3.8760	3.8762	1.0635	27.16	1.20	1.500			
0.3807	24362.94	3.8730	3.8730	1.0675	27.15	1.19	1.500			
0.3839	24566.42	3.8700	3.8700	1.0750	27.14	1.18	1.500			
0.3871	24771.84	3.8670	3.8670	1.0825	27.13	1.17	1.500			
0.3903	24980.12	3.8640	3.8641	1.0961	27.12	1.16	1.500			
0.3936	25192.56	3.8610	3.8609	1.1111	27.11	1.15	1.500			
0.3970	25407.20	3.8580	3.8581	1.1265	27.09	1.13	1.500			
0.4004	25625.29	3.8550	3.8550	1.1390	27.08	1.12	1.500			
0.4038	25845.37	3.8520	3.8520	1.1584	27.07	1.11	1.500			
0.4073	26067.84	3.8490	3.8490	1.1762	27.06	1.10	1.500			
0.4109	26294.51	3.8460	3.8460	1.1926	27.04	1.08	1.500			
0.4145	26525.60	3.8430	3.8429	1.2084	27.03	1.07	1.500			
0.4181	26760.22	3.8400	3.8401	1.2244	27.02	1.06	1.500			
0.4218	26996.22	3.8370	3.8371	1.2404	27.00	1.04	1.500			
0.4256	27236.52	3.8340	3.8340	1.2600	26.99	1.03	1.500			
0.4294	27479.10	3.8310	3.8310	1.2742	26.98	1.02	1.500			
0.4332	27723.07	3.8280	3.8280	1.2933	26.96	1.00	1.500			
0.4371	27973.58	3.8250	3.8250	1.3194	26.95	0.99	1.500			
0.4411	28229.04	3.8220	3.8220	1.3446	26.93	0.97	1.500			
0.4451	28489.02	3.8190	3.8190	1.3699	26.92	0.96	1.500			
0.4493	28753.85	3.8160	3.8160	1.3962	26.91	0.95	1.500			
0.4535	29024.94	3.8130	3.8130	1.4179	26.89	0.93	1.500			
0.4578	29301.24	3.8100	3.8099	1.4443	26.87	0.91	1.500			
0.4622	29579.96	3.8070	3.8071	1.4615	26.86	0.90	1.500			
0.4666	29860.91	3.8040	3.8040	1.4894	26.84	0.88	1.500			
0.4711	30149.92	3.8010	3.8010	1.5172	26.83	0.87	1.500			
0.4757	30444.10	3.7980	3.7979	1.5368	26.81	0.85	1.500			
0.4804	30743.26	3.7950	3.7951	1.5600	26.79	0.83	1.500			
0.4850	31042.97	3.7920	3.7921	1.5974	26.77	0.81	1.500			
0.4899	31352.95	3.7890	3.7890	1.6286	26.75	0.79	1.500			
0.4948	31667.48	3.7860	3.7859	1.6514	26.73	0.77	1.500			
0.4999	31993.20	3.7830	3.7831	1.6722	26.71	0.75	1.500	0.345	0.480	
0.5050	32317.17	3.7800	3.7800	1.6839	26.69	0.73	1.500			
0.5100	32642.00	3.7770	3.7770	1.6915	26.68	0.72	1.500			
0.5150	32962.19	3.7740	3.7740	1.7061	26.66	0.70	1.500			
0.5202	33291.45	3.7710	3.7710	1.7123	26.64	0.68	1.500			
0.5254	33623.78	3.7680	3.7680	1.7309	26.62	0.66	1.500			
0.5307	33962.48	3.7650	3.7651	1.7233	26.61	0.65	1.500			
0.5358	34290.88	3.7620	3.7619	1.7121	26.59	0.63	1.500			
0.5408	34613.26	3.7590	3.7590	1.7167	26.57	0.61	1.500			
0.5459	34939.85	3.7560	3.7559	1.7249	26.56	0.60	1.500			
0.5512	35275.48	3.7530	3.7530	1.7496	26.54	0.58	1.500			
0.5564	35610.08	3.7500	3.7501	1.7708	26.52	0.56	1.500			
0.5618	35952.31	3.7470	3.7470	1.8071	26.51	0.55	1.500			
0.5672	36298.87	3.7440	3.7438	1.8389	26.49	0.53	1.500			
0.5727	36655.72	3.7410	3.7410	1.8750	26.47	0.51	1.500			
0.5785	37023.47	3.7380	3.7380	1.9040	26.46	0.50	1.500			
0.5842	37391.51	3.7350	3.7351	1.9544	26.44	0.48	1.500			
0.5902	37770.84	3.7320	3.7319	2.0102	26.43	0.47	1.500			
0.5963	38162.58	3.7290	3.7290	2.0617	26.41	0.45	1.500			
0.6026	38566.50	3.7260	3.7260	2.1298	26.39	0.43	1.500			
0.6091	38982.13	3.7230	3.7230	2.1660	26.37	0.41	1.500			
0.6156	39397.43	3.7200	3.7200	2.2077	26.35	0.39	1.500			
0.6223	39825.33	3.7170	3.7170	2.2629	26.34	0.38	1.500			
0.6292	40269.12	3.7140	3.7140	2.3080	26.32	0.36	1.500			
0.6362	40717.86	3.7110	3.7110	2.3531	26.30	0.34	1.500			
0.6434	41176.20	3.7080	3.7080	2.3036	26.29	0.33	1.500			
0.6504	41624.54	3.7050	3.7050	2.2248	26.27	0.31	1.500			
0.6568	42033.56	3.7020	3.7020	2.0547	26.25	0.29	1.500			
0.6626	42407.86	3.6990	3.6991	1.8997	26.23	0.27	1.500			
0.6681	42755.43	3.6960	3.6961	1.7710	26.22	0.26	1.500			
0.6731	43077.72	3.6930	3.6930	1.6528	26.21	0.25	1.500			
0.6779	43386.84	3.6900	3.6901	1.5717	26.20	0.24	1.500			
0.6825	43679.26	3.6870	3.6870	1.4999	26.19	0.23	1.500			
0.6869	43960.88	3.6840	3.6840	1.4431	26.18	0.22	1.500			
0.6911	44230.15	3.6810	3.6810	1.3903	26.17	0.21	1.500			
0.6951	44489.45	3.6780	3.6780	1.3487	26.16	0.20	1.500			
0.6991	44742.46	3.6750	3.6750	1.3149	26.15	0.19	1.500			
0.7030	44990.07	3.6720	3.6720	1.2895	26.14	0.18	1.500			
0.7068	45236.20	3.6690	3.6690	1.2778	26.13	0.17	1.500			
0.7106	45475.53	3.6660	3.6660	1.2737	26.12	0.16	1.500			
0.7144	45719.38	3.6630	3.6631	1.2761	26.11	0.15	1.500			
0.7182	45964.61	3.6600	3.6599	1.2744	26.10	0.14	1.500			
0.7220	46210.05	3.6570	3.6570	1.2782	26.09	0.13	1.500			
0.7259	46457.92	3.6540	3.6541	1.2743	26.08	0.12	1.500			
0.7297	46703.15	3.6510	3.6510	1.2667	26.07	0.11	1.500			
0.7335	46946.48	3.6480	3.6480	1.2572	26.06	0.10	1.500			
0.7373	47186.44	3.6450	3.6450	1.2452	26.05	0.09	1.500			
0.7410	47424.44	3.6420	3.6420	1.2352	26.04	0.08	1.500			
0.7447	47660.94	3.6390	3.6390	1.2244	26.03	0.07	1.500			
0.7483	47894.37	3.6360	3.6361	1.2136	26.03	0.07	1.500			
0.7520	48126.39	3.6330	3.6330	1.2103	26.02	0.06	1.500			
0.7556	48359.04	3.6300	3.6300	1.1956	26.01	0.05	1.500			
0.7592	48587.02	3.6270	3.6270	1.1839	26.00	0.04	1.500			
0.7627	48814.04	3.6240	3.6241	1.1735	25.99	0.03	1.500			
0.7662	49039.29	3.6210	3.6210	1.1599	25.98	0.02	1.500			
0.7697	49260.39	3.6180	3.6180	1.1456	25.98	0.02	1.500			
0.7731	49478.90	3.6150	3.6150	1.1271	25.98	0.02	1.500			
0.7765	49694.47	3.6120	3.6120	1.1043	25.97	0.01	1.500			
0.7798	49908.04	3.6090	3.6090	1.0841	25.97	0.01	1.500			
0.7830	50113.60	3.6060	3.6060	1.0517	25.97	0.01	1.500			
0.7861	50311.59	3.6030	3.6030	1.0227	25.96	0.00	1.500			
0.7891	50504.72	3.6000	3.6000	0.9938	25.96	0.00	1.500			
0.7921	50693.51	3.5970	3.5969	0.9564	25.96	0.00	1.500			
0.7949	50876.12	3.5940	3.5939	0.9166	25.96	-0.00	1.500			
0.7977	51051.87	3.5910	3.5911	0.8587	25.96	-0.00	1.500			
0.8003	51217.64	3.5880	3.5880	0.7956	25.95	-0.01	1.500			
0.8026	51366.85	3.5850	3.5850	0.7135	25.95	-0.01	1.500			
0.8046	51495.36	3.5820	3.5820	0.6231	25.95	-0.01	1.500			
0.8063	51603.22	3.5790	3.5791	0.5359	25.95	-0.01	1.500			
0.8078	51696.33	3.5760	3.5760	0.4565	25.95	-0.01	1.500			
0.8089	51771.94	3.5730	3.5729	0.3856	25.95	-0.01	1.500			
0.8100	51836.91	3.5700	3.5700	0.3329	25.95	-0.01	1.500			
0.8108	51892.43	3.5670	3.5670	0.2886	25.95	-0.01	1.500			
0.8116	51942.24	3.5640	3.5640	0.2550	25.94	-0.02	1.500			
0.8123	51986.37	3.5610	3.5609	0.2240	25.94	-0.02	1.500			
0.8129	52026.03	3.5580	3.5580	0.2022	25.94	-0.02	1.500			
0.8135	52061.80	3.5550	3.5552	0.1826	25.94	-0.02	1.500			
0.8140	52094.84	3.5520	3.5519	0.1645	25.94	-0.02	1.500			
0.8144	52124.54	3.5490	3.5490	0.1498	25.94	-0.02	1.500			
0.8149	52151.42	3.5460	3.5460	0.1342	25.94	-0.02	1.500			
0.8152	52175.53	3.5430	3.5430	0.1192	25.94	-0.02	1.500			
0.8156	52197.21	3.5400	3.5400	0.1057	25.94	-0.02	1.500			
0.8159	52216.14	3.5370	3.5370	0.0915	25.94	-0.02	1.500			
0.8161	52232.35	3.5340	3.5342	0.0773	25.94	-0.02	1.500			
0.8163	52246.23	3.5310	3.5312	0.0629	25.94	-0.02	1.500			
0.8165	52256.86	3.5280	3.5285	0.0478	25.94	-0.02	1.500			
0.8166	52264.59	3.5250	3.5260	0.0327	25.94	-0.02	1.500			
