Ah_balance (normalized)	Ah_balance (mAh)	Voltage - fit (V)	Voltage -  interpolate (V)	dQ/dV (1/V)	Temperature (°C)	Temperature - diff (°C)	Current (C)	R_DC 0ms (mOhm)	R_DC 50ms (mOhm)	R_DC 50 ms PEC (mOhm)
0.2071	13254.94	3.9100	3.9102	-0.1300	25.97	-0.01	-1.500			
0.2076	13283.76	3.9070	3.9069	-0.1660	25.97	-0.01	-1.500			
0.2081	13318.69	3.9040	3.9040	-0.1988	25.97	-0.01	-1.500			
0.2088	13360.32	3.9010	3.9010	-0.2310	25.97	-0.01	-1.500			
0.2095	13408.11	3.8980	3.8981	-0.2619	25.97	-0.01	-1.500			
0.2103	13461.13	3.8950	3.8950	-0.2957	25.97	-0.01	-1.500			
0.2113	13521.14	3.8920	3.8920	-0.3274	25.97	-0.01	-1.500			
0.2123	13587.04	3.8890	3.8890	-0.3588	25.97	-0.01	-1.500			
0.2134	13658.72	3.8860	3.8860	-0.3911	25.97	-0.01	-1.500			
0.2146	13736.59	3.8830	3.8831	-0.4260	25.98	-0.00	-1.500			
0.2160	13821.62	3.8800	3.8800	-0.4602	25.98	-0.00	-1.500			
0.2174	13913.38	3.8770	3.8769	-0.4937	25.98	-0.00	-1.500			
0.2189	14011.42	3.8740	3.8740	-0.5259	25.98	-0.00	-1.500			
0.2206	14116.74	3.8710	3.8710	-0.5564	25.98	0.00	-1.500			
0.2223	14227.42	3.8680	3.8680	-0.5868	25.98	0.00	-1.500			
0.2241	14342.93	3.8650	3.8650	-0.6131	25.98	0.00	-1.500			
0.2260	14463.25	3.8620	3.8619	-0.6360	25.98	0.00	-1.500			
0.2279	14588.38	3.8590	3.8590	-0.6621	25.99	0.01	-1.500			
0.2300	14717.93	3.8560	3.8560	-0.6838	25.99	0.01	-1.500			
0.2321	14852.81	3.8530	3.8530	-0.7035	25.99	0.01	-1.500			
0.2342	14990.39	3.8500	3.8500	-0.7200	25.99	0.01	-1.500			
0.2364	15130.38	3.8470	3.8470	-0.7319	25.99	0.01	-1.500			
0.2386	15272.20	3.8440	3.8440	-0.7481	25.99	0.01	-1.500			
0.2409	15418.02	3.8410	3.8410	-0.7578	26.00	0.02	-1.500			
0.2432	15563.51	3.8380	3.8379	-0.7664	26.00	0.02	-1.500			
0.2455	15713.27	3.8350	3.8352	-0.7743	26.00	0.02	-1.500			
0.2479	15863.54	3.8320	3.8319	-0.7780	26.01	0.03	-1.500			
0.2502	16013.44	3.8290	3.8290	-0.7838	26.01	0.03	-1.500			
0.2526	16163.21	3.8260	3.8260	-0.7894	26.02	0.04	-1.500			
0.2549	16314.22	3.8230	3.8230	-0.7991	26.02	0.04	-1.500			
0.2573	16468.58	3.8200	3.8200	-0.8077	26.03	0.05	-1.500			
0.2598	16625.09	3.8170	3.8169	-0.8089	26.03	0.05	-1.500			
0.2622	16782.33	3.8140	3.8140	-0.8159	26.04	0.06	-1.500			
0.2647	16940.03	3.8110	3.8111	-0.8211	26.05	0.07	-1.500			
0.2672	17097.68	3.8080	3.8079	-0.8160	26.05	0.07	-1.500			
0.2696	17253.51	3.8050	3.8050	-0.8177	26.06	0.08	-1.500			
0.2720	17410.27	3.8020	3.8019	-0.8209	26.06	0.08	-1.500			
0.2745	17568.72	3.7990	3.7990	-0.8229	26.07	0.09	-1.500			
0.2770	17727.60	3.7960	3.7960	-0.8262	26.08	0.10	-1.500			
0.2794	17884.79	3.7930	3.7931	-0.8280	26.08	0.10	-1.500			
0.2820	18045.01	3.7900	3.7900	-0.8316	26.09	0.11	-1.500			
0.2845	18206.45	3.7870	3.7869	-0.8339	26.09	0.11	-1.500			
0.2870	18365.42	3.7840	3.7840	-0.8315	26.10	0.12	-1.500			
0.2895	18524.84	3.7810	3.7811	-0.8355	26.11	0.13	-1.500			
0.2920	18685.85	3.7780	3.7780	-0.8380	26.11	0.13	-1.500			
0.2945	18846.92	3.7750	3.7750	-0.8359	26.12	0.14	-1.500			
0.2970	19007.35	3.7720	3.7720	-0.8356	26.12	0.14	-1.500			
0.2995	19167.97	3.7690	3.7691	-0.8398	26.13	0.15	-1.500			
0.3020	19328.77	3.7660	3.7660	-0.8456	26.14	0.16	-1.500			
0.3046	19491.86	3.7630	3.7629	-0.8432	26.15	0.17	-1.500			
0.3071	19652.99	3.7600	3.7600	-0.8462	26.16	0.18	-1.500			
0.3096	19816.47	3.7570	3.7571	-0.8495	26.17	0.19	-1.500			
0.3122	19980.64	3.7540	3.7539	-0.8532	26.17	0.19	-1.500			
0.3148	20145.68	3.7510	3.7509	-0.8511	26.18	0.20	-1.500			
0.3173	20309.24	3.7480	3.7480	-0.8441	26.19	0.21	-1.500			
0.3199	20470.65	3.7450	3.7451	-0.8413	26.20	0.22	-1.500			
0.3224	20632.52	3.7420	3.7420	-0.8436	26.20	0.22	-1.500			
0.3249	20791.60	3.7390	3.7390	-0.8370	26.21	0.23	-1.500			
0.3274	20951.90	3.7360	3.7359	-0.8418	26.22	0.24	-1.500			
0.3299	21113.09	3.7330	3.7331	-0.8448	26.22	0.24	-1.500			
0.3325	21278.49	3.7300	3.7300	-0.8495	26.23	0.25	-1.500			
0.3350	21441.68	3.7270	3.7271	-0.8517	26.23	0.25	-1.500			
0.3376	21605.48	3.7240	3.7240	-0.8492	26.24	0.26	-1.500			
0.3401	21769.10	3.7210	3.7209	-0.8458	26.25	0.27	-1.500			
0.3427	21930.33	3.7180	3.7180	-0.8500	26.25	0.27	-1.500			
0.3452	22093.17	3.7150	3.7151	-0.8475	26.26	0.28	-1.500			
0.3478	22256.39	3.7120	3.7119	-0.8509	26.27	0.29	-1.500			
0.3503	22419.73	3.7090	3.7091	-0.8556	26.27	0.29	-1.500			
0.3529	22582.85	3.7060	3.7061	-0.8586	26.28	0.30	-1.500			
0.3555	22748.87	3.7030	3.7030	-0.8667	26.28	0.30	-1.500			
0.3581	22915.84	3.7000	3.7000	-0.8747	26.29	0.31	-1.500			
0.3607	23083.26	3.6970	3.6970	-0.8802	26.30	0.32	-1.500			
0.3634	23254.50	3.6940	3.6940	-0.8915	26.30	0.32	-1.500			
0.3660	23426.05	3.6910	3.6909	-0.8964	26.31	0.33	-1.500			
0.3687	23597.36	3.6880	3.6881	-0.9076	26.32	0.34	-1.500			
0.3715	23773.05	3.6850	3.6850	-0.9187	26.32	0.34	-1.500			
0.3742	23950.42	3.6820	3.6820	-0.9271	26.33	0.35	-1.500			
0.3770	24129.35	3.6790	3.6789	-0.9374	26.33	0.35	-1.500			
0.3798	24310.23	3.6760	3.6762	-0.9490	26.33	0.35	-1.500			
0.3827	24492.10	3.6730	3.6730	-0.9677	26.34	0.36	-1.500			
0.3856	24678.87	3.6700	3.6700	-0.9868	26.34	0.36	-1.500			
0.3886	24870.24	3.6670	3.6669	-1.0019	26.35	0.37	-1.500			
0.3916	25065.35	3.6640	3.6639	-1.0252	26.35	0.37	-1.500			
0.3948	25264.43	3.6610	3.6612	-1.0458	26.36	0.38	-1.500			
0.3979	25466.75	3.6580	3.6579	-1.0609	26.36	0.38	-1.500			
0.4011	25672.22	3.6550	3.6550	-1.0785	26.36	0.38	-1.500			
0.4044	25879.80	3.6520	3.6520	-1.0993	26.37	0.39	-1.500			
0.4076	26089.56	3.6490	3.6490	-1.1265	26.37	0.39	-1.500			
0.4111	26310.50	3.6460	3.6460	-1.1537	26.37	0.39	-1.500			
0.4146	26533.88	3.6430	3.6431	-1.1757	26.38	0.40	-1.500			
0.4182	26762.11	3.6400	3.6399	-1.2077	26.38	0.40	-1.500			
0.4218	26998.10	3.6370	3.6371	-1.2366	26.38	0.40	-1.500			
0.4256	27236.37	3.6340	3.6340	-1.2641	26.38	0.40	-1.500			
0.4294	27481.93	3.6310	3.6310	-1.2893	26.38	0.40	-1.500			
0.4333	27731.89	3.6280	3.6281	-1.3230	26.38	0.40	-1.500			
0.4374	27992.18	3.6250	3.6249	-1.3540	26.38	0.40	-1.500			
0.4415	28256.31	3.6220	3.6220	-1.3808	26.38	0.40	-1.500			
0.4457	28521.93	3.6190	3.6192	-1.4089	26.38	0.40	-1.500			
0.4499	28795.93	3.6160	3.6160	-1.4386	26.38	0.40	-1.500			
0.4542	29071.26	3.6130	3.6130	-1.4807	26.37	0.39	-1.500			
0.4587	29358.83	3.6100	3.6100	-1.5126	26.37	0.39	-1.500			
0.4634	29656.96	3.6070	3.6069	-1.5442	26.37	0.39	-1.500			
0.4681	29957.34	3.6040	3.6039	-1.5627	26.36	0.38	-1.500			
0.4728	30260.49	3.6010	3.6011	-1.5902	26.36	0.38	-1.500			
0.4776	30564.32	3.5980	3.5980	-1.6236	26.35	0.37	-1.500			
0.4824	30876.63	3.5950	3.5949	-1.6506	26.35	0.37	-1.500			
0.4874	31193.72	3.5920	3.5920	-1.6779	26.35	0.37	-1.500			
0.4926	31524.86	3.5890	3.5891	-1.7133	26.34	0.36	-1.500			
0.4978	31862.13	3.5860	3.5860	-1.7457	26.34	0.36	-1.500			
0.5031	32198.01	3.5830	3.5830	-1.7700	26.33	0.35	-1.500			
0.5084	32537.66	3.5800	3.5799	-1.7812	26.32	0.34	-1.500			
0.5137	32879.52	3.5770	3.5770	-1.8095	26.32	0.34	-1.500			
0.5192	33230.04	3.5740	3.5740	-1.8441	26.31	0.33	-1.500			
0.5248	33587.00	3.5710	3.5710	-1.8741	26.31	0.33	-1.500			
0.5305	33952.45	3.5680	3.5680	-1.9001	26.31	0.33	-1.500			
0.5363	34320.44	3.5650	3.5650	-1.9276	26.31	0.33	-1.500			
0.5421	34693.00	3.5620	3.5620	-1.9512	26.31	0.33	-1.500			
0.5480	35070.14	3.5590	3.5590	-1.9775	26.31	0.33	-1.500			
0.5539	35449.43	3.5560	3.5560	-1.9894	26.31	0.33	-1.500			
0.5599	35832.84	3.5530	3.5530	-2.0108	26.30	0.32	-1.500			
0.5660	36221.39	3.5500	3.5500	-2.0317	26.30	0.32	-1.500			
0.5721	36616.58	3.5470	3.5469	-2.0500	26.30	0.32	-1.500	0.384	0.497	
0.5783	37012.01	3.5440	3.5440	-2.0587	26.30	0.32	-1.500			
0.5845	37409.57	3.5410	3.5410	-2.0660	26.29	0.31	-1.500			
0.5907	37807.75	3.5380	3.5380	-2.0724	26.29	0.31	-1.500			
0.5969	38203.69	3.5350	3.5351	-2.0771	26.29	0.31	-1.500			
0.6032	38602.94	3.5320	3.5320	-2.0766	26.29	0.31	-1.500			
0.6094	39004.26	3.5290	3.5290	-2.0687	26.29	0.31	-1.500			
0.6157	39404.44	3.5260	3.5261	-2.0490	26.29	0.31	-1.500			
0.6218	39796.88	3.5230	3.5231	-2.0323	26.29	0.31	-1.500			
0.6279	40185.09	3.5200	3.5199	-2.0148	26.30	0.32	-1.500			
0.6339	40567.48	3.5170	3.5169	-1.9877	26.31	0.33	-1.500			
0.6398	40947.39	3.5140	3.5140	-1.9662	26.31	0.33	-1.500			
0.6457	41324.13	3.5110	3.5112	-1.9539	26.32	0.34	-1.500			
0.6515	41697.87	3.5080	3.5080	-1.9399	26.32	0.34	-1.500			
0.6573	42070.25	3.5050	3.5050	-1.9152	26.33	0.35	-1.500			
0.6630	42433.34	3.5020	3.5020	-1.8871	26.33	0.35	-1.500			
0.6687	42797.13	3.4990	3.4990	-1.8765	26.34	0.36	-1.500			
0.6743	43154.28	3.4960	3.4960	-1.8542	26.35	0.37	-1.500			
0.6798	43508.37	3.4930	3.4930	-1.8358	26.36	0.38	-1.500			
0.6852	43855.80	3.4900	3.4900	-1.8141	26.36	0.38	-1.500			
0.6907	44201.89	3.4870	3.4870	-1.7961	26.37	0.39	-1.500			
0.6961	44549.21	3.4840	3.4840	-1.7841	26.38	0.40	-1.500			
0.7014	44888.84	3.4810	3.4810	-1.7569	26.39	0.41	-1.500			
0.7067	45225.86	3.4780	3.4780	-1.7331	26.40	0.42	-1.500			
0.7118	45555.04	3.4750	3.4750	-1.7107	26.41	0.43	-1.500			
0.7169	45881.79	3.4720	3.4720	-1.6841	26.42	0.44	-1.500			
0.7219	46202.25	3.4690	3.4690	-1.6590	26.43	0.45	-1.500			
0.7269	46519.04	3.4660	3.4661	-1.6346	26.45	0.47	-1.500			
0.7317	46831.33	3.4630	3.4630	-1.6111	26.46	0.48	-1.500			
0.7365	47138.44	3.4600	3.4600	-1.5872	26.47	0.49	-1.500			
0.7413	47441.36	3.4570	3.4570	-1.5611	26.48	0.50	-1.500			
0.7459	47736.53	3.4540	3.4541	-1.5377	26.49	0.51	-1.500			
0.7505	48030.28	3.4510	3.4510	-1.5186	26.50	0.52	-1.500			
0.7549	48316.79	3.4480	3.4479	-1.5099	26.52	0.54	-1.500			
0.7595	48605.30	3.4450	3.4450	-1.4937	26.53	0.55	-1.500			
0.7640	48893.93	3.4420	3.4419	-1.4795	26.54	0.56	-1.500			
0.7684	49175.17	3.4390	3.4390	-1.4608	26.55	0.57	-1.500			
0.7727	49455.07	3.4360	3.4361	-1.4522	26.57	0.59	-1.500			
0.7770	49730.21	3.4330	3.4329	-1.4409	26.59	0.61	-1.500			
0.7813	50004.49	3.4300	3.4299	-1.4294	26.60	0.62	-1.500			
0.7856	50276.63	3.4270	3.4270	-1.4200	26.62	0.64	-1.500			
0.7899	50552.71	3.4240	3.4240	-1.4164	26.64	0.66	-1.500			
0.7942	50826.79	3.4210	3.4211	-1.4123	26.65	0.67	-1.500			
0.7984	51097.19	3.4180	3.4179	-1.3928	26.67	0.69	-1.500			
0.8026	51363.63	3.4150	3.4150	-1.3676	26.69	0.71	-1.500			
0.8066	51625.13	3.4120	3.4119	-1.3450	26.71	0.73	-1.500			
0.8107	51882.26	3.4090	3.4091	-1.3116	26.72	0.74	-1.500			
0.8146	52134.56	3.4060	3.4059	-1.2727	26.74	0.76	-1.500			
0.8184	52375.35	3.4030	3.4029	-1.2220	26.75	0.77	-1.500			
0.8219	52604.36	3.4000	3.4000	-1.1730	26.77	0.79	-1.500			
0.8254	52824.82	3.3970	3.3971	-1.1285	26.78	0.80	-1.500			
0.8287	53038.14	3.3940	3.3939	-1.0788	26.79	0.81	-1.500			
0.8319	53238.67	3.3910	3.3910	-1.0286	26.80	0.82	-1.500			
0.8349	53432.39	3.3880	3.3881	-0.9901	26.81	0.83	-1.500			
0.8378	53619.53	3.3850	3.3850	-0.9520	26.82	0.84	-1.500			
0.8406	53796.85	3.3820	3.3820	-0.9143	26.83	0.85	-1.500			
0.8432	53966.60	3.3790	3.3789	-0.8736	26.84	0.86	-1.500			
0.8458	54131.48	3.3760	3.3761	-0.8399	26.85	0.87	-1.500			
0.8483	54290.47	3.3730	3.3730	-0.8110	26.86	0.88	-1.500			
0.8506	54441.19	3.3700	3.3700	-0.7779	26.87	0.89	-1.500			
0.8529	54585.93	3.3670	3.3670	-0.7501	26.88	0.90	-1.500			
0.8551	54728.23	3.3640	3.3640	-0.7278	26.89	0.91	-1.500			
0.8573	54864.80	3.3610	3.3609	-0.6995	26.90	0.92	-1.500			
0.8593	54997.12	3.3580	3.3580	-0.6769	26.91	0.93	-1.500			
0.8613	55125.26	3.3550	3.3550	-0.6514	26.92	0.94	-1.500			
0.8632	55246.87	3.3520	3.3521	-0.6293	26.92	0.94	-1.500			
0.8651	55365.03	3.3490	3.3489	-0.6111	26.93	0.95	-1.500			
0.8668	55478.36	3.3460	3.3461	-0.5904	26.94	0.96	-1.500			
0.8686	55591.38	3.3430	3.3429	-0.5730	26.95	0.97	-1.500			
0.8703	55700.85	3.3400	3.3400	-0.5565	26.94	0.96	-1.500			
0.8720	55805.62	3.3370	3.3371	-0.5382	26.95	0.97	-1.500			
0.8736	55907.57	3.3340	3.3340	-0.5203	26.96	0.98	-1.500			
0.8751	56003.64	3.3310	3.3309	-0.4991	26.96	0.98	-1.500			
0.8765	56098.28	3.3280	3.3280	-0.4836	26.97	0.99	-1.500			
0.8780	56189.21	3.3250	3.3250	-0.4688	26.98	1.00	-1.500			
0.8793	56277.94	3.3220	3.3219	-0.4546	26.98	1.00	-1.500			
0.8807	56363.80	3.3190	3.3190	-0.4395	26.99	1.01	-1.500			
0.8820	56446.75	3.3160	3.3160	-0.4232	27.00	1.02	-1.500			
0.8832	56527.08	3.3130	3.3130	-0.4085	27.00	1.02	-1.500			
0.8844	56603.89	3.3100	3.3100	-0.3939	27.01	1.03	-1.500			
0.8856	56677.19	3.3070	3.3070	-0.3818	27.01	1.03	-1.500			
0.8867	56748.79	3.3040	3.3040	-0.3692	27.02	1.04	-1.500			
0.8878	56818.57	3.3010	3.3009	-0.3566	27.03	1.05	-1.500			
0.8888	56886.13	3.2980	3.2980	-0.3452	27.03	1.05	-1.500			
0.8899	56951.42	3.2950	3.2951	-0.3353	27.04	1.06	-1.500			
0.8909	57014.69	3.2920	3.2920	-0.3223	27.04	1.06	-1.500			
0.8918	57075.14	3.2890	3.2890	-0.3106	27.04	1.06	-1.500			
0.8927	57133.35	3.2860	3.2860	-0.3002	27.05	1.07	-1.500			
0.8936	57189.80	3.2830	3.2830	-0.2910	27.05	1.07	-1.500			
0.8945	57245.00	3.2800	3.2799	-0.2812	27.06	1.08	-1.500			
0.8953	57297.88	3.2770	3.2770	-0.2714	27.06	1.08	-1.500			
0.8961	57348.79	3.2740	3.2741	-0.2632	27.06	1.08	-1.500			
0.8969	57398.85	3.2710	3.2710	-0.2554	27.07	1.09	-1.500			
0.8976	57446.62	3.2680	3.2679	-0.2471	27.07	1.09	-1.500			
0.8983	57492.91	3.2650	3.2651	-0.2395	27.08	1.10	-1.500			
0.8990	57537.97	3.2620	3.2620	-0.2325	27.08	1.10	-1.500			
0.8997	57582.02	3.2590	3.2590	-0.2255	27.09	1.11	-1.500			
0.9004	57624.60	3.2560	3.2560	-0.2195	27.09	1.11	-1.500			
0.9010	57665.83	3.2530	3.2530	-0.2133	27.09	1.11	-1.500			
0.9017	57706.31	3.2500	3.2500	-0.2083	27.10	1.12	-1.500			
0.9023	57746.01	3.2470	3.2469	-0.2031	27.10	1.12	-1.500			
0.9029	57784.35	3.2440	3.2441	-0.1972	27.11	1.13	-1.500			
0.9035	57821.62	3.2410	3.2410	-0.1923	27.11	1.13	-1.500			
0.9040	57858.06	3.2380	3.2381	-0.1873	27.11	1.13	-1.500			
0.9046	57893.80	3.2350	3.2350	-0.1822	27.12	1.14	-1.500			
0.9051	57927.90	3.2320	3.2320	-0.1768	27.12	1.14	-1.500			
0.9056	57960.86	3.2290	3.2292	-0.1728	27.12	1.14	-1.500			
0.9062	57993.73	3.2260	3.2259	-0.1696	27.13	1.15	-1.500			
0.9067	58025.89	3.2230	3.2230	-0.1658	27.13	1.15	-1.500			
0.9071	58057.51	3.2200	3.2200	-0.1620	27.13	1.15	-1.500			
0.9076	58088.11	3.2170	3.2170	-0.1586	27.14	1.16	-1.500			
0.9081	58118.26	3.2140	3.2142	-0.1554	27.14	1.16	-1.500			
0.9086	58148.03	3.2110	3.2110	-0.1525	27.14	1.16	-1.500			
0.9090	58176.77	3.2080	3.2079	-0.1493	27.14	1.16	-1.500			
0.9095	58204.80	3.2050	3.2049	-0.1454	27.15	1.17	-1.500			
0.9099	58232.51	3.2020	3.2021	-0.1432	27.15	1.17	-1.500			
0.9103	58259.97	3.1990	3.1990	-0.1408	27.15	1.17	-1.500			
0.9107	58286.75	3.1960	3.1961	-0.1385	27.15	1.17	-1.500			
0.9111	58312.93	3.1930	3.1930	-0.1355	27.16	1.18	-1.500			
0.9115	58338.75	3.1900	3.1900	-0.1332	27.16	1.18	-1.500			
0.9119	58364.12	3.1870	3.1869	-0.1309	27.16	1.18	-1.500			
0.9123	58388.86	3.1840	3.1841	-0.1285	27.17	1.19	-1.500			
0.9127	58413.35	3.1810	3.1811	-0.1265	27.17	1.19	-1.500			
0.9131	58437.29	3.1780	3.1780	-0.1248	27.17	1.19	-1.500			
0.9135	58461.01	3.1750	3.1750	-0.1230	27.18	1.20	-1.500			
0.9138	58484.55	3.1720	3.1719	-0.1212	27.18	1.20	-1.500			
0.9142	58507.59	3.1690	3.1691	-0.1194	27.19	1.21	-1.500			
0.9145	58530.44	3.1660	3.1659	-0.1176	27.19	1.21	-1.500			
0.9149	58553.00	3.1630	3.1631	-0.1160	27.19	1.21	-1.500			
0.9152	58574.93	3.1600	3.1601	-0.1146	27.20	1.22	-1.500			
0.9156	58596.71	3.1570	3.1570	-0.1129	27.20	1.22	-1.500			
0.9159	58618.24	3.1540	3.1539	-0.1114	27.20	1.22	-1.500			
0.9162	58639.30	3.1510	3.1510	-0.1097	27.21	1.23	-1.500			
0.9166	58660.20	3.1480	3.1481	-0.1086	27.21	1.23	-1.500			
0.9169	58680.95	3.1450	3.1450	-0.1074	27.21	1.23	-1.500			
0.9172	58701.47	3.1420	3.1419	-0.1062	27.22	1.24	-1.500			
0.9175	58721.81	3.1390	3.1389	-0.1051	27.22	1.24	-1.500			
0.9178	58741.85	3.1360	3.1361	-0.1039	27.22	1.24	-1.500			
0.9181	58761.55	3.1330	3.1331	-0.1025	27.23	1.25	-1.500			
0.9185	58781.11	3.1300	3.1300	-0.1016	27.23	1.25	-1.500			
0.9188	58800.58	3.1270	3.1270	-0.1007	27.23	1.25	-1.500			
0.9191	58819.81	3.1240	3.1240	-0.0995	27.24	1.26	-1.500			
0.9194	58838.73	3.1210	3.1210	-0.0984	27.24	1.26	-1.500			
0.9196	58857.43	3.1180	3.1181	-0.0977	27.24	1.26	-1.500			
0.9199	58876.06	3.1150	3.1150	-0.0969	27.25	1.27	-1.500			
0.9202	58894.60	3.1120	3.1120	-0.0962	27.25	1.27	-1.500			
0.9205	58913.06	3.1090	3.1089	-0.0951	27.25	1.27	-1.500			
0.9208	58931.23	3.1060	3.1059	-0.0942	27.25	1.27	-1.500			
0.9211	58949.27	3.1030	3.1031	-0.0931	27.26	1.28	-1.500			
0.9214	58967.05	3.1000	3.1001	-0.0921	27.26	1.28	-1.500			
0.9216	58984.69	3.0970	3.0969	-0.0913	27.26	1.28	-1.500			
0.9219	59002.11	3.0940	3.0941	-0.0902	27.27	1.29	-1.500			
0.9222	59019.02	3.0910	3.0910	-0.0894	27.27	1.29	-1.500			
0.9224	59036.14	3.0880	3.0880	-0.0890	27.27	1.29	-1.500			
0.9227	59053.14	3.0850	3.0850	-0.0886	27.28	1.30	-1.500			
0.9230	59070.13	3.0820	3.0820	-0.0883	27.28	1.30	-1.500			
0.9232	59087.16	3.0790	3.0790	-0.0877	27.28	1.30	-1.500			
0.9235	59103.93	3.0760	3.0760	-0.0870	27.29	1.31	-1.500			
0.9238	59120.68	3.0730	3.0731	-0.0866	27.29	1.31	-1.500			
0.9240	59137.23	3.0700	3.0700	-0.0858	27.29	1.31	-1.500			
0.9243	59153.62	3.0670	3.0671	-0.0850	27.29	1.31	-1.500			
0.9245	59169.89	3.0640	3.0640	-0.0842	27.30	1.32	-1.500			
0.9248	59185.92	3.0610	3.0609	-0.0833	27.30	1.32	-1.500			
0.9250	59201.70	3.0580	3.0582	-0.0830	27.30	1.32	-1.500			
0.9253	59217.59	3.0550	3.0550	-0.0825	27.31	1.33	-1.500			
0.9255	59233.44	3.0520	3.0519	-0.0819	27.31	1.33	-1.500			
0.9258	59249.11	3.0490	3.0490	-0.0813	27.31	1.33	-1.500			
0.9260	59264.65	3.0460	3.0460	-0.0808	27.31	1.33	-1.500			
0.9263	59280.07	3.0430	3.0431	-0.0804	27.32	1.34	-1.500			
0.9265	59295.46	3.0400	3.0400	-0.0800	27.32	1.34	-1.500			
0.9267	59310.89	3.0370	3.0369	-0.0796	27.32	1.34	-1.500			
0.9270	59326.08	3.0340	3.0339	-0.0792	27.32	1.34	-1.500			
0.9272	59341.06	3.0310	3.0310	-0.0785	27.33	1.35	-1.500			
0.9274	59356.10	3.0280	3.0281	-0.0782	27.33	1.35	-1.500			
0.9277	59371.10	3.0250	3.0250	-0.0780	27.33	1.35	-1.500			
0.9279	59386.13	3.0220	3.0219	-0.0778	27.34	1.36	-1.500			
0.9281	59401.16	3.0190	3.0190	-0.0769	27.34	1.36	-1.500			
0.9284	59415.97	3.0160	3.0159	-0.0764	27.34	1.36	-1.500			
0.9286	59430.56	3.0130	3.0131	-0.0756	27.34	1.36	-1.500			
0.9288	59445.01	3.0100	3.0101	-0.0748	27.35	1.37	-1.500			
0.9291	59459.52	3.0070	3.0069	-0.0729	27.35	1.37	-1.500			
0.9293	59473.34	3.0040	3.0040	-0.0711	27.35	1.37	-1.500			
