Ah_balance (normalized)	Ah_balance (mAh)	Voltage - fit (V)	Voltage -  interpolate (V)	dQ/dV (1/V)	Temperature (°C)	Temperature - diff (°C)	Current (C)	R_DC 0ms (mOhm)	R_DC 50ms (mOhm)	R_DC 50 ms PEC (mOhm)
0.2688	17201.63	3.9880	3.9880	0.8290	27.21	1.26	1.500			
0.2713	17363.42	3.9850	3.9849	0.8456	27.21	1.26	1.500			
0.2739	17526.98	3.9820	3.9820	0.8486	27.20	1.25	1.500			
0.2764	17689.01	3.9790	3.9789	0.8529	27.19	1.24	1.500			
0.2789	17852.62	3.9760	3.9760	0.8571	27.19	1.24	1.500			
0.2815	18017.72	3.9730	3.9729	0.8628	27.18	1.23	1.500			
0.2841	18183.97	3.9700	3.9700	0.8679	27.18	1.23	1.500			
0.2867	18350.52	3.9670	3.9670	0.8710	27.17	1.22	1.500			
0.2894	18520.04	3.9640	3.9640	0.8789	27.16	1.21	1.500			
0.2920	18689.59	3.9610	3.9609	0.8821	27.16	1.21	1.500			
0.2947	18858.63	3.9580	3.9581	0.8774	27.15	1.20	1.500			
0.2973	19026.94	3.9550	3.9550	0.8829	27.14	1.19	1.500			
0.2999	19195.49	3.9520	3.9521	0.8871	27.14	1.19	1.500			
0.3026	19366.18	3.9490	3.9488	0.8946	27.13	1.18	1.500			
0.3053	19537.32	3.9460	3.9461	0.9014	27.12	1.17	1.500			
0.3080	19711.70	3.9430	3.9430	0.9079	27.12	1.17	1.500			
0.3107	19887.55	3.9400	3.9400	0.9197	27.11	1.16	1.500			
0.3135	20066.47	3.9370	3.9370	0.9195	27.10	1.15	1.500			
0.3163	20243.05	3.9340	3.9340	0.9243	27.09	1.14	1.500			
0.3191	20421.62	3.9310	3.9310	0.9240	27.08	1.13	1.500			
0.3219	20598.74	3.9280	3.9281	0.9263	27.08	1.13	1.500			
0.3246	20775.97	3.9250	3.9249	0.9302	27.07	1.12	1.500			
0.3274	20954.99	3.9220	3.9220	0.9345	27.06	1.11	1.500			
0.3302	21133.35	3.9190	3.9190	0.9352	27.06	1.11	1.500			
0.3330	21314.70	3.9160	3.9160	0.9430	27.05	1.10	1.500			
0.3359	21496.23	3.9130	3.9130	0.9477	27.04	1.09	1.500			
0.3388	21680.33	3.9100	3.9099	0.9530	27.04	1.09	1.500			
0.3416	21861.35	3.9070	3.9070	0.9565	27.03	1.08	1.500			
0.3444	22044.50	3.9040	3.9040	0.9674	27.03	1.08	1.500			
0.3474	22231.34	3.9010	3.9010	0.9764	27.02	1.07	1.500			
0.3503	22419.92	3.8980	3.8979	0.9872	27.02	1.07	1.500			
0.3533	22611.34	3.8950	3.8951	0.9944	27.01	1.06	1.500			
0.3563	22802.87	3.8920	3.8920	1.0032	27.00	1.05	1.500			
0.3593	22997.10	3.8890	3.8890	1.0139	26.99	1.04	1.500			
0.3624	23191.91	3.8860	3.8860	1.0176	26.98	1.03	1.500			
0.3654	23386.16	3.8830	3.8829	1.0244	26.98	1.03	1.500			
0.3685	23584.01	3.8800	3.8800	1.0392	26.97	1.02	1.500			
0.3716	23783.14	3.8770	3.8771	1.0518	26.96	1.01	1.500			
0.3748	23987.89	3.8740	3.8740	1.0612	26.95	1.00	1.500			
0.3780	24192.63	3.8710	3.8710	1.0706	26.94	0.99	1.500			
0.3812	24399.78	3.8680	3.8681	1.0801	26.93	0.98	1.500			
0.3845	24608.83	3.8650	3.8649	1.0891	26.93	0.98	1.500			
0.3878	24816.90	3.8620	3.8620	1.0973	26.92	0.97	1.500			
0.3910	25026.99	3.8590	3.8590	1.1117	26.91	0.96	1.500			
0.3944	25240.25	3.8560	3.8560	1.1277	26.91	0.96	1.500			
0.3978	25458.81	3.8530	3.8530	1.1525	26.90	0.95	1.500			
0.4013	25681.51	3.8500	3.8500	1.1711	26.89	0.94	1.500			
0.4048	25909.76	3.8470	3.8470	1.1906	26.88	0.93	1.500			
0.4085	26140.94	3.8440	3.8440	1.2107	26.87	0.92	1.500			
0.4121	26375.70	3.8410	3.8410	1.2237	26.86	0.91	1.500			
0.4158	26610.84	3.8380	3.8380	1.2408	26.85	0.90	1.500			
0.4195	26850.62	3.8350	3.8350	1.2598	26.84	0.89	1.500			
0.4233	27092.55	3.8320	3.8320	1.2778	26.83	0.88	1.500			
0.4272	27339.99	3.8290	3.8291	1.3047	26.82	0.87	1.500			
0.4311	27591.94	3.8260	3.8260	1.3309	26.81	0.86	1.500			
0.4352	27849.67	3.8230	3.8230	1.3569	26.80	0.85	1.500			
0.4393	28114.52	3.8200	3.8200	1.3808	26.78	0.83	1.500			
0.4434	28380.72	3.8170	3.8170	1.4030	26.77	0.82	1.500			
0.4477	28651.58	3.8140	3.8141	1.4348	26.76	0.81	1.500			
0.4520	28930.19	3.8110	3.8108	1.4616	26.74	0.79	1.500			
0.4565	29213.20	3.8080	3.8079	1.4855	26.73	0.78	1.500			
0.4610	29501.86	3.8050	3.8050	1.5120	26.72	0.77	1.500			
0.4655	29794.43	3.8020	3.8021	1.5442	26.71	0.76	1.500			
0.4702	30092.93	3.7990	3.7990	1.5733	26.70	0.75	1.500			
0.4749	30396.40	3.7960	3.7960	1.6054	26.69	0.74	1.500			
0.4798	30707.64	3.7930	3.7929	1.6332	26.67	0.72	1.500			
0.4848	31029.46	3.7900	3.7900	1.6676	26.66	0.71	1.500			
0.4899	31352.81	3.7870	3.7870	1.6905	26.64	0.69	1.500			
0.4950	31681.38	3.7840	3.7840	1.6973	26.62	0.67	1.500			
0.5000	32001.01	3.7810	3.7811	1.7353	26.60	0.65	1.500			
0.5052	32335.86	3.7780	3.7781	1.7660	26.58	0.63	1.500			
0.5107	32683.54	3.7750	3.7744	1.7821	26.57	0.62	1.500	0.354	0.464	
0.5161	33030.58	3.7720	3.7722	1.8127	26.55	0.60	1.500			
0.5215	33376.59	3.7690	3.7691	1.8094	26.54	0.59	1.500			
0.5270	33727.74	3.7660	3.7658	1.8082	26.52	0.57	1.500			
0.5323	34067.60	3.7630	3.7630	1.7928	26.51	0.56	1.500			
0.5378	34417.15	3.7600	3.7600	1.7985	26.49	0.54	1.500			
0.5431	34760.60	3.7570	3.7570	1.7982	26.47	0.52	1.500			
0.5484	35096.83	3.7540	3.7541	1.7855	26.45	0.50	1.500			
0.5538	35442.07	3.7510	3.7509	1.8111	26.44	0.49	1.500			
0.5592	35791.37	3.7480	3.7480	1.8307	26.42	0.47	1.500			
0.5648	36145.17	3.7450	3.7450	1.8388	26.41	0.46	1.500			
0.5704	36504.00	3.7420	3.7420	1.8842	26.40	0.45	1.500			
0.5760	36867.17	3.7390	3.7389	1.9202	26.38	0.43	1.500			
0.5819	37239.24	3.7360	3.7361	1.9512	26.37	0.42	1.500			
0.5878	37619.27	3.7330	3.7330	1.9847	26.35	0.40	1.500			
0.5938	38001.59	3.7300	3.7300	2.0158	26.33	0.38	1.500			
0.5999	38395.77	3.7270	3.7270	2.0752	26.31	0.36	1.500			
0.6062	38796.64	3.7240	3.7241	2.1417	26.29	0.34	1.500			
0.6127	39215.54	3.7210	3.7210	2.2088	26.28	0.33	1.500			
0.6195	39647.03	3.7180	3.7180	2.2774	26.26	0.31	1.500			
0.6264	40089.06	3.7150	3.7150	2.3505	26.24	0.29	1.500			
0.6335	40545.48	3.7120	3.7120	2.4154	26.23	0.28	1.500			
0.6409	41019.50	3.7090	3.7090	2.4442	26.21	0.26	1.500			
0.6483	41493.45	3.7060	3.7060	2.4532	26.20	0.25	1.500			
0.6557	41965.46	3.7030	3.7030	2.4267	26.19	0.24	1.500			
0.6630	42428.81	3.7000	3.7000	2.2964	26.17	0.22	1.500			
0.6698	42868.00	3.6970	3.6971	2.1810	26.16	0.21	1.500			
0.6761	43269.48	3.6940	3.6939	2.0205	26.15	0.20	1.500			
0.6818	43637.46	3.6910	3.6910	1.8762	26.15	0.20	1.500			
0.6872	43983.85	3.6880	3.6880	1.7489	26.14	0.19	1.500			
0.6923	44306.93	3.6850	3.6850	1.6412	26.13	0.18	1.500			
0.6970	44605.70	3.6820	3.6820	1.5381	26.13	0.18	1.500			
0.7014	44891.03	3.6790	3.6790	1.4585	26.12	0.17	1.500			
0.7056	45159.49	3.6760	3.6760	1.3978	26.11	0.16	1.500			
0.7096	45415.73	3.6730	3.6729	1.3413	26.10	0.15	1.500			
0.7136	45667.21	3.6700	3.6700	1.3112	26.09	0.14	1.500			
0.7174	45913.81	3.6670	3.6670	1.2917	26.09	0.14	1.500			
0.7212	46155.81	3.6640	3.6640	1.2732	26.08	0.13	1.500			
0.7250	46399.76	3.6610	3.6610	1.2695	26.07	0.12	1.500			
0.7288	46641.00	3.6580	3.6580	1.2687	26.06	0.11	1.500			
0.7326	46883.94	3.6550	3.6550	1.2711	26.05	0.10	1.500			
0.7364	47127.01	3.6520	3.6520	1.2793	26.05	0.10	1.500			
0.7402	47372.74	3.6490	3.6490	1.2890	26.04	0.09	1.500			
0.7441	47621.21	3.6460	3.6460	1.2964	26.03	0.08	1.500			
0.7480	47873.15	3.6430	3.6430	1.2949	26.03	0.08	1.500			
0.7519	48123.32	3.6400	3.6400	1.2936	26.02	0.07	1.500			
0.7558	48371.81	3.6370	3.6371	1.2890	26.01	0.06	1.500			
0.7597	48619.33	3.6340	3.6339	1.2828	26.01	0.06	1.500			
0.7635	48861.81	3.6310	3.6310	1.2760	26.00	0.05	1.500			
0.7673	49106.85	3.6280	3.6280	1.2759	25.99	0.04	1.500			
0.7711	49351.40	3.6250	3.6250	1.2769	25.98	0.03	1.500			
0.7750	49597.67	3.6220	3.6220	1.2784	25.98	0.03	1.500			
0.7788	49843.45	3.6190	3.6190	1.2716	25.97	0.02	1.500			
0.7826	50087.66	3.6160	3.6160	1.2651	25.96	0.01	1.500			
0.7864	50331.88	3.6130	3.6130	1.2565	25.96	0.01	1.500			
0.7902	50572.47	3.6100	3.6100	1.2402	25.96	0.01	1.500			
0.7939	50810.22	3.6070	3.6070	1.2256	25.95	0.00	1.500			
0.7976	51043.82	3.6040	3.6040	1.2048	25.95	-0.00	1.500			
0.8011	51272.53	3.6010	3.6010	1.1861	25.94	-0.01	1.500			
0.8047	51498.68	3.5980	3.5980	1.1687	25.94	-0.01	1.500			
0.8081	51719.78	3.5950	3.5950	1.1511	25.94	-0.01	1.500			
0.8116	51939.91	3.5920	3.5920	1.1335	25.94	-0.01	1.500			
0.8150	52158.63	3.5890	3.5890	1.1118	25.94	-0.01	1.500			
0.8184	52376.06	3.5860	3.5859	1.0706	25.95	-0.00	1.500			
0.8216	52581.75	3.5830	3.5830	1.0109	25.95	-0.00	1.500			
0.8246	52777.47	3.5800	3.5800	0.9311	25.95	-0.00	1.500			
0.8274	52950.43	3.5770	3.5770	0.8306	25.95	-0.00	1.500			
0.8297	53100.76	3.5740	3.5740	0.7202	25.95	0.00	1.500			
0.8317	53226.94	3.5710	3.5711	0.6091	25.95	0.00	1.500			
0.8333	53328.32	3.5680	3.5680	0.5099	25.95	0.00	1.500			
0.8346	53414.23	3.5650	3.5649	0.4254	25.95	0.00	1.500			
0.8357	53482.17	3.5620	3.5620	0.3544	25.95	0.00	1.500			
0.8366	53541.04	3.5590	3.5590	0.3055	25.95	0.00	1.500			
0.8374	53592.10	3.5560	3.5559	0.2662	25.95	0.00	1.500			
0.8381	53638.53	3.5530	3.5530	0.2381	25.95	0.00	1.500			
0.8387	53679.91	3.5500	3.5499	0.2116	25.95	0.00	1.500			
0.8393	53717.36	3.5470	3.5470	0.1930	25.95	0.00	1.500			
0.8399	53751.66	3.5440	3.5440	0.1759	25.95	0.00	1.500			
0.8404	53783.82	3.5410	3.5410	0.1613	25.95	0.00	1.500			
0.8408	53813.43	3.5380	3.5379	0.1482	25.96	0.01	1.500			
0.8413	53840.53	3.5350	3.5350	0.1350	25.96	0.01	1.500			
0.8416	53865.44	3.5320	3.5320	0.1209	25.96	0.01	1.500			
0.8420	53887.60	3.5290	3.5290	0.1079	25.96	0.01	1.500			
0.8423	53906.95	3.5260	3.5262	0.0937	25.96	0.01	1.500			
0.8426	53923.74	3.5230	3.5231	0.0795	25.96	0.01	1.500			
0.8428	53938.00	3.5200	3.5203	0.0648	25.96	0.01	1.500			
0.8430	53948.98	3.5170	3.5174	0.0495	25.96	0.01	1.500			
0.8431	53957.02	3.5140	3.5151	0.0342	25.96	0.01	1.500			
