Ah_balance (normalized)	Ah_balance (mAh)	Voltage - fit (V)	Voltage -  interpolate (V)	dQ/dV (1/V)	Temperature (°C)	Temperature - diff (°C)	Current (C)	R_DC 0ms (mOhm)	R_DC 50ms (mOhm)	R_DC 50 ms PEC (mOhm)
-0.0087	-554.41	4.1990	4.1990	0.8631	25.56	-0.06	0.050			
-0.0078	-499.53	4.1980	4.1982	0.8515	25.56	-0.06	0.050			
-0.0070	-445.97	4.1970	4.1971	0.8374	25.55	-0.07	0.050			
-0.0061	-392.43	4.1960	4.1960	0.8339	25.54	-0.08	0.050			
-0.0053	-339.38	4.1950	4.1950	0.8295	25.54	-0.08	0.050			
-0.0045	-286.88	4.1940	4.1940	0.8258	25.54	-0.08	0.050			
-0.0037	-234.46	4.1930	4.1930	0.8233	25.53	-0.09	0.050			
-0.0028	-181.88	4.1920	4.1920	0.8213	25.53	-0.09	0.050			
-0.0020	-130.08	4.1910	4.1910	0.8209	25.53	-0.09	0.050			
-0.0012	-77.50	4.1900	4.1900	0.8198	25.52	-0.10	0.050			
-0.0004	-25.64	4.1890	4.1888	0.8183	25.52	-0.10	0.050			
0.0004	25.92	4.1880	4.1881	0.8150	25.52	-0.10	0.050			
0.0012	78.59	4.1870	4.1871	0.8157	25.52	-0.10	0.050			
0.0021	131.30	4.1860	4.1859	0.8145	25.52	-0.10	0.050			
0.0029	183.91	4.1850	4.1849	0.8126	25.52	-0.10	0.050			
0.0037	236.32	4.1840	4.1840	0.8107	25.52	-0.10	0.050			
0.0045	288.44	4.1830	4.1829	0.8074	25.52	-0.10	0.050			
0.0053	340.31	4.1820	4.1820	0.8053	25.52	-0.10	0.050			
0.0061	392.16	4.1810	4.1809	0.8033	25.52	-0.10	0.050			
0.0069	443.42	4.1800	4.1800	0.8015	25.52	-0.10	0.050	0.268	0.593	
0.0077	494.29	4.1790	4.1791	0.8007	25.51	-0.11	0.050			
0.0085	545.07	4.1780	4.1780	0.7999	25.51	-0.11	0.050			
0.0093	595.53	4.1770	4.1770	0.7978	25.50	-0.12	0.050			
0.0101	646.15	4.1760	4.1761	0.7981	25.50	-0.12	0.050			
0.0109	696.80	4.1750	4.1749	0.7986	25.50	-0.12	0.050			
0.0117	746.68	4.1740	4.1741	0.7983	25.50	-0.12	0.050			
0.0125	797.43	4.1730	4.1728	0.7993	25.50	-0.12	0.050			
0.0132	847.93	4.1720	4.1720	0.8012	25.50	-0.12	0.050			
0.0140	898.36	4.1710	4.1710	0.8027	25.50	-0.12	0.050			
0.0148	949.63	4.1700	4.1701	0.8049	25.49	-0.13	0.050			
0.0157	1002.00	4.1690	4.1688	0.8080	25.49	-0.13	0.050			
0.0165	1053.58	4.1680	4.1678	0.8114	25.48	-0.14	0.050			
0.0173	1106.68	4.1670	4.1670	0.8126	25.49	-0.13	0.050			
0.0181	1159.32	4.1660	4.1661	0.8149	25.48	-0.14	0.050			
0.0189	1212.21	4.1650	4.1650	0.8176	25.48	-0.14	0.050			
0.0198	1265.09	4.1640	4.1641	0.8181	25.48	-0.14	0.050			
0.0206	1317.64	4.1630	4.1629	0.8204	25.48	-0.14	0.050			
0.0214	1370.05	4.1620	4.1618	0.8200	25.48	-0.14	0.050			
0.0222	1423.19	4.1610	4.1611	0.8191	25.49	-0.13	0.050			
0.0231	1475.37	4.1600	4.1601	0.8195	25.50	-0.12	0.050			
0.0239	1527.88	4.1590	4.1591	0.8196	25.50	-0.12	0.050			
0.0247	1580.10	4.1580	4.1582	0.8175	25.51	-0.11	0.050			
0.0255	1633.07	4.1570	4.1569	0.8159	25.52	-0.10	0.050			
0.0263	1685.34	4.1560	4.1559	0.8156	25.52	-0.10	0.050	0.186	0.358	
0.0271	1737.31	4.1550	4.1551	0.8140	25.53	-0.09	0.050			
0.0279	1788.57	4.1540	4.1541	0.8154	25.54	-0.08	0.050			
0.0288	1840.37	4.1530	4.1530	0.8164	25.54	-0.08	0.050			
0.0296	1891.92	4.1520	4.1520	0.8175	25.55	-0.07	0.050			
0.0304	1943.87	4.1510	4.1509	0.8188	25.55	-0.07	0.050			
0.0312	1996.56	4.1500	4.1501	0.8197	25.56	-0.06	0.050			
0.0320	2049.64	4.1490	4.1490	0.8197	25.56	-0.06	0.050			
0.0329	2102.77	4.1480	4.1480	0.8187	25.57	-0.05	0.050			
0.0337	2155.30	4.1470	4.1468	0.8197	25.58	-0.04	0.050			
0.0345	2208.26	4.1460	4.1459	0.8184	25.59	-0.03	0.050			
0.0353	2260.34	4.1450	4.1449	0.8181	25.59	-0.03	0.050			
0.0361	2312.53	4.1440	4.1441	0.8179	25.60	-0.02	0.050			
0.0369	2364.80	4.1430	4.1429	0.8178	25.60	-0.02	0.050			
0.0378	2417.11	4.1420	4.1423	0.8176	25.60	-0.02	0.050			
0.0386	2469.73	4.1410	4.1412	0.8197	25.60	-0.02	0.050			
0.0394	2521.41	4.1400	4.1400	0.8213	25.60	-0.02	0.050			
0.0402	2574.25	4.1390	4.1390	0.8229	25.60	-0.02	0.050			
0.0410	2627.06	4.1380	4.1379	0.8236	25.60	-0.02	0.050			
0.0419	2679.38	4.1370	4.1372	0.8266	25.59	-0.03	0.050			
0.0427	2731.13	4.1360	4.1360	0.8270	25.60	-0.02	0.050			
0.0435	2783.91	4.1350	4.1351	0.8269	25.58	-0.04	0.050			
0.0443	2836.55	4.1340	4.1340	0.8261	25.58	-0.04	0.050			
0.0452	2889.64	4.1330	4.1329	0.8294	25.58	-0.04	0.050			
0.0460	2942.47	4.1320	4.1320	0.8325	25.58	-0.04	0.050			
0.0468	2996.80	4.1310	4.1311	0.8347	25.57	-0.05	0.050	0.143	0.365	
0.0477	3051.25	4.1300	4.1301	0.8352	25.57	-0.05	0.050			
0.0485	3105.76	4.1290	4.1290	0.8362	25.56	-0.06	0.050			
0.0494	3159.23	4.1280	4.1280	0.8388	25.56	-0.06	0.050			
0.0502	3213.07	4.1270	4.1271	0.8374	25.56	-0.06	0.050			
0.0510	3266.83	4.1260	4.1261	0.8387	25.55	-0.07	0.050			
0.0519	3320.58	4.1250	4.1251	0.8375	25.54	-0.08	0.050			
0.0527	3374.58	4.1240	4.1239	0.8380	25.54	-0.08	0.050			
0.0536	3428.33	4.1230	4.1229	0.8356	25.54	-0.08	0.050			
0.0544	3481.87	4.1220	4.1221	0.8343	25.53	-0.09	0.050			
0.0552	3535.03	4.1210	4.1209	0.8339	25.52	-0.10	0.050			
0.0561	3587.92	4.1200	4.1202	0.8315	25.52	-0.10	0.050			
0.0569	3641.42	4.1190	4.1188	0.8316	25.51	-0.11	0.050			
0.0577	3694.28	4.1180	4.1182	0.8318	25.50	-0.12	0.050			
0.0585	3747.11	4.1170	4.1172	0.8297	25.50	-0.12	0.050			
0.0594	3800.12	4.1160	4.1162	0.8295	25.50	-0.12	0.050			
0.0602	3853.16	4.1150	4.1149	0.8305	25.48	-0.14	0.050			
0.0610	3905.02	4.1140	4.1143	0.8351	25.48	-0.14	0.050			
0.0618	3957.84	4.1130	4.1129	0.8390	25.47	-0.15	0.050			
0.0627	4010.51	4.1120	4.1120	0.8435	25.46	-0.16	0.050			
0.0635	4064.58	4.1110	4.1112	0.8472	25.46	-0.16	0.050			
0.0644	4118.91	4.1100	4.1100	0.8502	25.45	-0.17	0.050			
0.0652	4174.11	4.1090	4.1088	0.8518	25.44	-0.18	0.050			
0.0661	4228.17	4.1080	4.1081	0.8519	25.44	-0.18	0.050			
0.0669	4283.64	4.1070	4.1068	0.8558	25.43	-0.19	0.050	0.224	0.414	
0.0678	4339.66	4.1060	4.1057	0.8563	25.43	-0.19	0.050			
0.0687	4394.82	4.1050	4.1049	0.8566	25.42	-0.20	0.050			
0.0695	4450.88	4.1040	4.1042	0.8586	25.42	-0.20	0.050			
0.0704	4507.08	4.1030	4.1033	0.8582	25.41	-0.21	0.050			
0.0713	4562.49	4.1020	4.1021	0.8568	25.40	-0.22	0.050			
0.0722	4617.99	4.1010	4.1010	0.8548	25.40	-0.22	0.050			
0.0730	4673.40	4.1000	4.1000	0.8532	25.40	-0.22	0.050			
0.0739	4728.20	4.0990	4.0990	0.8493	25.39	-0.23	0.050			
0.0747	4782.88	4.0980	4.0979	0.8451	25.39	-0.23	0.050			
0.0756	4837.32	4.0970	4.0970	0.8395	25.39	-0.23	0.050			
0.0764	4890.49	4.0960	4.0960	0.8370	25.39	-0.23	0.050			
0.0772	4942.90	4.0950	4.0949	0.8310	25.40	-0.22	0.050			
0.0780	4993.48	4.0940	4.0941	0.8276	25.40	-0.22	0.050			
0.0788	5045.64	4.0930	4.0929	0.8263	25.41	-0.21	0.050			
0.0797	5097.81	4.0920	4.0921	0.8272	25.42	-0.20	0.050			
0.0805	5150.61	4.0910	4.0909	0.8290	25.42	-0.20	0.050			
0.0813	5203.65	4.0900	4.0901	0.8301	25.42	-0.20	0.050			
0.0821	5256.23	4.0890	4.0889	0.8310	25.43	-0.19	0.050			
0.0830	5309.67	4.0880	4.0879	0.8312	25.45	-0.17	0.050			
0.0838	5363.05	4.0870	4.0868	0.8311	25.46	-0.16	0.050			
0.0846	5416.12	4.0860	4.0859	0.8325	25.46	-0.16	0.050			
0.0855	5469.75	4.0850	4.0850	0.8347	25.47	-0.15	0.050			
0.0863	5523.14	4.0840	4.0840	0.8352	25.49	-0.13	0.050	0.352	0.564	
0.0871	5576.80	4.0830	4.0832	0.8373	25.50	-0.12	0.050			
0.0880	5630.03	4.0820	4.0821	0.8394	25.51	-0.11	0.050			
0.0888	5683.96	4.0810	4.0810	0.8427	25.52	-0.10	0.050			
0.0897	5738.38	4.0800	4.0800	0.8450	25.53	-0.09	0.050			
0.0905	5793.23	4.0790	4.0791	0.8459	25.54	-0.08	0.050			
0.0914	5847.53	4.0780	4.0780	0.8476	25.55	-0.07	0.050			
0.0922	5902.24	4.0770	4.0770	0.8474	25.57	-0.05	0.050			
0.0931	5956.37	4.0760	4.0759	0.8449	25.58	-0.04	0.050			
0.0939	6010.29	4.0750	4.0751	0.8431	25.58	-0.04	0.050			
0.0947	6063.96	4.0740	4.0740	0.8426	25.58	-0.04	0.050			
0.0956	6117.71	4.0730	4.0730	0.8437	25.59	-0.03	0.050			
0.0964	6171.86	4.0720	4.0722	0.8452	25.60	-0.02	0.050			
0.0973	6226.34	4.0710	4.0712	0.8458	25.61	-0.01	0.050			
0.0981	6280.88	4.0700	4.0699	0.8459	25.62	-0.00	0.050			
0.0990	6334.92	4.0690	4.0690	0.8462	25.62	0.00	0.050			
0.0998	6389.29	4.0680	4.0681	0.8475	25.62	0.00	0.050			
0.1007	6443.30	4.0670	4.0670	0.8478	25.62	0.00	0.050			
0.1015	6497.44	4.0660	4.0660	0.8472	25.62	0.00	0.050			
0.1024	6551.06	4.0650	4.0649	0.8462	25.62	0.00	0.050			
0.1032	6604.96	4.0640	4.0639	0.8478	25.62	0.00	0.050			
0.1040	6658.91	4.0630	4.0629	0.8483	25.62	0.00	0.050			
0.1049	6712.49	4.0620	4.0621	0.8485	25.63	0.01	0.050			
0.1057	6767.16	4.0610	4.0610	0.8500	25.62	0.00	0.050			
0.1066	6821.99	4.0600	4.0601	0.8512	25.63	0.01	0.050	0.351	0.559	
0.1074	6876.64	4.0590	4.0591	0.8531	25.62	0.00	0.050			
0.1083	6931.33	4.0580	4.0579	0.8549	25.62	0.00	0.050			
0.1092	6986.07	4.0570	4.0573	0.8571	25.61	-0.01	0.050			
0.1100	7040.84	4.0560	4.0558	0.8588	25.60	-0.02	0.050			
0.1109	7095.92	4.0550	4.0549	0.8599	25.60	-0.02	0.050			
0.1117	7150.41	4.0540	4.0541	0.8598	25.60	-0.02	0.050			
0.1126	7206.27	4.0530	4.0530	0.8596	25.58	-0.04	0.050			
0.1135	7261.18	4.0520	4.0521	0.8603	25.58	-0.04	0.050			
0.1143	7316.51	4.0510	4.0508	0.8634	25.58	-0.04	0.050			
0.1152	7371.92	4.0500	4.0498	0.8650	25.57	-0.05	0.050			
0.1161	7427.30	4.0490	4.0491	0.8651	25.56	-0.06	0.050			
0.1169	7482.88	4.0480	4.0481	0.8648	25.55	-0.07	0.050			
0.1178	7538.10	4.0470	4.0471	0.8656	25.54	-0.08	0.050			
0.1187	7593.85	4.0460	4.0460	0.8652	25.54	-0.08	0.050			
0.1195	7649.39	4.0450	4.0449	0.8657	25.54	-0.08	0.050			
0.1204	7704.76	4.0440	4.0441	0.8641	25.53	-0.09	0.050			
0.1213	7760.40	4.0430	4.0431	0.8653	25.52	-0.10	0.050			
0.1221	7815.97	4.0420	4.0419	0.8650	25.51	-0.11	0.050			
0.1230	7871.28	4.0410	4.0411	0.8646	25.50	-0.12	0.050			
0.1238	7926.04	4.0400	4.0401	0.8667	25.50	-0.12	0.050			
0.1247	7981.32	4.0390	4.0391	0.8648	25.50	-0.12	0.050			
0.1256	8036.60	4.0380	4.0380	0.8648	25.50	-0.12	0.050			
0.1264	8091.90	4.0370	4.0371	0.8643	25.50	-0.12	0.050	0.256	0.479	
0.1273	8147.18	4.0360	4.0360	0.8647	25.50	-0.12	0.050			
0.1282	8202.70	4.0350	4.0350	0.8659	25.50	-0.12	0.050			
0.1290	8257.75	4.0340	4.0339	0.8661	25.50	-0.12	0.050			
0.1299	8313.26	4.0330	4.0331	0.8678	25.51	-0.11	0.050			
0.1308	8369.10	4.0320	4.0318	0.8679	25.51	-0.11	0.050			
0.1316	8424.14	4.0310	4.0310	0.8668	25.51	-0.11	0.050			
0.1325	8479.74	4.0300	4.0302	0.8683	25.52	-0.10	0.050			
0.1334	8535.63	4.0290	4.0291	0.8692	25.52	-0.10	0.050			
0.1342	8591.20	4.0280	4.0280	0.8707	25.52	-0.10	0.050			
0.1351	8645.42	4.0270	4.0269	0.8768	25.52	-0.10	0.050			
0.1359	8700.70	4.0260	4.0261	0.8818	25.53	-0.09	0.050			
0.1368	8757.03	4.0250	4.0252	0.8855	25.53	-0.09	0.050			
0.1377	8813.63	4.0240	4.0239	0.8900	25.52	-0.10	0.050			
0.1386	8870.66	4.0230	4.0232	0.8950	25.53	-0.09	0.050			
0.1395	8927.69	4.0220	4.0219	0.8984	25.54	-0.08	0.050			
0.1404	8985.98	4.0210	4.0209	0.8993	25.53	-0.09	0.050			
0.1413	9043.63	4.0200	4.0199	0.9028	25.54	-0.08	0.050			
0.1422	9103.07	4.0190	4.0188	0.9043	25.54	-0.08	0.050			
0.1432	9162.37	4.0180	4.0178	0.9061	25.53	-0.09	0.050			
0.1441	9221.15	4.0170	4.0172	0.9071	25.54	-0.08	0.050			
0.1450	9279.79	4.0160	4.0161	0.9066	25.53	-0.09	0.050			
0.1459	9338.12	4.0150	4.0151	0.9063	25.52	-0.10	0.050			
0.1468	9397.17	4.0140	4.0141	0.9061	25.52	-0.10	0.050	0.402	0.533	
0.1477	9455.29	4.0130	4.0131	0.9035	25.52	-0.10	0.050			
0.1487	9514.07	4.0120	4.0121	0.9042	25.52	-0.10	0.050			
0.1496	9571.89	4.0110	4.0108	0.9017	25.52	-0.10	0.050			
0.1505	9629.20	4.0100	4.0101	0.8979	25.51	-0.11	0.050			
0.1513	9685.17	4.0090	4.0089	0.8972	25.50	-0.12	0.050			
0.1522	9741.89	4.0080	4.0079	0.8938	25.50	-0.12	0.050			
0.1531	9797.92	4.0070	4.0069	0.8871	25.50	-0.12	0.050			
0.1540	9855.98	4.0060	4.0059	0.8826	25.50	-0.12	0.050			
0.1549	9912.53	4.0050	4.0050	0.8816	25.50	-0.12	0.050			
0.1558	9968.60	4.0040	4.0039	0.8798	25.52	-0.10	0.050			
0.1566	10025.03	4.0030	4.0029	0.8783	25.51	-0.11	0.050			
0.1575	10081.06	4.0020	4.0020	0.8771	25.51	-0.11	0.050			
0.1584	10137.68	4.0010	4.0009	0.8767	25.51	-0.11	0.050			
0.1593	10193.10	4.0000	4.0000	0.8762	25.51	-0.11	0.050			
0.1601	10248.52	3.9990	3.9991	0.8794	25.50	-0.12	0.050			
0.1610	10304.78	3.9980	3.9983	0.8793	25.50	-0.12	0.050			
0.1619	10360.11	3.9970	3.9968	0.8811	25.50	-0.12	0.050			
0.1627	10415.30	3.9960	3.9958	0.8817	25.50	-0.12	0.050			
0.1636	10470.94	3.9950	3.9951	0.8853	25.50	-0.12	0.050			
0.1645	10527.21	3.9940	3.9940	0.8878	25.50	-0.12	0.050			
0.1654	10583.81	3.9930	3.9930	0.8908	25.50	-0.12	0.050			
0.1663	10640.48	3.9920	3.9919	0.8928	25.50	-0.12	0.050			
0.1672	10697.64	3.9910	3.9911	0.8971	25.50	-0.12	0.050	0.321	0.448	
0.1681	10755.64	3.9900	3.9901	0.8998	25.50	-0.12	0.050			
0.1690	10813.78	3.9890	3.9892	0.9025	25.50	-0.12	0.050			
0.1699	10872.90	3.9880	3.9880	0.9041	25.48	-0.14	0.050			
0.1708	10932.32	3.9870	3.9870	0.9084	25.48	-0.14	0.050			
0.1717	10991.88	3.9860	3.9860	0.9100	25.48	-0.14	0.050			
0.1727	11050.58	3.9850	3.9850	0.9087	25.48	-0.14	0.050			
0.1736	11109.00	3.9840	3.9840	0.9076	25.48	-0.14	0.050			
0.1745	11167.22	3.9830	3.9831	0.9082	25.48	-0.14	0.050			
0.1754	11224.83	3.9820	3.9821	0.9088	25.48	-0.14	0.050			
0.1763	11282.76	3.9810	3.9811	0.9084	25.49	-0.13	0.050			
0.1772	11340.39	3.9800	3.9800	0.9079	25.48	-0.14	0.050			
0.1781	11397.68	3.9790	3.9790	0.9070	25.48	-0.14	0.050			
0.1790	11455.20	3.9780	3.9781	0.9094	25.49	-0.13	0.050			
0.1799	11512.48	3.9770	3.9771	0.9100	25.50	-0.12	0.050			
0.1808	11570.08	3.9760	3.9759	0.9123	25.50	-0.12	0.050			
0.1817	11628.08	3.9750	3.9749	0.9141	25.52	-0.10	0.050			
0.1826	11687.41	3.9740	3.9740	0.9155	25.52	-0.10	0.050			
0.1835	11746.04	3.9730	3.9729	0.9171	25.53	-0.09	0.050			
0.1845	11805.18	3.9720	3.9720	0.9184	25.54	-0.08	0.050			
0.1854	11864.30	3.9710	3.9710	0.9203	25.54	-0.08	0.050			
0.1863	11923.48	3.9700	3.9701	0.9231	25.56	-0.06	0.050	0.080	0.322	
0.1872	11983.59	3.9690	3.9691	0.9254	25.56	-0.06	0.050			
0.1882	12043.44	3.9680	3.9680	0.9255	25.57	-0.05	0.050			
0.1891	12102.42	3.9670	3.9671	0.9284	25.58	-0.04	0.050			
0.1900	12161.33	3.9660	3.9660	0.9324	25.57	-0.05	0.050			
0.1910	12220.98	3.9650	3.9650	0.9322	25.58	-0.04	0.050			
0.1919	12280.46	3.9640	3.9641	0.9338	25.58	-0.04	0.050			
0.1928	12340.31	3.9630	3.9630	0.9363	25.58	-0.04	0.050			
0.1937	12399.96	3.9620	3.9618	0.9354	25.58	-0.04	0.050			
0.1947	12460.09	3.9610	3.9610	0.9355	25.58	-0.04	0.050			
0.1956	12520.63	3.9600	3.9601	0.9353	25.58	-0.04	0.050			
0.1966	12580.69	3.9590	3.9591	0.9361	25.58	-0.04	0.050			
0.1975	12639.95	3.9580	3.9580	0.9364	25.58	-0.04	0.050			
0.1984	12700.04	3.9570	3.9570	0.9358	25.59	-0.03	0.050			
0.1994	12760.39	3.9560	3.9562	0.9386	25.59	-0.03	0.050			
0.2003	12820.64	3.9550	3.9551	0.9402	25.59	-0.03	0.050			
0.2013	12881.41	3.9540	3.9540	0.9431	25.58	-0.04	0.050			
0.2022	12942.27	3.9530	3.9532	0.9420	25.59	-0.03	0.050			
0.2032	13002.38	3.9520	3.9518	0.9415	25.58	-0.04	0.050			
0.2041	13062.53	3.9510	3.9510	0.9405	25.58	-0.04	0.050			
0.2050	13122.00	3.9500	3.9499	0.9418	25.58	-0.04	0.050			
0.2060	13182.18	3.9490	3.9489	0.9428	25.58	-0.04	0.050			
0.2069	13242.44	3.9480	3.9479	0.9437	25.58	-0.04	0.050	0.290	0.486	
0.2078	13301.45	3.9470	3.9470	0.9431	25.57	-0.05	0.050			
0.2088	13361.77	3.9460	3.9461	0.9433	25.57	-0.05	0.050			
0.2097	13422.73	3.9450	3.9451	0.9466	25.57	-0.05	0.050			
0.2107	13481.74	3.9440	3.9442	0.9527	25.56	-0.06	0.050			
0.2116	13542.40	3.9430	3.9431	0.9583	25.56	-0.06	0.050			
0.2126	13603.26	3.9420	3.9421	0.9652	25.54	-0.08	0.050			
0.2135	13665.42	3.9410	3.9411	0.9691	25.54	-0.08	0.050			
0.2145	13728.23	3.9400	3.9399	0.9710	25.52	-0.10	0.050			
0.2155	13790.80	3.9390	3.9390	0.9747	25.51	-0.11	0.050			
0.2165	13853.41	3.9380	3.9376	0.9757	25.50	-0.12	0.050			
0.2174	13916.49	3.9370	3.9370	0.9794	25.50	-0.12	0.050			
0.2184	13980.53	3.9360	3.9358	0.9786	25.48	-0.14	0.050			
0.2194	14043.65	3.9350	3.9348	0.9797	25.47	-0.15	0.050			
0.2204	14107.80	3.9340	3.9341	0.9808	25.46	-0.16	0.050			
0.2214	14171.48	3.9330	3.9332	0.9810	25.45	-0.17	0.050			
0.2224	14234.85	3.9320	3.9322	0.9794	25.44	-0.18	0.050			
0.2234	14297.98	3.9310	3.9310	0.9766	25.44	-0.18	0.050			
0.2244	14361.14	3.9300	3.9300	0.9721	25.44	-0.18	0.050			
0.2254	14423.53	3.9290	3.9290	0.9692	25.43	-0.19	0.050			
0.2263	14485.66	3.9280	3.9279	0.9669	25.42	-0.20	0.050	0.371	0.562	
0.2273	14547.20	3.9270	3.9271	0.9628	25.42	-0.20	0.050			
0.2283	14608.14	3.9260	3.9258	0.9597	25.42	-0.20	0.050			
0.2292	14668.85	3.9250	3.9250	0.9547	25.42	-0.20	0.050			
0.2301	14727.15	3.9240	3.9241	0.9471	25.42	-0.20	0.050			
0.2311	14787.32	3.9230	3.9231	0.9484	25.43	-0.19	0.050			
0.2320	14847.88	3.9220	3.9219	0.9486	25.44	-0.18	0.050			
0.2330	14908.83	3.9210	3.9209	0.9494	25.45	-0.17	0.050			
0.2339	14969.85	3.9200	3.9200	0.9491	25.46	-0.16	0.050			
0.2349	15030.71	3.9190	3.9190	0.9487	25.46	-0.16	0.050			
0.2358	15090.87	3.9180	3.9179	0.9483	25.48	-0.14	0.050			
0.2367	15151.19	3.9170	3.9171	0.9490	25.48	-0.14	0.050			
0.2377	15212.23	3.9160	3.9160	0.9512	25.49	-0.13	0.050			
0.2386	15272.87	3.9150	3.9149	0.9515	25.50	-0.12	0.050			
0.2396	15333.77	3.9140	3.9137	0.9521	25.51	-0.11	0.050			
0.2405	15394.83	3.9130	3.9132	0.9536	25.52	-0.10	0.050			
0.2415	15456.41	3.9120	3.9120	0.9534	25.53	-0.09	0.050			
0.2425	15517.39	3.9110	3.9110	0.9545	25.54	-0.08	0.050			
0.2434	15579.08	3.9100	3.9099	0.9551	25.54	-0.08	0.050			
0.2444	15640.84	3.9090	3.9090	0.9540	25.54	-0.08	0.050			
0.2453	15701.51	3.9080	3.9081	0.9528	25.54	-0.08	0.050			
0.2463	15762.77	3.9070	3.9069	0.9496	25.55	-0.07	0.050			
0.2473	15824.38	3.9060	3.9060	0.9484	25.56	-0.06	0.050	0.307	0.495	
0.2482	15885.52	3.9050	3.9050	0.9457	25.56	-0.06	0.050			
0.2492	15945.89	3.9040	3.9040	0.9430	25.56	-0.06	0.050			
0.2501	16006.24	3.9030	3.9030	0.9405	25.56	-0.06	0.050			
0.2510	16066.91	3.9020	3.9020	0.9378	25.56	-0.06	0.050			
0.2520	16127.63	3.9010	3.9011	0.9326	25.56	-0.06	0.050			
0.2529	16187.89	3.9000	3.9000	0.9277	25.56	-0.06	0.050			
0.2539	16247.47	3.8990	3.8989	0.9210	25.57	-0.05	0.050			
0.2548	16306.67	3.8980	3.8982	0.9134	25.58	-0.04	0.050			
0.2557	16365.02	3.8970	3.8969	0.9058	25.58	-0.04	0.050			
0.2566	16423.41	3.8960	3.8959	0.8978	25.59	-0.03	0.050			
0.2575	16480.96	3.8950	3.8950	0.8901	25.60	-0.02	0.050			
0.2584	16537.95	3.8940	3.8941	0.8813	25.60	-0.02	0.050			
0.2593	16594.09	3.8930	3.8931	0.8733	25.60	-0.02	0.050			
0.2601	16649.54	3.8920	3.8920	0.8640	25.61	-0.01	0.050			
0.2610	16704.45	3.8910	3.8911	0.8558	25.60	-0.02	0.050			
0.2619	16759.30	3.8900	3.8901	0.8481	25.60	-0.02	0.050			
0.2627	16812.87	3.8890	3.8888	0.8408	25.60	-0.02	0.050			
0.2635	16865.82	3.8880	3.8880	0.8326	25.60	-0.02	0.050			
0.2644	16918.91	3.8870	3.8870	0.8250	25.60	-0.02	0.050			
0.2652	16971.35	3.8860	3.8858	0.8166	25.59	-0.03	0.050			
0.2660	17023.08	3.8850	3.8849	0.8083	25.58	-0.04	0.050			
0.2668	17073.94	3.8840	3.8841	0.7986	25.59	-0.03	0.050	0.133	0.289	
0.2676	17124.75	3.8830	3.8830	0.7910	25.58	-0.04	0.050			
0.2684	17175.91	3.8820	3.8820	0.7837	25.58	-0.04	0.050			
0.2692	17226.25	3.8810	3.8811	0.7755	25.58	-0.04	0.050			
0.2699	17275.95	3.8800	3.8800	0.7669	25.58	-0.04	0.050			
0.2707	17325.24	3.8790	3.8789	0.7589	25.56	-0.06	0.050			
0.2715	17373.65	3.8780	3.8781	0.7511	25.56	-0.06	0.050			
0.2722	17421.84	3.8770	3.8770	0.7407	25.56	-0.06	0.050			
0.2730	17469.42	3.8760	3.8761	0.7324	25.56	-0.06	0.050			
0.2737	17516.06	3.8750	3.8751	0.7229	25.55	-0.07	0.050			
0.2744	17561.66	3.8740	3.8741	0.7129	25.54	-0.08	0.050			
0.2751	17606.71	3.8730	3.8730	0.7033	25.54	-0.08	0.050			
0.2758	17651.02	3.8720	3.8720	0.6951	25.54	-0.08	0.050			
0.2765	17694.75	3.8710	3.8710	0.6870	25.54	-0.08	0.050			
0.2772	17737.99	3.8700	3.8700	0.6785	25.53	-0.09	0.050			
0.2778	17780.65	3.8690	3.8690	0.6696	25.53	-0.09	0.050			
0.2785	17822.79	3.8680	3.8681	0.6626	25.53	-0.09	0.050			
0.2791	17864.64	3.8670	3.8671	0.6567	25.52	-0.10	0.050			
0.2798	17906.42	3.8660	3.8660	0.6509	25.52	-0.10	0.050			
0.2804	17947.34	3.8650	3.8650	0.6460	25.52	-0.10	0.050			
0.2811	17987.78	3.8640	3.8641	0.6407	25.52	-0.10	0.050			
0.2817	18028.73	3.8630	3.8631	0.6358	25.52	-0.10	0.050			
0.2823	18068.94	3.8620	3.8621	0.6320	25.52	-0.10	0.050			
0.2830	18109.22	3.8610	3.8611	0.6285	25.53	-0.09	0.050			
0.2836	18148.89	3.8600	3.8601	0.6248	25.53	-0.09	0.050			
0.2842	18188.38	3.8590	3.8589	0.6218	25.52	-0.10	0.050			
0.2848	18227.45	3.8580	3.8580	0.6203	25.53	-0.09	0.050			
