Ah_balance (normalized)	Ah_balance (mAh)	Voltage - fit (V)	Voltage -  interpolate (V)	dQ/dV (1/V)	Temperature (°C)	Temperature - diff (°C)	Current (C)	R_DC 0ms (mOhm)	R_DC 50ms (mOhm)	R_DC 50 ms PEC (mOhm)
-0.0054	-344.84	4.2000	4.1906	0.7860	25.06	-0.12	-0.065	0.106	0.483	
-0.0046	-294.31	4.1990	4.1989	0.7975	25.06	-0.12	0.050			
-0.0038	-242.91	4.1980	4.1979	0.8086	25.06	-0.12	0.050			
-0.0030	-190.94	4.1970	4.1970	0.8153	25.06	-0.12	0.050			
-0.0022	-137.68	4.1960	4.1960	0.8259	25.06	-0.12	0.050			
-0.0013	-84.06	4.1950	4.1951	0.8314	25.07	-0.11	0.050			
-0.0005	-30.56	4.1940	4.1941	0.8344	25.08	-0.10	0.050	0.322	0.563	
0.0004	23.09	4.1930	4.1929	0.8369	25.07	-0.11	0.050			
0.0012	76.98	4.1920	4.1920	0.8388	25.08	-0.10	0.050			
0.0020	130.98	4.1910	4.1910	0.8400	25.08	-0.10	0.050			
0.0029	184.92	4.1900	4.1899	0.8411	25.08	-0.10	0.050			
0.0037	239.44	4.1890	4.1891	0.8436	25.08	-0.10	0.050			
0.0046	293.73	4.1880	4.1879	0.8447	25.08	-0.10	0.050			
0.0054	347.84	4.1870	4.1870	0.8453	25.08	-0.10	0.050			
0.0063	401.93	4.1860	4.1862	0.8460	25.08	-0.10	0.050			
0.0071	456.10	4.1850	4.1848	0.8470	25.08	-0.10	0.050			
0.0080	510.38	4.1840	4.1839	0.8469	25.08	-0.10	0.050			
0.0088	564.75	4.1830	4.1831	0.8463	25.08	-0.10	0.050			
0.0097	618.71	4.1820	4.1820	0.8460	25.09	-0.09	0.050			
0.0105	673.14	4.1810	4.1809	0.8446	25.08	-0.10	0.050			
0.0114	726.91	4.1800	4.1801	0.8443	25.08	-0.10	0.050			
0.0122	781.14	4.1790	4.1790	0.8447	25.08	-0.10	0.050			
0.0130	834.76	4.1780	4.1780	0.8450	25.08	-0.10	0.050			
0.0139	888.76	4.1770	4.1771	0.8455	25.07	-0.11	0.050			
0.0147	943.18	4.1760	4.1760	0.8467	25.07	-0.11	0.050			
0.0156	997.70	4.1750	4.1750	0.8477	25.06	-0.12	0.050			
0.0164	1051.71	4.1740	4.1740	0.8475	25.06	-0.12	0.050			
0.0173	1105.46	4.1730	4.1729	0.8477	25.05	-0.13	0.050			
0.0181	1159.64	4.1720	4.1721	0.8489	25.04	-0.14	0.050			
0.0190	1213.80	4.1710	4.1709	0.8506	25.04	-0.14	0.050			
0.0198	1268.45	4.1700	4.1700	0.8494	25.04	-0.14	0.050			
0.0207	1322.72	4.1690	4.1690	0.8505	25.04	-0.14	0.050			
0.0215	1377.33	4.1680	4.1681	0.8505	25.03	-0.15	0.050			
0.0224	1431.87	4.1670	4.1671	0.8503	25.04	-0.14	0.050			
0.0232	1486.38	4.1660	4.1660	0.8510	25.04	-0.14	0.050			
0.0241	1541.17	4.1650	4.1650	0.8516	25.04	-0.14	0.050			
0.0249	1596.14	4.1640	4.1640	0.8524	25.04	-0.14	0.050			
0.0258	1650.64	4.1630	4.1630	0.8533	25.04	-0.14	0.050			
0.0266	1705.31	4.1620	4.1620	0.8534	25.04	-0.14	0.050			
0.0275	1760.05	4.1610	4.1611	0.8536	25.04	-0.14	0.050			
0.0283	1814.24	4.1600	4.1601	0.8536	25.05	-0.13	0.050			
0.0292	1868.48	4.1590	4.1590	0.8538	25.06	-0.12	0.050			
0.0300	1923.00	4.1580	4.1581	0.8540	25.06	-0.12	0.050			
0.0309	1977.86	4.1570	4.1568	0.8540	25.06	-0.12	0.050			
0.0318	2032.74	4.1560	4.1560	0.8537	25.07	-0.11	0.050			
0.0326	2087.24	4.1550	4.1550	0.8539	25.08	-0.10	0.050			
0.0335	2141.53	4.1540	4.1539	0.8550	25.08	-0.10	0.050			
0.0343	2195.99	4.1530	4.1531	0.8551	25.08	-0.10	0.050			
0.0352	2250.83	4.1520	4.1520	0.8556	25.10	-0.08	0.050			
0.0360	2305.73	4.1510	4.1510	0.8566	25.10	-0.08	0.050			
0.0369	2360.97	4.1500	4.1501	0.8577	25.10	-0.08	0.050			
0.0377	2415.44	4.1490	4.1489	0.8615	25.11	-0.07	0.050			
0.0386	2470.01	4.1480	4.1480	0.8634	25.10	-0.08	0.050			
0.0395	2525.16	4.1470	4.1470	0.8664	25.11	-0.07	0.050			
0.0403	2580.60	4.1460	4.1459	0.8679	25.12	-0.06	0.050			
0.0412	2635.96	4.1450	4.1450	0.8695	25.12	-0.06	0.050			
0.0421	2691.52	4.1440	4.1441	0.8716	25.12	-0.06	0.050			
0.0429	2747.49	4.1430	4.1430	0.8734	25.12	-0.06	0.050			
0.0438	2803.87	4.1420	4.1420	0.8745	25.13	-0.05	0.050			
0.0447	2859.96	4.1410	4.1409	0.8753	25.14	-0.04	0.050			
0.0456	2916.38	4.1400	4.1399	0.8767	25.14	-0.04	0.050			
0.0465	2973.05	4.1390	4.1391	0.8771	25.14	-0.04	0.050			
0.0473	3029.79	4.1380	4.1380	0.8768	25.14	-0.04	0.050			
0.0482	3086.76	4.1370	4.1370	0.8781	25.14	-0.04	0.050			
0.0491	3143.22	4.1360	4.1360	0.8775	25.14	-0.04	0.050			
0.0500	3199.55	4.1350	4.1351	0.8761	25.14	-0.04	0.050			
0.0509	3255.62	4.1340	4.1341	0.8747	25.14	-0.04	0.050			
0.0517	3311.81	4.1330	4.1331	0.8738	25.14	-0.04	0.050			
0.0526	3367.64	4.1320	4.1320	0.8733	25.14	-0.04	0.050			
0.0535	3423.27	4.1310	4.1310	0.8722	25.14	-0.04	0.050			
0.0544	3478.53	4.1300	4.1300	0.8706	25.14	-0.04	0.050			
0.0552	3533.39	4.1290	4.1289	0.8672	25.14	-0.04	0.050			
0.0561	3588.61	4.1280	4.1279	0.8663	25.14	-0.04	0.050			
0.0569	3644.23	4.1270	4.1270	0.8664	25.14	-0.04	0.050			
0.0578	3699.60	4.1260	4.1260	0.8660	25.14	-0.04	0.050			
0.0587	3754.99	4.1250	4.1250	0.8664	25.13	-0.05	0.050			
0.0595	3810.16	4.1240	4.1240	0.8658	25.13	-0.05	0.050			
0.0604	3865.66	4.1230	4.1230	0.8665	25.13	-0.05	0.050			
0.0613	3921.18	4.1220	4.1219	0.8671	25.13	-0.05	0.050			
0.0621	3977.06	4.1210	4.1211	0.8668	25.13	-0.05	0.050			
0.0630	4032.45	4.1200	4.1200	0.8668	25.12	-0.06	0.050			
0.0639	4087.91	4.1190	4.1190	0.8676	25.12	-0.06	0.050			
0.0647	4143.51	4.1180	4.1180	0.8670	25.12	-0.06	0.050			
0.0656	4199.19	4.1170	4.1170	0.8664	25.12	-0.06	0.050			
0.0665	4254.68	4.1160	4.1160	0.8660	25.12	-0.06	0.050			
0.0673	4310.10	4.1150	4.1151	0.8661	25.12	-0.06	0.050			
0.0682	4365.61	4.1140	4.1140	0.8653	25.12	-0.06	0.050			
0.0691	4420.96	4.1130	4.1130	0.8641	25.12	-0.06	0.050			
0.0699	4476.27	4.1120	4.1121	0.8633	25.12	-0.06	0.050			
0.0708	4531.53	4.1110	4.1109	0.8632	25.12	-0.06	0.050			
0.0717	4586.48	4.1100	4.1100	0.8648	25.12	-0.06	0.050			
0.0725	4641.59	4.1090	4.1092	0.8649	25.12	-0.06	0.050			
0.0734	4696.95	4.1080	4.1080	0.8658	25.12	-0.06	0.050			
0.0742	4751.80	4.1070	4.1071	0.8667	25.12	-0.06	0.050			
0.0751	4807.02	4.1060	4.1060	0.8676	25.10	-0.08	0.050			
0.0760	4862.52	4.1050	4.1050	0.8671	25.11	-0.07	0.050			
0.0768	4918.14	4.1040	4.1039	0.8689	25.11	-0.07	0.050			
0.0777	4973.72	4.1030	4.1031	0.8693	25.11	-0.07	0.050			
0.0786	5029.35	4.1020	4.1020	0.8703	25.10	-0.08	0.050			
0.0795	5085.47	4.1010	4.1009	0.8713	25.10	-0.08	0.050			
0.0803	5141.55	4.1000	4.1000	0.8712	25.10	-0.08	0.050	0.262	0.516	
0.0812	5196.96	4.0990	4.0989	0.8724	25.10	-0.08	0.050			
0.0821	5253.17	4.0980	4.0981	0.8731	25.10	-0.08	0.050			
0.0830	5309.02	4.0970	4.0971	0.8753	25.10	-0.08	0.050			
0.0838	5365.19	4.0960	4.0961	0.8767	25.10	-0.08	0.050			
0.0847	5421.23	4.0950	4.0950	0.8771	25.10	-0.08	0.050			
0.0856	5477.72	4.0940	4.0940	0.8781	25.10	-0.08	0.050			
0.0865	5533.87	4.0930	4.0930	0.8782	25.10	-0.08	0.050			
0.0873	5590.10	4.0920	4.0920	0.8787	25.10	-0.08	0.050			
0.0882	5645.64	4.0910	4.0910	0.8796	25.10	-0.08	0.050			
0.0891	5701.76	4.0900	4.0900	0.8789	25.10	-0.08	0.050			
0.0900	5758.09	4.0890	4.0891	0.8812	25.10	-0.08	0.050			
0.0909	5814.99	4.0880	4.0879	0.8805	25.10	-0.08	0.050			
0.0917	5871.37	4.0870	4.0870	0.8812	25.10	-0.08	0.050			
0.0926	5927.60	4.0860	4.0860	0.8828	25.10	-0.08	0.050			
0.0935	5984.92	4.0850	4.0850	0.8837	25.10	-0.08	0.050			
0.0944	6041.36	4.0840	4.0839	0.8841	25.10	-0.08	0.050			
0.0953	6097.97	4.0830	4.0830	0.8841	25.10	-0.08	0.050			
0.0962	6154.62	4.0820	4.0820	0.8850	25.10	-0.08	0.050			
0.0971	6211.40	4.0810	4.0811	0.8858	25.11	-0.07	0.050			
0.0979	6268.08	4.0800	4.0801	0.8857	25.11	-0.07	0.050			
0.0988	6324.36	4.0790	4.0791	0.8870	25.10	-0.08	0.050			
0.0997	6380.95	4.0780	4.0779	0.8863	25.11	-0.07	0.050			
0.1006	6437.67	4.0770	4.0771	0.8867	25.10	-0.08	0.050			
0.1015	6494.40	4.0760	4.0761	0.8870	25.11	-0.07	0.050			
0.1024	6551.49	4.0750	4.0749	0.8885	25.12	-0.06	0.050			
0.1033	6608.46	4.0740	4.0740	0.8888	25.12	-0.06	0.050			
0.1041	6664.89	4.0730	4.0729	0.8899	25.12	-0.06	0.050			
0.1050	6722.07	4.0720	4.0721	0.8907	25.12	-0.06	0.050			
0.1059	6778.76	4.0710	4.0710	0.8907	25.12	-0.06	0.050			
0.1068	6836.14	4.0700	4.0700	0.8916	25.12	-0.06	0.050			
0.1077	6893.55	4.0690	4.0690	0.8928	25.12	-0.06	0.050			
0.1086	6950.98	4.0680	4.0680	0.8939	25.13	-0.05	0.050			
0.1095	7007.96	4.0670	4.0669	0.8941	25.13	-0.05	0.050			
0.1104	7065.03	4.0660	4.0660	0.8936	25.13	-0.05	0.050			
0.1113	7122.51	4.0650	4.0650	0.8951	25.12	-0.06	0.050			
0.1122	7179.83	4.0640	4.0639	0.8960	25.13	-0.05	0.050			
0.1131	7236.85	4.0630	4.0631	0.8964	25.13	-0.05	0.050			
0.1140	7293.99	4.0620	4.0620	0.8966	25.12	-0.06	0.050			
0.1149	7351.56	4.0610	4.0610	0.8972	25.13	-0.05	0.050			
0.1158	7408.99	4.0600	4.0600	0.8974	25.13	-0.05	0.050			
0.1167	7466.31	4.0590	4.0589	0.8976	25.13	-0.05	0.050			
0.1176	7524.10	4.0580	4.0580	0.8985	25.13	-0.05	0.050			
0.1185	7581.62	4.0570	4.0570	0.9000	25.14	-0.04	0.050			
0.1194	7639.30	4.0560	4.0560	0.8995	25.12	-0.06	0.050			
0.1203	7697.04	4.0550	4.0551	0.9002	25.14	-0.04	0.050	0.216	0.393	
0.1212	7754.39	4.0540	4.0540	0.9007	25.13	-0.05	0.050			
0.1221	7811.80	4.0530	4.0531	0.9005	25.13	-0.05	0.050			
0.1230	7869.20	4.0520	4.0520	0.9023	25.14	-0.04	0.050			
0.1239	7927.06	4.0510	4.0510	0.9044	25.13	-0.05	0.050			
0.1248	7985.35	4.0500	4.0500	0.9042	25.13	-0.05	0.050			
0.1257	8043.23	4.0490	4.0490	0.9046	25.14	-0.04	0.050			
0.1266	8101.18	4.0480	4.0478	0.9058	25.14	-0.04	0.050			
0.1275	8159.02	4.0470	4.0471	0.9061	25.14	-0.04	0.050			
0.1284	8217.02	4.0460	4.0459	0.9077	25.12	-0.06	0.050			
0.1293	8275.09	4.0450	4.0451	0.9076	25.13	-0.05	0.050			
0.1302	8332.93	4.0440	4.0441	0.9077	25.12	-0.06	0.050			
0.1311	8391.35	4.0430	4.0431	0.9089	25.12	-0.06	0.050			
0.1320	8449.71	4.0420	4.0421	0.9113	25.12	-0.06	0.050			
0.1329	8507.77	4.0410	4.0411	0.9127	25.12	-0.06	0.050			
0.1338	8566.16	4.0400	4.0399	0.9141	25.12	-0.06	0.050			
0.1348	8624.78	4.0390	4.0390	0.9148	25.12	-0.06	0.050			
0.1357	8683.34	4.0380	4.0381	0.9162	25.12	-0.06	0.050			
0.1366	8741.80	4.0370	4.0370	0.9169	25.12	-0.06	0.050			
0.1375	8800.34	4.0360	4.0361	0.9192	25.12	-0.06	0.050			
0.1384	8858.97	4.0350	4.0349	0.9212	25.12	-0.06	0.050			
0.1393	8917.81	4.0340	4.0340	0.9223	25.12	-0.06	0.050			
0.1403	8976.86	4.0330	4.0331	0.9251	25.11	-0.07	0.050	0.322	0.432	
0.1412	9036.09	4.0320	4.0321	0.9260	25.11	-0.07	0.050			
0.1421	9095.51	4.0310	4.0310	0.9291	25.10	-0.08	0.050			
0.1430	9155.13	4.0300	4.0300	0.9318	25.10	-0.08	0.050			
0.1440	9215.25	4.0290	4.0290	0.9326	25.10	-0.08	0.050			
0.1449	9275.12	4.0280	4.0280	0.9340	25.10	-0.08	0.050			
0.1459	9335.50	4.0270	4.0269	0.9344	25.10	-0.08	0.050			
0.1468	9395.40	4.0260	4.0260	0.9349	25.08	-0.10	0.050			
0.1477	9455.98	4.0250	4.0250	0.9357	25.08	-0.10	0.050			
0.1487	9516.06	4.0240	4.0241	0.9346	25.08	-0.10	0.050			
0.1496	9576.22	4.0230	4.0229	0.9339	25.07	-0.11	0.050			
0.1506	9636.10	4.0220	4.0219	0.9333	25.06	-0.12	0.050			
0.1515	9695.73	4.0210	4.0210	0.9329	25.06	-0.12	0.050			
0.1524	9755.33	4.0200	4.0201	0.9332	25.05	-0.13	0.050			
0.1534	9815.10	4.0190	4.0190	0.9326	25.05	-0.13	0.050			
0.1543	9874.35	4.0180	4.0180	0.9328	25.04	-0.14	0.050			
0.1552	9933.95	4.0170	4.0169	0.9318	25.04	-0.14	0.050			
0.1561	9993.00	4.0160	4.0160	0.9316	25.04	-0.14	0.050			
0.1571	10052.43	4.0150	4.0149	0.9312	25.04	-0.14	0.050			
0.1580	10111.76	4.0140	4.0140	0.9316	25.04	-0.14	0.050			
0.1589	10171.13	4.0130	4.0130	0.9319	25.04	-0.14	0.050			
0.1599	10230.70	4.0120	4.0121	0.9336	25.04	-0.14	0.050	-0.217	0.471	
0.1608	10289.09	4.0110	4.0110	0.9375	25.04	-0.14	0.050			
0.1617	10348.83	4.0100	4.0100	0.9416	25.05	-0.13	0.050			
0.1626	10408.96	4.0090	4.0090	0.9464	25.06	-0.12	0.050			
0.1636	10469.63	4.0080	4.0080	0.9500	25.06	-0.12	0.050			
0.1645	10530.52	4.0070	4.0069	0.9542	25.06	-0.12	0.050			
0.1655	10591.79	4.0060	4.0060	0.9569	25.07	-0.11	0.050			
0.1665	10653.55	4.0050	4.0048	0.9603	25.08	-0.10	0.050			
0.1674	10716.01	4.0040	4.0039	0.9618	25.08	-0.10	0.050			
0.1684	10778.01	4.0030	4.0029	0.9636	25.08	-0.10	0.050			
0.1694	10840.35	4.0020	4.0019	0.9643	25.09	-0.09	0.050			
0.1703	10902.05	4.0010	4.0011	0.9650	25.10	-0.08	0.050			
0.1713	10964.72	4.0000	4.0001	0.9667	25.10	-0.08	0.050			
0.1723	11027.12	3.9990	3.9989	0.9677	25.12	-0.06	0.050			
0.1733	11089.62	3.9980	3.9979	0.9680	25.12	-0.06	0.050			
0.1742	11151.85	3.9970	3.9970	0.9675	25.12	-0.06	0.050			
0.1752	11213.99	3.9960	3.9961	0.9684	25.13	-0.05	0.050			
0.1762	11276.08	3.9950	3.9950	0.9675	25.14	-0.04	0.050			
0.1772	11337.78	3.9940	3.9940	0.9671	25.14	-0.04	0.050			
0.1781	11399.22	3.9930	3.9930	0.9654	25.14	-0.04	0.050			
0.1791	11460.45	3.9920	3.9920	0.9636	25.14	-0.04	0.050			
0.1800	11521.44	3.9910	3.9909	0.9604	25.14	-0.04	0.050			
0.1810	11582.40	3.9900	3.9900	0.9608	25.14	-0.04	0.050			
0.1819	11644.37	3.9890	3.9891	0.9620	25.14	-0.04	0.050			
0.1829	11705.91	3.9880	3.9879	0.9626	25.14	-0.04	0.050			
0.1839	11767.21	3.9870	3.9870	0.9642	25.14	-0.04	0.050			
0.1848	11829.03	3.9860	3.9860	0.9659	25.14	-0.04	0.050			
0.1858	11892.20	3.9850	3.9850	0.9634	25.13	-0.05	0.050			
0.1868	11954.70	3.9840	3.9841	0.9621	25.12	-0.06	0.050			
0.1878	12016.56	3.9830	3.9830	0.9601	25.12	-0.06	0.050			
0.1887	12078.29	3.9820	3.9820	0.9572	25.12	-0.06	0.050			
0.1897	12139.82	3.9810	3.9809	0.9543	25.12	-0.06	0.050			
0.1906	12200.89	3.9800	3.9801	0.9522	25.12	-0.06	0.050			
0.1916	12260.86	3.9790	3.9790	0.9526	25.11	-0.07	0.050			
0.1925	12321.04	3.9780	3.9781	0.9534	25.11	-0.07	0.050			
0.1935	12381.63	3.9770	3.9772	0.9539	25.11	-0.07	0.050			
0.1944	12441.50	3.9760	3.9762	0.9542	25.11	-0.07	0.050			
0.1953	12502.36	3.9750	3.9749	0.9551	25.10	-0.08	0.050			
0.1963	12562.87	3.9740	3.9740	0.9563	25.10	-0.08	0.050			
0.1972	12623.48	3.9730	3.9729	0.9585	25.10	-0.08	0.050			
0.1982	12684.33	3.9720	3.9720	0.9626	25.10	-0.08	0.050			
0.1992	12745.62	3.9710	3.9708	0.9641	25.10	-0.08	0.050			
0.2001	12807.14	3.9700	3.9700	0.9678	25.10	-0.08	0.050	0.439	0.476	
0.2011	12869.32	3.9690	3.9689	0.9695	25.10	-0.08	0.050			
0.2021	12931.45	3.9680	3.9680	0.9734	25.10	-0.08	0.050			
0.2030	12994.48	3.9670	3.9670	0.9755	25.10	-0.08	0.050			
0.2040	13057.85	3.9660	3.9660	0.9796	25.10	-0.08	0.050			
0.2050	13122.31	3.9650	3.9650	0.9851	25.10	-0.08	0.050			
0.2060	13186.32	3.9640	3.9639	0.9857	25.10	-0.08	0.050			
0.2070	13249.50	3.9630	3.9630	0.9860	25.10	-0.08	0.050			
0.2080	13313.09	3.9620	3.9620	0.9854	25.10	-0.08	0.050			
0.2090	13376.63	3.9610	3.9610	0.9844	25.10	-0.08	0.050			
0.2100	13439.62	3.9600	3.9601	0.9821	25.10	-0.08	0.050			
0.2110	13501.04	3.9590	3.9590	0.9821	25.10	-0.08	0.050			
0.2119	13563.56	3.9580	3.9581	0.9833	25.10	-0.08	0.050			
0.2129	13626.09	3.9570	3.9570	0.9850	25.10	-0.08	0.050			
0.2139	13688.86	3.9560	3.9560	0.9862	25.10	-0.08	0.050			
0.2149	13751.79	3.9550	3.9551	0.9879	25.10	-0.08	0.050			
0.2159	13814.64	3.9540	3.9539	0.9882	25.10	-0.08	0.050			
0.2168	13877.89	3.9530	3.9531	0.9892	25.10	-0.08	0.050			
0.2178	13940.84	3.9520	3.9520	0.9902	25.10	-0.08	0.050			
0.2188	14004.37	3.9510	3.9509	0.9933	25.10	-0.08	0.050			
0.2198	14067.69	3.9500	3.9499	0.9968	25.10	-0.08	0.050			
0.2208	14131.88	3.9490	3.9490	0.9989	25.10	-0.08	0.050			
0.2218	14195.83	3.9480	3.9482	1.0012	25.10	-0.08	0.050			
0.2228	14260.47	3.9470	3.9471	1.0031	25.10	-0.08	0.050			
0.2238	14324.87	3.9460	3.9461	1.0043	25.10	-0.08	0.050			
0.2248	14389.89	3.9450	3.9450	1.0046	25.10	-0.08	0.050			
0.2259	14454.90	3.9440	3.9440	1.0052	25.10	-0.08	0.050			
0.2269	14519.46	3.9430	3.9430	1.0060	25.10	-0.08	0.050			
0.2279	14584.54	3.9420	3.9418	1.0074	25.10	-0.08	0.050			
0.2289	14649.24	3.9410	3.9410	1.0070	25.11	-0.07	0.050			
0.2299	14713.31	3.9400	3.9400	1.0057	25.10	-0.08	0.050			
0.2309	14776.41	3.9390	3.9390	1.0047	25.10	-0.08	0.050			
0.2319	14840.59	3.9380	3.9380	1.0050	25.10	-0.08	0.050			
0.2329	14904.99	3.9370	3.9369	1.0074	25.10	-0.08	0.050			
0.2339	14969.46	3.9360	3.9359	1.0089	25.11	-0.07	0.050			
0.2349	15033.80	3.9350	3.9350	1.0102	25.11	-0.07	0.050			
0.2359	15098.21	3.9340	3.9339	1.0120	25.11	-0.07	0.050			
0.2369	15162.95	3.9330	3.9331	1.0138	25.12	-0.06	0.050			
0.2379	15227.25	3.9320	3.9319	1.0146	25.12	-0.06	0.050			
0.2389	15291.97	3.9310	3.9310	1.0149	25.12	-0.06	0.050			
0.2400	15357.36	3.9300	3.9300	1.0164	25.12	-0.06	0.050			
0.2410	15422.94	3.9290	3.9290	1.0194	25.12	-0.06	0.050			
0.2420	15488.66	3.9280	3.9279	1.0203	25.12	-0.06	0.050			
0.2430	15554.49	3.9270	3.9270	1.0218	25.12	-0.06	0.050			
0.2441	15620.20	3.9260	3.9259	1.0217	25.12	-0.06	0.050			
0.2451	15686.26	3.9250	3.9250	1.0229	25.12	-0.06	0.050			
0.2461	15751.67	3.9240	3.9239	1.0233	25.12	-0.06	0.050			
0.2471	15817.29	3.9230	3.9229	1.0226	25.12	-0.06	0.050			
0.2482	15883.01	3.9220	3.9220	1.0219	25.12	-0.06	0.050			
0.2492	15948.39	3.9210	3.9209	1.0219	25.12	-0.06	0.050			
0.2502	16013.52	3.9200	3.9199	1.0215	25.12	-0.06	0.050			
0.2512	16078.65	3.9190	3.9190	1.0205	25.12	-0.06	0.050			
0.2522	16143.84	3.9180	3.9179	1.0212	25.12	-0.06	0.050			
0.2533	16208.88	3.9170	3.9170	1.0214	25.12	-0.06	0.050			
0.2543	16273.96	3.9160	3.9160	1.0218	25.12	-0.06	0.050			
0.2553	16338.90	3.9150	3.9150	1.0222	25.12	-0.06	0.050			
0.2563	16404.12	3.9140	3.9140	1.0236	25.12	-0.06	0.050			
0.2573	16469.68	3.9130	3.9130	1.0244	25.12	-0.06	0.050			
0.2584	16535.32	3.9120	3.9119	1.0254	25.12	-0.06	0.050			
0.2594	16601.25	3.9110	3.9110	1.0268	25.12	-0.06	0.050			
0.2604	16666.96	3.9100	3.9099	1.0283	25.12	-0.06	0.050	0.232	0.491	
0.2615	16732.95	3.9090	3.9089	1.0290	25.12	-0.06	0.050			
0.2625	16799.11	3.9080	3.9081	1.0300	25.12	-0.06	0.050			
0.2635	16865.17	3.9070	3.9070	1.0301	25.12	-0.06	0.050			
0.2645	16931.09	3.9060	3.9060	1.0315	25.12	-0.06	0.050			
0.2656	16996.96	3.9050	3.9052	1.0328	25.12	-0.06	0.050			
0.2666	17063.22	3.9040	3.9040	1.0343	25.12	-0.06	0.050			
0.2677	17129.72	3.9030	3.9030	1.0347	25.13	-0.05	0.050			
0.2687	17196.23	3.9020	3.9021	1.0336	25.12	-0.06	0.050			
0.2697	17261.63	3.9010	3.9009	1.0357	25.12	-0.06	0.050			
0.2707	17326.63	3.9000	3.9001	1.0404	25.12	-0.06	0.050			
0.2718	17392.99	3.8990	3.8990	1.0448	25.12	-0.06	0.050			
0.2728	17459.03	3.8980	3.8980	1.0481	25.11	-0.07	0.050			
0.2738	17525.90	3.8970	3.8970	1.0512	25.10	-0.08	0.050			
0.2749	17593.58	3.8960	3.8960	1.0541	25.10	-0.08	0.050			
0.2760	17661.14	3.8950	3.8951	1.0571	25.10	-0.08	0.050			
0.2770	17729.16	3.8940	3.8940	1.0603	25.10	-0.08	0.050			
0.2781	17797.34	3.8930	3.8930	1.0636	25.09	-0.09	0.050			
0.2792	17865.84	3.8920	3.8916	1.0670	25.08	-0.10	0.050			
0.2802	17935.18	3.8910	3.8908	1.0681	25.08	-0.10	0.050			
0.2813	18004.13	3.8900	3.8902	1.0694	25.08	-0.10	0.050			
0.2824	18073.24	3.8890	3.8891	1.0715	25.06	-0.12	0.050			
0.2835	18142.54	3.8880	3.8881	1.0728	25.06	-0.12	0.050			
0.2846	18211.64	3.8870	3.8870	1.0730	25.06	-0.12	0.050			
0.2856	18280.66	3.8860	3.8860	1.0722	25.04	-0.14	0.050			
0.2867	18349.85	3.8850	3.8849	1.0719	25.04	-0.14	0.050			
0.2878	18418.94	3.8840	3.8840	1.0709	25.04	-0.14	0.050			
0.2889	18487.68	3.8830	3.8830	1.0695	25.03	-0.15	0.050			
0.2899	18555.43	3.8820	3.8820	1.0681	25.02	-0.16	0.050			
0.2910	18622.12	3.8810	3.8810	1.0637	25.02	-0.16	0.050			
0.2920	18689.34	3.8800	3.8799	1.0617	25.03	-0.15	0.050			
0.2931	18756.98	3.8790	3.8791	1.0641	25.04	-0.14	0.050			
0.2941	18825.13	3.8780	3.8780	1.0667	25.04	-0.14	0.050			
0.2952	18893.76	3.8770	3.8770	1.0673	25.04	-0.14	0.050			
0.2963	18962.11	3.8760	3.8760	1.0684	25.04	-0.14	0.050			
0.2974	19030.41	3.8750	3.8749	1.0677	25.06	-0.12	0.050			
0.2984	19098.57	3.8740	3.8739	1.0687	25.06	-0.12	0.050			
0.2995	19167.30	3.8730	3.8730	1.0692	25.06	-0.12	0.050			
0.3006	19235.86	3.8720	3.8720	1.0698	25.07	-0.11	0.050	0.391	0.486	
0.3016	19304.84	3.8710	3.8710	1.0714	25.08	-0.10	0.050			
0.3027	19373.59	3.8700	3.8699	1.0718	25.10	-0.08	0.050			
0.3038	19441.93	3.8690	3.8691	1.0711	25.10	-0.08	0.050			
0.3049	19510.83	3.8680	3.8680	1.0719	25.11	-0.07	0.050			
0.3059	19579.79	3.8670	3.8670	1.0723	25.10	-0.08	0.050			
0.3070	19648.11	3.8660	3.8660	1.0734	25.12	-0.06	0.050			
0.3081	19716.95	3.8650	3.8650	1.0737	25.13	-0.05	0.050			
0.3091	19785.45	3.8640	3.8639	1.0741	25.12	-0.06	0.050			
0.3102	19853.93	3.8630	3.8631	1.0747	25.13	-0.05	0.050			
0.3113	19921.98	3.8620	3.8621	1.0754	25.14	-0.04	0.050			
0.3124	19990.65	3.8610	3.8610	1.0763	25.14	-0.04	0.050			
0.3134	20059.08	3.8600	3.8600	1.0783	25.14	-0.04	0.050			
0.3145	20127.58	3.8590	3.8589	1.0804	25.14	-0.04	0.050			
0.3156	20196.58	3.8580	3.8580	1.0842	25.14	-0.04	0.050			
