Ah_balance (normalized)	Ah_balance (mAh)	Voltage - fit (V)	Voltage -  interpolate (V)	dQ/dV (1/V)	Temperature (°C)	Temperature - diff (°C)	Current (C)	R_DC 0ms (mOhm)	R_DC 50ms (mOhm)	R_DC 50 ms PEC (mOhm)
-0.0255	-1629.30	4.1990	4.1989	0.8162	25.56	-0.10	0.050			
-0.0246	-1576.98	4.1980	4.1980	0.8204	25.56	-0.10	0.050			
-0.0238	-1524.34	4.1970	4.1970	0.8234	25.56	-0.10	0.050			
-0.0230	-1471.21	4.1960	4.1960	0.8269	25.56	-0.10	0.050	0.339	0.490	
-0.0222	-1418.44	4.1950	4.1951	0.8264	25.56	-0.10	0.050			
-0.0213	-1365.36	4.1940	4.1941	0.8269	25.56	-0.10	0.050			
-0.0205	-1312.24	4.1930	4.1929	0.8268	25.56	-0.10	0.050			
-0.0197	-1259.32	4.1920	4.1920	0.8263	25.56	-0.10	0.050			
-0.0189	-1206.48	4.1910	4.1911	0.8258	25.56	-0.10	0.050			
-0.0180	-1153.47	4.1900	4.1900	0.8249	25.56	-0.10	0.050			
-0.0172	-1100.86	4.1890	4.1890	0.8247	25.55	-0.11	0.050			
-0.0164	-1047.95	4.1880	4.1879	0.8255	25.54	-0.12	0.050			
-0.0155	-995.17	4.1870	4.1870	0.8250	25.54	-0.12	0.050			
-0.0147	-941.93	4.1860	4.1859	0.8241	25.53	-0.13	0.050			
-0.0139	-890.08	4.1850	4.1851	0.8237	25.52	-0.14	0.050			
-0.0131	-837.51	4.1840	4.1840	0.8236	25.52	-0.14	0.050			
-0.0123	-784.96	4.1830	4.1829	0.8237	25.52	-0.14	0.050			
-0.0114	-732.06	4.1820	4.1820	0.8237	25.52	-0.14	0.050			
-0.0106	-679.64	4.1810	4.1810	0.8239	25.51	-0.15	0.050			
-0.0098	-627.31	4.1800	4.1799	0.8254	25.51	-0.15	0.050			
-0.0090	-574.45	4.1790	4.1789	0.8263	25.52	-0.14	0.050			
-0.0081	-521.34	4.1780	4.1781	0.8275	25.51	-0.15	0.050			
-0.0073	-468.32	4.1770	4.1769	0.8280	25.51	-0.15	0.050			
-0.0065	-415.26	4.1760	4.1759	0.8292	25.52	-0.14	0.050			
-0.0057	-362.31	4.1750	4.1750	0.8299	25.52	-0.14	0.050			
-0.0048	-308.54	4.1740	4.1740	0.8289	25.52	-0.14	0.050			
-0.0040	-255.31	4.1730	4.1730	0.8303	25.52	-0.14	0.050			
-0.0032	-202.04	4.1720	4.1719	0.8304	25.54	-0.12	0.050	0.397	0.509	
-0.0023	-148.91	4.1710	4.1710	0.8303	25.54	-0.12	0.050			
-0.0015	-95.79	4.1700	4.1701	0.8313	25.54	-0.12	0.050			
-0.0007	-42.72	4.1690	4.1691	0.8315	25.54	-0.12	0.050			
0.0002	10.70	4.1680	4.1680	0.8307	25.54	-0.12	0.050			
0.0010	63.71	4.1670	4.1670	0.8318	25.54	-0.12	0.050			
0.0018	117.24	4.1660	4.1661	0.8320	25.55	-0.11	0.050			
0.0027	170.03	4.1650	4.1651	0.8315	25.55	-0.11	0.050			
0.0035	223.38	4.1640	4.1640	0.8312	25.56	-0.10	0.050			
0.0043	276.80	4.1630	4.1631	0.8316	25.56	-0.10	0.050			
0.0052	329.77	4.1620	4.1620	0.8330	25.56	-0.10	0.050			
0.0060	382.93	4.1610	4.1611	0.8331	25.56	-0.10	0.050			
0.0068	435.77	4.1600	4.1599	0.8330	25.56	-0.10	0.050			
0.0076	489.29	4.1590	4.1591	0.8333	25.56	-0.10	0.050			
0.0085	543.30	4.1580	4.1579	0.8330	25.56	-0.10	0.050			
0.0093	596.63	4.1570	4.1570	0.8332	25.56	-0.10	0.050			
0.0102	650.04	4.1560	4.1560	0.8337	25.56	-0.10	0.050			
0.0110	703.66	4.1550	4.1550	0.8328	25.56	-0.10	0.050			
0.0118	757.27	4.1540	4.1541	0.8342	25.54	-0.12	0.050			
0.0127	810.17	4.1530	4.1530	0.8349	25.54	-0.12	0.050			
0.0135	863.33	4.1520	4.1521	0.8338	25.54	-0.12	0.050			
0.0143	916.46	4.1510	4.1510	0.8351	25.54	-0.12	0.050			
0.0151	969.47	4.1500	4.1501	0.8372	25.54	-0.12	0.050			
0.0160	1023.04	4.1490	4.1490	0.8373	25.52	-0.14	0.050			
0.0168	1076.71	4.1480	4.1479	0.8390	25.52	-0.14	0.050	0.285	0.371	
0.0177	1130.25	4.1470	4.1470	0.8395	25.52	-0.14	0.050			
0.0185	1183.89	4.1460	4.1460	0.8406	25.52	-0.14	0.050			
0.0193	1238.14	4.1450	4.1450	0.8408	25.52	-0.14	0.050			
0.0202	1292.24	4.1440	4.1441	0.8405	25.52	-0.14	0.050			
0.0210	1346.26	4.1430	4.1430	0.8415	25.52	-0.14	0.050			
0.0219	1399.63	4.1420	4.1419	0.8422	25.51	-0.15	0.050			
0.0227	1453.69	4.1410	4.1411	0.8436	25.52	-0.14	0.050			
0.0236	1508.10	4.1400	4.1401	0.8446	25.52	-0.14	0.050			
0.0244	1562.94	4.1390	4.1391	0.8452	25.51	-0.15	0.050			
0.0253	1617.04	4.1380	4.1380	0.8454	25.52	-0.14	0.050			
0.0261	1671.47	4.1370	4.1370	0.8456	25.52	-0.14	0.050			
0.0270	1725.34	4.1360	4.1360	0.8446	25.52	-0.14	0.050			
0.0278	1779.25	4.1350	4.1349	0.8443	25.52	-0.14	0.050			
0.0286	1833.30	4.1340	4.1339	0.8442	25.52	-0.14	0.050			
0.0295	1887.04	4.1330	4.1329	0.8424	25.52	-0.14	0.050			
0.0303	1941.08	4.1320	4.1320	0.8419	25.52	-0.14	0.050			
0.0312	1994.90	4.1310	4.1310	0.8416	25.52	-0.14	0.050			
0.0320	2048.37	4.1300	4.1299	0.8415	25.51	-0.15	0.050			
0.0328	2102.06	4.1290	4.1289	0.8423	25.52	-0.14	0.050			
0.0337	2156.53	4.1280	4.1281	0.8421	25.52	-0.14	0.050			
0.0345	2210.33	4.1270	4.1270	0.8418	25.52	-0.14	0.050			
0.0354	2264.35	4.1260	4.1260	0.8423	25.51	-0.15	0.050			
0.0362	2318.12	4.1250	4.1251	0.8425	25.50	-0.16	0.050			
0.0371	2371.90	4.1240	4.1239	0.8425	25.50	-0.16	0.050	0.404	0.496	
0.0379	2425.58	4.1230	4.1231	0.8423	25.50	-0.16	0.050			
0.0387	2479.21	4.1220	4.1219	0.8419	25.49	-0.17	0.050			
0.0396	2533.11	4.1210	4.1210	0.8431	25.48	-0.18	0.050			
0.0404	2587.27	4.1200	4.1201	0.8440	25.48	-0.18	0.050			
0.0413	2641.61	4.1190	4.1191	0.8443	25.48	-0.18	0.050			
0.0421	2695.60	4.1180	4.1179	0.8436	25.48	-0.18	0.050			
0.0430	2749.46	4.1170	4.1169	0.8439	25.48	-0.18	0.050			
0.0438	2803.67	4.1160	4.1160	0.8443	25.47	-0.19	0.050			
0.0446	2857.52	4.1150	4.1150	0.8446	25.48	-0.18	0.050			
0.0455	2911.61	4.1140	4.1140	0.8452	25.48	-0.18	0.050			
0.0463	2966.08	4.1130	4.1130	0.8456	25.48	-0.18	0.050			
0.0472	3020.45	4.1120	4.1121	0.8463	25.48	-0.18	0.050			
0.0480	3074.30	4.1110	4.1110	0.8460	25.48	-0.18	0.050			
0.0489	3128.26	4.1100	4.1099	0.8457	25.49	-0.17	0.050			
0.0497	3182.40	4.1090	4.1090	0.8469	25.50	-0.16	0.050			
0.0506	3236.55	4.1080	4.1080	0.8473	25.50	-0.16	0.050			
0.0514	3290.62	4.1070	4.1070	0.8481	25.51	-0.15	0.050			
0.0523	3344.58	4.1060	4.1060	0.8486	25.52	-0.14	0.050			
0.0531	3398.74	4.1050	4.1050	0.8501	25.53	-0.13	0.050			
0.0540	3453.19	4.1040	4.1040	0.8506	25.53	-0.13	0.050			
0.0548	3507.73	4.1030	4.1031	0.8518	25.55	-0.11	0.050			
0.0557	3561.97	4.1020	4.1020	0.8533	25.56	-0.10	0.050			
0.0565	3617.03	4.1010	4.1011	0.8546	25.56	-0.10	0.050			
0.0574	3671.77	4.1000	4.0999	0.8547	25.56	-0.10	0.050	0.302	0.444	
0.0582	3727.14	4.0990	4.0991	0.8550	25.58	-0.08	0.050			
0.0591	3782.35	4.0980	4.0981	0.8549	25.59	-0.07	0.050			
0.0600	3836.92	4.0970	4.0970	0.8548	25.60	-0.06	0.050			
0.0608	3891.51	4.0960	4.0960	0.8557	25.60	-0.06	0.050			
0.0617	3946.32	4.0950	4.0951	0.8552	25.61	-0.05	0.050			
0.0625	4000.91	4.0940	4.0940	0.8560	25.62	-0.04	0.050			
0.0634	4055.92	4.0930	4.0930	0.8568	25.62	-0.04	0.050			
0.0642	4110.68	4.0920	4.0921	0.8567	25.62	-0.04	0.050			
0.0651	4165.29	4.0910	4.0910	0.8564	25.62	-0.04	0.050			
0.0659	4220.12	4.0900	4.0900	0.8575	25.61	-0.05	0.050			
0.0668	4274.55	4.0890	4.0889	0.8581	25.60	-0.06	0.050			
0.0676	4329.43	4.0880	4.0880	0.8579	25.60	-0.06	0.050			
0.0685	4384.27	4.0870	4.0870	0.8584	25.60	-0.06	0.050			
0.0694	4439.07	4.0860	4.0860	0.8586	25.59	-0.07	0.050			
0.0702	4494.15	4.0850	4.0850	0.8593	25.58	-0.08	0.050			
0.0711	4549.25	4.0840	4.0840	0.8604	25.56	-0.10	0.050			
0.0719	4604.39	4.0830	4.0830	0.8616	25.56	-0.10	0.050			
0.0728	4659.58	4.0820	4.0820	0.8616	25.56	-0.10	0.050			
0.0737	4714.94	4.0810	4.0810	0.8631	25.54	-0.12	0.050			
0.0745	4770.61	4.0800	4.0800	0.8641	25.54	-0.12	0.050			
0.0754	4826.17	4.0790	4.0791	0.8644	25.54	-0.12	0.050			
0.0763	4881.37	4.0780	4.0779	0.8647	25.53	-0.13	0.050			
0.0771	4936.44	4.0770	4.0770	0.8641	25.52	-0.14	0.050	0.306	0.505	
0.0780	4991.70	4.0760	4.0760	0.8643	25.51	-0.15	0.050			
0.0789	5046.93	4.0750	4.0750	0.8648	25.49	-0.17	0.050			
0.0797	5102.33	4.0740	4.0740	0.8652	25.48	-0.18	0.050			
0.0806	5158.25	4.0730	4.0730	0.8633	25.48	-0.18	0.050			
0.0815	5213.69	4.0720	4.0719	0.8632	25.47	-0.19	0.050			
0.0823	5269.07	4.0710	4.0710	0.8624	25.46	-0.20	0.050			
0.0832	5324.34	4.0700	4.0700	0.8609	25.46	-0.20	0.050			
0.0841	5379.62	4.0690	4.0690	0.8599	25.45	-0.21	0.050			
0.0849	5434.81	4.0680	4.0680	0.8601	25.44	-0.22	0.050			
0.0858	5489.77	4.0670	4.0670	0.8594	25.43	-0.23	0.050			
0.0866	5544.43	4.0660	4.0660	0.8589	25.42	-0.24	0.050			
0.0875	5599.00	4.0650	4.0651	0.8589	25.41	-0.25	0.050			
0.0883	5653.82	4.0640	4.0641	0.8581	25.40	-0.26	0.050			
0.0892	5708.56	4.0630	4.0630	0.8587	25.40	-0.26	0.050			
0.0900	5763.10	4.0620	4.0619	0.8593	25.39	-0.27	0.050			
0.0909	5817.63	4.0610	4.0610	0.8598	25.37	-0.29	0.050			
0.0918	5872.42	4.0600	4.0600	0.8610	25.36	-0.30	0.050			
0.0926	5927.44	4.0590	4.0590	0.8628	25.36	-0.30	0.050			
0.0935	5982.41	4.0580	4.0580	0.8631	25.36	-0.30	0.050			
0.0943	6037.56	4.0570	4.0570	0.8646	25.35	-0.31	0.050			
0.0952	6092.82	4.0560	4.0561	0.8668	25.34	-0.32	0.050			
0.0961	6148.49	4.0550	4.0551	0.8687	25.34	-0.32	0.050			
0.0969	6204.30	4.0540	4.0541	0.8711	25.34	-0.32	0.050	0.319	0.413	
0.0978	6260.86	4.0530	4.0530	0.8738	25.34	-0.32	0.050			
0.0987	6316.92	4.0520	4.0519	0.8750	25.33	-0.33	0.050			
0.0996	6372.85	4.0510	4.0510	0.8762	25.34	-0.32	0.050			
0.1005	6429.38	4.0500	4.0500	0.8775	25.32	-0.34	0.050			
0.1013	6485.49	4.0490	4.0491	0.8789	25.33	-0.33	0.050			
0.1022	6541.84	4.0480	4.0481	0.8791	25.33	-0.33	0.050			
0.1031	6597.88	4.0470	4.0470	0.8801	25.34	-0.32	0.050			
0.1040	6654.55	4.0460	4.0461	0.8802	25.34	-0.32	0.050			
0.1049	6711.01	4.0450	4.0450	0.8813	25.35	-0.31	0.050			
0.1057	6767.56	4.0440	4.0440	0.8822	25.36	-0.30	0.050			
0.1066	6824.04	4.0430	4.0430	0.8816	25.36	-0.30	0.050			
0.1075	6880.36	4.0420	4.0420	0.8820	25.36	-0.30	0.050			
0.1084	6936.98	4.0410	4.0411	0.8814	25.36	-0.30	0.050			
0.1093	6993.64	4.0400	4.0399	0.8821	25.38	-0.28	0.050			
0.1102	7050.31	4.0390	4.0391	0.8817	25.38	-0.28	0.050			
0.1110	7106.73	4.0380	4.0380	0.8821	25.38	-0.28	0.050			
0.1119	7163.22	4.0370	4.0371	0.8825	25.39	-0.27	0.050			
0.1128	7219.33	4.0360	4.0360	0.8824	25.40	-0.26	0.050			
0.1137	7275.94	4.0350	4.0349	0.8823	25.40	-0.26	0.050			
0.1146	7332.34	4.0340	4.0341	0.8827	25.40	-0.26	0.050			
0.1154	7388.55	4.0330	4.0329	0.8838	25.41	-0.25	0.050			
0.1163	7445.06	4.0320	4.0321	0.8840	25.42	-0.24	0.050			
0.1172	7501.55	4.0310	4.0309	0.8845	25.42	-0.24	0.050	0.340	0.552	
0.1181	7558.00	4.0300	4.0298	0.8853	25.43	-0.23	0.050			
0.1190	7614.52	4.0290	4.0290	0.8850	25.43	-0.23	0.050			
0.1199	7671.26	4.0280	4.0280	0.8866	25.44	-0.22	0.050			
0.1207	7727.78	4.0270	4.0270	0.8880	25.44	-0.22	0.050			
0.1216	7784.56	4.0260	4.0261	0.8891	25.43	-0.23	0.050			
0.1225	7841.49	4.0250	4.0250	0.8900	25.42	-0.24	0.050			
0.1234	7898.48	4.0240	4.0240	0.8916	25.42	-0.24	0.050			
0.1243	7955.61	4.0230	4.0229	0.8939	25.42	-0.24	0.050			
0.1252	8013.03	4.0220	4.0220	0.8942	25.41	-0.25	0.050			
0.1261	8070.35	4.0210	4.0211	0.8967	25.40	-0.26	0.050			
0.1270	8127.86	4.0200	4.0200	0.8990	25.40	-0.26	0.050			
0.1279	8185.43	4.0190	4.0189	0.8990	25.40	-0.26	0.050			
0.1288	8242.77	4.0180	4.0180	0.9003	25.40	-0.26	0.050			
0.1297	8300.73	4.0170	4.0172	0.9014	25.39	-0.27	0.050			
0.1306	8358.06	4.0160	4.0160	0.9039	25.39	-0.27	0.050			
0.1315	8416.06	4.0150	4.0150	0.9055	25.38	-0.28	0.050			
0.1324	8473.89	4.0140	4.0139	0.9069	25.38	-0.28	0.050			
0.1333	8532.19	4.0130	4.0131	0.9090	25.38	-0.28	0.050			
0.1342	8590.41	4.0120	4.0120	0.9094	25.37	-0.29	0.050			
0.1351	8649.27	4.0110	4.0110	0.9102	25.36	-0.30	0.050			
0.1361	8707.62	4.0100	4.0100	0.9113	25.36	-0.30	0.050			
0.1370	8766.25	4.0090	4.0090	0.9120	25.36	-0.30	0.050	0.221	0.528	
0.1379	8824.61	4.0080	4.0081	0.9113	25.36	-0.30	0.050			
0.1388	8883.07	4.0070	4.0067	0.9116	25.36	-0.30	0.050			
0.1397	8941.42	4.0060	4.0061	0.9120	25.36	-0.30	0.050			
0.1406	8999.74	4.0050	4.0050	0.9132	25.36	-0.30	0.050			
0.1415	9057.92	4.0040	4.0041	0.9140	25.36	-0.30	0.050			
0.1424	9116.79	4.0030	4.0030	0.9142	25.36	-0.30	0.050			
0.1434	9175.32	4.0020	4.0020	0.9146	25.36	-0.30	0.050			
0.1443	9233.65	4.0010	4.0009	0.9158	25.37	-0.29	0.050			
0.1452	9292.06	4.0000	4.0000	0.9153	25.36	-0.30	0.050			
0.1461	9350.92	3.9990	3.9989	0.9153	25.36	-0.30	0.050			
0.1470	9409.39	3.9980	3.9980	0.9147	25.36	-0.30	0.050			
0.1479	9467.76	3.9970	3.9970	0.9161	25.37	-0.29	0.050			
0.1488	9526.01	3.9960	3.9961	0.9155	25.36	-0.30	0.050			
0.1498	9584.87	3.9950	3.9950	0.9172	25.36	-0.30	0.050			
0.1507	9643.72	3.9940	3.9942	0.9179	25.36	-0.30	0.050			
0.1516	9702.87	3.9930	3.9930	0.9186	25.36	-0.30	0.050			
0.1525	9761.97	3.9920	3.9919	0.9186	25.36	-0.30	0.050			
0.1535	9821.14	3.9910	3.9910	0.9186	25.36	-0.30	0.050			
0.1544	9879.42	3.9900	3.9900	0.9189	25.35	-0.31	0.050			
0.1553	9938.35	3.9890	3.9889	0.9199	25.35	-0.31	0.050			
0.1562	9996.99	3.9880	3.9879	0.9209	25.34	-0.32	0.050			
0.1571	10055.64	3.9870	3.9870	0.9211	25.34	-0.32	0.050	0.107	0.506	
0.1580	10114.25	3.9860	3.9860	0.9222	25.34	-0.32	0.050			
0.1590	10173.13	3.9850	3.9850	0.9224	25.34	-0.32	0.050			
0.1599	10232.36	3.9840	3.9841	0.9236	25.34	-0.32	0.050			
0.1608	10291.96	3.9830	3.9830	0.9242	25.35	-0.31	0.050			
0.1617	10350.86	3.9820	3.9820	0.9258	25.36	-0.30	0.050			
0.1627	10409.73	3.9810	3.9809	0.9266	25.36	-0.30	0.050			
0.1636	10468.99	3.9800	3.9800	0.9283	25.37	-0.29	0.050			
0.1645	10528.82	3.9790	3.9790	0.9295	25.38	-0.28	0.050			
0.1655	10588.82	3.9780	3.9780	0.9302	25.38	-0.28	0.050			
0.1664	10648.04	3.9770	3.9771	0.9305	25.39	-0.27	0.050			
0.1673	10707.90	3.9760	3.9760	0.9313	25.39	-0.27	0.050			
0.1682	10767.39	3.9750	3.9749	0.9322	25.40	-0.26	0.050			
0.1692	10827.24	3.9740	3.9740	0.9341	25.41	-0.25	0.050			
0.1701	10887.28	3.9730	3.9729	0.9357	25.42	-0.24	0.050			
0.1710	10946.85	3.9720	3.9720	0.9370	25.42	-0.24	0.050			
0.1720	11006.72	3.9710	3.9711	0.9375	25.43	-0.23	0.050			
0.1729	11066.23	3.9700	3.9700	0.9380	25.44	-0.22	0.050			
0.1738	11126.38	3.9690	3.9690	0.9392	25.44	-0.22	0.050			
0.1748	11186.44	3.9680	3.9680	0.9404	25.44	-0.22	0.050			
0.1757	11246.79	3.9670	3.9670	0.9414	25.44	-0.22	0.050			
0.1767	11307.22	3.9660	3.9660	0.9425	25.45	-0.21	0.050			
0.1776	11367.67	3.9650	3.9650	0.9441	25.45	-0.21	0.050	0.338	0.453	
0.1786	11428.04	3.9640	3.9640	0.9460	25.45	-0.21	0.050			
0.1795	11488.61	3.9630	3.9630	0.9480	25.45	-0.21	0.050			
0.1804	11548.74	3.9620	3.9620	0.9487	25.45	-0.21	0.050			
0.1814	11609.86	3.9610	3.9610	0.9503	25.44	-0.22	0.050			
0.1824	11670.96	3.9600	3.9600	0.9524	25.44	-0.22	0.050			
0.1833	11732.35	3.9590	3.9590	0.9539	25.44	-0.22	0.050			
0.1843	11793.75	3.9580	3.9581	0.9548	25.44	-0.22	0.050			
0.1852	11855.05	3.9570	3.9569	0.9543	25.44	-0.22	0.050			
0.1862	11916.38	3.9560	3.9560	0.9545	25.43	-0.23	0.050			
0.1871	11977.57	3.9550	3.9550	0.9540	25.43	-0.23	0.050			
0.1881	12038.58	3.9540	3.9540	0.9541	25.42	-0.24	0.050			
0.1891	12099.71	3.9530	3.9530	0.9540	25.42	-0.24	0.050			
0.1900	12160.68	3.9520	3.9520	0.9546	25.41	-0.25	0.050			
0.1910	12221.86	3.9510	3.9511	0.9543	25.40	-0.26	0.050			
0.1919	12282.88	3.9500	3.9500	0.9554	25.40	-0.26	0.050			
0.1929	12344.00	3.9490	3.9490	0.9563	25.40	-0.26	0.050			
0.1938	12404.77	3.9480	3.9478	0.9577	25.39	-0.27	0.050			
0.1948	12465.71	3.9470	3.9470	0.9590	25.38	-0.28	0.050			
0.1957	12526.93	3.9460	3.9459	0.9593	25.38	-0.28	0.050			
0.1967	12588.36	3.9450	3.9451	0.9595	25.38	-0.28	0.050			
0.1977	12649.96	3.9440	3.9440	0.9577	25.38	-0.28	0.050			
0.1986	12711.38	3.9430	3.9429	0.9576	25.37	-0.29	0.050			
0.1996	12772.70	3.9420	3.9420	0.9584	25.38	-0.28	0.050			
0.2005	12834.65	3.9410	3.9409	0.9585	25.37	-0.29	0.050			
0.2015	12896.40	3.9400	3.9401	0.9592	25.37	-0.29	0.050			
0.2025	12957.59	3.9390	3.9391	0.9599	25.36	-0.30	0.050			
0.2034	13018.92	3.9380	3.9381	0.9608	25.36	-0.30	0.050			
0.2044	13080.25	3.9370	3.9371	0.9627	25.36	-0.30	0.050			
0.2053	13141.83	3.9360	3.9361	0.9632	25.36	-0.30	0.050			
0.2063	13203.01	3.9350	3.9349	0.9645	25.35	-0.31	0.050			
0.2073	13264.62	3.9340	3.9340	0.9650	25.34	-0.32	0.050			
0.2082	13326.25	3.9330	3.9330	0.9663	25.34	-0.32	0.050			
0.2092	13388.20	3.9320	3.9320	0.9656	25.34	-0.32	0.050			
0.2102	13449.96	3.9310	3.9308	0.9662	25.34	-0.32	0.050			
0.2111	13511.37	3.9300	3.9300	0.9673	25.32	-0.34	0.050			
0.2121	13573.24	3.9290	3.9290	0.9687	25.34	-0.32	0.050			
0.2131	13635.28	3.9280	3.9280	0.9699	25.33	-0.33	0.050			
0.2140	13697.69	3.9270	3.9271	0.9725	25.32	-0.34	0.050			
0.2150	13760.38	3.9260	3.9260	0.9746	25.32	-0.34	0.050			
0.2160	13823.03	3.9250	3.9250	0.9771	25.32	-0.34	0.050			
0.2170	13886.08	3.9240	3.9241	0.9789	25.34	-0.32	0.050	0.291	0.468	
0.2179	13948.61	3.9230	3.9230	0.9795	25.34	-0.32	0.050			
0.2189	14011.39	3.9220	3.9219	0.9803	25.35	-0.31	0.050			
0.2199	14074.24	3.9210	3.9209	0.9806	25.36	-0.30	0.050			
0.2209	14136.89	3.9200	3.9201	0.9805	25.36	-0.30	0.050			
0.2219	14199.14	3.9190	3.9189	0.9808	25.36	-0.30	0.050			
0.2228	14261.95	3.9180	3.9180	0.9817	25.38	-0.28	0.050			
0.2238	14324.54	3.9170	3.9170	0.9830	25.38	-0.28	0.050			
0.2248	14387.10	3.9160	3.9160	0.9861	25.38	-0.28	0.050			
0.2258	14450.15	3.9150	3.9151	0.9881	25.39	-0.27	0.050			
0.2268	14513.81	3.9140	3.9140	0.9903	25.40	-0.26	0.050			
0.2278	14577.58	3.9130	3.9130	0.9929	25.40	-0.26	0.050			
0.2288	14641.18	3.9120	3.9120	0.9944	25.41	-0.25	0.050			
0.2298	14705.00	3.9110	3.9109	0.9939	25.42	-0.24	0.050			
0.2308	14768.74	3.9100	3.9099	0.9936	25.42	-0.24	0.050			
0.2318	14832.33	3.9090	3.9089	0.9960	25.43	-0.23	0.050			
0.2328	14896.16	3.9080	3.9079	0.9973	25.43	-0.23	0.050			
0.2337	14959.83	3.9070	3.9070	0.9988	25.44	-0.22	0.050			
0.2347	15023.96	3.9060	3.9061	1.0009	25.44	-0.22	0.050			
0.2357	15087.97	3.9050	3.9051	1.0019	25.43	-0.23	0.050			
0.2368	15152.39	3.9040	3.9041	1.0031	25.42	-0.24	0.050			
0.2378	15216.76	3.9030	3.9030	1.0046	25.42	-0.24	0.050	0.371	0.503	
0.2388	15281.27	3.9020	3.9020	1.0052	25.42	-0.24	0.050			
0.2398	15345.64	3.9010	3.9009	1.0067	25.42	-0.24	0.050			
0.2408	15409.86	3.9000	3.8999	1.0074	25.40	-0.26	0.050			
0.2418	15474.45	3.8990	3.8991	1.0072	25.40	-0.26	0.050			
0.2428	15538.96	3.8980	3.8980	1.0073	25.40	-0.26	0.050			
0.2438	15603.19	3.8970	3.8971	1.0074	25.40	-0.26	0.050			
0.2448	15667.56	3.8960	3.8960	1.0078	25.38	-0.28	0.050			
0.2458	15732.12	3.8950	3.8950	1.0106	25.38	-0.28	0.050			
0.2468	15797.03	3.8940	3.8940	1.0119	25.38	-0.28	0.050			
0.2478	15861.82	3.8930	3.8931	1.0129	25.36	-0.30	0.050			
0.2489	15927.15	3.8920	3.8919	1.0137	25.36	-0.30	0.050			
0.2499	15992.32	3.8910	3.8910	1.0140	25.36	-0.30	0.050			
0.2509	16056.81	3.8900	3.8900	1.0144	25.35	-0.31	0.050			
0.2519	16121.45	3.8890	3.8889	1.0154	25.35	-0.31	0.050			
0.2529	16186.39	3.8880	3.8880	1.0156	25.34	-0.32	0.050			
0.2539	16251.36	3.8870	3.8870	1.0159	25.34	-0.32	0.050			
0.2549	16316.28	3.8860	3.8860	1.0174	25.34	-0.32	0.050			
0.2560	16381.58	3.8850	3.8851	1.0187	25.34	-0.32	0.050			
0.2570	16446.83	3.8840	3.8840	1.0202	25.35	-0.31	0.050	0.436	0.502	
0.2580	16511.99	3.8830	3.8830	1.0212	25.35	-0.31	0.050			
0.2590	16577.49	3.8820	3.8820	1.0224	25.35	-0.31	0.050			
0.2600	16642.78	3.8810	3.8810	1.0239	25.35	-0.31	0.050			
0.2611	16708.84	3.8800	3.8800	1.0241	25.35	-0.31	0.050			
0.2621	16774.51	3.8790	3.8790	1.0256	25.35	-0.31	0.050			
0.2631	16840.26	3.8780	3.8780	1.0258	25.36	-0.30	0.050			
0.2642	16905.91	3.8770	3.8769	1.0256	25.36	-0.30	0.050			
0.2652	16971.67	3.8760	3.8761	1.0260	25.36	-0.30	0.050			
0.2662	17037.35	3.8750	3.8749	1.0255	25.36	-0.30	0.050			
0.2672	17103.33	3.8740	3.8740	1.0267	25.36	-0.30	0.050			
0.2683	17169.09	3.8730	3.8731	1.0277	25.36	-0.30	0.050			
0.2693	17234.85	3.8720	3.8720	1.0283	25.35	-0.31	0.050			
0.2703	17300.52	3.8710	3.8711	1.0279	25.35	-0.31	0.050			
0.2713	17366.17	3.8700	3.8699	1.0273	25.35	-0.31	0.050			
0.2724	17431.96	3.8690	3.8691	1.0273	25.34	-0.32	0.050			
0.2734	17497.96	3.8680	3.8680	1.0273	25.34	-0.32	0.050			
0.2744	17563.92	3.8670	3.8669	1.0258	25.36	-0.30	0.050			
0.2755	17629.42	3.8660	3.8660	1.0246	25.36	-0.30	0.050			
0.2765	17695.51	3.8650	3.8650	1.0228	25.37	-0.29	0.050			
0.2775	17761.47	3.8640	3.8639	1.0196	25.38	-0.28	0.050	0.310	0.439	
0.2785	17826.95	3.8630	3.8630	1.0180	25.38	-0.28	0.050			
0.2796	17892.63	3.8620	3.8621	1.0150	25.40	-0.26	0.050			
0.2806	17957.89	3.8610	3.8610	1.0117	25.40	-0.26	0.050			
0.2816	18023.50	3.8600	3.8600	1.0081	25.42	-0.24	0.050			
0.2826	18088.22	3.8590	3.8590	1.0027	25.42	-0.24	0.050			
0.2836	18153.11	3.8580	3.8580	0.9958	25.42	-0.24	0.050			
