Ah_balance (normalized)	Ah_balance (mAh)	Voltage - fit (V)	Voltage -  interpolate (V)	dQ/dV (1/V)	Temperature (°C)	Temperature - diff (°C)	Current (C)	R_DC 0ms (mOhm)	R_DC 50ms (mOhm)	R_DC 50 ms PEC (mOhm)
-0.0031	-199.90	4.1990	4.1990	0.8340	25.11	-0.15	0.050			
-0.0023	-146.52	4.1980	4.1980	0.8345	25.10	-0.16	0.050			
-0.0015	-92.94	4.1970	4.1970	0.8358	25.10	-0.16	0.050			
-0.0006	-39.87	4.1960	4.1961	0.8329	25.10	-0.16	0.050			
0.0002	13.49	4.1950	4.1950	0.8329	25.10	-0.16	0.050			
0.0010	66.61	4.1940	4.1940	0.8327	25.10	-0.16	0.050			
0.0019	119.79	4.1930	4.1929	0.8329	25.10	-0.16	0.050			
0.0027	172.92	4.1920	4.1920	0.8335	25.11	-0.15	0.050			
0.0035	226.45	4.1910	4.1911	0.8339	25.10	-0.16	0.050			
0.0044	280.03	4.1900	4.1901	0.8337	25.10	-0.16	0.050			
0.0052	333.45	4.1890	4.1889	0.8341	25.10	-0.16	0.050			
0.0060	386.77	4.1880	4.1879	0.8342	25.10	-0.16	0.050			
0.0069	439.81	4.1870	4.1870	0.8356	25.10	-0.16	0.050			
0.0077	493.22	4.1860	4.1861	0.8356	25.10	-0.16	0.050			
0.0085	546.84	4.1850	4.1849	0.8364	25.10	-0.16	0.050			
0.0094	600.25	4.1840	4.1841	0.8369	25.10	-0.16	0.050			
0.0102	654.18	4.1830	4.1830	0.8374	25.09	-0.17	0.050			
0.0111	707.68	4.1820	4.1821	0.8375	25.08	-0.18	0.050			
0.0119	761.14	4.1810	4.1811	0.8380	25.08	-0.18	0.050			
0.0127	815.07	4.1800	4.1800	0.8379	25.08	-0.18	0.050			
0.0136	868.85	4.1790	4.1789	0.8387	25.08	-0.18	0.050			
0.0144	922.83	4.1780	4.1780	0.8394	25.08	-0.18	0.050			
0.0153	976.18	4.1770	4.1771	0.8401	25.06	-0.20	0.050			
0.0161	1029.66	4.1760	4.1760	0.8405	25.06	-0.20	0.050			
0.0169	1083.21	4.1750	4.1751	0.8410	25.06	-0.20	0.050			
0.0178	1137.20	4.1740	4.1740	0.8414	25.04	-0.22	0.050			
0.0186	1191.18	4.1730	4.1731	0.8420	25.04	-0.22	0.050			
0.0195	1245.03	4.1720	4.1720	0.8428	25.04	-0.22	0.050			
0.0203	1299.32	4.1710	4.1711	0.8432	25.03	-0.23	0.050			
0.0211	1353.58	4.1700	4.1700	0.8432	25.02	-0.24	0.050			
0.0220	1407.31	4.1690	4.1690	0.8428	25.02	-0.24	0.050			
0.0228	1461.12	4.1680	4.1680	0.8432	25.01	-0.25	0.050			
0.0237	1515.07	4.1670	4.1670	0.8431	25.01	-0.25	0.050			
0.0245	1569.25	4.1660	4.1661	0.8443	25.00	-0.26	0.050			
0.0254	1623.49	4.1650	4.1650	0.8442	25.00	-0.26	0.050			
0.0262	1677.58	4.1640	4.1641	0.8440	25.00	-0.26	0.050			
0.0271	1731.82	4.1630	4.1629	0.8442	25.00	-0.26	0.050			
0.0279	1785.88	4.1620	4.1620	0.8445	25.00	-0.26	0.050			
0.0287	1839.56	4.1610	4.1610	0.8447	24.99	-0.27	0.050			
0.0296	1893.90	4.1600	4.1600	0.8443	24.99	-0.27	0.050			
0.0304	1947.63	4.1590	4.1591	0.8445	25.00	-0.26	0.050			
0.0313	2001.68	4.1580	4.1580	0.8433	24.99	-0.27	0.050			
0.0321	2055.32	4.1570	4.1570	0.8431	24.99	-0.27	0.050			
0.0330	2109.33	4.1560	4.1560	0.8428	24.99	-0.27	0.050			
0.0338	2163.46	4.1550	4.1550	0.8428	24.99	-0.27	0.050			
0.0346	2217.57	4.1540	4.1540	0.8434	24.99	-0.27	0.050			
0.0355	2271.51	4.1530	4.1530	0.8435	24.99	-0.27	0.050			
0.0363	2325.39	4.1520	4.1521	0.8436	25.00	-0.26	0.050			
0.0372	2379.53	4.1510	4.1511	0.8440	25.00	-0.26	0.050			
0.0380	2433.60	4.1500	4.1499	0.8442	25.00	-0.26	0.050			
0.0389	2487.40	4.1490	4.1491	0.8432	25.00	-0.26	0.050			
0.0397	2541.25	4.1480	4.1478	0.8444	25.01	-0.25	0.050			
0.0406	2595.24	4.1470	4.1471	0.8442	25.02	-0.24	0.050			
0.0414	2649.19	4.1460	4.1459	0.8450	25.02	-0.24	0.050			
0.0422	2703.14	4.1450	4.1449	0.8457	25.02	-0.24	0.050			
0.0431	2757.52	4.1440	4.1440	0.8461	25.03	-0.23	0.050	0.393	0.494	
0.0439	2811.37	4.1430	4.1430	0.8463	25.04	-0.22	0.050			
0.0448	2865.53	4.1420	4.1421	0.8472	25.05	-0.21	0.050			
0.0456	2919.70	4.1410	4.1410	0.8471	25.06	-0.20	0.050			
0.0465	2974.33	4.1400	4.1400	0.8481	25.07	-0.19	0.050			
0.0473	3028.48	4.1390	4.1390	0.8483	25.08	-0.18	0.050			
0.0482	3082.71	4.1380	4.1380	0.8488	25.08	-0.18	0.050			
0.0490	3137.07	4.1370	4.1370	0.8499	25.09	-0.17	0.050			
0.0499	3191.80	4.1360	4.1360	0.8504	25.10	-0.16	0.050			
0.0507	3246.60	4.1350	4.1350	0.8498	25.10	-0.16	0.050			
0.0516	3300.82	4.1340	4.1339	0.8498	25.10	-0.16	0.050			
0.0524	3354.99	4.1330	4.1330	0.8504	25.11	-0.15	0.050			
0.0533	3409.37	4.1320	4.1320	0.8511	25.11	-0.15	0.050			
0.0541	3463.94	4.1310	4.1310	0.8522	25.11	-0.15	0.050			
0.0550	3518.42	4.1300	4.1300	0.8524	25.11	-0.15	0.050			
0.0558	3572.99	4.1290	4.1291	0.8525	25.12	-0.14	0.050			
0.0567	3627.24	4.1280	4.1280	0.8529	25.12	-0.14	0.050			
0.0575	3681.69	4.1270	4.1270	0.8537	25.12	-0.14	0.050			
0.0584	3736.34	4.1260	4.1260	0.8544	25.12	-0.14	0.050			
0.0592	3791.15	4.1250	4.1249	0.8554	25.12	-0.14	0.050			
0.0601	3845.87	4.1240	4.1240	0.8564	25.12	-0.14	0.050			
0.0609	3900.55	4.1230	4.1230	0.8575	25.12	-0.14	0.050			
0.0618	3955.96	4.1220	4.1220	0.8573	25.12	-0.14	0.050			
0.0627	4010.91	4.1210	4.1209	0.8581	25.12	-0.14	0.050	0.406	0.474	
0.0635	4065.96	4.1200	4.1200	0.8587	25.12	-0.14	0.050			
0.0644	4121.09	4.1190	4.1190	0.8585	25.12	-0.14	0.050			
0.0653	4176.11	4.1180	4.1181	0.8589	25.12	-0.14	0.050			
0.0661	4231.11	4.1170	4.1170	0.8601	25.12	-0.14	0.050			
0.0670	4286.02	4.1160	4.1160	0.8612	25.12	-0.14	0.050			
0.0678	4341.27	4.1150	4.1150	0.8623	25.12	-0.14	0.050			
0.0687	4396.18	4.1140	4.1141	0.8623	25.11	-0.15	0.050			
0.0696	4451.27	4.1130	4.1131	0.8622	25.11	-0.15	0.050			
0.0704	4506.75	4.1120	4.1121	0.8624	25.10	-0.16	0.050			
0.0713	4561.98	4.1110	4.1108	0.8628	25.11	-0.15	0.050			
0.0721	4617.28	4.1100	4.1100	0.8633	25.10	-0.16	0.050			
0.0730	4672.56	4.1090	4.1090	0.8639	25.10	-0.16	0.050			
0.0739	4727.64	4.1080	4.1079	0.8643	25.10	-0.16	0.050			
0.0747	4782.81	4.1070	4.1070	0.8650	25.10	-0.16	0.050			
0.0756	4838.36	4.1060	4.1061	0.8649	25.10	-0.16	0.050			
0.0765	4893.78	4.1050	4.1050	0.8655	25.09	-0.17	0.050			
0.0773	4949.21	4.1040	4.1041	0.8659	25.08	-0.18	0.050			
0.0782	5004.70	4.1030	4.1030	0.8669	25.08	-0.18	0.050			
0.0791	5060.45	4.1020	4.1019	0.8682	25.08	-0.18	0.050			
0.0799	5116.10	4.1010	4.1010	0.8685	25.08	-0.18	0.050			
0.0808	5171.63	4.1000	4.0999	0.8672	25.07	-0.19	0.050			
0.0817	5227.16	4.0990	4.0990	0.8675	25.06	-0.20	0.050			
0.0825	5282.67	4.0980	4.0979	0.8675	25.06	-0.20	0.050	0.307	0.496	
0.0834	5337.91	4.0970	4.0970	0.8671	25.06	-0.20	0.050			
0.0843	5393.21	4.0960	4.0960	0.8674	25.05	-0.21	0.050			
0.0851	5448.88	4.0950	4.0950	0.8683	25.04	-0.22	0.050			
0.0860	5504.57	4.0940	4.0940	0.8686	25.04	-0.22	0.050			
0.0869	5560.18	4.0930	4.0930	0.8702	25.04	-0.22	0.050			
0.0877	5615.78	4.0920	4.0920	0.8708	25.04	-0.22	0.050			
0.0886	5671.24	4.0910	4.0910	0.8708	25.02	-0.24	0.050			
0.0895	5727.13	4.0900	4.0900	0.8713	25.02	-0.24	0.050			
0.0904	5782.59	4.0890	4.0891	0.8717	25.02	-0.24	0.050			
0.0912	5838.55	4.0880	4.0880	0.8729	25.02	-0.24	0.050			
0.0921	5894.43	4.0870	4.0870	0.8727	25.01	-0.25	0.050			
0.0930	5950.61	4.0860	4.0860	0.8737	25.00	-0.26	0.050			
0.0939	6006.50	4.0850	4.0850	0.8736	24.99	-0.27	0.050			
0.0947	6062.33	4.0840	4.0840	0.8742	24.98	-0.28	0.050			
0.0956	6118.20	4.0830	4.0831	0.8755	24.98	-0.28	0.050			
0.0965	6174.17	4.0820	4.0820	0.8762	24.98	-0.28	0.050			
0.0974	6230.57	4.0810	4.0810	0.8771	24.97	-0.29	0.050			
0.0982	6286.96	4.0800	4.0800	0.8776	24.96	-0.30	0.050			
0.0991	6343.31	4.0790	4.0791	0.8775	24.97	-0.29	0.050			
0.1000	6399.31	4.0780	4.0781	0.8775	24.96	-0.30	0.050			
0.1009	6455.48	4.0770	4.0769	0.8777	24.96	-0.30	0.050			
0.1017	6511.55	4.0760	4.0760	0.8778	24.96	-0.30	0.050			
0.1026	6567.59	4.0750	4.0749	0.8780	24.96	-0.30	0.050			
0.1035	6623.60	4.0740	4.0740	0.8794	24.96	-0.30	0.050			
0.1044	6679.55	4.0730	4.0730	0.8799	24.96	-0.30	0.050			
0.1052	6735.82	4.0720	4.0721	0.8806	24.96	-0.30	0.050			
0.1061	6792.34	4.0710	4.0710	0.8817	24.96	-0.30	0.050			
0.1070	6848.95	4.0700	4.0700	0.8828	24.96	-0.30	0.050			
0.1079	6905.32	4.0690	4.0690	0.8841	24.96	-0.30	0.050			
0.1088	6962.08	4.0680	4.0680	0.8845	24.97	-0.29	0.050			
0.1097	7019.04	4.0670	4.0670	0.8841	24.97	-0.29	0.050			
0.1106	7076.24	4.0660	4.0659	0.8829	24.98	-0.28	0.050			
0.1114	7132.68	4.0650	4.0649	0.8822	24.99	-0.27	0.050			
0.1123	7189.10	4.0640	4.0640	0.8827	25.00	-0.26	0.050			
0.1132	7245.48	4.0630	4.0630	0.8830	25.01	-0.25	0.050			
0.1141	7301.80	4.0620	4.0620	0.8835	25.02	-0.24	0.050			
0.1150	7358.62	4.0610	4.0609	0.8850	25.02	-0.24	0.050			
0.1159	7415.02	4.0600	4.0600	0.8852	25.02	-0.24	0.050			
0.1167	7471.65	4.0590	4.0591	0.8861	25.03	-0.23	0.050			
0.1176	7528.27	4.0580	4.0580	0.8867	25.04	-0.22	0.050			
0.1185	7584.84	4.0570	4.0570	0.8865	25.06	-0.20	0.050			
0.1194	7641.50	4.0560	4.0560	0.8865	25.07	-0.19	0.050			
0.1203	7697.91	4.0550	4.0550	0.8867	25.08	-0.18	0.050			
0.1212	7754.52	4.0540	4.0540	0.8872	25.08	-0.18	0.050			
0.1221	7811.20	4.0530	4.0531	0.8884	25.09	-0.17	0.050			
0.1229	7868.08	4.0520	4.0520	0.8903	25.10	-0.16	0.050	0.095	0.466	
0.1238	7925.24	4.0510	4.0510	0.8913	25.11	-0.15	0.050			
0.1247	7982.20	4.0500	4.0501	0.8928	25.12	-0.14	0.050			
0.1256	8039.50	4.0490	4.0490	0.8946	25.12	-0.14	0.050			
0.1265	8097.08	4.0480	4.0480	0.8968	25.12	-0.14	0.050			
0.1274	8154.79	4.0470	4.0469	0.8988	25.12	-0.14	0.050			
0.1283	8212.31	4.0460	4.0459	0.9002	25.13	-0.13	0.050			
0.1292	8269.86	4.0450	4.0450	0.9012	25.12	-0.14	0.050			
0.1301	8327.31	4.0440	4.0440	0.9007	25.14	-0.12	0.050			
0.1310	8384.99	4.0430	4.0430	0.9019	25.13	-0.13	0.050			
0.1319	8442.80	4.0420	4.0421	0.9026	25.12	-0.14	0.050			
0.1328	8500.99	4.0410	4.0409	0.9035	25.12	-0.14	0.050			
0.1337	8558.79	4.0400	4.0400	0.9038	25.12	-0.14	0.050			
0.1346	8616.68	4.0390	4.0389	0.9058	25.13	-0.13	0.050			
0.1355	8674.80	4.0380	4.0381	0.9070	25.13	-0.13	0.050			
0.1365	8733.03	4.0370	4.0371	0.9083	25.13	-0.13	0.050			
0.1374	8791.38	4.0360	4.0361	0.9080	25.13	-0.13	0.050			
0.1383	8849.50	4.0350	4.0350	0.9083	25.13	-0.13	0.050			
0.1392	8907.43	4.0340	4.0341	0.9087	25.13	-0.13	0.050			
0.1401	8965.47	4.0330	4.0330	0.9094	25.13	-0.13	0.050			
0.1410	9023.80	4.0320	4.0320	0.9096	25.14	-0.12	0.050			
0.1419	9082.04	4.0310	4.0309	0.9100	25.13	-0.13	0.050			
0.1428	9140.13	4.0300	4.0300	0.9102	25.14	-0.12	0.050	0.331	0.476	
0.1437	9198.48	4.0290	4.0289	0.9105	25.13	-0.13	0.050			
0.1446	9256.43	4.0280	4.0280	0.9118	25.12	-0.14	0.050			
0.1455	9314.93	4.0270	4.0270	0.9127	25.12	-0.14	0.050			
0.1465	9373.05	4.0260	4.0259	0.9138	25.12	-0.14	0.050			
0.1474	9431.74	4.0250	4.0250	0.9156	25.12	-0.14	0.050			
0.1483	9490.40	4.0240	4.0240	0.9168	25.12	-0.14	0.050			
0.1492	9549.07	4.0230	4.0230	0.9183	25.10	-0.16	0.050			
0.1501	9607.94	4.0220	4.0220	0.9187	25.10	-0.16	0.050			
0.1510	9666.87	4.0210	4.0210	0.9193	25.10	-0.16	0.050			
0.1520	9725.71	4.0200	4.0201	0.9199	25.10	-0.16	0.050			
0.1529	9784.43	4.0190	4.0189	0.9203	25.10	-0.16	0.050			
0.1538	9843.37	4.0180	4.0180	0.9214	25.08	-0.18	0.050			
0.1547	9902.63	4.0170	4.0169	0.9234	25.08	-0.18	0.050			
0.1557	9961.97	4.0160	4.0160	0.9234	25.07	-0.19	0.050			
0.1566	10021.24	4.0150	4.0151	0.9239	25.07	-0.19	0.050			
0.1575	10080.24	4.0140	4.0141	0.9246	25.06	-0.20	0.050			
0.1584	10139.57	4.0130	4.0131	0.9257	25.06	-0.20	0.050			
0.1594	10198.78	4.0120	4.0120	0.9264	25.05	-0.21	0.050			
0.1603	10258.19	4.0110	4.0109	0.9269	25.04	-0.22	0.050			
0.1612	10317.48	4.0100	4.0100	0.9277	25.04	-0.22	0.050			
0.1621	10376.77	4.0090	4.0090	0.9280	25.03	-0.23	0.050			
0.1631	10436.00	4.0080	4.0080	0.9278	25.02	-0.24	0.050	0.462	0.527	
0.1640	10495.31	4.0070	4.0070	0.9288	25.01	-0.25	0.050			
0.1649	10554.57	4.0060	4.0060	0.9300	25.00	-0.26	0.050			
0.1658	10613.97	4.0050	4.0050	0.9314	25.00	-0.26	0.050			
0.1668	10673.55	4.0040	4.0041	0.9333	25.00	-0.26	0.050			
0.1677	10733.28	4.0030	4.0030	0.9348	25.00	-0.26	0.050			
0.1686	10793.40	4.0020	4.0020	0.9359	25.00	-0.26	0.050			
0.1696	10853.40	4.0010	4.0010	0.9375	25.00	-0.26	0.050			
0.1705	10913.50	4.0000	4.0000	0.9374	25.00	-0.26	0.050			
0.1715	10973.55	3.9990	3.9990	0.9383	25.00	-0.26	0.050			
0.1724	11033.75	3.9980	3.9979	0.9392	25.00	-0.26	0.050			
0.1733	11094.03	3.9970	3.9971	0.9395	25.02	-0.24	0.050			
0.1743	11154.47	3.9960	3.9960	0.9412	25.01	-0.25	0.050			
0.1752	11214.73	3.9950	3.9950	0.9428	25.01	-0.25	0.050			
0.1762	11274.65	3.9940	3.9940	0.9436	25.02	-0.24	0.050			
0.1771	11335.07	3.9930	3.9931	0.9449	25.02	-0.24	0.050			
0.1781	11395.72	3.9920	3.9920	0.9459	25.02	-0.24	0.050			
0.1790	11456.28	3.9910	3.9910	0.9465	25.02	-0.24	0.050			
0.1800	11516.84	3.9900	3.9901	0.9477	25.03	-0.23	0.050			
0.1809	11577.62	3.9890	3.9890	0.9486	25.03	-0.23	0.050			
0.1818	11638.25	3.9880	3.9880	0.9493	25.04	-0.22	0.050			
0.1828	11699.14	3.9870	3.9870	0.9489	25.04	-0.22	0.050			
0.1837	11759.83	3.9860	3.9860	0.9492	25.04	-0.22	0.050			
0.1847	11820.60	3.9850	3.9851	0.9502	25.04	-0.22	0.050			
0.1857	11881.64	3.9840	3.9841	0.9508	25.04	-0.22	0.050			
0.1866	11942.44	3.9830	3.9831	0.9522	25.05	-0.21	0.050			
0.1876	12003.65	3.9820	3.9819	0.9536	25.06	-0.20	0.050			
0.1885	12064.51	3.9810	3.9810	0.9546	25.06	-0.20	0.050			
0.1895	12125.60	3.9800	3.9801	0.9562	25.07	-0.19	0.050			
0.1904	12187.00	3.9790	3.9790	0.9565	25.07	-0.19	0.050			
0.1914	12248.29	3.9780	3.9779	0.9559	25.08	-0.18	0.050			
0.1923	12309.73	3.9770	3.9769	0.9562	25.08	-0.18	0.050			
0.1933	12370.41	3.9760	3.9759	0.9561	25.09	-0.17	0.050			
0.1942	12431.51	3.9750	3.9751	0.9579	25.10	-0.16	0.050			
0.1952	12492.40	3.9740	3.9739	0.9593	25.10	-0.16	0.050			
0.1962	12553.90	3.9730	3.9730	0.9616	25.09	-0.17	0.050			
0.1971	12615.43	3.9720	3.9720	0.9630	25.09	-0.17	0.050			
0.1981	12676.94	3.9710	3.9711	0.9645	25.09	-0.17	0.050			
0.1990	12738.62	3.9700	3.9701	0.9660	25.08	-0.18	0.050			
0.2000	12800.47	3.9690	3.9690	0.9680	25.08	-0.18	0.050			
0.2010	12862.76	3.9680	3.9680	0.9694	25.08	-0.18	0.050			
0.2020	12925.11	3.9670	3.9670	0.9699	25.08	-0.18	0.050			
0.2029	12987.32	3.9660	3.9660	0.9702	25.08	-0.18	0.050			
0.2039	13049.62	3.9650	3.9650	0.9708	25.08	-0.18	0.050			
0.2049	13112.05	3.9640	3.9640	0.9717	25.08	-0.18	0.050			
0.2058	13174.13	3.9630	3.9630	0.9720	25.09	-0.17	0.050			
0.2068	13236.55	3.9620	3.9620	0.9730	25.08	-0.18	0.050			
0.2078	13298.70	3.9610	3.9611	0.9747	25.08	-0.18	0.050			
0.2088	13361.30	3.9600	3.9600	0.9762	25.09	-0.17	0.050			
0.2098	13424.10	3.9590	3.9589	0.9778	25.09	-0.17	0.050			
0.2107	13486.99	3.9580	3.9580	0.9776	25.10	-0.16	0.050			
0.2117	13549.55	3.9570	3.9570	0.9761	25.09	-0.17	0.050			
0.2127	13611.77	3.9560	3.9560	0.9756	25.10	-0.16	0.050			
0.2137	13673.98	3.9550	3.9550	0.9752	25.09	-0.17	0.050			
0.2146	13736.27	3.9540	3.9539	0.9752	25.10	-0.16	0.050			
0.2156	13798.67	3.9530	3.9530	0.9758	25.10	-0.16	0.050			
0.2166	13861.12	3.9520	3.9520	0.9766	25.10	-0.16	0.050			
0.2175	13923.09	3.9510	3.9511	0.9782	25.09	-0.17	0.050			
0.2185	13985.49	3.9500	3.9501	0.9803	25.09	-0.17	0.050			
0.2195	14048.03	3.9490	3.9491	0.9821	25.09	-0.17	0.050			
0.2205	14111.11	3.9480	3.9480	0.9835	25.10	-0.16	0.050			
0.2215	14174.15	3.9470	3.9469	0.9853	25.10	-0.16	0.050			
0.2225	14237.17	3.9460	3.9459	0.9868	25.09	-0.17	0.050			
0.2234	14300.24	3.9450	3.9450	0.9877	25.10	-0.16	0.050	0.437	0.442	
0.2244	14363.74	3.9440	3.9440	0.9890	25.09	-0.17	0.050			
0.2254	14426.90	3.9430	3.9430	0.9895	25.10	-0.16	0.050			
0.2264	14490.44	3.9420	3.9419	0.9913	25.10	-0.16	0.050			
0.2274	14553.85	3.9410	3.9410	0.9920	25.09	-0.17	0.050			
0.2284	14617.81	3.9400	3.9400	0.9945	25.09	-0.17	0.050			
0.2294	14681.65	3.9390	3.9391	0.9968	25.08	-0.18	0.050			
0.2304	14745.99	3.9380	3.9379	0.9985	25.08	-0.18	0.050			
0.2314	14810.04	3.9370	3.9371	0.9987	25.07	-0.19	0.050			
0.2324	14874.17	3.9360	3.9359	0.9984	25.06	-0.20	0.050			
0.2334	14938.50	3.9350	3.9350	0.9975	25.06	-0.20	0.050			
0.2344	15002.19	3.9340	3.9339	0.9963	25.06	-0.20	0.050			
0.2354	15066.10	3.9330	3.9330	0.9959	25.05	-0.21	0.050			
0.2364	15129.83	3.9320	3.9319	0.9952	25.04	-0.22	0.050			
0.2374	15192.79	3.9310	3.9310	0.9958	25.04	-0.22	0.050			
0.2384	15256.39	3.9300	3.9300	0.9964	25.02	-0.24	0.050			
0.2394	15320.23	3.9290	3.9291	0.9967	25.02	-0.24	0.050			
0.2404	15384.26	3.9280	3.9280	0.9970	25.02	-0.24	0.050			
0.2414	15447.67	3.9270	3.9270	0.9980	25.01	-0.25	0.050			
0.2424	15511.31	3.9260	3.9259	0.9984	25.02	-0.24	0.050			
0.2434	15574.98	3.9250	3.9249	1.0003	25.02	-0.24	0.050			
0.2444	15638.96	3.9240	3.9239	1.0016	25.02	-0.24	0.050			
0.2454	15702.78	3.9230	3.9230	1.0023	25.02	-0.24	0.050			
0.2464	15767.17	3.9220	3.9219	1.0034	25.02	-0.24	0.050			
0.2474	15831.16	3.9210	3.9210	1.0042	25.02	-0.24	0.050			
0.2484	15895.58	3.9200	3.9200	1.0047	25.02	-0.24	0.050			
0.2494	15959.94	3.9190	3.9190	1.0062	25.02	-0.24	0.050			
0.2504	16024.77	3.9180	3.9179	1.0085	25.02	-0.24	0.050			
0.2514	16089.59	3.9170	3.9170	1.0101	25.02	-0.24	0.050			
0.2524	16154.53	3.9160	3.9161	1.0117	25.04	-0.22	0.050			
0.2534	16219.69	3.9150	3.9151	1.0128	25.04	-0.22	0.050			
0.2544	16284.21	3.9140	3.9141	1.0131	25.04	-0.22	0.050			
0.2555	16349.12	3.9130	3.9130	1.0134	25.06	-0.20	0.050			
0.2565	16413.78	3.9120	3.9120	1.0137	25.06	-0.20	0.050			
0.2575	16478.66	3.9110	3.9110	1.0133	25.08	-0.18	0.050			
0.2585	16543.50	3.9100	3.9100	1.0161	25.08	-0.18	0.050			
0.2595	16608.52	3.9090	3.9090	1.0169	25.08	-0.18	0.050			
0.2605	16673.51	3.9080	3.9080	1.0178	25.10	-0.16	0.050			
0.2615	16738.31	3.9070	3.9070	1.0177	25.11	-0.15	0.050			
0.2626	16803.38	3.9060	3.9060	1.0196	25.12	-0.14	0.050	0.351	0.429	
0.2636	16868.52	3.9050	3.9050	1.0208	25.12	-0.14	0.050			
0.2646	16934.18	3.9040	3.9040	1.0224	25.13	-0.13	0.050			
0.2656	17000.06	3.9030	3.9030	1.0228	25.14	-0.12	0.050			
0.2667	17065.70	3.9020	3.9021	1.0242	25.15	-0.11	0.050			
0.2677	17131.52	3.9010	3.9009	1.0247	25.16	-0.10	0.050			
0.2687	17197.16	3.9000	3.9001	1.0252	25.16	-0.10	0.050			
0.2697	17262.82	3.8990	3.8990	1.0248	25.16	-0.10	0.050			
0.2708	17328.50	3.8980	3.8980	1.0252	25.16	-0.10	0.050			
0.2718	17394.06	3.8970	3.8970	1.0268	25.14	-0.12	0.050			
0.2728	17459.97	3.8960	3.8960	1.0271	25.16	-0.10	0.050			
0.2738	17526.01	3.8950	3.8950	1.0271	25.16	-0.10	0.050			
0.2749	17591.41	3.8940	3.8940	1.0274	25.16	-0.10	0.050			
0.2759	17657.07	3.8930	3.8930	1.0280	25.16	-0.10	0.050			
0.2769	17722.93	3.8920	3.8920	1.0281	25.16	-0.10	0.050			
0.2779	17788.49	3.8910	3.8910	1.0288	25.16	-0.10	0.050			
0.2790	17854.05	3.8900	3.8900	1.0283	25.14	-0.12	0.050			
0.2800	17919.84	3.8890	3.8889	1.0301	25.14	-0.12	0.050			
0.2810	17985.50	3.8880	3.8880	1.0318	25.14	-0.12	0.050			
0.2821	18051.49	3.8870	3.8870	1.0328	25.14	-0.12	0.050			
0.2831	18117.39	3.8860	3.8860	1.0338	25.14	-0.12	0.050			
0.2841	18183.49	3.8850	3.8850	1.0366	25.14	-0.12	0.050			
0.2852	18249.77	3.8840	3.8840	1.0393	25.13	-0.13	0.050			
0.2862	18316.46	3.8830	3.8830	1.0411	25.12	-0.14	0.050			
0.2872	18383.12	3.8820	3.8819	1.0426	25.12	-0.14	0.050			
0.2883	18450.09	3.8810	3.8809	1.0438	25.12	-0.14	0.050			
0.2893	18516.88	3.8800	3.8799	1.0457	25.12	-0.14	0.050			
0.2904	18584.07	3.8790	3.8790	1.0465	25.11	-0.15	0.050			
0.2914	18651.12	3.8780	3.8781	1.0479	25.10	-0.16	0.050			
0.2925	18718.28	3.8770	3.8771	1.0497	25.10	-0.16	0.050			
0.2935	18785.70	3.8760	3.8760	1.0518	25.09	-0.17	0.050			
0.2946	18853.27	3.8750	3.8750	1.0538	25.08	-0.18	0.050			
0.2956	18920.61	3.8740	3.8740	1.0547	25.08	-0.18	0.050			
0.2967	18988.24	3.8730	3.8730	1.0561	25.08	-0.18	0.050			
0.2978	19056.06	3.8720	3.8719	1.0578	25.06	-0.20	0.050			
0.2988	19123.71	3.8710	3.8709	1.0584	25.06	-0.20	0.050			
0.2999	19191.61	3.8700	3.8701	1.0593	25.05	-0.21	0.050			
0.3009	19259.25	3.8690	3.8689	1.0598	25.04	-0.22	0.050			
0.3020	19326.86	3.8680	3.8680	1.0615	25.04	-0.22	0.050			
0.3030	19395.06	3.8670	3.8670	1.0638	25.02	-0.24	0.050	0.409	0.520	
0.3041	19462.88	3.8660	3.8659	1.0647	25.01	-0.25	0.050			
0.3052	19530.77	3.8650	3.8649	1.0657	25.00	-0.26	0.050			
0.3062	19598.98	3.8640	3.8640	1.0677	24.99	-0.27	0.050			
0.3073	19667.72	3.8630	3.8630	1.0702	24.98	-0.28	0.050			
0.3084	19736.24	3.8620	3.8619	1.0718	24.97	-0.29	0.050			
0.3094	19804.76	3.8610	3.8610	1.0740	24.96	-0.30	0.050			
0.3105	19873.40	3.8600	3.8601	1.0758	24.96	-0.30	0.050			
0.3116	19942.33	3.8590	3.8589	1.0784	24.96	-0.30	0.050			
0.3127	20011.07	3.8580	3.8581	1.0804	24.96	-0.30	0.050			
0.3138	20080.45	3.8570	3.8570	1.0815	24.96	-0.30	0.050			
