Ah_balance (normalized)	Ah_balance (mAh)	Voltage - fit (V)	Voltage -  interpolate (V)	dQ/dV (1/V)	Temperature (°C)	Temperature - diff (°C)	Current (C)	R_DC 0ms (mOhm)	R_DC 50ms (mOhm)	R_DC 50 ms PEC (mOhm)
0.0564	3609.36	4.1970	4.1970	0.7839	28.53	3.82	0.750			
0.0588	3765.60	4.1940	4.1939	0.8170	28.52	3.81	0.750			
0.0613	3926.29	4.1910	4.1911	0.8251	28.51	3.80	0.750			
0.0638	4084.59	4.1880	4.1881	0.8268	28.51	3.80	0.750			
0.0663	4245.15	4.1850	4.1851	0.8238	28.50	3.79	0.750			
0.0688	4403.97	4.1820	4.1821	0.8258	28.50	3.79	0.750			
0.0712	4559.54	4.1790	4.1790	0.8260	28.49	3.78	0.750			
0.0737	4716.38	4.1760	4.1760	0.8260	28.48	3.77	0.750			
0.0762	4876.55	4.1730	4.1730	0.8323	28.48	3.77	0.750			
0.0787	5037.89	4.1700	4.1700	0.8335	28.48	3.77	0.750			
0.0812	5198.65	4.1670	4.1669	0.8396	28.48	3.77	0.750			
0.0838	5361.87	4.1640	4.1640	0.8402	28.48	3.77	0.750			
0.0863	5522.27	4.1610	4.1612	0.8352	28.48	3.77	0.750			
0.0888	5681.66	4.1580	4.1581	0.8371	28.48	3.77	0.750			
0.0913	5844.21	4.1550	4.1550	0.8316	28.48	3.77	0.750			
0.0938	6002.84	4.1520	4.1518	0.8321	28.48	3.77	0.750			
0.0963	6160.57	4.1490	4.1492	0.8352	28.48	3.77	0.750			
0.0988	6320.26	4.1460	4.1460	0.8418	28.48	3.77	0.750			
0.1013	6483.80	4.1430	4.1431	0.8499	28.48	3.77	0.750			
0.1039	6648.42	4.1400	4.1399	0.8520	28.48	3.77	0.750			
0.1064	6811.06	4.1370	4.1371	0.8591	28.48	3.77	0.750			
0.1091	6979.42	4.1340	4.1340	0.8641	28.47	3.76	0.750			
0.1117	7145.79	4.1310	4.1309	0.8682	28.47	3.76	0.750			
0.1143	7313.51	4.1280	4.1280	0.8610	28.47	3.76	0.750			
0.1168	7478.27	4.1250	4.1250	0.8570	28.46	3.75	0.750			
0.1194	7642.29	4.1220	4.1220	0.8613	28.45	3.74	0.750			
0.1220	7807.12	4.1190	4.1191	0.8613	28.45	3.74	0.750			
0.1245	7970.25	4.1160	4.1159	0.8594	28.44	3.73	0.750			
0.1271	8136.74	4.1130	4.1130	0.8650	28.44	3.73	0.750			
0.1297	8302.70	4.1100	4.1101	0.8629	28.43	3.72	0.750			
0.1324	8471.27	4.1070	4.1070	0.8722	28.43	3.72	0.750			
0.1349	8636.41	4.1040	4.1041	0.8689	28.42	3.71	0.750			
0.1376	8803.95	4.1010	4.1007	0.8707	28.42	3.71	0.750			
0.1402	8970.88	4.0980	4.0980	0.8770	28.42	3.71	0.750			
0.1428	9140.71	4.0950	4.0950	0.8792	28.41	3.70	0.750			
0.1455	9311.27	4.0920	4.0920	0.8811	28.41	3.70	0.750			
0.1481	9480.61	4.0890	4.0891	0.8818	28.40	3.69	0.750			
0.1507	9647.70	4.0860	4.0862	0.8769	28.40	3.69	0.750			
0.1534	9816.99	4.0830	4.0829	0.8745	28.40	3.69	0.750			
0.1560	9982.71	4.0800	4.0800	0.8769	28.40	3.69	0.750			
0.1586	10149.20	4.0770	4.0770	0.8804	28.40	3.69	0.750			
0.1613	10320.86	4.0740	4.0741	0.8885	28.40	3.69	0.750			
0.1639	10492.41	4.0710	4.0709	0.8910	28.40	3.69	0.750			
0.1666	10663.99	4.0680	4.0681	0.8952	28.39	3.68	0.750			
0.1693	10837.10	4.0650	4.0650	0.9023	28.38	3.67	0.750			
0.1720	11010.31	4.0620	4.0620	0.9061	28.37	3.66	0.750			
0.1747	11183.61	4.0590	4.0590	0.9033	28.36	3.65	0.750			
0.1775	11359.03	4.0560	4.0559	0.9012	28.36	3.65	0.750			
0.1802	11532.64	4.0530	4.0529	0.8999	28.36	3.65	0.750			
0.1829	11705.52	4.0500	4.0502	0.9006	28.35	3.64	0.750			
0.1856	11877.23	4.0470	4.0471	0.8949	28.35	3.64	0.750			
0.1882	12046.22	4.0440	4.0438	0.8999	28.35	3.64	0.750			
0.1909	12219.78	4.0410	4.0411	0.9061	28.35	3.64	0.750			
0.1936	12392.41	4.0380	4.0379	0.9191	28.35	3.64	0.750			
0.1964	12569.22	4.0350	4.0349	0.9373	28.35	3.64	0.750			
0.1993	12752.80	4.0320	4.0321	0.9441	28.35	3.64	0.750			
0.2021	12936.86	4.0290	4.0291	0.9465	28.35	3.64	0.750			
0.2050	13122.06	4.0260	4.0261	0.9419	28.35	3.64	0.750			
0.2078	13300.62	4.0230	4.0231	0.9352	28.34	3.63	0.750			
0.2106	13476.70	4.0200	4.0201	0.9385	28.34	3.63	0.750			
0.2133	13653.54	4.0170	4.0167	0.9368	28.34	3.63	0.750			
0.2161	13833.52	4.0140	4.0141	0.9403	28.34	3.63	0.750			
0.2190	14016.58	4.0110	4.0111	0.9524	28.34	3.63	0.750			
0.2220	14204.97	4.0080	4.0080	0.9555	28.35	3.64	0.750			
0.2248	14385.93	4.0050	4.0049	0.9520	28.35	3.64	0.750			
0.2277	14571.12	4.0020	4.0021	0.9450	28.35	3.64	0.750			
0.2305	14750.70	3.9990	3.9989	0.9429	28.35	3.64	0.750			
0.2333	14929.96	3.9960	3.9961	0.9476	28.36	3.65	0.750			
0.2361	15111.33	3.9930	3.9930	0.9572	28.36	3.65	0.750			
0.2390	15296.10	3.9900	3.9899	0.9566	28.36	3.65	0.750			
0.2419	15481.38	3.9870	3.9870	0.9638	28.35	3.64	0.750			
0.2448	15667.35	3.9840	3.9841	0.9643	28.34	3.63	0.750			
0.2477	15855.19	3.9810	3.9811	0.9693	28.34	3.63	0.750			
0.2506	16040.07	3.9780	3.9779	0.9645	28.33	3.62	0.750			
0.2535	16225.02	3.9750	3.9750	0.9594	28.33	3.62	0.750			
0.2563	16405.05	3.9720	3.9720	0.9629	28.33	3.62	0.750			
0.2592	16590.04	3.9690	3.9691	0.9810	28.34	3.63	0.750			
0.2622	16779.58	3.9660	3.9659	0.9863	28.34	3.63	0.750			
0.2652	16973.38	3.9630	3.9629	0.9948	28.35	3.64	0.750			
0.2682	17165.72	3.9600	3.9601	0.9950	28.35	3.64	0.750			
0.2712	17359.64	3.9570	3.9571	0.9988	28.36	3.65	0.750			
0.2742	17548.92	3.9540	3.9540	0.9959	28.37	3.66	0.750			
0.2772	17739.56	3.9510	3.9509	0.9927	28.38	3.67	0.750			
0.2801	17926.03	3.9480	3.9480	0.9976	28.39	3.68	0.750			
0.2831	18120.38	3.9450	3.9450	1.0072	28.41	3.70	0.750			
0.2862	18316.48	3.9420	3.9420	1.0171	28.42	3.71	0.750			
0.2893	18513.53	3.9390	3.9391	1.0137	28.43	3.72	0.750			
0.2923	18708.35	3.9360	3.9360	1.0161	28.43	3.72	0.750			
0.2954	18902.59	3.9330	3.9331	1.0196	28.44	3.73	0.750			
0.2984	19099.56	3.9300	3.9301	1.0178	28.44	3.73	0.750			
0.3015	19293.31	3.9270	3.9270	1.0199	28.44	3.73	0.750			
0.3045	19489.59	3.9240	3.9241	1.0253	28.46	3.75	0.750			
0.3076	19686.22	3.9210	3.9210	1.0281	28.47	3.76	0.750			
0.3107	19883.55	3.9180	3.9181	1.0393	28.48	3.77	0.750			
0.3138	20084.52	3.9150	3.9151	1.0362	28.49	3.78	0.750			
0.3169	20283.96	3.9120	3.9120	1.0443	28.51	3.80	0.750			
0.3201	20487.09	3.9090	3.9090	1.0519	28.52	3.81	0.750			
0.3232	20687.14	3.9060	3.9060	1.0582	28.54	3.83	0.750			
0.3265	20893.18	3.9030	3.9030	1.0588	28.55	3.84	0.750			
0.3296	21096.29	3.9000	3.8999	1.0658	28.56	3.85	0.750			
0.3328	21299.78	3.8970	3.8971	1.0688	28.57	3.86	0.750			
0.3360	21506.98	3.8940	3.8941	1.0816	28.58	3.87	0.750			
0.3393	21716.27	3.8910	3.8909	1.0731	28.59	3.88	0.750			
0.3425	21922.22	3.8880	3.8880	1.0818	28.60	3.89	0.750			
0.3458	22128.09	3.8850	3.8852	1.0911	28.61	3.90	0.750			
0.3491	22339.83	3.8820	3.8820	1.1081	28.62	3.91	0.750			
0.3524	22551.47	3.8790	3.8790	1.1117	28.63	3.92	0.750			
0.3557	22765.06	3.8760	3.8761	1.1273	28.64	3.93	0.750			
0.3591	22983.62	3.8730	3.8730	1.1416	28.64	3.93	0.750			
0.3627	23212.09	3.8700	3.8697	1.1499	28.65	3.94	0.750			
0.3661	23428.35	3.8670	3.8671	1.1533	28.65	3.94	0.750			
0.3696	23651.34	3.8640	3.8641	1.1567	28.66	3.95	0.750			
0.3730	23875.06	3.8610	3.8611	1.1600	28.66	3.95	0.750			
0.3765	24095.48	3.8580	3.8582	1.1620	28.66	3.95	0.750			
0.3800	24318.23	3.8550	3.8550	1.1723	28.66	3.95	0.750			
0.3835	24542.39	3.8520	3.8521	1.1923	28.67	3.96	0.750			
0.3871	24774.35	3.8490	3.8488	1.2069	28.67	3.96	0.750			
0.3908	25008.40	3.8460	3.8460	1.2154	28.67	3.96	0.750			
0.3945	25246.14	3.8430	3.8430	1.2338	28.66	3.95	0.750			
0.3982	25486.60	3.8400	3.8401	1.2422	28.65	3.94	0.750			
0.4019	25723.45	3.8370	3.8370	1.2497	28.64	3.93	0.750			
0.4056	25959.21	3.8340	3.8341	1.2656	28.63	3.92	0.750			
0.4094	26201.74	3.8310	3.8311	1.2886	28.61	3.90	0.750			
0.4134	26454.80	3.8280	3.8278	1.3092	28.60	3.89	0.750			
0.4173	26708.76	3.8250	3.8251	1.3285	28.59	3.88	0.750			
0.4213	26963.48	3.8220	3.8221	1.3623	28.58	3.87	0.750			
0.4255	27230.09	3.8190	3.8187	1.3910	28.57	3.86	0.750			
0.4296	27497.03	3.8160	3.8161	1.4190	28.55	3.84	0.750			
0.4339	27772.72	3.8130	3.8130	1.4563	28.54	3.83	0.750			
0.4384	28057.78	3.8100	3.8100	1.4809	28.52	3.81	0.750			
0.4429	28343.94	3.8070	3.8069	1.5011	28.48	3.77	0.750			
0.4474	28635.68	3.8040	3.8041	1.5221	28.44	3.73	0.750			
0.4519	28923.10	3.8010	3.8012	1.5590	28.41	3.70	0.750			
0.4567	29226.18	3.7980	3.7979	1.6047	28.37	3.66	0.750			
0.4616	29539.73	3.7950	3.7950	1.6432	28.34	3.63	0.750			
0.4666	29861.53	3.7920	3.7919	1.6941	28.30	3.59	0.750			
0.4719	30198.74	3.7890	3.7890	1.7129	28.25	3.54	0.750			
0.4771	30534.25	3.7860	3.7861	1.7377	28.21	3.50	0.750			
0.4824	30870.63	3.7830	3.7829	1.7758	28.15	3.44	0.750			
0.4875	31200.92	3.7800	3.7799	1.8070	28.10	3.39	0.750			
0.4931	31556.24	3.7770	3.7769	1.8390	28.05	3.34	0.750			
0.4986	31913.51	3.7740	3.7743	1.8861	27.99	3.28	0.750			
0.5044	32282.63	3.7710	3.7711	1.9098	27.93	3.22	0.750			
0.5102	32653.42	3.7680	3.7678	1.9258	27.88	3.17	0.750			
0.5158	33012.79	3.7650	3.7653	1.9770	27.82	3.11	0.750			
0.5219	33400.15	3.7620	3.7621	2.0567	27.74	3.03	0.750			
0.5283	33811.95	3.7590	3.7588	2.1399	27.67	2.96	0.750			
0.5350	34237.10	3.7560	3.7562	2.1429	27.59	2.88	0.750			
0.5416	34660.04	3.7530	3.7529	2.1584	27.52	2.81	0.750			
0.5478	35059.17	3.7500	3.7499	2.1762	27.44	2.73	0.750			
0.5542	35465.94	3.7470	3.7468	2.2529	27.36	2.65	0.750			
0.5610	35905.07	3.7440	3.7440	2.3577	27.26	2.55	0.750			
0.5685	36383.52	3.7410	3.7410	2.4680	27.18	2.47	0.750			
0.5760	36866.63	3.7380	3.7379	2.5150	27.06	2.35	0.750			
0.5836	37350.04	3.7350	3.7349	2.5276	26.98	2.27	0.750			
0.5913	37843.06	3.7320	3.7320	2.6217	26.88	2.17	0.750			
0.5992	38347.13	3.7290	3.7290	2.6983	26.77	2.06	0.750			
0.6074	38870.55	3.7260	3.7262	2.7655	26.68	1.97	0.750			
0.6159	39415.84	3.7230	3.7231	2.9382	26.57	1.86	0.750			
0.6248	39987.47	3.7200	3.7200	3.0595	26.44	1.73	0.750			
0.6344	40598.68	3.7170	3.7170	3.1776	26.32	1.61	0.750			
0.6441	41220.28	3.7140	3.7140	3.2946	26.18	1.47	0.750			
0.6542	41870.55	3.7110	3.7108	3.6101	26.02	1.31	0.750			
0.6656	42599.29	3.7080	3.7081	3.6946	25.85	1.14	0.750			
0.6768	43312.22	3.7050	3.7050	3.7545	25.67	0.96	0.750			
0.6879	44022.72	3.7020	3.7019	3.6992	25.49	0.78	0.750			
0.6994	44764.20	3.6990	3.6990	3.7013	25.31	0.60	0.750			
0.7100	45438.72	3.6960	3.6960	3.2583	25.15	0.44	0.750			
0.7193	46035.63	3.6930	3.6932	2.8674	25.03	0.32	0.750			
0.7270	46525.69	3.6900	3.6901	2.3915	24.94	0.23	0.750			
0.7334	46935.59	3.6870	3.6871	2.0117	24.87	0.16	0.750			
0.7389	47288.01	3.6840	3.6838	1.6593	24.81	0.10	0.750			
0.7430	47551.67	3.6810	3.6810	1.3757	24.78	0.07	0.750			
0.7464	47772.53	3.6780	3.6779	1.1270	24.75	0.04	0.750			
0.7492	47949.79	3.6750	3.6748	0.9332	24.72	0.01	0.750			
0.7517	48110.07	3.6720	3.6721	0.7875	24.70	-0.01	0.750			
0.7538	48241.79	3.6690	3.6691	0.6714	24.68	-0.03	0.750			
0.7556	48358.12	3.6660	3.6659	0.5762	24.66	-0.05	0.750			
0.7571	48453.85	3.6630	3.6630	0.4900	24.65	-0.06	0.750			
0.7584	48537.25	3.6600	3.6600	0.4175	24.64	-0.07	0.750			
0.7595	48610.70	3.6570	3.6570	0.3580	24.63	-0.08	0.750			
0.7605	48674.43	3.6540	3.6539	0.3022	24.62	-0.09	0.750			
0.7614	48726.81	3.6510	3.6510	0.2454	24.61	-0.10	0.750			
0.7620	48768.07	3.6480	3.6479	0.1905	24.61	-0.10	0.750			
0.7625	48799.44	3.6450	3.6452	0.1427	24.60	-0.11	0.750			
