Ah_balance (normalized)	Ah_balance (mAh)	Voltage - fit (V)	Voltage -  interpolate (V)	dQ/dV (1/V)	Temperature (°C)	Temperature - diff (°C)	Current (C)	R_DC 0ms (mOhm)	R_DC 50ms (mOhm)	R_DC 50 ms PEC (mOhm)
0.0001	6.31	4.1790	4.1789	-0.1302	25.58	0.00	-0.250			
0.0007	43.53	4.1760	4.1758	-0.2491	25.58	-0.00	-0.250			
0.0016	102.27	4.1730	4.1729	-0.3470	25.58	-0.00	-0.250			
0.0028	181.10	4.1700	4.1699	-0.4304	25.57	-0.01	-0.250			
0.0043	274.61	4.1670	4.1671	-0.4917	25.57	-0.01	-0.250			
0.0060	381.58	4.1640	4.1640	-0.5481	25.57	-0.01	-0.250			
0.0078	496.24	4.1610	4.1612	-0.5845	25.56	-0.02	-0.250			
0.0096	612.92	4.1580	4.1581	-0.6070	25.56	-0.02	-0.250			
0.0114	732.52	4.1550	4.1550	-0.6216	25.57	-0.01	-0.250			
0.0133	853.79	4.1520	4.1520	-0.6350	25.57	-0.01	-0.250			
0.0153	977.79	4.1490	4.1491	-0.6446	25.56	-0.02	-0.250			
0.0172	1101.47	4.1460	4.1459	-0.6512	25.55	-0.03	-0.250			
0.0192	1227.29	4.1430	4.1432	-0.6590	25.54	-0.04	-0.250	0.403	0.535	
0.0212	1355.53	4.1400	4.1398	-0.6678	25.53	-0.05	-0.250			
0.0232	1483.82	4.1370	4.1371	-0.6750	25.52	-0.06	-0.250			
0.0252	1614.25	4.1340	4.1341	-0.6855	25.50	-0.08	-0.250			
0.0273	1746.89	4.1310	4.1308	-0.6949	25.48	-0.10	-0.250			
0.0294	1881.32	4.1280	4.1281	-0.6963	25.46	-0.12	-0.250			
0.0315	2016.74	4.1250	4.1252	-0.7035	25.45	-0.13	-0.250			
0.0337	2153.63	4.1220	4.1218	-0.7052	25.44	-0.14	-0.250			
0.0357	2287.57	4.1190	4.1190	-0.7047	25.43	-0.15	-0.250			
0.0379	2422.83	4.1160	4.1161	-0.7107	25.42	-0.16	-0.250			
0.0400	2559.10	4.1130	4.1129	-0.7164	25.41	-0.17	-0.250	0.488	0.543	
0.0421	2696.36	4.1100	4.1101	-0.7191	25.41	-0.17	-0.250			
0.0443	2837.45	4.1070	4.1071	-0.7256	25.40	-0.18	-0.250			
0.0465	2977.71	4.1040	4.1040	-0.7306	25.40	-0.18	-0.250			
0.0487	3117.97	4.1010	4.1009	-0.7312	25.40	-0.18	-0.250			
0.0509	3258.22	4.0980	4.0981	-0.7299	25.40	-0.18	-0.250			
0.0531	3398.23	4.0950	4.0951	-0.7336	25.39	-0.19	-0.250			
0.0553	3538.12	4.0920	4.0919	-0.7363	25.39	-0.19	-0.250			
0.0575	3680.07	4.0890	4.0890	-0.7417	25.40	-0.18	-0.250			
0.0597	3823.03	4.0860	4.0862	-0.7447	25.40	-0.18	-0.250	0.450	0.552	
0.0620	3966.89	4.0830	4.0830	-0.7525	25.40	-0.18	-0.250			
0.0642	4111.08	4.0800	4.0800	-0.7530	25.40	-0.18	-0.250			
0.0665	4257.49	4.0770	4.0770	-0.7571	25.40	-0.18	-0.250			
0.0688	4402.89	4.0740	4.0741	-0.7555	25.38	-0.20	-0.250			
0.0711	4547.58	4.0710	4.0709	-0.7605	25.36	-0.22	-0.250			
0.0733	4693.83	4.0680	4.0680	-0.7657	25.35	-0.23	-0.250			
0.0756	4841.60	4.0650	4.0650	-0.7640	25.35	-0.23	-0.250			
0.0779	4988.26	4.0620	4.0620	-0.7693	25.34	-0.24	-0.250			
0.0802	5135.72	4.0590	4.0592	-0.7713	25.33	-0.25	-0.250	0.468	0.541	
0.0826	5283.98	4.0560	4.0558	-0.7775	25.32	-0.26	-0.250			
0.0849	5434.54	4.0530	4.0531	-0.7798	25.32	-0.26	-0.250			
0.0873	5584.57	4.0500	4.0500	-0.7824	25.34	-0.24	-0.250			
0.0896	5734.71	4.0470	4.0469	-0.7888	25.34	-0.24	-0.250			
0.0920	5887.45	4.0440	4.0439	-0.7907	25.33	-0.25	-0.250			
0.0944	6040.04	4.0410	4.0411	-0.7956	25.34	-0.24	-0.250			
0.0968	6192.55	4.0380	4.0380	-0.7966	25.34	-0.24	-0.250			
0.0992	6345.91	4.0350	4.0349	-0.8013	25.33	-0.25	-0.250	0.380	0.547	
0.1016	6501.25	4.0320	4.0321	-0.8063	25.32	-0.26	-0.250			
0.1040	6656.68	4.0290	4.0290	-0.8097	25.32	-0.26	-0.250			
0.1064	6811.92	4.0260	4.0262	-0.8092	25.32	-0.26	-0.250			
0.1089	6967.52	4.0230	4.0229	-0.8131	25.31	-0.27	-0.250			
0.1113	7123.76	4.0200	4.0199	-0.8212	25.33	-0.25	-0.250			
0.1138	7281.32	4.0170	4.0170	-0.8255	25.35	-0.23	-0.250			
0.1163	7440.49	4.0140	4.0141	-0.8323	25.37	-0.21	-0.250			
0.1188	7600.53	4.0110	4.0110	-0.8327	25.39	-0.19	-0.250			
0.1213	7762.72	4.0080	4.0079	-0.8349	25.40	-0.18	-0.250	0.435	0.534	
0.1238	7923.25	4.0050	4.0049	-0.8384	25.43	-0.15	-0.250			
0.1263	8083.20	4.0020	4.0021	-0.8409	25.44	-0.14	-0.250			
0.1288	8244.06	3.9990	3.9990	-0.8435	25.45	-0.13	-0.250			
0.1313	8406.03	3.9960	3.9961	-0.8499	25.45	-0.13	-0.250			
0.1339	8570.40	3.9930	3.9929	-0.8531	25.44	-0.14	-0.250			
0.1365	8736.85	3.9900	3.9899	-0.8610	25.43	-0.15	-0.250			
0.1391	8902.82	3.9870	3.9869	-0.8636	25.41	-0.17	-0.250	0.383	0.507	
0.1417	9068.66	3.9840	3.9839	-0.8652	25.40	-0.18	-0.250			
0.1443	9233.63	3.9810	3.9811	-0.8652	25.39	-0.19	-0.250			
0.1469	9399.48	3.9780	3.9781	-0.8679	25.39	-0.19	-0.250			
0.1495	9566.55	3.9750	3.9749	-0.8722	25.41	-0.17	-0.250			
0.1521	9735.11	3.9720	3.9719	-0.8797	25.44	-0.14	-0.250			
0.1548	9905.42	3.9690	3.9690	-0.8840	25.48	-0.10	-0.250			
0.1574	10076.29	3.9660	3.9660	-0.8890	25.51	-0.07	-0.250			
0.1601	10246.23	3.9630	3.9630	-0.8889	25.53	-0.05	-0.250	0.341	0.499	
0.1628	10416.74	3.9600	3.9600	-0.8925	25.54	-0.04	-0.250			
0.1654	10588.24	3.9570	3.9570	-0.8962	25.55	-0.03	-0.250			
0.1682	10762.32	3.9540	3.9539	-0.8974	25.57	-0.01	-0.250			
0.1708	10933.96	3.9510	3.9509	-0.9029	25.60	0.02	-0.250			
0.1736	11108.71	3.9480	3.9480	-0.9067	25.61	0.03	-0.250			
0.1763	11281.65	3.9450	3.9450	-0.9119	25.62	0.04	-0.250			
0.1790	11456.48	3.9420	3.9420	-0.9149	25.64	0.06	-0.250	0.457	0.505	
0.1818	11633.23	3.9390	3.9389	-0.9157	25.64	0.06	-0.250			
0.1845	11810.45	3.9360	3.9361	-0.9202	25.64	0.06	-0.250			
0.1873	11988.81	3.9330	3.9331	-0.9235	25.66	0.08	-0.250			
0.1901	12164.42	3.9300	3.9299	-0.9223	25.67	0.09	-0.250			
0.1928	12341.17	3.9270	3.9269	-0.9250	25.68	0.10	-0.250			
0.1956	12519.49	3.9240	3.9240	-0.9287	25.67	0.09	-0.250			
0.1984	12700.66	3.9210	3.9209	-0.9307	25.66	0.08	-0.250			
0.2012	12878.39	3.9180	3.9180	-0.9307	25.66	0.08	-0.250	0.322	0.501	
0.2040	13056.76	3.9150	3.9151	-0.9315	25.65	0.07	-0.250			
0.2068	13236.17	3.9120	3.9120	-0.9344	25.63	0.05	-0.250			
0.2096	13414.54	3.9090	3.9091	-0.9339	25.61	0.03	-0.250			
0.2124	13593.87	3.9060	3.9061	-0.9378	25.57	-0.01	-0.250			
0.2152	13775.57	3.9030	3.9030	-0.9452	25.55	-0.03	-0.250			
0.2181	13957.26	3.9000	3.8998	-0.9491	25.53	-0.05	-0.250			
0.2209	14140.24	3.8970	3.8969	-0.9475	25.50	-0.08	-0.250	0.414	0.526	
0.2238	14323.65	3.8940	3.8939	-0.9482	25.50	-0.08	-0.250			
0.2266	14505.50	3.8910	3.8910	-0.9484	25.49	-0.09	-0.250			
0.2295	14686.32	3.8880	3.8880	-0.9478	25.48	-0.10	-0.250			
0.2323	14868.86	3.8850	3.8850	-0.9497	25.49	-0.09	-0.250			
0.2352	15050.60	3.8820	3.8821	-0.9544	25.51	-0.07	-0.250			
0.2380	15234.58	3.8790	3.8791	-0.9593	25.52	-0.06	-0.250			
0.2410	15420.98	3.8760	3.8761	-0.9651	25.56	-0.02	-0.250	0.451	0.528	
0.2439	15606.56	3.8730	3.8731	-0.9652	25.58	0.00	-0.250			
0.2467	15791.62	3.8700	3.8700	-0.9678	25.60	0.02	-0.250			
0.2496	15977.29	3.8670	3.8670	-0.9671	25.61	0.03	-0.250			
0.2525	16163.14	3.8640	3.8639	-0.9676	25.64	0.06	-0.250			
0.2554	16348.63	3.8610	3.8609	-0.9656	25.67	0.09	-0.250			
0.2584	16534.45	3.8580	3.8579	-0.9641	25.68	0.10	-0.250			
0.2613	16720.00	3.8550	3.8551	-0.9657	25.70	0.12	-0.250	0.455	0.543	
0.2641	16905.24	3.8520	3.8519	-0.9638	25.71	0.13	-0.250			
0.2670	17089.90	3.8490	3.8490	-0.9599	25.70	0.12	-0.250			
0.2699	17274.72	3.8460	3.8460	-0.9598	25.71	0.13	-0.250			
0.2728	17459.51	3.8430	3.8431	-0.9620	25.72	0.14	-0.250			
0.2757	17643.60	3.8400	3.8400	-0.9584	25.72	0.14	-0.250			
0.2785	17827.06	3.8370	3.8370	-0.9578	25.73	0.15	-0.250			
0.2814	18011.29	3.8340	3.8342	-0.9611	25.72	0.14	-0.250	0.440	0.543	
0.2843	18196.25	3.8310	3.8311	-0.9647	25.70	0.12	-0.250			
0.2872	18381.45	3.8280	3.8280	-0.9664	25.71	0.13	-0.250			
0.2901	18567.02	3.8250	3.8250	-0.9632	25.69	0.11	-0.250			
0.2930	18753.21	3.8220	3.8219	-0.9663	25.68	0.10	-0.250			
0.2959	18939.62	3.8190	3.8189	-0.9620	25.68	0.10	-0.250			
0.2988	19123.19	3.8160	3.8159	-0.9592	25.68	0.10	-0.250	0.455	0.549	
0.3017	19307.77	3.8130	3.8131	-0.9557	25.68	0.10	-0.250			
0.3045	19490.62	3.8100	3.8100	-0.9468	25.69	0.11	-0.250			
0.3074	19671.98	3.8070	3.8071	-0.9446	25.70	0.12	-0.250			
0.3102	19852.35	3.8040	3.8041	-0.9391	25.70	0.12	-0.250			
0.3130	20033.01	3.8010	3.8010	-0.9352	25.70	0.12	-0.250			
0.3158	20211.22	3.7980	3.7982	-0.9251	25.70	0.12	-0.250			
0.3186	20389.73	3.7950	3.7950	-0.9198	25.69	0.11	-0.250			
0.3214	20567.06	3.7920	3.7919	-0.9093	25.67	0.09	-0.250	0.459	0.517	
0.3241	20740.40	3.7890	3.7889	-0.8985	25.65	0.07	-0.250			
0.3267	20910.67	3.7860	3.7859	-0.8905	25.63	0.05	-0.250			
0.3294	21079.90	3.7830	3.7830	-0.8838	25.62	0.04	-0.250			
0.3320	21248.60	3.7800	3.7800	-0.8792	25.61	0.03	-0.250			
0.3347	21417.64	3.7770	3.7770	-0.8725	25.59	0.01	-0.250			
0.3373	21585.21	3.7740	3.7741	-0.8637	25.56	-0.02	-0.250			
0.3399	21752.18	3.7710	3.7709	-0.8649	25.55	-0.03	-0.250	0.389	0.507	
0.3424	21916.78	3.7680	3.7679	-0.8612	25.55	-0.03	-0.250			
0.3450	22080.39	3.7650	3.7650	-0.8557	25.56	-0.02	-0.250			
0.3476	22244.42	3.7620	3.7621	-0.8550	25.56	-0.02	-0.250			
0.3501	22408.65	3.7590	3.7591	-0.8535	25.56	-0.02	-0.250			
0.3527	22572.51	3.7560	3.7560	-0.8527	25.55	-0.03	-0.250			
0.3552	22735.90	3.7530	3.7529	-0.8531	25.54	-0.04	-0.250			
0.3578	22899.28	3.7500	3.7499	-0.8559	25.54	-0.04	-0.250			
0.3604	23062.97	3.7470	3.7471	-0.8620	25.55	-0.03	-0.250	0.467	0.521	
0.3629	23227.64	3.7440	3.7440	-0.8717	25.56	-0.02	-0.250			
0.3656	23395.45	3.7410	3.7411	-0.8815	25.55	-0.03	-0.250			
0.3682	23566.69	3.7380	3.7379	-0.8903	25.54	-0.04	-0.250			
0.3709	23738.22	3.7350	3.7349	-0.9094	25.53	-0.05	-0.250			
0.3737	23914.01	3.7320	3.7319	-0.9255	25.51	-0.07	-0.250			
0.3765	24093.48	3.7290	3.7289	-0.9467	25.49	-0.09	-0.250			
0.3793	24275.39	3.7260	3.7261	-0.9678	25.46	-0.12	-0.250	0.400	0.512	
0.3822	24463.22	3.7230	3.7230	-0.9949	25.42	-0.16	-0.250			
0.3853	24657.68	3.7200	3.7200	-1.0238	25.38	-0.20	-0.250			
0.3884	24856.43	3.7170	3.7171	-1.0535	25.35	-0.23	-0.250			
0.3916	25061.93	3.7140	3.7141	-1.0859	25.28	-0.30	-0.250			
0.3949	25274.22	3.7110	3.7110	-1.1159	25.24	-0.34	-0.250			
0.3983	25490.75	3.7080	3.7080	-1.1496	25.21	-0.37	-0.250			
0.4018	25713.84	3.7050	3.7049	-1.1842	25.18	-0.40	-0.250	0.430	0.523	
0.4054	25943.82	3.7020	3.7019	-1.2250	25.14	-0.44	-0.250			
0.4091	26182.18	3.6990	3.6990	-1.2587	25.12	-0.46	-0.250			
0.4130	26429.14	3.6960	3.6961	-1.2976	25.11	-0.47	-0.250			
0.4169	26680.94	3.6930	3.6930	-1.3351	25.13	-0.45	-0.250			
0.4210	26942.14	3.6900	3.6899	-1.3760	25.16	-0.42	-0.250	0.443	0.534	
0.4252	27209.61	3.6870	3.6870	-1.4109	25.18	-0.40	-0.250			
0.4294	27484.02	3.6840	3.6840	-1.4476	25.18	-0.40	-0.250			
0.4338	27764.64	3.6810	3.6810	-1.4844	25.18	-0.40	-0.250			
0.4383	28054.36	3.6780	3.6781	-1.5225	25.19	-0.39	-0.250	0.420	0.550	
0.4430	28350.10	3.6750	3.6749	-1.5597	25.17	-0.41	-0.250			
0.4477	28652.26	3.6720	3.6720	-1.6034	25.16	-0.42	-0.250			
0.4526	28965.08	3.6690	3.6690	-1.6480	25.16	-0.42	-0.250			
0.4576	29285.94	3.6660	3.6659	-1.6966	25.19	-0.39	-0.250			
0.4627	29613.57	3.6630	3.6632	-1.7488	25.24	-0.34	-0.250	0.491	0.552	
0.4680	29952.84	3.6600	3.6599	-1.8011	25.26	-0.32	-0.250			
0.4735	30305.66	3.6570	3.6569	-1.8565	25.26	-0.32	-0.250			
0.4792	30668.55	3.6540	3.6540	-1.9057	25.24	-0.34	-0.250	0.389	0.550	
0.4850	31041.11	3.6510	3.6511	-1.9608	25.25	-0.33	-0.250			
0.4909	31420.70	3.6480	3.6481	-2.0251	25.25	-0.33	-0.250			
0.4971	31813.29	3.6450	3.6450	-2.0859	25.25	-0.33	-0.250			
0.5034	32219.41	3.6420	3.6419	-2.1486	25.28	-0.30	-0.250	0.388	0.536	
0.5100	32638.70	3.6390	3.6391	-2.2154	25.28	-0.30	-0.250			
0.5167	33071.41	3.6360	3.6359	-2.2913	25.24	-0.34	-0.250			
0.5237	33517.28	3.6330	3.6329	-2.3620	25.23	-0.35	-0.250	0.405	0.530	
0.5309	33974.98	3.6300	3.6300	-2.4337	25.23	-0.35	-0.250			
0.5383	34449.08	3.6270	3.6270	-2.5227	25.29	-0.29	-0.250	0.325	0.529	
0.5460	34942.16	3.6240	3.6239	-2.5950	25.34	-0.24	-0.250			
0.5539	35448.69	3.6210	3.6211	-2.6709	25.40	-0.18	-0.250			
0.5620	35970.77	3.6180	3.6182	-2.7369	25.44	-0.14	-0.250	0.463	0.545	
0.5703	36501.56	3.6150	3.6150	-2.8025	25.43	-0.15	-0.250			
0.5789	37047.95	3.6120	3.6121	-2.8455	25.40	-0.18	-0.250	0.407	0.549	
0.5875	37602.22	3.6090	3.6091	-2.8871	25.43	-0.15	-0.250			
0.5962	38157.62	3.6060	3.6060	-2.9029	25.42	-0.16	-0.250	0.461	0.577	
0.6050	38721.66	3.6030	3.6029	-2.9109	25.44	-0.14	-0.250			
0.6138	39281.46	3.6000	3.5999	-2.8900	25.44	-0.14	-0.250			
0.6225	39836.99	3.5970	3.5972	-2.8659	25.37	-0.21	-0.250	0.468	0.568	
0.6309	40380.43	3.5940	3.5941	-2.8200	25.31	-0.27	-0.250			
0.6393	40918.35	3.5910	3.5909	-2.7778	25.25	-0.33	-0.250	0.474	0.571	
0.6477	41451.15	3.5880	3.5880	-2.7264	25.25	-0.33	-0.250			
0.6558	41969.38	3.5850	3.5850	-2.6582	25.25	-0.33	-0.250			
0.6637	42476.97	3.5820	3.5820	-2.5822	25.31	-0.27	-0.250	0.444	0.570	
0.6713	42964.90	3.5790	3.5790	-2.4775	25.35	-0.23	-0.250			
0.6786	43432.13	3.5760	3.5761	-2.3750	25.42	-0.16	-0.250	0.402	0.550	
0.6856	43881.15	3.5730	3.5730	-2.2656	25.43	-0.15	-0.250			
0.6923	44305.79	3.5700	3.5699	-2.1467	25.38	-0.20	-0.250			
0.6985	44705.58	3.5670	3.5671	-2.0289	25.33	-0.25	-0.250	0.443	0.547	
0.7044	45081.11	3.5640	3.5640	-1.9271	25.30	-0.28	-0.250			
0.7100	45441.70	3.5610	3.5610	-1.8311	25.34	-0.24	-0.250			
0.7153	45779.41	3.5580	3.5580	-1.7445	25.42	-0.16	-0.250			
0.7204	46104.28	3.5550	3.5550	-1.6752	25.51	-0.07	-0.250	0.478	0.559	
0.7253	46420.00	3.5520	3.5520	-1.6190	25.58	0.00	-0.250			
0.7300	46722.65	3.5490	3.5489	-1.5649	25.65	0.07	-0.250			
0.7346	47015.43	3.5460	3.5462	-1.5231	25.71	0.13	-0.250			
0.7391	47304.92	3.5430	3.5429	-1.4954	25.76	0.18	-0.250	0.445	0.574	
0.7436	47588.93	3.5400	3.5401	-1.4593	25.79	0.21	-0.250			
0.7479	47867.29	3.5370	3.5371	-1.4249	25.81	0.23	-0.250			
0.7522	48139.72	3.5340	3.5339	-1.3846	25.83	0.25	-0.250			
0.7563	48404.17	3.5310	3.5311	-1.3334	25.83	0.25	-0.250			
0.7603	48656.65	3.5280	3.5280	-1.2692	25.83	0.25	-0.250	0.409	0.563	
0.7639	48892.49	3.5250	3.5250	-1.2027	25.83	0.25	-0.250			
0.7675	49117.05	3.5220	3.5220	-1.1399	25.84	0.26	-0.250			
0.7707	49327.82	3.5190	3.5188	-1.0813	25.83	0.25	-0.250			
0.7739	49527.07	3.5160	3.5159	-1.0325	25.84	0.26	-0.250			
0.7769	49719.57	3.5130	3.5129	-0.9910	25.84	0.26	-0.250			
0.7798	49905.69	3.5100	3.5099	-0.9637	25.85	0.27	-0.250	0.469	0.595	
0.7826	50086.51	3.5070	3.5069	-0.9435	25.86	0.28	-0.250			
0.7854	50264.01	3.5040	3.5040	-0.9287	25.86	0.28	-0.250			
0.7881	50441.40	3.5010	3.5010	-0.9152	25.86	0.28	-0.250			
0.7909	50617.20	3.4980	3.4981	-0.9030	25.84	0.26	-0.250			
0.7936	50789.85	3.4950	3.4951	-0.8884	25.85	0.27	-0.250			
0.7963	50960.86	3.4920	3.4920	-0.8730	25.86	0.28	-0.250			
0.7988	51126.02	3.4890	3.4889	-0.8568	25.87	0.29	-0.250			
0.8014	51286.52	3.4860	3.4861	-0.8480	25.88	0.30	-0.250	0.434	0.593	
0.8038	51444.40	3.4830	3.4830	-0.8534	25.88	0.30	-0.250			
0.8063	51601.84	3.4800	3.4801	-0.8764	25.89	0.31	-0.250			
0.8088	51762.62	3.4770	3.4771	-0.9455	25.90	0.32	-0.250			
0.8115	51933.09	3.4740	3.4740	-1.0715	25.93	0.35	-0.250			
0.8147	52140.35	3.4710	3.4709	-1.2600	25.95	0.37	-0.250			
0.8188	52403.26	3.4680	3.4679	-1.4711	25.95	0.37	-0.250	0.453	0.601	
0.8237	52718.39	3.4650	3.4649	-1.6611	25.93	0.35	-0.250			
0.8293	53073.14	3.4620	3.4620	-1.8033	25.88	0.30	-0.250			
0.8351	53443.62	3.4590	3.4591	-1.8697	25.85	0.27	-0.250			
0.8409	53814.91	3.4560	3.4560	-1.8603	25.84	0.26	-0.250	0.476	0.625	
0.8464	54172.56	3.4530	3.4530	-1.8137	25.82	0.24	-0.250			
0.8518	54517.45	3.4500	3.4499	-1.7407	25.78	0.20	-0.250			
0.8570	54848.49	3.4470	3.4470	-1.6570	25.75	0.17	-0.250			
0.8619	55158.75	3.4440	3.4439	-1.5601	25.74	0.16	-0.250	0.442	0.612	
0.8664	55448.40	3.4410	3.4410	-1.4567	25.72	0.14	-0.250			
0.8706	55720.45	3.4380	3.4379	-1.3592	25.70	0.12	-0.250			
0.8745	55969.54	3.4350	3.4351	-1.2533	25.70	0.12	-0.250			
0.8782	56202.95	3.4320	3.4321	-1.1531	25.68	0.10	-0.250			
0.8815	56413.11	3.4290	3.4289	-1.0516	25.71	0.13	-0.250	0.434	0.610	
0.8845	56605.31	3.4260	3.4261	-0.9541	25.74	0.16	-0.250			
0.8871	56777.33	3.4230	3.4229	-0.8673	25.75	0.17	-0.250			
0.8896	56932.11	3.4200	3.4199	-0.7848	25.78	0.20	-0.250			
0.8918	57074.57	3.4170	3.4169	-0.7095	25.80	0.22	-0.250			
0.8938	57203.13	3.4140	3.4141	-0.6452	25.80	0.22	-0.250			
0.8956	57318.03	3.4110	3.4108	-0.5835	25.80	0.22	-0.250			
0.8972	57422.75	3.4080	3.4081	-0.5280	25.81	0.23	-0.250			
0.8987	57518.59	3.4050	3.4048	-0.4799	25.83	0.25	-0.250			
0.9001	57604.45	3.4020	3.4022	-0.4376	25.84	0.26	-0.250			
0.9013	57683.59	3.3990	3.3990	-0.4027	25.84	0.26	-0.250	0.428	0.639	
0.9024	57756.42	3.3960	3.3959	-0.3706	25.84	0.26	-0.250			
0.9035	57822.73	3.3930	3.3930	-0.3441	25.84	0.26	-0.250			
0.9044	57883.88	3.3900	3.3901	-0.3185	25.84	0.26	-0.250			
0.9054	57943.38	3.3870	3.3870	-0.3020	25.85	0.27	-0.250			
0.9062	57998.87	3.3840	3.3840	-0.2852	25.86	0.28	-0.250			
0.9071	58051.48	3.3810	3.3811	-0.2726	25.86	0.28	-0.250			
0.9079	58102.58	3.3780	3.3780	-0.2629	25.87	0.29	-0.250			
0.9086	58151.19	3.3750	3.3750	-0.2530	25.87	0.29	-0.250			
0.9094	58198.68	3.3720	3.3719	-0.2451	25.87	0.29	-0.250			
0.9101	58244.72	3.3690	3.3690	-0.2394	25.87	0.29	-0.250			
0.9108	58290.14	3.3660	3.3660	-0.2333	25.88	0.30	-0.250			
0.9115	58334.39	3.3630	3.3630	-0.2282	25.88	0.30	-0.250			
0.9122	58377.69	3.3600	3.3600	-0.2228	25.88	0.30	-0.250			
0.9128	58419.62	3.3570	3.3570	-0.2181	25.88	0.30	-0.250			
0.9135	58460.96	3.3540	3.3540	-0.2144	25.88	0.30	-0.250			
0.9141	58501.32	3.3510	3.3510	-0.2105	25.89	0.31	-0.250			
0.9147	58541.49	3.3480	3.3480	-0.2075	25.89	0.31	-0.250			
0.9153	58580.80	3.3450	3.3450	-0.2044	25.89	0.31	-0.250			
0.9159	58619.98	3.3420	3.3420	-0.2020	25.90	0.32	-0.250			
0.9165	58658.48	3.3390	3.3390	-0.1992	25.90	0.32	-0.250			
0.9171	58696.46	3.3360	3.3360	-0.1964	25.90	0.32	-0.250			
0.9177	58733.91	3.3330	3.3330	-0.1937	25.90	0.32	-0.250			
0.9183	58770.55	3.3300	3.3300	-0.1917	25.90	0.32	-0.250			
0.9189	58807.03	3.3270	3.3270	-0.1893	25.90	0.32	-0.250			
0.9194	58843.45	3.3240	3.3240	-0.1867	25.90	0.32	-0.250			
0.9200	58879.24	3.3210	3.3209	-0.1844	25.90	0.32	-0.250			
0.9205	58914.52	3.3180	3.3179	-0.1816	25.90	0.32	-0.250	0.466	0.684	
0.9211	58949.17	3.3150	3.3150	-0.1791	25.90	0.32	-0.250			
0.9216	58983.11	3.3120	3.3119	-0.1766	25.91	0.33	-0.250			
0.9221	59016.71	3.3090	3.3090	-0.1739	25.92	0.34	-0.250			
0.9226	59049.27	3.3060	3.3060	-0.1718	25.92	0.34	-0.250			
0.9232	59082.07	3.3030	3.3030	-0.1712	25.93	0.35	-0.250			
0.9237	59115.12	3.3000	3.3000	-0.1696	25.93	0.35	-0.250			
0.9242	59147.60	3.2970	3.2970	-0.1677	25.94	0.36	-0.250			
0.9247	59179.75	3.2940	3.2940	-0.1660	25.95	0.37	-0.250			
0.9252	59211.58	3.2910	3.2910	-0.1641	25.95	0.37	-0.250			
0.9257	59242.85	3.2880	3.2880	-0.1621	25.95	0.37	-0.250			
0.9262	59273.73	3.2850	3.2850	-0.1601	25.96	0.38	-0.250			
0.9266	59304.15	3.2820	3.2820	-0.1579	25.96	0.38	-0.250			
0.9271	59334.03	3.2790	3.2790	-0.1563	25.96	0.38	-0.250			
0.9276	59364.11	3.2760	3.2760	-0.1550	25.96	0.38	-0.250			
0.9280	59393.66	3.2730	3.2730	-0.1533	25.96	0.38	-0.250			
0.9285	59422.96	3.2700	3.2699	-0.1517	25.97	0.39	-0.250			
0.9289	59451.94	3.2670	3.2670	-0.1501	25.97	0.39	-0.250			
0.9294	59480.60	3.2640	3.2640	-0.1486	25.97	0.39	-0.250			
0.9298	59509.01	3.2610	3.2610	-0.1471	25.97	0.39	-0.250			
0.9303	59537.10	3.2580	3.2580	-0.1453	25.97	0.39	-0.250			
0.9307	59564.75	3.2550	3.2550	-0.1436	25.97	0.39	-0.250			
0.9311	59592.21	3.2520	3.2520	-0.1422	25.97	0.39	-0.250			
0.9316	59619.37	3.2490	3.2490	-0.1406	25.98	0.40	-0.250			
0.9320	59646.21	3.2460	3.2460	-0.1390	25.98	0.40	-0.250			
0.9324	59672.65	3.2430	3.2430	-0.1375	25.98	0.40	-0.250			
0.9328	59698.86	3.2400	3.2400	-0.1361	25.98	0.40	-0.250			
0.9332	59724.87	3.2370	3.2370	-0.1348	25.98	0.40	-0.250			
0.9336	59750.68	3.2340	3.2340	-0.1335	25.98	0.40	-0.250			
0.9340	59776.19	3.2310	3.2310	-0.1321	25.98	0.40	-0.250			
0.9344	59801.42	3.2280	3.2281	-0.1307	25.99	0.41	-0.250			
0.9348	59826.42	3.2250	3.2250	-0.1293	25.99	0.41	-0.250			
0.9352	59851.09	3.2220	3.2220	-0.1281	25.99	0.41	-0.250			
0.9356	59875.48	3.2190	3.2190	-0.1266	25.99	0.41	-0.250			
0.9359	59899.64	3.2160	3.2160	-0.1255	25.99	0.41	-0.250			
0.9363	59923.56	3.2130	3.2130	-0.1243	25.99	0.41	-0.250			
0.9367	59947.38	3.2100	3.2100	-0.1231	26.00	0.42	-0.250			
0.9370	59970.94	3.2070	3.2070	-0.1220	26.00	0.42	-0.250			
0.9374	59994.23	3.2040	3.2041	-0.1208	26.00	0.42	-0.250			
