Ah_balance (normalized)	Ah_balance (mAh)	Voltage - fit (V)	Voltage -  interpolate (V)	dQ/dV (1/V)	Temperature (°C)	Temperature - diff (°C)	Current (C)	R_DC 0ms (mOhm)	R_DC 50ms (mOhm)	R_DC 50 ms PEC (mOhm)
0.0006	36.33	4.1630	4.1630	-0.1727	24.86	0.00	-0.750			
0.0011	73.57	4.1600	4.1597	-0.2151	24.86	-0.00	-0.750			
0.0019	119.14	4.1570	4.1570	-0.2571	24.86	-0.00	-0.750			
0.0027	172.02	4.1540	4.1541	-0.3014	24.85	-0.01	-0.750			
0.0037	234.37	4.1510	4.1510	-0.3439	24.85	-0.01	-0.750			
0.0048	304.25	4.1480	4.1480	-0.3874	24.85	-0.01	-0.750			
0.0060	382.95	4.1450	4.1450	-0.4295	24.84	-0.02	-0.750			
0.0073	468.69	4.1420	4.1421	-0.4766	24.84	-0.02	-0.750			
0.0089	568.35	4.1390	4.1389	-0.5038	24.83	-0.03	-0.750			
0.0104	667.85	4.1360	4.1359	-0.5396	24.83	-0.03	-0.750			
0.0121	775.18	4.1330	4.1331	-0.5727	24.82	-0.04	-0.750			
0.0139	889.03	4.1300	4.1299	-0.6020	24.82	-0.04	-0.750			
0.0157	1007.34	4.1270	4.1268	-0.6298	24.82	-0.04	-0.750			
0.0177	1131.76	4.1240	4.1242	-0.6538	24.81	-0.05	-0.750			
0.0197	1260.29	4.1210	4.1209	-0.6725	24.81	-0.05	-0.750			
0.0218	1395.34	4.1180	4.1180	-0.6917	24.81	-0.05	-0.750			
0.0239	1527.73	4.1150	4.1151	-0.6972	24.80	-0.06	-0.750			
0.0260	1663.57	4.1120	4.1121	-0.7063	24.80	-0.06	-0.750			
0.0281	1801.22	4.1090	4.1090	-0.7149	24.80	-0.06	-0.750			
0.0303	1936.53	4.1060	4.1060	-0.7295	24.79	-0.07	-0.750			
0.0325	2078.95	4.1030	4.1030	-0.7381	24.79	-0.07	-0.750			
0.0347	2223.34	4.1000	4.0999	-0.7466	24.79	-0.07	-0.750			
0.0370	2371.13	4.0970	4.0969	-0.7359	24.78	-0.08	-0.750			
0.0393	2517.42	4.0940	4.0938	-0.7174	24.78	-0.08	-0.750			
0.0414	2650.07	4.0910	4.0912	-0.7089	24.78	-0.08	-0.750			
0.0434	2778.83	4.0880	4.0884	-0.7094	24.77	-0.09	-0.750			
0.0455	2910.61	4.0850	4.0845	-0.7091	24.77	-0.09	-0.750			
0.0476	3047.76	4.0820	4.0817	-0.7277	24.77	-0.09	-0.750			
0.0498	3187.85	4.0790	4.0792	-0.7425	24.76	-0.10	-0.750			
0.0521	3335.09	4.0760	4.0759	-0.7640	24.76	-0.10	-0.750			
0.0545	3491.16	4.0730	4.0726	-0.7830	24.76	-0.10	-0.750			
0.0568	3637.65	4.0700	4.0702	-0.7737	24.76	-0.10	-0.750			
0.0590	3778.43	4.0670	4.0672	-0.7958	24.76	-0.10	-0.750			
0.0615	3937.66	4.0640	4.0641	-0.8260	24.76	-0.10	-0.750			
0.0641	4100.53	4.0610	4.0606	-0.8349	24.76	-0.10	-0.750			
0.0666	4262.47	4.0580	4.0581	-0.8515	24.76	-0.10	-0.750			
0.0692	4429.67	4.0550	4.0552	-0.8396	24.76	-0.10	-0.750			
0.0718	4596.05	4.0520	4.0520	-0.8377	24.76	-0.10	-0.750			
0.0743	4753.67	4.0490	4.0488	-0.8219	24.76	-0.10	-0.750			
0.0767	4905.77	4.0460	4.0461	-0.8010	24.76	-0.10	-0.750			
0.0790	5057.16	4.0430	4.0430	-0.8037	24.76	-0.10	-0.750			
0.0814	5212.48	4.0400	4.0401	-0.8015	24.76	-0.10	-0.750			
0.0839	5368.04	4.0370	4.0369	-0.8068	24.76	-0.10	-0.750			
0.0863	5520.25	4.0340	4.0340	-0.8019	24.76	-0.10	-0.750			
0.0886	5673.40	4.0310	4.0312	-0.8026	24.76	-0.10	-0.750			
0.0911	5827.86	4.0280	4.0280	-0.8051	24.76	-0.10	-0.750			
0.0935	5983.09	4.0250	4.0249	-0.8100	24.76	-0.10	-0.750			
0.0959	6138.20	4.0220	4.0221	-0.8107	24.76	-0.10	-0.750			
0.0984	6296.41	4.0190	4.0189	-0.8185	24.76	-0.10	-0.750			
0.1008	6453.02	4.0160	4.0162	-0.8180	24.76	-0.10	-0.750			
0.1033	6610.44	4.0130	4.0130	-0.8152	24.76	-0.10	-0.750			
0.1057	6767.01	4.0100	4.0100	-0.8218	24.76	-0.10	-0.750			
0.1082	6926.48	4.0070	4.0070	-0.8168	24.76	-0.10	-0.750			
0.1107	7083.66	4.0040	4.0039	-0.8187	24.76	-0.10	-0.750			
0.1131	7239.02	4.0010	4.0013	-0.8189	24.76	-0.10	-0.750			
0.1156	7395.95	3.9980	3.9979	-0.8184	24.76	-0.10	-0.750			
0.1180	7552.95	3.9950	3.9949	-0.8284	24.77	-0.09	-0.750			
0.1206	7718.83	3.9920	3.9919	-0.8104	24.77	-0.09	-0.750			
0.1230	7872.37	3.9890	3.9890	-0.8165	24.78	-0.08	-0.750			
0.1254	8026.53	3.9860	3.9865	-0.8214	24.78	-0.08	-0.750			
0.1278	8179.76	3.9830	3.9827	-0.8205	24.78	-0.08	-0.750			
0.1303	8336.52	3.9800	3.9796	-0.8331	24.78	-0.08	-0.750			
0.1327	8495.65	3.9770	3.9772	-0.8426	24.78	-0.08	-0.750			
0.1354	8666.00	3.9740	3.9739	-0.8630	24.78	-0.08	-0.750			
0.1381	8836.02	3.9710	3.9712	-0.8678	24.78	-0.08	-0.750			
0.1406	8998.39	3.9680	3.9679	-0.8487	24.78	-0.08	-0.750			
0.1432	9162.11	3.9650	3.9650	-0.8546	24.78	-0.08	-0.750			
0.1457	9325.90	3.9620	3.9620	-0.8468	24.78	-0.08	-0.750			
0.1482	9487.69	3.9590	3.9589	-0.8478	24.78	-0.08	-0.750			
0.1508	9651.79	3.9560	3.9564	-0.8488	24.78	-0.08	-0.750			
0.1533	9814.00	3.9530	3.9529	-0.8471	24.78	-0.08	-0.750			
0.1559	9975.40	3.9500	3.9499	-0.8589	24.78	-0.08	-0.750			
0.1585	10144.21	3.9470	3.9468	-0.8518	24.78	-0.08	-0.750			
0.1611	10311.98	3.9440	3.9439	-0.8402	24.78	-0.08	-0.750			
0.1636	10468.55	3.9410	3.9415	-0.8552	24.78	-0.08	-0.750			
0.1661	10629.74	3.9380	3.9380	-0.8581	24.78	-0.08	-0.750			
0.1687	10795.80	3.9350	3.9344	-0.8701	24.78	-0.08	-0.750			
0.1713	10960.69	3.9320	3.9321	-0.8751	24.79	-0.07	-0.750			
0.1740	11134.69	3.9290	3.9291	-0.8869	24.79	-0.07	-0.750			
0.1767	11308.88	3.9260	3.9260	-0.8923	24.79	-0.07	-0.750			
0.1794	11483.95	3.9230	3.9230	-0.8960	24.79	-0.07	-0.750			
0.1820	11649.37	3.9200	3.9199	-0.8754	24.79	-0.07	-0.750			
0.1846	11815.75	3.9170	3.9170	-0.8792	24.80	-0.06	-0.750			
0.1873	11987.61	3.9140	3.9139	-0.8809	24.80	-0.06	-0.750			
0.1899	12153.15	3.9110	3.9109	-0.8871	24.80	-0.06	-0.750			
0.1926	12325.36	3.9080	3.9080	-0.8886	24.80	-0.06	-0.750			
0.1953	12496.79	3.9050	3.9051	-0.8876	24.81	-0.05	-0.750			
0.1979	12667.60	3.9020	3.9019	-0.8857	24.81	-0.05	-0.750			
0.2006	12839.56	3.8990	3.8991	-0.8771	24.81	-0.05	-0.750			
0.2031	13000.87	3.8960	3.8961	-0.8803	24.81	-0.05	-0.750			
0.2058	13168.15	3.8930	3.8931	-0.8898	24.81	-0.05	-0.750			
0.2084	13337.77	3.8900	3.8891	-0.8961	24.82	-0.04	-0.750			
0.2112	13515.78	3.8870	3.8871	-0.9072	24.82	-0.04	-0.750			
0.2139	13691.76	3.8840	3.8844	-0.9125	24.82	-0.04	-0.750			
0.2168	13873.04	3.8810	3.8810	-0.9285	24.82	-0.04	-0.750			
0.2196	14053.89	3.8780	3.8779	-0.9255	24.82	-0.04	-0.750			
0.2222	14220.69	3.8750	3.8748	-0.8988	24.82	-0.04	-0.750			
0.2249	14395.11	3.8720	3.8720	-0.9051	24.82	-0.04	-0.750			
0.2276	14568.01	3.8690	3.8690	-0.9095	24.82	-0.04	-0.750			
0.2303	14742.40	3.8660	3.8659	-0.9126	24.82	-0.04	-0.750			
0.2331	14917.73	3.8630	3.8629	-0.9028	24.82	-0.04	-0.750			
0.2358	15089.86	3.8600	3.8599	-0.9035	24.82	-0.04	-0.750			
0.2386	15270.82	3.8570	3.8574	-0.8905	24.82	-0.04	-0.750			
0.2412	15439.13	3.8540	3.8537	-0.8909	24.82	-0.04	-0.750			
0.2438	15604.52	3.8510	3.8512	-0.8995	24.82	-0.04	-0.750			
0.2465	15776.63	3.8480	3.8482	-0.9089	24.82	-0.04	-0.750			
0.2492	15951.99	3.8450	3.8446	-0.9140	24.82	-0.04	-0.750			
0.2520	16131.01	3.8420	3.8423	-0.9233	24.82	-0.04	-0.750			
0.2549	16310.97	3.8390	3.8391	-0.9291	24.83	-0.03	-0.750			
0.2577	16492.66	3.8360	3.8360	-0.9283	24.83	-0.03	-0.750			
0.2604	16667.62	3.8330	3.8329	-0.9159	24.84	-0.02	-0.750			
0.2632	16843.77	3.8300	3.8305	-0.9117	24.84	-0.02	-0.750			
0.2659	17017.40	3.8270	3.8268	-0.9207	24.84	-0.02	-0.750			
0.2687	17196.86	3.8240	3.8240	-0.9131	24.84	-0.02	-0.750			
0.2714	17370.46	3.8210	3.8210	-0.9102	24.84	-0.02	-0.750			
0.2742	17548.79	3.8180	3.8179	-0.9173	24.84	-0.02	-0.750			
0.2769	17721.88	3.8150	3.8151	-0.9115	24.84	-0.02	-0.750			
0.2796	17892.77	3.8120	3.8119	-0.8953	24.84	-0.02	-0.750			
0.2822	18062.43	3.8090	3.8091	-0.9009	24.85	-0.01	-0.750			
0.2848	18230.13	3.8060	3.8062	-0.9049	24.85	-0.01	-0.750			
0.2876	18408.49	3.8030	3.8024	-0.9268	24.85	-0.01	-0.750			
0.2904	18586.16	3.8000	3.8002	-0.9351	24.85	-0.01	-0.750			
0.2933	18771.73	3.7970	3.7971	-0.9425	24.85	-0.01	-0.750			
0.2962	18958.52	3.7940	3.7940	-0.9470	24.86	-0.00	-0.750			
0.2991	19139.99	3.7910	3.7908	-0.9379	24.86	-0.00	-0.750			
0.3018	19317.36	3.7880	3.7881	-0.9335	24.86	0.00	-0.750			
0.3046	19496.60	3.7850	3.7849	-0.9405	24.86	0.00	-0.750			
0.3075	19679.81	3.7820	3.7819	-0.9352	24.87	0.01	-0.750			
0.3103	19857.48	3.7790	3.7789	-0.9284	24.87	0.01	-0.750			
0.3131	20037.60	3.7760	3.7765	-0.9354	24.87	0.01	-0.750			
0.3159	20216.60	3.7730	3.7728	-0.9340	24.87	0.01	-0.750			
0.3187	20393.73	3.7700	3.7699	-0.9164	24.87	0.01	-0.750			
0.3213	20563.83	3.7670	3.7671	-0.9171	24.88	0.02	-0.750			
0.3241	20741.85	3.7640	3.7643	-0.9370	24.88	0.02	-0.750			
0.3269	20920.81	3.7610	3.7602	-0.9514	24.88	0.02	-0.750			
0.3298	21104.22	3.7580	3.7582	-0.9648	24.88	0.02	-0.750			
0.3328	21296.29	3.7550	3.7550	-0.9662	24.89	0.03	-0.750			
0.3357	21486.46	3.7520	3.7520	-0.9771	24.89	0.03	-0.750			
0.3387	21677.14	3.7490	3.7492	-0.9760	24.89	0.03	-0.750			
0.3415	21855.08	3.7460	3.7458	-0.9652	24.89	0.03	-0.750			
0.3444	22040.66	3.7430	3.7429	-0.9642	24.89	0.03	-0.750			
0.3472	22223.27	3.7400	3.7397	-0.9550	24.90	0.04	-0.750			
0.3502	22413.62	3.7370	3.7373	-0.9680	24.90	0.04	-0.750			
0.3531	22597.03	3.7340	3.7339	-0.9726	24.90	0.04	-0.750			
0.3560	22786.30	3.7310	3.7309	-0.9610	24.90	0.04	-0.750			
0.3589	22971.39	3.7280	3.7278	-0.9511	24.90	0.04	-0.750			
0.3617	23147.31	3.7250	3.7251	-0.9460	24.90	0.04	-0.750			
0.3646	23332.74	3.7220	3.7223	-0.9521	24.90	0.04	-0.750			
0.3675	23516.94	3.7190	3.7186	-0.9813	24.90	0.04	-0.750			
0.3704	23705.90	3.7160	3.7158	-0.9882	24.90	0.04	-0.750			
0.3734	23898.59	3.7130	3.7128	-0.9898	24.90	0.04	-0.750			
0.3764	24089.91	3.7100	3.7096	-1.0214	24.90	0.04	-0.750	0.432	0.506	
0.3795	24290.39	3.7070	3.7069	-1.0343	24.90	0.04	-0.750			
0.3826	24486.56	3.7040	3.7036	-1.0445	24.91	0.05	-0.750			
0.3856	24681.09	3.7010	3.7010	-1.0435	24.91	0.05	-0.750			
0.3890	24892.82	3.6980	3.6984	-1.0895	24.91	0.05	-0.750			
0.3923	25105.20	3.6950	3.6949	-1.1092	24.91	0.05	-0.750			
0.3956	25320.22	3.6920	3.6920	-1.1229	24.90	0.04	-0.750			
0.3988	25525.88	3.6890	3.6890	-1.1446	24.90	0.04	-0.750			
0.4024	25753.05	3.6860	3.6861	-1.1825	24.90	0.04	-0.750			
0.4060	25985.23	3.6830	3.6828	-1.1969	24.90	0.04	-0.750			
0.4097	26219.95	3.6800	3.6799	-1.2123	24.89	0.03	-0.750			
0.4134	26457.09	3.6770	3.6778	-1.2661	24.89	0.03	-0.750			
0.4173	26709.33	3.6740	3.6738	-1.2750	24.88	0.02	-0.750			
0.4212	26954.91	3.6710	3.6706	-1.3119	24.88	0.02	-0.750			
0.4251	27208.41	3.6680	3.6685	-1.3221	24.87	0.01	-0.750			
0.4292	27466.94	3.6650	3.6647	-1.3499	24.87	0.01	-0.750			
0.4331	27720.58	3.6620	3.6619	-1.3931	24.86	0.00	-0.750			
0.4373	27985.43	3.6590	3.6589	-1.4035	24.86	0.00	-0.750			
0.4415	28257.53	3.6560	3.6559	-1.4749	24.85	-0.01	-0.750			
0.4460	28542.55	3.6530	3.6528	-1.5212	24.85	-0.01	-0.750			
0.4505	28833.92	3.6500	3.6505	-1.5601	24.84	-0.02	-0.750			
0.4555	29150.17	3.6470	3.6465	-1.6306	24.83	-0.03	-0.750			
0.4605	29474.51	3.6440	3.6437	-1.6635	24.82	-0.04	-0.750			
0.4656	29800.35	3.6410	3.6407	-1.6781	24.82	-0.04	-0.750			
0.4708	30128.76	3.6380	3.6376	-1.7237	24.81	-0.05	-0.750			
0.4758	30451.02	3.6350	3.6352	-1.7234	24.80	-0.06	-0.750			
0.4810	30781.19	3.6320	3.6322	-1.7808	24.80	-0.06	-0.750			
0.4866	31139.58	3.6290	3.6294	-1.8211	24.79	-0.07	-0.750			
0.4918	31477.90	3.6260	3.6258	-1.8974	24.78	-0.08	-0.750			
0.4979	31862.95	3.6230	3.6227	-1.9799	24.77	-0.09	-0.750			
0.5039	32246.41	3.6200	3.6197	-2.0571	24.77	-0.09	-0.750			
0.5104	32663.36	3.6170	3.6172	-2.1057	24.76	-0.10	-0.750			
0.5166	33064.50	3.6140	3.6142	-2.1191	24.75	-0.11	-0.750			
0.5232	33482.41	3.6110	3.6110	-2.1116	24.74	-0.12	-0.750			
0.5293	33875.68	3.6080	3.6082	-2.1191	24.73	-0.13	-0.750			
0.5356	34276.13	3.6050	3.6052	-2.1330	24.72	-0.14	-0.750			
0.5421	34691.23	3.6020	3.6017	-2.1492	24.71	-0.15	-0.750			
0.5487	35117.40	3.5990	3.5991	-2.1602	24.70	-0.16	-0.750			
0.5552	35530.46	3.5960	3.5961	-2.1901	24.70	-0.16	-0.750			
0.5618	35952.24	3.5930	3.5930	-2.2030	24.70	-0.16	-0.750			
0.5684	36376.90	3.5900	3.5897	-2.2547	24.69	-0.17	-0.750			
0.5752	36812.29	3.5870	3.5866	-2.3088	24.68	-0.18	-0.750			
0.5822	37262.73	3.5840	3.5842	-2.3635	24.68	-0.18	-0.750			
0.5895	37726.07	3.5810	3.5811	-2.4110	24.68	-0.18	-0.750			
0.5967	38190.71	3.5780	3.5779	-2.4234	24.67	-0.19	-0.750			
0.6042	38665.91	3.5750	3.5751	-2.4648	24.66	-0.20	-0.750			
0.6116	39141.86	3.5720	3.5721	-2.4210	24.65	-0.21	-0.750			
0.6187	39598.88	3.5690	3.5689	-2.4169	24.65	-0.21	-0.750			
0.6258	40053.30	3.5660	3.5661	-2.3877	24.64	-0.22	-0.750			
0.6330	40512.88	3.5630	3.5629	-2.3749	24.64	-0.22	-0.750			
0.6402	40969.64	3.5600	3.5603	-2.4071	24.64	-0.22	-0.750			
0.6474	41433.16	3.5570	3.5571	-2.4138	24.64	-0.22	-0.750			
0.6548	41909.33	3.5540	3.5537	-2.4331	24.64	-0.22	-0.750			
0.6620	42364.86	3.5510	3.5511	-2.3521	24.64	-0.22	-0.750			
0.6690	42815.42	3.5480	3.5481	-2.3253	24.64	-0.22	-0.750			
0.6762	43275.71	3.5450	3.5449	-2.2311	24.64	-0.22	-0.750			
0.6825	43682.05	3.5420	3.5421	-2.1501	24.64	-0.22	-0.750			
0.6888	44084.61	3.5390	3.5395	-2.0914	24.64	-0.22	-0.750			
0.6950	44476.92	3.5360	3.5357	-2.0420	24.65	-0.21	-0.750			
0.7008	44849.22	3.5330	3.5328	-2.0741	24.66	-0.20	-0.750			
0.7068	45232.72	3.5300	3.5298	-2.1189	24.67	-0.19	-0.750			
0.7135	45661.93	3.5270	3.5271	-2.1554	24.68	-0.18	-0.750			
0.7200	46081.37	3.5240	3.5245	-2.1097	24.69	-0.17	-0.750			
0.7266	46499.86	3.5210	3.5212	-2.0728	24.70	-0.16	-0.750			
0.7328	46897.04	3.5180	3.5180	-1.9688	24.72	-0.14	-0.750			
0.7382	47246.67	3.5150	3.5150	-1.7981	24.73	-0.13	-0.750			
0.7436	47587.91	3.5120	3.5118	-1.6990	24.75	-0.11	-0.750			
0.7485	47906.32	3.5090	3.5089	-1.5486	24.76	-0.10	-0.750			
0.7530	48194.27	3.5060	3.5060	-1.4671	24.78	-0.08	-0.750			
