Ah_balance (normalized)	Ah_balance (mAh)	Voltage - fit (V)	Voltage -  interpolate (V)	dQ/dV (1/V)	Temperature (°C)	Temperature - diff (°C)	Current (C)	R_DC 0ms (mOhm)	R_DC 50ms (mOhm)	R_DC 50 ms PEC (mOhm)
0.0005	30.59	4.1640	4.1640	-0.1387	25.18	-0.00	-0.750			
0.0010	63.86	4.1610	4.1608	-0.1922	25.18	-0.00	-0.750			
0.0017	106.84	4.1580	4.1579	-0.2371	25.17	-0.01	-0.750			
0.0025	156.82	4.1550	4.1549	-0.2791	25.17	-0.01	-0.750			
0.0033	214.40	4.1520	4.1522	-0.3215	25.17	-0.01	-0.750			
0.0044	280.81	4.1490	4.1490	-0.3666	25.17	-0.01	-0.750			
0.0055	354.78	4.1460	4.1460	-0.4071	25.16	-0.02	-0.750			
0.0068	436.08	4.1430	4.1430	-0.4496	25.16	-0.02	-0.750			
0.0083	528.57	4.1400	4.1401	-0.4842	25.15	-0.03	-0.750			
0.0098	627.92	4.1370	4.1370	-0.5195	25.15	-0.03	-0.750			
0.0115	733.61	4.1340	4.1338	-0.5373	25.14	-0.04	-0.750			
0.0132	844.61	4.1310	4.1309	-0.5408	25.14	-0.04	-0.750			
0.0148	948.08	4.1280	4.1280	-0.5433	25.14	-0.04	-0.750			
0.0164	1050.75	4.1250	4.1254	-0.5501	25.13	-0.05	-0.750			
0.0180	1151.25	4.1220	4.1219	-0.5574	25.13	-0.05	-0.750			
0.0197	1259.79	4.1190	4.1187	-0.5942	25.13	-0.05	-0.750			
0.0214	1372.63	4.1160	4.1158	-0.6192	25.13	-0.05	-0.750			
0.0234	1498.62	4.1130	4.1130	-0.6448	25.12	-0.06	-0.750			
0.0256	1636.73	4.1100	4.1098	-0.6753	25.12	-0.06	-0.750			
0.0275	1762.66	4.1070	4.1070	-0.6874	25.12	-0.06	-0.750			
0.0296	1894.30	4.1040	4.1041	-0.7012	25.11	-0.07	-0.750			
0.0317	2027.78	4.1010	4.1008	-0.7043	25.11	-0.07	-0.750			
0.0338	2163.09	4.0980	4.0977	-0.7144	25.11	-0.07	-0.750			
0.0360	2304.99	4.0950	4.0951	-0.7269	25.10	-0.08	-0.750			
0.0382	2446.91	4.0920	4.0917	-0.7348	25.10	-0.08	-0.750			
0.0405	2591.44	4.0890	4.0889	-0.7369	25.10	-0.08	-0.750			
0.0427	2730.24	4.0860	4.0859	-0.7406	25.10	-0.08	-0.750			
0.0449	2872.34	4.0830	4.0831	-0.7398	25.09	-0.09	-0.750			
0.0471	3015.74	4.0800	4.0799	-0.7453	25.09	-0.09	-0.750			
0.0494	3162.41	4.0770	4.0772	-0.7511	25.09	-0.09	-0.750			
0.0517	3306.78	4.0740	4.0738	-0.7528	25.09	-0.09	-0.750			
0.0539	3448.46	4.0710	4.0710	-0.7694	25.09	-0.09	-0.750			
0.0563	3600.89	4.0680	4.0679	-0.7651	25.09	-0.09	-0.750			
0.0585	3746.81	4.0650	4.0649	-0.7599	25.10	-0.08	-0.750			
0.0609	3896.45	4.0620	4.0618	-0.7678	25.10	-0.08	-0.750			
0.0632	4043.45	4.0590	4.0588	-0.7638	25.10	-0.08	-0.750			
0.0655	4188.96	4.0560	4.0558	-0.7606	25.10	-0.08	-0.750			
0.0677	4332.12	4.0530	4.0529	-0.7637	25.10	-0.08	-0.750			
0.0700	4479.04	4.0500	4.0501	-0.7776	25.10	-0.08	-0.750			
0.0723	4629.70	4.0470	4.0469	-0.7775	25.10	-0.08	-0.750			
0.0747	4779.57	4.0440	4.0441	-0.7731	25.10	-0.08	-0.750			
0.0770	4926.71	4.0410	4.0410	-0.7754	25.10	-0.08	-0.750			
0.0793	5073.93	4.0380	4.0380	-0.7848	25.10	-0.08	-0.750			
0.0816	5225.48	4.0350	4.0349	-0.7851	25.10	-0.08	-0.750			
0.0840	5376.04	4.0320	4.0320	-0.7822	25.10	-0.08	-0.750			
0.0864	5528.58	4.0290	4.0289	-0.7895	25.10	-0.08	-0.750			
0.0888	5680.52	4.0260	4.0260	-0.7932	25.10	-0.08	-0.750			
0.0911	5831.00	4.0230	4.0230	-0.8040	25.11	-0.07	-0.750			
0.0935	5986.04	4.0200	4.0199	-0.8018	25.11	-0.07	-0.750			
0.0959	6139.87	4.0170	4.0170	-0.8022	25.11	-0.07	-0.750			
0.0984	6298.16	4.0140	4.0139	-0.8052	25.12	-0.06	-0.750			
0.1008	6454.00	4.0110	4.0111	-0.7956	25.12	-0.06	-0.750			
0.1032	6603.80	4.0080	4.0080	-0.7923	25.12	-0.06	-0.750			
0.1055	6753.35	4.0050	4.0050	-0.7921	25.12	-0.06	-0.750			
0.1078	6901.21	4.0020	4.0020	-0.7874	25.12	-0.06	-0.750			
0.1102	7055.88	3.9990	3.9989	-0.8022	25.12	-0.06	-0.750			
0.1127	7211.24	3.9960	3.9962	-0.8082	25.12	-0.06	-0.750			
0.1151	7368.64	3.9930	3.9930	-0.8109	25.12	-0.06	-0.750			
0.1176	7527.71	3.9900	3.9900	-0.8257	25.12	-0.06	-0.750			
0.1201	7686.68	3.9870	3.9870	-0.8196	25.13	-0.05	-0.750			
0.1226	7844.80	3.9840	3.9838	-0.8156	25.13	-0.05	-0.750			
0.1250	8000.96	3.9810	3.9816	-0.8165	25.13	-0.05	-0.750			
0.1274	8156.46	3.9780	3.9779	-0.8098	25.13	-0.05	-0.750			
0.1298	8310.01	3.9750	3.9749	-0.8194	25.13	-0.05	-0.750			
0.1323	8467.08	3.9720	3.9720	-0.8193	25.14	-0.04	-0.750			
0.1348	8628.69	3.9690	3.9689	-0.8257	25.14	-0.04	-0.750			
0.1373	8786.76	3.9660	3.9670	-0.8249	25.14	-0.04	-0.750			
0.1398	8946.08	3.9630	3.9630	-0.8265	25.14	-0.04	-0.750			
0.1422	9103.06	3.9600	3.9599	-0.8266	25.14	-0.04	-0.750			
0.1447	9261.49	3.9570	3.9569	-0.8213	25.15	-0.03	-0.750			
0.1471	9416.36	3.9540	3.9541	-0.8252	25.15	-0.03	-0.750			
0.1497	9579.01	3.9510	3.9510	-0.8381	25.15	-0.03	-0.750			
0.1522	9742.29	3.9480	3.9478	-0.8399	25.15	-0.03	-0.750			
0.1547	9903.39	3.9450	3.9452	-0.8516	25.16	-0.02	-0.750			
0.1573	10068.82	3.9420	3.9419	-0.8490	25.16	-0.02	-0.750			
0.1599	10232.59	3.9390	3.9388	-0.8489	25.17	-0.01	-0.750			
0.1625	10396.83	3.9360	3.9367	-0.8527	25.17	-0.01	-0.750			
0.1650	10558.09	3.9330	3.9328	-0.8466	25.17	-0.01	-0.750			
0.1676	10724.85	3.9300	3.9299	-0.8581	25.17	-0.01	-0.750			
0.1702	10890.68	3.9270	3.9269	-0.8545	25.17	-0.01	-0.750			
0.1728	11056.49	3.9240	3.9239	-0.8616	25.17	-0.01	-0.750			
0.1753	11221.87	3.9210	3.9215	-0.8534	25.17	-0.01	-0.750			
0.1779	11383.35	3.9180	3.9179	-0.8492	25.17	-0.01	-0.750			
0.1804	11544.39	3.9150	3.9149	-0.8579	25.17	-0.01	-0.750			
0.1829	11705.30	3.9120	3.9121	-0.8462	25.18	-0.00	-0.750			
0.1856	11876.98	3.9090	3.9089	-0.8703	25.18	-0.00	-0.750			
0.1882	12045.13	3.9060	3.9062	-0.8731	25.18	0.00	-0.750			
0.1908	12211.20	3.9030	3.9030	-0.8800	25.18	0.00	-0.750			
0.1935	12381.92	3.9000	3.8998	-0.8747	25.18	0.00	-0.750			
0.1960	12546.36	3.8970	3.8970	-0.8689	25.19	0.01	-0.750			
0.1987	12716.33	3.8940	3.8938	-0.8768	25.19	0.01	-0.750			
0.2013	12881.58	3.8910	3.8909	-0.8910	25.19	0.01	-0.750			
0.2040	13052.98	3.8880	3.8879	-0.8846	25.19	0.01	-0.750			
0.2066	13225.00	3.8850	3.8850	-0.8805	25.20	0.02	-0.750			
0.2093	13395.98	3.8820	3.8817	-0.8901	25.20	0.02	-0.750			
0.2120	13565.92	3.8790	3.8792	-0.8843	25.20	0.02	-0.750			
0.2146	13733.54	3.8760	3.8759	-0.8767	25.20	0.02	-0.750			
0.2172	13902.65	3.8730	3.8728	-0.8747	25.21	0.03	-0.750			
0.2198	14068.75	3.8700	3.8700	-0.8678	25.21	0.03	-0.750			
0.2224	14234.40	3.8670	3.8669	-0.8758	25.22	0.04	-0.750			
0.2250	14400.69	3.8640	3.8644	-0.8766	25.22	0.04	-0.750			
0.2276	14566.36	3.8610	3.8609	-0.8822	25.22	0.04	-0.750			
0.2303	14739.45	3.8580	3.8579	-0.8819	25.22	0.04	-0.750			
0.2330	14909.34	3.8550	3.8549	-0.8833	25.22	0.04	-0.750			
0.2357	15082.66	3.8520	3.8520	-0.8917	25.22	0.04	-0.750			
0.2383	15252.05	3.8490	3.8492	-0.8842	25.22	0.04	-0.750			
0.2409	15419.39	3.8460	3.8459	-0.8871	25.23	0.05	-0.750			
0.2436	15591.12	3.8430	3.8429	-0.8857	25.23	0.05	-0.750			
0.2462	15759.93	3.8400	3.8399	-0.8796	25.23	0.05	-0.750			
0.2489	15932.43	3.8370	3.8369	-0.8825	25.24	0.06	-0.750			
0.2516	16101.66	3.8340	3.8339	-0.8774	25.24	0.06	-0.750			
0.2542	16268.61	3.8310	3.8309	-0.8783	25.24	0.06	-0.750			
0.2568	16434.28	3.8280	3.8280	-0.8725	25.25	0.07	-0.750			
0.2594	16600.82	3.8250	3.8250	-0.8758	25.25	0.07	-0.750			
0.2621	16774.02	3.8220	3.8221	-0.8847	25.25	0.07	-0.750			
0.2647	16942.91	3.8190	3.8189	-0.8867	25.25	0.07	-0.750			
0.2674	17114.68	3.8160	3.8161	-0.8850	25.25	0.07	-0.750			
0.2701	17284.46	3.8130	3.8130	-0.8763	25.26	0.08	-0.750			
0.2727	17449.99	3.8100	3.8100	-0.8725	25.26	0.08	-0.750			
0.2753	17618.86	3.8070	3.8075	-0.8757	25.26	0.08	-0.750			
0.2779	17784.16	3.8040	3.8039	-0.8873	25.26	0.08	-0.750			
0.2806	17960.28	3.8010	3.8009	-0.8788	25.26	0.08	-0.750			
0.2833	18130.59	3.7980	3.7980	-0.8636	25.27	0.09	-0.750			
0.2859	18297.08	3.7950	3.7948	-0.8591	25.27	0.09	-0.750			
0.2884	18459.94	3.7920	3.7918	-0.8506	25.27	0.09	-0.750			
0.2909	18617.18	3.7890	3.7888	-0.8452	25.27	0.09	-0.750			
0.2934	18777.94	3.7860	3.7858	-0.8441	25.27	0.09	-0.750			
0.2960	18941.18	3.7830	3.7830	-0.8566	25.27	0.09	-0.750			
0.2986	19107.41	3.7800	3.7801	-0.8477	25.27	0.09	-0.750			
0.3011	19271.07	3.7770	3.7771	-0.8472	25.27	0.09	-0.750			
0.3036	19429.94	3.7740	3.7740	-0.8503	25.27	0.09	-0.750			
0.3061	19589.93	3.7710	3.7708	-0.8458	25.27	0.09	-0.750			
0.3087	19755.50	3.7680	3.7678	-0.8482	25.28	0.10	-0.750			
0.3113	19921.96	3.7650	3.7647	-0.8432	25.28	0.10	-0.750			
0.3138	20085.63	3.7620	3.7620	-0.8440	25.28	0.10	-0.750			
0.3164	20247.57	3.7590	3.7581	-0.8465	25.28	0.10	-0.750			
0.3188	20405.43	3.7560	3.7557	-0.8319	25.29	0.11	-0.750			
0.3214	20567.08	3.7530	3.7527	-0.8281	25.29	0.11	-0.750			
0.3238	20722.67	3.7500	3.7499	-0.8169	25.29	0.11	-0.750			
0.3262	20876.66	3.7470	3.7469	-0.8255	25.29	0.11	-0.750			
0.3287	21035.91	3.7440	3.7438	-0.8339	25.29	0.11	-0.750			
0.3311	21192.63	3.7410	3.7409	-0.8350	25.29	0.11	-0.750			
0.3336	21349.92	3.7380	3.7380	-0.8404	25.30	0.12	-0.750			
0.3363	21520.35	3.7350	3.7352	-0.8678	25.30	0.12	-0.750			
0.3389	21689.57	3.7320	3.7319	-0.8849	25.30	0.12	-0.750			
0.3416	21861.24	3.7290	3.7289	-0.9052	25.30	0.12	-0.750			
0.3443	22038.37	3.7260	3.7259	-0.9024	25.29	0.11	-0.750			
0.3471	22213.09	3.7230	3.7229	-0.9143	25.29	0.11	-0.750			
0.3498	22388.23	3.7200	3.7208	-0.9331	25.29	0.11	-0.750			
0.3526	22568.19	3.7170	3.7166	-0.9585	25.29	0.11	-0.750			
0.3555	22753.22	3.7140	3.7138	-0.9701	25.29	0.11	-0.750			
0.3584	22940.02	3.7110	3.7108	-0.9816	25.28	0.10	-0.750			
0.3615	23138.98	3.7080	3.7084	-1.0114	25.28	0.10	-0.750			
0.3646	23332.82	3.7050	3.7047	-1.0216	25.28	0.10	-0.750			
0.3676	23526.02	3.7020	3.7017	-1.0227	25.28	0.10	-0.750	0.409	0.498	
0.3706	23720.53	3.6990	3.6988	-1.0317	25.27	0.09	-0.750			
0.3738	23921.29	3.6960	3.6961	-1.0632	25.27	0.09	-0.750			
0.3770	24125.27	3.6930	3.6929	-1.0861	25.27	0.09	-0.750			
0.3803	24339.79	3.6900	3.6898	-1.1058	25.26	0.08	-0.750			
0.3837	24553.88	3.6870	3.6869	-1.1149	25.26	0.08	-0.750			
0.3870	24765.98	3.6840	3.6845	-1.1525	25.25	0.07	-0.750			
0.3905	24994.43	3.6810	3.6808	-1.1805	25.24	0.06	-0.750			
0.3941	25225.08	3.6780	3.6777	-1.1952	25.23	0.05	-0.750			
0.3977	25454.42	3.6750	3.6748	-1.2071	25.23	0.05	-0.750			
0.4014	25692.28	3.6720	3.6718	-1.2474	25.22	0.04	-0.750			
0.4052	25930.28	3.6690	3.6688	-1.2647	25.21	0.03	-0.750			
0.4089	26168.60	3.6660	3.6659	-1.2790	25.21	0.03	-0.750			
0.4128	26419.43	3.6630	3.6632	-1.3484	25.20	0.02	-0.750			
0.4170	26686.95	3.6600	3.6599	-1.3572	25.19	0.01	-0.750			
0.4210	26941.10	3.6570	3.6569	-1.4378	25.18	-0.00	-0.750			
0.4255	27228.85	3.6540	3.6544	-1.4378	25.17	-0.01	-0.750			
0.4299	27510.89	3.6510	3.6505	-1.4720	25.16	-0.02	-0.750			
0.4343	27796.60	3.6480	3.6482	-1.4758	25.15	-0.03	-0.750			
0.4388	28080.60	3.6450	3.6447	-1.5067	25.14	-0.04	-0.750			
0.4435	28381.72	3.6420	3.6421	-1.5417	25.13	-0.05	-0.750			
0.4481	28680.03	3.6390	3.6385	-1.5654	25.12	-0.06	-0.750			
0.4527	28975.52	3.6360	3.6365	-1.5687	25.12	-0.06	-0.750			
0.4576	29288.19	3.6330	3.6335	-1.6374	25.11	-0.07	-0.750			
0.4625	29602.48	3.6300	3.6306	-1.6404	25.10	-0.08	-0.750			
0.4676	29923.34	3.6270	3.6267	-1.6710	25.09	-0.09	-0.750			
0.4726	30248.49	3.6240	3.6245	-1.6886	25.08	-0.10	-0.750			
0.4778	30576.54	3.6210	3.6210	-1.7363	25.06	-0.12	-0.750			
0.4831	30918.81	3.6180	3.6179	-1.7823	25.05	-0.13	-0.750			
0.4885	31261.16	3.6150	3.6148	-1.8119	25.04	-0.14	-0.750			
0.4940	31614.02	3.6120	3.6123	-1.9245	25.03	-0.15	-0.750			
0.4998	31990.12	3.6090	3.6093	-1.9046	25.02	-0.16	-0.750			
0.5055	32352.05	3.6060	3.6061	-1.9281	25.02	-0.16	-0.750			
0.5114	32727.46	3.6030	3.6026	-1.9518	25.01	-0.17	-0.750			
0.5171	33093.40	3.6000	3.6002	-2.0127	25.01	-0.17	-0.750			
0.5233	33493.90	3.5970	3.5974	-2.0333	25.00	-0.18	-0.750			
0.5292	33871.14	3.5940	3.5941	-2.1373	24.99	-0.19	-0.750			
0.5359	34299.16	3.5910	3.5907	-2.1322	24.98	-0.20	-0.750			
0.5425	34718.71	3.5880	3.5878	-2.1161	24.98	-0.20	-0.750			
0.5489	35132.50	3.5850	3.5851	-2.1421	24.98	-0.20	-0.750			
0.5554	35545.27	3.5820	3.5818	-2.2502	24.97	-0.21	-0.750			
0.5620	35970.96	3.5790	3.5785	-2.2427	24.96	-0.22	-0.750			
0.5689	36406.57	3.5760	3.5757	-2.3085	24.96	-0.22	-0.750			
0.5756	36837.68	3.5730	3.5734	-2.2976	24.96	-0.22	-0.750			
0.5828	37300.15	3.5700	3.5695	-2.3417	24.95	-0.23	-0.750			
0.5898	37749.68	3.5670	3.5666	-2.3263	24.95	-0.23	-0.750			
0.5970	38208.41	3.5640	3.5633	-2.3704	24.94	-0.24	-0.750			
0.6042	38666.90	3.5610	3.5609	-2.3389	24.94	-0.24	-0.750			
0.6113	39121.19	3.5580	3.5586	-2.2936	24.94	-0.24	-0.750			
0.6183	39574.17	3.5550	3.5551	-2.3015	24.94	-0.24	-0.750			
0.6251	40003.74	3.5520	3.5526	-2.2349	24.94	-0.24	-0.750			
0.6315	40415.89	3.5490	3.5486	-2.2472	24.94	-0.24	-0.750			
0.6382	40847.31	3.5460	3.5460	-2.1700	24.94	-0.24	-0.750			
0.6446	41254.44	3.5430	3.5428	-2.2184	24.95	-0.23	-0.750			
0.6516	41700.97	3.5400	3.5395	-2.1896	24.96	-0.22	-0.750			
0.6581	42118.26	3.5370	3.5365	-2.1211	24.97	-0.21	-0.750			
0.6644	42519.36	3.5340	3.5336	-2.0640	24.97	-0.21	-0.750			
0.6703	42899.38	3.5310	3.5308	-1.9856	24.98	-0.20	-0.750			
0.6762	43278.50	3.5280	3.5281	-1.9509	24.98	-0.20	-0.750			
0.6821	43651.25	3.5250	3.5252	-1.9106	25.00	-0.18	-0.750			
0.6880	44031.10	3.5220	3.5222	-1.8655	25.01	-0.17	-0.750			
0.6936	44388.08	3.5190	3.5193	-1.8142	25.02	-0.16	-0.750			
0.6990	44736.07	3.5160	3.5159	-1.7164	25.04	-0.14	-0.750			
0.7041	45060.26	3.5130	3.5131	-1.6692	25.05	-0.13	-0.750			
0.7088	45362.70	3.5100	3.5105	-1.6115	25.07	-0.11	-0.750			
0.7135	45661.87	3.5070	3.5068	-1.5273	25.08	-0.10	-0.750			
0.7182	45963.29	3.5040	3.5035	-1.5104	25.10	-0.08	-0.750			
0.7225	46242.17	3.5010	3.5010	-1.4517	25.12	-0.06	-0.750			
0.7270	46526.29	3.4980	3.4976	-1.4003	25.14	-0.04	-0.750			
0.7311	46792.13	3.4950	3.4949	-1.2786	25.15	-0.03	-0.750			
0.7351	47045.16	3.4920	3.4919	-1.4903	25.17	-0.01	-0.750			
