Ah_balance (normalized)	Ah_balance (mAh)	Voltage - fit (V)	Voltage -  interpolate (V)	dQ/dV (1/V)	Temperature (°C)	Temperature - diff (°C)	Current (C)	R_DC 0ms (mOhm)	R_DC 50ms (mOhm)	R_DC 50 ms PEC (mOhm)
0.0002	9.89	4.1610	4.1604	-0.0554	25.05	0.01	-0.750			
0.0005	31.96	4.1580	4.1578	-0.1370	25.04	0.00	-0.750			
0.0010	62.13	4.1550	4.1544	-0.1766	25.04	0.00	-0.750			
0.0016	99.79	4.1520	4.1520	-0.2167	25.04	0.00	-0.750			
0.0023	145.36	4.1490	4.1490	-0.2559	25.04	-0.00	-0.750			
0.0031	198.30	4.1460	4.1459	-0.2939	25.04	-0.00	-0.750			
0.0040	259.19	4.1430	4.1431	-0.3337	25.03	-0.01	-0.750			
0.0051	326.78	4.1400	4.1400	-0.3649	25.03	-0.01	-0.750			
0.0063	400.35	4.1370	4.1370	-0.3997	25.03	-0.01	-0.750			
0.0075	481.30	4.1340	4.1341	-0.4364	25.02	-0.02	-0.750			
0.0089	567.27	4.1310	4.1310	-0.4759	25.02	-0.02	-0.750			
0.0104	663.71	4.1280	4.1278	-0.5035	25.01	-0.03	-0.750			
0.0120	766.02	4.1250	4.1249	-0.5223	25.01	-0.03	-0.750			
0.0136	870.18	4.1220	4.1220	-0.5436	25.00	-0.04	-0.750			
0.0153	976.96	4.1190	4.1190	-0.5630	25.00	-0.04	-0.750			
0.0170	1085.48	4.1160	4.1159	-0.5784	25.00	-0.04	-0.750			
0.0187	1196.35	4.1130	4.1129	-0.5944	24.99	-0.05	-0.750			
0.0205	1310.38	4.1100	4.1101	-0.6138	24.99	-0.05	-0.750			
0.0224	1435.07	4.1070	4.1069	-0.6358	24.99	-0.05	-0.750			
0.0244	1561.55	4.1040	4.1039	-0.6440	24.98	-0.06	-0.750			
0.0264	1686.51	4.1010	4.1010	-0.6511	24.98	-0.06	-0.750			
0.0283	1812.42	4.0980	4.0979	-0.6513	24.98	-0.06	-0.750			
0.0303	1936.82	4.0950	4.0949	-0.6510	24.98	-0.06	-0.750			
0.0322	2059.48	4.0920	4.0919	-0.6648	24.98	-0.06	-0.750			
0.0341	2185.18	4.0890	4.0892	-0.6743	24.97	-0.07	-0.750			
0.0363	2320.09	4.0860	4.0857	-0.6899	24.97	-0.07	-0.750			
0.0384	2454.87	4.0830	4.0830	-0.6946	24.97	-0.07	-0.750			
0.0405	2589.94	4.0800	4.0799	-0.7006	24.97	-0.07	-0.750			
0.0426	2725.86	4.0770	4.0771	-0.7074	24.97	-0.07	-0.750			
0.0447	2858.66	4.0740	4.0740	-0.7162	24.97	-0.07	-0.750			
0.0468	2993.95	4.0710	4.0710	-0.7272	24.97	-0.07	-0.750			
0.0490	3138.08	4.0680	4.0680	-0.7364	24.97	-0.07	-0.750			
0.0513	3282.55	4.0650	4.0646	-0.7450	24.97	-0.07	-0.750			
0.0536	3427.95	4.0620	4.0622	-0.7486	24.97	-0.07	-0.750			
0.0558	3573.83	4.0590	4.0588	-0.7470	24.97	-0.07	-0.750			
0.0581	3716.89	4.0560	4.0560	-0.7401	24.97	-0.07	-0.750			
0.0602	3855.75	4.0530	4.0531	-0.7347	24.97	-0.07	-0.750			
0.0625	3997.03	4.0500	4.0500	-0.7336	24.97	-0.07	-0.750			
0.0647	4138.59	4.0470	4.0469	-0.7368	24.97	-0.07	-0.750			
0.0668	4277.90	4.0440	4.0440	-0.7399	24.97	-0.07	-0.750			
0.0691	4419.29	4.0410	4.0411	-0.7463	24.97	-0.07	-0.750			
0.0713	4566.11	4.0380	4.0380	-0.7476	24.98	-0.06	-0.750			
0.0736	4709.65	4.0350	4.0348	-0.7503	24.98	-0.06	-0.750			
0.0759	4854.95	4.0320	4.0319	-0.7451	24.98	-0.06	-0.750			
0.0781	4998.94	4.0290	4.0290	-0.7449	24.98	-0.06	-0.750			
0.0803	5139.81	4.0260	4.0260	-0.7439	24.98	-0.06	-0.750			
0.0825	5280.51	4.0230	4.0230	-0.7515	24.98	-0.06	-0.750			
0.0848	5426.93	4.0200	4.0198	-0.7514	24.98	-0.06	-0.750			
0.0871	5575.46	4.0170	4.0170	-0.7608	24.98	-0.06	-0.750			
0.0894	5722.82	4.0140	4.0147	-0.7573	24.98	-0.06	-0.750			
0.0917	5869.01	4.0110	4.0110	-0.7601	24.98	-0.06	-0.750			
0.0939	6012.17	4.0080	4.0080	-0.7630	24.99	-0.05	-0.750			
0.0962	6157.91	4.0050	4.0049	-0.7599	24.99	-0.05	-0.750			
0.0985	6305.15	4.0020	4.0019	-0.7683	24.99	-0.05	-0.750			
0.1008	6453.14	3.9990	3.9990	-0.7654	25.00	-0.04	-0.750			
0.1031	6600.97	3.9960	3.9958	-0.7682	25.00	-0.04	-0.750			
0.1054	6747.61	3.9930	3.9930	-0.7739	25.00	-0.04	-0.750			
0.1077	6895.49	3.9900	3.9900	-0.7658	25.00	-0.04	-0.750			
0.1101	7047.07	3.9870	3.9869	-0.7337	25.00	-0.04	-0.750			
0.1123	7188.65	3.9840	3.9841	-0.7196	25.00	-0.04	-0.750			
0.1144	7320.68	3.9810	3.9818	-0.7105	25.00	-0.04	-0.750			
0.1164	7452.47	3.9780	3.9774	-0.7111	25.00	-0.04	-0.750			
0.1184	7578.48	3.9750	3.9749	-0.7240	25.01	-0.03	-0.750			
0.1206	7720.24	3.9720	3.9721	-0.7419	25.01	-0.03	-0.750			
0.1230	7871.51	3.9690	3.9689	-0.7646	25.01	-0.03	-0.750			
0.1254	8025.33	3.9660	3.9659	-0.7816	25.02	-0.02	-0.750			
0.1277	8173.96	3.9630	3.9628	-0.7863	25.02	-0.02	-0.750			
0.1301	8326.61	3.9600	3.9599	-0.7852	25.02	-0.02	-0.750			
0.1324	8474.91	3.9570	3.9568	-0.7876	25.02	-0.02	-0.750			
0.1348	8627.19	3.9540	3.9541	-0.7812	25.02	-0.02	-0.750			
0.1372	8781.55	3.9510	3.9510	-0.7972	25.02	-0.02	-0.750			
0.1396	8934.03	3.9480	3.9482	-0.7961	25.02	-0.02	-0.750			
0.1420	9086.20	3.9450	3.9450	-0.7945	25.02	-0.02	-0.750			
0.1443	9238.25	3.9420	3.9418	-0.8063	25.02	-0.02	-0.750			
0.1468	9397.28	3.9390	3.9390	-0.8069	25.02	-0.02	-0.750			
0.1493	9555.69	3.9360	3.9357	-0.7982	25.02	-0.02	-0.750			
0.1517	9707.24	3.9330	3.9336	-0.7958	25.02	-0.02	-0.750			
0.1540	9858.13	3.9300	3.9299	-0.7845	25.02	-0.02	-0.750			
0.1563	10005.93	3.9270	3.9270	-0.7927	25.03	-0.01	-0.750			
0.1587	10157.26	3.9240	3.9238	-0.7820	25.03	-0.01	-0.750			
0.1611	10310.85	3.9210	3.9210	-0.7955	25.03	-0.01	-0.750			
0.1635	10464.40	3.9180	3.9178	-0.7918	25.04	-0.00	-0.750			
0.1659	10618.50	3.9150	3.9149	-0.7979	25.04	0.00	-0.750			
0.1682	10766.22	3.9120	3.9119	-0.7963	25.04	0.00	-0.750			
0.1706	10917.76	3.9090	3.9090	-0.7947	25.04	0.00	-0.750			
0.1730	11071.50	3.9060	3.9059	-0.8110	25.05	0.01	-0.750			
0.1755	11229.73	3.9030	3.9029	-0.8123	25.05	0.01	-0.750			
0.1779	11387.46	3.9000	3.9001	-0.8098	25.05	0.01	-0.750			
0.1803	11541.24	3.8970	3.8969	-0.8206	25.05	0.01	-0.750			
0.1828	11700.30	3.8940	3.8940	-0.8058	25.05	0.01	-0.750			
0.1852	11853.02	3.8910	3.8909	-0.7995	25.06	0.02	-0.750			
0.1876	12008.33	3.8880	3.8878	-0.7971	25.06	0.02	-0.750			
0.1900	12159.51	3.8850	3.8847	-0.7901	25.06	0.02	-0.750			
0.1923	12309.24	3.8820	3.8820	-0.7983	25.06	0.02	-0.750			
0.1947	12463.43	3.8790	3.8789	-0.7922	25.07	0.03	-0.750			
0.1971	12611.88	3.8760	3.8760	-0.7822	25.07	0.03	-0.750			
0.1996	12771.91	3.8730	3.8729	-0.7918	25.08	0.04	-0.750			
0.2019	12920.47	3.8700	3.8713	-0.7862	25.08	0.04	-0.750			
0.2042	13071.78	3.8670	3.8668	-0.7832	25.08	0.04	-0.750			
0.2066	13219.44	3.8640	3.8641	-0.7771	25.08	0.04	-0.750			
0.2089	13367.54	3.8610	3.8608	-0.7743	25.09	0.05	-0.750			
0.2112	13515.21	3.8580	3.8581	-0.7710	25.09	0.05	-0.750			
0.2135	13665.43	3.8550	3.8550	-0.7793	25.09	0.05	-0.750			
0.2159	13815.17	3.8520	3.8519	-0.7793	25.09	0.05	-0.750			
0.2181	13961.46	3.8490	3.8490	-0.7843	25.10	0.06	-0.750			
0.2206	14118.13	3.8460	3.8460	-0.7797	25.10	0.06	-0.750			
0.2230	14268.83	3.8430	3.8430	-0.7705	25.10	0.06	-0.750			
0.2253	14417.59	3.8400	3.8397	-0.7664	25.11	0.07	-0.750			
0.2276	14563.95	3.8370	3.8372	-0.7591	25.11	0.07	-0.750			
0.2298	14705.88	3.8340	3.8338	-0.7501	25.11	0.07	-0.750			
0.2320	14847.58	3.8310	3.8310	-0.7573	25.12	0.08	-0.750			
0.2342	14991.56	3.8280	3.8280	-0.7485	25.12	0.08	-0.750			
0.2366	15142.16	3.8250	3.8247	-0.7610	25.13	0.09	-0.750			
0.2389	15289.46	3.8220	3.8225	-0.7620	25.13	0.09	-0.750			
0.2412	15434.65	3.8190	3.8189	-0.7562	25.13	0.09	-0.750			
0.2434	15577.54	3.8160	3.8159	-0.7561	25.13	0.09	-0.750			
0.2457	15722.57	3.8130	3.8130	-0.7527	25.13	0.09	-0.750			
0.2479	15862.76	3.8100	3.8101	-0.7433	25.14	0.10	-0.750			
0.2502	16012.40	3.8070	3.8069	-0.7548	25.14	0.10	-0.750			
0.2524	16156.09	3.8040	3.8041	-0.7560	25.14	0.10	-0.750			
0.2547	16301.05	3.8010	3.8010	-0.7540	25.14	0.10	-0.750			
0.2569	16444.30	3.7980	3.7980	-0.7668	25.14	0.10	-0.750			
0.2593	16593.57	3.7950	3.7949	-0.7680	25.15	0.11	-0.750			
0.2616	16743.06	3.7920	3.7919	-0.7755	25.15	0.11	-0.750			
0.2639	16892.22	3.7890	3.7890	-0.7751	25.15	0.11	-0.750			
0.2663	17042.80	3.7860	3.7859	-0.7748	25.15	0.11	-0.750			
0.2686	17189.13	3.7830	3.7830	-0.7807	25.15	0.11	-0.750			
0.2709	17337.92	3.7800	3.7800	-0.7809	25.16	0.12	-0.750			
0.2733	17488.99	3.7770	3.7770	-0.7848	25.16	0.12	-0.750			
0.2756	17640.42	3.7740	3.7737	-0.7883	25.16	0.12	-0.750			
0.2780	17791.44	3.7710	3.7709	-0.7876	25.16	0.12	-0.750			
0.2804	17943.14	3.7680	3.7679	-0.7886	25.16	0.12	-0.750			
0.2827	18093.11	3.7650	3.7650	-0.7951	25.16	0.12	-0.750			
0.2850	18242.35	3.7620	3.7619	-0.7920	25.15	0.11	-0.750			
0.2875	18399.96	3.7590	3.7590	-0.8122	25.15	0.11	-0.750			
0.2900	18557.40	3.7560	3.7561	-0.8193	25.15	0.11	-0.750			
0.2924	18711.58	3.7530	3.7530	-0.8478	25.15	0.11	-0.750			
0.2950	18880.90	3.7500	3.7499	-0.8422	25.15	0.11	-0.750			
0.2976	19043.84	3.7470	3.7469	-0.8434	25.15	0.11	-0.750			
0.3001	19205.76	3.7440	3.7438	-0.8503	25.15	0.11	-0.750			
0.3026	19369.43	3.7410	3.7408	-0.8489	25.15	0.11	-0.750			
0.3052	19531.47	3.7380	3.7378	-0.8663	25.15	0.11	-0.750			
0.3078	19698.96	3.7350	3.7348	-0.8686	25.15	0.11	-0.750			
0.3104	19866.32	3.7320	3.7319	-0.8850	25.14	0.10	-0.750			
0.3131	20038.73	3.7290	3.7287	-0.8869	25.14	0.10	-0.750			
0.3157	20207.47	3.7260	3.7258	-0.8926	25.14	0.10	-0.750			
0.3184	20377.07	3.7230	3.7229	-0.9044	25.13	0.09	-0.750			
0.3211	20549.76	3.7200	3.7200	-0.9071	25.13	0.09	-0.750			
0.3238	20720.58	3.7170	3.7170	-0.9113	25.13	0.09	-0.750			
0.3267	20905.84	3.7140	3.7141	-0.9420	25.12	0.08	-0.750			
0.3295	21086.81	3.7110	3.7110	-0.9613	25.12	0.08	-0.750			
0.3324	21275.61	3.7080	3.7078	-0.9902	25.12	0.08	-0.750			
0.3355	21471.10	3.7050	3.7048	-0.9895	25.11	0.07	-0.750			
0.3385	21663.26	3.7020	3.7018	-0.9909	25.11	0.07	-0.750			
0.3415	21858.30	3.6990	3.6986	-1.0179	25.11	0.07	-0.750	0.374	0.539	
0.3446	22051.97	3.6960	3.6956	-1.0142	25.11	0.07	-0.750			
0.3476	22243.21	3.6930	3.6928	-1.0132	25.10	0.06	-0.750			
0.3505	22430.13	3.6900	3.6903	-1.0150	25.10	0.06	-0.750			
0.3535	22627.05	3.6870	3.6870	-1.0306	25.10	0.06	-0.750			
0.3569	22841.37	3.6840	3.6839	-1.0673	25.09	0.05	-0.750			
0.3600	23042.24	3.6810	3.6810	-1.0730	25.09	0.05	-0.750			
0.3632	23244.88	3.6780	3.6779	-1.0797	25.08	0.04	-0.750			
0.3667	23466.50	3.6750	3.6748	-1.1282	25.08	0.04	-0.750			
0.3701	23684.68	3.6720	3.6717	-1.1420	25.07	0.03	-0.750			
0.3735	23906.65	3.6690	3.6689	-1.1552	25.07	0.03	-0.750			
0.3770	24128.30	3.6660	3.6670	-1.1780	25.06	0.02	-0.750			
0.3807	24362.71	3.6630	3.6627	-1.1996	25.05	0.01	-0.750			
0.3843	24592.23	3.6600	3.6598	-1.2122	25.04	0.00	-0.750			
0.3877	24815.29	3.6570	3.6570	-1.2149	25.03	-0.01	-0.750			
0.3917	25066.79	3.6540	3.6539	-1.2552	25.03	-0.01	-0.750			
0.3955	25309.47	3.6510	3.6508	-1.2642	25.03	-0.01	-0.750			
0.3991	25542.74	3.6480	3.6481	-1.3055	25.02	-0.02	-0.750			
0.4030	25795.04	3.6450	3.6451	-1.3069	25.02	-0.02	-0.750			
0.4072	26059.40	3.6420	3.6417	-1.3423	25.01	-0.03	-0.750			
0.4112	26317.35	3.6390	3.6388	-1.3802	25.01	-0.03	-0.750			
0.4155	26590.93	3.6360	3.6358	-1.3933	25.00	-0.04	-0.750			
0.4198	26865.65	3.6330	3.6327	-1.4229	24.99	-0.05	-0.750			
0.4240	27133.37	3.6300	3.6296	-1.4405	24.98	-0.06	-0.750			
0.4281	27400.90	3.6270	3.6268	-1.4404	24.98	-0.06	-0.750			
0.4327	27694.34	3.6240	3.6241	-1.4850	24.97	-0.07	-0.750			
0.4372	27982.06	3.6210	3.6207	-1.5266	24.96	-0.08	-0.750			
0.4418	28273.34	3.6180	3.6177	-1.5448	24.96	-0.08	-0.750			
0.4468	28592.38	3.6150	3.6146	-1.6302	24.95	-0.09	-0.750			
0.4517	28911.09	3.6120	3.6118	-1.6221	24.95	-0.09	-0.750			
0.4568	29232.25	3.6090	3.6093	-1.6607	24.95	-0.09	-0.750			
0.4617	29547.04	3.6060	3.6061	-1.6487	24.94	-0.10	-0.750			
0.4666	29862.45	3.6030	3.6029	-1.6701	24.94	-0.10	-0.750			
0.4719	30203.36	3.6000	3.6003	-1.7404	24.93	-0.11	-0.750			
0.4772	30543.09	3.5970	3.5970	-1.7588	24.93	-0.11	-0.750			
0.4827	30892.57	3.5940	3.5942	-1.7946	24.93	-0.11	-0.750			
0.4880	31232.26	3.5910	3.5906	-1.8277	24.92	-0.12	-0.750			
0.4936	31591.96	3.5880	3.5884	-1.8364	24.91	-0.13	-0.750			
0.4990	31933.95	3.5850	3.5852	-1.8501	24.90	-0.14	-0.750			
0.5045	32290.42	3.5820	3.5822	-1.8629	24.90	-0.14	-0.750			
0.5103	32658.06	3.5790	3.5794	-1.9091	24.90	-0.14	-0.750			
0.5160	33021.89	3.5760	3.5761	-1.9588	24.90	-0.14	-0.750			
0.5220	33406.31	3.5730	3.5735	-1.9741	24.90	-0.14	-0.750			
0.5279	33788.64	3.5700	3.5700	-2.0001	24.90	-0.14	-0.750			
0.5341	34184.81	3.5670	3.5670	-1.9892	24.90	-0.14	-0.750			
0.5401	34567.76	3.5640	3.5638	-1.9886	24.90	-0.14	-0.750			
0.5459	34938.39	3.5610	3.5608	-1.9772	24.89	-0.15	-0.750			
0.5520	35325.03	3.5580	3.5580	-1.9884	24.89	-0.15	-0.750			
0.5579	35703.58	3.5550	3.5556	-2.0242	24.89	-0.15	-0.750			
0.5642	36106.55	3.5520	3.5524	-2.0013	24.90	-0.14	-0.750			
0.5702	36490.22	3.5490	3.5489	-2.0022	24.90	-0.14	-0.750			
0.5761	36869.47	3.5460	3.5462	-1.9841	24.90	-0.14	-0.750			
0.5819	37243.74	3.5430	3.5429	-1.9348	24.91	-0.13	-0.750			
0.5878	37618.19	3.5400	3.5394	-1.9263	24.92	-0.12	-0.750			
0.5934	37974.64	3.5370	3.5370	-1.9155	24.93	-0.11	-0.750			
0.5993	38352.50	3.5340	3.5343	-1.8876	24.94	-0.10	-0.750			
0.6051	38726.25	3.5310	3.5310	-1.8619	24.95	-0.09	-0.750			
0.6106	39078.20	3.5280	3.5285	-1.8055	24.95	-0.09	-0.750			
0.6160	39421.89	3.5250	3.5246	-1.7813	24.96	-0.08	-0.750			
0.6211	39749.51	3.5220	3.5218	-1.7567	24.98	-0.06	-0.750			
0.6263	40083.17	3.5190	3.5188	-1.7267	25.00	-0.04	-0.750			
0.6313	40404.27	3.5160	3.5161	-1.7248	25.01	-0.03	-0.750			
0.6366	40741.19	3.5130	3.5134	-1.6575	25.02	-0.02	-0.750			
0.6417	41066.07	3.5100	3.5097	-1.6310	25.04	-0.00	-0.750			
0.6465	41378.20	3.5070	3.5069	-1.5558	25.05	0.01	-0.750			
0.6510	41664.66	3.5040	3.5046	-1.4924	25.07	0.03	-0.750			
0.6556	41955.31	3.5010	3.5005	-1.4616	25.08	0.04	-0.750			
0.6596	42213.35	3.4980	3.4978	-1.3829	25.10	0.06	-0.750			
0.6636	42469.82	3.4950	3.4951	-1.3582	25.12	0.08	-0.750			
0.6679	42745.73	3.4920	3.4919	-1.3486	25.13	0.09	-0.750			
0.6717	42990.75	3.4890	3.4889	-1.2867	25.15	0.11	-0.750			
0.6758	43248.87	3.4860	3.4863	-1.2487	25.17	0.13	-0.750			
0.6794	43481.72	3.4830	3.4829	-1.1851	25.18	0.14	-0.750			
0.6827	43695.39	3.4800	3.4801	-1.0056	25.19	0.15	-0.750			
