Ah_balance (normalized)	Ah_balance (mAh)	Voltage - fit (V)	Voltage -  interpolate (V)	dQ/dV (1/V)	Temperature (°C)	Temperature - diff (°C)	Current (C)	R_DC 0ms (mOhm)	R_DC 50ms (mOhm)	R_DC 50 ms PEC (mOhm)
0.0002	14.39	4.1660	4.1657	-0.1140	24.80	0.03	-0.750			
0.0006	40.30	4.1630	4.1629	-0.1603	24.80	0.03	-0.750			
0.0012	77.27	4.1600	4.1599	-0.2110	24.80	0.03	-0.750			
0.0019	122.16	4.1570	4.1570	-0.2567	24.80	0.03	-0.750			
0.0028	176.28	4.1540	4.1540	-0.3007	24.79	0.02	-0.750			
0.0037	238.60	4.1510	4.1511	-0.3441	24.79	0.02	-0.750			
0.0048	309.45	4.1480	4.1479	-0.3891	24.79	0.02	-0.750			
0.0061	388.50	4.1450	4.1451	-0.4313	24.79	0.02	-0.750			
0.0074	475.93	4.1420	4.1421	-0.4700	24.78	0.01	-0.750			
0.0089	572.24	4.1390	4.1389	-0.5042	24.78	0.01	-0.750			
0.0105	672.16	4.1360	4.1361	-0.5357	24.77	0.00	-0.750			
0.0122	778.81	4.1330	4.1331	-0.5659	24.77	0.00	-0.750			
0.0139	889.94	4.1300	4.1299	-0.5897	24.77	-0.00	-0.750			
0.0157	1005.73	4.1270	4.1270	-0.6121	24.76	-0.01	-0.750			
0.0176	1124.78	4.1240	4.1241	-0.6394	24.76	-0.01	-0.750			
0.0196	1252.12	4.1210	4.1209	-0.6537	24.75	-0.02	-0.750			
0.0216	1383.23	4.1180	4.1179	-0.6669	24.75	-0.02	-0.750			
0.0236	1511.36	4.1150	4.1149	-0.6718	24.74	-0.03	-0.750			
0.0256	1640.81	4.1120	4.1121	-0.6833	24.74	-0.03	-0.750			
0.0277	1772.62	4.1090	4.1090	-0.6927	24.74	-0.03	-0.750			
0.0297	1903.71	4.1060	4.1058	-0.7050	24.74	-0.03	-0.750			
0.0319	2039.69	4.1030	4.1031	-0.7099	24.74	-0.03	-0.750			
0.0341	2181.00	4.1000	4.1000	-0.7264	24.74	-0.03	-0.750			
0.0363	2324.19	4.0970	4.0969	-0.7339	24.74	-0.03	-0.750			
0.0385	2465.24	4.0940	4.0940	-0.7332	24.74	-0.03	-0.750			
0.0407	2603.86	4.0910	4.0910	-0.7346	24.74	-0.03	-0.750			
0.0429	2745.07	4.0880	4.0880	-0.7459	24.74	-0.03	-0.750			
0.0451	2888.50	4.0850	4.0849	-0.7470	24.74	-0.03	-0.750			
0.0474	3034.40	4.0820	4.0820	-0.7546	24.74	-0.03	-0.750			
0.0497	3180.49	4.0790	4.0792	-0.7586	24.74	-0.03	-0.750			
0.0520	3326.87	4.0760	4.0760	-0.7609	24.74	-0.03	-0.750			
0.0543	3472.73	4.0730	4.0730	-0.7651	24.74	-0.03	-0.750			
0.0566	3619.35	4.0700	4.0699	-0.7636	24.74	-0.03	-0.750			
0.0588	3765.73	4.0670	4.0670	-0.7690	24.74	-0.03	-0.750			
0.0612	3914.27	4.0640	4.0639	-0.7710	24.74	-0.03	-0.750			
0.0635	4062.77	4.0610	4.0610	-0.7738	24.74	-0.03	-0.750			
0.0659	4216.90	4.0580	4.0579	-0.7535	24.74	-0.03	-0.750			
0.0681	4360.69	4.0550	4.0549	-0.7350	24.74	-0.03	-0.750			
0.0703	4500.33	4.0520	4.0522	-0.7192	24.75	-0.02	-0.750			
0.0724	4633.90	4.0490	4.0494	-0.7172	24.75	-0.02	-0.750			
0.0744	4764.37	4.0460	4.0459	-0.7151	24.75	-0.02	-0.750			
0.0766	4900.16	4.0430	4.0428	-0.7297	24.75	-0.02	-0.750			
0.0787	5037.95	4.0400	4.0400	-0.7451	24.75	-0.02	-0.750			
0.0810	5186.73	4.0370	4.0370	-0.7706	24.75	-0.02	-0.750			
0.0834	5340.18	4.0340	4.0341	-0.7872	24.76	-0.01	-0.750			
0.0859	5496.41	4.0310	4.0309	-0.7981	24.76	-0.01	-0.750			
0.0883	5651.28	4.0280	4.0279	-0.7991	24.76	-0.01	-0.750			
0.0906	5801.08	4.0250	4.0252	-0.8086	24.76	-0.01	-0.750			
0.0931	5960.59	4.0220	4.0220	-0.8079	24.76	-0.01	-0.750			
0.0956	6117.84	4.0190	4.0189	-0.8058	24.76	-0.01	-0.750			
0.0980	6271.63	4.0160	4.0158	-0.8004	24.76	-0.01	-0.750			
0.1004	6424.39	4.0130	4.0131	-0.8006	24.76	-0.01	-0.750			
0.1027	6574.25	4.0100	4.0100	-0.8110	24.76	-0.01	-0.750			
0.1051	6728.75	4.0070	4.0069	-0.8133	24.77	-0.00	-0.750			
0.1076	6886.59	4.0040	4.0039	-0.7987	24.77	0.00	-0.750			
0.1101	7046.12	4.0010	4.0009	-0.8147	24.78	0.01	-0.750			
0.1126	7203.34	3.9980	3.9985	-0.8169	24.78	0.01	-0.750			
0.1150	7359.23	3.9950	3.9948	-0.8138	24.78	0.01	-0.750			
0.1174	7510.96	3.9920	3.9919	-0.8184	24.78	0.01	-0.750			
0.1198	7669.95	3.9890	3.9890	-0.8182	24.78	0.01	-0.750			
0.1224	7830.80	3.9860	3.9859	-0.8273	24.78	0.01	-0.750			
0.1249	7991.24	3.9830	3.9834	-0.8268	24.78	0.01	-0.750			
0.1273	8148.56	3.9800	3.9800	-0.8193	24.78	0.01	-0.750			
0.1298	8305.71	3.9770	3.9769	-0.8346	24.78	0.01	-0.750			
0.1323	8466.17	3.9740	3.9738	-0.8308	24.79	0.02	-0.750			
0.1348	8627.19	3.9710	3.9708	-0.8379	24.79	0.02	-0.750			
0.1373	8789.39	3.9680	3.9688	-0.8358	24.79	0.02	-0.750			
0.1399	8951.45	3.9650	3.9650	-0.8337	24.79	0.02	-0.750			
0.1423	9110.19	3.9620	3.9619	-0.8388	24.79	0.02	-0.750			
0.1448	9269.35	3.9590	3.9587	-0.8355	24.80	0.03	-0.750			
0.1474	9430.44	3.9560	3.9559	-0.8381	24.80	0.03	-0.750			
0.1499	9591.39	3.9530	3.9536	-0.8370	24.80	0.03	-0.750			
0.1524	9752.72	3.9500	3.9498	-0.8369	24.80	0.03	-0.750			
0.1549	9912.98	3.9470	3.9471	-0.8465	24.81	0.04	-0.750			
0.1574	10073.56	3.9440	3.9439	-0.8432	24.81	0.04	-0.750			
0.1600	10237.63	3.9410	3.9409	-0.8559	24.82	0.05	-0.750			
0.1625	10402.12	3.9380	3.9382	-0.8579	24.82	0.05	-0.750			
0.1651	10566.33	3.9350	3.9351	-0.8685	24.82	0.05	-0.750			
0.1677	10734.92	3.9320	3.9318	-0.8645	24.82	0.05	-0.750			
0.1703	10900.27	3.9290	3.9289	-0.8623	24.82	0.05	-0.750			
0.1729	11066.58	3.9260	3.9260	-0.8593	24.82	0.05	-0.750			
0.1755	11231.29	3.9230	3.9233	-0.8600	24.82	0.05	-0.750			
0.1780	11393.46	3.9200	3.9200	-0.8679	24.83	0.06	-0.750			
0.1807	11561.74	3.9170	3.9168	-0.8734	24.83	0.06	-0.750			
0.1833	11728.00	3.9140	3.9139	-0.8748	24.83	0.06	-0.750			
0.1859	11900.36	3.9110	3.9109	-0.8832	24.84	0.07	-0.750			
0.1886	12072.32	3.9080	3.9080	-0.8824	24.84	0.07	-0.750			
0.1913	12241.51	3.9050	3.9049	-0.8841	24.85	0.08	-0.750			
0.1939	12406.63	3.9020	3.9020	-0.8765	24.85	0.08	-0.750			
0.1965	12572.83	3.8990	3.8990	-0.8728	24.85	0.08	-0.750			
0.1991	12745.20	3.8960	3.8959	-0.8830	24.86	0.09	-0.750			
0.2018	12913.53	3.8930	3.8930	-0.8887	24.86	0.09	-0.750			
0.2045	13085.14	3.8900	3.8900	-0.8895	24.87	0.10	-0.750			
0.2072	13257.61	3.8870	3.8870	-0.8878	24.87	0.10	-0.750			
0.2098	13426.23	3.8840	3.8839	-0.8858	24.88	0.11	-0.750			
0.2124	13596.43	3.8810	3.8818	-0.8869	24.88	0.11	-0.750			
0.2151	13767.40	3.8780	3.8779	-0.8861	24.88	0.11	-0.750			
0.2178	13940.30	3.8750	3.8750	-0.8911	24.88	0.11	-0.750			
0.2205	14110.65	3.8720	3.8719	-0.8865	24.88	0.11	-0.750			
0.2231	14281.41	3.8690	3.8690	-0.8894	24.88	0.11	-0.750			
0.2258	14451.46	3.8660	3.8660	-0.8876	24.88	0.11	-0.750			
0.2284	14620.01	3.8630	3.8629	-0.8865	24.89	0.12	-0.750			
0.2311	14789.87	3.8600	3.8600	-0.8898	24.89	0.12	-0.750			
0.2337	14959.17	3.8570	3.8570	-0.8839	24.89	0.12	-0.750			
0.2365	15134.16	3.8540	3.8540	-0.8939	24.90	0.13	-0.750			
0.2391	15304.52	3.8510	3.8510	-0.8961	24.90	0.13	-0.750			
0.2419	15479.67	3.8480	3.8480	-0.9054	24.91	0.14	-0.750			
0.2446	15655.35	3.8450	3.8448	-0.9029	24.91	0.14	-0.750			
0.2473	15828.71	3.8420	3.8419	-0.9024	24.92	0.15	-0.750			
0.2500	16002.43	3.8390	3.8396	-0.9000	24.92	0.15	-0.750			
0.2527	16175.56	3.8360	3.8359	-0.8938	24.92	0.15	-0.750			
0.2554	16347.88	3.8330	3.8329	-0.9025	24.92	0.15	-0.750			
0.2580	16514.73	3.8300	3.8299	-0.8900	24.92	0.15	-0.750			
0.2608	16693.83	3.8270	3.8268	-0.9041	24.92	0.15	-0.750			
0.2636	16867.59	3.8240	3.8240	-0.8971	24.92	0.15	-0.750			
0.2662	17038.10	3.8210	3.8209	-0.8904	24.92	0.15	-0.750			
0.2689	17208.55	3.8180	3.8179	-0.8876	24.93	0.16	-0.750			
0.2715	17373.89	3.8150	3.8150	-0.8770	24.93	0.16	-0.750			
0.2742	17546.35	3.8120	3.8121	-0.8886	24.93	0.16	-0.750			
0.2768	17715.00	3.8090	3.8089	-0.8971	24.93	0.16	-0.750			
0.2795	17890.54	3.8060	3.8061	-0.8935	24.93	0.16	-0.750			
0.2822	18062.81	3.8030	3.8028	-0.8938	24.94	0.17	-0.750			
0.2849	18233.56	3.8000	3.8000	-0.8913	24.94	0.17	-0.750			
0.2876	18405.85	3.7970	3.7976	-0.8879	24.94	0.17	-0.750			
0.2902	18574.04	3.7940	3.7939	-0.8936	24.94	0.17	-0.750			
0.2929	18746.79	3.7910	3.7909	-0.8882	24.95	0.18	-0.750			
0.2956	18917.51	3.7880	3.7880	-0.8840	24.95	0.18	-0.750			
0.2983	19089.04	3.7850	3.7848	-0.8871	24.96	0.19	-0.750			
0.3009	19259.26	3.7820	3.7821	-0.8771	24.96	0.19	-0.750			
0.3035	19426.23	3.7790	3.7789	-0.8737	24.97	0.20	-0.750			
0.3061	19592.67	3.7760	3.7759	-0.8655	24.97	0.20	-0.750			
0.3087	19755.61	3.7730	3.7731	-0.8538	24.97	0.20	-0.750			
0.3113	19922.74	3.7700	3.7700	-0.8549	24.98	0.21	-0.750			
0.3138	20085.36	3.7670	3.7671	-0.8561	24.98	0.21	-0.750			
0.3164	20248.88	3.7640	3.7640	-0.8683	24.98	0.21	-0.750			
0.3190	20418.98	3.7610	3.7606	-0.8655	24.98	0.21	-0.750			
0.3217	20586.16	3.7580	3.7580	-0.8597	24.98	0.21	-0.750			
0.3243	20752.01	3.7550	3.7549	-0.8616	24.98	0.21	-0.750			
0.3269	20918.95	3.7520	3.7519	-0.8618	24.98	0.21	-0.750			
0.3294	21083.82	3.7490	3.7488	-0.8684	24.99	0.22	-0.750			
0.3319	21244.05	3.7460	3.7459	-0.8609	24.99	0.22	-0.750			
0.3346	21412.72	3.7430	3.7429	-0.8768	25.00	0.23	-0.750			
0.3372	21582.68	3.7400	3.7406	-0.8828	25.00	0.23	-0.750			
0.3399	21751.48	3.7370	3.7369	-0.8964	25.00	0.23	-0.750			
0.3426	21923.22	3.7340	3.7339	-0.8982	25.00	0.23	-0.750			
0.3452	22094.48	3.7310	3.7310	-0.9005	25.00	0.23	-0.750			
0.3480	22271.60	3.7280	3.7279	-0.9181	25.00	0.23	-0.750			
0.3507	22447.62	3.7250	3.7251	-0.9263	25.00	0.23	-0.750			
0.3535	22626.38	3.7220	3.7219	-0.9537	25.00	0.23	-0.750			
0.3565	22815.10	3.7190	3.7188	-0.9512	25.00	0.23	-0.750			
0.3593	22996.54	3.7160	3.7158	-0.9570	25.00	0.23	-0.750			
0.3622	23183.22	3.7130	3.7139	-0.9780	25.00	0.23	-0.750			
0.3652	23373.33	3.7100	3.7097	-1.0014	25.00	0.23	-0.750			
0.3683	23568.61	3.7070	3.7067	-0.9979	25.00	0.23	-0.750			
0.3712	23756.59	3.7040	3.7040	-1.0022	25.01	0.24	-0.750	0.424	0.521	
0.3743	23952.39	3.7010	3.7015	-1.0395	25.01	0.24	-0.750			
0.3774	24153.19	3.6980	3.6978	-1.0573	25.01	0.24	-0.750			
0.3805	24351.43	3.6950	3.6948	-1.0680	25.01	0.24	-0.750			
0.3837	24557.37	3.6920	3.6920	-1.0907	25.00	0.23	-0.750			
0.3870	24770.77	3.6890	3.6892	-1.1499	25.00	0.23	-0.750			
0.3906	24998.42	3.6860	3.6859	-1.1764	24.99	0.22	-0.750			
0.3942	25226.64	3.6830	3.6829	-1.1972	24.99	0.22	-0.750			
0.3978	25456.27	3.6800	3.6798	-1.2340	24.98	0.21	-0.750			
0.4015	25698.42	3.6770	3.6769	-1.2523	24.98	0.21	-0.750			
0.4054	25942.94	3.6740	3.6740	-1.2674	24.98	0.21	-0.750			
0.4092	26187.16	3.6710	3.6709	-1.2815	24.97	0.20	-0.750			
0.4130	26435.08	3.6680	3.6682	-1.3098	24.97	0.20	-0.750			
0.4170	26688.84	3.6650	3.6649	-1.3099	24.96	0.19	-0.750			
0.4209	26940.71	3.6620	3.6619	-1.3111	24.96	0.19	-0.750			
0.4249	27194.05	3.6590	3.6593	-1.3462	24.95	0.18	-0.750			
0.4290	27455.63	3.6560	3.6559	-1.3983	24.94	0.17	-0.750			
0.4332	27722.13	3.6530	3.6526	-1.4491	24.93	0.16	-0.750			
0.4375	28000.74	3.6500	3.6506	-1.4890	24.92	0.15	-0.750			
0.4422	28300.81	3.6470	3.6472	-1.5303	24.91	0.14	-0.750			
0.4469	28602.49	3.6440	3.6437	-1.5490	24.90	0.13	-0.750			
0.4515	28895.13	3.6410	3.6407	-1.5742	24.90	0.13	-0.750			
0.4563	29205.10	3.6380	3.6377	-1.6502	24.89	0.12	-0.750			
0.4613	29525.77	3.6350	3.6345	-1.6801	24.88	0.11	-0.750			
0.4663	29844.41	3.6320	3.6313	-1.6986	24.87	0.10	-0.750			
0.4716	30183.95	3.6290	3.6287	-1.7076	24.87	0.10	-0.750			
0.4769	30521.37	3.6260	3.6255	-1.7279	24.85	0.08	-0.750			
0.4821	30851.62	3.6230	3.6228	-1.7506	24.84	0.07	-0.750			
0.4874	31190.91	3.6200	3.6204	-1.7650	24.83	0.06	-0.750			
0.4927	31530.90	3.6170	3.6176	-1.8064	24.83	0.06	-0.750			
0.4981	31878.60	3.6140	3.6137	-1.8438	24.82	0.05	-0.750			
0.5038	32242.69	3.6110	3.6111	-1.9202	24.81	0.04	-0.750			
0.5098	32624.30	3.6080	3.6075	-1.9756	24.80	0.03	-0.750			
0.5156	32998.55	3.6050	3.6048	-1.9848	24.79	0.02	-0.750			
0.5217	33387.51	3.6020	3.6019	-2.0153	24.77	-0.00	-0.750			
0.5280	33792.03	3.5990	3.5988	-2.0604	24.76	-0.01	-0.750			
0.5343	34192.09	3.5960	3.5959	-2.1245	24.75	-0.02	-0.750			
0.5406	34600.79	3.5930	3.5935	-2.1278	24.75	-0.02	-0.750			
0.5472	35018.25	3.5900	3.5895	-2.1872	24.74	-0.03	-0.750			
0.5538	35442.82	3.5870	3.5870	-2.2011	24.73	-0.04	-0.750			
0.5605	35870.76	3.5840	3.5841	-2.2213	24.72	-0.05	-0.750			
0.5673	36309.55	3.5810	3.5811	-2.3335	24.72	-0.05	-0.750			
0.5744	36759.29	3.5780	3.5781	-2.2725	24.71	-0.06	-0.750			
0.5811	37191.87	3.5750	3.5749	-2.3172	24.70	-0.07	-0.750			
0.5882	37644.38	3.5720	3.5722	-2.3313	24.70	-0.07	-0.750			
0.5950	38081.17	3.5690	3.5687	-2.3514	24.70	-0.07	-0.750			
0.6021	38535.52	3.5660	3.5656	-2.3616	24.70	-0.07	-0.750			
0.6095	39010.36	3.5630	3.5628	-2.4321	24.68	-0.09	-0.750			
0.6167	39468.02	3.5600	3.5598	-2.3320	24.68	-0.09	-0.750			
0.6234	39900.76	3.5570	3.5569	-2.3366	24.68	-0.09	-0.750			
0.6304	40345.16	3.5540	3.5541	-2.2998	24.68	-0.09	-0.750			
0.6375	40798.59	3.5510	3.5510	-2.3258	24.68	-0.09	-0.750			
0.6446	41251.32	3.5480	3.5481	-2.3800	24.69	-0.08	-0.750			
0.6515	41693.57	3.5450	3.5452	-2.3275	24.69	-0.08	-0.750			
0.6584	42135.57	3.5420	3.5422	-2.2899	24.70	-0.07	-0.750			
0.6653	42576.92	3.5390	3.5387	-2.2590	24.70	-0.07	-0.750			
0.6723	43030.14	3.5360	3.5361	-2.2478	24.70	-0.07	-0.750			
0.6787	43436.08	3.5330	3.5329	-2.1439	24.71	-0.06	-0.750			
0.6851	43848.72	3.5300	3.5299	-2.0553	24.72	-0.05	-0.750			
0.6910	44226.69	3.5270	3.5271	-1.9598	24.73	-0.04	-0.750			
0.6968	44594.57	3.5240	3.5242	-1.8974	24.74	-0.03	-0.750			
0.7024	44953.08	3.5210	3.5207	-1.8354	24.74	-0.03	-0.750			
0.7079	45306.12	3.5180	3.5178	-1.7859	24.75	-0.02	-0.750			
0.7132	45644.48	3.5150	3.5151	-1.7383	24.76	-0.01	-0.750			
0.7184	45980.02	3.5120	3.5121	-1.7037	24.78	0.01	-0.750			
0.7234	46295.73	3.5090	3.5091	-1.6271	24.80	0.03	-0.750			
0.7282	46606.10	3.5060	3.5063	-1.5549	24.81	0.04	-0.750			
0.7329	46905.57	3.5030	3.5034	-1.4753	24.81	0.04	-0.750			
0.7373	47184.22	3.5000	3.5006	-1.3318	24.82	0.05	-0.750			
0.7410	47424.51	3.4970	3.4970	-1.1560	24.83	0.06	-0.750			
