Ah_balance (normalized)	Ah_balance (mAh)	Voltage - fit (V)	Voltage -  interpolate (V)	dQ/dV (1/V)	Temperature (°C)	Temperature - diff (°C)	Current (C)	R_DC 0ms (mOhm)	R_DC 50ms (mOhm)	R_DC 50 ms PEC (mOhm)
0.0002	14.48	4.1630	4.1627	-0.1128	25.12	0.00	-0.750			
0.0006	41.41	4.1600	4.1597	-0.1607	25.12	-0.00	-0.750			
0.0012	75.69	4.1570	4.1569	-0.2012	25.12	-0.00	-0.750			
0.0018	117.90	4.1540	4.1541	-0.2443	25.12	-0.00	-0.750			
0.0026	168.89	4.1510	4.1511	-0.2880	25.11	-0.01	-0.750			
0.0036	228.76	4.1480	4.1479	-0.3264	25.11	-0.01	-0.750			
0.0046	296.02	4.1450	4.1450	-0.3668	25.11	-0.01	-0.750			
0.0058	370.64	4.1420	4.1421	-0.4047	25.10	-0.02	-0.750			
0.0071	452.71	4.1390	4.1389	-0.4417	25.10	-0.02	-0.750			
0.0085	541.59	4.1360	4.1360	-0.4769	25.09	-0.03	-0.750			
0.0100	637.38	4.1330	4.1330	-0.5047	25.09	-0.03	-0.750			
0.0116	740.17	4.1300	4.1299	-0.5248	25.08	-0.04	-0.750			
0.0132	842.85	4.1270	4.1272	-0.5496	25.08	-0.04	-0.750			
0.0148	950.34	4.1240	4.1240	-0.5670	25.07	-0.05	-0.750			
0.0166	1059.74	4.1210	4.1211	-0.5896	25.07	-0.05	-0.750			
0.0183	1171.59	4.1180	4.1180	-0.6185	25.06	-0.06	-0.750			
0.0202	1295.45	4.1150	4.1150	-0.6363	25.06	-0.06	-0.750			
0.0222	1422.49	4.1120	4.1119	-0.6506	25.05	-0.07	-0.750			
0.0243	1553.14	4.1090	4.1089	-0.6663	25.04	-0.08	-0.750			
0.0263	1680.13	4.1060	4.1059	-0.6661	25.04	-0.08	-0.750			
0.0283	1808.96	4.1030	4.1029	-0.6731	25.04	-0.08	-0.750			
0.0302	1934.59	4.1000	4.1000	-0.6836	25.03	-0.09	-0.750			
0.0323	2066.43	4.0970	4.0970	-0.6831	25.03	-0.09	-0.750			
0.0344	2202.42	4.0940	4.0938	-0.6932	25.03	-0.09	-0.750			
0.0365	2335.51	4.0910	4.0910	-0.6970	25.02	-0.10	-0.750			
0.0386	2469.35	4.0880	4.0881	-0.7050	25.02	-0.10	-0.750			
0.0407	2604.08	4.0850	4.0849	-0.7090	25.02	-0.10	-0.750			
0.0428	2740.48	4.0820	4.0818	-0.7128	25.02	-0.10	-0.750			
0.0450	2877.14	4.0790	4.0791	-0.7202	25.02	-0.10	-0.750			
0.0472	3021.57	4.0760	4.0760	-0.7299	25.02	-0.10	-0.750			
0.0494	3162.27	4.0730	4.0730	-0.7378	25.02	-0.10	-0.750			
0.0516	3303.64	4.0700	4.0697	-0.7374	25.02	-0.10	-0.750			
0.0537	3438.10	4.0670	4.0671	-0.7501	25.02	-0.10	-0.750			
0.0560	3585.72	4.0640	4.0640	-0.7555	25.02	-0.10	-0.750			
0.0583	3733.84	4.0610	4.0609	-0.7489	25.02	-0.10	-0.750			
0.0607	3881.99	4.0580	4.0578	-0.7521	25.02	-0.10	-0.750			
0.0629	4025.56	4.0550	4.0559	-0.7549	25.02	-0.10	-0.750			
0.0651	4168.98	4.0520	4.0518	-0.7470	25.02	-0.10	-0.750			
0.0673	4309.40	4.0490	4.0489	-0.7538	25.02	-0.10	-0.750			
0.0696	4453.65	4.0460	4.0461	-0.7529	25.01	-0.11	-0.750			
0.0719	4600.57	4.0430	4.0429	-0.7646	25.01	-0.11	-0.750			
0.0742	4748.35	4.0400	4.0400	-0.7651	25.01	-0.11	-0.750			
0.0765	4894.70	4.0370	4.0369	-0.7627	25.01	-0.11	-0.750			
0.0788	5040.77	4.0340	4.0340	-0.7596	25.01	-0.11	-0.750			
0.0810	5186.91	4.0310	4.0310	-0.7665	25.01	-0.11	-0.750			
0.0833	5333.13	4.0280	4.0280	-0.7635	25.02	-0.10	-0.750			
0.0857	5481.92	4.0250	4.0250	-0.7700	25.02	-0.10	-0.750			
0.0880	5629.62	4.0220	4.0223	-0.7702	25.02	-0.10	-0.750			
0.0903	5777.92	4.0190	4.0190	-0.7714	25.02	-0.10	-0.750			
0.0926	5927.60	4.0160	4.0159	-0.7728	25.02	-0.10	-0.750			
0.0949	6076.36	4.0130	4.0130	-0.7683	25.02	-0.10	-0.750			
0.0972	6222.88	4.0100	4.0099	-0.7713	25.02	-0.10	-0.750			
0.0995	6370.14	4.0070	4.0070	-0.7763	25.02	-0.10	-0.750			
0.1018	6517.73	4.0040	4.0037	-0.7771	25.02	-0.10	-0.750			
0.1042	6666.35	4.0010	4.0010	-0.7857	25.02	-0.10	-0.750			
0.1065	6818.80	3.9980	3.9981	-0.7872	25.02	-0.10	-0.750			
0.1089	6971.43	3.9950	3.9949	-0.7891	25.03	-0.09	-0.750			
0.1114	7127.47	3.9920	3.9921	-0.7954	25.03	-0.09	-0.750			
0.1137	7279.08	3.9890	3.9891	-0.7912	25.03	-0.09	-0.750			
0.1161	7427.34	3.9860	3.9861	-0.7976	25.03	-0.09	-0.750			
0.1185	7583.06	3.9830	3.9829	-0.7991	25.03	-0.09	-0.750			
0.1209	7735.68	3.9800	3.9799	-0.7976	25.04	-0.08	-0.750			
0.1233	7890.96	3.9770	3.9770	-0.8006	25.04	-0.08	-0.750			
0.1257	8045.98	3.9740	3.9742	-0.7995	25.04	-0.08	-0.750			
0.1281	8198.07	3.9710	3.9710	-0.7935	25.04	-0.08	-0.750			
0.1305	8349.04	3.9680	3.9680	-0.8073	25.04	-0.08	-0.750			
0.1329	8505.26	3.9650	3.9648	-0.8045	25.04	-0.08	-0.750			
0.1354	8663.52	3.9620	3.9618	-0.8109	25.04	-0.08	-0.750			
0.1378	8818.73	3.9590	3.9598	-0.8064	25.04	-0.08	-0.750			
0.1402	8975.25	3.9560	3.9558	-0.8052	25.04	-0.08	-0.750			
0.1426	9128.66	3.9530	3.9529	-0.8040	25.04	-0.08	-0.750			
0.1450	9277.73	3.9500	3.9501	-0.7970	25.05	-0.07	-0.750			
0.1474	9431.45	3.9470	3.9470	-0.8146	25.05	-0.07	-0.750			
0.1498	9588.18	3.9440	3.9440	-0.8203	25.05	-0.07	-0.750			
0.1523	9747.20	3.9410	3.9409	-0.8242	25.05	-0.07	-0.750			
0.1548	9906.05	3.9380	3.9380	-0.8316	25.05	-0.07	-0.750			
0.1573	10068.18	3.9350	3.9351	-0.8359	25.06	-0.06	-0.750			
0.1598	10229.76	3.9320	3.9320	-0.8300	25.06	-0.06	-0.750			
0.1623	10389.54	3.9290	3.9290	-0.8303	25.06	-0.06	-0.750			
0.1647	10542.65	3.9260	3.9261	-0.8427	25.06	-0.06	-0.750			
0.1673	10705.98	3.9230	3.9228	-0.8387	25.06	-0.06	-0.750			
0.1698	10869.15	3.9200	3.9199	-0.8355	25.06	-0.06	-0.750			
0.1723	11027.66	3.9170	3.9169	-0.8430	25.06	-0.06	-0.750			
0.1749	11193.24	3.9140	3.9143	-0.8549	25.06	-0.06	-0.750			
0.1775	11360.11	3.9110	3.9106	-0.8518	25.06	-0.06	-0.750			
0.1800	11522.21	3.9080	3.9079	-0.8431	25.07	-0.05	-0.750			
0.1825	11682.87	3.9050	3.9053	-0.8389	25.07	-0.05	-0.750			
0.1851	11846.91	3.9020	3.9019	-0.8456	25.08	-0.04	-0.750			
0.1876	12005.88	3.8990	3.8989	-0.8328	25.08	-0.04	-0.750			
0.1899	12151.48	3.8960	3.8962	-0.8402	25.08	-0.04	-0.750			
0.1924	12312.33	3.8930	3.8931	-0.8701	25.09	-0.03	-0.750			
0.1951	12486.29	3.8900	3.8898	-0.9021	25.09	-0.03	-0.750			
0.1979	12667.79	3.8870	3.8865	-0.9093	25.10	-0.02	-0.750			
0.2008	12849.90	3.8840	3.8846	-0.9171	25.10	-0.02	-0.750			
0.2036	13029.66	3.8810	3.8814	-0.9117	25.11	-0.01	-0.750			
0.2064	13209.23	3.8780	3.8779	-0.9014	25.11	-0.01	-0.750			
0.2090	13373.10	3.8750	3.8749	-0.8649	25.11	-0.01	-0.750			
0.2115	13535.22	3.8720	3.8719	-0.8489	25.12	-0.00	-0.750			
0.2141	13699.47	3.8690	3.8689	-0.8462	25.12	0.00	-0.750			
0.2166	13859.56	3.8660	3.8659	-0.8472	25.12	0.00	-0.750			
0.2191	14022.17	3.8630	3.8629	-0.8433	25.12	0.00	-0.750			
0.2215	14178.96	3.8600	3.8601	-0.8398	25.13	0.01	-0.750			
0.2241	14345.42	3.8570	3.8570	-0.8503	25.13	0.01	-0.750			
0.2267	14510.10	3.8540	3.8540	-0.8439	25.13	0.01	-0.750			
0.2292	14671.14	3.8510	3.8509	-0.8481	25.13	0.01	-0.750			
0.2318	14834.82	3.8480	3.8480	-0.8428	25.14	0.02	-0.750			
0.2343	14994.75	3.8450	3.8449	-0.8344	25.14	0.02	-0.750			
0.2368	15155.66	3.8420	3.8420	-0.8341	25.14	0.02	-0.750			
0.2393	15313.89	3.8390	3.8390	-0.8283	25.14	0.02	-0.750			
0.2418	15472.30	3.8360	3.8360	-0.8374	25.15	0.03	-0.750			
0.2443	15634.72	3.8330	3.8329	-0.8388	25.15	0.03	-0.750			
0.2468	15795.90	3.8300	3.8299	-0.8323	25.15	0.03	-0.750			
0.2493	15957.95	3.8270	3.8269	-0.8322	25.16	0.04	-0.750			
0.2518	16118.17	3.8240	3.8240	-0.8293	25.16	0.04	-0.750			
0.2543	16276.29	3.8210	3.8209	-0.8225	25.17	0.05	-0.750			
0.2568	16432.86	3.8180	3.8179	-0.8073	25.17	0.05	-0.750			
0.2591	16583.76	3.8150	3.8150	-0.7963	25.17	0.05	-0.750			
0.2615	16738.75	3.8120	3.8121	-0.8002	25.18	0.06	-0.750			
0.2639	16891.30	3.8090	3.8090	-0.7955	25.18	0.06	-0.750			
0.2663	17041.16	3.8060	3.8059	-0.7937	25.19	0.07	-0.750			
0.2686	17193.41	3.8030	3.8030	-0.7946	25.19	0.07	-0.750			
0.2711	17347.64	3.8000	3.8001	-0.7902	25.19	0.07	-0.750			
0.2735	17501.34	3.7970	3.7969	-0.7892	25.20	0.08	-0.750			
0.2758	17651.91	3.7940	3.7942	-0.7819	25.20	0.08	-0.750			
0.2781	17801.35	3.7910	3.7908	-0.7775	25.20	0.08	-0.750			
0.2804	17948.47	3.7880	3.7880	-0.7771	25.20	0.08	-0.750			
0.2828	18097.29	3.7850	3.7850	-0.7754	25.21	0.09	-0.750			
0.2851	18246.90	3.7820	3.7819	-0.7756	25.21	0.09	-0.750			
0.2874	18396.61	3.7790	3.7789	-0.7756	25.21	0.09	-0.750			
0.2898	18545.23	3.7760	3.7760	-0.7735	25.21	0.09	-0.750			
0.2921	18692.15	3.7730	3.7729	-0.7791	25.21	0.09	-0.750			
0.2944	18841.11	3.7700	3.7700	-0.7779	25.22	0.10	-0.750			
0.2967	18990.03	3.7670	3.7671	-0.7822	25.22	0.10	-0.750			
0.2991	19142.26	3.7640	3.7639	-0.7865	25.22	0.10	-0.750			
0.3015	19293.10	3.7610	3.7611	-0.7923	25.22	0.10	-0.750			
0.3038	19442.98	3.7580	3.7580	-0.8032	25.22	0.10	-0.750			
0.3062	19599.84	3.7550	3.7547	-0.8062	25.22	0.10	-0.750			
0.3087	19754.47	3.7520	3.7520	-0.8101	25.22	0.10	-0.750			
0.3111	19912.26	3.7490	3.7489	-0.8246	25.22	0.10	-0.750			
0.3136	20071.57	3.7460	3.7462	-0.8356	25.22	0.10	-0.750			
0.3161	20231.96	3.7430	3.7428	-0.8553	25.22	0.10	-0.750			
0.3187	20397.39	3.7400	3.7400	-0.8559	25.22	0.10	-0.750			
0.3213	20563.24	3.7370	3.7369	-0.8581	25.23	0.11	-0.750			
0.3239	20730.98	3.7340	3.7340	-0.8752	25.23	0.11	-0.750			
0.3266	20899.72	3.7310	3.7309	-0.8774	25.23	0.11	-0.750			
0.3292	21066.52	3.7280	3.7279	-0.8864	25.23	0.11	-0.750			
0.3318	21234.49	3.7250	3.7250	-0.8951	25.23	0.11	-0.750			
0.3345	21406.55	3.7220	3.7221	-0.9096	25.23	0.11	-0.750			
0.3373	21586.86	3.7190	3.7190	-0.9397	25.23	0.11	-0.750			
0.3401	21767.89	3.7160	3.7160	-0.9626	25.23	0.11	-0.750			
0.3431	21956.03	3.7130	3.7130	-0.9707	25.23	0.11	-0.750			
0.3460	22144.49	3.7100	3.7100	-0.9951	25.22	0.10	-0.750			
0.3490	22337.41	3.7070	3.7070	-1.0068	25.22	0.10	-0.750			
0.3521	22533.23	3.7040	3.7038	-1.0278	25.22	0.10	-0.750			
0.3552	22733.05	3.7010	3.7011	-1.0380	25.21	0.09	-0.750	0.355	0.504	
0.3583	22933.05	3.6980	3.6979	-1.0488	25.21	0.09	-0.750			
0.3615	23134.52	3.6950	3.6949	-1.0648	25.20	0.08	-0.750			
0.3647	23342.27	3.6920	3.6919	-1.0938	25.20	0.08	-0.750			
0.3680	23549.99	3.6890	3.6890	-1.1088	25.19	0.07	-0.750			
0.3714	23768.14	3.6860	3.6858	-1.1260	25.19	0.07	-0.750			
0.3747	23983.86	3.6830	3.6832	-1.1389	25.18	0.06	-0.750			
0.3783	24210.56	3.6800	3.6800	-1.1717	25.18	0.06	-0.750			
0.3818	24435.73	3.6770	3.6769	-1.1833	25.17	0.05	-0.750			
0.3854	24662.55	3.6740	3.6739	-1.2080	25.17	0.05	-0.750			
0.3890	24893.46	3.6710	3.6711	-1.2207	25.17	0.05	-0.750			
0.3927	25132.42	3.6680	3.6680	-1.2446	25.16	0.04	-0.750			
0.3965	25374.75	3.6650	3.6649	-1.2644	25.15	0.03	-0.750			
0.4003	25617.18	3.6620	3.6622	-1.2856	25.14	0.02	-0.750			
0.4042	25869.36	3.6590	3.6589	-1.3141	25.14	0.02	-0.750			
0.4082	26124.83	3.6560	3.6559	-1.3310	25.13	0.01	-0.750			
0.4122	26380.84	3.6530	3.6532	-1.3596	25.13	0.01	-0.750			
0.4163	26646.05	3.6500	3.6499	-1.3878	25.12	0.00	-0.750			
0.4205	26910.79	3.6470	3.6470	-1.4183	25.12	-0.00	-0.750			
0.4248	27186.14	3.6440	3.6442	-1.4470	25.11	-0.01	-0.750			
0.4292	27465.92	3.6410	3.6409	-1.4686	25.10	-0.02	-0.750			
0.4337	27756.69	3.6380	3.6378	-1.4909	25.10	-0.02	-0.750			
0.4381	28041.31	3.6350	3.6354	-1.5193	25.09	-0.03	-0.750			
0.4427	28334.20	3.6320	3.6318	-1.5270	25.08	-0.04	-0.750			
0.4474	28631.47	3.6290	3.6290	-1.5638	25.07	-0.05	-0.750			
0.4520	28930.50	3.6260	3.6259	-1.5718	25.07	-0.05	-0.750			
0.4568	29237.98	3.6230	3.6233	-1.6463	25.06	-0.06	-0.750			
0.4618	29552.61	3.6200	3.6201	-1.6653	25.06	-0.06	-0.750			
0.4669	29879.00	3.6170	3.6168	-1.7034	25.05	-0.07	-0.750			
0.4721	30213.33	3.6140	3.6141	-1.7276	25.05	-0.07	-0.750			
0.4774	30550.76	3.6110	3.6108	-1.7710	25.04	-0.08	-0.750			
0.4826	30888.48	3.6080	3.6080	-1.8316	25.04	-0.08	-0.750			
0.4882	31246.76	3.6050	3.6049	-1.8527	25.04	-0.08	-0.750			
0.4938	31603.20	3.6020	3.6022	-1.9104	25.03	-0.09	-0.750			
0.4995	31970.64	3.5990	3.5991	-1.9289	25.02	-0.10	-0.750			
0.5055	32352.74	3.5960	3.5958	-1.9645	25.02	-0.10	-0.750			
0.5114	32726.49	3.5930	3.5932	-1.9750	25.01	-0.11	-0.750			
0.5174	33112.00	3.5900	3.5899	-1.9973	25.01	-0.11	-0.750			
0.5233	33489.64	3.5870	3.5869	-2.0446	25.01	-0.11	-0.750			
0.5294	33884.67	3.5840	3.5840	-2.1018	25.01	-0.11	-0.750			
0.5359	34298.76	3.5810	3.5809	-2.1497	25.00	-0.12	-0.750			
0.5425	34717.48	3.5780	3.5780	-2.1823	25.00	-0.12	-0.750			
0.5490	35135.21	3.5750	3.5748	-2.1830	25.00	-0.12	-0.750			
0.5557	35564.49	3.5720	3.5720	-2.1791	25.00	-0.12	-0.750			
0.5622	35979.54	3.5690	3.5690	-2.1863	25.00	-0.12	-0.750			
0.5687	36397.43	3.5660	3.5662	-2.2044	25.00	-0.12	-0.750			
0.5753	36820.53	3.5630	3.5631	-2.1816	25.00	-0.12	-0.750			
0.5819	37238.87	3.5600	3.5600	-2.1881	25.00	-0.12	-0.750			
0.5887	37676.08	3.5570	3.5569	-2.1019	25.00	-0.12	-0.750			
0.5949	38072.07	3.5540	3.5542	-1.9884	25.01	-0.11	-0.750			
0.6005	38432.17	3.5510	3.5515	-1.9639	25.01	-0.11	-0.750			
0.6063	38801.30	3.5480	3.5476	-1.9253	25.01	-0.11	-0.750			
0.6120	39166.16	3.5450	3.5447	-1.9485	25.02	-0.10	-0.750			
0.6177	39534.12	3.5420	3.5415	-2.0088	25.03	-0.09	-0.750			
0.6242	39951.39	3.5390	3.5390	-2.0389	25.04	-0.08	-0.750			
0.6302	40333.97	3.5360	3.5365	-1.9621	25.04	-0.08	-0.750			
0.6362	40715.65	3.5330	3.5332	-1.9367	25.05	-0.07	-0.750			
0.6417	41071.54	3.5300	3.5300	-1.9139	25.06	-0.06	-0.750			
0.6475	41440.76	3.5270	3.5273	-1.8823	25.07	-0.05	-0.750			
0.6531	41800.67	3.5240	3.5236	-1.8243	25.09	-0.03	-0.750			
0.6588	42160.20	3.5210	3.5206	-1.7726	25.10	-0.02	-0.750			
0.6639	42489.38	3.5180	3.5179	-1.7173	25.11	-0.01	-0.750			
0.6689	42809.40	3.5150	3.5145	-1.6411	25.12	0.00	-0.750			
0.6736	43107.94	3.5120	3.5117	-1.5824	25.14	0.02	-0.750			
0.6783	43410.67	3.5090	3.5087	-1.5522	25.15	0.03	-0.750			
0.6828	43702.35	3.5060	3.5061	-1.5589	25.16	0.04	-0.750			
0.6876	44007.39	3.5030	3.5032	-1.5083	25.18	0.06	-0.750			
0.6923	44304.32	3.5000	3.4998	-1.4803	25.19	0.07	-0.750			
0.6966	44579.55	3.4970	3.4969	-1.4257	25.21	0.09	-0.750			
0.7009	44859.74	3.4940	3.4943	-1.3840	25.22	0.10	-0.750			
0.7050	45122.65	3.4910	3.4909	-1.3009	25.23	0.11	-0.750			
0.7088	45363.26	3.4880	3.4880	-1.2035	25.25	0.13	-0.750			
