Ah_balance (normalized)	Ah_balance (mAh)	Voltage - fit (V)	Voltage -  interpolate (V)	dQ/dV (1/V)	Temperature (°C)	Temperature - diff (°C)	Current (C)	R_DC 0ms (mOhm)	R_DC 50ms (mOhm)	R_DC 50 ms PEC (mOhm)
0.0004	25.06	4.1620	4.1618	-0.1208	24.49	0.01	-0.750			
0.0008	53.15	4.1590	4.1590	-0.1739	24.48	0.00	-0.750			
0.0015	93.85	4.1560	4.1559	-0.2214	24.48	0.00	-0.750			
0.0022	140.91	4.1530	4.1530	-0.2662	24.48	0.00	-0.750			
0.0031	196.34	4.1500	4.1502	-0.3106	24.48	0.00	-0.750			
0.0041	261.65	4.1470	4.1470	-0.3543	24.48	-0.00	-0.750			
0.0052	334.23	4.1440	4.1440	-0.3935	24.48	-0.00	-0.750			
0.0065	413.94	4.1410	4.1410	-0.4271	24.48	-0.00	-0.750			
0.0078	500.39	4.1380	4.1381	-0.4589	24.47	-0.01	-0.750			
0.0093	592.59	4.1350	4.1350	-0.4941	24.47	-0.01	-0.750			
0.0108	690.33	4.1320	4.1318	-0.5258	24.47	-0.01	-0.750			
0.0124	793.63	4.1290	4.1290	-0.5564	24.47	-0.01	-0.750			
0.0141	904.97	4.1260	4.1260	-0.5795	24.46	-0.02	-0.750			
0.0160	1021.01	4.1230	4.1231	-0.6035	24.46	-0.02	-0.750			
0.0178	1140.64	4.1200	4.1199	-0.6183	24.46	-0.02	-0.750			
0.0197	1260.99	4.1170	4.1170	-0.6348	24.45	-0.03	-0.750			
0.0216	1382.35	4.1140	4.1140	-0.6585	24.45	-0.03	-0.750			
0.0236	1511.83	4.1110	4.1109	-0.6690	24.45	-0.03	-0.750			
0.0257	1644.47	4.1080	4.1078	-0.6806	24.44	-0.04	-0.750			
0.0278	1777.44	4.1050	4.1049	-0.6911	24.44	-0.04	-0.750			
0.0299	1912.88	4.1020	4.1018	-0.6937	24.44	-0.04	-0.750			
0.0320	2045.69	4.0990	4.0989	-0.6939	24.44	-0.04	-0.750			
0.0340	2174.06	4.0960	4.0961	-0.6934	24.44	-0.04	-0.750			
0.0360	2305.30	4.0930	4.0930	-0.6965	24.43	-0.05	-0.750			
0.0382	2445.92	4.0900	4.0900	-0.7194	24.43	-0.05	-0.750			
0.0404	2583.84	4.0870	4.0869	-0.7261	24.43	-0.05	-0.750			
0.0426	2725.02	4.0840	4.0841	-0.7341	24.43	-0.05	-0.750			
0.0448	2868.44	4.0810	4.0809	-0.7413	24.43	-0.05	-0.750			
0.0470	3010.52	4.0780	4.0781	-0.7452	24.43	-0.05	-0.750			
0.0493	3154.79	4.0750	4.0750	-0.7414	24.42	-0.06	-0.750			
0.0515	3297.35	4.0720	4.0719	-0.7445	24.42	-0.06	-0.750			
0.0537	3439.79	4.0690	4.0692	-0.7413	24.42	-0.06	-0.750			
0.0560	3581.88	4.0660	4.0660	-0.7454	24.42	-0.06	-0.750			
0.0582	3724.33	4.0630	4.0630	-0.7585	24.42	-0.06	-0.750			
0.0605	3871.25	4.0600	4.0599	-0.7605	24.43	-0.05	-0.750			
0.0628	4019.89	4.0570	4.0569	-0.7634	24.43	-0.05	-0.750			
0.0651	4167.56	4.0540	4.0537	-0.7659	24.43	-0.05	-0.750			
0.0674	4314.93	4.0510	4.0509	-0.7609	24.43	-0.05	-0.750			
0.0697	4460.51	4.0480	4.0479	-0.7595	24.43	-0.05	-0.750			
0.0719	4603.96	4.0450	4.0450	-0.7646	24.43	-0.05	-0.750			
0.0743	4752.03	4.0420	4.0419	-0.7756	24.44	-0.04	-0.750			
0.0765	4899.09	4.0390	4.0388	-0.7770	24.44	-0.04	-0.750			
0.0789	5050.43	4.0360	4.0365	-0.7764	24.44	-0.04	-0.750			
0.0812	5199.74	4.0330	4.0330	-0.7770	24.44	-0.04	-0.750			
0.0836	5349.10	4.0300	4.0295	-0.7781	24.44	-0.04	-0.750			
0.0859	5495.27	4.0270	4.0269	-0.7727	24.44	-0.04	-0.750			
0.0882	5645.20	4.0240	4.0239	-0.7823	24.44	-0.04	-0.750			
0.0905	5794.10	4.0210	4.0210	-0.7833	24.44	-0.04	-0.750			
0.0929	5947.11	4.0180	4.0179	-0.7842	24.44	-0.04	-0.750			
0.0953	6098.05	4.0150	4.0149	-0.7983	24.44	-0.04	-0.750			
0.0977	6252.67	4.0120	4.0121	-0.7975	24.44	-0.04	-0.750			
0.1001	6407.07	4.0090	4.0089	-0.7937	24.44	-0.04	-0.750			
0.1025	6560.85	4.0060	4.0059	-0.7885	24.44	-0.04	-0.750			
0.1049	6711.04	4.0030	4.0028	-0.7856	24.44	-0.04	-0.750			
0.1072	6860.12	4.0000	3.9998	-0.7798	24.44	-0.04	-0.750			
0.1095	7008.16	3.9970	3.9970	-0.7856	24.44	-0.04	-0.750			
0.1118	7154.82	3.9940	3.9941	-0.7783	24.44	-0.04	-0.750			
0.1143	7312.52	3.9910	3.9908	-0.7945	24.44	-0.04	-0.750			
0.1166	7464.71	3.9880	3.9883	-0.8022	24.44	-0.04	-0.750			
0.1190	7618.84	3.9850	3.9849	-0.8065	24.44	-0.04	-0.750			
0.1215	7772.88	3.9820	3.9820	-0.8094	24.45	-0.03	-0.750			
0.1239	7928.86	3.9790	3.9790	-0.8128	24.45	-0.03	-0.750			
0.1264	8088.25	3.9760	3.9760	-0.8195	24.46	-0.02	-0.750			
0.1289	8246.90	3.9730	3.9730	-0.8118	24.46	-0.02	-0.750			
0.1312	8396.80	3.9700	3.9701	-0.8350	24.46	-0.02	-0.750			
0.1337	8558.30	3.9670	3.9671	-0.8289	24.46	-0.02	-0.750			
0.1363	8720.25	3.9640	3.9637	-0.8282	24.46	-0.02	-0.750			
0.1388	8880.90	3.9610	3.9609	-0.8263	24.46	-0.02	-0.750			
0.1412	9039.47	3.9580	3.9590	-0.8223	24.46	-0.02	-0.750			
0.1437	9198.14	3.9550	3.9550	-0.8160	24.46	-0.02	-0.750			
0.1462	9354.06	3.9520	3.9519	-0.8179	24.46	-0.02	-0.750			
0.1485	9503.10	3.9490	3.9490	-0.8099	24.47	-0.01	-0.750			
0.1510	9663.43	3.9460	3.9459	-0.8298	24.47	-0.01	-0.750			
0.1535	9822.70	3.9430	3.9430	-0.8299	24.47	-0.01	-0.750			
0.1560	9983.97	3.9400	3.9399	-0.8347	24.47	-0.01	-0.750			
0.1585	10144.17	3.9370	3.9371	-0.8351	24.47	-0.01	-0.750			
0.1610	10303.54	3.9340	3.9340	-0.8417	24.48	-0.00	-0.750			
0.1635	10465.67	3.9310	3.9310	-0.8440	24.48	-0.00	-0.750			
0.1661	10627.29	3.9280	3.9278	-0.8456	24.48	-0.00	-0.750			
0.1686	10787.77	3.9250	3.9251	-0.8551	24.48	0.00	-0.750			
0.1712	10957.67	3.9220	3.9220	-0.8539	24.48	0.00	-0.750			
0.1738	11121.74	3.9190	3.9189	-0.8492	24.48	0.00	-0.750			
0.1763	11284.50	3.9160	3.9159	-0.8490	24.48	0.00	-0.750			
0.1788	11444.43	3.9130	3.9144	-0.8441	24.48	0.00	-0.750			
0.1813	11604.78	3.9100	3.9098	-0.8623	24.48	0.00	-0.750			
0.1839	11772.48	3.9070	3.9068	-0.8576	24.48	0.00	-0.750			
0.1865	11937.76	3.9040	3.9040	-0.8614	24.48	0.00	-0.750			
0.1892	12106.84	3.9010	3.9010	-0.8703	24.48	0.00	-0.750			
0.1918	12276.09	3.8980	3.8983	-0.8647	24.48	0.00	-0.750			
0.1944	12440.74	3.8950	3.8947	-0.8601	24.48	0.00	-0.750			
0.1969	12602.55	3.8920	3.8920	-0.8542	24.48	0.00	-0.750			
0.1994	12763.18	3.8890	3.8890	-0.8487	24.48	0.00	-0.750			
0.2020	12929.83	3.8860	3.8860	-0.8652	24.48	0.00	-0.750			
0.2046	13094.99	3.8830	3.8831	-0.8653	24.48	0.00	-0.750			
0.2072	13262.68	3.8800	3.8799	-0.8757	24.48	0.00	-0.750			
0.2099	13433.72	3.8770	3.8770	-0.8782	24.48	0.00	-0.750			
0.2126	13604.03	3.8740	3.8738	-0.8759	24.49	0.01	-0.750			
0.2152	13774.27	3.8710	3.8710	-0.8747	24.49	0.01	-0.750			
0.2178	13940.56	3.8680	3.8679	-0.8666	24.49	0.01	-0.750			
0.2204	14104.39	3.8650	3.8649	-0.8719	24.49	0.01	-0.750			
0.2230	14272.83	3.8620	3.8617	-0.8679	24.50	0.02	-0.750			
0.2256	14436.59	3.8590	3.8589	-0.8608	24.50	0.02	-0.750			
0.2282	14606.53	3.8560	3.8565	-0.8675	24.50	0.02	-0.750			
0.2308	14773.91	3.8530	3.8528	-0.8675	24.50	0.02	-0.750			
0.2334	14937.80	3.8500	3.8500	-0.8710	24.50	0.02	-0.750			
0.2359	15099.77	3.8470	3.8470	-0.8672	24.50	0.02	-0.750			
0.2386	15270.74	3.8440	3.8438	-0.8879	24.50	0.02	-0.750			
0.2413	15443.26	3.8410	3.8412	-0.8824	24.50	0.02	-0.750			
0.2439	15611.28	3.8380	3.8380	-0.8887	24.50	0.02	-0.750			
0.2466	15785.27	3.8350	3.8351	-0.8821	24.51	0.03	-0.750			
0.2493	15953.76	3.8320	3.8319	-0.8760	24.51	0.03	-0.750			
0.2519	16120.79	3.8290	3.8288	-0.8674	24.52	0.04	-0.750			
0.2545	16285.92	3.8260	3.8259	-0.8617	24.52	0.04	-0.750			
0.2570	16447.95	3.8230	3.8230	-0.8669	24.52	0.04	-0.750			
0.2596	16617.01	3.8200	3.8200	-0.8625	24.52	0.04	-0.750			
0.2622	16778.76	3.8170	3.8169	-0.8581	24.52	0.04	-0.750			
0.2648	16947.50	3.8140	3.8139	-0.8649	24.52	0.04	-0.750			
0.2674	17112.92	3.8110	3.8109	-0.8611	24.52	0.04	-0.750			
0.2700	17279.25	3.8080	3.8079	-0.8698	24.52	0.04	-0.750			
0.2726	17446.48	3.8050	3.8050	-0.8648	24.52	0.04	-0.750			
0.2752	17612.23	3.8020	3.8019	-0.8540	24.52	0.04	-0.750			
0.2778	17780.92	3.7990	3.7989	-0.8517	24.52	0.04	-0.750			
0.2803	17942.29	3.7960	3.7959	-0.8407	24.52	0.04	-0.750			
0.2828	18101.72	3.7930	3.7929	-0.8445	24.52	0.04	-0.750			
0.2853	18261.18	3.7900	3.7900	-0.8370	24.52	0.04	-0.750			
0.2878	18419.74	3.7870	3.7869	-0.8312	24.52	0.04	-0.750			
0.2904	18586.45	3.7840	3.7843	-0.8338	24.52	0.04	-0.750			
0.2929	18746.57	3.7810	3.7809	-0.8252	24.52	0.04	-0.750			
0.2954	18904.97	3.7780	3.7780	-0.8234	24.53	0.05	-0.750			
0.2978	19059.77	3.7750	3.7749	-0.8093	24.53	0.05	-0.750			
0.3001	19209.32	3.7720	3.7719	-0.7982	24.53	0.05	-0.750			
0.3026	19365.68	3.7690	3.7690	-0.8139	24.54	0.06	-0.750			
0.3050	19522.04	3.7660	3.7658	-0.8164	24.54	0.06	-0.750			
0.3075	19680.17	3.7630	3.7630	-0.8186	24.54	0.06	-0.750			
0.3100	19837.83	3.7600	3.7599	-0.8211	24.54	0.06	-0.750			
0.3124	19994.99	3.7570	3.7571	-0.8181	24.54	0.06	-0.750			
0.3149	20154.79	3.7540	3.7539	-0.8222	24.54	0.06	-0.750			
0.3174	20311.08	3.7510	3.7510	-0.8186	24.54	0.06	-0.750			
0.3198	20466.72	3.7480	3.7480	-0.8333	24.54	0.06	-0.750			
0.3224	20631.41	3.7450	3.7449	-0.8402	24.54	0.06	-0.750			
0.3249	20795.43	3.7420	3.7417	-0.8351	24.54	0.06	-0.750			
0.3274	20954.78	3.7390	3.7388	-0.8357	24.54	0.06	-0.750			
0.3299	21115.21	3.7360	3.7359	-0.8445	24.54	0.06	-0.750			
0.3324	21275.13	3.7330	3.7326	-0.8566	24.54	0.06	-0.750			
0.3350	21437.07	3.7300	3.7299	-0.8589	24.54	0.06	-0.750			
0.3376	21606.96	3.7270	3.7270	-0.8836	24.54	0.06	-0.750			
0.3403	21778.91	3.7240	3.7241	-0.8975	24.54	0.06	-0.750			
0.3430	21950.47	3.7210	3.7209	-0.9137	24.54	0.06	-0.750			
0.3457	22122.27	3.7180	3.7178	-0.9229	24.54	0.06	-0.750			
0.3484	22300.64	3.7150	3.7150	-0.9395	24.54	0.06	-0.750			
0.3513	22481.11	3.7120	3.7120	-0.9527	24.54	0.06	-0.750			
0.3543	22673.78	3.7090	3.7092	-0.9861	24.54	0.06	-0.750			
0.3573	22866.46	3.7060	3.7059	-1.0054	24.53	0.05	-0.750			
0.3603	23061.71	3.7030	3.7029	-1.0152	24.53	0.05	-0.750			
0.3634	23257.05	3.7000	3.6999	-1.0269	24.52	0.04	-0.750	0.390	0.519	
0.3665	23455.53	3.6970	3.6979	-1.0390	24.52	0.04	-0.750			
0.3696	23657.10	3.6940	3.6938	-1.0625	24.51	0.03	-0.750			
0.3728	23860.14	3.6910	3.6910	-1.0756	24.51	0.03	-0.750			
0.3761	24067.81	3.6880	3.6879	-1.1007	24.50	0.02	-0.750			
0.3794	24280.53	3.6850	3.6853	-1.1258	24.50	0.02	-0.750			
0.3828	24500.26	3.6820	3.6819	-1.1405	24.49	0.01	-0.750			
0.3862	24719.56	3.6790	3.6790	-1.1569	24.48	0.00	-0.750			
0.3897	24937.69	3.6760	3.6760	-1.1971	24.47	-0.01	-0.750			
0.3933	25172.11	3.6730	3.6729	-1.2326	24.47	-0.01	-0.750			
0.3971	25416.28	3.6700	3.6698	-1.2450	24.46	-0.02	-0.750			
0.4009	25658.68	3.6670	3.6669	-1.2654	24.45	-0.03	-0.750			
0.4048	25906.22	3.6640	3.6638	-1.2967	24.44	-0.04	-0.750			
0.4087	26157.03	3.6610	3.6608	-1.3353	24.42	-0.06	-0.750			
0.4127	26415.27	3.6580	3.6577	-1.3428	24.41	-0.07	-0.750			
0.4167	26670.84	3.6550	3.6553	-1.3581	24.40	-0.08	-0.750			
0.4208	26932.26	3.6520	3.6520	-1.4086	24.39	-0.09	-0.750			
0.4252	27215.09	3.6490	3.6487	-1.4548	24.39	-0.09	-0.750			
0.4297	27500.66	3.6460	3.6458	-1.4892	24.38	-0.10	-0.750			
0.4342	27786.96	3.6430	3.6425	-1.5419	24.36	-0.12	-0.750			
0.4390	28093.96	3.6400	3.6395	-1.5326	24.35	-0.13	-0.750			
0.4437	28398.46	3.6370	3.6372	-1.5634	24.34	-0.14	-0.750			
0.4484	28699.73	3.6340	3.6330	-1.5709	24.33	-0.15	-0.750			
0.4530	28993.54	3.6310	3.6306	-1.5453	24.32	-0.16	-0.750			
0.4578	29300.08	3.6280	3.6283	-1.6237	24.31	-0.17	-0.750			
0.4628	29616.22	3.6250	3.6257	-1.6443	24.30	-0.18	-0.750			
0.4675	29922.42	3.6220	3.6217	-1.6670	24.29	-0.19	-0.750			
0.4728	30257.74	3.6190	3.6187	-1.7106	24.28	-0.20	-0.750			
0.4779	30582.56	3.6160	3.6154	-1.7513	24.28	-0.20	-0.750			
0.4831	30921.56	3.6130	3.6133	-1.8440	24.27	-0.21	-0.750			
0.4884	31259.94	3.6100	3.6099	-1.9269	24.26	-0.22	-0.750			
0.4947	31658.62	3.6070	3.6064	-2.0355	24.25	-0.23	-0.750			
0.5011	32068.19	3.6040	3.6047	-2.0800	24.24	-0.24	-0.750			
0.5078	32501.01	3.6010	3.6013	-2.1496	24.23	-0.25	-0.750			
0.5141	32901.25	3.5980	3.5977	-2.1013	24.22	-0.26	-0.750			
0.5203	33296.07	3.5950	3.5950	-2.0913	24.22	-0.26	-0.750			
0.5261	33673.33	3.5920	3.5920	-2.0432	24.22	-0.26	-0.750			
0.5323	34067.09	3.5890	3.5888	-2.1210	24.21	-0.27	-0.750			
0.5390	34495.12	3.5860	3.5859	-2.1144	24.20	-0.28	-0.750			
0.5454	34904.58	3.5830	3.5830	-2.1622	24.20	-0.28	-0.750			
0.5518	35313.83	3.5800	3.5797	-2.1635	24.20	-0.28	-0.750			
0.5583	35734.29	3.5770	3.5774	-2.1738	24.19	-0.29	-0.750			
0.5651	36168.78	3.5740	3.5742	-2.2383	24.18	-0.30	-0.750			
0.5718	36595.36	3.5710	3.5712	-2.3321	24.18	-0.30	-0.750			
0.5788	37040.31	3.5680	3.5679	-2.2427	24.18	-0.30	-0.750			
0.5856	37481.49	3.5650	3.5649	-2.2626	24.18	-0.30	-0.750			
0.5925	37917.49	3.5620	3.5620	-2.3076	24.18	-0.30	-0.750			
0.5993	38358.24	3.5590	3.5585	-2.2421	24.18	-0.30	-0.750			
0.6060	38784.51	3.5560	3.5560	-2.2550	24.18	-0.30	-0.750			
0.6131	39241.10	3.5530	3.5527	-2.2602	24.20	-0.28	-0.750			
0.6199	39675.73	3.5500	3.5496	-2.2390	24.20	-0.28	-0.750			
0.6264	40088.32	3.5470	3.5473	-2.1848	24.20	-0.28	-0.750			
0.6329	40507.36	3.5440	3.5440	-2.1466	24.21	-0.27	-0.750			
0.6395	40925.40	3.5410	3.5411	-2.1456	24.22	-0.26	-0.750			
0.6457	41325.66	3.5380	3.5381	-2.1462	24.22	-0.26	-0.750			
0.6523	41747.57	3.5350	3.5349	-2.0928	24.23	-0.25	-0.750			
0.6585	42147.03	3.5320	3.5319	-2.0440	24.23	-0.25	-0.750			
0.6647	42539.51	3.5290	3.5285	-1.9647	24.24	-0.24	-0.750			
0.6704	42906.77	3.5260	3.5260	-1.9122	24.25	-0.23	-0.750			
0.6761	43269.91	3.5230	3.5230	-1.8587	24.27	-0.21	-0.750			
0.6816	43620.70	3.5200	3.5197	-1.8154	24.28	-0.20	-0.750			
0.6872	43978.08	3.5170	3.5165	-1.7707	24.29	-0.19	-0.750			
0.6923	44309.33	3.5140	3.5140	-1.6997	24.30	-0.18	-0.750			
0.6974	44635.16	3.5110	3.5108	-1.6399	24.32	-0.16	-0.750			
0.7022	44941.44	3.5080	3.5079	-1.5861	24.34	-0.14	-0.750			
0.7068	45235.19	3.5050	3.5050	-1.5193	24.35	-0.13	-0.750			
0.7113	45520.88	3.5020	3.5018	-1.4816	24.36	-0.12	-0.750			
0.7156	45801.38	3.4990	3.4993	-1.4579	24.38	-0.10	-0.750			
0.7199	46074.71	3.4960	3.4960	-1.4457	24.40	-0.08	-0.750			
0.7243	46352.52	3.4930	3.4930	-1.4455	24.42	-0.06	-0.750			
0.7286	46628.11	3.4900	3.4901	-1.4259	24.44	-0.04	-0.750			
