Ah_balance (normalized)	Ah_balance (mAh)	Voltage - fit (V)	Voltage -  interpolate (V)	dQ/dV (1/V)	Temperature (°C)	Temperature - diff (°C)	Current (C)	R_DC 0ms (mOhm)	R_DC 50ms (mOhm)	R_DC 50 ms PEC (mOhm)
0.0005	29.39	4.1600	4.1596	-0.1308	24.92	0.00	-0.750			
0.0009	59.14	4.1570	4.1571	-0.1757	24.92	0.00	-0.750			
0.0015	97.99	4.1540	4.1539	-0.2182	24.92	-0.00	-0.750			
0.0022	143.98	4.1510	4.1510	-0.2582	24.92	-0.00	-0.750			
0.0031	197.50	4.1480	4.1481	-0.2967	24.91	-0.01	-0.750			
0.0040	258.64	4.1450	4.1451	-0.3364	24.91	-0.01	-0.750			
0.0051	327.84	4.1420	4.1419	-0.3750	24.91	-0.01	-0.750			
0.0063	403.53	4.1390	4.1389	-0.4065	24.90	-0.02	-0.750			
0.0076	484.90	4.1360	4.1360	-0.4424	24.90	-0.02	-0.750			
0.0090	574.12	4.1330	4.1331	-0.4713	24.89	-0.03	-0.750			
0.0104	668.65	4.1300	4.1299	-0.5016	24.89	-0.03	-0.750			
0.0120	768.26	4.1270	4.1270	-0.5253	24.88	-0.04	-0.750			
0.0136	871.72	4.1240	4.1244	-0.5461	24.88	-0.04	-0.750			
0.0153	978.69	4.1210	4.1211	-0.5675	24.88	-0.04	-0.750			
0.0171	1092.41	4.1180	4.1180	-0.5817	24.87	-0.05	-0.750			
0.0188	1204.22	4.1150	4.1149	-0.5932	24.87	-0.05	-0.750			
0.0206	1319.82	4.1120	4.1121	-0.6138	24.87	-0.05	-0.750			
0.0225	1439.56	4.1090	4.1089	-0.6186	24.87	-0.05	-0.750			
0.0244	1560.15	4.1060	4.1059	-0.6326	24.86	-0.06	-0.750			
0.0263	1681.34	4.1030	4.1033	-0.6518	24.86	-0.06	-0.750			
0.0282	1807.09	4.1000	4.0999	-0.6673	24.86	-0.06	-0.750			
0.0303	1938.72	4.0970	4.0968	-0.6812	24.86	-0.06	-0.750			
0.0323	2070.36	4.0940	4.0941	-0.6872	24.85	-0.07	-0.750			
0.0345	2206.61	4.0910	4.0910	-0.6949	24.85	-0.07	-0.750			
0.0366	2341.89	4.0880	4.0880	-0.6991	24.85	-0.07	-0.750			
0.0386	2473.52	4.0850	4.0851	-0.6999	24.85	-0.07	-0.750			
0.0407	2607.27	4.0820	4.0820	-0.6990	24.85	-0.07	-0.750			
0.0428	2740.11	4.0790	4.0789	-0.7111	24.85	-0.07	-0.750			
0.0450	2879.62	4.0760	4.0760	-0.7155	24.86	-0.06	-0.750			
0.0472	3018.98	4.0730	4.0730	-0.7221	24.86	-0.06	-0.750			
0.0493	3157.92	4.0700	4.0699	-0.7252	24.86	-0.06	-0.750			
0.0515	3297.77	4.0670	4.0672	-0.7245	24.86	-0.06	-0.750			
0.0537	3435.98	4.0640	4.0639	-0.7278	24.86	-0.06	-0.750			
0.0559	3575.40	4.0610	4.0610	-0.7352	24.86	-0.06	-0.750			
0.0581	3715.56	4.0580	4.0581	-0.7291	24.86	-0.06	-0.750			
0.0603	3859.76	4.0550	4.0549	-0.7378	24.86	-0.06	-0.750			
0.0625	4002.60	4.0520	4.0520	-0.7353	24.86	-0.06	-0.750			
0.0647	4143.54	4.0490	4.0490	-0.7312	24.86	-0.06	-0.750			
0.0669	4283.38	4.0460	4.0459	-0.7330	24.86	-0.06	-0.750			
0.0691	4421.84	4.0430	4.0431	-0.7403	24.86	-0.06	-0.750			
0.0713	4564.16	4.0400	4.0398	-0.7421	24.87	-0.05	-0.750			
0.0736	4709.28	4.0370	4.0370	-0.7490	24.87	-0.05	-0.750			
0.0758	4854.10	4.0340	4.0344	-0.7527	24.87	-0.05	-0.750			
0.0781	4999.08	4.0310	4.0310	-0.7554	24.87	-0.05	-0.750			
0.0804	5143.36	4.0280	4.0280	-0.7629	24.87	-0.05	-0.750			
0.0827	5290.81	4.0250	4.0249	-0.7565	24.88	-0.04	-0.750			
0.0850	5437.75	4.0220	4.0220	-0.7572	24.88	-0.04	-0.750			
0.0872	5583.75	4.0190	4.0189	-0.7512	24.88	-0.04	-0.750			
0.0895	5728.69	4.0160	4.0158	-0.7463	24.88	-0.04	-0.750			
0.0917	5869.31	4.0130	4.0129	-0.7420	24.89	-0.03	-0.750			
0.0939	6007.93	4.0100	4.0102	-0.7358	24.89	-0.03	-0.750			
0.0960	6146.90	4.0070	4.0069	-0.7374	24.89	-0.03	-0.750			
0.0983	6291.76	4.0040	4.0040	-0.7540	24.90	-0.02	-0.750			
0.1006	6435.67	4.0010	4.0010	-0.7589	24.90	-0.02	-0.750			
0.1028	6582.11	3.9980	3.9980	-0.7689	24.90	-0.02	-0.750			
0.1052	6731.35	3.9950	3.9950	-0.7821	24.90	-0.02	-0.750			
0.1076	6885.11	3.9920	3.9920	-0.7805	24.91	-0.01	-0.750			
0.1100	7036.99	3.9890	3.9890	-0.7818	24.91	-0.01	-0.750			
0.1123	7186.57	3.9860	3.9861	-0.7809	24.91	-0.01	-0.750			
0.1146	7336.17	3.9830	3.9830	-0.7769	24.91	-0.01	-0.750			
0.1169	7480.54	3.9800	3.9800	-0.7888	24.91	-0.01	-0.750			
0.1193	7634.52	3.9770	3.9770	-0.7870	24.91	-0.01	-0.750			
0.1217	7787.19	3.9740	3.9739	-0.7875	24.92	-0.00	-0.750			
0.1241	7941.39	3.9710	3.9708	-0.7895	24.92	-0.00	-0.750			
0.1265	8093.70	3.9680	3.9683	-0.7853	24.92	0.00	-0.750			
0.1288	8241.41	3.9650	3.9650	-0.7876	24.92	0.00	-0.750			
0.1311	8390.65	3.9620	3.9619	-0.7854	24.93	0.01	-0.750			
0.1334	8537.75	3.9590	3.9590	-0.7760	24.93	0.01	-0.750			
0.1358	8693.17	3.9560	3.9560	-0.7978	24.94	0.02	-0.750			
0.1382	8847.82	3.9530	3.9531	-0.8025	24.94	0.02	-0.750			
0.1407	9002.63	3.9500	3.9500	-0.7998	24.94	0.02	-0.750			
0.1431	9156.12	3.9470	3.9469	-0.8073	24.94	0.02	-0.750			
0.1455	9310.72	3.9440	3.9440	-0.8064	24.94	0.02	-0.750			
0.1479	9466.85	3.9410	3.9409	-0.8066	24.94	0.02	-0.750			
0.1504	9622.91	3.9380	3.9382	-0.7989	24.94	0.02	-0.750			
0.1527	9774.27	3.9350	3.9350	-0.7999	24.94	0.02	-0.750			
0.1551	9926.79	3.9320	3.9319	-0.8119	24.95	0.03	-0.750			
0.1576	10083.63	3.9290	3.9289	-0.8150	24.95	0.03	-0.750			
0.1600	10239.99	3.9260	3.9259	-0.8061	24.95	0.03	-0.750			
0.1625	10399.84	3.9230	3.9231	-0.8144	24.96	0.04	-0.750			
0.1649	10556.08	3.9200	3.9199	-0.8185	24.96	0.04	-0.750			
0.1674	10713.44	3.9170	3.9169	-0.8169	24.97	0.05	-0.750			
0.1698	10867.70	3.9140	3.9138	-0.8064	24.97	0.05	-0.750			
0.1722	11018.44	3.9110	3.9111	-0.8016	24.97	0.05	-0.750			
0.1746	11176.88	3.9080	3.9081	-0.8159	24.98	0.06	-0.750			
0.1771	11334.17	3.9050	3.9051	-0.8170	24.98	0.06	-0.750			
0.1795	11488.92	3.9020	3.9018	-0.8174	24.98	0.06	-0.750			
0.1820	11647.18	3.8990	3.8990	-0.8148	24.98	0.06	-0.750			
0.1845	11806.56	3.8960	3.8961	-0.8151	24.99	0.07	-0.750			
0.1869	11962.51	3.8930	3.8929	-0.8163	24.99	0.07	-0.750			
0.1894	12118.96	3.8900	3.8901	-0.8122	24.99	0.07	-0.750			
0.1917	12270.99	3.8870	3.8870	-0.8254	24.99	0.07	-0.750			
0.1943	12434.31	3.8840	3.8839	-0.8174	24.99	0.07	-0.750			
0.1967	12590.75	3.8810	3.8809	-0.8122	25.00	0.08	-0.750			
0.1992	12749.00	3.8780	3.8779	-0.8135	25.00	0.08	-0.750			
0.2016	12905.32	3.8750	3.8749	-0.8113	25.00	0.08	-0.750			
0.2040	13058.89	3.8720	3.8718	-0.8023	25.00	0.08	-0.750			
0.2064	13209.68	3.8690	3.8689	-0.7957	25.01	0.09	-0.750			
0.2087	13358.64	3.8660	3.8661	-0.7901	25.01	0.09	-0.750			
0.2112	13518.06	3.8630	3.8631	-0.8020	25.02	0.10	-0.750			
0.2136	13670.50	3.8600	3.8599	-0.7950	25.02	0.10	-0.750			
0.2160	13823.59	3.8570	3.8570	-0.7861	25.02	0.10	-0.750			
0.2183	13973.05	3.8540	3.8539	-0.7855	25.02	0.10	-0.750			
0.2207	14124.52	3.8510	3.8511	-0.7841	25.03	0.11	-0.750			
0.2230	14274.62	3.8480	3.8478	-0.7834	25.03	0.11	-0.750			
0.2254	14425.50	3.8450	3.8453	-0.7811	25.03	0.11	-0.750			
0.2277	14575.00	3.8420	3.8418	-0.7810	25.03	0.11	-0.750			
0.2300	14722.95	3.8390	3.8391	-0.7873	25.03	0.11	-0.750			
0.2324	14876.32	3.8360	3.8360	-0.7843	25.04	0.12	-0.750			
0.2348	15025.65	3.8330	3.8329	-0.7698	25.04	0.12	-0.750			
0.2371	15176.58	3.8300	3.8300	-0.7738	25.04	0.12	-0.750			
0.2394	15324.15	3.8270	3.8271	-0.7672	25.04	0.12	-0.750			
0.2417	15471.77	3.8240	3.8237	-0.7612	25.05	0.13	-0.750			
0.2440	15615.04	3.8210	3.8211	-0.7579	25.05	0.13	-0.750			
0.2462	15757.21	3.8180	3.8181	-0.7543	25.05	0.13	-0.750			
0.2485	15904.78	3.8150	3.8150	-0.7605	25.06	0.14	-0.750			
0.2508	16052.44	3.8120	3.8120	-0.7634	25.06	0.14	-0.750			
0.2531	16196.49	3.8090	3.8090	-0.7577	25.06	0.14	-0.750			
0.2553	16341.96	3.8060	3.8060	-0.7668	25.06	0.14	-0.750			
0.2577	16491.52	3.8030	3.8030	-0.7597	25.06	0.14	-0.750			
0.2599	16635.72	3.8000	3.7999	-0.7601	25.06	0.14	-0.750			
0.2622	16781.50	3.7970	3.7971	-0.7634	25.06	0.14	-0.750			
0.2645	16927.65	3.7940	3.7938	-0.7685	25.06	0.14	-0.750			
0.2668	17076.84	3.7910	3.7909	-0.7671	25.06	0.14	-0.750			
0.2691	17225.08	3.7880	3.7879	-0.7760	25.06	0.14	-0.750			
0.2715	17373.76	3.7850	3.7851	-0.7755	25.07	0.15	-0.750			
0.2738	17525.98	3.7820	3.7820	-0.7793	25.07	0.15	-0.750			
0.2762	17673.87	3.7790	3.7794	-0.7745	25.07	0.15	-0.750			
0.2785	17822.61	3.7760	3.7759	-0.7771	25.07	0.15	-0.750			
0.2808	17969.69	3.7730	3.7731	-0.7784	25.07	0.15	-0.750			
0.2831	18119.55	3.7700	3.7699	-0.7841	25.07	0.15	-0.750			
0.2855	18270.97	3.7670	3.7670	-0.7932	25.07	0.15	-0.750			
0.2879	18423.24	3.7640	3.7641	-0.7981	25.07	0.15	-0.750			
0.2903	18576.63	3.7610	3.7610	-0.8080	25.07	0.15	-0.750			
0.2927	18732.91	3.7580	3.7579	-0.8191	25.07	0.15	-0.750			
0.2952	18891.04	3.7550	3.7550	-0.8239	25.07	0.15	-0.750			
0.2977	19050.95	3.7520	3.7520	-0.8290	25.07	0.15	-0.750			
0.3002	19211.43	3.7490	3.7490	-0.8385	25.07	0.15	-0.750			
0.3026	19368.79	3.7460	3.7460	-0.8579	25.07	0.15	-0.750			
0.3052	19534.08	3.7430	3.7429	-0.8599	25.07	0.15	-0.750			
0.3078	19701.99	3.7400	3.7399	-0.8643	25.06	0.14	-0.750			
0.3105	19869.14	3.7370	3.7369	-0.8694	25.06	0.14	-0.750			
0.3131	20040.59	3.7340	3.7343	-0.8828	25.06	0.14	-0.750			
0.3158	20208.90	3.7310	3.7309	-0.8888	25.06	0.14	-0.750			
0.3184	20377.07	3.7280	3.7279	-0.8886	25.05	0.13	-0.750			
0.3210	20546.85	3.7250	3.7250	-0.8970	25.05	0.13	-0.750			
0.3238	20720.56	3.7220	3.7219	-0.9178	25.04	0.12	-0.750			
0.3265	20897.70	3.7190	3.7191	-0.9314	25.04	0.12	-0.750			
0.3293	21078.02	3.7160	3.7159	-0.9507	25.04	0.12	-0.750			
0.3322	21263.27	3.7130	3.7130	-0.9620	25.04	0.12	-0.750			
0.3352	21450.98	3.7100	3.7099	-0.9733	25.04	0.12	-0.750			
0.3381	21641.53	3.7070	3.7073	-0.9889	25.04	0.12	-0.750			
0.3411	21833.25	3.7040	3.7039	-1.0003	25.04	0.12	-0.750			
0.3442	22026.01	3.7010	3.7009	-1.0002	25.03	0.11	-0.750			
0.3472	22217.81	3.6980	3.6978	-1.0079	25.03	0.11	-0.750	0.356	0.518	
0.3502	22412.05	3.6950	3.6953	-1.0253	25.02	0.10	-0.750			
0.3532	22607.69	3.6920	3.6918	-1.0437	25.02	0.10	-0.750			
0.3564	22809.63	3.6890	3.6889	-1.0575	25.01	0.09	-0.750			
0.3596	23013.25	3.6860	3.6859	-1.0758	25.01	0.09	-0.750			
0.3628	23220.12	3.6830	3.6829	-1.0947	25.00	0.08	-0.750			
0.3662	23439.25	3.6800	3.6799	-1.1203	25.00	0.08	-0.750			
0.3696	23655.04	3.6770	3.6770	-1.1317	25.00	0.08	-0.750			
0.3730	23872.33	3.6740	3.6740	-1.1416	24.99	0.07	-0.750			
0.3765	24096.50	3.6710	3.6711	-1.1784	24.99	0.07	-0.750			
0.3801	24324.36	3.6680	3.6680	-1.1917	24.98	0.06	-0.750			
0.3836	24553.06	3.6650	3.6648	-1.2080	24.98	0.06	-0.750			
0.3873	24786.42	3.6620	3.6619	-1.2273	24.97	0.05	-0.750			
0.3910	25026.54	3.6590	3.6588	-1.2496	24.96	0.04	-0.750			
0.3948	25266.73	3.6560	3.6560	-1.2605	24.95	0.03	-0.750			
0.3985	25504.81	3.6530	3.6531	-1.2880	24.95	0.03	-0.750			
0.4025	25758.67	3.6500	3.6500	-1.3181	24.94	0.02	-0.750			
0.4064	26012.21	3.6470	3.6469	-1.3329	24.94	0.02	-0.750			
0.4104	26266.78	3.6440	3.6439	-1.3695	24.93	0.01	-0.750			
0.4146	26537.32	3.6410	3.6411	-1.3858	24.93	0.01	-0.750			
0.4189	26807.26	3.6380	3.6379	-1.4011	24.93	0.01	-0.750			
0.4231	27076.68	3.6350	3.6349	-1.4233	24.92	0.00	-0.750			
0.4273	27345.33	3.6320	3.6322	-1.4442	24.92	-0.00	-0.750			
0.4318	27633.48	3.6290	3.6288	-1.4819	24.91	-0.01	-0.750			
0.4362	27919.77	3.6260	3.6258	-1.5303	24.90	-0.02	-0.750			
0.4410	28221.11	3.6230	3.6232	-1.5463	24.90	-0.02	-0.750			
0.4457	28524.34	3.6200	3.6197	-1.6223	24.89	-0.03	-0.750			
0.4507	28842.19	3.6170	3.6173	-1.6408	24.88	-0.04	-0.750			
0.4556	29156.20	3.6140	3.6139	-1.6498	24.88	-0.04	-0.750			
0.4606	29476.17	3.6110	3.6109	-1.6551	24.88	-0.04	-0.750			
0.4656	29798.10	3.6080	3.6076	-1.6819	24.88	-0.04	-0.750			
0.4708	30129.54	3.6050	3.6045	-1.7305	24.87	-0.05	-0.750			
0.4759	30454.77	3.6020	3.6019	-1.7644	24.87	-0.05	-0.750			
0.4810	30786.88	3.5990	3.5993	-1.8042	24.87	-0.05	-0.750			
0.4866	31145.30	3.5960	3.5962	-1.8420	24.86	-0.06	-0.750			
0.4923	31506.78	3.5930	3.5929	-1.8510	24.86	-0.06	-0.750			
0.4980	31872.88	3.5900	3.5899	-1.9078	24.86	-0.06	-0.750			
0.5039	32249.57	3.5870	3.5867	-1.9045	24.86	-0.06	-0.750			
0.5096	32616.87	3.5840	3.5839	-1.9291	24.86	-0.06	-0.750			
0.5154	32986.18	3.5810	3.5807	-1.9538	24.86	-0.06	-0.750			
0.5214	33367.88	3.5780	3.5773	-1.9720	24.86	-0.06	-0.750			
0.5271	33735.80	3.5750	3.5752	-1.9679	24.86	-0.06	-0.750			
0.5334	34134.68	3.5720	3.5720	-2.0316	24.86	-0.06	-0.750			
0.5393	34518.32	3.5690	3.5691	-2.0347	24.86	-0.06	-0.750			
0.5455	34914.32	3.5660	3.5659	-2.0290	24.86	-0.06	-0.750			
0.5517	35311.82	3.5630	3.5631	-2.0602	24.86	-0.06	-0.750			
0.5579	35705.92	3.5600	3.5598	-2.0726	24.87	-0.05	-0.750			
0.5639	36090.72	3.5570	3.5573	-2.0667	24.88	-0.04	-0.750			
0.5702	36495.10	3.5540	3.5540	-2.0640	24.89	-0.03	-0.750			
0.5764	36892.04	3.5510	3.5513	-2.0510	24.90	-0.02	-0.750			
0.5826	37283.45	3.5480	3.5481	-2.0041	24.90	-0.02	-0.750			
0.5886	37667.60	3.5450	3.5447	-1.9844	24.90	-0.02	-0.750			
0.5944	38044.80	3.5420	3.5424	-1.9536	24.91	-0.01	-0.750			
0.6003	38422.35	3.5390	3.5393	-1.9331	24.93	0.01	-0.750			
0.6062	38795.15	3.5360	3.5363	-1.9154	24.94	0.02	-0.750			
0.6118	39156.85	3.5330	3.5332	-1.8562	24.96	0.04	-0.750			
0.6173	39508.91	3.5300	3.5300	-1.8250	24.97	0.05	-0.750			
0.6227	39853.23	3.5270	3.5271	-1.7850	24.97	0.05	-0.750			
0.6282	40205.69	3.5240	3.5237	-1.7654	24.99	0.07	-0.750			
0.6334	40536.02	3.5210	3.5208	-1.7485	25.00	0.08	-0.750			
0.6387	40877.75	3.5180	3.5182	-1.7106	25.02	0.10	-0.750			
0.6438	41200.73	3.5150	3.5154	-1.6833	25.04	0.12	-0.750			
0.6488	41523.13	3.5120	3.5125	-1.6432	25.05	0.13	-0.750			
0.6536	41831.11	3.5090	3.5087	-1.5840	25.07	0.15	-0.750			
0.6583	42132.89	3.5060	3.5057	-1.5387	25.10	0.18	-0.750			
0.6628	42422.22	3.5030	3.5034	-1.5010	25.12	0.20	-0.750			
0.6673	42705.16	3.5000	3.4998	-1.4562	25.14	0.22	-0.750			
0.6715	42978.53	3.4970	3.4969	-1.4055	25.15	0.23	-0.750			
0.6756	43236.03	3.4940	3.4943	-1.3518	25.17	0.25	-0.750			
0.6797	43497.70	3.4910	3.4909	-1.3287	25.18	0.26	-0.750			
0.6837	43756.15	3.4880	3.4880	-1.2909	25.19	0.27	-0.750			
0.6875	43998.63	3.4850	3.4847	-1.2457	25.20	0.28	-0.750			
0.6911	44233.57	3.4820	3.4819	-1.1790	25.21	0.29	-0.750			
