Ah_balance (normalized)	Ah_balance (mAh)	Voltage - fit (V)	Voltage -  interpolate (V)	dQ/dV (1/V)	Temperature (°C)	Temperature - diff (°C)	Current (C)	R_DC 0ms (mOhm)	R_DC 50ms (mOhm)	R_DC 50 ms PEC (mOhm)
0.0004	27.46	4.1620	4.1620	-0.1553	25.16	0.02	-0.750			
0.0010	62.10	4.1590	4.1590	-0.1982	25.16	0.02	-0.750			
0.0016	104.08	4.1560	4.1559	-0.2377	25.16	0.02	-0.750			
0.0024	152.96	4.1530	4.1530	-0.2785	25.15	0.01	-0.750			
0.0033	210.64	4.1500	4.1501	-0.3174	25.15	0.01	-0.750			
0.0043	275.51	4.1470	4.1470	-0.3572	25.15	0.01	-0.750			
0.0054	348.30	4.1440	4.1439	-0.3943	25.14	0.00	-0.750			
0.0067	428.51	4.1410	4.1410	-0.4273	25.14	0.00	-0.750			
0.0080	513.91	4.1380	4.1380	-0.4618	25.14	-0.00	-0.750			
0.0094	604.72	4.1350	4.1351	-0.4966	25.13	-0.01	-0.750			
0.0110	703.43	4.1320	4.1320	-0.5249	25.13	-0.01	-0.750			
0.0126	807.13	4.1290	4.1288	-0.5599	25.12	-0.02	-0.750			
0.0144	920.66	4.1260	4.1261	-0.5802	25.12	-0.02	-0.750			
0.0162	1035.84	4.1230	4.1230	-0.6006	25.11	-0.03	-0.750			
0.0181	1155.46	4.1200	4.1200	-0.6207	25.10	-0.04	-0.750			
0.0199	1275.38	4.1170	4.1172	-0.6305	25.10	-0.04	-0.750			
0.0218	1394.92	4.1140	4.1139	-0.6409	25.10	-0.04	-0.750			
0.0238	1520.13	4.1110	4.1109	-0.6563	25.09	-0.05	-0.750			
0.0258	1649.70	4.1080	4.1080	-0.6711	25.09	-0.05	-0.750			
0.0279	1782.99	4.1050	4.1049	-0.6836	25.09	-0.05	-0.750			
0.0299	1916.36	4.1020	4.1019	-0.6899	25.08	-0.06	-0.750			
0.0320	2049.65	4.0990	4.0994	-0.6899	25.08	-0.06	-0.750			
0.0341	2181.08	4.0960	4.0959	-0.6938	25.08	-0.06	-0.750			
0.0361	2312.67	4.0930	4.0929	-0.6964	25.07	-0.07	-0.750			
0.0382	2441.73	4.0900	4.0902	-0.6936	25.07	-0.07	-0.750			
0.0404	2582.88	4.0870	4.0870	-0.7169	25.07	-0.07	-0.750			
0.0425	2719.69	4.0840	4.0840	-0.7225	25.06	-0.08	-0.750			
0.0447	2859.54	4.0810	4.0811	-0.7292	25.06	-0.08	-0.750			
0.0469	3000.91	4.0780	4.0780	-0.7357	25.06	-0.08	-0.750			
0.0491	3142.31	4.0750	4.0750	-0.7409	25.06	-0.08	-0.750			
0.0514	3286.69	4.0720	4.0720	-0.7450	25.06	-0.08	-0.750			
0.0536	3430.91	4.0690	4.0689	-0.7469	25.06	-0.08	-0.750			
0.0558	3574.05	4.0660	4.0659	-0.7461	25.06	-0.08	-0.750			
0.0581	3716.61	4.0630	4.0629	-0.7457	25.06	-0.08	-0.750			
0.0602	3855.50	4.0600	4.0600	-0.7777	25.06	-0.08	-0.750			
0.0626	4003.87	4.0570	4.0570	-0.7994	25.06	-0.08	-0.750			
0.0650	4160.92	4.0540	4.0537	-0.8162	25.05	-0.09	-0.750			
0.0676	4328.83	4.0510	4.0507	-0.8290	25.05	-0.09	-0.750			
0.0702	4491.28	4.0480	4.0485	-0.8264	25.05	-0.09	-0.750			
0.0727	4654.66	4.0450	4.0449	-0.8154	25.05	-0.09	-0.750			
0.0751	4807.37	4.0420	4.0418	-0.7949	25.05	-0.09	-0.750			
0.0773	4947.24	4.0390	4.0391	-0.7629	25.06	-0.08	-0.750			
0.0797	5097.78	4.0360	4.0360	-0.7689	25.06	-0.08	-0.750			
0.0820	5246.21	4.0330	4.0333	-0.7710	25.06	-0.08	-0.750			
0.0843	5392.67	4.0300	4.0300	-0.7726	25.06	-0.08	-0.750			
0.0866	5540.24	4.0270	4.0270	-0.7747	25.06	-0.08	-0.750			
0.0889	5689.86	4.0240	4.0240	-0.7795	25.06	-0.08	-0.750			
0.0913	5842.28	4.0210	4.0209	-0.7783	25.06	-0.08	-0.750			
0.0936	5990.12	4.0180	4.0180	-0.7794	25.06	-0.08	-0.750			
0.0959	6140.56	4.0150	4.0150	-0.7816	25.06	-0.08	-0.750			
0.0983	6288.63	4.0120	4.0120	-0.7828	25.06	-0.08	-0.750			
0.1006	6438.40	4.0090	4.0089	-0.7805	25.06	-0.08	-0.750			
0.1030	6589.44	4.0060	4.0060	-0.7840	25.06	-0.08	-0.750			
0.1053	6741.54	4.0030	4.0029	-0.7903	25.06	-0.08	-0.750			
0.1077	6894.97	4.0000	4.0001	-0.7911	25.06	-0.08	-0.750			
0.1101	7043.35	3.9970	3.9970	-0.7939	25.07	-0.07	-0.750			
0.1125	7197.89	3.9940	3.9941	-0.7986	25.07	-0.07	-0.750			
0.1149	7351.63	3.9910	3.9909	-0.7969	25.07	-0.07	-0.750			
0.1173	7506.10	3.9880	3.9879	-0.8000	25.08	-0.06	-0.750			
0.1197	7660.18	3.9850	3.9852	-0.8010	25.08	-0.06	-0.750			
0.1221	7813.25	3.9820	3.9820	-0.7986	25.08	-0.06	-0.750			
0.1245	7967.84	3.9790	3.9789	-0.8048	25.08	-0.06	-0.750			
0.1269	8121.06	3.9760	3.9760	-0.8042	25.08	-0.06	-0.750			
0.1293	8277.58	3.9730	3.9729	-0.8090	25.08	-0.06	-0.750			
0.1318	8433.37	3.9700	3.9704	-0.8087	25.08	-0.06	-0.750			
0.1342	8588.86	3.9670	3.9669	-0.8090	25.08	-0.06	-0.750			
0.1366	8743.92	3.9640	3.9640	-0.8177	25.08	-0.06	-0.750			
0.1391	8901.61	3.9610	3.9610	-0.8146	25.09	-0.05	-0.750			
0.1416	9060.45	3.9580	3.9578	-0.8196	25.09	-0.05	-0.750			
0.1440	9215.97	3.9550	3.9554	-0.8150	25.09	-0.05	-0.750			
0.1464	9372.33	3.9520	3.9519	-0.8164	25.09	-0.05	-0.750			
0.1489	9527.35	3.9490	3.9490	-0.8225	25.09	-0.05	-0.750			
0.1513	9683.56	3.9460	3.9459	-0.8240	25.10	-0.04	-0.750			
0.1538	9846.22	3.9430	3.9429	-0.8321	25.10	-0.04	-0.750			
0.1564	10006.45	3.9400	3.9402	-0.8334	25.10	-0.04	-0.750			
0.1589	10167.22	3.9370	3.9370	-0.8374	25.10	-0.04	-0.750			
0.1614	10327.21	3.9340	3.9340	-0.8404	25.10	-0.04	-0.750			
0.1639	10486.79	3.9310	3.9309	-0.8361	25.10	-0.04	-0.750			
0.1664	10647.39	3.9280	3.9280	-0.8371	25.10	-0.04	-0.750			
0.1689	10811.19	3.9250	3.9251	-0.8433	25.10	-0.04	-0.750			
0.1715	10973.84	3.9220	3.9219	-0.8407	25.10	-0.04	-0.750			
0.1740	11135.28	3.9190	3.9190	-0.8448	25.10	-0.04	-0.750			
0.1765	11297.39	3.9160	3.9160	-0.8434	25.11	-0.03	-0.750			
0.1790	11458.49	3.9130	3.9128	-0.8426	25.11	-0.03	-0.750			
0.1816	11622.07	3.9100	3.9104	-0.8488	25.11	-0.03	-0.750			
0.1841	11784.51	3.9070	3.9069	-0.8483	25.11	-0.03	-0.750			
0.1867	11947.52	3.9040	3.9040	-0.8466	25.11	-0.03	-0.750			
0.1892	12109.21	3.9010	3.9010	-0.8502	25.12	-0.02	-0.750			
0.1918	12273.92	3.8980	3.8980	-0.8540	25.12	-0.02	-0.750			
0.1943	12436.67	3.8950	3.8948	-0.8514	25.12	-0.02	-0.750			
0.1968	12597.94	3.8920	3.8921	-0.8557	25.12	-0.02	-0.750			
0.1994	12762.33	3.8890	3.8890	-0.8604	25.13	-0.01	-0.750			
0.2020	12930.34	3.8860	3.8859	-0.8612	25.13	-0.01	-0.750			
0.2046	13096.67	3.8830	3.8829	-0.8599	25.14	-0.00	-0.750			
0.2072	13259.76	3.8800	3.8803	-0.8582	25.14	0.00	-0.750			
0.2098	13426.09	3.8770	3.8770	-0.8576	25.14	0.00	-0.750			
0.2124	13590.97	3.8740	3.8739	-0.8620	25.14	0.00	-0.750			
0.2149	13756.55	3.8710	3.8709	-0.8603	25.15	0.01	-0.750			
0.2175	13922.49	3.8680	3.8679	-0.8627	25.15	0.01	-0.750			
0.2201	14088.78	3.8650	3.8651	-0.8641	25.15	0.01	-0.750			
0.2227	14254.89	3.8620	3.8619	-0.8635	25.16	0.02	-0.750			
0.2253	14419.94	3.8590	3.8590	-0.8603	25.16	0.02	-0.750			
0.2278	14581.85	3.8560	3.8560	-0.8540	25.16	0.02	-0.750			
0.2305	14749.10	3.8530	3.8530	-0.8632	25.17	0.03	-0.750			
0.2331	14915.40	3.8500	3.8500	-0.8611	25.17	0.03	-0.750			
0.2356	15080.33	3.8470	3.8470	-0.8605	25.18	0.04	-0.750			
0.2382	15246.40	3.8440	3.8440	-0.8584	25.18	0.04	-0.750			
0.2408	15410.89	3.8410	3.8410	-0.8560	25.18	0.04	-0.750			
0.2434	15574.82	3.8380	3.8380	-0.8543	25.19	0.05	-0.750			
0.2459	15737.99	3.8350	3.8349	-0.8465	25.19	0.05	-0.750			
0.2484	15899.21	3.8320	3.8319	-0.8519	25.19	0.05	-0.750			
0.2510	16063.61	3.8290	3.8291	-0.8506	25.18	0.04	-0.750			
0.2536	16227.38	3.8260	3.8258	-0.8451	25.18	0.04	-0.750			
0.2561	16391.86	3.8230	3.8230	-0.8474	25.18	0.04	-0.750			
0.2587	16554.95	3.8200	3.8199	-0.8403	25.18	0.04	-0.750			
0.2612	16714.15	3.8170	3.8170	-0.8340	25.19	0.05	-0.750			
0.2636	16873.33	3.8140	3.8140	-0.8301	25.19	0.05	-0.750			
0.2661	17028.67	3.8110	3.8111	-0.8210	25.19	0.05	-0.750			
0.2686	17189.92	3.8080	3.8079	-0.8239	25.20	0.06	-0.750			
0.2710	17346.73	3.8050	3.8050	-0.8208	25.20	0.06	-0.750			
0.2735	17504.87	3.8020	3.8021	-0.8193	25.20	0.06	-0.750			
0.2760	17662.88	3.7990	3.7990	-0.8179	25.21	0.07	-0.750			
0.2784	17820.26	3.7960	3.7959	-0.8116	25.21	0.07	-0.750			
0.2809	17976.08	3.7930	3.7930	-0.8040	25.21	0.07	-0.750			
0.2833	18128.74	3.7900	3.7898	-0.8011	25.21	0.07	-0.750			
0.2856	18281.46	3.7870	3.7870	-0.7997	25.21	0.07	-0.750			
0.2880	18433.81	3.7840	3.7840	-0.7937	25.21	0.07	-0.750			
0.2904	18584.44	3.7810	3.7809	-0.7899	25.22	0.08	-0.750			
0.2928	18739.20	3.7780	3.7781	-0.7916	25.22	0.08	-0.750			
0.2952	18891.66	3.7750	3.7751	-0.7900	25.22	0.08	-0.750			
0.2975	19042.42	3.7720	3.7720	-0.7924	25.22	0.08	-0.750			
0.2999	19193.40	3.7690	3.7691	-0.7897	25.22	0.08	-0.750			
0.3022	19343.29	3.7660	3.7659	-0.7908	25.23	0.09	-0.750			
0.3046	19497.37	3.7630	3.7629	-0.7930	25.23	0.09	-0.750			
0.3070	19649.33	3.7600	3.7603	-0.7982	25.23	0.09	-0.750			
0.3094	19802.17	3.7570	3.7570	-0.8036	25.23	0.09	-0.750			
0.3118	19957.95	3.7540	3.7540	-0.8123	25.23	0.09	-0.750			
0.3143	20114.89	3.7510	3.7510	-0.8159	25.24	0.10	-0.750			
0.3168	20273.34	3.7480	3.7479	-0.8199	25.24	0.10	-0.750			
0.3192	20429.75	3.7450	3.7453	-0.8276	25.24	0.10	-0.750			
0.3217	20589.66	3.7420	3.7420	-0.8372	25.24	0.10	-0.750			
0.3242	20748.44	3.7390	3.7389	-0.8522	25.24	0.10	-0.750			
0.3268	20913.32	3.7360	3.7359	-0.8583	25.23	0.09	-0.750			
0.3294	21082.86	3.7330	3.7330	-0.8739	25.23	0.09	-0.750			
0.3320	21250.97	3.7300	3.7303	-0.8778	25.23	0.09	-0.750			
0.3347	21420.94	3.7270	3.7270	-0.8903	25.23	0.09	-0.750			
0.3373	21589.34	3.7240	3.7240	-0.8992	25.23	0.09	-0.750			
0.3400	21758.69	3.7210	3.7209	-0.9131	25.23	0.09	-0.750			
0.3428	21937.76	3.7180	3.7180	-0.9320	25.23	0.09	-0.750			
0.3456	22119.45	3.7150	3.7150	-0.9538	25.23	0.09	-0.750			
0.3485	22306.34	3.7120	3.7120	-0.9749	25.23	0.09	-0.750			
0.3515	22494.48	3.7090	3.7090	-0.9946	25.22	0.08	-0.750			
0.3545	22685.82	3.7060	3.7059	-1.0088	25.22	0.08	-0.750			
0.3575	22880.11	3.7030	3.7030	-1.0365	25.22	0.08	-0.750			
0.3607	23084.20	3.7000	3.6999	-1.0454	25.21	0.07	-0.750	0.386	0.507	
0.3639	23287.28	3.6970	3.6970	-1.0633	25.20	0.06	-0.750			
0.3671	23491.28	3.6940	3.6939	-1.0790	25.20	0.06	-0.750			
0.3703	23700.44	3.6910	3.6911	-1.1031	25.19	0.05	-0.750			
0.3737	23913.64	3.6880	3.6878	-1.1156	25.18	0.04	-0.750			
0.3770	24130.19	3.6850	3.6849	-1.1335	25.18	0.04	-0.750			
0.3804	24346.86	3.6820	3.6821	-1.1473	25.17	0.03	-0.750			
0.3840	24575.53	3.6790	3.6789	-1.1852	25.16	0.02	-0.750			
0.3875	24801.42	3.6760	3.6759	-1.2030	25.16	0.02	-0.750			
0.3912	25034.69	3.6730	3.6729	-1.2266	25.15	0.01	-0.750			
0.3949	25271.33	3.6700	3.6702	-1.2635	25.14	-0.00	-0.750			
0.3988	25525.30	3.6670	3.6669	-1.2897	25.13	-0.01	-0.750			
0.4027	25775.16	3.6640	3.6639	-1.2998	25.13	-0.01	-0.750			
0.4066	26024.41	3.6610	3.6616	-1.3200	25.12	-0.02	-0.750			
0.4107	26282.05	3.6580	3.6578	-1.3400	25.11	-0.03	-0.750			
0.4146	26536.27	3.6550	3.6549	-1.3593	25.11	-0.03	-0.750			
0.4187	26794.40	3.6520	3.6521	-1.3879	25.10	-0.04	-0.750			
0.4230	27070.88	3.6490	3.6489	-1.4237	25.09	-0.05	-0.750			
0.4273	27344.08	3.6460	3.6459	-1.4581	25.08	-0.06	-0.750			
0.4319	27642.80	3.6430	3.6431	-1.4582	25.07	-0.07	-0.750			
0.4363	27922.36	3.6400	3.6398	-1.4477	25.06	-0.08	-0.750			
0.4407	28203.99	3.6370	3.6369	-1.4409	25.06	-0.08	-0.750			
0.4449	28474.69	3.6340	3.6345	-1.4272	25.05	-0.09	-0.750			
0.4491	28739.75	3.6310	3.6305	-1.4511	25.04	-0.10	-0.750			
0.4534	29016.43	3.6280	3.6276	-1.5098	25.03	-0.11	-0.750			
0.4579	29308.26	3.6250	3.6248	-1.5604	25.02	-0.12	-0.750			
0.4628	29619.33	3.6220	3.6225	-1.6615	25.01	-0.13	-0.750			
0.4680	29950.99	3.6190	3.6195	-1.7094	25.00	-0.14	-0.750			
0.4732	30283.96	3.6160	3.6161	-1.7360	24.99	-0.15	-0.750			
0.4785	30624.08	3.6130	3.6128	-1.7721	24.99	-0.15	-0.750			
0.4838	30966.10	3.6100	3.6096	-1.7986	24.98	-0.16	-0.750			
0.4893	31313.16	3.6070	3.6067	-1.8205	24.97	-0.17	-0.750			
0.4948	31664.69	3.6040	3.6039	-1.8680	24.96	-0.18	-0.750			
0.5005	32030.11	3.6010	3.6008	-1.9124	24.95	-0.19	-0.750			
0.5064	32410.31	3.5980	3.5978	-1.9577	24.94	-0.20	-0.750			
0.5124	32791.98	3.5950	3.5955	-2.0201	24.94	-0.20	-0.750			
0.5186	33191.52	3.5920	3.5924	-2.0377	24.93	-0.21	-0.750			
0.5249	33592.67	3.5890	3.5891	-2.0723	24.93	-0.21	-0.750			
0.5311	33988.24	3.5860	3.5861	-2.1230	24.92	-0.22	-0.750			
0.5374	34396.26	3.5830	3.5825	-2.1152	24.91	-0.23	-0.750			
0.5439	34812.13	3.5800	3.5804	-2.1451	24.90	-0.24	-0.750			
0.5502	35209.69	3.5770	3.5768	-2.1763	24.90	-0.24	-0.750			
0.5569	35641.11	3.5740	3.5744	-2.2014	24.89	-0.25	-0.750			
0.5636	36071.93	3.5710	3.5710	-2.2026	24.89	-0.25	-0.750			
0.5703	36498.06	3.5680	3.5680	-2.2594	24.89	-0.25	-0.750			
0.5771	36933.48	3.5650	3.5649	-2.2186	24.88	-0.26	-0.750			
0.5839	37366.52	3.5620	3.5623	-2.2449	24.88	-0.26	-0.750			
0.5905	37790.66	3.5590	3.5592	-2.2709	24.89	-0.25	-0.750			
0.5972	38221.02	3.5560	3.5558	-2.2352	24.89	-0.25	-0.750			
0.6042	38665.68	3.5530	3.5529	-2.2160	24.89	-0.25	-0.750			
0.6108	39091.63	3.5500	3.5503	-2.1747	24.89	-0.25	-0.750			
0.6173	39508.53	3.5470	3.5469	-2.1810	24.89	-0.25	-0.750			
0.6237	39916.14	3.5440	3.5435	-2.1009	24.89	-0.25	-0.750			
0.6299	40315.18	3.5410	3.5405	-2.0628	24.90	-0.24	-0.750			
0.6361	40708.40	3.5380	3.5379	-2.0255	24.91	-0.23	-0.750			
0.6422	41100.01	3.5350	3.5349	-2.0114	24.92	-0.22	-0.750			
0.6482	41482.12	3.5320	3.5322	-1.9734	24.93	-0.21	-0.750			
0.6542	41867.96	3.5290	3.5291	-1.9368	24.94	-0.20	-0.750			
0.6597	42219.96	3.5260	3.5257	-1.8583	24.94	-0.20	-0.750			
0.6654	42584.97	3.5230	3.5226	-1.8078	24.95	-0.19	-0.750			
0.6707	42926.91	3.5200	3.5195	-1.7640	24.96	-0.18	-0.750			
0.6758	43253.12	3.5170	3.5168	-1.6918	24.98	-0.16	-0.750			
0.6808	43573.43	3.5140	3.5139	-1.6513	25.00	-0.14	-0.750			
0.6858	43890.53	3.5110	3.5109	-1.6163	25.01	-0.13	-0.750			
0.6904	44188.06	3.5080	3.5079	-1.5801	25.03	-0.11	-0.750			
0.6952	44493.61	3.5050	3.5052	-1.5397	25.04	-0.10	-0.750			
0.6999	44793.19	3.5020	3.5018	-1.5051	25.06	-0.08	-0.750			
0.7043	45074.31	3.4990	3.4988	-1.4583	25.07	-0.07	-0.750			
0.7086	45352.16	3.4960	3.4959	-1.4228	25.09	-0.05	-0.750			
0.7129	45623.96	3.4930	3.4929	-1.3845	25.10	-0.04	-0.750			
0.7169	45882.68	3.4900	3.4899	-1.3454	25.12	-0.02	-0.750			
0.7209	46135.05	3.4870	3.4869	-1.3143	25.14	-0.00	-0.750			
0.7248	46385.31	3.4840	3.4840	-1.2737	25.15	0.01	-0.750	0.394	0.568	
0.7285	46626.65	3.4810	3.4809	-1.2269	25.17	0.03	-0.750			
0.7321	46855.22	3.4780	3.4784	-1.1890	25.18	0.04	-0.750			
0.7356	47081.46	3.4750	3.4750	-1.1443	25.19	0.05	-0.750			
0.7391	47301.18	3.4720	3.4718	-1.1053	25.20	0.06	-0.750			
0.7423	47506.07	3.4690	3.4688	-1.0641	25.21	0.07	-0.750			
0.7454	47705.78	3.4660	3.4658	-1.0320	25.22	0.08	-0.750			
0.7484	47898.37	3.4630	3.4628	-1.0170	25.24	0.10	-0.750			
0.7513	48084.91	3.4600	3.4599	-1.0106	25.25	0.11	-0.750			
0.7542	48271.53	3.4570	3.4570	-1.0113	25.26	0.12	-0.750			
0.7573	48469.50	3.4540	3.4542	-1.0678	25.27	0.13	-0.750			
0.7606	48677.25	3.4510	3.4509	-1.1109	25.28	0.14	-0.750			
0.7639	48891.13	3.4480	3.4479	-1.1844	25.29	0.15	-0.750			
0.7676	49124.10	3.4450	3.4449	-1.2600	25.30	0.16	-0.750			
0.7716	49381.96	3.4420	3.4418	-1.3197	25.31	0.17	-0.750			
0.7757	49647.52	3.4390	3.4390	-1.3444	25.33	0.19	-0.750			
0.7799	49915.92	3.4360	3.4361	-1.3787	25.34	0.20	-0.750			
0.7841	50183.89	3.4330	3.4328	-1.3602	25.36	0.22	-0.750			
0.7882	50447.83	3.4300	3.4298	-1.3462	25.37	0.23	-0.750			
0.7921	50695.42	3.4270	3.4270	-1.3163	25.37	0.23	-0.750			
0.7961	50947.49	3.4240	3.4240	-1.2871	25.38	0.24	-0.750			
0.8000	51202.59	3.4210	3.4209	-1.2856	25.39	0.25	-0.750			
0.8038	51446.08	3.4180	3.4179	-1.2442	25.40	0.26	-0.750			
0.8075	51679.74	3.4150	3.4152	-1.2194	25.40	0.26	-0.750			
0.8112	51918.82	3.4120	3.4119	-1.1927	25.41	0.27	-0.750			
0.8148	52145.59	3.4090	3.4089	-1.1422	25.42	0.28	-0.750			
0.8181	52360.87	3.4060	3.4060	-1.0953	25.43	0.29	-0.750			
0.8214	52567.06	3.4030	3.4029	-1.0605	25.44	0.30	-0.750			
0.8244	52761.05	3.4000	3.3998	-1.0060	25.45	0.31	-0.750			
0.8273	52949.83	3.3970	3.3970	-0.9682	25.46	0.32	-0.750			
0.8301	53127.33	3.3940	3.3941	-0.9254	25.46	0.32	-0.750			
0.8330	53310.03	3.3910	3.3907	-0.9064	25.47	0.33	-0.750			
0.8356	53480.01	3.3880	3.3881	-0.8776	25.48	0.34	-0.750			
0.8382	53645.40	3.3850	3.3850	-0.8320	25.49	0.35	-0.750			
0.8407	53803.10	3.3820	3.3819	-0.7880	25.50	0.36	-0.750			
0.8430	53952.93	3.3790	3.3789	-0.7440	25.51	0.37	-0.750			
0.8452	54090.04	3.3760	3.3758	-0.6929	25.51	0.37	-0.750			
0.8471	54216.14	3.3730	3.3730	-0.6470	25.52	0.38	-0.750			
0.8490	54333.45	3.3700	3.3699	-0.6013	25.53	0.39	-0.750			
0.8507	54441.76	3.3670	3.3671	-0.5603	25.53	0.39	-0.750			
0.8523	54549.49	3.3640	3.3640	-0.5326	25.54	0.40	-0.750			
0.8539	54648.01	3.3610	3.3610	-0.4979	25.54	0.40	-0.750			
0.8553	54739.89	3.3580	3.3579	-0.4640	25.55	0.41	-0.750			
0.8566	54823.96	3.3550	3.3555	-0.4352	25.55	0.41	-0.750			
0.8579	54904.18	3.3520	3.3519	-0.4078	25.56	0.42	-0.750			
0.8590	54979.16	3.3490	3.3490	-0.3843	25.56	0.42	-0.750			
0.8602	55050.04	3.3460	3.3460	-0.3645	25.57	0.43	-0.750			
0.8612	55117.84	3.3430	3.3431	-0.3463	25.58	0.44	-0.750			
0.8622	55182.23	3.3400	3.3399	-0.3303	25.58	0.44	-0.750			
0.8632	55243.14	3.3370	3.3370	-0.3152	25.59	0.45	-0.750			
0.8641	55301.81	3.3340	3.3339	-0.3020	25.59	0.45	-0.750			
0.8650	55358.59	3.3310	3.3310	-0.2914	25.60	0.46	-0.750			
0.8658	55413.40	3.3280	3.3280	-0.2798	25.60	0.46	-0.750			
0.8667	55465.92	3.3250	3.3250	-0.2687	25.61	0.47	-0.750			
0.8675	55517.27	3.3220	3.3219	-0.2594	25.61	0.47	-0.750			
0.8682	55564.63	3.3190	3.3192	-0.2495	25.61	0.47	-0.750			
0.8689	55611.30	3.3160	3.3159	-0.2432	25.62	0.48	-0.750			
0.8696	55657.33	3.3130	3.3131	-0.2366	25.62	0.48	-0.750			
0.8703	55701.86	3.3100	3.3099	-0.2304	25.63	0.49	-0.750			
0.8710	55745.37	3.3070	3.3069	-0.2253	25.63	0.49	-0.750			
0.8717	55788.52	3.3040	3.3043	-0.2212	25.64	0.50	-0.750			
0.8723	55830.37	3.3010	3.3009	-0.2162	25.64	0.50	-0.750			
0.8730	55871.39	3.2980	3.2979	-0.2111	25.64	0.50	-0.750			
0.8736	55911.23	3.2950	3.2950	-0.2061	25.65	0.51	-0.750			
0.8742	55949.92	3.2920	3.2920	-0.2019	25.65	0.51	-0.750			
0.8748	55988.57	3.2890	3.2890	-0.1986	25.66	0.52	-0.750			
0.8754	56026.31	3.2860	3.2859	-0.1945	25.66	0.52	-0.750			
0.8760	56063.13	3.2830	3.2829	-0.1902	25.66	0.52	-0.750			
0.8765	56099.05	3.2800	3.2802	-0.1872	25.67	0.53	-0.750			
0.8771	56134.59	3.2770	3.2770	-0.1839	25.67	0.53	-0.750			
0.8777	56169.60	3.2740	3.2740	-0.1813	25.67	0.53	-0.750			
0.8782	56203.97	3.2710	3.2709	-0.1792	25.68	0.54	-0.750			
0.8787	56237.90	3.2680	3.2681	-0.1764	25.68	0.54	-0.750			
0.8792	56271.62	3.2650	3.2650	-0.1749	25.68	0.54	-0.750			
0.8798	56305.27	3.2620	3.2620	-0.1727	25.69	0.55	-0.750			
0.8803	56338.56	3.2590	3.2590	-0.1703	25.69	0.55	-0.750			
0.8808	56370.92	3.2560	3.2560	-0.1672	25.69	0.55	-0.750			
0.8813	56402.69	3.2530	3.2529	-0.1646	25.70	0.56	-0.750			
0.8818	56434.20	3.2500	3.2502	-0.1617	25.70	0.56	-0.750			
0.8823	56464.69	3.2470	3.2469	-0.1589	25.70	0.56	-0.750			
0.8827	56494.89	3.2440	3.2440	-0.1563	25.71	0.57	-0.750			
0.8832	56524.61	3.2410	3.2411	-0.1545	25.71	0.57	-0.750			
0.8837	56553.89	3.2380	3.2379	-0.1525	25.72	0.58	-0.750			
0.8841	56583.03	3.2350	3.2350	-0.1508	25.72	0.58	-0.750			
0.8846	56611.83	3.2320	3.2320	-0.1492	25.72	0.58	-0.750			
0.8850	56640.25	3.2290	3.2290	-0.1473	25.73	0.59	-0.750			
0.8854	56668.33	3.2260	3.2260	-0.1467	25.73	0.59	-0.750			
0.8859	56696.28	3.2230	3.2231	-0.1451	25.73	0.59	-0.750			
0.8863	56724.05	3.2200	3.2199	-0.1442	25.74	0.60	-0.750			
0.8867	56751.69	3.2170	3.2169	-0.1424	25.74	0.60	-0.750			
0.8872	56778.93	3.2140	3.2140	-0.1413	25.75	0.61	-0.750			
0.8876	56805.95	3.2110	3.2112	-0.1403	25.75	0.61	-0.750			
0.8880	56832.76	3.2080	3.2079	-0.1389	25.75	0.61	-0.750			
0.8884	56859.44	3.2050	3.2049	-0.1371	25.76	0.62	-0.750			
0.8888	56885.38	3.2020	3.2019	-0.1349	25.76	0.62	-0.750			
0.8892	56911.21	3.1990	3.1992	-0.1339	25.76	0.62	-0.750			
0.8896	56936.77	3.1960	3.1960	-0.1323	25.77	0.63	-0.750			
0.8900	56962.08	3.1930	3.1931	-0.1311	25.77	0.63	-0.750			
0.8904	56986.89	3.1900	3.1897	-0.1292	25.77	0.63	-0.750			
0.8908	57011.63	3.1870	3.1870	-0.1277	25.78	0.64	-0.750			
0.8912	57035.90	3.1840	3.1843	-0.1262	25.78	0.64	-0.750			
0.8916	57059.97	3.1810	3.1810	-0.1251	25.78	0.64	-0.750			
0.8919	57084.05	3.1780	3.1779	-0.1241	25.78	0.64	-0.750			
0.8923	57107.45	3.1750	3.1750	-0.1240	25.79	0.65	-0.750			
0.8927	57130.73	3.1720	3.1721	-0.1231	25.79	0.65	-0.750			
0.8930	57154.83	3.1690	3.1688	-0.1204	25.79	0.65	-0.750			
0.8934	57177.95	3.1660	3.1660	-0.1194	25.80	0.66	-0.750			
0.8938	57200.72	3.1630	3.1634	-0.1178	25.80	0.66	-0.750			
