Ah_balance (normalized)	Ah_balance (mAh)	Voltage - fit (V)	Voltage -  interpolate (V)	dQ/dV (1/V)	Temperature (°C)	Temperature - diff (°C)	Current (C)	R_DC 0ms (mOhm)	R_DC 50ms (mOhm)	R_DC 50 ms PEC (mOhm)
0.0002	11.45	4.1650	4.1643	-0.0930	25.29	0.01	-0.750			
0.0005	34.75	4.1620	4.1619	-0.1456	25.29	0.01	-0.750			
0.0011	67.58	4.1590	4.1590	-0.1945	25.28	0.00	-0.750			
0.0017	111.47	4.1560	4.1558	-0.2386	25.28	0.00	-0.750			
0.0025	161.81	4.1530	4.1529	-0.2788	25.28	0.00	-0.750			
0.0034	219.25	4.1500	4.1501	-0.3186	25.28	0.00	-0.750			
0.0045	285.33	4.1470	4.1470	-0.3594	25.28	-0.00	-0.750			
0.0056	358.37	4.1440	4.1440	-0.3949	25.28	-0.00	-0.750			
0.0068	437.00	4.1410	4.1409	-0.4309	25.28	-0.00	-0.750			
0.0082	522.95	4.1380	4.1381	-0.4659	25.27	-0.01	-0.750			
0.0097	618.28	4.1350	4.1349	-0.5020	25.27	-0.01	-0.750			
0.0112	717.89	4.1320	4.1320	-0.5305	25.27	-0.01	-0.750			
0.0129	824.70	4.1290	4.1291	-0.5540	25.27	-0.01	-0.750			
0.0146	934.23	4.1260	4.1259	-0.5774	25.26	-0.02	-0.750			
0.0164	1048.21	4.1230	4.1231	-0.5939	25.26	-0.02	-0.750			
0.0182	1164.57	4.1200	4.1200	-0.6052	25.26	-0.02	-0.750			
0.0200	1281.13	4.1170	4.1169	-0.6217	25.25	-0.03	-0.750			
0.0219	1402.17	4.1140	4.1140	-0.6431	25.25	-0.03	-0.750			
0.0239	1529.25	4.1110	4.1110	-0.6553	25.24	-0.04	-0.750			
0.0259	1658.82	4.1080	4.1078	-0.6621	25.24	-0.04	-0.750			
0.0279	1787.31	4.1050	4.1051	-0.6700	25.23	-0.05	-0.750			
0.0299	1916.48	4.1020	4.1019	-0.6795	25.23	-0.05	-0.750			
0.0320	2047.40	4.0990	4.0990	-0.6835	25.23	-0.05	-0.750			
0.0340	2176.40	4.0960	4.0957	-0.6901	25.23	-0.05	-0.750			
0.0361	2308.60	4.0930	4.0931	-0.7001	25.22	-0.06	-0.750			
0.0383	2448.86	4.0900	4.0901	-0.7155	25.22	-0.06	-0.750			
0.0404	2586.67	4.0870	4.0869	-0.7181	25.22	-0.06	-0.750			
0.0426	2726.61	4.0840	4.0839	-0.7253	25.22	-0.06	-0.750			
0.0447	2863.49	4.0810	4.0810	-0.7234	25.22	-0.06	-0.750			
0.0469	3003.56	4.0780	4.0780	-0.7288	25.22	-0.06	-0.750			
0.0491	3141.73	4.0750	4.0750	-0.7313	25.22	-0.06	-0.750			
0.0514	3286.45	4.0720	4.0720	-0.7329	25.22	-0.06	-0.750			
0.0535	3427.02	4.0690	4.0690	-0.7368	25.22	-0.06	-0.750			
0.0558	3568.52	4.0660	4.0660	-0.7402	25.22	-0.06	-0.750			
0.0580	3711.26	4.0630	4.0631	-0.7380	25.22	-0.06	-0.750			
0.0602	3854.41	4.0600	4.0598	-0.7447	25.22	-0.06	-0.750			
0.0625	3997.26	4.0570	4.0570	-0.7462	25.22	-0.06	-0.750			
0.0647	4140.67	4.0540	4.0539	-0.7492	25.22	-0.06	-0.750			
0.0670	4285.51	4.0510	4.0512	-0.7542	25.22	-0.06	-0.750			
0.0692	4429.84	4.0480	4.0479	-0.7527	25.22	-0.06	-0.750			
0.0715	4575.01	4.0450	4.0450	-0.7650	25.22	-0.06	-0.750			
0.0738	4723.53	4.0420	4.0419	-0.7596	25.23	-0.05	-0.750			
0.0761	4873.35	4.0390	4.0389	-0.7697	25.23	-0.05	-0.750			
0.0785	5021.65	4.0360	4.0362	-0.7672	25.23	-0.05	-0.750			
0.0808	5168.39	4.0330	4.0329	-0.7637	25.23	-0.05	-0.750			
0.0830	5313.52	4.0300	4.0299	-0.7597	25.23	-0.05	-0.750			
0.0853	5459.77	4.0270	4.0270	-0.7648	25.24	-0.04	-0.750			
0.0876	5608.26	4.0240	4.0238	-0.7716	25.24	-0.04	-0.750			
0.0899	5756.14	4.0210	4.0209	-0.7737	25.24	-0.04	-0.750			
0.0923	5905.73	4.0180	4.0182	-0.7698	25.24	-0.04	-0.750			
0.0946	6051.74	4.0150	4.0149	-0.7763	25.24	-0.04	-0.750			
0.0969	6201.32	4.0120	4.0120	-0.7794	25.24	-0.04	-0.750			
0.0992	6349.32	4.0090	4.0090	-0.7728	25.25	-0.03	-0.750			
0.1016	6500.80	4.0060	4.0059	-0.7827	25.25	-0.03	-0.750			
0.1039	6652.01	4.0030	4.0033	-0.7822	25.25	-0.03	-0.750			
0.1063	6801.20	4.0000	4.0001	-0.7852	25.25	-0.03	-0.750			
0.1086	6952.98	3.9970	3.9968	-0.7989	25.25	-0.03	-0.750			
0.1111	7108.22	3.9940	3.9938	-0.7901	25.25	-0.03	-0.750			
0.1135	7261.19	3.9910	3.9909	-0.7947	25.25	-0.03	-0.750			
0.1158	7413.75	3.9880	3.9885	-0.7966	25.25	-0.03	-0.750			
0.1183	7568.01	3.9850	3.9849	-0.7928	25.25	-0.03	-0.750			
0.1206	7718.84	3.9820	3.9817	-0.7936	25.26	-0.02	-0.750			
0.1229	7865.80	3.9790	3.9791	-0.7852	25.26	-0.02	-0.750			
0.1253	8019.91	3.9760	3.9759	-0.7975	25.26	-0.02	-0.750			
0.1277	8173.74	3.9730	3.9730	-0.7975	25.27	-0.01	-0.750			
0.1301	8326.48	3.9700	3.9698	-0.8034	25.27	-0.01	-0.750			
0.1324	8476.11	3.9670	3.9671	-0.8169	25.27	-0.01	-0.750			
0.1350	8638.41	3.9640	3.9638	-0.8172	25.27	-0.01	-0.750			
0.1374	8795.42	3.9610	3.9609	-0.8181	25.27	-0.01	-0.750			
0.1399	8955.61	3.9580	3.9579	-0.8173	25.27	-0.01	-0.750			
0.1424	9113.48	3.9550	3.9549	-0.8155	25.27	-0.01	-0.750			
0.1448	9266.69	3.9520	3.9519	-0.8266	25.27	-0.01	-0.750			
0.1472	9423.14	3.9490	3.9490	-0.8174	25.27	-0.01	-0.750			
0.1497	9579.41	3.9460	3.9459	-0.8156	25.28	-0.00	-0.750			
0.1522	9741.22	3.9430	3.9428	-0.8250	25.28	-0.00	-0.750			
0.1547	9899.65	3.9400	3.9401	-0.8250	25.28	0.00	-0.750			
0.1571	10056.84	3.9370	3.9369	-0.8331	25.29	0.01	-0.750			
0.1596	10215.96	3.9340	3.9339	-0.8300	25.29	0.01	-0.750			
0.1621	10372.12	3.9310	3.9310	-0.8259	25.29	0.01	-0.750			
0.1647	10537.63	3.9280	3.9279	-0.8377	25.30	0.02	-0.750			
0.1672	10700.29	3.9250	3.9251	-0.8364	25.30	0.02	-0.750			
0.1697	10857.96	3.9220	3.9220	-0.8433	25.30	0.02	-0.750			
0.1722	11020.29	3.9190	3.9189	-0.8362	25.30	0.02	-0.750			
0.1747	11180.51	3.9160	3.9160	-0.8286	25.30	0.02	-0.750			
0.1772	11340.67	3.9130	3.9130	-0.8350	25.30	0.02	-0.750			
0.1797	11501.14	3.9100	3.9100	-0.8350	25.30	0.02	-0.750			
0.1822	11661.57	3.9070	3.9069	-0.8453	25.31	0.03	-0.750			
0.1847	11823.06	3.9040	3.9038	-0.8438	25.31	0.03	-0.750			
0.1873	11984.69	3.9010	3.9010	-0.8417	25.31	0.03	-0.750			
0.1899	12151.56	3.8980	3.8978	-0.8511	25.32	0.04	-0.750			
0.1924	12316.42	3.8950	3.8947	-0.8508	25.32	0.04	-0.750			
0.1950	12477.87	3.8920	3.8919	-0.8526	25.32	0.04	-0.750			
0.1975	12639.28	3.8890	3.8890	-0.8491	25.32	0.04	-0.750			
0.2000	12800.02	3.8860	3.8860	-0.8397	25.33	0.05	-0.750			
0.2026	12968.00	3.8830	3.8830	-0.8517	25.33	0.05	-0.750			
0.2052	13130.43	3.8800	3.8798	-0.8492	25.33	0.05	-0.750			
0.2077	13293.12	3.8770	3.8769	-0.8523	25.34	0.06	-0.750			
0.2102	13455.38	3.8740	3.8740	-0.8503	25.34	0.06	-0.750			
0.2128	13618.17	3.8710	3.8710	-0.8445	25.34	0.06	-0.750			
0.2154	13784.57	3.8680	3.8680	-0.8536	25.35	0.07	-0.750			
0.2180	13948.88	3.8650	3.8649	-0.8490	25.35	0.07	-0.750			
0.2205	14110.32	3.8620	3.8619	-0.8515	25.35	0.07	-0.750			
0.2230	14272.86	3.8590	3.8590	-0.8498	25.36	0.08	-0.750			
0.2256	14436.54	3.8560	3.8559	-0.8441	25.36	0.08	-0.750			
0.2281	14600.43	3.8530	3.8529	-0.8503	25.36	0.08	-0.750			
0.2307	14764.18	3.8500	3.8499	-0.8497	25.36	0.08	-0.750			
0.2332	14926.11	3.8470	3.8469	-0.8495	25.36	0.08	-0.750			
0.2358	15089.02	3.8440	3.8439	-0.8470	25.37	0.09	-0.750			
0.2383	15249.62	3.8410	3.8411	-0.8333	25.37	0.09	-0.750			
0.2409	15414.78	3.8380	3.8382	-0.8378	25.37	0.09	-0.750			
0.2434	15575.59	3.8350	3.8349	-0.8329	25.37	0.09	-0.750			
0.2458	15731.97	3.8320	3.8318	-0.8367	25.37	0.09	-0.750			
0.2484	15895.03	3.8290	3.8289	-0.8329	25.38	0.10	-0.750			
0.2508	16054.14	3.8260	3.8260	-0.8283	25.38	0.10	-0.750			
0.2534	16216.42	3.8230	3.8233	-0.8330	25.38	0.10	-0.750			
0.2559	16376.91	3.8200	3.8199	-0.8269	25.38	0.10	-0.750			
0.2583	16534.09	3.8170	3.8169	-0.8278	25.38	0.10	-0.750			
0.2608	16693.85	3.8140	3.8139	-0.8161	25.38	0.10	-0.750			
0.2633	16851.73	3.8110	3.8109	-0.8157	25.38	0.10	-0.750			
0.2658	17008.50	3.8080	3.8084	-0.8046	25.38	0.10	-0.750			
0.2681	17160.15	3.8050	3.8048	-0.7965	25.38	0.10	-0.750			
0.2705	17311.13	3.8020	3.8019	-0.7837	25.39	0.11	-0.750			
0.2729	17463.65	3.7990	3.7989	-0.7726	25.39	0.11	-0.750			
0.2753	17620.69	3.7960	3.7958	-0.7554	25.39	0.11	-0.750			
0.2775	17759.97	3.7930	3.7930	-0.7267	25.40	0.12	-0.750			
0.2796	17892.75	3.7900	3.7906	-0.7077	25.40	0.12	-0.750			
0.2816	18020.59	3.7870	3.7865	-0.7092	25.40	0.12	-0.750			
0.2836	18151.21	3.7840	3.7837	-0.7289	25.40	0.12	-0.750			
0.2857	18285.65	3.7810	3.7810	-0.7413	25.40	0.12	-0.750			
0.2881	18439.43	3.7780	3.7779	-0.7598	25.40	0.12	-0.750			
0.2906	18598.46	3.7750	3.7752	-0.7869	25.40	0.12	-0.750			
0.2929	18746.83	3.7720	3.7719	-0.7831	25.40	0.12	-0.750			
0.2952	18891.63	3.7690	3.7689	-0.7878	25.40	0.12	-0.750			
0.2976	19044.47	3.7660	3.7659	-0.7868	25.40	0.12	-0.750			
0.2999	19193.40	3.7630	3.7630	-0.7826	25.41	0.13	-0.750			
0.3024	19350.49	3.7600	3.7599	-0.7979	25.41	0.13	-0.750			
0.3047	19503.74	3.7570	3.7569	-0.7995	25.41	0.13	-0.750			
0.3071	19655.94	3.7540	3.7540	-0.7968	25.41	0.13	-0.750			
0.3095	19809.12	3.7510	3.7509	-0.8046	25.41	0.13	-0.750			
0.3119	19961.17	3.7480	3.7479	-0.8067	25.42	0.14	-0.750			
0.3144	20119.85	3.7450	3.7450	-0.8248	25.42	0.14	-0.750			
0.3169	20278.54	3.7420	3.7423	-0.8354	25.42	0.14	-0.750			
0.3193	20437.85	3.7390	3.7388	-0.8582	25.42	0.14	-0.750			
0.3220	20606.15	3.7360	3.7359	-0.8662	25.42	0.14	-0.750			
0.3246	20772.35	3.7330	3.7330	-0.8706	25.41	0.13	-0.750			
0.3273	20944.95	3.7300	3.7299	-0.8885	25.41	0.13	-0.750			
0.3300	21117.20	3.7270	3.7269	-0.8981	25.41	0.13	-0.750			
0.3326	21288.03	3.7240	3.7239	-0.9173	25.41	0.13	-0.750			
0.3354	21466.36	3.7210	3.7210	-0.9261	25.40	0.12	-0.750			
0.3382	21643.63	3.7180	3.7179	-0.9319	25.40	0.12	-0.750			
0.3411	21828.36	3.7150	3.7151	-0.9512	25.40	0.12	-0.750			
0.3439	22011.08	3.7120	3.7119	-0.9669	25.40	0.12	-0.750			
0.3468	22197.27	3.7090	3.7089	-0.9760	25.39	0.11	-0.750			
0.3497	22383.09	3.7060	3.7059	-0.9908	25.39	0.11	-0.750			
0.3528	22577.95	3.7030	3.7031	-1.0150	25.38	0.10	-0.750			
0.3559	22774.96	3.7000	3.6998	-1.0371	25.38	0.10	-0.750			
0.3590	22978.15	3.6970	3.6969	-1.0495	25.38	0.10	-0.750	0.377	0.507	
0.3622	23181.13	3.6940	3.6940	-1.0569	25.37	0.09	-0.750			
0.3653	23382.01	3.6910	3.6910	-1.0706	25.37	0.09	-0.750			
0.3687	23594.66	3.6880	3.6878	-1.1066	25.37	0.09	-0.750			
0.3721	23811.92	3.6850	3.6849	-1.1248	25.36	0.08	-0.750			
0.3755	24029.66	3.6820	3.6817	-1.1363	25.36	0.08	-0.750			
0.3788	24246.33	3.6790	3.6801	-1.1631	25.35	0.07	-0.750			
0.3825	24479.54	3.6760	3.6758	-1.1887	25.34	0.06	-0.750			
0.3861	24707.35	3.6730	3.6728	-1.1969	25.33	0.05	-0.750			
0.3895	24926.04	3.6700	3.6702	-1.2067	25.32	0.04	-0.750			
0.3933	25174.13	3.6670	3.6670	-1.2523	25.32	0.04	-0.750			
0.3972	25419.10	3.6640	3.6638	-1.2635	25.31	0.03	-0.750			
0.4009	25657.97	3.6610	3.6610	-1.2907	25.30	0.02	-0.750			
0.4048	25908.24	3.6580	3.6579	-1.2999	25.29	0.01	-0.750			
0.4088	26162.83	3.6550	3.6549	-1.3223	25.28	0.00	-0.750			
0.4127	26414.81	3.6520	3.6518	-1.3499	25.28	-0.00	-0.750			
0.4168	26673.64	3.6490	3.6498	-1.3664	25.27	-0.01	-0.750			
0.4209	26940.23	3.6460	3.6458	-1.4165	25.26	-0.02	-0.750			
0.4253	27217.05	3.6430	3.6428	-1.4476	25.26	-0.02	-0.750			
0.4296	27496.57	3.6400	3.6401	-1.4731	25.25	-0.03	-0.750			
0.4343	27793.58	3.6370	3.6367	-1.5052	25.24	-0.04	-0.750			
0.4389	28088.96	3.6340	3.6338	-1.5451	25.23	-0.05	-0.750			
0.4436	28388.96	3.6310	3.6308	-1.5679	25.22	-0.06	-0.750			
0.4484	28695.40	3.6280	3.6275	-1.5899	25.21	-0.07	-0.750			
0.4531	28996.44	3.6250	3.6254	-1.5977	25.20	-0.08	-0.750			
0.4579	29306.05	3.6220	3.6225	-1.6203	25.20	-0.08	-0.750			
0.4629	29624.72	3.6190	3.6192	-1.6585	25.19	-0.09	-0.750			
0.4680	29952.60	3.6160	3.6162	-1.6888	25.19	-0.09	-0.750			
0.4731	30281.11	3.6130	3.6133	-1.7415	25.18	-0.10	-0.750			
0.4785	30625.28	3.6100	3.6103	-1.7746	25.17	-0.11	-0.750			
0.4839	30967.78	3.6070	3.6071	-1.8064	25.17	-0.11	-0.750			
0.4894	31319.35	3.6040	3.6040	-1.8427	25.17	-0.11	-0.750			
0.4948	31666.73	3.6010	3.6009	-1.9076	25.16	-0.12	-0.750			
0.5006	32036.31	3.5980	3.5983	-1.9303	25.15	-0.13	-0.750			
0.5063	32403.93	3.5950	3.5953	-1.9726	25.14	-0.14	-0.750			
0.5125	32799.20	3.5920	3.5920	-2.0337	25.14	-0.14	-0.750			
0.5186	33187.46	3.5890	3.5887	-2.0447	25.14	-0.14	-0.750			
0.5248	33587.29	3.5860	3.5863	-2.0348	25.13	-0.15	-0.750			
0.5310	33986.69	3.5830	3.5829	-2.0583	25.12	-0.16	-0.750			
0.5372	34381.26	3.5800	3.5802	-2.1071	25.11	-0.17	-0.750			
0.5435	34781.52	3.5770	3.5767	-2.1270	25.11	-0.17	-0.750			
0.5503	35220.40	3.5740	3.5736	-2.1908	25.10	-0.18	-0.750			
0.5569	35639.46	3.5710	3.5707	-2.1831	25.10	-0.18	-0.750			
0.5635	36065.09	3.5680	3.5681	-2.2039	25.11	-0.17	-0.750			
0.5700	36477.01	3.5650	3.5648	-2.1831	25.11	-0.17	-0.750			
0.5766	36899.21	3.5620	3.5625	-2.2010	25.10	-0.18	-0.750			
0.5831	37318.11	3.5590	3.5590	-2.1887	25.10	-0.18	-0.750			
0.5900	37757.04	3.5560	3.5557	-2.1909	25.10	-0.18	-0.750			
0.5963	38164.85	3.5530	3.5536	-2.1746	25.10	-0.18	-0.750			
0.6030	38593.79	3.5500	3.5507	-2.1901	25.10	-0.18	-0.750			
0.6099	39031.15	3.5470	3.5467	-2.1774	25.10	-0.18	-0.750			
0.6163	39441.57	3.5440	3.5441	-2.1525	25.10	-0.18	-0.750			
0.6225	39842.70	3.5410	3.5409	-2.0822	25.10	-0.18	-0.750			
0.6290	40257.29	3.5380	3.5382	-2.0530	25.11	-0.17	-0.750			
0.6350	40640.26	3.5350	3.5353	-1.9961	25.11	-0.17	-0.750			
0.6411	41028.63	3.5320	3.5325	-1.9654	25.12	-0.16	-0.750			
0.6468	41396.38	3.5290	3.5292	-1.9141	25.13	-0.15	-0.750			
0.6525	41757.11	3.5260	3.5262	-1.8589	25.14	-0.14	-0.750			
0.6578	42101.73	3.5230	3.5229	-1.8208	25.15	-0.13	-0.750			
0.6633	42452.44	3.5200	3.5200	-1.7556	25.17	-0.11	-0.750			
0.6686	42788.11	3.5170	3.5165	-1.7024	25.18	-0.10	-0.750			
0.6736	43111.68	3.5140	3.5137	-1.6503	25.19	-0.09	-0.750			
0.6784	43415.52	3.5110	3.5116	-1.6057	25.20	-0.08	-0.750			
0.6832	43722.03	3.5080	3.5087	-1.5774	25.22	-0.06	-0.750			
0.6878	44018.06	3.5050	3.5052	-1.5421	25.24	-0.04	-0.750			
0.6925	44318.57	3.5020	3.5018	-1.5057	25.25	-0.03	-0.750			
0.6970	44604.94	3.4990	3.4993	-1.4630	25.27	-0.01	-0.750			
0.7014	44886.62	3.4960	3.4958	-1.4241	25.29	0.01	-0.750			
0.7054	45147.45	3.4930	3.4929	-1.3605	25.31	0.03	-0.750			
0.7094	45403.66	3.4900	3.4899	-1.3212	25.32	0.04	-0.750			
0.7133	45653.14	3.4870	3.4871	-1.2569	25.34	0.06	-0.750			
