Ah_balance (normalized)	Ah_balance (mAh)	Voltage - fit (V)	Voltage -  interpolate (V)	dQ/dV (1/V)	Temperature (°C)	Temperature - diff (°C)	Current (C)	R_DC 0ms (mOhm)	R_DC 50ms (mOhm)	R_DC 50 ms PEC (mOhm)
0.0003	19.76	4.1600	4.1598	-0.1357	25.46	0.02	-0.750			
0.0007	47.63	4.1570	4.1570	-0.1684	25.46	0.02	-0.750			
0.0013	83.95	4.1540	4.1541	-0.2091	25.46	0.02	-0.750			
0.0020	128.30	4.1510	4.1510	-0.2487	25.46	0.02	-0.750			
0.0028	179.75	4.1480	4.1480	-0.2885	25.46	0.02	-0.750			
0.0037	238.98	4.1450	4.1450	-0.3274	25.45	0.01	-0.750			
0.0048	304.97	4.1420	4.1421	-0.3725	25.45	0.01	-0.750			
0.0060	382.72	4.1390	4.1389	-0.4002	25.45	0.01	-0.750			
0.0073	465.18	4.1360	4.1359	-0.4288	25.45	0.01	-0.750			
0.0086	549.95	4.1330	4.1330	-0.4604	25.44	0.00	-0.750			
0.0100	641.74	4.1300	4.1300	-0.4870	25.44	-0.00	-0.750			
0.0115	736.69	4.1270	4.1268	-0.5145	25.44	-0.00	-0.750			
0.0131	836.85	4.1240	4.1240	-0.5379	25.43	-0.01	-0.750			
0.0147	940.75	4.1210	4.1212	-0.5641	25.43	-0.01	-0.750			
0.0165	1058.86	4.1180	4.1179	-0.5856	25.42	-0.02	-0.750			
0.0184	1174.55	4.1150	4.1150	-0.6015	25.42	-0.02	-0.750			
0.0202	1290.23	4.1120	4.1119	-0.6091	25.41	-0.03	-0.750			
0.0220	1407.92	4.1090	4.1099	-0.6253	25.41	-0.03	-0.750			
0.0239	1527.70	4.1060	4.1058	-0.6386	25.41	-0.03	-0.750			
0.0258	1651.23	4.1030	4.1030	-0.6500	25.41	-0.03	-0.750			
0.0278	1777.62	4.1000	4.1000	-0.6609	25.41	-0.03	-0.750			
0.0298	1909.14	4.0970	4.0971	-0.6756	25.40	-0.04	-0.750			
0.0319	2038.89	4.0940	4.0939	-0.6781	25.40	-0.04	-0.750			
0.0339	2169.14	4.0910	4.0910	-0.6846	25.40	-0.04	-0.750			
0.0359	2300.66	4.0880	4.0881	-0.6880	25.40	-0.04	-0.750			
0.0380	2432.84	4.0850	4.0848	-0.6924	25.40	-0.04	-0.750			
0.0401	2566.91	4.0820	4.0821	-0.7027	25.40	-0.04	-0.750			
0.0422	2702.75	4.0790	4.0790	-0.7062	25.39	-0.05	-0.750			
0.0444	2840.50	4.0760	4.0759	-0.7110	25.39	-0.05	-0.750			
0.0465	2977.60	4.0730	4.0728	-0.7066	25.39	-0.05	-0.750			
0.0486	3110.49	4.0700	4.0700	-0.7105	25.39	-0.05	-0.750			
0.0507	3247.75	4.0670	4.0670	-0.7142	25.39	-0.05	-0.750			
0.0530	3388.95	4.0640	4.0638	-0.7262	25.39	-0.05	-0.750			
0.0552	3530.13	4.0610	4.0609	-0.7245	25.40	-0.04	-0.750			
0.0574	3671.87	4.0580	4.0578	-0.7325	25.40	-0.04	-0.750			
0.0596	3812.35	4.0550	4.0562	-0.7310	25.40	-0.04	-0.750			
0.0618	3952.49	4.0520	4.0517	-0.7325	25.40	-0.04	-0.750			
0.0639	4088.42	4.0490	4.0489	-0.7355	25.40	-0.04	-0.750			
0.0660	4225.77	4.0460	4.0461	-0.7225	25.40	-0.04	-0.750			
0.0683	4374.24	4.0430	4.0430	-0.7497	25.40	-0.04	-0.750			
0.0706	4519.51	4.0400	4.0399	-0.7486	25.40	-0.04	-0.750			
0.0728	4661.49	4.0370	4.0371	-0.7445	25.40	-0.04	-0.750			
0.0751	4805.01	4.0340	4.0339	-0.7427	25.40	-0.04	-0.750			
0.0773	4946.10	4.0310	4.0309	-0.7506	25.40	-0.04	-0.750			
0.0795	5088.27	4.0280	4.0281	-0.7527	25.40	-0.04	-0.750			
0.0818	5237.85	4.0250	4.0249	-0.7571	25.40	-0.04	-0.750			
0.0841	5383.88	4.0220	4.0221	-0.7584	25.40	-0.04	-0.750			
0.0864	5529.89	4.0190	4.0190	-0.7600	25.40	-0.04	-0.750			
0.0886	5671.61	4.0160	4.0160	-0.7704	25.41	-0.03	-0.750			
0.0910	5821.74	4.0130	4.0129	-0.7671	25.42	-0.02	-0.750			
0.0933	5968.68	4.0100	4.0099	-0.7595	25.42	-0.02	-0.750			
0.0956	6119.11	4.0070	4.0070	-0.7656	25.43	-0.01	-0.750			
0.0979	6266.06	4.0040	4.0039	-0.7691	25.43	-0.01	-0.750			
0.1002	6412.87	4.0010	4.0010	-0.7665	25.43	-0.01	-0.750			
0.1025	6558.69	3.9980	3.9978	-0.7782	25.43	-0.01	-0.750			
0.1048	6707.32	3.9950	3.9950	-0.7689	25.43	-0.01	-0.750			
0.1072	6860.77	3.9920	3.9919	-0.7768	25.43	-0.01	-0.750			
0.1095	7008.84	3.9890	3.9896	-0.7770	25.43	-0.01	-0.750			
0.1119	7158.73	3.9860	3.9859	-0.7744	25.43	-0.01	-0.750			
0.1142	7305.93	3.9830	3.9829	-0.7759	25.43	-0.01	-0.750			
0.1165	7453.09	3.9800	3.9799	-0.7730	25.44	-0.00	-0.750			
0.1188	7604.37	3.9770	3.9771	-0.7798	25.44	-0.00	-0.750			
0.1212	7755.00	3.9740	3.9738	-0.7841	25.44	-0.00	-0.750			
0.1235	7904.91	3.9710	3.9708	-0.7859	25.44	0.00	-0.750			
0.1258	8052.79	3.9680	3.9679	-0.7980	25.44	0.00	-0.750			
0.1282	8206.84	3.9650	3.9650	-0.7905	25.44	0.00	-0.750			
0.1307	8361.98	3.9620	3.9619	-0.7989	25.45	0.01	-0.750			
0.1330	8515.05	3.9590	3.9589	-0.7974	25.45	0.01	-0.750			
0.1354	8667.37	3.9560	3.9558	-0.7953	25.45	0.01	-0.750			
0.1378	8818.11	3.9530	3.9530	-0.7910	25.45	0.01	-0.750			
0.1402	8969.89	3.9500	3.9499	-0.7981	25.45	0.01	-0.750			
0.1426	9123.26	3.9470	3.9470	-0.7915	25.45	0.01	-0.750			
0.1450	9279.32	3.9440	3.9439	-0.8022	25.45	0.01	-0.750			
0.1474	9432.21	3.9410	3.9413	-0.7987	25.45	0.01	-0.750			
0.1498	9584.37	3.9380	3.9380	-0.7986	25.45	0.01	-0.750			
0.1522	9737.95	3.9350	3.9349	-0.8131	25.45	0.01	-0.750			
0.1546	9894.10	3.9320	3.9319	-0.8099	25.46	0.02	-0.750			
0.1571	10053.72	3.9290	3.9289	-0.8180	25.46	0.02	-0.750			
0.1595	10211.10	3.9260	3.9266	-0.8150	25.46	0.02	-0.750			
0.1620	10367.22	3.9230	3.9228	-0.8109	25.46	0.02	-0.750			
0.1644	10523.89	3.9200	3.9200	-0.8268	25.46	0.02	-0.750			
0.1669	10682.93	3.9170	3.9168	-0.8118	25.47	0.03	-0.750			
0.1694	10841.66	3.9140	3.9138	-0.8163	25.47	0.03	-0.750			
0.1718	10998.09	3.9110	3.9119	-0.8122	25.47	0.03	-0.750			
0.1743	11153.74	3.9080	3.9077	-0.8036	25.47	0.03	-0.750			
0.1766	11305.53	3.9050	3.9049	-0.7990	25.47	0.03	-0.750			
0.1789	11452.80	3.9020	3.9021	-0.7893	25.48	0.04	-0.750			
0.1814	11608.36	3.8990	3.8990	-0.8076	25.48	0.04	-0.750			
0.1838	11763.35	3.8960	3.8961	-0.8108	25.48	0.04	-0.750			
0.1862	11919.49	3.8930	3.8928	-0.8034	25.48	0.04	-0.750			
0.1887	12073.66	3.8900	3.8900	-0.8111	25.48	0.04	-0.750			
0.1911	12232.44	3.8870	3.8870	-0.8103	25.48	0.04	-0.750			
0.1936	12387.48	3.8840	3.8839	-0.8036	25.48	0.04	-0.750			
0.1960	12542.49	3.8810	3.8809	-0.8003	25.48	0.04	-0.750			
0.1983	12693.91	3.8780	3.8779	-0.7964	25.48	0.04	-0.750			
0.2007	12843.31	3.8750	3.8750	-0.8034	25.49	0.05	-0.750			
0.2031	13000.66	3.8720	3.8719	-0.8011	25.49	0.05	-0.750			
0.2055	13152.73	3.8690	3.8690	-0.7917	25.49	0.05	-0.750			
0.2080	13311.32	3.8660	3.8659	-0.8003	25.50	0.06	-0.750			
0.2104	13463.67	3.8630	3.8629	-0.7913	25.50	0.06	-0.750			
0.2127	13614.05	3.8600	3.8599	-0.7829	25.50	0.06	-0.750			
0.2151	13763.65	3.8570	3.8570	-0.7751	25.50	0.06	-0.750			
0.2173	13907.98	3.8540	3.8540	-0.7692	25.51	0.07	-0.750			
0.2197	14058.88	3.8510	3.8510	-0.7750	25.51	0.07	-0.750			
0.2220	14206.46	3.8480	3.8483	-0.7753	25.51	0.07	-0.750			
0.2243	14355.66	3.8450	3.8448	-0.7772	25.51	0.07	-0.750			
0.2266	14505.42	3.8420	3.8421	-0.7789	25.51	0.07	-0.750			
0.2290	14655.87	3.8390	3.8390	-0.7745	25.52	0.08	-0.750			
0.2314	14807.02	3.8360	3.8360	-0.7784	25.52	0.08	-0.750			
0.2337	14953.94	3.8330	3.8329	-0.7656	25.52	0.08	-0.750			
0.2359	15099.59	3.8300	3.8299	-0.7593	25.52	0.08	-0.750			
0.2382	15244.22	3.8270	3.8269	-0.7542	25.52	0.08	-0.750			
0.2404	15388.30	3.8240	3.8241	-0.7613	25.52	0.08	-0.750			
0.2427	15533.31	3.8210	3.8210	-0.7626	25.53	0.09	-0.750			
0.2450	15683.13	3.8180	3.8178	-0.7660	25.53	0.09	-0.750			
0.2473	15830.13	3.8150	3.8152	-0.7622	25.53	0.09	-0.750			
0.2496	15977.01	3.8120	3.8120	-0.7615	25.53	0.09	-0.750			
0.2519	16121.99	3.8090	3.8089	-0.7597	25.53	0.09	-0.750			
0.2542	16266.14	3.8060	3.8060	-0.7527	25.53	0.09	-0.750			
0.2564	16409.31	3.8030	3.8030	-0.7506	25.53	0.09	-0.750			
0.2587	16555.39	3.8000	3.8000	-0.7563	25.53	0.09	-0.750			
0.2610	16701.29	3.7970	3.7969	-0.7582	25.53	0.09	-0.750			
0.2632	16845.18	3.7940	3.7940	-0.7631	25.53	0.09	-0.750			
0.2655	16992.68	3.7910	3.7910	-0.7622	25.53	0.09	-0.750			
0.2678	17138.65	3.7880	3.7880	-0.7643	25.54	0.10	-0.750			
0.2701	17286.00	3.7850	3.7849	-0.7739	25.54	0.10	-0.750			
0.2724	17434.45	3.7820	3.7823	-0.7790	25.54	0.10	-0.750			
0.2748	17584.84	3.7790	3.7790	-0.7811	25.54	0.10	-0.750			
0.2771	17736.04	3.7760	3.7760	-0.7933	25.54	0.10	-0.750			
0.2795	17889.67	3.7730	3.7731	-0.7968	25.54	0.10	-0.750			
0.2820	18045.74	3.7700	3.7698	-0.8020	25.54	0.10	-0.750			
0.2844	18198.72	3.7670	3.7670	-0.8020	25.54	0.10	-0.750			
0.2867	18351.32	3.7640	3.7640	-0.8049	25.54	0.10	-0.750			
0.2891	18505.44	3.7610	3.7610	-0.8090	25.54	0.10	-0.750			
0.2916	18661.14	3.7580	3.7580	-0.8136	25.53	0.09	-0.750			
0.2940	18819.16	3.7550	3.7550	-0.8240	25.53	0.09	-0.750			
0.2965	18976.13	3.7520	3.7519	-0.8284	25.53	0.09	-0.750			
0.2989	19131.95	3.7490	3.7491	-0.8493	25.53	0.09	-0.750			
0.3015	19296.73	3.7460	3.7460	-0.8588	25.53	0.09	-0.750			
0.3041	19464.92	3.7430	3.7429	-0.8618	25.53	0.09	-0.750			
0.3068	19632.69	3.7400	3.7399	-0.8708	25.53	0.09	-0.750			
0.3094	19801.95	3.7370	3.7374	-0.8817	25.53	0.09	-0.750			
0.3120	19969.81	3.7340	3.7339	-0.8975	25.53	0.09	-0.750			
0.3147	20143.09	3.7310	3.7309	-0.8947	25.53	0.09	-0.750			
0.3174	20314.46	3.7280	3.7280	-0.9003	25.52	0.08	-0.750			
0.3201	20488.59	3.7250	3.7249	-0.9158	25.52	0.08	-0.750			
0.3229	20667.02	3.7220	3.7219	-0.9193	25.52	0.08	-0.750			
0.3256	20840.97	3.7190	3.7189	-0.9284	25.51	0.07	-0.750			
0.3284	21019.08	3.7160	3.7159	-0.9353	25.51	0.07	-0.750			
0.3311	21192.02	3.7130	3.7132	-0.9637	25.51	0.07	-0.750			
0.3342	21387.67	3.7100	3.7100	-0.9937	25.50	0.06	-0.750			
0.3372	21583.95	3.7070	3.7068	-1.0025	25.50	0.06	-0.750			
0.3403	21780.21	3.7040	3.7037	-1.0073	25.49	0.05	-0.750			
0.3434	21976.14	3.7010	3.7013	-1.0175	25.49	0.05	-0.750			
0.3464	22169.81	3.6980	3.6989	-1.0176	25.48	0.04	-0.750	0.434	0.577	
0.3494	22362.92	3.6950	3.6948	-1.0374	25.48	0.04	-0.750			
0.3524	22556.50	3.6920	3.6919	-1.0353	25.48	0.04	-0.750			
0.3557	22767.20	3.6890	3.6889	-1.0703	25.47	0.03	-0.750			
0.3590	22975.09	3.6860	3.6859	-1.0744	25.47	0.03	-0.750			
0.3623	23185.62	3.6830	3.6830	-1.0893	25.47	0.03	-0.750			
0.3655	23392.54	3.6800	3.6799	-1.0944	25.46	0.02	-0.750			
0.3687	23598.41	3.6770	3.6770	-1.1005	25.46	0.02	-0.750			
0.3721	23811.37	3.6740	3.6742	-1.1328	25.45	0.01	-0.750			
0.3755	24031.46	3.6710	3.6709	-1.1524	25.44	0.00	-0.750			
0.3790	24257.29	3.6680	3.6679	-1.1694	25.43	-0.01	-0.750			
0.3825	24477.21	3.6650	3.6650	-1.2238	25.43	-0.01	-0.750			
0.3863	24721.18	3.6620	3.6617	-1.2232	25.42	-0.02	-0.750			
0.3900	24958.27	3.6590	3.6587	-1.2322	25.41	-0.03	-0.750			
0.3937	25193.76	3.6560	3.6558	-1.2381	25.41	-0.03	-0.750			
0.3974	25434.82	3.6530	3.6535	-1.2720	25.40	-0.04	-0.750			
0.4012	25678.79	3.6500	3.6498	-1.2768	25.39	-0.05	-0.750			
0.4049	25911.14	3.6470	3.6469	-1.3402	25.39	-0.05	-0.750			
0.4090	26176.39	3.6440	3.6442	-1.3846	25.38	-0.06	-0.750			
0.4133	26449.76	3.6410	3.6406	-1.4292	25.37	-0.07	-0.750			
0.4177	26734.16	3.6380	3.6377	-1.4631	25.36	-0.08	-0.750			
0.4222	27020.22	3.6350	3.6354	-1.4964	25.35	-0.09	-0.750			
0.4268	27314.28	3.6320	3.6324	-1.4776	25.35	-0.09	-0.750			
0.4313	27601.76	3.6290	3.6293	-1.5103	25.34	-0.10	-0.750			
0.4356	27876.44	3.6260	3.6256	-1.5100	25.34	-0.10	-0.750			
0.4402	28173.19	3.6230	3.6225	-1.5514	25.33	-0.11	-0.750			
0.4450	28478.89	3.6200	3.6199	-1.5540	25.32	-0.12	-0.750			
0.4496	28774.52	3.6170	3.6168	-1.5764	25.32	-0.12	-0.750			
0.4544	29080.93	3.6140	3.6137	-1.6319	25.31	-0.13	-0.750			
0.4595	29405.79	3.6110	3.6111	-1.6748	25.30	-0.14	-0.750			
0.4643	29717.61	3.6080	3.6086	-1.6957	25.29	-0.15	-0.750			
0.4695	30050.61	3.6050	3.6054	-1.7164	25.28	-0.16	-0.750			
0.4748	30385.45	3.6020	3.6019	-1.7479	25.28	-0.16	-0.750			
0.4803	30738.05	3.5990	3.5989	-1.8072	25.27	-0.17	-0.750			
0.4857	31085.53	3.5960	3.5960	-1.8548	25.27	-0.17	-0.750			
0.4913	31440.61	3.5930	3.5930	-1.9076	25.27	-0.17	-0.750			
0.4972	31818.18	3.5900	3.5903	-1.9270	25.27	-0.17	-0.750			
0.5030	32193.06	3.5870	3.5869	-1.9261	25.26	-0.18	-0.750			
0.5086	32552.62	3.5840	3.5845	-1.9451	25.25	-0.19	-0.750			
0.5145	32926.22	3.5810	3.5812	-2.0183	25.25	-0.19	-0.750			
0.5206	33320.61	3.5780	3.5777	-2.0258	25.25	-0.19	-0.750			
0.5268	33713.35	3.5750	3.5751	-2.0434	25.25	-0.19	-0.750			
0.5331	34121.17	3.5720	3.5720	-2.0830	25.25	-0.19	-0.750			
0.5394	34520.73	3.5690	3.5690	-2.0420	25.25	-0.19	-0.750			
0.5456	34918.63	3.5660	3.5660	-2.0456	25.26	-0.18	-0.750			
0.5517	35309.13	3.5630	3.5633	-2.0874	25.26	-0.18	-0.750			
0.5579	35705.00	3.5600	3.5602	-2.0554	25.25	-0.19	-0.750			
0.5641	36102.22	3.5570	3.5569	-2.0224	25.26	-0.18	-0.750			
0.5701	36486.62	3.5540	3.5540	-2.0191	25.27	-0.17	-0.750			
0.5763	36882.37	3.5510	3.5509	-2.0091	25.27	-0.17	-0.750			
0.5822	37258.80	3.5480	3.5479	-1.9972	25.27	-0.17	-0.750			
0.5881	37639.05	3.5450	3.5449	-1.9703	25.28	-0.16	-0.750			
0.5941	38023.26	3.5420	3.5419	-1.9412	25.29	-0.15	-0.750			
0.5999	38394.65	3.5390	3.5393	-1.9011	25.29	-0.15	-0.750			
0.6057	38763.56	3.5360	3.5364	-1.9154	25.30	-0.14	-0.750			
0.6114	39129.19	3.5330	3.5326	-1.8757	25.30	-0.14	-0.750			
0.6169	39480.92	3.5300	3.5297	-1.8353	25.31	-0.13	-0.750			
0.6224	39835.36	3.5270	3.5273	-1.8070	25.32	-0.12	-0.750			
0.6277	40172.76	3.5240	3.5241	-1.7579	25.34	-0.10	-0.750			
0.6329	40508.65	3.5210	3.5210	-1.7162	25.35	-0.09	-0.750			
0.6380	40831.92	3.5180	3.5179	-1.6602	25.37	-0.07	-0.750			
0.6431	41160.04	3.5150	3.5146	-1.6739	25.37	-0.07	-0.750			
0.6481	41479.68	3.5120	3.5120	-1.6256	25.38	-0.06	-0.750			
0.6530	41790.73	3.5090	3.5090	-1.5719	25.40	-0.04	-0.750			
0.6576	42084.66	3.5060	3.5065	-1.5183	25.42	-0.02	-0.750			
0.6620	42367.04	3.5030	3.5029	-1.4547	25.44	-0.00	-0.750			
0.6664	42647.10	3.5000	3.4997	-1.4265	25.45	0.01	-0.750			
0.6705	42912.09	3.4970	3.4969	-1.3881	25.47	0.03	-0.750			
0.6746	43171.82	3.4940	3.4939	-1.3422	25.48	0.04	-0.750			
0.6785	43423.16	3.4910	3.4911	-1.2925	25.49	0.05	-0.750			
0.6825	43679.50	3.4880	3.4879	-1.2632	25.50	0.06	-0.750			
0.6862	43914.51	3.4850	3.4850	-1.2089	25.52	0.08	-0.750			
0.6898	44144.70	3.4820	3.4820	-1.1411	25.53	0.09	-0.750			
0.6931	44358.21	3.4790	3.4790	-1.0951	25.54	0.10	-0.750			
