Ah_balance (normalized)	Ah_balance (mAh)	Voltage - fit (V)	Voltage -  interpolate (V)	dQ/dV (1/V)	Temperature (°C)	Temperature - diff (°C)	Current (C)	R_DC 0ms (mOhm)	R_DC 50ms (mOhm)	R_DC 50 ms PEC (mOhm)
0.0003	20.19	4.1650	4.1649	-0.1367	24.74	0.02	-0.750			
0.0008	50.50	4.1620	4.1619	-0.1820	24.74	0.02	-0.750			
0.0014	89.55	4.1590	4.1592	-0.2302	24.74	0.02	-0.750			
0.0022	139.22	4.1560	4.1560	-0.2758	24.73	0.01	-0.750			
0.0031	196.85	4.1530	4.1529	-0.3202	24.73	0.01	-0.750			
0.0041	263.53	4.1500	4.1501	-0.3606	24.73	0.01	-0.750			
0.0053	337.08	4.1470	4.1469	-0.4005	24.73	0.01	-0.750			
0.0066	420.65	4.1440	4.1440	-0.4329	24.73	0.01	-0.750			
0.0079	505.58	4.1410	4.1409	-0.4706	24.73	0.01	-0.750			
0.0093	597.61	4.1380	4.1382	-0.5118	24.72	0.00	-0.750			
0.0109	699.39	4.1350	4.1350	-0.5559	24.72	0.00	-0.750			
0.0127	811.79	4.1320	4.1317	-0.5886	24.72	-0.00	-0.750			
0.0145	930.86	4.1290	4.1292	-0.6172	24.71	-0.01	-0.750			
0.0165	1053.01	4.1260	4.1261	-0.6514	24.71	-0.01	-0.750			
0.0185	1184.12	4.1230	4.1230	-0.6662	24.71	-0.01	-0.750			
0.0205	1312.38	4.1200	4.1199	-0.6771	24.71	-0.01	-0.750			
0.0226	1445.64	4.1170	4.1170	-0.6828	24.70	-0.02	-0.750			
0.0246	1577.54	4.1140	4.1139	-0.6934	24.70	-0.02	-0.750			
0.0268	1712.44	4.1110	4.1110	-0.7069	24.70	-0.02	-0.750			
0.0289	1848.41	4.1080	4.1081	-0.7225	24.70	-0.02	-0.750			
0.0310	1987.13	4.1050	4.1048	-0.7289	24.70	-0.02	-0.750			
0.0333	2133.01	4.1020	4.1020	-0.7373	24.70	-0.02	-0.750			
0.0355	2274.89	4.0990	4.0991	-0.7393	24.70	-0.02	-0.750			
0.0378	2418.31	4.0960	4.0959	-0.7475	24.70	-0.02	-0.750			
0.0400	2561.19	4.0930	4.0930	-0.7436	24.70	-0.02	-0.750			
0.0422	2701.96	4.0900	4.0899	-0.7586	24.70	-0.02	-0.750			
0.0445	2847.54	4.0870	4.0871	-0.7575	24.70	-0.02	-0.750			
0.0468	2998.01	4.0840	4.0839	-0.7726	24.70	-0.02	-0.750			
0.0492	3147.64	4.0810	4.0813	-0.7742	24.70	-0.02	-0.750			
0.0515	3296.91	4.0780	4.0779	-0.7763	24.70	-0.02	-0.750			
0.0538	3445.87	4.0750	4.0750	-0.7785	24.70	-0.02	-0.750			
0.0562	3595.15	4.0720	4.0720	-0.7795	24.70	-0.02	-0.750			
0.0585	3744.94	4.0690	4.0690	-0.7833	24.70	-0.02	-0.750			
0.0609	3897.10	4.0660	4.0659	-0.7875	24.70	-0.02	-0.750			
0.0632	4047.56	4.0630	4.0629	-0.7865	24.70	-0.02	-0.750			
0.0656	4198.88	4.0600	4.0600	-0.7945	24.70	-0.02	-0.750			
0.0680	4350.53	4.0570	4.0570	-0.7960	24.70	-0.02	-0.750			
0.0704	4506.73	4.0540	4.0538	-0.8000	24.70	-0.02	-0.750			
0.0728	4659.60	4.0510	4.0510	-0.7963	24.70	-0.02	-0.750			
0.0752	4812.48	4.0480	4.0480	-0.7937	24.70	-0.02	-0.750			
0.0776	4964.21	4.0450	4.0450	-0.7967	24.70	-0.02	-0.750			
0.0800	5116.90	4.0420	4.0419	-0.7945	24.70	-0.02	-0.750			
0.0823	5265.37	4.0390	4.0390	-0.7951	24.71	-0.01	-0.750			
0.0847	5420.05	4.0360	4.0360	-0.8028	24.71	-0.01	-0.750			
0.0871	5575.58	4.0330	4.0330	-0.8096	24.71	-0.01	-0.750			
0.0895	5730.88	4.0300	4.0300	-0.8154	24.71	-0.01	-0.750			
0.0920	5889.82	4.0270	4.0270	-0.8152	24.71	-0.01	-0.750			
0.0945	6046.12	4.0240	4.0240	-0.8152	24.72	-0.00	-0.750			
0.0969	6204.34	4.0210	4.0210	-0.8184	24.72	-0.00	-0.750			
0.0994	6360.90	4.0180	4.0180	-0.8100	24.72	0.00	-0.750			
0.1018	6515.71	4.0150	4.0150	-0.8125	24.72	0.00	-0.750			
0.1043	6672.45	4.0120	4.0120	-0.8212	24.72	0.00	-0.750			
0.1067	6831.85	4.0090	4.0088	-0.8200	24.73	0.01	-0.750			
0.1092	6990.31	4.0060	4.0058	-0.8252	24.73	0.01	-0.750			
0.1117	7146.93	4.0030	4.0033	-0.8258	24.73	0.01	-0.750			
0.1141	7304.65	4.0000	4.0001	-0.8346	24.73	0.01	-0.750			
0.1167	7466.90	3.9970	3.9968	-0.8345	24.73	0.01	-0.750			
0.1191	7623.61	3.9940	3.9941	-0.8197	24.74	0.02	-0.750			
0.1217	7788.49	3.9910	3.9910	-0.8300	24.74	0.02	-0.750			
0.1242	7947.07	3.9880	3.9882	-0.8302	24.74	0.02	-0.750			
0.1266	8104.35	3.9850	3.9848	-0.8209	24.74	0.02	-0.750			
0.1290	8256.14	3.9820	3.9820	-0.8286	24.74	0.02	-0.750			
0.1315	8417.36	3.9790	3.9791	-0.8368	24.74	0.02	-0.750			
0.1341	8583.57	3.9760	3.9758	-0.8431	24.74	0.02	-0.750			
0.1366	8745.03	3.9730	3.9733	-0.8465	24.74	0.02	-0.750			
0.1392	8909.41	3.9700	3.9701	-0.8406	24.74	0.02	-0.750			
0.1417	9069.00	3.9670	3.9669	-0.8515	24.75	0.03	-0.750			
0.1442	9231.50	3.9640	3.9639	-0.8539	24.75	0.03	-0.750			
0.1468	9397.06	3.9610	3.9609	-0.8532	24.76	0.04	-0.750			
0.1494	9562.10	3.9580	3.9583	-0.8564	24.76	0.04	-0.750			
0.1520	9728.47	3.9550	3.9550	-0.8687	24.76	0.04	-0.750			
0.1546	9895.03	3.9520	3.9519	-0.8585	24.76	0.04	-0.750			
0.1571	10056.55	3.9490	3.9489	-0.8483	24.77	0.05	-0.750			
0.1597	10222.17	3.9460	3.9460	-0.8582	24.77	0.05	-0.750			
0.1623	10387.22	3.9430	3.9430	-0.8623	24.77	0.05	-0.750			
0.1649	10553.27	3.9400	3.9399	-0.8706	24.77	0.05	-0.750			
0.1675	10718.97	3.9370	3.9370	-0.8692	24.77	0.05	-0.750			
0.1701	10887.29	3.9340	3.9340	-0.8691	24.78	0.06	-0.750			
0.1728	11058.13	3.9310	3.9310	-0.8758	24.78	0.06	-0.750			
0.1754	11223.00	3.9280	3.9281	-0.8776	24.78	0.06	-0.750			
0.1780	11391.46	3.9250	3.9250	-0.8818	24.79	0.07	-0.750			
0.1806	11560.71	3.9220	3.9219	-0.8785	24.79	0.07	-0.750			
0.1833	11729.25	3.9190	3.9189	-0.8816	24.80	0.08	-0.750			
0.1860	11901.97	3.9160	3.9161	-0.8842	24.80	0.08	-0.750			
0.1886	12071.42	3.9130	3.9130	-0.8842	24.80	0.08	-0.750			
0.1913	12241.28	3.9100	3.9099	-0.8839	24.80	0.08	-0.750			
0.1939	12408.06	3.9070	3.9070	-0.8855	24.80	0.08	-0.750			
0.1965	12577.29	3.9040	3.9039	-0.8897	24.80	0.08	-0.750			
0.1992	12750.43	3.9010	3.9010	-0.8918	24.80	0.08	-0.750			
0.2019	12923.75	3.8980	3.8979	-0.8967	24.80	0.08	-0.750			
0.2046	13097.14	3.8950	3.8951	-0.8984	24.80	0.08	-0.750			
0.2073	13268.41	3.8920	3.8920	-0.8959	24.81	0.09	-0.750			
0.2100	13440.61	3.8890	3.8891	-0.8990	24.81	0.09	-0.750			
0.2127	13612.56	3.8860	3.8857	-0.8956	24.81	0.09	-0.750			
0.2154	13783.02	3.8830	3.8830	-0.9066	24.81	0.09	-0.750			
0.2181	13959.07	3.8800	3.8800	-0.9040	24.82	0.10	-0.750			
0.2208	14130.36	3.8770	3.8770	-0.9067	24.82	0.10	-0.750			
0.2236	14309.46	3.8740	3.8742	-0.9118	24.82	0.10	-0.750			
0.2263	14484.04	3.8710	3.8708	-0.9154	24.82	0.10	-0.750			
0.2291	14659.81	3.8680	3.8680	-0.9126	24.83	0.11	-0.750			
0.2318	14835.43	3.8650	3.8651	-0.9113	24.83	0.11	-0.750			
0.2345	15011.02	3.8620	3.8618	-0.9110	24.84	0.12	-0.750			
0.2373	15186.34	3.8590	3.8592	-0.9109	24.84	0.12	-0.750			
0.2400	15358.50	3.8560	3.8560	-0.9052	24.85	0.13	-0.750			
0.2427	15532.36	3.8530	3.8530	-0.9099	24.85	0.13	-0.750			
0.2454	15706.77	3.8500	3.8500	-0.9060	24.85	0.13	-0.750			
0.2482	15881.86	3.8470	3.8470	-0.9112	24.86	0.14	-0.750			
0.2508	16053.89	3.8440	3.8440	-0.9290	24.86	0.14	-0.750			
0.2537	16235.91	3.8410	3.8410	-0.9243	24.86	0.14	-0.750			
0.2565	16413.77	3.8380	3.8379	-0.9235	24.86	0.14	-0.750			
0.2592	16591.87	3.8350	3.8349	-0.9231	24.86	0.14	-0.750			
0.2620	16770.18	3.8320	3.8316	-0.9234	24.86	0.14	-0.750			
0.2648	16947.28	3.8290	3.8290	-0.9308	24.86	0.14	-0.750			
0.2676	17123.34	3.8260	3.8260	-0.9282	24.87	0.15	-0.750			
0.2703	17299.46	3.8230	3.8230	-0.9220	24.87	0.15	-0.750			
0.2732	17485.62	3.8200	3.8198	-0.9361	24.87	0.15	-0.750			
0.2760	17663.12	3.8170	3.8170	-0.9318	24.87	0.15	-0.750			
0.2788	17842.18	3.8140	3.8140	-0.9249	24.87	0.15	-0.750			
0.2815	18017.17	3.8110	3.8110	-0.9263	24.88	0.16	-0.750			
0.2843	18194.06	3.8080	3.8080	-0.9250	24.88	0.16	-0.750			
0.2871	18372.30	3.8050	3.8050	-0.9345	24.88	0.16	-0.750			
0.2899	18553.96	3.8020	3.8021	-0.9476	24.89	0.17	-0.750			
0.2928	18739.72	3.7990	3.7988	-0.9513	24.89	0.17	-0.750			
0.2957	18923.01	3.7960	3.7960	-0.9502	24.90	0.18	-0.750			
0.2985	19106.28	3.7930	3.7935	-0.9525	24.90	0.18	-0.750			
0.3014	19287.05	3.7900	3.7900	-0.9492	24.90	0.18	-0.750			
0.3042	19470.39	3.7870	3.7869	-0.9425	24.90	0.18	-0.750			
0.3070	19647.27	3.7840	3.7840	-0.9400	24.90	0.18	-0.750			
0.3098	19829.25	3.7810	3.7811	-0.9516	24.90	0.18	-0.750			
0.3127	20010.12	3.7780	3.7779	-0.9490	24.90	0.18	-0.750			
0.3155	20193.31	3.7750	3.7750	-0.9611	24.90	0.18	-0.750			
0.3184	20380.58	3.7720	3.7719	-0.9587	24.90	0.18	-0.750			
0.3213	20565.68	3.7690	3.7689	-0.9611	24.90	0.18	-0.750			
0.3243	20754.16	3.7660	3.7662	-0.9469	24.90	0.18	-0.750			
0.3271	20933.86	3.7630	3.7629	-0.9325	24.90	0.18	-0.750			
0.3298	21109.87	3.7600	3.7601	-0.9233	24.90	0.18	-0.750			
0.3325	21281.42	3.7570	3.7570	-0.9159	24.90	0.18	-0.750			
0.3353	21456.36	3.7540	3.7537	-0.9266	24.90	0.18	-0.750			
0.3380	21631.69	3.7510	3.7509	-0.9446	24.90	0.18	-0.750			
0.3409	21814.84	3.7480	3.7480	-0.9455	24.90	0.18	-0.750			
0.3437	21999.78	3.7450	3.7449	-0.9629	24.90	0.18	-0.750			
0.3467	22185.94	3.7420	3.7421	-0.9734	24.90	0.18	-0.750			
0.3496	22374.53	3.7390	3.7388	-0.9821	24.90	0.18	-0.750			
0.3526	22565.78	3.7360	3.7359	-0.9957	24.90	0.18	-0.750			
0.3556	22756.59	3.7330	3.7330	-0.9949	24.90	0.18	-0.750			
0.3586	22949.02	3.7300	3.7300	-1.0002	24.90	0.18	-0.750			
0.3616	23141.55	3.7270	3.7273	-1.0292	24.90	0.18	-0.750			
0.3646	23336.50	3.7240	3.7238	-1.0171	24.90	0.18	-0.750			
0.3677	23532.97	3.7210	3.7210	-1.0209	24.90	0.18	-0.750			
0.3708	23730.59	3.7180	3.7177	-1.0251	24.90	0.18	-0.750			
0.3739	23929.59	3.7150	3.7157	-1.0386	24.90	0.18	-0.750			
0.3770	24129.53	3.7120	3.7118	-1.0480	24.90	0.18	-0.750			
0.3802	24330.09	3.7090	3.7093	-1.0544	24.90	0.18	-0.750	0.425	0.509	
0.3833	24532.05	3.7060	3.7060	-1.0625	24.90	0.18	-0.750			
0.3865	24737.60	3.7030	3.7034	-1.0918	24.90	0.18	-0.750			
0.3898	24948.77	3.7000	3.7000	-1.0961	24.89	0.17	-0.750			
0.3931	25159.41	3.6970	3.6969	-1.1100	24.89	0.17	-0.750			
0.3965	25373.03	3.6940	3.6939	-1.1160	24.88	0.16	-0.750			
0.3999	25591.34	3.6910	3.6910	-1.1497	24.88	0.16	-0.750			
0.4033	25813.76	3.6880	3.6879	-1.1543	24.88	0.16	-0.750			
0.4068	26036.27	3.6850	3.6849	-1.1741	24.88	0.16	-0.750			
0.4103	26256.61	3.6820	3.6822	-1.2078	24.88	0.16	-0.750			
0.4140	26497.05	3.6790	3.6787	-1.2388	24.88	0.16	-0.750			
0.4177	26735.30	3.6760	3.6759	-1.2574	24.87	0.15	-0.750			
0.4215	26977.35	3.6730	3.6729	-1.2965	24.86	0.14	-0.750			
0.4256	27236.36	3.6700	3.6699	-1.3287	24.86	0.14	-0.750			
0.4295	27489.68	3.6670	3.6669	-1.3611	24.85	0.13	-0.750			
0.4336	27753.05	3.6640	3.6638	-1.3891	24.84	0.12	-0.750			
0.4379	28025.02	3.6610	3.6609	-1.4274	24.84	0.12	-0.750			
0.4422	28301.11	3.6580	3.6578	-1.4599	24.83	0.11	-0.750			
0.4467	28587.96	3.6550	3.6549	-1.4804	24.82	0.10	-0.750			
0.4511	28870.88	3.6520	3.6519	-1.5129	24.81	0.09	-0.750			
0.4557	29166.76	3.6490	3.6488	-1.5693	24.80	0.08	-0.750			
0.4603	29461.90	3.6460	3.6458	-1.5989	24.79	0.07	-0.750			
0.4652	29772.17	3.6430	3.6431	-1.6421	24.78	0.06	-0.750			
0.4704	30103.57	3.6400	3.6401	-1.7043	24.77	0.05	-0.750			
0.4757	30444.82	3.6370	3.6365	-1.7329	24.76	0.04	-0.750			
0.4810	30782.71	3.6340	3.6335	-1.7820	24.75	0.03	-0.750			
0.4864	31126.63	3.6310	3.6316	-1.8037	24.74	0.02	-0.750			
0.4919	31479.21	3.6280	3.6279	-1.8652	24.73	0.01	-0.750			
0.4975	31842.29	3.6250	3.6254	-1.8714	24.72	0.00	-0.750			
0.5031	32200.73	3.6220	3.6221	-1.9386	24.71	-0.01	-0.750			
0.5092	32588.37	3.6190	3.6192	-1.9555	24.69	-0.03	-0.750			
0.5151	32969.28	3.6160	3.6157	-1.9852	24.67	-0.05	-0.750			
0.5212	33356.32	3.6130	3.6132	-2.0140	24.66	-0.06	-0.750			
0.5272	33741.61	3.6100	3.6098	-2.0630	24.65	-0.07	-0.750			
0.5334	34137.61	3.6070	3.6071	-2.1053	24.64	-0.08	-0.750			
0.5396	34535.29	3.6040	3.6042	-2.1622	24.63	-0.09	-0.750			
0.5463	34962.20	3.6010	3.6011	-2.1753	24.61	-0.11	-0.750			
0.5528	35380.62	3.5980	3.5982	-2.2326	24.59	-0.13	-0.750			
0.5596	35815.62	3.5950	3.5945	-2.2316	24.58	-0.14	-0.750			
0.5662	36233.93	3.5920	3.5923	-2.2364	24.57	-0.15	-0.750			
0.5731	36675.75	3.5890	3.5887	-2.2949	24.56	-0.16	-0.750			
0.5802	37129.85	3.5860	3.5862	-2.3682	24.55	-0.17	-0.750			
0.5872	37580.09	3.5830	3.5832	-2.3885	24.54	-0.18	-0.750			
0.5946	38053.57	3.5800	3.5799	-2.4378	24.53	-0.19	-0.750			
0.6018	38512.97	3.5770	3.5765	-2.4165	24.52	-0.20	-0.750			
0.6091	38982.11	3.5740	3.5740	-2.4021	24.51	-0.21	-0.750			
0.6164	39448.44	3.5710	3.5713	-2.4025	24.51	-0.21	-0.750			
0.6238	39921.01	3.5680	3.5683	-2.4772	24.50	-0.22	-0.750			
0.6311	40390.77	3.5650	3.5647	-2.4452	24.49	-0.23	-0.750			
0.6386	40870.06	3.5620	3.5615	-2.4427	24.48	-0.24	-0.750			
0.6460	41343.47	3.5590	3.5591	-2.4564	24.48	-0.24	-0.750			
0.6533	41814.38	3.5560	3.5563	-2.3936	24.48	-0.24	-0.750			
0.6608	42290.22	3.5530	3.5528	-2.3975	24.47	-0.25	-0.750			
0.6679	42742.84	3.5500	3.5496	-2.3706	24.46	-0.26	-0.750			
0.6749	43193.84	3.5470	3.5469	-2.3348	24.46	-0.26	-0.750			
0.6819	43639.34	3.5440	3.5435	-2.3324	24.46	-0.26	-0.750			
0.6887	44078.71	3.5410	3.5411	-2.2725	24.46	-0.26	-0.750			
0.6958	44533.82	3.5380	3.5376	-2.2878	24.47	-0.25	-0.750			
0.7026	44967.06	3.5350	3.5350	-2.1975	24.47	-0.25	-0.750			
0.7090	45378.06	3.5320	3.5324	-2.1242	24.47	-0.25	-0.750			
0.7153	45776.81	3.5290	3.5289	-2.0951	24.47	-0.25	-0.750			
0.7214	46170.05	3.5260	3.5258	-2.0470	24.48	-0.24	-0.750			
0.7274	46552.93	3.5230	3.5232	-1.9890	24.49	-0.23	-0.750			
0.7335	46943.42	3.5200	3.5203	-1.9613	24.50	-0.22	-0.750			
0.7393	47318.38	3.5170	3.5175	-1.8891	24.50	-0.22	-0.750			
0.7448	47667.08	3.5140	3.5139	-1.8049	24.51	-0.21	-0.750			
0.7502	48009.90	3.5110	3.5109	-1.7193	24.52	-0.20	-0.750			
0.7552	48331.36	3.5080	3.5081	-1.6402	24.53	-0.19	-0.750			
