Ah_balance (normalized)	Ah_balance (mAh)	Voltage - fit (V)	Voltage -  interpolate (V)	dQ/dV (1/V)	Temperature (°C)	Temperature - diff (°C)	Current (C)	R_DC 0ms (mOhm)	R_DC 50ms (mOhm)	R_DC 50 ms PEC (mOhm)
-0.0066	-423.13	4.1990	4.1989	0.6174	23.96	-0.08	0.050			
-0.0060	-382.74	4.1980	4.1983	0.6480	23.96	-0.08	0.050			
-0.0053	-340.13	4.1970	4.1974	0.6755	23.95	-0.09	0.050			
-0.0046	-296.16	4.1960	4.1958	0.6964	23.96	-0.08	0.050			
-0.0039	-250.89	4.1950	4.1946	0.7171	23.96	-0.08	0.050			
-0.0032	-203.82	4.1940	4.1937	0.7378	23.96	-0.08	0.050			
-0.0024	-153.82	4.1930	4.1929	0.7571	23.96	-0.08	0.050			
-0.0016	-102.49	4.1920	4.1923	0.7711	23.97	-0.07	0.050			
-0.0008	-52.23	4.1910	4.1908	0.7824	23.98	-0.06	0.050			
-0.0000	-0.45	4.1900	4.1899	0.7902	23.98	-0.06	0.050			
0.0008	51.55	4.1890	4.1893	0.7952	23.99	-0.05	0.050			
0.0016	103.85	4.1880	4.1877	0.8034	23.99	-0.05	0.050			
0.0025	157.49	4.1870	4.1870	0.8101	24.00	-0.04	0.050			
0.0033	212.91	4.1860	4.1861	0.8169	24.00	-0.04	0.050			
0.0041	265.42	4.1850	4.1851	0.8238	24.00	-0.04	0.050			
0.0050	317.17	4.1840	4.1842	0.8274	24.00	-0.04	0.050			
0.0058	370.23	4.1830	4.1834	0.8254	24.00	-0.04	0.050			
0.0066	422.16	4.1820	4.1819	0.8230	24.00	-0.04	0.050			
0.0074	475.07	4.1810	4.1808	0.8283	24.01	-0.03	0.050			
0.0083	528.83	4.1800	4.1802	0.8269	24.02	-0.02	0.050			
0.0091	581.07	4.1790	4.1786	0.8237	24.02	-0.02	0.050			
0.0099	633.72	4.1780	4.1780	0.8274	24.02	-0.02	0.050			
0.0107	686.55	4.1770	4.1770	0.8270	24.03	-0.01	0.050			
0.0115	739.12	4.1760	4.1757	0.8276	24.04	0.00	0.050			
0.0124	791.69	4.1750	4.1752	0.8265	24.04	0.00	0.050	-0.142	0.260	
0.0132	845.61	4.1740	4.1745	0.8282	24.04	0.00	0.050			
0.0141	899.55	4.1730	4.1732	0.8315	24.05	0.01	0.050			
0.0149	953.54	4.1720	4.1715	0.8353	24.06	0.02	0.050			
0.0157	1007.58	4.1710	4.1714	0.8352	24.06	0.02	0.050			
0.0166	1059.80	4.1700	4.1701	0.8371	24.06	0.02	0.050			
0.0174	1114.56	4.1690	4.1686	0.8366	24.07	0.03	0.050			
0.0182	1167.36	4.1680	4.1682	0.8343	24.08	0.04	0.050			
0.0191	1221.50	4.1670	4.1671	0.8318	24.08	0.04	0.050			
0.0199	1275.36	4.1660	4.1656	0.8304	24.08	0.04	0.050			
0.0207	1326.52	4.1650	4.1653	0.8268	24.08	0.04	0.050			
0.0216	1380.24	4.1640	4.1640	0.8256	24.09	0.05	0.050			
0.0224	1433.67	4.1630	4.1625	0.8272	24.10	0.06	0.050			
0.0232	1485.95	4.1620	4.1624	0.8307	24.10	0.06	0.050			
0.0240	1538.54	4.1610	4.1609	0.8278	24.10	0.06	0.050			
0.0249	1592.52	4.1600	4.1603	0.8288	24.10	0.06	0.050			
0.0257	1645.16	4.1590	4.1593	0.8310	24.10	0.06	0.050			
0.0265	1697.06	4.1580	4.1578	0.8309	24.10	0.06	0.050			
0.0273	1750.04	4.1570	4.1569	0.8312	24.10	0.06	0.050			
0.0282	1803.24	4.1560	4.1561	0.8347	24.11	0.07	0.050			
0.0290	1855.48	4.1550	4.1550	0.8375	24.12	0.08	0.050			
0.0298	1909.42	4.1540	4.1535	0.8373	24.12	0.08	0.050			
0.0307	1963.46	4.1530	4.1533	0.8413	24.12	0.08	0.050			
0.0315	2014.55	4.1520	4.1523	0.8506	24.12	0.08	0.050			
0.0323	2068.39	4.1510	4.1510	0.8575	24.12	0.08	0.050			
0.0332	2122.25	4.1500	4.1501	0.8656	24.12	0.08	0.050			
0.0340	2177.63	4.1490	4.1488	0.8749	24.12	0.08	0.050			
0.0349	2235.00	4.1480	4.1482	0.8823	24.12	0.08	0.050			
0.0358	2293.02	4.1470	4.1471	0.8884	24.12	0.08	0.050			
0.0367	2350.87	4.1460	4.1457	0.8943	24.12	0.08	0.050			
0.0377	2409.94	4.1450	4.1452	0.8921	24.12	0.08	0.050			
0.0386	2468.17	4.1440	4.1438	0.8968	24.12	0.08	0.050			
0.0395	2526.66	4.1430	4.1427	0.8995	24.12	0.08	0.050			
0.0404	2584.85	4.1420	4.1422	0.8991	24.13	0.09	0.050			
0.0413	2643.24	4.1410	4.1411	0.8993	24.12	0.08	0.050			
0.0422	2702.66	4.1400	4.1403	0.9002	24.11	0.07	0.050			
0.0431	2760.80	4.1390	4.1390	0.8968	24.10	0.06	0.050			
0.0440	2818.72	4.1380	4.1379	0.8939	24.09	0.05	0.050			
0.0449	2876.15	4.1370	4.1370	0.8892	24.08	0.04	0.050			
0.0458	2933.60	4.1360	4.1360	0.8854	24.08	0.04	0.050			
0.0467	2989.10	4.1350	4.1351	0.8806	24.07	0.03	0.050			
0.0476	3046.20	4.1340	4.1340	0.8743	24.06	0.02	0.050			
0.0485	3102.52	4.1330	4.1330	0.8655	24.06	0.02	0.050			
0.0493	3155.38	4.1320	4.1320	0.8524	24.04	0.00	0.050			
0.0502	3210.03	4.1310	4.1310	0.8477	24.04	0.00	0.050			
0.0510	3264.35	4.1300	4.1301	0.8439	24.02	-0.02	0.050			
0.0519	3318.95	4.1290	4.1290	0.8414	24.02	-0.02	0.050	0.006	0.390	
0.0527	3372.75	4.1280	4.1281	0.8352	24.02	-0.02	0.050			
0.0535	3426.82	4.1270	4.1270	0.8302	24.02	-0.02	0.050			
0.0544	3479.85	4.1260	4.1260	0.8238	24.00	-0.04	0.050			
0.0552	3532.84	4.1250	4.1252	0.8197	24.00	-0.04	0.050			
0.0560	3584.75	4.1240	4.1242	0.8145	23.98	-0.06	0.050			
0.0568	3635.19	4.1230	4.1229	0.8083	23.97	-0.07	0.050			
0.0576	3686.31	4.1220	4.1221	0.8050	23.96	-0.08	0.050			
0.0584	3737.59	4.1210	4.1207	0.8017	23.95	-0.09	0.050			
0.0592	3786.86	4.1200	4.1203	0.8013	23.94	-0.10	0.050			
0.0600	3838.02	4.1190	4.1189	0.7998	23.94	-0.10	0.050			
0.0608	3888.25	4.1180	4.1181	0.7998	23.93	-0.11	0.050			
0.0615	3938.56	4.1170	4.1172	0.7987	23.92	-0.12	0.050			
0.0623	3988.80	4.1160	4.1154	0.8008	23.92	-0.12	0.050			
0.0631	4039.47	4.1150	4.1151	0.8019	23.91	-0.13	0.050			
0.0639	4090.80	4.1140	4.1140	0.8076	23.90	-0.14	0.050			
0.0647	4142.72	4.1130	4.1129	0.8135	23.90	-0.14	0.050			
0.0655	4194.68	4.1120	4.1122	0.8155	23.89	-0.15	0.050			
0.0663	4246.21	4.1110	4.1110	0.8186	23.88	-0.16	0.050			
0.0672	4298.33	4.1100	4.1103	0.8217	23.88	-0.16	0.050			
0.0680	4351.79	4.1090	4.1088	0.8274	23.87	-0.17	0.050			
0.0688	4404.86	4.1080	4.1083	0.8314	23.87	-0.17	0.050			
0.0697	4458.62	4.1070	4.1070	0.8365	23.86	-0.18	0.050			
0.0705	4512.64	4.1060	4.1056	0.8392	23.85	-0.19	0.050			
0.0714	4567.29	4.1050	4.1052	0.8424	23.84	-0.20	0.050			
0.0722	4622.15	4.1040	4.1038	0.8449	23.85	-0.19	0.050	-0.057	0.196	
0.0731	4676.80	4.1030	4.1030	0.8454	23.84	-0.20	0.050			
0.0739	4731.61	4.1020	4.1020	0.8456	23.84	-0.20	0.050			
0.0748	4785.61	4.1010	4.1011	0.8464	23.84	-0.20	0.050			
0.0756	4839.52	4.1000	4.1001	0.8471	23.83	-0.21	0.050			
0.0765	4894.68	4.0990	4.0990	0.8495	23.82	-0.22	0.050			
0.0773	4949.24	4.0980	4.0977	0.8503	23.82	-0.22	0.050			
0.0782	5003.81	4.0970	4.0975	0.8477	23.82	-0.22	0.050			
0.0790	5058.52	4.0960	4.0959	0.8459	23.82	-0.22	0.050			
0.0799	5111.97	4.0950	4.0946	0.8448	23.82	-0.22	0.050			
0.0807	5165.81	4.0940	4.0942	0.8446	23.82	-0.22	0.050			
0.0816	5220.03	4.0930	4.0928	0.8461	23.81	-0.23	0.050			
0.0824	5274.01	4.0920	4.0918	0.8442	23.81	-0.23	0.050			
0.0832	5327.98	4.0910	4.0911	0.8431	23.81	-0.23	0.050			
0.0841	5381.75	4.0900	4.0899	0.8456	23.81	-0.23	0.050			
0.0849	5435.34	4.0890	4.0891	0.8461	23.80	-0.24	0.050			
0.0858	5488.75	4.0880	4.0883	0.8470	23.81	-0.23	0.050			
0.0866	5542.83	4.0870	4.0869	0.8497	23.81	-0.23	0.050			
0.0875	5597.20	4.0860	4.0859	0.8514	23.82	-0.22	0.050			
0.0883	5651.65	4.0850	4.0853	0.8528	23.81	-0.23	0.050			
0.0892	5706.15	4.0840	4.0836	0.8548	23.82	-0.22	0.050			
0.0900	5760.90	4.0830	4.0833	0.8572	23.82	-0.22	0.050			
0.0909	5816.40	4.0820	4.0817	0.8573	23.82	-0.22	0.050			
0.0917	5871.85	4.0810	4.0807	0.8566	23.82	-0.22	0.050			
0.0926	5926.56	4.0800	4.0802	0.8570	23.82	-0.22	0.050			
0.0935	5981.49	4.0790	4.0790	0.8589	23.84	-0.20	0.050			
0.0943	6037.11	4.0780	4.0782	0.8611	23.84	-0.20	0.050			
0.0952	6093.42	4.0770	4.0771	0.8624	23.84	-0.20	0.050			
0.0961	6148.34	4.0760	4.0761	0.8637	23.86	-0.18	0.050			
0.0969	6202.86	4.0750	4.0752	0.8624	23.86	-0.18	0.050			
0.0978	6258.66	4.0740	4.0739	0.8630	23.86	-0.18	0.050			
0.0987	6313.89	4.0730	4.0730	0.8617	23.86	-0.18	0.050			
0.0995	6369.22	4.0720	4.0721	0.8614	23.87	-0.17	0.050			
0.1003	6422.28	4.0710	4.0707	0.8677	23.87	-0.17	0.050			
0.1012	6474.57	4.0700	4.0701	0.8751	23.88	-0.16	0.050			
0.1020	6529.05	4.0690	4.0693	0.8821	23.88	-0.16	0.050			
0.1029	6583.71	4.0680	4.0680	0.8910	23.88	-0.16	0.050			
0.1038	6640.99	4.0670	4.0671	0.9009	23.88	-0.16	0.050			
0.1047	6699.96	4.0660	4.0660	0.9060	23.88	-0.16	0.050			
0.1056	6758.84	4.0650	4.0651	0.9132	23.89	-0.15	0.050			
0.1065	6818.00	4.0640	4.0636	0.9189	23.89	-0.15	0.050			
0.1075	6878.86	4.0630	4.0627	0.9199	23.90	-0.14	0.050			
0.1084	6940.54	4.0620	4.0614	0.9252	23.92	-0.12	0.050			
0.1094	7001.30	4.0610	4.0606	0.9266	23.92	-0.12	0.050			
0.1103	7061.83	4.0600	4.0603	0.9255	23.92	-0.12	0.050			
0.1113	7122.29	4.0590	4.0594	0.9254	23.92	-0.12	0.050			
0.1122	7182.97	4.0580	4.0580	0.9246	23.92	-0.12	0.050	0.266	0.505	
0.1132	7243.04	4.0570	4.0573	0.9213	23.92	-0.12	0.050			
0.1141	7302.46	4.0560	4.0557	0.9210	23.92	-0.12	0.050			
0.1150	7361.91	4.0550	4.0552	0.9181	23.92	-0.12	0.050			
0.1159	7420.75	4.0540	4.0540	0.9171	23.92	-0.12	0.050			
0.1169	7478.76	4.0530	4.0529	0.9103	23.92	-0.12	0.050			
0.1177	7535.74	4.0520	4.0519	0.9051	23.92	-0.12	0.050			
0.1186	7590.76	4.0510	4.0508	0.8962	23.90	-0.14	0.050			
0.1194	7644.44	4.0500	4.0500	0.8876	23.90	-0.14	0.050			
0.1203	7701.55	4.0490	4.0489	0.8893	23.90	-0.14	0.050			
0.1212	7758.46	4.0480	4.0480	0.8900	23.90	-0.14	0.050			
0.1221	7816.21	4.0470	4.0470	0.8923	23.90	-0.14	0.050			
0.1230	7874.26	4.0460	4.0462	0.8925	23.89	-0.15	0.050			
0.1239	7931.51	4.0450	4.0451	0.8908	23.88	-0.16	0.050			
0.1248	7988.89	4.0440	4.0442	0.8899	23.88	-0.16	0.050			
0.1257	8047.09	4.0430	4.0429	0.8925	23.87	-0.17	0.050			
0.1266	8103.90	4.0420	4.0421	0.8925	23.86	-0.18	0.050			
0.1275	8161.20	4.0410	4.0411	0.8922	23.86	-0.18	0.050			
0.1284	8217.39	4.0400	4.0402	0.8911	23.85	-0.19	0.050			
0.1293	8275.78	4.0390	4.0390	0.8863	23.84	-0.20	0.050			
0.1302	8332.57	4.0380	4.0380	0.8839	23.84	-0.20	0.050			
0.1311	8390.78	4.0370	4.0370	0.8759	23.83	-0.21	0.050			
0.1320	8447.13	4.0360	4.0360	0.8672	23.82	-0.22	0.050	0.253	0.626	
0.1329	8503.01	4.0350	4.0349	0.8599	23.82	-0.22	0.050			
0.1337	8558.75	4.0340	4.0340	0.8546	23.81	-0.23	0.050			
0.1346	8613.63	4.0330	4.0330	0.8490	23.80	-0.24	0.050			
0.1354	8667.10	4.0320	4.0321	0.8447	23.80	-0.24	0.050			
0.1363	8720.47	4.0310	4.0312	0.8405	23.78	-0.26	0.050			
0.1371	8773.20	4.0300	4.0303	0.8354	23.78	-0.26	0.050			
0.1379	8826.00	4.0290	4.0294	0.8302	23.77	-0.27	0.050			
0.1387	8877.66	4.0280	4.0278	0.8286	23.76	-0.28	0.050			
0.1395	8929.55	4.0270	4.0270	0.8251	23.76	-0.28	0.050			
0.1403	8980.71	4.0260	4.0258	0.8269	23.76	-0.28	0.050			
0.1411	9032.11	4.0250	4.0247	0.8298	23.76	-0.28	0.050			
0.1419	9081.35	4.0240	4.0241	0.8339	23.77	-0.27	0.050			
0.1427	9133.57	4.0230	4.0230	0.8401	23.76	-0.28	0.050			
0.1435	9185.81	4.0220	4.0220	0.8446	23.77	-0.27	0.050			
0.1444	9240.14	4.0210	4.0212	0.8529	23.77	-0.27	0.050			
0.1452	9295.82	4.0200	4.0201	0.8607	23.78	-0.26	0.050			
0.1461	9352.57	4.0190	4.0185	0.8715	23.77	-0.27	0.050			
0.1470	9409.37	4.0180	4.0181	0.8786	23.78	-0.26	0.050			
0.1479	9467.59	4.0170	4.0165	0.8888	23.78	-0.26	0.050			
0.1488	9525.58	4.0160	4.0162	0.8945	23.78	-0.26	0.050			
0.1498	9584.38	4.0150	4.0149	0.8963	23.78	-0.26	0.050			
0.1507	9642.24	4.0140	4.0143	0.9009	23.78	-0.26	0.050			
0.1516	9700.75	4.0130	4.0129	0.9016	23.78	-0.26	0.050			
0.1525	9759.64	4.0120	4.0120	0.9041	23.78	-0.26	0.050			
0.1534	9818.95	4.0110	4.0108	0.9032	23.79	-0.25	0.050			
0.1543	9876.58	4.0100	4.0101	0.9042	23.79	-0.25	0.050			
0.1552	9935.65	4.0090	4.0087	0.9029	23.80	-0.24	0.050			
0.1561	9992.48	4.0080	4.0082	0.9073	23.80	-0.24	0.050			
0.1570	10049.77	4.0070	4.0071	0.9069	23.80	-0.24	0.050			
0.1579	10107.39	4.0060	4.0058	0.9030	23.80	-0.24	0.050			
0.1588	10164.61	4.0050	4.0051	0.8999	23.80	-0.24	0.050			
0.1597	10221.27	4.0040	4.0040	0.8999	23.81	-0.23	0.050			
0.1606	10277.84	4.0030	4.0031	0.9057	23.82	-0.22	0.050			
0.1615	10335.35	4.0020	4.0021	0.9099	23.82	-0.22	0.050			
0.1624	10394.34	4.0010	4.0006	0.9127	23.82	-0.22	0.050			
0.1633	10452.75	4.0000	4.0001	0.9127	23.83	-0.21	0.050			
0.1643	10512.61	3.9990	3.9985	0.9116	23.82	-0.22	0.050			
0.1652	10570.93	3.9980	3.9982	0.9102	23.84	-0.20	0.050			
0.1661	10628.77	3.9970	3.9970	0.9160	23.84	-0.20	0.050			
0.1670	10687.44	3.9960	3.9962	0.9175	23.84	-0.20	0.050			
0.1679	10747.68	3.9950	3.9944	0.9175	23.84	-0.20	0.050			
0.1688	10805.05	3.9940	3.9943	0.9210	23.84	-0.20	0.050			
0.1698	10864.76	3.9930	3.9930	0.9247	23.84	-0.20	0.050			
0.1707	10924.63	3.9920	3.9925	0.9259	23.86	-0.18	0.050			
0.1716	10984.31	3.9910	3.9909	0.9244	23.86	-0.18	0.050			
0.1725	11042.64	3.9900	3.9902	0.9233	23.87	-0.17	0.050			
0.1734	11098.15	3.9890	3.9893	0.9366	23.87	-0.17	0.050			
0.1743	11156.46	3.9880	3.9881	0.9413	23.88	-0.16	0.050			
0.1752	11215.37	3.9870	3.9871	0.9546	23.88	-0.16	0.050			
0.1762	11276.73	3.9860	3.9863	0.9655	23.90	-0.14	0.050			
0.1772	11338.70	3.9850	3.9846	0.9736	23.89	-0.15	0.050			
0.1781	11400.92	3.9840	3.9844	0.9756	23.90	-0.14	0.050			
0.1791	11463.87	3.9830	3.9831	0.9803	23.90	-0.14	0.050			
0.1801	11528.42	3.9820	3.9819	0.9851	23.90	-0.14	0.050			
0.1812	11594.07	3.9810	3.9804	0.9911	23.90	-0.14	0.050			
0.1822	11660.01	3.9800	3.9795	0.9939	23.91	-0.13	0.050			
0.1832	11724.30	3.9790	3.9795	0.9909	23.92	-0.12	0.050			
0.1842	11790.73	3.9780	3.9784	0.9906	23.92	-0.12	0.050			
0.1852	11854.60	3.9770	3.9772	0.9896	23.93	-0.11	0.050			
0.1862	11918.95	3.9760	3.9764	0.9896	23.94	-0.10	0.050			
0.1872	11983.55	3.9750	3.9750	0.9872	23.94	-0.10	0.050			
0.1882	12046.72	3.9740	3.9741	0.9811	23.94	-0.10	0.050			
0.1892	12111.67	3.9730	3.9729	0.9782	23.94	-0.10	0.050			
0.1902	12174.62	3.9720	3.9721	0.9735	23.94	-0.10	0.050			
0.1912	12235.95	3.9710	3.9708	0.9632	23.94	-0.10	0.050			
0.1921	12294.04	3.9700	3.9700	0.9547	23.94	-0.10	0.050	0.321	0.473	
0.1930	12350.80	3.9690	3.9687	0.9392	23.94	-0.10	0.050			
0.1939	12412.44	3.9680	3.9677	0.9351	23.94	-0.10	0.050			
0.1949	12472.14	3.9670	3.9670	0.9324	23.94	-0.10	0.050			
0.1958	12531.64	3.9660	3.9661	0.9325	23.94	-0.10	0.050			
0.1967	12591.83	3.9650	3.9649	0.9325	23.93	-0.11	0.050			
0.1977	12652.14	3.9640	3.9641	0.9300	23.93	-0.11	0.050			
0.1986	12711.76	3.9630	3.9628	0.9268	23.92	-0.12	0.050			
0.1996	12771.95	3.9620	3.9622	0.9202	23.92	-0.12	0.050			
0.2005	12831.57	3.9610	3.9609	0.9131	23.92	-0.12	0.050			
0.2014	12890.00	3.9600	3.9601	0.9094	23.92	-0.12	0.050			
0.2023	12947.17	3.9590	3.9590	0.9065	23.91	-0.13	0.050			
0.2032	13004.59	3.9580	3.9579	0.9050	23.90	-0.14	0.050			
0.2041	13061.40	3.9570	3.9570	0.8992	23.89	-0.15	0.050			
0.2050	13118.54	3.9560	3.9561	0.8960	23.89	-0.15	0.050			
0.2059	13175.91	3.9550	3.9553	0.8956	23.88	-0.16	0.050			
0.2068	13233.00	3.9540	3.9538	0.8929	23.88	-0.16	0.050			
0.2077	13290.23	3.9530	3.9531	0.8899	23.88	-0.16	0.050			
0.2085	13346.73	3.9520	3.9514	0.8868	23.88	-0.16	0.050			
0.2094	13402.78	3.9510	3.9511	0.8861	23.87	-0.17	0.050			
0.2103	13459.29	3.9500	3.9499	0.8822	23.86	-0.18	0.050			
0.2112	13515.03	3.9490	3.9489	0.8842	23.86	-0.18	0.050			
0.2120	13571.12	3.9480	3.9482	0.8893	23.86	-0.18	0.050	0.245	0.506	
0.2129	13626.95	3.9470	3.9468	0.8904	23.86	-0.18	0.050			
0.2138	13682.89	3.9460	3.9462	0.8908	23.86	-0.18	0.050			
0.2147	13740.46	3.9450	3.9449	0.8925	23.86	-0.18	0.050			
0.2156	13799.12	3.9440	3.9441	0.8949	23.86	-0.18	0.050			
0.2165	13856.02	3.9430	3.9426	0.8982	23.86	-0.18	0.050			
0.2174	13914.55	3.9420	3.9418	0.8993	23.86	-0.18	0.050			
0.2183	13973.00	3.9410	3.9409	0.8998	23.87	-0.17	0.050			
0.2192	14029.78	3.9400	3.9391	0.8954	23.88	-0.16	0.050			
0.2201	14087.10	3.9390	3.9391	0.8951	23.88	-0.16	0.050			
0.2210	14143.58	3.9380	3.9381	0.8971	23.89	-0.15	0.050			
0.2219	14201.61	3.9370	3.9374	0.8998	23.90	-0.14	0.050			
0.2228	14260.72	3.9360	3.9360	0.9019	23.90	-0.14	0.050			
0.2237	14317.78	3.9350	3.9351	0.9028	23.90	-0.14	0.050			
0.2246	14376.61	3.9340	3.9337	0.9047	23.90	-0.14	0.050			
0.2255	14434.37	3.9330	3.9330	0.9056	23.91	-0.13	0.050			
0.2264	14492.55	3.9320	3.9320	0.9049	23.92	-0.12	0.050			
0.2273	14549.77	3.9310	3.9305	0.9036	23.92	-0.12	0.050			
0.2282	14607.68	3.9300	3.9301	0.9036	23.92	-0.12	0.050			
0.2291	14664.82	3.9290	3.9287	0.8994	23.92	-0.12	0.050			
0.2300	14721.59	3.9280	3.9283	0.8997	23.92	-0.12	0.050			
0.2309	14779.64	3.9270	3.9270	0.9008	23.92	-0.12	0.050			
0.2319	14838.41	3.9260	3.9260	0.9000	23.93	-0.11	0.050			
0.2328	14897.29	3.9250	3.9251	0.9006	23.94	-0.10	0.050	-0.228	0.022	
0.2337	14954.93	3.9240	3.9239	0.8994	23.94	-0.10	0.050			
0.2346	15012.29	3.9230	3.9229	0.8974	23.94	-0.10	0.050			
0.2355	15070.70	3.9220	3.9220	0.8943	23.96	-0.08	0.050			
0.2364	15129.00	3.9210	3.9209	0.8927	23.95	-0.09	0.050			
0.2373	15185.83	3.9200	3.9198	0.8886	23.96	-0.08	0.050			
0.2382	15241.91	3.9190	3.9191	0.8858	23.96	-0.08	0.050			
0.2390	15298.87	3.9180	3.9181	0.8781	23.98	-0.06	0.050			
0.2399	15355.96	3.9170	3.9170	0.8737	23.98	-0.06	0.050			
0.2408	15411.83	3.9160	3.9161	0.8723	23.98	-0.06	0.050			
0.2417	15467.27	3.9150	3.9148	0.8667	23.98	-0.06	0.050			
0.2425	15522.65	3.9140	3.9143	0.8618	23.99	-0.05	0.050			
0.2434	15576.97	3.9130	3.9130	0.8585	23.99	-0.05	0.050			
0.2442	15631.84	3.9120	3.9118	0.8541	24.00	-0.04	0.050			
0.2451	15686.56	3.9110	3.9111	0.8512	24.00	-0.04	0.050			
0.2459	15739.15	3.9100	3.9099	0.8508	24.00	-0.04	0.050			
0.2467	15790.49	3.9090	3.9091	0.8590	24.00	-0.04	0.050			
0.2475	15842.36	3.9080	3.9084	0.8622	24.02	-0.02	0.050			
0.2484	15897.18	3.9070	3.9067	0.8694	24.02	-0.02	0.050			
0.2493	15952.51	3.9060	3.9062	0.8766	24.02	-0.02	0.050			
0.2501	16009.35	3.9050	3.9050	0.8804	24.02	-0.02	0.050			
0.2510	16066.19	3.9040	3.9035	0.8786	24.02	-0.02	0.050			
0.2519	16122.90	3.9030	3.9030	0.8834	24.03	-0.01	0.050			
0.2528	16181.17	3.9020	3.9015	0.8867	24.04	0.00	0.050			
0.2537	16239.41	3.9010	3.9009	0.8877	24.04	0.00	0.050			
0.2546	16297.07	3.9000	3.9005	0.8878	24.06	0.02	0.050			
0.2556	16356.21	3.8990	3.8995	0.8873	24.06	0.02	0.050			
0.2565	16415.27	3.8980	3.8983	0.8833	24.05	0.01	0.050			
0.2574	16473.65	3.8970	3.8973	0.8820	24.04	0.00	0.050			
0.2583	16530.06	3.8960	3.8962	0.8771	24.04	0.00	0.050			
0.2592	16588.11	3.8950	3.8947	0.8724	24.04	0.00	0.050			
0.2601	16644.10	3.8940	3.8940	0.8648	24.04	0.00	0.050			
0.2609	16699.38	3.8930	3.8930	0.8573	24.04	0.00	0.050			
0.2618	16752.55	3.8920	3.8921	0.8512	24.03	-0.01	0.050			
0.2626	16805.89	3.8910	3.8910	0.8435	24.03	-0.01	0.050			
0.2634	16856.75	3.8900	3.8901	0.8314	24.02	-0.02	0.050			
0.2642	16907.48	3.8890	3.8887	0.8197	24.02	-0.02	0.050			
0.2650	16960.33	3.8880	3.8880	0.8172	24.01	-0.03	0.050			
0.2658	17012.44	3.8870	3.8870	0.8152	24.00	-0.04	0.050			
0.2666	17064.27	3.8860	3.8861	0.8142	23.99	-0.05	0.050			
0.2674	17116.11	3.8850	3.8851	0.8142	23.98	-0.06	0.050			
0.2682	17167.96	3.8840	3.8840	0.8129	23.98	-0.06	0.050			
0.2691	17219.46	3.8830	3.8830	0.8109	23.97	-0.07	0.050			
0.2699	17271.23	3.8820	3.8821	0.8096	23.96	-0.08	0.050			
0.2707	17323.04	3.8810	3.8812	0.8116	23.95	-0.09	0.050			
0.2715	17375.16	3.8800	3.8801	0.8127	23.94	-0.10	0.050			
0.2723	17426.45	3.8790	3.8789	0.8146	23.94	-0.10	0.050	0.078	0.354	
0.2731	17478.54	3.8780	3.8779	0.8139	23.94	-0.10	0.050			
0.2739	17531.59	3.8770	3.8769	0.8095	23.93	-0.11	0.050			
0.2748	17584.91	3.8760	3.8758	0.8039	23.91	-0.13	0.050			
0.2756	17637.94	3.8750	3.8750	0.7988	23.90	-0.14	0.050			
0.2764	17689.63	3.8740	3.8739	0.7948	23.90	-0.14	0.050			
0.2772	17739.51	3.8730	3.8730	0.7914	23.90	-0.14	0.050			
0.2780	17790.02	3.8720	3.8718	0.7901	23.89	-0.15	0.050			
0.2788	17840.99	3.8710	3.8712	0.7866	23.88	-0.16	0.050			
0.2796	17891.33	3.8700	3.8702	0.7848	23.88	-0.16	0.050			
0.2803	17941.41	3.8690	3.8694	0.7830	23.87	-0.17	0.050			
0.2811	17990.24	3.8680	3.8682	0.7810	23.86	-0.18	0.050			
0.2819	18038.84	3.8670	3.8673	0.7797	23.86	-0.18	0.050			
0.2826	18087.57	3.8660	3.8659	0.7789	23.86	-0.18	0.050			
0.2834	18136.15	3.8650	3.8645	0.7769	23.85	-0.19	0.050			
0.2841	18184.61	3.8640	3.8637	0.7805	23.84	-0.20	0.050			
0.2849	18234.08	3.8630	3.8630	0.7818	23.84	-0.20	0.050			
0.2857	18283.93	3.8620	3.8622	0.7834	23.84	-0.20	0.050			
0.2865	18334.33	3.8610	3.8610	0.7794	23.84	-0.20	0.050			
0.2873	18385.76	3.8600	3.8599	0.7780	23.84	-0.20	0.050			
0.2881	18436.67	3.8590	3.8589	0.7771	23.84	-0.20	0.050			
0.2889	18487.71	3.8580	3.8581	0.7819	23.84	-0.20	0.050			
0.2897	18538.55	3.8570	3.8571	0.7867	23.84	-0.20	0.050			
0.2905	18590.29	3.8560	3.8560	0.7902	23.84	-0.20	0.050			
