Ah_balance (normalized)	Ah_balance (mAh)	Voltage - fit (V)	Voltage -  interpolate (V)	dQ/dV (1/V)	Temperature (°C)	Temperature - diff (°C)	Current (C)	R_DC 0ms (mOhm)	R_DC 50ms (mOhm)	R_DC 50 ms PEC (mOhm)
0.0002	9.92	4.1670	4.1668	-0.1079	25.06	0.02	-0.750			
0.0006	35.64	4.1640	4.1637	-0.1582	25.06	0.02	-0.750			
0.0011	70.22	4.1610	4.1611	-0.2052	25.05	0.01	-0.750			
0.0018	115.17	4.1580	4.1580	-0.2513	25.05	0.01	-0.750			
0.0026	168.32	4.1550	4.1550	-0.2944	25.05	0.01	-0.750			
0.0036	229.17	4.1520	4.1520	-0.3358	25.05	0.01	-0.750			
0.0047	297.75	4.1490	4.1491	-0.3822	25.05	0.01	-0.750			
0.0059	375.16	4.1460	4.1461	-0.4248	25.05	0.01	-0.750			
0.0072	461.37	4.1430	4.1429	-0.4632	25.04	0.00	-0.750			
0.0087	555.06	4.1400	4.1400	-0.5006	25.04	0.00	-0.750			
0.0102	655.90	4.1370	4.1373	-0.5346	25.04	-0.00	-0.750			
0.0119	763.64	4.1340	4.1340	-0.5662	25.04	-0.00	-0.750			
0.0137	874.75	4.1310	4.1310	-0.5915	25.03	-0.01	-0.750			
0.0155	989.85	4.1280	4.1279	-0.6169	25.03	-0.01	-0.750			
0.0174	1112.16	4.1250	4.1251	-0.6356	25.03	-0.01	-0.750			
0.0193	1237.34	4.1220	4.1219	-0.6526	25.03	-0.01	-0.750			
0.0213	1365.46	4.1190	4.1191	-0.6679	25.02	-0.02	-0.750			
0.0234	1495.29	4.1160	4.1160	-0.6777	25.02	-0.02	-0.750			
0.0254	1626.18	4.1130	4.1130	-0.6895	25.02	-0.02	-0.750			
0.0275	1758.24	4.1100	4.1100	-0.7015	25.02	-0.02	-0.750			
0.0296	1894.11	4.1070	4.1070	-0.7089	25.01	-0.03	-0.750			
0.0318	2033.03	4.1040	4.1040	-0.7209	25.01	-0.03	-0.750			
0.0340	2173.28	4.1010	4.1010	-0.7267	25.01	-0.03	-0.750			
0.0361	2313.14	4.0980	4.0981	-0.7307	25.01	-0.03	-0.750			
0.0383	2450.61	4.0950	4.0950	-0.7427	25.01	-0.03	-0.750			
0.0406	2595.82	4.0920	4.0920	-0.7388	25.01	-0.03	-0.750			
0.0429	2744.68	4.0890	4.0888	-0.7157	25.01	-0.03	-0.750			
0.0450	2880.59	4.0860	4.0859	-0.7034	25.01	-0.03	-0.750			
0.0471	3011.32	4.0830	4.0833	-0.6988	25.01	-0.03	-0.750			
0.0491	3141.74	4.0800	4.0793	-0.6968	25.01	-0.03	-0.750			
0.0510	3265.68	4.0770	4.0768	-0.7028	25.01	-0.03	-0.750			
0.0532	3402.49	4.0740	4.0740	-0.7184	25.01	-0.03	-0.750			
0.0554	3547.41	4.0710	4.0710	-0.7505	25.00	-0.04	-0.750			
0.0578	3697.29	4.0680	4.0679	-0.7698	25.00	-0.04	-0.750			
0.0601	3845.37	4.0650	4.0655	-0.7677	25.00	-0.04	-0.750			
0.0624	3993.00	4.0620	4.0619	-0.7738	25.00	-0.04	-0.750			
0.0647	4140.92	4.0590	4.0590	-0.7745	25.00	-0.04	-0.750			
0.0670	4290.36	4.0560	4.0561	-0.7758	25.01	-0.03	-0.750			
0.0694	4442.11	4.0530	4.0528	-0.7847	25.01	-0.03	-0.750			
0.0717	4589.63	4.0500	4.0500	-0.7793	25.01	-0.03	-0.750			
0.0740	4738.12	4.0470	4.0470	-0.7829	25.01	-0.03	-0.750			
0.0763	4886.22	4.0440	4.0440	-0.8046	25.01	-0.03	-0.750			
0.0788	5044.99	4.0410	4.0408	-0.7967	25.01	-0.03	-0.750			
0.0813	5201.30	4.0380	4.0379	-0.7949	25.02	-0.02	-0.750			
0.0837	5355.71	4.0350	4.0349	-0.8002	25.02	-0.02	-0.750			
0.0861	5508.65	4.0320	4.0318	-0.7935	25.02	-0.02	-0.750			
0.0884	5658.28	4.0290	4.0288	-0.7980	25.02	-0.02	-0.750			
0.0907	5807.86	4.0260	4.0261	-0.7925	25.02	-0.02	-0.750			
0.0931	5958.26	4.0230	4.0230	-0.7909	25.02	-0.02	-0.750			
0.0956	6118.38	4.0200	4.0199	-0.8012	25.02	-0.02	-0.750			
0.0980	6272.08	4.0170	4.0174	-0.8046	25.02	-0.02	-0.750			
0.1004	6424.55	4.0140	4.0140	-0.8028	25.02	-0.02	-0.750			
0.1028	6579.94	4.0110	4.0108	-0.8087	25.03	-0.01	-0.750			
0.1052	6734.37	4.0080	4.0080	-0.8116	25.03	-0.01	-0.750			
0.1077	6894.01	4.0050	4.0049	-0.8078	25.04	-0.00	-0.750			
0.1101	7048.20	4.0020	4.0025	-0.8096	25.04	0.00	-0.750			
0.1126	7203.97	3.9990	3.9990	-0.8118	25.04	0.00	-0.750			
0.1150	7358.13	3.9960	3.9960	-0.8208	25.04	0.00	-0.750			
0.1174	7516.34	3.9930	3.9928	-0.8180	25.04	0.00	-0.750			
0.1200	7676.82	3.9900	3.9899	-0.8284	25.04	0.00	-0.750			
0.1224	7834.91	3.9870	3.9876	-0.8243	25.04	0.00	-0.750			
0.1250	7997.60	3.9840	3.9838	-0.8306	25.04	0.00	-0.750			
0.1274	8152.55	3.9810	3.9809	-0.8267	25.05	0.01	-0.750			
0.1298	8308.62	3.9780	3.9780	-0.8216	25.05	0.01	-0.750			
0.1323	8470.13	3.9750	3.9749	-0.8366	25.06	0.02	-0.750			
0.1349	8630.51	3.9720	3.9723	-0.8335	25.06	0.02	-0.750			
0.1374	8790.67	3.9690	3.9690	-0.8319	25.06	0.02	-0.750			
0.1398	8949.44	3.9660	3.9659	-0.8371	25.06	0.02	-0.750			
0.1423	9109.51	3.9630	3.9630	-0.8346	25.07	0.03	-0.750			
0.1449	9270.64	3.9600	3.9599	-0.8407	25.07	0.03	-0.750			
0.1474	9430.90	3.9570	3.9572	-0.8429	25.07	0.03	-0.750			
0.1499	9593.63	3.9540	3.9540	-0.8510	25.07	0.03	-0.750			
0.1525	9758.22	3.9510	3.9508	-0.8629	25.07	0.03	-0.750			
0.1551	9926.66	3.9480	3.9479	-0.8580	25.08	0.04	-0.750			
0.1577	10091.88	3.9450	3.9450	-0.8506	25.08	0.04	-0.750			
0.1603	10257.93	3.9420	3.9425	-0.8564	25.08	0.04	-0.750			
0.1628	10420.59	3.9390	3.9388	-0.8531	25.08	0.04	-0.750			
0.1653	10582.27	3.9360	3.9359	-0.8560	25.08	0.04	-0.750			
0.1679	10746.11	3.9330	3.9329	-0.8586	25.09	0.05	-0.750			
0.1705	10914.43	3.9300	3.9299	-0.8704	25.09	0.05	-0.750			
0.1732	11082.37	3.9270	3.9272	-0.8697	25.09	0.05	-0.750			
0.1758	11250.26	3.9240	3.9239	-0.8685	25.10	0.06	-0.750			
0.1784	11415.43	3.9210	3.9209	-0.8682	25.10	0.06	-0.750			
0.1809	11580.00	3.9180	3.9180	-0.8582	25.10	0.06	-0.750			
0.1836	11748.15	3.9150	3.9149	-0.8728	25.11	0.07	-0.750			
0.1862	11914.86	3.9120	3.9120	-0.8726	25.11	0.07	-0.750			
0.1888	12082.51	3.9090	3.9089	-0.8760	25.11	0.07	-0.750			
0.1914	12251.11	3.9060	3.9060	-0.8770	25.12	0.08	-0.750			
0.1940	12418.47	3.9030	3.9030	-0.8726	25.12	0.08	-0.750			
0.1967	12589.01	3.9000	3.8999	-0.8793	25.12	0.08	-0.750			
0.1993	12757.73	3.8970	3.8969	-0.8809	25.12	0.08	-0.750			
0.2019	12924.36	3.8940	3.8938	-0.8898	25.13	0.09	-0.750			
0.2046	13097.13	3.8910	3.8910	-0.8905	25.13	0.09	-0.750			
0.2073	13269.44	3.8880	3.8879	-0.8932	25.14	0.10	-0.750			
0.2101	13444.77	3.8850	3.8855	-0.8984	25.14	0.10	-0.750			
0.2128	13618.02	3.8820	3.8819	-0.8930	25.14	0.10	-0.750			
0.2154	13787.95	3.8790	3.8789	-0.8913	25.15	0.11	-0.750			
0.2181	13957.76	3.8760	3.8760	-0.8856	25.15	0.11	-0.750			
0.2207	14126.86	3.8730	3.8729	-0.8911	25.16	0.12	-0.750			
0.2234	14298.16	3.8700	3.8700	-0.8911	25.16	0.12	-0.750			
0.2261	14468.84	3.8670	3.8670	-0.8967	25.16	0.12	-0.750			
0.2288	14641.81	3.8640	3.8640	-0.8958	25.16	0.12	-0.750			
0.2315	14814.46	3.8610	3.8610	-0.8935	25.17	0.13	-0.750			
0.2342	14988.60	3.8580	3.8579	-0.9023	25.17	0.13	-0.750			
0.2368	15158.07	3.8550	3.8549	-0.9080	25.17	0.13	-0.750			
0.2396	15332.07	3.8520	3.8520	-0.9040	25.17	0.13	-0.750			
0.2423	15508.39	3.8490	3.8489	-0.8992	25.18	0.14	-0.750			
0.2450	15680.44	3.8460	3.8459	-0.8930	25.18	0.14	-0.750			
0.2477	15854.11	3.8430	3.8435	-0.8992	25.18	0.14	-0.750			
0.2504	16025.27	3.8400	3.8400	-0.8930	25.19	0.15	-0.750			
0.2530	16194.63	3.8370	3.8368	-0.8901	25.19	0.15	-0.750			
0.2557	16365.14	3.8340	3.8340	-0.8929	25.20	0.16	-0.750			
0.2584	16535.81	3.8310	3.8311	-0.8974	25.21	0.17	-0.750			
0.2611	16709.77	3.8280	3.8280	-0.9030	25.21	0.17	-0.750			
0.2638	16885.04	3.8250	3.8250	-0.9119	25.21	0.17	-0.750			
0.2666	17061.07	3.8220	3.8219	-0.9095	25.22	0.18	-0.750			
0.2693	17236.95	3.8190	3.8190	-0.9128	25.22	0.18	-0.750			
0.2721	17412.16	3.8160	3.8163	-0.9103	25.22	0.18	-0.750			
0.2748	17585.57	3.8130	3.8128	-0.9123	25.22	0.18	-0.750			
0.2775	17761.75	3.8100	3.8099	-0.9067	25.22	0.18	-0.750			
0.2802	17934.98	3.8070	3.8070	-0.9011	25.23	0.19	-0.750			
0.2829	18105.35	3.8040	3.8041	-0.8971	25.23	0.19	-0.750			
0.2857	18282.53	3.8010	3.8012	-0.9018	25.23	0.19	-0.750			
0.2883	18453.94	3.7980	3.7979	-0.8976	25.24	0.20	-0.750			
0.2910	18624.75	3.7950	3.7950	-0.8927	25.24	0.20	-0.750			
0.2937	18795.07	3.7920	3.7920	-0.8924	25.24	0.20	-0.750			
0.2964	18967.50	3.7890	3.7890	-0.8963	25.25	0.21	-0.750			
0.2991	19140.13	3.7860	3.7860	-0.8946	25.25	0.21	-0.750			
0.3017	19310.00	3.7830	3.7830	-0.9011	25.25	0.21	-0.750			
0.3045	19485.40	3.7800	3.7799	-0.8961	25.25	0.21	-0.750			
0.3072	19658.51	3.7770	3.7769	-0.8945	25.25	0.21	-0.750			
0.3099	19830.67	3.7740	3.7738	-0.8911	25.25	0.21	-0.750			
0.3125	20001.26	3.7710	3.7710	-0.8846	25.25	0.21	-0.750			
0.3152	20170.52	3.7680	3.7679	-0.8846	25.26	0.22	-0.750			
0.3178	20338.44	3.7650	3.7649	-0.8779	25.26	0.22	-0.750			
0.3204	20506.91	3.7620	3.7620	-0.8778	25.27	0.23	-0.750			
0.3231	20676.75	3.7590	3.7592	-0.8747	25.27	0.23	-0.750			
0.3257	20843.07	3.7560	3.7559	-0.8738	25.27	0.23	-0.750			
0.3283	21009.95	3.7530	3.7530	-0.8733	25.27	0.23	-0.750			
0.3309	21175.44	3.7500	3.7500	-0.8738	25.28	0.24	-0.750			
0.3335	21343.93	3.7470	3.7470	-0.8858	25.28	0.24	-0.750			
0.3362	21514.43	3.7440	3.7440	-0.8939	25.28	0.24	-0.750			
0.3388	21686.20	3.7410	3.7410	-0.9126	25.28	0.24	-0.750			
0.3417	21866.81	3.7380	3.7380	-0.9133	25.29	0.25	-0.750			
0.3444	22043.88	3.7350	3.7349	-0.9171	25.29	0.25	-0.750			
0.3472	22221.76	3.7320	3.7324	-0.9206	25.29	0.25	-0.750			
0.3500	22397.05	3.7290	3.7289	-0.9211	25.29	0.25	-0.750			
0.3527	22571.93	3.7260	3.7258	-0.9218	25.29	0.25	-0.750			
0.3554	22745.71	3.7230	3.7231	-0.9245	25.29	0.25	-0.750			
0.3582	22925.95	3.7200	3.7199	-0.9401	25.29	0.25	-0.750			
0.3610	23107.03	3.7170	3.7172	-0.9550	25.29	0.25	-0.750			
0.3639	23289.00	3.7140	3.7140	-0.9742	25.29	0.25	-0.750			
0.3669	23479.11	3.7110	3.7109	-0.9943	25.28	0.24	-0.750			
0.3699	23673.97	3.7080	3.7079	-1.0063	25.28	0.24	-0.750			
0.3730	23869.62	3.7050	3.7050	-1.0231	25.28	0.24	-0.750	0.423	0.505	
0.3761	24072.18	3.7020	3.7019	-1.0457	25.28	0.24	-0.750			
0.3793	24275.12	3.6990	3.6988	-1.0550	25.28	0.24	-0.750			
0.3824	24474.02	3.6960	3.6959	-1.0637	25.28	0.24	-0.750			
0.3856	24675.54	3.6930	3.6934	-1.0872	25.28	0.24	-0.750			
0.3889	24892.27	3.6900	3.6898	-1.1177	25.28	0.24	-0.750			
0.3923	25109.21	3.6870	3.6869	-1.1365	25.27	0.23	-0.750			
0.3957	25322.02	3.6840	3.6840	-1.1692	25.27	0.23	-0.750			
0.3994	25559.52	3.6810	3.6809	-1.2197	25.27	0.23	-0.750			
0.4031	25796.66	3.6780	3.6777	-1.2397	25.26	0.22	-0.750			
0.4068	26035.95	3.6750	3.6751	-1.2634	25.26	0.22	-0.750			
0.4106	26278.80	3.6720	3.6723	-1.2974	25.25	0.21	-0.750			
0.4147	26540.41	3.6690	3.6689	-1.3229	25.24	0.20	-0.750			
0.4187	26798.73	3.6660	3.6658	-1.3311	25.24	0.20	-0.750			
0.4227	27051.83	3.6630	3.6636	-1.3680	25.23	0.19	-0.750			
0.4269	27320.29	3.6600	3.6598	-1.3919	25.22	0.18	-0.750			
0.4310	27587.03	3.6570	3.6568	-1.4310	25.21	0.17	-0.750			
0.4353	27862.27	3.6540	3.6546	-1.4513	25.20	0.16	-0.750			
0.4399	28150.97	3.6510	3.6508	-1.4967	25.19	0.15	-0.750			
0.4444	28441.74	3.6480	3.6481	-1.5338	25.19	0.15	-0.750			
0.4490	28738.68	3.6450	3.6448	-1.5593	25.18	0.14	-0.750			
0.4538	29041.68	3.6420	3.6420	-1.6083	25.18	0.14	-0.750			
0.4586	29352.09	3.6390	3.6393	-1.6501	25.17	0.13	-0.750			
0.4636	29671.53	3.6360	3.6359	-1.6597	25.16	0.12	-0.750			
0.4687	29997.59	3.6330	3.6328	-1.7214	25.15	0.11	-0.750			
0.4739	30332.13	3.6300	3.6300	-1.7380	25.14	0.10	-0.750			
0.4792	30668.44	3.6270	3.6270	-1.7686	25.12	0.08	-0.750			
0.4847	31019.18	3.6240	3.6239	-1.7993	25.11	0.07	-0.750			
0.4900	31362.87	3.6210	3.6208	-1.8381	25.10	0.06	-0.750			
0.4957	31723.59	3.6180	3.6182	-1.8715	25.08	0.04	-0.750			
0.5014	32088.97	3.6150	3.6149	-1.8791	25.07	0.03	-0.750			
0.5070	32445.58	3.6120	3.6120	-1.9150	25.06	0.02	-0.750			
0.5127	32810.29	3.6090	3.6088	-1.9784	25.06	0.02	-0.750			
0.5189	33211.29	3.6060	3.6055	-2.0076	25.05	0.01	-0.750			
0.5249	33596.71	3.6030	3.6026	-2.0366	25.04	-0.00	-0.750			
0.5311	33991.06	3.6000	3.6005	-2.0905	25.03	-0.01	-0.750			
0.5373	34388.39	3.5970	3.5966	-2.1387	25.02	-0.02	-0.750			
0.5437	34798.78	3.5940	3.5936	-2.1721	25.01	-0.03	-0.750			
0.5503	35217.07	3.5910	3.5907	-2.1918	25.00	-0.04	-0.750			
0.5571	35655.37	3.5880	3.5882	-2.2740	24.98	-0.06	-0.750			
0.5640	36098.62	3.5850	3.5850	-2.2760	24.97	-0.07	-0.750			
0.5708	36529.12	3.5820	3.5824	-2.2871	24.96	-0.08	-0.750			
0.5778	36979.35	3.5790	3.5793	-2.3194	24.95	-0.09	-0.750			
0.5846	37416.38	3.5760	3.5761	-2.3768	24.94	-0.10	-0.750			
0.5917	37866.38	3.5730	3.5733	-2.3766	24.94	-0.10	-0.750			
0.5992	38346.18	3.5700	3.5700	-2.4096	24.94	-0.10	-0.750			
0.6063	38805.05	3.5670	3.5667	-2.3816	24.94	-0.10	-0.750			
0.6133	39250.48	3.5640	3.5637	-2.3946	24.93	-0.11	-0.750			
0.6205	39710.04	3.5610	3.5609	-2.3048	24.92	-0.12	-0.750			
0.6272	40143.64	3.5580	3.5582	-2.2895	24.92	-0.12	-0.750			
0.6342	40587.41	3.5550	3.5544	-2.2844	24.92	-0.12	-0.750			
0.6409	41017.67	3.5520	3.5515	-2.2877	24.92	-0.12	-0.750			
0.6477	41450.42	3.5490	3.5495	-2.2729	24.92	-0.12	-0.750			
0.6547	41901.94	3.5460	3.5458	-2.2683	24.93	-0.11	-0.750			
0.6614	42331.36	3.5430	3.5429	-2.2377	24.93	-0.11	-0.750			
0.6682	42764.71	3.5400	3.5396	-2.1907	24.93	-0.11	-0.750			
0.6745	43169.30	3.5370	3.5374	-2.1508	24.93	-0.11	-0.750			
0.6809	43576.26	3.5340	3.5343	-2.1202	24.94	-0.10	-0.750			
0.6873	43990.19	3.5310	3.5305	-2.0999	24.94	-0.10	-0.750			
0.6936	44390.51	3.5280	3.5276	-2.0254	24.95	-0.09	-0.750			
0.6998	44788.43	3.5250	3.5249	-1.9825	24.97	-0.07	-0.750			
0.7057	45164.22	3.5220	3.5218	-1.9277	24.98	-0.06	-0.750			
0.7113	45520.37	3.5190	3.5188	-1.8110	24.99	-0.05	-0.750			
0.7165	45858.80	3.5160	3.5161	-1.7351	25.01	-0.03	-0.750			
0.7217	46187.50	3.5130	3.5134	-1.6809	25.02	-0.02	-0.750			
0.7267	46506.84	3.5100	3.5096	-1.6221	25.03	-0.01	-0.750			
0.7315	46817.27	3.5070	3.5072	-1.5679	25.05	0.01	-0.750			
0.7360	47106.82	3.5040	3.5042	-1.5006	25.06	0.02	-0.750			
0.7404	47386.91	3.5010	3.5010	-1.4603	25.08	0.04	-0.750			
0.7447	47659.38	3.4980	3.4980	-1.3337	25.09	0.05	-0.750			
