Ah_balance (normalized)	Ah_balance (mAh)	Voltage - fit (V)	Voltage -  interpolate (V)	dQ/dV (1/V)	Temperature (°C)	Temperature - diff (°C)	Current (C)	R_DC 0ms (mOhm)	R_DC 50ms (mOhm)	R_DC 50 ms PEC (mOhm)
0.0005	29.87	4.1610	4.1608	-0.1375	24.94	0.00	-0.750			
0.0010	60.88	4.1580	4.1580	-0.1794	24.94	-0.00	-0.750			
0.0015	98.77	4.1550	4.1550	-0.2190	24.94	-0.00	-0.750			
0.0023	144.78	4.1520	4.1520	-0.2589	24.94	-0.00	-0.750			
0.0031	198.18	4.1490	4.1490	-0.2989	24.93	-0.01	-0.750			
0.0041	259.24	4.1460	4.1459	-0.3397	24.93	-0.01	-0.750			
0.0051	328.61	4.1430	4.1431	-0.3794	24.93	-0.01	-0.750			
0.0063	405.89	4.1400	4.1399	-0.4152	24.92	-0.02	-0.750			
0.0077	492.13	4.1370	4.1370	-0.4452	24.92	-0.02	-0.750			
0.0091	583.66	4.1340	4.1340	-0.4576	24.91	-0.03	-0.750			
0.0106	675.66	4.1310	4.1310	-0.4709	24.91	-0.03	-0.750			
0.0120	765.63	4.1280	4.1283	-0.4828	24.90	-0.04	-0.750			
0.0134	855.00	4.1250	4.1253	-0.4995	24.90	-0.04	-0.750			
0.0148	950.20	4.1220	4.1217	-0.5224	24.90	-0.04	-0.750			
0.0164	1049.00	4.1190	4.1190	-0.5525	24.89	-0.05	-0.750			
0.0181	1159.13	4.1160	4.1161	-0.5827	24.89	-0.05	-0.750			
0.0200	1281.92	4.1130	4.1129	-0.6253	24.88	-0.06	-0.750			
0.0220	1406.32	4.1100	4.1100	-0.6375	24.87	-0.07	-0.750			
0.0239	1531.11	4.1070	4.1069	-0.6479	24.87	-0.07	-0.750			
0.0259	1657.03	4.1040	4.1046	-0.6535	24.86	-0.08	-0.750			
0.0279	1783.38	4.1010	4.1009	-0.6549	24.86	-0.08	-0.750			
0.0298	1906.21	4.0980	4.0980	-0.6591	24.86	-0.08	-0.750			
0.0318	2032.74	4.0950	4.0950	-0.6687	24.86	-0.08	-0.750			
0.0338	2161.91	4.0920	4.0920	-0.6845	24.86	-0.08	-0.750			
0.0359	2295.64	4.0890	4.0889	-0.6867	24.86	-0.08	-0.750			
0.0380	2428.86	4.0860	4.0861	-0.6945	24.86	-0.08	-0.750			
0.0401	2563.60	4.0830	4.0830	-0.7000	24.86	-0.08	-0.750			
0.0422	2698.21	4.0800	4.0801	-0.7103	24.85	-0.09	-0.750			
0.0443	2834.21	4.0770	4.0767	-0.7250	24.85	-0.09	-0.750			
0.0465	2976.20	4.0740	4.0738	-0.7254	24.85	-0.09	-0.750			
0.0487	3117.61	4.0710	4.0710	-0.7293	24.84	-0.10	-0.750			
0.0509	3259.20	4.0680	4.0687	-0.7320	24.84	-0.10	-0.750			
0.0531	3401.13	4.0650	4.0648	-0.7311	24.84	-0.10	-0.750			
0.0553	3536.22	4.0620	4.0620	-0.7339	24.84	-0.10	-0.750			
0.0574	3676.78	4.0590	4.0590	-0.7313	24.84	-0.10	-0.750			
0.0597	3818.95	4.0560	4.0560	-0.7419	24.84	-0.10	-0.750			
0.0619	3962.47	4.0530	4.0527	-0.7436	24.84	-0.10	-0.750			
0.0642	4106.85	4.0500	4.0501	-0.7402	24.84	-0.10	-0.750			
0.0664	4248.12	4.0470	4.0469	-0.7398	24.84	-0.10	-0.750			
0.0686	4388.58	4.0440	4.0440	-0.7424	24.84	-0.10	-0.750			
0.0707	4526.85	4.0410	4.0411	-0.7409	24.84	-0.10	-0.750			
0.0730	4674.03	4.0380	4.0379	-0.7568	24.84	-0.10	-0.750			
0.0753	4819.98	4.0350	4.0350	-0.7586	24.84	-0.10	-0.750			
0.0776	4968.30	4.0320	4.0319	-0.7587	24.84	-0.10	-0.750			
0.0799	5113.17	4.0290	4.0291	-0.7757	24.84	-0.10	-0.750			
0.0822	5262.95	4.0260	4.0260	-0.7624	24.84	-0.10	-0.750			
0.0845	5408.62	4.0230	4.0229	-0.7550	24.84	-0.10	-0.750			
0.0868	5553.65	4.0200	4.0198	-0.7549	24.84	-0.10	-0.750			
0.0890	5698.48	4.0170	4.0171	-0.7553	24.84	-0.10	-0.750			
0.0913	5843.09	4.0140	4.0139	-0.7594	24.84	-0.10	-0.750			
0.0936	5988.38	4.0110	4.0109	-0.7663	24.85	-0.09	-0.750			
0.0959	6136.13	4.0080	4.0080	-0.7769	24.85	-0.09	-0.750			
0.0982	6286.19	4.0050	4.0050	-0.7728	24.86	-0.08	-0.750			
0.1006	6435.63	4.0020	4.0021	-0.7736	24.86	-0.08	-0.750			
0.1028	6582.32	3.9990	3.9990	-0.7747	24.86	-0.08	-0.750			
0.1052	6730.08	3.9960	3.9959	-0.7739	24.86	-0.08	-0.750			
0.1075	6878.02	3.9930	3.9930	-0.7720	24.86	-0.08	-0.750			
0.1098	7024.31	3.9900	3.9900	-0.7760	24.86	-0.08	-0.750			
0.1122	7177.61	3.9870	3.9871	-0.7789	24.86	-0.08	-0.750			
0.1145	7326.67	3.9840	3.9839	-0.7828	24.86	-0.08	-0.750			
0.1168	7472.66	3.9810	3.9811	-0.7973	24.87	-0.07	-0.750			
0.1192	7629.74	3.9780	3.9778	-0.7971	24.87	-0.07	-0.750			
0.1217	7786.10	3.9750	3.9748	-0.7988	24.87	-0.07	-0.750			
0.1241	7940.47	3.9720	3.9719	-0.7978	24.88	-0.06	-0.750			
0.1265	8092.96	3.9690	3.9692	-0.7978	24.88	-0.06	-0.750			
0.1288	8244.14	3.9660	3.9659	-0.8081	24.88	-0.06	-0.750			
0.1312	8394.99	3.9630	3.9629	-0.7937	24.88	-0.06	-0.750			
0.1336	8549.79	3.9600	3.9599	-0.7781	24.88	-0.06	-0.750			
0.1360	8704.90	3.9570	3.9569	-0.7822	24.88	-0.06	-0.750			
0.1383	8853.87	3.9540	3.9546	-0.7764	24.88	-0.06	-0.750			
0.1406	8999.59	3.9510	3.9509	-0.7661	24.88	-0.06	-0.750			
0.1428	9139.97	3.9480	3.9479	-0.7669	24.89	-0.05	-0.750			
0.1451	9287.49	3.9450	3.9448	-0.7761	24.89	-0.05	-0.750			
0.1475	9439.07	3.9420	3.9421	-0.7881	24.89	-0.05	-0.750			
0.1499	9593.65	3.9390	3.9391	-0.7991	24.90	-0.04	-0.750			
0.1523	9749.30	3.9360	3.9360	-0.8052	24.90	-0.04	-0.750			
0.1548	9904.68	3.9330	3.9329	-0.8218	24.90	-0.04	-0.750			
0.1572	10063.31	3.9300	3.9298	-0.8200	24.91	-0.03	-0.750			
0.1597	10221.42	3.9270	3.9268	-0.8189	24.91	-0.03	-0.750			
0.1622	10382.72	3.9240	3.9239	-0.8243	24.91	-0.03	-0.750			
0.1647	10539.82	3.9210	3.9207	-0.8191	24.91	-0.03	-0.750			
0.1671	10695.38	3.9180	3.9179	-0.8206	24.91	-0.03	-0.750			
0.1695	10849.04	3.9150	3.9150	-0.8143	24.91	-0.03	-0.750			
0.1719	11001.83	3.9120	3.9120	-0.8122	24.92	-0.02	-0.750			
0.1745	11165.86	3.9090	3.9089	-0.8236	24.92	-0.02	-0.750			
0.1769	11323.13	3.9060	3.9061	-0.8199	24.92	-0.02	-0.750			
0.1794	11480.52	3.9030	3.9030	-0.8251	24.93	-0.01	-0.750			
0.1819	11639.53	3.9000	3.8999	-0.8206	24.93	-0.01	-0.750			
0.1843	11795.05	3.8970	3.8970	-0.8155	24.93	-0.01	-0.750			
0.1868	11953.07	3.8940	3.8940	-0.8229	24.94	-0.00	-0.750			
0.1892	12111.43	3.8910	3.8910	-0.8231	24.94	0.00	-0.750			
0.1917	12267.41	3.8880	3.8879	-0.8352	24.94	0.00	-0.750			
0.1942	12430.87	3.8850	3.8850	-0.8284	24.94	0.00	-0.750			
0.1967	12591.26	3.8820	3.8819	-0.8236	24.94	0.00	-0.750			
0.1992	12749.92	3.8790	3.8789	-0.8232	24.94	0.00	-0.750			
0.2017	12906.13	3.8760	3.8760	-0.8186	24.94	0.00	-0.750			
0.2041	13059.47	3.8730	3.8729	-0.8206	24.95	0.01	-0.750			
0.2065	13217.86	3.8700	3.8699	-0.8121	24.95	0.01	-0.750			
0.2089	13370.95	3.8670	3.8671	-0.8074	24.95	0.01	-0.750			
0.2115	13533.74	3.8640	3.8638	-0.8148	24.96	0.02	-0.750			
0.2139	13690.06	3.8610	3.8612	-0.8090	24.96	0.02	-0.750			
0.2163	13843.50	3.8580	3.8579	-0.8000	24.96	0.02	-0.750			
0.2186	13993.16	3.8550	3.8550	-0.7964	24.97	0.03	-0.750			
0.2210	14143.32	3.8520	3.8521	-0.7924	24.97	0.03	-0.750			
0.2235	14301.21	3.8490	3.8490	-0.7979	24.98	0.04	-0.750			
0.2258	14453.94	3.8460	3.8460	-0.7896	24.98	0.04	-0.750			
0.2282	14606.46	3.8430	3.8431	-0.7887	24.98	0.04	-0.750			
0.2306	14755.65	3.8400	3.8399	-0.7975	24.99	0.05	-0.750			
0.2330	14911.47	3.8370	3.8368	-0.7885	24.99	0.05	-0.750			
0.2354	15062.81	3.8340	3.8338	-0.7812	25.00	0.06	-0.750			
0.2377	15212.92	3.8310	3.8314	-0.7810	25.00	0.06	-0.750			
0.2401	15363.29	3.8280	3.8279	-0.7757	25.00	0.06	-0.750			
0.2424	15511.04	3.8250	3.8248	-0.7667	25.00	0.06	-0.750			
0.2447	15657.87	3.8220	3.8219	-0.7621	25.00	0.06	-0.750			
0.2469	15804.65	3.8190	3.8190	-0.7663	25.00	0.06	-0.750			
0.2492	15950.58	3.8160	3.8159	-0.7636	25.00	0.06	-0.750			
0.2515	16095.17	3.8130	3.8133	-0.7600	25.00	0.06	-0.750			
0.2537	16239.51	3.8100	3.8097	-0.7577	25.00	0.06	-0.750			
0.2560	16384.94	3.8070	3.8069	-0.7628	25.00	0.06	-0.750			
0.2583	16529.52	3.8040	3.8041	-0.7594	25.00	0.06	-0.750			
0.2607	16681.90	3.8010	3.8010	-0.7671	25.00	0.06	-0.750			
0.2630	16829.37	3.7980	3.7980	-0.7632	25.00	0.06	-0.750			
0.2652	16974.61	3.7950	3.7950	-0.7606	25.00	0.06	-0.750			
0.2674	17115.54	3.7920	3.7921	-0.7649	25.01	0.07	-0.750			
0.2698	17264.92	3.7890	3.7889	-0.7655	25.01	0.07	-0.750			
0.2721	17411.23	3.7860	3.7859	-0.7680	25.01	0.07	-0.750			
0.2744	17560.65	3.7830	3.7830	-0.7771	25.02	0.08	-0.750			
0.2767	17711.08	3.7800	3.7799	-0.7770	25.02	0.08	-0.750			
0.2790	17858.85	3.7770	3.7769	-0.7844	25.02	0.08	-0.750			
0.2814	18010.90	3.7740	3.7739	-0.7840	25.02	0.08	-0.750			
0.2837	18158.41	3.7710	3.7711	-0.7868	25.02	0.08	-0.750			
0.2862	18314.23	3.7680	3.7678	-0.7972	25.02	0.08	-0.750			
0.2885	18467.09	3.7650	3.7656	-0.7993	25.02	0.08	-0.750			
0.2909	18620.28	3.7620	3.7621	-0.8064	25.02	0.08	-0.750			
0.2934	18775.54	3.7590	3.7590	-0.8170	25.02	0.08	-0.750			
0.2958	18932.46	3.7560	3.7558	-0.8189	25.02	0.08	-0.750			
0.2983	19091.41	3.7530	3.7530	-0.8306	25.02	0.08	-0.750			
0.3008	19249.25	3.7500	3.7502	-0.8386	25.02	0.08	-0.750			
0.3033	19410.87	3.7470	3.7470	-0.8604	25.02	0.08	-0.750			
0.3059	19579.70	3.7440	3.7440	-0.8627	25.02	0.08	-0.750			
0.3085	19744.46	3.7410	3.7409	-0.8695	25.02	0.08	-0.750			
0.3112	19913.90	3.7380	3.7379	-0.8736	25.02	0.08	-0.750			
0.3138	20083.92	3.7350	3.7355	-0.8851	25.02	0.08	-0.750			
0.3165	20252.90	3.7320	3.7319	-0.8970	25.02	0.08	-0.750			
0.3191	20424.82	3.7290	3.7289	-0.9033	25.02	0.08	-0.750			
0.3219	20599.04	3.7260	3.7259	-0.9059	25.02	0.08	-0.750			
0.3246	20777.41	3.7230	3.7230	-0.9262	25.02	0.08	-0.750			
0.3274	20954.26	3.7200	3.7199	-0.9368	25.02	0.08	-0.750			
0.3302	21135.71	3.7170	3.7169	-0.9495	25.01	0.07	-0.750			
0.3331	21315.96	3.7140	3.7140	-0.9520	25.01	0.07	-0.750			
0.3359	21498.25	3.7110	3.7110	-0.9658	25.00	0.06	-0.750			
0.3388	21683.94	3.7080	3.7083	-1.0052	25.00	0.06	-0.750			
0.3420	21886.27	3.7050	3.7047	-1.0085	24.99	0.05	-0.750			
0.3450	22081.65	3.7020	3.7019	-1.0163	24.99	0.05	-0.750			
0.3481	22277.98	3.6990	3.6988	-1.0208	24.98	0.04	-0.750			
0.3512	22475.28	3.6960	3.6963	-1.0297	24.98	0.04	-0.750	0.400	0.562	
0.3543	22675.60	3.6930	3.6928	-1.0478	24.98	0.04	-0.750			
0.3574	22873.32	3.6900	3.6899	-1.0509	24.97	0.03	-0.750			
0.3605	23075.01	3.6870	3.6868	-1.0771	24.97	0.03	-0.750			
0.3638	23283.38	3.6840	3.6844	-1.1052	24.97	0.03	-0.750			
0.3671	23494.64	3.6810	3.6808	-1.1097	24.96	0.02	-0.750			
0.3705	23709.03	3.6780	3.6779	-1.1275	24.95	0.01	-0.750			
0.3737	23916.19	3.6750	3.6751	-1.1536	24.95	0.01	-0.750			
0.3774	24153.82	3.6720	3.6719	-1.1825	24.94	-0.00	-0.750			
0.3810	24384.30	3.6690	3.6688	-1.1943	24.94	-0.00	-0.750			
0.3846	24614.40	3.6660	3.6659	-1.2055	24.93	-0.01	-0.750			
0.3882	24844.91	3.6630	3.6637	-1.2249	24.93	-0.01	-0.750			
0.3920	25086.12	3.6600	3.6599	-1.2494	24.92	-0.02	-0.750			
0.3957	25326.69	3.6570	3.6568	-1.2508	24.92	-0.02	-0.750			
0.3994	25564.63	3.6540	3.6540	-1.2689	24.91	-0.03	-0.750			
0.4033	25812.93	3.6510	3.6509	-1.3098	24.90	-0.04	-0.750			
0.4072	26061.66	3.6480	3.6478	-1.3231	24.89	-0.05	-0.750			
0.4112	26315.02	3.6450	3.6449	-1.3606	24.89	-0.05	-0.750			
0.4154	26582.61	3.6420	3.6420	-1.3781	24.88	-0.06	-0.750			
0.4197	26861.98	3.6390	3.6389	-1.4029	24.87	-0.07	-0.750			
0.4239	27131.57	3.6360	3.6358	-1.4368	24.86	-0.08	-0.750			
0.4282	27406.20	3.6330	3.6327	-1.4405	24.86	-0.08	-0.750			
0.4326	27686.86	3.6300	3.6297	-1.4970	24.85	-0.09	-0.750			
0.4371	27976.62	3.6270	3.6271	-1.5126	24.84	-0.10	-0.750			
0.4418	28277.64	3.6240	3.6237	-1.5657	24.83	-0.11	-0.750			
0.4467	28585.65	3.6210	3.6221	-1.6136	24.83	-0.11	-0.750			
0.4515	28896.91	3.6180	3.6180	-1.6322	24.82	-0.12	-0.750			
0.4564	29207.02	3.6150	3.6152	-1.6553	24.82	-0.12	-0.750			
0.4614	29529.45	3.6120	3.6119	-1.6614	24.82	-0.12	-0.750			
0.4667	29866.03	3.6090	3.6091	-1.7330	24.81	-0.13	-0.750			
0.4718	30195.77	3.6060	3.6064	-1.7678	24.81	-0.13	-0.750			
0.4771	30536.32	3.6030	3.6028	-1.7780	24.80	-0.14	-0.750			
0.4824	30872.38	3.6000	3.5998	-1.8471	24.79	-0.15	-0.750			
0.4880	31233.51	3.5970	3.5967	-1.8226	24.78	-0.16	-0.750			
0.4935	31584.97	3.5940	3.5936	-1.8634	24.78	-0.16	-0.750			
0.4991	31941.63	3.5910	3.5906	-1.9051	24.77	-0.17	-0.750			
0.5048	32306.76	3.5880	3.5880	-1.8965	24.77	-0.17	-0.750			
0.5106	32676.36	3.5850	3.5851	-1.9769	24.76	-0.18	-0.750			
0.5165	33053.19	3.5820	3.5817	-2.0212	24.76	-0.18	-0.750			
0.5228	33460.37	3.5790	3.5786	-2.0271	24.76	-0.18	-0.750			
0.5288	33844.17	3.5760	3.5767	-2.0404	24.76	-0.18	-0.750			
0.5352	34251.22	3.5730	3.5723	-2.0382	24.75	-0.19	-0.750			
0.5413	34643.66	3.5700	3.5699	-2.0439	24.74	-0.20	-0.750			
0.5471	35014.08	3.5670	3.5674	-2.0646	24.74	-0.20	-0.750			
0.5536	35427.62	3.5640	3.5635	-2.0951	24.74	-0.20	-0.750			
0.5600	35839.98	3.5610	3.5607	-2.0856	24.74	-0.20	-0.750			
0.5662	36238.97	3.5580	3.5586	-2.0988	24.74	-0.20	-0.750			
0.5728	36657.99	3.5550	3.5547	-2.0783	24.73	-0.21	-0.750			
0.5787	37038.35	3.5520	3.5520	-2.0512	24.73	-0.21	-0.750			
0.5851	37444.10	3.5490	3.5496	-2.0172	24.74	-0.20	-0.750			
0.5912	37835.93	3.5460	3.5457	-2.0132	24.74	-0.20	-0.750			
0.5972	38219.37	3.5430	3.5432	-2.0099	24.74	-0.20	-0.750			
0.6033	38613.24	3.5400	3.5396	-1.9895	24.74	-0.20	-0.750			
0.6095	39009.26	3.5370	3.5366	-1.9522	24.75	-0.19	-0.750			
0.6153	39381.62	3.5340	3.5335	-1.9220	24.75	-0.19	-0.750			
0.6211	39751.41	3.5310	3.5308	-1.8884	24.76	-0.18	-0.750			
0.6265	40095.62	3.5280	3.5281	-1.8313	24.77	-0.17	-0.750			
0.6321	40451.89	3.5250	3.5251	-1.8563	24.78	-0.16	-0.750			
0.6375	40803.07	3.5220	3.5218	-1.8113	24.80	-0.14	-0.750			
0.6432	41166.47	3.5190	3.5185	-1.8047	24.81	-0.13	-0.750			
0.6484	41499.18	3.5160	3.5158	-1.6969	24.82	-0.12	-0.750			
0.6535	41822.14	3.5130	3.5128	-1.6489	24.83	-0.11	-0.750			
0.6583	42131.38	3.5100	3.5097	-1.5824	24.84	-0.10	-0.750			
0.6630	42431.38	3.5070	3.5070	-1.5250	24.86	-0.08	-0.750			
0.6675	42722.33	3.5040	3.5044	-1.4789	24.87	-0.07	-0.750			
0.6719	43002.01	3.5010	3.5008	-1.4344	24.87	-0.07	-0.750			
0.6762	43276.30	3.4980	3.4981	-1.4073	24.88	-0.06	-0.750			
0.6805	43552.14	3.4950	3.4948	-1.3804	24.90	-0.04	-0.750			
0.6846	43817.57	3.4920	3.4918	-1.3427	24.92	-0.02	-0.750			
0.6886	44069.78	3.4890	3.4898	-1.2770	24.93	-0.01	-0.750			
0.6924	44313.01	3.4860	3.4858	-1.1871	24.95	0.01	-0.750			
0.6958	44530.20	3.4830	3.4830	-1.0564	24.96	0.02	-0.750			
