Ah_balance (normalized)	Ah_balance (mAh)	Voltage - fit (V)	Voltage -  interpolate (V)	dQ/dV (1/V)	Temperature (°C)	Temperature - diff (°C)	Current (C)	R_DC 0ms (mOhm)	R_DC 50ms (mOhm)	R_DC 50 ms PEC (mOhm)
0.0002	12.13	4.1650	4.1652	-0.1029	25.03	0.01	-0.750			
0.0006	36.90	4.1620	4.1620	-0.1536	25.03	0.01	-0.750			
0.0011	72.06	4.1590	4.1591	-0.2025	25.03	0.01	-0.750			
0.0018	115.82	4.1560	4.1559	-0.2470	25.03	0.01	-0.750			
0.0026	167.56	4.1530	4.1530	-0.2907	25.03	0.01	-0.750			
0.0036	227.96	4.1500	4.1501	-0.3290	25.03	0.01	-0.750			
0.0046	296.41	4.1470	4.1470	-0.3726	25.03	0.01	-0.750			
0.0058	372.47	4.1440	4.1440	-0.4104	25.03	0.01	-0.750			
0.0071	455.74	4.1410	4.1409	-0.4461	25.02	0.00	-0.750			
0.0085	545.79	4.1380	4.1380	-0.4809	25.02	0.00	-0.750			
0.0100	642.21	4.1350	4.1349	-0.5084	25.02	-0.00	-0.750			
0.0116	743.42	4.1320	4.1320	-0.5365	25.02	-0.00	-0.750			
0.0133	849.85	4.1290	4.1289	-0.5589	25.01	-0.01	-0.750			
0.0150	957.63	4.1260	4.1261	-0.5795	25.01	-0.01	-0.750			
0.0168	1075.10	4.1230	4.1229	-0.5951	25.01	-0.01	-0.750			
0.0186	1189.96	4.1200	4.1200	-0.6098	25.00	-0.02	-0.750			
0.0204	1307.83	4.1170	4.1170	-0.6289	25.00	-0.02	-0.750			
0.0223	1430.07	4.1140	4.1140	-0.6466	25.00	-0.02	-0.750			
0.0243	1555.54	4.1110	4.1108	-0.6599	25.00	-0.02	-0.750			
0.0263	1684.19	4.1080	4.1081	-0.6780	24.99	-0.03	-0.750			
0.0284	1817.30	4.1050	4.1051	-0.6889	24.99	-0.03	-0.750			
0.0305	1954.16	4.1020	4.1019	-0.6982	24.99	-0.03	-0.750			
0.0326	2087.78	4.0990	4.0990	-0.7018	24.98	-0.04	-0.750			
0.0347	2222.30	4.0960	4.0962	-0.7072	24.98	-0.04	-0.750			
0.0369	2358.92	4.0930	4.0931	-0.7120	24.98	-0.04	-0.750			
0.0390	2494.96	4.0900	4.0900	-0.7229	24.98	-0.04	-0.750			
0.0412	2635.35	4.0870	4.0870	-0.7232	24.98	-0.04	-0.750			
0.0434	2776.53	4.0840	4.0840	-0.7258	24.98	-0.04	-0.750			
0.0456	2916.17	4.0810	4.0809	-0.7334	24.98	-0.04	-0.750			
0.0477	3055.35	4.0780	4.0780	-0.7348	24.98	-0.04	-0.750			
0.0499	3196.28	4.0750	4.0749	-0.7398	24.98	-0.04	-0.750			
0.0522	3340.06	4.0720	4.0720	-0.7464	24.98	-0.04	-0.750			
0.0544	3483.92	4.0690	4.0690	-0.7465	24.98	-0.04	-0.750			
0.0567	3630.23	4.0660	4.0660	-0.7548	24.98	-0.04	-0.750			
0.0590	3775.83	4.0630	4.0632	-0.7562	24.98	-0.04	-0.750			
0.0612	3919.86	4.0600	4.0599	-0.7528	24.98	-0.04	-0.750			
0.0635	4063.28	4.0570	4.0570	-0.7535	24.99	-0.03	-0.750			
0.0658	4208.65	4.0540	4.0540	-0.7555	24.99	-0.03	-0.750			
0.0681	4355.44	4.0510	4.0510	-0.7620	24.99	-0.03	-0.750			
0.0703	4501.81	4.0480	4.0480	-0.7559	25.00	-0.02	-0.750			
0.0726	4645.77	4.0450	4.0449	-0.7565	25.00	-0.02	-0.750			
0.0748	4790.05	4.0420	4.0421	-0.7618	25.00	-0.02	-0.750			
0.0771	4936.12	4.0390	4.0390	-0.7672	25.00	-0.02	-0.750			
0.0794	5083.02	4.0360	4.0359	-0.7686	25.00	-0.02	-0.750			
0.0818	5233.29	4.0330	4.0330	-0.7783	25.00	-0.02	-0.750			
0.0841	5383.89	4.0300	4.0302	-0.7785	25.00	-0.02	-0.750			
0.0865	5534.58	4.0270	4.0270	-0.7796	25.00	-0.02	-0.750			
0.0888	5682.91	4.0240	4.0240	-0.7775	25.00	-0.02	-0.750			
0.0911	5832.60	4.0210	4.0210	-0.7763	25.01	-0.01	-0.750			
0.0935	5981.49	4.0180	4.0179	-0.7769	25.01	-0.01	-0.750			
0.0958	6130.47	4.0150	4.0150	-0.7790	25.01	-0.01	-0.750			
0.0981	6278.68	4.0120	4.0120	-0.7835	25.01	-0.01	-0.750			
0.1005	6429.63	4.0090	4.0090	-0.7917	25.01	-0.01	-0.750			
0.1029	6582.71	4.0060	4.0059	-0.7893	25.01	-0.01	-0.750			
0.1052	6734.28	4.0030	4.0030	-0.7920	25.02	-0.00	-0.750			
0.1077	6890.92	4.0000	4.0001	-0.7892	25.02	-0.00	-0.750			
0.1100	7041.85	3.9970	3.9970	-0.7785	25.02	0.00	-0.750			
0.1123	7188.46	3.9940	3.9941	-0.7738	25.03	0.01	-0.750			
0.1146	7335.09	3.9910	3.9911	-0.7694	25.03	0.01	-0.750			
0.1169	7480.00	3.9880	3.9879	-0.7698	25.03	0.01	-0.750			
0.1192	7628.51	3.9850	3.9849	-0.7798	25.04	0.02	-0.750			
0.1215	7777.46	3.9820	3.9823	-0.7836	25.04	0.02	-0.750			
0.1239	7930.36	3.9790	3.9789	-0.7970	25.04	0.02	-0.750			
0.1264	8086.51	3.9760	3.9760	-0.8060	25.05	0.03	-0.750			
0.1288	8241.50	3.9730	3.9730	-0.8108	25.05	0.03	-0.750			
0.1312	8398.54	3.9700	3.9699	-0.8142	25.06	0.04	-0.750			
0.1337	8555.03	3.9670	3.9672	-0.8154	25.06	0.04	-0.750			
0.1361	8711.81	3.9640	3.9639	-0.8123	25.06	0.04	-0.750			
0.1386	8867.93	3.9610	3.9609	-0.8181	25.07	0.05	-0.750			
0.1410	9024.17	3.9580	3.9580	-0.8146	25.07	0.05	-0.750			
0.1434	9179.67	3.9550	3.9549	-0.8196	25.07	0.05	-0.750			
0.1459	9339.04	3.9520	3.9522	-0.8228	25.08	0.06	-0.750			
0.1484	9498.96	3.9490	3.9488	-0.8217	25.08	0.06	-0.750			
0.1509	9655.26	3.9460	3.9459	-0.8309	25.09	0.07	-0.750			
0.1534	9816.64	3.9430	3.9431	-0.8312	25.09	0.07	-0.750			
0.1559	9974.78	3.9400	3.9400	-0.8301	25.09	0.07	-0.750			
0.1584	10138.38	3.9370	3.9371	-0.8372	25.10	0.08	-0.750			
0.1609	10298.59	3.9340	3.9339	-0.8317	25.10	0.08	-0.750			
0.1634	10457.98	3.9310	3.9311	-0.8330	25.10	0.08	-0.750			
0.1659	10617.27	3.9280	3.9280	-0.8291	25.11	0.09	-0.750			
0.1683	10772.67	3.9250	3.9250	-0.8235	25.11	0.09	-0.750			
0.1708	10933.64	3.9220	3.9220	-0.8299	25.11	0.09	-0.750			
0.1733	11091.33	3.9190	3.9191	-0.8290	25.11	0.09	-0.750			
0.1758	11251.88	3.9160	3.9160	-0.8419	25.11	0.09	-0.750			
0.1784	11414.76	3.9130	3.9127	-0.8508	25.12	0.10	-0.750			
0.1809	11580.66	3.9100	3.9099	-0.8466	25.12	0.10	-0.750			
0.1835	11743.66	3.9070	3.9069	-0.8467	25.12	0.10	-0.750			
0.1861	11907.69	3.9040	3.9039	-0.8500	25.12	0.10	-0.750			
0.1886	12071.72	3.9010	3.9008	-0.8588	25.13	0.11	-0.750			
0.1912	12234.27	3.8980	3.8979	-0.8555	25.13	0.11	-0.750			
0.1937	12397.12	3.8950	3.8949	-0.8537	25.14	0.12	-0.750			
0.1963	12565.17	3.8920	3.8925	-0.8619	25.14	0.12	-0.750			
0.1989	12732.56	3.8890	3.8889	-0.8634	25.15	0.13	-0.750			
0.2015	12896.89	3.8860	3.8860	-0.8620	25.15	0.13	-0.750			
0.2041	13061.71	3.8830	3.8829	-0.8598	25.16	0.14	-0.750			
0.2067	13228.87	3.8800	3.8800	-0.8656	25.16	0.14	-0.750			
0.2093	13393.54	3.8770	3.8772	-0.8599	25.17	0.15	-0.750			
0.2118	13556.75	3.8740	3.8740	-0.8652	25.17	0.15	-0.750			
0.2144	13723.75	3.8710	3.8709	-0.8600	25.18	0.16	-0.750			
0.2170	13887.96	3.8680	3.8679	-0.8581	25.18	0.16	-0.750			
0.2196	14053.71	3.8650	3.8650	-0.8616	25.19	0.17	-0.750			
0.2222	14218.62	3.8620	3.8623	-0.8617	25.19	0.17	-0.750			
0.2247	14383.05	3.8590	3.8589	-0.8701	25.19	0.17	-0.750			
0.2274	14551.71	3.8560	3.8560	-0.8691	25.19	0.17	-0.750			
0.2300	14719.19	3.8530	3.8529	-0.8587	25.20	0.18	-0.750			
0.2326	14886.93	3.8500	3.8499	-0.8633	25.20	0.18	-0.750			
0.2352	15051.19	3.8470	3.8472	-0.8612	25.20	0.18	-0.750			
0.2377	15214.95	3.8440	3.8438	-0.8569	25.20	0.18	-0.750			
0.2403	15377.64	3.8410	3.8411	-0.8504	25.20	0.18	-0.750			
0.2428	15538.09	3.8380	3.8380	-0.8464	25.21	0.19	-0.750			
0.2454	15705.65	3.8350	3.8348	-0.8482	25.21	0.19	-0.750			
0.2480	15870.03	3.8320	3.8319	-0.8519	25.21	0.19	-0.750			
0.2505	16030.80	3.8290	3.8291	-0.8532	25.21	0.19	-0.750			
0.2530	16195.10	3.8260	3.8259	-0.8526	25.22	0.20	-0.750			
0.2556	16360.05	3.8230	3.8229	-0.8491	25.22	0.20	-0.750			
0.2582	16525.16	3.8200	3.8199	-0.8490	25.22	0.20	-0.750			
0.2608	16688.39	3.8170	3.8169	-0.8429	25.22	0.20	-0.750			
0.2633	16849.96	3.8140	3.8138	-0.8442	25.22	0.20	-0.750			
0.2657	17007.37	3.8110	3.8111	-0.8349	25.23	0.21	-0.750			
0.2683	17168.99	3.8080	3.8079	-0.8190	25.23	0.21	-0.750			
0.2708	17330.17	3.8050	3.8051	-0.8228	25.23	0.21	-0.750			
0.2732	17486.36	3.8020	3.8020	-0.8179	25.23	0.21	-0.750			
0.2756	17640.68	3.7990	3.7989	-0.8143	25.24	0.22	-0.750			
0.2781	17797.15	3.7960	3.7958	-0.8086	25.24	0.22	-0.750			
0.2805	17949.30	3.7930	3.7930	-0.7996	25.24	0.22	-0.750			
0.2829	18106.92	3.7900	3.7900	-0.8024	25.25	0.23	-0.750			
0.2853	18262.36	3.7870	3.7871	-0.8004	25.25	0.23	-0.750			
0.2877	18409.79	3.7840	3.7839	-0.8040	25.25	0.23	-0.750			
0.2901	18566.96	3.7810	3.7810	-0.7997	25.25	0.23	-0.750			
0.2925	18719.94	3.7780	3.7778	-0.7957	25.26	0.24	-0.750			
0.2949	18874.25	3.7750	3.7749	-0.7931	25.26	0.24	-0.750			
0.2973	19027.58	3.7720	3.7720	-0.7935	25.26	0.24	-0.750			
0.2996	19175.77	3.7690	3.7690	-0.8026	25.26	0.24	-0.750			
0.3020	19328.55	3.7660	3.7658	-0.7948	25.26	0.24	-0.750			
0.3044	19479.30	3.7630	3.7630	-0.7896	25.27	0.25	-0.750			
0.3068	19637.58	3.7600	3.7600	-0.8042	25.27	0.25	-0.750			
0.3093	19793.08	3.7570	3.7575	-0.8007	25.27	0.25	-0.750			
0.3117	19946.87	3.7540	3.7539	-0.7947	25.27	0.25	-0.750			
0.3140	20095.22	3.7510	3.7511	-0.7986	25.27	0.25	-0.750			
0.3164	20247.26	3.7480	3.7479	-0.8076	25.28	0.26	-0.750			
0.3188	20403.64	3.7450	3.7449	-0.8188	25.28	0.26	-0.750			
0.3213	20561.33	3.7420	3.7422	-0.8314	25.28	0.26	-0.750			
0.3238	20720.82	3.7390	3.7390	-0.8522	25.28	0.26	-0.750			
0.3264	20888.44	3.7360	3.7360	-0.8632	25.28	0.26	-0.750			
0.3290	21054.60	3.7330	3.7329	-0.8737	25.27	0.25	-0.750			
0.3316	21222.42	3.7300	3.7299	-0.8791	25.27	0.25	-0.750			
0.3343	21395.42	3.7270	3.7276	-0.8887	25.27	0.25	-0.750			
0.3370	21565.43	3.7240	3.7240	-0.9078	25.27	0.25	-0.750			
0.3397	21740.96	3.7210	3.7210	-0.9138	25.27	0.25	-0.750			
0.3424	21916.31	3.7180	3.7180	-0.9292	25.26	0.24	-0.750			
0.3453	22096.89	3.7150	3.7148	-0.9489	25.26	0.24	-0.750			
0.3481	22277.96	3.7120	3.7120	-0.9706	25.26	0.24	-0.750			
0.3511	22468.63	3.7090	3.7089	-0.9991	25.26	0.24	-0.750			
0.3541	22662.09	3.7060	3.7059	-1.0214	25.25	0.23	-0.750			
0.3572	22861.61	3.7030	3.7029	-1.0219	25.25	0.23	-0.750			
0.3604	23063.69	3.7000	3.6999	-1.0514	25.25	0.23	-0.750			
0.3635	23266.32	3.6970	3.6965	-1.0514	25.24	0.22	-0.750	0.373	0.495	
0.3667	23466.48	3.6940	3.6937	-1.0622	25.23	0.21	-0.750			
0.3698	23666.96	3.6910	3.6909	-1.0685	25.22	0.20	-0.750			
0.3730	23870.14	3.6880	3.6881	-1.0882	25.22	0.20	-0.750			
0.3764	24088.30	3.6850	3.6849	-1.1339	25.21	0.19	-0.750			
0.3799	24310.51	3.6820	3.6819	-1.1531	25.21	0.19	-0.750			
0.3833	24531.56	3.6790	3.6791	-1.1679	25.20	0.18	-0.750			
0.3869	24763.50	3.6760	3.6760	-1.2048	25.19	0.17	-0.750			
0.3905	24993.76	3.6730	3.6729	-1.2217	25.18	0.16	-0.750			
0.3942	25226.92	3.6700	3.6699	-1.2587	25.18	0.16	-0.750			
0.3980	25471.08	3.6670	3.6669	-1.2716	25.17	0.15	-0.750			
0.4019	25722.88	3.6640	3.6639	-1.2931	25.16	0.14	-0.750			
0.4058	25970.69	3.6610	3.6609	-1.3282	25.15	0.13	-0.750			
0.4098	26229.91	3.6580	3.6583	-1.3363	25.14	0.12	-0.750			
0.4139	26492.17	3.6550	3.6549	-1.3597	25.13	0.11	-0.750			
0.4179	26748.05	3.6520	3.6517	-1.4006	25.13	0.11	-0.750			
0.4222	27018.29	3.6490	3.6495	-1.4173	25.12	0.10	-0.750			
0.4267	27306.64	3.6460	3.6456	-1.4412	25.10	0.08	-0.750			
0.4311	27587.73	3.6430	3.6433	-1.4823	25.09	0.07	-0.750			
0.4354	27866.94	3.6400	3.6400	-1.4891	25.08	0.06	-0.750			
0.4401	28163.88	3.6370	3.6366	-1.5369	25.07	0.05	-0.750			
0.4447	28461.21	3.6340	3.6340	-1.5582	25.06	0.04	-0.750			
0.4493	28756.49	3.6310	3.6309	-1.5537	25.06	0.04	-0.750			
0.4542	29070.37	3.6280	3.6279	-1.6113	25.05	0.03	-0.750			
0.4591	29379.30	3.6250	3.6251	-1.6257	25.04	0.02	-0.750			
0.4638	29682.42	3.6220	3.6218	-1.6389	25.03	0.01	-0.750			
0.4687	29999.92	3.6190	3.6194	-1.6863	25.02	-0.00	-0.750			
0.4739	30331.79	3.6160	3.6155	-1.7383	25.01	-0.01	-0.750			
0.4794	30679.48	3.6130	3.6126	-1.7960	25.00	-0.02	-0.750			
0.4849	31031.85	3.6100	3.6102	-1.8146	25.00	-0.02	-0.750			
0.4905	31393.95	3.6070	3.6070	-1.8583	24.99	-0.03	-0.750			
0.4961	31749.86	3.6040	3.6042	-1.8702	24.98	-0.04	-0.750			
0.5016	32101.12	3.6010	3.6013	-1.9305	24.97	-0.05	-0.750			
0.5075	32478.89	3.5980	3.5983	-1.9529	24.96	-0.06	-0.750			
0.5135	32862.07	3.5950	3.5950	-2.0040	24.95	-0.07	-0.750			
0.5196	33256.59	3.5920	3.5918	-2.0242	24.94	-0.08	-0.750			
0.5258	33650.29	3.5890	3.5891	-2.0521	24.94	-0.08	-0.750			
0.5320	34048.50	3.5860	3.5865	-2.0812	24.94	-0.08	-0.750			
0.5383	34448.41	3.5830	3.5830	-2.1443	24.94	-0.08	-0.750			
0.5450	34878.33	3.5800	3.5798	-2.1460	24.93	-0.09	-0.750			
0.5513	35280.04	3.5770	3.5770	-2.2182	24.93	-0.09	-0.750			
0.5580	35715.17	3.5740	3.5737	-2.2339	24.92	-0.10	-0.750			
0.5647	36142.01	3.5710	3.5709	-2.2265	24.92	-0.10	-0.750			
0.5715	36576.94	3.5680	3.5684	-2.2441	24.92	-0.10	-0.750			
0.5783	37011.64	3.5650	3.5651	-2.3079	24.92	-0.10	-0.750			
0.5850	37438.25	3.5620	3.5621	-2.2642	24.92	-0.10	-0.750			
0.5920	37890.72	3.5590	3.5588	-2.2576	24.92	-0.10	-0.750			
0.5987	38317.31	3.5560	3.5556	-2.2019	24.92	-0.10	-0.750			
0.6050	38718.71	3.5530	3.5536	-2.2020	24.92	-0.10	-0.750			
0.6114	39131.93	3.5500	3.5496	-2.1839	24.92	-0.10	-0.750			
0.6183	39568.97	3.5470	3.5466	-2.1758	24.92	-0.10	-0.750			
0.6247	39979.84	3.5440	3.5445	-2.1416	24.92	-0.10	-0.750			
0.6313	40403.28	3.5410	3.5409	-2.0948	24.94	-0.08	-0.750			
0.6376	40807.35	3.5380	3.5378	-2.0406	24.94	-0.08	-0.750			
0.6434	41179.27	3.5350	3.5349	-2.0126	24.95	-0.07	-0.750			
0.6494	41561.95	3.5320	3.5318	-1.9548	24.96	-0.06	-0.750			
0.6555	41953.74	3.5290	3.5285	-1.9239	24.97	-0.05	-0.750			
0.6610	42306.18	3.5260	3.5263	-1.8563	24.98	-0.04	-0.750			
0.6667	42666.31	3.5230	3.5229	-1.8334	24.99	-0.03	-0.750			
0.6720	43008.94	3.5200	3.5202	-1.7538	25.00	-0.02	-0.750			
0.6770	43330.16	3.5170	3.5174	-1.6860	25.02	-0.00	-0.750			
0.6820	43650.99	3.5140	3.5138	-1.6550	25.03	0.01	-0.750			
0.6871	43971.42	3.5110	3.5109	-1.6110	25.05	0.03	-0.750			
0.6918	44274.47	3.5080	3.5077	-1.5990	25.06	0.04	-0.750			
0.6965	44578.59	3.5050	3.5053	-1.5513	25.08	0.06	-0.750			
0.7011	44868.68	3.5020	3.5019	-1.4927	25.10	0.08	-0.750			
0.7056	45156.98	3.4990	3.4987	-1.4789	25.12	0.10	-0.750			
0.7099	45432.07	3.4960	3.4964	-1.4194	25.13	0.11	-0.750			
0.7142	45710.04	3.4930	3.4929	-1.3938	25.15	0.13	-0.750			
0.7183	45972.91	3.4900	3.4897	-1.3370	25.17	0.15	-0.750			
0.7223	46227.42	3.4870	3.4872	-1.3206	25.18	0.16	-0.750			
