Ah_balance (normalized)	Ah_balance (mAh)	Voltage - fit (V)	Voltage -  interpolate (V)	dQ/dV (1/V)	Temperature (°C)	Temperature - diff (°C)	Current (C)	R_DC 0ms (mOhm)	R_DC 50ms (mOhm)	R_DC 50 ms PEC (mOhm)
0.0001	8.41	4.1620	4.1622	-0.1596	25.11	0.01	-0.750			
0.0007	42.40	4.1590	4.1592	-0.1920	25.11	0.01	-0.750			
0.0013	80.61	4.1560	4.1561	-0.2214	25.11	0.01	-0.750			
0.0020	126.44	4.1530	4.1528	-0.2558	25.11	0.01	-0.750			
0.0028	178.55	4.1500	4.1500	-0.2915	25.10	0.00	-0.750			
0.0037	237.35	4.1470	4.1470	-0.3264	25.10	0.00	-0.750			
0.0047	303.77	4.1440	4.1440	-0.3625	25.10	-0.00	-0.750			
0.0059	377.85	4.1410	4.1410	-0.3983	25.10	-0.00	-0.750			
0.0072	458.18	4.1380	4.1380	-0.4325	25.09	-0.01	-0.750			
0.0085	543.80	4.1350	4.1350	-0.4644	25.09	-0.01	-0.750			
0.0100	638.07	4.1320	4.1321	-0.4933	25.09	-0.01	-0.750			
0.0115	735.71	4.1290	4.1289	-0.5261	25.08	-0.02	-0.750			
0.0131	841.24	4.1260	4.1260	-0.5486	25.08	-0.02	-0.750			
0.0148	949.97	4.1230	4.1230	-0.5719	25.07	-0.03	-0.750			
0.0166	1061.99	4.1200	4.1204	-0.5897	25.07	-0.03	-0.750			
0.0184	1178.52	4.1170	4.1169	-0.6054	25.07	-0.03	-0.750			
0.0202	1295.60	4.1140	4.1140	-0.6200	25.07	-0.03	-0.750			
0.0221	1414.54	4.1110	4.1110	-0.6385	25.07	-0.03	-0.750			
0.0241	1540.94	4.1080	4.1080	-0.6490	25.06	-0.04	-0.750			
0.0261	1667.68	4.1050	4.1049	-0.6552	25.06	-0.04	-0.750			
0.0280	1794.43	4.1020	4.1019	-0.6611	25.06	-0.04	-0.750			
0.0300	1921.90	4.0990	4.0990	-0.6661	25.06	-0.04	-0.750			
0.0320	2049.29	4.0960	4.0959	-0.6725	25.06	-0.04	-0.750			
0.0340	2176.06	4.0930	4.0930	-0.6817	25.05	-0.05	-0.750			
0.0361	2307.85	4.0900	4.0900	-0.6851	25.05	-0.05	-0.750			
0.0382	2443.31	4.0870	4.0869	-0.7008	25.05	-0.05	-0.750			
0.0403	2581.02	4.0840	4.0840	-0.7032	25.04	-0.06	-0.750			
0.0424	2715.80	4.0810	4.0812	-0.7049	25.04	-0.06	-0.750			
0.0445	2850.13	4.0780	4.0780	-0.7116	25.04	-0.06	-0.750			
0.0467	2985.67	4.0750	4.0750	-0.7200	25.04	-0.06	-0.750			
0.0488	3123.05	4.0720	4.0718	-0.7210	25.04	-0.06	-0.750			
0.0510	3264.85	4.0690	4.0690	-0.7309	25.04	-0.06	-0.750			
0.0532	3406.57	4.0660	4.0661	-0.7320	25.04	-0.06	-0.750			
0.0554	3548.73	4.0630	4.0630	-0.7342	25.04	-0.06	-0.750			
0.0576	3688.90	4.0600	4.0600	-0.7320	25.04	-0.06	-0.750			
0.0598	3829.10	4.0570	4.0568	-0.7350	25.04	-0.06	-0.750			
0.0620	3969.54	4.0540	4.0540	-0.7343	25.04	-0.06	-0.750			
0.0643	4112.36	4.0510	4.0510	-0.7390	25.04	-0.06	-0.750			
0.0665	4255.06	4.0480	4.0483	-0.7416	25.04	-0.06	-0.750			
0.0687	4397.01	4.0450	4.0448	-0.7445	25.04	-0.06	-0.750			
0.0709	4538.53	4.0420	4.0421	-0.7446	25.04	-0.06	-0.750			
0.0732	4683.23	4.0390	4.0390	-0.7533	25.05	-0.05	-0.750			
0.0755	4831.36	4.0360	4.0358	-0.7610	25.05	-0.05	-0.750			
0.0778	4976.65	4.0330	4.0330	-0.7605	25.05	-0.05	-0.750			
0.0800	5121.94	4.0300	4.0301	-0.7598	25.05	-0.05	-0.750			
0.0823	5268.14	4.0270	4.0269	-0.7633	25.05	-0.05	-0.750			
0.0846	5414.75	4.0240	4.0240	-0.7677	25.05	-0.05	-0.750			
0.0869	5560.59	4.0210	4.0209	-0.7605	25.06	-0.04	-0.750			
0.0892	5710.98	4.0180	4.0179	-0.7698	25.06	-0.04	-0.750			
0.0915	5858.96	4.0150	4.0152	-0.7705	25.06	-0.04	-0.750			
0.0938	6005.86	4.0120	4.0119	-0.7656	25.06	-0.04	-0.750			
0.0961	6151.03	4.0090	4.0090	-0.7691	25.06	-0.04	-0.750			
0.0984	6298.87	4.0060	4.0060	-0.7692	25.06	-0.04	-0.750			
0.1008	6448.42	4.0030	4.0030	-0.7742	25.06	-0.04	-0.750			
0.1031	6596.57	4.0000	3.9998	-0.7737	25.06	-0.04	-0.750			
0.1054	6744.86	3.9970	3.9970	-0.7759	25.06	-0.04	-0.750			
0.1077	6892.18	3.9940	3.9940	-0.7821	25.07	-0.03	-0.750			
0.1101	7044.21	3.9910	3.9908	-0.7797	25.07	-0.03	-0.750			
0.1124	7195.32	3.9880	3.9880	-0.7876	25.07	-0.03	-0.750			
0.1148	7345.57	3.9850	3.9849	-0.7834	25.08	-0.02	-0.750			
0.1171	7496.04	3.9820	3.9824	-0.7865	25.08	-0.02	-0.750			
0.1195	7645.90	3.9790	3.9788	-0.7866	25.08	-0.02	-0.750			
0.1218	7795.10	3.9760	3.9760	-0.7851	25.08	-0.02	-0.750			
0.1242	7946.01	3.9730	3.9729	-0.7883	25.08	-0.02	-0.750			
0.1266	8099.43	3.9700	3.9700	-0.7935	25.08	-0.02	-0.750			
0.1289	8251.35	3.9670	3.9670	-0.7952	25.08	-0.02	-0.750			
0.1313	8405.13	3.9640	3.9640	-0.7960	25.08	-0.02	-0.750			
0.1337	8557.11	3.9610	3.9610	-0.7998	25.09	-0.01	-0.750			
0.1362	8713.73	3.9580	3.9579	-0.7993	25.09	-0.01	-0.750			
0.1385	8865.68	3.9550	3.9550	-0.7996	25.09	-0.01	-0.750			
0.1409	9020.01	3.9520	3.9521	-0.8016	25.10	-0.00	-0.750			
0.1433	9173.61	3.9490	3.9489	-0.8039	25.10	0.00	-0.750			
0.1457	9326.12	3.9460	3.9459	-0.8117	25.10	0.00	-0.750			
0.1482	9484.56	3.9430	3.9430	-0.8152	25.11	0.01	-0.750			
0.1507	9641.72	3.9400	3.9400	-0.8120	25.11	0.01	-0.750			
0.1532	9803.75	3.9370	3.9369	-0.8166	25.11	0.01	-0.750			
0.1556	9955.93	3.9340	3.9341	-0.8155	25.11	0.01	-0.750			
0.1580	10108.97	3.9310	3.9309	-0.8216	25.11	0.01	-0.750			
0.1604	10268.02	3.9280	3.9280	-0.8183	25.11	0.01	-0.750			
0.1629	10423.65	3.9250	3.9249	-0.8173	25.12	0.02	-0.750			
0.1654	10586.87	3.9220	3.9221	-0.8296	25.12	0.02	-0.750			
0.1679	10746.81	3.9190	3.9189	-0.8223	25.12	0.02	-0.750			
0.1703	10902.18	3.9160	3.9159	-0.8289	25.13	0.03	-0.750			
0.1728	11058.73	3.9130	3.9129	-0.8213	25.13	0.03	-0.750			
0.1752	11215.45	3.9100	3.9100	-0.8213	25.13	0.03	-0.750			
0.1778	11377.72	3.9070	3.9069	-0.8270	25.14	0.04	-0.750			
0.1803	11536.78	3.9040	3.9040	-0.8251	25.14	0.04	-0.750			
0.1827	11693.04	3.9010	3.9010	-0.8360	25.14	0.04	-0.750			
0.1852	11854.54	3.8980	3.8979	-0.8332	25.14	0.04	-0.750			
0.1877	12012.90	3.8950	3.8949	-0.8266	25.14	0.04	-0.750			
0.1902	12174.75	3.8920	3.8918	-0.8307	25.14	0.04	-0.750			
0.1927	12335.32	3.8890	3.8889	-0.8260	25.14	0.04	-0.750			
0.1952	12491.22	3.8860	3.8860	-0.8293	25.15	0.05	-0.750			
0.1976	12648.92	3.8830	3.8830	-0.8205	25.15	0.05	-0.750			
0.2000	12803.06	3.8800	3.8800	-0.8135	25.15	0.05	-0.750			
0.2026	12964.42	3.8770	3.8768	-0.8262	25.16	0.06	-0.750			
0.2051	13124.16	3.8740	3.8740	-0.8234	25.16	0.06	-0.750			
0.2075	13280.71	3.8710	3.8710	-0.8243	25.16	0.06	-0.750			
0.2100	13439.73	3.8680	3.8680	-0.8223	25.16	0.06	-0.750			
0.2124	13594.89	3.8650	3.8650	-0.8100	25.17	0.07	-0.750			
0.2150	13759.27	3.8620	3.8618	-0.7866	25.17	0.07	-0.750			
0.2173	13909.28	3.8590	3.8591	-0.7576	25.17	0.07	-0.750			
0.2195	14049.44	3.8560	3.8562	-0.7324	25.17	0.07	-0.750			
0.2216	14180.44	3.8530	3.8534	-0.7387	25.17	0.07	-0.750			
0.2237	14318.11	3.8500	3.8496	-0.7411	25.18	0.08	-0.750			
0.2259	14458.58	3.8470	3.8468	-0.7517	25.18	0.08	-0.750			
0.2282	14606.35	3.8440	3.8441	-0.7650	25.18	0.08	-0.750			
0.2307	14766.15	3.8410	3.8408	-0.7902	25.18	0.08	-0.750			
0.2331	14915.89	3.8380	3.8380	-0.7848	25.18	0.08	-0.750			
0.2354	15065.79	3.8350	3.8348	-0.7862	25.18	0.08	-0.750			
0.2377	15213.72	3.8320	3.8320	-0.7813	25.18	0.08	-0.750			
0.2402	15369.73	3.8290	3.8288	-0.7879	25.18	0.08	-0.750			
0.2425	15521.35	3.8260	3.8263	-0.7866	25.18	0.08	-0.750			
0.2449	15672.73	3.8230	3.8228	-0.7786	25.18	0.08	-0.750			
0.2472	15818.93	3.8200	3.8199	-0.7757	25.18	0.08	-0.750			
0.2494	15963.50	3.8170	3.8171	-0.7644	25.19	0.09	-0.750			
0.2518	16114.89	3.8140	3.8138	-0.7734	25.19	0.09	-0.750			
0.2541	16263.29	3.8110	3.8113	-0.7726	25.19	0.09	-0.750			
0.2565	16413.10	3.8080	3.8080	-0.7695	25.19	0.09	-0.750			
0.2587	16559.49	3.8050	3.8050	-0.7716	25.19	0.09	-0.750			
0.2611	16708.79	3.8020	3.8019	-0.7687	25.20	0.10	-0.750			
0.2634	16855.25	3.7990	3.7991	-0.7680	25.20	0.10	-0.750			
0.2657	17002.98	3.7960	3.7958	-0.7624	25.20	0.10	-0.750			
0.2680	17148.85	3.7930	3.7929	-0.7643	25.20	0.10	-0.750			
0.2702	17294.14	3.7900	3.7900	-0.7627	25.20	0.10	-0.750			
0.2725	17442.28	3.7870	3.7870	-0.7700	25.20	0.10	-0.750			
0.2748	17589.38	3.7840	3.7839	-0.7685	25.20	0.10	-0.750			
0.2772	17741.49	3.7810	3.7809	-0.7742	25.20	0.10	-0.750			
0.2795	17889.32	3.7780	3.7784	-0.7717	25.20	0.10	-0.750			
0.2819	18038.40	3.7750	3.7750	-0.7713	25.20	0.10	-0.750			
0.2841	18183.14	3.7720	3.7720	-0.7758	25.20	0.10	-0.750			
0.2864	18327.51	3.7690	3.7689	-0.7721	25.21	0.11	-0.750			
0.2888	18483.10	3.7660	3.7660	-0.7938	25.21	0.11	-0.750			
0.2912	18634.57	3.7630	3.7629	-0.7984	25.21	0.11	-0.750			
0.2936	18789.36	3.7600	3.7599	-0.8019	25.21	0.11	-0.750			
0.2960	18944.24	3.7570	3.7569	-0.8254	25.21	0.11	-0.750			
0.2985	19105.63	3.7540	3.7539	-0.8257	25.20	0.10	-0.750			
0.3010	19264.25	3.7510	3.7507	-0.8218	25.20	0.10	-0.750			
0.3035	19426.92	3.7480	3.7484	-0.8341	25.20	0.10	-0.750			
0.3060	19585.62	3.7450	3.7449	-0.8381	25.20	0.10	-0.750			
0.3085	19744.35	3.7420	3.7419	-0.8476	25.20	0.10	-0.750			
0.3111	19907.22	3.7390	3.7389	-0.8544	25.20	0.10	-0.750			
0.3136	20073.11	3.7360	3.7359	-0.8702	25.20	0.10	-0.750			
0.3163	20241.94	3.7330	3.7333	-0.8770	25.20	0.10	-0.750			
0.3189	20410.29	3.7300	3.7299	-0.8951	25.20	0.10	-0.750			
0.3216	20581.55	3.7270	3.7269	-0.9027	25.19	0.09	-0.750			
0.3243	20753.39	3.7240	3.7239	-0.9077	25.19	0.09	-0.750			
0.3270	20928.93	3.7210	3.7211	-0.9268	25.18	0.08	-0.750			
0.3299	21113.05	3.7180	3.7181	-0.9449	25.18	0.08	-0.750			
0.3328	21296.37	3.7150	3.7150	-0.9708	25.18	0.08	-0.750			
0.3357	21487.69	3.7120	3.7118	-0.9720	25.17	0.07	-0.750			
0.3387	21674.32	3.7090	3.7088	-0.9742	25.17	0.07	-0.750			
0.3417	21865.98	3.7060	3.7067	-0.9869	25.17	0.07	-0.750			
0.3446	22053.33	3.7030	3.7028	-0.9990	25.16	0.06	-0.750			
0.3476	22243.37	3.7000	3.6999	-1.0041	25.16	0.06	-0.750			
0.3506	22435.84	3.6970	3.6972	-1.0189	25.15	0.05	-0.750	0.389	0.547	
0.3537	22633.85	3.6940	3.6939	-1.0459	25.14	0.04	-0.750			
0.3568	22836.95	3.6910	3.6911	-1.0709	25.13	0.03	-0.750			
0.3601	23043.56	3.6880	3.6880	-1.0787	25.12	0.02	-0.750			
0.3634	23257.24	3.6850	3.6849	-1.1003	25.11	0.01	-0.750			
0.3667	23466.72	3.6820	3.6823	-1.1232	25.10	0.00	-0.750			
0.3702	23690.36	3.6790	3.6789	-1.1406	25.10	-0.00	-0.750			
0.3736	23910.69	3.6760	3.6758	-1.1463	25.09	-0.01	-0.750			
0.3770	24129.62	3.6730	3.6729	-1.1575	25.09	-0.01	-0.750			
0.3805	24354.50	3.6700	3.6698	-1.1872	25.09	-0.01	-0.750			
0.3841	24583.38	3.6670	3.6668	-1.1995	25.08	-0.02	-0.750			
0.3877	24811.64	3.6640	3.6638	-1.2077	25.07	-0.03	-0.750			
0.3914	25047.32	3.6610	3.6614	-1.2413	25.06	-0.04	-0.750			
0.3951	25287.95	3.6580	3.6578	-1.2673	25.05	-0.05	-0.750			
0.3989	25531.05	3.6550	3.6551	-1.2781	25.05	-0.05	-0.750			
0.4027	25773.00	3.6520	3.6519	-1.3088	25.04	-0.06	-0.750			
0.4068	26037.31	3.6490	3.6489	-1.3431	25.03	-0.07	-0.750			
0.4109	26297.61	3.6460	3.6459	-1.3576	25.02	-0.08	-0.750			
0.4150	26558.36	3.6430	3.6429	-1.3851	25.01	-0.09	-0.750			
0.4191	26825.23	3.6400	3.6398	-1.4021	25.00	-0.10	-0.750			
0.4234	27094.47	3.6370	3.6368	-1.4211	24.99	-0.11	-0.750			
0.4276	27367.16	3.6340	3.6340	-1.4488	24.98	-0.12	-0.750			
0.4319	27643.11	3.6310	3.6310	-1.4915	24.98	-0.12	-0.750			
0.4366	27943.95	3.6280	3.6279	-1.5580	24.97	-0.13	-0.750			
0.4414	28247.71	3.6250	3.6250	-1.5711	24.96	-0.14	-0.750			
0.4461	28550.49	3.6220	3.6224	-1.5845	24.95	-0.15	-0.750			
0.4510	28864.90	3.6190	3.6185	-1.6040	24.94	-0.16	-0.750			
0.4558	29169.39	3.6160	3.6156	-1.6286	24.93	-0.17	-0.750			
0.4606	29479.63	3.6130	3.6126	-1.6597	24.92	-0.18	-0.750			
0.4657	29806.84	3.6100	3.6096	-1.7065	24.91	-0.19	-0.750			
0.4709	30134.43	3.6070	3.6071	-1.7218	24.90	-0.20	-0.750			
0.4762	30476.38	3.6040	3.6043	-1.7920	24.89	-0.21	-0.750			
0.4817	30827.42	3.6010	3.6014	-1.8103	24.88	-0.22	-0.750			
0.4872	31182.28	3.5980	3.5983	-1.8197	24.87	-0.23	-0.750			
0.4927	31531.78	3.5950	3.5949	-1.8446	24.87	-0.23	-0.750			
0.4983	31888.15	3.5920	3.5916	-1.8835	24.86	-0.24	-0.750			
0.5040	32258.06	3.5890	3.5890	-1.9285	24.86	-0.24	-0.750			
0.5098	32626.80	3.5860	3.5864	-1.9532	24.85	-0.25	-0.750			
0.5160	33021.89	3.5830	3.5830	-2.0001	24.83	-0.27	-0.750			
0.5220	33406.50	3.5800	3.5796	-2.0155	24.83	-0.27	-0.750			
0.5280	33789.14	3.5770	3.5770	-1.9759	24.82	-0.28	-0.750			
0.5338	34160.30	3.5740	3.5743	-2.0217	24.81	-0.29	-0.750			
0.5398	34548.94	3.5710	3.5714	-2.1038	24.80	-0.30	-0.750			
0.5461	34950.93	3.5680	3.5681	-2.1185	24.80	-0.30	-0.750			
0.5527	35373.79	3.5650	3.5652	-2.1021	24.80	-0.30	-0.750			
0.5592	35790.34	3.5620	3.5616	-2.1107	24.80	-0.30	-0.750			
0.5653	36179.56	3.5590	3.5586	-2.0364	24.79	-0.31	-0.750			
0.5713	36565.70	3.5560	3.5565	-2.0345	24.79	-0.31	-0.750			
0.5773	36946.99	3.5530	3.5532	-2.0815	24.78	-0.32	-0.750			
0.5838	37364.69	3.5500	3.5500	-2.1028	24.78	-0.32	-0.750			
0.5902	37770.24	3.5470	3.5471	-2.0766	24.78	-0.32	-0.750			
0.5962	38159.19	3.5440	3.5434	-2.0182	24.78	-0.32	-0.750			
0.6024	38554.34	3.5410	3.5408	-1.9898	24.79	-0.31	-0.750			
0.6081	38915.84	3.5380	3.5381	-1.9454	24.79	-0.31	-0.750			
0.6139	39291.50	3.5350	3.5351	-1.9645	24.80	-0.30	-0.750			
0.6199	39670.83	3.5320	3.5317	-1.9310	24.81	-0.29	-0.750			
0.6257	40046.44	3.5290	3.5287	-1.8787	24.81	-0.29	-0.750			
0.6311	40392.83	3.5260	3.5263	-1.8177	24.82	-0.28	-0.750			
0.6366	40742.05	3.5230	3.5234	-1.7950	24.83	-0.27	-0.750			
0.6417	41071.81	3.5200	3.5207	-1.7331	24.84	-0.26	-0.750			
0.6468	41395.74	3.5170	3.5173	-1.7010	24.85	-0.25	-0.750			
0.6520	41730.28	3.5140	3.5143	-1.6660	24.86	-0.24	-0.750			
0.6570	42048.40	3.5110	3.5106	-1.6089	24.88	-0.22	-0.750			
0.6618	42352.91	3.5080	3.5078	-1.5828	24.89	-0.21	-0.750			
0.6665	42657.10	3.5050	3.5049	-1.5453	24.91	-0.19	-0.750			
0.6711	42951.93	3.5020	3.5015	-1.5054	24.93	-0.17	-0.750			
0.6754	43223.49	3.4990	3.4996	-1.4329	24.94	-0.16	-0.750			
0.6797	43499.78	3.4960	3.4965	-1.3960	24.96	-0.14	-0.750			
0.6839	43769.57	3.4930	3.4928	-1.3594	24.97	-0.13	-0.750			
0.6878	44022.39	3.4900	3.4899	-1.3138	24.99	-0.11	-0.750			
0.6915	44258.82	3.4870	3.4873	-1.3576	25.00	-0.10	-0.750			
0.6956	44516.81	3.4840	3.4840	-1.2398	25.01	-0.09	-0.750			
