Ah_balance (normalized)	Ah_balance (mAh)	Voltage - fit (V)	Voltage -  interpolate (V)	dQ/dV (1/V)	Temperature (°C)	Temperature - diff (°C)	Current (C)	R_DC 0ms (mOhm)	R_DC 50ms (mOhm)	R_DC 50 ms PEC (mOhm)
0.0004	24.06	4.1630	4.1627	-0.1327	25.02	0.02	-0.750			
0.0008	53.25	4.1600	4.1598	-0.1752	25.02	0.02	-0.750			
0.0014	90.65	4.1570	4.1571	-0.2200	25.01	0.01	-0.750			
0.0021	136.70	4.1540	4.1541	-0.2675	25.01	0.01	-0.750			
0.0030	193.85	4.1510	4.1509	-0.3066	25.01	0.01	-0.750			
0.0040	257.69	4.1480	4.1480	-0.3493	25.01	0.01	-0.750			
0.0051	328.93	4.1450	4.1451	-0.3879	25.00	0.00	-0.750			
0.0064	408.48	4.1420	4.1422	-0.4230	25.00	-0.00	-0.750			
0.0077	494.19	4.1390	4.1389	-0.4577	24.99	-0.01	-0.750			
0.0091	584.50	4.1360	4.1361	-0.4902	24.99	-0.01	-0.750			
0.0107	682.88	4.1330	4.1330	-0.5144	24.99	-0.01	-0.750			
0.0123	784.16	4.1300	4.1300	-0.5509	24.98	-0.02	-0.750			
0.0140	893.53	4.1270	4.1269	-0.5736	24.97	-0.03	-0.750			
0.0157	1006.55	4.1240	4.1240	-0.5985	24.97	-0.03	-0.750			
0.0176	1125.93	4.1210	4.1210	-0.6153	24.96	-0.04	-0.750			
0.0195	1246.70	4.1180	4.1181	-0.6321	24.96	-0.04	-0.750			
0.0214	1370.45	4.1150	4.1149	-0.6464	24.96	-0.04	-0.750			
0.0234	1497.14	4.1120	4.1119	-0.6584	24.96	-0.04	-0.750			
0.0254	1623.94	4.1090	4.1089	-0.6664	24.95	-0.05	-0.750			
0.0274	1753.76	4.1060	4.1061	-0.6821	24.95	-0.05	-0.750			
0.0295	1886.85	4.1030	4.1028	-0.6880	24.95	-0.05	-0.750			
0.0316	2019.86	4.1000	4.1001	-0.6975	24.95	-0.05	-0.750			
0.0336	2153.57	4.0970	4.0969	-0.7016	24.95	-0.05	-0.750			
0.0358	2288.22	4.0940	4.0940	-0.7092	24.95	-0.05	-0.750			
0.0379	2424.88	4.0910	4.0910	-0.7078	24.94	-0.06	-0.750			
0.0401	2566.50	4.0880	4.0881	-0.7196	24.94	-0.06	-0.750			
0.0422	2702.52	4.0850	4.0849	-0.7199	24.94	-0.06	-0.750			
0.0444	2841.76	4.0820	4.0821	-0.7277	24.94	-0.06	-0.750			
0.0466	2979.78	4.0790	4.0790	-0.7263	24.94	-0.06	-0.750			
0.0487	3119.45	4.0760	4.0760	-0.7350	24.94	-0.06	-0.750			
0.0510	3262.25	4.0730	4.0731	-0.7412	24.94	-0.06	-0.750			
0.0532	3407.33	4.0700	4.0700	-0.7447	24.94	-0.06	-0.750			
0.0555	3551.63	4.0670	4.0669	-0.7470	24.94	-0.06	-0.750			
0.0577	3694.03	4.0640	4.0641	-0.7448	24.94	-0.06	-0.750			
0.0599	3834.34	4.0610	4.0611	-0.7515	24.94	-0.06	-0.750			
0.0622	3981.39	4.0580	4.0579	-0.7496	24.94	-0.06	-0.750			
0.0644	4124.51	4.0550	4.0550	-0.7497	24.94	-0.06	-0.750			
0.0667	4269.35	4.0520	4.0519	-0.7558	24.94	-0.06	-0.750			
0.0690	4414.56	4.0490	4.0493	-0.7597	24.94	-0.06	-0.750			
0.0713	4560.27	4.0460	4.0459	-0.7628	24.94	-0.06	-0.750			
0.0735	4706.44	4.0430	4.0431	-0.7693	24.94	-0.06	-0.750			
0.0758	4853.74	4.0400	4.0400	-0.7695	24.94	-0.06	-0.750			
0.0782	5006.18	4.0370	4.0369	-0.7784	24.94	-0.06	-0.750			
0.0806	5155.26	4.0340	4.0341	-0.7767	24.94	-0.06	-0.750			
0.0829	5304.62	4.0310	4.0310	-0.7728	24.94	-0.06	-0.750			
0.0852	5452.58	4.0280	4.0280	-0.7733	24.95	-0.05	-0.750			
0.0875	5600.84	4.0250	4.0250	-0.7731	24.95	-0.05	-0.750			
0.0898	5746.95	4.0220	4.0220	-0.7737	24.95	-0.05	-0.750			
0.0921	5897.10	4.0190	4.0189	-0.7843	24.96	-0.04	-0.750			
0.0945	6048.14	4.0160	4.0161	-0.7876	24.96	-0.04	-0.750			
0.0968	6197.84	4.0130	4.0129	-0.8031	24.96	-0.04	-0.750			
0.0993	6356.84	4.0100	4.0101	-0.8048	24.96	-0.04	-0.750			
0.1018	6512.85	4.0070	4.0068	-0.8029	24.96	-0.04	-0.750			
0.1042	6668.44	4.0040	4.0039	-0.8000	24.96	-0.04	-0.750			
0.1066	6821.45	4.0010	4.0012	-0.7949	24.96	-0.04	-0.750			
0.1089	6970.62	3.9980	3.9980	-0.7958	24.96	-0.04	-0.750			
0.1113	7123.60	3.9950	3.9950	-0.7929	24.96	-0.04	-0.750			
0.1137	7274.81	3.9920	3.9919	-0.7822	24.97	-0.03	-0.750			
0.1161	7428.99	3.9890	3.9890	-0.7942	24.97	-0.03	-0.750			
0.1184	7580.68	3.9860	3.9861	-0.7957	24.97	-0.03	-0.750			
0.1208	7732.73	3.9830	3.9830	-0.7952	24.97	-0.03	-0.750			
0.1232	7884.05	3.9800	3.9798	-0.7948	24.98	-0.02	-0.750			
0.1256	8036.15	3.9770	3.9771	-0.7998	24.98	-0.02	-0.750			
0.1280	8191.69	3.9740	3.9740	-0.8083	24.99	-0.01	-0.750			
0.1304	8348.01	3.9710	3.9709	-0.8090	24.99	-0.01	-0.750			
0.1329	8502.97	3.9680	3.9680	-0.8077	24.99	-0.01	-0.750			
0.1353	8659.05	3.9650	3.9650	-0.8171	24.99	-0.01	-0.750			
0.1378	8817.88	3.9620	3.9620	-0.8167	25.00	-0.00	-0.750			
0.1402	8975.21	3.9590	3.9588	-0.8134	25.00	-0.00	-0.750			
0.1427	9131.36	3.9560	3.9561	-0.8131	25.00	-0.00	-0.750			
0.1451	9289.31	3.9530	3.9528	-0.8036	25.00	0.00	-0.750			
0.1475	9442.23	3.9500	3.9499	-0.8004	25.01	0.01	-0.750			
0.1499	9592.55	3.9470	3.9471	-0.7954	25.01	0.01	-0.750			
0.1522	9740.31	3.9440	3.9442	-0.7937	25.01	0.01	-0.750			
0.1546	9897.36	3.9410	3.9407	-0.8040	25.02	0.02	-0.750			
0.1570	10050.02	3.9380	3.9380	-0.8133	25.02	0.02	-0.750			
0.1594	10204.09	3.9350	3.9351	-0.8303	25.03	0.03	-0.750			
0.1620	10368.61	3.9320	3.9320	-0.8470	25.03	0.03	-0.750			
0.1646	10532.94	3.9290	3.9289	-0.8571	25.03	0.03	-0.750			
0.1672	10701.01	3.9260	3.9260	-0.8669	25.04	0.04	-0.750			
0.1699	10870.64	3.9230	3.9231	-0.8671	25.04	0.04	-0.750			
0.1725	11038.47	3.9200	3.9199	-0.8702	25.05	0.05	-0.750			
0.1751	11204.63	3.9170	3.9170	-0.8611	25.05	0.05	-0.750			
0.1776	11368.53	3.9140	3.9140	-0.8540	25.05	0.05	-0.750			
0.1802	11532.95	3.9110	3.9109	-0.8549	25.06	0.06	-0.750			
0.1828	11696.64	3.9080	3.9079	-0.8502	25.06	0.06	-0.750			
0.1853	11858.55	3.9050	3.9050	-0.8552	25.07	0.07	-0.750			
0.1879	12023.23	3.9020	3.9020	-0.8554	25.07	0.07	-0.750			
0.1904	12186.34	3.8990	3.8990	-0.8494	25.07	0.07	-0.750			
0.1930	12351.96	3.8960	3.8961	-0.8581	25.08	0.08	-0.750			
0.1956	12516.80	3.8930	3.8930	-0.8579	25.08	0.08	-0.750			
0.1981	12681.35	3.8900	3.8899	-0.8610	25.09	0.09	-0.750			
0.2008	12848.94	3.8870	3.8869	-0.8583	25.09	0.09	-0.750			
0.2033	13012.19	3.8840	3.8840	-0.8553	25.10	0.10	-0.750			
0.2059	13178.24	3.8810	3.8813	-0.8650	25.10	0.10	-0.750			
0.2084	13340.65	3.8780	3.8780	-0.8843	25.10	0.10	-0.750			
0.2111	13511.43	3.8750	3.8748	-0.8704	25.11	0.11	-0.750			
0.2138	13681.11	3.8720	3.8719	-0.8708	25.11	0.11	-0.750			
0.2164	13850.99	3.8690	3.8688	-0.8768	25.12	0.12	-0.750			
0.2190	14018.20	3.8660	3.8664	-0.8723	25.12	0.12	-0.750			
0.2216	14181.97	3.8630	3.8628	-0.8732	25.12	0.12	-0.750			
0.2242	14349.98	3.8600	3.8599	-0.8669	25.12	0.12	-0.750			
0.2269	14518.77	3.8570	3.8569	-0.8731	25.13	0.13	-0.750			
0.2294	14684.36	3.8540	3.8540	-0.8720	25.13	0.13	-0.750			
0.2321	14852.84	3.8510	3.8511	-0.8663	25.13	0.13	-0.750			
0.2346	15017.35	3.8480	3.8478	-0.8673	25.14	0.14	-0.750			
0.2372	15181.66	3.8450	3.8450	-0.8616	25.14	0.14	-0.750			
0.2398	15347.16	3.8420	3.8420	-0.8536	25.14	0.14	-0.750			
0.2424	15514.46	3.8390	3.8388	-0.8628	25.15	0.15	-0.750			
0.2450	15679.88	3.8360	3.8359	-0.8642	25.15	0.15	-0.750			
0.2476	15843.84	3.8330	3.8328	-0.8677	25.16	0.16	-0.750			
0.2502	16014.44	3.8300	3.8299	-0.8621	25.16	0.16	-0.750			
0.2528	16178.02	3.8270	3.8270	-0.8511	25.16	0.16	-0.750			
0.2554	16345.88	3.8240	3.8241	-0.8624	25.17	0.17	-0.750			
0.2580	16510.40	3.8210	3.8208	-0.8677	25.17	0.17	-0.750			
0.2605	16673.46	3.8180	3.8178	-0.8661	25.17	0.17	-0.750			
0.2632	16843.44	3.8150	3.8149	-0.8597	25.18	0.18	-0.750			
0.2658	17013.37	3.8120	3.8120	-0.8701	25.18	0.18	-0.750			
0.2684	17179.66	3.8090	3.8094	-0.8571	25.18	0.18	-0.750			
0.2710	17342.18	3.8060	3.8060	-0.8404	25.18	0.18	-0.750			
0.2734	17497.12	3.8030	3.8028	-0.8313	25.19	0.19	-0.750			
0.2759	17656.32	3.8000	3.7999	-0.8221	25.19	0.19	-0.750			
0.2784	17815.51	3.7970	3.7969	-0.8216	25.20	0.20	-0.750			
0.2808	17972.12	3.7940	3.7944	-0.8150	25.20	0.20	-0.750			
0.2833	18128.12	3.7910	3.7910	-0.8104	25.20	0.20	-0.750			
0.2857	18283.22	3.7880	3.7879	-0.8141	25.21	0.21	-0.750			
0.2881	18436.92	3.7850	3.7849	-0.8069	25.21	0.21	-0.750			
0.2905	18594.50	3.7820	3.7819	-0.8081	25.22	0.22	-0.750			
0.2930	18750.19	3.7790	3.7793	-0.8046	25.22	0.22	-0.750			
0.2954	18904.61	3.7760	3.7759	-0.8007	25.22	0.22	-0.750			
0.2977	19055.46	3.7730	3.7729	-0.7983	25.23	0.23	-0.750			
0.3001	19207.44	3.7700	3.7700	-0.7914	25.24	0.24	-0.750			
0.3025	19356.95	3.7670	3.7669	-0.7848	25.24	0.24	-0.750			
0.3049	19511.36	3.7640	3.7640	-0.7927	25.25	0.25	-0.750			
0.3072	19663.13	3.7610	3.7610	-0.7937	25.25	0.25	-0.750			
0.3096	19814.02	3.7580	3.7580	-0.7965	25.26	0.26	-0.750			
0.3120	19966.82	3.7550	3.7549	-0.7999	25.26	0.26	-0.750			
0.3144	20119.58	3.7520	3.7520	-0.7999	25.26	0.26	-0.750			
0.3168	20275.11	3.7490	3.7490	-0.8134	25.27	0.27	-0.750			
0.3192	20431.39	3.7460	3.7461	-0.8224	25.27	0.27	-0.750			
0.3217	20590.19	3.7430	3.7431	-0.8295	25.27	0.27	-0.750			
0.3243	20752.27	3.7400	3.7399	-0.8440	25.27	0.27	-0.750			
0.3268	20916.03	3.7370	3.7370	-0.8540	25.27	0.27	-0.750			
0.3294	21082.57	3.7340	3.7339	-0.8634	25.27	0.27	-0.750			
0.3320	21248.35	3.7310	3.7310	-0.8748	25.27	0.27	-0.750			
0.3346	21415.10	3.7280	3.7279	-0.8837	25.27	0.27	-0.750			
0.3373	21586.18	3.7250	3.7249	-0.8941	25.27	0.27	-0.750			
0.3399	21755.24	3.7220	3.7220	-0.9024	25.28	0.28	-0.750			
0.3428	21936.39	3.7190	3.7190	-0.9215	25.28	0.28	-0.750			
0.3455	22111.36	3.7160	3.7159	-0.9443	25.28	0.28	-0.750			
0.3484	22294.92	3.7130	3.7130	-0.9610	25.28	0.28	-0.750			
0.3512	22475.49	3.7100	3.7101	-0.9892	25.27	0.27	-0.750			
0.3542	22671.75	3.7070	3.7069	-1.0058	25.27	0.27	-0.750			
0.3574	22870.84	3.7040	3.7040	-1.0399	25.27	0.27	-0.750			
0.3606	23075.48	3.7010	3.7010	-1.0492	25.27	0.27	-0.750	0.368	0.490	
0.3638	23283.30	3.6980	3.6977	-1.0608	25.27	0.27	-0.750			
0.3669	23482.72	3.6950	3.6950	-1.0641	25.27	0.27	-0.750			
0.3702	23691.02	3.6920	3.6919	-1.0816	25.27	0.27	-0.750			
0.3733	23892.60	3.6890	3.6889	-1.0899	25.27	0.27	-0.750			
0.3767	24106.76	3.6860	3.6859	-1.1166	25.26	0.26	-0.750			
0.3800	24317.53	3.6830	3.6833	-1.1311	25.26	0.26	-0.750			
0.3835	24544.84	3.6800	3.6798	-1.1737	25.25	0.25	-0.750			
0.3870	24770.94	3.6770	3.6769	-1.1897	25.25	0.25	-0.750			
0.3906	24999.19	3.6740	3.6740	-1.2195	25.24	0.24	-0.750			
0.3943	25237.87	3.6710	3.6711	-1.2464	25.23	0.23	-0.750			
0.3982	25484.25	3.6680	3.6679	-1.2773	25.23	0.23	-0.750			
0.4021	25735.16	3.6650	3.6649	-1.2961	25.22	0.22	-0.750			
0.4061	25993.10	3.6620	3.6625	-1.2991	25.22	0.22	-0.750			
0.4102	26253.37	3.6590	3.6591	-1.2686	25.22	0.22	-0.750			
0.4139	26490.92	3.6560	3.6559	-1.2445	25.21	0.21	-0.750			
0.4175	26718.87	3.6530	3.6534	-1.2266	25.21	0.21	-0.750			
0.4210	26944.38	3.6500	3.6494	-1.2895	25.20	0.20	-0.750			
0.4245	27167.86	3.6470	3.6469	-1.3418	25.20	0.20	-0.750			
0.4287	27439.28	3.6440	3.6439	-1.4085	25.19	0.19	-0.750			
0.4333	27729.22	3.6410	3.6407	-1.4596	25.18	0.18	-0.750			
0.4380	28033.88	3.6380	3.6381	-1.5561	25.17	0.17	-0.750			
0.4427	28334.55	3.6350	3.6354	-1.5745	25.16	0.16	-0.750			
0.4475	28641.18	3.6320	3.6317	-1.5734	25.15	0.15	-0.750			
0.4522	28939.80	3.6290	3.6291	-1.5800	25.15	0.15	-0.750			
0.4570	29248.63	3.6260	3.6261	-1.6204	25.14	0.14	-0.750			
0.4618	29556.17	3.6230	3.6232	-1.6897	25.13	0.13	-0.750			
0.4669	29883.24	3.6200	3.6203	-1.7267	25.12	0.12	-0.750			
0.4721	30214.53	3.6170	3.6167	-1.7364	25.11	0.11	-0.750			
0.4776	30564.10	3.6140	3.6137	-1.7583	25.11	0.11	-0.750			
0.4830	30909.82	3.6110	3.6107	-1.7890	25.10	0.10	-0.750			
0.4884	31259.80	3.6080	3.6077	-1.8222	25.09	0.09	-0.750			
0.4937	31597.41	3.6050	3.6052	-1.8483	25.09	0.09	-0.750			
0.4992	31947.19	3.6020	3.6027	-1.8895	25.09	0.09	-0.750			
0.5054	32343.31	3.5990	3.5986	-1.9700	25.08	0.08	-0.750			
0.5112	32718.89	3.5960	3.5962	-2.0389	25.08	0.08	-0.750			
0.5174	33115.57	3.5930	3.5933	-2.0164	25.07	0.07	-0.750			
0.5235	33504.84	3.5900	3.5902	-2.0750	25.07	0.07	-0.750			
0.5298	33904.98	3.5870	3.5866	-2.0963	25.06	0.06	-0.750			
0.5361	34307.53	3.5840	3.5844	-2.1906	25.05	0.05	-0.750			
0.5430	34752.69	3.5810	3.5806	-2.1721	25.04	0.04	-0.750			
0.5495	35169.71	3.5780	3.5779	-2.2474	25.04	0.04	-0.750			
0.5561	35589.09	3.5750	3.5757	-2.2505	25.04	0.04	-0.750			
0.5625	36001.61	3.5720	3.5717	-2.2325	25.04	0.04	-0.750			
0.5693	36436.58	3.5690	3.5691	-2.2988	25.04	0.04	-0.750			
0.5762	36877.82	3.5660	3.5657	-2.3266	25.03	0.03	-0.750			
0.5830	37310.24	3.5630	3.5625	-2.2255	25.03	0.03	-0.750			
0.5900	37760.58	3.5600	3.5598	-2.2915	25.04	0.04	-0.750			
0.5967	38189.31	3.5570	3.5568	-2.2233	25.04	0.04	-0.750			
0.6035	38621.42	3.5540	3.5540	-2.2685	25.04	0.04	-0.750			
0.6101	39046.51	3.5510	3.5508	-2.2115	25.04	0.04	-0.750			
0.6169	39480.45	3.5480	3.5484	-2.2031	25.04	0.04	-0.750			
0.6234	39898.59	3.5450	3.5445	-2.1440	25.04	0.04	-0.750			
0.6298	40308.62	3.5420	3.5418	-2.0715	25.04	0.04	-0.750			
0.6359	40699.16	3.5390	3.5394	-2.0213	25.04	0.04	-0.750			
0.6420	41087.53	3.5360	3.5362	-2.0297	25.05	0.05	-0.750			
0.6480	41471.82	3.5330	3.5334	-2.0250	25.05	0.05	-0.750			
0.6540	41858.66	3.5300	3.5299	-1.9929	25.06	0.06	-0.750			
0.6601	42244.14	3.5270	3.5268	-1.9038	25.07	0.07	-0.750			
0.6659	42615.75	3.5240	3.5240	-1.8578	25.08	0.08	-0.750			
0.6714	42972.74	3.5210	3.5210	-1.8156	25.08	0.08	-0.750			
0.6766	43302.78	3.5180	3.5182	-1.7253	25.09	0.09	-0.750			
0.6815	43613.57	3.5150	3.5152	-1.6569	25.10	0.10	-0.750			
0.6863	43923.09	3.5120	3.5118	-1.6182	25.12	0.12	-0.750			
0.6912	44234.54	3.5090	3.5090	-1.6121	25.13	0.13	-0.750			
0.6961	44553.32	3.5060	3.5057	-1.5607	25.15	0.15	-0.750			
0.7010	44861.19	3.5030	3.5026	-1.5565	25.16	0.16	-0.750			
0.7055	45154.56	3.5000	3.5007	-1.4946	25.18	0.18	-0.750			
0.7101	45444.60	3.4970	3.4965	-1.4346	25.19	0.19	-0.750			
0.7143	45716.13	3.4940	3.4942	-1.3538	25.21	0.21	-0.750			
0.7183	45969.62	3.4910	3.4913	-1.2551	25.22	0.22	-0.750			
0.7219	46199.69	3.4880	3.4879	-1.0523	25.23	0.23	-0.750			
