Ah_balance (normalized)	Ah_balance (mAh)	Voltage - fit (V)	Voltage -  interpolate (V)	dQ/dV (1/V)	Temperature (°C)	Temperature - diff (°C)	Current (C)	R_DC 0ms (mOhm)	R_DC 50ms (mOhm)	R_DC 50 ms PEC (mOhm)
0.0005	30.09	4.1620	4.1624	-0.1847	24.56	0.02	-0.750			
0.0010	66.85	4.1590	4.1590	-0.2149	24.55	0.01	-0.750			
0.0018	112.74	4.1560	4.1559	-0.2520	24.55	0.01	-0.750			
0.0026	163.99	4.1530	4.1530	-0.2912	24.55	0.01	-0.750			
0.0035	223.01	4.1500	4.1501	-0.3286	24.55	0.01	-0.750			
0.0045	290.93	4.1470	4.1469	-0.3668	24.55	0.01	-0.750			
0.0057	365.09	4.1440	4.1441	-0.4043	24.55	0.01	-0.750			
0.0070	446.23	4.1410	4.1410	-0.4394	24.55	0.01	-0.750			
0.0083	534.13	4.1380	4.1380	-0.4741	24.54	0.00	-0.750			
0.0098	629.27	4.1350	4.1353	-0.5097	24.54	0.00	-0.750			
0.0114	730.30	4.1320	4.1317	-0.5357	24.54	-0.00	-0.750			
0.0131	838.01	4.1290	4.1290	-0.5632	24.54	-0.00	-0.750			
0.0148	949.98	4.1260	4.1260	-0.5842	24.53	-0.01	-0.750			
0.0166	1064.36	4.1230	4.1229	-0.6065	24.53	-0.01	-0.750			
0.0185	1183.76	4.1200	4.1200	-0.6228	24.53	-0.01	-0.750			
0.0204	1305.46	4.1170	4.1170	-0.6322	24.52	-0.02	-0.750			
0.0223	1428.52	4.1140	4.1140	-0.6443	24.52	-0.02	-0.750			
0.0243	1552.87	4.1110	4.1111	-0.6598	24.52	-0.02	-0.750			
0.0262	1679.85	4.1080	4.1079	-0.6700	24.51	-0.03	-0.750			
0.0283	1809.81	4.1050	4.1050	-0.6814	24.51	-0.03	-0.750			
0.0303	1941.90	4.1020	4.1020	-0.6896	24.51	-0.03	-0.750			
0.0325	2078.41	4.0990	4.0991	-0.7005	24.50	-0.04	-0.750			
0.0346	2213.55	4.0960	4.0960	-0.7070	24.50	-0.04	-0.750			
0.0367	2349.55	4.0930	4.0929	-0.7079	24.50	-0.04	-0.750			
0.0388	2484.93	4.0900	4.0899	-0.7102	24.50	-0.04	-0.750			
0.0409	2620.77	4.0870	4.0870	-0.7232	24.50	-0.04	-0.750			
0.0432	2762.30	4.0840	4.0840	-0.7226	24.50	-0.04	-0.750			
0.0454	2903.76	4.0810	4.0808	-0.7291	24.50	-0.04	-0.750			
0.0475	3042.43	4.0780	4.0785	-0.7345	24.50	-0.04	-0.750			
0.0497	3182.13	4.0750	4.0749	-0.7368	24.50	-0.04	-0.750			
0.0519	3323.71	4.0720	4.0719	-0.7454	24.50	-0.04	-0.750			
0.0542	3467.99	4.0690	4.0689	-0.7388	24.50	-0.04	-0.750			
0.0564	3612.26	4.0660	4.0661	-0.7495	24.50	-0.04	-0.750			
0.0587	3756.74	4.0630	4.0629	-0.7504	24.50	-0.04	-0.750			
0.0609	3899.20	4.0600	4.0600	-0.7476	24.50	-0.04	-0.750			
0.0631	4038.38	4.0570	4.0570	-0.7568	24.50	-0.04	-0.750			
0.0654	4183.31	4.0540	4.0541	-0.7591	24.50	-0.04	-0.750			
0.0677	4333.56	4.0510	4.0509	-0.7561	24.50	-0.04	-0.750			
0.0700	4482.48	4.0480	4.0478	-0.7670	24.50	-0.04	-0.750			
0.0723	4628.33	4.0450	4.0451	-0.7653	24.50	-0.04	-0.750			
0.0746	4776.33	4.0420	4.0419	-0.7619	24.50	-0.04	-0.750			
0.0768	4917.29	4.0390	4.0388	-0.7740	24.50	-0.04	-0.750			
0.0792	5067.32	4.0360	4.0360	-0.7697	24.50	-0.04	-0.750			
0.0815	5217.00	4.0330	4.0330	-0.7779	24.50	-0.04	-0.750			
0.0839	5367.34	4.0300	4.0298	-0.7801	24.50	-0.04	-0.750			
0.0862	5516.25	4.0270	4.0269	-0.7774	24.50	-0.04	-0.750			
0.0885	5665.87	4.0240	4.0239	-0.7770	24.50	-0.04	-0.750			
0.0909	5815.36	4.0210	4.0209	-0.7787	24.50	-0.04	-0.750			
0.0932	5964.49	4.0180	4.0180	-0.7827	24.50	-0.04	-0.750			
0.0955	6114.24	4.0150	4.0149	-0.7803	24.50	-0.04	-0.750			
0.0979	6263.09	4.0120	4.0123	-0.7810	24.50	-0.04	-0.750			
0.1002	6412.46	4.0090	4.0089	-0.7829	24.50	-0.04	-0.750			
0.1025	6562.06	4.0060	4.0060	-0.7905	24.51	-0.03	-0.750			
0.1049	6714.81	4.0030	4.0029	-0.7975	24.51	-0.03	-0.750			
0.1074	6871.56	4.0000	4.0000	-0.8010	24.52	-0.02	-0.750			
0.1098	7025.76	3.9970	3.9973	-0.7954	24.52	-0.02	-0.750			
0.1122	7177.73	3.9940	3.9939	-0.7960	24.52	-0.02	-0.750			
0.1145	7330.70	3.9910	3.9909	-0.7984	24.52	-0.02	-0.750			
0.1169	7481.15	3.9880	3.9879	-0.7943	24.52	-0.02	-0.750			
0.1193	7633.68	3.9850	3.9850	-0.7929	24.52	-0.02	-0.750			
0.1217	7787.80	3.9820	3.9822	-0.8045	24.52	-0.02	-0.750			
0.1241	7943.93	3.9790	3.9787	-0.8055	24.52	-0.02	-0.750			
0.1265	8098.17	3.9760	3.9759	-0.8064	24.53	-0.01	-0.750			
0.1289	8251.05	3.9730	3.9730	-0.8081	24.53	-0.01	-0.750			
0.1313	8404.33	3.9700	3.9701	-0.8098	24.53	-0.01	-0.750			
0.1338	8565.95	3.9670	3.9669	-0.8165	24.54	-0.00	-0.750			
0.1363	8723.81	3.9640	3.9640	-0.8139	24.54	0.00	-0.750			
0.1387	8876.27	3.9610	3.9611	-0.8187	24.54	0.00	-0.750			
0.1412	9036.49	3.9580	3.9580	-0.8248	24.54	0.00	-0.750			
0.1437	9193.92	3.9550	3.9549	-0.8233	24.54	0.00	-0.750			
0.1461	9352.89	3.9520	3.9518	-0.8220	24.54	0.00	-0.750			
0.1486	9512.83	3.9490	3.9490	-0.8180	24.54	0.00	-0.750			
0.1510	9666.91	3.9460	3.9461	-0.8309	24.55	0.01	-0.750			
0.1536	9828.99	3.9430	3.9429	-0.8261	24.55	0.01	-0.750			
0.1561	9989.63	3.9400	3.9398	-0.7965	24.55	0.01	-0.750			
0.1585	10145.47	3.9370	3.9369	-0.7818	24.56	0.02	-0.750			
0.1608	10293.30	3.9340	3.9345	-0.7652	24.56	0.02	-0.750			
0.1630	10433.02	3.9310	3.9311	-0.7612	24.56	0.02	-0.750			
0.1651	10568.69	3.9280	3.9277	-0.7653	24.56	0.02	-0.750			
0.1673	10707.88	3.9250	3.9251	-0.7737	24.56	0.02	-0.750			
0.1698	10867.27	3.9220	3.9218	-0.8090	24.56	0.02	-0.750			
0.1724	11033.98	3.9190	3.9191	-0.8430	24.56	0.02	-0.750			
0.1749	11193.44	3.9160	3.9162	-0.8632	24.56	0.02	-0.750			
0.1775	11363.02	3.9130	3.9131	-0.8608	24.56	0.02	-0.750			
0.1802	11530.18	3.9100	3.9098	-0.8565	24.57	0.03	-0.750			
0.1827	11691.88	3.9070	3.9068	-0.8483	24.57	0.03	-0.750			
0.1853	11856.11	3.9040	3.9049	-0.8563	24.57	0.03	-0.750			
0.1878	12020.48	3.9010	3.9010	-0.8470	24.57	0.03	-0.750			
0.1904	12186.51	3.8980	3.8978	-0.8571	24.57	0.03	-0.750			
0.1930	12350.18	3.8950	3.8950	-0.8511	24.58	0.04	-0.750			
0.1956	12515.34	3.8920	3.8918	-0.8591	24.58	0.04	-0.750			
0.1981	12678.13	3.8890	3.8895	-0.8608	24.58	0.04	-0.750			
0.2006	12841.40	3.8860	3.8858	-0.8669	24.58	0.04	-0.750			
0.2032	13007.88	3.8830	3.8829	-0.8677	24.58	0.04	-0.750			
0.2058	13171.70	3.8800	3.8799	-0.8634	24.59	0.05	-0.750			
0.2085	13346.42	3.8770	3.8771	-0.8839	24.59	0.05	-0.750			
0.2112	13517.58	3.8740	3.8740	-0.8857	24.59	0.05	-0.750			
0.2139	13687.04	3.8710	3.8709	-0.8819	24.60	0.06	-0.750			
0.2165	13855.42	3.8680	3.8679	-0.8709	24.60	0.06	-0.750			
0.2191	14022.31	3.8650	3.8650	-0.8686	24.60	0.06	-0.750			
0.2217	14190.79	3.8620	3.8618	-0.8650	24.61	0.07	-0.750			
0.2242	14348.18	3.8590	3.8590	-0.8837	24.61	0.07	-0.750			
0.2269	14521.50	3.8560	3.8559	-0.8799	24.61	0.07	-0.750			
0.2296	14693.18	3.8530	3.8528	-0.8728	24.62	0.08	-0.750			
0.2322	14861.67	3.8500	3.8500	-0.8709	24.62	0.08	-0.750			
0.2349	15032.34	3.8470	3.8476	-0.8736	24.62	0.08	-0.750			
0.2375	15197.89	3.8440	3.8438	-0.8658	24.62	0.08	-0.750			
0.2400	15362.28	3.8410	3.8408	-0.8675	24.63	0.09	-0.750			
0.2426	15526.90	3.8380	3.8380	-0.8586	24.63	0.09	-0.750			
0.2453	15696.46	3.8350	3.8348	-0.8677	24.64	0.10	-0.750			
0.2478	15861.53	3.8320	3.8323	-0.8667	24.64	0.10	-0.750			
0.2504	16027.07	3.8290	3.8289	-0.8612	24.64	0.10	-0.750			
0.2530	16193.12	3.8260	3.8258	-0.8632	24.65	0.11	-0.750			
0.2556	16357.87	3.8230	3.8230	-0.8550	24.65	0.11	-0.750			
0.2582	16524.48	3.8200	3.8200	-0.8588	24.66	0.12	-0.750			
0.2608	16689.48	3.8170	3.8172	-0.8557	24.66	0.12	-0.750			
0.2633	16852.88	3.8140	3.8139	-0.8504	24.66	0.12	-0.750			
0.2659	17016.51	3.8110	3.8109	-0.8526	24.66	0.12	-0.750			
0.2684	17179.29	3.8080	3.8078	-0.8422	24.67	0.13	-0.750			
0.2710	17346.12	3.8050	3.8049	-0.8459	24.67	0.13	-0.750			
0.2736	17508.44	3.8020	3.8019	-0.8388	24.67	0.13	-0.750			
0.2760	17664.74	3.7990	3.7989	-0.8389	24.68	0.14	-0.750			
0.2785	17825.90	3.7960	3.7959	-0.8317	24.68	0.14	-0.750			
0.2810	17981.62	3.7930	3.7929	-0.8147	24.68	0.14	-0.750			
0.2835	18143.99	3.7900	3.7900	-0.8219	24.69	0.15	-0.750			
0.2860	18301.30	3.7870	3.7871	-0.8166	24.69	0.15	-0.750			
0.2883	18453.46	3.7840	3.7840	-0.8200	24.69	0.15	-0.750			
0.2908	18611.19	3.7810	3.7809	-0.8072	24.69	0.15	-0.750			
0.2932	18764.07	3.7780	3.7779	-0.8023	24.70	0.16	-0.750			
0.2957	18922.66	3.7750	3.7749	-0.8061	24.70	0.16	-0.750			
0.2981	19078.57	3.7720	3.7724	-0.8061	24.70	0.16	-0.750			
0.3005	19230.93	3.7690	3.7688	-0.7967	24.70	0.16	-0.750			
0.3028	19379.89	3.7660	3.7661	-0.7981	24.71	0.17	-0.750			
0.3052	19532.17	3.7630	3.7629	-0.7898	24.71	0.17	-0.750			
0.3077	19690.05	3.7600	3.7599	-0.8060	24.72	0.18	-0.750			
0.3101	19844.74	3.7570	3.7569	-0.8031	24.72	0.18	-0.750			
0.3125	19998.74	3.7540	3.7540	-0.8056	24.72	0.18	-0.750			
0.3149	20153.25	3.7510	3.7509	-0.8136	24.72	0.18	-0.750			
0.3173	20307.83	3.7480	3.7480	-0.8125	24.73	0.19	-0.750			
0.3197	20463.04	3.7450	3.7449	-0.8237	24.73	0.19	-0.750			
0.3222	20622.67	3.7420	3.7422	-0.8338	24.73	0.19	-0.750			
0.3247	20779.28	3.7390	3.7390	-0.8543	24.73	0.19	-0.750			
0.3273	20946.15	3.7360	3.7359	-0.8664	24.73	0.19	-0.750			
0.3299	21115.46	3.7330	3.7330	-0.8703	24.74	0.20	-0.750			
0.3326	21283.41	3.7300	3.7298	-0.8830	24.74	0.20	-0.750			
0.3353	21458.05	3.7270	3.7277	-0.8967	24.74	0.20	-0.750			
0.3379	21628.74	3.7240	3.7239	-0.9104	24.74	0.20	-0.750			
0.3407	21804.50	3.7210	3.7209	-0.9154	24.74	0.20	-0.750			
0.3434	21979.35	3.7180	3.7180	-0.9254	24.75	0.21	-0.750			
0.3462	22158.11	3.7150	3.7149	-0.9474	24.75	0.21	-0.750			
0.3491	22342.17	3.7120	3.7119	-0.9614	24.75	0.21	-0.750			
0.3519	22524.14	3.7090	3.7089	-0.9942	24.75	0.21	-0.750			
0.3550	22720.72	3.7060	3.7060	-1.0143	24.74	0.20	-0.750			
0.3581	22917.67	3.7030	3.7028	-1.0312	24.74	0.20	-0.750			
0.3613	23120.50	3.7000	3.7001	-1.0569	24.74	0.20	-0.750			
0.3645	23327.48	3.6970	3.6977	-1.0598	24.73	0.19	-0.750	0.409	0.523	
0.3677	23531.12	3.6940	3.6939	-1.0668	24.73	0.19	-0.750			
0.3708	23731.92	3.6910	3.6907	-1.0704	24.72	0.18	-0.750			
0.3741	23939.22	3.6880	3.6878	-1.1185	24.72	0.18	-0.750			
0.3775	24160.68	3.6850	3.6848	-1.1376	24.72	0.18	-0.750			
0.3810	24381.19	3.6820	3.6817	-1.1591	24.71	0.17	-0.750			
0.3844	24604.41	3.6790	3.6794	-1.1708	24.71	0.17	-0.750			
0.3881	24840.29	3.6760	3.6759	-1.2029	24.71	0.17	-0.750			
0.3917	25070.70	3.6730	3.6728	-1.2120	24.70	0.16	-0.750			
0.3953	25298.19	3.6700	3.6700	-1.2474	24.69	0.15	-0.750			
0.3991	25541.22	3.6670	3.6669	-1.2586	24.69	0.15	-0.750			
0.4030	25788.92	3.6640	3.6639	-1.2639	24.69	0.15	-0.750			
0.4067	26031.47	3.6610	3.6610	-1.2702	24.68	0.14	-0.750			
0.4105	26272.87	3.6580	3.6585	-1.2961	24.68	0.14	-0.750			
0.4145	26525.83	3.6550	3.6547	-1.3299	24.68	0.14	-0.750			
0.4184	26775.17	3.6520	3.6519	-1.3522	24.67	0.13	-0.750			
0.4225	27037.37	3.6490	3.6489	-1.3918	24.67	0.13	-0.750			
0.4268	27312.67	3.6460	3.6460	-1.4745	24.66	0.12	-0.750			
0.4313	27605.32	3.6430	3.6429	-1.4996	24.66	0.12	-0.750			
0.4359	27895.67	3.6400	3.6400	-1.5308	24.65	0.11	-0.750			
0.4406	28195.41	3.6370	3.6365	-1.5716	24.65	0.11	-0.750			
0.4453	28501.01	3.6340	3.6338	-1.5884	24.64	0.10	-0.750			
0.4501	28806.32	3.6310	3.6307	-1.6094	24.64	0.10	-0.750			
0.4549	29116.71	3.6280	3.6277	-1.6189	24.63	0.09	-0.750			
0.4596	29416.47	3.6250	3.6249	-1.6185	24.62	0.08	-0.750			
0.4646	29733.44	3.6220	3.6217	-1.6701	24.62	0.08	-0.750			
0.4698	30066.89	3.6190	3.6185	-1.7076	24.62	0.08	-0.750			
0.4750	30398.01	3.6160	3.6157	-1.7321	24.62	0.08	-0.750			
0.4804	30746.03	3.6130	3.6127	-1.7772	24.62	0.08	-0.750			
0.4857	31086.03	3.6100	3.6102	-1.7967	24.62	0.08	-0.750			
0.4912	31437.65	3.6070	3.6068	-1.8252	24.61	0.07	-0.750			
0.4967	31785.83	3.6040	3.6037	-1.8829	24.60	0.06	-0.750			
0.5025	32157.81	3.6010	3.6014	-1.9014	24.60	0.06	-0.750			
0.5084	32537.76	3.5980	3.5978	-1.9626	24.59	0.05	-0.750			
0.5143	32918.12	3.5950	3.5948	-2.0234	24.59	0.05	-0.750			
0.5206	33317.89	3.5920	3.5917	-2.0558	24.58	0.04	-0.750			
0.5267	33711.48	3.5890	3.5891	-2.0828	24.58	0.04	-0.750			
0.5332	34124.69	3.5860	3.5864	-2.1202	24.58	0.04	-0.750			
0.5395	34526.55	3.5830	3.5829	-2.1790	24.58	0.04	-0.750			
0.5459	34937.43	3.5800	3.5804	-2.1630	24.58	0.04	-0.750			
0.5524	35352.73	3.5770	3.5769	-2.2280	24.58	0.04	-0.750			
0.5595	35809.54	3.5740	3.5737	-2.2367	24.58	0.04	-0.750			
0.5662	36239.43	3.5710	3.5714	-2.2187	24.58	0.04	-0.750			
0.5732	36684.47	3.5680	3.5682	-2.2578	24.58	0.04	-0.750			
0.5800	37117.60	3.5650	3.5645	-2.2433	24.59	0.05	-0.750			
0.5862	37519.42	3.5620	3.5621	-2.2034	24.59	0.05	-0.750			
0.5932	37965.24	3.5590	3.5592	-2.2633	24.60	0.06	-0.750			
0.6001	38403.63	3.5560	3.5556	-2.2890	24.60	0.06	-0.750			
0.6070	38848.14	3.5530	3.5533	-2.3026	24.60	0.06	-0.750			
0.6138	39281.71	3.5500	3.5502	-2.2679	24.60	0.06	-0.750			
0.6203	39697.93	3.5470	3.5472	-2.1942	24.60	0.06	-0.750			
0.6266	40104.94	3.5440	3.5442	-2.1667	24.60	0.06	-0.750			
0.6333	40530.76	3.5410	3.5407	-2.1497	24.61	0.07	-0.750			
0.6399	40952.01	3.5380	3.5384	-2.1136	24.62	0.08	-0.750			
0.6460	41342.40	3.5350	3.5353	-2.0527	24.64	0.10	-0.750			
0.6521	41732.20	3.5320	3.5323	-2.0070	24.65	0.11	-0.750			
0.6579	42108.13	3.5290	3.5290	-1.9642	24.66	0.12	-0.750			
0.6638	42482.07	3.5260	3.5258	-1.9160	24.67	0.13	-0.750			
0.6696	42852.19	3.5230	3.5232	-1.8564	24.68	0.14	-0.750			
0.6752	43212.04	3.5200	3.5196	-1.8096	24.70	0.16	-0.750			
0.6804	43547.78	3.5170	3.5167	-1.7392	24.71	0.17	-0.750			
0.6854	43865.46	3.5140	3.5145	-1.6826	24.72	0.18	-0.750			
0.6905	44191.21	3.5110	3.5113	-1.6316	24.75	0.21	-0.750			
0.6952	44493.94	3.5080	3.5082	-1.5784	24.77	0.23	-0.750			
0.7000	44798.72	3.5050	3.5046	-1.5348	24.79	0.25	-0.750			
0.7046	45097.33	3.5020	3.5019	-1.4917	24.81	0.27	-0.750			
0.7091	45379.65	3.4990	3.4993	-1.4763	24.83	0.29	-0.750			
0.7134	45656.98	3.4960	3.4957	-1.4196	24.84	0.30	-0.750			
0.7174	45911.48	3.4930	3.4927	-1.3755	24.85	0.31	-0.750			
0.7216	46184.04	3.4900	3.4904	-1.3315	24.87	0.33	-0.750			
0.7256	46439.41	3.4870	3.4868	-1.3823	24.88	0.34	-0.750			
