Ah_balance (normalized)	Ah_balance (mAh)	Voltage - fit (V)	Voltage -  interpolate (V)	dQ/dV (1/V)	Temperature (°C)	Temperature - diff (°C)	Current (C)	R_DC 0ms (mOhm)	R_DC 50ms (mOhm)	R_DC 50 ms PEC (mOhm)
0.0004	26.55	4.1590	4.1590	-0.1371	25.42	0.02	-0.750			
0.0009	57.74	4.1560	4.1560	-0.1804	25.42	0.02	-0.750			
0.0015	96.24	4.1530	4.1529	-0.2211	25.41	0.01	-0.750			
0.0022	143.23	4.1500	4.1500	-0.2590	25.41	0.01	-0.750			
0.0031	195.59	4.1470	4.1471	-0.3034	25.41	0.01	-0.750			
0.0040	258.59	4.1440	4.1440	-0.3385	25.41	0.01	-0.750			
0.0051	328.17	4.1410	4.1409	-0.3738	25.41	0.01	-0.750			
0.0063	404.53	4.1380	4.1376	-0.4038	25.40	0.00	-0.750			
0.0076	485.29	4.1350	4.1353	-0.4387	25.40	-0.00	-0.750			
0.0089	572.44	4.1320	4.1320	-0.4666	25.40	-0.00	-0.750			
0.0104	665.40	4.1290	4.1290	-0.4950	25.39	-0.01	-0.750			
0.0119	760.34	4.1260	4.1260	-0.5172	25.39	-0.01	-0.750			
0.0135	865.02	4.1230	4.1230	-0.5571	25.38	-0.02	-0.750			
0.0153	977.75	4.1200	4.1199	-0.5756	25.38	-0.02	-0.750			
0.0171	1091.44	4.1170	4.1170	-0.5917	25.38	-0.02	-0.750			
0.0189	1207.17	4.1140	4.1141	-0.6044	25.37	-0.03	-0.750			
0.0207	1325.58	4.1110	4.1110	-0.6188	25.37	-0.03	-0.750			
0.0226	1444.98	4.1080	4.1079	-0.6262	25.37	-0.03	-0.750			
0.0244	1564.22	4.1050	4.1050	-0.6372	25.36	-0.04	-0.750			
0.0264	1690.66	4.1020	4.1020	-0.6571	25.36	-0.04	-0.750			
0.0285	1821.35	4.0990	4.0989	-0.6709	25.36	-0.04	-0.750			
0.0305	1953.55	4.0960	4.0957	-0.6736	25.35	-0.05	-0.750			
0.0326	2083.39	4.0930	4.0934	-0.6730	25.35	-0.05	-0.750			
0.0346	2211.84	4.0900	4.0899	-0.6772	25.35	-0.05	-0.750			
0.0366	2340.72	4.0870	4.0869	-0.6801	25.35	-0.05	-0.750			
0.0385	2465.18	4.0840	4.0840	-0.6823	25.35	-0.05	-0.750			
0.0407	2605.15	4.0810	4.0810	-0.7032	25.35	-0.05	-0.750			
0.0428	2742.07	4.0780	4.0779	-0.7068	25.35	-0.05	-0.750			
0.0450	2879.20	4.0750	4.0754	-0.7114	25.35	-0.05	-0.750			
0.0471	3015.98	4.0720	4.0719	-0.7127	25.35	-0.05	-0.750			
0.0492	3151.18	4.0690	4.0690	-0.7156	25.35	-0.05	-0.750			
0.0514	3286.66	4.0660	4.0661	-0.7173	25.35	-0.05	-0.750			
0.0536	3428.52	4.0630	4.0629	-0.7259	25.35	-0.05	-0.750			
0.0557	3567.37	4.0600	4.0600	-0.7238	25.35	-0.05	-0.750			
0.0579	3706.54	4.0570	4.0570	-0.7270	25.35	-0.05	-0.750			
0.0601	3845.26	4.0540	4.0539	-0.7290	25.35	-0.05	-0.750			
0.0623	3984.70	4.0510	4.0510	-0.7425	25.35	-0.05	-0.750			
0.0645	4128.74	4.0480	4.0479	-0.7499	25.35	-0.05	-0.750			
0.0668	4276.12	4.0450	4.0448	-0.7509	25.35	-0.05	-0.750			
0.0691	4421.77	4.0420	4.0418	-0.7488	25.35	-0.05	-0.750			
0.0713	4566.12	4.0390	4.0389	-0.7486	25.35	-0.05	-0.750			
0.0736	4708.41	4.0360	4.0359	-0.7458	25.35	-0.05	-0.750			
0.0758	4850.11	4.0330	4.0329	-0.7500	25.35	-0.05	-0.750			
0.0781	4997.53	4.0300	4.0298	-0.7560	25.36	-0.04	-0.750			
0.0803	5137.57	4.0270	4.0270	-0.7695	25.36	-0.04	-0.750			
0.0826	5285.46	4.0240	4.0245	-0.7885	25.36	-0.04	-0.750			
0.0850	5437.35	4.0210	4.0207	-0.8029	25.36	-0.04	-0.750			
0.0874	5594.16	4.0180	4.0176	-0.8137	25.36	-0.04	-0.750			
0.0899	5753.39	4.0150	4.0153	-0.8075	25.37	-0.03	-0.750			
0.0924	5915.48	4.0120	4.0121	-0.8164	25.37	-0.03	-0.750			
0.0949	6075.69	4.0090	4.0092	-0.8075	25.37	-0.03	-0.750			
0.0973	6224.56	4.0060	4.0058	-0.7796	25.37	-0.03	-0.750			
0.0995	6365.99	4.0030	4.0030	-0.7706	25.37	-0.03	-0.750			
0.1018	6514.04	4.0000	3.9999	-0.7684	25.38	-0.02	-0.750			
0.1041	6661.67	3.9970	3.9969	-0.7717	25.38	-0.02	-0.750			
0.1064	6809.42	3.9940	3.9941	-0.7743	25.38	-0.02	-0.750			
0.1087	6957.33	3.9910	3.9910	-0.7774	25.38	-0.02	-0.750			
0.1111	7107.28	3.9880	3.9879	-0.7874	25.38	-0.02	-0.750			
0.1134	7259.24	3.9850	3.9850	-0.7787	25.38	-0.02	-0.750			
0.1157	7407.18	3.9820	3.9820	-0.7794	25.39	-0.01	-0.750			
0.1181	7560.47	3.9790	3.9791	-0.7874	25.39	-0.01	-0.750			
0.1205	7711.23	3.9760	3.9759	-0.7835	25.39	-0.01	-0.750			
0.1228	7857.60	3.9730	3.9729	-0.7889	25.39	-0.01	-0.750			
0.1252	8010.51	3.9700	3.9701	-0.7926	25.40	-0.00	-0.750			
0.1276	8163.95	3.9670	3.9669	-0.7930	25.40	0.00	-0.750			
0.1300	8319.44	3.9640	3.9639	-0.8000	25.41	0.01	-0.750			
0.1324	8470.96	3.9610	3.9613	-0.7944	25.41	0.01	-0.750			
0.1347	8623.87	3.9580	3.9581	-0.7947	25.41	0.01	-0.750			
0.1371	8776.20	3.9550	3.9549	-0.8023	25.42	0.02	-0.750			
0.1395	8931.17	3.9520	3.9518	-0.7946	25.42	0.02	-0.750			
0.1420	9085.10	3.9490	3.9490	-0.7995	25.43	0.03	-0.750			
0.1443	9237.42	3.9460	3.9464	-0.7989	25.43	0.03	-0.750			
0.1468	9392.14	3.9430	3.9428	-0.7959	25.43	0.03	-0.750			
0.1491	9543.72	3.9400	3.9399	-0.8008	25.43	0.03	-0.750			
0.1515	9694.98	3.9370	3.9370	-0.7951	25.44	0.04	-0.750			
0.1539	9849.08	3.9340	3.9341	-0.8086	25.44	0.04	-0.750			
0.1563	10005.61	3.9310	3.9309	-0.8103	25.44	0.04	-0.750			
0.1588	10160.76	3.9280	3.9279	-0.8073	25.44	0.04	-0.750			
0.1612	10315.47	3.9250	3.9250	-0.8093	25.44	0.04	-0.750			
0.1636	10471.76	3.9220	3.9221	-0.8082	25.45	0.05	-0.750			
0.1660	10625.28	3.9190	3.9190	-0.8081	25.45	0.05	-0.750			
0.1685	10783.71	3.9160	3.9159	-0.8127	25.45	0.05	-0.750			
0.1709	10938.24	3.9130	3.9131	-0.8082	25.45	0.05	-0.750			
0.1733	11091.93	3.9100	3.9099	-0.8181	25.46	0.06	-0.750			
0.1758	11252.30	3.9070	3.9071	-0.8110	25.46	0.06	-0.750			
0.1782	11407.94	3.9040	3.9038	-0.8074	25.46	0.06	-0.750			
0.1807	11562.51	3.9010	3.9009	-0.8075	25.47	0.07	-0.750			
0.1831	11716.19	3.8980	3.8981	-0.8049	25.47	0.07	-0.750			
0.1855	11869.79	3.8950	3.8949	-0.8113	25.47	0.07	-0.750			
0.1879	12025.82	3.8920	3.8919	-0.8093	25.47	0.07	-0.750			
0.1903	12179.60	3.8890	3.8891	-0.8068	25.48	0.08	-0.750			
0.1928	12341.80	3.8860	3.8860	-0.8094	25.48	0.08	-0.750			
0.1953	12497.23	3.8830	3.8833	-0.8009	25.48	0.08	-0.750			
0.1976	12648.27	3.8800	3.8800	-0.7980	25.48	0.08	-0.750			
0.2000	12799.33	3.8770	3.8769	-0.7898	25.48	0.08	-0.750			
0.2023	12948.94	3.8740	3.8739	-0.7920	25.49	0.09	-0.750			
0.2047	13101.21	3.8710	3.8710	-0.7951	25.49	0.09	-0.750			
0.2071	13255.99	3.8680	3.8682	-0.7947	25.49	0.09	-0.750			
0.2095	13410.94	3.8650	3.8650	-0.7934	25.49	0.09	-0.750			
0.2119	13561.76	3.8620	3.8621	-0.7922	25.50	0.10	-0.750			
0.2143	13712.39	3.8590	3.8590	-0.7908	25.50	0.10	-0.750			
0.2166	13865.28	3.8560	3.8559	-0.7859	25.51	0.11	-0.750			
0.2190	14015.21	3.8530	3.8528	-0.7761	25.51	0.11	-0.750			
0.2213	14163.79	3.8500	3.8500	-0.7768	25.51	0.11	-0.750			
0.2236	14312.03	3.8470	3.8471	-0.7764	25.51	0.11	-0.750			
0.2260	14461.56	3.8440	3.8439	-0.7707	25.51	0.11	-0.750			
0.2282	14605.89	3.8410	3.8410	-0.7661	25.52	0.12	-0.750			
0.2305	14754.80	3.8380	3.8381	-0.7627	25.52	0.12	-0.750			
0.2329	14902.63	3.8350	3.8351	-0.7623	25.52	0.12	-0.750			
0.2351	15048.54	3.8320	3.8320	-0.7611	25.52	0.12	-0.750			
0.2374	15192.58	3.8290	3.8291	-0.7615	25.52	0.12	-0.750			
0.2397	15338.65	3.8260	3.8259	-0.7593	25.53	0.13	-0.750			
0.2420	15487.25	3.8230	3.8229	-0.7592	25.53	0.13	-0.750			
0.2442	15631.66	3.8200	3.8200	-0.7576	25.53	0.13	-0.750			
0.2465	15778.59	3.8170	3.8169	-0.7598	25.53	0.13	-0.750			
0.2488	15920.94	3.8140	3.8141	-0.7661	25.53	0.13	-0.750			
0.2511	16067.94	3.8110	3.8108	-0.7604	25.54	0.14	-0.750			
0.2533	16213.08	3.8080	3.8081	-0.7594	25.54	0.14	-0.750			
0.2557	16362.81	3.8050	3.8048	-0.7615	25.54	0.14	-0.750			
0.2580	16508.86	3.8020	3.8021	-0.7545	25.54	0.14	-0.750			
0.2602	16651.83	3.7990	3.7991	-0.7580	25.54	0.14	-0.750			
0.2625	16797.33	3.7960	3.7960	-0.7685	25.54	0.14	-0.750			
0.2648	16948.02	3.7930	3.7928	-0.7717	25.55	0.15	-0.750			
0.2671	17095.53	3.7900	3.7899	-0.7648	25.55	0.15	-0.750			
0.2694	17242.62	3.7870	3.7873	-0.7664	25.55	0.15	-0.750			
0.2717	17388.84	3.7840	3.7839	-0.7688	25.55	0.15	-0.750			
0.2740	17533.07	3.7810	3.7810	-0.7732	25.55	0.15	-0.750			
0.2762	17679.58	3.7780	3.7778	-0.7749	25.55	0.15	-0.750			
0.2786	17831.46	3.7750	3.7750	-0.7916	25.55	0.15	-0.750			
0.2810	17986.30	3.7720	3.7721	-0.7996	25.55	0.15	-0.750			
0.2835	18141.00	3.7690	3.7691	-0.8072	25.55	0.15	-0.750			
0.2858	18293.51	3.7660	3.7659	-0.8228	25.55	0.15	-0.750			
0.2883	18452.94	3.7630	3.7629	-0.8161	25.55	0.15	-0.750			
0.2908	18610.31	3.7600	3.7599	-0.8195	25.55	0.15	-0.750			
0.2933	18769.33	3.7570	3.7570	-0.8255	25.55	0.15	-0.750			
0.2958	18929.00	3.7540	3.7538	-0.8273	25.55	0.15	-0.750			
0.2982	19086.68	3.7510	3.7509	-0.8398	25.55	0.15	-0.750			
0.3007	19245.95	3.7480	3.7479	-0.8427	25.55	0.15	-0.750			
0.3032	19407.55	3.7450	3.7450	-0.8468	25.54	0.14	-0.750			
0.3059	19576.16	3.7420	3.7419	-0.8650	25.54	0.14	-0.750			
0.3085	19743.01	3.7390	3.7389	-0.8686	25.54	0.14	-0.750			
0.3111	19909.26	3.7360	3.7359	-0.8793	25.54	0.14	-0.750			
0.3137	20076.47	3.7330	3.7329	-0.8867	25.53	0.13	-0.750			
0.3163	20245.68	3.7300	3.7301	-0.8880	25.53	0.13	-0.750			
0.3191	20421.62	3.7270	3.7270	-0.9099	25.53	0.13	-0.750			
0.3218	20595.04	3.7240	3.7241	-0.9331	25.53	0.13	-0.750			
0.3247	20778.80	3.7210	3.7209	-0.9330	25.53	0.13	-0.750			
0.3275	20959.91	3.7180	3.7179	-0.9399	25.53	0.13	-0.750			
0.3303	21139.65	3.7150	3.7150	-0.9476	25.53	0.13	-0.750			
0.3332	21322.84	3.7120	3.7121	-0.9586	25.53	0.13	-0.750			
0.3361	21508.95	3.7090	3.7088	-0.9801	25.52	0.12	-0.750			
0.3390	21698.43	3.7060	3.7058	-0.9866	25.52	0.12	-0.750			
0.3420	21888.45	3.7030	3.7029	-0.9965	25.51	0.11	-0.750			
0.3451	22086.24	3.7000	3.7003	-1.0199	25.51	0.11	-0.750			
0.3482	22282.66	3.6970	3.6969	-1.0273	25.50	0.10	-0.750	0.355	0.517	
0.3512	22478.45	3.6940	3.6939	-1.0347	25.49	0.09	-0.750			
0.3543	22672.75	3.6910	3.6910	-1.0432	25.49	0.09	-0.750			
0.3574	22871.42	3.6880	3.6882	-1.0743	25.48	0.08	-0.750			
0.3608	23089.19	3.6850	3.6849	-1.0895	25.48	0.08	-0.750			
0.3641	23300.70	3.6820	3.6819	-1.0962	25.47	0.07	-0.750			
0.3673	23509.98	3.6790	3.6789	-1.1118	25.47	0.07	-0.750			
0.3707	23723.02	3.6760	3.6757	-1.1399	25.47	0.07	-0.750			
0.3742	23946.58	3.6730	3.6728	-1.1524	25.46	0.06	-0.750			
0.3776	24167.45	3.6700	3.6698	-1.1634	25.46	0.06	-0.750			
0.3811	24390.27	3.6670	3.6673	-1.1776	25.45	0.05	-0.750			
0.3848	24629.48	3.6640	3.6638	-1.2160	25.45	0.05	-0.750			
0.3885	24862.35	3.6610	3.6609	-1.2233	25.44	0.04	-0.750			
0.3920	25090.16	3.6580	3.6580	-1.2579	25.43	0.03	-0.750			
0.3958	25333.42	3.6550	3.6552	-1.2644	25.43	0.03	-0.750			
0.3998	25587.50	3.6520	3.6517	-1.3016	25.42	0.02	-0.750			
0.4037	25837.80	3.6490	3.6489	-1.3097	25.41	0.01	-0.750			
0.4077	26090.63	3.6460	3.6465	-1.3397	25.40	-0.00	-0.750			
0.4118	26355.06	3.6430	3.6428	-1.3565	25.39	-0.01	-0.750			
0.4159	26616.14	3.6400	3.6398	-1.3658	25.39	-0.01	-0.750			
0.4199	26870.74	3.6370	3.6377	-1.3882	25.38	-0.02	-0.750			
0.4242	27150.55	3.6340	3.6337	-1.4345	25.38	-0.02	-0.750			
0.4285	27424.80	3.6310	3.6309	-1.4746	25.37	-0.03	-0.750			
0.4329	27704.18	3.6280	3.6282	-1.5118	25.37	-0.03	-0.750			
0.4377	28012.98	3.6250	3.6248	-1.5372	25.36	-0.04	-0.750			
0.4423	28310.36	3.6220	3.6218	-1.5709	25.35	-0.05	-0.750			
0.4471	28615.04	3.6190	3.6189	-1.5884	25.35	-0.05	-0.750			
0.4518	28917.74	3.6160	3.6159	-1.6434	25.34	-0.06	-0.750			
0.4569	29241.22	3.6130	3.6134	-1.6523	25.34	-0.06	-0.750			
0.4618	29556.06	3.6100	3.6101	-1.6942	25.33	-0.07	-0.750			
0.4669	29883.18	3.6070	3.6073	-1.7119	25.32	-0.08	-0.750			
0.4723	30226.07	3.6040	3.6035	-1.7506	25.32	-0.08	-0.750			
0.4775	30558.41	3.6010	3.6006	-1.8045	25.31	-0.09	-0.750			
0.4829	30908.37	3.5980	3.5980	-1.8331	25.31	-0.09	-0.750			
0.4885	31262.08	3.5950	3.5948	-1.9030	25.30	-0.10	-0.750			
0.4943	31636.01	3.5920	3.5921	-1.9221	25.30	-0.10	-0.750			
0.5001	32004.18	3.5890	3.5889	-1.9566	25.30	-0.10	-0.750			
0.5063	32403.78	3.5860	3.5857	-1.9856	25.29	-0.11	-0.750			
0.5120	32768.75	3.5830	3.5830	-1.9474	25.29	-0.11	-0.750			
0.5179	33144.13	3.5800	3.5802	-1.9725	25.28	-0.12	-0.750			
0.5238	33520.75	3.5770	3.5767	-1.9622	25.28	-0.12	-0.750			
0.5296	33894.27	3.5740	3.5741	-2.0189	25.28	-0.12	-0.750			
0.5357	34286.78	3.5710	3.5709	-2.0403	25.28	-0.12	-0.750			
0.5421	34697.00	3.5680	3.5677	-2.0639	25.28	-0.12	-0.750			
0.5483	35091.12	3.5650	3.5652	-2.0426	25.28	-0.12	-0.750			
0.5546	35492.83	3.5620	3.5622	-2.0475	25.29	-0.11	-0.750			
0.5607	35886.55	3.5590	3.5587	-2.0344	25.29	-0.11	-0.750			
0.5667	36270.21	3.5560	3.5557	-1.9111	25.29	-0.11	-0.750			
0.5723	36625.24	3.5530	3.5530	-1.8495	25.29	-0.11	-0.750			
0.5777	36971.12	3.5500	3.5505	-1.8341	25.30	-0.10	-0.750			
0.5829	37307.93	3.5470	3.5468	-1.8469	25.30	-0.10	-0.750			
0.5883	37653.64	3.5440	3.5438	-1.8807	25.30	-0.10	-0.750			
0.5941	38022.90	3.5410	3.5414	-1.8821	25.31	-0.09	-0.750			
0.6001	38404.86	3.5380	3.5383	-1.9033	25.31	-0.09	-0.750			
0.6059	38774.86	3.5350	3.5350	-1.8933	25.32	-0.08	-0.750			
0.6115	39134.08	3.5320	3.5319	-1.9082	25.33	-0.07	-0.750			
0.6171	39494.29	3.5290	3.5288	-1.8485	25.34	-0.06	-0.750			
0.6227	39850.01	3.5260	3.5265	-1.8053	25.35	-0.05	-0.750			
0.6281	40201.54	3.5230	3.5232	-1.7840	25.36	-0.04	-0.750			
0.6334	40538.46	3.5200	3.5199	-1.7332	25.37	-0.03	-0.750			
0.6384	40857.76	3.5170	3.5169	-1.6840	25.39	-0.01	-0.750			
0.6434	41178.90	3.5140	3.5141	-1.6460	25.41	0.01	-0.750			
0.6482	41486.96	3.5110	3.5109	-1.5824	25.43	0.03	-0.750			
0.6529	41785.23	3.5080	3.5078	-1.5758	25.45	0.05	-0.750			
0.6577	42095.14	3.5050	3.5050	-1.5317	25.46	0.06	-0.750			
0.6622	42378.37	3.5020	3.5018	-1.4743	25.48	0.08	-0.750			
0.6665	42658.38	3.4990	3.4988	-1.4382	25.50	0.10	-0.750			
0.6708	42931.81	3.4960	3.4960	-1.3861	25.51	0.11	-0.750			
0.6750	43199.61	3.4930	3.4929	-1.3553	25.53	0.13	-0.750			
0.6790	43453.82	3.4900	3.4899	-1.3081	25.54	0.14	-0.750			
0.6828	43700.83	3.4870	3.4874	-1.2728	25.55	0.15	-0.750			
0.6865	43939.08	3.4840	3.4838	-1.2153	25.56	0.16	-0.750			
0.6901	44167.09	3.4810	3.4810	-1.1620	25.58	0.18	-0.750			
