Ah_balance (normalized)	Ah_balance (mAh)	Voltage - fit (V)	Voltage -  interpolate (V)	dQ/dV (1/V)	Temperature (°C)	Temperature - diff (°C)	Current (C)	R_DC 0ms (mOhm)	R_DC 50ms (mOhm)	R_DC 50 ms PEC (mOhm)
0.0003	16.85	4.1600	4.1608	-0.1642	24.87	0.03	-0.750			
0.0008	50.11	4.1570	4.1574	-0.1909	24.87	0.03	-0.750			
0.0014	90.58	4.1540	4.1539	-0.2261	24.87	0.03	-0.750			
0.0022	137.68	4.1510	4.1508	-0.2591	24.87	0.03	-0.750			
0.0030	190.00	4.1480	4.1481	-0.2944	24.86	0.02	-0.750			
0.0039	249.18	4.1450	4.1451	-0.3284	24.86	0.02	-0.750			
0.0049	315.19	4.1420	4.1420	-0.3680	24.86	0.02	-0.750			
0.0061	389.86	4.1390	4.1389	-0.4037	24.85	0.01	-0.750			
0.0074	471.06	4.1360	4.1360	-0.4354	24.85	0.01	-0.750			
0.0087	559.57	4.1330	4.1329	-0.4656	24.85	0.01	-0.750			
0.0102	653.52	4.1300	4.1301	-0.4946	24.84	0.00	-0.750			
0.0117	750.70	4.1270	4.1269	-0.5189	24.84	-0.00	-0.750			
0.0133	853.59	4.1240	4.1240	-0.5388	24.83	-0.01	-0.750			
0.0150	958.30	4.1210	4.1210	-0.5595	24.83	-0.01	-0.750			
0.0167	1066.17	4.1180	4.1182	-0.5925	24.82	-0.02	-0.750			
0.0185	1183.24	4.1150	4.1149	-0.6194	24.81	-0.03	-0.750			
0.0204	1306.24	4.1120	4.1119	-0.6351	24.81	-0.03	-0.750			
0.0224	1432.16	4.1090	4.1091	-0.6519	24.80	-0.04	-0.750			
0.0244	1560.46	4.1060	4.1061	-0.6585	24.80	-0.04	-0.750			
0.0264	1691.12	4.1030	4.1029	-0.6673	24.80	-0.04	-0.750			
0.0284	1816.58	4.1000	4.1000	-0.6724	24.80	-0.04	-0.750			
0.0304	1943.27	4.0970	4.0970	-0.6711	24.80	-0.04	-0.750			
0.0324	2075.41	4.0940	4.0939	-0.6789	24.80	-0.04	-0.750			
0.0345	2206.76	4.0910	4.0909	-0.6840	24.80	-0.04	-0.750			
0.0365	2338.80	4.0880	4.0881	-0.6893	24.80	-0.04	-0.750			
0.0386	2471.86	4.0850	4.0849	-0.6890	24.80	-0.04	-0.750			
0.0407	2603.15	4.0820	4.0820	-0.6888	24.80	-0.04	-0.750			
0.0427	2732.70	4.0790	4.0791	-0.6924	24.80	-0.04	-0.750			
0.0448	2867.88	4.0760	4.0759	-0.7050	24.80	-0.04	-0.750			
0.0469	3004.35	4.0730	4.0729	-0.7126	24.80	-0.04	-0.750			
0.0491	3141.49	4.0700	4.0699	-0.7190	24.80	-0.04	-0.750			
0.0513	3280.83	4.0670	4.0671	-0.7259	24.81	-0.03	-0.750			
0.0535	3422.84	4.0640	4.0640	-0.7301	24.81	-0.03	-0.750			
0.0557	3563.24	4.0610	4.0610	-0.7300	24.81	-0.03	-0.750			
0.0579	3703.07	4.0580	4.0580	-0.7298	24.82	-0.02	-0.750			
0.0600	3842.51	4.0550	4.0550	-0.7313	24.82	-0.02	-0.750			
0.0622	3982.71	4.0520	4.0520	-0.7360	24.82	-0.02	-0.750			
0.0644	4122.85	4.0490	4.0490	-0.7422	24.82	-0.02	-0.750			
0.0667	4267.41	4.0460	4.0459	-0.7424	24.82	-0.02	-0.750			
0.0689	4412.01	4.0430	4.0430	-0.7429	24.82	-0.02	-0.750			
0.0712	4555.19	4.0400	4.0400	-0.7445	24.82	-0.02	-0.750			
0.0734	4697.00	4.0370	4.0373	-0.7458	24.82	-0.02	-0.750			
0.0756	4839.06	4.0340	4.0340	-0.7444	24.82	-0.02	-0.750			
0.0778	4982.07	4.0310	4.0309	-0.7514	24.83	-0.01	-0.750			
0.0801	5126.63	4.0280	4.0279	-0.7553	24.83	-0.01	-0.750			
0.0824	5275.96	4.0250	4.0249	-0.7580	24.84	-0.00	-0.750			
0.0847	5422.37	4.0220	4.0221	-0.7605	24.84	-0.00	-0.750			
0.0870	5566.46	4.0190	4.0189	-0.7590	24.84	0.00	-0.750			
0.0892	5711.97	4.0160	4.0160	-0.7605	24.84	0.00	-0.750			
0.0915	5855.90	4.0130	4.0129	-0.7616	24.84	0.00	-0.750			
0.0938	6001.49	4.0100	4.0101	-0.7637	24.85	0.01	-0.750			
0.0961	6151.18	4.0070	4.0069	-0.7707	24.85	0.01	-0.750			
0.0985	6300.85	4.0040	4.0041	-0.7714	24.85	0.01	-0.750			
0.1007	6447.84	4.0010	4.0010	-0.7698	24.85	0.01	-0.750			
0.1031	6595.79	3.9980	3.9980	-0.7730	24.86	0.02	-0.750			
0.1054	6745.27	3.9950	3.9949	-0.7753	24.86	0.02	-0.750			
0.1077	6894.38	3.9920	3.9919	-0.7726	24.87	0.03	-0.750			
0.1100	7042.87	3.9890	3.9890	-0.7715	24.87	0.03	-0.750			
0.1124	7190.80	3.9860	3.9860	-0.7759	24.87	0.03	-0.750			
0.1147	7338.91	3.9830	3.9830	-0.7838	24.87	0.03	-0.750			
0.1170	7488.39	3.9800	3.9799	-0.7836	24.88	0.04	-0.750			
0.1194	7640.60	3.9770	3.9770	-0.7861	24.88	0.04	-0.750			
0.1218	7794.02	3.9740	3.9739	-0.7914	24.88	0.04	-0.750			
0.1242	7946.80	3.9710	3.9710	-0.7924	24.88	0.04	-0.750			
0.1265	8098.78	3.9680	3.9680	-0.7920	24.89	0.05	-0.750			
0.1289	8249.16	3.9650	3.9649	-0.7922	24.90	0.06	-0.750			
0.1313	8400.09	3.9620	3.9620	-0.7919	24.91	0.07	-0.750			
0.1337	8554.33	3.9590	3.9589	-0.7944	24.91	0.07	-0.750			
0.1360	8706.69	3.9560	3.9562	-0.7969	24.92	0.08	-0.750			
0.1385	8861.87	3.9530	3.9530	-0.7921	24.92	0.08	-0.750			
0.1408	9012.21	3.9500	3.9500	-0.8040	24.92	0.08	-0.750			
0.1432	9167.79	3.9470	3.9469	-0.7998	24.93	0.09	-0.750			
0.1457	9321.90	3.9440	3.9438	-0.8020	24.93	0.09	-0.750			
0.1481	9476.21	3.9410	3.9414	-0.8058	24.93	0.09	-0.750			
0.1505	9633.19	3.9380	3.9380	-0.8056	24.93	0.09	-0.750			
0.1529	9786.81	3.9350	3.9349	-0.8114	24.93	0.09	-0.750			
0.1554	9943.11	3.9320	3.9320	-0.8108	24.94	0.10	-0.750			
0.1578	10098.12	3.9290	3.9289	-0.8110	24.94	0.10	-0.750			
0.1602	10254.44	3.9260	3.9263	-0.8153	24.94	0.10	-0.750			
0.1627	10410.87	3.9230	3.9229	-0.8130	24.94	0.10	-0.750			
0.1651	10566.79	3.9200	3.9200	-0.8143	24.95	0.11	-0.750			
0.1676	10723.64	3.9170	3.9170	-0.8149	24.95	0.11	-0.750			
0.1700	10880.36	3.9140	3.9141	-0.8196	24.96	0.12	-0.750			
0.1725	11038.04	3.9110	3.9111	-0.8186	24.96	0.12	-0.750			
0.1749	11195.10	3.9080	3.9079	-0.8180	24.96	0.12	-0.750			
0.1774	11352.56	3.9050	3.9050	-0.8183	24.97	0.13	-0.750			
0.1798	11509.63	3.9020	3.9020	-0.8189	24.97	0.13	-0.750			
0.1823	11666.60	3.8990	3.8990	-0.8138	24.97	0.13	-0.750			
0.1848	11824.33	3.8960	3.8961	-0.8124	24.98	0.14	-0.750			
0.1872	11979.06	3.8930	3.8929	-0.8090	24.98	0.14	-0.750			
0.1896	12133.71	3.8900	3.8899	-0.8110	24.99	0.15	-0.750			
0.1920	12289.08	3.8870	3.8870	-0.8091	24.99	0.15	-0.750			
0.1944	12444.34	3.8840	3.8839	-0.8040	24.99	0.15	-0.750			
0.1969	12601.43	3.8810	3.8811	-0.8058	25.00	0.16	-0.750			
0.1993	12756.64	3.8780	3.8779	-0.8044	25.00	0.16	-0.750			
0.2018	12915.11	3.8750	3.8748	-0.7846	25.01	0.17	-0.750			
0.2041	13064.47	3.8720	3.8719	-0.7573	25.01	0.17	-0.750			
0.2063	13204.71	3.8690	3.8692	-0.7362	25.01	0.17	-0.750			
0.2085	13341.97	3.8660	3.8666	-0.7325	25.02	0.18	-0.750			
0.2106	13478.58	3.8630	3.8627	-0.7317	25.02	0.18	-0.750			
0.2128	13616.17	3.8600	3.8599	-0.7430	25.02	0.18	-0.750			
0.2149	13756.65	3.8570	3.8569	-0.7612	25.03	0.19	-0.750			
0.2173	13909.39	3.8540	3.8541	-0.7826	25.03	0.19	-0.750			
0.2198	14068.86	3.8510	3.8509	-0.7878	25.04	0.20	-0.750			
0.2222	14222.50	3.8480	3.8482	-0.7837	25.04	0.20	-0.750			
0.2246	14372.66	3.8450	3.8449	-0.7803	25.04	0.20	-0.750			
0.2269	14520.09	3.8420	3.8420	-0.7714	25.05	0.21	-0.750			
0.2292	14667.73	3.8390	3.8389	-0.7726	25.05	0.21	-0.750			
0.2314	14812.64	3.8360	3.8360	-0.7682	25.05	0.21	-0.750			
0.2338	14965.16	3.8330	3.8329	-0.7712	25.06	0.22	-0.750			
0.2361	15113.56	3.8300	3.8300	-0.7641	25.06	0.22	-0.750			
0.2384	15258.35	3.8270	3.8270	-0.7673	25.06	0.22	-0.750			
0.2407	15403.77	3.8240	3.8240	-0.7647	25.06	0.22	-0.750			
0.2429	15547.43	3.8210	3.8210	-0.7561	25.06	0.22	-0.750			
0.2453	15697.95	3.8180	3.8179	-0.7642	25.06	0.22	-0.750			
0.2476	15843.85	3.8150	3.8152	-0.7622	25.06	0.22	-0.750			
0.2499	15993.06	3.8120	3.8119	-0.7550	25.06	0.22	-0.750			
0.2522	16139.17	3.8090	3.8089	-0.7450	25.07	0.23	-0.750			
0.2544	16280.29	3.8060	3.8060	-0.7423	25.07	0.23	-0.750			
0.2566	16422.20	3.8030	3.8031	-0.7333	25.07	0.23	-0.750			
0.2588	16563.04	3.8000	3.7997	-0.7365	25.08	0.24	-0.750			
0.2610	16702.26	3.7970	3.7972	-0.7357	25.08	0.24	-0.750			
0.2631	16840.86	3.7940	3.7939	-0.7382	25.08	0.24	-0.750			
0.2654	16983.98	3.7910	3.7910	-0.7563	25.08	0.24	-0.750			
0.2677	17130.93	3.7880	3.7879	-0.7533	25.08	0.24	-0.750			
0.2700	17281.16	3.7850	3.7849	-0.7761	25.08	0.24	-0.750			
0.2724	17432.96	3.7820	3.7821	-0.7799	25.08	0.24	-0.750			
0.2747	17581.42	3.7790	3.7789	-0.7809	25.08	0.24	-0.750			
0.2771	17731.89	3.7760	3.7758	-0.7762	25.09	0.25	-0.750			
0.2794	17878.81	3.7730	3.7731	-0.7875	25.09	0.25	-0.750			
0.2817	18031.78	3.7700	3.7700	-0.8018	25.09	0.25	-0.750			
0.2842	18186.19	3.7670	3.7668	-0.8016	25.10	0.26	-0.750			
0.2866	18340.95	3.7640	3.7641	-0.8033	25.10	0.26	-0.750			
0.2890	18493.59	3.7610	3.7611	-0.8221	25.10	0.26	-0.750			
0.2915	18653.56	3.7580	3.7579	-0.8231	25.10	0.26	-0.750			
0.2939	18812.28	3.7550	3.7548	-0.8229	25.10	0.26	-0.750			
0.2964	18972.02	3.7520	3.7518	-0.8261	25.10	0.26	-0.750			
0.2990	19133.16	3.7490	3.7490	-0.8296	25.10	0.26	-0.750			
0.3014	19292.79	3.7460	3.7459	-0.8471	25.10	0.26	-0.750			
0.3040	19455.50	3.7430	3.7429	-0.8461	25.10	0.26	-0.750			
0.3065	19615.58	3.7400	3.7398	-0.8416	25.10	0.26	-0.750			
0.3091	19783.17	3.7370	3.7368	-0.8603	25.10	0.26	-0.750			
0.3117	19948.27	3.7340	3.7338	-0.8691	25.10	0.26	-0.750			
0.3143	20115.53	3.7310	3.7309	-0.8821	25.10	0.26	-0.750			
0.3169	20283.39	3.7280	3.7279	-0.8865	25.09	0.25	-0.750			
0.3195	20450.52	3.7250	3.7250	-0.8910	25.09	0.25	-0.750			
0.3224	20632.20	3.7220	3.7221	-0.9177	25.09	0.25	-0.750			
0.3251	20807.99	3.7190	3.7189	-0.9387	25.09	0.25	-0.750			
0.3280	20992.21	3.7160	3.7159	-0.9447	25.09	0.25	-0.750			
0.3309	21175.15	3.7130	3.7129	-0.9468	25.08	0.24	-0.750			
0.3337	21355.53	3.7100	3.7098	-0.9527	25.08	0.24	-0.750			
0.3365	21538.95	3.7070	3.7070	-1.0071	25.08	0.24	-0.750			
0.3397	21738.44	3.7040	3.7036	-1.0030	25.07	0.23	-0.750			
0.3427	21933.84	3.7010	3.7006	-1.0071	25.07	0.23	-0.750			
0.3457	22126.15	3.6980	3.6982	-1.0007	25.06	0.22	-0.750	0.377	0.532	
0.3489	22330.25	3.6950	3.6944	-1.0262	25.06	0.22	-0.750			
0.3519	22521.66	3.6920	3.6919	-1.0354	25.05	0.21	-0.750			
0.3549	22716.52	3.6890	3.6889	-1.0395	25.05	0.21	-0.750			
0.3580	22911.69	3.6860	3.6858	-1.0535	25.04	0.20	-0.750			
0.3613	23124.33	3.6830	3.6832	-1.1046	25.04	0.20	-0.750			
0.3647	23338.32	3.6800	3.6799	-1.1191	25.03	0.19	-0.750			
0.3681	23556.30	3.6770	3.6767	-1.1275	25.03	0.19	-0.750			
0.3714	23771.76	3.6740	3.6741	-1.1345	25.02	0.18	-0.750			
0.3750	23997.02	3.6710	3.6707	-1.1719	25.02	0.18	-0.750			
0.3785	24226.16	3.6680	3.6678	-1.1750	25.01	0.17	-0.750			
0.3820	24449.39	3.6650	3.6648	-1.1813	25.01	0.17	-0.750			
0.3855	24670.72	3.6620	3.6628	-1.1909	25.00	0.16	-0.750			
0.3892	24909.46	3.6590	3.6589	-1.2218	24.99	0.15	-0.750			
0.3929	25143.17	3.6560	3.6559	-1.2423	24.99	0.15	-0.750			
0.3965	25377.84	3.6530	3.6532	-1.2818	24.98	0.14	-0.750			
0.4006	25637.13	3.6500	3.6499	-1.3283	24.98	0.14	-0.750			
0.4047	25898.06	3.6470	3.6468	-1.3335	24.97	0.13	-0.750			
0.4087	26156.46	3.6440	3.6439	-1.3556	24.96	0.12	-0.750			
0.4128	26420.66	3.6410	3.6408	-1.3721	24.96	0.12	-0.750			
0.4168	26677.39	3.6380	3.6378	-1.4077	24.95	0.11	-0.750			
0.4209	26938.23	3.6350	3.6349	-1.4284	24.94	0.10	-0.750			
0.4254	27227.84	3.6320	3.6318	-1.4642	24.93	0.09	-0.750			
0.4299	27510.61	3.6290	3.6287	-1.5064	24.92	0.08	-0.750			
0.4345	27806.92	3.6260	3.6259	-1.5358	24.91	0.07	-0.750			
0.4392	28106.29	3.6230	3.6233	-1.5320	24.91	0.07	-0.750			
0.4438	28404.22	3.6200	3.6197	-1.5955	24.90	0.06	-0.750			
0.4485	28706.60	3.6170	3.6170	-1.5710	24.90	0.06	-0.750			
0.4533	29010.59	3.6140	3.6138	-1.5978	24.89	0.05	-0.750			
0.4583	29328.86	3.6110	3.6111	-1.6390	24.88	0.04	-0.750			
0.4632	29643.36	3.6080	3.6078	-1.6582	24.86	0.02	-0.750			
0.4683	29970.41	3.6050	3.6049	-1.7248	24.85	0.01	-0.750			
0.4734	30298.61	3.6020	3.6017	-1.7255	24.84	-0.00	-0.750			
0.4788	30643.08	3.5990	3.5988	-1.8109	24.84	-0.00	-0.750			
0.4842	30985.70	3.5960	3.5960	-1.8282	24.83	-0.01	-0.750			
0.4898	31346.53	3.5930	3.5934	-1.8447	24.83	-0.01	-0.750			
0.4954	31706.78	3.5900	3.5903	-1.8567	24.82	-0.02	-0.750			
0.5010	32063.47	3.5870	3.5868	-1.8845	24.82	-0.02	-0.750			
0.5066	32422.74	3.5840	3.5839	-1.9483	24.81	-0.03	-0.750			
0.5124	32796.37	3.5810	3.5807	-1.9554	24.80	-0.04	-0.750			
0.5187	33195.79	3.5780	3.5775	-1.9681	24.80	-0.04	-0.750			
0.5247	33577.65	3.5750	3.5746	-1.9912	24.80	-0.04	-0.750			
0.5305	33953.31	3.5720	3.5719	-1.9879	24.79	-0.05	-0.750			
0.5364	34328.80	3.5690	3.5690	-1.9948	24.78	-0.06	-0.750			
0.5426	34726.66	3.5660	3.5659	-2.0258	24.77	-0.07	-0.750			
0.5487	35119.92	3.5630	3.5630	-2.0557	24.77	-0.07	-0.750			
0.5551	35526.12	3.5600	3.5600	-2.0595	24.78	-0.06	-0.750			
0.5610	35905.93	3.5570	3.5573	-2.0527	24.78	-0.06	-0.750			
0.5673	36308.82	3.5540	3.5536	-2.0093	24.78	-0.06	-0.750			
0.5735	36701.08	3.5510	3.5511	-2.0023	24.78	-0.06	-0.750			
0.5794	37084.61	3.5480	3.5474	-2.0289	24.78	-0.06	-0.750			
0.5853	37458.61	3.5450	3.5447	-1.9661	24.78	-0.06	-0.750			
0.5912	37839.17	3.5420	3.5418	-1.9403	24.78	-0.06	-0.750			
0.5971	38212.94	3.5390	3.5393	-1.9412	24.79	-0.05	-0.750			
0.6027	38575.39	3.5360	3.5363	-1.9079	24.79	-0.05	-0.750			
0.6085	38942.16	3.5330	3.5330	-1.8808	24.80	-0.04	-0.750			
0.6140	39298.86	3.5300	3.5300	-1.8218	24.81	-0.03	-0.750			
0.6197	39662.91	3.5270	3.5272	-1.8222	24.81	-0.03	-0.750			
0.6251	40008.93	3.5240	3.5235	-1.7673	24.83	-0.01	-0.750			
0.6303	40338.02	3.5210	3.5205	-1.7567	24.84	-0.00	-0.750			
0.6355	40672.92	3.5180	3.5186	-1.7107	24.85	0.01	-0.750			
0.6407	41004.33	3.5150	3.5148	-1.6882	24.86	0.02	-0.750			
0.6456	41320.52	3.5120	3.5125	-1.6192	24.87	0.03	-0.750			
0.6505	41632.30	3.5090	3.5090	-1.5664	24.89	0.05	-0.750			
0.6551	41929.32	3.5060	3.5061	-1.5691	24.90	0.06	-0.750			
0.6596	42216.97	3.5030	3.5030	-1.4959	24.92	0.08	-0.750			
0.6641	42501.38	3.5000	3.4998	-1.4526	24.93	0.09	-0.750			
0.6683	42770.00	3.4970	3.4968	-1.4051	24.95	0.11	-0.750			
0.6726	43045.93	3.4940	3.4948	-1.3904	24.96	0.12	-0.750			
0.6768	43317.80	3.4910	3.4908	-1.3508	24.98	0.14	-0.750			
0.6809	43578.36	3.4880	3.4878	-1.2923	24.99	0.15	-0.750			
0.6847	43817.64	3.4850	3.4849	-1.2392	25.01	0.17	-0.750			
0.6882	44045.55	3.4820	3.4819	-1.0883	25.02	0.18	-0.750			
