Ah_balance (normalized)	Ah_balance (mAh)	Voltage - fit (V)	Voltage -  interpolate (V)	dQ/dV (1/V)	Temperature (°C)	Temperature - diff (°C)	Current (C)	R_DC 0ms (mOhm)	R_DC 50ms (mOhm)	R_DC 50 ms PEC (mOhm)
0.0004	27.45	4.1610	4.1609	-0.1468	25.01	0.01	-0.750			
0.0009	60.42	4.1580	4.1579	-0.1901	25.01	0.01	-0.750			
0.0016	100.30	4.1550	4.1551	-0.2316	25.01	0.01	-0.750			
0.0023	149.14	4.1520	4.1520	-0.2729	25.01	0.01	-0.750			
0.0032	205.76	4.1490	4.1490	-0.3124	25.01	0.01	-0.750			
0.0042	269.08	4.1460	4.1460	-0.3580	25.01	0.01	-0.750			
0.0054	342.69	4.1430	4.1430	-0.3918	25.01	0.01	-0.750			
0.0066	422.15	4.1400	4.1399	-0.4291	25.00	0.00	-0.750			
0.0080	509.70	4.1370	4.1369	-0.4613	25.00	0.00	-0.750			
0.0094	600.36	4.1340	4.1345	-0.4944	25.00	-0.00	-0.750			
0.0109	699.17	4.1310	4.1310	-0.5228	25.00	-0.00	-0.750			
0.0125	802.80	4.1280	4.1279	-0.5472	24.99	-0.01	-0.750			
0.0142	909.11	4.1250	4.1250	-0.5711	24.99	-0.01	-0.750			
0.0160	1023.94	4.1220	4.1220	-0.5997	24.99	-0.01	-0.750			
0.0178	1141.45	4.1190	4.1190	-0.6143	24.99	-0.01	-0.750			
0.0197	1261.76	4.1160	4.1159	-0.6317	24.98	-0.02	-0.750			
0.0216	1384.02	4.1130	4.1132	-0.6431	24.98	-0.02	-0.750			
0.0236	1511.42	4.1100	4.1099	-0.6552	24.98	-0.02	-0.750			
0.0256	1639.22	4.1070	4.1070	-0.6621	24.97	-0.03	-0.750			
0.0276	1765.27	4.1040	4.1041	-0.6702	24.97	-0.03	-0.750			
0.0296	1894.82	4.1010	4.1011	-0.6804	24.97	-0.03	-0.750			
0.0317	2027.11	4.0980	4.0979	-0.6879	24.96	-0.04	-0.750			
0.0337	2158.43	4.0950	4.0949	-0.6928	24.96	-0.04	-0.750			
0.0358	2292.97	4.0920	4.0920	-0.7010	24.96	-0.04	-0.750			
0.0380	2429.78	4.0890	4.0890	-0.7102	24.96	-0.04	-0.750			
0.0401	2569.51	4.0860	4.0859	-0.7231	24.96	-0.04	-0.750			
0.0423	2709.90	4.0830	4.0830	-0.7218	24.96	-0.04	-0.750			
0.0446	2851.83	4.0800	4.0797	-0.7262	24.96	-0.04	-0.750			
0.0467	2990.93	4.0770	4.0781	-0.7290	24.96	-0.04	-0.750			
0.0489	3129.87	4.0740	4.0737	-0.7286	24.96	-0.04	-0.750			
0.0511	3267.58	4.0710	4.0709	-0.7276	24.96	-0.04	-0.750			
0.0532	3403.38	4.0680	4.0681	-0.7118	24.96	-0.04	-0.750			
0.0554	3546.95	4.0650	4.0651	-0.7389	24.96	-0.04	-0.750			
0.0576	3688.41	4.0620	4.0617	-0.7447	24.96	-0.04	-0.750			
0.0599	3830.73	4.0590	4.0592	-0.7503	24.96	-0.04	-0.750			
0.0621	3976.77	4.0560	4.0559	-0.7483	24.96	-0.04	-0.750			
0.0644	4121.25	4.0530	4.0531	-0.7609	24.96	-0.04	-0.750			
0.0667	4268.84	4.0500	4.0501	-0.7618	24.95	-0.05	-0.750			
0.0690	4418.17	4.0470	4.0468	-0.7650	24.95	-0.05	-0.750			
0.0713	4563.27	4.0440	4.0441	-0.7586	24.95	-0.05	-0.750			
0.0736	4708.09	4.0410	4.0410	-0.7648	24.95	-0.05	-0.750			
0.0759	4856.24	4.0380	4.0380	-0.7628	24.95	-0.05	-0.750			
0.0782	5004.75	4.0350	4.0349	-0.7674	24.95	-0.05	-0.750			
0.0805	5149.43	4.0320	4.0320	-0.7601	24.95	-0.05	-0.750			
0.0828	5298.92	4.0290	4.0291	-0.7663	24.95	-0.05	-0.750			
0.0851	5445.83	4.0260	4.0257	-0.7633	24.95	-0.05	-0.750			
0.0873	5590.29	4.0230	4.0229	-0.7685	24.95	-0.05	-0.750			
0.0896	5737.07	4.0200	4.0201	-0.7753	24.95	-0.05	-0.750			
0.0920	5888.11	4.0170	4.0169	-0.7726	24.96	-0.04	-0.750			
0.0944	6040.62	4.0140	4.0140	-0.7856	24.96	-0.04	-0.750			
0.0967	6191.30	4.0110	4.0113	-0.7829	24.96	-0.04	-0.750			
0.0991	6341.20	4.0080	4.0080	-0.7800	24.96	-0.04	-0.750			
0.1014	6489.46	4.0050	4.0049	-0.7859	24.96	-0.04	-0.750			
0.1037	6639.44	4.0020	4.0020	-0.7842	24.96	-0.04	-0.750			
0.1061	6791.78	3.9990	3.9989	-0.7864	24.96	-0.04	-0.750			
0.1085	6943.23	3.9960	3.9959	-0.7840	24.96	-0.04	-0.750			
0.1108	7093.14	3.9930	3.9931	-0.7857	24.96	-0.04	-0.750			
0.1132	7242.02	3.9900	3.9899	-0.7976	24.96	-0.04	-0.750			
0.1155	7393.92	3.9870	3.9870	-0.7968	24.97	-0.03	-0.750			
0.1180	7548.93	3.9840	3.9839	-0.7925	24.97	-0.03	-0.750			
0.1204	7705.64	3.9810	3.9808	-0.8000	24.97	-0.03	-0.750			
0.1228	7859.21	3.9780	3.9780	-0.7978	24.97	-0.03	-0.750			
0.1252	8011.15	3.9750	3.9748	-0.7958	24.97	-0.03	-0.750			
0.1275	8162.90	3.9720	3.9720	-0.7938	24.97	-0.03	-0.750			
0.1299	8311.85	3.9690	3.9690	-0.7945	24.98	-0.02	-0.750			
0.1323	8468.09	3.9660	3.9659	-0.8075	24.98	-0.02	-0.750			
0.1348	8625.16	3.9630	3.9630	-0.8083	24.98	-0.02	-0.750			
0.1372	8779.75	3.9600	3.9601	-0.8071	24.98	-0.02	-0.750			
0.1396	8934.37	3.9570	3.9570	-0.8181	24.98	-0.02	-0.750			
0.1421	9091.41	3.9540	3.9538	-0.8175	24.98	-0.02	-0.750			
0.1446	9252.28	3.9510	3.9508	-0.8286	24.98	-0.02	-0.750			
0.1470	9409.36	3.9480	3.9484	-0.8290	24.98	-0.02	-0.750			
0.1496	9571.44	3.9450	3.9450	-0.8280	24.98	-0.02	-0.750			
0.1521	9732.78	3.9420	3.9419	-0.8352	24.98	-0.02	-0.750			
0.1546	9892.05	3.9390	3.9390	-0.8253	24.99	-0.01	-0.750			
0.1571	10052.14	3.9360	3.9359	-0.8289	24.99	-0.01	-0.750			
0.1595	10209.30	3.9330	3.9331	-0.8260	24.99	-0.01	-0.750			
0.1619	10364.47	3.9300	3.9299	-0.8304	24.99	-0.01	-0.750			
0.1644	10524.08	3.9270	3.9270	-0.8314	24.99	-0.01	-0.750			
0.1670	10684.93	3.9240	3.9239	-0.8275	25.00	-0.00	-0.750			
0.1694	10841.50	3.9210	3.9211	-0.8274	25.00	-0.00	-0.750			
0.1720	11006.29	3.9180	3.9185	-0.8379	25.00	0.00	-0.750			
0.1745	11166.52	3.9150	3.9148	-0.8302	25.00	0.00	-0.750			
0.1768	11318.12	3.9120	3.9121	-0.8556	25.00	0.00	-0.750			
0.1794	11483.60	3.9090	3.9091	-0.8830	25.00	0.00	-0.750			
0.1822	11658.26	3.9060	3.9057	-0.9090	25.00	0.00	-0.750			
0.1850	11839.17	3.9030	3.9031	-0.9125	25.00	0.00	-0.750			
0.1878	12021.09	3.9000	3.9002	-0.9225	25.01	0.01	-0.750			
0.1907	12202.68	3.8970	3.8970	-0.9091	25.01	0.01	-0.750			
0.1934	12379.11	3.8940	3.8938	-0.8928	25.01	0.01	-0.750			
0.1960	12540.99	3.8910	3.8912	-0.8589	25.02	0.02	-0.750			
0.1985	12706.03	3.8880	3.8878	-0.8506	25.02	0.02	-0.750			
0.2010	12864.52	3.8850	3.8849	-0.8552	25.02	0.02	-0.750			
0.2036	13028.14	3.8820	3.8820	-0.8537	25.03	0.03	-0.750			
0.2061	13189.56	3.8790	3.8790	-0.8488	25.03	0.03	-0.750			
0.2087	13358.84	3.8760	3.8762	-0.8613	25.03	0.03	-0.750			
0.2113	13524.32	3.8730	3.8730	-0.8610	25.03	0.03	-0.750			
0.2139	13690.71	3.8700	3.8698	-0.8573	25.03	0.03	-0.750			
0.2165	13854.03	3.8670	3.8670	-0.8545	25.04	0.04	-0.750			
0.2190	14014.82	3.8640	3.8642	-0.8468	25.04	0.04	-0.750			
0.2216	14182.65	3.8610	3.8611	-0.8516	25.04	0.04	-0.750			
0.2241	14343.28	3.8580	3.8579	-0.8587	25.04	0.04	-0.750			
0.2267	14506.75	3.8550	3.8550	-0.8531	25.05	0.05	-0.750			
0.2293	14672.33	3.8520	3.8519	-0.8489	25.05	0.05	-0.750			
0.2318	14837.57	3.8490	3.8490	-0.8411	25.06	0.06	-0.750			
0.2343	14998.25	3.8460	3.8466	-0.8420	25.06	0.06	-0.750			
0.2369	15159.81	3.8430	3.8430	-0.8384	25.06	0.06	-0.750			
0.2393	15318.13	3.8400	3.8398	-0.8385	25.06	0.06	-0.750			
0.2418	15476.39	3.8370	3.8371	-0.8405	25.07	0.07	-0.750			
0.2444	15640.79	3.8340	3.8340	-0.8508	25.07	0.07	-0.750			
0.2470	15805.88	3.8310	3.8310	-0.8457	25.07	0.07	-0.750			
0.2495	15970.68	3.8280	3.8280	-0.8465	25.07	0.07	-0.750			
0.2520	16131.07	3.8250	3.8251	-0.8444	25.08	0.08	-0.750			
0.2546	16294.35	3.8220	3.8219	-0.8415	25.08	0.08	-0.750			
0.2571	16454.96	3.8190	3.8188	-0.8315	25.09	0.09	-0.750			
0.2596	16614.66	3.8160	3.8162	-0.8216	25.09	0.09	-0.750			
0.2621	16772.58	3.8130	3.8129	-0.8190	25.09	0.09	-0.750			
0.2645	16928.86	3.8100	3.8100	-0.8229	25.09	0.09	-0.750			
0.2670	17085.29	3.8070	3.8069	-0.8100	25.10	0.10	-0.750			
0.2694	17242.34	3.8040	3.8038	-0.8081	25.10	0.10	-0.750			
0.2718	17396.52	3.8010	3.8015	-0.8063	25.10	0.10	-0.750			
0.2743	17552.18	3.7980	3.7978	-0.8020	25.10	0.10	-0.750			
0.2766	17704.97	3.7950	3.7949	-0.7958	25.10	0.10	-0.750			
0.2790	17854.96	3.7920	3.7921	-0.7827	25.11	0.11	-0.750			
0.2814	18006.65	3.7890	3.7890	-0.7847	25.11	0.11	-0.750			
0.2837	18157.02	3.7860	3.7859	-0.7823	25.11	0.11	-0.750			
0.2860	18303.94	3.7830	3.7830	-0.7808	25.11	0.11	-0.750			
0.2883	18451.13	3.7800	3.7801	-0.7882	25.11	0.11	-0.750			
0.2907	18605.59	3.7770	3.7769	-0.7879	25.12	0.12	-0.750			
0.2931	18757.82	3.7740	3.7739	-0.7868	25.12	0.12	-0.750			
0.2955	18911.26	3.7710	3.7711	-0.7878	25.12	0.12	-0.750			
0.2978	19060.65	3.7680	3.7680	-0.7860	25.12	0.12	-0.750			
0.3001	19208.47	3.7650	3.7649	-0.7918	25.13	0.13	-0.750			
0.3025	19361.73	3.7620	3.7619	-0.7905	25.13	0.13	-0.750			
0.3049	19511.76	3.7590	3.7590	-0.7924	25.13	0.13	-0.750			
0.3073	19667.58	3.7560	3.7560	-0.7981	25.14	0.14	-0.750			
0.3097	19821.73	3.7530	3.7533	-0.8021	25.14	0.14	-0.750			
0.3121	19973.55	3.7500	3.7500	-0.8113	25.14	0.14	-0.750			
0.3145	20126.22	3.7470	3.7468	-0.8155	25.14	0.14	-0.750			
0.3169	20284.38	3.7440	3.7441	-0.8225	25.14	0.14	-0.750			
0.3195	20444.94	3.7410	3.7410	-0.8407	25.14	0.14	-0.750			
0.3220	20606.90	3.7380	3.7382	-0.8532	25.14	0.14	-0.750			
0.3246	20772.30	3.7350	3.7347	-0.8712	25.14	0.14	-0.750			
0.3272	20939.57	3.7320	3.7320	-0.8740	25.14	0.14	-0.750			
0.3298	21108.82	3.7290	3.7290	-0.8806	25.14	0.14	-0.750			
0.3325	21280.51	3.7260	3.7260	-0.8939	25.14	0.14	-0.750			
0.3352	21453.49	3.7230	3.7229	-0.9045	25.14	0.14	-0.750			
0.3379	21625.07	3.7200	3.7200	-0.9269	25.14	0.14	-0.750			
0.3407	21805.87	3.7170	3.7169	-0.9430	25.13	0.13	-0.750			
0.3436	21988.76	3.7140	3.7138	-0.9598	25.13	0.13	-0.750			
0.3465	22173.15	3.7110	3.7118	-0.9995	25.13	0.13	-0.750			
0.3496	22373.30	3.7080	3.7079	-1.0159	25.13	0.13	-0.750			
0.3527	22572.44	3.7050	3.7047	-1.0168	25.12	0.12	-0.750			
0.3558	22769.04	3.7020	3.7016	-1.0125	25.12	0.12	-0.750			
0.3589	22967.71	3.6990	3.6996	-1.0295	25.11	0.11	-0.750	0.376	0.507	
0.3619	23161.45	3.6960	3.6956	-1.0446	25.11	0.11	-0.750			
0.3650	23357.64	3.6930	3.6930	-1.0512	25.10	0.10	-0.750			
0.3680	23551.07	3.6900	3.6899	-1.0637	25.10	0.10	-0.750			
0.3713	23763.16	3.6870	3.6870	-1.1256	25.09	0.09	-0.750			
0.3749	23992.58	3.6840	3.6839	-1.1430	25.08	0.08	-0.750			
0.3783	24214.34	3.6810	3.6808	-1.1548	25.08	0.08	-0.750			
0.3818	24436.60	3.6780	3.6779	-1.1713	25.07	0.07	-0.750			
0.3854	24662.80	3.6750	3.6751	-1.2053	25.07	0.07	-0.750			
0.3890	24897.23	3.6720	3.6717	-1.2221	25.06	0.06	-0.750			
0.3927	25131.16	3.6690	3.6689	-1.2355	25.06	0.06	-0.750			
0.3964	25368.35	3.6660	3.6664	-1.2522	25.05	0.05	-0.750			
0.4003	25619.49	3.6630	3.6628	-1.2917	25.04	0.04	-0.750			
0.4042	25868.04	3.6600	3.6600	-1.3091	25.03	0.03	-0.750			
0.4081	26119.74	3.6570	3.6569	-1.3470	25.02	0.02	-0.750			
0.4123	26385.79	3.6540	3.6538	-1.3725	25.02	0.02	-0.750			
0.4165	26653.89	3.6510	3.6508	-1.3900	25.01	0.01	-0.750			
0.4206	26921.37	3.6480	3.6483	-1.4179	25.00	0.00	-0.750			
0.4249	27195.99	3.6450	3.6448	-1.4290	24.99	-0.01	-0.750			
0.4293	27472.70	3.6420	3.6418	-1.4571	24.99	-0.01	-0.750			
0.4337	27753.76	3.6390	3.6392	-1.4843	24.98	-0.02	-0.750			
0.4382	28047.48	3.6360	3.6358	-1.5326	24.97	-0.03	-0.750			
0.4429	28344.75	3.6330	3.6332	-1.5445	24.97	-0.03	-0.750			
0.4475	28641.20	3.6300	3.6301	-1.5681	24.96	-0.04	-0.750			
0.4522	28937.94	3.6270	3.6276	-1.5932	24.95	-0.05	-0.750			
0.4571	29251.64	3.6240	3.6236	-1.6245	24.94	-0.06	-0.750			
0.4620	29567.23	3.6210	3.6208	-1.6541	24.94	-0.06	-0.750			
0.4671	29891.39	3.6180	3.6177	-1.6907	24.93	-0.07	-0.750			
0.4722	30221.94	3.6150	3.6152	-1.7495	24.92	-0.08	-0.750			
0.4774	30555.97	3.6120	3.6122	-1.7837	24.91	-0.09	-0.750			
0.4829	30904.98	3.6090	3.6089	-1.8160	24.90	-0.10	-0.750			
0.4884	31254.99	3.6060	3.6060	-1.8480	24.89	-0.11	-0.750			
0.4941	31622.06	3.6030	3.6030	-1.8790	24.88	-0.12	-0.750			
0.4998	31989.23	3.6000	3.5999	-1.9371	24.87	-0.13	-0.750			
0.5056	32359.71	3.5970	3.5968	-1.9733	24.87	-0.13	-0.750			
0.5115	32733.90	3.5940	3.5936	-1.9920	24.86	-0.14	-0.750			
0.5176	33127.44	3.5910	3.5914	-2.0271	24.86	-0.14	-0.750			
0.5238	33521.98	3.5880	3.5883	-2.0835	24.86	-0.14	-0.750			
0.5300	33921.61	3.5850	3.5852	-2.1058	24.86	-0.14	-0.750			
0.5363	34323.34	3.5820	3.5818	-2.1086	24.86	-0.14	-0.750			
0.5428	34741.80	3.5790	3.5786	-2.1360	24.85	-0.15	-0.750			
0.5493	35156.96	3.5760	3.5761	-2.1723	24.84	-0.16	-0.750			
0.5561	35589.31	3.5730	3.5726	-2.1925	24.84	-0.16	-0.750			
0.5626	36003.78	3.5700	3.5696	-2.2372	24.84	-0.16	-0.750			
0.5693	36433.84	3.5670	3.5669	-2.1947	24.84	-0.16	-0.750			
0.5760	36863.02	3.5640	3.5638	-2.2037	24.84	-0.16	-0.750			
0.5828	37299.33	3.5610	3.5607	-2.1594	24.84	-0.16	-0.750			
0.5892	37707.88	3.5580	3.5582	-2.1287	24.84	-0.16	-0.750			
0.5955	38112.53	3.5550	3.5554	-2.0173	24.84	-0.16	-0.750			
0.6014	38487.04	3.5520	3.5517	-1.9863	24.84	-0.16	-0.750			
0.6069	38844.11	3.5490	3.5486	-1.9608	24.84	-0.16	-0.750			
0.6129	39225.31	3.5460	3.5463	-1.9966	24.84	-0.16	-0.750			
0.6193	39633.14	3.5430	3.5432	-2.0674	24.84	-0.16	-0.750			
0.6256	40039.59	3.5400	3.5399	-2.0755	24.84	-0.16	-0.750			
0.6320	40446.04	3.5370	3.5370	-2.0545	24.84	-0.16	-0.750			
0.6384	40856.25	3.5340	3.5333	-2.0323	24.85	-0.15	-0.750			
0.6443	41237.96	3.5310	3.5308	-1.9529	24.86	-0.14	-0.750			
0.6499	41590.98	3.5280	3.5281	-1.8865	24.87	-0.13	-0.750			
0.6555	41951.56	3.5250	3.5254	-1.8384	24.87	-0.13	-0.750			
0.6611	42310.48	3.5220	3.5218	-1.8231	24.88	-0.12	-0.750			
0.6664	42647.71	3.5190	3.5190	-1.7783	24.89	-0.11	-0.750			
0.6718	42994.02	3.5160	3.5161	-1.6987	24.90	-0.10	-0.750			
0.6770	43324.90	3.5130	3.5124	-1.6613	24.92	-0.08	-0.750			
0.6819	43638.53	3.5100	3.5098	-1.6146	24.93	-0.07	-0.750			
0.6865	43933.07	3.5070	3.5066	-1.5457	24.95	-0.05	-0.750			
0.6912	44235.60	3.5040	3.5043	-1.5257	24.97	-0.03	-0.750			
0.6955	44509.82	3.5010	3.5009	-1.4640	24.99	-0.01	-0.750			
0.6999	44792.37	3.4980	3.4980	-1.4469	25.00	-0.00	-0.750			
0.7044	45081.38	3.4950	3.4949	-1.4201	25.01	0.01	-0.750			
0.7086	45350.82	3.4920	3.4922	-1.3758	25.02	0.02	-0.750			
0.7126	45608.58	3.4890	3.4890	-1.3315	25.03	0.03	-0.750			
0.7165	45855.63	3.4860	3.4860	-1.2272	25.04	0.04	-0.750			
