Ah_balance (normalized)	Ah_balance (mAh)	Voltage - fit (V)	Voltage -  interpolate (V)	dQ/dV (1/V)	Temperature (°C)	Temperature - diff (°C)	Current (C)	R_DC 0ms (mOhm)	R_DC 50ms (mOhm)	R_DC 50 ms PEC (mOhm)
0.0480	3070.66	4.1970	4.1970	0.7577	25.51	0.34	0.750			
0.0502	3215.57	4.1940	4.1940	0.7576	25.51	0.34	0.750			
0.0525	3361.92	4.1910	4.1910	0.7620	25.51	0.34	0.750			
0.0548	3508.37	4.1880	4.1880	0.7647	25.51	0.34	0.750			
0.0571	3655.84	4.1850	4.1850	0.7676	25.51	0.34	0.750			
0.0594	3803.22	4.1820	4.1820	0.7675	25.51	0.34	0.750			
0.0617	3951.27	4.1790	4.1789	0.7689	25.51	0.34	0.750			
0.0640	4098.93	4.1760	4.1761	0.7715	25.51	0.34	0.750			
0.0664	4247.07	4.1730	4.1730	0.7707	25.51	0.34	0.750			
0.0687	4394.65	4.1700	4.1700	0.7748	25.51	0.34	0.750			
0.0710	4543.70	4.1670	4.1670	0.7765	25.51	0.34	0.750			
0.0733	4693.33	4.1640	4.1640	0.7786	25.51	0.34	0.750			
0.0757	4843.35	4.1610	4.1610	0.7802	25.51	0.34	0.750			
0.0780	4993.37	4.1580	4.1581	0.7800	25.51	0.34	0.750			
0.0804	5143.18	4.1550	4.1550	0.7802	25.51	0.34	0.750			
0.0827	5292.55	4.1520	4.1520	0.7864	25.52	0.35	0.750			
0.0851	5443.44	4.1490	4.1490	0.7851	25.52	0.35	0.750			
0.0874	5594.65	4.1460	4.1459	0.7863	25.52	0.35	0.750			
0.0898	5745.80	4.1430	4.1430	0.7864	25.52	0.35	0.750			
0.0921	5897.28	4.1400	4.1402	0.7870	25.52	0.35	0.750			
0.0945	6047.34	4.1370	4.1370	0.7907	25.53	0.36	0.750			
0.0969	6198.79	4.1340	4.1340	0.7917	25.53	0.36	0.750			
0.0992	6351.08	4.1310	4.1309	0.7927	25.53	0.36	0.750			
0.1016	6504.87	4.1280	4.1280	0.7970	25.53	0.36	0.750			
0.1041	6659.23	4.1250	4.1250	0.7913	25.53	0.36	0.750			
0.1064	6810.55	4.1220	4.1221	0.7954	25.53	0.36	0.750			
0.1088	6961.68	4.1190	4.1190	0.7978	25.53	0.36	0.750			
0.1111	7112.78	4.1160	4.1160	0.7967	25.53	0.36	0.750			
0.1136	7267.42	4.1130	4.1131	0.8025	25.53	0.36	0.750			
0.1160	7423.22	4.1100	4.1100	0.8057	25.53	0.36	0.750			
0.1184	7578.02	4.1070	4.1071	0.8082	25.53	0.36	0.750			
0.1208	7734.11	4.1040	4.1040	0.8155	25.54	0.37	0.750			
0.1233	7889.71	4.1010	4.1010	0.8105	25.54	0.37	0.750			
0.1257	8045.71	4.0980	4.0980	0.8130	25.54	0.37	0.750			
0.1282	8202.73	4.0950	4.0951	0.8141	25.54	0.37	0.750			
0.1306	8358.13	4.0920	4.0920	0.8189	25.54	0.37	0.750			
0.1331	8515.79	4.0890	4.0889	0.8230	25.55	0.38	0.750			
0.1355	8673.22	4.0860	4.0860	0.8244	25.55	0.38	0.750			
0.1380	8830.80	4.0830	4.0830	0.8273	25.55	0.38	0.750			
0.1405	8993.67	4.0800	4.0800	0.8252	25.55	0.38	0.750			
0.1430	9153.10	4.0770	4.0770	0.8199	25.55	0.38	0.750			
0.1455	9309.26	4.0740	4.0741	0.8163	25.55	0.38	0.750			
0.1479	9463.58	4.0710	4.0712	0.8148	25.55	0.38	0.750			
0.1503	9617.99	4.0680	4.0678	0.8169	25.55	0.38	0.750			
0.1527	9775.17	4.0650	4.0650	0.8204	25.55	0.38	0.750			
0.1552	9932.50	4.0620	4.0620	0.8278	25.55	0.38	0.750			
0.1577	10093.22	4.0590	4.0591	0.8410	25.56	0.39	0.750			
0.1603	10256.83	4.0560	4.0560	0.8497	25.56	0.39	0.750			
0.1628	10419.43	4.0530	4.0530	0.8534	25.56	0.39	0.750			
0.1654	10585.79	4.0500	4.0500	0.8533	25.56	0.39	0.750			
0.1680	10750.12	4.0470	4.0470	0.8579	25.56	0.39	0.750			
0.1706	10916.13	4.0440	4.0440	0.8582	25.57	0.40	0.750			
0.1731	11080.17	4.0410	4.0410	0.8566	25.57	0.40	0.750			
0.1757	11243.23	4.0380	4.0381	0.8558	25.57	0.40	0.750			
0.1783	11408.54	4.0350	4.0350	0.8547	25.57	0.40	0.750			
0.1808	11571.71	4.0320	4.0320	0.8636	25.57	0.40	0.750			
0.1834	11738.34	4.0290	4.0290	0.8691	25.58	0.41	0.750			
0.1860	11905.28	4.0260	4.0260	0.8689	25.58	0.41	0.750			
0.1886	12073.54	4.0230	4.0231	0.8729	25.58	0.41	0.750			
0.1913	12240.97	4.0200	4.0201	0.8770	25.58	0.41	0.750			
0.1939	12409.47	4.0170	4.0169	0.8830	25.59	0.42	0.750			
0.1966	12579.88	4.0140	4.0140	0.8868	25.59	0.42	0.750			
0.1992	12748.87	4.0110	4.0110	0.8839	25.59	0.42	0.750			
0.2019	12920.83	4.0080	4.0080	0.8925	25.59	0.42	0.750			
0.2046	13093.12	4.0050	4.0050	0.8914	25.60	0.43	0.750			
0.2072	13263.83	4.0020	4.0020	0.8924	25.60	0.43	0.750			
0.2099	13433.86	3.9990	3.9990	0.8942	25.61	0.44	0.750			
0.2126	13604.24	3.9960	3.9959	0.8958	25.61	0.44	0.750			
0.2153	13781.08	3.9930	3.9930	0.8875	25.61	0.44	0.750			
0.2180	13949.40	3.9900	3.9901	0.8989	25.61	0.44	0.750			
0.2206	14120.85	3.9870	3.9871	0.9030	25.61	0.44	0.750			
0.2234	14296.26	3.9840	3.9840	0.9070	25.61	0.44	0.750			
0.2261	14468.58	3.9810	3.9811	0.9082	25.61	0.44	0.750			
0.2288	14644.00	3.9780	3.9781	0.9110	25.62	0.45	0.750			
0.2316	14821.53	3.9750	3.9751	0.9130	25.62	0.45	0.750			
0.2344	14998.42	3.9720	3.9719	0.9118	25.63	0.46	0.750			
0.2370	15169.97	3.9690	3.9690	0.9015	25.63	0.46	0.750			
0.2398	15345.76	3.9660	3.9660	0.8975	25.63	0.46	0.750			
0.2424	15515.60	3.9630	3.9630	0.9058	25.63	0.46	0.750			
0.2451	15687.29	3.9600	3.9600	0.9121	25.64	0.47	0.750			
0.2479	15862.98	3.9570	3.9571	0.9233	25.64	0.47	0.750			
0.2507	16041.68	3.9540	3.9539	0.9341	25.64	0.47	0.750			
0.2535	16223.50	3.9510	3.9510	0.9322	25.64	0.47	0.750			
0.2563	16403.45	3.9480	3.9481	0.9423	25.65	0.48	0.750			
0.2592	16585.96	3.9450	3.9451	0.9440	25.65	0.48	0.750			
0.2619	16764.79	3.9420	3.9417	0.9437	25.65	0.48	0.750			
0.2648	16946.08	3.9390	3.9390	0.9457	25.65	0.48	0.750			
0.2676	17128.89	3.9360	3.9361	0.9534	25.66	0.49	0.750			
0.2706	17315.20	3.9330	3.9330	0.9618	25.66	0.49	0.750			
0.2734	17499.36	3.9300	3.9300	0.9605	25.67	0.50	0.750			
0.2764	17686.79	3.9270	3.9270	0.9546	25.67	0.50	0.750			
0.2792	17869.81	3.9240	3.9240	0.9598	25.67	0.50	0.750			
0.2821	18052.28	3.9210	3.9210	0.9588	25.67	0.50	0.750			
0.2849	18235.67	3.9180	3.9181	0.9654	25.67	0.50	0.750			
0.2878	18419.93	3.9150	3.9148	0.9671	25.67	0.50	0.750			
0.2907	18607.20	3.9120	3.9120	0.9625	25.67	0.50	0.750			
0.2936	18791.82	3.9090	3.9091	0.9712	25.67	0.50	0.750			
0.2966	18980.41	3.9060	3.9061	0.9772	25.67	0.50	0.750			
0.2995	19167.88	3.9030	3.9026	0.9701	25.67	0.50	0.750			
0.3024	19354.27	3.9000	3.9001	0.9696	25.67	0.50	0.750			
0.3053	19540.41	3.8970	3.8971	0.9743	25.68	0.51	0.750			
0.3083	19728.96	3.8940	3.8939	0.9800	25.68	0.51	0.750			
0.3112	19915.01	3.8910	3.8909	0.9798	25.69	0.52	0.750			
0.3141	20105.39	3.8880	3.8880	0.9781	25.69	0.52	0.750			
0.3171	20294.14	3.8850	3.8850	0.9921	25.69	0.52	0.750			
0.3201	20485.38	3.8820	3.8820	1.0018	25.69	0.52	0.750			
0.3231	20677.31	3.8790	3.8792	1.0043	25.69	0.52	0.750			
0.3262	20874.07	3.8760	3.8761	1.0064	25.69	0.52	0.750			
0.3292	21067.61	3.8730	3.8730	1.0115	25.69	0.52	0.750			
0.3322	21261.56	3.8700	3.8701	1.0162	25.69	0.52	0.750			
0.3353	21457.45	3.8670	3.8671	1.0191	25.69	0.52	0.750			
0.3383	21652.81	3.8640	3.8640	1.0167	25.69	0.52	0.750			
0.3414	21847.11	3.8610	3.8611	1.0256	25.69	0.52	0.750			
0.3445	22045.82	3.8580	3.8580	1.0296	25.69	0.52	0.750			
0.3476	22243.86	3.8550	3.8550	1.0365	25.69	0.52	0.750			
0.3507	22446.04	3.8520	3.8520	1.0254	25.69	0.52	0.750			
0.3538	22641.17	3.8490	3.8490	1.0342	25.68	0.51	0.750			
0.3569	22840.08	3.8460	3.8460	1.0408	25.68	0.51	0.750			
0.3600	23041.62	3.8430	3.8431	1.0421	25.67	0.50	0.750			
0.3632	23241.97	3.8400	3.8398	1.0348	25.67	0.50	0.750			
0.3662	23439.56	3.8370	3.8372	1.0573	25.66	0.49	0.750			
0.3694	23640.50	3.8340	3.8342	1.0710	25.66	0.49	0.750			
0.3727	23849.95	3.8310	3.8315	1.0908	25.65	0.48	0.750	0.303	0.416	
0.3759	24059.34	3.8280	3.8281	1.0965	25.65	0.48	0.750			
0.3793	24273.98	3.8250	3.8251	1.1096	25.64	0.47	0.750			
0.3827	24491.06	3.8220	3.8221	1.1174	25.64	0.47	0.750			
0.3861	24710.33	3.8190	3.8189	1.1190	25.63	0.46	0.750			
0.3894	24919.84	3.8160	3.8160	1.0970	25.62	0.45	0.750			
0.3926	25128.47	3.8130	3.8130	1.1042	25.62	0.45	0.750			
0.3959	25339.00	3.8100	3.8101	1.1124	25.61	0.44	0.750			
0.3993	25552.64	3.8070	3.8066	1.1197	25.60	0.43	0.750			
0.4026	25768.40	3.8040	3.8042	1.1156	25.59	0.42	0.750			
0.4060	25982.40	3.8010	3.8011	1.1261	25.58	0.41	0.750			
0.4094	26200.43	3.7980	3.7982	1.1402	25.57	0.40	0.750			
0.4128	26417.83	3.7950	3.7948	1.1330	25.56	0.39	0.750			
0.4162	26636.03	3.7920	3.7921	1.1507	25.55	0.38	0.750			
0.4197	26859.25	3.7890	3.7891	1.1650	25.55	0.38	0.750			
0.4232	27086.75	3.7860	3.7860	1.1831	25.54	0.37	0.750			
0.4268	27313.42	3.7830	3.7830	1.1807	25.53	0.36	0.750			
0.4303	27539.22	3.7800	3.7801	1.1984	25.52	0.35	0.750			
0.4339	27770.44	3.7770	3.7771	1.2228	25.51	0.34	0.750			
0.4377	28011.17	3.7740	3.7738	1.2225	25.50	0.33	0.750			
0.4413	28241.92	3.7710	3.7712	1.2564	25.49	0.32	0.750			
0.4451	28486.00	3.7680	3.7682	1.2887	25.47	0.30	0.750			
0.4490	28737.52	3.7650	3.7647	1.3124	25.46	0.29	0.750			
0.4530	28993.83	3.7620	3.7621	1.3466	25.45	0.28	0.750			
0.4570	29248.37	3.7590	3.7592	1.3670	25.44	0.27	0.750			
0.4612	29516.79	3.7560	3.7559	1.3879	25.43	0.26	0.750			
0.4655	29788.83	3.7530	3.7530	1.4022	25.42	0.25	0.750			
0.4696	30056.46	3.7500	3.7501	1.4397	25.41	0.24	0.750			
0.4740	30338.59	3.7470	3.7467	1.4679	25.39	0.22	0.750			
0.4785	30623.28	3.7440	3.7442	1.5014	25.38	0.21	0.750			
0.4830	30914.78	3.7410	3.7409	1.5441	25.37	0.20	0.750			
0.4878	31218.24	3.7380	3.7378	1.5897	25.36	0.19	0.750			
0.4926	31524.26	3.7350	3.7350	1.6360	25.34	0.17	0.750			
0.4975	31842.56	3.7320	3.7319	1.7066	25.33	0.16	0.750			
0.5027	32174.49	3.7290	3.7290	1.7545	25.31	0.14	0.750			
0.5082	32521.87	3.7260	3.7260	1.8055	25.29	0.12	0.750			
0.5135	32866.79	3.7230	3.7230	1.8656	25.28	0.11	0.750			
0.5193	33237.45	3.7200	3.7197	1.9088	25.26	0.09	0.750			
0.5251	33608.60	3.7170	3.7169	1.9516	25.25	0.08	0.750			
0.5309	33977.44	3.7140	3.7143	2.0312	25.23	0.06	0.750			
0.5372	34382.01	3.7110	3.7112	2.0694	25.21	0.04	0.750			
0.5433	34772.78	3.7080	3.7079	2.1661	25.20	0.03	0.750			
0.5500	35197.50	3.7050	3.7050	2.1901	25.18	0.01	0.750			
0.5566	35624.92	3.7020	3.7018	2.2353	25.16	-0.01	0.750			
0.5635	36065.71	3.6990	3.6994	2.2946	25.14	-0.03	0.750			
0.5706	36517.20	3.6960	3.6960	2.4199	25.13	-0.04	0.750			
0.5777	36974.70	3.6930	3.6934	2.4948	25.12	-0.05	0.750			
0.5854	37466.64	3.6900	3.6901	2.5544	25.10	-0.07	0.750			
0.5934	37975.36	3.6870	3.6868	2.5590	25.09	-0.08	0.750			
0.6012	38474.30	3.6840	3.6843	2.6044	25.07	-0.10	0.750			
0.6090	38975.39	3.6810	3.6804	2.6970	25.06	-0.11	0.750			
0.6174	39516.05	3.6780	3.6778	2.8527	25.05	-0.12	0.750			
0.6261	40072.95	3.6750	3.6752	2.9155	25.04	-0.13	0.750			
0.6347	40620.06	3.6720	3.6718	2.9012	25.02	-0.15	0.750			
0.6432	41163.04	3.6690	3.6690	2.9669	25.02	-0.15	0.750			
0.6524	41754.39	3.6660	3.6659	2.9733	25.02	-0.15	0.750			
0.6613	42324.99	3.6630	3.6631	2.9061	25.04	-0.13	0.750			
0.6698	42864.65	3.6600	3.6599	2.6914	25.05	-0.12	0.750			
0.6776	43368.32	3.6570	3.6568	2.4411	25.05	-0.12	0.750			
0.6848	43829.75	3.6540	3.6538	2.2513	25.06	-0.11	0.750			
0.6909	44220.18	3.6510	3.6511	1.9832	25.07	-0.10	0.750			
0.6968	44593.14	3.6480	3.6482	1.7968	25.08	-0.09	0.750			
0.7017	44908.02	3.6450	3.6450	1.5885	25.08	-0.09	0.750			
0.7062	45197.37	3.6420	3.6424	1.4252	25.10	-0.07	0.750			
0.7101	45449.58	3.6390	3.6393	1.2657	25.11	-0.06	0.750			
0.7136	45671.10	3.6360	3.6362	1.1392	25.11	-0.06	0.750			
0.7168	45872.28	3.6330	3.6330	1.0346	25.12	-0.05	0.750			
0.7195	46048.46	3.6300	3.6300	0.9426	25.12	-0.05	0.750			
0.7222	46222.58	3.6270	3.6270	0.9016	25.13	-0.04	0.750			
0.7248	46386.69	3.6240	3.6240	0.8531	25.13	-0.04	0.750			
0.7273	46547.55	3.6210	3.6210	0.8278	25.14	-0.03	0.750			
0.7298	46707.56	3.6180	3.6180	0.7903	25.15	-0.02	0.750			
0.7321	46857.09	3.6150	3.6150	0.7598	25.15	-0.02	0.750			
0.7344	47001.94	3.6120	3.6121	0.7173	25.16	-0.01	0.750			
0.7365	47137.57	3.6090	3.6091	0.6659	25.17	-0.00	0.750			
0.7385	47261.30	3.6060	3.6062	0.6005	25.17	0.00	0.750			
0.7402	47372.19	3.6030	3.6032	0.5340	25.18	0.01	0.750			
0.7417	47468.08	3.6000	3.6000	0.4653	25.18	0.01	0.750			
0.7430	47550.52	3.5970	3.5970	0.4010	25.19	0.02	0.750			
0.7440	47618.32	3.5940	3.5939	0.3215	25.19	0.02	0.750			
0.7449	47673.18	3.5910	3.5910	0.2549	25.19	0.02	0.750			
0.7456	47716.60	3.5880	3.5880	0.1908	25.20	0.03	0.750			
0.7461	47747.38	3.5850	3.5855	0.1249	25.20	0.03	0.750			
0.7463	47766.20	3.5820	3.5829	0.0544	25.20	0.03	0.750			
0.7464	47769.56	3.5790	3.5753	-0.0087	25.20	0.03	0.750			
