Ah_balance (normalized)	Ah_balance (mAh)	Voltage - fit (V)	Voltage -  interpolate (V)	dQ/dV (1/V)	Temperature (°C)	Temperature - diff (°C)	Current (C)	R_DC 0ms (mOhm)	R_DC 50ms (mOhm)	R_DC 50 ms PEC (mOhm)
0.0476	3043.94	4.1970	4.1972	0.7246	25.85	0.71	0.750			
0.0498	3189.47	4.1940	4.1938	0.7694	25.85	0.71	0.750			
0.0522	3339.90	4.1910	4.1911	0.7749	25.85	0.71	0.750			
0.0545	3490.35	4.1880	4.1882	0.7644	25.85	0.71	0.750			
0.0568	3637.19	4.1850	4.1850	0.7655	25.85	0.71	0.750			
0.0591	3781.13	4.1820	4.1820	0.7568	25.85	0.71	0.750			
0.0613	3924.22	4.1790	4.1785	0.7555	25.85	0.71	0.750			
0.0636	4069.70	4.1760	4.1761	0.7612	25.85	0.71	0.750			
0.0659	4219.75	4.1730	4.1730	0.7641	25.85	0.71	0.750			
0.0682	4365.98	4.1700	4.1700	0.7698	25.84	0.70	0.750			
0.0706	4515.89	4.1670	4.1671	0.7747	25.84	0.70	0.750			
0.0728	4662.32	4.1640	4.1640	0.7713	25.84	0.70	0.750			
0.0752	4810.54	4.1610	4.1611	0.7714	25.84	0.70	0.750			
0.0775	4959.03	4.1580	4.1580	0.7728	25.84	0.70	0.750			
0.0798	5108.54	4.1550	4.1550	0.7627	25.84	0.70	0.750			
0.0821	5254.69	4.1520	4.1520	0.7671	25.85	0.71	0.750			
0.0844	5399.23	4.1490	4.1491	0.7623	25.85	0.71	0.750			
0.0866	5545.49	4.1460	4.1453	0.7683	25.85	0.71	0.750			
0.0889	5691.89	4.1430	4.1431	0.7736	25.85	0.71	0.750			
0.0913	5843.96	4.1400	4.1400	0.7684	25.85	0.71	0.750			
0.0936	5992.41	4.1370	4.1370	0.7769	25.85	0.71	0.750			
0.0959	6139.65	4.1340	4.1341	0.7730	25.85	0.71	0.750			
0.0983	6289.03	4.1310	4.1311	0.7802	25.85	0.71	0.750			
0.1006	6438.99	4.1280	4.1281	0.7854	25.85	0.71	0.750			
0.1030	6591.50	4.1250	4.1250	0.7800	25.85	0.71	0.750			
0.1053	6742.14	4.1220	4.1221	0.7857	25.85	0.71	0.750			
0.1078	6896.08	4.1190	4.1190	0.7907	25.85	0.71	0.750			
0.1101	7043.94	4.1160	4.1160	0.7821	25.85	0.71	0.750			
0.1124	7192.94	4.1130	4.1131	0.7847	25.85	0.71	0.750			
0.1148	7344.17	4.1100	4.1101	0.7872	25.85	0.71	0.750			
0.1171	7496.52	4.1070	4.1069	0.7845	25.85	0.71	0.750			
0.1195	7647.32	4.1040	4.1041	0.7888	25.86	0.72	0.750			
0.1218	7796.34	4.1010	4.1011	0.7907	25.86	0.72	0.750			
0.1242	7949.25	4.0980	4.0973	0.7974	25.86	0.72	0.750			
0.1266	8103.94	4.0950	4.0950	0.7942	25.86	0.72	0.750			
0.1291	8260.37	4.0920	4.0920	0.7785	25.86	0.72	0.750			
0.1314	8409.97	4.0890	4.0891	0.7933	25.87	0.73	0.750			
0.1337	8559.54	4.0860	4.0861	0.8034	25.87	0.73	0.750			
0.1361	8709.06	4.0830	4.0826	0.8018	25.87	0.73	0.750			
0.1385	8864.32	4.0800	4.0802	0.8104	25.87	0.73	0.750			
0.1410	9023.86	4.0770	4.0771	0.8136	25.87	0.73	0.750			
0.1435	9182.18	4.0740	4.0741	0.8202	25.87	0.73	0.750			
0.1460	9342.83	4.0710	4.0709	0.8257	25.87	0.73	0.750			
0.1483	9494.35	4.0680	4.0680	0.8154	25.87	0.73	0.750			
0.1508	9651.61	4.0650	4.0650	0.8208	25.87	0.73	0.750			
0.1533	9814.24	4.0620	4.0620	0.8125	25.87	0.73	0.750			
0.1558	9968.69	4.0590	4.0590	0.8188	25.87	0.73	0.750			
0.1582	10125.70	4.0560	4.0561	0.8324	25.87	0.73	0.750			
0.1607	10282.79	4.0530	4.0532	0.8291	25.87	0.73	0.750			
0.1632	10443.51	4.0500	4.0501	0.8346	25.87	0.73	0.750			
0.1657	10606.43	4.0470	4.0472	0.8281	25.87	0.73	0.750			
0.1682	10766.38	4.0440	4.0441	0.8351	25.87	0.73	0.750			
0.1708	10929.05	4.0410	4.0410	0.8472	25.87	0.73	0.750			
0.1732	11085.61	4.0380	4.0380	0.8384	25.87	0.73	0.750			
0.1757	11247.58	4.0350	4.0350	0.8419	25.87	0.73	0.750			
0.1783	11413.67	4.0320	4.0321	0.8420	25.87	0.73	0.750			
0.1809	11575.02	4.0290	4.0290	0.8474	25.88	0.74	0.750			
0.1834	11739.21	4.0260	4.0261	0.8555	25.88	0.74	0.750			
0.1859	11899.12	4.0230	4.0228	0.8502	25.88	0.74	0.750			
0.1885	12062.55	4.0200	4.0200	0.8561	25.88	0.74	0.750			
0.1912	12234.28	4.0170	4.0170	0.8370	25.88	0.74	0.750			
0.1936	12390.92	4.0140	4.0141	0.8581	25.89	0.75	0.750			
0.1963	12560.65	4.0110	4.0111	0.8550	25.89	0.75	0.750			
0.1987	12718.67	4.0080	4.0078	0.8568	25.89	0.75	0.750			
0.2013	12882.98	4.0050	4.0053	0.8677	25.89	0.75	0.750			
0.2040	13053.87	4.0020	4.0023	0.8543	25.89	0.75	0.750			
0.2065	13214.07	3.9990	3.9994	0.8708	25.89	0.75	0.750			
0.2091	13381.55	3.9960	3.9963	0.8658	25.89	0.75	0.750			
0.2118	13552.01	3.9930	3.9930	0.8630	25.89	0.75	0.750			
0.2144	13719.25	3.9900	3.9903	0.8734	25.89	0.75	0.750			
0.2170	13885.06	3.9870	3.9875	0.8827	25.89	0.75	0.750			
0.2197	14059.61	3.9840	3.9842	0.8964	25.89	0.75	0.750			
0.2224	14235.93	3.9810	3.9799	0.9071	25.89	0.75	0.750			
0.2251	14404.17	3.9780	3.9781	0.8914	25.89	0.75	0.750			
0.2279	14584.64	3.9750	3.9750	0.8912	25.89	0.75	0.750			
0.2306	14756.54	3.9720	3.9719	0.9015	25.89	0.75	0.750			
0.2331	14920.71	3.9690	3.9692	0.8846	25.89	0.75	0.750			
0.2358	15088.95	3.9660	3.9660	0.8885	25.89	0.75	0.750			
0.2385	15260.86	3.9630	3.9632	0.8988	25.89	0.75	0.750			
0.2412	15434.10	3.9600	3.9600	0.8955	25.89	0.75	0.750			
0.2439	15607.18	3.9570	3.9571	0.9046	25.89	0.75	0.750			
0.2466	15782.67	3.9540	3.9541	0.9001	25.89	0.75	0.750			
0.2493	15956.82	3.9510	3.9512	0.9073	25.89	0.75	0.750			
0.2521	16132.62	3.9480	3.9480	0.9023	25.89	0.75	0.750			
0.2548	16305.60	3.9450	3.9451	0.9108	25.90	0.76	0.750			
0.2576	16483.20	3.9420	3.9420	0.9158	25.90	0.76	0.750			
0.2603	16657.35	3.9390	3.9390	0.9119	25.91	0.77	0.750			
0.2630	16833.27	3.9360	3.9361	0.9116	25.91	0.77	0.750			
0.2658	17013.32	3.9330	3.9330	0.8916	25.91	0.77	0.750			
0.2684	17175.34	3.9300	3.9301	0.9173	25.91	0.77	0.750			
0.2711	17348.41	3.9270	3.9272	0.9426	25.91	0.77	0.750			
0.2739	17530.57	3.9240	3.9232	0.9528	25.91	0.77	0.750			
0.2769	17720.03	3.9210	3.9210	0.9586	25.91	0.77	0.750			
0.2798	17909.62	3.9180	3.9184	0.9679	25.90	0.76	0.750			
0.2828	18099.70	3.9150	3.9153	0.9696	25.90	0.76	0.750			
0.2858	18288.26	3.9120	3.9119	0.9458	25.89	0.75	0.750			
0.2885	18466.53	3.9090	3.9090	0.9337	25.89	0.75	0.750			
0.2913	18640.06	3.9060	3.9061	0.9268	25.88	0.74	0.750			
0.2941	18820.32	3.9030	3.9031	0.9336	25.88	0.74	0.750			
0.2969	19002.67	3.9000	3.8999	0.9408	25.87	0.73	0.750			
0.2997	19180.03	3.8970	3.8970	0.9321	25.87	0.73	0.750			
0.3025	19358.95	3.8940	3.8940	0.9292	25.86	0.72	0.750			
0.3053	19539.15	3.8910	3.8910	0.9339	25.86	0.72	0.750			
0.3081	19717.20	3.8880	3.8880	0.9373	25.86	0.72	0.750			
0.3109	19895.80	3.8850	3.8849	0.9367	25.85	0.71	0.750			
0.3137	20078.59	3.8820	3.8820	0.9344	25.85	0.71	0.750			
0.3165	20257.17	3.8790	3.8791	0.9358	25.84	0.70	0.750			
0.3194	20438.60	3.8760	3.8760	0.9377	25.84	0.70	0.750			
0.3222	20617.97	3.8730	3.8731	0.9382	25.83	0.69	0.750			
0.3249	20795.55	3.8700	3.8699	0.9336	25.83	0.69	0.750			
0.3277	20974.19	3.8670	3.8671	0.9348	25.82	0.68	0.750			
0.3305	21154.65	3.8640	3.8640	0.9399	25.81	0.67	0.750			
0.3334	21336.48	3.8610	3.8610	0.9397	25.80	0.66	0.750			
0.3362	21516.61	3.8580	3.8580	0.9381	25.79	0.65	0.750			
0.3390	21698.32	3.8550	3.8550	0.9368	25.78	0.64	0.750			
0.3418	21877.25	3.8520	3.8519	0.9361	25.77	0.63	0.750			
0.3446	22056.23	3.8490	3.8490	0.9402	25.76	0.62	0.750			
0.3474	22235.30	3.8460	3.8461	0.9454	25.76	0.62	0.750			
0.3503	22418.02	3.8430	3.8431	0.9490	25.75	0.61	0.750			
0.3531	22600.89	3.8400	3.8400	0.9589	25.73	0.59	0.750			
0.3560	22785.19	3.8370	3.8364	0.9658	25.72	0.58	0.750	0.305	0.427	
0.3589	22972.28	3.8340	3.8342	0.9728	25.71	0.57	0.750			
0.3619	23160.11	3.8310	3.8309	0.9781	25.70	0.56	0.750			
0.3648	23348.43	3.8280	3.8280	0.9794	25.69	0.55	0.750			
0.3677	23534.15	3.8250	3.8251	0.9770	25.68	0.54	0.750			
0.3707	23723.49	3.8220	3.8221	0.9912	25.66	0.52	0.750			
0.3737	23913.99	3.8190	3.8189	0.9986	25.65	0.51	0.750			
0.3767	24107.61	3.8160	3.8160	1.0043	25.64	0.50	0.750			
0.3797	24301.78	3.8130	3.8130	1.0119	25.63	0.49	0.750			
0.3828	24497.53	3.8100	3.8101	1.0212	25.62	0.48	0.750			
0.3858	24693.88	3.8070	3.8069	1.0249	25.61	0.47	0.750			
0.3889	24892.71	3.8040	3.8040	1.0245	25.60	0.46	0.750			
0.3920	25086.33	3.8010	3.8010	1.0442	25.58	0.44	0.750			
0.3951	25287.07	3.7980	3.7981	1.0597	25.57	0.43	0.750			
0.3983	25494.13	3.7950	3.7948	1.0781	25.55	0.41	0.750			
0.4016	25701.90	3.7920	3.7921	1.0949	25.54	0.40	0.750			
0.4049	25914.03	3.7890	3.7891	1.1131	25.53	0.39	0.750			
0.4083	26130.04	3.7860	3.7860	1.1309	25.52	0.38	0.750			
0.4117	26348.89	3.7830	3.7829	1.1393	25.51	0.37	0.750			
0.4151	26568.68	3.7800	3.7800	1.1571	25.50	0.36	0.750			
0.4186	26792.73	3.7770	3.7770	1.1794	25.48	0.34	0.750			
0.4222	27022.86	3.7740	3.7740	1.1978	25.47	0.33	0.750			
0.4258	27253.12	3.7710	3.7710	1.2199	25.45	0.31	0.750			
0.4295	27488.79	3.7680	3.7680	1.2453	25.43	0.29	0.750			
0.4333	27730.22	3.7650	3.7651	1.2729	25.42	0.28	0.750			
0.4371	27977.37	3.7620	3.7618	1.2972	25.40	0.26	0.750			
0.4410	28227.12	3.7590	3.7590	1.3270	25.39	0.25	0.750			
0.4451	28483.52	3.7560	3.7561	1.3549	25.38	0.24	0.750			
0.4492	28749.51	3.7530	3.7528	1.3745	25.37	0.23	0.750			
0.4533	29013.41	3.7500	3.7501	1.4069	25.35	0.21	0.750			
0.4576	29288.79	3.7470	3.7471	1.4374	25.34	0.20	0.750			
0.4619	29564.74	3.7440	3.7438	1.4794	25.32	0.18	0.750			
0.4664	29849.60	3.7410	3.7409	1.5114	25.30	0.16	0.750			
0.4710	30145.67	3.7380	3.7382	1.5491	25.29	0.15	0.750			
0.4758	30451.59	3.7350	3.7350	1.5893	25.27	0.13	0.750			
0.4805	30754.72	3.7320	3.7318	1.6415	25.25	0.11	0.750			
0.4855	31074.23	3.7290	3.7292	1.6696	25.23	0.09	0.750			
0.4906	31401.59	3.7260	3.7262	1.7287	25.22	0.08	0.750			
0.4958	31731.50	3.7230	3.7232	1.7812	25.21	0.07	0.750			
0.5012	32079.46	3.7200	3.7199	1.8276	25.19	0.05	0.750			
0.5069	32439.67	3.7170	3.7172	1.8852	25.16	0.02	0.750			
0.5127	32811.92	3.7140	3.7140	1.9479	25.14	-0.00	0.750			
0.5187	33197.71	3.7110	3.7109	2.0028	25.13	-0.01	0.750			
0.5246	33575.08	3.7080	3.7081	2.0477	25.12	-0.02	0.750			
0.5309	33979.08	3.7050	3.7050	2.0890	25.10	-0.04	0.750			
0.5373	34390.37	3.7020	3.7017	2.1509	25.08	-0.06	0.750			
0.5438	34804.49	3.6990	3.6991	2.2095	25.07	-0.07	0.750			
0.5504	35227.30	3.6960	3.6961	2.2856	25.06	-0.08	0.750			
0.5576	35683.35	3.6930	3.6929	2.3275	25.05	-0.09	0.750			
0.5647	36140.00	3.6900	3.6900	2.4181	25.03	-0.11	0.750			
0.5719	36602.93	3.6870	3.6872	2.4839	25.02	-0.12	0.750			
0.5795	37090.63	3.6840	3.6841	2.5085	25.01	-0.13	0.750			
0.5871	37577.45	3.6810	3.6810	2.5440	24.99	-0.15	0.750			
0.5950	38082.82	3.6780	3.6779	2.6103	24.98	-0.16	0.750			
0.6028	38581.64	3.6750	3.6749	2.6652	24.98	-0.16	0.750			
0.6111	39108.04	3.6720	3.6719	2.6743	24.97	-0.17	0.750			
0.6192	39630.48	3.6690	3.6691	2.5121	24.96	-0.18	0.750			
0.6262	40077.45	3.6660	3.6661	2.2646	24.96	-0.18	0.750			
0.6327	40494.39	3.6630	3.6627	2.0852	24.97	-0.17	0.750			
0.6384	40859.33	3.6600	3.6603	1.9363	24.97	-0.17	0.750			
0.6441	41220.42	3.6570	3.6570	1.8261	24.98	-0.16	0.750			
0.6495	41565.94	3.6540	3.6536	1.7535	24.98	-0.16	0.750			
0.6546	41893.92	3.6510	3.6510	1.6436	24.99	-0.15	0.750			
0.6595	42208.56	3.6480	3.6481	1.5317	25.01	-0.13	0.750			
0.6639	42486.54	3.6450	3.6454	1.3966	25.02	-0.12	0.750			
0.6679	42746.45	3.6420	3.6423	1.2893	25.03	-0.11	0.750			
0.6716	42984.03	3.6390	3.6391	1.1948	25.03	-0.11	0.750			
0.6750	43200.53	3.6360	3.6359	1.1069	25.04	-0.10	0.750			
0.6781	43398.42	3.6330	3.6329	1.0163	25.05	-0.09	0.750			
0.6809	43580.07	3.6300	3.6301	0.9818	25.05	-0.09	0.750			
0.6838	43765.02	3.6270	3.6271	0.9589	25.06	-0.08	0.750			
0.6866	43944.78	3.6240	3.6230	0.9267	25.06	-0.08	0.750			
0.6895	44125.35	3.6210	3.6211	0.8935	25.07	-0.07	0.750			
0.6921	44294.66	3.6180	3.6182	0.8684	25.08	-0.06	0.750			
0.6948	44464.25	3.6150	3.6151	0.8385	25.09	-0.05	0.750			
0.6972	44621.46	3.6120	3.6120	0.7731	25.09	-0.05	0.750			
0.6995	44768.83	3.6090	3.6082	0.7099	25.10	-0.04	0.750			
0.7016	44900.05	3.6060	3.6063	0.6545	25.11	-0.03	0.750			
0.7034	45020.07	3.6030	3.6031	0.5915	25.11	-0.03	0.750			
0.7051	45127.70	3.6000	3.6001	0.5308	25.12	-0.02	0.750			
0.7065	45219.08	3.5970	3.5971	0.4652	25.12	-0.02	0.750			
0.7079	45302.67	3.5940	3.5942	0.4126	25.13	-0.01	0.750			
0.7090	45378.63	3.5910	3.5910	0.3582	25.13	-0.01	0.750			
0.7101	45443.21	3.5880	3.5880	0.3088	25.14	-0.00	0.750			
0.7109	45497.33	3.5850	3.5852	0.2517	25.14	-0.00	0.750			
0.7116	45541.27	3.5820	3.5819	0.1981	25.14	0.00	0.750			
0.7121	45572.87	3.5790	3.5791	0.1478	25.14	0.00	0.750			
0.7124	45596.61	3.5760	3.5770	0.1022	25.14	0.00	0.750			
