Ah_balance (normalized)	Ah_balance (mAh)	Voltage - fit (V)	Voltage -  interpolate (V)	dQ/dV (1/V)	Temperature (°C)	Temperature - diff (°C)	Current (C)	R_DC 0ms (mOhm)	R_DC 50ms (mOhm)	R_DC 50 ms PEC (mOhm)
0.0004	27.62	4.1610	4.1612	-0.1568	24.85	0.03	-0.750			
0.0009	58.68	4.1580	4.1581	-0.1887	24.85	0.03	-0.750			
0.0016	99.75	4.1550	4.1550	-0.2308	24.85	0.03	-0.750			
0.0023	148.04	4.1520	4.1520	-0.2711	24.85	0.03	-0.750			
0.0032	204.68	4.1490	4.1489	-0.3067	24.84	0.02	-0.750			
0.0042	267.00	4.1460	4.1462	-0.3472	24.84	0.02	-0.750			
0.0053	337.59	4.1430	4.1430	-0.3862	24.84	0.02	-0.750			
0.0065	415.84	4.1400	4.1400	-0.4227	24.83	0.01	-0.750			
0.0078	500.64	4.1370	4.1369	-0.4528	24.83	0.01	-0.750			
0.0093	592.06	4.1340	4.1340	-0.4847	24.82	0.00	-0.750			
0.0108	689.31	4.1310	4.1314	-0.5152	24.82	0.00	-0.750			
0.0124	791.89	4.1280	4.1279	-0.5403	24.81	-0.01	-0.750			
0.0140	898.49	4.1250	4.1250	-0.5538	24.81	-0.01	-0.750			
0.0157	1006.50	4.1220	4.1221	-0.5744	24.80	-0.02	-0.750			
0.0175	1118.21	4.1190	4.1191	-0.6020	24.80	-0.02	-0.750			
0.0193	1238.03	4.1160	4.1156	-0.6160	24.79	-0.03	-0.750			
0.0212	1358.77	4.1130	4.1129	-0.6288	24.79	-0.03	-0.750			
0.0231	1480.66	4.1100	4.1105	-0.6395	24.78	-0.04	-0.750			
0.0251	1606.98	4.1070	4.1069	-0.6535	24.78	-0.04	-0.750			
0.0271	1734.09	4.1040	4.1039	-0.6592	24.78	-0.04	-0.750			
0.0290	1856.21	4.1010	4.1010	-0.6633	24.78	-0.04	-0.750			
0.0310	1986.99	4.0980	4.0980	-0.6785	24.78	-0.04	-0.750			
0.0331	2119.30	4.0950	4.0949	-0.6845	24.78	-0.04	-0.750			
0.0352	2251.86	4.0920	4.0920	-0.6898	24.78	-0.04	-0.750			
0.0373	2384.10	4.0890	4.0889	-0.6925	24.78	-0.04	-0.750			
0.0393	2517.13	4.0860	4.0860	-0.6980	24.78	-0.04	-0.750			
0.0414	2650.87	4.0830	4.0830	-0.7036	24.78	-0.04	-0.750			
0.0435	2783.30	4.0800	4.0800	-0.7081	24.78	-0.04	-0.750			
0.0457	2923.61	4.0770	4.0770	-0.7206	24.78	-0.04	-0.750			
0.0479	3063.30	4.0740	4.0740	-0.7266	24.78	-0.04	-0.750			
0.0501	3204.21	4.0710	4.0710	-0.7323	24.78	-0.04	-0.750			
0.0522	3343.00	4.0680	4.0680	-0.7488	24.78	-0.04	-0.750			
0.0545	3490.14	4.0650	4.0650	-0.7405	24.78	-0.04	-0.750			
0.0568	3633.96	4.0620	4.0619	-0.7368	24.78	-0.04	-0.750			
0.0590	3774.34	4.0590	4.0589	-0.7381	24.78	-0.04	-0.750			
0.0612	3915.68	4.0560	4.0563	-0.7394	24.78	-0.04	-0.750			
0.0634	4056.89	4.0530	4.0528	-0.7373	24.78	-0.04	-0.750			
0.0656	4197.24	4.0500	4.0500	-0.7442	24.78	-0.04	-0.750			
0.0678	4341.46	4.0470	4.0470	-0.7570	24.78	-0.04	-0.750			
0.0701	4487.27	4.0440	4.0439	-0.7593	24.78	-0.04	-0.750			
0.0724	4634.45	4.0410	4.0410	-0.7601	24.78	-0.04	-0.750			
0.0747	4778.33	4.0380	4.0378	-0.7576	24.78	-0.04	-0.750			
0.0769	4924.41	4.0350	4.0350	-0.7572	24.79	-0.03	-0.750			
0.0792	5070.00	4.0320	4.0320	-0.7583	24.79	-0.03	-0.750			
0.0814	5212.52	4.0290	4.0290	-0.7596	24.79	-0.03	-0.750			
0.0838	5362.21	4.0260	4.0261	-0.7630	24.80	-0.02	-0.750			
0.0861	5508.49	4.0230	4.0231	-0.7627	24.80	-0.02	-0.750			
0.0884	5656.36	4.0200	4.0199	-0.7632	24.80	-0.02	-0.750			
0.0907	5801.79	4.0170	4.0172	-0.7662	24.80	-0.02	-0.750			
0.0930	5948.84	4.0140	4.0140	-0.7682	24.80	-0.02	-0.750			
0.0953	6097.32	4.0110	4.0109	-0.7670	24.80	-0.02	-0.750			
0.0976	6243.31	4.0080	4.0079	-0.7670	24.80	-0.02	-0.750			
0.0999	6391.46	4.0050	4.0050	-0.7733	24.80	-0.02	-0.750			
0.1022	6537.90	4.0020	4.0020	-0.7781	24.80	-0.02	-0.750			
0.1045	6687.46	3.9990	3.9989	-0.7826	24.80	-0.02	-0.750			
0.1068	6837.74	3.9960	3.9960	-0.7843	24.80	-0.02	-0.750			
0.1093	6992.77	3.9930	3.9929	-0.7885	24.80	-0.02	-0.750			
0.1116	7145.13	3.9900	3.9901	-0.7893	24.80	-0.02	-0.750			
0.1140	7295.64	3.9870	3.9871	-0.7896	24.80	-0.02	-0.750			
0.1164	7447.96	3.9840	3.9841	-0.7844	24.80	-0.02	-0.750			
0.1187	7595.80	3.9810	3.9809	-0.7807	24.80	-0.02	-0.750			
0.1210	7745.70	3.9780	3.9781	-0.7872	24.80	-0.02	-0.750			
0.1234	7897.05	3.9750	3.9754	-0.7903	24.80	-0.02	-0.750			
0.1258	8049.21	3.9720	3.9719	-0.7902	24.80	-0.02	-0.750			
0.1282	8201.62	3.9690	3.9690	-0.8006	24.81	-0.01	-0.750			
0.1306	8357.99	3.9660	3.9660	-0.7987	24.81	-0.01	-0.750			
0.1330	8513.32	3.9630	3.9629	-0.8050	24.82	-0.00	-0.750			
0.1354	8666.20	3.9600	3.9604	-0.8047	24.82	-0.00	-0.750			
0.1378	8820.16	3.9570	3.9568	-0.8021	24.82	0.00	-0.750			
0.1402	8975.34	3.9540	3.9539	-0.8104	24.82	0.00	-0.750			
0.1427	9130.80	3.9510	3.9510	-0.8093	24.82	0.00	-0.750			
0.1451	9288.07	3.9480	3.9479	-0.8191	24.82	0.00	-0.750			
0.1476	9445.49	3.9450	3.9452	-0.8202	24.82	0.00	-0.750			
0.1500	9601.93	3.9420	3.9418	-0.8129	24.82	0.00	-0.750			
0.1524	9756.03	3.9390	3.9390	-0.8189	24.83	0.01	-0.750			
0.1549	9914.79	3.9360	3.9360	-0.8206	24.83	0.01	-0.750			
0.1573	10070.16	3.9330	3.9330	-0.8202	24.83	0.01	-0.750			
0.1599	10232.73	3.9300	3.9300	-0.8254	24.84	0.02	-0.750			
0.1623	10390.05	3.9270	3.9270	-0.8249	24.84	0.02	-0.750			
0.1648	10548.44	3.9240	3.9240	-0.8330	24.84	0.02	-0.750			
0.1674	10711.86	3.9210	3.9210	-0.8286	24.84	0.02	-0.750			
0.1698	10867.68	3.9180	3.9179	-0.8232	24.84	0.02	-0.750			
0.1723	11028.97	3.9150	3.9151	-0.8301	24.84	0.02	-0.750			
0.1748	11186.80	3.9120	3.9118	-0.8280	24.84	0.02	-0.750			
0.1773	11345.76	3.9090	3.9087	-0.8339	24.85	0.03	-0.750			
0.1798	11505.11	3.9060	3.9061	-0.8308	24.85	0.03	-0.750			
0.1822	11663.78	3.9030	3.9030	-0.8263	24.85	0.03	-0.750			
0.1848	11829.14	3.9000	3.9000	-0.8417	24.86	0.04	-0.750			
0.1873	11988.32	3.8970	3.8969	-0.8353	24.86	0.04	-0.750			
0.1898	12146.45	3.8940	3.8939	-0.8345	24.86	0.04	-0.750			
0.1923	12306.16	3.8910	3.8910	-0.8337	24.87	0.05	-0.750			
0.1948	12465.30	3.8880	3.8881	-0.8293	24.87	0.05	-0.750			
0.1973	12627.40	3.8850	3.8850	-0.8391	24.87	0.05	-0.750			
0.1998	12788.59	3.8820	3.8819	-0.8351	24.87	0.05	-0.750			
0.2023	12946.80	3.8790	3.8790	-0.8388	24.87	0.05	-0.750			
0.2049	13110.84	3.8760	3.8759	-0.8382	24.88	0.06	-0.750			
0.2074	13271.82	3.8730	3.8730	-0.8370	24.88	0.06	-0.750			
0.2099	13433.79	3.8700	3.8698	-0.8346	24.88	0.06	-0.750			
0.2124	13594.98	3.8670	3.8669	-0.8264	24.88	0.06	-0.750			
0.2149	13751.22	3.8640	3.8639	-0.8286	24.89	0.07	-0.750			
0.2173	13908.82	3.8610	3.8611	-0.8278	24.89	0.07	-0.750			
0.2198	14064.93	3.8580	3.8577	-0.8177	24.89	0.07	-0.750			
0.2223	14227.37	3.8550	3.8552	-0.8302	24.90	0.08	-0.750			
0.2248	14385.74	3.8520	3.8519	-0.8253	24.90	0.08	-0.750			
0.2273	14545.98	3.8490	3.8488	-0.8293	24.90	0.08	-0.750			
0.2298	14706.02	3.8460	3.8460	-0.8224	24.91	0.09	-0.750			
0.2322	14858.99	3.8430	3.8430	-0.8100	24.91	0.09	-0.750			
0.2347	15019.75	3.8400	3.8401	-0.8158	24.91	0.09	-0.750			
0.2371	15176.04	3.8370	3.8368	-0.8129	24.91	0.09	-0.750			
0.2395	15326.72	3.8340	3.8340	-0.8144	24.91	0.09	-0.750			
0.2420	15485.12	3.8310	3.8309	-0.8076	24.91	0.09	-0.750			
0.2444	15639.17	3.8280	3.8280	-0.8012	24.92	0.10	-0.750			
0.2468	15796.88	3.8250	3.8249	-0.8053	24.92	0.10	-0.750			
0.2492	15950.28	3.8220	3.8218	-0.7960	24.92	0.10	-0.750			
0.2516	16101.18	3.8190	3.8189	-0.7933	24.93	0.11	-0.750			
0.2539	16252.49	3.8160	3.8160	-0.7881	24.93	0.11	-0.750			
0.2563	16402.40	3.8130	3.8130	-0.7760	24.93	0.11	-0.750			
0.2587	16555.23	3.8100	3.8099	-0.7812	24.94	0.12	-0.750			
0.2610	16703.15	3.8070	3.8074	-0.7769	24.94	0.12	-0.750			
0.2633	16851.10	3.8040	3.8039	-0.7717	24.94	0.12	-0.750			
0.2656	16998.66	3.8010	3.8010	-0.7745	24.95	0.13	-0.750			
0.2679	17148.46	3.7980	3.7979	-0.7683	24.95	0.13	-0.750			
0.2703	17296.76	3.7950	3.7950	-0.7670	24.96	0.14	-0.750			
0.2726	17443.31	3.7920	3.7919	-0.7668	24.96	0.14	-0.750			
0.2748	17589.13	3.7890	3.7890	-0.7630	24.96	0.14	-0.750			
0.2771	17733.66	3.7860	3.7858	-0.7718	24.96	0.14	-0.750			
0.2794	17882.11	3.7830	3.7830	-0.7687	24.96	0.14	-0.750			
0.2817	18028.66	3.7800	3.7801	-0.7706	24.96	0.14	-0.750			
0.2841	18183.43	3.7770	3.7769	-0.7809	24.96	0.14	-0.750			
0.2865	18332.88	3.7740	3.7741	-0.7724	24.96	0.14	-0.750			
0.2887	18476.93	3.7710	3.7709	-0.7737	24.96	0.14	-0.750			
0.2910	18625.79	3.7680	3.7681	-0.7775	24.97	0.15	-0.750			
0.2934	18777.37	3.7650	3.7648	-0.7506	24.97	0.15	-0.750			
0.2957	18923.33	3.7620	3.7619	-0.7371	24.98	0.16	-0.750			
0.2978	19061.04	3.7590	3.7595	-0.7260	24.98	0.16	-0.750			
0.2999	19194.99	3.7560	3.7560	-0.7328	24.98	0.16	-0.750			
0.3020	19330.18	3.7530	3.7526	-0.7405	24.98	0.16	-0.750			
0.3042	19471.37	3.7500	3.7500	-0.7689	24.98	0.16	-0.750			
0.3066	19624.61	3.7470	3.7470	-0.8020	24.98	0.16	-0.750			
0.3092	19787.82	3.7440	3.7439	-0.8419	24.98	0.16	-0.750			
0.3117	19951.15	3.7410	3.7412	-0.8514	24.98	0.16	-0.750			
0.3143	20115.73	3.7380	3.7379	-0.8696	24.97	0.15	-0.750			
0.3170	20286.41	3.7350	3.7349	-0.8772	24.97	0.15	-0.750			
0.3196	20454.48	3.7320	3.7320	-0.8800	24.97	0.15	-0.750			
0.3223	20626.75	3.7290	3.7289	-0.8869	24.96	0.14	-0.750			
0.3249	20794.83	3.7260	3.7260	-0.9126	24.96	0.14	-0.750			
0.3277	20970.60	3.7230	3.7229	-0.9106	24.95	0.13	-0.750			
0.3304	21146.70	3.7200	3.7198	-0.9161	24.95	0.13	-0.750			
0.3332	21324.47	3.7170	3.7170	-0.9355	24.94	0.12	-0.750			
0.3360	21503.09	3.7140	3.7145	-0.9513	24.94	0.12	-0.750			
0.3389	21687.60	3.7110	3.7109	-0.9624	24.94	0.12	-0.750			
0.3417	21870.42	3.7080	3.7079	-0.9864	24.94	0.12	-0.750			
0.3447	22060.17	3.7050	3.7050	-0.9948	24.93	0.11	-0.750			
0.3476	22249.04	3.7020	3.7021	-1.0414	24.93	0.11	-0.750			
0.3509	22454.63	3.6990	3.6988	-1.0411	24.93	0.11	-0.750			
0.3540	22658.05	3.6960	3.6959	-1.0460	24.93	0.11	-0.750	0.372	0.521	
0.3572	22859.99	3.6930	3.6929	-1.0543	24.92	0.10	-0.750			
0.3604	23063.18	3.6900	3.6907	-1.0784	24.92	0.10	-0.750			
0.3636	23270.85	3.6870	3.6868	-1.0939	24.91	0.09	-0.750			
0.3669	23480.07	3.6840	3.6838	-1.0984	24.90	0.08	-0.750			
0.3702	23690.76	3.6810	3.6811	-1.1072	24.89	0.07	-0.750			
0.3736	23907.56	3.6780	3.6783	-1.1507	24.88	0.06	-0.750			
0.3770	24129.86	3.6750	3.6750	-1.1650	24.87	0.05	-0.750			
0.3805	24353.51	3.6720	3.6718	-1.1788	24.87	0.05	-0.750			
0.3840	24577.30	3.6690	3.6690	-1.2140	24.86	0.04	-0.750			
0.3878	24817.23	3.6660	3.6660	-1.2328	24.86	0.04	-0.750			
0.3915	25058.03	3.6630	3.6629	-1.2491	24.85	0.03	-0.750			
0.3952	25294.07	3.6600	3.6599	-1.2829	24.84	0.02	-0.750			
0.3991	25540.53	3.6570	3.6568	-1.2901	24.84	0.02	-0.750			
0.4031	25796.96	3.6540	3.6539	-1.3120	24.83	0.01	-0.750			
0.4070	26050.04	3.6510	3.6507	-1.3217	24.83	0.01	-0.750			
0.4110	26301.22	3.6480	3.6487	-1.3449	24.82	-0.00	-0.750			
0.4151	26569.10	3.6450	3.6448	-1.3744	24.81	-0.01	-0.750			
0.4191	26823.97	3.6420	3.6420	-1.4315	24.81	-0.01	-0.750			
0.4234	27099.16	3.6390	3.6393	-1.4499	24.80	-0.02	-0.750			
0.4279	27388.52	3.6360	3.6358	-1.4937	24.79	-0.03	-0.750			
0.4325	27682.95	3.6330	3.6325	-1.5225	24.79	-0.03	-0.750			
0.4372	27983.65	3.6300	3.6296	-1.5244	24.78	-0.04	-0.750			
0.4419	28282.97	3.6270	3.6267	-1.5521	24.77	-0.05	-0.750			
0.4466	28582.95	3.6240	3.6240	-1.5618	24.76	-0.06	-0.750			
0.4513	28884.51	3.6210	3.6204	-1.5932	24.76	-0.06	-0.750			
0.4559	29176.58	3.6180	3.6185	-1.6224	24.75	-0.07	-0.750			
0.4609	29498.59	3.6150	3.6152	-1.6317	24.75	-0.07	-0.750			
0.4660	29821.25	3.6120	3.6123	-1.6812	24.75	-0.07	-0.750			
0.4711	30149.61	3.6090	3.6097	-1.7166	24.74	-0.08	-0.750			
0.4765	30492.95	3.6060	3.6058	-1.7487	24.73	-0.09	-0.750			
0.4816	30825.46	3.6030	3.6027	-1.8224	24.73	-0.09	-0.750			
0.4871	31174.32	3.6000	3.5997	-1.8458	24.72	-0.10	-0.750			
0.4927	31534.83	3.5970	3.5966	-1.9552	24.71	-0.11	-0.750			
0.4986	31912.93	3.5940	3.5938	-1.9076	24.70	-0.12	-0.750			
0.5044	32284.40	3.5910	3.5909	-1.9556	24.70	-0.12	-0.750			
0.5103	32661.45	3.5880	3.5887	-1.9431	24.70	-0.12	-0.750			
0.5161	33032.83	3.5850	3.5850	-2.0290	24.70	-0.12	-0.750			
0.5224	33433.38	3.5820	3.5818	-2.0566	24.69	-0.13	-0.750			
0.5289	33846.98	3.5790	3.5794	-2.1169	24.69	-0.13	-0.750			
0.5352	34254.86	3.5760	3.5760	-2.0983	24.68	-0.14	-0.750			
0.5413	34646.12	3.5730	3.5727	-2.0779	24.68	-0.14	-0.750			
0.5474	35035.85	3.5700	3.5703	-2.0874	24.68	-0.14	-0.750			
0.5538	35440.11	3.5670	3.5674	-2.1222	24.68	-0.14	-0.750			
0.5604	35867.24	3.5640	3.5640	-2.1552	24.68	-0.14	-0.750			
0.5667	36268.20	3.5610	3.5617	-2.1880	24.68	-0.14	-0.750			
0.5735	36706.60	3.5580	3.5577	-2.1483	24.68	-0.14	-0.750			
0.5799	37110.63	3.5550	3.5549	-2.1136	24.68	-0.14	-0.750			
0.5862	37517.20	3.5520	3.5524	-2.0882	24.68	-0.14	-0.750			
0.5925	37918.75	3.5490	3.5487	-2.0488	24.68	-0.14	-0.750			
0.5986	38308.29	3.5460	3.5459	-2.0634	24.68	-0.14	-0.750			
0.6047	38703.52	3.5430	3.5426	-2.0722	24.69	-0.13	-0.750			
0.6106	39080.51	3.5400	3.5399	-2.0157	24.70	-0.12	-0.750			
0.6170	39486.77	3.5370	3.5371	-1.9763	24.71	-0.11	-0.750			
0.6228	39857.38	3.5340	3.5347	-1.9446	24.72	-0.10	-0.750			
0.6285	40220.91	3.5310	3.5309	-1.8704	24.73	-0.09	-0.750			
0.6340	40576.91	3.5280	3.5276	-1.8547	24.74	-0.08	-0.750			
0.6394	40921.02	3.5250	3.5252	-1.7990	24.75	-0.07	-0.750			
0.6450	41277.26	3.5220	3.5228	-1.7864	24.75	-0.07	-0.750			
0.6504	41627.27	3.5190	3.5187	-1.7477	24.77	-0.05	-0.750			
0.6557	41966.14	3.5160	3.5158	-1.7404	24.78	-0.04	-0.750			
0.6609	42295.39	3.5130	3.5134	-1.6702	24.80	-0.02	-0.750			
0.6658	42609.15	3.5100	3.5101	-1.6257	24.82	-0.00	-0.750			
0.6705	42911.54	3.5070	3.5075	-1.5678	24.83	0.01	-0.750			
0.6751	43207.19	3.5040	3.5039	-1.5175	24.85	0.03	-0.750			
0.6797	43502.66	3.5010	3.5011	-1.5211	24.86	0.04	-0.750			
0.6842	43790.01	3.4980	3.4979	-1.4753	24.88	0.06	-0.750			
0.6887	44075.54	3.4950	3.4947	-1.4354	24.89	0.07	-0.750			
0.6929	44343.92	3.4920	3.4916	-1.3711	24.91	0.09	-0.750			
0.6968	44594.79	3.4890	3.4898	-1.3480	24.92	0.10	-0.750			
0.7007	44845.22	3.4860	3.4858	-1.2128	24.94	0.12	-0.750			
