Ah_balance (normalized)	Ah_balance (mAh)	Voltage - fit (V)	Voltage -  interpolate (V)	dQ/dV (1/V)	Temperature (°C)	Temperature - diff (°C)	Current (C)	R_DC 0ms (mOhm)	R_DC 50ms (mOhm)	R_DC 50 ms PEC (mOhm)
0.0003	16.28	4.1650	4.1645	-0.1214	24.93	0.00	-0.750			
0.0007	44.61	4.1620	4.1617	-0.1680	24.93	0.00	-0.750			
0.0013	80.34	4.1590	4.1588	-0.2115	24.93	0.00	-0.750			
0.0020	126.70	4.1560	4.1559	-0.2528	24.93	-0.00	-0.750			
0.0028	178.90	4.1530	4.1529	-0.2943	24.93	-0.00	-0.750			
0.0037	239.46	4.1500	4.1501	-0.3368	24.92	-0.01	-0.750			
0.0048	307.98	4.1470	4.1471	-0.3764	24.92	-0.01	-0.750			
0.0060	386.01	4.1440	4.1438	-0.4182	24.92	-0.01	-0.750			
0.0074	470.61	4.1410	4.1411	-0.4541	24.92	-0.01	-0.750			
0.0088	561.42	4.1380	4.1380	-0.4989	24.91	-0.02	-0.750			
0.0104	663.66	4.1350	4.1350	-0.5324	24.91	-0.02	-0.750			
0.0120	769.55	4.1320	4.1317	-0.5649	24.90	-0.03	-0.750			
0.0138	882.81	4.1290	4.1295	-0.5856	24.90	-0.03	-0.750			
0.0156	999.72	4.1260	4.1259	-0.6070	24.89	-0.04	-0.750			
0.0175	1117.70	4.1230	4.1230	-0.6221	24.89	-0.04	-0.750			
0.0193	1236.00	4.1200	4.1201	-0.6451	24.88	-0.05	-0.750			
0.0213	1363.68	4.1170	4.1169	-0.6635	24.88	-0.05	-0.750			
0.0233	1493.33	4.1140	4.1139	-0.6759	24.87	-0.06	-0.750			
0.0254	1625.91	4.1110	4.1110	-0.6845	24.86	-0.07	-0.750			
0.0275	1760.14	4.1080	4.1080	-0.6965	24.86	-0.07	-0.750			
0.0296	1894.09	4.1050	4.1050	-0.7049	24.86	-0.07	-0.750			
0.0317	2029.29	4.1020	4.1020	-0.7127	24.86	-0.07	-0.750			
0.0338	2164.60	4.0990	4.0989	-0.7198	24.85	-0.08	-0.750			
0.0361	2307.32	4.0960	4.0960	-0.7207	24.85	-0.08	-0.750			
0.0382	2447.72	4.0930	4.0934	-0.7237	24.85	-0.08	-0.750			
0.0404	2585.95	4.0900	4.0899	-0.7228	24.85	-0.08	-0.750			
0.0425	2723.07	4.0870	4.0868	-0.7214	24.85	-0.08	-0.750			
0.0447	2859.49	4.0840	4.0840	-0.7456	24.85	-0.08	-0.750			
0.0469	3004.29	4.0810	4.0808	-0.7421	24.84	-0.09	-0.750			
0.0492	3151.80	4.0780	4.0778	-0.7576	24.84	-0.09	-0.750			
0.0516	3299.50	4.0750	4.0757	-0.7614	24.84	-0.09	-0.750			
0.0539	3446.75	4.0720	4.0717	-0.7602	24.84	-0.09	-0.750			
0.0561	3591.94	4.0690	4.0689	-0.7632	24.84	-0.09	-0.750			
0.0584	3736.17	4.0660	4.0660	-0.7531	24.83	-0.10	-0.750			
0.0606	3881.42	4.0630	4.0630	-0.7626	24.83	-0.10	-0.750			
0.0629	4028.41	4.0600	4.0600	-0.7709	24.83	-0.10	-0.750			
0.0652	4174.73	4.0570	4.0570	-0.7698	24.83	-0.10	-0.750			
0.0675	4320.62	4.0540	4.0539	-0.7896	24.83	-0.10	-0.750			
0.0699	4476.30	4.0510	4.0510	-0.7881	24.83	-0.10	-0.750			
0.0723	4629.60	4.0480	4.0479	-0.7878	24.84	-0.09	-0.750			
0.0747	4783.45	4.0450	4.0447	-0.7860	24.84	-0.09	-0.750			
0.0771	4934.02	4.0420	4.0420	-0.7773	24.84	-0.09	-0.750			
0.0793	5078.20	4.0390	4.0390	-0.7864	24.84	-0.09	-0.750			
0.0817	5226.60	4.0360	4.0360	-0.7824	24.84	-0.09	-0.750			
0.0840	5375.41	4.0330	4.0329	-0.7716	24.84	-0.09	-0.750			
0.0864	5530.74	4.0300	4.0298	-0.7895	24.84	-0.09	-0.750			
0.0888	5683.05	4.0270	4.0275	-0.7913	24.84	-0.09	-0.750			
0.0912	5835.03	4.0240	4.0239	-0.7889	24.84	-0.09	-0.750			
0.0935	5985.15	4.0210	4.0209	-0.7975	24.84	-0.09	-0.750			
0.0959	6138.62	4.0180	4.0179	-0.7938	24.84	-0.09	-0.750			
0.0983	6291.37	4.0150	4.0149	-0.7939	24.84	-0.09	-0.750			
0.1007	6444.49	4.0120	4.0120	-0.7997	24.84	-0.09	-0.750			
0.1031	6597.92	4.0090	4.0089	-0.7996	24.84	-0.09	-0.750			
0.1055	6750.42	4.0060	4.0058	-0.8075	24.84	-0.09	-0.750			
0.1079	6905.17	4.0030	4.0030	-0.8072	24.84	-0.09	-0.750			
0.1103	7061.00	4.0000	4.0001	-0.8021	24.84	-0.09	-0.750			
0.1128	7220.97	3.9970	3.9968	-0.8110	24.84	-0.09	-0.750			
0.1152	7374.89	3.9940	3.9939	-0.8106	24.84	-0.09	-0.750			
0.1176	7525.56	3.9910	3.9909	-0.8115	24.84	-0.09	-0.750			
0.1201	7683.28	3.9880	3.9879	-0.8114	24.84	-0.09	-0.750			
0.1225	7837.47	3.9850	3.9851	-0.8104	24.85	-0.08	-0.750			
0.1250	7997.90	3.9820	3.9819	-0.8188	24.85	-0.08	-0.750			
0.1274	8155.77	3.9790	3.9791	-0.8164	24.85	-0.08	-0.750			
0.1298	8308.47	3.9760	3.9759	-0.8235	24.85	-0.08	-0.750			
0.1323	8467.26	3.9730	3.9729	-0.8229	24.85	-0.08	-0.750			
0.1348	8624.50	3.9700	3.9700	-0.8274	24.86	-0.07	-0.750			
0.1373	8787.89	3.9670	3.9669	-0.8307	24.86	-0.07	-0.750			
0.1398	8948.73	3.9640	3.9641	-0.8335	24.86	-0.07	-0.750			
0.1423	9106.87	3.9610	3.9610	-0.8436	24.86	-0.07	-0.750			
0.1448	9269.60	3.9580	3.9579	-0.8390	24.86	-0.07	-0.750			
0.1473	9429.27	3.9550	3.9549	-0.8269	24.86	-0.07	-0.750			
0.1498	9590.35	3.9520	3.9520	-0.8365	24.86	-0.07	-0.750			
0.1523	9750.01	3.9490	3.9488	-0.8383	24.86	-0.07	-0.750			
0.1548	9910.10	3.9460	3.9458	-0.8515	24.86	-0.07	-0.750			
0.1574	10072.75	3.9430	3.9429	-0.8433	24.86	-0.07	-0.750			
0.1599	10235.00	3.9400	3.9400	-0.8411	24.86	-0.07	-0.750			
0.1626	10404.19	3.9370	3.9370	-0.8515	24.86	-0.07	-0.750			
0.1651	10565.78	3.9340	3.9340	-0.8486	24.86	-0.07	-0.750			
0.1675	10723.09	3.9310	3.9309	-0.8505	24.86	-0.07	-0.750			
0.1701	10887.26	3.9280	3.9279	-0.8558	24.86	-0.07	-0.750			
0.1727	11052.90	3.9250	3.9248	-0.8458	24.87	-0.06	-0.750			
0.1753	11219.20	3.9220	3.9221	-0.8530	24.87	-0.06	-0.750			
0.1779	11383.55	3.9190	3.9191	-0.8603	24.87	-0.06	-0.750			
0.1805	11549.12	3.9160	3.9157	-0.8773	24.87	-0.06	-0.750			
0.1831	11718.16	3.9130	3.9128	-0.8658	24.88	-0.05	-0.750			
0.1857	11885.99	3.9100	3.9099	-0.8620	24.88	-0.05	-0.750			
0.1884	12055.68	3.9070	3.9069	-0.8787	24.88	-0.05	-0.750			
0.1910	12226.13	3.9040	3.9038	-0.8716	24.88	-0.05	-0.750			
0.1936	12389.05	3.9010	3.9007	-0.8678	24.88	-0.05	-0.750			
0.1961	12549.15	3.8980	3.8980	-0.8574	24.89	-0.04	-0.750			
0.1987	12719.16	3.8950	3.8950	-0.8768	24.89	-0.04	-0.750			
0.2014	12887.48	3.8920	3.8925	-0.8711	24.89	-0.04	-0.750			
0.2039	13052.39	3.8890	3.8889	-0.8747	24.89	-0.04	-0.750			
0.2065	13218.14	3.8860	3.8861	-0.8729	24.89	-0.04	-0.750			
0.2091	13385.08	3.8830	3.8829	-0.8803	24.90	-0.03	-0.750			
0.2119	13558.45	3.8800	3.8799	-0.8916	24.90	-0.03	-0.750			
0.2145	13730.37	3.8770	3.8773	-0.8880	24.90	-0.03	-0.750			
0.2172	13900.49	3.8740	3.8739	-0.8983	24.90	-0.03	-0.750			
0.2199	14076.29	3.8710	3.8709	-0.8980	24.90	-0.03	-0.750			
0.2226	14245.79	3.8680	3.8679	-0.8874	24.90	-0.03	-0.750			
0.2253	14418.52	3.8650	3.8648	-0.8863	24.90	-0.03	-0.750			
0.2280	14588.83	3.8620	3.8616	-0.8817	24.90	-0.03	-0.750			
0.2306	14757.97	3.8590	3.8588	-0.8908	24.91	-0.02	-0.750			
0.2333	14928.59	3.8560	3.8559	-0.8862	24.91	-0.02	-0.750			
0.2359	15095.79	3.8530	3.8530	-0.8802	24.92	-0.01	-0.750			
0.2386	15267.86	3.8500	3.8503	-0.8878	24.92	-0.01	-0.750			
0.2412	15436.88	3.8470	3.8469	-0.9059	24.92	-0.01	-0.750			
0.2439	15612.60	3.8440	3.8439	-0.8921	24.92	-0.01	-0.750			
0.2466	15783.22	3.8410	3.8409	-0.8832	24.92	-0.01	-0.750			
0.2493	15952.38	3.8380	3.8379	-0.8952	24.92	-0.01	-0.750			
0.2519	16123.44	3.8350	3.8354	-0.8962	24.92	-0.01	-0.750			
0.2546	16295.57	3.8320	3.8318	-0.8967	24.92	-0.01	-0.750			
0.2573	16467.77	3.8290	3.8289	-0.8956	24.92	-0.01	-0.750			
0.2601	16644.64	3.8260	3.8260	-0.8951	24.93	-0.00	-0.750			
0.2627	16813.35	3.8230	3.8228	-0.8823	24.93	-0.00	-0.750			
0.2653	16980.55	3.8200	3.8199	-0.8747	24.93	0.00	-0.750			
0.2679	17142.62	3.8170	3.8167	-0.8841	24.93	0.00	-0.750			
0.2705	17311.00	3.8140	3.8138	-0.8791	24.94	0.01	-0.750			
0.2732	17486.76	3.8110	3.8109	-0.8953	24.94	0.01	-0.750			
0.2759	17659.21	3.8080	3.8081	-0.8967	24.94	0.01	-0.750			
0.2787	17833.96	3.8050	3.8048	-0.8977	24.94	0.01	-0.750			
0.2813	18003.57	3.8020	3.8019	-0.8936	24.94	0.01	-0.750			
0.2839	18170.72	3.7990	3.7989	-0.8841	24.95	0.02	-0.750			
0.2866	18342.87	3.7960	3.7959	-0.8894	24.95	0.02	-0.750			
0.2893	18514.56	3.7930	3.7934	-0.8861	24.95	0.02	-0.750			
0.2919	18683.50	3.7900	3.7899	-0.8947	24.95	0.02	-0.750			
0.2946	18854.80	3.7870	3.7869	-0.8825	24.95	0.02	-0.750			
0.2973	19025.64	3.7840	3.7838	-0.8648	24.96	0.03	-0.750			
0.2999	19193.58	3.7810	3.7807	-0.8639	24.96	0.03	-0.750			
0.3024	19356.49	3.7780	3.7779	-0.8545	24.96	0.03	-0.750			
0.3049	19516.13	3.7750	3.7748	-0.8571	24.96	0.03	-0.750			
0.3075	19678.77	3.7720	3.7719	-0.8547	24.96	0.03	-0.750			
0.3101	19844.34	3.7690	3.7690	-0.8658	24.97	0.04	-0.750			
0.3127	20010.78	3.7660	3.7659	-0.8632	24.97	0.04	-0.750			
0.3153	20178.64	3.7630	3.7630	-0.8628	24.97	0.04	-0.750			
0.3178	20341.19	3.7600	3.7599	-0.8641	24.97	0.04	-0.750			
0.3204	20506.86	3.7570	3.7568	-0.8605	24.98	0.05	-0.750			
0.3230	20671.66	3.7540	3.7539	-0.8559	24.98	0.05	-0.750			
0.3256	20838.97	3.7510	3.7510	-0.8626	24.98	0.05	-0.750			
0.3282	21005.43	3.7480	3.7478	-0.8659	24.98	0.05	-0.750			
0.3308	21171.23	3.7450	3.7449	-0.8701	24.98	0.05	-0.750			
0.3334	21336.16	3.7420	3.7419	-0.8674	24.98	0.05	-0.750			
0.3360	21501.21	3.7390	3.7390	-0.8663	24.98	0.05	-0.750			
0.3387	21674.35	3.7360	3.7366	-0.8722	24.98	0.05	-0.750			
0.3412	21839.66	3.7330	3.7329	-0.8746	24.98	0.05	-0.750			
0.3439	22006.90	3.7300	3.7300	-0.8906	24.98	0.05	-0.750			
0.3465	22179.09	3.7270	3.7268	-0.8980	24.98	0.05	-0.750			
0.3492	22351.95	3.7240	3.7238	-0.9037	24.98	0.05	-0.750			
0.3520	22530.95	3.7210	3.7214	-0.9250	24.98	0.05	-0.750			
0.3548	22709.28	3.7180	3.7179	-0.9458	24.98	0.05	-0.750			
0.3577	22892.50	3.7150	3.7149	-0.9559	24.98	0.05	-0.750			
0.3605	23071.76	3.7120	3.7118	-0.9557	24.97	0.04	-0.750			
0.3634	23260.41	3.7090	3.7092	-1.0163	24.97	0.04	-0.750			
0.3666	23464.28	3.7060	3.7059	-1.0342	24.97	0.04	-0.750			
0.3698	23667.70	3.7030	3.7027	-1.0352	24.97	0.04	-0.750			
0.3730	23870.78	3.7000	3.7002	-1.0355	24.96	0.03	-0.750	0.381	0.480	
0.3760	24062.54	3.6970	3.6968	-1.0557	24.96	0.03	-0.750			
0.3792	24265.90	3.6940	3.6939	-1.0690	24.96	0.03	-0.750			
0.3823	24468.54	3.6910	3.6907	-1.0805	24.95	0.02	-0.750			
0.3854	24668.36	3.6880	3.6880	-1.0952	24.95	0.02	-0.750			
0.3890	24894.53	3.6850	3.6860	-1.1634	24.94	0.01	-0.750			
0.3926	25123.37	3.6820	3.6818	-1.1825	24.94	0.01	-0.750			
0.3962	25356.63	3.6790	3.6788	-1.2047	24.93	0.00	-0.750			
0.3998	25585.77	3.6760	3.6759	-1.2335	24.93	0.00	-0.750			
0.4036	25828.98	3.6730	3.6728	-1.2614	24.92	-0.01	-0.750			
0.4074	26073.92	3.6700	3.6698	-1.2777	24.92	-0.01	-0.750			
0.4111	26312.90	3.6670	3.6667	-1.3180	24.91	-0.02	-0.750			
0.4151	26569.52	3.6640	3.6640	-1.3178	24.90	-0.03	-0.750			
0.4193	26833.77	3.6610	3.6608	-1.3702	24.89	-0.04	-0.750			
0.4233	27090.23	3.6580	3.6579	-1.4206	24.89	-0.04	-0.750			
0.4276	27369.26	3.6550	3.6551	-1.4811	24.88	-0.05	-0.750			
0.4321	27651.97	3.6520	3.6520	-1.5051	24.87	-0.06	-0.750			
0.4368	27952.41	3.6490	3.6489	-1.5092	24.86	-0.07	-0.750			
0.4413	28244.59	3.6460	3.6457	-1.5257	24.84	-0.09	-0.750			
0.4459	28536.68	3.6430	3.6426	-1.5938	24.83	-0.10	-0.750			
0.4506	28836.74	3.6400	3.6401	-1.6013	24.82	-0.11	-0.750			
0.4555	29149.78	3.6370	3.6373	-1.6434	24.81	-0.12	-0.750			
0.4604	29465.54	3.6340	3.6345	-1.6918	24.79	-0.14	-0.750			
0.4656	29799.87	3.6310	3.6310	-1.7210	24.78	-0.15	-0.750			
0.4711	30147.40	3.6280	3.6277	-1.7536	24.77	-0.16	-0.750			
0.4763	30486.16	3.6250	3.6249	-1.7683	24.76	-0.17	-0.750			
0.4816	30824.08	3.6220	3.6216	-1.8160	24.75	-0.18	-0.750			
0.4870	31166.91	3.6190	3.6187	-1.8138	24.74	-0.19	-0.750			
0.4925	31518.37	3.6160	3.6159	-1.8433	24.74	-0.19	-0.750			
0.4980	31871.28	3.6130	3.6128	-1.8531	24.73	-0.20	-0.750			
0.5037	32235.64	3.6100	3.6097	-1.8820	24.72	-0.21	-0.750			
0.5094	32598.86	3.6070	3.6066	-1.9518	24.71	-0.22	-0.750			
0.5153	32980.98	3.6040	3.6039	-1.9819	24.70	-0.23	-0.750			
0.5213	33365.21	3.6010	3.6009	-2.0530	24.69	-0.24	-0.750			
0.5275	33760.95	3.5980	3.5979	-2.0704	24.69	-0.24	-0.750			
0.5338	34160.08	3.5950	3.5947	-2.1101	24.68	-0.25	-0.750			
0.5403	34580.25	3.5920	3.5917	-2.1493	24.68	-0.25	-0.750			
0.5469	34999.71	3.5890	3.5885	-2.1854	24.68	-0.25	-0.750			
0.5534	35418.98	3.5860	3.5864	-2.2381	24.68	-0.25	-0.750			
0.5605	35872.03	3.5830	3.5830	-2.2508	24.67	-0.26	-0.750			
0.5672	36301.62	3.5800	3.5797	-2.2436	24.67	-0.26	-0.750			
0.5740	36733.35	3.5770	3.5771	-2.3213	24.66	-0.27	-0.750			
0.5808	37170.01	3.5740	3.5740	-2.3530	24.66	-0.27	-0.750			
0.5880	37632.65	3.5710	3.5710	-2.2902	24.66	-0.27	-0.750			
0.5951	38083.81	3.5680	3.5677	-2.3835	24.66	-0.27	-0.750			
0.6021	38531.93	3.5650	3.5652	-2.4132	24.67	-0.26	-0.750			
0.6093	38995.68	3.5620	3.5614	-2.3792	24.68	-0.25	-0.750			
0.6165	39458.80	3.5590	3.5590	-2.3793	24.68	-0.25	-0.750			
0.6240	39937.57	3.5560	3.5557	-2.3706	24.68	-0.25	-0.750			
0.6310	40383.95	3.5530	3.5529	-2.3207	24.69	-0.24	-0.750			
0.6378	40821.53	3.5500	3.5504	-2.2505	24.70	-0.23	-0.750			
0.6445	41245.88	3.5470	3.5472	-2.2398	24.71	-0.22	-0.750			
0.6513	41683.38	3.5440	3.5444	-2.2186	24.72	-0.21	-0.750			
0.6579	42103.75	3.5410	3.5411	-2.2093	24.73	-0.20	-0.750			
0.6647	42538.57	3.5380	3.5382	-2.1378	24.74	-0.19	-0.750			
0.6709	42936.59	3.5350	3.5349	-2.1202	24.75	-0.18	-0.750			
0.6774	43351.28	3.5320	3.5320	-2.0793	24.76	-0.17	-0.750			
0.6835	43741.76	3.5290	3.5287	-2.0035	24.77	-0.16	-0.750			
0.6896	44131.83	3.5260	3.5262	-1.9682	24.78	-0.15	-0.750			
0.6953	44498.74	3.5230	3.5230	-1.9388	24.80	-0.13	-0.750			
0.7009	44860.08	3.5200	3.5202	-1.8250	24.82	-0.11	-0.750			
0.7064	45207.62	3.5170	3.5170	-1.7609	24.84	-0.09	-0.750			
0.7118	45552.30	3.5140	3.5141	-1.7136	24.86	-0.07	-0.750			
0.7168	45874.03	3.5110	3.5108	-1.6244	24.88	-0.05	-0.750			
0.7215	46172.95	3.5080	3.5079	-1.5608	24.90	-0.03	-0.750			
0.7259	46459.19	3.5050	3.5051	-1.5112	24.92	-0.01	-0.750			
0.7303	46736.50	3.5020	3.5018	-1.4660	24.94	0.01	-0.750			
0.7345	47010.36	3.4990	3.4990	-1.4531	24.96	0.03	-0.750			
0.7388	47285.92	3.4960	3.4963	-1.4899	24.98	0.05	-0.750			
0.7433	47572.88	3.4930	3.4929	-1.4866	25.00	0.07	-0.750			
