Ah_balance (normalized)	Ah_balance (mAh)	Voltage - fit (V)	Voltage -  interpolate (V)	dQ/dV (1/V)	Temperature (°C)	Temperature - diff (°C)	Current (C)	R_DC 0ms (mOhm)	R_DC 50ms (mOhm)	R_DC 50 ms PEC (mOhm)
0.0006	38.53	4.1610	4.1608	-0.1806	24.82	0.01	-0.750			
0.0012	77.10	4.1580	4.1580	-0.2189	24.81	0.00	-0.750			
0.0019	121.92	4.1550	4.1550	-0.2577	24.81	0.00	-0.750			
0.0027	175.37	4.1520	4.1520	-0.2973	24.81	-0.00	-0.750			
0.0037	236.69	4.1490	4.1489	-0.3345	24.80	-0.01	-0.750			
0.0048	305.35	4.1460	4.1459	-0.3731	24.80	-0.01	-0.750			
0.0060	381.08	4.1430	4.1431	-0.4095	24.80	-0.01	-0.750			
0.0072	462.62	4.1400	4.1401	-0.4482	24.79	-0.02	-0.750			
0.0086	550.38	4.1370	4.1368	-0.4961	24.79	-0.02	-0.750			
0.0102	653.49	4.1340	4.1337	-0.5238	24.78	-0.03	-0.750			
0.0119	759.62	4.1310	4.1308	-0.5542	24.77	-0.04	-0.750			
0.0136	869.80	4.1280	4.1279	-0.5748	24.77	-0.04	-0.750			
0.0154	983.53	4.1250	4.1251	-0.5922	24.76	-0.05	-0.750			
0.0172	1099.68	4.1220	4.1218	-0.6122	24.76	-0.05	-0.750			
0.0190	1214.41	4.1190	4.1189	-0.6219	24.75	-0.06	-0.750			
0.0208	1333.56	4.1160	4.1161	-0.6366	24.75	-0.06	-0.750			
0.0229	1464.63	4.1130	4.1130	-0.6619	24.75	-0.06	-0.750			
0.0249	1594.67	4.1100	4.1100	-0.6656	24.74	-0.07	-0.750			
0.0269	1722.70	4.1070	4.1070	-0.6772	24.74	-0.07	-0.750			
0.0290	1853.49	4.1040	4.1040	-0.6846	24.74	-0.07	-0.750			
0.0310	1983.87	4.1010	4.1008	-0.6931	24.73	-0.08	-0.750			
0.0331	2117.50	4.0980	4.0980	-0.7055	24.73	-0.08	-0.750			
0.0352	2255.73	4.0950	4.0950	-0.7118	24.73	-0.08	-0.750			
0.0375	2397.44	4.0920	4.0919	-0.7232	24.72	-0.09	-0.750			
0.0396	2537.59	4.0890	4.0894	-0.7231	24.72	-0.09	-0.750			
0.0418	2673.86	4.0860	4.0859	-0.7206	24.72	-0.09	-0.750			
0.0440	2812.92	4.0830	4.0830	-0.7246	24.72	-0.09	-0.750			
0.0461	2951.07	4.0800	4.0800	-0.7370	24.72	-0.09	-0.750			
0.0484	3098.27	4.0770	4.0767	-0.7502	24.72	-0.09	-0.750			
0.0507	3243.36	4.0740	4.0738	-0.7451	24.72	-0.09	-0.750			
0.0529	3387.12	4.0710	4.0713	-0.7486	24.72	-0.09	-0.750			
0.0552	3529.92	4.0680	4.0680	-0.7486	24.72	-0.09	-0.750			
0.0574	3672.22	4.0650	4.0649	-0.7532	24.72	-0.09	-0.750			
0.0595	3809.87	4.0620	4.0619	-0.7445	24.71	-0.10	-0.750			
0.0619	3960.62	4.0590	4.0591	-0.7594	24.71	-0.10	-0.750			
0.0642	4108.36	4.0560	4.0559	-0.7656	24.71	-0.10	-0.750			
0.0665	4256.23	4.0530	4.0530	-0.7607	24.71	-0.10	-0.750			
0.0687	4398.73	4.0500	4.0500	-0.7619	24.71	-0.10	-0.750			
0.0710	4545.07	4.0470	4.0470	-0.7670	24.71	-0.10	-0.750			
0.0733	4691.52	4.0440	4.0440	-0.7705	24.70	-0.11	-0.750			
0.0757	4842.45	4.0410	4.0407	-0.7780	24.70	-0.11	-0.750			
0.0780	4993.25	4.0380	4.0383	-0.7831	24.70	-0.11	-0.750			
0.0804	5142.56	4.0350	4.0350	-0.7848	24.70	-0.11	-0.750			
0.0827	5295.51	4.0320	4.0320	-0.7822	24.70	-0.11	-0.750			
0.0850	5443.07	4.0290	4.0290	-0.7718	24.70	-0.11	-0.750			
0.0874	5592.24	4.0260	4.0257	-0.7759	24.70	-0.11	-0.750			
0.0897	5741.31	4.0230	4.0235	-0.7733	24.70	-0.11	-0.750			
0.0920	5888.78	4.0200	4.0199	-0.7781	24.70	-0.11	-0.750			
0.0943	6037.29	4.0170	4.0170	-0.7851	24.70	-0.11	-0.750			
0.0967	6189.97	4.0140	4.0140	-0.7885	24.71	-0.10	-0.750			
0.0991	6342.12	4.0110	4.0109	-0.7943	24.71	-0.10	-0.750			
0.1015	6494.32	4.0080	4.0080	-0.7952	24.71	-0.10	-0.750			
0.1039	6647.77	4.0050	4.0048	-0.7930	24.71	-0.10	-0.750			
0.1062	6798.64	4.0020	4.0020	-0.8070	24.71	-0.10	-0.750			
0.1086	6953.27	3.9990	3.9990	-0.8013	24.71	-0.10	-0.750			
0.1111	7108.17	3.9960	3.9959	-0.8057	24.70	-0.11	-0.750			
0.1135	7265.70	3.9930	3.9929	-0.8027	24.70	-0.11	-0.750			
0.1159	7419.83	3.9900	3.9898	-0.7990	24.70	-0.11	-0.750			
0.1183	7569.43	3.9870	3.9871	-0.8144	24.70	-0.11	-0.750			
0.1207	7726.87	3.9840	3.9838	-0.8111	24.70	-0.11	-0.750			
0.1231	7880.35	3.9810	3.9809	-0.8072	24.71	-0.10	-0.750			
0.1256	8040.70	3.9780	3.9778	-0.8151	24.71	-0.10	-0.750			
0.1281	8198.64	3.9750	3.9751	-0.8101	24.71	-0.10	-0.750			
0.1305	8353.75	3.9720	3.9719	-0.8116	24.71	-0.10	-0.750			
0.1329	8505.89	3.9690	3.9690	-0.8071	24.71	-0.10	-0.750			
0.1352	8655.95	3.9660	3.9660	-0.7952	24.72	-0.09	-0.750			
0.1377	8814.75	3.9630	3.9629	-0.8148	24.72	-0.09	-0.750			
0.1402	8971.18	3.9600	3.9604	-0.8200	24.72	-0.09	-0.750			
0.1426	9128.89	3.9570	3.9569	-0.8266	24.72	-0.09	-0.750			
0.1452	9291.11	3.9540	3.9539	-0.8371	24.72	-0.09	-0.750			
0.1477	9452.62	3.9510	3.9510	-0.8318	24.72	-0.09	-0.750			
0.1502	9613.55	3.9480	3.9479	-0.8307	24.72	-0.09	-0.750			
0.1527	9773.16	3.9450	3.9453	-0.8333	24.72	-0.09	-0.750			
0.1552	9930.31	3.9420	3.9419	-0.8315	24.72	-0.09	-0.750			
0.1577	10093.51	3.9390	3.9388	-0.8440	24.72	-0.09	-0.750			
0.1603	10256.98	3.9360	3.9359	-0.8424	24.72	-0.09	-0.750			
0.1629	10424.17	3.9330	3.9328	-0.8468	24.72	-0.09	-0.750			
0.1654	10585.26	3.9300	3.9304	-0.8404	24.72	-0.09	-0.750			
0.1678	10742.17	3.9270	3.9268	-0.8577	24.72	-0.09	-0.750			
0.1704	10906.06	3.9240	3.9238	-0.8606	24.73	-0.08	-0.750			
0.1729	11066.48	3.9210	3.9208	-0.8547	24.73	-0.08	-0.750			
0.1757	11242.07	3.9180	3.9181	-0.8748	24.74	-0.07	-0.750			
0.1783	11413.93	3.9150	3.9151	-0.8785	24.74	-0.07	-0.750			
0.1810	11582.17	3.9120	3.9119	-0.8715	24.74	-0.07	-0.750			
0.1835	11745.47	3.9090	3.9090	-0.8564	24.74	-0.07	-0.750			
0.1860	11904.88	3.9060	3.9060	-0.8508	24.75	-0.06	-0.750			
0.1886	12071.43	3.9030	3.9028	-0.8582	24.75	-0.06	-0.750			
0.1912	12236.07	3.9000	3.8999	-0.8620	24.75	-0.06	-0.750			
0.1938	12401.00	3.8970	3.8970	-0.8729	24.75	-0.06	-0.750			
0.1965	12573.22	3.8940	3.8939	-0.8721	24.76	-0.05	-0.750			
0.1991	12741.86	3.8910	3.8909	-0.8647	24.76	-0.05	-0.750			
0.2017	12910.77	3.8880	3.8877	-0.8616	24.76	-0.05	-0.750			
0.2043	13073.90	3.8850	3.8850	-0.8598	24.76	-0.05	-0.750			
0.2068	13237.35	3.8820	3.8819	-0.8628	24.76	-0.05	-0.750			
0.2093	13398.06	3.8790	3.8789	-0.8589	24.77	-0.04	-0.750			
0.2120	13565.03	3.8760	3.8759	-0.8692	24.77	-0.04	-0.750			
0.2146	13734.59	3.8730	3.8732	-0.8723	24.77	-0.04	-0.750			
0.2172	13902.64	3.8700	3.8700	-0.8738	24.77	-0.04	-0.750			
0.2199	14070.57	3.8670	3.8670	-0.8734	24.77	-0.04	-0.750			
0.2225	14237.20	3.8640	3.8640	-0.8709	24.78	-0.03	-0.750			
0.2250	14402.22	3.8610	3.8609	-0.8720	24.78	-0.03	-0.750			
0.2277	14571.80	3.8580	3.8582	-0.8762	24.78	-0.03	-0.750			
0.2303	14738.18	3.8550	3.8551	-0.8866	24.78	-0.03	-0.750			
0.2330	14911.82	3.8520	3.8519	-0.8836	24.79	-0.02	-0.750			
0.2357	15081.98	3.8490	3.8490	-0.8749	24.79	-0.02	-0.750			
0.2383	15248.90	3.8460	3.8459	-0.8719	24.80	-0.01	-0.750			
0.2409	15415.53	3.8430	3.8429	-0.8702	24.80	-0.01	-0.750			
0.2434	15580.14	3.8400	3.8399	-0.8706	24.80	-0.01	-0.750			
0.2461	15747.95	3.8370	3.8369	-0.8698	24.80	-0.01	-0.750			
0.2486	15913.20	3.8340	3.8341	-0.8686	24.80	-0.01	-0.750			
0.2513	16083.80	3.8310	3.8310	-0.8787	24.80	-0.01	-0.750			
0.2540	16254.34	3.8280	3.8280	-0.8763	24.80	-0.01	-0.750			
0.2566	16422.67	3.8250	3.8249	-0.8668	24.81	-0.00	-0.750			
0.2592	16587.39	3.8220	3.8221	-0.8640	24.81	0.00	-0.750			
0.2617	16750.20	3.8190	3.8191	-0.8658	24.81	0.00	-0.750			
0.2643	16917.10	3.8160	3.8160	-0.8748	24.82	0.01	-0.750			
0.2669	17083.28	3.8130	3.8128	-0.8770	24.82	0.01	-0.750			
0.2696	17253.63	3.8100	3.8099	-0.8736	24.82	0.01	-0.750			
0.2723	17426.22	3.8070	3.8071	-0.8694	24.82	0.01	-0.750			
0.2749	17593.22	3.8040	3.8040	-0.8570	24.82	0.01	-0.750			
0.2775	17757.41	3.8010	3.8016	-0.8411	24.82	0.01	-0.750			
0.2799	17915.97	3.7980	3.7980	-0.8298	24.82	0.01	-0.750			
0.2823	18069.98	3.7950	3.7950	-0.8300	24.83	0.02	-0.750			
0.2849	18230.75	3.7920	3.7918	-0.8276	24.83	0.02	-0.750			
0.2874	18391.66	3.7890	3.7889	-0.8296	24.84	0.03	-0.750			
0.2898	18549.56	3.7860	3.7865	-0.8276	24.84	0.03	-0.750			
0.2924	18710.42	3.7830	3.7829	-0.8236	24.84	0.03	-0.750			
0.2948	18869.07	3.7800	3.7799	-0.8235	24.85	0.04	-0.750			
0.2973	19025.95	3.7770	3.7769	-0.8086	24.85	0.04	-0.750			
0.2997	19182.35	3.7740	3.7740	-0.8097	24.86	0.05	-0.750			
0.3021	19335.53	3.7710	3.7714	-0.8087	24.86	0.05	-0.750			
0.3045	19488.95	3.7680	3.7680	-0.8052	24.86	0.05	-0.750			
0.3069	19642.30	3.7650	3.7647	-0.8049	24.86	0.05	-0.750			
0.3093	19797.12	3.7620	3.7620	-0.8011	24.87	0.06	-0.750			
0.3118	19953.06	3.7590	3.7590	-0.8092	24.87	0.06	-0.750			
0.3142	20107.23	3.7560	3.7559	-0.8065	24.87	0.06	-0.750			
0.3166	20262.08	3.7530	3.7527	-0.8022	24.87	0.06	-0.750			
0.3190	20413.58	3.7500	3.7501	-0.8065	24.87	0.06	-0.750			
0.3214	20566.90	3.7470	3.7471	-0.8126	24.88	0.07	-0.750			
0.3238	20725.63	3.7440	3.7440	-0.8338	24.88	0.07	-0.750			
0.3264	20886.92	3.7410	3.7408	-0.8410	24.88	0.07	-0.750			
0.3289	21046.66	3.7380	3.7380	-0.8530	24.88	0.07	-0.750			
0.3314	21212.12	3.7350	3.7350	-0.8743	24.88	0.07	-0.750			
0.3341	21384.07	3.7320	3.7320	-0.8849	24.88	0.07	-0.750			
0.3368	21557.25	3.7290	3.7289	-0.8875	24.88	0.07	-0.750			
0.3395	21730.16	3.7260	3.7261	-0.8963	24.88	0.07	-0.750			
0.3422	21899.46	3.7230	3.7230	-0.9258	24.88	0.07	-0.750			
0.3450	22079.57	3.7200	3.7199	-0.9385	24.88	0.07	-0.750			
0.3479	22262.57	3.7170	3.7167	-0.9363	24.88	0.07	-0.750			
0.3507	22445.49	3.7140	3.7139	-0.9545	24.88	0.07	-0.750			
0.3535	22627.05	3.7110	3.7110	-0.9855	24.88	0.07	-0.750			
0.3566	22821.25	3.7080	3.7077	-0.9962	24.87	0.06	-0.750			
0.3595	23010.90	3.7050	3.7047	-0.9953	24.87	0.06	-0.750			
0.3625	23198.09	3.7020	3.7019	-0.9985	24.86	0.05	-0.750			
0.3656	23398.35	3.6990	3.6990	-1.0463	24.86	0.05	-0.750	0.370	0.492	
0.3688	23604.42	3.6960	3.6958	-1.0554	24.85	0.04	-0.750			
0.3719	23801.85	3.6930	3.6929	-1.0602	24.85	0.04	-0.750			
0.3750	23999.16	3.6900	3.6902	-1.1180	24.84	0.03	-0.750			
0.3784	24220.73	3.6870	3.6872	-1.1440	24.84	0.03	-0.750			
0.3820	24445.36	3.6840	3.6836	-1.1612	24.84	0.03	-0.750			
0.3855	24670.81	3.6810	3.6807	-1.1808	24.83	0.02	-0.750			
0.3890	24896.98	3.6780	3.6783	-1.2092	24.83	0.02	-0.750			
0.3928	25138.69	3.6750	3.6748	-1.2351	24.82	0.01	-0.750			
0.3965	25376.30	3.6720	3.6718	-1.2457	24.81	0.00	-0.750			
0.4002	25610.03	3.6690	3.6690	-1.2793	24.81	-0.00	-0.750			
0.4041	25864.08	3.6660	3.6660	-1.3033	24.80	-0.01	-0.750			
0.4080	26114.77	3.6630	3.6628	-1.3202	24.79	-0.02	-0.750			
0.4119	26364.63	3.6600	3.6599	-1.3670	24.78	-0.03	-0.750			
0.4161	26630.34	3.6570	3.6569	-1.4126	24.78	-0.03	-0.750			
0.4205	26913.10	3.6540	3.6537	-1.4576	24.77	-0.04	-0.750			
0.4250	27201.98	3.6510	3.6505	-1.4785	24.76	-0.05	-0.750			
0.4295	27489.25	3.6480	3.6480	-1.5025	24.75	-0.06	-0.750			
0.4343	27792.85	3.6450	3.6447	-1.5202	24.74	-0.07	-0.750			
0.4388	28080.58	3.6420	3.6417	-1.5209	24.73	-0.08	-0.750			
0.4433	28371.42	3.6390	3.6390	-1.5580	24.72	-0.09	-0.750			
0.4478	28657.87	3.6360	3.6358	-1.5827	24.72	-0.09	-0.750			
0.4527	28974.54	3.6330	3.6332	-1.6219	24.71	-0.10	-0.750			
0.4576	29286.08	3.6300	3.6304	-1.6413	24.70	-0.11	-0.750			
0.4626	29606.98	3.6270	3.6273	-1.6439	24.69	-0.12	-0.750			
0.4677	29934.08	3.6240	3.6237	-1.6793	24.68	-0.13	-0.750			
0.4728	30256.78	3.6210	3.6206	-1.7093	24.67	-0.14	-0.750			
0.4779	30584.58	3.6180	3.6179	-1.7316	24.67	-0.14	-0.750			
0.4831	30915.40	3.6150	3.6153	-1.7658	24.66	-0.15	-0.750			
0.4884	31257.18	3.6120	3.6125	-1.7895	24.65	-0.16	-0.750			
0.4937	31599.64	3.6090	3.6088	-1.8384	24.65	-0.16	-0.750			
0.4994	31961.73	3.6060	3.6057	-1.9060	24.64	-0.17	-0.750			
0.5051	32327.55	3.6030	3.6028	-1.9509	24.64	-0.17	-0.750			
0.5111	32708.23	3.6000	3.5998	-2.0152	24.63	-0.18	-0.750			
0.5173	33105.78	3.5970	3.5970	-2.0431	24.62	-0.19	-0.750			
0.5236	33507.42	3.5940	3.5941	-2.0715	24.61	-0.20	-0.750			
0.5297	33900.59	3.5910	3.5913	-2.1168	24.61	-0.20	-0.750			
0.5362	34314.88	3.5880	3.5880	-2.1223	24.60	-0.21	-0.750			
0.5426	34724.59	3.5850	3.5846	-2.1182	24.60	-0.21	-0.750			
0.5489	35132.35	3.5820	3.5820	-2.2110	24.59	-0.22	-0.750			
0.5555	35554.45	3.5790	3.5787	-2.2138	24.58	-0.23	-0.750			
0.5624	35996.46	3.5760	3.5757	-2.2123	24.58	-0.23	-0.750			
0.5690	36414.78	3.5730	3.5731	-2.2674	24.58	-0.23	-0.750			
0.5758	36848.91	3.5700	3.5696	-2.2470	24.58	-0.23	-0.750			
0.5825	37278.65	3.5670	3.5670	-2.2699	24.58	-0.23	-0.750			
0.5898	37744.69	3.5640	3.5639	-2.3228	24.57	-0.24	-0.750			
0.5968	38193.86	3.5610	3.5606	-2.3558	24.57	-0.24	-0.750			
0.6036	38633.02	3.5580	3.5582	-2.2617	24.57	-0.24	-0.750			
0.6104	39067.54	3.5550	3.5549	-2.2348	24.57	-0.24	-0.750			
0.6171	39492.45	3.5520	3.5517	-2.2090	24.57	-0.24	-0.750			
0.6238	39922.37	3.5490	3.5485	-2.1974	24.57	-0.24	-0.750			
0.6303	40342.11	3.5460	3.5456	-2.1922	24.57	-0.24	-0.750			
0.6371	40777.21	3.5430	3.5429	-2.1744	24.58	-0.23	-0.750			
0.6437	41196.74	3.5400	3.5397	-2.0641	24.58	-0.23	-0.750			
0.6496	41573.84	3.5370	3.5369	-1.9148	24.59	-0.22	-0.750			
0.6551	41927.41	3.5340	3.5341	-1.8513	24.59	-0.22	-0.750			
0.6603	42261.95	3.5310	3.5307	-1.8176	24.60	-0.21	-0.750			
0.6656	42595.64	3.5280	3.5279	-1.8223	24.60	-0.21	-0.750			
0.6710	42944.18	3.5250	3.5257	-1.8687	24.61	-0.20	-0.750			
0.6770	43325.81	3.5220	3.5222	-1.8601	24.62	-0.19	-0.750			
0.6827	43692.26	3.5190	3.5191	-1.8146	24.63	-0.18	-0.750			
0.6881	44037.19	3.5160	3.5163	-1.7454	24.64	-0.17	-0.750			
0.6933	44370.16	3.5130	3.5132	-1.7046	24.65	-0.16	-0.750			
0.6982	44685.79	3.5100	3.5096	-1.6466	24.67	-0.14	-0.750			
0.7030	44991.53	3.5070	3.5070	-1.5668	24.68	-0.13	-0.750			
0.7075	45280.22	3.5040	3.5048	-1.5133	24.70	-0.11	-0.750			
0.7120	45570.58	3.5010	3.5008	-1.5015	24.71	-0.10	-0.750			
0.7166	45861.03	3.4980	3.4976	-1.4743	24.73	-0.08	-0.750			
0.7208	46130.04	3.4950	3.4949	-1.4941	24.74	-0.07	-0.750			
0.7253	46420.78	3.4920	3.4915	-1.5137	24.76	-0.05	-0.750			
