Ah_balance (normalized)	Ah_balance (mAh)	Voltage - fit (V)	Voltage -  interpolate (V)	dQ/dV (1/V)	Temperature (°C)	Temperature - diff (°C)	Current (C)	R_DC 0ms (mOhm)	R_DC 50ms (mOhm)	R_DC 50 ms PEC (mOhm)
0.0005	33.88	4.1620	4.1620	-0.1494	25.09	0.01	-0.750			
0.0011	67.92	4.1590	4.1591	-0.1954	25.09	0.01	-0.750			
0.0017	110.78	4.1560	4.1558	-0.2363	25.09	0.01	-0.750			
0.0025	159.40	4.1530	4.1530	-0.2771	25.09	0.01	-0.750			
0.0034	216.64	4.1500	4.1501	-0.3158	25.08	0.00	-0.750			
0.0044	281.16	4.1470	4.1471	-0.3569	25.08	0.00	-0.750			
0.0055	353.76	4.1440	4.1438	-0.3955	25.08	0.00	-0.750			
0.0068	433.53	4.1410	4.1412	-0.4303	25.08	-0.00	-0.750			
0.0081	520.07	4.1380	4.1380	-0.4686	25.08	-0.00	-0.750			
0.0096	615.34	4.1350	4.1350	-0.4964	25.08	-0.00	-0.750			
0.0112	714.51	4.1320	4.1319	-0.5251	25.07	-0.01	-0.750			
0.0128	818.63	4.1290	4.1290	-0.5578	25.07	-0.01	-0.750			
0.0145	929.41	4.1260	4.1260	-0.5788	25.07	-0.01	-0.750			
0.0163	1044.83	4.1230	4.1227	-0.5964	25.06	-0.02	-0.750			
0.0182	1161.72	4.1200	4.1199	-0.6088	25.06	-0.02	-0.750			
0.0200	1279.33	4.1170	4.1169	-0.6251	25.06	-0.02	-0.750			
0.0219	1401.12	4.1140	4.1139	-0.6403	25.06	-0.02	-0.750			
0.0238	1523.48	4.1110	4.1109	-0.6488	25.05	-0.03	-0.750			
0.0257	1647.16	4.1080	4.1081	-0.6584	25.05	-0.03	-0.750			
0.0278	1780.65	4.1050	4.1051	-0.6735	25.05	-0.03	-0.750			
0.0299	1910.60	4.1020	4.1020	-0.6805	25.04	-0.04	-0.750			
0.0319	2041.93	4.0990	4.0991	-0.6873	25.04	-0.04	-0.750			
0.0339	2172.42	4.0960	4.0958	-0.6941	25.04	-0.04	-0.750			
0.0360	2305.10	4.0930	4.0931	-0.7057	25.04	-0.04	-0.750			
0.0382	2444.55	4.0900	4.0899	-0.7121	25.03	-0.05	-0.750			
0.0404	2583.59	4.0870	4.0870	-0.7189	25.03	-0.05	-0.750			
0.0425	2722.84	4.0840	4.0839	-0.7213	25.03	-0.05	-0.750			
0.0447	2860.99	4.0810	4.0812	-0.7206	25.03	-0.05	-0.750			
0.0469	2999.07	4.0780	4.0779	-0.7234	25.03	-0.05	-0.750			
0.0490	3136.62	4.0750	4.0749	-0.7289	25.03	-0.05	-0.750			
0.0512	3277.36	4.0720	4.0720	-0.7294	25.04	-0.04	-0.750			
0.0534	3420.32	4.0690	4.0690	-0.7406	25.04	-0.04	-0.750			
0.0557	3564.18	4.0660	4.0660	-0.7436	25.04	-0.04	-0.750			
0.0579	3706.77	4.0630	4.0627	-0.7473	25.04	-0.04	-0.750			
0.0602	3849.60	4.0600	4.0600	-0.7457	25.04	-0.04	-0.750			
0.0624	3991.52	4.0570	4.0570	-0.7507	25.04	-0.04	-0.750			
0.0646	4135.63	4.0540	4.0541	-0.7476	25.04	-0.04	-0.750			
0.0669	4284.79	4.0510	4.0509	-0.7572	25.04	-0.04	-0.750			
0.0692	4428.63	4.0480	4.0482	-0.7568	25.04	-0.04	-0.750			
0.0715	4574.60	4.0450	4.0449	-0.7572	25.04	-0.04	-0.750			
0.0737	4719.11	4.0420	4.0420	-0.7605	25.04	-0.04	-0.750			
0.0760	4865.09	4.0390	4.0390	-0.7637	25.04	-0.04	-0.750			
0.0783	5013.53	4.0360	4.0360	-0.7677	25.04	-0.04	-0.750			
0.0807	5161.72	4.0330	4.0329	-0.7669	25.04	-0.04	-0.750			
0.0829	5308.72	4.0300	4.0299	-0.7687	25.04	-0.04	-0.750			
0.0852	5455.13	4.0270	4.0271	-0.7728	25.05	-0.03	-0.750			
0.0876	5604.05	4.0240	4.0239	-0.7727	25.05	-0.03	-0.750			
0.0899	5751.96	4.0210	4.0210	-0.7701	25.05	-0.03	-0.750			
0.0922	5900.73	4.0180	4.0179	-0.7755	25.06	-0.02	-0.750			
0.0945	6050.46	4.0150	4.0152	-0.7766	25.06	-0.02	-0.750			
0.0969	6199.36	4.0120	4.0120	-0.7788	25.06	-0.02	-0.750			
0.0992	6348.85	4.0090	4.0090	-0.7753	25.06	-0.02	-0.750			
0.1015	6496.89	4.0060	4.0061	-0.7770	25.06	-0.02	-0.750			
0.1039	6648.32	4.0030	4.0029	-0.7818	25.06	-0.02	-0.750			
0.1062	6798.86	4.0000	4.0001	-0.7824	25.06	-0.02	-0.750			
0.1086	6947.60	3.9970	3.9969	-0.7843	25.06	-0.02	-0.750			
0.1109	7098.36	3.9940	3.9941	-0.7958	25.07	-0.01	-0.750			
0.1133	7252.45	3.9910	3.9909	-0.7995	25.07	-0.01	-0.750			
0.1157	7407.48	3.9880	3.9880	-0.7977	25.07	-0.01	-0.750			
0.1182	7562.69	3.9850	3.9851	-0.7965	25.08	-0.00	-0.750			
0.1206	7715.95	3.9820	3.9820	-0.7972	25.08	0.00	-0.750			
0.1229	7867.89	3.9790	3.9790	-0.8042	25.08	0.00	-0.750			
0.1253	8022.11	3.9760	3.9759	-0.8017	25.08	0.00	-0.750			
0.1277	8174.41	3.9730	3.9730	-0.7993	25.08	0.00	-0.750			
0.1302	8331.59	3.9700	3.9699	-0.8063	25.08	0.00	-0.750			
0.1326	8489.13	3.9670	3.9669	-0.7934	25.08	0.00	-0.750			
0.1351	8644.71	3.9640	3.9638	-0.7695	25.09	0.01	-0.750			
0.1373	8787.84	3.9610	3.9610	-0.7496	25.09	0.01	-0.750			
0.1394	8924.70	3.9580	3.9585	-0.7301	25.09	0.01	-0.750			
0.1416	9064.11	3.9550	3.9543	-0.7468	25.10	0.02	-0.750			
0.1438	9200.14	3.9520	3.9521	-0.7570	25.10	0.02	-0.750			
0.1460	9345.87	3.9490	3.9489	-0.7757	25.10	0.02	-0.750			
0.1484	9497.63	3.9460	3.9462	-0.8023	25.10	0.02	-0.750			
0.1509	9660.40	3.9430	3.9430	-0.8207	25.11	0.03	-0.750			
0.1535	9824.02	3.9400	3.9398	-0.8193	25.11	0.03	-0.750			
0.1560	9984.35	3.9370	3.9373	-0.8227	25.11	0.03	-0.750			
0.1584	10139.48	3.9340	3.9339	-0.8189	25.11	0.03	-0.750			
0.1609	10296.06	3.9310	3.9310	-0.8197	25.11	0.03	-0.750			
0.1633	10453.08	3.9280	3.9279	-0.8262	25.12	0.04	-0.750			
0.1658	10608.31	3.9250	3.9248	-0.8319	25.12	0.04	-0.750			
0.1684	10774.54	3.9220	3.9226	-0.8442	25.12	0.04	-0.750			
0.1709	10937.20	3.9190	3.9187	-0.8467	25.12	0.04	-0.750			
0.1735	11101.26	3.9160	3.9160	-0.8497	25.12	0.04	-0.750			
0.1760	11265.12	3.9130	3.9130	-0.8512	25.12	0.04	-0.750			
0.1785	11426.35	3.9100	3.9099	-0.8406	25.12	0.04	-0.750			
0.1811	11592.03	3.9070	3.9072	-0.8461	25.12	0.04	-0.750			
0.1836	11750.60	3.9040	3.9040	-0.8388	25.12	0.04	-0.750			
0.1861	11912.98	3.9010	3.9008	-0.8469	25.12	0.04	-0.750			
0.1887	12074.91	3.8980	3.8980	-0.8469	25.12	0.04	-0.750			
0.1912	12238.34	3.8950	3.8949	-0.8469	25.12	0.04	-0.750			
0.1938	12402.75	3.8920	3.8925	-0.8541	25.12	0.04	-0.750			
0.1963	12565.08	3.8890	3.8889	-0.8747	25.12	0.04	-0.750			
0.1990	12735.66	3.8860	3.8859	-0.8548	25.13	0.05	-0.750			
0.2015	12898.99	3.8830	3.8829	-0.8502	25.13	0.05	-0.750			
0.2041	13062.64	3.8800	3.8800	-0.8607	25.14	0.06	-0.750			
0.2066	13225.42	3.8770	3.8776	-0.8524	25.14	0.06	-0.750			
0.2092	13388.51	3.8740	3.8737	-0.8502	25.15	0.07	-0.750			
0.2117	13550.23	3.8710	3.8710	-0.8458	25.15	0.07	-0.750			
0.2143	13714.92	3.8680	3.8681	-0.8590	25.16	0.08	-0.750			
0.2169	13879.07	3.8650	3.8650	-0.8571	25.16	0.08	-0.750			
0.2194	14039.29	3.8620	3.8621	-0.8503	25.17	0.09	-0.750			
0.2219	14201.87	3.8590	3.8589	-0.8513	25.17	0.09	-0.750			
0.2245	14368.27	3.8560	3.8559	-0.8556	25.17	0.09	-0.750			
0.2271	14533.74	3.8530	3.8530	-0.8547	25.17	0.09	-0.750			
0.2297	14700.20	3.8500	3.8499	-0.8568	25.17	0.09	-0.750			
0.2322	14862.58	3.8470	3.8470	-0.8504	25.17	0.09	-0.750			
0.2347	15023.72	3.8440	3.8439	-0.8523	25.17	0.09	-0.750			
0.2373	15188.13	3.8410	3.8408	-0.8539	25.17	0.09	-0.750			
0.2399	15352.48	3.8380	3.8379	-0.8447	25.18	0.10	-0.750			
0.2425	15518.84	3.8350	3.8348	-0.8517	25.18	0.10	-0.750			
0.2450	15681.58	3.8320	3.8318	-0.8423	25.18	0.10	-0.750			
0.2475	15841.37	3.8290	3.8288	-0.8340	25.18	0.10	-0.750			
0.2499	15996.02	3.8260	3.8261	-0.8197	25.18	0.10	-0.750			
0.2524	16155.48	3.8230	3.8229	-0.8299	25.19	0.11	-0.750			
0.2549	16311.81	3.8200	3.8201	-0.8243	25.19	0.11	-0.750			
0.2574	16471.28	3.8170	3.8170	-0.8227	25.19	0.11	-0.750			
0.2598	16625.01	3.8140	3.8140	-0.8289	25.19	0.11	-0.750			
0.2623	16790.16	3.8110	3.8109	-0.8207	25.19	0.11	-0.750			
0.2648	16947.27	3.8080	3.8081	-0.8117	25.20	0.12	-0.750			
0.2672	17102.43	3.8050	3.8049	-0.8097	25.20	0.12	-0.750			
0.2696	17256.28	3.8020	3.8019	-0.8032	25.20	0.12	-0.750			
0.2720	17406.74	3.7990	3.7988	-0.8031	25.20	0.12	-0.750			
0.2744	17560.70	3.7960	3.7960	-0.7932	25.21	0.13	-0.750			
0.2767	17711.41	3.7930	3.7930	-0.7818	25.21	0.13	-0.750			
0.2792	17867.49	3.7900	3.7900	-0.7934	25.22	0.14	-0.750			
0.2815	18017.89	3.7870	3.7879	-0.7823	25.22	0.14	-0.750			
0.2838	18165.85	3.7840	3.7841	-0.7759	25.22	0.14	-0.750			
0.2861	18313.23	3.7810	3.7809	-0.7763	25.22	0.14	-0.750			
0.2885	18462.24	3.7780	3.7781	-0.7788	25.22	0.14	-0.750			
0.2909	18614.86	3.7750	3.7749	-0.7825	25.22	0.14	-0.750			
0.2932	18764.57	3.7720	3.7719	-0.7796	25.22	0.14	-0.750			
0.2955	18912.11	3.7690	3.7689	-0.7775	25.22	0.14	-0.750			
0.2978	19059.55	3.7660	3.7659	-0.7838	25.22	0.14	-0.750			
0.3002	19209.75	3.7630	3.7630	-0.7830	25.22	0.14	-0.750			
0.3025	19358.71	3.7600	3.7600	-0.7874	25.22	0.14	-0.750			
0.3049	19514.74	3.7570	3.7570	-0.7944	25.22	0.14	-0.750			
0.3073	19668.36	3.7540	3.7541	-0.7999	25.22	0.14	-0.750			
0.3097	19819.55	3.7510	3.7510	-0.8169	25.22	0.14	-0.750			
0.3122	19978.95	3.7480	3.7479	-0.8236	25.22	0.14	-0.750			
0.3146	20137.33	3.7450	3.7448	-0.8305	25.23	0.15	-0.750			
0.3172	20300.36	3.7420	3.7417	-0.8393	25.23	0.15	-0.750			
0.3197	20462.67	3.7390	3.7388	-0.8438	25.23	0.15	-0.750			
0.3223	20624.03	3.7360	3.7359	-0.8581	25.23	0.15	-0.750			
0.3248	20785.42	3.7330	3.7329	-0.8604	25.23	0.15	-0.750			
0.3273	20948.15	3.7300	3.7300	-0.8600	25.23	0.15	-0.750			
0.3301	21123.29	3.7270	3.7269	-0.8910	25.23	0.15	-0.750			
0.3327	21294.42	3.7240	3.7241	-0.9038	25.23	0.15	-0.750			
0.3355	21470.17	3.7210	3.7209	-0.9311	25.23	0.15	-0.750			
0.3383	21650.42	3.7180	3.7179	-0.9424	25.22	0.14	-0.750			
0.3411	21831.62	3.7150	3.7149	-0.9551	25.22	0.14	-0.750			
0.3440	22014.39	3.7120	3.7126	-0.9975	25.22	0.14	-0.750			
0.3470	22209.55	3.7090	3.7089	-1.0144	25.22	0.14	-0.750			
0.3501	22408.76	3.7060	3.7058	-1.0181	25.21	0.13	-0.750			
0.3532	22606.74	3.7030	3.7027	-1.0206	25.21	0.13	-0.750			
0.3563	22806.39	3.7000	3.7008	-1.0379	25.20	0.12	-0.750			
0.3595	23006.49	3.6970	3.6968	-1.0471	25.20	0.12	-0.750	0.391	0.508	
0.3626	23205.57	3.6940	3.6938	-1.0499	25.19	0.11	-0.750			
0.3657	23404.19	3.6910	3.6909	-1.0600	25.19	0.11	-0.750			
0.3689	23608.35	3.6880	3.6884	-1.1033	25.18	0.10	-0.750			
0.3722	23819.34	3.6850	3.6850	-1.1206	25.18	0.10	-0.750			
0.3756	24036.64	3.6820	3.6818	-1.1391	25.17	0.09	-0.750			
0.3789	24249.01	3.6790	3.6789	-1.1913	25.17	0.09	-0.750			
0.3826	24486.59	3.6760	3.6761	-1.2133	25.17	0.09	-0.750			
0.3863	24725.89	3.6730	3.6729	-1.2227	25.16	0.08	-0.750			
0.3901	24965.41	3.6700	3.6698	-1.2336	25.16	0.08	-0.750			
0.3937	25198.12	3.6670	3.6678	-1.2394	25.15	0.07	-0.750			
0.3975	25440.49	3.6640	3.6639	-1.2675	25.14	0.06	-0.750			
0.4013	25681.32	3.6610	3.6609	-1.2829	25.13	0.05	-0.750			
0.4051	25926.29	3.6580	3.6579	-1.3181	25.12	0.04	-0.750			
0.4092	26190.58	3.6550	3.6549	-1.3588	25.12	0.04	-0.750			
0.4134	26455.21	3.6520	3.6519	-1.3700	25.11	0.03	-0.750			
0.4175	26722.48	3.6490	3.6490	-1.4050	25.10	0.02	-0.750			
0.4218	26994.22	3.6460	3.6458	-1.4126	25.10	0.02	-0.750			
0.4260	27261.59	3.6430	3.6428	-1.4495	25.09	0.01	-0.750			
0.4304	27546.57	3.6400	3.6403	-1.4578	25.08	0.00	-0.750			
0.4348	27825.56	3.6370	3.6368	-1.4877	25.08	-0.00	-0.750			
0.4394	28123.62	3.6340	3.6338	-1.5405	25.07	-0.01	-0.750			
0.4441	28419.44	3.6310	3.6311	-1.5646	25.07	-0.01	-0.750			
0.4487	28717.02	3.6280	3.6286	-1.5808	25.06	-0.02	-0.750			
0.4537	29036.11	3.6250	3.6253	-1.6246	25.05	-0.03	-0.750			
0.4585	29346.90	3.6220	3.6215	-1.6231	25.05	-0.03	-0.750			
0.4636	29668.65	3.6190	3.6187	-1.6772	25.04	-0.04	-0.750			
0.4686	29990.41	3.6160	3.6166	-1.7228	25.03	-0.05	-0.750			
0.4738	30320.31	3.6130	3.6131	-1.7561	25.03	-0.05	-0.750			
0.4790	30653.59	3.6100	3.6105	-1.7880	25.02	-0.06	-0.750			
0.4844	31004.03	3.6070	3.6066	-1.8320	25.02	-0.06	-0.750			
0.4903	31378.49	3.6040	3.6036	-1.8917	25.02	-0.06	-0.750			
0.4960	31745.04	3.6010	3.6004	-1.9244	25.02	-0.06	-0.750			
0.5018	32115.60	3.5980	3.5976	-1.9560	25.01	-0.07	-0.750			
0.5077	32490.67	3.5950	3.5946	-1.9693	25.00	-0.08	-0.750			
0.5135	32862.12	3.5920	3.5916	-2.0149	24.99	-0.09	-0.750			
0.5195	33245.12	3.5890	3.5890	-2.0143	24.99	-0.09	-0.750			
0.5255	33628.92	3.5860	3.5859	-2.1462	24.98	-0.10	-0.750			
0.5321	34051.20	3.5830	3.5833	-2.0983	24.98	-0.10	-0.750			
0.5385	34461.66	3.5800	3.5803	-2.0883	24.99	-0.09	-0.750			
0.5447	34863.21	3.5770	3.5773	-2.0583	24.99	-0.09	-0.750			
0.5510	35262.56	3.5740	3.5735	-2.1362	24.98	-0.10	-0.750			
0.5570	35646.13	3.5710	3.5709	-2.1367	24.98	-0.10	-0.750			
0.5636	36073.47	3.5680	3.5680	-2.2545	24.99	-0.09	-0.750			
0.5704	36507.17	3.5650	3.5649	-2.2587	24.99	-0.09	-0.750			
0.5773	36948.67	3.5620	3.5616	-2.2248	24.99	-0.09	-0.750			
0.5839	37367.92	3.5590	3.5586	-2.1886	24.99	-0.09	-0.750			
0.5905	37789.20	3.5560	3.5563	-2.1734	25.00	-0.08	-0.750			
0.5968	38197.69	3.5530	3.5534	-2.1687	25.00	-0.08	-0.750			
0.6034	38620.59	3.5500	3.5501	-2.1697	25.00	-0.08	-0.750			
0.6100	39039.44	3.5470	3.5468	-2.1313	25.00	-0.08	-0.750			
0.6164	39448.73	3.5440	3.5438	-2.1006	25.01	-0.07	-0.750			
0.6227	39852.49	3.5410	3.5412	-2.0899	25.02	-0.06	-0.750			
0.6287	40238.08	3.5380	3.5382	-2.0071	25.03	-0.05	-0.750			
0.6346	40616.93	3.5350	3.5353	-1.9835	25.04	-0.04	-0.750			
0.6406	40995.68	3.5320	3.5323	-1.9726	25.04	-0.04	-0.750			
0.6465	41378.41	3.5290	3.5286	-1.9344	25.06	-0.02	-0.750			
0.6525	41758.86	3.5260	3.5256	-1.8734	25.07	-0.01	-0.750			
0.6580	42108.90	3.5230	3.5225	-1.7966	25.08	0.00	-0.750			
0.6633	42450.60	3.5200	3.5198	-1.7683	25.10	0.02	-0.750			
0.6685	42785.61	3.5170	3.5168	-1.6851	25.11	0.03	-0.750			
0.6735	43102.58	3.5140	3.5142	-1.6423	25.12	0.04	-0.750			
0.6784	43418.66	3.5110	3.5113	-1.6228	25.13	0.05	-0.750			
0.6834	43736.84	3.5080	3.5077	-1.5774	25.15	0.07	-0.750			
0.6881	44041.13	3.5050	3.5051	-1.5306	25.17	0.09	-0.750			
0.6925	44323.16	3.5020	3.5025	-1.4804	25.18	0.10	-0.750			
0.6970	44610.31	3.4990	3.4988	-1.4519	25.20	0.12	-0.750			
0.7013	44886.36	3.4960	3.4958	-1.4161	25.23	0.15	-0.750			
0.7053	45137.78	3.4930	3.4932	-1.3889	25.24	0.16	-0.750			
0.7096	45412.20	3.4900	3.4899	-1.3625	25.27	0.19	-0.750			
0.7136	45669.58	3.4870	3.4870	-1.3218	25.28	0.20	-0.750			
