Ah_balance (normalized)	Ah_balance (mAh)	Voltage - fit (V)	Voltage -  interpolate (V)	dQ/dV (1/V)	Temperature (°C)	Temperature - diff (°C)	Current (C)	R_DC 0ms (mOhm)	R_DC 50ms (mOhm)	R_DC 50 ms PEC (mOhm)
0.0001	7.69	4.1630	4.1626	-0.1045	24.55	0.00	-0.750			
0.0005	32.44	4.1600	4.1599	-0.1500	24.55	0.00	-0.750			
0.0010	64.87	4.1570	4.1572	-0.1908	24.55	-0.00	-0.750			
0.0017	106.19	4.1540	4.1537	-0.2311	24.55	-0.00	-0.750			
0.0024	154.62	4.1510	4.1510	-0.2686	24.55	-0.00	-0.750			
0.0033	209.83	4.1480	4.1480	-0.3084	24.54	-0.01	-0.750			
0.0043	272.54	4.1450	4.1451	-0.3477	24.54	-0.01	-0.750			
0.0054	343.03	4.1420	4.1419	-0.3872	24.54	-0.01	-0.750			
0.0066	421.14	4.1390	4.1390	-0.4245	24.54	-0.01	-0.750			
0.0079	507.35	4.1360	4.1359	-0.4636	24.53	-0.02	-0.750			
0.0094	603.09	4.1330	4.1330	-0.4955	24.53	-0.02	-0.750			
0.0110	702.04	4.1300	4.1299	-0.5200	24.53	-0.02	-0.750			
0.0126	804.72	4.1270	4.1271	-0.5447	24.52	-0.03	-0.750			
0.0142	911.28	4.1240	4.1239	-0.5664	24.52	-0.03	-0.750			
0.0160	1021.65	4.1210	4.1208	-0.5830	24.52	-0.03	-0.750			
0.0177	1134.52	4.1180	4.1181	-0.6037	24.51	-0.04	-0.750			
0.0196	1251.95	4.1150	4.1151	-0.6222	24.51	-0.04	-0.750			
0.0216	1379.30	4.1120	4.1120	-0.6442	24.51	-0.04	-0.750			
0.0235	1504.56	4.1090	4.1089	-0.6493	24.50	-0.05	-0.750			
0.0254	1628.77	4.1060	4.1060	-0.6568	24.50	-0.05	-0.750			
0.0274	1755.77	4.1030	4.1029	-0.6642	24.50	-0.05	-0.750			
0.0294	1883.05	4.1000	4.1000	-0.6722	24.50	-0.05	-0.750			
0.0314	2011.31	4.0970	4.0969	-0.6770	24.50	-0.05	-0.750			
0.0335	2144.58	4.0940	4.0941	-0.6935	24.50	-0.05	-0.750			
0.0356	2278.15	4.0910	4.0910	-0.6961	24.50	-0.05	-0.750			
0.0377	2413.46	4.0880	4.0880	-0.7026	24.50	-0.05	-0.750			
0.0398	2547.73	4.0850	4.0850	-0.7067	24.50	-0.05	-0.750			
0.0419	2684.14	4.0820	4.0819	-0.7092	24.50	-0.05	-0.750			
0.0441	2820.15	4.0790	4.0790	-0.7210	24.50	-0.05	-0.750			
0.0463	2961.82	4.0760	4.0759	-0.7206	24.50	-0.05	-0.750			
0.0485	3102.05	4.0730	4.0729	-0.7228	24.50	-0.05	-0.750			
0.0506	3239.60	4.0700	4.0704	-0.7292	24.50	-0.05	-0.750			
0.0528	3378.78	4.0670	4.0669	-0.7302	24.50	-0.05	-0.750			
0.0549	3516.28	4.0640	4.0639	-0.7372	24.50	-0.05	-0.750			
0.0572	3661.47	4.0610	4.0610	-0.7347	24.51	-0.04	-0.750			
0.0594	3802.31	4.0580	4.0581	-0.7549	24.51	-0.04	-0.750			
0.0617	3947.03	4.0550	4.0550	-0.7766	24.51	-0.04	-0.750			
0.0640	4096.40	4.0520	4.0515	-0.7889	24.51	-0.04	-0.750			
0.0664	4249.76	4.0490	4.0487	-0.7950	24.51	-0.04	-0.750			
0.0689	4407.34	4.0460	4.0461	-0.8030	24.51	-0.04	-0.750			
0.0713	4564.44	4.0430	4.0431	-0.7917	24.52	-0.03	-0.750			
0.0737	4716.60	4.0400	4.0399	-0.7816	24.52	-0.03	-0.750			
0.0760	4865.03	4.0370	4.0375	-0.7626	24.52	-0.03	-0.750			
0.0783	5008.93	4.0340	4.0339	-0.7533	24.52	-0.03	-0.750			
0.0805	5149.58	4.0310	4.0310	-0.7624	24.53	-0.02	-0.750			
0.0828	5296.57	4.0280	4.0278	-0.7698	24.53	-0.02	-0.750			
0.0851	5446.74	4.0250	4.0249	-0.7730	24.53	-0.02	-0.750			
0.0875	5597.25	4.0220	4.0219	-0.7751	24.54	-0.01	-0.750			
0.0898	5747.25	4.0190	4.0190	-0.7758	24.54	-0.01	-0.750			
0.0921	5895.39	4.0160	4.0159	-0.7807	24.55	-0.00	-0.750			
0.0944	6042.77	4.0130	4.0130	-0.7713	24.55	-0.00	-0.750			
0.0967	6187.90	4.0100	4.0099	-0.7659	24.55	0.00	-0.750			
0.0991	6339.30	4.0070	4.0070	-0.7714	24.56	0.01	-0.750			
0.1014	6487.15	4.0040	4.0042	-0.7748	24.56	0.01	-0.750			
0.1037	6634.51	4.0010	4.0010	-0.7775	24.56	0.01	-0.750			
0.1060	6783.47	3.9980	3.9979	-0.7793	24.57	0.02	-0.750			
0.1083	6929.94	3.9950	3.9950	-0.7822	24.57	0.02	-0.750			
0.1107	7085.03	3.9920	3.9919	-0.7920	24.58	0.03	-0.750			
0.1131	7237.80	3.9890	3.9891	-0.7947	24.58	0.03	-0.750			
0.1155	7390.80	3.9860	3.9860	-0.7954	24.58	0.03	-0.750			
0.1179	7542.95	3.9830	3.9829	-0.8013	24.59	0.04	-0.750			
0.1203	7699.09	3.9800	3.9799	-0.8027	24.59	0.04	-0.750			
0.1227	7851.95	3.9770	3.9768	-0.8006	24.59	0.04	-0.750			
0.1251	8007.82	3.9740	3.9742	-0.7988	24.60	0.05	-0.750			
0.1275	8161.88	3.9710	3.9709	-0.7993	24.60	0.05	-0.750			
0.1299	8314.40	3.9680	3.9680	-0.8064	24.61	0.06	-0.750			
0.1323	8469.95	3.9650	3.9649	-0.8028	24.61	0.06	-0.750			
0.1347	8621.90	3.9620	3.9620	-0.7950	24.61	0.06	-0.750			
0.1372	8779.10	3.9590	3.9591	-0.8020	24.62	0.07	-0.750			
0.1395	8931.11	3.9560	3.9558	-0.8023	24.62	0.07	-0.750			
0.1419	9082.80	3.9530	3.9528	-0.8108	24.63	0.08	-0.750			
0.1443	9237.85	3.9500	3.9500	-0.8107	24.63	0.08	-0.750			
0.1467	9391.57	3.9470	3.9470	-0.8107	24.63	0.08	-0.750			
0.1493	9556.10	3.9440	3.9439	-0.8269	24.64	0.09	-0.750			
0.1518	9714.97	3.9410	3.9411	-0.8254	24.64	0.09	-0.750			
0.1542	9870.57	3.9380	3.9380	-0.8294	24.65	0.10	-0.750			
0.1567	10031.09	3.9350	3.9349	-0.8256	24.65	0.10	-0.750			
0.1592	10188.20	3.9320	3.9319	-0.8217	24.65	0.10	-0.750			
0.1617	10348.61	3.9290	3.9288	-0.8293	24.66	0.11	-0.750			
0.1642	10510.20	3.9260	3.9262	-0.8238	24.66	0.11	-0.750			
0.1666	10664.46	3.9230	3.9229	-0.8328	24.67	0.12	-0.750			
0.1691	10824.32	3.9200	3.9200	-0.8302	24.67	0.12	-0.750			
0.1716	10981.68	3.9170	3.9169	-0.8260	24.67	0.12	-0.750			
0.1741	11145.30	3.9140	3.9138	-0.8387	24.68	0.13	-0.750			
0.1767	11307.97	3.9110	3.9112	-0.8383	24.68	0.13	-0.750			
0.1792	11468.27	3.9080	3.9079	-0.8394	24.69	0.14	-0.750			
0.1817	11630.72	3.9050	3.9050	-0.8405	24.69	0.14	-0.750			
0.1842	11786.72	3.9020	3.9020	-0.8274	24.69	0.14	-0.750			
0.1867	11950.36	3.8990	3.8990	-0.8380	24.70	0.15	-0.750			
0.1892	12110.23	3.8960	3.8960	-0.8397	24.70	0.15	-0.750			
0.1917	12269.37	3.8930	3.8931	-0.8513	24.71	0.16	-0.750			
0.1943	12437.95	3.8900	3.8899	-0.8484	24.71	0.16	-0.750			
0.1969	12601.00	3.8870	3.8868	-0.8462	24.71	0.16	-0.750			
0.1994	12764.51	3.8840	3.8840	-0.8445	24.72	0.17	-0.750			
0.2020	12926.73	3.8810	3.8809	-0.8400	24.72	0.17	-0.750			
0.2045	13085.33	3.8780	3.8779	-0.8478	24.73	0.18	-0.750			
0.2070	13245.94	3.8750	3.8749	-0.8418	24.73	0.18	-0.750			
0.2095	13409.87	3.8720	3.8719	-0.8380	24.73	0.18	-0.750			
0.2121	13575.58	3.8690	3.8689	-0.8465	24.74	0.19	-0.750			
0.2147	13738.64	3.8660	3.8659	-0.8404	24.74	0.19	-0.750			
0.2172	13899.05	3.8630	3.8630	-0.8402	24.75	0.20	-0.750			
0.2196	14056.76	3.8600	3.8598	-0.8342	24.75	0.20	-0.750			
0.2221	14212.74	3.8570	3.8571	-0.8304	24.75	0.20	-0.750			
0.2247	14378.55	3.8540	3.8538	-0.8379	24.76	0.21	-0.750			
0.2272	14538.63	3.8510	3.8508	-0.8379	24.76	0.21	-0.750			
0.2297	14699.44	3.8480	3.8481	-0.8456	24.77	0.22	-0.750			
0.2322	14863.37	3.8450	3.8449	-0.8467	24.77	0.22	-0.750			
0.2348	15026.41	3.8420	3.8419	-0.8394	24.77	0.22	-0.750			
0.2374	15192.10	3.8390	3.8391	-0.8389	24.78	0.23	-0.750			
0.2399	15353.74	3.8360	3.8359	-0.8283	24.78	0.23	-0.750			
0.2424	15511.00	3.8330	3.8330	-0.8305	24.79	0.24	-0.750			
0.2448	15666.31	3.8300	3.8300	-0.8193	24.79	0.24	-0.750			
0.2472	15822.61	3.8270	3.8268	-0.8116	24.79	0.24	-0.750			
0.2497	15980.52	3.8240	3.8239	-0.8159	24.80	0.25	-0.750			
0.2521	16137.22	3.8210	3.8209	-0.8097	24.80	0.25	-0.750			
0.2546	16293.65	3.8180	3.8179	-0.8056	24.81	0.26	-0.750			
0.2570	16445.53	3.8150	3.8150	-0.7967	24.81	0.26	-0.750			
0.2593	16594.01	3.8120	3.8121	-0.7873	24.81	0.26	-0.750			
0.2617	16747.42	3.8090	3.8088	-0.7946	24.82	0.27	-0.750			
0.2641	16900.95	3.8060	3.8061	-0.7938	24.82	0.27	-0.750			
0.2665	17053.39	3.8030	3.8029	-0.7893	24.82	0.27	-0.750			
0.2689	17206.44	3.8000	3.8000	-0.7950	24.83	0.28	-0.750			
0.2712	17358.68	3.7970	3.7970	-0.7847	24.83	0.28	-0.750			
0.2736	17510.63	3.7940	3.7939	-0.7799	24.84	0.29	-0.750			
0.2759	17659.25	3.7910	3.7913	-0.7755	24.84	0.29	-0.750			
0.2782	17805.49	3.7880	3.7879	-0.7707	24.84	0.29	-0.750			
0.2805	17953.10	3.7850	3.7850	-0.7752	24.85	0.30	-0.750			
0.2828	18101.37	3.7820	3.7819	-0.7737	24.85	0.30	-0.750			
0.2852	18250.70	3.7790	3.7789	-0.7778	24.85	0.30	-0.750			
0.2875	18401.52	3.7760	3.7758	-0.7764	24.86	0.31	-0.750			
0.2899	18550.73	3.7730	3.7729	-0.7770	24.86	0.31	-0.750			
0.2921	18696.91	3.7700	3.7700	-0.7811	24.86	0.31	-0.750			
0.2944	18844.68	3.7670	3.7670	-0.7834	24.86	0.31	-0.750			
0.2968	18996.19	3.7640	3.7639	-0.7906	24.86	0.31	-0.750			
0.2992	19151.16	3.7610	3.7609	-0.7986	24.86	0.31	-0.750			
0.3016	19305.40	3.7580	3.7582	-0.8022	24.86	0.31	-0.750			
0.3041	19459.35	3.7550	3.7551	-0.8185	24.86	0.31	-0.750			
0.3065	19617.95	3.7520	3.7519	-0.8192	24.86	0.31	-0.750			
0.3090	19773.63	3.7490	3.7490	-0.8176	24.87	0.32	-0.750			
0.3115	19933.36	3.7460	3.7459	-0.8239	24.87	0.32	-0.750			
0.3139	20091.91	3.7430	3.7432	-0.8357	24.87	0.32	-0.750			
0.3164	20249.97	3.7400	3.7400	-0.8566	24.87	0.32	-0.750			
0.3190	20416.24	3.7370	3.7369	-0.8620	24.87	0.32	-0.750			
0.3216	20581.87	3.7340	3.7338	-0.8675	24.88	0.33	-0.750			
0.3243	20753.58	3.7310	3.7310	-0.8906	24.88	0.33	-0.750			
0.3270	20927.84	3.7280	3.7280	-0.9000	24.88	0.33	-0.750			
0.3297	21100.29	3.7250	3.7248	-0.9082	24.87	0.32	-0.750			
0.3323	21270.06	3.7220	3.7221	-0.9108	24.87	0.32	-0.750			
0.3351	21444.72	3.7190	3.7190	-0.9215	24.87	0.32	-0.750			
0.3380	21629.06	3.7160	3.7160	-0.9459	24.86	0.31	-0.750			
0.3408	21811.11	3.7130	3.7130	-0.9644	24.86	0.31	-0.750			
0.3437	21996.78	3.7100	3.7101	-0.9790	24.86	0.31	-0.750			
0.3467	22189.32	3.7070	3.7069	-1.0065	24.86	0.31	-0.750			
0.3498	22384.87	3.7040	3.7037	-1.0153	24.86	0.31	-0.750			
0.3528	22582.14	3.7010	3.7009	-1.0348	24.86	0.31	-0.750			
0.3560	22783.72	3.6980	3.6983	-1.0445	24.85	0.30	-0.750	0.367	0.510	
0.3592	22987.54	3.6950	3.6947	-1.0528	24.85	0.30	-0.750			
0.3623	23185.52	3.6920	3.6922	-1.0535	24.84	0.29	-0.750			
0.3654	23387.36	3.6890	3.6889	-1.0847	24.84	0.29	-0.750			
0.3688	23603.72	3.6860	3.6858	-1.1094	24.84	0.29	-0.750			
0.3721	23816.86	3.6830	3.6828	-1.1236	24.83	0.28	-0.750			
0.3755	24031.00	3.6800	3.6804	-1.1525	24.83	0.28	-0.750			
0.3791	24262.38	3.6770	3.6770	-1.1856	24.83	0.28	-0.750			
0.3827	24491.43	3.6740	3.6737	-1.2032	24.82	0.27	-0.750			
0.3862	24717.52	3.6710	3.6709	-1.2324	24.82	0.27	-0.750			
0.3900	24961.83	3.6680	3.6678	-1.2462	24.82	0.27	-0.750			
0.3938	25204.67	3.6650	3.6648	-1.2570	24.81	0.26	-0.750			
0.3976	25444.09	3.6620	3.6620	-1.2679	24.81	0.26	-0.750			
0.4014	25689.96	3.6590	3.6593	-1.2974	24.80	0.25	-0.750			
0.4053	25936.18	3.6560	3.6559	-1.3140	24.79	0.24	-0.750			
0.4092	26188.30	3.6530	3.6530	-1.3347	24.79	0.24	-0.750			
0.4132	26444.56	3.6500	3.6501	-1.3702	24.78	0.23	-0.750			
0.4174	26712.92	3.6470	3.6470	-1.4272	24.78	0.23	-0.750			
0.4217	26990.51	3.6440	3.6440	-1.4601	24.77	0.22	-0.750			
0.4263	27282.56	3.6410	3.6412	-1.4546	24.77	0.22	-0.750			
0.4307	27563.04	3.6380	3.6377	-1.4854	24.77	0.22	-0.750			
0.4351	27849.33	3.6350	3.6350	-1.5019	24.76	0.21	-0.750			
0.4396	28134.30	3.6320	3.6317	-1.5249	24.76	0.21	-0.750			
0.4442	28429.40	3.6290	3.6289	-1.5557	24.75	0.20	-0.750			
0.4488	28723.69	3.6260	3.6260	-1.5670	24.74	0.19	-0.750			
0.4536	29033.32	3.6230	3.6228	-1.6160	24.74	0.19	-0.750			
0.4587	29357.81	3.6200	3.6197	-1.6564	24.73	0.18	-0.750			
0.4636	29669.11	3.6170	3.6173	-1.6654	24.73	0.18	-0.750			
0.4686	29992.50	3.6140	3.6138	-1.7085	24.73	0.18	-0.750			
0.4740	30333.87	3.6110	3.6107	-1.7238	24.72	0.17	-0.750			
0.4793	30677.68	3.6080	3.6078	-1.6988	24.71	0.16	-0.750			
0.4846	31013.48	3.6050	3.6048	-1.7307	24.71	0.16	-0.750			
0.4896	31334.78	3.6020	3.6023	-1.7100	24.70	0.15	-0.750			
0.4946	31654.50	3.5990	3.5986	-1.7477	24.70	0.15	-0.750			
0.4999	31992.29	3.5960	3.5964	-1.7876	24.70	0.15	-0.750			
0.5053	32336.71	3.5930	3.5929	-1.8666	24.69	0.14	-0.750			
0.5113	32724.86	3.5900	3.5904	-1.9576	24.68	0.13	-0.750			
0.5171	33091.59	3.5870	3.5869	-2.0052	24.68	0.13	-0.750			
0.5233	33491.63	3.5840	3.5842	-2.0687	24.68	0.13	-0.750			
0.5297	33898.47	3.5810	3.5809	-2.0761	24.67	0.12	-0.750			
0.5361	34312.14	3.5780	3.5783	-2.1142	24.66	0.11	-0.750			
0.5426	34723.57	3.5750	3.5751	-2.1439	24.66	0.11	-0.750			
0.5490	35138.95	3.5720	3.5721	-2.1528	24.65	0.10	-0.750			
0.5551	35527.95	3.5690	3.5690	-2.1495	24.65	0.10	-0.750			
0.5619	35959.72	3.5660	3.5657	-2.1613	24.64	0.09	-0.750			
0.5682	36364.52	3.5630	3.5629	-2.1448	24.64	0.09	-0.750			
0.5750	36796.98	3.5600	3.5596	-2.1576	24.64	0.09	-0.750			
0.5816	37220.11	3.5570	3.5571	-2.1883	24.64	0.09	-0.750			
0.5881	37640.47	3.5540	3.5546	-2.1691	24.64	0.09	-0.750			
0.5946	38057.04	3.5510	3.5509	-2.1684	24.64	0.09	-0.750			
0.6008	38452.33	3.5480	3.5481	-2.1389	24.64	0.09	-0.750			
0.6072	38860.36	3.5450	3.5452	-2.1096	24.65	0.10	-0.750			
0.6138	39281.34	3.5420	3.5422	-2.0800	24.65	0.10	-0.750			
0.6201	39685.42	3.5390	3.5387	-2.0385	24.66	0.11	-0.750			
0.6260	40063.76	3.5360	3.5366	-1.9994	24.66	0.11	-0.750			
0.6319	40442.16	3.5330	3.5329	-1.9509	24.67	0.12	-0.750			
0.6379	40825.25	3.5300	3.5294	-1.9174	24.68	0.13	-0.750			
0.6434	41177.24	3.5270	3.5267	-1.8632	24.69	0.14	-0.750			
0.6489	41532.63	3.5240	3.5239	-1.8162	24.70	0.15	-0.750			
0.6545	41885.35	3.5210	3.5211	-1.7826	24.71	0.16	-0.750			
0.6597	42222.81	3.5180	3.5180	-1.7181	24.73	0.18	-0.750			
0.6649	42553.05	3.5150	3.5146	-1.6795	24.74	0.19	-0.750			
0.6700	42878.56	3.5120	3.5117	-1.6270	24.76	0.21	-0.750			
0.6748	43188.34	3.5090	3.5088	-1.5865	24.77	0.22	-0.750			
0.6796	43493.79	3.5060	3.5059	-1.5605	24.78	0.23	-0.750			
0.6841	43779.21	3.5030	3.5027	-1.5341	24.80	0.25	-0.750			
0.6887	44075.57	3.5000	3.5004	-1.4696	24.81	0.26	-0.750			
0.6932	44364.06	3.4970	3.4973	-1.4438	24.83	0.28	-0.750			
0.6974	44633.61	3.4940	3.4938	-1.3947	24.84	0.29	-0.750			
0.7016	44900.21	3.4910	3.4913	-1.3499	24.85	0.30	-0.750			
0.7054	45147.95	3.4880	3.4879	-1.3364	24.86	0.31	-0.750			
0.7094	45401.50	3.4850	3.4851	-1.2412	24.88	0.33	-0.750			
