Ah_balance (normalized)	Ah_balance (mAh)	Voltage - fit (V)	Voltage -  interpolate (V)	dQ/dV (1/V)	Temperature (°C)	Temperature - diff (°C)	Current (C)	R_DC 0ms (mOhm)	R_DC 50ms (mOhm)	R_DC 50 ms PEC (mOhm)
0.0003	21.16	4.1550	4.1545	-0.1127	25.19	0.01	-0.750			
0.0007	46.99	4.1520	4.1520	-0.1573	25.19	0.01	-0.750			
0.0013	82.13	4.1490	4.1490	-0.2003	25.19	0.01	-0.750			
0.0020	125.24	4.1460	4.1460	-0.2409	25.19	0.01	-0.750			
0.0027	174.81	4.1430	4.1430	-0.2880	25.19	0.01	-0.750			
0.0037	234.95	4.1400	4.1400	-0.3285	25.18	0.00	-0.750			
0.0047	303.45	4.1370	4.1369	-0.3666	25.18	0.00	-0.750			
0.0059	377.19	4.1340	4.1338	-0.4040	25.18	0.00	-0.750			
0.0072	459.02	4.1310	4.1311	-0.4409	25.18	-0.00	-0.750			
0.0086	548.24	4.1280	4.1279	-0.4730	25.18	-0.00	-0.750			
0.0100	641.75	4.1250	4.1249	-0.5044	25.17	-0.01	-0.750			
0.0116	741.42	4.1220	4.1221	-0.5277	25.17	-0.01	-0.750			
0.0133	848.68	4.1190	4.1190	-0.5632	25.17	-0.01	-0.750			
0.0150	960.37	4.1160	4.1159	-0.5837	25.17	-0.01	-0.750			
0.0168	1075.22	4.1130	4.1129	-0.5988	25.16	-0.02	-0.750			
0.0186	1193.27	4.1100	4.1107	-0.6104	25.16	-0.02	-0.750			
0.0205	1312.79	4.1070	4.1069	-0.6213	25.16	-0.02	-0.750			
0.0224	1431.21	4.1040	4.1040	-0.6322	25.15	-0.03	-0.750			
0.0243	1552.71	4.1010	4.1011	-0.6469	25.15	-0.03	-0.750			
0.0262	1676.02	4.0980	4.0979	-0.6488	25.15	-0.03	-0.750			
0.0282	1806.50	4.0950	4.0949	-0.6603	25.15	-0.03	-0.750			
0.0302	1933.86	4.0920	4.0921	-0.6743	25.14	-0.04	-0.750			
0.0322	2063.95	4.0890	4.0891	-0.6827	25.14	-0.04	-0.750			
0.0343	2195.88	4.0860	4.0859	-0.6880	25.14	-0.04	-0.750			
0.0364	2327.03	4.0830	4.0830	-0.6999	25.14	-0.04	-0.750			
0.0385	2463.58	4.0800	4.0800	-0.6981	25.14	-0.04	-0.750			
0.0406	2600.12	4.0770	4.0769	-0.7042	25.14	-0.04	-0.750			
0.0428	2737.44	4.0740	4.0740	-0.7059	25.14	-0.04	-0.750			
0.0448	2869.91	4.0710	4.0708	-0.7005	25.14	-0.04	-0.750			
0.0469	3004.60	4.0680	4.0679	-0.7076	25.14	-0.04	-0.750			
0.0491	3141.66	4.0650	4.0650	-0.7178	25.14	-0.04	-0.750			
0.0513	3280.83	4.0620	4.0618	-0.7161	25.14	-0.04	-0.750			
0.0535	3421.30	4.0590	4.0591	-0.7251	25.14	-0.04	-0.750			
0.0556	3559.78	4.0560	4.0565	-0.7287	25.14	-0.04	-0.750			
0.0578	3699.52	4.0530	4.0528	-0.7337	25.14	-0.04	-0.750			
0.0600	3838.37	4.0500	4.0498	-0.7371	25.15	-0.03	-0.750			
0.0622	3979.61	4.0470	4.0471	-0.7410	25.15	-0.03	-0.750			
0.0644	4122.66	4.0440	4.0440	-0.7421	25.15	-0.03	-0.750			
0.0668	4272.50	4.0410	4.0409	-0.7548	25.16	-0.02	-0.750			
0.0690	4416.01	4.0380	4.0384	-0.7510	25.16	-0.02	-0.750			
0.0713	4560.57	4.0350	4.0350	-0.7479	25.16	-0.02	-0.750			
0.0735	4702.56	4.0320	4.0320	-0.7551	25.16	-0.02	-0.750			
0.0758	4849.73	4.0290	4.0289	-0.7539	25.17	-0.01	-0.750			
0.0780	4994.15	4.0260	4.0260	-0.7581	25.17	-0.01	-0.750			
0.0803	5139.49	4.0230	4.0229	-0.7587	25.17	-0.01	-0.750			
0.0826	5287.20	4.0200	4.0200	-0.7599	25.17	-0.01	-0.750			
0.0849	5431.07	4.0170	4.0169	-0.7596	25.17	-0.01	-0.750			
0.0872	5577.74	4.0140	4.0141	-0.7647	25.17	-0.01	-0.750			
0.0894	5723.52	4.0110	4.0110	-0.7624	25.18	-0.00	-0.750			
0.0918	5874.83	4.0080	4.0077	-0.7715	25.18	-0.00	-0.750			
0.0941	6021.27	4.0050	4.0061	-0.7651	25.18	0.00	-0.750			
0.0964	6167.48	4.0020	4.0019	-0.7631	25.18	0.00	-0.750			
0.0986	6313.58	3.9990	3.9988	-0.7681	25.19	0.01	-0.750			
0.1009	6460.10	3.9960	3.9961	-0.7678	25.19	0.01	-0.750			
0.1032	6604.16	3.9930	3.9930	-0.7715	25.19	0.01	-0.750			
0.1056	6759.00	3.9900	3.9899	-0.7746	25.20	0.02	-0.750			
0.1080	6908.83	3.9870	3.9870	-0.7690	25.20	0.02	-0.750			
0.1102	7052.17	3.9840	3.9841	-0.7756	25.20	0.02	-0.750			
0.1125	7202.17	3.9810	3.9810	-0.7753	25.20	0.02	-0.750			
0.1148	7349.85	3.9780	3.9778	-0.7743	25.21	0.03	-0.750			
0.1171	7495.34	3.9750	3.9750	-0.8162	25.21	0.03	-0.750			
0.1196	7652.01	3.9720	3.9723	-0.8392	25.21	0.03	-0.750			
0.1222	7822.06	3.9690	3.9685	-0.8574	25.22	0.04	-0.750			
0.1249	7996.24	3.9660	3.9661	-0.8669	25.22	0.04	-0.750			
0.1276	8167.25	3.9630	3.9631	-0.8541	25.22	0.04	-0.750			
0.1302	8333.58	3.9600	3.9599	-0.8399	25.23	0.05	-0.750			
0.1327	8492.82	3.9570	3.9567	-0.8089	25.23	0.05	-0.750			
0.1349	8635.05	3.9540	3.9539	-0.7873	25.24	0.06	-0.750			
0.1372	8782.41	3.9510	3.9511	-0.7834	25.24	0.06	-0.750			
0.1395	8930.30	3.9480	3.9480	-0.7823	25.24	0.06	-0.750			
0.1420	9086.44	3.9450	3.9449	-0.7977	25.25	0.07	-0.750			
0.1444	9240.98	3.9420	3.9422	-0.7958	25.25	0.07	-0.750			
0.1468	9393.81	3.9390	3.9390	-0.7926	25.25	0.07	-0.750			
0.1492	9548.32	3.9360	3.9360	-0.8002	25.26	0.08	-0.750			
0.1516	9700.95	3.9330	3.9329	-0.7965	25.26	0.08	-0.750			
0.1540	9854.22	3.9300	3.9299	-0.7942	25.27	0.09	-0.750			
0.1564	10006.48	3.9270	3.9274	-0.7930	25.27	0.09	-0.750			
0.1587	10159.39	3.9240	3.9239	-0.7913	25.27	0.09	-0.750			
0.1611	10310.79	3.9210	3.9210	-0.8020	25.28	0.10	-0.750			
0.1635	10464.04	3.9180	3.9180	-0.7979	25.28	0.10	-0.750			
0.1659	10620.35	3.9150	3.9148	-0.7986	25.29	0.11	-0.750			
0.1683	10771.67	3.9120	3.9123	-0.7956	25.29	0.11	-0.750			
0.1707	10925.71	3.9090	3.9089	-0.7934	25.29	0.11	-0.750			
0.1731	11075.36	3.9060	3.9058	-0.7909	25.29	0.11	-0.750			
0.1754	11225.32	3.9030	3.9030	-0.7845	25.30	0.12	-0.750			
0.1777	11373.58	3.9000	3.9001	-0.7842	25.30	0.12	-0.750			
0.1802	11529.72	3.8970	3.8969	-0.7951	25.30	0.12	-0.750			
0.1826	11683.21	3.8940	3.8940	-0.7919	25.30	0.12	-0.750			
0.1849	11833.28	3.8910	3.8910	-0.7863	25.31	0.13	-0.750			
0.1873	11985.84	3.8880	3.8880	-0.7846	25.31	0.13	-0.750			
0.1896	12135.89	3.8850	3.8851	-0.7784	25.31	0.13	-0.750			
0.1920	12286.48	3.8820	3.8819	-0.7741	25.32	0.14	-0.750			
0.1942	12431.88	3.8790	3.8793	-0.7708	25.32	0.14	-0.750			
0.1966	12579.57	3.8760	3.8761	-0.7683	25.32	0.14	-0.750			
0.1989	12727.37	3.8730	3.8729	-0.7730	25.32	0.14	-0.750			
0.2012	12876.32	3.8700	3.8698	-0.7692	25.33	0.15	-0.750			
0.2035	13024.94	3.8670	3.8671	-0.7675	25.33	0.15	-0.750			
0.2058	13172.07	3.8640	3.8639	-0.7624	25.33	0.15	-0.750			
0.2081	13318.99	3.8610	3.8609	-0.7616	25.33	0.15	-0.750			
0.2104	13463.46	3.8580	3.8580	-0.7560	25.34	0.16	-0.750			
0.2126	13606.31	3.8550	3.8550	-0.7547	25.34	0.16	-0.750			
0.2149	13750.71	3.8520	3.8520	-0.7521	25.35	0.17	-0.750			
0.2171	13897.44	3.8490	3.8490	-0.7571	25.36	0.18	-0.750			
0.2194	14042.84	3.8460	3.8460	-0.7534	25.36	0.18	-0.750			
0.2217	14188.07	3.8430	3.8430	-0.7528	25.36	0.18	-0.750			
0.2239	14331.60	3.8400	3.8400	-0.7564	25.37	0.19	-0.750			
0.2262	14476.62	3.8370	3.8370	-0.7559	25.37	0.19	-0.750			
0.2285	14622.73	3.8340	3.8338	-0.7550	25.38	0.20	-0.750			
0.2308	14768.41	3.8310	3.8310	-0.7530	25.38	0.20	-0.750			
0.2330	14912.96	3.8280	3.8280	-0.7549	25.38	0.20	-0.750			
0.2352	15054.71	3.8250	3.8251	-0.7707	25.38	0.20	-0.750			
0.2376	15204.06	3.8220	3.8218	-0.7589	25.38	0.20	-0.750			
0.2398	15349.26	3.8190	3.8190	-0.7592	25.38	0.20	-0.750			
0.2422	15502.17	3.8160	3.8157	-0.7495	25.38	0.20	-0.750			
0.2445	15646.53	3.8130	3.8132	-0.7270	25.38	0.20	-0.750			
0.2466	15783.83	3.8100	3.8100	-0.7156	25.38	0.20	-0.750			
0.2487	15914.61	3.8070	3.8074	-0.7028	25.39	0.21	-0.750			
0.2507	16043.65	3.8040	3.8036	-0.7105	25.39	0.21	-0.750			
0.2528	16176.35	3.8010	3.8008	-0.7178	25.39	0.21	-0.750			
0.2549	16311.76	3.7980	3.7981	-0.7300	25.40	0.22	-0.750			
0.2572	16458.36	3.7950	3.7952	-0.7538	25.40	0.22	-0.750			
0.2595	16610.76	3.7920	3.7919	-0.7779	25.40	0.22	-0.750			
0.2619	16761.83	3.7890	3.7890	-0.7858	25.40	0.22	-0.750			
0.2643	16914.15	3.7860	3.7861	-0.7885	25.40	0.22	-0.750			
0.2667	17066.58	3.7830	3.7829	-0.7941	25.40	0.22	-0.750			
0.2691	17219.36	3.7800	3.7810	-0.7917	25.40	0.22	-0.750			
0.2714	17370.91	3.7770	3.7769	-0.7937	25.41	0.23	-0.750			
0.2738	17524.03	3.7740	3.7740	-0.8087	25.41	0.23	-0.750			
0.2762	17679.15	3.7710	3.7708	-0.8095	25.42	0.24	-0.750			
0.2787	17838.71	3.7680	3.7678	-0.8205	25.42	0.24	-0.750			
0.2812	17997.02	3.7650	3.7648	-0.8219	25.43	0.25	-0.750			
0.2837	18155.96	3.7620	3.7619	-0.8213	25.43	0.25	-0.750			
0.2861	18313.07	3.7590	3.7590	-0.8336	25.43	0.25	-0.750			
0.2886	18469.96	3.7560	3.7559	-0.8345	25.42	0.24	-0.750			
0.2911	18632.58	3.7530	3.7529	-0.8515	25.42	0.24	-0.750			
0.2937	18798.26	3.7500	3.7499	-0.8585	25.42	0.24	-0.750			
0.2962	18959.47	3.7470	3.7468	-0.8764	25.42	0.24	-0.750			
0.2990	19135.80	3.7440	3.7437	-0.8679	25.42	0.24	-0.750			
0.3016	19300.92	3.7410	3.7409	-0.8640	25.42	0.24	-0.750			
0.3041	19463.57	3.7380	3.7378	-0.8640	25.42	0.24	-0.750			
0.3067	19629.01	3.7350	3.7357	-0.8664	25.42	0.24	-0.750			
0.3093	19797.13	3.7320	3.7317	-0.8777	25.42	0.24	-0.750			
0.3120	19965.63	3.7290	3.7289	-0.8960	25.42	0.24	-0.750			
0.3146	20137.43	3.7260	3.7260	-0.9029	25.42	0.24	-0.750			
0.3175	20320.25	3.7230	3.7228	-0.9234	25.42	0.24	-0.750			
0.3203	20497.62	3.7200	3.7198	-0.9291	25.42	0.24	-0.750			
0.3231	20676.12	3.7170	3.7171	-0.9411	25.41	0.23	-0.750			
0.3259	20856.26	3.7140	3.7138	-0.9453	25.41	0.23	-0.750			
0.3287	21033.73	3.7110	3.7111	-0.9430	25.40	0.22	-0.750			
0.3315	21217.77	3.7080	3.7083	-0.9900	25.40	0.22	-0.750			
0.3345	21409.78	3.7050	3.7048	-0.9927	25.40	0.22	-0.750			
0.3376	21606.55	3.7020	3.7019	-0.9999	25.40	0.22	-0.750			
0.3406	21799.40	3.6990	3.6990	-0.9987	25.40	0.22	-0.750			
0.3436	21992.23	3.6960	3.6963	-1.0135	25.40	0.22	-0.750			
0.3467	22187.77	3.6930	3.6929	-1.0337	25.40	0.22	-0.750			
0.3498	22384.89	3.6900	3.6898	-1.0325	25.39	0.21	-0.750			
0.3528	22581.69	3.6870	3.6868	-1.0422	25.39	0.21	-0.750			
0.3561	22787.73	3.6840	3.6847	-1.0632	25.38	0.20	-0.750			
0.3593	22993.93	3.6810	3.6809	-1.0856	25.38	0.20	-0.750			
0.3626	23203.39	3.6780	3.6778	-1.0955	25.38	0.20	-0.750			
0.3658	23412.44	3.6750	3.6749	-1.1011	25.37	0.19	-0.750			
0.3691	23621.31	3.6720	3.6726	-1.1247	25.37	0.19	-0.750			
0.3726	23849.18	3.6690	3.6689	-1.1501	25.37	0.19	-0.750			
0.3761	24072.98	3.6660	3.6658	-1.1560	25.37	0.19	-0.750			
0.3795	24288.07	3.6630	3.6629	-1.2044	25.37	0.19	-0.750			
0.3832	24525.45	3.6600	3.6598	-1.2063	25.37	0.19	-0.750			
0.3869	24759.11	3.6570	3.6567	-1.2140	25.36	0.18	-0.750			
0.3905	24993.02	3.6540	3.6537	-1.2195	25.36	0.18	-0.750			
0.3941	25223.07	3.6510	3.6521	-1.2258	25.35	0.17	-0.750			
0.3980	25472.45	3.6480	3.6478	-1.2566	25.34	0.16	-0.750			
0.4017	25708.10	3.6450	3.6449	-1.2880	25.33	0.15	-0.750			
0.4055	25953.61	3.6420	3.6419	-1.3358	25.32	0.14	-0.750			
0.4097	26217.99	3.6390	3.6387	-1.3512	25.32	0.14	-0.750			
0.4138	26481.94	3.6360	3.6364	-1.3713	25.32	0.14	-0.750			
0.4179	26748.13	3.6330	3.6328	-1.4006	25.32	0.14	-0.750			
0.4222	27018.17	3.6300	3.6299	-1.4320	25.32	0.14	-0.750			
0.4266	27299.25	3.6270	3.6266	-1.4452	25.31	0.13	-0.750			
0.4309	27580.37	3.6240	3.6250	-1.4809	25.31	0.13	-0.750			
0.4355	27871.01	3.6210	3.6207	-1.4983	25.30	0.12	-0.750			
0.4400	28157.87	3.6180	3.6177	-1.5477	25.30	0.12	-0.750			
0.4447	28458.73	3.6150	3.6152	-1.5468	25.29	0.11	-0.750			
0.4493	28754.01	3.6120	3.6117	-1.5806	25.29	0.11	-0.750			
0.4541	29059.72	3.6090	3.6094	-1.6238	25.28	0.10	-0.750			
0.4591	29382.85	3.6060	3.6056	-1.6778	25.28	0.10	-0.750			
0.4643	29715.15	3.6030	3.6035	-1.6895	25.28	0.10	-0.750			
0.4693	30034.79	3.6000	3.6002	-1.7256	25.28	0.10	-0.750			
0.4744	30361.88	3.5970	3.5969	-1.7632	25.28	0.10	-0.750			
0.4798	30708.84	3.5940	3.5934	-1.8196	25.28	0.10	-0.750			
0.4854	31065.05	3.5910	3.5909	-1.8413	25.28	0.10	-0.750			
0.4910	31423.79	3.5880	3.5880	-1.8616	25.27	0.09	-0.750			
0.4966	31780.37	3.5850	3.5848	-1.8367	25.27	0.09	-0.750			
0.5022	32143.79	3.5820	3.5822	-1.8641	25.27	0.09	-0.750			
0.5077	32495.66	3.5790	3.5786	-1.9034	25.27	0.09	-0.750			
0.5134	32858.61	3.5760	3.5758	-1.9724	25.27	0.09	-0.750			
0.5195	33247.01	3.5730	3.5731	-1.9843	25.27	0.09	-0.750			
0.5255	33629.23	3.5700	3.5698	-1.9672	25.27	0.09	-0.750			
0.5316	34019.79	3.5670	3.5674	-2.0068	25.27	0.09	-0.750			
0.5378	34417.78	3.5640	3.5633	-2.0484	25.27	0.09	-0.750			
0.5436	34792.21	3.5610	3.5619	-2.0650	25.27	0.09	-0.750			
0.5500	35202.43	3.5580	3.5575	-2.0762	25.27	0.09	-0.750			
0.5560	35584.28	3.5550	3.5549	-2.0297	25.28	0.10	-0.750			
0.5621	35971.85	3.5520	3.5527	-2.0509	25.28	0.10	-0.750			
0.5685	36384.61	3.5490	3.5486	-2.0341	25.28	0.10	-0.750			
0.5747	36778.33	3.5460	3.5457	-2.0218	25.28	0.10	-0.750			
0.5806	37161.28	3.5430	3.5423	-2.0271	25.29	0.11	-0.750			
0.5866	37544.86	3.5400	3.5397	-1.9613	25.30	0.12	-0.750			
0.5923	37904.97	3.5370	3.5368	-1.9367	25.31	0.13	-0.750			
0.5979	38267.45	3.5340	3.5341	-1.9547	25.31	0.13	-0.750			
0.6041	38663.63	3.5310	3.5310	-1.9222	25.32	0.14	-0.750			
0.6101	39043.79	3.5280	3.5280	-1.8841	25.33	0.15	-0.750			
0.6156	39399.30	3.5250	3.5256	-1.8081	25.35	0.17	-0.750			
0.6209	39738.17	3.5220	3.5216	-1.7650	25.36	0.18	-0.750			
0.6258	40050.37	3.5190	3.5189	-1.7152	25.38	0.20	-0.750			
0.6309	40376.29	3.5160	3.5158	-1.6397	25.39	0.21	-0.750			
0.6360	40703.95	3.5130	3.5133	-1.6255	25.40	0.22	-0.750			
0.6407	41003.42	3.5100	3.5103	-1.5932	25.42	0.24	-0.750			
0.6454	41307.77	3.5070	3.5067	-1.5359	25.43	0.25	-0.750			
0.6501	41608.29	3.5040	3.5034	-1.4718	25.45	0.27	-0.750			
0.6544	41882.67	3.5010	3.5020	-1.4348	25.46	0.28	-0.750			
0.6587	42154.06	3.4980	3.4977	-1.3936	25.48	0.30	-0.750			
0.6627	42410.60	3.4950	3.4945	-1.3289	25.49	0.31	-0.750			
0.6661	42632.01	3.4920	3.4921	-1.2662	25.50	0.32	-0.750			
0.6703	42897.32	3.4890	3.4890	-1.2900	25.51	0.33	-0.750			
0.6741	43143.49	3.4860	3.4858	-1.2560	25.53	0.35	-0.750			
0.6779	43382.84	3.4830	3.4828	-1.2098	25.54	0.36	-0.750			
0.6814	43612.08	3.4800	3.4807	-1.1563	25.55	0.37	-0.750			
0.6848	43824.06	3.4770	3.4768	-1.0431	25.56	0.38	-0.750			
