Ah_balance (normalized)	Ah_balance (mAh)	Voltage - fit (V)	Voltage -  interpolate (V)	dQ/dV (1/V)	Temperature (°C)	Temperature - diff (°C)	Current (C)	R_DC 0ms (mOhm)	R_DC 50ms (mOhm)	R_DC 50 ms PEC (mOhm)
0.0002	10.54	4.1600	4.1600	-0.0965	25.39	0.01	-0.750			
0.0005	34.34	4.1570	4.1571	-0.1465	25.39	0.01	-0.750			
0.0011	67.26	4.1540	4.1539	-0.1923	25.38	0.00	-0.750			
0.0017	109.73	4.1510	4.1511	-0.2341	25.38	0.00	-0.750			
0.0025	159.02	4.1480	4.1479	-0.2717	25.38	0.00	-0.750			
0.0034	216.29	4.1450	4.1450	-0.3098	25.38	0.00	-0.750			
0.0044	280.61	4.1420	4.1419	-0.3413	25.38	-0.00	-0.750			
0.0054	347.61	4.1390	4.1390	-0.3773	25.38	-0.00	-0.750			
0.0066	423.28	4.1360	4.1360	-0.4106	25.38	-0.00	-0.750			
0.0079	505.64	4.1330	4.1329	-0.4418	25.37	-0.01	-0.750			
0.0093	593.75	4.1300	4.1301	-0.4745	25.37	-0.01	-0.750			
0.0108	689.66	4.1270	4.1271	-0.5039	25.37	-0.01	-0.750			
0.0123	789.55	4.1240	4.1240	-0.5275	25.37	-0.01	-0.750			
0.0140	896.18	4.1210	4.1210	-0.5465	25.36	-0.02	-0.750			
0.0156	999.71	4.1180	4.1180	-0.5621	25.36	-0.02	-0.750			
0.0173	1108.96	4.1150	4.1151	-0.5860	25.36	-0.02	-0.750			
0.0191	1223.91	4.1120	4.1121	-0.6042	25.36	-0.02	-0.750			
0.0210	1342.65	4.1090	4.1087	-0.6176	25.35	-0.03	-0.750			
0.0229	1463.76	4.1060	4.1062	-0.6484	25.35	-0.03	-0.750			
0.0249	1595.14	4.1030	4.1030	-0.6532	25.35	-0.03	-0.750			
0.0270	1725.16	4.1000	4.0997	-0.6651	25.34	-0.04	-0.750			
0.0289	1851.61	4.0970	4.0977	-0.6608	25.34	-0.04	-0.750			
0.0309	1975.69	4.0940	4.0941	-0.6594	25.34	-0.04	-0.750			
0.0328	2097.64	4.0910	4.0909	-0.6795	25.33	-0.05	-0.750			
0.0348	2226.90	4.0880	4.0880	-0.6787	25.33	-0.05	-0.750			
0.0369	2362.23	4.0850	4.0849	-0.6922	25.33	-0.05	-0.750			
0.0390	2498.96	4.0820	4.0819	-0.6964	25.32	-0.06	-0.750			
0.0412	2635.06	4.0790	4.0793	-0.6948	25.32	-0.06	-0.750			
0.0433	2768.46	4.0760	4.0759	-0.6939	25.32	-0.06	-0.750			
0.0453	2897.73	4.0730	4.0731	-0.6933	25.32	-0.06	-0.750			
0.0473	3027.92	4.0700	4.0699	-0.7035	25.32	-0.06	-0.750			
0.0494	3164.23	4.0670	4.0669	-0.7176	25.32	-0.06	-0.750			
0.0516	3304.21	4.0640	4.0640	-0.7195	25.32	-0.06	-0.750			
0.0538	3446.26	4.0610	4.0610	-0.7321	25.32	-0.06	-0.750			
0.0561	3587.58	4.0580	4.0581	-0.7371	25.32	-0.06	-0.750			
0.0582	3725.75	4.0550	4.0549	-0.7526	25.32	-0.06	-0.750			
0.0605	3871.62	4.0520	4.0518	-0.7411	25.32	-0.06	-0.750			
0.0628	4016.84	4.0490	4.0491	-0.7360	25.32	-0.06	-0.750			
0.0650	4159.47	4.0460	4.0457	-0.7377	25.32	-0.06	-0.750			
0.0672	4300.77	4.0430	4.0432	-0.7307	25.32	-0.06	-0.750			
0.0693	4436.88	4.0400	4.0398	-0.7250	25.32	-0.06	-0.750			
0.0715	4573.09	4.0370	4.0370	-0.7374	25.33	-0.05	-0.750			
0.0737	4716.44	4.0340	4.0339	-0.7515	25.33	-0.05	-0.750			
0.0760	4863.35	4.0310	4.0308	-0.7489	25.34	-0.04	-0.750			
0.0783	5011.01	4.0280	4.0281	-0.7525	25.34	-0.04	-0.750			
0.0805	5153.17	4.0250	4.0249	-0.7499	25.34	-0.04	-0.750			
0.0828	5296.16	4.0220	4.0219	-0.7498	25.34	-0.04	-0.750			
0.0850	5438.88	4.0190	4.0189	-0.7508	25.34	-0.04	-0.750			
0.0872	5580.86	4.0160	4.0160	-0.7433	25.35	-0.03	-0.750			
0.0895	5730.07	4.0130	4.0130	-0.7559	25.35	-0.03	-0.750			
0.0918	5874.70	4.0100	4.0103	-0.7608	25.35	-0.03	-0.750			
0.0941	6020.53	4.0070	4.0070	-0.7606	25.35	-0.03	-0.750			
0.0964	6167.18	4.0040	4.0038	-0.7661	25.35	-0.03	-0.750			
0.0987	6313.67	4.0010	4.0010	-0.7673	25.36	-0.02	-0.750			
0.1010	6465.99	3.9980	3.9979	-0.7682	25.36	-0.02	-0.750			
0.1033	6612.05	3.9950	3.9948	-0.7598	25.36	-0.02	-0.750			
0.1056	6755.36	3.9920	3.9919	-0.7648	25.36	-0.02	-0.750			
0.1078	6897.65	3.9890	3.9887	-0.7856	25.36	-0.02	-0.750			
0.1101	7049.46	3.9860	3.9859	-0.7772	25.36	-0.02	-0.750			
0.1126	7205.77	3.9830	3.9830	-0.7848	25.37	-0.01	-0.750			
0.1150	7357.67	3.9800	3.9799	-0.7772	25.37	-0.01	-0.750			
0.1173	7507.63	3.9770	3.9768	-0.7701	25.37	-0.01	-0.750			
0.1196	7651.47	3.9740	3.9738	-0.7594	25.37	-0.01	-0.750			
0.1217	7791.03	3.9710	3.9709	-0.7564	25.38	-0.00	-0.750			
0.1240	7934.18	3.9680	3.9680	-0.7704	25.38	0.00	-0.750			
0.1263	8083.11	3.9650	3.9650	-0.7749	25.39	0.01	-0.750			
0.1287	8233.93	3.9620	3.9619	-0.7825	25.39	0.01	-0.750			
0.1310	8382.49	3.9590	3.9592	-0.7929	25.39	0.01	-0.750			
0.1334	8536.85	3.9560	3.9560	-0.8130	25.39	0.01	-0.750			
0.1359	8699.42	3.9530	3.9528	-0.8094	25.39	0.01	-0.750			
0.1384	8856.88	3.9500	3.9497	-0.8046	25.39	0.01	-0.750			
0.1408	9011.98	3.9470	3.9471	-0.8048	25.39	0.01	-0.750			
0.1432	9166.86	3.9440	3.9436	-0.7935	25.39	0.01	-0.750			
0.1455	9313.19	3.9410	3.9410	-0.7948	25.40	0.02	-0.750			
0.1479	9465.41	3.9380	3.9380	-0.7810	25.40	0.02	-0.750			
0.1503	9617.54	3.9350	3.9349	-0.7960	25.40	0.02	-0.750			
0.1526	9769.19	3.9320	3.9317	-0.7932	25.41	0.03	-0.750			
0.1550	9919.21	3.9290	3.9288	-0.7912	25.41	0.03	-0.750			
0.1573	10069.28	3.9260	3.9259	-0.7887	25.42	0.04	-0.750			
0.1597	10219.74	3.9230	3.9230	-0.7905	25.42	0.04	-0.750			
0.1621	10374.29	3.9200	3.9201	-0.8026	25.42	0.04	-0.750			
0.1645	10530.28	3.9170	3.9167	-0.8006	25.43	0.05	-0.750			
0.1669	10680.80	3.9140	3.9142	-0.7953	25.43	0.05	-0.750			
0.1693	10833.63	3.9110	3.9111	-0.7935	25.43	0.05	-0.750			
0.1716	10984.47	3.9080	3.9079	-0.8023	25.44	0.06	-0.750			
0.1741	11141.60	3.9050	3.9050	-0.8022	25.44	0.06	-0.750			
0.1765	11295.99	3.9020	3.9018	-0.7967	25.45	0.07	-0.750			
0.1789	11449.26	3.8990	3.8987	-0.7908	25.45	0.07	-0.750			
0.1813	11600.99	3.8960	3.8961	-0.7906	25.45	0.07	-0.750			
0.1836	11750.76	3.8930	3.8929	-0.7993	25.45	0.07	-0.750			
0.1860	11906.95	3.8900	3.8898	-0.7921	25.46	0.08	-0.750			
0.1884	12059.52	3.8870	3.8868	-0.7925	25.46	0.08	-0.750			
0.1908	12213.24	3.8840	3.8838	-0.7871	25.46	0.08	-0.750			
0.1932	12366.66	3.8810	3.8808	-0.7828	25.46	0.08	-0.750			
0.1955	12514.73	3.8780	3.8778	-0.7691	25.47	0.09	-0.750			
0.1977	12654.62	3.8750	3.8747	-0.7624	25.47	0.09	-0.750			
0.2001	12804.02	3.8720	3.8718	-0.7677	25.47	0.09	-0.750			
0.2024	12951.82	3.8690	3.8689	-0.7623	25.48	0.10	-0.750			
0.2047	13097.86	3.8660	3.8661	-0.7593	25.48	0.10	-0.750			
0.2069	13241.76	3.8630	3.8630	-0.7600	25.49	0.11	-0.750			
0.2092	13388.51	3.8600	3.8599	-0.7738	25.49	0.11	-0.750			
0.2115	13537.07	3.8570	3.8570	-0.7656	25.50	0.12	-0.750			
0.2138	13686.08	3.8540	3.8538	-0.7645	25.50	0.12	-0.750			
0.2162	13833.81	3.8510	3.8509	-0.7589	25.51	0.13	-0.750			
0.2184	13978.92	3.8480	3.8478	-0.7582	25.51	0.13	-0.750			
0.2207	14121.81	3.8450	3.8451	-0.7649	25.51	0.13	-0.750			
0.2230	14269.05	3.8420	3.8418	-0.7537	25.51	0.13	-0.750			
0.2253	14417.71	3.8390	3.8388	-0.7563	25.51	0.13	-0.750			
0.2276	14563.61	3.8360	3.8357	-0.7525	25.51	0.13	-0.750			
0.2298	14706.82	3.8330	3.8329	-0.7496	25.51	0.13	-0.750			
0.2320	14848.79	3.8300	3.8299	-0.7398	25.51	0.13	-0.750			
0.2341	14983.30	3.8270	3.8269	-0.7299	25.52	0.14	-0.750			
0.2364	15127.62	3.8240	3.8240	-0.7497	25.52	0.14	-0.750			
0.2386	15269.50	3.8210	3.8210	-0.7588	25.53	0.15	-0.750			
0.2409	15414.55	3.8180	3.8181	-0.7587	25.53	0.15	-0.750			
0.2432	15563.34	3.8150	3.8148	-0.7561	25.53	0.15	-0.750			
0.2454	15706.67	3.8120	3.8120	-0.7670	25.53	0.15	-0.750			
0.2477	15855.93	3.8090	3.8090	-0.7597	25.53	0.15	-0.750			
0.2500	16000.57	3.8060	3.8059	-0.7617	25.54	0.16	-0.750			
0.2523	16148.56	3.8030	3.8028	-0.7564	25.54	0.16	-0.750			
0.2546	16291.23	3.8000	3.7998	-0.7550	25.54	0.16	-0.750			
0.2568	16436.97	3.7970	3.7970	-0.7640	25.54	0.16	-0.750			
0.2591	16583.67	3.7940	3.7938	-0.7785	25.54	0.16	-0.750			
0.2615	16734.24	3.7910	3.7909	-0.7705	25.55	0.17	-0.750			
0.2639	16886.59	3.7880	3.7880	-0.7831	25.55	0.17	-0.750			
0.2662	17035.95	3.7850	3.7853	-0.7867	25.55	0.17	-0.750			
0.2686	17188.58	3.7820	3.7820	-0.7952	25.55	0.17	-0.750			
0.2709	17339.35	3.7790	3.7787	-0.7883	25.55	0.17	-0.750			
0.2733	17489.90	3.7760	3.7761	-0.7872	25.55	0.17	-0.750			
0.2757	17642.50	3.7730	3.7729	-0.7931	25.55	0.17	-0.750			
0.2780	17794.94	3.7700	3.7699	-0.7991	25.55	0.17	-0.750			
0.2805	17948.85	3.7670	3.7668	-0.7998	25.55	0.17	-0.750			
0.2828	18096.12	3.7640	3.7641	-0.8094	25.55	0.17	-0.750			
0.2852	18252.74	3.7610	3.7610	-0.8179	25.55	0.17	-0.750			
0.2878	18416.56	3.7580	3.7579	-0.8272	25.55	0.17	-0.750			
0.2902	18575.78	3.7550	3.7549	-0.8369	25.55	0.17	-0.750			
0.2928	18737.69	3.7520	3.7518	-0.8433	25.55	0.17	-0.750			
0.2953	18900.64	3.7490	3.7489	-0.8565	25.55	0.17	-0.750			
0.2979	19067.10	3.7460	3.7455	-0.8606	25.55	0.17	-0.750			
0.3005	19231.71	3.7430	3.7428	-0.8536	25.55	0.17	-0.750			
0.3031	19399.29	3.7400	3.7403	-0.8676	25.55	0.17	-0.750			
0.3057	19564.77	3.7370	3.7368	-0.8743	25.55	0.17	-0.750			
0.3083	19729.86	3.7340	3.7338	-0.8761	25.55	0.17	-0.750			
0.3110	19901.96	3.7310	3.7309	-0.8831	25.54	0.16	-0.750			
0.3136	20068.43	3.7280	3.7280	-0.8837	25.54	0.16	-0.750			
0.3163	20246.12	3.7250	3.7254	-0.9011	25.54	0.16	-0.750			
0.3191	20419.63	3.7220	3.7218	-0.9217	25.54	0.16	-0.750			
0.3218	20595.80	3.7190	3.7188	-0.9239	25.54	0.16	-0.750			
0.3246	20774.53	3.7160	3.7159	-0.9307	25.53	0.15	-0.750			
0.3274	20956.12	3.7130	3.7129	-0.9549	25.53	0.15	-0.750			
0.3303	21139.50	3.7100	3.7098	-0.9589	25.53	0.15	-0.750			
0.3333	21329.92	3.7070	3.7066	-0.9916	25.53	0.15	-0.750			
0.3363	21524.78	3.7040	3.7038	-0.9893	25.52	0.14	-0.750			
0.3393	21713.90	3.7010	3.7008	-0.9775	25.52	0.14	-0.750			
0.3424	21911.29	3.6980	3.6990	-0.9983	25.52	0.14	-0.750	0.396	0.550	
0.3453	22099.02	3.6950	3.6946	-1.0047	25.52	0.14	-0.750			
0.3482	22285.59	3.6920	3.6916	-1.0073	25.51	0.13	-0.750			
0.3511	22469.27	3.6890	3.6890	-1.0026	25.51	0.13	-0.750			
0.3542	22669.48	3.6860	3.6864	-1.0545	25.51	0.13	-0.750			
0.3576	22889.31	3.6830	3.6829	-1.0912	25.50	0.12	-0.750			
0.3610	23102.14	3.6800	3.6797	-1.0924	25.50	0.12	-0.750			
0.3642	23309.51	3.6770	3.6768	-1.1008	25.49	0.11	-0.750			
0.3676	23523.98	3.6740	3.6738	-1.1396	25.49	0.11	-0.750			
0.3711	23747.38	3.6710	3.6706	-1.1479	25.48	0.10	-0.750			
0.3745	23967.99	3.6680	3.6678	-1.1522	25.48	0.10	-0.750			
0.3779	24183.31	3.6650	3.6655	-1.1535	25.47	0.09	-0.750			
0.3815	24418.05	3.6620	3.6618	-1.1900	25.47	0.09	-0.750			
0.3851	24644.98	3.6590	3.6589	-1.2006	25.47	0.09	-0.750			
0.3886	24872.33	3.6560	3.6559	-1.2062	25.47	0.09	-0.750			
0.3924	25113.58	3.6530	3.6531	-1.2673	25.47	0.09	-0.750			
0.3963	25360.62	3.6500	3.6498	-1.2799	25.46	0.08	-0.750			
0.4002	25611.23	3.6470	3.6467	-1.2952	25.46	0.08	-0.750			
0.4041	25863.22	3.6440	3.6448	-1.3168	25.45	0.07	-0.750			
0.4081	26117.79	3.6410	3.6406	-1.3300	25.44	0.06	-0.750			
0.4121	26371.82	3.6380	3.6378	-1.3411	25.44	0.06	-0.750			
0.4160	26621.10	3.6350	3.6349	-1.3778	25.43	0.05	-0.750			
0.4202	26892.31	3.6320	3.6319	-1.4142	25.43	0.05	-0.750			
0.4245	27165.63	3.6290	3.6289	-1.4724	25.42	0.04	-0.750			
0.4290	27458.65	3.6260	3.6260	-1.4732	25.42	0.04	-0.750			
0.4337	27755.41	3.6230	3.6227	-1.5215	25.41	0.03	-0.750			
0.4383	28052.28	3.6200	3.6196	-1.5431	25.41	0.03	-0.750			
0.4430	28351.45	3.6170	3.6166	-1.5645	25.40	0.02	-0.750			
0.4477	28652.20	3.6140	3.6143	-1.5876	25.39	0.01	-0.750			
0.4526	28964.85	3.6110	3.6117	-1.6122	25.38	0.00	-0.750			
0.4574	29273.59	3.6080	3.6083	-1.6422	25.38	-0.00	-0.750			
0.4625	29597.85	3.6050	3.6058	-1.6679	25.37	-0.01	-0.750			
0.4674	29911.08	3.6020	3.6019	-1.6904	25.37	-0.01	-0.750			
0.4725	30240.56	3.5990	3.5993	-1.7111	25.37	-0.01	-0.750			
0.4776	30568.80	3.5960	3.5959	-1.7546	25.37	-0.01	-0.750			
0.4831	30915.66	3.5930	3.5921	-1.7713	25.37	-0.01	-0.750			
0.4883	31254.37	3.5900	3.5894	-1.7988	25.36	-0.02	-0.750			
0.4939	31609.62	3.5870	3.5867	-1.8339	25.36	-0.02	-0.750			
0.4994	31960.56	3.5840	3.5839	-1.9244	25.36	-0.02	-0.750			
0.5051	32326.50	3.5810	3.5807	-1.9149	25.36	-0.02	-0.750			
0.5109	32695.11	3.5780	3.5778	-1.9833	25.35	-0.03	-0.750			
0.5169	33081.51	3.5750	3.5753	-1.9831	25.35	-0.03	-0.750			
0.5228	33461.51	3.5720	3.5715	-1.9921	25.36	-0.02	-0.750			
0.5286	33830.55	3.5690	3.5694	-1.9562	25.37	-0.01	-0.750			
0.5346	34214.10	3.5660	3.5661	-1.9672	25.37	-0.01	-0.750			
0.5404	34583.06	3.5630	3.5624	-1.9831	25.37	-0.01	-0.750			
0.5463	34962.97	3.5600	3.5608	-2.0551	25.37	-0.01	-0.750			
0.5526	35365.19	3.5570	3.5566	-2.0261	25.37	-0.01	-0.750			
0.5587	35758.12	3.5540	3.5542	-2.0421	25.37	-0.01	-0.750			
0.5647	36142.98	3.5510	3.5506	-2.0059	25.36	-0.02	-0.750			
0.5705	36513.82	3.5480	3.5481	-1.9374	25.36	-0.02	-0.750			
0.5762	36879.16	3.5450	3.5454	-1.9320	25.37	-0.01	-0.750			
0.5822	37260.98	3.5420	3.5415	-1.9732	25.37	-0.01	-0.750			
0.5880	37630.53	3.5390	3.5386	-1.9251	25.38	-0.00	-0.750			
0.5937	37997.13	3.5360	3.5356	-1.9049	25.38	0.00	-0.750			
0.5995	38366.36	3.5330	3.5333	-1.8530	25.39	0.01	-0.750			
0.6049	38711.08	3.5300	3.5295	-1.8318	25.39	0.01	-0.750			
0.6102	39049.78	3.5270	3.5268	-1.8028	25.40	0.02	-0.750			
0.6158	39409.91	3.5240	3.5245	-1.7735	25.42	0.04	-0.750			
0.6210	39746.78	3.5210	3.5210	-1.7247	25.43	0.05	-0.750			
0.6262	40079.43	3.5180	3.5187	-1.6918	25.44	0.06	-0.750			
0.6313	40401.46	3.5150	3.5150	-1.6563	25.46	0.08	-0.750			
0.6363	40723.92	3.5120	3.5124	-1.5985	25.47	0.09	-0.750			
0.6410	41022.41	3.5090	3.5094	-1.5362	25.48	0.10	-0.750			
0.6457	41324.81	3.5060	3.5055	-1.5135	25.49	0.11	-0.750			
0.6498	41587.85	3.5030	3.5027	-1.4608	25.51	0.13	-0.750			
0.6544	41884.19	3.5000	3.4999	-1.4451	25.52	0.14	-0.750			
0.6588	42160.52	3.4970	3.4966	-1.4162	25.54	0.16	-0.750			
0.6628	42417.52	3.4940	3.4937	-1.3665	25.55	0.17	-0.750			
0.6670	42689.55	3.4910	3.4910	-1.3321	25.56	0.18	-0.750			
0.6711	42947.59	3.4880	3.4873	-1.2755	25.58	0.20	-0.750			
0.6748	43184.05	3.4850	3.4845	-1.1974	25.59	0.21	-0.750			
0.6781	43398.34	3.4820	3.4823	-1.2054	25.61	0.23	-0.750			
0.6815	43615.69	3.4790	3.4789	-0.9771	25.62	0.24	-0.750			
