Ah_balance (normalized)	Ah_balance (mAh)	Voltage - fit (V)	Voltage -  interpolate (V)	dQ/dV (1/V)	Temperature (°C)	Temperature - diff (°C)	Current (C)	R_DC 0ms (mOhm)	R_DC 50ms (mOhm)	R_DC 50 ms PEC (mOhm)
0.0001	6.84	4.1610	4.1610	-0.0661	25.36	0.01	-0.750			
0.0004	27.62	4.1580	4.1577	-0.1323	25.35	0.00	-0.750			
0.0009	57.89	4.1550	4.1549	-0.1740	25.35	0.00	-0.750			
0.0015	95.19	4.1520	4.1518	-0.2128	25.35	0.00	-0.750			
0.0022	139.01	4.1490	4.1493	-0.2547	25.35	-0.00	-0.750			
0.0030	192.23	4.1460	4.1460	-0.2943	25.35	-0.00	-0.750			
0.0040	253.56	4.1430	4.1429	-0.3306	25.34	-0.01	-0.750			
0.0050	320.95	4.1400	4.1400	-0.3674	25.34	-0.01	-0.750			
0.0062	395.23	4.1370	4.1372	-0.3956	25.34	-0.01	-0.750			
0.0074	475.36	4.1340	4.1340	-0.4336	25.33	-0.02	-0.750			
0.0088	560.52	4.1310	4.1310	-0.4686	25.33	-0.02	-0.750			
0.0102	653.41	4.1280	4.1280	-0.4945	25.32	-0.03	-0.750			
0.0118	753.21	4.1250	4.1249	-0.5220	25.32	-0.03	-0.750			
0.0134	858.73	4.1220	4.1221	-0.5480	25.31	-0.04	-0.750			
0.0151	966.14	4.1190	4.1191	-0.5668	25.31	-0.04	-0.750			
0.0169	1079.52	4.1160	4.1159	-0.5864	25.30	-0.05	-0.750			
0.0186	1192.18	4.1130	4.1130	-0.5911	25.30	-0.05	-0.750			
0.0204	1305.78	4.1100	4.1100	-0.6045	25.30	-0.05	-0.750			
0.0222	1423.98	4.1070	4.1071	-0.6222	25.29	-0.06	-0.750			
0.0241	1544.98	4.1040	4.1039	-0.6351	25.29	-0.06	-0.750			
0.0261	1667.60	4.1010	4.1009	-0.6470	25.28	-0.07	-0.750			
0.0280	1793.15	4.0980	4.0979	-0.6597	25.28	-0.07	-0.750			
0.0300	1922.68	4.0950	4.0950	-0.6663	25.28	-0.07	-0.750			
0.0321	2052.66	4.0920	4.0921	-0.6824	25.28	-0.07	-0.750			
0.0341	2184.99	4.0890	4.0889	-0.6799	25.27	-0.08	-0.750			
0.0362	2317.03	4.0860	4.0859	-0.6831	25.27	-0.08	-0.750			
0.0383	2448.03	4.0830	4.0827	-0.6826	25.27	-0.08	-0.750			
0.0403	2577.63	4.0800	4.0799	-0.6873	25.27	-0.08	-0.750			
0.0423	2709.59	4.0770	4.0769	-0.6912	25.27	-0.08	-0.750			
0.0444	2841.62	4.0740	4.0740	-0.7033	25.27	-0.08	-0.750			
0.0465	2977.47	4.0710	4.0710	-0.7247	25.27	-0.08	-0.750			
0.0487	3117.79	4.0680	4.0680	-0.7290	25.27	-0.08	-0.750			
0.0509	3260.30	4.0650	4.0648	-0.7266	25.27	-0.08	-0.750			
0.0532	3401.87	4.0620	4.0621	-0.7285	25.27	-0.08	-0.750			
0.0553	3540.15	4.0590	4.0591	-0.7245	25.27	-0.08	-0.750			
0.0575	3677.89	4.0560	4.0559	-0.7311	25.27	-0.08	-0.750			
0.0596	3816.97	4.0530	4.0529	-0.7253	25.27	-0.08	-0.750			
0.0618	3955.88	4.0500	4.0499	-0.7295	25.27	-0.08	-0.750			
0.0640	4097.66	4.0470	4.0473	-0.7390	25.27	-0.08	-0.750			
0.0663	4240.75	4.0440	4.0439	-0.7396	25.27	-0.08	-0.750			
0.0685	4383.24	4.0410	4.0408	-0.7376	25.27	-0.08	-0.750			
0.0707	4527.52	4.0380	4.0381	-0.7455	25.28	-0.07	-0.750			
0.0730	4669.10	4.0350	4.0350	-0.7433	25.28	-0.07	-0.750			
0.0753	4817.02	4.0320	4.0318	-0.7496	25.28	-0.07	-0.750			
0.0775	4959.63	4.0290	4.0289	-0.7417	25.28	-0.07	-0.750			
0.0797	5099.09	4.0260	4.0259	-0.7420	25.28	-0.07	-0.750			
0.0819	5241.39	4.0230	4.0231	-0.7518	25.28	-0.07	-0.750			
0.0841	5382.58	4.0200	4.0199	-0.7436	25.28	-0.07	-0.750			
0.0864	5532.01	4.0170	4.0169	-0.7635	25.28	-0.07	-0.750			
0.0887	5678.03	4.0140	4.0141	-0.7653	25.28	-0.07	-0.750			
0.0911	5827.24	4.0110	4.0108	-0.7617	25.28	-0.07	-0.750			
0.0934	5975.43	4.0080	4.0079	-0.7579	25.29	-0.06	-0.750			
0.0956	6119.54	4.0050	4.0051	-0.7601	25.29	-0.06	-0.750			
0.0979	6262.87	4.0020	4.0020	-0.7571	25.29	-0.06	-0.750			
0.1001	6408.93	3.9990	3.9988	-0.7738	25.30	-0.05	-0.750			
0.1024	6555.65	3.9960	3.9963	-0.7825	25.30	-0.05	-0.750			
0.1048	6706.12	3.9930	3.9928	-0.7947	25.30	-0.05	-0.750			
0.1072	6863.20	3.9900	3.9898	-0.8110	25.30	-0.05	-0.750			
0.1097	7022.36	3.9870	3.9872	-0.8030	25.31	-0.04	-0.750			
0.1122	7182.67	3.9840	3.9840	-0.8039	25.31	-0.04	-0.750			
0.1146	7336.91	3.9810	3.9813	-0.7981	25.31	-0.04	-0.750			
0.1170	7486.94	3.9780	3.9779	-0.7821	25.31	-0.04	-0.750			
0.1192	7630.86	3.9750	3.9749	-0.7762	25.31	-0.04	-0.750			
0.1216	7779.80	3.9720	3.9720	-0.7748	25.32	-0.03	-0.750			
0.1239	7929.75	3.9690	3.9690	-0.7807	25.32	-0.03	-0.750			
0.1262	8079.46	3.9660	3.9660	-0.7835	25.32	-0.03	-0.750			
0.1286	8231.29	3.9630	3.9630	-0.7871	25.32	-0.03	-0.750			
0.1309	8379.95	3.9600	3.9600	-0.7943	25.32	-0.03	-0.750			
0.1333	8533.81	3.9570	3.9570	-0.7931	25.33	-0.02	-0.750			
0.1357	8686.59	3.9540	3.9540	-0.7907	25.33	-0.02	-0.750			
0.1381	8840.50	3.9510	3.9509	-0.7981	25.33	-0.02	-0.750			
0.1405	8993.04	3.9480	3.9479	-0.7949	25.33	-0.02	-0.750			
0.1428	9142.23	3.9450	3.9450	-0.8015	25.34	-0.01	-0.750			
0.1453	9299.13	3.9420	3.9420	-0.7976	25.34	-0.01	-0.750			
0.1477	9452.49	3.9390	3.9390	-0.7902	25.35	-0.00	-0.750			
0.1501	9606.52	3.9360	3.9359	-0.7929	25.36	0.01	-0.750			
0.1525	9758.06	3.9330	3.9332	-0.7895	25.36	0.01	-0.750			
0.1548	9906.46	3.9300	3.9300	-0.7881	25.36	0.01	-0.750			
0.1571	10055.88	3.9270	3.9268	-0.7871	25.36	0.01	-0.750			
0.1594	10204.12	3.9240	3.9241	-0.7869	25.37	0.02	-0.750			
0.1619	10361.15	3.9210	3.9210	-0.8019	25.37	0.02	-0.750			
0.1644	10522.03	3.9180	3.9179	-0.7861	25.37	0.02	-0.750			
0.1667	10671.53	3.9150	3.9149	-0.7575	25.37	0.02	-0.750			
0.1690	10812.97	3.9120	3.9123	-0.7384	25.37	0.02	-0.750			
0.1711	10949.34	3.9090	3.9093	-0.7346	25.38	0.03	-0.750			
0.1732	11086.59	3.9060	3.9055	-0.7341	25.38	0.03	-0.750			
0.1753	11222.21	3.9030	3.9030	-0.7378	25.38	0.03	-0.750			
0.1776	11364.45	3.9000	3.9002	-0.7573	25.38	0.03	-0.750			
0.1800	11517.33	3.8970	3.8969	-0.7914	25.38	0.03	-0.750			
0.1824	11672.43	3.8940	3.8938	-0.7913	25.39	0.04	-0.750			
0.1847	11823.38	3.8910	3.8911	-0.7869	25.39	0.04	-0.750			
0.1872	11979.00	3.8880	3.8879	-0.7931	25.40	0.05	-0.750			
0.1895	12129.84	3.8850	3.8860	-0.7903	25.40	0.05	-0.750			
0.1919	12280.21	3.8820	3.8819	-0.7860	25.41	0.06	-0.750			
0.1942	12428.39	3.8790	3.8789	-0.7833	25.41	0.06	-0.750			
0.1965	12579.03	3.8760	3.8760	-0.7854	25.42	0.07	-0.750			
0.1990	12733.77	3.8730	3.8729	-0.7775	25.42	0.07	-0.750			
0.2013	12884.15	3.8700	3.8700	-0.7695	25.43	0.08	-0.750			
0.2036	13027.99	3.8670	3.8670	-0.7651	25.43	0.08	-0.750			
0.2058	13170.31	3.8640	3.8637	-0.7549	25.44	0.09	-0.750			
0.2081	13317.82	3.8610	3.8609	-0.7612	25.44	0.09	-0.750			
0.2104	13463.15	3.8580	3.8579	-0.7543	25.44	0.09	-0.750			
0.2127	13611.92	3.8550	3.8551	-0.7619	25.45	0.10	-0.750			
0.2150	13759.39	3.8520	3.8523	-0.7658	25.45	0.10	-0.750			
0.2173	13904.41	3.8490	3.8488	-0.7578	25.45	0.10	-0.750			
0.2195	14048.31	3.8460	3.8459	-0.7618	25.46	0.11	-0.750			
0.2218	14193.03	3.8430	3.8430	-0.7549	25.46	0.11	-0.750			
0.2241	14344.28	3.8400	3.8399	-0.7583	25.47	0.12	-0.750			
0.2264	14490.73	3.8370	3.8373	-0.7589	25.47	0.12	-0.750			
0.2286	14633.37	3.8340	3.8340	-0.7489	25.47	0.12	-0.750			
0.2308	14773.13	3.8310	3.8309	-0.7438	25.48	0.13	-0.750			
0.2331	14916.39	3.8280	3.8280	-0.7453	25.48	0.13	-0.750			
0.2353	15056.10	3.8250	3.8251	-0.7397	25.48	0.13	-0.750			
0.2376	15204.56	3.8220	3.8218	-0.7504	25.49	0.14	-0.750			
0.2398	15349.90	3.8190	3.8193	-0.7544	25.49	0.14	-0.750			
0.2421	15493.41	3.8160	3.8160	-0.7496	25.49	0.14	-0.750			
0.2443	15637.20	3.8130	3.8129	-0.7555	25.50	0.15	-0.750			
0.2466	15784.33	3.8100	3.8101	-0.7526	25.50	0.15	-0.750			
0.2489	15928.35	3.8070	3.8069	-0.7513	25.51	0.16	-0.750			
0.2511	16072.57	3.8040	3.8039	-0.7503	25.51	0.16	-0.750			
0.2534	16215.24	3.8010	3.8009	-0.7535	25.51	0.16	-0.750			
0.2556	16356.40	3.7980	3.7979	-0.7688	25.52	0.17	-0.750			
0.2579	16506.00	3.7950	3.7949	-0.7645	25.52	0.17	-0.750			
0.2602	16651.42	3.7920	3.7920	-0.7695	25.52	0.17	-0.750			
0.2626	16806.13	3.7890	3.7889	-0.7782	25.53	0.18	-0.750			
0.2649	16955.10	3.7860	3.7857	-0.7728	25.53	0.18	-0.750			
0.2672	17102.50	3.7830	3.7830	-0.7700	25.53	0.18	-0.750			
0.2695	17247.32	3.7800	3.7799	-0.7773	25.53	0.18	-0.750			
0.2718	17393.70	3.7770	3.7771	-0.7784	25.53	0.18	-0.750			
0.2742	17550.44	3.7740	3.7738	-0.7892	25.53	0.18	-0.750			
0.2766	17700.69	3.7710	3.7712	-0.7907	25.53	0.18	-0.750			
0.2790	17853.76	3.7680	3.7680	-0.7966	25.53	0.18	-0.750			
0.2813	18006.01	3.7650	3.7650	-0.8081	25.53	0.18	-0.750			
0.2838	18161.91	3.7620	3.7619	-0.8118	25.53	0.18	-0.750			
0.2862	18316.80	3.7590	3.7588	-0.8101	25.53	0.18	-0.750			
0.2887	18476.97	3.7560	3.7562	-0.8201	25.53	0.18	-0.750			
0.2911	18632.71	3.7530	3.7530	-0.8325	25.53	0.18	-0.750			
0.2937	18794.05	3.7500	3.7500	-0.8427	25.53	0.18	-0.750			
0.2962	18958.74	3.7470	3.7468	-0.8450	25.54	0.19	-0.750			
0.2987	19119.68	3.7440	3.7438	-0.8428	25.54	0.19	-0.750			
0.3014	19286.82	3.7410	3.7414	-0.8536	25.54	0.19	-0.750			
0.3039	19450.25	3.7380	3.7379	-0.8518	25.54	0.19	-0.750			
0.3064	19610.54	3.7350	3.7349	-0.8650	25.54	0.19	-0.750			
0.3090	19773.57	3.7320	3.7319	-0.8744	25.54	0.19	-0.750			
0.3116	19941.00	3.7290	3.7290	-0.8854	25.54	0.19	-0.750			
0.3143	20117.77	3.7260	3.7264	-0.9088	25.54	0.19	-0.750			
0.3171	20293.29	3.7230	3.7228	-0.9282	25.54	0.19	-0.750			
0.3199	20475.38	3.7200	3.7198	-0.9272	25.54	0.19	-0.750			
0.3227	20653.91	3.7170	3.7167	-0.9271	25.53	0.18	-0.750			
0.3255	20832.84	3.7140	3.7138	-0.9354	25.53	0.18	-0.750			
0.3283	21011.75	3.7110	3.7109	-0.9437	25.53	0.18	-0.750			
0.3311	21188.48	3.7080	3.7079	-0.9786	25.53	0.18	-0.750			
0.3341	21381.28	3.7050	3.7049	-0.9865	25.52	0.17	-0.750			
0.3371	21572.89	3.7020	3.7018	-0.9833	25.52	0.17	-0.750			
0.3401	21767.47	3.6990	3.6986	-0.9958	25.52	0.17	-0.750			
0.3431	21961.03	3.6960	3.6958	-1.0125	25.52	0.17	-0.750	0.388	0.552	
0.3461	22151.74	3.6930	3.6928	-1.0259	25.51	0.16	-0.750			
0.3491	22343.10	3.6900	3.6899	-1.0159	25.51	0.16	-0.750			
0.3522	22542.01	3.6870	3.6874	-1.0461	25.51	0.16	-0.750			
0.3555	22753.23	3.6840	3.6840	-1.0794	25.51	0.16	-0.750			
0.3588	22962.86	3.6810	3.6810	-1.0877	25.50	0.15	-0.750			
0.3620	23168.44	3.6780	3.6777	-1.1016	25.50	0.15	-0.750			
0.3654	23384.45	3.6750	3.6747	-1.1411	25.50	0.15	-0.750			
0.3689	23607.35	3.6720	3.6717	-1.1474	25.49	0.14	-0.750			
0.3724	23836.20	3.6690	3.6686	-1.1537	25.48	0.13	-0.750			
0.3758	24052.57	3.6660	3.6662	-1.1503	25.47	0.12	-0.750			
0.3792	24270.72	3.6630	3.6628	-1.1862	25.47	0.12	-0.750			
0.3829	24502.83	3.6600	3.6597	-1.1967	25.46	0.11	-0.750			
0.3864	24731.60	3.6570	3.6567	-1.2044	25.45	0.10	-0.750			
0.3901	24966.52	3.6540	3.6539	-1.2687	25.45	0.10	-0.750			
0.3940	25218.00	3.6510	3.6505	-1.2686	25.44	0.09	-0.750			
0.3979	25467.12	3.6480	3.6476	-1.2877	25.44	0.09	-0.750			
0.4018	25716.06	3.6450	3.6452	-1.3168	25.43	0.08	-0.750			
0.4057	25967.85	3.6420	3.6416	-1.3147	25.42	0.07	-0.750			
0.4098	26225.66	3.6390	3.6386	-1.3295	25.42	0.07	-0.750			
0.4138	26484.31	3.6360	3.6368	-1.3535	25.41	0.06	-0.750			
0.4179	26742.53	3.6330	3.6326	-1.3625	25.40	0.05	-0.750			
0.4220	27005.98	3.6300	3.6298	-1.4412	25.40	0.05	-0.750			
0.4262	27278.31	3.6270	3.6268	-1.4483	25.39	0.04	-0.750			
0.4309	27576.44	3.6240	3.6236	-1.4846	25.39	0.04	-0.750			
0.4355	27871.75	3.6210	3.6211	-1.5436	25.38	0.03	-0.750			
0.4402	28175.27	3.6180	3.6179	-1.5640	25.38	0.03	-0.750			
0.4450	28477.04	3.6150	3.6147	-1.5737	25.38	0.03	-0.750			
0.4497	28779.22	3.6120	3.6121	-1.5644	25.37	0.02	-0.750			
0.4544	29081.74	3.6090	3.6094	-1.6060	25.37	0.02	-0.750			
0.4594	29400.11	3.6060	3.6066	-1.6735	25.37	0.02	-0.750			
0.4644	29721.31	3.6030	3.6025	-1.7086	25.37	0.02	-0.750			
0.4693	30037.23	3.6000	3.6000	-1.7607	25.36	0.01	-0.750			
0.4749	30391.12	3.5970	3.5971	-1.7713	25.35	0.00	-0.750			
0.4803	30737.92	3.5940	3.5938	-1.7765	25.35	0.00	-0.750			
0.4856	31079.21	3.5910	3.5913	-1.7865	25.35	0.00	-0.750			
0.4908	31411.54	3.5880	3.5877	-1.8200	25.35	0.00	-0.750			
0.4964	31768.40	3.5850	3.5847	-1.8331	25.35	0.00	-0.750			
0.5019	32122.91	3.5820	3.5823	-1.8676	25.35	0.00	-0.750			
0.5075	32479.10	3.5790	3.5795	-1.9392	25.35	0.00	-0.750			
0.5135	32864.23	3.5760	3.5756	-1.9300	25.35	0.00	-0.750			
0.5191	33225.53	3.5730	3.5732	-1.9174	25.35	-0.00	-0.750			
0.5249	33595.11	3.5700	3.5702	-1.9587	25.34	-0.01	-0.750			
0.5309	33976.22	3.5670	3.5670	-2.0125	25.34	-0.01	-0.750			
0.5368	34354.35	3.5640	3.5633	-2.0032	25.34	-0.01	-0.750			
0.5428	34741.74	3.5610	3.5605	-1.9976	25.34	-0.01	-0.750			
0.5492	35147.89	3.5580	3.5583	-2.0430	25.34	-0.01	-0.750			
0.5553	35538.83	3.5550	3.5545	-2.0275	25.34	-0.01	-0.750			
0.5613	35926.13	3.5520	3.5519	-1.9616	25.35	-0.00	-0.750			
0.5672	36298.65	3.5490	3.5491	-1.9586	25.35	0.00	-0.750			
0.5729	36666.91	3.5460	3.5457	-1.9177	25.36	0.01	-0.750			
0.5785	37026.23	3.5430	3.5425	-1.8884	25.36	0.01	-0.750			
0.5841	37385.46	3.5400	3.5395	-1.9340	25.37	0.02	-0.750			
0.5899	37755.29	3.5370	3.5368	-1.9465	25.37	0.02	-0.750			
0.5958	38130.27	3.5340	3.5343	-1.8701	25.38	0.03	-0.750			
0.6015	38494.09	3.5310	3.5314	-1.8082	25.38	0.03	-0.750			
0.6071	38854.05	3.5280	3.5270	-1.8253	25.39	0.04	-0.750			
0.6122	39180.24	3.5250	3.5250	-1.7416	25.40	0.05	-0.750			
0.6173	39508.31	3.5220	3.5214	-1.7355	25.42	0.07	-0.750			
0.6224	39836.66	3.5190	3.5191	-1.7200	25.43	0.08	-0.750			
0.6275	40163.16	3.5160	3.5158	-1.7026	25.44	0.09	-0.750			
0.6327	40495.42	3.5130	3.5131	-1.6596	25.45	0.10	-0.750			
0.6376	40807.87	3.5100	3.5098	-1.5712	25.47	0.12	-0.750			
0.6424	41111.10	3.5070	3.5075	-1.5409	25.48	0.13	-0.750			
0.6470	41407.07	3.5040	3.5046	-1.4631	25.49	0.14	-0.750			
0.6513	41685.84	3.5010	3.5008	-1.4076	25.51	0.16	-0.750			
0.6555	41953.30	3.4980	3.4984	-1.3575	25.52	0.17	-0.750			
0.6595	42210.93	3.4950	3.4945	-1.3300	25.53	0.18	-0.750			
0.6635	42466.67	3.4920	3.4918	-1.3178	25.55	0.20	-0.750			
0.6673	42704.89	3.4890	3.4888	-1.2634	25.56	0.21	-0.750			
0.6710	42946.92	3.4860	3.4859	-1.2466	25.58	0.23	-0.750			
0.6747	43179.51	3.4830	3.4830	-1.2277	25.59	0.24	-0.750			
0.6784	43415.61	3.4800	3.4798	-1.2007	25.61	0.26	-0.750			
0.6818	43636.67	3.4770	3.4770	-1.0622	25.62	0.27	-0.750			
