Ah_balance (normalized)	Ah_balance (mAh)	Voltage - fit (V)	Voltage -  interpolate (V)	dQ/dV (1/V)	Temperature (°C)	Temperature - diff (°C)	Current (C)	R_DC 0ms (mOhm)	R_DC 50ms (mOhm)	R_DC 50 ms PEC (mOhm)
0.0003	21.86	4.1630	4.1628	-0.1225	24.86	0.00	-0.750			
0.0008	52.11	4.1600	4.1598	-0.1756	24.86	0.00	-0.750			
0.0014	89.66	4.1570	4.1570	-0.2184	24.86	0.00	-0.750			
0.0021	135.75	4.1540	4.1541	-0.2623	24.86	0.00	-0.750			
0.0030	189.92	4.1510	4.1510	-0.3074	24.86	-0.00	-0.750			
0.0040	253.44	4.1480	4.1479	-0.3517	24.86	-0.00	-0.750			
0.0051	325.52	4.1450	4.1450	-0.3907	24.86	-0.00	-0.750			
0.0063	405.81	4.1420	4.1420	-0.4297	24.86	-0.00	-0.750			
0.0077	494.02	4.1390	4.1391	-0.4645	24.86	-0.00	-0.750			
0.0092	585.90	4.1360	4.1360	-0.4989	24.85	-0.01	-0.750			
0.0107	686.24	4.1330	4.1331	-0.5250	24.85	-0.01	-0.750			
0.0123	789.93	4.1300	4.1299	-0.5481	24.85	-0.01	-0.750			
0.0140	898.37	4.1270	4.1269	-0.5671	24.85	-0.01	-0.750			
0.0158	1009.45	4.1240	4.1241	-0.5863	24.85	-0.01	-0.750			
0.0175	1122.20	4.1210	4.1210	-0.6102	24.85	-0.01	-0.750			
0.0194	1241.24	4.1180	4.1178	-0.6276	24.84	-0.02	-0.750			
0.0213	1365.16	4.1150	4.1149	-0.6504	24.84	-0.02	-0.750			
0.0234	1495.38	4.1120	4.1120	-0.6698	24.84	-0.02	-0.750			
0.0255	1629.21	4.1090	4.1089	-0.6819	24.83	-0.03	-0.750			
0.0275	1762.02	4.1060	4.1064	-0.6875	24.83	-0.03	-0.750			
0.0296	1893.64	4.1030	4.1030	-0.6906	24.83	-0.03	-0.750			
0.0316	2024.61	4.1000	4.1000	-0.6961	24.83	-0.03	-0.750			
0.0337	2154.71	4.0970	4.0970	-0.6931	24.82	-0.04	-0.750			
0.0359	2295.02	4.0940	4.0940	-0.7113	24.82	-0.04	-0.750			
0.0380	2432.64	4.0910	4.0911	-0.7119	24.82	-0.04	-0.750			
0.0401	2568.01	4.0880	4.0881	-0.7175	24.82	-0.04	-0.750			
0.0423	2704.84	4.0850	4.0850	-0.7217	24.82	-0.04	-0.750			
0.0444	2842.51	4.0820	4.0821	-0.7302	24.81	-0.05	-0.750			
0.0466	2984.72	4.0790	4.0789	-0.7359	24.81	-0.05	-0.750			
0.0489	3128.32	4.0760	4.0760	-0.7440	24.81	-0.05	-0.750			
0.0511	3272.74	4.0730	4.0729	-0.7473	24.80	-0.06	-0.750			
0.0534	3418.49	4.0700	4.0699	-0.7469	24.80	-0.06	-0.750			
0.0556	3555.97	4.0670	4.0671	-0.7585	24.80	-0.06	-0.750			
0.0578	3702.30	4.0640	4.0640	-0.7531	24.80	-0.06	-0.750			
0.0601	3848.49	4.0610	4.0609	-0.7485	24.80	-0.06	-0.750			
0.0624	3994.87	4.0580	4.0578	-0.7494	24.80	-0.06	-0.750			
0.0647	4137.87	4.0550	4.0557	-0.7518	24.80	-0.06	-0.750			
0.0669	4281.90	4.0520	4.0519	-0.7525	24.80	-0.06	-0.750			
0.0691	4425.06	4.0490	4.0489	-0.7550	24.80	-0.06	-0.750			
0.0714	4567.61	4.0460	4.0460	-0.7566	24.81	-0.05	-0.750			
0.0737	4715.59	4.0430	4.0431	-0.7705	24.81	-0.05	-0.750			
0.0760	4863.76	4.0400	4.0398	-0.7757	24.81	-0.05	-0.750			
0.0783	5013.26	4.0370	4.0370	-0.7823	24.81	-0.05	-0.750			
0.0807	5163.75	4.0340	4.0340	-0.7817	24.81	-0.05	-0.750			
0.0831	5316.06	4.0310	4.0310	-0.7822	24.81	-0.05	-0.750			
0.0854	5465.76	4.0280	4.0280	-0.7756	24.82	-0.04	-0.750			
0.0877	5615.90	4.0250	4.0250	-0.7766	24.82	-0.04	-0.750			
0.0900	5762.65	4.0220	4.0223	-0.7758	24.82	-0.04	-0.750			
0.0923	5910.25	4.0190	4.0190	-0.7786	24.82	-0.04	-0.750			
0.0947	6058.47	4.0160	4.0160	-0.7863	24.82	-0.04	-0.750			
0.0971	6213.27	4.0130	4.0129	-0.7909	24.82	-0.04	-0.750			
0.0995	6367.70	4.0100	4.0100	-0.7935	24.82	-0.04	-0.750			
0.1019	6520.41	4.0070	4.0067	-0.7885	24.82	-0.04	-0.750			
0.1043	6672.75	4.0040	4.0039	-0.7831	24.82	-0.04	-0.750			
0.1066	6819.92	4.0010	4.0010	-0.7871	24.83	-0.03	-0.750			
0.1089	6967.14	3.9980	3.9980	-0.7880	24.83	-0.03	-0.750			
0.1113	7120.60	3.9950	3.9949	-0.7942	24.83	-0.03	-0.750			
0.1137	7274.83	3.9920	3.9918	-0.7991	24.84	-0.02	-0.750			
0.1161	7430.30	3.9890	3.9892	-0.8047	24.84	-0.02	-0.750			
0.1185	7584.12	3.9860	3.9860	-0.8105	24.84	-0.02	-0.750			
0.1210	7742.03	3.9830	3.9830	-0.7996	24.84	-0.02	-0.750			
0.1233	7891.37	3.9800	3.9800	-0.7888	24.85	-0.01	-0.750			
0.1257	8042.89	3.9770	3.9771	-0.8018	24.85	-0.01	-0.750			
0.1281	8197.73	3.9740	3.9739	-0.8075	24.85	-0.01	-0.750			
0.1305	8349.25	3.9710	3.9709	-0.8245	24.85	-0.01	-0.750			
0.1330	8511.34	3.9680	3.9680	-0.8234	24.85	-0.01	-0.750			
0.1355	8672.70	3.9650	3.9650	-0.8250	24.84	-0.02	-0.750			
0.1381	8835.55	3.9620	3.9618	-0.8303	24.84	-0.02	-0.750			
0.1405	8994.43	3.9590	3.9591	-0.8153	24.84	-0.02	-0.750			
0.1429	9145.46	3.9560	3.9559	-0.8174	24.84	-0.02	-0.750			
0.1453	9299.31	3.9530	3.9530	-0.8149	24.85	-0.01	-0.750			
0.1477	9453.26	3.9500	3.9500	-0.8099	24.85	-0.01	-0.750			
0.1503	9616.20	3.9470	3.9469	-0.8263	24.86	-0.00	-0.750			
0.1528	9776.06	3.9440	3.9442	-0.8303	24.86	0.00	-0.750			
0.1552	9935.01	3.9410	3.9410	-0.8299	24.86	0.00	-0.750			
0.1577	10095.96	3.9380	3.9379	-0.8362	24.86	0.00	-0.750			
0.1602	10254.23	3.9350	3.9350	-0.8325	24.86	0.00	-0.750			
0.1627	10415.90	3.9320	3.9320	-0.8375	24.86	0.00	-0.750			
0.1653	10576.46	3.9290	3.9292	-0.8392	24.86	0.00	-0.750			
0.1677	10735.50	3.9260	3.9260	-0.8579	24.86	0.00	-0.750			
0.1704	10904.11	3.9230	3.9229	-0.8513	24.87	0.01	-0.750			
0.1730	11068.82	3.9200	3.9198	-0.8483	24.87	0.01	-0.750			
0.1755	11233.75	3.9170	3.9168	-0.8517	24.88	0.02	-0.750			
0.1781	11396.38	3.9140	3.9138	-0.8450	24.88	0.02	-0.750			
0.1806	11556.42	3.9110	3.9108	-0.8505	24.88	0.02	-0.750			
0.1831	11718.61	3.9080	3.9079	-0.8481	24.88	0.02	-0.750			
0.1857	11881.81	3.9050	3.9049	-0.8563	24.88	0.02	-0.750			
0.1882	12046.79	3.9020	3.9020	-0.8541	24.88	0.02	-0.750			
0.1908	12210.02	3.8990	3.8992	-0.8539	24.88	0.02	-0.750			
0.1933	12372.72	3.8960	3.8959	-0.8588	24.89	0.03	-0.750			
0.1959	12537.66	3.8930	3.8929	-0.8563	24.89	0.03	-0.750			
0.1985	12701.33	3.8900	3.8899	-0.8536	24.89	0.03	-0.750			
0.2010	12866.98	3.8870	3.8869	-0.8628	24.90	0.04	-0.750			
0.2037	13034.24	3.8840	3.8839	-0.8703	24.90	0.04	-0.750			
0.2063	13202.00	3.8810	3.8808	-0.8777	24.90	0.04	-0.750			
0.2089	13372.68	3.8780	3.8778	-0.8688	24.90	0.04	-0.750			
0.2115	13538.72	3.8750	3.8750	-0.8634	24.90	0.04	-0.750			
0.2142	13709.52	3.8720	3.8719	-0.8694	24.90	0.04	-0.750			
0.2168	13874.31	3.8690	3.8687	-0.8565	24.90	0.04	-0.750			
0.2193	14035.66	3.8660	3.8660	-0.8619	24.90	0.04	-0.750			
0.2218	14196.67	3.8630	3.8630	-0.8555	24.90	0.04	-0.750			
0.2245	14366.09	3.8600	3.8598	-0.8737	24.90	0.04	-0.750			
0.2271	14533.94	3.8570	3.8574	-0.8713	24.90	0.04	-0.750			
0.2297	14700.78	3.8540	3.8539	-0.8656	24.90	0.04	-0.750			
0.2323	14867.56	3.8510	3.8510	-0.8690	24.91	0.05	-0.750			
0.2349	15032.59	3.8480	3.8480	-0.8611	24.91	0.05	-0.750			
0.2375	15198.23	3.8450	3.8450	-0.8637	24.92	0.06	-0.750			
0.2401	15363.29	3.8420	3.8423	-0.8666	24.92	0.06	-0.750			
0.2426	15524.55	3.8390	3.8388	-0.8838	24.92	0.06	-0.750			
0.2453	15698.39	3.8360	3.8360	-0.8740	24.92	0.06	-0.750			
0.2479	15867.78	3.8330	3.8329	-0.8673	24.93	0.07	-0.750			
0.2506	16036.21	3.8300	3.8298	-0.8710	24.93	0.07	-0.750			
0.2532	16203.45	3.8270	3.8268	-0.8613	24.93	0.07	-0.750			
0.2557	16363.26	3.8240	3.8239	-0.8673	24.93	0.07	-0.750			
0.2583	16528.70	3.8210	3.8209	-0.8672	24.93	0.07	-0.750			
0.2609	16697.21	3.8180	3.8179	-0.8837	24.94	0.08	-0.750			
0.2636	16867.67	3.8150	3.8150	-0.8721	24.94	0.08	-0.750			
0.2662	17038.55	3.8120	3.8119	-0.8651	24.94	0.08	-0.750			
0.2688	17202.09	3.8090	3.8090	-0.8559	24.94	0.08	-0.750			
0.2713	17364.46	3.8060	3.8060	-0.8442	24.94	0.08	-0.750			
0.2738	17522.00	3.8030	3.8029	-0.8278	24.94	0.08	-0.750			
0.2763	17682.45	3.8000	3.7998	-0.8272	24.94	0.08	-0.750			
0.2787	17839.68	3.7970	3.7970	-0.8198	24.94	0.08	-0.750			
0.2812	17997.91	3.7940	3.7940	-0.8311	24.95	0.09	-0.750			
0.2837	18159.73	3.7910	3.7909	-0.8272	24.95	0.09	-0.750			
0.2862	18316.93	3.7880	3.7878	-0.8127	24.95	0.09	-0.750			
0.2887	18477.23	3.7850	3.7850	-0.8123	24.96	0.10	-0.750			
0.2911	18631.06	3.7820	3.7818	-0.8098	24.96	0.10	-0.750			
0.2935	18783.37	3.7790	3.7789	-0.8031	24.96	0.10	-0.750			
0.2959	18936.22	3.7760	3.7759	-0.7940	24.96	0.10	-0.750			
0.2982	19084.18	3.7730	3.7731	-0.7895	24.97	0.11	-0.750			
0.3007	19243.14	3.7700	3.7700	-0.7987	24.97	0.11	-0.750			
0.3031	19395.71	3.7670	3.7671	-0.7960	24.97	0.11	-0.750			
0.3054	19546.90	3.7640	3.7639	-0.7960	24.97	0.11	-0.750			
0.3078	19697.41	3.7610	3.7610	-0.7972	24.97	0.11	-0.750			
0.3102	19852.32	3.7580	3.7580	-0.7931	24.98	0.12	-0.750			
0.3126	20005.09	3.7550	3.7550	-0.8012	24.98	0.12	-0.750			
0.3149	20156.09	3.7520	3.7523	-0.8123	24.98	0.12	-0.750			
0.3173	20308.85	3.7490	3.7490	-0.8473	24.98	0.12	-0.750			
0.3199	20476.35	3.7460	3.7457	-0.8512	24.98	0.12	-0.750			
0.3226	20643.72	3.7430	3.7429	-0.8652	24.98	0.12	-0.750			
0.3252	20814.25	3.7400	3.7399	-0.8757	24.98	0.12	-0.750			
0.3279	20985.95	3.7370	3.7372	-0.8794	24.98	0.12	-0.750			
0.3305	21151.56	3.7340	3.7338	-0.8810	24.98	0.12	-0.750			
0.3331	21320.03	3.7310	3.7309	-0.8775	24.98	0.12	-0.750			
0.3357	21485.55	3.7280	3.7280	-0.8922	24.98	0.12	-0.750			
0.3384	21657.92	3.7250	3.7247	-0.9020	24.98	0.12	-0.750			
0.3411	21829.75	3.7220	3.7220	-0.9159	24.98	0.12	-0.750			
0.3439	22007.26	3.7190	3.7188	-0.9290	24.98	0.12	-0.750			
0.3467	22187.83	3.7160	3.7160	-0.9375	24.97	0.11	-0.750			
0.3495	22365.56	3.7130	3.7130	-0.9432	24.97	0.11	-0.750			
0.3523	22549.58	3.7100	3.7106	-0.9914	24.97	0.11	-0.750			
0.3554	22742.64	3.7070	3.7070	-1.0196	24.97	0.11	-0.750			
0.3586	22947.41	3.7040	3.7036	-1.0245	24.97	0.11	-0.750			
0.3617	23147.02	3.7010	3.7008	-1.0263	24.97	0.11	-0.750			
0.3648	23344.67	3.6980	3.6988	-1.0505	24.97	0.11	-0.750	0.376	0.498	
0.3679	23546.66	3.6950	3.6947	-1.0585	24.96	0.10	-0.750			
0.3710	23744.41	3.6920	3.6918	-1.0683	24.96	0.10	-0.750			
0.3741	23945.45	3.6890	3.6888	-1.0907	24.95	0.09	-0.750			
0.3775	24162.91	3.6860	3.6866	-1.1431	24.94	0.08	-0.750			
0.3811	24389.18	3.6830	3.6830	-1.1660	24.93	0.07	-0.750			
0.3847	24618.38	3.6800	3.6798	-1.1867	24.93	0.07	-0.750			
0.3881	24841.05	3.6770	3.6769	-1.2271	24.92	0.06	-0.750			
0.3919	25081.52	3.6740	3.6738	-1.2345	24.91	0.05	-0.750			
0.3956	25321.28	3.6710	3.6709	-1.2480	24.91	0.05	-0.750			
0.3994	25562.96	3.6680	3.6677	-1.2588	24.90	0.04	-0.750			
0.4032	25801.96	3.6650	3.6652	-1.2712	24.89	0.03	-0.750			
0.4070	26045.32	3.6620	3.6620	-1.3394	24.88	0.02	-0.750			
0.4110	26303.47	3.6590	3.6590	-1.3829	24.88	0.02	-0.750			
0.4153	26581.55	3.6560	3.6557	-1.4279	24.87	0.01	-0.750			
0.4197	26862.89	3.6530	3.6534	-1.4492	24.86	-0.00	-0.750			
0.4242	27149.94	3.6500	3.6501	-1.4927	24.85	-0.01	-0.750			
0.4287	27436.82	3.6470	3.6469	-1.5152	24.84	-0.02	-0.750			
0.4332	27723.15	3.6440	3.6437	-1.5072	24.83	-0.03	-0.750			
0.4377	28015.86	3.6410	3.6410	-1.5243	24.82	-0.04	-0.750			
0.4424	28312.37	3.6380	3.6378	-1.5487	24.81	-0.05	-0.750			
0.4472	28618.18	3.6350	3.6347	-1.5635	24.80	-0.06	-0.750			
0.4518	28913.43	3.6320	3.6322	-1.5856	24.79	-0.07	-0.750			
0.4565	29215.95	3.6290	3.6290	-1.5902	24.78	-0.08	-0.750			
0.4614	29527.28	3.6260	3.6258	-1.6359	24.78	-0.08	-0.750			
0.4664	29849.06	3.6230	3.6229	-1.6663	24.77	-0.09	-0.750			
0.4714	30171.14	3.6200	3.6199	-1.7201	24.76	-0.10	-0.750			
0.4767	30506.99	3.6170	3.6174	-1.7563	24.75	-0.11	-0.750			
0.4820	30850.51	3.6140	3.6141	-1.7788	24.74	-0.12	-0.750			
0.4875	31200.88	3.6110	3.6110	-1.8314	24.73	-0.13	-0.750			
0.4930	31553.63	3.6080	3.6082	-1.8667	24.72	-0.14	-0.750			
0.4988	31922.88	3.6050	3.6049	-1.8978	24.72	-0.14	-0.750			
0.5044	32280.71	3.6020	3.6023	-1.9444	24.71	-0.15	-0.750			
0.5102	32652.67	3.5990	3.5990	-1.9764	24.70	-0.16	-0.750			
0.5162	33036.91	3.5960	3.5961	-2.0422	24.70	-0.16	-0.750			
0.5224	33430.89	3.5930	3.5929	-2.0863	24.69	-0.17	-0.750			
0.5288	33845.21	3.5900	3.5899	-2.1028	24.68	-0.18	-0.750			
0.5352	34255.36	3.5870	3.5870	-2.1510	24.68	-0.18	-0.750			
0.5418	34678.13	3.5840	3.5841	-2.1529	24.68	-0.18	-0.750			
0.5482	35085.21	3.5810	3.5809	-2.1646	24.67	-0.19	-0.750			
0.5548	35504.82	3.5780	3.5779	-2.1930	24.66	-0.20	-0.750			
0.5616	35940.28	3.5750	3.5744	-2.1357	24.66	-0.20	-0.750			
0.5680	36348.95	3.5720	3.5720	-2.0684	24.65	-0.21	-0.750			
0.5740	36736.60	3.5690	3.5691	-2.0655	24.65	-0.21	-0.750			
0.5800	37117.25	3.5660	3.5656	-2.0950	24.64	-0.22	-0.750			
0.5860	37504.08	3.5630	3.5632	-2.1068	24.64	-0.22	-0.750			
0.5925	37917.65	3.5600	3.5598	-2.1618	24.64	-0.22	-0.750			
0.5995	38366.47	3.5570	3.5567	-2.2583	24.63	-0.23	-0.750			
0.6059	38776.30	3.5540	3.5541	-2.2511	24.63	-0.23	-0.750			
0.6126	39208.87	3.5510	3.5509	-2.2259	24.63	-0.23	-0.750			
0.6197	39661.87	3.5480	3.5474	-2.2077	24.63	-0.23	-0.750			
0.6262	40079.48	3.5450	3.5452	-2.1744	24.63	-0.23	-0.750			
0.6326	40487.98	3.5420	3.5422	-2.1391	24.63	-0.23	-0.750			
0.6390	40898.98	3.5390	3.5387	-2.1034	24.63	-0.23	-0.750			
0.6453	41299.99	3.5360	3.5364	-2.0980	24.63	-0.23	-0.750			
0.6517	41707.38	3.5330	3.5333	-2.1048	24.64	-0.22	-0.750			
0.6576	42088.97	3.5300	3.5300	-1.9884	24.65	-0.21	-0.750			
0.6634	42455.16	3.5270	3.5272	-1.9064	24.66	-0.20	-0.750			
0.6690	42817.44	3.5240	3.5248	-1.8803	24.67	-0.19	-0.750			
0.6749	43191.22	3.5210	3.5209	-1.8537	24.68	-0.18	-0.750			
0.6804	43543.46	3.5180	3.5176	-1.8047	24.69	-0.17	-0.750			
0.6858	43893.11	3.5150	3.5146	-1.7699	24.71	-0.15	-0.750			
0.6911	44232.52	3.5120	3.5117	-1.7047	24.72	-0.14	-0.750			
0.6963	44562.15	3.5090	3.5090	-1.6337	24.74	-0.12	-0.750			
0.7010	44861.95	3.5060	3.5064	-1.5561	24.76	-0.10	-0.750			
0.7055	45149.27	3.5030	3.5031	-1.4846	24.77	-0.09	-0.750			
0.7099	45432.19	3.5000	3.4997	-1.4512	24.78	-0.08	-0.750			
0.7140	45698.48	3.4970	3.4969	-1.4278	24.80	-0.06	-0.750			
0.7181	45956.87	3.4940	3.4941	-1.4321	24.81	-0.05	-0.750			
0.7224	46232.41	3.4910	3.4909	-1.4725	24.83	-0.03	-0.750			
0.7268	46515.82	3.4880	3.4881	-1.4693	24.85	-0.01	-0.750			
