Ah_balance (normalized)	Ah_balance (mAh)	Voltage - fit (V)	Voltage -  interpolate (V)	dQ/dV (1/V)	Temperature (°C)	Temperature - diff (°C)	Current (C)	R_DC 0ms (mOhm)	R_DC 50ms (mOhm)	R_DC 50 ms PEC (mOhm)
0.0004	26.54	4.1610	4.1607	-0.1340	25.34	0.01	-0.750			
0.0009	54.97	4.1580	4.1580	-0.1717	25.34	0.01	-0.750			
0.0014	91.89	4.1550	4.1550	-0.2134	25.34	0.01	-0.750			
0.0021	137.25	4.1520	4.1520	-0.2547	25.34	0.01	-0.750			
0.0030	190.60	4.1490	4.1490	-0.2931	25.33	0.00	-0.750			
0.0039	250.93	4.1460	4.1459	-0.3338	25.33	0.00	-0.750			
0.0050	319.01	4.1430	4.1433	-0.3698	25.33	-0.00	-0.750			
0.0062	393.91	4.1400	4.1400	-0.4064	25.33	-0.00	-0.750			
0.0074	476.36	4.1370	4.1370	-0.4394	25.32	-0.01	-0.750			
0.0088	564.80	4.1340	4.1340	-0.4702	25.32	-0.01	-0.750			
0.0103	658.75	4.1310	4.1310	-0.4970	25.32	-0.01	-0.750			
0.0118	757.32	4.1280	4.1280	-0.5219	25.31	-0.02	-0.750			
0.0134	860.04	4.1250	4.1250	-0.5448	25.31	-0.02	-0.750			
0.0151	967.63	4.1220	4.1219	-0.5652	25.31	-0.02	-0.750			
0.0168	1078.27	4.1190	4.1191	-0.5835	25.30	-0.03	-0.750			
0.0186	1192.74	4.1160	4.1160	-0.5994	25.30	-0.03	-0.750			
0.0205	1310.76	4.1130	4.1130	-0.6137	25.29	-0.04	-0.750			
0.0223	1429.20	4.1100	4.1100	-0.6268	25.29	-0.04	-0.750			
0.0242	1550.28	4.1070	4.1070	-0.6364	25.29	-0.04	-0.750			
0.0262	1674.31	4.1040	4.1040	-0.6458	25.29	-0.04	-0.750			
0.0281	1799.40	4.1010	4.1009	-0.6556	25.28	-0.05	-0.750			
0.0301	1926.15	4.0980	4.0982	-0.6654	25.28	-0.05	-0.750			
0.0321	2055.06	4.0950	4.0950	-0.6742	25.28	-0.05	-0.750			
0.0341	2185.07	4.0920	4.0920	-0.6831	25.28	-0.05	-0.750			
0.0362	2317.04	4.0890	4.0890	-0.6882	25.28	-0.05	-0.750			
0.0383	2449.78	4.0860	4.0860	-0.6975	25.28	-0.05	-0.750			
0.0404	2584.44	4.0830	4.0828	-0.7041	25.28	-0.05	-0.750			
0.0425	2721.15	4.0800	4.0803	-0.7073	25.28	-0.05	-0.750			
0.0446	2857.01	4.0770	4.0770	-0.7136	25.28	-0.05	-0.750			
0.0468	2994.97	4.0740	4.0740	-0.7188	25.28	-0.05	-0.750			
0.0490	3134.08	4.0710	4.0710	-0.7219	25.27	-0.06	-0.750			
0.0511	3273.25	4.0680	4.0679	-0.7224	25.27	-0.06	-0.750			
0.0533	3410.56	4.0650	4.0649	-0.7267	25.27	-0.06	-0.750			
0.0555	3550.55	4.0620	4.0621	-0.7312	25.27	-0.06	-0.750			
0.0577	3691.65	4.0590	4.0589	-0.7344	25.27	-0.06	-0.750			
0.0599	3832.85	4.0560	4.0560	-0.7374	25.27	-0.06	-0.750			
0.0621	3975.81	4.0530	4.0530	-0.7373	25.28	-0.05	-0.750			
0.0643	4118.17	4.0500	4.0500	-0.7417	25.28	-0.05	-0.750			
0.0666	4262.99	4.0470	4.0469	-0.7368	25.28	-0.05	-0.750			
0.0688	4402.72	4.0440	4.0439	-0.7277	25.28	-0.05	-0.750			
0.0710	4542.17	4.0410	4.0410	-0.7254	25.28	-0.05	-0.750			
0.0731	4679.62	4.0380	4.0382	-0.7351	25.28	-0.05	-0.750			
0.0753	4820.95	4.0350	4.0347	-0.7337	25.29	-0.04	-0.750			
0.0776	4964.06	4.0320	4.0319	-0.7396	25.29	-0.04	-0.750			
0.0798	5106.67	4.0290	4.0296	-0.7387	25.29	-0.04	-0.750			
0.0820	5251.13	4.0260	4.0260	-0.7509	25.29	-0.04	-0.750			
0.0843	5393.24	4.0230	4.0229	-0.7519	25.29	-0.04	-0.750			
0.0865	5533.96	4.0200	4.0200	-0.7481	25.30	-0.03	-0.750			
0.0887	5679.67	4.0170	4.0169	-0.7609	25.30	-0.03	-0.750			
0.0910	5826.97	4.0140	4.0140	-0.7658	25.30	-0.03	-0.750			
0.0934	5975.90	4.0110	4.0109	-0.7691	25.30	-0.03	-0.750			
0.0957	6123.27	4.0080	4.0080	-0.7732	25.31	-0.02	-0.750			
0.0980	6270.96	4.0050	4.0051	-0.7715	25.31	-0.02	-0.750			
0.1003	6420.76	4.0020	4.0020	-0.7717	25.31	-0.02	-0.750			
0.1027	6570.19	3.9990	3.9989	-0.7726	25.32	-0.01	-0.750			
0.1050	6716.86	3.9960	3.9964	-0.7721	25.32	-0.01	-0.750			
0.1073	6865.62	3.9930	3.9930	-0.7721	25.33	-0.00	-0.750			
0.1097	7019.87	3.9900	3.9898	-0.7597	25.33	0.00	-0.750			
0.1120	7164.93	3.9870	3.9869	-0.7397	25.34	0.01	-0.750			
0.1142	7307.67	3.9840	3.9841	-0.7225	25.34	0.01	-0.750			
0.1162	7439.83	3.9810	3.9815	-0.7230	25.35	0.02	-0.750			
0.1183	7572.51	3.9780	3.9775	-0.7196	25.35	0.02	-0.750			
0.1204	7708.16	3.9750	3.9748	-0.7315	25.36	0.03	-0.750			
0.1226	7847.55	3.9720	3.9721	-0.7475	25.36	0.03	-0.750			
0.1250	7996.87	3.9690	3.9691	-0.7707	25.36	0.03	-0.750			
0.1274	8153.95	3.9660	3.9660	-0.7922	25.37	0.04	-0.750			
0.1298	8306.40	3.9630	3.9631	-0.7966	25.37	0.04	-0.750			
0.1322	8458.28	3.9600	3.9600	-0.7953	25.37	0.04	-0.750			
0.1346	8611.96	3.9570	3.9570	-0.8034	25.37	0.04	-0.750			
0.1370	8767.11	3.9540	3.9540	-0.8039	25.37	0.04	-0.750			
0.1394	8922.86	3.9510	3.9508	-0.8042	25.37	0.04	-0.750			
0.1418	9076.35	3.9480	3.9482	-0.8005	25.37	0.04	-0.750			
0.1442	9230.90	3.9450	3.9449	-0.8010	25.37	0.04	-0.750			
0.1466	9383.15	3.9420	3.9420	-0.8129	25.38	0.05	-0.750			
0.1491	9541.65	3.9390	3.9389	-0.8111	25.38	0.05	-0.750			
0.1515	9695.66	3.9360	3.9358	-0.8049	25.38	0.05	-0.750			
0.1540	9854.30	3.9330	3.9333	-0.8070	25.39	0.06	-0.750			
0.1564	10007.96	3.9300	3.9299	-0.8089	25.39	0.06	-0.750			
0.1588	10161.27	3.9270	3.9267	-0.8114	25.40	0.07	-0.750			
0.1612	10316.82	3.9240	3.9240	-0.8070	25.41	0.08	-0.750			
0.1635	10467.03	3.9210	3.9211	-0.8047	25.41	0.08	-0.750			
0.1661	10631.16	3.9180	3.9179	-0.8154	25.42	0.09	-0.750			
0.1686	10787.27	3.9150	3.9149	-0.8077	25.42	0.09	-0.750			
0.1709	10938.04	3.9120	3.9120	-0.8119	25.42	0.09	-0.750			
0.1733	11094.16	3.9090	3.9090	-0.8057	25.42	0.09	-0.750			
0.1758	11248.09	3.9060	3.9059	-0.8065	25.43	0.10	-0.750			
0.1782	11406.27	3.9030	3.9028	-0.8083	25.43	0.10	-0.750			
0.1806	11560.41	3.9000	3.9002	-0.8053	25.43	0.10	-0.750			
0.1830	11713.48	3.8970	3.8969	-0.8146	25.44	0.11	-0.750			
0.1855	11871.13	3.8940	3.8940	-0.8093	25.44	0.11	-0.750			
0.1879	12023.00	3.8910	3.8909	-0.8029	25.44	0.11	-0.750			
0.1903	12181.69	3.8880	3.8880	-0.8094	25.45	0.12	-0.750			
0.1928	12337.02	3.8850	3.8853	-0.8089	25.45	0.12	-0.750			
0.1952	12492.04	3.8820	3.8819	-0.8095	25.45	0.12	-0.750			
0.1976	12646.23	3.8790	3.8789	-0.8023	25.46	0.13	-0.750			
0.2000	12798.67	3.8760	3.8761	-0.8011	25.46	0.13	-0.750			
0.2024	12956.28	3.8730	3.8729	-0.8038	25.47	0.14	-0.750			
0.2048	13110.23	3.8700	3.8704	-0.7955	25.47	0.14	-0.750			
0.2072	13262.34	3.8670	3.8670	-0.7925	25.47	0.14	-0.750			
0.2096	13412.76	3.8640	3.8641	-0.7924	25.48	0.15	-0.750			
0.2120	13566.25	3.8610	3.8608	-0.7886	25.48	0.15	-0.750			
0.2143	13717.77	3.8580	3.8579	-0.7842	25.49	0.16	-0.750			
0.2167	13866.45	3.8550	3.8553	-0.7809	25.49	0.16	-0.750			
0.2190	14017.97	3.8520	3.8519	-0.7806	25.49	0.16	-0.750			
0.2213	14164.52	3.8490	3.8489	-0.7866	25.50	0.17	-0.750			
0.2237	14313.86	3.8460	3.8460	-0.7733	25.50	0.17	-0.750			
0.2260	14463.03	3.8430	3.8430	-0.7710	25.50	0.17	-0.750			
0.2284	14615.67	3.8400	3.8399	-0.7764	25.51	0.18	-0.750			
0.2307	14764.10	3.8370	3.8368	-0.7672	25.51	0.18	-0.750			
0.2330	14909.01	3.8340	3.8340	-0.7594	25.52	0.19	-0.750			
0.2352	15053.49	3.8310	3.8310	-0.7635	25.52	0.19	-0.750			
0.2375	15196.97	3.8280	3.8280	-0.7548	25.52	0.19	-0.750			
0.2398	15346.83	3.8250	3.8249	-0.7591	25.53	0.20	-0.750			
0.2421	15491.76	3.8220	3.8222	-0.7539	25.53	0.20	-0.750			
0.2443	15636.05	3.8190	3.8190	-0.7580	25.53	0.20	-0.750			
0.2466	15781.11	3.8160	3.8161	-0.7636	25.53	0.20	-0.750			
0.2489	15927.50	3.8130	3.8128	-0.7606	25.54	0.21	-0.750			
0.2511	16072.53	3.8100	3.8100	-0.7574	25.54	0.21	-0.750			
0.2535	16221.48	3.8070	3.8070	-0.7614	25.54	0.21	-0.750			
0.2557	16366.26	3.8040	3.8042	-0.7589	25.54	0.21	-0.750			
0.2580	16508.86	3.8010	3.8009	-0.7688	25.54	0.21	-0.750			
0.2603	16657.34	3.7980	3.7978	-0.7676	25.54	0.21	-0.750			
0.2626	16804.31	3.7950	3.7950	-0.7703	25.55	0.22	-0.750			
0.2649	16956.71	3.7920	3.7919	-0.7724	25.55	0.22	-0.750			
0.2673	17107.32	3.7890	3.7900	-0.7788	25.55	0.22	-0.750			
0.2696	17256.53	3.7860	3.7859	-0.7747	25.55	0.22	-0.750			
0.2719	17401.98	3.7830	3.7830	-0.7748	25.55	0.22	-0.750			
0.2742	17549.27	3.7800	3.7798	-0.7779	25.55	0.22	-0.750			
0.2766	17700.48	3.7770	3.7770	-0.7878	25.55	0.22	-0.750			
0.2789	17851.40	3.7740	3.7740	-0.7949	25.55	0.22	-0.750			
0.2813	18006.05	3.7710	3.7709	-0.7986	25.55	0.22	-0.750			
0.2838	18160.03	3.7680	3.7680	-0.8071	25.55	0.22	-0.750			
0.2862	18314.31	3.7650	3.7650	-0.8081	25.55	0.22	-0.750			
0.2886	18469.33	3.7620	3.7620	-0.8095	25.55	0.22	-0.750			
0.2910	18625.39	3.7590	3.7589	-0.8194	25.55	0.22	-0.750			
0.2935	18783.17	3.7560	3.7560	-0.8276	25.55	0.22	-0.750			
0.2960	18943.37	3.7530	3.7529	-0.8438	25.55	0.22	-0.750			
0.2986	19108.82	3.7500	3.7500	-0.8520	25.55	0.22	-0.750			
0.3011	19272.66	3.7470	3.7469	-0.8523	25.55	0.22	-0.750			
0.3037	19439.74	3.7440	3.7438	-0.8572	25.55	0.22	-0.750			
0.3063	19603.72	3.7410	3.7408	-0.8624	25.55	0.22	-0.750			
0.3088	19766.39	3.7380	3.7380	-0.8730	25.55	0.22	-0.750			
0.3115	19932.87	3.7350	3.7350	-0.8764	25.54	0.21	-0.750			
0.3141	20100.31	3.7320	3.7319	-0.8809	25.54	0.21	-0.750			
0.3168	20277.09	3.7290	3.7291	-0.9022	25.54	0.21	-0.750			
0.3195	20448.93	3.7260	3.7261	-0.9210	25.54	0.21	-0.750			
0.3223	20629.36	3.7230	3.7229	-0.9303	25.54	0.21	-0.750			
0.3251	20809.16	3.7200	3.7199	-0.9306	25.53	0.20	-0.750			
0.3279	20986.41	3.7170	3.7169	-0.9327	25.53	0.20	-0.750			
0.3307	21164.56	3.7140	3.7143	-0.9755	25.53	0.20	-0.750			
0.3337	21354.75	3.7110	3.7109	-0.9696	25.52	0.19	-0.750			
0.3366	21540.96	3.7080	3.7078	-0.9778	25.52	0.19	-0.750			
0.3395	21727.82	3.7050	3.7048	-0.9839	25.51	0.18	-0.750			
0.3425	21922.24	3.7020	3.7027	-1.0068	25.51	0.18	-0.750			
0.3456	22120.28	3.6990	3.6989	-1.0196	25.51	0.18	-0.750	0.375	0.543	
0.3487	22314.20	3.6960	3.6959	-1.0258	25.50	0.17	-0.750			
0.3517	22509.65	3.6930	3.6930	-1.0511	25.50	0.17	-0.750			
0.3548	22708.06	3.6900	3.6902	-1.0730	25.50	0.17	-0.750			
0.3581	22917.46	3.6870	3.6870	-1.0781	25.49	0.16	-0.750			
0.3613	23126.15	3.6840	3.6838	-1.0913	25.49	0.16	-0.750			
0.3647	23338.21	3.6810	3.6810	-1.1054	25.48	0.15	-0.750			
0.3680	23553.85	3.6780	3.6782	-1.1396	25.48	0.15	-0.750			
0.3715	23773.67	3.6750	3.6748	-1.1435	25.48	0.15	-0.750			
0.3749	23994.39	3.6720	3.6719	-1.1497	25.47	0.14	-0.750			
0.3783	24214.22	3.6690	3.6689	-1.1594	25.47	0.14	-0.750			
0.3819	24443.57	3.6660	3.6659	-1.1956	25.47	0.14	-0.750			
0.3855	24672.60	3.6630	3.6627	-1.2106	25.46	0.13	-0.750			
0.3891	24904.07	3.6600	3.6600	-1.2161	25.46	0.13	-0.750			
0.3927	25134.05	3.6570	3.6573	-1.2386	25.45	0.12	-0.750			
0.3967	25386.22	3.6540	3.6539	-1.2751	25.44	0.11	-0.750			
0.4005	25632.32	3.6510	3.6509	-1.2868	25.44	0.11	-0.750			
0.4043	25877.89	3.6480	3.6479	-1.3220	25.43	0.10	-0.750			
0.4084	26139.37	3.6450	3.6449	-1.3515	25.42	0.09	-0.750			
0.4125	26402.97	3.6420	3.6417	-1.3648	25.42	0.09	-0.750			
0.4167	26668.87	3.6390	3.6396	-1.3867	25.41	0.08	-0.750			
0.4209	26935.26	3.6360	3.6362	-1.3979	25.40	0.07	-0.750			
0.4251	27203.65	3.6330	3.6328	-1.4346	25.39	0.06	-0.750			
0.4293	27474.66	3.6300	3.6298	-1.4561	25.38	0.05	-0.750			
0.4337	27757.16	3.6270	3.6269	-1.5190	25.38	0.05	-0.750			
0.4384	28058.64	3.6240	3.6243	-1.5378	25.37	0.04	-0.750			
0.4433	28369.52	3.6210	3.6209	-1.5741	25.37	0.04	-0.750			
0.4480	28673.10	3.6180	3.6176	-1.5955	25.36	0.03	-0.750			
0.4529	28984.50	3.6150	3.6146	-1.6063	25.35	0.02	-0.750			
0.4577	29293.43	3.6120	3.6121	-1.6370	25.35	0.02	-0.750			
0.4627	29611.23	3.6090	3.6092	-1.6697	25.34	0.01	-0.750			
0.4676	29926.60	3.6060	3.6061	-1.6908	25.34	0.01	-0.750			
0.4729	30262.62	3.6030	3.6033	-1.8015	25.33	0.00	-0.750			
0.4785	30624.24	3.6000	3.6003	-1.7817	25.32	-0.01	-0.750			
0.4838	30965.57	3.5970	3.5970	-1.8000	25.32	-0.01	-0.750			
0.4892	31307.81	3.5940	3.5944	-1.8214	25.31	-0.02	-0.750			
0.4945	31650.70	3.5910	3.5906	-1.8460	25.31	-0.02	-0.750			
0.5000	31996.98	3.5880	3.5885	-1.8910	25.30	-0.03	-0.750			
0.5057	32366.16	3.5850	3.5850	-1.9194	25.30	-0.03	-0.750			
0.5117	32746.51	3.5820	3.5820	-2.0356	25.29	-0.04	-0.750			
0.5178	33141.78	3.5790	3.5791	-1.9767	25.29	-0.04	-0.750			
0.5238	33521.79	3.5760	3.5758	-2.0132	25.28	-0.05	-0.750			
0.5298	33906.36	3.5730	3.5738	-2.0151	25.28	-0.05	-0.750			
0.5359	34296.86	3.5700	3.5697	-2.0432	25.28	-0.05	-0.750			
0.5420	34689.59	3.5670	3.5667	-2.0347	25.28	-0.05	-0.750			
0.5482	35084.82	3.5640	3.5646	-2.0774	25.28	-0.05	-0.750			
0.5545	35487.64	3.5610	3.5610	-2.0364	25.28	-0.05	-0.750			
0.5605	35871.33	3.5580	3.5583	-2.0347	25.28	-0.05	-0.750			
0.5666	36260.22	3.5550	3.5553	-1.9994	25.28	-0.05	-0.750			
0.5726	36648.75	3.5520	3.5520	-2.0105	25.28	-0.05	-0.750			
0.5785	37023.26	3.5490	3.5493	-1.9819	25.28	-0.05	-0.750			
0.5845	37410.18	3.5460	3.5459	-2.0020	25.29	-0.04	-0.750			
0.5907	37807.54	3.5430	3.5425	-1.9909	25.30	-0.03	-0.750			
0.5967	38189.08	3.5400	3.5400	-1.9670	25.30	-0.03	-0.750			
0.6026	38568.00	3.5370	3.5371	-1.9097	25.31	-0.02	-0.750			
0.6083	38931.95	3.5340	3.5340	-1.9046	25.32	-0.01	-0.750			
0.6139	39291.24	3.5310	3.5312	-1.8405	25.32	-0.01	-0.750			
0.6191	39620.60	3.5280	3.5277	-1.8232	25.34	0.01	-0.750			
0.6246	39975.96	3.5250	3.5246	-1.8065	25.35	0.02	-0.750			
0.6301	40324.43	3.5220	3.5221	-1.7640	25.37	0.04	-0.750			
0.6354	40665.09	3.5190	3.5196	-1.7286	25.38	0.05	-0.750			
0.6404	40987.42	3.5160	3.5161	-1.6608	25.39	0.06	-0.750			
0.6454	41303.85	3.5130	3.5131	-1.6264	25.40	0.07	-0.750			
0.6503	41617.40	3.5100	3.5102	-1.5774	25.41	0.08	-0.750			
0.6550	41920.09	3.5070	3.5071	-1.5428	25.42	0.09	-0.750			
0.6595	42207.16	3.5040	3.5037	-1.4884	25.44	0.11	-0.750			
0.6638	42484.03	3.5010	3.5013	-1.4381	25.45	0.12	-0.750			
0.6682	42763.42	3.4980	3.4982	-1.4135	25.46	0.13	-0.750			
0.6725	43041.78	3.4950	3.4946	-1.3815	25.48	0.15	-0.750			
0.6765	43298.54	3.4920	3.4918	-1.3317	25.50	0.17	-0.750			
0.6804	43546.71	3.4890	3.4892	-1.2936	25.51	0.18	-0.750			
0.6843	43797.66	3.4860	3.4858	-1.2609	25.52	0.19	-0.750			
0.6880	44035.13	3.4830	3.4828	-1.2116	25.53	0.20	-0.750			
0.6919	44281.05	3.4800	3.4800	-1.5280	25.54	0.21	-0.750			
