Ah_balance (normalized)	Ah_balance (mAh)	Voltage - fit (V)	Voltage -  interpolate (V)	dQ/dV (1/V)	Temperature (°C)	Temperature - diff (°C)	Current (C)	R_DC 0ms (mOhm)	R_DC 50ms (mOhm)	R_DC 50 ms PEC (mOhm)
0.0002	15.83	4.1640	4.1638	-0.1121	25.12	0.02	-0.750			
0.0007	41.94	4.1610	4.1609	-0.1627	25.12	0.02	-0.750			
0.0013	80.46	4.1580	4.1579	-0.2133	25.12	0.02	-0.750			
0.0020	125.32	4.1550	4.1549	-0.2593	25.12	0.02	-0.750			
0.0028	180.22	4.1520	4.1521	-0.3021	25.12	0.02	-0.750			
0.0038	243.19	4.1490	4.1491	-0.3472	25.11	0.01	-0.750			
0.0049	314.08	4.1460	4.1459	-0.3849	25.11	0.01	-0.750			
0.0061	392.10	4.1430	4.1431	-0.4264	25.11	0.01	-0.750			
0.0075	478.21	4.1400	4.1399	-0.4623	25.10	0.00	-0.750			
0.0089	571.25	4.1370	4.1369	-0.4976	25.10	-0.00	-0.750			
0.0105	670.53	4.1340	4.1340	-0.5293	25.09	-0.01	-0.750			
0.0121	775.81	4.1310	4.1311	-0.5617	25.09	-0.01	-0.750			
0.0138	885.99	4.1280	4.1280	-0.5938	25.08	-0.02	-0.750			
0.0157	1006.37	4.1250	4.1249	-0.6110	25.08	-0.02	-0.750			
0.0176	1126.32	4.1220	4.1220	-0.6240	25.07	-0.03	-0.750			
0.0195	1248.12	4.1190	4.1189	-0.6410	25.06	-0.04	-0.750			
0.0215	1372.89	4.1160	4.1158	-0.6559	25.06	-0.04	-0.750			
0.0234	1500.16	4.1130	4.1128	-0.6641	25.06	-0.04	-0.750			
0.0254	1625.60	4.1100	4.1100	-0.6798	25.06	-0.04	-0.750			
0.0275	1758.48	4.1070	4.1070	-0.6842	25.05	-0.05	-0.750			
0.0296	1896.47	4.1040	4.1040	-0.7032	25.05	-0.05	-0.750			
0.0317	2031.14	4.1010	4.1009	-0.7055	25.05	-0.05	-0.750			
0.0339	2166.49	4.0980	4.0980	-0.7081	25.05	-0.05	-0.750			
0.0360	2303.14	4.0950	4.0950	-0.7166	25.05	-0.05	-0.750			
0.0381	2440.62	4.0920	4.0920	-0.7281	25.05	-0.05	-0.750			
0.0403	2580.21	4.0890	4.0889	-0.7309	25.04	-0.06	-0.750			
0.0426	2725.50	4.0860	4.0860	-0.7399	25.04	-0.06	-0.750			
0.0448	2868.46	4.0830	4.0830	-0.7411	25.04	-0.06	-0.750			
0.0470	3010.28	4.0800	4.0799	-0.7429	25.04	-0.06	-0.750			
0.0492	3147.58	4.0770	4.0771	-0.7617	25.04	-0.06	-0.750			
0.0515	3296.86	4.0740	4.0739	-0.7525	25.04	-0.06	-0.750			
0.0538	3442.55	4.0710	4.0709	-0.7490	25.04	-0.06	-0.750			
0.0561	3589.12	4.0680	4.0678	-0.7597	25.04	-0.06	-0.750			
0.0584	3734.77	4.0650	4.0654	-0.7596	25.04	-0.06	-0.750			
0.0606	3879.77	4.0620	4.0619	-0.7603	25.04	-0.06	-0.750			
0.0629	4024.14	4.0590	4.0588	-0.7636	25.04	-0.06	-0.750			
0.0652	4171.92	4.0560	4.0561	-0.7806	25.04	-0.06	-0.750			
0.0675	4321.89	4.0530	4.0529	-0.7768	25.04	-0.06	-0.750			
0.0699	4472.52	4.0500	4.0500	-0.7781	25.04	-0.06	-0.750			
0.0722	4619.91	4.0470	4.0470	-0.7722	25.04	-0.06	-0.750			
0.0745	4765.68	4.0440	4.0440	-0.7774	25.04	-0.06	-0.750			
0.0768	4914.94	4.0410	4.0410	-0.7787	25.04	-0.06	-0.750			
0.0791	5063.63	4.0380	4.0379	-0.7790	25.04	-0.06	-0.750			
0.0815	5216.08	4.0350	4.0349	-0.7842	25.04	-0.06	-0.750			
0.0839	5367.83	4.0320	4.0320	-0.7852	25.04	-0.06	-0.750			
0.0862	5515.93	4.0290	4.0291	-0.7971	25.04	-0.06	-0.750			
0.0886	5672.21	4.0260	4.0259	-0.7952	25.04	-0.06	-0.750			
0.0910	5823.57	4.0230	4.0229	-0.7912	25.04	-0.06	-0.750			
0.0934	5978.18	4.0200	4.0200	-0.7925	25.04	-0.06	-0.750			
0.0958	6130.90	4.0170	4.0178	-0.7907	25.04	-0.06	-0.750			
0.0981	6281.16	4.0140	4.0138	-0.7883	25.04	-0.06	-0.750			
0.1005	6431.61	4.0110	4.0109	-0.7882	25.04	-0.06	-0.750			
0.1028	6578.60	4.0080	4.0080	-0.7876	25.04	-0.06	-0.750			
0.1052	6734.26	4.0050	4.0050	-0.7979	25.04	-0.06	-0.750			
0.1076	6888.32	4.0020	4.0021	-0.8019	25.04	-0.06	-0.750			
0.1101	7043.28	3.9990	3.9989	-0.8006	25.04	-0.06	-0.750			
0.1124	7195.71	3.9960	3.9959	-0.8098	25.04	-0.06	-0.750			
0.1149	7352.31	3.9930	3.9930	-0.8101	25.05	-0.05	-0.750			
0.1173	7508.48	3.9900	3.9898	-0.8027	25.05	-0.05	-0.750			
0.1198	7665.11	3.9870	3.9872	-0.8078	25.05	-0.05	-0.750			
0.1222	7820.50	3.9840	3.9839	-0.8096	25.05	-0.05	-0.750			
0.1246	7974.68	3.9810	3.9809	-0.8228	25.05	-0.05	-0.750			
0.1271	8135.51	3.9780	3.9778	-0.8206	25.06	-0.04	-0.750			
0.1295	8290.48	3.9750	3.9749	-0.8141	25.06	-0.04	-0.750			
0.1321	8453.62	3.9720	3.9723	-0.8232	25.06	-0.04	-0.750			
0.1345	8610.55	3.9690	3.9687	-0.8216	25.06	-0.04	-0.750			
0.1369	8763.53	3.9660	3.9659	-0.8185	25.06	-0.04	-0.750			
0.1394	8919.88	3.9630	3.9630	-0.8198	25.06	-0.04	-0.750			
0.1418	9072.83	3.9600	3.9601	-0.8186	25.06	-0.04	-0.750			
0.1444	9239.77	3.9570	3.9570	-0.8354	25.06	-0.04	-0.750			
0.1469	9399.77	3.9540	3.9540	-0.8300	25.06	-0.04	-0.750			
0.1494	9559.26	3.9510	3.9510	-0.8399	25.06	-0.04	-0.750			
0.1519	9720.89	3.9480	3.9478	-0.8408	25.07	-0.03	-0.750			
0.1544	9882.57	3.9450	3.9450	-0.8406	25.07	-0.03	-0.750			
0.1570	10045.56	3.9420	3.9419	-0.8457	25.07	-0.03	-0.750			
0.1594	10203.70	3.9390	3.9389	-0.8658	25.07	-0.03	-0.750			
0.1621	10373.98	3.9360	3.9359	-0.8598	25.07	-0.03	-0.750			
0.1647	10541.63	3.9330	3.9328	-0.8524	25.08	-0.02	-0.750			
0.1672	10702.26	3.9300	3.9299	-0.8435	25.08	-0.02	-0.750			
0.1698	10868.45	3.9270	3.9271	-0.8516	25.08	-0.02	-0.750			
0.1723	11030.02	3.9240	3.9237	-0.8526	25.08	-0.02	-0.750			
0.1748	11189.97	3.9210	3.9208	-0.8549	25.08	-0.02	-0.750			
0.1774	11353.28	3.9180	3.9180	-0.8610	25.08	-0.02	-0.750			
0.1801	11528.43	3.9150	3.9149	-0.8765	25.08	-0.02	-0.750			
0.1828	11696.04	3.9120	3.9122	-0.8605	25.08	-0.02	-0.750			
0.1853	11858.64	3.9090	3.9090	-0.8583	25.08	-0.02	-0.750			
0.1878	12020.66	3.9060	3.9061	-0.8599	25.09	-0.01	-0.750			
0.1904	12186.10	3.9030	3.9027	-0.8592	25.09	-0.01	-0.750			
0.1929	12348.65	3.9000	3.9000	-0.8627	25.10	-0.00	-0.750			
0.1956	12518.03	3.8970	3.8976	-0.8708	25.10	0.00	-0.750			
0.1982	12685.33	3.8940	3.8940	-0.8899	25.10	0.00	-0.750			
0.2009	12860.44	3.8910	3.8908	-0.8863	25.10	0.00	-0.750			
0.2036	13030.09	3.8880	3.8879	-0.8784	25.10	0.00	-0.750			
0.2063	13203.10	3.8850	3.8847	-0.8783	25.10	0.00	-0.750			
0.2089	13369.40	3.8820	3.8819	-0.8700	25.10	0.00	-0.750			
0.2114	13532.18	3.8790	3.8789	-0.8751	25.10	0.00	-0.750			
0.2141	13700.41	3.8760	3.8759	-0.8748	25.10	0.00	-0.750			
0.2167	13869.17	3.8730	3.8728	-0.8884	25.10	0.00	-0.750			
0.2194	14039.73	3.8700	3.8701	-0.8877	25.10	0.00	-0.750			
0.2220	14210.33	3.8670	3.8671	-0.8835	25.10	0.00	-0.750			
0.2247	14381.57	3.8640	3.8639	-0.8871	25.11	0.01	-0.750			
0.2273	14547.63	3.8610	3.8609	-0.8786	25.11	0.01	-0.750			
0.2299	14715.39	3.8580	3.8581	-0.8714	25.12	0.02	-0.750			
0.2326	14885.19	3.8550	3.8550	-0.8773	25.12	0.02	-0.750			
0.2352	15050.09	3.8520	3.8520	-0.8926	25.12	0.02	-0.750			
0.2379	15224.60	3.8490	3.8488	-0.8902	25.13	0.03	-0.750			
0.2406	15395.84	3.8460	3.8459	-0.8900	25.13	0.03	-0.750			
0.2432	15567.14	3.8430	3.8429	-0.8875	25.14	0.04	-0.750			
0.2459	15740.50	3.8400	3.8404	-0.8914	25.14	0.04	-0.750			
0.2486	15911.63	3.8370	3.8368	-0.8935	25.14	0.04	-0.750			
0.2513	16080.15	3.8340	3.8340	-0.8879	25.14	0.04	-0.750			
0.2539	16248.00	3.8310	3.8310	-0.8792	25.14	0.04	-0.750			
0.2566	16422.40	3.8280	3.8279	-0.8879	25.14	0.04	-0.750			
0.2593	16593.91	3.8250	3.8251	-0.8809	25.14	0.04	-0.750			
0.2619	16761.32	3.8220	3.8220	-0.8825	25.14	0.04	-0.750			
0.2645	16928.97	3.8190	3.8190	-0.8798	25.14	0.04	-0.750			
0.2671	17097.13	3.8160	3.8159	-0.8746	25.14	0.04	-0.750			
0.2698	17266.09	3.8130	3.8128	-0.8780	25.14	0.04	-0.750			
0.2724	17431.62	3.8100	3.8101	-0.8948	25.14	0.04	-0.750			
0.2751	17605.71	3.8070	3.8069	-0.8863	25.15	0.05	-0.750			
0.2778	17778.10	3.8040	3.8039	-0.8791	25.16	0.06	-0.750			
0.2804	17945.37	3.8010	3.8007	-0.8677	25.16	0.06	-0.750			
0.2830	18113.94	3.7980	3.7990	-0.8632	25.17	0.07	-0.750			
0.2856	18280.02	3.7950	3.7949	-0.8479	25.17	0.07	-0.750			
0.2881	18439.90	3.7920	3.7920	-0.8469	25.17	0.07	-0.750			
0.2906	18597.21	3.7890	3.7890	-0.8336	25.18	0.08	-0.750			
0.2932	18762.51	3.7860	3.7858	-0.8436	25.18	0.08	-0.750			
0.2957	18923.05	3.7830	3.7834	-0.8406	25.18	0.08	-0.750			
0.2982	19084.30	3.7800	3.7799	-0.8396	25.18	0.08	-0.750			
0.3007	19245.85	3.7770	3.7770	-0.8442	25.18	0.08	-0.750			
0.3033	19409.29	3.7740	3.7740	-0.8394	25.19	0.09	-0.750			
0.3058	19570.76	3.7710	3.7709	-0.8381	25.19	0.09	-0.750			
0.3083	19731.68	3.7680	3.7683	-0.8362	25.19	0.09	-0.750			
0.3108	19891.46	3.7650	3.7649	-0.8337	25.19	0.09	-0.750			
0.3133	20050.88	3.7620	3.7619	-0.8429	25.19	0.09	-0.750			
0.3158	20213.37	3.7590	3.7591	-0.8358	25.20	0.10	-0.750			
0.3184	20377.96	3.7560	3.7557	-0.8376	25.20	0.10	-0.750			
0.3209	20537.03	3.7530	3.7532	-0.8367	25.20	0.10	-0.750			
0.3233	20694.10	3.7500	3.7499	-0.8432	25.20	0.10	-0.750			
0.3259	20854.45	3.7470	3.7470	-0.8490	25.20	0.10	-0.750			
0.3284	21015.92	3.7440	3.7439	-0.8529	25.20	0.10	-0.750			
0.3309	21180.26	3.7410	3.7411	-0.8638	25.20	0.10	-0.750			
0.3337	21355.99	3.7380	3.7381	-0.8794	25.20	0.10	-0.750			
0.3363	21524.25	3.7350	3.7350	-0.8879	25.20	0.10	-0.750			
0.3390	21694.76	3.7320	3.7320	-0.8874	25.20	0.10	-0.750			
0.3417	21866.88	3.7290	3.7289	-0.8866	25.20	0.10	-0.750			
0.3443	22036.96	3.7260	3.7261	-0.8961	25.20	0.10	-0.750			
0.3470	22208.40	3.7230	3.7229	-0.9051	25.20	0.10	-0.750			
0.3498	22387.34	3.7200	3.7198	-0.9313	25.20	0.10	-0.750			
0.3526	22567.85	3.7170	3.7168	-0.9406	25.20	0.10	-0.750			
0.3554	22748.36	3.7140	3.7138	-0.9454	25.20	0.10	-0.750			
0.3583	22934.09	3.7110	3.7114	-0.9920	25.20	0.10	-0.750			
0.3614	23130.62	3.7080	3.7077	-1.0025	25.20	0.10	-0.750			
0.3644	23323.52	3.7050	3.7046	-0.9996	25.19	0.09	-0.750			
0.3674	23510.86	3.7020	3.7018	-0.9981	25.19	0.09	-0.750			
0.3705	23709.63	3.6990	3.6993	-1.0480	25.19	0.09	-0.750	0.350	0.481	
0.3736	23909.05	3.6960	3.6956	-1.0550	25.19	0.09	-0.750			
0.3767	24110.29	3.6930	3.6929	-1.0693	25.18	0.08	-0.750			
0.3798	24308.87	3.6900	3.6900	-1.0847	25.18	0.08	-0.750			
0.3834	24534.92	3.6870	3.6874	-1.1561	25.17	0.07	-0.750			
0.3869	24761.61	3.6840	3.6837	-1.1705	25.16	0.06	-0.750			
0.3905	24989.21	3.6810	3.6807	-1.1732	25.15	0.05	-0.750			
0.3940	25215.17	3.6780	3.6778	-1.1797	25.14	0.04	-0.750			
0.3976	25445.29	3.6750	3.6748	-1.2181	25.14	0.04	-0.750			
0.4012	25673.90	3.6720	3.6719	-1.3090	25.13	0.03	-0.750			
0.4051	25926.65	3.6690	3.6686	-1.3577	25.12	0.02	-0.750			
0.4094	26202.86	3.6660	3.6656	-1.4263	25.11	0.01	-0.750			
0.4140	26492.90	3.6630	3.6635	-1.4494	25.10	0.00	-0.750			
0.4184	26778.34	3.6600	3.6601	-1.4738	25.09	-0.01	-0.750			
0.4229	27068.51	3.6570	3.6567	-1.4680	25.08	-0.02	-0.750			
0.4271	27334.41	3.6540	3.6538	-1.4235	25.07	-0.03	-0.750			
0.4314	27610.11	3.6510	3.6509	-1.4665	25.06	-0.04	-0.750			
0.4358	27891.05	3.6480	3.6480	-1.4899	25.06	-0.04	-0.750			
0.4404	28184.09	3.6450	3.6449	-1.5316	25.05	-0.05	-0.750			
0.4449	28475.15	3.6420	3.6422	-1.5608	25.04	-0.06	-0.750			
0.4496	28773.65	3.6390	3.6391	-1.5820	25.03	-0.07	-0.750			
0.4546	29093.35	3.6360	3.6358	-1.6350	25.03	-0.07	-0.750			
0.4596	29414.39	3.6330	3.6329	-1.6561	25.02	-0.08	-0.750			
0.4647	29738.20	3.6300	3.6302	-1.6846	25.01	-0.09	-0.750			
0.4698	30066.82	3.6270	3.6273	-1.6964	25.00	-0.10	-0.750			
0.4748	30386.33	3.6240	3.6241	-1.7228	24.99	-0.11	-0.750			
0.4799	30716.63	3.6210	3.6209	-1.7270	24.98	-0.12	-0.750			
0.4851	31047.86	3.6180	3.6182	-1.7638	24.97	-0.13	-0.750			
0.4905	31391.86	3.6150	3.6149	-1.8274	24.96	-0.14	-0.750			
0.4959	31739.96	3.6120	3.6123	-1.8834	24.96	-0.14	-0.750			
0.5017	32110.22	3.6090	3.6092	-1.9088	24.95	-0.15	-0.750			
0.5076	32489.00	3.6060	3.6062	-1.9431	24.94	-0.16	-0.750			
0.5134	32860.26	3.6030	3.6033	-1.9919	24.94	-0.16	-0.750			
0.5194	33240.06	3.6000	3.6001	-2.0222	24.93	-0.17	-0.750			
0.5254	33624.28	3.5970	3.5970	-2.0751	24.93	-0.17	-0.750			
0.5316	34024.15	3.5940	3.5939	-2.1239	24.92	-0.18	-0.750			
0.5382	34444.47	3.5910	3.5912	-2.1641	24.91	-0.19	-0.750			
0.5450	34878.58	3.5880	3.5882	-2.2015	24.90	-0.20	-0.750			
0.5515	35296.40	3.5850	3.5854	-2.2456	24.90	-0.20	-0.750			
0.5582	35726.35	3.5820	3.5821	-2.2342	24.90	-0.20	-0.750			
0.5650	36156.84	3.5790	3.5787	-2.2696	24.89	-0.21	-0.750			
0.5718	36595.18	3.5760	3.5760	-2.3151	24.88	-0.22	-0.750			
0.5790	37057.69	3.5730	3.5732	-2.3042	24.89	-0.21	-0.750			
0.5860	37505.39	3.5700	3.5701	-2.2733	24.89	-0.21	-0.750			
0.5929	37943.24	3.5670	3.5671	-2.3181	24.89	-0.21	-0.750			
0.5996	38375.58	3.5640	3.5640	-2.2819	24.89	-0.21	-0.750			
0.6065	38818.13	3.5610	3.5610	-2.2868	24.90	-0.20	-0.750			
0.6136	39272.34	3.5580	3.5576	-2.3302	24.90	-0.20	-0.750			
0.6205	39713.08	3.5550	3.5553	-2.2844	24.89	-0.21	-0.750			
0.6273	40146.67	3.5520	3.5522	-2.2943	24.90	-0.20	-0.750			
0.6342	40588.71	3.5490	3.5493	-2.2590	24.90	-0.20	-0.750			
0.6412	41039.99	3.5460	3.5459	-2.2495	24.90	-0.20	-0.750			
0.6478	41462.34	3.5430	3.5427	-2.2020	24.90	-0.20	-0.750			
0.6542	41871.17	3.5400	3.5404	-2.1244	24.91	-0.19	-0.750			
0.6606	42279.40	3.5370	3.5368	-2.0759	24.92	-0.18	-0.750			
0.6667	42671.84	3.5340	3.5336	-2.0589	24.93	-0.17	-0.750			
0.6729	43063.73	3.5310	3.5310	-2.0012	24.94	-0.16	-0.750			
0.6791	43459.32	3.5280	3.5276	-1.9707	24.95	-0.15	-0.750			
0.6848	43824.63	3.5250	3.5253	-1.8865	24.97	-0.13	-0.750			
0.6903	44179.01	3.5220	3.5219	-1.8279	24.98	-0.12	-0.750			
0.6957	44522.45	3.5190	3.5194	-1.7586	25.00	-0.10	-0.750			
0.7009	44859.26	3.5160	3.5162	-1.7001	25.02	-0.08	-0.750			
0.7059	45175.83	3.5130	3.5132	-1.6436	25.03	-0.07	-0.750			
0.7108	45489.83	3.5100	3.5098	-1.5943	25.05	-0.05	-0.750			
0.7154	45787.84	3.5070	3.5070	-1.5568	25.06	-0.04	-0.750			
0.7201	46083.35	3.5040	3.5040	-1.5257	25.08	-0.02	-0.750			
0.7246	46374.45	3.5010	3.5009	-1.4856	25.10	-0.00	-0.750			
0.7290	46655.87	3.4980	3.4978	-1.4402	25.12	0.02	-0.750			
0.7333	46930.30	3.4950	3.4954	-1.3749	25.14	0.04	-0.750			
0.7373	47184.77	3.4920	3.4919	-1.2554	25.16	0.06	-0.750			
