Ah_balance (normalized)	Ah_balance (mAh)	Voltage - fit (V)	Voltage -  interpolate (V)	dQ/dV (1/V)	Temperature (°C)	Temperature - diff (°C)	Current (C)	R_DC 0ms (mOhm)	R_DC 50ms (mOhm)	R_DC 50 ms PEC (mOhm)
0.0003	20.59	4.1620	4.1616	-0.1241	25.13	0.03	-0.750			
0.0007	47.22	4.1590	4.1590	-0.1663	25.12	0.02	-0.750			
0.0013	84.30	4.1560	4.1561	-0.2145	25.12	0.02	-0.750			
0.0021	131.36	4.1530	4.1530	-0.2572	25.12	0.02	-0.750			
0.0029	185.03	4.1500	4.1498	-0.2987	25.12	0.02	-0.750			
0.0039	246.69	4.1470	4.1472	-0.3418	25.12	0.02	-0.750			
0.0050	317.41	4.1440	4.1440	-0.3771	25.11	0.01	-0.750			
0.0062	393.80	4.1410	4.1409	-0.4182	25.11	0.01	-0.750			
0.0075	477.95	4.1380	4.1379	-0.4530	25.11	0.01	-0.750			
0.0089	568.58	4.1350	4.1352	-0.4851	25.10	0.00	-0.750			
0.0104	665.43	4.1320	4.1320	-0.5173	25.10	0.00	-0.750			
0.0120	769.04	4.1290	4.1289	-0.5424	25.10	-0.00	-0.750			
0.0137	875.83	4.1260	4.1258	-0.5657	25.09	-0.01	-0.750			
0.0154	988.04	4.1230	4.1231	-0.5885	25.09	-0.01	-0.750			
0.0172	1102.37	4.1200	4.1200	-0.6069	25.08	-0.02	-0.750			
0.0191	1223.47	4.1170	4.1169	-0.6282	25.08	-0.02	-0.750			
0.0210	1346.73	4.1140	4.1140	-0.6393	25.08	-0.02	-0.750			
0.0230	1471.24	4.1110	4.1116	-0.6484	25.07	-0.03	-0.750			
0.0250	1597.05	4.1080	4.1079	-0.6585	25.07	-0.03	-0.750			
0.0269	1723.11	4.1050	4.1050	-0.6673	25.07	-0.03	-0.750			
0.0289	1850.89	4.1020	4.1020	-0.6787	25.07	-0.03	-0.750			
0.0310	1981.27	4.0990	4.0989	-0.6845	25.06	-0.04	-0.750			
0.0331	2117.75	4.0960	4.0960	-0.6960	25.06	-0.04	-0.750			
0.0352	2253.09	4.0930	4.0930	-0.7037	25.06	-0.04	-0.750			
0.0373	2387.55	4.0900	4.0901	-0.7084	25.06	-0.04	-0.750			
0.0394	2522.63	4.0870	4.0870	-0.7114	25.05	-0.05	-0.750			
0.0416	2660.75	4.0840	4.0839	-0.7217	25.05	-0.05	-0.750			
0.0438	2802.36	4.0810	4.0808	-0.7199	25.05	-0.05	-0.750			
0.0460	2943.24	4.0780	4.0780	-0.7269	25.04	-0.06	-0.750			
0.0482	3082.11	4.0750	4.0755	-0.7269	25.04	-0.06	-0.750			
0.0503	3220.30	4.0720	4.0719	-0.7282	25.04	-0.06	-0.750			
0.0524	3356.73	4.0690	4.0688	-0.7405	25.04	-0.06	-0.750			
0.0547	3498.44	4.0660	4.0660	-0.7394	25.04	-0.06	-0.750			
0.0570	3648.40	4.0630	4.0628	-0.7500	25.04	-0.06	-0.750			
0.0592	3791.73	4.0600	4.0600	-0.7461	25.04	-0.06	-0.750			
0.0615	3935.54	4.0570	4.0568	-0.7455	25.04	-0.06	-0.750			
0.0637	4076.54	4.0540	4.0539	-0.7503	25.04	-0.06	-0.750			
0.0659	4217.71	4.0510	4.0507	-0.7491	25.04	-0.06	-0.750			
0.0681	4361.22	4.0480	4.0480	-0.7498	25.04	-0.06	-0.750			
0.0705	4511.89	4.0450	4.0450	-0.7669	25.04	-0.06	-0.750			
0.0728	4658.89	4.0420	4.0422	-0.7675	25.04	-0.06	-0.750			
0.0751	4808.29	4.0390	4.0388	-0.7659	25.04	-0.06	-0.750			
0.0774	4951.13	4.0360	4.0359	-0.7659	25.04	-0.06	-0.750			
0.0797	5098.12	4.0330	4.0331	-0.7654	25.05	-0.05	-0.750			
0.0820	5244.92	4.0300	4.0300	-0.7655	25.05	-0.05	-0.750			
0.0843	5394.42	4.0270	4.0268	-0.7724	25.05	-0.05	-0.750			
0.0866	5543.36	4.0240	4.0240	-0.7674	25.05	-0.05	-0.750			
0.0888	5684.23	4.0210	4.0211	-0.7880	25.05	-0.05	-0.750			
0.0913	5841.38	4.0180	4.0180	-0.7824	25.05	-0.05	-0.750			
0.0936	5991.26	4.0150	4.0148	-0.7803	25.05	-0.05	-0.750			
0.0960	6143.43	4.0120	4.0118	-0.7822	25.05	-0.05	-0.750			
0.0983	6293.70	4.0090	4.0102	-0.7822	25.05	-0.05	-0.750			
0.1007	6442.58	4.0060	4.0059	-0.7785	25.05	-0.05	-0.750			
0.1030	6591.37	4.0030	4.0029	-0.7833	25.05	-0.05	-0.750			
0.1052	6735.91	4.0000	4.0001	-0.7782	25.06	-0.04	-0.750			
0.1077	6892.31	3.9970	3.9970	-0.7934	25.06	-0.04	-0.750			
0.1101	7045.52	3.9940	3.9940	-0.7956	25.06	-0.04	-0.750			
0.1125	7199.49	3.9910	3.9909	-0.7956	25.06	-0.04	-0.750			
0.1148	7349.95	3.9880	3.9879	-0.7974	25.06	-0.04	-0.750			
0.1172	7503.53	3.9850	3.9851	-0.7962	25.06	-0.04	-0.750			
0.1196	7654.65	3.9820	3.9820	-0.7917	25.06	-0.04	-0.750			
0.1220	7809.77	3.9790	3.9789	-0.7976	25.06	-0.04	-0.750			
0.1244	7962.31	3.9760	3.9759	-0.8003	25.06	-0.04	-0.750			
0.1268	8112.76	3.9730	3.9730	-0.8118	25.06	-0.04	-0.750			
0.1292	8271.91	3.9700	3.9700	-0.8109	25.06	-0.04	-0.750			
0.1317	8428.28	3.9670	3.9669	-0.8090	25.07	-0.03	-0.750			
0.1342	8586.24	3.9640	3.9640	-0.8107	25.07	-0.03	-0.750			
0.1366	8742.18	3.9610	3.9608	-0.8095	25.07	-0.03	-0.750			
0.1390	8894.92	3.9580	3.9579	-0.8139	25.07	-0.03	-0.750			
0.1414	9048.66	3.9550	3.9551	-0.8129	25.07	-0.03	-0.750			
0.1438	9204.93	3.9520	3.9519	-0.8079	25.08	-0.02	-0.750			
0.1463	9363.74	3.9490	3.9490	-0.8227	25.08	-0.02	-0.750			
0.1488	9522.12	3.9460	3.9463	-0.8227	25.08	-0.02	-0.750			
0.1512	9679.76	3.9430	3.9429	-0.8210	25.08	-0.02	-0.750			
0.1537	9838.84	3.9400	3.9399	-0.8293	25.08	-0.02	-0.750			
0.1562	9998.48	3.9370	3.9369	-0.8301	25.08	-0.02	-0.750			
0.1587	10159.98	3.9340	3.9339	-0.8319	25.08	-0.02	-0.750			
0.1613	10320.64	3.9310	3.9313	-0.8301	25.08	-0.02	-0.750			
0.1637	10478.11	3.9280	3.9279	-0.8271	25.08	-0.02	-0.750			
0.1663	10641.37	3.9250	3.9249	-0.8387	25.09	-0.01	-0.750			
0.1687	10799.91	3.9220	3.9220	-0.8308	25.09	-0.01	-0.750			
0.1713	10964.70	3.9190	3.9188	-0.8356	25.10	-0.00	-0.750			
0.1738	11124.60	3.9160	3.9162	-0.8308	25.10	0.00	-0.750			
0.1763	11281.19	3.9130	3.9129	-0.8374	25.10	0.00	-0.750			
0.1788	11440.19	3.9100	3.9099	-0.8376	25.10	0.00	-0.750			
0.1812	11594.91	3.9070	3.9070	-0.8312	25.10	0.00	-0.750			
0.1838	11764.68	3.9040	3.9039	-0.8507	25.10	0.00	-0.750			
0.1864	11928.49	3.9010	3.9012	-0.8530	25.10	0.00	-0.750			
0.1889	12090.72	3.8980	3.8981	-0.8732	25.10	0.00	-0.750			
0.1915	12258.60	3.8950	3.8949	-0.8568	25.10	0.00	-0.750			
0.1941	12422.70	3.8920	3.8919	-0.8462	25.11	0.01	-0.750			
0.1967	12586.69	3.8890	3.8888	-0.8508	25.11	0.01	-0.750			
0.1992	12748.81	3.8860	3.8859	-0.8507	25.11	0.01	-0.750			
0.2018	12912.90	3.8830	3.8828	-0.8633	25.11	0.01	-0.750			
0.2043	13078.26	3.8800	3.8798	-0.8604	25.11	0.01	-0.750			
0.2070	13246.73	3.8770	3.8769	-0.8652	25.12	0.02	-0.750			
0.2096	13411.39	3.8740	3.8738	-0.8551	25.12	0.02	-0.750			
0.2121	13576.02	3.8710	3.8708	-0.8553	25.12	0.02	-0.750			
0.2146	13736.17	3.8680	3.8679	-0.8565	25.12	0.02	-0.750			
0.2171	13896.10	3.8650	3.8649	-0.8498	25.13	0.03	-0.750			
0.2197	14058.31	3.8620	3.8620	-0.8409	25.13	0.03	-0.750			
0.2223	14228.72	3.8590	3.8591	-0.8576	25.13	0.03	-0.750			
0.2249	14393.39	3.8560	3.8560	-0.8555	25.13	0.03	-0.750			
0.2274	14555.45	3.8530	3.8529	-0.8589	25.13	0.03	-0.750			
0.2300	14721.51	3.8500	3.8499	-0.8524	25.14	0.04	-0.750			
0.2326	14883.92	3.8470	3.8469	-0.8366	25.14	0.04	-0.750			
0.2351	15047.96	3.8440	3.8440	-0.8437	25.14	0.04	-0.750			
0.2376	15208.37	3.8410	3.8410	-0.8380	25.14	0.04	-0.750			
0.2401	15366.81	3.8380	3.8377	-0.8354	25.14	0.04	-0.750			
0.2426	15525.49	3.8350	3.8350	-0.8339	25.14	0.04	-0.750			
0.2451	15683.65	3.8320	3.8320	-0.8310	25.14	0.04	-0.750			
0.2477	15851.23	3.8290	3.8295	-0.8445	25.14	0.04	-0.750			
0.2502	16013.18	3.8260	3.8257	-0.8403	25.14	0.04	-0.750			
0.2527	16173.00	3.8230	3.8230	-0.8296	25.15	0.05	-0.750			
0.2552	16331.46	3.8200	3.8200	-0.8274	25.16	0.06	-0.750			
0.2576	16486.98	3.8170	3.8170	-0.8150	25.16	0.06	-0.750			
0.2601	16648.23	3.8140	3.8140	-0.8183	25.17	0.07	-0.750			
0.2625	16801.12	3.8110	3.8109	-0.8136	25.17	0.07	-0.750			
0.2649	16956.04	3.8080	3.8080	-0.8170	25.17	0.07	-0.750			
0.2674	17113.76	3.8050	3.8050	-0.8161	25.17	0.07	-0.750			
0.2699	17272.68	3.8020	3.8018	-0.8142	25.17	0.07	-0.750			
0.2724	17431.18	3.7990	3.7991	-0.8069	25.17	0.07	-0.750			
0.2748	17585.66	3.7960	3.7959	-0.8067	25.17	0.07	-0.750			
0.2772	17737.95	3.7930	3.7930	-0.8056	25.17	0.07	-0.750			
0.2796	17892.26	3.7900	3.7899	-0.7919	25.17	0.07	-0.750			
0.2819	18040.78	3.7870	3.7870	-0.7821	25.18	0.08	-0.750			
0.2843	18194.60	3.7840	3.7840	-0.7841	25.18	0.08	-0.750			
0.2866	18344.47	3.7810	3.7809	-0.7765	25.18	0.08	-0.750			
0.2889	18491.69	3.7780	3.7779	-0.7773	25.18	0.08	-0.750			
0.2912	18637.91	3.7750	3.7750	-0.7724	25.19	0.09	-0.750			
0.2935	18784.17	3.7720	3.7720	-0.7752	25.19	0.09	-0.750			
0.2959	18937.57	3.7690	3.7690	-0.7806	25.20	0.10	-0.750			
0.2982	19087.28	3.7660	3.7660	-0.7838	25.20	0.10	-0.750			
0.3006	19237.90	3.7630	3.7630	-0.7855	25.20	0.10	-0.750			
0.3030	19389.09	3.7600	3.7600	-0.7951	25.20	0.10	-0.750			
0.3053	19541.70	3.7570	3.7569	-0.7991	25.20	0.10	-0.750			
0.3078	19696.38	3.7540	3.7539	-0.8009	25.20	0.10	-0.750			
0.3102	19850.65	3.7510	3.7512	-0.8075	25.20	0.10	-0.750			
0.3126	20005.85	3.7480	3.7479	-0.8177	25.20	0.10	-0.750			
0.3150	20162.42	3.7450	3.7449	-0.8311	25.20	0.10	-0.750			
0.3176	20324.54	3.7420	3.7419	-0.8389	25.20	0.10	-0.750			
0.3201	20485.56	3.7390	3.7389	-0.8426	25.20	0.10	-0.750			
0.3227	20652.58	3.7360	3.7363	-0.8573	25.20	0.10	-0.750			
0.3253	20817.44	3.7330	3.7328	-0.8657	25.20	0.10	-0.750			
0.3278	20981.68	3.7300	3.7299	-0.8755	25.19	0.09	-0.750			
0.3305	21150.03	3.7270	3.7270	-0.8852	25.19	0.09	-0.750			
0.3331	21318.86	3.7240	3.7239	-0.8940	25.18	0.08	-0.750			
0.3359	21497.23	3.7210	3.7214	-0.9136	25.18	0.08	-0.750			
0.3386	21672.64	3.7180	3.7179	-0.9360	25.18	0.08	-0.750			
0.3415	21855.19	3.7150	3.7150	-0.9437	25.18	0.08	-0.750			
0.3443	22036.33	3.7120	3.7117	-0.9615	25.18	0.08	-0.750			
0.3472	22222.61	3.7090	3.7091	-1.0011	25.18	0.08	-0.750			
0.3503	22420.57	3.7060	3.7057	-1.0261	25.18	0.08	-0.750			
0.3535	22625.12	3.7030	3.7027	-1.0368	25.18	0.08	-0.750			
0.3567	22826.05	3.7000	3.7001	-1.0331	25.17	0.07	-0.750	0.366	0.500	
0.3597	23020.54	3.6970	3.6973	-1.0329	25.17	0.07	-0.750			
0.3629	23223.81	3.6940	3.6937	-1.0568	25.17	0.07	-0.750			
0.3659	23418.69	3.6910	3.6908	-1.0631	25.16	0.06	-0.750			
0.3690	23615.56	3.6880	3.6880	-1.0750	25.15	0.05	-0.750			
0.3723	23828.72	3.6850	3.6849	-1.1080	25.14	0.04	-0.750			
0.3759	24055.36	3.6820	3.6820	-1.1529	25.14	0.04	-0.750			
0.3794	24279.96	3.6790	3.6789	-1.1685	25.13	0.03	-0.750			
0.3829	24506.32	3.6760	3.6759	-1.1804	25.12	0.02	-0.750			
0.3865	24734.24	3.6730	3.6732	-1.2167	25.12	0.02	-0.750			
0.3902	24973.69	3.6700	3.6699	-1.2298	25.11	0.01	-0.750			
0.3939	25212.54	3.6670	3.6668	-1.2468	25.10	0.00	-0.750			
0.3977	25450.59	3.6640	3.6639	-1.2609	25.09	-0.01	-0.750			
0.4016	25700.73	3.6610	3.6607	-1.2911	25.08	-0.02	-0.750			
0.4054	25945.59	3.6580	3.6579	-1.3113	25.07	-0.03	-0.750			
0.4093	26195.51	3.6550	3.6549	-1.3386	25.06	-0.04	-0.750			
0.4135	26461.51	3.6520	3.6519	-1.3753	25.06	-0.04	-0.750			
0.4176	26729.23	3.6490	3.6488	-1.3937	25.05	-0.05	-0.750			
0.4219	26998.45	3.6460	3.6461	-1.4298	25.04	-0.06	-0.750			
0.4262	27276.39	3.6430	3.6428	-1.4526	25.04	-0.06	-0.750			
0.4307	27566.42	3.6400	3.6397	-1.4691	25.03	-0.07	-0.750			
0.4351	27846.20	3.6370	3.6374	-1.4858	25.02	-0.08	-0.750			
0.4395	28126.77	3.6340	3.6343	-1.5136	25.01	-0.09	-0.750			
0.4442	28427.20	3.6310	3.6307	-1.5454	25.01	-0.09	-0.750			
0.4488	28722.02	3.6280	3.6281	-1.5751	25.00	-0.10	-0.750			
0.4536	29028.41	3.6250	3.6245	-1.6171	24.99	-0.11	-0.750			
0.4584	29339.19	3.6220	3.6218	-1.6746	24.98	-0.12	-0.750			
0.4636	29669.66	3.6190	3.6188	-1.7362	24.98	-0.12	-0.750			
0.4690	30014.07	3.6160	3.6156	-1.7576	24.97	-0.13	-0.750			
0.4742	30351.00	3.6130	3.6128	-1.7744	24.96	-0.14	-0.750			
0.4796	30697.56	3.6100	3.6100	-1.8250	24.95	-0.15	-0.750			
0.4853	31061.26	3.6070	3.6070	-1.8599	24.94	-0.16	-0.750			
0.4907	31402.44	3.6040	3.6042	-1.8991	24.93	-0.17	-0.750			
0.4965	31774.96	3.6010	3.6011	-1.8954	24.92	-0.18	-0.750			
0.5023	32144.98	3.5980	3.5978	-1.9249	24.92	-0.18	-0.750			
0.5082	32523.35	3.5950	3.5950	-1.9488	24.92	-0.18	-0.750			
0.5141	32904.16	3.5920	3.5918	-2.0156	24.91	-0.19	-0.750			
0.5201	33288.61	3.5890	3.5890	-2.0660	24.91	-0.19	-0.750			
0.5263	33683.32	3.5860	3.5862	-2.0651	24.90	-0.20	-0.750			
0.5328	34102.29	3.5830	3.5833	-2.1017	24.88	-0.22	-0.750			
0.5391	34500.53	3.5800	3.5804	-2.1382	24.88	-0.22	-0.750			
0.5454	34908.30	3.5770	3.5770	-2.1326	24.88	-0.22	-0.750			
0.5519	35319.43	3.5740	3.5738	-2.1573	24.88	-0.22	-0.750			
0.5584	35736.70	3.5710	3.5711	-2.2242	24.87	-0.23	-0.750			
0.5652	36174.43	3.5680	3.5682	-2.2658	24.87	-0.23	-0.750			
0.5720	36607.76	3.5650	3.5649	-2.2143	24.88	-0.22	-0.750			
0.5787	37035.49	3.5620	3.5617	-2.1833	24.88	-0.22	-0.750			
0.5850	37439.38	3.5590	3.5588	-2.1913	24.87	-0.23	-0.750			
0.5917	37867.76	3.5560	3.5562	-2.1644	24.87	-0.23	-0.750			
0.5983	38292.72	3.5530	3.5529	-2.1900	24.88	-0.22	-0.750			
0.6049	38716.73	3.5500	3.5503	-2.2226	24.88	-0.22	-0.750			
0.6115	39137.27	3.5470	3.5471	-2.1548	24.88	-0.22	-0.750			
0.6180	39552.72	3.5440	3.5439	-2.1088	24.89	-0.21	-0.750			
0.6243	39955.34	3.5410	3.5411	-2.0457	24.89	-0.21	-0.750			
0.6304	40346.56	3.5380	3.5382	-1.9882	24.90	-0.20	-0.750			
0.6363	40724.03	3.5350	3.5350	-1.9615	24.90	-0.20	-0.750			
0.6421	41093.11	3.5320	3.5317	-1.9178	24.92	-0.18	-0.750			
0.6478	41458.04	3.5290	3.5288	-1.8622	24.93	-0.17	-0.750			
0.6534	41819.71	3.5260	3.5260	-1.8346	24.94	-0.16	-0.750			
0.6588	42165.28	3.5230	3.5228	-1.7883	24.96	-0.14	-0.750			
0.6641	42500.34	3.5200	3.5201	-1.7398	24.97	-0.13	-0.750			
0.6693	42832.93	3.5170	3.5171	-1.7194	24.99	-0.11	-0.750			
0.6743	43156.31	3.5140	3.5139	-1.6693	25.00	-0.10	-0.750			
0.6793	43475.67	3.5110	3.5107	-1.6452	25.03	-0.07	-0.750			
0.6842	43787.52	3.5080	3.5079	-1.6109	25.05	-0.05	-0.750			
0.6891	44103.56	3.5050	3.5049	-1.5689	25.07	-0.03	-0.750			
0.6938	44404.48	3.5020	3.5021	-1.5153	25.09	-0.01	-0.750			
0.6983	44688.85	3.4990	3.4996	-1.4548	25.10	-0.00	-0.750			
0.7026	44963.53	3.4960	3.4959	-1.4052	25.12	0.02	-0.750			
0.7068	45232.91	3.4930	3.4930	-1.3555	25.13	0.03	-0.750			
0.7107	45482.55	3.4900	3.4902	-1.3328	25.15	0.05	-0.750			
0.7146	45734.18	3.4870	3.4870	-1.2259	25.17	0.07	-0.750			
