Ah_balance (normalized)	Ah_balance (mAh)	Voltage - fit (V)	Voltage -  interpolate (V)	dQ/dV (1/V)	Temperature (°C)	Temperature - diff (°C)	Current (C)	R_DC 0ms (mOhm)	R_DC 50ms (mOhm)	R_DC 50 ms PEC (mOhm)
0.0003	18.26	4.1650	4.1647	-0.1268	25.15	0.02	-0.750			
0.0007	46.56	4.1620	4.1619	-0.1749	25.15	0.02	-0.750			
0.0014	86.55	4.1590	4.1590	-0.2258	25.14	0.01	-0.750			
0.0021	134.97	4.1560	4.1560	-0.2725	25.14	0.01	-0.750			
0.0030	191.20	4.1530	4.1531	-0.3216	25.14	0.01	-0.750			
0.0040	258.67	4.1500	4.1500	-0.3641	25.14	0.01	-0.750			
0.0052	333.60	4.1470	4.1470	-0.4045	25.14	0.01	-0.750			
0.0065	415.36	4.1440	4.1439	-0.4437	25.13	0.00	-0.750			
0.0079	503.72	4.1410	4.1411	-0.4811	25.13	-0.00	-0.750			
0.0094	600.28	4.1380	4.1381	-0.5192	25.13	-0.00	-0.750			
0.0110	703.29	4.1350	4.1349	-0.5528	25.12	-0.01	-0.750			
0.0127	813.09	4.1320	4.1321	-0.5850	25.12	-0.01	-0.750			
0.0146	931.74	4.1290	4.1290	-0.6127	25.11	-0.02	-0.750			
0.0165	1054.25	4.1260	4.1260	-0.6326	25.11	-0.02	-0.750			
0.0184	1177.57	4.1230	4.1231	-0.6469	25.10	-0.03	-0.750			
0.0203	1301.98	4.1200	4.1201	-0.6626	25.10	-0.03	-0.750			
0.0223	1430.31	4.1170	4.1169	-0.6771	25.09	-0.04	-0.750			
0.0244	1560.49	4.1140	4.1140	-0.6902	25.09	-0.04	-0.750			
0.0265	1694.94	4.1110	4.1110	-0.7024	25.08	-0.05	-0.750			
0.0287	1834.99	4.1080	4.1080	-0.7115	25.08	-0.05	-0.750			
0.0308	1972.37	4.1050	4.1049	-0.7139	25.07	-0.06	-0.750			
0.0330	2108.85	4.1020	4.1021	-0.7194	25.07	-0.06	-0.750			
0.0351	2246.12	4.0990	4.0990	-0.7271	25.07	-0.06	-0.750			
0.0373	2385.28	4.0960	4.0959	-0.7418	25.07	-0.06	-0.750			
0.0395	2530.43	4.0930	4.0929	-0.7507	25.06	-0.07	-0.750			
0.0419	2679.04	4.0900	4.0899	-0.7518	25.06	-0.07	-0.750			
0.0441	2824.43	4.0870	4.0869	-0.7509	25.06	-0.07	-0.750			
0.0464	2968.31	4.0840	4.0839	-0.7563	25.06	-0.07	-0.750			
0.0486	3112.37	4.0810	4.0808	-0.7546	25.06	-0.07	-0.750			
0.0509	3254.69	4.0780	4.0779	-0.7596	25.06	-0.07	-0.750			
0.0532	3403.94	4.0750	4.0750	-0.7723	25.06	-0.07	-0.750			
0.0555	3554.82	4.0720	4.0719	-0.7735	25.06	-0.07	-0.750			
0.0579	3704.02	4.0690	4.0693	-0.7699	25.06	-0.07	-0.750			
0.0602	3850.42	4.0660	4.0660	-0.7680	25.06	-0.07	-0.750			
0.0624	3995.29	4.0630	4.0630	-0.7724	25.06	-0.07	-0.750			
0.0647	4140.00	4.0600	4.0599	-0.7693	25.06	-0.07	-0.750			
0.0671	4293.27	4.0570	4.0570	-0.7791	25.06	-0.07	-0.750			
0.0694	4444.38	4.0540	4.0541	-0.7869	25.06	-0.07	-0.750			
0.0718	4595.91	4.0510	4.0510	-0.7880	25.06	-0.07	-0.750			
0.0742	4746.57	4.0480	4.0478	-0.7985	25.06	-0.07	-0.750			
0.0766	4899.67	4.0450	4.0450	-0.7922	25.06	-0.07	-0.750			
0.0790	5052.98	4.0420	4.0418	-0.7899	25.06	-0.07	-0.750			
0.0814	5208.03	4.0390	4.0391	-0.7908	25.06	-0.07	-0.750			
0.0837	5358.08	4.0360	4.0360	-0.7939	25.06	-0.07	-0.750			
0.0860	5506.64	4.0330	4.0329	-0.7931	25.06	-0.07	-0.750			
0.0884	5659.18	4.0300	4.0300	-0.7932	25.06	-0.07	-0.750			
0.0907	5807.48	4.0270	4.0270	-0.7923	25.06	-0.07	-0.750			
0.0932	5966.88	4.0240	4.0241	-0.8087	25.06	-0.07	-0.750			
0.0957	6121.76	4.0210	4.0209	-0.8090	25.06	-0.07	-0.750			
0.0981	6276.27	4.0180	4.0181	-0.8131	25.06	-0.07	-0.750			
0.1005	6431.57	4.0150	4.0150	-0.8105	25.06	-0.07	-0.750			
0.1029	6588.13	4.0120	4.0120	-0.8102	25.06	-0.07	-0.750			
0.1054	6746.14	4.0090	4.0090	-0.8127	25.06	-0.07	-0.750			
0.1078	6899.90	4.0060	4.0061	-0.8093	25.06	-0.07	-0.750			
0.1102	7054.95	4.0030	4.0029	-0.8086	25.06	-0.07	-0.750			
0.1126	7208.03	4.0000	4.0001	-0.8199	25.06	-0.07	-0.750			
0.1151	7368.74	3.9970	3.9968	-0.8163	25.07	-0.06	-0.750			
0.1176	7527.92	3.9940	3.9939	-0.8186	25.07	-0.06	-0.750			
0.1201	7684.75	3.9910	3.9915	-0.8182	25.07	-0.06	-0.750			
0.1225	7841.43	3.9880	3.9878	-0.8193	25.07	-0.06	-0.750			
0.1250	7997.85	3.9850	3.9849	-0.8249	25.07	-0.06	-0.750			
0.1274	8154.47	3.9820	3.9819	-0.8192	25.08	-0.05	-0.750			
0.1299	8314.39	3.9790	3.9789	-0.8281	25.08	-0.05	-0.750			
0.1324	8474.67	3.9760	3.9764	-0.8320	25.08	-0.05	-0.750			
0.1349	8633.92	3.9730	3.9730	-0.8309	25.08	-0.05	-0.750			
0.1374	8792.10	3.9700	3.9699	-0.8382	25.09	-0.04	-0.750			
0.1399	8952.03	3.9670	3.9669	-0.8356	25.09	-0.04	-0.750			
0.1424	9114.62	3.9640	3.9640	-0.8483	25.10	-0.03	-0.750			
0.1450	9278.94	3.9610	3.9614	-0.8471	25.10	-0.03	-0.750			
0.1475	9441.55	3.9580	3.9579	-0.8510	25.10	-0.03	-0.750			
0.1501	9606.80	3.9550	3.9550	-0.8593	25.10	-0.03	-0.750			
0.1527	9771.39	3.9520	3.9518	-0.8576	25.11	-0.02	-0.750			
0.1553	9938.83	3.9490	3.9488	-0.8613	25.11	-0.02	-0.750			
0.1579	10104.09	3.9460	3.9463	-0.8595	25.11	-0.02	-0.750			
0.1604	10266.52	3.9430	3.9430	-0.8617	25.11	-0.02	-0.750			
0.1630	10432.58	3.9400	3.9399	-0.8630	25.11	-0.02	-0.750			
0.1655	10593.24	3.9370	3.9369	-0.8541	25.12	-0.01	-0.750			
0.1682	10763.79	3.9340	3.9339	-0.8660	25.12	-0.01	-0.750			
0.1708	10930.91	3.9310	3.9311	-0.8666	25.12	-0.01	-0.750			
0.1734	11096.74	3.9280	3.9280	-0.8652	25.13	-0.00	-0.750			
0.1760	11261.06	3.9250	3.9250	-0.8609	25.13	-0.00	-0.750			
0.1785	11423.82	3.9220	3.9220	-0.8606	25.13	0.00	-0.750			
0.1811	11591.28	3.9190	3.9189	-0.8690	25.14	0.01	-0.750			
0.1837	11758.01	3.9160	3.9160	-0.8730	25.14	0.01	-0.750			
0.1864	11926.97	3.9130	3.9130	-0.8818	25.14	0.01	-0.750			
0.1890	12097.49	3.9100	3.9099	-0.8854	25.14	0.01	-0.750			
0.1917	12267.31	3.9070	3.9070	-0.8864	25.14	0.01	-0.750			
0.1944	12439.78	3.9040	3.9040	-0.8924	25.14	0.01	-0.750			
0.1970	12610.12	3.9010	3.9009	-0.9004	25.14	0.01	-0.750			
0.1998	12784.54	3.8980	3.8980	-0.9052	25.15	0.02	-0.750			
0.2025	12959.02	3.8950	3.8949	-0.9001	25.15	0.02	-0.750			
0.2052	13134.83	3.8920	3.8920	-0.9043	25.16	0.03	-0.750			
0.2079	13307.05	3.8890	3.8892	-0.8982	25.16	0.03	-0.750			
0.2106	13477.87	3.8860	3.8860	-0.8969	25.16	0.03	-0.750			
0.2133	13648.80	3.8830	3.8829	-0.8952	25.16	0.03	-0.750			
0.2159	13819.20	3.8800	3.8801	-0.8938	25.17	0.04	-0.750			
0.2186	13992.04	3.8770	3.8769	-0.8972	25.17	0.04	-0.750			
0.2213	14165.09	3.8740	3.8741	-0.8992	25.17	0.04	-0.750			
0.2240	14339.06	3.8710	3.8709	-0.8980	25.17	0.04	-0.750			
0.2267	14510.94	3.8680	3.8680	-0.8938	25.18	0.05	-0.750			
0.2294	14682.00	3.8650	3.8650	-0.8890	25.18	0.05	-0.750			
0.2321	14852.99	3.8620	3.8620	-0.8881	25.18	0.05	-0.750			
0.2347	15021.82	3.8590	3.8589	-0.8903	25.18	0.05	-0.750			
0.2374	15192.45	3.8560	3.8560	-0.8895	25.19	0.06	-0.750			
0.2400	15361.81	3.8530	3.8530	-0.8916	25.19	0.06	-0.750			
0.2428	15536.28	3.8500	3.8498	-0.8982	25.20	0.07	-0.750			
0.2454	15708.25	3.8470	3.8473	-0.8964	25.20	0.07	-0.750			
0.2481	15879.86	3.8440	3.8440	-0.8987	25.20	0.07	-0.750			
0.2508	16052.82	3.8410	3.8410	-0.8994	25.20	0.07	-0.750			
0.2535	16223.24	3.8380	3.8379	-0.8960	25.21	0.08	-0.750			
0.2562	16396.39	3.8350	3.8350	-0.9076	25.21	0.08	-0.750			
0.2589	16568.35	3.8320	3.8319	-0.9168	25.21	0.08	-0.750			
0.2617	16747.63	3.8290	3.8290	-0.9329	25.21	0.08	-0.750			
0.2646	16931.80	3.8260	3.8258	-0.9278	25.22	0.09	-0.750			
0.2674	17111.96	3.8230	3.8230	-0.9256	25.22	0.09	-0.750			
0.2702	17290.76	3.8200	3.8203	-0.9211	25.22	0.09	-0.750			
0.2729	17466.46	3.8170	3.8169	-0.9167	25.22	0.09	-0.750			
0.2756	17639.85	3.8140	3.8139	-0.9104	25.22	0.09	-0.750			
0.2783	17808.76	3.8110	3.8110	-0.9050	25.23	0.10	-0.750			
0.2810	17986.59	3.8080	3.8079	-0.9087	25.23	0.10	-0.750			
0.2838	18161.76	3.8050	3.8051	-0.9042	25.23	0.10	-0.750			
0.2865	18333.95	3.8020	3.8020	-0.9066	25.24	0.11	-0.750			
0.2892	18507.40	3.7990	3.7989	-0.9063	25.24	0.11	-0.750			
0.2919	18679.34	3.7960	3.7959	-0.9076	25.25	0.12	-0.750			
0.2946	18855.42	3.7930	3.7930	-0.9126	25.25	0.12	-0.750			
0.2973	19029.29	3.7900	3.7900	-0.9260	25.25	0.12	-0.750			
0.3002	19212.46	3.7870	3.7869	-0.9201	25.25	0.12	-0.750			
0.3030	19391.02	3.7840	3.7839	-0.9115	25.26	0.13	-0.750			
0.3057	19565.18	3.7810	3.7809	-0.9080	25.26	0.13	-0.750			
0.3084	19738.41	3.7780	3.7780	-0.8975	25.26	0.13	-0.750			
0.3111	19907.90	3.7750	3.7748	-0.9000	25.26	0.13	-0.750			
0.3137	20078.73	3.7720	3.7720	-0.8955	25.27	0.14	-0.750			
0.3164	20247.77	3.7690	3.7690	-0.8888	25.27	0.14	-0.750			
0.3191	20424.05	3.7660	3.7659	-0.9022	25.27	0.14	-0.750			
0.3218	20597.22	3.7630	3.7630	-0.9049	25.27	0.14	-0.750			
0.3245	20770.76	3.7600	3.7600	-0.8981	25.27	0.14	-0.750			
0.3272	20943.56	3.7570	3.7569	-0.8949	25.28	0.15	-0.750			
0.3299	21112.33	3.7540	3.7541	-0.8949	25.28	0.15	-0.750			
0.3326	21286.29	3.7510	3.7513	-0.9021	25.28	0.15	-0.750			
0.3353	21457.36	3.7480	3.7480	-0.9129	25.28	0.15	-0.750			
0.3380	21634.14	3.7450	3.7449	-0.9110	25.29	0.16	-0.750			
0.3408	21810.71	3.7420	3.7420	-0.9117	25.29	0.16	-0.750			
0.3436	21988.62	3.7390	3.7390	-0.9166	25.30	0.17	-0.750			
0.3463	22163.02	3.7360	3.7360	-0.9155	25.30	0.17	-0.750			
0.3490	22334.69	3.7330	3.7330	-0.9339	25.30	0.17	-0.750			
0.3518	22516.43	3.7300	3.7299	-0.9468	25.30	0.17	-0.750			
0.3546	22697.34	3.7270	3.7269	-0.9600	25.30	0.17	-0.750			
0.3576	22889.17	3.7240	3.7243	-0.9719	25.30	0.17	-0.750			
0.3606	23080.12	3.7210	3.7210	-0.9871	25.30	0.17	-0.750			
0.3636	23269.27	3.7180	3.7180	-0.9927	25.30	0.17	-0.750			
0.3665	23456.49	3.7150	3.7150	-1.0035	25.31	0.18	-0.750			
0.3695	23650.96	3.7120	3.7120	-1.0149	25.31	0.18	-0.750			
0.3726	23848.31	3.7090	3.7089	-1.0293	25.31	0.18	-0.750			
0.3758	24048.85	3.7060	3.7059	-1.0364	25.31	0.18	-0.750	0.368	0.467	
0.3789	24249.06	3.7030	3.7029	-1.0511	25.31	0.18	-0.750			
0.3820	24450.34	3.7000	3.7001	-1.0538	25.31	0.18	-0.750			
0.3852	24652.20	3.6970	3.6969	-1.0737	25.31	0.18	-0.750			
0.3884	24858.30	3.6940	3.6941	-1.0870	25.31	0.18	-0.750			
0.3917	25071.45	3.6910	3.6909	-1.1190	25.30	0.17	-0.750			
0.3951	25286.93	3.6880	3.6883	-1.1436	25.30	0.17	-0.750			
0.3986	25510.87	3.6850	3.6850	-1.1710	25.30	0.17	-0.750			
0.4021	25736.51	3.6820	3.6819	-1.1943	25.29	0.16	-0.750			
0.4057	25967.69	3.6790	3.6790	-1.2284	25.29	0.16	-0.750			
0.4095	26208.76	3.6760	3.6759	-1.2532	25.29	0.16	-0.750			
0.4133	26452.05	3.6730	3.6730	-1.2738	25.28	0.15	-0.750			
0.4171	26695.22	3.6700	3.6701	-1.3069	25.27	0.14	-0.750			
0.4211	26950.38	3.6670	3.6670	-1.3350	25.27	0.14	-0.750			
0.4252	27210.66	3.6640	3.6639	-1.3680	25.27	0.14	-0.750			
0.4293	27474.24	3.6610	3.6610	-1.3989	25.26	0.13	-0.750			
0.4335	27743.37	3.6580	3.6582	-1.4359	25.26	0.13	-0.750			
0.4379	28027.66	3.6550	3.6549	-1.4709	25.25	0.12	-0.750			
0.4424	28313.55	3.6520	3.6520	-1.5098	25.24	0.11	-0.750			
0.4470	28605.94	3.6490	3.6489	-1.5413	25.23	0.10	-0.750			
0.4517	28910.77	3.6460	3.6460	-1.5729	25.22	0.09	-0.750			
0.4565	29217.53	3.6430	3.6431	-1.6041	25.21	0.08	-0.750			
0.4614	29526.70	3.6400	3.6400	-1.6353	25.20	0.07	-0.750			
0.4662	29838.62	3.6370	3.6369	-1.6894	25.19	0.06	-0.750			
0.4713	30166.17	3.6340	3.6340	-1.7220	25.18	0.05	-0.750			
0.4766	30501.45	3.6310	3.6310	-1.7545	25.17	0.04	-0.750			
0.4820	30844.88	3.6280	3.6283	-1.7947	25.17	0.04	-0.750			
0.4874	31196.12	3.6250	3.6249	-1.8331	25.16	0.03	-0.750			
0.4932	31567.98	3.6220	3.6219	-1.7856	25.14	0.01	-0.750			
0.4986	31909.03	3.6190	3.6189	-1.7568	25.13	0.00	-0.750			
0.5035	32224.50	3.6160	3.6166	-1.7657	25.13	-0.00	-0.750			
0.5088	32561.90	3.6130	3.6123	-1.7970	25.12	-0.01	-0.750			
0.5140	32896.56	3.6100	3.6093	-1.8334	25.11	-0.02	-0.750			
0.5195	33250.50	3.6070	3.6070	-1.8986	25.11	-0.02	-0.750			
0.5254	33624.38	3.6040	3.6038	-1.9947	25.10	-0.03	-0.750			
0.5318	34033.15	3.6010	3.6011	-2.1049	25.09	-0.04	-0.750			
0.5381	34438.69	3.5980	3.5984	-2.1280	25.09	-0.04	-0.750			
0.5447	34863.49	3.5950	3.5950	-2.2026	25.08	-0.05	-0.750			
0.5515	35297.73	3.5920	3.5923	-2.2719	25.07	-0.06	-0.750			
0.5584	35736.49	3.5890	3.5889	-2.2534	25.06	-0.07	-0.750			
0.5653	36176.53	3.5860	3.5858	-2.2721	25.06	-0.07	-0.750			
0.5721	36615.89	3.5830	3.5826	-2.3136	25.06	-0.07	-0.750			
0.5790	37053.07	3.5800	3.5796	-2.3423	25.06	-0.07	-0.750			
0.5858	37492.63	3.5770	3.5769	-2.3805	25.06	-0.07	-0.750			
0.5932	37966.43	3.5740	3.5741	-2.4057	25.06	-0.07	-0.750			
0.6005	38432.56	3.5710	3.5705	-2.3985	25.06	-0.07	-0.750			
0.6078	38896.30	3.5680	3.5684	-2.4292	25.06	-0.07	-0.750			
0.6150	39358.86	3.5650	3.5655	-2.4168	25.05	-0.08	-0.750			
0.6221	39813.32	3.5620	3.5620	-2.4000	25.05	-0.08	-0.750			
0.6295	40289.78	3.5590	3.5586	-2.4058	25.06	-0.07	-0.750			
0.6366	40744.91	3.5560	3.5562	-2.3799	25.06	-0.07	-0.750			
0.6439	41207.47	3.5530	3.5535	-2.3926	25.06	-0.07	-0.750			
0.6512	41674.86	3.5500	3.5500	-2.3455	25.07	-0.06	-0.750			
0.6581	42119.61	3.5470	3.5469	-2.3213	25.07	-0.06	-0.750			
0.6652	42570.76	3.5440	3.5438	-2.2978	25.08	-0.05	-0.750			
0.6719	42998.98	3.5410	3.5413	-2.2321	25.08	-0.05	-0.750			
0.6784	43419.53	3.5380	3.5381	-2.1601	25.09	-0.04	-0.750			
0.6848	43827.07	3.5350	3.5347	-2.1560	25.09	-0.04	-0.750			
0.6912	44235.78	3.5320	3.5317	-2.0917	25.10	-0.03	-0.750			
0.6975	44639.88	3.5290	3.5286	-2.0490	25.11	-0.02	-0.750			
0.7037	45038.94	3.5260	3.5257	-2.0311	25.12	-0.01	-0.750			
0.7097	45417.78	3.5230	3.5227	-1.9253	25.14	0.01	-0.750			
0.7154	45788.70	3.5200	3.5196	-1.8640	25.16	0.03	-0.750			
0.7209	46136.09	3.5170	3.5171	-1.7668	25.17	0.04	-0.750			
0.7261	46471.59	3.5140	3.5139	-1.7253	25.19	0.06	-0.750			
0.7312	46794.82	3.5110	3.5112	-1.6481	25.20	0.07	-0.750			
0.7360	47102.26	3.5080	3.5078	-1.5807	25.21	0.08	-0.750			
0.7407	47404.57	3.5050	3.5055	-1.5307	25.23	0.10	-0.750			
0.7453	47698.28	3.5020	3.5019	-1.4532	25.25	0.12	-0.750			
0.7495	47970.94	3.4990	3.4990	-1.3869	25.27	0.14	-0.750			
