Ah_balance (normalized)	Ah_balance (mAh)	Voltage - fit (V)	Voltage -  interpolate (V)	dQ/dV (1/V)	Temperature (°C)	Temperature - diff (°C)	Current (C)	R_DC 0ms (mOhm)	R_DC 50ms (mOhm)	R_DC 50 ms PEC (mOhm)
0.0001	8.64	4.1630	4.1630	-0.1017	24.92	0.04	-0.750			
0.0005	32.43	4.1600	4.1596	-0.1457	24.91	0.03	-0.750			
0.0010	65.05	4.1570	4.1568	-0.1891	24.91	0.03	-0.750			
0.0017	105.99	4.1540	4.1542	-0.2295	24.91	0.03	-0.750			
0.0024	153.29	4.1510	4.1510	-0.2715	24.91	0.03	-0.750			
0.0033	209.68	4.1480	4.1481	-0.3105	24.91	0.03	-0.750			
0.0043	274.67	4.1450	4.1449	-0.3441	24.90	0.02	-0.750			
0.0054	343.53	4.1420	4.1420	-0.3820	24.90	0.02	-0.750			
0.0066	420.23	4.1390	4.1392	-0.4269	24.89	0.01	-0.750			
0.0079	507.14	4.1360	4.1358	-0.4601	24.89	0.01	-0.750			
0.0094	600.56	4.1330	4.1328	-0.4924	24.89	0.01	-0.750			
0.0109	699.26	4.1300	4.1299	-0.5178	24.88	0.00	-0.750			
0.0126	803.48	4.1270	4.1270	-0.5461	24.88	-0.00	-0.750			
0.0142	911.01	4.1240	4.1239	-0.5648	24.87	-0.01	-0.750			
0.0159	1019.01	4.1210	4.1211	-0.5784	24.86	-0.02	-0.750			
0.0177	1132.64	4.1180	4.1179	-0.6017	24.86	-0.02	-0.750			
0.0195	1250.30	4.1150	4.1149	-0.6192	24.85	-0.03	-0.750			
0.0214	1372.15	4.1120	4.1120	-0.6298	24.85	-0.03	-0.750			
0.0233	1493.98	4.1090	4.1091	-0.6412	24.84	-0.04	-0.750			
0.0253	1618.66	4.1060	4.1060	-0.6545	24.84	-0.04	-0.750			
0.0273	1746.28	4.1030	4.1028	-0.6643	24.83	-0.05	-0.750			
0.0293	1874.18	4.1000	4.1000	-0.6737	24.83	-0.05	-0.750			
0.0313	2004.79	4.0970	4.0971	-0.6801	24.83	-0.05	-0.750			
0.0334	2137.57	4.0940	4.0940	-0.6911	24.82	-0.06	-0.750			
0.0355	2272.94	4.0910	4.0909	-0.6915	24.82	-0.06	-0.750			
0.0376	2403.32	4.0880	4.0879	-0.6985	24.82	-0.06	-0.750			
0.0397	2537.60	4.0850	4.0850	-0.7037	24.82	-0.06	-0.750			
0.0418	2673.29	4.0820	4.0820	-0.7147	24.82	-0.06	-0.750			
0.0439	2812.14	4.0790	4.0789	-0.7116	24.81	-0.07	-0.750			
0.0461	2952.65	4.0760	4.0760	-0.7145	24.81	-0.07	-0.750			
0.0483	3088.53	4.0730	4.0729	-0.7149	24.81	-0.07	-0.750			
0.0504	3225.89	4.0700	4.0697	-0.7225	24.81	-0.07	-0.750			
0.0525	3361.42	4.0670	4.0670	-0.7266	24.81	-0.07	-0.750			
0.0547	3500.04	4.0640	4.0639	-0.7321	24.81	-0.07	-0.750			
0.0570	3645.94	4.0610	4.0610	-0.7431	24.81	-0.07	-0.750			
0.0592	3789.61	4.0580	4.0581	-0.7443	24.81	-0.07	-0.750			
0.0614	3932.71	4.0550	4.0551	-0.7417	24.81	-0.07	-0.750			
0.0637	4073.97	4.0520	4.0520	-0.7378	24.81	-0.07	-0.750			
0.0658	4211.77	4.0490	4.0490	-0.7445	24.81	-0.07	-0.750			
0.0681	4356.62	4.0460	4.0458	-0.7510	24.82	-0.06	-0.750			
0.0704	4504.44	4.0430	4.0429	-0.7548	24.82	-0.06	-0.750			
0.0727	4649.74	4.0400	4.0399	-0.7564	24.82	-0.06	-0.750			
0.0750	4797.12	4.0370	4.0369	-0.7536	24.82	-0.06	-0.750			
0.0772	4938.07	4.0340	4.0341	-0.7728	24.82	-0.06	-0.750			
0.0795	5085.15	4.0310	4.0308	-0.7603	24.82	-0.06	-0.750			
0.0818	5232.83	4.0280	4.0278	-0.7681	24.82	-0.06	-0.750			
0.0841	5381.68	4.0250	4.0247	-0.7656	24.82	-0.06	-0.750			
0.0864	5528.29	4.0220	4.0226	-0.7626	24.82	-0.06	-0.750			
0.0887	5674.53	4.0190	4.0189	-0.7640	24.82	-0.06	-0.750			
0.0909	5820.33	4.0160	4.0159	-0.7684	24.82	-0.06	-0.750			
0.0932	5965.80	4.0130	4.0129	-0.7745	24.82	-0.06	-0.750			
0.0955	6114.64	4.0100	4.0100	-0.7788	24.82	-0.06	-0.750			
0.0979	6266.09	4.0070	4.0070	-0.7777	24.82	-0.06	-0.750			
0.1002	6415.89	4.0040	4.0039	-0.7786	24.82	-0.06	-0.750			
0.1025	6563.04	4.0010	4.0011	-0.7817	24.82	-0.06	-0.750			
0.1049	6712.76	3.9980	3.9980	-0.7816	24.82	-0.06	-0.750			
0.1072	6862.92	3.9950	3.9950	-0.7797	24.82	-0.06	-0.750			
0.1096	7014.27	3.9920	3.9919	-0.7856	24.82	-0.06	-0.750			
0.1119	7164.54	3.9890	3.9891	-0.7838	24.82	-0.06	-0.750			
0.1143	7314.35	3.9860	3.9860	-0.7972	24.83	-0.05	-0.750			
0.1167	7468.65	3.9830	3.9828	-0.7930	24.83	-0.05	-0.750			
0.1191	7621.44	3.9800	3.9800	-0.7891	24.83	-0.05	-0.750			
0.1215	7774.55	3.9770	3.9769	-0.7945	24.84	-0.04	-0.750			
0.1239	7929.00	3.9740	3.9746	-0.7920	24.84	-0.04	-0.750			
0.1262	8079.44	3.9710	3.9708	-0.7870	24.84	-0.04	-0.750			
0.1285	8227.03	3.9680	3.9680	-0.7891	24.84	-0.04	-0.750			
0.1309	8374.70	3.9650	3.9652	-0.7875	24.84	-0.04	-0.750			
0.1333	8530.72	3.9620	3.9619	-0.8016	24.84	-0.04	-0.750			
0.1357	8685.39	3.9590	3.9590	-0.8089	24.84	-0.04	-0.750			
0.1381	8841.39	3.9560	3.9561	-0.8083	24.84	-0.04	-0.750			
0.1406	8999.20	3.9530	3.9530	-0.8232	24.84	-0.04	-0.750			
0.1431	9158.38	3.9500	3.9499	-0.8200	24.85	-0.03	-0.750			
0.1456	9315.63	3.9470	3.9469	-0.8099	24.85	-0.03	-0.750			
0.1480	9471.96	3.9440	3.9442	-0.8106	24.85	-0.03	-0.750			
0.1504	9626.08	3.9410	3.9409	-0.8134	24.85	-0.03	-0.750			
0.1528	9780.42	3.9380	3.9377	-0.8248	24.85	-0.03	-0.750			
0.1554	9942.50	3.9350	3.9349	-0.8260	24.86	-0.02	-0.750			
0.1578	10100.25	3.9320	3.9320	-0.8221	24.86	-0.02	-0.750			
0.1604	10266.53	3.9290	3.9294	-0.8292	24.86	-0.02	-0.750			
0.1629	10425.38	3.9260	3.9259	-0.8238	24.86	-0.02	-0.750			
0.1653	10577.84	3.9230	3.9229	-0.8192	24.86	-0.02	-0.750			
0.1677	10732.14	3.9200	3.9200	-0.8187	24.86	-0.02	-0.750			
0.1702	10890.47	3.9170	3.9169	-0.8300	24.86	-0.02	-0.750			
0.1727	11050.48	3.9140	3.9139	-0.8281	24.86	-0.02	-0.750			
0.1752	11210.57	3.9110	3.9110	-0.8346	24.86	-0.02	-0.750			
0.1777	11371.48	3.9080	3.9080	-0.8423	24.87	-0.01	-0.750			
0.1802	11535.53	3.9050	3.9049	-0.8351	24.87	-0.01	-0.750			
0.1827	11694.22	3.9020	3.9019	-0.8345	24.87	-0.01	-0.750			
0.1852	11854.86	3.8990	3.8991	-0.8386	24.88	-0.00	-0.750			
0.1878	12016.06	3.8960	3.8958	-0.8347	24.88	0.00	-0.750			
0.1903	12176.95	3.8930	3.8929	-0.8442	24.88	0.00	-0.750			
0.1928	12338.01	3.8900	3.8900	-0.8401	24.88	0.00	-0.750			
0.1953	12498.94	3.8870	3.8868	-0.8360	24.88	0.00	-0.750			
0.1979	12666.51	3.8840	3.8843	-0.8429	24.88	0.00	-0.750			
0.2004	12824.87	3.8810	3.8808	-0.8327	24.88	0.00	-0.750			
0.2029	12982.60	3.8780	3.8780	-0.8307	24.89	0.01	-0.750			
0.2053	13141.73	3.8750	3.8750	-0.8304	24.89	0.01	-0.750			
0.2078	13296.10	3.8720	3.8720	-0.8270	24.89	0.01	-0.750			
0.2103	13461.79	3.8690	3.8688	-0.8375	24.90	0.02	-0.750			
0.2129	13622.52	3.8660	3.8660	-0.8374	24.90	0.02	-0.750			
0.2154	13785.03	3.8630	3.8630	-0.8461	24.90	0.02	-0.750			
0.2180	13949.94	3.8600	3.8599	-0.8389	24.90	0.02	-0.750			
0.2205	14110.88	3.8570	3.8569	-0.8332	24.90	0.02	-0.750			
0.2230	14270.70	3.8540	3.8542	-0.8296	24.90	0.02	-0.750			
0.2254	14427.94	3.8510	3.8508	-0.8254	24.90	0.02	-0.750			
0.2279	14585.04	3.8480	3.8480	-0.8371	24.91	0.03	-0.750			
0.2305	14749.76	3.8450	3.8448	-0.8235	24.91	0.03	-0.750			
0.2329	14906.45	3.8420	3.8419	-0.8152	24.91	0.03	-0.750			
0.2355	15070.44	3.8390	3.8394	-0.8136	24.92	0.04	-0.750			
0.2378	15220.10	3.8360	3.8360	-0.8413	24.92	0.04	-0.750			
0.2403	15378.01	3.8330	3.8327	-0.8592	24.92	0.04	-0.750			
0.2430	15548.94	3.8300	3.8294	-0.8623	24.92	0.04	-0.750			
0.2457	15722.59	3.8270	3.8272	-0.8786	24.92	0.04	-0.750			
0.2484	15896.00	3.8240	3.8245	-0.8653	24.92	0.04	-0.750			
0.2510	16063.92	3.8210	3.8209	-0.8443	24.92	0.04	-0.750			
0.2534	16217.28	3.8180	3.8179	-0.8208	24.93	0.05	-0.750			
0.2557	16363.18	3.8150	3.8149	-0.7956	24.93	0.05	-0.750			
0.2581	16516.30	3.8120	3.8119	-0.7911	24.94	0.06	-0.750			
0.2604	16668.49	3.8090	3.8089	-0.7808	24.94	0.06	-0.750			
0.2628	16819.33	3.8060	3.8061	-0.7769	24.94	0.06	-0.750			
0.2651	16964.30	3.8030	3.8029	-0.7862	24.95	0.07	-0.750			
0.2674	17113.03	3.8000	3.8000	-0.7709	24.95	0.07	-0.750			
0.2697	17260.10	3.7970	3.7970	-0.7699	24.95	0.07	-0.750			
0.2720	17410.01	3.7940	3.7937	-0.7722	24.96	0.08	-0.750			
0.2744	17558.88	3.7910	3.7909	-0.7731	24.96	0.08	-0.750			
0.2767	17707.82	3.7880	3.7880	-0.7740	24.96	0.08	-0.750			
0.2790	17854.72	3.7850	3.7848	-0.7750	24.96	0.08	-0.750			
0.2813	18004.59	3.7820	3.7820	-0.7820	24.96	0.08	-0.750			
0.2837	18154.45	3.7790	3.7790	-0.7753	24.96	0.08	-0.750			
0.2860	18303.10	3.7760	3.7763	-0.7747	24.96	0.08	-0.750			
0.2883	18451.39	3.7730	3.7729	-0.7738	24.96	0.08	-0.750			
0.2906	18596.58	3.7700	3.7700	-0.7800	24.96	0.08	-0.750			
0.2929	18746.39	3.7670	3.7670	-0.7859	24.97	0.09	-0.750			
0.2953	18899.37	3.7640	3.7639	-0.7949	24.97	0.09	-0.750			
0.2977	19052.81	3.7610	3.7610	-0.7996	24.97	0.09	-0.750			
0.3001	19208.75	3.7580	3.7580	-0.8074	24.97	0.09	-0.750			
0.3025	19362.90	3.7550	3.7550	-0.8169	24.97	0.09	-0.750			
0.3050	19520.63	3.7520	3.7519	-0.8178	24.98	0.10	-0.750			
0.3075	19677.43	3.7490	3.7490	-0.8202	24.98	0.10	-0.750			
0.3100	19838.44	3.7460	3.7460	-0.8275	24.98	0.10	-0.750			
0.3124	19995.81	3.7430	3.7429	-0.8343	24.98	0.10	-0.750			
0.3149	20155.13	3.7400	3.7399	-0.8470	24.97	0.09	-0.750			
0.3175	20318.01	3.7370	3.7370	-0.8571	24.97	0.09	-0.750			
0.3201	20483.99	3.7340	3.7339	-0.8568	24.97	0.09	-0.750			
0.3227	20654.32	3.7310	3.7310	-0.8788	24.96	0.08	-0.750			
0.3253	20821.17	3.7280	3.7280	-0.8935	24.96	0.08	-0.750			
0.3280	20993.61	3.7250	3.7250	-0.9053	24.96	0.08	-0.750			
0.3307	21167.03	3.7220	3.7218	-0.9113	24.96	0.08	-0.750			
0.3334	21339.67	3.7190	3.7190	-0.9279	24.96	0.08	-0.750			
0.3363	21523.87	3.7160	3.7166	-0.9540	24.96	0.08	-0.750			
0.3392	21709.99	3.7130	3.7129	-0.9807	24.95	0.07	-0.750			
0.3422	21898.55	3.7100	3.7099	-0.9985	24.95	0.07	-0.750			
0.3453	22096.97	3.7070	3.7069	-1.0013	24.95	0.07	-0.750			
0.3483	22292.30	3.7040	3.7043	-1.0139	24.94	0.06	-0.750			
0.3514	22487.97	3.7010	3.7008	-1.0228	24.94	0.06	-0.750			
0.3544	22682.80	3.6980	3.6977	-1.0226	24.93	0.05	-0.750	0.364	0.509	
0.3575	22877.28	3.6950	3.6949	-1.0384	24.93	0.05	-0.750			
0.3606	23075.64	3.6920	3.6918	-1.0530	24.92	0.04	-0.750			
0.3637	23277.46	3.6890	3.6890	-1.0825	24.91	0.03	-0.750			
0.3671	23495.78	3.6860	3.6859	-1.1105	24.91	0.03	-0.750			
0.3705	23709.72	3.6830	3.6829	-1.1221	24.90	0.02	-0.750			
0.3739	23930.35	3.6800	3.6804	-1.1548	24.89	0.01	-0.750			
0.3774	24155.45	3.6770	3.6769	-1.1618	24.88	0.00	-0.750			
0.3809	24376.91	3.6740	3.6739	-1.1763	24.87	-0.01	-0.750			
0.3844	24603.50	3.6710	3.6709	-1.1831	24.86	-0.02	-0.750			
0.3880	24833.52	3.6680	3.6677	-1.2159	24.86	-0.02	-0.750			
0.3917	25066.36	3.6650	3.6649	-1.2345	24.85	-0.03	-0.750			
0.3954	25302.54	3.6620	3.6620	-1.2560	24.85	-0.03	-0.750			
0.3991	25543.72	3.6590	3.6593	-1.2900	24.84	-0.04	-0.750			
0.4032	25805.56	3.6560	3.6558	-1.3187	24.83	-0.05	-0.750			
0.4072	26059.07	3.6530	3.6529	-1.3312	24.83	-0.05	-0.750			
0.4112	26319.46	3.6500	3.6504	-1.3658	24.82	-0.06	-0.750			
0.4154	26584.11	3.6470	3.6467	-1.3852	24.81	-0.07	-0.750			
0.4196	26851.25	3.6440	3.6438	-1.4003	24.81	-0.07	-0.750			
0.4237	27119.17	3.6410	3.6416	-1.4220	24.80	-0.08	-0.750			
0.4281	27398.92	3.6380	3.6379	-1.4558	24.79	-0.09	-0.750			
0.4325	27678.01	3.6350	3.6350	-1.4896	24.78	-0.10	-0.750			
0.4368	27957.13	3.6320	3.6322	-1.5192	24.77	-0.11	-0.750			
0.4416	28264.08	3.6290	3.6289	-1.5471	24.77	-0.11	-0.750			
0.4463	28562.82	3.6260	3.6257	-1.5716	24.76	-0.12	-0.750			
0.4511	28867.65	3.6230	3.6229	-1.6091	24.76	-0.12	-0.750			
0.4560	29181.72	3.6200	3.6197	-1.6475	24.75	-0.13	-0.750			
0.4609	29498.67	3.6170	3.6174	-1.6653	24.74	-0.14	-0.750			
0.4660	29821.90	3.6140	3.6144	-1.6919	24.73	-0.15	-0.750			
0.4710	30142.04	3.6110	3.6112	-1.7054	24.72	-0.16	-0.750			
0.4763	30481.22	3.6080	3.6075	-1.7426	24.72	-0.16	-0.750			
0.4815	30815.62	3.6050	3.6047	-1.7838	24.71	-0.17	-0.750			
0.4869	31162.37	3.6020	3.6021	-1.8308	24.70	-0.18	-0.750			
0.4925	31518.76	3.5990	3.5991	-1.8812	24.69	-0.19	-0.750			
0.4981	31876.07	3.5960	3.5962	-1.9336	24.69	-0.19	-0.750			
0.5040	32256.25	3.5930	3.5933	-1.9613	24.69	-0.19	-0.750			
0.5100	32643.11	3.5900	3.5900	-2.0051	24.68	-0.20	-0.750			
0.5161	33028.16	3.5870	3.5873	-2.0650	24.68	-0.20	-0.750			
0.5222	33423.50	3.5840	3.5840	-2.0549	24.68	-0.20	-0.750			
0.5285	33823.89	3.5810	3.5810	-2.0794	24.68	-0.20	-0.750			
0.5346	34215.85	3.5780	3.5778	-2.1238	24.67	-0.21	-0.750			
0.5412	34637.91	3.5750	3.5752	-2.1310	24.67	-0.21	-0.750			
0.5477	35054.57	3.5720	3.5722	-2.1379	24.66	-0.22	-0.750			
0.5544	35479.80	3.5690	3.5693	-2.1825	24.66	-0.22	-0.750			
0.5606	35881.26	3.5660	3.5660	-2.1337	24.67	-0.21	-0.750			
0.5670	36289.90	3.5630	3.5627	-2.1117	24.67	-0.21	-0.750			
0.5734	36698.51	3.5600	3.5602	-2.1147	24.68	-0.20	-0.750			
0.5798	37104.35	3.5570	3.5573	-2.1352	24.68	-0.20	-0.750			
0.5863	37523.70	3.5540	3.5540	-2.1262	24.69	-0.19	-0.750			
0.5926	37926.82	3.5510	3.5508	-2.1203	24.70	-0.18	-0.750			
0.5989	38327.24	3.5480	3.5481	-2.0781	24.70	-0.18	-0.750			
0.6051	38728.16	3.5450	3.5452	-2.0487	24.71	-0.17	-0.750			
0.6112	39115.77	3.5420	3.5425	-2.0413	24.71	-0.17	-0.750			
0.6173	39509.53	3.5390	3.5392	-2.0238	24.72	-0.16	-0.750			
0.6233	39888.42	3.5360	3.5358	-1.9599	24.73	-0.15	-0.750			
0.6292	40269.34	3.5330	3.5333	-1.9396	24.74	-0.14	-0.750			
0.6349	40636.05	3.5300	3.5302	-1.8982	24.76	-0.12	-0.750			
0.6407	41002.93	3.5270	3.5269	-1.8632	24.77	-0.11	-0.750			
0.6461	41352.97	3.5240	3.5239	-1.7957	24.78	-0.10	-0.750			
0.6515	41696.01	3.5210	3.5208	-1.7673	24.79	-0.09	-0.750			
0.6567	42029.46	3.5180	3.5178	-1.7181	24.81	-0.07	-0.750			
0.6618	42353.83	3.5150	3.5149	-1.6649	24.82	-0.06	-0.750			
0.6667	42666.10	3.5120	3.5116	-1.6270	24.84	-0.04	-0.750			
0.6715	42978.16	3.5090	3.5090	-1.5988	24.86	-0.02	-0.750			
0.6764	43287.10	3.5060	3.5058	-1.5536	24.88	0.00	-0.750			
0.6811	43589.98	3.5030	3.5031	-1.5216	24.90	0.02	-0.750			
0.6855	43869.52	3.5000	3.5003	-1.4561	24.92	0.04	-0.750			
0.6898	44149.02	3.4970	3.4969	-1.4193	24.94	0.06	-0.750			
0.6940	44418.10	3.4940	3.4939	-1.3700	24.96	0.08	-0.750			
0.6980	44670.83	3.4910	3.4912	-1.3338	24.98	0.10	-0.750			
0.7020	44929.51	3.4880	3.4880	-1.2777	25.00	0.12	-0.750			
0.7058	45168.12	3.4850	3.4850	-1.2049	25.01	0.13	-0.750			
