Ah_balance (normalized)	Ah_balance (mAh)	Voltage - fit (V)	Voltage -  interpolate (V)	dQ/dV (1/V)	Temperature (°C)	Temperature - diff (°C)	Current (C)	R_DC 0ms (mOhm)	R_DC 50ms (mOhm)	R_DC 50 ms PEC (mOhm)
0.0002	15.28	4.1630	4.1631	-0.1351	24.82	0.00	-0.750			
0.0007	46.30	4.1600	4.1599	-0.1810	24.82	0.00	-0.750			
0.0013	85.44	4.1570	4.1569	-0.2209	24.82	0.00	-0.750			
0.0020	131.11	4.1540	4.1541	-0.2611	24.82	-0.00	-0.750			
0.0029	185.13	4.1510	4.1511	-0.3013	24.82	-0.00	-0.750			
0.0039	246.52	4.1480	4.1480	-0.3433	24.82	-0.00	-0.750			
0.0049	316.14	4.1450	4.1450	-0.3841	24.81	-0.01	-0.750			
0.0062	394.59	4.1420	4.1420	-0.4214	24.81	-0.01	-0.750			
0.0075	480.44	4.1390	4.1390	-0.4558	24.81	-0.01	-0.750			
0.0089	572.59	4.1360	4.1361	-0.4965	24.80	-0.02	-0.750			
0.0105	672.04	4.1330	4.1330	-0.5279	24.80	-0.02	-0.750			
0.0121	777.58	4.1300	4.1299	-0.5579	24.80	-0.02	-0.750			
0.0139	888.68	4.1270	4.1269	-0.5772	24.79	-0.03	-0.750			
0.0157	1003.26	4.1240	4.1240	-0.5979	24.79	-0.03	-0.750			
0.0175	1120.12	4.1210	4.1210	-0.6167	24.78	-0.04	-0.750			
0.0193	1238.02	4.1180	4.1180	-0.6376	24.78	-0.04	-0.750			
0.0213	1363.36	4.1150	4.1149	-0.6503	24.77	-0.05	-0.750			
0.0233	1488.98	4.1120	4.1120	-0.6631	24.77	-0.05	-0.750			
0.0253	1620.55	4.1090	4.1088	-0.6744	24.76	-0.06	-0.750			
0.0274	1752.33	4.1060	4.1059	-0.6813	24.76	-0.06	-0.750			
0.0294	1882.76	4.1030	4.1030	-0.6883	24.76	-0.06	-0.750			
0.0315	2014.21	4.1000	4.1001	-0.6906	24.75	-0.07	-0.750			
0.0335	2146.34	4.0970	4.0969	-0.6986	24.75	-0.07	-0.750			
0.0356	2281.44	4.0940	4.0941	-0.7239	24.75	-0.07	-0.750			
0.0378	2421.40	4.0910	4.0910	-0.7372	24.74	-0.08	-0.750			
0.0401	2565.85	4.0880	4.0878	-0.7531	24.74	-0.08	-0.750			
0.0424	2713.78	4.0850	4.0849	-0.7645	24.74	-0.08	-0.750			
0.0447	2863.41	4.0820	4.0823	-0.7651	24.74	-0.08	-0.750			
0.0471	3013.51	4.0790	4.0788	-0.7616	24.74	-0.08	-0.750			
0.0494	3161.12	4.0760	4.0759	-0.7608	24.74	-0.08	-0.750			
0.0516	3300.02	4.0730	4.0731	-0.7474	24.74	-0.08	-0.750			
0.0538	3444.04	4.0700	4.0699	-0.7528	24.74	-0.08	-0.750			
0.0561	3590.59	4.0670	4.0669	-0.7604	24.74	-0.08	-0.750			
0.0584	3739.19	4.0640	4.0639	-0.7604	24.74	-0.08	-0.750			
0.0607	3887.52	4.0610	4.0609	-0.7658	24.74	-0.08	-0.750			
0.0630	4033.85	4.0580	4.0579	-0.7598	24.74	-0.08	-0.750			
0.0653	4178.41	4.0550	4.0547	-0.7565	24.74	-0.08	-0.750			
0.0675	4321.89	4.0520	4.0519	-0.7569	24.74	-0.08	-0.750			
0.0698	4464.52	4.0490	4.0490	-0.7593	24.74	-0.08	-0.750			
0.0720	4610.89	4.0460	4.0460	-0.7614	24.74	-0.08	-0.750			
0.0744	4763.29	4.0430	4.0429	-0.7765	24.74	-0.08	-0.750			
0.0768	4912.06	4.0400	4.0403	-0.7738	24.74	-0.08	-0.750			
0.0791	5061.38	4.0370	4.0369	-0.7760	24.74	-0.08	-0.750			
0.0814	5209.00	4.0340	4.0340	-0.7782	24.74	-0.08	-0.750			
0.0837	5359.21	4.0310	4.0310	-0.7788	24.74	-0.08	-0.750			
0.0861	5509.33	4.0280	4.0279	-0.7856	24.74	-0.08	-0.750			
0.0884	5660.23	4.0250	4.0249	-0.7848	24.74	-0.08	-0.750			
0.0908	5811.91	4.0220	4.0219	-0.7830	24.74	-0.08	-0.750			
0.0931	5960.58	4.0190	4.0190	-0.7876	24.74	-0.08	-0.750			
0.0955	6111.71	4.0160	4.0160	-0.7836	24.74	-0.08	-0.750			
0.0978	6261.65	4.0130	4.0130	-0.7840	24.74	-0.08	-0.750			
0.1002	6414.20	4.0100	4.0098	-0.7863	24.74	-0.08	-0.750			
0.1026	6563.93	4.0070	4.0070	-0.7855	24.74	-0.08	-0.750			
0.1049	6714.32	4.0040	4.0040	-0.7953	24.74	-0.08	-0.750			
0.1073	6868.06	4.0010	4.0010	-0.7980	24.74	-0.08	-0.750			
0.1097	7020.88	3.9980	3.9979	-0.7929	24.75	-0.07	-0.750			
0.1121	7175.84	3.9950	3.9951	-0.7993	24.75	-0.07	-0.750			
0.1145	7328.66	3.9920	3.9923	-0.8022	24.75	-0.07	-0.750			
0.1169	7483.41	3.9890	3.9889	-0.8010	24.75	-0.07	-0.750			
0.1193	7636.19	3.9860	3.9859	-0.8109	24.75	-0.07	-0.750			
0.1218	7793.92	3.9830	3.9829	-0.8070	24.76	-0.06	-0.750			
0.1242	7951.90	3.9800	3.9799	-0.8116	24.76	-0.06	-0.750			
0.1267	8107.87	3.9770	3.9776	-0.8065	24.76	-0.06	-0.750			
0.1291	8260.84	3.9740	3.9739	-0.8060	24.76	-0.06	-0.750			
0.1315	8414.14	3.9710	3.9709	-0.8187	24.76	-0.06	-0.750			
0.1339	8570.83	3.9680	3.9678	-0.8172	24.76	-0.06	-0.750			
0.1364	8731.97	3.9650	3.9648	-0.8282	24.76	-0.06	-0.750			
0.1389	8892.12	3.9620	3.9625	-0.8259	24.76	-0.06	-0.750			
0.1414	9052.05	3.9590	3.9589	-0.8251	24.76	-0.06	-0.750			
0.1439	9209.67	3.9560	3.9559	-0.8272	24.77	-0.05	-0.750			
0.1463	9362.86	3.9530	3.9529	-0.8174	24.77	-0.05	-0.750			
0.1488	9521.92	3.9500	3.9499	-0.8329	24.78	-0.04	-0.750			
0.1513	9681.98	3.9470	3.9473	-0.8360	24.78	-0.04	-0.750			
0.1538	9843.95	3.9440	3.9438	-0.8432	24.78	-0.04	-0.750			
0.1564	10007.13	3.9410	3.9409	-0.8494	24.78	-0.04	-0.750			
0.1589	10171.57	3.9380	3.9380	-0.8443	24.78	-0.04	-0.750			
0.1615	10333.56	3.9350	3.9350	-0.8386	24.78	-0.04	-0.750			
0.1640	10497.46	3.9320	3.9323	-0.8412	24.78	-0.04	-0.750			
0.1665	10656.95	3.9290	3.9289	-0.8351	24.78	-0.04	-0.750			
0.1690	10815.27	3.9260	3.9259	-0.8428	24.79	-0.03	-0.750			
0.1715	10977.19	3.9230	3.9229	-0.8425	24.79	-0.03	-0.750			
0.1741	11142.50	3.9200	3.9198	-0.8479	24.80	-0.02	-0.750			
0.1766	11304.27	3.9170	3.9175	-0.8477	24.80	-0.02	-0.750			
0.1792	11467.39	3.9140	3.9139	-0.8504	24.80	-0.02	-0.750			
0.1817	11629.20	3.9110	3.9110	-0.8523	24.80	-0.02	-0.750			
0.1843	11792.20	3.9080	3.9079	-0.8529	24.80	-0.02	-0.750			
0.1868	11956.70	3.9050	3.9050	-0.8614	24.80	-0.02	-0.750			
0.1894	12123.17	3.9020	3.9022	-0.8613	24.80	-0.02	-0.750			
0.1920	12287.33	3.8990	3.8990	-0.8781	24.80	-0.02	-0.750			
0.1946	12457.03	3.8960	3.8959	-0.8673	24.81	-0.01	-0.750			
0.1972	12623.00	3.8930	3.8929	-0.8649	24.81	-0.01	-0.750			
0.1999	12791.10	3.8900	3.8898	-0.8669	24.82	-0.00	-0.750			
0.2025	12957.16	3.8870	3.8871	-0.8611	24.82	0.00	-0.750			
0.2050	13120.68	3.8840	3.8839	-0.8726	24.83	0.01	-0.750			
0.2076	13288.69	3.8810	3.8810	-0.8758	24.83	0.01	-0.750			
0.2103	13459.51	3.8780	3.8777	-0.8775	24.83	0.01	-0.750			
0.2129	13628.09	3.8750	3.8748	-0.8740	24.84	0.02	-0.750			
0.2155	13794.95	3.8720	3.8719	-0.8699	24.84	0.02	-0.750			
0.2181	13959.90	3.8690	3.8689	-0.8708	24.84	0.02	-0.750			
0.2207	14123.30	3.8660	3.8659	-0.8662	24.84	0.02	-0.750			
0.2233	14290.74	3.8630	3.8630	-0.8753	24.84	0.02	-0.750			
0.2259	14458.93	3.8600	3.8600	-0.8793	24.84	0.02	-0.750			
0.2286	14629.98	3.8570	3.8570	-0.8825	24.84	0.02	-0.750			
0.2312	14798.98	3.8540	3.8539	-0.8815	24.85	0.03	-0.750			
0.2339	14971.98	3.8510	3.8509	-0.8680	24.85	0.03	-0.750			
0.2365	15137.97	3.8480	3.8480	-0.8496	24.86	0.04	-0.750			
0.2391	15299.59	3.8450	3.8450	-0.8467	24.86	0.04	-0.750			
0.2416	15459.28	3.8420	3.8421	-0.8399	24.86	0.04	-0.750			
0.2440	15616.38	3.8390	3.8387	-0.8448	24.87	0.05	-0.750			
0.2466	15780.28	3.8360	3.8358	-0.8496	24.87	0.05	-0.750			
0.2492	15945.85	3.8330	3.8329	-0.8603	24.88	0.06	-0.750			
0.2518	16113.40	3.8300	3.8310	-0.8649	24.88	0.06	-0.750			
0.2544	16282.03	3.8270	3.8269	-0.8675	24.88	0.06	-0.750			
0.2570	16445.75	3.8240	3.8240	-0.8649	24.89	0.07	-0.750			
0.2595	16607.73	3.8210	3.8209	-0.8614	24.89	0.07	-0.750			
0.2622	16780.00	3.8180	3.8180	-0.8739	24.90	0.08	-0.750			
0.2648	16946.00	3.8150	3.8151	-0.8611	24.90	0.08	-0.750			
0.2673	17109.88	3.8120	3.8121	-0.8660	24.90	0.08	-0.750			
0.2699	17276.65	3.8090	3.8091	-0.8595	24.91	0.09	-0.750			
0.2725	17439.75	3.8060	3.8056	-0.8535	24.91	0.09	-0.750			
0.2751	17603.56	3.8030	3.8030	-0.8527	24.92	0.10	-0.750			
0.2776	17767.15	3.8000	3.8001	-0.8482	24.92	0.10	-0.750			
0.2802	17932.17	3.7970	3.7969	-0.8648	24.92	0.10	-0.750			
0.2828	18101.30	3.7940	3.7938	-0.8567	24.92	0.10	-0.750			
0.2854	18263.53	3.7910	3.7908	-0.8415	24.93	0.11	-0.750			
0.2879	18427.39	3.7880	3.7878	-0.8380	24.93	0.11	-0.750			
0.2904	18588.07	3.7850	3.7847	-0.8264	24.93	0.11	-0.750			
0.2929	18742.94	3.7820	3.7819	-0.8189	24.93	0.11	-0.750			
0.2952	18894.45	3.7790	3.7790	-0.8089	24.93	0.11	-0.750			
0.2977	19050.31	3.7760	3.7760	-0.8217	24.94	0.12	-0.750			
0.3001	19207.95	3.7730	3.7728	-0.8209	24.94	0.12	-0.750			
0.3026	19364.72	3.7700	3.7701	-0.8189	24.94	0.12	-0.750			
0.3050	19519.25	3.7670	3.7671	-0.8321	24.95	0.13	-0.750			
0.3076	19684.54	3.7640	3.7639	-0.8278	24.95	0.13	-0.750			
0.3101	19844.86	3.7610	3.7609	-0.8181	24.95	0.13	-0.750			
0.3126	20003.31	3.7580	3.7578	-0.8145	24.96	0.14	-0.750			
0.3150	20158.61	3.7550	3.7552	-0.8071	24.96	0.14	-0.750			
0.3173	20308.97	3.7520	3.7518	-0.8149	24.96	0.14	-0.750			
0.3197	20460.66	3.7490	3.7490	-0.8121	24.97	0.15	-0.750			
0.3221	20614.63	3.7460	3.7459	-0.8150	24.97	0.15	-0.750			
0.3247	20780.35	3.7430	3.7429	-0.8340	24.98	0.16	-0.750			
0.3272	20942.90	3.7400	3.7404	-0.8448	24.98	0.16	-0.750			
0.3298	21104.42	3.7370	3.7370	-0.8506	24.98	0.16	-0.750			
0.3323	21267.05	3.7340	3.7340	-0.8565	24.98	0.16	-0.750			
0.3348	21430.19	3.7310	3.7309	-0.8561	24.98	0.16	-0.750			
0.3375	21597.35	3.7280	3.7280	-0.8779	24.98	0.16	-0.750			
0.3401	21767.25	3.7250	3.7251	-0.8940	24.98	0.16	-0.750			
0.3428	21940.02	3.7220	3.7220	-0.9238	24.98	0.16	-0.750			
0.3457	22121.64	3.7190	3.7188	-0.9312	24.98	0.16	-0.750			
0.3485	22303.79	3.7160	3.7159	-0.9452	24.98	0.16	-0.750			
0.3514	22486.74	3.7130	3.7135	-0.9601	24.98	0.16	-0.750			
0.3543	22673.22	3.7100	3.7098	-0.9699	24.98	0.16	-0.750			
0.3572	22857.89	3.7070	3.7069	-0.9795	24.97	0.15	-0.750			
0.3601	23044.77	3.7040	3.7040	-0.9967	24.97	0.15	-0.750			
0.3631	23238.07	3.7010	3.7011	-1.0228	24.96	0.14	-0.750	0.429	0.540	
0.3662	23436.70	3.6980	3.6981	-1.0466	24.96	0.14	-0.750			
0.3694	23638.68	3.6950	3.6949	-1.0643	24.96	0.14	-0.750			
0.3726	23844.94	3.6920	3.6920	-1.0807	24.96	0.14	-0.750			
0.3758	24049.65	3.6890	3.6890	-1.1256	24.96	0.14	-0.750			
0.3793	24274.01	3.6860	3.6859	-1.1370	24.96	0.14	-0.750			
0.3827	24494.57	3.6830	3.6828	-1.1516	24.95	0.13	-0.750			
0.3861	24709.19	3.6800	3.6800	-1.1931	24.95	0.13	-0.750			
0.3897	24943.04	3.6770	3.6773	-1.2038	24.94	0.12	-0.750			
0.3935	25181.00	3.6740	3.6738	-1.2195	24.93	0.11	-0.750			
0.3972	25417.72	3.6710	3.6707	-1.2254	24.93	0.11	-0.750			
0.4008	25650.27	3.6680	3.6682	-1.2633	24.92	0.10	-0.750			
0.4046	25894.89	3.6650	3.6648	-1.2893	24.91	0.09	-0.750			
0.4084	26137.21	3.6620	3.6619	-1.3069	24.90	0.08	-0.750			
0.4123	26389.64	3.6590	3.6589	-1.3499	24.89	0.07	-0.750			
0.4166	26659.63	3.6560	3.6559	-1.3926	24.88	0.06	-0.750			
0.4209	26935.91	3.6530	3.6529	-1.4265	24.87	0.05	-0.750			
0.4253	27216.53	3.6500	3.6498	-1.4725	24.86	0.04	-0.750			
0.4297	27503.76	3.6470	3.6466	-1.4677	24.86	0.04	-0.750			
0.4342	27787.13	3.6440	3.6446	-1.5013	24.85	0.03	-0.750			
0.4387	28076.04	3.6410	3.6415	-1.5058	24.84	0.02	-0.750			
0.4431	28361.45	3.6380	3.6377	-1.5286	24.83	0.01	-0.750			
0.4479	28667.25	3.6350	3.6349	-1.5680	24.83	0.01	-0.750			
0.4527	28973.33	3.6320	3.6318	-1.6046	24.82	-0.00	-0.750			
0.4577	29294.82	3.6290	3.6294	-1.6286	24.81	-0.01	-0.750			
0.4626	29606.32	3.6260	3.6260	-1.6669	24.80	-0.02	-0.750			
0.4676	29923.25	3.6230	3.6230	-1.6734	24.79	-0.03	-0.750			
0.4728	30256.15	3.6200	3.6194	-1.7007	24.79	-0.03	-0.750			
0.4779	30585.22	3.6170	3.6164	-1.7331	24.78	-0.04	-0.750			
0.4831	30917.20	3.6140	3.6139	-1.7745	24.76	-0.06	-0.750			
0.4885	31265.57	3.6110	3.6108	-1.8084	24.75	-0.07	-0.750			
0.4939	31607.60	3.6080	3.6081	-1.8650	24.74	-0.08	-0.750			
0.4996	31977.15	3.6050	3.6054	-1.8896	24.73	-0.09	-0.750			
0.5056	32357.49	3.6020	3.6022	-1.9702	24.72	-0.10	-0.750			
0.5114	32728.76	3.5990	3.5992	-2.0183	24.71	-0.11	-0.750			
0.5174	33115.67	3.5960	3.5959	-2.0668	24.70	-0.12	-0.750			
0.5238	33524.50	3.5930	3.5933	-2.0958	24.69	-0.13	-0.750			
0.5301	33927.47	3.5900	3.5904	-2.1059	24.68	-0.14	-0.750			
0.5366	34342.63	3.5870	3.5867	-2.1407	24.68	-0.14	-0.750			
0.5429	34748.49	3.5840	3.5839	-2.1365	24.67	-0.15	-0.750			
0.5493	35156.71	3.5810	3.5816	-2.1554	24.66	-0.16	-0.750			
0.5559	35578.30	3.5780	3.5782	-2.2617	24.65	-0.17	-0.750			
0.5628	36018.60	3.5750	3.5751	-2.2403	24.64	-0.18	-0.750			
0.5693	36438.11	3.5720	3.5717	-2.3179	24.64	-0.18	-0.750			
0.5765	36898.23	3.5690	3.5693	-2.2883	24.64	-0.18	-0.750			
0.5832	37325.92	3.5660	3.5664	-2.2778	24.64	-0.18	-0.750			
0.5901	37765.34	3.5630	3.5633	-2.2669	24.64	-0.18	-0.750			
0.5973	38227.13	3.5600	3.5594	-2.3142	24.63	-0.19	-0.750			
0.6037	38638.41	3.5570	3.5574	-2.3415	24.63	-0.19	-0.750			
0.6112	39118.43	3.5540	3.5541	-2.4055	24.62	-0.20	-0.750			
0.6186	39590.02	3.5510	3.5507	-2.3853	24.62	-0.20	-0.750			
0.6259	40059.72	3.5480	3.5482	-2.3677	24.63	-0.19	-0.750			
0.6329	40504.77	3.5450	3.5452	-2.3166	24.63	-0.19	-0.750			
0.6393	40912.84	3.5420	3.5420	-2.1459	24.64	-0.18	-0.750			
0.6456	41317.84	3.5390	3.5387	-2.1117	24.65	-0.17	-0.750			
0.6520	41728.87	3.5360	3.5362	-2.0486	24.66	-0.16	-0.750			
0.6581	42118.13	3.5330	3.5333	-2.0147	24.67	-0.15	-0.750			
0.6641	42505.09	3.5300	3.5305	-1.9774	24.67	-0.15	-0.750			
0.6699	42872.71	3.5270	3.5271	-1.9036	24.67	-0.15	-0.750			
0.6755	43230.76	3.5240	3.5243	-1.8334	24.68	-0.14	-0.750			
0.6810	43582.03	3.5210	3.5210	-1.7919	24.69	-0.13	-0.750			
0.6864	43927.34	3.5180	3.5179	-1.7543	24.71	-0.11	-0.750			
0.6915	44257.45	3.5150	3.5147	-1.6967	24.73	-0.09	-0.750			
0.6965	44574.89	3.5120	3.5118	-1.6460	24.74	-0.08	-0.750			
0.7013	44884.96	3.5090	3.5094	-1.5802	24.75	-0.07	-0.750			
0.7060	45186.27	3.5060	3.5061	-1.5484	24.76	-0.06	-0.750			
0.7106	45477.89	3.5030	3.5030	-1.4929	24.78	-0.04	-0.750			
0.7150	45763.04	3.5000	3.4998	-1.4709	24.79	-0.03	-0.750			
0.7194	46042.02	3.4970	3.4971	-1.4403	24.81	-0.01	-0.750			
0.7236	46310.68	3.4940	3.4939	-1.4224	24.83	0.01	-0.750			
0.7278	46582.22	3.4910	3.4911	-1.4189	24.84	0.02	-0.750			
