Ah_balance (normalized)	Ah_balance (mAh)	Voltage - fit (V)	Voltage -  interpolate (V)	dQ/dV (1/V)	Temperature (°C)	Temperature - diff (°C)	Current (C)	R_DC 0ms (mOhm)	R_DC 50ms (mOhm)	R_DC 50 ms PEC (mOhm)
0.0001	8.06	4.1600	4.1601	-0.0899	25.21	0.01	-0.750			
0.0005	29.01	4.1570	4.1570	-0.1318	25.21	0.01	-0.750			
0.0009	59.69	4.1540	4.1540	-0.1781	25.21	0.01	-0.750			
0.0015	98.77	4.1510	4.1508	-0.2190	25.21	0.01	-0.750			
0.0023	144.68	4.1480	4.1481	-0.2597	25.21	0.01	-0.750			
0.0031	198.72	4.1450	4.1451	-0.2976	25.21	0.01	-0.750			
0.0041	260.38	4.1420	4.1420	-0.3397	25.21	0.01	-0.750			
0.0052	330.15	4.1390	4.1390	-0.3759	25.20	0.00	-0.750			
0.0063	406.31	4.1360	4.1359	-0.4084	25.20	0.00	-0.750			
0.0076	488.77	4.1330	4.1329	-0.4382	25.20	0.00	-0.750			
0.0090	577.38	4.1300	4.1299	-0.4695	25.20	-0.00	-0.750			
0.0105	669.90	4.1270	4.1271	-0.4939	25.20	-0.00	-0.750			
0.0120	767.28	4.1240	4.1240	-0.5170	25.19	-0.01	-0.750			
0.0136	868.16	4.1210	4.1210	-0.5368	25.19	-0.01	-0.750			
0.0153	976.44	4.1180	4.1180	-0.5672	25.19	-0.01	-0.750			
0.0170	1088.32	4.1150	4.1148	-0.5847	25.19	-0.01	-0.750			
0.0188	1204.80	4.1120	4.1119	-0.6009	25.18	-0.02	-0.750			
0.0207	1321.87	4.1090	4.1102	-0.6093	25.18	-0.02	-0.750			
0.0225	1440.62	4.1060	4.1058	-0.6211	25.18	-0.02	-0.750			
0.0244	1560.56	4.1030	4.1030	-0.6268	25.17	-0.03	-0.750			
0.0262	1678.29	4.1000	4.1000	-0.6365	25.17	-0.03	-0.750			
0.0281	1800.08	4.0970	4.0970	-0.6464	25.17	-0.03	-0.750			
0.0302	1929.83	4.0940	4.0940	-0.6616	25.16	-0.04	-0.750			
0.0322	2057.71	4.0910	4.0910	-0.6740	25.16	-0.04	-0.750			
0.0342	2190.43	4.0880	4.0880	-0.6814	25.16	-0.04	-0.750			
0.0362	2313.81	4.0850	4.0851	-0.7344	25.16	-0.04	-0.750			
0.0384	2456.55	4.0820	4.0821	-0.7605	25.16	-0.04	-0.750			
0.0408	2613.45	4.0790	4.0783	-0.7655	25.16	-0.04	-0.750			
0.0432	2766.49	4.0760	4.0762	-0.7728	25.16	-0.04	-0.750			
0.0457	2922.09	4.0730	4.0738	-0.7716	25.16	-0.04	-0.750			
0.0480	3070.42	4.0700	4.0697	-0.7486	25.16	-0.04	-0.750			
0.0501	3208.63	4.0670	4.0668	-0.7463	25.16	-0.04	-0.750			
0.0522	3342.68	4.0640	4.0641	-0.7278	25.15	-0.05	-0.750			
0.0545	3485.59	4.0610	4.0607	-0.7333	25.15	-0.05	-0.750			
0.0567	3627.80	4.0580	4.0579	-0.7337	25.15	-0.05	-0.750			
0.0589	3767.92	4.0550	4.0552	-0.7293	25.15	-0.05	-0.750			
0.0611	3907.68	4.0520	4.0518	-0.7273	25.15	-0.05	-0.750			
0.0632	4046.35	4.0490	4.0490	-0.7328	25.16	-0.04	-0.750			
0.0654	4182.72	4.0460	4.0460	-0.7264	25.16	-0.04	-0.750			
0.0676	4328.04	4.0430	4.0429	-0.7366	25.17	-0.03	-0.750			
0.0699	4470.99	4.0400	4.0401	-0.7382	25.17	-0.03	-0.750			
0.0721	4611.26	4.0370	4.0370	-0.7377	25.17	-0.03	-0.750			
0.0743	4752.68	4.0340	4.0340	-0.7394	25.17	-0.03	-0.750			
0.0765	4894.33	4.0310	4.0310	-0.7481	25.17	-0.03	-0.750			
0.0787	5036.59	4.0280	4.0278	-0.7464	25.18	-0.02	-0.750			
0.0810	5183.74	4.0250	4.0251	-0.7594	25.18	-0.02	-0.750			
0.0833	5330.78	4.0220	4.0223	-0.7587	25.18	-0.02	-0.750			
0.0856	5477.23	4.0190	4.0189	-0.7623	25.18	-0.02	-0.750			
0.0879	5624.21	4.0160	4.0160	-0.7681	25.18	-0.02	-0.750			
0.0902	5770.41	4.0130	4.0128	-0.7650	25.18	-0.02	-0.750			
0.0925	5921.35	4.0100	4.0099	-0.7639	25.18	-0.02	-0.750			
0.0948	6067.23	4.0070	4.0069	-0.7568	25.18	-0.02	-0.750			
0.0971	6211.80	4.0040	4.0039	-0.7501	25.18	-0.02	-0.750			
0.0994	6358.41	4.0010	4.0009	-0.7270	25.18	-0.02	-0.750			
0.1014	6492.18	3.9980	3.9979	-0.7082	25.18	-0.02	-0.750			
0.1036	6627.65	3.9950	3.9952	-0.7033	25.19	-0.01	-0.750			
0.1056	6756.13	3.9920	3.9924	-0.7014	25.19	-0.01	-0.750			
0.1076	6887.56	3.9890	3.9887	-0.7123	25.19	-0.01	-0.750			
0.1097	7021.40	3.9860	3.9861	-0.7269	25.19	-0.01	-0.750			
0.1119	7163.08	3.9830	3.9831	-0.7601	25.19	-0.01	-0.750			
0.1144	7319.66	3.9800	3.9798	-0.7860	25.20	-0.00	-0.750			
0.1168	7472.29	3.9770	3.9765	-0.7847	25.20	-0.00	-0.750			
0.1192	7627.17	3.9740	3.9739	-0.7832	25.20	-0.00	-0.750			
0.1215	7775.23	3.9710	3.9709	-0.7747	25.20	0.00	-0.750			
0.1238	7920.93	3.9680	3.9680	-0.7712	25.20	0.00	-0.750			
0.1261	8068.11	3.9650	3.9650	-0.7840	25.20	0.00	-0.750			
0.1284	8219.74	3.9620	3.9619	-0.7828	25.20	0.00	-0.750			
0.1308	8372.66	3.9590	3.9588	-0.7909	25.20	0.00	-0.750			
0.1332	8526.68	3.9560	3.9569	-0.7957	25.20	0.00	-0.750			
0.1356	8679.56	3.9530	3.9529	-0.7976	25.20	0.00	-0.750			
0.1380	8831.20	3.9500	3.9498	-0.7980	25.20	0.00	-0.750			
0.1404	8984.32	3.9470	3.9471	-0.7969	25.21	0.01	-0.750			
0.1427	9135.18	3.9440	3.9441	-0.7924	25.21	0.01	-0.750			
0.1452	9295.56	3.9410	3.9410	-0.8008	25.21	0.01	-0.750			
0.1476	9446.55	3.9380	3.9380	-0.7977	25.21	0.01	-0.750			
0.1500	9596.93	3.9350	3.9350	-0.8072	25.21	0.01	-0.750			
0.1524	9753.12	3.9320	3.9319	-0.8072	25.22	0.02	-0.750			
0.1548	9910.04	3.9290	3.9289	-0.8022	25.22	0.02	-0.750			
0.1573	10067.27	3.9260	3.9262	-0.8056	25.22	0.02	-0.750			
0.1597	10221.27	3.9230	3.9229	-0.7995	25.22	0.02	-0.750			
0.1621	10373.43	3.9200	3.9199	-0.8052	25.22	0.02	-0.750			
0.1645	10525.65	3.9170	3.9169	-0.7981	25.22	0.02	-0.750			
0.1668	10676.70	3.9140	3.9140	-0.7884	25.22	0.02	-0.750			
0.1693	10834.43	3.9110	3.9109	-0.8018	25.22	0.02	-0.750			
0.1717	10987.39	3.9080	3.9079	-0.7994	25.22	0.02	-0.750			
0.1741	11139.71	3.9050	3.9049	-0.7967	25.23	0.03	-0.750			
0.1764	11292.22	3.9020	3.9019	-0.8004	25.23	0.03	-0.750			
0.1788	11443.03	3.8990	3.8990	-0.7940	25.23	0.03	-0.750			
0.1813	11600.46	3.8960	3.8960	-0.8052	25.24	0.04	-0.750			
0.1837	11755.73	3.8930	3.8931	-0.8015	25.24	0.04	-0.750			
0.1861	11908.56	3.8900	3.8898	-0.7973	25.24	0.04	-0.750			
0.1885	12062.33	3.8870	3.8870	-0.8079	25.24	0.04	-0.750			
0.1909	12218.86	3.8840	3.8840	-0.8001	25.25	0.05	-0.750			
0.1934	12374.59	3.8810	3.8808	-0.7968	25.25	0.05	-0.750			
0.1957	12526.43	3.8780	3.8785	-0.7908	25.25	0.05	-0.750			
0.1981	12675.24	3.8750	3.8750	-0.7871	25.25	0.05	-0.750			
0.2004	12825.53	3.8720	3.8719	-0.7913	25.26	0.06	-0.750			
0.2028	12976.45	3.8690	3.8687	-0.7816	25.26	0.06	-0.750			
0.2052	13130.07	3.8660	3.8660	-0.7848	25.27	0.07	-0.750			
0.2075	13280.70	3.8630	3.8628	-0.7796	25.27	0.07	-0.750			
0.2099	13431.56	3.8600	3.8599	-0.7738	25.27	0.07	-0.750			
0.2121	13576.72	3.8570	3.8569	-0.7703	25.27	0.07	-0.750			
0.2144	13720.00	3.8540	3.8540	-0.7598	25.28	0.08	-0.750			
0.2167	13867.78	3.8510	3.8510	-0.7671	25.28	0.08	-0.750			
0.2190	14014.66	3.8480	3.8479	-0.7683	25.28	0.08	-0.750			
0.2213	14162.92	3.8450	3.8452	-0.7709	25.28	0.08	-0.750			
0.2236	14309.16	3.8420	3.8419	-0.7738	25.28	0.08	-0.750			
0.2259	14459.29	3.8390	3.8389	-0.7709	25.28	0.08	-0.750			
0.2282	14606.98	3.8360	3.8360	-0.7604	25.29	0.09	-0.750			
0.2305	14754.77	3.8330	3.8330	-0.7649	25.29	0.09	-0.750			
0.2328	14901.75	3.8300	3.8301	-0.7587	25.29	0.09	-0.750			
0.2351	15045.77	3.8270	3.8269	-0.7539	25.29	0.09	-0.750			
0.2373	15185.71	3.8240	3.8240	-0.7597	25.29	0.09	-0.750			
0.2396	15333.71	3.8210	3.8209	-0.7607	25.30	0.10	-0.750			
0.2419	15483.56	3.8180	3.8179	-0.7638	25.30	0.10	-0.750			
0.2442	15629.77	3.8150	3.8149	-0.7583	25.30	0.10	-0.750			
0.2465	15775.50	3.8120	3.8119	-0.7571	25.30	0.10	-0.750			
0.2488	15921.75	3.8090	3.8089	-0.7546	25.30	0.10	-0.750			
0.2510	16062.60	3.8060	3.8059	-0.7514	25.30	0.10	-0.750			
0.2532	16203.93	3.8030	3.8031	-0.7467	25.30	0.10	-0.750			
0.2555	16352.10	3.8000	3.7999	-0.7645	25.30	0.10	-0.750			
0.2578	16500.36	3.7970	3.7971	-0.7599	25.30	0.10	-0.750			
0.2601	16647.29	3.7940	3.7939	-0.7614	25.30	0.10	-0.750			
0.2624	16790.85	3.7910	3.7912	-0.7716	25.30	0.10	-0.750			
0.2647	16940.40	3.7880	3.7879	-0.7713	25.31	0.11	-0.750			
0.2670	17087.92	3.7850	3.7850	-0.7723	25.31	0.11	-0.750			
0.2693	17237.40	3.7820	3.7818	-0.7782	25.31	0.11	-0.750			
0.2717	17386.99	3.7790	3.7789	-0.7821	25.31	0.11	-0.750			
0.2741	17540.98	3.7760	3.7758	-0.7887	25.31	0.11	-0.750			
0.2764	17691.91	3.7730	3.7730	-0.7949	25.31	0.11	-0.750			
0.2788	17844.41	3.7700	3.7700	-0.7912	25.32	0.12	-0.750			
0.2813	18000.04	3.7670	3.7668	-0.8016	25.32	0.12	-0.750			
0.2836	18153.08	3.7640	3.7639	-0.8080	25.32	0.12	-0.750			
0.2861	18307.98	3.7610	3.7608	-0.8069	25.32	0.12	-0.750			
0.2885	18462.16	3.7580	3.7580	-0.8126	25.32	0.12	-0.750			
0.2909	18616.38	3.7550	3.7552	-0.8073	25.31	0.11	-0.750			
0.2934	18778.08	3.7520	3.7519	-0.8315	25.31	0.11	-0.750			
0.2959	18937.07	3.7490	3.7490	-0.8365	25.31	0.11	-0.750			
0.2983	19092.96	3.7460	3.7460	-0.8504	25.31	0.11	-0.750			
0.3009	19259.34	3.7430	3.7430	-0.8534	25.31	0.11	-0.750			
0.3036	19428.27	3.7400	3.7399	-0.8609	25.30	0.10	-0.750			
0.3062	19594.37	3.7370	3.7369	-0.8674	25.30	0.10	-0.750			
0.3088	19760.79	3.7340	3.7343	-0.8753	25.30	0.10	-0.750			
0.3114	19927.48	3.7310	3.7309	-0.8909	25.30	0.10	-0.750			
0.3141	20100.76	3.7280	3.7278	-0.8958	25.30	0.10	-0.750			
0.3168	20275.92	3.7250	3.7249	-0.9094	25.30	0.10	-0.750			
0.3195	20450.52	3.7220	3.7220	-0.9118	25.30	0.10	-0.750			
0.3223	20628.18	3.7190	3.7189	-0.9221	25.30	0.10	-0.750			
0.3250	20802.89	3.7160	3.7159	-0.9341	25.29	0.09	-0.750			
0.3278	20977.94	3.7130	3.7129	-0.9384	25.29	0.09	-0.750			
0.3307	21162.66	3.7100	3.7099	-0.9604	25.28	0.08	-0.750			
0.3336	21349.26	3.7070	3.7073	-0.9720	25.28	0.08	-0.750			
0.3365	21537.38	3.7040	3.7038	-0.9915	25.28	0.08	-0.750			
0.3395	21729.88	3.7010	3.7010	-0.9978	25.27	0.07	-0.750			
0.3425	21922.01	3.6980	3.6998	-1.0067	25.27	0.07	-0.750	0.425	0.592	
0.3455	22114.01	3.6950	3.6955	-1.0268	25.27	0.07	-0.750			
0.3487	22313.70	3.6920	3.6919	-1.0395	25.27	0.07	-0.750			
0.3518	22514.80	3.6890	3.6889	-1.0502	25.26	0.06	-0.750			
0.3549	22715.95	3.6860	3.6859	-1.0619	25.25	0.05	-0.750			
0.3582	22921.71	3.6830	3.6840	-1.0810	25.25	0.05	-0.750			
0.3614	23131.97	3.6800	3.6800	-1.0903	25.24	0.04	-0.750			
0.3647	23339.89	3.6770	3.6770	-1.1047	25.24	0.04	-0.750			
0.3680	23552.34	3.6740	3.6741	-1.1187	25.23	0.03	-0.750			
0.3714	23768.44	3.6710	3.6711	-1.1580	25.23	0.03	-0.750			
0.3749	23996.76	3.6680	3.6679	-1.1739	25.22	0.02	-0.750			
0.3785	24223.89	3.6650	3.6649	-1.1897	25.22	0.02	-0.750			
0.3821	24452.30	3.6620	3.6618	-1.2196	25.21	0.01	-0.750			
0.3858	24693.39	3.6590	3.6588	-1.2309	25.21	0.01	-0.750			
0.3895	24930.43	3.6560	3.6559	-1.2308	25.20	-0.00	-0.750			
0.3932	25164.13	3.6530	3.6529	-1.2429	25.19	-0.01	-0.750			
0.3970	25406.36	3.6500	3.6498	-1.2761	25.19	-0.01	-0.750			
0.4008	25653.79	3.6470	3.6468	-1.2907	25.18	-0.02	-0.750			
0.4047	25898.70	3.6440	3.6439	-1.3005	25.18	-0.02	-0.750			
0.4086	26151.46	3.6410	3.6413	-1.3310	25.17	-0.03	-0.750			
0.4128	26421.10	3.6380	3.6379	-1.3758	25.16	-0.04	-0.750			
0.4170	26685.82	3.6350	3.6348	-1.4148	25.15	-0.05	-0.750			
0.4213	26960.42	3.6320	3.6323	-1.4231	25.14	-0.06	-0.750			
0.4255	27235.17	3.6290	3.6288	-1.4778	25.13	-0.07	-0.750			
0.4301	27524.52	3.6260	3.6257	-1.4910	25.12	-0.08	-0.750			
0.4346	27813.10	3.6230	3.6226	-1.4835	25.12	-0.08	-0.750			
0.4392	28107.60	3.6200	3.6195	-1.5237	25.12	-0.08	-0.750			
0.4437	28397.60	3.6170	3.6170	-1.5477	25.11	-0.09	-0.750			
0.4485	28701.67	3.6140	3.6136	-1.5925	25.11	-0.09	-0.750			
0.4532	29002.87	3.6110	3.6112	-1.6561	25.10	-0.10	-0.750			
0.4580	29312.53	3.6080	3.6086	-1.6399	25.09	-0.11	-0.750			
0.4633	29650.11	3.6050	3.6051	-1.6685	25.09	-0.11	-0.750			
0.4684	29978.03	3.6020	3.6018	-1.6942	25.08	-0.12	-0.750			
0.4735	30304.49	3.5990	3.5994	-1.7283	25.08	-0.12	-0.750			
0.4787	30639.23	3.5960	3.5959	-1.7597	25.07	-0.13	-0.750			
0.4839	30969.05	3.5930	3.5930	-1.8119	25.06	-0.14	-0.750			
0.4894	31321.92	3.5900	3.5900	-1.8616	25.06	-0.14	-0.750			
0.4953	31698.75	3.5870	3.5872	-1.8889	25.06	-0.14	-0.750			
0.5010	32066.87	3.5840	3.5843	-1.8741	25.05	-0.15	-0.750			
0.5067	32426.30	3.5810	3.5803	-1.8999	25.04	-0.16	-0.750			
0.5123	32786.62	3.5780	3.5788	-1.9336	25.04	-0.16	-0.750			
0.5180	33150.26	3.5750	3.5747	-1.9250	25.04	-0.16	-0.750			
0.5238	33520.93	3.5720	3.5724	-1.9585	25.04	-0.16	-0.750			
0.5298	33906.70	3.5690	3.5696	-1.9869	25.04	-0.16	-0.750			
0.5360	34305.16	3.5660	3.5658	-2.0109	25.04	-0.16	-0.750			
0.5420	34690.72	3.5630	3.5632	-1.9776	25.04	-0.16	-0.750			
0.5481	35075.30	3.5600	3.5601	-2.0332	25.04	-0.16	-0.750			
0.5541	35461.19	3.5570	3.5574	-1.9888	25.04	-0.16	-0.750			
0.5598	35830.04	3.5540	3.5542	-1.9589	25.04	-0.16	-0.750			
0.5660	36226.06	3.5510	3.5513	-1.9670	25.05	-0.15	-0.750			
0.5720	36609.16	3.5480	3.5478	-1.9835	25.05	-0.15	-0.750			
0.5780	36993.19	3.5450	3.5445	-1.9723	25.06	-0.14	-0.750			
0.5839	37371.09	3.5420	3.5416	-1.9615	25.06	-0.14	-0.750			
0.5898	37748.07	3.5390	3.5388	-1.9891	25.07	-0.13	-0.750			
0.5957	38121.89	3.5360	3.5361	-1.9393	25.07	-0.13	-0.750			
0.6015	38498.17	3.5330	3.5327	-1.9288	25.07	-0.13	-0.750			
0.6073	38864.09	3.5300	3.5300	-1.8603	25.08	-0.12	-0.750			
0.6126	39205.73	3.5270	3.5274	-1.8026	25.09	-0.11	-0.750			
0.6181	39556.68	3.5240	3.5244	-1.7722	25.11	-0.09	-0.750			
0.6231	39881.36	3.5210	3.5209	-1.7384	25.12	-0.08	-0.750			
0.6284	40218.25	3.5180	3.5179	-1.7034	25.13	-0.07	-0.750			
0.6334	40535.36	3.5150	3.5151	-1.6500	25.14	-0.06	-0.750			
0.6383	40851.17	3.5120	3.5125	-1.6042	25.16	-0.04	-0.750			
0.6431	41158.55	3.5090	3.5086	-1.5886	25.17	-0.03	-0.750			
0.6479	41465.00	3.5060	3.5059	-1.5359	25.19	-0.01	-0.750			
0.6525	41762.26	3.5030	3.5025	-1.4826	25.20	-0.00	-0.750			
0.6570	42045.84	3.5000	3.5001	-1.4396	25.21	0.01	-0.750			
0.6610	42306.39	3.4970	3.4970	-1.3568	25.22	0.02	-0.750			
0.6651	42565.93	3.4940	3.4939	-1.3175	25.24	0.04	-0.750			
0.6686	42792.56	3.4910	3.4909	-1.2718	25.26	0.06	-0.750			
0.6726	43047.66	3.4880	3.4879	-1.2776	25.28	0.08	-0.750			
0.6764	43289.47	3.4850	3.4849	-1.2655	25.28	0.08	-0.750			
0.6802	43532.64	3.4820	3.4820	-1.2547	25.29	0.09	-0.750			
0.6839	43771.11	3.4790	3.4791	-1.1982	25.30	0.10	-0.750			
