Ah_balance (normalized)	Ah_balance (mAh)	Voltage - fit (V)	Voltage -  interpolate (V)	dQ/dV (1/V)	Temperature (°C)	Temperature - diff (°C)	Current (C)	R_DC 0ms (mOhm)	R_DC 50ms (mOhm)	R_DC 50 ms PEC (mOhm)
0.0004	27.43	4.1600	4.1600	-0.1315	25.09	0.01	-0.750			
0.0009	56.74	4.1570	4.1570	-0.1753	25.09	0.01	-0.750			
0.0015	95.74	4.1540	4.1539	-0.2177	25.09	0.01	-0.750			
0.0022	141.84	4.1510	4.1510	-0.2613	25.09	0.01	-0.750			
0.0031	196.74	4.1480	4.1480	-0.2974	25.08	0.00	-0.750			
0.0040	258.46	4.1450	4.1450	-0.3362	25.08	0.00	-0.750			
0.0051	326.71	4.1420	4.1425	-0.3710	25.08	-0.00	-0.750			
0.0063	400.99	4.1390	4.1389	-0.4061	25.08	-0.00	-0.750			
0.0075	482.30	4.1360	4.1360	-0.4377	25.07	-0.01	-0.750			
0.0089	569.84	4.1330	4.1328	-0.4681	25.07	-0.01	-0.750			
0.0104	664.22	4.1300	4.1301	-0.5008	25.07	-0.01	-0.750			
0.0119	763.13	4.1270	4.1270	-0.5325	25.06	-0.02	-0.750			
0.0136	870.03	4.1240	4.1239	-0.5551	25.06	-0.02	-0.750			
0.0153	980.81	4.1210	4.1209	-0.5717	25.06	-0.02	-0.750			
0.0171	1092.20	4.1180	4.1181	-0.5876	25.05	-0.03	-0.750			
0.0189	1207.26	4.1150	4.1150	-0.6024	25.05	-0.03	-0.750			
0.0207	1323.93	4.1120	4.1119	-0.6135	25.04	-0.04	-0.750			
0.0225	1441.77	4.1090	4.1089	-0.6203	25.04	-0.04	-0.750			
0.0244	1559.91	4.1060	4.1062	-0.6314	25.04	-0.04	-0.750			
0.0263	1685.54	4.1030	4.1030	-0.6493	25.04	-0.04	-0.750			
0.0283	1810.79	4.1000	4.0999	-0.6585	25.03	-0.05	-0.750			
0.0303	1937.43	4.0970	4.0974	-0.6680	25.03	-0.05	-0.750			
0.0323	2067.88	4.0940	4.0941	-0.6752	25.03	-0.05	-0.750			
0.0343	2198.38	4.0910	4.0910	-0.6856	25.03	-0.05	-0.750			
0.0364	2331.48	4.0880	4.0880	-0.6932	25.02	-0.06	-0.750			
0.0385	2464.59	4.0850	4.0851	-0.6932	25.02	-0.06	-0.750			
0.0406	2598.14	4.0820	4.0818	-0.7002	25.02	-0.06	-0.750			
0.0427	2732.97	4.0790	4.0796	-0.7063	25.02	-0.06	-0.750			
0.0448	2868.93	4.0760	4.0759	-0.7134	25.02	-0.06	-0.750			
0.0470	3006.62	4.0730	4.0730	-0.7254	25.02	-0.06	-0.750			
0.0492	3148.07	4.0700	4.0699	-0.7233	25.02	-0.06	-0.750			
0.0514	3289.11	4.0670	4.0669	-0.7231	25.02	-0.06	-0.750			
0.0536	3427.30	4.0640	4.0640	-0.7283	25.02	-0.06	-0.750			
0.0557	3566.70	4.0610	4.0611	-0.7237	25.02	-0.06	-0.750			
0.0579	3704.88	4.0580	4.0578	-0.7235	25.02	-0.06	-0.750			
0.0600	3841.38	4.0550	4.0550	-0.7290	25.02	-0.06	-0.750			
0.0622	3981.05	4.0520	4.0521	-0.7333	25.02	-0.06	-0.750			
0.0645	4125.49	4.0490	4.0488	-0.7424	25.02	-0.06	-0.750			
0.0667	4269.63	4.0460	4.0460	-0.7466	25.02	-0.06	-0.750			
0.0689	4411.50	4.0430	4.0430	-0.7440	25.02	-0.06	-0.750			
0.0712	4558.29	4.0400	4.0399	-0.7456	25.02	-0.06	-0.750			
0.0734	4699.90	4.0370	4.0370	-0.7517	25.02	-0.06	-0.750			
0.0757	4842.41	4.0340	4.0339	-0.7487	25.02	-0.06	-0.750			
0.0780	4989.84	4.0310	4.0310	-0.7562	25.02	-0.06	-0.750			
0.0802	5135.34	4.0280	4.0285	-0.7547	25.02	-0.06	-0.750			
0.0825	5280.18	4.0250	4.0250	-0.7536	25.02	-0.06	-0.750			
0.0848	5424.93	4.0220	4.0220	-0.7589	25.02	-0.06	-0.750			
0.0870	5569.33	4.0190	4.0189	-0.7581	25.02	-0.06	-0.750			
0.0893	5716.94	4.0160	4.0159	-0.7602	25.02	-0.06	-0.750			
0.0916	5861.92	4.0130	4.0129	-0.7607	25.02	-0.06	-0.750			
0.0939	6008.75	4.0100	4.0098	-0.7633	25.02	-0.06	-0.750			
0.0962	6155.91	4.0070	4.0069	-0.7616	25.03	-0.05	-0.750			
0.0984	6300.13	4.0040	4.0039	-0.7667	25.03	-0.05	-0.750			
0.1007	6446.49	4.0010	4.0010	-0.7673	25.03	-0.05	-0.750			
0.1031	6597.76	3.9980	3.9980	-0.7779	25.04	-0.04	-0.750			
0.1054	6748.34	3.9950	3.9952	-0.7800	25.04	-0.04	-0.750			
0.1078	6898.46	3.9920	3.9920	-0.7778	25.04	-0.04	-0.750			
0.1101	7048.12	3.9890	3.9890	-0.7837	25.04	-0.04	-0.750			
0.1125	7198.57	3.9860	3.9861	-0.7819	25.04	-0.04	-0.750			
0.1148	7350.11	3.9830	3.9829	-0.7835	25.04	-0.04	-0.750			
0.1172	7500.01	3.9800	3.9799	-0.7787	25.04	-0.04	-0.750			
0.1195	7649.50	3.9770	3.9770	-0.7768	25.04	-0.04	-0.750			
0.1218	7797.73	3.9740	3.9740	-0.7804	25.04	-0.04	-0.750			
0.1242	7946.68	3.9710	3.9710	-0.7823	25.05	-0.03	-0.750			
0.1265	8097.01	3.9680	3.9680	-0.7846	25.05	-0.03	-0.750			
0.1289	8247.78	3.9650	3.9650	-0.7892	25.05	-0.03	-0.750			
0.1313	8400.72	3.9620	3.9620	-0.7948	25.05	-0.03	-0.750			
0.1336	8551.54	3.9590	3.9590	-0.8070	25.05	-0.03	-0.750			
0.1361	8708.37	3.9560	3.9560	-0.8081	25.05	-0.03	-0.750			
0.1385	8865.61	3.9530	3.9529	-0.8031	25.06	-0.02	-0.750			
0.1410	9021.37	3.9500	3.9498	-0.8016	25.06	-0.02	-0.750			
0.1434	9176.72	3.9470	3.9471	-0.7997	25.06	-0.02	-0.750			
0.1457	9325.09	3.9440	3.9440	-0.8080	25.06	-0.02	-0.750			
0.1481	9480.08	3.9410	3.9409	-0.8014	25.06	-0.02	-0.750			
0.1505	9631.89	3.9380	3.9379	-0.7955	25.07	-0.01	-0.750			
0.1530	9789.32	3.9350	3.9349	-0.8055	25.07	-0.01	-0.750			
0.1554	9945.95	3.9320	3.9324	-0.8123	25.07	-0.01	-0.750			
0.1578	10101.59	3.9290	3.9290	-0.8008	25.07	-0.01	-0.750			
0.1602	10252.05	3.9260	3.9259	-0.8089	25.07	-0.01	-0.750			
0.1626	10404.12	3.9230	3.9231	-0.8019	25.08	-0.00	-0.750			
0.1651	10566.90	3.9200	3.9198	-0.8147	25.08	-0.00	-0.750			
0.1675	10722.80	3.9170	3.9172	-0.8161	25.08	-0.00	-0.750			
0.1700	10878.32	3.9140	3.9140	-0.8170	25.08	0.00	-0.750			
0.1724	11035.15	3.9110	3.9112	-0.8208	25.09	0.01	-0.750			
0.1749	11194.60	3.9080	3.9078	-0.8212	25.09	0.01	-0.750			
0.1774	11350.49	3.9050	3.9050	-0.8185	25.10	0.02	-0.750			
0.1798	11509.31	3.9020	3.9024	-0.8193	25.10	0.02	-0.750			
0.1823	11669.47	3.8990	3.8988	-0.8192	25.10	0.02	-0.750			
0.1847	11822.08	3.8960	3.8960	-0.8182	25.10	0.02	-0.750			
0.1871	11977.26	3.8930	3.8930	-0.8103	25.11	0.03	-0.750			
0.1897	12137.62	3.8900	3.8899	-0.8161	25.11	0.03	-0.750			
0.1921	12293.04	3.8870	3.8873	-0.8069	25.11	0.03	-0.750			
0.1945	12446.29	3.8840	3.8839	-0.8032	25.11	0.03	-0.750			
0.1969	12599.33	3.8810	3.8811	-0.8038	25.12	0.04	-0.750			
0.1992	12750.90	3.8780	3.8779	-0.7990	25.12	0.04	-0.750			
0.2016	12902.45	3.8750	3.8748	-0.7980	25.12	0.04	-0.750			
0.2041	13060.41	3.8720	3.8722	-0.8077	25.13	0.05	-0.750			
0.2065	13215.82	3.8690	3.8689	-0.8032	25.13	0.05	-0.750			
0.2089	13370.14	3.8660	3.8660	-0.8081	25.13	0.05	-0.750			
0.2114	13527.04	3.8630	3.8630	-0.7981	25.14	0.06	-0.750			
0.2137	13676.90	3.8600	3.8600	-0.7950	25.14	0.06	-0.750			
0.2161	13830.95	3.8570	3.8568	-0.7954	25.14	0.06	-0.750			
0.2185	13982.86	3.8540	3.8539	-0.7912	25.14	0.06	-0.750			
0.2208	14132.70	3.8510	3.8509	-0.7918	25.15	0.07	-0.750			
0.2232	14286.61	3.8480	3.8480	-0.7881	25.15	0.07	-0.750			
0.2256	14435.37	3.8450	3.8450	-0.7770	25.15	0.07	-0.750			
0.2279	14588.15	3.8420	3.8419	-0.7801	25.16	0.08	-0.750			
0.2302	14734.40	3.8390	3.8396	-0.7733	25.16	0.08	-0.750			
0.2326	14883.58	3.8360	3.8358	-0.7724	25.16	0.08	-0.750			
0.2349	15031.09	3.8330	3.8330	-0.7718	25.16	0.08	-0.750			
0.2372	15179.34	3.8300	3.8300	-0.7705	25.17	0.09	-0.750			
0.2395	15329.38	3.8270	3.8270	-0.7709	25.17	0.09	-0.750			
0.2418	15476.33	3.8240	3.8239	-0.7657	25.17	0.09	-0.750			
0.2441	15622.69	3.8210	3.8210	-0.7592	25.17	0.09	-0.750			
0.2463	15766.23	3.8180	3.8179	-0.7629	25.17	0.09	-0.750			
0.2486	15912.18	3.8150	3.8150	-0.7608	25.17	0.09	-0.750			
0.2509	16057.00	3.8120	3.8120	-0.7603	25.18	0.10	-0.750			
0.2532	16205.90	3.8090	3.8090	-0.7634	25.18	0.10	-0.750			
0.2555	16352.55	3.8060	3.8063	-0.7649	25.18	0.10	-0.750			
0.2578	16499.62	3.8030	3.8030	-0.7612	25.18	0.10	-0.750			
0.2601	16646.75	3.8000	3.7999	-0.7655	25.19	0.11	-0.750			
0.2624	16794.18	3.7970	3.7969	-0.7544	25.19	0.11	-0.750			
0.2647	16939.06	3.7940	3.7940	-0.7595	25.20	0.12	-0.750			
0.2669	17083.92	3.7910	3.7911	-0.7592	25.20	0.12	-0.750			
0.2692	17229.11	3.7880	3.7876	-0.7651	25.20	0.12	-0.750			
0.2715	17372.97	3.7850	3.7851	-0.7663	25.20	0.12	-0.750			
0.2738	17523.53	3.7820	3.7820	-0.7735	25.19	0.11	-0.750			
0.2761	17671.81	3.7790	3.7791	-0.7749	25.19	0.11	-0.750			
0.2785	17826.65	3.7760	3.7760	-0.7879	25.19	0.11	-0.750			
0.2809	17975.25	3.7730	3.7730	-0.7864	25.19	0.11	-0.750			
0.2832	18123.78	3.7700	3.7699	-0.7983	25.19	0.11	-0.750			
0.2856	18280.17	3.7670	3.7669	-0.7989	25.19	0.11	-0.750			
0.2880	18434.15	3.7640	3.7640	-0.8021	25.19	0.11	-0.750			
0.2905	18592.50	3.7610	3.7609	-0.8103	25.19	0.11	-0.750			
0.2929	18747.36	3.7580	3.7584	-0.8148	25.19	0.11	-0.750			
0.2954	18903.35	3.7550	3.7548	-0.8139	25.19	0.11	-0.750			
0.2978	19058.70	3.7520	3.7520	-0.8263	25.19	0.11	-0.750			
0.3003	19217.19	3.7490	3.7488	-0.8283	25.19	0.11	-0.750			
0.3029	19383.31	3.7460	3.7459	-0.8462	25.19	0.11	-0.750			
0.3054	19546.90	3.7430	3.7434	-0.8517	25.19	0.11	-0.750			
0.3080	19708.87	3.7400	3.7400	-0.8595	25.19	0.11	-0.750			
0.3106	19875.23	3.7370	3.7369	-0.8655	25.19	0.11	-0.750			
0.3131	20035.71	3.7340	3.7339	-0.8633	25.18	0.10	-0.750			
0.3158	20208.09	3.7310	3.7310	-0.8923	25.18	0.10	-0.750			
0.3185	20381.31	3.7280	3.7281	-0.9016	25.18	0.10	-0.750			
0.3212	20556.23	3.7250	3.7248	-0.9159	25.18	0.10	-0.750			
0.3240	20733.52	3.7220	3.7220	-0.9226	25.17	0.09	-0.750			
0.3267	20910.83	3.7190	3.7190	-0.9273	25.17	0.09	-0.750			
0.3295	21090.93	3.7160	3.7163	-0.9416	25.17	0.09	-0.750			
0.3324	21270.53	3.7130	3.7129	-0.9598	25.16	0.08	-0.750			
0.3353	21457.94	3.7100	3.7099	-0.9698	25.16	0.08	-0.750			
0.3382	21646.77	3.7070	3.7069	-0.9862	25.15	0.07	-0.750			
0.3412	21837.84	3.7040	3.7038	-0.9916	25.14	0.06	-0.750			
0.3443	22032.92	3.7010	3.7009	-1.0125	25.14	0.06	-0.750			
0.3473	22227.77	3.6980	3.6983	-1.0194	25.13	0.05	-0.750	0.365	0.517	
0.3503	22421.59	3.6950	3.6950	-1.0233	25.13	0.05	-0.750			
0.3534	22614.47	3.6920	3.6919	-1.0325	25.12	0.04	-0.750			
0.3566	22819.54	3.6890	3.6890	-1.0744	25.12	0.04	-0.750			
0.3598	23030.28	3.6860	3.6859	-1.0881	25.11	0.03	-0.750			
0.3632	23243.14	3.6830	3.6828	-1.1048	25.11	0.03	-0.750			
0.3665	23453.95	3.6800	3.6803	-1.1099	25.10	0.02	-0.750			
0.3699	23673.08	3.6770	3.6768	-1.1484	25.09	0.01	-0.750			
0.3734	23896.14	3.6740	3.6739	-1.1579	25.09	0.01	-0.750			
0.3769	24118.89	3.6710	3.6708	-1.1613	25.08	-0.00	-0.750			
0.3803	24338.56	3.6680	3.6686	-1.1706	25.07	-0.01	-0.750			
0.3839	24571.66	3.6650	3.6649	-1.2017	25.07	-0.01	-0.750			
0.3875	24800.78	3.6620	3.6619	-1.2085	25.06	-0.02	-0.750			
0.3910	25025.74	3.6590	3.6590	-1.2394	25.06	-0.02	-0.750			
0.3949	25271.53	3.6560	3.6559	-1.2682	25.06	-0.02	-0.750			
0.3987	25517.79	3.6530	3.6530	-1.2957	25.05	-0.03	-0.750			
0.4026	25768.32	3.6500	3.6498	-1.3325	25.04	-0.04	-0.750			
0.4067	26028.29	3.6470	3.6469	-1.3429	25.04	-0.04	-0.750			
0.4108	26290.19	3.6440	3.6439	-1.3616	25.03	-0.05	-0.750			
0.4149	26554.42	3.6410	3.6407	-1.3802	25.02	-0.06	-0.750			
0.4189	26811.39	3.6380	3.6381	-1.3947	25.01	-0.07	-0.750			
0.4233	27089.48	3.6350	3.6349	-1.4315	25.01	-0.07	-0.750			
0.4276	27363.53	3.6320	3.6320	-1.4613	25.00	-0.08	-0.750			
0.4319	27644.56	3.6290	3.6289	-1.4754	25.00	-0.08	-0.750			
0.4366	27940.80	3.6260	3.6262	-1.5413	24.99	-0.09	-0.750			
0.4413	28244.38	3.6230	3.6227	-1.5632	24.98	-0.10	-0.750			
0.4461	28550.79	3.6200	3.6197	-1.5868	24.97	-0.11	-0.750			
0.4509	28857.72	3.6170	3.6175	-1.6081	24.97	-0.11	-0.750			
0.4558	29169.40	3.6140	3.6140	-1.6344	24.96	-0.12	-0.750			
0.4607	29484.52	3.6110	3.6112	-1.6652	24.95	-0.13	-0.750			
0.4656	29797.32	3.6080	3.6082	-1.6991	24.94	-0.14	-0.750			
0.4708	30132.12	3.6050	3.6048	-1.7290	24.93	-0.15	-0.750			
0.4760	30464.94	3.6020	3.6018	-1.8003	24.93	-0.15	-0.750			
0.4816	30819.81	3.5990	3.5989	-1.8041	24.92	-0.16	-0.750			
0.4870	31165.85	3.5960	3.5960	-1.8381	24.92	-0.16	-0.750			
0.4926	31524.33	3.5930	3.5935	-1.8850	24.92	-0.16	-0.750			
0.4981	31877.62	3.5900	3.5901	-1.9233	24.91	-0.17	-0.750			
0.5039	32252.31	3.5870	3.5871	-1.9476	24.90	-0.18	-0.750			
0.5098	32629.50	3.5840	3.5841	-2.0092	24.90	-0.18	-0.750			
0.5161	33029.51	3.5810	3.5812	-2.0268	24.89	-0.19	-0.750			
0.5223	33430.04	3.5780	3.5778	-2.0181	24.89	-0.19	-0.750			
0.5283	33812.76	3.5750	3.5748	-1.9920	24.88	-0.20	-0.750			
0.5344	34200.29	3.5720	3.5720	-2.0408	24.88	-0.20	-0.750			
0.5406	34599.06	3.5690	3.5689	-2.0370	24.87	-0.21	-0.750			
0.5466	34980.99	3.5660	3.5660	-2.0556	24.87	-0.21	-0.750			
0.5528	35380.25	3.5630	3.5631	-2.0298	24.86	-0.22	-0.750			
0.5590	35778.35	3.5600	3.5598	-2.0178	24.86	-0.22	-0.750			
0.5650	36161.92	3.5570	3.5571	-2.0380	24.86	-0.22	-0.750			
0.5711	36550.47	3.5540	3.5538	-2.0069	24.86	-0.22	-0.750			
0.5773	36946.39	3.5510	3.5508	-2.0053	24.86	-0.22	-0.750			
0.5832	37325.80	3.5480	3.5478	-1.9803	24.86	-0.22	-0.750			
0.5893	37716.81	3.5450	3.5447	-1.9828	24.86	-0.22	-0.750			
0.5952	38094.32	3.5420	3.5416	-1.9465	24.86	-0.22	-0.750			
0.6010	38461.99	3.5390	3.5387	-1.9404	24.87	-0.21	-0.750			
0.6068	38832.60	3.5360	3.5359	-1.9051	24.88	-0.20	-0.750			
0.6123	39189.33	3.5330	3.5330	-1.8755	24.89	-0.19	-0.750			
0.6179	39548.28	3.5300	3.5300	-1.8189	24.90	-0.18	-0.750			
0.6234	39895.97	3.5270	3.5267	-1.7996	24.91	-0.17	-0.750			
0.6288	40243.38	3.5240	3.5239	-1.7648	24.92	-0.16	-0.750			
0.6341	40579.78	3.5210	3.5208	-1.7488	24.93	-0.15	-0.750			
0.6392	40911.89	3.5180	3.5183	-1.6977	24.93	-0.15	-0.750			
0.6443	41237.04	3.5150	3.5147	-1.6618	24.95	-0.13	-0.750			
0.6493	41554.57	3.5120	3.5121	-1.6476	24.96	-0.12	-0.750			
0.6541	41864.29	3.5090	3.5090	-1.5913	24.98	-0.10	-0.750			
0.6589	42168.80	3.5060	3.5060	-1.5406	25.00	-0.08	-0.750			
0.6636	42468.06	3.5030	3.5028	-1.4954	25.01	-0.07	-0.750			
0.6679	42742.85	3.5000	3.5002	-1.4510	25.03	-0.05	-0.750			
0.6722	43018.98	3.4970	3.4969	-1.3996	25.05	-0.03	-0.750			
0.6763	43280.98	3.4940	3.4938	-1.3478	25.07	-0.01	-0.750			
0.6802	43532.47	3.4910	3.4916	-1.3042	25.08	0.00	-0.750			
0.6842	43788.86	3.4880	3.4878	-1.2781	25.09	0.01	-0.750			
0.6879	44028.18	3.4850	3.4850	-1.2297	25.11	0.03	-0.750			
0.6916	44260.78	3.4820	3.4819	-1.2358	25.12	0.04	-0.750			
