Ah_balance (normalized)	Ah_balance (mAh)	Voltage - fit (V)	Voltage -  interpolate (V)	dQ/dV (1/V)	Temperature (°C)	Temperature - diff (°C)	Current (C)	R_DC 0ms (mOhm)	R_DC 50ms (mOhm)	R_DC 50 ms PEC (mOhm)
0.0005	32.45	4.1640	4.1638	-0.1546	25.12	0.00	-0.750			
0.0011	68.14	4.1610	4.1609	-0.2042	25.12	-0.00	-0.750			
0.0017	111.08	4.1580	4.1579	-0.2482	25.12	-0.00	-0.750			
0.0025	162.74	4.1550	4.1551	-0.2938	25.11	-0.01	-0.750			
0.0035	224.33	4.1520	4.1521	-0.3343	25.11	-0.01	-0.750			
0.0046	293.00	4.1490	4.1490	-0.3783	25.11	-0.01	-0.750			
0.0058	369.55	4.1460	4.1460	-0.4218	25.10	-0.02	-0.750			
0.0071	455.72	4.1430	4.1431	-0.4617	25.10	-0.02	-0.750			
0.0086	549.33	4.1400	4.1398	-0.5017	25.10	-0.02	-0.750			
0.0101	649.48	4.1370	4.1371	-0.5348	25.09	-0.03	-0.750			
0.0118	756.79	4.1340	4.1341	-0.5679	25.08	-0.04	-0.750			
0.0136	870.84	4.1310	4.1308	-0.5949	25.08	-0.04	-0.750			
0.0154	988.58	4.1280	4.1280	-0.6144	25.08	-0.04	-0.750			
0.0173	1108.70	4.1250	4.1250	-0.6319	25.07	-0.05	-0.750			
0.0193	1232.89	4.1220	4.1220	-0.6508	25.07	-0.05	-0.750			
0.0212	1359.85	4.1190	4.1190	-0.6643	25.07	-0.05	-0.750			
0.0233	1488.83	4.1160	4.1159	-0.6753	25.06	-0.06	-0.750			
0.0253	1620.25	4.1130	4.1129	-0.6863	25.06	-0.06	-0.750			
0.0274	1753.18	4.1100	4.1099	-0.6976	25.06	-0.06	-0.750			
0.0295	1888.23	4.1070	4.1070	-0.7085	25.06	-0.06	-0.750			
0.0316	2025.20	4.1040	4.1040	-0.7211	25.06	-0.06	-0.750			
0.0338	2164.84	4.1010	4.1010	-0.7221	25.05	-0.07	-0.750			
0.0361	2307.52	4.0980	4.0979	-0.7330	25.05	-0.07	-0.750			
0.0383	2449.95	4.0950	4.0953	-0.7314	25.05	-0.07	-0.750			
0.0405	2590.03	4.0920	4.0919	-0.7334	25.05	-0.07	-0.750			
0.0426	2728.32	4.0890	4.0891	-0.7401	25.05	-0.07	-0.750			
0.0448	2870.20	4.0860	4.0860	-0.7383	25.04	-0.08	-0.750			
0.0471	3013.35	4.0830	4.0828	-0.7505	25.04	-0.08	-0.750			
0.0493	3157.05	4.0800	4.0801	-0.7611	25.04	-0.08	-0.750			
0.0516	3303.59	4.0770	4.0770	-0.7706	25.04	-0.08	-0.750			
0.0540	3453.33	4.0740	4.0739	-0.7842	25.04	-0.08	-0.750			
0.0563	3603.73	4.0710	4.0710	-0.7888	25.04	-0.08	-0.750			
0.0587	3759.37	4.0680	4.0680	-0.7906	25.05	-0.07	-0.750			
0.0612	3914.12	4.0650	4.0650	-0.7949	25.05	-0.07	-0.750			
0.0635	4065.64	4.0620	4.0621	-0.7891	25.05	-0.07	-0.750			
0.0659	4215.93	4.0590	4.0590	-0.7840	25.05	-0.07	-0.750			
0.0682	4365.40	4.0560	4.0559	-0.7849	25.05	-0.07	-0.750			
0.0706	4516.08	4.0530	4.0529	-0.7814	25.06	-0.06	-0.750			
0.0729	4666.54	4.0500	4.0500	-0.7870	25.06	-0.06	-0.750			
0.0753	4818.46	4.0470	4.0473	-0.7903	25.06	-0.06	-0.750			
0.0777	4970.39	4.0440	4.0438	-0.7889	25.06	-0.06	-0.750			
0.0800	5122.05	4.0410	4.0410	-0.7892	25.06	-0.06	-0.750			
0.0824	5271.65	4.0380	4.0381	-0.7856	25.07	-0.05	-0.750			
0.0847	5421.00	4.0350	4.0351	-0.7897	25.07	-0.05	-0.750			
0.0871	5576.16	4.0320	4.0320	-0.7985	25.07	-0.05	-0.750			
0.0895	5728.13	4.0290	4.0289	-0.8009	25.07	-0.05	-0.750			
0.0919	5881.86	4.0260	4.0260	-0.8088	25.07	-0.05	-0.750			
0.0944	6040.04	4.0230	4.0231	-0.8106	25.07	-0.05	-0.750			
0.0968	6198.06	4.0200	4.0199	-0.8127	25.08	-0.04	-0.750			
0.0993	6354.42	4.0170	4.0170	-0.8104	25.08	-0.04	-0.750			
0.1017	6507.72	4.0140	4.0140	-0.8053	25.08	-0.04	-0.750			
0.1041	6661.69	4.0110	4.0110	-0.8065	25.08	-0.04	-0.750			
0.1065	6818.03	4.0080	4.0079	-0.8142	25.08	-0.04	-0.750			
0.1090	6974.84	4.0050	4.0049	-0.8162	25.09	-0.03	-0.750			
0.1115	7134.64	4.0020	4.0019	-0.8207	25.09	-0.03	-0.750			
0.1140	7293.21	3.9990	3.9992	-0.8213	25.09	-0.03	-0.750			
0.1164	7449.14	3.9960	3.9959	-0.8229	25.09	-0.03	-0.750			
0.1189	7606.54	3.9930	3.9930	-0.8209	25.09	-0.03	-0.750			
0.1212	7759.22	3.9900	3.9900	-0.8161	25.10	-0.02	-0.750			
0.1238	7921.47	3.9870	3.9869	-0.8309	25.10	-0.02	-0.750			
0.1263	8081.28	3.9840	3.9841	-0.8321	25.10	-0.02	-0.750			
0.1288	8241.94	3.9810	3.9810	-0.8324	25.10	-0.02	-0.750			
0.1313	8402.62	3.9780	3.9780	-0.8369	25.10	-0.02	-0.750			
0.1338	8563.13	3.9750	3.9750	-0.8352	25.11	-0.01	-0.750			
0.1363	8724.04	3.9720	3.9719	-0.8372	25.11	-0.01	-0.750			
0.1388	8883.92	3.9690	3.9692	-0.8368	25.11	-0.01	-0.750			
0.1413	9045.10	3.9660	3.9659	-0.8383	25.11	-0.01	-0.750			
0.1438	9204.77	3.9630	3.9630	-0.8551	25.11	-0.01	-0.750			
0.1464	9368.85	3.9600	3.9600	-0.8646	25.12	-0.00	-0.750			
0.1490	9538.90	3.9570	3.9568	-0.8720	25.12	-0.00	-0.750			
0.1517	9707.97	3.9540	3.9542	-0.8729	25.12	0.00	-0.750			
0.1543	9877.44	3.9510	3.9511	-0.8751	25.12	0.00	-0.750			
0.1570	10045.75	3.9480	3.9480	-0.8687	25.12	0.00	-0.750			
0.1595	10209.53	3.9450	3.9450	-0.8521	25.13	0.01	-0.750			
0.1621	10373.10	3.9420	3.9420	-0.8565	25.13	0.01	-0.750			
0.1646	10537.51	3.9390	3.9390	-0.8543	25.13	0.01	-0.750			
0.1672	10701.53	3.9360	3.9360	-0.8607	25.13	0.01	-0.750			
0.1698	10866.48	3.9330	3.9330	-0.8618	25.14	0.02	-0.750			
0.1724	11032.47	3.9300	3.9300	-0.8598	25.14	0.02	-0.750			
0.1750	11199.18	3.9270	3.9271	-0.8657	25.14	0.02	-0.750			
0.1776	11364.53	3.9240	3.9240	-0.8719	25.14	0.02	-0.750			
0.1802	11531.66	3.9210	3.9210	-0.8723	25.15	0.03	-0.750			
0.1828	11699.76	3.9180	3.9179	-0.8738	25.15	0.03	-0.750			
0.1854	11866.74	3.9150	3.9150	-0.8717	25.16	0.04	-0.750			
0.1881	12036.03	3.9120	3.9121	-0.8804	25.16	0.04	-0.750			
0.1907	12204.60	3.9090	3.9090	-0.8850	25.16	0.04	-0.750			
0.1933	12373.63	3.9060	3.9060	-0.8845	25.16	0.04	-0.750			
0.1960	12544.57	3.9030	3.9030	-0.8832	25.17	0.05	-0.750			
0.1987	12714.82	3.9000	3.9000	-0.8833	25.17	0.05	-0.750			
0.2013	12886.19	3.8970	3.8972	-0.8869	25.17	0.05	-0.750			
0.2040	13055.30	3.8940	3.8940	-0.8888	25.17	0.05	-0.750			
0.2066	13225.25	3.8910	3.8909	-0.8855	25.17	0.05	-0.750			
0.2093	13395.58	3.8880	3.8880	-0.8894	25.18	0.06	-0.750			
0.2120	13566.52	3.8850	3.8850	-0.8951	25.18	0.06	-0.750			
0.2147	13739.53	3.8820	3.8821	-0.8983	25.18	0.06	-0.750			
0.2174	13912.81	3.8790	3.8789	-0.9003	25.19	0.07	-0.750			
0.2201	14085.46	3.8760	3.8760	-0.8993	25.19	0.07	-0.750			
0.2228	14258.02	3.8730	3.8730	-0.8980	25.20	0.08	-0.750			
0.2255	14431.92	3.8700	3.8699	-0.8961	25.20	0.08	-0.750			
0.2282	14603.02	3.8670	3.8670	-0.8953	25.20	0.08	-0.750			
0.2309	14774.65	3.8640	3.8641	-0.8920	25.21	0.09	-0.750			
0.2335	14945.65	3.8610	3.8610	-0.8932	25.21	0.09	-0.750			
0.2362	15116.69	3.8580	3.8580	-0.8936	25.22	0.10	-0.750			
0.2389	15288.41	3.8550	3.8551	-0.8968	25.22	0.10	-0.750			
0.2416	15460.23	3.8520	3.8521	-0.9029	25.23	0.11	-0.750			
0.2443	15634.82	3.8490	3.8490	-0.9064	25.23	0.11	-0.750			
0.2470	15810.20	3.8460	3.8460	-0.9011	25.24	0.12	-0.750			
0.2498	15984.27	3.8430	3.8429	-0.9028	25.25	0.13	-0.750			
0.2525	16156.99	3.8400	3.8400	-0.8973	25.25	0.13	-0.750			
0.2551	16328.76	3.8370	3.8370	-0.9021	25.25	0.13	-0.750			
0.2578	16501.57	3.8340	3.8339	-0.9028	25.26	0.14	-0.750			
0.2605	16673.54	3.8310	3.8310	-0.9041	25.26	0.14	-0.750			
0.2633	16849.26	3.8280	3.8280	-0.9066	25.26	0.14	-0.750			
0.2660	17024.48	3.8250	3.8251	-0.9114	25.26	0.14	-0.750			
0.2688	17200.49	3.8220	3.8219	-0.9016	25.27	0.15	-0.750			
0.2715	17373.17	3.8190	3.8190	-0.8941	25.27	0.15	-0.750			
0.2741	17542.10	3.8160	3.8161	-0.8926	25.28	0.16	-0.750			
0.2768	17713.03	3.8130	3.8129	-0.8877	25.28	0.16	-0.750			
0.2794	17883.59	3.8100	3.8100	-0.8867	25.28	0.16	-0.750			
0.2821	18054.15	3.8070	3.8070	-0.8873	25.29	0.17	-0.750			
0.2847	18223.03	3.8040	3.8040	-0.8919	25.29	0.17	-0.750			
0.2875	18400.37	3.8010	3.8010	-0.8831	25.29	0.17	-0.750			
0.2902	18569.91	3.7980	3.7978	-0.8626	25.29	0.17	-0.750			
0.2927	18732.06	3.7950	3.7951	-0.8559	25.29	0.17	-0.750			
0.2952	18895.21	3.7920	3.7924	-0.8483	25.30	0.18	-0.750			
0.2977	19054.05	3.7890	3.7886	-0.8425	25.30	0.18	-0.750			
0.3002	19212.71	3.7860	3.7862	-0.8462	25.30	0.18	-0.750			
0.3027	19374.53	3.7830	3.7830	-0.8565	25.30	0.18	-0.750			
0.3054	19545.86	3.7800	3.7798	-0.8825	25.31	0.19	-0.750			
0.3081	19715.73	3.7770	3.7770	-0.8831	25.31	0.19	-0.750			
0.3107	19882.66	3.7740	3.7740	-0.8804	25.32	0.20	-0.750			
0.3134	20058.41	3.7710	3.7711	-0.8924	25.32	0.20	-0.750			
0.3161	20229.73	3.7680	3.7680	-0.8973	25.32	0.20	-0.750			
0.3188	20400.39	3.7650	3.7650	-0.8927	25.33	0.21	-0.750			
0.3215	20573.20	3.7620	3.7620	-0.8919	25.33	0.21	-0.750			
0.3241	20743.95	3.7590	3.7589	-0.8941	25.34	0.22	-0.750			
0.3268	20916.16	3.7560	3.7561	-0.8921	25.34	0.22	-0.750			
0.3295	21086.36	3.7530	3.7530	-0.8974	25.34	0.22	-0.750			
0.3322	21257.63	3.7500	3.7499	-0.9019	25.35	0.23	-0.750			
0.3349	21431.49	3.7470	3.7470	-0.9007	25.35	0.23	-0.750			
0.3376	21607.05	3.7440	3.7439	-0.9064	25.35	0.23	-0.750			
0.3403	21781.94	3.7410	3.7410	-0.9060	25.35	0.23	-0.750			
0.3430	21953.89	3.7380	3.7381	-0.9084	25.36	0.24	-0.750			
0.3457	22126.51	3.7350	3.7350	-0.9124	25.36	0.24	-0.750			
0.3484	22300.25	3.7320	3.7317	-0.9168	25.37	0.25	-0.750			
0.3512	22478.19	3.7290	3.7292	-0.9261	25.37	0.25	-0.750			
0.3540	22658.05	3.7260	3.7261	-0.9469	25.37	0.25	-0.750			
0.3570	22844.82	3.7230	3.7229	-0.9554	25.37	0.25	-0.750			
0.3598	23029.11	3.7200	3.7198	-0.9656	25.37	0.25	-0.750			
0.3627	23212.06	3.7170	3.7172	-0.9704	25.37	0.25	-0.750			
0.3656	23398.20	3.7140	3.7139	-1.0026	25.37	0.25	-0.750			
0.3687	23596.50	3.7110	3.7108	-1.0114	25.37	0.25	-0.750			
0.3718	23792.21	3.7080	3.7079	-1.0195	25.37	0.25	-0.750			
0.3748	23987.72	3.7050	3.7047	-1.0241	25.37	0.25	-0.750			
0.3780	24190.12	3.7020	3.7019	-1.0495	25.37	0.25	-0.750	0.384	0.482	
0.3811	24391.25	3.6990	3.6989	-1.0495	25.37	0.25	-0.750			
0.3842	24587.30	3.6960	3.6959	-1.0662	25.37	0.25	-0.750			
0.3874	24791.92	3.6930	3.6931	-1.0899	25.37	0.25	-0.750			
0.3908	25008.41	3.6900	3.6899	-1.1284	25.37	0.25	-0.750			
0.3942	25228.51	3.6870	3.6869	-1.1453	25.37	0.25	-0.750			
0.3977	25450.26	3.6840	3.6840	-1.1678	25.37	0.25	-0.750			
0.4012	25677.65	3.6810	3.6813	-1.2031	25.37	0.25	-0.750			
0.4049	25916.51	3.6780	3.6778	-1.2310	25.36	0.24	-0.750			
0.4086	26151.73	3.6750	3.6748	-1.2452	25.36	0.24	-0.750			
0.4124	26392.06	3.6720	3.6719	-1.2718	25.35	0.23	-0.750			
0.4163	26642.83	3.6690	3.6688	-1.3057	25.35	0.23	-0.750			
0.4202	26893.12	3.6660	3.6659	-1.3231	25.35	0.23	-0.750			
0.4241	27143.55	3.6630	3.6630	-1.3524	25.35	0.23	-0.750			
0.4283	27412.80	3.6600	3.6599	-1.4008	25.34	0.22	-0.750			
0.4325	27682.63	3.6570	3.6568	-1.4384	25.33	0.21	-0.750			
0.4370	27964.81	3.6540	3.6539	-1.4775	25.32	0.20	-0.750			
0.4414	28250.40	3.6510	3.6508	-1.5112	25.32	0.20	-0.750			
0.4461	28549.82	3.6480	3.6484	-1.5488	25.31	0.19	-0.750			
0.4507	28845.51	3.6450	3.6455	-1.5818	25.30	0.18	-0.750			
0.4554	29146.27	3.6420	3.6417	-1.6018	25.29	0.17	-0.750			
0.4603	29461.27	3.6390	3.6390	-1.6413	25.28	0.16	-0.750			
0.4654	29784.52	3.6360	3.6357	-1.6852	25.28	0.16	-0.750			
0.4706	30116.65	3.6330	3.6326	-1.7431	25.27	0.15	-0.750			
0.4759	30454.70	3.6300	3.6304	-1.7499	25.27	0.15	-0.750			
0.4812	30793.77	3.6270	3.6272	-1.7981	25.26	0.14	-0.750			
0.4865	31139.16	3.6240	3.6242	-1.8118	25.24	0.12	-0.750			
0.4920	31489.77	3.6210	3.6210	-1.8291	25.23	0.11	-0.750			
0.4978	31856.11	3.6180	3.6179	-1.8663	25.22	0.10	-0.750			
0.5032	32205.05	3.6150	3.6149	-1.9202	25.22	0.10	-0.750			
0.5090	32573.97	3.6120	3.6116	-1.9555	25.21	0.09	-0.750			
0.5150	32959.56	3.6090	3.6087	-1.9867	25.21	0.09	-0.750			
0.5210	33345.41	3.6060	3.6058	-2.0483	25.20	0.08	-0.750			
0.5273	33746.28	3.6030	3.6030	-2.0852	25.19	0.07	-0.750			
0.5336	34148.56	3.6000	3.5997	-2.1331	25.18	0.06	-0.750			
0.5399	34554.60	3.5970	3.5971	-2.1713	25.18	0.06	-0.750			
0.5466	34984.93	3.5940	3.5941	-2.2015	25.16	0.04	-0.750			
0.5533	35411.66	3.5910	3.5915	-2.2275	25.15	0.03	-0.750			
0.5601	35843.58	3.5880	3.5879	-2.2785	25.14	0.02	-0.750			
0.5669	36281.11	3.5850	3.5848	-2.2792	25.13	0.01	-0.750			
0.5737	36717.71	3.5820	3.5818	-2.3001	25.12	0.00	-0.750			
0.5809	37178.95	3.5790	3.5793	-2.3898	25.12	-0.00	-0.750			
0.5880	37632.82	3.5760	3.5759	-2.3419	25.11	-0.01	-0.750			
0.5952	38093.44	3.5730	3.5727	-2.3810	25.11	-0.01	-0.750			
0.6024	38551.38	3.5700	3.5699	-2.4042	25.11	-0.01	-0.750			
0.6093	38997.52	3.5670	3.5666	-2.4071	25.10	-0.02	-0.750			
0.6164	39451.96	3.5640	3.5643	-2.3994	25.09	-0.03	-0.750			
0.6240	39935.85	3.5610	3.5609	-2.4011	25.08	-0.04	-0.750			
0.6312	40399.56	3.5580	3.5575	-2.3834	25.08	-0.04	-0.750			
0.6382	40844.81	3.5550	3.5554	-2.3848	25.09	-0.03	-0.750			
0.6453	41296.35	3.5520	3.5522	-2.3599	25.09	-0.03	-0.750			
0.6525	41757.80	3.5490	3.5489	-2.3234	25.09	-0.03	-0.750			
0.6596	42211.64	3.5460	3.5455	-2.3335	25.10	-0.02	-0.750			
0.6664	42646.56	3.5430	3.5433	-2.2349	25.10	-0.02	-0.750			
0.6729	43067.09	3.5400	3.5402	-2.1842	25.11	-0.01	-0.750			
0.6795	43485.56	3.5370	3.5368	-2.1329	25.11	-0.01	-0.750			
0.6859	43894.43	3.5340	3.5338	-2.0873	25.12	-0.00	-0.750			
0.6920	44287.40	3.5310	3.5312	-2.0291	25.13	0.01	-0.750			
0.6982	44684.12	3.5280	3.5279	-2.0196	25.14	0.02	-0.750			
0.7041	45060.58	3.5250	3.5246	-1.9443	25.15	0.03	-0.750			
0.7099	45433.70	3.5220	3.5217	-1.8868	25.16	0.04	-0.750			
0.7154	45784.35	3.5190	3.5187	-1.8107	25.17	0.05	-0.750			
0.7208	46131.33	3.5160	3.5156	-1.7561	25.18	0.06	-0.750			
0.7259	46458.16	3.5130	3.5128	-1.6933	25.18	0.06	-0.750			
0.7309	46778.53	3.5100	3.5098	-1.6200	25.20	0.08	-0.750			
0.7357	47083.46	3.5070	3.5071	-1.5868	25.21	0.09	-0.750			
0.7403	47381.40	3.5040	3.5039	-1.5497	25.23	0.11	-0.750			
0.7450	47676.81	3.5010	3.5010	-1.5314	25.24	0.12	-0.750			
0.7495	47970.47	3.4980	3.4979	-1.5697	25.26	0.14	-0.750			
