Ah_balance (normalized)	Ah_balance (mAh)	Voltage - fit (V)	Voltage -  interpolate (V)	dQ/dV (1/V)	Temperature (°C)	Temperature - diff (°C)	Current (C)	R_DC 0ms (mOhm)	R_DC 50ms (mOhm)	R_DC 50 ms PEC (mOhm)
0.0003	16.31	4.1610	4.1609	-0.1101	25.56	0.01	-0.750			
0.0007	42.69	4.1580	4.1578	-0.1572	25.56	0.01	-0.750			
0.0012	77.51	4.1550	4.1550	-0.2008	25.56	0.01	-0.750			
0.0019	120.61	4.1520	4.1520	-0.2410	25.56	0.01	-0.750			
0.0027	170.09	4.1490	4.1490	-0.2828	25.56	0.01	-0.750			
0.0036	229.74	4.1460	4.1461	-0.3208	25.56	0.01	-0.750			
0.0046	295.24	4.1430	4.1429	-0.3577	25.55	0.00	-0.750			
0.0057	367.42	4.1400	4.1399	-0.3933	25.55	0.00	-0.750			
0.0070	447.18	4.1370	4.1375	-0.4264	25.55	0.00	-0.750			
0.0083	532.22	4.1340	4.1340	-0.4573	25.55	-0.00	-0.750			
0.0098	624.16	4.1310	4.1310	-0.4896	25.55	-0.00	-0.750			
0.0113	721.03	4.1280	4.1280	-0.5162	25.54	-0.01	-0.750			
0.0129	822.60	4.1250	4.1250	-0.5482	25.54	-0.01	-0.750			
0.0146	932.31	4.1220	4.1220	-0.5650	25.54	-0.01	-0.750			
0.0163	1045.15	4.1190	4.1190	-0.5825	25.54	-0.01	-0.750			
0.0181	1159.40	4.1160	4.1159	-0.5934	25.53	-0.02	-0.750			
0.0199	1274.79	4.1130	4.1132	-0.6043	25.53	-0.02	-0.750			
0.0217	1389.71	4.1100	4.1100	-0.6170	25.53	-0.02	-0.750			
0.0236	1508.46	4.1070	4.1069	-0.6261	25.52	-0.03	-0.750			
0.0254	1628.39	4.1040	4.1040	-0.6368	25.52	-0.03	-0.750			
0.0274	1755.88	4.1010	4.1010	-0.6599	25.52	-0.03	-0.750			
0.0295	1885.54	4.0980	4.0981	-0.6714	25.51	-0.04	-0.750			
0.0315	2015.42	4.0950	4.0951	-0.6800	25.51	-0.04	-0.750			
0.0336	2147.44	4.0920	4.0919	-0.6817	25.51	-0.04	-0.750			
0.0356	2278.36	4.0890	4.0890	-0.6837	25.51	-0.04	-0.750			
0.0376	2409.06	4.0860	4.0860	-0.6947	25.51	-0.04	-0.750			
0.0397	2542.16	4.0830	4.0830	-0.6989	25.50	-0.05	-0.750			
0.0419	2679.16	4.0800	4.0798	-0.7018	25.50	-0.05	-0.750			
0.0440	2815.00	4.0770	4.0769	-0.7039	25.50	-0.05	-0.750			
0.0461	2949.53	4.0740	4.0741	-0.7106	25.50	-0.05	-0.750			
0.0482	3086.99	4.0710	4.0710	-0.7176	25.50	-0.05	-0.750			
0.0504	3224.39	4.0680	4.0679	-0.7278	25.50	-0.05	-0.750			
0.0526	3366.00	4.0650	4.0649	-0.7271	25.51	-0.04	-0.750			
0.0548	3509.01	4.0620	4.0620	-0.7337	25.51	-0.04	-0.750			
0.0570	3650.19	4.0590	4.0596	-0.7339	25.51	-0.04	-0.750			
0.0592	3791.35	4.0560	4.0559	-0.7346	25.51	-0.04	-0.750			
0.0614	3929.52	4.0530	4.0530	-0.7355	25.51	-0.04	-0.750			
0.0636	4069.89	4.0500	4.0498	-0.7293	25.50	-0.05	-0.750			
0.0658	4212.54	4.0470	4.0471	-0.7419	25.50	-0.05	-0.750			
0.0680	4355.17	4.0440	4.0440	-0.7423	25.50	-0.05	-0.750			
0.0703	4498.26	4.0410	4.0410	-0.7439	25.50	-0.05	-0.750			
0.0725	4640.72	4.0380	4.0378	-0.7444	25.50	-0.05	-0.750			
0.0747	4781.78	4.0350	4.0351	-0.7463	25.50	-0.05	-0.750			
0.0770	4926.04	4.0320	4.0319	-0.7467	25.51	-0.04	-0.750			
0.0792	5071.67	4.0290	4.0289	-0.7516	25.51	-0.04	-0.750			
0.0815	5215.78	4.0260	4.0261	-0.7450	25.51	-0.04	-0.750			
0.0837	5358.20	4.0230	4.0230	-0.7491	25.51	-0.04	-0.750			
0.0859	5499.68	4.0200	4.0200	-0.7583	25.51	-0.04	-0.750			
0.0882	5647.11	4.0170	4.0169	-0.7601	25.51	-0.04	-0.750			
0.0905	5792.59	4.0140	4.0139	-0.7619	25.51	-0.04	-0.750			
0.0928	5942.01	4.0110	4.0110	-0.7718	25.51	-0.04	-0.750			
0.0952	6091.03	4.0080	4.0081	-0.7710	25.51	-0.04	-0.750			
0.0975	6240.81	4.0050	4.0049	-0.7721	25.51	-0.04	-0.750			
0.0998	6386.76	4.0020	4.0020	-0.7675	25.52	-0.03	-0.750			
0.1021	6531.40	3.9990	3.9991	-0.7644	25.52	-0.03	-0.750			
0.1044	6680.49	3.9960	3.9960	-0.7728	25.53	-0.02	-0.750			
0.1067	6828.67	3.9930	3.9930	-0.7717	25.53	-0.02	-0.750			
0.1090	6975.94	3.9900	3.9900	-0.7741	25.53	-0.02	-0.750			
0.1113	7126.15	3.9870	3.9869	-0.7853	25.53	-0.02	-0.750			
0.1137	7278.75	3.9840	3.9840	-0.7853	25.54	-0.01	-0.750			
0.1161	7430.35	3.9810	3.9809	-0.7845	25.54	-0.01	-0.750			
0.1185	7583.11	3.9780	3.9782	-0.7820	25.54	-0.01	-0.750			
0.1208	7731.74	3.9750	3.9748	-0.7820	25.54	-0.01	-0.750			
0.1231	7877.93	3.9720	3.9720	-0.7897	25.54	-0.01	-0.750			
0.1255	8029.13	3.9690	3.9690	-0.7915	25.54	-0.01	-0.750			
0.1278	8178.86	3.9660	3.9659	-0.7940	25.55	-0.00	-0.750			
0.1303	8338.95	3.9630	3.9629	-0.8020	25.55	-0.00	-0.750			
0.1327	8493.29	3.9600	3.9602	-0.7983	25.55	0.00	-0.750			
0.1351	8647.70	3.9570	3.9570	-0.8014	25.56	0.01	-0.750			
0.1375	8799.33	3.9540	3.9539	-0.7931	25.56	0.01	-0.750			
0.1398	8947.41	3.9510	3.9510	-0.7844	25.56	0.01	-0.750			
0.1422	9100.54	3.9480	3.9481	-0.7940	25.57	0.02	-0.750			
0.1446	9252.11	3.9450	3.9450	-0.7978	25.57	0.02	-0.750			
0.1470	9406.07	3.9420	3.9420	-0.8018	25.57	0.02	-0.750			
0.1494	9559.79	3.9390	3.9389	-0.8132	25.58	0.03	-0.750			
0.1519	9719.65	3.9360	3.9359	-0.8083	25.58	0.03	-0.750			
0.1543	9877.48	3.9330	3.9330	-0.8113	25.59	0.04	-0.750			
0.1568	10032.09	3.9300	3.9304	-0.8072	25.59	0.04	-0.750			
0.1592	10185.77	3.9270	3.9269	-0.8038	25.59	0.04	-0.750			
0.1615	10338.51	3.9240	3.9238	-0.8165	25.59	0.04	-0.750			
0.1640	10495.39	3.9210	3.9208	-0.8106	25.60	0.05	-0.750			
0.1665	10655.02	3.9180	3.9179	-0.8209	25.60	0.05	-0.750			
0.1690	10814.49	3.9150	3.9155	-0.8182	25.60	0.05	-0.750			
0.1714	10972.01	3.9120	3.9119	-0.8122	25.60	0.05	-0.750			
0.1738	11126.06	3.9090	3.9089	-0.8074	25.60	0.05	-0.750			
0.1762	11274.45	3.9060	3.9060	-0.7969	25.61	0.06	-0.750			
0.1786	11430.82	3.9030	3.9029	-0.8050	25.61	0.06	-0.750			
0.1810	11584.17	3.9000	3.9000	-0.8069	25.61	0.06	-0.750			
0.1834	11738.03	3.8970	3.8969	-0.8101	25.61	0.06	-0.750			
0.1858	11892.67	3.8940	3.8940	-0.8205	25.62	0.07	-0.750			
0.1883	12052.96	3.8910	3.8908	-0.8171	25.62	0.07	-0.750			
0.1908	12210.28	3.8880	3.8880	-0.8147	25.62	0.07	-0.750			
0.1933	12369.33	3.8850	3.8849	-0.8124	25.63	0.08	-0.750			
0.1957	12525.93	3.8820	3.8818	-0.8071	25.63	0.08	-0.750			
0.1981	12676.10	3.8790	3.8790	-0.7978	25.63	0.08	-0.750			
0.2005	12829.61	3.8760	3.8760	-0.7893	25.63	0.08	-0.750			
0.2028	12977.80	3.8730	3.8730	-0.7861	25.64	0.09	-0.750			
0.2052	13131.54	3.8700	3.8698	-0.7927	25.64	0.09	-0.750			
0.2075	13283.02	3.8670	3.8671	-0.7884	25.64	0.09	-0.750			
0.2099	13433.99	3.8640	3.8639	-0.7882	25.64	0.09	-0.750			
0.2123	13585.73	3.8610	3.8610	-0.7881	25.65	0.10	-0.750			
0.2146	13736.19	3.8580	3.8581	-0.7817	25.65	0.10	-0.750			
0.2170	13889.52	3.8550	3.8549	-0.7825	25.66	0.11	-0.750			
0.2193	14036.94	3.8520	3.8521	-0.7751	25.66	0.11	-0.750			
0.2216	14185.48	3.8490	3.8490	-0.7769	25.66	0.11	-0.750			
0.2240	14334.46	3.8460	3.8460	-0.7797	25.66	0.11	-0.750			
0.2263	14483.96	3.8430	3.8429	-0.7782	25.67	0.12	-0.750			
0.2287	14634.64	3.8400	3.8399	-0.7708	25.67	0.12	-0.750			
0.2310	14783.94	3.8370	3.8370	-0.7721	25.67	0.12	-0.750			
0.2333	14931.39	3.8340	3.8340	-0.7662	25.67	0.12	-0.750			
0.2355	15073.20	3.8310	3.8310	-0.7753	25.67	0.12	-0.750			
0.2379	15224.41	3.8280	3.8278	-0.7659	25.67	0.12	-0.750			
0.2402	15370.82	3.8250	3.8249	-0.7624	25.68	0.13	-0.750			
0.2425	15520.43	3.8220	3.8218	-0.7636	25.68	0.13	-0.750			
0.2448	15667.63	3.8190	3.8195	-0.7575	25.68	0.13	-0.750			
0.2470	15810.21	3.8160	3.8159	-0.7531	25.68	0.13	-0.750			
0.2493	15953.52	3.8130	3.8130	-0.7537	25.68	0.13	-0.750			
0.2515	16093.94	3.8100	3.8099	-0.7472	25.69	0.14	-0.750			
0.2538	16242.34	3.8070	3.8070	-0.7562	25.69	0.14	-0.750			
0.2560	16386.93	3.8040	3.8040	-0.7584	25.69	0.14	-0.750			
0.2583	16533.18	3.8010	3.8010	-0.7581	25.69	0.14	-0.750			
0.2606	16677.97	3.7980	3.7979	-0.7614	25.69	0.14	-0.750			
0.2629	16822.80	3.7950	3.7950	-0.7621	25.69	0.14	-0.750			
0.2652	16970.09	3.7920	3.7921	-0.7629	25.69	0.14	-0.750			
0.2675	17118.03	3.7890	3.7889	-0.7718	25.69	0.14	-0.750			
0.2698	17267.14	3.7860	3.7863	-0.7740	25.69	0.14	-0.750			
0.2721	17414.89	3.7830	3.7831	-0.7792	25.69	0.14	-0.750			
0.2745	17566.16	3.7800	3.7799	-0.7884	25.69	0.14	-0.750			
0.2769	17718.89	3.7770	3.7768	-0.7862	25.69	0.14	-0.750			
0.2792	17870.64	3.7740	3.7740	-0.7884	25.69	0.14	-0.750			
0.2816	18022.04	3.7710	3.7709	-0.7922	25.69	0.14	-0.750			
0.2840	18174.37	3.7680	3.7679	-0.7904	25.69	0.14	-0.750			
0.2863	18325.23	3.7650	3.7649	-0.8002	25.69	0.14	-0.750			
0.2887	18475.76	3.7620	3.7621	-0.8023	25.69	0.14	-0.750			
0.2912	18634.01	3.7590	3.7589	-0.8177	25.69	0.14	-0.750			
0.2936	18790.51	3.7560	3.7560	-0.8233	25.69	0.14	-0.750			
0.2961	18948.90	3.7530	3.7531	-0.8306	25.69	0.14	-0.750			
0.2986	19107.77	3.7500	3.7500	-0.8460	25.69	0.14	-0.750			
0.3011	19273.25	3.7470	3.7469	-0.8579	25.69	0.14	-0.750			
0.3037	19438.83	3.7440	3.7440	-0.8627	25.69	0.14	-0.750			
0.3064	19607.35	3.7410	3.7409	-0.8744	25.69	0.14	-0.750			
0.3090	19774.21	3.7380	3.7381	-0.8884	25.69	0.14	-0.750			
0.3117	19946.03	3.7350	3.7349	-0.8891	25.68	0.13	-0.750			
0.3143	20116.87	3.7320	3.7319	-0.8952	25.68	0.13	-0.750			
0.3170	20287.19	3.7290	3.7288	-0.8948	25.67	0.12	-0.750			
0.3197	20463.55	3.7260	3.7266	-0.9103	25.67	0.12	-0.750			
0.3225	20637.83	3.7230	3.7230	-0.9195	25.67	0.12	-0.750			
0.3252	20813.94	3.7200	3.7199	-0.9278	25.67	0.12	-0.750			
0.3280	20992.79	3.7170	3.7170	-0.9353	25.66	0.11	-0.750			
0.3308	21173.72	3.7140	3.7139	-0.9536	25.66	0.11	-0.750			
0.3337	21354.86	3.7110	3.7111	-0.9734	25.66	0.11	-0.750			
0.3367	21545.90	3.7080	3.7079	-0.9888	25.66	0.11	-0.750			
0.3397	21738.77	3.7050	3.7049	-0.9987	25.65	0.10	-0.750			
0.3427	21933.16	3.7020	3.7019	-0.9993	25.65	0.10	-0.750			
0.3457	22123.03	3.6990	3.6989	-1.0248	25.65	0.10	-0.750	0.367	0.531	
0.3488	22322.97	3.6960	3.6959	-1.0332	25.64	0.09	-0.750			
0.3519	22521.11	3.6930	3.6926	-1.0366	25.64	0.09	-0.750			
0.3550	22718.39	3.6900	3.6898	-1.0433	25.63	0.08	-0.750			
0.3581	22920.68	3.6870	3.6869	-1.0641	25.63	0.08	-0.750			
0.3614	23131.34	3.6840	3.6839	-1.0858	25.62	0.07	-0.750			
0.3647	23339.48	3.6810	3.6809	-1.0986	25.62	0.07	-0.750			
0.3679	23548.37	3.6780	3.6780	-1.1238	25.61	0.06	-0.750			
0.3713	23765.43	3.6750	3.6749	-1.1528	25.61	0.06	-0.750			
0.3749	23991.86	3.6720	3.6719	-1.1704	25.60	0.05	-0.750			
0.3784	24218.63	3.6690	3.6688	-1.1828	25.60	0.05	-0.750			
0.3820	24446.95	3.6660	3.6666	-1.2089	25.59	0.04	-0.750			
0.3857	24686.09	3.6630	3.6628	-1.2303	25.58	0.03	-0.750			
0.3894	24923.48	3.6600	3.6598	-1.2352	25.58	0.03	-0.750			
0.3931	25157.15	3.6570	3.6567	-1.2458	25.57	0.02	-0.750			
0.3969	25402.13	3.6540	3.6539	-1.2744	25.57	0.02	-0.750			
0.4007	25646.35	3.6510	3.6509	-1.2882	25.56	0.01	-0.750			
0.4045	25887.48	3.6480	3.6480	-1.3232	25.55	0.00	-0.750			
0.4086	26151.51	3.6450	3.6449	-1.3542	25.55	-0.00	-0.750			
0.4127	26413.71	3.6420	3.6419	-1.3686	25.54	-0.01	-0.750			
0.4169	26678.68	3.6390	3.6389	-1.4190	25.53	-0.02	-0.750			
0.4212	26957.40	3.6360	3.6359	-1.4383	25.53	-0.02	-0.750			
0.4256	27239.99	3.6330	3.6326	-1.4678	25.53	-0.02	-0.750			
0.4301	27524.22	3.6300	3.6302	-1.4783	25.52	-0.03	-0.750			
0.4345	27805.66	3.6270	3.6268	-1.4921	25.52	-0.03	-0.750			
0.4390	28098.60	3.6240	3.6243	-1.5470	25.51	-0.04	-0.750			
0.4436	28389.88	3.6210	3.6209	-1.5763	25.51	-0.04	-0.750			
0.4483	28692.86	3.6180	3.6179	-1.6003	25.50	-0.05	-0.750			
0.4534	29020.10	3.6150	3.6147	-1.6300	25.50	-0.05	-0.750			
0.4584	29339.75	3.6120	3.6117	-1.6608	25.49	-0.06	-0.750			
0.4634	29655.02	3.6090	3.6085	-1.6729	25.48	-0.07	-0.750			
0.4683	29971.69	3.6060	3.6057	-1.6828	25.48	-0.07	-0.750			
0.4733	30294.07	3.6030	3.6031	-1.7042	25.48	-0.07	-0.750			
0.4785	30621.24	3.6000	3.6002	-1.7451	25.47	-0.08	-0.750			
0.4838	30965.72	3.5970	3.5968	-1.7874	25.47	-0.08	-0.750			
0.4895	31327.09	3.5940	3.5940	-1.8762	25.46	-0.09	-0.750			
0.4953	31696.11	3.5910	3.5911	-1.8921	25.45	-0.10	-0.750			
0.5010	32066.77	3.5880	3.5879	-1.9296	25.45	-0.10	-0.750			
0.5068	32436.80	3.5850	3.5855	-1.9238	25.45	-0.10	-0.750			
0.5126	32806.69	3.5820	3.5820	-1.9811	25.45	-0.10	-0.750			
0.5185	33182.53	3.5790	3.5790	-1.9644	25.45	-0.10	-0.750			
0.5243	33558.38	3.5760	3.5758	-1.9824	25.45	-0.10	-0.750			
0.5305	33950.54	3.5730	3.5726	-2.0266	25.45	-0.10	-0.750			
0.5366	34341.31	3.5700	3.5701	-2.0304	25.45	-0.10	-0.750			
0.5425	34720.26	3.5670	3.5672	-2.0985	25.45	-0.10	-0.750			
0.5489	35129.31	3.5640	3.5640	-2.2094	25.45	-0.10	-0.750			
0.5556	35559.99	3.5610	3.5608	-2.1806	25.45	-0.10	-0.750			
0.5624	35996.25	3.5580	3.5585	-2.1992	25.45	-0.10	-0.750			
0.5693	36437.38	3.5550	3.5552	-2.1609	25.46	-0.09	-0.750			
0.5757	36843.80	3.5520	3.5519	-2.0663	25.46	-0.09	-0.750			
0.5815	37217.29	3.5490	3.5487	-1.9612	25.47	-0.08	-0.750			
0.5873	37588.70	3.5460	3.5459	-1.9684	25.47	-0.08	-0.750			
0.5932	37967.64	3.5430	3.5428	-1.9379	25.48	-0.07	-0.750			
0.5990	38335.50	3.5400	3.5399	-1.9296	25.49	-0.06	-0.750			
0.6049	38714.36	3.5370	3.5372	-1.9114	25.51	-0.04	-0.750			
0.6106	39075.64	3.5340	3.5339	-1.8544	25.53	-0.02	-0.750			
0.6161	39431.01	3.5310	3.5312	-1.8233	25.54	-0.01	-0.750			
0.6215	39776.07	3.5280	3.5279	-1.7808	25.55	0.00	-0.750			
0.6267	40111.46	3.5250	3.5250	-1.7681	25.56	0.01	-0.750			
0.6321	40454.20	3.5220	3.5220	-1.7259	25.57	0.02	-0.750			
0.6373	40785.14	3.5190	3.5192	-1.6977	25.59	0.04	-0.750			
0.6423	41108.33	3.5160	3.5160	-1.6634	25.61	0.06	-0.750			
0.6473	41429.20	3.5130	3.5127	-1.6198	25.63	0.08	-0.750			
0.6520	41730.47	3.5100	3.5097	-1.5836	25.65	0.10	-0.750			
0.6567	42029.35	3.5070	3.5075	-1.5365	25.67	0.12	-0.750			
0.6613	42324.94	3.5040	3.5038	-1.4895	25.68	0.13	-0.750			
0.6658	42610.13	3.5010	3.5009	-1.4434	25.70	0.15	-0.750			
0.6700	42879.43	3.4980	3.4981	-1.4050	25.71	0.16	-0.750			
0.6742	43147.24	3.4950	3.4947	-1.3663	25.73	0.18	-0.750			
0.6782	43403.27	3.4920	3.4919	-1.3110	25.74	0.19	-0.750			
0.6819	43642.37	3.4890	3.4895	-1.2726	25.75	0.20	-0.750			
0.6858	43890.77	3.4860	3.4859	-1.2514	25.77	0.22	-0.750			
0.6895	44127.66	3.4830	3.4828	-1.2093	25.78	0.23	-0.750			
0.6931	44357.20	3.4800	3.4797	-1.2605	25.79	0.24	-0.750			
