Ah_balance (normalized)	Ah_balance (mAh)	Voltage - fit (V)	Voltage -  interpolate (V)	dQ/dV (1/V)	Temperature (°C)	Temperature - diff (°C)	Current (C)	R_DC 0ms (mOhm)	R_DC 50ms (mOhm)	R_DC 50 ms PEC (mOhm)
0.0003	17.89	4.1660	4.1658	-0.1236	24.98	0.01	-0.750			
0.0007	46.83	4.1630	4.1629	-0.1740	24.98	0.01	-0.750			
0.0013	84.27	4.1600	4.1599	-0.2221	24.98	0.01	-0.750			
0.0021	132.40	4.1570	4.1570	-0.2706	24.98	0.01	-0.750			
0.0030	189.24	4.1540	4.1539	-0.3159	24.98	0.01	-0.750			
0.0040	255.61	4.1510	4.1510	-0.3604	24.98	0.01	-0.750			
0.0052	329.68	4.1480	4.1481	-0.4011	24.98	0.01	-0.750			
0.0064	410.82	4.1450	4.1449	-0.4406	24.97	0.00	-0.750			
0.0078	499.44	4.1420	4.1420	-0.4768	24.97	0.00	-0.750			
0.0093	594.16	4.1390	4.1391	-0.5116	24.97	0.00	-0.750			
0.0109	696.25	4.1360	4.1360	-0.5451	24.97	-0.00	-0.750			
0.0126	805.70	4.1330	4.1330	-0.5755	24.96	-0.01	-0.750			
0.0144	919.27	4.1300	4.1300	-0.6018	24.96	-0.01	-0.750			
0.0162	1038.70	4.1270	4.1271	-0.6229	24.96	-0.01	-0.750			
0.0182	1162.07	4.1240	4.1240	-0.6380	24.96	-0.01	-0.750			
0.0201	1286.08	4.1210	4.1210	-0.6546	24.95	-0.02	-0.750			
0.0221	1412.99	4.1180	4.1183	-0.6697	24.95	-0.02	-0.750			
0.0241	1543.25	4.1150	4.1149	-0.6820	24.94	-0.03	-0.750			
0.0262	1676.25	4.1120	4.1120	-0.6935	24.94	-0.03	-0.750			
0.0283	1811.28	4.1090	4.1091	-0.6975	24.93	-0.04	-0.750			
0.0304	1947.41	4.1060	4.1060	-0.7092	24.93	-0.04	-0.750			
0.0326	2083.82	4.1030	4.1030	-0.7148	24.92	-0.05	-0.750			
0.0347	2219.15	4.1000	4.1002	-0.7203	24.92	-0.05	-0.750			
0.0369	2358.47	4.0970	4.0970	-0.7287	24.92	-0.05	-0.750			
0.0390	2499.02	4.0940	4.0940	-0.7428	24.92	-0.05	-0.750			
0.0413	2644.07	4.0910	4.0911	-0.7463	24.92	-0.05	-0.750			
0.0436	2790.33	4.0880	4.0879	-0.7537	24.92	-0.05	-0.750			
0.0458	2934.11	4.0850	4.0850	-0.7525	24.92	-0.05	-0.750			
0.0481	3078.73	4.0820	4.0818	-0.7547	24.92	-0.05	-0.750			
0.0504	3222.84	4.0790	4.0790	-0.7615	24.92	-0.05	-0.750			
0.0527	3369.82	4.0760	4.0759	-0.7640	24.92	-0.05	-0.750			
0.0550	3516.81	4.0730	4.0730	-0.7633	24.92	-0.05	-0.750			
0.0573	3666.50	4.0700	4.0700	-0.7648	24.92	-0.05	-0.750			
0.0596	3811.70	4.0670	4.0673	-0.7686	24.92	-0.05	-0.750			
0.0619	3958.65	4.0640	4.0640	-0.7738	24.92	-0.05	-0.750			
0.0642	4105.95	4.0610	4.0609	-0.7760	24.92	-0.05	-0.750			
0.0665	4255.06	4.0580	4.0580	-0.7816	24.93	-0.04	-0.750			
0.0689	4407.65	4.0550	4.0550	-0.7888	24.93	-0.04	-0.750			
0.0713	4560.15	4.0520	4.0519	-0.7920	24.93	-0.04	-0.750			
0.0737	4714.57	4.0490	4.0490	-0.7920	24.93	-0.04	-0.750			
0.0760	4863.77	4.0460	4.0460	-0.7921	24.93	-0.04	-0.750			
0.0784	5016.35	4.0430	4.0430	-0.7868	24.94	-0.03	-0.750			
0.0808	5168.44	4.0400	4.0400	-0.7837	24.94	-0.03	-0.750			
0.0831	5318.67	4.0370	4.0369	-0.7806	24.94	-0.03	-0.750			
0.0854	5467.34	4.0340	4.0339	-0.7798	24.94	-0.03	-0.750			
0.0877	5612.11	4.0310	4.0311	-0.7911	24.94	-0.03	-0.750			
0.0901	5767.66	4.0280	4.0279	-0.7915	24.94	-0.03	-0.750			
0.0925	5919.46	4.0250	4.0249	-0.7936	24.94	-0.03	-0.750			
0.0949	6075.69	4.0220	4.0219	-0.8002	24.94	-0.03	-0.750			
0.0974	6230.94	4.0190	4.0192	-0.8015	24.94	-0.03	-0.750			
0.0997	6383.34	4.0160	4.0159	-0.8015	24.94	-0.03	-0.750			
0.1021	6533.93	4.0130	4.0130	-0.7998	24.95	-0.02	-0.750			
0.1045	6685.59	4.0100	4.0100	-0.7964	24.95	-0.02	-0.750			
0.1069	6843.82	4.0070	4.0069	-0.8155	24.96	-0.01	-0.750			
0.1094	7000.34	4.0040	4.0042	-0.8145	24.96	-0.01	-0.750			
0.1119	7161.62	4.0010	4.0010	-0.8047	24.96	-0.01	-0.750			
0.1144	7320.73	3.9980	3.9979	-0.7920	24.97	-0.00	-0.750			
0.1167	7471.66	3.9950	3.9950	-0.7614	24.97	0.00	-0.750			
0.1189	7609.00	3.9920	3.9924	-0.7507	24.98	0.01	-0.750			
0.1211	7748.61	3.9890	3.9883	-0.7465	24.98	0.01	-0.750			
0.1232	7884.28	3.9860	3.9856	-0.7482	24.98	0.01	-0.750			
0.1254	8028.58	3.9830	3.9829	-0.7787	24.98	0.01	-0.750			
0.1278	8182.19	3.9800	3.9800	-0.8030	24.98	0.01	-0.750			
0.1304	8344.80	3.9770	3.9770	-0.8230	24.98	0.01	-0.750			
0.1330	8512.04	3.9740	3.9739	-0.8376	24.98	0.01	-0.750			
0.1355	8671.35	3.9710	3.9709	-0.8282	24.98	0.01	-0.750			
0.1379	8828.21	3.9680	3.9679	-0.8304	24.99	0.02	-0.750			
0.1404	8985.26	3.9650	3.9650	-0.8304	24.99	0.02	-0.750			
0.1428	9141.30	3.9620	3.9620	-0.8305	24.99	0.02	-0.750			
0.1454	9307.50	3.9590	3.9589	-0.8420	25.00	0.03	-0.750			
0.1480	9470.29	3.9560	3.9560	-0.8461	25.00	0.03	-0.750			
0.1505	9631.91	3.9530	3.9531	-0.8554	25.00	0.03	-0.750			
0.1531	9798.19	3.9500	3.9499	-0.8577	25.00	0.03	-0.750			
0.1557	9963.00	3.9470	3.9469	-0.8530	25.01	0.04	-0.750			
0.1582	10127.70	3.9440	3.9440	-0.8579	25.01	0.04	-0.750			
0.1608	10292.47	3.9410	3.9410	-0.8613	25.01	0.04	-0.750			
0.1634	10459.04	3.9380	3.9379	-0.8715	25.01	0.04	-0.750			
0.1660	10624.33	3.9350	3.9349	-0.8705	25.02	0.05	-0.750			
0.1686	10792.84	3.9320	3.9319	-0.8640	25.02	0.05	-0.750			
0.1713	10963.20	3.9290	3.9292	-0.8707	25.02	0.05	-0.750			
0.1739	11129.35	3.9260	3.9259	-0.8669	25.02	0.05	-0.750			
0.1765	11292.86	3.9230	3.9229	-0.8629	25.03	0.06	-0.750			
0.1790	11458.23	3.9200	3.9200	-0.8584	25.03	0.06	-0.750			
0.1816	11619.58	3.9170	3.9170	-0.8575	25.04	0.07	-0.750			
0.1842	11788.61	3.9140	3.9141	-0.8651	25.04	0.07	-0.750			
0.1868	11954.41	3.9110	3.9110	-0.8755	25.04	0.07	-0.750			
0.1894	12120.96	3.9080	3.9079	-0.8800	25.05	0.08	-0.750			
0.1921	12292.03	3.9050	3.9050	-0.8838	25.05	0.08	-0.750			
0.1947	12463.76	3.9020	3.9018	-0.8818	25.06	0.09	-0.750			
0.1975	12636.80	3.8990	3.8993	-0.8858	25.06	0.09	-0.750			
0.2001	12804.33	3.8960	3.8962	-0.8904	25.06	0.09	-0.750			
0.2027	12975.59	3.8930	3.8929	-0.8895	25.06	0.09	-0.750			
0.2054	13145.55	3.8900	3.8898	-0.8847	25.06	0.09	-0.750			
0.2080	13314.36	3.8870	3.8869	-0.8850	25.06	0.09	-0.750			
0.2107	13487.24	3.8840	3.8840	-0.8892	25.06	0.09	-0.750			
0.2134	13657.48	3.8810	3.8809	-0.8875	25.07	0.10	-0.750			
0.2160	13825.52	3.8780	3.8780	-0.8831	25.07	0.10	-0.750			
0.2187	13994.26	3.8750	3.8750	-0.8763	25.07	0.10	-0.750			
0.2213	14165.31	3.8720	3.8721	-0.8838	25.08	0.11	-0.750			
0.2240	14332.95	3.8690	3.8690	-0.8918	25.08	0.11	-0.750			
0.2266	14504.28	3.8660	3.8660	-0.8903	25.09	0.12	-0.750			
0.2293	14675.62	3.8630	3.8629	-0.8945	25.09	0.12	-0.750			
0.2320	14847.31	3.8600	3.8600	-0.8969	25.10	0.13	-0.750			
0.2347	15022.41	3.8570	3.8575	-0.9021	25.10	0.13	-0.750			
0.2375	15197.82	3.8540	3.8539	-0.9067	25.10	0.13	-0.750			
0.2402	15371.76	3.8510	3.8510	-0.9037	25.10	0.13	-0.750			
0.2429	15544.56	3.8480	3.8480	-0.9039	25.10	0.13	-0.750			
0.2456	15719.81	3.8450	3.8449	-0.9061	25.10	0.13	-0.750			
0.2483	15893.04	3.8420	3.8418	-0.8991	25.10	0.13	-0.750			
0.2510	16064.57	3.8390	3.8391	-0.8998	25.11	0.14	-0.750			
0.2537	16239.73	3.8360	3.8360	-0.8910	25.12	0.15	-0.750			
0.2564	16407.03	3.8330	3.8330	-0.8930	25.12	0.15	-0.750			
0.2591	16579.79	3.8300	3.8301	-0.8923	25.13	0.16	-0.750			
0.2617	16748.60	3.8270	3.8268	-0.9015	25.13	0.16	-0.750			
0.2644	16924.23	3.8240	3.8240	-0.9032	25.13	0.16	-0.750			
0.2672	17098.74	3.8210	3.8210	-0.9042	25.14	0.17	-0.750			
0.2699	17275.92	3.8180	3.8179	-0.9053	25.14	0.17	-0.750			
0.2726	17449.48	3.8150	3.8152	-0.9023	25.14	0.17	-0.750			
0.2753	17618.47	3.8120	3.8119	-0.9071	25.15	0.18	-0.750			
0.2780	17793.57	3.8090	3.8089	-0.9066	25.15	0.18	-0.750			
0.2807	17967.09	3.8060	3.8058	-0.8959	25.16	0.19	-0.750			
0.2835	18142.47	3.8030	3.8028	-0.8964	25.17	0.20	-0.750			
0.2862	18315.84	3.8000	3.8000	-0.8929	25.17	0.20	-0.750			
0.2888	18486.04	3.7970	3.7970	-0.8896	25.17	0.20	-0.750			
0.2914	18650.77	3.7940	3.7939	-0.8792	25.18	0.21	-0.750			
0.2941	18820.95	3.7910	3.7909	-0.8892	25.18	0.21	-0.750			
0.2967	18991.54	3.7880	3.7882	-0.8854	25.18	0.21	-0.750			
0.2994	19159.98	3.7850	3.7850	-0.8921	25.18	0.21	-0.750			
0.3021	19334.17	3.7820	3.7820	-0.8882	25.19	0.22	-0.750			
0.3048	19504.18	3.7790	3.7789	-0.8824	25.19	0.22	-0.750			
0.3074	19673.33	3.7760	3.7759	-0.8835	25.20	0.23	-0.750			
0.3100	19842.33	3.7730	3.7731	-0.8800	25.20	0.23	-0.750			
0.3127	20011.24	3.7700	3.7699	-0.8867	25.21	0.24	-0.750			
0.3154	20183.87	3.7670	3.7670	-0.8844	25.21	0.24	-0.750			
0.3180	20351.74	3.7640	3.7638	-0.8774	25.21	0.24	-0.750			
0.3207	20523.77	3.7610	3.7608	-0.8772	25.22	0.25	-0.750			
0.3233	20689.83	3.7580	3.7578	-0.8713	25.22	0.25	-0.750			
0.3258	20854.06	3.7550	3.7550	-0.8709	25.22	0.25	-0.750			
0.3284	21019.10	3.7520	3.7521	-0.8681	25.23	0.26	-0.750			
0.3311	21188.24	3.7490	3.7488	-0.8790	25.23	0.26	-0.750			
0.3337	21356.07	3.7460	3.7461	-0.8816	25.23	0.26	-0.750			
0.3363	21523.24	3.7430	3.7431	-0.8922	25.23	0.26	-0.750			
0.3390	21697.06	3.7400	3.7398	-0.9001	25.24	0.27	-0.750			
0.3417	21869.90	3.7370	3.7369	-0.9018	25.24	0.27	-0.750			
0.3444	22041.80	3.7340	3.7340	-0.9058	25.25	0.28	-0.750			
0.3472	22219.49	3.7310	3.7314	-0.9184	25.25	0.28	-0.750			
0.3499	22396.20	3.7280	3.7279	-0.9379	25.25	0.28	-0.750			
0.3527	22575.62	3.7250	3.7249	-0.9426	25.25	0.28	-0.750			
0.3556	22758.86	3.7220	3.7218	-0.9474	25.25	0.28	-0.750			
0.3585	22944.70	3.7190	3.7193	-0.9581	25.25	0.28	-0.750			
0.3614	23127.58	3.7160	3.7159	-0.9679	25.25	0.28	-0.750			
0.3643	23315.73	3.7130	3.7129	-0.9897	25.25	0.28	-0.750			
0.3673	23507.01	3.7100	3.7098	-0.9948	25.25	0.28	-0.750			
0.3702	23695.50	3.7070	3.7067	-1.0011	25.25	0.28	-0.750			
0.3734	23896.20	3.7040	3.7044	-1.0380	25.25	0.28	-0.750	0.386	0.482	
0.3765	24098.57	3.7010	3.7007	-1.0474	25.25	0.28	-0.750			
0.3797	24299.67	3.6980	3.6978	-1.0582	25.25	0.28	-0.750			
0.3828	24497.36	3.6950	3.6951	-1.0608	25.25	0.28	-0.750			
0.3860	24702.79	3.6920	3.6920	-1.1042	25.25	0.28	-0.750			
0.3895	24930.07	3.6890	3.6888	-1.1305	25.24	0.27	-0.750			
0.3929	25146.57	3.6860	3.6858	-1.1432	25.23	0.26	-0.750			
0.3963	25364.36	3.6830	3.6836	-1.1611	25.22	0.25	-0.750			
0.3999	25596.20	3.6800	3.6798	-1.1926	25.22	0.25	-0.750			
0.4035	25825.63	3.6770	3.6769	-1.2013	25.21	0.24	-0.750			
0.4070	26046.50	3.6740	3.6741	-1.2356	25.21	0.24	-0.750			
0.4109	26294.46	3.6710	3.6710	-1.2783	25.21	0.24	-0.750			
0.4148	26544.62	3.6680	3.6678	-1.3061	25.21	0.24	-0.750			
0.4186	26791.09	3.6650	3.6648	-1.3579	25.20	0.23	-0.750			
0.4229	27063.75	3.6620	3.6622	-1.3759	25.20	0.23	-0.750			
0.4271	27334.73	3.6590	3.6587	-1.4174	25.19	0.22	-0.750			
0.4314	27609.09	3.6560	3.6557	-1.4527	25.18	0.21	-0.750			
0.4357	27887.72	3.6530	3.6528	-1.4482	25.18	0.21	-0.750			
0.4403	28177.11	3.6500	3.6502	-1.5106	25.17	0.20	-0.750			
0.4448	28469.51	3.6470	3.6469	-1.5385	25.15	0.18	-0.750			
0.4495	28764.88	3.6440	3.6438	-1.5523	25.15	0.18	-0.750			
0.4543	29074.81	3.6410	3.6412	-1.6348	25.14	0.17	-0.750			
0.4592	29389.13	3.6380	3.6384	-1.6211	25.13	0.16	-0.750			
0.4642	29710.19	3.6350	3.6354	-1.6626	25.12	0.15	-0.750			
0.4693	30033.42	3.6320	3.6325	-1.6756	25.11	0.14	-0.750			
0.4742	30348.22	3.6290	3.6287	-1.6971	25.10	0.13	-0.750			
0.4794	30682.34	3.6260	3.6264	-1.7534	25.09	0.12	-0.750			
0.4848	31025.12	3.6230	3.6229	-1.7976	25.09	0.12	-0.750			
0.4902	31374.11	3.6200	3.6202	-1.8855	25.09	0.12	-0.750			
0.4960	31745.18	3.6170	3.6175	-1.8787	25.08	0.11	-0.750			
0.5018	32116.67	3.6140	3.6140	-1.9317	25.07	0.10	-0.750			
0.5077	32490.88	3.6110	3.6111	-1.9348	25.06	0.09	-0.750			
0.5133	32853.47	3.6080	3.6080	-1.9797	25.05	0.08	-0.750			
0.5192	33231.64	3.6050	3.6051	-1.9958	25.04	0.07	-0.750			
0.5251	33606.84	3.6020	3.6023	-2.0773	25.04	0.07	-0.750			
0.5316	34022.75	3.5990	3.5988	-2.0972	25.04	0.07	-0.750			
0.5380	34430.40	3.5960	3.5958	-2.1582	25.03	0.06	-0.750			
0.5446	34853.98	3.5930	3.5931	-2.2092	25.02	0.05	-0.750			
0.5511	35271.68	3.5900	3.5902	-2.2579	25.02	0.05	-0.750			
0.5577	35695.42	3.5870	3.5873	-2.2399	25.02	0.05	-0.750			
0.5644	36120.75	3.5840	3.5835	-2.2690	25.01	0.04	-0.750			
0.5714	36572.21	3.5810	3.5813	-2.3336	25.00	0.03	-0.750			
0.5785	37024.09	3.5780	3.5780	-2.2956	25.00	0.03	-0.750			
0.5855	37468.81	3.5750	3.5750	-2.3682	25.00	0.03	-0.750			
0.5927	37932.21	3.5720	3.5716	-2.3654	25.00	0.03	-0.750			
0.5996	38374.09	3.5690	3.5691	-2.4212	25.00	0.03	-0.750			
0.6069	38843.63	3.5660	3.5658	-2.4280	24.98	0.01	-0.750			
0.6146	39334.37	3.5630	3.5630	-2.4518	24.98	0.01	-0.750			
0.6219	39800.10	3.5600	3.5604	-2.3862	24.98	0.01	-0.750			
0.6291	40262.28	3.5570	3.5572	-2.4138	24.99	0.02	-0.750			
0.6361	40709.29	3.5540	3.5541	-2.3309	24.99	0.02	-0.750			
0.6433	41171.28	3.5510	3.5512	-2.3233	25.00	0.03	-0.750			
0.6501	41605.42	3.5480	3.5484	-2.2554	25.00	0.03	-0.750			
0.6569	42039.77	3.5450	3.5450	-2.2418	24.99	0.02	-0.750			
0.6635	42465.80	3.5420	3.5419	-2.1960	24.99	0.02	-0.750			
0.6699	42873.16	3.5390	3.5392	-2.1349	25.00	0.03	-0.750			
0.6763	43280.25	3.5360	3.5360	-2.1132	25.00	0.03	-0.750			
0.6827	43692.94	3.5330	3.5328	-2.0477	25.01	0.04	-0.750			
0.6887	44079.41	3.5300	3.5301	-1.9994	25.02	0.05	-0.750			
0.6948	44468.02	3.5270	3.5268	-1.9808	25.04	0.07	-0.750			
0.7007	44846.76	3.5240	3.5240	-1.9519	25.05	0.08	-0.750			
0.7065	45214.07	3.5210	3.5210	-1.8632	25.06	0.09	-0.750			
0.7118	45553.47	3.5180	3.5183	-1.7783	25.07	0.10	-0.750			
0.7171	45894.19	3.5150	3.5151	-1.7390	25.08	0.11	-0.750			
0.7221	46216.10	3.5120	3.5124	-1.6600	25.10	0.13	-0.750			
0.7270	46529.59	3.5090	3.5086	-1.5967	25.12	0.15	-0.750			
0.7317	46830.03	3.5060	3.5059	-1.5442	25.13	0.16	-0.750			
0.7363	47122.07	3.5030	3.5029	-1.4896	25.15	0.18	-0.750			
0.7408	47408.76	3.5000	3.4998	-1.3812	25.16	0.19	-0.750			
0.7449	47672.81	3.4970	3.4970	-1.4409	25.17	0.20	-0.750			
