Ah_balance (normalized)	Ah_balance (mAh)	Voltage - fit (V)	Voltage -  interpolate (V)	dQ/dV (1/V)	Temperature (°C)	Temperature - diff (°C)	Current (C)	R_DC 0ms (mOhm)	R_DC 50ms (mOhm)	R_DC 50 ms PEC (mOhm)
0.0002	14.70	4.1620	4.1616	-0.1105	24.85	0.00	-0.750			
0.0006	39.92	4.1590	4.1585	-0.1510	24.85	0.00	-0.750			
0.0011	71.93	4.1560	4.1560	-0.1916	24.85	0.00	-0.750			
0.0018	112.90	4.1530	4.1531	-0.2333	24.85	-0.00	-0.750			
0.0025	162.51	4.1500	4.1498	-0.2715	24.85	-0.00	-0.750			
0.0034	218.74	4.1470	4.1470	-0.3119	24.84	-0.01	-0.750			
0.0044	282.10	4.1440	4.1440	-0.3480	24.84	-0.01	-0.750			
0.0055	352.98	4.1410	4.1411	-0.3849	24.84	-0.01	-0.750			
0.0067	431.49	4.1380	4.1379	-0.4213	24.84	-0.01	-0.750			
0.0081	515.69	4.1350	4.1351	-0.4541	24.83	-0.02	-0.750			
0.0095	607.15	4.1320	4.1321	-0.4855	24.83	-0.02	-0.750			
0.0110	705.76	4.1290	4.1289	-0.5108	24.83	-0.02	-0.750			
0.0126	806.27	4.1260	4.1260	-0.5292	24.82	-0.03	-0.750			
0.0142	909.66	4.1230	4.1231	-0.5539	24.82	-0.03	-0.750			
0.0159	1017.62	4.1200	4.1201	-0.5735	24.82	-0.03	-0.750			
0.0177	1130.20	4.1170	4.1169	-0.5897	24.81	-0.04	-0.750			
0.0195	1244.82	4.1140	4.1141	-0.6071	24.81	-0.04	-0.750			
0.0213	1365.28	4.1110	4.1111	-0.6211	24.81	-0.04	-0.750			
0.0232	1486.80	4.1080	4.1080	-0.6316	24.80	-0.05	-0.750			
0.0251	1609.28	4.1050	4.1049	-0.6449	24.80	-0.05	-0.750			
0.0271	1732.74	4.1020	4.1022	-0.6539	24.80	-0.05	-0.750			
0.0291	1859.41	4.0990	4.0989	-0.6650	24.80	-0.05	-0.750			
0.0311	1989.21	4.0960	4.0960	-0.6720	24.79	-0.06	-0.750			
0.0331	2120.52	4.0930	4.0930	-0.6824	24.79	-0.06	-0.750			
0.0352	2254.29	4.0900	4.0899	-0.6856	24.79	-0.06	-0.750			
0.0373	2386.38	4.0870	4.0870	-0.6922	24.78	-0.07	-0.750			
0.0393	2518.17	4.0840	4.0842	-0.6957	24.78	-0.07	-0.750			
0.0414	2651.59	4.0810	4.0809	-0.7010	24.78	-0.07	-0.750			
0.0435	2786.69	4.0780	4.0779	-0.7067	24.78	-0.07	-0.750			
0.0457	2921.84	4.0750	4.0750	-0.7083	24.78	-0.07	-0.750			
0.0478	3062.26	4.0720	4.0720	-0.7182	24.78	-0.07	-0.750			
0.0500	3201.57	4.0690	4.0690	-0.7221	24.78	-0.07	-0.750			
0.0522	3338.32	4.0660	4.0660	-0.7203	24.78	-0.07	-0.750			
0.0543	3475.91	4.0630	4.0631	-0.7227	24.78	-0.07	-0.750			
0.0565	3615.71	4.0600	4.0599	-0.7304	24.78	-0.07	-0.750			
0.0587	3757.27	4.0570	4.0570	-0.7331	24.78	-0.07	-0.750			
0.0609	3899.16	4.0540	4.0540	-0.7331	24.78	-0.07	-0.750			
0.0631	4041.51	4.0510	4.0511	-0.7382	24.78	-0.07	-0.750			
0.0654	4182.67	4.0480	4.0479	-0.7371	24.78	-0.07	-0.750			
0.0675	4322.18	4.0450	4.0450	-0.7370	24.78	-0.07	-0.750			
0.0698	4466.30	4.0420	4.0419	-0.7444	24.78	-0.07	-0.750			
0.0720	4608.50	4.0390	4.0390	-0.7478	24.78	-0.07	-0.750			
0.0743	4756.24	4.0360	4.0358	-0.7520	24.78	-0.07	-0.750			
0.0766	4900.19	4.0330	4.0334	-0.7504	24.78	-0.07	-0.750			
0.0788	5043.78	4.0300	4.0298	-0.7504	24.78	-0.07	-0.750			
0.0810	5186.84	4.0270	4.0270	-0.7560	24.78	-0.07	-0.750			
0.0833	5328.78	4.0240	4.0240	-0.7509	24.78	-0.07	-0.750			
0.0856	5479.78	4.0210	4.0210	-0.7617	24.78	-0.07	-0.750			
0.0879	5626.06	4.0180	4.0179	-0.7606	24.78	-0.07	-0.750			
0.0902	5772.77	4.0150	4.0150	-0.7631	24.78	-0.07	-0.750			
0.0925	5917.86	4.0120	4.0120	-0.7641	24.79	-0.06	-0.750			
0.0947	6062.64	4.0090	4.0089	-0.7625	24.79	-0.06	-0.750			
0.0970	6207.48	4.0060	4.0061	-0.7610	24.79	-0.06	-0.750			
0.0993	6357.02	4.0030	4.0029	-0.7697	24.80	-0.05	-0.750			
0.1017	6505.90	4.0000	4.0002	-0.7701	24.80	-0.05	-0.750			
0.1039	6652.66	3.9970	3.9969	-0.7716	24.80	-0.05	-0.750			
0.1063	6801.85	3.9940	3.9941	-0.7846	24.80	-0.05	-0.750			
0.1087	6955.35	3.9910	3.9909	-0.7833	24.80	-0.05	-0.750			
0.1111	7108.00	3.9880	3.9878	-0.7840	24.80	-0.05	-0.750			
0.1134	7258.98	3.9850	3.9856	-0.7801	24.80	-0.05	-0.750			
0.1158	7408.23	3.9820	3.9819	-0.7775	24.80	-0.05	-0.750			
0.1181	7555.22	3.9790	3.9789	-0.7804	24.81	-0.04	-0.750			
0.1203	7701.93	3.9760	3.9760	-0.7711	24.81	-0.04	-0.750			
0.1227	7854.39	3.9730	3.9728	-0.7803	24.81	-0.04	-0.750			
0.1250	8002.57	3.9700	3.9700	-0.7788	24.82	-0.03	-0.750			
0.1274	8151.82	3.9670	3.9671	-0.7828	24.82	-0.03	-0.750			
0.1297	8299.80	3.9640	3.9639	-0.7943	24.82	-0.03	-0.750			
0.1321	8453.57	3.9610	3.9610	-0.7916	24.82	-0.03	-0.750			
0.1345	8606.57	3.9580	3.9579	-0.7965	24.82	-0.03	-0.750			
0.1369	8762.40	3.9550	3.9551	-0.8032	24.82	-0.03	-0.750			
0.1394	8918.87	3.9520	3.9521	-0.8042	24.82	-0.03	-0.750			
0.1417	9071.44	3.9490	3.9489	-0.8012	24.82	-0.03	-0.750			
0.1441	9223.64	3.9460	3.9460	-0.8090	24.83	-0.02	-0.750			
0.1466	9380.71	3.9430	3.9429	-0.8034	24.83	-0.02	-0.750			
0.1491	9539.24	3.9400	3.9399	-0.8060	24.84	-0.01	-0.750			
0.1515	9692.84	3.9370	3.9375	-0.8048	24.84	-0.01	-0.750			
0.1538	9846.22	3.9340	3.9338	-0.8019	24.84	-0.01	-0.750			
0.1562	9999.30	3.9310	3.9309	-0.8061	24.85	-0.00	-0.750			
0.1586	10150.56	3.9280	3.9280	-0.8036	24.85	0.00	-0.750			
0.1611	10309.08	3.9250	3.9250	-0.8167	24.86	0.01	-0.750			
0.1635	10466.52	3.9220	3.9220	-0.8199	24.86	0.01	-0.750			
0.1660	10623.36	3.9190	3.9190	-0.8244	24.86	0.01	-0.750			
0.1685	10781.52	3.9160	3.9160	-0.8258	24.86	0.01	-0.750			
0.1710	10941.46	3.9130	3.9130	-0.8221	24.87	0.02	-0.750			
0.1734	11099.73	3.9100	3.9099	-0.8277	24.87	0.02	-0.750			
0.1759	11258.52	3.9070	3.9072	-0.8231	24.87	0.02	-0.750			
0.1784	11415.88	3.9040	3.9039	-0.8247	24.87	0.02	-0.750			
0.1808	11573.81	3.9010	3.9010	-0.8289	24.87	0.02	-0.750			
0.1833	11734.32	3.8980	3.8980	-0.8231	24.88	0.03	-0.750			
0.1858	11893.65	3.8950	3.8949	-0.8215	24.88	0.03	-0.750			
0.1883	12054.38	3.8920	3.8923	-0.8211	24.88	0.03	-0.750			
0.1908	12209.57	3.8890	3.8888	-0.8135	24.88	0.03	-0.750			
0.1932	12364.77	3.8860	3.8860	-0.8138	24.89	0.04	-0.750			
0.1956	12518.91	3.8830	3.8830	-0.8091	24.89	0.04	-0.750			
0.1981	12675.41	3.8800	3.8800	-0.8168	24.89	0.04	-0.750			
0.2005	12831.65	3.8770	3.8771	-0.8153	24.90	0.05	-0.750			
0.2030	12988.81	3.8740	3.8739	-0.8115	24.90	0.05	-0.750			
0.2054	13142.58	3.8710	3.8710	-0.8127	24.91	0.06	-0.750			
0.2078	13299.71	3.8680	3.8680	-0.8071	24.91	0.06	-0.750			
0.2102	13453.92	3.8650	3.8650	-0.7994	24.91	0.06	-0.750			
0.2126	13609.21	3.8620	3.8620	-0.8001	24.92	0.07	-0.750			
0.2150	13761.61	3.8590	3.8591	-0.7945	24.92	0.07	-0.750			
0.2174	13911.65	3.8560	3.8559	-0.7925	24.93	0.08	-0.750			
0.2198	14064.81	3.8530	3.8530	-0.7901	24.93	0.08	-0.750			
0.2221	14214.20	3.8500	3.8500	-0.7861	24.93	0.08	-0.750			
0.2245	14368.25	3.8470	3.8469	-0.7873	24.94	0.09	-0.750			
0.2269	14520.63	3.8440	3.8442	-0.7848	24.94	0.09	-0.750			
0.2292	14669.49	3.8410	3.8409	-0.7801	24.94	0.09	-0.750			
0.2315	14818.28	3.8380	3.8381	-0.7776	24.95	0.10	-0.750			
0.2338	14965.16	3.8350	3.8350	-0.7749	24.95	0.10	-0.750			
0.2362	15115.99	3.8320	3.8319	-0.7764	24.96	0.11	-0.750			
0.2385	15265.48	3.8290	3.8290	-0.7716	24.96	0.11	-0.750			
0.2408	15414.01	3.8260	3.8261	-0.7704	24.96	0.11	-0.750			
0.2431	15561.24	3.8230	3.8230	-0.7724	24.96	0.11	-0.750			
0.2455	15709.90	3.8200	3.8199	-0.7689	24.97	0.12	-0.750			
0.2478	15856.35	3.8170	3.8169	-0.7656	24.97	0.12	-0.750			
0.2501	16003.82	3.8140	3.8140	-0.7609	24.97	0.12	-0.750			
0.2523	16150.03	3.8110	3.8111	-0.7617	24.97	0.12	-0.750			
0.2546	16296.55	3.8080	3.8080	-0.7612	24.98	0.13	-0.750			
0.2569	16441.75	3.8050	3.8049	-0.7651	24.98	0.13	-0.750			
0.2592	16588.10	3.8020	3.8019	-0.7614	24.98	0.13	-0.750			
0.2615	16736.63	3.7990	3.7989	-0.7612	24.99	0.14	-0.750			
0.2638	16882.91	3.7960	3.7965	-0.7647	24.99	0.14	-0.750			
0.2661	17029.69	3.7930	3.7930	-0.7663	24.99	0.14	-0.750			
0.2684	17175.44	3.7900	3.7899	-0.7652	24.99	0.14	-0.750			
0.2707	17322.32	3.7870	3.7870	-0.7679	25.00	0.15	-0.750			
0.2730	17470.78	3.7840	3.7840	-0.7738	25.00	0.15	-0.750			
0.2753	17619.21	3.7810	3.7808	-0.7747	25.00	0.15	-0.750			
0.2776	17767.96	3.7780	3.7779	-0.7818	25.00	0.15	-0.750			
0.2799	17916.41	3.7750	3.7749	-0.7853	25.01	0.16	-0.750			
0.2823	18067.44	3.7720	3.7720	-0.7888	25.01	0.16	-0.750			
0.2847	18219.30	3.7690	3.7690	-0.7902	25.01	0.16	-0.750			
0.2871	18375.38	3.7660	3.7661	-0.8001	25.02	0.17	-0.750			
0.2895	18529.23	3.7630	3.7631	-0.8037	25.02	0.17	-0.750			
0.2919	18679.95	3.7600	3.7600	-0.8153	25.02	0.17	-0.750			
0.2944	18838.48	3.7570	3.7569	-0.8197	25.02	0.17	-0.750			
0.2968	18997.97	3.7540	3.7539	-0.8238	25.02	0.17	-0.750			
0.2993	19157.49	3.7510	3.7509	-0.8315	25.02	0.17	-0.750			
0.3019	19319.50	3.7480	3.7482	-0.8361	25.02	0.17	-0.750			
0.3043	19477.54	3.7450	3.7450	-0.8461	25.02	0.17	-0.750			
0.3068	19637.75	3.7420	3.7419	-0.8501	25.02	0.17	-0.750			
0.3094	19799.79	3.7390	3.7391	-0.8575	25.02	0.17	-0.750			
0.3120	19970.82	3.7360	3.7359	-0.8764	25.02	0.17	-0.750			
0.3147	20141.26	3.7330	3.7331	-0.8900	25.02	0.17	-0.750			
0.3174	20312.16	3.7300	3.7300	-0.8981	25.03	0.18	-0.750			
0.3201	20486.45	3.7270	3.7269	-0.9054	25.03	0.18	-0.750			
0.3228	20657.70	3.7240	3.7240	-0.9119	25.03	0.18	-0.750			
0.3256	20836.21	3.7210	3.7209	-0.9281	25.04	0.19	-0.750			
0.3283	21013.27	3.7180	3.7180	-0.9496	25.04	0.19	-0.750			
0.3312	21199.82	3.7150	3.7150	-0.9583	25.03	0.18	-0.750			
0.3341	21385.21	3.7120	3.7119	-0.9654	25.03	0.18	-0.750			
0.3370	21570.89	3.7090	3.7089	-0.9791	25.02	0.17	-0.750			
0.3401	21769.03	3.7060	3.7058	-0.9694	25.02	0.17	-0.750			
0.3431	21955.92	3.7030	3.7028	-0.9430	25.02	0.17	-0.750			
0.3459	22136.29	3.7000	3.7001	-0.9269	25.02	0.17	-0.750			
0.3485	22302.85	3.6970	3.6981	-0.9307	25.02	0.17	-0.750	0.393	0.545	
0.3513	22480.77	3.6940	3.6938	-0.9587	25.02	0.17	-0.750			
0.3540	22655.76	3.6910	3.6908	-0.9940	25.02	0.17	-0.750			
0.3571	22851.77	3.6880	3.6880	-1.0325	25.01	0.16	-0.750			
0.3603	23062.14	3.6850	3.6850	-1.0822	25.01	0.16	-0.750			
0.3638	23282.49	3.6820	3.6825	-1.1251	25.00	0.15	-0.750			
0.3673	23507.43	3.6790	3.6788	-1.1395	25.00	0.15	-0.750			
0.3707	23726.38	3.6760	3.6759	-1.1402	25.00	0.15	-0.750			
0.3741	23943.54	3.6730	3.6728	-1.1426	25.00	0.15	-0.750			
0.3776	24167.99	3.6700	3.6698	-1.1635	25.00	0.15	-0.750			
0.3811	24392.47	3.6670	3.6667	-1.1523	24.99	0.14	-0.750			
0.3845	24609.11	3.6640	3.6640	-1.1526	24.99	0.14	-0.750			
0.3878	24820.18	3.6610	3.6615	-1.1778	24.98	0.13	-0.750			
0.3916	25059.84	3.6580	3.6576	-1.2144	24.98	0.13	-0.750			
0.3952	25292.29	3.6550	3.6547	-1.2377	24.97	0.12	-0.750			
0.3988	25524.98	3.6520	3.6519	-1.2841	24.96	0.11	-0.750			
0.4030	25789.00	3.6490	3.6489	-1.3258	24.96	0.11	-0.750			
0.4070	26047.47	3.6460	3.6458	-1.3674	24.96	0.11	-0.750			
0.4111	26309.64	3.6430	3.6428	-1.3823	24.95	0.10	-0.750			
0.4153	26580.80	3.6400	3.6396	-1.4042	24.95	0.10	-0.750			
0.4196	26851.60	3.6370	3.6376	-1.4445	24.95	0.10	-0.750			
0.4239	27129.42	3.6340	3.6337	-1.4526	24.94	0.09	-0.750			
0.4283	27408.61	3.6310	3.6308	-1.4692	24.94	0.09	-0.750			
0.4326	27687.92	3.6280	3.6282	-1.5318	24.94	0.09	-0.750			
0.4373	27990.38	3.6250	3.6246	-1.5665	24.94	0.09	-0.750			
0.4420	28290.83	3.6220	3.6221	-1.5841	24.94	0.09	-0.750			
0.4470	28605.49	3.6190	3.6188	-1.5901	24.93	0.08	-0.750			
0.4517	28905.69	3.6160	3.6164	-1.5988	24.93	0.08	-0.750			
0.4566	29225.25	3.6130	3.6125	-1.6432	24.93	0.08	-0.750			
0.4615	29538.00	3.6100	3.6096	-1.6771	24.92	0.07	-0.750			
0.4666	29860.68	3.6070	3.6073	-1.7047	24.92	0.07	-0.750			
0.4719	30202.60	3.6040	3.6045	-1.7216	24.92	0.07	-0.750			
0.4770	30530.95	3.6010	3.6011	-1.7948	24.92	0.07	-0.750			
0.4826	30887.23	3.5980	3.5977	-1.7970	24.91	0.06	-0.750			
0.4881	31235.67	3.5950	3.5947	-1.8190	24.91	0.06	-0.750			
0.4936	31589.23	3.5920	3.5912	-1.8658	24.91	0.06	-0.750			
0.4991	31941.68	3.5890	3.5890	-1.8666	24.90	0.05	-0.750			
0.5047	32302.96	3.5860	3.5863	-1.8733	24.90	0.05	-0.750			
0.5106	32675.30	3.5830	3.5827	-2.0236	24.90	0.05	-0.750			
0.5166	33060.67	3.5800	3.5795	-1.9888	24.90	0.05	-0.750			
0.5225	33441.10	3.5770	3.5767	-1.9841	24.90	0.05	-0.750			
0.5287	33833.94	3.5740	3.5742	-2.0484	24.90	0.05	-0.750			
0.5349	34231.38	3.5710	3.5710	-2.0352	24.90	0.05	-0.750			
0.5409	34616.56	3.5680	3.5681	-2.0366	24.90	0.05	-0.750			
0.5470	35010.08	3.5650	3.5655	-2.0833	24.90	0.05	-0.750			
0.5537	35434.78	3.5620	3.5615	-2.0813	24.90	0.05	-0.750			
0.5599	35832.44	3.5590	3.5586	-2.0396	24.91	0.06	-0.750			
0.5660	36223.00	3.5560	3.5558	-2.0669	24.92	0.07	-0.750			
0.5723	36624.49	3.5530	3.5526	-2.0380	24.92	0.07	-0.750			
0.5782	37002.89	3.5500	3.5496	-2.0393	24.92	0.07	-0.750			
0.5844	37401.58	3.5470	3.5467	-2.0738	24.93	0.08	-0.750			
0.5905	37792.23	3.5440	3.5436	-1.9976	24.93	0.08	-0.750			
0.5966	38183.91	3.5410	3.5406	-1.9602	24.93	0.08	-0.750			
0.6024	38554.20	3.5380	3.5374	-1.9155	24.93	0.08	-0.750			
0.6080	38912.40	3.5350	3.5348	-1.9010	24.95	0.10	-0.750			
0.6135	39266.38	3.5320	3.5320	-1.8828	24.96	0.11	-0.750			
0.6192	39627.11	3.5290	3.5292	-1.9025	24.97	0.12	-0.750			
0.6250	40001.41	3.5260	3.5267	-1.8315	24.98	0.13	-0.750			
0.6305	40353.22	3.5230	3.5231	-1.7937	24.99	0.14	-0.750			
0.6358	40690.42	3.5200	3.5205	-1.7270	25.00	0.15	-0.750			
0.6407	41007.67	3.5170	3.5168	-1.6708	25.01	0.16	-0.750			
0.6456	41316.92	3.5140	3.5140	-1.6624	25.02	0.17	-0.750			
0.6506	41636.46	3.5110	3.5109	-1.5957	25.04	0.19	-0.750			
0.6555	41954.99	3.5080	3.5082	-1.5891	25.05	0.20	-0.750			
0.6600	42239.47	3.5050	3.5053	-1.5366	25.07	0.22	-0.750			
0.6646	42535.19	3.5020	3.5022	-1.4895	25.08	0.23	-0.750			
0.6691	42820.91	3.4990	3.4986	-1.4404	25.11	0.26	-0.750			
0.6732	43087.97	3.4960	3.4958	-1.3814	25.13	0.28	-0.750			
0.6774	43356.26	3.4930	3.4930	-1.3552	25.14	0.29	-0.750			
0.6815	43617.54	3.4900	3.4898	-1.3182	25.16	0.31	-0.750			
0.6853	43857.91	3.4870	3.4869	-1.2632	25.17	0.32	-0.750			
0.6889	44088.33	3.4840	3.4844	-1.2964	25.18	0.33	-0.750			
0.6927	44333.60	3.4810	3.4810	-1.2188	25.19	0.34	-0.750			
