Ah_balance (normalized)	Ah_balance (mAh)	Voltage - fit (V)	Voltage -  interpolate (V)	dQ/dV (1/V)	Temperature (°C)	Temperature - diff (°C)	Current (C)	R_DC 0ms (mOhm)	R_DC 50ms (mOhm)	R_DC 50 ms PEC (mOhm)
0.0002	13.85	4.1640	4.1639	-0.1419	25.18	0.02	-0.750			
0.0007	44.26	4.1610	4.1610	-0.1804	25.17	0.01	-0.750			
0.0013	82.01	4.1580	4.1583	-0.2252	25.17	0.01	-0.750			
0.0020	130.91	4.1550	4.1549	-0.2703	25.17	0.01	-0.750			
0.0029	187.70	4.1520	4.1519	-0.3085	25.17	0.01	-0.750			
0.0039	251.28	4.1490	4.1491	-0.3499	25.16	0.00	-0.750			
0.0050	322.78	4.1460	4.1463	-0.3911	25.16	0.00	-0.750			
0.0063	401.20	4.1430	4.1429	-0.4310	25.16	-0.00	-0.750			
0.0076	486.70	4.1400	4.1400	-0.4693	25.15	-0.01	-0.750			
0.0091	581.52	4.1370	4.1370	-0.5011	25.15	-0.01	-0.750			
0.0107	683.60	4.1340	4.1339	-0.5379	25.14	-0.02	-0.750			
0.0124	793.45	4.1310	4.1310	-0.5742	25.14	-0.02	-0.750			
0.0142	907.79	4.1280	4.1277	-0.5977	25.13	-0.03	-0.750			
0.0160	1025.97	4.1250	4.1248	-0.6135	25.13	-0.03	-0.750			
0.0179	1146.16	4.1220	4.1226	-0.6261	25.12	-0.04	-0.750			
0.0198	1268.22	4.1190	4.1189	-0.6391	25.12	-0.04	-0.750			
0.0217	1391.40	4.1160	4.1159	-0.6542	25.11	-0.05	-0.750			
0.0236	1512.98	4.1130	4.1131	-0.6524	25.11	-0.05	-0.750			
0.0257	1645.46	4.1100	4.1100	-0.6783	25.11	-0.05	-0.750			
0.0278	1777.27	4.1070	4.1070	-0.6878	25.10	-0.06	-0.750			
0.0299	1910.58	4.1040	4.1040	-0.6980	25.10	-0.06	-0.750			
0.0320	2044.89	4.1010	4.1010	-0.7088	25.10	-0.06	-0.750			
0.0341	2182.03	4.0980	4.0980	-0.7131	25.10	-0.06	-0.750			
0.0362	2319.83	4.0950	4.0950	-0.7282	25.10	-0.06	-0.750			
0.0385	2462.60	4.0920	4.0920	-0.7324	25.10	-0.06	-0.750			
0.0407	2605.94	4.0890	4.0890	-0.7323	25.10	-0.06	-0.750			
0.0429	2745.53	4.0860	4.0864	-0.7352	25.10	-0.06	-0.750			
0.0451	2885.25	4.0830	4.0829	-0.7389	25.10	-0.06	-0.750			
0.0473	3027.05	4.0800	4.0799	-0.7534	25.10	-0.06	-0.750			
0.0496	3173.18	4.0770	4.0769	-0.7585	25.09	-0.07	-0.750			
0.0519	3324.24	4.0740	4.0739	-0.7589	25.09	-0.07	-0.750			
0.0542	3470.87	4.0710	4.0709	-0.7555	25.09	-0.07	-0.750			
0.0565	3615.65	4.0680	4.0679	-0.7624	25.09	-0.07	-0.750			
0.0587	3759.67	4.0650	4.0649	-0.7542	25.09	-0.07	-0.750			
0.0609	3898.35	4.0620	4.0619	-0.7578	25.09	-0.07	-0.750			
0.0633	4049.44	4.0590	4.0590	-0.7684	25.09	-0.07	-0.750			
0.0656	4197.71	4.0560	4.0560	-0.7732	25.09	-0.07	-0.750			
0.0679	4347.05	4.0530	4.0533	-0.7752	25.09	-0.07	-0.750			
0.0703	4496.20	4.0500	4.0500	-0.7696	25.09	-0.07	-0.750			
0.0725	4642.03	4.0470	4.0469	-0.7736	25.09	-0.07	-0.750			
0.0749	4790.78	4.0440	4.0441	-0.7767	25.10	-0.06	-0.750			
0.0772	4941.37	4.0410	4.0409	-0.7764	25.10	-0.06	-0.750			
0.0796	5091.61	4.0380	4.0379	-0.7740	25.10	-0.06	-0.750			
0.0819	5238.69	4.0350	4.0350	-0.7719	25.10	-0.06	-0.750			
0.0841	5384.92	4.0320	4.0320	-0.7902	25.10	-0.06	-0.750			
0.0866	5539.36	4.0290	4.0288	-0.7882	25.10	-0.06	-0.750			
0.0889	5691.16	4.0260	4.0259	-0.7838	25.10	-0.06	-0.750			
0.0913	5845.78	4.0230	4.0228	-0.7853	25.10	-0.06	-0.750			
0.0937	5995.91	4.0200	4.0198	-0.7895	25.10	-0.06	-0.750			
0.0960	6146.27	4.0170	4.0169	-0.7904	25.10	-0.06	-0.750			
0.0984	6295.75	4.0140	4.0139	-0.7881	25.10	-0.06	-0.750			
0.1007	6446.11	4.0110	4.0110	-0.8001	25.11	-0.05	-0.750			
0.1031	6601.05	4.0080	4.0080	-0.8008	25.11	-0.05	-0.750			
0.1056	6755.27	4.0050	4.0052	-0.8037	25.11	-0.05	-0.750			
0.1080	6910.67	4.0020	4.0019	-0.8065	25.11	-0.05	-0.750			
0.1104	7065.04	3.9990	3.9990	-0.8063	25.11	-0.05	-0.750			
0.1128	7221.33	3.9960	3.9960	-0.8071	25.12	-0.04	-0.750			
0.1153	7377.52	3.9930	3.9929	-0.8082	25.12	-0.04	-0.750			
0.1177	7531.94	3.9900	3.9906	-0.8042	25.12	-0.04	-0.750			
0.1201	7687.81	3.9870	3.9868	-0.7975	25.12	-0.04	-0.750			
0.1224	7836.27	3.9840	3.9841	-0.8220	25.12	-0.04	-0.750			
0.1249	7996.51	3.9810	3.9809	-0.8181	25.13	-0.03	-0.750			
0.1275	8160.29	3.9780	3.9776	-0.8279	25.13	-0.03	-0.750			
0.1300	8317.86	3.9750	3.9757	-0.8205	25.13	-0.03	-0.750			
0.1325	8477.04	3.9720	3.9721	-0.8166	25.13	-0.03	-0.750			
0.1349	8633.28	3.9690	3.9687	-0.8011	25.13	-0.03	-0.750			
0.1372	8781.66	3.9660	3.9661	-0.7849	25.14	-0.02	-0.750			
0.1395	8927.06	3.9630	3.9631	-0.7833	25.14	-0.02	-0.750			
0.1418	9078.03	3.9600	3.9597	-0.7942	25.14	-0.02	-0.750			
0.1442	9230.19	3.9570	3.9569	-0.7986	25.14	-0.02	-0.750			
0.1466	9383.02	3.9540	3.9540	-0.8135	25.15	-0.01	-0.750			
0.1491	9542.53	3.9510	3.9510	-0.8320	25.15	-0.01	-0.750			
0.1516	9705.42	3.9480	3.9479	-0.8399	25.15	-0.01	-0.750			
0.1542	9870.83	3.9450	3.9449	-0.8495	25.16	-0.00	-0.750			
0.1568	10035.18	3.9420	3.9418	-0.8519	25.16	0.00	-0.750			
0.1594	10199.50	3.9390	3.9390	-0.8593	25.16	0.00	-0.750			
0.1620	10365.86	3.9360	3.9359	-0.8590	25.16	0.00	-0.750			
0.1645	10527.22	3.9330	3.9330	-0.8545	25.16	0.00	-0.750			
0.1671	10696.26	3.9300	3.9305	-0.8582	25.16	0.00	-0.750			
0.1697	10861.62	3.9270	3.9268	-0.8524	25.16	0.00	-0.750			
0.1723	11024.74	3.9240	3.9240	-0.8626	25.16	0.00	-0.750			
0.1748	11190.12	3.9210	3.9210	-0.8569	25.17	0.01	-0.750			
0.1774	11353.11	3.9180	3.9179	-0.8484	25.17	0.01	-0.750			
0.1800	11520.25	3.9150	3.9155	-0.8621	25.17	0.01	-0.750			
0.1826	11684.23	3.9120	3.9119	-0.8587	25.17	0.01	-0.750			
0.1852	11851.72	3.9090	3.9089	-0.8685	25.17	0.01	-0.750			
0.1878	12019.94	3.9060	3.9059	-0.8631	25.18	0.02	-0.750			
0.1904	12185.97	3.9030	3.9029	-0.8726	25.18	0.02	-0.750			
0.1930	12354.37	3.9000	3.9004	-0.8711	25.18	0.02	-0.750			
0.1957	12521.70	3.8970	3.8969	-0.8669	25.18	0.02	-0.750			
0.1982	12686.78	3.8940	3.8939	-0.8694	25.18	0.02	-0.750			
0.2008	12851.53	3.8910	3.8910	-0.8612	25.18	0.02	-0.750			
0.2035	13022.87	3.8880	3.8878	-0.8741	25.18	0.02	-0.750			
0.2061	13189.66	3.8850	3.8848	-0.8786	25.18	0.02	-0.750			
0.2087	13356.26	3.8820	3.8819	-0.8762	25.19	0.03	-0.750			
0.2113	13526.18	3.8790	3.8790	-0.8814	25.19	0.03	-0.750			
0.2139	13692.77	3.8760	3.8760	-0.8753	25.19	0.03	-0.750			
0.2167	13868.31	3.8730	3.8730	-0.8861	25.20	0.04	-0.750			
0.2193	14036.64	3.8700	3.8699	-0.8830	25.20	0.04	-0.750			
0.2220	14205.07	3.8670	3.8670	-0.8871	25.20	0.04	-0.750			
0.2246	14374.81	3.8640	3.8638	-0.8818	25.20	0.04	-0.750			
0.2273	14544.04	3.8610	3.8610	-0.8838	25.20	0.04	-0.750			
0.2299	14716.67	3.8580	3.8579	-0.8830	25.20	0.04	-0.750			
0.2326	14887.43	3.8550	3.8549	-0.8784	25.20	0.04	-0.750			
0.2353	15057.29	3.8520	3.8519	-0.8806	25.20	0.04	-0.750			
0.2379	15222.42	3.8490	3.8490	-0.8765	25.21	0.05	-0.750			
0.2405	15391.88	3.8460	3.8458	-0.8843	25.21	0.05	-0.750			
0.2431	15561.42	3.8430	3.8428	-0.8846	25.21	0.05	-0.750			
0.2458	15730.36	3.8400	3.8399	-0.8858	25.21	0.05	-0.750			
0.2485	15902.26	3.8370	3.8370	-0.8859	25.21	0.05	-0.750			
0.2511	16071.61	3.8340	3.8340	-0.8824	25.22	0.06	-0.750			
0.2537	16239.45	3.8310	3.8310	-0.8744	25.22	0.06	-0.750			
0.2564	16410.48	3.8280	3.8280	-0.8750	25.22	0.06	-0.750			
0.2590	16577.53	3.8250	3.8250	-0.8830	25.22	0.06	-0.750			
0.2617	16747.90	3.8220	3.8217	-0.8811	25.22	0.06	-0.750			
0.2643	16917.22	3.8190	3.8190	-0.8792	25.22	0.06	-0.750			
0.2670	17088.02	3.8160	3.8159	-0.8821	25.22	0.06	-0.750			
0.2696	17252.97	3.8130	3.8130	-0.9029	25.22	0.06	-0.750			
0.2724	17432.36	3.8100	3.8098	-0.8875	25.23	0.07	-0.750			
0.2750	17601.28	3.8070	3.8069	-0.8764	25.23	0.07	-0.750			
0.2777	17770.18	3.8040	3.8038	-0.8742	25.24	0.08	-0.750			
0.2803	17936.66	3.8010	3.8020	-0.8642	25.24	0.08	-0.750			
0.2828	18098.64	3.7980	3.7978	-0.8601	25.24	0.08	-0.750			
0.2853	18261.43	3.7950	3.7950	-0.8529	25.24	0.08	-0.750			
0.2878	18421.49	3.7920	3.7920	-0.8427	25.25	0.09	-0.750			
0.2905	18589.49	3.7890	3.7890	-0.8549	25.25	0.09	-0.750			
0.2930	18753.47	3.7860	3.7862	-0.8491	25.25	0.09	-0.750			
0.2955	18915.00	3.7830	3.7828	-0.8475	25.25	0.09	-0.750			
0.2981	19079.33	3.7800	3.7800	-0.8467	25.25	0.09	-0.750			
0.3006	19241.19	3.7770	3.7769	-0.8453	25.25	0.09	-0.750			
0.3032	19405.40	3.7740	3.7739	-0.8479	25.25	0.09	-0.750			
0.3058	19568.20	3.7710	3.7711	-0.8426	25.25	0.09	-0.750			
0.3083	19729.23	3.7680	3.7679	-0.8352	25.25	0.09	-0.750			
0.3108	19890.52	3.7650	3.7650	-0.8359	25.25	0.09	-0.750			
0.3132	20047.39	3.7620	3.7620	-0.8250	25.26	0.10	-0.750			
0.3158	20210.70	3.7590	3.7589	-0.8353	25.26	0.10	-0.750			
0.3183	20368.93	3.7560	3.7558	-0.8242	25.26	0.10	-0.750			
0.3207	20525.18	3.7530	3.7528	-0.8286	25.26	0.10	-0.750			
0.3232	20682.93	3.7500	3.7501	-0.8335	25.26	0.10	-0.750			
0.3256	20840.26	3.7470	3.7470	-0.8262	25.26	0.10	-0.750			
0.3281	21000.63	3.7440	3.7440	-0.8433	25.26	0.10	-0.750			
0.3307	21167.63	3.7410	3.7413	-0.8509	25.26	0.10	-0.750			
0.3333	21329.45	3.7380	3.7381	-0.8687	25.26	0.10	-0.750			
0.3359	21500.05	3.7350	3.7349	-0.8744	25.26	0.10	-0.750			
0.3386	21667.96	3.7320	3.7318	-0.8778	25.26	0.10	-0.750			
0.3412	21838.05	3.7290	3.7289	-0.8848	25.26	0.10	-0.750			
0.3439	22009.62	3.7260	3.7259	-0.8990	25.26	0.10	-0.750			
0.3466	22181.52	3.7230	3.7229	-0.9156	25.26	0.10	-0.750			
0.3494	22359.99	3.7200	3.7199	-0.9261	25.25	0.09	-0.750			
0.3522	22538.60	3.7170	3.7169	-0.9415	25.25	0.09	-0.750			
0.3550	22720.55	3.7140	3.7139	-0.9515	25.25	0.09	-0.750			
0.3579	22905.09	3.7110	3.7110	-0.9792	25.25	0.09	-0.750			
0.3609	23096.57	3.7080	3.7078	-0.9875	25.25	0.09	-0.750			
0.3638	23285.53	3.7050	3.7049	-0.9970	25.25	0.09	-0.750			
0.3669	23481.29	3.7020	3.7018	-1.0248	25.25	0.09	-0.750			
0.3700	23677.68	3.6990	3.6989	-1.0544	25.24	0.08	-0.750	0.412	0.522	
0.3732	23883.04	3.6960	3.6956	-1.0708	25.24	0.08	-0.750			
0.3764	24088.06	3.6930	3.6929	-1.0896	25.23	0.07	-0.750			
0.3796	24296.74	3.6900	3.6901	-1.1362	25.22	0.06	-0.750			
0.3832	24524.82	3.6870	3.6869	-1.1480	25.22	0.06	-0.750			
0.3867	24747.18	3.6840	3.6838	-1.1559	25.21	0.05	-0.750			
0.3901	24967.33	3.6810	3.6807	-1.1578	25.20	0.04	-0.750			
0.3936	25190.42	3.6780	3.6781	-1.1825	25.20	0.04	-0.750			
0.3972	25418.39	3.6750	3.6749	-1.1966	25.19	0.03	-0.750			
0.4007	25644.48	3.6720	3.6719	-1.2101	25.18	0.02	-0.750			
0.4042	25870.91	3.6690	3.6692	-1.2517	25.17	0.01	-0.750			
0.4083	26128.83	3.6660	3.6659	-1.3084	25.16	-0.00	-0.750			
0.4123	26387.28	3.6630	3.6626	-1.3198	25.14	-0.02	-0.750			
0.4163	26644.92	3.6600	3.6603	-1.3550	25.13	-0.03	-0.750			
0.4204	26903.14	3.6570	3.6570	-1.3950	25.12	-0.04	-0.750			
0.4247	27181.84	3.6540	3.6536	-1.4076	25.11	-0.05	-0.750			
0.4289	27451.63	3.6510	3.6516	-1.4210	25.10	-0.06	-0.750			
0.4331	27716.49	3.6480	3.6478	-1.4572	25.09	-0.07	-0.750			
0.4376	28006.96	3.6450	3.6451	-1.5385	25.08	-0.08	-0.750			
0.4423	28308.08	3.6420	3.6418	-1.5508	25.06	-0.10	-0.750			
0.4469	28604.06	3.6390	3.6393	-1.5562	25.05	-0.11	-0.750			
0.4517	28911.69	3.6360	3.6363	-1.5889	25.04	-0.12	-0.750			
0.4567	29230.76	3.6330	3.6326	-1.6332	25.03	-0.13	-0.750			
0.4614	29530.93	3.6300	3.6297	-1.6997	25.01	-0.15	-0.750			
0.4664	29851.60	3.6270	3.6270	-1.7630	25.00	-0.16	-0.750			
0.4718	30197.34	3.6240	3.6246	-1.8526	24.99	-0.17	-0.750			
0.4777	30571.75	3.6210	3.6202	-1.8900	24.98	-0.18	-0.750			
0.4835	30945.92	3.6180	3.6188	-1.9447	24.97	-0.19	-0.750			
0.4896	31335.21	3.6150	3.6152	-1.9700	24.96	-0.20	-0.750			
0.4955	31714.66	3.6120	3.6118	-1.9525	24.96	-0.20	-0.750			
0.5014	32092.26	3.6090	3.6088	-1.9191	24.96	-0.20	-0.750			
0.5071	32451.35	3.6060	3.6057	-1.9317	24.96	-0.20	-0.750			
0.5129	32827.55	3.6030	3.6027	-1.9647	24.95	-0.21	-0.750			
0.5186	33191.28	3.6000	3.6000	-2.0004	24.94	-0.22	-0.750			
0.5248	33588.38	3.5970	3.5969	-2.0227	24.93	-0.23	-0.750			
0.5309	33979.13	3.5940	3.5941	-2.0538	24.92	-0.24	-0.750			
0.5372	34379.93	3.5910	3.5912	-2.1001	24.91	-0.25	-0.750			
0.5435	34783.24	3.5880	3.5882	-2.1657	24.90	-0.26	-0.750			
0.5502	35213.88	3.5850	3.5848	-2.1824	24.89	-0.27	-0.750			
0.5568	35637.64	3.5820	3.5822	-2.2406	24.89	-0.27	-0.750			
0.5635	36064.88	3.5790	3.5793	-2.2652	24.88	-0.28	-0.750			
0.5704	36508.74	3.5760	3.5755	-2.2746	24.88	-0.28	-0.750			
0.5774	36951.07	3.5730	3.5731	-2.2836	24.88	-0.28	-0.750			
0.5842	37387.46	3.5700	3.5698	-2.3338	24.88	-0.28	-0.750			
0.5914	37850.55	3.5670	3.5668	-2.3614	24.87	-0.29	-0.750			
0.5984	38296.03	3.5640	3.5644	-2.3198	24.87	-0.29	-0.750			
0.6055	38754.33	3.5610	3.5611	-2.3493	24.86	-0.30	-0.750			
0.6125	39200.09	3.5580	3.5577	-2.2808	24.86	-0.30	-0.750			
0.6192	39630.63	3.5550	3.5549	-2.2666	24.86	-0.30	-0.750			
0.6261	40072.69	3.5520	3.5522	-2.2798	24.87	-0.29	-0.750			
0.6329	40506.70	3.5490	3.5491	-2.2570	24.87	-0.29	-0.750			
0.6398	40948.81	3.5460	3.5463	-2.2433	24.88	-0.28	-0.750			
0.6466	41380.67	3.5430	3.5433	-2.2184	24.88	-0.28	-0.750			
0.6534	41817.75	3.5400	3.5401	-2.1932	24.88	-0.28	-0.750			
0.6598	42225.02	3.5370	3.5369	-2.1151	24.89	-0.27	-0.750			
0.6660	42624.26	3.5340	3.5339	-2.0492	24.90	-0.26	-0.750			
0.6721	43017.52	3.5310	3.5312	-2.0028	24.91	-0.25	-0.750			
0.6780	43391.62	3.5280	3.5279	-1.9433	24.92	-0.24	-0.750			
0.6837	43758.16	3.5250	3.5249	-1.8886	24.93	-0.23	-0.750			
0.6893	44116.78	3.5220	3.5217	-1.8202	24.93	-0.23	-0.750			
0.6947	44461.98	3.5190	3.5187	-1.7661	24.95	-0.21	-0.750			
0.7000	44800.23	3.5160	3.5159	-1.6910	24.96	-0.20	-0.750			
0.7050	45118.79	3.5130	3.5132	-1.6407	24.98	-0.18	-0.750			
0.7098	45427.33	3.5100	3.5101	-1.5825	24.99	-0.17	-0.750			
0.7144	45723.53	3.5070	3.5067	-1.5387	25.01	-0.15	-0.750			
0.7190	46016.46	3.5040	3.5042	-1.5054	25.02	-0.14	-0.750			
0.7235	46303.35	3.5010	3.5009	-1.4862	25.04	-0.12	-0.750			
0.7279	46584.73	3.4980	3.4978	-1.4366	25.05	-0.11	-0.750			
0.7322	46860.03	3.4950	3.4948	-1.3923	25.07	-0.09	-0.750			
0.7364	47127.84	3.4920	3.4919	-1.3598	25.08	-0.08	-0.750	0.375	0.541	
0.7403	47380.23	3.4890	3.4889	-1.3205	25.10	-0.06	-0.750			
0.7442	47626.06	3.4860	3.4860	-1.2703	25.12	-0.04	-0.750			
0.7481	47875.91	3.4830	3.4830	-1.2403	25.13	-0.03	-0.750			
0.7518	48112.54	3.4800	3.4799	-1.1975	25.15	-0.01	-0.750			
0.7552	48333.09	3.4770	3.4774	-1.1675	25.16	0.00	-0.750			
0.7587	48554.33	3.4740	3.4740	-1.1241	25.17	0.01	-0.750			
0.7620	48765.71	3.4710	3.4707	-1.0844	25.19	0.03	-0.750			
0.7651	48966.62	3.4680	3.4679	-1.0530	25.20	0.04	-0.750			
0.7682	49165.80	3.4650	3.4653	-1.0344	25.21	0.05	-0.750			
0.7712	49359.89	3.4620	3.4619	-1.0275	25.23	0.07	-0.750			
0.7742	49550.84	3.4590	3.4589	-1.0302	25.24	0.08	-0.750			
0.7772	49740.19	3.4560	3.4561	-1.0373	25.26	0.10	-0.750			
0.7803	49941.73	3.4530	3.4533	-1.1162	25.27	0.11	-0.750			
0.7837	50157.61	3.4500	3.4499	-1.1750	25.28	0.12	-0.750			
0.7874	50390.47	3.4470	3.4468	-1.2426	25.29	0.13	-0.750			
0.7912	50638.76	3.4440	3.4439	-1.3183	25.30	0.14	-0.750			
0.7954	50906.58	3.4410	3.4410	-1.3834	25.31	0.15	-0.750			
0.7998	51184.15	3.4380	3.4379	-1.4034	25.32	0.16	-0.750			
0.8041	51463.07	3.4350	3.4351	-1.4116	25.34	0.18	-0.750			
0.8084	51735.84	3.4320	3.4319	-1.3749	25.35	0.19	-0.750			
0.8127	52010.52	3.4290	3.4288	-1.3166	25.36	0.20	-0.750			
0.8165	52255.23	3.4260	3.4262	-1.2412	25.37	0.21	-0.750			
0.8200	52479.55	3.4230	3.4232	-1.1929	25.37	0.21	-0.750			
0.8234	52698.06	3.4200	3.4196	-1.1560	25.38	0.22	-0.750			
0.8268	52912.07	3.4170	3.4167	-1.1338	25.38	0.22	-0.750			
0.8300	53119.16	3.4140	3.4146	-1.1340	25.39	0.23	-0.750			
0.8336	53350.83	3.4110	3.4109	-1.1277	25.40	0.24	-0.750			
0.8371	53572.82	3.4080	3.4078	-1.1017	25.41	0.25	-0.750			
0.8403	53777.45	3.4050	3.4048	-1.0593	25.42	0.26	-0.750			
0.8434	53978.60	3.4020	3.4018	-1.0280	25.43	0.27	-0.750			
0.8464	54170.19	3.3990	3.3988	-0.9900	25.44	0.28	-0.750			
0.8492	54351.66	3.3960	3.3959	-0.9498	25.45	0.29	-0.750			
0.8520	54527.74	3.3930	3.3932	-0.9020	25.45	0.29	-0.750			
0.8548	54709.11	3.3900	3.3899	-0.8884	25.46	0.30	-0.750			
0.8574	54876.42	3.3870	3.3870	-0.8469	25.46	0.30	-0.750			
0.8599	55033.56	3.3840	3.3838	-0.8126	25.47	0.31	-0.750			
0.8623	55186.30	3.3810	3.3810	-0.7699	25.47	0.31	-0.750			
0.8645	55330.81	3.3780	3.3779	-0.7297	25.48	0.32	-0.750			
0.8667	55468.62	3.3750	3.3751	-0.6885	25.48	0.32	-0.750			
0.8687	55597.15	3.3720	3.3719	-0.6499	25.48	0.32	-0.750			
0.8706	55715.44	3.3690	3.3689	-0.6084	25.49	0.33	-0.750			
0.8723	55827.13	3.3660	3.3660	-0.5713	25.50	0.34	-0.750			
0.8739	55929.83	3.3630	3.3630	-0.5311	25.51	0.35	-0.750			
0.8755	56033.28	3.3600	3.3599	-0.5080	25.51	0.35	-0.750			
0.8770	56126.97	3.3570	3.3571	-0.4727	25.52	0.36	-0.750			
0.8784	56215.07	3.3540	3.3539	-0.4435	25.52	0.36	-0.750			
0.8796	56296.10	3.3510	3.3507	-0.4112	25.53	0.37	-0.750			
0.8808	56370.88	3.3480	3.3479	-0.3863	25.53	0.37	-0.750			
0.8819	56441.09	3.3450	3.3450	-0.3627	25.54	0.38	-0.750			
0.8829	56507.81	3.3420	3.3420	-0.3468	25.55	0.39	-0.750			
0.8839	56571.20	3.3390	3.3390	-0.3307	25.55	0.39	-0.750			
0.8849	56634.21	3.3360	3.3360	-0.3175	25.56	0.40	-0.750			
0.8858	56693.87	3.3330	3.3330	-0.3043	25.56	0.40	-0.750			
0.8867	56751.33	3.3300	3.3300	-0.2919	25.57	0.41	-0.750			
0.8876	56805.90	3.3270	3.3269	-0.2791	25.57	0.41	-0.750			
0.8884	56857.36	3.3240	3.3240	-0.2684	25.58	0.42	-0.750			
0.8892	56907.21	3.3210	3.3210	-0.2578	25.58	0.42	-0.750			
0.8899	56955.64	3.3180	3.3180	-0.2495	25.58	0.42	-0.750			
0.8907	57003.18	3.3150	3.3149	-0.2417	25.59	0.43	-0.750			
0.8914	57048.24	3.3120	3.3121	-0.2344	25.59	0.43	-0.750			
0.8921	57092.43	3.3090	3.3090	-0.2281	25.60	0.44	-0.750			
0.8927	57135.62	3.3060	3.3062	-0.2218	25.60	0.44	-0.750			
0.8934	57177.35	3.3030	3.3027	-0.2172	25.61	0.45	-0.750			
0.8940	57218.12	3.3000	3.3000	-0.2100	25.61	0.45	-0.750			
0.8947	57258.16	3.2970	3.2970	-0.2064	25.62	0.46	-0.750			
0.8953	57297.32	3.2940	3.2940	-0.2015	25.62	0.46	-0.750			
0.8959	57335.70	3.2910	3.2911	-0.1972	25.63	0.47	-0.750			
0.8964	57372.67	3.2880	3.2879	-0.1925	25.63	0.47	-0.750			
0.8970	57408.95	3.2850	3.2850	-0.1886	25.64	0.48	-0.750			
0.8976	57444.85	3.2820	3.2820	-0.1854	25.64	0.48	-0.750			
0.8981	57479.75	3.2790	3.2790	-0.1819	25.65	0.49	-0.750			
0.8987	57514.81	3.2760	3.2760	-0.1799	25.65	0.49	-0.750			
0.8992	57548.76	3.2730	3.2731	-0.1763	25.65	0.49	-0.750			
0.8997	57582.42	3.2700	3.2699	-0.1732	25.66	0.50	-0.750			
0.9002	57615.28	3.2670	3.2670	-0.1715	25.66	0.50	-0.750			
0.9008	57648.04	3.2640	3.2641	-0.1687	25.67	0.51	-0.750			
0.9013	57680.19	3.2610	3.2609	-0.1662	25.67	0.51	-0.750			
0.9017	57711.73	3.2580	3.2579	-0.1643	25.68	0.52	-0.750			
0.9022	57743.20	3.2550	3.2551	-0.1618	25.68	0.52	-0.750			
0.9027	57773.95	3.2520	3.2521	-0.1599	25.68	0.52	-0.750			
0.9032	57804.44	3.2490	3.2488	-0.1577	25.69	0.53	-0.750			
0.9037	57834.70	3.2460	3.2461	-0.1550	25.69	0.53	-0.750			
0.9041	57863.92	3.2430	3.2430	-0.1523	25.70	0.54	-0.750			
0.9046	57893.26	3.2400	3.2399	-0.1506	25.70	0.54	-0.750			
0.9050	57921.86	3.2370	3.2371	-0.1484	25.71	0.55	-0.750			
0.9055	57949.79	3.2340	3.2340	-0.1465	25.71	0.55	-0.750			
0.9059	57977.96	3.2310	3.2309	-0.1445	25.72	0.56	-0.750			
0.9063	58005.32	3.2280	3.2281	-0.1422	25.72	0.56	-0.750			
0.9068	58032.38	3.2250	3.2249	-0.1412	25.72	0.56	-0.750			
0.9072	58059.59	3.2220	3.2221	-0.1399	25.73	0.57	-0.750			
0.9076	58086.16	3.2190	3.2188	-0.1381	25.73	0.57	-0.750			
0.9080	58112.53	3.2160	3.2159	-0.1366	25.73	0.57	-0.750			
0.9084	58138.64	3.2130	3.2131	-0.1350	25.74	0.58	-0.750			
0.9088	58164.22	3.2100	3.2100	-0.1336	25.74	0.58	-0.750			
0.9092	58189.91	3.2070	3.2069	-0.1328	25.74	0.58	-0.750			
0.9096	58215.33	3.2040	3.2041	-0.1313	25.75	0.59	-0.750			
0.9100	58240.15	3.2010	3.2010	-0.1295	25.75	0.59	-0.750			
0.9104	58265.16	3.1980	3.1979	-0.1283	25.75	0.59	-0.750			
0.9108	58289.68	3.1950	3.1951	-0.1267	25.76	0.60	-0.750			
0.9112	58313.81	3.1920	3.1919	-0.1251	25.76	0.60	-0.750			
0.9115	58337.79	3.1890	3.1890	-0.1236	25.76	0.60	-0.750			
0.9119	58361.11	3.1860	3.1859	-0.1224	25.77	0.61	-0.750			
0.9123	58384.12	3.1830	3.1830	-0.1207	25.77	0.61	-0.750			
0.9126	58407.35	3.1800	3.1801	-0.1195	25.77	0.61	-0.750			
0.9130	58430.21	3.1770	3.1770	-0.1184	25.77	0.61	-0.750			
0.9133	58452.90	3.1740	3.1741	-0.1171	25.78	0.62	-0.750			
0.9137	58475.40	3.1710	3.1710	-0.1159	25.78	0.62	-0.750			
0.9140	58497.36	3.1680	3.1682	-0.1151	25.78	0.62	-0.750			
0.9144	58519.30	3.1650	3.1649	-0.1139	25.79	0.63	-0.750			
