Ah_balance (normalized)	Ah_balance (mAh)	Voltage - fit (V)	Voltage -  interpolate (V)	dQ/dV (1/V)	Temperature (°C)	Temperature - diff (°C)	Current (C)	R_DC 0ms (mOhm)	R_DC 50ms (mOhm)	R_DC 50 ms PEC (mOhm)
0.0003	20.62	4.1630	4.1630	-0.1307	24.92	0.02	-0.750			
0.0008	51.72	4.1600	4.1598	-0.1804	24.91	0.01	-0.750			
0.0014	90.63	4.1570	4.1569	-0.2229	24.91	0.01	-0.750			
0.0021	137.53	4.1540	4.1542	-0.2645	24.91	0.01	-0.750			
0.0030	192.64	4.1510	4.1510	-0.3070	24.91	0.01	-0.750			
0.0040	256.45	4.1480	4.1479	-0.3483	24.91	0.01	-0.750			
0.0051	327.65	4.1450	4.1449	-0.3852	24.90	0.00	-0.750			
0.0063	405.87	4.1420	4.1420	-0.4226	24.90	0.00	-0.750			
0.0077	490.71	4.1390	4.1389	-0.4579	24.90	-0.00	-0.750			
0.0091	581.88	4.1360	4.1360	-0.4924	24.89	-0.01	-0.750			
0.0106	679.46	4.1330	4.1330	-0.5254	24.89	-0.01	-0.750			
0.0123	785.42	4.1300	4.1299	-0.5461	24.89	-0.01	-0.750			
0.0140	896.77	4.1270	4.1269	-0.5719	24.88	-0.02	-0.750			
0.0158	1009.06	4.1240	4.1241	-0.5851	24.88	-0.02	-0.750			
0.0175	1123.05	4.1210	4.1211	-0.5958	24.87	-0.03	-0.750			
0.0193	1236.44	4.1180	4.1184	-0.6125	24.87	-0.03	-0.750			
0.0212	1354.67	4.1150	4.1147	-0.6264	24.87	-0.03	-0.750			
0.0230	1474.47	4.1120	4.1121	-0.6409	24.86	-0.04	-0.750			
0.0250	1600.67	4.1090	4.1090	-0.6710	24.86	-0.04	-0.750			
0.0272	1737.72	4.1060	4.1060	-0.6892	24.86	-0.04	-0.750			
0.0293	1872.27	4.1030	4.1027	-0.6929	24.85	-0.05	-0.750			
0.0314	2006.73	4.1000	4.1002	-0.6957	24.85	-0.05	-0.750			
0.0334	2139.00	4.0970	4.0969	-0.6935	24.85	-0.05	-0.750			
0.0355	2270.74	4.0940	4.0940	-0.6982	24.85	-0.05	-0.750			
0.0376	2403.24	4.0910	4.0909	-0.6981	24.85	-0.05	-0.750			
0.0397	2538.46	4.0880	4.0879	-0.7073	24.84	-0.06	-0.750			
0.0418	2673.47	4.0850	4.0850	-0.7157	24.84	-0.06	-0.750			
0.0439	2811.64	4.0820	4.0821	-0.7246	24.84	-0.06	-0.750			
0.0461	2951.69	4.0790	4.0789	-0.7313	24.84	-0.06	-0.750			
0.0483	3092.14	4.0760	4.0760	-0.7363	24.84	-0.06	-0.750			
0.0506	3236.64	4.0730	4.0730	-0.7487	24.84	-0.06	-0.750			
0.0529	3383.02	4.0700	4.0699	-0.7500	24.84	-0.06	-0.750			
0.0551	3528.30	4.0670	4.0669	-0.7557	24.84	-0.06	-0.750			
0.0574	3673.11	4.0640	4.0642	-0.7488	24.84	-0.06	-0.750			
0.0596	3811.28	4.0610	4.0611	-0.7622	24.84	-0.06	-0.750			
0.0619	3959.24	4.0580	4.0578	-0.7640	24.84	-0.06	-0.750			
0.0641	4104.60	4.0550	4.0553	-0.7603	24.84	-0.06	-0.750			
0.0665	4257.27	4.0520	4.0517	-0.7725	24.84	-0.06	-0.750			
0.0689	4407.86	4.0490	4.0492	-0.7754	24.84	-0.06	-0.750			
0.0712	4556.36	4.0460	4.0458	-0.7662	24.84	-0.06	-0.750			
0.0735	4701.72	4.0430	4.0430	-0.7662	24.84	-0.06	-0.750			
0.0757	4844.97	4.0400	4.0400	-0.7583	24.85	-0.05	-0.750			
0.0780	4991.02	4.0370	4.0369	-0.7631	24.85	-0.05	-0.750			
0.0803	5136.07	4.0340	4.0339	-0.7630	24.85	-0.05	-0.750			
0.0825	5282.64	4.0310	4.0311	-0.7668	24.85	-0.05	-0.750			
0.0848	5429.18	4.0280	4.0280	-0.7691	24.85	-0.05	-0.750			
0.0872	5578.79	4.0250	4.0249	-0.7749	24.85	-0.05	-0.750			
0.0895	5727.95	4.0220	4.0220	-0.7682	24.86	-0.04	-0.750			
0.0918	5877.66	4.0190	4.0190	-0.7711	24.86	-0.04	-0.750			
0.0941	6024.21	4.0160	4.0159	-0.7743	24.86	-0.04	-0.750			
0.0964	6171.85	4.0130	4.0129	-0.7742	24.86	-0.04	-0.750			
0.0988	6320.91	4.0100	4.0099	-0.7832	24.86	-0.04	-0.750			
0.1011	6472.65	4.0070	4.0069	-0.7835	24.86	-0.04	-0.750			
0.1035	6626.57	4.0040	4.0039	-0.7866	24.86	-0.04	-0.750			
0.1059	6777.06	4.0010	4.0007	-0.7839	24.86	-0.04	-0.750			
0.1082	6926.29	3.9980	3.9978	-0.7837	24.86	-0.04	-0.750			
0.1105	7074.44	3.9950	3.9947	-0.7830	24.86	-0.04	-0.750			
0.1129	7223.77	3.9920	3.9920	-0.7851	24.86	-0.04	-0.750			
0.1153	7380.29	3.9890	3.9890	-0.7998	24.86	-0.04	-0.750			
0.1177	7534.15	3.9860	3.9859	-0.7980	24.86	-0.04	-0.750			
0.1201	7686.33	3.9830	3.9831	-0.7972	24.86	-0.04	-0.750			
0.1224	7833.31	3.9800	3.9800	-0.8119	24.86	-0.04	-0.750			
0.1248	7990.39	3.9770	3.9770	-0.8234	24.87	-0.03	-0.750			
0.1273	8148.61	3.9740	3.9738	-0.8322	24.87	-0.03	-0.750			
0.1299	8316.25	3.9710	3.9708	-0.8413	24.88	-0.02	-0.750			
0.1325	8481.16	3.9680	3.9682	-0.8475	24.88	-0.02	-0.750			
0.1350	8641.53	3.9650	3.9650	-0.8564	24.88	-0.02	-0.750			
0.1376	8808.21	3.9620	3.9619	-0.8384	24.88	-0.02	-0.750			
0.1401	8964.42	3.9590	3.9588	-0.8224	24.88	-0.02	-0.750			
0.1426	9126.17	3.9560	3.9558	-0.8270	24.88	-0.02	-0.750			
0.1451	9284.90	3.9530	3.9528	-0.8212	24.88	-0.02	-0.750			
0.1475	9440.39	3.9500	3.9499	-0.8210	24.89	-0.01	-0.750			
0.1499	9592.22	3.9470	3.9469	-0.8164	24.89	-0.01	-0.750			
0.1523	9746.22	3.9440	3.9441	-0.8134	24.89	-0.01	-0.750			
0.1549	9912.38	3.9410	3.9409	-0.8352	24.90	-0.00	-0.750			
0.1574	10071.43	3.9380	3.9382	-0.8386	24.90	0.00	-0.750			
0.1599	10234.84	3.9350	3.9349	-0.8370	24.90	0.00	-0.750			
0.1625	10397.87	3.9320	3.9319	-0.8483	24.91	0.01	-0.750			
0.1650	10560.70	3.9290	3.9289	-0.8492	24.91	0.01	-0.750			
0.1676	10725.06	3.9260	3.9259	-0.8471	24.92	0.02	-0.750			
0.1701	10888.63	3.9230	3.9231	-0.8419	24.92	0.02	-0.750			
0.1727	11050.38	3.9200	3.9199	-0.8509	24.92	0.02	-0.750			
0.1752	11213.07	3.9170	3.9170	-0.8480	24.92	0.02	-0.750			
0.1777	11373.40	3.9140	3.9138	-0.8404	24.92	0.02	-0.750			
0.1803	11538.84	3.9110	3.9109	-0.8553	24.92	0.02	-0.750			
0.1829	11703.14	3.9080	3.9077	-0.8528	24.92	0.02	-0.750			
0.1854	11866.56	3.9050	3.9049	-0.8605	24.92	0.02	-0.750			
0.1880	12032.21	3.9020	3.9021	-0.8530	24.92	0.02	-0.750			
0.1905	12192.44	3.8990	3.8990	-0.8433	24.93	0.03	-0.750			
0.1931	12360.84	3.8960	3.8960	-0.8592	24.93	0.03	-0.750			
0.1957	12521.79	3.8930	3.8928	-0.8590	24.93	0.03	-0.750			
0.1982	12686.15	3.8900	3.8900	-0.8673	24.94	0.04	-0.750			
0.2008	12854.33	3.8870	3.8868	-0.8722	24.94	0.04	-0.750			
0.2035	13023.01	3.8840	3.8841	-0.8717	24.94	0.04	-0.750			
0.2062	13193.90	3.8810	3.8809	-0.8799	24.95	0.05	-0.750			
0.2087	13358.21	3.8780	3.8780	-0.8975	24.95	0.05	-0.750			
0.2115	13534.53	3.8750	3.8748	-0.8823	24.95	0.05	-0.750			
0.2141	13703.20	3.8720	3.8719	-0.8732	24.96	0.06	-0.750			
0.2168	13874.01	3.8690	3.8688	-0.8766	24.96	0.06	-0.750			
0.2193	14038.27	3.8660	3.8670	-0.8786	24.96	0.06	-0.750			
0.2220	14205.51	3.8630	3.8628	-0.8793	24.96	0.06	-0.750			
0.2245	14369.95	3.8600	3.8599	-0.8790	24.97	0.07	-0.750			
0.2271	14537.39	3.8570	3.8569	-0.8778	24.97	0.07	-0.750			
0.2299	14714.98	3.8540	3.8542	-0.8924	24.98	0.08	-0.750			
0.2326	14886.93	3.8510	3.8510	-0.8882	24.98	0.08	-0.750			
0.2352	15055.99	3.8480	3.8480	-0.8864	24.98	0.08	-0.750			
0.2379	15225.04	3.8450	3.8449	-0.8790	24.98	0.08	-0.750			
0.2405	15391.79	3.8420	3.8419	-0.8732	24.99	0.09	-0.750			
0.2431	15560.92	3.8390	3.8390	-0.8686	24.99	0.09	-0.750			
0.2457	15726.84	3.8360	3.8361	-0.8629	24.99	0.09	-0.750			
0.2483	15891.86	3.8330	3.8329	-0.8720	24.99	0.09	-0.750			
0.2509	16058.47	3.8300	3.8298	-0.8677	25.00	0.10	-0.750			
0.2535	16224.44	3.8270	3.8269	-0.8564	25.00	0.10	-0.750			
0.2561	16390.26	3.8240	3.8239	-0.8572	25.00	0.10	-0.750			
0.2587	16556.92	3.8210	3.8210	-0.8542	25.00	0.10	-0.750			
0.2612	16719.75	3.8180	3.8178	-0.8533	25.01	0.11	-0.750			
0.2638	16880.82	3.8150	3.8150	-0.8427	25.01	0.11	-0.750			
0.2663	17040.34	3.8120	3.8121	-0.8316	25.02	0.12	-0.750			
0.2688	17204.44	3.8090	3.8091	-0.8383	25.02	0.12	-0.750			
0.2713	17364.54	3.8060	3.8060	-0.8390	25.02	0.12	-0.750			
0.2738	17522.64	3.8030	3.8029	-0.8389	25.03	0.13	-0.750			
0.2763	17684.88	3.8000	3.7999	-0.8375	25.03	0.13	-0.750			
0.2788	17845.45	3.7970	3.7970	-0.8307	25.04	0.14	-0.750			
0.2814	18009.27	3.7940	3.7942	-0.8325	25.04	0.14	-0.750			
0.2839	18168.12	3.7910	3.7909	-0.8256	25.04	0.14	-0.750			
0.2863	18324.76	3.7880	3.7879	-0.8228	25.04	0.14	-0.750			
0.2888	18482.29	3.7850	3.7849	-0.8150	25.05	0.15	-0.750			
0.2912	18638.16	3.7820	3.7820	-0.8015	25.05	0.15	-0.750			
0.2937	18795.87	3.7790	3.7792	-0.7970	25.05	0.15	-0.750			
0.2960	18945.22	3.7760	3.7759	-0.7966	25.05	0.15	-0.750			
0.2984	19095.11	3.7730	3.7729	-0.7931	25.05	0.15	-0.750			
0.3007	19245.54	3.7700	3.7699	-0.7936	25.06	0.16	-0.750			
0.3031	19395.41	3.7670	3.7671	-0.7941	25.06	0.16	-0.750			
0.3055	19555.10	3.7640	3.7640	-0.8000	25.06	0.16	-0.750			
0.3080	19709.09	3.7610	3.7610	-0.7997	25.06	0.16	-0.750			
0.3103	19859.92	3.7580	3.7581	-0.8083	25.06	0.16	-0.750			
0.3127	20014.60	3.7550	3.7550	-0.8040	25.06	0.16	-0.750			
0.3151	20169.26	3.7520	3.7518	-0.8086	25.07	0.17	-0.750			
0.3176	20325.21	3.7490	3.7489	-0.8164	25.07	0.17	-0.750			
0.3200	20483.09	3.7460	3.7461	-0.8256	25.07	0.17	-0.750			
0.3225	20640.43	3.7430	3.7430	-0.8482	25.07	0.17	-0.750			
0.3251	20805.12	3.7400	3.7399	-0.8484	25.07	0.17	-0.750			
0.3276	20968.62	3.7370	3.7369	-0.8523	25.08	0.18	-0.750			
0.3303	21136.92	3.7340	3.7339	-0.8653	25.08	0.18	-0.750			
0.3329	21302.93	3.7310	3.7309	-0.8708	25.08	0.18	-0.750			
0.3355	21469.26	3.7280	3.7279	-0.8782	25.08	0.18	-0.750			
0.3380	21634.99	3.7250	3.7248	-0.8849	25.08	0.18	-0.750			
0.3407	21803.79	3.7220	3.7221	-0.8967	25.08	0.18	-0.750			
0.3435	21983.18	3.7190	3.7188	-0.9237	25.08	0.18	-0.750			
0.3462	22159.99	3.7160	3.7159	-0.9533	25.08	0.18	-0.750			
0.3492	22346.71	3.7130	3.7130	-0.9651	25.08	0.18	-0.750			
0.3521	22533.05	3.7100	3.7099	-0.9800	25.07	0.17	-0.750			
0.3551	22725.23	3.7070	3.7070	-0.9993	25.07	0.17	-0.750			
0.3581	22918.26	3.7040	3.7037	-1.0325	25.07	0.17	-0.750			
0.3613	23121.02	3.7010	3.7009	-1.0412	25.07	0.17	-0.750			
0.3644	23323.32	3.6980	3.6979	-1.0555	25.07	0.17	-0.750	0.370	0.489	
0.3676	23526.13	3.6950	3.6949	-1.0599	25.07	0.17	-0.750			
0.3709	23738.02	3.6920	3.6918	-1.0625	25.07	0.17	-0.750			
0.3740	23938.92	3.6890	3.6890	-1.0341	25.06	0.16	-0.750			
0.3772	24140.07	3.6860	3.6862	-1.0355	25.05	0.15	-0.750			
0.3802	24329.87	3.6830	3.6832	-1.0192	25.04	0.14	-0.750			
0.3832	24524.74	3.6800	3.6796	-1.0876	25.04	0.14	-0.750			
0.3864	24729.04	3.6770	3.6769	-1.1093	25.04	0.14	-0.750			
0.3898	24947.21	3.6740	3.6737	-1.1596	25.03	0.13	-0.750			
0.3935	25182.85	3.6710	3.6709	-1.2316	25.03	0.13	-0.750			
0.3973	25429.61	3.6680	3.6677	-1.2739	25.02	0.12	-0.750			
0.4013	25681.13	3.6650	3.6648	-1.2902	25.01	0.11	-0.750			
0.4051	25925.57	3.6620	3.6619	-1.3171	25.00	0.10	-0.750			
0.4091	26182.76	3.6590	3.6588	-1.3434	25.00	0.10	-0.750			
0.4132	26442.41	3.6560	3.6558	-1.3586	24.99	0.09	-0.750			
0.4172	26698.43	3.6530	3.6532	-1.3800	24.98	0.08	-0.750			
0.4215	26972.88	3.6500	3.6500	-1.4189	24.98	0.08	-0.750			
0.4258	27248.45	3.6470	3.6468	-1.4369	24.97	0.07	-0.750			
0.4301	27527.50	3.6440	3.6437	-1.4822	24.96	0.06	-0.750			
0.4346	27813.14	3.6410	3.6408	-1.5091	24.96	0.06	-0.750			
0.4393	28114.72	3.6380	3.6380	-1.5428	24.95	0.05	-0.750			
0.4440	28418.30	3.6350	3.6357	-1.5427	24.94	0.04	-0.750			
0.4487	28715.47	3.6320	3.6327	-1.5819	24.93	0.03	-0.750			
0.4534	29016.56	3.6290	3.6293	-1.5924	24.93	0.03	-0.750			
0.4581	29319.54	3.6260	3.6257	-1.6241	24.92	0.02	-0.750			
0.4630	29632.21	3.6230	3.6226	-1.6917	24.91	0.01	-0.750			
0.4684	29975.59	3.6200	3.6200	-1.7158	24.89	-0.01	-0.750			
0.4736	30311.97	3.6170	3.6174	-1.7518	24.88	-0.02	-0.750			
0.4789	30649.94	3.6140	3.6144	-1.7712	24.87	-0.03	-0.750			
0.4841	30979.73	3.6110	3.6108	-1.7707	24.87	-0.03	-0.750			
0.4894	31322.06	3.6080	3.6078	-1.8210	24.86	-0.04	-0.750			
0.4950	31679.40	3.6050	3.6049	-1.8500	24.86	-0.04	-0.750			
0.5007	32042.36	3.6020	3.6017	-1.9762	24.85	-0.05	-0.750			
0.5067	32431.61	3.5990	3.5992	-1.9714	24.84	-0.06	-0.750			
0.5128	32819.99	3.5960	3.5960	-1.9957	24.84	-0.06	-0.750			
0.5188	33202.32	3.5930	3.5937	-2.0066	24.83	-0.07	-0.750			
0.5247	33580.10	3.5900	3.5899	-2.0640	24.82	-0.08	-0.750			
0.5310	33983.26	3.5870	3.5865	-2.0765	24.81	-0.09	-0.750			
0.5369	34361.91	3.5840	3.5840	-2.2050	24.81	-0.09	-0.750			
0.5440	34815.95	3.5810	3.5811	-2.1870	24.80	-0.10	-0.750			
0.5507	35242.41	3.5780	3.5782	-2.2351	24.80	-0.10	-0.750			
0.5573	35665.58	3.5750	3.5753	-2.2280	24.80	-0.10	-0.750			
0.5640	36096.88	3.5720	3.5715	-2.2757	24.79	-0.11	-0.750			
0.5706	36516.12	3.5690	3.5691	-2.2441	24.78	-0.12	-0.750			
0.5776	36964.04	3.5660	3.5663	-2.2973	24.78	-0.12	-0.750			
0.5844	37399.40	3.5630	3.5638	-2.3457	24.78	-0.12	-0.750			
0.5914	37846.64	3.5600	3.5593	-2.2677	24.78	-0.12	-0.750			
0.5978	38262.04	3.5570	3.5574	-2.2473	24.78	-0.12	-0.750			
0.6047	38699.24	3.5540	3.5533	-2.2468	24.77	-0.13	-0.750			
0.6115	39133.61	3.5510	3.5507	-2.2599	24.77	-0.13	-0.750			
0.6185	39583.42	3.5480	3.5486	-2.3061	24.76	-0.14	-0.750			
0.6249	39996.59	3.5450	3.5452	-2.1921	24.77	-0.13	-0.750			
0.6314	40408.77	3.5420	3.5428	-2.1275	24.78	-0.12	-0.750			
0.6376	40804.58	3.5390	3.5384	-2.1045	24.78	-0.12	-0.750			
0.6438	41202.45	3.5360	3.5360	-2.0626	24.78	-0.12	-0.750			
0.6496	41576.98	3.5330	3.5336	-2.0230	24.79	-0.11	-0.750			
0.6560	41983.23	3.5300	3.5304	-1.9584	24.80	-0.10	-0.750			
0.6620	42367.82	3.5270	3.5273	-1.9517	24.81	-0.09	-0.750			
0.6675	42719.29	3.5240	3.5240	-1.8444	24.82	-0.08	-0.750			
0.6730	43069.15	3.5210	3.5216	-1.7817	24.83	-0.07	-0.750			
0.6784	43415.86	3.5180	3.5183	-1.7607	24.83	-0.07	-0.750			
0.6836	43749.25	3.5150	3.5148	-1.6922	24.85	-0.05	-0.750			
0.6886	44071.39	3.5120	3.5120	-1.6904	24.86	-0.04	-0.750			
0.6936	44392.15	3.5090	3.5093	-1.6151	24.88	-0.02	-0.750			
0.6984	44698.05	3.5060	3.5055	-1.5481	24.89	-0.01	-0.750			
0.7029	44984.45	3.5030	3.5032	-1.4845	24.91	0.01	-0.750			
0.7073	45269.49	3.5000	3.5002	-1.4551	24.92	0.02	-0.750			
0.7115	45534.88	3.4970	3.4969	-1.4137	24.94	0.04	-0.750			
0.7155	45788.85	3.4940	3.4940	-1.3941	24.95	0.05	-0.750			
0.7196	46056.23	3.4910	3.4912	-1.4523	24.96	0.06	-0.750			
0.7240	46335.53	3.4880	3.4880	-1.3806	24.98	0.08	-0.750			
