Ah_balance (normalized)	Ah_balance (mAh)	Voltage - fit (V)	Voltage -  interpolate (V)	dQ/dV (1/V)	Temperature (°C)	Temperature - diff (°C)	Current (C)	R_DC 0ms (mOhm)	R_DC 50ms (mOhm)	R_DC 50 ms PEC (mOhm)
0.0001	7.18	4.1630	4.1632	-0.0985	24.70	0.02	-0.750			
0.0005	30.53	4.1600	4.1601	-0.1454	24.70	0.02	-0.750			
0.0010	64.74	4.1570	4.1569	-0.1921	24.70	0.02	-0.750			
0.0016	104.99	4.1540	4.1541	-0.2337	24.70	0.02	-0.750			
0.0024	154.33	4.1510	4.1509	-0.2740	24.70	0.02	-0.750			
0.0033	209.58	4.1480	4.1475	-0.3193	24.69	0.01	-0.750			
0.0043	277.19	4.1450	4.1450	-0.3571	24.69	0.01	-0.750			
0.0055	350.22	4.1420	4.1419	-0.3893	24.69	0.01	-0.750			
0.0067	427.62	4.1390	4.1390	-0.4246	24.68	0.00	-0.750			
0.0080	513.89	4.1360	4.1359	-0.4617	24.68	-0.00	-0.750			
0.0095	605.41	4.1330	4.1328	-0.4894	24.67	-0.01	-0.750			
0.0110	702.49	4.1300	4.1299	-0.5198	24.67	-0.01	-0.750			
0.0126	805.90	4.1270	4.1271	-0.5375	24.66	-0.02	-0.750			
0.0142	911.22	4.1240	4.1241	-0.5658	24.66	-0.02	-0.750			
0.0160	1026.75	4.1210	4.1210	-0.5879	24.65	-0.03	-0.750			
0.0178	1139.79	4.1180	4.1179	-0.6032	24.65	-0.03	-0.750			
0.0196	1257.44	4.1150	4.1151	-0.6172	24.64	-0.04	-0.750			
0.0215	1378.09	4.1120	4.1120	-0.6330	24.64	-0.04	-0.750			
0.0235	1501.36	4.1090	4.1089	-0.6458	24.63	-0.05	-0.750			
0.0254	1626.53	4.1060	4.1061	-0.6648	24.63	-0.05	-0.750			
0.0274	1755.05	4.1030	4.1030	-0.6674	24.63	-0.05	-0.750			
0.0295	1888.30	4.1000	4.0999	-0.6787	24.62	-0.06	-0.750			
0.0315	2017.77	4.0970	4.0970	-0.6858	24.62	-0.06	-0.750			
0.0336	2150.65	4.0940	4.0940	-0.6915	24.62	-0.06	-0.750			
0.0357	2282.70	4.0910	4.0909	-0.6957	24.62	-0.06	-0.750			
0.0377	2415.76	4.0880	4.0880	-0.7141	24.62	-0.06	-0.750			
0.0399	2554.96	4.0850	4.0850	-0.7186	24.62	-0.06	-0.750			
0.0422	2698.32	4.0820	4.0818	-0.7207	24.62	-0.06	-0.750			
0.0444	2838.94	4.0790	4.0793	-0.7199	24.62	-0.06	-0.750			
0.0465	2975.67	4.0760	4.0758	-0.7156	24.62	-0.06	-0.750			
0.0486	3111.79	4.0730	4.0728	-0.7146	24.62	-0.06	-0.750			
0.0507	3245.82	4.0700	4.0700	-0.7165	24.62	-0.06	-0.750			
0.0529	3384.16	4.0670	4.0670	-0.7266	24.61	-0.07	-0.750			
0.0551	3523.69	4.0640	4.0640	-0.7336	24.61	-0.07	-0.750			
0.0573	3664.39	4.0610	4.0611	-0.7418	24.61	-0.07	-0.750			
0.0595	3807.67	4.0580	4.0579	-0.7394	24.61	-0.07	-0.750			
0.0617	3949.88	4.0550	4.0550	-0.7427	24.61	-0.07	-0.750			
0.0640	4094.66	4.0520	4.0521	-0.7483	24.60	-0.08	-0.750			
0.0662	4239.03	4.0490	4.0486	-0.7508	24.60	-0.08	-0.750			
0.0685	4384.72	4.0460	4.0459	-0.7522	24.60	-0.08	-0.750			
0.0708	4528.17	4.0430	4.0432	-0.7486	24.60	-0.08	-0.750			
0.0729	4668.19	4.0400	4.0399	-0.7627	24.60	-0.08	-0.750			
0.0753	4817.80	4.0370	4.0369	-0.7717	24.60	-0.08	-0.750			
0.0776	4964.82	4.0340	4.0339	-0.7557	24.60	-0.08	-0.750			
0.0799	5114.09	4.0310	4.0310	-0.7647	24.60	-0.08	-0.750			
0.0822	5260.28	4.0280	4.0283	-0.7694	24.60	-0.08	-0.750			
0.0845	5408.28	4.0250	4.0246	-0.7696	24.60	-0.08	-0.750			
0.0868	5552.15	4.0220	4.0219	-0.7717	24.61	-0.07	-0.750			
0.0891	5700.47	4.0190	4.0191	-0.7677	24.61	-0.07	-0.750			
0.0914	5852.56	4.0160	4.0160	-0.7783	24.61	-0.07	-0.750			
0.0938	6002.90	4.0130	4.0128	-0.7819	24.62	-0.06	-0.750			
0.0961	6151.02	4.0100	4.0099	-0.7732	24.62	-0.06	-0.750			
0.0984	6297.11	4.0070	4.0069	-0.7768	24.62	-0.06	-0.750			
0.1007	6447.09	4.0040	4.0040	-0.7741	24.62	-0.06	-0.750			
0.1030	6594.39	4.0010	4.0011	-0.7692	24.62	-0.06	-0.750			
0.1054	6745.74	3.9980	3.9979	-0.7762	24.62	-0.06	-0.750			
0.1077	6893.71	3.9950	3.9956	-0.7794	24.62	-0.06	-0.750			
0.1100	7042.05	3.9920	3.9920	-0.7831	24.62	-0.06	-0.750			
0.1124	7192.60	3.9890	3.9889	-0.7961	24.62	-0.06	-0.750			
0.1148	7347.91	3.9860	3.9860	-0.7942	24.62	-0.06	-0.750			
0.1173	7504.04	3.9830	3.9829	-0.8015	24.62	-0.06	-0.750			
0.1196	7657.22	3.9800	3.9798	-0.7959	24.62	-0.06	-0.750			
0.1220	7811.00	3.9770	3.9769	-0.7883	24.62	-0.06	-0.750			
0.1243	7957.62	3.9740	3.9740	-0.7963	24.62	-0.06	-0.750			
0.1267	8108.21	3.9710	3.9710	-0.7953	24.62	-0.06	-0.750			
0.1291	8264.00	3.9680	3.9679	-0.8041	24.62	-0.06	-0.750			
0.1315	8418.92	3.9650	3.9649	-0.8091	24.62	-0.06	-0.750			
0.1340	8575.36	3.9620	3.9622	-0.8109	24.62	-0.06	-0.750			
0.1364	8731.71	3.9590	3.9589	-0.8243	24.62	-0.06	-0.750			
0.1390	8892.86	3.9560	3.9558	-0.8219	24.62	-0.06	-0.750			
0.1414	9049.29	3.9530	3.9529	-0.8078	24.62	-0.06	-0.750			
0.1438	9205.50	3.9500	3.9498	-0.8081	24.62	-0.06	-0.750			
0.1463	9361.46	3.9470	3.9470	-0.8100	24.62	-0.06	-0.750			
0.1486	9513.01	3.9440	3.9438	-0.8135	24.62	-0.06	-0.750			
0.1511	9667.96	3.9410	3.9409	-0.8020	24.62	-0.06	-0.750			
0.1534	9817.19	3.9380	3.9380	-0.7994	24.63	-0.05	-0.750			
0.1559	9979.07	3.9350	3.9350	-0.8226	24.63	-0.05	-0.750			
0.1584	10137.08	3.9320	3.9318	-0.8250	24.63	-0.05	-0.750			
0.1608	10292.96	3.9290	3.9288	-0.8278	24.63	-0.05	-0.750			
0.1634	10454.77	3.9260	3.9261	-0.8260	24.63	-0.05	-0.750			
0.1658	10612.90	3.9230	3.9230	-0.8225	24.64	-0.04	-0.750			
0.1684	10775.66	3.9200	3.9199	-0.8235	24.64	-0.04	-0.750			
0.1708	10929.33	3.9170	3.9172	-0.8271	24.64	-0.04	-0.750			
0.1732	11086.95	3.9140	3.9139	-0.8286	24.64	-0.04	-0.750			
0.1757	11247.94	3.9110	3.9108	-0.8364	24.64	-0.04	-0.750			
0.1783	11409.82	3.9080	3.9080	-0.8391	24.64	-0.04	-0.750			
0.1809	11574.71	3.9050	3.9050	-0.8437	24.64	-0.04	-0.750			
0.1834	11737.47	3.9020	3.9021	-0.8437	24.64	-0.04	-0.750			
0.1859	11899.02	3.8990	3.8989	-0.8542	24.64	-0.04	-0.750			
0.1885	12062.40	3.8960	3.8958	-0.8481	24.64	-0.04	-0.750			
0.1910	12225.30	3.8930	3.8928	-0.8424	24.65	-0.03	-0.750			
0.1936	12391.10	3.8900	3.8900	-0.8468	24.65	-0.03	-0.750			
0.1961	12553.07	3.8870	3.8867	-0.8470	24.65	-0.03	-0.750			
0.1986	12713.46	3.8840	3.8839	-0.8461	24.65	-0.03	-0.750			
0.2011	12870.36	3.8810	3.8810	-0.8366	24.65	-0.03	-0.750			
0.2036	13028.03	3.8780	3.8780	-0.8403	24.66	-0.02	-0.750			
0.2062	13199.19	3.8750	3.8750	-0.8532	24.66	-0.02	-0.750			
0.2088	13361.60	3.8720	3.8719	-0.8552	24.66	-0.02	-0.750			
0.2114	13526.95	3.8690	3.8690	-0.8610	24.67	-0.01	-0.750			
0.2139	13692.62	3.8660	3.8658	-0.8579	24.67	-0.01	-0.750			
0.2165	13858.10	3.8630	3.8629	-0.8521	24.67	-0.01	-0.750			
0.2191	14023.01	3.8600	3.8599	-0.8539	24.68	-0.00	-0.750			
0.2217	14185.81	3.8570	3.8569	-0.8464	24.68	0.00	-0.750			
0.2242	14348.86	3.8540	3.8539	-0.8555	24.69	0.01	-0.750			
0.2267	14510.15	3.8510	3.8509	-0.8445	24.69	0.01	-0.750			
0.2293	14673.44	3.8480	3.8477	-0.8305	24.69	0.01	-0.750			
0.2318	14837.76	3.8450	3.8451	-0.8281	24.70	0.02	-0.750			
0.2343	14994.15	3.8420	3.8419	-0.8239	24.70	0.02	-0.750			
0.2367	15147.62	3.8390	3.8388	-0.8205	24.70	0.02	-0.750			
0.2391	15305.29	3.8360	3.8359	-0.8185	24.70	0.02	-0.750			
0.2416	15463.35	3.8330	3.8331	-0.8249	24.70	0.02	-0.750			
0.2441	15621.65	3.8300	3.8301	-0.8257	24.70	0.02	-0.750			
0.2466	15781.14	3.8270	3.8270	-0.8215	24.70	0.02	-0.750			
0.2490	15936.31	3.8240	3.8238	-0.8197	24.71	0.03	-0.750			
0.2514	16092.55	3.8210	3.8210	-0.8129	24.71	0.03	-0.750			
0.2539	16248.07	3.8180	3.8181	-0.8055	24.71	0.03	-0.750			
0.2564	16407.87	3.8150	3.8147	-0.8052	24.72	0.04	-0.750			
0.2588	16560.51	3.8120	3.8122	-0.7952	24.72	0.04	-0.750			
0.2611	16707.86	3.8090	3.8090	-0.7975	24.72	0.04	-0.750			
0.2635	16861.72	3.8060	3.8059	-0.7931	24.72	0.04	-0.750			
0.2658	17011.55	3.8030	3.8029	-0.7829	24.72	0.04	-0.750			
0.2682	17165.55	3.8000	3.8000	-0.7841	24.72	0.04	-0.750			
0.2706	17318.18	3.7970	3.7974	-0.7843	24.72	0.04	-0.750			
0.2729	17467.69	3.7940	3.7939	-0.7799	24.72	0.04	-0.750			
0.2752	17613.97	3.7910	3.7910	-0.7784	24.73	0.05	-0.750			
0.2775	17761.47	3.7880	3.7880	-0.7741	24.73	0.05	-0.750			
0.2799	17914.18	3.7850	3.7850	-0.7783	24.74	0.06	-0.750			
0.2823	18065.47	3.7820	3.7822	-0.7756	24.74	0.06	-0.750			
0.2846	18213.36	3.7790	3.7790	-0.7722	24.74	0.06	-0.750			
0.2869	18358.43	3.7760	3.7760	-0.7758	24.74	0.06	-0.750			
0.2892	18507.46	3.7730	3.7730	-0.7756	24.74	0.06	-0.750			
0.2915	18654.35	3.7700	3.7700	-0.7790	24.74	0.06	-0.750			
0.2939	18807.37	3.7670	3.7670	-0.7920	24.74	0.06	-0.750			
0.2962	18959.75	3.7640	3.7639	-0.7987	24.74	0.06	-0.750			
0.2986	19112.83	3.7610	3.7610	-0.8129	24.74	0.06	-0.750			
0.3011	19270.71	3.7580	3.7580	-0.8107	24.74	0.06	-0.750			
0.3036	19427.49	3.7550	3.7549	-0.8113	24.75	0.07	-0.750			
0.3060	19586.33	3.7520	3.7520	-0.8184	24.75	0.07	-0.750			
0.3085	19742.07	3.7490	3.7488	-0.8199	24.75	0.07	-0.750			
0.3109	19897.64	3.7460	3.7461	-0.8302	24.75	0.07	-0.750			
0.3134	20057.42	3.7430	3.7427	-0.8388	24.75	0.07	-0.750			
0.3159	20217.38	3.7400	3.7400	-0.8494	24.75	0.07	-0.750			
0.3185	20384.18	3.7370	3.7370	-0.8647	24.75	0.07	-0.750			
0.3211	20551.87	3.7340	3.7340	-0.8751	24.75	0.07	-0.750			
0.3238	20723.46	3.7310	3.7309	-0.8929	24.75	0.07	-0.750			
0.3265	20893.68	3.7280	3.7280	-0.8968	24.74	0.06	-0.750			
0.3292	21066.32	3.7250	3.7250	-0.9065	24.74	0.06	-0.750			
0.3319	21241.75	3.7220	3.7219	-0.9227	24.74	0.06	-0.750			
0.3347	21418.76	3.7190	3.7191	-0.9444	24.74	0.06	-0.750			
0.3376	21603.77	3.7160	3.7159	-0.9606	24.74	0.06	-0.750			
0.3405	21792.68	3.7130	3.7128	-0.9730	24.73	0.05	-0.750			
0.3435	21981.23	3.7100	3.7098	-0.9766	24.73	0.05	-0.750			
0.3464	22169.30	3.7070	3.7069	-1.0048	24.73	0.05	-0.750			
0.3494	22363.30	3.7040	3.7039	-1.0120	24.73	0.05	-0.750			
0.3524	22555.12	3.7010	3.7009	-1.0203	24.72	0.04	-0.750			
0.3555	22751.05	3.6980	3.6987	-1.0240	24.72	0.04	-0.750	0.400	0.539	
0.3587	22955.56	3.6950	3.6950	-1.0640	24.72	0.04	-0.750			
0.3619	23161.74	3.6920	3.6920	-1.0787	24.71	0.03	-0.750			
0.3651	23368.85	3.6890	3.6890	-1.0908	24.71	0.03	-0.750			
0.3683	23572.55	3.6860	3.6859	-1.1268	24.70	0.02	-0.750			
0.3718	23796.30	3.6830	3.6830	-1.1446	24.70	0.02	-0.750			
0.3753	24018.75	3.6800	3.6799	-1.1587	24.70	0.02	-0.750			
0.3788	24243.71	3.6770	3.6768	-1.1760	24.69	0.01	-0.750			
0.3823	24468.05	3.6740	3.6747	-1.1928	24.69	0.01	-0.750			
0.3860	24703.39	3.6710	3.6709	-1.2003	24.69	0.01	-0.750			
0.3896	24934.47	3.6680	3.6680	-1.2145	24.68	0.00	-0.750			
0.3932	25162.75	3.6650	3.6650	-1.2457	24.68	0.00	-0.750			
0.3970	25408.41	3.6620	3.6616	-1.2504	24.68	-0.00	-0.750			
0.4008	25649.72	3.6590	3.6589	-1.2543	24.67	-0.01	-0.750			
0.4045	25884.94	3.6560	3.6560	-1.2860	24.66	-0.02	-0.750			
0.4084	26134.64	3.6530	3.6531	-1.2968	24.66	-0.02	-0.750			
0.4124	26390.72	3.6500	3.6497	-1.3294	24.65	-0.03	-0.750			
0.4162	26637.34	3.6470	3.6470	-1.3583	24.64	-0.04	-0.750			
0.4203	26898.54	3.6440	3.6449	-1.3895	24.63	-0.05	-0.750			
0.4247	27182.77	3.6410	3.6408	-1.4348	24.63	-0.05	-0.750			
0.4291	27461.36	3.6380	3.6378	-1.4464	24.62	-0.06	-0.750			
0.4334	27738.34	3.6350	3.6353	-1.4742	24.62	-0.06	-0.750			
0.4377	28014.88	3.6320	3.6321	-1.5669	24.61	-0.07	-0.750			
0.4426	28323.29	3.6290	3.6287	-1.5742	24.60	-0.08	-0.750			
0.4474	28630.68	3.6260	3.6259	-1.6085	24.60	-0.08	-0.750			
0.4524	28954.33	3.6230	3.6230	-1.6455	24.59	-0.09	-0.750			
0.4574	29272.97	3.6200	3.6208	-1.6712	24.59	-0.09	-0.750			
0.4624	29593.09	3.6170	3.6172	-1.6876	24.59	-0.09	-0.750			
0.4675	29922.67	3.6140	3.6140	-1.7030	24.58	-0.10	-0.750			
0.4725	30241.58	3.6110	3.6106	-1.7381	24.58	-0.10	-0.750			
0.4779	30587.76	3.6080	3.6075	-1.7663	24.58	-0.10	-0.750			
0.4835	30943.52	3.6050	3.6048	-1.8033	24.58	-0.10	-0.750			
0.4890	31294.89	3.6020	3.6020	-1.8286	24.57	-0.11	-0.750			
0.4944	31639.13	3.5990	3.5987	-1.8508	24.56	-0.12	-0.750			
0.4999	31990.60	3.5960	3.5962	-1.9058	24.56	-0.12	-0.750			
0.5056	32358.94	3.5930	3.5928	-1.9512	24.55	-0.13	-0.750			
0.5117	32747.02	3.5900	3.5899	-2.0104	24.55	-0.13	-0.750			
0.5179	33143.84	3.5870	3.5873	-2.0715	24.54	-0.14	-0.750			
0.5243	33553.76	3.5840	3.5839	-2.0747	24.54	-0.14	-0.750			
0.5305	33951.92	3.5810	3.5815	-2.0291	24.54	-0.14	-0.750			
0.5366	34341.61	3.5780	3.5783	-2.0628	24.54	-0.14	-0.750			
0.5428	34741.10	3.5750	3.5752	-2.1465	24.54	-0.14	-0.750			
0.5494	35158.96	3.5720	3.5718	-2.1293	24.54	-0.14	-0.750			
0.5558	35573.49	3.5690	3.5693	-2.2013	24.53	-0.15	-0.750			
0.5626	36006.28	3.5660	3.5656	-2.2419	24.53	-0.15	-0.750			
0.5693	36432.80	3.5630	3.5633	-2.2167	24.52	-0.16	-0.750			
0.5761	36868.31	3.5600	3.5602	-2.1996	24.53	-0.15	-0.750			
0.5829	37302.61	3.5570	3.5568	-2.2030	24.54	-0.14	-0.750			
0.5893	37714.79	3.5540	3.5543	-2.1196	24.54	-0.14	-0.750			
0.5957	38124.69	3.5510	3.5508	-2.0570	24.54	-0.14	-0.750			
0.6019	38521.36	3.5480	3.5482	-2.0494	24.55	-0.13	-0.750			
0.6078	38899.49	3.5450	3.5455	-2.0118	24.55	-0.13	-0.750			
0.6139	39287.43	3.5420	3.5418	-1.9965	24.56	-0.12	-0.750			
0.6198	39666.57	3.5390	3.5389	-2.0087	24.56	-0.12	-0.750			
0.6256	40037.30	3.5360	3.5357	-2.0426	24.57	-0.11	-0.750			
0.6319	40440.19	3.5330	3.5330	-2.0532	24.58	-0.10	-0.750			
0.6384	40859.24	3.5300	3.5303	-2.0139	24.59	-0.09	-0.750			
0.6445	41247.82	3.5270	3.5276	-1.9482	24.61	-0.07	-0.750			
0.6502	41615.07	3.5240	3.5242	-1.8891	24.62	-0.06	-0.750			
0.6557	41964.01	3.5210	3.5209	-1.8114	24.64	-0.04	-0.750			
0.6608	42292.88	3.5180	3.5183	-1.7246	24.65	-0.03	-0.750			
0.6662	42634.86	3.5150	3.5155	-1.7339	24.67	-0.01	-0.750			
0.6714	42969.23	3.5120	3.5120	-1.6742	24.68	0.00	-0.750			
0.6764	43286.99	3.5090	3.5088	-1.6405	24.70	0.02	-0.750			
0.6812	43594.35	3.5060	3.5060	-1.5873	24.72	0.04	-0.750			
0.6858	43890.74	3.5030	3.5026	-1.5251	24.73	0.05	-0.750			
0.6904	44186.08	3.5000	3.5004	-1.4988	24.75	0.07	-0.750			
0.6947	44461.62	3.4970	3.4971	-1.4535	24.76	0.08	-0.750			
0.6990	44736.27	3.4940	3.4939	-1.4091	24.78	0.10	-0.750			
0.7033	45012.79	3.4910	3.4909	-1.3732	24.80	0.12	-0.750			
0.7074	45273.03	3.4880	3.4886	-1.3236	24.82	0.14	-0.750			
0.7112	45516.92	3.4850	3.4849	-1.1675	24.84	0.16	-0.750			
