Ah_balance (normalized)	Ah_balance (mAh)	Voltage - fit (V)	Voltage -  interpolate (V)	dQ/dV (1/V)	Temperature (°C)	Temperature - diff (°C)	Current (C)	R_DC 0ms (mOhm)	R_DC 50ms (mOhm)	R_DC 50 ms PEC (mOhm)
0.0004	24.61	4.1580	4.1579	-0.1319	25.09	0.03	-0.750			
0.0009	54.67	4.1550	4.1550	-0.1738	25.09	0.03	-0.750			
0.0014	91.65	4.1520	4.1519	-0.2121	25.09	0.03	-0.750			
0.0021	136.40	4.1490	4.1490	-0.2500	25.08	0.02	-0.750			
0.0029	188.03	4.1460	4.1461	-0.2876	25.08	0.02	-0.750			
0.0039	246.96	4.1430	4.1429	-0.3270	25.08	0.02	-0.750			
0.0049	313.35	4.1400	4.1401	-0.3635	25.08	0.02	-0.750			
0.0061	387.64	4.1370	4.1369	-0.3975	25.07	0.01	-0.750			
0.0073	467.47	4.1340	4.1340	-0.4356	25.07	0.01	-0.750			
0.0087	556.50	4.1310	4.1310	-0.4653	25.07	0.01	-0.750			
0.0102	650.21	4.1280	4.1278	-0.4886	25.06	0.00	-0.750			
0.0117	747.26	4.1250	4.1249	-0.5119	25.06	0.00	-0.750			
0.0133	848.02	4.1220	4.1220	-0.5268	25.06	-0.00	-0.750			
0.0148	948.82	4.1190	4.1191	-0.5485	25.05	-0.01	-0.750			
0.0165	1054.40	4.1160	4.1160	-0.5689	25.05	-0.01	-0.750			
0.0182	1162.11	4.1130	4.1132	-0.6022	25.05	-0.01	-0.750			
0.0201	1284.47	4.1100	4.1104	-0.6277	25.04	-0.02	-0.750			
0.0221	1413.39	4.1070	4.1069	-0.6411	25.04	-0.02	-0.750			
0.0240	1538.97	4.1040	4.1039	-0.6448	25.03	-0.03	-0.750			
0.0260	1664.70	4.1010	4.1023	-0.6588	25.03	-0.03	-0.750			
0.0279	1787.25	4.0980	4.0976	-0.6539	25.03	-0.03	-0.750			
0.0298	1909.80	4.0950	4.0949	-0.6604	25.03	-0.03	-0.750			
0.0318	2034.23	4.0920	4.0920	-0.6651	25.02	-0.04	-0.750			
0.0340	2174.35	4.0890	4.0891	-0.6949	25.02	-0.04	-0.750			
0.0360	2307.03	4.0860	4.0860	-0.6994	25.02	-0.04	-0.750			
0.0382	2442.15	4.0830	4.0829	-0.6979	25.02	-0.04	-0.750			
0.0402	2574.69	4.0800	4.0798	-0.6974	25.02	-0.04	-0.750			
0.0423	2707.65	4.0770	4.0771	-0.7043	25.02	-0.04	-0.750			
0.0444	2843.39	4.0740	4.0740	-0.7057	25.02	-0.04	-0.750			
0.0466	2982.39	4.0710	4.0710	-0.7095	25.02	-0.04	-0.750			
0.0487	3118.58	4.0680	4.0679	-0.7081	25.02	-0.04	-0.750			
0.0508	3252.27	4.0650	4.0649	-0.7057	25.02	-0.04	-0.750			
0.0529	3387.66	4.0620	4.0619	-0.7104	25.02	-0.04	-0.750			
0.0550	3522.68	4.0590	4.0590	-0.7136	25.02	-0.04	-0.750			
0.0572	3658.58	4.0560	4.0559	-0.7167	25.03	-0.03	-0.750			
0.0594	3800.14	4.0530	4.0531	-0.7277	25.03	-0.03	-0.750			
0.0616	3940.71	4.0500	4.0500	-0.7308	25.03	-0.03	-0.750			
0.0638	4082.64	4.0470	4.0469	-0.7333	25.03	-0.03	-0.750			
0.0660	4223.93	4.0440	4.0440	-0.7341	25.03	-0.03	-0.750			
0.0682	4363.27	4.0410	4.0410	-0.7391	25.03	-0.03	-0.750			
0.0704	4507.45	4.0380	4.0381	-0.7358	25.04	-0.02	-0.750			
0.0726	4649.24	4.0350	4.0348	-0.7391	25.04	-0.02	-0.750			
0.0749	4790.69	4.0320	4.0322	-0.7371	25.04	-0.02	-0.750			
0.0771	4931.83	4.0290	4.0289	-0.7378	25.04	-0.02	-0.750			
0.0793	5072.52	4.0260	4.0260	-0.7464	25.04	-0.02	-0.750			
0.0815	5215.02	4.0230	4.0230	-0.7522	25.05	-0.01	-0.750			
0.0838	5363.25	4.0200	4.0199	-0.7531	25.05	-0.01	-0.750			
0.0861	5509.26	4.0170	4.0169	-0.7522	25.05	-0.01	-0.750			
0.0883	5653.24	4.0140	4.0139	-0.7530	25.05	-0.01	-0.750			
0.0906	5799.26	4.0110	4.0109	-0.7499	25.05	-0.01	-0.750			
0.0928	5940.22	4.0080	4.0079	-0.7565	25.05	-0.01	-0.750			
0.0951	6083.71	4.0050	4.0052	-0.7531	25.06	-0.00	-0.750			
0.0974	6232.26	4.0020	4.0019	-0.7702	25.06	-0.00	-0.750			
0.0997	6380.46	3.9990	3.9993	-0.7816	25.06	0.00	-0.750			
0.1020	6530.91	3.9960	3.9959	-0.7884	25.06	0.00	-0.750			
0.1044	6683.60	3.9930	3.9930	-0.7962	25.07	0.01	-0.750			
0.1069	6840.48	3.9900	3.9899	-0.7964	25.07	0.01	-0.750			
0.1093	6995.61	3.9870	3.9870	-0.7963	25.08	0.02	-0.750			
0.1117	7148.33	3.9840	3.9843	-0.7916	25.08	0.02	-0.750			
0.1140	7298.93	3.9810	3.9808	-0.7820	25.08	0.02	-0.750			
0.1164	7446.92	3.9780	3.9780	-0.7820	25.08	0.02	-0.750			
0.1187	7595.22	3.9750	3.9750	-0.7789	25.09	0.03	-0.750			
0.1210	7744.84	3.9720	3.9721	-0.7808	25.09	0.03	-0.750			
0.1234	7898.20	3.9690	3.9688	-0.7868	25.09	0.03	-0.750			
0.1258	8048.51	3.9660	3.9658	-0.7843	25.09	0.03	-0.750			
0.1281	8198.57	3.9630	3.9631	-0.7845	25.09	0.03	-0.750			
0.1305	8351.01	3.9600	3.9599	-0.7893	25.09	0.03	-0.750			
0.1328	8501.45	3.9570	3.9570	-0.7858	25.10	0.04	-0.750			
0.1352	8654.58	3.9540	3.9539	-0.7908	25.10	0.04	-0.750			
0.1376	8805.57	3.9510	3.9512	-0.7913	25.10	0.04	-0.750			
0.1400	8958.01	3.9480	3.9479	-0.7946	25.10	0.04	-0.750			
0.1424	9110.62	3.9450	3.9449	-0.8000	25.10	0.04	-0.750			
0.1447	9263.81	3.9420	3.9420	-0.7970	25.11	0.05	-0.750			
0.1472	9419.44	3.9390	3.9390	-0.8094	25.11	0.05	-0.750			
0.1497	9578.16	3.9360	3.9361	-0.8066	25.11	0.05	-0.750			
0.1521	9731.34	3.9330	3.9330	-0.8054	25.11	0.05	-0.750			
0.1545	9885.60	3.9300	3.9299	-0.8086	25.12	0.06	-0.750			
0.1569	10040.99	3.9270	3.9271	-0.8046	25.12	0.06	-0.750			
0.1593	10197.80	3.9240	3.9237	-0.8010	25.13	0.07	-0.750			
0.1617	10349.01	3.9210	3.9219	-0.8021	25.13	0.07	-0.750			
0.1641	10501.44	3.9180	3.9180	-0.7998	25.13	0.07	-0.750			
0.1665	10655.69	3.9150	3.9148	-0.8088	25.13	0.07	-0.750			
0.1689	10809.20	3.9120	3.9120	-0.8026	25.14	0.08	-0.750			
0.1713	10964.66	3.9090	3.9091	-0.8057	25.14	0.08	-0.750			
0.1738	11123.71	3.9060	3.9060	-0.8130	25.14	0.08	-0.750			
0.1763	11283.24	3.9030	3.9029	-0.8075	25.14	0.08	-0.750			
0.1787	11433.77	3.9000	3.9000	-0.8087	25.15	0.09	-0.750			
0.1811	11588.88	3.8970	3.8970	-0.8053	25.16	0.10	-0.750			
0.1835	11743.33	3.8940	3.8939	-0.7989	25.16	0.10	-0.750			
0.1859	11897.39	3.8910	3.8910	-0.8052	25.17	0.11	-0.750			
0.1883	12052.51	3.8880	3.8880	-0.7979	25.17	0.11	-0.750			
0.1907	12203.75	3.8850	3.8849	-0.8023	25.17	0.11	-0.750			
0.1931	12358.90	3.8820	3.8820	-0.7999	25.17	0.11	-0.750			
0.1954	12508.30	3.8790	3.8791	-0.7944	25.17	0.11	-0.750			
0.1979	12666.51	3.8760	3.8757	-0.8015	25.17	0.11	-0.750			
0.2003	12820.07	3.8730	3.8730	-0.7988	25.17	0.11	-0.750			
0.2027	12970.33	3.8700	3.8700	-0.7934	25.18	0.12	-0.750			
0.2051	13125.18	3.8670	3.8669	-0.7937	25.18	0.12	-0.750			
0.2074	13273.77	3.8640	3.8640	-0.7838	25.18	0.12	-0.750			
0.2098	13425.79	3.8610	3.8610	-0.7914	25.19	0.13	-0.750			
0.2121	13576.34	3.8580	3.8585	-0.7956	25.19	0.13	-0.750			
0.2145	13730.47	3.8550	3.8547	-0.8010	25.19	0.13	-0.750			
0.2169	13884.71	3.8520	3.8521	-0.8043	25.19	0.13	-0.750			
0.2194	14041.47	3.8490	3.8491	-0.8038	25.20	0.14	-0.750			
0.2219	14199.62	3.8460	3.8459	-0.7953	25.20	0.14	-0.750			
0.2242	14351.75	3.8430	3.8431	-0.7792	25.20	0.14	-0.750			
0.2265	14495.98	3.8400	3.8401	-0.7679	25.20	0.14	-0.750			
0.2287	14639.57	3.8370	3.8368	-0.7701	25.21	0.15	-0.750			
0.2311	14787.82	3.8340	3.8339	-0.7617	25.21	0.15	-0.750			
0.2333	14934.05	3.8310	3.8310	-0.7575	25.21	0.15	-0.750			
0.2357	15081.86	3.8280	3.8279	-0.7596	25.22	0.16	-0.750			
0.2379	15228.62	3.8250	3.8248	-0.7545	25.22	0.16	-0.750			
0.2402	15371.07	3.8220	3.8219	-0.7509	25.22	0.16	-0.750			
0.2424	15512.19	3.8190	3.8189	-0.7538	25.22	0.16	-0.750			
0.2446	15657.18	3.8160	3.8160	-0.7643	25.23	0.17	-0.750			
0.2469	15804.31	3.8130	3.8130	-0.7643	25.23	0.17	-0.750			
0.2493	15952.40	3.8100	3.8101	-0.7618	25.23	0.17	-0.750			
0.2515	16098.58	3.8070	3.8070	-0.7564	25.23	0.17	-0.750			
0.2538	16243.37	3.8040	3.8040	-0.7577	25.24	0.18	-0.750			
0.2560	16387.08	3.8010	3.8010	-0.7566	25.24	0.18	-0.750			
0.2583	16530.59	3.7980	3.7979	-0.7535	25.24	0.18	-0.750			
0.2606	16676.03	3.7950	3.7949	-0.7578	25.25	0.19	-0.750			
0.2628	16821.50	3.7920	3.7922	-0.7624	25.25	0.19	-0.750			
0.2651	16967.74	3.7890	3.7890	-0.7746	25.25	0.19	-0.750			
0.2675	17117.10	3.7860	3.7859	-0.7801	25.25	0.19	-0.750			
0.2698	17266.52	3.7830	3.7830	-0.7812	25.25	0.19	-0.750			
0.2722	17423.34	3.7800	3.7798	-0.7621	25.25	0.19	-0.750			
0.2746	17573.68	3.7770	3.7776	-0.7371	25.25	0.19	-0.750			
0.2767	17710.88	3.7740	3.7743	-0.7111	25.25	0.19	-0.750			
0.2787	17834.94	3.7710	3.7717	-0.7145	25.25	0.19	-0.750			
0.2807	17966.91	3.7680	3.7675	-0.7254	25.25	0.19	-0.750			
0.2829	18102.55	3.7650	3.7648	-0.7436	25.25	0.19	-0.750			
0.2852	18250.78	3.7620	3.7619	-0.7654	25.25	0.19	-0.750			
0.2877	18410.95	3.7590	3.7592	-0.8086	25.25	0.19	-0.750			
0.2901	18566.26	3.7560	3.7560	-0.8292	25.24	0.18	-0.750			
0.2926	18726.52	3.7530	3.7529	-0.8289	25.24	0.18	-0.750			
0.2951	18883.97	3.7500	3.7498	-0.8253	25.24	0.18	-0.750			
0.2976	19046.02	3.7470	3.7470	-0.8411	25.23	0.17	-0.750			
0.3002	19210.04	3.7440	3.7442	-0.8452	25.23	0.17	-0.750			
0.3027	19372.25	3.7410	3.7409	-0.8649	25.23	0.17	-0.750			
0.3053	19538.72	3.7380	3.7378	-0.8650	25.23	0.17	-0.750			
0.3079	19703.98	3.7350	3.7350	-0.8694	25.22	0.16	-0.750			
0.3106	19876.63	3.7320	3.7316	-0.8845	25.22	0.16	-0.750			
0.3132	20047.36	3.7290	3.7288	-0.8866	25.22	0.16	-0.750			
0.3159	20216.26	3.7260	3.7258	-0.8934	25.21	0.15	-0.750			
0.3185	20385.57	3.7230	3.7231	-0.8930	25.21	0.15	-0.750			
0.3212	20559.76	3.7200	3.7197	-0.9140	25.21	0.15	-0.750			
0.3240	20734.03	3.7170	3.7172	-0.9210	25.20	0.14	-0.750			
0.3267	20908.48	3.7140	3.7139	-0.9429	25.20	0.14	-0.750			
0.3296	21092.15	3.7110	3.7109	-0.9585	25.19	0.13	-0.750			
0.3325	21277.10	3.7080	3.7079	-0.9926	25.19	0.13	-0.750			
0.3355	21472.93	3.7050	3.7048	-0.9885	25.18	0.12	-0.750			
0.3386	21669.58	3.7020	3.7019	-1.0192	25.18	0.12	-0.750			
0.3417	21866.24	3.6990	3.6987	-1.0124	25.18	0.12	-0.750	0.390	0.547	
0.3447	22059.64	3.6960	3.6957	-1.0120	25.17	0.11	-0.750			
0.3476	22248.86	3.6930	3.6928	-1.0059	25.17	0.11	-0.750			
0.3507	22443.73	3.6900	3.6898	-1.0331	25.17	0.11	-0.750			
0.3538	22642.70	3.6870	3.6869	-1.0593	25.16	0.10	-0.750			
0.3570	22849.93	3.6840	3.6839	-1.0709	25.15	0.09	-0.750			
0.3602	23054.34	3.6810	3.6810	-1.0797	25.14	0.08	-0.750			
0.3635	23265.61	3.6780	3.6778	-1.1113	25.14	0.08	-0.750			
0.3669	23482.77	3.6750	3.6749	-1.1304	25.13	0.07	-0.750			
0.3703	23699.76	3.6720	3.6720	-1.1406	25.13	0.07	-0.750			
0.3737	23915.56	3.6690	3.6692	-1.1720	25.12	0.06	-0.750			
0.3774	24154.27	3.6660	3.6659	-1.1876	25.11	0.05	-0.750			
0.3811	24387.56	3.6630	3.6629	-1.1868	25.10	0.04	-0.750			
0.3845	24611.06	3.6600	3.6598	-1.2007	25.09	0.03	-0.750			
0.3881	24840.69	3.6570	3.6568	-1.2239	25.08	0.02	-0.750			
0.3919	25079.19	3.6540	3.6537	-1.2437	25.07	0.01	-0.750			
0.3956	25317.59	3.6510	3.6509	-1.2635	25.07	0.01	-0.750			
0.3995	25565.87	3.6480	3.6486	-1.3118	25.06	-0.00	-0.750			
0.4035	25823.13	3.6450	3.6449	-1.3222	25.05	-0.01	-0.750			
0.4075	26077.25	3.6420	3.6419	-1.3538	25.05	-0.01	-0.750			
0.4115	26337.30	3.6390	3.6392	-1.3924	25.04	-0.02	-0.750			
0.4159	26616.56	3.6360	3.6355	-1.4042	25.03	-0.03	-0.750			
0.4201	26885.99	3.6330	3.6334	-1.4409	25.03	-0.03	-0.750			
0.4245	27167.70	3.6300	3.6309	-1.4544	25.02	-0.04	-0.750			
0.4289	27449.41	3.6270	3.6265	-1.4771	25.01	-0.05	-0.750			
0.4334	27736.30	3.6240	3.6244	-1.4845	25.01	-0.05	-0.750			
0.4377	28010.48	3.6210	3.6211	-1.4964	25.00	-0.06	-0.750			
0.4423	28307.24	3.6180	3.6188	-1.5757	24.99	-0.07	-0.750			
0.4471	28614.66	3.6150	3.6145	-1.5561	24.98	-0.08	-0.750			
0.4517	28910.97	3.6120	3.6116	-1.6093	24.98	-0.08	-0.750			
0.4566	29225.03	3.6090	3.6086	-1.6299	24.97	-0.09	-0.750			
0.4617	29545.76	3.6060	3.6068	-1.6882	24.96	-0.10	-0.750			
0.4666	29861.73	3.6030	3.6026	-1.7051	24.96	-0.10	-0.750			
0.4718	30193.17	3.6000	3.5995	-1.7086	24.95	-0.11	-0.750			
0.4771	30531.52	3.5970	3.5966	-1.8061	24.95	-0.11	-0.750			
0.4825	30879.19	3.5940	3.5936	-1.7934	24.94	-0.12	-0.750			
0.4882	31245.55	3.5910	3.5907	-1.8174	24.94	-0.12	-0.750			
0.4936	31593.04	3.5880	3.5879	-1.8572	24.93	-0.13	-0.750			
0.4991	31945.48	3.5850	3.5855	-1.8555	24.92	-0.14	-0.750			
0.5047	32299.73	3.5820	3.5818	-1.8896	24.92	-0.14	-0.750			
0.5104	32664.84	3.5790	3.5790	-1.9089	24.92	-0.14	-0.750			
0.5163	33043.34	3.5760	3.5761	-1.9920	24.92	-0.14	-0.750			
0.5222	33423.26	3.5730	3.5734	-1.9987	24.92	-0.14	-0.750			
0.5282	33806.70	3.5700	3.5697	-2.0013	24.92	-0.14	-0.750			
0.5345	34208.06	3.5670	3.5666	-1.9606	24.91	-0.15	-0.750			
0.5402	34574.49	3.5640	3.5645	-1.9567	24.91	-0.15	-0.750			
0.5463	34963.42	3.5610	3.5610	-1.9793	24.92	-0.14	-0.750			
0.5522	35337.72	3.5580	3.5574	-1.9672	24.92	-0.14	-0.750			
0.5581	35715.47	3.5550	3.5548	-2.0712	24.92	-0.14	-0.750			
0.5645	36129.21	3.5520	3.5515	-2.0347	24.92	-0.14	-0.750			
0.5706	36517.20	3.5490	3.5487	-1.9638	24.92	-0.14	-0.750			
0.5764	36888.67	3.5460	3.5457	-1.9329	24.92	-0.14	-0.750			
0.5821	37251.25	3.5430	3.5429	-1.9259	24.92	-0.14	-0.750			
0.5877	37612.84	3.5400	3.5400	-1.9156	24.92	-0.14	-0.750			
0.5934	37979.53	3.5370	3.5370	-1.9443	24.93	-0.13	-0.750			
0.5996	38376.58	3.5340	3.5340	-1.9300	24.94	-0.12	-0.750			
0.6054	38744.12	3.5310	3.5311	-1.8723	24.95	-0.11	-0.750			
0.6109	39094.62	3.5280	3.5283	-1.8357	24.96	-0.10	-0.750			
0.6164	39447.26	3.5250	3.5253	-1.8194	24.97	-0.09	-0.750			
0.6216	39784.83	3.5220	3.5224	-1.7812	24.98	-0.08	-0.750			
0.6268	40115.12	3.5190	3.5186	-1.7279	24.99	-0.07	-0.750			
0.6320	40448.86	3.5160	3.5156	-1.7181	25.00	-0.06	-0.750			
0.6371	40777.50	3.5130	3.5127	-1.6596	25.02	-0.04	-0.750			
0.6420	41087.20	3.5100	3.5097	-1.5979	25.03	-0.03	-0.750			
0.6466	41385.55	3.5070	3.5066	-1.5454	25.04	-0.02	-0.750			
0.6512	41678.60	3.5040	3.5038	-1.4909	25.06	-0.00	-0.750			
0.6556	41961.41	3.5010	3.5006	-1.4484	25.07	0.01	-0.750			
0.6600	42238.80	3.4980	3.4981	-1.4213	25.08	0.02	-0.750			
0.6644	42519.81	3.4950	3.4949	-1.4019	25.10	0.04	-0.750			
0.6683	42773.85	3.4920	3.4919	-1.3343	25.12	0.06	-0.750			
0.6723	43025.62	3.4890	3.4891	-1.2946	25.13	0.07	-0.750			
0.6761	43272.93	3.4860	3.4861	-1.2664	25.15	0.09	-0.750			
0.6799	43516.19	3.4830	3.4829	-1.2191	25.16	0.10	-0.750			
0.6835	43744.47	3.4800	3.4800	-1.1558	25.18	0.12	-0.750			
