Ah_balance (normalized)	Ah_balance (mAh)	Voltage - fit (V)	Voltage -  interpolate (V)	dQ/dV (1/V)	Temperature (°C)	Temperature - diff (°C)	Current (C)	R_DC 0ms (mOhm)	R_DC 50ms (mOhm)	R_DC 50 ms PEC (mOhm)
0.0005	32.60	4.1640	4.1637	-0.1535	25.28	0.01	-0.750			
0.0011	67.49	4.1610	4.1609	-0.2031	25.28	0.01	-0.750			
0.0017	110.73	4.1580	4.1581	-0.2516	25.28	0.01	-0.750			
0.0026	163.85	4.1550	4.1549	-0.3001	25.27	0.00	-0.750			
0.0035	226.76	4.1520	4.1520	-0.3423	25.27	-0.00	-0.750			
0.0047	298.24	4.1490	4.1490	-0.3855	25.26	-0.01	-0.750			
0.0059	376.54	4.1460	4.1461	-0.4253	25.26	-0.01	-0.750			
0.0072	462.31	4.1430	4.1431	-0.4651	25.25	-0.02	-0.750			
0.0087	554.19	4.1400	4.1400	-0.5060	25.25	-0.02	-0.750			
0.0102	654.38	4.1370	4.1369	-0.5414	25.24	-0.03	-0.750			
0.0119	764.52	4.1340	4.1340	-0.5730	25.24	-0.03	-0.750			
0.0137	878.50	4.1310	4.1309	-0.6064	25.23	-0.04	-0.750			
0.0156	1001.15	4.1280	4.1284	-0.6309	25.22	-0.05	-0.750			
0.0176	1125.03	4.1250	4.1249	-0.6524	25.22	-0.05	-0.750			
0.0195	1251.17	4.1220	4.1219	-0.6735	25.21	-0.06	-0.750			
0.0216	1382.85	4.1190	4.1191	-0.6892	25.21	-0.06	-0.750			
0.0237	1518.39	4.1160	4.1158	-0.7042	25.20	-0.07	-0.750			
0.0259	1656.06	4.1130	4.1130	-0.7144	25.20	-0.07	-0.750			
0.0281	1795.22	4.1100	4.1101	-0.7164	25.19	-0.08	-0.750			
0.0302	1933.54	4.1070	4.1070	-0.7260	25.19	-0.08	-0.750			
0.0324	2072.46	4.1040	4.1040	-0.7251	25.18	-0.09	-0.750			
0.0345	2210.37	4.1010	4.1009	-0.7355	25.18	-0.09	-0.750			
0.0368	2352.02	4.0980	4.0981	-0.7481	25.18	-0.09	-0.750			
0.0390	2496.78	4.0950	4.0950	-0.7589	25.17	-0.10	-0.750			
0.0413	2645.89	4.0920	4.0920	-0.7680	25.17	-0.10	-0.750			
0.0437	2796.25	4.0890	4.0890	-0.7678	25.17	-0.10	-0.750			
0.0460	2942.56	4.0860	4.0861	-0.7723	25.17	-0.10	-0.750			
0.0483	3093.16	4.0830	4.0830	-0.7716	25.17	-0.10	-0.750			
0.0506	3238.67	4.0800	4.0799	-0.7719	25.17	-0.10	-0.750			
0.0529	3386.82	4.0770	4.0770	-0.7739	25.17	-0.10	-0.750			
0.0552	3534.94	4.0740	4.0740	-0.7778	25.17	-0.10	-0.750			
0.0576	3684.17	4.0710	4.0709	-0.7872	25.17	-0.10	-0.750			
0.0600	3837.79	4.0680	4.0680	-0.7918	25.17	-0.10	-0.750			
0.0623	3989.92	4.0650	4.0649	-0.7955	25.17	-0.10	-0.750			
0.0648	4144.10	4.0620	4.0619	-0.7958	25.17	-0.10	-0.750			
0.0671	4295.77	4.0590	4.0592	-0.7914	25.17	-0.10	-0.750			
0.0695	4447.88	4.0560	4.0559	-0.7960	25.17	-0.10	-0.750			
0.0719	4599.36	4.0530	4.0532	-0.7993	25.17	-0.10	-0.750			
0.0742	4751.79	4.0500	4.0499	-0.7976	25.17	-0.10	-0.750			
0.0767	4907.08	4.0470	4.0470	-0.8032	25.17	-0.10	-0.750			
0.0791	5061.57	4.0440	4.0441	-0.8017	25.17	-0.10	-0.750			
0.0815	5213.43	4.0410	4.0412	-0.8104	25.17	-0.10	-0.750			
0.0839	5370.58	4.0380	4.0378	-0.8077	25.17	-0.10	-0.750			
0.0863	5524.19	4.0350	4.0351	-0.8068	25.16	-0.11	-0.750			
0.0888	5680.08	4.0320	4.0319	-0.8107	25.16	-0.11	-0.750			
0.0912	5837.71	4.0290	4.0291	-0.8148	25.16	-0.11	-0.750			
0.0937	5993.88	4.0260	4.0259	-0.8145	25.16	-0.11	-0.750			
0.0961	6150.96	4.0230	4.0230	-0.8132	25.16	-0.11	-0.750			
0.0985	6304.34	4.0200	4.0200	-0.8067	25.16	-0.11	-0.750			
0.1010	6462.78	4.0170	4.0170	-0.8166	25.16	-0.11	-0.750			
0.1034	6617.44	4.0140	4.0143	-0.8148	25.16	-0.11	-0.750			
0.1058	6772.87	4.0110	4.0109	-0.8186	25.16	-0.11	-0.750			
0.1083	6930.84	4.0080	4.0080	-0.8249	25.16	-0.11	-0.750			
0.1108	7089.57	4.0050	4.0049	-0.8250	25.17	-0.10	-0.750			
0.1133	7252.26	4.0020	4.0020	-0.8384	25.17	-0.10	-0.750			
0.1158	7411.52	3.9990	3.9992	-0.8330	25.17	-0.10	-0.750			
0.1183	7572.47	3.9960	3.9959	-0.8280	25.17	-0.10	-0.750			
0.1208	7730.94	3.9930	3.9929	-0.8323	25.17	-0.10	-0.750			
0.1232	7887.98	3.9900	3.9901	-0.8309	25.17	-0.10	-0.750			
0.1258	8048.82	3.9870	3.9870	-0.8408	25.17	-0.10	-0.750			
0.1283	8210.96	3.9840	3.9843	-0.8370	25.17	-0.10	-0.750			
0.1308	8371.56	3.9810	3.9809	-0.8381	25.17	-0.10	-0.750			
0.1333	8533.56	3.9780	3.9781	-0.8431	25.17	-0.10	-0.750			
0.1359	8697.13	3.9750	3.9750	-0.8416	25.18	-0.09	-0.750			
0.1384	8858.33	3.9720	3.9718	-0.8435	25.18	-0.09	-0.750			
0.1409	9018.52	3.9690	3.9692	-0.8454	25.18	-0.09	-0.750			
0.1434	9179.56	3.9660	3.9661	-0.8472	25.18	-0.09	-0.750			
0.1460	9343.73	3.9630	3.9628	-0.8519	25.18	-0.09	-0.750			
0.1485	9506.24	3.9600	3.9600	-0.8514	25.18	-0.09	-0.750			
0.1511	9671.63	3.9570	3.9571	-0.8576	25.18	-0.09	-0.750			
0.1537	9836.24	3.9540	3.9540	-0.8586	25.18	-0.09	-0.750			
0.1562	9999.75	3.9510	3.9509	-0.8630	25.18	-0.09	-0.750			
0.1589	10166.84	3.9480	3.9481	-0.8622	25.19	-0.08	-0.750			
0.1614	10332.65	3.9450	3.9449	-0.8664	25.19	-0.08	-0.750			
0.1641	10499.74	3.9420	3.9420	-0.8684	25.20	-0.07	-0.750			
0.1667	10667.55	3.9390	3.9390	-0.8676	25.20	-0.07	-0.750			
0.1693	10833.34	3.9360	3.9360	-0.8748	25.20	-0.07	-0.750			
0.1719	11002.73	3.9330	3.9329	-0.8726	25.20	-0.07	-0.750			
0.1745	11169.05	3.9300	3.9300	-0.8706	25.20	-0.07	-0.750			
0.1771	11336.84	3.9270	3.9269	-0.8811	25.20	-0.07	-0.750			
0.1798	11505.87	3.9240	3.9239	-0.8759	25.20	-0.07	-0.750			
0.1824	11674.56	3.9210	3.9209	-0.8808	25.21	-0.06	-0.750			
0.1850	11842.19	3.9180	3.9180	-0.8848	25.21	-0.06	-0.750			
0.1877	12010.73	3.9150	3.9150	-0.8861	25.22	-0.05	-0.750			
0.1904	12186.64	3.9120	3.9120	-0.8983	25.22	-0.05	-0.750			
0.1931	12357.82	3.9090	3.9090	-0.8983	25.22	-0.05	-0.750			
0.1958	12530.32	3.9060	3.9061	-0.8968	25.22	-0.05	-0.750			
0.1985	12705.41	3.9030	3.9029	-0.9005	25.23	-0.04	-0.750			
0.2012	12875.69	3.9000	3.8999	-0.8950	25.23	-0.04	-0.750			
0.2039	13047.49	3.8970	3.8973	-0.8967	25.23	-0.04	-0.750			
0.2066	13219.82	3.8940	3.8939	-0.9029	25.24	-0.03	-0.750			
0.2093	13394.84	3.8910	3.8909	-0.9051	25.24	-0.03	-0.750			
0.2120	13568.69	3.8880	3.8879	-0.9012	25.24	-0.03	-0.750			
0.2147	13741.60	3.8850	3.8850	-0.9029	25.25	-0.02	-0.750			
0.2174	13915.10	3.8820	3.8820	-0.9062	25.25	-0.02	-0.750			
0.2201	14088.74	3.8790	3.8789	-0.9058	25.25	-0.02	-0.750			
0.2228	14260.15	3.8760	3.8760	-0.9057	25.25	-0.02	-0.750			
0.2256	14435.35	3.8730	3.8730	-0.9076	25.25	-0.02	-0.750			
0.2283	14614.08	3.8700	3.8701	-0.9095	25.25	-0.02	-0.750			
0.2310	14786.30	3.8670	3.8671	-0.9189	25.25	-0.02	-0.750			
0.2338	14961.84	3.8640	3.8641	-0.9167	25.26	-0.01	-0.750			
0.2365	15138.41	3.8610	3.8608	-0.9189	25.26	-0.01	-0.750			
0.2393	15315.44	3.8580	3.8579	-0.9203	25.27	-0.00	-0.750			
0.2421	15492.60	3.8550	3.8551	-0.9192	25.27	0.00	-0.750			
0.2449	15672.13	3.8520	3.8519	-0.9284	25.27	0.00	-0.750			
0.2477	15850.83	3.8490	3.8489	-0.9208	25.28	0.01	-0.750			
0.2503	16022.08	3.8460	3.8460	-0.9096	25.28	0.01	-0.750			
0.2531	16199.38	3.8430	3.8429	-0.9223	25.28	0.01	-0.750			
0.2559	16376.16	3.8400	3.8400	-0.9250	25.28	0.01	-0.750			
0.2587	16553.79	3.8370	3.8369	-0.9278	25.29	0.02	-0.750			
0.2614	16732.01	3.8340	3.8340	-0.9288	25.29	0.02	-0.750			
0.2642	16911.66	3.8310	3.8310	-0.9368	25.30	0.03	-0.750			
0.2671	17092.22	3.8280	3.8281	-0.9383	25.30	0.03	-0.750			
0.2699	17272.56	3.8250	3.8250	-0.9416	25.30	0.03	-0.750			
0.2727	17455.13	3.8220	3.8220	-0.9320	25.30	0.03	-0.750			
0.2755	17634.44	3.8190	3.8190	-0.9315	25.30	0.03	-0.750			
0.2783	17812.13	3.8160	3.8164	-0.9329	25.30	0.03	-0.750			
0.2811	17990.87	3.8130	3.8128	-0.9381	25.30	0.03	-0.750			
0.2839	18170.46	3.8100	3.8099	-0.9363	25.31	0.04	-0.750			
0.2867	18349.96	3.8070	3.8070	-0.9361	25.31	0.04	-0.750			
0.2896	18533.09	3.8040	3.8041	-0.9452	25.32	0.05	-0.750			
0.2924	18713.76	3.8010	3.8009	-0.9501	25.32	0.05	-0.750			
0.2952	18893.75	3.7980	3.7980	-0.9448	25.33	0.06	-0.750			
0.2981	19075.22	3.7950	3.7950	-0.9403	25.33	0.06	-0.750			
0.3008	19253.63	3.7920	3.7919	-0.9398	25.34	0.07	-0.750			
0.3037	19438.01	3.7890	3.7893	-0.9464	25.34	0.07	-0.750			
0.3066	19619.49	3.7860	3.7858	-0.9526	25.35	0.08	-0.750			
0.3094	19802.80	3.7830	3.7830	-0.9537	25.35	0.08	-0.750			
0.3123	19986.40	3.7800	3.7798	-0.9491	25.35	0.08	-0.750			
0.3152	20170.24	3.7770	3.7773	-0.9506	25.36	0.09	-0.750			
0.3180	20351.44	3.7740	3.7739	-0.9629	25.36	0.09	-0.750			
0.3209	20534.64	3.7710	3.7708	-0.9618	25.36	0.09	-0.750			
0.3238	20720.17	3.7680	3.7679	-0.9623	25.37	0.10	-0.750			
0.3266	20902.93	3.7650	3.7649	-0.9607	25.37	0.10	-0.750			
0.3296	21093.10	3.7620	3.7621	-0.9698	25.37	0.10	-0.750			
0.3325	21280.26	3.7590	3.7589	-0.9756	25.37	0.10	-0.750			
0.3354	21466.53	3.7560	3.7560	-0.9706	25.38	0.11	-0.750			
0.3383	21649.48	3.7530	3.7530	-0.9627	25.38	0.11	-0.750			
0.3412	21837.14	3.7500	3.7502	-0.9730	25.38	0.11	-0.750			
0.3442	22025.72	3.7470	3.7469	-0.9803	25.39	0.12	-0.750			
0.3471	22213.27	3.7440	3.7440	-0.9799	25.39	0.12	-0.750			
0.3500	22401.65	3.7410	3.7409	-0.9796	25.39	0.12	-0.750			
0.3530	22590.75	3.7380	3.7383	-0.9865	25.40	0.13	-0.750			
0.3560	22780.99	3.7350	3.7349	-0.9981	25.40	0.13	-0.750			
0.3590	22973.67	3.7320	3.7319	-0.9967	25.40	0.13	-0.750			
0.3619	23163.12	3.7290	3.7289	-1.0012	25.41	0.14	-0.750			
0.3650	23358.03	3.7260	3.7259	-1.0094	25.41	0.14	-0.750			
0.3680	23549.96	3.7230	3.7229	-1.0186	25.41	0.14	-0.750			
0.3711	23747.45	3.7200	3.7198	-1.0219	25.42	0.15	-0.750			
0.3741	23942.14	3.7170	3.7170	-1.0307	25.42	0.15	-0.750			
0.3772	24138.94	3.7140	3.7140	-1.0385	25.43	0.16	-0.750			
0.3804	24344.56	3.7110	3.7109	-1.0589	25.43	0.16	-0.750			
0.3836	24547.33	3.7080	3.7083	-1.0650	25.44	0.17	-0.750	0.384	0.483	
0.3868	24752.89	3.7050	3.7049	-1.0717	25.44	0.17	-0.750			
0.3899	24955.34	3.7020	3.7018	-1.0833	25.45	0.18	-0.750			
0.3932	25167.94	3.6990	3.6990	-1.1187	25.45	0.18	-0.750			
0.3966	25384.25	3.6960	3.6958	-1.1301	25.45	0.18	-0.750			
0.4001	25605.11	3.6930	3.6929	-1.1505	25.45	0.18	-0.750			
0.4036	25830.05	3.6900	3.6903	-1.1744	25.45	0.18	-0.750			
0.4071	26054.69	3.6870	3.6870	-1.1909	25.45	0.18	-0.750			
0.4107	26285.35	3.6840	3.6839	-1.2069	25.45	0.18	-0.750			
0.4142	26509.67	3.6810	3.6810	-1.2377	25.45	0.18	-0.750			
0.4181	26756.79	3.6780	3.6778	-1.2642	25.45	0.18	-0.750			
0.4219	27002.38	3.6750	3.6750	-1.2890	25.45	0.18	-0.750			
0.4258	27250.18	3.6720	3.6720	-1.3293	25.45	0.18	-0.750			
0.4299	27511.43	3.6690	3.6690	-1.3449	25.45	0.18	-0.750			
0.4339	27771.28	3.6660	3.6658	-1.3804	25.44	0.17	-0.750			
0.4381	28037.58	3.6630	3.6629	-1.4054	25.43	0.16	-0.750			
0.4423	28304.39	3.6600	3.6600	-1.4324	25.43	0.16	-0.750			
0.4467	28585.82	3.6570	3.6570	-1.4850	25.43	0.16	-0.750			
0.4512	28874.70	3.6540	3.6539	-1.5188	25.43	0.16	-0.750			
0.4558	29171.27	3.6510	3.6507	-1.5550	25.42	0.15	-0.750			
0.4606	29477.57	3.6480	3.6478	-1.6192	25.41	0.14	-0.750			
0.4655	29791.09	3.6450	3.6454	-1.6456	25.40	0.13	-0.750			
0.4705	30112.66	3.6420	3.6423	-1.6868	25.40	0.13	-0.750			
0.4756	30438.34	3.6390	3.6389	-1.7134	25.40	0.13	-0.750			
0.4808	30773.99	3.6360	3.6357	-1.7548	25.40	0.13	-0.750			
0.4862	31116.75	3.6330	3.6328	-1.8130	25.39	0.12	-0.750			
0.4918	31472.27	3.6300	3.6300	-1.8596	25.39	0.12	-0.750			
0.4973	31828.46	3.6270	3.6271	-1.9050	25.38	0.11	-0.750			
0.5032	32206.44	3.6240	3.6243	-1.9517	25.37	0.10	-0.750			
0.5092	32585.74	3.6210	3.6213	-1.9847	25.37	0.10	-0.750			
0.5153	32976.17	3.6180	3.6183	-2.0348	25.36	0.09	-0.750			
0.5214	33372.62	3.6150	3.6152	-2.0568	25.36	0.09	-0.750			
0.5275	33762.92	3.6120	3.6121	-2.1005	25.35	0.08	-0.750			
0.5338	34161.31	3.6090	3.6086	-2.1316	25.34	0.07	-0.750			
0.5403	34580.40	3.6060	3.6060	-2.1600	25.32	0.05	-0.750			
0.5469	34998.71	3.6030	3.6031	-2.1758	25.32	0.05	-0.750			
0.5534	35417.74	3.6000	3.6002	-2.1973	25.31	0.04	-0.750			
0.5601	35846.80	3.5970	3.5971	-2.3011	25.30	0.03	-0.750			
0.5669	36282.54	3.5940	3.5942	-2.3050	25.30	0.03	-0.750			
0.5741	36744.67	3.5910	3.5909	-2.3832	25.30	0.03	-0.750			
0.5813	37205.81	3.5880	3.5882	-2.3745	25.29	0.02	-0.750			
0.5885	37663.32	3.5850	3.5851	-2.3909	25.28	0.01	-0.750			
0.5957	38122.27	3.5820	3.5821	-2.4067	25.28	0.01	-0.750			
0.6029	38584.63	3.5790	3.5786	-2.4319	25.28	0.01	-0.750			
0.6102	39054.50	3.5760	3.5760	-2.4499	25.27	0.00	-0.750			
0.6177	39533.37	3.5730	3.5732	-2.4814	25.27	0.00	-0.750			
0.6255	40030.09	3.5700	3.5700	-2.5057	25.27	0.00	-0.750			
0.6329	40502.57	3.5670	3.5671	-2.5222	25.27	0.00	-0.750			
0.6404	40984.25	3.5640	3.5635	-2.4939	25.27	0.00	-0.750			
0.6479	41462.52	3.5610	3.5607	-2.4741	25.27	0.00	-0.750			
0.6553	41939.90	3.5580	3.5582	-2.4497	25.27	0.00	-0.750			
0.6627	42413.10	3.5550	3.5551	-2.4795	25.27	0.00	-0.750			
0.6700	42879.65	3.5520	3.5521	-2.4132	25.27	0.00	-0.750			
0.6774	43351.59	3.5490	3.5490	-2.3898	25.27	0.00	-0.750			
0.6844	43802.92	3.5460	3.5464	-2.3639	25.27	0.00	-0.750			
0.6916	44260.07	3.5430	3.5432	-2.3282	25.27	0.00	-0.750			
0.6986	44707.93	3.5400	3.5398	-2.3149	25.28	0.01	-0.750			
0.7054	45147.24	3.5370	3.5370	-2.2833	25.28	0.01	-0.750			
0.7121	45573.90	3.5340	3.5337	-2.1904	25.29	0.02	-0.750			
0.7187	45997.62	3.5310	3.5312	-2.1486	25.29	0.02	-0.750			
0.7249	46392.26	3.5280	3.5284	-2.0767	25.30	0.03	-0.750			
0.7311	46787.59	3.5250	3.5247	-2.0302	25.30	0.03	-0.750			
0.7371	47175.53	3.5220	3.5217	-1.9685	25.31	0.04	-0.750			
0.7430	47553.56	3.5190	3.5188	-1.9239	25.33	0.06	-0.750			
0.7487	47916.75	3.5160	3.5157	-1.8830	25.34	0.07	-0.750			
0.7542	48270.21	3.5130	3.5130	-1.8271	25.35	0.08	-0.750			
0.7596	48612.59	3.5100	3.5103	-1.8057	25.37	0.10	-0.750			
0.7649	48956.64	3.5070	3.5071	-1.7783	25.38	0.11	-0.750			
