Ah_balance (normalized)	Ah_balance (mAh)	Voltage - fit (V)	Voltage -  interpolate (V)	dQ/dV (1/V)	Temperature (°C)	Temperature - diff (°C)	Current (C)	R_DC 0ms (mOhm)	R_DC 50ms (mOhm)	R_DC 50 ms PEC (mOhm)
0.0002	14.55	4.1650	4.1643	-0.1174	24.82	0.00	-0.750			
0.0006	39.74	4.1620	4.1618	-0.1566	24.82	0.00	-0.750			
0.0012	74.34	4.1590	4.1589	-0.2046	24.82	0.00	-0.750			
0.0019	118.73	4.1560	4.1565	-0.2499	24.82	0.00	-0.750			
0.0027	171.61	4.1530	4.1529	-0.2928	24.82	-0.00	-0.750			
0.0036	232.35	4.1500	4.1501	-0.3389	24.82	-0.00	-0.750			
0.0047	302.06	4.1470	4.1469	-0.3789	24.82	-0.00	-0.750			
0.0059	379.52	4.1440	4.1441	-0.4220	24.81	-0.01	-0.750			
0.0072	463.69	4.1410	4.1411	-0.4619	24.81	-0.01	-0.750			
0.0087	556.70	4.1380	4.1381	-0.5040	24.81	-0.01	-0.750			
0.0103	659.24	4.1350	4.1349	-0.5392	24.81	-0.01	-0.750			
0.0120	768.01	4.1320	4.1319	-0.5669	24.80	-0.02	-0.750			
0.0138	880.94	4.1290	4.1288	-0.5816	24.80	-0.02	-0.750			
0.0156	996.00	4.1260	4.1260	-0.6064	24.80	-0.02	-0.750			
0.0174	1112.13	4.1230	4.1229	-0.6222	24.80	-0.02	-0.750			
0.0192	1229.96	4.1200	4.1200	-0.6392	24.79	-0.03	-0.750			
0.0212	1354.50	4.1170	4.1170	-0.6626	24.79	-0.03	-0.750			
0.0232	1487.62	4.1140	4.1140	-0.6801	24.79	-0.03	-0.750			
0.0253	1621.28	4.1110	4.1109	-0.6911	24.78	-0.04	-0.750			
0.0275	1758.08	4.1080	4.1081	-0.7044	24.78	-0.04	-0.750			
0.0296	1892.10	4.1050	4.1050	-0.7054	24.78	-0.04	-0.750			
0.0316	2025.41	4.1020	4.1020	-0.7187	24.77	-0.05	-0.750			
0.0338	2165.27	4.0990	4.0990	-0.7250	24.77	-0.05	-0.750			
0.0360	2305.73	4.0960	4.0959	-0.7304	24.77	-0.05	-0.750			
0.0383	2448.15	4.0930	4.0928	-0.7324	24.76	-0.06	-0.750			
0.0405	2590.09	4.0900	4.0899	-0.7401	24.76	-0.06	-0.750			
0.0427	2731.52	4.0870	4.0870	-0.7406	24.76	-0.06	-0.750			
0.0449	2872.85	4.0840	4.0840	-0.7563	24.76	-0.06	-0.750			
0.0472	3020.29	4.0810	4.0809	-0.7476	24.76	-0.06	-0.750			
0.0495	3167.87	4.0780	4.0777	-0.7549	24.76	-0.06	-0.750			
0.0518	3313.82	4.0750	4.0758	-0.7593	24.76	-0.06	-0.750			
0.0540	3459.13	4.0720	4.0718	-0.7566	24.76	-0.06	-0.750			
0.0563	3600.28	4.0690	4.0689	-0.7601	24.76	-0.06	-0.750			
0.0585	3746.61	4.0660	4.0660	-0.7657	24.76	-0.06	-0.750			
0.0609	3894.69	4.0630	4.0630	-0.7773	24.76	-0.06	-0.750			
0.0632	4042.38	4.0600	4.0600	-0.8134	24.76	-0.06	-0.750			
0.0656	4199.51	4.0570	4.0569	-0.8276	24.76	-0.06	-0.750			
0.0682	4363.08	4.0540	4.0537	-0.8406	24.76	-0.06	-0.750			
0.0708	4531.86	4.0510	4.0512	-0.8491	24.76	-0.06	-0.750			
0.0734	4698.11	4.0480	4.0481	-0.8418	24.76	-0.06	-0.750			
0.0760	4862.53	4.0450	4.0449	-0.8282	24.76	-0.06	-0.750			
0.0784	5018.09	4.0420	4.0419	-0.8113	24.76	-0.06	-0.750			
0.0807	5164.44	4.0390	4.0390	-0.7967	24.77	-0.05	-0.750			
0.0831	5316.99	4.0360	4.0360	-0.7948	24.77	-0.05	-0.750			
0.0854	5466.91	4.0330	4.0329	-0.7907	24.77	-0.05	-0.750			
0.0879	5622.61	4.0300	4.0299	-0.7961	24.78	-0.04	-0.750			
0.0902	5774.77	4.0270	4.0269	-0.7968	24.78	-0.04	-0.750			
0.0927	5929.95	4.0240	4.0240	-0.7979	24.79	-0.03	-0.750			
0.0950	6081.59	4.0210	4.0209	-0.7925	24.79	-0.03	-0.750			
0.0974	6230.85	4.0180	4.0181	-0.7918	24.79	-0.03	-0.750			
0.0998	6385.40	4.0150	4.0150	-0.8015	24.80	-0.02	-0.750			
0.1022	6539.05	4.0120	4.0121	-0.8033	24.80	-0.02	-0.750			
0.1046	6693.90	4.0090	4.0090	-0.8055	24.80	-0.02	-0.750			
0.1070	6848.23	4.0060	4.0060	-0.8155	24.81	-0.01	-0.750			
0.1095	7007.51	4.0030	4.0030	-0.8163	24.81	-0.01	-0.750			
0.1120	7165.12	4.0000	3.9999	-0.8143	24.82	-0.00	-0.750			
0.1144	7319.91	3.9970	3.9974	-0.8166	24.82	0.00	-0.750			
0.1168	7477.38	3.9940	3.9938	-0.8173	24.82	0.00	-0.750			
0.1193	7634.74	3.9910	3.9910	-0.8237	24.82	0.00	-0.750			
0.1218	7793.16	3.9880	3.9880	-0.8186	24.83	0.01	-0.750			
0.1243	7952.26	3.9850	3.9850	-0.8246	24.83	0.01	-0.750			
0.1267	8110.31	3.9820	3.9823	-0.8267	24.83	0.01	-0.750			
0.1292	8266.77	3.9790	3.9789	-0.8270	24.83	0.01	-0.750			
0.1316	8423.88	3.9760	3.9759	-0.8309	24.83	0.01	-0.750			
0.1341	8584.48	3.9730	3.9729	-0.8318	24.84	0.02	-0.750			
0.1367	8747.19	3.9700	3.9700	-0.8413	24.84	0.02	-0.750			
0.1392	8909.44	3.9670	3.9672	-0.8394	24.84	0.02	-0.750			
0.1417	9069.98	3.9640	3.9639	-0.8380	24.84	0.02	-0.750			
0.1442	9230.45	3.9610	3.9611	-0.8367	24.85	0.03	-0.750			
0.1467	9388.81	3.9580	3.9580	-0.8338	24.85	0.03	-0.750			
0.1492	9550.59	3.9550	3.9550	-0.8381	24.86	0.04	-0.750			
0.1517	9711.81	3.9520	3.9521	-0.8391	24.86	0.04	-0.750			
0.1542	9871.00	3.9490	3.9490	-0.8421	24.86	0.04	-0.750			
0.1568	10034.89	3.9460	3.9459	-0.8502	24.86	0.04	-0.750			
0.1594	10200.36	3.9430	3.9429	-0.8435	24.86	0.04	-0.750			
0.1619	10361.88	3.9400	3.9400	-0.8445	24.86	0.04	-0.750			
0.1645	10525.06	3.9370	3.9376	-0.8492	24.86	0.04	-0.750			
0.1670	10687.78	3.9340	3.9338	-0.8511	24.86	0.04	-0.750			
0.1695	10849.60	3.9310	3.9309	-0.8571	24.87	0.05	-0.750			
0.1721	11014.89	3.9280	3.9280	-0.8565	24.87	0.05	-0.750			
0.1748	11184.72	3.9250	3.9249	-0.8666	24.88	0.06	-0.750			
0.1773	11350.17	3.9220	3.9222	-0.8636	24.88	0.06	-0.750			
0.1799	11513.75	3.9190	3.9190	-0.8576	24.88	0.06	-0.750			
0.1825	11678.62	3.9160	3.9159	-0.8672	24.88	0.06	-0.750			
0.1851	11843.87	3.9130	3.9130	-0.8626	24.88	0.06	-0.750			
0.1877	12013.96	3.9100	3.9099	-0.8721	24.88	0.06	-0.750			
0.1903	12181.03	3.9070	3.9071	-0.8688	24.88	0.06	-0.750			
0.1929	12348.17	3.9040	3.9040	-0.8772	24.89	0.07	-0.750			
0.1956	12515.64	3.9010	3.9008	-0.8772	24.89	0.07	-0.750			
0.1982	12681.68	3.8980	3.8980	-0.8734	24.89	0.07	-0.750			
0.2009	12854.65	3.8950	3.8951	-0.8821	24.90	0.08	-0.750			
0.2035	13025.38	3.8920	3.8919	-0.8882	24.90	0.08	-0.750			
0.2062	13195.25	3.8890	3.8890	-0.8960	24.91	0.09	-0.750			
0.2089	13366.87	3.8860	3.8859	-0.8901	24.91	0.09	-0.750			
0.2115	13537.41	3.8830	3.8829	-0.8846	24.92	0.10	-0.750			
0.2142	13709.80	3.8800	3.8804	-0.8909	24.92	0.10	-0.750			
0.2169	13879.73	3.8770	3.8769	-0.8928	24.92	0.10	-0.750			
0.2196	14052.48	3.8740	3.8740	-0.8902	24.92	0.10	-0.750			
0.2222	14220.61	3.8710	3.8709	-0.8868	24.93	0.11	-0.750			
0.2249	14391.40	3.8680	3.8680	-0.8897	24.93	0.11	-0.750			
0.2275	14562.81	3.8650	3.8652	-0.8930	24.93	0.11	-0.750			
0.2302	14734.33	3.8620	3.8619	-0.8969	24.93	0.11	-0.750			
0.2329	14905.31	3.8590	3.8589	-0.8952	24.93	0.11	-0.750			
0.2356	15077.19	3.8560	3.8559	-0.8947	24.94	0.12	-0.750			
0.2383	15251.60	3.8530	3.8530	-0.8979	24.94	0.12	-0.750			
0.2410	15422.33	3.8500	3.8499	-0.8990	24.94	0.12	-0.750			
0.2437	15595.48	3.8470	3.8470	-0.9002	24.95	0.13	-0.750			
0.2464	15766.76	3.8440	3.8440	-0.8938	24.95	0.13	-0.750			
0.2490	15938.40	3.8410	3.8410	-0.8931	24.96	0.14	-0.750			
0.2518	16112.28	3.8380	3.8382	-0.8922	24.96	0.14	-0.750			
0.2544	16281.96	3.8350	3.8350	-0.8956	24.96	0.14	-0.750			
0.2571	16454.02	3.8320	3.8320	-0.8945	24.96	0.14	-0.750			
0.2598	16624.69	3.8290	3.8288	-0.8936	24.96	0.14	-0.750			
0.2625	16797.74	3.8260	3.8259	-0.8931	24.96	0.14	-0.750			
0.2652	16969.79	3.8230	3.8233	-0.8932	24.96	0.14	-0.750			
0.2678	17141.22	3.8200	3.8199	-0.9014	24.97	0.15	-0.750			
0.2706	17315.41	3.8170	3.8169	-0.8999	24.97	0.15	-0.750			
0.2732	17486.34	3.8140	3.8139	-0.8918	24.98	0.16	-0.750			
0.2759	17659.67	3.8110	3.8108	-0.8906	24.99	0.17	-0.750			
0.2786	17830.66	3.8080	3.8080	-0.8890	24.99	0.17	-0.750			
0.2813	18000.43	3.8050	3.8050	-0.8872	24.99	0.17	-0.750			
0.2839	18167.22	3.8020	3.8020	-0.8807	25.00	0.18	-0.750			
0.2865	18337.78	3.7990	3.7989	-0.8894	25.00	0.18	-0.750			
0.2892	18506.69	3.7960	3.7961	-0.8888	25.00	0.18	-0.750			
0.2918	18678.00	3.7930	3.7930	-0.8886	25.00	0.18	-0.750			
0.2946	18852.68	3.7900	3.7900	-0.8838	25.01	0.19	-0.750			
0.2972	19020.04	3.7870	3.7870	-0.8827	25.01	0.19	-0.750			
0.2998	19187.13	3.7840	3.7840	-0.8816	25.02	0.20	-0.750			
0.3024	19356.33	3.7810	3.7810	-0.8838	25.02	0.20	-0.750			
0.3051	19524.81	3.7780	3.7780	-0.8899	25.03	0.21	-0.750			
0.3078	19697.34	3.7750	3.7750	-0.8876	25.03	0.21	-0.750			
0.3105	19869.90	3.7720	3.7720	-0.8863	25.03	0.21	-0.750			
0.3132	20042.51	3.7690	3.7689	-0.8872	25.04	0.22	-0.750			
0.3158	20210.58	3.7660	3.7660	-0.8714	25.04	0.22	-0.750			
0.3184	20376.35	3.7630	3.7630	-0.8674	25.05	0.23	-0.750			
0.3210	20541.56	3.7600	3.7600	-0.8641	25.05	0.23	-0.750			
0.3235	20704.76	3.7570	3.7570	-0.8628	25.05	0.23	-0.750			
0.3261	20871.78	3.7540	3.7540	-0.8686	25.06	0.24	-0.750			
0.3287	21037.27	3.7510	3.7510	-0.8749	25.06	0.24	-0.750			
0.3314	21206.41	3.7480	3.7480	-0.8809	25.06	0.24	-0.750			
0.3340	21378.33	3.7450	3.7450	-0.8836	25.07	0.25	-0.750			
0.3367	21547.96	3.7420	3.7420	-0.8829	25.07	0.25	-0.750			
0.3393	21716.65	3.7390	3.7395	-0.8888	25.07	0.25	-0.750			
0.3420	21885.47	3.7360	3.7360	-0.9011	25.07	0.25	-0.750			
0.3447	22059.73	3.7330	3.7329	-0.9048	25.07	0.25	-0.750			
0.3474	22234.12	3.7300	3.7300	-0.9108	25.08	0.26	-0.750			
0.3502	22411.37	3.7270	3.7270	-0.9220	25.08	0.26	-0.750			
0.3530	22589.92	3.7240	3.7239	-0.9275	25.08	0.26	-0.750			
0.3557	22767.15	3.7210	3.7210	-0.9399	25.08	0.26	-0.750			
0.3585	22946.53	3.7180	3.7180	-0.9487	25.08	0.26	-0.750			
0.3614	23127.00	3.7150	3.7150	-0.9641	25.08	0.26	-0.750			
0.3643	23317.62	3.7120	3.7121	-0.9862	25.08	0.26	-0.750			
0.3673	23508.74	3.7090	3.7089	-1.0106	25.08	0.26	-0.750			
0.3705	23710.28	3.7060	3.7059	-1.0090	25.08	0.26	-0.750	0.405	0.502	
0.3736	23911.13	3.7030	3.7028	-0.9972	25.08	0.26	-0.750			
0.3764	24092.74	3.7000	3.7005	-1.0175	25.08	0.26	-0.750			
0.3795	24288.17	3.6970	3.6972	-1.0211	25.08	0.26	-0.750			
0.3825	24479.13	3.6940	3.6935	-1.0322	25.08	0.26	-0.750			
0.3855	24674.33	3.6910	3.6906	-1.0593	25.07	0.25	-0.750			
0.3888	24881.70	3.6880	3.6882	-1.1014	25.07	0.25	-0.750			
0.3922	25100.25	3.6850	3.6850	-1.1412	25.07	0.25	-0.750			
0.3958	25331.61	3.6820	3.6818	-1.1779	25.06	0.24	-0.750			
0.3993	25552.14	3.6790	3.6791	-1.1871	25.06	0.24	-0.750			
0.4029	25784.81	3.6760	3.6760	-1.2393	25.06	0.24	-0.750			
0.4067	26026.74	3.6730	3.6729	-1.2560	25.05	0.23	-0.750			
0.4105	26269.38	3.6700	3.6699	-1.2790	25.05	0.23	-0.750			
0.4144	26518.94	3.6670	3.6676	-1.3314	25.04	0.22	-0.750			
0.4185	26781.95	3.6640	3.6637	-1.3570	25.03	0.21	-0.750			
0.4226	27043.83	3.6610	3.6608	-1.3961	25.02	0.20	-0.750			
0.4268	27316.09	3.6580	3.6588	-1.4131	25.01	0.19	-0.750			
0.4312	27594.33	3.6550	3.6548	-1.4436	25.00	0.18	-0.750			
0.4355	27873.65	3.6520	3.6521	-1.4518	24.99	0.17	-0.750			
0.4397	28142.49	3.6490	3.6492	-1.4821	24.98	0.16	-0.750			
0.4442	28427.15	3.6460	3.6457	-1.5450	24.97	0.15	-0.750			
0.4489	28730.92	3.6430	3.6429	-1.5567	24.96	0.14	-0.750			
0.4536	29028.89	3.6400	3.6398	-1.5932	24.96	0.14	-0.750			
0.4586	29347.78	3.6370	3.6371	-1.6657	24.94	0.12	-0.750			
0.4637	29673.79	3.6340	3.6342	-1.6974	24.93	0.11	-0.750			
0.4688	30003.04	3.6310	3.6312	-1.7250	24.92	0.10	-0.750			
0.4741	30340.61	3.6280	3.6283	-1.7447	24.91	0.09	-0.750			
0.4795	30685.97	3.6250	3.6251	-1.7765	24.90	0.08	-0.750			
0.4849	31033.22	3.6220	3.6221	-1.8145	24.89	0.07	-0.750			
0.4903	31380.82	3.6190	3.6189	-1.8298	24.88	0.06	-0.750			
0.4958	31730.20	3.6160	3.6161	-1.8770	24.88	0.06	-0.750			
0.5015	32097.33	3.6130	3.6134	-1.8950	24.88	0.06	-0.750			
0.5072	32458.09	3.6100	3.6103	-1.9406	24.87	0.05	-0.750			
0.5131	32836.34	3.6070	3.6072	-1.9588	24.86	0.04	-0.750			
0.5189	33210.55	3.6040	3.6040	-1.9870	24.85	0.03	-0.750			
0.5250	33599.50	3.6010	3.6008	-2.0217	24.84	0.02	-0.750			
0.5312	33994.42	3.5980	3.5980	-2.0900	24.84	0.02	-0.750			
0.5376	34404.06	3.5950	3.5952	-2.1127	24.84	0.02	-0.750			
0.5441	34822.38	3.5920	3.5921	-2.2006	24.84	0.02	-0.750			
0.5506	35236.53	3.5890	3.5892	-2.1992	24.83	0.01	-0.750			
0.5570	35651.03	3.5860	3.5857	-2.2115	24.82	-0.00	-0.750			
0.5640	36094.85	3.5830	3.5827	-2.2200	24.80	-0.02	-0.750			
0.5707	36521.75	3.5800	3.5804	-2.2592	24.80	-0.02	-0.750			
0.5774	36953.95	3.5770	3.5774	-2.3325	24.80	-0.02	-0.750			
0.5844	37401.04	3.5740	3.5737	-2.3551	24.79	-0.03	-0.750			
0.5915	37855.49	3.5710	3.5710	-2.3922	24.78	-0.04	-0.750			
0.5989	38330.49	3.5680	3.5676	-2.3686	24.78	-0.04	-0.750			
0.6060	38783.90	3.5650	3.5649	-2.3645	24.78	-0.04	-0.750			
0.6127	39213.59	3.5620	3.5616	-2.3465	24.78	-0.04	-0.750			
0.6199	39673.52	3.5590	3.5594	-2.3462	24.78	-0.04	-0.750			
0.6271	40136.12	3.5560	3.5557	-2.3932	24.78	-0.04	-0.750			
0.6345	40611.01	3.5530	3.5526	-2.3950	24.78	-0.04	-0.750			
0.6417	41065.88	3.5500	3.5503	-2.3624	24.78	-0.04	-0.750			
0.6485	41505.20	3.5470	3.5472	-2.3043	24.78	-0.04	-0.750			
0.6554	41942.96	3.5440	3.5438	-2.2444	24.78	-0.04	-0.750			
0.6619	42363.10	3.5410	3.5409	-2.1884	24.78	-0.04	-0.750			
0.6685	42782.01	3.5380	3.5379	-2.1559	24.79	-0.03	-0.750			
0.6751	43204.97	3.5350	3.5354	-2.0804	24.80	-0.02	-0.750			
0.6813	43604.34	3.5320	3.5319	-2.0346	24.81	-0.01	-0.750			
0.6871	43977.21	3.5290	3.5289	-1.9784	24.82	-0.00	-0.750			
0.6929	44348.57	3.5260	3.5260	-1.8914	24.83	0.01	-0.750			
0.6987	44715.89	3.5230	3.5228	-1.8574	24.83	0.01	-0.750			
0.7041	45063.97	3.5200	3.5201	-1.8030	24.84	0.02	-0.750			
0.7096	45411.46	3.5170	3.5172	-1.7791	24.85	0.03	-0.750			
0.7149	45752.85	3.5140	3.5140	-1.7314	24.86	0.04	-0.750			
0.7201	46084.92	3.5110	3.5112	-1.6665	24.88	0.06	-0.750			
0.7249	46395.92	3.5080	3.5082	-1.5883	24.89	0.07	-0.750			
0.7296	46694.52	3.5050	3.5050	-1.5147	24.91	0.09	-0.750			
0.7342	46986.65	3.5020	3.5018	-1.3799	24.94	0.12	-0.750			
0.7381	47238.37	3.4990	3.4990	-1.2154	24.95	0.13	-0.750			
