Ah_balance (normalized)	Ah_balance (mAh)	Voltage - fit (V)	Voltage -  interpolate (V)	dQ/dV (1/V)	Temperature (°C)	Temperature - diff (°C)	Current (C)	R_DC 0ms (mOhm)	R_DC 50ms (mOhm)	R_DC 50 ms PEC (mOhm)
0.0001	6.67	4.1670	4.1667	-0.0860	25.11	0.02	-0.750			
0.0005	30.16	4.1640	4.1637	-0.1474	25.10	0.01	-0.750			
0.0010	62.74	4.1610	4.1609	-0.1938	25.10	0.01	-0.750			
0.0016	104.59	4.1580	4.1581	-0.2409	25.10	0.01	-0.750			
0.0024	154.98	4.1550	4.1550	-0.2897	25.10	0.01	-0.750			
0.0034	215.66	4.1520	4.1520	-0.3325	25.10	0.01	-0.750			
0.0044	284.78	4.1490	4.1490	-0.3760	25.09	0.00	-0.750			
0.0057	361.84	4.1460	4.1459	-0.4158	25.09	0.00	-0.750			
0.0070	446.22	4.1430	4.1431	-0.4544	25.09	-0.00	-0.750			
0.0084	537.23	4.1400	4.1400	-0.4900	25.09	-0.00	-0.750			
0.0099	634.69	4.1370	4.1370	-0.5246	25.08	-0.01	-0.750			
0.0115	737.77	4.1340	4.1341	-0.5582	25.08	-0.01	-0.750			
0.0133	849.84	4.1310	4.1309	-0.5910	25.07	-0.02	-0.750			
0.0151	967.87	4.1280	4.1280	-0.6184	25.07	-0.02	-0.750			
0.0170	1090.29	4.1250	4.1249	-0.6418	25.06	-0.03	-0.750			
0.0190	1217.53	4.1220	4.1223	-0.6598	25.06	-0.03	-0.750			
0.0210	1346.84	4.1190	4.1190	-0.6716	25.06	-0.03	-0.750			
0.0231	1476.42	4.1160	4.1160	-0.6846	25.05	-0.04	-0.750			
0.0251	1609.15	4.1130	4.1129	-0.6924	25.05	-0.04	-0.750			
0.0272	1743.24	4.1100	4.1100	-0.7006	25.05	-0.04	-0.750			
0.0293	1877.47	4.1070	4.1069	-0.7098	25.04	-0.05	-0.750			
0.0315	2015.54	4.1040	4.1044	-0.7190	25.04	-0.05	-0.750			
0.0337	2154.93	4.1010	4.1010	-0.7266	25.04	-0.05	-0.750			
0.0358	2294.27	4.0980	4.0979	-0.7381	25.03	-0.06	-0.750			
0.0381	2437.95	4.0950	4.0950	-0.7392	25.03	-0.06	-0.750			
0.0403	2581.20	4.0920	4.0919	-0.7458	25.03	-0.06	-0.750			
0.0426	2724.69	4.0890	4.0889	-0.7454	25.02	-0.07	-0.750			
0.0448	2867.17	4.0860	4.0860	-0.7476	25.02	-0.07	-0.750			
0.0470	3010.57	4.0830	4.0830	-0.7552	25.02	-0.07	-0.750			
0.0493	3155.15	4.0800	4.0800	-0.7596	25.02	-0.07	-0.750			
0.0516	3300.27	4.0770	4.0770	-0.7606	25.02	-0.07	-0.750			
0.0539	3450.60	4.0740	4.0740	-0.7712	25.02	-0.07	-0.750			
0.0563	3600.07	4.0710	4.0711	-0.7708	25.02	-0.07	-0.750			
0.0586	3749.06	4.0680	4.0680	-0.7698	25.02	-0.07	-0.750			
0.0608	3894.28	4.0650	4.0651	-0.7740	25.02	-0.07	-0.750			
0.0632	4043.31	4.0620	4.0620	-0.7769	25.02	-0.07	-0.750			
0.0655	4192.87	4.0590	4.0589	-0.7784	25.02	-0.07	-0.750			
0.0679	4343.49	4.0560	4.0560	-0.7813	25.02	-0.07	-0.750			
0.0702	4492.77	4.0530	4.0530	-0.7852	25.02	-0.07	-0.750			
0.0726	4643.84	4.0500	4.0500	-0.7939	25.02	-0.07	-0.750			
0.0750	4798.71	4.0470	4.0469	-0.7862	25.02	-0.07	-0.750			
0.0773	4947.44	4.0440	4.0440	-0.7806	25.03	-0.06	-0.750			
0.0797	5099.66	4.0410	4.0409	-0.7887	25.03	-0.06	-0.750			
0.0820	5250.52	4.0380	4.0382	-0.7893	25.03	-0.06	-0.750			
0.0844	5399.89	4.0350	4.0348	-0.7966	25.03	-0.06	-0.750			
0.0867	5551.74	4.0320	4.0320	-0.7960	25.03	-0.06	-0.750			
0.0892	5706.41	4.0290	4.0290	-0.7932	25.03	-0.06	-0.750			
0.0916	5862.75	4.0260	4.0260	-0.8048	25.03	-0.06	-0.750			
0.0940	6017.52	4.0230	4.0232	-0.8012	25.03	-0.06	-0.750			
0.0964	6170.38	4.0200	4.0200	-0.7982	25.03	-0.06	-0.750			
0.0988	6321.20	4.0170	4.0169	-0.8032	25.03	-0.06	-0.750			
0.1012	6475.31	4.0140	4.0140	-0.8073	25.04	-0.05	-0.750			
0.1036	6631.85	4.0110	4.0109	-0.8208	25.04	-0.05	-0.750			
0.1061	6790.12	4.0080	4.0082	-0.8275	25.04	-0.05	-0.750			
0.1086	6951.36	4.0050	4.0049	-0.8277	25.04	-0.05	-0.750			
0.1111	7111.55	4.0020	4.0020	-0.8355	25.04	-0.05	-0.750			
0.1136	7272.91	3.9990	3.9990	-0.8327	25.04	-0.05	-0.750			
0.1161	7432.44	3.9960	3.9960	-0.8238	25.04	-0.05	-0.750			
0.1186	7591.96	3.9930	3.9931	-0.8261	25.04	-0.05	-0.750			
0.1211	7748.66	3.9900	3.9900	-0.8230	25.04	-0.05	-0.750			
0.1235	7905.59	3.9870	3.9869	-0.8216	25.04	-0.05	-0.750			
0.1260	8063.30	3.9840	3.9840	-0.8216	25.05	-0.04	-0.750			
0.1284	8220.11	3.9810	3.9811	-0.8193	25.05	-0.04	-0.750			
0.1309	8379.88	3.9780	3.9780	-0.8265	25.05	-0.04	-0.750			
0.1334	8538.46	3.9750	3.9750	-0.8285	25.05	-0.04	-0.750			
0.1359	8695.59	3.9720	3.9720	-0.8307	25.05	-0.04	-0.750			
0.1384	8856.53	3.9690	3.9690	-0.8367	25.06	-0.03	-0.750			
0.1409	9018.78	3.9660	3.9659	-0.8383	25.06	-0.03	-0.750			
0.1434	9180.20	3.9630	3.9631	-0.8440	25.06	-0.03	-0.750			
0.1460	9342.53	3.9600	3.9600	-0.8477	25.06	-0.03	-0.750			
0.1485	9506.01	3.9570	3.9570	-0.8522	25.06	-0.03	-0.750			
0.1511	9670.76	3.9540	3.9539	-0.8529	25.07	-0.02	-0.750			
0.1537	9834.51	3.9510	3.9511	-0.8492	25.07	-0.02	-0.750			
0.1562	9999.25	3.9480	3.9483	-0.8546	25.07	-0.02	-0.750			
0.1588	10163.10	3.9450	3.9449	-0.8528	25.07	-0.02	-0.750			
0.1613	10325.68	3.9420	3.9420	-0.8490	25.07	-0.02	-0.750			
0.1639	10488.22	3.9390	3.9390	-0.8502	25.08	-0.01	-0.750			
0.1664	10652.41	3.9360	3.9360	-0.8582	25.08	-0.01	-0.750			
0.1690	10816.24	3.9330	3.9331	-0.8607	25.08	-0.01	-0.750			
0.1716	10981.54	3.9300	3.9299	-0.8676	25.08	-0.01	-0.750			
0.1742	11148.30	3.9270	3.9270	-0.8688	25.08	-0.01	-0.750			
0.1768	11317.07	3.9240	3.9240	-0.8725	25.09	-0.00	-0.750			
0.1795	11488.24	3.9210	3.9210	-0.8733	25.09	-0.00	-0.750			
0.1821	11654.29	3.9180	3.9181	-0.8675	25.09	0.00	-0.750			
0.1847	11818.75	3.9150	3.9150	-0.8676	25.09	0.00	-0.750			
0.1873	11984.54	3.9120	3.9119	-0.8671	25.09	0.00	-0.750			
0.1898	12149.27	3.9090	3.9090	-0.8658	25.10	0.01	-0.750			
0.1925	12317.00	3.9060	3.9060	-0.8707	25.10	0.01	-0.750			
0.1951	12484.70	3.9030	3.9030	-0.8773	25.10	0.01	-0.750			
0.1977	12655.39	3.9000	3.9000	-0.8825	25.10	0.01	-0.750			
0.2004	12824.53	3.8970	3.8970	-0.8819	25.11	0.02	-0.750			
0.2030	12993.57	3.8940	3.8940	-0.8809	25.11	0.02	-0.750			
0.2057	13164.25	3.8910	3.8910	-0.8852	25.11	0.02	-0.750			
0.2083	13332.97	3.8880	3.8879	-0.8884	25.11	0.02	-0.750			
0.2110	13503.70	3.8850	3.8850	-0.8888	25.11	0.02	-0.750			
0.2137	13674.41	3.8820	3.8820	-0.8844	25.12	0.03	-0.750			
0.2163	13844.22	3.8790	3.8790	-0.8872	25.12	0.03	-0.750			
0.2190	14015.49	3.8760	3.8763	-0.8910	25.12	0.03	-0.750			
0.2217	14185.92	3.8730	3.8729	-0.8945	25.12	0.03	-0.750			
0.2243	14357.57	3.8700	3.8699	-0.8944	25.12	0.03	-0.750			
0.2270	14529.86	3.8670	3.8670	-0.8960	25.13	0.04	-0.750			
0.2297	14703.65	3.8640	3.8640	-0.9003	25.13	0.04	-0.750			
0.2325	14877.02	3.8610	3.8611	-0.9004	25.13	0.04	-0.750			
0.2351	15048.48	3.8580	3.8580	-0.8991	25.13	0.04	-0.750			
0.2378	15220.93	3.8550	3.8550	-0.9004	25.14	0.05	-0.750			
0.2405	15393.30	3.8520	3.8520	-0.8990	25.14	0.05	-0.750			
0.2432	15566.76	3.8490	3.8490	-0.9027	25.14	0.05	-0.750			
0.2459	15740.63	3.8460	3.8460	-0.9043	25.15	0.06	-0.750			
0.2487	15915.12	3.8430	3.8429	-0.8990	25.15	0.06	-0.750			
0.2514	16088.05	3.8400	3.8400	-0.8907	25.16	0.07	-0.750			
0.2540	16257.92	3.8370	3.8370	-0.8846	25.16	0.07	-0.750			
0.2567	16428.80	3.8340	3.8342	-0.8683	25.17	0.08	-0.750			
0.2593	16593.47	3.8310	3.8308	-0.8581	25.17	0.08	-0.750			
0.2618	16755.83	3.8280	3.8282	-0.8619	25.17	0.08	-0.750			
0.2644	16920.82	3.8250	3.8247	-0.8638	25.17	0.08	-0.750			
0.2670	17087.16	3.8220	3.8218	-0.8718	25.17	0.08	-0.750			
0.2696	17254.97	3.8190	3.8191	-0.8766	25.17	0.08	-0.750			
0.2723	17424.08	3.8160	3.8159	-0.8826	25.17	0.08	-0.750			
0.2750	17597.00	3.8130	3.8129	-0.8870	25.17	0.08	-0.750			
0.2775	17762.10	3.8100	3.8101	-0.8803	25.17	0.08	-0.750			
0.2803	17936.77	3.8070	3.8069	-0.8946	25.17	0.08	-0.750			
0.2829	18108.17	3.8040	3.8039	-0.8945	25.17	0.08	-0.750			
0.2856	18280.14	3.8010	3.8010	-0.9013	25.17	0.08	-0.750			
0.2884	18455.18	3.7980	3.7980	-0.8993	25.18	0.09	-0.750			
0.2911	18627.77	3.7950	3.7949	-0.8940	25.18	0.09	-0.750			
0.2938	18801.26	3.7920	3.7924	-0.8957	25.18	0.09	-0.750			
0.2964	18970.17	3.7890	3.7890	-0.8918	25.18	0.09	-0.750			
0.2991	19142.87	3.7860	3.7859	-0.8867	25.19	0.10	-0.750			
0.3017	19310.92	3.7830	3.7829	-0.8806	25.19	0.10	-0.750			
0.3044	19480.81	3.7800	3.7800	-0.8850	25.20	0.11	-0.750			
0.3070	19650.20	3.7770	3.7773	-0.8822	25.20	0.11	-0.750			
0.3097	19819.14	3.7740	3.7739	-0.8826	25.20	0.11	-0.750			
0.3123	19988.18	3.7710	3.7710	-0.8801	25.20	0.11	-0.750			
0.3149	20156.16	3.7680	3.7680	-0.8770	25.20	0.11	-0.750			
0.3176	20326.41	3.7650	3.7650	-0.8792	25.20	0.11	-0.750			
0.3202	20494.80	3.7620	3.7620	-0.8757	25.20	0.11	-0.750			
0.3229	20663.09	3.7590	3.7590	-0.8755	25.21	0.12	-0.750			
0.3255	20831.62	3.7560	3.7559	-0.8704	25.21	0.12	-0.750			
0.3281	20997.08	3.7530	3.7530	-0.8719	25.21	0.12	-0.750			
0.3307	21164.42	3.7500	3.7501	-0.8778	25.22	0.13	-0.750			
0.3333	21329.35	3.7470	3.7469	-0.8916	25.22	0.13	-0.750			
0.3360	21502.30	3.7440	3.7440	-0.8908	25.22	0.13	-0.750			
0.3387	21673.79	3.7410	3.7410	-0.8937	25.22	0.13	-0.750			
0.3413	21846.35	3.7380	3.7379	-0.8984	25.22	0.13	-0.750			
0.3441	22021.35	3.7350	3.7355	-0.9053	25.22	0.13	-0.750			
0.3468	22193.20	3.7320	3.7319	-0.9108	25.22	0.13	-0.750			
0.3495	22366.81	3.7290	3.7291	-0.9166	25.23	0.14	-0.750			
0.3522	22543.77	3.7260	3.7258	-0.9277	25.23	0.14	-0.750			
0.3551	22723.90	3.7230	3.7230	-0.9416	25.24	0.15	-0.750			
0.3579	22906.06	3.7200	3.7200	-0.9546	25.24	0.15	-0.750			
0.3608	23092.78	3.7170	3.7169	-0.9754	25.24	0.15	-0.750			
0.3638	23281.01	3.7140	3.7140	-0.9965	25.24	0.15	-0.750			
0.3668	23475.65	3.7110	3.7108	-0.9988	25.24	0.15	-0.750			
0.3698	23668.02	3.7080	3.7080	-1.0184	25.24	0.15	-0.750			
0.3729	23865.61	3.7050	3.7050	-1.0288	25.24	0.15	-0.750	0.394	0.481	
0.3760	24063.11	3.7020	3.7018	-1.0376	25.23	0.14	-0.750			
0.3790	24258.24	3.6990	3.6989	-1.0407	25.23	0.14	-0.750			
0.3822	24462.51	3.6960	3.6963	-1.0730	25.23	0.14	-0.750			
0.3855	24668.85	3.6930	3.6929	-1.0991	25.22	0.13	-0.750			
0.3888	24884.54	3.6900	3.6898	-1.1190	25.22	0.13	-0.750			
0.3921	25093.18	3.6870	3.6871	-1.1450	25.21	0.12	-0.750			
0.3956	25320.85	3.6840	3.6841	-1.1732	25.21	0.12	-0.750			
0.3992	25550.12	3.6810	3.6809	-1.2017	25.21	0.12	-0.750			
0.4029	25784.56	3.6780	3.6779	-1.2222	25.20	0.11	-0.750			
0.4066	26019.62	3.6750	3.6754	-1.2462	25.20	0.11	-0.750			
0.4104	26262.83	3.6720	3.6720	-1.2724	25.19	0.10	-0.750			
0.4142	26510.15	3.6690	3.6689	-1.3016	25.19	0.10	-0.750			
0.4181	26759.05	3.6660	3.6658	-1.3289	25.18	0.09	-0.750			
0.4222	27017.64	3.6630	3.6629	-1.3630	25.17	0.08	-0.750			
0.4262	27277.16	3.6600	3.6600	-1.4027	25.16	0.07	-0.750			
0.4305	27554.95	3.6570	3.6570	-1.4346	25.15	0.06	-0.750			
0.4350	27838.11	3.6540	3.6539	-1.4741	25.14	0.05	-0.750			
0.4394	28119.35	3.6510	3.6507	-1.5190	25.13	0.04	-0.750			
0.4440	28414.48	3.6480	3.6482	-1.5483	25.12	0.03	-0.750			
0.4487	28718.85	3.6450	3.6451	-1.5648	25.11	0.02	-0.750			
0.4535	29021.10	3.6420	3.6420	-1.6138	25.10	0.01	-0.750			
0.4583	29330.24	3.6390	3.6389	-1.6253	25.10	0.01	-0.750			
0.4633	29652.87	3.6360	3.6358	-1.6725	25.08	-0.01	-0.750			
0.4683	29969.80	3.6330	3.6331	-1.6942	25.07	-0.02	-0.750			
0.4734	30297.34	3.6300	3.6298	-1.7209	25.06	-0.03	-0.750			
0.4787	30635.12	3.6270	3.6270	-1.7686	25.05	-0.04	-0.750			
0.4841	30982.89	3.6240	3.6237	-1.7808	25.04	-0.05	-0.750			
0.4894	31320.81	3.6210	3.6208	-1.8268	25.03	-0.06	-0.750			
0.4950	31677.81	3.6180	3.6181	-1.8491	25.02	-0.07	-0.750			
0.5006	32038.66	3.6150	3.6148	-1.8808	25.01	-0.08	-0.750			
0.5063	32400.70	3.6120	3.6121	-1.9157	25.01	-0.08	-0.750			
0.5120	32770.20	3.6090	3.6089	-1.9774	25.00	-0.09	-0.750			
0.5183	33169.19	3.6060	3.6062	-2.0001	24.98	-0.11	-0.750			
0.5243	33555.20	3.6030	3.6029	-2.0312	24.98	-0.11	-0.750			
0.5306	33957.98	3.6000	3.5998	-2.0612	24.98	-0.11	-0.750			
0.5366	34342.91	3.5970	3.5972	-2.0960	24.97	-0.12	-0.750			
0.5430	34752.19	3.5940	3.5943	-2.1423	24.96	-0.13	-0.750			
0.5494	35159.79	3.5910	3.5906	-2.2158	24.96	-0.13	-0.750			
0.5561	35592.23	3.5880	3.5883	-2.2490	24.96	-0.13	-0.750			
0.5630	36033.64	3.5850	3.5847	-2.3018	24.95	-0.14	-0.750			
0.5701	36488.94	3.5820	3.5820	-2.3697	24.94	-0.15	-0.750			
0.5772	36941.69	3.5790	3.5792	-2.2778	24.93	-0.16	-0.750			
0.5839	37372.37	3.5760	3.5761	-2.3108	24.93	-0.16	-0.750			
0.5910	37822.31	3.5730	3.5725	-2.2516	24.92	-0.17	-0.750			
0.5977	38252.37	3.5700	3.5697	-2.2436	24.92	-0.17	-0.750			
0.6043	38673.74	3.5670	3.5671	-2.3136	24.91	-0.18	-0.750			
0.6115	39133.17	3.5640	3.5638	-2.3808	24.91	-0.18	-0.750			
0.6187	39597.97	3.5610	3.5607	-2.4029	24.90	-0.19	-0.750			
0.6263	40086.21	3.5580	3.5580	-2.4553	24.90	-0.19	-0.750			
0.6335	40545.57	3.5550	3.5553	-2.3946	24.90	-0.19	-0.750			
0.6407	41007.97	3.5520	3.5521	-2.3583	24.90	-0.19	-0.750			
0.6477	41453.82	3.5490	3.5488	-2.3185	24.90	-0.19	-0.750			
0.6547	41898.10	3.5460	3.5458	-2.2503	24.90	-0.19	-0.750			
0.6614	42330.97	3.5430	3.5435	-2.1887	24.90	-0.19	-0.750			
0.6678	42738.95	3.5400	3.5399	-2.1238	24.91	-0.18	-0.750			
0.6741	43144.44	3.5370	3.5371	-2.0809	24.91	-0.18	-0.750			
0.6803	43541.88	3.5340	3.5341	-2.0410	24.92	-0.17	-0.750			
0.6865	43937.52	3.5310	3.5313	-2.0436	24.93	-0.16	-0.750			
0.6927	44329.67	3.5280	3.5283	-1.9901	24.94	-0.15	-0.750			
0.6984	44697.65	3.5250	3.5250	-1.9304	24.95	-0.14	-0.750			
0.7043	45074.07	3.5220	3.5219	-1.8996	24.96	-0.13	-0.750			
0.7100	45436.91	3.5190	3.5188	-1.8245	24.97	-0.12	-0.750			
0.7154	45782.86	3.5160	3.5157	-1.7484	24.97	-0.12	-0.750			
0.7205	46114.60	3.5130	3.5128	-1.6774	24.99	-0.10	-0.750			
0.7255	46430.10	3.5100	3.5098	-1.6104	25.01	-0.08	-0.750			
0.7300	46717.76	3.5070	3.5071	-1.5404	25.03	-0.06	-0.750			
0.7343	46997.98	3.5040	3.5040	-1.5074	25.05	-0.04	-0.750			
0.7388	47284.03	3.5010	3.5010	-1.5178	25.06	-0.03	-0.750			
0.7433	47572.15	3.4980	3.4981	-1.4303	25.08	-0.01	-0.750			
