Ah_balance (normalized)	Ah_balance (mAh)	Voltage - fit (V)	Voltage -  interpolate (V)	dQ/dV (1/V)	Temperature (°C)	Temperature - diff (°C)	Current (C)	R_DC 0ms (mOhm)	R_DC 50ms (mOhm)	R_DC 50 ms PEC (mOhm)
0.0003	17.43	4.1660	4.1655	-0.1258	25.26	0.01	-0.750			
0.0007	44.71	4.1630	4.1630	-0.1697	25.26	0.01	-0.750			
0.0013	82.93	4.1600	4.1599	-0.2223	25.26	0.01	-0.750			
0.0021	131.41	4.1570	4.1569	-0.2699	25.26	0.01	-0.750			
0.0029	188.36	4.1540	4.1540	-0.3138	25.26	0.01	-0.750			
0.0040	252.96	4.1510	4.1511	-0.3575	25.25	0.00	-0.750			
0.0051	327.01	4.1480	4.1480	-0.4025	25.25	0.00	-0.750			
0.0064	408.55	4.1450	4.1451	-0.4459	25.25	-0.00	-0.750			
0.0078	498.32	4.1420	4.1419	-0.4833	25.24	-0.01	-0.750			
0.0093	595.21	4.1390	4.1391	-0.5241	25.24	-0.01	-0.750			
0.0109	700.50	4.1360	4.1360	-0.5584	25.24	-0.01	-0.750			
0.0127	812.25	4.1330	4.1329	-0.5866	25.23	-0.02	-0.750			
0.0145	930.04	4.1300	4.1300	-0.6097	25.23	-0.02	-0.750			
0.0164	1049.46	4.1270	4.1269	-0.6282	25.22	-0.03	-0.750			
0.0183	1172.47	4.1240	4.1243	-0.6472	25.22	-0.03	-0.750			
0.0203	1298.44	4.1210	4.1210	-0.6663	25.21	-0.04	-0.750			
0.0223	1427.21	4.1180	4.1179	-0.6787	25.21	-0.04	-0.750			
0.0244	1560.63	4.1150	4.1150	-0.6913	25.20	-0.05	-0.750			
0.0265	1695.44	4.1120	4.1120	-0.7032	25.20	-0.05	-0.750			
0.0286	1831.26	4.1090	4.1090	-0.7113	25.19	-0.06	-0.750			
0.0308	1968.52	4.1060	4.1062	-0.7222	25.19	-0.06	-0.750			
0.0329	2108.08	4.1030	4.1029	-0.7278	25.19	-0.06	-0.750			
0.0351	2247.17	4.1000	4.1000	-0.7376	25.19	-0.06	-0.750			
0.0374	2391.65	4.0970	4.0970	-0.7450	25.19	-0.06	-0.750			
0.0396	2537.35	4.0940	4.0940	-0.7506	25.19	-0.06	-0.750			
0.0419	2680.70	4.0910	4.0910	-0.7547	25.19	-0.06	-0.750			
0.0441	2825.40	4.0880	4.0880	-0.7580	25.19	-0.06	-0.750			
0.0464	2970.22	4.0850	4.0850	-0.7611	25.19	-0.06	-0.750			
0.0487	3117.42	4.0820	4.0820	-0.7657	25.19	-0.06	-0.750			
0.0510	3266.02	4.0790	4.0790	-0.7619	25.19	-0.06	-0.750			
0.0533	3412.56	4.0760	4.0758	-0.7673	25.19	-0.06	-0.750			
0.0556	3559.30	4.0730	4.0734	-0.7707	25.19	-0.06	-0.750			
0.0579	3706.02	4.0700	4.0700	-0.7728	25.19	-0.06	-0.750			
0.0602	3855.00	4.0670	4.0668	-0.7771	25.19	-0.06	-0.750			
0.0626	4005.39	4.0640	4.0640	-0.7818	25.20	-0.05	-0.750			
0.0649	4156.03	4.0610	4.0610	-0.7854	25.20	-0.05	-0.750			
0.0673	4307.81	4.0580	4.0580	-0.7884	25.20	-0.05	-0.750			
0.0697	4458.82	4.0550	4.0549	-0.7837	25.20	-0.05	-0.750			
0.0720	4608.68	4.0520	4.0519	-0.7906	25.20	-0.05	-0.750			
0.0744	4760.11	4.0490	4.0491	-0.7915	25.20	-0.05	-0.750			
0.0768	4912.89	4.0460	4.0460	-0.7949	25.20	-0.05	-0.750			
0.0792	5067.09	4.0430	4.0428	-0.7976	25.20	-0.05	-0.750			
0.0816	5220.74	4.0400	4.0400	-0.7977	25.20	-0.05	-0.750			
0.0839	5371.22	4.0370	4.0371	-0.8041	25.20	-0.05	-0.750			
0.0864	5528.86	4.0340	4.0339	-0.8011	25.20	-0.05	-0.750			
0.0888	5681.86	4.0310	4.0310	-0.7973	25.20	-0.05	-0.750			
0.0912	5836.41	4.0280	4.0280	-0.7998	25.20	-0.05	-0.750			
0.0936	5989.12	4.0250	4.0252	-0.8039	25.20	-0.05	-0.750			
0.0960	6143.61	4.0220	4.0218	-0.8033	25.20	-0.05	-0.750			
0.0984	6296.29	4.0190	4.0190	-0.8053	25.20	-0.05	-0.750			
0.1008	6450.79	4.0160	4.0160	-0.8038	25.21	-0.04	-0.750			
0.1033	6608.74	4.0130	4.0130	-0.8156	25.21	-0.04	-0.750			
0.1057	6765.39	4.0100	4.0101	-0.8166	25.21	-0.04	-0.750			
0.1081	6921.29	4.0070	4.0070	-0.8164	25.21	-0.04	-0.750			
0.1106	7077.64	4.0040	4.0039	-0.8199	25.21	-0.04	-0.750			
0.1131	7236.35	4.0010	4.0010	-0.8203	25.22	-0.03	-0.750			
0.1155	7394.13	3.9980	3.9980	-0.8212	25.22	-0.03	-0.750			
0.1180	7552.16	3.9950	3.9951	-0.8204	25.22	-0.03	-0.750			
0.1204	7708.13	3.9920	3.9920	-0.8211	25.22	-0.03	-0.750			
0.1229	7865.62	3.9890	3.9890	-0.8306	25.22	-0.03	-0.750			
0.1254	8027.03	3.9860	3.9859	-0.8286	25.23	-0.02	-0.750			
0.1279	8186.98	3.9830	3.9828	-0.8349	25.23	-0.02	-0.750			
0.1304	8347.96	3.9800	3.9804	-0.8392	25.23	-0.02	-0.750			
0.1330	8509.29	3.9770	3.9769	-0.8397	25.23	-0.02	-0.750			
0.1355	8670.64	3.9740	3.9739	-0.8412	25.23	-0.02	-0.750			
0.1380	8831.32	3.9710	3.9710	-0.8414	25.24	-0.01	-0.750			
0.1405	8993.74	3.9680	3.9680	-0.8462	25.24	-0.01	-0.750			
0.1431	9156.78	3.9650	3.9651	-0.8456	25.24	-0.01	-0.750			
0.1456	9318.04	3.9620	3.9620	-0.8423	25.24	-0.01	-0.750			
0.1481	9479.53	3.9590	3.9590	-0.8463	25.24	-0.01	-0.750			
0.1507	9642.88	3.9560	3.9559	-0.8460	25.25	-0.00	-0.750			
0.1532	9804.73	3.9530	3.9530	-0.8506	25.25	-0.00	-0.750			
0.1557	9967.79	3.9500	3.9502	-0.8546	25.25	0.00	-0.750			
0.1583	10130.45	3.9470	3.9470	-0.8684	25.25	0.00	-0.750			
0.1609	10300.36	3.9440	3.9439	-0.8638	25.25	0.00	-0.750			
0.1635	10466.72	3.9410	3.9410	-0.8644	25.26	0.01	-0.750			
0.1662	10634.27	3.9380	3.9379	-0.8679	25.26	0.01	-0.750			
0.1688	10800.75	3.9350	3.9352	-0.8664	25.26	0.01	-0.750			
0.1713	10964.86	3.9320	3.9319	-0.8642	25.26	0.01	-0.750			
0.1739	11131.34	3.9290	3.9290	-0.8622	25.26	0.01	-0.750			
0.1765	11296.87	3.9260	3.9260	-0.8704	25.27	0.02	-0.750			
0.1791	11462.83	3.9230	3.9231	-0.8715	25.27	0.02	-0.750			
0.1817	11629.75	3.9200	3.9199	-0.8704	25.27	0.02	-0.750			
0.1843	11796.57	3.9170	3.9170	-0.8764	25.27	0.02	-0.750			
0.1869	11964.74	3.9140	3.9141	-0.8810	25.28	0.03	-0.750			
0.1896	12135.89	3.9110	3.9110	-0.8855	25.28	0.03	-0.750			
0.1923	12307.24	3.9080	3.9079	-0.8914	25.28	0.03	-0.750			
0.1949	12476.78	3.9050	3.9050	-0.8922	25.28	0.03	-0.750			
0.1976	12649.39	3.9020	3.9020	-0.8902	25.28	0.03	-0.750			
0.2003	12821.80	3.8990	3.8989	-0.8884	25.28	0.03	-0.750			
0.2030	12990.94	3.8960	3.8960	-0.8842	25.28	0.03	-0.750			
0.2056	13160.96	3.8930	3.8936	-0.8856	25.28	0.03	-0.750			
0.2083	13330.10	3.8900	3.8900	-0.8892	25.28	0.03	-0.750			
0.2109	13499.56	3.8870	3.8869	-0.8892	25.29	0.04	-0.750			
0.2136	13671.40	3.8840	3.8840	-0.8940	25.29	0.04	-0.750			
0.2163	13845.20	3.8810	3.8809	-0.8980	25.30	0.05	-0.750			
0.2190	14016.60	3.8780	3.8781	-0.8990	25.30	0.05	-0.750			
0.2217	14190.53	3.8750	3.8750	-0.9009	25.31	0.06	-0.750			
0.2244	14363.66	3.8720	3.8719	-0.8995	25.31	0.06	-0.750			
0.2271	14536.12	3.8690	3.8689	-0.8982	25.31	0.06	-0.750			
0.2298	14708.98	3.8660	3.8662	-0.9013	25.32	0.07	-0.750			
0.2325	14880.22	3.8630	3.8629	-0.9100	25.32	0.07	-0.750			
0.2353	15056.54	3.8600	3.8600	-0.9111	25.32	0.07	-0.750			
0.2380	15231.15	3.8570	3.8569	-0.9038	25.32	0.07	-0.750			
0.2407	15405.29	3.8540	3.8539	-0.9040	25.32	0.07	-0.750			
0.2435	15581.64	3.8510	3.8513	-0.9049	25.32	0.07	-0.750			
0.2462	15753.99	3.8480	3.8480	-0.9019	25.33	0.08	-0.750			
0.2488	15925.60	3.8450	3.8449	-0.9008	25.33	0.08	-0.750			
0.2515	16098.00	3.8420	3.8420	-0.9006	25.34	0.09	-0.750			
0.2542	16271.97	3.8390	3.8389	-0.9060	25.35	0.10	-0.750			
0.2570	16445.79	3.8360	3.8361	-0.9076	25.35	0.10	-0.750			
0.2597	16620.20	3.8330	3.8330	-0.9132	25.35	0.10	-0.750			
0.2624	16796.54	3.8300	3.8299	-0.9098	25.35	0.10	-0.750			
0.2652	16971.20	3.8270	3.8270	-0.9092	25.35	0.10	-0.750			
0.2679	17146.17	3.8240	3.8243	-0.9078	25.35	0.10	-0.750			
0.2706	17318.87	3.8210	3.8208	-0.9186	25.35	0.10	-0.750			
0.2734	17496.81	3.8180	3.8180	-0.9109	25.35	0.10	-0.750			
0.2761	17670.84	3.8150	3.8149	-0.9051	25.36	0.11	-0.750			
0.2789	17846.68	3.8120	3.8119	-0.9093	25.36	0.11	-0.750			
0.2816	18020.86	3.8090	3.8089	-0.9069	25.36	0.11	-0.750			
0.2843	18192.69	3.8060	3.8060	-0.9009	25.36	0.11	-0.750			
0.2870	18365.21	3.8030	3.8029	-0.8972	25.36	0.11	-0.750			
0.2896	18532.84	3.8000	3.8000	-0.8987	25.36	0.11	-0.750			
0.2924	18710.66	3.7970	3.7971	-0.9155	25.36	0.11	-0.750			
0.2951	18885.46	3.7940	3.7938	-0.9170	25.36	0.11	-0.750			
0.2979	19062.85	3.7910	3.7910	-0.9148	25.36	0.11	-0.750			
0.3006	19239.57	3.7880	3.7880	-0.9108	25.37	0.12	-0.750			
0.3034	19415.46	3.7850	3.7849	-0.9048	25.37	0.12	-0.750			
0.3061	19588.66	3.7820	3.7821	-0.9025	25.37	0.12	-0.750			
0.3087	19758.88	3.7790	3.7790	-0.8990	25.37	0.12	-0.750			
0.3114	19931.85	3.7760	3.7759	-0.8995	25.37	0.12	-0.750			
0.3141	20104.79	3.7730	3.7730	-0.9002	25.37	0.12	-0.750			
0.3169	20278.47	3.7700	3.7699	-0.9037	25.37	0.12	-0.750			
0.3195	20450.59	3.7670	3.7669	-0.9071	25.37	0.12	-0.750			
0.3223	20625.42	3.7640	3.7639	-0.9076	25.38	0.13	-0.750			
0.3250	20798.82	3.7610	3.7611	-0.9060	25.38	0.13	-0.750			
0.3277	20972.17	3.7580	3.7580	-0.9066	25.39	0.14	-0.750			
0.3304	21148.79	3.7550	3.7552	-0.9144	25.39	0.14	-0.750			
0.3332	21323.16	3.7520	3.7520	-0.9221	25.39	0.14	-0.750			
0.3360	21500.88	3.7490	3.7489	-0.9171	25.39	0.14	-0.750			
0.3387	21677.42	3.7460	3.7459	-0.9141	25.38	0.13	-0.750			
0.3415	21853.74	3.7430	3.7430	-0.9204	25.38	0.13	-0.750			
0.3442	22029.74	3.7400	3.7399	-0.9203	25.38	0.13	-0.750			
0.3469	22204.78	3.7370	3.7369	-0.9329	25.39	0.14	-0.750			
0.3498	22385.30	3.7340	3.7340	-0.9348	25.39	0.14	-0.750			
0.3526	22564.82	3.7310	3.7309	-0.9393	25.40	0.15	-0.750			
0.3555	22749.17	3.7280	3.7284	-0.9529	25.40	0.15	-0.750			
0.3583	22933.17	3.7250	3.7248	-0.9611	25.40	0.15	-0.750			
0.3612	23116.68	3.7220	3.7220	-0.9634	25.40	0.15	-0.750			
0.3640	23297.92	3.7190	3.7190	-0.9773	25.39	0.14	-0.750			
0.3670	23489.29	3.7160	3.7160	-0.9950	25.39	0.14	-0.750			
0.3700	23681.90	3.7130	3.7128	-1.0135	25.39	0.14	-0.750			
0.3731	23878.00	3.7100	3.7099	-1.0232	25.39	0.14	-0.750			
0.3762	24075.26	3.7070	3.7069	-1.0357	25.39	0.14	-0.750	0.395	0.486	
0.3793	24275.67	3.7040	3.7041	-1.0434	25.39	0.14	-0.750			
0.3825	24478.24	3.7010	3.7010	-1.0692	25.39	0.14	-0.750			
0.3857	24683.24	3.6980	3.6980	-1.0782	25.39	0.14	-0.750			
0.3890	24894.47	3.6950	3.6950	-1.1012	25.38	0.13	-0.750			
0.3923	25104.50	3.6920	3.6922	-1.1174	25.38	0.13	-0.750			
0.3957	25323.83	3.6890	3.6889	-1.1466	25.38	0.13	-0.750			
0.3991	25545.09	3.6860	3.6859	-1.1629	25.38	0.13	-0.750			
0.4027	25770.11	3.6830	3.6830	-1.1847	25.38	0.13	-0.750			
0.4062	25996.42	3.6800	3.6801	-1.2049	25.38	0.13	-0.750			
0.4099	26234.62	3.6770	3.6769	-1.2394	25.37	0.12	-0.750			
0.4137	26473.87	3.6740	3.6740	-1.2608	25.37	0.12	-0.750			
0.4174	26716.27	3.6710	3.6710	-1.2992	25.36	0.11	-0.750			
0.4215	26972.94	3.6680	3.6680	-1.3262	25.35	0.10	-0.750			
0.4255	27230.71	3.6650	3.6648	-1.3643	25.35	0.10	-0.750			
0.4296	27496.20	3.6620	3.6622	-1.3934	25.34	0.09	-0.750			
0.4339	27767.95	3.6590	3.6588	-1.4136	25.33	0.08	-0.750			
0.4381	28039.20	3.6560	3.6563	-1.4513	25.33	0.08	-0.750			
0.4425	28322.00	3.6530	3.6530	-1.4810	25.32	0.07	-0.750			
0.4469	28604.64	3.6500	3.6499	-1.5117	25.31	0.06	-0.750			
0.4516	28900.14	3.6470	3.6468	-1.5803	25.30	0.05	-0.750			
0.4563	29205.83	3.6440	3.6441	-1.6457	25.29	0.04	-0.750			
0.4614	29529.10	3.6410	3.6411	-1.7046	25.28	0.03	-0.750			
0.4666	29865.08	3.6380	3.6374	-1.7539	25.27	0.02	-0.750			
0.4720	30206.54	3.6350	3.6352	-1.7740	25.26	0.01	-0.750			
0.4775	30558.33	3.6320	3.6319	-1.8236	25.25	0.00	-0.750			
0.4830	30910.06	3.6290	3.6291	-1.8412	25.24	-0.01	-0.750			
0.4885	31261.27	3.6260	3.6259	-1.8409	25.23	-0.02	-0.750			
0.4940	31615.29	3.6230	3.6231	-1.8745	25.22	-0.03	-0.750			
0.4998	31986.33	3.6200	3.6199	-1.9123	25.21	-0.04	-0.750			
0.5054	32348.77	3.6170	3.6172	-1.9363	25.21	-0.04	-0.750			
0.5113	32723.89	3.6140	3.6141	-1.9593	25.20	-0.05	-0.750			
0.5172	33103.92	3.6110	3.6109	-2.0006	25.19	-0.06	-0.750			
0.5233	33491.72	3.6080	3.6081	-2.0354	25.18	-0.07	-0.750			
0.5295	33885.59	3.6050	3.6050	-2.0719	25.17	-0.08	-0.750			
0.5358	34292.18	3.6020	3.6020	-2.1188	25.16	-0.09	-0.750			
0.5421	34697.20	3.5990	3.5990	-2.1504	25.14	-0.11	-0.750			
0.5487	35116.27	3.5960	3.5960	-2.1873	25.14	-0.11	-0.750			
0.5554	35543.38	3.5930	3.5929	-2.2387	25.14	-0.11	-0.750			
0.5621	35972.43	3.5900	3.5902	-2.2614	25.13	-0.12	-0.750			
0.5690	36413.58	3.5870	3.5870	-2.2827	25.12	-0.13	-0.750			
0.5759	36858.64	3.5840	3.5839	-2.3205	25.11	-0.14	-0.750			
0.5829	37307.68	3.5810	3.5810	-2.3442	25.10	-0.15	-0.750			
0.5899	37754.84	3.5780	3.5782	-2.3639	25.10	-0.15	-0.750			
0.5971	38214.44	3.5750	3.5751	-2.3755	25.10	-0.15	-0.750			
0.6043	38672.44	3.5720	3.5719	-2.3973	25.10	-0.15	-0.750			
0.6114	39131.98	3.5690	3.5689	-2.4240	25.10	-0.15	-0.750			
0.6187	39598.60	3.5660	3.5661	-2.4339	25.10	-0.15	-0.750			
0.6261	40068.60	3.5630	3.5630	-2.4239	25.10	-0.15	-0.750			
0.6334	40537.75	3.5600	3.5600	-2.3964	25.10	-0.15	-0.750			
0.6406	40997.16	3.5570	3.5569	-2.3788	25.10	-0.15	-0.750			
0.6476	41446.99	3.5540	3.5541	-2.3416	25.10	-0.15	-0.750			
0.6546	41894.93	3.5510	3.5510	-2.3226	25.10	-0.15	-0.750			
0.6616	42340.17	3.5480	3.5480	-2.2835	25.11	-0.14	-0.750			
0.6684	42775.28	3.5450	3.5450	-2.2570	25.12	-0.13	-0.750			
0.6750	43202.26	3.5420	3.5421	-2.2204	25.12	-0.13	-0.750			
0.6817	43629.55	3.5390	3.5390	-2.1749	25.12	-0.13	-0.750			
0.6882	44045.94	3.5360	3.5359	-2.1429	25.13	-0.12	-0.750			
0.6946	44452.40	3.5330	3.5331	-2.1019	25.14	-0.11	-0.750			
0.7008	44853.47	3.5300	3.5300	-2.0364	25.16	-0.09	-0.750			
0.7069	45240.70	3.5270	3.5269	-1.9792	25.17	-0.08	-0.750			
0.7127	45612.32	3.5240	3.5241	-1.9018	25.18	-0.07	-0.750			
0.7183	45971.23	3.5210	3.5210	-1.8495	25.18	-0.07	-0.750			
0.7237	46315.03	3.5180	3.5179	-1.7830	25.20	-0.05	-0.750			
0.7290	46654.72	3.5150	3.5149	-1.7196	25.22	-0.03	-0.750			
0.7340	46978.34	3.5120	3.5119	-1.6708	25.23	-0.02	-0.750			
0.7390	47294.33	3.5090	3.5088	-1.6158	25.24	-0.01	-0.750			
0.7437	47599.15	3.5060	3.5060	-1.5604	25.25	0.00	-0.750			
0.7483	47891.49	3.5030	3.5031	-1.4765	25.26	0.01	-0.750			
