Ah_balance (normalized)	Ah_balance (mAh)	Voltage - fit (V)	Voltage -  interpolate (V)	dQ/dV (1/V)	Temperature (°C)	Temperature - diff (°C)	Current (C)	R_DC 0ms (mOhm)	R_DC 50ms (mOhm)	R_DC 50 ms PEC (mOhm)
0.0002	10.32	4.1620	4.1617	-0.1080	24.95	0.01	-0.750			
0.0005	34.81	4.1590	4.1589	-0.1470	24.95	0.01	-0.750			
0.0010	66.72	4.1560	4.1557	-0.1861	24.95	0.01	-0.750			
0.0017	105.91	4.1530	4.1532	-0.2255	24.95	0.01	-0.750			
0.0024	155.29	4.1500	4.1500	-0.2596	24.95	0.01	-0.750			
0.0033	210.72	4.1470	4.1467	-0.2815	24.94	0.00	-0.750			
0.0042	270.27	4.1440	4.1440	-0.3109	24.94	0.00	-0.750			
0.0051	327.69	4.1410	4.1416	-0.3595	24.94	0.00	-0.750			
0.0062	397.35	4.1380	4.1381	-0.4011	24.94	0.00	-0.750			
0.0075	479.15	4.1350	4.1343	-0.4429	24.94	-0.00	-0.750			
0.0089	570.77	4.1320	4.1321	-0.4863	24.94	-0.00	-0.750			
0.0105	671.54	4.1290	4.1292	-0.5196	24.93	-0.01	-0.750			
0.0122	779.70	4.1260	4.1261	-0.5536	24.93	-0.01	-0.750			
0.0139	891.90	4.1230	4.1230	-0.5719	24.93	-0.01	-0.750			
0.0156	1000.77	4.1200	4.1199	-0.5709	24.93	-0.01	-0.750			
0.0174	1113.48	4.1170	4.1171	-0.5818	24.92	-0.02	-0.750			
0.0191	1224.50	4.1140	4.1143	-0.5979	24.92	-0.02	-0.750			
0.0209	1339.32	4.1110	4.1109	-0.6130	24.91	-0.03	-0.750			
0.0228	1458.05	4.1080	4.1078	-0.6264	24.91	-0.03	-0.750			
0.0247	1578.85	4.1050	4.1050	-0.6468	24.91	-0.03	-0.750			
0.0267	1708.67	4.1020	4.1020	-0.6613	24.90	-0.04	-0.750			
0.0287	1839.75	4.0990	4.0989	-0.6678	24.90	-0.04	-0.750			
0.0308	1969.91	4.0960	4.0962	-0.6725	24.89	-0.05	-0.750			
0.0328	2096.94	4.0930	4.0929	-0.6759	24.89	-0.05	-0.750			
0.0348	2225.55	4.0900	4.0899	-0.6788	24.89	-0.05	-0.750			
0.0368	2356.36	4.0870	4.0870	-0.6850	24.89	-0.05	-0.750			
0.0389	2489.33	4.0840	4.0840	-0.6712	24.88	-0.06	-0.750			
0.0409	2620.51	4.0810	4.0812	-0.6810	24.88	-0.06	-0.750			
0.0429	2747.54	4.0780	4.0783	-0.6855	24.88	-0.06	-0.750			
0.0449	2874.35	4.0750	4.0754	-0.6939	24.88	-0.06	-0.750			
0.0470	3008.25	4.0720	4.0710	-0.7086	24.87	-0.07	-0.750			
0.0491	3145.02	4.0690	4.0693	-0.7311	24.87	-0.07	-0.750			
0.0515	3293.13	4.0660	4.0661	-0.7425	24.87	-0.07	-0.750			
0.0539	3448.06	4.0630	4.0628	-0.7682	24.86	-0.08	-0.750			
0.0561	3591.43	4.0600	4.0604	-0.7552	24.86	-0.08	-0.750			
0.0583	3728.75	4.0570	4.0569	-0.7347	24.86	-0.08	-0.750			
0.0605	3870.86	4.0540	4.0540	-0.7349	24.86	-0.08	-0.750			
0.0627	4012.32	4.0510	4.0509	-0.7399	24.87	-0.07	-0.750			
0.0649	4155.12	4.0480	4.0481	-0.7461	24.87	-0.07	-0.750			
0.0672	4299.03	4.0450	4.0449	-0.7430	24.87	-0.07	-0.750			
0.0694	4441.43	4.0420	4.0417	-0.7434	24.87	-0.07	-0.750			
0.0716	4583.21	4.0390	4.0391	-0.7416	24.87	-0.07	-0.750			
0.0738	4723.22	4.0360	4.0359	-0.7432	24.87	-0.07	-0.750			
0.0760	4864.32	4.0330	4.0330	-0.7410	24.86	-0.08	-0.750			
0.0784	5018.62	4.0300	4.0298	-0.7329	24.86	-0.08	-0.750			
0.0806	5155.35	4.0270	4.0270	-0.7274	24.86	-0.08	-0.750			
0.0826	5287.55	4.0240	4.0243	-0.7490	24.86	-0.08	-0.750			
0.0847	5423.59	4.0210	4.0213	-0.7660	24.86	-0.08	-0.750			
0.0871	5575.93	4.0180	4.0173	-0.7848	24.86	-0.08	-0.750			
0.0895	5729.89	4.0150	4.0150	-0.7992	24.87	-0.07	-0.750			
0.0921	5896.10	4.0120	4.0123	-0.8117	24.87	-0.07	-0.750			
0.0946	6057.24	4.0090	4.0091	-0.8092	24.87	-0.07	-0.750			
0.0970	6206.56	4.0060	4.0060	-0.7851	24.87	-0.07	-0.750			
0.0992	6350.66	4.0030	4.0029	-0.7725	24.87	-0.07	-0.750			
0.1015	6494.23	4.0000	4.0000	-0.7617	24.88	-0.06	-0.750			
0.1038	6643.93	3.9970	3.9967	-0.7724	24.88	-0.06	-0.750			
0.1061	6793.16	3.9940	3.9943	-0.7788	24.88	-0.06	-0.750			
0.1085	6943.44	3.9910	3.9910	-0.7831	24.88	-0.06	-0.750			
0.1108	7093.94	3.9880	3.9880	-0.7853	24.88	-0.06	-0.750			
0.1132	7246.58	3.9850	3.9849	-0.7837	24.88	-0.06	-0.750			
0.1156	7398.57	3.9820	3.9820	-0.7751	24.88	-0.06	-0.750			
0.1180	7551.48	3.9790	3.9789	-0.7600	24.88	-0.06	-0.750			
0.1202	7690.71	3.9760	3.9761	-0.7597	24.88	-0.06	-0.750			
0.1223	7830.18	3.9730	3.9732	-0.7733	24.88	-0.06	-0.750			
0.1246	7975.94	3.9700	3.9705	-0.7744	24.88	-0.06	-0.750			
0.1270	8125.82	3.9670	3.9660	-0.7952	24.89	-0.05	-0.750			
0.1295	8286.31	3.9640	3.9642	-0.8095	24.89	-0.05	-0.750			
0.1320	8444.91	3.9610	3.9614	-0.8204	24.89	-0.05	-0.750			
0.1345	8608.02	3.9580	3.9578	-0.8293	24.89	-0.05	-0.750			
0.1370	8769.39	3.9550	3.9549	-0.8127	24.89	-0.05	-0.750			
0.1393	8912.42	3.9520	3.9520	-0.7934	24.90	-0.04	-0.750			
0.1417	9068.81	3.9490	3.9490	-0.8039	24.90	-0.04	-0.750			
0.1441	9221.43	3.9460	3.9463	-0.7999	24.90	-0.04	-0.750			
0.1465	9376.44	3.9430	3.9430	-0.7984	24.90	-0.04	-0.750			
0.1489	9528.65	3.9400	3.9401	-0.8062	24.90	-0.04	-0.750			
0.1513	9685.36	3.9370	3.9370	-0.8079	24.91	-0.03	-0.750			
0.1538	9842.77	3.9340	3.9338	-0.8134	24.91	-0.03	-0.750			
0.1563	10001.07	3.9310	3.9313	-0.7934	24.91	-0.03	-0.750			
0.1587	10156.79	3.9280	3.9278	-0.7744	24.91	-0.03	-0.750			
0.1610	10300.92	3.9250	3.9252	-0.7673	24.91	-0.03	-0.750			
0.1632	10444.49	3.9220	3.9223	-0.7538	24.90	-0.04	-0.750			
0.1654	10582.61	3.9190	3.9186	-0.7524	24.90	-0.04	-0.750			
0.1676	10725.33	3.9160	3.9155	-0.7647	24.90	-0.04	-0.750			
0.1699	10871.22	3.9130	3.9130	-0.7709	24.90	-0.04	-0.750			
0.1722	11020.92	3.9100	3.9101	-0.8090	24.91	-0.03	-0.750			
0.1748	11188.35	3.9070	3.9070	-0.8150	24.91	-0.03	-0.750			
0.1772	11343.11	3.9040	3.9038	-0.7967	24.91	-0.03	-0.750			
0.1797	11500.24	3.9010	3.9009	-0.8058	24.92	-0.02	-0.750			
0.1821	11653.54	3.8980	3.8981	-0.8023	24.92	-0.02	-0.750			
0.1845	11805.49	3.8950	3.8947	-0.8098	24.92	-0.02	-0.750			
0.1869	11960.95	3.8920	3.8920	-0.8064	24.92	-0.02	-0.750			
0.1892	12110.02	3.8890	3.8891	-0.8013	24.93	-0.01	-0.750			
0.1918	12272.98	3.8860	3.8860	-0.8189	24.93	-0.01	-0.750			
0.1943	12432.99	3.8830	3.8833	-0.8197	24.93	-0.01	-0.750			
0.1967	12587.94	3.8800	3.8798	-0.8119	24.93	-0.01	-0.750			
0.1991	12744.02	3.8770	3.8770	-0.8175	24.93	-0.01	-0.750			
0.2016	12902.37	3.8740	3.8740	-0.8091	24.94	-0.00	-0.750			
0.2041	13059.31	3.8710	3.8709	-0.8076	24.94	-0.00	-0.750			
0.2065	13213.65	3.8680	3.8685	-0.8038	24.94	0.00	-0.750			
0.2089	13366.85	3.8650	3.8648	-0.7966	24.94	0.00	-0.750			
0.2112	13518.27	3.8620	3.8619	-0.7972	24.94	0.00	-0.750			
0.2136	13670.30	3.8590	3.8591	-0.7861	24.95	0.01	-0.750			
0.2160	13824.48	3.8560	3.8559	-0.7884	24.95	0.01	-0.750			
0.2183	13972.96	3.8530	3.8530	-0.7887	24.95	0.01	-0.750			
0.2207	14122.17	3.8500	3.8498	-0.7850	24.95	0.01	-0.750			
0.2230	14272.52	3.8470	3.8469	-0.7796	24.96	0.02	-0.750			
0.2254	14422.81	3.8440	3.8439	-0.7753	24.96	0.02	-0.750			
0.2277	14573.27	3.8410	3.8412	-0.7816	24.96	0.02	-0.750			
0.2300	14722.98	3.8380	3.8379	-0.7784	24.97	0.03	-0.750			
0.2324	14870.86	3.8350	3.8351	-0.7734	24.97	0.03	-0.750			
0.2346	15016.94	3.8320	3.8319	-0.7686	24.97	0.03	-0.750			
0.2370	15165.61	3.8290	3.8291	-0.7663	24.97	0.03	-0.750			
0.2393	15312.68	3.8260	3.8259	-0.7642	24.98	0.04	-0.750			
0.2416	15461.28	3.8230	3.8230	-0.7571	24.98	0.04	-0.750			
0.2438	15604.19	3.8200	3.8205	-0.7568	24.98	0.04	-0.750			
0.2461	15749.19	3.8170	3.8171	-0.7560	24.98	0.04	-0.750			
0.2484	15894.49	3.8140	3.8139	-0.7625	24.99	0.05	-0.750			
0.2507	16042.95	3.8110	3.8109	-0.7642	24.99	0.05	-0.750			
0.2530	16191.90	3.8080	3.8079	-0.7649	24.99	0.05	-0.750			
0.2553	16337.89	3.8050	3.8049	-0.7588	25.00	0.06	-0.750			
0.2576	16484.95	3.8020	3.8018	-0.7648	25.00	0.06	-0.750			
0.2598	16628.62	3.7990	3.7989	-0.7547	25.01	0.07	-0.750			
0.2620	16770.77	3.7960	3.7960	-0.7583	25.01	0.07	-0.750			
0.2644	16919.01	3.7930	3.7930	-0.7672	25.01	0.07	-0.750			
0.2667	17066.80	3.7900	3.7900	-0.7641	25.02	0.08	-0.750			
0.2689	17212.50	3.7870	3.7872	-0.7621	25.02	0.08	-0.750			
0.2712	17357.84	3.7840	3.7839	-0.7626	25.02	0.08	-0.750			
0.2735	17502.45	3.7810	3.7812	-0.7723	25.02	0.08	-0.750			
0.2758	17651.28	3.7780	3.7778	-0.7796	25.02	0.08	-0.750			
0.2782	17802.46	3.7750	3.7750	-0.7865	25.02	0.08	-0.750			
0.2806	17955.46	3.7720	3.7720	-0.7963	25.02	0.08	-0.750			
0.2830	18109.92	3.7690	3.7689	-0.8031	25.02	0.08	-0.750			
0.2853	18260.06	3.7660	3.7659	-0.8273	25.02	0.08	-0.750			
0.2878	18417.23	3.7630	3.7631	-0.8415	25.02	0.08	-0.750			
0.2903	18582.39	3.7600	3.7598	-0.8608	25.02	0.08	-0.750			
0.2931	18758.18	3.7570	3.7562	-0.8670	25.02	0.08	-0.750			
0.2957	18926.70	3.7540	3.7544	-0.8669	25.02	0.08	-0.750			
0.2984	19094.88	3.7510	3.7510	-0.8767	25.02	0.08	-0.750			
0.3010	19262.43	3.7480	3.7478	-0.8705	25.02	0.08	-0.750			
0.3035	19422.35	3.7450	3.7447	-0.8498	25.02	0.08	-0.750			
0.3060	19586.75	3.7420	3.7424	-0.8600	25.02	0.08	-0.750			
0.3087	19754.79	3.7390	3.7390	-0.8707	25.02	0.08	-0.750			
0.3113	19925.55	3.7360	3.7359	-0.8770	25.02	0.08	-0.750			
0.3139	20090.38	3.7330	3.7329	-0.8742	25.02	0.08	-0.750			
0.3165	20258.71	3.7300	3.7301	-0.8883	25.02	0.08	-0.750			
0.3192	20430.34	3.7270	3.7271	-0.9014	25.02	0.08	-0.750			
0.3219	20604.69	3.7240	3.7239	-0.9180	25.01	0.07	-0.750			
0.3247	20781.37	3.7210	3.7210	-0.9271	25.01	0.07	-0.750			
0.3275	20960.44	3.7180	3.7179	-0.9398	25.01	0.07	-0.750			
0.3304	21147.77	3.7150	3.7152	-0.9570	25.00	0.06	-0.750			
0.3333	21328.73	3.7120	3.7119	-0.9677	25.00	0.06	-0.750			
0.3362	21517.25	3.7090	3.7090	-0.9649	24.99	0.05	-0.750			
0.3391	21700.11	3.7060	3.7060	-0.9782	24.99	0.05	-0.750			
0.3420	21885.32	3.7030	3.7031	-0.9893	24.98	0.04	-0.750			
0.3449	22076.79	3.7000	3.7001	-1.0164	24.98	0.04	-0.750	0.392	0.546	
0.3480	22274.59	3.6970	3.6969	-1.0315	24.98	0.04	-0.750			
0.3512	22476.36	3.6940	3.6941	-1.0513	24.98	0.04	-0.750			
0.3544	22681.42	3.6910	3.6909	-1.0598	24.98	0.04	-0.750			
0.3576	22889.46	3.6880	3.6880	-1.0918	24.98	0.04	-0.750			
0.3609	23096.94	3.6850	3.6849	-1.0950	24.97	0.03	-0.750			
0.3642	23307.00	3.6820	3.6818	-1.1058	24.97	0.03	-0.750			
0.3675	23519.12	3.6790	3.6791	-1.1136	24.96	0.02	-0.750			
0.3709	23739.38	3.6760	3.6759	-1.1436	24.96	0.02	-0.750			
0.3744	23960.35	3.6730	3.6729	-1.1625	24.95	0.01	-0.750			
0.3779	24185.83	3.6700	3.6699	-1.1753	24.95	0.01	-0.750			
0.3814	24407.25	3.6670	3.6675	-1.1942	24.94	0.00	-0.750			
0.3851	24644.21	3.6640	3.6639	-1.2226	24.94	0.00	-0.750			
0.3888	24884.76	3.6610	3.6609	-1.2234	24.94	0.00	-0.750			
0.3924	25115.40	3.6580	3.6580	-1.2517	24.94	0.00	-0.750			
0.3963	25362.50	3.6550	3.6550	-1.2521	24.94	-0.00	-0.750			
0.4000	25599.30	3.6520	3.6519	-1.2538	24.93	-0.01	-0.750			
0.4037	25835.78	3.6490	3.6488	-1.2747	24.92	-0.02	-0.750			
0.4075	26078.72	3.6460	3.6456	-1.2977	24.92	-0.02	-0.750			
0.4114	26331.72	3.6430	3.6430	-1.3381	24.91	-0.03	-0.750			
0.4155	26593.42	3.6400	3.6399	-1.3753	24.91	-0.03	-0.750			
0.4198	26867.74	3.6370	3.6371	-1.4266	24.90	-0.04	-0.750			
0.4242	27148.66	3.6340	3.6339	-1.4374	24.90	-0.04	-0.750			
0.4285	27424.43	3.6310	3.6309	-1.4915	24.90	-0.04	-0.750			
0.4331	27719.07	3.6280	3.6278	-1.5084	24.90	-0.04	-0.750			
0.4376	28009.41	3.6250	3.6246	-1.5482	24.89	-0.05	-0.750			
0.4424	28311.41	3.6220	3.6224	-1.5584	24.88	-0.06	-0.750			
0.4471	28612.55	3.6190	3.6189	-1.5640	24.88	-0.06	-0.750			
0.4518	28917.90	3.6160	3.6159	-1.6294	24.88	-0.06	-0.750			
0.4567	29229.79	3.6130	3.6132	-1.6390	24.88	-0.06	-0.750			
0.4616	29539.98	3.6100	3.6100	-1.6726	24.87	-0.07	-0.750			
0.4669	29881.10	3.6070	3.6073	-1.6590	24.86	-0.08	-0.750			
0.4719	30204.73	3.6040	3.6038	-1.6059	24.86	-0.08	-0.750			
0.4769	30521.91	3.6010	3.6009	-1.6344	24.85	-0.09	-0.750			
0.4815	30817.23	3.5980	3.5970	-1.6499	24.85	-0.09	-0.750			
0.4863	31122.38	3.5950	3.5943	-1.7828	24.85	-0.09	-0.750			
0.4912	31438.50	3.5920	3.5919	-1.8901	24.84	-0.10	-0.750			
0.4973	31824.48	3.5890	3.5886	-2.0157	24.84	-0.10	-0.750			
0.5036	32233.39	3.5860	3.5868	-2.1663	24.83	-0.11	-0.750			
0.5106	32676.23	3.5830	3.5831	-2.1164	24.83	-0.11	-0.750			
0.5167	33071.78	3.5800	3.5798	-2.1075	24.82	-0.12	-0.750			
0.5228	33462.23	3.5770	3.5769	-2.0442	24.82	-0.12	-0.750			
0.5287	33839.43	3.5740	3.5739	-2.0004	24.82	-0.12	-0.750			
0.5348	34226.08	3.5710	3.5706	-2.0049	24.82	-0.12	-0.750			
0.5409	34615.54	3.5680	3.5680	-2.0208	24.82	-0.12	-0.750			
0.5470	35006.97	3.5650	3.5648	-2.0345	24.82	-0.12	-0.750			
0.5531	35401.40	3.5620	3.5616	-2.0053	24.82	-0.12	-0.750			
0.5590	35774.01	3.5590	3.5588	-1.9877	24.82	-0.12	-0.750			
0.5649	36153.52	3.5560	3.5547	-2.0323	24.83	-0.11	-0.750			
0.5711	36549.22	3.5530	3.5529	-2.0236	24.83	-0.11	-0.750			
0.5773	36945.75	3.5500	3.5496	-2.0468	24.84	-0.10	-0.750			
0.5837	37353.96	3.5470	3.5467	-2.0913	24.84	-0.10	-0.750			
0.5897	37743.32	3.5440	3.5435	-1.9514	24.84	-0.10	-0.750			
0.5953	38098.26	3.5410	3.5408	-1.9107	24.84	-0.10	-0.750			
0.6008	38448.47	3.5380	3.5378	-1.8773	24.85	-0.09	-0.750			
0.6063	38802.24	3.5350	3.5341	-1.8638	24.86	-0.08	-0.750			
0.6118	39156.04	3.5320	3.5320	-1.8730	24.87	-0.07	-0.750			
0.6176	39526.03	3.5290	3.5290	-1.8749	24.88	-0.06	-0.750			
0.6235	39901.88	3.5260	3.5259	-1.8585	24.89	-0.05	-0.750			
0.6290	40256.92	3.5230	3.5228	-1.7374	24.90	-0.04	-0.750			
0.6341	40584.92	3.5200	3.5199	-1.7162	24.91	-0.03	-0.750			
0.6393	40912.65	3.5170	3.5169	-1.6687	24.93	-0.01	-0.750			
0.6442	41229.71	3.5140	3.5134	-1.6272	24.94	0.00	-0.750			
0.6490	41534.84	3.5110	3.5110	-1.6050	24.95	0.01	-0.750			
0.6537	41838.76	3.5080	3.5082	-1.5850	24.96	0.02	-0.750			
0.6586	42148.58	3.5050	3.5048	-1.5391	24.98	0.04	-0.750			
0.6633	42451.24	3.5020	3.5021	-1.4836	25.00	0.06	-0.750			
0.6678	42736.02	3.4990	3.4993	-1.4477	25.02	0.08	-0.750			
0.6721	43015.05	3.4960	3.4958	-1.3528	25.03	0.09	-0.750			
0.6761	43267.77	3.4930	3.4928	-1.3282	25.04	0.10	-0.750			
0.6797	43499.90	3.4900	3.4901	-1.2851	25.05	0.11	-0.750			
0.6836	43748.23	3.4870	3.4872	-1.2767	25.07	0.13	-0.750			
0.6873	43990.02	3.4840	3.4848	-1.2739	25.08	0.14	-0.750			
0.6912	44238.60	3.4810	3.4810	-1.3386	25.09	0.15	-0.750			
