Ah_balance (normalized)	Ah_balance (mAh)	Voltage - fit (V)	Voltage -  interpolate (V)	dQ/dV (1/V)	Temperature (°C)	Temperature - diff (°C)	Current (C)	R_DC 0ms (mOhm)	R_DC 50ms (mOhm)	R_DC 50 ms PEC (mOhm)
0.0004	26.89	4.1640	4.1638	-0.1423	24.98	0.03	-0.750			
0.0009	59.50	4.1610	4.1610	-0.1924	24.98	0.03	-0.750			
0.0016	101.60	4.1580	4.1580	-0.2385	24.97	0.02	-0.750			
0.0024	151.81	4.1550	4.1550	-0.2838	24.97	0.02	-0.750			
0.0033	210.76	4.1520	4.1521	-0.3282	24.97	0.02	-0.750			
0.0044	278.84	4.1490	4.1489	-0.3710	24.97	0.02	-0.750			
0.0055	353.70	4.1460	4.1461	-0.4159	24.96	0.01	-0.750			
0.0069	439.11	4.1430	4.1430	-0.4517	24.96	0.01	-0.750			
0.0083	530.22	4.1400	4.1400	-0.4918	24.96	0.01	-0.750			
0.0098	629.28	4.1370	4.1370	-0.5247	24.95	0.00	-0.750			
0.0115	733.65	4.1340	4.1347	-0.5547	24.95	-0.00	-0.750			
0.0132	843.12	4.1310	4.1310	-0.5835	24.95	-0.00	-0.750			
0.0150	959.15	4.1280	4.1280	-0.6080	24.94	-0.01	-0.750			
0.0168	1078.00	4.1250	4.1249	-0.6286	24.94	-0.01	-0.750			
0.0188	1202.91	4.1220	4.1220	-0.6517	24.93	-0.02	-0.750			
0.0207	1327.85	4.1190	4.1191	-0.6664	24.93	-0.02	-0.750			
0.0228	1460.12	4.1160	4.1159	-0.6791	24.92	-0.03	-0.750			
0.0249	1591.51	4.1130	4.1129	-0.6882	24.92	-0.03	-0.750			
0.0269	1724.39	4.1100	4.1101	-0.6974	24.92	-0.03	-0.750			
0.0290	1859.20	4.1070	4.1070	-0.7129	24.91	-0.04	-0.750			
0.0312	1998.50	4.1040	4.1039	-0.7217	24.91	-0.04	-0.750			
0.0334	2140.01	4.1010	4.1009	-0.7206	24.90	-0.05	-0.750			
0.0356	2278.24	4.0980	4.0980	-0.7243	24.90	-0.05	-0.750			
0.0378	2418.20	4.0950	4.0950	-0.7259	24.90	-0.05	-0.750			
0.0399	2555.39	4.0920	4.0919	-0.7251	24.90	-0.05	-0.750			
0.0421	2694.33	4.0890	4.0889	-0.7354	24.90	-0.05	-0.750			
0.0443	2836.49	4.0860	4.0858	-0.7286	24.89	-0.06	-0.750			
0.0466	2981.21	4.0830	4.0829	-0.7366	24.89	-0.06	-0.750			
0.0488	3121.91	4.0800	4.0807	-0.7433	24.89	-0.06	-0.750			
0.0510	3263.31	4.0770	4.0768	-0.7419	24.89	-0.06	-0.750			
0.0532	3404.73	4.0740	4.0739	-0.7531	24.89	-0.06	-0.750			
0.0554	3546.12	4.0710	4.0710	-0.7503	24.90	-0.05	-0.750			
0.0578	3696.91	4.0680	4.0680	-0.7716	24.90	-0.05	-0.750			
0.0601	3845.74	4.0650	4.0650	-0.7763	24.90	-0.05	-0.750			
0.0624	3995.05	4.0620	4.0620	-0.7794	24.90	-0.05	-0.750			
0.0647	4141.51	4.0590	4.0590	-0.7901	24.90	-0.05	-0.750			
0.0671	4297.32	4.0560	4.0560	-0.7862	24.90	-0.05	-0.750			
0.0695	4448.92	4.0530	4.0529	-0.7838	24.90	-0.05	-0.750			
0.0719	4601.37	4.0500	4.0499	-0.7835	24.90	-0.05	-0.750			
0.0742	4750.30	4.0470	4.0474	-0.7838	24.90	-0.05	-0.750			
0.0766	4900.10	4.0440	4.0438	-0.7756	24.90	-0.05	-0.750			
0.0789	5046.41	4.0410	4.0410	-0.7831	24.90	-0.05	-0.750			
0.0812	5195.89	4.0380	4.0380	-0.7764	24.90	-0.05	-0.750			
0.0836	5350.89	4.0350	4.0349	-0.7954	24.90	-0.05	-0.750			
0.0860	5502.59	4.0320	4.0319	-0.7969	24.90	-0.05	-0.750			
0.0884	5655.35	4.0290	4.0287	-0.7988	24.90	-0.05	-0.750			
0.0908	5809.15	4.0260	4.0260	-0.8002	24.90	-0.05	-0.750			
0.0932	5963.79	4.0230	4.0230	-0.8026	24.90	-0.05	-0.750			
0.0956	6118.91	4.0200	4.0200	-0.8086	24.90	-0.05	-0.750			
0.0980	6274.43	4.0170	4.0168	-0.8083	24.90	-0.05	-0.750			
0.1004	6427.11	4.0140	4.0139	-0.8037	24.90	-0.05	-0.750			
0.1028	6581.39	4.0110	4.0110	-0.8135	24.91	-0.04	-0.750			
0.1053	6740.29	4.0080	4.0079	-0.8120	24.91	-0.04	-0.750			
0.1078	6896.22	4.0050	4.0049	-0.8130	24.91	-0.04	-0.750			
0.1102	7054.29	4.0020	4.0019	-0.8107	24.92	-0.03	-0.750			
0.1126	7208.18	3.9990	3.9988	-0.8096	24.92	-0.03	-0.750			
0.1150	7361.93	3.9960	3.9959	-0.8171	24.92	-0.03	-0.750			
0.1175	7520.62	3.9930	3.9930	-0.8162	24.92	-0.03	-0.750			
0.1199	7674.77	3.9900	3.9899	-0.8165	24.92	-0.03	-0.750			
0.1225	7839.42	3.9870	3.9870	-0.8266	24.92	-0.03	-0.750			
0.1250	7997.22	3.9840	3.9838	-0.8128	24.92	-0.03	-0.750			
0.1273	8149.14	3.9810	3.9810	-0.8264	24.92	-0.03	-0.750			
0.1298	8305.22	3.9780	3.9780	-0.8313	24.92	-0.03	-0.750			
0.1322	8463.08	3.9750	3.9749	-0.8296	24.93	-0.02	-0.750			
0.1349	8631.70	3.9720	3.9717	-0.8410	24.93	-0.02	-0.750			
0.1374	8793.22	3.9690	3.9694	-0.8414	24.93	-0.02	-0.750			
0.1399	8955.98	3.9660	3.9660	-0.8509	24.93	-0.02	-0.750			
0.1425	9121.69	3.9630	3.9627	-0.8458	24.93	-0.02	-0.750			
0.1450	9278.19	3.9600	3.9600	-0.8248	24.93	-0.02	-0.750			
0.1475	9440.81	3.9570	3.9569	-0.8358	24.93	-0.02	-0.750			
0.1501	9605.12	3.9540	3.9539	-0.8379	24.93	-0.02	-0.750			
0.1526	9763.39	3.9510	3.9509	-0.8541	24.93	-0.02	-0.750			
0.1551	9925.05	3.9480	3.9478	-0.8495	24.93	-0.02	-0.750			
0.1576	10088.69	3.9450	3.9448	-0.8444	24.94	-0.01	-0.750			
0.1603	10259.32	3.9420	3.9419	-0.8590	24.94	-0.01	-0.750			
0.1628	10421.18	3.9390	3.9389	-0.8601	24.94	-0.01	-0.750			
0.1654	10587.02	3.9360	3.9358	-0.8557	24.94	-0.01	-0.750			
0.1679	10746.40	3.9330	3.9329	-0.8542	24.95	-0.00	-0.750			
0.1704	10905.58	3.9300	3.9301	-0.8518	24.95	-0.00	-0.750			
0.1731	11078.48	3.9270	3.9271	-0.8676	24.95	-0.00	-0.750			
0.1757	11244.63	3.9240	3.9240	-0.8678	24.95	0.00	-0.750			
0.1783	11411.37	3.9210	3.9210	-0.8753	24.95	0.00	-0.750			
0.1809	11580.34	3.9180	3.9179	-0.8701	24.95	0.00	-0.750			
0.1836	11749.45	3.9150	3.9149	-0.8743	24.95	0.00	-0.750			
0.1862	11915.71	3.9120	3.9120	-0.8744	24.95	0.00	-0.750			
0.1887	12079.91	3.9090	3.9091	-0.8952	24.95	0.00	-0.750			
0.1915	12255.37	3.9060	3.9058	-0.8801	24.95	0.00	-0.750			
0.1941	12424.49	3.9030	3.9029	-0.8750	24.96	0.01	-0.750			
0.1968	12592.64	3.9000	3.8999	-0.8830	24.96	0.01	-0.750			
0.1994	12762.16	3.8970	3.8971	-0.8819	24.96	0.01	-0.750			
0.2020	12928.35	3.8940	3.8939	-0.8859	24.96	0.01	-0.750			
0.2047	13098.69	3.8910	3.8910	-0.8838	24.96	0.01	-0.750			
0.2074	13271.54	3.8880	3.8880	-0.8996	24.96	0.01	-0.750			
0.2101	13444.39	3.8850	3.8849	-0.8917	24.96	0.01	-0.750			
0.2127	13614.24	3.8820	3.8818	-0.8882	24.96	0.01	-0.750			
0.2153	13782.17	3.8790	3.8790	-0.8944	24.96	0.01	-0.750			
0.2181	13955.21	3.8760	3.8760	-0.8907	24.97	0.02	-0.750			
0.2207	14125.86	3.8730	3.8728	-0.8857	24.97	0.02	-0.750			
0.2234	14299.42	3.8700	3.8700	-0.8937	24.97	0.02	-0.750			
0.2261	14468.47	3.8670	3.8670	-0.9033	24.97	0.02	-0.750			
0.2288	14643.81	3.8640	3.8638	-0.8983	24.97	0.02	-0.750			
0.2315	14813.79	3.8610	3.8609	-0.8936	24.98	0.03	-0.750			
0.2342	14986.86	3.8580	3.8580	-0.9026	24.98	0.03	-0.750			
0.2369	15162.00	3.8550	3.8554	-0.9010	24.98	0.03	-0.750			
0.2396	15335.09	3.8520	3.8518	-0.9031	24.99	0.04	-0.750			
0.2423	15505.41	3.8490	3.8490	-0.8985	24.99	0.04	-0.750			
0.2450	15677.15	3.8460	3.8461	-0.8918	24.99	0.04	-0.750			
0.2477	15851.81	3.8430	3.8430	-0.9006	25.00	0.05	-0.750			
0.2504	16025.04	3.8400	3.8399	-0.8907	25.00	0.05	-0.750			
0.2530	16194.70	3.8370	3.8370	-0.9040	25.00	0.05	-0.750			
0.2558	16370.75	3.8340	3.8339	-0.9014	25.00	0.05	-0.750			
0.2585	16541.93	3.8310	3.8308	-0.8983	25.00	0.05	-0.750			
0.2612	16715.86	3.8280	3.8286	-0.9002	25.00	0.05	-0.750			
0.2639	16888.85	3.8250	3.8249	-0.9146	25.00	0.05	-0.750			
0.2666	17065.29	3.8220	3.8219	-0.9063	25.01	0.06	-0.750			
0.2694	17241.07	3.8190	3.8188	-0.8971	25.01	0.06	-0.750			
0.2721	17413.40	3.8160	3.8158	-0.9001	25.02	0.07	-0.750			
0.2748	17585.37	3.8130	3.8129	-0.8949	25.02	0.07	-0.750			
0.2774	17753.35	3.8100	3.8098	-0.8904	25.02	0.07	-0.750			
0.2800	17922.51	3.8070	3.8069	-0.8916	25.02	0.07	-0.750			
0.2827	18095.77	3.8040	3.8040	-0.9045	25.02	0.07	-0.750			
0.2855	18269.33	3.8010	3.8009	-0.8998	25.02	0.07	-0.750			
0.2882	18442.21	3.7980	3.7979	-0.8996	25.02	0.07	-0.750			
0.2908	18613.72	3.7950	3.7949	-0.9084	25.03	0.08	-0.750			
0.2936	18789.48	3.7920	3.7919	-0.8997	25.03	0.08	-0.750			
0.2963	18962.77	3.7890	3.7889	-0.8911	25.04	0.09	-0.750			
0.2990	19135.73	3.7860	3.7867	-0.8920	25.04	0.09	-0.750			
0.3016	19303.19	3.7830	3.7829	-0.9051	25.04	0.09	-0.750			
0.3043	19476.32	3.7800	3.7798	-0.8932	25.04	0.09	-0.750			
0.3069	19644.28	3.7770	3.7769	-0.8862	25.04	0.09	-0.750			
0.3097	19818.86	3.7740	3.7738	-0.8964	25.04	0.09	-0.750			
0.3124	19991.65	3.7710	3.7708	-0.8909	25.04	0.09	-0.750			
0.3150	20162.98	3.7680	3.7679	-0.8903	25.05	0.10	-0.750			
0.3177	20330.94	3.7650	3.7651	-0.8842	25.05	0.10	-0.750			
0.3203	20499.75	3.7620	3.7619	-0.8894	25.05	0.10	-0.750			
0.3230	20669.97	3.7590	3.7590	-0.8840	25.06	0.11	-0.750			
0.3256	20835.95	3.7560	3.7560	-0.8891	25.06	0.11	-0.750			
0.3282	21006.73	3.7530	3.7530	-0.8918	25.06	0.11	-0.750			
0.3310	21181.22	3.7500	3.7499	-0.8909	25.07	0.12	-0.750			
0.3336	21351.58	3.7470	3.7470	-0.8892	25.07	0.12	-0.750			
0.3363	21523.10	3.7440	3.7444	-0.8920	25.07	0.12	-0.750			
0.3389	21692.73	3.7410	3.7410	-0.9046	25.07	0.12	-0.750			
0.3417	21866.64	3.7380	3.7379	-0.9001	25.07	0.12	-0.750			
0.3443	22037.94	3.7350	3.7349	-0.9019	25.08	0.13	-0.750			
0.3471	22213.57	3.7320	3.7319	-0.9127	25.08	0.13	-0.750			
0.3498	22389.90	3.7290	3.7288	-0.9186	25.08	0.13	-0.750			
0.3526	22565.49	3.7260	3.7260	-0.9321	25.08	0.13	-0.750			
0.3554	22745.28	3.7230	3.7230	-0.9427	25.08	0.13	-0.750			
0.3582	22924.77	3.7200	3.7199	-0.9521	25.08	0.13	-0.750			
0.3612	23113.85	3.7170	3.7169	-0.9703	25.08	0.13	-0.750			
0.3641	23300.33	3.7140	3.7140	-0.9973	25.08	0.13	-0.750			
0.3672	23497.65	3.7110	3.7108	-1.0024	25.08	0.13	-0.750			
0.3702	23693.77	3.7080	3.7078	-1.0067	25.08	0.13	-0.750			
0.3731	23880.96	3.7050	3.7051	-1.0333	25.08	0.13	-0.750	0.385	0.496	
0.3763	24082.51	3.7020	3.7019	-1.0424	25.08	0.13	-0.750			
0.3794	24282.95	3.6990	3.6987	-1.0471	25.08	0.13	-0.750			
0.3826	24483.72	3.6960	3.6958	-1.0596	25.07	0.12	-0.750			
0.3858	24688.02	3.6930	3.6932	-1.1018	25.07	0.12	-0.750			
0.3891	24902.16	3.6900	3.6897	-1.1178	25.07	0.12	-0.750			
0.3925	25118.77	3.6870	3.6869	-1.1354	25.07	0.12	-0.750			
0.3959	25334.94	3.6840	3.6840	-1.1543	25.06	0.11	-0.750			
0.3994	25563.62	3.6810	3.6812	-1.2004	25.06	0.11	-0.750			
0.4031	25797.36	3.6780	3.6779	-1.2199	25.05	0.10	-0.750			
0.4065	26014.13	3.6750	3.6751	-1.2982	25.05	0.10	-0.750			
0.4105	26271.52	3.6720	3.6720	-1.3628	25.04	0.09	-0.750			
0.4149	26552.54	3.6690	3.6685	-1.4080	25.03	0.08	-0.750			
0.4192	26832.00	3.6660	3.6657	-1.4326	25.02	0.07	-0.750			
0.4237	27117.47	3.6630	3.6636	-1.4576	25.01	0.06	-0.750			
0.4282	27406.67	3.6600	3.6597	-1.4922	25.01	0.06	-0.750			
0.4326	27684.73	3.6570	3.6568	-1.4816	25.00	0.05	-0.750			
0.4367	27950.36	3.6540	3.6542	-1.4660	25.00	0.05	-0.750			
0.4414	28248.54	3.6510	3.6513	-1.5071	24.99	0.04	-0.750			
0.4459	28538.09	3.6480	3.6477	-1.5481	24.98	0.03	-0.750			
0.4506	28839.74	3.6450	3.6448	-1.5595	24.97	0.02	-0.750			
0.4553	29140.29	3.6420	3.6419	-1.5921	24.96	0.01	-0.750			
0.4602	29450.26	3.6390	3.6393	-1.6422	24.96	0.01	-0.750			
0.4651	29763.28	3.6360	3.6358	-1.6687	24.95	0.00	-0.750			
0.4703	30096.05	3.6330	3.6332	-1.6936	24.94	-0.01	-0.750			
0.4754	30422.51	3.6300	3.6301	-1.7326	24.93	-0.02	-0.750			
0.4806	30755.37	3.6270	3.6270	-1.7798	24.92	-0.03	-0.750			
0.4860	31102.89	3.6240	3.6238	-1.8365	24.92	-0.03	-0.750			
0.4916	31461.45	3.6210	3.6211	-1.8637	24.91	-0.04	-0.750			
0.4972	31821.56	3.6180	3.6181	-1.8810	24.89	-0.06	-0.750			
0.5029	32185.99	3.6150	3.6149	-1.9335	24.89	-0.06	-0.750			
0.5088	32563.42	3.6120	3.6121	-1.9514	24.88	-0.07	-0.750			
0.5145	32929.91	3.6090	3.6087	-1.9792	24.87	-0.08	-0.750			
0.5205	33311.49	3.6060	3.6063	-2.0357	24.87	-0.08	-0.750			
0.5266	33702.91	3.6030	3.6027	-2.0582	24.86	-0.09	-0.750			
0.5329	34108.52	3.6000	3.5997	-2.1082	24.85	-0.10	-0.750			
0.5393	34517.36	3.5970	3.5968	-2.1553	24.84	-0.11	-0.750			
0.5460	34945.06	3.5940	3.5937	-2.2305	24.83	-0.12	-0.750			
0.5527	35370.07	3.5910	3.5911	-2.2356	24.83	-0.12	-0.750			
0.5593	35796.53	3.5880	3.5879	-2.2619	24.82	-0.13	-0.750			
0.5663	36242.53	3.5850	3.5848	-2.2937	24.81	-0.14	-0.750			
0.5732	36681.77	3.5820	3.5817	-2.3248	24.80	-0.15	-0.750			
0.5802	37132.13	3.5790	3.5790	-2.3311	24.80	-0.15	-0.750			
0.5874	37593.72	3.5760	3.5759	-2.3773	24.80	-0.15	-0.750			
0.5945	38049.83	3.5730	3.5728	-2.3764	24.79	-0.16	-0.750			
0.6016	38501.69	3.5700	3.5702	-2.3901	24.78	-0.17	-0.750			
0.6089	38967.46	3.5670	3.5670	-2.3593	24.78	-0.17	-0.750			
0.6160	39424.67	3.5640	3.5640	-2.3694	24.78	-0.17	-0.750			
0.6230	39871.81	3.5610	3.5607	-2.3778	24.78	-0.17	-0.750			
0.6301	40327.13	3.5580	3.5582	-2.3913	24.78	-0.17	-0.750			
0.6374	40790.48	3.5550	3.5551	-2.3502	24.78	-0.17	-0.750			
0.6445	41247.51	3.5520	3.5520	-2.3096	24.78	-0.17	-0.750			
0.6513	41685.00	3.5490	3.5487	-2.2702	24.78	-0.17	-0.750			
0.6580	42113.80	3.5460	3.5463	-2.2514	24.79	-0.16	-0.750			
0.6647	42541.69	3.5430	3.5431	-2.2185	24.80	-0.15	-0.750			
0.6714	42969.69	3.5400	3.5398	-2.1809	24.80	-0.15	-0.750			
0.6779	43388.62	3.5370	3.5371	-2.1437	24.81	-0.14	-0.750			
0.6844	43801.75	3.5340	3.5341	-2.1117	24.82	-0.13	-0.750			
0.6906	44200.82	3.5310	3.5310	-2.0639	24.83	-0.12	-0.750			
0.6967	44587.80	3.5280	3.5280	-1.9716	24.84	-0.11	-0.750			
0.7025	44962.51	3.5250	3.5252	-1.9094	24.85	-0.10	-0.750			
0.7082	45324.97	3.5220	3.5221	-1.8620	24.85	-0.10	-0.750			
0.7137	45677.80	3.5190	3.5188	-1.8026	24.87	-0.08	-0.750			
0.7191	46021.50	3.5160	3.5158	-1.7613	24.88	-0.07	-0.750			
0.7244	46359.62	3.5130	3.5132	-1.6889	24.90	-0.05	-0.750			
0.7293	46675.94	3.5100	3.5103	-1.6421	24.92	-0.03	-0.750			
0.7340	46977.10	3.5070	3.5071	-1.5765	24.93	-0.02	-0.750			
0.7387	47278.85	3.5040	3.5037	-1.5295	24.95	-0.00	-0.750			
0.7432	47564.28	3.5010	3.5010	-1.4979	24.96	0.01	-0.750			
0.7477	47850.34	3.4980	3.4979	-1.4934	24.98	0.03	-0.750			
