Ah_balance (normalized)	Ah_balance (mAh)	Voltage - fit (V)	Voltage -  interpolate (V)	dQ/dV (1/V)	Temperature (°C)	Temperature - diff (°C)	Current (C)	R_DC 0ms (mOhm)	R_DC 50ms (mOhm)	R_DC 50 ms PEC (mOhm)
0.0003	19.95	4.1590	4.1589	-0.1099	24.90	0.00	-0.750			
0.0007	47.97	4.1560	4.1559	-0.1661	24.90	-0.00	-0.750			
0.0013	84.53	4.1530	4.1529	-0.2160	24.90	-0.00	-0.750			
0.0021	131.51	4.1500	4.1501	-0.2616	24.90	-0.00	-0.750			
0.0029	186.10	4.1470	4.1471	-0.3093	24.89	-0.01	-0.750			
0.0039	251.46	4.1440	4.1440	-0.3536	24.89	-0.01	-0.750			
0.0051	323.87	4.1410	4.1409	-0.3964	24.89	-0.01	-0.750			
0.0063	405.03	4.1380	4.1380	-0.4330	24.89	-0.01	-0.750			
0.0077	491.33	4.1350	4.1352	-0.4757	24.88	-0.02	-0.750			
0.0092	587.44	4.1320	4.1319	-0.5093	24.88	-0.02	-0.750			
0.0108	690.45	4.1290	4.1289	-0.5358	24.88	-0.02	-0.750			
0.0124	796.53	4.1260	4.1262	-0.5597	24.87	-0.03	-0.750			
0.0142	907.14	4.1230	4.1229	-0.5832	24.87	-0.03	-0.750			
0.0160	1022.27	4.1200	4.1200	-0.6032	24.87	-0.03	-0.750			
0.0178	1138.93	4.1170	4.1169	-0.6261	24.87	-0.03	-0.750			
0.0197	1259.40	4.1140	4.1141	-0.6373	24.86	-0.04	-0.750			
0.0217	1387.39	4.1110	4.1109	-0.6531	24.86	-0.04	-0.750			
0.0237	1514.46	4.1080	4.1080	-0.6659	24.86	-0.04	-0.750			
0.0257	1644.43	4.1050	4.1055	-0.6750	24.86	-0.04	-0.750			
0.0277	1773.70	4.1020	4.1020	-0.6857	24.86	-0.04	-0.750			
0.0298	1905.77	4.0990	4.0990	-0.6942	24.86	-0.04	-0.750			
0.0319	2039.53	4.0960	4.0960	-0.7026	24.85	-0.05	-0.750			
0.0340	2177.54	4.0930	4.0930	-0.7131	24.85	-0.05	-0.750			
0.0362	2315.31	4.0900	4.0900	-0.7185	24.85	-0.05	-0.750			
0.0384	2454.42	4.0870	4.0871	-0.7215	24.85	-0.05	-0.750			
0.0405	2593.32	4.0840	4.0840	-0.7272	24.85	-0.05	-0.750			
0.0427	2731.80	4.0810	4.0810	-0.7334	24.85	-0.05	-0.750			
0.0449	2875.60	4.0780	4.0780	-0.7378	24.84	-0.06	-0.750			
0.0472	3018.98	4.0750	4.0748	-0.7383	24.84	-0.06	-0.750			
0.0494	3160.50	4.0720	4.0718	-0.7387	24.84	-0.06	-0.750			
0.0516	3301.61	4.0690	4.0690	-0.7429	24.84	-0.06	-0.750			
0.0538	3443.67	4.0660	4.0659	-0.7468	24.85	-0.05	-0.750			
0.0560	3585.06	4.0630	4.0629	-0.7528	24.85	-0.05	-0.750			
0.0583	3731.06	4.0600	4.0600	-0.7509	24.85	-0.05	-0.750			
0.0607	3882.49	4.0570	4.0570	-0.7676	24.86	-0.04	-0.750			
0.0630	4030.38	4.0540	4.0543	-0.7618	24.86	-0.04	-0.750			
0.0653	4176.52	4.0510	4.0510	-0.7571	24.86	-0.04	-0.750			
0.0675	4318.97	4.0480	4.0479	-0.7587	24.86	-0.04	-0.750			
0.0697	4462.34	4.0450	4.0450	-0.7543	24.86	-0.04	-0.750			
0.0720	4608.92	4.0420	4.0419	-0.7611	24.86	-0.04	-0.750			
0.0743	4755.34	4.0390	4.0389	-0.7621	24.86	-0.04	-0.750			
0.0766	4902.74	4.0360	4.0360	-0.7647	24.86	-0.04	-0.750			
0.0789	5048.01	4.0330	4.0330	-0.7768	24.86	-0.04	-0.750			
0.0812	5197.44	4.0300	4.0300	-0.7741	24.86	-0.04	-0.750			
0.0835	5345.34	4.0270	4.0269	-0.7751	24.87	-0.03	-0.750			
0.0859	5498.20	4.0240	4.0239	-0.7812	24.87	-0.03	-0.750			
0.0883	5648.89	4.0210	4.0215	-0.7845	24.87	-0.03	-0.750			
0.0906	5799.69	4.0180	4.0180	-0.7835	24.87	-0.03	-0.750			
0.0930	5949.89	4.0150	4.0149	-0.7862	24.87	-0.03	-0.750			
0.0953	6100.18	4.0120	4.0121	-0.7839	24.88	-0.02	-0.750			
0.0977	6253.68	4.0090	4.0089	-0.7847	24.88	-0.02	-0.750			
0.1000	6401.91	4.0060	4.0059	-0.7846	24.88	-0.02	-0.750			
0.1024	6552.07	4.0030	4.0030	-0.7881	24.88	-0.02	-0.750			
0.1047	6701.40	4.0000	3.9999	-0.7948	24.89	-0.01	-0.750			
0.1071	6855.14	3.9970	3.9969	-0.7921	24.89	-0.01	-0.750			
0.1095	7005.89	3.9940	3.9941	-0.7946	24.89	-0.01	-0.750			
0.1119	7162.75	3.9910	3.9911	-0.8047	24.90	-0.00	-0.750			
0.1144	7318.65	3.9880	3.9878	-0.8014	24.90	0.00	-0.750			
0.1167	7469.91	3.9850	3.9850	-0.8031	24.91	0.01	-0.750			
0.1192	7627.29	3.9820	3.9820	-0.8013	24.91	0.01	-0.750			
0.1216	7781.98	3.9790	3.9789	-0.7972	24.91	0.01	-0.750			
0.1240	7935.67	3.9760	3.9755	-0.8010	24.92	0.02	-0.750			
0.1264	8086.56	3.9730	3.9729	-0.7994	24.92	0.02	-0.750			
0.1287	8238.63	3.9700	3.9699	-0.8067	24.92	0.02	-0.750			
0.1311	8393.22	3.9670	3.9668	-0.8103	24.92	0.02	-0.750			
0.1335	8545.43	3.9640	3.9642	-0.8051	24.93	0.03	-0.750			
0.1361	8712.37	3.9610	3.9608	-0.8241	24.93	0.03	-0.750			
0.1386	8869.09	3.9580	3.9583	-0.8162	24.93	0.03	-0.750			
0.1410	9023.63	3.9550	3.9551	-0.8233	24.93	0.03	-0.750			
0.1434	9178.80	3.9520	3.9520	-0.8212	24.93	0.03	-0.750			
0.1459	9337.47	3.9490	3.9488	-0.8209	24.94	0.04	-0.750			
0.1484	9495.07	3.9460	3.9460	-0.8229	24.94	0.04	-0.750			
0.1508	9654.14	3.9430	3.9433	-0.8296	24.94	0.04	-0.750			
0.1534	9814.56	3.9400	3.9398	-0.8321	24.94	0.04	-0.750			
0.1559	9975.86	3.9370	3.9369	-0.8409	24.95	0.05	-0.750			
0.1584	10139.37	3.9340	3.9339	-0.8345	24.95	0.05	-0.750			
0.1610	10301.98	3.9310	3.9308	-0.8375	24.96	0.06	-0.750			
0.1635	10462.96	3.9280	3.9284	-0.8323	24.96	0.06	-0.750			
0.1659	10618.72	3.9250	3.9250	-0.8331	24.96	0.06	-0.750			
0.1684	10776.14	3.9220	3.9219	-0.8321	24.96	0.06	-0.750			
0.1708	10930.74	3.9190	3.9190	-0.8206	24.97	0.07	-0.750			
0.1734	11096.15	3.9160	3.9158	-0.8409	24.97	0.07	-0.750			
0.1759	11260.77	3.9130	3.9133	-0.8451	24.97	0.07	-0.750			
0.1785	11420.87	3.9100	3.9099	-0.8427	24.97	0.07	-0.750			
0.1810	11582.62	3.9070	3.9070	-0.8523	24.97	0.07	-0.750			
0.1835	11746.28	3.9040	3.9039	-0.8567	24.98	0.08	-0.750			
0.1861	11913.02	3.9010	3.9008	-0.8599	24.98	0.08	-0.750			
0.1888	12080.08	3.8980	3.8980	-0.8576	24.98	0.08	-0.750			
0.1913	12245.53	3.8950	3.8951	-0.8675	24.99	0.09	-0.750			
0.1940	12413.64	3.8920	3.8919	-0.8605	24.99	0.09	-0.750			
0.1965	12576.14	3.8890	3.8888	-0.8473	24.99	0.09	-0.750			
0.1991	12741.41	3.8860	3.8858	-0.8522	25.00	0.10	-0.750			
0.2016	12901.92	3.8830	3.8829	-0.8478	25.00	0.10	-0.750			
0.2041	13063.16	3.8800	3.8798	-0.8534	25.00	0.10	-0.750			
0.2066	13225.05	3.8770	3.8770	-0.8517	25.00	0.10	-0.750			
0.2092	13390.93	3.8740	3.8739	-0.8625	25.00	0.10	-0.750			
0.2119	13560.16	3.8710	3.8710	-0.8591	25.00	0.10	-0.750			
0.2144	13723.90	3.8680	3.8681	-0.8518	25.00	0.10	-0.750			
0.2169	13884.47	3.8650	3.8650	-0.8556	25.01	0.11	-0.750			
0.2195	14048.38	3.8620	3.8620	-0.8543	25.01	0.11	-0.750			
0.2220	14209.68	3.8590	3.8589	-0.8487	25.01	0.11	-0.750			
0.2246	14374.72	3.8560	3.8560	-0.8570	25.02	0.12	-0.750			
0.2271	14537.30	3.8530	3.8531	-0.8736	25.02	0.12	-0.750			
0.2298	14708.42	3.8500	3.8498	-0.8694	25.03	0.13	-0.750			
0.2325	14876.93	3.8470	3.8470	-0.8615	25.03	0.13	-0.750			
0.2350	15042.58	3.8440	3.8438	-0.8522	25.04	0.14	-0.750			
0.2376	15208.00	3.8410	3.8411	-0.8536	25.04	0.14	-0.750			
0.2402	15371.28	3.8380	3.8378	-0.8397	25.04	0.14	-0.750			
0.2426	15526.67	3.8350	3.8350	-0.8380	25.04	0.14	-0.750			
0.2451	15686.74	3.8320	3.8319	-0.8355	25.04	0.14	-0.750			
0.2477	15850.87	3.8290	3.8289	-0.8424	25.04	0.14	-0.750			
0.2502	16012.31	3.8260	3.8263	-0.8329	25.04	0.14	-0.750			
0.2527	16172.21	3.8230	3.8230	-0.8327	25.04	0.14	-0.750			
0.2552	16330.12	3.8200	3.8201	-0.8253	25.05	0.15	-0.750			
0.2576	16485.96	3.8170	3.8169	-0.8192	25.05	0.15	-0.750			
0.2600	16642.77	3.8140	3.8139	-0.8198	25.06	0.16	-0.750			
0.2625	16800.40	3.8110	3.8111	-0.8174	25.06	0.16	-0.750			
0.2650	16958.52	3.8080	3.8080	-0.8199	25.06	0.16	-0.750			
0.2674	17114.85	3.8050	3.8050	-0.8265	25.06	0.16	-0.750			
0.2699	17274.88	3.8020	3.8019	-0.8260	25.06	0.16	-0.750			
0.2724	17434.99	3.7990	3.7989	-0.8174	25.06	0.16	-0.750			
0.2749	17592.97	3.7960	3.7960	-0.8115	25.06	0.16	-0.750			
0.2773	17747.84	3.7930	3.7929	-0.8013	25.06	0.16	-0.750			
0.2797	17898.33	3.7900	3.7900	-0.7965	25.07	0.17	-0.750			
0.2820	18047.96	3.7870	3.7870	-0.7905	25.07	0.17	-0.750			
0.2843	18196.18	3.7840	3.7839	-0.7859	25.07	0.17	-0.750			
0.2868	18352.68	3.7810	3.7810	-0.7918	25.08	0.18	-0.750			
0.2891	18504.86	3.7780	3.7781	-0.7947	25.08	0.18	-0.750			
0.2915	18658.08	3.7750	3.7750	-0.7967	25.08	0.18	-0.750			
0.2939	18811.14	3.7720	3.7720	-0.7989	25.08	0.18	-0.750			
0.2963	18960.64	3.7690	3.7690	-0.7994	25.09	0.19	-0.750			
0.2987	19117.17	3.7660	3.7661	-0.8059	25.09	0.19	-0.750			
0.3011	19272.66	3.7630	3.7630	-0.8103	25.09	0.19	-0.750			
0.3035	19424.69	3.7600	3.7600	-0.8351	25.09	0.19	-0.750			
0.3061	19588.35	3.7570	3.7570	-0.8232	25.09	0.19	-0.750			
0.3086	19748.06	3.7540	3.7538	-0.8250	25.10	0.20	-0.750			
0.3110	19906.84	3.7510	3.7509	-0.8312	25.10	0.20	-0.750			
0.3135	20066.81	3.7480	3.7479	-0.8334	25.10	0.20	-0.750			
0.3160	20225.49	3.7450	3.7449	-0.8474	25.10	0.20	-0.750			
0.3186	20388.31	3.7420	3.7420	-0.8496	25.10	0.20	-0.750			
0.3211	20550.81	3.7390	3.7390	-0.8719	25.10	0.20	-0.750			
0.3237	20719.97	3.7360	3.7359	-0.8812	25.10	0.20	-0.750			
0.3264	20888.47	3.7330	3.7331	-0.8872	25.10	0.20	-0.750			
0.3290	21058.43	3.7300	3.7299	-0.9014	25.10	0.20	-0.750			
0.3318	21232.39	3.7270	3.7270	-0.9171	25.10	0.20	-0.750			
0.3345	21409.92	3.7240	3.7239	-0.9208	25.09	0.19	-0.750			
0.3374	21591.24	3.7210	3.7211	-0.9379	25.09	0.19	-0.750			
0.3402	21771.09	3.7180	3.7180	-0.9606	25.09	0.19	-0.750			
0.3431	21959.51	3.7150	3.7149	-0.9751	25.09	0.19	-0.750			
0.3461	22148.40	3.7120	3.7118	-0.9836	25.10	0.20	-0.750			
0.3490	22337.72	3.7090	3.7088	-0.9924	25.10	0.20	-0.750			
0.3520	22529.54	3.7060	3.7058	-1.0186	25.10	0.20	-0.750			
0.3551	22728.53	3.7030	3.7029	-1.0353	25.09	0.19	-0.750			
0.3582	22925.86	3.7000	3.6998	-1.0399	25.09	0.19	-0.750			
0.3614	23129.09	3.6970	3.6969	-1.0663	25.08	0.18	-0.750			
0.3646	23333.43	3.6940	3.6942	-1.0861	25.08	0.18	-0.750			
0.3679	23544.03	3.6910	3.6909	-1.0975	25.07	0.17	-0.750			
0.3712	23754.58	3.6880	3.6880	-1.1129	25.07	0.17	-0.750			
0.3744	23961.26	3.6850	3.6851	-1.1517	25.06	0.16	-0.750			
0.3780	24192.17	3.6820	3.6820	-1.1637	25.06	0.16	-0.750			
0.3816	24422.33	3.6790	3.6788	-1.1805	25.05	0.15	-0.750			
0.3851	24647.33	3.6760	3.6759	-1.2011	25.04	0.14	-0.750			
0.3887	24878.08	3.6730	3.6732	-1.2235	25.04	0.14	-0.750			
0.3925	25118.67	3.6700	3.6699	-1.2482	25.04	0.14	-0.750			
0.3962	25358.48	3.6670	3.6669	-1.2585	25.03	0.13	-0.750			
0.4000	25601.70	3.6640	3.6641	-1.3021	25.03	0.13	-0.750			
0.4040	25853.05	3.6610	3.6610	-1.3139	25.02	0.12	-0.750			
0.4078	26096.98	3.6580	3.6580	-1.3561	25.02	0.12	-0.750			
0.4119	26360.45	3.6550	3.6550	-1.3739	25.01	0.11	-0.750			
0.4161	26629.14	3.6520	3.6520	-1.4005	25.01	0.11	-0.750			
0.4204	26907.92	3.6490	3.6488	-1.4311	25.00	0.10	-0.750			
0.4248	27185.94	3.6460	3.6462	-1.4518	25.00	0.10	-0.750			
0.4291	27461.61	3.6430	3.6430	-1.4776	24.99	0.09	-0.750			
0.4336	27749.50	3.6400	3.6400	-1.4981	24.99	0.09	-0.750			
0.4381	28039.05	3.6370	3.6371	-1.5137	24.98	0.08	-0.750			
0.4427	28330.83	3.6340	3.6338	-1.5624	24.97	0.07	-0.750			
0.4474	28636.28	3.6310	3.6313	-1.5787	24.96	0.06	-0.750			
0.4523	28944.08	3.6280	3.6280	-1.6093	24.96	0.06	-0.750			
0.4571	29251.76	3.6250	3.6249	-1.6471	24.96	0.06	-0.750			
0.4619	29563.66	3.6220	3.6219	-1.6999	24.96	0.06	-0.750			
0.4672	29898.05	3.6190	3.6190	-1.7245	24.95	0.05	-0.750			
0.4726	30244.22	3.6160	3.6159	-1.7553	24.94	0.04	-0.750			
0.4779	30585.36	3.6130	3.6130	-1.7523	24.94	0.04	-0.750			
0.4833	30928.26	3.6100	3.6101	-1.7539	24.94	0.04	-0.750			
0.4886	31267.36	3.6070	3.6071	-1.7557	24.94	0.04	-0.750			
0.4936	31593.26	3.6040	3.6036	-1.7887	24.94	0.04	-0.750			
0.4988	31924.91	3.6010	3.6005	-1.8421	24.94	0.04	-0.750			
0.5046	32294.08	3.5980	3.5979	-1.8985	24.94	0.04	-0.750			
0.5106	32678.29	3.5950	3.5953	-1.9781	24.94	0.04	-0.750			
0.5164	33047.01	3.5920	3.5919	-2.0588	24.94	0.04	-0.750			
0.5228	33457.76	3.5890	3.5888	-2.0742	24.94	0.04	-0.750			
0.5290	33854.11	3.5860	3.5863	-2.1343	24.94	0.04	-0.750			
0.5353	34258.92	3.5830	3.5826	-2.1895	24.94	0.04	-0.750			
0.5422	34700.01	3.5800	3.5802	-2.2435	24.94	0.04	-0.750			
0.5493	35154.40	3.5770	3.5770	-2.2879	24.94	0.04	-0.750			
0.5561	35589.19	3.5740	3.5743	-2.3478	24.94	0.04	-0.750			
0.5629	36023.43	3.5710	3.5710	-2.2583	24.94	0.04	-0.750			
0.5697	36462.10	3.5680	3.5678	-2.2517	24.95	0.05	-0.750			
0.5764	36891.22	3.5650	3.5652	-2.2959	24.95	0.05	-0.750			
0.5832	37323.98	3.5620	3.5624	-2.2980	24.96	0.06	-0.750			
0.5902	37772.04	3.5590	3.5591	-2.2967	24.96	0.06	-0.750			
0.5974	38232.88	3.5560	3.5555	-2.2694	24.96	0.06	-0.750			
0.6040	38655.39	3.5530	3.5534	-2.2585	24.97	0.07	-0.750			
0.6108	39090.62	3.5500	3.5497	-2.2441	24.98	0.08	-0.750			
0.6175	39522.37	3.5470	3.5473	-2.3122	24.99	0.09	-0.750			
0.6246	39971.48	3.5440	3.5443	-2.3035	25.00	0.10	-0.750			
0.6315	40417.79	3.5410	3.5411	-2.2884	25.00	0.10	-0.750			
0.6381	40837.75	3.5380	3.5384	-2.1812	25.00	0.10	-0.750			
0.6447	41258.77	3.5350	3.5352	-2.1086	25.02	0.12	-0.750			
0.6509	41655.87	3.5320	3.5323	-2.0223	25.03	0.13	-0.750			
0.6569	42042.10	3.5290	3.5292	-2.0079	25.05	0.15	-0.750			
0.6627	42413.33	3.5260	3.5259	-1.9022	25.06	0.16	-0.750			
0.6682	42766.96	3.5230	3.5229	-1.8581	25.07	0.17	-0.750			
0.6739	43132.08	3.5200	3.5198	-1.8085	25.09	0.19	-0.750			
0.6792	43471.07	3.5170	3.5169	-1.7630	25.10	0.20	-0.750			
0.6845	43805.52	3.5140	3.5139	-1.6958	25.11	0.21	-0.750			
0.6895	44128.13	3.5110	3.5110	-1.6330	25.13	0.23	-0.750			
0.6944	44439.07	3.5080	3.5078	-1.5899	25.15	0.25	-0.750			
0.6989	44726.44	3.5050	3.5049	-1.5180	25.16	0.26	-0.750			
0.7033	45011.74	3.5020	3.5019	-1.4736	25.18	0.28	-0.750			
0.7078	45299.00	3.4990	3.4989	-1.4364	25.19	0.29	-0.750			
0.7119	45561.19	3.4960	3.4960	-1.3958	25.21	0.31	-0.750			
0.7160	45827.19	3.4930	3.4930	-1.3718	25.22	0.32	-0.750			
0.7202	46091.25	3.4900	3.4898	-1.3381	25.23	0.33	-0.750			
0.7242	46346.81	3.4870	3.4870	-1.3566	25.25	0.35	-0.750			
