Ah_balance (normalized)	Ah_balance (mAh)	Voltage - fit (V)	Voltage -  interpolate (V)	dQ/dV (1/V)	Temperature (°C)	Temperature - diff (°C)	Current (C)	R_DC 0ms (mOhm)	R_DC 50ms (mOhm)	R_DC 50 ms PEC (mOhm)
0.0004	24.86	4.1650	4.1650	-0.1430	24.55	0.01	-0.750			
0.0009	57.07	4.1620	4.1621	-0.1923	24.54	0.00	-0.750			
0.0016	99.50	4.1590	4.1590	-0.2398	24.54	0.00	-0.750			
0.0023	150.23	4.1560	4.1560	-0.2845	24.54	0.00	-0.750			
0.0033	209.27	4.1530	4.1530	-0.3281	24.54	0.00	-0.750			
0.0043	277.20	4.1500	4.1501	-0.3715	24.54	-0.00	-0.750			
0.0055	352.89	4.1470	4.1470	-0.4129	24.54	-0.00	-0.750			
0.0068	436.75	4.1440	4.1440	-0.4524	24.54	-0.00	-0.750			
0.0082	527.74	4.1410	4.1410	-0.4905	24.53	-0.01	-0.750			
0.0098	626.34	4.1380	4.1380	-0.5268	24.53	-0.01	-0.750			
0.0114	732.12	4.1350	4.1350	-0.5596	24.53	-0.01	-0.750			
0.0132	843.79	4.1320	4.1320	-0.5845	24.53	-0.01	-0.750			
0.0150	959.22	4.1290	4.1291	-0.6112	24.52	-0.02	-0.750			
0.0169	1078.89	4.1260	4.1261	-0.6327	24.52	-0.02	-0.750			
0.0188	1203.91	4.1230	4.1230	-0.6504	24.52	-0.02	-0.750			
0.0208	1329.59	4.1200	4.1200	-0.6666	24.51	-0.03	-0.750			
0.0228	1459.54	4.1170	4.1170	-0.6801	24.51	-0.03	-0.750			
0.0249	1592.95	4.1140	4.1140	-0.6923	24.51	-0.03	-0.750			
0.0270	1727.46	4.1110	4.1109	-0.7004	24.50	-0.04	-0.750			
0.0291	1862.21	4.1080	4.1083	-0.7106	24.50	-0.04	-0.750			
0.0313	2000.07	4.1050	4.1050	-0.7206	24.50	-0.04	-0.750			
0.0334	2139.53	4.1020	4.1019	-0.7322	24.50	-0.04	-0.750			
0.0356	2280.88	4.0990	4.0990	-0.7367	24.50	-0.04	-0.750			
0.0379	2424.48	4.0960	4.0960	-0.7433	24.50	-0.04	-0.750			
0.0401	2567.58	4.0930	4.0930	-0.7480	24.50	-0.04	-0.750			
0.0424	2712.20	4.0900	4.0900	-0.7520	24.50	-0.04	-0.750			
0.0446	2855.49	4.0870	4.0870	-0.7549	24.49	-0.05	-0.750			
0.0469	3001.03	4.0840	4.0840	-0.7586	24.49	-0.05	-0.750			
0.0492	3146.48	4.0810	4.0810	-0.7646	24.49	-0.05	-0.750			
0.0515	3294.59	4.0780	4.0780	-0.7711	24.48	-0.06	-0.750			
0.0538	3444.10	4.0750	4.0751	-0.7741	24.48	-0.06	-0.750			
0.0561	3592.84	4.0720	4.0720	-0.7745	24.48	-0.06	-0.750			
0.0585	3742.19	4.0690	4.0690	-0.7787	24.48	-0.06	-0.750			
0.0608	3892.16	4.0660	4.0660	-0.7780	24.48	-0.06	-0.750			
0.0631	4041.43	4.0630	4.0630	-0.7786	24.48	-0.06	-0.750			
0.0655	4191.13	4.0600	4.0599	-0.7760	24.48	-0.06	-0.750			
0.0678	4339.01	4.0570	4.0570	-0.7828	24.48	-0.06	-0.750			
0.0701	4489.36	4.0540	4.0540	-0.7878	24.48	-0.06	-0.750			
0.0725	4640.68	4.0510	4.0510	-0.7907	24.48	-0.06	-0.750			
0.0749	4792.74	4.0480	4.0480	-0.7940	24.49	-0.05	-0.750			
0.0773	4948.06	4.0450	4.0450	-0.7992	24.49	-0.05	-0.750			
0.0797	5102.09	4.0420	4.0420	-0.7973	24.49	-0.05	-0.750			
0.0821	5256.24	4.0390	4.0390	-0.7955	24.49	-0.05	-0.750			
0.0845	5406.57	4.0360	4.0360	-0.7941	24.49	-0.05	-0.750			
0.0869	5558.76	4.0330	4.0331	-0.7980	24.50	-0.04	-0.750			
0.0893	5712.80	4.0300	4.0299	-0.8000	24.50	-0.04	-0.750			
0.0917	5866.94	4.0270	4.0271	-0.8020	24.50	-0.04	-0.750			
0.0941	6021.56	4.0240	4.0241	-0.8036	24.50	-0.04	-0.750			
0.0965	6176.03	4.0210	4.0210	-0.8079	24.50	-0.04	-0.750			
0.0989	6332.19	4.0180	4.0179	-0.8081	24.50	-0.04	-0.750			
0.1014	6487.93	4.0150	4.0149	-0.8079	24.50	-0.04	-0.750			
0.1038	6641.24	4.0120	4.0123	-0.8102	24.50	-0.04	-0.750			
0.1062	6798.00	4.0090	4.0090	-0.8145	24.50	-0.04	-0.750			
0.1087	6954.30	4.0060	4.0059	-0.8165	24.50	-0.04	-0.750			
0.1111	7110.80	4.0030	4.0030	-0.8154	24.51	-0.03	-0.750			
0.1136	7269.18	4.0000	4.0000	-0.8229	24.51	-0.03	-0.750			
0.1160	7426.70	3.9970	3.9971	-0.8219	24.51	-0.03	-0.750			
0.1185	7584.50	3.9940	3.9939	-0.8244	24.51	-0.03	-0.750			
0.1210	7741.81	3.9910	3.9910	-0.8242	24.51	-0.03	-0.750			
0.1234	7900.36	3.9880	3.9880	-0.8279	24.52	-0.02	-0.750			
0.1259	8059.90	3.9850	3.9850	-0.8278	24.52	-0.02	-0.750			
0.1284	8220.21	3.9820	3.9821	-0.8317	24.52	-0.02	-0.750			
0.1309	8379.88	3.9790	3.9790	-0.8276	24.52	-0.02	-0.750			
0.1334	8537.86	3.9760	3.9759	-0.8343	24.52	-0.02	-0.750			
0.1359	8697.91	3.9730	3.9730	-0.8379	24.53	-0.01	-0.750			
0.1384	8858.83	3.9700	3.9699	-0.8401	24.53	-0.01	-0.750			
0.1410	9021.88	3.9670	3.9671	-0.8435	24.53	-0.01	-0.750			
0.1435	9184.45	3.9640	3.9640	-0.8489	24.53	-0.01	-0.750			
0.1461	9347.53	3.9610	3.9610	-0.8508	24.53	-0.01	-0.750			
0.1486	9511.77	3.9580	3.9580	-0.8522	24.54	-0.00	-0.750			
0.1512	9673.90	3.9550	3.9550	-0.8488	24.54	-0.00	-0.750			
0.1537	9839.68	3.9520	3.9520	-0.8505	24.54	-0.00	-0.750			
0.1563	10002.48	3.9490	3.9490	-0.8537	24.54	0.00	-0.750			
0.1588	10165.67	3.9460	3.9461	-0.8584	24.54	0.00	-0.750			
0.1614	10329.76	3.9430	3.9429	-0.8587	24.55	0.01	-0.750			
0.1640	10494.99	3.9400	3.9400	-0.8632	24.55	0.01	-0.750			
0.1666	10661.67	3.9370	3.9372	-0.8660	24.55	0.01	-0.750			
0.1692	10827.60	3.9340	3.9339	-0.8737	24.55	0.01	-0.750			
0.1718	10997.20	3.9310	3.9311	-0.8749	24.55	0.01	-0.750			
0.1744	11164.27	3.9280	3.9279	-0.8735	24.56	0.02	-0.750			
0.1771	11333.93	3.9250	3.9250	-0.8766	24.56	0.02	-0.750			
0.1797	11502.92	3.9220	3.9220	-0.8755	24.56	0.02	-0.750			
0.1823	11669.34	3.9190	3.9190	-0.8767	24.57	0.03	-0.750			
0.1850	11837.76	3.9160	3.9160	-0.8774	24.57	0.03	-0.750			
0.1876	12003.95	3.9130	3.9129	-0.8768	24.57	0.03	-0.750			
0.1902	12174.90	3.9100	3.9099	-0.8822	24.58	0.04	-0.750			
0.1929	12344.19	3.9070	3.9070	-0.8825	24.58	0.04	-0.750			
0.1955	12513.09	3.9040	3.9040	-0.8865	24.59	0.05	-0.750			
0.1982	12685.00	3.9010	3.9010	-0.8850	24.59	0.05	-0.750			
0.2008	12853.55	3.8980	3.8979	-0.8837	24.60	0.06	-0.750			
0.2035	13023.42	3.8950	3.8950	-0.8899	24.60	0.06	-0.750			
0.2061	13193.29	3.8920	3.8921	-0.8915	24.60	0.06	-0.750			
0.2088	13365.56	3.8890	3.8889	-0.8938	24.61	0.07	-0.750			
0.2115	13538.28	3.8860	3.8860	-0.8947	24.61	0.07	-0.750			
0.2142	13709.88	3.8830	3.8829	-0.8957	24.62	0.08	-0.750			
0.2169	13883.71	3.8800	3.8801	-0.9010	24.62	0.08	-0.750			
0.2196	14055.41	3.8770	3.8770	-0.9005	24.62	0.08	-0.750			
0.2223	14227.42	3.8740	3.8740	-0.8995	24.62	0.08	-0.750			
0.2250	14401.77	3.8710	3.8710	-0.9000	24.63	0.09	-0.750			
0.2277	14574.35	3.8680	3.8680	-0.9014	24.63	0.09	-0.750			
0.2304	14746.27	3.8650	3.8650	-0.9038	24.63	0.09	-0.750			
0.2331	14920.90	3.8620	3.8620	-0.9059	24.63	0.09	-0.750			
0.2359	15095.06	3.8590	3.8590	-0.9060	24.64	0.10	-0.750			
0.2386	15269.86	3.8560	3.8560	-0.9040	24.64	0.10	-0.750			
0.2413	15443.65	3.8530	3.8532	-0.9044	24.64	0.10	-0.750			
0.2440	15615.87	3.8500	3.8499	-0.9106	24.64	0.10	-0.750			
0.2467	15790.76	3.8470	3.8471	-0.9061	24.65	0.11	-0.750			
0.2494	15963.26	3.8440	3.8439	-0.9034	24.65	0.11	-0.750			
0.2522	16139.50	3.8410	3.8410	-0.9114	24.66	0.12	-0.750			
0.2549	16313.82	3.8380	3.8380	-0.9077	24.66	0.12	-0.750			
0.2576	16488.36	3.8350	3.8350	-0.9106	24.67	0.13	-0.750			
0.2603	16662.32	3.8320	3.8320	-0.9062	24.67	0.13	-0.750			
0.2630	16833.97	3.8290	3.8290	-0.9032	24.67	0.13	-0.750			
0.2658	17011.10	3.8260	3.8260	-0.9074	24.68	0.14	-0.750			
0.2685	17183.16	3.8230	3.8230	-0.9113	24.68	0.14	-0.750			
0.2712	17358.05	3.8200	3.8200	-0.9141	24.68	0.14	-0.750			
0.2740	17534.81	3.8170	3.8169	-0.9099	24.69	0.15	-0.750			
0.2767	17709.53	3.8140	3.8140	-0.9063	24.69	0.15	-0.750			
0.2795	17888.16	3.8110	3.8111	-0.8944	24.69	0.15	-0.750			
0.2822	18059.12	3.8080	3.8078	-0.8743	24.69	0.15	-0.750			
0.2848	18226.30	3.8050	3.8051	-0.8682	24.69	0.15	-0.750			
0.2873	18387.60	3.8020	3.8022	-0.8553	24.70	0.16	-0.750			
0.2898	18547.29	3.7990	3.7987	-0.8607	24.70	0.16	-0.750			
0.2924	18712.27	3.7960	3.7959	-0.8713	24.70	0.16	-0.750			
0.2950	18877.65	3.7930	3.7930	-0.8812	24.70	0.16	-0.750			
0.2977	19050.00	3.7900	3.7900	-0.8986	24.71	0.17	-0.750			
0.3004	19226.89	3.7870	3.7871	-0.9015	24.71	0.17	-0.750			
0.3032	19406.08	3.7840	3.7840	-0.9111	24.71	0.17	-0.750			
0.3059	19578.43	3.7810	3.7810	-0.9116	24.71	0.17	-0.750			
0.3086	19752.38	3.7780	3.7780	-0.9134	24.71	0.17	-0.750			
0.3114	19927.91	3.7750	3.7750	-0.9103	24.72	0.18	-0.750			
0.3141	20102.93	3.7720	3.7718	-0.9089	24.72	0.18	-0.750			
0.3169	20279.07	3.7690	3.7692	-0.9111	24.72	0.18	-0.750			
0.3196	20454.52	3.7660	3.7660	-0.9209	24.72	0.18	-0.750			
0.3224	20632.84	3.7630	3.7628	-0.9201	24.72	0.18	-0.750			
0.3251	20808.62	3.7600	3.7599	-0.9159	24.72	0.18	-0.750			
0.3279	20983.92	3.7570	3.7572	-0.9148	24.72	0.18	-0.750			
0.3306	21159.72	3.7540	3.7539	-0.9149	24.72	0.18	-0.750			
0.3334	21334.77	3.7510	3.7509	-0.9137	24.72	0.18	-0.750			
0.3361	21507.97	3.7480	3.7480	-0.9126	24.73	0.19	-0.750			
0.3387	21678.94	3.7450	3.7449	-0.9130	24.73	0.19	-0.750			
0.3416	21860.25	3.7420	3.7423	-0.9248	24.73	0.19	-0.750			
0.3443	22037.51	3.7390	3.7390	-0.9347	24.73	0.19	-0.750			
0.3472	22218.61	3.7360	3.7360	-0.9418	24.73	0.19	-0.750			
0.3500	22400.94	3.7330	3.7329	-0.9480	24.74	0.20	-0.750			
0.3529	22582.92	3.7300	3.7300	-0.9522	24.74	0.20	-0.750			
0.3557	22764.92	3.7270	3.7270	-0.9657	24.74	0.20	-0.750			
0.3586	22951.85	3.7240	3.7240	-0.9664	24.74	0.20	-0.750			
0.3615	23138.66	3.7210	3.7209	-0.9707	24.74	0.20	-0.750			
0.3644	23322.80	3.7180	3.7179	-0.9754	24.74	0.20	-0.750			
0.3674	23510.82	3.7150	3.7150	-0.9944	24.74	0.20	-0.750			
0.3703	23701.84	3.7120	3.7120	-1.0098	24.74	0.20	-0.750			
0.3734	23898.98	3.7090	3.7089	-1.0160	24.74	0.20	-0.750			
0.3764	24091.88	3.7060	3.7061	-1.0291	24.74	0.20	-0.750	0.409	0.494	
0.3796	24295.11	3.7030	3.7032	-1.0681	24.74	0.20	-0.750			
0.3829	24502.89	3.7000	3.6999	-1.0795	24.74	0.20	-0.750			
0.3861	24710.75	3.6970	3.6968	-1.0913	24.74	0.20	-0.750			
0.3894	24921.86	3.6940	3.6940	-1.1098	24.74	0.20	-0.750			
0.3928	25137.85	3.6910	3.6910	-1.1388	24.74	0.20	-0.750			
0.3963	25361.52	3.6880	3.6879	-1.1525	24.74	0.20	-0.750			
0.3997	25581.53	3.6850	3.6850	-1.1665	24.74	0.20	-0.750			
0.4032	25806.56	3.6820	3.6822	-1.1845	24.74	0.20	-0.750			
0.4069	26038.45	3.6790	3.6788	-1.2229	24.74	0.20	-0.750			
0.4105	26275.17	3.6760	3.6760	-1.2381	24.73	0.19	-0.750			
0.4142	26511.46	3.6730	3.6730	-1.2699	24.72	0.18	-0.750			
0.4181	26757.28	3.6700	3.6701	-1.2933	24.72	0.18	-0.750			
0.4221	27014.75	3.6670	3.6670	-1.3300	24.72	0.18	-0.750			
0.4261	27268.06	3.6640	3.6639	-1.3686	24.71	0.17	-0.750			
0.4302	27535.59	3.6610	3.6610	-1.3862	24.71	0.17	-0.750			
0.4345	27806.07	3.6580	3.6579	-1.4284	24.70	0.16	-0.750			
0.4389	28087.42	3.6550	3.6548	-1.4620	24.69	0.15	-0.750			
0.4432	28367.69	3.6520	3.6519	-1.4822	24.69	0.15	-0.750			
0.4477	28654.87	3.6490	3.6491	-1.5248	24.68	0.14	-0.750			
0.4523	28948.49	3.6460	3.6459	-1.5533	24.67	0.13	-0.750			
0.4570	29246.43	3.6430	3.6429	-1.5886	24.66	0.12	-0.750			
0.4619	29563.56	3.6400	3.6398	-1.6530	24.65	0.11	-0.750			
0.4670	29884.92	3.6370	3.6372	-1.6853	24.64	0.10	-0.750			
0.4722	30219.17	3.6340	3.6342	-1.7335	24.64	0.10	-0.750			
0.4774	30554.56	3.6310	3.6310	-1.7737	24.63	0.09	-0.750			
0.4828	30900.05	3.6280	3.6279	-1.7937	24.62	0.08	-0.750			
0.4882	31246.21	3.6250	3.6248	-1.8322	24.62	0.08	-0.750			
0.4937	31597.55	3.6220	3.6219	-1.8814	24.61	0.07	-0.750			
0.4994	31963.90	3.6190	3.6189	-1.8921	24.60	0.06	-0.750			
0.5053	32341.79	3.6160	3.6161	-1.9489	24.59	0.05	-0.750			
0.5111	32713.30	3.6130	3.6128	-1.9685	24.58	0.04	-0.750			
0.5171	33092.50	3.6100	3.6101	-1.9943	24.58	0.04	-0.750			
0.5231	33481.47	3.6070	3.6072	-2.0314	24.57	0.03	-0.750			
0.5293	33874.79	3.6040	3.6039	-2.0853	24.56	0.02	-0.750			
0.5356	34277.55	3.6010	3.6012	-2.1112	24.55	0.01	-0.750			
0.5420	34686.83	3.5980	3.5980	-2.1613	24.54	-0.00	-0.750			
0.5487	35116.75	3.5950	3.5948	-2.1891	24.53	-0.01	-0.750			
0.5552	35531.37	3.5920	3.5921	-2.2182	24.52	-0.02	-0.750			
0.5619	35960.43	3.5890	3.5892	-2.2634	24.51	-0.03	-0.750			
0.5687	36397.89	3.5860	3.5860	-2.2725	24.51	-0.03	-0.750			
0.5757	36845.93	3.5830	3.5830	-2.3340	24.50	-0.04	-0.750			
0.5827	37291.94	3.5800	3.5802	-2.3730	24.50	-0.04	-0.750			
0.5898	37748.54	3.5770	3.5771	-2.3858	24.49	-0.05	-0.750			
0.5971	38216.93	3.5740	3.5740	-2.3829	24.49	-0.05	-0.750			
0.6044	38679.00	3.5710	3.5709	-2.4075	24.49	-0.05	-0.750			
0.6114	39131.73	3.5680	3.5680	-2.4069	24.48	-0.06	-0.750			
0.6186	39591.76	3.5650	3.5652	-2.4065	24.48	-0.06	-0.750			
0.6260	40063.58	3.5620	3.5619	-2.3990	24.48	-0.06	-0.750			
0.6333	40531.64	3.5590	3.5589	-2.4092	24.48	-0.06	-0.750			
0.6405	40988.88	3.5560	3.5560	-2.3718	24.48	-0.06	-0.750			
0.6474	41431.10	3.5530	3.5532	-2.3472	24.48	-0.06	-0.750			
0.6544	41881.52	3.5500	3.5500	-2.3169	24.48	-0.06	-0.750			
0.6614	42326.60	3.5470	3.5469	-2.2961	24.49	-0.05	-0.750			
0.6682	42765.42	3.5440	3.5438	-2.2535	24.50	-0.04	-0.750			
0.6750	43197.24	3.5410	3.5412	-2.2432	24.50	-0.04	-0.750			
0.6816	43623.95	3.5380	3.5381	-2.1917	24.50	-0.04	-0.750			
0.6883	44054.06	3.5350	3.5346	-2.1514	24.52	-0.02	-0.750			
0.6945	44448.72	3.5320	3.5323	-2.0683	24.53	-0.01	-0.750			
0.7007	44843.14	3.5290	3.5293	-2.0292	24.53	-0.01	-0.750			
0.7066	45225.27	3.5260	3.5258	-1.9720	24.54	0.00	-0.750			
0.7125	45603.14	3.5230	3.5228	-1.9176	24.55	0.01	-0.750			
0.7183	45973.28	3.5200	3.5199	-1.8688	24.57	0.03	-0.750			
0.7238	46324.45	3.5170	3.5170	-1.8364	24.58	0.04	-0.750			
0.7292	46666.50	3.5140	3.5140	-1.7536	24.60	0.06	-0.750			
0.7344	46999.44	3.5110	3.5110	-1.6812	24.62	0.08	-0.750			
0.7393	47315.70	3.5080	3.5080	-1.6193	24.63	0.09	-0.750			
0.7441	47624.93	3.5050	3.5048	-1.5188	24.65	0.11	-0.750			
0.7485	47903.54	3.5020	3.5020	-1.3439	24.66	0.12	-0.750			
