Ah_balance (normalized)	Ah_balance (mAh)	Voltage - fit (V)	Voltage -  interpolate (V)	dQ/dV (1/V)	Temperature (°C)	Temperature - diff (°C)	Current (C)	R_DC 0ms (mOhm)	R_DC 50ms (mOhm)	R_DC 50 ms PEC (mOhm)
0.0003	18.49	4.1600	4.1597	-0.1137	24.88	0.00	-0.750			
0.0007	44.32	4.1570	4.1570	-0.1575	24.88	-0.00	-0.750			
0.0013	80.59	4.1540	4.1539	-0.2018	24.88	-0.00	-0.750			
0.0019	122.72	4.1510	4.1511	-0.2417	24.88	-0.00	-0.750			
0.0027	173.46	4.1480	4.1479	-0.2794	24.88	-0.00	-0.750			
0.0036	231.91	4.1450	4.1450	-0.3174	24.88	-0.00	-0.750			
0.0046	296.11	4.1420	4.1419	-0.3541	24.87	-0.01	-0.750			
0.0057	367.44	4.1390	4.1390	-0.3877	24.87	-0.01	-0.750			
0.0069	444.70	4.1360	4.1361	-0.4235	24.87	-0.01	-0.750			
0.0083	531.11	4.1330	4.1330	-0.4621	24.87	-0.01	-0.750			
0.0098	625.01	4.1300	4.1297	-0.4868	24.87	-0.01	-0.750			
0.0113	722.91	4.1270	4.1270	-0.5162	24.86	-0.02	-0.750			
0.0129	824.78	4.1240	4.1250	-0.5367	24.86	-0.02	-0.750			
0.0146	932.36	4.1210	4.1210	-0.5519	24.86	-0.02	-0.750			
0.0162	1039.05	4.1180	4.1179	-0.5670	24.85	-0.03	-0.750			
0.0179	1145.33	4.1150	4.1151	-0.5816	24.85	-0.03	-0.750			
0.0197	1258.64	4.1120	4.1122	-0.6032	24.84	-0.04	-0.750			
0.0216	1379.55	4.1090	4.1087	-0.6272	24.84	-0.04	-0.750			
0.0235	1501.82	4.1060	4.1060	-0.6423	24.83	-0.05	-0.750			
0.0255	1629.73	4.1030	4.1034	-0.6536	24.83	-0.05	-0.750			
0.0275	1759.94	4.1000	4.0999	-0.6658	24.83	-0.05	-0.750			
0.0295	1885.74	4.0970	4.0971	-0.6721	24.83	-0.05	-0.750			
0.0314	2012.11	4.0940	4.0941	-0.6736	24.83	-0.05	-0.750			
0.0335	2144.69	4.0910	4.0908	-0.6841	24.82	-0.06	-0.750			
0.0355	2275.11	4.0880	4.0879	-0.6871	24.82	-0.06	-0.750			
0.0376	2407.96	4.0850	4.0851	-0.6956	24.82	-0.06	-0.750			
0.0397	2543.16	4.0820	4.0820	-0.7031	24.82	-0.06	-0.750			
0.0419	2679.37	4.0790	4.0790	-0.7073	24.82	-0.06	-0.750			
0.0440	2815.46	4.0760	4.0759	-0.7225	24.82	-0.06	-0.750			
0.0462	2956.40	4.0730	4.0729	-0.7195	24.82	-0.06	-0.750			
0.0484	3098.12	4.0700	4.0698	-0.7239	24.82	-0.06	-0.750			
0.0506	3236.56	4.0670	4.0678	-0.7199	24.82	-0.06	-0.750			
0.0527	3375.22	4.0640	4.0638	-0.7159	24.82	-0.06	-0.750			
0.0548	3509.31	4.0610	4.0610	-0.7212	24.83	-0.05	-0.750			
0.0569	3643.38	4.0580	4.0581	-0.7084	24.83	-0.05	-0.750			
0.0592	3786.67	4.0550	4.0549	-0.7311	24.83	-0.05	-0.750			
0.0614	3927.01	4.0520	4.0519	-0.7346	24.84	-0.04	-0.750			
0.0636	4067.92	4.0490	4.0492	-0.7396	24.84	-0.04	-0.750			
0.0658	4210.79	4.0460	4.0459	-0.7449	24.84	-0.04	-0.750			
0.0681	4355.32	4.0430	4.0429	-0.7485	24.84	-0.04	-0.750			
0.0703	4498.23	4.0400	4.0400	-0.7450	24.84	-0.04	-0.750			
0.0726	4644.26	4.0370	4.0370	-0.7486	24.84	-0.04	-0.750			
0.0748	4787.51	4.0340	4.0340	-0.7480	24.84	-0.04	-0.750			
0.0770	4929.40	4.0310	4.0309	-0.7477	24.84	-0.04	-0.750			
0.0792	5069.42	4.0280	4.0280	-0.7682	24.85	-0.03	-0.750			
0.0815	5218.98	4.0250	4.0249	-0.7560	24.85	-0.03	-0.750			
0.0838	5365.48	4.0220	4.0219	-0.7564	24.85	-0.03	-0.750			
0.0862	5513.81	4.0190	4.0189	-0.7599	24.86	-0.02	-0.750			
0.0884	5659.04	4.0160	4.0161	-0.7573	24.86	-0.02	-0.750			
0.0907	5801.89	4.0130	4.0129	-0.7549	24.86	-0.02	-0.750			
0.0929	5947.22	4.0100	4.0099	-0.7566	24.86	-0.02	-0.750			
0.0952	6089.95	4.0070	4.0070	-0.7530	24.86	-0.02	-0.750			
0.0975	6239.97	4.0040	4.0040	-0.7649	24.86	-0.02	-0.750			
0.0998	6386.48	4.0010	4.0012	-0.7645	24.86	-0.02	-0.750			
0.1021	6531.71	3.9980	3.9977	-0.7668	24.86	-0.02	-0.750			
0.1043	6675.69	3.9950	3.9950	-0.7719	24.87	-0.01	-0.750			
0.1067	6825.61	3.9920	3.9920	-0.7761	24.87	-0.01	-0.750			
0.1090	6975.39	3.9890	3.9889	-0.7817	24.87	-0.01	-0.750			
0.1114	7130.75	3.9860	3.9860	-0.7884	24.88	-0.00	-0.750			
0.1138	7281.81	3.9830	3.9832	-0.7855	24.88	0.00	-0.750			
0.1161	7430.61	3.9800	3.9800	-0.7926	24.88	0.00	-0.750			
0.1185	7584.55	3.9770	3.9769	-0.7899	24.88	0.00	-0.750			
0.1209	7734.62	3.9740	3.9740	-0.7857	24.88	0.00	-0.750			
0.1232	7887.69	3.9710	3.9709	-0.7893	24.88	0.00	-0.750			
0.1256	8039.35	3.9680	3.9689	-0.7913	24.88	0.00	-0.750			
0.1279	8188.57	3.9650	3.9649	-0.7969	24.88	0.00	-0.750			
0.1303	8339.24	3.9620	3.9621	-0.8014	24.89	0.01	-0.750			
0.1327	8493.28	3.9590	3.9589	-0.8103	24.89	0.01	-0.750			
0.1352	8651.96	3.9560	3.9558	-0.8259	24.90	0.02	-0.750			
0.1377	8813.29	3.9530	3.9532	-0.8316	24.90	0.02	-0.750			
0.1402	8975.07	3.9500	3.9500	-0.8282	24.90	0.02	-0.750			
0.1428	9136.11	3.9470	3.9470	-0.8313	24.91	0.03	-0.750			
0.1453	9296.77	3.9440	3.9439	-0.8204	24.91	0.03	-0.750			
0.1477	9450.97	3.9410	3.9409	-0.8102	24.92	0.04	-0.750			
0.1501	9605.50	3.9380	3.9382	-0.8018	24.92	0.04	-0.750			
0.1525	9756.94	3.9350	3.9350	-0.8039	24.92	0.04	-0.750			
0.1549	9911.35	3.9320	3.9319	-0.8143	24.92	0.04	-0.750			
0.1573	10068.69	3.9290	3.9288	-0.8151	24.92	0.04	-0.750			
0.1598	10226.01	3.9260	3.9260	-0.8065	24.92	0.04	-0.750			
0.1623	10385.33	3.9230	3.9233	-0.8145	24.92	0.04	-0.750			
0.1647	10541.35	3.9200	3.9199	-0.8073	24.92	0.04	-0.750			
0.1671	10693.79	3.9170	3.9169	-0.8041	24.92	0.04	-0.750			
0.1694	10844.02	3.9140	3.9140	-0.8048	24.93	0.05	-0.750			
0.1718	10996.19	3.9110	3.9112	-0.8067	24.93	0.05	-0.750			
0.1743	11157.61	3.9080	3.9078	-0.8176	24.93	0.05	-0.750			
0.1768	11316.16	3.9050	3.9050	-0.8146	24.93	0.05	-0.750			
0.1792	11469.81	3.9020	3.9021	-0.8203	24.93	0.05	-0.750			
0.1817	11630.00	3.8990	3.8990	-0.8214	24.93	0.05	-0.750			
0.1842	11787.99	3.8960	3.8959	-0.8154	24.94	0.06	-0.750			
0.1866	11944.86	3.8930	3.8930	-0.8140	24.94	0.06	-0.750			
0.1891	12101.43	3.8900	3.8901	-0.8148	24.94	0.06	-0.750			
0.1915	12254.84	3.8870	3.8870	-0.8303	24.95	0.07	-0.750			
0.1940	12417.92	3.8840	3.8838	-0.8213	24.95	0.07	-0.750			
0.1965	12574.01	3.8810	3.8809	-0.8135	24.95	0.07	-0.750			
0.1990	12732.83	3.8780	3.8780	-0.8132	24.96	0.08	-0.750			
0.2014	12891.71	3.8750	3.8748	-0.8044	24.96	0.08	-0.750			
0.2038	13042.30	3.8720	3.8719	-0.8001	24.96	0.08	-0.750			
0.2061	13191.89	3.8690	3.8690	-0.7845	24.96	0.08	-0.750			
0.2084	13337.92	3.8660	3.8661	-0.7841	24.96	0.08	-0.750			
0.2109	13495.70	3.8630	3.8630	-0.7965	24.96	0.08	-0.750			
0.2132	13647.86	3.8600	3.8603	-0.7926	24.96	0.08	-0.750			
0.2156	13799.68	3.8570	3.8571	-0.7939	24.96	0.08	-0.750			
0.2180	13953.36	3.8540	3.8540	-0.7980	24.97	0.09	-0.750			
0.2204	14104.53	3.8510	3.8510	-0.7965	24.97	0.09	-0.750			
0.2228	14261.68	3.8480	3.8479	-0.7869	24.98	0.10	-0.750			
0.2251	14408.65	3.8450	3.8450	-0.7816	24.98	0.10	-0.750			
0.2275	14560.17	3.8420	3.8421	-0.7822	24.98	0.10	-0.750			
0.2298	14708.41	3.8390	3.8388	-0.7826	24.99	0.11	-0.750			
0.2321	14856.38	3.8360	3.8359	-0.7793	24.99	0.11	-0.750			
0.2345	15008.12	3.8330	3.8330	-0.7745	24.99	0.11	-0.750			
0.2369	15158.84	3.8300	3.8299	-0.7757	25.00	0.12	-0.750			
0.2392	15309.45	3.8270	3.8269	-0.7741	25.00	0.12	-0.750			
0.2415	15454.70	3.8240	3.8240	-0.7613	25.00	0.12	-0.750			
0.2438	15600.73	3.8210	3.8209	-0.7637	25.00	0.12	-0.750			
0.2460	15744.66	3.8180	3.8180	-0.7574	25.01	0.13	-0.750			
0.2483	15892.01	3.8150	3.8150	-0.7606	25.01	0.13	-0.750			
0.2506	16038.65	3.8120	3.8122	-0.7610	25.01	0.13	-0.750			
0.2529	16184.31	3.8090	3.8090	-0.7588	25.01	0.13	-0.750			
0.2552	16330.03	3.8060	3.8060	-0.7593	25.01	0.13	-0.750			
0.2574	16474.54	3.8030	3.8030	-0.7591	25.01	0.13	-0.750			
0.2597	16621.55	3.8000	3.8000	-0.7588	25.01	0.13	-0.750			
0.2620	16766.48	3.7970	3.7969	-0.7610	25.01	0.13	-0.750			
0.2643	16912.54	3.7940	3.7940	-0.7620	25.01	0.13	-0.750			
0.2665	17056.75	3.7910	3.7910	-0.7725	25.01	0.13	-0.750			
0.2688	17206.33	3.7880	3.7879	-0.7729	25.01	0.13	-0.750			
0.2712	17356.29	3.7850	3.7850	-0.7758	25.02	0.14	-0.750			
0.2735	17506.37	3.7820	3.7820	-0.7766	25.02	0.14	-0.750			
0.2759	17657.70	3.7790	3.7794	-0.7790	25.02	0.14	-0.750			
0.2782	17804.24	3.7760	3.7760	-0.7831	25.02	0.14	-0.750			
0.2805	17953.29	3.7730	3.7729	-0.7840	25.02	0.14	-0.750			
0.2829	18102.82	3.7700	3.7700	-0.7879	25.03	0.15	-0.750			
0.2853	18257.43	3.7670	3.7669	-0.7905	25.03	0.15	-0.750			
0.2877	18409.87	3.7640	3.7641	-0.7973	25.03	0.15	-0.750			
0.2900	18561.32	3.7610	3.7610	-0.8087	25.03	0.15	-0.750			
0.2924	18716.79	3.7580	3.7580	-0.8192	25.03	0.15	-0.750			
0.2949	18876.04	3.7550	3.7548	-0.8206	25.02	0.14	-0.750			
0.2974	19034.53	3.7520	3.7521	-0.8256	25.02	0.14	-0.750			
0.2999	19195.84	3.7490	3.7492	-0.8370	25.02	0.14	-0.750			
0.3025	19357.16	3.7460	3.7458	-0.8441	25.02	0.14	-0.750			
0.3050	19517.45	3.7430	3.7428	-0.8546	25.02	0.14	-0.750			
0.3076	19684.40	3.7400	3.7400	-0.8565	25.02	0.14	-0.750			
0.3102	19850.37	3.7370	3.7369	-0.8611	25.02	0.14	-0.750			
0.3128	20020.19	3.7340	3.7346	-0.8789	25.02	0.14	-0.750			
0.3154	20186.48	3.7310	3.7309	-0.8852	25.02	0.14	-0.750			
0.3180	20354.11	3.7280	3.7278	-0.8895	25.01	0.13	-0.750			
0.3207	20524.94	3.7250	3.7249	-0.9020	25.01	0.13	-0.750			
0.3235	20701.03	3.7220	3.7221	-0.9248	25.00	0.12	-0.750			
0.3263	20881.00	3.7190	3.7192	-0.9330	25.00	0.12	-0.750			
0.3291	21061.66	3.7160	3.7159	-0.9493	25.00	0.12	-0.750			
0.3319	21244.64	3.7130	3.7130	-0.9534	24.99	0.11	-0.750			
0.3347	21422.24	3.7100	3.7100	-0.9789	24.99	0.11	-0.750			
0.3378	21618.37	3.7070	3.7071	-0.9999	24.99	0.11	-0.750			
0.3408	21814.35	3.7040	3.7037	-1.0212	24.99	0.11	-0.750			
0.3440	22017.09	3.7010	3.7007	-1.0188	24.99	0.11	-0.750			
0.3471	22213.79	3.6980	3.6978	-1.0187	24.98	0.10	-0.750	0.388	0.540	
0.3501	22407.47	3.6950	3.6955	-1.0256	24.98	0.10	-0.750			
0.3532	22604.85	3.6920	3.6917	-1.0315	24.98	0.10	-0.750			
0.3561	22792.79	3.6890	3.6889	-1.0389	24.97	0.09	-0.750			
0.3593	22996.49	3.6860	3.6861	-1.0563	24.97	0.09	-0.750			
0.3626	23204.30	3.6830	3.6831	-1.0905	24.96	0.08	-0.750			
0.3659	23416.89	3.6800	3.6799	-1.1178	24.95	0.07	-0.750			
0.3692	23631.62	3.6770	3.6768	-1.1318	24.94	0.06	-0.750			
0.3727	23851.02	3.6740	3.6739	-1.1495	24.94	0.06	-0.750			
0.3762	24075.16	3.6710	3.6712	-1.1851	24.93	0.05	-0.750			
0.3798	24308.29	3.6680	3.6680	-1.1996	24.92	0.04	-0.750			
0.3835	24542.63	3.6650	3.6648	-1.2094	24.92	0.04	-0.750			
0.3871	24773.22	3.6620	3.6620	-1.2091	24.91	0.03	-0.750			
0.3908	25009.87	3.6590	3.6589	-1.2395	24.90	0.02	-0.750			
0.3945	25244.92	3.6560	3.6558	-1.2553	24.89	0.01	-0.750			
0.3982	25483.11	3.6530	3.6530	-1.2759	24.89	0.01	-0.750			
0.4021	25735.64	3.6500	3.6499	-1.2970	24.88	-0.00	-0.750			
0.4061	25987.72	3.6470	3.6470	-1.3118	24.87	-0.01	-0.750			
0.4100	26240.89	3.6440	3.6440	-1.3184	24.86	-0.02	-0.750			
0.4139	26489.39	3.6410	3.6411	-1.3696	24.86	-0.02	-0.750			
0.4181	26757.66	3.6380	3.6378	-1.4087	24.86	-0.02	-0.750			
0.4224	27031.91	3.6350	3.6347	-1.4239	24.85	-0.03	-0.750			
0.4267	27307.75	3.6320	3.6316	-1.4659	24.85	-0.03	-0.750			
0.4313	27600.87	3.6290	3.6285	-1.4875	24.85	-0.03	-0.750			
0.4357	27886.44	3.6260	3.6258	-1.5007	24.84	-0.04	-0.750			
0.4401	28164.46	3.6230	3.6228	-1.5098	24.84	-0.04	-0.750			
0.4446	28456.95	3.6200	3.6202	-1.5513	24.83	-0.05	-0.750			
0.4495	28764.99	3.6170	3.6170	-1.5948	24.82	-0.06	-0.750			
0.4544	29081.66	3.6140	3.6139	-1.6376	24.81	-0.07	-0.750			
0.4594	29400.74	3.6110	3.6108	-1.6416	24.81	-0.07	-0.750			
0.4645	29729.11	3.6080	3.6076	-1.6957	24.80	-0.08	-0.750			
0.4696	30051.47	3.6050	3.6046	-1.7288	24.79	-0.09	-0.750			
0.4748	30384.56	3.6020	3.6016	-1.7697	24.78	-0.10	-0.750			
0.4800	30718.38	3.5990	3.5992	-1.8469	24.78	-0.10	-0.750			
0.4858	31091.67	3.5960	3.5961	-1.8669	24.77	-0.11	-0.750			
0.4915	31453.70	3.5930	3.5934	-1.8733	24.77	-0.11	-0.750			
0.4972	31823.93	3.5900	3.5899	-1.8772	24.76	-0.12	-0.750			
0.5029	32182.42	3.5870	3.5867	-1.8791	24.76	-0.12	-0.750			
0.5083	32532.75	3.5840	3.5838	-1.8866	24.76	-0.12	-0.750			
0.5139	32890.88	3.5810	3.5809	-1.9181	24.76	-0.12	-0.750			
0.5197	33261.36	3.5780	3.5777	-1.9841	24.75	-0.13	-0.750			
0.5255	33635.09	3.5750	3.5752	-1.9914	24.75	-0.13	-0.750			
0.5318	34032.23	3.5720	3.5724	-2.0395	24.76	-0.12	-0.750			
0.5379	34424.94	3.5690	3.5691	-2.0314	24.76	-0.12	-0.750			
0.5440	34815.02	3.5660	3.5658	-2.0896	24.75	-0.13	-0.750			
0.5501	35208.42	3.5630	3.5628	-2.1042	24.74	-0.14	-0.750			
0.5567	35626.99	3.5600	3.5603	-2.1749	24.75	-0.13	-0.750			
0.5633	36052.14	3.5570	3.5571	-2.1192	24.76	-0.12	-0.750			
0.5697	36462.06	3.5540	3.5537	-2.1001	24.76	-0.12	-0.750			
0.5756	36835.50	3.5510	3.5517	-2.0163	24.76	-0.12	-0.750			
0.5815	37219.14	3.5480	3.5480	-2.0112	24.76	-0.12	-0.750			
0.5878	37616.04	3.5450	3.5447	-2.0377	24.77	-0.11	-0.750			
0.5939	38008.63	3.5420	3.5425	-2.0308	24.77	-0.11	-0.750			
0.5998	38388.44	3.5390	3.5393	-1.9712	24.78	-0.10	-0.750			
0.6057	38767.56	3.5360	3.5365	-1.9439	24.79	-0.09	-0.750			
0.6115	39136.36	3.5330	3.5330	-1.8851	24.80	-0.08	-0.750			
0.6169	39483.36	3.5300	3.5300	-1.8202	24.81	-0.07	-0.750			
0.6222	39822.89	3.5270	3.5271	-1.8026	24.81	-0.07	-0.750			
0.6278	40178.21	3.5240	3.5236	-1.8045	24.83	-0.05	-0.750			
0.6332	40526.89	3.5210	3.5204	-1.7703	24.84	-0.04	-0.750			
0.6385	40862.92	3.5180	3.5180	-1.7377	24.85	-0.03	-0.750			
0.6437	41196.37	3.5150	3.5148	-1.6811	24.86	-0.02	-0.750			
0.6487	41516.69	3.5120	3.5119	-1.6635	24.88	-0.00	-0.750			
0.6535	41823.89	3.5090	3.5089	-1.6034	24.89	0.01	-0.750			
0.6582	42127.51	3.5060	3.5058	-1.5728	24.90	0.02	-0.750			
0.6630	42432.51	3.5030	3.5036	-1.5382	24.92	0.04	-0.750			
0.6676	42728.02	3.5000	3.5000	-1.4853	24.94	0.06	-0.750			
0.6722	43017.73	3.4970	3.4970	-1.4423	24.96	0.08	-0.750			
0.6764	43291.79	3.4940	3.4940	-1.4001	24.97	0.09	-0.750			
0.6805	43550.55	3.4910	3.4909	-1.3402	24.99	0.11	-0.750			
0.6844	43804.40	3.4880	3.4879	-1.2910	25.01	0.13	-0.750			
0.6882	44046.50	3.4850	3.4854	-1.2473	25.02	0.14	-0.750			
0.6918	44278.13	3.4820	3.4820	-1.1400	25.04	0.16	-0.750			
