Ah_balance (normalized)	Ah_balance (mAh)	Voltage - fit (V)	Voltage -  interpolate (V)	dQ/dV (1/V)	Temperature (°C)	Temperature - diff (°C)	Current (C)	R_DC 0ms (mOhm)	R_DC 50ms (mOhm)	R_DC 50 ms PEC (mOhm)
0.0003	18.66	4.1610	4.1608	-0.1142	24.86	0.01	-0.750			
0.0007	46.54	4.1580	4.1579	-0.1641	24.86	0.01	-0.750			
0.0013	82.77	4.1550	4.1549	-0.2069	24.86	0.01	-0.750			
0.0020	127.17	4.1520	4.1519	-0.2463	24.85	0.00	-0.750			
0.0028	178.57	4.1490	4.1490	-0.2838	24.85	0.00	-0.750			
0.0037	237.25	4.1460	4.1461	-0.3237	24.85	0.00	-0.750			
0.0047	303.55	4.1430	4.1430	-0.3590	24.85	-0.00	-0.750			
0.0059	375.21	4.1400	4.1400	-0.3940	24.85	-0.00	-0.750			
0.0071	456.52	4.1370	4.1369	-0.4251	24.84	-0.01	-0.750			
0.0084	540.74	4.1340	4.1340	-0.4574	24.84	-0.01	-0.750			
0.0099	631.25	4.1310	4.1310	-0.4928	24.84	-0.01	-0.750			
0.0114	729.02	4.1280	4.1282	-0.5229	24.83	-0.02	-0.750			
0.0130	833.21	4.1250	4.1247	-0.5481	24.83	-0.02	-0.750			
0.0147	942.86	4.1220	4.1220	-0.5708	24.82	-0.03	-0.750			
0.0165	1055.74	4.1190	4.1192	-0.5895	24.82	-0.03	-0.750			
0.0183	1171.75	4.1160	4.1160	-0.6061	24.82	-0.03	-0.750			
0.0201	1289.27	4.1130	4.1130	-0.6182	24.81	-0.04	-0.750			
0.0220	1408.86	4.1100	4.1100	-0.6378	24.81	-0.04	-0.750			
0.0240	1535.11	4.1070	4.1069	-0.6480	24.81	-0.04	-0.750			
0.0260	1661.89	4.1040	4.1039	-0.6538	24.80	-0.05	-0.750			
0.0280	1789.78	4.1010	4.1011	-0.6627	24.80	-0.05	-0.750			
0.0299	1916.38	4.0980	4.0979	-0.6677	24.80	-0.05	-0.750			
0.0319	2044.43	4.0950	4.0948	-0.6696	24.80	-0.05	-0.750			
0.0339	2172.69	4.0920	4.0919	-0.6688	24.80	-0.05	-0.750			
0.0359	2300.18	4.0890	4.0891	-0.6796	24.79	-0.06	-0.750			
0.0381	2436.95	4.0860	4.0859	-0.6978	24.79	-0.06	-0.750			
0.0402	2569.96	4.0830	4.0828	-0.7001	24.79	-0.06	-0.750			
0.0422	2703.33	4.0800	4.0800	-0.7062	24.79	-0.06	-0.750			
0.0444	2839.93	4.0770	4.0770	-0.7087	24.79	-0.06	-0.750			
0.0465	2978.14	4.0740	4.0737	-0.7174	24.79	-0.06	-0.750			
0.0487	3114.64	4.0710	4.0712	-0.7157	24.78	-0.07	-0.750			
0.0509	3256.33	4.0680	4.0679	-0.7253	24.78	-0.07	-0.750			
0.0531	3395.59	4.0650	4.0651	-0.7285	24.78	-0.07	-0.750			
0.0553	3536.15	4.0620	4.0619	-0.7308	24.78	-0.07	-0.750			
0.0574	3674.76	4.0590	4.0590	-0.7343	24.78	-0.07	-0.750			
0.0597	3818.74	4.0560	4.0559	-0.7488	24.78	-0.07	-0.750			
0.0619	3963.30	4.0530	4.0529	-0.7456	24.79	-0.06	-0.750			
0.0642	4109.76	4.0500	4.0500	-0.7508	24.79	-0.06	-0.750			
0.0665	4253.99	4.0470	4.0476	-0.7496	24.79	-0.06	-0.750			
0.0687	4397.23	4.0440	4.0439	-0.7442	24.79	-0.06	-0.750			
0.0709	4537.16	4.0410	4.0410	-0.7472	24.79	-0.06	-0.750			
0.0731	4679.46	4.0380	4.0380	-0.7481	24.80	-0.05	-0.750			
0.0754	4827.01	4.0350	4.0349	-0.7548	24.80	-0.05	-0.750			
0.0777	4971.17	4.0320	4.0318	-0.7509	24.80	-0.05	-0.750			
0.0799	5115.24	4.0290	4.0292	-0.7490	24.80	-0.05	-0.750			
0.0822	5258.18	4.0260	4.0259	-0.7526	24.80	-0.05	-0.750			
0.0844	5401.71	4.0230	4.0230	-0.7601	24.80	-0.05	-0.750			
0.0867	5546.67	4.0200	4.0199	-0.7571	24.81	-0.04	-0.750			
0.0890	5695.32	4.0170	4.0169	-0.7682	24.81	-0.04	-0.750			
0.0913	5845.97	4.0140	4.0143	-0.7723	24.81	-0.04	-0.750			
0.0937	5994.28	4.0110	4.0110	-0.7701	24.81	-0.04	-0.750			
0.0960	6141.97	4.0080	4.0080	-0.7741	24.81	-0.04	-0.750			
0.0983	6290.18	4.0050	4.0050	-0.7700	24.82	-0.03	-0.750			
0.1006	6437.74	4.0020	4.0019	-0.7706	24.82	-0.03	-0.750			
0.1029	6585.53	3.9990	3.9989	-0.7705	24.82	-0.03	-0.750			
0.1052	6732.79	3.9960	3.9960	-0.7739	24.82	-0.03	-0.750			
0.1075	6881.66	3.9930	3.9929	-0.7764	24.83	-0.02	-0.750			
0.1098	7028.96	3.9900	3.9900	-0.7788	24.83	-0.02	-0.750			
0.1122	7178.69	3.9870	3.9871	-0.7782	24.83	-0.02	-0.750			
0.1146	7332.31	3.9840	3.9840	-0.7861	24.84	-0.01	-0.750			
0.1169	7483.08	3.9810	3.9811	-0.7865	24.84	-0.01	-0.750			
0.1193	7632.88	3.9780	3.9779	-0.7888	24.84	-0.01	-0.750			
0.1216	7785.00	3.9750	3.9750	-0.7947	24.85	-0.00	-0.750			
0.1240	7938.77	3.9720	3.9720	-0.7963	24.85	0.00	-0.750			
0.1264	8091.93	3.9690	3.9689	-0.7981	24.86	0.01	-0.750			
0.1289	8247.93	3.9660	3.9664	-0.7942	24.86	0.01	-0.750			
0.1313	8401.69	3.9630	3.9628	-0.7825	24.86	0.01	-0.750			
0.1336	8549.78	3.9600	3.9601	-0.7817	24.86	0.01	-0.750			
0.1359	8696.65	3.9570	3.9572	-0.7759	24.87	0.02	-0.750			
0.1382	8846.18	3.9540	3.9538	-0.7839	24.87	0.02	-0.750			
0.1405	8995.00	3.9510	3.9508	-0.7844	24.87	0.02	-0.750			
0.1429	9144.00	3.9480	3.9479	-0.7817	24.87	0.02	-0.750			
0.1452	9294.70	3.9450	3.9451	-0.7938	24.87	0.02	-0.750			
0.1476	9448.39	3.9420	3.9421	-0.8012	24.88	0.03	-0.750			
0.1501	9603.42	3.9390	3.9387	-0.8081	24.88	0.03	-0.750			
0.1525	9758.41	3.9360	3.9360	-0.8070	24.88	0.03	-0.750			
0.1549	9912.70	3.9330	3.9331	-0.8115	24.88	0.03	-0.750			
0.1573	10069.49	3.9300	3.9301	-0.8209	24.89	0.04	-0.750			
0.1599	10230.59	3.9270	3.9268	-0.8172	24.89	0.04	-0.750			
0.1623	10384.39	3.9240	3.9240	-0.8116	24.89	0.04	-0.750			
0.1647	10540.62	3.9210	3.9210	-0.8166	24.90	0.05	-0.750			
0.1671	10697.49	3.9180	3.9180	-0.8212	24.90	0.05	-0.750			
0.1696	10854.79	3.9150	3.9149	-0.8356	24.91	0.06	-0.750			
0.1721	11016.04	3.9120	3.9119	-0.8359	24.91	0.06	-0.750			
0.1747	11180.27	3.9090	3.9088	-0.8361	24.91	0.06	-0.750			
0.1773	11344.50	3.9060	3.9059	-0.8345	24.92	0.07	-0.750			
0.1797	11503.92	3.9030	3.9028	-0.8251	24.92	0.07	-0.750			
0.1822	11658.74	3.9000	3.8998	-0.8210	24.93	0.08	-0.750			
0.1845	11810.63	3.8970	3.8970	-0.8100	24.93	0.08	-0.750			
0.1869	11962.40	3.8940	3.8941	-0.8092	24.93	0.08	-0.750			
0.1895	12125.87	3.8910	3.8910	-0.8281	24.94	0.09	-0.750			
0.1920	12285.12	3.8880	3.8881	-0.8303	24.94	0.09	-0.750			
0.1944	12444.65	3.8850	3.8851	-0.8305	24.94	0.09	-0.750			
0.1970	12605.38	3.8820	3.8820	-0.8279	24.95	0.10	-0.750			
0.1994	12764.53	3.8790	3.8791	-0.8266	24.95	0.10	-0.750			
0.2019	12924.66	3.8760	3.8760	-0.8238	24.96	0.11	-0.750			
0.2044	13079.77	3.8730	3.8730	-0.8210	24.96	0.11	-0.750			
0.2068	13237.69	3.8700	3.8700	-0.8187	24.96	0.11	-0.750			
0.2093	13394.76	3.8670	3.8670	-0.8224	24.97	0.12	-0.750			
0.2118	13553.96	3.8640	3.8639	-0.8214	24.97	0.12	-0.750			
0.2143	13714.06	3.8610	3.8609	-0.8153	24.98	0.13	-0.750			
0.2167	13869.22	3.8580	3.8577	-0.8055	24.98	0.13	-0.750			
0.2191	14021.79	3.8550	3.8550	-0.8091	24.98	0.13	-0.750			
0.2215	14175.79	3.8520	3.8518	-0.8065	24.99	0.14	-0.750			
0.2239	14330.50	3.8490	3.8489	-0.7994	24.99	0.14	-0.750			
0.2263	14482.91	3.8460	3.8461	-0.7967	25.00	0.15	-0.750			
0.2288	14641.04	3.8430	3.8432	-0.8013	25.00	0.15	-0.750			
0.2312	14795.24	3.8400	3.8399	-0.8012	25.00	0.15	-0.750			
0.2335	14946.25	3.8370	3.8368	-0.7972	25.01	0.16	-0.750			
0.2359	15098.48	3.8340	3.8340	-0.7908	25.01	0.16	-0.750			
0.2383	15254.14	3.8310	3.8311	-0.7905	25.02	0.17	-0.750			
0.2407	15404.10	3.8280	3.8281	-0.7840	25.02	0.17	-0.750			
0.2430	15553.36	3.8250	3.8250	-0.7754	25.02	0.17	-0.750			
0.2453	15697.83	3.8220	3.8220	-0.7804	25.02	0.17	-0.750			
0.2476	15848.80	3.8190	3.8188	-0.7710	25.03	0.18	-0.750			
0.2499	15996.57	3.8160	3.8159	-0.7669	25.03	0.18	-0.750			
0.2523	16147.56	3.8130	3.8129	-0.7686	25.03	0.18	-0.750			
0.2546	16293.55	3.8100	3.8099	-0.7659	25.03	0.18	-0.750			
0.2569	16438.71	3.8070	3.8069	-0.7596	25.03	0.18	-0.750			
0.2591	16584.40	3.8040	3.8040	-0.7688	25.03	0.18	-0.750			
0.2614	16730.47	3.8010	3.8010	-0.7617	25.04	0.19	-0.750			
0.2638	16882.96	3.7980	3.7978	-0.7745	25.04	0.19	-0.750			
0.2661	17030.42	3.7950	3.7954	-0.7700	25.04	0.19	-0.750			
0.2684	17179.42	3.7920	3.7919	-0.7689	25.04	0.19	-0.750			
0.2707	17323.80	3.7890	3.7889	-0.7682	25.05	0.20	-0.750			
0.2730	17469.75	3.7860	3.7860	-0.7644	25.05	0.20	-0.750			
0.2753	17618.66	3.7830	3.7829	-0.7720	25.05	0.20	-0.750			
0.2776	17766.62	3.7800	3.7799	-0.7721	25.06	0.21	-0.750			
0.2799	17914.67	3.7770	3.7770	-0.7749	25.06	0.21	-0.750			
0.2822	18061.12	3.7740	3.7740	-0.7864	25.06	0.21	-0.750			
0.2846	18214.75	3.7710	3.7709	-0.7859	25.06	0.21	-0.750			
0.2870	18365.41	3.7680	3.7680	-0.7830	25.06	0.21	-0.750			
0.2894	18518.57	3.7650	3.7650	-0.7911	25.06	0.21	-0.750			
0.2917	18670.69	3.7620	3.7622	-0.7969	25.06	0.21	-0.750			
0.2941	18822.40	3.7590	3.7589	-0.8046	25.06	0.21	-0.750			
0.2965	18974.59	3.7560	3.7559	-0.8075	25.06	0.21	-0.750			
0.2989	19130.63	3.7530	3.7530	-0.8099	25.06	0.21	-0.750			
0.3014	19290.85	3.7500	3.7500	-0.8262	25.06	0.21	-0.750			
0.3039	19450.28	3.7470	3.7474	-0.8318	25.06	0.21	-0.750			
0.3064	19609.18	3.7440	3.7440	-0.8364	25.06	0.21	-0.750			
0.3089	19768.56	3.7410	3.7409	-0.8502	25.06	0.21	-0.750			
0.3115	19934.73	3.7380	3.7379	-0.8565	25.06	0.21	-0.750			
0.3141	20101.26	3.7350	3.7349	-0.8658	25.06	0.21	-0.750			
0.3167	20268.24	3.7320	3.7324	-0.8787	25.06	0.21	-0.750			
0.3193	20437.22	3.7290	3.7288	-0.8956	25.06	0.21	-0.750			
0.3221	20611.58	3.7260	3.7259	-0.9042	25.05	0.20	-0.750			
0.3247	20783.66	3.7230	3.7231	-0.9084	25.05	0.20	-0.750			
0.3276	20963.65	3.7200	3.7199	-0.9234	25.04	0.19	-0.750			
0.3303	21139.27	3.7170	3.7169	-0.9412	25.04	0.19	-0.750			
0.3331	21320.73	3.7140	3.7139	-0.9435	25.03	0.18	-0.750			
0.3359	21500.10	3.7110	3.7110	-0.9527	25.03	0.18	-0.750			
0.3388	21683.22	3.7080	3.7079	-0.9843	25.02	0.17	-0.750			
0.3419	21882.76	3.7050	3.7050	-1.0063	25.02	0.17	-0.750			
0.3450	22078.36	3.7020	3.7017	-1.0159	25.01	0.16	-0.750			
0.3481	22278.02	3.6990	3.6987	-1.0235	25.01	0.16	-0.750	0.380	0.531	
0.3511	22472.98	3.6960	3.6958	-1.0201	25.00	0.15	-0.750			
0.3542	22665.75	3.6930	3.6931	-1.0476	25.00	0.15	-0.750			
0.3572	22858.00	3.6900	3.6901	-1.1073	24.99	0.14	-0.750			
0.3604	23065.52	3.6870	3.6868	-1.1441	24.99	0.14	-0.750			
0.3641	23304.81	3.6840	3.6835	-1.1965	24.98	0.13	-0.750			
0.3679	23546.97	3.6810	3.6808	-1.2279	24.98	0.13	-0.750			
0.3717	23791.52	3.6780	3.6780	-1.2328	24.97	0.12	-0.750			
0.3756	24036.48	3.6750	3.6748	-1.2302	24.97	0.12	-0.750			
0.3791	24262.73	3.6720	3.6722	-1.2210	24.96	0.11	-0.750			
0.3825	24481.23	3.6690	3.6690	-1.2010	24.95	0.10	-0.750			
0.3863	24720.91	3.6660	3.6659	-1.2257	24.95	0.10	-0.750			
0.3899	24954.49	3.6630	3.6629	-1.2469	24.94	0.09	-0.750			
0.3938	25200.23	3.6600	3.6599	-1.2603	24.94	0.09	-0.750			
0.3975	25442.01	3.6570	3.6569	-1.2698	24.93	0.08	-0.750			
0.4013	25684.73	3.6540	3.6540	-1.2904	24.92	0.07	-0.750			
0.4052	25930.71	3.6510	3.6512	-1.3070	24.92	0.07	-0.750			
0.4092	26186.40	3.6480	3.6478	-1.3372	24.91	0.06	-0.750			
0.4132	26446.49	3.6450	3.6450	-1.3594	24.90	0.05	-0.750			
0.4174	26712.09	3.6420	3.6420	-1.3905	24.90	0.05	-0.750			
0.4216	26985.48	3.6390	3.6389	-1.4348	24.89	0.04	-0.750			
0.4260	27265.05	3.6360	3.6359	-1.4636	24.88	0.03	-0.750			
0.4305	27550.78	3.6330	3.6329	-1.4792	24.88	0.03	-0.750			
0.4350	27838.76	3.6300	3.6300	-1.5089	24.87	0.02	-0.750			
0.4395	28131.13	3.6270	3.6269	-1.5278	24.86	0.01	-0.750			
0.4441	28422.11	3.6240	3.6238	-1.5427	24.86	0.01	-0.750			
0.4488	28722.07	3.6210	3.6211	-1.6067	24.85	-0.00	-0.750			
0.4536	29027.76	3.6180	3.6181	-1.6237	24.84	-0.01	-0.750			
0.4585	29345.41	3.6150	3.6151	-1.6651	24.83	-0.02	-0.750			
0.4637	29677.82	3.6120	3.6120	-1.7106	24.82	-0.03	-0.750			
0.4689	30010.28	3.6090	3.6086	-1.7173	24.82	-0.03	-0.750			
0.4742	30350.71	3.6060	3.6055	-1.7512	24.81	-0.04	-0.750			
0.4794	30681.58	3.6030	3.6033	-1.7694	24.80	-0.05	-0.750			
0.4847	31021.15	3.6000	3.6000	-1.7932	24.79	-0.06	-0.750			
0.4901	31369.25	3.5970	3.5972	-1.8251	24.78	-0.07	-0.750			
0.4957	31723.86	3.5940	3.5939	-1.8729	24.78	-0.07	-0.750			
0.5015	32094.98	3.5910	3.5909	-1.9365	24.78	-0.07	-0.750			
0.5073	32469.31	3.5880	3.5882	-1.9803	24.77	-0.08	-0.750			
0.5134	32857.37	3.5850	3.5850	-2.0042	24.76	-0.09	-0.750			
0.5194	33243.18	3.5820	3.5816	-2.0051	24.76	-0.09	-0.750			
0.5253	33618.70	3.5790	3.5794	-2.0268	24.76	-0.09	-0.750			
0.5314	34012.48	3.5760	3.5761	-2.0212	24.76	-0.09	-0.750			
0.5377	34414.60	3.5730	3.5730	-2.0602	24.76	-0.09	-0.750			
0.5437	34796.86	3.5700	3.5703	-2.0686	24.76	-0.09	-0.750			
0.5501	35205.89	3.5670	3.5670	-2.0753	24.75	-0.10	-0.750			
0.5564	35607.51	3.5640	3.5637	-2.0607	24.75	-0.10	-0.750			
0.5625	36000.17	3.5610	3.5613	-2.0890	24.74	-0.11	-0.750			
0.5688	36404.85	3.5580	3.5580	-2.0824	24.74	-0.11	-0.750			
0.5752	36814.21	3.5550	3.5545	-2.0823	24.74	-0.11	-0.750			
0.5813	37203.64	3.5520	3.5523	-2.0727	24.74	-0.11	-0.750			
0.5876	37606.00	3.5490	3.5492	-2.0338	24.75	-0.10	-0.750			
0.5938	38002.84	3.5460	3.5458	-2.0315	24.76	-0.09	-0.750			
0.5998	38386.55	3.5430	3.5433	-1.9812	24.76	-0.09	-0.750			
0.6056	38761.56	3.5400	3.5399	-1.9626	24.76	-0.09	-0.750			
0.6117	39147.23	3.5370	3.5368	-1.9377	24.77	-0.08	-0.750			
0.6173	39506.70	3.5340	3.5340	-1.8993	24.78	-0.07	-0.750			
0.6230	39870.69	3.5310	3.5311	-1.8584	24.79	-0.06	-0.750			
0.6284	40218.76	3.5280	3.5281	-1.8104	24.80	-0.05	-0.750			
0.6339	40566.77	3.5250	3.5254	-1.7893	24.82	-0.03	-0.750			
0.6392	40911.61	3.5220	3.5222	-1.7675	24.83	-0.02	-0.750			
0.6444	41239.71	3.5190	3.5187	-1.7303	24.84	-0.01	-0.750			
0.6497	41579.21	3.5160	3.5157	-1.6989	24.85	0.00	-0.750			
0.6548	41905.36	3.5130	3.5131	-1.6552	24.86	0.01	-0.750			
0.6596	42217.47	3.5100	3.5097	-1.6053	24.88	0.03	-0.750			
0.6643	42513.14	3.5070	3.5068	-1.5526	24.89	0.04	-0.750			
0.6688	42805.30	3.5040	3.5038	-1.5048	24.91	0.06	-0.750			
0.6734	43096.74	3.5010	3.5008	-1.4858	24.92	0.07	-0.750			
0.6777	43371.70	3.4980	3.4980	-1.4346	24.94	0.09	-0.750			
0.6820	43649.37	3.4950	3.4950	-1.4039	24.95	0.10	-0.750			
0.6863	43926.36	3.4920	3.4919	-1.3695	24.96	0.11	-0.750			
0.6904	44183.69	3.4890	3.4891	-1.3065	24.98	0.13	-0.750			
0.6942	44425.72	3.4860	3.4860	-1.2616	24.99	0.14	-0.750			
0.6978	44658.99	3.4830	3.4830	-1.1212	25.00	0.15	-0.750			
