Ah_balance (normalized)	Ah_balance (mAh)	Voltage - fit (V)	Voltage -  interpolate (V)	dQ/dV (1/V)	Temperature (°C)	Temperature - diff (°C)	Current (C)	R_DC 0ms (mOhm)	R_DC 50ms (mOhm)	R_DC 50 ms PEC (mOhm)
0.0004	23.69	4.1640	4.1638	-0.1363	24.71	0.01	-0.750			
0.0008	54.32	4.1610	4.1610	-0.1841	24.71	0.01	-0.750			
0.0015	95.16	4.1580	4.1581	-0.2325	24.71	0.01	-0.750			
0.0023	144.41	4.1550	4.1549	-0.2785	24.70	0.00	-0.750			
0.0032	202.44	4.1520	4.1520	-0.3221	24.70	0.00	-0.750			
0.0042	269.22	4.1490	4.1489	-0.3664	24.70	0.00	-0.750			
0.0054	344.68	4.1460	4.1459	-0.4053	24.70	-0.00	-0.750			
0.0067	427.09	4.1430	4.1429	-0.4427	24.70	-0.00	-0.750			
0.0081	515.20	4.1400	4.1401	-0.4734	24.69	-0.01	-0.750			
0.0095	608.25	4.1370	4.1371	-0.5099	24.69	-0.01	-0.750			
0.0111	709.51	4.1340	4.1341	-0.5451	24.69	-0.01	-0.750			
0.0128	818.60	4.1310	4.1304	-0.5771	24.69	-0.01	-0.750			
0.0146	933.85	4.1280	4.1282	-0.6029	24.68	-0.02	-0.750			
0.0165	1053.87	4.1250	4.1251	-0.6284	24.68	-0.02	-0.750			
0.0184	1180.26	4.1220	4.1221	-0.6481	24.68	-0.02	-0.750			
0.0204	1306.35	4.1190	4.1188	-0.6628	24.67	-0.03	-0.750			
0.0223	1429.95	4.1160	4.1161	-0.6703	24.67	-0.03	-0.750			
0.0244	1561.20	4.1130	4.1130	-0.6849	24.67	-0.03	-0.750			
0.0265	1695.56	4.1100	4.1099	-0.7013	24.67	-0.03	-0.750			
0.0286	1832.51	4.1070	4.1069	-0.7100	24.66	-0.04	-0.750			
0.0308	1969.64	4.1040	4.1041	-0.7114	24.66	-0.04	-0.750			
0.0330	2109.55	4.1010	4.1009	-0.7169	24.66	-0.04	-0.750			
0.0351	2246.42	4.0980	4.0981	-0.7260	24.66	-0.04	-0.750			
0.0373	2384.97	4.0950	4.0949	-0.7284	24.65	-0.05	-0.750			
0.0395	2526.06	4.0920	4.0918	-0.7310	24.65	-0.05	-0.750			
0.0417	2666.69	4.0890	4.0892	-0.7370	24.65	-0.05	-0.750			
0.0439	2808.62	4.0860	4.0859	-0.7419	24.65	-0.05	-0.750			
0.0461	2953.19	4.0830	4.0829	-0.7464	24.65	-0.05	-0.750			
0.0484	3095.10	4.0800	4.0800	-0.7537	24.65	-0.05	-0.750			
0.0506	3237.96	4.0770	4.0769	-0.7531	24.65	-0.05	-0.750			
0.0529	3387.58	4.0740	4.0740	-0.7641	24.65	-0.05	-0.750			
0.0552	3535.05	4.0710	4.0711	-0.7671	24.65	-0.05	-0.750			
0.0575	3683.17	4.0680	4.0680	-0.7656	24.65	-0.05	-0.750			
0.0599	3831.35	4.0650	4.0650	-0.7683	24.65	-0.05	-0.750			
0.0622	3977.74	4.0620	4.0620	-0.7662	24.64	-0.06	-0.750			
0.0644	4124.02	4.0590	4.0590	-0.7718	24.64	-0.06	-0.750			
0.0668	4272.33	4.0560	4.0559	-0.7746	24.64	-0.06	-0.750			
0.0691	4421.04	4.0530	4.0529	-0.7792	24.64	-0.06	-0.750			
0.0714	4570.66	4.0500	4.0500	-0.7909	24.65	-0.05	-0.750			
0.0738	4725.80	4.0470	4.0470	-0.7922	24.65	-0.05	-0.750			
0.0762	4879.90	4.0440	4.0440	-0.7988	24.65	-0.05	-0.750			
0.0786	5033.18	4.0410	4.0409	-0.7914	24.66	-0.04	-0.750			
0.0810	5183.97	4.0380	4.0380	-0.7879	24.66	-0.04	-0.750			
0.0833	5334.19	4.0350	4.0349	-0.7857	24.66	-0.04	-0.750			
0.0857	5483.53	4.0320	4.0320	-0.7818	24.66	-0.04	-0.750			
0.0880	5630.03	4.0290	4.0290	-0.7827	24.67	-0.03	-0.750			
0.0904	5784.06	4.0260	4.0260	-0.7961	24.67	-0.03	-0.750			
0.0927	5935.76	4.0230	4.0230	-0.7981	24.67	-0.03	-0.750			
0.0952	6091.82	4.0200	4.0199	-0.8027	24.67	-0.03	-0.750			
0.0976	6246.72	4.0170	4.0171	-0.8066	24.68	-0.02	-0.750			
0.1000	6403.00	4.0140	4.0140	-0.8054	24.68	-0.02	-0.750			
0.1025	6558.82	4.0110	4.0109	-0.8066	24.69	-0.01	-0.750			
0.1049	6712.50	4.0080	4.0083	-0.8043	24.69	-0.01	-0.750			
0.1073	6865.16	4.0050	4.0050	-0.8038	24.69	-0.01	-0.750			
0.1097	7020.09	4.0020	4.0019	-0.8143	24.69	-0.01	-0.750			
0.1122	7177.82	3.9990	3.9990	-0.8158	24.69	-0.01	-0.750			
0.1147	7337.78	3.9960	3.9958	-0.8176	24.69	-0.01	-0.750			
0.1171	7493.48	3.9930	3.9936	-0.8151	24.69	-0.01	-0.750			
0.1195	7649.11	3.9900	3.9899	-0.8152	24.69	-0.01	-0.750			
0.1219	7804.77	3.9870	3.9870	-0.8189	24.70	-0.00	-0.750			
0.1244	7959.41	3.9840	3.9839	-0.8164	24.70	0.00	-0.750			
0.1269	8119.16	3.9810	3.9810	-0.8304	24.71	0.01	-0.750			
0.1294	8278.59	3.9780	3.9782	-0.8311	24.71	0.01	-0.750			
0.1319	8440.61	3.9750	3.9749	-0.8355	24.71	0.01	-0.750			
0.1344	8599.88	3.9720	3.9719	-0.8316	24.71	0.01	-0.750			
0.1369	8758.53	3.9690	3.9691	-0.8288	24.72	0.02	-0.750			
0.1393	8917.36	3.9660	3.9661	-0.8311	24.72	0.02	-0.750			
0.1418	9077.44	3.9630	3.9630	-0.8382	24.72	0.02	-0.750			
0.1443	9236.36	3.9600	3.9600	-0.8470	24.72	0.02	-0.750			
0.1469	9399.25	3.9570	3.9570	-0.8538	24.73	0.03	-0.750			
0.1495	9566.44	3.9540	3.9539	-0.8505	24.73	0.03	-0.750			
0.1521	9731.52	3.9510	3.9509	-0.8524	24.74	0.04	-0.750			
0.1546	9896.10	3.9480	3.9486	-0.8512	24.74	0.04	-0.750			
0.1572	10058.08	3.9450	3.9449	-0.8483	24.74	0.04	-0.750			
0.1597	10218.20	3.9420	3.9419	-0.8471	24.75	0.05	-0.750			
0.1622	10382.25	3.9390	3.9388	-0.8447	24.75	0.05	-0.750			
0.1648	10545.56	3.9360	3.9360	-0.8475	24.76	0.06	-0.750			
0.1673	10708.09	3.9330	3.9332	-0.8507	24.76	0.06	-0.750			
0.1699	10871.12	3.9300	3.9300	-0.8468	24.76	0.06	-0.750			
0.1724	11033.15	3.9270	3.9269	-0.8581	24.76	0.06	-0.750			
0.1749	11196.50	3.9240	3.9239	-0.8596	24.77	0.07	-0.750			
0.1776	11363.49	3.9210	3.9210	-0.8732	24.77	0.07	-0.750			
0.1802	11532.59	3.9180	3.9182	-0.8786	24.77	0.07	-0.750			
0.1828	11701.54	3.9150	3.9151	-0.8893	24.78	0.08	-0.750			
0.1855	11874.22	3.9120	3.9119	-0.8824	24.78	0.08	-0.750			
0.1882	12043.44	3.9090	3.9088	-0.8797	24.78	0.08	-0.750			
0.1908	12211.96	3.9060	3.9060	-0.8790	24.79	0.09	-0.750			
0.1934	12380.65	3.9030	3.9029	-0.8775	24.79	0.09	-0.750			
0.1961	12548.84	3.9000	3.9000	-0.8758	24.79	0.09	-0.750			
0.1987	12717.24	3.8970	3.8969	-0.8752	24.80	0.10	-0.750			
0.2013	12881.97	3.8940	3.8941	-0.8753	24.80	0.10	-0.750			
0.2040	13052.82	3.8910	3.8910	-0.8820	24.80	0.10	-0.750			
0.2066	13220.79	3.8880	3.8879	-0.8871	24.80	0.10	-0.750			
0.2093	13392.09	3.8850	3.8849	-0.8875	24.81	0.11	-0.750			
0.2119	13563.64	3.8820	3.8821	-0.8894	24.81	0.11	-0.750			
0.2146	13734.75	3.8790	3.8790	-0.8897	24.82	0.12	-0.750			
0.2173	13905.99	3.8760	3.8765	-0.8947	24.82	0.12	-0.750			
0.2199	14076.31	3.8730	3.8730	-0.9004	24.82	0.12	-0.750			
0.2227	14250.23	3.8700	3.8700	-0.8963	24.83	0.13	-0.750			
0.2253	14421.96	3.8670	3.8669	-0.8953	24.83	0.13	-0.750			
0.2281	14598.71	3.8640	3.8641	-0.8916	24.84	0.14	-0.750			
0.2308	14768.96	3.8610	3.8610	-0.8780	24.84	0.14	-0.750			
0.2334	14936.13	3.8580	3.8580	-0.8703	24.85	0.15	-0.750			
0.2359	15099.18	3.8550	3.8551	-0.8636	24.85	0.15	-0.750			
0.2384	15259.52	3.8520	3.8519	-0.8620	24.85	0.15	-0.750			
0.2410	15426.45	3.8490	3.8488	-0.8719	24.86	0.16	-0.750			
0.2437	15594.04	3.8460	3.8459	-0.8712	24.86	0.16	-0.750			
0.2463	15763.50	3.8430	3.8431	-0.8941	24.87	0.17	-0.750			
0.2491	15940.84	3.8400	3.8398	-0.8938	24.87	0.17	-0.750			
0.2518	16112.17	3.8370	3.8368	-0.8888	24.88	0.18	-0.750			
0.2545	16284.98	3.8340	3.8345	-0.8891	24.88	0.18	-0.750			
0.2570	16451.11	3.8310	3.8310	-0.8988	24.88	0.18	-0.750			
0.2598	16624.33	3.8280	3.8278	-0.9025	24.89	0.19	-0.750			
0.2625	16797.21	3.8250	3.8249	-0.8980	24.89	0.19	-0.750			
0.2652	16971.59	3.8220	3.8218	-0.9031	24.90	0.20	-0.750			
0.2679	17145.29	3.8190	3.8190	-0.9080	24.90	0.20	-0.750			
0.2706	17320.67	3.8160	3.8159	-0.9125	24.91	0.21	-0.750			
0.2734	17496.63	3.8130	3.8129	-0.9076	24.91	0.21	-0.750			
0.2761	17668.34	3.8100	3.8100	-0.8922	24.91	0.21	-0.750			
0.2788	17843.58	3.8070	3.8070	-0.8955	24.92	0.22	-0.750			
0.2815	18016.62	3.8040	3.8038	-0.8953	24.92	0.22	-0.750			
0.2842	18185.74	3.8010	3.8009	-0.8916	24.93	0.23	-0.750			
0.2868	18353.10	3.7980	3.7979	-0.8816	24.93	0.23	-0.750			
0.2894	18521.90	3.7950	3.7950	-0.8806	24.94	0.24	-0.750			
0.2921	18694.80	3.7920	3.7923	-0.8873	24.94	0.24	-0.750			
0.2947	18863.52	3.7890	3.7889	-0.8931	24.94	0.24	-0.750			
0.2975	19036.91	3.7860	3.7860	-0.8834	24.95	0.25	-0.750			
0.3001	19206.62	3.7830	3.7829	-0.8709	24.95	0.25	-0.750			
0.3027	19373.10	3.7800	3.7800	-0.8820	24.96	0.26	-0.750			
0.3053	19542.15	3.7770	3.7772	-0.8810	24.96	0.26	-0.750			
0.3079	19707.94	3.7740	3.7737	-0.8864	24.97	0.27	-0.750			
0.3106	19879.96	3.7710	3.7711	-0.8813	24.97	0.27	-0.750			
0.3132	20047.00	3.7680	3.7680	-0.8845	24.97	0.27	-0.750			
0.3160	20221.01	3.7650	3.7650	-0.8975	24.98	0.28	-0.750			
0.3187	20395.23	3.7620	3.7617	-0.8957	24.98	0.28	-0.750			
0.3213	20564.00	3.7590	3.7589	-0.8910	24.98	0.28	-0.750			
0.3240	20736.94	3.7560	3.7561	-0.8914	24.99	0.29	-0.750			
0.3267	20907.80	3.7530	3.7530	-0.8860	24.99	0.29	-0.750			
0.3294	21081.36	3.7500	3.7499	-0.8856	24.99	0.29	-0.750			
0.3319	21244.19	3.7470	3.7470	-0.8871	24.99	0.29	-0.750			
0.3346	21416.99	3.7440	3.7441	-0.8748	24.99	0.29	-0.750			
0.3373	21586.43	3.7410	3.7409	-0.8699	25.00	0.30	-0.750			
0.3399	21752.82	3.7380	3.7378	-0.8704	25.00	0.30	-0.750			
0.3425	21918.06	3.7350	3.7355	-0.8689	25.00	0.30	-0.750			
0.3451	22083.32	3.7320	3.7319	-0.8697	25.00	0.30	-0.750			
0.3476	22249.04	3.7290	3.7290	-0.8828	25.00	0.30	-0.750			
0.3503	22417.77	3.7260	3.7259	-0.9043	25.00	0.30	-0.750			
0.3530	22592.26	3.7230	3.7230	-0.9224	25.00	0.30	-0.750			
0.3558	22771.09	3.7200	3.7200	-0.9394	25.00	0.30	-0.750			
0.3586	22952.38	3.7170	3.7169	-0.9652	25.00	0.30	-0.750			
0.3616	23143.65	3.7140	3.7140	-0.9896	25.00	0.30	-0.750			
0.3646	23337.01	3.7110	3.7108	-1.0021	25.00	0.30	-0.750			
0.3677	23532.69	3.7080	3.7082	-1.0215	25.00	0.30	-0.750			
0.3708	23733.41	3.7050	3.7048	-1.0486	25.00	0.30	-0.750	0.377	0.492	
0.3740	23935.31	3.7020	3.7017	-1.0611	25.00	0.30	-0.750			
0.3772	24139.30	3.6990	3.6988	-1.0729	25.00	0.30	-0.750			
0.3804	24346.13	3.6960	3.6963	-1.0922	25.00	0.30	-0.750			
0.3837	24559.81	3.6930	3.6929	-1.1153	24.99	0.29	-0.750			
0.3871	24775.84	3.6900	3.6899	-1.1231	24.99	0.29	-0.750			
0.3904	24984.70	3.6870	3.6871	-1.1244	24.98	0.28	-0.750			
0.3939	25210.93	3.6840	3.6840	-1.1648	24.98	0.28	-0.750			
0.3974	25435.09	3.6810	3.6809	-1.1801	24.97	0.27	-0.750			
0.4010	25664.25	3.6780	3.6780	-1.1969	24.97	0.27	-0.750			
0.4046	25894.58	3.6750	3.6755	-1.2333	24.96	0.26	-0.750			
0.4084	26137.08	3.6720	3.6719	-1.2562	24.95	0.25	-0.750			
0.4122	26380.98	3.6690	3.6688	-1.2767	24.95	0.25	-0.750			
0.4160	26624.48	3.6660	3.6658	-1.3083	24.94	0.24	-0.750			
0.4200	26881.97	3.6630	3.6629	-1.3461	24.94	0.24	-0.750			
0.4241	27139.91	3.6600	3.6599	-1.3670	24.93	0.23	-0.750			
0.4282	27401.66	3.6570	3.6569	-1.4028	24.92	0.22	-0.750			
0.4325	27680.20	3.6540	3.6540	-1.4433	24.91	0.21	-0.750			
0.4368	27956.55	3.6510	3.6509	-1.4881	24.90	0.20	-0.750			
0.4414	28252.44	3.6480	3.6480	-1.5223	24.89	0.19	-0.750			
0.4461	28549.19	3.6450	3.6448	-1.5550	24.88	0.18	-0.750			
0.4509	28857.59	3.6420	3.6416	-1.5933	24.88	0.18	-0.750			
0.4557	29164.98	3.6390	3.6391	-1.6192	24.87	0.17	-0.750			
0.4605	29473.38	3.6360	3.6360	-1.6538	24.86	0.16	-0.750			
0.4656	29798.55	3.6330	3.6328	-1.6796	24.84	0.14	-0.750			
0.4706	30115.71	3.6300	3.6299	-1.6857	24.83	0.13	-0.750			
0.4759	30455.05	3.6270	3.6268	-1.7476	24.83	0.13	-0.750			
0.4811	30790.99	3.6240	3.6239	-1.7618	24.82	0.12	-0.750			
0.4865	31133.99	3.6210	3.6210	-1.8136	24.81	0.11	-0.750			
0.4919	31480.70	3.6180	3.6184	-1.8603	24.80	0.10	-0.750			
0.4976	31844.48	3.6150	3.6151	-1.9067	24.79	0.09	-0.750			
0.5034	32217.68	3.6120	3.6121	-1.9482	24.78	0.08	-0.750			
0.5092	32589.48	3.6090	3.6091	-1.9955	24.77	0.07	-0.750			
0.5154	32987.71	3.6060	3.6060	-2.0018	24.76	0.06	-0.750			
0.5214	33372.28	3.6030	3.6030	-2.0410	24.75	0.05	-0.750			
0.5275	33756.85	3.6000	3.5999	-2.0847	24.74	0.04	-0.750			
0.5340	34173.83	3.5970	3.5970	-2.1382	24.73	0.03	-0.750			
0.5406	34598.24	3.5940	3.5942	-2.1950	24.72	0.02	-0.750			
0.5473	35024.87	3.5910	3.5912	-2.2622	24.71	0.01	-0.750			
0.5538	35443.16	3.5880	3.5881	-2.2216	24.70	0.00	-0.750			
0.5605	35873.02	3.5850	3.5847	-2.2341	24.70	-0.00	-0.750			
0.5671	36296.15	3.5820	3.5824	-2.2566	24.69	-0.01	-0.750			
0.5740	36737.53	3.5790	3.5792	-2.2865	24.68	-0.02	-0.750			
0.5809	37177.04	3.5760	3.5759	-2.2915	24.68	-0.02	-0.750			
0.5879	37626.40	3.5730	3.5725	-2.3486	24.68	-0.02	-0.750			
0.5950	38081.16	3.5700	3.5703	-2.4136	24.68	-0.02	-0.750			
0.6023	38548.71	3.5670	3.5672	-2.4055	24.68	-0.02	-0.750			
0.6097	39020.27	3.5640	3.5639	-2.4108	24.68	-0.02	-0.750			
0.6170	39487.53	3.5610	3.5609	-2.4156	24.67	-0.03	-0.750			
0.6240	39938.31	3.5580	3.5582	-2.3872	24.66	-0.04	-0.750			
0.6313	40402.75	3.5550	3.5552	-2.3216	24.66	-0.04	-0.750			
0.6383	40850.55	3.5520	3.5520	-2.3033	24.66	-0.04	-0.750			
0.6450	41280.58	3.5490	3.5485	-2.2650	24.66	-0.04	-0.750			
0.6516	41703.74	3.5460	3.5462	-2.2469	24.68	-0.02	-0.750			
0.6584	42134.86	3.5430	3.5432	-2.2149	24.69	-0.01	-0.750			
0.6652	42574.23	3.5400	3.5397	-2.2152	24.70	-0.00	-0.750			
0.6717	42988.14	3.5370	3.5370	-2.1702	24.70	0.00	-0.750			
0.6782	43404.18	3.5340	3.5343	-2.1046	24.71	0.01	-0.750			
0.6846	43813.74	3.5310	3.5309	-2.0780	24.71	0.01	-0.750			
0.6906	44199.80	3.5280	3.5278	-2.0113	24.72	0.02	-0.750			
0.6965	44575.05	3.5250	3.5251	-1.9427	24.73	0.03	-0.750			
0.7023	44950.37	3.5220	3.5220	-1.8981	24.74	0.04	-0.750			
0.7079	45304.24	3.5190	3.5189	-1.8198	24.76	0.06	-0.750			
0.7134	45654.51	3.5160	3.5159	-1.7605	24.78	0.08	-0.750			
0.7185	45983.89	3.5130	3.5129	-1.6875	24.79	0.09	-0.750			
0.7234	46296.96	3.5100	3.5102	-1.6232	24.81	0.11	-0.750			
0.7281	46595.73	3.5070	3.5069	-1.5630	24.82	0.12	-0.750			
0.7326	46888.01	3.5040	3.5040	-1.5253	24.84	0.14	-0.750			
0.7372	47182.12	3.5010	3.5009	-1.4876	24.85	0.15	-0.750			
0.7417	47466.97	3.4980	3.4980	-1.5003	24.87	0.17	-0.750			
