Ah_balance (normalized)	Ah_balance (mAh)	Voltage - fit (V)	Voltage -  interpolate (V)	dQ/dV (1/V)	Temperature (°C)	Temperature - diff (°C)	Current (C)	R_DC 0ms (mOhm)	R_DC 50ms (mOhm)	R_DC 50 ms PEC (mOhm)
0.0002	13.41	4.1650	4.1645	-0.1014	25.22	0.02	-0.750			
0.0006	38.74	4.1620	4.1615	-0.1531	25.22	0.02	-0.750			
0.0011	71.29	4.1590	4.1591	-0.2007	25.22	0.02	-0.750			
0.0018	115.42	4.1560	4.1561	-0.2489	25.21	0.01	-0.750			
0.0026	168.46	4.1530	4.1529	-0.2933	25.21	0.01	-0.750			
0.0036	231.41	4.1500	4.1499	-0.3402	25.21	0.01	-0.750			
0.0047	300.95	4.1470	4.1471	-0.3794	25.21	0.01	-0.750			
0.0059	378.26	4.1440	4.1439	-0.4194	25.20	0.00	-0.750			
0.0073	464.68	4.1410	4.1414	-0.4553	25.20	0.00	-0.750			
0.0087	555.27	4.1380	4.1378	-0.4847	25.20	-0.00	-0.750			
0.0102	652.42	4.1350	4.1350	-0.5146	25.19	-0.01	-0.750			
0.0118	753.11	4.1320	4.1321	-0.5466	25.19	-0.01	-0.750			
0.0134	859.19	4.1290	4.1290	-0.5758	25.19	-0.01	-0.750			
0.0153	976.29	4.1260	4.1259	-0.6024	25.18	-0.02	-0.750			
0.0171	1094.44	4.1230	4.1231	-0.6223	25.18	-0.02	-0.750			
0.0190	1217.90	4.1200	4.1200	-0.6380	25.17	-0.03	-0.750			
0.0210	1342.72	4.1170	4.1169	-0.6502	25.17	-0.03	-0.750			
0.0229	1467.66	4.1140	4.1141	-0.6625	25.17	-0.03	-0.750			
0.0249	1593.73	4.1110	4.1110	-0.6771	25.16	-0.04	-0.750			
0.0270	1725.91	4.1080	4.1080	-0.6876	25.16	-0.04	-0.750			
0.0291	1861.98	4.1050	4.1048	-0.6952	25.16	-0.04	-0.750			
0.0312	1995.98	4.1020	4.1021	-0.7080	25.15	-0.05	-0.750			
0.0333	2133.05	4.0990	4.0992	-0.7184	25.15	-0.05	-0.750			
0.0355	2271.16	4.0960	4.0959	-0.7266	25.15	-0.05	-0.750			
0.0377	2411.59	4.0930	4.0929	-0.7415	25.15	-0.05	-0.750			
0.0399	2555.98	4.0900	4.0900	-0.7413	25.14	-0.06	-0.750			
0.0422	2702.07	4.0870	4.0869	-0.7402	25.14	-0.06	-0.750			
0.0445	2847.90	4.0840	4.0842	-0.7385	25.14	-0.06	-0.750			
0.0466	2984.91	4.0810	4.0808	-0.7396	25.14	-0.06	-0.750			
0.0488	3124.55	4.0780	4.0779	-0.7349	25.14	-0.06	-0.750			
0.0511	3267.87	4.0750	4.0748	-0.7415	25.14	-0.06	-0.750			
0.0533	3413.16	4.0720	4.0721	-0.7543	25.14	-0.06	-0.750			
0.0556	3558.32	4.0690	4.0689	-0.7596	25.14	-0.06	-0.750			
0.0579	3703.94	4.0660	4.0664	-0.7582	25.14	-0.06	-0.750			
0.0601	3848.58	4.0630	4.0627	-0.7620	25.14	-0.06	-0.750			
0.0624	3992.68	4.0600	4.0600	-0.7660	25.14	-0.06	-0.750			
0.0647	4139.14	4.0570	4.0571	-0.7642	25.14	-0.06	-0.750			
0.0671	4292.65	4.0540	4.0539	-0.7759	25.14	-0.06	-0.750			
0.0694	4442.56	4.0510	4.0509	-0.7752	25.14	-0.06	-0.750			
0.0717	4587.60	4.0480	4.0480	-0.7710	25.14	-0.06	-0.750			
0.0740	4734.56	4.0450	4.0450	-0.7842	25.14	-0.06	-0.750			
0.0763	4885.80	4.0420	4.0419	-0.7771	25.14	-0.06	-0.750			
0.0787	5036.50	4.0390	4.0389	-0.7776	25.14	-0.06	-0.750			
0.0811	5188.27	4.0360	4.0360	-0.7845	25.14	-0.06	-0.750			
0.0834	5338.11	4.0330	4.0331	-0.7842	25.14	-0.06	-0.750			
0.0857	5487.98	4.0300	4.0298	-0.7806	25.14	-0.06	-0.750			
0.0881	5636.96	4.0270	4.0270	-0.7883	25.14	-0.06	-0.750			
0.0904	5788.16	4.0240	4.0240	-0.7816	25.15	-0.05	-0.750			
0.0929	5943.64	4.0210	4.0210	-0.7935	25.15	-0.05	-0.750			
0.0952	6094.14	4.0180	4.0184	-0.7921	25.15	-0.05	-0.750			
0.0976	6244.56	4.0150	4.0149	-0.7889	25.15	-0.05	-0.750			
0.0999	6396.14	4.0120	4.0119	-0.7995	25.15	-0.05	-0.750			
0.1024	6552.00	4.0090	4.0090	-0.7894	25.15	-0.05	-0.750			
0.1048	6704.29	4.0060	4.0059	-0.7971	25.15	-0.05	-0.750			
0.1072	6857.71	4.0030	4.0035	-0.7964	25.15	-0.05	-0.750			
0.1095	7007.31	4.0000	3.9998	-0.7975	25.15	-0.05	-0.750			
0.1119	7160.11	3.9970	3.9968	-0.8165	25.16	-0.04	-0.750			
0.1144	7320.68	3.9940	3.9939	-0.8126	25.16	-0.04	-0.750			
0.1169	7482.17	3.9910	3.9907	-0.8272	25.17	-0.03	-0.750			
0.1194	7641.18	3.9880	3.9886	-0.8278	25.17	-0.03	-0.750			
0.1218	7798.18	3.9850	3.9848	-0.8127	25.17	-0.03	-0.750			
0.1243	7953.12	3.9820	3.9818	-0.8080	25.17	-0.03	-0.750			
0.1266	8104.85	3.9790	3.9790	-0.8055	25.18	-0.02	-0.750			
0.1290	8258.96	3.9760	3.9762	-0.8156	25.18	-0.02	-0.750			
0.1315	8414.89	3.9730	3.9730	-0.8172	25.18	-0.02	-0.750			
0.1339	8570.67	3.9700	3.9700	-0.8202	25.18	-0.02	-0.750			
0.1364	8729.07	3.9670	3.9670	-0.8294	25.18	-0.02	-0.750			
0.1389	8890.94	3.9640	3.9640	-0.8389	25.18	-0.02	-0.750			
0.1414	9052.72	3.9610	3.9609	-0.8373	25.18	-0.02	-0.750			
0.1440	9215.52	3.9580	3.9580	-0.8320	25.18	-0.02	-0.750			
0.1465	9374.58	3.9550	3.9549	-0.8331	25.18	-0.02	-0.750			
0.1490	9533.35	3.9520	3.9520	-0.8427	25.18	-0.02	-0.750			
0.1515	9694.69	3.9490	3.9490	-0.8402	25.18	-0.02	-0.750			
0.1540	9857.52	3.9460	3.9458	-0.8350	25.18	-0.02	-0.750			
0.1566	10021.49	3.9430	3.9430	-0.8399	25.18	-0.02	-0.750			
0.1591	10181.72	3.9400	3.9399	-0.8392	25.18	-0.02	-0.750			
0.1616	10341.42	3.9370	3.9370	-0.8454	25.19	-0.01	-0.750			
0.1641	10500.80	3.9340	3.9339	-0.8394	25.19	-0.01	-0.750			
0.1666	10660.61	3.9310	3.9308	-0.8362	25.19	-0.01	-0.750			
0.1692	10829.16	3.9280	3.9282	-0.8528	25.20	-0.00	-0.750			
0.1718	10992.95	3.9250	3.9249	-0.8544	25.20	0.00	-0.750			
0.1744	11158.49	3.9220	3.9221	-0.8601	25.20	0.00	-0.750			
0.1769	11323.65	3.9190	3.9188	-0.8586	25.20	0.00	-0.750			
0.1795	11485.13	3.9160	3.9160	-0.8568	25.20	0.00	-0.750			
0.1821	11653.46	3.9130	3.9133	-0.8683	25.20	0.00	-0.750			
0.1846	11815.76	3.9100	3.9099	-0.8860	25.20	0.00	-0.750			
0.1873	11989.95	3.9070	3.9069	-0.8759	25.20	0.00	-0.750			
0.1900	12159.95	3.9040	3.9039	-0.8698	25.21	0.01	-0.750			
0.1927	12330.46	3.9010	3.9008	-0.8771	25.21	0.01	-0.750			
0.1952	12495.61	3.8980	3.8986	-0.8648	25.21	0.01	-0.750			
0.1978	12659.47	3.8950	3.8949	-0.8594	25.21	0.01	-0.750			
0.2003	12821.97	3.8920	3.8919	-0.8624	25.21	0.01	-0.750			
0.2029	12984.81	3.8890	3.8889	-0.8619	25.22	0.02	-0.750			
0.2056	13157.04	3.8860	3.8860	-0.8713	25.22	0.02	-0.750			
0.2082	13324.78	3.8830	3.8833	-0.8771	25.22	0.02	-0.750			
0.2108	13490.98	3.8800	3.8799	-0.8783	25.22	0.02	-0.750			
0.2134	13658.15	3.8770	3.8768	-0.8730	25.22	0.02	-0.750			
0.2160	13824.08	3.8740	3.8740	-0.8727	25.22	0.02	-0.750			
0.2187	13996.65	3.8710	3.8710	-0.8807	25.22	0.02	-0.750			
0.2214	14168.96	3.8680	3.8680	-0.8794	25.22	0.02	-0.750			
0.2240	14337.37	3.8650	3.8649	-0.8898	25.22	0.02	-0.750			
0.2266	14505.18	3.8620	3.8619	-0.8845	25.23	0.03	-0.750			
0.2293	14674.49	3.8590	3.8589	-0.8855	25.23	0.03	-0.750			
0.2320	14846.89	3.8560	3.8560	-0.8884	25.23	0.03	-0.750			
0.2347	15019.71	3.8530	3.8529	-0.8844	25.23	0.03	-0.750			
0.2373	15190.14	3.8500	3.8500	-0.8894	25.23	0.03	-0.750			
0.2400	15360.12	3.8470	3.8470	-0.8830	25.24	0.04	-0.750			
0.2426	15529.34	3.8440	3.8439	-0.8846	25.24	0.04	-0.750			
0.2453	15698.10	3.8410	3.8414	-0.8800	25.24	0.04	-0.750			
0.2479	15865.54	3.8380	3.8378	-0.8809	25.24	0.04	-0.750			
0.2505	16034.37	3.8350	3.8350	-0.8768	25.24	0.04	-0.750			
0.2532	16202.75	3.8320	3.8320	-0.8719	25.25	0.05	-0.750			
0.2558	16371.25	3.8290	3.8290	-0.8803	25.25	0.05	-0.750			
0.2584	16539.63	3.8260	3.8260	-0.8788	25.25	0.05	-0.750			
0.2610	16705.53	3.8230	3.8231	-0.8889	25.26	0.06	-0.750			
0.2637	16879.59	3.8200	3.8199	-0.8879	25.26	0.06	-0.750			
0.2664	17051.07	3.8170	3.8169	-0.8888	25.26	0.06	-0.750			
0.2691	17224.25	3.8140	3.8139	-0.8865	25.27	0.07	-0.750			
0.2718	17393.74	3.8110	3.8109	-0.8841	25.27	0.07	-0.750			
0.2744	17560.72	3.8080	3.8080	-0.8795	25.27	0.07	-0.750			
0.2770	17729.34	3.8050	3.8048	-0.8678	25.27	0.07	-0.750			
0.2797	17897.91	3.8020	3.8020	-0.8683	25.27	0.07	-0.750			
0.2822	18063.04	3.7990	3.7993	-0.8664	25.27	0.07	-0.750			
0.2848	18228.34	3.7960	3.7959	-0.8622	25.27	0.07	-0.750			
0.2874	18393.72	3.7930	3.7929	-0.8666	25.27	0.07	-0.750			
0.2900	18557.95	3.7900	3.7899	-0.8545	25.27	0.07	-0.750			
0.2926	18725.88	3.7870	3.7869	-0.8603	25.27	0.07	-0.750			
0.2952	18890.80	3.7840	3.7843	-0.8559	25.27	0.07	-0.750			
0.2977	19050.42	3.7810	3.7810	-0.8711	25.27	0.07	-0.750			
0.3003	19216.63	3.7780	3.7779	-0.8482	25.28	0.08	-0.750			
0.3028	19380.82	3.7750	3.7749	-0.8439	25.28	0.08	-0.750			
0.3054	19543.59	3.7720	3.7718	-0.8411	25.29	0.09	-0.750			
0.3079	19704.46	3.7690	3.7693	-0.8366	25.29	0.09	-0.750			
0.3103	19861.60	3.7660	3.7659	-0.8361	25.29	0.09	-0.750			
0.3128	20019.36	3.7630	3.7629	-0.8359	25.29	0.09	-0.750			
0.3153	20180.99	3.7600	3.7600	-0.8458	25.28	0.08	-0.750			
0.3179	20343.37	3.7570	3.7568	-0.8372	25.28	0.08	-0.750			
0.3204	20504.74	3.7540	3.7543	-0.8374	25.28	0.08	-0.750			
0.3229	20665.64	3.7510	3.7510	-0.8302	25.28	0.08	-0.750			
0.3253	20821.49	3.7480	3.7479	-0.8361	25.29	0.09	-0.750			
0.3278	20981.71	3.7450	3.7450	-0.8390	25.29	0.09	-0.750			
0.3304	21142.50	3.7420	3.7419	-0.8448	25.30	0.10	-0.750			
0.3329	21305.33	3.7390	3.7393	-0.8611	25.30	0.10	-0.750			
0.3355	21471.95	3.7360	3.7359	-0.8793	25.30	0.10	-0.750			
0.3381	21641.52	3.7330	3.7329	-0.8913	25.30	0.10	-0.750			
0.3409	21816.40	3.7300	3.7299	-0.8942	25.30	0.10	-0.750			
0.3436	21990.13	3.7270	3.7269	-0.9019	25.30	0.10	-0.750			
0.3463	22163.09	3.7240	3.7240	-0.9137	25.30	0.10	-0.750			
0.3490	22337.54	3.7210	3.7209	-0.9197	25.30	0.10	-0.750			
0.3518	22512.64	3.7180	3.7179	-0.9224	25.30	0.10	-0.750			
0.3545	22688.16	3.7150	3.7150	-0.9293	25.30	0.10	-0.750			
0.3573	22868.63	3.7120	3.7123	-0.9561	25.30	0.10	-0.750			
0.3602	23055.52	3.7090	3.7089	-0.9800	25.30	0.10	-0.750			
0.3632	23245.30	3.7060	3.7059	-0.9920	25.30	0.10	-0.750			
0.3662	23438.33	3.7030	3.7028	-1.0021	25.29	0.09	-0.750			
0.3693	23633.23	3.7000	3.7000	-1.0186	25.29	0.09	-0.750	0.445	0.542	
0.3724	23831.83	3.6970	3.6970	-1.0652	25.29	0.09	-0.750			
0.3756	24041.47	3.6940	3.6938	-1.0670	25.28	0.08	-0.750			
0.3788	24244.57	3.6910	3.6907	-1.0692	25.28	0.08	-0.750			
0.3820	24449.60	3.6880	3.6889	-1.1057	25.27	0.07	-0.750			
0.3854	24667.69	3.6850	3.6846	-1.1232	25.27	0.07	-0.750			
0.3887	24878.88	3.6820	3.6819	-1.1707	25.26	0.06	-0.750			
0.3922	25100.05	3.6790	3.6788	-1.1977	25.26	0.06	-0.750			
0.3960	25343.52	3.6760	3.6759	-1.2682	25.26	0.06	-0.750			
0.4000	25598.87	3.6730	3.6728	-1.2924	25.25	0.05	-0.750			
0.4039	25851.54	3.6700	3.6698	-1.3141	25.24	0.04	-0.750			
0.4079	26104.77	3.6670	3.6674	-1.3409	25.23	0.03	-0.750			
0.4121	26373.20	3.6640	3.6637	-1.3511	25.22	0.02	-0.750			
0.4158	26612.85	3.6610	3.6609	-1.3859	25.22	0.02	-0.750			
0.4203	26897.06	3.6580	3.6585	-1.4009	25.21	0.01	-0.750			
0.4246	27173.84	3.6550	3.6547	-1.4231	25.20	0.00	-0.750			
0.4288	27445.09	3.6520	3.6523	-1.4615	25.20	-0.00	-0.750			
0.4331	27721.40	3.6490	3.6494	-1.4839	25.19	-0.01	-0.750			
0.4378	28017.31	3.6460	3.6456	-1.5176	25.18	-0.02	-0.750			
0.4424	28310.85	3.6430	3.6433	-1.5674	25.17	-0.03	-0.750			
0.4471	28615.49	3.6400	3.6398	-1.5968	25.16	-0.04	-0.750			
0.4521	28937.12	3.6370	3.6368	-1.6136	25.15	-0.05	-0.750			
0.4570	29248.29	3.6340	3.6344	-1.6362	25.14	-0.06	-0.750			
0.4619	29559.94	3.6310	3.6312	-1.6581	25.13	-0.07	-0.750			
0.4669	29878.94	3.6280	3.6276	-1.6681	25.12	-0.08	-0.750			
0.4718	30195.67	3.6250	3.6246	-1.6958	25.12	-0.08	-0.750			
0.4769	30520.94	3.6220	3.6219	-1.7639	25.11	-0.09	-0.750			
0.4821	30856.72	3.6190	3.6192	-1.8384	25.10	-0.10	-0.750			
0.4878	31216.39	3.6160	3.6162	-1.8845	25.10	-0.10	-0.750			
0.4937	31598.99	3.6130	3.6129	-1.9188	25.09	-0.11	-0.750			
0.4996	31977.10	3.6100	3.6101	-1.9815	25.08	-0.12	-0.750			
0.5057	32361.84	3.6070	3.6071	-1.9919	25.06	-0.14	-0.750			
0.5116	32743.18	3.6040	3.6039	-1.9969	25.06	-0.14	-0.750			
0.5176	33125.17	3.6010	3.6011	-1.9963	25.06	-0.14	-0.750			
0.5236	33507.88	3.5980	3.5981	-2.0642	25.06	-0.14	-0.750			
0.5298	33906.55	3.5950	3.5953	-2.0862	25.06	-0.14	-0.750			
0.5361	34311.84	3.5920	3.5916	-2.1141	25.05	-0.15	-0.750			
0.5425	34721.52	3.5890	3.5890	-2.1877	25.04	-0.16	-0.750			
0.5491	35143.66	3.5860	3.5862	-2.2214	25.04	-0.16	-0.750			
0.5561	35589.24	3.5830	3.5829	-2.2176	25.04	-0.16	-0.750			
0.5627	36011.58	3.5800	3.5797	-2.2690	25.03	-0.17	-0.750			
0.5693	36432.47	3.5770	3.5768	-2.2925	25.02	-0.18	-0.750			
0.5763	36882.41	3.5740	3.5739	-2.2837	25.02	-0.18	-0.750			
0.5834	37338.43	3.5710	3.5711	-2.3129	25.02	-0.18	-0.750			
0.5904	37788.23	3.5680	3.5678	-2.3477	25.02	-0.18	-0.750			
0.5972	38220.87	3.5650	3.5653	-2.3218	25.02	-0.18	-0.750			
0.6044	38681.52	3.5620	3.5621	-2.2956	25.02	-0.18	-0.750			
0.6114	39132.31	3.5590	3.5589	-2.3369	25.02	-0.18	-0.750			
0.6183	39572.94	3.5560	3.5561	-2.3327	25.02	-0.18	-0.750			
0.6252	40010.74	3.5530	3.5530	-2.2942	25.02	-0.18	-0.750			
0.6321	40453.27	3.5500	3.5500	-2.2666	25.03	-0.17	-0.750			
0.6390	40898.89	3.5470	3.5470	-2.2324	25.04	-0.16	-0.750			
0.6454	41305.99	3.5440	3.5442	-2.1730	25.04	-0.16	-0.750			
0.6519	41723.22	3.5410	3.5411	-2.1323	25.04	-0.16	-0.750			
0.6583	42132.14	3.5380	3.5378	-2.0871	25.04	-0.16	-0.750			
0.6644	42523.78	3.5350	3.5353	-2.0685	25.05	-0.15	-0.750			
0.6707	42926.88	3.5320	3.5319	-2.0067	25.06	-0.14	-0.750			
0.6768	43312.08	3.5290	3.5287	-1.9744	25.07	-0.13	-0.750			
0.6827	43694.07	3.5260	3.5263	-1.8513	25.08	-0.12	-0.750			
0.6883	44051.60	3.5230	3.5232	-1.7527	25.09	-0.11	-0.750			
0.6933	44371.08	3.5200	3.5205	-1.6389	25.11	-0.09	-0.750			
0.6978	44661.80	3.5170	3.5174	-1.5627	25.12	-0.08	-0.750			
0.7021	44931.34	3.5140	3.5132	-1.5691	25.13	-0.07	-0.750			
0.7067	45225.83	3.5110	3.5105	-1.5392	25.14	-0.06	-0.750			
0.7115	45533.32	3.5080	3.5082	-1.5179	25.15	-0.05	-0.750			
0.7163	45846.12	3.5050	3.5055	-1.5242	25.17	-0.03	-0.750			
0.7207	46127.75	3.5020	3.5014	-1.4691	25.18	-0.02	-0.750			
0.7252	46415.32	3.4990	3.4984	-1.4097	25.20	-0.00	-0.750			
0.7291	46664.48	3.4960	3.4958	-1.4061	25.21	0.01	-0.750			
0.7333	46933.61	3.4930	3.4933	-1.3166	25.22	0.02	-0.750			
