Ah_balance (normalized)	Ah_balance (mAh)	Voltage - fit (V)	Voltage -  interpolate (V)	dQ/dV (1/V)	Temperature (°C)	Temperature - diff (°C)	Current (C)	R_DC 0ms (mOhm)	R_DC 50ms (mOhm)	R_DC 50 ms PEC (mOhm)
0.0004	26.25	4.1590	4.1586	-0.1286	24.93	0.00	-0.750			
0.0009	55.08	4.1560	4.1558	-0.1716	24.93	0.00	-0.750			
0.0014	92.66	4.1530	4.1533	-0.2139	24.93	-0.00	-0.750			
0.0022	137.66	4.1500	4.1500	-0.2553	24.93	-0.00	-0.750			
0.0030	190.94	4.1470	4.1470	-0.2941	24.93	-0.00	-0.750			
0.0039	252.02	4.1440	4.1440	-0.3338	24.92	-0.01	-0.750			
0.0050	319.49	4.1410	4.1410	-0.3700	24.92	-0.01	-0.750			
0.0062	395.29	4.1380	4.1380	-0.4051	24.91	-0.02	-0.750			
0.0075	477.32	4.1350	4.1349	-0.4355	24.91	-0.02	-0.750			
0.0088	565.11	4.1320	4.1320	-0.4619	24.91	-0.02	-0.750			
0.0103	656.09	4.1290	4.1291	-0.4917	24.90	-0.03	-0.750			
0.0118	753.27	4.1260	4.1260	-0.5182	24.90	-0.03	-0.750			
0.0134	854.79	4.1230	4.1229	-0.5429	24.89	-0.04	-0.750			
0.0150	962.21	4.1200	4.1198	-0.5634	24.89	-0.04	-0.750			
0.0168	1073.20	4.1170	4.1171	-0.5838	24.88	-0.05	-0.750			
0.0186	1188.81	4.1140	4.1141	-0.6047	24.88	-0.05	-0.750			
0.0204	1306.84	4.1110	4.1110	-0.6247	24.87	-0.06	-0.750			
0.0223	1429.34	4.1080	4.1079	-0.6333	24.87	-0.06	-0.750			
0.0243	1553.27	4.1050	4.1049	-0.6468	24.87	-0.06	-0.750			
0.0263	1680.16	4.1020	4.1020	-0.6543	24.86	-0.07	-0.750			
0.0282	1807.08	4.0990	4.0989	-0.6599	24.86	-0.07	-0.750			
0.0302	1933.08	4.0960	4.0960	-0.6629	24.85	-0.08	-0.750			
0.0322	2059.00	4.0930	4.0932	-0.6727	24.85	-0.08	-0.750			
0.0342	2191.86	4.0900	4.0898	-0.6808	24.85	-0.08	-0.750			
0.0363	2322.12	4.0870	4.0868	-0.6871	24.84	-0.09	-0.750			
0.0383	2454.36	4.0840	4.0842	-0.6916	24.84	-0.09	-0.750			
0.0404	2588.16	4.0810	4.0808	-0.6997	24.84	-0.09	-0.750			
0.0426	2723.92	4.0780	4.0780	-0.7038	24.84	-0.09	-0.750			
0.0447	2858.42	4.0750	4.0750	-0.7114	24.84	-0.09	-0.750			
0.0468	2993.79	4.0720	4.0721	-0.7070	24.84	-0.09	-0.750			
0.0490	3134.02	4.0690	4.0690	-0.7217	24.84	-0.09	-0.750			
0.0511	3271.35	4.0660	4.0661	-0.7212	24.84	-0.09	-0.750			
0.0533	3410.82	4.0630	4.0630	-0.7251	24.84	-0.09	-0.750			
0.0554	3546.30	4.0600	4.0600	-0.7462	24.84	-0.09	-0.750			
0.0577	3694.02	4.0570	4.0570	-0.7405	24.84	-0.09	-0.750			
0.0600	3837.17	4.0540	4.0539	-0.7407	24.84	-0.09	-0.750			
0.0622	3983.29	4.0510	4.0508	-0.7453	24.84	-0.09	-0.750			
0.0644	4123.98	4.0480	4.0482	-0.7374	24.84	-0.09	-0.750			
0.0666	4264.60	4.0450	4.0448	-0.7394	24.84	-0.09	-0.750			
0.0688	4405.65	4.0420	4.0420	-0.7423	24.84	-0.09	-0.750			
0.0711	4547.77	4.0390	4.0388	-0.7516	24.84	-0.09	-0.750			
0.0733	4692.65	4.0360	4.0359	-0.7502	24.84	-0.09	-0.750			
0.0756	4836.18	4.0330	4.0332	-0.7521	24.84	-0.09	-0.750			
0.0778	4980.45	4.0300	4.0298	-0.7513	24.84	-0.09	-0.750			
0.0801	5124.19	4.0270	4.0268	-0.7503	24.84	-0.09	-0.750			
0.0823	5267.85	4.0240	4.0241	-0.7579	24.84	-0.09	-0.750			
0.0846	5413.67	4.0210	4.0209	-0.7528	24.85	-0.08	-0.750			
0.0869	5562.06	4.0180	4.0180	-0.7619	24.85	-0.08	-0.750			
0.0892	5708.23	4.0150	4.0153	-0.7625	24.85	-0.08	-0.750			
0.0915	5853.00	4.0120	4.0118	-0.7607	24.85	-0.08	-0.750			
0.0938	6000.58	4.0090	4.0089	-0.7732	24.85	-0.08	-0.750			
0.0961	6148.49	4.0060	4.0059	-0.7705	24.85	-0.08	-0.750			
0.0984	6300.75	4.0030	4.0029	-0.7720	24.85	-0.08	-0.750			
0.1008	6448.76	4.0000	3.9998	-0.7685	24.85	-0.08	-0.750			
0.1030	6594.57	3.9970	3.9969	-0.7632	24.85	-0.08	-0.750			
0.1053	6740.62	3.9940	3.9939	-0.7609	24.85	-0.08	-0.750			
0.1076	6883.33	3.9910	3.9910	-0.7666	24.85	-0.08	-0.750			
0.1099	7034.14	3.9880	3.9879	-0.7806	24.86	-0.07	-0.750			
0.1123	7184.88	3.9850	3.9849	-0.7812	24.86	-0.07	-0.750			
0.1146	7334.96	3.9820	3.9822	-0.7816	24.86	-0.07	-0.750			
0.1169	7483.70	3.9790	3.9790	-0.7846	24.86	-0.07	-0.750			
0.1193	7635.63	3.9760	3.9759	-0.7844	24.86	-0.07	-0.750			
0.1216	7782.70	3.9730	3.9730	-0.7784	24.86	-0.07	-0.750			
0.1240	7935.14	3.9700	3.9700	-0.7926	24.86	-0.07	-0.750			
0.1264	8088.72	3.9670	3.9673	-0.7973	24.86	-0.07	-0.750			
0.1288	8242.77	3.9640	3.9639	-0.7979	24.86	-0.07	-0.750			
0.1312	8396.01	3.9610	3.9610	-0.8025	24.87	-0.06	-0.750			
0.1336	8552.08	3.9580	3.9580	-0.7992	24.87	-0.06	-0.750			
0.1360	8707.06	3.9550	3.9549	-0.7997	24.88	-0.05	-0.750			
0.1384	8857.89	3.9520	3.9518	-0.7954	24.88	-0.05	-0.750			
0.1408	9008.98	3.9490	3.9490	-0.7918	24.88	-0.05	-0.750			
0.1431	9160.96	3.9460	3.9459	-0.7967	24.88	-0.05	-0.750			
0.1455	9313.54	3.9430	3.9429	-0.7972	24.88	-0.05	-0.750			
0.1479	9468.49	3.9400	3.9400	-0.8052	24.88	-0.05	-0.750			
0.1504	9623.42	3.9370	3.9370	-0.8056	24.88	-0.05	-0.750			
0.1528	9778.29	3.9340	3.9339	-0.8091	24.88	-0.05	-0.750			
0.1552	9933.76	3.9310	3.9309	-0.8080	24.88	-0.05	-0.750			
0.1576	10088.08	3.9280	3.9280	-0.8065	24.88	-0.05	-0.750			
0.1600	10242.23	3.9250	3.9251	-0.8070	24.88	-0.05	-0.750			
0.1625	10398.90	3.9220	3.9220	-0.8116	24.88	-0.05	-0.750			
0.1649	10553.12	3.9190	3.9190	-0.8165	24.88	-0.05	-0.750			
0.1674	10710.67	3.9160	3.9160	-0.8228	24.89	-0.04	-0.750			
0.1699	10870.54	3.9130	3.9129	-0.8254	24.89	-0.04	-0.750			
0.1724	11034.65	3.9100	3.9099	-0.8227	24.89	-0.04	-0.750			
0.1749	11191.87	3.9070	3.9068	-0.8141	24.90	-0.03	-0.750			
0.1773	11348.01	3.9040	3.9038	-0.8045	24.90	-0.03	-0.750			
0.1797	11497.89	3.9010	3.9009	-0.8092	24.90	-0.03	-0.750			
0.1820	11647.42	3.8980	3.8979	-0.8012	24.90	-0.03	-0.750			
0.1845	11805.96	3.8950	3.8949	-0.8253	24.90	-0.03	-0.750			
0.1869	11964.79	3.8920	3.8921	-0.8232	24.90	-0.03	-0.750			
0.1895	12125.22	3.8890	3.8893	-0.8247	24.90	-0.03	-0.750			
0.1919	12281.96	3.8860	3.8860	-0.8224	24.90	-0.03	-0.750			
0.1944	12439.99	3.8830	3.8830	-0.8144	24.90	-0.03	-0.750			
0.1968	12594.41	3.8800	3.8800	-0.8044	24.90	-0.03	-0.750			
0.1992	12748.55	3.8770	3.8769	-0.8072	24.90	-0.03	-0.750			
0.2016	12902.13	3.8740	3.8743	-0.8055	24.90	-0.03	-0.750			
0.2040	13056.97	3.8710	3.8710	-0.8075	24.90	-0.03	-0.750			
0.2065	13213.50	3.8680	3.8679	-0.8208	24.90	-0.03	-0.750			
0.2090	13375.94	3.8650	3.8648	-0.8069	24.90	-0.03	-0.750			
0.2115	13532.99	3.8620	3.8618	-0.8026	24.90	-0.03	-0.750			
0.2138	13684.00	3.8590	3.8600	-0.7973	24.90	-0.03	-0.750			
0.2162	13834.04	3.8560	3.8558	-0.7853	24.90	-0.03	-0.750			
0.2185	13983.66	3.8530	3.8528	-0.7832	24.91	-0.02	-0.750			
0.2208	14130.27	3.8500	3.8500	-0.7721	24.91	-0.02	-0.750			
0.2232	14283.78	3.8470	3.8471	-0.7876	24.91	-0.02	-0.750			
0.2255	14434.53	3.8440	3.8441	-0.7835	24.92	-0.01	-0.750			
0.2279	14582.68	3.8410	3.8408	-0.7807	24.92	-0.01	-0.750			
0.2302	14731.05	3.8380	3.8379	-0.7743	24.92	-0.01	-0.750			
0.2325	14878.49	3.8350	3.8350	-0.7753	24.92	-0.01	-0.750			
0.2348	15027.80	3.8320	3.8321	-0.7742	24.93	-0.00	-0.750			
0.2372	15178.53	3.8290	3.8287	-0.7771	24.93	-0.00	-0.750			
0.2395	15325.66	3.8260	3.8262	-0.7718	24.93	0.00	-0.750			
0.2418	15473.63	3.8230	3.8229	-0.7732	24.93	0.00	-0.750			
0.2441	15622.08	3.8200	3.8200	-0.7788	24.93	0.00	-0.750			
0.2465	15775.67	3.8170	3.8168	-0.7745	24.93	0.00	-0.750			
0.2488	15923.20	3.8140	3.8140	-0.7700	24.93	0.00	-0.750			
0.2511	16072.18	3.8110	3.8109	-0.7580	24.93	0.00	-0.750			
0.2534	16215.69	3.8080	3.8079	-0.7514	24.93	0.00	-0.750			
0.2556	16356.23	3.8050	3.8050	-0.7601	24.93	0.00	-0.750			
0.2578	16499.71	3.8020	3.8018	-0.7531	24.94	0.01	-0.750			
0.2601	16648.24	3.7990	3.7988	-0.7571	24.94	0.01	-0.750			
0.2624	16793.43	3.7960	3.7960	-0.7567	24.94	0.01	-0.750			
0.2647	16938.86	3.7930	3.7932	-0.7577	24.94	0.01	-0.750			
0.2669	17084.30	3.7900	3.7899	-0.7667	24.94	0.01	-0.750			
0.2692	17227.15	3.7870	3.7869	-0.7608	24.94	0.01	-0.750			
0.2714	17371.81	3.7840	3.7840	-0.7631	24.94	0.01	-0.750			
0.2738	17524.02	3.7810	3.7811	-0.7742	24.94	0.01	-0.750			
0.2762	17676.50	3.7780	3.7780	-0.7766	24.94	0.01	-0.750			
0.2785	17822.24	3.7750	3.7750	-0.7803	24.94	0.01	-0.750			
0.2808	17969.79	3.7720	3.7720	-0.7956	24.94	0.01	-0.750			
0.2832	18125.28	3.7690	3.7688	-0.8010	24.94	0.01	-0.750			
0.2857	18282.29	3.7660	3.7659	-0.8015	24.94	0.01	-0.750			
0.2881	18439.39	3.7630	3.7634	-0.8084	24.94	0.01	-0.750			
0.2905	18594.56	3.7600	3.7599	-0.8068	24.94	0.01	-0.750			
0.2929	18748.10	3.7570	3.7568	-0.8108	24.94	0.01	-0.750			
0.2953	18900.58	3.7540	3.7540	-0.8076	24.94	0.01	-0.750			
0.2977	19052.22	3.7510	3.7509	-0.8071	24.94	0.01	-0.750			
0.3002	19214.69	3.7480	3.7480	-0.8297	24.94	0.01	-0.750			
0.3027	19373.27	3.7450	3.7449	-0.8389	24.94	0.01	-0.750			
0.3052	19534.21	3.7420	3.7419	-0.8490	24.94	0.01	-0.750			
0.3078	19700.67	3.7390	3.7389	-0.8554	24.94	0.01	-0.750			
0.3104	19863.39	3.7360	3.7360	-0.8645	24.94	0.01	-0.750			
0.3130	20033.28	3.7330	3.7331	-0.8816	24.94	0.01	-0.750			
0.3156	20200.51	3.7300	3.7299	-0.8975	24.94	0.01	-0.750			
0.3183	20374.11	3.7270	3.7269	-0.8995	24.93	0.00	-0.750			
0.3211	20547.89	3.7240	3.7240	-0.9107	24.93	-0.00	-0.750			
0.3238	20724.83	3.7210	3.7209	-0.9155	24.92	-0.01	-0.750			
0.3266	20905.03	3.7180	3.7186	-0.9310	24.92	-0.01	-0.750			
0.3294	21080.80	3.7150	3.7150	-0.9398	24.92	-0.01	-0.750			
0.3322	21261.55	3.7120	3.7120	-0.9488	24.91	-0.02	-0.750			
0.3351	21444.13	3.7090	3.7089	-0.9633	24.91	-0.02	-0.750			
0.3380	21632.16	3.7060	3.7059	-0.9819	24.90	-0.03	-0.750			
0.3410	21821.14	3.7030	3.7030	-0.9926	24.90	-0.03	-0.750			
0.3440	22012.83	3.7000	3.7000	-1.0089	24.89	-0.04	-0.750			
0.3470	22206.94	3.6970	3.6970	-1.0176	24.89	-0.04	-0.750	0.417	0.579	
0.3501	22403.78	3.6940	3.6940	-1.0294	24.88	-0.05	-0.750			
0.3532	22605.67	3.6910	3.6910	-1.0635	24.88	-0.05	-0.750			
0.3565	22815.94	3.6880	3.6879	-1.0707	24.87	-0.06	-0.750			
0.3597	23023.28	3.6850	3.6849	-1.0826	24.87	-0.06	-0.750			
0.3630	23231.17	3.6820	3.6824	-1.0915	24.86	-0.07	-0.750			
0.3663	23442.16	3.6790	3.6789	-1.1123	24.86	-0.07	-0.750			
0.3696	23656.74	3.6760	3.6757	-1.1211	24.85	-0.08	-0.750			
0.3730	23871.42	3.6730	3.6730	-1.1285	24.85	-0.08	-0.750			
0.3764	24091.44	3.6700	3.6704	-1.1608	24.84	-0.09	-0.750			
0.3799	24312.74	3.6670	3.6670	-1.1759	24.83	-0.10	-0.750			
0.3834	24538.63	3.6640	3.6639	-1.1979	24.83	-0.10	-0.750			
0.3869	24759.45	3.6610	3.6610	-1.2454	24.82	-0.11	-0.750			
0.3908	25012.82	3.6580	3.6578	-1.2641	24.82	-0.11	-0.750			
0.3947	25259.64	3.6550	3.6549	-1.2813	24.81	-0.12	-0.750			
0.3985	25506.00	3.6520	3.6520	-1.3194	24.80	-0.13	-0.750			
0.4026	25763.63	3.6490	3.6486	-1.3235	24.79	-0.14	-0.750			
0.4066	26021.06	3.6460	3.6457	-1.3300	24.78	-0.15	-0.750			
0.4104	26268.11	3.6430	3.6427	-1.3703	24.77	-0.16	-0.750			
0.4146	26533.75	3.6400	3.6403	-1.3844	24.76	-0.17	-0.750			
0.4191	26820.56	3.6370	3.6366	-1.4410	24.75	-0.18	-0.750			
0.4234	27098.05	3.6340	3.6350	-1.4666	24.74	-0.19	-0.750			
0.4278	27380.09	3.6310	3.6307	-1.4637	24.74	-0.19	-0.750			
0.4323	27670.14	3.6280	3.6283	-1.5109	24.74	-0.19	-0.750			
0.4369	27961.22	3.6250	3.6249	-1.5161	24.73	-0.20	-0.750			
0.4413	28244.83	3.6220	3.6218	-1.5188	24.73	-0.20	-0.750			
0.4460	28541.73	3.6190	3.6186	-1.5454	24.72	-0.21	-0.750			
0.4509	28855.34	3.6160	3.6158	-1.5892	24.72	-0.21	-0.750			
0.4556	29156.79	3.6130	3.6132	-1.6035	24.71	-0.22	-0.750			
0.4606	29481.24	3.6100	3.6102	-1.6622	24.71	-0.22	-0.750			
0.4656	29800.40	3.6070	3.6072	-1.6561	24.70	-0.23	-0.750			
0.4707	30126.82	3.6040	3.6045	-1.7125	24.69	-0.24	-0.750			
0.4758	30449.96	3.6010	3.6015	-1.7738	24.69	-0.24	-0.750			
0.4811	30789.32	3.5980	3.5979	-1.8233	24.69	-0.24	-0.750			
0.4866	31142.67	3.5950	3.5944	-1.9292	24.68	-0.25	-0.750			
0.4925	31518.10	3.5920	3.5920	-1.9802	24.68	-0.25	-0.750			
0.4988	31921.05	3.5890	3.5892	-2.0373	24.67	-0.26	-0.750			
0.5050	32317.23	3.5860	3.5863	-2.0103	24.67	-0.26	-0.750			
0.5109	32696.73	3.5830	3.5829	-1.9939	24.66	-0.27	-0.750			
0.5168	33075.21	3.5800	3.5797	-2.0285	24.66	-0.27	-0.750			
0.5229	33462.98	3.5770	3.5768	-1.9847	24.66	-0.27	-0.750			
0.5289	33850.14	3.5740	3.5736	-2.0109	24.66	-0.27	-0.750			
0.5350	34242.99	3.5710	3.5714	-2.0351	24.66	-0.27	-0.750			
0.5411	34630.20	3.5680	3.5675	-2.0733	24.66	-0.27	-0.750			
0.5473	35029.87	3.5650	3.5648	-2.0752	24.66	-0.27	-0.750			
0.5535	35421.31	3.5620	3.5617	-2.0708	24.66	-0.27	-0.750			
0.5599	35835.14	3.5590	3.5593	-2.0674	24.66	-0.27	-0.750			
0.5659	36220.29	3.5560	3.5562	-2.0596	24.66	-0.27	-0.750			
0.5722	36623.55	3.5530	3.5533	-2.0524	24.67	-0.26	-0.750			
0.5784	37019.56	3.5500	3.5498	-2.0421	24.68	-0.25	-0.750			
0.5842	37390.60	3.5470	3.5473	-2.0139	24.69	-0.24	-0.750			
0.5904	37783.08	3.5440	3.5440	-2.0123	24.69	-0.24	-0.750			
0.5966	38183.92	3.5410	3.5405	-2.0237	24.70	-0.23	-0.750			
0.6026	38568.89	3.5380	3.5381	-1.9756	24.70	-0.23	-0.750			
0.6086	38952.70	3.5350	3.5351	-1.9663	24.71	-0.22	-0.750			
0.6145	39326.98	3.5320	3.5321	-1.9118	24.72	-0.21	-0.750			
0.6200	39682.96	3.5290	3.5293	-1.8465	24.74	-0.19	-0.750			
0.6255	40034.93	3.5260	3.5261	-1.8105	24.76	-0.17	-0.750			
0.6309	40380.46	3.5230	3.5231	-1.7734	24.77	-0.16	-0.750			
0.6363	40722.71	3.5200	3.5200	-1.7363	24.79	-0.14	-0.750			
0.6415	41054.57	3.5170	3.5167	-1.6893	24.81	-0.12	-0.750			
0.6464	41370.14	3.5140	3.5139	-1.6467	24.82	-0.11	-0.750			
0.6513	41686.12	3.5110	3.5110	-1.6036	24.84	-0.09	-0.750			
0.6561	41987.88	3.5080	3.5078	-1.5689	24.85	-0.08	-0.750			
0.6607	42286.34	3.5050	3.5053	-1.5400	24.87	-0.06	-0.750			
0.6653	42579.66	3.5020	3.5021	-1.5012	24.89	-0.04	-0.750			
0.6698	42865.69	3.4990	3.4988	-1.4552	24.90	-0.03	-0.750			
0.6741	43141.74	3.4960	3.4959	-1.4015	24.92	-0.01	-0.750			
0.6782	43404.36	3.4930	3.4927	-1.3547	24.94	0.01	-0.750			
0.6823	43667.11	3.4900	3.4900	-1.3163	24.95	0.02	-0.750			
0.6861	43909.31	3.4870	3.4870	-1.2621	24.97	0.04	-0.750			
0.6898	44146.40	3.4840	3.4841	-1.2375	24.98	0.05	-0.750			
0.6935	44382.47	3.4810	3.4810	-1.2444	25.00	0.07	-0.750			
