Ah_balance (normalized)	Ah_balance (mAh)	Voltage - fit (V)	Voltage -  interpolate (V)	dQ/dV (1/V)	Temperature (°C)	Temperature - diff (°C)	Current (C)	R_DC 0ms (mOhm)	R_DC 50ms (mOhm)	R_DC 50 ms PEC (mOhm)
0.0005	32.48	4.1620	4.1619	-0.1458	25.20	0.00	-0.750			
0.0010	64.12	4.1590	4.1591	-0.1896	25.20	0.00	-0.750			
0.0016	104.53	4.1560	4.1560	-0.2362	25.20	-0.00	-0.750			
0.0024	155.23	4.1530	4.1530	-0.2801	25.20	-0.00	-0.750			
0.0033	213.79	4.1500	4.1500	-0.3181	25.19	-0.01	-0.750			
0.0044	279.77	4.1470	4.1470	-0.3588	25.19	-0.01	-0.750			
0.0055	353.03	4.1440	4.1442	-0.3963	25.19	-0.01	-0.750			
0.0068	433.20	4.1410	4.1409	-0.4297	25.19	-0.01	-0.750			
0.0081	517.95	4.1380	4.1380	-0.4674	25.18	-0.02	-0.750			
0.0096	612.51	4.1350	4.1349	-0.4957	25.18	-0.02	-0.750			
0.0111	712.57	4.1320	4.1320	-0.5253	25.18	-0.02	-0.750			
0.0128	816.42	4.1290	4.1290	-0.5504	25.17	-0.03	-0.750			
0.0145	924.82	4.1260	4.1259	-0.5724	25.17	-0.03	-0.750			
0.0162	1037.13	4.1230	4.1230	-0.5921	25.16	-0.04	-0.750			
0.0180	1153.09	4.1200	4.1200	-0.6084	25.16	-0.04	-0.750			
0.0198	1270.27	4.1170	4.1171	-0.6276	25.15	-0.05	-0.750			
0.0218	1396.10	4.1140	4.1139	-0.6422	25.15	-0.05	-0.750			
0.0238	1524.47	4.1110	4.1109	-0.6433	25.15	-0.05	-0.750			
0.0258	1650.94	4.1080	4.1078	-0.6285	25.14	-0.06	-0.750			
0.0277	1773.03	4.1050	4.1051	-0.6223	25.14	-0.06	-0.750			
0.0295	1887.40	4.1020	4.1023	-0.6247	25.13	-0.07	-0.750			
0.0312	1999.86	4.0990	4.0985	-0.6258	25.13	-0.07	-0.750			
0.0331	2117.83	4.0960	4.0955	-0.6296	25.13	-0.07	-0.750			
0.0350	2239.42	4.0930	4.0931	-0.6533	25.13	-0.07	-0.750			
0.0370	2368.54	4.0900	4.0901	-0.6776	25.12	-0.08	-0.750			
0.0391	2505.48	4.0870	4.0871	-0.6997	25.12	-0.08	-0.750			
0.0413	2642.78	4.0840	4.0838	-0.7105	25.12	-0.08	-0.750			
0.0434	2778.29	4.0810	4.0812	-0.7224	25.12	-0.08	-0.750			
0.0456	2919.95	4.0780	4.0780	-0.7290	25.11	-0.09	-0.750			
0.0479	3063.00	4.0750	4.0749	-0.7380	25.11	-0.09	-0.750			
0.0501	3203.41	4.0720	4.0720	-0.7372	25.11	-0.09	-0.750			
0.0523	3346.02	4.0690	4.0688	-0.7404	25.11	-0.09	-0.750			
0.0545	3485.29	4.0660	4.0661	-0.7598	25.11	-0.09	-0.750			
0.0568	3634.85	4.0630	4.0629	-0.7530	25.11	-0.09	-0.750			
0.0591	3779.83	4.0600	4.0599	-0.7551	25.10	-0.10	-0.750			
0.0614	3927.37	4.0570	4.0568	-0.7581	25.10	-0.10	-0.750			
0.0636	4072.68	4.0540	4.0549	-0.7562	25.10	-0.10	-0.750			
0.0659	4217.63	4.0510	4.0508	-0.7534	25.10	-0.10	-0.750			
0.0681	4359.58	4.0480	4.0480	-0.7613	25.10	-0.10	-0.750			
0.0703	4502.39	4.0450	4.0449	-0.7594	25.10	-0.10	-0.750			
0.0727	4654.63	4.0420	4.0419	-0.7713	25.10	-0.10	-0.750			
0.0751	4805.19	4.0390	4.0389	-0.7637	25.10	-0.10	-0.750			
0.0774	4951.82	4.0360	4.0361	-0.7600	25.10	-0.10	-0.750			
0.0796	5095.91	4.0330	4.0330	-0.7658	25.10	-0.10	-0.750			
0.0819	5239.89	4.0300	4.0299	-0.7653	25.10	-0.10	-0.750			
0.0841	5384.19	4.0270	4.0269	-0.7658	25.11	-0.09	-0.750			
0.0865	5534.40	4.0240	4.0241	-0.7752	25.11	-0.09	-0.750			
0.0889	5686.87	4.0210	4.0212	-0.7808	25.11	-0.09	-0.750			
0.0912	5837.71	4.0180	4.0180	-0.7832	25.11	-0.09	-0.750			
0.0936	5988.07	4.0150	4.0150	-0.7839	25.11	-0.09	-0.750			
0.0959	6138.49	4.0120	4.0119	-0.7806	25.11	-0.09	-0.750			
0.0983	6289.07	4.0090	4.0089	-0.7804	25.11	-0.09	-0.750			
0.1006	6439.16	4.0060	4.0059	-0.7785	25.11	-0.09	-0.750			
0.1030	6589.07	4.0030	4.0029	-0.7807	25.11	-0.09	-0.750			
0.1053	6737.31	4.0000	3.9999	-0.7861	25.11	-0.09	-0.750			
0.1076	6887.07	3.9970	3.9970	-0.7836	25.12	-0.08	-0.750			
0.1100	7040.69	3.9940	3.9938	-0.7928	25.12	-0.08	-0.750			
0.1124	7192.34	3.9910	3.9909	-0.7886	25.12	-0.08	-0.750			
0.1148	7345.11	3.9880	3.9879	-0.7882	25.12	-0.08	-0.750			
0.1171	7494.87	3.9850	3.9849	-0.7891	25.12	-0.08	-0.750			
0.1194	7643.29	3.9820	3.9820	-0.7869	25.12	-0.08	-0.750			
0.1218	7796.20	3.9790	3.9790	-0.7970	25.12	-0.08	-0.750			
0.1242	7948.59	3.9760	3.9760	-0.8009	25.12	-0.08	-0.750			
0.1266	8102.70	3.9730	3.9731	-0.8062	25.12	-0.08	-0.750			
0.1290	8258.74	3.9700	3.9700	-0.8106	25.12	-0.08	-0.750			
0.1315	8417.73	3.9670	3.9669	-0.8218	25.13	-0.07	-0.750			
0.1340	8577.09	3.9640	3.9639	-0.8200	25.13	-0.07	-0.750			
0.1365	8735.56	3.9610	3.9609	-0.8197	25.14	-0.06	-0.750			
0.1390	8894.58	3.9580	3.9583	-0.8079	25.14	-0.06	-0.750			
0.1414	9047.46	3.9550	3.9550	-0.8055	25.14	-0.06	-0.750			
0.1438	9200.08	3.9520	3.9519	-0.8217	25.14	-0.06	-0.750			
0.1462	9355.77	3.9490	3.9491	-0.8111	25.14	-0.06	-0.750			
0.1487	9518.69	3.9460	3.9458	-0.8263	25.14	-0.06	-0.750			
0.1512	9678.59	3.9430	3.9436	-0.8323	25.14	-0.06	-0.750			
0.1537	9838.46	3.9400	3.9400	-0.8314	25.14	-0.06	-0.750			
0.1562	9997.38	3.9370	3.9368	-0.8307	25.15	-0.05	-0.750			
0.1586	10153.19	3.9340	3.9340	-0.8240	25.15	-0.05	-0.750			
0.1612	10313.76	3.9310	3.9310	-0.8367	25.16	-0.04	-0.750			
0.1637	10476.10	3.9280	3.9281	-0.8361	25.16	-0.04	-0.750			
0.1662	10637.59	3.9250	3.9250	-0.8359	25.16	-0.04	-0.750			
0.1687	10797.50	3.9220	3.9220	-0.8426	25.17	-0.03	-0.750			
0.1713	10960.64	3.9190	3.9190	-0.8397	25.17	-0.03	-0.750			
0.1738	11122.39	3.9160	3.9158	-0.8420	25.18	-0.02	-0.750			
0.1763	11282.82	3.9130	3.9135	-0.8402	25.18	-0.02	-0.750			
0.1788	11444.40	3.9100	3.9098	-0.8371	25.18	-0.02	-0.750			
0.1814	11606.56	3.9070	3.9070	-0.8480	25.18	-0.02	-0.750			
0.1839	11768.60	3.9040	3.9038	-0.8431	25.19	-0.01	-0.750			
0.1865	11934.84	3.9010	3.9009	-0.8483	25.19	-0.01	-0.750			
0.1890	12096.79	3.8980	3.8984	-0.8443	25.19	-0.01	-0.750			
0.1915	12256.71	3.8950	3.8950	-0.8457	25.19	-0.01	-0.750			
0.1941	12419.65	3.8920	3.8918	-0.8504	25.19	-0.01	-0.750			
0.1965	12578.50	3.8890	3.8889	-0.8424	25.20	-0.00	-0.750			
0.1991	12745.35	3.8860	3.8861	-0.8592	25.20	-0.00	-0.750			
0.2018	12913.32	3.8830	3.8831	-0.8671	25.20	0.00	-0.750			
0.2044	13079.03	3.8800	3.8799	-0.8736	25.21	0.01	-0.750			
0.2070	13248.77	3.8770	3.8769	-0.8566	25.21	0.01	-0.750			
0.2096	13411.69	3.8740	3.8740	-0.8500	25.21	0.01	-0.750			
0.2121	13575.45	3.8710	3.8709	-0.8505	25.22	0.02	-0.750			
0.2146	13737.09	3.8680	3.8676	-0.8437	25.22	0.02	-0.750			
0.2171	13896.23	3.8650	3.8649	-0.8440	25.23	0.03	-0.750			
0.2196	14057.31	3.8620	3.8620	-0.8457	25.23	0.03	-0.750			
0.2222	14223.60	3.8590	3.8589	-0.8507	25.24	0.04	-0.750			
0.2248	14386.94	3.8560	3.8558	-0.8523	25.25	0.05	-0.750			
0.2273	14548.68	3.8530	3.8529	-0.8390	25.25	0.05	-0.750			
0.2298	14708.40	3.8500	3.8499	-0.8415	25.25	0.05	-0.750			
0.2323	14867.45	3.8470	3.8471	-0.8423	25.25	0.05	-0.750			
0.2348	15027.69	3.8440	3.8440	-0.8386	25.25	0.05	-0.750			
0.2374	15194.95	3.8410	3.8410	-0.8437	25.25	0.05	-0.750			
0.2400	15357.83	3.8380	3.8381	-0.8456	25.25	0.05	-0.750			
0.2425	15517.93	3.8350	3.8350	-0.8440	25.26	0.06	-0.750			
0.2450	15681.96	3.8320	3.8320	-0.8439	25.27	0.07	-0.750			
0.2475	15842.36	3.8290	3.8288	-0.8335	25.27	0.07	-0.750			
0.2500	16000.82	3.8260	3.8261	-0.8313	25.28	0.08	-0.750			
0.2525	16162.29	3.8230	3.8229	-0.8291	25.28	0.08	-0.750			
0.2550	16319.01	3.8200	3.8198	-0.8302	25.28	0.08	-0.750			
0.2575	16477.83	3.8170	3.8170	-0.8164	25.28	0.08	-0.750			
0.2599	16635.07	3.8140	3.8140	-0.8076	25.28	0.08	-0.750			
0.2624	16793.44	3.8110	3.8110	-0.8011	25.28	0.08	-0.750			
0.2648	16946.78	3.8080	3.8080	-0.7869	25.28	0.08	-0.750			
0.2671	17091.96	3.8050	3.8050	-0.7715	25.29	0.09	-0.750			
0.2693	17237.76	3.8020	3.8019	-0.7695	25.29	0.09	-0.750			
0.2716	17380.29	3.7990	3.7991	-0.7663	25.30	0.10	-0.750			
0.2739	17530.38	3.7960	3.7958	-0.7799	25.30	0.10	-0.750			
0.2763	17682.61	3.7930	3.7931	-0.7817	25.31	0.11	-0.750			
0.2787	17833.74	3.7900	3.7900	-0.7830	25.31	0.11	-0.750			
0.2810	17986.48	3.7870	3.7871	-0.7955	25.32	0.12	-0.750			
0.2835	18141.88	3.7840	3.7838	-0.7859	25.32	0.12	-0.750			
0.2858	18292.18	3.7810	3.7808	-0.7748	25.33	0.13	-0.750			
0.2881	18438.39	3.7780	3.7786	-0.7719	25.33	0.13	-0.750			
0.2904	18584.18	3.7750	3.7748	-0.7703	25.33	0.13	-0.750			
0.2927	18729.71	3.7720	3.7720	-0.7817	25.34	0.14	-0.750			
0.2950	18878.12	3.7690	3.7689	-0.7751	25.34	0.14	-0.750			
0.2974	19032.07	3.7660	3.7660	-0.7955	25.34	0.14	-0.750			
0.2998	19185.90	3.7630	3.7630	-0.7968	25.35	0.15	-0.750			
0.3022	19339.81	3.7600	3.7599	-0.7981	25.35	0.15	-0.750			
0.3045	19490.72	3.7570	3.7569	-0.7973	25.35	0.15	-0.750			
0.3069	19641.53	3.7540	3.7539	-0.7936	25.35	0.15	-0.750			
0.3092	19791.57	3.7510	3.7511	-0.8002	25.36	0.16	-0.750			
0.3117	19950.30	3.7480	3.7480	-0.8171	25.36	0.16	-0.750			
0.3142	20106.24	3.7450	3.7451	-0.8219	25.36	0.16	-0.750			
0.3166	20263.24	3.7420	3.7419	-0.8526	25.36	0.16	-0.750			
0.3193	20432.08	3.7390	3.7390	-0.8556	25.36	0.16	-0.750			
0.3218	20597.26	3.7360	3.7358	-0.8668	25.37	0.17	-0.750			
0.3245	20766.15	3.7330	3.7329	-0.8787	25.37	0.17	-0.750			
0.3271	20934.89	3.7300	3.7298	-0.8830	25.37	0.17	-0.750			
0.3298	21105.76	3.7270	3.7267	-0.8976	25.36	0.16	-0.750			
0.3325	21277.46	3.7240	3.7241	-0.9082	25.36	0.16	-0.750			
0.3352	21452.72	3.7210	3.7209	-0.9242	25.36	0.16	-0.750			
0.3380	21632.30	3.7180	3.7180	-0.9379	25.35	0.15	-0.750			
0.3408	21809.97	3.7150	3.7150	-0.9485	25.35	0.15	-0.750			
0.3436	21992.31	3.7120	3.7119	-0.9628	25.35	0.15	-0.750			
0.3465	22177.02	3.7090	3.7089	-0.9852	25.35	0.15	-0.750			
0.3495	22366.50	3.7060	3.7060	-1.0011	25.35	0.15	-0.750			
0.3526	22564.77	3.7030	3.7030	-1.0285	25.35	0.15	-0.750			
0.3557	22768.00	3.7000	3.6997	-1.0409	25.34	0.14	-0.750	0.370	0.493	
0.3589	22969.02	3.6970	3.6969	-1.0507	25.33	0.13	-0.750			
0.3621	23172.29	3.6940	3.6938	-1.0546	25.32	0.12	-0.750			
0.3652	23374.88	3.6910	3.6908	-1.0713	25.32	0.12	-0.750			
0.3684	23577.96	3.6880	3.6879	-1.0836	25.31	0.11	-0.750			
0.3716	23784.98	3.6850	3.6851	-1.1014	25.31	0.11	-0.750			
0.3749	23993.69	3.6820	3.6820	-1.1281	25.30	0.10	-0.750			
0.3785	24222.46	3.6790	3.6789	-1.1723	25.30	0.10	-0.750			
0.3820	24450.14	3.6760	3.6760	-1.1906	25.29	0.09	-0.750			
0.3857	24683.18	3.6730	3.6729	-1.2150	25.28	0.08	-0.750			
0.3893	24917.14	3.6700	3.6701	-1.2404	25.28	0.08	-0.750			
0.3931	25159.44	3.6670	3.6668	-1.2594	25.28	0.08	-0.750			
0.3969	25403.76	3.6640	3.6639	-1.2763	25.27	0.07	-0.750			
0.4007	25647.71	3.6610	3.6609	-1.2976	25.27	0.07	-0.750			
0.4047	25902.90	3.6580	3.6579	-1.3225	25.26	0.06	-0.750			
0.4087	26157.72	3.6550	3.6549	-1.3384	25.25	0.05	-0.750			
0.4127	26413.85	3.6520	3.6519	-1.3598	25.24	0.04	-0.750			
0.4169	26679.82	3.6490	3.6490	-1.3894	25.23	0.03	-0.750			
0.4209	26939.39	3.6460	3.6460	-1.4442	25.23	0.03	-0.750			
0.4254	27226.04	3.6430	3.6431	-1.4451	25.22	0.02	-0.750			
0.4298	27507.29	3.6400	3.6398	-1.4585	25.21	0.01	-0.750			
0.4342	27788.48	3.6370	3.6369	-1.5233	25.21	0.01	-0.750			
0.4388	28082.08	3.6340	3.6347	-1.5439	25.20	-0.00	-0.750			
0.4435	28382.42	3.6310	3.6306	-1.5506	25.19	-0.01	-0.750			
0.4482	28685.44	3.6280	3.6284	-1.5691	25.18	-0.02	-0.750			
0.4529	28984.49	3.6250	3.6248	-1.5838	25.18	-0.02	-0.750			
0.4578	29296.01	3.6220	3.6217	-1.6626	25.17	-0.03	-0.750			
0.4627	29611.33	3.6190	3.6190	-1.6726	25.17	-0.03	-0.750			
0.4678	29939.07	3.6160	3.6160	-1.7210	25.17	-0.03	-0.750			
0.4730	30272.52	3.6130	3.6129	-1.7117	25.16	-0.04	-0.750			
0.4783	30610.57	3.6100	3.6097	-1.7600	25.15	-0.05	-0.750			
0.4835	30944.83	3.6070	3.6065	-1.7818	25.14	-0.06	-0.750			
0.4888	31281.88	3.6040	3.6042	-1.8092	25.13	-0.07	-0.750			
0.4942	31627.01	3.6010	3.6015	-1.8661	25.13	-0.07	-0.750			
0.5001	32004.80	3.5980	3.5979	-1.9122	25.12	-0.08	-0.750			
0.5060	32381.59	3.5950	3.5949	-2.0026	25.12	-0.08	-0.750			
0.5119	32760.60	3.5920	3.5924	-1.9943	25.11	-0.09	-0.750			
0.5179	33148.69	3.5890	3.5895	-2.0111	25.11	-0.09	-0.750			
0.5242	33547.43	3.5860	3.5857	-2.0395	25.10	-0.10	-0.750			
0.5302	33935.48	3.5830	3.5831	-2.0874	25.10	-0.10	-0.750			
0.5369	34360.12	3.5800	3.5807	-2.1652	25.09	-0.11	-0.750			
0.5432	34762.34	3.5770	3.5769	-2.1866	25.09	-0.11	-0.750			
0.5498	35187.85	3.5740	3.5737	-2.1486	25.09	-0.11	-0.750			
0.5564	35610.82	3.5710	3.5716	-2.2178	25.09	-0.11	-0.750			
0.5630	36033.16	3.5680	3.5680	-2.1670	25.09	-0.11	-0.750			
0.5694	36442.73	3.5650	3.5651	-2.2248	25.09	-0.11	-0.750			
0.5760	36863.65	3.5620	3.5620	-2.1274	25.08	-0.12	-0.750			
0.5827	37291.03	3.5590	3.5589	-2.2147	25.09	-0.11	-0.750			
0.5893	37715.77	3.5560	3.5557	-2.1723	25.09	-0.11	-0.750			
0.5957	38122.27	3.5530	3.5528	-2.1311	25.09	-0.11	-0.750			
0.6022	38542.49	3.5500	3.5499	-2.1389	25.09	-0.11	-0.750			
0.6088	38961.69	3.5470	3.5464	-2.1457	25.09	-0.11	-0.750			
0.6151	39363.69	3.5440	3.5442	-2.0963	25.09	-0.11	-0.750			
0.6216	39783.56	3.5410	3.5414	-2.0807	25.10	-0.10	-0.750			
0.6278	40176.57	3.5380	3.5375	-2.0314	25.10	-0.10	-0.750			
0.6336	40552.91	3.5350	3.5347	-1.9705	25.11	-0.09	-0.750			
0.6395	40929.89	3.5320	3.5319	-1.9526	25.12	-0.08	-0.750			
0.6454	41307.69	3.5290	3.5289	-1.9165	25.13	-0.07	-0.750			
0.6511	41670.32	3.5260	3.5258	-1.8646	25.14	-0.06	-0.750			
0.6565	42015.71	3.5230	3.5228	-1.7941	25.15	-0.05	-0.750			
0.6618	42354.87	3.5200	3.5201	-1.7431	25.17	-0.03	-0.750			
0.6671	42692.96	3.5170	3.5172	-1.6985	25.18	-0.02	-0.750			
0.6721	43011.47	3.5140	3.5135	-1.6469	25.19	-0.01	-0.750			
0.6769	43321.94	3.5110	3.5109	-1.5938	25.20	0.00	-0.750			
0.6817	43626.31	3.5080	3.5084	-1.5612	25.22	0.02	-0.750			
0.6865	43935.41	3.5050	3.5047	-1.5683	25.24	0.04	-0.750			
0.6910	44224.97	3.5020	3.5019	-1.4905	25.26	0.06	-0.750			
0.6955	44511.19	3.4990	3.4989	-1.4435	25.28	0.08	-0.750			
0.7000	44798.25	3.4960	3.4958	-1.4197	25.30	0.10	-0.750			
0.7042	45069.47	3.4930	3.4929	-1.3507	25.31	0.11	-0.750			
0.7082	45322.67	3.4900	3.4899	-1.2562	25.33	0.13	-0.750			
0.7118	45556.75	3.4870	3.4870	-1.2267	25.34	0.14	-0.750			
