Ah_balance (normalized)	Ah_balance (mAh)	Voltage - fit (V)	Voltage -  interpolate (V)	dQ/dV (1/V)	Temperature (°C)	Temperature - diff (°C)	Current (C)	R_DC 0ms (mOhm)	R_DC 50ms (mOhm)	R_DC 50 ms PEC (mOhm)
0.0004	26.86	4.1610	4.1607	-0.1433	24.93	0.01	-0.750			
0.0009	58.82	4.1580	4.1579	-0.1859	24.93	0.01	-0.750			
0.0016	99.43	4.1550	4.1550	-0.2238	24.93	0.01	-0.750			
0.0023	145.75	4.1520	4.1520	-0.2614	24.92	0.00	-0.750			
0.0031	199.47	4.1490	4.1490	-0.2989	24.92	0.00	-0.750			
0.0041	259.97	4.1460	4.1460	-0.3399	24.92	-0.00	-0.750			
0.0051	329.43	4.1430	4.1430	-0.3753	24.92	-0.00	-0.750			
0.0063	405.05	4.1400	4.1399	-0.4123	24.91	-0.01	-0.750			
0.0076	489.48	4.1370	4.1370	-0.4448	24.91	-0.01	-0.750			
0.0090	578.75	4.1340	4.1340	-0.4776	24.90	-0.02	-0.750			
0.0105	673.84	4.1310	4.1310	-0.5067	24.90	-0.02	-0.750			
0.0121	774.92	4.1280	4.1280	-0.5299	24.89	-0.03	-0.750			
0.0137	879.45	4.1250	4.1249	-0.5481	24.89	-0.03	-0.750			
0.0154	987.23	4.1220	4.1220	-0.5714	24.88	-0.04	-0.750			
0.0172	1099.27	4.1190	4.1191	-0.5833	24.88	-0.04	-0.750			
0.0189	1212.42	4.1160	4.1159	-0.6000	24.88	-0.04	-0.750			
0.0207	1327.43	4.1130	4.1130	-0.6147	24.87	-0.05	-0.750			
0.0226	1447.78	4.1100	4.1099	-0.6359	24.87	-0.05	-0.750			
0.0246	1574.65	4.1070	4.1069	-0.6511	24.87	-0.05	-0.750			
0.0266	1701.19	4.1040	4.1040	-0.6620	24.86	-0.06	-0.750			
0.0286	1830.30	4.1010	4.1014	-0.6715	24.86	-0.06	-0.750			
0.0307	1961.99	4.0980	4.0979	-0.6807	24.86	-0.06	-0.750			
0.0326	2089.03	4.0950	4.0950	-0.6828	24.86	-0.06	-0.750			
0.0347	2220.35	4.0920	4.0921	-0.6906	24.86	-0.06	-0.750			
0.0368	2356.46	4.0890	4.0889	-0.6994	24.86	-0.06	-0.750			
0.0389	2491.29	4.0860	4.0859	-0.7015	24.86	-0.06	-0.750			
0.0410	2625.84	4.0830	4.0832	-0.7063	24.86	-0.06	-0.750			
0.0432	2761.95	4.0800	4.0800	-0.7105	24.86	-0.06	-0.750			
0.0453	2898.22	4.0770	4.0769	-0.7157	24.86	-0.06	-0.750			
0.0474	3035.43	4.0740	4.0741	-0.7208	24.86	-0.06	-0.750			
0.0496	3174.46	4.0710	4.0710	-0.7279	24.86	-0.06	-0.750			
0.0518	3316.75	4.0680	4.0679	-0.7288	24.86	-0.06	-0.750			
0.0540	3456.71	4.0650	4.0651	-0.7307	24.86	-0.06	-0.750			
0.0562	3595.59	4.0620	4.0620	-0.7346	24.86	-0.06	-0.750			
0.0584	3736.46	4.0590	4.0591	-0.7427	24.86	-0.06	-0.750			
0.0606	3880.94	4.0560	4.0559	-0.7416	24.86	-0.06	-0.750			
0.0629	4024.22	4.0530	4.0530	-0.7429	24.86	-0.06	-0.750			
0.0651	4167.52	4.0500	4.0500	-0.7423	24.86	-0.06	-0.750			
0.0674	4311.94	4.0470	4.0468	-0.7439	24.86	-0.06	-0.750			
0.0696	4451.59	4.0440	4.0440	-0.7449	24.86	-0.06	-0.750			
0.0717	4591.69	4.0410	4.0410	-0.7494	24.86	-0.06	-0.750			
0.0740	4738.62	4.0380	4.0379	-0.7503	24.87	-0.05	-0.750			
0.0763	4885.34	4.0350	4.0349	-0.7572	24.87	-0.05	-0.750			
0.0786	5031.64	4.0320	4.0324	-0.7590	24.87	-0.05	-0.750			
0.0809	5177.36	4.0290	4.0288	-0.7598	24.87	-0.05	-0.750			
0.0832	5322.48	4.0260	4.0259	-0.7629	24.87	-0.05	-0.750			
0.0854	5468.50	4.0230	4.0230	-0.7605	24.88	-0.04	-0.750			
0.0877	5615.54	4.0200	4.0199	-0.7686	24.88	-0.04	-0.750			
0.0901	5764.22	4.0170	4.0170	-0.7693	24.88	-0.04	-0.750			
0.0924	5910.74	4.0140	4.0139	-0.7676	24.88	-0.04	-0.750			
0.0947	6058.14	4.0110	4.0109	-0.7670	24.88	-0.04	-0.750			
0.0970	6205.00	4.0080	4.0080	-0.7689	24.88	-0.04	-0.750			
0.0993	6355.33	4.0050	4.0050	-0.7618	24.88	-0.04	-0.750			
0.1016	6504.79	4.0020	4.0019	-0.7600	24.88	-0.04	-0.750			
0.1039	6647.02	3.9990	3.9993	-0.7556	24.88	-0.04	-0.750			
0.1061	6791.14	3.9960	3.9961	-0.7516	24.88	-0.04	-0.750			
0.1083	6932.62	3.9930	3.9928	-0.7573	24.89	-0.03	-0.750			
0.1106	7076.44	3.9900	3.9899	-0.7605	24.89	-0.03	-0.750			
0.1129	7225.30	3.9870	3.9871	-0.7737	24.89	-0.03	-0.750			
0.1152	7375.67	3.9840	3.9840	-0.7814	24.90	-0.02	-0.750			
0.1176	7527.80	3.9810	3.9810	-0.7872	24.90	-0.02	-0.750			
0.1200	7678.15	3.9780	3.9780	-0.7932	24.90	-0.02	-0.750			
0.1224	7832.37	3.9750	3.9750	-0.7913	24.91	-0.01	-0.750			
0.1247	7983.48	3.9720	3.9719	-0.7878	24.91	-0.01	-0.750			
0.1271	8135.97	3.9690	3.9691	-0.7943	24.91	-0.01	-0.750			
0.1295	8288.20	3.9660	3.9660	-0.7911	24.91	-0.01	-0.750			
0.1319	8438.63	3.9630	3.9629	-0.7999	24.92	-0.00	-0.750			
0.1343	8593.47	3.9600	3.9601	-0.7992	24.92	-0.00	-0.750			
0.1367	8746.29	3.9570	3.9569	-0.7984	24.92	0.00	-0.750			
0.1391	8902.23	3.9540	3.9541	-0.8017	24.93	0.01	-0.750			
0.1415	9054.90	3.9510	3.9512	-0.8027	24.93	0.01	-0.750			
0.1439	9207.80	3.9480	3.9480	-0.8033	24.93	0.01	-0.750			
0.1463	9362.32	3.9450	3.9450	-0.8174	24.94	0.02	-0.750			
0.1488	9521.16	3.9420	3.9418	-0.8115	24.94	0.02	-0.750			
0.1513	9680.57	3.9390	3.9390	-0.8200	24.95	0.03	-0.750			
0.1537	9837.63	3.9360	3.9365	-0.8163	24.95	0.03	-0.750			
0.1562	9995.08	3.9330	3.9329	-0.8157	24.95	0.03	-0.750			
0.1586	10150.16	3.9300	3.9299	-0.8242	24.95	0.03	-0.750			
0.1610	10306.16	3.9270	3.9270	-0.8185	24.95	0.03	-0.750			
0.1636	10467.82	3.9240	3.9238	-0.8220	24.95	0.03	-0.750			
0.1660	10625.75	3.9210	3.9215	-0.8208	24.95	0.03	-0.750			
0.1685	10782.20	3.9180	3.9179	-0.8164	24.95	0.03	-0.750			
0.1709	10937.97	3.9150	3.9150	-0.8216	24.95	0.03	-0.750			
0.1733	11091.92	3.9120	3.9119	-0.8201	24.96	0.04	-0.750			
0.1758	11251.95	3.9090	3.9090	-0.8286	24.96	0.04	-0.750			
0.1783	11412.44	3.9060	3.9062	-0.8305	24.96	0.04	-0.750			
0.1808	11573.99	3.9030	3.9029	-0.8312	24.96	0.04	-0.750			
0.1833	11731.98	3.9000	3.8999	-0.8341	24.97	0.05	-0.750			
0.1858	11892.08	3.8970	3.8970	-0.8305	24.97	0.05	-0.750			
0.1883	12051.53	3.8940	3.8937	-0.8275	24.98	0.06	-0.750			
0.1908	12212.72	3.8910	3.8914	-0.8281	24.98	0.06	-0.750			
0.1933	12371.51	3.8880	3.8880	-0.8260	24.98	0.06	-0.750			
0.1958	12530.19	3.8850	3.8849	-0.8300	24.99	0.07	-0.750			
0.1983	12689.48	3.8820	3.8819	-0.8262	24.99	0.07	-0.750			
0.2008	12848.79	3.8790	3.8789	-0.8262	25.00	0.08	-0.750			
0.2032	13006.16	3.8760	3.8764	-0.8207	25.00	0.08	-0.750			
0.2057	13164.17	3.8730	3.8729	-0.8190	25.00	0.08	-0.750			
0.2081	13318.66	3.8700	3.8700	-0.8227	25.00	0.08	-0.750			
0.2105	13473.87	3.8670	3.8670	-0.8195	25.00	0.08	-0.750			
0.2131	13636.90	3.8640	3.8638	-0.8216	25.00	0.08	-0.750			
0.2155	13793.99	3.8610	3.8612	-0.8126	25.00	0.08	-0.750			
0.2180	13949.50	3.8580	3.8581	-0.8111	25.00	0.08	-0.750			
0.2204	14103.90	3.8550	3.8550	-0.8108	25.01	0.09	-0.750			
0.2229	14264.78	3.8520	3.8517	-0.7829	25.02	0.10	-0.750			
0.2252	14413.29	3.8490	3.8489	-0.7468	25.02	0.10	-0.750			
0.2274	14556.75	3.8460	3.8463	-0.7329	25.03	0.11	-0.750			
0.2295	14690.00	3.8430	3.8436	-0.7310	25.03	0.11	-0.750			
0.2316	14821.68	3.8400	3.8394	-0.7178	25.03	0.11	-0.750			
0.2337	14955.08	3.8370	3.8368	-0.7457	25.03	0.11	-0.750			
0.2359	15099.58	3.8340	3.8341	-0.7573	25.04	0.12	-0.750			
0.2385	15262.52	3.8310	3.8308	-0.7979	25.04	0.12	-0.750			
0.2409	15415.82	3.8280	3.8288	-0.7915	25.04	0.12	-0.750			
0.2432	15566.20	3.8250	3.8249	-0.7830	25.04	0.12	-0.750			
0.2455	15714.44	3.8220	3.8220	-0.7705	25.05	0.13	-0.750			
0.2478	15857.13	3.8190	3.8189	-0.7612	25.05	0.13	-0.750			
0.2501	16006.55	3.8160	3.8161	-0.7655	25.05	0.13	-0.750			
0.2524	16151.99	3.8130	3.8130	-0.7599	25.06	0.14	-0.750			
0.2546	16297.45	3.8100	3.8099	-0.7608	25.06	0.14	-0.750			
0.2569	16440.47	3.8070	3.8072	-0.7687	25.06	0.14	-0.750			
0.2592	16588.55	3.8040	3.8038	-0.7674	25.06	0.14	-0.750			
0.2616	16739.60	3.8010	3.8009	-0.7692	25.06	0.14	-0.750			
0.2639	16887.75	3.7980	3.7980	-0.7656	25.06	0.14	-0.750			
0.2662	17035.29	3.7950	3.7959	-0.7726	25.06	0.14	-0.750			
0.2685	17182.96	3.7920	3.7920	-0.7673	25.06	0.14	-0.750			
0.2707	17326.62	3.7890	3.7889	-0.7723	25.07	0.15	-0.750			
0.2731	17475.79	3.7860	3.7860	-0.7745	25.07	0.15	-0.750			
0.2755	17629.37	3.7830	3.7829	-0.7738	25.08	0.16	-0.750			
0.2778	17779.69	3.7800	3.7798	-0.7750	25.08	0.16	-0.750			
0.2801	17925.56	3.7770	3.7769	-0.7710	25.08	0.16	-0.750			
0.2824	18071.10	3.7740	3.7738	-0.7706	25.08	0.16	-0.750			
0.2846	18216.56	3.7710	3.7709	-0.7774	25.08	0.16	-0.750			
0.2870	18368.14	3.7680	3.7680	-0.7942	25.08	0.16	-0.750			
0.2894	18522.40	3.7650	3.7649	-0.7977	25.08	0.16	-0.750			
0.2918	18676.69	3.7620	3.7621	-0.8025	25.08	0.16	-0.750			
0.2942	18830.39	3.7590	3.7590	-0.8039	25.08	0.16	-0.750			
0.2967	18989.02	3.7560	3.7559	-0.8139	25.08	0.16	-0.750			
0.2991	19145.08	3.7530	3.7528	-0.8144	25.08	0.16	-0.750			
0.3016	19303.03	3.7500	3.7499	-0.8198	25.08	0.16	-0.750			
0.3041	19459.29	3.7470	3.7474	-0.8268	25.08	0.16	-0.750			
0.3065	19618.32	3.7440	3.7437	-0.8443	25.08	0.16	-0.750			
0.3091	19781.05	3.7410	3.7407	-0.8536	25.08	0.16	-0.750			
0.3116	19941.84	3.7380	3.7380	-0.8543	25.08	0.16	-0.750			
0.3143	20114.47	3.7350	3.7348	-0.8805	25.08	0.16	-0.750			
0.3170	20287.35	3.7320	3.7316	-0.8778	25.08	0.16	-0.750			
0.3196	20453.51	3.7290	3.7289	-0.8915	25.08	0.16	-0.750			
0.3222	20619.72	3.7260	3.7261	-0.8886	25.08	0.16	-0.750			
0.3248	20789.02	3.7230	3.7230	-0.8931	25.07	0.15	-0.750			
0.3276	20968.91	3.7200	3.7199	-0.9295	25.07	0.15	-0.750			
0.3304	21146.93	3.7170	3.7171	-0.9405	25.07	0.15	-0.750			
0.3333	21332.90	3.7140	3.7138	-0.9626	25.07	0.15	-0.750			
0.3364	21526.46	3.7110	3.7108	-0.9688	25.06	0.14	-0.750			
0.3392	21708.36	3.7080	3.7079	-0.9915	25.06	0.14	-0.750			
0.3422	21902.28	3.7050	3.7049	-1.0190	25.06	0.14	-0.750			
0.3453	22101.26	3.7020	3.7015	-1.0151	25.05	0.13	-0.750			
0.3484	22294.49	3.6990	3.6987	-1.0146	25.05	0.13	-0.750			
0.3514	22487.48	3.6960	3.6960	-1.0172	25.04	0.12	-0.750	0.382	0.526	
0.3545	22690.31	3.6930	3.6927	-1.0425	25.04	0.12	-0.750			
0.3577	22889.82	3.6900	3.6899	-1.0440	25.03	0.11	-0.750			
0.3606	23079.84	3.6870	3.6871	-1.0419	25.03	0.11	-0.750			
0.3639	23289.08	3.6840	3.6841	-1.0816	25.02	0.10	-0.750			
0.3672	23503.70	3.6810	3.6809	-1.1296	25.02	0.10	-0.750			
0.3707	23726.25	3.6780	3.6780	-1.1382	25.01	0.09	-0.750			
0.3742	23946.44	3.6750	3.6748	-1.1565	25.01	0.09	-0.750			
0.3777	24170.00	3.6720	3.6719	-1.1914	25.00	0.08	-0.750			
0.3813	24403.45	3.6690	3.6688	-1.1966	25.00	0.08	-0.750			
0.3849	24632.11	3.6660	3.6657	-1.2048	24.99	0.07	-0.750			
0.3884	24859.36	3.6630	3.6630	-1.2166	24.98	0.06	-0.750			
0.3922	25097.61	3.6600	3.6601	-1.2531	24.98	0.06	-0.750			
0.3959	25338.42	3.6570	3.6569	-1.2725	24.97	0.05	-0.750			
0.3997	25578.94	3.6540	3.6539	-1.2861	24.97	0.05	-0.750			
0.4036	25828.30	3.6510	3.6514	-1.3271	24.96	0.04	-0.750			
0.4078	26101.22	3.6480	3.6478	-1.3505	24.95	0.03	-0.750			
0.4119	26364.56	3.6450	3.6449	-1.3587	24.95	0.03	-0.750			
0.4161	26630.48	3.6420	3.6428	-1.3964	24.94	0.02	-0.750			
0.4202	26895.23	3.6390	3.6388	-1.4255	24.93	0.01	-0.750			
0.4245	27169.86	3.6360	3.6356	-1.4445	24.93	0.01	-0.750			
0.4289	27446.59	3.6330	3.6337	-1.4471	24.92	-0.00	-0.750			
0.4334	27735.08	3.6300	3.6298	-1.4978	24.91	-0.01	-0.750			
0.4379	28026.08	3.6270	3.6267	-1.5239	24.91	-0.01	-0.750			
0.4424	28311.93	3.6240	3.6238	-1.5294	24.90	-0.02	-0.750			
0.4471	28612.99	3.6210	3.6206	-1.6176	24.89	-0.03	-0.750			
0.4520	28926.37	3.6180	3.6180	-1.6066	24.88	-0.04	-0.750			
0.4568	29237.90	3.6150	3.6153	-1.6376	24.88	-0.04	-0.750			
0.4619	29563.52	3.6120	3.6119	-1.6566	24.87	-0.05	-0.750			
0.4668	29873.60	3.6090	3.6085	-1.6626	24.87	-0.05	-0.750			
0.4718	30192.02	3.6060	3.6056	-1.7452	24.87	-0.05	-0.750			
0.4774	30550.49	3.6030	3.6026	-1.7517	24.86	-0.06	-0.750			
0.4826	30885.41	3.6000	3.6000	-1.7728	24.85	-0.07	-0.750			
0.4879	31228.12	3.5970	3.5974	-1.8204	24.84	-0.08	-0.750			
0.4934	31576.08	3.5940	3.5938	-1.9030	24.84	-0.08	-0.750			
0.4991	31940.90	3.5910	3.5914	-1.9027	24.83	-0.09	-0.750			
0.5048	32307.12	3.5880	3.5880	-2.0140	24.82	-0.10	-0.750			
0.5111	32708.62	3.5850	3.5845	-2.0224	24.82	-0.10	-0.750			
0.5172	33103.88	3.5820	3.5821	-2.0019	24.82	-0.10	-0.750			
0.5232	33487.59	3.5790	3.5797	-2.0347	24.82	-0.10	-0.750			
0.5296	33895.80	3.5760	3.5757	-2.0752	24.82	-0.10	-0.750			
0.5354	34267.56	3.5730	3.5724	-2.0317	24.81	-0.11	-0.750			
0.5417	34665.67	3.5700	3.5701	-2.0844	24.80	-0.12	-0.750			
0.5477	35052.31	3.5670	3.5666	-2.0768	24.79	-0.13	-0.750			
0.5541	35459.23	3.5640	3.5640	-2.1193	24.79	-0.13	-0.750			
0.5604	35865.26	3.5610	3.5606	-2.1607	24.79	-0.13	-0.750			
0.5669	36282.88	3.5580	3.5581	-2.1537	24.79	-0.13	-0.750			
0.5733	36689.02	3.5550	3.5546	-2.0452	24.79	-0.13	-0.750			
0.5794	37083.99	3.5520	3.5518	-2.0316	24.79	-0.13	-0.750			
0.5856	37475.62	3.5490	3.5491	-2.0979	24.80	-0.12	-0.750			
0.5918	37876.14	3.5460	3.5460	-2.0140	24.80	-0.12	-0.750			
0.5980	38270.40	3.5430	3.5431	-2.0144	24.80	-0.12	-0.750			
0.6038	38643.72	3.5400	3.5405	-1.9782	24.80	-0.12	-0.750			
0.6099	39033.48	3.5370	3.5364	-1.9253	24.81	-0.11	-0.750			
0.6157	39407.21	3.5340	3.5343	-1.9018	24.82	-0.10	-0.750			
0.6215	39773.23	3.5310	3.5312	-1.9191	24.83	-0.09	-0.750			
0.6269	40122.95	3.5280	3.5284	-1.8528	24.84	-0.08	-0.750			
0.6326	40486.91	3.5250	3.5244	-1.8522	24.85	-0.07	-0.750			
0.6380	40834.98	3.5220	3.5217	-1.7682	24.86	-0.06	-0.750			
0.6433	41169.44	3.5190	3.5187	-1.7275	24.87	-0.05	-0.750			
0.6483	41490.80	3.5160	3.5154	-1.6632	24.88	-0.04	-0.750			
0.6532	41807.15	3.5130	3.5136	-1.6159	24.89	-0.03	-0.750			
0.6582	42122.97	3.5100	3.5104	-1.6002	24.90	-0.02	-0.750			
0.6629	42428.28	3.5070	3.5071	-1.5718	24.91	-0.01	-0.750			
0.6678	42738.34	3.5040	3.5037	-1.5324	24.93	0.01	-0.750			
0.6723	43024.17	3.5010	3.5016	-1.4721	24.94	0.02	-0.750			
0.6767	43311.71	3.4980	3.4980	-1.4539	24.95	0.03	-0.750			
0.6811	43587.93	3.4950	3.4947	-1.4068	24.97	0.05	-0.750			
0.6849	43834.15	3.4920	3.4919	-1.3364	24.98	0.06	-0.750			
0.6891	44101.13	3.4890	3.4889	-1.3223	24.99	0.07	-0.750			
0.6928	44341.97	3.4860	3.4859	-1.3464	25.01	0.09	-0.750			
0.6968	44592.95	3.4830	3.4830	-1.1917	25.02	0.10	-0.750			
