Ah_balance (normalized)	Ah_balance (mAh)	Voltage - fit (V)	Voltage -  interpolate (V)	dQ/dV (1/V)	Temperature (°C)	Temperature - diff (°C)	Current (C)	R_DC 0ms (mOhm)	R_DC 50ms (mOhm)	R_DC 50 ms PEC (mOhm)
0.0001	8.22	4.1620	4.1615	-0.0791	25.21	0.03	-0.750			
0.0004	28.12	4.1590	4.1588	-0.1281	25.21	0.03	-0.750			
0.0009	57.73	4.1560	4.1559	-0.1767	25.20	0.02	-0.750			
0.0015	98.38	4.1530	4.1529	-0.2186	25.20	0.02	-0.750			
0.0023	144.67	4.1500	4.1501	-0.2571	25.20	0.02	-0.750			
0.0031	197.89	4.1470	4.1470	-0.2943	25.20	0.02	-0.750			
0.0040	258.97	4.1440	4.1441	-0.3340	25.20	0.02	-0.750			
0.0051	325.78	4.1410	4.1410	-0.3738	25.19	0.01	-0.750			
0.0063	400.92	4.1380	4.1379	-0.4094	25.19	0.01	-0.750			
0.0076	484.13	4.1350	4.1350	-0.4444	25.19	0.01	-0.750			
0.0090	574.37	4.1320	4.1320	-0.4784	25.19	0.01	-0.750			
0.0105	672.14	4.1290	4.1291	-0.5056	25.18	0.00	-0.750			
0.0121	772.27	4.1260	4.1260	-0.5269	25.18	-0.00	-0.750			
0.0137	875.53	4.1230	4.1230	-0.5473	25.17	-0.01	-0.750			
0.0153	982.34	4.1200	4.1201	-0.5651	25.17	-0.01	-0.750			
0.0171	1092.30	4.1170	4.1169	-0.5901	25.17	-0.01	-0.750			
0.0189	1208.02	4.1140	4.1140	-0.6075	25.16	-0.02	-0.750			
0.0207	1327.41	4.1110	4.1109	-0.6250	25.16	-0.02	-0.750			
0.0227	1450.10	4.1080	4.1079	-0.6357	25.15	-0.03	-0.750			
0.0246	1574.70	4.1050	4.1050	-0.6473	25.15	-0.03	-0.750			
0.0266	1699.72	4.1020	4.1020	-0.6541	25.15	-0.03	-0.750			
0.0285	1825.76	4.0990	4.0988	-0.6589	25.15	-0.03	-0.750			
0.0305	1952.80	4.0960	4.0960	-0.6713	25.14	-0.04	-0.750			
0.0326	2086.25	4.0930	4.0930	-0.6785	25.14	-0.04	-0.750			
0.0347	2217.75	4.0900	4.0898	-0.6835	25.14	-0.04	-0.750			
0.0367	2349.51	4.0870	4.0868	-0.6887	25.14	-0.04	-0.750			
0.0388	2480.67	4.0840	4.0838	-0.6914	25.14	-0.04	-0.750			
0.0408	2612.97	4.0810	4.0809	-0.6982	25.14	-0.04	-0.750			
0.0429	2747.23	4.0780	4.0781	-0.6958	25.13	-0.05	-0.750			
0.0451	2887.51	4.0750	4.0749	-0.7157	25.13	-0.05	-0.750			
0.0473	3024.98	4.0720	4.0719	-0.7161	25.13	-0.05	-0.750			
0.0494	3161.57	4.0690	4.0692	-0.7158	25.13	-0.05	-0.750			
0.0515	3297.95	4.0660	4.0658	-0.7173	25.13	-0.05	-0.750			
0.0537	3436.20	4.0630	4.0629	-0.7338	25.13	-0.05	-0.750			
0.0559	3575.88	4.0600	4.0599	-0.7365	25.12	-0.06	-0.750			
0.0582	3723.04	4.0570	4.0568	-0.7363	25.12	-0.06	-0.750			
0.0604	3865.86	4.0540	4.0540	-0.7392	25.12	-0.06	-0.750			
0.0626	4006.62	4.0510	4.0509	-0.7356	25.12	-0.06	-0.750			
0.0648	4145.88	4.0480	4.0476	-0.7343	25.12	-0.06	-0.750			
0.0670	4287.76	4.0450	4.0450	-0.7432	25.12	-0.06	-0.750			
0.0692	4429.52	4.0420	4.0417	-0.7415	25.12	-0.06	-0.750			
0.0716	4581.49	4.0390	4.0388	-0.7498	25.12	-0.06	-0.750			
0.0738	4725.87	4.0360	4.0370	-0.7522	25.12	-0.06	-0.750			
0.0760	4866.99	4.0330	4.0327	-0.7461	25.12	-0.06	-0.750			
0.0783	5008.91	4.0300	4.0298	-0.7508	25.12	-0.06	-0.750			
0.0804	5144.78	4.0270	4.0271	-0.7337	25.12	-0.06	-0.750			
0.0827	5295.78	4.0240	4.0240	-0.7604	25.12	-0.06	-0.750			
0.0851	5444.16	4.0210	4.0210	-0.7588	25.12	-0.06	-0.750			
0.0873	5589.03	4.0180	4.0178	-0.7588	25.12	-0.06	-0.750			
0.0895	5730.86	4.0150	4.0151	-0.7656	25.12	-0.06	-0.750			
0.0918	5877.32	4.0120	4.0120	-0.7671	25.12	-0.06	-0.750			
0.0941	6024.32	4.0090	4.0088	-0.7764	25.12	-0.06	-0.750			
0.0965	6176.61	4.0060	4.0060	-0.7838	25.12	-0.06	-0.750			
0.0989	6329.75	4.0030	4.0036	-0.7777	25.12	-0.06	-0.750			
0.1012	6479.34	4.0000	3.9999	-0.7731	25.12	-0.06	-0.750			
0.1035	6626.51	3.9970	3.9972	-0.7830	25.12	-0.06	-0.750			
0.1060	6780.89	3.9940	3.9936	-0.7730	25.12	-0.06	-0.750			
0.1083	6929.56	3.9910	3.9907	-0.7730	25.12	-0.06	-0.750			
0.1106	7075.36	3.9880	3.9878	-0.7706	25.12	-0.06	-0.750			
0.1129	7223.55	3.9850	3.9849	-0.7746	25.12	-0.06	-0.750			
0.1152	7371.32	3.9820	3.9817	-0.7789	25.12	-0.06	-0.750			
0.1174	7516.58	3.9790	3.9790	-0.7709	25.12	-0.06	-0.750			
0.1198	7667.30	3.9760	3.9760	-0.7892	25.13	-0.05	-0.750			
0.1222	7820.80	3.9730	3.9729	-0.7942	25.13	-0.05	-0.750			
0.1246	7972.78	3.9700	3.9701	-0.7904	25.13	-0.05	-0.750			
0.1269	8121.85	3.9670	3.9669	-0.8009	25.13	-0.05	-0.750			
0.1294	8279.25	3.9640	3.9640	-0.7942	25.13	-0.05	-0.750			
0.1317	8430.63	3.9610	3.9610	-0.7915	25.14	-0.04	-0.750			
0.1342	8585.79	3.9580	3.9578	-0.7943	25.14	-0.04	-0.750			
0.1365	8736.79	3.9550	3.9554	-0.7900	25.14	-0.04	-0.750			
0.1389	8888.47	3.9520	3.9519	-0.7912	25.14	-0.04	-0.750			
0.1412	9038.57	3.9490	3.9491	-0.8011	25.14	-0.04	-0.750			
0.1436	9190.86	3.9460	3.9458	-0.7947	25.14	-0.04	-0.750			
0.1461	9352.49	3.9430	3.9429	-0.8107	25.14	-0.04	-0.750			
0.1485	9505.96	3.9400	3.9403	-0.8079	25.14	-0.04	-0.750			
0.1510	9661.87	3.9370	3.9369	-0.8088	25.14	-0.04	-0.750			
0.1534	9814.82	3.9340	3.9340	-0.8102	25.15	-0.03	-0.750			
0.1558	9970.50	3.9310	3.9310	-0.8103	25.15	-0.03	-0.750			
0.1583	10128.36	3.9280	3.9280	-0.8187	25.16	-0.02	-0.750			
0.1607	10285.92	3.9250	3.9248	-0.8162	25.16	-0.02	-0.750			
0.1632	10442.86	3.9220	3.9220	-0.8176	25.16	-0.02	-0.750			
0.1656	10599.62	3.9190	3.9190	-0.8250	25.16	-0.02	-0.750			
0.1681	10759.59	3.9160	3.9159	-0.8213	25.17	-0.01	-0.750			
0.1706	10916.99	3.9130	3.9128	-0.8182	25.17	-0.01	-0.750			
0.1731	11076.75	3.9100	3.9103	-0.8181	25.17	-0.01	-0.750			
0.1755	11232.25	3.9070	3.9068	-0.8121	25.17	-0.01	-0.750			
0.1779	11386.39	3.9040	3.9040	-0.8259	25.17	-0.01	-0.750			
0.1804	11545.05	3.9010	3.9009	-0.8231	25.17	-0.01	-0.750			
0.1830	11708.83	3.8980	3.8977	-0.8241	25.17	-0.01	-0.750			
0.1854	11864.54	3.8950	3.8954	-0.8152	25.17	-0.01	-0.750			
0.1878	12019.10	3.8920	3.8919	-0.8089	25.17	-0.01	-0.750			
0.1902	12173.05	3.8890	3.8888	-0.8063	25.17	-0.01	-0.750			
0.1926	12324.32	3.8860	3.8859	-0.8096	25.18	-0.00	-0.750			
0.1949	12473.05	3.8830	3.8831	-0.8059	25.18	-0.00	-0.750			
0.1975	12638.83	3.8800	3.8800	-0.8216	25.18	-0.00	-0.750			
0.2000	12797.85	3.8770	3.8771	-0.8205	25.18	0.00	-0.750			
0.2024	12952.19	3.8740	3.8741	-0.8253	25.18	0.00	-0.750			
0.2049	13114.32	3.8710	3.8709	-0.8198	25.18	0.00	-0.750			
0.2074	13271.24	3.8680	3.8679	-0.8121	25.19	0.01	-0.750			
0.2098	13426.75	3.8650	3.8648	-0.8029	25.19	0.01	-0.750			
0.2122	13582.12	3.8620	3.8619	-0.7974	25.19	0.01	-0.750			
0.2146	13731.26	3.8590	3.8590	-0.8002	25.19	0.01	-0.750			
0.2169	13883.82	3.8560	3.8559	-0.7896	25.19	0.01	-0.750			
0.2193	14032.26	3.8530	3.8530	-0.7805	25.20	0.02	-0.750			
0.2217	14187.78	3.8500	3.8499	-0.7942	25.20	0.02	-0.750			
0.2241	14340.92	3.8470	3.8477	-0.7902	25.20	0.02	-0.750			
0.2265	14493.20	3.8440	3.8438	-0.7852	25.20	0.02	-0.750			
0.2288	14642.57	3.8410	3.8410	-0.7799	25.20	0.02	-0.750			
0.2311	14789.33	3.8380	3.8381	-0.7657	25.20	0.02	-0.750			
0.2334	14938.14	3.8350	3.8350	-0.7747	25.20	0.02	-0.750			
0.2357	15086.46	3.8320	3.8319	-0.7677	25.20	0.02	-0.750			
0.2380	15232.23	3.8290	3.8291	-0.7667	25.20	0.02	-0.750			
0.2403	15377.48	3.8260	3.8260	-0.7820	25.21	0.03	-0.750			
0.2427	15531.21	3.8230	3.8230	-0.7763	25.21	0.03	-0.750			
0.2450	15680.81	3.8200	3.8199	-0.7793	25.21	0.03	-0.750			
0.2474	15833.11	3.8170	3.8169	-0.7726	25.22	0.04	-0.750			
0.2497	15979.77	3.8140	3.8137	-0.7587	25.22	0.04	-0.750			
0.2519	16118.97	3.8110	3.8111	-0.7732	25.23	0.05	-0.750			
0.2542	16266.97	3.8080	3.8077	-0.7677	25.23	0.05	-0.750			
0.2565	16416.10	3.8050	3.8048	-0.7530	25.24	0.06	-0.750			
0.2588	16565.53	3.8020	3.8018	-0.7604	25.24	0.06	-0.750			
0.2611	16709.90	3.7990	3.7998	-0.7590	25.25	0.07	-0.750			
0.2634	16857.39	3.7960	3.7957	-0.7603	25.25	0.07	-0.750			
0.2656	16997.97	3.7930	3.7928	-0.7585	25.25	0.07	-0.750			
0.2678	17141.43	3.7900	3.7900	-0.7557	25.25	0.07	-0.750			
0.2702	17290.64	3.7870	3.7870	-0.7660	25.25	0.07	-0.750			
0.2725	17438.60	3.7840	3.7838	-0.7704	25.25	0.07	-0.750			
0.2748	17585.87	3.7810	3.7810	-0.7644	25.25	0.07	-0.750			
0.2770	17730.13	3.7780	3.7780	-0.7750	25.25	0.07	-0.750			
0.2793	17878.29	3.7750	3.7751	-0.7795	25.25	0.07	-0.750			
0.2817	18027.80	3.7720	3.7719	-0.7799	25.25	0.07	-0.750			
0.2841	18181.76	3.7690	3.7689	-0.7936	25.25	0.07	-0.750			
0.2865	18335.31	3.7660	3.7666	-0.7991	25.25	0.07	-0.750			
0.2889	18488.18	3.7630	3.7630	-0.8015	25.25	0.07	-0.750			
0.2914	18648.26	3.7600	3.7599	-0.8188	25.25	0.07	-0.750			
0.2938	18805.73	3.7570	3.7568	-0.8152	25.25	0.07	-0.750			
0.2963	18964.58	3.7540	3.7538	-0.8202	25.25	0.07	-0.750			
0.2988	19121.08	3.7510	3.7521	-0.8251	25.25	0.07	-0.750			
0.3012	19279.05	3.7480	3.7478	-0.8292	25.25	0.07	-0.750			
0.3037	19436.52	3.7450	3.7449	-0.8356	25.24	0.06	-0.750			
0.3061	19588.72	3.7420	3.7421	-0.8316	25.24	0.06	-0.750			
0.3087	19759.99	3.7390	3.7391	-0.8643	25.23	0.05	-0.750			
0.3114	19927.47	3.7360	3.7358	-0.8703	25.23	0.05	-0.750			
0.3139	20091.52	3.7330	3.7331	-0.8918	25.23	0.05	-0.750			
0.3167	20266.86	3.7300	3.7299	-0.8899	25.23	0.05	-0.750			
0.3194	20438.70	3.7270	3.7269	-0.9011	25.22	0.04	-0.750			
0.3221	20613.54	3.7240	3.7240	-0.9102	25.22	0.04	-0.750			
0.3248	20788.27	3.7210	3.7206	-0.9204	25.22	0.04	-0.750			
0.3277	20970.14	3.7180	3.7179	-0.9410	25.22	0.04	-0.750			
0.3305	21152.29	3.7150	3.7149	-0.9492	25.21	0.03	-0.750			
0.3333	21333.81	3.7120	3.7118	-0.9535	25.21	0.03	-0.750			
0.3363	21522.75	3.7090	3.7100	-0.9783	25.21	0.03	-0.750			
0.3392	21707.27	3.7060	3.7058	-0.9870	25.21	0.03	-0.750			
0.3421	21896.11	3.7030	3.7029	-1.0079	25.20	0.02	-0.750			
0.3451	22084.95	3.7000	3.6999	-1.0117	25.20	0.02	-0.750			
0.3483	22292.76	3.6970	3.6971	-1.0580	25.19	0.01	-0.750	0.439	0.584	
0.3516	22499.49	3.6940	3.6939	-1.0822	25.19	0.01	-0.750			
0.3549	22712.60	3.6910	3.6909	-1.0840	25.18	0.00	-0.750			
0.3581	22921.30	3.6880	3.6879	-1.0812	25.17	-0.01	-0.750			
0.3613	23124.50	3.6850	3.6856	-1.1136	25.17	-0.01	-0.750			
0.3647	23341.54	3.6820	3.6818	-1.1138	25.16	-0.02	-0.750			
0.3681	23557.78	3.6790	3.6787	-1.1191	25.16	-0.02	-0.750			
0.3714	23771.48	3.6760	3.6759	-1.1293	25.15	-0.03	-0.750			
0.3749	23994.31	3.6730	3.6729	-1.1586	25.15	-0.03	-0.750			
0.3784	24217.80	3.6700	3.6698	-1.1679	25.14	-0.04	-0.750			
0.3819	24438.78	3.6670	3.6670	-1.1762	25.13	-0.05	-0.750			
0.3853	24656.44	3.6640	3.6643	-1.1958	25.12	-0.06	-0.750			
0.3890	24898.45	3.6610	3.6609	-1.2413	25.12	-0.06	-0.750			
0.3928	25139.64	3.6580	3.6578	-1.2622	25.11	-0.07	-0.750			
0.3966	25380.60	3.6550	3.6550	-1.2884	25.10	-0.08	-0.750			
0.4005	25631.78	3.6520	3.6521	-1.2978	25.10	-0.08	-0.750			
0.4045	25889.54	3.6490	3.6489	-1.3195	25.09	-0.09	-0.750			
0.4085	26140.83	3.6460	3.6458	-1.3459	25.08	-0.10	-0.750			
0.4124	26395.73	3.6430	3.6428	-1.3592	25.08	-0.10	-0.750			
0.4166	26662.37	3.6400	3.6399	-1.3882	25.07	-0.11	-0.750			
0.4208	26932.96	3.6370	3.6368	-1.4381	25.06	-0.12	-0.750			
0.4253	27216.64	3.6340	3.6341	-1.4538	25.06	-0.12	-0.750			
0.4298	27505.17	3.6310	3.6308	-1.4962	25.05	-0.13	-0.750			
0.4343	27796.75	3.6280	3.6281	-1.5139	25.04	-0.14	-0.750			
0.4389	28087.20	3.6250	3.6246	-1.5366	25.04	-0.14	-0.750			
0.4436	28388.73	3.6220	3.6224	-1.5463	25.03	-0.15	-0.750			
0.4482	28684.58	3.6190	3.6185	-1.5645	25.03	-0.15	-0.750			
0.4529	28984.94	3.6160	3.6166	-1.5796	25.03	-0.15	-0.750			
0.4578	29297.01	3.6130	3.6126	-1.6184	25.02	-0.16	-0.750			
0.4626	29606.35	3.6100	3.6102	-1.6675	25.02	-0.16	-0.750			
0.4675	29921.40	3.6070	3.6069	-1.7341	25.01	-0.17	-0.750			
0.4729	30266.18	3.6040	3.6040	-1.8043	25.00	-0.18	-0.750			
0.4784	30616.64	3.6010	3.6012	-1.8295	25.00	-0.18	-0.750			
0.4841	30983.57	3.5980	3.5983	-1.8810	25.00	-0.18	-0.750			
0.4897	31340.68	3.5950	3.5948	-1.8992	24.99	-0.19	-0.750			
0.4956	31716.67	3.5920	3.5918	-1.9020	24.99	-0.19	-0.750			
0.5012	32076.95	3.5890	3.5891	-1.9075	24.98	-0.20	-0.750			
0.5070	32450.10	3.5860	3.5861	-1.9408	24.97	-0.21	-0.750			
0.5128	32816.18	3.5830	3.5829	-1.9611	24.97	-0.21	-0.750			
0.5186	33193.49	3.5800	3.5798	-1.9667	24.98	-0.20	-0.750			
0.5246	33575.93	3.5770	3.5771	-1.9629	24.98	-0.20	-0.750			
0.5307	33964.70	3.5740	3.5738	-1.9921	24.98	-0.20	-0.750			
0.5365	34335.11	3.5710	3.5709	-1.9994	24.98	-0.20	-0.750			
0.5425	34717.77	3.5680	3.5678	-2.0257	24.98	-0.20	-0.750			
0.5487	35115.83	3.5650	3.5653	-2.0897	24.98	-0.20	-0.750			
0.5551	35524.45	3.5620	3.5622	-2.1206	24.97	-0.21	-0.750			
0.5616	35940.21	3.5590	3.5594	-2.1372	24.97	-0.21	-0.750			
0.5680	36354.41	3.5560	3.5560	-2.1122	24.98	-0.20	-0.750			
0.5743	36755.06	3.5530	3.5532	-2.0577	24.98	-0.20	-0.750			
0.5803	37141.93	3.5500	3.5502	-2.0388	24.99	-0.19	-0.750			
0.5865	37532.92	3.5470	3.5474	-2.0138	25.00	-0.18	-0.750			
0.5924	37916.37	3.5440	3.5441	-2.0053	25.00	-0.18	-0.750			
0.5986	38307.76	3.5410	3.5416	-1.9713	25.00	-0.18	-0.750			
0.6044	38684.18	3.5380	3.5382	-1.9567	25.01	-0.17	-0.750			
0.6103	39060.98	3.5350	3.5352	-1.9076	25.02	-0.16	-0.750			
0.6160	39423.06	3.5320	3.5319	-1.8857	25.03	-0.15	-0.750			
0.6215	39778.78	3.5290	3.5289	-1.8347	25.04	-0.14	-0.750			
0.6271	40133.21	3.5260	3.5258	-1.8043	25.06	-0.12	-0.750			
0.6325	40477.18	3.5230	3.5226	-1.7722	25.07	-0.11	-0.750			
0.6378	40820.67	3.5200	3.5199	-1.7401	25.09	-0.09	-0.750			
0.6430	41152.21	3.5170	3.5169	-1.7288	25.10	-0.08	-0.750			
0.6480	41474.93	3.5140	3.5142	-1.6786	25.12	-0.06	-0.750			
0.6530	41794.64	3.5110	3.5110	-1.6328	25.14	-0.04	-0.750			
0.6580	42110.87	3.5080	3.5080	-1.6021	25.16	-0.02	-0.750			
0.6627	42413.32	3.5050	3.5048	-1.5329	25.17	-0.01	-0.750			
0.6672	42700.96	3.5020	3.5021	-1.4756	25.18	0.00	-0.750			
0.6715	42972.87	3.4990	3.4988	-1.4333	25.19	0.01	-0.750			
0.6756	43241.59	3.4960	3.4958	-1.3889	25.21	0.03	-0.750			
0.6798	43510.24	3.4930	3.4928	-1.3542	25.23	0.05	-0.750			
0.6838	43765.44	3.4900	3.4899	-1.3171	25.25	0.07	-0.750			
0.6876	44009.21	3.4870	3.4872	-1.2773	25.27	0.09	-0.750			
0.6915	44258.47	3.4840	3.4840	-1.2112	25.29	0.11	-0.750			
0.6951	44483.75	3.4810	3.4810	-1.1318	25.30	0.12	-0.750			
