Ah_balance (normalized)	Ah_balance (mAh)	Voltage - fit (V)	Voltage -  interpolate (V)	dQ/dV (1/V)	Temperature (°C)	Temperature - diff (°C)	Current (C)	R_DC 0ms (mOhm)	R_DC 50ms (mOhm)	R_DC 50 ms PEC (mOhm)
0.0003	22.34	4.1620	4.1617	-0.1213	25.14	0.00	-0.750			
0.0008	50.56	4.1590	4.1590	-0.1704	25.14	0.00	-0.750			
0.0014	88.63	4.1560	4.1559	-0.2162	25.14	-0.00	-0.750			
0.0021	134.79	4.1530	4.1530	-0.2598	25.13	-0.01	-0.750			
0.0030	188.94	4.1500	4.1501	-0.3031	25.13	-0.01	-0.750			
0.0039	251.95	4.1470	4.1469	-0.3458	25.13	-0.01	-0.750			
0.0051	324.17	4.1440	4.1440	-0.3824	25.12	-0.02	-0.750			
0.0063	401.53	4.1410	4.1410	-0.4165	25.11	-0.03	-0.750			
0.0076	483.78	4.1380	4.1381	-0.4567	25.11	-0.03	-0.750			
0.0090	577.11	4.1350	4.1351	-0.4854	25.10	-0.04	-0.750			
0.0105	674.08	4.1320	4.1317	-0.5124	25.09	-0.05	-0.750			
0.0121	774.77	4.1290	4.1288	-0.5370	25.09	-0.05	-0.750			
0.0138	881.10	4.1260	4.1262	-0.5615	25.08	-0.06	-0.750			
0.0155	991.84	4.1230	4.1229	-0.5821	25.08	-0.06	-0.750			
0.0173	1106.49	4.1200	4.1199	-0.5961	25.07	-0.07	-0.750			
0.0191	1219.79	4.1170	4.1171	-0.6158	25.07	-0.07	-0.750			
0.0210	1345.60	4.1140	4.1140	-0.6416	25.07	-0.07	-0.750			
0.0230	1472.15	4.1110	4.1108	-0.6497	25.06	-0.08	-0.750			
0.0250	1597.54	4.1080	4.1078	-0.6574	25.06	-0.08	-0.750			
0.0270	1725.12	4.1050	4.1049	-0.6655	25.06	-0.08	-0.750			
0.0289	1852.71	4.1020	4.1018	-0.6731	25.06	-0.08	-0.750			
0.0309	1980.52	4.0990	4.0990	-0.6784	25.05	-0.09	-0.750			
0.0330	2111.99	4.0960	4.0960	-0.6928	25.05	-0.09	-0.750			
0.0351	2245.71	4.0930	4.0930	-0.7032	25.05	-0.09	-0.750			
0.0372	2382.51	4.0900	4.0899	-0.7082	25.04	-0.10	-0.750			
0.0394	2518.97	4.0870	4.0870	-0.7114	25.04	-0.10	-0.750			
0.0415	2656.80	4.0840	4.0840	-0.7162	25.04	-0.10	-0.750			
0.0437	2794.73	4.0810	4.0809	-0.7235	25.04	-0.10	-0.750			
0.0459	2935.30	4.0780	4.0779	-0.7240	25.03	-0.11	-0.750			
0.0480	3074.68	4.0750	4.0750	-0.7255	25.03	-0.11	-0.750			
0.0502	3213.75	4.0720	4.0722	-0.7278	25.03	-0.11	-0.750			
0.0524	3354.42	4.0690	4.0688	-0.7311	25.03	-0.11	-0.750			
0.0546	3493.46	4.0660	4.0658	-0.7316	25.03	-0.11	-0.750			
0.0568	3637.30	4.0630	4.0630	-0.7440	25.03	-0.11	-0.750			
0.0591	3781.61	4.0600	4.0599	-0.7398	25.03	-0.11	-0.750			
0.0614	3928.86	4.0570	4.0568	-0.7485	25.03	-0.11	-0.750			
0.0636	4071.88	4.0540	4.0546	-0.7433	25.03	-0.11	-0.750			
0.0658	4211.66	4.0510	4.0508	-0.7439	25.03	-0.11	-0.750			
0.0680	4353.13	4.0480	4.0479	-0.7512	25.03	-0.11	-0.750			
0.0702	4490.88	4.0450	4.0451	-0.7455	25.02	-0.12	-0.750			
0.0726	4645.35	4.0420	4.0420	-0.7647	25.02	-0.12	-0.750			
0.0749	4795.50	4.0390	4.0390	-0.7665	25.02	-0.12	-0.750			
0.0772	4940.91	4.0360	4.0359	-0.7607	25.02	-0.12	-0.750			
0.0794	5083.57	4.0330	4.0330	-0.7652	25.02	-0.12	-0.750			
0.0817	5230.72	4.0300	4.0300	-0.7616	25.02	-0.12	-0.750			
0.0840	5375.47	4.0270	4.0270	-0.7600	25.02	-0.12	-0.750			
0.0863	5525.21	4.0240	4.0238	-0.7669	25.02	-0.12	-0.750			
0.0887	5674.04	4.0210	4.0215	-0.7688	25.02	-0.12	-0.750			
0.0910	5821.92	4.0180	4.0179	-0.7648	25.02	-0.12	-0.750			
0.0932	5967.07	4.0150	4.0150	-0.7808	25.03	-0.11	-0.750			
0.0956	6117.89	4.0120	4.0119	-0.7753	25.03	-0.11	-0.750			
0.0980	6270.80	4.0090	4.0087	-0.7852	25.04	-0.10	-0.750			
0.1004	6423.06	4.0060	4.0059	-0.7867	25.04	-0.10	-0.750			
0.1027	6574.06	4.0030	4.0029	-0.7824	25.04	-0.10	-0.750			
0.1050	6723.11	4.0000	3.9999	-0.7797	25.04	-0.10	-0.750			
0.1073	6869.53	3.9970	3.9971	-0.7748	25.04	-0.10	-0.750			
0.1097	7018.26	3.9940	3.9940	-0.7870	25.04	-0.10	-0.750			
0.1120	7169.88	3.9910	3.9908	-0.7882	25.04	-0.10	-0.750			
0.1144	7320.78	3.9880	3.9881	-0.7903	25.04	-0.10	-0.750			
0.1167	7470.99	3.9850	3.9850	-0.8028	25.04	-0.10	-0.750			
0.1192	7629.31	3.9820	3.9820	-0.8027	25.04	-0.10	-0.750			
0.1216	7782.81	3.9790	3.9789	-0.7989	25.04	-0.10	-0.750			
0.1240	7938.39	3.9760	3.9758	-0.7991	25.04	-0.10	-0.750			
0.1264	8090.86	3.9730	3.9731	-0.7963	25.04	-0.10	-0.750			
0.1288	8241.89	3.9700	3.9700	-0.8071	25.04	-0.10	-0.750			
0.1312	8396.66	3.9670	3.9669	-0.8039	25.04	-0.10	-0.750			
0.1336	8548.51	3.9640	3.9640	-0.8013	25.05	-0.09	-0.750			
0.1360	8704.09	3.9610	3.9610	-0.8318	25.05	-0.09	-0.750			
0.1385	8861.25	3.9580	3.9590	-0.8525	25.05	-0.09	-0.750			
0.1411	9027.41	3.9550	3.9549	-0.8781	25.05	-0.09	-0.750			
0.1438	9202.54	3.9520	3.9514	-0.8827	25.05	-0.09	-0.750			
0.1465	9376.20	3.9490	3.9494	-0.8852	25.06	-0.08	-0.750			
0.1493	9552.78	3.9460	3.9460	-0.8814	25.06	-0.08	-0.750			
0.1519	9724.18	3.9430	3.9429	-0.8667	25.06	-0.08	-0.750			
0.1544	9883.78	3.9400	3.9399	-0.8522	25.06	-0.08	-0.750			
0.1568	10038.06	3.9370	3.9370	-0.8279	25.06	-0.08	-0.750			
0.1593	10196.22	3.9340	3.9339	-0.8223	25.06	-0.08	-0.750			
0.1618	10356.96	3.9310	3.9309	-0.8301	25.06	-0.08	-0.750			
0.1643	10516.88	3.9280	3.9281	-0.8225	25.06	-0.08	-0.750			
0.1667	10671.93	3.9250	3.9249	-0.8361	25.07	-0.07	-0.750			
0.1693	10832.40	3.9220	3.9220	-0.8307	25.07	-0.07	-0.750			
0.1717	10991.36	3.9190	3.9189	-0.8259	25.07	-0.07	-0.750			
0.1743	11153.27	3.9160	3.9159	-0.8373	25.08	-0.06	-0.750			
0.1768	11314.21	3.9130	3.9129	-0.8385	25.08	-0.06	-0.750			
0.1793	11474.27	3.9100	3.9099	-0.8405	25.08	-0.06	-0.750			
0.1818	11636.01	3.9070	3.9070	-0.8438	25.08	-0.06	-0.750			
0.1843	11794.29	3.9040	3.9041	-0.8400	25.08	-0.06	-0.750			
0.1869	11962.05	3.9010	3.9010	-0.8524	25.08	-0.06	-0.750			
0.1895	12126.30	3.8980	3.8979	-0.8520	25.08	-0.06	-0.750			
0.1920	12288.20	3.8950	3.8951	-0.8503	25.09	-0.05	-0.750			
0.1946	12453.06	3.8920	3.8920	-0.8475	25.09	-0.05	-0.750			
0.1971	12615.43	3.8890	3.8889	-0.8454	25.09	-0.05	-0.750			
0.1996	12776.54	3.8860	3.8860	-0.8500	25.10	-0.04	-0.750			
0.2022	12938.35	3.8830	3.8831	-0.8519	25.10	-0.04	-0.750			
0.2047	13102.70	3.8800	3.8799	-0.8555	25.10	-0.04	-0.750			
0.2073	13269.19	3.8770	3.8770	-0.8544	25.11	-0.03	-0.750			
0.2099	13433.84	3.8740	3.8741	-0.8508	25.11	-0.03	-0.750			
0.2125	13598.22	3.8710	3.8707	-0.8514	25.11	-0.03	-0.750			
0.2150	13760.56	3.8680	3.8680	-0.8467	25.11	-0.03	-0.750			
0.2175	13921.92	3.8650	3.8650	-0.8451	25.11	-0.03	-0.750			
0.2201	14084.15	3.8620	3.8619	-0.8391	25.12	-0.02	-0.750			
0.2225	14242.72	3.8590	3.8590	-0.8352	25.12	-0.02	-0.750			
0.2251	14407.40	3.8560	3.8561	-0.8455	25.12	-0.02	-0.750			
0.2276	14568.88	3.8530	3.8529	-0.8403	25.12	-0.02	-0.750			
0.2301	14728.85	3.8500	3.8500	-0.8459	25.13	-0.01	-0.750			
0.2327	14892.48	3.8470	3.8470	-0.8490	25.13	-0.01	-0.750			
0.2353	15056.33	3.8440	3.8439	-0.8422	25.14	-0.00	-0.750			
0.2378	15221.29	3.8410	3.8411	-0.8452	25.14	-0.00	-0.750			
0.2403	15382.09	3.8380	3.8380	-0.8343	25.14	0.00	-0.750			
0.2429	15542.45	3.8350	3.8349	-0.8336	25.14	0.00	-0.750			
0.2453	15702.02	3.8320	3.8319	-0.8265	25.14	0.00	-0.750			
0.2478	15857.17	3.8290	3.8291	-0.8167	25.14	0.00	-0.750			
0.2503	16017.00	3.8260	3.8262	-0.8189	25.14	0.00	-0.750			
0.2527	16173.52	3.8230	3.8229	-0.8170	25.14	0.00	-0.750			
0.2551	16328.00	3.8200	3.8200	-0.8128	25.15	0.01	-0.750			
0.2576	16484.59	3.8170	3.8170	-0.8099	25.15	0.01	-0.750			
0.2600	16638.51	3.8140	3.8140	-0.8065	25.15	0.01	-0.750			
0.2624	16796.67	3.8110	3.8111	-0.8040	25.16	0.02	-0.750			
0.2649	16950.44	3.8080	3.8080	-0.7975	25.16	0.02	-0.750			
0.2672	17101.40	3.8050	3.8050	-0.7975	25.16	0.02	-0.750			
0.2696	17253.87	3.8020	3.8018	-0.7949	25.17	0.03	-0.750			
0.2720	17406.24	3.7990	3.7990	-0.7878	25.17	0.03	-0.750			
0.2744	17558.40	3.7960	3.7958	-0.7845	25.17	0.03	-0.750			
0.2767	17709.17	3.7930	3.7931	-0.7801	25.17	0.03	-0.750			
0.2790	17857.57	3.7900	3.7901	-0.7816	25.17	0.03	-0.750			
0.2813	18005.39	3.7870	3.7868	-0.7774	25.17	0.03	-0.750			
0.2836	18152.63	3.7840	3.7841	-0.7696	25.18	0.04	-0.750			
0.2860	18303.37	3.7810	3.7809	-0.7757	25.18	0.04	-0.750			
0.2883	18453.94	3.7780	3.7785	-0.7826	25.18	0.04	-0.750			
0.2907	18603.44	3.7750	3.7750	-0.7822	25.18	0.04	-0.750			
0.2930	18753.01	3.7720	3.7719	-0.7805	25.18	0.04	-0.750			
0.2953	18901.90	3.7690	3.7690	-0.7828	25.18	0.04	-0.750			
0.2977	19051.99	3.7660	3.7660	-0.7855	25.18	0.04	-0.750			
0.3000	19202.29	3.7630	3.7629	-0.7922	25.18	0.04	-0.750			
0.3024	19355.45	3.7600	3.7599	-0.7943	25.18	0.04	-0.750			
0.3048	19506.08	3.7570	3.7570	-0.8050	25.18	0.04	-0.750			
0.3072	19662.25	3.7540	3.7540	-0.8097	25.19	0.05	-0.750			
0.3097	19818.96	3.7510	3.7509	-0.8205	25.19	0.05	-0.750			
0.3122	19977.62	3.7480	3.7479	-0.8252	25.19	0.05	-0.750			
0.3147	20137.80	3.7450	3.7450	-0.8318	25.19	0.05	-0.750			
0.3171	20296.25	3.7420	3.7420	-0.8443	25.19	0.05	-0.750			
0.3197	20461.13	3.7390	3.7389	-0.8553	25.19	0.05	-0.750			
0.3223	20624.52	3.7360	3.7359	-0.8591	25.19	0.05	-0.750			
0.3249	20792.96	3.7330	3.7329	-0.8722	25.19	0.05	-0.750			
0.3275	20960.76	3.7300	3.7299	-0.8812	25.19	0.05	-0.750			
0.3302	21130.53	3.7270	3.7270	-0.8954	25.19	0.05	-0.750			
0.3328	21301.68	3.7240	3.7239	-0.9045	25.18	0.04	-0.750			
0.3355	21473.38	3.7210	3.7210	-0.9169	25.18	0.04	-0.750			
0.3383	21653.35	3.7180	3.7180	-0.9429	25.18	0.04	-0.750			
0.3412	21836.30	3.7150	3.7150	-0.9651	25.18	0.04	-0.750			
0.3442	22026.77	3.7120	3.7119	-0.9830	25.18	0.04	-0.750			
0.3472	22218.63	3.7090	3.7090	-0.9993	25.17	0.03	-0.750			
0.3502	22413.24	3.7060	3.7059	-1.0101	25.17	0.03	-0.750			
0.3533	22609.61	3.7030	3.7029	-1.0275	25.17	0.03	-0.750			
0.3564	22807.95	3.7000	3.7004	-1.0288	25.17	0.03	-0.750	0.356	0.488	
0.3594	23003.24	3.6970	3.6969	-1.0428	25.16	0.02	-0.750			
0.3625	23202.82	3.6940	3.6942	-1.0539	25.16	0.02	-0.750			
0.3657	23407.64	3.6910	3.6908	-1.0782	25.16	0.02	-0.750			
0.3690	23617.56	3.6880	3.6880	-1.1045	25.15	0.01	-0.750			
0.3723	23829.27	3.6850	3.6850	-1.1199	25.15	0.01	-0.750			
0.3757	24042.80	3.6820	3.6822	-1.1495	25.14	0.00	-0.750			
0.3793	24273.19	3.6790	3.6789	-1.1775	25.13	-0.01	-0.750			
0.3828	24500.39	3.6760	3.6760	-1.1925	25.13	-0.01	-0.750			
0.3864	24730.41	3.6730	3.6730	-1.2214	25.12	-0.02	-0.750			
0.3901	24968.84	3.6700	3.6700	-1.2378	25.12	-0.02	-0.750			
0.3939	25207.89	3.6670	3.6669	-1.2533	25.12	-0.02	-0.750			
0.3976	25445.94	3.6640	3.6639	-1.2755	25.11	-0.03	-0.750			
0.4014	25690.33	3.6610	3.6614	-1.2988	25.11	-0.03	-0.750			
0.4054	25947.23	3.6580	3.6579	-1.3268	25.10	-0.04	-0.750			
0.4095	26205.21	3.6550	3.6549	-1.3493	25.09	-0.05	-0.750			
0.4135	26467.10	3.6520	3.6523	-1.3801	25.08	-0.06	-0.750			
0.4178	26739.12	3.6490	3.6490	-1.4118	25.07	-0.07	-0.750			
0.4220	27008.28	3.6460	3.6458	-1.4389	25.07	-0.07	-0.750			
0.4264	27289.66	3.6430	3.6432	-1.4490	25.06	-0.08	-0.750			
0.4307	27567.59	3.6400	3.6402	-1.4812	25.05	-0.09	-0.750			
0.4353	27859.17	3.6370	3.6367	-1.4933	25.04	-0.10	-0.750			
0.4397	28143.24	3.6340	3.6341	-1.5166	25.04	-0.10	-0.750			
0.4443	28436.93	3.6310	3.6309	-1.5480	25.04	-0.10	-0.750			
0.4490	28736.37	3.6280	3.6279	-1.5754	25.03	-0.11	-0.750			
0.4537	29037.09	3.6250	3.6247	-1.5913	25.03	-0.11	-0.750			
0.4586	29353.16	3.6220	3.6217	-1.6488	25.02	-0.12	-0.750			
0.4636	29669.21	3.6190	3.6191	-1.6727	25.02	-0.12	-0.750			
0.4688	30000.08	3.6160	3.6161	-1.7161	25.02	-0.12	-0.750			
0.4740	30332.95	3.6130	3.6130	-1.7449	25.01	-0.13	-0.750			
0.4793	30673.76	3.6100	3.6098	-1.7638	25.01	-0.13	-0.750			
0.4847	31019.43	3.6070	3.6074	-1.8074	25.00	-0.14	-0.750			
0.4900	31362.43	3.6040	3.6040	-1.8582	25.00	-0.14	-0.750			
0.4956	31719.54	3.6010	3.6010	-1.9048	25.00	-0.14	-0.750			
0.5014	32088.45	3.5980	3.5981	-1.9404	25.00	-0.14	-0.750			
0.5073	32467.75	3.5950	3.5951	-1.9704	24.99	-0.15	-0.750			
0.5134	32857.16	3.5920	3.5924	-1.9996	24.98	-0.16	-0.750			
0.5194	33244.01	3.5890	3.5892	-2.0381	24.98	-0.16	-0.750			
0.5256	33641.19	3.5860	3.5860	-2.0644	24.98	-0.16	-0.750			
0.5319	34041.01	3.5830	3.5826	-2.1367	24.98	-0.16	-0.750			
0.5383	34454.34	3.5800	3.5801	-2.1453	24.98	-0.16	-0.750			
0.5449	34872.92	3.5770	3.5767	-2.1793	24.98	-0.16	-0.750			
0.5520	35329.65	3.5740	3.5738	-2.1007	24.98	-0.16	-0.750			
0.5581	35718.99	3.5710	3.5713	-2.0311	24.99	-0.15	-0.750			
0.5640	36094.52	3.5680	3.5683	-1.9600	25.00	-0.14	-0.750			
0.5695	36445.58	3.5650	3.5641	-1.9584	25.00	-0.14	-0.750			
0.5752	36810.57	3.5620	3.5616	-2.0019	25.00	-0.14	-0.750			
0.5813	37202.12	3.5590	3.5594	-2.1368	25.00	-0.14	-0.750			
0.5884	37656.97	3.5560	3.5566	-2.2099	25.01	-0.13	-0.750			
0.5950	38081.80	3.5530	3.5527	-2.1706	25.02	-0.12	-0.750			
0.6012	38478.26	3.5500	3.5500	-2.0797	25.02	-0.12	-0.750			
0.6072	38860.80	3.5470	3.5468	-2.0971	25.02	-0.12	-0.750			
0.6136	39269.01	3.5440	3.5443	-2.0874	25.02	-0.12	-0.750			
0.6199	39672.65	3.5410	3.5408	-2.0414	25.03	-0.11	-0.750			
0.6261	40069.64	3.5380	3.5385	-2.0261	25.04	-0.10	-0.750			
0.6321	40452.65	3.5350	3.5347	-1.9984	25.05	-0.09	-0.750			
0.6378	40818.88	3.5320	3.5321	-1.9224	25.06	-0.08	-0.750			
0.6434	41177.06	3.5290	3.5293	-1.8795	25.08	-0.06	-0.750			
0.6491	41544.43	3.5260	3.5263	-1.8598	25.09	-0.05	-0.750			
0.6548	41907.30	3.5230	3.5229	-1.8124	25.11	-0.03	-0.750			
0.6602	42253.18	3.5200	3.5201	-1.7594	25.12	-0.02	-0.750			
0.6654	42586.89	3.5170	3.5168	-1.7236	25.14	-0.00	-0.750			
0.6704	42905.82	3.5140	3.5140	-1.6975	25.15	0.01	-0.750			
0.6754	43223.02	3.5110	3.5109	-1.6329	25.17	0.03	-0.750			
0.6802	43533.43	3.5080	3.5080	-1.6043	25.18	0.04	-0.750			
0.6850	43836.89	3.5050	3.5048	-1.5608	25.20	0.06	-0.750			
0.6897	44143.07	3.5020	3.5015	-1.5117	25.22	0.08	-0.750			
0.6943	44436.01	3.4990	3.4984	-1.4833	25.24	0.10	-0.750			
0.6987	44714.06	3.4960	3.4953	-1.4204	25.26	0.12	-0.750			
0.7030	44993.36	3.4930	3.4926	-1.3595	25.28	0.14	-0.750			
0.7069	45239.45	3.4900	3.4908	-1.2842	25.30	0.16	-0.750			
0.7107	45482.51	3.4870	3.4869	-1.2982	25.32	0.18	-0.750			
