Ah_balance (normalized)	Ah_balance (mAh)	Voltage - fit (V)	Voltage -  interpolate (V)	dQ/dV (1/V)	Temperature (°C)	Temperature - diff (°C)	Current (C)	R_DC 0ms (mOhm)	R_DC 50ms (mOhm)	R_DC 50 ms PEC (mOhm)
0.0004	25.06	4.1640	4.1638	-0.1421	25.01	0.01	-0.750			
0.0009	59.21	4.1610	4.1609	-0.1952	25.01	0.01	-0.750			
0.0016	100.64	4.1580	4.1580	-0.2396	25.01	0.01	-0.750			
0.0024	151.36	4.1550	4.1550	-0.2834	25.00	0.00	-0.750			
0.0033	210.23	4.1520	4.1524	-0.3253	25.00	-0.00	-0.750			
0.0043	277.75	4.1490	4.1489	-0.3666	25.00	-0.00	-0.750			
0.0055	352.06	4.1460	4.1461	-0.4084	24.99	-0.01	-0.750			
0.0068	434.25	4.1430	4.1430	-0.4491	24.99	-0.01	-0.750			
0.0082	525.91	4.1400	4.1399	-0.4883	24.98	-0.02	-0.750			
0.0097	623.23	4.1370	4.1371	-0.5277	24.98	-0.02	-0.750			
0.0114	731.48	4.1340	4.1339	-0.5578	24.97	-0.03	-0.750			
0.0132	842.52	4.1310	4.1310	-0.5821	24.97	-0.03	-0.750			
0.0150	958.31	4.1280	4.1280	-0.6048	24.96	-0.04	-0.750			
0.0168	1075.73	4.1250	4.1250	-0.6204	24.96	-0.04	-0.750			
0.0187	1198.10	4.1220	4.1218	-0.6305	24.96	-0.04	-0.750			
0.0206	1318.44	4.1190	4.1190	-0.6481	24.95	-0.05	-0.750			
0.0225	1442.74	4.1160	4.1161	-0.6685	24.95	-0.05	-0.750			
0.0246	1577.33	4.1130	4.1129	-0.6950	24.95	-0.05	-0.750			
0.0268	1713.02	4.1100	4.1098	-0.7027	24.94	-0.06	-0.750			
0.0289	1851.28	4.1070	4.1072	-0.7141	24.94	-0.06	-0.750			
0.0311	1989.76	4.1040	4.1040	-0.7199	24.94	-0.06	-0.750			
0.0333	2128.90	4.1010	4.1010	-0.7352	24.94	-0.06	-0.750			
0.0354	2268.40	4.0980	4.0979	-0.7308	24.93	-0.07	-0.750			
0.0377	2411.82	4.0950	4.0948	-0.7362	24.93	-0.07	-0.750			
0.0399	2554.68	4.0920	4.0920	-0.7405	24.93	-0.07	-0.750			
0.0421	2697.41	4.0890	4.0890	-0.7426	24.93	-0.07	-0.750			
0.0444	2839.93	4.0860	4.0859	-0.7444	24.93	-0.07	-0.750			
0.0466	2981.25	4.0830	4.0829	-0.7497	24.93	-0.07	-0.750			
0.0488	3123.51	4.0800	4.0800	-0.7470	24.93	-0.07	-0.750			
0.0511	3273.09	4.0770	4.0768	-0.7618	24.93	-0.07	-0.750			
0.0534	3418.60	4.0740	4.0743	-0.7652	24.93	-0.07	-0.750			
0.0557	3566.05	4.0710	4.0710	-0.7674	24.93	-0.07	-0.750			
0.0580	3714.04	4.0680	4.0679	-0.7689	24.93	-0.07	-0.750			
0.0603	3860.60	4.0650	4.0650	-0.7682	24.93	-0.07	-0.750			
0.0627	4010.22	4.0620	4.0621	-0.7771	24.93	-0.07	-0.750			
0.0650	4159.24	4.0590	4.0591	-0.7768	24.93	-0.07	-0.750			
0.0673	4307.78	4.0560	4.0559	-0.7805	24.93	-0.07	-0.750			
0.0696	4456.49	4.0530	4.0530	-0.7876	24.93	-0.07	-0.750			
0.0720	4609.32	4.0500	4.0500	-0.7861	24.93	-0.07	-0.750			
0.0744	4761.30	4.0470	4.0470	-0.7837	24.93	-0.07	-0.750			
0.0768	4912.68	4.0440	4.0440	-0.7865	24.93	-0.07	-0.750			
0.0791	5063.21	4.0410	4.0409	-0.7856	24.93	-0.07	-0.750			
0.0814	5212.63	4.0380	4.0380	-0.7865	24.93	-0.07	-0.750			
0.0838	5362.59	4.0350	4.0350	-0.7881	24.93	-0.07	-0.750			
0.0861	5513.50	4.0320	4.0320	-0.7891	24.94	-0.06	-0.750			
0.0886	5668.00	4.0290	4.0289	-0.7970	24.94	-0.06	-0.750			
0.0909	5820.62	4.0260	4.0263	-0.8017	24.94	-0.06	-0.750			
0.0933	5973.75	4.0230	4.0229	-0.8038	24.94	-0.06	-0.750			
0.0958	6129.51	4.0200	4.0200	-0.8071	24.94	-0.06	-0.750			
0.0982	6285.18	4.0170	4.0170	-0.8093	24.94	-0.06	-0.750			
0.1006	6441.32	4.0140	4.0140	-0.8072	24.94	-0.06	-0.750			
0.1031	6596.68	4.0110	4.0110	-0.8058	24.94	-0.06	-0.750			
0.1055	6750.23	4.0080	4.0080	-0.8019	24.94	-0.06	-0.750			
0.1079	6903.25	4.0050	4.0048	-0.8111	24.95	-0.05	-0.750			
0.1103	7059.85	4.0020	4.0020	-0.8122	24.95	-0.05	-0.750			
0.1128	7216.38	3.9990	3.9989	-0.8171	24.96	-0.04	-0.750			
0.1152	7374.81	3.9960	3.9964	-0.8223	24.96	-0.04	-0.750			
0.1177	7534.68	3.9930	3.9928	-0.8216	24.96	-0.04	-0.750			
0.1202	7691.69	3.9900	3.9900	-0.8238	24.96	-0.04	-0.750			
0.1226	7849.49	3.9870	3.9870	-0.8218	24.96	-0.04	-0.750			
0.1251	8008.50	3.9840	3.9839	-0.8279	24.96	-0.04	-0.750			
0.1276	8165.95	3.9810	3.9811	-0.8219	24.96	-0.04	-0.750			
0.1300	8321.10	3.9780	3.9779	-0.8220	24.96	-0.04	-0.750			
0.1325	8478.16	3.9750	3.9750	-0.8309	24.97	-0.03	-0.750			
0.1350	8639.93	3.9720	3.9720	-0.8358	24.97	-0.03	-0.750			
0.1375	8800.57	3.9690	3.9690	-0.8340	24.97	-0.03	-0.750			
0.1401	8964.83	3.9660	3.9660	-0.8411	24.98	-0.02	-0.750			
0.1426	9126.47	3.9630	3.9630	-0.8409	24.98	-0.02	-0.750			
0.1451	9287.38	3.9600	3.9600	-0.8454	24.99	-0.01	-0.750			
0.1476	9448.84	3.9570	3.9569	-0.8445	24.99	-0.01	-0.750			
0.1502	9610.10	3.9540	3.9540	-0.8441	25.00	-0.00	-0.750			
0.1527	9775.23	3.9510	3.9511	-0.8515	25.00	-0.00	-0.750			
0.1553	9937.82	3.9480	3.9479	-0.8541	25.00	0.00	-0.750			
0.1579	10102.47	3.9450	3.9449	-0.8593	25.00	0.00	-0.750			
0.1604	10267.92	3.9420	3.9419	-0.8568	25.00	0.00	-0.750			
0.1630	10431.77	3.9390	3.9390	-0.8515	25.00	0.00	-0.750			
0.1656	10599.28	3.9360	3.9362	-0.8558	25.00	0.00	-0.750			
0.1682	10762.45	3.9330	3.9329	-0.8540	25.00	0.00	-0.750			
0.1707	10924.18	3.9300	3.9301	-0.8629	25.01	0.01	-0.750			
0.1733	11092.49	3.9270	3.9268	-0.8571	25.01	0.01	-0.750			
0.1759	11258.13	3.9240	3.9238	-0.8658	25.02	0.02	-0.750			
0.1785	11424.55	3.9210	3.9214	-0.8669	25.02	0.02	-0.750			
0.1811	11588.23	3.9180	3.9181	-0.8828	25.02	0.02	-0.750			
0.1838	11760.02	3.9150	3.9147	-0.8736	25.03	0.03	-0.750			
0.1863	11926.38	3.9120	3.9119	-0.8743	25.03	0.03	-0.750			
0.1890	12094.95	3.9090	3.9089	-0.8751	25.04	0.04	-0.750			
0.1916	12264.09	3.9060	3.9059	-0.8791	25.04	0.04	-0.750			
0.1942	12431.17	3.9030	3.9029	-0.8802	25.04	0.04	-0.750			
0.1969	12601.35	3.9000	3.8999	-0.8807	25.04	0.04	-0.750			
0.1995	12770.71	3.8970	3.8969	-0.8857	25.04	0.04	-0.750			
0.2022	12940.88	3.8940	3.8939	-0.8855	25.04	0.04	-0.750			
0.2048	13108.93	3.8910	3.8911	-0.8841	25.04	0.04	-0.750			
0.2075	13279.72	3.8880	3.8879	-0.8843	25.05	0.05	-0.750			
0.2101	13447.00	3.8850	3.8849	-0.8804	25.05	0.05	-0.750			
0.2127	13614.42	3.8820	3.8821	-0.8852	25.06	0.06	-0.750			
0.2154	13788.55	3.8790	3.8791	-0.8968	25.06	0.06	-0.750			
0.2181	13958.89	3.8760	3.8759	-0.9059	25.06	0.06	-0.750			
0.2209	14136.00	3.8730	3.8730	-0.8995	25.07	0.07	-0.750			
0.2236	14310.09	3.8700	3.8700	-0.8961	25.07	0.07	-0.750			
0.2263	14482.43	3.8670	3.8669	-0.8892	25.08	0.08	-0.750			
0.2290	14652.84	3.8640	3.8641	-0.8844	25.08	0.08	-0.750			
0.2315	14818.81	3.8610	3.8610	-0.8876	25.09	0.09	-0.750			
0.2342	14988.59	3.8580	3.8579	-0.8855	25.09	0.09	-0.750			
0.2368	15156.79	3.8550	3.8550	-0.8812	25.09	0.09	-0.750			
0.2396	15331.56	3.8520	3.8520	-0.8949	25.10	0.10	-0.750			
0.2422	15502.81	3.8490	3.8490	-0.9004	25.10	0.10	-0.750			
0.2449	15676.40	3.8460	3.8459	-0.9001	25.10	0.10	-0.750			
0.2476	15847.33	3.8430	3.8430	-0.8943	25.11	0.11	-0.750			
0.2503	16018.04	3.8400	3.8400	-0.8941	25.11	0.11	-0.750			
0.2530	16192.39	3.8370	3.8371	-0.9080	25.11	0.11	-0.750			
0.2557	16363.60	3.8340	3.8340	-0.9256	25.11	0.11	-0.750			
0.2585	16545.72	3.8310	3.8309	-0.9210	25.11	0.11	-0.750			
0.2613	16723.36	3.8280	3.8279	-0.9202	25.12	0.12	-0.750			
0.2641	16901.76	3.8250	3.8250	-0.9149	25.12	0.12	-0.750			
0.2669	17080.60	3.8220	3.8220	-0.9116	25.12	0.12	-0.750			
0.2696	17253.34	3.8190	3.8188	-0.9055	25.12	0.12	-0.750			
0.2722	17422.15	3.8160	3.8160	-0.8945	25.13	0.13	-0.750			
0.2749	17592.05	3.8130	3.8130	-0.8838	25.13	0.13	-0.750			
0.2776	17765.76	3.8100	3.8101	-0.8963	25.13	0.13	-0.750			
0.2803	17937.23	3.8070	3.8070	-0.8921	25.13	0.13	-0.750			
0.2830	18108.89	3.8040	3.8040	-0.8894	25.14	0.14	-0.750			
0.2856	18278.40	3.8010	3.8009	-0.8856	25.14	0.14	-0.750			
0.2883	18448.13	3.7980	3.7981	-0.8812	25.15	0.15	-0.750			
0.2909	18617.37	3.7950	3.7952	-0.8848	25.15	0.15	-0.750			
0.2935	18785.04	3.7920	3.7920	-0.9006	25.15	0.15	-0.750			
0.2962	18959.58	3.7890	3.7890	-0.8894	25.16	0.16	-0.750			
0.2989	19132.78	3.7860	3.7859	-0.8908	25.16	0.16	-0.750			
0.3017	19306.07	3.7830	3.7830	-0.8912	25.17	0.17	-0.750			
0.3043	19476.92	3.7800	3.7799	-0.8843	25.17	0.17	-0.750			
0.3069	19644.53	3.7770	3.7769	-0.8843	25.17	0.17	-0.750			
0.3096	19812.45	3.7740	3.7740	-0.8750	25.18	0.18	-0.750			
0.3122	19978.35	3.7710	3.7710	-0.8661	25.18	0.18	-0.750			
0.3148	20148.89	3.7680	3.7679	-0.8780	25.18	0.18	-0.750			
0.3174	20316.61	3.7650	3.7650	-0.8747	25.18	0.18	-0.750			
0.3201	20483.83	3.7620	3.7619	-0.8724	25.18	0.18	-0.750			
0.3227	20650.47	3.7590	3.7589	-0.8688	25.19	0.19	-0.750			
0.3252	20815.24	3.7560	3.7561	-0.8698	25.19	0.19	-0.750			
0.3279	20985.07	3.7530	3.7530	-0.8809	25.19	0.19	-0.750			
0.3305	21153.20	3.7500	3.7500	-0.8847	25.19	0.19	-0.750			
0.3332	21324.50	3.7470	3.7470	-0.8813	25.19	0.19	-0.750			
0.3359	21495.52	3.7440	3.7440	-0.8819	25.20	0.20	-0.750			
0.3385	21664.04	3.7410	3.7410	-0.8834	25.20	0.20	-0.750			
0.3412	21834.36	3.7380	3.7383	-0.8864	25.20	0.20	-0.750			
0.3438	22002.08	3.7350	3.7350	-0.8924	25.20	0.20	-0.750			
0.3464	22172.12	3.7320	3.7320	-0.8976	25.20	0.20	-0.750			
0.3492	22345.80	3.7290	3.7290	-0.9089	25.20	0.20	-0.750			
0.3519	22522.46	3.7260	3.7259	-0.9254	25.20	0.20	-0.750			
0.3547	22701.01	3.7230	3.7229	-0.9347	25.20	0.20	-0.750			
0.3575	22880.88	3.7200	3.7200	-0.9417	25.20	0.20	-0.750			
0.3603	23062.17	3.7170	3.7170	-0.9603	25.20	0.20	-0.750			
0.3632	23245.70	3.7140	3.7141	-0.9841	25.20	0.20	-0.750			
0.3662	23439.70	3.7110	3.7109	-1.0025	25.20	0.20	-0.750			
0.3693	23635.27	3.7080	3.7079	-1.0263	25.20	0.20	-0.750			
0.3724	23835.97	3.7050	3.7050	-1.0334	25.20	0.20	-0.750	0.384	0.481	
0.3756	24037.29	3.7020	3.7019	-1.0504	25.20	0.20	-0.750			
0.3787	24237.22	3.6990	3.6993	-1.0737	25.20	0.20	-0.750			
0.3819	24444.38	3.6960	3.6958	-1.0779	25.19	0.19	-0.750			
0.3852	24650.19	3.6930	3.6930	-1.0865	25.19	0.19	-0.750			
0.3885	24863.07	3.6900	3.6899	-1.1083	25.18	0.18	-0.750			
0.3918	25078.12	3.6870	3.6871	-1.1375	25.18	0.18	-0.750			
0.3953	25297.00	3.6840	3.6839	-1.1589	25.18	0.18	-0.750			
0.3987	25516.36	3.6810	3.6808	-1.1805	25.18	0.18	-0.750			
0.4023	25744.77	3.6780	3.6781	-1.2178	25.18	0.18	-0.750			
0.4061	25990.79	3.6750	3.6749	-1.2597	25.18	0.18	-0.750			
0.4100	26239.07	3.6720	3.6719	-1.2860	25.17	0.17	-0.750			
0.4138	26485.57	3.6690	3.6691	-1.3187	25.16	0.16	-0.750			
0.4178	26741.10	3.6660	3.6658	-1.3259	25.15	0.15	-0.750			
0.4218	26996.49	3.6630	3.6628	-1.3622	25.15	0.15	-0.750			
0.4260	27261.86	3.6600	3.6600	-1.3897	25.14	0.14	-0.750			
0.4301	27524.80	3.6570	3.6569	-1.4246	25.13	0.13	-0.750			
0.4346	27815.53	3.6540	3.6540	-1.4586	25.12	0.12	-0.750			
0.4390	28096.51	3.6510	3.6510	-1.4902	25.11	0.11	-0.750			
0.4434	28378.24	3.6480	3.6478	-1.5185	25.11	0.11	-0.750			
0.4481	28676.82	3.6450	3.6448	-1.5665	25.10	0.10	-0.750			
0.4527	28972.57	3.6420	3.6424	-1.5878	25.09	0.09	-0.750			
0.4576	29283.26	3.6390	3.6387	-1.6318	25.08	0.08	-0.750			
0.4626	29605.83	3.6360	3.6361	-1.6595	25.07	0.07	-0.750			
0.4677	29934.25	3.6330	3.6327	-1.6969	25.06	0.06	-0.750			
0.4729	30265.84	3.6300	3.6297	-1.7489	25.05	0.05	-0.750			
0.4782	30601.65	3.6270	3.6270	-1.7540	25.04	0.04	-0.750			
0.4835	30943.68	3.6240	3.6241	-1.7988	25.03	0.03	-0.750			
0.4889	31289.98	3.6210	3.6211	-1.8305	25.02	0.02	-0.750			
0.4944	31643.82	3.6180	3.6180	-1.8539	25.01	0.01	-0.750			
0.5001	32006.97	3.6150	3.6149	-1.9184	24.99	-0.01	-0.750			
0.5058	32372.94	3.6120	3.6118	-1.9441	24.98	-0.02	-0.750			
0.5118	32757.52	3.6090	3.6087	-1.9692	24.97	-0.03	-0.750			
0.5177	33131.93	3.6060	3.6063	-2.0239	24.97	-0.03	-0.750			
0.5238	33526.39	3.6030	3.6032	-2.0161	24.96	-0.04	-0.750			
0.5298	33908.63	3.6000	3.6000	-2.0790	24.96	-0.04	-0.750			
0.5361	34307.60	3.5970	3.5973	-2.0914	24.95	-0.05	-0.750			
0.5426	34725.09	3.5940	3.5937	-2.1119	24.94	-0.06	-0.750			
0.5490	35135.31	3.5910	3.5914	-2.1689	24.93	-0.07	-0.750			
0.5554	35546.85	3.5880	3.5882	-2.2329	24.92	-0.08	-0.750			
0.5624	35991.92	3.5850	3.5853	-2.3202	24.91	-0.09	-0.750			
0.5693	36435.97	3.5820	3.5818	-2.3315	24.90	-0.10	-0.750			
0.5766	36900.08	3.5790	3.5789	-2.4090	24.90	-0.10	-0.750			
0.5839	37370.65	3.5760	3.5763	-2.4531	24.90	-0.10	-0.750			
0.5911	37833.23	3.5730	3.5728	-2.4080	24.89	-0.11	-0.750			
0.5984	38294.59	3.5700	3.5698	-2.3991	24.88	-0.12	-0.750			
0.6058	38768.89	3.5670	3.5670	-2.4390	24.88	-0.12	-0.750			
0.6128	39219.26	3.5640	3.5642	-2.3918	24.88	-0.12	-0.750			
0.6200	39683.14	3.5610	3.5611	-2.3565	24.88	-0.12	-0.750			
0.6272	40140.82	3.5580	3.5580	-2.3681	24.88	-0.12	-0.750			
0.6344	40604.74	3.5550	3.5550	-2.3561	24.88	-0.12	-0.750			
0.6413	41045.15	3.5520	3.5522	-2.2980	24.88	-0.12	-0.750			
0.6482	41484.54	3.5490	3.5491	-2.3024	24.89	-0.11	-0.750			
0.6551	41927.21	3.5460	3.5459	-2.3177	24.90	-0.10	-0.750			
0.6622	42380.95	3.5430	3.5432	-2.2607	24.90	-0.10	-0.750			
0.6689	42812.28	3.5400	3.5402	-2.2075	24.91	-0.09	-0.750			
0.6756	43239.82	3.5370	3.5370	-2.1618	24.92	-0.08	-0.750			
0.6818	43633.12	3.5340	3.5338	-2.0686	24.92	-0.08	-0.750			
0.6879	44028.13	3.5310	3.5307	-2.0414	24.93	-0.07	-0.750			
0.6940	44416.49	3.5280	3.5280	-1.9802	24.94	-0.06	-0.750			
0.6999	44794.81	3.5250	3.5247	-1.9125	24.95	-0.05	-0.750			
0.7056	45157.37	3.5220	3.5222	-1.8487	24.97	-0.03	-0.750			
0.7110	45506.34	3.5190	3.5190	-1.7881	24.98	-0.02	-0.750			
0.7163	45840.16	3.5160	3.5162	-1.7367	24.99	-0.01	-0.750			
0.7214	46172.32	3.5130	3.5131	-1.6615	25.00	0.00	-0.750			
0.7263	46486.38	3.5100	3.5100	-1.6142	25.02	0.02	-0.750			
0.7311	46789.59	3.5070	3.5069	-1.5763	25.03	0.03	-0.750			
0.7358	47090.08	3.5040	3.5038	-1.5344	25.05	0.05	-0.750			
0.7402	47375.98	3.5010	3.5010	-1.5167	25.07	0.07	-0.750			
0.7449	47670.52	3.4980	3.4980	-1.6126	25.09	0.09	-0.750			
