Ah_balance (normalized)	Ah_balance (mAh)	Voltage - fit (V)	Voltage -  interpolate (V)	dQ/dV (1/V)	Temperature (°C)	Temperature - diff (°C)	Current (C)	R_DC 0ms (mOhm)	R_DC 50ms (mOhm)	R_DC 50 ms PEC (mOhm)
0.0003	21.34	4.1620	4.1617	-0.1197	24.80	0.03	-0.750			
0.0008	49.17	4.1590	4.1589	-0.1664	24.80	0.03	-0.750			
0.0013	85.78	4.1560	4.1560	-0.2092	24.80	0.03	-0.750			
0.0020	130.02	4.1530	4.1530	-0.2511	24.79	0.02	-0.750			
0.0029	182.70	4.1500	4.1501	-0.2910	24.79	0.02	-0.750			
0.0038	243.25	4.1470	4.1469	-0.3310	24.79	0.02	-0.750			
0.0049	311.20	4.1440	4.1440	-0.3677	24.79	0.02	-0.750			
0.0060	385.53	4.1410	4.1411	-0.4012	24.78	0.01	-0.750			
0.0073	466.17	4.1380	4.1380	-0.4379	24.78	0.01	-0.750			
0.0087	554.23	4.1350	4.1350	-0.4690	24.78	0.01	-0.750			
0.0101	647.34	4.1320	4.1319	-0.4996	24.77	0.00	-0.750			
0.0117	746.82	4.1290	4.1289	-0.5273	24.77	0.00	-0.750			
0.0133	852.64	4.1260	4.1260	-0.5491	24.77	-0.00	-0.750			
0.0150	960.76	4.1230	4.1231	-0.5676	24.76	-0.01	-0.750			
0.0167	1071.53	4.1200	4.1201	-0.5874	24.76	-0.01	-0.750			
0.0185	1185.39	4.1170	4.1169	-0.6055	24.75	-0.02	-0.750			
0.0204	1305.54	4.1140	4.1139	-0.6188	24.75	-0.02	-0.750			
0.0223	1425.81	4.1110	4.1110	-0.6289	24.75	-0.02	-0.750			
0.0242	1549.67	4.1080	4.1082	-0.6406	24.74	-0.03	-0.750			
0.0261	1673.21	4.1050	4.1049	-0.6505	24.74	-0.03	-0.750			
0.0281	1797.15	4.1020	4.1021	-0.6597	24.74	-0.03	-0.750			
0.0301	1923.72	4.0990	4.0989	-0.6716	24.74	-0.03	-0.750			
0.0321	2053.32	4.0960	4.0959	-0.6818	24.73	-0.04	-0.750			
0.0342	2189.22	4.0930	4.0930	-0.6965	24.73	-0.04	-0.750			
0.0363	2323.51	4.0900	4.0901	-0.7013	24.73	-0.04	-0.750			
0.0385	2461.82	4.0870	4.0869	-0.7060	24.73	-0.04	-0.750			
0.0406	2596.79	4.0840	4.0840	-0.7060	24.73	-0.04	-0.750			
0.0427	2731.39	4.0810	4.0810	-0.7094	24.73	-0.04	-0.750			
0.0448	2867.71	4.0780	4.0780	-0.7139	24.72	-0.05	-0.750			
0.0470	3006.70	4.0750	4.0748	-0.7142	24.72	-0.05	-0.750			
0.0491	3143.26	4.0720	4.0724	-0.7151	24.72	-0.05	-0.750			
0.0513	3281.15	4.0690	4.0689	-0.7187	24.72	-0.05	-0.750			
0.0534	3418.67	4.0660	4.0658	-0.7237	24.72	-0.05	-0.750			
0.0556	3557.45	4.0630	4.0630	-0.7361	24.72	-0.05	-0.750			
0.0578	3698.15	4.0600	4.0600	-0.7371	24.71	-0.06	-0.750			
0.0601	3844.72	4.0570	4.0569	-0.7468	24.71	-0.06	-0.750			
0.0624	3990.53	4.0540	4.0543	-0.7492	24.71	-0.06	-0.750			
0.0646	4134.39	4.0510	4.0510	-0.7467	24.71	-0.06	-0.750			
0.0668	4276.67	4.0480	4.0479	-0.7478	24.71	-0.06	-0.750			
0.0690	4417.11	4.0450	4.0451	-0.7450	24.72	-0.05	-0.750			
0.0713	4562.32	4.0420	4.0419	-0.7529	24.72	-0.05	-0.750			
0.0735	4706.73	4.0390	4.0388	-0.7501	24.72	-0.05	-0.750			
0.0758	4850.91	4.0360	4.0360	-0.7506	24.72	-0.05	-0.750			
0.0780	4992.26	4.0330	4.0331	-0.7624	24.72	-0.05	-0.750			
0.0803	5140.22	4.0300	4.0299	-0.7606	24.72	-0.05	-0.750			
0.0826	5286.83	4.0270	4.0269	-0.7557	24.71	-0.06	-0.750			
0.0849	5433.45	4.0240	4.0238	-0.7607	24.71	-0.06	-0.750			
0.0872	5579.87	4.0210	4.0216	-0.7616	24.71	-0.06	-0.750			
0.0895	5726.53	4.0180	4.0180	-0.7623	24.71	-0.06	-0.750			
0.0918	5872.36	4.0150	4.0149	-0.7689	24.71	-0.06	-0.750			
0.0941	6019.28	4.0120	4.0118	-0.7733	24.72	-0.05	-0.750			
0.0964	6170.50	4.0090	4.0089	-0.7754	24.72	-0.05	-0.750			
0.0987	6318.84	4.0060	4.0060	-0.7760	24.72	-0.05	-0.750			
0.1011	6467.87	4.0030	4.0028	-0.7761	24.72	-0.05	-0.750			
0.1034	6617.51	4.0000	3.9998	-0.7738	24.72	-0.05	-0.750			
0.1057	6764.93	3.9970	3.9970	-0.7704	24.72	-0.05	-0.750			
0.1080	6910.63	3.9940	3.9940	-0.7700	24.72	-0.05	-0.750			
0.1103	7061.60	3.9910	3.9911	-0.7773	24.72	-0.05	-0.750			
0.1127	7211.66	3.9880	3.9881	-0.7841	24.72	-0.05	-0.750			
0.1150	7360.32	3.9850	3.9848	-0.7825	24.72	-0.05	-0.750			
0.1174	7512.28	3.9820	3.9820	-0.7993	24.73	-0.04	-0.750			
0.1198	7668.84	3.9790	3.9789	-0.7949	24.73	-0.04	-0.750			
0.1223	7824.62	3.9760	3.9758	-0.7972	24.74	-0.03	-0.750			
0.1247	7977.75	3.9730	3.9736	-0.7895	24.74	-0.03	-0.750			
0.1270	8126.83	3.9700	3.9699	-0.7856	24.74	-0.03	-0.750			
0.1293	8276.30	3.9670	3.9669	-0.7892	24.74	-0.03	-0.750			
0.1316	8424.80	3.9640	3.9639	-0.7864	24.74	-0.03	-0.750			
0.1340	8577.87	3.9610	3.9609	-0.7964	24.74	-0.03	-0.750			
0.1364	8730.89	3.9580	3.9581	-0.8034	24.74	-0.03	-0.750			
0.1388	8885.86	3.9550	3.9549	-0.8086	24.74	-0.03	-0.750			
0.1413	9043.26	3.9520	3.9518	-0.8104	24.75	-0.02	-0.750			
0.1437	9198.23	3.9490	3.9490	-0.8031	24.75	-0.02	-0.750			
0.1461	9351.43	3.9460	3.9461	-0.8061	24.75	-0.02	-0.750			
0.1486	9509.75	3.9430	3.9430	-0.8095	24.76	-0.01	-0.750			
0.1510	9663.38	3.9400	3.9398	-0.8081	24.76	-0.01	-0.750			
0.1534	9816.35	3.9370	3.9369	-0.8120	24.76	-0.01	-0.750			
0.1558	9973.67	3.9340	3.9342	-0.8179	24.76	-0.01	-0.750			
0.1583	10133.70	3.9310	3.9308	-0.8175	24.76	-0.01	-0.750			
0.1608	10293.71	3.9280	3.9280	-0.8214	24.76	-0.01	-0.750			
0.1633	10448.66	3.9250	3.9248	-0.8153	24.76	-0.01	-0.750			
0.1657	10602.72	3.9220	3.9220	-0.8186	24.77	-0.00	-0.750			
0.1681	10758.31	3.9190	3.9189	-0.8193	24.77	-0.00	-0.750			
0.1705	10912.69	3.9160	3.9159	-0.8172	24.77	0.00	-0.750			
0.1730	11075.10	3.9130	3.9130	-0.8298	24.78	0.01	-0.750			
0.1756	11235.73	3.9100	3.9101	-0.8358	24.78	0.01	-0.750			
0.1781	11395.67	3.9070	3.9070	-0.8432	24.78	0.01	-0.750			
0.1806	11560.90	3.9040	3.9038	-0.8377	24.78	0.01	-0.750			
0.1831	11719.56	3.9010	3.9010	-0.8317	24.78	0.01	-0.750			
0.1856	11880.75	3.8980	3.8980	-0.8353	24.78	0.01	-0.750			
0.1882	12041.81	3.8950	3.8949	-0.8326	24.78	0.01	-0.750			
0.1906	12198.38	3.8920	3.8919	-0.8379	24.79	0.02	-0.750			
0.1931	12358.19	3.8890	3.8891	-0.8323	24.79	0.02	-0.750			
0.1956	12517.48	3.8860	3.8860	-0.8352	24.79	0.02	-0.750			
0.1982	12682.14	3.8830	3.8829	-0.8425	24.80	0.03	-0.750			
0.2007	12843.66	3.8800	3.8798	-0.8368	24.80	0.03	-0.750			
0.2032	13002.47	3.8770	3.8770	-0.8434	24.80	0.03	-0.750			
0.2057	13166.38	3.8740	3.8740	-0.8364	24.80	0.03	-0.750			
0.2082	13323.89	3.8710	3.8710	-0.8308	24.81	0.04	-0.750			
0.2107	13487.59	3.8680	3.8678	-0.8301	24.81	0.04	-0.750			
0.2132	13645.17	3.8650	3.8648	-0.8232	24.81	0.04	-0.750			
0.2156	13801.52	3.8620	3.8620	-0.8263	24.81	0.04	-0.750			
0.2181	13959.68	3.8590	3.8589	-0.8212	24.81	0.04	-0.750			
0.2205	14114.41	3.8560	3.8560	-0.8145	24.82	0.05	-0.750			
0.2231	14275.63	3.8530	3.8529	-0.8217	24.82	0.05	-0.750			
0.2255	14432.55	3.8500	3.8499	-0.8170	24.82	0.05	-0.750			
0.2279	14588.79	3.8470	3.8470	-0.8250	24.82	0.05	-0.750			
0.2304	14747.53	3.8440	3.8440	-0.8156	24.82	0.05	-0.750			
0.2329	14904.93	3.8410	3.8409	-0.8051	24.82	0.05	-0.750			
0.2353	15060.95	3.8380	3.8379	-0.8037	24.82	0.05	-0.750			
0.2377	15213.54	3.8350	3.8352	-0.7959	24.82	0.05	-0.750			
0.2401	15363.44	3.8320	3.8320	-0.7962	24.82	0.05	-0.750			
0.2424	15515.28	3.8290	3.8289	-0.7870	24.83	0.06	-0.750			
0.2447	15663.17	3.8260	3.8260	-0.7805	24.83	0.06	-0.750			
0.2472	15817.69	3.8230	3.8231	-0.7917	24.84	0.07	-0.750			
0.2495	15971.06	3.8200	3.8205	-0.7885	24.84	0.07	-0.750			
0.2519	16121.18	3.8170	3.8169	-0.7769	24.85	0.08	-0.750			
0.2542	16267.94	3.8140	3.8142	-0.7752	24.85	0.08	-0.750			
0.2565	16416.24	3.8110	3.8109	-0.7720	24.86	0.09	-0.750			
0.2589	16567.04	3.8080	3.8080	-0.7739	24.86	0.09	-0.750			
0.2611	16713.52	3.8050	3.8050	-0.7670	24.87	0.10	-0.750			
0.2634	16859.86	3.8020	3.8021	-0.7659	24.87	0.10	-0.750			
0.2657	17006.02	3.7990	3.7990	-0.7725	24.87	0.10	-0.750			
0.2680	17153.43	3.7960	3.7960	-0.7689	24.87	0.10	-0.750			
0.2703	17299.60	3.7930	3.7929	-0.7678	24.88	0.11	-0.750			
0.2727	17450.30	3.7900	3.7900	-0.7729	24.88	0.11	-0.750			
0.2750	17598.96	3.7870	3.7873	-0.7735	24.88	0.11	-0.750			
0.2773	17746.38	3.7840	3.7840	-0.7756	24.88	0.11	-0.750			
0.2796	17895.81	3.7810	3.7810	-0.7754	24.88	0.11	-0.750			
0.2819	18043.10	3.7780	3.7779	-0.7670	24.89	0.12	-0.750			
0.2842	18190.94	3.7750	3.7750	-0.7784	24.89	0.12	-0.750			
0.2865	18338.79	3.7720	3.7722	-0.7821	24.89	0.12	-0.750			
0.2889	18489.81	3.7690	3.7689	-0.7864	24.89	0.12	-0.750			
0.2913	18640.68	3.7660	3.7659	-0.7940	24.89	0.12	-0.750			
0.2937	18794.52	3.7630	3.7631	-0.8021	24.90	0.13	-0.750			
0.2961	18949.47	3.7600	3.7599	-0.8094	24.90	0.13	-0.750			
0.2986	19108.56	3.7570	3.7570	-0.8175	24.90	0.13	-0.750			
0.3010	19263.62	3.7540	3.7539	-0.8189	24.90	0.13	-0.750			
0.3035	19421.02	3.7510	3.7510	-0.8309	24.90	0.13	-0.750			
0.3060	19582.30	3.7480	3.7479	-0.8395	24.90	0.13	-0.750			
0.3085	19743.18	3.7450	3.7450	-0.8409	24.90	0.13	-0.750			
0.3110	19907.05	3.7420	3.7420	-0.8529	24.90	0.13	-0.750			
0.3136	20068.75	3.7390	3.7389	-0.8695	24.90	0.13	-0.750			
0.3162	20237.59	3.7360	3.7359	-0.8744	24.90	0.13	-0.750			
0.3188	20404.84	3.7330	3.7329	-0.8802	24.89	0.12	-0.750			
0.3215	20574.72	3.7300	3.7300	-0.8860	24.89	0.12	-0.750			
0.3242	20748.80	3.7270	3.7271	-0.9018	24.89	0.12	-0.750			
0.3269	20923.12	3.7240	3.7240	-0.9081	24.89	0.12	-0.750			
0.3296	21096.19	3.7210	3.7210	-0.9134	24.89	0.12	-0.750			
0.3323	21270.11	3.7180	3.7180	-0.9323	24.88	0.11	-0.750			
0.3351	21449.51	3.7150	3.7151	-0.9533	24.88	0.11	-0.750			
0.3380	21633.87	3.7120	3.7119	-0.9755	24.88	0.11	-0.750			
0.3410	21825.43	3.7090	3.7091	-0.9965	24.88	0.11	-0.750			
0.3441	22021.28	3.7060	3.7060	-1.0068	24.88	0.11	-0.750			
0.3471	22215.91	3.7030	3.7029	-1.0200	24.88	0.11	-0.750			
0.3502	22410.82	3.7000	3.7003	-1.0419	24.88	0.11	-0.750			
0.3533	22613.34	3.6970	3.6972	-1.0477	24.87	0.10	-0.750	0.370	0.522	
0.3565	22817.05	3.6940	3.6938	-1.0559	24.87	0.10	-0.750			
0.3597	23019.17	3.6910	3.6909	-1.0712	24.86	0.09	-0.750			
0.3629	23224.94	3.6880	3.6882	-1.0950	24.86	0.09	-0.750			
0.3662	23437.55	3.6850	3.6849	-1.1099	24.86	0.09	-0.750			
0.3695	23649.07	3.6820	3.6818	-1.1245	24.85	0.08	-0.750			
0.3729	23865.03	3.6790	3.6792	-1.1367	24.85	0.08	-0.750			
0.3764	24091.85	3.6760	3.6760	-1.1809	24.85	0.08	-0.750			
0.3801	24324.93	3.6730	3.6729	-1.1914	24.85	0.08	-0.750			
0.3836	24553.08	3.6700	3.6697	-1.1988	24.84	0.07	-0.750			
0.3872	24782.75	3.6670	3.6674	-1.2112	24.84	0.07	-0.750			
0.3909	25018.69	3.6640	3.6638	-1.2301	24.83	0.06	-0.750			
0.3946	25252.97	3.6610	3.6609	-1.2489	24.83	0.06	-0.750			
0.3984	25497.32	3.6580	3.6579	-1.2712	24.82	0.05	-0.750			
0.4023	25748.28	3.6550	3.6548	-1.2828	24.82	0.05	-0.750			
0.4061	25992.07	3.6520	3.6521	-1.3072	24.81	0.04	-0.750			
0.4100	26242.17	3.6490	3.6491	-1.3250	24.80	0.03	-0.750			
0.4140	26494.00	3.6460	3.6456	-1.3516	24.80	0.03	-0.750			
0.4181	26757.03	3.6430	3.6426	-1.3665	24.79	0.02	-0.750			
0.4222	27019.98	3.6400	3.6403	-1.4058	24.78	0.01	-0.750			
0.4265	27297.06	3.6370	3.6368	-1.4296	24.78	0.01	-0.750			
0.4311	27588.29	3.6340	3.6338	-1.4809	24.77	0.00	-0.750			
0.4355	27869.97	3.6310	3.6310	-1.4895	24.77	0.00	-0.750			
0.4400	28162.46	3.6280	3.6278	-1.5368	24.77	-0.00	-0.750			
0.4444	28443.85	3.6250	3.6254	-1.5669	24.76	-0.01	-0.750			
0.4493	28754.77	3.6220	3.6221	-1.6099	24.76	-0.01	-0.750			
0.4541	29061.16	3.6190	3.6193	-1.6399	24.76	-0.01	-0.750			
0.4592	29391.59	3.6160	3.6160	-1.6773	24.76	-0.01	-0.750			
0.4644	29721.82	3.6130	3.6126	-1.7022	24.76	-0.01	-0.750			
0.4695	30045.73	3.6100	3.6097	-1.7382	24.75	-0.02	-0.750			
0.4747	30379.57	3.6070	3.6071	-1.7700	24.74	-0.03	-0.750			
0.4799	30713.42	3.6040	3.6041	-1.7915	24.74	-0.03	-0.750			
0.4854	31064.50	3.6010	3.6011	-1.8303	24.73	-0.04	-0.750			
0.4909	31418.90	3.5980	3.5980	-1.8537	24.73	-0.04	-0.750			
0.4967	31791.63	3.5950	3.5949	-1.8863	24.73	-0.04	-0.750			
0.5025	32157.20	3.5920	3.5917	-1.9070	24.73	-0.04	-0.750			
0.5081	32519.16	3.5890	3.5887	-1.9573	24.72	-0.05	-0.750			
0.5141	32904.90	3.5860	3.5856	-1.9715	24.72	-0.05	-0.750			
0.5202	33293.16	3.5830	3.5825	-2.0376	24.72	-0.05	-0.750			
0.5264	33687.18	3.5800	3.5802	-2.0308	24.72	-0.05	-0.750			
0.5326	34087.71	3.5770	3.5766	-2.0767	24.71	-0.06	-0.750			
0.5389	34488.90	3.5740	3.5738	-2.0813	24.71	-0.06	-0.750			
0.5450	34878.33	3.5710	3.5707	-2.1015	24.71	-0.06	-0.750			
0.5514	35287.79	3.5680	3.5678	-2.1045	24.71	-0.06	-0.750			
0.5578	35701.02	3.5650	3.5645	-2.1066	24.71	-0.06	-0.750			
0.5642	36105.94	3.5620	3.5623	-2.0972	24.71	-0.06	-0.750			
0.5705	36509.48	3.5590	3.5593	-2.1065	24.72	-0.05	-0.750			
0.5768	36916.16	3.5560	3.5555	-2.0930	24.72	-0.05	-0.750			
0.5828	37300.20	3.5530	3.5527	-2.0809	24.72	-0.05	-0.750			
0.5891	37702.56	3.5500	3.5498	-2.0920	24.72	-0.05	-0.750			
0.5957	38125.56	3.5470	3.5465	-2.0763	24.72	-0.05	-0.750			
0.6019	38519.41	3.5440	3.5443	-2.0375	24.72	-0.05	-0.750			
0.6080	38913.60	3.5410	3.5415	-2.0060	24.73	-0.04	-0.750			
0.6137	39279.81	3.5380	3.5376	-1.9691	24.74	-0.03	-0.750			
0.6196	39653.84	3.5350	3.5346	-1.9090	24.76	-0.01	-0.750			
0.6252	40012.68	3.5320	3.5320	-1.8872	24.77	0.00	-0.750			
0.6308	40370.96	3.5290	3.5292	-1.8494	24.78	0.01	-0.750			
0.6364	40732.79	3.5260	3.5260	-1.8214	24.79	0.02	-0.750			
0.6419	41081.03	3.5230	3.5230	-1.8013	24.81	0.04	-0.750			
0.6474	41430.95	3.5200	3.5199	-1.7601	24.83	0.06	-0.750			
0.6525	41759.06	3.5170	3.5169	-1.6998	24.85	0.08	-0.750			
0.6577	42089.73	3.5140	3.5139	-1.6752	24.86	0.09	-0.750			
0.6626	42407.17	3.5110	3.5112	-1.6104	24.87	0.10	-0.750			
0.6673	42707.27	3.5080	3.5083	-1.5682	24.89	0.12	-0.750			
0.6720	43006.95	3.5050	3.5054	-1.5397	24.91	0.14	-0.750			
0.6766	43303.41	3.5020	3.5019	-1.4857	24.93	0.16	-0.750			
0.6811	43592.77	3.4990	3.4989	-1.4618	24.94	0.17	-0.750			
0.6855	43871.76	3.4960	3.4960	-1.4124	24.96	0.19	-0.750			
0.6896	44136.63	3.4930	3.4926	-1.3549	24.97	0.20	-0.750			
0.6936	44392.67	3.4900	3.4905	-1.2845	24.99	0.22	-0.750			
0.6973	44624.59	3.4870	3.4869	-1.2542	25.01	0.24	-0.750			
0.7010	44865.94	3.4840	3.4840	-1.3045	25.03	0.26	-0.750			
