Ah_balance (normalized)	Ah_balance (mAh)	Voltage - fit (V)	Voltage -  interpolate (V)	dQ/dV (1/V)	Temperature (°C)	Temperature - diff (°C)	Current (C)	R_DC 0ms (mOhm)	R_DC 50ms (mOhm)	R_DC 50 ms PEC (mOhm)
0.0006	36.10	4.1640	4.1638	-0.1571	25.25	0.02	-0.750			
0.0011	70.69	4.1610	4.1609	-0.2026	25.25	0.02	-0.750			
0.0018	114.04	4.1580	4.1581	-0.2487	25.25	0.02	-0.750			
0.0026	166.03	4.1550	4.1550	-0.2949	25.25	0.02	-0.750			
0.0036	227.48	4.1520	4.1520	-0.3377	25.24	0.01	-0.750			
0.0046	297.45	4.1490	4.1491	-0.3831	25.24	0.01	-0.750			
0.0059	375.64	4.1460	4.1459	-0.4241	25.24	0.01	-0.750			
0.0072	461.74	4.1430	4.1430	-0.4641	25.24	0.01	-0.750			
0.0087	555.79	4.1400	4.1400	-0.4979	25.23	0.00	-0.750			
0.0102	654.71	4.1370	4.1369	-0.5297	25.23	-0.00	-0.750			
0.0119	761.54	4.1340	4.1340	-0.5554	25.22	-0.01	-0.750			
0.0136	870.84	4.1310	4.1308	-0.5806	25.22	-0.01	-0.750			
0.0154	982.63	4.1280	4.1282	-0.6023	25.22	-0.01	-0.750			
0.0172	1102.49	4.1250	4.1251	-0.6271	25.21	-0.02	-0.750			
0.0192	1225.71	4.1220	4.1219	-0.6449	25.21	-0.02	-0.750			
0.0211	1351.91	4.1190	4.1186	-0.6641	25.20	-0.03	-0.750			
0.0231	1481.46	4.1160	4.1162	-0.6764	25.20	-0.03	-0.750			
0.0252	1613.95	4.1130	4.1130	-0.6884	25.19	-0.04	-0.750			
0.0273	1748.11	4.1100	4.1099	-0.7018	25.19	-0.04	-0.750			
0.0294	1883.02	4.1070	4.1069	-0.7032	25.19	-0.04	-0.750			
0.0316	2020.91	4.1040	4.1040	-0.7145	25.18	-0.05	-0.750			
0.0337	2158.22	4.1010	4.1012	-0.7206	25.18	-0.05	-0.750			
0.0359	2298.04	4.0980	4.0979	-0.7239	25.18	-0.05	-0.750			
0.0381	2438.45	4.0950	4.0949	-0.7262	25.18	-0.05	-0.750			
0.0403	2576.64	4.0920	4.0921	-0.7303	25.18	-0.05	-0.750			
0.0424	2716.69	4.0890	4.0890	-0.7321	25.19	-0.04	-0.750			
0.0447	2860.21	4.0860	4.0859	-0.7425	25.19	-0.04	-0.750			
0.0469	3003.00	4.0830	4.0833	-0.7436	25.19	-0.04	-0.750			
0.0491	3144.98	4.0800	4.0800	-0.7472	25.19	-0.04	-0.750			
0.0514	3290.76	4.0770	4.0770	-0.7522	25.19	-0.04	-0.750			
0.0537	3435.96	4.0740	4.0740	-0.7511	25.20	-0.03	-0.750			
0.0560	3581.28	4.0710	4.0709	-0.7581	25.20	-0.03	-0.750			
0.0582	3725.10	4.0680	4.0682	-0.7608	25.20	-0.03	-0.750			
0.0605	3870.60	4.0650	4.0648	-0.7624	25.20	-0.03	-0.750			
0.0628	4016.07	4.0620	4.0620	-0.7752	25.20	-0.03	-0.750			
0.0651	4166.04	4.0590	4.0590	-0.7758	25.20	-0.03	-0.750			
0.0675	4317.55	4.0560	4.0560	-0.7788	25.20	-0.03	-0.750			
0.0698	4470.29	4.0530	4.0529	-0.7878	25.20	-0.03	-0.750			
0.0722	4620.52	4.0500	4.0504	-0.7827	25.20	-0.03	-0.750			
0.0745	4770.28	4.0470	4.0470	-0.7826	25.20	-0.03	-0.750			
0.0769	4919.57	4.0440	4.0440	-0.7838	25.20	-0.03	-0.750			
0.0792	5069.43	4.0410	4.0411	-0.7802	25.20	-0.03	-0.750			
0.0816	5220.39	4.0380	4.0379	-0.7824	25.20	-0.03	-0.750			
0.0839	5372.11	4.0350	4.0349	-0.7813	25.20	-0.03	-0.750			
0.0862	5518.70	4.0320	4.0321	-0.7817	25.20	-0.03	-0.750			
0.0886	5667.85	4.0290	4.0291	-0.7932	25.21	-0.02	-0.750			
0.0910	5822.04	4.0260	4.0259	-0.7905	25.21	-0.02	-0.750			
0.0933	5973.84	4.0230	4.0229	-0.7834	25.21	-0.02	-0.750			
0.0957	6125.76	4.0200	4.0202	-0.7926	25.22	-0.01	-0.750			
0.0981	6276.49	4.0170	4.0169	-0.7978	25.22	-0.01	-0.750			
0.1004	6427.35	4.0140	4.0139	-0.8106	25.22	-0.01	-0.750			
0.1029	6584.26	4.0110	4.0109	-0.8117	25.22	-0.01	-0.750			
0.1053	6741.22	4.0080	4.0080	-0.8148	25.22	-0.01	-0.750			
0.1079	6902.87	4.0050	4.0048	-0.8183	25.22	-0.01	-0.750			
0.1103	7062.13	4.0020	4.0020	-0.8190	25.22	-0.01	-0.750			
0.1127	7215.80	3.9990	3.9989	-0.8129	25.23	-0.00	-0.750			
0.1151	7368.42	3.9960	3.9960	-0.8095	25.23	0.00	-0.750			
0.1175	7521.28	3.9930	3.9930	-0.8051	25.24	0.01	-0.750			
0.1200	7681.42	3.9900	3.9899	-0.8144	25.25	0.02	-0.750			
0.1225	7837.95	3.9870	3.9871	-0.8203	25.25	0.02	-0.750			
0.1249	7995.89	3.9840	3.9840	-0.8188	25.25	0.02	-0.750			
0.1274	8153.13	3.9810	3.9809	-0.8238	25.25	0.02	-0.750			
0.1299	8312.94	3.9780	3.9780	-0.8219	25.25	0.02	-0.750			
0.1324	8471.82	3.9750	3.9750	-0.8156	25.25	0.02	-0.750			
0.1348	8627.28	3.9720	3.9722	-0.8223	25.25	0.02	-0.750			
0.1373	8785.48	3.9690	3.9690	-0.8249	25.25	0.02	-0.750			
0.1398	8944.14	3.9660	3.9658	-0.8296	25.25	0.02	-0.750			
0.1422	9103.34	3.9630	3.9631	-0.8343	25.26	0.03	-0.750			
0.1448	9266.24	3.9600	3.9599	-0.8414	25.26	0.03	-0.750			
0.1473	9428.66	3.9570	3.9572	-0.8406	25.26	0.03	-0.750			
0.1499	9592.01	3.9540	3.9539	-0.8396	25.26	0.03	-0.750			
0.1524	9751.22	3.9510	3.9510	-0.8404	25.27	0.04	-0.750			
0.1549	9910.78	3.9480	3.9481	-0.8371	25.27	0.04	-0.750			
0.1574	10076.55	3.9450	3.9448	-0.8494	25.28	0.05	-0.750			
0.1600	10238.35	3.9420	3.9422	-0.8469	25.28	0.05	-0.750			
0.1626	10405.49	3.9390	3.9388	-0.8232	25.29	0.06	-0.750			
0.1651	10563.22	3.9360	3.9360	-0.7987	25.29	0.06	-0.750			
0.1674	10710.51	3.9330	3.9332	-0.7807	25.29	0.06	-0.750			
0.1697	10858.69	3.9300	3.9302	-0.7804	25.30	0.07	-0.750			
0.1719	11000.89	3.9270	3.9270	-0.7717	25.30	0.07	-0.750			
0.1741	11141.42	3.9240	3.9240	-0.8061	25.30	0.07	-0.750			
0.1766	11302.95	3.9210	3.9210	-0.8129	25.30	0.07	-0.750			
0.1792	11468.00	3.9180	3.9179	-0.8405	25.30	0.07	-0.750			
0.1818	11632.91	3.9150	3.9147	-0.8543	25.30	0.07	-0.750			
0.1843	11796.26	3.9120	3.9131	-0.8583	25.30	0.07	-0.750			
0.1869	11962.15	3.9090	3.9088	-0.8594	25.30	0.07	-0.750			
0.1895	12126.88	3.9060	3.9060	-0.8646	25.31	0.08	-0.750			
0.1920	12288.74	3.9030	3.9030	-0.8599	25.31	0.08	-0.750			
0.1947	12460.25	3.9000	3.9000	-0.8822	25.32	0.09	-0.750			
0.1973	12629.81	3.8970	3.8971	-0.8795	25.32	0.09	-0.750			
0.2000	12797.58	3.8940	3.8939	-0.8879	25.32	0.09	-0.750			
0.2027	12970.54	3.8910	3.8910	-0.8898	25.32	0.09	-0.750			
0.2054	13144.70	3.8880	3.8879	-0.8875	25.32	0.09	-0.750			
0.2081	13315.53	3.8850	3.8850	-0.8858	25.32	0.09	-0.750			
0.2106	13479.19	3.8820	3.8820	-0.9017	25.32	0.09	-0.750			
0.2133	13652.57	3.8790	3.8789	-0.8906	25.33	0.10	-0.750			
0.2160	13825.79	3.8760	3.8757	-0.8891	25.33	0.10	-0.750			
0.2187	13995.63	3.8730	3.8729	-0.8772	25.33	0.10	-0.750			
0.2214	14168.78	3.8700	3.8702	-0.8864	25.34	0.11	-0.750			
0.2240	14337.38	3.8670	3.8669	-0.8802	25.34	0.11	-0.750			
0.2266	14502.26	3.8640	3.8639	-0.8810	25.34	0.11	-0.750			
0.2292	14671.91	3.8610	3.8609	-0.8770	25.35	0.12	-0.750			
0.2319	14844.16	3.8580	3.8579	-0.8917	25.35	0.12	-0.750			
0.2346	15014.33	3.8550	3.8554	-0.8864	25.35	0.12	-0.750			
0.2373	15185.52	3.8520	3.8521	-0.8954	25.35	0.12	-0.750			
0.2399	15355.92	3.8490	3.8488	-0.8909	25.35	0.12	-0.750			
0.2426	15523.64	3.8460	3.8459	-0.8885	25.35	0.12	-0.750			
0.2453	15697.34	3.8430	3.8429	-0.8972	25.35	0.12	-0.750			
0.2480	15870.76	3.8400	3.8401	-0.8953	25.35	0.12	-0.750			
0.2507	16042.82	3.8370	3.8369	-0.9057	25.35	0.12	-0.750			
0.2534	16219.03	3.8340	3.8340	-0.9033	25.36	0.13	-0.750			
0.2561	16389.86	3.8310	3.8309	-0.8996	25.36	0.13	-0.750			
0.2588	16565.64	3.8280	3.8277	-0.8967	25.36	0.13	-0.750			
0.2615	16737.78	3.8250	3.8249	-0.8940	25.36	0.13	-0.750			
0.2642	16908.65	3.8220	3.8220	-0.8923	25.36	0.13	-0.750			
0.2669	17078.58	3.8190	3.8189	-0.8860	25.37	0.14	-0.750			
0.2695	17248.58	3.8160	3.8159	-0.8891	25.37	0.14	-0.750			
0.2722	17418.89	3.8130	3.8132	-0.8867	25.37	0.14	-0.750			
0.2748	17586.80	3.8100	3.8099	-0.8903	25.37	0.14	-0.750			
0.2775	17759.57	3.8070	3.8070	-0.8871	25.37	0.14	-0.750			
0.2801	17927.43	3.8040	3.8040	-0.8858	25.38	0.15	-0.750			
0.2828	18099.73	3.8010	3.8010	-0.8886	25.38	0.15	-0.750			
0.2855	18269.99	3.7980	3.7977	-0.8883	25.38	0.15	-0.750			
0.2881	18438.71	3.7950	3.7951	-0.8969	25.38	0.15	-0.750			
0.2908	18614.23	3.7920	3.7918	-0.8930	25.38	0.15	-0.750			
0.2935	18785.42	3.7890	3.7889	-0.8910	25.38	0.15	-0.750			
0.2962	18959.51	3.7860	3.7858	-0.8895	25.38	0.15	-0.750			
0.2989	19129.03	3.7830	3.7829	-0.8785	25.38	0.15	-0.750			
0.3015	19297.05	3.7800	3.7799	-0.8764	25.39	0.16	-0.750			
0.3041	19461.42	3.7770	3.7770	-0.8640	25.39	0.16	-0.750			
0.3067	19627.89	3.7740	3.7740	-0.8660	25.40	0.17	-0.750			
0.3093	19793.64	3.7710	3.7712	-0.8653	25.40	0.17	-0.750			
0.3118	19957.19	3.7680	3.7680	-0.8662	25.40	0.17	-0.750			
0.3144	20124.80	3.7650	3.7649	-0.8683	25.40	0.17	-0.750			
0.3171	20291.84	3.7620	3.7620	-0.8634	25.41	0.18	-0.750			
0.3196	20456.86	3.7590	3.7589	-0.8718	25.41	0.18	-0.750			
0.3223	20624.79	3.7560	3.7563	-0.8771	25.41	0.18	-0.750			
0.3249	20794.67	3.7530	3.7529	-0.8820	25.41	0.18	-0.750			
0.3276	20965.43	3.7500	3.7499	-0.8787	25.41	0.18	-0.750			
0.3302	21133.89	3.7470	3.7471	-0.8807	25.42	0.19	-0.750			
0.3329	21304.16	3.7440	3.7440	-0.8852	25.42	0.19	-0.750			
0.3355	21474.18	3.7410	3.7407	-0.8816	25.42	0.19	-0.750			
0.3381	21639.80	3.7380	3.7379	-0.8756	25.42	0.19	-0.750			
0.3407	21807.55	3.7350	3.7351	-0.8820	25.43	0.20	-0.750			
0.3434	21975.00	3.7320	3.7321	-0.8890	25.43	0.20	-0.750			
0.3461	22150.39	3.7290	3.7289	-0.9011	25.43	0.20	-0.750			
0.3488	22322.02	3.7260	3.7260	-0.9086	25.43	0.20	-0.750			
0.3516	22499.93	3.7230	3.7230	-0.9279	25.43	0.20	-0.750			
0.3544	22680.39	3.7200	3.7200	-0.9434	25.43	0.20	-0.750			
0.3572	22863.02	3.7170	3.7169	-0.9539	25.43	0.20	-0.750			
0.3600	23041.86	3.7140	3.7142	-0.9872	25.43	0.20	-0.750			
0.3630	23232.60	3.7110	3.7109	-1.0021	25.43	0.20	-0.750			
0.3661	23430.89	3.7080	3.7079	-1.0166	25.43	0.20	-0.750			
0.3692	23628.23	3.7050	3.7047	-1.0129	25.43	0.20	-0.750			
0.3723	23827.71	3.7020	3.7022	-1.0344	25.43	0.20	-0.750			
0.3754	24026.08	3.6990	3.6988	-1.0449	25.42	0.19	-0.750	0.362	0.480	
0.3785	24225.59	3.6960	3.6957	-1.0567	25.42	0.19	-0.750			
0.3817	24426.38	3.6930	3.6929	-1.0828	25.41	0.18	-0.750			
0.3849	24630.90	3.6900	3.6902	-1.0986	25.41	0.18	-0.750			
0.3883	24854.16	3.6870	3.6869	-1.1493	25.40	0.17	-0.750			
0.3919	25079.74	3.6840	3.6838	-1.1653	25.40	0.17	-0.750			
0.3953	25297.06	3.6810	3.6811	-1.2080	25.39	0.16	-0.750			
0.3990	25537.20	3.6780	3.6778	-1.2168	25.39	0.16	-0.750			
0.4027	25773.09	3.6750	3.6748	-1.2296	25.38	0.15	-0.750			
0.4063	26004.81	3.6720	3.6718	-1.2558	25.37	0.14	-0.750			
0.4101	26245.34	3.6690	3.6690	-1.2749	25.37	0.14	-0.750			
0.4140	26498.76	3.6660	3.6659	-1.3052	25.36	0.13	-0.750			
0.4180	26750.54	3.6630	3.6629	-1.3309	25.36	0.13	-0.750			
0.4220	27010.54	3.6600	3.6603	-1.3792	25.35	0.12	-0.750			
0.4262	27278.15	3.6570	3.6568	-1.4198	25.34	0.11	-0.750			
0.4305	27554.30	3.6540	3.6538	-1.4556	25.33	0.10	-0.750			
0.4350	27839.39	3.6510	3.6510	-1.4749	25.32	0.09	-0.750			
0.4395	28125.95	3.6480	3.6486	-1.5076	25.31	0.08	-0.750			
0.4440	28417.89	3.6450	3.6447	-1.5430	25.30	0.07	-0.750			
0.4486	28712.02	3.6420	3.6417	-1.5701	25.29	0.06	-0.750			
0.4533	29013.21	3.6390	3.6385	-1.6233	25.28	0.05	-0.750			
0.4583	29330.72	3.6360	3.6363	-1.6651	25.27	0.04	-0.750			
0.4633	29652.69	3.6330	3.6330	-1.6740	25.26	0.03	-0.750			
0.4687	29999.50	3.6300	3.6299	-1.7417	25.24	0.01	-0.750			
0.4739	30327.98	3.6270	3.6267	-1.7433	25.23	-0.00	-0.750			
0.4792	30671.88	3.6240	3.6238	-1.7564	25.22	-0.01	-0.750			
0.4845	31010.22	3.6210	3.6214	-1.7726	25.21	-0.02	-0.750			
0.4898	31348.56	3.6180	3.6179	-1.8193	25.20	-0.03	-0.750			
0.4953	31697.08	3.6150	3.6149	-1.8467	25.19	-0.04	-0.750			
0.5010	32061.04	3.6120	3.6118	-1.8836	25.18	-0.05	-0.750			
0.5068	32436.31	3.6090	3.6089	-1.8790	25.17	-0.06	-0.750			
0.5125	32798.05	3.6060	3.6068	-1.8974	25.16	-0.07	-0.750			
0.5182	33162.00	3.6030	3.6023	-1.9452	25.15	-0.08	-0.750			
0.5239	33530.04	3.6000	3.5997	-2.0288	25.14	-0.09	-0.750			
0.5299	33915.98	3.5970	3.5971	-2.1869	25.13	-0.10	-0.750			
0.5369	34359.10	3.5940	3.5942	-2.2629	25.12	-0.11	-0.750			
0.5441	34823.73	3.5910	3.5909	-2.2738	25.11	-0.12	-0.750			
0.5508	35252.94	3.5880	3.5881	-2.2816	25.10	-0.13	-0.750			
0.5573	35668.79	3.5850	3.5849	-2.2544	25.09	-0.14	-0.750			
0.5642	36109.44	3.5820	3.5820	-2.3211	25.09	-0.14	-0.750			
0.5716	36581.11	3.5790	3.5789	-2.4097	25.08	-0.15	-0.750			
0.5790	37057.73	3.5760	3.5762	-2.4757	25.07	-0.16	-0.750			
0.5863	37523.74	3.5730	3.5733	-2.3702	25.07	-0.16	-0.750			
0.5934	37976.33	3.5700	3.5702	-2.3443	25.06	-0.17	-0.750			
0.6001	38406.08	3.5670	3.5666	-2.3045	25.06	-0.17	-0.750			
0.6071	38852.27	3.5640	3.5639	-2.3135	25.06	-0.17	-0.750			
0.6142	39308.21	3.5610	3.5613	-2.4048	25.06	-0.17	-0.750			
0.6212	39757.53	3.5580	3.5580	-2.3365	25.06	-0.17	-0.750			
0.6283	40212.17	3.5550	3.5547	-2.3301	25.05	-0.18	-0.750			
0.6351	40644.91	3.5520	3.5522	-2.3640	25.05	-0.18	-0.750			
0.6423	41106.68	3.5490	3.5493	-2.3143	25.06	-0.17	-0.750			
0.6492	41550.98	3.5460	3.5462	-2.3483	25.06	-0.17	-0.750			
0.6566	42023.00	3.5430	3.5427	-2.3028	25.05	-0.18	-0.750			
0.6633	42448.98	3.5400	3.5397	-2.1816	25.05	-0.18	-0.750			
0.6695	42847.89	3.5370	3.5370	-2.1304	25.06	-0.17	-0.750			
0.6759	43255.95	3.5340	3.5340	-2.0824	25.07	-0.16	-0.750			
0.6822	43660.56	3.5310	3.5311	-2.0679	25.08	-0.15	-0.750			
0.6883	44049.15	3.5280	3.5282	-2.0084	25.09	-0.14	-0.750			
0.6946	44451.62	3.5250	3.5249	-1.9857	25.10	-0.13	-0.750			
0.7006	44837.75	3.5220	3.5217	-1.8919	25.11	-0.12	-0.750			
0.7059	45176.76	3.5190	3.5187	-1.7868	25.11	-0.12	-0.750			
0.7110	45507.09	3.5160	3.5159	-1.7084	25.13	-0.10	-0.750			
0.7160	45822.28	3.5130	3.5130	-1.6778	25.15	-0.08	-0.750			
0.7209	46137.30	3.5100	3.5099	-1.6368	25.17	-0.06	-0.750			
0.7258	46449.36	3.5070	3.5069	-1.6089	25.18	-0.05	-0.750			
0.7307	46766.70	3.5040	3.5037	-1.5863	25.19	-0.04	-0.750			
0.7356	47075.98	3.5010	3.5011	-1.5397	25.21	-0.02	-0.750			
0.7400	47361.17	3.4980	3.4979	-1.4626	25.22	-0.01	-0.750			
0.7444	47641.97	3.4950	3.4947	-1.3538	25.24	0.01	-0.750			
0.7485	47903.81	3.4920	3.4920	-1.4529	25.26	0.03	-0.750			
