Ah_balance (normalized)	Ah_balance (mAh)	Voltage - fit (V)	Voltage -  interpolate (V)	dQ/dV (1/V)	Temperature (°C)	Temperature - diff (°C)	Current (C)	R_DC 0ms (mOhm)	R_DC 50ms (mOhm)	R_DC 50 ms PEC (mOhm)
0.0003	17.58	4.1660	4.1657	-0.1256	24.86	0.02	-0.750			
0.0007	46.40	4.1630	4.1630	-0.1750	24.85	0.01	-0.750			
0.0013	85.75	4.1600	4.1599	-0.2239	24.85	0.01	-0.750			
0.0021	133.15	4.1570	4.1571	-0.2718	24.85	0.01	-0.750			
0.0030	190.44	4.1540	4.1539	-0.3167	24.85	0.01	-0.750			
0.0040	256.60	4.1510	4.1510	-0.3613	24.84	0.00	-0.750			
0.0052	330.66	4.1480	4.1481	-0.4023	24.84	-0.00	-0.750			
0.0064	412.26	4.1450	4.1451	-0.4441	24.84	-0.00	-0.750			
0.0078	501.39	4.1420	4.1419	-0.4830	24.83	-0.01	-0.750			
0.0094	598.54	4.1390	4.1390	-0.5197	24.83	-0.01	-0.750			
0.0110	701.86	4.1360	4.1360	-0.5539	24.82	-0.02	-0.750			
0.0127	814.79	4.1330	4.1330	-0.5777	24.82	-0.02	-0.750			
0.0145	929.10	4.1300	4.1301	-0.6064	24.81	-0.03	-0.750			
0.0164	1047.34	4.1270	4.1270	-0.6289	24.80	-0.04	-0.750			
0.0183	1169.94	4.1240	4.1241	-0.6472	24.80	-0.04	-0.750			
0.0203	1296.62	4.1210	4.1208	-0.6640	24.80	-0.04	-0.750			
0.0223	1425.37	4.1180	4.1181	-0.6840	24.79	-0.05	-0.750			
0.0244	1560.32	4.1150	4.1151	-0.6939	24.79	-0.05	-0.750			
0.0265	1696.90	4.1120	4.1119	-0.7081	24.79	-0.05	-0.750			
0.0286	1832.56	4.1090	4.1090	-0.7139	24.78	-0.06	-0.750			
0.0308	1971.70	4.1060	4.1062	-0.7220	24.78	-0.06	-0.750			
0.0330	2111.46	4.1030	4.1029	-0.7281	24.78	-0.06	-0.750			
0.0352	2251.33	4.1000	4.1001	-0.7349	24.78	-0.06	-0.750			
0.0374	2391.64	4.0970	4.0970	-0.7389	24.78	-0.06	-0.750			
0.0396	2535.64	4.0940	4.0939	-0.7474	24.78	-0.06	-0.750			
0.0419	2679.22	4.0910	4.0910	-0.7499	24.78	-0.06	-0.750			
0.0441	2823.76	4.0880	4.0880	-0.7538	24.78	-0.06	-0.750			
0.0464	2969.67	4.0850	4.0850	-0.7640	24.78	-0.06	-0.750			
0.0487	3116.62	4.0820	4.0820	-0.7683	24.78	-0.06	-0.750			
0.0510	3263.68	4.0790	4.0790	-0.7674	24.78	-0.06	-0.750			
0.0533	3412.73	4.0760	4.0760	-0.7727	24.78	-0.06	-0.750			
0.0557	3561.86	4.0730	4.0732	-0.7755	24.78	-0.06	-0.750			
0.0580	3710.82	4.0700	4.0699	-0.7784	24.78	-0.06	-0.750			
0.0603	3860.28	4.0670	4.0670	-0.7798	24.78	-0.06	-0.750			
0.0626	4009.11	4.0640	4.0640	-0.7781	24.78	-0.06	-0.750			
0.0650	4159.95	4.0610	4.0610	-0.7824	24.78	-0.06	-0.750			
0.0673	4310.31	4.0580	4.0579	-0.7871	24.78	-0.06	-0.750			
0.0697	4461.24	4.0550	4.0550	-0.7850	24.78	-0.06	-0.750			
0.0721	4611.80	4.0520	4.0520	-0.7902	24.78	-0.06	-0.750			
0.0744	4763.20	4.0490	4.0490	-0.7937	24.78	-0.06	-0.750			
0.0768	4916.85	4.0460	4.0459	-0.7959	24.78	-0.06	-0.750			
0.0792	5070.71	4.0430	4.0430	-0.7997	24.78	-0.06	-0.750			
0.0816	5224.36	4.0400	4.0399	-0.7998	24.78	-0.06	-0.750			
0.0840	5376.99	4.0370	4.0370	-0.8040	24.78	-0.06	-0.750			
0.0865	5533.20	4.0340	4.0340	-0.8044	24.78	-0.06	-0.750			
0.0888	5685.64	4.0310	4.0310	-0.8011	24.78	-0.06	-0.750			
0.0913	5840.79	4.0280	4.0280	-0.8030	24.78	-0.06	-0.750			
0.0937	5995.35	4.0250	4.0249	-0.8046	24.78	-0.06	-0.750			
0.0960	6147.10	4.0220	4.0221	-0.8119	24.79	-0.05	-0.750			
0.0985	6305.98	4.0190	4.0189	-0.8118	24.79	-0.05	-0.750			
0.1010	6462.21	4.0160	4.0160	-0.8102	24.79	-0.05	-0.750			
0.1034	6619.47	4.0130	4.0129	-0.8143	24.80	-0.04	-0.750			
0.1059	6776.23	4.0100	4.0102	-0.8119	24.80	-0.04	-0.750			
0.1083	6930.36	4.0070	4.0069	-0.8166	24.80	-0.04	-0.750			
0.1107	7084.97	4.0040	4.0040	-0.8150	24.80	-0.04	-0.750			
0.1131	7240.37	4.0010	4.0010	-0.8133	24.81	-0.03	-0.750			
0.1156	7400.15	3.9980	3.9980	-0.8270	24.81	-0.03	-0.750			
0.1181	7560.64	3.9950	3.9951	-0.8288	24.81	-0.03	-0.750			
0.1206	7719.95	3.9920	3.9920	-0.8265	24.81	-0.03	-0.750			
0.1231	7878.70	3.9890	3.9890	-0.8321	24.81	-0.03	-0.750			
0.1256	8038.01	3.9860	3.9860	-0.8286	24.81	-0.03	-0.750			
0.1281	8198.66	3.9830	3.9829	-0.8306	24.81	-0.03	-0.750			
0.1306	8357.42	3.9800	3.9802	-0.8303	24.81	-0.03	-0.750			
0.1331	8516.33	3.9770	3.9770	-0.8282	24.81	-0.03	-0.750			
0.1356	8677.56	3.9740	3.9739	-0.8353	24.81	-0.03	-0.750			
0.1381	8837.00	3.9710	3.9709	-0.8368	24.82	-0.02	-0.750			
0.1406	8998.85	3.9680	3.9679	-0.8401	24.82	-0.02	-0.750			
0.1431	9160.33	3.9650	3.9652	-0.8426	24.82	-0.02	-0.750			
0.1456	9321.52	3.9620	3.9619	-0.8490	24.82	-0.02	-0.750			
0.1482	9484.80	3.9590	3.9590	-0.8500	24.82	-0.02	-0.750			
0.1507	9645.68	3.9560	3.9560	-0.8470	24.83	-0.01	-0.750			
0.1533	9814.28	3.9530	3.9530	-0.8573	24.83	-0.01	-0.750			
0.1559	9977.10	3.9500	3.9501	-0.8562	24.83	-0.01	-0.750			
0.1585	10141.98	3.9470	3.9470	-0.8587	24.83	-0.01	-0.750			
0.1610	10306.47	3.9440	3.9439	-0.8599	24.83	-0.01	-0.750			
0.1636	10471.13	3.9410	3.9409	-0.8634	24.84	-0.00	-0.750			
0.1662	10638.86	3.9380	3.9380	-0.8681	24.84	-0.00	-0.750			
0.1689	10806.50	3.9350	3.9349	-0.8691	24.84	0.00	-0.750			
0.1715	10974.09	3.9320	3.9320	-0.8733	24.84	0.00	-0.750			
0.1741	11140.71	3.9290	3.9290	-0.8721	24.85	0.01	-0.750			
0.1767	11307.32	3.9260	3.9260	-0.8697	24.85	0.01	-0.750			
0.1793	11476.32	3.9230	3.9230	-0.8755	24.85	0.01	-0.750			
0.1819	11642.62	3.9200	3.9199	-0.8767	24.85	0.01	-0.750			
0.1846	11811.55	3.9170	3.9170	-0.8803	24.85	0.01	-0.750			
0.1872	11980.62	3.9140	3.9139	-0.8804	24.86	0.02	-0.750			
0.1898	12148.67	3.9110	3.9110	-0.8819	24.86	0.02	-0.750			
0.1925	12320.48	3.9080	3.9082	-0.8859	24.86	0.02	-0.750			
0.1952	12490.53	3.9050	3.9050	-0.8900	24.86	0.02	-0.750			
0.1978	12661.92	3.9020	3.9020	-0.8904	24.86	0.02	-0.750			
0.2005	12833.55	3.8990	3.8990	-0.8902	24.87	0.03	-0.750			
0.2032	13004.53	3.8960	3.8959	-0.8923	24.87	0.03	-0.750			
0.2059	13176.35	3.8930	3.8931	-0.8915	24.87	0.03	-0.750			
0.2085	13346.40	3.8900	3.8900	-0.8940	24.87	0.03	-0.750			
0.2112	13519.09	3.8870	3.8870	-0.8932	24.87	0.03	-0.750			
0.2139	13689.92	3.8840	3.8840	-0.8927	24.88	0.04	-0.750			
0.2166	13862.11	3.8810	3.8811	-0.8955	24.88	0.04	-0.750			
0.2193	14034.72	3.8780	3.8780	-0.8967	24.88	0.04	-0.750			
0.2220	14206.27	3.8750	3.8749	-0.8981	24.89	0.05	-0.750			
0.2247	14378.76	3.8720	3.8720	-0.9012	24.89	0.05	-0.750			
0.2274	14550.96	3.8690	3.8690	-0.8962	24.90	0.06	-0.750			
0.2301	14725.90	3.8660	3.8660	-0.9036	24.90	0.06	-0.750			
0.2328	14896.80	3.8630	3.8631	-0.9091	24.90	0.06	-0.750			
0.2355	15072.80	3.8600	3.8599	-0.9082	24.90	0.06	-0.750			
0.2382	15247.81	3.8570	3.8569	-0.9081	24.90	0.06	-0.750			
0.2410	15422.68	3.8540	3.8539	-0.9102	24.90	0.06	-0.750			
0.2437	15597.85	3.8510	3.8511	-0.9092	24.90	0.06	-0.750			
0.2465	15772.82	3.8480	3.8479	-0.9136	24.91	0.07	-0.750			
0.2492	15946.78	3.8450	3.8450	-0.9095	24.91	0.07	-0.750			
0.2519	16121.08	3.8420	3.8420	-0.9024	24.91	0.07	-0.750			
0.2546	16296.69	3.8390	3.8389	-0.9076	24.92	0.08	-0.750			
0.2573	16470.21	3.8360	3.8360	-0.9083	24.92	0.08	-0.750			
0.2601	16643.51	3.8330	3.8330	-0.9084	24.93	0.09	-0.750			
0.2628	16817.60	3.8300	3.8299	-0.9074	24.93	0.09	-0.750			
0.2655	16991.12	3.8270	3.8271	-0.9083	24.94	0.10	-0.750			
0.2683	17168.85	3.8240	3.8240	-0.9043	24.94	0.10	-0.750			
0.2710	17344.33	3.8210	3.8210	-0.8988	24.94	0.10	-0.750			
0.2737	17517.92	3.8180	3.8180	-0.8829	24.94	0.10	-0.750			
0.2763	17684.93	3.8150	3.8148	-0.8705	24.94	0.10	-0.750			
0.2789	17848.70	3.8120	3.8122	-0.8633	24.94	0.10	-0.750			
0.2814	18007.71	3.8090	3.8088	-0.8803	24.94	0.10	-0.750			
0.2840	18175.42	3.8060	3.8058	-0.8803	24.95	0.11	-0.750			
0.2867	18348.52	3.8030	3.8029	-0.8895	24.95	0.11	-0.750			
0.2894	18519.90	3.8000	3.8000	-0.8952	24.95	0.11	-0.750			
0.2922	18699.23	3.7970	3.7971	-0.9144	24.96	0.12	-0.750			
0.2949	18874.17	3.7940	3.7939	-0.9121	24.96	0.12	-0.750			
0.2976	19045.87	3.7910	3.7909	-0.9071	24.96	0.12	-0.750			
0.3003	19218.48	3.7880	3.7880	-0.9039	24.96	0.12	-0.750			
0.3030	19394.15	3.7850	3.7850	-0.9157	24.96	0.12	-0.750			
0.3058	19568.73	3.7820	3.7821	-0.9166	24.96	0.12	-0.750			
0.3085	19744.73	3.7790	3.7787	-0.9243	24.97	0.13	-0.750			
0.3113	19923.49	3.7760	3.7760	-0.9236	24.97	0.13	-0.750			
0.3141	20103.14	3.7730	3.7729	-0.9201	24.97	0.13	-0.750			
0.3169	20280.41	3.7700	3.7702	-0.9225	24.98	0.14	-0.750			
0.3196	20455.82	3.7670	3.7670	-0.9350	24.98	0.14	-0.750			
0.3224	20634.76	3.7640	3.7638	-0.9235	24.98	0.14	-0.750			
0.3252	20812.34	3.7610	3.7609	-0.9194	24.98	0.14	-0.750			
0.3280	20989.21	3.7580	3.7579	-0.9090	24.98	0.14	-0.750			
0.3307	21167.54	3.7550	3.7552	-0.9160	24.98	0.14	-0.750			
0.3335	21341.26	3.7520	3.7519	-0.9137	24.98	0.14	-0.750			
0.3361	21511.44	3.7490	3.7490	-0.9052	24.98	0.14	-0.750			
0.3388	21681.86	3.7460	3.7458	-0.9048	24.98	0.14	-0.750			
0.3416	21861.66	3.7430	3.7431	-0.9294	24.98	0.14	-0.750			
0.3444	22039.04	3.7400	3.7399	-0.9397	24.98	0.14	-0.750			
0.3472	22223.42	3.7370	3.7370	-0.9424	24.99	0.15	-0.750			
0.3501	22405.86	3.7340	3.7339	-0.9399	24.99	0.15	-0.750			
0.3529	22586.18	3.7310	3.7309	-0.9459	25.00	0.16	-0.750			
0.3558	22768.48	3.7280	3.7282	-0.9556	25.00	0.16	-0.750			
0.3587	22953.79	3.7250	3.7248	-0.9716	25.01	0.17	-0.750			
0.3616	23143.36	3.7220	3.7218	-0.9732	25.01	0.17	-0.750			
0.3645	23329.52	3.7190	3.7190	-0.9755	25.02	0.18	-0.750			
0.3675	23521.29	3.7160	3.7168	-0.9951	25.02	0.18	-0.750			
0.3705	23712.05	3.7130	3.7128	-1.0063	25.02	0.18	-0.750			
0.3735	23902.70	3.7100	3.7099	-1.0109	25.02	0.18	-0.750			
0.3765	24096.98	3.7070	3.7069	-1.0237	25.01	0.17	-0.750	0.418	0.511	
0.3797	24298.88	3.7040	3.7042	-1.0580	25.01	0.17	-0.750			
0.3829	24502.47	3.7010	3.7009	-1.0825	25.01	0.17	-0.750			
0.3861	24712.66	3.6980	3.6979	-1.0936	25.01	0.17	-0.750			
0.3895	24924.81	3.6950	3.6949	-1.1072	25.00	0.16	-0.750			
0.3928	25139.06	3.6920	3.6925	-1.1338	25.00	0.16	-0.750			
0.3963	25362.49	3.6890	3.6889	-1.1572	25.00	0.16	-0.750			
0.3998	25585.99	3.6860	3.6858	-1.1695	25.00	0.16	-0.750			
0.4033	25808.39	3.6830	3.6830	-1.1839	25.00	0.16	-0.750			
0.4069	26041.91	3.6800	3.6798	-1.2136	25.00	0.16	-0.750			
0.4105	26274.81	3.6770	3.6769	-1.2343	24.99	0.15	-0.750			
0.4142	26511.20	3.6740	3.6740	-1.2527	24.99	0.15	-0.750			
0.4180	26750.08	3.6710	3.6710	-1.2849	24.98	0.14	-0.750			
0.4220	27007.98	3.6680	3.6679	-1.3193	24.98	0.14	-0.750			
0.4260	27261.20	3.6650	3.6649	-1.3622	24.97	0.13	-0.750			
0.4301	27527.17	3.6620	3.6624	-1.4061	24.97	0.13	-0.750			
0.4345	27806.74	3.6590	3.6587	-1.4248	24.97	0.13	-0.750			
0.4387	28079.94	3.6560	3.6559	-1.4620	24.96	0.12	-0.750			
0.4431	28360.99	3.6530	3.6534	-1.4924	24.96	0.12	-0.750			
0.4477	28655.45	3.6500	3.6497	-1.5267	24.95	0.11	-0.750			
0.4524	28950.58	3.6470	3.6471	-1.5615	24.94	0.10	-0.750			
0.4570	29247.79	3.6440	3.6438	-1.5865	24.93	0.09	-0.750			
0.4619	29560.82	3.6410	3.6411	-1.6604	24.92	0.08	-0.750			
0.4670	29885.17	3.6380	3.6381	-1.6910	24.91	0.07	-0.750			
0.4721	30213.66	3.6350	3.6350	-1.7223	24.90	0.06	-0.750			
0.4773	30547.34	3.6320	3.6319	-1.7523	24.89	0.05	-0.750			
0.4825	30883.02	3.6290	3.6287	-1.7954	24.88	0.04	-0.750			
0.4880	31231.79	3.6260	3.6259	-1.8168	24.87	0.03	-0.750			
0.4934	31576.03	3.6230	3.6230	-1.8767	24.86	0.02	-0.750			
0.4990	31939.18	3.6200	3.6199	-1.9413	24.85	0.01	-0.750			
0.5049	32315.84	3.6170	3.6171	-1.9572	24.84	0.00	-0.750			
0.5110	32703.75	3.6140	3.6141	-1.9675	24.84	-0.00	-0.750			
0.5169	33084.49	3.6110	3.6108	-2.0196	24.83	-0.01	-0.750			
0.5230	33474.82	3.6080	3.6079	-2.0695	24.83	-0.01	-0.750			
0.5292	33871.49	3.6050	3.6046	-2.0890	24.82	-0.02	-0.750			
0.5357	34284.07	3.6020	3.6023	-2.1692	24.81	-0.03	-0.750			
0.5421	34693.59	3.5990	3.5990	-2.1796	24.80	-0.04	-0.750			
0.5489	35131.15	3.5960	3.5956	-2.2162	24.79	-0.05	-0.750			
0.5554	35544.02	3.5930	3.5932	-2.2360	24.78	-0.06	-0.750			
0.5621	35975.10	3.5900	3.5902	-2.2587	24.77	-0.07	-0.750			
0.5690	36418.50	3.5870	3.5869	-2.3010	24.77	-0.07	-0.750			
0.5759	36858.79	3.5840	3.5839	-2.3203	24.76	-0.08	-0.750			
0.5830	37311.51	3.5810	3.5812	-2.3356	24.76	-0.08	-0.750			
0.5901	37766.43	3.5780	3.5782	-2.4044	24.75	-0.09	-0.750			
0.5973	38227.98	3.5750	3.5749	-2.3888	24.75	-0.09	-0.750			
0.6045	38690.31	3.5720	3.5716	-2.4068	24.75	-0.09	-0.750			
0.6119	39158.42	3.5690	3.5692	-2.4083	24.74	-0.10	-0.750			
0.6192	39627.17	3.5660	3.5662	-2.4271	24.74	-0.10	-0.750			
0.6265	40098.17	3.5630	3.5631	-2.4343	24.74	-0.10	-0.750			
0.6338	40565.44	3.5600	3.5597	-2.4312	24.74	-0.10	-0.750			
0.6411	41027.99	3.5570	3.5570	-2.4045	24.74	-0.10	-0.750			
0.6481	41479.28	3.5540	3.5541	-2.3435	24.74	-0.10	-0.750			
0.6552	41930.43	3.5510	3.5512	-2.3568	24.74	-0.10	-0.750			
0.6621	42377.16	3.5480	3.5477	-2.3031	24.75	-0.09	-0.750			
0.6690	42817.74	3.5450	3.5450	-2.2991	24.75	-0.09	-0.750			
0.6759	43256.93	3.5420	3.5422	-2.2265	24.76	-0.08	-0.750			
0.6825	43681.33	3.5390	3.5390	-2.1847	24.76	-0.08	-0.750			
0.6891	44100.56	3.5360	3.5357	-2.1435	24.77	-0.07	-0.750			
0.6954	44508.30	3.5330	3.5327	-2.0888	24.77	-0.07	-0.750			
0.7017	44908.23	3.5300	3.5303	-2.0561	24.78	-0.06	-0.750			
0.7077	45294.42	3.5270	3.5268	-2.0011	24.79	-0.05	-0.750			
0.7138	45681.43	3.5240	3.5236	-1.9373	24.80	-0.04	-0.750			
0.7195	46048.71	3.5210	3.5210	-1.8739	24.81	-0.03	-0.750			
0.7251	46407.57	3.5180	3.5181	-1.8389	24.83	-0.01	-0.750			
0.7306	46756.17	3.5150	3.5150	-1.7654	24.84	0.00	-0.750			
0.7358	47088.08	3.5120	3.5121	-1.6828	24.85	0.01	-0.750			
0.7407	47402.92	3.5090	3.5090	-1.6157	24.86	0.02	-0.750			
0.7455	47712.50	3.5060	3.5059	-1.5184	24.86	0.02	-0.750			
0.7498	47989.68	3.5030	3.5030	-1.3044	24.87	0.03	-0.750			
