Ah_balance (normalized)	Ah_balance (mAh)	Voltage - fit (V)	Voltage -  interpolate (V)	dQ/dV (1/V)	Temperature (°C)	Temperature - diff (°C)	Current (C)	R_DC 0ms (mOhm)	R_DC 50ms (mOhm)	R_DC 50 ms PEC (mOhm)
0.0003	21.09	4.1620	4.1621	-0.1196	25.25	0.01	-0.750			
0.0008	53.62	4.1590	4.1587	-0.1789	25.25	0.01	-0.750			
0.0015	92.89	4.1560	4.1559	-0.2212	25.24	0.00	-0.750			
0.0022	139.47	4.1530	4.1533	-0.2615	25.24	0.00	-0.750			
0.0030	194.04	4.1500	4.1499	-0.2979	25.24	-0.00	-0.750			
0.0040	255.47	4.1470	4.1471	-0.3406	25.23	-0.01	-0.750			
0.0051	323.92	4.1440	4.1440	-0.3780	25.23	-0.01	-0.750			
0.0062	399.65	4.1410	4.1409	-0.4155	25.23	-0.01	-0.750			
0.0076	484.38	4.1380	4.1380	-0.4550	25.22	-0.02	-0.750			
0.0090	574.57	4.1350	4.1351	-0.4945	25.22	-0.02	-0.750			
0.0106	676.15	4.1320	4.1319	-0.5220	25.21	-0.03	-0.750			
0.0122	780.62	4.1290	4.1289	-0.5430	25.21	-0.03	-0.750			
0.0139	887.16	4.1260	4.1258	-0.5630	25.20	-0.04	-0.750			
0.0156	997.04	4.1230	4.1229	-0.5847	25.20	-0.04	-0.750			
0.0174	1110.82	4.1200	4.1198	-0.6021	25.19	-0.05	-0.750			
0.0192	1227.91	4.1170	4.1170	-0.6134	25.19	-0.05	-0.750			
0.0211	1347.54	4.1140	4.1140	-0.6353	25.19	-0.05	-0.750			
0.0231	1476.29	4.1110	4.1111	-0.6555	25.18	-0.06	-0.750			
0.0251	1603.90	4.1080	4.1079	-0.6630	25.18	-0.06	-0.750			
0.0271	1731.61	4.1050	4.1050	-0.6717	25.17	-0.07	-0.750			
0.0291	1861.60	4.1020	4.1019	-0.6766	25.17	-0.07	-0.750			
0.0311	1991.28	4.0990	4.0990	-0.6834	25.16	-0.08	-0.750			
0.0332	2122.36	4.0960	4.0960	-0.6968	25.16	-0.08	-0.750			
0.0353	2256.57	4.0930	4.0930	-0.7007	25.16	-0.08	-0.750			
0.0374	2395.46	4.0900	4.0899	-0.7150	25.15	-0.09	-0.750			
0.0396	2533.48	4.0870	4.0870	-0.7171	25.15	-0.09	-0.750			
0.0418	2672.83	4.0840	4.0839	-0.7182	25.15	-0.09	-0.750			
0.0439	2809.24	4.0810	4.0810	-0.7301	25.15	-0.09	-0.750			
0.0461	2949.66	4.0780	4.0780	-0.7257	25.15	-0.09	-0.750			
0.0483	3090.43	4.0750	4.0749	-0.7345	25.15	-0.09	-0.750			
0.0505	3231.66	4.0720	4.0719	-0.7339	25.15	-0.09	-0.750			
0.0527	3373.67	4.0690	4.0687	-0.7331	25.15	-0.09	-0.750			
0.0549	3513.91	4.0660	4.0659	-0.7375	25.15	-0.09	-0.750			
0.0571	3654.63	4.0630	4.0630	-0.7404	25.15	-0.09	-0.750			
0.0593	3795.69	4.0600	4.0599	-0.7381	25.14	-0.10	-0.750			
0.0615	3936.13	4.0570	4.0570	-0.7426	25.14	-0.10	-0.750			
0.0638	4082.08	4.0540	4.0541	-0.7489	25.14	-0.10	-0.750			
0.0660	4227.01	4.0510	4.0510	-0.7534	25.14	-0.10	-0.750			
0.0683	4371.31	4.0480	4.0480	-0.7612	25.14	-0.10	-0.750			
0.0706	4517.94	4.0450	4.0450	-0.7596	25.14	-0.10	-0.750			
0.0729	4664.26	4.0420	4.0420	-0.7599	25.14	-0.10	-0.750			
0.0752	4811.29	4.0390	4.0389	-0.7628	25.14	-0.10	-0.750			
0.0775	4957.22	4.0360	4.0368	-0.7612	25.14	-0.10	-0.750			
0.0797	5103.34	4.0330	4.0329	-0.7624	25.14	-0.10	-0.750			
0.0820	5249.71	4.0300	4.0300	-0.7716	25.14	-0.10	-0.750			
0.0844	5399.51	4.0270	4.0268	-0.7723	25.14	-0.10	-0.750			
0.0867	5550.91	4.0240	4.0239	-0.7757	25.14	-0.10	-0.750			
0.0890	5698.40	4.0210	4.0210	-0.7766	25.14	-0.10	-0.750			
0.0914	5848.37	4.0180	4.0178	-0.7740	25.14	-0.10	-0.750			
0.0937	5996.77	4.0150	4.0148	-0.7716	25.14	-0.10	-0.750			
0.0960	6143.00	4.0120	4.0119	-0.7743	25.14	-0.10	-0.750			
0.0983	6289.66	4.0090	4.0091	-0.7741	25.14	-0.10	-0.750			
0.1007	6444.22	4.0060	4.0059	-0.7871	25.14	-0.10	-0.750			
0.1031	6596.60	4.0030	4.0031	-0.7847	25.14	-0.10	-0.750			
0.1054	6743.55	4.0000	3.9999	-0.7830	25.14	-0.10	-0.750			
0.1077	6894.78	3.9970	3.9971	-0.7881	25.14	-0.10	-0.750			
0.1101	7044.20	3.9940	3.9940	-0.7847	25.15	-0.09	-0.750			
0.1125	7199.43	3.9910	3.9906	-0.7908	25.15	-0.09	-0.750			
0.1149	7351.54	3.9880	3.9885	-0.7905	25.15	-0.09	-0.750			
0.1172	7503.07	3.9850	3.9849	-0.7934	25.15	-0.09	-0.750			
0.1196	7656.67	3.9820	3.9820	-0.8039	25.16	-0.08	-0.750			
0.1221	7811.24	3.9790	3.9789	-0.7991	25.16	-0.08	-0.750			
0.1244	7962.71	3.9760	3.9759	-0.7959	25.17	-0.07	-0.750			
0.1269	8118.97	3.9730	3.9728	-0.7996	25.17	-0.07	-0.750			
0.1293	8272.84	3.9700	3.9699	-0.7994	25.17	-0.07	-0.750			
0.1316	8423.94	3.9670	3.9669	-0.8023	25.17	-0.07	-0.750			
0.1340	8575.10	3.9640	3.9639	-0.8007	25.16	-0.08	-0.750			
0.1364	8732.67	3.9610	3.9609	-0.8137	25.16	-0.08	-0.750			
0.1389	8889.33	3.9580	3.9577	-0.8118	25.16	-0.08	-0.750			
0.1413	9046.38	3.9550	3.9549	-0.8138	25.16	-0.08	-0.750			
0.1438	9201.59	3.9520	3.9520	-0.8223	25.16	-0.08	-0.750			
0.1462	9357.50	3.9490	3.9489	-0.8209	25.17	-0.07	-0.750			
0.1487	9517.60	3.9460	3.9459	-0.8301	25.17	-0.07	-0.750			
0.1512	9677.10	3.9430	3.9430	-0.8266	25.17	-0.07	-0.750			
0.1537	9837.51	3.9400	3.9399	-0.8316	25.17	-0.07	-0.750			
0.1562	9997.55	3.9370	3.9369	-0.8448	25.17	-0.07	-0.750			
0.1587	10159.98	3.9340	3.9339	-0.8400	25.17	-0.07	-0.750			
0.1613	10322.32	3.9310	3.9309	-0.8289	25.17	-0.07	-0.750			
0.1638	10485.68	3.9280	3.9281	-0.8313	25.17	-0.07	-0.750			
0.1663	10642.50	3.9250	3.9248	-0.8274	25.17	-0.07	-0.750			
0.1687	10798.75	3.9220	3.9219	-0.8227	25.17	-0.07	-0.750			
0.1711	10952.47	3.9190	3.9189	-0.8205	25.17	-0.07	-0.750			
0.1735	11104.17	3.9160	3.9160	-0.8252	25.18	-0.06	-0.750			
0.1761	11273.53	3.9130	3.9130	-0.8409	25.18	-0.06	-0.750			
0.1787	11436.30	3.9100	3.9100	-0.8433	25.18	-0.06	-0.750			
0.1812	11599.78	3.9070	3.9070	-0.8529	25.18	-0.06	-0.750			
0.1838	11764.98	3.9040	3.9041	-0.8535	25.18	-0.06	-0.750			
0.1864	11928.49	3.9010	3.9008	-0.8542	25.18	-0.06	-0.750			
0.1890	12093.17	3.8980	3.8979	-0.8513	25.18	-0.06	-0.750			
0.1914	12250.35	3.8950	3.8949	-0.8611	25.18	-0.06	-0.750			
0.1940	12418.38	3.8920	3.8920	-0.8596	25.19	-0.05	-0.750			
0.1966	12585.00	3.8890	3.8889	-0.8520	25.19	-0.05	-0.750			
0.1992	12747.22	3.8860	3.8856	-0.8432	25.19	-0.05	-0.750			
0.2018	12912.65	3.8830	3.8834	-0.8518	25.20	-0.04	-0.750			
0.2043	13075.32	3.8800	3.8799	-0.8480	25.20	-0.04	-0.750			
0.2068	13237.66	3.8770	3.8769	-0.8454	25.20	-0.04	-0.750			
0.2093	13396.81	3.8740	3.8740	-0.8462	25.20	-0.04	-0.750			
0.2119	13560.83	3.8710	3.8711	-0.8520	25.20	-0.04	-0.750			
0.2144	13724.37	3.8680	3.8679	-0.8534	25.20	-0.04	-0.750			
0.2170	13884.98	3.8650	3.8650	-0.8625	25.20	-0.04	-0.750			
0.2196	14051.93	3.8620	3.8620	-0.8596	25.20	-0.04	-0.750			
0.2222	14219.80	3.8590	3.8588	-0.8595	25.20	-0.04	-0.750			
0.2248	14385.38	3.8560	3.8559	-0.8578	25.20	-0.04	-0.750			
0.2273	14549.94	3.8530	3.8540	-0.8513	25.20	-0.04	-0.750			
0.2299	14713.81	3.8500	3.8501	-0.8506	25.20	-0.04	-0.750			
0.2324	14875.91	3.8470	3.8469	-0.8525	25.21	-0.03	-0.750			
0.2350	15040.55	3.8440	3.8438	-0.8432	25.21	-0.03	-0.750			
0.2376	15204.05	3.8410	3.8409	-0.8472	25.22	-0.02	-0.750			
0.2401	15367.48	3.8380	3.8382	-0.8404	25.22	-0.02	-0.750			
0.2426	15523.66	3.8350	3.8349	-0.8395	25.22	-0.02	-0.750			
0.2451	15684.52	3.8320	3.8319	-0.8425	25.22	-0.02	-0.750			
0.2475	15842.91	3.8290	3.8290	-0.8330	25.22	-0.02	-0.750			
0.2500	16002.70	3.8260	3.8261	-0.8345	25.22	-0.02	-0.750			
0.2527	16171.65	3.8230	3.8231	-0.8410	25.22	-0.02	-0.750			
0.2552	16331.49	3.8200	3.8199	-0.8291	25.22	-0.02	-0.750			
0.2577	16493.37	3.8170	3.8170	-0.8355	25.23	-0.01	-0.750			
0.2602	16652.05	3.8140	3.8138	-0.8235	25.23	-0.01	-0.750			
0.2627	16811.32	3.8110	3.8108	-0.8178	25.24	-0.00	-0.750			
0.2651	16967.77	3.8080	3.8087	-0.8133	25.24	0.00	-0.750			
0.2675	17117.35	3.8050	3.8049	-0.8203	25.24	0.00	-0.750			
0.2699	17276.32	3.8020	3.8018	-0.8092	25.24	0.00	-0.750			
0.2723	17427.50	3.7990	3.7989	-0.7933	25.25	0.01	-0.750			
0.2748	17588.45	3.7960	3.7959	-0.8041	25.25	0.01	-0.750			
0.2772	17743.97	3.7930	3.7936	-0.7972	25.25	0.01	-0.750			
0.2796	17896.48	3.7900	3.7896	-0.7814	25.25	0.01	-0.750			
0.2818	18036.04	3.7870	3.7870	-0.7954	25.25	0.01	-0.750			
0.2842	18189.02	3.7840	3.7840	-0.8141	25.26	0.02	-0.750			
0.2867	18350.05	3.7810	3.7806	-0.8333	25.26	0.02	-0.750			
0.2893	18514.97	3.7780	3.7778	-0.8268	25.26	0.02	-0.750			
0.2919	18680.89	3.7750	3.7753	-0.8390	25.26	0.02	-0.750			
0.2944	18842.36	3.7720	3.7721	-0.8395	25.26	0.02	-0.750			
0.2969	19004.06	3.7690	3.7687	-0.8222	25.27	0.03	-0.750			
0.2993	19156.22	3.7660	3.7658	-0.7992	25.27	0.03	-0.750			
0.3017	19309.18	3.7630	3.7633	-0.7963	25.27	0.03	-0.750			
0.3041	19464.07	3.7600	3.7600	-0.7932	25.27	0.03	-0.750			
0.3065	19614.07	3.7570	3.7569	-0.7968	25.27	0.03	-0.750			
0.3088	19762.72	3.7540	3.7539	-0.8007	25.28	0.04	-0.750			
0.3111	19912.66	3.7510	3.7509	-0.8002	25.28	0.04	-0.750			
0.3136	20072.22	3.7480	3.7477	-0.8194	25.28	0.04	-0.750			
0.3161	20229.47	3.7450	3.7452	-0.8310	25.28	0.04	-0.750			
0.3186	20390.76	3.7420	3.7419	-0.8434	25.28	0.04	-0.750			
0.3212	20555.03	3.7390	3.7390	-0.8541	25.28	0.04	-0.750			
0.3237	20717.33	3.7360	3.7360	-0.8535	25.28	0.04	-0.750			
0.3263	20885.23	3.7330	3.7331	-0.8702	25.28	0.04	-0.750			
0.3290	21053.79	3.7300	3.7299	-0.8778	25.28	0.04	-0.750			
0.3316	21220.88	3.7270	3.7269	-0.8963	25.28	0.04	-0.750			
0.3343	21393.93	3.7240	3.7239	-0.9023	25.28	0.04	-0.750			
0.3370	21567.77	3.7210	3.7209	-0.9133	25.28	0.04	-0.750			
0.3398	21745.20	3.7180	3.7185	-0.9369	25.28	0.04	-0.750			
0.3426	21927.09	3.7150	3.7148	-0.9669	25.28	0.04	-0.750			
0.3456	22116.26	3.7120	3.7119	-0.9778	25.28	0.04	-0.750			
0.3485	22306.66	3.7090	3.7088	-0.9919	25.27	0.03	-0.750			
0.3516	22502.72	3.7060	3.7061	-1.0106	25.27	0.03	-0.750			
0.3547	22698.01	3.7030	3.7028	-1.0237	25.26	0.02	-0.750			
0.3577	22892.57	3.7000	3.6999	-1.0275	25.26	0.02	-0.750	0.372	0.498	
0.3607	23086.13	3.6970	3.6968	-1.0380	25.25	0.01	-0.750			
0.3638	23282.18	3.6940	3.6940	-1.0573	25.24	0.00	-0.750			
0.3671	23494.77	3.6910	3.6908	-1.0960	25.24	-0.00	-0.750			
0.3704	23705.97	3.6880	3.6879	-1.1090	25.23	-0.01	-0.750			
0.3739	23926.61	3.6850	3.6850	-1.1315	25.23	-0.01	-0.750			
0.3772	24144.00	3.6820	3.6826	-1.1614	25.22	-0.02	-0.750			
0.3808	24374.11	3.6790	3.6787	-1.1798	25.21	-0.03	-0.750			
0.3844	24602.29	3.6760	3.6759	-1.1910	25.21	-0.03	-0.750			
0.3879	24828.32	3.6730	3.6729	-1.2017	25.20	-0.04	-0.750			
0.3917	25067.57	3.6700	3.6698	-1.2403	25.20	-0.04	-0.750			
0.3954	25304.12	3.6670	3.6668	-1.2497	25.19	-0.05	-0.750			
0.3991	25541.12	3.6640	3.6639	-1.2643	25.19	-0.05	-0.750			
0.4028	25781.81	3.6610	3.6613	-1.2925	25.18	-0.06	-0.750			
0.4070	26045.59	3.6580	3.6578	-1.3292	25.17	-0.07	-0.750			
0.4108	26293.94	3.6550	3.6550	-1.3811	25.15	-0.09	-0.750			
0.4151	26568.14	3.6520	3.6524	-1.3923	25.14	-0.10	-0.750			
0.4195	26845.27	3.6490	3.6487	-1.4179	25.14	-0.10	-0.750			
0.4237	27119.88	3.6460	3.6459	-1.4188	25.13	-0.11	-0.750			
0.4279	27387.34	3.6430	3.6435	-1.4628	25.13	-0.11	-0.750			
0.4325	27677.66	3.6400	3.6397	-1.4848	25.12	-0.12	-0.750			
0.4369	27962.73	3.6370	3.6366	-1.4997	25.11	-0.13	-0.750			
0.4413	28246.20	3.6340	3.6340	-1.5146	25.11	-0.13	-0.750			
0.4460	28545.94	3.6310	3.6313	-1.5806	25.10	-0.14	-0.750			
0.4509	28855.37	3.6280	3.6279	-1.5925	25.08	-0.16	-0.750			
0.4556	29157.55	3.6250	3.6248	-1.6094	25.07	-0.17	-0.750			
0.4606	29478.71	3.6220	3.6218	-1.6360	25.07	-0.17	-0.750			
0.4657	29803.14	3.6190	3.6191	-1.6791	25.06	-0.18	-0.750			
0.4706	30116.75	3.6160	3.6163	-1.7238	25.06	-0.18	-0.750			
0.4758	30450.24	3.6130	3.6132	-1.7632	25.05	-0.19	-0.750			
0.4810	30786.75	3.6100	3.6099	-1.8116	25.05	-0.19	-0.750			
0.4866	31145.37	3.6070	3.6070	-1.8368	25.04	-0.20	-0.750			
0.4924	31513.79	3.6040	3.6036	-1.8762	25.04	-0.20	-0.750			
0.4982	31885.73	3.6010	3.6007	-1.9081	25.03	-0.21	-0.750			
0.5040	32253.87	3.5980	3.5977	-1.9205	25.02	-0.22	-0.750			
0.5097	32620.60	3.5950	3.5948	-1.9467	25.01	-0.23	-0.750			
0.5154	32984.74	3.5920	3.5921	-1.9992	25.01	-0.23	-0.750			
0.5214	33367.90	3.5890	3.5892	-2.0517	25.00	-0.24	-0.750			
0.5278	33779.68	3.5860	3.5861	-2.0939	25.00	-0.24	-0.750			
0.5343	34197.72	3.5830	3.5832	-2.1261	24.99	-0.25	-0.750			
0.5407	34605.81	3.5800	3.5801	-2.1688	24.98	-0.26	-0.750			
0.5474	35031.43	3.5770	3.5773	-2.1605	24.98	-0.26	-0.750			
0.5537	35434.08	3.5740	3.5740	-2.1605	24.98	-0.26	-0.750			
0.5605	35871.98	3.5710	3.5703	-2.2146	24.98	-0.26	-0.750			
0.5670	36286.64	3.5680	3.5677	-2.2130	24.98	-0.26	-0.750			
0.5737	36717.25	3.5650	3.5655	-2.2327	24.98	-0.26	-0.750			
0.5807	37162.97	3.5620	3.5618	-2.2516	24.98	-0.26	-0.750			
0.5874	37591.12	3.5590	3.5590	-2.2386	24.98	-0.26	-0.750			
0.5939	38011.47	3.5560	3.5562	-2.1891	24.98	-0.26	-0.750			
0.6008	38450.88	3.5530	3.5529	-2.1509	24.98	-0.26	-0.750			
0.6070	38847.46	3.5500	3.5501	-2.1335	24.98	-0.26	-0.750			
0.6135	39261.44	3.5470	3.5470	-2.1103	24.98	-0.26	-0.750			
0.6197	39663.74	3.5440	3.5442	-2.0967	24.98	-0.26	-0.750			
0.6260	40066.86	3.5410	3.5412	-2.0532	24.99	-0.25	-0.750			
0.6322	40459.96	3.5380	3.5379	-2.0401	25.00	-0.24	-0.750			
0.6384	40856.54	3.5350	3.5352	-1.9691	25.01	-0.23	-0.750			
0.6443	41236.06	3.5320	3.5320	-1.9456	25.01	-0.23	-0.750			
0.6501	41604.89	3.5290	3.5291	-1.8910	25.02	-0.22	-0.750			
0.6558	41969.50	3.5260	3.5258	-1.8308	25.03	-0.21	-0.750			
0.6611	42309.33	3.5230	3.5228	-1.8078	25.04	-0.20	-0.750			
0.6664	42646.77	3.5200	3.5199	-1.7670	25.05	-0.19	-0.750			
0.6715	42978.74	3.5170	3.5169	-1.7374	25.07	-0.17	-0.750			
0.6770	43328.93	3.5140	3.5142	-1.6572	25.09	-0.15	-0.750			
0.6821	43652.64	3.5110	3.5111	-1.5841	25.11	-0.13	-0.750			
0.6866	43944.70	3.5080	3.5081	-1.5160	25.12	-0.12	-0.750			
0.6909	44218.64	3.5050	3.5045	-1.4336	25.13	-0.11	-0.750			
0.6948	44467.28	3.5020	3.5016	-1.3835	25.15	-0.09	-0.750			
0.6988	44722.14	3.4990	3.4989	-1.3698	25.16	-0.08	-0.750			
0.7029	44983.24	3.4960	3.4963	-1.3940	25.17	-0.07	-0.750			
0.7073	45268.33	3.4930	3.4929	-1.4194	25.19	-0.05	-0.750			
0.7116	45541.74	3.4900	3.4899	-1.3905	25.21	-0.03	-0.750			
0.7157	45806.07	3.4870	3.4872	-1.3705	25.22	-0.02	-0.750			
