Ah_balance (normalized)	Ah_balance (mAh)	Voltage - fit (V)	Voltage -  interpolate (V)	dQ/dV (1/V)	Temperature (°C)	Temperature - diff (°C)	Current (C)	R_DC 0ms (mOhm)	R_DC 50ms (mOhm)	R_DC 50 ms PEC (mOhm)
0.0004	23.35	4.1620	4.1619	-0.1260	25.12	0.01	-0.750			
0.0009	56.09	4.1590	4.1586	-0.1691	25.11	0.00	-0.750			
0.0014	89.11	4.1560	4.1560	-0.1949	25.11	0.00	-0.750			
0.0020	124.94	4.1530	4.1537	-0.2369	25.11	0.00	-0.750			
0.0027	171.95	4.1500	4.1501	-0.2943	25.11	-0.00	-0.750			
0.0036	230.73	4.1470	4.1466	-0.3407	25.11	-0.00	-0.750			
0.0047	302.49	4.1440	4.1437	-0.3819	25.10	-0.01	-0.750			
0.0060	383.73	4.1410	4.1413	-0.4297	25.10	-0.01	-0.750			
0.0074	475.95	4.1380	4.1382	-0.4701	25.09	-0.02	-0.750			
0.0089	569.17	4.1350	4.1349	-0.4943	25.09	-0.02	-0.750			
0.0104	663.77	4.1320	4.1320	-0.5095	25.08	-0.03	-0.750			
0.0119	764.23	4.1290	4.1290	-0.5313	25.08	-0.03	-0.750			
0.0136	870.02	4.1260	4.1259	-0.5531	25.07	-0.04	-0.750			
0.0153	978.42	4.1230	4.1231	-0.5731	25.07	-0.04	-0.750			
0.0170	1089.86	4.1200	4.1201	-0.5922	25.06	-0.05	-0.750			
0.0188	1205.37	4.1170	4.1169	-0.6095	25.06	-0.05	-0.750			
0.0207	1323.46	4.1140	4.1140	-0.6300	25.06	-0.05	-0.750			
0.0226	1447.31	4.1110	4.1110	-0.6419	25.05	-0.06	-0.750			
0.0246	1572.99	4.1080	4.1080	-0.6516	25.05	-0.06	-0.750			
0.0266	1701.30	4.1050	4.1050	-0.6631	25.04	-0.07	-0.750			
0.0286	1829.22	4.1020	4.1020	-0.6645	25.04	-0.07	-0.750			
0.0306	1956.47	4.0990	4.0989	-0.6732	25.04	-0.07	-0.750			
0.0326	2085.09	4.0960	4.0962	-0.6870	25.04	-0.07	-0.750			
0.0347	2220.98	4.0930	4.0928	-0.6788	25.03	-0.08	-0.750			
0.0368	2355.15	4.0900	4.0899	-0.6708	25.03	-0.08	-0.750			
0.0388	2482.81	4.0870	4.0871	-0.6797	25.03	-0.08	-0.750			
0.0408	2610.56	4.0840	4.0843	-0.6881	25.03	-0.08	-0.750			
0.0428	2738.93	4.0810	4.0799	-0.7075	25.03	-0.08	-0.750			
0.0449	2876.78	4.0780	4.0775	-0.7152	25.03	-0.08	-0.750			
0.0471	3015.84	4.0750	4.0752	-0.7276	25.03	-0.08	-0.750			
0.0494	3161.42	4.0720	4.0722	-0.7481	25.03	-0.08	-0.750			
0.0518	3312.81	4.0690	4.0691	-0.7512	25.03	-0.08	-0.750			
0.0540	3457.60	4.0660	4.0658	-0.7429	25.03	-0.08	-0.750			
0.0562	3593.82	4.0630	4.0630	-0.7322	25.03	-0.08	-0.750			
0.0583	3733.91	4.0600	4.0601	-0.7344	25.03	-0.08	-0.750			
0.0606	3875.58	4.0570	4.0569	-0.7385	25.02	-0.09	-0.750			
0.0628	4017.52	4.0540	4.0539	-0.7374	25.02	-0.09	-0.750			
0.0650	4157.66	4.0510	4.0513	-0.7391	25.02	-0.09	-0.750			
0.0672	4300.64	4.0480	4.0479	-0.7453	25.02	-0.09	-0.750			
0.0694	4443.19	4.0450	4.0451	-0.7539	25.02	-0.09	-0.750			
0.0717	4588.83	4.0420	4.0420	-0.7608	25.02	-0.09	-0.750			
0.0741	4744.66	4.0390	4.0387	-0.7488	25.02	-0.09	-0.750			
0.0764	4888.48	4.0360	4.0359	-0.7256	25.02	-0.09	-0.750			
0.0785	5024.24	4.0330	4.0332	-0.7266	25.02	-0.09	-0.750			
0.0806	5155.85	4.0300	4.0304	-0.7437	25.02	-0.09	-0.750			
0.0827	5294.38	4.0270	4.0262	-0.7528	25.02	-0.09	-0.750			
0.0851	5443.46	4.0240	4.0238	-0.7616	25.02	-0.09	-0.750			
0.0875	5597.62	4.0210	4.0213	-0.7807	25.02	-0.09	-0.750			
0.0899	5753.14	4.0180	4.0184	-0.7928	25.02	-0.09	-0.750			
0.0923	5908.29	4.0150	4.0147	-0.7864	25.02	-0.09	-0.750			
0.0945	6050.48	4.0120	4.0120	-0.7693	25.03	-0.08	-0.750			
0.0968	6196.64	4.0090	4.0090	-0.7724	25.03	-0.08	-0.750			
0.0992	6347.64	4.0060	4.0060	-0.7815	25.03	-0.08	-0.750			
0.1015	6498.63	4.0030	4.0028	-0.7810	25.04	-0.07	-0.750			
0.1039	6648.56	4.0000	3.9999	-0.7852	25.04	-0.07	-0.750			
0.1062	6797.13	3.9970	3.9970	-0.7881	25.04	-0.07	-0.750			
0.1086	6950.43	3.9940	3.9940	-0.7865	25.04	-0.07	-0.750			
0.1109	7100.76	3.9910	3.9910	-0.7885	25.04	-0.07	-0.750			
0.1134	7258.01	3.9880	3.9879	-0.7775	25.04	-0.07	-0.750			
0.1158	7408.95	3.9850	3.9851	-0.7560	25.04	-0.07	-0.750			
0.1180	7551.70	3.9820	3.9819	-0.7438	25.04	-0.07	-0.750			
0.1201	7689.43	3.9790	3.9794	-0.7365	25.05	-0.06	-0.750			
0.1222	7823.93	3.9760	3.9756	-0.7320	25.05	-0.06	-0.750			
0.1244	7964.26	3.9730	3.9727	-0.7453	25.06	-0.05	-0.750			
0.1267	8106.19	3.9700	3.9702	-0.7508	25.06	-0.05	-0.750			
0.1290	8254.39	3.9670	3.9669	-0.7738	25.06	-0.05	-0.750			
0.1314	8409.11	3.9640	3.9639	-0.7951	25.06	-0.05	-0.750			
0.1338	8561.55	3.9610	3.9610	-0.7938	25.06	-0.05	-0.750			
0.1361	8710.81	3.9580	3.9580	-0.7995	25.06	-0.05	-0.750			
0.1386	8870.89	3.9550	3.9550	-0.8057	25.06	-0.05	-0.750			
0.1410	9026.97	3.9520	3.9519	-0.8105	25.06	-0.05	-0.750			
0.1435	9183.93	3.9490	3.9490	-0.8232	25.06	-0.05	-0.750			
0.1460	9342.54	3.9460	3.9460	-0.8184	25.06	-0.05	-0.750			
0.1485	9501.46	3.9430	3.9428	-0.8162	25.06	-0.05	-0.750			
0.1509	9659.19	3.9400	3.9399	-0.8151	25.06	-0.05	-0.750			
0.1533	9814.34	3.9370	3.9367	-0.8068	25.06	-0.05	-0.750			
0.1557	9967.98	3.9340	3.9339	-0.8103	25.07	-0.04	-0.750			
0.1581	10119.42	3.9310	3.9309	-0.8048	25.07	-0.04	-0.750			
0.1605	10272.32	3.9280	3.9281	-0.7996	25.08	-0.03	-0.750			
0.1630	10433.58	3.9250	3.9249	-0.8150	25.09	-0.02	-0.750			
0.1654	10588.58	3.9220	3.9223	-0.8161	25.09	-0.02	-0.750			
0.1679	10744.29	3.9190	3.9191	-0.8223	25.09	-0.02	-0.750			
0.1704	10902.92	3.9160	3.9159	-0.8333	25.09	-0.02	-0.750			
0.1729	11064.50	3.9130	3.9128	-0.8273	25.09	-0.02	-0.750			
0.1754	11226.77	3.9100	3.9100	-0.8261	25.09	-0.02	-0.750			
0.1779	11386.62	3.9070	3.9072	-0.8326	25.09	-0.02	-0.750			
0.1804	11544.00	3.9040	3.9039	-0.8244	25.09	-0.02	-0.750			
0.1829	11704.37	3.9010	3.9008	-0.8356	25.09	-0.02	-0.750			
0.1853	11861.71	3.8980	3.8980	-0.8331	25.10	-0.01	-0.750			
0.1879	12025.01	3.8950	3.8948	-0.8356	25.10	-0.01	-0.750			
0.1904	12187.37	3.8920	3.8922	-0.8320	25.10	-0.01	-0.750			
0.1929	12345.81	3.8890	3.8889	-0.8376	25.10	-0.01	-0.750			
0.1954	12503.93	3.8860	3.8859	-0.8290	25.11	-0.00	-0.750			
0.1978	12661.45	3.8830	3.8830	-0.8037	25.11	0.00	-0.750			
0.2004	12822.82	3.8800	3.8799	-0.8042	25.12	0.01	-0.750			
0.2027	12973.97	3.8770	3.8774	-0.7994	25.12	0.01	-0.750			
0.2051	13125.63	3.8740	3.8740	-0.7973	25.12	0.01	-0.750			
0.2074	13274.56	3.8710	3.8708	-0.7954	25.12	0.01	-0.750			
0.2098	13425.35	3.8680	3.8679	-0.7990	25.13	0.02	-0.750			
0.2122	13581.73	3.8650	3.8651	-0.8136	25.13	0.02	-0.750			
0.2147	13741.29	3.8620	3.8619	-0.8189	25.13	0.02	-0.750			
0.2172	13900.84	3.8590	3.8589	-0.8224	25.13	0.02	-0.750			
0.2197	14058.82	3.8560	3.8560	-0.8297	25.13	0.02	-0.750			
0.2222	14220.48	3.8530	3.8529	-0.8190	25.14	0.03	-0.750			
0.2247	14379.18	3.8500	3.8498	-0.8194	25.14	0.03	-0.750			
0.2271	14534.61	3.8470	3.8477	-0.8084	25.14	0.03	-0.750			
0.2295	14689.00	3.8440	3.8438	-0.8017	25.14	0.03	-0.750			
0.2319	14840.59	3.8410	3.8409	-0.8001	25.14	0.03	-0.750			
0.2342	14988.17	3.8380	3.8381	-0.7952	25.15	0.04	-0.750			
0.2367	15147.35	3.8350	3.8348	-0.8088	25.15	0.04	-0.750			
0.2391	15302.22	3.8320	3.8319	-0.8046	25.15	0.04	-0.750			
0.2415	15455.49	3.8290	3.8289	-0.7983	25.15	0.04	-0.750			
0.2439	15609.20	3.8260	3.8259	-0.7966	25.16	0.05	-0.750			
0.2462	15755.42	3.8230	3.8232	-0.8169	25.16	0.05	-0.750			
0.2487	15913.69	3.8200	3.8199	-0.8316	25.16	0.05	-0.750			
0.2513	16080.08	3.8170	3.8166	-0.8348	25.17	0.06	-0.750			
0.2538	16245.16	3.8140	3.8142	-0.8340	25.17	0.06	-0.750			
0.2564	16410.11	3.8110	3.8113	-0.8342	25.17	0.06	-0.750			
0.2589	16572.27	3.8080	3.8079	-0.8129	25.18	0.07	-0.750			
0.2613	16724.59	3.8050	3.8048	-0.7895	25.18	0.07	-0.750			
0.2636	16868.31	3.8020	3.8019	-0.7690	25.18	0.07	-0.750			
0.2659	17015.66	3.7990	3.7988	-0.7686	25.18	0.07	-0.750			
0.2681	17160.56	3.7960	3.7959	-0.7712	25.19	0.08	-0.750			
0.2704	17306.91	3.7930	3.7931	-0.7710	25.19	0.08	-0.750			
0.2727	17454.84	3.7900	3.7900	-0.7614	25.19	0.08	-0.750			
0.2751	17607.00	3.7870	3.7869	-0.7722	25.20	0.09	-0.750			
0.2774	17754.27	3.7840	3.7846	-0.7675	25.20	0.09	-0.750			
0.2797	17900.65	3.7810	3.7810	-0.7699	25.20	0.09	-0.750			
0.2820	18047.30	3.7780	3.7779	-0.7732	25.20	0.09	-0.750			
0.2843	18196.40	3.7750	3.7750	-0.7760	25.20	0.09	-0.750			
0.2867	18347.55	3.7720	3.7719	-0.7757	25.20	0.09	-0.750			
0.2890	18497.33	3.7690	3.7688	-0.7762	25.20	0.09	-0.750			
0.2913	18644.19	3.7660	3.7660	-0.7810	25.20	0.09	-0.750			
0.2936	18791.74	3.7630	3.7628	-0.7974	25.20	0.09	-0.750			
0.2960	18945.73	3.7600	3.7599	-0.7958	25.20	0.09	-0.750			
0.2985	19102.03	3.7570	3.7570	-0.8144	25.20	0.09	-0.750			
0.3010	19261.54	3.7540	3.7540	-0.8172	25.20	0.09	-0.750			
0.3034	19419.07	3.7510	3.7511	-0.8234	25.20	0.09	-0.750			
0.3058	19573.16	3.7480	3.7479	-0.8343	25.20	0.09	-0.750			
0.3083	19732.44	3.7450	3.7449	-0.8423	25.20	0.09	-0.750			
0.3109	19895.45	3.7420	3.7419	-0.8435	25.20	0.09	-0.750			
0.3135	20062.12	3.7390	3.7388	-0.8651	25.20	0.09	-0.750			
0.3161	20230.75	3.7360	3.7360	-0.8696	25.20	0.09	-0.750			
0.3187	20398.35	3.7330	3.7329	-0.8864	25.20	0.09	-0.750			
0.3213	20565.89	3.7300	3.7300	-0.8893	25.20	0.09	-0.750			
0.3240	20735.47	3.7270	3.7270	-0.8927	25.20	0.09	-0.750			
0.3268	20915.14	3.7240	3.7240	-0.9140	25.20	0.09	-0.750			
0.3295	21089.06	3.7210	3.7211	-0.9422	25.20	0.09	-0.750			
0.3324	21272.41	3.7180	3.7180	-0.9440	25.20	0.09	-0.750			
0.3353	21456.25	3.7150	3.7148	-0.9538	25.19	0.08	-0.750			
0.3381	21638.54	3.7120	3.7118	-0.9598	25.19	0.08	-0.750			
0.3410	21825.08	3.7090	3.7089	-0.9779	25.19	0.08	-0.750			
0.3440	22016.24	3.7060	3.7058	-0.9991	25.18	0.07	-0.750			
0.3470	22210.66	3.7030	3.7028	-1.0052	25.18	0.07	-0.750			
0.3500	22400.72	3.7000	3.6999	-1.0036	25.17	0.06	-0.750			
0.3531	22600.51	3.6970	3.6972	-1.0330	25.17	0.06	-0.750	0.379	0.517	
0.3562	22797.64	3.6940	3.6940	-1.0504	25.16	0.05	-0.750			
0.3593	22997.47	3.6910	3.6908	-1.0721	25.15	0.04	-0.750			
0.3625	23201.62	3.6880	3.6880	-1.0691	25.15	0.04	-0.750			
0.3659	23416.08	3.6850	3.6852	-1.1243	25.14	0.03	-0.750			
0.3693	23638.00	3.6820	3.6819	-1.1482	25.13	0.02	-0.750			
0.3728	23861.42	3.6790	3.6787	-1.1548	25.13	0.02	-0.750			
0.3763	24083.05	3.6760	3.6760	-1.1596	25.12	0.01	-0.750			
0.3798	24307.86	3.6730	3.6729	-1.1808	25.12	0.01	-0.750			
0.3834	24536.00	3.6700	3.6699	-1.1958	25.11	0.00	-0.750			
0.3870	24764.81	3.6670	3.6669	-1.2261	25.10	-0.01	-0.750			
0.3906	24995.97	3.6640	3.6643	-1.2181	25.10	-0.01	-0.750			
0.3944	25239.45	3.6610	3.6609	-1.2490	25.09	-0.02	-0.750			
0.3981	25479.55	3.6580	3.6580	-1.2714	25.09	-0.02	-0.750			
0.4019	25720.14	3.6550	3.6551	-1.2969	25.08	-0.03	-0.750			
0.4060	25981.90	3.6520	3.6518	-1.3299	25.07	-0.04	-0.750			
0.4100	26240.39	3.6490	3.6489	-1.3473	25.07	-0.04	-0.750			
0.4141	26500.88	3.6460	3.6464	-1.3758	25.06	-0.05	-0.750			
0.4182	26767.89	3.6430	3.6429	-1.4173	25.05	-0.06	-0.750			
0.4225	27042.85	3.6400	3.6397	-1.4374	25.04	-0.07	-0.750			
0.4271	27332.12	3.6370	3.6370	-1.3972	25.03	-0.08	-0.750			
0.4314	27608.63	3.6340	3.6341	-1.3960	25.03	-0.08	-0.750			
0.4353	27861.48	3.6310	3.6313	-1.4163	25.02	-0.09	-0.750			
0.4395	28131.10	3.6280	3.6287	-1.4043	25.02	-0.09	-0.750			
0.4434	28375.35	3.6250	3.6243	-1.4584	25.01	-0.10	-0.750			
0.4475	28641.89	3.6220	3.6215	-1.5550	25.00	-0.11	-0.750			
0.4525	28962.12	3.6190	3.6196	-1.6795	24.99	-0.12	-0.750			
0.4578	29298.65	3.6160	3.6156	-1.8057	24.98	-0.13	-0.750			
0.4637	29679.74	3.6130	3.6132	-1.8519	24.96	-0.15	-0.750			
0.4694	30039.24	3.6100	3.6103	-1.8411	24.96	-0.15	-0.750			
0.4752	30412.70	3.6070	3.6070	-1.8645	24.96	-0.15	-0.750			
0.4806	30757.59	3.6040	3.6037	-1.8050	24.95	-0.16	-0.750			
0.4859	31098.49	3.6010	3.6007	-1.8215	24.95	-0.16	-0.750			
0.4913	31440.71	3.5980	3.5978	-1.8678	24.94	-0.17	-0.750			
0.4971	31814.52	3.5950	3.5947	-1.8958	24.93	-0.18	-0.750			
0.5027	32171.13	3.5920	3.5922	-1.9071	24.93	-0.18	-0.750			
0.5083	32533.33	3.5890	3.5892	-1.9765	24.93	-0.18	-0.750			
0.5143	32916.44	3.5860	3.5860	-1.9390	24.92	-0.19	-0.750			
0.5201	33285.52	3.5830	3.5832	-1.9969	24.91	-0.20	-0.750			
0.5262	33675.33	3.5800	3.5807	-2.0347	24.90	-0.21	-0.750			
0.5324	34074.09	3.5770	3.5771	-2.1080	24.90	-0.21	-0.750			
0.5389	34490.69	3.5740	3.5739	-2.1151	24.90	-0.21	-0.750			
0.5458	34931.34	3.5710	3.5709	-2.1773	24.90	-0.21	-0.750			
0.5518	35313.24	3.5680	3.5678	-2.0703	24.90	-0.21	-0.750			
0.5580	35709.32	3.5650	3.5648	-2.1392	24.89	-0.22	-0.750			
0.5643	36116.49	3.5620	3.5616	-2.1004	24.88	-0.23	-0.750			
0.5708	36528.86	3.5590	3.5587	-2.1352	24.88	-0.23	-0.750			
0.5770	36930.78	3.5560	3.5564	-2.1655	24.88	-0.23	-0.750			
0.5836	37350.03	3.5530	3.5531	-2.1241	24.88	-0.23	-0.750			
0.5900	37757.49	3.5500	3.5501	-2.0387	24.88	-0.23	-0.750			
0.5961	38148.83	3.5470	3.5467	-2.0665	24.89	-0.22	-0.750			
0.6019	38523.66	3.5440	3.5444	-2.0098	24.90	-0.21	-0.750			
0.6080	38909.50	3.5410	3.5409	-1.9860	24.90	-0.21	-0.750			
0.6141	39301.20	3.5380	3.5378	-1.9912	24.90	-0.21	-0.750			
0.6201	39684.87	3.5350	3.5352	-1.9775	24.91	-0.20	-0.750			
0.6257	40046.59	3.5320	3.5323	-1.9085	24.92	-0.19	-0.750			
0.6314	40412.33	3.5290	3.5288	-1.8057	24.93	-0.18	-0.750			
0.6369	40759.98	3.5260	3.5259	-1.7955	24.94	-0.17	-0.750			
0.6421	41094.16	3.5230	3.5228	-1.7673	24.95	-0.16	-0.750			
0.6473	41428.16	3.5200	3.5203	-1.7310	24.96	-0.15	-0.750			
0.6523	41748.42	3.5170	3.5172	-1.6942	24.98	-0.13	-0.750			
0.6574	42071.58	3.5140	3.5139	-1.6887	25.00	-0.11	-0.750			
0.6627	42411.16	3.5110	3.5111	-1.6649	25.01	-0.10	-0.750			
0.6677	42735.73	3.5080	3.5076	-1.5618	25.03	-0.08	-0.750			
0.6724	43031.21	3.5050	3.5050	-1.5312	25.04	-0.07	-0.750			
0.6767	43308.43	3.5020	3.5023	-1.4756	25.06	-0.05	-0.750			
0.6811	43591.29	3.4990	3.4988	-1.4363	25.07	-0.04	-0.750			
0.6852	43854.56	3.4960	3.4960	-1.3833	25.09	-0.02	-0.750			
0.6894	44119.05	3.4930	3.4936	-1.3694	25.10	-0.01	-0.750			
0.6936	44387.67	3.4900	3.4899	-1.3587	25.11	0.00	-0.750			
0.6976	44649.44	3.4870	3.4868	-1.2947	25.13	0.02	-0.750			
0.7015	44893.79	3.4840	3.4837	-1.3542	25.15	0.04	-0.750			
