Ah_balance (normalized)	Ah_balance (mAh)	Voltage - fit (V)	Voltage -  interpolate (V)	dQ/dV (1/V)	Temperature (°C)	Temperature - diff (°C)	Current (C)	R_DC 0ms (mOhm)	R_DC 50ms (mOhm)	R_DC 50 ms PEC (mOhm)
0.0003	16.54	4.1650	4.1650	-0.1366	24.85	0.01	-0.750			
0.0008	50.14	4.1620	4.1619	-0.1926	24.84	0.00	-0.750			
0.0014	90.49	4.1590	4.1590	-0.2330	24.84	0.00	-0.750			
0.0022	139.22	4.1560	4.1559	-0.2739	24.84	0.00	-0.750			
0.0031	195.49	4.1530	4.1533	-0.3166	24.84	-0.00	-0.750			
0.0041	259.97	4.1500	4.1500	-0.3603	24.84	-0.00	-0.750			
0.0052	332.89	4.1470	4.1470	-0.4030	24.83	-0.01	-0.750			
0.0065	413.84	4.1440	4.1440	-0.4466	24.83	-0.01	-0.750			
0.0079	505.33	4.1410	4.1410	-0.4888	24.83	-0.01	-0.750			
0.0094	604.32	4.1380	4.1380	-0.5282	24.82	-0.02	-0.750			
0.0111	711.78	4.1350	4.1350	-0.5599	24.82	-0.02	-0.750			
0.0129	823.06	4.1320	4.1319	-0.5897	24.82	-0.02	-0.750			
0.0147	939.59	4.1290	4.1291	-0.6139	24.81	-0.03	-0.750			
0.0166	1059.81	4.1260	4.1261	-0.6343	24.81	-0.03	-0.750			
0.0185	1184.20	4.1230	4.1229	-0.6442	24.80	-0.04	-0.750			
0.0204	1307.88	4.1200	4.1201	-0.6676	24.80	-0.04	-0.750			
0.0224	1436.31	4.1170	4.1171	-0.6838	24.79	-0.05	-0.750			
0.0245	1570.40	4.1140	4.1135	-0.7043	24.79	-0.05	-0.750			
0.0267	1707.89	4.1110	4.1110	-0.7135	24.78	-0.06	-0.750			
0.0289	1847.42	4.1080	4.1079	-0.7260	24.78	-0.06	-0.750			
0.0311	1991.30	4.1050	4.1051	-0.7370	24.78	-0.06	-0.750			
0.0334	2135.55	4.1020	4.1020	-0.7497	24.78	-0.06	-0.750			
0.0356	2276.70	4.0990	4.0989	-0.7437	24.78	-0.06	-0.750			
0.0378	2422.08	4.0960	4.0959	-0.7487	24.78	-0.06	-0.750			
0.0401	2565.69	4.0930	4.0934	-0.7494	24.78	-0.06	-0.750			
0.0423	2709.85	4.0900	4.0899	-0.7496	24.78	-0.06	-0.750			
0.0446	2851.59	4.0870	4.0870	-0.7582	24.77	-0.07	-0.750			
0.0468	2997.33	4.0840	4.0839	-0.7616	24.77	-0.07	-0.750			
0.0491	3145.22	4.0810	4.0810	-0.7703	24.77	-0.07	-0.750			
0.0515	3293.14	4.0780	4.0780	-0.7764	24.76	-0.08	-0.750			
0.0538	3444.63	4.0750	4.0750	-0.7800	24.76	-0.08	-0.750			
0.0561	3592.92	4.0720	4.0719	-0.7878	24.76	-0.08	-0.750			
0.0585	3743.70	4.0690	4.0690	-0.7876	24.76	-0.08	-0.750			
0.0609	3894.89	4.0660	4.0660	-0.7829	24.76	-0.08	-0.750			
0.0633	4048.09	4.0630	4.0629	-0.7868	24.76	-0.08	-0.750			
0.0656	4198.28	4.0600	4.0603	-0.7910	24.76	-0.08	-0.750			
0.0680	4349.22	4.0570	4.0569	-0.7901	24.76	-0.08	-0.750			
0.0703	4501.25	4.0540	4.0539	-0.8025	24.76	-0.08	-0.750			
0.0728	4657.04	4.0510	4.0509	-0.7976	24.76	-0.08	-0.750			
0.0752	4812.64	4.0480	4.0480	-0.8048	24.76	-0.08	-0.750			
0.0776	4968.75	4.0450	4.0454	-0.7975	24.76	-0.08	-0.750			
0.0800	5121.68	4.0420	4.0419	-0.7949	24.76	-0.08	-0.750			
0.0823	5270.17	4.0390	4.0389	-0.7957	24.76	-0.08	-0.750			
0.0847	5419.62	4.0360	4.0360	-0.7941	24.76	-0.08	-0.750			
0.0871	5574.65	4.0330	4.0330	-0.7996	24.76	-0.08	-0.750			
0.0895	5728.27	4.0300	4.0299	-0.8049	24.76	-0.08	-0.750			
0.0919	5883.01	4.0270	4.0272	-0.8081	24.76	-0.08	-0.750			
0.0944	6039.36	4.0240	4.0239	-0.8210	24.76	-0.08	-0.750			
0.0968	6197.16	4.0210	4.0209	-0.8230	24.76	-0.08	-0.750			
0.0993	6357.20	4.0180	4.0179	-0.8175	24.76	-0.08	-0.750			
0.1018	6516.82	4.0150	4.0150	-0.8215	24.76	-0.08	-0.750			
0.1043	6673.40	4.0120	4.0119	-0.8218	24.76	-0.08	-0.750			
0.1067	6827.34	4.0090	4.0090	-0.8232	24.77	-0.07	-0.750			
0.1092	6986.38	4.0060	4.0058	-0.8247	24.77	-0.07	-0.750			
0.1116	7143.75	4.0030	4.0029	-0.8187	24.77	-0.07	-0.750			
0.1142	7306.27	4.0000	4.0000	-0.8279	24.78	-0.06	-0.750			
0.1166	7464.69	3.9970	3.9970	-0.8317	24.78	-0.06	-0.750			
0.1191	7622.93	3.9940	3.9939	-0.8311	24.78	-0.06	-0.750			
0.1216	7782.29	3.9910	3.9910	-0.8258	24.78	-0.06	-0.750			
0.1240	7936.78	3.9880	3.9880	-0.8245	24.78	-0.06	-0.750			
0.1266	8100.20	3.9850	3.9851	-0.8400	24.78	-0.06	-0.750			
0.1291	8261.97	3.9820	3.9819	-0.8415	24.78	-0.06	-0.750			
0.1316	8422.54	3.9790	3.9789	-0.8435	24.78	-0.06	-0.750			
0.1341	8585.03	3.9760	3.9760	-0.8409	24.78	-0.06	-0.750			
0.1367	8746.91	3.9730	3.9731	-0.8429	24.78	-0.06	-0.750			
0.1392	8910.55	3.9700	3.9698	-0.8421	24.78	-0.06	-0.750			
0.1417	9070.92	3.9670	3.9671	-0.8371	24.78	-0.06	-0.750			
0.1442	9230.15	3.9640	3.9640	-0.8498	24.79	-0.05	-0.750			
0.1468	9393.36	3.9610	3.9609	-0.8542	24.79	-0.05	-0.750			
0.1493	9558.15	3.9580	3.9579	-0.8516	24.79	-0.05	-0.750			
0.1520	9725.39	3.9550	3.9548	-0.8557	24.80	-0.04	-0.750			
0.1546	9891.46	3.9520	3.9520	-0.8571	24.80	-0.04	-0.750			
0.1571	10055.19	3.9490	3.9490	-0.8633	24.80	-0.04	-0.750			
0.1597	10218.35	3.9460	3.9460	-0.8596	24.80	-0.04	-0.750			
0.1622	10381.16	3.9430	3.9430	-0.8536	24.80	-0.04	-0.750			
0.1648	10549.92	3.9400	3.9401	-0.8671	24.80	-0.04	-0.750			
0.1674	10715.80	3.9370	3.9371	-0.8764	24.80	-0.04	-0.750			
0.1701	10886.33	3.9340	3.9339	-0.8792	24.81	-0.03	-0.750			
0.1727	11054.97	3.9310	3.9309	-0.8737	24.81	-0.03	-0.750			
0.1753	11220.82	3.9280	3.9281	-0.8728	24.82	-0.02	-0.750			
0.1780	11391.76	3.9250	3.9254	-0.8728	24.82	-0.02	-0.750			
0.1805	11555.03	3.9220	3.9220	-0.8888	24.82	-0.02	-0.750			
0.1832	11723.39	3.9190	3.9190	-0.8815	24.82	-0.02	-0.750			
0.1859	11896.36	3.9160	3.9157	-0.8724	24.83	-0.01	-0.750			
0.1885	12065.55	3.9130	3.9127	-0.8809	24.83	-0.01	-0.750			
0.1912	12234.19	3.9100	3.9103	-0.8820	24.83	-0.01	-0.750			
0.1938	12401.72	3.9070	3.9070	-0.8883	24.83	-0.01	-0.750			
0.1965	12573.16	3.9040	3.9039	-0.8951	24.83	-0.01	-0.750			
0.1991	12745.09	3.9010	3.9009	-0.9015	24.84	-0.00	-0.750			
0.2018	12917.21	3.8980	3.8980	-0.8962	24.84	-0.00	-0.750			
0.2046	13092.54	3.8950	3.8950	-0.9103	24.84	0.00	-0.750			
0.2072	13263.45	3.8920	3.8921	-0.8979	24.84	0.00	-0.750			
0.2099	13435.17	3.8890	3.8889	-0.8954	24.85	0.01	-0.750			
0.2126	13605.79	3.8860	3.8858	-0.8982	24.85	0.01	-0.750			
0.2153	13780.29	3.8830	3.8834	-0.9020	24.85	0.01	-0.750			
0.2180	13953.39	3.8800	3.8800	-0.9131	24.85	0.01	-0.750			
0.2208	14133.82	3.8770	3.8768	-0.9081	24.85	0.01	-0.750			
0.2235	14306.07	3.8740	3.8740	-0.9063	24.86	0.02	-0.750			
0.2262	14478.47	3.8710	3.8709	-0.9065	24.86	0.02	-0.750			
0.2289	14651.46	3.8680	3.8681	-0.9040	24.86	0.02	-0.750			
0.2316	14824.05	3.8650	3.8649	-0.9039	24.86	0.02	-0.750			
0.2343	14997.22	3.8620	3.8618	-0.9100	24.87	0.03	-0.750			
0.2371	15172.09	3.8590	3.8591	-0.9074	24.87	0.03	-0.750			
0.2398	15350.08	3.8560	3.8560	-0.9148	24.87	0.03	-0.750			
0.2426	15523.70	3.8530	3.8530	-0.9176	24.87	0.03	-0.750			
0.2453	15702.38	3.8500	3.8500	-0.9180	24.87	0.03	-0.750			
0.2481	15878.73	3.8470	3.8469	-0.9116	24.88	0.04	-0.750			
0.2508	16052.47	3.8440	3.8439	-0.9122	24.88	0.04	-0.750			
0.2536	16227.60	3.8410	3.8411	-0.9107	24.88	0.04	-0.750			
0.2563	16403.17	3.8380	3.8381	-0.9252	24.88	0.04	-0.750			
0.2591	16581.67	3.8350	3.8349	-0.9238	24.88	0.04	-0.750			
0.2619	16760.39	3.8320	3.8319	-0.9143	24.88	0.04	-0.750			
0.2647	16939.26	3.8290	3.8294	-0.9177	24.88	0.04	-0.750			
0.2674	17113.60	3.8260	3.8259	-0.9214	24.88	0.04	-0.750			
0.2701	17288.00	3.8230	3.8230	-0.9102	24.89	0.05	-0.750			
0.2728	17458.00	3.8200	3.8199	-0.9108	24.89	0.05	-0.750			
0.2755	17630.96	3.8170	3.8171	-0.9196	24.90	0.06	-0.750			
0.2784	17815.25	3.8140	3.8141	-0.9328	24.90	0.06	-0.750			
0.2812	17996.09	3.8110	3.8109	-0.9389	24.90	0.06	-0.750			
0.2840	18179.20	3.8080	3.8081	-0.9360	24.90	0.06	-0.750			
0.2869	18359.15	3.8050	3.8051	-0.9299	24.90	0.06	-0.750			
0.2897	18538.59	3.8020	3.8021	-0.9332	24.90	0.06	-0.750			
0.2924	18712.46	3.7990	3.7990	-0.9426	24.90	0.06	-0.750			
0.2952	18893.87	3.7960	3.7958	-0.9359	24.91	0.07	-0.750			
0.2980	19074.60	3.7930	3.7929	-0.9380	24.91	0.07	-0.750			
0.3009	19255.58	3.7900	3.7900	-0.9345	24.92	0.08	-0.750			
0.3037	19439.58	3.7870	3.7872	-0.9395	24.92	0.08	-0.750			
0.3065	19617.46	3.7840	3.7839	-0.9401	24.92	0.08	-0.750			
0.3093	19792.33	3.7810	3.7808	-0.9358	24.92	0.08	-0.750			
0.3120	19970.43	3.7780	3.7781	-0.9340	24.92	0.08	-0.750			
0.3150	20157.09	3.7750	3.7751	-0.9496	24.92	0.08	-0.750			
0.3178	20340.92	3.7720	3.7720	-0.9585	24.92	0.08	-0.750			
0.3207	20526.06	3.7690	3.7690	-0.9619	24.92	0.08	-0.750			
0.3236	20711.00	3.7660	3.7659	-0.9565	24.93	0.09	-0.750			
0.3265	20893.64	3.7630	3.7629	-0.9515	24.93	0.09	-0.750			
0.3293	21077.10	3.7600	3.7599	-0.9501	24.93	0.09	-0.750			
0.3322	21262.14	3.7570	3.7569	-0.9600	24.93	0.09	-0.750			
0.3351	21446.45	3.7540	3.7539	-0.9587	24.94	0.10	-0.750			
0.3379	21627.64	3.7510	3.7509	-0.9533	24.94	0.10	-0.750			
0.3409	21814.56	3.7480	3.7483	-0.9625	24.94	0.10	-0.750			
0.3438	22000.49	3.7450	3.7448	-0.9682	24.94	0.10	-0.750			
0.3467	22185.77	3.7420	3.7419	-0.9641	24.94	0.10	-0.750			
0.3495	22365.19	3.7390	3.7391	-0.9626	24.94	0.10	-0.750			
0.3525	22557.43	3.7360	3.7361	-0.9817	24.94	0.10	-0.750			
0.3554	22747.00	3.7330	3.7328	-0.9912	24.94	0.10	-0.750			
0.3584	22937.93	3.7300	3.7301	-0.9976	24.94	0.10	-0.750			
0.3614	23130.72	3.7270	3.7269	-0.9996	24.94	0.10	-0.750			
0.3644	23322.15	3.7240	3.7240	-1.0045	24.94	0.10	-0.750			
0.3674	23516.23	3.7210	3.7208	-1.0229	24.94	0.10	-0.750			
0.3705	23710.65	3.7180	3.7178	-1.0335	24.94	0.10	-0.750			
0.3737	23914.27	3.7150	3.7149	-1.0290	24.94	0.10	-0.750			
0.3768	24112.35	3.7120	3.7118	-1.0415	24.94	0.10	-0.750			
0.3799	24312.31	3.7090	3.7085	-1.0504	24.94	0.10	-0.750	0.419	0.507	
0.3830	24514.50	3.7060	3.7056	-1.0604	24.94	0.10	-0.750			
0.3861	24713.03	3.7030	3.7029	-1.0666	24.94	0.10	-0.750			
0.3894	24918.51	3.7000	3.7001	-1.0902	24.94	0.10	-0.750			
0.3927	25130.70	3.6970	3.6970	-1.1157	24.94	0.10	-0.750			
0.3962	25353.70	3.6940	3.6939	-1.1332	24.94	0.10	-0.750			
0.3995	25568.92	3.6910	3.6910	-1.1429	24.93	0.09	-0.750			
0.4030	25789.27	3.6880	3.6882	-1.1739	24.93	0.09	-0.750			
0.4065	26018.62	3.6850	3.6850	-1.1927	24.93	0.09	-0.750			
0.4102	26249.70	3.6820	3.6817	-1.2120	24.92	0.08	-0.750			
0.4138	26481.46	3.6790	3.6790	-1.2344	24.92	0.08	-0.750			
0.4176	26723.49	3.6760	3.6759	-1.2628	24.92	0.08	-0.750			
0.4214	26968.03	3.6730	3.6729	-1.2844	24.91	0.07	-0.750			
0.4252	27209.61	3.6700	3.6700	-1.3112	24.90	0.06	-0.750			
0.4292	27470.89	3.6670	3.6670	-1.3401	24.90	0.06	-0.750			
0.4333	27730.37	3.6640	3.6639	-1.3732	24.89	0.05	-0.750			
0.4374	27993.14	3.6610	3.6610	-1.4191	24.88	0.04	-0.750			
0.4417	28266.20	3.6580	3.6581	-1.4599	24.88	0.04	-0.750			
0.4461	28553.11	3.6550	3.6547	-1.5055	24.88	0.04	-0.750			
0.4507	28847.71	3.6520	3.6520	-1.5425	24.87	0.03	-0.750			
0.4555	29151.12	3.6490	3.6489	-1.5691	24.86	0.02	-0.750			
0.4603	29457.88	3.6460	3.6458	-1.6254	24.85	0.01	-0.750			
0.4651	29768.83	3.6430	3.6431	-1.6250	24.84	0.00	-0.750			
0.4700	30079.64	3.6400	3.6399	-1.6655	24.83	-0.01	-0.750			
0.4751	30409.19	3.6370	3.6371	-1.7143	24.82	-0.02	-0.750			
0.4804	30745.71	3.6340	3.6336	-1.7563	24.82	-0.02	-0.750			
0.4857	31084.54	3.6310	3.6314	-1.8115	24.81	-0.03	-0.750			
0.4912	31439.26	3.6280	3.6281	-1.8520	24.80	-0.04	-0.750			
0.4968	31795.90	3.6250	3.6250	-1.9267	24.79	-0.05	-0.750			
0.5026	32166.29	3.6220	3.6218	-1.9362	24.78	-0.06	-0.750			
0.5085	32543.72	3.6190	3.6186	-2.0079	24.77	-0.07	-0.750			
0.5147	32942.90	3.6160	3.6164	-2.0075	24.76	-0.08	-0.750			
0.5208	33329.77	3.6130	3.6127	-2.0551	24.75	-0.09	-0.750			
0.5271	33734.87	3.6100	3.6103	-2.0831	24.74	-0.10	-0.750			
0.5332	34126.50	3.6070	3.6071	-2.0959	24.73	-0.11	-0.750			
0.5397	34538.21	3.6040	3.6044	-2.1606	24.72	-0.12	-0.750			
0.5461	34951.92	3.6010	3.6007	-2.1723	24.71	-0.13	-0.750			
0.5526	35369.36	3.5980	3.5982	-2.2317	24.70	-0.14	-0.750			
0.5594	35804.71	3.5950	3.5947	-2.2395	24.69	-0.15	-0.750			
0.5664	36252.47	3.5920	3.5919	-2.2702	24.69	-0.15	-0.750			
0.5734	36695.39	3.5890	3.5893	-2.2879	24.68	-0.16	-0.750			
0.5803	37136.50	3.5860	3.5860	-2.3364	24.68	-0.16	-0.750			
0.5872	37579.76	3.5830	3.5826	-2.3397	24.67	-0.17	-0.750			
0.5941	38024.98	3.5800	3.5802	-2.4031	24.67	-0.17	-0.750			
0.6015	38497.44	3.5770	3.5771	-2.4556	24.66	-0.18	-0.750			
0.6092	38987.92	3.5740	3.5741	-2.5095	24.65	-0.19	-0.750			
0.6168	39477.41	3.5710	3.5710	-2.5236	24.64	-0.20	-0.750			
0.6243	39953.33	3.5680	3.5680	-2.4788	24.64	-0.20	-0.750			
0.6316	40422.41	3.5650	3.5649	-2.4383	24.64	-0.20	-0.750			
0.6389	40889.76	3.5620	3.5621	-2.4300	24.64	-0.20	-0.750			
0.6462	41359.11	3.5590	3.5590	-2.4364	24.64	-0.20	-0.750			
0.6536	41827.31	3.5560	3.5559	-2.4236	24.64	-0.20	-0.750			
0.6608	42290.51	3.5530	3.5530	-2.3814	24.64	-0.20	-0.750			
0.6679	42746.85	3.5500	3.5500	-2.3479	24.64	-0.20	-0.750			
0.6749	43193.46	3.5470	3.5471	-2.3350	24.64	-0.20	-0.750			
0.6818	43637.06	3.5440	3.5440	-2.2707	24.64	-0.20	-0.750			
0.6886	44073.22	3.5410	3.5410	-2.2383	24.65	-0.19	-0.750			
0.6953	44500.71	3.5380	3.5382	-2.2090	24.65	-0.19	-0.750			
0.7019	44922.53	3.5350	3.5349	-2.1691	24.66	-0.18	-0.750			
0.7084	45336.51	3.5320	3.5318	-2.1172	24.67	-0.17	-0.750			
0.7147	45743.85	3.5290	3.5289	-2.0737	24.68	-0.16	-0.750			
0.7210	46143.16	3.5260	3.5259	-2.0140	24.69	-0.15	-0.750			
0.7269	46522.11	3.5230	3.5227	-1.9540	24.70	-0.14	-0.750			
0.7327	46891.94	3.5200	3.5202	-1.8923	24.71	-0.13	-0.750			
0.7383	47254.07	3.5170	3.5170	-1.8433	24.73	-0.11	-0.750			
0.7437	47598.51	3.5140	3.5138	-1.7846	24.74	-0.10	-0.750			
0.7491	47941.46	3.5110	3.5108	-1.7004	24.76	-0.08	-0.750			
0.7542	48266.30	3.5080	3.5080	-1.7361	24.77	-0.07	-0.750			
