Ah_balance (normalized)	Ah_balance (mAh)	Voltage - fit (V)	Voltage -  interpolate (V)	dQ/dV (1/V)	Temperature (°C)	Temperature - diff (°C)	Current (C)	R_DC 0ms (mOhm)	R_DC 50ms (mOhm)	R_DC 50 ms PEC (mOhm)
0.0003	22.11	4.1610	4.1608	-0.1242	24.61	0.01	-0.750			
0.0008	51.57	4.1580	4.1580	-0.1714	24.61	0.01	-0.750			
0.0014	87.84	4.1550	4.1550	-0.2153	24.61	0.01	-0.750			
0.0021	134.10	4.1520	4.1519	-0.2580	24.61	0.01	-0.750			
0.0029	187.99	4.1490	4.1491	-0.2970	24.60	0.00	-0.750			
0.0039	249.47	4.1460	4.1459	-0.3374	24.60	0.00	-0.750			
0.0050	318.20	4.1430	4.1431	-0.3775	24.60	-0.00	-0.750			
0.0062	395.50	4.1400	4.1398	-0.4122	24.59	-0.01	-0.750			
0.0075	478.83	4.1370	4.1371	-0.4446	24.59	-0.01	-0.750			
0.0089	566.89	4.1340	4.1340	-0.4732	24.59	-0.01	-0.750			
0.0103	662.18	4.1310	4.1312	-0.5049	24.58	-0.02	-0.750			
0.0119	761.79	4.1280	4.1279	-0.5384	24.58	-0.02	-0.750			
0.0136	869.56	4.1250	4.1249	-0.5575	24.57	-0.03	-0.750			
0.0153	979.85	4.1220	4.1219	-0.5746	24.56	-0.04	-0.750			
0.0171	1092.57	4.1190	4.1193	-0.5915	24.56	-0.04	-0.750			
0.0189	1209.21	4.1160	4.1160	-0.6113	24.56	-0.04	-0.750			
0.0207	1326.88	4.1130	4.1128	-0.6268	24.55	-0.05	-0.750			
0.0226	1446.64	4.1100	4.1101	-0.6484	24.55	-0.05	-0.750			
0.0246	1574.96	4.1070	4.1069	-0.6670	24.55	-0.05	-0.750			
0.0267	1709.18	4.1040	4.1039	-0.6681	24.54	-0.06	-0.750			
0.0288	1840.83	4.1010	4.1012	-0.6744	24.54	-0.06	-0.750			
0.0308	1968.50	4.0980	4.0980	-0.6766	24.54	-0.06	-0.750			
0.0328	2097.23	4.0950	4.0950	-0.6746	24.53	-0.07	-0.750			
0.0348	2225.01	4.0920	4.0919	-0.6902	24.53	-0.07	-0.750			
0.0368	2354.91	4.0890	4.0890	-0.6990	24.53	-0.07	-0.750			
0.0390	2497.37	4.0860	4.0859	-0.7099	24.52	-0.08	-0.750			
0.0412	2635.53	4.0830	4.0829	-0.7167	24.52	-0.08	-0.750			
0.0433	2773.16	4.0800	4.0800	-0.7214	24.52	-0.08	-0.750			
0.0455	2912.56	4.0770	4.0770	-0.7220	24.52	-0.08	-0.750			
0.0477	3050.25	4.0740	4.0739	-0.7248	24.52	-0.08	-0.750			
0.0498	3189.74	4.0710	4.0709	-0.7315	24.52	-0.08	-0.750			
0.0520	3331.14	4.0680	4.0681	-0.7296	24.52	-0.08	-0.750			
0.0542	3471.76	4.0650	4.0652	-0.7331	24.52	-0.08	-0.750			
0.0564	3611.97	4.0620	4.0619	-0.7310	24.52	-0.08	-0.750			
0.0586	3750.05	4.0590	4.0591	-0.7469	24.52	-0.08	-0.750			
0.0609	3895.73	4.0560	4.0559	-0.7466	24.52	-0.08	-0.750			
0.0631	4040.51	4.0530	4.0528	-0.7522	24.52	-0.08	-0.750			
0.0654	4185.39	4.0500	4.0498	-0.7520	24.52	-0.08	-0.750			
0.0677	4330.37	4.0470	4.0468	-0.7508	24.52	-0.08	-0.750			
0.0699	4475.02	4.0440	4.0439	-0.7450	24.52	-0.08	-0.750			
0.0721	4617.57	4.0410	4.0410	-0.7520	24.52	-0.08	-0.750			
0.0744	4761.36	4.0380	4.0380	-0.7586	24.52	-0.08	-0.750			
0.0767	4906.51	4.0350	4.0347	-0.7561	24.52	-0.08	-0.750			
0.0789	5050.08	4.0320	4.0324	-0.7581	24.52	-0.08	-0.750			
0.0812	5196.06	4.0290	4.0289	-0.7648	24.52	-0.08	-0.750			
0.0835	5343.45	4.0260	4.0259	-0.7710	24.52	-0.08	-0.750			
0.0858	5493.54	4.0230	4.0229	-0.7656	24.52	-0.08	-0.750			
0.0881	5641.18	4.0200	4.0201	-0.7724	24.52	-0.08	-0.750			
0.0904	5788.47	4.0170	4.0170	-0.7681	24.52	-0.08	-0.750			
0.0927	5935.20	4.0140	4.0140	-0.7650	24.52	-0.08	-0.750			
0.0949	6076.65	4.0110	4.0110	-0.7727	24.52	-0.08	-0.750			
0.0973	6227.15	4.0080	4.0080	-0.7759	24.52	-0.08	-0.750			
0.0996	6377.31	4.0050	4.0049	-0.7837	24.52	-0.08	-0.750			
0.1021	6531.27	4.0020	4.0020	-0.7863	24.52	-0.08	-0.750			
0.1044	6683.06	3.9990	3.9999	-0.7838	24.52	-0.08	-0.750			
0.1068	6832.93	3.9960	3.9960	-0.7877	24.52	-0.08	-0.750			
0.1091	6982.40	3.9930	3.9929	-0.7903	24.52	-0.08	-0.750			
0.1115	7133.17	3.9900	3.9900	-0.7916	24.52	-0.08	-0.750			
0.1139	7288.47	3.9870	3.9868	-0.7950	24.52	-0.08	-0.750			
0.1163	7441.90	3.9840	3.9840	-0.7943	24.52	-0.08	-0.750			
0.1187	7595.16	3.9810	3.9809	-0.7967	24.52	-0.08	-0.750			
0.1210	7746.80	3.9780	3.9779	-0.7947	24.52	-0.08	-0.750			
0.1234	7897.07	3.9750	3.9749	-0.7912	24.52	-0.08	-0.750			
0.1257	8046.04	3.9720	3.9721	-0.7939	24.52	-0.08	-0.750			
0.1282	8202.51	3.9690	3.9690	-0.8015	24.52	-0.08	-0.750			
0.1306	8357.20	3.9660	3.9659	-0.8037	24.52	-0.08	-0.750			
0.1330	8510.98	3.9630	3.9630	-0.8151	24.53	-0.07	-0.750			
0.1355	8669.93	3.9600	3.9600	-0.8155	24.53	-0.07	-0.750			
0.1380	8829.32	3.9570	3.9568	-0.8122	24.53	-0.07	-0.750			
0.1404	8985.75	3.9540	3.9537	-0.8090	24.54	-0.06	-0.750			
0.1428	9138.84	3.9510	3.9510	-0.8067	24.54	-0.06	-0.750			
0.1452	9292.13	3.9480	3.9478	-0.8111	24.54	-0.06	-0.750			
0.1476	9446.70	3.9450	3.9450	-0.8038	24.54	-0.06	-0.750			
0.1499	9596.66	3.9420	3.9421	-0.7984	24.54	-0.06	-0.750			
0.1525	9759.85	3.9390	3.9390	-0.8185	24.54	-0.06	-0.750			
0.1549	9915.87	3.9360	3.9363	-0.8207	24.54	-0.06	-0.750			
0.1573	10070.06	3.9330	3.9329	-0.8266	24.54	-0.06	-0.750			
0.1598	10229.80	3.9300	3.9300	-0.8296	24.54	-0.06	-0.750			
0.1624	10390.77	3.9270	3.9268	-0.8226	24.55	-0.05	-0.750			
0.1649	10551.11	3.9240	3.9241	-0.8282	24.55	-0.05	-0.750			
0.1673	10709.37	3.9210	3.9212	-0.8259	24.55	-0.05	-0.750			
0.1698	10866.47	3.9180	3.9178	-0.8281	24.55	-0.05	-0.750			
0.1723	11025.80	3.9150	3.9150	-0.8351	24.55	-0.05	-0.750			
0.1748	11189.23	3.9120	3.9118	-0.8367	24.56	-0.04	-0.750			
0.1774	11353.85	3.9090	3.9089	-0.8435	24.56	-0.04	-0.750			
0.1799	11516.68	3.9060	3.9060	-0.8398	24.56	-0.04	-0.750			
0.1824	11674.22	3.9030	3.9030	-0.8407	24.56	-0.04	-0.750			
0.1849	11835.62	3.9000	3.8999	-0.8388	24.56	-0.04	-0.750			
0.1874	11990.62	3.8970	3.8970	-0.8295	24.56	-0.04	-0.750			
0.1900	12157.83	3.8940	3.8939	-0.8457	24.56	-0.04	-0.750			
0.1925	12321.58	3.8910	3.8912	-0.8451	24.56	-0.04	-0.750			
0.1950	12481.38	3.8880	3.8879	-0.8431	24.56	-0.04	-0.750			
0.1976	12643.64	3.8850	3.8850	-0.8397	24.56	-0.04	-0.750			
0.2000	12801.96	3.8820	3.8820	-0.8330	24.56	-0.04	-0.750			
0.2026	12963.74	3.8790	3.8789	-0.8441	24.56	-0.04	-0.750			
0.2051	13125.95	3.8760	3.8762	-0.8461	24.56	-0.04	-0.750			
0.2076	13287.08	3.8730	3.8728	-0.8627	24.56	-0.04	-0.750			
0.2103	13458.93	3.8700	3.8699	-0.8540	24.56	-0.04	-0.750			
0.2128	13622.02	3.8670	3.8670	-0.8468	24.56	-0.04	-0.750			
0.2154	13785.34	3.8640	3.8639	-0.8450	24.56	-0.04	-0.750			
0.2179	13947.54	3.8610	3.8607	-0.8350	24.56	-0.04	-0.750			
0.2204	14103.42	3.8580	3.8579	-0.8372	24.57	-0.03	-0.750			
0.2228	14261.18	3.8550	3.8551	-0.8298	24.57	-0.03	-0.750			
0.2254	14424.41	3.8520	3.8519	-0.8402	24.57	-0.03	-0.750			
0.2279	14587.23	3.8490	3.8489	-0.8379	24.58	-0.02	-0.750			
0.2304	14746.81	3.8460	3.8460	-0.8274	24.58	-0.02	-0.750			
0.2329	14903.06	3.8430	3.8430	-0.8292	24.58	-0.02	-0.750			
0.2353	15062.30	3.8400	3.8400	-0.8258	24.58	-0.02	-0.750			
0.2378	15216.67	3.8370	3.8370	-0.8216	24.59	-0.01	-0.750			
0.2403	15378.66	3.8340	3.8340	-0.8270	24.59	-0.01	-0.750			
0.2428	15538.34	3.8310	3.8309	-0.8270	24.59	-0.01	-0.750			
0.2452	15694.60	3.8280	3.8281	-0.8347	24.59	-0.01	-0.750			
0.2478	15857.16	3.8250	3.8249	-0.8293	24.59	-0.01	-0.750			
0.2503	16016.54	3.8220	3.8219	-0.8194	24.60	-0.00	-0.750			
0.2528	16176.28	3.8190	3.8189	-0.8139	24.60	-0.00	-0.750			
0.2552	16331.11	3.8160	3.8159	-0.8033	24.60	0.00	-0.750			
0.2576	16483.43	3.8130	3.8130	-0.8027	24.60	0.00	-0.750			
0.2599	16634.50	3.8100	3.8100	-0.7877	24.60	0.00	-0.750			
0.2622	16782.89	3.8070	3.8069	-0.7767	24.60	0.00	-0.750			
0.2646	16935.76	3.8040	3.8040	-0.7872	24.60	0.00	-0.750			
0.2670	17086.29	3.8010	3.8015	-0.7880	24.60	0.00	-0.750			
0.2693	17236.88	3.7980	3.7980	-0.7848	24.60	0.00	-0.750			
0.2717	17388.07	3.7950	3.7949	-0.7760	24.61	0.01	-0.750			
0.2740	17535.98	3.7920	3.7921	-0.7726	24.61	0.01	-0.750			
0.2763	17686.05	3.7890	3.7890	-0.7760	24.62	0.02	-0.750			
0.2786	17833.53	3.7860	3.7858	-0.7690	24.62	0.02	-0.750			
0.2809	17979.76	3.7830	3.7829	-0.7611	24.62	0.02	-0.750			
0.2832	18123.29	3.7800	3.7801	-0.7728	24.62	0.02	-0.750			
0.2855	18274.70	3.7770	3.7771	-0.7719	24.62	0.02	-0.750			
0.2879	18423.49	3.7740	3.7738	-0.7748	24.62	0.02	-0.750			
0.2902	18571.14	3.7710	3.7709	-0.7742	24.62	0.02	-0.750			
0.2925	18719.69	3.7680	3.7680	-0.7733	24.62	0.02	-0.750			
0.2948	18868.50	3.7650	3.7649	-0.7797	24.62	0.02	-0.750			
0.2972	19018.62	3.7620	3.7620	-0.7928	24.63	0.03	-0.750			
0.2996	19172.51	3.7590	3.7589	-0.7835	24.63	0.03	-0.750			
0.3020	19326.49	3.7560	3.7559	-0.7999	24.64	0.04	-0.750			
0.3043	19477.61	3.7530	3.7536	-0.8039	24.64	0.04	-0.750			
0.3067	19631.79	3.7500	3.7498	-0.8070	24.64	0.04	-0.750			
0.3092	19785.63	3.7470	3.7468	-0.8169	24.64	0.04	-0.750			
0.3116	19941.15	3.7440	3.7440	-0.8261	24.64	0.04	-0.750			
0.3141	20103.29	3.7410	3.7411	-0.8407	24.64	0.04	-0.750			
0.3167	20266.82	3.7380	3.7379	-0.8516	24.64	0.04	-0.750			
0.3191	20425.56	3.7350	3.7352	-0.8671	24.64	0.04	-0.750			
0.3218	20596.00	3.7320	3.7319	-0.8832	24.64	0.04	-0.750			
0.3245	20769.60	3.7290	3.7289	-0.8936	24.63	0.03	-0.750			
0.3272	20941.60	3.7260	3.7259	-0.9032	24.63	0.03	-0.750			
0.3300	21117.48	3.7230	3.7232	-0.9148	24.63	0.03	-0.750			
0.3327	21294.38	3.7200	3.7199	-0.9323	24.63	0.03	-0.750			
0.3355	21473.23	3.7170	3.7169	-0.9364	24.63	0.03	-0.750			
0.3383	21650.37	3.7140	3.7140	-0.9472	24.62	0.02	-0.750			
0.3412	21837.19	3.7110	3.7108	-0.9690	24.62	0.02	-0.750			
0.3441	22025.25	3.7080	3.7079	-0.9892	24.62	0.02	-0.750			
0.3471	22216.45	3.7050	3.7049	-0.9951	24.61	0.01	-0.750			
0.3501	22406.97	3.7020	3.7020	-1.0091	24.61	0.01	-0.750			
0.3532	22603.61	3.6990	3.6988	-1.0304	24.60	0.00	-0.750			
0.3563	22803.16	3.6960	3.6960	-1.0584	24.60	-0.00	-0.750	0.410	0.546	
0.3595	23009.22	3.6930	3.6928	-1.0651	24.60	-0.00	-0.750			
0.3628	23218.74	3.6900	3.6898	-1.0746	24.59	-0.01	-0.750			
0.3659	23420.57	3.6870	3.6875	-1.1002	24.59	-0.01	-0.750			
0.3693	23636.87	3.6840	3.6838	-1.1181	24.59	-0.01	-0.750			
0.3727	23850.22	3.6810	3.6808	-1.1277	24.59	-0.01	-0.750			
0.3761	24068.63	3.6780	3.6779	-1.1371	24.58	-0.02	-0.750			
0.3796	24291.76	3.6750	3.6753	-1.1679	24.58	-0.02	-0.750			
0.3831	24515.57	3.6720	3.6720	-1.1768	24.57	-0.03	-0.750			
0.3866	24739.38	3.6690	3.6690	-1.1938	24.56	-0.04	-0.750			
0.3900	24960.38	3.6660	3.6659	-1.2416	24.55	-0.05	-0.750			
0.3939	25209.23	3.6630	3.6629	-1.2710	24.55	-0.05	-0.750			
0.3978	25458.56	3.6600	3.6598	-1.2916	24.54	-0.06	-0.750			
0.4018	25712.96	3.6570	3.6569	-1.3297	24.53	-0.07	-0.750			
0.4058	25970.25	3.6540	3.6540	-1.3327	24.53	-0.07	-0.750			
0.4098	26230.04	3.6510	3.6507	-1.3482	24.52	-0.08	-0.750			
0.4138	26482.00	3.6480	3.6480	-1.3616	24.51	-0.09	-0.750			
0.4178	26740.72	3.6450	3.6452	-1.3706	24.50	-0.10	-0.750			
0.4221	27015.98	3.6420	3.6419	-1.4184	24.49	-0.11	-0.750			
0.4264	27291.06	3.6390	3.6389	-1.4630	24.48	-0.12	-0.750			
0.4309	27576.90	3.6360	3.6359	-1.4787	24.48	-0.12	-0.750			
0.4355	27869.08	3.6330	3.6328	-1.5248	24.47	-0.13	-0.750			
0.4401	28167.25	3.6300	3.6297	-1.5547	24.46	-0.14	-0.750			
0.4448	28467.59	3.6270	3.6267	-1.5761	24.46	-0.14	-0.750			
0.4496	28777.43	3.6240	3.6242	-1.5812	24.45	-0.15	-0.750			
0.4542	29070.19	3.6210	3.6216	-1.6226	24.44	-0.16	-0.750			
0.4592	29386.08	3.6180	3.6181	-1.6918	24.43	-0.17	-0.750			
0.4642	29710.73	3.6150	3.6147	-1.7145	24.42	-0.18	-0.750			
0.4695	30045.26	3.6120	3.6115	-1.7477	24.42	-0.18	-0.750			
0.4749	30393.35	3.6090	3.6088	-1.7906	24.41	-0.19	-0.750			
0.4804	30746.13	3.6060	3.6058	-1.8150	24.40	-0.20	-0.750			
0.4858	31089.44	3.6030	3.6028	-1.8279	24.40	-0.20	-0.750			
0.4911	31428.01	3.6000	3.6003	-1.8501	24.40	-0.20	-0.750			
0.4968	31796.70	3.5970	3.5972	-1.9087	24.40	-0.20	-0.750			
0.5025	32161.90	3.5940	3.5941	-1.9577	24.40	-0.20	-0.750			
0.5086	32552.15	3.5910	3.5910	-1.9920	24.39	-0.21	-0.750			
0.5147	32940.35	3.5880	3.5881	-2.0296	24.38	-0.22	-0.750			
0.5209	33336.46	3.5850	3.5852	-2.0444	24.38	-0.22	-0.750			
0.5271	33736.95	3.5820	3.5821	-2.0521	24.38	-0.22	-0.750			
0.5330	34114.13	3.5790	3.5791	-2.0888	24.38	-0.22	-0.750			
0.5395	34530.76	3.5760	3.5763	-2.1237	24.38	-0.22	-0.750			
0.5461	34949.24	3.5730	3.5727	-2.1324	24.38	-0.22	-0.750			
0.5526	35368.08	3.5700	3.5707	-2.1281	24.38	-0.22	-0.750			
0.5592	35787.85	3.5670	3.5671	-2.1491	24.38	-0.22	-0.750			
0.5656	36198.08	3.5640	3.5643	-2.1491	24.38	-0.22	-0.750			
0.5718	36594.33	3.5610	3.5609	-2.1906	24.38	-0.22	-0.750			
0.5786	37031.37	3.5580	3.5576	-2.2315	24.38	-0.22	-0.750			
0.5853	37461.22	3.5550	3.5546	-2.2069	24.38	-0.22	-0.750			
0.5920	37888.09	3.5520	3.5523	-2.1607	24.38	-0.22	-0.750			
0.5984	38295.61	3.5490	3.5489	-2.1413	24.39	-0.21	-0.750			
0.6048	38707.58	3.5460	3.5461	-2.1084	24.40	-0.20	-0.750			
0.6109	39095.52	3.5430	3.5430	-2.1094	24.40	-0.20	-0.750			
0.6173	39506.46	3.5400	3.5400	-2.0768	24.40	-0.20	-0.750			
0.6236	39911.52	3.5370	3.5368	-2.0186	24.42	-0.18	-0.750			
0.6296	40292.03	3.5340	3.5343	-1.9541	24.43	-0.17	-0.750			
0.6352	40654.33	3.5310	3.5310	-1.8275	24.44	-0.16	-0.750			
0.6405	40993.03	3.5280	3.5283	-1.7665	24.45	-0.15	-0.750			
0.6457	41322.64	3.5250	3.5242	-1.7318	24.46	-0.14	-0.750			
0.6510	41664.00	3.5220	3.5216	-1.7498	24.47	-0.13	-0.750			
0.6563	42003.06	3.5190	3.5193	-1.7163	24.49	-0.11	-0.750			
0.6613	42325.09	3.5160	3.5163	-1.7159	24.50	-0.10	-0.750			
0.6667	42671.14	3.5130	3.5137	-1.7120	24.52	-0.08	-0.750			
0.6715	42978.22	3.5100	3.5098	-1.6248	24.54	-0.06	-0.750			
0.6765	43296.94	3.5070	3.5074	-1.6194	24.55	-0.05	-0.750			
0.6812	43599.42	3.5040	3.5040	-1.5726	24.57	-0.03	-0.750			
0.6861	43909.62	3.5010	3.5006	-1.5428	24.59	-0.01	-0.750			
0.6904	44186.41	3.4980	3.4981	-1.4773	24.61	0.01	-0.750			
0.6949	44476.31	3.4950	3.4949	-1.4420	24.63	0.03	-0.750			
0.6993	44758.02	3.4920	3.4917	-1.3893	24.65	0.05	-0.750			
0.7034	45018.63	3.4890	3.4895	-1.3008	24.67	0.07	-0.750			
0.7073	45264.27	3.4860	3.4858	-1.2873	24.68	0.08	-0.750			
