Ah_balance (normalized)	Ah_balance (mAh)	Voltage - fit (V)	Voltage -  interpolate (V)	dQ/dV (1/V)	Temperature (°C)	Temperature - diff (°C)	Current (C)	R_DC 0ms (mOhm)	R_DC 50ms (mOhm)	R_DC 50 ms PEC (mOhm)
0.0003	19.33	4.1640	4.1639	-0.1152	25.07	0.01	-0.750			
0.0007	45.85	4.1610	4.1608	-0.1646	25.07	0.01	-0.750			
0.0013	83.91	4.1580	4.1580	-0.2149	25.07	0.01	-0.750			
0.0020	130.44	4.1550	4.1549	-0.2595	25.07	0.01	-0.750			
0.0029	185.35	4.1520	4.1520	-0.3000	25.07	0.01	-0.750			
0.0039	248.40	4.1490	4.1490	-0.3424	25.07	0.01	-0.750			
0.0050	317.79	4.1460	4.1461	-0.3799	25.07	0.01	-0.750			
0.0062	394.61	4.1430	4.1430	-0.4175	25.06	0.00	-0.750			
0.0075	479.06	4.1400	4.1399	-0.4498	25.06	0.00	-0.750			
0.0089	569.62	4.1370	4.1371	-0.4815	25.06	-0.00	-0.750			
0.0104	665.78	4.1340	4.1340	-0.5129	25.06	-0.00	-0.750			
0.0120	767.34	4.1310	4.1311	-0.5394	25.05	-0.01	-0.750			
0.0137	874.10	4.1280	4.1280	-0.5619	25.05	-0.01	-0.750			
0.0154	984.91	4.1250	4.1249	-0.5862	25.05	-0.01	-0.750			
0.0172	1100.00	4.1220	4.1220	-0.6040	25.05	-0.01	-0.750			
0.0191	1219.94	4.1190	4.1189	-0.6238	25.04	-0.02	-0.750			
0.0210	1341.10	4.1160	4.1162	-0.6338	25.04	-0.02	-0.750			
0.0229	1467.93	4.1130	4.1128	-0.6187	25.04	-0.02	-0.750			
0.0248	1589.05	4.1100	4.1101	-0.6112	25.03	-0.03	-0.750			
0.0266	1700.66	4.1070	4.1073	-0.6225	25.03	-0.03	-0.750			
0.0284	1815.96	4.1040	4.1037	-0.6250	25.03	-0.03	-0.750			
0.0302	1934.08	4.1010	4.1006	-0.6347	25.03	-0.03	-0.750			
0.0321	2055.86	4.0980	4.0980	-0.6554	25.02	-0.04	-0.750			
0.0342	2186.53	4.0950	4.0954	-0.6808	25.02	-0.04	-0.750			
0.0363	2324.97	4.0920	4.0919	-0.7015	25.02	-0.04	-0.750			
0.0384	2460.07	4.0890	4.0889	-0.7089	25.02	-0.04	-0.750			
0.0405	2594.67	4.0860	4.0861	-0.7109	25.01	-0.05	-0.750			
0.0427	2734.17	4.0830	4.0830	-0.7219	25.01	-0.05	-0.750			
0.0449	2873.51	4.0800	4.0799	-0.7257	25.01	-0.05	-0.750			
0.0471	3012.84	4.0770	4.0770	-0.7266	25.01	-0.05	-0.750			
0.0493	3152.08	4.0740	4.0741	-0.7325	25.01	-0.05	-0.750			
0.0515	3296.04	4.0710	4.0709	-0.7400	25.01	-0.05	-0.750			
0.0537	3437.46	4.0680	4.0680	-0.7407	25.01	-0.05	-0.750			
0.0560	3581.00	4.0650	4.0649	-0.7442	25.01	-0.05	-0.750			
0.0582	3724.27	4.0620	4.0619	-0.7458	25.01	-0.05	-0.750			
0.0604	3867.06	4.0590	4.0588	-0.7472	25.01	-0.05	-0.750			
0.0627	4010.31	4.0560	4.0559	-0.7482	25.01	-0.05	-0.750			
0.0649	4154.20	4.0530	4.0530	-0.7528	25.01	-0.05	-0.750			
0.0672	4298.91	4.0500	4.0500	-0.7551	25.02	-0.04	-0.750			
0.0695	4448.33	4.0470	4.0468	-0.7594	25.02	-0.04	-0.750			
0.0718	4593.78	4.0440	4.0442	-0.7629	25.02	-0.04	-0.750			
0.0741	4739.27	4.0410	4.0410	-0.7647	25.02	-0.04	-0.750			
0.0763	4886.14	4.0380	4.0379	-0.7653	25.02	-0.04	-0.750			
0.0786	5031.21	4.0350	4.0349	-0.7618	25.02	-0.04	-0.750			
0.0810	5183.14	4.0320	4.0321	-0.7729	25.02	-0.04	-0.750			
0.0833	5330.87	4.0290	4.0289	-0.7699	25.02	-0.04	-0.750			
0.0856	5478.34	4.0260	4.0259	-0.7709	25.02	-0.04	-0.750			
0.0879	5624.53	4.0230	4.0230	-0.7766	25.02	-0.04	-0.750			
0.0902	5773.18	4.0200	4.0200	-0.7741	25.03	-0.03	-0.750			
0.0925	5922.71	4.0170	4.0170	-0.7746	25.03	-0.03	-0.750			
0.0949	6073.35	4.0140	4.0139	-0.7786	25.03	-0.03	-0.750			
0.0972	6222.96	4.0110	4.0111	-0.7797	25.03	-0.03	-0.750			
0.0995	6370.41	4.0080	4.0079	-0.7839	25.03	-0.03	-0.750			
0.1019	6521.40	4.0050	4.0050	-0.7827	25.03	-0.03	-0.750			
0.1042	6671.56	4.0020	4.0020	-0.7800	25.04	-0.02	-0.750			
0.1066	6823.85	3.9990	3.9990	-0.7872	25.04	-0.02	-0.750			
0.1090	6975.12	3.9960	3.9965	-0.7912	25.04	-0.02	-0.750			
0.1114	7126.42	3.9930	3.9929	-0.7917	25.04	-0.02	-0.750			
0.1137	7278.27	3.9900	3.9900	-0.7929	25.05	-0.01	-0.750			
0.1161	7430.72	3.9870	3.9871	-0.7951	25.05	-0.01	-0.750			
0.1185	7586.36	3.9840	3.9840	-0.8002	25.06	-0.00	-0.750			
0.1209	7739.39	3.9810	3.9810	-0.7971	25.06	-0.00	-0.750			
0.1233	7890.57	3.9780	3.9780	-0.7983	25.06	0.00	-0.750			
0.1257	8044.15	3.9750	3.9750	-0.8068	25.07	0.01	-0.750			
0.1281	8200.79	3.9720	3.9719	-0.8080	25.07	0.01	-0.750			
0.1306	8356.82	3.9690	3.9689	-0.8072	25.07	0.01	-0.750			
0.1330	8514.96	3.9660	3.9662	-0.8033	25.08	0.02	-0.750			
0.1355	8669.75	3.9630	3.9628	-0.7913	25.08	0.02	-0.750			
0.1378	8818.07	3.9600	3.9600	-0.7905	25.09	0.03	-0.750			
0.1401	8966.64	3.9570	3.9571	-0.7915	25.09	0.03	-0.750			
0.1424	9115.12	3.9540	3.9539	-0.7901	25.09	0.03	-0.750			
0.1449	9270.87	3.9510	3.9507	-0.8011	25.10	0.04	-0.750			
0.1473	9425.41	3.9480	3.9482	-0.8047	25.10	0.04	-0.750			
0.1497	9582.61	3.9450	3.9450	-0.8164	25.10	0.04	-0.750			
0.1522	9739.09	3.9420	3.9419	-0.8215	25.10	0.04	-0.750			
0.1546	9894.17	3.9390	3.9390	-0.8156	25.10	0.04	-0.750			
0.1571	10053.50	3.9360	3.9360	-0.8263	25.10	0.04	-0.750			
0.1596	10213.70	3.9330	3.9331	-0.8312	25.10	0.04	-0.750			
0.1620	10371.12	3.9300	3.9300	-0.8465	25.11	0.05	-0.750			
0.1647	10537.68	3.9270	3.9269	-0.8434	25.11	0.05	-0.750			
0.1672	10700.20	3.9240	3.9237	-0.8385	25.11	0.05	-0.750			
0.1697	10861.89	3.9210	3.9209	-0.8378	25.12	0.06	-0.750			
0.1722	11023.72	3.9180	3.9178	-0.8341	25.12	0.06	-0.750			
0.1747	11180.35	3.9150	3.9149	-0.8440	25.13	0.07	-0.750			
0.1772	11343.99	3.9120	3.9120	-0.8384	25.13	0.07	-0.750			
0.1797	11503.80	3.9090	3.9089	-0.8493	25.13	0.07	-0.750			
0.1823	11667.61	3.9060	3.9059	-0.8445	25.14	0.08	-0.750			
0.1849	11830.44	3.9030	3.9030	-0.8381	25.14	0.08	-0.750			
0.1873	11988.29	3.9000	3.8999	-0.8430	25.15	0.09	-0.750			
0.1898	12148.10	3.8970	3.8970	-0.8438	25.15	0.09	-0.750			
0.1923	12306.46	3.8940	3.8940	-0.8419	25.15	0.09	-0.750			
0.1949	12474.71	3.8910	3.8908	-0.8518	25.16	0.10	-0.750			
0.1975	12638.57	3.8880	3.8880	-0.8519	25.16	0.10	-0.750			
0.2001	12803.99	3.8850	3.8851	-0.8679	25.17	0.11	-0.750			
0.2027	12973.05	3.8820	3.8817	-0.8668	25.17	0.11	-0.750			
0.2053	13138.60	3.8790	3.8789	-0.8527	25.17	0.11	-0.750			
0.2079	13304.59	3.8760	3.8759	-0.8556	25.18	0.12	-0.750			
0.2105	13469.18	3.8730	3.8728	-0.8539	25.18	0.12	-0.750			
0.2130	13632.18	3.8700	3.8698	-0.8603	25.18	0.12	-0.750			
0.2155	13792.96	3.8670	3.8669	-0.8510	25.19	0.13	-0.750			
0.2181	13959.15	3.8640	3.8639	-0.8567	25.19	0.13	-0.750			
0.2207	14124.82	3.8610	3.8613	-0.8566	25.19	0.13	-0.750			
0.2233	14289.52	3.8580	3.8579	-0.8513	25.19	0.13	-0.750			
0.2258	14450.06	3.8550	3.8550	-0.8508	25.20	0.14	-0.750			
0.2283	14612.68	3.8520	3.8520	-0.8502	25.20	0.14	-0.750			
0.2308	14773.18	3.8490	3.8491	-0.8434	25.21	0.15	-0.750			
0.2335	14941.03	3.8460	3.8461	-0.8534	25.21	0.15	-0.750			
0.2359	15100.69	3.8430	3.8431	-0.8673	25.21	0.15	-0.750			
0.2386	15267.91	3.8400	3.8400	-0.8596	25.21	0.15	-0.750			
0.2412	15437.15	3.8370	3.8368	-0.8474	25.22	0.16	-0.750			
0.2437	15599.27	3.8340	3.8339	-0.8363	25.22	0.16	-0.750			
0.2463	15761.32	3.8310	3.8318	-0.8346	25.22	0.16	-0.750			
0.2487	15919.83	3.8280	3.8279	-0.8258	25.23	0.17	-0.750			
0.2511	16073.56	3.8250	3.8248	-0.8288	25.23	0.17	-0.750			
0.2536	16233.29	3.8220	3.8220	-0.8231	25.24	0.18	-0.750			
0.2562	16395.02	3.8190	3.8188	-0.8304	25.24	0.18	-0.750			
0.2587	16555.50	3.8160	3.8164	-0.8259	25.25	0.19	-0.750			
0.2611	16713.51	3.8130	3.8130	-0.8187	25.25	0.19	-0.750			
0.2636	16868.56	3.8100	3.8098	-0.8160	25.25	0.19	-0.750			
0.2660	17021.98	3.8070	3.8070	-0.8083	25.26	0.20	-0.750			
0.2684	17179.00	3.8040	3.8038	-0.8066	25.26	0.20	-0.750			
0.2709	17334.79	3.8010	3.8011	-0.8005	25.26	0.20	-0.750			
0.2732	17486.86	3.7980	3.7980	-0.7994	25.26	0.20	-0.750			
0.2756	17639.53	3.7950	3.7949	-0.8046	25.26	0.20	-0.750			
0.2780	17794.32	3.7920	3.7919	-0.7998	25.27	0.21	-0.750			
0.2805	17949.40	3.7890	3.7889	-0.7911	25.27	0.21	-0.750			
0.2829	18103.99	3.7860	3.7862	-0.7904	25.27	0.21	-0.750			
0.2852	18255.04	3.7830	3.7828	-0.7884	25.27	0.21	-0.750			
0.2875	18401.43	3.7800	3.7799	-0.7918	25.27	0.21	-0.750			
0.2899	18553.11	3.7770	3.7769	-0.7769	25.27	0.21	-0.750			
0.2922	18699.78	3.7740	3.7740	-0.7689	25.28	0.22	-0.750			
0.2946	18852.08	3.7710	3.7709	-0.7813	25.28	0.22	-0.750			
0.2969	19001.49	3.7680	3.7682	-0.7826	25.28	0.22	-0.750			
0.2992	19149.07	3.7650	3.7648	-0.7838	25.28	0.22	-0.750			
0.3016	19299.21	3.7620	3.7619	-0.7863	25.28	0.22	-0.750			
0.3039	19451.51	3.7590	3.7591	-0.8008	25.29	0.23	-0.750			
0.3064	19607.03	3.7560	3.7560	-0.8019	25.29	0.23	-0.750			
0.3088	19760.64	3.7530	3.7532	-0.8052	25.29	0.23	-0.750			
0.3111	19912.78	3.7500	3.7500	-0.8079	25.29	0.23	-0.750			
0.3135	20066.30	3.7470	3.7471	-0.8288	25.29	0.23	-0.750			
0.3161	20232.33	3.7440	3.7437	-0.8268	25.30	0.24	-0.750			
0.3187	20393.70	3.7410	3.7409	-0.8382	25.30	0.24	-0.750			
0.3211	20553.52	3.7380	3.7388	-0.8480	25.30	0.24	-0.750			
0.3237	20717.82	3.7350	3.7347	-0.8583	25.30	0.24	-0.750			
0.3263	20883.31	3.7320	3.7317	-0.8716	25.30	0.24	-0.750			
0.3289	21049.45	3.7290	3.7290	-0.8762	25.30	0.24	-0.750			
0.3316	21222.28	3.7260	3.7259	-0.8995	25.30	0.24	-0.750			
0.3343	21397.13	3.7230	3.7233	-0.9098	25.30	0.24	-0.750			
0.3370	21569.74	3.7200	3.7199	-0.9155	25.29	0.23	-0.750			
0.3398	21745.10	3.7170	3.7169	-0.9262	25.29	0.23	-0.750			
0.3425	21920.89	3.7140	3.7140	-0.9323	25.29	0.23	-0.750			
0.3454	22107.00	3.7110	3.7111	-0.9652	25.28	0.22	-0.750			
0.3483	22292.34	3.7080	3.7079	-1.0002	25.28	0.22	-0.750			
0.3514	22489.42	3.7050	3.7049	-1.0159	25.28	0.22	-0.750			
0.3545	22690.26	3.7020	3.7017	-1.0257	25.27	0.21	-0.750			
0.3576	22887.98	3.6990	3.6990	-1.0361	25.27	0.21	-0.750	0.369	0.499	
0.3608	23088.98	3.6960	3.6959	-1.0609	25.27	0.21	-0.750			
0.3640	23292.97	3.6930	3.6928	-1.0690	25.26	0.20	-0.750			
0.3671	23497.57	3.6900	3.6898	-1.0832	25.26	0.20	-0.750			
0.3703	23699.58	3.6870	3.6870	-1.0975	25.25	0.19	-0.750			
0.3738	23921.54	3.6840	3.6840	-1.1371	25.24	0.18	-0.750			
0.3772	24142.04	3.6810	3.6808	-1.1503	25.24	0.18	-0.750			
0.3807	24362.42	3.6780	3.6780	-1.1629	25.23	0.17	-0.750			
0.3842	24587.63	3.6750	3.6752	-1.1960	25.22	0.16	-0.750			
0.3879	24825.60	3.6720	3.6719	-1.2223	25.21	0.15	-0.750			
0.3916	25062.40	3.6690	3.6688	-1.2360	25.21	0.15	-0.750			
0.3953	25299.21	3.6660	3.6658	-1.2640	25.20	0.14	-0.750			
0.3992	25547.27	3.6630	3.6628	-1.2861	25.20	0.14	-0.750			
0.4030	25795.08	3.6600	3.6599	-1.2990	25.19	0.13	-0.750			
0.4069	26041.89	3.6570	3.6568	-1.3158	25.18	0.12	-0.750			
0.4109	26294.81	3.6540	3.6540	-1.3704	25.18	0.12	-0.750			
0.4150	26562.88	3.6510	3.6508	-1.3849	25.17	0.11	-0.750			
0.4192	26830.79	3.6480	3.6479	-1.4184	25.16	0.10	-0.750			
0.4237	27114.35	3.6450	3.6446	-1.4443	25.16	0.10	-0.750			
0.4280	27392.18	3.6420	3.6419	-1.4735	25.15	0.09	-0.750			
0.4325	27677.78	3.6390	3.6392	-1.4822	25.14	0.08	-0.750			
0.4369	27959.78	3.6360	3.6356	-1.5017	25.13	0.07	-0.750			
0.4413	28244.07	3.6330	3.6327	-1.4983	25.12	0.06	-0.750			
0.4460	28544.61	3.6300	3.6298	-1.5352	25.10	0.04	-0.750			
0.4506	28836.02	3.6270	3.6275	-1.5740	25.09	0.03	-0.750			
0.4556	29156.37	3.6240	3.6236	-1.6404	25.09	0.03	-0.750			
0.4605	29470.94	3.6210	3.6207	-1.6376	25.08	0.02	-0.750			
0.4655	29789.76	3.6180	3.6182	-1.7080	25.07	0.01	-0.750			
0.4708	30132.37	3.6150	3.6155	-1.7450	25.06	0.00	-0.750			
0.4761	30467.33	3.6120	3.6118	-1.7630	25.05	-0.01	-0.750			
0.4813	30806.12	3.6090	3.6090	-1.7648	25.04	-0.02	-0.750			
0.4867	31146.03	3.6060	3.6058	-1.7976	25.04	-0.02	-0.750			
0.4922	31497.61	3.6030	3.6032	-1.9042	25.04	-0.02	-0.750			
0.4979	31866.68	3.6000	3.5996	-1.9130	25.04	-0.02	-0.750			
0.5038	32245.58	3.5970	3.5966	-1.9548	25.03	-0.03	-0.750			
0.5098	32629.00	3.5940	3.5938	-1.9857	25.02	-0.04	-0.750			
0.5159	33014.90	3.5910	3.5907	-2.0121	25.01	-0.05	-0.750			
0.5219	33400.22	3.5880	3.5880	-2.0319	25.01	-0.05	-0.750			
0.5280	33790.20	3.5850	3.5852	-2.0924	25.00	-0.06	-0.750			
0.5347	34218.93	3.5820	3.5817	-2.1116	25.00	-0.06	-0.750			
0.5411	34631.61	3.5790	3.5792	-2.1441	24.99	-0.07	-0.750			
0.5475	35036.91	3.5760	3.5759	-2.1514	24.98	-0.08	-0.750			
0.5539	35450.77	3.5730	3.5726	-2.1420	24.98	-0.08	-0.750			
0.5603	35858.26	3.5700	3.5697	-2.1676	24.98	-0.08	-0.750			
0.5669	36284.71	3.5670	3.5667	-2.1750	24.98	-0.08	-0.750			
0.5736	36709.87	3.5640	3.5644	-2.1892	24.98	-0.08	-0.750			
0.5805	37152.35	3.5610	3.5609	-2.1850	24.97	-0.09	-0.750			
0.5870	37571.11	3.5580	3.5579	-2.1785	24.97	-0.09	-0.750			
0.5935	37982.89	3.5550	3.5551	-2.1556	24.98	-0.08	-0.750			
0.5997	38379.62	3.5520	3.5519	-2.1366	24.98	-0.08	-0.750			
0.6061	38793.08	3.5490	3.5495	-2.1353	24.98	-0.08	-0.750			
0.6127	39210.42	3.5460	3.5462	-2.1215	24.98	-0.08	-0.750			
0.6189	39611.18	3.5430	3.5424	-2.1098	24.98	-0.08	-0.750			
0.6252	40013.90	3.5400	3.5403	-2.0411	24.99	-0.07	-0.750			
0.6314	40410.60	3.5370	3.5371	-2.0002	25.00	-0.06	-0.750			
0.6375	40799.42	3.5340	3.5338	-1.9742	25.01	-0.05	-0.750			
0.6435	41183.30	3.5310	3.5307	-1.9635	25.02	-0.04	-0.750			
0.6493	41552.74	3.5280	3.5275	-1.8947	25.02	-0.04	-0.750			
0.6550	41921.46	3.5250	3.5248	-1.8493	25.03	-0.03	-0.750			
0.6604	42264.31	3.5220	3.5218	-1.7606	25.04	-0.02	-0.750			
0.6658	42608.77	3.5190	3.5185	-1.7268	25.05	-0.01	-0.750			
0.6707	42926.46	3.5160	3.5160	-1.6610	25.06	-0.00	-0.750			
0.6756	43237.36	3.5130	3.5129	-1.6492	25.07	0.01	-0.750			
0.6805	43552.30	3.5100	3.5104	-1.6146	25.09	0.03	-0.750			
0.6854	43865.70	3.5070	3.5069	-1.5804	25.11	0.05	-0.750			
0.6902	44173.84	3.5040	3.5038	-1.5744	25.13	0.07	-0.750			
0.6951	44483.41	3.5010	3.5010	-1.5282	25.15	0.09	-0.750			
0.6997	44780.05	3.4980	3.4975	-1.4742	25.16	0.10	-0.750			
0.7039	45052.77	3.4950	3.4954	-1.3969	25.18	0.12	-0.750			
0.7079	45303.09	3.4920	3.4920	-1.3350	25.20	0.14	-0.750			
0.7119	45563.56	3.4890	3.4888	-1.2229	25.21	0.15	-0.750			
0.7157	45801.77	3.4860	3.4860	-1.3643	25.23	0.17	-0.750			
