Ah_balance (normalized)	Ah_balance (mAh)	Voltage - fit (V)	Voltage -  interpolate (V)	dQ/dV (1/V)	Temperature (°C)	Temperature - diff (°C)	Current (C)	R_DC 0ms (mOhm)	R_DC 50ms (mOhm)	R_DC 50 ms PEC (mOhm)
0.0006	39.27	4.1580	4.1584	-0.1950	24.85	0.01	-0.750			
0.0012	79.84	4.1550	4.1550	-0.2239	24.85	0.01	-0.750			
0.0019	124.23	4.1520	4.1520	-0.2539	24.85	0.01	-0.750			
0.0027	175.53	4.1490	4.1489	-0.2880	24.85	0.01	-0.750			
0.0036	232.68	4.1460	4.1461	-0.3215	24.84	0.00	-0.750			
0.0047	298.50	4.1430	4.1430	-0.3592	24.84	0.00	-0.750			
0.0058	371.51	4.1400	4.1400	-0.3954	24.84	0.00	-0.750			
0.0070	451.10	4.1370	4.1370	-0.4293	24.84	-0.00	-0.750			
0.0084	538.14	4.1340	4.1341	-0.4627	24.84	-0.00	-0.750			
0.0099	631.07	4.1310	4.1309	-0.4885	24.83	-0.01	-0.750			
0.0114	727.82	4.1280	4.1280	-0.5155	24.83	-0.01	-0.750			
0.0130	829.69	4.1250	4.1251	-0.5431	24.83	-0.01	-0.750			
0.0146	937.46	4.1220	4.1220	-0.5641	24.83	-0.01	-0.750			
0.0164	1048.80	4.1190	4.1187	-0.5855	24.82	-0.02	-0.750			
0.0182	1163.68	4.1160	4.1162	-0.6006	24.82	-0.02	-0.750			
0.0200	1282.05	4.1130	4.1129	-0.6161	24.82	-0.02	-0.750			
0.0219	1401.68	4.1100	4.1100	-0.6260	24.81	-0.03	-0.750			
0.0237	1519.06	4.1070	4.1071	-0.6472	24.81	-0.03	-0.750			
0.0258	1648.30	4.1040	4.1041	-0.6537	24.81	-0.03	-0.750			
0.0278	1778.15	4.1010	4.1007	-0.6672	24.81	-0.03	-0.750			
0.0298	1906.51	4.0980	4.0979	-0.6712	24.80	-0.04	-0.750			
0.0318	2037.45	4.0950	4.0950	-0.6784	24.80	-0.04	-0.750			
0.0338	2166.36	4.0920	4.0919	-0.6823	24.80	-0.04	-0.750			
0.0359	2297.39	4.0890	4.0889	-0.6823	24.79	-0.05	-0.750			
0.0379	2428.51	4.0860	4.0861	-0.6804	24.79	-0.05	-0.750			
0.0401	2565.72	4.0830	4.0828	-0.6890	24.79	-0.05	-0.750			
0.0422	2698.77	4.0800	4.0801	-0.6822	24.78	-0.06	-0.750			
0.0442	2827.97	4.0770	4.0773	-0.6873	24.78	-0.06	-0.750			
0.0462	2958.35	4.0740	4.0737	-0.6856	24.78	-0.06	-0.750			
0.0482	3086.78	4.0710	4.0709	-0.7050	24.79	-0.05	-0.750			
0.0504	3222.57	4.0680	4.0680	-0.7066	24.79	-0.05	-0.750			
0.0525	3362.55	4.0650	4.0649	-0.7200	24.79	-0.05	-0.750			
0.0548	3505.13	4.0620	4.0621	-0.7346	24.80	-0.04	-0.750			
0.0570	3646.51	4.0590	4.0591	-0.7355	24.80	-0.04	-0.750			
0.0591	3782.66	4.0560	4.0559	-0.7512	24.80	-0.04	-0.750			
0.0614	3928.33	4.0530	4.0529	-0.7485	24.80	-0.04	-0.750			
0.0637	4073.98	4.0500	4.0500	-0.7412	24.80	-0.04	-0.750			
0.0659	4219.64	4.0470	4.0467	-0.7454	24.80	-0.04	-0.750			
0.0682	4362.67	4.0440	4.0444	-0.7468	24.80	-0.04	-0.750			
0.0704	4504.18	4.0410	4.0407	-0.7429	24.80	-0.04	-0.750			
0.0725	4642.56	4.0380	4.0379	-0.7486	24.80	-0.04	-0.750			
0.0748	4787.33	4.0350	4.0350	-0.7473	24.80	-0.04	-0.750			
0.0771	4934.60	4.0320	4.0320	-0.7606	24.80	-0.04	-0.750			
0.0794	5081.23	4.0290	4.0290	-0.7589	24.80	-0.04	-0.750			
0.0816	5225.57	4.0260	4.0261	-0.7586	24.80	-0.04	-0.750			
0.0839	5369.83	4.0230	4.0230	-0.7614	24.80	-0.04	-0.750			
0.0862	5514.66	4.0200	4.0199	-0.7629	24.81	-0.03	-0.750			
0.0884	5660.55	4.0170	4.0170	-0.7660	24.81	-0.03	-0.750			
0.0908	5812.60	4.0140	4.0140	-0.7755	24.82	-0.02	-0.750			
0.0932	5961.97	4.0110	4.0109	-0.7693	24.82	-0.02	-0.750			
0.0955	6110.36	4.0080	4.0080	-0.7686	24.82	-0.02	-0.750			
0.0977	6255.46	4.0050	4.0050	-0.7775	24.82	-0.02	-0.750			
0.1001	6403.88	4.0020	4.0020	-0.7717	24.83	-0.01	-0.750			
0.1024	6553.54	3.9990	3.9990	-0.7660	24.83	-0.01	-0.750			
0.1047	6701.70	3.9960	3.9959	-0.7714	24.83	-0.01	-0.750			
0.1070	6849.02	3.9930	3.9929	-0.7736	24.83	-0.01	-0.750			
0.1093	6997.18	3.9900	3.9900	-0.7780	24.83	-0.01	-0.750			
0.1116	7144.81	3.9870	3.9868	-0.7859	24.83	-0.01	-0.750			
0.1140	7295.66	3.9840	3.9839	-0.7853	24.84	-0.00	-0.750			
0.1164	7452.45	3.9810	3.9810	-0.7981	24.84	-0.00	-0.750			
0.1189	7606.93	3.9780	3.9783	-0.7971	24.84	0.00	-0.750			
0.1213	7760.57	3.9750	3.9750	-0.7916	24.84	0.00	-0.750			
0.1236	7911.67	3.9720	3.9719	-0.7940	24.84	0.00	-0.750			
0.1260	8061.56	3.9690	3.9690	-0.7862	24.85	0.01	-0.750			
0.1283	8212.69	3.9660	3.9660	-0.7888	24.85	0.01	-0.750			
0.1307	8362.95	3.9630	3.9629	-0.7907	24.85	0.01	-0.750			
0.1330	8514.81	3.9600	3.9600	-0.7960	24.85	0.01	-0.750			
0.1354	8667.70	3.9570	3.9569	-0.8142	24.85	0.01	-0.750			
0.1379	8826.33	3.9540	3.9539	-0.8174	24.86	0.02	-0.750			
0.1404	8985.27	3.9510	3.9509	-0.8108	24.86	0.02	-0.750			
0.1429	9145.60	3.9480	3.9483	-0.8140	24.86	0.02	-0.750			
0.1453	9300.48	3.9450	3.9449	-0.8059	24.86	0.02	-0.750			
0.1477	9451.63	3.9420	3.9418	-0.8002	24.87	0.03	-0.750			
0.1501	9603.26	3.9390	3.9390	-0.7965	24.87	0.03	-0.750			
0.1523	9750.39	3.9360	3.9360	-0.7969	24.87	0.03	-0.750			
0.1549	9910.98	3.9330	3.9330	-0.8136	24.88	0.04	-0.750			
0.1573	10067.76	3.9300	3.9300	-0.8179	24.88	0.04	-0.750			
0.1597	10223.40	3.9270	3.9269	-0.8273	24.88	0.04	-0.750			
0.1623	10385.27	3.9240	3.9241	-0.8276	24.88	0.04	-0.750			
0.1647	10543.94	3.9210	3.9209	-0.8294	24.88	0.04	-0.750			
0.1673	10705.74	3.9180	3.9179	-0.8239	24.88	0.04	-0.750			
0.1697	10863.17	3.9150	3.9150	-0.8163	24.88	0.04	-0.750			
0.1722	11018.56	3.9120	3.9120	-0.8288	24.89	0.05	-0.750			
0.1747	11178.90	3.9090	3.9088	-0.8263	24.89	0.05	-0.750			
0.1772	11338.16	3.9060	3.9058	-0.8199	24.89	0.05	-0.750			
0.1797	11498.15	3.9030	3.9028	-0.8227	24.90	0.06	-0.750			
0.1821	11655.65	3.9000	3.8998	-0.8229	24.90	0.06	-0.750			
0.1846	11814.09	3.8970	3.8969	-0.8236	24.91	0.07	-0.750			
0.1870	11968.11	3.8940	3.8939	-0.8131	24.91	0.07	-0.750			
0.1894	12119.68	3.8910	3.8911	-0.8050	24.91	0.07	-0.750			
0.1919	12281.66	3.8880	3.8880	-0.8259	24.92	0.08	-0.750			
0.1944	12440.25	3.8850	3.8851	-0.8256	24.92	0.08	-0.750			
0.1968	12597.55	3.8820	3.8819	-0.8299	24.93	0.09	-0.750			
0.1994	12758.83	3.8790	3.8790	-0.8271	24.93	0.09	-0.750			
0.2019	12919.73	3.8760	3.8760	-0.8247	24.93	0.09	-0.750			
0.2043	13077.90	3.8730	3.8729	-0.8234	24.94	0.10	-0.750			
0.2068	13234.70	3.8700	3.8702	-0.8196	24.94	0.10	-0.750			
0.2092	13390.83	3.8670	3.8670	-0.8076	24.94	0.10	-0.750			
0.2117	13549.78	3.8640	3.8638	-0.8178	24.94	0.10	-0.750			
0.2142	13705.75	3.8610	3.8610	-0.8114	24.95	0.11	-0.750			
0.2167	13866.17	3.8580	3.8577	-0.8093	24.95	0.11	-0.750			
0.2191	14021.88	3.8550	3.8552	-0.8038	24.95	0.11	-0.750			
0.2214	14170.81	3.8520	3.8519	-0.7997	24.95	0.11	-0.750			
0.2238	14321.85	3.8490	3.8490	-0.7911	24.95	0.11	-0.750			
0.2261	14469.65	3.8460	3.8459	-0.7709	24.96	0.12	-0.750			
0.2285	14623.80	3.8430	3.8430	-0.7944	24.96	0.12	-0.750			
0.2309	14775.69	3.8400	3.8403	-0.7905	24.96	0.12	-0.750			
0.2333	14928.07	3.8370	3.8368	-0.7949	24.96	0.12	-0.750			
0.2356	15081.45	3.8340	3.8338	-0.7881	24.96	0.12	-0.750			
0.2380	15233.17	3.8310	3.8311	-0.7831	24.97	0.13	-0.750			
0.2404	15385.64	3.8280	3.8281	-0.7869	24.97	0.13	-0.750			
0.2427	15535.31	3.8250	3.8249	-0.7805	24.97	0.13	-0.750			
0.2450	15682.26	3.8220	3.8219	-0.7777	24.97	0.13	-0.750			
0.2473	15828.00	3.8190	3.8190	-0.7831	24.97	0.13	-0.750			
0.2497	15979.55	3.8160	3.8158	-0.7775	24.97	0.13	-0.750			
0.2521	16131.75	3.8130	3.8130	-0.7783	24.98	0.14	-0.750			
0.2544	16282.82	3.8100	3.8100	-0.7747	24.98	0.14	-0.750			
0.2567	16430.25	3.8070	3.8070	-0.7642	24.98	0.14	-0.750			
0.2590	16575.22	3.8040	3.8039	-0.7635	24.98	0.14	-0.750			
0.2612	16717.53	3.8010	3.8009	-0.7611	24.98	0.14	-0.750			
0.2635	16863.02	3.7980	3.7980	-0.7624	24.99	0.15	-0.750			
0.2659	17014.49	3.7950	3.7948	-0.7634	24.99	0.15	-0.750			
0.2682	17161.68	3.7920	3.7922	-0.7625	24.99	0.15	-0.750			
0.2704	17307.41	3.7890	3.7890	-0.7618	24.99	0.15	-0.750			
0.2727	17451.71	3.7860	3.7860	-0.7626	24.99	0.15	-0.750			
0.2749	17596.76	3.7830	3.7828	-0.7619	25.00	0.16	-0.750			
0.2772	17741.17	3.7800	3.7800	-0.7623	25.00	0.16	-0.750			
0.2795	17890.88	3.7770	3.7770	-0.7724	25.00	0.16	-0.750			
0.2819	18040.20	3.7740	3.7741	-0.7781	25.00	0.16	-0.750			
0.2841	18184.93	3.7710	3.7710	-0.8002	25.00	0.16	-0.750			
0.2867	18345.62	3.7680	3.7680	-0.7975	25.00	0.16	-0.750			
0.2891	18500.05	3.7650	3.7647	-0.8014	25.01	0.17	-0.750			
0.2915	18655.57	3.7620	3.7619	-0.8038	25.01	0.17	-0.750			
0.2939	18810.08	3.7590	3.7594	-0.8073	25.01	0.17	-0.750			
0.2963	18962.31	3.7560	3.7558	-0.8085	25.01	0.17	-0.750			
0.2987	19114.94	3.7530	3.7529	-0.8070	25.01	0.17	-0.750			
0.3010	19266.78	3.7500	3.7501	-0.8088	25.02	0.18	-0.750			
0.3036	19431.16	3.7470	3.7470	-0.8426	25.02	0.18	-0.750			
0.3061	19593.06	3.7440	3.7444	-0.8482	25.02	0.18	-0.750			
0.3087	19757.16	3.7410	3.7410	-0.8619	25.02	0.18	-0.750			
0.3113	19923.16	3.7380	3.7379	-0.8663	25.02	0.18	-0.750			
0.3139	20091.92	3.7350	3.7350	-0.8733	25.01	0.17	-0.750			
0.3166	20260.11	3.7320	3.7319	-0.8812	25.01	0.17	-0.750			
0.3192	20427.64	3.7290	3.7292	-0.8910	25.01	0.17	-0.750			
0.3218	20598.07	3.7260	3.7260	-0.9052	25.01	0.17	-0.750			
0.3246	20775.49	3.7230	3.7229	-0.9131	25.01	0.17	-0.750			
0.3274	20952.94	3.7200	3.7199	-0.9213	25.00	0.16	-0.750			
0.3302	21131.05	3.7170	3.7169	-0.9385	25.00	0.16	-0.750			
0.3330	21309.67	3.7140	3.7137	-0.9619	25.00	0.16	-0.750			
0.3359	21496.16	3.7110	3.7110	-0.9648	24.99	0.15	-0.750			
0.3388	21683.69	3.7080	3.7079	-0.9760	24.99	0.15	-0.750			
0.3418	21874.95	3.7050	3.7050	-1.0005	24.98	0.14	-0.750			
0.3448	22066.14	3.7020	3.7020	-1.0205	24.98	0.14	-0.750			
0.3479	22262.85	3.6990	3.6996	-1.0247	24.98	0.14	-0.750	0.397	0.554	
0.3509	22458.15	3.6960	3.6957	-1.0329	24.97	0.13	-0.750			
0.3540	22656.68	3.6930	3.6930	-1.0380	24.97	0.13	-0.750			
0.3572	22862.61	3.6900	3.6900	-1.0770	24.97	0.13	-0.750			
0.3605	23071.86	3.6870	3.6869	-1.0801	24.97	0.13	-0.750			
0.3638	23280.34	3.6840	3.6839	-1.0909	24.96	0.12	-0.750			
0.3670	23488.75	3.6810	3.6811	-1.1012	24.96	0.12	-0.750			
0.3704	23704.31	3.6780	3.6778	-1.1362	24.96	0.12	-0.750			
0.3738	23922.43	3.6750	3.6748	-1.1433	24.95	0.11	-0.750			
0.3772	24142.67	3.6720	3.6720	-1.1619	24.95	0.11	-0.750			
0.3806	24360.63	3.6690	3.6693	-1.1882	24.94	0.10	-0.750			
0.3844	24604.16	3.6660	3.6659	-1.2129	24.93	0.09	-0.750			
0.3881	24835.61	3.6630	3.6629	-1.2235	24.93	0.09	-0.750			
0.3916	25065.53	3.6600	3.6600	-1.2533	24.92	0.08	-0.750			
0.3955	25312.43	3.6570	3.6569	-1.2751	24.92	0.08	-0.750			
0.3994	25561.29	3.6540	3.6539	-1.2981	24.91	0.07	-0.750			
0.4033	25809.32	3.6510	3.6508	-1.3182	24.90	0.06	-0.750			
0.4073	26067.37	3.6480	3.6480	-1.3418	24.90	0.06	-0.750			
0.4113	26326.13	3.6450	3.6449	-1.3522	24.89	0.05	-0.750			
0.4153	26581.02	3.6420	3.6419	-1.3813	24.89	0.05	-0.750			
0.4193	26836.94	3.6390	3.6395	-1.4209	24.88	0.04	-0.750			
0.4239	27129.40	3.6360	3.6358	-1.4460	24.87	0.03	-0.750			
0.4283	27412.23	3.6330	3.6328	-1.4854	24.86	0.02	-0.750			
0.4329	27703.80	3.6300	3.6296	-1.5171	24.86	0.02	-0.750			
0.4376	28005.50	3.6270	3.6265	-1.5257	24.85	0.01	-0.750			
0.4422	28300.17	3.6240	3.6242	-1.5521	24.84	0.00	-0.750			
0.4468	28592.58	3.6210	3.6212	-1.5675	24.83	-0.01	-0.750			
0.4515	28897.62	3.6180	3.6175	-1.5941	24.83	-0.01	-0.750			
0.4565	29216.83	3.6150	3.6148	-1.6693	24.82	-0.02	-0.750			
0.4615	29533.40	3.6120	3.6123	-1.6634	24.81	-0.03	-0.750			
0.4667	29869.59	3.6090	3.6094	-1.7477	24.80	-0.04	-0.750			
0.4720	30205.00	3.6060	3.6057	-1.7580	24.80	-0.04	-0.750			
0.4773	30545.58	3.6030	3.6026	-1.7459	24.80	-0.04	-0.750			
0.4825	30879.16	3.6000	3.5995	-1.7762	24.80	-0.04	-0.750			
0.4878	31217.24	3.5970	3.5968	-1.8439	24.79	-0.05	-0.750			
0.4934	31575.98	3.5940	3.5939	-1.8666	24.78	-0.06	-0.750			
0.4988	31923.87	3.5910	3.5912	-1.9054	24.78	-0.06	-0.750			
0.5048	32307.93	3.5880	3.5887	-1.9646	24.78	-0.06	-0.750			
0.5109	32698.15	3.5850	3.5848	-1.9714	24.77	-0.07	-0.750			
0.5167	33069.31	3.5820	3.5822	-1.9489	24.76	-0.08	-0.750			
0.5224	33435.96	3.5790	3.5793	-1.9780	24.76	-0.08	-0.750			
0.5286	33829.63	3.5760	3.5759	-2.0438	24.76	-0.08	-0.750			
0.5347	34217.94	3.5730	3.5732	-2.0533	24.76	-0.08	-0.750			
0.5411	34628.04	3.5700	3.5701	-2.0952	24.76	-0.08	-0.750			
0.5475	35042.98	3.5670	3.5669	-2.1196	24.76	-0.08	-0.750			
0.5538	35445.04	3.5640	3.5640	-2.1659	24.76	-0.08	-0.750			
0.5602	35853.54	3.5610	3.5613	-2.2067	24.76	-0.08	-0.750			
0.5670	36289.03	3.5580	3.5571	-2.2047	24.76	-0.08	-0.750			
0.5739	36727.78	3.5550	3.5552	-2.1961	24.76	-0.08	-0.750			
0.5808	37171.05	3.5520	3.5520	-2.1953	24.76	-0.08	-0.750			
0.5872	37581.49	3.5490	3.5492	-2.1213	24.77	-0.07	-0.750			
0.5933	37969.96	3.5460	3.5463	-2.0227	24.78	-0.06	-0.750			
0.5994	38358.49	3.5430	3.5430	-2.0062	24.78	-0.06	-0.750			
0.6051	38724.11	3.5400	3.5398	-1.9272	24.79	-0.05	-0.750			
0.6106	39081.46	3.5370	3.5371	-1.9173	24.80	-0.04	-0.750			
0.6166	39460.94	3.5340	3.5337	-1.8976	24.82	-0.02	-0.750			
0.6222	39820.53	3.5310	3.5309	-1.8614	24.83	-0.01	-0.750			
0.6279	40185.58	3.5280	3.5283	-1.8483	24.83	-0.01	-0.750			
0.6335	40544.02	3.5250	3.5247	-1.8132	24.84	0.00	-0.750			
0.6389	40887.00	3.5220	3.5217	-1.7769	24.85	0.01	-0.750			
0.6440	41218.12	3.5190	3.5192	-1.7214	24.86	0.02	-0.750			
0.6492	41551.06	3.5160	3.5163	-1.7070	24.88	0.04	-0.750			
0.6542	41867.45	3.5130	3.5133	-1.6433	24.89	0.05	-0.750			
0.6591	42181.07	3.5100	3.5096	-1.5845	24.91	0.07	-0.750			
0.6638	42486.32	3.5070	3.5068	-1.5523	24.92	0.08	-0.750			
0.6684	42779.18	3.5040	3.5044	-1.5203	24.94	0.10	-0.750			
0.6729	43068.11	3.5010	3.5007	-1.4677	24.95	0.11	-0.750			
0.6772	43338.53	3.4980	3.4979	-1.4085	24.97	0.13	-0.750			
0.6814	43607.12	3.4950	3.4954	-1.3890	24.98	0.14	-0.750			
0.6855	43875.15	3.4920	3.4919	-1.3620	25.00	0.16	-0.750			
0.6896	44131.32	3.4890	3.4888	-1.3106	25.02	0.18	-0.750			
0.6933	44373.87	3.4860	3.4864	-1.2867	25.04	0.20	-0.750			
0.6972	44618.12	3.4830	3.4829	-1.2332	25.06	0.22	-0.750			
