Ah_balance (normalized)	Ah_balance (mAh)	Voltage - fit (V)	Voltage -  interpolate (V)	dQ/dV (1/V)	Temperature (°C)	Temperature - diff (°C)	Current (C)	R_DC 0ms (mOhm)	R_DC 50ms (mOhm)	R_DC 50 ms PEC (mOhm)
0.0004	26.23	4.1610	4.1605	-0.1308	25.06	0.00	-0.750			
0.0009	55.69	4.1580	4.1579	-0.1748	25.06	0.00	-0.750			
0.0015	94.23	4.1550	4.1551	-0.2166	25.06	-0.00	-0.750			
0.0022	139.74	4.1520	4.1519	-0.2567	25.06	-0.00	-0.750			
0.0030	193.33	4.1490	4.1491	-0.2931	25.05	-0.01	-0.750			
0.0040	254.40	4.1460	4.1460	-0.3303	25.05	-0.01	-0.750			
0.0050	320.53	4.1430	4.1431	-0.3691	25.05	-0.01	-0.750			
0.0062	395.37	4.1400	4.1400	-0.4052	25.04	-0.02	-0.750			
0.0074	476.79	4.1370	4.1369	-0.4368	25.04	-0.02	-0.750			
0.0088	564.08	4.1340	4.1340	-0.4761	25.04	-0.02	-0.750			
0.0103	661.00	4.1310	4.1311	-0.5048	25.03	-0.03	-0.750			
0.0119	762.54	4.1280	4.1277	-0.5291	25.03	-0.03	-0.750			
0.0136	867.60	4.1250	4.1253	-0.5537	25.02	-0.04	-0.750			
0.0152	975.94	4.1220	4.1220	-0.5711	25.02	-0.04	-0.750			
0.0170	1088.50	4.1190	4.1190	-0.5894	25.01	-0.05	-0.750			
0.0188	1201.98	4.1160	4.1160	-0.6068	25.01	-0.05	-0.750			
0.0206	1318.99	4.1130	4.1131	-0.6245	25.01	-0.05	-0.750			
0.0225	1441.80	4.1100	4.1100	-0.6349	25.01	-0.05	-0.750			
0.0245	1564.99	4.1070	4.1069	-0.6497	25.00	-0.06	-0.750			
0.0264	1689.95	4.1040	4.1044	-0.6578	25.00	-0.06	-0.750			
0.0284	1818.64	4.1010	4.1007	-0.6670	25.00	-0.06	-0.750			
0.0304	1947.02	4.0980	4.0981	-0.6768	24.99	-0.07	-0.750			
0.0325	2078.09	4.0950	4.0950	-0.6833	24.99	-0.07	-0.750			
0.0345	2210.62	4.0920	4.0921	-0.6902	24.99	-0.07	-0.750			
0.0366	2344.98	4.0890	4.0888	-0.6965	24.98	-0.08	-0.750			
0.0387	2477.36	4.0860	4.0864	-0.6961	24.98	-0.08	-0.750			
0.0408	2611.83	4.0830	4.0830	-0.7029	24.98	-0.08	-0.750			
0.0430	2752.19	4.0800	4.0799	-0.6954	24.98	-0.08	-0.750			
0.0451	2887.55	4.0770	4.0769	-0.6800	24.98	-0.08	-0.750			
0.0472	3019.39	4.0740	4.0740	-0.6639	24.98	-0.08	-0.750			
0.0491	3140.56	4.0710	4.0714	-0.6585	24.98	-0.08	-0.750			
0.0510	3261.72	4.0680	4.0682	-0.6548	24.98	-0.08	-0.750			
0.0529	3384.15	4.0650	4.0646	-0.6709	24.98	-0.08	-0.750			
0.0548	3507.54	4.0620	4.0620	-0.6874	24.98	-0.08	-0.750			
0.0570	3646.64	4.0590	4.0591	-0.7131	24.98	-0.08	-0.750			
0.0593	3795.64	4.0560	4.0560	-0.7431	24.98	-0.08	-0.750			
0.0615	3939.10	4.0530	4.0530	-0.7372	24.98	-0.08	-0.750			
0.0638	4080.32	4.0500	4.0502	-0.7337	24.98	-0.08	-0.750			
0.0659	4219.15	4.0470	4.0469	-0.7377	24.98	-0.08	-0.750			
0.0681	4358.37	4.0440	4.0441	-0.7503	24.98	-0.08	-0.750			
0.0703	4502.04	4.0410	4.0409	-0.7499	24.98	-0.08	-0.750			
0.0727	4650.63	4.0380	4.0379	-0.7581	24.98	-0.08	-0.750			
0.0750	4796.80	4.0350	4.0350	-0.7605	24.98	-0.08	-0.750			
0.0772	4943.49	4.0320	4.0319	-0.7589	24.98	-0.08	-0.750			
0.0795	5089.18	4.0290	4.0290	-0.7595	24.98	-0.08	-0.750			
0.0818	5235.79	4.0260	4.0259	-0.7602	24.98	-0.08	-0.750			
0.0841	5379.73	4.0230	4.0230	-0.7594	24.98	-0.08	-0.750			
0.0864	5529.05	4.0200	4.0198	-0.7655	24.98	-0.08	-0.750			
0.0887	5676.28	4.0170	4.0183	-0.7643	24.98	-0.08	-0.750			
0.0910	5821.67	4.0140	4.0137	-0.7643	24.98	-0.08	-0.750			
0.0932	5966.81	4.0110	4.0110	-0.7735	24.98	-0.08	-0.750			
0.0956	6116.41	4.0080	4.0079	-0.7713	24.98	-0.08	-0.750			
0.0978	6262.25	4.0050	4.0050	-0.7723	24.98	-0.08	-0.750			
0.1003	6416.30	4.0020	4.0020	-0.7713	24.98	-0.08	-0.750			
0.1026	6564.38	3.9990	3.9988	-0.7706	24.98	-0.08	-0.750			
0.1048	6709.87	3.9960	3.9961	-0.7794	24.98	-0.08	-0.750			
0.1072	6857.76	3.9930	3.9929	-0.7755	24.98	-0.08	-0.750			
0.1095	7007.15	3.9900	3.9899	-0.7785	24.99	-0.07	-0.750			
0.1119	7160.12	3.9870	3.9870	-0.7814	24.99	-0.07	-0.750			
0.1142	7309.71	3.9840	3.9844	-0.7832	24.99	-0.07	-0.750			
0.1165	7458.52	3.9810	3.9810	-0.7965	24.99	-0.07	-0.750			
0.1189	7609.76	3.9780	3.9779	-0.7934	24.99	-0.07	-0.750			
0.1213	7762.04	3.9750	3.9749	-0.7925	25.00	-0.06	-0.750			
0.1237	7919.18	3.9720	3.9719	-0.7973	25.00	-0.06	-0.750			
0.1261	8073.48	3.9690	3.9697	-0.8010	25.00	-0.06	-0.750			
0.1286	8227.61	3.9660	3.9660	-0.7967	25.00	-0.06	-0.750			
0.1309	8377.34	3.9630	3.9629	-0.7947	25.00	-0.06	-0.750			
0.1333	8528.56	3.9600	3.9600	-0.7966	25.00	-0.06	-0.750			
0.1357	8683.71	3.9570	3.9569	-0.8018	25.00	-0.06	-0.750			
0.1381	8837.19	3.9540	3.9540	-0.8002	25.00	-0.06	-0.750			
0.1405	8993.36	3.9510	3.9509	-0.8015	25.00	-0.06	-0.750			
0.1429	9144.24	3.9480	3.9480	-0.8074	25.01	-0.05	-0.750			
0.1453	9299.81	3.9450	3.9449	-0.8097	25.01	-0.05	-0.750			
0.1478	9456.72	3.9420	3.9419	-0.8039	25.01	-0.05	-0.750			
0.1502	9612.69	3.9390	3.9390	-0.8060	25.02	-0.04	-0.750			
0.1526	9768.32	3.9360	3.9360	-0.8027	25.02	-0.04	-0.750			
0.1550	9918.07	3.9330	3.9331	-0.8208	25.02	-0.04	-0.750			
0.1575	10078.20	3.9300	3.9298	-0.8170	25.02	-0.04	-0.750			
0.1599	10233.13	3.9270	3.9268	-0.8078	25.02	-0.04	-0.750			
0.1624	10393.50	3.9240	3.9241	-0.8208	25.02	-0.04	-0.750			
0.1649	10551.23	3.9210	3.9208	-0.8262	25.02	-0.04	-0.750			
0.1673	10709.23	3.9180	3.9178	-0.8236	25.02	-0.04	-0.750			
0.1698	10866.10	3.9150	3.9149	-0.8222	25.02	-0.04	-0.750			
0.1722	11019.86	3.9120	3.9121	-0.8181	25.03	-0.03	-0.750			
0.1748	11186.45	3.9090	3.9090	-0.8294	25.03	-0.03	-0.750			
0.1772	11343.28	3.9060	3.9060	-0.8243	25.03	-0.03	-0.750			
0.1797	11498.31	3.9030	3.9031	-0.8262	25.03	-0.03	-0.750			
0.1822	11660.32	3.9000	3.8998	-0.8333	25.03	-0.03	-0.750			
0.1847	11822.95	3.8970	3.8968	-0.8329	25.04	-0.02	-0.750			
0.1872	11983.45	3.8940	3.8940	-0.8310	25.04	-0.02	-0.750			
0.1898	12144.42	3.8910	3.8908	-0.8288	25.04	-0.02	-0.750			
0.1922	12301.30	3.8880	3.8879	-0.8366	25.04	-0.02	-0.750			
0.1947	12460.42	3.8850	3.8850	-0.8250	25.04	-0.02	-0.750			
0.1971	12613.82	3.8820	3.8820	-0.8145	25.04	-0.02	-0.750			
0.1996	12776.48	3.8790	3.8788	-0.8291	25.04	-0.02	-0.750			
0.2021	12935.69	3.8760	3.8758	-0.8239	25.04	-0.02	-0.750			
0.2046	13091.56	3.8730	3.8729	-0.8223	25.05	-0.01	-0.750			
0.2070	13248.49	3.8700	3.8700	-0.8197	25.05	-0.01	-0.750			
0.2094	13403.05	3.8670	3.8670	-0.8067	25.05	-0.01	-0.750			
0.2119	13564.42	3.8640	3.8639	-0.8209	25.06	-0.00	-0.750			
0.2144	13721.07	3.8610	3.8612	-0.8110	25.06	0.00	-0.750			
0.2168	13874.91	3.8580	3.8581	-0.8084	25.06	0.00	-0.750			
0.2193	14033.48	3.8550	3.8549	-0.8131	25.06	0.00	-0.750			
0.2217	14187.67	3.8520	3.8520	-0.8084	25.06	0.00	-0.750			
0.2241	14344.92	3.8490	3.8489	-0.8055	25.06	0.00	-0.750			
0.2266	14500.64	3.8460	3.8464	-0.8041	25.06	0.00	-0.750			
0.2290	14653.08	3.8430	3.8428	-0.7962	25.06	0.00	-0.750			
0.2313	14804.49	3.8400	3.8400	-0.8016	25.06	0.00	-0.750			
0.2337	14954.85	3.8370	3.8370	-0.7875	25.07	0.01	-0.750			
0.2361	15113.01	3.8340	3.8338	-0.7967	25.07	0.01	-0.750			
0.2385	15264.54	3.8310	3.8308	-0.7903	25.07	0.01	-0.750			
0.2409	15416.48	3.8280	3.8279	-0.7851	25.07	0.01	-0.750			
0.2432	15564.77	3.8250	3.8249	-0.7815	25.07	0.01	-0.750			
0.2455	15712.75	3.8220	3.8220	-0.7730	25.08	0.02	-0.750			
0.2479	15862.76	3.8190	3.8190	-0.7738	25.08	0.02	-0.750			
0.2502	16010.83	3.8160	3.8159	-0.7688	25.08	0.02	-0.750			
0.2525	16157.46	3.8130	3.8131	-0.7677	25.08	0.02	-0.750			
0.2547	16302.05	3.8100	3.8100	-0.7683	25.08	0.02	-0.750			
0.2570	16449.33	3.8070	3.8069	-0.7666	25.08	0.02	-0.750			
0.2593	16596.02	3.8040	3.8040	-0.7636	25.09	0.03	-0.750			
0.2616	16745.35	3.8010	3.8008	-0.7620	25.09	0.03	-0.750			
0.2639	16892.65	3.7980	3.7986	-0.7623	25.09	0.03	-0.750			
0.2662	17037.64	3.7950	3.7950	-0.7615	25.09	0.03	-0.750			
0.2685	17183.88	3.7920	3.7919	-0.7658	25.09	0.03	-0.750			
0.2708	17332.51	3.7890	3.7889	-0.7671	25.10	0.04	-0.750			
0.2731	17480.73	3.7860	3.7859	-0.7700	25.10	0.04	-0.750			
0.2754	17628.02	3.7830	3.7830	-0.7705	25.10	0.04	-0.750			
0.2778	17777.98	3.7800	3.7797	-0.7716	25.10	0.04	-0.750			
0.2801	17924.51	3.7770	3.7769	-0.7633	25.10	0.04	-0.750			
0.2823	18066.89	3.7740	3.7740	-0.7714	25.10	0.04	-0.750			
0.2846	18214.17	3.7710	3.7711	-0.7771	25.10	0.04	-0.750			
0.2870	18371.16	3.7680	3.7678	-0.7918	25.10	0.04	-0.750			
0.2894	18522.26	3.7650	3.7652	-0.7922	25.10	0.04	-0.750			
0.2917	18671.92	3.7620	3.7621	-0.8059	25.10	0.04	-0.750			
0.2942	18829.67	3.7590	3.7589	-0.8062	25.10	0.04	-0.750			
0.2966	18984.42	3.7560	3.7559	-0.8020	25.10	0.04	-0.750			
0.2991	19140.88	3.7530	3.7529	-0.8132	25.10	0.04	-0.750			
0.3015	19297.79	3.7500	3.7505	-0.8200	25.10	0.04	-0.750			
0.3040	19455.53	3.7470	3.7469	-0.8288	25.10	0.04	-0.750			
0.3065	19613.85	3.7440	3.7439	-0.8420	25.09	0.03	-0.750			
0.3090	19775.38	3.7410	3.7409	-0.8408	25.09	0.03	-0.750			
0.3116	19944.78	3.7380	3.7379	-0.8611	25.08	0.02	-0.750			
0.3142	20110.44	3.7350	3.7350	-0.8713	25.08	0.02	-0.750			
0.3168	20274.81	3.7320	3.7318	-0.8852	25.08	0.02	-0.750			
0.3195	20447.39	3.7290	3.7289	-0.8909	25.08	0.02	-0.750			
0.3221	20614.31	3.7260	3.7260	-0.8889	25.07	0.01	-0.750			
0.3249	20793.71	3.7230	3.7229	-0.9187	25.07	0.01	-0.750			
0.3277	20970.98	3.7200	3.7200	-0.9209	25.07	0.01	-0.750			
0.3304	21148.11	3.7170	3.7169	-0.9385	25.06	-0.00	-0.750			
0.3332	21327.98	3.7140	3.7138	-0.9399	25.05	-0.01	-0.750			
0.3361	21508.24	3.7110	3.7110	-0.9521	25.05	-0.01	-0.750			
0.3390	21693.95	3.7080	3.7086	-1.0025	25.04	-0.02	-0.750			
0.3421	21893.66	3.7050	3.7048	-1.0081	25.03	-0.03	-0.750			
0.3452	22089.79	3.7020	3.7017	-1.0147	25.03	-0.03	-0.750			
0.3482	22285.92	3.6990	3.6989	-1.0144	25.02	-0.04	-0.750	0.384	0.531	
0.3513	22484.63	3.6960	3.6970	-1.0300	25.02	-0.04	-0.750			
0.3544	22678.56	3.6930	3.6929	-1.0407	25.02	-0.04	-0.750			
0.3574	22870.93	3.6900	3.6899	-1.0425	25.01	-0.05	-0.750			
0.3605	23073.85	3.6870	3.6869	-1.0779	25.01	-0.05	-0.750			
0.3638	23281.18	3.6840	3.6842	-1.1198	25.00	-0.06	-0.750			
0.3672	23502.00	3.6810	3.6809	-1.1327	24.99	-0.07	-0.750			
0.3707	23724.42	3.6780	3.6779	-1.1461	24.99	-0.07	-0.750			
0.3740	23939.04	3.6750	3.6750	-1.1859	24.98	-0.08	-0.750			
0.3777	24169.63	3.6720	3.6719	-1.1863	24.98	-0.08	-0.750			
0.3813	24403.51	3.6690	3.6687	-1.1905	24.97	-0.09	-0.750			
0.3848	24630.27	3.6660	3.6657	-1.1886	24.97	-0.09	-0.750			
0.3884	24856.65	3.6630	3.6638	-1.1999	24.96	-0.10	-0.750			
0.3920	25090.98	3.6600	3.6599	-1.2467	24.95	-0.11	-0.750			
0.3958	25330.54	3.6570	3.6568	-1.2573	24.94	-0.12	-0.750			
0.3995	25570.32	3.6540	3.6539	-1.2920	24.93	-0.13	-0.750			
0.4036	25829.39	3.6510	3.6507	-1.3232	24.92	-0.14	-0.750			
0.4076	26084.43	3.6480	3.6481	-1.3430	24.91	-0.15	-0.750			
0.4116	26344.77	3.6450	3.6447	-1.3846	24.91	-0.15	-0.750			
0.4158	26612.24	3.6420	3.6417	-1.3921	24.90	-0.16	-0.750			
0.4200	26882.62	3.6390	3.6388	-1.3967	24.89	-0.17	-0.750			
0.4244	27159.20	3.6360	3.6361	-1.4289	24.89	-0.17	-0.750			
0.4288	27441.52	3.6330	3.6327	-1.4502	24.88	-0.18	-0.750			
0.4330	27713.18	3.6300	3.6299	-1.4798	24.87	-0.19	-0.750			
0.4374	27995.71	3.6270	3.6271	-1.5112	24.86	-0.20	-0.750			
0.4419	28281.67	3.6240	3.6237	-1.5750	24.85	-0.21	-0.750			
0.4471	28616.52	3.6210	3.6215	-1.6186	24.85	-0.21	-0.750			
0.4521	28931.58	3.6180	3.6179	-1.6383	24.84	-0.22	-0.750			
0.4571	29253.26	3.6150	3.6148	-1.6285	24.84	-0.22	-0.750			
0.4620	29567.81	3.6120	3.6115	-1.6400	24.83	-0.23	-0.750			
0.4669	29880.24	3.6090	3.6092	-1.6735	24.83	-0.23	-0.750			
0.4718	30193.64	3.6060	3.6056	-1.6909	24.82	-0.24	-0.750			
0.4770	30531.19	3.6030	3.6030	-1.7547	24.82	-0.24	-0.750			
0.4826	30885.18	3.6000	3.6003	-1.8878	24.81	-0.25	-0.750			
0.4884	31260.75	3.5970	3.5971	-1.8610	24.81	-0.25	-0.750			
0.4940	31615.11	3.5940	3.5945	-1.8578	24.80	-0.26	-0.750			
0.4995	31967.09	3.5910	3.5905	-1.8596	24.78	-0.28	-0.750			
0.5050	32319.94	3.5880	3.5885	-1.9032	24.78	-0.28	-0.750			
0.5107	32683.76	3.5850	3.5853	-1.9052	24.78	-0.28	-0.750			
0.5164	33052.67	3.5820	3.5826	-1.9766	24.78	-0.28	-0.750			
0.5228	33461.23	3.5790	3.5790	-2.0153	24.77	-0.29	-0.750			
0.5289	33846.87	3.5760	3.5755	-2.0347	24.77	-0.29	-0.750			
0.5352	34250.52	3.5730	3.5730	-2.0389	24.76	-0.30	-0.750			
0.5413	34644.78	3.5700	3.5700	-2.0616	24.76	-0.30	-0.750			
0.5475	35042.26	3.5670	3.5673	-2.0718	24.76	-0.30	-0.750			
0.5537	35434.15	3.5640	3.5638	-2.1129	24.76	-0.30	-0.750			
0.5604	35866.51	3.5610	3.5605	-2.1211	24.76	-0.30	-0.750			
0.5668	36275.94	3.5580	3.5576	-2.1153	24.76	-0.30	-0.750			
0.5731	36679.76	3.5550	3.5552	-2.1053	24.77	-0.29	-0.750			
0.5792	37068.99	3.5520	3.5522	-2.0137	24.77	-0.29	-0.750			
0.5853	37461.26	3.5490	3.5494	-1.9969	24.77	-0.29	-0.750			
0.5912	37835.32	3.5460	3.5455	-2.0596	24.77	-0.29	-0.750			
0.5974	38231.00	3.5430	3.5430	-1.9971	24.78	-0.28	-0.750			
0.6035	38623.21	3.5400	3.5395	-1.9958	24.78	-0.28	-0.750			
0.6098	39024.06	3.5370	3.5370	-1.9936	24.78	-0.28	-0.750			
0.6153	39378.40	3.5340	3.5337	-1.9582	24.78	-0.28	-0.750			
0.6212	39755.37	3.5310	3.5313	-1.8756	24.79	-0.27	-0.750			
0.6267	40106.76	3.5280	3.5280	-1.8483	24.80	-0.26	-0.750			
0.6321	40452.75	3.5250	3.5253	-1.7908	24.82	-0.24	-0.750			
0.6376	40804.18	3.5220	3.5219	-1.8152	24.84	-0.22	-0.750			
0.6431	41155.27	3.5190	3.5191	-1.7907	24.85	-0.21	-0.750			
0.6483	41489.26	3.5160	3.5158	-1.7261	24.86	-0.20	-0.750			
0.6537	41837.27	3.5130	3.5129	-1.7434	24.87	-0.19	-0.750			
0.6587	42159.59	3.5100	3.5105	-1.6559	24.88	-0.18	-0.750			
0.6638	42481.68	3.5070	3.5071	-1.6176	24.90	-0.16	-0.750			
0.6684	42774.41	3.5040	3.5042	-1.5341	24.91	-0.15	-0.750			
0.6728	43062.01	3.5010	3.5009	-1.5045	24.93	-0.13	-0.750			
0.6774	43355.95	3.4980	3.4980	-1.4568	24.94	-0.12	-0.750			
0.6818	43632.43	3.4950	3.4948	-1.4095	24.96	-0.10	-0.750			
0.6858	43894.26	3.4920	3.4918	-1.3479	24.97	-0.09	-0.750			
0.6899	44152.19	3.4890	3.4892	-1.2887	24.98	-0.08	-0.750			
0.6938	44400.56	3.4860	3.4858	-1.1890	25.00	-0.06	-0.750			
0.6972	44617.80	3.4830	3.4831	-1.0688	25.01	-0.05	-0.750			
