Ah_balance (normalized)	Ah_balance (mAh)	Voltage - fit (V)	Voltage -  interpolate (V)	dQ/dV (1/V)	Temperature (°C)	Temperature - diff (°C)	Current (C)	R_DC 0ms (mOhm)	R_DC 50ms (mOhm)	R_DC 50 ms PEC (mOhm)
0.0003	16.32	4.1600	4.1599	-0.1035	25.30	0.03	-0.750			
0.0007	43.79	4.1570	4.1568	-0.1579	25.30	0.03	-0.750			
0.0012	79.12	4.1540	4.1538	-0.1968	25.29	0.02	-0.750			
0.0019	119.22	4.1510	4.1510	-0.2362	25.29	0.02	-0.750			
0.0026	168.21	4.1480	4.1482	-0.2772	25.29	0.02	-0.750			
0.0035	225.82	4.1450	4.1449	-0.3148	25.29	0.02	-0.750			
0.0045	290.64	4.1420	4.1418	-0.3534	25.28	0.01	-0.750			
0.0057	362.32	4.1390	4.1391	-0.3886	25.28	0.01	-0.750			
0.0069	441.19	4.1360	4.1359	-0.4251	25.28	0.01	-0.750			
0.0082	527.94	4.1330	4.1331	-0.4571	25.27	0.00	-0.750			
0.0097	618.47	4.1300	4.1298	-0.4800	25.27	-0.00	-0.750			
0.0111	713.35	4.1270	4.1270	-0.5050	25.26	-0.01	-0.750			
0.0127	812.75	4.1240	4.1241	-0.5278	25.26	-0.01	-0.750			
0.0143	914.97	4.1210	4.1209	-0.5473	25.25	-0.02	-0.750			
0.0160	1024.69	4.1180	4.1180	-0.5764	25.25	-0.02	-0.750			
0.0178	1138.26	4.1150	4.1148	-0.5934	25.24	-0.03	-0.750			
0.0196	1256.23	4.1120	4.1120	-0.6120	25.23	-0.04	-0.750			
0.0215	1376.41	4.1090	4.1093	-0.6218	25.23	-0.04	-0.750			
0.0234	1497.29	4.1060	4.1059	-0.6347	25.22	-0.05	-0.750			
0.0253	1620.02	4.1030	4.1029	-0.6421	25.22	-0.05	-0.750			
0.0272	1740.79	4.1000	4.1001	-0.6522	25.22	-0.05	-0.750			
0.0292	1866.65	4.0970	4.0982	-0.6617	25.21	-0.06	-0.750			
0.0312	1999.82	4.0940	4.0939	-0.6758	25.21	-0.06	-0.750			
0.0333	2130.05	4.0910	4.0909	-0.6828	25.20	-0.07	-0.750			
0.0354	2262.84	4.0880	4.0880	-0.6855	25.20	-0.07	-0.750			
0.0374	2393.15	4.0850	4.0851	-0.6896	25.20	-0.07	-0.750			
0.0395	2527.34	4.0820	4.0820	-0.6958	25.20	-0.07	-0.750			
0.0416	2660.52	4.0790	4.0789	-0.6980	25.20	-0.07	-0.750			
0.0437	2798.12	4.0760	4.0759	-0.6980	25.20	-0.07	-0.750			
0.0458	2930.30	4.0730	4.0730	-0.7031	25.20	-0.07	-0.750			
0.0479	3065.13	4.0700	4.0700	-0.7095	25.20	-0.07	-0.750			
0.0500	3202.74	4.0670	4.0670	-0.7135	25.20	-0.07	-0.750			
0.0522	3342.25	4.0640	4.0638	-0.7249	25.20	-0.07	-0.750			
0.0544	3484.45	4.0610	4.0609	-0.7264	25.20	-0.07	-0.750			
0.0567	3627.33	4.0580	4.0578	-0.7275	25.20	-0.07	-0.750			
0.0589	3767.33	4.0550	4.0555	-0.7211	25.20	-0.07	-0.750			
0.0609	3900.76	4.0520	4.0519	-0.7199	25.20	-0.07	-0.750			
0.0631	4037.69	4.0490	4.0489	-0.7268	25.20	-0.07	-0.750			
0.0652	4172.27	4.0460	4.0461	-0.7126	25.19	-0.08	-0.750			
0.0675	4318.66	4.0430	4.0430	-0.7363	25.19	-0.08	-0.750			
0.0697	4460.40	4.0400	4.0402	-0.7452	25.19	-0.08	-0.750			
0.0719	4603.27	4.0370	4.0369	-0.7509	25.19	-0.08	-0.750			
0.0742	4748.48	4.0340	4.0339	-0.7534	25.19	-0.08	-0.750			
0.0765	4893.13	4.0310	4.0310	-0.7556	25.19	-0.08	-0.750			
0.0788	5041.25	4.0280	4.0280	-0.7587	25.20	-0.07	-0.750			
0.0811	5188.28	4.0250	4.0252	-0.7622	25.20	-0.07	-0.750			
0.0833	5333.21	4.0220	4.0221	-0.7600	25.20	-0.07	-0.750			
0.0856	5477.78	4.0190	4.0188	-0.7495	25.20	-0.07	-0.750			
0.0878	5619.49	4.0160	4.0160	-0.7476	25.20	-0.07	-0.750			
0.0901	5763.86	4.0130	4.0131	-0.7628	25.20	-0.07	-0.750			
0.0924	5911.93	4.0100	4.0097	-0.7608	25.20	-0.07	-0.750			
0.0947	6061.10	4.0070	4.0068	-0.7670	25.20	-0.07	-0.750			
0.0970	6207.61	4.0040	4.0039	-0.7648	25.20	-0.07	-0.750			
0.0993	6354.40	4.0010	4.0009	-0.7688	25.20	-0.07	-0.750			
0.1016	6503.50	3.9980	3.9980	-0.7787	25.20	-0.07	-0.750			
0.1039	6650.05	3.9950	3.9949	-0.7642	25.20	-0.07	-0.750			
0.1063	6802.50	3.9920	3.9919	-0.7777	25.20	-0.07	-0.750			
0.1086	6951.93	3.9890	3.9894	-0.7769	25.20	-0.07	-0.750			
0.1109	7100.22	3.9860	3.9860	-0.7753	25.20	-0.07	-0.750			
0.1133	7248.44	3.9830	3.9829	-0.7781	25.20	-0.07	-0.750			
0.1155	7394.95	3.9800	3.9799	-0.7721	25.21	-0.06	-0.750			
0.1179	7546.35	3.9770	3.9770	-0.7762	25.21	-0.06	-0.750			
0.1202	7695.28	3.9740	3.9740	-0.7781	25.21	-0.06	-0.750			
0.1226	7844.56	3.9710	3.9710	-0.7802	25.21	-0.06	-0.750			
0.1249	7991.55	3.9680	3.9680	-0.7925	25.21	-0.06	-0.750			
0.1272	8142.94	3.9650	3.9649	-0.7904	25.21	-0.06	-0.750			
0.1296	8297.15	3.9620	3.9619	-0.7944	25.21	-0.06	-0.750			
0.1321	8454.00	3.9590	3.9589	-0.8022	25.21	-0.06	-0.750			
0.1345	8608.39	3.9560	3.9559	-0.7985	25.21	-0.06	-0.750			
0.1369	8762.18	3.9530	3.9530	-0.7898	25.21	-0.06	-0.750			
0.1393	8912.98	3.9500	3.9500	-0.7906	25.21	-0.06	-0.750			
0.1416	9060.90	3.9470	3.9470	-0.7839	25.22	-0.05	-0.750			
0.1440	9213.89	3.9440	3.9440	-0.7921	25.22	-0.05	-0.750			
0.1463	9365.04	3.9410	3.9414	-0.7980	25.22	-0.05	-0.750			
0.1487	9518.77	3.9380	3.9380	-0.8047	25.22	-0.05	-0.750			
0.1512	9675.73	3.9350	3.9349	-0.8124	25.22	-0.05	-0.750			
0.1537	9833.77	3.9320	3.9319	-0.8104	25.23	-0.04	-0.750			
0.1561	9992.00	3.9290	3.9290	-0.8129	25.23	-0.04	-0.750			
0.1585	10146.36	3.9260	3.9265	-0.8089	25.23	-0.04	-0.750			
0.1610	10301.15	3.9230	3.9229	-0.8024	25.23	-0.04	-0.750			
0.1633	10452.87	3.9200	3.9199	-0.8067	25.23	-0.04	-0.750			
0.1657	10606.49	3.9170	3.9170	-0.8051	25.24	-0.03	-0.750			
0.1682	10765.56	3.9140	3.9139	-0.8137	25.24	-0.03	-0.750			
0.1706	10920.75	3.9110	3.9107	-0.8080	25.24	-0.03	-0.750			
0.1731	11076.26	3.9080	3.9080	-0.8069	25.24	-0.03	-0.750			
0.1755	11229.14	3.9050	3.9050	-0.8112	25.24	-0.03	-0.750			
0.1779	11384.43	3.9020	3.9019	-0.8082	25.24	-0.03	-0.750			
0.1803	11540.64	3.8990	3.8989	-0.8123	25.24	-0.03	-0.750			
0.1828	11696.75	3.8960	3.8960	-0.8087	25.24	-0.03	-0.750			
0.1852	11853.80	3.8930	3.8930	-0.8103	25.24	-0.03	-0.750			
0.1876	12006.76	3.8900	3.8900	-0.8152	25.24	-0.03	-0.750			
0.1901	12164.37	3.8870	3.8870	-0.7999	25.25	-0.02	-0.750			
0.1924	12316.71	3.8840	3.8839	-0.7928	25.25	-0.02	-0.750			
0.1948	12470.32	3.8810	3.8810	-0.7973	25.25	-0.02	-0.750			
0.1972	12622.03	3.8780	3.8778	-0.7916	25.25	-0.02	-0.750			
0.1995	12770.62	3.8750	3.8749	-0.7964	25.25	-0.02	-0.750			
0.2020	12924.91	3.8720	3.8720	-0.7889	25.25	-0.02	-0.750			
0.2043	13074.98	3.8690	3.8690	-0.7853	25.26	-0.01	-0.750			
0.2067	13230.69	3.8660	3.8658	-0.7914	25.26	-0.01	-0.750			
0.2091	13381.22	3.8630	3.8631	-0.7853	25.26	-0.01	-0.750			
0.2114	13530.94	3.8600	3.8599	-0.7801	25.26	-0.01	-0.750			
0.2138	13680.16	3.8570	3.8570	-0.7801	25.26	-0.01	-0.750			
0.2161	13828.26	3.8540	3.8540	-0.7714	25.26	-0.01	-0.750			
0.2184	13980.14	3.8510	3.8510	-0.7763	25.26	-0.01	-0.750			
0.2207	14127.82	3.8480	3.8481	-0.7718	25.26	-0.01	-0.750			
0.2230	14275.08	3.8450	3.8449	-0.7706	25.26	-0.01	-0.750			
0.2253	14420.60	3.8420	3.8420	-0.7725	25.26	-0.01	-0.750			
0.2277	14570.16	3.8390	3.8390	-0.7711	25.27	-0.00	-0.750			
0.2300	14718.47	3.8360	3.8360	-0.7652	25.27	-0.00	-0.750			
0.2323	14869.21	3.8330	3.8328	-0.7657	25.27	-0.00	-0.750			
0.2346	15014.69	3.8300	3.8300	-0.7593	25.27	0.00	-0.750			
0.2368	15153.42	3.8270	3.8270	-0.7761	25.27	0.00	-0.750			
0.2392	15306.99	3.8240	3.8239	-0.7640	25.27	0.00	-0.750			
0.2415	15454.16	3.8210	3.8208	-0.7598	25.27	0.00	-0.750			
0.2438	15601.84	3.8180	3.8180	-0.7588	25.27	0.00	-0.750			
0.2461	15749.36	3.8150	3.8161	-0.7536	25.27	0.00	-0.750			
0.2483	15891.91	3.8120	3.8118	-0.7442	25.27	0.00	-0.750			
0.2505	16029.45	3.8090	3.8090	-0.7460	25.27	0.00	-0.750			
0.2527	16169.78	3.8060	3.8059	-0.7420	25.28	0.01	-0.750			
0.2550	16317.84	3.8030	3.8029	-0.7574	25.28	0.01	-0.750			
0.2573	16464.06	3.8000	3.8001	-0.7592	25.28	0.01	-0.750			
0.2595	16609.66	3.7970	3.7970	-0.7631	25.28	0.01	-0.750			
0.2618	16756.15	3.7940	3.7939	-0.7684	25.28	0.01	-0.750			
0.2641	16902.35	3.7910	3.7910	-0.7665	25.28	0.01	-0.750			
0.2664	17049.05	3.7880	3.7880	-0.7670	25.28	0.01	-0.750			
0.2687	17198.60	3.7850	3.7849	-0.7741	25.28	0.01	-0.750			
0.2711	17347.27	3.7820	3.7825	-0.7769	25.28	0.01	-0.750			
0.2734	17496.70	3.7790	3.7789	-0.7785	25.28	0.01	-0.750			
0.2757	17644.73	3.7760	3.7761	-0.7918	25.28	0.01	-0.750			
0.2781	17801.33	3.7730	3.7729	-0.7914	25.29	0.02	-0.750			
0.2805	17954.17	3.7700	3.7699	-0.7966	25.29	0.02	-0.750			
0.2829	18106.57	3.7670	3.7670	-0.8006	25.29	0.02	-0.750			
0.2853	18260.04	3.7640	3.7638	-0.8028	25.29	0.02	-0.750			
0.2877	18413.28	3.7610	3.7608	-0.8089	25.28	0.01	-0.750			
0.2901	18566.87	3.7580	3.7581	-0.8071	25.28	0.01	-0.750			
0.2926	18724.34	3.7550	3.7550	-0.8202	25.28	0.01	-0.750			
0.2950	18882.42	3.7520	3.7521	-0.8243	25.27	0.00	-0.750			
0.2975	19038.74	3.7490	3.7489	-0.8240	25.27	0.00	-0.750			
0.3000	19197.47	3.7460	3.7460	-0.8402	25.27	0.00	-0.750			
0.3025	19359.74	3.7430	3.7427	-0.8518	25.27	0.00	-0.750			
0.3051	19525.75	3.7400	3.7400	-0.8606	25.27	0.00	-0.750			
0.3077	19693.68	3.7370	3.7369	-0.8726	25.27	0.00	-0.750			
0.3103	19858.52	3.7340	3.7339	-0.9016	25.27	-0.00	-0.750			
0.3131	20036.20	3.7310	3.7309	-0.9026	25.27	-0.00	-0.750			
0.3158	20209.79	3.7280	3.7278	-0.9028	25.26	-0.01	-0.750			
0.3185	20385.45	3.7250	3.7248	-0.9169	25.26	-0.01	-0.750			
0.3213	20561.80	3.7220	3.7227	-0.9151	25.26	-0.01	-0.750			
0.3240	20737.32	3.7190	3.7189	-0.9215	25.26	-0.01	-0.750			
0.3267	20911.57	3.7160	3.7159	-0.9222	25.25	-0.02	-0.750			
0.3294	21083.39	3.7130	3.7131	-0.9236	25.25	-0.02	-0.750			
0.3323	21267.56	3.7100	3.7099	-0.9545	25.24	-0.03	-0.750			
0.3351	21446.79	3.7070	3.7070	-0.9989	25.24	-0.03	-0.750			
0.3382	21647.25	3.7040	3.7038	-1.0076	25.23	-0.04	-0.750			
0.3413	21845.94	3.7010	3.7008	-1.0271	25.23	-0.04	-0.750			
0.3445	22044.81	3.6980	3.6985	-1.0346	25.22	-0.05	-0.750	0.405	0.569	
0.3476	22248.53	3.6950	3.6947	-1.0527	25.22	-0.05	-0.750			
0.3508	22450.45	3.6920	3.6918	-1.0538	25.21	-0.06	-0.750			
0.3539	22648.88	3.6890	3.6888	-1.0579	25.21	-0.06	-0.750			
0.3570	22846.27	3.6860	3.6861	-1.0837	25.20	-0.07	-0.750			
0.3603	23060.92	3.6830	3.6828	-1.1297	25.20	-0.07	-0.750			
0.3638	23281.18	3.6800	3.6798	-1.1410	25.19	-0.08	-0.750			
0.3673	23504.13	3.6770	3.6769	-1.1586	25.19	-0.08	-0.750			
0.3707	23727.05	3.6740	3.6744	-1.1805	25.18	-0.09	-0.750			
0.3744	23964.20	3.6710	3.6710	-1.1915	25.17	-0.10	-0.750			
0.3780	24193.91	3.6680	3.6678	-1.1854	25.16	-0.11	-0.750			
0.3814	24408.87	3.6650	3.6650	-1.1988	25.16	-0.11	-0.750			
0.3850	24643.13	3.6620	3.6621	-1.2143	25.15	-0.12	-0.750			
0.3888	24880.43	3.6590	3.6588	-1.2205	25.14	-0.13	-0.750			
0.3924	25114.66	3.6560	3.6556	-1.2283	25.14	-0.13	-0.750			
0.3961	25349.27	3.6530	3.6540	-1.2469	25.13	-0.14	-0.750			
0.3999	25596.79	3.6500	3.6497	-1.2707	25.12	-0.15	-0.750			
0.4038	25841.09	3.6470	3.6469	-1.2860	25.11	-0.16	-0.750			
0.4076	26083.80	3.6440	3.6440	-1.3283	25.10	-0.17	-0.750			
0.4116	26342.02	3.6410	3.6409	-1.3839	25.10	-0.17	-0.750			
0.4158	26608.04	3.6380	3.6378	-1.4564	25.09	-0.18	-0.750			
0.4202	26895.23	3.6350	3.6351	-1.4891	25.08	-0.19	-0.750			
0.4249	27192.45	3.6320	3.6321	-1.5065	25.07	-0.20	-0.750			
0.4296	27497.34	3.6290	3.6288	-1.5476	25.07	-0.20	-0.750			
0.4343	27796.61	3.6260	3.6260	-1.5299	25.06	-0.21	-0.750			
0.4388	28080.76	3.6230	3.6231	-1.5275	25.05	-0.22	-0.750			
0.4433	28371.08	3.6200	3.6201	-1.5431	25.04	-0.23	-0.750			
0.4479	28666.50	3.6170	3.6169	-1.5631	25.04	-0.23	-0.750			
0.4527	28971.70	3.6140	3.6139	-1.6423	25.03	-0.24	-0.750			
0.4577	29292.57	3.6110	3.6110	-1.6746	25.03	-0.24	-0.750			
0.4628	29618.77	3.6080	3.6081	-1.6968	25.03	-0.24	-0.750			
0.4680	29950.34	3.6050	3.6048	-1.7312	25.02	-0.25	-0.750			
0.4731	30279.57	3.6020	3.6017	-1.7254	25.02	-0.25	-0.750			
0.4783	30612.21	3.5990	3.5986	-1.7592	25.01	-0.26	-0.750			
0.4836	30953.27	3.5960	3.5962	-1.8073	25.00	-0.27	-0.750			
0.4890	31295.03	3.5930	3.5932	-1.8373	25.00	-0.27	-0.750			
0.4948	31668.88	3.5900	3.5900	-1.8873	25.00	-0.27	-0.750			
0.5004	32026.49	3.5870	3.5870	-1.9326	25.00	-0.27	-0.750			
0.5063	32400.79	3.5840	3.5840	-1.9417	25.00	-0.27	-0.750			
0.5122	32777.73	3.5810	3.5807	-1.9764	25.00	-0.27	-0.750			
0.5181	33155.59	3.5780	3.5781	-2.0457	25.00	-0.27	-0.750			
0.5243	33552.40	3.5750	3.5747	-2.0648	25.00	-0.27	-0.750			
0.5307	33966.64	3.5720	3.5718	-2.0655	24.99	-0.28	-0.750			
0.5368	34357.64	3.5690	3.5694	-2.0422	24.99	-0.28	-0.750			
0.5430	34750.29	3.5660	3.5661	-2.0486	25.00	-0.27	-0.750			
0.5491	35140.76	3.5630	3.5626	-2.0297	25.00	-0.27	-0.750			
0.5551	35528.72	3.5600	3.5597	-2.0097	25.00	-0.27	-0.750			
0.5612	35916.96	3.5570	3.5573	-2.0257	25.00	-0.27	-0.750			
0.5675	36316.86	3.5540	3.5536	-2.0221	25.01	-0.26	-0.750			
0.5734	36698.02	3.5510	3.5507	-2.0024	25.02	-0.25	-0.750			
0.5793	37072.78	3.5480	3.5483	-1.9560	25.03	-0.24	-0.750			
0.5852	37454.95	3.5450	3.5450	-1.9707	25.04	-0.23	-0.750			
0.5911	37832.33	3.5420	3.5420	-1.9448	25.05	-0.22	-0.750			
0.5968	38196.97	3.5390	3.5390	-1.8999	25.05	-0.22	-0.750			
0.6025	38562.54	3.5360	3.5359	-1.9254	25.07	-0.20	-0.750			
0.6082	38925.93	3.5330	3.5328	-1.8733	25.08	-0.19	-0.750			
0.6138	39283.36	3.5300	3.5299	-1.8399	25.09	-0.18	-0.750			
0.6193	39636.93	3.5270	3.5269	-1.8152	25.11	-0.16	-0.750			
0.6247	39982.48	3.5240	3.5239	-1.7614	25.12	-0.15	-0.750			
0.6300	40321.40	3.5210	3.5209	-1.7367	25.14	-0.13	-0.750			
0.6351	40646.59	3.5180	3.5179	-1.6770	25.16	-0.11	-0.750			
0.6402	40971.03	3.5150	3.5150	-1.6627	25.18	-0.09	-0.750			
0.6450	41278.29	3.5120	3.5121	-1.6129	25.20	-0.07	-0.750			
0.6498	41589.31	3.5090	3.5088	-1.5753	25.22	-0.05	-0.750			
0.6546	41893.96	3.5060	3.5061	-1.5219	25.23	-0.04	-0.750			
0.6591	42182.36	3.5030	3.5033	-1.4582	25.25	-0.02	-0.750			
0.6633	42451.80	3.5000	3.5000	-1.3956	25.27	-0.00	-0.750			
0.6673	42709.83	3.4970	3.4971	-1.3558	25.28	0.01	-0.750			
0.6712	42959.45	3.4940	3.4938	-1.3250	25.29	0.02	-0.750			
0.6752	43213.97	3.4910	3.4909	-1.3003	25.31	0.04	-0.750			
0.6791	43460.54	3.4880	3.4880	-1.2711	25.32	0.05	-0.750			
0.6830	43709.77	3.4850	3.4852	-1.2385	25.34	0.07	-0.750			
0.6866	43943.88	3.4820	3.4819	-1.1692	25.35	0.08	-0.750			
0.6900	44160.10	3.4790	3.4791	-1.0770	25.37	0.10	-0.750			
