Ah_balance (normalized)	Ah_balance (mAh)	Voltage - fit (V)	Voltage -  interpolate (V)	dQ/dV (1/V)	Temperature (°C)	Temperature - diff (°C)	Current (C)	R_DC 0ms (mOhm)	R_DC 50ms (mOhm)	R_DC 50 ms PEC (mOhm)
0.0004	23.47	4.1620	4.1619	-0.1358	24.66	0.00	-0.750			
0.0008	52.59	4.1590	4.1589	-0.1750	24.66	0.00	-0.750			
0.0014	91.64	4.1560	4.1559	-0.2172	24.66	0.00	-0.750			
0.0021	136.83	4.1530	4.1530	-0.2572	24.66	0.00	-0.750			
0.0030	189.93	4.1500	4.1499	-0.2984	24.66	-0.00	-0.750			
0.0039	251.38	4.1470	4.1471	-0.3372	24.66	-0.00	-0.750			
0.0050	320.35	4.1440	4.1439	-0.3745	24.66	-0.00	-0.750			
0.0062	395.64	4.1410	4.1411	-0.4099	24.65	-0.01	-0.750			
0.0075	479.10	4.1380	4.1379	-0.4429	24.65	-0.01	-0.750			
0.0089	567.61	4.1350	4.1351	-0.4759	24.65	-0.01	-0.750			
0.0104	662.87	4.1320	4.1320	-0.5022	24.65	-0.01	-0.750			
0.0119	762.13	4.1290	4.1290	-0.5283	24.64	-0.02	-0.750			
0.0135	866.73	4.1260	4.1259	-0.5533	24.64	-0.02	-0.750			
0.0152	975.57	4.1230	4.1232	-0.5746	24.64	-0.02	-0.750			
0.0170	1087.83	4.1200	4.1201	-0.5949	24.64	-0.02	-0.750			
0.0188	1205.26	4.1170	4.1170	-0.6148	24.63	-0.03	-0.750			
0.0207	1325.11	4.1140	4.1139	-0.6287	24.63	-0.03	-0.750			
0.0227	1449.74	4.1110	4.1110	-0.6377	24.63	-0.03	-0.750			
0.0246	1572.42	4.1080	4.1081	-0.6435	24.62	-0.04	-0.750			
0.0265	1697.36	4.1050	4.1050	-0.6532	24.62	-0.04	-0.750			
0.0285	1822.77	4.1020	4.1019	-0.6619	24.62	-0.04	-0.750			
0.0305	1948.93	4.0990	4.0989	-0.6710	24.62	-0.04	-0.750			
0.0325	2077.99	4.0960	4.0961	-0.6865	24.62	-0.04	-0.750			
0.0346	2212.73	4.0930	4.0929	-0.6969	24.62	-0.04	-0.750			
0.0367	2349.71	4.0900	4.0901	-0.7029	24.62	-0.04	-0.750			
0.0388	2484.75	4.0870	4.0869	-0.7067	24.62	-0.04	-0.750			
0.0409	2620.71	4.0840	4.0840	-0.7092	24.62	-0.04	-0.750			
0.0431	2756.12	4.0810	4.0811	-0.7138	24.62	-0.04	-0.750			
0.0452	2893.37	4.0780	4.0778	-0.7226	24.63	-0.03	-0.750			
0.0474	3033.49	4.0750	4.0751	-0.7266	24.63	-0.03	-0.750			
0.0496	3175.60	4.0720	4.0720	-0.7312	24.64	-0.02	-0.750			
0.0518	3318.27	4.0690	4.0691	-0.7343	24.64	-0.02	-0.750			
0.0540	3457.57	4.0660	4.0660	-0.7365	24.64	-0.02	-0.750			
0.0562	3597.62	4.0630	4.0629	-0.7369	24.64	-0.02	-0.750			
0.0584	3738.62	4.0600	4.0600	-0.7418	24.64	-0.02	-0.750			
0.0606	3881.46	4.0570	4.0570	-0.7414	24.64	-0.02	-0.750			
0.0629	4028.16	4.0540	4.0540	-0.7470	24.64	-0.02	-0.750			
0.0652	4170.69	4.0510	4.0512	-0.7452	24.64	-0.02	-0.750			
0.0674	4313.15	4.0480	4.0479	-0.7427	24.64	-0.02	-0.750			
0.0696	4452.41	4.0450	4.0450	-0.7496	24.65	-0.01	-0.750			
0.0718	4596.36	4.0420	4.0418	-0.7511	24.65	-0.01	-0.750			
0.0741	4743.51	4.0390	4.0390	-0.7588	24.65	-0.01	-0.750			
0.0764	4890.29	4.0360	4.0360	-0.7581	24.66	-0.00	-0.750			
0.0787	5037.74	4.0330	4.0331	-0.7612	24.66	0.00	-0.750			
0.0810	5181.55	4.0300	4.0299	-0.7683	24.67	0.01	-0.750			
0.0832	5327.72	4.0270	4.0270	-0.7647	24.67	0.01	-0.750			
0.0855	5474.00	4.0240	4.0239	-0.7629	24.67	0.01	-0.750			
0.0879	5622.67	4.0210	4.0211	-0.7681	24.68	0.02	-0.750			
0.0902	5772.54	4.0180	4.0183	-0.7695	24.68	0.02	-0.750			
0.0925	5919.27	4.0150	4.0149	-0.7708	24.68	0.02	-0.750			
0.0948	6065.08	4.0120	4.0120	-0.7726	24.69	0.03	-0.750			
0.0971	6212.86	4.0090	4.0091	-0.7749	24.69	0.03	-0.750			
0.0995	6365.06	4.0060	4.0058	-0.7819	24.70	0.04	-0.750			
0.1018	6516.62	4.0030	4.0029	-0.7740	24.70	0.04	-0.750			
0.1042	6665.65	4.0000	4.0002	-0.7690	24.70	0.04	-0.750			
0.1064	6810.70	3.9970	3.9971	-0.7687	24.71	0.05	-0.750			
0.1087	6956.55	3.9940	3.9941	-0.7635	24.71	0.05	-0.750			
0.1110	7103.16	3.9910	3.9908	-0.7631	24.71	0.05	-0.750			
0.1132	7247.94	3.9880	3.9879	-0.7672	24.72	0.06	-0.750			
0.1156	7396.12	3.9850	3.9853	-0.7740	24.72	0.06	-0.750			
0.1179	7546.13	3.9820	3.9820	-0.7912	24.72	0.06	-0.750			
0.1203	7698.62	3.9790	3.9789	-0.7932	24.73	0.07	-0.750			
0.1227	7850.06	3.9760	3.9760	-0.7935	24.73	0.07	-0.750			
0.1251	8006.18	3.9730	3.9730	-0.8004	24.74	0.08	-0.750			
0.1276	8166.56	3.9700	3.9704	-0.7883	24.74	0.08	-0.750			
0.1300	8317.90	3.9670	3.9669	-0.7604	24.75	0.09	-0.750			
0.1322	8460.63	3.9640	3.9642	-0.7448	24.75	0.09	-0.750			
0.1343	8594.51	3.9610	3.9614	-0.7367	24.76	0.10	-0.750			
0.1364	8730.91	3.9580	3.9576	-0.7372	24.76	0.10	-0.750			
0.1386	8869.56	3.9550	3.9546	-0.7503	24.77	0.11	-0.750			
0.1408	9013.42	3.9520	3.9521	-0.7650	24.77	0.11	-0.750			
0.1432	9162.04	3.9490	3.9492	-0.8072	24.77	0.11	-0.750			
0.1458	9331.70	3.9460	3.9459	-0.8183	24.77	0.11	-0.750			
0.1483	9489.67	3.9430	3.9428	-0.8118	24.78	0.12	-0.750			
0.1507	9646.52	3.9400	3.9399	-0.8152	24.78	0.12	-0.750			
0.1532	9802.03	3.9370	3.9370	-0.8172	24.78	0.12	-0.750			
0.1555	9954.77	3.9340	3.9338	-0.8303	24.78	0.12	-0.750			
0.1581	10115.90	3.9310	3.9309	-0.8204	24.79	0.13	-0.750			
0.1605	10269.62	3.9280	3.9280	-0.8156	24.79	0.13	-0.750			
0.1631	10436.68	3.9250	3.9248	-0.8291	24.80	0.14	-0.750			
0.1656	10596.70	3.9220	3.9219	-0.8247	24.80	0.14	-0.750			
0.1680	10751.23	3.9190	3.9189	-0.8256	24.80	0.14	-0.750			
0.1704	10905.85	3.9160	3.9161	-0.8214	24.81	0.15	-0.750			
0.1728	11061.57	3.9130	3.9129	-0.8191	24.81	0.15	-0.750			
0.1754	11227.32	3.9100	3.9100	-0.8383	24.82	0.16	-0.750			
0.1779	11387.32	3.9070	3.9071	-0.8337	24.82	0.16	-0.750			
0.1804	11543.50	3.9040	3.9041	-0.8605	24.82	0.16	-0.750			
0.1830	11712.72	3.9010	3.9009	-0.8509	24.83	0.17	-0.750			
0.1856	11877.94	3.8980	3.8977	-0.8459	24.83	0.17	-0.750			
0.1882	12042.08	3.8950	3.8948	-0.8456	24.84	0.18	-0.750			
0.1907	12204.40	3.8920	3.8920	-0.8358	24.84	0.18	-0.750			
0.1932	12362.46	3.8890	3.8889	-0.8431	24.85	0.19	-0.750			
0.1957	12522.85	3.8860	3.8859	-0.8378	24.85	0.19	-0.750			
0.1981	12680.25	3.8830	3.8829	-0.8458	24.85	0.19	-0.750			
0.2007	12844.97	3.8800	3.8797	-0.8417	24.86	0.20	-0.750			
0.2033	13008.46	3.8770	3.8771	-0.8402	24.86	0.20	-0.750			
0.2057	13167.13	3.8740	3.8740	-0.8412	24.87	0.21	-0.750			
0.2083	13328.04	3.8710	3.8709	-0.8398	24.87	0.21	-0.750			
0.2107	13485.11	3.8680	3.8680	-0.8269	24.87	0.21	-0.750			
0.2133	13649.40	3.8650	3.8649	-0.8384	24.88	0.22	-0.750			
0.2158	13809.76	3.8620	3.8621	-0.8366	24.88	0.22	-0.750			
0.2183	13968.67	3.8590	3.8591	-0.8561	24.89	0.23	-0.750			
0.2209	14134.94	3.8560	3.8559	-0.8384	24.89	0.23	-0.750			
0.2233	14293.98	3.8530	3.8528	-0.8318	24.89	0.23	-0.750			
0.2259	14456.35	3.8500	3.8499	-0.8281	24.90	0.24	-0.750			
0.2284	14615.49	3.8470	3.8469	-0.8269	24.90	0.24	-0.750			
0.2308	14769.68	3.8440	3.8439	-0.8345	24.91	0.25	-0.750			
0.2333	14931.57	3.8410	3.8409	-0.8218	24.91	0.25	-0.750			
0.2358	15089.06	3.8380	3.8378	-0.8269	24.92	0.26	-0.750			
0.2382	15247.01	3.8350	3.8350	-0.8161	24.93	0.27	-0.750			
0.2407	15403.26	3.8320	3.8316	-0.8076	24.93	0.27	-0.750			
0.2431	15556.98	3.8290	3.8289	-0.8050	24.93	0.27	-0.750			
0.2454	15707.78	3.8260	3.8260	-0.7923	24.94	0.28	-0.750			
0.2478	15856.81	3.8230	3.8230	-0.7874	24.94	0.28	-0.750			
0.2502	16014.54	3.8200	3.8200	-0.8021	24.95	0.29	-0.750			
0.2526	16166.83	3.8170	3.8172	-0.7946	24.95	0.29	-0.750			
0.2550	16320.37	3.8140	3.8140	-0.7910	24.95	0.29	-0.750			
0.2574	16471.36	3.8110	3.8110	-0.7916	24.95	0.29	-0.750			
0.2598	16624.25	3.8080	3.8080	-0.7837	24.96	0.30	-0.750			
0.2621	16775.27	3.8050	3.8049	-0.7802	24.96	0.30	-0.750			
0.2644	16922.83	3.8020	3.8018	-0.7732	24.96	0.30	-0.750			
0.2667	17069.76	3.7990	3.7989	-0.7714	24.96	0.30	-0.750			
0.2690	17216.02	3.7960	3.7960	-0.7800	24.97	0.31	-0.750			
0.2714	17367.78	3.7930	3.7929	-0.7732	24.97	0.31	-0.750			
0.2737	17518.20	3.7900	3.7899	-0.7750	24.97	0.31	-0.750			
0.2761	17667.24	3.7870	3.7869	-0.7712	24.98	0.32	-0.750			
0.2784	17814.52	3.7840	3.7839	-0.7665	24.98	0.32	-0.750			
0.2806	17959.40	3.7810	3.7809	-0.7648	24.99	0.33	-0.750			
0.2829	18103.53	3.7780	3.7780	-0.7614	24.99	0.33	-0.750			
0.2851	18248.45	3.7750	3.7750	-0.7636	24.99	0.33	-0.750			
0.2875	18401.53	3.7720	3.7719	-0.7776	25.00	0.34	-0.750			
0.2898	18550.31	3.7690	3.7692	-0.7854	25.00	0.34	-0.750			
0.2922	18701.83	3.7660	3.7660	-0.7896	25.00	0.34	-0.750			
0.2946	18854.49	3.7630	3.7630	-0.8012	25.00	0.34	-0.750			
0.2970	19009.89	3.7600	3.7599	-0.8059	25.00	0.34	-0.750			
0.2995	19167.29	3.7570	3.7569	-0.8121	25.00	0.34	-0.750			
0.3019	19321.72	3.7540	3.7543	-0.8083	25.00	0.34	-0.750			
0.3043	19477.00	3.7510	3.7509	-0.8187	25.00	0.34	-0.750			
0.3067	19631.73	3.7480	3.7479	-0.8236	25.00	0.34	-0.750			
0.3092	19791.79	3.7450	3.7449	-0.8322	25.00	0.34	-0.750			
0.3117	19950.95	3.7420	3.7419	-0.8343	25.00	0.34	-0.750			
0.3143	20116.53	3.7390	3.7392	-0.8524	25.00	0.34	-0.750			
0.3169	20280.98	3.7360	3.7359	-0.8590	25.00	0.34	-0.750			
0.3195	20444.93	3.7330	3.7329	-0.8704	25.00	0.34	-0.750			
0.3221	20611.85	3.7300	3.7300	-0.8793	25.00	0.34	-0.750			
0.3247	20780.71	3.7270	3.7269	-0.8881	25.00	0.34	-0.750			
0.3274	20956.41	3.7240	3.7242	-0.9031	25.00	0.34	-0.750			
0.3302	21130.23	3.7210	3.7210	-0.9242	25.00	0.34	-0.750			
0.3330	21309.73	3.7180	3.7180	-0.9322	25.00	0.34	-0.750			
0.3358	21491.06	3.7150	3.7148	-0.9416	25.00	0.34	-0.750			
0.3387	21674.64	3.7120	3.7119	-0.9440	25.00	0.34	-0.750			
0.3415	21854.10	3.7090	3.7089	-0.9630	25.00	0.34	-0.750			
0.3443	22037.42	3.7060	3.7060	-0.9803	24.99	0.33	-0.750			
0.3473	22225.15	3.7030	3.7029	-0.9986	24.99	0.33	-0.750			
0.3503	22416.61	3.7000	3.6999	-1.0087	24.98	0.32	-0.750			
0.3534	22619.75	3.6970	3.6974	-1.0471	24.98	0.32	-0.750	0.356	0.493	
0.3566	22823.10	3.6940	3.6940	-1.0653	24.97	0.31	-0.750			
0.3599	23032.92	3.6910	3.6910	-1.0807	24.97	0.31	-0.750			
0.3631	23236.10	3.6880	3.6879	-1.0845	24.96	0.30	-0.750			
0.3664	23446.86	3.6850	3.6851	-1.1194	24.96	0.30	-0.750			
0.3698	23669.60	3.6820	3.6819	-1.1313	24.95	0.29	-0.750			
0.3732	23887.36	3.6790	3.6788	-1.1481	24.94	0.28	-0.750			
0.3767	24106.73	3.6760	3.6763	-1.1703	24.93	0.27	-0.750			
0.3803	24336.12	3.6730	3.6729	-1.1840	24.92	0.26	-0.750			
0.3838	24566.09	3.6700	3.6697	-1.1982	24.91	0.25	-0.750			
0.3874	24792.80	3.6670	3.6668	-1.2145	24.91	0.25	-0.750			
0.3911	25031.14	3.6640	3.6642	-1.2398	24.90	0.24	-0.750			
0.3948	25266.72	3.6610	3.6609	-1.2640	24.89	0.23	-0.750			
0.3986	25509.27	3.6580	3.6579	-1.2704	24.89	0.23	-0.750			
0.4024	25752.10	3.6550	3.6554	-1.3142	24.88	0.22	-0.750			
0.4066	26020.47	3.6520	3.6518	-1.3445	24.87	0.21	-0.750			
0.4107	26283.75	3.6490	3.6490	-1.3681	24.87	0.21	-0.750			
0.4148	26549.05	3.6460	3.6469	-1.4015	24.86	0.20	-0.750			
0.4190	26817.02	3.6430	3.6429	-1.4408	24.85	0.19	-0.750			
0.4234	27098.58	3.6400	3.6398	-1.4380	24.85	0.19	-0.750			
0.4278	27376.94	3.6370	3.6374	-1.4437	24.84	0.18	-0.750			
0.4321	27655.31	3.6340	3.6338	-1.4982	24.83	0.17	-0.750			
0.4367	27947.43	3.6310	3.6309	-1.5186	24.83	0.17	-0.750			
0.4413	28240.59	3.6280	3.6277	-1.5149	24.82	0.16	-0.750			
0.4459	28536.69	3.6250	3.6246	-1.5607	24.81	0.15	-0.750			
0.4505	28833.30	3.6220	3.6218	-1.5839	24.80	0.14	-0.750			
0.4555	29152.84	3.6190	3.6184	-1.6409	24.80	0.14	-0.750			
0.4605	29471.16	3.6160	3.6162	-1.6445	24.79	0.13	-0.750			
0.4652	29771.11	3.6130	3.6135	-1.6620	24.78	0.12	-0.750			
0.4702	30095.87	3.6100	3.6105	-1.7159	24.77	0.11	-0.750			
0.4756	30435.72	3.6070	3.6066	-1.7925	24.76	0.10	-0.750			
0.4811	30787.80	3.6040	3.6037	-1.8290	24.75	0.09	-0.750			
0.4867	31150.31	3.6010	3.6007	-1.8356	24.75	0.09	-0.750			
0.4925	31517.39	3.5980	3.5977	-1.8814	24.74	0.08	-0.750			
0.4981	31876.24	3.5950	3.5948	-1.8873	24.73	0.07	-0.750			
0.5037	32234.89	3.5920	3.5918	-1.9151	24.72	0.06	-0.750			
0.5094	32603.04	3.5890	3.5887	-2.0277	24.71	0.05	-0.750			
0.5158	33008.68	3.5860	3.5859	-1.9901	24.71	0.05	-0.750			
0.5218	33395.34	3.5830	3.5830	-2.0246	24.70	0.04	-0.750			
0.5277	33771.35	3.5800	3.5805	-2.0231	24.70	0.04	-0.750			
0.5338	34163.83	3.5770	3.5764	-2.0544	24.69	0.03	-0.750			
0.5401	34567.99	3.5740	3.5742	-2.1022	24.68	0.02	-0.750			
0.5466	34984.81	3.5710	3.5710	-2.1547	24.68	0.02	-0.750			
0.5531	35399.99	3.5680	3.5678	-2.1334	24.68	0.02	-0.750			
0.5595	35810.51	3.5650	3.5651	-2.1376	24.67	0.01	-0.750			
0.5657	36205.49	3.5620	3.5622	-2.1359	24.67	0.01	-0.750			
0.5721	36617.57	3.5590	3.5588	-2.1582	24.66	0.00	-0.750			
0.5788	37040.69	3.5560	3.5559	-2.1550	24.66	0.00	-0.750			
0.5855	37470.19	3.5530	3.5526	-2.1450	24.66	0.00	-0.750			
0.5917	37865.96	3.5500	3.5502	-2.1080	24.66	0.00	-0.750			
0.5981	38275.46	3.5470	3.5473	-2.0742	24.67	0.01	-0.750			
0.6042	38669.36	3.5440	3.5435	-2.0277	24.67	0.01	-0.750			
0.6102	39053.51	3.5410	3.5409	-1.9872	24.68	0.02	-0.750			
0.6163	39440.65	3.5380	3.5379	-1.9607	24.68	0.02	-0.750			
0.6222	39819.30	3.5350	3.5345	-1.9377	24.69	0.03	-0.750			
0.6280	40189.41	3.5320	3.5316	-1.8917	24.70	0.04	-0.750			
0.6336	40548.60	3.5290	3.5291	-1.8456	24.70	0.04	-0.750			
0.6389	40889.45	3.5260	3.5262	-1.8147	24.70	0.04	-0.750			
0.6443	41232.52	3.5230	3.5235	-1.7885	24.71	0.05	-0.750			
0.6496	41574.88	3.5200	3.5202	-1.7485	24.72	0.06	-0.750			
0.6550	41918.02	3.5170	3.5167	-1.6762	24.74	0.08	-0.750			
0.6600	42241.84	3.5140	3.5139	-1.7056	24.75	0.09	-0.750			
0.6651	42566.24	3.5110	3.5106	-1.6369	24.76	0.10	-0.750			
0.6698	42870.11	3.5080	3.5074	-1.5892	24.78	0.12	-0.750			
0.6747	43177.77	3.5050	3.5056	-1.5556	24.79	0.13	-0.750			
0.6792	43469.67	3.5020	3.5014	-1.4986	24.81	0.15	-0.750			
0.6837	43755.54	3.4990	3.4995	-1.4400	24.82	0.16	-0.750			
0.6880	44032.23	3.4960	3.4955	-1.4218	24.83	0.17	-0.750			
0.6923	44305.02	3.4930	3.4928	-1.3968	24.85	0.19	-0.750			
0.6962	44554.68	3.4900	3.4898	-1.3602	24.86	0.20	-0.750			
0.7003	44818.67	3.4870	3.4867	-1.3506	24.87	0.21	-0.750			
0.7043	45073.68	3.4840	3.4839	-1.2718	24.89	0.23	-0.750			
