Ah_balance (normalized)	Ah_balance (mAh)	Voltage - fit (V)	Voltage -  interpolate (V)	dQ/dV (1/V)	Temperature (°C)	Temperature - diff (°C)	Current (C)	R_DC 0ms (mOhm)	R_DC 50ms (mOhm)	R_DC 50 ms PEC (mOhm)
0.0001	8.31	4.1650	4.1649	-0.0822	24.95	0.02	-0.750			
0.0004	27.65	4.1620	4.1617	-0.1275	24.95	0.02	-0.750			
0.0009	59.12	4.1590	4.1590	-0.1818	24.95	0.02	-0.750			
0.0015	98.84	4.1560	4.1558	-0.2300	24.94	0.01	-0.750			
0.0023	148.52	4.1530	4.1530	-0.2746	24.94	0.01	-0.750			
0.0032	205.32	4.1500	4.1501	-0.3220	24.94	0.01	-0.750			
0.0043	272.94	4.1470	4.1470	-0.3631	24.94	0.01	-0.750			
0.0054	347.71	4.1440	4.1440	-0.4008	24.93	0.00	-0.750			
0.0067	428.35	4.1410	4.1409	-0.4358	24.93	0.00	-0.750			
0.0081	516.57	4.1380	4.1379	-0.4706	24.93	-0.00	-0.750			
0.0095	610.86	4.1350	4.1349	-0.5010	24.92	-0.01	-0.750			
0.0111	710.55	4.1320	4.1320	-0.5283	24.92	-0.01	-0.750			
0.0127	814.88	4.1290	4.1291	-0.5525	24.92	-0.01	-0.750			
0.0145	924.80	4.1260	4.1259	-0.5811	24.91	-0.02	-0.750			
0.0162	1038.87	4.1230	4.1230	-0.6008	24.91	-0.02	-0.750			
0.0181	1156.88	4.1200	4.1200	-0.6165	24.90	-0.03	-0.750			
0.0199	1276.72	4.1170	4.1170	-0.6322	24.90	-0.03	-0.750			
0.0219	1400.75	4.1140	4.1140	-0.6492	24.90	-0.03	-0.750			
0.0239	1526.77	4.1110	4.1111	-0.6612	24.89	-0.04	-0.750			
0.0259	1654.76	4.1080	4.1079	-0.6767	24.89	-0.04	-0.750			
0.0279	1787.49	4.1050	4.1050	-0.6813	24.89	-0.04	-0.750			
0.0300	1918.94	4.1020	4.1020	-0.6950	24.88	-0.05	-0.750			
0.0321	2053.18	4.0990	4.0990	-0.7028	24.88	-0.05	-0.750			
0.0342	2189.58	4.0960	4.0958	-0.7077	24.88	-0.05	-0.750			
0.0363	2326.06	4.0930	4.0930	-0.7122	24.88	-0.05	-0.750			
0.0385	2464.23	4.0900	4.0901	-0.7176	24.88	-0.05	-0.750			
0.0407	2602.55	4.0870	4.0869	-0.7186	24.88	-0.05	-0.750			
0.0429	2742.78	4.0840	4.0840	-0.7288	24.88	-0.05	-0.750			
0.0450	2881.08	4.0810	4.0819	-0.7252	24.88	-0.05	-0.750			
0.0472	3020.50	4.0780	4.0779	-0.7303	24.88	-0.05	-0.750			
0.0494	3159.38	4.0750	4.0750	-0.7449	24.88	-0.05	-0.750			
0.0516	3304.05	4.0720	4.0721	-0.7407	24.87	-0.06	-0.750			
0.0539	3448.65	4.0690	4.0689	-0.7484	24.87	-0.06	-0.750			
0.0561	3592.16	4.0660	4.0659	-0.7524	24.87	-0.06	-0.750			
0.0584	3736.27	4.0630	4.0628	-0.7508	24.87	-0.06	-0.750			
0.0606	3880.89	4.0600	4.0599	-0.7534	24.87	-0.06	-0.750			
0.0629	4024.78	4.0570	4.0570	-0.7587	24.87	-0.06	-0.750			
0.0652	4170.91	4.0540	4.0540	-0.7547	24.88	-0.05	-0.750			
0.0675	4320.58	4.0510	4.0509	-0.7632	24.88	-0.05	-0.750			
0.0698	4465.07	4.0480	4.0484	-0.7616	24.88	-0.05	-0.750			
0.0720	4611.08	4.0450	4.0449	-0.7607	24.88	-0.05	-0.750			
0.0743	4756.71	4.0420	4.0419	-0.7698	24.88	-0.05	-0.750			
0.0766	4904.51	4.0390	4.0389	-0.7710	24.88	-0.05	-0.750			
0.0790	5056.65	4.0360	4.0360	-0.7728	24.88	-0.05	-0.750			
0.0813	5204.28	4.0330	4.0329	-0.7684	24.88	-0.05	-0.750			
0.0836	5351.78	4.0300	4.0299	-0.7677	24.88	-0.05	-0.750			
0.0859	5496.39	4.0270	4.0270	-0.7691	24.88	-0.05	-0.750			
0.0881	5639.77	4.0240	4.0239	-0.7772	24.88	-0.05	-0.750			
0.0905	5790.90	4.0210	4.0211	-0.7773	24.88	-0.05	-0.750			
0.0929	5946.14	4.0180	4.0178	-0.7885	24.88	-0.05	-0.750			
0.0953	6098.72	4.0150	4.0153	-0.7877	24.88	-0.05	-0.750			
0.0977	6250.11	4.0120	4.0119	-0.7841	24.88	-0.05	-0.750			
0.1000	6399.54	4.0090	4.0090	-0.7954	24.88	-0.05	-0.750			
0.1024	6551.89	4.0060	4.0058	-0.7869	24.89	-0.04	-0.750			
0.1048	6705.64	4.0030	4.0029	-0.7913	24.89	-0.04	-0.750			
0.1072	6858.16	4.0000	4.0005	-0.7930	24.89	-0.04	-0.750			
0.1095	7009.87	3.9970	3.9970	-0.7933	24.89	-0.04	-0.750			
0.1119	7160.82	3.9940	3.9939	-0.8007	24.89	-0.04	-0.750			
0.1143	7313.24	3.9910	3.9907	-0.7929	24.90	-0.03	-0.750			
0.1167	7468.18	3.9880	3.9881	-0.8027	24.90	-0.03	-0.750			
0.1191	7622.97	3.9850	3.9849	-0.8047	24.90	-0.03	-0.750			
0.1215	7779.12	3.9820	3.9819	-0.8056	24.90	-0.03	-0.750			
0.1240	7933.93	3.9790	3.9788	-0.7955	24.90	-0.03	-0.750			
0.1263	8080.85	3.9760	3.9761	-0.7996	24.90	-0.03	-0.750			
0.1287	8236.57	3.9730	3.9731	-0.8108	24.90	-0.03	-0.750			
0.1312	8393.81	3.9700	3.9697	-0.8128	24.90	-0.03	-0.750			
0.1336	8549.61	3.9670	3.9671	-0.8131	24.90	-0.03	-0.750			
0.1360	8703.84	3.9640	3.9641	-0.8239	24.90	-0.03	-0.750			
0.1385	8865.34	3.9610	3.9610	-0.8236	24.90	-0.03	-0.750			
0.1410	9024.40	3.9580	3.9578	-0.8170	24.91	-0.02	-0.750			
0.1435	9181.92	3.9550	3.9550	-0.8204	24.91	-0.02	-0.750			
0.1459	9340.46	3.9520	3.9520	-0.8222	24.91	-0.02	-0.750			
0.1484	9496.32	3.9490	3.9489	-0.8269	24.91	-0.02	-0.750			
0.1509	9655.24	3.9460	3.9460	-0.8201	24.91	-0.02	-0.750			
0.1533	9811.18	3.9430	3.9430	-0.8125	24.92	-0.01	-0.750			
0.1558	9970.73	3.9400	3.9399	-0.8224	24.92	-0.01	-0.750			
0.1583	10129.40	3.9370	3.9367	-0.8195	24.92	-0.01	-0.750			
0.1607	10283.24	3.9340	3.9338	-0.8227	24.93	-0.00	-0.750			
0.1631	10439.74	3.9310	3.9311	-0.8267	24.93	-0.00	-0.750			
0.1656	10598.44	3.9280	3.9281	-0.8252	24.93	0.00	-0.750			
0.1682	10763.53	3.9250	3.9247	-0.8384	24.94	0.01	-0.750			
0.1707	10923.35	3.9220	3.9222	-0.8397	24.94	0.01	-0.750			
0.1732	11083.85	3.9190	3.9191	-0.8375	24.94	0.01	-0.750			
0.1757	11247.43	3.9160	3.9158	-0.8446	24.94	0.01	-0.750			
0.1782	11406.86	3.9130	3.9129	-0.8411	24.94	0.01	-0.750			
0.1808	11570.57	3.9100	3.9100	-0.8498	24.94	0.01	-0.750			
0.1834	11737.09	3.9070	3.9067	-0.8542	24.94	0.01	-0.750			
0.1859	11900.35	3.9040	3.9039	-0.8663	24.95	0.02	-0.750			
0.1885	12067.03	3.9010	3.9010	-0.8661	24.95	0.02	-0.750			
0.1911	12233.52	3.8980	3.8978	-0.8592	24.95	0.02	-0.750			
0.1938	12404.06	3.8950	3.8947	-0.8634	24.96	0.03	-0.750			
0.1964	12567.08	3.8920	3.8919	-0.8574	24.96	0.03	-0.750			
0.1989	12730.27	3.8890	3.8890	-0.8576	24.96	0.03	-0.750			
0.2015	12892.90	3.8860	3.8859	-0.8534	24.97	0.04	-0.750			
0.2040	13057.49	3.8830	3.8829	-0.8656	24.97	0.04	-0.750			
0.2066	13221.94	3.8800	3.8801	-0.8667	24.97	0.04	-0.750			
0.2092	13388.17	3.8770	3.8770	-0.8714	24.97	0.04	-0.750			
0.2118	13558.03	3.8740	3.8739	-0.8726	24.97	0.04	-0.750			
0.2145	13725.58	3.8710	3.8710	-0.8647	24.98	0.05	-0.750			
0.2170	13890.76	3.8680	3.8680	-0.8616	24.98	0.05	-0.750			
0.2196	14057.35	3.8650	3.8650	-0.8618	24.98	0.05	-0.750			
0.2221	14215.93	3.8620	3.8620	-0.8800	24.98	0.05	-0.750			
0.2248	14388.38	3.8590	3.8589	-0.8641	24.99	0.06	-0.750			
0.2274	14556.32	3.8560	3.8558	-0.8641	24.99	0.06	-0.750			
0.2301	14723.49	3.8530	3.8528	-0.8684	25.00	0.07	-0.750			
0.2326	14889.57	3.8500	3.8507	-0.8650	25.00	0.07	-0.750			
0.2352	15051.72	3.8470	3.8468	-0.8642	25.00	0.07	-0.750			
0.2378	15217.37	3.8440	3.8439	-0.8605	25.00	0.07	-0.750			
0.2403	15382.17	3.8410	3.8410	-0.8722	25.01	0.08	-0.750			
0.2429	15548.50	3.8380	3.8378	-0.8694	25.01	0.08	-0.750			
0.2455	15715.07	3.8350	3.8351	-0.8681	25.01	0.08	-0.750			
0.2481	15879.77	3.8320	3.8321	-0.8758	25.02	0.09	-0.750			
0.2508	16049.51	3.8290	3.8289	-0.8709	25.02	0.09	-0.750			
0.2534	16216.88	3.8260	3.8260	-0.8605	25.02	0.09	-0.750			
0.2560	16387.17	3.8230	3.8229	-0.8582	25.03	0.10	-0.750			
0.2586	16550.56	3.8200	3.8200	-0.8493	25.03	0.10	-0.750			
0.2611	16710.20	3.8170	3.8169	-0.8599	25.03	0.10	-0.750			
0.2636	16873.13	3.8140	3.8137	-0.8521	25.03	0.10	-0.750			
0.2662	17037.64	3.8110	3.8108	-0.8421	25.04	0.11	-0.750			
0.2688	17204.59	3.8080	3.8078	-0.8450	25.04	0.11	-0.750			
0.2714	17368.80	3.8050	3.8049	-0.8420	25.04	0.11	-0.750			
0.2739	17528.29	3.8020	3.8019	-0.8357	25.04	0.11	-0.750			
0.2763	17682.28	3.7990	3.7990	-0.8156	25.05	0.12	-0.750			
0.2787	17838.99	3.7960	3.7959	-0.8254	25.05	0.12	-0.750			
0.2812	17996.44	3.7930	3.7930	-0.8215	25.05	0.12	-0.750			
0.2837	18154.13	3.7900	3.7898	-0.8138	25.05	0.12	-0.750			
0.2861	18307.51	3.7870	3.7870	-0.8264	25.05	0.12	-0.750			
0.2886	18468.79	3.7840	3.7839	-0.8184	25.05	0.12	-0.750			
0.2910	18624.74	3.7810	3.7809	-0.8160	25.06	0.13	-0.750			
0.2935	18785.50	3.7780	3.7779	-0.8119	25.06	0.13	-0.750			
0.2959	18939.89	3.7750	3.7748	-0.8006	25.06	0.13	-0.750			
0.2983	19091.26	3.7720	3.7720	-0.8037	25.07	0.14	-0.750			
0.3007	19243.59	3.7690	3.7689	-0.7960	25.07	0.14	-0.750			
0.3030	19391.69	3.7660	3.7660	-0.7885	25.07	0.14	-0.750			
0.3055	19548.99	3.7630	3.7629	-0.7987	25.08	0.15	-0.750			
0.3078	19700.98	3.7600	3.7597	-0.7975	25.08	0.15	-0.750			
0.3102	19853.98	3.7570	3.7570	-0.8075	25.08	0.15	-0.750			
0.3126	20008.08	3.7540	3.7540	-0.8113	25.08	0.15	-0.750			
0.3151	20164.95	3.7510	3.7509	-0.8120	25.08	0.15	-0.750			
0.3175	20319.99	3.7480	3.7480	-0.8173	25.08	0.15	-0.750			
0.3200	20481.09	3.7450	3.7453	-0.8237	25.08	0.15	-0.750			
0.3225	20639.46	3.7420	3.7420	-0.8258	25.08	0.15	-0.750			
0.3250	20796.92	3.7390	3.7389	-0.8411	25.08	0.15	-0.750			
0.3275	20959.09	3.7360	3.7358	-0.8493	25.08	0.15	-0.750			
0.3301	21123.56	3.7330	3.7329	-0.8597	25.08	0.15	-0.750			
0.3327	21291.14	3.7300	3.7305	-0.8680	25.08	0.15	-0.750			
0.3353	21458.16	3.7270	3.7270	-0.8905	25.08	0.15	-0.750			
0.3380	21631.92	3.7240	3.7239	-0.9032	25.08	0.15	-0.750			
0.3407	21803.06	3.7210	3.7209	-0.9098	25.08	0.15	-0.750			
0.3435	21982.22	3.7180	3.7178	-0.9273	25.08	0.15	-0.750			
0.3463	22160.25	3.7150	3.7149	-0.9447	25.08	0.15	-0.750			
0.3491	22344.46	3.7120	3.7120	-0.9560	25.07	0.14	-0.750			
0.3520	22525.28	3.7090	3.7090	-1.0057	25.07	0.14	-0.750			
0.3550	22720.82	3.7060	3.7059	-1.0148	25.06	0.13	-0.750			
0.3582	22925.33	3.7030	3.7028	-1.0379	25.06	0.13	-0.750			
0.3614	23127.53	3.7000	3.7014	-1.0456	25.05	0.12	-0.750			
0.3646	23333.07	3.6970	3.6966	-1.0533	25.05	0.12	-0.750	0.389	0.506	
0.3677	23530.54	3.6940	3.6938	-1.0634	25.04	0.11	-0.750			
0.3708	23730.50	3.6910	3.6912	-1.0868	25.04	0.11	-0.750			
0.3741	23941.95	3.6880	3.6879	-1.1048	25.03	0.10	-0.750			
0.3776	24164.32	3.6850	3.6847	-1.1251	25.03	0.10	-0.750			
0.3809	24379.52	3.6820	3.6822	-1.1304	25.02	0.09	-0.750			
0.3843	24597.45	3.6790	3.6788	-1.1542	25.02	0.09	-0.750			
0.3878	24818.45	3.6760	3.6759	-1.1658	25.01	0.08	-0.750			
0.3912	25039.21	3.6730	3.6729	-1.1824	25.01	0.08	-0.750			
0.3947	25262.88	3.6700	3.6702	-1.2207	25.00	0.07	-0.750			
0.3987	25515.51	3.6670	3.6669	-1.2650	24.99	0.06	-0.750			
0.4025	25761.34	3.6640	3.6639	-1.2839	24.99	0.06	-0.750			
0.4064	26010.17	3.6610	3.6614	-1.3152	24.98	0.05	-0.750			
0.4103	26257.99	3.6580	3.6579	-1.3633	24.98	0.05	-0.750			
0.4145	26529.27	3.6550	3.6548	-1.3875	24.97	0.04	-0.750			
0.4187	26798.30	3.6520	3.6517	-1.4152	24.96	0.03	-0.750			
0.4231	27077.94	3.6490	3.6485	-1.4770	24.95	0.02	-0.750			
0.4275	27363.11	3.6460	3.6459	-1.5120	24.94	0.01	-0.750			
0.4322	27660.79	3.6430	3.6429	-1.5217	24.93	0.00	-0.750			
0.4369	27960.84	3.6400	3.6402	-1.5283	24.93	-0.00	-0.750			
0.4414	28247.21	3.6370	3.6370	-1.5339	24.92	-0.01	-0.750			
0.4462	28559.31	3.6340	3.6340	-1.5781	24.92	-0.01	-0.750			
0.4509	28860.18	3.6310	3.6306	-1.5864	24.90	-0.03	-0.750			
0.4557	29163.26	3.6280	3.6288	-1.5846	24.89	-0.04	-0.750			
0.4605	29470.94	3.6250	3.6253	-1.6502	24.88	-0.05	-0.750			
0.4656	29799.51	3.6220	3.6223	-1.6887	24.87	-0.06	-0.750			
0.4707	30124.87	3.6190	3.6188	-1.7157	24.86	-0.07	-0.750			
0.4759	30456.50	3.6160	3.6163	-1.7715	24.86	-0.07	-0.750			
0.4814	30809.31	3.6130	3.6125	-1.8097	24.85	-0.08	-0.750			
0.4868	31157.17	3.6100	3.6105	-1.8653	24.84	-0.09	-0.750			
0.4923	31507.89	3.6070	3.6072	-1.8538	24.83	-0.10	-0.750			
0.4979	31868.37	3.6040	3.6041	-1.9028	24.83	-0.10	-0.750			
0.5038	32243.67	3.6010	3.6014	-1.9707	24.82	-0.11	-0.750			
0.5098	32629.98	3.5980	3.5976	-2.0257	24.81	-0.12	-0.750			
0.5160	33023.56	3.5950	3.5945	-2.0991	24.80	-0.13	-0.750			
0.5226	33444.79	3.5920	3.5914	-2.1319	24.80	-0.13	-0.750			
0.5291	33862.01	3.5890	3.5889	-2.1917	24.79	-0.14	-0.750			
0.5357	34283.06	3.5860	3.5858	-2.1751	24.79	-0.14	-0.750			
0.5421	34693.46	3.5830	3.5827	-2.2200	24.78	-0.15	-0.750			
0.5487	35116.08	3.5800	3.5802	-2.2179	24.78	-0.15	-0.750			
0.5554	35548.77	3.5770	3.5773	-2.2345	24.77	-0.16	-0.750			
0.5622	35982.05	3.5740	3.5738	-2.2190	24.77	-0.16	-0.750			
0.5689	36410.61	3.5710	3.5706	-2.2756	24.76	-0.17	-0.750			
0.5756	36840.01	3.5680	3.5685	-2.2486	24.76	-0.17	-0.750			
0.5826	37288.88	3.5650	3.5648	-2.2866	24.76	-0.17	-0.750			
0.5896	37731.65	3.5620	3.5620	-2.3480	24.76	-0.17	-0.750			
0.5965	38174.29	3.5590	3.5593	-2.2808	24.76	-0.17	-0.750			
0.6031	38595.61	3.5560	3.5562	-2.2487	24.76	-0.17	-0.750			
0.6098	39028.21	3.5530	3.5525	-2.2370	24.76	-0.17	-0.750			
0.6165	39458.36	3.5500	3.5498	-2.1795	24.76	-0.17	-0.750			
0.6232	39881.77	3.5470	3.5474	-2.1710	24.76	-0.17	-0.750			
0.6299	40311.92	3.5440	3.5439	-2.1530	24.77	-0.16	-0.750			
0.6362	40718.01	3.5410	3.5409	-2.0803	24.77	-0.16	-0.750			
0.6423	41109.70	3.5380	3.5380	-2.0421	24.78	-0.15	-0.750			
0.6484	41497.65	3.5350	3.5348	-2.0236	24.79	-0.14	-0.750			
0.6546	41891.57	3.5320	3.5317	-1.9694	24.80	-0.13	-0.750			
0.6604	42263.61	3.5290	3.5293	-1.9377	24.80	-0.13	-0.750			
0.6662	42637.50	3.5260	3.5263	-1.9047	24.81	-0.12	-0.750			
0.6718	42993.92	3.5230	3.5228	-1.8357	24.82	-0.11	-0.750			
0.6771	43336.87	3.5200	3.5199	-1.7891	24.84	-0.09	-0.750			
0.6825	43683.07	3.5170	3.5174	-1.7464	24.85	-0.08	-0.750			
0.6876	44007.64	3.5140	3.5142	-1.6761	24.87	-0.06	-0.750			
0.6925	44322.85	3.5110	3.5110	-1.6123	24.88	-0.05	-0.750			
0.6974	44636.79	3.5080	3.5077	-1.5160	24.90	-0.03	-0.750			
0.7020	44929.70	3.5050	3.5045	-1.4502	24.92	-0.01	-0.750			
0.7061	45188.68	3.5020	3.5024	-1.3848	24.93	0.00	-0.750			
0.7100	45437.53	3.4990	3.4987	-1.3193	24.95	0.02	-0.750			
0.7137	45678.60	3.4960	3.4955	-1.2781	24.96	0.03	-0.750			
0.7174	45910.83	3.4930	3.4928	-1.2757	24.97	0.04	-0.750			
0.7213	46161.78	3.4900	3.4898	-1.3237	24.98	0.05	-0.750			
0.7252	46412.70	3.4870	3.4870	-1.1275	25.00	0.07	-0.750			
