Ah_balance (normalized)	Ah_balance (mAh)	Voltage - fit (V)	Voltage -  interpolate (V)	dQ/dV (1/V)	Temperature (°C)	Temperature - diff (°C)	Current (C)	R_DC 0ms (mOhm)	R_DC 50ms (mOhm)	R_DC 50 ms PEC (mOhm)
0.0004	27.61	4.1610	4.1607	-0.1400	24.76	0.02	-0.750			
0.0009	57.34	4.1580	4.1581	-0.1779	24.75	0.01	-0.750			
0.0015	96.34	4.1550	4.1550	-0.2188	24.75	0.01	-0.750			
0.0022	141.37	4.1520	4.1520	-0.2647	24.75	0.01	-0.750			
0.0031	197.14	4.1490	4.1489	-0.3029	24.75	0.01	-0.750			
0.0041	259.76	4.1460	4.1461	-0.3426	24.74	0.00	-0.750			
0.0052	329.78	4.1430	4.1432	-0.3815	24.74	0.00	-0.750			
0.0064	407.45	4.1400	4.1399	-0.4173	24.74	-0.00	-0.750			
0.0077	490.93	4.1370	4.1370	-0.4508	24.73	-0.01	-0.750			
0.0091	581.11	4.1340	4.1340	-0.4809	24.73	-0.01	-0.750			
0.0106	675.74	4.1310	4.1310	-0.5085	24.72	-0.02	-0.750			
0.0122	780.21	4.1280	4.1280	-0.5411	24.72	-0.02	-0.750			
0.0138	886.34	4.1250	4.1250	-0.5621	24.71	-0.03	-0.750			
0.0156	998.43	4.1220	4.1219	-0.5798	24.71	-0.03	-0.750			
0.0174	1113.31	4.1190	4.1190	-0.5891	24.70	-0.04	-0.750			
0.0192	1228.43	4.1160	4.1159	-0.5979	24.70	-0.04	-0.750			
0.0210	1343.19	4.1130	4.1131	-0.6064	24.70	-0.04	-0.750			
0.0228	1456.55	4.1100	4.1101	-0.6190	24.69	-0.05	-0.750			
0.0246	1576.89	4.1070	4.1069	-0.6297	24.69	-0.05	-0.750			
0.0266	1700.45	4.1040	4.1039	-0.6426	24.69	-0.05	-0.750			
0.0285	1825.35	4.1010	4.1009	-0.6597	24.68	-0.06	-0.750			
0.0306	1956.04	4.0980	4.0989	-0.6769	24.68	-0.06	-0.750			
0.0326	2086.12	4.0950	4.0948	-0.6872	24.68	-0.06	-0.750			
0.0346	2216.21	4.0920	4.0920	-0.7001	24.68	-0.06	-0.750			
0.0368	2355.72	4.0890	4.0889	-0.7013	24.68	-0.06	-0.750			
0.0389	2491.75	4.0860	4.0860	-0.7123	24.68	-0.06	-0.750			
0.0411	2630.43	4.0830	4.0830	-0.7185	24.68	-0.06	-0.750			
0.0433	2768.01	4.0800	4.0805	-0.7166	24.68	-0.06	-0.750			
0.0454	2905.74	4.0770	4.0767	-0.7200	24.68	-0.06	-0.750			
0.0475	3041.86	4.0740	4.0742	-0.7223	24.68	-0.06	-0.750			
0.0497	3181.27	4.0710	4.0709	-0.7231	24.68	-0.06	-0.750			
0.0519	3323.68	4.0680	4.0680	-0.7337	24.68	-0.06	-0.750			
0.0541	3463.49	4.0650	4.0650	-0.7289	24.68	-0.06	-0.750			
0.0563	3604.17	4.0620	4.0621	-0.7315	24.68	-0.06	-0.750			
0.0585	3740.97	4.0590	4.0590	-0.7464	24.68	-0.06	-0.750			
0.0607	3885.70	4.0560	4.0561	-0.7488	24.68	-0.06	-0.750			
0.0630	4032.59	4.0530	4.0528	-0.7470	24.69	-0.05	-0.750			
0.0653	4178.03	4.0500	4.0498	-0.7484	24.69	-0.05	-0.750			
0.0675	4322.20	4.0470	4.0471	-0.7509	24.69	-0.05	-0.750			
0.0698	4466.11	4.0440	4.0440	-0.7516	24.69	-0.05	-0.750			
0.0720	4606.47	4.0410	4.0409	-0.7632	24.69	-0.05	-0.750			
0.0743	4755.24	4.0380	4.0379	-0.7596	24.70	-0.04	-0.750			
0.0766	4904.04	4.0350	4.0348	-0.7661	24.70	-0.04	-0.750			
0.0789	5052.40	4.0320	4.0318	-0.7649	24.70	-0.04	-0.750			
0.0813	5200.07	4.0290	4.0288	-0.7606	24.70	-0.04	-0.750			
0.0835	5341.43	4.0260	4.0259	-0.7651	24.70	-0.04	-0.750			
0.0857	5486.81	4.0230	4.0230	-0.7611	24.70	-0.04	-0.750			
0.0880	5630.95	4.0200	4.0200	-0.7588	24.71	-0.03	-0.750			
0.0904	5785.29	4.0170	4.0169	-0.7721	24.71	-0.03	-0.750			
0.0927	5934.17	4.0140	4.0144	-0.7710	24.71	-0.03	-0.750			
0.0950	6081.95	4.0110	4.0108	-0.7685	24.71	-0.03	-0.750			
0.0973	6228.17	4.0080	4.0080	-0.7701	24.71	-0.03	-0.750			
0.0996	6374.04	4.0050	4.0050	-0.7699	24.72	-0.02	-0.750			
0.1019	6524.77	4.0020	4.0020	-0.7830	24.72	-0.02	-0.750			
0.1043	6673.19	3.9990	3.9988	-0.7798	24.72	-0.02	-0.750			
0.1066	6822.37	3.9960	3.9959	-0.7845	24.72	-0.02	-0.750			
0.1089	6970.91	3.9930	3.9930	-0.7977	24.72	-0.02	-0.750			
0.1114	7127.38	3.9900	3.9899	-0.7950	24.72	-0.02	-0.750			
0.1138	7281.46	3.9870	3.9870	-0.7902	24.72	-0.02	-0.750			
0.1162	7435.68	3.9840	3.9839	-0.7924	24.72	-0.02	-0.750			
0.1185	7586.89	3.9810	3.9810	-0.7899	24.72	-0.02	-0.750			
0.1209	7736.69	3.9780	3.9779	-0.7851	24.72	-0.02	-0.750			
0.1232	7885.21	3.9750	3.9749	-0.7879	24.73	-0.01	-0.750			
0.1255	8033.99	3.9720	3.9721	-0.7899	24.73	-0.01	-0.750			
0.1280	8191.33	3.9690	3.9690	-0.8008	24.74	-0.00	-0.750			
0.1304	8346.51	3.9660	3.9661	-0.8042	24.74	-0.00	-0.750			
0.1328	8500.49	3.9630	3.9630	-0.8021	24.74	0.00	-0.750			
0.1352	8653.54	3.9600	3.9601	-0.8171	24.74	0.00	-0.750			
0.1377	8814.43	3.9570	3.9568	-0.8148	24.74	0.00	-0.750			
0.1402	8971.56	3.9540	3.9538	-0.8080	24.74	0.00	-0.750			
0.1426	9127.51	3.9510	3.9515	-0.8134	24.74	0.00	-0.750			
0.1451	9283.60	3.9480	3.9479	-0.8095	24.74	0.00	-0.750			
0.1475	9438.40	3.9450	3.9448	-0.8226	24.75	0.01	-0.750			
0.1500	9598.21	3.9420	3.9419	-0.8159	24.75	0.01	-0.750			
0.1525	9757.34	3.9390	3.9389	-0.8193	24.76	0.02	-0.750			
0.1549	9914.03	3.9360	3.9366	-0.8207	24.76	0.02	-0.750			
0.1574	10071.21	3.9330	3.9328	-0.8185	24.76	0.02	-0.750			
0.1597	10223.77	3.9300	3.9299	-0.8192	24.76	0.02	-0.750			
0.1622	10379.28	3.9270	3.9270	-0.8116	24.76	0.02	-0.750			
0.1647	10539.28	3.9240	3.9240	-0.8297	24.76	0.02	-0.750			
0.1672	10698.19	3.9210	3.9210	-0.8337	24.76	0.02	-0.750			
0.1697	10859.42	3.9180	3.9180	-0.8335	24.76	0.02	-0.750			
0.1722	11019.37	3.9150	3.9149	-0.8411	24.76	0.02	-0.750			
0.1747	11183.92	3.9120	3.9119	-0.8373	24.76	0.02	-0.750			
0.1772	11343.94	3.9090	3.9089	-0.8374	24.76	0.02	-0.750			
0.1798	11508.73	3.9060	3.9063	-0.8428	24.76	0.02	-0.750			
0.1823	11666.83	3.9030	3.9028	-0.8322	24.76	0.02	-0.750			
0.1848	11824.35	3.9000	3.8998	-0.8397	24.77	0.03	-0.750			
0.1873	11987.92	3.8970	3.8969	-0.8372	24.77	0.03	-0.750			
0.1899	12152.69	3.8940	3.8937	-0.8490	24.78	0.04	-0.750			
0.1924	12314.37	3.8910	3.8916	-0.8366	24.78	0.04	-0.750			
0.1949	12473.49	3.8880	3.8878	-0.8340	24.78	0.04	-0.750			
0.1974	12632.87	3.8850	3.8850	-0.8397	24.78	0.04	-0.750			
0.1998	12788.77	3.8820	3.8819	-0.8330	24.79	0.05	-0.750			
0.2024	12955.74	3.8790	3.8790	-0.8463	24.79	0.05	-0.750			
0.2050	13117.05	3.8760	3.8762	-0.8421	24.79	0.05	-0.750			
0.2075	13277.65	3.8730	3.8730	-0.8404	24.79	0.05	-0.750			
0.2100	13438.58	3.8700	3.8698	-0.8503	24.79	0.05	-0.750			
0.2125	13602.64	3.8670	3.8669	-0.8447	24.80	0.06	-0.750			
0.2151	13764.82	3.8640	3.8638	-0.8405	24.80	0.06	-0.750			
0.2177	13931.06	3.8610	3.8615	-0.8407	24.80	0.06	-0.750			
0.2202	14092.86	3.8580	3.8579	-0.8308	24.80	0.06	-0.750			
0.2226	14249.36	3.8550	3.8549	-0.8390	24.81	0.07	-0.750			
0.2252	14410.90	3.8520	3.8519	-0.8328	24.81	0.07	-0.750			
0.2277	14571.84	3.8490	3.8487	-0.8348	24.82	0.08	-0.750			
0.2302	14732.11	3.8460	3.8468	-0.8282	24.82	0.08	-0.750			
0.2327	14890.60	3.8430	3.8429	-0.8284	24.82	0.08	-0.750			
0.2351	15048.27	3.8400	3.8399	-0.8249	24.82	0.08	-0.750			
0.2375	15201.01	3.8370	3.8370	-0.8180	24.82	0.08	-0.750			
0.2400	15362.74	3.8340	3.8339	-0.8244	24.82	0.08	-0.750			
0.2425	15521.13	3.8310	3.8309	-0.8217	24.82	0.08	-0.750			
0.2450	15679.51	3.8280	3.8280	-0.8197	24.82	0.08	-0.750			
0.2474	15835.43	3.8250	3.8250	-0.8251	24.83	0.09	-0.750			
0.2499	15994.46	3.8220	3.8219	-0.8135	24.83	0.09	-0.750			
0.2524	16152.26	3.8190	3.8189	-0.8066	24.84	0.10	-0.750			
0.2548	16307.06	3.8160	3.8162	-0.8012	24.84	0.10	-0.750			
0.2572	16461.25	3.8130	3.8129	-0.7909	24.84	0.10	-0.750			
0.2595	16608.86	3.8100	3.8099	-0.7901	24.84	0.10	-0.750			
0.2619	16758.91	3.8070	3.8070	-0.7845	24.84	0.10	-0.750			
0.2642	16907.06	3.8040	3.8040	-0.7765	24.84	0.10	-0.750			
0.2666	17063.33	3.8010	3.8007	-0.7839	24.84	0.10	-0.750			
0.2689	17211.57	3.7980	3.7979	-0.7785	24.84	0.10	-0.750			
0.2713	17360.04	3.7950	3.7951	-0.7752	24.84	0.10	-0.750			
0.2736	17508.99	3.7920	3.7919	-0.7752	24.84	0.10	-0.750			
0.2759	17655.05	3.7890	3.7890	-0.7646	24.85	0.11	-0.750			
0.2782	17804.04	3.7860	3.7860	-0.7690	24.85	0.11	-0.750			
0.2805	17951.67	3.7830	3.7831	-0.7695	24.85	0.11	-0.750			
0.2828	18100.34	3.7800	3.7800	-0.7700	24.85	0.11	-0.750			
0.2851	18245.68	3.7770	3.7769	-0.7728	24.85	0.11	-0.750			
0.2874	18394.27	3.7740	3.7740	-0.7730	24.86	0.12	-0.750			
0.2897	18543.48	3.7710	3.7709	-0.7778	24.86	0.12	-0.750			
0.2921	18693.87	3.7680	3.7679	-0.7803	24.86	0.12	-0.750			
0.2944	18843.80	3.7650	3.7650	-0.7841	24.86	0.12	-0.750			
0.2967	18991.57	3.7620	3.7619	-0.7980	24.85	0.11	-0.750			
0.2992	19147.48	3.7590	3.7590	-0.7985	24.85	0.11	-0.750			
0.3016	19299.88	3.7560	3.7559	-0.8004	24.85	0.11	-0.750			
0.3040	19457.42	3.7530	3.7529	-0.8120	24.84	0.10	-0.750			
0.3064	19612.46	3.7500	3.7499	-0.8173	24.84	0.10	-0.750			
0.3089	19768.98	3.7470	3.7469	-0.8244	24.84	0.10	-0.750			
0.3114	19927.38	3.7440	3.7440	-0.8257	24.84	0.10	-0.750			
0.3138	20082.89	3.7410	3.7410	-0.8308	24.85	0.11	-0.750			
0.3164	20246.65	3.7380	3.7381	-0.8533	24.85	0.11	-0.750			
0.3189	20411.51	3.7350	3.7349	-0.8588	24.85	0.11	-0.750			
0.3215	20576.13	3.7320	3.7319	-0.8743	24.85	0.11	-0.750			
0.3242	20745.93	3.7290	3.7290	-0.8849	24.85	0.11	-0.750			
0.3268	20918.21	3.7260	3.7261	-0.8956	24.84	0.10	-0.750			
0.3296	21092.30	3.7230	3.7227	-0.9081	24.84	0.10	-0.750			
0.3322	21262.43	3.7200	3.7200	-0.9253	24.84	0.10	-0.750			
0.3351	21443.26	3.7170	3.7169	-0.9383	24.84	0.10	-0.750			
0.3379	21624.54	3.7140	3.7139	-0.9555	24.83	0.09	-0.750			
0.3408	21810.16	3.7110	3.7109	-0.9647	24.83	0.09	-0.750			
0.3438	22000.73	3.7080	3.7076	-0.9865	24.83	0.09	-0.750			
0.3468	22192.11	3.7050	3.7049	-0.9929	24.82	0.08	-0.750			
0.3497	22380.56	3.7020	3.7021	-1.0053	24.81	0.07	-0.750			
0.3527	22571.58	3.6990	3.6990	-1.0098	24.81	0.07	-0.750			
0.3557	22767.63	3.6960	3.6962	-1.0529	24.80	0.06	-0.750	0.400	0.543	
0.3590	22975.12	3.6930	3.6929	-1.0617	24.79	0.05	-0.750			
0.3622	23182.19	3.6900	3.6899	-1.0777	24.79	0.05	-0.750			
0.3655	23391.47	3.6870	3.6869	-1.0950	24.78	0.04	-0.750			
0.3688	23605.59	3.6840	3.6842	-1.1343	24.78	0.04	-0.750			
0.3723	23826.50	3.6810	3.6807	-1.1400	24.77	0.03	-0.750			
0.3757	24047.17	3.6780	3.6778	-1.1526	24.77	0.03	-0.750			
0.3792	24267.11	3.6750	3.6752	-1.1548	24.76	0.02	-0.750			
0.3828	24497.34	3.6720	3.6718	-1.1962	24.75	0.01	-0.750			
0.3864	24726.78	3.6690	3.6689	-1.2061	24.74	0.00	-0.750			
0.3899	24956.40	3.6660	3.6658	-1.2210	24.73	-0.01	-0.750			
0.3937	25196.07	3.6630	3.6632	-1.2663	24.72	-0.02	-0.750			
0.3975	25442.04	3.6600	3.6600	-1.2810	24.71	-0.03	-0.750			
0.4014	25688.71	3.6570	3.6569	-1.2973	24.71	-0.03	-0.750			
0.4053	25938.04	3.6540	3.6545	-1.3314	24.70	-0.04	-0.750			
0.4093	26193.94	3.6510	3.6510	-1.3659	24.69	-0.05	-0.750			
0.4135	26463.25	3.6480	3.6478	-1.3726	24.69	-0.05	-0.750			
0.4177	26730.92	3.6450	3.6448	-1.3874	24.68	-0.06	-0.750			
0.4219	27001.08	3.6420	3.6418	-1.4275	24.67	-0.07	-0.750			
0.4262	27278.02	3.6390	3.6389	-1.4318	24.66	-0.08	-0.750			
0.4306	27557.86	3.6360	3.6359	-1.4537	24.65	-0.09	-0.750			
0.4350	27840.31	3.6330	3.6334	-1.4907	24.64	-0.10	-0.750			
0.4393	28118.04	3.6300	3.6297	-1.5347	24.64	-0.10	-0.750			
0.4442	28430.76	3.6270	3.6267	-1.5613	24.63	-0.11	-0.750			
0.4489	28731.31	3.6240	3.6238	-1.5834	24.62	-0.12	-0.750			
0.4537	29034.30	3.6210	3.6211	-1.6060	24.61	-0.13	-0.750			
0.4586	29352.05	3.6180	3.6179	-1.6402	24.61	-0.13	-0.750			
0.4637	29676.77	3.6150	3.6150	-1.7081	24.60	-0.14	-0.750			
0.4687	29999.93	3.6120	3.6119	-1.7063	24.60	-0.14	-0.750			
0.4740	30334.84	3.6090	3.6089	-1.7716	24.59	-0.15	-0.750			
0.4794	30683.40	3.6060	3.6061	-1.7854	24.57	-0.17	-0.750			
0.4848	31025.92	3.6030	3.6033	-1.8322	24.57	-0.17	-0.750			
0.4901	31369.37	3.6000	3.6003	-1.8777	24.56	-0.18	-0.750			
0.4958	31730.93	3.5970	3.5968	-1.9048	24.56	-0.18	-0.750			
0.5018	32115.07	3.5940	3.5939	-1.9335	24.55	-0.19	-0.750			
0.5075	32478.09	3.5910	3.5914	-2.0275	24.54	-0.20	-0.750			
0.5139	32886.69	3.5880	3.5880	-2.1368	24.53	-0.21	-0.750			
0.5203	33298.36	3.5850	3.5843	-2.2169	24.53	-0.21	-0.750			
0.5273	33747.62	3.5820	3.5823	-2.2723	24.52	-0.22	-0.750			
0.5340	34173.10	3.5790	3.5788	-2.2165	24.52	-0.22	-0.750			
0.5405	34591.14	3.5760	3.5760	-2.1193	24.52	-0.22	-0.750			
0.5468	34996.01	3.5730	3.5732	-2.1549	24.52	-0.22	-0.750			
0.5533	35409.73	3.5700	3.5701	-2.1340	24.52	-0.22	-0.750			
0.5597	35823.30	3.5670	3.5668	-2.1211	24.52	-0.22	-0.750			
0.5663	36240.57	3.5640	3.5640	-2.1479	24.51	-0.23	-0.750			
0.5727	36650.44	3.5610	3.5610	-2.1996	24.51	-0.23	-0.750			
0.5790	37058.27	3.5580	3.5580	-2.1435	24.51	-0.23	-0.750			
0.5858	37489.65	3.5550	3.5547	-2.1818	24.51	-0.23	-0.750			
0.5922	37898.41	3.5520	3.5523	-2.1416	24.52	-0.22	-0.750			
0.5986	38309.27	3.5490	3.5494	-2.1003	24.51	-0.23	-0.750			
0.6049	38711.92	3.5460	3.5461	-2.0889	24.50	-0.24	-0.750			
0.6110	39103.01	3.5430	3.5434	-2.0485	24.51	-0.23	-0.750			
0.6172	39497.65	3.5400	3.5403	-2.0161	24.52	-0.22	-0.750			
0.6232	39885.56	3.5370	3.5371	-1.9850	24.53	-0.21	-0.750			
0.6291	40261.95	3.5340	3.5342	-1.9322	24.54	-0.20	-0.750			
0.6350	40640.36	3.5310	3.5309	-1.8910	24.55	-0.19	-0.750			
0.6406	41001.02	3.5280	3.5277	-1.8600	24.56	-0.18	-0.750			
0.6461	41352.56	3.5250	3.5248	-1.8044	24.57	-0.17	-0.750			
0.6515	41695.56	3.5220	3.5217	-1.7792	24.57	-0.17	-0.750			
0.6566	42025.25	3.5190	3.5189	-1.7468	24.58	-0.16	-0.750			
0.6618	42355.95	3.5160	3.5160	-1.7254	24.60	-0.14	-0.750			
0.6669	42684.22	3.5130	3.5133	-1.6757	24.62	-0.12	-0.750			
0.6720	43005.82	3.5100	3.5101	-1.6279	24.63	-0.11	-0.750			
0.6770	43326.39	3.5070	3.5069	-1.5860	24.65	-0.09	-0.750			
0.6816	43623.93	3.5040	3.5037	-1.5178	24.66	-0.08	-0.750			
0.6859	43900.49	3.5010	3.5012	-1.4664	24.68	-0.06	-0.750			
0.6902	44174.91	3.4980	3.4979	-1.4249	24.69	-0.05	-0.750			
0.6944	44441.72	3.4950	3.4949	-1.3981	24.71	-0.03	-0.750			
0.6987	44715.75	3.4920	3.4920	-1.3848	24.73	-0.01	-0.750			
0.7028	44979.46	3.4890	3.4889	-1.3568	24.75	0.01	-0.750			
0.7068	45233.25	3.4860	3.4860	-1.2557	24.77	0.03	-0.750			
