Ah_balance (normalized)	Ah_balance (mAh)	Voltage - fit (V)	Voltage -  interpolate (V)	dQ/dV (1/V)	Temperature (°C)	Temperature - diff (°C)	Current (C)	R_DC 0ms (mOhm)	R_DC 50ms (mOhm)	R_DC 50 ms PEC (mOhm)
0.0002	9.71	4.1610	4.1618	-0.1271	24.70	0.02	-0.750			
0.0006	39.44	4.1580	4.1579	-0.1746	24.70	0.02	-0.750			
0.0012	76.87	4.1550	4.1550	-0.2109	24.70	0.02	-0.750			
0.0019	120.65	4.1520	4.1520	-0.2468	24.70	0.02	-0.750			
0.0027	170.93	4.1490	4.1492	-0.2838	24.70	0.02	-0.750			
0.0036	228.27	4.1460	4.1459	-0.3230	24.69	0.01	-0.750			
0.0046	294.07	4.1430	4.1431	-0.3606	24.69	0.01	-0.750			
0.0057	366.70	4.1400	4.1399	-0.3976	24.69	0.01	-0.750			
0.0070	448.35	4.1370	4.1371	-0.4321	24.68	0.00	-0.750			
0.0084	535.40	4.1340	4.1339	-0.4641	24.68	-0.00	-0.750			
0.0098	627.60	4.1310	4.1312	-0.4955	24.67	-0.01	-0.750			
0.0113	725.83	4.1280	4.1280	-0.5235	24.67	-0.01	-0.750			
0.0129	826.03	4.1250	4.1250	-0.5549	24.66	-0.02	-0.750			
0.0147	938.36	4.1220	4.1219	-0.5799	24.66	-0.02	-0.750			
0.0165	1055.01	4.1190	4.1190	-0.5943	24.65	-0.03	-0.750			
0.0183	1171.66	4.1160	4.1159	-0.6082	24.65	-0.03	-0.750			
0.0201	1289.50	4.1130	4.1131	-0.6214	24.64	-0.04	-0.750			
0.0220	1409.26	4.1100	4.1098	-0.6295	24.64	-0.04	-0.750			
0.0239	1528.51	4.1070	4.1070	-0.6414	24.63	-0.05	-0.750			
0.0258	1653.12	4.1040	4.1040	-0.6559	24.63	-0.05	-0.750			
0.0279	1784.70	4.1010	4.1010	-0.6758	24.63	-0.05	-0.750			
0.0299	1916.51	4.0980	4.0980	-0.6789	24.62	-0.06	-0.750			
0.0320	2047.90	4.0950	4.0951	-0.6820	24.62	-0.06	-0.750			
0.0340	2178.82	4.0920	4.0919	-0.6868	24.62	-0.06	-0.750			
0.0361	2309.70	4.0890	4.0890	-0.6937	24.62	-0.06	-0.750			
0.0382	2441.82	4.0860	4.0859	-0.6987	24.62	-0.06	-0.750			
0.0402	2574.00	4.0830	4.0831	-0.7096	24.62	-0.06	-0.750			
0.0424	2714.50	4.0800	4.0801	-0.7239	24.62	-0.06	-0.750			
0.0446	2856.21	4.0770	4.0769	-0.7257	24.62	-0.06	-0.750			
0.0468	2997.11	4.0740	4.0737	-0.7275	24.62	-0.06	-0.750			
0.0489	3131.69	4.0710	4.0711	-0.7423	24.62	-0.06	-0.750			
0.0512	3278.54	4.0680	4.0679	-0.7361	24.62	-0.06	-0.750			
0.0535	3421.80	4.0650	4.0648	-0.7350	24.62	-0.06	-0.750			
0.0556	3560.36	4.0620	4.0618	-0.7277	24.62	-0.06	-0.750			
0.0578	3702.18	4.0590	4.0601	-0.7336	24.62	-0.06	-0.750			
0.0600	3842.71	4.0560	4.0558	-0.7344	24.62	-0.06	-0.750			
0.0622	3979.49	4.0530	4.0529	-0.7430	24.62	-0.06	-0.750			
0.0644	4120.15	4.0500	4.0502	-0.7365	24.61	-0.07	-0.750			
0.0667	4268.45	4.0470	4.0469	-0.7535	24.61	-0.07	-0.750			
0.0690	4415.58	4.0440	4.0439	-0.7535	24.61	-0.07	-0.750			
0.0712	4559.51	4.0410	4.0409	-0.7519	24.61	-0.07	-0.750			
0.0735	4702.32	4.0380	4.0380	-0.7523	24.61	-0.07	-0.750			
0.0757	4845.68	4.0350	4.0349	-0.7573	24.61	-0.07	-0.750			
0.0779	4988.13	4.0320	4.0320	-0.7538	24.62	-0.06	-0.750			
0.0803	5139.50	4.0290	4.0289	-0.7561	24.62	-0.06	-0.750			
0.0826	5284.20	4.0260	4.0262	-0.7597	24.62	-0.06	-0.750			
0.0848	5429.73	4.0230	4.0230	-0.7650	24.62	-0.06	-0.750			
0.0871	5574.22	4.0200	4.0199	-0.7700	24.62	-0.06	-0.750			
0.0894	5723.85	4.0170	4.0169	-0.7726	24.62	-0.06	-0.750			
0.0918	5874.78	4.0140	4.0140	-0.7768	24.62	-0.06	-0.750			
0.0941	6024.45	4.0110	4.0109	-0.7782	24.62	-0.06	-0.750			
0.0965	6174.67	4.0080	4.0078	-0.7725	24.62	-0.06	-0.750			
0.0987	6319.66	4.0050	4.0048	-0.7631	24.62	-0.06	-0.750			
0.1010	6465.11	4.0020	4.0021	-0.7731	24.62	-0.06	-0.750			
0.1033	6611.33	3.9990	3.9990	-0.7748	24.63	-0.05	-0.750			
0.1057	6766.28	3.9960	3.9958	-0.7836	24.63	-0.05	-0.750			
0.1081	6916.36	3.9930	3.9933	-0.7836	24.63	-0.05	-0.750			
0.1104	7065.55	3.9900	3.9899	-0.7857	24.63	-0.05	-0.750			
0.1128	7218.31	3.9870	3.9871	-0.7936	24.63	-0.05	-0.750			
0.1152	7370.39	3.9840	3.9838	-0.7859	24.63	-0.05	-0.750			
0.1175	7522.89	3.9810	3.9810	-0.7899	24.63	-0.05	-0.750			
0.1199	7673.62	3.9780	3.9783	-0.7923	24.63	-0.05	-0.750			
0.1223	7826.13	3.9750	3.9748	-0.7983	24.63	-0.05	-0.750			
0.1247	7978.08	3.9720	3.9720	-0.8024	24.63	-0.05	-0.750			
0.1271	8132.38	3.9690	3.9689	-0.7969	24.64	-0.04	-0.750			
0.1295	8286.57	3.9660	3.9660	-0.7966	24.64	-0.04	-0.750			
0.1319	8442.68	3.9630	3.9629	-0.8039	24.64	-0.04	-0.750			
0.1343	8594.47	3.9600	3.9598	-0.8003	24.64	-0.04	-0.750			
0.1367	8745.90	3.9570	3.9570	-0.7973	24.64	-0.04	-0.750			
0.1391	8901.36	3.9540	3.9538	-0.8057	24.64	-0.04	-0.750			
0.1415	9058.22	3.9510	3.9511	-0.8176	24.64	-0.04	-0.750			
0.1440	9215.41	3.9480	3.9479	-0.8197	24.64	-0.04	-0.750			
0.1465	9374.17	3.9450	3.9450	-0.8195	24.64	-0.04	-0.750			
0.1489	9530.00	3.9420	3.9419	-0.8170	24.64	-0.04	-0.750			
0.1513	9683.94	3.9390	3.9391	-0.8124	24.64	-0.04	-0.750			
0.1537	9838.59	3.9360	3.9360	-0.8116	24.64	-0.04	-0.750			
0.1562	9998.93	3.9330	3.9329	-0.8170	24.64	-0.04	-0.750			
0.1587	10155.50	3.9300	3.9300	-0.8124	24.64	-0.04	-0.750			
0.1611	10310.36	3.9270	3.9270	-0.8141	24.65	-0.03	-0.750			
0.1636	10467.21	3.9240	3.9240	-0.8318	24.65	-0.03	-0.750			
0.1661	10628.88	3.9210	3.9209	-0.8294	24.65	-0.03	-0.750			
0.1686	10789.83	3.9180	3.9178	-0.8325	24.66	-0.02	-0.750			
0.1711	10950.66	3.9150	3.9148	-0.8306	24.66	-0.02	-0.750			
0.1736	11111.18	3.9120	3.9120	-0.8388	24.66	-0.02	-0.750			
0.1761	11272.17	3.9090	3.9089	-0.8321	24.66	-0.02	-0.750			
0.1785	11426.33	3.9060	3.9060	-0.8179	24.66	-0.02	-0.750			
0.1811	11587.94	3.9030	3.9030	-0.8307	24.66	-0.02	-0.750			
0.1836	11748.98	3.9000	3.9002	-0.8310	24.66	-0.02	-0.750			
0.1860	11906.90	3.8970	3.8969	-0.8325	24.66	-0.02	-0.750			
0.1885	12066.04	3.8940	3.8940	-0.8340	24.66	-0.02	-0.750			
0.1910	12225.01	3.8910	3.8910	-0.8331	24.66	-0.02	-0.750			
0.1936	12387.91	3.8880	3.8879	-0.8372	24.66	-0.02	-0.750			
0.1961	12548.72	3.8850	3.8851	-0.8361	24.66	-0.02	-0.750			
0.1986	12709.14	3.8820	3.8821	-0.8387	24.66	-0.02	-0.750			
0.2011	12868.84	3.8790	3.8790	-0.8576	24.66	-0.02	-0.750			
0.2037	13038.11	3.8760	3.8758	-0.8446	24.67	-0.01	-0.750			
0.2063	13200.98	3.8730	3.8729	-0.8477	24.67	-0.01	-0.750			
0.2088	13365.38	3.8700	3.8696	-0.8371	24.67	-0.01	-0.750			
0.2113	13526.13	3.8670	3.8668	-0.8395	24.67	-0.01	-0.750			
0.2138	13685.80	3.8640	3.8638	-0.8292	24.67	-0.01	-0.750			
0.2162	13838.07	3.8610	3.8610	-0.8131	24.68	-0.00	-0.750			
0.2187	13996.54	3.8580	3.8579	-0.8242	24.68	-0.00	-0.750			
0.2213	14160.11	3.8550	3.8551	-0.8282	24.68	0.00	-0.750			
0.2237	14315.45	3.8520	3.8519	-0.8295	24.68	0.00	-0.750			
0.2262	14478.07	3.8490	3.8491	-0.8309	24.68	0.00	-0.750			
0.2287	14635.52	3.8460	3.8460	-0.8190	24.68	0.00	-0.750			
0.2312	14794.46	3.8430	3.8428	-0.8221	24.68	0.00	-0.750			
0.2336	14951.69	3.8400	3.8401	-0.8141	24.68	0.00	-0.750			
0.2360	15107.20	3.8370	3.8370	-0.8083	24.68	0.00	-0.750			
0.2386	15268.29	3.8340	3.8338	-0.8208	24.68	0.00	-0.750			
0.2410	15423.86	3.8310	3.8310	-0.8059	24.68	0.00	-0.750			
0.2435	15582.10	3.8280	3.8277	-0.8080	24.68	0.00	-0.750			
0.2459	15737.74	3.8250	3.8248	-0.8001	24.68	0.00	-0.750			
0.2482	15887.54	3.8220	3.8218	-0.7909	24.68	0.00	-0.750			
0.2506	16036.67	3.8190	3.8190	-0.7912	24.69	0.01	-0.750			
0.2529	16183.45	3.8160	3.8160	-0.7757	24.69	0.01	-0.750			
0.2553	16341.73	3.8130	3.8128	-0.7942	24.70	0.02	-0.750			
0.2577	16494.09	3.8100	3.8104	-0.7885	24.70	0.02	-0.750			
0.2601	16644.23	3.8070	3.8070	-0.7825	24.70	0.02	-0.750			
0.2624	16794.79	3.8040	3.8040	-0.7785	24.70	0.02	-0.750			
0.2647	16942.51	3.8010	3.8008	-0.7713	24.70	0.02	-0.750			
0.2670	17089.87	3.7980	3.7981	-0.7779	24.70	0.02	-0.750			
0.2694	17238.69	3.7950	3.7949	-0.7741	24.70	0.02	-0.750			
0.2717	17389.18	3.7920	3.7918	-0.7701	24.70	0.02	-0.750			
0.2740	17534.18	3.7890	3.7885	-0.7801	24.70	0.02	-0.750			
0.2763	17684.40	3.7860	3.7860	-0.7713	24.70	0.02	-0.750			
0.2786	17832.46	3.7830	3.7828	-0.7713	24.70	0.02	-0.750			
0.2810	17981.95	3.7800	3.7800	-0.7676	24.70	0.02	-0.750			
0.2832	18127.63	3.7770	3.7768	-0.7641	24.70	0.02	-0.750			
0.2856	18275.37	3.7740	3.7740	-0.7718	24.70	0.02	-0.750			
0.2879	18423.57	3.7710	3.7710	-0.7811	24.70	0.02	-0.750			
0.2902	18572.74	3.7680	3.7678	-0.7758	24.71	0.03	-0.750			
0.2926	18725.96	3.7650	3.7649	-0.7864	24.71	0.03	-0.750			
0.2949	18876.59	3.7620	3.7624	-0.7877	24.71	0.03	-0.750			
0.2973	19027.61	3.7590	3.7588	-0.7937	24.71	0.03	-0.750			
0.2997	19178.58	3.7560	3.7560	-0.7984	24.71	0.03	-0.750			
0.3020	19330.84	3.7530	3.7530	-0.8058	24.70	0.02	-0.750			
0.3045	19489.99	3.7500	3.7498	-0.8212	24.70	0.02	-0.750			
0.3070	19647.12	3.7470	3.7470	-0.8300	24.70	0.02	-0.750			
0.3094	19800.30	3.7440	3.7441	-0.8510	24.70	0.02	-0.750			
0.3120	19968.47	3.7410	3.7410	-0.8573	24.70	0.02	-0.750			
0.3146	20136.97	3.7380	3.7377	-0.8599	24.70	0.02	-0.750			
0.3172	20303.74	3.7350	3.7349	-0.8661	24.70	0.02	-0.750			
0.3199	20473.35	3.7320	3.7323	-0.8711	24.70	0.02	-0.750			
0.3225	20640.47	3.7290	3.7288	-0.8693	24.70	0.02	-0.750			
0.3250	20803.17	3.7260	3.7260	-0.8814	24.69	0.01	-0.750			
0.3277	20971.99	3.7230	3.7230	-0.8981	24.69	0.01	-0.750			
0.3304	21148.45	3.7200	3.7197	-0.9276	24.68	0.00	-0.750			
0.3333	21328.69	3.7170	3.7173	-0.9371	24.68	-0.00	-0.750			
0.3361	21510.75	3.7140	3.7140	-0.9514	24.68	-0.00	-0.750			
0.3390	21695.08	3.7110	3.7110	-0.9635	24.68	-0.00	-0.750			
0.3418	21876.90	3.7080	3.7081	-0.9718	24.67	-0.01	-0.750			
0.3447	22063.86	3.7050	3.7050	-1.0250	24.67	-0.01	-0.750			
0.3479	22266.37	3.7020	3.7019	-1.0259	24.66	-0.02	-0.750			
0.3510	22466.51	3.6990	3.6986	-1.0405	24.66	-0.02	-0.750	0.427	0.569	
0.3542	22670.98	3.6960	3.6959	-1.0407	24.65	-0.03	-0.750			
0.3573	22868.54	3.6930	3.6936	-1.0600	24.64	-0.04	-0.750			
0.3605	23070.28	3.6900	3.6898	-1.0611	24.64	-0.04	-0.750			
0.3637	23275.63	3.6870	3.6867	-1.0841	24.64	-0.04	-0.750			
0.3669	23479.04	3.6840	3.6838	-1.0950	24.63	-0.05	-0.750			
0.3702	23692.75	3.6810	3.6814	-1.1297	24.63	-0.05	-0.750			
0.3736	23913.07	3.6780	3.6779	-1.1395	24.62	-0.06	-0.750			
0.3771	24136.15	3.6750	3.6750	-1.1647	24.61	-0.07	-0.750			
0.3805	24355.08	3.6720	3.6719	-1.1965	24.61	-0.07	-0.750			
0.3842	24590.99	3.6690	3.6691	-1.2090	24.60	-0.08	-0.750			
0.3879	24827.40	3.6660	3.6658	-1.2208	24.59	-0.09	-0.750			
0.3916	25059.72	3.6630	3.6629	-1.2425	24.59	-0.09	-0.750			
0.3953	25298.10	3.6600	3.6613	-1.2712	24.58	-0.10	-0.750			
0.3993	25552.35	3.6570	3.6567	-1.2929	24.57	-0.11	-0.750			
0.4031	25800.97	3.6540	3.6538	-1.3019	24.57	-0.11	-0.750			
0.4071	26051.37	3.6510	3.6512	-1.3308	24.56	-0.12	-0.750			
0.4112	26314.44	3.6480	3.6478	-1.3560	24.55	-0.13	-0.750			
0.4151	26564.99	3.6450	3.6450	-1.3978	24.55	-0.13	-0.750			
0.4193	26834.55	3.6420	3.6422	-1.4128	24.54	-0.14	-0.750			
0.4236	27108.01	3.6390	3.6389	-1.4696	24.53	-0.15	-0.750			
0.4281	27396.28	3.6360	3.6357	-1.5027	24.53	-0.15	-0.750			
0.4327	27693.11	3.6330	3.6338	-1.5035	24.52	-0.16	-0.750			
0.4372	27983.31	3.6300	3.6296	-1.5243	24.51	-0.17	-0.750			
0.4420	28285.31	3.6270	3.6267	-1.5624	24.51	-0.17	-0.750			
0.4466	28584.12	3.6240	3.6236	-1.5749	24.50	-0.18	-0.750			
0.4513	28881.96	3.6210	3.6213	-1.6363	24.49	-0.19	-0.750			
0.4562	29193.97	3.6180	3.6184	-1.6266	24.48	-0.20	-0.750			
0.4613	29522.72	3.6150	3.6149	-1.6389	24.48	-0.20	-0.750			
0.4663	29843.41	3.6120	3.6120	-1.6740	24.48	-0.20	-0.750			
0.4713	30162.55	3.6090	3.6084	-1.7117	24.48	-0.20	-0.750			
0.4764	30490.07	3.6060	3.6057	-1.7742	24.47	-0.21	-0.750			
0.4817	30828.77	3.6030	3.6029	-1.8197	24.46	-0.22	-0.750			
0.4873	31185.97	3.6000	3.6003	-1.8846	24.46	-0.22	-0.750			
0.4930	31552.99	3.5970	3.5975	-1.9155	24.45	-0.23	-0.750			
0.4988	31921.21	3.5940	3.5944	-1.9446	24.45	-0.23	-0.750			
0.5046	32293.11	3.5910	3.5906	-1.9359	24.44	-0.24	-0.750			
0.5105	32671.42	3.5880	3.5879	-1.9394	24.44	-0.24	-0.750			
0.5162	33036.72	3.5850	3.5853	-2.0211	24.44	-0.24	-0.750			
0.5224	33431.79	3.5820	3.5813	-1.9971	24.44	-0.24	-0.750			
0.5285	33823.41	3.5790	3.5788	-2.0765	24.43	-0.25	-0.750			
0.5347	34219.04	3.5760	3.5765	-2.0664	24.42	-0.26	-0.750			
0.5412	34636.79	3.5730	3.5728	-2.0979	24.42	-0.26	-0.750			
0.5474	35033.26	3.5700	3.5696	-2.1241	24.42	-0.26	-0.750			
0.5540	35455.84	3.5670	3.5670	-2.1592	24.42	-0.26	-0.750			
0.5602	35855.39	3.5640	3.5639	-2.1676	24.42	-0.26	-0.750			
0.5670	36289.07	3.5610	3.5607	-2.1825	24.42	-0.26	-0.750			
0.5734	36700.33	3.5580	3.5574	-2.1622	24.42	-0.26	-0.750			
0.5801	37125.20	3.5550	3.5551	-2.1265	24.42	-0.26	-0.750			
0.5865	37534.96	3.5520	3.5522	-2.1139	24.42	-0.26	-0.750			
0.5925	37922.29	3.5490	3.5497	-2.0479	24.43	-0.25	-0.750			
0.5988	38322.48	3.5460	3.5457	-2.0991	24.43	-0.25	-0.750			
0.6052	38731.26	3.5430	3.5431	-2.0445	24.44	-0.24	-0.750			
0.6113	39123.80	3.5400	3.5405	-2.0089	24.45	-0.23	-0.750			
0.6176	39528.03	3.5370	3.5364	-1.9910	24.46	-0.22	-0.750			
0.6232	39883.91	3.5340	3.5340	-1.9292	24.46	-0.22	-0.750			
0.6292	40266.48	3.5310	3.5311	-1.8804	24.47	-0.21	-0.750			
0.6348	40630.36	3.5280	3.5278	-1.8637	24.47	-0.21	-0.750			
0.6406	40997.35	3.5250	3.5248	-1.8841	24.48	-0.20	-0.750			
0.6461	41350.87	3.5220	3.5216	-1.7807	24.49	-0.19	-0.750			
0.6512	41679.82	3.5190	3.5197	-1.7422	24.50	-0.18	-0.750			
0.6562	41998.71	3.5160	3.5158	-1.6511	24.52	-0.16	-0.750			
0.6613	42323.10	3.5130	3.5128	-1.6290	24.53	-0.15	-0.750			
0.6662	42635.45	3.5100	3.5100	-1.6056	24.55	-0.13	-0.750			
0.6710	42942.34	3.5070	3.5070	-1.5643	24.56	-0.12	-0.750			
0.6757	43242.74	3.5040	3.5045	-1.5298	24.59	-0.09	-0.750			
0.6801	43525.12	3.5010	3.5008	-1.5003	24.61	-0.07	-0.750			
0.6844	43802.72	3.4980	3.4981	-1.4539	24.63	-0.05	-0.750			
0.6888	44080.16	3.4950	3.4949	-1.4200	24.64	-0.04	-0.750			
0.6932	44364.07	3.4920	3.4917	-1.4084	24.65	-0.03	-0.750			
0.6973	44626.82	3.4890	3.4889	-1.3777	24.67	-0.01	-0.750			
0.7013	44885.22	3.4860	3.4860	-1.2739	24.68	-0.00	-0.750			
