Ah_balance (normalized)	Ah_balance (mAh)	Voltage - fit (V)	Voltage -  interpolate (V)	dQ/dV (1/V)	Temperature (°C)	Temperature - diff (°C)	Current (C)	R_DC 0ms (mOhm)	R_DC 50ms (mOhm)	R_DC 50 ms PEC (mOhm)
0.0003	21.16	4.1600	4.1598	-0.1211	25.36	0.01	-0.750			
0.0007	47.45	4.1570	4.1570	-0.1593	25.36	0.01	-0.750			
0.0013	81.83	4.1540	4.1540	-0.2011	25.36	0.01	-0.750			
0.0019	124.61	4.1510	4.1510	-0.2425	25.36	0.01	-0.750			
0.0027	175.34	4.1480	4.1480	-0.2829	25.36	0.01	-0.750			
0.0037	233.99	4.1450	4.1450	-0.3217	25.36	0.01	-0.750			
0.0047	300.57	4.1420	4.1420	-0.3574	25.35	0.00	-0.750			
0.0058	373.14	4.1390	4.1392	-0.3940	25.35	0.00	-0.750			
0.0071	452.71	4.1360	4.1360	-0.4235	25.35	-0.00	-0.750			
0.0084	538.18	4.1330	4.1330	-0.4501	25.34	-0.01	-0.750			
0.0098	627.30	4.1300	4.1300	-0.4779	25.34	-0.01	-0.750			
0.0113	721.29	4.1270	4.1271	-0.5046	25.34	-0.01	-0.750			
0.0128	821.13	4.1240	4.1239	-0.5300	25.33	-0.02	-0.750			
0.0145	925.25	4.1210	4.1211	-0.5541	25.33	-0.02	-0.750			
0.0162	1034.69	4.1180	4.1180	-0.5737	25.33	-0.02	-0.750			
0.0179	1148.48	4.1150	4.1150	-0.5936	25.32	-0.03	-0.750			
0.0198	1266.23	4.1120	4.1120	-0.6093	25.32	-0.03	-0.750			
0.0216	1383.17	4.1090	4.1091	-0.6213	25.31	-0.04	-0.750			
0.0235	1503.00	4.1060	4.1060	-0.6354	25.31	-0.04	-0.750			
0.0254	1628.07	4.1030	4.1029	-0.6416	25.31	-0.04	-0.750			
0.0274	1751.87	4.1000	4.0999	-0.6508	25.31	-0.04	-0.750			
0.0293	1878.11	4.0970	4.0971	-0.6591	25.30	-0.05	-0.750			
0.0313	2005.73	4.0940	4.0941	-0.6680	25.30	-0.05	-0.750			
0.0334	2134.52	4.0910	4.0909	-0.6745	25.30	-0.05	-0.750			
0.0354	2262.43	4.0880	4.0881	-0.6808	25.29	-0.06	-0.750			
0.0374	2395.16	4.0850	4.0850	-0.6904	25.29	-0.06	-0.750			
0.0396	2532.19	4.0820	4.0819	-0.6902	25.29	-0.06	-0.750			
0.0416	2662.19	4.0790	4.0790	-0.6897	25.28	-0.07	-0.750			
0.0436	2793.33	4.0760	4.0764	-0.6958	25.28	-0.07	-0.750			
0.0457	2926.74	4.0730	4.0725	-0.7001	25.28	-0.07	-0.750			
0.0478	3060.32	4.0700	4.0700	-0.7055	25.28	-0.07	-0.750			
0.0500	3196.90	4.0670	4.0671	-0.7109	25.28	-0.07	-0.750			
0.0521	3336.57	4.0640	4.0641	-0.7199	25.28	-0.07	-0.750			
0.0543	3476.88	4.0610	4.0609	-0.7267	25.28	-0.07	-0.750			
0.0564	3612.74	4.0580	4.0581	-0.7249	25.28	-0.07	-0.750			
0.0587	3753.73	4.0550	4.0550	-0.7262	25.28	-0.07	-0.750			
0.0608	3893.50	4.0520	4.0520	-0.7372	25.28	-0.07	-0.750			
0.0631	4037.95	4.0490	4.0490	-0.7341	25.28	-0.07	-0.750			
0.0654	4184.05	4.0460	4.0458	-0.7143	25.28	-0.07	-0.750			
0.0675	4318.99	4.0430	4.0429	-0.6939	25.28	-0.07	-0.750			
0.0695	4447.43	4.0400	4.0402	-0.6863	25.28	-0.07	-0.750			
0.0715	4575.53	4.0370	4.0364	-0.6821	25.28	-0.07	-0.750			
0.0734	4698.88	4.0340	4.0339	-0.6918	25.28	-0.07	-0.750			
0.0754	4828.48	4.0310	4.0311	-0.7070	25.28	-0.07	-0.750			
0.0777	4975.44	4.0280	4.0278	-0.7327	25.28	-0.07	-0.750			
0.0800	5121.32	4.0250	4.0249	-0.7461	25.28	-0.07	-0.750			
0.0823	5265.42	4.0220	4.0219	-0.7446	25.28	-0.07	-0.750			
0.0845	5406.78	4.0190	4.0189	-0.7453	25.29	-0.06	-0.750			
0.0867	5547.66	4.0160	4.0160	-0.7507	25.29	-0.06	-0.750			
0.0889	5692.14	4.0130	4.0130	-0.7497	25.29	-0.06	-0.750			
0.0913	5840.39	4.0100	4.0098	-0.7544	25.30	-0.05	-0.750			
0.0935	5985.71	4.0070	4.0073	-0.7570	25.30	-0.05	-0.750			
0.0958	6131.22	4.0040	4.0039	-0.7556	25.30	-0.05	-0.750			
0.0981	6275.52	4.0010	4.0011	-0.7653	25.30	-0.05	-0.750			
0.1003	6421.02	3.9980	3.9978	-0.7596	25.31	-0.04	-0.750			
0.1027	6569.80	3.9950	3.9950	-0.7666	25.31	-0.04	-0.750			
0.1050	6718.54	3.9920	3.9919	-0.7675	25.31	-0.04	-0.750			
0.1073	6867.05	3.9890	3.9889	-0.7702	25.31	-0.04	-0.750			
0.1096	7012.57	3.9860	3.9860	-0.7684	25.31	-0.04	-0.750			
0.1119	7160.26	3.9830	3.9829	-0.7731	25.31	-0.04	-0.750			
0.1142	7311.37	3.9800	3.9799	-0.7828	25.32	-0.03	-0.750			
0.1166	7460.89	3.9770	3.9769	-0.7817	25.32	-0.03	-0.750			
0.1189	7610.71	3.9740	3.9739	-0.7820	25.32	-0.03	-0.750			
0.1213	7762.35	3.9710	3.9709	-0.7833	25.32	-0.03	-0.750			
0.1236	7912.18	3.9680	3.9678	-0.7783	25.33	-0.02	-0.750			
0.1259	8057.14	3.9650	3.9652	-0.7720	25.33	-0.02	-0.750			
0.1283	8211.89	3.9620	3.9616	-0.7850	25.34	-0.01	-0.750			
0.1306	8360.74	3.9590	3.9589	-0.7786	25.34	-0.01	-0.750			
0.1329	8508.69	3.9560	3.9560	-0.7810	25.34	-0.01	-0.750			
0.1353	8657.91	3.9530	3.9529	-0.7829	25.34	-0.01	-0.750			
0.1376	8809.19	3.9500	3.9500	-0.7879	25.35	-0.00	-0.750			
0.1401	8964.09	3.9470	3.9470	-0.7944	25.35	-0.00	-0.750			
0.1425	9117.13	3.9440	3.9442	-0.7952	25.35	-0.00	-0.750			
0.1449	9270.76	3.9410	3.9407	-0.7964	25.35	0.00	-0.750			
0.1472	9422.43	3.9380	3.9380	-0.7934	25.36	0.01	-0.750			
0.1496	9574.95	3.9350	3.9350	-0.7997	25.36	0.01	-0.750			
0.1520	9728.42	3.9320	3.9319	-0.7969	25.36	0.01	-0.750			
0.1545	9887.08	3.9290	3.9288	-0.8012	25.37	0.02	-0.750			
0.1569	10039.06	3.9260	3.9259	-0.7915	25.37	0.02	-0.750			
0.1592	10189.47	3.9230	3.9230	-0.7912	25.37	0.02	-0.750			
0.1616	10339.22	3.9200	3.9199	-0.7947	25.37	0.02	-0.750			
0.1639	10487.61	3.9170	3.9170	-0.7854	25.38	0.03	-0.750			
0.1663	10643.87	3.9140	3.9139	-0.8013	25.38	0.03	-0.750			
0.1687	10798.43	3.9110	3.9110	-0.8025	25.38	0.03	-0.750			
0.1712	10953.62	3.9080	3.9080	-0.8020	25.38	0.03	-0.750			
0.1736	11108.67	3.9050	3.9050	-0.8077	25.38	0.03	-0.750			
0.1760	11264.68	3.9020	3.9017	-0.8008	25.38	0.03	-0.750			
0.1784	11418.86	3.8990	3.8990	-0.7938	25.38	0.03	-0.750			
0.1808	11571.89	3.8960	3.8972	-0.7919	25.38	0.03	-0.750			
0.1832	11723.89	3.8930	3.8928	-0.7810	25.38	0.03	-0.750			
0.1855	11870.60	3.8900	3.8900	-0.7926	25.39	0.04	-0.750			
0.1878	12019.78	3.8870	3.8868	-0.7866	25.39	0.04	-0.750			
0.1902	12172.13	3.8840	3.8838	-0.7776	25.39	0.04	-0.750			
0.1926	12329.28	3.8810	3.8810	-0.7792	25.40	0.05	-0.750			
0.1949	12476.45	3.8780	3.8780	-0.7673	25.40	0.05	-0.750			
0.1972	12620.76	3.8750	3.8749	-0.7584	25.41	0.06	-0.750			
0.1994	12763.64	3.8720	3.8720	-0.7629	25.41	0.06	-0.750			
0.2017	12906.70	3.8690	3.8689	-0.7559	25.41	0.06	-0.750			
0.2040	13058.08	3.8660	3.8659	-0.7623	25.42	0.07	-0.750			
0.2063	13205.44	3.8630	3.8633	-0.7645	25.42	0.07	-0.750			
0.2087	13354.38	3.8600	3.8599	-0.7651	25.42	0.07	-0.750			
0.2109	13500.10	3.8570	3.8568	-0.7688	25.42	0.07	-0.750			
0.2132	13645.87	3.8540	3.8540	-0.7594	25.43	0.08	-0.750			
0.2155	13794.24	3.8510	3.8508	-0.7614	25.43	0.08	-0.750			
0.2178	13940.59	3.8480	3.8477	-0.7532	25.43	0.08	-0.750			
0.2201	14084.92	3.8450	3.8448	-0.7511	25.43	0.08	-0.750			
0.2222	14222.71	3.8420	3.8421	-0.7600	25.44	0.09	-0.750			
0.2245	14368.24	3.8390	3.8387	-0.7540	25.44	0.09	-0.750			
0.2268	14517.81	3.8360	3.8359	-0.7666	25.44	0.09	-0.750			
0.2292	14666.32	3.8330	3.8329	-0.7576	25.45	0.10	-0.750			
0.2315	14813.56	3.8300	3.8302	-0.7565	25.45	0.10	-0.750			
0.2337	14957.71	3.8270	3.8269	-0.7490	25.45	0.10	-0.750			
0.2359	15094.41	3.8240	3.8239	-0.7373	25.45	0.10	-0.750			
0.2380	15231.19	3.8210	3.8211	-0.7340	25.45	0.10	-0.750			
0.2403	15380.24	3.8180	3.8179	-0.7549	25.45	0.10	-0.750			
0.2426	15527.10	3.8150	3.8149	-0.7548	25.45	0.10	-0.750			
0.2449	15673.44	3.8120	3.8118	-0.7575	25.45	0.10	-0.750			
0.2471	15816.25	3.8090	3.8089	-0.7646	25.46	0.11	-0.750			
0.2495	15966.48	3.8060	3.8057	-0.7548	25.46	0.11	-0.750			
0.2517	16109.19	3.8030	3.8029	-0.7445	25.46	0.11	-0.750			
0.2539	16250.21	3.8000	3.8000	-0.7455	25.47	0.12	-0.750			
0.2561	16392.20	3.7970	3.7974	-0.7505	25.47	0.12	-0.750			
0.2584	16540.32	3.7940	3.7938	-0.7627	25.47	0.12	-0.750			
0.2607	16684.36	3.7910	3.7910	-0.7671	25.47	0.12	-0.750			
0.2630	16832.86	3.7880	3.7880	-0.7708	25.48	0.13	-0.750			
0.2654	16986.49	3.7850	3.7850	-0.7829	25.48	0.13	-0.750			
0.2678	17136.70	3.7820	3.7821	-0.7805	25.48	0.13	-0.750			
0.2701	17285.77	3.7790	3.7788	-0.7756	25.48	0.13	-0.750			
0.2724	17431.47	3.7760	3.7758	-0.7799	25.48	0.13	-0.750			
0.2747	17581.64	3.7730	3.7732	-0.7817	25.48	0.13	-0.750			
0.2770	17729.99	3.7700	3.7701	-0.7856	25.48	0.13	-0.750			
0.2795	17885.91	3.7670	3.7668	-0.8036	25.48	0.13	-0.750			
0.2819	18040.85	3.7640	3.7640	-0.8089	25.48	0.13	-0.750			
0.2843	18196.23	3.7610	3.7609	-0.8251	25.48	0.13	-0.750			
0.2868	18358.03	3.7580	3.7581	-0.8320	25.48	0.13	-0.750			
0.2894	18519.96	3.7550	3.7548	-0.8297	25.47	0.12	-0.750			
0.2919	18681.95	3.7520	3.7518	-0.8322	25.47	0.12	-0.750			
0.2944	18841.37	3.7490	3.7488	-0.8276	25.47	0.12	-0.750			
0.2968	18997.03	3.7460	3.7459	-0.8423	25.47	0.12	-0.750			
0.2993	19158.19	3.7430	3.7429	-0.8472	25.47	0.12	-0.750			
0.3019	19320.84	3.7400	3.7398	-0.8436	25.47	0.12	-0.750			
0.3046	19492.43	3.7370	3.7369	-0.8642	25.47	0.12	-0.750			
0.3072	19658.50	3.7340	3.7339	-0.8657	25.47	0.12	-0.750			
0.3097	19823.44	3.7310	3.7310	-0.8767	25.47	0.12	-0.750			
0.3123	19987.45	3.7280	3.7280	-0.8883	25.46	0.11	-0.750			
0.3150	20158.55	3.7250	3.7249	-0.8901	25.46	0.11	-0.750			
0.3177	20334.47	3.7220	3.7219	-0.9237	25.46	0.11	-0.750			
0.3206	20516.34	3.7190	3.7188	-0.9429	25.46	0.11	-0.750			
0.3235	20702.36	3.7160	3.7159	-0.9475	25.46	0.11	-0.750			
0.3264	20886.57	3.7130	3.7125	-0.9458	25.45	0.10	-0.750			
0.3292	21066.50	3.7100	3.7096	-0.9390	25.45	0.10	-0.750			
0.3319	21239.64	3.7070	3.7069	-0.9827	25.45	0.10	-0.750			
0.3350	21438.46	3.7040	3.7036	-0.9876	25.45	0.10	-0.750			
0.3379	21627.93	3.7010	3.7007	-0.9844	25.44	0.09	-0.750			
0.3409	21818.56	3.6980	3.6982	-0.9868	25.44	0.09	-0.750	0.394	0.552	
0.3441	22019.40	3.6950	3.6950	-1.0147	25.44	0.09	-0.750			
0.3470	22210.27	3.6920	3.6918	-1.0230	25.43	0.08	-0.750			
0.3500	22397.91	3.6890	3.6889	-1.0271	25.42	0.07	-0.750			
0.3531	22601.59	3.6860	3.6859	-1.0648	25.41	0.06	-0.750			
0.3564	22808.72	3.6830	3.6831	-1.0930	25.40	0.05	-0.750			
0.3597	23023.71	3.6800	3.6795	-1.1095	25.40	0.05	-0.750			
0.3631	23237.26	3.6770	3.6767	-1.1175	25.39	0.04	-0.750			
0.3664	23452.57	3.6740	3.6737	-1.1247	25.39	0.04	-0.750			
0.3698	23664.39	3.6710	3.6708	-1.1562	25.39	0.04	-0.750			
0.3734	23894.86	3.6680	3.6678	-1.1519	25.39	0.04	-0.750			
0.3769	24119.67	3.6650	3.6649	-1.1701	25.38	0.03	-0.750			
0.3803	24337.81	3.6620	3.6625	-1.1717	25.38	0.03	-0.750			
0.3840	24573.92	3.6590	3.6587	-1.2027	25.38	0.03	-0.750			
0.3876	24803.50	3.6560	3.6557	-1.2126	25.37	0.02	-0.750			
0.3911	25028.05	3.6530	3.6531	-1.2376	25.37	0.02	-0.750			
0.3949	25274.89	3.6500	3.6500	-1.2653	25.37	0.02	-0.750			
0.3989	25527.36	3.6470	3.6469	-1.2907	25.36	0.01	-0.750			
0.4026	25769.11	3.6440	3.6440	-1.3075	25.36	0.01	-0.750			
0.4066	26024.16	3.6410	3.6414	-1.3242	25.35	-0.00	-0.750			
0.4107	26283.48	3.6380	3.6378	-1.3523	25.34	-0.01	-0.750			
0.4147	26539.68	3.6350	3.6349	-1.3789	25.33	-0.02	-0.750			
0.4189	26809.07	3.6320	3.6326	-1.3933	25.32	-0.03	-0.750			
0.4232	27083.92	3.6290	3.6289	-1.4593	25.32	-0.03	-0.750			
0.4277	27372.12	3.6260	3.6258	-1.4849	25.32	-0.03	-0.750			
0.4322	27660.68	3.6230	3.6230	-1.5108	25.32	-0.03	-0.750			
0.4369	27960.70	3.6200	3.6198	-1.5236	25.31	-0.04	-0.750			
0.4415	28258.94	3.6170	3.6166	-1.5550	25.30	-0.05	-0.750			
0.4462	28555.41	3.6140	3.6141	-1.5664	25.30	-0.05	-0.750			
0.4509	28859.60	3.6110	3.6105	-1.5908	25.29	-0.06	-0.750			
0.4556	29159.57	3.6080	3.6090	-1.6021	25.28	-0.07	-0.750			
0.4606	29475.55	3.6050	3.6055	-1.6707	25.28	-0.07	-0.750			
0.4656	29800.38	3.6020	3.6020	-1.7074	25.28	-0.07	-0.750			
0.4709	30139.17	3.5990	3.5984	-1.7413	25.28	-0.07	-0.750			
0.4763	30480.42	3.5960	3.5958	-1.7778	25.27	-0.08	-0.750			
0.4817	30828.27	3.5930	3.5927	-1.7882	25.27	-0.08	-0.750			
0.4871	31171.53	3.5900	3.5895	-1.7896	25.27	-0.08	-0.750			
0.4924	31511.99	3.5870	3.5871	-1.8117	25.27	-0.08	-0.750			
0.4979	31865.89	3.5840	3.5843	-1.8660	25.27	-0.08	-0.750			
0.5034	32218.12	3.5810	3.5813	-1.8925	25.27	-0.08	-0.750			
0.5093	32593.88	3.5780	3.5785	-1.9400	25.27	-0.08	-0.750			
0.5152	32973.33	3.5750	3.5745	-1.9253	25.26	-0.09	-0.750			
0.5211	33352.15	3.5720	3.5720	-1.9442	25.26	-0.09	-0.750			
0.5269	33719.75	3.5690	3.5695	-1.9184	25.27	-0.08	-0.750			
0.5326	34085.33	3.5660	3.5660	-2.0029	25.27	-0.08	-0.750			
0.5388	34483.48	3.5630	3.5626	-1.9851	25.27	-0.08	-0.750			
0.5447	34861.24	3.5600	3.5597	-2.0180	25.27	-0.08	-0.750			
0.5509	35254.84	3.5570	3.5567	-1.9909	25.27	-0.08	-0.750			
0.5568	35635.31	3.5540	3.5539	-1.9723	25.27	-0.08	-0.750			
0.5628	36018.30	3.5510	3.5507	-1.9458	25.27	-0.08	-0.750			
0.5684	36379.06	3.5480	3.5482	-1.9254	25.27	-0.08	-0.750			
0.5743	36752.34	3.5450	3.5454	-1.9397	25.27	-0.08	-0.750			
0.5802	37133.05	3.5420	3.5417	-1.9075	25.28	-0.07	-0.750			
0.5859	37497.24	3.5390	3.5387	-1.9035	25.29	-0.06	-0.750			
0.5915	37853.62	3.5360	3.5361	-1.8893	25.30	-0.05	-0.750			
0.5971	38211.63	3.5330	3.5335	-1.8437	25.31	-0.04	-0.750			
0.6028	38578.86	3.5300	3.5300	-1.8148	25.32	-0.03	-0.750			
0.6081	38918.85	3.5270	3.5266	-1.7798	25.33	-0.02	-0.750			
0.6133	39252.10	3.5240	3.5238	-1.7981	25.34	-0.01	-0.750			
0.6186	39591.83	3.5210	3.5209	-1.7268	25.35	0.00	-0.750			
0.6238	39926.18	3.5180	3.5188	-1.6830	25.36	0.01	-0.750			
0.6287	40239.41	3.5150	3.5151	-1.6354	25.37	0.02	-0.750			
0.6336	40552.86	3.5120	3.5113	-1.5796	25.39	0.04	-0.750			
0.6383	40853.23	3.5090	3.5094	-1.5270	25.41	0.06	-0.750			
0.6428	41140.39	3.5060	3.5065	-1.4990	25.43	0.08	-0.750			
0.6473	41426.92	3.5030	3.5028	-1.4945	25.44	0.09	-0.750			
0.6516	41702.11	3.5000	3.4998	-1.4457	25.46	0.11	-0.750			
0.6559	41980.70	3.4970	3.4973	-1.4375	25.47	0.12	-0.750			
0.6604	42266.33	3.4940	3.4937	-1.3997	25.48	0.13	-0.750			
0.6645	42528.24	3.4910	3.4905	-1.3460	25.50	0.15	-0.750			
0.6684	42777.74	3.4880	3.4892	-1.3075	25.51	0.16	-0.750			
0.6722	43022.48	3.4850	3.4846	-1.2668	25.52	0.17	-0.750			
0.6759	43255.84	3.4820	3.4815	-1.2708	25.53	0.18	-0.750			
0.6798	43507.92	3.4790	3.4788	-1.4211	25.55	0.20	-0.750			
