Ah_balance (normalized)	Ah_balance (mAh)	Voltage - fit (V)	Voltage -  interpolate (V)	dQ/dV (1/V)	Temperature (°C)	Temperature - diff (°C)	Current (C)	R_DC 0ms (mOhm)	R_DC 50ms (mOhm)	R_DC 50 ms PEC (mOhm)
0.0003	18.72	4.1600	4.1598	-0.1100	25.36	0.01	-0.750			
0.0007	44.84	4.1570	4.1567	-0.1568	25.36	0.01	-0.750			
0.0013	80.81	4.1540	4.1539	-0.2003	25.36	0.01	-0.750			
0.0019	123.24	4.1510	4.1511	-0.2393	25.36	0.01	-0.750			
0.0027	172.74	4.1480	4.1480	-0.2790	25.35	0.00	-0.750			
0.0036	230.55	4.1450	4.1449	-0.3204	25.35	0.00	-0.750			
0.0046	295.62	4.1420	4.1419	-0.3564	25.35	-0.00	-0.750			
0.0058	368.31	4.1390	4.1389	-0.3897	25.34	-0.01	-0.750			
0.0070	447.44	4.1360	4.1361	-0.4240	25.34	-0.01	-0.750			
0.0083	533.98	4.1330	4.1330	-0.4567	25.34	-0.01	-0.750			
0.0097	623.77	4.1300	4.1299	-0.4813	25.33	-0.02	-0.750			
0.0112	718.03	4.1270	4.1271	-0.5093	25.33	-0.02	-0.750			
0.0128	818.64	4.1240	4.1240	-0.5361	25.32	-0.03	-0.750			
0.0145	925.53	4.1210	4.1209	-0.5566	25.32	-0.03	-0.750			
0.0162	1036.17	4.1180	4.1182	-0.5778	25.31	-0.04	-0.750			
0.0179	1148.77	4.1150	4.1151	-0.5908	25.31	-0.04	-0.750			
0.0198	1265.68	4.1120	4.1119	-0.6044	25.30	-0.05	-0.750			
0.0216	1379.97	4.1090	4.1091	-0.6301	25.30	-0.05	-0.750			
0.0235	1503.61	4.1060	4.1059	-0.6328	25.30	-0.05	-0.750			
0.0254	1628.16	4.1030	4.1028	-0.6464	25.30	-0.05	-0.750			
0.0274	1754.40	4.1000	4.1000	-0.6527	25.29	-0.06	-0.750			
0.0294	1881.03	4.0970	4.0970	-0.6602	25.29	-0.06	-0.750			
0.0314	2007.57	4.0940	4.0939	-0.6685	25.29	-0.06	-0.750			
0.0334	2134.81	4.0910	4.0909	-0.6729	25.29	-0.06	-0.750			
0.0354	2264.01	4.0880	4.0880	-0.6841	25.28	-0.07	-0.750			
0.0376	2403.35	4.0850	4.0848	-0.6969	25.28	-0.07	-0.750			
0.0397	2538.73	4.0820	4.0819	-0.6967	25.28	-0.07	-0.750			
0.0418	2672.44	4.0790	4.0793	-0.6995	25.28	-0.07	-0.750			
0.0438	2804.76	4.0760	4.0760	-0.7039	25.28	-0.07	-0.750			
0.0459	2938.96	4.0730	4.0729	-0.7077	25.28	-0.07	-0.750			
0.0480	3072.22	4.0700	4.0699	-0.7022	25.28	-0.07	-0.750			
0.0502	3213.91	4.0670	4.0671	-0.7189	25.28	-0.07	-0.750			
0.0524	3354.23	4.0640	4.0640	-0.7285	25.28	-0.07	-0.750			
0.0546	3492.99	4.0610	4.0610	-0.7283	25.28	-0.07	-0.750			
0.0567	3631.25	4.0580	4.0579	-0.7262	25.28	-0.07	-0.750			
0.0589	3771.95	4.0550	4.0550	-0.7331	25.28	-0.07	-0.750			
0.0612	3914.24	4.0520	4.0520	-0.7403	25.28	-0.07	-0.750			
0.0634	4058.10	4.0490	4.0489	-0.7399	25.28	-0.07	-0.750			
0.0656	4201.24	4.0460	4.0460	-0.7411	25.28	-0.07	-0.750			
0.0678	4341.86	4.0430	4.0428	-0.7375	25.28	-0.07	-0.750			
0.0701	4483.96	4.0400	4.0399	-0.7379	25.28	-0.07	-0.750			
0.0723	4627.71	4.0370	4.0369	-0.7476	25.28	-0.07	-0.750			
0.0745	4770.56	4.0340	4.0340	-0.7484	25.28	-0.07	-0.750			
0.0769	4919.02	4.0310	4.0307	-0.7517	25.28	-0.07	-0.750			
0.0791	5063.86	4.0280	4.0285	-0.7523	25.28	-0.07	-0.750			
0.0814	5207.52	4.0250	4.0248	-0.7467	25.28	-0.07	-0.750			
0.0836	5349.10	4.0220	4.0221	-0.7439	25.29	-0.06	-0.750			
0.0857	5485.58	4.0190	4.0190	-0.7342	25.29	-0.06	-0.750			
0.0880	5632.99	4.0160	4.0160	-0.7566	25.29	-0.06	-0.750			
0.0903	5778.89	4.0130	4.0130	-0.7553	25.30	-0.05	-0.750			
0.0926	5925.75	4.0100	4.0100	-0.7548	25.30	-0.05	-0.750			
0.0948	6069.59	4.0070	4.0071	-0.7649	25.30	-0.05	-0.750			
0.0972	6219.31	4.0040	4.0040	-0.7676	25.30	-0.05	-0.750			
0.0995	6366.74	4.0010	4.0008	-0.7605	25.31	-0.04	-0.750			
0.1017	6511.69	3.9980	3.9980	-0.7623	25.31	-0.04	-0.750			
0.1040	6657.38	3.9950	3.9957	-0.7654	25.31	-0.04	-0.750			
0.1063	6801.34	3.9920	3.9920	-0.7844	25.31	-0.04	-0.750			
0.1087	6954.40	3.9890	3.9889	-0.7847	25.31	-0.04	-0.750			
0.1111	7107.28	3.9860	3.9859	-0.7769	25.31	-0.04	-0.750			
0.1134	7260.39	3.9830	3.9829	-0.7792	25.31	-0.04	-0.750			
0.1158	7410.21	3.9800	3.9801	-0.7849	25.31	-0.04	-0.750			
0.1181	7558.17	3.9770	3.9768	-0.7755	25.31	-0.04	-0.750			
0.1203	7702.16	3.9740	3.9739	-0.7732	25.31	-0.04	-0.750			
0.1227	7850.59	3.9710	3.9710	-0.7695	25.32	-0.03	-0.750			
0.1250	8000.94	3.9680	3.9680	-0.7855	25.32	-0.03	-0.750			
0.1274	8152.24	3.9650	3.9651	-0.7895	25.32	-0.03	-0.750			
0.1297	8303.42	3.9620	3.9619	-0.7916	25.32	-0.03	-0.750			
0.1321	8451.29	3.9590	3.9590	-0.8007	25.32	-0.03	-0.750			
0.1345	8610.49	3.9560	3.9560	-0.7981	25.32	-0.03	-0.750			
0.1370	8766.54	3.9530	3.9529	-0.7944	25.32	-0.03	-0.750			
0.1394	8920.41	3.9500	3.9499	-0.7950	25.32	-0.03	-0.750			
0.1417	9069.83	3.9470	3.9474	-0.7891	25.32	-0.03	-0.750			
0.1440	9218.14	3.9440	3.9439	-0.7943	25.33	-0.02	-0.750			
0.1464	9367.70	3.9410	3.9409	-0.7914	25.33	-0.02	-0.750			
0.1487	9518.06	3.9380	3.9380	-0.7929	25.34	-0.01	-0.750			
0.1512	9679.00	3.9350	3.9349	-0.8130	25.34	-0.01	-0.750			
0.1537	9837.99	3.9320	3.9324	-0.8141	25.35	-0.00	-0.750			
0.1561	9993.23	3.9290	3.9290	-0.8076	25.35	0.00	-0.750			
0.1585	10146.18	3.9260	3.9261	-0.8066	25.35	0.00	-0.750			
0.1609	10300.67	3.9230	3.9229	-0.8110	25.36	0.01	-0.750			
0.1634	10456.07	3.9200	3.9199	-0.8158	25.36	0.01	-0.750			
0.1658	10611.64	3.9170	3.9169	-0.8191	25.36	0.01	-0.750			
0.1683	10772.43	3.9140	3.9140	-0.8220	25.36	0.01	-0.750			
0.1708	10931.51	3.9110	3.9110	-0.8274	25.36	0.01	-0.750			
0.1733	11092.57	3.9080	3.9079	-0.8215	25.37	0.02	-0.750			
0.1758	11249.34	3.9050	3.9049	-0.8133	25.37	0.02	-0.750			
0.1782	11404.68	3.9020	3.9022	-0.8079	25.37	0.02	-0.750			
0.1806	11559.48	3.8990	3.8988	-0.7984	25.37	0.02	-0.750			
0.1830	11709.20	3.8960	3.8960	-0.7984	25.37	0.02	-0.750			
0.1853	11861.75	3.8930	3.8930	-0.8003	25.38	0.03	-0.750			
0.1877	12013.49	3.8900	3.8899	-0.7955	25.38	0.03	-0.750			
0.1902	12171.95	3.8870	3.8868	-0.8035	25.38	0.03	-0.750			
0.1926	12326.07	3.8840	3.8840	-0.7975	25.38	0.03	-0.750			
0.1950	12479.15	3.8810	3.8810	-0.7968	25.38	0.03	-0.750			
0.1974	12632.91	3.8780	3.8780	-0.7941	25.38	0.03	-0.750			
0.1997	12782.17	3.8750	3.8749	-0.7823	25.39	0.04	-0.750			
0.2021	12933.99	3.8720	3.8720	-0.7802	25.39	0.04	-0.750			
0.2044	13083.34	3.8690	3.8692	-0.7765	25.39	0.04	-0.750			
0.2067	13231.95	3.8660	3.8660	-0.7738	25.39	0.04	-0.750			
0.2090	13379.12	3.8630	3.8630	-0.7837	25.39	0.04	-0.750			
0.2114	13530.83	3.8600	3.8599	-0.7742	25.40	0.05	-0.750			
0.2138	13680.21	3.8570	3.8569	-0.7753	25.40	0.05	-0.750			
0.2161	13830.56	3.8540	3.8540	-0.7744	25.40	0.05	-0.750			
0.2184	13979.90	3.8510	3.8510	-0.7710	25.41	0.06	-0.750			
0.2207	14127.14	3.8480	3.8478	-0.7713	25.41	0.06	-0.750			
0.2230	14273.10	3.8450	3.8451	-0.7632	25.42	0.07	-0.750			
0.2253	14420.96	3.8420	3.8419	-0.7629	25.42	0.07	-0.750			
0.2276	14567.85	3.8390	3.8387	-0.7583	25.43	0.08	-0.750			
0.2299	14711.06	3.8360	3.8358	-0.7548	25.43	0.08	-0.750			
0.2321	14854.77	3.8330	3.8329	-0.7553	25.43	0.08	-0.750			
0.2343	14997.53	3.8300	3.8300	-0.7574	25.43	0.08	-0.750			
0.2366	15139.83	3.8270	3.8271	-0.7631	25.44	0.09	-0.750			
0.2390	15294.69	3.8240	3.8240	-0.7750	25.44	0.09	-0.750			
0.2413	15444.08	3.8210	3.8210	-0.7811	25.44	0.09	-0.750			
0.2437	15596.90	3.8180	3.8180	-0.7785	25.44	0.09	-0.750			
0.2460	15745.43	3.8150	3.8151	-0.7804	25.44	0.09	-0.750			
0.2484	15896.16	3.8120	3.8119	-0.7757	25.45	0.10	-0.750			
0.2507	16045.07	3.8090	3.8089	-0.7676	25.45	0.10	-0.750			
0.2530	16190.44	3.8060	3.8061	-0.7615	25.45	0.10	-0.750			
0.2553	16336.00	3.8030	3.8029	-0.7617	25.45	0.10	-0.750			
0.2575	16477.07	3.8000	3.7999	-0.7718	25.45	0.10	-0.750			
0.2598	16628.52	3.7970	3.7969	-0.7686	25.45	0.10	-0.750			
0.2621	16775.23	3.7940	3.7940	-0.7638	25.46	0.11	-0.750			
0.2645	16927.04	3.7910	3.7908	-0.7723	25.46	0.11	-0.750			
0.2668	17074.90	3.7880	3.7883	-0.7726	25.46	0.11	-0.750			
0.2691	17221.19	3.7850	3.7849	-0.7683	25.46	0.11	-0.750			
0.2714	17367.53	3.7820	3.7819	-0.7724	25.46	0.11	-0.750			
0.2737	17515.51	3.7790	3.7790	-0.7831	25.47	0.12	-0.750			
0.2760	17666.48	3.7760	3.7759	-0.7853	25.47	0.12	-0.750			
0.2784	17818.62	3.7730	3.7730	-0.7905	25.47	0.12	-0.750			
0.2808	17968.82	3.7700	3.7700	-0.7988	25.47	0.12	-0.750			
0.2832	18121.96	3.7670	3.7671	-0.8112	25.47	0.12	-0.750			
0.2857	18281.72	3.7640	3.7638	-0.8175	25.47	0.12	-0.750			
0.2881	18438.78	3.7610	3.7610	-0.8163	25.47	0.12	-0.750			
0.2906	18598.14	3.7580	3.7582	-0.8247	25.47	0.12	-0.750			
0.2931	18756.65	3.7550	3.7549	-0.8222	25.47	0.12	-0.750			
0.2955	18913.19	3.7520	3.7518	-0.8328	25.47	0.12	-0.750			
0.2980	19071.56	3.7490	3.7491	-0.8386	25.47	0.12	-0.750			
0.3005	19233.05	3.7460	3.7458	-0.8404	25.47	0.12	-0.750			
0.3031	19400.41	3.7430	3.7431	-0.8602	25.47	0.12	-0.750			
0.3057	19565.44	3.7400	3.7400	-0.8670	25.47	0.12	-0.750			
0.3083	19731.76	3.7370	3.7370	-0.8728	25.47	0.12	-0.750			
0.3110	19901.00	3.7340	3.7339	-0.8794	25.47	0.12	-0.750			
0.3135	20066.33	3.7310	3.7311	-0.8812	25.47	0.12	-0.750			
0.3162	20239.94	3.7280	3.7281	-0.8986	25.47	0.12	-0.750			
0.3190	20412.85	3.7250	3.7250	-0.9175	25.47	0.12	-0.750			
0.3217	20589.43	3.7220	3.7219	-0.9258	25.46	0.11	-0.750			
0.3245	20770.97	3.7190	3.7189	-0.9316	25.46	0.11	-0.750			
0.3274	20951.67	3.7160	3.7159	-0.9494	25.45	0.10	-0.750			
0.3302	21135.36	3.7130	3.7130	-0.9530	25.45	0.10	-0.750			
0.3331	21318.79	3.7100	3.7099	-0.9799	25.44	0.09	-0.750			
0.3361	21507.30	3.7070	3.7068	-0.9873	25.44	0.09	-0.750			
0.3390	21696.74	3.7040	3.7039	-0.9952	25.43	0.08	-0.750			
0.3421	21892.51	3.7010	3.7011	-1.0331	25.43	0.08	-0.750			
0.3452	22094.53	3.6980	3.6981	-1.0447	25.42	0.07	-0.750	0.386	0.549	
0.3484	22295.38	3.6950	3.6948	-1.0520	25.42	0.07	-0.750			
0.3515	22494.65	3.6920	3.6920	-1.0553	25.41	0.06	-0.750			
0.3547	22701.73	3.6890	3.6890	-1.0800	25.41	0.06	-0.750			
0.3580	22915.06	3.6860	3.6860	-1.0975	25.41	0.06	-0.750			
0.3614	23128.76	3.6830	3.6828	-1.0988	25.40	0.05	-0.750			
0.3646	23336.40	3.6800	3.6801	-1.1046	25.40	0.05	-0.750			
0.3680	23553.91	3.6770	3.6769	-1.1340	25.40	0.05	-0.750			
0.3714	23770.03	3.6740	3.6738	-1.1409	25.39	0.04	-0.750			
0.3748	23989.09	3.6710	3.6709	-1.1525	25.39	0.04	-0.750			
0.3783	24208.19	3.6680	3.6684	-1.1696	25.38	0.03	-0.750			
0.3819	24444.03	3.6650	3.6648	-1.2040	25.38	0.03	-0.750			
0.3856	24676.95	3.6620	3.6619	-1.2154	25.37	0.02	-0.750			
0.3892	24907.07	3.6590	3.6590	-1.2385	25.37	0.02	-0.750			
0.3929	25147.35	3.6560	3.6561	-1.2694	25.37	0.02	-0.750			
0.3968	25393.25	3.6530	3.6528	-1.2856	25.36	0.01	-0.750			
0.4006	25640.97	3.6500	3.6499	-1.2984	25.36	0.01	-0.750			
0.4046	25897.54	3.6470	3.6472	-1.2649	25.35	-0.00	-0.750			
0.4085	26145.97	3.6440	3.6441	-1.2480	25.34	-0.01	-0.750			
0.4121	26376.29	3.6410	3.6413	-1.2567	25.34	-0.01	-0.750			
0.4158	26609.06	3.6380	3.6379	-1.2852	25.33	-0.02	-0.750			
0.4195	26849.67	3.6350	3.6347	-1.3109	25.32	-0.03	-0.750			
0.4234	27099.21	3.6320	3.6320	-1.3767	25.32	-0.03	-0.750			
0.4277	27374.30	3.6290	3.6293	-1.4572	25.31	-0.04	-0.750			
0.4324	27674.58	3.6260	3.6258	-1.5401	25.30	-0.05	-0.750			
0.4372	27979.59	3.6230	3.6226	-1.5690	25.30	-0.05	-0.750			
0.4419	28282.22	3.6200	3.6202	-1.5832	25.29	-0.06	-0.750			
0.4467	28590.97	3.6170	3.6169	-1.5890	25.28	-0.07	-0.750			
0.4516	28905.48	3.6140	3.6137	-1.5940	25.27	-0.08	-0.750			
0.4562	29199.23	3.6110	3.6107	-1.5928	25.27	-0.08	-0.750			
0.4611	29509.14	3.6080	3.6078	-1.6286	25.26	-0.09	-0.750			
0.4661	29831.10	3.6050	3.6048	-1.6694	25.26	-0.09	-0.750			
0.4711	30151.05	3.6020	3.6023	-1.7441	25.26	-0.09	-0.750			
0.4765	30495.23	3.5990	3.5990	-1.7617	25.25	-0.10	-0.750			
0.4820	30847.17	3.5960	3.5960	-1.8227	25.25	-0.10	-0.750			
0.4875	31199.11	3.5930	3.5934	-1.8121	25.24	-0.11	-0.750			
0.4930	31551.87	3.5900	3.5896	-1.8312	25.24	-0.11	-0.750			
0.4984	31896.80	3.5870	3.5865	-1.8969	25.23	-0.12	-0.750			
0.5041	32263.29	3.5840	3.5842	-1.9083	25.23	-0.12	-0.750			
0.5099	32634.15	3.5810	3.5811	-1.9741	25.23	-0.12	-0.750			
0.5158	33010.23	3.5780	3.5785	-1.9619	25.22	-0.13	-0.750			
0.5217	33390.69	3.5750	3.5749	-1.9841	25.22	-0.13	-0.750			
0.5277	33772.87	3.5720	3.5718	-1.9894	25.22	-0.13	-0.750			
0.5337	34155.53	3.5690	3.5693	-1.9963	25.22	-0.13	-0.750			
0.5398	34545.43	3.5660	3.5662	-2.0274	25.22	-0.13	-0.750			
0.5460	34943.10	3.5630	3.5628	-2.0718	25.22	-0.13	-0.750			
0.5520	35328.75	3.5600	3.5597	-2.0175	25.22	-0.13	-0.750			
0.5581	35720.07	3.5570	3.5574	-1.9972	25.22	-0.13	-0.750			
0.5642	36106.68	3.5540	3.5539	-1.9918	25.23	-0.12	-0.750			
0.5701	36485.00	3.5510	3.5512	-1.9606	25.24	-0.11	-0.750			
0.5759	36859.61	3.5480	3.5480	-1.9583	25.25	-0.10	-0.750			
0.5819	37244.41	3.5450	3.5455	-1.9543	25.25	-0.10	-0.750			
0.5880	37630.45	3.5420	3.5420	-1.9502	25.26	-0.09	-0.750			
0.5939	38007.50	3.5390	3.5386	-1.9533	25.26	-0.09	-0.750			
0.5997	38379.30	3.5360	3.5357	-1.8897	25.27	-0.08	-0.750			
0.6053	38736.20	3.5330	3.5324	-1.8420	25.27	-0.08	-0.750			
0.6107	39083.82	3.5300	3.5297	-1.8128	25.28	-0.07	-0.750			
0.6161	39427.55	3.5270	3.5269	-1.8031	25.29	-0.06	-0.750			
0.6215	39773.69	3.5240	3.5240	-1.8048	25.30	-0.05	-0.750			
0.6269	40124.68	3.5210	3.5211	-1.7599	25.32	-0.03	-0.750			
0.6322	40459.21	3.5180	3.5180	-1.6826	25.33	-0.02	-0.750			
0.6373	40785.59	3.5150	3.5151	-1.6363	25.34	-0.01	-0.750			
0.6419	41084.09	3.5120	3.5123	-1.6077	25.35	0.00	-0.750			
0.6467	41385.92	3.5090	3.5090	-1.5503	25.37	0.02	-0.750			
0.6513	41683.74	3.5060	3.5061	-1.5303	25.38	0.03	-0.750			
0.6560	41980.82	3.5030	3.5028	-1.4985	25.40	0.05	-0.750			
0.6605	42270.12	3.5000	3.5001	-1.4565	25.41	0.06	-0.750			
0.6648	42547.91	3.4970	3.4971	-1.4212	25.43	0.08	-0.750			
0.6689	42808.13	3.4940	3.4938	-1.3515	25.44	0.09	-0.750			
0.6727	43055.99	3.4910	3.4909	-1.2930	25.46	0.11	-0.750			
0.6767	43310.35	3.4880	3.4880	-1.2791	25.47	0.12	-0.750			
0.6803	43542.22	3.4850	3.4850	-1.2564	25.49	0.14	-0.750			
0.6842	43789.43	3.4820	3.4820	-1.1853	25.50	0.15	-0.750			
0.6877	44010.31	3.4790	3.4791	-1.1132	25.52	0.17	-0.750			
