Ah_balance (normalized)	Ah_balance (mAh)	Voltage - fit (V)	Voltage -  interpolate (V)	dQ/dV (1/V)	Temperature (°C)	Temperature - diff (°C)	Current (C)	R_DC 0ms (mOhm)	R_DC 50ms (mOhm)	R_DC 50 ms PEC (mOhm)
0.0003	21.41	4.1620	4.1619	-0.1084	25.35	0.03	-0.750			
0.0008	48.50	4.1590	4.1590	-0.1656	25.34	0.02	-0.750			
0.0014	87.12	4.1560	4.1559	-0.2152	25.34	0.02	-0.750			
0.0021	133.39	4.1530	4.1529	-0.2592	25.34	0.02	-0.750			
0.0029	187.85	4.1500	4.1502	-0.2993	25.34	0.02	-0.750			
0.0039	251.29	4.1470	4.1470	-0.3393	25.34	0.02	-0.750			
0.0050	320.05	4.1440	4.1440	-0.3790	25.33	0.01	-0.750			
0.0062	396.36	4.1410	4.1410	-0.4184	25.33	0.01	-0.750			
0.0075	481.03	4.1380	4.1379	-0.4538	25.33	0.01	-0.750			
0.0089	572.41	4.1350	4.1350	-0.4878	25.32	0.00	-0.750			
0.0105	671.93	4.1320	4.1326	-0.5144	25.32	0.00	-0.750			
0.0121	773.60	4.1290	4.1289	-0.5396	25.32	-0.00	-0.750			
0.0138	880.02	4.1260	4.1260	-0.5644	25.31	-0.01	-0.750			
0.0155	989.51	4.1230	4.1230	-0.5830	25.31	-0.01	-0.750			
0.0172	1102.86	4.1200	4.1199	-0.6094	25.30	-0.02	-0.750			
0.0192	1228.01	4.1170	4.1169	-0.6276	25.30	-0.02	-0.750			
0.0211	1352.25	4.1140	4.1139	-0.6414	25.30	-0.02	-0.750			
0.0231	1477.31	4.1110	4.1116	-0.6504	25.29	-0.03	-0.750			
0.0250	1601.91	4.1080	4.1087	-0.6540	25.29	-0.03	-0.750			
0.0270	1725.95	4.1050	4.1048	-0.6631	25.29	-0.03	-0.750			
0.0289	1851.20	4.1020	4.1021	-0.6667	25.29	-0.03	-0.750			
0.0310	1983.73	4.0990	4.0989	-0.6845	25.28	-0.04	-0.750			
0.0331	2115.62	4.0960	4.0960	-0.6884	25.28	-0.04	-0.750			
0.0352	2249.70	4.0930	4.0931	-0.6979	25.28	-0.04	-0.750			
0.0373	2384.62	4.0900	4.0901	-0.7015	25.28	-0.04	-0.750			
0.0393	2517.86	4.0870	4.0869	-0.7093	25.28	-0.04	-0.750			
0.0415	2654.96	4.0840	4.0841	-0.7267	25.28	-0.04	-0.750			
0.0437	2799.53	4.0810	4.0808	-0.7289	25.28	-0.04	-0.750			
0.0459	2940.66	4.0780	4.0777	-0.7288	25.28	-0.04	-0.750			
0.0482	3082.23	4.0750	4.0756	-0.7329	25.28	-0.04	-0.750			
0.0503	3221.96	4.0720	4.0719	-0.7315	25.28	-0.04	-0.750			
0.0525	3358.92	4.0690	4.0689	-0.7489	25.28	-0.04	-0.750			
0.0547	3503.97	4.0660	4.0659	-0.7443	25.27	-0.05	-0.750			
0.0570	3650.38	4.0630	4.0628	-0.7511	25.27	-0.05	-0.750			
0.0593	3795.59	4.0600	4.0599	-0.7477	25.27	-0.05	-0.750			
0.0616	3939.72	4.0570	4.0567	-0.7434	25.27	-0.05	-0.750			
0.0637	4079.59	4.0540	4.0539	-0.7378	25.27	-0.05	-0.750			
0.0659	4215.51	4.0510	4.0510	-0.7374	25.27	-0.05	-0.750			
0.0680	4353.39	4.0480	4.0482	-0.7402	25.27	-0.05	-0.750			
0.0704	4504.67	4.0450	4.0447	-0.7603	25.27	-0.05	-0.750			
0.0727	4651.71	4.0420	4.0421	-0.7651	25.27	-0.05	-0.750			
0.0750	4799.76	4.0390	4.0390	-0.7635	25.27	-0.05	-0.750			
0.0773	4945.89	4.0360	4.0361	-0.7729	25.27	-0.05	-0.750			
0.0796	5096.05	4.0330	4.0329	-0.7683	25.27	-0.05	-0.750			
0.0819	5240.50	4.0300	4.0299	-0.7640	25.27	-0.05	-0.750			
0.0842	5387.04	4.0270	4.0270	-0.7679	25.27	-0.05	-0.750			
0.0865	5535.04	4.0240	4.0239	-0.7725	25.27	-0.05	-0.750			
0.0887	5679.68	4.0210	4.0210	-0.7864	25.27	-0.05	-0.750			
0.0912	5834.15	4.0180	4.0179	-0.7869	25.27	-0.05	-0.750			
0.0935	5985.31	4.0150	4.0150	-0.7813	25.28	-0.04	-0.750			
0.0959	6139.11	4.0120	4.0117	-0.7860	25.28	-0.04	-0.750			
0.0983	6289.71	4.0090	4.0099	-0.7824	25.28	-0.04	-0.750			
0.1006	6439.49	4.0060	4.0058	-0.7765	25.28	-0.04	-0.750			
0.1029	6586.06	4.0030	4.0030	-0.7755	25.28	-0.04	-0.750			
0.1052	6732.70	4.0000	4.0000	-0.7765	25.28	-0.04	-0.750			
0.1075	6882.69	3.9970	3.9970	-0.7867	25.28	-0.04	-0.750			
0.1099	7033.90	3.9940	3.9941	-0.7909	25.28	-0.04	-0.750			
0.1123	7185.87	3.9910	3.9908	-0.7940	25.28	-0.04	-0.750			
0.1147	7339.99	3.9880	3.9881	-0.8065	25.28	-0.04	-0.750			
0.1172	7499.77	3.9850	3.9849	-0.8041	25.28	-0.04	-0.750			
0.1196	7654.83	3.9820	3.9818	-0.8010	25.28	-0.04	-0.750			
0.1220	7807.41	3.9790	3.9788	-0.7986	25.28	-0.04	-0.750			
0.1244	7958.46	3.9760	3.9757	-0.7964	25.28	-0.04	-0.750			
0.1267	8109.11	3.9730	3.9728	-0.8014	25.28	-0.04	-0.750			
0.1291	8261.16	3.9700	3.9699	-0.7979	25.28	-0.04	-0.750			
0.1314	8411.76	3.9670	3.9672	-0.7983	25.29	-0.03	-0.750			
0.1340	8576.16	3.9640	3.9639	-0.8159	25.29	-0.03	-0.750			
0.1364	8730.86	3.9610	3.9612	-0.8081	25.29	-0.03	-0.750			
0.1388	8881.78	3.9580	3.9580	-0.8129	25.29	-0.03	-0.750			
0.1412	9039.85	3.9550	3.9550	-0.8158	25.29	-0.03	-0.750			
0.1437	9196.52	3.9520	3.9519	-0.8112	25.30	-0.02	-0.750			
0.1462	9353.94	3.9490	3.9490	-0.8214	25.30	-0.02	-0.750			
0.1486	9513.22	3.9460	3.9462	-0.8174	25.30	-0.02	-0.750			
0.1511	9669.74	3.9430	3.9429	-0.8180	25.30	-0.02	-0.750			
0.1536	9827.82	3.9400	3.9400	-0.8227	25.30	-0.02	-0.750			
0.1560	9985.34	3.9370	3.9368	-0.8201	25.30	-0.02	-0.750			
0.1585	10146.02	3.9340	3.9338	-0.8283	25.30	-0.02	-0.750			
0.1610	10304.37	3.9310	3.9315	-0.8262	25.30	-0.02	-0.750			
0.1635	10461.53	3.9280	3.9280	-0.8242	25.30	-0.02	-0.750			
0.1660	10623.07	3.9250	3.9249	-0.8395	25.30	-0.02	-0.750			
0.1685	10781.11	3.9220	3.9219	-0.8281	25.31	-0.01	-0.750			
0.1711	10948.27	3.9190	3.9188	-0.8464	25.31	-0.01	-0.750			
0.1736	11109.33	3.9160	3.9165	-0.8430	25.31	-0.01	-0.750			
0.1761	11269.49	3.9130	3.9129	-0.8404	25.31	-0.01	-0.750			
0.1786	11430.63	3.9100	3.9099	-0.8469	25.31	-0.01	-0.750			
0.1811	11588.98	3.9070	3.9069	-0.8310	25.32	-0.00	-0.750			
0.1837	11755.60	3.9040	3.9040	-0.8465	25.32	-0.00	-0.750			
0.1862	11918.14	3.9010	3.9013	-0.8441	25.32	0.00	-0.750			
0.1887	12079.82	3.8980	3.8978	-0.8410	25.32	0.00	-0.750			
0.1913	12243.29	3.8950	3.8949	-0.8525	25.33	0.01	-0.750			
0.1939	12406.66	3.8920	3.8920	-0.8446	25.33	0.01	-0.750			
0.1964	12571.22	3.8890	3.8888	-0.8528	25.34	0.02	-0.750			
0.1990	12735.28	3.8860	3.8859	-0.8497	25.34	0.02	-0.750			
0.2015	12894.61	3.8830	3.8829	-0.8583	25.34	0.02	-0.750			
0.2041	13061.11	3.8800	3.8799	-0.8508	25.34	0.02	-0.750			
0.2066	13220.79	3.8770	3.8770	-0.8406	25.34	0.02	-0.750			
0.2092	13389.87	3.8740	3.8739	-0.8509	25.34	0.02	-0.750			
0.2118	13553.83	3.8710	3.8710	-0.8480	25.34	0.02	-0.750			
0.2142	13711.89	3.8680	3.8679	-0.8490	25.34	0.02	-0.750			
0.2168	13873.75	3.8650	3.8650	-0.8425	25.34	0.02	-0.750			
0.2193	14032.72	3.8620	3.8620	-0.8372	25.35	0.03	-0.750			
0.2219	14199.02	3.8590	3.8590	-0.8503	25.35	0.03	-0.750			
0.2244	14362.76	3.8560	3.8559	-0.8498	25.35	0.03	-0.750			
0.2270	14526.60	3.8530	3.8529	-0.8609	25.35	0.03	-0.750			
0.2296	14692.37	3.8500	3.8499	-0.8589	25.36	0.04	-0.750			
0.2322	14858.89	3.8470	3.8469	-0.8490	25.36	0.04	-0.750			
0.2348	15024.67	3.8440	3.8439	-0.8476	25.36	0.04	-0.750			
0.2373	15186.06	3.8410	3.8408	-0.8446	25.36	0.04	-0.750			
0.2398	15346.06	3.8380	3.8377	-0.8505	25.36	0.04	-0.750			
0.2423	15507.29	3.8350	3.8349	-0.8391	25.37	0.05	-0.750			
0.2449	15671.52	3.8320	3.8319	-0.8381	25.37	0.05	-0.750			
0.2474	15832.52	3.8290	3.8293	-0.8332	25.37	0.05	-0.750			
0.2499	15991.78	3.8260	3.8258	-0.8254	25.37	0.05	-0.750			
0.2523	16145.73	3.8230	3.8227	-0.8154	25.37	0.05	-0.750			
0.2547	16298.35	3.8200	3.8201	-0.8131	25.37	0.05	-0.750			
0.2570	16449.99	3.8170	3.8170	-0.8101	25.37	0.05	-0.750			
0.2596	16615.65	3.8140	3.8139	-0.8245	25.37	0.05	-0.750			
0.2621	16773.87	3.8110	3.8109	-0.8183	25.37	0.05	-0.750			
0.2645	16926.92	3.8080	3.8081	-0.8183	25.38	0.06	-0.750			
0.2670	17087.44	3.8050	3.8050	-0.8115	25.38	0.06	-0.750			
0.2694	17242.01	3.8020	3.8019	-0.8040	25.38	0.06	-0.750			
0.2718	17396.11	3.7990	3.7987	-0.7975	25.39	0.07	-0.750			
0.2742	17549.01	3.7960	3.7959	-0.7896	25.39	0.07	-0.750			
0.2765	17696.49	3.7930	3.7930	-0.7940	25.39	0.07	-0.750			
0.2789	17849.57	3.7900	3.7900	-0.7839	25.39	0.07	-0.750			
0.2812	17997.30	3.7870	3.7870	-0.7720	25.38	0.06	-0.750			
0.2836	18149.92	3.7840	3.7840	-0.7813	25.38	0.06	-0.750			
0.2859	18299.22	3.7810	3.7817	-0.7759	25.38	0.06	-0.750			
0.2883	18448.44	3.7780	3.7780	-0.7707	25.38	0.06	-0.750			
0.2905	18594.52	3.7750	3.7750	-0.7755	25.39	0.07	-0.750			
0.2929	18743.10	3.7720	3.7720	-0.7709	25.39	0.07	-0.750			
0.2952	18893.22	3.7690	3.7689	-0.7810	25.40	0.08	-0.750			
0.2975	19041.86	3.7660	3.7660	-0.7785	25.40	0.08	-0.750			
0.2998	19189.67	3.7630	3.7630	-0.7831	25.40	0.08	-0.750			
0.3022	19340.16	3.7600	3.7599	-0.8024	25.41	0.09	-0.750			
0.3046	19496.37	3.7570	3.7570	-0.8078	25.41	0.09	-0.750			
0.3071	19653.23	3.7540	3.7538	-0.8048	25.41	0.09	-0.750			
0.3096	19813.27	3.7510	3.7510	-0.8183	25.42	0.10	-0.750			
0.3120	19967.44	3.7480	3.7479	-0.8182	25.42	0.10	-0.750			
0.3144	20122.55	3.7450	3.7448	-0.8324	25.42	0.10	-0.750			
0.3169	20282.97	3.7420	3.7418	-0.8346	25.42	0.10	-0.750			
0.3194	20442.80	3.7390	3.7388	-0.8289	25.41	0.09	-0.750			
0.3220	20610.95	3.7360	3.7360	-0.8511	25.41	0.09	-0.750			
0.3246	20772.28	3.7330	3.7329	-0.8607	25.41	0.09	-0.750			
0.3271	20933.99	3.7300	3.7299	-0.8729	25.40	0.08	-0.750			
0.3297	21100.97	3.7270	3.7268	-0.8903	25.40	0.08	-0.750			
0.3324	21271.40	3.7240	3.7240	-0.8909	25.40	0.08	-0.750			
0.3352	21453.65	3.7210	3.7211	-0.9241	25.39	0.07	-0.750			
0.3380	21633.22	3.7180	3.7180	-0.9467	25.39	0.07	-0.750			
0.3409	21816.92	3.7150	3.7147	-0.9535	25.39	0.07	-0.750			
0.3438	22000.82	3.7120	3.7118	-0.9534	25.38	0.06	-0.750			
0.3466	22182.10	3.7090	3.7089	-0.9869	25.38	0.06	-0.750			
0.3496	22376.59	3.7060	3.7056	-1.0223	25.38	0.06	-0.750			
0.3528	22581.04	3.7030	3.7025	-1.0224	25.38	0.06	-0.750			
0.3559	22777.11	3.7000	3.6998	-1.0211	25.37	0.05	-0.750	0.376	0.502	
0.3589	22970.28	3.6970	3.6968	-1.0199	25.37	0.05	-0.750			
0.3621	23171.81	3.6940	3.6936	-1.0522	25.37	0.05	-0.750			
0.3652	23370.54	3.6910	3.6908	-1.0632	25.36	0.04	-0.750			
0.3682	23565.61	3.6880	3.6880	-1.0716	25.36	0.04	-0.750			
0.3716	23779.56	3.6850	3.6851	-1.1470	25.35	0.03	-0.750			
0.3751	24005.02	3.6820	3.6821	-1.1618	25.35	0.03	-0.750			
0.3786	24232.87	3.6790	3.6788	-1.1774	25.34	0.02	-0.750			
0.3822	24461.50	3.6760	3.6758	-1.1867	25.33	0.01	-0.750			
0.3858	24690.12	3.6730	3.6740	-1.2158	25.32	-0.00	-0.750			
0.3895	24930.99	3.6700	3.6697	-1.2311	25.31	-0.01	-0.750			
0.3933	25171.77	3.6670	3.6667	-1.2329	25.30	-0.02	-0.750			
0.3969	25404.67	3.6640	3.6638	-1.2355	25.29	-0.03	-0.750			
0.4007	25645.56	3.6610	3.6608	-1.2791	25.29	-0.03	-0.750			
0.4045	25891.03	3.6580	3.6577	-1.2999	25.28	-0.04	-0.750			
0.4084	26139.30	3.6550	3.6548	-1.3325	25.28	-0.04	-0.750			
0.4126	26407.71	3.6520	3.6518	-1.3717	25.28	-0.04	-0.750			
0.4168	26675.97	3.6490	3.6488	-1.4101	25.27	-0.05	-0.750			
0.4211	26952.18	3.6460	3.6457	-1.4300	25.26	-0.06	-0.750			
0.4254	27226.23	3.6430	3.6424	-1.4427	25.24	-0.08	-0.750			
0.4299	27514.18	3.6400	3.6409	-1.4541	25.23	-0.09	-0.750			
0.4343	27795.70	3.6370	3.6368	-1.4785	25.22	-0.10	-0.750			
0.4387	28076.18	3.6340	3.6344	-1.4797	25.22	-0.10	-0.750			
0.4432	28364.30	3.6310	3.6306	-1.5437	25.21	-0.11	-0.750			
0.4480	28669.58	3.6280	3.6282	-1.5784	25.20	-0.12	-0.750			
0.4528	28978.85	3.6250	3.6249	-1.6238	25.19	-0.13	-0.750			
0.4578	29300.74	3.6220	3.6222	-1.6596	25.18	-0.14	-0.750			
0.4627	29611.67	3.6190	3.6187	-1.6777	25.18	-0.14	-0.750			
0.4680	29949.82	3.6160	3.6159	-1.6933	25.17	-0.15	-0.750			
0.4731	30275.27	3.6130	3.6134	-1.7060	25.17	-0.15	-0.750			
0.4782	30601.82	3.6100	3.6105	-1.7590	25.16	-0.16	-0.750			
0.4833	30928.93	3.6070	3.6069	-1.8566	25.15	-0.17	-0.750			
0.4889	31287.16	3.6040	3.6047	-1.9030	25.14	-0.18	-0.750			
0.4949	31673.37	3.6010	3.6003	-1.9394	25.13	-0.19	-0.750			
0.5010	32062.43	3.5980	3.5979	-2.0125	25.13	-0.19	-0.750			
0.5070	32446.12	3.5950	3.5955	-1.9691	25.12	-0.20	-0.750			
0.5131	32837.48	3.5920	3.5916	-1.9983	25.12	-0.20	-0.750			
0.5192	33228.19	3.5890	3.5887	-2.0685	25.11	-0.21	-0.750			
0.5251	33604.36	3.5860	3.5856	-2.0937	25.10	-0.22	-0.750			
0.5315	34016.41	3.5830	3.5824	-2.2070	25.09	-0.23	-0.750			
0.5382	34446.73	3.5800	3.5793	-2.3468	25.09	-0.23	-0.750			
0.5455	34909.14	3.5770	3.5776	-2.4027	25.08	-0.24	-0.750			
0.5528	35377.50	3.5740	3.5741	-2.3597	25.08	-0.24	-0.750			
0.5600	35838.38	3.5710	3.5706	-2.3754	25.08	-0.24	-0.750			
0.5665	36253.26	3.5680	3.5681	-2.2279	25.08	-0.24	-0.750			
0.5732	36687.18	3.5650	3.5651	-2.2016	25.08	-0.24	-0.750			
0.5800	37121.58	3.5620	3.5616	-2.2167	25.08	-0.24	-0.750			
0.5865	37534.73	3.5590	3.5592	-2.2151	25.08	-0.24	-0.750			
0.5931	37959.75	3.5560	3.5561	-2.1829	25.08	-0.24	-0.750			
0.5998	38385.11	3.5530	3.5530	-2.1832	25.08	-0.24	-0.750			
0.6064	38809.95	3.5500	3.5498	-2.1602	25.09	-0.23	-0.750			
0.6127	39212.53	3.5470	3.5471	-2.0887	25.10	-0.22	-0.750			
0.6188	39605.07	3.5440	3.5441	-2.0585	25.11	-0.21	-0.750			
0.6250	40001.19	3.5410	3.5409	-2.0213	25.11	-0.21	-0.750			
0.6311	40389.01	3.5380	3.5379	-1.9741	25.12	-0.20	-0.750			
0.6369	40764.34	3.5350	3.5351	-1.9525	25.12	-0.20	-0.750			
0.6428	41139.87	3.5320	3.5319	-1.9311	25.13	-0.19	-0.750			
0.6486	41507.31	3.5290	3.5292	-1.8710	25.14	-0.18	-0.750			
0.6541	41864.88	3.5260	3.5264	-1.8229	25.16	-0.16	-0.750			
0.6596	42211.75	3.5230	3.5233	-1.7729	25.18	-0.14	-0.750			
0.6648	42549.24	3.5200	3.5200	-1.7382	25.19	-0.13	-0.750			
0.6700	42881.45	3.5170	3.5171	-1.7034	25.21	-0.11	-0.750			
0.6750	43202.47	3.5140	3.5138	-1.6656	25.23	-0.09	-0.750			
0.6800	43518.11	3.5110	3.5112	-1.6107	25.24	-0.08	-0.750			
0.6848	43828.75	3.5080	3.5083	-1.5833	25.26	-0.06	-0.750			
0.6895	44126.62	3.5050	3.5049	-1.5312	25.27	-0.05	-0.750			
0.6940	44415.37	3.5020	3.5018	-1.4791	25.29	-0.03	-0.750			
0.6983	44692.61	3.4990	3.4993	-1.4483	25.30	-0.02	-0.750			
0.7026	44967.39	3.4960	3.4960	-1.4089	25.32	0.00	-0.750			
0.7068	45232.64	3.4930	3.4929	-1.3677	25.35	0.03	-0.750			
0.7108	45493.78	3.4900	3.4903	-1.3185	25.37	0.05	-0.750			
0.7147	45742.94	3.4870	3.4870	-1.2683	25.39	0.07	-0.750			
