Ah_balance (normalized)	Ah_balance (mAh)	Voltage - fit (V)	Voltage -  interpolate (V)	dQ/dV (1/V)	Temperature (°C)	Temperature - diff (°C)	Current (C)	R_DC 0ms (mOhm)	R_DC 50ms (mOhm)	R_DC 50 ms PEC (mOhm)
0.0005	28.95	4.1630	4.1626	-0.1443	25.08	0.00	-0.750			
0.0010	61.13	4.1600	4.1599	-0.1876	25.08	0.00	-0.750			
0.0016	101.55	4.1570	4.1570	-0.2286	25.08	0.00	-0.750			
0.0023	149.02	4.1540	4.1541	-0.2719	25.08	-0.00	-0.750			
0.0032	205.46	4.1510	4.1510	-0.3129	25.07	-0.01	-0.750			
0.0042	269.93	4.1480	4.1479	-0.3542	25.07	-0.01	-0.750			
0.0053	341.84	4.1450	4.1451	-0.3945	25.07	-0.01	-0.750			
0.0066	422.32	4.1420	4.1420	-0.4318	25.06	-0.02	-0.750			
0.0080	509.06	4.1390	4.1390	-0.4684	25.06	-0.02	-0.750			
0.0094	603.34	4.1360	4.1360	-0.5075	25.05	-0.03	-0.750			
0.0110	705.80	4.1330	4.1329	-0.5283	25.05	-0.03	-0.750			
0.0127	812.03	4.1300	4.1299	-0.5543	25.04	-0.04	-0.750			
0.0144	920.35	4.1270	4.1274	-0.5743	25.04	-0.04	-0.750			
0.0161	1033.37	4.1240	4.1237	-0.5908	25.04	-0.04	-0.750			
0.0179	1147.99	4.1210	4.1210	-0.6071	25.03	-0.05	-0.750			
0.0197	1262.88	4.1180	4.1181	-0.6258	25.03	-0.05	-0.750			
0.0217	1387.26	4.1150	4.1150	-0.6468	25.03	-0.05	-0.750			
0.0237	1516.00	4.1120	4.1118	-0.6592	25.02	-0.06	-0.750			
0.0257	1643.45	4.1090	4.1089	-0.6700	25.02	-0.06	-0.750			
0.0277	1774.20	4.1060	4.1060	-0.6760	25.02	-0.06	-0.750			
0.0298	1905.19	4.1030	4.1031	-0.6882	25.01	-0.07	-0.750			
0.0318	2036.89	4.1000	4.0998	-0.6949	25.01	-0.07	-0.750			
0.0339	2169.43	4.0970	4.0970	-0.6991	25.01	-0.07	-0.750			
0.0360	2305.60	4.0940	4.0940	-0.7092	25.00	-0.08	-0.750			
0.0382	2444.20	4.0910	4.0910	-0.7143	25.00	-0.08	-0.750			
0.0404	2583.48	4.0880	4.0881	-0.7214	25.00	-0.08	-0.750			
0.0425	2722.16	4.0850	4.0849	-0.7250	25.00	-0.08	-0.750			
0.0447	2860.53	4.0820	4.0821	-0.7329	25.00	-0.08	-0.750			
0.0469	3002.82	4.0790	4.0789	-0.7315	25.00	-0.08	-0.750			
0.0491	3144.08	4.0760	4.0760	-0.7326	25.00	-0.08	-0.750			
0.0513	3284.71	4.0730	4.0734	-0.7394	25.00	-0.08	-0.750			
0.0536	3427.66	4.0700	4.0698	-0.7373	25.00	-0.08	-0.750			
0.0558	3568.36	4.0670	4.0669	-0.7395	25.00	-0.08	-0.750			
0.0580	3711.74	4.0640	4.0640	-0.7465	25.00	-0.08	-0.750			
0.0603	3857.69	4.0610	4.0610	-0.7542	25.00	-0.08	-0.750			
0.0625	4002.68	4.0580	4.0579	-0.7565	25.00	-0.08	-0.750			
0.0648	4146.91	4.0550	4.0552	-0.7549	25.00	-0.08	-0.750			
0.0670	4289.97	4.0520	4.0519	-0.7555	25.00	-0.08	-0.750			
0.0693	4436.05	4.0490	4.0490	-0.7613	25.00	-0.08	-0.750			
0.0716	4579.35	4.0460	4.0460	-0.7588	25.00	-0.08	-0.750			
0.0739	4729.76	4.0430	4.0429	-0.7659	25.00	-0.08	-0.750			
0.0762	4877.78	4.0400	4.0401	-0.7678	25.00	-0.08	-0.750			
0.0785	5024.36	4.0370	4.0370	-0.7684	25.00	-0.08	-0.750			
0.0808	5171.01	4.0340	4.0340	-0.7749	25.00	-0.08	-0.750			
0.0831	5321.56	4.0310	4.0309	-0.7734	25.00	-0.08	-0.750			
0.0855	5470.00	4.0280	4.0280	-0.7678	25.00	-0.08	-0.750			
0.0878	5618.06	4.0250	4.0249	-0.7733	25.00	-0.08	-0.750			
0.0901	5766.12	4.0220	4.0221	-0.7776	25.00	-0.08	-0.750			
0.0924	5913.93	4.0190	4.0188	-0.7777	25.00	-0.08	-0.750			
0.0948	6064.10	4.0160	4.0160	-0.7757	25.00	-0.08	-0.750			
0.0971	6212.69	4.0130	4.0131	-0.7756	25.01	-0.07	-0.750			
0.0994	6363.84	4.0100	4.0099	-0.7824	25.01	-0.07	-0.750			
0.1018	6514.53	4.0070	4.0073	-0.7881	25.01	-0.07	-0.750			
0.1041	6663.54	4.0040	4.0039	-0.7914	25.01	-0.07	-0.750			
0.1065	6815.94	4.0010	4.0010	-0.7939	25.01	-0.07	-0.750			
0.1089	6971.36	3.9980	3.9980	-0.7956	25.02	-0.06	-0.750			
0.1114	7127.08	3.9950	3.9950	-0.7989	25.02	-0.06	-0.750			
0.1137	7278.21	3.9920	3.9921	-0.7969	25.02	-0.06	-0.750			
0.1161	7430.80	3.9890	3.9889	-0.7931	25.02	-0.06	-0.750			
0.1185	7581.16	3.9860	3.9860	-0.8009	25.02	-0.06	-0.750			
0.1209	7735.01	3.9830	3.9829	-0.8012	25.03	-0.05	-0.750			
0.1233	7890.97	3.9800	3.9800	-0.8020	25.03	-0.05	-0.750			
0.1257	8047.15	3.9770	3.9771	-0.8080	25.03	-0.05	-0.750			
0.1281	8199.53	3.9740	3.9740	-0.8134	25.03	-0.05	-0.750			
0.1305	8353.47	3.9710	3.9708	-0.8175	25.03	-0.05	-0.750			
0.1330	8514.59	3.9680	3.9679	-0.8149	25.04	-0.04	-0.750			
0.1355	8669.71	3.9650	3.9650	-0.8092	25.04	-0.04	-0.750			
0.1380	8830.53	3.9620	3.9622	-0.8180	25.04	-0.04	-0.750			
0.1404	8986.95	3.9590	3.9589	-0.8130	25.04	-0.04	-0.750			
0.1428	9138.34	3.9560	3.9559	-0.8094	25.04	-0.04	-0.750			
0.1452	9293.52	3.9530	3.9530	-0.8081	25.04	-0.04	-0.750			
0.1476	9449.05	3.9500	3.9500	-0.8094	25.05	-0.03	-0.750			
0.1501	9607.34	3.9470	3.9469	-0.8138	25.05	-0.03	-0.750			
0.1525	9762.66	3.9440	3.9441	-0.8180	25.05	-0.03	-0.750			
0.1550	9917.28	3.9410	3.9409	-0.8303	25.05	-0.03	-0.750			
0.1575	10078.82	3.9380	3.9380	-0.8289	25.05	-0.03	-0.750			
0.1600	10238.21	3.9350	3.9348	-0.8313	25.05	-0.03	-0.750			
0.1625	10400.04	3.9320	3.9320	-0.8355	25.05	-0.03	-0.750			
0.1650	10562.31	3.9290	3.9290	-0.8389	25.05	-0.03	-0.750			
0.1675	10720.45	3.9260	3.9259	-0.8445	25.05	-0.03	-0.750			
0.1700	10881.18	3.9230	3.9228	-0.8373	25.05	-0.03	-0.750			
0.1725	11040.83	3.9200	3.9201	-0.8406	25.06	-0.02	-0.750			
0.1751	11209.10	3.9170	3.9169	-0.8484	25.06	-0.02	-0.750			
0.1777	11372.62	3.9140	3.9139	-0.8485	25.06	-0.02	-0.750			
0.1802	11534.91	3.9110	3.9110	-0.8553	25.07	-0.01	-0.750			
0.1828	11697.85	3.9080	3.9079	-0.8500	25.07	-0.01	-0.750			
0.1853	11858.84	3.9050	3.9049	-0.8482	25.07	-0.01	-0.750			
0.1879	12025.99	3.9020	3.9021	-0.8582	25.08	-0.00	-0.750			
0.1905	12190.26	3.8990	3.8989	-0.8577	25.08	0.00	-0.750			
0.1931	12356.36	3.8960	3.8959	-0.8649	25.08	0.00	-0.750			
0.1957	12521.64	3.8930	3.8931	-0.8613	25.09	0.01	-0.750			
0.1983	12688.17	3.8900	3.8899	-0.8624	25.09	0.01	-0.750			
0.2009	12854.74	3.8870	3.8870	-0.8664	25.09	0.01	-0.750			
0.2034	13019.50	3.8840	3.8839	-0.8634	25.09	0.01	-0.750			
0.2060	13185.43	3.8810	3.8810	-0.8669	25.09	0.01	-0.750			
0.2086	13352.66	3.8780	3.8779	-0.8647	25.10	0.02	-0.750			
0.2112	13518.23	3.8750	3.8749	-0.8631	25.10	0.02	-0.750			
0.2139	13687.82	3.8720	3.8722	-0.8604	25.10	0.02	-0.750			
0.2164	13851.09	3.8690	3.8690	-0.8625	25.10	0.02	-0.750			
0.2190	14015.11	3.8660	3.8660	-0.8615	25.11	0.03	-0.750			
0.2216	14181.31	3.8630	3.8629	-0.8640	25.11	0.03	-0.750			
0.2242	14347.33	3.8600	3.8600	-0.8691	25.12	0.04	-0.750			
0.2268	14514.13	3.8570	3.8571	-0.8688	25.12	0.04	-0.750			
0.2294	14680.97	3.8540	3.8541	-0.8762	25.12	0.04	-0.750			
0.2321	14851.96	3.8510	3.8509	-0.8690	25.13	0.05	-0.750			
0.2346	15017.06	3.8480	3.8479	-0.8573	25.13	0.05	-0.750			
0.2372	15180.06	3.8450	3.8451	-0.8602	25.14	0.06	-0.750			
0.2398	15344.79	3.8420	3.8421	-0.8578	25.14	0.06	-0.750			
0.2423	15507.65	3.8390	3.8389	-0.8607	25.15	0.07	-0.750			
0.2449	15674.20	3.8360	3.8360	-0.8605	25.15	0.07	-0.750			
0.2475	15838.93	3.8330	3.8331	-0.8615	25.15	0.07	-0.750			
0.2501	16009.33	3.8300	3.8299	-0.8618	25.16	0.08	-0.750			
0.2527	16174.28	3.8270	3.8270	-0.8578	25.16	0.08	-0.750			
0.2552	16335.92	3.8240	3.8240	-0.8512	25.16	0.08	-0.750			
0.2578	16499.31	3.8210	3.8210	-0.8460	25.16	0.08	-0.750			
0.2603	16659.73	3.8180	3.8179	-0.8360	25.17	0.09	-0.750			
0.2628	16821.87	3.8150	3.8148	-0.8372	25.17	0.09	-0.750			
0.2653	16982.11	3.8120	3.8120	-0.8335	25.17	0.09	-0.750			
0.2678	17141.02	3.8090	3.8090	-0.8414	25.18	0.10	-0.750			
0.2704	17303.77	3.8060	3.8060	-0.8302	25.18	0.10	-0.750			
0.2729	17462.78	3.8030	3.8029	-0.8224	25.18	0.10	-0.750			
0.2754	17622.67	3.8000	3.8000	-0.8232	25.19	0.11	-0.750			
0.2778	17780.45	3.7970	3.7970	-0.8189	25.19	0.11	-0.750			
0.2802	17935.52	3.7940	3.7938	-0.8109	25.19	0.11	-0.750			
0.2826	18089.40	3.7910	3.7910	-0.8010	25.19	0.11	-0.750			
0.2850	18240.03	3.7880	3.7881	-0.7968	25.20	0.12	-0.750			
0.2875	18397.06	3.7850	3.7849	-0.8003	25.20	0.12	-0.750			
0.2898	18549.98	3.7820	3.7819	-0.7963	25.20	0.12	-0.750			
0.2922	18701.85	3.7790	3.7791	-0.7940	25.21	0.13	-0.750			
0.2946	18854.39	3.7760	3.7761	-0.7982	25.21	0.13	-0.750			
0.2970	19009.50	3.7730	3.7728	-0.7918	25.21	0.13	-0.750			
0.2994	19161.87	3.7700	3.7700	-0.7947	25.22	0.14	-0.750			
0.3017	19311.43	3.7670	3.7673	-0.7914	25.22	0.14	-0.750			
0.3041	19463.61	3.7640	3.7638	-0.7960	25.22	0.14	-0.750			
0.3065	19617.41	3.7610	3.7609	-0.8061	25.22	0.14	-0.750			
0.3089	19772.21	3.7580	3.7580	-0.8025	25.23	0.15	-0.750			
0.3114	19929.25	3.7550	3.7549	-0.8100	25.23	0.15	-0.750			
0.3138	20084.81	3.7520	3.7523	-0.8129	25.23	0.15	-0.750			
0.3162	20237.91	3.7490	3.7489	-0.8115	25.23	0.15	-0.750			
0.3187	20394.09	3.7460	3.7460	-0.8224	25.24	0.16	-0.750			
0.3211	20550.43	3.7430	3.7430	-0.8262	25.24	0.16	-0.750			
0.3236	20711.78	3.7400	3.7399	-0.8466	25.25	0.17	-0.750			
0.3262	20875.99	3.7370	3.7372	-0.8579	25.25	0.17	-0.750			
0.3288	21040.63	3.7340	3.7339	-0.8731	25.25	0.17	-0.750			
0.3314	21208.69	3.7310	3.7310	-0.8875	25.25	0.17	-0.750			
0.3341	21380.14	3.7280	3.7280	-0.8954	25.25	0.17	-0.750			
0.3368	21553.31	3.7250	3.7251	-0.9105	25.25	0.17	-0.750			
0.3396	21732.10	3.7220	3.7221	-0.9297	25.25	0.17	-0.750			
0.3424	21911.09	3.7190	3.7190	-0.9464	25.25	0.17	-0.750			
0.3452	22095.72	3.7160	3.7159	-0.9580	25.25	0.17	-0.750			
0.3481	22280.39	3.7130	3.7130	-0.9694	25.25	0.17	-0.750			
0.3511	22468.77	3.7100	3.7102	-0.9835	25.25	0.17	-0.750			
0.3541	22659.42	3.7070	3.7069	-1.0093	25.24	0.16	-0.750			
0.3571	22853.80	3.7040	3.7039	-1.0224	25.24	0.16	-0.750			
0.3602	23052.30	3.7010	3.7009	-1.0344	25.23	0.15	-0.750			
0.3633	23251.41	3.6980	3.6981	-1.0487	25.22	0.14	-0.750	0.365	0.490	
0.3665	23458.23	3.6950	3.6949	-1.0743	25.22	0.14	-0.750			
0.3698	23664.90	3.6920	3.6920	-1.0861	25.22	0.14	-0.750			
0.3730	23872.01	3.6890	3.6889	-1.1021	25.21	0.13	-0.750			
0.3763	24083.04	3.6860	3.6861	-1.1239	25.21	0.13	-0.750			
0.3798	24305.62	3.6830	3.6830	-1.1601	25.21	0.13	-0.750			
0.3834	24535.63	3.6800	3.6798	-1.1668	25.20	0.12	-0.750			
0.3869	24764.10	3.6770	3.6769	-1.1658	25.20	0.12	-0.750			
0.3904	24986.86	3.6740	3.6741	-1.1811	25.20	0.12	-0.750			
0.3939	25212.52	3.6710	3.6710	-1.1979	25.19	0.11	-0.750			
0.3975	25441.34	3.6680	3.6677	-1.2103	25.18	0.10	-0.750			
0.4010	25666.26	3.6650	3.6653	-1.2281	25.17	0.09	-0.750			
0.4048	25909.53	3.6620	3.6620	-1.2825	25.16	0.08	-0.750			
0.4087	26158.78	3.6590	3.6591	-1.3420	25.16	0.08	-0.750			
0.4129	26422.82	3.6560	3.6559	-1.3824	25.15	0.07	-0.750			
0.4172	26698.54	3.6530	3.6528	-1.4109	25.15	0.07	-0.750			
0.4215	26975.37	3.6500	3.6497	-1.4158	25.14	0.06	-0.750			
0.4258	27249.95	3.6470	3.6476	-1.4477	25.14	0.06	-0.750			
0.4300	27520.87	3.6440	3.6438	-1.4688	25.13	0.05	-0.750			
0.4344	27801.47	3.6410	3.6409	-1.4787	25.13	0.05	-0.750			
0.4388	28080.56	3.6380	3.6382	-1.4902	25.12	0.04	-0.750			
0.4434	28377.82	3.6350	3.6350	-1.5522	25.11	0.03	-0.750			
0.4483	28692.87	3.6320	3.6322	-1.6040	25.11	0.03	-0.750			
0.4532	29004.93	3.6290	3.6288	-1.6210	25.10	0.02	-0.750			
0.4580	29314.28	3.6260	3.6262	-1.6640	25.09	0.01	-0.750			
0.4631	29638.67	3.6230	3.6231	-1.6814	25.08	0.00	-0.750			
0.4682	29964.13	3.6200	3.6200	-1.7139	25.08	0.00	-0.750			
0.4734	30296.66	3.6170	3.6171	-1.7213	25.08	0.00	-0.750			
0.4786	30629.16	3.6140	3.6137	-1.7542	25.08	-0.00	-0.750			
0.4840	30973.35	3.6110	3.6106	-1.8119	25.07	-0.01	-0.750			
0.4894	31321.21	3.6080	3.6079	-1.8227	25.06	-0.02	-0.750			
0.4949	31672.27	3.6050	3.6055	-1.8848	25.05	-0.03	-0.750			
0.5007	32043.68	3.6020	3.6024	-1.9003	25.04	-0.04	-0.750			
0.5063	32404.60	3.5990	3.5990	-1.9341	25.04	-0.04	-0.750			
0.5123	32788.19	3.5960	3.5961	-1.9746	25.04	-0.04	-0.750			
0.5181	33159.42	3.5930	3.5930	-2.0190	25.04	-0.04	-0.750			
0.5244	33562.73	3.5900	3.5902	-2.0542	25.03	-0.05	-0.750			
0.5306	33960.14	3.5870	3.5871	-2.1327	25.03	-0.05	-0.750			
0.5370	34366.22	3.5840	3.5842	-2.1373	25.02	-0.06	-0.750			
0.5436	34792.50	3.5810	3.5808	-2.1743	25.02	-0.06	-0.750			
0.5502	35211.65	3.5780	3.5776	-2.1829	25.01	-0.07	-0.750			
0.5567	35628.43	3.5750	3.5753	-2.2277	25.01	-0.07	-0.750			
0.5635	36063.18	3.5720	3.5721	-2.2091	25.00	-0.08	-0.750			
0.5702	36489.74	3.5690	3.5687	-2.2234	25.00	-0.08	-0.750			
0.5768	36913.33	3.5660	3.5664	-2.2442	25.00	-0.08	-0.750			
0.5834	37339.13	3.5630	3.5631	-2.2447	24.99	-0.09	-0.750			
0.5904	37783.48	3.5600	3.5597	-2.2410	24.98	-0.10	-0.750			
0.5973	38226.65	3.5570	3.5565	-2.2300	24.98	-0.10	-0.750			
0.6038	38644.31	3.5540	3.5543	-2.2127	24.98	-0.10	-0.750			
0.6103	39059.06	3.5510	3.5513	-2.1824	24.99	-0.09	-0.750			
0.6170	39486.49	3.5480	3.5477	-2.1707	24.99	-0.09	-0.750			
0.6233	39891.87	3.5450	3.5450	-2.1648	25.00	-0.08	-0.750			
0.6298	40308.84	3.5420	3.5421	-2.1329	25.00	-0.08	-0.750			
0.6365	40733.62	3.5390	3.5387	-2.0647	25.01	-0.07	-0.750			
0.6425	41118.13	3.5360	3.5363	-2.0202	25.02	-0.06	-0.750			
0.6484	41496.65	3.5330	3.5330	-1.9533	25.02	-0.06	-0.750			
0.6542	41868.62	3.5300	3.5296	-1.9162	25.03	-0.05	-0.750			
0.6598	42227.81	3.5270	3.5275	-1.8478	25.04	-0.04	-0.750			
0.6653	42579.38	3.5240	3.5240	-1.8301	25.05	-0.03	-0.750			
0.6708	42930.94	3.5210	3.5207	-1.7830	25.07	-0.01	-0.750			
0.6759	43256.11	3.5180	3.5180	-1.7293	25.09	0.01	-0.750			
0.6812	43595.45	3.5150	3.5152	-1.6966	25.10	0.02	-0.750			
0.6862	43919.15	3.5120	3.5117	-1.6591	25.11	0.03	-0.750			
0.6910	44226.21	3.5090	3.5087	-1.5866	25.13	0.05	-0.750			
0.6958	44529.56	3.5060	3.5060	-1.5411	25.15	0.07	-0.750			
0.7002	44814.86	3.5030	3.5031	-1.4950	25.16	0.08	-0.750			
0.7047	45098.78	3.5000	3.4999	-1.4530	25.18	0.10	-0.750			
0.7090	45376.88	3.4970	3.4969	-1.4196	25.19	0.11	-0.750			
0.7133	45650.82	3.4940	3.4941	-1.3917	25.21	0.13	-0.750			
0.7173	45910.36	3.4910	3.4910	-1.3904	25.22	0.14	-0.750			
0.7214	46168.93	3.4880	3.4880	-1.2588	25.23	0.15	-0.750			
