Ah_balance (normalized)	Ah_balance (mAh)	Voltage - fit (V)	Voltage -  interpolate (V)	dQ/dV (1/V)	Temperature (°C)	Temperature - diff (°C)	Current (C)	R_DC 0ms (mOhm)	R_DC 50ms (mOhm)	R_DC 50 ms PEC (mOhm)
0.0002	15.73	4.1600	4.1594	-0.1010	25.31	0.01	-0.750			
0.0006	40.26	4.1570	4.1568	-0.1482	25.30	0.00	-0.750			
0.0012	73.84	4.1540	4.1538	-0.1902	25.30	0.00	-0.750			
0.0018	114.01	4.1510	4.1510	-0.2300	25.30	0.00	-0.750			
0.0025	162.14	4.1480	4.1479	-0.2693	25.30	0.00	-0.750			
0.0034	217.69	4.1450	4.1450	-0.3084	25.30	-0.00	-0.750			
0.0044	281.65	4.1420	4.1419	-0.3431	25.30	-0.00	-0.750			
0.0055	351.64	4.1390	4.1390	-0.3761	25.29	-0.01	-0.750			
0.0067	427.12	4.1360	4.1361	-0.4102	25.29	-0.01	-0.750			
0.0080	509.81	4.1330	4.1329	-0.4417	25.29	-0.01	-0.750			
0.0093	597.41	4.1300	4.1301	-0.4723	25.28	-0.02	-0.750			
0.0108	692.35	4.1270	4.1270	-0.5061	25.28	-0.02	-0.750			
0.0124	793.33	4.1240	4.1239	-0.5364	25.28	-0.02	-0.750			
0.0141	899.95	4.1210	4.1209	-0.5677	25.27	-0.03	-0.750			
0.0158	1012.67	4.1180	4.1180	-0.5916	25.27	-0.03	-0.750			
0.0176	1128.78	4.1150	4.1149	-0.6081	25.27	-0.03	-0.750			
0.0195	1249.54	4.1120	4.1121	-0.6249	25.26	-0.04	-0.750			
0.0214	1369.99	4.1090	4.1090	-0.6311	25.26	-0.04	-0.750			
0.0234	1494.92	4.1060	4.1059	-0.6426	25.26	-0.04	-0.750			
0.0253	1618.54	4.1030	4.1030	-0.6445	25.25	-0.05	-0.750			
0.0272	1740.62	4.1000	4.0994	-0.6524	25.25	-0.05	-0.750			
0.0292	1867.72	4.0970	4.0970	-0.6620	25.25	-0.05	-0.750			
0.0312	1995.16	4.0940	4.0940	-0.6688	25.24	-0.06	-0.750			
0.0332	2124.34	4.0910	4.0910	-0.6807	25.24	-0.06	-0.750			
0.0353	2258.15	4.0880	4.0881	-0.6886	25.24	-0.06	-0.750			
0.0374	2390.62	4.0850	4.0849	-0.6947	25.23	-0.07	-0.750			
0.0395	2525.45	4.0820	4.0819	-0.6980	25.23	-0.07	-0.750			
0.0415	2658.24	4.0790	4.0789	-0.7007	25.23	-0.07	-0.750			
0.0436	2793.21	4.0760	4.0759	-0.7037	25.23	-0.07	-0.750			
0.0458	2928.74	4.0730	4.0731	-0.7078	25.23	-0.07	-0.750			
0.0478	3062.29	4.0700	4.0700	-0.7117	25.23	-0.07	-0.750			
0.0501	3203.74	4.0670	4.0670	-0.7228	25.23	-0.07	-0.750			
0.0522	3342.73	4.0640	4.0637	-0.7227	25.23	-0.07	-0.750			
0.0544	3482.08	4.0610	4.0610	-0.7267	25.23	-0.07	-0.750			
0.0566	3620.51	4.0580	4.0580	-0.7301	25.23	-0.07	-0.750			
0.0588	3764.60	4.0550	4.0549	-0.7430	25.23	-0.07	-0.750			
0.0611	3908.77	4.0520	4.0518	-0.7411	25.24	-0.06	-0.750			
0.0633	4051.73	4.0490	4.0488	-0.7399	25.24	-0.06	-0.750			
0.0655	4194.27	4.0460	4.0465	-0.7402	25.24	-0.06	-0.750			
0.0678	4337.06	4.0430	4.0428	-0.7395	25.24	-0.06	-0.750			
0.0699	4476.33	4.0400	4.0399	-0.7455	25.24	-0.06	-0.750			
0.0721	4614.59	4.0370	4.0370	-0.7386	25.25	-0.05	-0.750			
0.0744	4764.19	4.0340	4.0339	-0.7515	25.25	-0.05	-0.750			
0.0767	4911.02	4.0310	4.0309	-0.7526	25.25	-0.05	-0.750			
0.0790	5054.13	4.0280	4.0279	-0.7501	25.25	-0.05	-0.750			
0.0812	5196.77	4.0250	4.0250	-0.7460	25.25	-0.05	-0.750			
0.0834	5337.47	4.0220	4.0220	-0.7532	25.25	-0.05	-0.750			
0.0856	5480.26	4.0190	4.0190	-0.7497	25.25	-0.05	-0.750			
0.0880	5629.64	4.0160	4.0159	-0.7652	25.25	-0.05	-0.750			
0.0903	5777.83	4.0130	4.0131	-0.7685	25.25	-0.05	-0.750			
0.0926	5926.85	4.0100	4.0100	-0.7719	25.25	-0.05	-0.750			
0.0949	6075.53	4.0070	4.0069	-0.7716	25.26	-0.04	-0.750			
0.0972	6223.60	4.0040	4.0040	-0.7698	25.26	-0.04	-0.750			
0.0995	6370.76	4.0010	4.0010	-0.7674	25.27	-0.03	-0.750			
0.1019	6518.68	3.9980	3.9979	-0.7684	25.27	-0.03	-0.750			
0.1041	6665.04	3.9950	3.9949	-0.7695	25.27	-0.03	-0.750			
0.1065	6812.82	3.9920	3.9920	-0.7707	25.27	-0.03	-0.750			
0.1088	6961.41	3.9890	3.9890	-0.7753	25.27	-0.03	-0.750			
0.1111	7110.64	3.9860	3.9860	-0.7795	25.28	-0.02	-0.750			
0.1135	7263.21	3.9830	3.9830	-0.7814	25.28	-0.02	-0.750			
0.1158	7413.34	3.9800	3.9801	-0.7824	25.28	-0.02	-0.750			
0.1181	7560.23	3.9770	3.9770	-0.7931	25.28	-0.02	-0.750			
0.1205	7711.43	3.9740	3.9740	-0.8063	25.29	-0.01	-0.750			
0.1229	7867.08	3.9710	3.9708	-0.8040	25.29	-0.01	-0.750			
0.1254	8026.72	3.9680	3.9677	-0.8132	25.30	-0.00	-0.750			
0.1279	8185.44	3.9650	3.9655	-0.8156	25.30	0.00	-0.750			
0.1304	8343.09	3.9620	3.9619	-0.8127	25.30	0.00	-0.750			
0.1328	8497.97	3.9590	3.9589	-0.8115	25.30	0.00	-0.750			
0.1352	8652.98	3.9560	3.9560	-0.7997	25.31	0.01	-0.750			
0.1376	8804.59	3.9530	3.9529	-0.7985	25.31	0.01	-0.750			
0.1400	8958.90	3.9500	3.9504	-0.8005	25.31	0.01	-0.750			
0.1424	9112.07	3.9470	3.9469	-0.7991	25.31	0.01	-0.750			
0.1447	9263.74	3.9440	3.9439	-0.8008	25.32	0.02	-0.750			
0.1472	9418.38	3.9410	3.9409	-0.7915	25.32	0.02	-0.750			
0.1496	9573.66	3.9380	3.9380	-0.7948	25.33	0.03	-0.750			
0.1520	9725.36	3.9350	3.9352	-0.7876	25.33	0.03	-0.750			
0.1543	9873.58	3.9320	3.9320	-0.7824	25.33	0.03	-0.750			
0.1566	10021.57	3.9290	3.9289	-0.7865	25.34	0.04	-0.750			
0.1589	10169.89	3.9260	3.9259	-0.7857	25.34	0.04	-0.750			
0.1613	10320.97	3.9230	3.9231	-0.7969	25.34	0.04	-0.750			
0.1638	10481.28	3.9200	3.9199	-0.8073	25.35	0.05	-0.750			
0.1662	10635.34	3.9170	3.9171	-0.8036	25.35	0.05	-0.750			
0.1686	10787.26	3.9140	3.9140	-0.8162	25.36	0.06	-0.750			
0.1711	10947.25	3.9110	3.9109	-0.8111	25.36	0.06	-0.750			
0.1735	11103.19	3.9080	3.9078	-0.8052	25.36	0.06	-0.750			
0.1759	11259.09	3.9050	3.9050	-0.8026	25.37	0.07	-0.750			
0.1783	11413.33	3.9020	3.9021	-0.7983	25.37	0.07	-0.750			
0.1808	11568.80	3.8990	3.8988	-0.7875	25.38	0.08	-0.750			
0.1831	11721.24	3.8960	3.8958	-0.7600	25.38	0.08	-0.750			
0.1854	11862.80	3.8930	3.8931	-0.7318	25.38	0.08	-0.750			
0.1875	12002.69	3.8900	3.8903	-0.7301	25.39	0.09	-0.750			
0.1896	12136.97	3.8870	3.8870	-0.7180	25.39	0.09	-0.750			
0.1917	12268.85	3.8840	3.8836	-0.7283	25.39	0.09	-0.750			
0.1938	12402.35	3.8810	3.8811	-0.7378	25.39	0.09	-0.750			
0.1961	12549.47	3.8780	3.8779	-0.7601	25.39	0.09	-0.750			
0.1985	12703.77	3.8750	3.8750	-0.7826	25.40	0.10	-0.750			
0.2009	12860.55	3.8720	3.8721	-0.7927	25.40	0.10	-0.750			
0.2033	13012.99	3.8690	3.8691	-0.7927	25.40	0.10	-0.750			
0.2057	13166.17	3.8660	3.8660	-0.7853	25.41	0.11	-0.750			
0.2081	13315.50	3.8630	3.8629	-0.7889	25.41	0.11	-0.750			
0.2104	13466.93	3.8600	3.8600	-0.7870	25.42	0.12	-0.750			
0.2128	13619.94	3.8570	3.8568	-0.7817	25.42	0.12	-0.750			
0.2152	13770.30	3.8540	3.8551	-0.7746	25.43	0.13	-0.750			
0.2175	13918.11	3.8510	3.8510	-0.7719	25.43	0.13	-0.750			
0.2198	14064.67	3.8480	3.8480	-0.7788	25.43	0.13	-0.750			
0.2221	14214.85	3.8450	3.8448	-0.7738	25.43	0.13	-0.750			
0.2244	14362.70	3.8420	3.8419	-0.7609	25.43	0.13	-0.750			
0.2268	14513.28	3.8390	3.8390	-0.7653	25.43	0.13	-0.750			
0.2290	14659.16	3.8360	3.8359	-0.7655	25.43	0.13	-0.750			
0.2313	14803.97	3.8330	3.8328	-0.7565	25.44	0.14	-0.750			
0.2335	14946.68	3.8300	3.8299	-0.7562	25.44	0.14	-0.750			
0.2358	15089.83	3.8270	3.8271	-0.7503	25.44	0.14	-0.750			
0.2382	15242.63	3.8240	3.8239	-0.7584	25.45	0.15	-0.750			
0.2404	15387.39	3.8210	3.8212	-0.7575	25.45	0.15	-0.750			
0.2427	15530.99	3.8180	3.8180	-0.7507	25.45	0.15	-0.750			
0.2449	15673.51	3.8150	3.8149	-0.7584	25.45	0.15	-0.750			
0.2472	15819.43	3.8120	3.8121	-0.7582	25.46	0.16	-0.750			
0.2495	15969.42	3.8090	3.8088	-0.7596	25.46	0.16	-0.750			
0.2518	16113.47	3.8060	3.8061	-0.7581	25.46	0.16	-0.750			
0.2540	16258.99	3.8030	3.8029	-0.7590	25.46	0.16	-0.750			
0.2563	16403.06	3.8000	3.8000	-0.7520	25.46	0.16	-0.750			
0.2586	16548.11	3.7970	3.7969	-0.7610	25.46	0.16	-0.750			
0.2608	16693.08	3.7940	3.7938	-0.7646	25.47	0.17	-0.750			
0.2632	16846.03	3.7910	3.7909	-0.7712	25.47	0.17	-0.750			
0.2655	16993.98	3.7880	3.7882	-0.7707	25.47	0.17	-0.750			
0.2678	17140.87	3.7850	3.7850	-0.7680	25.47	0.17	-0.750			
0.2701	17286.77	3.7820	3.7821	-0.7804	25.47	0.17	-0.750			
0.2723	17430.05	3.7790	3.7790	-0.7788	25.47	0.17	-0.750			
0.2748	17588.64	3.7760	3.7758	-0.7991	25.47	0.17	-0.750			
0.2772	17742.27	3.7730	3.7730	-0.8047	25.47	0.17	-0.750			
0.2797	17899.30	3.7700	3.7702	-0.8099	25.47	0.17	-0.750			
0.2821	18057.19	3.7670	3.7670	-0.8267	25.47	0.17	-0.750			
0.2847	18219.59	3.7640	3.7638	-0.8207	25.48	0.18	-0.750			
0.2871	18374.20	3.7610	3.7608	-0.8139	25.48	0.18	-0.750			
0.2896	18531.42	3.7580	3.7585	-0.8203	25.48	0.18	-0.750			
0.2920	18688.77	3.7550	3.7547	-0.8241	25.48	0.18	-0.750			
0.2945	18845.16	3.7520	3.7519	-0.8259	25.48	0.18	-0.750			
0.2969	19002.56	3.7490	3.7489	-0.8321	25.48	0.18	-0.750			
0.2995	19166.34	3.7460	3.7460	-0.8426	25.48	0.18	-0.750			
0.3020	19329.04	3.7430	3.7429	-0.8416	25.48	0.18	-0.750			
0.3045	19487.53	3.7400	3.7400	-0.8467	25.48	0.18	-0.750			
0.3070	19649.14	3.7370	3.7369	-0.8595	25.48	0.18	-0.750			
0.3096	19812.87	3.7340	3.7339	-0.8652	25.47	0.17	-0.750			
0.3122	19981.66	3.7310	3.7310	-0.8757	25.47	0.17	-0.750			
0.3149	20152.75	3.7280	3.7282	-0.8926	25.47	0.17	-0.750			
0.3176	20326.91	3.7250	3.7250	-0.9195	25.47	0.17	-0.750			
0.3204	20506.00	3.7220	3.7219	-0.9282	25.47	0.17	-0.750			
0.3232	20685.72	3.7190	3.7188	-0.9286	25.46	0.16	-0.750			
0.3260	20864.99	3.7160	3.7158	-0.9332	25.46	0.16	-0.750			
0.3288	21044.51	3.7130	3.7129	-0.9603	25.46	0.16	-0.750			
0.3317	21227.15	3.7100	3.7098	-0.9714	25.45	0.15	-0.750			
0.3346	21412.10	3.7070	3.7069	-0.9789	25.44	0.14	-0.750			
0.3375	21600.32	3.7040	3.7039	-0.9857	25.44	0.14	-0.750			
0.3407	21804.13	3.7010	3.7010	-1.0018	25.43	0.13	-0.750			
0.3437	21996.80	3.6980	3.6983	-1.0065	25.42	0.12	-0.750	0.409	0.569	
0.3466	22185.34	3.6950	3.6948	-1.0108	25.42	0.12	-0.750			
0.3496	22372.00	3.6920	3.6920	-1.0077	25.41	0.11	-0.750			
0.3526	22566.66	3.6890	3.6893	-1.0613	25.41	0.11	-0.750			
0.3559	22779.07	3.6860	3.6859	-1.0841	25.40	0.10	-0.750			
0.3592	22991.37	3.6830	3.6829	-1.0970	25.40	0.10	-0.750			
0.3626	23204.48	3.6800	3.6798	-1.1063	25.39	0.09	-0.750			
0.3659	23419.55	3.6770	3.6769	-1.1254	25.39	0.09	-0.750			
0.3693	23634.30	3.6740	3.6738	-1.1310	25.39	0.09	-0.750			
0.3727	23849.78	3.6710	3.6709	-1.1305	25.38	0.08	-0.750			
0.3760	24061.48	3.6680	3.6680	-1.1360	25.38	0.08	-0.750			
0.3796	24291.50	3.6650	3.6650	-1.1874	25.38	0.08	-0.750			
0.3831	24520.30	3.6620	3.6619	-1.2037	25.37	0.07	-0.750			
0.3868	24752.05	3.6590	3.6588	-1.2266	25.36	0.06	-0.750			
0.3904	24988.37	3.6560	3.6563	-1.2523	25.35	0.05	-0.750			
0.3943	25237.15	3.6530	3.6529	-1.2746	25.34	0.04	-0.750			
0.3982	25486.13	3.6500	3.6499	-1.2826	25.33	0.03	-0.750			
0.4020	25729.71	3.6470	3.6469	-1.3123	25.32	0.02	-0.750			
0.4061	25987.36	3.6440	3.6437	-1.3292	25.31	0.01	-0.750			
0.4100	26242.70	3.6410	3.6408	-1.3484	25.31	0.01	-0.750			
0.4141	26501.93	3.6380	3.6378	-1.3666	25.30	0.00	-0.750			
0.4183	26770.56	3.6350	3.6348	-1.4225	25.30	-0.00	-0.750			
0.4226	27047.02	3.6320	3.6318	-1.4387	25.29	-0.01	-0.750			
0.4271	27331.22	3.6290	3.6290	-1.4645	25.29	-0.01	-0.750			
0.4315	27617.78	3.6260	3.6261	-1.5051	25.28	-0.02	-0.750			
0.4361	27909.38	3.6230	3.6227	-1.5311	25.28	-0.02	-0.750			
0.4407	28201.82	3.6200	3.6202	-1.5579	25.27	-0.03	-0.750			
0.4454	28506.61	3.6170	3.6167	-1.5729	25.26	-0.04	-0.750			
0.4500	28802.24	3.6140	3.6138	-1.6019	25.25	-0.05	-0.750			
0.4550	29119.82	3.6110	3.6109	-1.6189	25.24	-0.06	-0.750			
0.4601	29444.95	3.6080	3.6079	-1.6851	25.23	-0.07	-0.750			
0.4651	29766.21	3.6050	3.6046	-1.6981	25.22	-0.08	-0.750			
0.4702	30094.72	3.6020	3.6016	-1.7216	25.22	-0.08	-0.750			
0.4755	30432.89	3.5990	3.5989	-1.7434	25.21	-0.09	-0.750			
0.4810	30786.25	3.5960	3.5962	-1.7818	25.21	-0.09	-0.750			
0.4864	31131.56	3.5930	3.5935	-1.7909	25.20	-0.10	-0.750			
0.4917	31471.05	3.5900	3.5896	-1.8050	25.20	-0.10	-0.750			
0.4970	31809.30	3.5870	3.5866	-1.8763	25.19	-0.11	-0.750			
0.5027	32174.63	3.5840	3.5842	-1.9362	25.18	-0.12	-0.750			
0.5086	32548.53	3.5810	3.5816	-1.9627	25.18	-0.12	-0.750			
0.5147	32943.41	3.5780	3.5785	-1.9787	25.18	-0.12	-0.750			
0.5206	33317.07	3.5750	3.5752	-1.9711	25.18	-0.12	-0.750			
0.5264	33691.16	3.5720	3.5714	-1.9596	25.17	-0.13	-0.750			
0.5321	34055.27	3.5690	3.5695	-1.9529	25.17	-0.13	-0.750			
0.5381	34436.52	3.5660	3.5663	-1.9840	25.17	-0.13	-0.750			
0.5442	34828.23	3.5630	3.5629	-1.9987	25.17	-0.13	-0.750			
0.5503	35220.73	3.5600	3.5606	-2.0191	25.17	-0.13	-0.750			
0.5563	35600.79	3.5570	3.5577	-1.9913	25.17	-0.13	-0.750			
0.5624	35994.39	3.5540	3.5533	-1.9636	25.17	-0.13	-0.750			
0.5682	36364.69	3.5510	3.5511	-2.0064	25.17	-0.13	-0.750			
0.5740	36736.98	3.5480	3.5485	-1.9557	25.17	-0.13	-0.750			
0.5800	37117.38	3.5450	3.5444	-2.0153	25.17	-0.13	-0.750			
0.5860	37501.42	3.5420	3.5421	-1.9321	25.17	-0.13	-0.750			
0.5919	37880.29	3.5390	3.5386	-1.9456	25.17	-0.13	-0.750			
0.5977	38254.18	3.5360	3.5364	-1.8750	25.18	-0.12	-0.750			
0.6033	38609.15	3.5330	3.5329	-1.8405	25.18	-0.12	-0.750			
0.6088	38960.44	3.5300	3.5297	-1.8317	25.19	-0.11	-0.750			
0.6140	39293.86	3.5270	3.5267	-1.7857	25.20	-0.10	-0.750			
0.6193	39637.15	3.5240	3.5239	-1.7547	25.21	-0.09	-0.750			
0.6247	39983.04	3.5210	3.5209	-1.7112	25.22	-0.08	-0.750			
0.6300	40319.43	3.5180	3.5177	-1.6905	25.24	-0.06	-0.750			
0.6352	40655.38	3.5150	3.5146	-1.6601	25.25	-0.05	-0.750			
0.6400	40961.28	3.5120	3.5123	-1.5911	25.27	-0.03	-0.750			
0.6448	41264.69	3.5090	3.5095	-1.5575	25.28	-0.02	-0.750			
0.6494	41564.42	3.5060	3.5063	-1.5432	25.29	-0.01	-0.750			
0.6540	41854.22	3.5030	3.5029	-1.4935	25.31	0.01	-0.750			
0.6586	42149.53	3.5000	3.5004	-1.4612	25.32	0.02	-0.750			
0.6629	42426.23	3.4970	3.4969	-1.4333	25.34	0.04	-0.750			
0.6672	42698.89	3.4940	3.4937	-1.3737	25.36	0.06	-0.750			
0.6710	42943.88	3.4910	3.4910	-1.2982	25.36	0.06	-0.750			
0.6750	43201.23	3.4880	3.4878	-1.2840	25.37	0.07	-0.750			
0.6786	43429.79	3.4850	3.4854	-1.2428	25.38	0.08	-0.750			
0.6824	43674.97	3.4820	3.4817	-1.1912	25.39	0.09	-0.750			
0.6859	43898.85	3.4790	3.4791	-1.1449	25.40	0.10	-0.750			
