Ah_balance (normalized)	Ah_balance (mAh)	Voltage - fit (V)	Voltage -  interpolate (V)	dQ/dV (1/V)	Temperature (°C)	Temperature - diff (°C)	Current (C)	R_DC 0ms (mOhm)	R_DC 50ms (mOhm)	R_DC 50 ms PEC (mOhm)
0.0003	18.99	4.1660	4.1657	-0.1234	25.04	0.02	-0.750			
0.0008	49.00	4.1630	4.1629	-0.1779	25.04	0.02	-0.750			
0.0014	87.77	4.1600	4.1599	-0.2235	25.04	0.02	-0.750			
0.0021	134.70	4.1570	4.1570	-0.2693	25.03	0.01	-0.750			
0.0030	191.18	4.1540	4.1541	-0.3148	25.03	0.01	-0.750			
0.0040	256.64	4.1510	4.1510	-0.3594	25.03	0.01	-0.750			
0.0052	330.08	4.1480	4.1479	-0.4018	25.02	0.00	-0.750			
0.0064	411.16	4.1450	4.1452	-0.4419	25.02	0.00	-0.750			
0.0078	501.58	4.1420	4.1419	-0.4807	25.02	-0.00	-0.750			
0.0093	597.66	4.1390	4.1389	-0.5138	25.01	-0.01	-0.750			
0.0109	699.67	4.1360	4.1361	-0.5447	25.01	-0.01	-0.750			
0.0126	807.57	4.1330	4.1331	-0.5747	25.00	-0.02	-0.750			
0.0144	922.48	4.1300	4.1300	-0.6002	25.00	-0.02	-0.750			
0.0163	1040.54	4.1270	4.1269	-0.6218	24.99	-0.03	-0.750			
0.0182	1163.28	4.1240	4.1241	-0.6400	24.98	-0.04	-0.750			
0.0201	1288.03	4.1210	4.1210	-0.6580	24.98	-0.04	-0.750			
0.0221	1416.94	4.1180	4.1180	-0.6730	24.98	-0.04	-0.750			
0.0242	1546.93	4.1150	4.1150	-0.6876	24.97	-0.05	-0.750			
0.0263	1681.23	4.1120	4.1119	-0.6942	24.97	-0.05	-0.750			
0.0284	1815.94	4.1090	4.1090	-0.7028	24.97	-0.05	-0.750			
0.0305	1951.73	4.1060	4.1060	-0.7128	24.96	-0.06	-0.750			
0.0327	2089.65	4.1030	4.1030	-0.7176	24.96	-0.06	-0.750			
0.0348	2227.09	4.1000	4.0999	-0.7240	24.96	-0.06	-0.750			
0.0370	2367.35	4.0970	4.0971	-0.7340	24.96	-0.06	-0.750			
0.0392	2508.89	4.0940	4.0940	-0.7411	24.96	-0.06	-0.750			
0.0415	2654.10	4.0910	4.0910	-0.7479	24.96	-0.06	-0.750			
0.0437	2798.61	4.0880	4.0881	-0.7487	24.96	-0.06	-0.750			
0.0460	2942.07	4.0850	4.0850	-0.7519	24.96	-0.06	-0.750			
0.0482	3086.57	4.0820	4.0820	-0.7592	24.96	-0.06	-0.750			
0.0505	3231.97	4.0790	4.0789	-0.7603	24.96	-0.06	-0.750			
0.0528	3377.49	4.0760	4.0760	-0.7643	24.96	-0.06	-0.750			
0.0551	3526.49	4.0730	4.0730	-0.7694	24.96	-0.06	-0.750			
0.0574	3675.43	4.0700	4.0701	-0.7714	24.96	-0.06	-0.750			
0.0597	3823.87	4.0670	4.0670	-0.7770	24.96	-0.06	-0.750			
0.0621	3972.82	4.0640	4.0640	-0.7759	24.96	-0.06	-0.750			
0.0644	4121.29	4.0610	4.0610	-0.7741	24.96	-0.06	-0.750			
0.0667	4270.68	4.0580	4.0580	-0.7793	24.96	-0.06	-0.750			
0.0691	4420.71	4.0550	4.0552	-0.7787	24.96	-0.06	-0.750			
0.0714	4570.96	4.0520	4.0519	-0.7782	24.96	-0.06	-0.750			
0.0737	4719.17	4.0490	4.0490	-0.7850	24.96	-0.06	-0.750			
0.0761	4869.48	4.0460	4.0460	-0.7877	24.96	-0.06	-0.750			
0.0785	5023.17	4.0430	4.0429	-0.7902	24.96	-0.06	-0.750			
0.0809	5174.69	4.0400	4.0400	-0.7922	24.96	-0.06	-0.750			
0.0832	5326.61	4.0370	4.0371	-0.7933	24.96	-0.06	-0.750			
0.0856	5478.29	4.0340	4.0340	-0.8038	24.97	-0.05	-0.750			
0.0880	5634.36	4.0310	4.0309	-0.7997	24.97	-0.05	-0.750			
0.0904	5786.53	4.0280	4.0280	-0.7971	24.97	-0.05	-0.750			
0.0928	5941.65	4.0250	4.0250	-0.8013	24.98	-0.04	-0.750			
0.0952	6095.68	4.0220	4.0219	-0.8034	24.98	-0.04	-0.750			
0.0976	6249.03	4.0190	4.0189	-0.8002	24.99	-0.03	-0.750			
0.1000	6402.44	4.0160	4.0159	-0.8008	24.99	-0.03	-0.750			
0.1024	6555.35	4.0130	4.0130	-0.7969	24.99	-0.03	-0.750			
0.1049	6711.98	4.0100	4.0101	-0.8027	25.00	-0.02	-0.750			
0.1072	6863.89	4.0070	4.0070	-0.8072	25.00	-0.02	-0.750			
0.1097	7019.31	4.0040	4.0041	-0.8081	25.00	-0.02	-0.750			
0.1121	7173.16	4.0010	4.0009	-0.8135	25.00	-0.02	-0.750			
0.1146	7331.26	3.9980	3.9980	-0.8172	25.01	-0.01	-0.750			
0.1170	7489.96	3.9950	3.9951	-0.8194	25.01	-0.01	-0.750			
0.1195	7648.05	3.9920	3.9921	-0.8192	25.01	-0.01	-0.750			
0.1220	7805.95	3.9890	3.9890	-0.8190	25.01	-0.01	-0.750			
0.1244	7961.50	3.9860	3.9860	-0.8248	25.01	-0.01	-0.750			
0.1269	8120.44	3.9830	3.9830	-0.8276	25.02	-0.00	-0.750			
0.1294	8280.70	3.9800	3.9799	-0.8287	25.02	-0.00	-0.750			
0.1319	8440.89	3.9770	3.9772	-0.8280	25.02	0.00	-0.750			
0.1344	8600.35	3.9740	3.9740	-0.8306	25.02	0.00	-0.750			
0.1369	8759.38	3.9710	3.9710	-0.8312	25.02	0.00	-0.750			
0.1393	8916.14	3.9680	3.9680	-0.8329	25.03	0.01	-0.750			
0.1418	9076.97	3.9650	3.9649	-0.8406	25.03	0.01	-0.750			
0.1444	9239.54	3.9620	3.9621	-0.8435	25.03	0.01	-0.750			
0.1469	9403.57	3.9590	3.9590	-0.8475	25.03	0.01	-0.750			
0.1495	9566.07	3.9560	3.9561	-0.8513	25.04	0.02	-0.750			
0.1520	9731.19	3.9530	3.9530	-0.8467	25.04	0.02	-0.750			
0.1546	9894.92	3.9500	3.9499	-0.8465	25.05	0.03	-0.750			
0.1572	10058.02	3.9470	3.9471	-0.8333	25.05	0.03	-0.750			
0.1597	10221.00	3.9440	3.9440	-0.8133	25.05	0.03	-0.750			
0.1621	10374.59	3.9410	3.9410	-0.8089	25.06	0.04	-0.750			
0.1645	10526.07	3.9380	3.9383	-0.7970	25.06	0.04	-0.750			
0.1668	10675.52	3.9350	3.9346	-0.7961	25.07	0.05	-0.750			
0.1692	10825.91	3.9320	3.9326	-0.8102	25.07	0.05	-0.750			
0.1715	10978.41	3.9290	3.9289	-0.8240	25.07	0.05	-0.750			
0.1741	11140.70	3.9260	3.9259	-0.8470	25.07	0.05	-0.750			
0.1767	11311.78	3.9230	3.9230	-0.8595	25.08	0.06	-0.750			
0.1794	11479.76	3.9200	3.9199	-0.8704	25.08	0.06	-0.750			
0.1820	11647.47	3.9170	3.9172	-0.8715	25.08	0.06	-0.750			
0.1846	11812.14	3.9140	3.9140	-0.8711	25.08	0.06	-0.750			
0.1872	11978.58	3.9110	3.9109	-0.8722	25.08	0.06	-0.750			
0.1898	12144.86	3.9080	3.9079	-0.8729	25.08	0.06	-0.750			
0.1925	12317.30	3.9050	3.9050	-0.8809	25.08	0.06	-0.750			
0.1951	12484.84	3.9020	3.9022	-0.8804	25.08	0.06	-0.750			
0.1977	12654.13	3.8990	3.8990	-0.8889	25.09	0.07	-0.750			
0.2004	12826.22	3.8960	3.8958	-0.8889	25.09	0.07	-0.750			
0.2031	12995.25	3.8930	3.8929	-0.8855	25.09	0.07	-0.750			
0.2057	13166.68	3.8900	3.8900	-0.8901	25.10	0.08	-0.750			
0.2084	13339.07	3.8870	3.8869	-0.8923	25.10	0.08	-0.750			
0.2111	13511.09	3.8840	3.8838	-0.8949	25.10	0.08	-0.750			
0.2137	13679.92	3.8810	3.8810	-0.8896	25.10	0.08	-0.750			
0.2164	13851.32	3.8780	3.8779	-0.8884	25.10	0.08	-0.750			
0.2191	14025.43	3.8750	3.8754	-0.8950	25.10	0.08	-0.750			
0.2218	14195.88	3.8720	3.8719	-0.8964	25.10	0.08	-0.750			
0.2245	14366.98	3.8690	3.8690	-0.8938	25.11	0.09	-0.750			
0.2272	14537.78	3.8660	3.8659	-0.8980	25.11	0.09	-0.750			
0.2299	14712.77	3.8630	3.8630	-0.9029	25.12	0.10	-0.750			
0.2326	14885.56	3.8600	3.8601	-0.8983	25.12	0.10	-0.750			
0.2353	15058.66	3.8570	3.8569	-0.9129	25.12	0.10	-0.750			
0.2380	15234.80	3.8540	3.8540	-0.9080	25.13	0.11	-0.750			
0.2408	15409.69	3.8510	3.8508	-0.8936	25.13	0.11	-0.750			
0.2434	15580.70	3.8480	3.8484	-0.8943	25.13	0.11	-0.750			
0.2461	15748.78	3.8450	3.8451	-0.8941	25.13	0.11	-0.750			
0.2488	15920.48	3.8420	3.8416	-0.8979	25.13	0.11	-0.750			
0.2514	16090.93	3.8390	3.8390	-0.8901	25.14	0.12	-0.750			
0.2541	16260.01	3.8360	3.8360	-0.8940	25.14	0.12	-0.750			
0.2569	16439.48	3.8330	3.8333	-0.9084	25.14	0.12	-0.750			
0.2596	16614.81	3.8300	3.8298	-0.9113	25.14	0.12	-0.750			
0.2623	16786.52	3.8270	3.8270	-0.9047	25.14	0.12	-0.750			
0.2650	16961.88	3.8240	3.8239	-0.9036	25.15	0.13	-0.750			
0.2677	17135.76	3.8210	3.8210	-0.9054	25.15	0.13	-0.750			
0.2705	17310.70	3.8180	3.8181	-0.9030	25.15	0.13	-0.750			
0.2732	17483.05	3.8150	3.8149	-0.9099	25.16	0.14	-0.750			
0.2759	17659.86	3.8120	3.8119	-0.9001	25.16	0.14	-0.750			
0.2786	17831.43	3.8090	3.8089	-0.8943	25.17	0.15	-0.750			
0.2813	18002.71	3.8060	3.8066	-0.8960	25.17	0.15	-0.750			
0.2840	18175.68	3.8030	3.8027	-0.8945	25.17	0.15	-0.750			
0.2866	18345.41	3.8000	3.7999	-0.8971	25.17	0.15	-0.750			
0.2893	18517.35	3.7970	3.7970	-0.8845	25.18	0.16	-0.750			
0.2921	18691.66	3.7940	3.7939	-0.8909	25.18	0.16	-0.750			
0.2947	18860.41	3.7910	3.7912	-0.8936	25.18	0.16	-0.750			
0.2973	19027.74	3.7880	3.7878	-0.8889	25.19	0.17	-0.750			
0.3000	19198.71	3.7850	3.7848	-0.8826	25.19	0.17	-0.750			
0.3026	19367.20	3.7820	3.7821	-0.8769	25.19	0.17	-0.750			
0.3053	19538.20	3.7790	3.7791	-0.8879	25.20	0.18	-0.750			
0.3080	19710.60	3.7760	3.7760	-0.8856	25.20	0.18	-0.750			
0.3106	19877.82	3.7730	3.7729	-0.8914	25.20	0.18	-0.750			
0.3133	20048.41	3.7700	3.7700	-0.8867	25.20	0.18	-0.750			
0.3159	20219.35	3.7670	3.7670	-0.8915	25.20	0.18	-0.750			
0.3186	20393.44	3.7640	3.7639	-0.8909	25.20	0.18	-0.750			
0.3213	20565.65	3.7610	3.7609	-0.8868	25.20	0.18	-0.750			
0.3240	20733.85	3.7580	3.7580	-0.8857	25.21	0.19	-0.750			
0.3266	20903.13	3.7550	3.7549	-0.8827	25.21	0.19	-0.750			
0.3292	21071.95	3.7520	3.7520	-0.8831	25.22	0.20	-0.750			
0.3319	21242.05	3.7490	3.7492	-0.8836	25.22	0.20	-0.750			
0.3345	21410.25	3.7460	3.7460	-0.8851	25.22	0.20	-0.750			
0.3372	21581.96	3.7430	3.7429	-0.8878	25.22	0.20	-0.750			
0.3399	21750.72	3.7400	3.7400	-0.8850	25.22	0.20	-0.750			
0.3425	21918.42	3.7370	3.7370	-0.8984	25.22	0.20	-0.750			
0.3452	22091.89	3.7340	3.7341	-0.9093	25.22	0.20	-0.750			
0.3480	22268.97	3.7310	3.7308	-0.9312	25.22	0.20	-0.750			
0.3508	22452.02	3.7280	3.7279	-0.9361	25.22	0.20	-0.750			
0.3537	22634.79	3.7250	3.7250	-0.9394	25.22	0.20	-0.750			
0.3565	22815.82	3.7220	3.7228	-0.9454	25.22	0.20	-0.750			
0.3593	22995.87	3.7190	3.7189	-0.9548	25.22	0.20	-0.750			
0.3621	23176.07	3.7160	3.7159	-0.9588	25.22	0.20	-0.750			
0.3650	23357.30	3.7130	3.7129	-0.9778	25.22	0.20	-0.750			
0.3680	23553.49	3.7100	3.7100	-1.0100	25.22	0.20	-0.750			
0.3711	23748.73	3.7070	3.7069	-1.0256	25.22	0.20	-0.750			
0.3742	23950.09	3.7040	3.7040	-1.0442	25.22	0.20	-0.750	0.389	0.482	
0.3774	24151.28	3.7010	3.7008	-1.0537	25.21	0.19	-0.750			
0.3805	24352.27	3.6980	3.6979	-1.0624	25.21	0.19	-0.750			
0.3837	24558.32	3.6950	3.6949	-1.0948	25.21	0.19	-0.750			
0.3870	24769.30	3.6920	3.6919	-1.1008	25.21	0.19	-0.750			
0.3904	24986.64	3.6890	3.6888	-1.1262	25.20	0.18	-0.750			
0.3938	25202.23	3.6860	3.6866	-1.1437	25.20	0.18	-0.750			
0.3973	25424.99	3.6830	3.6829	-1.1690	25.19	0.17	-0.750			
0.4008	25650.33	3.6800	3.6799	-1.1905	25.19	0.17	-0.750			
0.4043	25874.71	3.6770	3.6770	-1.2148	25.18	0.16	-0.750			
0.4081	26115.66	3.6740	3.6740	-1.2567	25.18	0.16	-0.750			
0.4119	26360.54	3.6710	3.6710	-1.2824	25.17	0.15	-0.750			
0.4158	26609.59	3.6680	3.6679	-1.3027	25.17	0.15	-0.750			
0.4198	26866.13	3.6650	3.6651	-1.3419	25.16	0.14	-0.750			
0.4239	27129.04	3.6620	3.6618	-1.3694	25.14	0.12	-0.750			
0.4280	27389.79	3.6590	3.6589	-1.4186	25.13	0.11	-0.750			
0.4323	27669.71	3.6560	3.6563	-1.4374	25.12	0.10	-0.750			
0.4367	27948.68	3.6530	3.6527	-1.4780	25.11	0.09	-0.750			
0.4412	28236.96	3.6500	3.6501	-1.4983	25.10	0.08	-0.750			
0.4457	28521.72	3.6470	3.6470	-1.5191	25.10	0.08	-0.750			
0.4503	28818.39	3.6440	3.6439	-1.5998	25.09	0.07	-0.750			
0.4551	29128.82	3.6410	3.6407	-1.6209	25.07	0.05	-0.750			
0.4601	29444.94	3.6380	3.6379	-1.6572	25.06	0.04	-0.750			
0.4653	29776.12	3.6350	3.6348	-1.6823	25.05	0.03	-0.750			
0.4703	30097.99	3.6320	3.6317	-1.7071	25.04	0.02	-0.750			
0.4754	30425.23	3.6290	3.6289	-1.7470	25.03	0.01	-0.750			
0.4807	30762.40	3.6260	3.6259	-1.7712	25.02	0.00	-0.750			
0.4860	31104.58	3.6230	3.6230	-1.8274	25.01	-0.01	-0.750			
0.4916	31464.60	3.6200	3.6201	-1.8456	25.00	-0.02	-0.750			
0.4973	31825.13	3.6170	3.6174	-1.8737	24.99	-0.03	-0.750			
0.5030	32192.06	3.6140	3.6141	-1.9060	24.99	-0.03	-0.750			
0.5086	32550.99	3.6110	3.6109	-1.9511	24.98	-0.04	-0.750			
0.5145	32926.72	3.6080	3.6079	-2.0210	24.98	-0.04	-0.750			
0.5207	33323.89	3.6050	3.6048	-2.0839	24.98	-0.04	-0.750			
0.5272	33740.68	3.6020	3.6020	-2.1235	24.97	-0.05	-0.750			
0.5337	34156.49	3.5990	3.5990	-2.1537	24.96	-0.06	-0.750			
0.5400	34561.59	3.5960	3.5959	-2.1338	24.95	-0.07	-0.750			
0.5464	34971.65	3.5930	3.5927	-2.1333	24.94	-0.08	-0.750			
0.5528	35381.91	3.5900	3.5905	-2.1815	24.94	-0.08	-0.750			
0.5593	35797.31	3.5870	3.5871	-2.1967	24.94	-0.08	-0.750			
0.5661	36227.94	3.5840	3.5836	-2.2641	24.92	-0.10	-0.750			
0.5727	36652.87	3.5810	3.5813	-2.3255	24.92	-0.10	-0.750			
0.5798	37109.33	3.5780	3.5782	-2.3535	24.92	-0.10	-0.750			
0.5871	37576.62	3.5750	3.5749	-2.3601	24.91	-0.11	-0.750			
0.5943	38036.15	3.5720	3.5719	-2.4037	24.90	-0.12	-0.750			
0.6014	38491.87	3.5690	3.5690	-2.3553	24.90	-0.12	-0.750			
0.6085	38942.71	3.5660	3.5662	-2.3564	24.90	-0.12	-0.750			
0.6157	39405.27	3.5630	3.5633	-2.3727	24.90	-0.12	-0.750			
0.6229	39864.74	3.5600	3.5598	-2.3620	24.90	-0.12	-0.750			
0.6299	40310.91	3.5570	3.5570	-2.3387	24.90	-0.12	-0.750			
0.6369	40764.63	3.5540	3.5542	-2.3836	24.90	-0.12	-0.750			
0.6443	41233.76	3.5510	3.5508	-2.3115	24.90	-0.12	-0.750			
0.6512	41674.47	3.5480	3.5477	-2.2713	24.91	-0.11	-0.750			
0.6579	42103.29	3.5450	3.5449	-2.2490	24.92	-0.10	-0.750			
0.6645	42527.01	3.5420	3.5415	-2.2045	24.93	-0.09	-0.750			
0.6710	42945.60	3.5390	3.5389	-2.1594	24.93	-0.09	-0.750			
0.6776	43364.84	3.5360	3.5357	-2.1228	24.94	-0.08	-0.750			
0.6840	43775.66	3.5330	3.5333	-2.0947	24.95	-0.07	-0.750			
0.6901	44166.55	3.5300	3.5302	-2.0132	24.96	-0.06	-0.750			
0.6959	44540.28	3.5270	3.5267	-1.9478	24.97	-0.05	-0.750			
0.7018	44916.22	3.5240	3.5237	-1.8951	24.98	-0.04	-0.750			
0.7074	45274.96	3.5210	3.5208	-1.8642	24.99	-0.03	-0.750			
0.7130	45629.55	3.5180	3.5178	-1.8264	25.01	-0.01	-0.750			
0.7182	45962.83	3.5150	3.5148	-1.7561	25.02	-0.00	-0.750			
0.7235	46303.92	3.5120	3.5120	-1.6949	25.03	0.01	-0.750			
0.7286	46631.65	3.5090	3.5089	-1.6461	25.05	0.03	-0.750			
0.7335	46944.77	3.5060	3.5057	-1.5733	25.07	0.05	-0.750			
0.7382	47246.78	3.5030	3.5030	-1.4828	25.09	0.07	-0.750			
0.7424	47516.17	3.5000	3.5000	-1.4255	25.10	0.08	-0.750			
0.7467	47786.08	3.4970	3.4969	-1.4133	25.12	0.10	-0.750			
