Ah_balance (normalized)	Ah_balance (mAh)	Voltage - fit (V)	Voltage -  interpolate (V)	dQ/dV (1/V)	Temperature (°C)	Temperature - diff (°C)	Current (C)	R_DC 0ms (mOhm)	R_DC 50ms (mOhm)	R_DC 50 ms PEC (mOhm)
0.0004	27.55	4.1640	4.1637	-0.1379	24.58	0.00	-0.750			
0.0009	58.92	4.1610	4.1608	-0.1857	24.58	0.00	-0.750			
0.0016	100.30	4.1580	4.1580	-0.2308	24.58	0.00	-0.750			
0.0023	148.56	4.1550	4.1549	-0.2749	24.58	-0.00	-0.750			
0.0032	205.66	4.1520	4.1520	-0.3181	24.58	-0.00	-0.750			
0.0042	271.92	4.1490	4.1491	-0.3596	24.58	-0.00	-0.750			
0.0054	346.91	4.1460	4.1459	-0.3918	24.57	-0.01	-0.750			
0.0066	424.14	4.1430	4.1431	-0.4343	24.57	-0.01	-0.750			
0.0080	511.27	4.1400	4.1401	-0.4719	24.57	-0.01	-0.750			
0.0095	604.82	4.1370	4.1369	-0.5114	24.57	-0.01	-0.750			
0.0110	706.95	4.1340	4.1339	-0.5432	24.57	-0.01	-0.750			
0.0128	816.04	4.1310	4.1311	-0.5767	24.56	-0.02	-0.750			
0.0146	932.11	4.1280	4.1280	-0.6013	24.56	-0.02	-0.750			
0.0165	1054.74	4.1250	4.1249	-0.6249	24.55	-0.03	-0.750			
0.0183	1172.93	4.1220	4.1220	-0.6308	24.55	-0.03	-0.750			
0.0202	1295.80	4.1190	4.1190	-0.6500	24.55	-0.03	-0.750			
0.0222	1422.11	4.1160	4.1160	-0.6606	24.54	-0.04	-0.750			
0.0242	1551.66	4.1130	4.1128	-0.6712	24.54	-0.04	-0.750			
0.0263	1681.68	4.1100	4.1102	-0.6821	24.53	-0.05	-0.750			
0.0284	1814.45	4.1070	4.1069	-0.6901	24.53	-0.05	-0.750			
0.0304	1947.96	4.1040	4.1040	-0.7007	24.53	-0.05	-0.750			
0.0325	2082.38	4.1010	4.1009	-0.7102	24.53	-0.05	-0.750			
0.0346	2217.46	4.0980	4.0981	-0.7148	24.52	-0.06	-0.750			
0.0369	2359.36	4.0950	4.0949	-0.7237	24.52	-0.06	-0.750			
0.0390	2498.75	4.0920	4.0922	-0.7272	24.52	-0.06	-0.750			
0.0412	2638.87	4.0890	4.0890	-0.7313	24.52	-0.06	-0.750			
0.0434	2779.49	4.0860	4.0860	-0.7361	24.52	-0.06	-0.750			
0.0456	2920.52	4.0830	4.0830	-0.7396	24.52	-0.06	-0.750			
0.0479	3062.93	4.0800	4.0800	-0.7474	24.52	-0.06	-0.750			
0.0501	3209.04	4.0770	4.0770	-0.7548	24.52	-0.06	-0.750			
0.0524	3354.11	4.0740	4.0740	-0.7603	24.52	-0.06	-0.750			
0.0547	3500.93	4.0710	4.0710	-0.7618	24.52	-0.06	-0.750			
0.0570	3648.22	4.0680	4.0679	-0.7645	24.52	-0.06	-0.750			
0.0593	3795.12	4.0650	4.0650	-0.7606	24.53	-0.05	-0.750			
0.0616	3943.08	4.0620	4.0620	-0.7650	24.53	-0.05	-0.750			
0.0639	4086.82	4.0590	4.0591	-0.7675	24.53	-0.05	-0.750			
0.0662	4234.94	4.0560	4.0558	-0.7714	24.53	-0.05	-0.750			
0.0685	4381.38	4.0530	4.0530	-0.7738	24.53	-0.05	-0.750			
0.0708	4532.61	4.0500	4.0500	-0.7778	24.54	-0.04	-0.750			
0.0732	4685.25	4.0470	4.0471	-0.7861	24.54	-0.04	-0.750			
0.0756	4835.46	4.0440	4.0440	-0.7858	24.54	-0.04	-0.750			
0.0779	4984.86	4.0410	4.0410	-0.7809	24.54	-0.04	-0.750			
0.0802	5132.04	4.0380	4.0380	-0.7844	24.54	-0.04	-0.750			
0.0826	5284.41	4.0350	4.0350	-0.7878	24.54	-0.04	-0.750			
0.0849	5436.18	4.0320	4.0320	-0.7856	24.54	-0.04	-0.750			
0.0873	5588.75	4.0290	4.0289	-0.7803	24.54	-0.04	-0.750			
0.0896	5737.16	4.0260	4.0262	-0.7854	24.54	-0.04	-0.750			
0.0920	5886.96	4.0230	4.0230	-0.7878	24.54	-0.04	-0.750			
0.0943	6038.21	4.0200	4.0199	-0.7954	24.55	-0.03	-0.750			
0.0968	6192.11	4.0170	4.0170	-0.7954	24.55	-0.03	-0.750			
0.0992	6347.25	4.0140	4.0140	-0.8036	24.56	-0.02	-0.750			
0.1016	6502.40	4.0110	4.0113	-0.8042	24.56	-0.02	-0.750			
0.1040	6658.50	4.0080	4.0079	-0.8042	24.56	-0.02	-0.750			
0.1064	6809.21	4.0050	4.0050	-0.8030	24.56	-0.02	-0.750			
0.1088	6963.25	4.0020	4.0020	-0.8002	24.57	-0.01	-0.750			
0.1112	7117.92	3.9990	3.9989	-0.8084	24.57	-0.01	-0.750			
0.1137	7275.79	3.9960	3.9961	-0.7972	24.57	-0.01	-0.750			
0.1161	7428.19	3.9930	3.9930	-0.7895	24.57	-0.01	-0.750			
0.1184	7577.29	3.9900	3.9901	-0.7872	24.58	-0.00	-0.750			
0.1207	7727.10	3.9870	3.9871	-0.7857	24.58	0.00	-0.750			
0.1230	7873.68	3.9840	3.9838	-0.7858	24.58	0.00	-0.750			
0.1254	8025.88	3.9810	3.9810	-0.7940	24.59	0.01	-0.750			
0.1278	8177.67	3.9780	3.9781	-0.8033	24.59	0.01	-0.750			
0.1302	8335.49	3.9750	3.9750	-0.8332	24.59	0.01	-0.750			
0.1328	8499.00	3.9720	3.9720	-0.8248	24.59	0.01	-0.750			
0.1353	8657.54	3.9690	3.9689	-0.8199	24.60	0.02	-0.750			
0.1377	8815.86	3.9660	3.9659	-0.8245	24.60	0.02	-0.750			
0.1402	8973.41	3.9630	3.9629	-0.8258	24.60	0.02	-0.750			
0.1427	9130.62	3.9600	3.9598	-0.8299	24.61	0.03	-0.750			
0.1451	9288.32	3.9570	3.9570	-0.8242	24.61	0.03	-0.750			
0.1476	9443.60	3.9540	3.9541	-0.8257	24.61	0.03	-0.750			
0.1501	9608.51	3.9510	3.9509	-0.8476	24.62	0.04	-0.750			
0.1527	9772.22	3.9480	3.9479	-0.8491	24.62	0.04	-0.750			
0.1552	9934.16	3.9450	3.9450	-0.8523	24.62	0.04	-0.750			
0.1578	10100.34	3.9420	3.9420	-0.8460	24.62	0.04	-0.750			
0.1604	10262.97	3.9390	3.9391	-0.8461	24.63	0.05	-0.750			
0.1629	10426.83	3.9360	3.9359	-0.8524	24.63	0.05	-0.750			
0.1654	10587.46	3.9330	3.9328	-0.8464	24.63	0.05	-0.750			
0.1680	10749.51	3.9300	3.9299	-0.8580	24.63	0.05	-0.750			
0.1706	10917.82	3.9270	3.9271	-0.8608	24.64	0.06	-0.750			
0.1732	11084.95	3.9240	3.9238	-0.8560	24.64	0.06	-0.750			
0.1758	11251.72	3.9210	3.9209	-0.8598	24.64	0.06	-0.750			
0.1784	11414.64	3.9180	3.9178	-0.8502	24.64	0.06	-0.750			
0.1809	11575.91	3.9150	3.9150	-0.8589	24.65	0.07	-0.750			
0.1834	11738.85	3.9120	3.9119	-0.8569	24.65	0.07	-0.750			
0.1860	11905.18	3.9090	3.9089	-0.8714	24.65	0.07	-0.750			
0.1887	12074.41	3.9060	3.9062	-0.8765	24.66	0.08	-0.750			
0.1913	12242.92	3.9030	3.9029	-0.8701	24.66	0.08	-0.750			
0.1939	12410.50	3.9000	3.9000	-0.8706	24.66	0.08	-0.750			
0.1965	12578.13	3.8970	3.8970	-0.8680	24.67	0.09	-0.750			
0.1991	12742.08	3.8940	3.8939	-0.8541	24.67	0.09	-0.750			
0.2017	12907.79	3.8910	3.8913	-0.8669	24.67	0.09	-0.750			
0.2042	13070.83	3.8880	3.8880	-0.8756	24.67	0.09	-0.750			
0.2069	13239.88	3.8850	3.8849	-0.8771	24.67	0.09	-0.750			
0.2095	13410.08	3.8820	3.8818	-0.8832	24.68	0.10	-0.750			
0.2122	13582.86	3.8790	3.8791	-0.8863	24.68	0.10	-0.750			
0.2149	13753.46	3.8760	3.8763	-0.8835	24.68	0.10	-0.750			
0.2176	13924.06	3.8730	3.8729	-0.8901	24.69	0.11	-0.750			
0.2202	14092.17	3.8700	3.8699	-0.8783	24.69	0.11	-0.750			
0.2228	14258.30	3.8670	3.8669	-0.8725	24.69	0.11	-0.750			
0.2254	14428.78	3.8640	3.8639	-0.8778	24.70	0.12	-0.750			
0.2281	14595.97	3.8610	3.8609	-0.8792	24.70	0.12	-0.750			
0.2307	14764.62	3.8580	3.8579	-0.8811	24.70	0.12	-0.750			
0.2333	14932.05	3.8550	3.8550	-0.8777	24.70	0.12	-0.750			
0.2359	15097.94	3.8520	3.8520	-0.8771	24.70	0.12	-0.750			
0.2386	15272.04	3.8490	3.8491	-0.8914	24.70	0.12	-0.750			
0.2413	15442.49	3.8460	3.8460	-0.8930	24.70	0.12	-0.750			
0.2440	15616.19	3.8430	3.8429	-0.8922	24.71	0.13	-0.750			
0.2467	15786.68	3.8400	3.8401	-0.8890	24.71	0.13	-0.750			
0.2493	15955.80	3.8370	3.8369	-0.8876	24.72	0.14	-0.750			
0.2520	16127.35	3.8340	3.8345	-0.8920	24.72	0.14	-0.750			
0.2547	16297.85	3.8310	3.8310	-0.8899	24.72	0.14	-0.750			
0.2573	16470.09	3.8280	3.8280	-0.8866	24.73	0.15	-0.750			
0.2600	16639.53	3.8250	3.8250	-0.8871	24.73	0.15	-0.750			
0.2627	16810.14	3.8220	3.8220	-0.8862	24.74	0.16	-0.750			
0.2653	16978.47	3.8190	3.8189	-0.8793	24.74	0.16	-0.750			
0.2679	17146.73	3.8160	3.8160	-0.8786	24.74	0.16	-0.750			
0.2705	17314.82	3.8130	3.8131	-0.8789	24.75	0.17	-0.750			
0.2732	17485.00	3.8100	3.8099	-0.8796	24.75	0.17	-0.750			
0.2759	17654.96	3.8070	3.8070	-0.8796	24.75	0.17	-0.750			
0.2784	17818.99	3.8040	3.8040	-0.8788	24.75	0.17	-0.750			
0.2811	17990.69	3.8010	3.8010	-0.8793	24.75	0.17	-0.750			
0.2838	18160.37	3.7980	3.7979	-0.8743	24.76	0.18	-0.750			
0.2864	18328.19	3.7950	3.7949	-0.8667	24.76	0.18	-0.750			
0.2890	18495.15	3.7920	3.7924	-0.8645	24.76	0.18	-0.750			
0.2916	18660.20	3.7890	3.7890	-0.8623	24.76	0.18	-0.750			
0.2941	18823.65	3.7860	3.7859	-0.8645	24.77	0.19	-0.750			
0.2967	18990.89	3.7830	3.7829	-0.8581	24.77	0.19	-0.750			
0.2993	19157.72	3.7800	3.7799	-0.8604	24.78	0.20	-0.750			
0.3019	19321.58	3.7770	3.7774	-0.8540	24.78	0.20	-0.750			
0.3045	19486.56	3.7740	3.7739	-0.8518	24.78	0.20	-0.750			
0.3070	19647.88	3.7710	3.7709	-0.8484	24.78	0.20	-0.750			
0.3095	19808.15	3.7680	3.7680	-0.8405	24.78	0.20	-0.750			
0.3121	19971.89	3.7650	3.7650	-0.8454	24.78	0.20	-0.750			
0.3146	20134.24	3.7620	3.7621	-0.8421	24.78	0.20	-0.750			
0.3171	20296.24	3.7590	3.7590	-0.8361	24.78	0.20	-0.750			
0.3196	20457.06	3.7560	3.7559	-0.8417	24.78	0.20	-0.750			
0.3222	20617.85	3.7530	3.7529	-0.8386	24.79	0.21	-0.750			
0.3247	20779.36	3.7500	3.7499	-0.8438	24.79	0.21	-0.750			
0.3272	20940.97	3.7470	3.7473	-0.8482	24.79	0.21	-0.750			
0.3297	21102.24	3.7440	3.7439	-0.8611	24.79	0.21	-0.750			
0.3323	21270.36	3.7410	3.7409	-0.8620	24.79	0.21	-0.750			
0.3349	21433.72	3.7380	3.7379	-0.8586	24.80	0.22	-0.750			
0.3376	21603.86	3.7350	3.7350	-0.8770	24.80	0.22	-0.750			
0.3402	21775.15	3.7320	3.7319	-0.8712	24.80	0.22	-0.750			
0.3429	21943.56	3.7290	3.7288	-0.8399	24.80	0.22	-0.750			
0.3454	22103.52	3.7260	3.7261	-0.8160	24.80	0.22	-0.750			
0.3477	22250.44	3.7230	3.7235	-0.8152	24.80	0.22	-0.750			
0.3501	22405.27	3.7200	3.7193	-0.8466	24.80	0.22	-0.750			
0.3524	22554.26	3.7170	3.7170	-0.8842	24.80	0.22	-0.750			
0.3552	22729.60	3.7140	3.7140	-0.9171	24.79	0.21	-0.750			
0.3581	22918.38	3.7110	3.7107	-0.9677	24.79	0.21	-0.750			
0.3612	23115.46	3.7080	3.7076	-0.9919	24.78	0.20	-0.750			
0.3642	23308.71	3.7050	3.7060	-1.0054	24.78	0.20	-0.750			
0.3672	23500.92	3.7020	3.7019	-1.0188	24.78	0.20	-0.750			
0.3702	23692.61	3.6990	3.6993	-1.0305	24.78	0.20	-0.750	0.423	0.531	
0.3733	23891.07	3.6960	3.6959	-1.0415	24.77	0.19	-0.750			
0.3765	24097.67	3.6930	3.6933	-1.0800	24.77	0.19	-0.750			
0.3798	24304.98	3.6900	3.6897	-1.0979	24.77	0.19	-0.750			
0.3831	24519.04	3.6870	3.6869	-1.1198	24.76	0.18	-0.750			
0.3865	24734.58	3.6840	3.6839	-1.1400	24.75	0.17	-0.750			
0.3900	24959.30	3.6810	3.6811	-1.1917	24.75	0.17	-0.750			
0.3937	25195.97	3.6780	3.6778	-1.1963	24.74	0.16	-0.750			
0.3973	25428.94	3.6750	3.6748	-1.2199	24.74	0.16	-0.750			
0.4009	25660.30	3.6720	3.6717	-1.2481	24.73	0.15	-0.750			
0.4047	25902.45	3.6690	3.6687	-1.2731	24.72	0.14	-0.750			
0.4086	26148.96	3.6660	3.6657	-1.2902	24.71	0.13	-0.750			
0.4124	26391.04	3.6630	3.6630	-1.3170	24.70	0.12	-0.750			
0.4165	26654.19	3.6600	3.6599	-1.3568	24.69	0.11	-0.750			
0.4206	26918.88	3.6570	3.6569	-1.4056	24.68	0.10	-0.750			
0.4249	27190.60	3.6540	3.6538	-1.4394	24.67	0.09	-0.750			
0.4293	27472.62	3.6510	3.6507	-1.4667	24.66	0.08	-0.750			
0.4338	27762.90	3.6480	3.6482	-1.5205	24.65	0.07	-0.750			
0.4385	28063.15	3.6450	3.6456	-1.5353	24.64	0.06	-0.750			
0.4431	28357.08	3.6420	3.6422	-1.5418	24.63	0.05	-0.750			
0.4478	28656.51	3.6390	3.6385	-1.5380	24.63	0.05	-0.750			
0.4522	28940.81	3.6360	3.6363	-1.5535	24.62	0.04	-0.750			
0.4569	29238.73	3.6330	3.6326	-1.6444	24.61	0.03	-0.750			
0.4618	29557.21	3.6300	3.6295	-1.6683	24.60	0.02	-0.750			
0.4669	29880.18	3.6270	3.6265	-1.6773	24.59	0.01	-0.750			
0.4723	30228.25	3.6240	3.6239	-1.7287	24.58	-0.00	-0.750			
0.4775	30560.67	3.6210	3.6203	-1.7401	24.57	-0.01	-0.750			
0.4829	30902.91	3.6180	3.6177	-1.7501	24.56	-0.02	-0.750			
0.4879	31223.64	3.6150	3.6148	-1.7579	24.54	-0.04	-0.750			
0.4932	31564.99	3.6120	3.6123	-1.8426	24.53	-0.05	-0.750			
0.4988	31920.69	3.6090	3.6094	-1.8507	24.52	-0.06	-0.750			
0.5044	32278.54	3.6060	3.6055	-1.9231	24.52	-0.06	-0.750			
0.5102	32654.74	3.6030	3.6028	-1.9918	24.51	-0.07	-0.750			
0.5165	33053.44	3.6000	3.5998	-1.9963	24.50	-0.08	-0.750			
0.5225	33439.05	3.5970	3.5972	-2.0426	24.49	-0.09	-0.750			
0.5286	33828.12	3.5940	3.5936	-2.0424	24.48	-0.10	-0.750			
0.5348	34227.21	3.5910	3.5909	-2.1801	24.47	-0.11	-0.750			
0.5414	34651.61	3.5880	3.5885	-2.1778	24.47	-0.11	-0.750			
0.5484	35095.21	3.5850	3.5843	-2.2223	24.46	-0.12	-0.750			
0.5549	35513.05	3.5820	3.5819	-2.2180	24.45	-0.13	-0.750			
0.5613	35921.42	3.5790	3.5796	-2.2340	24.44	-0.14	-0.750			
0.5681	36355.70	3.5760	3.5758	-2.3085	24.44	-0.14	-0.750			
0.5752	36815.09	3.5730	3.5725	-2.3122	24.43	-0.15	-0.750			
0.5823	37264.31	3.5700	3.5696	-2.3620	24.43	-0.15	-0.750			
0.5891	37703.54	3.5670	3.5677	-2.3359	24.42	-0.16	-0.750			
0.5961	38147.59	3.5640	3.5647	-2.3521	24.42	-0.16	-0.750			
0.6033	38610.70	3.5610	3.5607	-2.3600	24.42	-0.16	-0.750			
0.6104	39065.95	3.5580	3.5575	-2.3375	24.42	-0.16	-0.750			
0.6173	39510.08	3.5550	3.5557	-2.3363	24.42	-0.16	-0.750			
0.6242	39945.72	3.5520	3.5516	-2.2326	24.42	-0.16	-0.750			
0.6309	40375.51	3.5490	3.5493	-2.2513	24.42	-0.16	-0.750			
0.6375	40799.26	3.5460	3.5465	-2.3273	24.42	-0.16	-0.750			
0.6446	41256.60	3.5430	3.5431	-2.3214	24.42	-0.16	-0.750			
0.6515	41697.65	3.5400	3.5402	-2.1895	24.42	-0.16	-0.750			
0.6581	42120.28	3.5370	3.5373	-2.1203	24.43	-0.15	-0.750			
0.6645	42524.83	3.5340	3.5343	-2.0390	24.44	-0.14	-0.750			
0.6703	42896.78	3.5310	3.5305	-1.9734	24.45	-0.13	-0.750			
0.6764	43289.17	3.5280	3.5280	-1.9846	24.46	-0.12	-0.750			
0.6819	43639.83	3.5250	3.5251	-1.9356	24.47	-0.11	-0.750			
0.6880	44030.12	3.5220	3.5225	-1.8739	24.48	-0.10	-0.750			
0.6937	44394.38	3.5190	3.5191	-1.8229	24.49	-0.09	-0.750			
0.6992	44751.75	3.5160	3.5161	-1.7597	24.51	-0.07	-0.750			
0.7044	45084.53	3.5130	3.5130	-1.6931	24.53	-0.05	-0.750			
0.7094	45402.04	3.5100	3.5103	-1.6341	24.54	-0.04	-0.750			
0.7141	45703.25	3.5070	3.5073	-1.5540	24.56	-0.02	-0.750			
0.7186	45992.53	3.5040	3.5045	-1.5196	24.57	-0.01	-0.750			
0.7232	46283.86	3.5010	3.5016	-1.4810	24.59	0.01	-0.750			
0.7277	46575.80	3.4980	3.4977	-1.4381	24.60	0.02	-0.750			
0.7319	46843.64	3.4950	3.4956	-1.3869	24.62	0.04	-0.750			
0.7360	47107.06	3.4920	3.4919	-1.3561	24.63	0.05	-0.750			
