Ah_balance (normalized)	Ah_balance (mAh)	Voltage - fit (V)	Voltage -  interpolate (V)	dQ/dV (1/V)	Temperature (°C)	Temperature - diff (°C)	Current (C)	R_DC 0ms (mOhm)	R_DC 50ms (mOhm)	R_DC 50 ms PEC (mOhm)
0.0004	25.08	4.1620	4.1620	-0.1303	24.99	0.01	-0.750			
0.0009	55.73	4.1590	4.1588	-0.1820	24.99	0.01	-0.750			
0.0015	96.46	4.1560	4.1560	-0.2292	24.99	0.01	-0.750			
0.0023	146.07	4.1530	4.1528	-0.2701	24.99	0.01	-0.750			
0.0032	202.11	4.1500	4.1501	-0.3114	24.99	0.01	-0.750			
0.0042	266.78	4.1470	4.1471	-0.3544	24.99	0.01	-0.750			
0.0053	339.57	4.1440	4.1439	-0.3949	24.99	0.01	-0.750			
0.0065	418.65	4.1410	4.1410	-0.4341	24.98	0.00	-0.750			
0.0079	508.03	4.1380	4.1379	-0.4636	24.98	0.00	-0.750			
0.0094	600.43	4.1350	4.1350	-0.4952	24.98	-0.00	-0.750			
0.0109	699.67	4.1320	4.1320	-0.5270	24.98	-0.00	-0.750			
0.0125	803.09	4.1290	4.1290	-0.5496	24.97	-0.01	-0.750			
0.0142	909.46	4.1260	4.1259	-0.5764	24.97	-0.01	-0.750			
0.0160	1022.98	4.1230	4.1230	-0.6003	24.97	-0.01	-0.750			
0.0179	1143.54	4.1200	4.1201	-0.6188	24.97	-0.01	-0.750			
0.0198	1267.03	4.1170	4.1170	-0.6334	24.96	-0.02	-0.750			
0.0217	1389.29	4.1140	4.1146	-0.6457	24.96	-0.02	-0.750			
0.0237	1514.90	4.1110	4.1109	-0.6552	24.96	-0.02	-0.750			
0.0256	1641.56	4.1080	4.1079	-0.6621	24.95	-0.03	-0.750			
0.0276	1767.43	4.1050	4.1050	-0.6717	24.95	-0.03	-0.750			
0.0297	1898.66	4.1020	4.1021	-0.6854	24.95	-0.03	-0.750			
0.0317	2031.08	4.0990	4.0990	-0.6955	24.94	-0.04	-0.750			
0.0338	2166.34	4.0960	4.0960	-0.7053	24.94	-0.04	-0.750			
0.0360	2302.24	4.0930	4.0930	-0.7068	24.94	-0.04	-0.750			
0.0381	2439.09	4.0900	4.0899	-0.7165	24.93	-0.05	-0.750			
0.0403	2580.69	4.0870	4.0870	-0.7261	24.93	-0.05	-0.750			
0.0425	2719.87	4.0840	4.0838	-0.7289	24.93	-0.05	-0.750			
0.0447	2861.51	4.0810	4.0809	-0.7340	24.92	-0.06	-0.750			
0.0469	3003.65	4.0780	4.0782	-0.7299	24.92	-0.06	-0.750			
0.0491	3142.74	4.0750	4.0749	-0.7360	24.92	-0.06	-0.750			
0.0513	3282.92	4.0720	4.0720	-0.7464	24.92	-0.06	-0.750			
0.0535	3422.07	4.0690	4.0691	-0.7411	24.93	-0.05	-0.750			
0.0559	3574.56	4.0660	4.0658	-0.7531	24.93	-0.05	-0.750			
0.0581	3717.89	4.0630	4.0630	-0.7497	24.93	-0.05	-0.750			
0.0603	3861.40	4.0600	4.0600	-0.7523	24.93	-0.05	-0.750			
0.0626	4005.72	4.0570	4.0569	-0.7534	24.93	-0.05	-0.750			
0.0648	4145.97	4.0540	4.0539	-0.7544	24.93	-0.05	-0.750			
0.0670	4290.39	4.0510	4.0510	-0.7542	24.93	-0.05	-0.750			
0.0694	4441.86	4.0480	4.0480	-0.7676	24.93	-0.05	-0.750			
0.0717	4589.63	4.0450	4.0452	-0.7715	24.93	-0.05	-0.750			
0.0740	4737.03	4.0420	4.0420	-0.7685	24.93	-0.05	-0.750			
0.0763	4884.25	4.0390	4.0389	-0.7748	24.93	-0.05	-0.750			
0.0786	5033.60	4.0360	4.0359	-0.7684	24.94	-0.04	-0.750			
0.0810	5182.18	4.0330	4.0330	-0.7693	24.94	-0.04	-0.750			
0.0833	5329.59	4.0300	4.0299	-0.7704	24.94	-0.04	-0.750			
0.0856	5477.36	4.0270	4.0269	-0.7733	24.94	-0.04	-0.750			
0.0879	5623.85	4.0240	4.0240	-0.7728	24.94	-0.04	-0.750			
0.0902	5772.27	4.0210	4.0210	-0.7802	24.94	-0.04	-0.750			
0.0926	5924.55	4.0180	4.0178	-0.7800	24.94	-0.04	-0.750			
0.0950	6079.22	4.0150	4.0150	-0.7872	24.94	-0.04	-0.750			
0.0973	6228.25	4.0120	4.0123	-0.7826	24.94	-0.04	-0.750			
0.0996	6376.94	4.0090	4.0090	-0.7829	24.94	-0.04	-0.750			
0.1020	6527.37	4.0060	4.0058	-0.7816	24.94	-0.04	-0.750			
0.1042	6671.83	4.0030	4.0031	-0.7804	24.94	-0.04	-0.750			
0.1067	6825.84	4.0000	4.0000	-0.7960	24.94	-0.04	-0.750			
0.1091	6982.78	3.9970	3.9973	-0.8030	24.94	-0.04	-0.750			
0.1115	7136.54	3.9940	3.9939	-0.8003	24.94	-0.04	-0.750			
0.1139	7289.69	3.9910	3.9912	-0.8140	24.94	-0.04	-0.750			
0.1164	7450.47	3.9880	3.9878	-0.8105	24.94	-0.04	-0.750			
0.1189	7607.70	3.9850	3.9848	-0.8091	24.94	-0.04	-0.750			
0.1213	7761.01	3.9820	3.9827	-0.8005	24.94	-0.04	-0.750			
0.1237	7914.71	3.9790	3.9789	-0.7995	24.94	-0.04	-0.750			
0.1260	8065.81	3.9760	3.9759	-0.8030	24.95	-0.03	-0.750			
0.1283	8213.60	3.9730	3.9730	-0.8006	24.95	-0.03	-0.750			
0.1308	8372.66	3.9700	3.9699	-0.8168	24.95	-0.03	-0.750			
0.1333	8531.27	3.9670	3.9670	-0.8194	24.96	-0.02	-0.750			
0.1358	8690.89	3.9640	3.9639	-0.8185	24.96	-0.02	-0.750			
0.1382	8847.24	3.9610	3.9611	-0.8191	24.96	-0.02	-0.750			
0.1407	9003.22	3.9580	3.9580	-0.8154	24.96	-0.02	-0.750			
0.1431	9158.85	3.9550	3.9550	-0.8117	24.96	-0.02	-0.750			
0.1455	9314.06	3.9520	3.9519	-0.8178	24.96	-0.02	-0.750			
0.1480	9471.76	3.9490	3.9490	-0.8238	24.96	-0.02	-0.750			
0.1505	9632.02	3.9460	3.9459	-0.8360	24.96	-0.02	-0.750			
0.1531	9795.49	3.9430	3.9429	-0.8347	24.96	-0.02	-0.750			
0.1556	9956.56	3.9400	3.9399	-0.8303	24.96	-0.02	-0.750			
0.1581	10117.27	3.9370	3.9367	-0.8291	24.96	-0.02	-0.750			
0.1606	10276.24	3.9340	3.9338	-0.8298	24.96	-0.02	-0.750			
0.1630	10432.56	3.9310	3.9309	-0.8341	24.97	-0.01	-0.750			
0.1655	10591.62	3.9280	3.9280	-0.8310	24.97	-0.01	-0.750			
0.1680	10754.33	3.9250	3.9250	-0.8459	24.97	-0.01	-0.750			
0.1706	10918.23	3.9220	3.9221	-0.8415	24.98	-0.00	-0.750			
0.1731	11077.32	3.9190	3.9189	-0.8418	24.98	0.00	-0.750			
0.1756	11238.74	3.9160	3.9159	-0.8428	24.98	0.00	-0.750			
0.1781	11400.58	3.9130	3.9130	-0.8380	24.98	0.00	-0.750			
0.1806	11558.70	3.9100	3.9100	-0.8364	24.98	0.00	-0.750			
0.1832	11723.55	3.9070	3.9071	-0.8527	24.98	0.00	-0.750			
0.1857	11882.16	3.9040	3.9039	-0.8668	24.98	0.00	-0.750			
0.1883	12052.81	3.9010	3.9008	-0.8641	24.99	0.01	-0.750			
0.1909	12219.11	3.8980	3.8979	-0.8586	24.99	0.01	-0.750			
0.1935	12384.44	3.8950	3.8950	-0.8594	25.00	0.02	-0.750			
0.1961	12553.48	3.8920	3.8922	-0.8641	25.00	0.02	-0.750			
0.1987	12716.32	3.8890	3.8888	-0.8566	25.00	0.02	-0.750			
0.2012	12876.87	3.8860	3.8860	-0.8619	25.00	0.02	-0.750			
0.2038	13045.13	3.8830	3.8829	-0.8596	25.00	0.02	-0.750			
0.2065	13215.67	3.8800	3.8798	-0.8711	25.00	0.02	-0.750			
0.2091	13380.73	3.8770	3.8777	-0.8590	25.00	0.02	-0.750			
0.2116	13544.16	3.8740	3.8738	-0.8533	25.00	0.02	-0.750			
0.2141	13705.41	3.8710	3.8710	-0.8570	25.00	0.02	-0.750			
0.2167	13866.10	3.8680	3.8679	-0.8509	25.01	0.03	-0.750			
0.2193	14033.15	3.8650	3.8649	-0.8664	25.01	0.03	-0.750			
0.2219	14201.50	3.8620	3.8621	-0.8646	25.01	0.03	-0.750			
0.2245	14366.24	3.8590	3.8590	-0.8730	25.01	0.03	-0.750			
0.2271	14536.08	3.8560	3.8559	-0.8652	25.01	0.03	-0.750			
0.2297	14700.97	3.8530	3.8529	-0.8589	25.02	0.04	-0.750			
0.2323	14864.64	3.8500	3.8499	-0.8576	25.02	0.04	-0.750			
0.2348	15030.09	3.8470	3.8469	-0.8549	25.02	0.04	-0.750			
0.2374	15191.28	3.8440	3.8440	-0.8618	25.02	0.04	-0.750			
0.2400	15358.30	3.8410	3.8409	-0.8617	25.02	0.04	-0.750			
0.2425	15521.34	3.8380	3.8380	-0.8585	25.03	0.05	-0.750			
0.2452	15691.85	3.8350	3.8349	-0.8606	25.03	0.05	-0.750			
0.2477	15855.45	3.8320	3.8319	-0.8556	25.03	0.05	-0.750			
0.2503	16019.10	3.8290	3.8291	-0.8628	25.03	0.05	-0.750			
0.2529	16183.82	3.8260	3.8259	-0.8608	25.04	0.06	-0.750			
0.2554	16346.64	3.8230	3.8229	-0.8570	25.04	0.06	-0.750			
0.2581	16515.77	3.8200	3.8200	-0.8584	25.04	0.06	-0.750			
0.2606	16680.77	3.8170	3.8170	-0.8563	25.04	0.06	-0.750			
0.2632	16846.51	3.8140	3.8140	-0.8587	25.04	0.06	-0.750			
0.2658	17009.17	3.8110	3.8109	-0.8479	25.04	0.06	-0.750			
0.2683	17170.53	3.8080	3.8079	-0.8425	25.04	0.06	-0.750			
0.2708	17333.49	3.8050	3.8050	-0.8413	25.04	0.06	-0.750			
0.2734	17496.80	3.8020	3.8018	-0.8309	25.04	0.06	-0.750			
0.2759	17654.68	3.7990	3.7990	-0.8339	25.05	0.07	-0.750			
0.2783	17812.04	3.7960	3.7960	-0.8245	25.05	0.07	-0.750			
0.2808	17972.65	3.7930	3.7930	-0.8295	25.05	0.07	-0.750			
0.2833	18130.07	3.7900	3.7901	-0.8193	25.06	0.08	-0.750			
0.2857	18286.35	3.7870	3.7869	-0.8121	25.06	0.08	-0.750			
0.2881	18440.77	3.7840	3.7839	-0.8115	25.06	0.08	-0.750			
0.2906	18596.82	3.7810	3.7810	-0.8038	25.06	0.08	-0.750			
0.2929	18747.40	3.7780	3.7779	-0.7961	25.06	0.08	-0.750			
0.2954	18903.87	3.7750	3.7750	-0.8015	25.06	0.08	-0.750			
0.2978	19056.67	3.7720	3.7720	-0.8028	25.06	0.08	-0.750			
0.3001	19207.81	3.7690	3.7689	-0.8123	25.06	0.08	-0.750			
0.3026	19367.48	3.7660	3.7659	-0.8058	25.06	0.08	-0.750			
0.3050	19521.91	3.7630	3.7629	-0.7999	25.07	0.09	-0.750			
0.3074	19676.72	3.7600	3.7599	-0.7991	25.07	0.09	-0.750			
0.3098	19829.95	3.7570	3.7567	-0.7914	25.07	0.09	-0.750			
0.3121	19977.06	3.7540	3.7540	-0.8058	25.07	0.09	-0.750			
0.3145	20128.41	3.7510	3.7509	-0.8060	25.07	0.09	-0.750			
0.3169	20284.68	3.7480	3.7480	-0.8080	25.07	0.09	-0.750			
0.3195	20447.98	3.7450	3.7450	-0.8253	25.07	0.09	-0.750			
0.3220	20605.90	3.7420	3.7423	-0.8382	25.07	0.09	-0.750			
0.3245	20767.48	3.7390	3.7390	-0.8464	25.07	0.09	-0.750			
0.3270	20929.40	3.7360	3.7358	-0.8462	25.07	0.09	-0.750			
0.3295	21089.16	3.7330	3.7331	-0.8482	25.08	0.10	-0.750			
0.3321	21253.84	3.7300	3.7302	-0.8714	25.08	0.10	-0.750			
0.3347	21420.48	3.7270	3.7269	-0.8884	25.08	0.10	-0.750			
0.3374	21592.63	3.7240	3.7238	-0.9142	25.08	0.10	-0.750			
0.3402	21773.22	3.7210	3.7209	-0.9208	25.08	0.10	-0.750			
0.3430	21954.71	3.7180	3.7178	-0.9381	25.07	0.09	-0.750			
0.3459	22139.10	3.7150	3.7153	-0.9497	25.07	0.09	-0.750			
0.3488	22320.48	3.7120	3.7119	-0.9761	25.07	0.09	-0.750			
0.3517	22507.91	3.7090	3.7087	-0.9877	25.07	0.09	-0.750			
0.3547	22701.72	3.7060	3.7057	-0.9974	25.06	0.08	-0.750			
0.3578	22896.54	3.7030	3.7028	-1.0269	25.06	0.08	-0.750			
0.3609	23094.57	3.7000	3.7000	-1.0421	25.06	0.08	-0.750	0.366	0.493	
0.3640	23295.56	3.6970	3.6965	-1.0512	25.05	0.07	-0.750			
0.3671	23494.23	3.6940	3.6938	-1.0578	25.05	0.07	-0.750			
0.3702	23692.39	3.6910	3.6911	-1.0631	25.04	0.06	-0.750			
0.3735	23901.32	3.6880	3.6880	-1.1068	25.04	0.06	-0.750			
0.3770	24128.10	3.6850	3.6849	-1.1391	25.04	0.06	-0.750			
0.3804	24347.83	3.6820	3.6817	-1.1423	25.03	0.05	-0.750			
0.3838	24565.14	3.6790	3.6797	-1.1697	25.03	0.05	-0.750			
0.3874	24795.78	3.6760	3.6759	-1.1946	25.02	0.04	-0.750			
0.3910	25026.39	3.6730	3.6729	-1.2125	25.02	0.04	-0.750			
0.3946	25254.71	3.6700	3.6699	-1.2366	25.01	0.03	-0.750			
0.3985	25501.77	3.6670	3.6669	-1.2758	25.01	0.03	-0.750			
0.4023	25748.48	3.6640	3.6639	-1.2948	25.00	0.02	-0.750			
0.4061	25993.38	3.6610	3.6609	-1.3453	24.99	0.01	-0.750			
0.4103	26257.44	3.6580	3.6581	-1.3545	24.98	-0.00	-0.750			
0.4146	26531.21	3.6550	3.6547	-1.3740	24.98	-0.00	-0.750			
0.4187	26794.91	3.6520	3.6519	-1.4340	24.97	-0.01	-0.750			
0.4230	27073.03	3.6490	3.6491	-1.4283	24.97	-0.01	-0.750			
0.4274	27352.70	3.6460	3.6455	-1.4453	24.96	-0.02	-0.750			
0.4317	27627.61	3.6430	3.6436	-1.4611	24.95	-0.03	-0.750			
0.4360	27904.54	3.6400	3.6401	-1.4630	24.95	-0.03	-0.750			
0.4406	28197.15	3.6370	3.6369	-1.5240	24.94	-0.04	-0.750			
0.4452	28492.42	3.6340	3.6338	-1.5514	24.93	-0.05	-0.750			
0.4500	28798.79	3.6310	3.6307	-1.6056	24.92	-0.06	-0.750			
0.4548	29110.19	3.6280	3.6283	-1.6424	24.91	-0.07	-0.750			
0.4599	29435.74	3.6250	3.6249	-1.6671	24.90	-0.08	-0.750			
0.4650	29759.48	3.6220	3.6219	-1.6697	24.90	-0.08	-0.750			
0.4702	30093.30	3.6190	3.6193	-1.6552	24.90	-0.08	-0.750			
0.4751	30403.80	3.6160	3.6160	-1.6957	24.89	-0.09	-0.750			
0.4802	30733.57	3.6130	3.6129	-1.7078	24.89	-0.09	-0.750			
0.4852	31050.77	3.6100	3.6095	-1.7606	24.88	-0.10	-0.750			
0.4905	31394.81	3.6070	3.6068	-1.7872	24.88	-0.10	-0.750			
0.4960	31746.25	3.6040	3.6037	-1.8328	24.88	-0.10	-0.750			
0.5017	32111.97	3.6010	3.6011	-1.9100	24.88	-0.10	-0.750			
0.5073	32467.84	3.5980	3.5977	-1.9370	24.87	-0.11	-0.750			
0.5133	32850.18	3.5950	3.5950	-1.9957	24.87	-0.11	-0.750			
0.5192	33230.69	3.5920	3.5921	-2.1014	24.86	-0.12	-0.750			
0.5258	33651.82	3.5890	3.5888	-2.1525	24.86	-0.12	-0.750			
0.5322	34063.21	3.5860	3.5858	-2.1458	24.85	-0.13	-0.750			
0.5387	34477.69	3.5830	3.5837	-2.1306	24.85	-0.13	-0.750			
0.5452	34890.11	3.5800	3.5796	-2.1916	24.84	-0.14	-0.750			
0.5517	35309.38	3.5770	3.5774	-2.2441	24.84	-0.14	-0.750			
0.5585	35745.81	3.5740	3.5737	-2.2237	24.84	-0.14	-0.750			
0.5651	36168.32	3.5710	3.5708	-2.2180	24.84	-0.14	-0.750			
0.5716	36579.51	3.5680	3.5687	-2.2536	24.84	-0.14	-0.750			
0.5782	37005.07	3.5650	3.5644	-2.1949	24.85	-0.13	-0.750			
0.5847	37418.31	3.5620	3.5621	-2.2565	24.85	-0.13	-0.750			
0.5916	37861.01	3.5590	3.5586	-2.3222	24.85	-0.13	-0.750			
0.5986	38308.75	3.5560	3.5563	-2.3005	24.85	-0.13	-0.750			
0.6059	38776.88	3.5530	3.5523	-2.3363	24.86	-0.12	-0.750			
0.6128	39217.12	3.5500	3.5504	-2.2588	24.86	-0.12	-0.750			
0.6193	39633.93	3.5470	3.5464	-2.2088	24.86	-0.12	-0.750			
0.6258	40054.40	3.5440	3.5440	-2.1999	24.87	-0.11	-0.750			
0.6326	40483.68	3.5410	3.5417	-2.1924	24.88	-0.10	-0.750			
0.6389	40890.76	3.5380	3.5381	-2.1006	24.89	-0.09	-0.750			
0.6452	41295.60	3.5350	3.5351	-2.0372	24.90	-0.08	-0.750			
0.6511	41673.33	3.5320	3.5326	-1.9836	24.91	-0.07	-0.750			
0.6572	42061.72	3.5290	3.5291	-1.9524	24.92	-0.06	-0.750			
0.6630	42430.54	3.5260	3.5257	-1.8969	24.93	-0.05	-0.750			
0.6686	42793.50	3.5230	3.5231	-1.8582	24.94	-0.04	-0.750			
0.6742	43149.96	3.5200	3.5196	-1.7992	24.95	-0.03	-0.750			
0.6794	43483.85	3.5170	3.5167	-1.7518	24.97	-0.01	-0.750			
0.6845	43809.61	3.5140	3.5144	-1.6756	24.98	0.00	-0.750			
0.6895	44129.35	3.5110	3.5111	-1.6690	25.00	0.02	-0.750			
0.6945	44446.89	3.5080	3.5083	-1.6123	25.01	0.03	-0.750			
0.6993	44755.41	3.5050	3.5047	-1.5668	25.03	0.05	-0.750			
0.7041	45063.36	3.5020	3.5019	-1.5350	25.04	0.06	-0.750			
0.7087	45354.67	3.4990	3.4989	-1.5018	25.06	0.08	-0.750			
0.7131	45637.48	3.4960	3.4959	-1.4488	25.08	0.10	-0.750			
0.7172	45902.61	3.4930	3.4928	-1.3961	25.09	0.11	-0.750			
0.7213	46163.07	3.4900	3.4906	-1.4071	25.11	0.13	-0.750			
0.7254	46427.87	3.4870	3.4869	-1.3277	25.13	0.15	-0.750			
