Ah_balance (normalized)	Ah_balance (mAh)	Voltage - fit (V)	Voltage -  interpolate (V)	dQ/dV (1/V)	Temperature (°C)	Temperature - diff (°C)	Current (C)	R_DC 0ms (mOhm)	R_DC 50ms (mOhm)	R_DC 50 ms PEC (mOhm)
0.0004	26.80	4.1620	4.1619	-0.1363	24.63	0.03	-0.750			
0.0009	60.26	4.1590	4.1587	-0.1888	24.62	0.02	-0.750			
0.0016	101.07	4.1560	4.1560	-0.2327	24.62	0.02	-0.750			
0.0024	150.42	4.1530	4.1531	-0.2742	24.62	0.02	-0.750			
0.0032	206.87	4.1500	4.1500	-0.3176	24.62	0.02	-0.750			
0.0043	273.00	4.1470	4.1470	-0.3565	24.62	0.02	-0.750			
0.0054	345.52	4.1440	4.1440	-0.3918	24.61	0.01	-0.750			
0.0066	424.26	4.1410	4.1410	-0.4347	24.61	0.01	-0.750			
0.0080	512.56	4.1380	4.1379	-0.4719	24.61	0.01	-0.750			
0.0095	608.35	4.1350	4.1350	-0.5016	24.60	0.00	-0.750			
0.0111	707.60	4.1320	4.1323	-0.5326	24.60	0.00	-0.750			
0.0127	813.03	4.1290	4.1290	-0.5585	24.60	-0.00	-0.750			
0.0145	924.83	4.1260	4.1260	-0.5805	24.59	-0.01	-0.750			
0.0162	1035.62	4.1230	4.1230	-0.6032	24.59	-0.01	-0.750			
0.0180	1152.48	4.1200	4.1200	-0.6188	24.58	-0.02	-0.750			
0.0200	1277.29	4.1170	4.1170	-0.6372	24.58	-0.02	-0.750			
0.0219	1400.95	4.1140	4.1139	-0.6557	24.57	-0.03	-0.750			
0.0239	1528.15	4.1110	4.1118	-0.6688	24.57	-0.03	-0.750			
0.0259	1659.58	4.1080	4.1080	-0.6817	24.57	-0.03	-0.750			
0.0280	1790.07	4.1050	4.1049	-0.7000	24.57	-0.03	-0.750			
0.0301	1927.08	4.1020	4.1020	-0.6991	24.56	-0.04	-0.750			
0.0322	2063.79	4.0990	4.0990	-0.7079	24.56	-0.04	-0.750			
0.0344	2199.28	4.0960	4.0959	-0.7124	24.56	-0.04	-0.750			
0.0365	2336.04	4.0930	4.0935	-0.7132	24.56	-0.04	-0.750			
0.0387	2474.51	4.0900	4.0899	-0.7180	24.56	-0.04	-0.750			
0.0408	2612.36	4.0870	4.0870	-0.7215	24.56	-0.04	-0.750			
0.0430	2749.82	4.0840	4.0840	-0.7267	24.55	-0.05	-0.750			
0.0452	2892.00	4.0810	4.0810	-0.7404	24.55	-0.05	-0.750			
0.0474	3032.72	4.0780	4.0778	-0.7379	24.55	-0.05	-0.750			
0.0496	3174.13	4.0750	4.0751	-0.7425	24.55	-0.05	-0.750			
0.0519	3318.86	4.0720	4.0720	-0.7477	24.55	-0.05	-0.750			
0.0541	3462.20	4.0690	4.0690	-0.7571	24.55	-0.05	-0.750			
0.0564	3609.56	4.0660	4.0660	-0.7553	24.55	-0.05	-0.750			
0.0587	3754.65	4.0630	4.0629	-0.7545	24.55	-0.05	-0.750			
0.0609	3899.88	4.0600	4.0600	-0.7586	24.55	-0.05	-0.750			
0.0632	4046.47	4.0570	4.0568	-0.7603	24.55	-0.05	-0.750			
0.0655	4189.82	4.0540	4.0541	-0.7757	24.55	-0.05	-0.750			
0.0678	4340.99	4.0510	4.0509	-0.7722	24.56	-0.04	-0.750			
0.0702	4491.19	4.0480	4.0478	-0.7765	24.56	-0.04	-0.750			
0.0725	4642.60	4.0450	4.0447	-0.7719	24.56	-0.04	-0.750			
0.0748	4788.23	4.0420	4.0419	-0.7682	24.56	-0.04	-0.750			
0.0771	4933.65	4.0390	4.0389	-0.7617	24.56	-0.04	-0.750			
0.0793	5077.57	4.0360	4.0362	-0.7678	24.56	-0.04	-0.750			
0.0816	5223.96	4.0330	4.0328	-0.7822	24.56	-0.04	-0.750			
0.0840	5374.71	4.0300	4.0301	-0.7843	24.56	-0.04	-0.750			
0.0864	5526.97	4.0270	4.0271	-0.7838	24.56	-0.04	-0.750			
0.0888	5680.11	4.0240	4.0240	-0.7907	24.56	-0.04	-0.750			
0.0911	5831.20	4.0210	4.0210	-0.7946	24.56	-0.04	-0.750			
0.0935	5983.11	4.0180	4.0178	-0.7869	24.56	-0.04	-0.750			
0.0959	6135.04	4.0150	4.0148	-0.7847	24.56	-0.04	-0.750			
0.0982	6284.88	4.0120	4.0124	-0.7855	24.56	-0.04	-0.750			
0.1006	6436.58	4.0090	4.0088	-0.7884	24.56	-0.04	-0.750			
0.1029	6586.26	4.0060	4.0060	-0.7972	24.56	-0.04	-0.750			
0.1053	6737.64	4.0030	4.0029	-0.7908	24.56	-0.04	-0.750			
0.1077	6889.68	4.0000	4.0000	-0.7936	24.56	-0.04	-0.750			
0.1101	7049.21	3.9970	3.9969	-0.8032	24.56	-0.04	-0.750			
0.1125	7202.60	3.9940	3.9938	-0.7981	24.56	-0.04	-0.750			
0.1149	7354.65	3.9910	3.9910	-0.7953	24.57	-0.03	-0.750			
0.1173	7507.68	3.9880	3.9880	-0.8017	24.57	-0.03	-0.750			
0.1197	7658.73	3.9850	3.9850	-0.8002	24.57	-0.03	-0.750			
0.1222	7818.28	3.9820	3.9819	-0.8108	24.58	-0.02	-0.750			
0.1246	7972.57	3.9790	3.9792	-0.8087	24.58	-0.02	-0.750			
0.1270	8126.98	3.9760	3.9759	-0.8198	24.58	-0.02	-0.750			
0.1295	8286.20	3.9730	3.9730	-0.8186	24.58	-0.02	-0.750			
0.1319	8441.16	3.9700	3.9698	-0.8151	24.58	-0.02	-0.750			
0.1344	8600.33	3.9670	3.9668	-0.8217	24.58	-0.02	-0.750			
0.1369	8759.14	3.9640	3.9643	-0.8204	24.58	-0.02	-0.750			
0.1393	8913.32	3.9610	3.9610	-0.8365	24.58	-0.02	-0.750			
0.1418	9076.70	3.9580	3.9578	-0.8331	24.58	-0.02	-0.750			
0.1443	9235.47	3.9550	3.9550	-0.8283	24.59	-0.01	-0.750			
0.1469	9399.93	3.9520	3.9517	-0.8414	24.59	-0.01	-0.750			
0.1494	9562.29	3.9490	3.9492	-0.8403	24.59	-0.01	-0.750			
0.1519	9723.12	3.9460	3.9458	-0.8372	24.59	-0.01	-0.750			
0.1544	9881.02	3.9430	3.9430	-0.8286	24.59	-0.01	-0.750			
0.1568	10033.62	3.9400	3.9402	-0.8168	24.60	-0.00	-0.750			
0.1594	10198.68	3.9370	3.9368	-0.8396	24.60	-0.00	-0.750			
0.1619	10359.85	3.9340	3.9341	-0.8381	24.60	0.00	-0.750			
0.1643	10517.55	3.9310	3.9310	-0.8574	24.60	0.00	-0.750			
0.1670	10686.76	3.9280	3.9280	-0.8510	24.60	0.00	-0.750			
0.1696	10851.70	3.9250	3.9249	-0.8509	24.61	0.01	-0.750			
0.1721	11015.08	3.9220	3.9218	-0.8498	24.61	0.01	-0.750			
0.1746	11177.42	3.9190	3.9192	-0.8430	24.61	0.01	-0.750			
0.1772	11338.30	3.9160	3.9158	-0.8531	24.61	0.01	-0.750			
0.1797	11503.33	3.9130	3.9129	-0.8520	24.61	0.01	-0.750			
0.1823	11666.43	3.9100	3.9099	-0.8620	24.62	0.02	-0.750			
0.1849	11831.94	3.9070	3.9068	-0.8603	24.62	0.02	-0.750			
0.1875	11998.27	3.9040	3.9037	-0.8563	24.62	0.02	-0.750			
0.1900	12161.57	3.9010	3.9010	-0.8580	24.63	0.03	-0.750			
0.1925	12322.93	3.8980	3.8980	-0.8563	24.63	0.03	-0.750			
0.1951	12483.48	3.8950	3.8950	-0.8518	24.63	0.03	-0.750			
0.1977	12654.07	3.8920	3.8920	-0.8700	24.64	0.04	-0.750			
0.2003	12820.67	3.8890	3.8890	-0.8695	24.64	0.04	-0.750			
0.2030	12989.95	3.8860	3.8860	-0.8801	24.64	0.04	-0.750			
0.2057	13161.81	3.8830	3.8830	-0.8778	24.64	0.04	-0.750			
0.2083	13328.15	3.8800	3.8800	-0.8710	24.64	0.04	-0.750			
0.2109	13496.88	3.8770	3.8769	-0.8696	24.64	0.04	-0.750			
0.2134	13658.34	3.8740	3.8741	-0.8868	24.64	0.04	-0.750			
0.2161	13832.15	3.8710	3.8708	-0.8687	24.65	0.05	-0.750			
0.2187	13998.83	3.8680	3.8678	-0.8673	24.65	0.05	-0.750			
0.2213	14165.30	3.8650	3.8649	-0.8701	24.66	0.06	-0.750			
0.2239	14331.92	3.8620	3.8628	-0.8697	24.66	0.06	-0.750			
0.2265	14497.31	3.8590	3.8587	-0.8704	24.66	0.06	-0.750			
0.2291	14664.23	3.8560	3.8559	-0.8716	24.66	0.06	-0.750			
0.2317	14830.89	3.8530	3.8530	-0.8836	24.67	0.07	-0.750			
0.2344	15001.88	3.8500	3.8500	-0.8828	24.67	0.07	-0.750			
0.2370	15169.45	3.8470	3.8470	-0.8747	24.67	0.07	-0.750			
0.2396	15335.60	3.8440	3.8440	-0.8814	24.67	0.07	-0.750			
0.2423	15504.80	3.8410	3.8410	-0.8811	24.67	0.07	-0.750			
0.2449	15674.25	3.8380	3.8378	-0.8750	24.68	0.08	-0.750			
0.2476	15844.24	3.8350	3.8349	-0.8782	24.68	0.08	-0.750			
0.2501	16007.87	3.8320	3.8322	-0.8915	24.68	0.08	-0.750			
0.2528	16180.75	3.8290	3.8288	-0.8853	24.68	0.08	-0.750			
0.2555	16353.90	3.8260	3.8259	-0.8724	24.69	0.09	-0.750			
0.2581	16518.50	3.8230	3.8228	-0.8630	24.69	0.09	-0.750			
0.2607	16686.98	3.8200	3.8201	-0.8652	24.69	0.09	-0.750			
0.2633	16851.06	3.8170	3.8166	-0.8642	24.69	0.09	-0.750			
0.2658	17012.78	3.8140	3.8139	-0.8536	24.69	0.09	-0.750			
0.2684	17174.64	3.8110	3.8110	-0.8532	24.70	0.10	-0.750			
0.2710	17342.07	3.8080	3.8079	-0.8658	24.70	0.10	-0.750			
0.2736	17509.78	3.8050	3.8051	-0.8637	24.70	0.10	-0.750			
0.2761	17670.57	3.8020	3.8020	-0.8618	24.70	0.10	-0.750			
0.2787	17836.88	3.7990	3.7990	-0.8628	24.70	0.10	-0.750			
0.2813	18001.92	3.7960	3.7959	-0.8523	24.70	0.10	-0.750			
0.2839	18167.52	3.7930	3.7929	-0.8539	24.70	0.10	-0.750			
0.2864	18331.82	3.7900	3.7906	-0.8490	24.70	0.10	-0.750			
0.2890	18494.86	3.7870	3.7869	-0.8383	24.70	0.10	-0.750			
0.2915	18659.18	3.7840	3.7839	-0.8411	24.71	0.11	-0.750			
0.2940	18819.15	3.7810	3.7808	-0.8319	24.71	0.11	-0.750			
0.2965	18978.98	3.7780	3.7779	-0.8283	24.72	0.12	-0.750			
0.2990	19137.65	3.7750	3.7756	-0.8197	24.72	0.12	-0.750			
0.3014	19292.54	3.7720	3.7718	-0.8141	24.72	0.12	-0.750			
0.3039	19446.69	3.7690	3.7690	-0.8189	24.72	0.12	-0.750			
0.3063	19600.07	3.7660	3.7660	-0.8003	24.72	0.12	-0.750			
0.3088	19761.58	3.7630	3.7629	-0.8231	24.72	0.12	-0.750			
0.3112	19918.07	3.7600	3.7600	-0.8204	24.72	0.12	-0.750			
0.3137	20077.05	3.7570	3.7570	-0.8175	24.72	0.12	-0.750			
0.3162	20235.06	3.7540	3.7538	-0.8228	24.72	0.12	-0.750			
0.3186	20391.91	3.7510	3.7510	-0.8169	24.73	0.13	-0.750			
0.3211	20548.53	3.7480	3.7480	-0.8251	24.73	0.13	-0.750			
0.3236	20707.61	3.7450	3.7456	-0.8300	24.73	0.13	-0.750			
0.3259	20859.11	3.7420	3.7420	-0.8507	24.73	0.13	-0.750			
0.3286	21027.74	3.7390	3.7389	-0.8481	24.73	0.13	-0.750			
0.3311	21192.17	3.7360	3.7359	-0.8546	24.73	0.13	-0.750			
0.3337	21359.87	3.7330	3.7328	-0.8750	24.73	0.13	-0.750			
0.3364	21527.10	3.7300	3.7310	-0.8740	24.73	0.13	-0.750			
0.3390	21694.17	3.7270	3.7269	-0.8752	24.73	0.13	-0.750			
0.3416	21864.75	3.7240	3.7239	-0.8941	24.73	0.13	-0.750			
0.3443	22036.18	3.7210	3.7210	-0.9194	24.72	0.12	-0.750			
0.3471	22211.98	3.7180	3.7178	-0.9287	24.72	0.12	-0.750			
0.3498	22390.28	3.7150	3.7150	-0.9442	24.72	0.12	-0.750			
0.3526	22567.27	3.7120	3.7120	-0.9872	24.72	0.12	-0.750			
0.3557	22765.22	3.7090	3.7089	-0.9970	24.72	0.12	-0.750			
0.3588	22960.54	3.7060	3.7058	-1.0006	24.72	0.12	-0.750			
0.3618	23154.49	3.7030	3.7033	-1.0465	24.72	0.12	-0.750			
0.3650	23360.42	3.7000	3.7000	-1.0375	24.71	0.11	-0.750	0.366	0.490	
0.3681	23559.13	3.6970	3.6966	-1.0376	24.71	0.11	-0.750			
0.3711	23751.07	3.6940	3.6939	-1.0389	24.70	0.10	-0.750			
0.3743	23955.00	3.6910	3.6912	-1.0751	24.70	0.10	-0.750			
0.3776	24164.89	3.6880	3.6878	-1.1068	24.69	0.09	-0.750			
0.3809	24377.06	3.6850	3.6849	-1.1216	24.69	0.09	-0.750			
0.3841	24583.05	3.6820	3.6822	-1.1593	24.68	0.08	-0.750			
0.3878	24821.57	3.6790	3.6790	-1.1950	24.68	0.08	-0.750			
0.3915	25054.66	3.6760	3.6759	-1.2076	24.67	0.07	-0.750			
0.3951	25287.10	3.6730	3.6729	-1.2242	24.66	0.06	-0.750			
0.3988	25524.18	3.6700	3.6708	-1.2600	24.65	0.05	-0.750			
0.4027	25772.32	3.6670	3.6667	-1.2806	24.64	0.04	-0.750			
0.4066	26021.20	3.6640	3.6638	-1.2998	24.63	0.03	-0.750			
0.4105	26269.35	3.6610	3.6609	-1.3250	24.62	0.02	-0.750			
0.4146	26531.46	3.6580	3.6579	-1.3514	24.61	0.01	-0.750			
0.4186	26791.16	3.6550	3.6548	-1.3922	24.61	0.01	-0.750			
0.4228	27056.33	3.6520	3.6521	-1.4265	24.60	0.00	-0.750			
0.4272	27338.15	3.6490	3.6488	-1.4805	24.59	-0.01	-0.750			
0.4316	27623.05	3.6460	3.6465	-1.5210	24.59	-0.01	-0.750			
0.4363	27925.69	3.6430	3.6435	-1.5291	24.58	-0.02	-0.750			
0.4410	28225.01	3.6400	3.6395	-1.5207	24.57	-0.03	-0.750			
0.4456	28516.92	3.6370	3.6368	-1.5548	24.57	-0.03	-0.750			
0.4503	28817.73	3.6340	3.6336	-1.5601	24.56	-0.04	-0.750			
0.4550	29120.35	3.6310	3.6306	-1.6009	24.55	-0.05	-0.750			
0.4597	29417.81	3.6280	3.6283	-1.6186	24.53	-0.07	-0.750			
0.4646	29735.26	3.6250	3.6248	-1.6447	24.53	-0.07	-0.750			
0.4698	30069.82	3.6220	3.6226	-1.6958	24.52	-0.08	-0.750			
0.4751	30406.58	3.6190	3.6188	-1.7405	24.52	-0.08	-0.750			
0.4802	30735.46	3.6160	3.6159	-1.7752	24.51	-0.09	-0.750			
0.4857	31082.61	3.6130	3.6122	-1.7946	24.50	-0.10	-0.750			
0.4910	31423.36	3.6100	3.6099	-1.8452	24.49	-0.11	-0.750			
0.4967	31790.23	3.6070	3.6069	-1.8588	24.48	-0.12	-0.750			
0.5022	32141.92	3.6040	3.6042	-1.9183	24.48	-0.12	-0.750			
0.5082	32526.16	3.6010	3.6012	-1.9672	24.47	-0.13	-0.750			
0.5143	32914.86	3.5980	3.5976	-2.0125	24.47	-0.13	-0.750			
0.5202	33293.34	3.5950	3.5946	-2.0430	24.46	-0.14	-0.750			
0.5264	33691.70	3.5920	3.5917	-2.1573	24.46	-0.14	-0.750			
0.5329	34105.64	3.5890	3.5886	-2.1386	24.45	-0.15	-0.750			
0.5392	34511.82	3.5860	3.5863	-2.2212	24.44	-0.16	-0.750			
0.5463	34961.39	3.5830	3.5830	-2.2950	24.44	-0.16	-0.750			
0.5533	35414.36	3.5800	3.5801	-2.3312	24.44	-0.16	-0.750			
0.5605	35870.27	3.5770	3.5773	-2.4214	24.44	-0.16	-0.750			
0.5674	36314.62	3.5740	3.5739	-2.3042	24.44	-0.16	-0.750			
0.5743	36755.93	3.5710	3.5709	-2.2361	24.43	-0.17	-0.750			
0.5813	37202.53	3.5680	3.5680	-2.2795	24.44	-0.16	-0.750			
0.5878	37620.71	3.5650	3.5652	-2.2236	24.44	-0.16	-0.750			
0.5946	38051.54	3.5620	3.5621	-2.2041	24.43	-0.17	-0.750			
0.6012	38473.81	3.5590	3.5587	-2.2703	24.42	-0.18	-0.750			
0.6080	38911.76	3.5560	3.5557	-2.2668	24.43	-0.17	-0.750			
0.6148	39345.14	3.5530	3.5525	-2.2635	24.44	-0.16	-0.750			
0.6217	39790.50	3.5500	3.5503	-2.2812	24.44	-0.16	-0.750			
0.6288	40242.03	3.5470	3.5470	-2.2639	24.45	-0.15	-0.750			
0.6355	40672.87	3.5440	3.5441	-2.1872	24.46	-0.14	-0.750			
0.6419	41082.21	3.5410	3.5412	-2.1844	24.46	-0.14	-0.750			
0.6486	41508.25	3.5380	3.5378	-2.1573	24.47	-0.13	-0.750			
0.6549	41911.51	3.5350	3.5346	-2.0898	24.47	-0.13	-0.750			
0.6612	42315.56	3.5320	3.5325	-2.0247	24.48	-0.12	-0.750			
0.6672	42703.02	3.5290	3.5292	-2.0159	24.49	-0.11	-0.750			
0.6733	43093.40	3.5260	3.5262	-1.9454	24.51	-0.09	-0.750			
0.6789	43450.66	3.5230	3.5233	-1.8658	24.52	-0.08	-0.750			
0.6845	43806.78	3.5200	3.5202	-1.8234	24.54	-0.06	-0.750			
0.6899	44151.74	3.5170	3.5169	-1.7560	24.55	-0.05	-0.750			
0.6950	44481.92	3.5140	3.5137	-1.6922	24.58	-0.02	-0.750			
0.7000	44798.41	3.5110	3.5110	-1.6134	24.59	-0.01	-0.750			
0.7046	45094.32	3.5080	3.5084	-1.5860	24.61	0.01	-0.750			
0.7093	45398.03	3.5050	3.5046	-1.5496	24.62	0.02	-0.750			
0.7139	45690.52	3.5020	3.5015	-1.5033	24.64	0.04	-0.750			
0.7185	45981.09	3.4990	3.4996	-1.4678	24.66	0.06	-0.750			
0.7228	46262.29	3.4960	3.4959	-1.4245	24.68	0.08	-0.750			
0.7270	46527.25	3.4930	3.4930	-1.3869	24.69	0.09	-0.750			
0.7309	46779.90	3.4900	3.4900	-1.2071	24.71	0.11	-0.750			
