Ah_balance (normalized)	Ah_balance (mAh)	Voltage - fit (V)	Voltage -  interpolate (V)	dQ/dV (1/V)	Temperature (°C)	Temperature - diff (°C)	Current (C)	R_DC 0ms (mOhm)	R_DC 50ms (mOhm)	R_DC 50 ms PEC (mOhm)
0.0002	14.48	4.1630	4.1626	-0.1092	25.15	0.03	-0.750			
0.0006	39.61	4.1600	4.1599	-0.1519	25.14	0.02	-0.750			
0.0011	73.47	4.1570	4.1570	-0.1935	25.14	0.02	-0.750			
0.0018	113.65	4.1540	4.1541	-0.2352	25.14	0.02	-0.750			
0.0026	164.72	4.1510	4.1509	-0.2699	25.14	0.02	-0.750			
0.0035	221.46	4.1480	4.1479	-0.2910	25.14	0.02	-0.750			
0.0044	282.63	4.1450	4.1451	-0.3230	25.14	0.02	-0.750			
0.0054	347.28	4.1420	4.1425	-0.3537	25.13	0.01	-0.750			
0.0065	416.70	4.1390	4.1386	-0.3820	25.13	0.01	-0.750			
0.0077	490.21	4.1360	4.1357	-0.4135	25.13	0.01	-0.750			
0.0089	571.20	4.1330	4.1330	-0.4513	25.12	0.00	-0.750			
0.0103	662.10	4.1300	4.1301	-0.4858	25.12	0.00	-0.750			
0.0119	761.13	4.1270	4.1270	-0.5242	25.12	-0.00	-0.750			
0.0136	867.90	4.1240	4.1240	-0.5501	25.11	-0.01	-0.750			
0.0153	977.84	4.1210	4.1209	-0.5721	25.11	-0.01	-0.750			
0.0171	1091.65	4.1180	4.1180	-0.5969	25.11	-0.01	-0.750			
0.0189	1208.86	4.1150	4.1150	-0.6114	25.10	-0.02	-0.750			
0.0208	1329.07	4.1120	4.1118	-0.6197	25.10	-0.02	-0.750			
0.0226	1449.21	4.1090	4.1089	-0.6310	25.09	-0.03	-0.750			
0.0245	1569.69	4.1060	4.1058	-0.6414	25.09	-0.03	-0.750			
0.0265	1693.66	4.1030	4.1029	-0.6537	25.09	-0.03	-0.750			
0.0284	1818.04	4.1000	4.0999	-0.6653	25.08	-0.04	-0.750			
0.0305	1950.09	4.0970	4.0970	-0.6797	25.08	-0.04	-0.750			
0.0325	2082.79	4.0940	4.0940	-0.6853	25.08	-0.04	-0.750			
0.0346	2215.13	4.0910	4.0910	-0.6914	25.07	-0.05	-0.750			
0.0367	2348.13	4.0880	4.0880	-0.6906	25.07	-0.05	-0.750			
0.0387	2479.97	4.0850	4.0849	-0.6953	25.07	-0.05	-0.750			
0.0408	2611.60	4.0820	4.0820	-0.6996	25.07	-0.05	-0.750			
0.0429	2747.29	4.0790	4.0791	-0.7025	25.06	-0.06	-0.750			
0.0451	2884.34	4.0760	4.0759	-0.7122	25.06	-0.06	-0.750			
0.0472	3021.18	4.0730	4.0731	-0.7155	25.06	-0.06	-0.750			
0.0494	3158.59	4.0700	4.0700	-0.7194	25.06	-0.06	-0.750			
0.0515	3296.95	4.0670	4.0670	-0.7261	25.06	-0.06	-0.750			
0.0537	3436.26	4.0640	4.0639	-0.7370	25.06	-0.06	-0.750			
0.0559	3580.44	4.0610	4.0610	-0.7390	25.06	-0.06	-0.750			
0.0582	3725.55	4.0580	4.0578	-0.7378	25.06	-0.06	-0.750			
0.0604	3868.29	4.0550	4.0551	-0.7344	25.06	-0.06	-0.750			
0.0626	4008.06	4.0520	4.0518	-0.7354	25.06	-0.06	-0.750			
0.0648	4145.77	4.0490	4.0490	-0.7327	25.06	-0.06	-0.750			
0.0669	4284.76	4.0460	4.0459	-0.7401	25.06	-0.06	-0.750			
0.0692	4426.00	4.0430	4.0430	-0.7379	25.06	-0.06	-0.750			
0.0715	4574.54	4.0400	4.0400	-0.7508	25.06	-0.06	-0.750			
0.0737	4717.92	4.0370	4.0372	-0.7540	25.06	-0.06	-0.750			
0.0760	4864.08	4.0340	4.0338	-0.7541	25.06	-0.06	-0.750			
0.0783	5009.77	4.0310	4.0310	-0.7481	25.07	-0.05	-0.750			
0.0805	5150.99	4.0280	4.0280	-0.7487	25.07	-0.05	-0.750			
0.0828	5296.03	4.0250	4.0251	-0.7549	25.07	-0.05	-0.750			
0.0850	5441.14	4.0220	4.0221	-0.7574	25.08	-0.04	-0.750			
0.0873	5585.06	4.0190	4.0186	-0.7574	25.08	-0.04	-0.750			
0.0895	5727.76	4.0160	4.0162	-0.7675	25.08	-0.04	-0.750			
0.0918	5878.14	4.0130	4.0130	-0.7732	25.08	-0.04	-0.750			
0.0942	6028.20	4.0100	4.0099	-0.7764	25.08	-0.04	-0.750			
0.0966	6180.32	4.0070	4.0068	-0.7787	25.08	-0.04	-0.750			
0.0989	6328.93	4.0040	4.0043	-0.7739	25.08	-0.04	-0.750			
0.1012	6476.86	4.0010	4.0010	-0.7749	25.08	-0.04	-0.750			
0.1035	6624.89	3.9980	3.9981	-0.7757	25.09	-0.03	-0.750			
0.1058	6772.26	3.9950	3.9949	-0.7665	25.09	-0.03	-0.750			
0.1082	6921.60	3.9920	3.9920	-0.7778	25.10	-0.02	-0.750			
0.1105	7070.33	3.9890	3.9891	-0.7794	25.10	-0.02	-0.750			
0.1128	7220.63	3.9860	3.9859	-0.7789	25.10	-0.02	-0.750			
0.1151	7369.28	3.9830	3.9830	-0.7895	25.10	-0.02	-0.750			
0.1175	7522.65	3.9800	3.9800	-0.7829	25.10	-0.02	-0.750			
0.1199	7672.42	3.9770	3.9770	-0.7863	25.10	-0.02	-0.750			
0.1223	7826.00	3.9740	3.9740	-0.7936	25.10	-0.02	-0.750			
0.1246	7976.33	3.9710	3.9709	-0.7912	25.10	-0.02	-0.750			
0.1270	8127.30	3.9680	3.9679	-0.7966	25.11	-0.01	-0.750			
0.1294	8282.09	3.9650	3.9651	-0.7948	25.11	-0.01	-0.750			
0.1318	8432.47	3.9620	3.9620	-0.7946	25.11	-0.01	-0.750			
0.1342	8589.46	3.9590	3.9588	-0.8001	25.12	-0.00	-0.750			
0.1366	8741.08	3.9560	3.9561	-0.7960	25.12	0.00	-0.750			
0.1390	8892.92	3.9530	3.9530	-0.8015	25.12	0.00	-0.750			
0.1414	9046.97	3.9500	3.9500	-0.8046	25.12	0.00	-0.750			
0.1438	9200.86	3.9470	3.9470	-0.8011	25.12	0.00	-0.750			
0.1462	9358.27	3.9440	3.9439	-0.8099	25.12	0.00	-0.750			
0.1486	9512.49	3.9410	3.9415	-0.8118	25.12	0.00	-0.750			
0.1511	9670.19	3.9380	3.9380	-0.8147	25.12	0.00	-0.750			
0.1535	9827.13	3.9350	3.9349	-0.8179	25.13	0.01	-0.750			
0.1560	9985.49	3.9320	3.9320	-0.8138	25.13	0.01	-0.750			
0.1585	10141.73	3.9290	3.9290	-0.8152	25.14	0.02	-0.750			
0.1609	10298.46	3.9260	3.9264	-0.8097	25.14	0.02	-0.750			
0.1633	10452.72	3.9230	3.9229	-0.8055	25.14	0.02	-0.750			
0.1657	10605.48	3.9200	3.9200	-0.8193	25.14	0.02	-0.750			
0.1682	10764.27	3.9170	3.9168	-0.8170	25.14	0.02	-0.750			
0.1707	10925.01	3.9140	3.9138	-0.8244	25.14	0.02	-0.750			
0.1732	11082.55	3.9110	3.9116	-0.8220	25.14	0.02	-0.750			
0.1756	11240.03	3.9080	3.9080	-0.8221	25.15	0.03	-0.750			
0.1781	11397.91	3.9050	3.9048	-0.8271	25.15	0.03	-0.750			
0.1805	11552.77	3.9020	3.9020	-0.8177	25.16	0.04	-0.750			
0.1830	11713.35	3.8990	3.8989	-0.8241	25.16	0.04	-0.750			
0.1855	11871.67	3.8960	3.8962	-0.8219	25.17	0.05	-0.750			
0.1880	12029.40	3.8930	3.8930	-0.8223	25.17	0.05	-0.750			
0.1904	12185.80	3.8900	3.8899	-0.8208	25.17	0.05	-0.750			
0.1929	12342.75	3.8870	3.8870	-0.8140	25.17	0.05	-0.750			
0.1953	12498.65	3.8840	3.8840	-0.8160	25.17	0.05	-0.750			
0.1978	12658.27	3.8810	3.8811	-0.8228	25.17	0.05	-0.750			
0.2002	12815.97	3.8780	3.8779	-0.8195	25.17	0.05	-0.750			
0.2027	12972.58	3.8750	3.8749	-0.8244	25.17	0.05	-0.750			
0.2052	13131.93	3.8720	3.8720	-0.8219	25.18	0.06	-0.750			
0.2077	13290.67	3.8690	3.8688	-0.8157	25.18	0.06	-0.750			
0.2102	13450.71	3.8660	3.8661	-0.8140	25.18	0.06	-0.750			
0.2126	13604.24	3.8630	3.8628	-0.8028	25.18	0.06	-0.750			
0.2149	13755.53	3.8600	3.8600	-0.7982	25.19	0.07	-0.750			
0.2173	13907.16	3.8570	3.8570	-0.7954	25.19	0.07	-0.750			
0.2196	14055.42	3.8540	3.8540	-0.7897	25.19	0.07	-0.750			
0.2221	14213.28	3.8510	3.8510	-0.7957	25.20	0.08	-0.750			
0.2245	14365.81	3.8480	3.8480	-0.7929	25.20	0.08	-0.750			
0.2268	14517.38	3.8450	3.8451	-0.7954	25.20	0.08	-0.750			
0.2292	14670.48	3.8420	3.8419	-0.7915	25.20	0.08	-0.750			
0.2316	14821.65	3.8390	3.8390	-0.7837	25.21	0.09	-0.750			
0.2339	14972.79	3.8360	3.8360	-0.7832	25.21	0.09	-0.750			
0.2363	15123.97	3.8330	3.8331	-0.7760	25.21	0.09	-0.750			
0.2386	15271.98	3.8300	3.8300	-0.7700	25.21	0.09	-0.750			
0.2409	15415.72	3.8270	3.8270	-0.7746	25.21	0.09	-0.750			
0.2432	15564.86	3.8240	3.8239	-0.7722	25.22	0.10	-0.750			
0.2456	15715.55	3.8210	3.8208	-0.7727	25.22	0.10	-0.750			
0.2479	15864.16	3.8180	3.8179	-0.7692	25.22	0.10	-0.750			
0.2502	16013.10	3.8150	3.8149	-0.7663	25.22	0.10	-0.750			
0.2525	16160.10	3.8120	3.8121	-0.7655	25.22	0.10	-0.750			
0.2547	16303.51	3.8090	3.8089	-0.7617	25.22	0.10	-0.750			
0.2570	16450.63	3.8060	3.8060	-0.7624	25.22	0.10	-0.750			
0.2593	16598.01	3.8030	3.8029	-0.7655	25.22	0.10	-0.750			
0.2616	16744.70	3.8000	3.8001	-0.7582	25.22	0.10	-0.750			
0.2639	16889.79	3.7970	3.7971	-0.7624	25.22	0.10	-0.750			
0.2662	17035.44	3.7940	3.7939	-0.7629	25.23	0.11	-0.750			
0.2684	17179.09	3.7910	3.7911	-0.7626	25.23	0.11	-0.750			
0.2708	17328.65	3.7880	3.7879	-0.7658	25.24	0.12	-0.750			
0.2731	17476.79	3.7850	3.7850	-0.7718	25.24	0.12	-0.750			
0.2754	17624.14	3.7820	3.7821	-0.7731	25.24	0.12	-0.750			
0.2777	17772.12	3.7790	3.7789	-0.7847	25.24	0.12	-0.750			
0.2800	17923.08	3.7760	3.7759	-0.7785	25.23	0.11	-0.750			
0.2824	18072.83	3.7730	3.7729	-0.7827	25.23	0.11	-0.750			
0.2848	18224.79	3.7700	3.7699	-0.7869	25.23	0.11	-0.750			
0.2871	18376.61	3.7670	3.7669	-0.7949	25.23	0.11	-0.750			
0.2895	18526.89	3.7640	3.7640	-0.8002	25.23	0.11	-0.750			
0.2919	18682.31	3.7610	3.7610	-0.8041	25.23	0.11	-0.750			
0.2943	18835.69	3.7580	3.7580	-0.8090	25.23	0.11	-0.750			
0.2968	18995.33	3.7550	3.7549	-0.8208	25.23	0.11	-0.750			
0.2993	19152.30	3.7520	3.7522	-0.8231	25.23	0.11	-0.750			
0.3017	19309.01	3.7490	3.7489	-0.8359	25.23	0.11	-0.750			
0.3042	19470.73	3.7460	3.7460	-0.8411	25.23	0.11	-0.750			
0.3068	19632.75	3.7430	3.7429	-0.8506	25.22	0.10	-0.750			
0.3094	19799.27	3.7400	3.7400	-0.8624	25.22	0.10	-0.750			
0.3120	19965.97	3.7370	3.7371	-0.8700	25.22	0.10	-0.750			
0.3146	20133.52	3.7340	3.7339	-0.8843	25.22	0.10	-0.750			
0.3172	20303.95	3.7310	3.7310	-0.8908	25.22	0.10	-0.750			
0.3199	20474.75	3.7280	3.7279	-0.8992	25.22	0.10	-0.750			
0.3227	20650.94	3.7250	3.7249	-0.9122	25.22	0.10	-0.750			
0.3254	20825.91	3.7220	3.7219	-0.9236	25.22	0.10	-0.750			
0.3282	21004.54	3.7190	3.7191	-0.9362	25.21	0.09	-0.750			
0.3310	21184.99	3.7160	3.7159	-0.9410	25.21	0.09	-0.750			
0.3338	21365.13	3.7130	3.7128	-0.9533	25.20	0.08	-0.750			
0.3367	21551.67	3.7100	3.7103	-0.9700	25.20	0.08	-0.750			
0.3397	21739.77	3.7070	3.7070	-0.9908	25.19	0.07	-0.750			
0.3427	21933.43	3.7040	3.7039	-1.0068	25.19	0.07	-0.750			
0.3458	22128.28	3.7010	3.7009	-1.0072	25.18	0.06	-0.750			
0.3488	22321.25	3.6980	3.6982	-1.0386	25.18	0.06	-0.750	0.366	0.523	
0.3520	22525.91	3.6950	3.6949	-1.0465	25.18	0.06	-0.750			
0.3551	22725.73	3.6920	3.6920	-1.0520	25.17	0.05	-0.750			
0.3582	22926.33	3.6890	3.6887	-1.0619	25.17	0.05	-0.750			
0.3615	23133.46	3.6860	3.6863	-1.0891	25.17	0.05	-0.750			
0.3647	23341.51	3.6830	3.6829	-1.0982	25.16	0.04	-0.750			
0.3680	23555.20	3.6800	3.6799	-1.1120	25.15	0.03	-0.750			
0.3713	23763.73	3.6770	3.6771	-1.1106	25.15	0.03	-0.750			
0.3748	23987.70	3.6740	3.6740	-1.1584	25.14	0.02	-0.750			
0.3783	24211.09	3.6710	3.6710	-1.1671	25.13	0.01	-0.750			
0.3818	24435.98	3.6680	3.6679	-1.1859	25.13	0.01	-0.750			
0.3854	24662.94	3.6650	3.6652	-1.2138	25.12	0.00	-0.750			
0.3891	24900.72	3.6620	3.6619	-1.2404	25.11	-0.01	-0.750			
0.3928	25142.25	3.6590	3.6589	-1.2616	25.11	-0.01	-0.750			
0.3966	25384.23	3.6560	3.6560	-1.2848	25.10	-0.02	-0.750			
0.4005	25632.63	3.6530	3.6530	-1.2989	25.10	-0.02	-0.750			
0.4045	25891.09	3.6500	3.6499	-1.3205	25.09	-0.03	-0.750			
0.4085	26140.93	3.6470	3.6470	-1.3457	25.08	-0.04	-0.750			
0.4125	26398.75	3.6440	3.6441	-1.3555	25.07	-0.05	-0.750			
0.4166	26664.35	3.6410	3.6409	-1.3881	25.06	-0.06	-0.750			
0.4208	26933.04	3.6380	3.6379	-1.4403	25.05	-0.07	-0.750			
0.4253	27216.48	3.6350	3.6349	-1.4610	25.05	-0.07	-0.750			
0.4298	27504.59	3.6320	3.6317	-1.4878	25.04	-0.08	-0.750			
0.4343	27798.23	3.6290	3.6294	-1.5068	25.03	-0.09	-0.750			
0.4388	28085.11	3.6260	3.6257	-1.5257	25.02	-0.10	-0.750			
0.4435	28382.19	3.6230	3.6230	-1.5576	25.01	-0.11	-0.750			
0.4480	28671.79	3.6200	3.6201	-1.5744	25.00	-0.12	-0.750			
0.4527	28974.98	3.6170	3.6173	-1.6184	25.00	-0.12	-0.750			
0.4578	29302.26	3.6140	3.6141	-1.6660	24.99	-0.13	-0.750			
0.4629	29625.98	3.6110	3.6106	-1.6861	24.99	-0.13	-0.750			
0.4680	29953.45	3.6080	3.6080	-1.7265	24.98	-0.14	-0.750			
0.4733	30290.06	3.6050	3.6056	-1.7482	24.98	-0.14	-0.750			
0.4784	30618.96	3.6020	3.6022	-1.7765	24.97	-0.15	-0.750			
0.4837	30958.07	3.5990	3.5991	-1.7851	24.96	-0.16	-0.750			
0.4891	31301.56	3.5960	3.5957	-1.8247	24.96	-0.16	-0.750			
0.4949	31671.75	3.5930	3.5929	-1.8978	24.96	-0.16	-0.750			
0.5007	32042.33	3.5900	3.5896	-1.9128	24.96	-0.16	-0.750			
0.5065	32416.19	3.5870	3.5867	-1.9508	24.95	-0.17	-0.750			
0.5123	32788.85	3.5840	3.5840	-1.9622	24.94	-0.18	-0.750			
0.5183	33174.06	3.5810	3.5808	-1.9892	24.94	-0.18	-0.750			
0.5241	33544.38	3.5780	3.5780	-2.0024	24.94	-0.18	-0.750			
0.5301	33926.95	3.5750	3.5748	-2.0403	24.93	-0.19	-0.750			
0.5365	34333.41	3.5720	3.5722	-2.0831	24.93	-0.19	-0.750			
0.5428	34740.84	3.5690	3.5690	-2.0749	24.92	-0.20	-0.750			
0.5491	35144.74	3.5660	3.5664	-2.0841	24.92	-0.20	-0.750			
0.5554	35545.06	3.5630	3.5628	-2.0736	24.93	-0.19	-0.750			
0.5614	35930.65	3.5600	3.5602	-2.0569	24.93	-0.19	-0.750			
0.5675	36321.39	3.5570	3.5572	-2.1141	24.94	-0.18	-0.750			
0.5741	36740.87	3.5540	3.5540	-2.0782	24.94	-0.18	-0.750			
0.5804	37145.63	3.5510	3.5510	-2.0728	24.94	-0.18	-0.750			
0.5865	37533.16	3.5480	3.5483	-2.0435	24.94	-0.18	-0.750			
0.5924	37911.65	3.5450	3.5450	-1.9963	24.95	-0.17	-0.750			
0.5985	38304.08	3.5420	3.5422	-2.0045	24.95	-0.17	-0.750			
0.6046	38693.37	3.5390	3.5393	-1.9993	24.95	-0.17	-0.750			
0.6104	39067.98	3.5360	3.5361	-1.9347	24.96	-0.16	-0.750			
0.6161	39431.88	3.5330	3.5326	-1.8907	24.97	-0.15	-0.750			
0.6218	39794.87	3.5300	3.5297	-1.8577	24.99	-0.13	-0.750			
0.6273	40145.38	3.5270	3.5269	-1.7859	25.00	-0.12	-0.750			
0.6325	40477.13	3.5240	3.5241	-1.7729	25.01	-0.11	-0.750			
0.6378	40817.58	3.5210	3.5208	-1.7624	25.02	-0.10	-0.750			
0.6430	41152.09	3.5180	3.5180	-1.7307	25.04	-0.08	-0.750			
0.6483	41489.59	3.5150	3.5149	-1.6926	25.05	-0.07	-0.750			
0.6534	41820.39	3.5120	3.5117	-1.6492	25.07	-0.05	-0.750			
0.6583	42133.57	3.5090	3.5087	-1.5986	25.08	-0.04	-0.750			
0.6630	42429.91	3.5060	3.5057	-1.5971	25.10	-0.02	-0.750			
0.6674	42715.78	3.5030	3.5030	-1.5491	25.12	-0.00	-0.750			
0.6722	43017.64	3.5000	3.4998	-1.5428	25.13	0.01	-0.750			
0.6770	43326.92	3.4970	3.4969	-1.5046	25.15	0.03	-0.750			
0.6817	43628.36	3.4940	3.4942	-1.4705	25.17	0.05	-0.750			
0.6861	43912.23	3.4910	3.4913	-1.4077	25.18	0.06	-0.750			
0.6902	44173.55	3.4880	3.4878	-1.3009	25.20	0.08	-0.750			
0.6938	44402.40	3.4850	3.4849	-1.2408	25.22	0.10	-0.750			
0.6975	44637.78	3.4820	3.4818	-1.2371	25.24	0.12	-0.750			
