Ah_balance (normalized)	Ah_balance (mAh)	Voltage - fit (V)	Voltage -  interpolate (V)	dQ/dV (1/V)	Temperature (°C)	Temperature - diff (°C)	Current (C)	R_DC 0ms (mOhm)	R_DC 50ms (mOhm)	R_DC 50 ms PEC (mOhm)
0.0004	24.13	4.1600	4.1599	-0.1214	25.12	0.02	-0.750			
0.0008	53.51	4.1570	4.1569	-0.1688	25.12	0.02	-0.750			
0.0014	89.60	4.1540	4.1540	-0.2099	25.12	0.02	-0.750			
0.0021	134.72	4.1510	4.1510	-0.2484	25.12	0.02	-0.750			
0.0029	186.08	4.1480	4.1480	-0.2873	25.12	0.02	-0.750			
0.0038	245.31	4.1450	4.1450	-0.3280	25.11	0.01	-0.750			
0.0049	312.02	4.1420	4.1420	-0.3662	25.11	0.01	-0.750			
0.0060	386.85	4.1390	4.1389	-0.4023	25.11	0.01	-0.750			
0.0073	468.91	4.1360	4.1360	-0.4342	25.11	0.01	-0.750			
0.0087	555.76	4.1330	4.1330	-0.4661	25.10	0.00	-0.750			
0.0101	649.01	4.1300	4.1302	-0.4945	25.10	-0.00	-0.750			
0.0117	748.13	4.1270	4.1269	-0.5171	25.10	-0.00	-0.750			
0.0133	849.93	4.1240	4.1238	-0.5361	25.09	-0.01	-0.750			
0.0149	954.40	4.1210	4.1212	-0.5593	25.09	-0.01	-0.750			
0.0166	1063.91	4.1180	4.1181	-0.5819	25.08	-0.02	-0.750			
0.0184	1179.36	4.1150	4.1148	-0.6042	25.08	-0.02	-0.750			
0.0203	1298.74	4.1120	4.1119	-0.6114	25.07	-0.03	-0.750			
0.0222	1417.72	4.1090	4.1091	-0.6265	25.07	-0.03	-0.750			
0.0240	1538.54	4.1060	4.1061	-0.6395	25.07	-0.03	-0.750			
0.0260	1663.37	4.1030	4.1030	-0.6510	25.07	-0.03	-0.750			
0.0279	1786.24	4.1000	4.0999	-0.6608	25.07	-0.03	-0.750			
0.0299	1915.89	4.0970	4.0969	-0.6705	25.06	-0.04	-0.750			
0.0320	2048.86	4.0940	4.0940	-0.6762	25.06	-0.04	-0.750			
0.0341	2180.41	4.0910	4.0908	-0.6814	25.06	-0.04	-0.750			
0.0361	2311.15	4.0880	4.0881	-0.6832	25.06	-0.04	-0.750			
0.0382	2442.18	4.0850	4.0849	-0.6858	25.06	-0.04	-0.750			
0.0402	2571.15	4.0820	4.0819	-0.6953	25.06	-0.04	-0.750			
0.0422	2703.40	4.0790	4.0790	-0.7007	25.06	-0.04	-0.750			
0.0445	2844.93	4.0760	4.0759	-0.7089	25.06	-0.04	-0.750			
0.0466	2980.66	4.0730	4.0730	-0.7128	25.06	-0.04	-0.750			
0.0487	3117.97	4.0700	4.0700	-0.7123	25.06	-0.04	-0.750			
0.0508	3253.93	4.0670	4.0667	-0.7150	25.06	-0.04	-0.750			
0.0530	3389.34	4.0640	4.0641	-0.7225	25.06	-0.04	-0.750			
0.0551	3529.00	4.0610	4.0609	-0.7279	25.06	-0.04	-0.750			
0.0574	3674.10	4.0580	4.0579	-0.7385	25.06	-0.04	-0.750			
0.0597	3818.35	4.0550	4.0554	-0.7390	25.06	-0.04	-0.750			
0.0619	3958.45	4.0520	4.0520	-0.7368	25.06	-0.04	-0.750			
0.0641	4100.80	4.0490	4.0490	-0.7378	25.06	-0.04	-0.750			
0.0663	4240.95	4.0460	4.0459	-0.7387	25.06	-0.04	-0.750			
0.0685	4384.96	4.0430	4.0428	-0.7464	25.06	-0.04	-0.750			
0.0708	4528.13	4.0400	4.0400	-0.7420	25.06	-0.04	-0.750			
0.0730	4671.89	4.0370	4.0371	-0.7467	25.06	-0.04	-0.750			
0.0752	4814.29	4.0340	4.0339	-0.7447	25.06	-0.04	-0.750			
0.0774	4956.33	4.0310	4.0309	-0.7545	25.06	-0.04	-0.750			
0.0797	5100.37	4.0280	4.0279	-0.7480	25.06	-0.04	-0.750			
0.0820	5248.35	4.0250	4.0248	-0.7617	25.06	-0.04	-0.750			
0.0843	5394.57	4.0220	4.0221	-0.7638	25.06	-0.04	-0.750			
0.0866	5541.86	4.0190	4.0189	-0.7634	25.06	-0.04	-0.750			
0.0889	5686.77	4.0160	4.0158	-0.7600	25.06	-0.04	-0.750			
0.0911	5833.20	4.0130	4.0130	-0.7567	25.06	-0.04	-0.750			
0.0934	5978.22	4.0100	4.0101	-0.7674	25.06	-0.04	-0.750			
0.0957	6125.15	4.0070	4.0070	-0.7682	25.06	-0.04	-0.750			
0.0980	6272.67	4.0040	4.0039	-0.7660	25.06	-0.04	-0.750			
0.1003	6420.61	4.0010	4.0011	-0.7657	25.06	-0.04	-0.750			
0.1026	6566.71	3.9980	3.9981	-0.7763	25.07	-0.03	-0.750			
0.1050	6718.29	3.9950	3.9949	-0.7773	25.07	-0.03	-0.750			
0.1073	6870.21	3.9920	3.9918	-0.7803	25.08	-0.02	-0.750			
0.1097	7017.63	3.9890	3.9894	-0.7750	25.08	-0.02	-0.750			
0.1120	7167.71	3.9860	3.9860	-0.7756	25.08	-0.02	-0.750			
0.1143	7316.74	3.9830	3.9829	-0.7844	25.08	-0.02	-0.750			
0.1167	7466.46	3.9800	3.9799	-0.7821	25.09	-0.01	-0.750			
0.1190	7617.88	3.9770	3.9769	-0.7872	25.09	-0.01	-0.750			
0.1214	7769.28	3.9740	3.9737	-0.7865	25.09	-0.01	-0.750			
0.1238	7921.25	3.9710	3.9709	-0.7882	25.09	-0.01	-0.750			
0.1261	8071.63	3.9680	3.9679	-0.7859	25.09	-0.01	-0.750			
0.1284	8220.12	3.9650	3.9650	-0.7833	25.09	-0.01	-0.750			
0.1308	8373.01	3.9620	3.9620	-0.7971	25.10	-0.00	-0.750			
0.1332	8524.14	3.9590	3.9589	-0.7935	25.10	-0.00	-0.750			
0.1356	8676.74	3.9560	3.9560	-0.7912	25.10	0.00	-0.750			
0.1379	8828.10	3.9530	3.9530	-0.7951	25.10	0.00	-0.750			
0.1403	8981.84	3.9500	3.9500	-0.8042	25.10	0.00	-0.750			
0.1428	9138.83	3.9470	3.9468	-0.8042	25.11	0.01	-0.750			
0.1452	9293.95	3.9440	3.9439	-0.8023	25.11	0.01	-0.750			
0.1476	9447.11	3.9410	3.9414	-0.8016	25.11	0.01	-0.750			
0.1500	9601.91	3.9380	3.9380	-0.8011	25.11	0.01	-0.750			
0.1524	9755.90	3.9350	3.9349	-0.8190	25.11	0.01	-0.750			
0.1549	9913.20	3.9320	3.9318	-0.8079	25.12	0.02	-0.750			
0.1574	10073.39	3.9290	3.9288	-0.8132	25.12	0.02	-0.750			
0.1598	10227.61	3.9260	3.9270	-0.8126	25.12	0.02	-0.750			
0.1623	10384.83	3.9230	3.9230	-0.8109	25.12	0.02	-0.750			
0.1647	10538.51	3.9200	3.9197	-0.8071	25.13	0.03	-0.750			
0.1670	10687.80	3.9170	3.9171	-0.8014	25.13	0.03	-0.750			
0.1695	10844.85	3.9140	3.9141	-0.8165	25.14	0.04	-0.750			
0.1719	11003.24	3.9110	3.9110	-0.8146	25.14	0.04	-0.750			
0.1744	11160.24	3.9080	3.9079	-0.8157	25.14	0.04	-0.750			
0.1768	11315.78	3.9050	3.9051	-0.8217	25.14	0.04	-0.750			
0.1793	11476.46	3.9020	3.9020	-0.8222	25.15	0.05	-0.750			
0.1818	11636.37	3.8990	3.8989	-0.8145	25.15	0.05	-0.750			
0.1843	11792.79	3.8960	3.8961	-0.8081	25.15	0.05	-0.750			
0.1866	11945.24	3.8930	3.8929	-0.8109	25.15	0.05	-0.750			
0.1891	12100.71	3.8900	3.8900	-0.8229	25.16	0.06	-0.750			
0.1915	12258.80	3.8870	3.8867	-0.8168	25.16	0.06	-0.750			
0.1940	12416.09	3.8840	3.8840	-0.8086	25.16	0.06	-0.750			
0.1965	12578.61	3.8810	3.8813	-0.8127	25.17	0.07	-0.750			
0.1990	12733.27	3.8780	3.8778	-0.8068	25.17	0.07	-0.750			
0.2013	12885.65	3.8750	3.8749	-0.7956	25.17	0.07	-0.750			
0.2037	13034.36	3.8720	3.8719	-0.7848	25.17	0.07	-0.750			
0.2059	13179.69	3.8690	3.8692	-0.7835	25.17	0.07	-0.750			
0.2084	13336.97	3.8660	3.8661	-0.8008	25.17	0.07	-0.750			
0.2108	13489.81	3.8630	3.8629	-0.8009	25.17	0.07	-0.750			
0.2132	13645.18	3.8600	3.8599	-0.7987	25.17	0.07	-0.750			
0.2157	13801.97	3.8570	3.8571	-0.7989	25.17	0.07	-0.750			
0.2181	13959.22	3.8540	3.8540	-0.7958	25.18	0.08	-0.750			
0.2205	14110.25	3.8510	3.8508	-0.7919	25.18	0.08	-0.750			
0.2228	14258.12	3.8480	3.8484	-0.7777	25.18	0.08	-0.750			
0.2250	14401.92	3.8450	3.8448	-0.7875	25.18	0.08	-0.750			
0.2274	14555.29	3.8420	3.8419	-0.7814	25.18	0.08	-0.750			
0.2298	14704.99	3.8390	3.8390	-0.7720	25.18	0.08	-0.750			
0.2322	14858.64	3.8360	3.8359	-0.7805	25.18	0.08	-0.750			
0.2345	15009.23	3.8330	3.8332	-0.7755	25.18	0.08	-0.750			
0.2368	15156.06	3.8300	3.8299	-0.7615	25.18	0.08	-0.750			
0.2390	15298.99	3.8270	3.8269	-0.7559	25.18	0.08	-0.750			
0.2413	15441.53	3.8240	3.8240	-0.7543	25.19	0.09	-0.750			
0.2436	15588.22	3.8210	3.8210	-0.7615	25.19	0.09	-0.750			
0.2458	15732.88	3.8180	3.8180	-0.7621	25.19	0.09	-0.750			
0.2481	15881.03	3.8150	3.8150	-0.7594	25.19	0.09	-0.750			
0.2504	16026.65	3.8120	3.8121	-0.7605	25.19	0.09	-0.750			
0.2527	16173.38	3.8090	3.8090	-0.7644	25.19	0.09	-0.750			
0.2550	16319.21	3.8060	3.8058	-0.7603	25.20	0.10	-0.750			
0.2573	16465.02	3.8030	3.8030	-0.7612	25.20	0.10	-0.750			
0.2596	16611.60	3.8000	3.7999	-0.7588	25.20	0.10	-0.750			
0.2618	16757.94	3.7970	3.7968	-0.7574	25.20	0.10	-0.750			
0.2641	16902.43	3.7940	3.7941	-0.7717	25.20	0.10	-0.750			
0.2664	17049.51	3.7910	3.7910	-0.7635	25.20	0.10	-0.750			
0.2687	17198.76	3.7880	3.7879	-0.7704	25.20	0.10	-0.750			
0.2710	17346.10	3.7850	3.7848	-0.7708	25.20	0.10	-0.750			
0.2733	17492.90	3.7820	3.7817	-0.7751	25.20	0.10	-0.750			
0.2756	17641.54	3.7790	3.7790	-0.7824	25.20	0.10	-0.750			
0.2780	17789.87	3.7760	3.7760	-0.7836	25.20	0.10	-0.750			
0.2804	17943.08	3.7730	3.7730	-0.7939	25.20	0.10	-0.750			
0.2828	18096.51	3.7700	3.7698	-0.7945	25.20	0.10	-0.750			
0.2851	18247.65	3.7670	3.7675	-0.7927	25.20	0.10	-0.750			
0.2875	18399.17	3.7640	3.7638	-0.7956	25.20	0.10	-0.750			
0.2898	18550.06	3.7610	3.7611	-0.8137	25.20	0.10	-0.750			
0.2923	18709.65	3.7580	3.7577	-0.8180	25.20	0.10	-0.750			
0.2948	18868.56	3.7550	3.7549	-0.8268	25.20	0.10	-0.750			
0.2973	19028.11	3.7520	3.7527	-0.8347	25.20	0.10	-0.750			
0.2999	19190.67	3.7490	3.7487	-0.8341	25.20	0.10	-0.750			
0.3024	19353.91	3.7460	3.7459	-0.8482	25.19	0.09	-0.750			
0.3049	19513.81	3.7430	3.7428	-0.8466	25.19	0.09	-0.750			
0.3075	19678.99	3.7400	3.7399	-0.8611	25.18	0.08	-0.750			
0.3101	19844.93	3.7370	3.7376	-0.8658	25.18	0.08	-0.750			
0.3127	20009.65	3.7340	3.7338	-0.8697	25.18	0.08	-0.750			
0.3152	20175.94	3.7310	3.7309	-0.8763	25.18	0.08	-0.750			
0.3178	20339.37	3.7280	3.7281	-0.8732	25.18	0.08	-0.750			
0.3206	20517.51	3.7250	3.7250	-0.9020	25.18	0.08	-0.750			
0.3233	20688.85	3.7220	3.7221	-0.9140	25.18	0.08	-0.750			
0.3260	20865.24	3.7190	3.7189	-0.9423	25.17	0.07	-0.750			
0.3289	21050.42	3.7160	3.7158	-0.9530	25.16	0.06	-0.750			
0.3318	21237.68	3.7130	3.7129	-0.9622	25.16	0.06	-0.750			
0.3347	21421.94	3.7100	3.7105	-0.9758	25.15	0.05	-0.750			
0.3377	21611.92	3.7070	3.7069	-0.9978	25.15	0.05	-0.750			
0.3407	21806.43	3.7040	3.7038	-1.0012	25.15	0.05	-0.750			
0.3437	21997.89	3.7010	3.7007	-1.0000	25.14	0.04	-0.750			
0.3467	22190.91	3.6980	3.6986	-1.0171	25.14	0.04	-0.750	0.379	0.534	
0.3498	22387.73	3.6950	3.6949	-1.0301	25.14	0.04	-0.750			
0.3529	22585.61	3.6920	3.6918	-1.0367	25.13	0.03	-0.750			
0.3560	22781.25	3.6890	3.6889	-1.0442	25.13	0.03	-0.750			
0.3591	22983.60	3.6860	3.6860	-1.0711	25.12	0.02	-0.750			
0.3624	23191.02	3.6830	3.6829	-1.1029	25.11	0.01	-0.750			
0.3657	23406.47	3.6800	3.6799	-1.1167	25.11	0.01	-0.750			
0.3691	23622.72	3.6770	3.6769	-1.1237	25.10	-0.00	-0.750			
0.3725	23838.70	3.6740	3.6746	-1.1587	25.09	-0.01	-0.750			
0.3761	24068.99	3.6710	3.6707	-1.1765	25.08	-0.02	-0.750			
0.3796	24296.21	3.6680	3.6678	-1.1888	25.07	-0.03	-0.750			
0.3832	24524.40	3.6650	3.6648	-1.1919	25.06	-0.04	-0.750			
0.3869	24759.97	3.6620	3.6618	-1.2185	25.06	-0.04	-0.750			
0.3905	24993.36	3.6590	3.6589	-1.2317	25.05	-0.05	-0.750			
0.3941	25224.93	3.6560	3.6560	-1.2457	25.05	-0.05	-0.750			
0.3978	25459.96	3.6530	3.6533	-1.2711	25.04	-0.06	-0.750			
0.4019	25719.14	3.6500	3.6498	-1.3072	25.03	-0.07	-0.750			
0.4058	25970.92	3.6470	3.6470	-1.3225	25.03	-0.07	-0.750			
0.4099	26233.29	3.6440	3.6445	-1.3648	25.02	-0.08	-0.750			
0.4141	26501.70	3.6410	3.6407	-1.3926	25.01	-0.09	-0.750			
0.4183	26770.15	3.6380	3.6377	-1.3913	25.01	-0.09	-0.750			
0.4224	27032.25	3.6350	3.6360	-1.4386	25.00	-0.10	-0.750			
0.4269	27320.98	3.6320	3.6318	-1.4663	24.99	-0.11	-0.750			
0.4313	27600.76	3.6290	3.6287	-1.5014	24.99	-0.11	-0.750			
0.4357	27883.29	3.6260	3.6262	-1.4959	24.98	-0.12	-0.750			
0.4404	28183.26	3.6230	3.6232	-1.5666	24.97	-0.13	-0.750			
0.4451	28489.22	3.6200	3.6202	-1.5751	24.96	-0.14	-0.750			
0.4498	28789.94	3.6170	3.6167	-1.5825	24.96	-0.14	-0.750			
0.4547	29100.35	3.6140	3.6137	-1.6377	24.95	-0.15	-0.750			
0.4596	29417.57	3.6110	3.6105	-1.6562	24.94	-0.16	-0.750			
0.4646	29732.99	3.6080	3.6083	-1.6868	24.94	-0.16	-0.750			
0.4697	30060.22	3.6050	3.6052	-1.7090	24.93	-0.17	-0.750			
0.4748	30389.79	3.6020	3.6016	-1.7393	24.93	-0.17	-0.750			
0.4803	30739.11	3.5990	3.5986	-1.7879	24.92	-0.18	-0.750			
0.4858	31088.81	3.5960	3.5959	-1.8239	24.91	-0.19	-0.750			
0.4913	31443.01	3.5930	3.5923	-1.8639	24.90	-0.20	-0.750			
0.4967	31790.94	3.5900	3.5897	-1.8623	24.90	-0.20	-0.750			
0.5023	32146.84	3.5870	3.5874	-1.8927	24.90	-0.20	-0.750			
0.5082	32522.10	3.5840	3.5840	-1.9219	24.90	-0.20	-0.750			
0.5139	32891.80	3.5810	3.5810	-1.9862	24.89	-0.21	-0.750			
0.5201	33286.75	3.5780	3.5780	-2.0290	24.88	-0.22	-0.750			
0.5262	33675.38	3.5750	3.5746	-2.0254	24.88	-0.22	-0.750			
0.5322	34063.38	3.5720	3.5715	-2.0212	24.88	-0.22	-0.750			
0.5383	34450.88	3.5690	3.5692	-2.0193	24.87	-0.23	-0.750			
0.5446	34854.95	3.5660	3.5662	-2.0340	24.86	-0.24	-0.750			
0.5506	35237.12	3.5630	3.5627	-2.1000	24.87	-0.23	-0.750			
0.5569	35640.10	3.5600	3.5598	-2.0452	24.88	-0.22	-0.750			
0.5630	36031.57	3.5570	3.5565	-2.0410	24.88	-0.22	-0.750			
0.5693	36433.70	3.5540	3.5544	-2.0088	24.88	-0.22	-0.750			
0.5753	36818.49	3.5510	3.5509	-1.9898	24.88	-0.22	-0.750			
0.5811	37192.04	3.5480	3.5480	-1.9942	24.88	-0.22	-0.750			
0.5870	37566.96	3.5450	3.5447	-1.9522	24.88	-0.22	-0.750			
0.5931	37957.87	3.5420	3.5415	-1.9834	24.89	-0.21	-0.750			
0.5992	38347.06	3.5390	3.5386	-1.9549	24.90	-0.20	-0.750			
0.6051	38729.07	3.5360	3.5354	-1.9378	24.91	-0.19	-0.750			
0.6107	39083.06	3.5330	3.5331	-1.8716	24.92	-0.18	-0.750			
0.6163	39443.50	3.5300	3.5296	-1.8350	24.93	-0.17	-0.750			
0.6215	39777.29	3.5270	3.5268	-1.7805	24.93	-0.17	-0.750			
0.6267	40110.84	3.5240	3.5243	-1.7768	24.94	-0.16	-0.750			
0.6321	40456.08	3.5210	3.5205	-1.7888	24.95	-0.15	-0.750			
0.6376	40806.97	3.5180	3.5176	-1.7699	24.97	-0.13	-0.750			
0.6432	41167.02	3.5150	3.5155	-1.7511	24.99	-0.11	-0.750			
0.6485	41504.79	3.5120	3.5121	-1.7091	25.00	-0.10	-0.750			
0.6534	41819.29	3.5090	3.5091	-1.6063	25.02	-0.08	-0.750			
0.6580	42113.06	3.5060	3.5057	-1.5326	25.03	-0.07	-0.750			
0.6625	42398.41	3.5030	3.5029	-1.4744	25.05	-0.05	-0.750			
0.6670	42685.55	3.5000	3.5000	-1.4447	25.06	-0.04	-0.750			
0.6712	42959.31	3.4970	3.4971	-1.4229	25.08	-0.02	-0.750			
0.6754	43223.26	3.4940	3.4939	-1.3675	25.09	-0.01	-0.750			
0.6795	43485.50	3.4910	3.4910	-1.3266	25.11	0.01	-0.750			
0.6835	43741.43	3.4880	3.4881	-1.2839	25.12	0.02	-0.750			
0.6872	43980.82	3.4850	3.4849	-1.2417	25.14	0.04	-0.750			
0.6908	44208.71	3.4820	3.4820	-1.0950	25.15	0.05	-0.750			
