Ah_balance (normalized)	Ah_balance (mAh)	Voltage - fit (V)	Voltage -  interpolate (V)	dQ/dV (1/V)	Temperature (°C)	Temperature - diff (°C)	Current (C)	R_DC 0ms (mOhm)	R_DC 50ms (mOhm)	R_DC 50 ms PEC (mOhm)
0.0005	29.38	4.1620	4.1616	-0.1474	24.96	0.00	-0.750			
0.0009	60.16	4.1590	4.1589	-0.1847	24.96	0.00	-0.750			
0.0015	98.51	4.1560	4.1562	-0.2290	24.96	-0.00	-0.750			
0.0023	146.94	4.1530	4.1530	-0.2754	24.96	-0.00	-0.750			
0.0032	204.55	4.1500	4.1499	-0.3167	24.95	-0.01	-0.750			
0.0042	270.18	4.1470	4.1469	-0.3571	24.95	-0.01	-0.750			
0.0054	343.34	4.1440	4.1442	-0.3948	24.95	-0.01	-0.750			
0.0066	424.99	4.1410	4.1409	-0.4320	24.94	-0.02	-0.750			
0.0079	508.19	4.1380	4.1381	-0.4750	24.94	-0.02	-0.750			
0.0095	605.45	4.1350	4.1349	-0.5026	24.93	-0.03	-0.750			
0.0111	708.35	4.1320	4.1318	-0.5228	24.93	-0.03	-0.750			
0.0127	811.08	4.1290	4.1288	-0.5488	24.92	-0.04	-0.750			
0.0144	919.07	4.1260	4.1262	-0.5734	24.92	-0.04	-0.750			
0.0161	1030.49	4.1230	4.1227	-0.5967	24.92	-0.04	-0.750			
0.0179	1145.03	4.1200	4.1199	-0.6178	24.91	-0.05	-0.750			
0.0198	1264.70	4.1170	4.1171	-0.6186	24.91	-0.05	-0.750			
0.0218	1393.68	4.1140	4.1141	-0.6272	24.91	-0.05	-0.750			
0.0237	1517.17	4.1110	4.1111	-0.6362	24.90	-0.06	-0.750			
0.0256	1635.36	4.1080	4.1080	-0.6310	24.90	-0.06	-0.750			
0.0274	1751.58	4.1050	4.1045	-0.6439	24.90	-0.06	-0.750			
0.0293	1875.74	4.1020	4.1015	-0.6583	24.90	-0.06	-0.750			
0.0313	2004.07	4.0990	4.0982	-0.6746	24.89	-0.07	-0.750			
0.0335	2141.88	4.0960	4.0950	-0.6815	24.89	-0.07	-0.750			
0.0355	2274.01	4.0930	4.0936	-0.6916	24.89	-0.07	-0.750			
0.0375	2403.10	4.0900	4.0892	-0.7019	24.88	-0.08	-0.750			
0.0397	2537.80	4.0870	4.0877	-0.7002	24.88	-0.08	-0.750			
0.0418	2672.26	4.0840	4.0835	-0.7137	24.88	-0.08	-0.750			
0.0439	2810.54	4.0810	4.0804	-0.7303	24.88	-0.08	-0.750			
0.0462	2954.77	4.0780	4.0778	-0.7436	24.87	-0.09	-0.750			
0.0484	3100.56	4.0750	4.0746	-0.7620	24.87	-0.09	-0.750			
0.0507	3247.93	4.0720	4.0719	-0.7516	24.87	-0.09	-0.750			
0.0530	3393.23	4.0690	4.0688	-0.7468	24.87	-0.09	-0.750			
0.0552	3535.51	4.0660	4.0659	-0.7682	24.87	-0.09	-0.750			
0.0576	3687.19	4.0630	4.0629	-0.7508	24.86	-0.10	-0.750			
0.0598	3829.26	4.0600	4.0596	-0.7423	24.86	-0.10	-0.750			
0.0621	3971.26	4.0570	4.0565	-0.7501	24.86	-0.10	-0.750			
0.0642	4111.87	4.0540	4.0543	-0.7494	24.86	-0.10	-0.750			
0.0665	4255.62	4.0510	4.0508	-0.7777	24.86	-0.10	-0.750			
0.0688	4403.27	4.0480	4.0477	-0.7885	24.86	-0.10	-0.750			
0.0712	4557.67	4.0450	4.0448	-0.7939	24.87	-0.09	-0.750			
0.0738	4722.33	4.0420	4.0420	-0.8145	24.87	-0.09	-0.750			
0.0763	4882.92	4.0390	4.0393	-0.8075	24.87	-0.09	-0.750			
0.0787	5036.31	4.0360	4.0360	-0.7933	24.87	-0.09	-0.750			
0.0810	5183.51	4.0330	4.0330	-0.7891	24.87	-0.09	-0.750			
0.0833	5331.24	4.0300	4.0299	-0.7786	24.86	-0.10	-0.750			
0.0856	5480.17	4.0270	4.0269	-0.7805	24.86	-0.10	-0.750			
0.0880	5631.34	4.0240	4.0239	-0.7805	24.86	-0.10	-0.750			
0.0904	5783.94	4.0210	4.0209	-0.7810	24.86	-0.10	-0.750			
0.0927	5933.30	4.0180	4.0180	-0.7749	24.87	-0.09	-0.750			
0.0950	6078.13	4.0150	4.0151	-0.7788	24.87	-0.09	-0.750			
0.0973	6225.11	4.0120	4.0119	-0.7902	24.87	-0.09	-0.750			
0.0997	6380.07	4.0090	4.0089	-0.8045	24.88	-0.08	-0.750			
0.1021	6536.77	4.0060	4.0061	-0.8099	24.88	-0.08	-0.750			
0.1046	6695.57	4.0030	4.0029	-0.8236	24.88	-0.08	-0.750			
0.1071	6856.37	4.0000	4.0001	-0.8211	24.88	-0.08	-0.750			
0.1096	7013.66	3.9970	3.9970	-0.8043	24.88	-0.08	-0.750			
0.1120	7169.14	3.9940	3.9939	-0.8031	24.88	-0.08	-0.750			
0.1144	7319.24	3.9910	3.9912	-0.7894	24.88	-0.08	-0.750			
0.1167	7470.08	3.9880	3.9878	-0.7901	24.88	-0.08	-0.750			
0.1191	7620.92	3.9850	3.9850	-0.8034	24.88	-0.08	-0.750			
0.1215	7776.44	3.9820	3.9817	-0.7971	24.89	-0.07	-0.750			
0.1239	7932.79	3.9790	3.9789	-0.8047	24.89	-0.07	-0.750			
0.1264	8087.83	3.9760	3.9767	-0.8039	24.89	-0.07	-0.750			
0.1288	8241.50	3.9730	3.9728	-0.8012	24.89	-0.07	-0.750			
0.1312	8395.17	3.9700	3.9699	-0.8082	24.89	-0.07	-0.750			
0.1335	8546.70	3.9670	3.9670	-0.8006	24.90	-0.06	-0.750			
0.1360	8703.25	3.9640	3.9640	-0.8135	24.90	-0.06	-0.750			
0.1385	8860.82	3.9610	3.9608	-0.8147	24.90	-0.06	-0.750			
0.1409	9016.21	3.9580	3.9579	-0.8148	24.90	-0.06	-0.750			
0.1433	9171.43	3.9550	3.9550	-0.8254	24.90	-0.06	-0.750			
0.1458	9329.65	3.9520	3.9520	-0.8255	24.90	-0.06	-0.750			
0.1483	9489.96	3.9490	3.9488	-0.8331	24.90	-0.06	-0.750			
0.1508	9651.61	3.9460	3.9461	-0.8348	24.90	-0.06	-0.750			
0.1533	9811.14	3.9430	3.9431	-0.8340	24.90	-0.06	-0.750			
0.1558	9971.78	3.9400	3.9400	-0.8427	24.91	-0.05	-0.750			
0.1584	10134.55	3.9370	3.9370	-0.8372	24.91	-0.05	-0.750			
0.1609	10295.05	3.9340	3.9337	-0.8348	24.92	-0.04	-0.750			
0.1634	10458.69	3.9310	3.9312	-0.8380	24.92	-0.04	-0.750			
0.1659	10617.70	3.9280	3.9279	-0.8345	24.92	-0.04	-0.750			
0.1684	10776.59	3.9250	3.9249	-0.8450	24.92	-0.04	-0.750			
0.1709	10939.95	3.9220	3.9219	-0.8436	24.92	-0.04	-0.750			
0.1735	11102.93	3.9190	3.9188	-0.8516	24.92	-0.04	-0.750			
0.1761	11267.60	3.9160	3.9163	-0.8453	24.92	-0.04	-0.750			
0.1786	11429.63	3.9130	3.9131	-0.8423	24.92	-0.04	-0.750			
0.1811	11590.49	3.9100	3.9099	-0.8442	24.93	-0.03	-0.750			
0.1836	11750.49	3.9070	3.9069	-0.8426	24.93	-0.03	-0.750			
0.1861	11910.15	3.9040	3.9039	-0.8474	24.94	-0.02	-0.750			
0.1887	12073.69	3.9010	3.9012	-0.8554	24.94	-0.02	-0.750			
0.1912	12238.76	3.8980	3.8980	-0.8651	24.94	-0.02	-0.750			
0.1939	12407.39	3.8950	3.8951	-0.8702	24.94	-0.02	-0.750			
0.1965	12574.76	3.8920	3.8919	-0.8608	24.95	-0.01	-0.750			
0.1991	12739.95	3.8890	3.8889	-0.8542	24.95	-0.01	-0.750			
0.2016	12903.34	3.8860	3.8865	-0.8606	24.95	-0.01	-0.750			
0.2042	13067.92	3.8830	3.8829	-0.8590	24.95	-0.01	-0.750			
0.2068	13235.79	3.8800	3.8798	-0.8672	24.95	-0.01	-0.750			
0.2094	13404.11	3.8770	3.8769	-0.8635	24.96	-0.00	-0.750			
0.2121	13571.35	3.8740	3.8739	-0.8646	24.96	-0.00	-0.750			
0.2147	13738.14	3.8710	3.8711	-0.8599	24.96	0.00	-0.750			
0.2172	13901.71	3.8680	3.8678	-0.8583	24.97	0.01	-0.750			
0.2197	14062.47	3.8650	3.8649	-0.8542	24.97	0.01	-0.750			
0.2222	14222.67	3.8620	3.8620	-0.8450	24.97	0.01	-0.750			
0.2249	14391.10	3.8590	3.8590	-0.8610	24.98	0.02	-0.750			
0.2275	14557.56	3.8560	3.8560	-0.8635	24.98	0.02	-0.750			
0.2300	14721.47	3.8530	3.8530	-0.8727	24.99	0.03	-0.750			
0.2326	14889.34	3.8500	3.8499	-0.8759	24.99	0.03	-0.750			
0.2353	15059.47	3.8470	3.8469	-0.8714	24.99	0.03	-0.750			
0.2379	15228.31	3.8440	3.8439	-0.8687	25.00	0.04	-0.750			
0.2406	15396.93	3.8410	3.8410	-0.8663	25.00	0.04	-0.750			
0.2431	15560.77	3.8380	3.8378	-0.8655	25.01	0.05	-0.750			
0.2457	15725.12	3.8350	3.8350	-0.8556	25.01	0.05	-0.750			
0.2482	15887.84	3.8320	3.8318	-0.8506	25.02	0.06	-0.750			
0.2508	16054.35	3.8290	3.8293	-0.8550	25.02	0.06	-0.750			
0.2534	16219.84	3.8260	3.8258	-0.8496	25.02	0.06	-0.750			
0.2560	16380.92	3.8230	3.8231	-0.8511	25.03	0.07	-0.750			
0.2585	16544.92	3.8200	3.8199	-0.8390	25.03	0.07	-0.750			
0.2610	16705.52	3.8170	3.8170	-0.8431	25.04	0.08	-0.750			
0.2635	16865.43	3.8140	3.8142	-0.8416	25.04	0.08	-0.750			
0.2660	17022.06	3.8110	3.8110	-0.8565	25.04	0.08	-0.750			
0.2685	17186.72	3.8080	3.8080	-0.8536	25.05	0.09	-0.750			
0.2712	17355.78	3.8050	3.8049	-0.8413	25.05	0.09	-0.750			
0.2737	17517.51	3.8020	3.8020	-0.8303	25.06	0.10	-0.750			
0.2763	17680.34	3.7990	3.7997	-0.8366	25.06	0.10	-0.750			
0.2787	17836.69	3.7960	3.7958	-0.8240	25.06	0.10	-0.750			
0.2811	17989.85	3.7930	3.7928	-0.8153	25.06	0.10	-0.750			
0.2835	18146.00	3.7900	3.7900	-0.8127	25.07	0.11	-0.750			
0.2860	18304.06	3.7870	3.7871	-0.8195	25.07	0.11	-0.750			
0.2885	18463.74	3.7840	3.7838	-0.8143	25.07	0.11	-0.750			
0.2909	18618.83	3.7810	3.7810	-0.8057	25.07	0.11	-0.750			
0.2933	18770.86	3.7780	3.7780	-0.7990	25.08	0.12	-0.750			
0.2957	18922.09	3.7750	3.7749	-0.7923	25.09	0.13	-0.750			
0.2980	19074.26	3.7720	3.7721	-0.7973	25.09	0.13	-0.750			
0.3004	19227.95	3.7690	3.7690	-0.7943	25.10	0.14	-0.750			
0.3028	19380.67	3.7660	3.7659	-0.7944	25.10	0.14	-0.750			
0.3052	19533.59	3.7630	3.7630	-0.8060	25.10	0.14	-0.750			
0.3076	19687.26	3.7600	3.7600	-0.8026	25.10	0.14	-0.750			
0.3100	19842.83	3.7570	3.7568	-0.8012	25.10	0.14	-0.750			
0.3125	19997.47	3.7540	3.7539	-0.8055	25.10	0.14	-0.750			
0.3149	20151.94	3.7510	3.7508	-0.8009	25.10	0.14	-0.750			
0.3173	20305.43	3.7480	3.7479	-0.8129	25.11	0.15	-0.750			
0.3197	20459.36	3.7450	3.7450	-0.8155	25.11	0.15	-0.750			
0.3220	20610.67	3.7420	3.7421	-0.8216	25.11	0.15	-0.750			
0.3246	20776.77	3.7390	3.7390	-0.8435	25.12	0.16	-0.750			
0.3272	20940.44	3.7360	3.7361	-0.8540	25.12	0.16	-0.750			
0.3298	21104.17	3.7330	3.7330	-0.8692	25.12	0.16	-0.750			
0.3324	21275.01	3.7300	3.7300	-0.8769	25.12	0.16	-0.750			
0.3350	21442.55	3.7270	3.7269	-0.8844	25.12	0.16	-0.750			
0.3377	21614.70	3.7240	3.7240	-0.8901	25.12	0.16	-0.750			
0.3404	21785.02	3.7210	3.7211	-0.8935	25.12	0.16	-0.750			
0.3431	21961.13	3.7180	3.7179	-0.9180	25.12	0.16	-0.750			
0.3459	22138.82	3.7150	3.7148	-0.9241	25.11	0.15	-0.750			
0.3487	22314.58	3.7120	3.7118	-0.9399	25.11	0.15	-0.750			
0.3515	22495.95	3.7090	3.7097	-0.9768	25.11	0.15	-0.750			
0.3545	22685.22	3.7060	3.7058	-1.0065	25.11	0.15	-0.750			
0.3576	22885.72	3.7030	3.7028	-1.0229	25.10	0.14	-0.750			
0.3607	23081.97	3.7000	3.7000	-1.0291	25.10	0.14	-0.750			
0.3639	23290.22	3.6970	3.6976	-1.0633	25.10	0.14	-0.750	0.415	0.527	
0.3671	23495.17	3.6940	3.6938	-1.0667	25.10	0.14	-0.750			
0.3702	23695.12	3.6910	3.6909	-1.0718	25.09	0.13	-0.750			
0.3733	23893.80	3.6880	3.6880	-1.0785	25.09	0.13	-0.750			
0.3767	24109.51	3.6850	3.6850	-1.1265	25.09	0.13	-0.750			
0.3801	24329.38	3.6820	3.6819	-1.1436	25.08	0.12	-0.750			
0.3836	24552.87	3.6790	3.6788	-1.1597	25.08	0.12	-0.750			
0.3871	24777.43	3.6760	3.6758	-1.1737	25.07	0.11	-0.750			
0.3908	25009.10	3.6730	3.6728	-1.2005	25.07	0.11	-0.750			
0.3944	25239.04	3.6700	3.6699	-1.2134	25.07	0.11	-0.750			
0.3980	25471.04	3.6670	3.6669	-1.2247	25.06	0.10	-0.750			
0.4017	25709.67	3.6640	3.6644	-1.2674	25.06	0.10	-0.750			
0.4055	25952.33	3.6610	3.6608	-1.2878	25.05	0.09	-0.750			
0.4094	26198.58	3.6580	3.6580	-1.3491	25.05	0.09	-0.750			
0.4135	26465.41	3.6550	3.6550	-1.3967	25.04	0.08	-0.750			
0.4180	26752.51	3.6520	3.6516	-1.4787	25.03	0.07	-0.750			
0.4225	27042.59	3.6490	3.6493	-1.5144	25.02	0.06	-0.750			
0.4273	27348.04	3.6460	3.6460	-1.5194	25.01	0.05	-0.750			
0.4319	27639.23	3.6430	3.6430	-1.5314	25.01	0.05	-0.750			
0.4364	27932.18	3.6400	3.6397	-1.5280	25.00	0.04	-0.750			
0.4409	28218.36	3.6370	3.6366	-1.5187	25.00	0.04	-0.750			
0.4456	28516.24	3.6340	3.6343	-1.5853	24.99	0.03	-0.750			
0.4502	28812.52	3.6310	3.6310	-1.5942	24.98	0.02	-0.750			
0.4552	29134.09	3.6280	3.6280	-1.6449	24.97	0.01	-0.750			
0.4602	29454.43	3.6250	3.6247	-1.6578	24.95	-0.01	-0.750			
0.4651	29769.47	3.6220	3.6217	-1.6753	24.94	-0.02	-0.750			
0.4703	30098.40	3.6190	3.6184	-1.7189	24.93	-0.03	-0.750			
0.4754	30425.63	3.6160	3.6155	-1.7358	24.93	-0.03	-0.750			
0.4806	30759.97	3.6130	3.6136	-1.7597	24.92	-0.04	-0.750			
0.4860	31101.10	3.6100	3.6103	-1.8250	24.91	-0.05	-0.750			
0.4915	31455.42	3.6070	3.6067	-1.8692	24.91	-0.05	-0.750			
0.4974	31832.04	3.6040	3.6035	-1.9015	24.90	-0.06	-0.750			
0.5032	32206.82	3.6010	3.6006	-1.9683	24.90	-0.06	-0.750			
0.5092	32587.50	3.5980	3.5978	-2.0658	24.89	-0.07	-0.750			
0.5153	32981.94	3.5950	3.5947	-2.0873	24.88	-0.08	-0.750			
0.5219	33403.09	3.5920	3.5917	-2.1150	24.87	-0.09	-0.750			
0.5283	33812.60	3.5890	3.5892	-2.1430	24.86	-0.10	-0.750			
0.5348	34227.98	3.5860	3.5860	-2.1377	24.85	-0.11	-0.750			
0.5411	34629.18	3.5830	3.5825	-2.1339	24.85	-0.11	-0.750			
0.5474	35033.40	3.5800	3.5797	-2.2059	24.84	-0.12	-0.750			
0.5541	35462.89	3.5770	3.5766	-2.2316	24.84	-0.12	-0.750			
0.5611	35910.73	3.5740	3.5737	-2.2583	24.84	-0.12	-0.750			
0.5679	36344.12	3.5710	3.5710	-2.2636	24.83	-0.13	-0.750			
0.5747	36778.20	3.5680	3.5683	-2.2823	24.82	-0.14	-0.750			
0.5814	37212.67	3.5650	3.5651	-2.2499	24.82	-0.14	-0.750			
0.5883	37651.83	3.5620	3.5623	-2.2761	24.82	-0.14	-0.750			
0.5949	38076.27	3.5590	3.5593	-2.2756	24.82	-0.14	-0.750			
0.6018	38514.40	3.5560	3.5559	-2.2243	24.82	-0.14	-0.750			
0.6087	38954.76	3.5530	3.5530	-2.2398	24.82	-0.14	-0.750			
0.6153	39377.19	3.5500	3.5500	-2.2210	24.82	-0.14	-0.750			
0.6217	39791.60	3.5470	3.5474	-2.1573	24.82	-0.14	-0.750			
0.6283	40208.51	3.5440	3.5435	-2.1318	24.82	-0.14	-0.750			
0.6349	40631.69	3.5410	3.5407	-2.1091	24.83	-0.13	-0.750			
0.6409	41016.87	3.5380	3.5382	-2.0322	24.84	-0.12	-0.750			
0.6471	41416.44	3.5350	3.5352	-2.0330	24.85	-0.11	-0.750			
0.6532	41806.88	3.5320	3.5314	-1.9805	24.85	-0.11	-0.750			
0.6590	42176.87	3.5290	3.5294	-1.9212	24.87	-0.09	-0.750			
0.6647	42541.43	3.5260	3.5262	-1.8818	24.88	-0.08	-0.750			
0.6703	42900.63	3.5230	3.5229	-1.8572	24.89	-0.07	-0.750			
0.6756	43241.32	3.5200	3.5202	-1.7812	24.90	-0.06	-0.750			
0.6810	43582.88	3.5170	3.5169	-1.7336	24.91	-0.05	-0.750			
0.6861	43912.66	3.5140	3.5140	-1.6729	24.93	-0.03	-0.750			
0.6911	44232.20	3.5110	3.5106	-1.6144	24.95	-0.01	-0.750			
0.6959	44537.36	3.5080	3.5076	-1.4924	24.96	0.00	-0.750			
0.7002	44813.31	3.5050	3.5050	-1.4034	24.98	0.02	-0.750			
0.7041	45063.77	3.5020	3.5024	-1.3528	24.99	0.03	-0.750			
0.7079	45305.23	3.4990	3.4986	-1.3050	25.00	0.04	-0.750			
0.7116	45544.41	3.4960	3.4956	-1.2911	25.01	0.05	-0.750			
0.7155	45793.22	3.4930	3.4932	-1.3343	25.03	0.07	-0.750			
0.7195	46050.85	3.4900	3.4901	-1.4146	25.04	0.08	-0.750			
0.7238	46321.51	3.4870	3.4870	-1.3181	25.05	0.09	-0.750			
