Ah_balance (normalized)	Ah_balance (mAh)	Voltage - fit (V)	Voltage -  interpolate (V)	dQ/dV (1/V)	Temperature (°C)	Temperature - diff (°C)	Current (C)	R_DC 0ms (mOhm)	R_DC 50ms (mOhm)	R_DC 50 ms PEC (mOhm)
0.0001	8.82	4.1620	4.1621	-0.0945	24.93	0.00	-0.750			
0.0005	34.51	4.1590	4.1588	-0.1506	24.93	0.00	-0.750			
0.0010	65.59	4.1560	4.1559	-0.1866	24.93	0.00	-0.750			
0.0016	104.82	4.1530	4.1529	-0.2272	24.93	0.00	-0.750			
0.0024	152.58	4.1500	4.1497	-0.2681	24.93	-0.00	-0.750			
0.0032	207.94	4.1470	4.1470	-0.3086	24.93	-0.00	-0.750			
0.0042	271.70	4.1440	4.1440	-0.3440	24.92	-0.01	-0.750			
0.0053	342.15	4.1410	4.1411	-0.3795	24.92	-0.01	-0.750			
0.0066	420.04	4.1380	4.1380	-0.4140	24.92	-0.01	-0.750			
0.0078	501.79	4.1350	4.1350	-0.4450	24.92	-0.01	-0.750			
0.0092	589.96	4.1320	4.1320	-0.4777	24.91	-0.02	-0.750			
0.0107	684.99	4.1290	4.1290	-0.5087	24.91	-0.02	-0.750			
0.0123	787.15	4.1260	4.1259	-0.5330	24.91	-0.02	-0.750			
0.0140	893.38	4.1230	4.1230	-0.5559	24.90	-0.03	-0.750			
0.0157	1004.13	4.1200	4.1200	-0.5749	24.90	-0.03	-0.750			
0.0174	1115.58	4.1170	4.1169	-0.5928	24.90	-0.03	-0.750			
0.0192	1228.45	4.1140	4.1141	-0.6080	24.89	-0.04	-0.750			
0.0210	1346.71	4.1110	4.1111	-0.6256	24.89	-0.04	-0.750			
0.0230	1470.63	4.1080	4.1079	-0.6402	24.89	-0.04	-0.750			
0.0249	1596.26	4.1050	4.1048	-0.6526	24.88	-0.05	-0.750			
0.0270	1724.88	4.1020	4.1027	-0.6590	24.88	-0.05	-0.750			
0.0289	1851.44	4.0990	4.0990	-0.6663	24.88	-0.05	-0.750			
0.0309	1979.38	4.0960	4.0960	-0.6716	24.87	-0.06	-0.750			
0.0330	2110.52	4.0930	4.0930	-0.6819	24.87	-0.06	-0.750			
0.0350	2241.42	4.0900	4.0898	-0.6881	24.87	-0.06	-0.750			
0.0371	2374.79	4.0870	4.0870	-0.6920	24.86	-0.07	-0.750			
0.0392	2508.97	4.0840	4.0848	-0.6977	24.86	-0.07	-0.750			
0.0413	2642.89	4.0810	4.0808	-0.7034	24.86	-0.07	-0.750			
0.0434	2774.98	4.0780	4.0780	-0.7095	24.86	-0.07	-0.750			
0.0455	2912.75	4.0750	4.0749	-0.7168	24.86	-0.07	-0.750			
0.0477	3050.68	4.0720	4.0720	-0.7201	24.86	-0.07	-0.750			
0.0499	3194.35	4.0690	4.0690	-0.7309	24.86	-0.07	-0.750			
0.0521	3335.21	4.0660	4.0664	-0.7343	24.86	-0.07	-0.750			
0.0543	3476.13	4.0630	4.0630	-0.7348	24.86	-0.07	-0.750			
0.0565	3614.38	4.0600	4.0600	-0.7418	24.86	-0.07	-0.750			
0.0587	3759.94	4.0570	4.0569	-0.7357	24.86	-0.07	-0.750			
0.0610	3902.42	4.0540	4.0540	-0.7403	24.86	-0.07	-0.750			
0.0632	4043.98	4.0510	4.0509	-0.7354	24.86	-0.07	-0.750			
0.0654	4184.93	4.0480	4.0477	-0.7365	24.86	-0.07	-0.750			
0.0676	4324.28	4.0450	4.0450	-0.7401	24.86	-0.07	-0.750			
0.0698	4466.63	4.0420	4.0419	-0.7453	24.86	-0.07	-0.750			
0.0720	4609.12	4.0390	4.0390	-0.7484	24.87	-0.06	-0.750			
0.0744	4760.14	4.0360	4.0358	-0.7534	24.87	-0.06	-0.750			
0.0766	4903.78	4.0330	4.0339	-0.7536	24.87	-0.06	-0.750			
0.0789	5049.41	4.0300	4.0298	-0.7532	24.87	-0.06	-0.750			
0.0811	5190.05	4.0270	4.0269	-0.7576	24.87	-0.06	-0.750			
0.0834	5336.35	4.0240	4.0240	-0.7537	24.88	-0.05	-0.750			
0.0856	5478.36	4.0210	4.0211	-0.7548	24.88	-0.05	-0.750			
0.0880	5629.00	4.0180	4.0180	-0.7630	24.88	-0.05	-0.750			
0.0902	5775.84	4.0150	4.0148	-0.7657	24.88	-0.05	-0.750			
0.0925	5918.89	4.0120	4.0120	-0.7695	24.88	-0.05	-0.750			
0.0948	6066.56	4.0090	4.0090	-0.7716	24.88	-0.05	-0.750			
0.0971	6215.29	4.0060	4.0059	-0.7720	24.88	-0.05	-0.750			
0.0995	6367.73	4.0030	4.0029	-0.7809	24.88	-0.05	-0.750			
0.1018	6516.59	4.0000	4.0006	-0.7770	24.88	-0.05	-0.750			
0.1042	6666.68	3.9970	3.9970	-0.7757	24.88	-0.05	-0.750			
0.1065	6814.05	3.9940	3.9940	-0.7804	24.88	-0.05	-0.750			
0.1088	6964.53	3.9910	3.9908	-0.7798	24.89	-0.04	-0.750			
0.1112	7114.96	3.9880	3.9880	-0.7850	24.89	-0.04	-0.750			
0.1135	7265.53	3.9850	3.9849	-0.7849	24.89	-0.04	-0.750			
0.1159	7417.12	3.9820	3.9819	-0.7877	24.89	-0.04	-0.750			
0.1183	7569.56	3.9790	3.9789	-0.7828	24.90	-0.03	-0.750			
0.1206	7719.05	3.9760	3.9760	-0.7849	24.90	-0.03	-0.750			
0.1230	7870.35	3.9730	3.9730	-0.7945	24.90	-0.03	-0.750			
0.1253	8021.93	3.9700	3.9699	-0.7940	24.91	-0.02	-0.750			
0.1277	8174.68	3.9670	3.9669	-0.7925	24.91	-0.02	-0.750			
0.1301	8325.46	3.9640	3.9640	-0.7983	24.91	-0.02	-0.750			
0.1325	8480.40	3.9610	3.9611	-0.7947	24.91	-0.02	-0.750			
0.1349	8631.65	3.9580	3.9580	-0.7903	24.92	-0.01	-0.750			
0.1373	8786.32	3.9550	3.9549	-0.8024	24.92	-0.01	-0.750			
0.1397	8938.19	3.9520	3.9525	-0.7988	24.92	-0.01	-0.750			
0.1420	9090.57	3.9490	3.9489	-0.8078	24.92	-0.01	-0.750			
0.1445	9247.31	3.9460	3.9460	-0.8122	24.93	-0.00	-0.750			
0.1469	9403.78	3.9430	3.9430	-0.8122	24.93	0.00	-0.750			
0.1494	9563.33	3.9400	3.9398	-0.8151	24.94	0.01	-0.750			
0.1519	9718.65	3.9370	3.9376	-0.8103	24.94	0.01	-0.750			
0.1543	9872.70	3.9340	3.9340	-0.8078	24.94	0.01	-0.750			
0.1567	10027.30	3.9310	3.9309	-0.8099	24.95	0.02	-0.750			
0.1591	10181.61	3.9280	3.9280	-0.8124	24.95	0.02	-0.750			
0.1615	10336.11	3.9250	3.9250	-0.8164	24.96	0.03	-0.750			
0.1640	10497.91	3.9220	3.9220	-0.8244	24.96	0.03	-0.750			
0.1665	10656.63	3.9190	3.9189	-0.8284	24.96	0.03	-0.750			
0.1690	10816.16	3.9160	3.9161	-0.8382	24.97	0.04	-0.750			
0.1716	10981.03	3.9130	3.9128	-0.8300	24.97	0.04	-0.750			
0.1740	11138.99	3.9100	3.9099	-0.8254	24.98	0.05	-0.750			
0.1766	11299.46	3.9070	3.9075	-0.8190	24.98	0.05	-0.750			
0.1790	11454.19	3.9040	3.9037	-0.8175	24.98	0.05	-0.750			
0.1814	11611.67	3.9010	3.9009	-0.8216	24.99	0.06	-0.750			
0.1838	11766.39	3.8980	3.8980	-0.8192	24.99	0.06	-0.750			
0.1864	11927.74	3.8950	3.8947	-0.8289	25.00	0.07	-0.750			
0.1889	12087.20	3.8920	3.8929	-0.8295	25.00	0.07	-0.750			
0.1913	12244.60	3.8890	3.8887	-0.8231	25.00	0.07	-0.750			
0.1938	12402.45	3.8860	3.8860	-0.8279	25.00	0.07	-0.750			
0.1962	12557.77	3.8830	3.8830	-0.8168	25.01	0.08	-0.750			
0.1987	12714.97	3.8800	3.8800	-0.8171	25.01	0.08	-0.750			
0.2012	12878.13	3.8770	3.8770	-0.8262	25.01	0.08	-0.750			
0.2037	13035.75	3.8740	3.8740	-0.8235	25.01	0.08	-0.750			
0.2061	13193.27	3.8710	3.8708	-0.8301	25.01	0.08	-0.750			
0.2087	13354.36	3.8680	3.8680	-0.8255	25.02	0.09	-0.750			
0.2111	13512.54	3.8650	3.8649	-0.8177	25.02	0.09	-0.750			
0.2136	13671.57	3.8620	3.8622	-0.8212	25.02	0.09	-0.750			
0.2161	13829.32	3.8590	3.8588	-0.8113	25.02	0.09	-0.750			
0.2185	13982.17	3.8560	3.8558	-0.8084	25.03	0.10	-0.750			
0.2209	14134.74	3.8530	3.8531	-0.8055	25.04	0.11	-0.750			
0.2232	14286.46	3.8500	3.8501	-0.8008	25.04	0.11	-0.750			
0.2258	14448.95	3.8470	3.8468	-0.8066	25.05	0.12	-0.750			
0.2282	14602.41	3.8440	3.8438	-0.7992	25.05	0.12	-0.750			
0.2305	14750.51	3.8410	3.8412	-0.8026	25.05	0.12	-0.750			
0.2329	14907.74	3.8380	3.8378	-0.7995	25.05	0.12	-0.750			
0.2353	15058.77	3.8350	3.8350	-0.7904	25.06	0.13	-0.750			
0.2377	15215.52	3.8320	3.8319	-0.7923	25.06	0.13	-0.750			
0.2401	15367.03	3.8290	3.8291	-0.7875	25.06	0.13	-0.750			
0.2424	15515.34	3.8260	3.8260	-0.7929	25.06	0.13	-0.750			
0.2448	15664.28	3.8230	3.8230	-0.7832	25.07	0.14	-0.750			
0.2471	15814.59	3.8200	3.8199	-0.7725	25.07	0.14	-0.750			
0.2495	15967.40	3.8170	3.8170	-0.7781	25.08	0.15	-0.750			
0.2518	16116.72	3.8140	3.8148	-0.7728	25.08	0.15	-0.750			
0.2541	16264.31	3.8110	3.8109	-0.7682	25.08	0.15	-0.750			
0.2564	16406.74	3.8080	3.8080	-0.7672	25.09	0.16	-0.750			
0.2587	16555.04	3.8050	3.8049	-0.7571	25.09	0.16	-0.750			
0.2610	16702.23	3.8020	3.8020	-0.7638	25.09	0.16	-0.750			
0.2633	16849.15	3.7990	3.7988	-0.7587	25.10	0.17	-0.750			
0.2655	16993.88	3.7960	3.7957	-0.7590	25.10	0.17	-0.750			
0.2678	17138.67	3.7930	3.7930	-0.7618	25.10	0.17	-0.750			
0.2700	17283.02	3.7900	3.7900	-0.7613	25.10	0.17	-0.750			
0.2723	17428.50	3.7870	3.7870	-0.7570	25.10	0.17	-0.750			
0.2747	17581.31	3.7840	3.7840	-0.7693	25.10	0.17	-0.750			
0.2770	17726.34	3.7810	3.7811	-0.7650	25.10	0.17	-0.750			
0.2792	17867.05	3.7780	3.7781	-0.8140	25.10	0.17	-0.750			
0.2817	18027.65	3.7750	3.7749	-0.8316	25.11	0.18	-0.750			
0.2842	18190.47	3.7720	3.7715	-0.8518	25.11	0.18	-0.750			
0.2870	18365.85	3.7690	3.7692	-0.8650	25.12	0.19	-0.750			
0.2896	18535.65	3.7660	3.7667	-0.8621	25.12	0.19	-0.750			
0.2922	18701.33	3.7630	3.7629	-0.8539	25.12	0.19	-0.750			
0.2947	18862.24	3.7600	3.7600	-0.8329	25.12	0.19	-0.750			
0.2971	19013.54	3.7570	3.7569	-0.8072	25.13	0.20	-0.750			
0.2995	19171.09	3.7540	3.7538	-0.8132	25.13	0.20	-0.750			
0.3019	19324.68	3.7510	3.7518	-0.8179	25.13	0.20	-0.750			
0.3044	19482.20	3.7480	3.7480	-0.8257	25.13	0.20	-0.750			
0.3069	19640.38	3.7450	3.7448	-0.8397	25.13	0.20	-0.750			
0.3094	19803.39	3.7420	3.7421	-0.8529	25.14	0.21	-0.750			
0.3120	19968.79	3.7390	3.7389	-0.8681	25.14	0.21	-0.750			
0.3147	20138.43	3.7360	3.7362	-0.8779	25.14	0.21	-0.750			
0.3173	20307.29	3.7330	3.7330	-0.8900	25.14	0.21	-0.750			
0.3200	20479.30	3.7300	3.7300	-0.8896	25.14	0.21	-0.750			
0.3227	20650.37	3.7270	3.7269	-0.8968	25.13	0.20	-0.750			
0.3254	20823.48	3.7240	3.7240	-0.9088	25.13	0.20	-0.750			
0.3281	20997.35	3.7210	3.7209	-0.9176	25.13	0.20	-0.750			
0.3309	21174.55	3.7180	3.7180	-0.9452	25.13	0.20	-0.750			
0.3337	21359.90	3.7150	3.7148	-0.9562	25.12	0.19	-0.750			
0.3366	21545.12	3.7120	3.7119	-0.9642	25.12	0.19	-0.750			
0.3396	21735.03	3.7090	3.7095	-0.9892	25.12	0.19	-0.750			
0.3426	21926.04	3.7060	3.7059	-1.0004	25.12	0.19	-0.750			
0.3456	22119.50	3.7030	3.7028	-1.0099	25.12	0.19	-0.750			
0.3486	22312.42	3.7000	3.6998	-1.0140	25.11	0.18	-0.750	0.351	0.505	
0.3517	22507.41	3.6970	3.6973	-1.0438	25.11	0.18	-0.750			
0.3548	22709.83	3.6940	3.6939	-1.0551	25.10	0.17	-0.750			
0.3580	22912.76	3.6910	3.6909	-1.0645	25.10	0.17	-0.750			
0.3612	23119.07	3.6880	3.6878	-1.0813	25.09	0.16	-0.750			
0.3644	23324.44	3.6850	3.6856	-1.1183	25.08	0.15	-0.750			
0.3679	23543.91	3.6820	3.6819	-1.1269	25.07	0.14	-0.750			
0.3713	23764.39	3.6790	3.6788	-1.1389	25.07	0.14	-0.750			
0.3747	23982.47	3.6760	3.6758	-1.1446	25.06	0.13	-0.750			
0.3782	24204.51	3.6730	3.6729	-1.1705	25.06	0.13	-0.750			
0.3817	24430.26	3.6700	3.6699	-1.1766	25.06	0.13	-0.750			
0.3852	24652.56	3.6670	3.6668	-1.1940	25.05	0.12	-0.750			
0.3887	24875.77	3.6640	3.6642	-1.2162	25.05	0.12	-0.750			
0.3925	25120.94	3.6610	3.6609	-1.2599	25.04	0.11	-0.750			
0.3964	25367.75	3.6580	3.6579	-1.2785	25.03	0.10	-0.750			
0.4002	25615.70	3.6550	3.6550	-1.3116	25.02	0.09	-0.750			
0.4042	25870.10	3.6520	3.6520	-1.3277	25.02	0.09	-0.750			
0.4083	26132.70	3.6490	3.6488	-1.3492	25.01	0.08	-0.750			
0.4123	26389.85	3.6460	3.6460	-1.3633	25.01	0.08	-0.750			
0.4164	26650.03	3.6430	3.6429	-1.3773	25.01	0.08	-0.750			
0.4206	26917.36	3.6400	3.6398	-1.4007	25.01	0.08	-0.750			
0.4248	27188.56	3.6370	3.6370	-1.4373	25.00	0.07	-0.750			
0.4291	27462.27	3.6340	3.6340	-1.4629	24.99	0.06	-0.750			
0.4337	27759.73	3.6310	3.6308	-1.5043	24.98	0.05	-0.750			
0.4383	28053.20	3.6280	3.6277	-1.5353	24.97	0.04	-0.750			
0.4430	28350.56	3.6250	3.6251	-1.5561	24.97	0.04	-0.750			
0.4477	28652.88	3.6220	3.6217	-1.5928	24.96	0.03	-0.750			
0.4525	28957.10	3.6190	3.6192	-1.6121	24.96	0.03	-0.750			
0.4573	29270.36	3.6160	3.6161	-1.6457	24.95	0.02	-0.750			
0.4622	29583.90	3.6130	3.6132	-1.6646	24.94	0.01	-0.750			
0.4674	29911.54	3.6100	3.6097	-1.7079	24.94	0.01	-0.750			
0.4726	30248.23	3.6070	3.6067	-1.7555	24.93	0.00	-0.750			
0.4780	30589.84	3.6040	3.6040	-1.7782	24.93	-0.00	-0.750			
0.4834	30938.48	3.6010	3.6010	-1.8084	24.92	-0.01	-0.750			
0.4889	31287.44	3.5980	3.5983	-1.8282	24.92	-0.01	-0.750			
0.4944	31641.66	3.5950	3.5948	-1.8617	24.91	-0.02	-0.750			
0.5001	32007.31	3.5920	3.5916	-1.8898	24.90	-0.03	-0.750			
0.5059	32375.01	3.5890	3.5891	-1.9509	24.90	-0.03	-0.750			
0.5118	32753.18	3.5860	3.5860	-1.9891	24.90	-0.03	-0.750			
0.5178	33140.06	3.5830	3.5828	-1.9937	24.90	-0.03	-0.750			
0.5240	33536.50	3.5800	3.5801	-2.0252	24.89	-0.04	-0.750			
0.5299	33915.74	3.5770	3.5769	-2.0500	24.89	-0.04	-0.750			
0.5362	34317.37	3.5740	3.5740	-2.0284	24.88	-0.05	-0.750			
0.5423	34708.52	3.5710	3.5706	-2.0891	24.88	-0.05	-0.750			
0.5488	35123.99	3.5680	3.5683	-2.0924	24.88	-0.05	-0.750			
0.5551	35529.16	3.5650	3.5646	-2.0748	24.88	-0.05	-0.750			
0.5615	35933.62	3.5620	3.5623	-2.0890	24.88	-0.05	-0.750			
0.5676	36323.78	3.5590	3.5588	-2.0545	24.88	-0.05	-0.750			
0.5738	36724.94	3.5560	3.5559	-2.0506	24.88	-0.05	-0.750			
0.5798	37110.08	3.5530	3.5527	-2.0367	24.88	-0.05	-0.750			
0.5863	37520.21	3.5500	3.5497	-2.0701	24.88	-0.05	-0.750			
0.5924	37916.59	3.5470	3.5468	-2.0331	24.88	-0.05	-0.750			
0.5986	38312.63	3.5440	3.5437	-2.0265	24.88	-0.05	-0.750			
0.6047	38699.96	3.5410	3.5407	-1.9856	24.88	-0.05	-0.750			
0.6106	39076.58	3.5380	3.5377	-1.9518	24.89	-0.04	-0.750			
0.6164	39448.03	3.5350	3.5346	-1.8997	24.90	-0.03	-0.750			
0.6220	39810.83	3.5320	3.5316	-1.8987	24.91	-0.02	-0.750			
0.6276	40168.89	3.5290	3.5290	-1.8434	24.92	-0.01	-0.750			
0.6331	40519.63	3.5260	3.5258	-1.8084	24.92	-0.01	-0.750			
0.6384	40858.87	3.5230	3.5233	-1.7819	24.92	-0.01	-0.750			
0.6438	41201.26	3.5200	3.5204	-1.7551	24.93	0.00	-0.750			
0.6492	41550.63	3.5170	3.5168	-1.7537	24.95	0.02	-0.750			
0.6544	41878.92	3.5140	3.5144	-1.6951	24.97	0.04	-0.750			
0.6595	42208.23	3.5110	3.5112	-1.6617	24.98	0.05	-0.750			
0.6645	42526.45	3.5080	3.5082	-1.6215	25.00	0.07	-0.750			
0.6691	42823.85	3.5050	3.5048	-1.5413	25.01	0.08	-0.750			
0.6736	43109.53	3.5020	3.5020	-1.4938	25.02	0.09	-0.750			
0.6780	43389.67	3.4990	3.4992	-1.4396	25.03	0.10	-0.750			
0.6823	43666.39	3.4960	3.4959	-1.4044	25.05	0.12	-0.750			
0.6864	43930.21	3.4930	3.4929	-1.3535	25.07	0.14	-0.750			
0.6903	44179.25	3.4900	3.4902	-1.3072	25.08	0.15	-0.750			
0.6943	44433.45	3.4870	3.4870	-1.2564	25.10	0.17	-0.750			
0.6979	44668.73	3.4840	3.4840	-1.1865	25.11	0.18	-0.750			
