Ah_balance (normalized)	Ah_balance (mAh)	Voltage - fit (V)	Voltage -  interpolate (V)	dQ/dV (1/V)	Temperature (°C)	Temperature - diff (°C)	Current (C)	R_DC 0ms (mOhm)	R_DC 50ms (mOhm)	R_DC 50 ms PEC (mOhm)
0.0002	14.03	4.1620	4.1617	-0.1056	25.21	0.01	-0.750			
0.0006	38.87	4.1590	4.1590	-0.1532	25.21	0.01	-0.750			
0.0011	72.80	4.1560	4.1558	-0.2008	25.21	0.01	-0.750			
0.0018	116.94	4.1530	4.1531	-0.2450	25.20	0.00	-0.750			
0.0026	168.22	4.1500	4.1498	-0.2874	25.20	0.00	-0.750			
0.0036	227.68	4.1470	4.1473	-0.3286	25.20	0.00	-0.750			
0.0046	296.12	4.1440	4.1440	-0.3648	25.20	-0.00	-0.750			
0.0058	369.96	4.1410	4.1410	-0.4020	25.19	-0.01	-0.750			
0.0071	451.30	4.1380	4.1381	-0.4339	25.19	-0.01	-0.750			
0.0084	538.60	4.1350	4.1349	-0.4645	25.19	-0.01	-0.750			
0.0099	631.25	4.1320	4.1321	-0.4956	25.18	-0.02	-0.750			
0.0114	729.26	4.1290	4.1290	-0.5206	25.18	-0.02	-0.750			
0.0130	833.14	4.1260	4.1259	-0.5428	25.18	-0.02	-0.750			
0.0147	940.24	4.1230	4.1231	-0.5629	25.17	-0.03	-0.750			
0.0164	1050.22	4.1200	4.1202	-0.5810	25.17	-0.03	-0.750			
0.0182	1163.79	4.1170	4.1170	-0.6003	25.17	-0.03	-0.750			
0.0200	1280.82	4.1140	4.1139	-0.6162	25.16	-0.04	-0.750			
0.0219	1399.95	4.1110	4.1111	-0.6320	25.16	-0.04	-0.750			
0.0239	1527.74	4.1080	4.1079	-0.6278	25.15	-0.05	-0.750			
0.0258	1651.03	4.1050	4.1050	-0.6087	25.15	-0.05	-0.750			
0.0276	1766.76	4.1020	4.1023	-0.6045	25.14	-0.06	-0.750			
0.0293	1878.19	4.0990	4.0995	-0.6024	25.14	-0.06	-0.750			
0.0310	1985.66	4.0960	4.0955	-0.6044	25.14	-0.06	-0.750			
0.0328	2100.44	4.0930	4.0926	-0.6222	25.13	-0.07	-0.750			
0.0347	2221.00	4.0900	4.0903	-0.6508	25.13	-0.07	-0.750			
0.0368	2355.72	4.0870	4.0869	-0.6862	25.13	-0.07	-0.750			
0.0389	2492.55	4.0840	4.0838	-0.7047	25.12	-0.08	-0.750			
0.0411	2629.07	4.0810	4.0815	-0.7111	25.12	-0.08	-0.750			
0.0432	2766.46	4.0780	4.0794	-0.7136	25.12	-0.08	-0.750			
0.0454	2903.09	4.0750	4.0750	-0.7328	25.12	-0.08	-0.750			
0.0476	3045.27	4.0720	4.0720	-0.7290	25.12	-0.08	-0.750			
0.0498	3187.51	4.0690	4.0688	-0.7362	25.12	-0.08	-0.750			
0.0520	3327.89	4.0660	4.0658	-0.7282	25.12	-0.08	-0.750			
0.0542	3469.77	4.0630	4.0632	-0.7273	25.12	-0.08	-0.750			
0.0564	3607.99	4.0600	4.0599	-0.7246	25.12	-0.08	-0.750			
0.0585	3744.05	4.0570	4.0568	-0.7235	25.12	-0.08	-0.750			
0.0606	3878.43	4.0540	4.0542	-0.7148	25.11	-0.09	-0.750			
0.0628	4021.89	4.0510	4.0510	-0.7357	25.11	-0.09	-0.750			
0.0651	4163.72	4.0480	4.0479	-0.7401	25.11	-0.09	-0.750			
0.0673	4307.71	4.0450	4.0449	-0.7467	25.11	-0.09	-0.750			
0.0696	4452.06	4.0420	4.0420	-0.7488	25.11	-0.09	-0.750			
0.0718	4596.30	4.0390	4.0390	-0.7533	25.11	-0.09	-0.750			
0.0741	4741.15	4.0360	4.0360	-0.7511	25.10	-0.10	-0.750			
0.0763	4886.36	4.0330	4.0330	-0.7534	25.10	-0.10	-0.750			
0.0786	5030.37	4.0300	4.0304	-0.7501	25.10	-0.10	-0.750			
0.0808	5174.10	4.0270	4.0269	-0.7543	25.10	-0.10	-0.750			
0.0831	5318.59	4.0240	4.0240	-0.7635	25.10	-0.10	-0.750			
0.0854	5466.78	4.0210	4.0210	-0.7658	25.11	-0.09	-0.750			
0.0878	5616.33	4.0180	4.0178	-0.7720	25.11	-0.09	-0.750			
0.0901	5764.48	4.0150	4.0149	-0.7708	25.11	-0.09	-0.750			
0.0924	5912.31	4.0120	4.0118	-0.7672	25.11	-0.09	-0.750			
0.0947	6058.31	4.0090	4.0089	-0.7667	25.11	-0.09	-0.750			
0.0969	6201.85	4.0060	4.0061	-0.7666	25.11	-0.09	-0.750			
0.0993	6352.84	4.0030	4.0029	-0.7785	25.12	-0.08	-0.750			
0.1016	6503.43	4.0000	3.9999	-0.7764	25.12	-0.08	-0.750			
0.1039	6651.46	3.9970	3.9972	-0.7763	25.12	-0.08	-0.750			
0.1063	6800.77	3.9940	3.9940	-0.7757	25.12	-0.08	-0.750			
0.1086	6949.90	3.9910	3.9909	-0.7781	25.12	-0.08	-0.750			
0.1109	7096.66	3.9880	3.9880	-0.7718	25.12	-0.08	-0.750			
0.1132	7246.63	3.9850	3.9850	-0.7819	25.12	-0.08	-0.750			
0.1156	7395.45	3.9820	3.9820	-0.7871	25.12	-0.08	-0.750			
0.1179	7547.93	3.9790	3.9789	-0.7893	25.12	-0.08	-0.750			
0.1203	7698.38	3.9760	3.9760	-0.7955	25.12	-0.08	-0.750			
0.1227	7852.67	3.9730	3.9730	-0.7955	25.12	-0.08	-0.750			
0.1251	8005.80	3.9700	3.9699	-0.7926	25.12	-0.08	-0.750			
0.1275	8159.72	3.9670	3.9669	-0.7938	25.12	-0.08	-0.750			
0.1298	8309.73	3.9640	3.9640	-0.7930	25.12	-0.08	-0.750			
0.1322	8460.31	3.9610	3.9609	-0.7950	25.13	-0.07	-0.750			
0.1346	8615.96	3.9580	3.9580	-0.7936	25.13	-0.07	-0.750			
0.1370	8765.81	3.9550	3.9550	-0.7956	25.13	-0.07	-0.750			
0.1394	8920.29	3.9520	3.9520	-0.8008	25.14	-0.06	-0.750			
0.1418	9074.30	3.9490	3.9491	-0.8051	25.14	-0.06	-0.750			
0.1442	9226.92	3.9460	3.9459	-0.8060	25.14	-0.06	-0.750			
0.1466	9381.85	3.9430	3.9429	-0.8090	25.14	-0.06	-0.750			
0.1490	9539.06	3.9400	3.9401	-0.8120	25.15	-0.05	-0.750			
0.1515	9697.62	3.9370	3.9369	-0.8146	25.15	-0.05	-0.750			
0.1539	9852.21	3.9340	3.9341	-0.8123	25.15	-0.05	-0.750			
0.1564	10009.52	3.9310	3.9310	-0.8138	25.15	-0.05	-0.750			
0.1588	10164.24	3.9280	3.9280	-0.8229	25.15	-0.05	-0.750			
0.1613	10325.34	3.9250	3.9249	-0.8200	25.15	-0.05	-0.750			
0.1638	10484.29	3.9220	3.9219	-0.8188	25.15	-0.05	-0.750			
0.1663	10640.99	3.9190	3.9196	-0.8162	25.15	-0.05	-0.750			
0.1687	10798.55	3.9160	3.9159	-0.8097	25.15	-0.05	-0.750			
0.1711	10951.03	3.9130	3.9129	-0.8179	25.16	-0.04	-0.750			
0.1735	11106.97	3.9100	3.9100	-0.8113	25.16	-0.04	-0.750			
0.1760	11266.74	3.9070	3.9068	-0.8170	25.17	-0.03	-0.750			
0.1785	11422.41	3.9040	3.9045	-0.8201	25.17	-0.03	-0.750			
0.1809	11580.78	3.9010	3.9010	-0.8181	25.17	-0.03	-0.750			
0.1834	11736.98	3.8980	3.8979	-0.8191	25.17	-0.03	-0.750			
0.1858	11892.71	3.8950	3.8950	-0.8171	25.18	-0.02	-0.750			
0.1883	12050.27	3.8920	3.8921	-0.8230	25.18	-0.02	-0.750			
0.1908	12209.91	3.8890	3.8891	-0.8214	25.18	-0.02	-0.750			
0.1933	12369.17	3.8860	3.8859	-0.8166	25.18	-0.02	-0.750			
0.1957	12523.28	3.8830	3.8830	-0.8223	25.19	-0.01	-0.750			
0.1982	12683.65	3.8800	3.8799	-0.8215	25.19	-0.01	-0.750			
0.2007	12842.46	3.8770	3.8769	-0.8087	25.20	-0.00	-0.750			
0.2031	12997.39	3.8740	3.8744	-0.8126	25.20	-0.00	-0.750			
0.2055	13153.24	3.8710	3.8710	-0.8043	25.20	0.00	-0.750			
0.2079	13307.20	3.8680	3.8679	-0.8023	25.20	0.00	-0.750			
0.2103	13459.11	3.8650	3.8649	-0.7947	25.21	0.01	-0.750			
0.2127	13610.55	3.8620	3.8621	-0.7990	25.21	0.01	-0.750			
0.2151	13763.66	3.8590	3.8589	-0.7975	25.21	0.01	-0.750			
0.2175	13919.00	3.8560	3.8559	-0.7981	25.21	0.01	-0.750			
0.2198	14067.39	3.8530	3.8530	-0.7939	25.22	0.02	-0.750			
0.2222	14222.13	3.8500	3.8500	-0.7991	25.22	0.02	-0.750			
0.2246	14374.55	3.8470	3.8470	-0.7980	25.22	0.02	-0.750			
0.2270	14530.69	3.8440	3.8439	-0.7952	25.23	0.03	-0.750			
0.2294	14682.74	3.8410	3.8410	-0.7893	25.23	0.03	-0.750			
0.2318	14835.17	3.8380	3.8381	-0.7833	25.24	0.04	-0.750			
0.2341	14985.16	3.8350	3.8350	-0.7819	25.24	0.04	-0.750			
0.2365	15133.54	3.8320	3.8319	-0.7714	25.24	0.04	-0.750			
0.2388	15282.07	3.8290	3.8289	-0.7676	25.25	0.05	-0.750			
0.2411	15427.75	3.8260	3.8265	-0.7606	25.25	0.05	-0.750			
0.2433	15572.92	3.8230	3.8230	-0.7629	25.25	0.05	-0.750			
0.2456	15719.48	3.8200	3.8200	-0.7616	25.26	0.06	-0.750			
0.2479	15866.90	3.8170	3.8168	-0.7581	25.26	0.06	-0.750			
0.2502	16012.36	3.8140	3.8140	-0.7620	25.26	0.06	-0.750			
0.2525	16158.92	3.8110	3.8110	-0.7607	25.27	0.07	-0.750			
0.2548	16305.00	3.8080	3.8077	-0.7626	25.27	0.07	-0.750			
0.2570	16450.64	3.8050	3.8050	-0.7620	25.27	0.07	-0.750			
0.2593	16593.08	3.8020	3.8020	-0.7597	25.27	0.07	-0.750			
0.2616	16740.76	3.7990	3.7991	-0.7602	25.28	0.08	-0.750			
0.2639	16890.80	3.7960	3.7958	-0.7690	25.28	0.08	-0.750			
0.2662	17036.98	3.7930	3.7931	-0.7654	25.28	0.08	-0.750			
0.2685	17185.45	3.7900	3.7899	-0.7654	25.28	0.08	-0.750			
0.2708	17331.16	3.7870	3.7870	-0.7698	25.28	0.08	-0.750			
0.2731	17479.66	3.7840	3.7840	-0.7745	25.28	0.08	-0.750			
0.2754	17628.18	3.7810	3.7809	-0.7772	25.28	0.08	-0.750			
0.2778	17777.79	3.7780	3.7779	-0.7794	25.28	0.08	-0.750			
0.2801	17927.34	3.7750	3.7749	-0.7802	25.28	0.08	-0.750			
0.2825	18077.29	3.7720	3.7719	-0.7859	25.28	0.08	-0.750			
0.2848	18229.75	3.7690	3.7690	-0.7856	25.29	0.09	-0.750			
0.2872	18377.70	3.7660	3.7660	-0.7895	25.29	0.09	-0.750			
0.2896	18531.25	3.7630	3.7629	-0.7999	25.29	0.09	-0.750			
0.2920	18685.72	3.7600	3.7602	-0.8095	25.29	0.09	-0.750			
0.2944	18839.95	3.7570	3.7568	-0.8210	25.29	0.09	-0.750			
0.2969	19000.93	3.7540	3.7540	-0.8260	25.29	0.09	-0.750			
0.2994	19161.43	3.7510	3.7510	-0.8306	25.29	0.09	-0.750			
0.3019	19322.22	3.7480	3.7481	-0.8365	25.29	0.09	-0.750			
0.3044	19481.82	3.7450	3.7451	-0.8381	25.29	0.09	-0.750			
0.3069	19641.67	3.7420	3.7419	-0.8572	25.29	0.09	-0.750			
0.3095	19806.85	3.7390	3.7389	-0.8613	25.29	0.09	-0.750			
0.3121	19974.42	3.7360	3.7358	-0.8723	25.30	0.10	-0.750			
0.3148	20144.84	3.7330	3.7329	-0.8849	25.30	0.10	-0.750			
0.3175	20318.32	3.7300	3.7299	-0.8836	25.30	0.10	-0.750			
0.3201	20488.50	3.7270	3.7269	-0.8842	25.29	0.09	-0.750			
0.3227	20655.50	3.7240	3.7241	-0.8798	25.29	0.09	-0.750			
0.3254	20823.48	3.7210	3.7209	-0.8997	25.29	0.09	-0.750			
0.3280	20994.88	3.7180	3.7181	-0.9061	25.28	0.08	-0.750			
0.3307	21167.31	3.7150	3.7148	-0.9309	25.28	0.08	-0.750			
0.3336	21348.74	3.7120	3.7120	-0.9477	25.28	0.08	-0.750			
0.3364	21530.17	3.7090	3.7090	-0.9909	25.27	0.07	-0.750			
0.3395	21729.59	3.7060	3.7060	-1.0041	25.27	0.07	-0.750			
0.3425	21919.76	3.7030	3.7029	-1.0165	25.27	0.07	-0.750			
0.3456	22118.16	3.7000	3.6998	-1.0191	25.27	0.07	-0.750			
0.3487	22316.17	3.6970	3.6970	-1.0285	25.27	0.07	-0.750	0.357	0.502	
0.3518	22512.39	3.6940	3.6938	-1.0338	25.27	0.07	-0.750			
0.3549	22711.38	3.6910	3.6909	-1.0540	25.27	0.07	-0.750			
0.3580	22913.79	3.6880	3.6879	-1.0726	25.26	0.06	-0.750			
0.3612	23119.67	3.6850	3.6849	-1.0829	25.26	0.06	-0.750			
0.3645	23325.32	3.6820	3.6819	-1.0923	25.25	0.05	-0.750			
0.3678	23540.26	3.6790	3.6790	-1.1235	25.25	0.05	-0.750			
0.3712	23758.23	3.6760	3.6759	-1.1348	25.24	0.04	-0.750			
0.3746	23977.07	3.6730	3.6729	-1.1559	25.23	0.03	-0.750			
0.3781	24195.89	3.6700	3.6702	-1.1921	25.22	0.02	-0.750			
0.3818	24435.59	3.6670	3.6668	-1.2113	25.21	0.01	-0.750			
0.3855	24669.83	3.6640	3.6639	-1.2255	25.21	0.01	-0.750			
0.3892	24905.80	3.6610	3.6609	-1.2415	25.20	0.00	-0.750			
0.3929	25147.37	3.6580	3.6578	-1.2586	25.20	-0.00	-0.750			
0.3968	25393.21	3.6550	3.6548	-1.2793	25.20	-0.00	-0.750			
0.4005	25635.00	3.6520	3.6520	-1.2962	25.19	-0.01	-0.750			
0.4045	25886.99	3.6490	3.6491	-1.3243	25.19	-0.01	-0.750			
0.4085	26142.71	3.6460	3.6459	-1.3428	25.18	-0.02	-0.750			
0.4124	26392.90	3.6430	3.6430	-1.3945	25.18	-0.02	-0.750			
0.4166	26665.17	3.6400	3.6401	-1.3931	25.17	-0.03	-0.750			
0.4210	26943.41	3.6370	3.6369	-1.4240	25.17	-0.03	-0.750			
0.4253	27216.01	3.6340	3.6338	-1.4512	25.16	-0.04	-0.750			
0.4296	27497.22	3.6310	3.6311	-1.4906	25.16	-0.04	-0.750			
0.4342	27789.42	3.6280	3.6277	-1.5296	25.15	-0.05	-0.750			
0.4389	28090.65	3.6250	3.6245	-1.5350	25.14	-0.06	-0.750			
0.4436	28389.78	3.6220	3.6218	-1.5777	25.14	-0.06	-0.750			
0.4483	28689.30	3.6190	3.6189	-1.6094	25.13	-0.07	-0.750			
0.4532	29005.07	3.6160	3.6159	-1.6359	25.12	-0.08	-0.750			
0.4581	29316.01	3.6130	3.6128	-1.6374	25.11	-0.09	-0.750			
0.4630	29634.67	3.6100	3.6101	-1.6639	25.10	-0.10	-0.750			
0.4682	29966.36	3.6070	3.6067	-1.6948	25.10	-0.10	-0.750			
0.4735	30301.03	3.6040	3.6039	-1.7542	25.09	-0.11	-0.750			
0.4787	30635.43	3.6010	3.6012	-1.7679	25.09	-0.11	-0.750			
0.4839	30966.50	3.5980	3.5983	-1.8262	25.09	-0.11	-0.750			
0.4895	31329.35	3.5950	3.5957	-1.8662	25.08	-0.12	-0.750			
0.4952	31689.69	3.5920	3.5920	-1.9028	25.08	-0.12	-0.750			
0.5008	32053.45	3.5890	3.5887	-1.9016	25.07	-0.13	-0.750			
0.5067	32429.31	3.5860	3.5860	-1.9175	25.07	-0.13	-0.750			
0.5125	32797.72	3.5830	3.5832	-1.9868	25.06	-0.14	-0.750			
0.5184	33176.19	3.5800	3.5797	-1.9902	25.06	-0.14	-0.750			
0.5245	33570.16	3.5770	3.5766	-1.9992	25.06	-0.14	-0.750			
0.5305	33952.58	3.5740	3.5743	-2.0244	25.06	-0.14	-0.750			
0.5369	34358.93	3.5710	3.5712	-2.0206	25.06	-0.14	-0.750			
0.5429	34746.43	3.5680	3.5675	-2.0252	25.06	-0.14	-0.750			
0.5488	35126.40	3.5650	3.5649	-2.0306	25.06	-0.14	-0.750			
0.5551	35523.86	3.5620	3.5616	-2.0615	25.06	-0.14	-0.750			
0.5612	35918.42	3.5590	3.5587	-2.1369	25.06	-0.14	-0.750			
0.5677	36332.78	3.5560	3.5562	-2.0764	25.06	-0.14	-0.750			
0.5743	36752.38	3.5530	3.5535	-2.0712	25.06	-0.14	-0.750			
0.5804	37143.56	3.5500	3.5492	-2.0240	25.06	-0.14	-0.750			
0.5863	37520.73	3.5470	3.5468	-1.9774	25.06	-0.14	-0.750			
0.5922	37902.46	3.5440	3.5438	-1.9630	25.06	-0.14	-0.750			
0.5980	38274.66	3.5410	3.5409	-1.9523	25.07	-0.13	-0.750			
0.6038	38642.30	3.5380	3.5377	-1.9506	25.08	-0.12	-0.750			
0.6095	39008.27	3.5350	3.5348	-1.9242	25.09	-0.11	-0.750			
0.6152	39374.45	3.5320	3.5323	-1.8512	25.10	-0.10	-0.750			
0.6208	39731.88	3.5290	3.5296	-1.8552	25.11	-0.09	-0.750			
0.6264	40089.75	3.5260	3.5254	-1.8525	25.12	-0.08	-0.750			
0.6318	40434.26	3.5230	3.5227	-1.7847	25.13	-0.07	-0.750			
0.6370	40771.09	3.5200	3.5199	-1.7549	25.13	-0.07	-0.750			
0.6423	41106.73	3.5170	3.5172	-1.7076	25.14	-0.06	-0.750			
0.6475	41442.66	3.5140	3.5138	-1.6861	25.16	-0.04	-0.750			
0.6526	41765.25	3.5110	3.5111	-1.6432	25.18	-0.02	-0.750			
0.6575	42076.97	3.5080	3.5083	-1.5738	25.19	-0.01	-0.750			
0.6622	42378.45	3.5050	3.5053	-1.5241	25.21	0.01	-0.750			
0.6668	42673.62	3.5020	3.5022	-1.4807	25.22	0.02	-0.750			
0.6711	42949.81	3.4990	3.4989	-1.4221	25.24	0.04	-0.750			
0.6751	43209.46	3.4960	3.4959	-1.3722	25.26	0.06	-0.750			
0.6792	43469.05	3.4930	3.4933	-1.3548	25.27	0.07	-0.750			
0.6834	43735.61	3.4900	3.4898	-1.3249	25.28	0.08	-0.750			
0.6873	43987.29	3.4870	3.4868	-1.2825	25.29	0.09	-0.750			
0.6911	44228.66	3.4840	3.4848	-1.2403	25.30	0.10	-0.750			
0.6946	44455.93	3.4810	3.4809	-1.0872	25.31	0.11	-0.750			
