Ah_balance (normalized)	Ah_balance (mAh)	Voltage - fit (V)	Voltage -  interpolate (V)	dQ/dV (1/V)	Temperature (°C)	Temperature - diff (°C)	Current (C)	R_DC 0ms (mOhm)	R_DC 50ms (mOhm)	R_DC 50 ms PEC (mOhm)
0.0003	18.76	4.1620	4.1621	-0.1345	25.27	0.03	-0.750			
0.0008	49.03	4.1590	4.1591	-0.1793	25.27	0.03	-0.750			
0.0014	88.03	4.1560	4.1559	-0.2221	25.27	0.03	-0.750			
0.0021	134.83	4.1530	4.1529	-0.2632	25.26	0.02	-0.750			
0.0030	189.58	4.1500	4.1501	-0.3031	25.26	0.02	-0.750			
0.0039	252.01	4.1470	4.1470	-0.3421	25.26	0.02	-0.750			
0.0050	320.85	4.1440	4.1440	-0.3862	25.25	0.01	-0.750			
0.0063	400.26	4.1410	4.1410	-0.4178	25.25	0.01	-0.750			
0.0076	484.63	4.1380	4.1379	-0.4511	25.25	0.01	-0.750			
0.0090	574.89	4.1350	4.1350	-0.4874	25.24	0.00	-0.750			
0.0105	672.45	4.1320	4.1318	-0.5165	25.24	-0.00	-0.750			
0.0121	775.45	4.1290	4.1290	-0.5439	25.23	-0.01	-0.750			
0.0138	882.62	4.1260	4.1260	-0.5666	25.23	-0.01	-0.750			
0.0155	992.29	4.1230	4.1231	-0.5878	25.22	-0.02	-0.750			
0.0174	1111.21	4.1200	4.1199	-0.6069	25.22	-0.02	-0.750			
0.0192	1227.75	4.1170	4.1170	-0.6198	25.21	-0.03	-0.750			
0.0211	1348.33	4.1140	4.1140	-0.6282	25.20	-0.04	-0.750			
0.0230	1471.17	4.1110	4.1107	-0.6391	25.20	-0.04	-0.750			
0.0249	1594.40	4.1080	4.1081	-0.6541	25.20	-0.04	-0.750			
0.0269	1720.38	4.1050	4.1050	-0.6680	25.20	-0.04	-0.750			
0.0289	1850.81	4.1020	4.1019	-0.6774	25.19	-0.05	-0.750			
0.0310	1983.60	4.0990	4.0990	-0.6898	25.19	-0.05	-0.750			
0.0331	2116.29	4.0960	4.0960	-0.6932	25.19	-0.05	-0.750			
0.0352	2251.01	4.0930	4.0931	-0.7019	25.19	-0.05	-0.750			
0.0373	2386.22	4.0900	4.0900	-0.7077	25.19	-0.05	-0.750			
0.0394	2520.77	4.0870	4.0870	-0.7228	25.19	-0.05	-0.750			
0.0416	2662.85	4.0840	4.0839	-0.7286	25.19	-0.05	-0.750			
0.0439	2807.10	4.0810	4.0808	-0.7285	25.19	-0.05	-0.750			
0.0461	2947.97	4.0780	4.0779	-0.7310	25.19	-0.05	-0.750			
0.0482	3087.76	4.0750	4.0749	-0.7310	25.19	-0.05	-0.750			
0.0504	3226.59	4.0720	4.0719	-0.7276	25.19	-0.05	-0.750			
0.0525	3362.60	4.0690	4.0689	-0.7356	25.19	-0.05	-0.750			
0.0547	3503.22	4.0660	4.0660	-0.7295	25.19	-0.05	-0.750			
0.0571	3651.99	4.0630	4.0629	-0.7468	25.19	-0.05	-0.750			
0.0593	3794.76	4.0600	4.0606	-0.7483	25.19	-0.05	-0.750			
0.0615	3938.11	4.0570	4.0569	-0.7470	25.19	-0.05	-0.750			
0.0638	4081.26	4.0540	4.0539	-0.7469	25.19	-0.05	-0.750			
0.0659	4220.46	4.0510	4.0511	-0.7468	25.20	-0.04	-0.750			
0.0682	4367.36	4.0480	4.0480	-0.7589	25.20	-0.04	-0.750			
0.0705	4513.13	4.0450	4.0449	-0.7611	25.20	-0.04	-0.750			
0.0728	4659.68	4.0420	4.0421	-0.7600	25.20	-0.04	-0.750			
0.0751	4805.31	4.0390	4.0390	-0.7578	25.20	-0.04	-0.750			
0.0774	4951.23	4.0360	4.0360	-0.7697	25.20	-0.04	-0.750			
0.0797	5100.83	4.0330	4.0328	-0.7638	25.20	-0.04	-0.750			
0.0820	5247.04	4.0300	4.0299	-0.7679	25.20	-0.04	-0.750			
0.0843	5395.54	4.0270	4.0269	-0.7677	25.20	-0.04	-0.750			
0.0866	5542.79	4.0240	4.0239	-0.7717	25.20	-0.04	-0.750			
0.0889	5690.66	4.0210	4.0209	-0.7779	25.20	-0.04	-0.750			
0.0912	5839.07	4.0180	4.0179	-0.7730	25.21	-0.03	-0.750			
0.0936	5989.49	4.0150	4.0150	-0.7778	25.21	-0.03	-0.750			
0.0959	6138.99	4.0120	4.0119	-0.7777	25.21	-0.03	-0.750			
0.0982	6286.87	4.0090	4.0089	-0.7764	25.21	-0.03	-0.750			
0.1006	6435.80	4.0060	4.0059	-0.7843	25.21	-0.03	-0.750			
0.1029	6585.42	4.0030	4.0029	-0.7809	25.21	-0.03	-0.750			
0.1052	6735.44	4.0000	4.0000	-0.7819	25.22	-0.02	-0.750			
0.1076	6889.46	3.9970	3.9969	-0.7903	25.22	-0.02	-0.750			
0.1100	7042.34	3.9940	3.9943	-0.7902	25.22	-0.02	-0.750			
0.1124	7193.57	3.9910	3.9908	-0.7880	25.22	-0.02	-0.750			
0.1148	7344.05	3.9880	3.9880	-0.8039	25.22	-0.02	-0.750			
0.1172	7500.98	3.9850	3.9849	-0.8012	25.23	-0.01	-0.750			
0.1196	7657.19	3.9820	3.9817	-0.8008	25.23	-0.01	-0.750			
0.1221	7811.37	3.9790	3.9799	-0.8012	25.23	-0.01	-0.750			
0.1245	7965.05	3.9760	3.9759	-0.7947	25.23	-0.01	-0.750			
0.1268	8115.64	3.9730	3.9729	-0.7999	25.24	-0.00	-0.750			
0.1291	8264.62	3.9700	3.9700	-0.7981	25.24	0.00	-0.750			
0.1316	8422.86	3.9670	3.9669	-0.8046	25.25	0.01	-0.750			
0.1340	8576.99	3.9640	3.9640	-0.8058	25.25	0.01	-0.750			
0.1364	8732.55	3.9610	3.9610	-0.8057	25.25	0.01	-0.750			
0.1388	8885.55	3.9580	3.9580	-0.8082	25.25	0.01	-0.750			
0.1413	9040.28	3.9550	3.9549	-0.8085	25.26	0.02	-0.750			
0.1437	9193.93	3.9520	3.9518	-0.8111	25.26	0.02	-0.750			
0.1461	9351.73	3.9490	3.9491	-0.8203	25.26	0.02	-0.750			
0.1486	9510.71	3.9460	3.9459	-0.8277	25.26	0.02	-0.750			
0.1511	9671.36	3.9430	3.9430	-0.8389	25.26	0.02	-0.750			
0.1537	9836.48	3.9400	3.9398	-0.8379	25.27	0.03	-0.750			
0.1562	9997.15	3.9370	3.9369	-0.8337	25.27	0.03	-0.750			
0.1588	10160.07	3.9340	3.9339	-0.8311	25.27	0.03	-0.750			
0.1612	10316.31	3.9310	3.9308	-0.8230	25.27	0.03	-0.750			
0.1636	10473.46	3.9280	3.9280	-0.8279	25.27	0.03	-0.750			
0.1661	10628.84	3.9250	3.9249	-0.8198	25.27	0.03	-0.750			
0.1686	10789.29	3.9220	3.9217	-0.8279	25.27	0.03	-0.750			
0.1711	10948.18	3.9190	3.9193	-0.8284	25.27	0.03	-0.750			
0.1735	11104.55	3.9160	3.9159	-0.8337	25.27	0.03	-0.750			
0.1760	11265.98	3.9130	3.9129	-0.8413	25.27	0.03	-0.750			
0.1785	11427.12	3.9100	3.9098	-0.8454	25.28	0.04	-0.750			
0.1811	11587.87	3.9070	3.9071	-0.8434	25.28	0.04	-0.750			
0.1837	11756.93	3.9040	3.9041	-0.8578	25.28	0.04	-0.750			
0.1862	11917.02	3.9010	3.9009	-0.8693	25.28	0.04	-0.750			
0.1888	12084.77	3.8980	3.8980	-0.8579	25.28	0.04	-0.750			
0.1914	12251.56	3.8950	3.8949	-0.8506	25.29	0.05	-0.750			
0.1940	12414.87	3.8920	3.8919	-0.8461	25.29	0.05	-0.750			
0.1965	12577.32	3.8890	3.8892	-0.8472	25.29	0.05	-0.750			
0.1991	12739.56	3.8860	3.8859	-0.8427	25.29	0.05	-0.750			
0.2015	12899.11	3.8830	3.8828	-0.8492	25.29	0.05	-0.750			
0.2041	13063.60	3.8800	3.8799	-0.8441	25.30	0.06	-0.750			
0.2067	13228.33	3.8770	3.8769	-0.8534	25.30	0.06	-0.750			
0.2093	13392.25	3.8740	3.8745	-0.8511	25.30	0.06	-0.750			
0.2118	13557.72	3.8710	3.8708	-0.8392	25.30	0.06	-0.750			
0.2143	13715.31	3.8680	3.8679	-0.8426	25.30	0.06	-0.750			
0.2168	13873.84	3.8650	3.8651	-0.8410	25.30	0.06	-0.750			
0.2193	14037.12	3.8620	3.8619	-0.8544	25.30	0.06	-0.750			
0.2219	14202.19	3.8590	3.8593	-0.8548	25.30	0.06	-0.750			
0.2244	14361.00	3.8560	3.8561	-0.8706	25.30	0.06	-0.750			
0.2271	14534.15	3.8530	3.8530	-0.8638	25.31	0.07	-0.750			
0.2297	14703.52	3.8500	3.8498	-0.8570	25.31	0.07	-0.750			
0.2323	14868.21	3.8470	3.8469	-0.8494	25.32	0.08	-0.750			
0.2348	15029.02	3.8440	3.8446	-0.8413	25.32	0.08	-0.750			
0.2373	15186.30	3.8410	3.8409	-0.8410	25.32	0.08	-0.750			
0.2398	15347.96	3.8380	3.8378	-0.8378	25.32	0.08	-0.750			
0.2422	15503.89	3.8350	3.8350	-0.8271	25.32	0.08	-0.750			
0.2448	15669.12	3.8320	3.8320	-0.8386	25.32	0.08	-0.750			
0.2474	15831.97	3.8290	3.8292	-0.8390	25.32	0.08	-0.750			
0.2499	15992.07	3.8260	3.8258	-0.8288	25.32	0.08	-0.750			
0.2523	16146.86	3.8230	3.8230	-0.8217	25.33	0.09	-0.750			
0.2548	16304.64	3.8200	3.8200	-0.8193	25.33	0.09	-0.750			
0.2572	16463.87	3.8170	3.8169	-0.8240	25.34	0.10	-0.750			
0.2597	16621.88	3.8140	3.8141	-0.8170	25.34	0.10	-0.750			
0.2622	16777.77	3.8110	3.8110	-0.8119	25.34	0.10	-0.750			
0.2646	16933.42	3.8080	3.8080	-0.8221	25.34	0.10	-0.750			
0.2671	17094.82	3.8050	3.8049	-0.8104	25.34	0.10	-0.750			
0.2695	17250.40	3.8020	3.8018	-0.8035	25.34	0.10	-0.750			
0.2719	17403.19	3.7990	3.7998	-0.7960	25.34	0.10	-0.750			
0.2743	17555.66	3.7960	3.7958	-0.7849	25.34	0.10	-0.750			
0.2766	17704.00	3.7930	3.7929	-0.7825	25.35	0.11	-0.750			
0.2789	17848.97	3.7900	3.7900	-0.7712	25.35	0.11	-0.750			
0.2813	18000.62	3.7870	3.7870	-0.7837	25.35	0.11	-0.750			
0.2836	18152.06	3.7840	3.7840	-0.7816	25.36	0.12	-0.750			
0.2860	18301.16	3.7810	3.7808	-0.7775	25.36	0.12	-0.750			
0.2883	18449.95	3.7780	3.7780	-0.7797	25.36	0.12	-0.750			
0.2906	18599.25	3.7750	3.7751	-0.7801	25.36	0.12	-0.750			
0.2929	18747.51	3.7720	3.7720	-0.7778	25.36	0.12	-0.750			
0.2953	18898.86	3.7690	3.7690	-0.7818	25.36	0.12	-0.750			
0.2976	19048.63	3.7660	3.7661	-0.7836	25.36	0.12	-0.750			
0.3000	19200.94	3.7630	3.7629	-0.7778	25.36	0.12	-0.750			
0.3024	19353.66	3.7600	3.7599	-0.7960	25.36	0.12	-0.750			
0.3048	19507.45	3.7570	3.7570	-0.7958	25.36	0.12	-0.750			
0.3072	19660.77	3.7540	3.7536	-0.8029	25.36	0.12	-0.750			
0.3096	19814.84	3.7510	3.7520	-0.8081	25.36	0.12	-0.750			
0.3120	19966.74	3.7480	3.7478	-0.8200	25.36	0.12	-0.750			
0.3145	20125.00	3.7450	3.7449	-0.8277	25.36	0.12	-0.750			
0.3169	20280.54	3.7420	3.7420	-0.8196	25.37	0.13	-0.750			
0.3195	20448.50	3.7390	3.7389	-0.8536	25.37	0.13	-0.750			
0.3221	20614.52	3.7360	3.7364	-0.8602	25.37	0.13	-0.750			
0.3247	20778.30	3.7330	3.7329	-0.8666	25.37	0.13	-0.750			
0.3273	20944.59	3.7300	3.7300	-0.8714	25.37	0.13	-0.750			
0.3299	21111.75	3.7270	3.7270	-0.8855	25.37	0.13	-0.750			
0.3326	21283.63	3.7240	3.7239	-0.9070	25.37	0.13	-0.750			
0.3353	21459.74	3.7210	3.7210	-0.9131	25.37	0.13	-0.750			
0.3381	21637.01	3.7180	3.7181	-0.9425	25.36	0.12	-0.750			
0.3410	21822.09	3.7150	3.7149	-0.9537	25.36	0.12	-0.750			
0.3439	22007.92	3.7120	3.7117	-0.9602	25.36	0.12	-0.750			
0.3468	22192.62	3.7090	3.7097	-0.9765	25.35	0.11	-0.750			
0.3497	22379.04	3.7060	3.7059	-0.9939	25.34	0.10	-0.750			
0.3527	22570.95	3.7030	3.7029	-1.0064	25.34	0.10	-0.750			
0.3557	22765.98	3.7000	3.6999	-1.0228	25.33	0.09	-0.750	0.425	0.548	
0.3588	22966.25	3.6970	3.6970	-1.0455	25.32	0.08	-0.750			
0.3620	23168.43	3.6940	3.6939	-1.0713	25.32	0.08	-0.750			
0.3653	23377.46	3.6910	3.6909	-1.0837	25.31	0.07	-0.750			
0.3685	23582.75	3.6880	3.6879	-1.0954	25.31	0.07	-0.750			
0.3718	23795.36	3.6850	3.6856	-1.1335	25.30	0.06	-0.750			
0.3754	24022.45	3.6820	3.6817	-1.1582	25.29	0.05	-0.750			
0.3789	24246.94	3.6790	3.6788	-1.1706	25.29	0.05	-0.750			
0.3824	24473.07	3.6760	3.6759	-1.1853	25.28	0.04	-0.750			
0.3860	24705.40	3.6730	3.6727	-1.2138	25.28	0.04	-0.750			
0.3896	24936.85	3.6700	3.6699	-1.2309	25.27	0.03	-0.750			
0.3932	25165.74	3.6670	3.6670	-1.2401	25.27	0.03	-0.750			
0.3970	25409.68	3.6640	3.6641	-1.2993	25.26	0.02	-0.750			
0.4010	25665.50	3.6610	3.6609	-1.3208	25.25	0.01	-0.750			
0.4050	25921.57	3.6580	3.6578	-1.3354	25.23	-0.01	-0.750			
0.4091	26182.37	3.6550	3.6553	-1.3731	25.22	-0.02	-0.750			
0.4134	26454.94	3.6520	3.6518	-1.3821	25.21	-0.03	-0.750			
0.4175	26720.10	3.6490	3.6488	-1.3779	25.21	-0.03	-0.750			
0.4216	26983.02	3.6460	3.6467	-1.3901	25.20	-0.04	-0.750			
0.4258	27253.44	3.6430	3.6428	-1.3930	25.20	-0.04	-0.750			
0.4300	27518.81	3.6400	3.6398	-1.4305	25.19	-0.05	-0.750			
0.4343	27794.49	3.6370	3.6372	-1.4421	25.19	-0.05	-0.750			
0.4387	28074.96	3.6340	3.6337	-1.5021	25.18	-0.06	-0.750			
0.4433	28372.09	3.6310	3.6313	-1.5294	25.18	-0.06	-0.750			
0.4480	28670.02	3.6280	3.6277	-1.5660	25.17	-0.07	-0.750			
0.4527	28974.63	3.6250	3.6254	-1.6002	25.16	-0.08	-0.750			
0.4576	29284.29	3.6220	3.6215	-1.6325	25.15	-0.09	-0.750			
0.4627	29610.15	3.6190	3.6193	-1.7042	25.15	-0.09	-0.750			
0.4679	29942.96	3.6160	3.6166	-1.7413	25.14	-0.10	-0.750			
0.4732	30287.13	3.6130	3.6129	-1.7881	25.14	-0.10	-0.750			
0.4787	30638.95	3.6100	3.6101	-1.8516	25.13	-0.11	-0.750			
0.4842	30988.50	3.6070	3.6072	-1.8824	25.12	-0.12	-0.750			
0.4899	31352.63	3.6040	3.6045	-1.8859	25.11	-0.13	-0.750			
0.4956	31718.04	3.6010	3.6013	-1.8896	25.10	-0.14	-0.750			
0.5013	32086.00	3.5980	3.5979	-1.9346	25.10	-0.14	-0.750			
0.5072	32463.30	3.5950	3.5949	-2.0128	25.10	-0.14	-0.750			
0.5134	32859.28	3.5920	3.5915	-2.0158	25.09	-0.15	-0.750			
0.5195	33246.02	3.5890	3.5892	-2.0426	25.08	-0.16	-0.750			
0.5258	33654.20	3.5860	3.5859	-2.0918	25.08	-0.16	-0.750			
0.5321	34052.89	3.5830	3.5826	-2.1084	25.08	-0.16	-0.750			
0.5384	34458.17	3.5800	3.5800	-2.1530	25.07	-0.17	-0.750			
0.5450	34881.43	3.5770	3.5770	-2.1725	25.06	-0.18	-0.750			
0.5513	35282.33	3.5740	3.5743	-2.2153	25.06	-0.18	-0.750			
0.5581	35721.57	3.5710	3.5711	-2.2627	25.07	-0.17	-0.750			
0.5650	36162.43	3.5680	3.5676	-2.3110	25.07	-0.17	-0.750			
0.5720	36611.15	3.5650	3.5656	-2.2531	25.06	-0.18	-0.750			
0.5790	37058.67	3.5620	3.5623	-2.2963	25.07	-0.17	-0.750			
0.5857	37486.76	3.5590	3.5590	-2.1961	25.07	-0.17	-0.750			
0.5923	37904.77	3.5560	3.5562	-2.1866	25.08	-0.16	-0.750			
0.5988	38322.44	3.5530	3.5531	-2.1437	25.08	-0.16	-0.750			
0.6053	38736.73	3.5500	3.5500	-2.1511	25.08	-0.16	-0.750			
0.6116	39141.34	3.5470	3.5468	-2.1067	25.08	-0.16	-0.750			
0.6179	39544.11	3.5440	3.5437	-2.0868	25.09	-0.15	-0.750			
0.6242	39948.52	3.5410	3.5411	-2.0456	25.10	-0.14	-0.750			
0.6305	40355.11	3.5380	3.5377	-2.0364	25.11	-0.13	-0.750			
0.6365	40733.61	3.5350	3.5351	-1.9571	25.11	-0.13	-0.750			
0.6422	41099.61	3.5320	3.5321	-1.9039	25.12	-0.12	-0.750			
0.6479	41463.38	3.5290	3.5291	-1.8476	25.13	-0.11	-0.750			
0.6534	41815.95	3.5260	3.5261	-1.8187	25.15	-0.09	-0.750			
0.6588	42163.73	3.5230	3.5232	-1.7877	25.17	-0.07	-0.750			
0.6640	42495.18	3.5200	3.5198	-1.7367	25.18	-0.06	-0.750			
0.6692	42831.73	3.5170	3.5172	-1.7145	25.19	-0.05	-0.750			
0.6743	43157.81	3.5140	3.5136	-1.6759	25.20	-0.04	-0.750			
0.6793	43474.93	3.5110	3.5109	-1.6202	25.21	-0.03	-0.750			
0.6842	43788.18	3.5080	3.5084	-1.5847	25.23	-0.01	-0.750			
0.6889	44087.50	3.5050	3.5051	-1.5326	25.24	0.00	-0.750			
0.6933	44372.86	3.5020	3.5018	-1.4699	25.26	0.02	-0.750			
0.6977	44652.32	3.4990	3.4992	-1.4396	25.27	0.03	-0.750			
0.7019	44924.76	3.4960	3.4959	-1.4071	25.29	0.05	-0.750			
0.7060	45186.03	3.4930	3.4930	-1.3711	25.31	0.07	-0.750			
0.7101	45448.60	3.4900	3.4902	-1.3257	25.32	0.08	-0.750			
0.7140	45698.87	3.4870	3.4870	-1.2686	25.34	0.10	-0.750			
