Ah_balance (normalized)	Ah_balance (mAh)	Voltage - fit (V)	Voltage -  interpolate (V)	dQ/dV (1/V)	Temperature (°C)	Temperature - diff (°C)	Current (C)	R_DC 0ms (mOhm)	R_DC 50ms (mOhm)	R_DC 50 ms PEC (mOhm)
0.0003	17.21	4.1650	4.1650	-0.1212	25.21	0.01	-0.750			
0.0007	47.22	4.1620	4.1617	-0.1793	25.21	0.01	-0.750			
0.0014	87.93	4.1590	4.1589	-0.2277	25.21	0.01	-0.750			
0.0021	136.41	4.1560	4.1560	-0.2702	25.21	0.01	-0.750			
0.0030	191.72	4.1530	4.1532	-0.3153	25.21	0.01	-0.750			
0.0040	257.27	4.1500	4.1501	-0.3594	25.21	0.01	-0.750			
0.0052	329.93	4.1470	4.1469	-0.4012	25.20	0.00	-0.750			
0.0064	411.30	4.1440	4.1439	-0.4429	25.20	0.00	-0.750			
0.0078	502.34	4.1410	4.1412	-0.4790	25.20	0.00	-0.750			
0.0093	597.51	4.1380	4.1380	-0.5143	25.20	-0.00	-0.750			
0.0109	700.05	4.1350	4.1352	-0.5523	25.20	-0.00	-0.750			
0.0126	809.25	4.1320	4.1319	-0.5825	25.19	-0.01	-0.750			
0.0145	925.02	4.1290	4.1287	-0.6096	25.19	-0.01	-0.750			
0.0164	1046.96	4.1260	4.1261	-0.6342	25.19	-0.01	-0.750			
0.0183	1172.37	4.1230	4.1230	-0.6479	25.18	-0.02	-0.750			
0.0203	1302.10	4.1200	4.1202	-0.6662	25.18	-0.02	-0.750			
0.0223	1429.43	4.1170	4.1169	-0.6768	25.18	-0.02	-0.750			
0.0243	1557.67	4.1140	4.1138	-0.6829	25.18	-0.02	-0.750			
0.0264	1691.07	4.1110	4.1110	-0.7067	25.18	-0.02	-0.750			
0.0286	1829.85	4.1080	4.1080	-0.7120	25.17	-0.03	-0.750			
0.0308	1971.67	4.1050	4.1048	-0.7194	25.17	-0.03	-0.750			
0.0330	2110.49	4.1020	4.1027	-0.7214	25.17	-0.03	-0.750			
0.0351	2247.36	4.0990	4.0989	-0.7256	25.17	-0.03	-0.750			
0.0373	2384.97	4.0960	4.0960	-0.7342	25.17	-0.03	-0.750			
0.0394	2524.59	4.0930	4.0929	-0.7356	25.16	-0.04	-0.750			
0.0417	2669.65	4.0900	4.0900	-0.7510	25.16	-0.04	-0.750			
0.0440	2815.48	4.0870	4.0870	-0.7520	25.16	-0.04	-0.750			
0.0463	2960.74	4.0840	4.0840	-0.7600	25.16	-0.04	-0.750			
0.0485	3105.64	4.0810	4.0811	-0.7621	25.16	-0.04	-0.750			
0.0508	3250.43	4.0780	4.0780	-0.7586	25.16	-0.04	-0.750			
0.0531	3395.89	4.0750	4.0749	-0.7658	25.17	-0.03	-0.750			
0.0554	3546.18	4.0720	4.0720	-0.7703	25.17	-0.03	-0.750			
0.0577	3694.12	4.0690	4.0690	-0.7743	25.17	-0.03	-0.750			
0.0600	3843.04	4.0660	4.0660	-0.7774	25.17	-0.03	-0.750			
0.0624	3991.30	4.0630	4.0631	-0.7796	25.17	-0.03	-0.750			
0.0647	4143.30	4.0600	4.0599	-0.7848	25.17	-0.03	-0.750			
0.0671	4294.85	4.0570	4.0570	-0.7815	25.17	-0.03	-0.750			
0.0695	4445.81	4.0540	4.0539	-0.7812	25.17	-0.03	-0.750			
0.0718	4596.35	4.0510	4.0509	-0.7812	25.17	-0.03	-0.750			
0.0741	4744.79	4.0480	4.0481	-0.7797	25.17	-0.03	-0.750			
0.0765	4893.89	4.0450	4.0448	-0.7801	25.17	-0.03	-0.750			
0.0788	5041.22	4.0420	4.0420	-0.7845	25.17	-0.03	-0.750			
0.0812	5194.65	4.0390	4.0389	-0.7910	25.17	-0.03	-0.750			
0.0835	5347.14	4.0360	4.0361	-0.7975	25.17	-0.03	-0.750			
0.0860	5503.08	4.0330	4.0330	-0.7983	25.17	-0.03	-0.750			
0.0884	5656.17	4.0300	4.0300	-0.8069	25.17	-0.03	-0.750			
0.0908	5813.44	4.0270	4.0270	-0.8019	25.18	-0.02	-0.750			
0.0932	5967.59	4.0240	4.0239	-0.8001	25.18	-0.02	-0.750			
0.0956	6119.00	4.0210	4.0213	-0.8020	25.18	-0.02	-0.750			
0.0980	6274.14	4.0180	4.0180	-0.8016	25.18	-0.02	-0.750			
0.1004	6426.70	4.0150	4.0148	-0.8135	25.18	-0.02	-0.750			
0.1029	6586.53	4.0120	4.0119	-0.8117	25.19	-0.01	-0.750			
0.1054	6742.89	4.0090	4.0089	-0.8152	25.19	-0.01	-0.750			
0.1078	6901.18	4.0060	4.0066	-0.8135	25.19	-0.01	-0.750			
0.1103	7056.87	4.0030	4.0029	-0.8082	25.19	-0.01	-0.750			
0.1126	7209.13	4.0000	3.9999	-0.8089	25.19	-0.01	-0.750			
0.1150	7362.91	3.9970	3.9970	-0.8039	25.20	-0.00	-0.750			
0.1175	7518.74	3.9940	3.9939	-0.8163	25.20	-0.00	-0.750			
0.1199	7675.37	3.9910	3.9911	-0.8193	25.20	-0.00	-0.750			
0.1224	7832.94	3.9880	3.9880	-0.8266	25.20	0.00	-0.750			
0.1249	7994.29	3.9850	3.9849	-0.8349	25.20	0.00	-0.750			
0.1274	8155.13	3.9820	3.9819	-0.8363	25.20	0.00	-0.750			
0.1300	8317.66	3.9790	3.9791	-0.8317	25.20	0.00	-0.750			
0.1325	8480.05	3.9760	3.9760	-0.8377	25.20	0.00	-0.750			
0.1350	8637.89	3.9730	3.9729	-0.8332	25.20	0.00	-0.750			
0.1374	8795.62	3.9700	3.9700	-0.8403	25.21	0.01	-0.750			
0.1400	8958.41	3.9670	3.9668	-0.8396	25.21	0.01	-0.750			
0.1425	9122.82	3.9640	3.9639	-0.8414	25.22	0.02	-0.750			
0.1451	9287.74	3.9610	3.9613	-0.8441	25.22	0.02	-0.750			
0.1477	9449.73	3.9580	3.9579	-0.8412	25.22	0.02	-0.750			
0.1501	9608.28	3.9550	3.9550	-0.8383	25.22	0.02	-0.750			
0.1526	9768.72	3.9520	3.9520	-0.8353	25.22	0.02	-0.750			
0.1551	9928.82	3.9490	3.9489	-0.8424	25.22	0.02	-0.750			
0.1577	10089.83	3.9460	3.9462	-0.8462	25.22	0.02	-0.750			
0.1602	10251.47	3.9430	3.9430	-0.8565	25.22	0.02	-0.750			
0.1628	10417.81	3.9400	3.9398	-0.8550	25.23	0.03	-0.750			
0.1653	10581.21	3.9370	3.9370	-0.8593	25.23	0.03	-0.750			
0.1679	10746.79	3.9340	3.9341	-0.8653	25.24	0.04	-0.750			
0.1706	10917.19	3.9310	3.9314	-0.8730	25.24	0.04	-0.750			
0.1732	11082.58	3.9280	3.9279	-0.8793	25.24	0.04	-0.750			
0.1758	11251.34	3.9250	3.9251	-0.8741	25.24	0.04	-0.750			
0.1784	11420.09	3.9220	3.9220	-0.8740	25.25	0.05	-0.750			
0.1811	11590.96	3.9190	3.9189	-0.8801	25.25	0.05	-0.750			
0.1837	11757.08	3.9160	3.9161	-0.8728	25.25	0.05	-0.750			
0.1863	11922.92	3.9130	3.9130	-0.8777	25.25	0.05	-0.750			
0.1889	12091.78	3.9100	3.9100	-0.8796	25.25	0.05	-0.750			
0.1915	12259.14	3.9070	3.9069	-0.8791	25.26	0.06	-0.750			
0.1943	12432.18	3.9040	3.9040	-0.8847	25.26	0.06	-0.750			
0.1969	12601.89	3.9010	3.9010	-0.8860	25.26	0.06	-0.750			
0.1996	12772.03	3.8980	3.8980	-0.8919	25.26	0.06	-0.750			
0.2022	12943.33	3.8950	3.8949	-0.8911	25.27	0.07	-0.750			
0.2049	13114.21	3.8920	3.8919	-0.8875	25.27	0.07	-0.750			
0.2076	13286.31	3.8890	3.8893	-0.8896	25.27	0.07	-0.750			
0.2102	13455.84	3.8860	3.8859	-0.8962	25.27	0.07	-0.750			
0.2130	13629.49	3.8830	3.8829	-0.8929	25.27	0.07	-0.750			
0.2156	13799.41	3.8800	3.8800	-0.8846	25.28	0.08	-0.750			
0.2183	13968.17	3.8770	3.8770	-0.8824	25.28	0.08	-0.750			
0.2209	14140.36	3.8740	3.8745	-0.8888	25.28	0.08	-0.750			
0.2236	14310.12	3.8710	3.8709	-0.8931	25.28	0.08	-0.750			
0.2263	14480.29	3.8680	3.8679	-0.8871	25.28	0.08	-0.750			
0.2289	14648.31	3.8650	3.8651	-0.8847	25.29	0.09	-0.750			
0.2316	14821.00	3.8620	3.8621	-0.8974	25.29	0.09	-0.750			
0.2343	14993.99	3.8590	3.8588	-0.9045	25.29	0.09	-0.750			
0.2370	15167.27	3.8560	3.8560	-0.9131	25.30	0.10	-0.750			
0.2398	15345.13	3.8530	3.8529	-0.9113	25.30	0.10	-0.750			
0.2425	15521.85	3.8500	3.8500	-0.9130	25.31	0.11	-0.750			
0.2453	15701.04	3.8470	3.8472	-0.9072	25.31	0.11	-0.750			
0.2480	15872.36	3.8440	3.8440	-0.9079	25.31	0.11	-0.750			
0.2507	16044.88	3.8410	3.8409	-0.9018	25.31	0.11	-0.750			
0.2534	16214.65	3.8380	3.8379	-0.8968	25.32	0.12	-0.750			
0.2560	16387.14	3.8350	3.8350	-0.9017	25.32	0.12	-0.750			
0.2588	16562.03	3.8320	3.8322	-0.9018	25.32	0.12	-0.750			
0.2615	16737.06	3.8290	3.8290	-0.9024	25.32	0.12	-0.750			
0.2642	16910.39	3.8260	3.8260	-0.9006	25.32	0.12	-0.750			
0.2669	17079.77	3.8230	3.8231	-0.8940	25.33	0.13	-0.750			
0.2696	17253.44	3.8200	3.8198	-0.8938	25.33	0.13	-0.750			
0.2722	17421.92	3.8170	3.8169	-0.8944	25.33	0.13	-0.750			
0.2749	17593.36	3.8140	3.8140	-0.8981	25.34	0.14	-0.750			
0.2776	17765.44	3.8110	3.8111	-0.9035	25.34	0.14	-0.750			
0.2803	17938.31	3.8080	3.8077	-0.9013	25.35	0.15	-0.750			
0.2830	18114.77	3.8050	3.8056	-0.9058	25.35	0.15	-0.750			
0.2858	18288.07	3.8020	3.8020	-0.9177	25.35	0.15	-0.750			
0.2886	18467.23	3.7990	3.7991	-0.9183	25.35	0.15	-0.750			
0.2913	18642.64	3.7960	3.7958	-0.9134	25.35	0.15	-0.750			
0.2940	18817.40	3.7930	3.7929	-0.9101	25.35	0.15	-0.750			
0.2968	18992.71	3.7900	3.7899	-0.9047	25.35	0.15	-0.750			
0.2995	19167.11	3.7870	3.7869	-0.9059	25.36	0.16	-0.750			
0.3022	19340.31	3.7840	3.7840	-0.8953	25.36	0.16	-0.750			
0.3048	19507.66	3.7810	3.7810	-0.8881	25.36	0.16	-0.750			
0.3075	19680.19	3.7780	3.7780	-0.8904	25.37	0.17	-0.750			
0.3101	19849.50	3.7750	3.7749	-0.8928	25.37	0.17	-0.750			
0.3128	20020.47	3.7720	3.7720	-0.8907	25.37	0.17	-0.750			
0.3155	20190.93	3.7690	3.7690	-0.8920	25.37	0.17	-0.750			
0.3182	20361.72	3.7660	3.7660	-0.8898	25.37	0.17	-0.750			
0.3209	20536.15	3.7630	3.7633	-0.8947	25.37	0.17	-0.750			
0.3235	20706.31	3.7600	3.7601	-0.9058	25.37	0.17	-0.750			
0.3263	20883.47	3.7570	3.7569	-0.9023	25.37	0.17	-0.750			
0.3290	21057.12	3.7540	3.7539	-0.8984	25.38	0.18	-0.750			
0.3317	21230.68	3.7510	3.7507	-0.9008	25.38	0.18	-0.750			
0.3344	21401.01	3.7480	3.7479	-0.8948	25.38	0.18	-0.750			
0.3371	21572.81	3.7450	3.7449	-0.8996	25.38	0.18	-0.750			
0.3398	21744.71	3.7420	3.7419	-0.8927	25.38	0.18	-0.750			
0.3425	21917.16	3.7390	3.7389	-0.9089	25.38	0.18	-0.750			
0.3452	22090.02	3.7360	3.7361	-0.9132	25.38	0.18	-0.750			
0.3479	22262.71	3.7330	3.7329	-0.9269	25.38	0.18	-0.750			
0.3507	22442.80	3.7300	3.7301	-0.9303	25.38	0.18	-0.750			
0.3535	22623.89	3.7270	3.7269	-0.9359	25.38	0.18	-0.750			
0.3563	22803.42	3.7240	3.7239	-0.9421	25.38	0.18	-0.750			
0.3592	22988.77	3.7210	3.7211	-0.9575	25.38	0.18	-0.750			
0.3621	23173.27	3.7180	3.7178	-0.9715	25.38	0.18	-0.750			
0.3649	23355.00	3.7150	3.7149	-0.9981	25.38	0.18	-0.750			
0.3680	23551.42	3.7120	3.7118	-0.9991	25.38	0.18	-0.750			
0.3711	23748.54	3.7090	3.7093	-1.0175	25.38	0.18	-0.750			
0.3742	23946.92	3.7060	3.7057	-1.0304	25.38	0.18	-0.750			
0.3772	24142.91	3.7030	3.7028	-1.0378	25.38	0.18	-0.750	0.388	0.492	
0.3802	24335.92	3.7000	3.6998	-1.0372	25.38	0.18	-0.750			
0.3835	24541.55	3.6970	3.6971	-1.0792	25.38	0.18	-0.750			
0.3867	24748.23	3.6940	3.6940	-1.0809	25.38	0.18	-0.750			
0.3901	24965.56	3.6910	3.6909	-1.1162	25.37	0.17	-0.750			
0.3933	25173.30	3.6880	3.6880	-1.1545	25.37	0.17	-0.750			
0.3968	25398.31	3.6850	3.6850	-1.1650	25.37	0.17	-0.750			
0.4004	25626.69	3.6820	3.6818	-1.1839	25.36	0.16	-0.750			
0.4040	25855.93	3.6790	3.6789	-1.2018	25.36	0.16	-0.750			
0.4076	26085.76	3.6760	3.6765	-1.2309	25.35	0.15	-0.750			
0.4114	26328.63	3.6730	3.6729	-1.2673	25.34	0.14	-0.750			
0.4152	26573.18	3.6700	3.6698	-1.2809	25.33	0.13	-0.750			
0.4190	26819.01	3.6670	3.6669	-1.3189	25.32	0.12	-0.750			
0.4232	27081.65	3.6640	3.6640	-1.3577	25.32	0.12	-0.750			
0.4273	27344.91	3.6610	3.6609	-1.3937	25.31	0.11	-0.750			
0.4315	27616.03	3.6580	3.6580	-1.4211	25.30	0.10	-0.750			
0.4358	27891.06	3.6550	3.6548	-1.4334	25.30	0.10	-0.750			
0.4401	28167.48	3.6520	3.6525	-1.4914	25.29	0.09	-0.750			
0.4447	28461.17	3.6490	3.6485	-1.5123	25.28	0.08	-0.750			
0.4492	28749.79	3.6460	3.6458	-1.5379	25.27	0.07	-0.750			
0.4540	29053.94	3.6430	3.6430	-1.5900	25.27	0.07	-0.750			
0.4588	29364.45	3.6400	3.6399	-1.6452	25.26	0.06	-0.750			
0.4638	29682.75	3.6370	3.6371	-1.6848	25.24	0.04	-0.750			
0.4689	30012.26	3.6340	3.6341	-1.7253	25.22	0.02	-0.750			
0.4741	30341.13	3.6310	3.6309	-1.7443	25.21	0.01	-0.750			
0.4795	30690.67	3.6280	3.6277	-1.7910	25.21	0.01	-0.750			
0.4849	31033.81	3.6250	3.6246	-1.8113	25.20	-0.00	-0.750			
0.4904	31384.00	3.6220	3.6217	-1.8182	25.19	-0.01	-0.750			
0.4958	31732.19	3.6190	3.6189	-1.8495	25.18	-0.02	-0.750			
0.5014	32088.45	3.6160	3.6157	-1.8933	25.17	-0.03	-0.750			
0.5071	32451.28	3.6130	3.6126	-1.9806	25.15	-0.05	-0.750			
0.5131	32835.83	3.6100	3.6103	-2.0326	25.14	-0.06	-0.750			
0.5193	33236.64	3.6070	3.6073	-2.1424	25.13	-0.07	-0.750			
0.5258	33653.48	3.6040	3.6038	-2.2360	25.12	-0.08	-0.750			
0.5328	34097.05	3.6010	3.6013	-2.2599	25.10	-0.10	-0.750			
0.5397	34543.61	3.5980	3.5979	-2.3089	25.10	-0.10	-0.750			
0.5470	35006.70	3.5950	3.5950	-2.3349	25.10	-0.10	-0.750			
0.5535	35426.43	3.5920	3.5920	-2.2524	25.09	-0.11	-0.750			
0.5604	35863.18	3.5890	3.5889	-2.2424	25.09	-0.11	-0.750			
0.5671	36292.96	3.5860	3.5862	-2.2667	25.08	-0.12	-0.750			
0.5739	36728.76	3.5830	3.5830	-2.3122	25.08	-0.12	-0.750			
0.5809	37174.55	3.5800	3.5797	-2.3325	25.07	-0.13	-0.750			
0.5880	37633.93	3.5770	3.5770	-2.3675	25.07	-0.13	-0.750			
0.5951	38087.82	3.5740	3.5742	-2.3707	25.08	-0.12	-0.750			
0.6022	38540.80	3.5710	3.5711	-2.3999	25.07	-0.13	-0.750			
0.6095	39005.30	3.5680	3.5678	-2.4304	25.07	-0.13	-0.750			
0.6169	39479.36	3.5650	3.5648	-2.4132	25.07	-0.13	-0.750			
0.6242	39948.04	3.5620	3.5623	-2.4141	25.07	-0.13	-0.750			
0.6314	40412.13	3.5590	3.5590	-2.3833	25.07	-0.13	-0.750			
0.6386	40870.20	3.5560	3.5560	-2.3757	25.07	-0.13	-0.750			
0.6456	41316.11	3.5530	3.5530	-2.3229	25.08	-0.12	-0.750			
0.6527	41770.46	3.5500	3.5500	-2.3104	25.08	-0.12	-0.750			
0.6596	42213.82	3.5470	3.5470	-2.2667	25.08	-0.12	-0.750			
0.6663	42642.07	3.5440	3.5440	-2.2531	25.09	-0.11	-0.750			
0.6730	43072.65	3.5410	3.5408	-2.2061	25.10	-0.10	-0.750			
0.6796	43495.98	3.5380	3.5382	-2.1620	25.11	-0.09	-0.750			
0.6861	43908.07	3.5350	3.5350	-2.1203	25.12	-0.08	-0.750			
0.6923	44309.14	3.5320	3.5318	-2.0590	25.13	-0.07	-0.750			
0.6985	44705.48	3.5290	3.5292	-1.9982	25.14	-0.06	-0.750			
0.7044	45083.48	3.5260	3.5261	-1.9387	25.15	-0.05	-0.750			
0.7100	45442.69	3.5230	3.5228	-1.8730	25.16	-0.04	-0.750			
0.7156	45800.42	3.5200	3.5199	-1.8190	25.18	-0.02	-0.750			
0.7211	46151.86	3.5170	3.5171	-1.7712	25.19	-0.01	-0.750			
0.7263	46485.04	3.5140	3.5143	-1.7154	25.21	0.01	-0.750			
0.7313	46806.20	3.5110	3.5110	-1.6505	25.22	0.02	-0.750			
0.7363	47122.28	3.5080	3.5078	-1.5954	25.24	0.04	-0.750			
0.7409	47420.31	3.5050	3.5051	-1.5315	25.26	0.06	-0.750			
0.7455	47710.29	3.5020	3.5023	-1.4605	25.27	0.07	-0.750			
0.7498	47985.93	3.4990	3.4989	-1.4331	25.28	0.08	-0.750			
