Ah_balance (normalized)	Ah_balance (mAh)	Voltage - fit (V)	Voltage -  interpolate (V)	dQ/dV (1/V)	Temperature (°C)	Temperature - diff (°C)	Current (C)	R_DC 0ms (mOhm)	R_DC 50ms (mOhm)	R_DC 50 ms PEC (mOhm)
0.0002	14.77	4.1610	4.1609	-0.0968	24.82	0.03	-0.750			
0.0006	38.45	4.1580	4.1577	-0.1476	24.82	0.03	-0.750			
0.0012	74.04	4.1550	4.1550	-0.1945	24.82	0.03	-0.750			
0.0018	115.23	4.1520	4.1518	-0.2369	24.81	0.02	-0.750			
0.0026	165.35	4.1490	4.1491	-0.2767	24.81	0.02	-0.750			
0.0035	223.93	4.1460	4.1461	-0.3165	24.81	0.02	-0.750			
0.0045	288.29	4.1430	4.1429	-0.3491	24.81	0.02	-0.750			
0.0056	358.83	4.1400	4.1402	-0.3847	24.80	0.01	-0.750			
0.0068	436.14	4.1370	4.1370	-0.4190	24.80	0.01	-0.750			
0.0081	520.27	4.1340	4.1339	-0.4516	24.80	0.01	-0.750			
0.0095	611.06	4.1310	4.1310	-0.4794	24.80	0.01	-0.750			
0.0110	706.11	4.1280	4.1279	-0.5095	24.79	0.00	-0.750			
0.0126	808.15	4.1250	4.1249	-0.5383	24.79	-0.00	-0.750			
0.0143	914.66	4.1220	4.1220	-0.5614	24.78	-0.01	-0.750			
0.0160	1025.19	4.1190	4.1189	-0.5757	24.78	-0.01	-0.750			
0.0178	1137.46	4.1160	4.1161	-0.6044	24.78	-0.01	-0.750			
0.0197	1258.71	4.1130	4.1130	-0.6216	24.77	-0.02	-0.750			
0.0216	1380.17	4.1100	4.1097	-0.6337	24.77	-0.02	-0.750			
0.0235	1503.47	4.1070	4.1069	-0.6421	24.76	-0.03	-0.750			
0.0254	1627.96	4.1040	4.1039	-0.6508	24.76	-0.03	-0.750			
0.0274	1753.70	4.1010	4.1009	-0.6599	24.76	-0.03	-0.750			
0.0294	1879.73	4.0980	4.0980	-0.6744	24.76	-0.03	-0.750			
0.0314	2008.94	4.0950	4.0950	-0.6678	24.75	-0.04	-0.750			
0.0335	2144.84	4.0920	4.0919	-0.6810	24.75	-0.04	-0.750			
0.0355	2274.26	4.0890	4.0893	-0.6831	24.75	-0.04	-0.750			
0.0376	2405.61	4.0860	4.0859	-0.6875	24.75	-0.04	-0.750			
0.0396	2536.89	4.0830	4.0829	-0.6898	24.75	-0.04	-0.750			
0.0416	2665.43	4.0800	4.0800	-0.6985	24.75	-0.04	-0.750			
0.0438	2803.10	4.0770	4.0770	-0.7055	24.74	-0.05	-0.750			
0.0460	2941.39	4.0740	4.0739	-0.7153	24.74	-0.05	-0.750			
0.0481	3079.22	4.0710	4.0710	-0.7205	24.74	-0.05	-0.750			
0.0503	3218.04	4.0680	4.0679	-0.7192	24.74	-0.05	-0.750			
0.0523	3348.85	4.0650	4.0651	-0.7463	24.74	-0.05	-0.750			
0.0546	3493.94	4.0620	4.0621	-0.7756	24.74	-0.05	-0.750			
0.0569	3644.66	4.0590	4.0587	-0.7939	24.73	-0.06	-0.750			
0.0595	3806.92	4.0560	4.0555	-0.8021	24.73	-0.06	-0.750			
0.0620	3967.26	4.0530	4.0539	-0.8055	24.73	-0.06	-0.750			
0.0644	4124.44	4.0500	4.0501	-0.7961	24.73	-0.06	-0.750			
0.0669	4279.34	4.0470	4.0468	-0.7884	24.73	-0.06	-0.750			
0.0690	4415.52	4.0440	4.0441	-0.7422	24.74	-0.05	-0.750			
0.0713	4564.86	4.0410	4.0410	-0.7465	24.74	-0.05	-0.750			
0.0736	4708.87	4.0380	4.0381	-0.7443	24.74	-0.05	-0.750			
0.0758	4849.45	4.0350	4.0350	-0.7505	24.74	-0.05	-0.750			
0.0780	4991.68	4.0320	4.0320	-0.7494	24.75	-0.04	-0.750			
0.0803	5136.51	4.0290	4.0288	-0.7569	24.75	-0.04	-0.750			
0.0825	5282.21	4.0260	4.0261	-0.7607	24.75	-0.04	-0.750			
0.0849	5432.86	4.0230	4.0230	-0.7703	24.76	-0.03	-0.750			
0.0872	5581.39	4.0200	4.0202	-0.7732	24.76	-0.03	-0.750			
0.0895	5727.65	4.0170	4.0169	-0.7725	24.76	-0.03	-0.750			
0.0918	5874.90	4.0140	4.0140	-0.7700	24.76	-0.03	-0.750			
0.0941	6022.32	4.0110	4.0110	-0.7683	24.76	-0.03	-0.750			
0.0965	6173.44	4.0080	4.0079	-0.7792	24.76	-0.03	-0.750			
0.0988	6323.62	4.0050	4.0051	-0.7763	24.76	-0.03	-0.750			
0.1011	6472.00	4.0020	4.0019	-0.7752	24.76	-0.03	-0.750			
0.1034	6619.63	3.9990	3.9991	-0.7769	24.77	-0.02	-0.750			
0.1058	6769.14	3.9960	3.9959	-0.7784	24.77	-0.02	-0.750			
0.1081	6919.48	3.9930	3.9930	-0.7800	24.77	-0.02	-0.750			
0.1104	7067.97	3.9900	3.9900	-0.7822	24.78	-0.01	-0.750			
0.1128	7218.18	3.9870	3.9869	-0.7865	24.78	-0.01	-0.750			
0.1151	7369.44	3.9840	3.9840	-0.7953	24.79	-0.00	-0.750			
0.1175	7522.21	3.9810	3.9810	-0.7934	24.79	-0.00	-0.750			
0.1199	7676.06	3.9780	3.9780	-0.7900	24.79	0.00	-0.750			
0.1223	7828.70	3.9750	3.9750	-0.7928	24.80	0.01	-0.750			
0.1247	7980.10	3.9720	3.9721	-0.7957	24.80	0.01	-0.750			
0.1271	8131.68	3.9690	3.9688	-0.7926	24.80	0.01	-0.750			
0.1294	8283.13	3.9660	3.9660	-0.7994	24.80	0.01	-0.750			
0.1318	8438.19	3.9630	3.9630	-0.7990	24.80	0.01	-0.750			
0.1343	8595.13	3.9600	3.9599	-0.8037	24.80	0.01	-0.750			
0.1367	8749.58	3.9570	3.9573	-0.7989	24.80	0.01	-0.750			
0.1391	8901.05	3.9540	3.9540	-0.7943	24.80	0.01	-0.750			
0.1414	9051.93	3.9510	3.9510	-0.8066	24.81	0.02	-0.750			
0.1439	9206.41	3.9480	3.9479	-0.8049	24.81	0.02	-0.750			
0.1463	9362.65	3.9450	3.9448	-0.8113	24.82	0.03	-0.750			
0.1487	9519.46	3.9420	3.9423	-0.8103	24.82	0.03	-0.750			
0.1512	9675.93	3.9390	3.9389	-0.8163	24.82	0.03	-0.750			
0.1536	9832.39	3.9360	3.9359	-0.8189	24.83	0.04	-0.750			
0.1561	9987.56	3.9330	3.9330	-0.8125	24.83	0.04	-0.750			
0.1585	10143.28	3.9300	3.9301	-0.8084	24.83	0.04	-0.750			
0.1610	10303.39	3.9270	3.9271	-0.8183	24.84	0.05	-0.750			
0.1634	10458.50	3.9240	3.9240	-0.8199	24.84	0.05	-0.750			
0.1659	10615.29	3.9210	3.9208	-0.8283	24.85	0.06	-0.750			
0.1684	10774.58	3.9180	3.9179	-0.8279	24.85	0.06	-0.750			
0.1709	10935.08	3.9150	3.9150	-0.8251	24.85	0.06	-0.750			
0.1734	11097.12	3.9120	3.9121	-0.8323	24.86	0.07	-0.750			
0.1759	11256.65	3.9090	3.9089	-0.8285	24.86	0.07	-0.750			
0.1783	11413.64	3.9060	3.9059	-0.8173	24.86	0.07	-0.750			
0.1808	11568.97	3.9030	3.9030	-0.8116	24.87	0.08	-0.750			
0.1832	11722.59	3.9000	3.9001	-0.8062	24.87	0.08	-0.750			
0.1856	11880.67	3.8970	3.8970	-0.8160	24.87	0.08	-0.750			
0.1881	12036.36	3.8940	3.8941	-0.8152	24.87	0.08	-0.750			
0.1905	12189.21	3.8910	3.8909	-0.8223	24.87	0.08	-0.750			
0.1930	12350.05	3.8880	3.8880	-0.8276	24.88	0.09	-0.750			
0.1955	12510.62	3.8850	3.8850	-0.8357	24.88	0.09	-0.750			
0.1980	12672.53	3.8820	3.8820	-0.8314	24.88	0.09	-0.750			
0.2005	12834.29	3.8790	3.8790	-0.8322	24.88	0.09	-0.750			
0.2030	12991.84	3.8760	3.8760	-0.8350	24.89	0.10	-0.750			
0.2055	13152.71	3.8730	3.8729	-0.8278	24.89	0.10	-0.750			
0.2080	13311.74	3.8700	3.8699	-0.8157	24.89	0.10	-0.750			
0.2105	13469.14	3.8670	3.8669	-0.8136	24.90	0.11	-0.750			
0.2129	13623.99	3.8640	3.8640	-0.8092	24.90	0.11	-0.750			
0.2153	13777.60	3.8610	3.8609	-0.8169	24.91	0.12	-0.750			
0.2177	13933.79	3.8580	3.8579	-0.8052	24.91	0.12	-0.750			
0.2201	14087.09	3.8550	3.8550	-0.8006	24.91	0.12	-0.750			
0.2226	14244.61	3.8520	3.8519	-0.8048	24.92	0.13	-0.750			
0.2250	14401.63	3.8490	3.8491	-0.8016	24.92	0.13	-0.750			
0.2274	14551.79	3.8460	3.8458	-0.7957	24.93	0.14	-0.750			
0.2297	14701.89	3.8430	3.8431	-0.7885	24.93	0.14	-0.750			
0.2320	14851.00	3.8400	3.8400	-0.7836	24.93	0.14	-0.750			
0.2345	15006.43	3.8370	3.8369	-0.7894	24.94	0.15	-0.750			
0.2368	15156.67	3.8340	3.8342	-0.7900	24.94	0.15	-0.750			
0.2392	15308.85	3.8310	3.8310	-0.7866	24.94	0.15	-0.750			
0.2416	15460.95	3.8280	3.8279	-0.7894	24.94	0.15	-0.750			
0.2439	15612.11	3.8250	3.8250	-0.7843	24.95	0.16	-0.750			
0.2463	15763.09	3.8220	3.8220	-0.7814	24.95	0.16	-0.750			
0.2486	15912.90	3.8190	3.8191	-0.7737	24.95	0.16	-0.750			
0.2510	16061.45	3.8160	3.8159	-0.7728	24.95	0.16	-0.750			
0.2532	16206.92	3.8130	3.8130	-0.7666	24.96	0.17	-0.750			
0.2555	16353.74	3.8100	3.8100	-0.7672	24.96	0.17	-0.750			
0.2578	16499.81	3.8070	3.8070	-0.7646	24.96	0.17	-0.750			
0.2601	16649.06	3.8040	3.8040	-0.7657	24.97	0.18	-0.750			
0.2624	16795.81	3.8010	3.8011	-0.7647	24.97	0.18	-0.750			
0.2647	16941.33	3.7980	3.7981	-0.7697	24.97	0.18	-0.750			
0.2670	17088.89	3.7950	3.7949	-0.7682	24.97	0.18	-0.750			
0.2693	17237.50	3.7920	3.7920	-0.7637	24.98	0.19	-0.750			
0.2716	17384.26	3.7890	3.7890	-0.7628	24.98	0.19	-0.750			
0.2739	17530.23	3.7860	3.7861	-0.7665	24.98	0.19	-0.750			
0.2762	17676.73	3.7830	3.7829	-0.7692	24.98	0.19	-0.750			
0.2785	17821.99	3.7800	3.7800	-0.7706	24.99	0.20	-0.750			
0.2808	17970.77	3.7770	3.7769	-0.7750	24.99	0.20	-0.750			
0.2832	18122.13	3.7740	3.7741	-0.7899	24.99	0.20	-0.750			
0.2856	18276.37	3.7710	3.7709	-0.7936	25.00	0.21	-0.750			
0.2879	18428.26	3.7680	3.7680	-0.7964	25.00	0.21	-0.750			
0.2903	18580.35	3.7650	3.7650	-0.7973	25.00	0.21	-0.750			
0.2927	18730.93	3.7620	3.7621	-0.8020	25.00	0.21	-0.750			
0.2951	18886.05	3.7590	3.7590	-0.8086	25.00	0.21	-0.750			
0.2976	19043.29	3.7560	3.7558	-0.8184	25.00	0.21	-0.750			
0.3000	19202.48	3.7530	3.7530	-0.8156	25.00	0.21	-0.750			
0.3025	19362.06	3.7500	3.7501	-0.8088	25.00	0.21	-0.750			
0.3049	19516.57	3.7470	3.7471	-0.8226	25.00	0.21	-0.750			
0.3074	19672.35	3.7440	3.7442	-0.8221	25.01	0.22	-0.750			
0.3099	19830.76	3.7410	3.7406	-0.8319	25.01	0.22	-0.750			
0.3124	19991.25	3.7380	3.7382	-0.8407	25.01	0.22	-0.750			
0.3149	20152.35	3.7350	3.7351	-0.8607	25.01	0.22	-0.750			
0.3175	20321.21	3.7320	3.7321	-0.8798	25.01	0.22	-0.750			
0.3202	20491.60	3.7290	3.7289	-0.8830	25.00	0.21	-0.750			
0.3229	20665.08	3.7260	3.7259	-0.9025	25.00	0.21	-0.750			
0.3256	20839.15	3.7230	3.7230	-0.9170	25.00	0.21	-0.750			
0.3284	21017.07	3.7200	3.7200	-0.9278	25.00	0.21	-0.750			
0.3312	21196.11	3.7170	3.7170	-0.9384	25.00	0.21	-0.750			
0.3340	21374.28	3.7140	3.7140	-0.9488	25.00	0.21	-0.750			
0.3369	21559.25	3.7110	3.7111	-0.9732	25.00	0.21	-0.750			
0.3398	21749.60	3.7080	3.7080	-0.9917	25.00	0.21	-0.750			
0.3429	21944.35	3.7050	3.7049	-1.0024	25.00	0.21	-0.750			
0.3459	22138.29	3.7020	3.7020	-1.0120	24.99	0.20	-0.750			
0.3489	22331.33	3.6990	3.6992	-1.0346	24.99	0.20	-0.750	0.363	0.514	
0.3521	22531.49	3.6960	3.6959	-1.0433	24.99	0.20	-0.750			
0.3552	22731.95	3.6930	3.6928	-1.0484	24.99	0.20	-0.750			
0.3583	22932.80	3.6900	3.6899	-1.0639	24.98	0.19	-0.750			
0.3616	23139.23	3.6870	3.6871	-1.0989	24.98	0.19	-0.750			
0.3649	23352.52	3.6840	3.6839	-1.1086	24.97	0.18	-0.750			
0.3682	23566.91	3.6810	3.6809	-1.1209	24.97	0.18	-0.750			
0.3716	23783.14	3.6780	3.6779	-1.1306	24.96	0.17	-0.750			
0.3751	24004.51	3.6750	3.6751	-1.1602	24.96	0.17	-0.750			
0.3786	24229.50	3.6720	3.6719	-1.1674	24.96	0.17	-0.750			
0.3821	24451.75	3.6690	3.6689	-1.1819	24.95	0.16	-0.750			
0.3855	24674.08	3.6660	3.6660	-1.2098	24.95	0.16	-0.750			
0.3893	24914.83	3.6630	3.6628	-1.2377	24.95	0.16	-0.750			
0.3931	25155.88	3.6600	3.6599	-1.2563	24.94	0.15	-0.750			
0.3968	25395.57	3.6570	3.6570	-1.2824	24.94	0.15	-0.750			
0.4006	25640.63	3.6540	3.6540	-1.3014	24.94	0.15	-0.750			
0.4047	25899.60	3.6510	3.6509	-1.3275	24.93	0.14	-0.750			
0.4086	26151.51	3.6480	3.6477	-1.3521	24.92	0.13	-0.750			
0.4127	26415.04	3.6450	3.6450	-1.3615	24.92	0.13	-0.750			
0.4169	26684.11	3.6420	3.6423	-1.4111	24.91	0.12	-0.750			
0.4212	26959.27	3.6390	3.6388	-1.4411	24.90	0.11	-0.750			
0.4256	27237.94	3.6360	3.6360	-1.4389	24.90	0.11	-0.750			
0.4300	27522.15	3.6330	3.6328	-1.4800	24.89	0.10	-0.750			
0.4345	27810.22	3.6300	3.6299	-1.4978	24.88	0.09	-0.750			
0.4390	28093.61	3.6270	3.6267	-1.5145	24.88	0.09	-0.750			
0.4435	28384.53	3.6240	3.6242	-1.5650	24.87	0.08	-0.750			
0.4482	28681.79	3.6210	3.6210	-1.5786	24.86	0.07	-0.750			
0.4531	28996.15	3.6180	3.6180	-1.6033	24.86	0.07	-0.750			
0.4581	29318.18	3.6150	3.6149	-1.6661	24.86	0.07	-0.750			
0.4632	29644.94	3.6120	3.6118	-1.6878	24.86	0.07	-0.750			
0.4682	29967.23	3.6090	3.6088	-1.6987	24.85	0.06	-0.750			
0.4733	30292.89	3.6060	3.6065	-1.7454	24.84	0.05	-0.750			
0.4785	30624.07	3.6030	3.6029	-1.7797	24.83	0.04	-0.750			
0.4840	30977.34	3.6000	3.5998	-1.8119	24.82	0.03	-0.750			
0.4895	31328.15	3.5970	3.5967	-1.8464	24.82	0.03	-0.750			
0.4953	31696.28	3.5940	3.5937	-1.9104	24.82	0.03	-0.750			
0.5010	32061.82	3.5910	3.5907	-1.9463	24.82	0.03	-0.750			
0.5069	32443.95	3.5880	3.5878	-1.9580	24.81	0.02	-0.750			
0.5127	32813.96	3.5850	3.5849	-1.9885	24.81	0.02	-0.750			
0.5187	33196.84	3.5820	3.5818	-2.0218	24.80	0.01	-0.750			
0.5247	33581.40	3.5790	3.5790	-1.9911	24.80	0.01	-0.750			
0.5306	33960.60	3.5760	3.5762	-2.0656	24.81	0.02	-0.750			
0.5369	34360.50	3.5730	3.5732	-2.0642	24.81	0.02	-0.750			
0.5433	34772.07	3.5700	3.5700	-2.0284	24.81	0.02	-0.750			
0.5493	35156.32	3.5670	3.5674	-1.9552	24.81	0.02	-0.750			
0.5552	35530.16	3.5640	3.5646	-1.9190	24.81	0.02	-0.750			
0.5605	35874.15	3.5610	3.5601	-1.8738	24.82	0.03	-0.750			
0.5659	36217.10	3.5580	3.5581	-1.9549	24.82	0.03	-0.750			
0.5720	36605.18	3.5550	3.5556	-1.9331	24.82	0.03	-0.750			
0.5782	37004.48	3.5520	3.5521	-2.0469	24.82	0.03	-0.750			
0.5843	37392.68	3.5490	3.5496	-2.0622	24.82	0.03	-0.750			
0.5905	37791.16	3.5460	3.5463	-2.0621	24.82	0.03	-0.750			
0.5962	38157.24	3.5430	3.5436	-2.0091	24.83	0.04	-0.750			
0.6024	38555.94	3.5400	3.5396	-1.9690	24.84	0.05	-0.750			
0.6085	38946.89	3.5370	3.5370	-1.9693	24.85	0.06	-0.750			
0.6145	39328.71	3.5340	3.5348	-1.9317	24.85	0.06	-0.750			
0.6205	39709.87	3.5310	3.5305	-1.8735	24.86	0.07	-0.750			
0.6259	40060.51	3.5280	3.5276	-1.8301	24.87	0.08	-0.750			
0.6312	40396.62	3.5250	3.5248	-1.7921	24.88	0.09	-0.750			
0.6367	40749.82	3.5220	3.5217	-1.7692	24.90	0.11	-0.750			
0.6416	41065.06	3.5190	3.5193	-1.7800	24.91	0.12	-0.750			
0.6470	41405.94	3.5160	3.5167	-1.7186	24.92	0.13	-0.750			
0.6521	41736.45	3.5130	3.5127	-1.6804	24.94	0.15	-0.750			
0.6573	42067.65	3.5100	3.5104	-1.6373	24.96	0.17	-0.750			
0.6621	42377.20	3.5070	3.5067	-1.5723	24.98	0.19	-0.750			
0.6668	42676.38	3.5040	3.5038	-1.5241	25.00	0.21	-0.750			
0.6712	42959.89	3.5010	3.5011	-1.4619	25.01	0.22	-0.750			
0.6755	43234.53	3.4980	3.4979	-1.4571	25.03	0.24	-0.750			
0.6796	43496.35	3.4950	3.4948	-1.3868	25.04	0.25	-0.750			
0.6838	43762.53	3.4920	3.4919	-1.3512	25.06	0.27	-0.750			
0.6879	44025.64	3.4890	3.4891	-1.3225	25.08	0.29	-0.750			
0.6919	44279.91	3.4860	3.4859	-1.2524	25.09	0.30	-0.750			
0.6955	44511.69	3.4830	3.4830	-1.1563	25.11	0.32	-0.750			
