Ah_balance (normalized)	Ah_balance (mAh)	Voltage - fit (V)	Voltage -  interpolate (V)	dQ/dV (1/V)	Temperature (°C)	Temperature - diff (°C)	Current (C)	R_DC 0ms (mOhm)	R_DC 50ms (mOhm)	R_DC 50 ms PEC (mOhm)
0.0004	26.11	4.1630	4.1627	-0.1290	24.80	0.03	-0.750			
0.0009	56.50	4.1600	4.1598	-0.1786	24.80	0.03	-0.750			
0.0015	94.97	4.1570	4.1570	-0.2237	24.79	0.02	-0.750			
0.0022	143.53	4.1540	4.1540	-0.2641	24.79	0.02	-0.750			
0.0031	197.95	4.1510	4.1511	-0.3061	24.79	0.02	-0.750			
0.0041	262.95	4.1480	4.1479	-0.3423	24.79	0.02	-0.750			
0.0052	331.64	4.1450	4.1450	-0.3803	24.79	0.02	-0.750			
0.0064	406.64	4.1420	4.1420	-0.4202	24.78	0.01	-0.750			
0.0077	492.23	4.1390	4.1391	-0.4557	24.78	0.01	-0.750			
0.0091	583.76	4.1360	4.1357	-0.4914	24.78	0.01	-0.750			
0.0107	683.14	4.1330	4.1330	-0.5219	24.77	0.00	-0.750			
0.0123	787.73	4.1300	4.1301	-0.5474	24.77	-0.00	-0.750			
0.0140	896.25	4.1270	4.1270	-0.5746	24.76	-0.01	-0.750			
0.0157	1007.87	4.1240	4.1239	-0.5901	24.76	-0.01	-0.750			
0.0176	1123.49	4.1210	4.1211	-0.6075	24.76	-0.01	-0.750			
0.0194	1243.68	4.1180	4.1180	-0.6292	24.75	-0.02	-0.750			
0.0214	1367.30	4.1150	4.1150	-0.6407	24.75	-0.02	-0.750			
0.0233	1493.41	4.1120	4.1119	-0.6480	24.74	-0.03	-0.750			
0.0253	1618.66	4.1090	4.1089	-0.6576	24.74	-0.03	-0.750			
0.0272	1743.55	4.1060	4.1060	-0.6645	24.74	-0.03	-0.750			
0.0292	1871.53	4.1030	4.1031	-0.6757	24.73	-0.04	-0.750			
0.0313	2001.85	4.1000	4.0999	-0.6830	24.73	-0.04	-0.750			
0.0334	2134.88	4.0970	4.0971	-0.6946	24.73	-0.04	-0.750			
0.0355	2271.32	4.0940	4.0940	-0.7020	24.72	-0.05	-0.750			
0.0376	2406.04	4.0910	4.0910	-0.7074	24.72	-0.05	-0.750			
0.0397	2542.30	4.0880	4.0880	-0.7104	24.72	-0.05	-0.750			
0.0419	2679.41	4.0850	4.0849	-0.7199	24.72	-0.05	-0.750			
0.0440	2818.47	4.0820	4.0820	-0.7240	24.72	-0.05	-0.750			
0.0462	2959.52	4.0790	4.0789	-0.7289	24.72	-0.05	-0.750			
0.0484	3100.62	4.0760	4.0760	-0.7323	24.72	-0.05	-0.750			
0.0507	3241.83	4.0730	4.0729	-0.7357	24.72	-0.05	-0.750			
0.0528	3382.16	4.0700	4.0701	-0.7340	24.72	-0.05	-0.750			
0.0550	3523.17	4.0670	4.0669	-0.7482	24.72	-0.05	-0.750			
0.0573	3667.14	4.0640	4.0639	-0.7446	24.72	-0.05	-0.750			
0.0596	3813.55	4.0610	4.0609	-0.7519	24.72	-0.05	-0.750			
0.0618	3958.22	4.0580	4.0586	-0.7498	24.72	-0.05	-0.750			
0.0641	4103.61	4.0550	4.0549	-0.7500	24.72	-0.05	-0.750			
0.0663	4245.17	4.0520	4.0520	-0.7558	24.72	-0.05	-0.750			
0.0686	4388.54	4.0490	4.0490	-0.7508	24.72	-0.05	-0.750			
0.0709	4535.63	4.0460	4.0459	-0.7593	24.72	-0.05	-0.750			
0.0731	4681.30	4.0430	4.0430	-0.7612	24.72	-0.05	-0.750			
0.0754	4827.16	4.0400	4.0399	-0.7617	24.72	-0.05	-0.750			
0.0777	4973.09	4.0370	4.0370	-0.7679	24.72	-0.05	-0.750			
0.0800	5120.05	4.0340	4.0338	-0.7674	24.72	-0.05	-0.750			
0.0823	5267.24	4.0310	4.0311	-0.7676	24.72	-0.05	-0.750			
0.0846	5417.24	4.0280	4.0280	-0.7754	24.72	-0.05	-0.750			
0.0870	5566.80	4.0250	4.0253	-0.7753	24.72	-0.05	-0.750			
0.0893	5715.71	4.0220	4.0219	-0.7750	24.72	-0.05	-0.750			
0.0916	5863.43	4.0190	4.0190	-0.7803	24.72	-0.05	-0.750			
0.0940	6013.99	4.0160	4.0160	-0.7780	24.72	-0.05	-0.750			
0.0963	6164.92	4.0130	4.0129	-0.7806	24.72	-0.05	-0.750			
0.0987	6314.87	4.0100	4.0099	-0.7748	24.72	-0.05	-0.750			
0.1010	6462.57	4.0070	4.0069	-0.7762	24.72	-0.05	-0.750			
0.1033	6610.52	4.0040	4.0041	-0.7836	24.72	-0.05	-0.750			
0.1056	6759.61	4.0010	4.0009	-0.7834	24.73	-0.04	-0.750			
0.1080	6912.14	3.9980	3.9980	-0.7903	24.73	-0.04	-0.750			
0.1104	7065.01	3.9950	3.9950	-0.7936	24.73	-0.04	-0.750			
0.1128	7217.02	3.9920	3.9920	-0.7943	24.73	-0.04	-0.750			
0.1151	7369.58	3.9890	3.9890	-0.8000	24.73	-0.04	-0.750			
0.1175	7522.00	3.9860	3.9860	-0.8020	24.73	-0.04	-0.750			
0.1199	7675.68	3.9830	3.9830	-0.8018	24.74	-0.03	-0.750			
0.1224	7833.31	3.9800	3.9796	-0.8007	24.74	-0.03	-0.750			
0.1248	7988.12	3.9770	3.9773	-0.8012	24.74	-0.03	-0.750			
0.1272	8138.07	3.9740	3.9741	-0.8082	24.74	-0.03	-0.750			
0.1296	8293.40	3.9710	3.9709	-0.8087	24.74	-0.03	-0.750			
0.1320	8447.15	3.9680	3.9678	-0.7958	24.75	-0.02	-0.750			
0.1344	8602.50	3.9650	3.9649	-0.8064	24.75	-0.02	-0.750			
0.1369	8760.18	3.9620	3.9625	-0.8115	24.75	-0.02	-0.750			
0.1393	8916.33	3.9590	3.9588	-0.8124	24.75	-0.02	-0.750			
0.1417	9069.73	3.9560	3.9560	-0.8137	24.75	-0.02	-0.750			
0.1441	9225.51	3.9530	3.9529	-0.8150	24.76	-0.01	-0.750			
0.1466	9384.17	3.9500	3.9499	-0.8271	24.76	-0.01	-0.750			
0.1492	9546.31	3.9470	3.9473	-0.8216	24.76	-0.01	-0.750			
0.1517	9709.60	3.9440	3.9438	-0.7960	24.76	-0.01	-0.750			
0.1541	9863.12	3.9410	3.9410	-0.7629	24.76	-0.01	-0.750			
0.1563	10001.09	3.9380	3.9384	-0.7565	24.77	-0.00	-0.750			
0.1584	10140.68	3.9350	3.9353	-0.7480	24.77	-0.00	-0.750			
0.1606	10278.09	3.9320	3.9315	-0.7611	24.77	-0.00	-0.750			
0.1628	10420.14	3.9290	3.9291	-0.7704	24.77	0.00	-0.750			
0.1652	10575.08	3.9260	3.9261	-0.8084	24.77	0.00	-0.750			
0.1679	10746.77	3.9230	3.9229	-0.8430	24.77	0.00	-0.750			
0.1704	10906.50	3.9200	3.9199	-0.8365	24.77	0.00	-0.750			
0.1730	11069.93	3.9170	3.9169	-0.8375	24.77	0.00	-0.750			
0.1755	11230.76	3.9140	3.9137	-0.8376	24.77	0.00	-0.750			
0.1779	11388.25	3.9110	3.9109	-0.8397	24.77	0.00	-0.750			
0.1804	11547.51	3.9080	3.9081	-0.8406	24.77	0.00	-0.750			
0.1830	11711.42	3.9050	3.9049	-0.8545	24.77	0.00	-0.750			
0.1856	11877.04	3.9020	3.9020	-0.8561	24.77	0.00	-0.750			
0.1881	12040.88	3.8990	3.8989	-0.8533	24.77	0.00	-0.750			
0.1907	12206.06	3.8960	3.8960	-0.8608	24.77	0.00	-0.750			
0.1933	12370.80	3.8930	3.8929	-0.8558	24.78	0.01	-0.750			
0.1958	12534.11	3.8900	3.8899	-0.8425	24.78	0.01	-0.750			
0.1984	12698.27	3.8870	3.8869	-0.8460	24.78	0.01	-0.750			
0.2009	12858.61	3.8840	3.8840	-0.8457	24.78	0.01	-0.750			
0.2035	13020.89	3.8810	3.8808	-0.8515	24.78	0.01	-0.750			
0.2060	13183.33	3.8780	3.8779	-0.8500	24.78	0.01	-0.750			
0.2085	13344.92	3.8750	3.8750	-0.8523	24.78	0.01	-0.750			
0.2112	13515.83	3.8720	3.8724	-0.8596	24.78	0.01	-0.750			
0.2138	13681.84	3.8690	3.8688	-0.8579	24.78	0.01	-0.750			
0.2163	13843.06	3.8660	3.8660	-0.8581	24.79	0.02	-0.750			
0.2189	14008.40	3.8630	3.8630	-0.8540	24.79	0.02	-0.750			
0.2214	14170.07	3.8600	3.8599	-0.8498	24.80	0.03	-0.750			
0.2240	14338.73	3.8570	3.8572	-0.8549	24.80	0.03	-0.750			
0.2266	14502.07	3.8540	3.8541	-0.8488	24.80	0.03	-0.750			
0.2291	14664.63	3.8510	3.8509	-0.8570	24.80	0.03	-0.750			
0.2317	14828.31	3.8480	3.8479	-0.8497	24.81	0.04	-0.750			
0.2342	14991.90	3.8450	3.8450	-0.8509	24.81	0.04	-0.750			
0.2368	15155.59	3.8420	3.8424	-0.8534	24.81	0.04	-0.750			
0.2393	15317.56	3.8390	3.8389	-0.8754	24.81	0.04	-0.750			
0.2420	15487.64	3.8360	3.8359	-0.8574	24.81	0.04	-0.750			
0.2446	15651.49	3.8330	3.8329	-0.8528	24.82	0.05	-0.750			
0.2471	15816.92	3.8300	3.8298	-0.8451	24.82	0.05	-0.750			
0.2497	15978.53	3.8270	3.8271	-0.8387	24.82	0.05	-0.750			
0.2521	16134.88	3.8240	3.8240	-0.8334	24.82	0.05	-0.750			
0.2546	16291.99	3.8210	3.8207	-0.8300	24.83	0.06	-0.750			
0.2571	16452.11	3.8180	3.8180	-0.8397	24.83	0.06	-0.750			
0.2596	16612.79	3.8150	3.8149	-0.8348	24.84	0.07	-0.750			
0.2621	16773.32	3.8120	3.8122	-0.8305	24.84	0.07	-0.750			
0.2646	16934.44	3.8090	3.8089	-0.8282	24.84	0.07	-0.750			
0.2671	17091.48	3.8060	3.8059	-0.8203	24.84	0.07	-0.750			
0.2695	17249.34	3.8030	3.8030	-0.8111	24.84	0.07	-0.750			
0.2719	17403.95	3.8000	3.8000	-0.8066	24.84	0.07	-0.750			
0.2743	17557.89	3.7970	3.7973	-0.8040	24.84	0.07	-0.750			
0.2767	17711.04	3.7940	3.7939	-0.7978	24.84	0.07	-0.750			
0.2791	17863.59	3.7910	3.7909	-0.8093	24.85	0.08	-0.750			
0.2816	18021.76	3.7880	3.7880	-0.7963	24.85	0.08	-0.750			
0.2840	18178.23	3.7850	3.7848	-0.7992	24.86	0.09	-0.750			
0.2864	18329.37	3.7820	3.7827	-0.7878	24.86	0.09	-0.750			
0.2887	18478.29	3.7790	3.7789	-0.7776	24.86	0.09	-0.750			
0.2910	18623.87	3.7760	3.7759	-0.7806	24.87	0.10	-0.750			
0.2933	18770.71	3.7730	3.7730	-0.7718	24.87	0.10	-0.750			
0.2957	18922.14	3.7700	3.7700	-0.7844	24.87	0.10	-0.750			
0.2980	19073.06	3.7670	3.7671	-0.7882	24.88	0.11	-0.750			
0.3004	19223.79	3.7640	3.7638	-0.7884	24.88	0.11	-0.750			
0.3027	19374.32	3.7610	3.7610	-0.7989	24.88	0.11	-0.750			
0.3051	19527.44	3.7580	3.7579	-0.7987	24.88	0.11	-0.750			
0.3075	19681.41	3.7550	3.7551	-0.8077	24.88	0.11	-0.750			
0.3100	19839.28	3.7520	3.7519	-0.8186	24.88	0.11	-0.750			
0.3124	19996.32	3.7490	3.7490	-0.8226	24.88	0.11	-0.750			
0.3149	20152.95	3.7460	3.7460	-0.8391	24.89	0.12	-0.750			
0.3174	20316.11	3.7430	3.7429	-0.8402	24.89	0.12	-0.750			
0.3200	20478.56	3.7400	3.7400	-0.8399	24.89	0.12	-0.750			
0.3225	20642.44	3.7370	3.7367	-0.8487	24.90	0.13	-0.750			
0.3251	20804.97	3.7340	3.7339	-0.8495	24.90	0.13	-0.750			
0.3276	20965.97	3.7310	3.7309	-0.8686	24.89	0.12	-0.750			
0.3301	21129.54	3.7280	3.7280	-0.8806	24.89	0.12	-0.750			
0.3328	21298.79	3.7250	3.7249	-0.8887	24.89	0.12	-0.750			
0.3356	21479.16	3.7220	3.7220	-0.9142	24.88	0.11	-0.750			
0.3384	21657.52	3.7190	3.7190	-0.9307	24.88	0.11	-0.750			
0.3412	21838.69	3.7160	3.7159	-0.9451	24.88	0.11	-0.750			
0.3441	22020.29	3.7130	3.7130	-0.9549	24.88	0.11	-0.750			
0.3469	22203.19	3.7100	3.7099	-0.9607	24.88	0.11	-0.750			
0.3498	22386.73	3.7070	3.7072	-0.9937	24.88	0.11	-0.750			
0.3529	22585.10	3.7040	3.7038	-1.0085	24.88	0.11	-0.750			
0.3559	22779.05	3.7010	3.7009	-1.0188	24.87	0.10	-0.750			
0.3590	22973.98	3.6980	3.6982	-1.0317	24.87	0.10	-0.750	0.390	0.530	
0.3621	23176.96	3.6950	3.6955	-1.0653	24.87	0.10	-0.750			
0.3653	23381.87	3.6920	3.6918	-1.0743	24.86	0.09	-0.750			
0.3686	23588.53	3.6890	3.6890	-1.0929	24.85	0.08	-0.750			
0.3718	23797.07	3.6860	3.6860	-1.1012	24.85	0.08	-0.750			
0.3752	24015.63	3.6830	3.6830	-1.1395	24.84	0.07	-0.750			
0.3787	24235.98	3.6800	3.6800	-1.1527	24.83	0.06	-0.750			
0.3821	24457.27	3.6770	3.6769	-1.1713	24.83	0.06	-0.750			
0.3856	24681.27	3.6740	3.6741	-1.2081	24.82	0.05	-0.750			
0.3894	24922.52	3.6710	3.6708	-1.2293	24.82	0.05	-0.750			
0.3931	25160.71	3.6680	3.6678	-1.2466	24.81	0.04	-0.750			
0.3969	25401.29	3.6650	3.6649	-1.2717	24.80	0.03	-0.750			
0.4007	25644.74	3.6620	3.6618	-1.2895	24.80	0.03	-0.750			
0.4047	25898.44	3.6590	3.6588	-1.3062	24.79	0.02	-0.750			
0.4086	26148.59	3.6560	3.6559	-1.3173	24.78	0.01	-0.750			
0.4126	26405.31	3.6530	3.6532	-1.3582	24.78	0.01	-0.750			
0.4166	26664.53	3.6500	3.6499	-1.3750	24.77	0.00	-0.750			
0.4207	26924.79	3.6470	3.6469	-1.4222	24.77	-0.00	-0.750			
0.4251	27205.40	3.6440	3.6440	-1.4344	24.76	-0.01	-0.750			
0.4295	27486.32	3.6410	3.6408	-1.4739	24.75	-0.02	-0.750			
0.4340	27776.93	3.6380	3.6378	-1.4908	24.74	-0.03	-0.750			
0.4385	28063.77	3.6350	3.6347	-1.5217	24.73	-0.04	-0.750			
0.4430	28353.79	3.6320	3.6324	-1.5646	24.72	-0.05	-0.750			
0.4478	28657.59	3.6290	3.6286	-1.5846	24.71	-0.06	-0.750			
0.4526	28967.55	3.6260	3.6259	-1.6445	24.71	-0.06	-0.750			
0.4576	29289.59	3.6230	3.6228	-1.6612	24.70	-0.07	-0.750			
0.4628	29619.07	3.6200	3.6198	-1.7009	24.70	-0.07	-0.750			
0.4679	29947.14	3.6170	3.6169	-1.7228	24.69	-0.08	-0.750			
0.4729	30266.03	3.6140	3.6139	-1.7432	24.68	-0.09	-0.750			
0.4782	30603.53	3.6110	3.6115	-1.7722	24.67	-0.10	-0.750			
0.4836	30952.22	3.6080	3.6084	-1.7922	24.66	-0.11	-0.750			
0.4892	31311.09	3.6050	3.6046	-1.8420	24.66	-0.11	-0.750			
0.4948	31668.42	3.6020	3.6017	-1.9088	24.65	-0.12	-0.750			
0.5007	32043.33	3.5990	3.5987	-1.9380	24.64	-0.13	-0.750			
0.5065	32416.67	3.5960	3.5959	-1.9954	24.64	-0.13	-0.750			
0.5127	32815.02	3.5930	3.5929	-2.0417	24.64	-0.13	-0.750			
0.5188	33203.39	3.5900	3.5896	-2.0841	24.63	-0.14	-0.750			
0.5251	33604.13	3.5870	3.5869	-2.0789	24.62	-0.15	-0.750			
0.5312	33999.79	3.5840	3.5841	-2.1458	24.62	-0.15	-0.750			
0.5378	34418.95	3.5810	3.5811	-2.1027	24.62	-0.15	-0.750			
0.5441	34823.20	3.5780	3.5782	-2.1618	24.62	-0.15	-0.750			
0.5507	35245.83	3.5750	3.5746	-2.1794	24.62	-0.15	-0.750			
0.5571	35655.83	3.5720	3.5717	-2.2036	24.61	-0.16	-0.750			
0.5637	36075.73	3.5690	3.5692	-2.2294	24.61	-0.16	-0.750			
0.5707	36526.46	3.5660	3.5661	-2.2239	24.61	-0.16	-0.750			
0.5774	36950.93	3.5630	3.5637	-2.2071	24.61	-0.16	-0.750			
0.5841	37380.07	3.5600	3.5598	-2.2473	24.62	-0.15	-0.750			
0.5905	37793.74	3.5570	3.5568	-2.2482	24.62	-0.15	-0.750			
0.5975	38238.41	3.5540	3.5536	-2.2411	24.62	-0.15	-0.750			
0.6042	38668.83	3.5510	3.5509	-2.2890	24.63	-0.14	-0.750			
0.6111	39111.49	3.5480	3.5477	-2.2018	24.64	-0.13	-0.750			
0.6177	39531.14	3.5450	3.5445	-2.1591	24.64	-0.13	-0.750			
0.6241	39942.46	3.5420	3.5424	-2.0738	24.64	-0.13	-0.750			
0.6303	40339.41	3.5390	3.5390	-2.0615	24.65	-0.12	-0.750			
0.6363	40720.47	3.5360	3.5361	-2.0029	24.66	-0.11	-0.750			
0.6420	41089.52	3.5330	3.5328	-1.9551	24.67	-0.10	-0.750			
0.6480	41475.16	3.5300	3.5297	-1.9207	24.68	-0.09	-0.750			
0.6539	41851.34	3.5270	3.5270	-1.8498	24.70	-0.07	-0.750			
0.6596	42211.95	3.5240	3.5240	-1.7904	24.71	-0.06	-0.750			
0.6648	42545.60	3.5210	3.5210	-1.7261	24.73	-0.04	-0.750			
0.6698	42869.27	3.5180	3.5177	-1.7083	24.74	-0.03	-0.750			
0.6747	43178.99	3.5150	3.5147	-1.6377	24.75	-0.02	-0.750			
0.6795	43488.67	3.5120	3.5123	-1.6149	24.77	-0.00	-0.750			
0.6845	43806.00	3.5090	3.5095	-1.6076	24.78	0.01	-0.750			
0.6896	44133.20	3.5060	3.5056	-1.5890	24.80	0.03	-0.750			
0.6942	44426.36	3.5030	3.5032	-1.5154	24.82	0.05	-0.750			
0.6985	44705.39	3.5000	3.5005	-1.4727	24.84	0.07	-0.750			
0.7029	44983.25	3.4970	3.4967	-1.4224	24.86	0.09	-0.750			
0.7071	45253.40	3.4940	3.4938	-1.3743	24.88	0.11	-0.750			
0.7110	45506.47	3.4910	3.4915	-1.3706	24.90	0.13	-0.750			
0.7150	45762.62	3.4880	3.4879	-1.1842	24.92	0.15	-0.750			
