Ah_balance (normalized)	Ah_balance (mAh)	Voltage - fit (V)	Voltage -  interpolate (V)	dQ/dV (1/V)	Temperature (°C)	Temperature - diff (°C)	Current (C)	R_DC 0ms (mOhm)	R_DC 50ms (mOhm)	R_DC 50 ms PEC (mOhm)
0.0004	23.86	4.1620	4.1614	-0.1226	24.87	0.01	-0.750			
0.0008	54.04	4.1590	4.1588	-0.1726	24.86	0.00	-0.750			
0.0014	92.51	4.1560	4.1559	-0.2144	24.86	0.00	-0.750			
0.0021	137.41	4.1530	4.1531	-0.2545	24.86	0.00	-0.750			
0.0030	189.80	4.1500	4.1502	-0.2967	24.86	-0.00	-0.750			
0.0039	250.92	4.1470	4.1471	-0.3390	24.86	-0.00	-0.750			
0.0050	319.66	4.1440	4.1439	-0.3790	24.85	-0.01	-0.750			
0.0062	396.31	4.1410	4.1410	-0.4194	24.85	-0.01	-0.750			
0.0075	482.34	4.1380	4.1381	-0.4553	24.85	-0.01	-0.750			
0.0090	573.64	4.1350	4.1350	-0.4884	24.85	-0.01	-0.750			
0.0105	674.12	4.1320	4.1320	-0.5192	24.84	-0.02	-0.750			
0.0121	776.69	4.1290	4.1288	-0.5433	24.84	-0.02	-0.750			
0.0138	884.98	4.1260	4.1260	-0.5613	24.83	-0.03	-0.750			
0.0155	994.48	4.1230	4.1235	-0.5785	24.83	-0.03	-0.750			
0.0173	1105.74	4.1200	4.1199	-0.5991	24.83	-0.03	-0.750			
0.0191	1222.38	4.1170	4.1170	-0.6192	24.82	-0.04	-0.750			
0.0209	1339.60	4.1140	4.1139	-0.6434	24.82	-0.04	-0.750			
0.0229	1466.26	4.1110	4.1110	-0.6682	24.82	-0.04	-0.750			
0.0250	1602.68	4.1080	4.1080	-0.6823	24.81	-0.05	-0.750			
0.0271	1736.99	4.1050	4.1049	-0.6946	24.81	-0.05	-0.750			
0.0293	1872.35	4.1020	4.1020	-0.7023	24.81	-0.05	-0.750			
0.0314	2007.39	4.0990	4.0989	-0.7033	24.81	-0.05	-0.750			
0.0334	2140.25	4.0960	4.0959	-0.7066	24.81	-0.05	-0.750			
0.0355	2275.20	4.0930	4.0931	-0.7099	24.80	-0.06	-0.750			
0.0377	2415.64	4.0900	4.0900	-0.7142	24.80	-0.06	-0.750			
0.0399	2553.74	4.0870	4.0869	-0.7151	24.80	-0.06	-0.750			
0.0420	2689.90	4.0840	4.0840	-0.7185	24.80	-0.06	-0.750			
0.0442	2828.04	4.0810	4.0809	-0.7198	24.80	-0.06	-0.750			
0.0464	2969.38	4.0780	4.0779	-0.7345	24.80	-0.06	-0.750			
0.0486	3111.50	4.0750	4.0750	-0.7366	24.80	-0.06	-0.750			
0.0509	3257.14	4.0720	4.0718	-0.7358	24.80	-0.06	-0.750			
0.0531	3398.31	4.0690	4.0696	-0.7335	24.80	-0.06	-0.750			
0.0553	3536.08	4.0660	4.0659	-0.7354	24.80	-0.06	-0.750			
0.0574	3675.02	4.0630	4.0629	-0.7443	24.80	-0.06	-0.750			
0.0596	3813.41	4.0600	4.0599	-0.7387	24.80	-0.06	-0.750			
0.0620	3965.39	4.0570	4.0569	-0.7562	24.80	-0.06	-0.750			
0.0643	4114.20	4.0540	4.0541	-0.7595	24.80	-0.06	-0.750			
0.0666	4259.84	4.0510	4.0508	-0.7630	24.80	-0.06	-0.750			
0.0688	4403.24	4.0480	4.0478	-0.7580	24.80	-0.06	-0.750			
0.0710	4546.77	4.0450	4.0450	-0.7651	24.80	-0.06	-0.750			
0.0733	4693.28	4.0420	4.0420	-0.7592	24.80	-0.06	-0.750			
0.0757	4845.63	4.0390	4.0389	-0.7724	24.80	-0.06	-0.750			
0.0780	4994.35	4.0360	4.0363	-0.7732	24.80	-0.06	-0.750			
0.0803	5141.58	4.0330	4.0329	-0.7735	24.80	-0.06	-0.750			
0.0826	5288.72	4.0300	4.0299	-0.7748	24.80	-0.06	-0.750			
0.0850	5438.12	4.0270	4.0269	-0.7694	24.80	-0.06	-0.750			
0.0873	5588.10	4.0240	4.0240	-0.7748	24.80	-0.06	-0.750			
0.0897	5738.28	4.0210	4.0210	-0.7698	24.80	-0.06	-0.750			
0.0919	5883.82	4.0180	4.0179	-0.7722	24.80	-0.06	-0.750			
0.0942	6031.13	4.0150	4.0149	-0.7727	24.81	-0.05	-0.750			
0.0965	6177.57	4.0120	4.0119	-0.7738	24.81	-0.05	-0.750			
0.0989	6328.74	4.0090	4.0091	-0.7926	24.81	-0.05	-0.750			
0.1013	6482.35	4.0060	4.0060	-0.7946	24.82	-0.04	-0.750			
0.1037	6635.74	4.0030	4.0030	-0.7934	24.82	-0.04	-0.750			
0.1061	6787.75	4.0000	3.9999	-0.8007	24.82	-0.04	-0.750			
0.1084	6940.76	3.9970	3.9971	-0.7970	24.82	-0.04	-0.750			
0.1109	7095.12	3.9940	3.9939	-0.7895	24.82	-0.04	-0.750			
0.1132	7246.60	3.9910	3.9909	-0.7917	24.82	-0.04	-0.750			
0.1156	7395.94	3.9880	3.9884	-0.7937	24.82	-0.04	-0.750			
0.1180	7549.27	3.9850	3.9848	-0.8029	24.82	-0.04	-0.750			
0.1204	7703.42	3.9820	3.9819	-0.8211	24.82	-0.04	-0.750			
0.1229	7865.04	3.9790	3.9790	-0.8192	24.82	-0.04	-0.750			
0.1254	8027.02	3.9760	3.9759	-0.8262	24.82	-0.04	-0.750			
0.1279	8186.24	3.9730	3.9736	-0.8212	24.82	-0.04	-0.750			
0.1303	8342.34	3.9700	3.9699	-0.8114	24.82	-0.04	-0.750			
0.1327	8495.77	3.9670	3.9669	-0.8059	24.83	-0.03	-0.750			
0.1351	8646.09	3.9640	3.9639	-0.7996	24.83	-0.03	-0.750			
0.1375	8800.88	3.9610	3.9611	-0.8092	24.84	-0.02	-0.750			
0.1400	8956.90	3.9580	3.9580	-0.8144	24.84	-0.02	-0.750			
0.1424	9113.89	3.9550	3.9550	-0.8167	24.84	-0.02	-0.750			
0.1449	9271.19	3.9520	3.9520	-0.8247	24.84	-0.02	-0.750			
0.1473	9430.23	3.9490	3.9490	-0.8279	24.85	-0.01	-0.750			
0.1498	9590.33	3.9460	3.9459	-0.8284	24.85	-0.01	-0.750			
0.1524	9750.49	3.9430	3.9431	-0.8263	24.85	-0.01	-0.750			
0.1548	9908.30	3.9400	3.9400	-0.8258	24.85	-0.01	-0.750			
0.1573	10065.91	3.9370	3.9369	-0.8372	24.85	-0.01	-0.750			
0.1598	10229.96	3.9340	3.9339	-0.8316	24.86	-0.00	-0.750			
0.1623	10389.10	3.9310	3.9309	-0.8253	24.86	-0.00	-0.750			
0.1648	10548.65	3.9280	3.9284	-0.8349	24.86	-0.00	-0.750			
0.1673	10709.97	3.9250	3.9248	-0.8295	24.86	0.00	-0.750			
0.1698	10867.51	3.9220	3.9218	-0.8331	24.86	0.00	-0.750			
0.1723	11025.43	3.9190	3.9190	-0.8322	24.86	0.00	-0.750			
0.1748	11186.88	3.9160	3.9162	-0.8398	24.86	0.00	-0.750			
0.1773	11349.74	3.9130	3.9131	-0.8432	24.86	0.00	-0.750			
0.1798	11510.14	3.9100	3.9100	-0.8466	24.86	0.00	-0.750			
0.1824	11671.56	3.9070	3.9070	-0.8459	24.87	0.01	-0.750			
0.1849	11834.84	3.9040	3.9039	-0.8487	24.87	0.01	-0.750			
0.1875	11998.62	3.9010	3.9011	-0.8468	24.88	0.02	-0.750			
0.1901	12164.72	3.8980	3.8980	-0.8498	24.88	0.02	-0.750			
0.1926	12325.30	3.8950	3.8950	-0.8574	24.88	0.02	-0.750			
0.1951	12488.58	3.8920	3.8921	-0.8566	24.88	0.02	-0.750			
0.1977	12653.08	3.8890	3.8889	-0.8557	24.88	0.02	-0.750			
0.2003	12819.23	3.8860	3.8859	-0.8580	24.88	0.02	-0.750			
0.2029	12986.20	3.8830	3.8837	-0.8563	24.88	0.02	-0.750			
0.2055	13149.31	3.8800	3.8799	-0.8580	24.88	0.02	-0.750			
0.2081	13317.48	3.8770	3.8769	-0.8612	24.89	0.03	-0.750			
0.2106	13481.40	3.8740	3.8739	-0.8557	24.89	0.03	-0.750			
0.2132	13645.88	3.8710	3.8709	-0.8565	24.90	0.04	-0.750			
0.2158	13810.09	3.8680	3.8683	-0.8546	24.90	0.04	-0.750			
0.2183	13972.32	3.8650	3.8649	-0.8587	24.90	0.04	-0.750			
0.2209	14136.95	3.8620	3.8618	-0.8587	24.91	0.05	-0.750			
0.2234	14298.09	3.8590	3.8591	-0.8538	24.91	0.05	-0.750			
0.2261	14468.69	3.8560	3.8560	-0.8629	24.92	0.06	-0.750			
0.2287	14635.20	3.8530	3.8531	-0.8592	24.92	0.06	-0.750			
0.2312	14798.00	3.8500	3.8500	-0.8670	24.92	0.06	-0.750			
0.2338	14962.45	3.8470	3.8469	-0.8512	24.92	0.06	-0.750			
0.2363	15124.43	3.8440	3.8440	-0.8451	24.92	0.06	-0.750			
0.2389	15287.54	3.8410	3.8409	-0.8481	24.92	0.06	-0.750			
0.2414	15450.98	3.8380	3.8379	-0.8482	24.92	0.06	-0.750			
0.2440	15613.60	3.8350	3.8349	-0.8525	24.92	0.06	-0.750			
0.2465	15776.48	3.8320	3.8320	-0.8463	24.92	0.06	-0.750			
0.2491	15940.42	3.8290	3.8289	-0.8496	24.93	0.07	-0.750			
0.2516	16102.35	3.8260	3.8259	-0.8422	24.93	0.07	-0.750			
0.2541	16263.35	3.8230	3.8230	-0.8359	24.93	0.07	-0.750			
0.2566	16422.85	3.8200	3.8199	-0.8318	24.93	0.07	-0.750			
0.2591	16581.23	3.8170	3.8169	-0.8280	24.94	0.08	-0.750			
0.2616	16739.44	3.8140	3.8140	-0.8199	24.94	0.08	-0.750			
0.2640	16898.69	3.8110	3.8107	-0.8195	24.94	0.08	-0.750			
0.2665	17056.13	3.8080	3.8078	-0.8145	24.94	0.08	-0.750			
0.2689	17209.32	3.8050	3.8050	-0.8229	24.95	0.09	-0.750			
0.2714	17368.11	3.8020	3.8020	-0.8130	24.95	0.09	-0.750			
0.2738	17522.47	3.7990	3.7989	-0.8047	24.95	0.09	-0.750			
0.2763	17681.58	3.7960	3.7959	-0.8099	24.96	0.10	-0.750			
0.2787	17837.02	3.7930	3.7929	-0.8055	24.96	0.10	-0.750			
0.2811	17990.36	3.7900	3.7899	-0.7984	24.96	0.10	-0.750			
0.2835	18142.22	3.7870	3.7871	-0.7912	24.96	0.10	-0.750			
0.2858	18290.61	3.7840	3.7840	-0.7795	24.96	0.10	-0.750			
0.2882	18444.53	3.7810	3.7811	-0.7896	24.96	0.10	-0.750			
0.2905	18593.90	3.7780	3.7779	-0.7858	24.96	0.10	-0.750			
0.2929	18744.11	3.7750	3.7750	-0.7823	24.96	0.10	-0.750			
0.2952	18894.49	3.7720	3.7720	-0.7885	24.96	0.10	-0.750			
0.2976	19046.87	3.7690	3.7690	-0.7901	24.97	0.11	-0.750			
0.3000	19199.60	3.7660	3.7659	-0.7924	24.97	0.11	-0.750			
0.3024	19352.16	3.7630	3.7632	-0.7931	24.97	0.11	-0.750			
0.3048	19504.41	3.7600	3.7599	-0.7906	24.97	0.11	-0.750			
0.3071	19656.13	3.7570	3.7569	-0.8022	24.97	0.11	-0.750			
0.3096	19811.26	3.7540	3.7540	-0.8060	24.98	0.12	-0.750			
0.3119	19963.84	3.7510	3.7510	-0.8109	24.98	0.12	-0.750			
0.3144	20124.03	3.7480	3.7481	-0.8200	24.98	0.12	-0.750			
0.3169	20281.18	3.7450	3.7448	-0.8297	24.98	0.12	-0.750			
0.3194	20441.25	3.7420	3.7420	-0.8412	24.98	0.12	-0.750			
0.3219	20604.18	3.7390	3.7390	-0.8454	24.98	0.12	-0.750			
0.3244	20764.27	3.7360	3.7360	-0.8491	24.98	0.12	-0.750			
0.3271	20932.88	3.7330	3.7331	-0.8664	24.98	0.12	-0.750			
0.3297	21097.75	3.7300	3.7298	-0.8790	24.98	0.12	-0.750			
0.3323	21267.16	3.7270	3.7269	-0.8913	24.98	0.12	-0.750			
0.3350	21438.21	3.7240	3.7240	-0.9006	24.97	0.11	-0.750			
0.3377	21611.26	3.7210	3.7210	-0.9186	24.97	0.11	-0.750			
0.3405	21793.26	3.7180	3.7184	-0.9458	24.97	0.11	-0.750			
0.3434	21976.77	3.7150	3.7150	-0.9716	24.97	0.11	-0.750			
0.3464	22169.19	3.7120	3.7118	-0.9777	24.97	0.11	-0.750			
0.3493	22354.43	3.7090	3.7090	-1.0055	24.96	0.10	-0.750			
0.3524	22553.63	3.7060	3.7064	-1.0199	24.96	0.10	-0.750			
0.3556	22757.68	3.7030	3.7024	-1.0057	24.96	0.10	-0.750			
0.3587	22955.74	3.7000	3.6996	-0.9775	24.95	0.09	-0.750			
0.3615	23138.28	3.6970	3.6969	-0.9541	24.95	0.09	-0.750	0.362	0.496	
0.3643	23318.38	3.6940	3.6943	-0.9583	24.94	0.08	-0.750			
0.3670	23489.24	3.6910	3.6905	-0.9842	24.94	0.08	-0.750			
0.3698	23665.35	3.6880	3.6878	-0.9958	24.93	0.07	-0.750			
0.3729	23865.58	3.6850	3.6847	-1.0500	24.92	0.06	-0.750			
0.3761	24073.47	3.6820	3.6822	-1.0986	24.91	0.05	-0.750			
0.3797	24299.99	3.6790	3.6791	-1.1648	24.91	0.05	-0.750			
0.3832	24527.04	3.6760	3.6757	-1.1828	24.90	0.04	-0.750			
0.3868	24754.25	3.6730	3.6729	-1.1943	24.89	0.03	-0.750			
0.3904	24985.82	3.6700	3.6704	-1.2309	24.88	0.02	-0.750			
0.3942	25230.53	3.6670	3.6669	-1.2619	24.87	0.01	-0.750			
0.3981	25479.28	3.6640	3.6638	-1.2728	24.85	-0.01	-0.750			
0.4019	25720.90	3.6610	3.6612	-1.2962	24.84	-0.02	-0.750			
0.4058	25969.10	3.6580	3.6580	-1.3046	24.84	-0.02	-0.750			
0.4096	26216.55	3.6550	3.6551	-1.3672	24.83	-0.03	-0.750			
0.4138	26484.83	3.6520	3.6521	-1.3796	24.82	-0.04	-0.750			
0.4179	26744.72	3.6490	3.6490	-1.4160	24.82	-0.04	-0.750			
0.4225	27037.82	3.6460	3.6456	-1.4293	24.81	-0.05	-0.750			
0.4268	27315.73	3.6430	3.6433	-1.4400	24.80	-0.06	-0.750			
0.4311	27591.98	3.6400	3.6396	-1.4637	24.79	-0.07	-0.750			
0.4356	27880.69	3.6370	3.6370	-1.4998	24.78	-0.08	-0.750			
0.4401	28165.67	3.6340	3.6339	-1.5098	24.77	-0.09	-0.750			
0.4447	28461.31	3.6310	3.6313	-1.5527	24.76	-0.10	-0.750			
0.4494	28758.54	3.6280	3.6285	-1.5867	24.75	-0.11	-0.750			
0.4544	29083.90	3.6250	3.6247	-1.6428	24.74	-0.12	-0.750			
0.4594	29401.71	3.6220	3.6220	-1.6672	24.73	-0.13	-0.750			
0.4644	29721.67	3.6190	3.6195	-1.6743	24.72	-0.14	-0.750			
0.4696	30055.17	3.6160	3.6165	-1.7341	24.71	-0.15	-0.750			
0.4747	30380.86	3.6130	3.6129	-1.7446	24.70	-0.16	-0.750			
0.4797	30703.19	3.6100	3.6093	-1.7850	24.70	-0.16	-0.750			
0.4851	31047.91	3.6070	3.6067	-1.8608	24.69	-0.17	-0.750			
0.4907	31405.20	3.6040	3.6039	-1.8295	24.68	-0.18	-0.750			
0.4964	31772.07	3.6010	3.6008	-1.9259	24.67	-0.19	-0.750			
0.5022	32140.04	3.5980	3.5985	-1.9094	24.66	-0.20	-0.750			
0.5081	32517.02	3.5950	3.5950	-1.9973	24.65	-0.21	-0.750			
0.5141	32904.74	3.5920	3.5915	-2.0320	24.64	-0.22	-0.750			
0.5203	33297.53	3.5890	3.5890	-2.0831	24.64	-0.22	-0.750			
0.5266	33702.46	3.5860	3.5866	-2.0932	24.64	-0.22	-0.750			
0.5331	34115.85	3.5830	3.5830	-2.1558	24.63	-0.23	-0.750			
0.5393	34512.57	3.5800	3.5804	-2.1429	24.62	-0.24	-0.750			
0.5457	34925.38	3.5770	3.5771	-2.1424	24.62	-0.24	-0.750			
0.5522	35342.41	3.5740	3.5738	-2.1660	24.62	-0.24	-0.750			
0.5587	35754.89	3.5710	3.5717	-2.2265	24.61	-0.25	-0.750			
0.5657	36206.12	3.5680	3.5678	-2.1986	24.60	-0.26	-0.750			
0.5725	36639.83	3.5650	3.5648	-2.2378	24.60	-0.26	-0.750			
0.5793	37072.03	3.5620	3.5613	-2.2311	24.60	-0.26	-0.750			
0.5856	37479.45	3.5590	3.5591	-2.2456	24.60	-0.26	-0.750			
0.5926	37925.17	3.5560	3.5560	-2.2025	24.60	-0.26	-0.750			
0.5992	38345.94	3.5530	3.5528	-2.2645	24.60	-0.26	-0.750			
0.6060	38780.97	3.5500	3.5507	-2.1468	24.61	-0.25	-0.750			
0.6122	39183.60	3.5470	3.5465	-2.1121	24.62	-0.24	-0.750			
0.6186	39590.94	3.5440	3.5443	-2.1126	24.62	-0.24	-0.750			
0.6249	39991.38	3.5410	3.5408	-2.0905	24.62	-0.24	-0.750			
0.6311	40392.74	3.5380	3.5382	-2.0446	24.63	-0.23	-0.750			
0.6373	40784.70	3.5350	3.5353	-2.0910	24.64	-0.22	-0.750			
0.6433	41168.83	3.5320	3.5317	-2.0296	24.64	-0.22	-0.750			
0.6495	41567.47	3.5290	3.5286	-1.9959	24.64	-0.22	-0.750			
0.6556	41958.39	3.5260	3.5260	-1.9576	24.65	-0.21	-0.750			
0.6616	42339.85	3.5230	3.5230	-1.9085	24.67	-0.19	-0.750			
0.6671	42693.54	3.5200	3.5198	-1.7983	24.69	-0.17	-0.750			
0.6721	43016.20	3.5170	3.5172	-1.7550	24.70	-0.16	-0.750			
0.6773	43347.99	3.5140	3.5141	-1.6866	24.72	-0.14	-0.750			
0.6823	43667.83	3.5110	3.5107	-1.6415	24.73	-0.13	-0.750			
0.6872	43981.57	3.5080	3.5082	-1.5883	24.75	-0.11	-0.750			
0.6920	44290.25	3.5050	3.5047	-1.5542	24.77	-0.09	-0.750			
0.6966	44583.24	3.5020	3.5018	-1.5040	24.78	-0.08	-0.750			
0.7010	44864.76	3.4990	3.4991	-1.4618	24.79	-0.07	-0.750			
0.7053	45141.81	3.4960	3.4958	-1.4304	24.81	-0.05	-0.750			
0.7094	45401.36	3.4930	3.4930	-1.3889	24.82	-0.04	-0.750			
0.7136	45669.19	3.4900	3.4899	-1.3533	24.83	-0.03	-0.750			
0.7177	45929.71	3.4870	3.4869	-1.3666	24.85	-0.01	-0.750			
