Ah_balance (normalized)	Ah_balance (mAh)	Voltage - fit (V)	Voltage -  interpolate (V)	dQ/dV (1/V)	Temperature (°C)	Temperature - diff (°C)	Current (C)	R_DC 0ms (mOhm)	R_DC 50ms (mOhm)	R_DC 50 ms PEC (mOhm)
0.0001	6.90	4.1650	4.1644	-0.0676	25.14	0.02	-0.750			
0.0004	26.99	4.1620	4.1616	-0.1283	25.14	0.02	-0.750			
0.0009	54.81	4.1590	4.1590	-0.1737	25.14	0.02	-0.750			
0.0015	93.69	4.1560	4.1561	-0.2213	25.14	0.02	-0.750			
0.0022	141.54	4.1530	4.1530	-0.2653	25.14	0.02	-0.750			
0.0031	196.63	4.1500	4.1500	-0.3103	25.13	0.01	-0.750			
0.0041	261.70	4.1470	4.1471	-0.3519	25.13	0.01	-0.750			
0.0052	334.38	4.1440	4.1440	-0.3892	25.13	0.01	-0.750			
0.0064	412.39	4.1410	4.1410	-0.4297	25.13	0.01	-0.750			
0.0078	499.09	4.1380	4.1381	-0.4614	25.13	0.01	-0.750			
0.0093	593.22	4.1350	4.1349	-0.4901	25.12	0.00	-0.750			
0.0108	690.23	4.1320	4.1318	-0.5152	25.12	0.00	-0.750			
0.0124	791.74	4.1290	4.1288	-0.5395	25.12	-0.00	-0.750			
0.0140	898.81	4.1260	4.1260	-0.5599	25.12	-0.00	-0.750			
0.0158	1008.23	4.1230	4.1229	-0.5794	25.11	-0.01	-0.750			
0.0175	1119.07	4.1200	4.1201	-0.5910	25.11	-0.01	-0.750			
0.0193	1238.14	4.1170	4.1171	-0.6143	25.11	-0.01	-0.750			
0.0212	1357.21	4.1140	4.1139	-0.6306	25.10	-0.02	-0.750			
0.0231	1480.43	4.1110	4.1110	-0.6448	25.10	-0.02	-0.750			
0.0251	1605.83	4.1080	4.1082	-0.6579	25.10	-0.02	-0.750			
0.0271	1735.27	4.1050	4.1048	-0.6717	25.10	-0.02	-0.750			
0.0291	1863.87	4.1020	4.1021	-0.6835	25.09	-0.03	-0.750			
0.0312	1997.17	4.0990	4.0989	-0.6893	25.09	-0.03	-0.750			
0.0333	2130.31	4.0960	4.0960	-0.6954	25.09	-0.03	-0.750			
0.0354	2264.79	4.0930	4.0929	-0.6981	25.08	-0.04	-0.750			
0.0375	2399.18	4.0900	4.0901	-0.7043	25.08	-0.04	-0.750			
0.0396	2535.87	4.0870	4.0870	-0.7046	25.08	-0.04	-0.750			
0.0417	2668.95	4.0840	4.0839	-0.7156	25.08	-0.04	-0.750			
0.0439	2807.33	4.0810	4.0811	-0.7136	25.07	-0.05	-0.750			
0.0460	2946.06	4.0780	4.0779	-0.7212	25.07	-0.05	-0.750			
0.0482	3082.54	4.0750	4.0753	-0.7355	25.07	-0.05	-0.750			
0.0504	3224.85	4.0720	4.0718	-0.7485	25.07	-0.05	-0.750			
0.0527	3369.65	4.0690	4.0687	-0.7555	25.07	-0.05	-0.750			
0.0550	3518.96	4.0660	4.0660	-0.7635	25.07	-0.05	-0.750			
0.0573	3666.67	4.0630	4.0630	-0.7595	25.07	-0.05	-0.750			
0.0597	3817.76	4.0600	4.0600	-0.7672	25.07	-0.05	-0.750			
0.0619	3963.30	4.0570	4.0572	-0.7586	25.07	-0.05	-0.750			
0.0641	4103.28	4.0540	4.0540	-0.7499	25.07	-0.05	-0.750			
0.0664	4247.99	4.0510	4.0510	-0.7623	25.07	-0.05	-0.750			
0.0687	4395.05	4.0480	4.0480	-0.7643	25.08	-0.04	-0.750			
0.0710	4544.96	4.0450	4.0448	-0.7698	25.08	-0.04	-0.750			
0.0733	4691.58	4.0420	4.0420	-0.7672	25.08	-0.04	-0.750			
0.0756	4838.98	4.0390	4.0389	-0.7679	25.08	-0.04	-0.750			
0.0779	4985.08	4.0360	4.0358	-0.7744	25.08	-0.04	-0.750			
0.0802	5133.45	4.0330	4.0330	-0.7647	25.08	-0.04	-0.750			
0.0825	5279.19	4.0300	4.0300	-0.7637	25.08	-0.04	-0.750			
0.0849	5430.69	4.0270	4.0270	-0.7715	25.08	-0.04	-0.750			
0.0872	5578.20	4.0240	4.0243	-0.7668	25.08	-0.04	-0.750			
0.0894	5720.77	4.0210	4.0209	-0.7661	25.08	-0.04	-0.750			
0.0917	5866.77	4.0180	4.0180	-0.7736	25.08	-0.04	-0.750			
0.0939	6012.80	4.0150	4.0151	-0.7795	25.08	-0.04	-0.750			
0.0964	6168.21	4.0120	4.0118	-0.7897	25.08	-0.04	-0.750			
0.0988	6322.00	4.0090	4.0091	-0.7888	25.08	-0.04	-0.750			
0.1012	6473.81	4.0060	4.0061	-0.7934	25.08	-0.04	-0.750			
0.1035	6625.97	4.0030	4.0029	-0.8077	25.09	-0.03	-0.750			
0.1060	6782.80	4.0000	3.9998	-0.8060	25.09	-0.03	-0.750			
0.1084	6936.59	3.9970	3.9968	-0.7941	25.09	-0.03	-0.750			
0.1108	7092.36	3.9940	3.9943	-0.7955	25.10	-0.02	-0.750			
0.1132	7245.56	3.9910	3.9909	-0.7942	25.10	-0.02	-0.750			
0.1155	7394.62	3.9880	3.9878	-0.8006	25.10	-0.02	-0.750			
0.1179	7545.81	3.9850	3.9849	-0.7941	25.10	-0.02	-0.750			
0.1202	7695.02	3.9820	3.9821	-0.7887	25.10	-0.02	-0.750			
0.1227	7853.94	3.9790	3.9788	-0.8057	25.10	-0.02	-0.750			
0.1251	8009.49	3.9760	3.9759	-0.8040	25.10	-0.02	-0.750			
0.1275	8162.91	3.9730	3.9729	-0.8024	25.10	-0.02	-0.750			
0.1299	8315.53	3.9700	3.9700	-0.8004	25.10	-0.02	-0.750			
0.1323	8465.78	3.9670	3.9670	-0.7982	25.10	-0.02	-0.750			
0.1347	8623.56	3.9640	3.9639	-0.8066	25.10	-0.02	-0.750			
0.1372	8778.60	3.9610	3.9611	-0.8089	25.10	-0.02	-0.750			
0.1396	8933.83	3.9580	3.9580	-0.8116	25.10	-0.02	-0.750			
0.1420	9090.11	3.9550	3.9550	-0.8347	25.11	-0.01	-0.750			
0.1446	9253.71	3.9520	3.9519	-0.8373	25.11	-0.01	-0.750			
0.1471	9415.97	3.9490	3.9487	-0.8453	25.12	-0.00	-0.750			
0.1497	9579.76	3.9460	3.9464	-0.8472	25.12	0.00	-0.750			
0.1523	9745.86	3.9430	3.9430	-0.8459	25.12	0.00	-0.750			
0.1548	9909.14	3.9400	3.9399	-0.8469	25.12	0.00	-0.750			
0.1573	10067.93	3.9370	3.9370	-0.8285	25.13	0.01	-0.750			
0.1598	10230.19	3.9340	3.9338	-0.8324	25.13	0.01	-0.750			
0.1624	10392.96	3.9310	3.9310	-0.8307	25.13	0.01	-0.750			
0.1648	10545.52	3.9280	3.9280	-0.8324	25.13	0.01	-0.750			
0.1673	10705.94	3.9250	3.9249	-0.8285	25.13	0.01	-0.750			
0.1697	10862.94	3.9220	3.9220	-0.8236	25.14	0.02	-0.750			
0.1723	11028.46	3.9190	3.9190	-0.8347	25.14	0.02	-0.750			
0.1748	11188.28	3.9160	3.9161	-0.8370	25.14	0.02	-0.750			
0.1773	11348.41	3.9130	3.9129	-0.8393	25.14	0.02	-0.750			
0.1798	11510.27	3.9100	3.9099	-0.8468	25.14	0.02	-0.750			
0.1824	11673.03	3.9070	3.9069	-0.8431	25.15	0.03	-0.750			
0.1850	11837.93	3.9040	3.9039	-0.8502	25.15	0.03	-0.750			
0.1875	12001.55	3.9010	3.9011	-0.8449	25.15	0.03	-0.750			
0.1900	12161.86	3.8980	3.8979	-0.8573	25.16	0.04	-0.750			
0.1926	12326.10	3.8950	3.8949	-0.8499	25.16	0.04	-0.750			
0.1951	12486.98	3.8920	3.8920	-0.8397	25.16	0.04	-0.750			
0.1977	12652.62	3.8890	3.8889	-0.8519	25.17	0.05	-0.750			
0.2003	12817.77	3.8860	3.8859	-0.8504	25.17	0.05	-0.750			
0.2028	12977.74	3.8830	3.8828	-0.8529	25.17	0.05	-0.750			
0.2053	13140.63	3.8800	3.8800	-0.8486	25.17	0.05	-0.750			
0.2078	13300.53	3.8770	3.8770	-0.8422	25.17	0.05	-0.750			
0.2104	13468.77	3.8740	3.8740	-0.8541	25.17	0.05	-0.750			
0.2130	13634.75	3.8710	3.8710	-0.8490	25.17	0.05	-0.750			
0.2155	13794.47	3.8680	3.8679	-0.8525	25.17	0.05	-0.750			
0.2181	13957.49	3.8650	3.8650	-0.8538	25.18	0.06	-0.750			
0.2206	14121.15	3.8620	3.8619	-0.8477	25.18	0.06	-0.750			
0.2232	14286.10	3.8590	3.8589	-0.8534	25.18	0.06	-0.750			
0.2258	14449.89	3.8560	3.8560	-0.8570	25.18	0.06	-0.750			
0.2283	14614.28	3.8530	3.8529	-0.8643	25.19	0.07	-0.750			
0.2310	14783.70	3.8500	3.8498	-0.8570	25.19	0.07	-0.750			
0.2335	14945.19	3.8470	3.8469	-0.8456	25.19	0.07	-0.750			
0.2361	15110.60	3.8440	3.8442	-0.8508	25.20	0.08	-0.750			
0.2387	15273.64	3.8410	3.8408	-0.8498	25.20	0.08	-0.750			
0.2411	15433.21	3.8380	3.8378	-0.8488	25.20	0.08	-0.750			
0.2437	15596.46	3.8350	3.8350	-0.8448	25.20	0.08	-0.750			
0.2462	15757.07	3.8320	3.8321	-0.8405	25.20	0.08	-0.750			
0.2488	15925.88	3.8290	3.8292	-0.8525	25.20	0.08	-0.750			
0.2514	16087.83	3.8260	3.8259	-0.8431	25.20	0.08	-0.750			
0.2539	16248.29	3.8230	3.8228	-0.8379	25.21	0.09	-0.750			
0.2564	16409.08	3.8200	3.8200	-0.8294	25.21	0.09	-0.750			
0.2589	16566.58	3.8170	3.8171	-0.8218	25.22	0.10	-0.750			
0.2614	16728.16	3.8140	3.8143	-0.8217	25.22	0.10	-0.750			
0.2638	16883.25	3.8110	3.8107	-0.8091	25.23	0.11	-0.750			
0.2662	17034.12	3.8080	3.8081	-0.8077	25.23	0.11	-0.750			
0.2686	17189.16	3.8050	3.8050	-0.8080	25.24	0.12	-0.750			
0.2711	17348.41	3.8020	3.8017	-0.8117	25.24	0.12	-0.750			
0.2735	17503.13	3.7990	3.7992	-0.8019	25.25	0.13	-0.750			
0.2759	17654.67	3.7960	3.7960	-0.7927	25.25	0.13	-0.750			
0.2782	17806.70	3.7930	3.7930	-0.7937	25.25	0.13	-0.750			
0.2806	17959.68	3.7900	3.7899	-0.7852	25.26	0.14	-0.750			
0.2829	18105.46	3.7870	3.7870	-0.7758	25.26	0.14	-0.750			
0.2853	18257.14	3.7840	3.7840	-0.7799	25.26	0.14	-0.750			
0.2876	18406.02	3.7810	3.7812	-0.7832	25.26	0.14	-0.750			
0.2899	18555.21	3.7780	3.7779	-0.7854	25.26	0.14	-0.750			
0.2923	18707.07	3.7750	3.7750	-0.7850	25.26	0.14	-0.750			
0.2946	18856.86	3.7720	3.7720	-0.7864	25.27	0.15	-0.750			
0.2970	19011.16	3.7690	3.7691	-0.7893	25.27	0.15	-0.750			
0.2994	19163.28	3.7660	3.7661	-0.7885	25.27	0.15	-0.750			
0.3018	19313.04	3.7630	3.7630	-0.7913	25.27	0.15	-0.750			
0.3041	19464.19	3.7600	3.7600	-0.7954	25.27	0.15	-0.750			
0.3065	19619.00	3.7570	3.7569	-0.7994	25.28	0.16	-0.750			
0.3090	19774.27	3.7540	3.7539	-0.8072	25.28	0.16	-0.750			
0.3114	19927.54	3.7510	3.7515	-0.8105	25.28	0.16	-0.750			
0.3138	20084.63	3.7480	3.7479	-0.8202	25.28	0.16	-0.750			
0.3163	20241.07	3.7450	3.7449	-0.8317	25.28	0.16	-0.750			
0.3188	20400.21	3.7420	3.7419	-0.8353	25.28	0.16	-0.750			
0.3214	20567.15	3.7390	3.7390	-0.8557	25.28	0.16	-0.750			
0.3239	20731.53	3.7360	3.7363	-0.8552	25.28	0.16	-0.750			
0.3265	20894.14	3.7330	3.7330	-0.8705	25.28	0.16	-0.750			
0.3291	21061.85	3.7300	3.7300	-0.8799	25.28	0.16	-0.750			
0.3317	21227.30	3.7270	3.7269	-0.8915	25.28	0.16	-0.750			
0.3344	21401.67	3.7240	3.7240	-0.9156	25.28	0.16	-0.750			
0.3372	21580.15	3.7210	3.7212	-0.9296	25.28	0.16	-0.750			
0.3401	21763.65	3.7180	3.7179	-0.9571	25.28	0.16	-0.750			
0.3430	21949.77	3.7150	3.7150	-0.9640	25.27	0.15	-0.750			
0.3459	22134.97	3.7120	3.7119	-0.9707	25.27	0.15	-0.750			
0.3488	22322.92	3.7090	3.7094	-0.9948	25.27	0.15	-0.750			
0.3518	22515.47	3.7060	3.7058	-1.0074	25.27	0.15	-0.750			
0.3549	22710.43	3.7030	3.7028	-1.0181	25.27	0.15	-0.750			
0.3579	22905.86	3.7000	3.6998	-1.0310	25.27	0.15	-0.750	0.386	0.497	
0.3610	23106.30	3.6970	3.6971	-1.0581	25.27	0.15	-0.750			
0.3642	23309.45	3.6940	3.6938	-1.0790	25.27	0.15	-0.750			
0.3675	23517.85	3.6910	3.6908	-1.0865	25.26	0.14	-0.750			
0.3707	23725.55	3.6880	3.6881	-1.1049	25.26	0.14	-0.750			
0.3741	23940.69	3.6850	3.6853	-1.1441	25.25	0.13	-0.750			
0.3778	24176.26	3.6820	3.6818	-1.1444	25.25	0.13	-0.750			
0.3813	24400.56	3.6790	3.6786	-1.1173	25.24	0.12	-0.750			
0.3846	24611.75	3.6760	3.6760	-1.1015	25.24	0.12	-0.750			
0.3877	24815.64	3.6730	3.6736	-1.1169	25.24	0.12	-0.750			
0.3910	25024.02	3.6700	3.6695	-1.1320	25.23	0.11	-0.750			
0.3942	25227.05	3.6670	3.6668	-1.1504	25.23	0.11	-0.750			
0.3977	25452.96	3.6640	3.6641	-1.2092	25.22	0.10	-0.750			
0.4016	25702.80	3.6610	3.6610	-1.2850	25.21	0.09	-0.750			
0.4058	25968.22	3.6580	3.6579	-1.3339	25.20	0.08	-0.750			
0.4098	26228.92	3.6550	3.6550	-1.3689	25.19	0.07	-0.750			
0.4140	26494.53	3.6520	3.6518	-1.3775	25.19	0.07	-0.750			
0.4183	26769.87	3.6490	3.6488	-1.3807	25.18	0.06	-0.750			
0.4224	27033.81	3.6460	3.6460	-1.3833	25.17	0.05	-0.750			
0.4265	27292.86	3.6430	3.6428	-1.3899	25.17	0.05	-0.750			
0.4306	27558.40	3.6400	3.6401	-1.4070	25.16	0.04	-0.750			
0.4348	27826.09	3.6370	3.6370	-1.4403	25.15	0.03	-0.750			
0.4391	28101.45	3.6340	3.6337	-1.4584	25.15	0.03	-0.750			
0.4436	28392.15	3.6310	3.6310	-1.5587	25.14	0.02	-0.750			
0.4485	28701.56	3.6280	3.6283	-1.5920	25.14	0.02	-0.750			
0.4534	29018.26	3.6250	3.6245	-1.6135	25.13	0.01	-0.750			
0.4584	29335.85	3.6220	3.6217	-1.6363	25.13	0.01	-0.750			
0.4633	29654.26	3.6190	3.6186	-1.6753	25.12	-0.00	-0.750			
0.4684	29977.70	3.6160	3.6157	-1.7233	25.11	-0.01	-0.750			
0.4735	30301.01	3.6130	3.6128	-1.7882	25.11	-0.01	-0.750			
0.4788	30640.85	3.6100	3.6104	-1.7889	25.10	-0.02	-0.750			
0.4843	30997.27	3.6070	3.6075	-1.8266	25.09	-0.03	-0.750			
0.4899	31353.82	3.6040	3.6044	-1.8416	25.09	-0.03	-0.750			
0.4955	31710.58	3.6010	3.6010	-1.8789	25.08	-0.04	-0.750			
0.5011	32073.12	3.5980	3.5978	-1.9337	25.08	-0.04	-0.750			
0.5072	32458.98	3.5950	3.5953	-1.9841	25.07	-0.05	-0.750			
0.5130	32833.95	3.5920	3.5920	-1.9867	25.07	-0.05	-0.750			
0.5193	33233.25	3.5890	3.5894	-2.0742	25.06	-0.06	-0.750			
0.5255	33629.25	3.5860	3.5858	-2.0845	25.06	-0.06	-0.750			
0.5320	34045.19	3.5830	3.5827	-2.1001	25.05	-0.07	-0.750			
0.5381	34440.99	3.5800	3.5797	-2.1253	25.05	-0.07	-0.750			
0.5446	34854.38	3.5770	3.5768	-2.2029	25.04	-0.08	-0.750			
0.5511	35268.61	3.5740	3.5743	-2.1584	25.04	-0.08	-0.750			
0.5579	35706.67	3.5710	3.5714	-2.2206	25.04	-0.08	-0.750			
0.5646	36137.16	3.5680	3.5677	-2.2266	25.04	-0.08	-0.750			
0.5713	36563.45	3.5650	3.5653	-2.1822	25.04	-0.08	-0.750			
0.5779	36983.46	3.5620	3.5622	-2.2553	25.04	-0.08	-0.750			
0.5844	37402.43	3.5590	3.5593	-2.2553	25.04	-0.08	-0.750			
0.5909	37818.68	3.5560	3.5560	-2.2306	25.04	-0.08	-0.750			
0.5981	38277.48	3.5530	3.5528	-2.2011	25.04	-0.08	-0.750			
0.6045	38687.10	3.5500	3.5508	-2.1700	25.04	-0.08	-0.750			
0.6110	39106.80	3.5470	3.5473	-2.1240	25.04	-0.08	-0.750			
0.6174	39510.79	3.5440	3.5437	-2.0925	25.05	-0.07	-0.750			
0.6236	39909.00	3.5410	3.5406	-2.0982	25.06	-0.06	-0.750			
0.6298	40306.14	3.5380	3.5376	-2.0870	25.06	-0.06	-0.750			
0.6358	40692.05	3.5350	3.5352	-2.0039	25.07	-0.05	-0.750			
0.6419	41079.81	3.5320	3.5321	-1.9774	25.07	-0.05	-0.750			
0.6477	41451.86	3.5290	3.5294	-1.9390	25.08	-0.04	-0.750			
0.6534	41815.63	3.5260	3.5266	-1.8979	25.09	-0.03	-0.750			
0.6590	42175.35	3.5230	3.5233	-1.8382	25.10	-0.02	-0.750			
0.6643	42513.21	3.5200	3.5197	-1.7768	25.12	-0.00	-0.750			
0.6696	42855.46	3.5170	3.5166	-1.7309	25.13	0.01	-0.750			
0.6748	43186.37	3.5140	3.5141	-1.6975	25.14	0.02	-0.750			
0.6799	43511.43	3.5110	3.5106	-1.6368	25.16	0.04	-0.750			
0.6846	43816.14	3.5080	3.5075	-1.5716	25.17	0.05	-0.750			
0.6894	44118.55	3.5050	3.5052	-1.5208	25.19	0.07	-0.750			
0.6937	44395.74	3.5020	3.5018	-1.4598	25.20	0.08	-0.750			
0.6980	44671.75	3.4990	3.4989	-1.4410	25.22	0.10	-0.750			
0.7025	44960.66	3.4960	3.4958	-1.4410	25.23	0.11	-0.750			
0.7066	45220.38	3.4930	3.4930	-1.4143	25.25	0.13	-0.750			
0.7109	45499.84	3.4900	3.4904	-1.3567	25.27	0.15	-0.750			
0.7149	45756.52	3.4870	3.4869	-1.3304	25.28	0.16	-0.750			
