Ah_balance (normalized)	Ah_balance (mAh)	Voltage - fit (V)	Voltage -  interpolate (V)	dQ/dV (1/V)	Temperature (°C)	Temperature - diff (°C)	Current (C)	R_DC 0ms (mOhm)	R_DC 50ms (mOhm)	R_DC 50 ms PEC (mOhm)
0.0004	24.60	4.1600	4.1600	-0.1394	25.07	0.01	-0.750			
0.0009	54.71	4.1570	4.1571	-0.1801	25.07	0.01	-0.750			
0.0015	93.01	4.1540	4.1540	-0.2246	25.07	0.01	-0.750			
0.0022	141.86	4.1510	4.1509	-0.2639	25.07	0.01	-0.750			
0.0031	196.86	4.1480	4.1479	-0.3000	25.07	0.01	-0.750			
0.0041	259.27	4.1450	4.1450	-0.3371	25.06	0.00	-0.750			
0.0051	328.39	4.1420	4.1425	-0.3711	25.06	-0.00	-0.750			
0.0063	402.39	4.1390	4.1391	-0.4051	25.06	-0.00	-0.750			
0.0076	483.21	4.1360	4.1359	-0.4374	25.05	-0.01	-0.750			
0.0089	570.40	4.1330	4.1330	-0.4660	25.05	-0.01	-0.750			
0.0104	663.98	4.1300	4.1300	-0.4992	25.04	-0.02	-0.750			
0.0119	763.18	4.1270	4.1271	-0.5265	25.04	-0.02	-0.750			
0.0136	868.02	4.1240	4.1239	-0.5516	25.03	-0.03	-0.750			
0.0153	976.81	4.1210	4.1210	-0.5728	25.03	-0.03	-0.750			
0.0170	1088.90	4.1180	4.1181	-0.5928	25.02	-0.04	-0.750			
0.0188	1205.75	4.1150	4.1150	-0.6107	25.02	-0.04	-0.750			
0.0207	1326.23	4.1120	4.1119	-0.6275	25.01	-0.05	-0.750			
0.0226	1445.89	4.1090	4.1090	-0.6436	25.01	-0.05	-0.750			
0.0246	1573.32	4.1060	4.1060	-0.6507	25.01	-0.05	-0.750			
0.0266	1701.22	4.1030	4.1029	-0.6596	25.01	-0.05	-0.750			
0.0286	1827.64	4.1000	4.0998	-0.6683	25.00	-0.06	-0.750			
0.0305	1954.61	4.0970	4.0972	-0.6809	25.00	-0.06	-0.750			
0.0326	2088.59	4.0940	4.0938	-0.6830	25.00	-0.06	-0.750			
0.0347	2219.14	4.0910	4.0910	-0.6921	24.99	-0.07	-0.750			
0.0367	2351.79	4.0880	4.0881	-0.6929	24.99	-0.07	-0.750			
0.0389	2490.60	4.0850	4.0851	-0.7042	24.99	-0.07	-0.750			
0.0410	2625.12	4.0820	4.0817	-0.7081	24.98	-0.08	-0.750			
0.0431	2759.65	4.0790	4.0793	-0.7108	24.98	-0.08	-0.750			
0.0452	2894.76	4.0760	4.0760	-0.7145	24.98	-0.08	-0.750			
0.0474	3035.48	4.0730	4.0730	-0.7298	24.98	-0.08	-0.750			
0.0496	3176.37	4.0700	4.0700	-0.7236	24.99	-0.07	-0.750			
0.0518	3316.97	4.0670	4.0670	-0.7299	24.99	-0.07	-0.750			
0.0540	3458.71	4.0640	4.0641	-0.7342	24.99	-0.07	-0.750			
0.0562	3598.77	4.0610	4.0609	-0.7295	24.99	-0.07	-0.750			
0.0584	3738.10	4.0580	4.0579	-0.7291	24.99	-0.07	-0.750			
0.0606	3877.66	4.0550	4.0552	-0.7381	24.99	-0.07	-0.750			
0.0628	4021.29	4.0520	4.0519	-0.7377	24.98	-0.08	-0.750			
0.0651	4164.33	4.0490	4.0490	-0.7414	24.98	-0.08	-0.750			
0.0673	4305.77	4.0460	4.0463	-0.7389	24.98	-0.08	-0.750			
0.0695	4448.15	4.0430	4.0429	-0.7378	24.98	-0.08	-0.750			
0.0717	4588.24	4.0400	4.0400	-0.7482	24.98	-0.08	-0.750			
0.0739	4732.57	4.0370	4.0370	-0.7476	24.99	-0.07	-0.750			
0.0762	4878.93	4.0340	4.0339	-0.7507	24.99	-0.07	-0.750			
0.0785	5023.61	4.0310	4.0308	-0.7503	24.99	-0.07	-0.750			
0.0807	5167.08	4.0280	4.0282	-0.7469	24.99	-0.07	-0.750			
0.0830	5310.11	4.0250	4.0249	-0.7453	24.99	-0.07	-0.750			
0.0852	5450.19	4.0220	4.0220	-0.7486	24.99	-0.07	-0.750			
0.0874	5590.63	4.0190	4.0190	-0.7462	25.00	-0.06	-0.750			
0.0897	5739.64	4.0160	4.0159	-0.7575	25.00	-0.06	-0.750			
0.0920	5886.90	4.0130	4.0131	-0.7627	25.00	-0.06	-0.750			
0.0943	6032.68	4.0100	4.0100	-0.7619	25.00	-0.06	-0.750			
0.0965	6178.34	4.0070	4.0069	-0.7693	25.00	-0.06	-0.750			
0.0989	6326.92	4.0040	4.0040	-0.7681	25.00	-0.06	-0.750			
0.1011	6471.61	4.0010	4.0010	-0.7716	25.00	-0.06	-0.750			
0.1035	6622.49	3.9980	3.9980	-0.7861	25.00	-0.06	-0.750			
0.1059	6775.68	3.9950	3.9949	-0.7906	25.00	-0.06	-0.750			
0.1082	6925.25	3.9920	3.9920	-0.8022	25.01	-0.05	-0.750			
0.1107	7083.57	3.9890	3.9891	-0.8006	25.01	-0.05	-0.750			
0.1131	7237.93	3.9860	3.9859	-0.7984	25.01	-0.05	-0.750			
0.1155	7394.41	3.9830	3.9828	-0.7927	25.02	-0.04	-0.750			
0.1179	7542.84	3.9800	3.9804	-0.7896	25.02	-0.04	-0.750			
0.1202	7693.07	3.9770	3.9769	-0.7903	25.02	-0.04	-0.750			
0.1226	7845.35	3.9740	3.9738	-0.7931	25.02	-0.04	-0.750			
0.1249	7995.07	3.9710	3.9710	-0.7856	25.02	-0.04	-0.750			
0.1274	8152.05	3.9680	3.9680	-0.7983	25.02	-0.04	-0.750			
0.1298	8305.13	3.9650	3.9649	-0.8016	25.02	-0.04	-0.750			
0.1322	8459.52	3.9620	3.9620	-0.8005	25.02	-0.04	-0.750			
0.1345	8611.19	3.9590	3.9589	-0.8027	25.03	-0.03	-0.750			
0.1370	8764.95	3.9560	3.9560	-0.8028	25.03	-0.03	-0.750			
0.1394	8921.93	3.9530	3.9530	-0.8076	25.04	-0.02	-0.750			
0.1418	9075.90	3.9500	3.9502	-0.8058	25.04	-0.02	-0.750			
0.1442	9231.15	3.9470	3.9469	-0.8070	25.04	-0.02	-0.750			
0.1466	9384.94	3.9440	3.9440	-0.8139	25.04	-0.02	-0.750			
0.1491	9542.29	3.9410	3.9409	-0.8137	25.04	-0.02	-0.750			
0.1515	9698.86	3.9380	3.9378	-0.8083	25.04	-0.02	-0.750			
0.1540	9858.06	3.9350	3.9352	-0.8117	25.04	-0.02	-0.750			
0.1564	10012.68	3.9320	3.9318	-0.8073	25.04	-0.02	-0.750			
0.1588	10165.29	3.9290	3.9289	-0.8030	25.05	-0.01	-0.750			
0.1612	10318.37	3.9260	3.9260	-0.8032	25.05	-0.01	-0.750			
0.1635	10467.15	3.9230	3.9230	-0.8034	25.05	-0.01	-0.750			
0.1661	10627.35	3.9200	3.9200	-0.8232	25.06	-0.00	-0.750			
0.1685	10786.35	3.9170	3.9171	-0.8314	25.06	0.00	-0.750			
0.1710	10946.52	3.9140	3.9138	-0.8408	25.06	0.00	-0.750			
0.1736	11113.13	3.9110	3.9110	-0.8345	25.06	0.00	-0.750			
0.1762	11275.17	3.9080	3.9080	-0.8270	25.06	0.00	-0.750			
0.1786	11432.08	3.9050	3.9049	-0.8231	25.06	0.00	-0.750			
0.1811	11587.33	3.9020	3.9020	-0.8170	25.06	0.00	-0.750			
0.1834	11740.32	3.8990	3.8988	-0.8257	25.07	0.01	-0.750			
0.1859	11899.70	3.8960	3.8959	-0.8226	25.07	0.01	-0.750			
0.1884	12059.38	3.8930	3.8930	-0.8202	25.08	0.02	-0.750			
0.1910	12221.81	3.8900	3.8900	-0.8258	25.09	0.03	-0.750			
0.1935	12381.55	3.8870	3.8870	-0.8216	25.09	0.03	-0.750			
0.1959	12535.03	3.8840	3.8839	-0.8248	25.09	0.03	-0.750			
0.1983	12690.55	3.8810	3.8809	-0.8192	25.09	0.03	-0.750			
0.2007	12847.57	3.8780	3.8780	-0.8166	25.10	0.04	-0.750			
0.2032	13007.80	3.8750	3.8749	-0.8284	25.10	0.04	-0.750			
0.2057	13167.48	3.8720	3.8722	-0.8360	25.10	0.04	-0.750			
0.2082	13326.46	3.8690	3.8690	-0.8388	25.11	0.05	-0.750			
0.2108	13489.19	3.8660	3.8657	-0.8324	25.11	0.05	-0.750			
0.2133	13648.27	3.8630	3.8632	-0.8242	25.11	0.05	-0.750			
0.2158	13809.93	3.8600	3.8600	-0.8239	25.12	0.06	-0.750			
0.2183	13969.50	3.8570	3.8570	-0.8182	25.12	0.06	-0.750			
0.2207	14122.54	3.8540	3.8540	-0.8063	25.12	0.06	-0.750			
0.2230	14272.54	3.8510	3.8509	-0.7912	25.12	0.06	-0.750			
0.2254	14422.96	3.8480	3.8481	-0.7820	25.13	0.07	-0.750			
0.2277	14575.56	3.8450	3.8450	-0.7903	25.13	0.07	-0.750			
0.2301	14726.73	3.8420	3.8423	-0.7845	25.13	0.07	-0.750			
0.2325	14877.05	3.8390	3.8388	-0.7809	25.13	0.07	-0.750			
0.2348	15025.68	3.8360	3.8361	-0.7799	25.14	0.08	-0.750			
0.2371	15176.10	3.8330	3.8329	-0.7777	25.14	0.08	-0.750			
0.2395	15326.26	3.8300	3.8300	-0.7781	25.15	0.09	-0.750			
0.2418	15474.60	3.8270	3.8270	-0.7747	25.15	0.09	-0.750			
0.2441	15621.87	3.8240	3.8240	-0.7688	25.15	0.09	-0.750			
0.2464	15769.81	3.8210	3.8210	-0.7714	25.16	0.10	-0.750			
0.2487	15917.97	3.8180	3.8179	-0.7646	25.16	0.10	-0.750			
0.2510	16063.86	3.8150	3.8150	-0.7606	25.16	0.10	-0.750			
0.2533	16210.75	3.8120	3.8119	-0.7600	25.17	0.11	-0.750			
0.2555	16354.91	3.8090	3.8092	-0.7621	25.17	0.11	-0.750			
0.2578	16501.32	3.8060	3.8059	-0.7585	25.17	0.11	-0.750			
0.2601	16647.52	3.8030	3.8029	-0.7639	25.17	0.11	-0.750			
0.2624	16795.52	3.8000	3.8001	-0.7594	25.18	0.12	-0.750			
0.2647	16941.78	3.7970	3.7969	-0.7631	25.18	0.12	-0.750			
0.2670	17087.74	3.7940	3.7939	-0.7616	25.18	0.12	-0.750			
0.2693	17233.18	3.7910	3.7908	-0.7618	25.18	0.12	-0.750			
0.2715	17378.10	3.7880	3.7880	-0.7646	25.19	0.13	-0.750			
0.2739	17526.58	3.7850	3.7850	-0.7656	25.19	0.13	-0.750			
0.2761	17672.00	3.7820	3.7821	-0.7629	25.19	0.13	-0.750			
0.2785	17821.19	3.7790	3.7790	-0.7775	25.20	0.14	-0.750			
0.2808	17968.98	3.7760	3.7761	-0.7784	25.20	0.14	-0.750			
0.2831	18117.08	3.7730	3.7729	-0.7868	25.20	0.14	-0.750			
0.2855	18269.29	3.7700	3.7700	-0.7968	25.20	0.14	-0.750			
0.2879	18425.17	3.7670	3.7671	-0.7999	25.20	0.14	-0.750			
0.2903	18581.55	3.7640	3.7639	-0.8031	25.20	0.14	-0.750			
0.2927	18735.33	3.7610	3.7612	-0.8101	25.20	0.14	-0.750			
0.2951	18889.07	3.7580	3.7580	-0.8135	25.20	0.14	-0.750			
0.2976	19045.53	3.7550	3.7549	-0.8270	25.20	0.14	-0.750			
0.3001	19206.04	3.7520	3.7519	-0.8327	25.21	0.15	-0.750			
0.3026	19368.43	3.7490	3.7489	-0.8390	25.21	0.15	-0.750			
0.3052	19530.98	3.7460	3.7463	-0.8463	25.21	0.15	-0.750			
0.3077	19695.06	3.7430	3.7430	-0.8506	25.21	0.15	-0.750			
0.3103	19856.16	3.7400	3.7399	-0.8564	25.21	0.15	-0.750			
0.3128	20018.71	3.7370	3.7370	-0.8632	25.22	0.16	-0.750			
0.3154	20186.91	3.7340	3.7339	-0.8801	25.22	0.16	-0.750			
0.3181	20356.72	3.7310	3.7311	-0.8915	25.22	0.16	-0.750			
0.3208	20530.24	3.7280	3.7280	-0.9109	25.22	0.16	-0.750			
0.3235	20705.45	3.7250	3.7250	-0.9222	25.22	0.16	-0.750			
0.3263	20885.09	3.7220	3.7219	-0.9308	25.21	0.15	-0.750			
0.3292	21066.23	3.7190	3.7191	-0.9418	25.21	0.15	-0.750			
0.3320	21245.81	3.7160	3.7160	-0.9628	25.21	0.15	-0.750			
0.3349	21432.69	3.7130	3.7129	-0.9685	25.21	0.15	-0.750			
0.3378	21619.62	3.7100	3.7099	-0.9771	25.21	0.15	-0.750			
0.3407	21807.01	3.7070	3.7069	-0.9937	25.21	0.15	-0.750			
0.3438	22002.24	3.7040	3.7037	-1.0105	25.21	0.15	-0.750			
0.3468	22198.03	3.7010	3.7009	-1.0198	25.21	0.15	-0.750			
0.3499	22393.71	3.6980	3.6981	-1.0274	25.20	0.14	-0.750	0.375	0.519	
0.3529	22588.65	3.6950	3.6949	-1.0345	25.20	0.14	-0.750			
0.3561	22792.47	3.6920	3.6919	-1.0633	25.20	0.14	-0.750			
0.3593	22994.92	3.6890	3.6891	-1.0730	25.19	0.13	-0.750			
0.3626	23205.64	3.6860	3.6860	-1.0949	25.19	0.13	-0.750			
0.3659	23415.68	3.6830	3.6830	-1.1101	25.18	0.12	-0.750			
0.3693	23633.44	3.6800	3.6800	-1.1370	25.18	0.12	-0.750			
0.3727	23850.78	3.6770	3.6769	-1.1550	25.18	0.12	-0.750			
0.3762	24073.94	3.6740	3.6740	-1.1763	25.17	0.11	-0.750			
0.3797	24301.94	3.6710	3.6712	-1.1924	25.17	0.11	-0.750			
0.3834	24535.03	3.6680	3.6679	-1.2126	25.17	0.11	-0.750			
0.3870	24771.11	3.6650	3.6650	-1.2282	25.16	0.10	-0.750			
0.3907	25004.97	3.6620	3.6620	-1.2487	25.16	0.10	-0.750			
0.3945	25248.01	3.6590	3.6590	-1.2698	25.16	0.10	-0.750			
0.3983	25492.00	3.6560	3.6559	-1.2808	25.15	0.09	-0.750			
0.4022	25739.98	3.6530	3.6530	-1.2985	25.14	0.08	-0.750			
0.4061	25989.33	3.6500	3.6501	-1.3282	25.14	0.08	-0.750			
0.4101	26248.76	3.6470	3.6470	-1.3561	25.13	0.07	-0.750			
0.4142	26510.86	3.6440	3.6439	-1.3830	25.13	0.07	-0.750			
0.4184	26780.03	3.6410	3.6410	-1.3991	25.12	0.06	-0.750			
0.4227	27054.19	3.6380	3.6382	-1.4249	25.12	0.06	-0.750			
0.4270	27327.68	3.6350	3.6350	-1.4626	25.12	0.06	-0.750			
0.4313	27605.16	3.6320	3.6320	-1.4901	25.12	0.06	-0.750			
0.4360	27901.15	3.6290	3.6288	-1.5275	25.11	0.05	-0.750			
0.4406	28197.28	3.6260	3.6261	-1.5637	25.10	0.04	-0.750			
0.4454	28505.30	3.6230	3.6228	-1.5825	25.10	0.04	-0.750			
0.4502	28811.73	3.6200	3.6198	-1.6186	25.10	0.04	-0.750			
0.4550	29120.70	3.6170	3.6173	-1.6344	25.10	0.04	-0.750			
0.4599	29432.99	3.6140	3.6140	-1.6602	25.09	0.03	-0.750			
0.4649	29756.08	3.6110	3.6109	-1.6777	25.08	0.02	-0.750			
0.4701	30084.04	3.6080	3.6078	-1.7207	25.08	0.02	-0.750			
0.4753	30418.30	3.6050	3.6050	-1.7660	25.08	0.02	-0.750			
0.4806	30759.65	3.6020	3.6020	-1.8042	25.08	0.02	-0.750			
0.4861	31108.27	3.5990	3.5992	-1.8377	25.08	0.02	-0.750			
0.4917	31467.55	3.5960	3.5960	-1.8638	25.08	0.02	-0.750			
0.4975	31841.19	3.5930	3.5929	-1.8603	25.08	0.02	-0.750			
0.5033	32211.90	3.5900	3.5899	-1.8225	25.07	0.01	-0.750			
0.5086	32553.42	3.5870	3.5873	-1.8255	25.07	0.01	-0.750			
0.5140	32895.33	3.5840	3.5847	-1.8183	25.07	0.01	-0.750			
0.5193	33232.63	3.5810	3.5804	-1.8259	25.07	0.01	-0.750			
0.5247	33583.49	3.5780	3.5784	-1.8596	25.06	0.00	-0.750			
0.5304	33947.47	3.5750	3.5753	-1.9495	25.06	0.00	-0.750			
0.5365	34336.49	3.5720	3.5722	-2.0708	25.06	0.00	-0.750			
0.5427	34735.83	3.5690	3.5689	-2.0532	25.06	0.00	-0.750			
0.5490	35136.86	3.5660	3.5663	-2.0687	25.06	0.00	-0.750			
0.5553	35542.25	3.5630	3.5633	-2.0951	25.06	0.00	-0.750			
0.5617	35949.23	3.5600	3.5600	-2.0937	25.06	0.00	-0.750			
0.5679	36346.55	3.5570	3.5572	-2.0632	25.06	0.00	-0.750			
0.5744	36759.38	3.5540	3.5537	-2.0936	25.07	0.01	-0.750			
0.5805	37151.27	3.5510	3.5510	-2.0307	25.08	0.02	-0.750			
0.5866	37545.42	3.5480	3.5480	-2.0401	25.09	0.03	-0.750			
0.5926	37925.90	3.5450	3.5453	-2.0210	25.09	0.03	-0.750			
0.5985	38306.58	3.5420	3.5421	-2.0031	25.10	0.04	-0.750			
0.6047	38701.30	3.5390	3.5394	-1.9711	25.11	0.05	-0.750			
0.6106	39079.08	3.5360	3.5363	-1.9264	25.12	0.06	-0.750			
0.6163	39445.16	3.5330	3.5332	-1.8873	25.14	0.08	-0.750			
0.6219	39799.93	3.5300	3.5300	-1.8418	25.15	0.09	-0.750			
0.6273	40149.66	3.5270	3.5270	-1.8124	25.16	0.10	-0.750			
0.6327	40495.43	3.5240	3.5238	-1.7782	25.18	0.12	-0.750			
0.6382	40846.35	3.5210	3.5208	-1.7380	25.19	0.13	-0.750			
0.6434	41179.77	3.5180	3.5180	-1.7128	25.20	0.14	-0.750			
0.6486	41510.26	3.5150	3.5146	-1.6608	25.21	0.15	-0.750			
0.6535	41826.99	3.5120	3.5116	-1.6297	25.23	0.17	-0.750			
0.6584	42134.80	3.5090	3.5089	-1.5751	25.24	0.18	-0.750			
0.6630	42433.36	3.5060	3.5057	-1.5265	25.26	0.20	-0.750			
0.6677	42730.59	3.5030	3.5036	-1.5013	25.28	0.22	-0.750			
0.6722	43021.61	3.5000	3.4998	-1.4641	25.30	0.24	-0.750			
0.6765	43293.27	3.4970	3.4969	-1.4111	25.31	0.25	-0.750			
0.6808	43569.11	3.4940	3.4943	-1.3805	25.32	0.26	-0.750			
0.6849	43833.43	3.4910	3.4908	-1.3421	25.34	0.28	-0.750			
0.6888	44084.29	3.4880	3.4880	-1.2864	25.36	0.30	-0.750			
0.6924	44314.29	3.4850	3.4853	-1.3005	25.37	0.31	-0.750			
0.6963	44562.14	3.4820	3.4820	-1.2054	25.39	0.33	-0.750			
