Ah_balance (normalized)	Ah_balance (mAh)	Voltage - fit (V)	Voltage -  interpolate (V)	dQ/dV (1/V)	Temperature (°C)	Temperature - diff (°C)	Current (C)	R_DC 0ms (mOhm)	R_DC 50ms (mOhm)	R_DC 50 ms PEC (mOhm)
0.0004	25.73	4.1620	4.1618	-0.1230	24.97	0.01	-0.750			
0.0009	55.44	4.1590	4.1590	-0.1751	24.97	0.01	-0.750			
0.0015	94.51	4.1560	4.1559	-0.2221	24.97	0.01	-0.750			
0.0022	142.39	4.1530	4.1531	-0.2657	24.97	0.01	-0.750			
0.0031	197.51	4.1500	4.1498	-0.3103	24.97	0.01	-0.750			
0.0041	262.14	4.1470	4.1471	-0.3529	24.97	0.01	-0.750			
0.0052	334.62	4.1440	4.1441	-0.3995	24.97	0.01	-0.750			
0.0065	418.08	4.1410	4.1408	-0.4308	24.97	0.01	-0.750			
0.0079	505.11	4.1380	4.1378	-0.4634	24.96	0.00	-0.750			
0.0093	598.14	4.1350	4.1354	-0.4938	24.96	0.00	-0.750			
0.0109	695.89	4.1320	4.1317	-0.5168	24.96	-0.00	-0.750			
0.0124	796.33	4.1290	4.1290	-0.5430	24.96	-0.00	-0.750			
0.0141	903.27	4.1260	4.1260	-0.5646	24.95	-0.01	-0.750			
0.0159	1015.24	4.1230	4.1230	-0.5937	24.95	-0.01	-0.750			
0.0177	1132.76	4.1200	4.1200	-0.6107	24.95	-0.01	-0.750			
0.0195	1250.16	4.1170	4.1171	-0.6261	24.94	-0.02	-0.750			
0.0214	1372.69	4.1140	4.1140	-0.6391	24.94	-0.02	-0.750			
0.0234	1497.14	4.1110	4.1109	-0.6521	24.94	-0.02	-0.750			
0.0254	1622.73	4.1080	4.1081	-0.6614	24.93	-0.03	-0.750			
0.0274	1751.45	4.1050	4.1050	-0.6795	24.93	-0.03	-0.750			
0.0294	1884.72	4.1020	4.1019	-0.6837	24.93	-0.03	-0.750			
0.0315	2017.87	4.0990	4.0990	-0.6893	24.93	-0.03	-0.750			
0.0336	2150.34	4.0960	4.0959	-0.6946	24.92	-0.04	-0.750			
0.0357	2284.82	4.0930	4.0930	-0.7016	24.92	-0.04	-0.750			
0.0378	2418.77	4.0900	4.0899	-0.7065	24.92	-0.04	-0.750			
0.0399	2554.25	4.0870	4.0870	-0.7232	24.92	-0.04	-0.750			
0.0421	2695.15	4.0840	4.0839	-0.7261	24.92	-0.04	-0.750			
0.0444	2840.77	4.0810	4.0808	-0.7303	24.92	-0.04	-0.750			
0.0466	2980.42	4.0780	4.0783	-0.7253	24.92	-0.04	-0.750			
0.0487	3118.84	4.0750	4.0749	-0.7229	24.92	-0.04	-0.750			
0.0509	3256.09	4.0720	4.0720	-0.7208	24.92	-0.04	-0.750			
0.0530	3392.35	4.0690	4.0689	-0.7266	24.92	-0.04	-0.750			
0.0551	3528.74	4.0660	4.0661	-0.7257	24.92	-0.04	-0.750			
0.0574	3674.19	4.0630	4.0629	-0.7438	24.92	-0.04	-0.750			
0.0597	3817.64	4.0600	4.0602	-0.7463	24.92	-0.04	-0.750			
0.0619	3962.27	4.0570	4.0569	-0.7477	24.92	-0.04	-0.750			
0.0641	4105.16	4.0540	4.0540	-0.7567	24.92	-0.04	-0.750			
0.0664	4251.46	4.0510	4.0510	-0.7530	24.92	-0.04	-0.750			
0.0687	4397.29	4.0480	4.0479	-0.7577	24.92	-0.04	-0.750			
0.0710	4542.03	4.0450	4.0450	-0.7584	24.92	-0.04	-0.750			
0.0732	4686.87	4.0420	4.0420	-0.7600	24.92	-0.04	-0.750			
0.0755	4831.09	4.0390	4.0390	-0.7701	24.92	-0.04	-0.750			
0.0778	4981.60	4.0360	4.0359	-0.7683	24.92	-0.04	-0.750			
0.0801	5129.50	4.0330	4.0330	-0.7646	24.93	-0.03	-0.750			
0.0825	5278.90	4.0300	4.0299	-0.7692	24.93	-0.03	-0.750			
0.0848	5426.60	4.0270	4.0278	-0.7683	24.93	-0.03	-0.750			
0.0871	5573.64	4.0240	4.0238	-0.7672	24.93	-0.03	-0.750			
0.0894	5718.61	4.0210	4.0210	-0.7723	24.93	-0.03	-0.750			
0.0917	5867.10	4.0180	4.0179	-0.7761	24.94	-0.02	-0.750			
0.0940	6018.52	4.0150	4.0150	-0.7817	24.94	-0.02	-0.750			
0.0964	6170.17	4.0120	4.0119	-0.7847	24.94	-0.02	-0.750			
0.0987	6319.80	4.0090	4.0089	-0.7796	24.94	-0.02	-0.750			
0.1011	6468.98	4.0060	4.0059	-0.7854	24.94	-0.02	-0.750			
0.1034	6618.97	4.0030	4.0030	-0.7808	24.94	-0.02	-0.750			
0.1057	6766.91	4.0000	3.9999	-0.7813	24.94	-0.02	-0.750			
0.1081	6919.68	3.9970	3.9970	-0.7868	24.94	-0.02	-0.750			
0.1105	7071.35	3.9940	3.9942	-0.7869	24.94	-0.02	-0.750			
0.1128	7218.26	3.9910	3.9910	-0.8007	24.94	-0.02	-0.750			
0.1152	7375.91	3.9880	3.9878	-0.8019	24.95	-0.01	-0.750			
0.1176	7529.12	3.9850	3.9850	-0.8004	24.95	-0.01	-0.750			
0.1201	7686.08	3.9820	3.9818	-0.8033	24.96	-0.00	-0.750			
0.1225	7841.20	3.9790	3.9794	-0.8030	24.96	0.00	-0.750			
0.1249	7994.19	3.9760	3.9760	-0.8061	24.96	0.00	-0.750			
0.1273	8145.59	3.9730	3.9729	-0.8055	24.96	0.00	-0.750			
0.1296	8296.31	3.9700	3.9701	-0.7960	24.97	0.01	-0.750			
0.1321	8457.36	3.9670	3.9669	-0.8183	24.97	0.01	-0.750			
0.1346	8615.45	3.9640	3.9642	-0.8176	24.97	0.01	-0.750			
0.1371	8772.93	3.9610	3.9610	-0.8175	24.97	0.01	-0.750			
0.1395	8928.94	3.9580	3.9581	-0.8212	24.97	0.01	-0.750			
0.1420	9087.24	3.9550	3.9548	-0.8200	24.98	0.02	-0.750			
0.1444	9244.38	3.9520	3.9520	-0.8181	24.98	0.02	-0.750			
0.1469	9402.65	3.9490	3.9493	-0.8174	24.98	0.02	-0.750			
0.1494	9559.09	3.9460	3.9460	-0.8202	24.98	0.02	-0.750			
0.1518	9716.66	3.9430	3.9429	-0.8327	24.98	0.02	-0.750			
0.1543	9876.81	3.9400	3.9398	-0.8260	24.98	0.02	-0.750			
0.1568	10037.64	3.9370	3.9368	-0.8338	24.98	0.02	-0.750			
0.1593	10197.27	3.9340	3.9346	-0.8330	24.98	0.02	-0.750			
0.1619	10358.82	3.9310	3.9309	-0.8335	24.98	0.02	-0.750			
0.1643	10517.22	3.9280	3.9278	-0.8330	24.99	0.03	-0.750			
0.1668	10672.01	3.9250	3.9250	-0.8238	24.99	0.03	-0.750			
0.1693	10834.29	3.9220	3.9220	-0.8389	25.00	0.04	-0.750			
0.1718	10995.36	3.9190	3.9191	-0.8393	25.00	0.04	-0.750			
0.1743	11157.06	3.9160	3.9159	-0.8373	25.00	0.04	-0.750			
0.1768	11317.39	3.9130	3.9131	-0.8478	25.00	0.04	-0.750			
0.1794	11484.08	3.9100	3.9099	-0.8418	25.01	0.05	-0.750			
0.1820	11646.31	3.9070	3.9068	-0.8293	25.01	0.05	-0.750			
0.1845	11806.63	3.9040	3.9044	-0.8240	25.01	0.05	-0.750			
0.1869	11961.34	3.9010	3.9011	-0.8169	25.01	0.05	-0.750			
0.1893	12116.16	3.8980	3.8978	-0.8314	25.01	0.05	-0.750			
0.1918	12276.61	3.8950	3.8946	-0.8293	25.02	0.06	-0.750			
0.1943	12435.87	3.8920	3.8918	-0.8363	25.02	0.06	-0.750			
0.1969	12598.92	3.8890	3.8898	-0.8407	25.02	0.06	-0.750			
0.1994	12764.31	3.8860	3.8857	-0.8458	25.02	0.06	-0.750			
0.2019	12923.88	3.8830	3.8829	-0.8515	25.03	0.07	-0.750			
0.2044	13082.22	3.8800	3.8798	-0.8403	25.03	0.07	-0.750			
0.2070	13250.66	3.8770	3.8769	-0.8602	25.04	0.08	-0.750			
0.2096	13417.24	3.8740	3.8744	-0.8551	25.04	0.08	-0.750			
0.2122	13582.18	3.8710	3.8710	-0.8496	25.04	0.08	-0.750			
0.2148	13745.09	3.8680	3.8679	-0.8570	25.05	0.09	-0.750			
0.2173	13907.68	3.8650	3.8650	-0.8450	25.05	0.09	-0.750			
0.2198	14069.61	3.8620	3.8618	-0.8507	25.06	0.10	-0.750			
0.2224	14232.15	3.8590	3.8596	-0.8536	25.06	0.10	-0.750			
0.2249	14391.95	3.8560	3.8559	-0.8761	25.06	0.10	-0.750			
0.2276	14565.22	3.8530	3.8529	-0.8631	25.07	0.11	-0.750			
0.2302	14732.10	3.8500	3.8499	-0.8533	25.07	0.11	-0.750			
0.2328	14898.32	3.8470	3.8469	-0.8578	25.08	0.12	-0.750			
0.2354	15063.16	3.8440	3.8438	-0.8460	25.08	0.12	-0.750			
0.2378	15220.18	3.8410	3.8408	-0.8411	25.09	0.13	-0.750			
0.2403	15379.49	3.8380	3.8380	-0.8415	25.09	0.13	-0.750			
0.2428	15541.01	3.8350	3.8350	-0.8513	25.09	0.13	-0.750			
0.2454	15705.89	3.8320	3.8318	-0.8460	25.10	0.14	-0.750			
0.2479	15868.80	3.8290	3.8292	-0.8443	25.10	0.14	-0.750			
0.2504	16027.33	3.8260	3.8261	-0.8493	25.10	0.14	-0.750			
0.2530	16192.46	3.8230	3.8229	-0.8469	25.10	0.14	-0.750			
0.2555	16354.00	3.8200	3.8197	-0.8304	25.10	0.14	-0.750			
0.2581	16515.93	3.8170	3.8169	-0.8252	25.10	0.14	-0.750			
0.2606	16675.63	3.8140	3.8141	-0.8197	25.10	0.14	-0.750			
0.2629	16826.74	3.8110	3.8110	-0.8293	25.11	0.15	-0.750			
0.2654	16985.48	3.8080	3.8078	-0.8130	25.11	0.15	-0.750			
0.2678	17139.93	3.8050	3.8048	-0.8067	25.11	0.15	-0.750			
0.2703	17300.24	3.8020	3.8019	-0.8072	25.12	0.16	-0.750			
0.2728	17457.99	3.7990	3.7989	-0.8068	25.12	0.16	-0.750			
0.2752	17610.41	3.7960	3.7959	-0.7957	25.12	0.16	-0.750			
0.2775	17757.60	3.7930	3.7929	-0.7905	25.12	0.16	-0.750			
0.2798	17907.72	3.7900	3.7900	-0.7731	25.13	0.17	-0.750			
0.2822	18063.44	3.7870	3.7869	-0.7857	25.13	0.17	-0.750			
0.2846	18214.09	3.7840	3.7844	-0.7777	25.13	0.17	-0.750			
0.2869	18362.26	3.7810	3.7810	-0.7730	25.13	0.17	-0.750			
0.2892	18506.06	3.7780	3.7779	-0.7732	25.13	0.17	-0.750			
0.2915	18653.75	3.7750	3.7750	-0.7771	25.14	0.18	-0.750			
0.2938	18802.75	3.7720	3.7718	-0.7841	25.14	0.18	-0.750			
0.2962	18956.95	3.7690	3.7690	-0.7888	25.14	0.18	-0.750			
0.2986	19109.66	3.7660	3.7660	-0.7912	25.14	0.18	-0.750			
0.3010	19261.00	3.7630	3.7630	-0.8045	25.14	0.18	-0.750			
0.3034	19416.12	3.7600	3.7600	-0.8021	25.14	0.18	-0.750			
0.3058	19570.56	3.7570	3.7568	-0.8023	25.15	0.19	-0.750			
0.3082	19727.47	3.7540	3.7540	-0.8084	25.15	0.19	-0.750			
0.3107	19882.83	3.7510	3.7508	-0.8074	25.15	0.19	-0.750			
0.3131	20036.81	3.7480	3.7479	-0.8199	25.15	0.19	-0.750			
0.3155	20192.06	3.7450	3.7450	-0.8182	25.15	0.19	-0.750			
0.3179	20343.85	3.7420	3.7420	-0.8203	25.15	0.19	-0.750			
0.3205	20509.48	3.7390	3.7389	-0.8436	25.15	0.19	-0.750			
0.3230	20671.68	3.7360	3.7360	-0.8542	25.15	0.19	-0.750			
0.3256	20836.84	3.7330	3.7330	-0.8707	25.15	0.19	-0.750			
0.3282	21005.85	3.7300	3.7299	-0.8809	25.15	0.19	-0.750			
0.3309	21175.03	3.7270	3.7270	-0.8884	25.14	0.18	-0.750			
0.3336	21349.56	3.7240	3.7239	-0.9084	25.14	0.18	-0.750			
0.3363	21520.75	3.7210	3.7210	-0.9270	25.14	0.18	-0.750			
0.3391	21703.16	3.7180	3.7179	-0.9366	25.14	0.18	-0.750			
0.3420	21885.11	3.7150	3.7149	-0.9379	25.14	0.18	-0.750			
0.3448	22064.30	3.7120	3.7120	-0.9494	25.14	0.18	-0.750			
0.3476	22245.72	3.7090	3.7093	-0.9868	25.14	0.18	-0.750			
0.3506	22437.75	3.7060	3.7058	-0.9978	25.14	0.18	-0.750			
0.3536	22630.98	3.7030	3.7028	-1.0096	25.13	0.17	-0.750			
0.3567	22827.00	3.7000	3.6999	-1.0230	25.13	0.17	-0.750			
0.3598	23027.00	3.6970	3.6972	-1.0597	25.13	0.17	-0.750	0.416	0.532	
0.3630	23234.68	3.6940	3.6939	-1.0736	25.13	0.17	-0.750			
0.3662	23438.85	3.6910	3.6909	-1.0783	25.12	0.16	-0.750			
0.3695	23645.40	3.6880	3.6878	-1.0948	25.12	0.16	-0.750			
0.3728	23858.39	3.6850	3.6852	-1.1316	25.12	0.16	-0.750			
0.3762	24079.07	3.6820	3.6819	-1.1459	25.11	0.15	-0.750			
0.3797	24302.37	3.6790	3.6787	-1.1592	25.10	0.14	-0.750			
0.3832	24523.17	3.6760	3.6760	-1.1598	25.08	0.12	-0.750			
0.3868	24752.87	3.6730	3.6728	-1.1926	25.08	0.12	-0.750			
0.3903	24979.38	3.6700	3.6699	-1.2082	25.07	0.11	-0.750			
0.3939	25209.11	3.6670	3.6670	-1.2317	25.07	0.11	-0.750			
0.3977	25453.32	3.6640	3.6641	-1.2961	25.06	0.10	-0.750			
0.4016	25701.39	3.6610	3.6609	-1.3207	25.05	0.09	-0.750			
0.4056	25955.86	3.6580	3.6579	-1.3634	25.05	0.09	-0.750			
0.4098	26229.39	3.6550	3.6556	-1.3744	25.04	0.08	-0.750			
0.4140	26498.66	3.6520	3.6515	-1.4223	25.03	0.07	-0.750			
0.4183	26774.01	3.6490	3.6489	-1.4314	25.03	0.07	-0.750			
0.4227	27049.63	3.6460	3.6455	-1.4335	25.02	0.06	-0.750			
0.4270	27329.66	3.6430	3.6434	-1.4738	25.01	0.05	-0.750			
0.4313	27606.34	3.6400	3.6398	-1.4634	25.01	0.05	-0.750			
0.4358	27893.35	3.6370	3.6370	-1.4839	25.00	0.04	-0.750			
0.4403	28177.61	3.6340	3.6338	-1.4748	24.99	0.03	-0.750			
0.4449	28474.49	3.6310	3.6308	-1.5414	24.98	0.02	-0.750			
0.4497	28778.76	3.6280	3.6277	-1.5577	24.98	0.02	-0.750			
0.4543	29076.93	3.6250	3.6243	-1.5881	24.97	0.01	-0.750			
0.4591	29379.97	3.6220	3.6216	-1.5844	24.96	0.00	-0.750			
0.4639	29687.63	3.6190	3.6196	-1.6531	24.95	-0.01	-0.750			
0.4691	30019.80	3.6160	3.6158	-1.6826	24.94	-0.02	-0.750			
0.4740	30337.35	3.6130	3.6126	-1.6943	24.94	-0.02	-0.750			
0.4792	30670.85	3.6100	3.6096	-1.7777	24.93	-0.03	-0.750			
0.4849	31034.36	3.6070	3.6071	-1.8598	24.93	-0.03	-0.750			
0.4905	31389.27	3.6040	3.6041	-1.8953	24.93	-0.03	-0.750			
0.4963	31761.54	3.6010	3.6010	-1.9258	24.92	-0.04	-0.750			
0.5022	32142.03	3.5980	3.5982	-2.0217	24.91	-0.05	-0.750			
0.5084	32535.84	3.5950	3.5949	-2.0149	24.90	-0.06	-0.750			
0.5144	32922.11	3.5920	3.5919	-2.0658	24.90	-0.06	-0.750			
0.5206	33320.74	3.5890	3.5887	-2.1020	24.90	-0.06	-0.750			
0.5271	33733.48	3.5860	3.5861	-2.1203	24.90	-0.06	-0.750			
0.5333	34133.88	3.5830	3.5830	-2.1910	24.89	-0.07	-0.750			
0.5402	34571.45	3.5800	3.5801	-2.2251	24.89	-0.07	-0.750			
0.5468	34994.34	3.5770	3.5768	-2.1990	24.88	-0.08	-0.750			
0.5534	35419.26	3.5740	3.5747	-2.2628	24.88	-0.08	-0.750			
0.5601	35847.02	3.5710	3.5710	-2.1734	24.88	-0.08	-0.750			
0.5665	36255.29	3.5680	3.5680	-2.2077	24.88	-0.08	-0.750			
0.5732	36687.17	3.5650	3.5649	-2.2786	24.88	-0.08	-0.750			
0.5800	37119.30	3.5620	3.5616	-2.3342	24.88	-0.08	-0.750			
0.5873	37588.43	3.5590	3.5592	-2.3198	24.88	-0.08	-0.750			
0.5946	38057.50	3.5560	3.5556	-2.3042	24.88	-0.08	-0.750			
0.6014	38489.96	3.5530	3.5530	-2.2197	24.88	-0.08	-0.750			
0.6076	38883.36	3.5500	3.5501	-2.1374	24.89	-0.07	-0.750			
0.6140	39297.08	3.5470	3.5470	-2.1186	24.89	-0.07	-0.750			
0.6204	39705.96	3.5440	3.5438	-2.1155	24.90	-0.06	-0.750			
0.6266	40102.17	3.5410	3.5413	-2.0800	24.91	-0.05	-0.750			
0.6330	40514.93	3.5380	3.5379	-2.0583	24.92	-0.04	-0.750			
0.6392	40906.42	3.5350	3.5350	-1.9767	24.93	-0.03	-0.750			
0.6450	41279.96	3.5320	3.5320	-1.9252	24.94	-0.02	-0.750			
0.6508	41649.67	3.5290	3.5288	-1.8886	24.95	-0.01	-0.750			
0.6563	42003.41	3.5260	3.5261	-1.8469	24.95	-0.01	-0.750			
0.6617	42350.27	3.5230	3.5231	-1.7956	24.97	0.01	-0.750			
0.6670	42688.90	3.5200	3.5199	-1.7763	24.98	0.02	-0.750			
0.6725	43040.37	3.5170	3.5171	-1.7219	24.99	0.03	-0.750			
0.6777	43370.80	3.5140	3.5142	-1.6751	25.00	0.04	-0.750			
0.6826	43684.46	3.5110	3.5112	-1.6182	25.02	0.06	-0.750			
0.6874	43991.14	3.5080	3.5076	-1.5540	25.03	0.07	-0.750			
0.6920	44285.84	3.5050	3.5051	-1.5178	25.05	0.09	-0.750			
0.6963	44566.01	3.5020	3.5022	-1.4753	25.07	0.11	-0.750			
0.7007	44843.66	3.4990	3.4988	-1.4330	25.08	0.12	-0.750			
0.7051	45124.49	3.4960	3.4962	-1.4065	25.10	0.14	-0.750			
0.7091	45384.18	3.4930	3.4933	-1.3670	25.12	0.16	-0.750			
0.7132	45643.88	3.4900	3.4900	-1.3356	25.13	0.17	-0.750			
0.7170	45887.70	3.4870	3.4870	-1.1868	25.15	0.19	-0.750			
