Ah_balance (normalized)	Ah_balance (mAh)	Voltage - fit (V)	Voltage -  interpolate (V)	dQ/dV (1/V)	Temperature (°C)	Temperature - diff (°C)	Current (C)	R_DC 0ms (mOhm)	R_DC 50ms (mOhm)	R_DC 50 ms PEC (mOhm)
0.0004	27.95	4.1620	4.1621	-0.1531	24.58	0.03	-0.750			
0.0010	64.11	4.1590	4.1587	-0.2011	24.57	0.02	-0.750			
0.0016	105.00	4.1560	4.1561	-0.2414	24.57	0.02	-0.750			
0.0024	155.36	4.1530	4.1529	-0.2843	24.57	0.02	-0.750			
0.0033	214.34	4.1500	4.1502	-0.3235	24.57	0.02	-0.750			
0.0044	281.34	4.1470	4.1463	-0.3614	24.57	0.02	-0.750			
0.0055	354.28	4.1440	4.1441	-0.4011	24.56	0.01	-0.750			
0.0068	435.85	4.1410	4.1410	-0.4362	24.56	0.01	-0.750			
0.0082	522.71	4.1380	4.1380	-0.4708	24.56	0.01	-0.750			
0.0096	617.24	4.1350	4.1350	-0.5075	24.55	0.00	-0.750			
0.0112	718.51	4.1320	4.1323	-0.5344	24.55	-0.00	-0.750			
0.0129	825.50	4.1290	4.1289	-0.5602	24.55	-0.00	-0.750			
0.0146	935.67	4.1260	4.1261	-0.5902	24.54	-0.01	-0.750			
0.0164	1049.16	4.1230	4.1231	-0.6214	24.54	-0.01	-0.750			
0.0183	1174.27	4.1200	4.1198	-0.6398	24.53	-0.02	-0.750			
0.0203	1300.30	4.1170	4.1169	-0.6513	24.53	-0.02	-0.750			
0.0223	1428.16	4.1140	4.1139	-0.6644	24.52	-0.03	-0.750			
0.0243	1557.53	4.1110	4.1109	-0.6745	24.52	-0.03	-0.750			
0.0264	1687.04	4.1080	4.1079	-0.6809	24.52	-0.03	-0.750			
0.0283	1813.98	4.1050	4.1051	-0.6914	24.52	-0.03	-0.750			
0.0304	1947.96	4.1020	4.1019	-0.6976	24.51	-0.04	-0.750			
0.0326	2087.18	4.0990	4.0990	-0.7163	24.51	-0.04	-0.750			
0.0348	2226.52	4.0960	4.0959	-0.7210	24.51	-0.04	-0.750			
0.0370	2367.16	4.0930	4.0930	-0.7266	24.51	-0.04	-0.750			
0.0392	2507.29	4.0900	4.0899	-0.7261	24.51	-0.04	-0.750			
0.0413	2645.59	4.0870	4.0870	-0.7260	24.51	-0.04	-0.750			
0.0435	2782.69	4.0840	4.0840	-0.7260	24.50	-0.05	-0.750			
0.0457	2925.14	4.0810	4.0809	-0.7371	24.50	-0.05	-0.750			
0.0479	3066.22	4.0780	4.0781	-0.7387	24.50	-0.05	-0.750			
0.0501	3208.18	4.0750	4.0748	-0.7447	24.50	-0.05	-0.750			
0.0523	3347.67	4.0720	4.0722	-0.7687	24.50	-0.05	-0.750			
0.0547	3499.17	4.0690	4.0689	-0.7634	24.50	-0.05	-0.750			
0.0570	3647.12	4.0660	4.0658	-0.7604	24.50	-0.05	-0.750			
0.0593	3796.58	4.0630	4.0629	-0.7615	24.50	-0.05	-0.750			
0.0616	3942.58	4.0600	4.0600	-0.7613	24.50	-0.05	-0.750			
0.0639	4088.13	4.0570	4.0569	-0.7595	24.50	-0.05	-0.750			
0.0661	4232.26	4.0540	4.0539	-0.7706	24.50	-0.05	-0.750			
0.0684	4379.15	4.0510	4.0510	-0.7893	24.50	-0.05	-0.750			
0.0708	4530.40	4.0480	4.0477	-0.7969	24.50	-0.05	-0.750			
0.0732	4686.63	4.0450	4.0454	-0.8041	24.50	-0.05	-0.750			
0.0757	4842.02	4.0420	4.0418	-0.8034	24.50	-0.05	-0.750			
0.0781	4997.35	4.0390	4.0391	-0.8043	24.50	-0.05	-0.750			
0.0805	5152.20	4.0360	4.0360	-0.7994	24.50	-0.05	-0.750			
0.0829	5305.78	4.0330	4.0330	-0.8001	24.50	-0.05	-0.750			
0.0853	5456.23	4.0300	4.0300	-0.7905	24.50	-0.05	-0.750			
0.0876	5605.81	4.0270	4.0270	-0.7842	24.50	-0.05	-0.750			
0.0899	5754.51	4.0240	4.0239	-0.7943	24.50	-0.05	-0.750			
0.0923	5909.03	4.0210	4.0210	-0.7889	24.50	-0.05	-0.750			
0.0947	6060.61	4.0180	4.0179	-0.7852	24.50	-0.05	-0.750			
0.0971	6212.27	4.0150	4.0148	-0.7916	24.50	-0.05	-0.750			
0.0994	6364.62	4.0120	4.0121	-0.7891	24.50	-0.05	-0.750			
0.1018	6512.73	4.0090	4.0089	-0.7932	24.50	-0.05	-0.750			
0.1041	6665.03	4.0060	4.0060	-0.7961	24.50	-0.05	-0.750			
0.1065	6817.15	4.0030	4.0031	-0.7890	24.51	-0.04	-0.750			
0.1090	6973.97	4.0000	3.9999	-0.7991	24.51	-0.04	-0.750			
0.1114	7127.74	3.9970	3.9975	-0.8020	24.51	-0.04	-0.750			
0.1138	7280.51	3.9940	3.9941	-0.8009	24.51	-0.04	-0.750			
0.1162	7434.89	3.9910	3.9908	-0.8039	24.51	-0.04	-0.750			
0.1186	7587.78	3.9880	3.9881	-0.8061	24.52	-0.03	-0.750			
0.1210	7743.93	3.9850	3.9850	-0.8108	24.52	-0.03	-0.750			
0.1234	7900.18	3.9820	3.9820	-0.8139	24.52	-0.03	-0.750			
0.1259	8056.98	3.9790	3.9790	-0.8153	24.52	-0.03	-0.750			
0.1284	8214.54	3.9760	3.9760	-0.8205	24.52	-0.03	-0.750			
0.1308	8374.31	3.9730	3.9729	-0.8163	24.52	-0.03	-0.750			
0.1333	8532.79	3.9700	3.9699	-0.8172	24.52	-0.03	-0.750			
0.1357	8686.06	3.9670	3.9675	-0.8158	24.52	-0.03	-0.750			
0.1382	8842.98	3.9640	3.9638	-0.8179	24.52	-0.03	-0.750			
0.1406	8998.05	3.9610	3.9609	-0.8255	24.53	-0.02	-0.750			
0.1430	9154.91	3.9580	3.9580	-0.8258	24.53	-0.02	-0.750			
0.1456	9320.73	3.9550	3.9549	-0.8376	24.54	-0.01	-0.750			
0.1481	9480.56	3.9520	3.9522	-0.8315	24.54	-0.01	-0.750			
0.1506	9638.89	3.9490	3.9490	-0.8289	24.54	-0.01	-0.750			
0.1531	9795.42	3.9460	3.9459	-0.8316	24.54	-0.01	-0.750			
0.1555	9952.94	3.9430	3.9430	-0.8356	24.55	-0.00	-0.750			
0.1581	10115.38	3.9400	3.9398	-0.8334	24.55	-0.00	-0.750			
0.1606	10279.90	3.9370	3.9372	-0.8441	24.55	-0.00	-0.750			
0.1632	10442.33	3.9340	3.9340	-0.8466	24.55	0.00	-0.750			
0.1657	10604.39	3.9310	3.9309	-0.8542	24.55	0.00	-0.750			
0.1683	10770.11	3.9280	3.9278	-0.8512	24.56	0.01	-0.750			
0.1708	10931.53	3.9250	3.9250	-0.8468	24.56	0.01	-0.750			
0.1734	11097.07	3.9220	3.9224	-0.8478	24.56	0.01	-0.750			
0.1759	11259.82	3.9190	3.9189	-0.8512	24.56	0.01	-0.750			
0.1785	11421.08	3.9160	3.9160	-0.8546	24.57	0.02	-0.750			
0.1810	11585.58	3.9130	3.9128	-0.8548	24.57	0.02	-0.750			
0.1836	11751.20	3.9100	3.9099	-0.8657	24.58	0.03	-0.750			
0.1862	11918.57	3.9070	3.9074	-0.8674	24.58	0.03	-0.750			
0.1888	12086.17	3.9040	3.9040	-0.8703	24.58	0.03	-0.750			
0.1915	12254.88	3.9010	3.9009	-0.8740	24.59	0.04	-0.750			
0.1941	12419.43	3.8980	3.8980	-0.8657	24.59	0.04	-0.750			
0.1967	12588.46	3.8950	3.8949	-0.8756	24.60	0.05	-0.750			
0.1993	12755.89	3.8920	3.8921	-0.8718	24.60	0.05	-0.750			
0.2019	12921.51	3.8890	3.8889	-0.8748	24.61	0.06	-0.750			
0.2045	13090.63	3.8860	3.8860	-0.8723	24.61	0.06	-0.750			
0.2071	13256.24	3.8830	3.8830	-0.8672	24.61	0.06	-0.750			
0.2098	13426.80	3.8800	3.8798	-0.8718	24.62	0.07	-0.750			
0.2124	13593.92	3.8770	3.8769	-0.8655	24.62	0.07	-0.750			
0.2150	13758.85	3.8740	3.8740	-0.8712	24.63	0.08	-0.750			
0.2176	13925.91	3.8710	3.8709	-0.8688	24.63	0.08	-0.750			
0.2202	14091.21	3.8680	3.8679	-0.8660	24.63	0.08	-0.750			
0.2228	14262.29	3.8650	3.8649	-0.8704	24.64	0.09	-0.750			
0.2254	14428.62	3.8620	3.8618	-0.8727	24.64	0.09	-0.750			
0.2281	14596.88	3.8590	3.8590	-0.8782	24.65	0.10	-0.750			
0.2307	14765.17	3.8560	3.8559	-0.8706	24.65	0.10	-0.750			
0.2333	14932.56	3.8530	3.8528	-0.8780	24.66	0.11	-0.750			
0.2359	15100.01	3.8500	3.8504	-0.8781	24.66	0.11	-0.750			
0.2385	15266.64	3.8470	3.8469	-0.8844	24.66	0.11	-0.750			
0.2412	15439.26	3.8440	3.8438	-0.8862	24.67	0.12	-0.750			
0.2439	15608.84	3.8410	3.8409	-0.8794	24.67	0.12	-0.750			
0.2466	15780.77	3.8380	3.8380	-0.8870	24.68	0.13	-0.750			
0.2492	15950.34	3.8350	3.8354	-0.8813	24.68	0.13	-0.750			
0.2518	16116.19	3.8320	3.8319	-0.8779	24.69	0.14	-0.750			
0.2544	16283.78	3.8290	3.8290	-0.8771	24.69	0.14	-0.750			
0.2570	16449.28	3.8260	3.8259	-0.8720	24.69	0.14	-0.750			
0.2597	16620.46	3.8230	3.8230	-0.8762	24.70	0.15	-0.750			
0.2624	16790.43	3.8200	3.8200	-0.8819	24.70	0.15	-0.750			
0.2650	16958.87	3.8170	3.8170	-0.8807	24.71	0.16	-0.750			
0.2676	17129.04	3.8140	3.8140	-0.8740	24.71	0.16	-0.750			
0.2703	17296.03	3.8110	3.8109	-0.8689	24.71	0.16	-0.750			
0.2729	17464.07	3.8080	3.8080	-0.8668	24.72	0.17	-0.750			
0.2755	17632.40	3.8050	3.8049	-0.8583	24.72	0.17	-0.750			
0.2781	17797.56	3.8020	3.8020	-0.8352	24.73	0.18	-0.750			
0.2806	17956.91	3.7990	3.7990	-0.8011	24.73	0.18	-0.750			
0.2829	18104.48	3.7960	3.7964	-0.7916	24.73	0.18	-0.750			
0.2852	18253.22	3.7930	3.7928	-0.7843	24.74	0.19	-0.750			
0.2875	18398.64	3.7900	3.7896	-0.7846	24.74	0.19	-0.750			
0.2897	18542.44	3.7870	3.7864	-0.7996	24.74	0.19	-0.750			
0.2922	18701.12	3.7840	3.7840	-0.8123	24.74	0.19	-0.750			
0.2948	18866.97	3.7810	3.7809	-0.8309	24.74	0.19	-0.750			
0.2973	19028.65	3.7780	3.7780	-0.8274	24.74	0.19	-0.750			
0.2998	19185.62	3.7750	3.7750	-0.8244	24.74	0.19	-0.750			
0.3022	19343.52	3.7720	3.7720	-0.8351	24.75	0.20	-0.750			
0.3048	19504.84	3.7690	3.7688	-0.8346	24.75	0.20	-0.750			
0.3072	19662.93	3.7660	3.7659	-0.8312	24.75	0.20	-0.750			
0.3098	19828.05	3.7630	3.7630	-0.8358	24.76	0.21	-0.750			
0.3124	19990.54	3.7600	3.7599	-0.8324	24.76	0.21	-0.750			
0.3148	20147.93	3.7570	3.7569	-0.8367	24.76	0.21	-0.750			
0.3173	20304.83	3.7540	3.7541	-0.8308	24.76	0.21	-0.750			
0.3197	20463.15	3.7510	3.7509	-0.8238	24.77	0.22	-0.750			
0.3223	20625.47	3.7480	3.7478	-0.8342	24.77	0.22	-0.750			
0.3248	20784.94	3.7450	3.7448	-0.8347	24.77	0.22	-0.750			
0.3273	20944.26	3.7420	3.7420	-0.8483	24.77	0.22	-0.750			
0.3298	21107.63	3.7390	3.7389	-0.8550	24.77	0.22	-0.750			
0.3324	21270.69	3.7360	3.7357	-0.8495	24.78	0.23	-0.750			
0.3350	21439.05	3.7330	3.7332	-0.8683	24.78	0.23	-0.750			
0.3376	21605.16	3.7300	3.7300	-0.8861	24.78	0.23	-0.750			
0.3403	21776.76	3.7270	3.7268	-0.8942	24.79	0.24	-0.750			
0.3429	21948.64	3.7240	3.7239	-0.9088	24.79	0.24	-0.750			
0.3456	22119.90	3.7210	3.7211	-0.9155	24.80	0.25	-0.750			
0.3485	22302.78	3.7180	3.7181	-0.9405	24.80	0.25	-0.750			
0.3514	22486.96	3.7150	3.7149	-0.9645	24.80	0.25	-0.750			
0.3543	22674.85	3.7120	3.7119	-0.9689	24.80	0.25	-0.750			
0.3572	22860.86	3.7090	3.7089	-0.9882	24.80	0.25	-0.750			
0.3602	23054.57	3.7060	3.7061	-1.0087	24.80	0.25	-0.750			
0.3633	23249.16	3.7030	3.7027	-1.0270	24.80	0.25	-0.750			
0.3664	23449.82	3.7000	3.6996	-1.0352	24.80	0.25	-0.750			
0.3695	23648.95	3.6970	3.6966	-1.0428	24.79	0.24	-0.750	0.426	0.537	
0.3727	23853.99	3.6940	3.6938	-1.0566	24.79	0.24	-0.750			
0.3758	24053.31	3.6910	3.6909	-1.0725	24.79	0.24	-0.750			
0.3789	24251.06	3.6880	3.6880	-1.0677	24.79	0.24	-0.750			
0.3823	24464.58	3.6850	3.6850	-1.1118	24.78	0.23	-0.750			
0.3856	24678.47	3.6820	3.6820	-1.1697	24.78	0.23	-0.750			
0.3892	24909.58	3.6790	3.6788	-1.1866	24.78	0.23	-0.750			
0.3928	25141.95	3.6760	3.6759	-1.2054	24.77	0.22	-0.750			
0.3965	25377.85	3.6730	3.6728	-1.2296	24.77	0.22	-0.750			
0.4003	25617.20	3.6700	3.6697	-1.2547	24.77	0.22	-0.750			
0.4041	25861.01	3.6670	3.6669	-1.2965	24.76	0.21	-0.750			
0.4080	26111.15	3.6640	3.6638	-1.3083	24.75	0.20	-0.750			
0.4120	26369.98	3.6610	3.6610	-1.3588	24.75	0.20	-0.750			
0.4161	26631.99	3.6580	3.6579	-1.3700	24.74	0.19	-0.750			
0.4202	26895.63	3.6550	3.6547	-1.3876	24.73	0.18	-0.750			
0.4245	27165.07	3.6520	3.6522	-1.4088	24.72	0.17	-0.750			
0.4289	27446.52	3.6490	3.6487	-1.4377	24.71	0.16	-0.750			
0.4330	27713.33	3.6460	3.6460	-1.4744	24.70	0.15	-0.750			
0.4376	28006.23	3.6430	3.6428	-1.5126	24.70	0.15	-0.750			
0.4422	28303.46	3.6400	3.6397	-1.5651	24.70	0.15	-0.750			
0.4470	28610.65	3.6370	3.6373	-1.5770	24.70	0.15	-0.750			
0.4518	28913.22	3.6340	3.6339	-1.5899	24.69	0.14	-0.750			
0.4568	29233.77	3.6310	3.6307	-1.6354	24.69	0.14	-0.750			
0.4617	29549.02	3.6280	3.6279	-1.6514	24.68	0.13	-0.750			
0.4667	29869.16	3.6250	3.6244	-1.6881	24.67	0.12	-0.750			
0.4718	30197.08	3.6220	3.6213	-1.6812	24.66	0.11	-0.750			
0.4769	30518.68	3.6190	3.6195	-1.7375	24.65	0.10	-0.750			
0.4823	30869.05	3.6160	3.6162	-1.7731	24.65	0.10	-0.750			
0.4873	31186.21	3.6130	3.6128	-1.8339	24.64	0.09	-0.750			
0.4930	31552.41	3.6100	3.6094	-1.8936	24.64	0.09	-0.750			
0.4987	31918.38	3.6070	3.6070	-2.0140	24.64	0.09	-0.750			
0.5049	32313.82	3.6040	3.6041	-2.0670	24.63	0.08	-0.750			
0.5113	32722.35	3.6010	3.6015	-2.0454	24.62	0.07	-0.750			
0.5178	33137.50	3.5980	3.5981	-2.1253	24.62	0.07	-0.750			
0.5239	33528.46	3.5950	3.5954	-2.0834	24.62	0.07	-0.750			
0.5302	33933.56	3.5920	3.5919	-2.1516	24.61	0.06	-0.750			
0.5365	34336.44	3.5890	3.5888	-2.0959	24.60	0.05	-0.750			
0.5429	34745.55	3.5860	3.5860	-2.1663	24.59	0.04	-0.750			
0.5495	35168.34	3.5830	3.5831	-2.2122	24.59	0.04	-0.750			
0.5561	35591.50	3.5800	3.5795	-2.2622	24.58	0.03	-0.750			
0.5631	36036.39	3.5770	3.5767	-2.3010	24.58	0.03	-0.750			
0.5702	36491.89	3.5740	3.5736	-2.2982	24.58	0.03	-0.750			
0.5770	36929.11	3.5710	3.5714	-2.2833	24.58	0.03	-0.750			
0.5837	37358.70	3.5680	3.5677	-2.2246	24.58	0.03	-0.750			
0.5904	37787.89	3.5650	3.5651	-2.2930	24.58	0.03	-0.750			
0.5974	38231.72	3.5620	3.5624	-2.3147	24.58	0.03	-0.750			
0.6044	38683.53	3.5590	3.5588	-2.4027	24.58	0.03	-0.750			
0.6114	39126.93	3.5560	3.5562	-2.3211	24.58	0.03	-0.750			
0.6184	39574.43	3.5530	3.5530	-2.2693	24.58	0.03	-0.750			
0.6253	40019.39	3.5500	3.5496	-2.2912	24.58	0.03	-0.750			
0.6320	40446.21	3.5470	3.5477	-2.2545	24.59	0.04	-0.750			
0.6385	40867.02	3.5440	3.5441	-2.2117	24.59	0.04	-0.750			
0.6453	41301.12	3.5410	3.5406	-2.1772	24.60	0.05	-0.750			
0.6516	41704.03	3.5380	3.5386	-2.1196	24.60	0.05	-0.750			
0.6581	42120.15	3.5350	3.5347	-2.0782	24.62	0.07	-0.750			
0.6642	42510.07	3.5320	3.5320	-2.0745	24.63	0.08	-0.750			
0.6705	42911.60	3.5290	3.5291	-1.9899	24.64	0.09	-0.750			
0.6766	43303.78	3.5260	3.5255	-1.9308	24.64	0.09	-0.750			
0.6824	43673.77	3.5230	3.5235	-1.8823	24.65	0.10	-0.750			
0.6877	44015.50	3.5200	3.5198	-1.7845	24.67	0.12	-0.750			
0.6930	44354.36	3.5170	3.5167	-1.7209	24.68	0.13	-0.750			
0.6981	44676.84	3.5140	3.5145	-1.6508	24.70	0.15	-0.750			
0.7030	44992.69	3.5110	3.5118	-1.6299	24.71	0.16	-0.750			
0.7078	45296.34	3.5080	3.5081	-1.5864	24.73	0.18	-0.750			
0.7125	45599.60	3.5050	3.5049	-1.5468	24.75	0.20	-0.750			
0.7170	45888.50	3.5020	3.5020	-1.4990	24.77	0.22	-0.750			
0.7215	46177.61	3.4990	3.4988	-1.4639	24.79	0.24	-0.750			
0.7257	46444.91	3.4960	3.4960	-1.4105	24.81	0.26	-0.750			
0.7300	46718.73	3.4930	3.4929	-1.3393	24.83	0.28	-0.750			
0.7341	46981.36	3.4900	3.4899	-1.4839	24.85	0.30	-0.750			
