Ah_balance (normalized)	Ah_balance (mAh)	Voltage - fit (V)	Voltage -  interpolate (V)	dQ/dV (1/V)	Temperature (°C)	Temperature - diff (°C)	Current (C)	R_DC 0ms (mOhm)	R_DC 50ms (mOhm)	R_DC 50 ms PEC (mOhm)
0.0004	26.54	4.1620	4.1615	-0.1284	25.28	0.01	-0.750			
0.0009	55.03	4.1590	4.1589	-0.1740	25.28	0.01	-0.750			
0.0015	93.87	4.1560	4.1560	-0.2205	25.28	0.01	-0.750			
0.0022	140.60	4.1530	4.1530	-0.2655	25.28	0.01	-0.750			
0.0031	196.61	4.1500	4.1500	-0.3064	25.27	0.00	-0.750			
0.0041	260.28	4.1470	4.1471	-0.3508	25.27	0.00	-0.750			
0.0052	332.97	4.1440	4.1439	-0.3876	25.27	-0.00	-0.750			
0.0064	411.57	4.1410	4.1410	-0.4246	25.26	-0.01	-0.750			
0.0078	497.26	4.1380	4.1379	-0.4544	25.26	-0.01	-0.750			
0.0092	587.44	4.1350	4.1351	-0.4858	25.25	-0.02	-0.750			
0.0107	684.11	4.1320	4.1320	-0.5205	25.25	-0.02	-0.750			
0.0123	788.87	4.1290	4.1289	-0.5473	25.24	-0.03	-0.750			
0.0140	897.89	4.1260	4.1258	-0.5693	25.24	-0.03	-0.750			
0.0158	1011.52	4.1230	4.1229	-0.5847	25.23	-0.04	-0.750			
0.0176	1127.03	4.1200	4.1199	-0.5958	25.23	-0.04	-0.750			
0.0194	1242.34	4.1170	4.1169	-0.6086	25.22	-0.05	-0.750			
0.0212	1355.47	4.1140	4.1141	-0.6200	25.22	-0.05	-0.750			
0.0231	1475.57	4.1110	4.1109	-0.6336	25.22	-0.05	-0.750			
0.0251	1603.28	4.1080	4.1081	-0.6592	25.21	-0.06	-0.750			
0.0271	1732.69	4.1050	4.1049	-0.6689	25.21	-0.06	-0.750			
0.0291	1863.64	4.1020	4.1019	-0.6772	25.20	-0.07	-0.750			
0.0312	1996.33	4.0990	4.0989	-0.6848	25.20	-0.07	-0.750			
0.0332	2127.06	4.0960	4.0960	-0.6858	25.20	-0.07	-0.750			
0.0353	2258.08	4.0930	4.0930	-0.6854	25.20	-0.07	-0.750			
0.0374	2390.76	4.0900	4.0900	-0.6896	25.20	-0.07	-0.750			
0.0394	2524.77	4.0870	4.0871	-0.7012	25.20	-0.07	-0.750			
0.0416	2659.88	4.0840	4.0841	-0.7067	25.20	-0.07	-0.750			
0.0437	2795.45	4.0810	4.0808	-0.7103	25.20	-0.07	-0.750			
0.0458	2931.98	4.0780	4.0780	-0.7145	25.20	-0.07	-0.750			
0.0480	3070.96	4.0750	4.0750	-0.7320	25.20	-0.07	-0.750			
0.0502	3213.96	4.0720	4.0720	-0.7368	25.20	-0.07	-0.750			
0.0525	3359.30	4.0690	4.0687	-0.7391	25.20	-0.07	-0.750			
0.0547	3500.68	4.0660	4.0664	-0.7374	25.20	-0.07	-0.750			
0.0569	3642.69	4.0630	4.0631	-0.7425	25.20	-0.07	-0.750			
0.0591	3783.34	4.0600	4.0599	-0.7594	25.20	-0.07	-0.750			
0.0614	3928.26	4.0570	4.0570	-0.7529	25.20	-0.07	-0.750			
0.0637	4078.52	4.0540	4.0538	-0.7724	25.20	-0.07	-0.750			
0.0661	4231.22	4.0510	4.0510	-0.7789	25.20	-0.07	-0.750			
0.0685	4380.93	4.0480	4.0480	-0.7764	25.20	-0.07	-0.750			
0.0707	4527.50	4.0450	4.0448	-0.7781	25.20	-0.07	-0.750			
0.0731	4675.32	4.0420	4.0419	-0.7680	25.20	-0.07	-0.750			
0.0753	4821.49	4.0390	4.0390	-0.7576	25.20	-0.07	-0.750			
0.0776	4969.55	4.0360	4.0359	-0.7713	25.20	-0.07	-0.750			
0.0800	5118.29	4.0330	4.0332	-0.7688	25.20	-0.07	-0.750			
0.0823	5264.35	4.0300	4.0299	-0.7747	25.20	-0.07	-0.750			
0.0846	5412.74	4.0270	4.0269	-0.7675	25.20	-0.07	-0.750			
0.0869	5559.72	4.0240	4.0242	-0.7602	25.20	-0.07	-0.750			
0.0892	5709.55	4.0210	4.0209	-0.7653	25.20	-0.07	-0.750			
0.0915	5854.77	4.0180	4.0180	-0.7734	25.20	-0.07	-0.750			
0.0938	6001.52	4.0150	4.0148	-0.7672	25.20	-0.07	-0.750			
0.0961	6149.76	4.0120	4.0119	-0.7804	25.20	-0.07	-0.750			
0.0984	6299.95	4.0090	4.0091	-0.7854	25.21	-0.06	-0.750			
0.1009	6455.06	4.0060	4.0059	-0.7979	25.21	-0.06	-0.750			
0.1033	6608.84	4.0030	4.0029	-0.7922	25.21	-0.06	-0.750			
0.1056	6760.67	4.0000	3.9998	-0.7896	25.21	-0.06	-0.750			
0.1079	6908.52	3.9970	3.9970	-0.7888	25.21	-0.06	-0.750			
0.1103	7060.93	3.9940	3.9940	-0.7934	25.21	-0.06	-0.750			
0.1127	7211.22	3.9910	3.9910	-0.7909	25.22	-0.05	-0.750			
0.1151	7366.90	3.9880	3.9879	-0.7973	25.22	-0.05	-0.750			
0.1175	7520.93	3.9850	3.9852	-0.7963	25.22	-0.05	-0.750			
0.1199	7675.11	3.9820	3.9820	-0.8010	25.22	-0.05	-0.750			
0.1223	7827.89	3.9790	3.9790	-0.8119	25.22	-0.05	-0.750			
0.1248	7986.39	3.9760	3.9759	-0.7993	25.22	-0.05	-0.750			
0.1272	8140.77	3.9730	3.9729	-0.7988	25.22	-0.05	-0.750			
0.1296	8294.73	3.9700	3.9705	-0.8037	25.22	-0.05	-0.750			
0.1320	8447.95	3.9670	3.9669	-0.8009	25.22	-0.05	-0.750			
0.1344	8600.79	3.9640	3.9638	-0.8228	25.23	-0.04	-0.750			
0.1369	8759.05	3.9610	3.9610	-0.8309	25.23	-0.04	-0.750			
0.1395	8924.83	3.9580	3.9577	-0.8426	25.24	-0.03	-0.750			
0.1420	9089.40	3.9550	3.9557	-0.8473	25.24	-0.03	-0.750			
0.1446	9251.96	3.9520	3.9519	-0.8489	25.24	-0.03	-0.750			
0.1471	9414.48	3.9490	3.9488	-0.8424	25.24	-0.03	-0.750			
0.1495	9571.14	3.9460	3.9460	-0.8150	25.25	-0.02	-0.750			
0.1521	9733.53	3.9430	3.9430	-0.8289	25.25	-0.02	-0.750			
0.1546	9891.20	3.9400	3.9403	-0.8379	25.25	-0.02	-0.750			
0.1571	10052.18	3.9370	3.9367	-0.8420	25.25	-0.02	-0.750			
0.1596	10212.25	3.9340	3.9339	-0.8478	25.25	-0.02	-0.750			
0.1622	10377.85	3.9310	3.9311	-0.8491	25.26	-0.01	-0.750			
0.1648	10544.92	3.9280	3.9280	-0.8570	25.26	-0.01	-0.750			
0.1673	10710.27	3.9250	3.9252	-0.8548	25.26	-0.01	-0.750			
0.1699	10872.82	3.9220	3.9219	-0.8423	25.26	-0.01	-0.750			
0.1724	11031.27	3.9190	3.9190	-0.8402	25.26	-0.01	-0.750			
0.1749	11191.83	3.9160	3.9160	-0.8325	25.27	-0.00	-0.750			
0.1774	11354.37	3.9130	3.9130	-0.8407	25.27	-0.00	-0.750			
0.1799	11514.57	3.9100	3.9101	-0.8404	25.27	0.00	-0.750			
0.1824	11674.72	3.9070	3.9069	-0.8422	25.27	0.00	-0.750			
0.1850	11837.78	3.9040	3.9040	-0.8476	25.27	0.00	-0.750			
0.1875	12000.93	3.9010	3.9009	-0.8509	25.27	0.00	-0.750			
0.1901	12166.97	3.8980	3.8980	-0.8509	25.27	0.00	-0.750			
0.1927	12330.81	3.8950	3.8951	-0.8484	25.27	0.00	-0.750			
0.1952	12491.89	3.8920	3.8920	-0.8477	25.28	0.01	-0.750			
0.1977	12655.29	3.8890	3.8890	-0.8429	25.28	0.01	-0.750			
0.2002	12813.67	3.8860	3.8859	-0.8392	25.29	0.02	-0.750			
0.2028	12976.73	3.8830	3.8829	-0.8447	25.30	0.03	-0.750			
0.2053	13138.43	3.8800	3.8801	-0.8457	25.30	0.03	-0.750			
0.2078	13301.13	3.8770	3.8769	-0.8548	25.30	0.03	-0.750			
0.2104	13466.05	3.8740	3.8741	-0.8567	25.30	0.03	-0.750			
0.2130	13633.22	3.8710	3.8708	-0.8482	25.30	0.03	-0.750			
0.2156	13798.34	3.8680	3.8678	-0.8491	25.30	0.03	-0.750			
0.2181	13960.07	3.8650	3.8650	-0.8446	25.30	0.03	-0.750			
0.2206	14120.26	3.8620	3.8620	-0.8494	25.31	0.04	-0.750			
0.2231	14281.34	3.8590	3.8588	-0.8468	25.31	0.04	-0.750			
0.2257	14443.63	3.8560	3.8560	-0.8397	25.31	0.04	-0.750			
0.2283	14610.56	3.8530	3.8529	-0.8480	25.32	0.05	-0.750			
0.2309	14774.81	3.8500	3.8500	-0.8438	25.32	0.05	-0.750			
0.2334	14935.33	3.8470	3.8470	-0.8459	25.33	0.06	-0.750			
0.2359	15096.41	3.8440	3.8440	-0.8411	25.33	0.06	-0.750			
0.2384	15256.66	3.8410	3.8409	-0.8321	25.33	0.06	-0.750			
0.2409	15419.43	3.8380	3.8380	-0.8368	25.34	0.07	-0.750			
0.2434	15579.64	3.8350	3.8349	-0.8370	25.34	0.07	-0.750			
0.2459	15740.59	3.8320	3.8319	-0.8402	25.35	0.08	-0.750			
0.2485	15902.08	3.8290	3.8289	-0.8307	25.35	0.08	-0.750			
0.2509	16060.13	3.8260	3.8260	-0.8202	25.35	0.08	-0.750			
0.2534	16220.04	3.8230	3.8231	-0.8241	25.36	0.09	-0.750			
0.2559	16378.25	3.8200	3.8199	-0.8143	25.36	0.09	-0.750			
0.2583	16531.66	3.8170	3.8169	-0.8079	25.36	0.09	-0.750			
0.2607	16685.41	3.8140	3.8140	-0.8003	25.37	0.10	-0.750			
0.2631	16836.37	3.8110	3.8110	-0.7964	25.37	0.10	-0.750			
0.2655	16994.16	3.8080	3.8079	-0.8003	25.37	0.10	-0.750			
0.2679	17146.44	3.8050	3.8051	-0.7921	25.37	0.10	-0.750			
0.2702	17294.77	3.8020	3.8020	-0.7953	25.38	0.11	-0.750			
0.2727	17450.85	3.7990	3.7990	-0.7933	25.38	0.11	-0.750			
0.2750	17601.24	3.7960	3.7959	-0.7871	25.38	0.11	-0.750			
0.2774	17753.99	3.7930	3.7931	-0.7869	25.39	0.12	-0.750			
0.2798	17905.45	3.7900	3.7901	-0.7835	25.39	0.12	-0.750			
0.2821	18055.05	3.7870	3.7870	-0.7851	25.39	0.12	-0.750			
0.2845	18205.69	3.7840	3.7839	-0.7802	25.40	0.13	-0.750			
0.2868	18353.81	3.7810	3.7810	-0.7762	25.40	0.13	-0.750			
0.2892	18506.74	3.7780	3.7780	-0.7801	25.41	0.14	-0.750			
0.2915	18654.37	3.7750	3.7750	-0.7740	25.41	0.14	-0.750			
0.2938	18801.85	3.7720	3.7719	-0.7769	25.41	0.14	-0.750			
0.2961	18949.52	3.7690	3.7691	-0.7810	25.41	0.14	-0.750			
0.2984	19096.88	3.7660	3.7660	-0.7833	25.42	0.15	-0.750			
0.3008	19249.74	3.7630	3.7629	-0.7907	25.42	0.15	-0.750			
0.3032	19404.60	3.7600	3.7600	-0.7919	25.42	0.15	-0.750			
0.3056	19556.59	3.7570	3.7570	-0.7971	25.42	0.15	-0.750			
0.3079	19708.04	3.7540	3.7541	-0.8131	25.42	0.15	-0.750			
0.3104	19866.79	3.7510	3.7508	-0.8164	25.42	0.15	-0.750			
0.3129	20023.85	3.7480	3.7479	-0.8210	25.43	0.16	-0.750			
0.3154	20182.68	3.7450	3.7451	-0.8316	25.43	0.16	-0.750			
0.3179	20344.47	3.7420	3.7421	-0.8451	25.43	0.16	-0.750			
0.3204	20506.90	3.7390	3.7388	-0.8580	25.43	0.16	-0.750			
0.3230	20669.16	3.7360	3.7359	-0.8650	25.43	0.16	-0.750			
0.3256	20837.03	3.7330	3.7330	-0.8718	25.43	0.16	-0.750			
0.3283	21009.05	3.7300	3.7298	-0.8866	25.43	0.16	-0.750			
0.3309	21178.39	3.7270	3.7270	-0.9078	25.43	0.16	-0.750			
0.3336	21353.00	3.7240	3.7240	-0.9207	25.43	0.16	-0.750			
0.3364	21530.44	3.7210	3.7209	-0.9295	25.43	0.16	-0.750			
0.3392	21709.22	3.7180	3.7179	-0.9389	25.43	0.16	-0.750			
0.3421	21894.99	3.7150	3.7154	-0.9601	25.43	0.16	-0.750			
0.3450	22081.25	3.7120	3.7120	-0.9829	25.43	0.16	-0.750			
0.3480	22272.25	3.7090	3.7089	-0.9970	25.43	0.16	-0.750			
0.3510	22465.68	3.7060	3.7058	-1.0003	25.42	0.15	-0.750			
0.3542	22666.76	3.7030	3.7031	-0.9879	25.42	0.15	-0.750			
0.3571	22856.96	3.7000	3.7003	-0.9798	25.42	0.15	-0.750	0.361	0.481	
0.3601	23045.15	3.6970	3.6971	-0.9646	25.41	0.14	-0.750			
0.3628	23219.18	3.6940	3.6941	-0.9771	25.41	0.14	-0.750			
0.3656	23396.13	3.6910	3.6905	-0.9888	25.40	0.13	-0.750			
0.3686	23588.44	3.6880	3.6878	-1.0279	25.40	0.13	-0.750			
0.3717	23788.32	3.6850	3.6851	-1.0706	25.39	0.12	-0.750			
0.3751	24007.94	3.6820	3.6820	-1.1263	25.38	0.11	-0.750			
0.3785	24226.43	3.6790	3.6790	-1.1781	25.37	0.10	-0.750			
0.3821	24456.86	3.6760	3.6759	-1.1886	25.37	0.10	-0.750			
0.3857	24685.30	3.6730	3.6729	-1.2098	25.36	0.09	-0.750			
0.3893	24914.74	3.6700	3.6701	-1.2575	25.35	0.08	-0.750			
0.3932	25165.85	3.6670	3.6668	-1.2683	25.35	0.08	-0.750			
0.3971	25415.11	3.6640	3.6638	-1.2835	25.34	0.07	-0.750			
0.4009	25660.64	3.6610	3.6608	-1.2970	25.33	0.06	-0.750			
0.4048	25909.24	3.6580	3.6585	-1.3099	25.32	0.05	-0.750			
0.4088	26165.48	3.6550	3.6549	-1.3390	25.32	0.05	-0.750			
0.4128	26417.55	3.6520	3.6519	-1.3502	25.31	0.04	-0.750			
0.4168	26672.26	3.6490	3.6494	-1.3844	25.31	0.04	-0.750			
0.4212	26955.72	3.6460	3.6459	-1.4144	25.30	0.03	-0.750			
0.4254	27227.55	3.6430	3.6430	-1.4643	25.30	0.03	-0.750			
0.4298	27509.91	3.6400	3.6404	-1.4933	25.29	0.02	-0.750			
0.4344	27804.37	3.6370	3.6367	-1.5036	25.29	0.02	-0.750			
0.4390	28094.85	3.6340	3.6336	-1.5252	25.28	0.01	-0.750			
0.4436	28390.38	3.6310	3.6308	-1.5232	25.28	0.01	-0.750			
0.4483	28692.26	3.6280	3.6277	-1.5540	25.27	0.00	-0.750			
0.4530	28989.73	3.6250	3.6251	-1.5740	25.27	0.00	-0.750			
0.4577	29293.15	3.6220	3.6217	-1.6144	25.26	-0.01	-0.750			
0.4625	29602.40	3.6190	3.6195	-1.6550	25.26	-0.01	-0.750			
0.4678	29936.55	3.6160	3.6159	-1.7005	25.25	-0.02	-0.750			
0.4729	30267.27	3.6130	3.6131	-1.7220	25.25	-0.02	-0.750			
0.4782	30604.80	3.6100	3.6096	-1.7573	25.24	-0.03	-0.750			
0.4834	30940.27	3.6070	3.6076	-1.7956	25.23	-0.04	-0.750			
0.4887	31279.32	3.6040	3.6043	-1.8005	25.22	-0.05	-0.750			
0.4940	31613.88	3.6010	3.6008	-1.8563	25.22	-0.05	-0.750			
0.4999	31993.62	3.5980	3.5978	-1.9537	25.22	-0.05	-0.750			
0.5060	32384.98	3.5950	3.5947	-1.9829	25.22	-0.05	-0.750			
0.5121	32773.42	3.5920	3.5915	-2.0352	25.21	-0.06	-0.750			
0.5182	33163.27	3.5890	3.5886	-2.0516	25.20	-0.07	-0.750			
0.5243	33552.63	3.5860	3.5856	-2.0867	25.20	-0.07	-0.750			
0.5305	33952.15	3.5830	3.5831	-2.1207	25.20	-0.07	-0.750			
0.5372	34382.33	3.5800	3.5801	-2.1452	25.20	-0.07	-0.750			
0.5437	34795.27	3.5770	3.5775	-2.1759	25.20	-0.07	-0.750			
0.5502	35211.90	3.5740	3.5739	-2.1378	25.19	-0.08	-0.750			
0.5566	35623.74	3.5710	3.5707	-2.1176	25.19	-0.08	-0.750			
0.5630	36034.56	3.5680	3.5680	-2.1980	25.18	-0.09	-0.750			
0.5695	36449.83	3.5650	3.5645	-2.1960	25.18	-0.09	-0.750			
0.5763	36884.56	3.5620	3.5616	-2.1954	25.18	-0.09	-0.750			
0.5830	37309.98	3.5590	3.5589	-2.2094	25.18	-0.09	-0.750			
0.5897	37740.24	3.5560	3.5564	-2.2003	25.18	-0.09	-0.750			
0.5960	38145.19	3.5530	3.5533	-2.1758	25.18	-0.09	-0.750			
0.6027	38574.63	3.5500	3.5501	-2.1641	25.18	-0.09	-0.750			
0.6091	38982.79	3.5470	3.5469	-2.1584	25.18	-0.09	-0.750			
0.6157	39403.26	3.5440	3.5437	-2.0773	25.19	-0.08	-0.750			
0.6219	39801.29	3.5410	3.5413	-2.0379	25.19	-0.08	-0.750			
0.6279	40185.06	3.5380	3.5384	-1.9818	25.20	-0.07	-0.750			
0.6339	40572.44	3.5350	3.5351	-1.9736	25.21	-0.06	-0.750			
0.6396	40932.29	3.5320	3.5320	-1.9287	25.22	-0.05	-0.750			
0.6452	41294.10	3.5290	3.5294	-1.8943	25.24	-0.03	-0.750			
0.6511	41669.03	3.5260	3.5258	-1.8701	25.24	-0.03	-0.750			
0.6566	42024.59	3.5230	3.5225	-1.8284	25.26	-0.01	-0.750			
0.6620	42367.61	3.5200	3.5197	-1.7551	25.27	-0.00	-0.750			
0.6672	42699.77	3.5170	3.5174	-1.7270	25.28	0.01	-0.750			
0.6721	43016.13	3.5140	3.5141	-1.6591	25.30	0.03	-0.750			
0.6770	43330.81	3.5110	3.5111	-1.6044	25.31	0.04	-0.750			
0.6819	43641.92	3.5080	3.5076	-1.5588	25.33	0.06	-0.750			
0.6866	43942.72	3.5050	3.5046	-1.5272	25.35	0.08	-0.750			
0.6913	44242.22	3.5020	3.5018	-1.5056	25.37	0.10	-0.750			
0.6957	44523.31	3.4990	3.4984	-1.4485	25.38	0.11	-0.750			
0.6998	44787.32	3.4960	3.4966	-1.3887	25.39	0.12	-0.750			
0.7040	45053.67	3.4930	3.4938	-1.3602	25.40	0.13	-0.750			
0.7081	45321.14	3.4900	3.4898	-1.2979	25.41	0.14	-0.750			
0.7120	45566.03	3.4870	3.4870	-1.4515	25.42	0.15	-0.750			
