Ah_balance (normalized)	Ah_balance (mAh)	Voltage - fit (V)	Voltage -  interpolate (V)	dQ/dV (1/V)	Temperature (°C)	Temperature - diff (°C)	Current (C)	R_DC 0ms (mOhm)	R_DC 50ms (mOhm)	R_DC 50 ms PEC (mOhm)
0.0003	18.04	4.1630	4.1626	-0.1194	24.83	0.02	-0.750			
0.0007	44.75	4.1600	4.1601	-0.1626	24.83	0.02	-0.750			
0.0013	80.64	4.1570	4.1571	-0.2071	24.83	0.02	-0.750			
0.0020	125.31	4.1540	4.1538	-0.2483	24.83	0.02	-0.750			
0.0028	177.11	4.1510	4.1511	-0.2885	24.83	0.02	-0.750			
0.0037	237.15	4.1480	4.1480	-0.3283	24.82	0.01	-0.750			
0.0047	303.90	4.1450	4.1450	-0.3697	24.82	0.01	-0.750			
0.0059	378.70	4.1420	4.1420	-0.4067	24.82	0.01	-0.750			
0.0072	460.75	4.1390	4.1390	-0.4413	24.81	0.00	-0.750			
0.0086	550.39	4.1360	4.1360	-0.4726	24.81	0.00	-0.750			
0.0101	644.60	4.1330	4.1330	-0.5027	24.81	-0.00	-0.750			
0.0116	745.15	4.1300	4.1300	-0.5278	24.80	-0.01	-0.750			
0.0133	848.95	4.1270	4.1269	-0.5495	24.80	-0.01	-0.750			
0.0149	954.87	4.1240	4.1241	-0.5753	24.80	-0.01	-0.750			
0.0167	1070.14	4.1210	4.1210	-0.5945	24.79	-0.02	-0.750			
0.0186	1187.47	4.1180	4.1179	-0.6144	24.79	-0.02	-0.750			
0.0204	1307.76	4.1150	4.1150	-0.6266	24.78	-0.03	-0.750			
0.0223	1429.32	4.1120	4.1122	-0.6395	24.78	-0.03	-0.750			
0.0243	1554.04	4.1090	4.1089	-0.6489	24.78	-0.03	-0.750			
0.0262	1678.86	4.1060	4.1059	-0.6574	24.77	-0.04	-0.750			
0.0282	1804.30	4.1030	4.1031	-0.6711	24.77	-0.04	-0.750			
0.0303	1939.30	4.1000	4.0999	-0.6791	24.77	-0.04	-0.750			
0.0324	2071.78	4.0970	4.0969	-0.6817	24.76	-0.05	-0.750			
0.0344	2202.61	4.0940	4.0945	-0.6836	24.76	-0.05	-0.750			
0.0364	2332.05	4.0910	4.0910	-0.6863	24.76	-0.05	-0.750			
0.0385	2462.52	4.0880	4.0879	-0.6965	24.76	-0.05	-0.750			
0.0406	2595.25	4.0850	4.0848	-0.7030	24.76	-0.05	-0.750			
0.0427	2731.93	4.0820	4.0820	-0.7160	24.76	-0.05	-0.750			
0.0449	2872.20	4.0790	4.0791	-0.7215	24.76	-0.05	-0.750			
0.0471	3012.46	4.0760	4.0762	-0.7307	24.76	-0.05	-0.750			
0.0493	3153.53	4.0730	4.0730	-0.7317	24.76	-0.05	-0.750			
0.0514	3291.20	4.0700	4.0700	-0.7348	24.76	-0.05	-0.750			
0.0537	3434.61	4.0670	4.0669	-0.7357	24.77	-0.04	-0.750			
0.0559	3577.37	4.0640	4.0640	-0.7398	24.77	-0.04	-0.750			
0.0581	3718.58	4.0610	4.0610	-0.7419	24.77	-0.04	-0.750			
0.0603	3862.25	4.0580	4.0580	-0.7463	24.77	-0.04	-0.750			
0.0626	4005.00	4.0550	4.0549	-0.7436	24.77	-0.04	-0.750			
0.0648	4147.07	4.0520	4.0520	-0.7537	24.77	-0.04	-0.750			
0.0671	4293.69	4.0490	4.0490	-0.7539	24.77	-0.04	-0.750			
0.0694	4440.48	4.0460	4.0459	-0.7560	24.77	-0.04	-0.750			
0.0717	4586.21	4.0430	4.0433	-0.7533	24.77	-0.04	-0.750			
0.0739	4729.47	4.0400	4.0400	-0.7524	24.77	-0.04	-0.750			
0.0761	4872.92	4.0370	4.0370	-0.7511	24.77	-0.04	-0.750			
0.0784	5017.59	4.0340	4.0339	-0.7569	24.78	-0.03	-0.750			
0.0807	5163.98	4.0310	4.0309	-0.7594	24.78	-0.03	-0.750			
0.0830	5310.43	4.0280	4.0280	-0.7639	24.78	-0.03	-0.750			
0.0853	5458.35	4.0250	4.0251	-0.7644	24.78	-0.03	-0.750			
0.0876	5603.65	4.0220	4.0219	-0.7684	24.78	-0.03	-0.750			
0.0898	5748.94	4.0190	4.0190	-0.7669	24.78	-0.03	-0.750			
0.0921	5897.40	4.0160	4.0160	-0.7641	24.79	-0.02	-0.750			
0.0945	6046.38	4.0130	4.0130	-0.7736	24.79	-0.02	-0.750			
0.0968	6195.63	4.0100	4.0103	-0.7761	24.79	-0.02	-0.750			
0.0991	6344.20	4.0070	4.0069	-0.7749	24.79	-0.02	-0.750			
0.1015	6492.99	4.0040	4.0039	-0.7828	24.79	-0.02	-0.750			
0.1038	6643.73	4.0010	4.0010	-0.7805	24.80	-0.01	-0.750			
0.1062	6794.15	3.9980	3.9980	-0.7872	24.80	-0.01	-0.750			
0.1085	6946.62	3.9950	3.9949	-0.7893	24.80	-0.01	-0.750			
0.1109	7097.33	3.9920	3.9919	-0.7883	24.80	-0.01	-0.750			
0.1133	7249.22	3.9890	3.9889	-0.7911	24.80	-0.01	-0.750			
0.1156	7401.06	3.9860	3.9860	-0.7896	24.81	-0.00	-0.750			
0.1180	7551.22	3.9830	3.9831	-0.7900	24.81	-0.00	-0.750			
0.1204	7706.65	3.9800	3.9799	-0.7947	24.81	-0.00	-0.750			
0.1228	7856.89	3.9770	3.9770	-0.7941	24.81	0.00	-0.750			
0.1251	8007.80	3.9740	3.9740	-0.8018	24.81	0.00	-0.750			
0.1275	8162.49	3.9710	3.9711	-0.8049	24.81	0.00	-0.750			
0.1300	8319.08	3.9680	3.9678	-0.8053	24.82	0.01	-0.750			
0.1324	8475.00	3.9650	3.9650	-0.8046	24.82	0.01	-0.750			
0.1348	8629.04	3.9620	3.9622	-0.8030	24.82	0.01	-0.750			
0.1372	8783.34	3.9590	3.9590	-0.8021	24.82	0.01	-0.750			
0.1396	8935.76	3.9560	3.9560	-0.8061	24.83	0.02	-0.750			
0.1421	9091.74	3.9530	3.9528	-0.8018	24.83	0.02	-0.750			
0.1445	9248.44	3.9500	3.9500	-0.8081	24.84	0.03	-0.750			
0.1469	9402.82	3.9470	3.9475	-0.8112	24.84	0.03	-0.750			
0.1494	9558.83	3.9440	3.9439	-0.8155	24.84	0.03	-0.750			
0.1518	9715.19	3.9410	3.9409	-0.8235	24.84	0.03	-0.750			
0.1543	9872.52	3.9380	3.9379	-0.8205	24.85	0.04	-0.750			
0.1568	10033.53	3.9350	3.9350	-0.8336	24.85	0.04	-0.750			
0.1593	10194.36	3.9320	3.9324	-0.8293	24.85	0.04	-0.750			
0.1618	10354.59	3.9290	3.9289	-0.8244	24.85	0.04	-0.750			
0.1642	10510.64	3.9260	3.9259	-0.8268	24.85	0.04	-0.750			
0.1667	10667.61	3.9230	3.9230	-0.8222	24.86	0.05	-0.750			
0.1692	10827.93	3.9200	3.9199	-0.8263	24.86	0.05	-0.750			
0.1716	10985.38	3.9170	3.9172	-0.8290	24.86	0.05	-0.750			
0.1741	11144.00	3.9140	3.9141	-0.8288	24.86	0.05	-0.750			
0.1766	11305.05	3.9110	3.9109	-0.8413	24.87	0.06	-0.750			
0.1792	11468.15	3.9080	3.9079	-0.8360	24.87	0.06	-0.750			
0.1817	11628.37	3.9050	3.9049	-0.8394	24.88	0.07	-0.750			
0.1842	11790.18	3.9020	3.9026	-0.8394	24.88	0.07	-0.750			
0.1868	11952.08	3.8990	3.8987	-0.8374	24.88	0.07	-0.750			
0.1892	12109.69	3.8960	3.8960	-0.8388	24.88	0.07	-0.750			
0.1917	12271.72	3.8930	3.8930	-0.8403	24.88	0.07	-0.750			
0.1943	12435.26	3.8900	3.8899	-0.8493	24.88	0.07	-0.750			
0.1969	12598.81	3.8870	3.8873	-0.8463	24.88	0.07	-0.750			
0.1994	12759.63	3.8840	3.8840	-0.8409	24.88	0.07	-0.750			
0.2019	12921.60	3.8810	3.8810	-0.8435	24.88	0.07	-0.750			
0.2044	13082.72	3.8780	3.8780	-0.8388	24.89	0.08	-0.750			
0.2069	13244.18	3.8750	3.8749	-0.8400	24.89	0.08	-0.750			
0.2094	13404.11	3.8720	3.8722	-0.8405	24.89	0.08	-0.750			
0.2120	13565.26	3.8690	3.8689	-0.8383	24.89	0.08	-0.750			
0.2145	13727.61	3.8660	3.8660	-0.8445	24.89	0.08	-0.750			
0.2170	13890.42	3.8630	3.8629	-0.8401	24.90	0.09	-0.750			
0.2196	14053.64	3.8600	3.8601	-0.8390	24.90	0.09	-0.750			
0.2221	14213.97	3.8570	3.8573	-0.8399	24.90	0.09	-0.750			
0.2246	14374.42	3.8540	3.8538	-0.8360	24.90	0.09	-0.750			
0.2271	14534.18	3.8510	3.8509	-0.8354	24.91	0.10	-0.750			
0.2296	14693.66	3.8480	3.8481	-0.8286	24.91	0.10	-0.750			
0.2321	14855.74	3.8450	3.8450	-0.8349	24.92	0.11	-0.750			
0.2346	15014.72	3.8420	3.8421	-0.8284	24.92	0.11	-0.750			
0.2371	15172.44	3.8390	3.8389	-0.8253	24.92	0.11	-0.750			
0.2395	15329.57	3.8360	3.8360	-0.8224	24.92	0.11	-0.750			
0.2420	15488.98	3.8330	3.8330	-0.8162	24.93	0.12	-0.750			
0.2445	15646.78	3.8300	3.8299	-0.8151	24.93	0.12	-0.750			
0.2469	15801.83	3.8270	3.8273	-0.8117	24.93	0.12	-0.750			
0.2493	15955.72	3.8240	3.8239	-0.8047	24.93	0.12	-0.750			
0.2517	16110.04	3.8210	3.8209	-0.8118	24.93	0.12	-0.750			
0.2542	16268.19	3.8180	3.8179	-0.7996	24.94	0.13	-0.750			
0.2566	16424.30	3.8150	3.8149	-0.8008	24.94	0.13	-0.750			
0.2590	16576.38	3.8120	3.8125	-0.7936	24.94	0.13	-0.750			
0.2614	16727.58	3.8090	3.8089	-0.7833	24.94	0.13	-0.750			
0.2637	16875.23	3.8060	3.8058	-0.7778	24.95	0.14	-0.750			
0.2659	17020.27	3.8030	3.8031	-0.7736	24.95	0.14	-0.750			
0.2683	17171.91	3.8000	3.8000	-0.7801	24.95	0.14	-0.750			
0.2707	17323.46	3.7970	3.7969	-0.7734	24.96	0.15	-0.750			
0.2730	17470.94	3.7940	3.7941	-0.7672	24.96	0.15	-0.750			
0.2753	17616.05	3.7910	3.7911	-0.7698	24.97	0.16	-0.750			
0.2776	17763.60	3.7880	3.7879	-0.7683	24.97	0.16	-0.750			
0.2798	17910.09	3.7850	3.7849	-0.7707	24.97	0.16	-0.750			
0.2822	18058.76	3.7820	3.7821	-0.7755	24.98	0.17	-0.750			
0.2845	18210.30	3.7790	3.7792	-0.7825	24.98	0.17	-0.750			
0.2869	18362.07	3.7760	3.7761	-0.7801	24.98	0.17	-0.750			
0.2892	18511.26	3.7730	3.7729	-0.7863	24.99	0.18	-0.750			
0.2916	18662.72	3.7700	3.7700	-0.7832	24.99	0.18	-0.750			
0.2940	18813.96	3.7670	3.7669	-0.7864	25.00	0.19	-0.750			
0.2963	18963.96	3.7640	3.7644	-0.7868	25.00	0.19	-0.750			
0.2987	19115.65	3.7610	3.7608	-0.7909	25.00	0.19	-0.750			
0.3010	19266.56	3.7580	3.7580	-0.7970	25.00	0.19	-0.750			
0.3034	19419.08	3.7550	3.7551	-0.8009	25.00	0.19	-0.750			
0.3059	19575.93	3.7520	3.7519	-0.8178	25.00	0.19	-0.750			
0.3083	19732.67	3.7490	3.7489	-0.8237	25.00	0.19	-0.750			
0.3108	19889.86	3.7460	3.7460	-0.8317	25.00	0.19	-0.750			
0.3133	20050.90	3.7430	3.7430	-0.8445	25.00	0.19	-0.750			
0.3159	20216.45	3.7400	3.7398	-0.8525	24.99	0.18	-0.750			
0.3184	20379.62	3.7370	3.7371	-0.8608	24.99	0.18	-0.750			
0.3211	20547.31	3.7340	3.7340	-0.8687	24.99	0.18	-0.750			
0.3237	20714.22	3.7310	3.7309	-0.8750	24.99	0.18	-0.750			
0.3264	20888.08	3.7280	3.7278	-0.8665	24.99	0.18	-0.750			
0.3290	21054.58	3.7250	3.7250	-0.8525	24.98	0.17	-0.750			
0.3315	21216.91	3.7220	3.7222	-0.8460	24.98	0.17	-0.750			
0.3340	21376.08	3.7190	3.7200	-0.8591	24.98	0.17	-0.750			
0.3364	21531.74	3.7160	3.7157	-0.8862	24.98	0.17	-0.750			
0.3391	21700.28	3.7130	3.7128	-0.8988	24.97	0.16	-0.750			
0.3418	21876.65	3.7100	3.7100	-0.9301	24.97	0.16	-0.750			
0.3448	22064.47	3.7070	3.7069	-0.9740	24.96	0.15	-0.750			
0.3478	22259.46	3.7040	3.7041	-1.0150	24.96	0.15	-0.750			
0.3509	22458.60	3.7010	3.7008	-1.0212	24.95	0.14	-0.750			
0.3540	22655.97	3.6980	3.6978	-1.0302	24.95	0.14	-0.750	0.396	0.534	
0.3571	22855.99	3.6950	3.6948	-1.0498	24.94	0.13	-0.750			
0.3602	23054.78	3.6920	3.6920	-1.0738	24.94	0.13	-0.750			
0.3635	23262.37	3.6890	3.6888	-1.0836	24.93	0.12	-0.750			
0.3668	23473.52	3.6860	3.6857	-1.1021	24.93	0.12	-0.750			
0.3701	23684.69	3.6830	3.6830	-1.1177	24.92	0.11	-0.750			
0.3735	23904.81	3.6800	3.6798	-1.1484	24.92	0.11	-0.750			
0.3770	24126.48	3.6770	3.6769	-1.1588	24.91	0.10	-0.750			
0.3805	24349.63	3.6740	3.6739	-1.1669	24.91	0.10	-0.750			
0.3839	24567.56	3.6710	3.6713	-1.1726	24.90	0.09	-0.750			
0.3876	24806.84	3.6680	3.6680	-1.2187	24.89	0.08	-0.750			
0.3913	25041.24	3.6650	3.6649	-1.2306	24.88	0.07	-0.750			
0.3949	25275.06	3.6620	3.6619	-1.2700	24.87	0.06	-0.750			
0.3989	25526.51	3.6590	3.6589	-1.3037	24.86	0.05	-0.750			
0.4028	25778.35	3.6560	3.6558	-1.3339	24.86	0.05	-0.750			
0.4068	26037.38	3.6530	3.6528	-1.3747	24.85	0.04	-0.750			
0.4110	26303.36	3.6500	3.6498	-1.3731	24.84	0.03	-0.750			
0.4152	26573.54	3.6470	3.6466	-1.3956	24.83	0.02	-0.750			
0.4194	26840.34	3.6440	3.6442	-1.4138	24.82	0.01	-0.750			
0.4235	27106.45	3.6410	3.6410	-1.4202	24.82	0.01	-0.750			
0.4280	27394.03	3.6380	3.6379	-1.4818	24.81	-0.00	-0.750			
0.4325	27680.96	3.6350	3.6348	-1.5170	24.80	-0.01	-0.750			
0.4371	27976.90	3.6320	3.6319	-1.5579	24.80	-0.01	-0.750			
0.4418	28277.25	3.6290	3.6292	-1.5796	24.79	-0.02	-0.750			
0.4466	28581.88	3.6260	3.6267	-1.6065	24.78	-0.03	-0.750			
0.4514	28887.47	3.6230	3.6225	-1.6306	24.77	-0.04	-0.750			
0.4563	29201.83	3.6200	3.6197	-1.6616	24.76	-0.05	-0.750			
0.4612	29518.57	3.6170	3.6168	-1.6713	24.76	-0.05	-0.750			
0.4665	29858.72	3.6140	3.6136	-1.7200	24.75	-0.06	-0.750			
0.4716	30184.56	3.6110	3.6106	-1.7180	24.74	-0.07	-0.750			
0.4768	30514.37	3.6080	3.6076	-1.7628	24.73	-0.08	-0.750			
0.4821	30851.64	3.6050	3.6048	-1.8093	24.72	-0.09	-0.750			
0.4875	31202.94	3.6020	3.6019	-1.8480	24.72	-0.09	-0.750			
0.4933	31571.58	3.5990	3.5989	-1.8941	24.72	-0.09	-0.750			
0.4991	31944.11	3.5960	3.5958	-1.9337	24.72	-0.09	-0.750			
0.5052	32331.37	3.5930	3.5924	-1.9726	24.71	-0.10	-0.750			
0.5111	32708.22	3.5900	3.5901	-2.0132	24.71	-0.10	-0.750			
0.5172	33102.26	3.5870	3.5868	-2.0171	24.70	-0.11	-0.750			
0.5234	33495.15	3.5840	3.5836	-2.0435	24.70	-0.11	-0.750			
0.5294	33879.89	3.5810	3.5806	-2.0808	24.70	-0.11	-0.750			
0.5358	34288.63	3.5780	3.5777	-2.0713	24.70	-0.11	-0.750			
0.5421	34691.82	3.5750	3.5748	-2.1251	24.69	-0.12	-0.750			
0.5485	35101.41	3.5720	3.5721	-2.1399	24.69	-0.12	-0.750			
0.5550	35518.32	3.5690	3.5694	-2.1852	24.69	-0.12	-0.750			
0.5616	35943.00	3.5660	3.5656	-2.1910	24.69	-0.12	-0.750			
0.5681	36355.61	3.5630	3.5627	-2.1851	24.69	-0.12	-0.750			
0.5746	36777.54	3.5600	3.5598	-2.1588	24.69	-0.12	-0.750			
0.5813	37200.39	3.5570	3.5567	-2.1587	24.70	-0.11	-0.750			
0.5876	37605.26	3.5540	3.5544	-2.1647	24.70	-0.11	-0.750			
0.5941	38025.57	3.5510	3.5509	-2.1041	24.70	-0.11	-0.750			
0.6006	38440.82	3.5480	3.5480	-2.0570	24.70	-0.11	-0.750			
0.6066	38823.71	3.5450	3.5453	-1.9618	24.71	-0.10	-0.750			
0.6124	39196.03	3.5420	3.5418	-1.9274	24.71	-0.10	-0.750			
0.6182	39564.16	3.5390	3.5387	-1.9377	24.72	-0.09	-0.750			
0.6237	39915.71	3.5360	3.5357	-1.9258	24.72	-0.09	-0.750			
0.6298	40305.46	3.5330	3.5325	-1.9214	24.73	-0.08	-0.750			
0.6356	40679.32	3.5300	3.5295	-1.9105	24.74	-0.07	-0.750			
0.6412	41037.42	3.5270	3.5268	-1.8333	24.76	-0.05	-0.750			
0.6464	41368.19	3.5240	3.5239	-1.7855	24.77	-0.04	-0.750			
0.6517	41705.64	3.5210	3.5208	-1.7600	24.78	-0.03	-0.750			
0.6570	42050.07	3.5180	3.5180	-1.7385	24.79	-0.02	-0.750			
0.6624	42393.07	3.5150	3.5147	-1.6929	24.81	0.00	-0.750			
0.6676	42724.20	3.5120	3.5117	-1.6725	24.83	0.02	-0.750			
0.6725	43041.95	3.5090	3.5090	-1.6058	24.84	0.03	-0.750			
0.6773	43346.66	3.5060	3.5059	-1.5622	24.86	0.05	-0.750			
0.6817	43628.85	3.5030	3.5029	-1.5025	24.87	0.06	-0.750			
0.6862	43916.18	3.5000	3.4998	-1.4595	24.89	0.08	-0.750			
0.6906	44199.71	3.4970	3.4972	-1.4334	24.91	0.10	-0.750			
0.6950	44478.33	3.4940	3.4939	-1.4021	24.92	0.11	-0.750			
0.6989	44732.75	3.4910	3.4911	-1.3639	24.94	0.13	-0.750			
0.7031	44999.34	3.4880	3.4880	-1.2988	24.96	0.15	-0.750			
0.7070	45250.41	3.4850	3.4849	-1.3565	24.97	0.16	-0.750			
