Ah_balance (normalized)	Ah_balance (mAh)	Voltage - fit (V)	Voltage -  interpolate (V)	dQ/dV (1/V)	Temperature (°C)	Temperature - diff (°C)	Current (C)	R_DC 0ms (mOhm)	R_DC 50ms (mOhm)	R_DC 50 ms PEC (mOhm)
0.0004	25.69	4.1620	4.1621	-0.1273	25.09	0.01	-0.750			
0.0009	57.96	4.1590	4.1587	-0.1844	25.09	0.01	-0.750			
0.0015	98.43	4.1560	4.1560	-0.2298	25.09	0.01	-0.750			
0.0023	147.79	4.1530	4.1529	-0.2723	25.08	0.00	-0.750			
0.0032	204.13	4.1500	4.1499	-0.3143	25.08	0.00	-0.750			
0.0042	270.15	4.1470	4.1469	-0.3550	25.08	-0.00	-0.750			
0.0053	342.13	4.1440	4.1441	-0.3908	25.07	-0.01	-0.750			
0.0066	420.65	4.1410	4.1409	-0.4258	25.07	-0.01	-0.750			
0.0079	506.48	4.1380	4.1380	-0.4573	25.07	-0.01	-0.750			
0.0093	597.56	4.1350	4.1351	-0.4891	25.06	-0.02	-0.750			
0.0108	694.12	4.1320	4.1321	-0.5198	25.06	-0.02	-0.750			
0.0125	798.19	4.1290	4.1291	-0.5452	25.05	-0.03	-0.750			
0.0141	905.51	4.1260	4.1258	-0.5732	25.05	-0.03	-0.750			
0.0159	1019.77	4.1230	4.1230	-0.5956	25.04	-0.04	-0.750			
0.0178	1137.26	4.1200	4.1200	-0.6129	25.04	-0.04	-0.750			
0.0197	1258.37	4.1170	4.1169	-0.6343	25.03	-0.05	-0.750			
0.0216	1381.75	4.1140	4.1141	-0.6517	25.03	-0.05	-0.750			
0.0236	1509.25	4.1110	4.1108	-0.6609	25.03	-0.05	-0.750			
0.0256	1637.78	4.1080	4.1079	-0.6702	25.02	-0.06	-0.750			
0.0276	1766.74	4.1050	4.1050	-0.6758	25.02	-0.06	-0.750			
0.0297	1897.75	4.1020	4.1018	-0.6839	25.02	-0.06	-0.750			
0.0317	2029.55	4.0990	4.0988	-0.6891	25.02	-0.06	-0.750			
0.0337	2159.58	4.0960	4.0961	-0.6975	25.02	-0.06	-0.750			
0.0358	2293.72	4.0930	4.0931	-0.7062	25.01	-0.07	-0.750			
0.0381	2437.40	4.0900	4.0898	-0.7152	25.01	-0.07	-0.750			
0.0402	2574.42	4.0870	4.0867	-0.7116	25.01	-0.07	-0.750			
0.0424	2710.78	4.0840	4.0840	-0.7127	25.01	-0.07	-0.750			
0.0445	2845.55	4.0810	4.0811	-0.7175	25.01	-0.07	-0.750			
0.0466	2982.71	4.0780	4.0778	-0.7284	25.01	-0.07	-0.750			
0.0488	3120.65	4.0750	4.0750	-0.7312	25.00	-0.08	-0.750			
0.0510	3264.84	4.0720	4.0719	-0.7413	25.00	-0.08	-0.750			
0.0533	3409.45	4.0690	4.0693	-0.7468	25.00	-0.08	-0.750			
0.0555	3554.56	4.0660	4.0659	-0.7494	25.00	-0.08	-0.750			
0.0578	3698.44	4.0630	4.0629	-0.7453	25.00	-0.08	-0.750			
0.0600	3841.16	4.0600	4.0600	-0.7458	25.00	-0.08	-0.750			
0.0623	3984.46	4.0570	4.0569	-0.7508	25.00	-0.08	-0.750			
0.0646	4131.37	4.0540	4.0539	-0.7576	25.00	-0.08	-0.750			
0.0668	4277.07	4.0510	4.0509	-0.7531	25.00	-0.08	-0.750			
0.0691	4422.19	4.0480	4.0479	-0.7514	25.00	-0.08	-0.750			
0.0713	4565.70	4.0450	4.0451	-0.7596	25.00	-0.08	-0.750			
0.0736	4711.44	4.0420	4.0420	-0.7488	25.01	-0.07	-0.750			
0.0759	4859.89	4.0390	4.0388	-0.7567	25.01	-0.07	-0.750			
0.0782	5002.87	4.0360	4.0363	-0.7521	25.01	-0.07	-0.750			
0.0804	5146.87	4.0330	4.0330	-0.7525	25.01	-0.07	-0.750			
0.0827	5290.30	4.0300	4.0299	-0.7593	25.01	-0.07	-0.750			
0.0849	5435.31	4.0270	4.0270	-0.7594	25.02	-0.06	-0.750			
0.0872	5582.51	4.0240	4.0239	-0.7687	25.02	-0.06	-0.750			
0.0895	5731.18	4.0210	4.0209	-0.7712	25.02	-0.06	-0.750			
0.0919	5879.75	4.0180	4.0181	-0.7728	25.02	-0.06	-0.750			
0.0942	6025.62	4.0150	4.0150	-0.7805	25.02	-0.06	-0.750			
0.0965	6175.78	4.0120	4.0120	-0.7807	25.02	-0.06	-0.750			
0.0989	6326.47	4.0090	4.0090	-0.7781	25.02	-0.06	-0.750			
0.1012	6478.17	4.0060	4.0059	-0.7857	25.02	-0.06	-0.750			
0.1036	6630.78	4.0030	4.0037	-0.7868	25.02	-0.06	-0.750			
0.1060	6781.21	4.0000	4.0000	-0.7869	25.02	-0.06	-0.750			
0.1083	6930.29	3.9970	3.9969	-0.7933	25.03	-0.05	-0.750			
0.1107	7084.03	3.9940	3.9940	-0.7922	25.03	-0.05	-0.750			
0.1131	7239.01	3.9910	3.9908	-0.7978	25.04	-0.04	-0.750			
0.1155	7391.75	3.9880	3.9879	-0.7967	25.04	-0.04	-0.750			
0.1179	7545.00	3.9850	3.9849	-0.7955	25.04	-0.04	-0.750			
0.1203	7697.43	3.9820	3.9819	-0.7956	25.04	-0.04	-0.750			
0.1226	7846.82	3.9790	3.9791	-0.7959	25.04	-0.04	-0.750			
0.1250	8001.17	3.9760	3.9759	-0.8067	25.04	-0.04	-0.750			
0.1275	8157.30	3.9730	3.9729	-0.8088	25.04	-0.04	-0.750			
0.1299	8313.12	3.9700	3.9701	-0.8122	25.04	-0.04	-0.750			
0.1323	8467.98	3.9670	3.9671	-0.8236	25.05	-0.03	-0.750			
0.1348	8629.37	3.9640	3.9639	-0.8310	25.05	-0.03	-0.750			
0.1374	8790.57	3.9610	3.9608	-0.8281	25.05	-0.03	-0.750			
0.1398	8949.99	3.9580	3.9578	-0.8259	25.06	-0.02	-0.750			
0.1423	9110.06	3.9550	3.9549	-0.8264	25.06	-0.02	-0.750			
0.1448	9267.97	3.9520	3.9519	-0.8325	25.06	-0.02	-0.750			
0.1473	9425.85	3.9490	3.9489	-0.8251	25.06	-0.02	-0.750			
0.1497	9583.00	3.9460	3.9459	-0.8120	25.06	-0.02	-0.750			
0.1522	9741.60	3.9430	3.9430	-0.8324	25.06	-0.02	-0.750			
0.1547	9902.32	3.9400	3.9398	-0.8329	25.06	-0.02	-0.750			
0.1572	10060.09	3.9370	3.9368	-0.8369	25.07	-0.01	-0.750			
0.1597	10221.03	3.9340	3.9338	-0.8397	25.07	-0.01	-0.750			
0.1622	10379.87	3.9310	3.9313	-0.8387	25.07	-0.01	-0.750			
0.1649	10550.72	3.9280	3.9279	-0.8470	25.08	-0.00	-0.750			
0.1674	10712.44	3.9250	3.9251	-0.8427	25.08	0.00	-0.750			
0.1698	10870.32	3.9220	3.9220	-0.8453	25.08	0.00	-0.750			
0.1724	11033.48	3.9190	3.9187	-0.8427	25.09	0.01	-0.750			
0.1749	11194.54	3.9160	3.9159	-0.8346	25.09	0.01	-0.750			
0.1774	11355.69	3.9130	3.9129	-0.8385	25.09	0.01	-0.750			
0.1800	11517.37	3.9100	3.9100	-0.8443	25.09	0.01	-0.750			
0.1825	11680.32	3.9070	3.9069	-0.8540	25.09	0.01	-0.750			
0.1850	11841.85	3.9040	3.9037	-0.8457	25.10	0.02	-0.750			
0.1876	12005.34	3.9010	3.9010	-0.8349	25.10	0.02	-0.750			
0.1902	12171.70	3.8980	3.8980	-0.8447	25.10	0.02	-0.750			
0.1927	12330.14	3.8950	3.8949	-0.8426	25.10	0.02	-0.750			
0.1952	12489.63	3.8920	3.8919	-0.8394	25.11	0.03	-0.750			
0.1977	12650.53	3.8890	3.8888	-0.8372	25.11	0.03	-0.750			
0.2001	12809.17	3.8860	3.8861	-0.8368	25.11	0.03	-0.750			
0.2028	12977.24	3.8830	3.8831	-0.8507	25.12	0.04	-0.750			
0.2053	13141.32	3.8800	3.8799	-0.8468	25.12	0.04	-0.750			
0.2078	13301.76	3.8770	3.8769	-0.8517	25.13	0.05	-0.750			
0.2104	13466.25	3.8740	3.8740	-0.8449	25.13	0.05	-0.750			
0.2129	13627.92	3.8710	3.8710	-0.8452	25.13	0.05	-0.750			
0.2155	13793.69	3.8680	3.8681	-0.8479	25.14	0.06	-0.750			
0.2180	13953.89	3.8650	3.8648	-0.8456	25.14	0.06	-0.750			
0.2205	14113.90	3.8620	3.8620	-0.8656	25.14	0.06	-0.750			
0.2232	14282.05	3.8590	3.8589	-0.8733	25.15	0.07	-0.750			
0.2258	14449.48	3.8560	3.8558	-0.8803	25.15	0.07	-0.750			
0.2286	14628.76	3.8530	3.8537	-0.8913	25.15	0.07	-0.750			
0.2312	14799.31	3.8500	3.8500	-0.8835	25.15	0.07	-0.750			
0.2339	14971.06	3.8470	3.8469	-0.8813	25.16	0.08	-0.750			
0.2365	15136.90	3.8440	3.8440	-0.8701	25.16	0.08	-0.750			
0.2391	15303.27	3.8410	3.8409	-0.8587	25.17	0.09	-0.750			
0.2417	15465.66	3.8380	3.8381	-0.8518	25.17	0.09	-0.750			
0.2441	15623.97	3.8350	3.8350	-0.8627	25.17	0.09	-0.750			
0.2468	15792.07	3.8320	3.8320	-0.8535	25.18	0.10	-0.750			
0.2493	15955.63	3.8290	3.8287	-0.8472	25.18	0.10	-0.750			
0.2519	16120.13	3.8260	3.8260	-0.8446	25.19	0.11	-0.750			
0.2544	16282.04	3.8230	3.8229	-0.8399	25.19	0.11	-0.750			
0.2569	16442.47	3.8200	3.8200	-0.8497	25.19	0.11	-0.750			
0.2594	16604.26	3.8170	3.8168	-0.8406	25.19	0.11	-0.750			
0.2619	16764.29	3.8140	3.8139	-0.8440	25.20	0.12	-0.750			
0.2645	16927.05	3.8110	3.8109	-0.8369	25.20	0.12	-0.750			
0.2670	17087.69	3.8080	3.8081	-0.8341	25.20	0.12	-0.750			
0.2695	17246.80	3.8050	3.8049	-0.8271	25.21	0.13	-0.750			
0.2719	17402.98	3.8020	3.8019	-0.8156	25.21	0.13	-0.750			
0.2743	17555.49	3.7990	3.7990	-0.8071	25.21	0.13	-0.750			
0.2768	17714.31	3.7960	3.7960	-0.8140	25.22	0.14	-0.750			
0.2792	17870.14	3.7930	3.7930	-0.8079	25.22	0.14	-0.750			
0.2816	18024.76	3.7900	3.7899	-0.8026	25.23	0.15	-0.750			
0.2840	18177.61	3.7870	3.7871	-0.8059	25.23	0.15	-0.750			
0.2865	18335.25	3.7840	3.7837	-0.8005	25.24	0.16	-0.750			
0.2889	18489.86	3.7810	3.7809	-0.7959	25.24	0.16	-0.750			
0.2913	18640.74	3.7780	3.7785	-0.7931	25.25	0.17	-0.750			
0.2936	18793.12	3.7750	3.7750	-0.7880	25.25	0.17	-0.750			
0.2960	18943.60	3.7720	3.7718	-0.7881	25.25	0.17	-0.750			
0.2983	19090.81	3.7690	3.7690	-0.7829	25.26	0.18	-0.750			
0.3007	19242.73	3.7660	3.7661	-0.7935	25.26	0.18	-0.750			
0.3030	19395.10	3.7630	3.7630	-0.7960	25.26	0.18	-0.750			
0.3054	19547.97	3.7600	3.7599	-0.7972	25.26	0.18	-0.750			
0.3078	19700.15	3.7570	3.7570	-0.8050	25.26	0.18	-0.750			
0.3103	19856.59	3.7540	3.7540	-0.8100	25.27	0.19	-0.750			
0.3127	20010.63	3.7510	3.7509	-0.8187	25.27	0.19	-0.750			
0.3151	20167.53	3.7480	3.7481	-0.8367	25.27	0.19	-0.750			
0.3176	20328.84	3.7450	3.7450	-0.8533	25.27	0.19	-0.750			
0.3203	20496.50	3.7420	3.7419	-0.8643	25.27	0.19	-0.750			
0.3229	20666.46	3.7390	3.7389	-0.8686	25.27	0.19	-0.750			
0.3255	20834.68	3.7360	3.7362	-0.8649	25.27	0.19	-0.750			
0.3282	21003.11	3.7330	3.7329	-0.8733	25.27	0.19	-0.750			
0.3307	21164.82	3.7300	3.7300	-0.8791	25.27	0.19	-0.750			
0.3333	21332.21	3.7270	3.7269	-0.8878	25.27	0.19	-0.750			
0.3359	21500.05	3.7240	3.7240	-0.9031	25.27	0.19	-0.750			
0.3387	21676.89	3.7210	3.7208	-0.9148	25.27	0.19	-0.750			
0.3416	21859.44	3.7180	3.7184	-0.9400	25.27	0.19	-0.750			
0.3444	22041.22	3.7150	3.7150	-0.9619	25.27	0.19	-0.750			
0.3473	22226.85	3.7120	3.7120	-0.9741	25.27	0.19	-0.750			
0.3503	22416.43	3.7090	3.7088	-1.0001	25.27	0.19	-0.750			
0.3533	22612.83	3.7060	3.7062	-1.0144	25.27	0.19	-0.750			
0.3564	22811.19	3.7030	3.7029	-1.0332	25.27	0.19	-0.750			
0.3596	23011.73	3.7000	3.6999	-1.0415	25.26	0.18	-0.750	0.366	0.489	
0.3627	23210.49	3.6970	3.6967	-1.0463	25.26	0.18	-0.750			
0.3657	23407.79	3.6940	3.6945	-1.0729	25.25	0.17	-0.750			
0.3690	23613.77	3.6910	3.6908	-1.0876	25.25	0.17	-0.750			
0.3722	23821.53	3.6880	3.6880	-1.0988	25.24	0.16	-0.750			
0.3756	24040.78	3.6850	3.6849	-1.1317	25.23	0.15	-0.750			
0.3791	24263.78	3.6820	3.6823	-1.1634	25.23	0.15	-0.750			
0.3826	24487.42	3.6790	3.6789	-1.1751	25.23	0.15	-0.750			
0.3861	24711.59	3.6760	3.6760	-1.1900	25.22	0.14	-0.750			
0.3896	24935.96	3.6730	3.6730	-1.2101	25.22	0.14	-0.750			
0.3934	25178.69	3.6700	3.6699	-1.2487	25.22	0.14	-0.750			
0.3972	25420.59	3.6670	3.6669	-1.2693	25.21	0.13	-0.750			
0.4010	25662.16	3.6640	3.6640	-1.3047	25.20	0.12	-0.750			
0.4050	25921.04	3.6610	3.6610	-1.3085	25.20	0.12	-0.750			
0.4090	26174.32	3.6580	3.6579	-1.3410	25.19	0.11	-0.750			
0.4130	26431.08	3.6550	3.6549	-1.3670	25.18	0.10	-0.750			
0.4171	26695.12	3.6520	3.6520	-1.3791	25.17	0.09	-0.750			
0.4213	26965.91	3.6490	3.6488	-1.4047	25.17	0.09	-0.750			
0.4255	27231.93	3.6460	3.6461	-1.4530	25.16	0.08	-0.750			
0.4299	27515.93	3.6430	3.6430	-1.4628	25.16	0.08	-0.750			
0.4345	27809.82	3.6400	3.6398	-1.5141	25.15	0.07	-0.750			
0.4391	28100.88	3.6370	3.6371	-1.5232	25.14	0.06	-0.750			
0.4437	28399.51	3.6340	3.6338	-1.5555	25.14	0.06	-0.750			
0.4485	28701.07	3.6310	3.6311	-1.5933	25.13	0.05	-0.750			
0.4533	29009.18	3.6280	3.6283	-1.5918	25.12	0.04	-0.750			
0.4580	29314.40	3.6250	3.6252	-1.6185	25.11	0.03	-0.750			
0.4630	29632.40	3.6220	3.6220	-1.6524	25.10	0.02	-0.750			
0.4679	29944.39	3.6190	3.6188	-1.6825	25.10	0.02	-0.750			
0.4730	30269.71	3.6160	3.6161	-1.7439	25.09	0.01	-0.750			
0.4784	30619.83	3.6130	3.6132	-1.7799	25.08	0.00	-0.750			
0.4838	30965.37	3.6100	3.6103	-1.8197	25.07	-0.01	-0.750			
0.4894	31321.63	3.6070	3.6072	-1.8463	25.06	-0.02	-0.750			
0.4949	31673.08	3.6040	3.6040	-1.9091	25.06	-0.02	-0.750			
0.5007	32044.03	3.6010	3.6009	-1.9221	25.05	-0.03	-0.750			
0.5064	32407.51	3.5980	3.5982	-1.9762	25.05	-0.03	-0.750			
0.5126	32804.24	3.5950	3.5953	-2.0038	25.04	-0.04	-0.750			
0.5186	33193.46	3.5920	3.5916	-2.0076	25.03	-0.05	-0.750			
0.5245	33570.41	3.5890	3.5895	-2.0573	25.02	-0.06	-0.750			
0.5307	33964.15	3.5860	3.5857	-2.0899	25.02	-0.06	-0.750			
0.5372	34383.59	3.5830	3.5825	-2.1232	25.02	-0.06	-0.750			
0.5435	34782.89	3.5800	3.5803	-2.1699	25.02	-0.06	-0.750			
0.5503	35217.64	3.5770	3.5773	-2.2450	25.01	-0.07	-0.750			
0.5570	35648.91	3.5740	3.5737	-2.2372	25.00	-0.08	-0.750			
0.5636	36071.09	3.5710	3.5712	-2.2053	25.01	-0.07	-0.750			
0.5704	36504.51	3.5680	3.5679	-2.1036	25.01	-0.07	-0.750			
0.5766	36904.60	3.5650	3.5646	-2.0501	25.00	-0.08	-0.750			
0.5823	37267.41	3.5620	3.5624	-2.0066	25.00	-0.08	-0.750			
0.5882	37642.24	3.5590	3.5592	-2.0638	25.00	-0.08	-0.750			
0.5944	38039.61	3.5560	3.5559	-2.1096	25.00	-0.08	-0.750			
0.6012	38479.82	3.5530	3.5532	-2.1988	25.00	-0.08	-0.750			
0.6079	38907.10	3.5500	3.5502	-2.2897	25.00	-0.08	-0.750			
0.6145	39329.21	3.5470	3.5471	-2.1819	25.00	-0.08	-0.750			
0.6208	39730.65	3.5440	3.5436	-2.1306	25.00	-0.08	-0.750			
0.6274	40154.36	3.5410	3.5410	-2.1224	25.00	-0.08	-0.750			
0.6337	40556.54	3.5380	3.5383	-2.0341	25.00	-0.08	-0.750			
0.6397	40943.77	3.5350	3.5347	-2.0308	25.01	-0.07	-0.750			
0.6458	41331.23	3.5320	3.5325	-2.0102	25.01	-0.07	-0.750			
0.6517	41706.68	3.5290	3.5290	-1.9364	25.02	-0.06	-0.750			
0.6573	42065.98	3.5260	3.5263	-1.8838	25.03	-0.05	-0.750			
0.6632	42441.82	3.5230	3.5225	-1.8431	25.04	-0.04	-0.750			
0.6686	42790.23	3.5200	3.5196	-1.7873	25.05	-0.03	-0.750			
0.6737	43114.12	3.5170	3.5168	-1.7274	25.06	-0.02	-0.750			
0.6788	43442.74	3.5140	3.5145	-1.6753	25.08	0.00	-0.750			
0.6838	43762.47	3.5110	3.5113	-1.6319	25.10	0.02	-0.750			
0.6887	44076.26	3.5080	3.5083	-1.5822	25.11	0.03	-0.750			
0.6934	44374.44	3.5050	3.5047	-1.5404	25.13	0.05	-0.750			
0.6981	44679.32	3.5020	3.5015	-1.5092	25.14	0.06	-0.750			
0.7026	44964.11	3.4990	3.4987	-1.4789	25.16	0.08	-0.750			
0.7070	45248.49	3.4960	3.4962	-1.4346	25.17	0.09	-0.750			
0.7111	45508.09	3.4930	3.4927	-1.3720	25.18	0.10	-0.750			
0.7151	45766.78	3.4900	3.4898	-1.3400	25.20	0.12	-0.750			
0.7189	46011.37	3.4870	3.4869	-1.1396	25.21	0.13	-0.750			
