Ah_balance (normalized)	Ah_balance (mAh)	Voltage - fit (V)	Voltage -  interpolate (V)	dQ/dV (1/V)	Temperature (°C)	Temperature - diff (°C)	Current (C)	R_DC 0ms (mOhm)	R_DC 50ms (mOhm)	R_DC 50 ms PEC (mOhm)
0.0003	16.73	4.1640	4.1639	-0.1450	24.76	0.02	-0.750			
0.0008	49.67	4.1610	4.1610	-0.1900	24.76	0.02	-0.750			
0.0014	88.29	4.1580	4.1581	-0.2305	24.75	0.01	-0.750			
0.0021	137.58	4.1550	4.1550	-0.2732	24.75	0.01	-0.750			
0.0030	193.21	4.1520	4.1520	-0.3207	24.75	0.01	-0.750			
0.0040	259.09	4.1490	4.1490	-0.3628	24.75	0.01	-0.750			
0.0052	333.24	4.1460	4.1460	-0.4078	24.75	0.01	-0.750			
0.0065	417.17	4.1430	4.1429	-0.4471	24.75	0.01	-0.750			
0.0079	506.18	4.1400	4.1401	-0.4944	24.74	0.00	-0.750			
0.0095	605.09	4.1370	4.1370	-0.5370	24.74	0.00	-0.750			
0.0112	714.00	4.1340	4.1340	-0.5777	24.74	-0.00	-0.750			
0.0130	831.14	4.1310	4.1308	-0.6066	24.74	-0.00	-0.750			
0.0149	952.88	4.1280	4.1282	-0.6371	24.73	-0.01	-0.750			
0.0169	1080.58	4.1250	4.1249	-0.6640	24.73	-0.01	-0.750			
0.0189	1211.52	4.1220	4.1220	-0.6779	24.73	-0.01	-0.750			
0.0210	1342.34	4.1190	4.1188	-0.6794	24.72	-0.02	-0.750			
0.0230	1474.13	4.1160	4.1165	-0.6904	24.72	-0.02	-0.750			
0.0251	1608.87	4.1130	4.1130	-0.7005	24.71	-0.03	-0.750			
0.0272	1741.18	4.1100	4.1101	-0.7148	24.71	-0.03	-0.750			
0.0294	1878.95	4.1070	4.1070	-0.7155	24.70	-0.04	-0.750			
0.0315	2019.02	4.1040	4.1040	-0.7324	24.70	-0.04	-0.750			
0.0338	2160.94	4.1010	4.1008	-0.7369	24.69	-0.05	-0.750			
0.0360	2304.53	4.0980	4.0982	-0.7466	24.69	-0.05	-0.750			
0.0382	2447.45	4.0950	4.0950	-0.7457	24.69	-0.05	-0.750			
0.0405	2589.57	4.0920	4.0920	-0.7530	24.69	-0.05	-0.750			
0.0427	2735.14	4.0890	4.0890	-0.7626	24.69	-0.05	-0.750			
0.0450	2881.65	4.0860	4.0859	-0.7671	24.69	-0.05	-0.750			
0.0473	3029.20	4.0830	4.0830	-0.7671	24.69	-0.05	-0.750			
0.0497	3178.43	4.0800	4.0801	-0.7700	24.69	-0.05	-0.750			
0.0520	3326.22	4.0770	4.0770	-0.7736	24.69	-0.05	-0.750			
0.0543	3474.50	4.0740	4.0741	-0.7779	24.69	-0.05	-0.750			
0.0566	3621.11	4.0710	4.0710	-0.7775	24.69	-0.05	-0.750			
0.0590	3772.85	4.0680	4.0679	-0.7823	24.69	-0.05	-0.750			
0.0613	3922.75	4.0650	4.0651	-0.7850	24.69	-0.05	-0.750			
0.0637	4075.43	4.0620	4.0621	-0.7926	24.69	-0.05	-0.750			
0.0661	4228.12	4.0590	4.0590	-0.8023	24.69	-0.05	-0.750			
0.0685	4383.91	4.0560	4.0558	-0.7961	24.69	-0.05	-0.750			
0.0709	4536.81	4.0530	4.0529	-0.7988	24.69	-0.05	-0.750			
0.0733	4690.40	4.0500	4.0504	-0.7982	24.69	-0.05	-0.750			
0.0757	4844.12	4.0470	4.0468	-0.7964	24.69	-0.05	-0.750			
0.0780	4994.12	4.0440	4.0440	-0.7971	24.69	-0.05	-0.750			
0.0804	5147.72	4.0410	4.0408	-0.7949	24.69	-0.05	-0.750			
0.0829	5302.72	4.0380	4.0380	-0.8065	24.69	-0.05	-0.750			
0.0853	5458.28	4.0350	4.0350	-0.8058	24.69	-0.05	-0.750			
0.0877	5612.36	4.0320	4.0319	-0.8020	24.69	-0.05	-0.750			
0.0901	5767.29	4.0290	4.0289	-0.8034	24.69	-0.05	-0.750			
0.0925	5918.89	4.0260	4.0261	-0.8045	24.70	-0.04	-0.750			
0.0949	6073.98	4.0230	4.0229	-0.8092	24.70	-0.04	-0.750			
0.0973	6229.42	4.0200	4.0199	-0.8119	24.70	-0.04	-0.750			
0.0998	6384.51	4.0170	4.0169	-0.8106	24.70	-0.04	-0.750			
0.1022	6542.58	4.0140	4.0141	-0.8201	24.70	-0.04	-0.750			
0.1047	6702.55	4.0110	4.0109	-0.8219	24.70	-0.04	-0.750			
0.1072	6859.88	4.0080	4.0079	-0.8188	24.70	-0.04	-0.750			
0.1096	7016.86	4.0050	4.0050	-0.8145	24.70	-0.04	-0.750			
0.1121	7172.29	4.0020	4.0018	-0.8204	24.70	-0.04	-0.750			
0.1145	7329.03	3.9990	3.9989	-0.8223	24.70	-0.04	-0.750			
0.1170	7487.32	3.9960	3.9960	-0.8249	24.71	-0.03	-0.750			
0.1195	7645.34	3.9930	3.9929	-0.8218	24.71	-0.03	-0.750			
0.1220	7808.60	3.9900	3.9902	-0.8300	24.71	-0.03	-0.750			
0.1245	7967.46	3.9870	3.9869	-0.8297	24.71	-0.03	-0.750			
0.1270	8125.15	3.9840	3.9839	-0.8352	24.71	-0.03	-0.750			
0.1295	8285.56	3.9810	3.9810	-0.8326	24.72	-0.02	-0.750			
0.1319	8444.47	3.9780	3.9780	-0.8338	24.72	-0.02	-0.750			
0.1345	8607.32	3.9750	3.9749	-0.8440	24.72	-0.02	-0.750			
0.1370	8769.89	3.9720	3.9720	-0.8452	24.72	-0.02	-0.750			
0.1396	8932.77	3.9690	3.9689	-0.8500	24.72	-0.02	-0.750			
0.1421	9095.99	3.9660	3.9660	-0.8478	24.72	-0.02	-0.750			
0.1447	9258.26	3.9630	3.9630	-0.8481	24.72	-0.02	-0.750			
0.1473	9425.74	3.9600	3.9600	-0.8553	24.72	-0.02	-0.750			
0.1498	9587.64	3.9570	3.9568	-0.8526	24.72	-0.02	-0.750			
0.1523	9749.10	3.9540	3.9541	-0.8559	24.73	-0.01	-0.750			
0.1549	9914.56	3.9510	3.9509	-0.8592	24.73	-0.01	-0.750			
0.1575	10079.05	3.9480	3.9479	-0.8554	24.74	-0.00	-0.750			
0.1601	10248.40	3.9450	3.9452	-0.8615	24.74	-0.00	-0.750			
0.1627	10412.23	3.9420	3.9420	-0.8625	24.74	0.00	-0.750			
0.1653	10579.36	3.9390	3.9390	-0.8644	24.74	0.00	-0.750			
0.1679	10743.70	3.9360	3.9359	-0.8633	24.75	0.01	-0.750			
0.1704	10908.15	3.9330	3.9330	-0.8604	24.75	0.01	-0.750			
0.1731	11076.55	3.9300	3.9302	-0.8668	24.75	0.01	-0.750			
0.1756	11240.97	3.9270	3.9270	-0.8760	24.75	0.01	-0.750			
0.1783	11410.17	3.9240	3.9240	-0.8761	24.75	0.01	-0.750			
0.1809	11578.26	3.9210	3.9210	-0.8784	24.75	0.01	-0.750			
0.1836	11748.74	3.9180	3.9178	-0.8874	24.75	0.01	-0.750			
0.1862	11918.57	3.9150	3.9153	-0.8885	24.75	0.01	-0.750			
0.1889	12091.17	3.9120	3.9119	-0.8927	24.75	0.01	-0.750			
0.1916	12265.04	3.9090	3.9089	-0.8803	24.75	0.01	-0.750			
0.1943	12436.73	3.9060	3.9060	-0.8526	24.76	0.02	-0.750			
0.1969	12599.97	3.9030	3.9030	-0.8381	24.76	0.02	-0.750			
0.1993	12757.13	3.9000	3.9001	-0.8238	24.76	0.02	-0.750			
0.2016	12902.93	3.8970	3.8969	-0.8470	24.77	0.03	-0.750			
0.2040	13053.95	3.8940	3.8938	-0.8677	24.77	0.03	-0.750			
0.2067	13227.94	3.8910	3.8909	-0.8994	24.77	0.03	-0.750			
0.2096	13414.27	3.8880	3.8877	-0.9491	24.78	0.04	-0.750			
0.2126	13603.58	3.8850	3.8854	-0.9727	24.78	0.04	-0.750			
0.2156	13798.64	3.8820	3.8821	-0.9601	24.79	0.05	-0.750			
0.2185	13986.27	3.8790	3.8788	-0.9438	24.79	0.05	-0.750			
0.2212	14159.35	3.8760	3.8759	-0.9207	24.80	0.06	-0.750			
0.2240	14333.39	3.8730	3.8730	-0.9062	24.80	0.06	-0.750			
0.2267	14506.44	3.8700	3.8698	-0.9043	24.80	0.06	-0.750			
0.2293	14676.79	3.8670	3.8671	-0.8992	24.80	0.06	-0.750			
0.2320	14848.26	3.8640	3.8641	-0.8929	24.80	0.06	-0.750			
0.2348	15025.14	3.8610	3.8609	-0.9022	24.80	0.06	-0.750			
0.2374	15195.66	3.8580	3.8580	-0.9007	24.80	0.06	-0.750			
0.2401	15367.90	3.8550	3.8550	-0.9008	24.80	0.06	-0.750			
0.2428	15541.87	3.8520	3.8520	-0.9076	24.81	0.07	-0.750			
0.2456	15715.42	3.8490	3.8490	-0.9069	24.81	0.07	-0.750			
0.2483	15890.99	3.8460	3.8463	-0.9126	24.81	0.07	-0.750			
0.2511	16068.03	3.8430	3.8431	-0.9259	24.81	0.07	-0.750			
0.2539	16248.76	3.8400	3.8399	-0.9230	24.81	0.07	-0.750			
0.2567	16426.04	3.8370	3.8369	-0.9151	24.82	0.08	-0.750			
0.2594	16602.13	3.8340	3.8342	-0.9145	24.82	0.08	-0.750			
0.2621	16774.99	3.8310	3.8309	-0.9146	24.82	0.08	-0.750			
0.2649	16952.75	3.8280	3.8278	-0.9019	24.82	0.08	-0.750			
0.2675	17120.24	3.8250	3.8250	-0.8925	24.83	0.09	-0.750			
0.2701	17286.13	3.8220	3.8222	-0.8911	24.83	0.09	-0.750			
0.2728	17461.43	3.8190	3.8194	-0.9127	24.83	0.09	-0.750			
0.2755	17635.00	3.8160	3.8153	-0.9254	24.83	0.09	-0.750			
0.2783	17814.36	3.8130	3.8134	-0.9267	24.83	0.09	-0.750			
0.2812	17995.66	3.8100	3.8101	-0.9373	24.84	0.10	-0.750			
0.2841	18185.05	3.8070	3.8070	-0.9507	24.84	0.10	-0.750			
0.2870	18365.37	3.8040	3.8041	-0.9405	24.84	0.10	-0.750			
0.2897	18540.20	3.8010	3.8009	-0.9346	24.85	0.11	-0.750			
0.2925	18718.42	3.7980	3.7978	-0.9300	24.85	0.11	-0.750			
0.2953	18896.94	3.7950	3.7949	-0.9268	24.86	0.12	-0.750			
0.2981	19076.81	3.7920	3.7925	-0.9252	24.86	0.12	-0.750			
0.3008	19253.80	3.7890	3.7889	-0.9308	24.86	0.12	-0.750			
0.3037	19433.84	3.7860	3.7860	-0.9227	24.86	0.12	-0.750			
0.3064	19610.63	3.7830	3.7828	-0.8934	24.86	0.12	-0.750			
0.3091	19779.38	3.7800	3.7801	-0.9221	24.86	0.12	-0.750			
0.3118	19953.55	3.7770	3.7771	-0.9290	24.86	0.12	-0.750			
0.3146	20131.69	3.7740	3.7733	-0.9389	24.87	0.13	-0.750			
0.3174	20314.40	3.7710	3.7711	-0.9438	24.87	0.13	-0.750			
0.3203	20496.12	3.7680	3.7682	-0.9468	24.88	0.14	-0.750			
0.3232	20683.93	3.7650	3.7652	-0.9571	24.88	0.14	-0.750			
0.3261	20873.43	3.7620	3.7617	-0.9701	24.88	0.14	-0.750			
0.3289	21052.19	3.7590	3.7590	-0.9455	24.88	0.14	-0.750			
0.3318	21233.86	3.7560	3.7559	-0.9489	24.89	0.15	-0.750			
0.3347	21418.12	3.7530	3.7532	-0.9544	24.89	0.15	-0.750			
0.3375	21599.56	3.7500	3.7498	-0.9552	24.89	0.15	-0.750			
0.3403	21781.67	3.7470	3.7470	-0.9512	24.89	0.15	-0.750			
0.3432	21962.41	3.7440	3.7440	-0.9516	24.90	0.16	-0.750			
0.3459	22140.41	3.7410	3.7408	-0.9478	24.90	0.16	-0.750			
0.3489	22328.81	3.7380	3.7382	-0.9631	24.90	0.16	-0.750			
0.3517	22511.29	3.7350	3.7350	-0.9714	24.90	0.16	-0.750			
0.3547	22699.26	3.7320	3.7312	-0.9778	24.90	0.16	-0.750			
0.3576	22886.59	3.7290	3.7297	-0.9791	24.90	0.16	-0.750			
0.3606	23075.99	3.7260	3.7262	-1.0126	24.90	0.16	-0.750			
0.3637	23275.93	3.7230	3.7229	-1.0169	24.90	0.16	-0.750			
0.3668	23474.93	3.7200	3.7198	-1.0171	24.90	0.16	-0.750			
0.3698	23666.14	3.7170	3.7170	-1.0117	24.90	0.16	-0.750			
0.3728	23859.57	3.7140	3.7144	-1.0246	24.90	0.16	-0.750			
0.3759	24057.02	3.7110	3.7108	-1.0379	24.90	0.16	-0.750	0.406	0.507	
0.3790	24254.47	3.7080	3.7079	-1.0450	24.91	0.17	-0.750			
0.3822	24458.28	3.7050	3.7050	-1.0399	24.91	0.17	-0.750			
0.3854	24665.39	3.7020	3.7023	-1.0454	24.92	0.18	-0.750			
0.3885	24864.73	3.6990	3.6990	-1.0425	24.92	0.18	-0.750			
0.3916	25061.27	3.6960	3.6963	-1.0358	24.91	0.17	-0.750			
0.3946	25253.97	3.6930	3.6927	-1.0511	24.91	0.17	-0.750			
0.3976	25449.13	3.6900	3.6900	-1.1008	24.90	0.16	-0.750			
0.4011	25667.31	3.6870	3.6869	-1.1303	24.90	0.16	-0.750			
0.4046	25895.70	3.6840	3.6839	-1.1795	24.90	0.16	-0.750			
0.4082	26125.40	3.6810	3.6807	-1.2005	24.90	0.16	-0.750			
0.4118	26356.74	3.6780	3.6779	-1.2241	24.90	0.16	-0.750			
0.4156	26596.18	3.6750	3.6748	-1.2546	24.89	0.15	-0.750			
0.4193	26837.40	3.6720	3.6720	-1.2716	24.89	0.15	-0.750			
0.4232	27085.28	3.6690	3.6691	-1.3242	24.88	0.14	-0.750			
0.4271	27334.37	3.6660	3.6661	-1.3734	24.88	0.14	-0.750			
0.4312	27599.73	3.6630	3.6630	-1.4170	24.87	0.13	-0.750			
0.4356	27878.49	3.6600	3.6603	-1.4473	24.87	0.13	-0.750			
0.4400	28161.81	3.6570	3.6563	-1.4803	24.86	0.12	-0.750			
0.4446	28453.57	3.6540	3.6535	-1.4890	24.86	0.12	-0.750			
0.4490	28736.43	3.6510	3.6505	-1.5256	24.85	0.11	-0.750			
0.4536	29030.72	3.6480	3.6476	-1.5476	24.84	0.10	-0.750			
0.4582	29322.93	3.6450	3.6448	-1.5557	24.83	0.09	-0.750			
0.4629	29628.36	3.6420	3.6417	-1.5960	24.82	0.08	-0.750			
0.4679	29946.76	3.6390	3.6386	-1.6688	24.81	0.07	-0.750			
0.4731	30279.41	3.6360	3.6360	-1.7195	24.80	0.06	-0.750			
0.4784	30618.92	3.6330	3.6332	-1.7707	24.79	0.05	-0.750			
0.4838	30962.56	3.6300	3.6304	-1.7798	24.78	0.04	-0.750			
0.4892	31307.66	3.6270	3.6272	-1.8460	24.77	0.03	-0.750			
0.4948	31668.27	3.6240	3.6240	-1.8825	24.77	0.03	-0.750			
0.5004	32026.99	3.6210	3.6206	-1.9165	24.75	0.01	-0.750			
0.5063	32401.18	3.6180	3.6179	-1.9271	24.73	-0.01	-0.750			
0.5123	32786.59	3.6150	3.6144	-1.9962	24.72	-0.02	-0.750			
0.5184	33175.92	3.6120	3.6117	-1.9887	24.71	-0.03	-0.750			
0.5241	33544.65	3.6090	3.6088	-2.0491	24.70	-0.04	-0.750			
0.5303	33939.78	3.6060	3.6057	-2.0556	24.69	-0.05	-0.750			
0.5364	34331.37	3.6030	3.6030	-2.0902	24.68	-0.06	-0.750			
0.5429	34746.54	3.6000	3.5997	-2.1520	24.67	-0.07	-0.750			
0.5494	35163.55	3.5970	3.5972	-2.1945	24.66	-0.08	-0.750			
0.5563	35600.79	3.5940	3.5943	-2.2480	24.65	-0.09	-0.750			
0.5631	36038.64	3.5910	3.5906	-2.3161	24.64	-0.10	-0.750			
0.5697	36459.91	3.5880	3.5879	-2.3915	24.63	-0.11	-0.750			
0.5768	36913.58	3.5850	3.5849	-2.4393	24.62	-0.12	-0.750			
0.5845	37410.90	3.5820	3.5819	-2.5186	24.61	-0.13	-0.750			
0.5921	37894.87	3.5790	3.5790	-2.4642	24.60	-0.14	-0.750			
0.5998	38385.31	3.5760	3.5758	-2.4915	24.60	-0.14	-0.750			
0.6070	38849.12	3.5730	3.5725	-2.4570	24.59	-0.15	-0.750			
0.6139	39290.80	3.5700	3.5701	-2.4030	24.58	-0.16	-0.750			
0.6213	39761.03	3.5670	3.5669	-2.3958	24.57	-0.17	-0.750			
0.6286	40232.70	3.5640	3.5637	-2.4046	24.57	-0.17	-0.750			
0.6358	40693.48	3.5610	3.5613	-2.4441	24.56	-0.18	-0.750			
0.6431	41161.00	3.5580	3.5582	-2.4166	24.55	-0.19	-0.750			
0.6504	41624.97	3.5550	3.5549	-2.3748	24.55	-0.19	-0.750			
0.6576	42087.10	3.5520	3.5517	-2.3482	24.54	-0.20	-0.750			
0.6647	42540.25	3.5490	3.5491	-2.3482	24.54	-0.20	-0.750			
0.6717	42986.67	3.5460	3.5462	-2.3409	24.54	-0.20	-0.750			
0.6788	43445.13	3.5430	3.5433	-2.2931	24.55	-0.19	-0.750			
0.6857	43883.90	3.5400	3.5401	-2.2716	24.56	-0.18	-0.750			
0.6922	44298.27	3.5370	3.5373	-2.2032	24.56	-0.18	-0.750			
0.6988	44723.14	3.5340	3.5340	-2.1121	24.56	-0.18	-0.750			
0.7051	45128.66	3.5310	3.5309	-2.0815	24.57	-0.17	-0.750			
0.7112	45515.39	3.5280	3.5282	-2.0487	24.58	-0.16	-0.750			
0.7172	45902.11	3.5250	3.5250	-1.9886	24.59	-0.15	-0.750			
0.7232	46286.86	3.5220	3.5219	-1.9571	24.59	-0.15	-0.750			
0.7290	46656.63	3.5190	3.5194	-1.9329	24.60	-0.14	-0.750			
0.7347	47018.25	3.5160	3.5162	-1.8267	24.62	-0.12	-0.750			
0.7401	47367.80	3.5130	3.5129	-1.7538	24.63	-0.11	-0.750			
0.7453	47698.25	3.5100	3.5100	-1.6630	24.64	-0.10	-0.750			
0.7499	47993.96	3.5070	3.5069	-1.3651	24.64	-0.10	-0.750			
