Ah_balance (normalized)	Ah_balance (mAh)	Voltage - fit (V)	Voltage -  interpolate (V)	dQ/dV (1/V)	Temperature (°C)	Temperature - diff (°C)	Current (C)	R_DC 0ms (mOhm)	R_DC 50ms (mOhm)	R_DC 50 ms PEC (mOhm)
0.0003	18.59	4.1600	4.1602	-0.1247	24.97	0.01	-0.750			
0.0008	48.54	4.1570	4.1569	-0.1741	24.96	0.00	-0.750			
0.0014	86.96	4.1540	4.1539	-0.2129	24.96	0.00	-0.750			
0.0021	131.23	4.1510	4.1508	-0.2492	24.96	0.00	-0.750			
0.0029	182.47	4.1480	4.1481	-0.2861	24.96	-0.00	-0.750			
0.0038	241.13	4.1450	4.1450	-0.3241	24.96	-0.00	-0.750			
0.0048	306.62	4.1420	4.1419	-0.3628	24.95	-0.01	-0.750			
0.0059	380.11	4.1390	4.1390	-0.3973	24.95	-0.01	-0.750			
0.0072	459.45	4.1360	4.1360	-0.4335	24.95	-0.01	-0.750			
0.0086	547.92	4.1330	4.1330	-0.4688	24.95	-0.01	-0.750			
0.0100	642.58	4.1300	4.1300	-0.4934	24.94	-0.02	-0.750			
0.0116	741.05	4.1270	4.1269	-0.5191	24.94	-0.02	-0.750			
0.0132	843.76	4.1240	4.1241	-0.5392	24.93	-0.03	-0.750			
0.0148	948.89	4.1210	4.1212	-0.5606	24.93	-0.03	-0.750			
0.0165	1058.57	4.1180	4.1179	-0.5804	24.93	-0.03	-0.750			
0.0183	1170.94	4.1150	4.1151	-0.5977	24.92	-0.04	-0.750			
0.0201	1286.90	4.1120	4.1120	-0.6207	24.92	-0.04	-0.750			
0.0221	1412.41	4.1090	4.1088	-0.6359	24.91	-0.05	-0.750			
0.0240	1535.37	4.1060	4.1060	-0.6432	24.91	-0.05	-0.750			
0.0259	1660.07	4.1030	4.1029	-0.6522	24.90	-0.06	-0.750			
0.0279	1786.32	4.1000	4.1003	-0.6595	24.90	-0.06	-0.750			
0.0299	1913.93	4.0970	4.0968	-0.6686	24.90	-0.06	-0.750			
0.0319	2041.26	4.0940	4.0939	-0.6749	24.89	-0.07	-0.750			
0.0340	2173.50	4.0910	4.0910	-0.6812	24.89	-0.07	-0.750			
0.0361	2308.19	4.0880	4.0880	-0.6915	24.89	-0.07	-0.750			
0.0382	2442.53	4.0850	4.0849	-0.6947	24.88	-0.08	-0.750			
0.0402	2575.29	4.0820	4.0823	-0.7006	24.88	-0.08	-0.750			
0.0423	2709.00	4.0790	4.0788	-0.7033	24.88	-0.08	-0.750			
0.0444	2843.92	4.0760	4.0759	-0.7069	24.88	-0.08	-0.750			
0.0465	2978.29	4.0730	4.0731	-0.7065	24.87	-0.09	-0.750			
0.0487	3118.62	4.0700	4.0700	-0.7211	24.87	-0.09	-0.750			
0.0509	3257.54	4.0670	4.0670	-0.7223	24.87	-0.09	-0.750			
0.0531	3396.17	4.0640	4.0640	-0.7218	24.87	-0.09	-0.750			
0.0552	3534.89	4.0610	4.0610	-0.7206	24.87	-0.09	-0.750			
0.0574	3674.07	4.0580	4.0580	-0.7355	24.87	-0.09	-0.750			
0.0596	3816.68	4.0550	4.0550	-0.7398	24.87	-0.09	-0.750			
0.0619	3960.81	4.0520	4.0517	-0.7386	24.87	-0.09	-0.750			
0.0641	4103.14	4.0490	4.0490	-0.7411	24.87	-0.09	-0.750			
0.0663	4245.39	4.0460	4.0458	-0.7414	24.87	-0.09	-0.750			
0.0686	4387.36	4.0430	4.0430	-0.7425	24.87	-0.09	-0.750			
0.0707	4527.44	4.0400	4.0399	-0.7484	24.87	-0.09	-0.750			
0.0730	4674.21	4.0370	4.0370	-0.7549	24.87	-0.09	-0.750			
0.0753	4818.38	4.0340	4.0339	-0.7525	24.87	-0.09	-0.750			
0.0775	4962.98	4.0310	4.0313	-0.7543	24.87	-0.09	-0.750			
0.0798	5107.68	4.0280	4.0278	-0.7517	24.87	-0.09	-0.750			
0.0821	5251.59	4.0250	4.0250	-0.7567	24.87	-0.09	-0.750			
0.0843	5395.73	4.0220	4.0220	-0.7564	24.88	-0.08	-0.750			
0.0866	5543.84	4.0190	4.0190	-0.7605	24.88	-0.08	-0.750			
0.0889	5690.93	4.0160	4.0159	-0.7609	24.88	-0.08	-0.750			
0.0912	5835.13	4.0130	4.0130	-0.7624	24.88	-0.08	-0.750			
0.0934	5980.13	4.0100	4.0100	-0.7704	24.88	-0.08	-0.750			
0.0958	6129.71	4.0070	4.0070	-0.7663	24.88	-0.08	-0.750			
0.0981	6275.26	4.0040	4.0040	-0.7662	24.88	-0.08	-0.750			
0.1004	6425.35	4.0010	4.0009	-0.7710	24.88	-0.08	-0.750			
0.1027	6574.04	3.9980	3.9984	-0.7736	24.88	-0.08	-0.750			
0.1050	6721.29	3.9950	3.9949	-0.7747	24.88	-0.08	-0.750			
0.1073	6868.27	3.9920	3.9920	-0.7787	24.88	-0.08	-0.750			
0.1097	7019.64	3.9890	3.9889	-0.7797	24.89	-0.07	-0.750			
0.1121	7173.46	3.9860	3.9860	-0.7851	24.89	-0.07	-0.750			
0.1144	7323.77	3.9830	3.9831	-0.7796	24.89	-0.07	-0.750			
0.1168	7472.71	3.9800	3.9799	-0.7814	24.89	-0.07	-0.750			
0.1191	7619.58	3.9770	3.9769	-0.7800	24.89	-0.07	-0.750			
0.1214	7769.08	3.9740	3.9740	-0.7809	24.88	-0.08	-0.750			
0.1237	7916.46	3.9710	3.9711	-0.7935	24.88	-0.08	-0.750			
0.1262	8077.20	3.9680	3.9680	-0.7965	24.88	-0.08	-0.750			
0.1286	8230.22	3.9650	3.9649	-0.7930	24.88	-0.08	-0.750			
0.1309	8379.89	3.9620	3.9621	-0.8086	24.89	-0.07	-0.750			
0.1334	8537.73	3.9590	3.9592	-0.8020	24.89	-0.07	-0.750			
0.1358	8692.06	3.9560	3.9556	-0.7986	24.89	-0.07	-0.750			
0.1382	8845.25	3.9530	3.9529	-0.8001	24.90	-0.06	-0.750			
0.1406	8996.30	3.9500	3.9500	-0.7952	24.90	-0.06	-0.750			
0.1430	9151.41	3.9470	3.9469	-0.8018	24.90	-0.06	-0.750			
0.1454	9303.01	3.9440	3.9440	-0.7966	24.90	-0.06	-0.750			
0.1477	9452.77	3.9410	3.9411	-0.7898	24.90	-0.06	-0.750			
0.1502	9611.68	3.9380	3.9378	-0.8074	24.90	-0.06	-0.750			
0.1526	9765.26	3.9350	3.9354	-0.8111	24.90	-0.06	-0.750			
0.1550	9920.76	3.9320	3.9320	-0.8143	24.90	-0.06	-0.750			
0.1575	10079.46	3.9290	3.9289	-0.8157	24.91	-0.05	-0.750			
0.1600	10237.11	3.9260	3.9260	-0.8162	24.91	-0.05	-0.750			
0.1624	10393.49	3.9230	3.9231	-0.8157	24.92	-0.04	-0.750			
0.1648	10550.28	3.9200	3.9200	-0.8133	24.92	-0.04	-0.750			
0.1673	10704.71	3.9170	3.9170	-0.8124	24.92	-0.04	-0.750			
0.1697	10860.39	3.9140	3.9141	-0.8252	24.92	-0.04	-0.750			
0.1722	11022.40	3.9110	3.9108	-0.8208	24.92	-0.04	-0.750			
0.1747	11180.63	3.9080	3.9078	-0.8197	24.92	-0.04	-0.750			
0.1772	11338.54	3.9050	3.9057	-0.8168	24.92	-0.04	-0.750			
0.1796	11494.52	3.9020	3.9018	-0.8145	24.92	-0.04	-0.750			
0.1820	11649.55	3.8990	3.8989	-0.8185	24.93	-0.03	-0.750			
0.1845	11805.15	3.8960	3.8959	-0.8186	24.93	-0.03	-0.750			
0.1870	11964.85	3.8930	3.8930	-0.8267	24.94	-0.02	-0.750			
0.1894	12124.58	3.8900	3.8902	-0.8235	24.94	-0.02	-0.750			
0.1919	12282.05	3.8870	3.8869	-0.8207	24.94	-0.02	-0.750			
0.1944	12439.29	3.8840	3.8840	-0.8192	24.95	-0.01	-0.750			
0.1968	12593.82	3.8810	3.8810	-0.8102	24.95	-0.01	-0.750			
0.1992	12748.65	3.8780	3.8780	-0.8080	24.95	-0.01	-0.750			
0.2017	12906.87	3.8750	3.8750	-0.8087	24.96	-0.00	-0.750			
0.2041	13061.32	3.8720	3.8720	-0.8078	24.96	0.00	-0.750			
0.2065	13217.13	3.8690	3.8690	-0.8173	24.96	0.00	-0.750			
0.2090	13375.88	3.8660	3.8659	-0.8115	24.96	0.00	-0.750			
0.2114	13532.44	3.8630	3.8628	-0.8052	24.96	0.00	-0.750			
0.2139	13688.15	3.8600	3.8600	-0.8045	24.96	0.00	-0.750			
0.2163	13841.42	3.8570	3.8567	-0.7966	24.96	0.00	-0.750			
0.2186	13992.88	3.8540	3.8539	-0.7892	24.96	0.00	-0.750			
0.2210	14142.34	3.8510	3.8510	-0.7850	24.96	0.00	-0.750			
0.2233	14291.20	3.8480	3.8481	-0.7780	24.97	0.01	-0.750			
0.2257	14447.18	3.8450	3.8449	-0.7886	24.97	0.01	-0.750			
0.2281	14596.96	3.8420	3.8421	-0.7817	24.97	0.01	-0.750			
0.2304	14744.00	3.8390	3.8390	-0.7784	24.97	0.01	-0.750			
0.2327	14893.68	3.8360	3.8359	-0.7787	24.97	0.01	-0.750			
0.2350	15042.11	3.8330	3.8331	-0.7706	24.98	0.02	-0.750			
0.2374	15194.18	3.8300	3.8299	-0.7779	24.98	0.02	-0.750			
0.2397	15343.04	3.8270	3.8271	-0.7740	24.98	0.02	-0.750			
0.2420	15489.83	3.8240	3.8240	-0.7688	24.98	0.02	-0.750			
0.2443	15636.61	3.8210	3.8210	-0.7714	24.99	0.03	-0.750			
0.2467	15786.19	3.8180	3.8178	-0.7656	24.99	0.03	-0.750			
0.2490	15933.33	3.8150	3.8150	-0.7643	24.99	0.03	-0.750			
0.2513	16080.72	3.8120	3.8120	-0.7565	25.00	0.04	-0.750			
0.2535	16225.24	3.8090	3.8089	-0.7538	25.00	0.04	-0.750			
0.2558	16368.65	3.8060	3.8059	-0.7491	25.00	0.04	-0.750			
0.2579	16507.40	3.8030	3.8030	-0.7492	25.00	0.04	-0.750			
0.2602	16652.37	3.8000	3.8000	-0.7521	25.01	0.05	-0.750			
0.2625	16801.06	3.7970	3.7969	-0.7646	25.01	0.05	-0.750			
0.2648	16948.28	3.7940	3.7943	-0.7618	25.01	0.05	-0.750			
0.2671	17096.65	3.7910	3.7910	-0.7650	25.01	0.05	-0.750			
0.2694	17241.35	3.7880	3.7879	-0.7661	25.01	0.05	-0.750			
0.2717	17387.20	3.7850	3.7851	-0.7655	25.02	0.06	-0.750			
0.2740	17533.62	3.7820	3.7819	-0.7739	25.02	0.06	-0.750			
0.2763	17683.66	3.7790	3.7790	-0.7772	25.02	0.06	-0.750			
0.2787	17833.63	3.7760	3.7759	-0.7824	25.02	0.06	-0.750			
0.2810	17981.72	3.7730	3.7731	-0.8069	25.02	0.06	-0.750			
0.2835	18143.50	3.7700	3.7699	-0.7980	25.02	0.06	-0.750			
0.2859	18297.65	3.7670	3.7668	-0.7895	25.02	0.06	-0.750			
0.2883	18449.23	3.7640	3.7639	-0.7913	25.02	0.06	-0.750			
0.2906	18599.03	3.7610	3.7608	-0.7907	25.02	0.06	-0.750			
0.2929	18748.57	3.7580	3.7577	-0.8024	25.02	0.06	-0.750			
0.2953	18899.31	3.7550	3.7550	-0.8022	25.02	0.06	-0.750			
0.2977	19051.32	3.7520	3.7521	-0.8102	25.01	0.05	-0.750			
0.3003	19217.26	3.7490	3.7489	-0.8366	25.01	0.05	-0.750			
0.3028	19378.90	3.7460	3.7464	-0.8462	25.01	0.05	-0.750			
0.3053	19541.96	3.7430	3.7429	-0.8456	25.01	0.05	-0.750			
0.3079	19705.33	3.7400	3.7399	-0.8600	25.01	0.05	-0.750			
0.3105	19871.60	3.7370	3.7370	-0.8694	25.00	0.04	-0.750			
0.3131	20040.79	3.7340	3.7338	-0.8795	25.00	0.04	-0.750			
0.3158	20211.04	3.7310	3.7311	-0.8863	25.00	0.04	-0.750			
0.3185	20383.10	3.7280	3.7279	-0.9070	25.00	0.04	-0.750			
0.3212	20559.11	3.7250	3.7249	-0.9070	25.00	0.04	-0.750			
0.3239	20732.29	3.7220	3.7218	-0.9092	25.00	0.04	-0.750			
0.3267	20910.87	3.7190	3.7197	-0.9268	25.00	0.04	-0.750			
0.3295	21087.00	3.7160	3.7158	-0.9397	25.00	0.04	-0.750			
0.3323	21269.30	3.7130	3.7129	-0.9453	24.99	0.03	-0.750			
0.3351	21448.39	3.7100	3.7100	-0.9489	24.99	0.03	-0.750			
0.3381	21639.19	3.7070	3.7069	-0.9930	24.98	0.02	-0.750			
0.3411	21829.92	3.7040	3.7040	-1.0018	24.98	0.02	-0.750			
0.3441	22023.02	3.7010	3.7007	-1.0081	24.97	0.01	-0.750			
0.3471	22217.39	3.6980	3.6978	-1.0198	24.97	0.01	-0.750	0.369	0.525	
0.3502	22412.65	3.6950	3.6948	-1.0290	24.96	0.00	-0.750			
0.3533	22611.56	3.6920	3.6921	-1.0573	24.96	-0.00	-0.750			
0.3565	22814.11	3.6890	3.6890	-1.0603	24.95	-0.01	-0.750			
0.3596	23017.43	3.6860	3.6861	-1.0665	24.95	-0.01	-0.750			
0.3630	23230.92	3.6830	3.6829	-1.0903	24.94	-0.02	-0.750			
0.3663	23441.48	3.6800	3.6799	-1.1197	24.94	-0.02	-0.750			
0.3696	23657.34	3.6770	3.6768	-1.1306	24.93	-0.03	-0.750			
0.3731	23875.68	3.6740	3.6739	-1.1468	24.93	-0.03	-0.750			
0.3765	24096.84	3.6710	3.6713	-1.1591	24.92	-0.04	-0.750			
0.3801	24325.44	3.6680	3.6679	-1.1901	24.92	-0.04	-0.750			
0.3837	24556.50	3.6650	3.6648	-1.2044	24.91	-0.05	-0.750			
0.3873	24787.73	3.6620	3.6619	-1.2083	24.90	-0.06	-0.750			
0.3910	25022.13	3.6590	3.6591	-1.2510	24.90	-0.06	-0.750			
0.3949	25274.00	3.6560	3.6558	-1.2775	24.89	-0.07	-0.750			
0.3987	25518.17	3.6530	3.6526	-1.2999	24.89	-0.07	-0.750			
0.4026	25769.06	3.6500	3.6508	-1.3091	24.88	-0.08	-0.750			
0.4067	26026.39	3.6470	3.6468	-1.3274	24.87	-0.09	-0.750			
0.4106	26281.34	3.6440	3.6439	-1.3339	24.87	-0.09	-0.750			
0.4145	26524.97	3.6410	3.6411	-1.3424	24.86	-0.10	-0.750			
0.4187	26793.69	3.6380	3.6379	-1.4122	24.85	-0.11	-0.750			
0.4229	27064.40	3.6350	3.6349	-1.4606	24.85	-0.11	-0.750			
0.4273	27349.86	3.6320	3.6323	-1.4897	24.84	-0.12	-0.750			
0.4321	27652.28	3.6290	3.6285	-1.5138	24.83	-0.13	-0.750			
0.4367	27945.97	3.6260	3.6260	-1.5333	24.83	-0.13	-0.750			
0.4412	28239.17	3.6230	3.6226	-1.5541	24.82	-0.14	-0.750			
0.4458	28533.42	3.6200	3.6199	-1.5818	24.81	-0.15	-0.750			
0.4505	28835.13	3.6170	3.6169	-1.5764	24.80	-0.16	-0.750			
0.4554	29143.69	3.6140	3.6138	-1.6160	24.80	-0.16	-0.750			
0.4604	29467.00	3.6110	3.6107	-1.6856	24.79	-0.17	-0.750			
0.4657	29802.82	3.6080	3.6078	-1.7313	24.78	-0.18	-0.750			
0.4708	30132.84	3.6050	3.6052	-1.7567	24.78	-0.18	-0.750			
0.4761	30472.62	3.6020	3.6026	-1.7756	24.77	-0.19	-0.750			
0.4815	30818.64	3.5990	3.5989	-1.8112	24.77	-0.19	-0.750			
0.4871	31174.21	3.5960	3.5962	-1.8130	24.76	-0.20	-0.750			
0.4925	31519.46	3.5930	3.5925	-1.8380	24.76	-0.20	-0.750			
0.4982	31885.31	3.5900	3.5896	-1.8739	24.76	-0.20	-0.750			
0.5037	32239.94	3.5870	3.5867	-1.8669	24.76	-0.20	-0.750			
0.5095	32606.98	3.5840	3.5841	-1.9324	24.75	-0.21	-0.750			
0.5152	32972.62	3.5810	3.5816	-1.9516	24.74	-0.22	-0.750			
0.5212	33357.33	3.5780	3.5783	-2.0170	24.73	-0.23	-0.750			
0.5273	33745.95	3.5750	3.5753	-2.0382	24.72	-0.24	-0.750			
0.5338	34163.13	3.5720	3.5720	-2.1032	24.72	-0.24	-0.750			
0.5399	34552.04	3.5690	3.5688	-2.0716	24.72	-0.24	-0.750			
0.5463	34962.37	3.5660	3.5660	-2.0946	24.72	-0.24	-0.750			
0.5524	35353.79	3.5630	3.5636	-2.0694	24.72	-0.24	-0.750			
0.5587	35754.30	3.5600	3.5600	-2.0656	24.72	-0.24	-0.750			
0.5650	36159.95	3.5570	3.5571	-2.0653	24.72	-0.24	-0.750			
0.5710	36541.78	3.5540	3.5542	-2.0745	24.72	-0.24	-0.750			
0.5774	36954.48	3.5510	3.5508	-1.9969	24.72	-0.24	-0.750			
0.5835	37342.06	3.5480	3.5477	-1.9587	24.73	-0.23	-0.750			
0.5893	37712.15	3.5450	3.5454	-1.9496	24.74	-0.22	-0.750			
0.5949	38075.25	3.5420	3.5418	-1.8870	24.74	-0.22	-0.750			
0.6005	38433.69	3.5390	3.5385	-1.9045	24.75	-0.21	-0.750			
0.6061	38787.52	3.5360	3.5362	-1.9538	24.76	-0.20	-0.750			
0.6119	39158.93	3.5330	3.5333	-1.9134	24.77	-0.19	-0.750			
0.6179	39542.93	3.5300	3.5307	-1.9266	24.78	-0.18	-0.750			
0.6237	39918.14	3.5270	3.5271	-1.8692	24.79	-0.17	-0.750			
0.6293	40278.02	3.5240	3.5237	-1.8397	24.80	-0.16	-0.750			
0.6346	40616.61	3.5210	3.5208	-1.7854	24.81	-0.15	-0.750			
0.6399	40952.99	3.5180	3.5180	-1.7502	24.82	-0.14	-0.750			
0.6451	41284.99	3.5150	3.5152	-1.7352	24.84	-0.12	-0.750			
0.6502	41611.30	3.5120	3.5123	-1.6863	24.85	-0.11	-0.750			
0.6553	41941.60	3.5090	3.5086	-1.6446	24.87	-0.09	-0.750			
0.6603	42262.34	3.5060	3.5056	-1.5847	24.89	-0.07	-0.750			
0.6649	42554.70	3.5030	3.5036	-1.5241	24.90	-0.06	-0.750			
0.6695	42846.57	3.5000	3.5000	-1.4825	24.91	-0.05	-0.750			
0.6737	43116.52	3.4970	3.4968	-1.4132	24.92	-0.04	-0.750			
0.6778	43379.54	3.4940	3.4943	-1.3656	24.93	-0.03	-0.750			
0.6820	43651.05	3.4910	3.4909	-1.3464	24.95	-0.01	-0.750			
0.6860	43901.56	3.4880	3.4880	-1.2947	24.96	0.00	-0.750			
0.6898	44148.84	3.4850	3.4854	-1.2243	24.98	0.02	-0.750			
0.6934	44376.11	3.4820	3.4819	-1.1118	24.99	0.03	-0.750			
