Ah_balance (normalized)	Ah_balance (mAh)	Voltage - fit (V)	Voltage -  interpolate (V)	dQ/dV (1/V)	Temperature (°C)	Temperature - diff (°C)	Current (C)	R_DC 0ms (mOhm)	R_DC 50ms (mOhm)	R_DC 50 ms PEC (mOhm)
0.0003	20.44	4.1620	4.1618	-0.1169	24.91	0.03	-0.750			
0.0008	48.01	4.1590	4.1589	-0.1672	24.91	0.03	-0.750			
0.0013	85.32	4.1560	4.1560	-0.2135	24.90	0.02	-0.750			
0.0021	131.55	4.1530	4.1531	-0.2564	24.90	0.02	-0.750			
0.0029	184.99	4.1500	4.1500	-0.2973	24.90	0.02	-0.750			
0.0039	247.15	4.1470	4.1469	-0.3392	24.90	0.02	-0.750			
0.0049	316.49	4.1440	4.1441	-0.3773	24.90	0.02	-0.750			
0.0061	392.05	4.1410	4.1409	-0.4165	24.89	0.01	-0.750			
0.0075	476.81	4.1380	4.1381	-0.4503	24.89	0.01	-0.750			
0.0089	568.09	4.1350	4.1350	-0.4799	24.89	0.01	-0.750			
0.0104	663.75	4.1320	4.1320	-0.5152	24.88	0.00	-0.750			
0.0120	766.07	4.1290	4.1291	-0.5406	24.88	-0.00	-0.750			
0.0136	872.95	4.1260	4.1259	-0.5622	24.87	-0.01	-0.750			
0.0154	983.26	4.1230	4.1231	-0.5830	24.87	-0.01	-0.750			
0.0172	1097.78	4.1200	4.1201	-0.6059	24.87	-0.01	-0.750			
0.0190	1218.53	4.1170	4.1168	-0.6234	24.86	-0.02	-0.750			
0.0209	1340.64	4.1140	4.1139	-0.6384	24.86	-0.02	-0.750			
0.0229	1463.50	4.1110	4.1110	-0.6461	24.85	-0.03	-0.750			
0.0249	1591.02	4.1080	4.1078	-0.6593	24.85	-0.03	-0.750			
0.0268	1718.00	4.1050	4.1049	-0.6705	24.85	-0.03	-0.750			
0.0288	1845.92	4.1020	4.1021	-0.6798	24.84	-0.04	-0.750			
0.0309	1977.07	4.0990	4.0989	-0.6857	24.84	-0.04	-0.750			
0.0330	2114.61	4.0960	4.0960	-0.7005	24.84	-0.04	-0.750			
0.0351	2249.33	4.0930	4.0929	-0.7023	24.83	-0.05	-0.750			
0.0373	2384.90	4.0900	4.0898	-0.7081	24.83	-0.05	-0.750			
0.0394	2519.95	4.0870	4.0870	-0.7110	24.83	-0.05	-0.750			
0.0415	2655.60	4.0840	4.0840	-0.7167	24.83	-0.05	-0.750			
0.0437	2793.67	4.0810	4.0810	-0.7167	24.82	-0.06	-0.750			
0.0459	2934.44	4.0780	4.0779	-0.7267	24.82	-0.06	-0.750			
0.0480	3073.59	4.0750	4.0750	-0.7282	24.82	-0.06	-0.750			
0.0502	3213.70	4.0720	4.0720	-0.7294	24.82	-0.06	-0.750			
0.0524	3352.39	4.0690	4.0689	-0.7344	24.82	-0.06	-0.750			
0.0546	3493.85	4.0660	4.0661	-0.7406	24.82	-0.06	-0.750			
0.0569	3639.04	4.0630	4.0628	-0.7394	24.82	-0.06	-0.750			
0.0591	3783.67	4.0600	4.0600	-0.7474	24.82	-0.06	-0.750			
0.0613	3925.82	4.0570	4.0575	-0.7448	24.82	-0.06	-0.750			
0.0636	4068.67	4.0540	4.0538	-0.7466	24.82	-0.06	-0.750			
0.0658	4211.61	4.0510	4.0509	-0.7633	24.82	-0.06	-0.750			
0.0680	4355.05	4.0480	4.0480	-0.7670	24.82	-0.06	-0.750			
0.0705	4510.73	4.0450	4.0447	-0.7756	24.82	-0.06	-0.750			
0.0728	4660.39	4.0420	4.0416	-0.7673	24.82	-0.06	-0.750			
0.0751	4807.41	4.0390	4.0390	-0.7607	24.82	-0.06	-0.750			
0.0774	4952.25	4.0360	4.0359	-0.7566	24.82	-0.06	-0.750			
0.0796	5091.26	4.0330	4.0330	-0.7550	24.82	-0.06	-0.750			
0.0818	5238.37	4.0300	4.0299	-0.7717	24.82	-0.06	-0.750			
0.0841	5385.06	4.0270	4.0269	-0.7707	24.82	-0.06	-0.750			
0.0865	5535.83	4.0240	4.0241	-0.7723	24.82	-0.06	-0.750			
0.0888	5685.69	4.0210	4.0211	-0.7763	24.82	-0.06	-0.750			
0.0912	5834.89	4.0180	4.0180	-0.7831	24.82	-0.06	-0.750			
0.0935	5984.81	4.0150	4.0149	-0.7795	24.82	-0.06	-0.750			
0.0959	6134.52	4.0120	4.0119	-0.7809	24.82	-0.06	-0.750			
0.0982	6284.83	4.0090	4.0094	-0.7803	24.82	-0.06	-0.750			
0.1006	6435.96	4.0060	4.0058	-0.7852	24.82	-0.06	-0.750			
0.1029	6586.26	4.0030	4.0029	-0.7915	24.82	-0.06	-0.750			
0.1053	6736.00	4.0000	4.0000	-0.7866	24.83	-0.05	-0.750			
0.1076	6887.56	3.9970	3.9969	-0.7865	24.83	-0.05	-0.750			
0.1101	7044.45	3.9940	3.9939	-0.7914	24.83	-0.05	-0.750			
0.1124	7195.90	3.9910	3.9908	-0.7853	24.83	-0.05	-0.750			
0.1148	7346.28	3.9880	3.9880	-0.7825	24.83	-0.05	-0.750			
0.1171	7495.67	3.9850	3.9850	-0.7860	24.83	-0.05	-0.750			
0.1194	7643.65	3.9820	3.9819	-0.7837	24.84	-0.04	-0.750			
0.1219	7798.41	3.9790	3.9788	-0.7881	24.84	-0.04	-0.750			
0.1242	7949.30	3.9760	3.9763	-0.7897	24.84	-0.04	-0.750			
0.1266	8102.50	3.9730	3.9729	-0.7927	24.84	-0.04	-0.750			
0.1290	8254.08	3.9700	3.9699	-0.7978	24.84	-0.04	-0.750			
0.1313	8404.28	3.9670	3.9671	-0.7920	24.84	-0.04	-0.750			
0.1338	8561.50	3.9640	3.9639	-0.8060	24.84	-0.04	-0.750			
0.1362	8716.55	3.9610	3.9612	-0.8069	24.84	-0.04	-0.750			
0.1386	8871.71	3.9580	3.9580	-0.8111	24.84	-0.04	-0.750			
0.1410	9026.64	3.9550	3.9550	-0.8204	24.84	-0.04	-0.750			
0.1435	9186.96	3.9520	3.9519	-0.8133	24.85	-0.03	-0.750			
0.1460	9343.71	3.9490	3.9489	-0.8218	24.85	-0.03	-0.750			
0.1484	9500.26	3.9460	3.9459	-0.8235	24.85	-0.03	-0.750			
0.1509	9659.22	3.9430	3.9428	-0.8225	24.85	-0.03	-0.750			
0.1534	9816.50	3.9400	3.9399	-0.8264	24.85	-0.03	-0.750			
0.1558	9973.20	3.9370	3.9371	-0.8241	24.86	-0.02	-0.750			
0.1584	10135.12	3.9340	3.9340	-0.8396	24.86	-0.02	-0.750			
0.1609	10297.14	3.9310	3.9309	-0.8376	24.86	-0.02	-0.750			
0.1634	10455.08	3.9280	3.9279	-0.8349	24.86	-0.02	-0.750			
0.1659	10617.61	3.9250	3.9251	-0.8439	24.86	-0.02	-0.750			
0.1685	10782.19	3.9220	3.9219	-0.8438	24.86	-0.02	-0.750			
0.1710	10943.83	3.9190	3.9189	-0.8372	24.86	-0.02	-0.750			
0.1735	11105.20	3.9160	3.9164	-0.8402	24.86	-0.02	-0.750			
0.1760	11264.67	3.9130	3.9129	-0.8377	24.86	-0.02	-0.750			
0.1786	11429.19	3.9100	3.9098	-0.8495	24.87	-0.01	-0.750			
0.1811	11592.06	3.9070	3.9068	-0.8480	24.87	-0.01	-0.750			
0.1837	11757.77	3.9040	3.9039	-0.8580	24.88	-0.00	-0.750			
0.1863	11921.58	3.9010	3.9020	-0.8536	24.88	0.00	-0.750			
0.1888	12085.90	3.8980	3.8978	-0.8547	24.88	0.00	-0.750			
0.1914	12248.19	3.8950	3.8949	-0.8547	24.88	0.00	-0.750			
0.1939	12408.74	3.8920	3.8920	-0.8324	24.89	0.01	-0.750			
0.1965	12576.99	3.8890	3.8890	-0.8513	24.89	0.01	-0.750			
0.1990	12737.47	3.8860	3.8864	-0.8513	24.89	0.01	-0.750			
0.2015	12899.18	3.8830	3.8827	-0.8462	24.89	0.01	-0.750			
0.2041	13061.93	3.8800	3.8799	-0.8551	24.89	0.01	-0.750			
0.2067	13225.61	3.8770	3.8770	-0.8518	24.90	0.02	-0.750			
0.2093	13394.48	3.8740	3.8739	-0.8624	24.90	0.02	-0.750			
0.2119	13560.60	3.8710	3.8712	-0.8597	24.90	0.02	-0.750			
0.2144	13720.99	3.8680	3.8680	-0.8683	24.91	0.03	-0.750			
0.2170	13889.83	3.8650	3.8648	-0.8605	24.91	0.03	-0.750			
0.2196	14055.32	3.8620	3.8619	-0.8491	24.91	0.03	-0.750			
0.2222	14220.55	3.8590	3.8588	-0.8513	24.92	0.04	-0.750			
0.2248	14384.45	3.8560	3.8558	-0.8434	24.92	0.04	-0.750			
0.2272	14543.39	3.8530	3.8528	-0.8468	24.93	0.05	-0.750			
0.2297	14703.83	3.8500	3.8500	-0.8437	24.93	0.05	-0.750			
0.2323	14865.03	3.8470	3.8469	-0.8531	24.93	0.05	-0.750			
0.2348	15029.67	3.8440	3.8439	-0.8537	24.94	0.06	-0.750			
0.2374	15194.18	3.8410	3.8408	-0.8520	24.94	0.06	-0.750			
0.2400	15357.73	3.8380	3.8380	-0.8549	24.95	0.07	-0.750			
0.2425	15521.90	3.8350	3.8350	-0.8535	24.95	0.07	-0.750			
0.2451	15685.01	3.8320	3.8319	-0.8442	24.95	0.07	-0.750			
0.2477	15850.27	3.8290	3.8288	-0.8431	24.96	0.08	-0.750			
0.2502	16010.76	3.8260	3.8259	-0.8366	24.96	0.08	-0.750			
0.2527	16170.80	3.8230	3.8230	-0.8388	24.96	0.08	-0.750			
0.2552	16331.08	3.8200	3.8199	-0.8322	24.97	0.09	-0.750			
0.2576	16489.29	3.8170	3.8168	-0.8220	24.97	0.09	-0.750			
0.2602	16650.98	3.8140	3.8140	-0.8235	24.97	0.09	-0.750			
0.2626	16808.46	3.8110	3.8108	-0.8218	24.97	0.09	-0.750			
0.2651	16966.03	3.8080	3.8080	-0.8160	24.97	0.09	-0.750			
0.2675	17120.69	3.8050	3.8049	-0.8027	24.98	0.10	-0.750			
0.2698	17269.11	3.8020	3.8021	-0.7925	24.98	0.10	-0.750			
0.2723	17427.79	3.7990	3.7991	-0.7987	24.98	0.10	-0.750			
0.2747	17580.16	3.7960	3.7959	-0.7930	24.98	0.10	-0.750			
0.2770	17729.19	3.7930	3.7930	-0.7987	24.99	0.11	-0.750			
0.2794	17883.10	3.7900	3.7901	-0.7963	24.99	0.11	-0.750			
0.2819	18039.93	3.7870	3.7868	-0.7874	24.99	0.11	-0.750			
0.2842	18190.54	3.7840	3.7839	-0.7852	25.00	0.12	-0.750			
0.2866	18339.28	3.7810	3.7814	-0.7786	25.00	0.12	-0.750			
0.2889	18487.68	3.7780	3.7778	-0.7777	25.00	0.12	-0.750			
0.2912	18634.83	3.7750	3.7750	-0.7822	25.01	0.13	-0.750			
0.2935	18786.46	3.7720	3.7720	-0.7737	25.01	0.13	-0.750			
0.2959	18935.29	3.7690	3.7690	-0.8051	25.02	0.14	-0.750			
0.2983	19089.09	3.7660	3.7658	-0.8316	25.02	0.14	-0.750			
0.3008	19248.13	3.7630	3.7628	-0.8431	25.02	0.14	-0.750			
0.3034	19415.12	3.7600	3.7597	-0.8626	25.02	0.14	-0.750			
0.3061	19587.59	3.7570	3.7572	-0.8639	25.03	0.15	-0.750			
0.3088	19760.48	3.7540	3.7541	-0.8684	25.03	0.15	-0.750			
0.3114	19926.70	3.7510	3.7512	-0.8546	25.03	0.15	-0.750			
0.3138	20081.86	3.7480	3.7479	-0.8217	25.03	0.15	-0.750			
0.3162	20237.49	3.7450	3.7451	-0.8332	25.03	0.15	-0.750			
0.3187	20395.47	3.7420	3.7419	-0.8377	25.04	0.16	-0.750			
0.3212	20557.96	3.7390	3.7388	-0.8505	25.04	0.16	-0.750			
0.3238	20722.87	3.7360	3.7365	-0.8603	25.04	0.16	-0.750			
0.3264	20888.87	3.7330	3.7329	-0.8794	25.04	0.16	-0.750			
0.3291	21059.50	3.7300	3.7300	-0.8878	25.04	0.16	-0.750			
0.3317	21228.93	3.7270	3.7269	-0.8945	25.04	0.16	-0.750			
0.3344	21403.55	3.7240	3.7239	-0.9102	25.04	0.16	-0.750			
0.3372	21579.83	3.7210	3.7212	-0.9198	25.04	0.16	-0.750			
0.3399	21756.41	3.7180	3.7179	-0.9436	25.04	0.16	-0.750			
0.3428	21940.44	3.7150	3.7150	-0.9542	25.04	0.16	-0.750			
0.3457	22122.07	3.7120	3.7119	-0.9674	25.04	0.16	-0.750			
0.3486	22312.40	3.7090	3.7094	-0.9989	25.04	0.16	-0.750			
0.3517	22508.15	3.7060	3.7059	-1.0181	25.04	0.16	-0.750			
0.3548	22707.80	3.7030	3.7027	-1.0268	25.04	0.16	-0.750			
0.3580	22911.07	3.7000	3.7001	-1.0185	25.03	0.15	-0.750	0.369	0.492	
0.3611	23108.08	3.6970	3.6972	-1.0207	25.03	0.15	-0.750			
0.3641	23301.69	3.6940	3.6940	-1.0338	25.03	0.15	-0.750			
0.3671	23491.47	3.6910	3.6911	-1.0358	25.02	0.14	-0.750			
0.3701	23688.26	3.6880	3.6878	-1.0627	25.02	0.14	-0.750			
0.3733	23892.62	3.6850	3.6850	-1.1133	25.01	0.13	-0.750			
0.3768	24116.82	3.6820	3.6819	-1.1404	25.01	0.13	-0.750			
0.3804	24344.50	3.6790	3.6789	-1.1628	25.00	0.12	-0.750			
0.3839	24571.40	3.6760	3.6759	-1.1802	24.99	0.11	-0.750			
0.3875	24801.66	3.6730	3.6731	-1.2193	24.99	0.11	-0.750			
0.3912	25037.20	3.6700	3.6697	-1.2291	24.99	0.11	-0.750			
0.3949	25271.70	3.6670	3.6669	-1.2397	24.98	0.10	-0.750			
0.3986	25511.19	3.6640	3.6645	-1.2677	24.98	0.10	-0.750			
0.4026	25766.44	3.6610	3.6608	-1.3100	24.97	0.09	-0.750			
0.4066	26023.20	3.6580	3.6578	-1.3264	24.97	0.09	-0.750			
0.4106	26276.17	3.6550	3.6557	-1.3447	24.96	0.08	-0.750			
0.4147	26538.59	3.6520	3.6522	-1.3690	24.95	0.07	-0.750			
0.4187	26799.74	3.6490	3.6488	-1.3960	24.95	0.07	-0.750			
0.4229	27065.86	3.6460	3.6460	-1.4171	24.94	0.06	-0.750			
0.4274	27350.71	3.6430	3.6428	-1.4682	24.93	0.05	-0.750			
0.4317	27629.85	3.6400	3.6397	-1.5202	24.93	0.05	-0.750			
0.4364	27930.90	3.6370	3.6373	-1.5154	24.92	0.04	-0.750			
0.4410	28222.45	3.6340	3.6345	-1.5307	24.91	0.03	-0.750			
0.4457	28525.32	3.6310	3.6312	-1.5552	24.90	0.02	-0.750			
0.4503	28817.58	3.6280	3.6279	-1.5615	24.90	0.02	-0.750			
0.4550	29117.91	3.6250	3.6250	-1.6263	24.89	0.01	-0.750			
0.4599	29433.93	3.6220	3.6219	-1.6569	24.88	0.00	-0.750			
0.4649	29754.34	3.6190	3.6189	-1.7072	24.87	-0.01	-0.750			
0.4701	30089.55	3.6160	3.6159	-1.7364	24.87	-0.01	-0.750			
0.4754	30423.99	3.6130	3.6128	-1.7546	24.86	-0.02	-0.750			
0.4809	30775.65	3.6100	3.6096	-1.8061	24.85	-0.03	-0.750			
0.4862	31116.52	3.6070	3.6076	-1.8123	24.85	-0.03	-0.750			
0.4917	31466.67	3.6040	3.6040	-1.8627	24.84	-0.04	-0.750			
0.4973	31828.77	3.6010	3.6014	-1.8967	24.82	-0.06	-0.750			
0.5031	32200.81	3.5980	3.5977	-1.9183	24.82	-0.06	-0.750			
0.5090	32574.46	3.5950	3.5951	-2.0027	24.82	-0.06	-0.750			
0.5152	32971.71	3.5920	3.5918	-2.0170	24.82	-0.06	-0.750			
0.5214	33368.31	3.5890	3.5889	-2.0765	24.81	-0.07	-0.750			
0.5275	33760.76	3.5860	3.5860	-2.0733	24.81	-0.07	-0.750			
0.5339	34167.28	3.5830	3.5830	-2.0950	24.80	-0.08	-0.750			
0.5402	34569.81	3.5800	3.5802	-2.1390	24.80	-0.08	-0.750			
0.5466	34984.01	3.5770	3.5768	-2.1572	24.80	-0.08	-0.750			
0.5533	35409.80	3.5740	3.5740	-2.1827	24.80	-0.08	-0.750			
0.5597	35823.15	3.5710	3.5708	-2.2295	24.80	-0.08	-0.750			
0.5665	36253.86	3.5680	3.5682	-2.2297	24.80	-0.08	-0.750			
0.5732	36685.70	3.5650	3.5651	-2.2324	24.80	-0.08	-0.750			
0.5799	37115.16	3.5620	3.5625	-2.2946	24.79	-0.09	-0.750			
0.5866	37542.58	3.5590	3.5591	-2.2213	24.78	-0.10	-0.750			
0.5932	37967.77	3.5560	3.5562	-2.1887	24.79	-0.09	-0.750			
0.5999	38391.31	3.5530	3.5531	-2.1716	24.80	-0.08	-0.750			
0.6066	38822.16	3.5500	3.5497	-2.1636	24.80	-0.08	-0.750			
0.6127	39214.96	3.5470	3.5473	-2.1155	24.80	-0.08	-0.750			
0.6193	39633.00	3.5440	3.5440	-2.0968	24.80	-0.08	-0.750			
0.6254	40024.55	3.5410	3.5409	-2.0638	24.80	-0.08	-0.750			
0.6316	40425.43	3.5380	3.5383	-2.0200	24.81	-0.07	-0.750			
0.6378	40816.35	3.5350	3.5349	-1.9815	24.82	-0.06	-0.750			
0.6437	41196.12	3.5320	3.5317	-1.9454	24.83	-0.05	-0.750			
0.6493	41554.91	3.5290	3.5291	-1.8820	24.84	-0.04	-0.750			
0.6550	41921.17	3.5260	3.5260	-1.8672	24.85	-0.03	-0.750			
0.6605	42271.65	3.5230	3.5230	-1.7932	24.86	-0.02	-0.750			
0.6658	42613.39	3.5200	3.5200	-1.7447	24.87	-0.01	-0.750			
0.6710	42945.89	3.5170	3.5169	-1.7112	24.89	0.01	-0.750			
0.6760	43266.41	3.5140	3.5139	-1.6084	24.91	0.03	-0.750			
0.6809	43576.94	3.5110	3.5109	-1.5391	24.92	0.04	-0.750			
0.6854	43862.52	3.5080	3.5082	-1.4793	24.94	0.06	-0.750			
0.6896	44134.04	3.5050	3.5047	-1.4134	24.95	0.07	-0.750			
0.6938	44402.68	3.5020	3.5020	-1.4173	24.96	0.08	-0.750			
0.6978	44661.43	3.4990	3.4986	-1.4006	24.98	0.10	-0.750			
0.7021	44932.77	3.4960	3.4957	-1.4039	24.99	0.11	-0.750			
0.7064	45211.95	3.4930	3.4934	-1.3961	25.00	0.12	-0.750			
0.7106	45479.76	3.4900	3.4898	-1.3407	25.02	0.14	-0.750			
0.7145	45726.03	3.4870	3.4870	-1.1790	25.03	0.15	-0.750			
