Ah_balance (normalized)	Ah_balance (mAh)	Voltage - fit (V)	Voltage -  interpolate (V)	dQ/dV (1/V)	Temperature (°C)	Temperature - diff (°C)	Current (C)	R_DC 0ms (mOhm)	R_DC 50ms (mOhm)	R_DC 50 ms PEC (mOhm)
0.0002	13.30	4.1650	4.1646	-0.1141	25.12	0.02	-0.750			
0.0006	37.17	4.1620	4.1620	-0.1480	25.12	0.02	-0.750			
0.0011	70.47	4.1590	4.1590	-0.1967	25.12	0.02	-0.750			
0.0018	113.56	4.1560	4.1561	-0.2428	25.12	0.02	-0.750			
0.0026	165.31	4.1530	4.1527	-0.2849	25.12	0.02	-0.750			
0.0035	224.12	4.1500	4.1502	-0.3291	25.11	0.01	-0.750			
0.0046	292.56	4.1470	4.1470	-0.3682	25.11	0.01	-0.750			
0.0057	367.37	4.1440	4.1440	-0.4080	25.11	0.01	-0.750			
0.0070	449.46	4.1410	4.1411	-0.4483	25.11	0.01	-0.750			
0.0084	539.80	4.1380	4.1380	-0.4810	25.11	0.01	-0.750			
0.0099	636.34	4.1350	4.1349	-0.5128	25.10	0.00	-0.750			
0.0116	740.06	4.1320	4.1320	-0.5403	25.10	0.00	-0.750			
0.0132	845.98	4.1290	4.1291	-0.5632	25.10	-0.00	-0.750			
0.0150	958.43	4.1260	4.1259	-0.5885	25.10	-0.00	-0.750			
0.0168	1072.83	4.1230	4.1230	-0.6040	25.09	-0.01	-0.750			
0.0186	1190.56	4.1200	4.1199	-0.6204	25.09	-0.01	-0.750			
0.0205	1313.19	4.1170	4.1170	-0.6338	25.09	-0.01	-0.750			
0.0225	1437.05	4.1140	4.1140	-0.6443	25.08	-0.02	-0.750			
0.0244	1562.58	4.1110	4.1110	-0.6471	25.08	-0.02	-0.750			
0.0263	1686.08	4.1080	4.1079	-0.6569	25.08	-0.02	-0.750			
0.0283	1811.53	4.1050	4.1050	-0.6693	25.07	-0.03	-0.750			
0.0303	1940.28	4.1020	4.1020	-0.6826	25.07	-0.03	-0.750			
0.0324	2072.46	4.0990	4.0990	-0.6980	25.07	-0.03	-0.750			
0.0346	2212.35	4.0960	4.0960	-0.7088	25.06	-0.04	-0.750			
0.0367	2349.59	4.0930	4.0930	-0.7160	25.06	-0.04	-0.750			
0.0389	2489.25	4.0900	4.0899	-0.7264	25.06	-0.04	-0.750			
0.0411	2627.64	4.0870	4.0869	-0.7250	25.06	-0.04	-0.750			
0.0432	2765.75	4.0840	4.0840	-0.7329	25.06	-0.04	-0.750			
0.0455	2908.82	4.0810	4.0810	-0.7310	25.06	-0.04	-0.750			
0.0477	3052.12	4.0780	4.0779	-0.7357	25.06	-0.04	-0.750			
0.0499	3193.54	4.0750	4.0755	-0.7379	25.06	-0.04	-0.750			
0.0521	3333.51	4.0720	4.0718	-0.7332	25.06	-0.04	-0.750			
0.0542	3470.92	4.0690	4.0690	-0.7453	25.06	-0.04	-0.750			
0.0565	3616.51	4.0660	4.0659	-0.7448	25.05	-0.05	-0.750			
0.0588	3761.55	4.0630	4.0629	-0.7549	25.05	-0.05	-0.750			
0.0611	3907.94	4.0600	4.0599	-0.7548	25.05	-0.05	-0.750			
0.0633	4052.43	4.0570	4.0570	-0.7568	25.05	-0.05	-0.750			
0.0656	4197.98	4.0540	4.0539	-0.7546	25.05	-0.05	-0.750			
0.0678	4340.77	4.0510	4.0510	-0.7585	25.05	-0.05	-0.750			
0.0701	4485.77	4.0480	4.0480	-0.7526	25.05	-0.05	-0.750			
0.0724	4635.06	4.0450	4.0450	-0.7662	25.05	-0.05	-0.750			
0.0747	4781.29	4.0420	4.0422	-0.7670	25.05	-0.05	-0.750			
0.0770	4929.03	4.0390	4.0389	-0.7667	25.05	-0.05	-0.750			
0.0793	5074.23	4.0360	4.0360	-0.7696	25.05	-0.05	-0.750			
0.0816	5223.50	4.0330	4.0331	-0.7724	25.05	-0.05	-0.750			
0.0840	5373.18	4.0300	4.0298	-0.7762	25.05	-0.05	-0.750			
0.0863	5522.55	4.0270	4.0270	-0.7752	25.05	-0.05	-0.750			
0.0886	5670.53	4.0240	4.0241	-0.7760	25.05	-0.05	-0.750			
0.0909	5817.29	4.0210	4.0210	-0.7825	25.05	-0.05	-0.750			
0.0933	5970.75	4.0180	4.0179	-0.7817	25.05	-0.05	-0.750			
0.0956	6118.58	4.0150	4.0150	-0.7821	25.06	-0.04	-0.750			
0.0980	6270.97	4.0120	4.0120	-0.7849	25.06	-0.04	-0.750			
0.1004	6423.49	4.0090	4.0095	-0.7858	25.06	-0.04	-0.750			
0.1027	6572.71	4.0060	4.0058	-0.7862	25.06	-0.04	-0.750			
0.1050	6721.56	4.0030	4.0031	-0.7843	25.06	-0.04	-0.750			
0.1074	6871.80	4.0000	4.0000	-0.7887	25.06	-0.04	-0.750			
0.1098	7024.50	3.9970	3.9969	-0.7947	25.06	-0.04	-0.750			
0.1121	7176.76	3.9940	3.9941	-0.7943	25.06	-0.04	-0.750			
0.1146	7331.57	3.9910	3.9910	-0.7959	25.06	-0.04	-0.750			
0.1170	7485.70	3.9880	3.9880	-0.8012	25.06	-0.04	-0.750			
0.1194	7639.29	3.9850	3.9850	-0.7990	25.06	-0.04	-0.750			
0.1217	7791.55	3.9820	3.9819	-0.7972	25.06	-0.04	-0.750			
0.1242	7945.69	3.9790	3.9791	-0.7966	25.06	-0.04	-0.750			
0.1265	8098.02	3.9760	3.9759	-0.7973	25.06	-0.04	-0.750			
0.1289	8248.81	3.9730	3.9731	-0.8105	25.07	-0.03	-0.750			
0.1314	8407.31	3.9700	3.9699	-0.8113	25.07	-0.03	-0.750			
0.1338	8562.70	3.9670	3.9668	-0.8114	25.07	-0.03	-0.750			
0.1363	8721.90	3.9640	3.9640	-0.8195	25.08	-0.02	-0.750			
0.1387	8879.79	3.9610	3.9611	-0.8192	25.08	-0.02	-0.750			
0.1412	9037.66	3.9580	3.9579	-0.8220	25.08	-0.02	-0.750			
0.1436	9193.09	3.9550	3.9550	-0.8195	25.08	-0.02	-0.750			
0.1460	9346.47	3.9520	3.9521	-0.8122	25.09	-0.01	-0.750			
0.1486	9509.92	3.9490	3.9489	-0.8241	25.09	-0.01	-0.750			
0.1510	9664.89	3.9460	3.9460	-0.8200	25.09	-0.01	-0.750			
0.1534	9819.99	3.9430	3.9432	-0.8295	25.09	-0.01	-0.750			
0.1560	9981.79	3.9400	3.9399	-0.8316	25.09	-0.01	-0.750			
0.1585	10142.12	3.9370	3.9369	-0.8307	25.10	-0.00	-0.750			
0.1610	10303.04	3.9340	3.9340	-0.8345	25.10	-0.00	-0.750			
0.1635	10465.00	3.9310	3.9310	-0.8377	25.10	0.00	-0.750			
0.1660	10625.22	3.9280	3.9279	-0.8449	25.10	0.00	-0.750			
0.1685	10786.16	3.9250	3.9249	-0.8379	25.10	0.00	-0.750			
0.1710	10946.49	3.9220	3.9219	-0.8379	25.11	0.01	-0.750			
0.1736	11111.17	3.9190	3.9188	-0.8453	25.11	0.01	-0.750			
0.1762	11273.71	3.9160	3.9158	-0.8481	25.11	0.01	-0.750			
0.1787	11434.66	3.9130	3.9129	-0.8502	25.11	0.01	-0.750			
0.1812	11597.93	3.9100	3.9100	-0.8451	25.11	0.01	-0.750			
0.1837	11756.80	3.9070	3.9070	-0.8435	25.12	0.02	-0.750			
0.1863	11925.73	3.9040	3.9039	-0.8555	25.12	0.02	-0.750			
0.1889	12089.22	3.9010	3.9010	-0.8492	25.12	0.02	-0.750			
0.1914	12252.21	3.8980	3.8979	-0.8561	25.12	0.02	-0.750			
0.1940	12416.29	3.8950	3.8950	-0.8536	25.12	0.02	-0.750			
0.1966	12579.61	3.8920	3.8919	-0.8539	25.12	0.02	-0.750			
0.1992	12745.64	3.8890	3.8889	-0.8591	25.12	0.02	-0.750			
0.2017	12909.91	3.8860	3.8859	-0.8569	25.12	0.02	-0.750			
0.2043	13074.98	3.8830	3.8829	-0.8689	25.13	0.03	-0.750			
0.2069	13244.51	3.8800	3.8800	-0.8646	25.14	0.04	-0.750			
0.2095	13409.31	3.8770	3.8769	-0.8556	25.14	0.04	-0.750			
0.2122	13578.29	3.8740	3.8743	-0.8612	25.15	0.05	-0.750			
0.2147	13742.19	3.8710	3.8710	-0.8531	25.15	0.05	-0.750			
0.2172	13903.04	3.8680	3.8679	-0.8561	25.16	0.06	-0.750			
0.2198	14067.94	3.8650	3.8649	-0.8490	25.16	0.06	-0.750			
0.2223	14229.90	3.8620	3.8619	-0.8561	25.17	0.07	-0.750			
0.2249	14395.74	3.8590	3.8593	-0.8574	25.17	0.07	-0.750			
0.2275	14560.18	3.8560	3.8559	-0.8594	25.17	0.07	-0.750			
0.2301	14724.32	3.8530	3.8529	-0.8677	25.17	0.07	-0.750			
0.2327	14892.45	3.8500	3.8500	-0.8641	25.18	0.08	-0.750			
0.2353	15060.30	3.8470	3.8468	-0.8703	25.18	0.08	-0.750			
0.2380	15229.15	3.8440	3.8443	-0.8707	25.18	0.08	-0.750			
0.2405	15394.54	3.8410	3.8410	-0.8618	25.18	0.08	-0.750			
0.2432	15563.06	3.8380	3.8379	-0.8664	25.18	0.08	-0.750			
0.2457	15727.37	3.8350	3.8350	-0.8533	25.19	0.09	-0.750			
0.2484	15895.25	3.8320	3.8318	-0.8531	25.19	0.09	-0.750			
0.2509	16057.64	3.8290	3.8291	-0.8467	25.19	0.09	-0.750			
0.2534	16217.33	3.8260	3.8259	-0.8447	25.19	0.09	-0.750			
0.2559	16378.50	3.8230	3.8230	-0.8416	25.19	0.09	-0.750			
0.2584	16536.49	3.8200	3.8199	-0.8319	25.20	0.10	-0.750			
0.2610	16702.04	3.8170	3.8170	-0.8408	25.20	0.10	-0.750			
0.2635	16864.67	3.8140	3.8141	-0.8370	25.20	0.10	-0.750			
0.2660	17023.42	3.8110	3.8110	-0.8394	25.21	0.11	-0.750			
0.2685	17183.66	3.8080	3.8079	-0.8301	25.21	0.11	-0.750			
0.2710	17343.42	3.8050	3.8050	-0.8240	25.21	0.11	-0.750			
0.2735	17502.70	3.8020	3.8019	-0.8189	25.22	0.12	-0.750			
0.2759	17660.33	3.7990	3.7991	-0.8144	25.22	0.12	-0.750			
0.2783	17812.35	3.7960	3.7960	-0.8216	25.23	0.13	-0.750			
0.2808	17970.44	3.7930	3.7928	-0.8118	25.23	0.13	-0.750			
0.2832	18125.25	3.7900	3.7899	-0.8021	25.23	0.13	-0.750			
0.2857	18282.84	3.7870	3.7869	-0.8040	25.24	0.14	-0.750			
0.2881	18438.85	3.7840	3.7841	-0.8014	25.24	0.14	-0.750			
0.2905	18590.41	3.7810	3.7809	-0.7947	25.24	0.14	-0.750			
0.2928	18739.33	3.7780	3.7779	-0.7819	25.24	0.14	-0.750			
0.2951	18884.50	3.7750	3.7751	-0.7708	25.25	0.15	-0.750			
0.2975	19037.98	3.7720	3.7720	-0.7868	25.25	0.15	-0.750			
0.2998	19187.46	3.7690	3.7692	-0.7915	25.25	0.15	-0.750			
0.3022	19340.24	3.7660	3.7659	-0.7901	25.25	0.15	-0.750			
0.3046	19492.55	3.7630	3.7630	-0.7996	25.25	0.15	-0.750			
0.3070	19648.29	3.7600	3.7600	-0.8025	25.25	0.15	-0.750			
0.3094	19802.18	3.7570	3.7570	-0.8066	25.25	0.15	-0.750			
0.3119	19959.59	3.7540	3.7542	-0.8083	25.25	0.15	-0.750			
0.3143	20113.15	3.7510	3.7508	-0.8078	25.25	0.15	-0.750			
0.3167	20267.01	3.7480	3.7481	-0.8191	25.26	0.16	-0.750			
0.3192	20426.04	3.7450	3.7450	-0.8287	25.26	0.16	-0.750			
0.3216	20584.33	3.7420	3.7418	-0.8274	25.26	0.16	-0.750			
0.3242	20748.20	3.7390	3.7393	-0.8372	25.27	0.17	-0.750			
0.3267	20907.29	3.7360	3.7359	-0.8466	25.27	0.17	-0.750			
0.3292	21071.15	3.7330	3.7328	-0.8600	25.27	0.17	-0.750			
0.3318	21234.89	3.7300	3.7300	-0.8724	25.27	0.17	-0.750			
0.3344	21399.41	3.7270	3.7271	-0.8826	25.27	0.17	-0.750			
0.3371	21576.78	3.7240	3.7241	-0.9034	25.27	0.17	-0.750			
0.3399	21751.22	3.7210	3.7210	-0.9252	25.27	0.17	-0.750			
0.3427	21930.14	3.7180	3.7179	-0.9370	25.26	0.16	-0.750			
0.3455	22110.38	3.7150	3.7150	-0.9483	25.26	0.16	-0.750			
0.3483	22293.90	3.7120	3.7117	-0.9623	25.25	0.15	-0.750			
0.3512	22475.70	3.7090	3.7091	-1.0075	25.25	0.15	-0.750			
0.3543	22678.18	3.7060	3.7059	-1.0197	25.25	0.15	-0.750			
0.3575	22880.44	3.7030	3.7028	-1.0315	25.24	0.14	-0.750			
0.3606	23076.69	3.7000	3.7002	-1.0327	25.24	0.14	-0.750	0.383	0.507	
0.3637	23279.60	3.6970	3.6968	-1.0557	25.24	0.14	-0.750			
0.3669	23481.41	3.6940	3.6938	-1.0674	25.23	0.13	-0.750			
0.3701	23684.16	3.6910	3.6908	-1.0784	25.23	0.13	-0.750			
0.3732	23885.13	3.6880	3.6881	-1.0939	25.22	0.12	-0.750			
0.3767	24106.11	3.6850	3.6850	-1.1418	25.22	0.12	-0.750			
0.3802	24330.82	3.6820	3.6819	-1.1596	25.22	0.12	-0.750			
0.3837	24553.84	3.6790	3.6789	-1.1779	25.21	0.11	-0.750			
0.3872	24780.54	3.6760	3.6764	-1.2140	25.21	0.11	-0.750			
0.3910	25020.84	3.6730	3.6729	-1.2344	25.20	0.10	-0.750			
0.3947	25261.48	3.6700	3.6697	-1.2516	25.19	0.09	-0.750			
0.3985	25502.51	3.6670	3.6669	-1.2638	25.18	0.08	-0.750			
0.4023	25748.59	3.6640	3.6638	-1.2934	25.18	0.08	-0.750			
0.4062	25996.57	3.6610	3.6608	-1.3048	25.18	0.08	-0.750			
0.4100	26238.12	3.6580	3.6581	-1.3369	25.17	0.07	-0.750			
0.4141	26501.89	3.6550	3.6550	-1.3820	25.17	0.07	-0.750			
0.4183	26772.29	3.6520	3.6519	-1.4103	25.16	0.06	-0.750			
0.4226	27046.28	3.6490	3.6489	-1.4314	25.15	0.05	-0.750			
0.4269	27324.67	3.6460	3.6457	-1.4500	25.14	0.04	-0.750			
0.4313	27605.66	3.6430	3.6428	-1.4767	25.13	0.03	-0.750			
0.4358	27890.54	3.6400	3.6400	-1.4923	25.12	0.02	-0.750			
0.4403	28176.34	3.6370	3.6369	-1.4945	25.12	0.02	-0.750			
0.4448	28467.04	3.6340	3.6336	-1.5317	25.11	0.01	-0.750			
0.4494	28764.47	3.6310	3.6313	-1.5937	25.10	0.00	-0.750			
0.4542	29070.93	3.6280	3.6277	-1.6300	25.09	-0.01	-0.750			
0.4593	29396.18	3.6250	3.6251	-1.6706	25.09	-0.01	-0.750			
0.4644	29721.38	3.6220	3.6217	-1.6806	25.08	-0.02	-0.750			
0.4696	30051.58	3.6190	3.6188	-1.7185	25.07	-0.03	-0.750			
0.4748	30385.97	3.6160	3.6165	-1.7449	25.06	-0.04	-0.750			
0.4799	30712.57	3.6130	3.6132	-1.7609	25.06	-0.04	-0.750			
0.4851	31049.12	3.6100	3.6102	-1.7935	25.05	-0.05	-0.750			
0.4906	31398.81	3.6070	3.6067	-1.8359	25.04	-0.06	-0.750			
0.4964	31771.00	3.6040	3.6037	-1.9083	25.04	-0.06	-0.750			
0.5023	32144.04	3.6010	3.6005	-1.9421	25.03	-0.07	-0.750			
0.5081	32517.41	3.5980	3.5976	-1.9804	25.02	-0.08	-0.750			
0.5140	32898.49	3.5950	3.5949	-2.0022	25.02	-0.08	-0.750			
0.5201	33285.81	3.5920	3.5916	-2.0348	25.01	-0.09	-0.750			
0.5262	33675.44	3.5890	3.5891	-2.0813	25.00	-0.10	-0.750			
0.5325	34076.83	3.5860	3.5859	-2.0963	25.00	-0.10	-0.750			
0.5392	34507.61	3.5830	3.5828	-2.1509	25.00	-0.10	-0.750			
0.5455	34911.36	3.5800	3.5795	-2.1583	24.99	-0.11	-0.750			
0.5520	35328.92	3.5770	3.5765	-2.1870	24.98	-0.12	-0.750			
0.5585	35746.54	3.5740	3.5741	-2.1742	24.98	-0.12	-0.750			
0.5652	36173.72	3.5710	3.5712	-2.1967	24.98	-0.12	-0.750			
0.5718	36596.93	3.5680	3.5685	-2.2530	24.98	-0.12	-0.750			
0.5785	37025.36	3.5650	3.5649	-2.2511	24.98	-0.12	-0.750			
0.5853	37459.56	3.5620	3.5619	-2.2604	24.98	-0.12	-0.750			
0.5922	37903.51	3.5590	3.5593	-2.3025	24.97	-0.13	-0.750			
0.5989	38329.25	3.5560	3.5563	-2.1951	24.96	-0.14	-0.750			
0.6053	38738.73	3.5530	3.5528	-2.2264	24.96	-0.14	-0.750			
0.6122	39180.19	3.5500	3.5500	-2.1525	24.96	-0.14	-0.750			
0.6186	39593.28	3.5470	3.5472	-2.1635	24.96	-0.14	-0.750			
0.6252	40009.76	3.5440	3.5445	-2.1283	24.97	-0.13	-0.750			
0.6316	40421.78	3.5410	3.5408	-2.1453	24.98	-0.12	-0.750			
0.6377	40810.39	3.5380	3.5382	-2.0486	24.98	-0.12	-0.750			
0.6440	41214.14	3.5350	3.5347	-2.0575	24.99	-0.11	-0.750			
0.6500	41601.10	3.5320	3.5323	-1.9607	25.00	-0.10	-0.750			
0.6558	41968.10	3.5290	3.5294	-1.9077	25.00	-0.10	-0.750			
0.6615	42335.13	3.5260	3.5262	-1.8360	25.01	-0.09	-0.750			
0.6669	42681.44	3.5230	3.5233	-1.7835	25.02	-0.08	-0.750			
0.6722	43022.44	3.5200	3.5203	-1.7435	25.03	-0.07	-0.750			
0.6773	43350.26	3.5170	3.5168	-1.7072	25.04	-0.06	-0.750			
0.6824	43671.34	3.5140	3.5141	-1.6810	25.05	-0.05	-0.750			
0.6874	43990.42	3.5110	3.5114	-1.6476	25.06	-0.04	-0.750			
0.6923	44308.18	3.5080	3.5084	-1.5933	25.08	-0.02	-0.750			
0.6971	44611.88	3.5050	3.5051	-1.5386	25.09	-0.01	-0.750			
0.7015	44893.86	3.5020	3.5017	-1.4711	25.10	0.00	-0.750			
0.7059	45174.49	3.4990	3.4991	-1.4285	25.12	0.02	-0.750			
0.7100	45440.61	3.4960	3.4958	-1.3938	25.13	0.03	-0.750			
0.7140	45698.05	3.4930	3.4931	-1.3633	25.15	0.05	-0.750			
0.7180	45949.34	3.4900	3.4900	-1.3914	25.16	0.06	-0.750			
0.7221	46217.40	3.4870	3.4870	-1.3453	25.17	0.07	-0.750			
