Ah_balance (normalized)	Ah_balance (mAh)	Voltage - fit (V)	Voltage -  interpolate (V)	dQ/dV (1/V)	Temperature (°C)	Temperature - diff (°C)	Current (C)	R_DC 0ms (mOhm)	R_DC 50ms (mOhm)	R_DC 50 ms PEC (mOhm)
0.0001	7.89	4.1650	4.1650	-0.1040	25.14	0.01	-0.750			
0.0005	32.92	4.1620	4.1620	-0.1534	25.14	0.01	-0.750			
0.0010	67.04	4.1590	4.1589	-0.1975	25.13	0.00	-0.750			
0.0017	110.40	4.1560	4.1560	-0.2377	25.13	0.00	-0.750			
0.0025	159.62	4.1530	4.1530	-0.2775	25.13	0.00	-0.750			
0.0034	216.50	4.1500	4.1500	-0.3181	25.13	-0.00	-0.750			
0.0044	281.23	4.1470	4.1472	-0.3617	25.13	-0.00	-0.750			
0.0055	354.85	4.1440	4.1439	-0.4007	25.12	-0.01	-0.750			
0.0068	435.90	4.1410	4.1409	-0.4390	25.12	-0.01	-0.750			
0.0082	525.23	4.1380	4.1381	-0.4717	25.12	-0.01	-0.750			
0.0097	620.10	4.1350	4.1351	-0.5093	25.11	-0.02	-0.750			
0.0113	721.36	4.1320	4.1320	-0.5293	25.11	-0.02	-0.750			
0.0129	825.63	4.1290	4.1289	-0.5529	25.11	-0.02	-0.750			
0.0146	934.06	4.1260	4.1261	-0.5732	25.10	-0.03	-0.750			
0.0164	1046.96	4.1230	4.1228	-0.5930	25.10	-0.03	-0.750			
0.0182	1163.63	4.1200	4.1200	-0.6115	25.10	-0.03	-0.750			
0.0200	1282.93	4.1170	4.1171	-0.6275	25.09	-0.04	-0.750			
0.0220	1405.06	4.1140	4.1140	-0.6479	25.09	-0.04	-0.750			
0.0240	1535.13	4.1110	4.1109	-0.6566	25.09	-0.04	-0.750			
0.0260	1662.00	4.1080	4.1079	-0.6632	25.08	-0.05	-0.750			
0.0280	1789.46	4.1050	4.1057	-0.6754	25.08	-0.05	-0.750			
0.0300	1920.66	4.1020	4.1018	-0.6809	25.08	-0.05	-0.750			
0.0320	2050.08	4.0990	4.0989	-0.6904	25.07	-0.06	-0.750			
0.0341	2181.93	4.0960	4.0961	-0.6938	25.07	-0.06	-0.750			
0.0363	2320.41	4.0930	4.0930	-0.7086	25.07	-0.06	-0.750			
0.0384	2457.45	4.0900	4.0899	-0.7080	25.06	-0.07	-0.750			
0.0405	2592.32	4.0870	4.0874	-0.7101	25.06	-0.07	-0.750			
0.0426	2727.29	4.0840	4.0840	-0.7150	25.06	-0.07	-0.750			
0.0448	2868.62	4.0810	4.0808	-0.7092	25.06	-0.07	-0.750			
0.0470	3007.35	4.0780	4.0780	-0.6795	25.06	-0.07	-0.750			
0.0490	3138.06	4.0750	4.0751	-0.6703	25.06	-0.07	-0.750			
0.0509	3258.24	4.0720	4.0727	-0.6699	25.06	-0.07	-0.750			
0.0528	3380.14	4.0690	4.0688	-0.6707	25.06	-0.07	-0.750			
0.0548	3506.68	4.0660	4.0656	-0.6863	25.06	-0.07	-0.750			
0.0568	3633.23	4.0630	4.0632	-0.7238	25.06	-0.07	-0.750			
0.0592	3787.81	4.0600	4.0600	-0.7471	25.06	-0.07	-0.750			
0.0615	3936.90	4.0570	4.0570	-0.7626	25.06	-0.07	-0.750			
0.0638	4086.19	4.0540	4.0537	-0.7605	25.06	-0.07	-0.750			
0.0661	4232.26	4.0510	4.0508	-0.7559	25.06	-0.07	-0.750			
0.0684	4376.07	4.0480	4.0479	-0.7512	25.06	-0.07	-0.750			
0.0706	4518.14	4.0450	4.0450	-0.7543	25.06	-0.07	-0.750			
0.0729	4662.93	4.0420	4.0420	-0.7652	25.06	-0.07	-0.750			
0.0752	4810.22	4.0390	4.0389	-0.7642	25.06	-0.07	-0.750			
0.0774	4956.56	4.0360	4.0360	-0.7601	25.06	-0.07	-0.750			
0.0797	5103.15	4.0330	4.0330	-0.7621	25.06	-0.07	-0.750			
0.0820	5248.48	4.0300	4.0301	-0.7642	25.06	-0.07	-0.750			
0.0843	5393.83	4.0270	4.0270	-0.7690	25.06	-0.07	-0.750			
0.0866	5539.65	4.0240	4.0240	-0.7705	25.06	-0.07	-0.750			
0.0889	5692.07	4.0210	4.0209	-0.7745	25.06	-0.07	-0.750			
0.0913	5841.71	4.0180	4.0181	-0.7774	25.06	-0.07	-0.750			
0.0936	5992.85	4.0150	4.0150	-0.7814	25.06	-0.07	-0.750			
0.0960	6142.21	4.0120	4.0120	-0.7854	25.06	-0.07	-0.750			
0.0983	6292.45	4.0090	4.0088	-0.7781	25.07	-0.06	-0.750			
0.1006	6440.92	4.0060	4.0060	-0.7827	25.07	-0.06	-0.750			
0.1030	6593.53	4.0030	4.0036	-0.7821	25.07	-0.06	-0.750			
0.1054	6743.90	4.0000	3.9997	-0.7839	25.07	-0.06	-0.750			
0.1077	6893.84	3.9970	3.9970	-0.7903	25.07	-0.06	-0.750			
0.1101	7043.83	3.9940	3.9940	-0.7887	25.06	-0.07	-0.750			
0.1125	7199.58	3.9910	3.9908	-0.7914	25.06	-0.07	-0.750			
0.1149	7351.62	3.9880	3.9878	-0.7845	25.06	-0.07	-0.750			
0.1172	7499.11	3.9850	3.9850	-0.7814	25.06	-0.07	-0.750			
0.1195	7648.70	3.9820	3.9820	-0.7897	25.06	-0.07	-0.750			
0.1218	7796.41	3.9790	3.9789	-0.7901	25.07	-0.06	-0.750			
0.1242	7950.60	3.9760	3.9758	-0.8020	25.07	-0.06	-0.750			
0.1266	8105.51	3.9730	3.9730	-0.8055	25.07	-0.06	-0.750			
0.1291	8261.87	3.9700	3.9701	-0.8111	25.07	-0.06	-0.750			
0.1315	8417.38	3.9670	3.9670	-0.8227	25.07	-0.06	-0.750			
0.1340	8576.29	3.9640	3.9639	-0.8219	25.07	-0.06	-0.750			
0.1365	8733.80	3.9610	3.9609	-0.8110	25.08	-0.05	-0.750			
0.1389	8890.60	3.9580	3.9579	-0.8147	25.08	-0.05	-0.750			
0.1414	9047.80	3.9550	3.9548	-0.8181	25.08	-0.05	-0.750			
0.1438	9202.36	3.9520	3.9518	-0.8217	25.09	-0.04	-0.750			
0.1462	9359.71	3.9490	3.9489	-0.8173	25.09	-0.04	-0.750			
0.1487	9514.63	3.9460	3.9461	-0.8127	25.09	-0.04	-0.750			
0.1512	9675.77	3.9430	3.9429	-0.8264	25.10	-0.03	-0.750			
0.1537	9835.87	3.9400	3.9402	-0.8254	25.10	-0.03	-0.750			
0.1561	9989.73	3.9370	3.9370	-0.8225	25.10	-0.03	-0.750			
0.1586	10148.02	3.9340	3.9339	-0.8242	25.10	-0.03	-0.750			
0.1610	10306.66	3.9310	3.9311	-0.8201	25.10	-0.03	-0.750			
0.1635	10466.52	3.9280	3.9279	-0.8266	25.10	-0.03	-0.750			
0.1660	10624.33	3.9250	3.9252	-0.8312	25.10	-0.03	-0.750			
0.1684	10779.77	3.9220	3.9220	-0.8596	25.10	-0.03	-0.750			
0.1711	10949.30	3.9190	3.9188	-0.8499	25.10	-0.03	-0.750			
0.1737	11115.10	3.9160	3.9159	-0.8420	25.11	-0.02	-0.750			
0.1762	11278.71	3.9130	3.9129	-0.8440	25.11	-0.02	-0.750			
0.1787	11439.95	3.9100	3.9098	-0.8408	25.11	-0.02	-0.750			
0.1812	11596.52	3.9070	3.9068	-0.8477	25.12	-0.01	-0.750			
0.1837	11759.12	3.9040	3.9039	-0.8430	25.12	-0.01	-0.750			
0.1863	11921.16	3.9010	3.9009	-0.8557	25.12	-0.01	-0.750			
0.1889	12086.60	3.8980	3.8980	-0.8536	25.13	-0.00	-0.750			
0.1914	12252.35	3.8950	3.8951	-0.8562	25.13	0.00	-0.750			
0.1940	12413.29	3.8920	3.8919	-0.8565	25.13	0.00	-0.750			
0.1965	12575.38	3.8890	3.8888	-0.8506	25.13	0.00	-0.750			
0.1990	12737.58	3.8860	3.8861	-0.8485	25.13	0.00	-0.750			
0.2016	12905.44	3.8830	3.8829	-0.8599	25.13	0.00	-0.750			
0.2042	13071.14	3.8800	3.8800	-0.8629	25.13	0.00	-0.750			
0.2068	13237.14	3.8770	3.8769	-0.8746	25.13	0.00	-0.750			
0.2094	13404.34	3.8740	3.8739	-0.8705	25.14	0.01	-0.750			
0.2121	13572.96	3.8710	3.8709	-0.8617	25.14	0.01	-0.750			
0.2147	13741.94	3.8680	3.8677	-0.8595	25.14	0.01	-0.750			
0.2173	13907.03	3.8650	3.8649	-0.8554	25.14	0.01	-0.750			
0.2198	14068.81	3.8620	3.8619	-0.8534	25.14	0.01	-0.750			
0.2223	14226.96	3.8590	3.8589	-0.8499	25.14	0.01	-0.750			
0.2249	14394.69	3.8560	3.8558	-0.8560	25.14	0.01	-0.750			
0.2275	14557.93	3.8530	3.8532	-0.8554	25.14	0.01	-0.750			
0.2300	14721.66	3.8500	3.8499	-0.8547	25.14	0.01	-0.750			
0.2326	14886.85	3.8470	3.8470	-0.8545	25.15	0.02	-0.750			
0.2352	15049.92	3.8440	3.8439	-0.8474	25.16	0.03	-0.750			
0.2376	15209.25	3.8410	3.8410	-0.8428	25.16	0.03	-0.750			
0.2402	15374.46	3.8380	3.8381	-0.8421	25.17	0.04	-0.750			
0.2427	15532.68	3.8350	3.8350	-0.8598	25.17	0.04	-0.750			
0.2453	15697.04	3.8320	3.8320	-0.8494	25.17	0.04	-0.750			
0.2479	15863.89	3.8290	3.8289	-0.8427	25.18	0.05	-0.750			
0.2504	16025.75	3.8260	3.8257	-0.8391	25.18	0.05	-0.750			
0.2529	16188.26	3.8230	3.8239	-0.8369	25.18	0.05	-0.750			
0.2554	16347.82	3.8200	3.8200	-0.8256	25.18	0.05	-0.750			
0.2579	16505.79	3.8170	3.8169	-0.8235	25.19	0.06	-0.750			
0.2603	16661.73	3.8140	3.8140	-0.8067	25.19	0.06	-0.750			
0.2628	16816.26	3.8110	3.8110	-0.8102	25.20	0.07	-0.750			
0.2652	16970.04	3.8080	3.8081	-0.8100	25.20	0.07	-0.750			
0.2676	17123.20	3.8050	3.8048	-0.8077	25.20	0.07	-0.750			
0.2700	17279.11	3.8020	3.8018	-0.8130	25.20	0.07	-0.750			
0.2725	17437.35	3.7990	3.7991	-0.8081	25.21	0.08	-0.750			
0.2749	17596.32	3.7960	3.7959	-0.8110	25.21	0.08	-0.750			
0.2774	17751.64	3.7930	3.7932	-0.8025	25.21	0.08	-0.750			
0.2797	17901.27	3.7900	3.7899	-0.7852	25.21	0.08	-0.750			
0.2820	18047.96	3.7870	3.7870	-0.7885	25.21	0.08	-0.750			
0.2843	18197.38	3.7840	3.7840	-0.7783	25.22	0.09	-0.750			
0.2867	18348.12	3.7810	3.7809	-0.7774	25.22	0.09	-0.750			
0.2891	18501.46	3.7780	3.7779	-0.7865	25.22	0.09	-0.750			
0.2914	18650.94	3.7750	3.7748	-0.7836	25.22	0.09	-0.750			
0.2937	18799.20	3.7720	3.7720	-0.7862	25.23	0.10	-0.750			
0.2961	18951.31	3.7690	3.7689	-0.7893	25.23	0.10	-0.750			
0.2985	19101.40	3.7660	3.7660	-0.7809	25.23	0.10	-0.750			
0.3008	19254.26	3.7630	3.7628	-0.7888	25.24	0.11	-0.750			
0.3032	19406.43	3.7600	3.7605	-0.7910	25.24	0.11	-0.750			
0.3056	19558.60	3.7570	3.7569	-0.7891	25.24	0.11	-0.750			
0.3079	19708.49	3.7540	3.7539	-0.7929	25.24	0.11	-0.750			
0.3103	19859.88	3.7510	3.7511	-0.8021	25.25	0.12	-0.750			
0.3127	20014.03	3.7480	3.7479	-0.8113	25.25	0.12	-0.750			
0.3152	20170.48	3.7450	3.7449	-0.8242	25.25	0.12	-0.750			
0.3176	20324.94	3.7420	3.7421	-0.8457	25.25	0.12	-0.750			
0.3202	20493.82	3.7390	3.7390	-0.8523	25.25	0.12	-0.750			
0.3228	20661.73	3.7360	3.7358	-0.8642	25.25	0.12	-0.750			
0.3254	20828.03	3.7330	3.7330	-0.8707	25.25	0.12	-0.750			
0.3281	20996.24	3.7300	3.7311	-0.8771	25.25	0.12	-0.750			
0.3307	21163.35	3.7270	3.7269	-0.8998	25.25	0.12	-0.750			
0.3334	21335.04	3.7240	3.7240	-0.9053	25.25	0.12	-0.750			
0.3361	21508.58	3.7210	3.7209	-0.9272	25.24	0.11	-0.750			
0.3390	21692.93	3.7180	3.7179	-0.9529	25.24	0.11	-0.750			
0.3418	21877.75	3.7150	3.7149	-0.9626	25.24	0.11	-0.750			
0.3447	22063.53	3.7120	3.7120	-0.9810	25.24	0.11	-0.750			
0.3477	22252.63	3.7090	3.7090	-1.0036	25.24	0.11	-0.750			
0.3507	22447.49	3.7060	3.7059	-1.0104	25.24	0.11	-0.750			
0.3538	22644.81	3.7030	3.7031	-1.0442	25.24	0.11	-0.750			
0.3570	22849.05	3.7000	3.6998	-1.0440	25.23	0.10	-0.750	0.377	0.508	
0.3602	23052.47	3.6970	3.6968	-1.0500	25.23	0.10	-0.750			
0.3634	23254.87	3.6940	3.6937	-1.0564	25.22	0.09	-0.750			
0.3665	23454.34	3.6910	3.6911	-1.0689	25.22	0.09	-0.750			
0.3696	23654.32	3.6880	3.6879	-1.0794	25.21	0.08	-0.750			
0.3729	23868.59	3.6850	3.6849	-1.1093	25.21	0.08	-0.750			
0.3762	24077.40	3.6820	3.6820	-1.1167	25.20	0.07	-0.750			
0.3797	24302.84	3.6790	3.6790	-1.1655	25.20	0.07	-0.750			
0.3833	24530.77	3.6760	3.6760	-1.1831	25.19	0.06	-0.750			
0.3869	24759.28	3.6730	3.6728	-1.2018	25.19	0.06	-0.750			
0.3905	24989.25	3.6700	3.6703	-1.2285	25.18	0.05	-0.750			
0.3942	25230.14	3.6670	3.6668	-1.2553	25.18	0.05	-0.750			
0.3981	25478.03	3.6640	3.6639	-1.2537	25.17	0.04	-0.750			
0.4018	25717.24	3.6610	3.6610	-1.2746	25.17	0.04	-0.750			
0.4057	25962.11	3.6580	3.6581	-1.2929	25.16	0.03	-0.750			
0.4096	26212.37	3.6550	3.6546	-1.3033	25.15	0.02	-0.750			
0.4134	26456.11	3.6520	3.6518	-1.3232	25.15	0.02	-0.750			
0.4174	26712.10	3.6490	3.6490	-1.3474	25.14	0.01	-0.750			
0.4215	26977.97	3.6460	3.6460	-1.4148	25.13	0.00	-0.750			
0.4259	27260.68	3.6430	3.6428	-1.4707	25.12	-0.01	-0.750			
0.4305	27554.89	3.6400	3.6396	-1.4826	25.12	-0.01	-0.750			
0.4350	27837.49	3.6370	3.6372	-1.5294	25.11	-0.02	-0.750			
0.4397	28138.47	3.6340	3.6346	-1.5354	25.10	-0.03	-0.750			
0.4441	28424.92	3.6310	3.6306	-1.5551	25.09	-0.04	-0.750			
0.4488	28725.62	3.6280	3.6280	-1.5729	25.09	-0.04	-0.750			
0.4534	29019.82	3.6250	3.6252	-1.5833	25.08	-0.05	-0.750			
0.4585	29341.59	3.6220	3.6216	-1.6629	25.07	-0.06	-0.750			
0.4634	29660.54	3.6190	3.6187	-1.7213	25.06	-0.07	-0.750			
0.4686	29990.93	3.6160	3.6157	-1.7243	25.06	-0.07	-0.750			
0.4741	30343.73	3.6130	3.6126	-1.7434	25.05	-0.08	-0.750			
0.4793	30674.07	3.6100	3.6095	-1.7494	25.05	-0.08	-0.750			
0.4847	31020.56	3.6070	3.6067	-1.7897	25.04	-0.09	-0.750			
0.4899	31355.94	3.6040	3.6039	-1.8336	25.04	-0.09	-0.750			
0.4954	31704.80	3.6010	3.6017	-1.9209	25.04	-0.09	-0.750			
0.5014	32091.69	3.5980	3.5976	-1.9582	25.03	-0.10	-0.750			
0.5075	32477.77	3.5950	3.5948	-1.9782	25.03	-0.10	-0.750			
0.5132	32847.08	3.5920	3.5916	-1.9933	25.02	-0.11	-0.750			
0.5192	33229.24	3.5890	3.5895	-2.0423	25.02	-0.11	-0.750			
0.5255	33630.44	3.5860	3.5859	-2.0639	25.01	-0.12	-0.750			
0.5315	34014.78	3.5830	3.5828	-2.1414	25.01	-0.12	-0.750			
0.5382	34441.85	3.5800	3.5804	-2.1648	25.00	-0.13	-0.750			
0.5447	34859.01	3.5770	3.5766	-2.1813	25.00	-0.13	-0.750			
0.5509	35259.46	3.5740	3.5737	-2.1614	24.99	-0.14	-0.750			
0.5576	35683.26	3.5710	3.5716	-2.2014	24.99	-0.14	-0.750			
0.5645	36127.99	3.5680	3.5675	-2.2648	24.98	-0.15	-0.750			
0.5714	36571.80	3.5650	3.5656	-2.2935	24.98	-0.15	-0.750			
0.5783	37010.35	3.5620	3.5618	-2.2367	24.98	-0.15	-0.750			
0.5849	37435.43	3.5590	3.5593	-2.2020	24.98	-0.15	-0.750			
0.5913	37842.57	3.5560	3.5559	-2.1496	24.98	-0.15	-0.750			
0.5975	38239.18	3.5530	3.5528	-2.1399	24.98	-0.15	-0.750			
0.6040	38652.92	3.5500	3.5501	-2.1518	24.98	-0.15	-0.750			
0.6102	39049.86	3.5470	3.5472	-2.1862	24.98	-0.15	-0.750			
0.6172	39502.41	3.5440	3.5435	-2.1547	24.98	-0.15	-0.750			
0.6238	39924.48	3.5410	3.5403	-2.1093	24.98	-0.15	-0.750			
0.6299	40316.04	3.5380	3.5374	-2.0521	24.98	-0.15	-0.750			
0.6360	40705.02	3.5350	3.5351	-1.9910	24.99	-0.14	-0.750			
0.6419	41081.54	3.5320	3.5318	-1.9136	25.00	-0.13	-0.750			
0.6473	41428.04	3.5290	3.5287	-1.8933	25.01	-0.12	-0.750			
0.6532	41802.34	3.5260	3.5255	-1.8567	25.02	-0.11	-0.750			
0.6588	42161.43	3.5230	3.5228	-1.8401	25.03	-0.10	-0.750			
0.6640	42499.05	3.5200	3.5201	-1.7464	25.04	-0.09	-0.750			
0.6693	42836.24	3.5170	3.5174	-1.7311	25.05	-0.08	-0.750			
0.6744	43162.21	3.5140	3.5148	-1.6641	25.07	-0.06	-0.750			
0.6795	43485.39	3.5110	3.5108	-1.6026	25.08	-0.05	-0.750			
0.6843	43794.00	3.5080	3.5082	-1.5808	25.10	-0.03	-0.750			
0.6889	44091.88	3.5050	3.5052	-1.5560	25.11	-0.02	-0.750			
0.6937	44394.25	3.5020	3.5016	-1.5137	25.12	-0.01	-0.750			
0.6980	44669.99	3.4990	3.4991	-1.4369	25.14	0.01	-0.750			
0.7023	44945.85	3.4960	3.4967	-1.4183	25.16	0.03	-0.750			
0.7066	45223.66	3.4930	3.4928	-1.3830	25.17	0.04	-0.750			
0.7107	45484.18	3.4900	3.4898	-1.3148	25.18	0.05	-0.750			
0.7148	45746.15	3.4870	3.4868	-1.5044	25.20	0.07	-0.750			
