Ah_balance (normalized)	Ah_balance (mAh)	Voltage - fit (V)	Voltage -  interpolate (V)	dQ/dV (1/V)	Temperature (°C)	Temperature - diff (°C)	Current (C)	R_DC 0ms (mOhm)	R_DC 50ms (mOhm)	R_DC 50 ms PEC (mOhm)
0.0002	13.09	4.1660	4.1660	-0.0990	25.05	0.01	-0.750			
0.0006	40.76	4.1630	4.1628	-0.1684	25.05	0.01	-0.750			
0.0012	78.87	4.1600	4.1597	-0.2179	25.04	0.00	-0.750			
0.0020	126.46	4.1570	4.1571	-0.2616	25.04	0.00	-0.750			
0.0028	180.66	4.1540	4.1539	-0.3038	25.04	-0.00	-0.750			
0.0038	243.01	4.1510	4.1511	-0.3466	25.04	-0.00	-0.750			
0.0049	314.97	4.1480	4.1481	-0.3866	25.03	-0.01	-0.750			
0.0061	391.46	4.1450	4.1449	-0.4299	25.03	-0.01	-0.750			
0.0075	478.65	4.1420	4.1421	-0.4737	25.02	-0.02	-0.750			
0.0090	575.12	4.1390	4.1389	-0.5110	25.02	-0.02	-0.750			
0.0106	679.37	4.1360	4.1361	-0.5501	25.01	-0.03	-0.750			
0.0123	788.55	4.1330	4.1330	-0.5793	25.01	-0.03	-0.750			
0.0141	904.36	4.1300	4.1299	-0.6013	25.00	-0.04	-0.750			
0.0160	1022.05	4.1270	4.1270	-0.6220	25.00	-0.04	-0.750			
0.0178	1142.08	4.1240	4.1241	-0.6385	25.00	-0.04	-0.750			
0.0198	1266.02	4.1210	4.1209	-0.6626	24.99	-0.05	-0.750			
0.0218	1395.59	4.1180	4.1180	-0.6754	24.99	-0.05	-0.750			
0.0239	1528.93	4.1150	4.1149	-0.6898	24.99	-0.05	-0.750			
0.0260	1664.36	4.1120	4.1120	-0.6968	24.98	-0.06	-0.750			
0.0281	1799.57	4.1090	4.1090	-0.7066	24.98	-0.06	-0.750			
0.0302	1934.25	4.1060	4.1061	-0.7140	24.98	-0.06	-0.750			
0.0324	2072.18	4.1030	4.1029	-0.7292	24.97	-0.07	-0.750			
0.0346	2211.57	4.1000	4.0999	-0.7367	24.97	-0.07	-0.750			
0.0368	2356.86	4.0970	4.0970	-0.7496	24.96	-0.08	-0.750			
0.0391	2502.93	4.0940	4.0941	-0.7623	24.96	-0.08	-0.750			
0.0414	2650.99	4.0910	4.0908	-0.7665	24.96	-0.08	-0.750			
0.0437	2797.60	4.0880	4.0880	-0.7678	24.96	-0.08	-0.750			
0.0460	2947.00	4.0850	4.0850	-0.7709	24.96	-0.08	-0.750			
0.0483	3094.25	4.0820	4.0821	-0.7673	24.96	-0.08	-0.750			
0.0507	3244.45	4.0790	4.0789	-0.7751	24.96	-0.08	-0.750			
0.0530	3392.52	4.0760	4.0761	-0.7742	24.96	-0.08	-0.750			
0.0553	3539.77	4.0730	4.0729	-0.7750	24.96	-0.08	-0.750			
0.0576	3688.91	4.0700	4.0699	-0.7871	24.96	-0.08	-0.750			
0.0600	3840.96	4.0670	4.0670	-0.7846	24.96	-0.08	-0.750			
0.0624	3995.72	4.0640	4.0639	-0.7894	24.96	-0.08	-0.750			
0.0648	4147.65	4.0610	4.0614	-0.7906	24.96	-0.08	-0.750			
0.0672	4298.33	4.0580	4.0579	-0.7853	24.96	-0.08	-0.750			
0.0695	4447.17	4.0550	4.0550	-0.7920	24.96	-0.08	-0.750			
0.0718	4597.08	4.0520	4.0519	-0.7936	24.96	-0.08	-0.750			
0.0742	4751.34	4.0490	4.0491	-0.8002	24.96	-0.08	-0.750			
0.0767	4906.95	4.0460	4.0459	-0.8023	24.96	-0.08	-0.750			
0.0791	5062.76	4.0430	4.0430	-0.8050	24.96	-0.08	-0.750			
0.0815	5216.41	4.0400	4.0399	-0.8012	24.96	-0.08	-0.750			
0.0839	5368.18	4.0370	4.0370	-0.8010	24.97	-0.07	-0.750			
0.0863	5520.85	4.0340	4.0340	-0.7978	24.97	-0.07	-0.750			
0.0887	5674.87	4.0310	4.0309	-0.8043	24.97	-0.07	-0.750			
0.0911	5829.97	4.0280	4.0281	-0.8068	24.97	-0.07	-0.750			
0.0935	5982.54	4.0250	4.0250	-0.8229	24.97	-0.07	-0.750			
0.0960	6143.68	4.0220	4.0218	-0.8207	24.97	-0.07	-0.750			
0.0985	6303.21	4.0190	4.0190	-0.8211	24.98	-0.06	-0.750			
0.1010	6461.93	4.0160	4.0160	-0.8183	24.98	-0.06	-0.750			
0.1035	6621.67	4.0130	4.0129	-0.8153	24.98	-0.06	-0.750			
0.1059	6774.62	4.0100	4.0099	-0.8171	24.98	-0.06	-0.750			
0.1083	6928.41	4.0070	4.0071	-0.8156	24.98	-0.06	-0.750			
0.1107	7082.35	4.0040	4.0039	-0.8138	24.98	-0.06	-0.750			
0.1132	7244.00	4.0010	4.0009	-0.8250	24.98	-0.06	-0.750			
0.1157	7404.09	3.9980	3.9981	-0.8225	24.98	-0.06	-0.750			
0.1181	7560.45	3.9950	3.9950	-0.8284	24.99	-0.05	-0.750			
0.1206	7720.99	3.9920	3.9920	-0.8276	24.99	-0.05	-0.750			
0.1231	7876.51	3.9890	3.9890	-0.8214	24.99	-0.05	-0.750			
0.1256	8036.60	3.9860	3.9859	-0.8278	25.00	-0.04	-0.750			
0.1280	8194.74	3.9830	3.9831	-0.8374	25.00	-0.04	-0.750			
0.1305	8354.41	3.9800	3.9800	-0.8539	25.00	-0.04	-0.750			
0.1331	8521.40	3.9770	3.9769	-0.8618	25.00	-0.04	-0.750			
0.1357	8687.44	3.9740	3.9738	-0.8624	25.01	-0.03	-0.750			
0.1384	8857.74	3.9710	3.9710	-0.8657	25.01	-0.03	-0.750			
0.1410	9024.98	3.9680	3.9680	-0.8654	25.01	-0.03	-0.750			
0.1436	9190.03	3.9650	3.9650	-0.8662	25.01	-0.03	-0.750			
0.1461	9353.02	3.9620	3.9618	-0.8522	25.02	-0.02	-0.750			
0.1487	9516.80	3.9590	3.9590	-0.8478	25.02	-0.02	-0.750			
0.1513	9681.60	3.9560	3.9559	-0.8530	25.02	-0.02	-0.750			
0.1539	9846.59	3.9530	3.9529	-0.8523	25.02	-0.02	-0.750			
0.1564	10009.48	3.9500	3.9499	-0.8526	25.02	-0.02	-0.750			
0.1589	10169.54	3.9470	3.9469	-0.8494	25.02	-0.02	-0.750			
0.1614	10330.88	3.9440	3.9441	-0.8530	25.02	-0.02	-0.750			
0.1641	10499.48	3.9410	3.9410	-0.8653	25.02	-0.02	-0.750			
0.1666	10664.26	3.9380	3.9379	-0.8688	25.02	-0.02	-0.750			
0.1693	10832.31	3.9350	3.9350	-0.8698	25.03	-0.01	-0.750			
0.1719	11000.78	3.9320	3.9321	-0.8710	25.03	-0.01	-0.750			
0.1745	11167.11	3.9290	3.9289	-0.8689	25.04	-0.00	-0.750			
0.1771	11335.58	3.9260	3.9264	-0.8713	25.04	-0.00	-0.750			
0.1797	11502.14	3.9230	3.9230	-0.8715	25.04	0.00	-0.750			
0.1823	11670.23	3.9200	3.9199	-0.8814	25.04	0.00	-0.750			
0.1850	11840.40	3.9170	3.9169	-0.8772	25.04	0.00	-0.750			
0.1877	12010.21	3.9140	3.9139	-0.8780	25.04	0.00	-0.750			
0.1903	12177.48	3.9110	3.9113	-0.8797	25.04	0.00	-0.750			
0.1929	12345.44	3.9080	3.9078	-0.8835	25.05	0.01	-0.750			
0.1956	12515.68	3.9050	3.9049	-0.8835	25.05	0.01	-0.750			
0.1982	12682.95	3.9020	3.9021	-0.8860	25.05	0.01	-0.750			
0.2009	12856.62	3.8990	3.8990	-0.8930	25.06	0.02	-0.750			
0.2036	13029.30	3.8960	3.8960	-0.8950	25.06	0.02	-0.750			
0.2063	13200.81	3.8930	3.8929	-0.8973	25.06	0.02	-0.750			
0.2090	13372.97	3.8900	3.8900	-0.8899	25.07	0.03	-0.750			
0.2116	13543.46	3.8870	3.8870	-0.8869	25.07	0.03	-0.750			
0.2143	13714.23	3.8840	3.8840	-0.8889	25.07	0.03	-0.750			
0.2169	13881.25	3.8810	3.8810	-0.8966	25.07	0.03	-0.750			
0.2196	14055.05	3.8780	3.8779	-0.9028	25.07	0.03	-0.750			
0.2223	14228.16	3.8750	3.8749	-0.9057	25.08	0.04	-0.750			
0.2251	14404.64	3.8720	3.8719	-0.9041	25.08	0.04	-0.750			
0.2279	14583.27	3.8690	3.8693	-0.9088	25.08	0.04	-0.750			
0.2306	14756.46	3.8660	3.8660	-0.9027	25.08	0.04	-0.750			
0.2333	14928.47	3.8630	3.8629	-0.8967	25.08	0.04	-0.750			
0.2359	15097.99	3.8600	3.8600	-0.8964	25.09	0.05	-0.750			
0.2386	15268.93	3.8570	3.8569	-0.9018	25.09	0.05	-0.750			
0.2413	15442.80	3.8540	3.8541	-0.9067	25.09	0.05	-0.750			
0.2441	15619.67	3.8510	3.8509	-0.9121	25.09	0.05	-0.750			
0.2468	15794.65	3.8480	3.8480	-0.9165	25.10	0.06	-0.750			
0.2496	15971.39	3.8450	3.8450	-0.9145	25.10	0.06	-0.750			
0.2523	16148.47	3.8420	3.8423	-0.9098	25.10	0.06	-0.750			
0.2550	16320.03	3.8390	3.8390	-0.9164	25.10	0.06	-0.750			
0.2578	16498.02	3.8360	3.8361	-0.9072	25.10	0.06	-0.750			
0.2605	16671.15	3.8330	3.8329	-0.9065	25.10	0.06	-0.750			
0.2632	16846.64	3.8300	3.8300	-0.9121	25.10	0.06	-0.750			
0.2659	17019.77	3.8270	3.8268	-0.9037	25.10	0.06	-0.750			
0.2687	17194.25	3.8240	3.8239	-0.9089	25.10	0.06	-0.750			
0.2714	17368.45	3.8210	3.8210	-0.9058	25.11	0.07	-0.750			
0.2740	17539.05	3.8180	3.8180	-0.9004	25.11	0.07	-0.750			
0.2768	17717.49	3.8150	3.8149	-0.9104	25.11	0.07	-0.750			
0.2795	17888.20	3.8120	3.8120	-0.9117	25.11	0.07	-0.750			
0.2823	18064.58	3.8090	3.8090	-0.9155	25.11	0.07	-0.750			
0.2850	18241.69	3.8060	3.8059	-0.9194	25.12	0.08	-0.750			
0.2878	18418.57	3.8030	3.8030	-0.9169	25.12	0.08	-0.750			
0.2906	18596.18	3.8000	3.8001	-0.9213	25.12	0.08	-0.750			
0.2933	18773.15	3.7970	3.7970	-0.9284	25.13	0.09	-0.750			
0.2962	18954.13	3.7940	3.7939	-0.9224	25.13	0.09	-0.750			
0.2989	19129.70	3.7910	3.7908	-0.9179	25.13	0.09	-0.750			
0.3017	19307.43	3.7880	3.7884	-0.9161	25.14	0.10	-0.750			
0.3044	19481.61	3.7850	3.7848	-0.9163	25.14	0.10	-0.750			
0.3071	19656.30	3.7820	3.7820	-0.9141	25.14	0.10	-0.750			
0.3098	19830.28	3.7790	3.7790	-0.9146	25.15	0.11	-0.750			
0.3125	20002.25	3.7760	3.7759	-0.9135	25.15	0.11	-0.750			
0.3154	20184.45	3.7730	3.7732	-0.9197	25.15	0.11	-0.750			
0.3181	20358.86	3.7700	3.7700	-0.9271	25.16	0.12	-0.750			
0.3210	20545.56	3.7670	3.7669	-0.9041	25.16	0.12	-0.750			
0.3237	20718.02	3.7640	3.7639	-0.8764	25.16	0.12	-0.750			
0.3263	20884.55	3.7610	3.7613	-0.8569	25.17	0.13	-0.750			
0.3287	21039.65	3.7580	3.7583	-0.8531	25.17	0.13	-0.750			
0.3313	21200.17	3.7550	3.7547	-0.8680	25.17	0.13	-0.750			
0.3338	21366.38	3.7520	3.7518	-0.8765	25.18	0.14	-0.750			
0.3364	21532.60	3.7490	3.7490	-0.8895	25.18	0.14	-0.750			
0.3394	21719.20	3.7460	3.7465	-0.9287	25.18	0.14	-0.750			
0.3421	21894.35	3.7430	3.7428	-0.9334	25.18	0.14	-0.750			
0.3449	22073.40	3.7400	3.7399	-0.9285	25.18	0.14	-0.750			
0.3476	22249.09	3.7370	3.7370	-0.9275	25.17	0.13	-0.750			
0.3505	22428.93	3.7340	3.7340	-0.9476	25.17	0.13	-0.750			
0.3533	22610.17	3.7310	3.7309	-0.9528	25.17	0.13	-0.750			
0.3562	22793.81	3.7280	3.7279	-0.9674	25.17	0.13	-0.750			
0.3591	22982.46	3.7250	3.7249	-0.9726	25.18	0.14	-0.750			
0.3620	23168.96	3.7220	3.7220	-0.9760	25.18	0.14	-0.750			
0.3650	23360.90	3.7190	3.7194	-0.9932	25.18	0.14	-0.750			
0.3680	23552.33	3.7160	3.7159	-1.0055	25.18	0.14	-0.750			
0.3710	23744.32	3.7130	3.7129	-1.0133	25.17	0.13	-0.750			
0.3740	23938.23	3.7100	3.7099	-1.0174	25.17	0.13	-0.750			
0.3772	24138.74	3.7070	3.7078	-1.0388	25.17	0.13	-0.750	0.395	0.485	
0.3803	24337.36	3.7040	3.7039	-1.0546	25.17	0.13	-0.750			
0.3835	24541.13	3.7010	3.7009	-1.0616	25.17	0.13	-0.750			
0.3866	24743.95	3.6980	3.6979	-1.0747	25.17	0.13	-0.750			
0.3898	24946.38	3.6950	3.6953	-1.1019	25.17	0.13	-0.750			
0.3932	25166.73	3.6920	3.6919	-1.1200	25.17	0.13	-0.750			
0.3966	25385.37	3.6890	3.6888	-1.1351	25.16	0.12	-0.750			
0.4000	25596.85	3.6860	3.6861	-1.1774	25.16	0.12	-0.750			
0.4036	25830.39	3.6830	3.6830	-1.1898	25.16	0.12	-0.750			
0.4072	26063.21	3.6800	3.6798	-1.2057	25.15	0.11	-0.750			
0.4108	26293.16	3.6770	3.6769	-1.2229	25.15	0.11	-0.750			
0.4145	26526.55	3.6740	3.6748	-1.2499	25.14	0.10	-0.750			
0.4183	26773.72	3.6710	3.6709	-1.2912	25.13	0.09	-0.750			
0.4222	27021.65	3.6680	3.6679	-1.3165	25.13	0.09	-0.750			
0.4262	27276.23	3.6650	3.6648	-1.3525	25.12	0.08	-0.750			
0.4305	27550.02	3.6620	3.6619	-1.3898	25.11	0.07	-0.750			
0.4346	27816.67	3.6590	3.6589	-1.4285	25.11	0.07	-0.750			
0.4389	28092.01	3.6560	3.6562	-1.4798	25.10	0.06	-0.750			
0.4435	28382.94	3.6530	3.6525	-1.4969	25.09	0.05	-0.750			
0.4481	28676.27	3.6500	3.6502	-1.5378	25.09	0.05	-0.750			
0.4527	28972.39	3.6470	3.6474	-1.5694	25.08	0.04	-0.750			
0.4574	29271.24	3.6440	3.6442	-1.6062	25.07	0.03	-0.750			
0.4623	29589.59	3.6410	3.6409	-1.6359	25.06	0.02	-0.750			
0.4672	29901.13	3.6380	3.6376	-1.6573	25.06	0.02	-0.750			
0.4725	30236.84	3.6350	3.6346	-1.7253	25.05	0.01	-0.750			
0.4778	30578.12	3.6320	3.6319	-1.7647	25.04	-0.00	-0.750			
0.4831	30915.97	3.6290	3.6292	-1.7850	25.03	-0.01	-0.750			
0.4884	31260.10	3.6260	3.6261	-1.8107	25.01	-0.03	-0.750			
0.4939	31607.90	3.6230	3.6232	-1.8565	25.01	-0.03	-0.750			
0.4996	31976.61	3.6200	3.6202	-1.8931	25.00	-0.04	-0.750			
0.5052	32330.34	3.6170	3.6175	-1.9610	25.00	-0.04	-0.750			
0.5113	32722.19	3.6140	3.6142	-1.9844	24.99	-0.05	-0.750			
0.5173	33108.32	3.6110	3.6107	-2.0208	24.98	-0.06	-0.750			
0.5234	33496.07	3.6080	3.6083	-2.0523	24.97	-0.07	-0.750			
0.5297	33899.08	3.6050	3.6046	-2.0944	24.96	-0.08	-0.750			
0.5360	34302.62	3.6020	3.6024	-2.1657	24.95	-0.09	-0.750			
0.5423	34708.33	3.5990	3.5991	-2.1676	24.94	-0.10	-0.750			
0.5492	35150.92	3.5960	3.5956	-2.2276	24.93	-0.11	-0.750			
0.5559	35577.00	3.5930	3.5932	-2.2285	24.93	-0.11	-0.750			
0.5625	36003.19	3.5900	3.5902	-2.2608	24.92	-0.12	-0.750			
0.5695	36445.22	3.5870	3.5869	-2.2647	24.91	-0.13	-0.750			
0.5763	36885.52	3.5840	3.5836	-2.2875	24.90	-0.14	-0.750			
0.5833	37332.32	3.5810	3.5815	-2.2940	24.90	-0.14	-0.750			
0.5903	37776.36	3.5780	3.5782	-2.3480	24.89	-0.15	-0.750			
0.5974	38233.07	3.5750	3.5752	-2.3742	24.88	-0.16	-0.750			
0.6045	38690.71	3.5720	3.5717	-2.4139	24.88	-0.16	-0.750			
0.6116	39144.95	3.5690	3.5694	-2.4478	24.87	-0.17	-0.750			
0.6190	39619.02	3.5660	3.5661	-2.4519	24.87	-0.17	-0.750			
0.6265	40095.14	3.5630	3.5628	-2.4494	24.87	-0.17	-0.750			
0.6341	40581.80	3.5600	3.5596	-2.4271	24.86	-0.18	-0.750			
0.6413	41043.61	3.5570	3.5569	-2.3903	24.86	-0.18	-0.750			
0.6484	41499.67	3.5540	3.5545	-2.3427	24.86	-0.18	-0.750			
0.6553	41939.77	3.5510	3.5512	-2.3272	24.86	-0.18	-0.750			
0.6624	42391.91	3.5480	3.5482	-2.3148	24.86	-0.18	-0.750			
0.6691	42824.17	3.5450	3.5450	-2.2766	24.86	-0.18	-0.750			
0.6759	43260.77	3.5420	3.5423	-2.2806	24.86	-0.18	-0.750			
0.6828	43697.56	3.5390	3.5392	-2.2415	24.86	-0.18	-0.750			
0.6897	44139.14	3.5360	3.5358	-2.1574	24.86	-0.18	-0.750			
0.6961	44553.14	3.5330	3.5335	-2.1121	24.87	-0.17	-0.750			
0.7025	44959.33	3.5300	3.5300	-2.0417	24.88	-0.16	-0.750			
0.7085	45341.32	3.5270	3.5272	-1.9705	24.89	-0.15	-0.750			
0.7143	45712.43	3.5240	3.5244	-1.9090	24.90	-0.14	-0.750			
0.7200	46079.38	3.5210	3.5211	-1.8824	24.91	-0.13	-0.750			
0.7256	46439.51	3.5180	3.5185	-1.8494	24.92	-0.12	-0.750			
0.7311	46791.62	3.5150	3.5149	-1.7719	24.93	-0.11	-0.750			
0.7364	47128.58	3.5120	3.5124	-1.7404	24.94	-0.10	-0.750			
0.7415	47454.51	3.5090	3.5087	-1.6721	24.95	-0.09	-0.750			
0.7464	47772.01	3.5060	3.5058	-1.5897	24.97	-0.07	-0.750			
0.7511	48072.34	3.5030	3.5030	-1.5643	24.98	-0.06	-0.750			
