Ah_balance (normalized)	Ah_balance (mAh)	Voltage - fit (V)	Voltage -  interpolate (V)	dQ/dV (1/V)	Temperature (°C)	Temperature - diff (°C)	Current (C)	R_DC 0ms (mOhm)	R_DC 50ms (mOhm)	R_DC 50 ms PEC (mOhm)
0.4836	30948.80	3.7540	3.7537	1.4612	25.04	0.85	0.750			
0.4882	31244.87	3.7510	3.7511	1.6011	25.03	0.84	0.750			
0.4932	31567.53	3.7480	3.7480	1.6610	25.01	0.82	0.750			
0.4983	31892.69	3.7450	3.7452	1.6811	24.99	0.80	0.750			
0.5036	32229.93	3.7420	3.7421	1.7383	24.97	0.78	0.750			
0.5087	32554.02	3.7390	3.7391	1.7215	24.95	0.76	0.750			
0.5139	32890.72	3.7360	3.7363	1.7797	24.93	0.74	0.750			
0.5193	33234.39	3.7330	3.7333	1.8611	24.91	0.72	0.750			
0.5249	33593.51	3.7300	3.7302	1.9375	24.89	0.70	0.750			
0.5308	33973.58	3.7270	3.7273	1.9619	24.87	0.68	0.750			
0.5368	34352.57	3.7240	3.7241	2.0190	24.85	0.66	0.750			
0.5430	34753.01	3.7210	3.7209	2.1300	24.82	0.63	0.750			
0.5498	35189.36	3.7180	3.7179	2.1386	24.79	0.60	0.750			
0.5564	35609.52	3.7150	3.7153	2.1801	24.77	0.58	0.750			
0.5631	36035.31	3.7120	3.7115	2.2670	24.75	0.56	0.750			
0.5698	36469.27	3.7090	3.7088	2.3137	24.73	0.54	0.750			
0.5772	36942.74	3.7060	3.7058	2.4009	24.70	0.51	0.750			
0.5845	37410.21	3.7030	3.7031	2.5050	24.68	0.49	0.750			
0.5924	37910.99	3.7000	3.6999	2.6193	24.65	0.46	0.750			
0.5999	38394.75	3.6970	3.6968	2.6291	24.63	0.44	0.750			
0.6077	38893.47	3.6940	3.6939	2.6545	24.60	0.41	0.750			
0.6163	39441.75	3.6910	3.6907	2.7707	24.56	0.37	0.750			
0.6253	40021.89	3.6880	3.6883	2.8985	24.53	0.34	0.750			
0.6340	40574.52	3.6850	3.6847	2.9986	24.50	0.31	0.750			
0.6434	41178.74	3.6820	3.6817	3.0545	24.48	0.29	0.750			
0.6532	41804.47	3.6790	3.6787	3.2764	24.45	0.26	0.750			
0.6633	42453.95	3.6760	3.6759	3.4798	24.43	0.24	0.750			
0.6741	43141.42	3.6730	3.6730	3.5774	24.39	0.20	0.750			
0.6846	43813.78	3.6700	3.6701	3.5083	24.37	0.18	0.750			
0.6950	44477.54	3.6670	3.6670	3.1936	24.36	0.17	0.750			
0.7032	45004.82	3.6640	3.6638	2.6335	24.34	0.15	0.750			
0.7103	45462.02	3.6610	3.6605	2.2756	24.33	0.14	0.750			
0.7167	45870.01	3.6580	3.6580	2.0008	24.32	0.13	0.750			
0.7227	46252.97	3.6550	3.6547	1.9204	24.32	0.13	0.750			
0.7282	46602.47	3.6520	3.6516	1.7787	24.31	0.12	0.750			
0.7334	46937.00	3.6490	3.6491	1.6623	24.30	0.11	0.750			
0.7382	47241.65	3.6460	3.6459	1.4975	24.29	0.10	0.750			
0.7421	47493.47	3.6430	3.6432	1.3799	24.29	0.10	0.750			
0.7459	47739.53	3.6400	3.6403	1.3035	24.28	0.09	0.750			
0.7497	47978.25	3.6370	3.6373	1.2708	24.28	0.09	0.750			
0.7534	48216.91	3.6340	3.6342	1.2736	24.27	0.08	0.750			
0.7573	48465.19	3.6310	3.6311	1.2894	24.26	0.07	0.750			
0.7613	48721.87	3.6280	3.6280	1.3018	24.26	0.07	0.750			
0.7650	48962.10	3.6250	3.6251	1.2760	24.25	0.06	0.750			
0.7689	49211.67	3.6220	3.6221	1.2772	24.24	0.05	0.750			
0.7728	49457.12	3.6190	3.6188	1.2669	24.24	0.05	0.750			
0.7764	49691.80	3.6160	3.6162	1.2224	24.24	0.05	0.750			
0.7800	49920.27	3.6130	3.6132	1.2074	24.23	0.04	0.750			
0.7837	50154.50	3.6100	3.6098	1.2012	24.23	0.04	0.750			
0.7872	50378.16	3.6070	3.6072	1.1999	24.23	0.04	0.750			
0.7907	50605.79	3.6040	3.6042	1.2126	24.22	0.03	0.750			
0.7944	50841.43	3.6010	3.6012	1.2359	24.21	0.02	0.750			
0.7983	51090.86	3.5980	3.5978	1.2712	24.21	0.02	0.750			
0.8019	51322.75	3.5950	3.5951	1.2912	24.20	0.01	0.750			
0.8058	51573.23	3.5920	3.5920	1.3367	24.19	-0.00	0.750			
0.8100	51841.58	3.5890	3.5889	1.3696	24.18	-0.01	0.750			
0.8141	52101.08	3.5860	3.5861	1.3855	24.17	-0.02	0.750			
0.8183	52369.00	3.5830	3.5832	1.4357	24.17	-0.02	0.750			
0.8226	52644.96	3.5800	3.5799	1.4876	24.16	-0.03	0.750			
0.8270	52930.59	3.5770	3.5774	1.6051	24.15	-0.04	0.750			
0.8320	53248.42	3.5740	3.5734	1.7312	24.14	-0.05	0.750			
0.8375	53602.95	3.5710	3.5714	1.7507	24.13	-0.06	0.750			
0.8429	53944.40	3.5680	3.5681	1.7697	24.11	-0.08	0.750			
0.8479	54267.04	3.5650	3.5647	1.6426	24.10	-0.09	0.750			
0.8529	54587.27	3.5620	3.5619	1.6676	24.09	-0.10	0.750			
0.8579	54904.17	3.5590	3.5591	1.7073	24.08	-0.11	0.750			
0.8629	55228.58	3.5560	3.5563	1.7470	24.07	-0.12	0.750			
0.8683	55573.02	3.5530	3.5532	1.7567	24.05	-0.14	0.750			
0.8738	55922.79	3.5500	3.5501	1.7945	24.04	-0.15	0.750			
0.8792	56268.95	3.5470	3.5467	1.8522	24.03	-0.16	0.750			
0.8848	56628.01	3.5440	3.5437	1.9097	24.02	-0.17	0.750			
0.8913	57042.93	3.5410	3.5406	1.8603	24.01	-0.18	0.750			
0.8961	57350.75	3.5380	3.5382	1.4567	24.00	-0.19	0.750			
0.9003	57620.82	3.5350	3.5355	1.1937	24.01	-0.18	0.750			
0.9033	57810.58	3.5320	3.5318	0.8919	24.01	-0.18	0.750			
0.9050	57921.42	3.5290	3.5289	0.6573	24.01	-0.18	0.750			
0.9064	58012.24	3.5260	3.5258	0.5027	24.02	-0.17	0.750			
0.9076	58084.96	3.5230	3.5230	0.4112	24.02	-0.17	0.750			
0.9087	58154.08	3.5200	3.5199	0.3705	24.02	-0.17	0.750			
0.9097	58217.68	3.5170	3.5168	0.3396	24.02	-0.17	0.750			
0.9106	58279.58	3.5140	3.5142	0.3232	24.02	-0.17	0.750			
0.9116	58340.33	3.5110	3.5110	0.3116	24.03	-0.16	0.750			
0.9125	58398.52	3.5080	3.5080	0.3015	24.03	-0.16	0.750			
0.9134	58455.61	3.5050	3.5050	0.2934	24.03	-0.16	0.750			
0.9142	58509.52	3.5020	3.5020	0.2854	24.03	-0.16	0.750			
0.9151	58563.94	3.4990	3.4990	0.2792	24.03	-0.16	0.750			
0.9159	58617.05	3.4960	3.4960	0.2728	24.04	-0.15	0.750			
0.9167	58668.58	3.4930	3.4931	0.2675	24.04	-0.15	0.750			
0.9175	58719.36	3.4900	3.4900	0.2626	24.04	-0.15	0.750			
0.9183	58769.20	3.4870	3.4870	0.2574	24.04	-0.15	0.750			
0.9190	58817.80	3.4840	3.4839	0.2521	24.04	-0.15	0.750			
0.9198	58865.74	3.4810	3.4810	0.2482	24.05	-0.14	0.750			
0.9205	58913.18	3.4780	3.4780	0.2451	24.05	-0.14	0.750			
0.9212	58959.75	3.4750	3.4751	0.2414	24.05	-0.14	0.750			
0.9220	59005.90	3.4720	3.4720	0.2380	24.05	-0.14	0.750			
0.9227	59050.75	3.4690	3.4690	0.2339	24.05	-0.14	0.750			
0.9234	59095.48	3.4660	3.4660	0.2310	24.05	-0.14	0.750			
0.9241	59139.79	3.4630	3.4630	0.2283	24.06	-0.13	0.750			
0.9247	59183.27	3.4600	3.4601	0.2247	24.06	-0.13	0.750			
0.9254	59225.94	3.4570	3.4570	0.2217	24.06	-0.13	0.750			
0.9261	59268.03	3.4540	3.4540	0.2188	24.06	-0.13	0.750			
0.9267	59309.76	3.4510	3.4510	0.2160	24.06	-0.13	0.750			
0.9274	59350.99	3.4480	3.4480	0.2135	24.06	-0.13	0.750			
0.9280	59391.69	3.4450	3.4449	0.2112	24.06	-0.13	0.750			
0.9286	59432.35	3.4420	3.4420	0.2077	24.07	-0.12	0.750			
0.9293	59472.02	3.4390	3.4390	0.2049	24.07	-0.12	0.750			
0.9299	59511.00	3.4360	3.4360	0.2012	24.07	-0.12	0.750			
0.9305	59548.97	3.4330	3.4331	0.1995	24.07	-0.12	0.750			
0.9310	59586.80	3.4300	3.4299	0.1970	24.07	-0.12	0.750			
0.9316	59624.89	3.4270	3.4268	0.1937	24.07	-0.12	0.750			
0.9322	59661.80	3.4240	3.4240	0.1908	24.08	-0.11	0.750			
0.9328	59698.09	3.4210	3.4211	0.1885	24.08	-0.11	0.750			
0.9334	59734.45	3.4180	3.4181	0.1867	24.08	-0.11	0.750			
0.9339	59769.86	3.4150	3.4151	0.1831	24.08	-0.11	0.750			
0.9344	59804.48	3.4120	3.4118	0.1814	24.08	-0.11	0.750			
0.9350	59838.32	3.4090	3.4092	0.1795	24.08	-0.11	0.750			
0.9355	59873.03	3.4060	3.4058	0.1778	24.09	-0.10	0.750			
0.9360	59907.04	3.4030	3.4031	0.1765	24.09	-0.10	0.750			
0.9366	59941.33	3.4000	3.4000	0.1753	24.09	-0.10	0.750			
0.9371	59974.80	3.3970	3.3972	0.1724	24.09	-0.10	0.750			
0.9376	60007.83	3.3940	3.3939	0.1706	24.10	-0.09	0.750			
0.9381	60040.30	3.3910	3.3909	0.1676	24.10	-0.09	0.750			
0.9386	60071.90	3.3880	3.3880	0.1655	24.10	-0.09	0.750			
0.9391	60103.17	3.3850	3.3850	0.1635	24.10	-0.09	0.750			
0.9396	60134.76	3.3820	3.3819	0.1621	24.11	-0.08	0.750			
0.9401	60165.69	3.3790	3.3790	0.1601	24.11	-0.08	0.750			
0.9406	60196.11	3.3760	3.3760	0.1580	24.11	-0.08	0.750			
0.9410	60226.48	3.3730	3.3731	0.1567	24.11	-0.08	0.750			
0.9415	60256.25	3.3700	3.3700	0.1547	24.11	-0.08	0.750			
0.9420	60285.77	3.3670	3.3669	0.1528	24.12	-0.07	0.750			
0.9424	60314.69	3.3640	3.3640	0.1513	24.12	-0.07	0.750			
0.9429	60343.66	3.3610	3.3611	0.1495	24.12	-0.07	0.750			
0.9433	60372.33	3.3580	3.3580	0.1485	24.12	-0.07	0.750			
0.9438	60400.67	3.3550	3.3549	0.1468	24.13	-0.06	0.750			
0.9442	60428.74	3.3520	3.3520	0.1448	24.13	-0.06	0.750			
0.9446	60456.46	3.3490	3.3488	0.1429	24.13	-0.06	0.750			
0.9451	60483.67	3.3460	3.3460	0.1410	24.13	-0.06	0.750			
0.9455	60510.54	3.3430	3.3431	0.1389	24.13	-0.06	0.750			
0.9459	60536.79	3.3400	3.3400	0.1375	24.14	-0.05	0.750			
0.9463	60563.07	3.3370	3.3369	0.1362	24.14	-0.05	0.750			
0.9467	60588.93	3.3340	3.3339	0.1341	24.14	-0.05	0.750			
0.9471	60614.77	3.3310	3.3311	0.1324	24.14	-0.05	0.750			
0.9475	60640.21	3.3280	3.3281	0.1310	24.14	-0.05	0.750			
0.9479	60665.20	3.3250	3.3251	0.1296	24.14	-0.05	0.750			
0.9483	60689.90	3.3220	3.3221	0.1278	24.15	-0.04	0.750			
0.9487	60713.88	3.3190	3.3190	0.1269	24.15	-0.04	0.750			
0.9490	60737.65	3.3160	3.3161	0.1253	24.15	-0.04	0.750			
0.9494	60762.02	3.3130	3.3129	0.1242	24.15	-0.04	0.750			
0.9498	60785.82	3.3100	3.3100	0.1234	24.15	-0.04	0.750			
0.9501	60809.58	3.3070	3.3069	0.1217	24.15	-0.04	0.750			
0.9505	60833.19	3.3040	3.3042	0.1207	24.15	-0.04	0.750			
0.9509	60856.19	3.3010	3.3009	0.1185	24.16	-0.03	0.750			
0.9512	60878.98	3.2980	3.2980	0.1165	24.16	-0.03	0.750			
0.9516	60900.85	3.2950	3.2950	0.1155	24.16	-0.03	0.750			
0.9519	60922.31	3.2920	3.2921	0.1136	24.16	-0.03	0.750			
0.9523	60944.21	3.2890	3.2889	0.1124	24.16	-0.03	0.750			
0.9526	60965.68	3.2860	3.2859	0.1113	24.16	-0.03	0.750			
0.9529	60986.86	3.2830	3.2832	0.1102	24.16	-0.03	0.750			
0.9532	61007.92	3.2800	3.2800	0.1092	24.17	-0.02	0.750			
0.9536	61029.05	3.2770	3.2770	0.1082	24.17	-0.02	0.750			
0.9539	61049.67	3.2740	3.2739	0.1066	24.17	-0.02	0.750			
0.9542	61069.79	3.2710	3.2711	0.1050	24.17	-0.02	0.750			
0.9545	61089.84	3.2680	3.2680	0.1039	24.17	-0.02	0.750			
0.9548	61109.75	3.2650	3.2651	0.1029	24.17	-0.02	0.750			
0.9551	61129.39	3.2620	3.2619	0.1017	24.17	-0.02	0.750			
0.9554	61148.70	3.2590	3.2590	0.1001	24.17	-0.02	0.750			
0.9557	61167.82	3.2560	3.2560	0.0990	24.18	-0.01	0.750			
0.9560	61186.90	3.2530	3.2529	0.0977	24.18	-0.01	0.750			
0.9563	61205.51	3.2500	3.2501	0.0962	24.18	-0.01	0.750			
0.9566	61223.77	3.2470	3.2469	0.0949	24.18	-0.01	0.750			
0.9569	61241.87	3.2440	3.2441	0.0935	24.18	-0.01	0.750			
0.9572	61259.55	3.2410	3.2409	0.0922	24.18	-0.01	0.750			
0.9575	61277.15	3.2380	3.2380	0.0911	24.18	-0.01	0.750			
0.9577	61294.43	3.2350	3.2350	0.0901	24.18	-0.01	0.750			
0.9580	61311.66	3.2320	3.2321	0.0894	24.18	-0.01	0.750			
0.9583	61328.88	3.2290	3.2291	0.0883	24.19	-0.00	0.750			
0.9585	61345.73	3.2260	3.2259	0.0872	24.19	-0.00	0.750			
0.9588	61362.35	3.2230	3.2231	0.0862	24.19	-0.00	0.750			
0.9590	61378.79	3.2200	3.2200	0.0851	24.19	-0.00	0.750			
0.9593	61395.00	3.2170	3.2169	0.0840	24.19	0.00	0.750			
0.9595	61411.03	3.2140	3.2141	0.0830	24.19	0.00	0.750			
0.9598	61426.73	3.2110	3.2111	0.0817	24.19	0.00	0.750			
0.9600	61442.47	3.2080	3.2080	0.0806	24.19	0.00	0.750			
0.9603	61457.84	3.2050	3.2049	0.0795	24.19	0.00	0.750			
0.9605	61473.15	3.2020	3.2021	0.0785	24.19	0.00	0.750			
0.9608	61488.07	3.1990	3.1990	0.0772	24.20	0.01	0.750			
0.9610	61502.79	3.1960	3.1960	0.0760	24.20	0.01	0.750			
0.9612	61517.11	3.1930	3.1930	0.0750	24.20	0.01	0.750			
0.9614	61531.41	3.1900	3.1900	0.0740	24.20	0.01	0.750			
0.9616	61545.34	3.1870	3.1871	0.0728	24.20	0.01	0.750			
0.9619	61559.38	3.1840	3.1841	0.0716	24.20	0.01	0.750			
0.9621	61573.10	3.1810	3.1808	0.0706	24.20	0.01	0.750			
0.9623	61586.54	3.1780	3.1780	0.0694	24.20	0.01	0.750			
0.9625	61599.67	3.1750	3.1752	0.0686	24.20	0.01	0.750			
0.9627	61612.76	3.1720	3.1720	0.0676	24.20	0.01	0.750			
0.9629	61625.63	3.1690	3.1690	0.0665	24.20	0.01	0.750			
0.9631	61638.32	3.1660	3.1658	0.0655	24.21	0.02	0.750			
0.9633	61650.66	3.1630	3.1630	0.0642	24.21	0.02	0.750			
0.9635	61662.91	3.1600	3.1600	0.0633	24.21	0.02	0.750			
0.9637	61675.17	3.1570	3.1571	0.0626	24.21	0.02	0.750			
0.9639	61687.07	3.1540	3.1539	0.0614	24.21	0.02	0.750			
0.9640	61698.74	3.1510	3.1510	0.0601	24.21	0.02	0.750			
0.9642	61710.08	3.1480	3.1481	0.0589	24.21	0.02	0.750			
0.9644	61721.25	3.1450	3.1451	0.0579	24.21	0.02	0.750			
0.9646	61732.26	3.1420	3.1420	0.0568	24.21	0.02	0.750			
0.9647	61743.07	3.1390	3.1390	0.0558	24.21	0.02	0.750			
0.9649	61753.89	3.1360	3.1360	0.0545	24.21	0.02	0.750			
0.9651	61764.23	3.1330	3.1331	0.0532	24.21	0.02	0.750			
0.9652	61774.32	3.1300	3.1302	0.0519	24.21	0.02	0.750			
0.9654	61784.39	3.1270	3.1271	0.0508	24.21	0.02	0.750			
0.9655	61794.57	3.1240	3.1239	0.0484	24.22	0.03	0.750			
0.9657	61803.64	3.1210	3.1208	0.0460	24.22	0.03	0.750			
0.9658	61812.25	3.1180	3.1182	0.0437	24.22	0.03	0.750			
0.9660	61820.94	3.1150	3.1149	0.0421	24.22	0.03	0.750			
0.9661	61828.75	3.1120	3.1123	0.0393	24.22	0.03	0.750			
0.9662	61836.04	3.1090	3.1095	0.0366	24.22	0.03	0.750			
0.9663	61842.80	3.1060	3.1068	0.0338	24.22	0.03	0.750			
0.9664	61849.02	3.1030	3.1042	0.0311	24.22	0.03	0.750			
0.9665	61854.72	3.1000	3.1017	0.0283	24.22	0.03	0.750			
0.9666	61859.89	3.0970	3.0986	0.0255	24.22	0.03	0.750			
