Ah_balance (normalized)	Ah_balance (mAh)	Voltage - fit (V)	Voltage -  interpolate (V)	dQ/dV (1/V)	Temperature (°C)	Temperature - diff (°C)	Current (C)	R_DC 0ms (mOhm)	R_DC 50ms (mOhm)	R_DC 50 ms PEC (mOhm)
0.0003	21.70	4.1620	4.1619	-0.1256	25.03	0.02	-0.750			
0.0008	51.26	4.1590	4.1589	-0.1730	25.03	0.02	-0.750			
0.0014	89.15	4.1560	4.1559	-0.2141	25.02	0.01	-0.750			
0.0021	133.97	4.1530	4.1531	-0.2539	25.02	0.01	-0.750			
0.0029	186.17	4.1500	4.1501	-0.2958	25.02	0.01	-0.750			
0.0039	247.06	4.1470	4.1470	-0.3362	25.02	0.01	-0.750			
0.0049	316.22	4.1440	4.1439	-0.3715	25.02	0.01	-0.750			
0.0061	391.14	4.1410	4.1410	-0.4060	25.01	0.00	-0.750			
0.0074	473.56	4.1380	4.1382	-0.4407	25.01	-0.00	-0.750			
0.0088	561.96	4.1350	4.1348	-0.4694	25.01	-0.00	-0.750			
0.0102	655.27	4.1320	4.1320	-0.4982	25.00	-0.01	-0.750			
0.0118	753.12	4.1290	4.1290	-0.5266	25.00	-0.01	-0.750			
0.0134	856.32	4.1260	4.1261	-0.5585	25.00	-0.01	-0.750			
0.0151	969.26	4.1230	4.1229	-0.5769	24.99	-0.02	-0.750			
0.0169	1083.70	4.1200	4.1199	-0.5927	24.99	-0.02	-0.750			
0.0187	1199.43	4.1170	4.1170	-0.6069	24.98	-0.03	-0.750			
0.0206	1318.03	4.1140	4.1138	-0.6214	24.98	-0.03	-0.750			
0.0225	1437.02	4.1110	4.1109	-0.6324	24.98	-0.03	-0.750			
0.0243	1557.43	4.1080	4.1081	-0.6443	24.97	-0.04	-0.750			
0.0263	1682.73	4.1050	4.1050	-0.6579	24.97	-0.04	-0.750			
0.0284	1814.80	4.1020	4.1019	-0.6731	24.97	-0.04	-0.750			
0.0304	1946.69	4.0990	4.0990	-0.6767	24.96	-0.05	-0.750			
0.0324	2075.79	4.0960	4.0962	-0.6827	24.96	-0.05	-0.750			
0.0345	2208.04	4.0930	4.0930	-0.6850	24.96	-0.05	-0.750			
0.0365	2338.55	4.0900	4.0900	-0.6934	24.96	-0.05	-0.750			
0.0386	2471.16	4.0870	4.0870	-0.6947	24.96	-0.05	-0.750			
0.0407	2606.86	4.0840	4.0840	-0.7038	24.96	-0.05	-0.750			
0.0428	2742.25	4.0810	4.0810	-0.7064	24.96	-0.05	-0.750			
0.0450	2878.89	4.0780	4.0781	-0.7143	24.96	-0.05	-0.750			
0.0471	3014.60	4.0750	4.0750	-0.7176	24.96	-0.05	-0.750			
0.0492	3151.98	4.0720	4.0720	-0.7304	24.96	-0.05	-0.750			
0.0515	3294.52	4.0690	4.0689	-0.7307	24.96	-0.05	-0.750			
0.0537	3438.03	4.0660	4.0659	-0.7371	24.96	-0.05	-0.750			
0.0559	3579.12	4.0630	4.0630	-0.7366	24.96	-0.05	-0.750			
0.0581	3721.58	4.0600	4.0601	-0.7372	24.96	-0.05	-0.750			
0.0603	3861.46	4.0570	4.0569	-0.7374	24.96	-0.05	-0.750			
0.0625	4001.53	4.0540	4.0540	-0.7380	24.96	-0.05	-0.750			
0.0647	4142.34	4.0510	4.0510	-0.7404	24.96	-0.05	-0.750			
0.0670	4287.97	4.0480	4.0479	-0.7482	24.96	-0.05	-0.750			
0.0693	4432.67	4.0450	4.0452	-0.7498	24.96	-0.05	-0.750			
0.0715	4576.63	4.0420	4.0419	-0.7497	24.96	-0.05	-0.750			
0.0738	4720.51	4.0390	4.0390	-0.7515	24.96	-0.05	-0.750			
0.0760	4865.45	4.0360	4.0360	-0.7532	24.96	-0.05	-0.750			
0.0783	5009.52	4.0330	4.0330	-0.7517	24.96	-0.05	-0.750			
0.0806	5155.84	4.0300	4.0299	-0.7538	24.96	-0.05	-0.750			
0.0828	5300.25	4.0270	4.0272	-0.7587	24.96	-0.05	-0.750			
0.0851	5445.02	4.0240	4.0238	-0.7643	24.96	-0.05	-0.750			
0.0874	5592.49	4.0210	4.0209	-0.7694	24.97	-0.04	-0.750			
0.0897	5739.59	4.0180	4.0181	-0.7722	24.97	-0.04	-0.750			
0.0920	5891.04	4.0150	4.0150	-0.7726	24.98	-0.03	-0.750			
0.0944	6041.48	4.0120	4.0119	-0.7714	24.98	-0.03	-0.750			
0.0967	6188.09	4.0090	4.0090	-0.7696	24.98	-0.03	-0.750			
0.0990	6333.86	4.0060	4.0059	-0.7693	24.98	-0.03	-0.750			
0.1013	6480.07	4.0030	4.0030	-0.7670	24.98	-0.03	-0.750			
0.1036	6627.65	4.0000	4.0000	-0.7722	24.98	-0.03	-0.750			
0.1059	6777.10	3.9970	3.9970	-0.7787	24.98	-0.03	-0.750			
0.1083	6928.63	3.9940	3.9940	-0.7817	24.98	-0.03	-0.750			
0.1106	7076.84	3.9910	3.9910	-0.7878	24.99	-0.02	-0.750			
0.1129	7227.96	3.9880	3.9880	-0.7941	24.99	-0.02	-0.750			
0.1153	7381.73	3.9850	3.9850	-0.7953	24.99	-0.02	-0.750			
0.1178	7536.57	3.9820	3.9818	-0.7964	25.00	-0.01	-0.750			
0.1202	7690.16	3.9790	3.9792	-0.7960	25.00	-0.01	-0.750			
0.1225	7842.99	3.9760	3.9760	-0.7936	25.00	-0.01	-0.750			
0.1249	7996.35	3.9730	3.9729	-0.7991	25.00	-0.01	-0.750			
0.1273	8147.93	3.9700	3.9700	-0.7964	25.01	-0.00	-0.750			
0.1297	8299.86	3.9670	3.9669	-0.7992	25.01	-0.00	-0.750			
0.1321	8454.64	3.9640	3.9644	-0.8012	25.01	-0.00	-0.750			
0.1345	8609.29	3.9610	3.9608	-0.8034	25.01	0.00	-0.750			
0.1369	8762.40	3.9580	3.9581	-0.8051	25.01	0.00	-0.750			
0.1393	8916.36	3.9550	3.9550	-0.8048	25.02	0.01	-0.750			
0.1418	9073.98	3.9520	3.9519	-0.8112	25.02	0.01	-0.750			
0.1442	9228.29	3.9490	3.9490	-0.8072	25.02	0.01	-0.750			
0.1466	9382.63	3.9460	3.9461	-0.8067	25.02	0.01	-0.750			
0.1490	9537.05	3.9430	3.9430	-0.8148	25.02	0.01	-0.750			
0.1515	9693.41	3.9400	3.9399	-0.8155	25.03	0.02	-0.750			
0.1539	9850.59	3.9370	3.9369	-0.8186	25.03	0.02	-0.750			
0.1564	10009.68	3.9340	3.9340	-0.8217	25.03	0.02	-0.750			
0.1589	10167.93	3.9310	3.9310	-0.8225	25.03	0.02	-0.750			
0.1614	10327.06	3.9280	3.9280	-0.8247	25.04	0.03	-0.750			
0.1638	10485.14	3.9250	3.9249	-0.8225	25.04	0.03	-0.750			
0.1663	10641.12	3.9220	3.9220	-0.8175	25.04	0.03	-0.750			
0.1688	10800.09	3.9190	3.9191	-0.8228	25.05	0.04	-0.750			
0.1712	10957.17	3.9160	3.9158	-0.8209	25.05	0.04	-0.750			
0.1737	11114.23	3.9130	3.9130	-0.8258	25.06	0.05	-0.750			
0.1761	11272.22	3.9100	3.9100	-0.8252	25.06	0.05	-0.750			
0.1786	11430.14	3.9070	3.9070	-0.8244	25.06	0.05	-0.750			
0.1811	11591.45	3.9040	3.9040	-0.8311	25.07	0.06	-0.750			
0.1836	11751.75	3.9010	3.9009	-0.8301	25.07	0.06	-0.750			
0.1861	11910.74	3.8980	3.8980	-0.8293	25.08	0.07	-0.750			
0.1886	12072.60	3.8950	3.8950	-0.8150	25.08	0.07	-0.750			
0.1910	12226.53	3.8920	3.8921	-0.8051	25.08	0.07	-0.750			
0.1934	12380.32	3.8890	3.8890	-0.8041	25.09	0.08	-0.750			
0.1958	12532.05	3.8860	3.8857	-0.8023	25.09	0.08	-0.750			
0.1982	12682.26	3.8830	3.8829	-0.8106	25.09	0.08	-0.750			
0.2006	12839.28	3.8800	3.8799	-0.8112	25.09	0.08	-0.750			
0.2031	12996.52	3.8770	3.8770	-0.8169	25.10	0.09	-0.750			
0.2056	13157.41	3.8740	3.8736	-0.8251	25.10	0.09	-0.750			
0.2080	13314.72	3.8710	3.8711	-0.8243	25.10	0.09	-0.750			
0.2105	13472.23	3.8680	3.8679	-0.8306	25.11	0.10	-0.750			
0.2130	13631.34	3.8650	3.8650	-0.8269	25.11	0.10	-0.750			
0.2154	13788.77	3.8620	3.8620	-0.8192	25.11	0.10	-0.750			
0.2180	13952.70	3.8590	3.8589	-0.8236	25.12	0.11	-0.750			
0.2205	14110.61	3.8560	3.8561	-0.8188	25.12	0.11	-0.750			
0.2229	14266.21	3.8530	3.8530	-0.8135	25.13	0.12	-0.750			
0.2253	14420.58	3.8500	3.8500	-0.8120	25.13	0.12	-0.750			
0.2278	14577.70	3.8470	3.8468	-0.7992	25.13	0.12	-0.750			
0.2302	14732.24	3.8440	3.8440	-0.7997	25.14	0.13	-0.750			
0.2326	14884.90	3.8410	3.8413	-0.8022	25.14	0.13	-0.750			
0.2350	15038.12	3.8380	3.8380	-0.8003	25.15	0.14	-0.750			
0.2374	15191.70	3.8350	3.8348	-0.8095	25.15	0.14	-0.750			
0.2398	15347.04	3.8320	3.8320	-0.7982	25.16	0.15	-0.750			
0.2423	15505.44	3.8290	3.8289	-0.7967	25.16	0.15	-0.750			
0.2446	15656.93	3.8260	3.8266	-0.7908	25.17	0.16	-0.750			
0.2470	15806.52	3.8230	3.8229	-0.7808	25.17	0.16	-0.750			
0.2493	15953.64	3.8200	3.8199	-0.7768	25.17	0.16	-0.750			
0.2515	16099.01	3.8170	3.8169	-0.7714	25.18	0.17	-0.750			
0.2539	16251.21	3.8140	3.8140	-0.7760	25.18	0.17	-0.750			
0.2563	16400.09	3.8110	3.8109	-0.7758	25.18	0.17	-0.750			
0.2586	16550.73	3.8080	3.8079	-0.7715	25.18	0.17	-0.750			
0.2609	16695.30	3.8050	3.8050	-0.7650	25.19	0.18	-0.750			
0.2631	16840.28	3.8020	3.8019	-0.7594	25.19	0.18	-0.750			
0.2654	16984.46	3.7990	3.7991	-0.7578	25.19	0.18	-0.750			
0.2677	17131.75	3.7960	3.7959	-0.7630	25.20	0.19	-0.750			
0.2700	17279.49	3.7930	3.7932	-0.7658	25.20	0.19	-0.750			
0.2723	17425.78	3.7900	3.7900	-0.7672	25.20	0.19	-0.750			
0.2746	17574.90	3.7870	3.7870	-0.7761	25.20	0.19	-0.750			
0.2769	17724.02	3.7840	3.7840	-0.7758	25.20	0.19	-0.750			
0.2793	17874.73	3.7810	3.7809	-0.7737	25.20	0.19	-0.750			
0.2816	18022.10	3.7780	3.7779	-0.7719	25.20	0.19	-0.750			
0.2839	18169.60	3.7750	3.7750	-0.7742	25.20	0.19	-0.750			
0.2862	18317.08	3.7720	3.7719	-0.7783	25.21	0.20	-0.750			
0.2885	18465.20	3.7690	3.7690	-0.7804	25.21	0.20	-0.750			
0.2909	18615.35	3.7660	3.7660	-0.7878	25.21	0.20	-0.750			
0.2933	18769.56	3.7630	3.7630	-0.7974	25.22	0.21	-0.750			
0.2957	18923.57	3.7600	3.7601	-0.8057	25.22	0.21	-0.750			
0.2981	19076.80	3.7570	3.7570	-0.8146	25.22	0.21	-0.750			
0.3006	19236.81	3.7540	3.7539	-0.8137	25.22	0.21	-0.750			
0.3030	19392.30	3.7510	3.7510	-0.8200	25.22	0.21	-0.750			
0.3055	19550.03	3.7480	3.7480	-0.8319	25.22	0.21	-0.750			
0.3080	19711.03	3.7450	3.7449	-0.8392	25.22	0.21	-0.750			
0.3105	19872.97	3.7420	3.7418	-0.8573	25.22	0.21	-0.750			
0.3131	20039.64	3.7390	3.7390	-0.8627	25.22	0.21	-0.750			
0.3157	20206.85	3.7360	3.7359	-0.8712	25.22	0.21	-0.750			
0.3184	20378.75	3.7330	3.7329	-0.8834	25.22	0.21	-0.750			
0.3210	20544.12	3.7300	3.7298	-0.8905	25.22	0.21	-0.750			
0.3237	20715.66	3.7270	3.7269	-0.9008	25.22	0.21	-0.750			
0.3264	20888.75	3.7240	3.7240	-0.9073	25.21	0.20	-0.750			
0.3291	21065.20	3.7210	3.7210	-0.9263	25.21	0.20	-0.750			
0.3319	21244.70	3.7180	3.7181	-0.9442	25.21	0.20	-0.750			
0.3348	21425.52	3.7150	3.7149	-0.9574	25.21	0.20	-0.750			
0.3377	21612.76	3.7120	3.7119	-0.9681	25.21	0.20	-0.750			
0.3406	21796.56	3.7090	3.7090	-0.9822	25.20	0.19	-0.750			
0.3436	21989.51	3.7060	3.7060	-1.0015	25.20	0.19	-0.750			
0.3466	22184.89	3.7030	3.7029	-1.0175	25.20	0.19	-0.750			
0.3498	22384.09	3.7000	3.6998	-1.0189	25.19	0.18	-0.750			
0.3528	22577.78	3.6970	3.6972	-1.0237	25.19	0.18	-0.750	0.342	0.489	
0.3558	22773.60	3.6940	3.6940	-1.0345	25.18	0.17	-0.750			
0.3590	22974.02	3.6910	3.6908	-1.0648	25.18	0.17	-0.750			
0.3621	23176.81	3.6880	3.6879	-1.0827	25.18	0.17	-0.750			
0.3654	23388.41	3.6850	3.6848	-1.0955	25.17	0.16	-0.750			
0.3687	23599.33	3.6820	3.6823	-1.1121	25.17	0.16	-0.750			
0.3722	23823.49	3.6790	3.6790	-1.1505	25.16	0.15	-0.750			
0.3757	24042.46	3.6760	3.6759	-1.1588	25.16	0.15	-0.750			
0.3791	24263.30	3.6730	3.6729	-1.1698	25.15	0.14	-0.750			
0.3826	24488.42	3.6700	3.6702	-1.1960	25.14	0.13	-0.750			
0.3863	24726.14	3.6670	3.6669	-1.2196	25.13	0.12	-0.750			
0.3901	24963.79	3.6640	3.6639	-1.2436	25.13	0.12	-0.750			
0.3938	25202.93	3.6610	3.6610	-1.2603	25.12	0.11	-0.750			
0.3976	25447.78	3.6580	3.6578	-1.2829	25.12	0.11	-0.750			
0.4015	25696.23	3.6550	3.6550	-1.3010	25.11	0.10	-0.750			
0.4054	25942.99	3.6520	3.6520	-1.3298	25.10	0.09	-0.750			
0.4094	26201.64	3.6490	3.6489	-1.3443	25.10	0.09	-0.750			
0.4135	26466.65	3.6460	3.6459	-1.3711	25.09	0.08	-0.750			
0.4176	26729.02	3.6430	3.6429	-1.4061	25.08	0.07	-0.750			
0.4219	27002.59	3.6400	3.6398	-1.4309	25.08	0.07	-0.750			
0.4262	27279.97	3.6370	3.6369	-1.4712	25.07	0.06	-0.750			
0.4307	27567.13	3.6340	3.6339	-1.4894	25.06	0.05	-0.750			
0.4353	27856.12	3.6310	3.6309	-1.5096	25.06	0.05	-0.750			
0.4399	28153.82	3.6280	3.6278	-1.5421	25.05	0.04	-0.750			
0.4445	28447.50	3.6250	3.6251	-1.5688	25.04	0.03	-0.750			
0.4492	28747.03	3.6220	3.6221	-1.5789	25.03	0.02	-0.750			
0.4541	29061.97	3.6190	3.6188	-1.6333	25.02	0.01	-0.750			
0.4590	29376.39	3.6160	3.6158	-1.6545	25.02	0.01	-0.750			
0.4641	29700.35	3.6130	3.6130	-1.7086	25.01	-0.00	-0.750			
0.4693	30033.32	3.6100	3.6103	-1.7276	25.00	-0.01	-0.750			
0.4745	30369.14	3.6070	3.6072	-1.7546	25.00	-0.01	-0.750			
0.4799	30713.51	3.6040	3.6041	-1.7715	24.99	-0.02	-0.750			
0.4852	31053.05	3.6010	3.6007	-1.8057	24.99	-0.02	-0.750			
0.4907	31404.77	3.5980	3.5977	-1.8637	24.98	-0.03	-0.750			
0.4964	31768.65	3.5950	3.5947	-1.8964	24.98	-0.03	-0.750			
0.5022	32141.88	3.5920	3.5919	-1.9632	24.97	-0.04	-0.750			
0.5081	32516.31	3.5890	3.5890	-1.9957	24.97	-0.04	-0.750			
0.5141	32903.86	3.5860	3.5859	-2.0229	24.96	-0.05	-0.750			
0.5202	33292.15	3.5830	3.5832	-2.0178	24.96	-0.05	-0.750			
0.5263	33682.87	3.5800	3.5801	-2.0741	24.95	-0.06	-0.750			
0.5325	34081.54	3.5770	3.5768	-2.0526	24.95	-0.06	-0.750			
0.5387	34474.64	3.5740	3.5738	-2.0407	24.94	-0.07	-0.750			
0.5448	34870.35	3.5710	3.5715	-2.0492	24.94	-0.07	-0.750			
0.5510	35265.03	3.5680	3.5682	-2.0931	24.94	-0.07	-0.750			
0.5574	35671.41	3.5650	3.5651	-2.1143	24.94	-0.07	-0.750			
0.5638	36082.76	3.5620	3.5617	-2.1441	24.94	-0.07	-0.750			
0.5700	36481.98	3.5590	3.5592	-2.1016	24.94	-0.07	-0.750			
0.5765	36896.35	3.5560	3.5561	-2.0880	24.94	-0.07	-0.750			
0.5827	37294.64	3.5530	3.5532	-2.1139	24.94	-0.07	-0.750			
0.5890	37697.09	3.5500	3.5504	-2.0908	24.95	-0.06	-0.750			
0.5953	38098.17	3.5470	3.5468	-2.0380	24.96	-0.05	-0.750			
0.6013	38484.37	3.5440	3.5444	-2.0417	24.96	-0.05	-0.750			
0.6074	38872.38	3.5410	3.5411	-1.9872	24.96	-0.05	-0.750			
0.6135	39260.86	3.5380	3.5377	-1.9468	24.97	-0.04	-0.750			
0.6191	39625.57	3.5350	3.5351	-1.9099	24.98	-0.03	-0.750			
0.6248	39989.41	3.5320	3.5325	-1.8657	24.99	-0.02	-0.750			
0.6304	40346.42	3.5290	3.5291	-1.8483	25.00	-0.01	-0.750			
0.6358	40694.10	3.5260	3.5259	-1.7973	25.01	-0.00	-0.750			
0.6413	41042.68	3.5230	3.5228	-1.7859	25.02	0.01	-0.750			
0.6467	41388.86	3.5200	3.5197	-1.7519	25.03	0.02	-0.750			
0.6518	41715.08	3.5170	3.5170	-1.7226	25.05	0.04	-0.750			
0.6570	42049.38	3.5140	3.5144	-1.6610	25.06	0.05	-0.750			
0.6620	42367.52	3.5110	3.5110	-1.6285	25.08	0.07	-0.750			
0.6668	42675.62	3.5080	3.5081	-1.5796	25.09	0.08	-0.750			
0.6714	42970.51	3.5050	3.5048	-1.5254	25.11	0.10	-0.750			
0.6760	43262.76	3.5020	3.5019	-1.4848	25.13	0.12	-0.750			
0.6803	43536.77	3.4990	3.4988	-1.4439	25.14	0.13	-0.750			
0.6845	43807.06	3.4960	3.4959	-1.4031	25.16	0.15	-0.750			
0.6887	44079.89	3.4930	3.4928	-1.3674	25.18	0.17	-0.750			
0.6926	44329.45	3.4900	3.4900	-1.3226	25.19	0.18	-0.750			
0.6967	44585.74	3.4870	3.4868	-1.2692	25.21	0.20	-0.750			
0.7004	44822.55	3.4840	3.4840	-1.1707	25.22	0.21	-0.750			
