Ah_balance (normalized)	Ah_balance (mAh)	Voltage - fit (V)	Voltage -  interpolate (V)	dQ/dV (1/V)	Temperature (°C)	Temperature - diff (°C)	Current (C)	R_DC 0ms (mOhm)	R_DC 50ms (mOhm)	R_DC 50 ms PEC (mOhm)
0.0002	13.52	4.1610	4.1609	-0.1083	25.15	0.01	-0.750			
0.0006	38.63	4.1580	4.1580	-0.1508	25.15	0.01	-0.750			
0.0011	71.45	4.1550	4.1549	-0.1943	25.15	0.01	-0.750			
0.0018	113.40	4.1520	4.1520	-0.2359	25.15	0.01	-0.750			
0.0025	163.01	4.1490	4.1489	-0.2747	25.14	0.00	-0.750			
0.0035	221.05	4.1460	4.1459	-0.3139	25.14	0.00	-0.750			
0.0045	285.12	4.1430	4.1429	-0.3449	25.14	-0.00	-0.750			
0.0055	355.05	4.1400	4.1400	-0.3809	25.14	-0.00	-0.750			
0.0067	430.75	4.1370	4.1372	-0.4154	25.13	-0.01	-0.750			
0.0080	512.12	4.1340	4.1339	-0.4539	25.13	-0.01	-0.750			
0.0094	604.77	4.1310	4.1310	-0.4884	25.13	-0.01	-0.750			
0.0110	703.72	4.1280	4.1279	-0.5169	25.12	-0.02	-0.750			
0.0126	807.13	4.1250	4.1252	-0.5409	25.12	-0.02	-0.750			
0.0143	916.73	4.1220	4.1220	-0.5664	25.12	-0.02	-0.750			
0.0160	1026.33	4.1190	4.1190	-0.5798	25.11	-0.03	-0.750			
0.0178	1138.77	4.1160	4.1160	-0.5921	25.11	-0.03	-0.750			
0.0196	1254.00	4.1130	4.1130	-0.6015	25.10	-0.04	-0.750			
0.0214	1372.08	4.1100	4.1098	-0.6174	25.10	-0.04	-0.750			
0.0233	1491.34	4.1070	4.1071	-0.6327	25.09	-0.05	-0.750			
0.0252	1614.75	4.1040	4.1039	-0.6406	25.09	-0.05	-0.750			
0.0272	1738.51	4.1010	4.1009	-0.6509	25.08	-0.06	-0.750			
0.0291	1864.89	4.0980	4.0984	-0.6660	25.08	-0.06	-0.750			
0.0311	1993.44	4.0950	4.0947	-0.6775	25.08	-0.06	-0.750			
0.0332	2123.08	4.0920	4.0920	-0.6921	25.07	-0.07	-0.750			
0.0353	2256.86	4.0890	4.0891	-0.6966	25.07	-0.07	-0.750			
0.0374	2395.80	4.0860	4.0860	-0.7086	25.07	-0.07	-0.750			
0.0396	2533.37	4.0830	4.0826	-0.7068	25.06	-0.08	-0.750			
0.0417	2667.59	4.0800	4.0809	-0.7065	25.06	-0.08	-0.750			
0.0438	2802.22	4.0770	4.0771	-0.7090	25.06	-0.08	-0.750			
0.0459	2937.10	4.0740	4.0739	-0.7154	25.06	-0.08	-0.750			
0.0481	3075.37	4.0710	4.0709	-0.7175	25.06	-0.08	-0.750			
0.0502	3213.61	4.0680	4.0681	-0.7260	25.06	-0.08	-0.750			
0.0524	3354.14	4.0650	4.0650	-0.7333	25.06	-0.08	-0.750			
0.0546	3496.39	4.0620	4.0621	-0.7315	25.06	-0.08	-0.750			
0.0568	3635.06	4.0590	4.0590	-0.7312	25.06	-0.08	-0.750			
0.0590	3775.71	4.0560	4.0560	-0.7385	25.06	-0.08	-0.750			
0.0612	3918.30	4.0530	4.0531	-0.7383	25.06	-0.08	-0.750			
0.0635	4062.57	4.0500	4.0498	-0.7426	25.06	-0.08	-0.750			
0.0657	4204.78	4.0470	4.0470	-0.7416	25.06	-0.08	-0.750			
0.0679	4346.95	4.0440	4.0439	-0.7418	25.06	-0.08	-0.750			
0.0701	4484.59	4.0410	4.0411	-0.7611	25.06	-0.08	-0.750			
0.0724	4633.47	4.0380	4.0379	-0.7552	25.06	-0.08	-0.750			
0.0747	4779.28	4.0350	4.0348	-0.7548	25.05	-0.09	-0.750			
0.0770	4928.45	4.0320	4.0318	-0.7615	25.05	-0.09	-0.750			
0.0793	5073.86	4.0290	4.0297	-0.7585	25.05	-0.09	-0.750			
0.0815	5219.05	4.0260	4.0258	-0.7591	25.05	-0.09	-0.750			
0.0838	5363.52	4.0230	4.0227	-0.7560	25.05	-0.09	-0.750			
0.0860	5506.80	4.0200	4.0201	-0.7600	25.06	-0.08	-0.750			
0.0883	5652.03	4.0170	4.0171	-0.7620	25.06	-0.08	-0.750			
0.0906	5798.68	4.0140	4.0141	-0.7684	25.06	-0.08	-0.750			
0.0929	5946.02	4.0110	4.0109	-0.7705	25.06	-0.08	-0.750			
0.0952	6090.04	4.0080	4.0079	-0.7782	25.06	-0.08	-0.750			
0.0976	6244.62	4.0050	4.0050	-0.7760	25.06	-0.08	-0.750			
0.0999	6395.57	4.0020	4.0019	-0.7801	25.07	-0.07	-0.750			
0.1023	6545.95	3.9990	3.9989	-0.7775	25.07	-0.07	-0.750			
0.1046	6693.97	3.9960	3.9961	-0.7696	25.07	-0.07	-0.750			
0.1068	6837.87	3.9930	3.9929	-0.7767	25.07	-0.07	-0.750			
0.1092	6985.76	3.9900	3.9900	-0.7777	25.07	-0.07	-0.750			
0.1115	7135.78	3.9870	3.9870	-0.7726	25.08	-0.06	-0.750			
0.1139	7290.18	3.9840	3.9839	-0.7841	25.08	-0.06	-0.750			
0.1162	7439.99	3.9810	3.9811	-0.7805	25.08	-0.06	-0.750			
0.1186	7590.26	3.9780	3.9780	-0.7791	25.08	-0.06	-0.750			
0.1209	7736.15	3.9750	3.9749	-0.7853	25.08	-0.06	-0.750			
0.1232	7886.29	3.9720	3.9719	-0.7874	25.09	-0.05	-0.750			
0.1256	8039.52	3.9690	3.9689	-0.7955	25.09	-0.05	-0.750			
0.1280	8194.22	3.9660	3.9659	-0.7964	25.09	-0.05	-0.750			
0.1305	8349.41	3.9630	3.9631	-0.7983	25.09	-0.05	-0.750			
0.1328	8501.83	3.9600	3.9599	-0.7989	25.10	-0.04	-0.750			
0.1352	8653.65	3.9570	3.9570	-0.7954	25.10	-0.04	-0.750			
0.1376	8805.25	3.9540	3.9539	-0.7869	25.10	-0.04	-0.750			
0.1400	8957.27	3.9510	3.9510	-0.7925	25.11	-0.03	-0.750			
0.1423	9110.17	3.9480	3.9481	-0.7965	25.11	-0.03	-0.750			
0.1447	9262.56	3.9450	3.9450	-0.7978	25.11	-0.03	-0.750			
0.1472	9419.26	3.9420	3.9419	-0.8151	25.11	-0.03	-0.750			
0.1497	9578.35	3.9390	3.9388	-0.8142	25.12	-0.02	-0.750			
0.1521	9737.02	3.9360	3.9358	-0.8166	25.12	-0.02	-0.750			
0.1546	9896.41	3.9330	3.9327	-0.8194	25.12	-0.02	-0.750			
0.1570	10049.10	3.9300	3.9299	-0.8167	25.12	-0.02	-0.750			
0.1595	10205.56	3.9270	3.9270	-0.8115	25.13	-0.01	-0.750			
0.1618	10354.93	3.9240	3.9240	-0.7968	25.13	-0.01	-0.750			
0.1643	10517.01	3.9210	3.9210	-0.8172	25.14	-0.00	-0.750			
0.1668	10673.10	3.9180	3.9184	-0.8190	25.14	0.00	-0.750			
0.1692	10829.29	3.9150	3.9150	-0.8141	25.14	0.00	-0.750			
0.1716	10985.59	3.9120	3.9119	-0.8174	25.15	0.01	-0.750			
0.1741	11144.17	3.9090	3.9089	-0.8136	25.15	0.01	-0.750			
0.1766	11302.01	3.9060	3.9060	-0.8189	25.16	0.02	-0.750			
0.1790	11457.13	3.9030	3.9033	-0.8193	25.16	0.02	-0.750			
0.1815	11613.54	3.9000	3.9000	-0.8204	25.16	0.02	-0.750			
0.1839	11771.68	3.8970	3.8968	-0.8359	25.16	0.02	-0.750			
0.1865	11935.10	3.8940	3.8939	-0.8305	25.17	0.03	-0.750			
0.1890	12097.63	3.8910	3.8909	-0.8321	25.17	0.03	-0.750			
0.1915	12257.10	3.8880	3.8888	-0.8244	25.17	0.03	-0.750			
0.1940	12414.29	3.8850	3.8847	-0.8148	25.17	0.03	-0.750			
0.1964	12567.62	3.8820	3.8820	-0.8115	25.18	0.04	-0.750			
0.1987	12718.36	3.8790	3.8790	-0.8036	25.18	0.04	-0.750			
0.2012	12877.16	3.8760	3.8759	-0.8120	25.19	0.05	-0.750			
0.2036	13033.06	3.8730	3.8731	-0.8130	25.19	0.05	-0.750			
0.2061	13188.38	3.8700	3.8700	-0.8117	25.19	0.05	-0.750			
0.2085	13343.30	3.8670	3.8669	-0.8165	25.20	0.06	-0.750			
0.2110	13501.39	3.8640	3.8640	-0.8103	25.20	0.06	-0.750			
0.2134	13657.26	3.8610	3.8610	-0.8045	25.20	0.06	-0.750			
0.2158	13813.59	3.8580	3.8581	-0.8053	25.21	0.07	-0.750			
0.2182	13967.55	3.8550	3.8550	-0.7990	25.21	0.07	-0.750			
0.2206	14116.89	3.8520	3.8519	-0.7965	25.21	0.07	-0.750			
0.2230	14270.79	3.8490	3.8490	-0.7904	25.22	0.08	-0.750			
0.2253	14421.34	3.8460	3.8460	-0.7839	25.22	0.08	-0.750			
0.2277	14575.68	3.8430	3.8429	-0.7915	25.22	0.08	-0.750			
0.2301	14726.84	3.8400	3.8399	-0.7799	25.22	0.08	-0.750			
0.2324	14874.99	3.8370	3.8370	-0.7717	25.23	0.09	-0.750			
0.2347	15021.97	3.8340	3.8339	-0.7692	25.23	0.09	-0.750			
0.2370	15166.70	3.8310	3.8311	-0.7639	25.24	0.10	-0.750			
0.2393	15314.86	3.8280	3.8280	-0.7694	25.24	0.10	-0.750			
0.2416	15462.43	3.8250	3.8251	-0.7650	25.25	0.11	-0.750			
0.2439	15612.28	3.8220	3.8219	-0.7555	25.25	0.11	-0.750			
0.2462	15759.74	3.8190	3.8190	-0.7435	25.26	0.12	-0.750			
0.2484	15894.84	3.8160	3.8162	-0.7691	25.26	0.12	-0.750			
0.2506	16039.45	3.8130	3.8132	-0.7778	25.26	0.12	-0.750			
0.2530	16192.35	3.8100	3.8094	-0.7882	25.27	0.13	-0.750			
0.2554	16347.22	3.8070	3.8080	-0.7960	25.27	0.13	-0.750			
0.2579	16503.03	3.8040	3.8043	-0.8077	25.27	0.13	-0.750			
0.2604	16663.36	3.8010	3.8010	-0.8019	25.28	0.14	-0.750			
0.2628	16817.12	3.7980	3.7979	-0.7783	25.28	0.14	-0.750			
0.2650	16963.12	3.7950	3.7947	-0.7699	25.28	0.14	-0.750			
0.2674	17110.65	3.7920	3.7921	-0.7641	25.28	0.14	-0.750			
0.2696	17255.62	3.7890	3.7889	-0.7657	25.28	0.14	-0.750			
0.2719	17401.79	3.7860	3.7860	-0.7715	25.29	0.15	-0.750			
0.2742	17547.23	3.7830	3.7830	-0.7660	25.29	0.15	-0.750			
0.2766	17699.99	3.7800	3.7799	-0.7806	25.30	0.16	-0.750			
0.2789	17852.38	3.7770	3.7773	-0.7777	25.30	0.16	-0.750			
0.2812	17999.76	3.7740	3.7740	-0.7783	25.30	0.16	-0.750			
0.2836	18148.56	3.7710	3.7711	-0.7869	25.31	0.17	-0.750			
0.2859	18297.97	3.7680	3.7678	-0.7893	25.31	0.17	-0.750			
0.2883	18449.86	3.7650	3.7648	-0.8001	25.31	0.17	-0.750			
0.2907	18603.76	3.7620	3.7621	-0.8093	25.32	0.18	-0.750			
0.2932	18762.34	3.7590	3.7589	-0.8196	25.32	0.18	-0.750			
0.2956	18921.14	3.7560	3.7559	-0.8358	25.32	0.18	-0.750			
0.2981	19079.85	3.7530	3.7530	-0.8327	25.32	0.18	-0.750			
0.3007	19242.03	3.7500	3.7498	-0.8357	25.32	0.18	-0.750			
0.3032	19406.15	3.7470	3.7472	-0.8442	25.32	0.18	-0.750			
0.3057	19567.28	3.7440	3.7439	-0.8479	25.32	0.18	-0.750			
0.3083	19728.65	3.7410	3.7409	-0.8501	25.32	0.18	-0.750			
0.3108	19891.72	3.7380	3.7380	-0.8553	25.32	0.18	-0.750			
0.3133	20052.59	3.7350	3.7351	-0.8556	25.32	0.18	-0.750			
0.3160	20221.55	3.7320	3.7320	-0.8774	25.32	0.18	-0.750			
0.3186	20388.26	3.7290	3.7291	-0.8995	25.32	0.18	-0.750			
0.3213	20563.52	3.7260	3.7259	-0.9079	25.32	0.18	-0.750			
0.3241	20739.85	3.7230	3.7229	-0.9228	25.32	0.18	-0.750			
0.3269	20920.33	3.7200	3.7199	-0.9377	25.32	0.18	-0.750			
0.3297	21101.95	3.7170	3.7172	-0.9517	25.32	0.18	-0.750			
0.3326	21287.22	3.7140	3.7139	-0.9700	25.31	0.17	-0.750			
0.3355	21474.70	3.7110	3.7109	-0.9700	25.31	0.17	-0.750			
0.3384	21660.58	3.7080	3.7079	-0.9776	25.30	0.16	-0.750			
0.3415	21854.08	3.7050	3.7056	-0.9951	25.30	0.16	-0.750			
0.3444	22044.79	3.7020	3.7018	-1.0048	25.30	0.16	-0.750			
0.3475	22238.09	3.6990	3.6991	-1.0100	25.30	0.16	-0.750	0.357	0.519	
0.3505	22428.92	3.6960	3.6959	-1.0187	25.29	0.15	-0.750			
0.3536	22629.83	3.6930	3.6931	-1.0469	25.29	0.15	-0.750			
0.3567	22830.15	3.6900	3.6899	-1.0610	25.29	0.15	-0.750			
0.3599	23035.23	3.6870	3.6869	-1.0824	25.28	0.14	-0.750			
0.3632	23243.76	3.6840	3.6840	-1.0953	25.28	0.14	-0.750			
0.3665	23454.71	3.6810	3.6808	-1.1316	25.27	0.13	-0.750			
0.3700	23676.82	3.6780	3.6779	-1.1391	25.26	0.12	-0.750			
0.3734	23896.44	3.6750	3.6750	-1.1523	25.26	0.12	-0.750			
0.3769	24119.15	3.6720	3.6718	-1.1646	25.25	0.11	-0.750			
0.3804	24343.87	3.6690	3.6688	-1.1906	25.25	0.11	-0.750			
0.3840	24576.03	3.6660	3.6659	-1.2018	25.25	0.11	-0.750			
0.3876	24806.31	3.6630	3.6629	-1.2192	25.24	0.10	-0.750			
0.3912	25038.01	3.6600	3.6604	-1.2325	25.24	0.10	-0.750			
0.3951	25286.29	3.6570	3.6569	-1.2665	25.23	0.09	-0.750			
0.3989	25529.07	3.6540	3.6538	-1.2818	25.23	0.09	-0.750			
0.4028	25777.63	3.6510	3.6510	-1.3173	25.22	0.08	-0.750			
0.4068	26036.14	3.6480	3.6478	-1.3402	25.22	0.08	-0.750			
0.4109	26295.72	3.6450	3.6449	-1.3586	25.21	0.07	-0.750			
0.4149	26556.18	3.6420	3.6421	-1.3796	25.20	0.06	-0.750			
0.4191	26824.73	3.6390	3.6388	-1.4086	25.20	0.06	-0.750			
0.4234	27099.02	3.6360	3.6358	-1.4417	25.19	0.05	-0.750			
0.4278	27377.56	3.6330	3.6331	-1.4646	25.18	0.04	-0.750			
0.4322	27660.16	3.6300	3.6300	-1.4864	25.18	0.04	-0.750			
0.4368	27953.46	3.6270	3.6267	-1.5638	25.17	0.03	-0.750			
0.4416	28263.41	3.6240	3.6242	-1.5621	25.17	0.03	-0.750			
0.4463	28564.73	3.6210	3.6212	-1.5819	25.17	0.03	-0.750			
0.4511	28873.57	3.6180	3.6182	-1.6025	25.16	0.02	-0.750			
0.4559	29180.16	3.6150	3.6147	-1.6347	25.16	0.02	-0.750			
0.4610	29501.25	3.6120	3.6121	-1.6547	25.15	0.01	-0.750			
0.4658	29813.29	3.6090	3.6090	-1.6868	25.14	0.00	-0.750			
0.4708	30131.87	3.6060	3.6059	-1.7265	25.14	0.00	-0.750			
0.4763	30480.72	3.6030	3.6031	-1.7719	25.14	0.00	-0.750			
0.4817	30827.73	3.6000	3.5997	-1.8066	25.14	-0.00	-0.750			
0.4872	31179.32	3.5970	3.5967	-1.8483	25.13	-0.01	-0.750			
0.4928	31537.38	3.5940	3.5939	-1.8586	25.12	-0.02	-0.750			
0.4984	31895.52	3.5910	3.5908	-1.9158	25.12	-0.02	-0.750			
0.5042	32269.05	3.5880	3.5882	-1.9150	25.12	-0.02	-0.750			
0.5100	32637.27	3.5850	3.5852	-1.9848	25.12	-0.02	-0.750			
0.5159	33018.31	3.5820	3.5821	-1.9645	25.11	-0.03	-0.750			
0.5218	33395.93	3.5790	3.5785	-1.9914	25.11	-0.03	-0.750			
0.5279	33785.72	3.5760	3.5758	-1.9896	25.12	-0.02	-0.750			
0.5338	34161.99	3.5730	3.5734	-2.0191	25.12	-0.02	-0.750			
0.5399	34554.26	3.5700	3.5704	-2.0504	25.12	-0.02	-0.750			
0.5460	34945.13	3.5670	3.5670	-2.0451	25.12	-0.02	-0.750			
0.5524	35350.59	3.5640	3.5636	-2.0957	25.11	-0.03	-0.750			
0.5587	35759.42	3.5610	3.5612	-2.0972	25.11	-0.03	-0.750			
0.5652	36171.06	3.5580	3.5582	-2.0985	25.12	-0.02	-0.750			
0.5713	36565.78	3.5550	3.5551	-2.0915	25.12	-0.02	-0.750			
0.5772	36942.31	3.5520	3.5524	-2.0023	25.12	-0.02	-0.750			
0.5834	37337.96	3.5490	3.5489	-1.9974	25.12	-0.02	-0.750			
0.5895	37725.17	3.5460	3.5458	-2.0147	25.12	-0.02	-0.750			
0.5955	38110.09	3.5430	3.5429	-1.9814	25.13	-0.01	-0.750			
0.6014	38490.53	3.5400	3.5399	-1.9454	25.14	-0.00	-0.750			
0.6073	38865.93	3.5370	3.5368	-1.9031	25.15	0.01	-0.750			
0.6130	39234.12	3.5340	3.5338	-1.8811	25.16	0.02	-0.750			
0.6185	39581.98	3.5310	3.5307	-1.8385	25.17	0.03	-0.750			
0.6240	39934.18	3.5280	3.5277	-1.8396	25.18	0.04	-0.750			
0.6293	40276.38	3.5250	3.5251	-1.8098	25.18	0.04	-0.750			
0.6348	40626.56	3.5220	3.5221	-1.7678	25.19	0.05	-0.750			
0.6401	40968.63	3.5190	3.5191	-1.7209	25.20	0.06	-0.750			
0.6453	41299.89	3.5160	3.5160	-1.6742	25.22	0.08	-0.750			
0.6503	41620.16	3.5130	3.5129	-1.6547	25.24	0.10	-0.750			
0.6552	41929.62	3.5100	3.5099	-1.5785	25.25	0.11	-0.750			
0.6597	42223.57	3.5070	3.5073	-1.5249	25.26	0.12	-0.750			
0.6643	42514.16	3.5040	3.5043	-1.5007	25.27	0.13	-0.750			
0.6687	42799.50	3.5010	3.5008	-1.4554	25.29	0.15	-0.750			
0.6731	43080.68	3.4980	3.4977	-1.4128	25.30	0.16	-0.750			
0.6773	43348.39	3.4950	3.4949	-1.3729	25.31	0.17	-0.750			
0.6813	43604.78	3.4920	3.4919	-1.3225	25.33	0.19	-0.750			
0.6853	43861.63	3.4890	3.4888	-1.2702	25.35	0.21	-0.750			
0.6890	44094.82	3.4860	3.4860	-1.2197	25.36	0.22	-0.750			
0.6927	44330.00	3.4830	3.4830	-1.3120	25.37	0.23	-0.750			
