Ah_balance (normalized)	Ah_balance (mAh)	Voltage - fit (V)	Voltage -  interpolate (V)	dQ/dV (1/V)	Temperature (°C)	Temperature - diff (°C)	Current (C)	R_DC 0ms (mOhm)	R_DC 50ms (mOhm)	R_DC 50 ms PEC (mOhm)
0.0004	28.37	4.1620	4.1621	-0.1894	25.16	0.02	-0.750			
0.0010	66.93	4.1590	4.1591	-0.2179	25.16	0.02	-0.750			
0.0017	111.24	4.1560	4.1561	-0.2512	25.16	0.02	-0.750			
0.0025	162.20	4.1530	4.1531	-0.2886	25.16	0.02	-0.750			
0.0035	220.84	4.1500	4.1499	-0.3291	25.16	0.02	-0.750			
0.0045	286.36	4.1470	4.1470	-0.3693	25.15	0.01	-0.750			
0.0057	361.93	4.1440	4.1440	-0.4062	25.15	0.01	-0.750			
0.0070	445.64	4.1410	4.1410	-0.4408	25.15	0.01	-0.750			
0.0083	534.04	4.1380	4.1380	-0.4748	25.14	0.00	-0.750			
0.0098	628.98	4.1350	4.1356	-0.5062	25.14	-0.00	-0.750			
0.0114	729.31	4.1320	4.1319	-0.5336	25.14	-0.00	-0.750			
0.0130	835.07	4.1290	4.1289	-0.5530	25.13	-0.01	-0.750			
0.0148	944.41	4.1260	4.1261	-0.5732	25.13	-0.01	-0.750			
0.0165	1058.07	4.1230	4.1230	-0.6029	25.12	-0.02	-0.750			
0.0184	1176.95	4.1200	4.1198	-0.6132	25.12	-0.02	-0.750			
0.0203	1296.48	4.1170	4.1168	-0.6229	25.11	-0.03	-0.750			
0.0221	1417.14	4.1140	4.1145	-0.6363	25.11	-0.03	-0.750			
0.0241	1541.05	4.1110	4.1110	-0.6505	25.11	-0.03	-0.750			
0.0260	1663.58	4.1080	4.1080	-0.6736	25.11	-0.03	-0.750			
0.0280	1793.13	4.1050	4.1050	-0.6796	25.11	-0.03	-0.750			
0.0301	1928.70	4.1020	4.1019	-0.6963	25.10	-0.04	-0.750			
0.0323	2065.76	4.0990	4.0988	-0.7038	25.10	-0.04	-0.750			
0.0344	2202.74	4.0960	4.0963	-0.7118	25.10	-0.04	-0.750			
0.0365	2338.96	4.0930	4.0930	-0.7128	25.10	-0.04	-0.750			
0.0386	2471.88	4.0900	4.0900	-0.7262	25.09	-0.05	-0.750			
0.0409	2615.58	4.0870	4.0869	-0.7255	25.09	-0.05	-0.750			
0.0431	2757.83	4.0840	4.0838	-0.7343	25.09	-0.05	-0.750			
0.0453	2897.86	4.0810	4.0808	-0.7321	25.08	-0.06	-0.750			
0.0475	3039.67	4.0780	4.0786	-0.7370	25.08	-0.06	-0.750			
0.0497	3179.77	4.0750	4.0747	-0.7317	25.08	-0.06	-0.750			
0.0518	3316.35	4.0720	4.0719	-0.7330	25.08	-0.06	-0.750			
0.0540	3454.57	4.0690	4.0691	-0.7295	25.09	-0.05	-0.750			
0.0563	3603.33	4.0660	4.0660	-0.7487	25.09	-0.05	-0.750			
0.0586	3748.32	4.0630	4.0629	-0.7518	25.09	-0.05	-0.750			
0.0608	3892.07	4.0600	4.0602	-0.7540	25.09	-0.05	-0.750			
0.0630	4033.97	4.0570	4.0570	-0.7608	25.09	-0.05	-0.750			
0.0653	4181.59	4.0540	4.0540	-0.7708	25.09	-0.05	-0.750			
0.0677	4330.58	4.0510	4.0509	-0.7617	25.09	-0.05	-0.750			
0.0700	4478.96	4.0480	4.0479	-0.7661	25.09	-0.05	-0.750			
0.0723	4628.07	4.0450	4.0456	-0.7729	25.09	-0.05	-0.750			
0.0746	4774.83	4.0420	4.0419	-0.7702	25.09	-0.05	-0.750			
0.0769	4921.09	4.0390	4.0388	-0.7729	25.09	-0.05	-0.750			
0.0792	5071.56	4.0360	4.0360	-0.7671	25.10	-0.04	-0.750			
0.0816	5220.59	4.0330	4.0330	-0.7642	25.10	-0.04	-0.750			
0.0839	5368.18	4.0300	4.0300	-0.7619	25.10	-0.04	-0.750			
0.0861	5510.63	4.0270	4.0271	-0.7637	25.10	-0.04	-0.750			
0.0883	5654.37	4.0240	4.0239	-0.7707	25.10	-0.04	-0.750			
0.0907	5802.17	4.0210	4.0209	-0.7680	25.10	-0.04	-0.750			
0.0930	5950.63	4.0180	4.0181	-0.7753	25.10	-0.04	-0.750			
0.0954	6106.66	4.0150	4.0150	-0.7910	25.10	-0.04	-0.750			
0.0978	6257.70	4.0120	4.0121	-0.7884	25.10	-0.04	-0.750			
0.1001	6408.41	4.0090	4.0089	-0.7838	25.10	-0.04	-0.750			
0.1025	6557.16	4.0060	4.0060	-0.7894	25.10	-0.04	-0.750			
0.1048	6708.99	4.0030	4.0029	-0.7901	25.11	-0.03	-0.750			
0.1072	6863.82	4.0000	3.9999	-0.7977	25.11	-0.03	-0.750			
0.1096	7016.08	3.9970	3.9970	-0.7992	25.11	-0.03	-0.750			
0.1120	7169.75	3.9940	3.9939	-0.7992	25.11	-0.03	-0.750			
0.1144	7322.89	3.9910	3.9910	-0.8057	25.11	-0.03	-0.750			
0.1169	7479.19	3.9880	3.9879	-0.8042	25.12	-0.02	-0.750			
0.1193	7635.10	3.9850	3.9850	-0.8102	25.12	-0.02	-0.750			
0.1217	7790.24	3.9820	3.9819	-0.8052	25.12	-0.02	-0.750			
0.1241	7944.02	3.9790	3.9789	-0.8037	25.12	-0.02	-0.750			
0.1265	8097.11	3.9760	3.9760	-0.8032	25.12	-0.02	-0.750			
0.1289	8249.80	3.9730	3.9730	-0.8018	25.13	-0.01	-0.750			
0.1313	8404.18	3.9700	3.9700	-0.8076	25.13	-0.01	-0.750			
0.1338	8560.52	3.9670	3.9671	-0.8103	25.13	-0.01	-0.750			
0.1362	8715.11	3.9640	3.9639	-0.8121	25.13	-0.01	-0.750			
0.1386	8872.00	3.9610	3.9610	-0.8231	25.13	-0.01	-0.750			
0.1411	9031.63	3.9580	3.9580	-0.8192	25.14	-0.00	-0.750			
0.1436	9189.83	3.9550	3.9549	-0.8207	25.14	-0.00	-0.750			
0.1461	9348.02	3.9520	3.9519	-0.8205	25.14	-0.00	-0.750			
0.1485	9504.35	3.9490	3.9489	-0.8181	25.14	0.00	-0.750			
0.1509	9660.57	3.9460	3.9459	-0.8290	25.14	0.00	-0.750			
0.1534	9818.27	3.9430	3.9430	-0.8293	25.14	0.00	-0.750			
0.1559	9978.93	3.9400	3.9398	-0.8236	25.15	0.01	-0.750			
0.1585	10144.47	3.9370	3.9370	-0.8368	25.15	0.01	-0.750			
0.1610	10301.40	3.9340	3.9339	-0.8341	25.15	0.01	-0.750			
0.1634	10460.37	3.9310	3.9309	-0.8404	25.16	0.02	-0.750			
0.1660	10622.59	3.9280	3.9279	-0.8388	25.16	0.02	-0.750			
0.1684	10780.40	3.9250	3.9248	-0.8293	25.16	0.02	-0.750			
0.1711	10948.14	3.9220	3.9222	-0.8418	25.17	0.03	-0.750			
0.1736	11108.92	3.9190	3.9189	-0.8444	25.17	0.03	-0.750			
0.1761	11269.15	3.9160	3.9159	-0.8521	25.17	0.03	-0.750			
0.1786	11431.52	3.9130	3.9129	-0.8556	25.18	0.04	-0.750			
0.1812	11595.03	3.9100	3.9099	-0.8490	25.18	0.04	-0.750			
0.1838	11765.16	3.9070	3.9070	-0.8635	25.18	0.04	-0.750			
0.1864	11930.63	3.9040	3.9039	-0.8607	25.18	0.04	-0.750			
0.1890	12097.06	3.9010	3.9008	-0.8699	25.18	0.04	-0.750			
0.1916	12264.04	3.8980	3.8978	-0.8585	25.18	0.04	-0.750			
0.1942	12425.80	3.8950	3.8950	-0.8507	25.18	0.04	-0.750			
0.1968	12593.87	3.8920	3.8924	-0.8585	25.18	0.04	-0.750			
0.1994	12758.98	3.8890	3.8889	-0.8559	25.18	0.04	-0.750			
0.2019	12918.73	3.8860	3.8859	-0.8570	25.19	0.05	-0.750			
0.2044	13082.85	3.8830	3.8829	-0.8554	25.19	0.05	-0.750			
0.2070	13250.18	3.8800	3.8800	-0.8689	25.20	0.06	-0.750			
0.2096	13416.86	3.8770	3.8773	-0.8696	25.20	0.06	-0.750			
0.2122	13581.87	3.8740	3.8739	-0.8786	25.20	0.06	-0.750			
0.2149	13754.10	3.8710	3.8709	-0.8678	25.21	0.07	-0.750			
0.2175	13917.98	3.8680	3.8680	-0.8637	25.21	0.07	-0.750			
0.2201	14083.83	3.8650	3.8650	-0.8689	25.22	0.08	-0.750			
0.2227	14251.81	3.8620	3.8623	-0.8653	25.22	0.08	-0.750			
0.2252	14415.74	3.8590	3.8588	-0.8612	25.22	0.08	-0.750			
0.2279	14582.96	3.8560	3.8560	-0.8674	25.22	0.08	-0.750			
0.2305	14752.94	3.8530	3.8530	-0.8751	25.23	0.09	-0.750			
0.2331	14918.62	3.8500	3.8498	-0.8686	25.23	0.09	-0.750			
0.2357	15084.24	3.8470	3.8468	-0.8586	25.23	0.09	-0.750			
0.2383	15248.86	3.8440	3.8439	-0.8623	25.24	0.10	-0.750			
0.2408	15413.65	3.8410	3.8410	-0.8587	25.24	0.10	-0.750			
0.2434	15575.61	3.8380	3.8380	-0.8504	25.24	0.10	-0.750			
0.2460	15744.22	3.8350	3.8350	-0.8583	25.25	0.11	-0.750			
0.2486	15909.09	3.8320	3.8318	-0.8507	25.25	0.11	-0.750			
0.2511	16070.87	3.8290	3.8289	-0.8534	25.26	0.12	-0.750			
0.2537	16233.75	3.8260	3.8259	-0.8513	25.26	0.12	-0.750			
0.2562	16395.71	3.8230	3.8230	-0.8471	25.26	0.12	-0.750			
0.2588	16562.59	3.8200	3.8198	-0.8521	25.27	0.13	-0.750			
0.2614	16726.83	3.8170	3.8168	-0.8423	25.27	0.13	-0.750			
0.2639	16889.17	3.8140	3.8138	-0.8374	25.27	0.13	-0.750			
0.2664	17048.93	3.8110	3.8111	-0.8256	25.28	0.14	-0.750			
0.2688	17203.68	3.8080	3.8080	-0.8063	25.28	0.14	-0.750			
0.2713	17361.42	3.8050	3.8051	-0.8055	25.28	0.14	-0.750			
0.2736	17512.73	3.8020	3.8018	-0.8060	25.28	0.14	-0.750			
0.2760	17662.83	3.7990	3.7989	-0.8088	25.28	0.14	-0.750			
0.2784	17819.22	3.7960	3.7959	-0.8076	25.28	0.14	-0.750			
0.2808	17973.75	3.7930	3.7930	-0.8036	25.29	0.15	-0.750			
0.2834	18134.86	3.7900	3.7900	-0.8118	25.29	0.15	-0.750			
0.2858	18291.30	3.7870	3.7868	-0.8083	25.29	0.15	-0.750			
0.2882	18442.85	3.7840	3.7840	-0.8058	25.29	0.15	-0.750			
0.2906	18598.28	3.7810	3.7811	-0.7967	25.29	0.15	-0.750			
0.2930	18750.23	3.7780	3.7780	-0.7922	25.30	0.16	-0.750			
0.2954	18904.46	3.7750	3.7749	-0.7888	25.30	0.16	-0.750			
0.2977	19055.22	3.7720	3.7724	-0.7830	25.30	0.16	-0.750			
0.3000	19200.75	3.7690	3.7689	-0.7905	25.30	0.16	-0.750			
0.3024	19351.27	3.7660	3.7660	-0.7907	25.30	0.16	-0.750			
0.3047	19502.90	3.7630	3.7629	-0.7854	25.31	0.17	-0.750			
0.3071	19657.54	3.7600	3.7599	-0.7955	25.31	0.17	-0.750			
0.3096	19811.69	3.7570	3.7575	-0.7977	25.31	0.17	-0.750			
0.3119	19964.77	3.7540	3.7538	-0.8024	25.31	0.17	-0.750			
0.3143	20115.97	3.7510	3.7510	-0.8101	25.31	0.17	-0.750			
0.3167	20270.88	3.7480	3.7480	-0.8167	25.32	0.18	-0.750			
0.3192	20429.78	3.7450	3.7449	-0.8332	25.32	0.18	-0.750			
0.3217	20591.48	3.7420	3.7419	-0.8457	25.32	0.18	-0.750			
0.3242	20751.31	3.7390	3.7391	-0.8621	25.32	0.18	-0.750			
0.3269	20919.51	3.7360	3.7359	-0.8683	25.32	0.18	-0.750			
0.3295	21090.40	3.7330	3.7330	-0.8649	25.32	0.18	-0.750			
0.3321	21256.55	3.7300	3.7296	-0.8675	25.32	0.18	-0.750			
0.3347	21423.07	3.7270	3.7278	-0.8850	25.32	0.18	-0.750			
0.3374	21591.21	3.7240	3.7240	-0.9034	25.32	0.18	-0.750			
0.3401	21764.80	3.7210	3.7207	-0.9117	25.32	0.18	-0.750			
0.3428	21941.77	3.7180	3.7179	-0.9281	25.32	0.18	-0.750			
0.3457	22122.23	3.7150	3.7150	-0.9523	25.32	0.18	-0.750			
0.3485	22306.49	3.7120	3.7121	-0.9791	25.32	0.18	-0.750			
0.3515	22497.14	3.7090	3.7089	-0.9883	25.32	0.18	-0.750			
0.3545	22688.57	3.7060	3.7059	-0.9960	25.31	0.17	-0.750			
0.3575	22878.12	3.7030	3.7030	-1.0138	25.31	0.17	-0.750			
0.3606	23078.95	3.7000	3.7001	-1.0387	25.31	0.17	-0.750			
0.3638	23281.84	3.6970	3.6970	-1.0560	25.30	0.16	-0.750	0.412	0.529	
0.3670	23486.23	3.6940	3.6938	-1.0643	25.30	0.16	-0.750			
0.3701	23689.23	3.6910	3.6910	-1.0817	25.29	0.15	-0.750			
0.3735	23902.67	3.6880	3.6878	-1.1276	25.29	0.15	-0.750			
0.3769	24123.60	3.6850	3.6847	-1.1428	25.28	0.14	-0.750			
0.3804	24342.59	3.6820	3.6818	-1.1509	25.28	0.14	-0.750			
0.3838	24562.09	3.6790	3.6795	-1.1818	25.27	0.13	-0.750			
0.3875	24801.82	3.6760	3.6759	-1.2120	25.27	0.13	-0.750			
0.3912	25035.66	3.6730	3.6728	-1.2201	25.26	0.12	-0.750			
0.3947	25263.83	3.6700	3.6699	-1.2498	25.25	0.11	-0.750			
0.3986	25510.49	3.6670	3.6671	-1.2779	25.25	0.11	-0.750			
0.4024	25756.79	3.6640	3.6638	-1.2927	25.24	0.10	-0.750			
0.4062	25998.10	3.6610	3.6610	-1.3379	25.23	0.09	-0.750			
0.4103	26257.62	3.6580	3.6585	-1.3502	25.22	0.08	-0.750			
0.4145	26526.36	3.6550	3.6548	-1.3911	25.21	0.07	-0.750			
0.4187	26799.15	3.6520	3.6518	-1.4003	25.20	0.06	-0.750			
0.4230	27069.16	3.6490	3.6484	-1.4044	25.19	0.05	-0.750			
0.4273	27345.29	3.6460	3.6457	-1.4361	25.19	0.05	-0.750			
0.4316	27619.84	3.6430	3.6430	-1.4696	25.18	0.04	-0.750			
0.4360	27901.95	3.6400	3.6399	-1.4689	25.18	0.04	-0.750			
0.4406	28196.27	3.6370	3.6372	-1.5205	25.17	0.03	-0.750			
0.4452	28494.90	3.6340	3.6347	-1.5570	25.16	0.02	-0.750			
0.4501	28806.87	3.6310	3.6305	-1.6047	25.16	0.02	-0.750			
0.4549	29114.82	3.6280	3.6285	-1.6271	25.15	0.01	-0.750			
0.4598	29427.21	3.6250	3.6256	-1.6493	25.14	-0.00	-0.750			
0.4648	29746.72	3.6220	3.6223	-1.6665	25.13	-0.01	-0.750			
0.4698	30069.38	3.6190	3.6193	-1.7029	25.12	-0.02	-0.750			
0.4750	30397.26	3.6160	3.6156	-1.7190	25.12	-0.02	-0.750			
0.4802	30734.10	3.6130	3.6125	-1.7835	25.11	-0.03	-0.750			
0.4857	31084.55	3.6100	3.6101	-1.8193	25.11	-0.03	-0.750			
0.4913	31445.75	3.6070	3.6067	-1.8645	25.10	-0.04	-0.750			
0.4970	31806.39	3.6040	3.6046	-1.8776	25.10	-0.04	-0.750			
0.5026	32165.76	3.6010	3.6010	-1.9163	25.10	-0.04	-0.750			
0.5084	32540.71	3.5980	3.5983	-1.9381	25.09	-0.05	-0.750			
0.5141	32900.45	3.5950	3.5954	-1.9970	25.09	-0.05	-0.750			
0.5202	33295.63	3.5920	3.5924	-2.0362	25.08	-0.06	-0.750			
0.5265	33697.82	3.5890	3.5890	-2.0589	25.07	-0.07	-0.750			
0.5328	34102.31	3.5860	3.5859	-2.0972	25.06	-0.08	-0.750			
0.5392	34505.76	3.5830	3.5835	-2.1677	25.06	-0.08	-0.750			
0.5457	34923.57	3.5800	3.5800	-2.1746	25.06	-0.08	-0.750			
0.5524	35353.84	3.5770	3.5769	-2.2304	25.06	-0.08	-0.750			
0.5593	35793.25	3.5740	3.5738	-2.2251	25.06	-0.08	-0.750			
0.5657	36207.61	3.5710	3.5712	-2.2583	25.06	-0.08	-0.750			
0.5726	36649.44	3.5680	3.5683	-2.2574	25.06	-0.08	-0.750			
0.5796	37094.58	3.5650	3.5645	-2.2375	25.06	-0.08	-0.750			
0.5861	37509.79	3.5620	3.5623	-2.2436	25.06	-0.08	-0.750			
0.5929	37945.47	3.5590	3.5593	-2.2365	25.05	-0.09	-0.750			
0.5995	38367.66	3.5560	3.5553	-2.2216	25.05	-0.09	-0.750			
0.6062	38795.25	3.5530	3.5528	-2.1709	25.05	-0.09	-0.750			
0.6128	39218.10	3.5500	3.5499	-2.1510	25.05	-0.09	-0.750			
0.6193	39636.57	3.5470	3.5474	-2.1755	25.06	-0.08	-0.750			
0.6257	40042.83	3.5440	3.5438	-2.1408	25.06	-0.08	-0.750			
0.6323	40467.02	3.5410	3.5409	-2.1119	25.07	-0.07	-0.750			
0.6385	40865.22	3.5380	3.5381	-2.0645	25.07	-0.07	-0.750			
0.6448	41264.47	3.5350	3.5354	-2.0254	25.08	-0.06	-0.750			
0.6507	41643.57	3.5320	3.5319	-1.9398	25.09	-0.05	-0.750			
0.6564	42010.86	3.5290	3.5292	-1.9177	25.09	-0.05	-0.750			
0.6620	42369.29	3.5260	3.5258	-1.8653	25.11	-0.03	-0.750			
0.6677	42734.71	3.5230	3.5226	-1.8332	25.12	-0.02	-0.750			
0.6731	43076.20	3.5200	3.5198	-1.7378	25.13	-0.01	-0.750			
0.6784	43415.42	3.5170	3.5167	-1.7126	25.15	0.01	-0.750			
0.6832	43723.92	3.5140	3.5139	-1.6316	25.17	0.03	-0.750			
0.6880	44031.72	3.5110	3.5106	-1.5999	25.18	0.04	-0.750			
0.6928	44340.53	3.5080	3.5083	-1.5698	25.19	0.05	-0.750			
0.6975	44639.96	3.5050	3.5052	-1.5228	25.20	0.06	-0.750			
0.7023	44945.82	3.5020	3.5027	-1.5074	25.22	0.08	-0.750			
0.7065	45219.07	3.4990	3.4988	-1.4695	25.23	0.09	-0.750			
0.7109	45496.17	3.4960	3.4960	-1.4216	25.24	0.10	-0.750			
0.7150	45760.38	3.4930	3.4928	-1.3917	25.26	0.12	-0.750			
0.7192	46028.21	3.4900	3.4899	-1.3546	25.28	0.14	-0.750			
0.7233	46292.10	3.4870	3.4867	-1.4345	25.29	0.15	-0.750			
