Ah_balance (normalized)	Ah_balance (mAh)	Voltage - fit (V)	Voltage -  interpolate (V)	dQ/dV (1/V)	Temperature (°C)	Temperature - diff (°C)	Current (C)	R_DC 0ms (mOhm)	R_DC 50ms (mOhm)	R_DC 50 ms PEC (mOhm)
0.0005	31.51	4.1620	4.1619	-0.1668	25.18	0.01	-0.750			
0.0010	66.66	4.1590	4.1591	-0.2029	25.17	0.00	-0.750			
0.0017	108.31	4.1560	4.1559	-0.2427	25.17	0.00	-0.750			
0.0025	159.73	4.1530	4.1530	-0.2805	25.17	-0.00	-0.750			
0.0034	216.99	4.1500	4.1499	-0.3204	25.17	-0.00	-0.750			
0.0044	282.30	4.1470	4.1471	-0.3581	25.16	-0.01	-0.750			
0.0056	355.41	4.1440	4.1441	-0.3976	25.16	-0.01	-0.750			
0.0068	435.30	4.1410	4.1410	-0.4338	25.15	-0.02	-0.750			
0.0082	523.22	4.1380	4.1380	-0.4667	25.15	-0.02	-0.750			
0.0096	616.47	4.1350	4.1351	-0.4973	25.14	-0.03	-0.750			
0.0112	716.84	4.1320	4.1320	-0.5280	25.13	-0.04	-0.750			
0.0128	820.15	4.1290	4.1289	-0.5525	25.13	-0.04	-0.750			
0.0145	929.17	4.1260	4.1261	-0.5772	25.12	-0.05	-0.750			
0.0163	1042.69	4.1230	4.1230	-0.5925	25.12	-0.05	-0.750			
0.0181	1159.85	4.1200	4.1200	-0.6111	25.11	-0.06	-0.750			
0.0200	1277.26	4.1170	4.1171	-0.6361	25.11	-0.06	-0.750			
0.0219	1402.12	4.1140	4.1138	-0.6448	25.11	-0.06	-0.750			
0.0239	1529.20	4.1110	4.1109	-0.6550	25.11	-0.06	-0.750			
0.0259	1656.17	4.1080	4.1080	-0.6618	25.10	-0.07	-0.750			
0.0279	1784.85	4.1050	4.1050	-0.6727	25.10	-0.07	-0.750			
0.0299	1915.20	4.1020	4.1019	-0.6816	25.10	-0.07	-0.750			
0.0319	2043.20	4.0990	4.0990	-0.6910	25.10	-0.07	-0.750			
0.0340	2175.36	4.0960	4.0960	-0.6922	25.10	-0.07	-0.750			
0.0361	2313.24	4.0930	4.0930	-0.7088	25.10	-0.07	-0.750			
0.0383	2451.07	4.0900	4.0899	-0.7161	25.10	-0.07	-0.750			
0.0404	2588.29	4.0870	4.0869	-0.7218	25.10	-0.07	-0.750			
0.0426	2726.22	4.0840	4.0840	-0.7264	25.10	-0.07	-0.750			
0.0448	2866.55	4.0810	4.0810	-0.7389	25.10	-0.07	-0.750			
0.0470	3009.45	4.0780	4.0780	-0.7435	25.09	-0.08	-0.750			
0.0493	3156.35	4.0750	4.0748	-0.7482	25.09	-0.08	-0.750			
0.0516	3300.78	4.0720	4.0722	-0.7472	25.09	-0.08	-0.750			
0.0538	3444.54	4.0690	4.0689	-0.7424	25.09	-0.08	-0.750			
0.0560	3586.50	4.0660	4.0659	-0.7351	25.09	-0.08	-0.750			
0.0582	3724.52	4.0630	4.0631	-0.7374	25.09	-0.08	-0.750			
0.0604	3862.98	4.0600	4.0601	-0.7352	25.09	-0.08	-0.750			
0.0626	4005.23	4.0570	4.0570	-0.7485	25.09	-0.08	-0.750			
0.0649	4150.47	4.0540	4.0547	-0.7533	25.09	-0.08	-0.750			
0.0671	4296.05	4.0510	4.0511	-0.7608	25.09	-0.08	-0.750			
0.0694	4444.28	4.0480	4.0480	-0.7716	25.09	-0.08	-0.750			
0.0718	4596.18	4.0450	4.0449	-0.7727	25.10	-0.07	-0.750			
0.0741	4744.08	4.0420	4.0419	-0.7630	25.10	-0.07	-0.750			
0.0764	4891.29	4.0390	4.0390	-0.7595	25.10	-0.07	-0.750			
0.0787	5035.16	4.0360	4.0359	-0.7596	25.10	-0.07	-0.750			
0.0810	5180.96	4.0330	4.0329	-0.7617	25.10	-0.07	-0.750			
0.0832	5323.63	4.0300	4.0299	-0.7669	25.10	-0.07	-0.750			
0.0855	5471.55	4.0270	4.0270	-0.7649	25.10	-0.07	-0.750			
0.0879	5624.26	4.0240	4.0239	-0.7754	25.10	-0.07	-0.750			
0.0902	5772.70	4.0210	4.0212	-0.7792	25.10	-0.07	-0.750			
0.0925	5921.73	4.0180	4.0179	-0.7807	25.10	-0.07	-0.750			
0.0949	6070.55	4.0150	4.0149	-0.7833	25.10	-0.07	-0.750			
0.0972	6221.70	4.0120	4.0120	-0.7827	25.11	-0.06	-0.750			
0.0996	6373.96	4.0090	4.0090	-0.7878	25.11	-0.06	-0.750			
0.1020	6526.32	4.0060	4.0059	-0.7876	25.11	-0.06	-0.750			
0.1043	6677.36	4.0030	4.0029	-0.7833	25.11	-0.06	-0.750			
0.1066	6825.34	4.0000	4.0000	-0.7854	25.11	-0.06	-0.750			
0.1090	6976.12	3.9970	3.9969	-0.7814	25.12	-0.05	-0.750			
0.1114	7126.49	3.9940	3.9940	-0.7874	25.12	-0.05	-0.750			
0.1137	7277.51	3.9910	3.9909	-0.7915	25.12	-0.05	-0.750			
0.1161	7430.17	3.9880	3.9880	-0.7927	25.12	-0.05	-0.750			
0.1185	7582.49	3.9850	3.9849	-0.7970	25.13	-0.04	-0.750			
0.1209	7734.58	3.9820	3.9820	-0.7992	25.13	-0.04	-0.750			
0.1232	7887.18	3.9790	3.9790	-0.8029	25.13	-0.04	-0.750			
0.1257	8045.63	3.9760	3.9759	-0.8084	25.14	-0.03	-0.750			
0.1281	8199.44	3.9730	3.9730	-0.8040	25.14	-0.03	-0.750			
0.1305	8351.94	3.9700	3.9701	-0.8113	25.14	-0.03	-0.750			
0.1330	8510.63	3.9670	3.9669	-0.8122	25.14	-0.03	-0.750			
0.1354	8665.16	3.9640	3.9639	-0.8125	25.14	-0.03	-0.750			
0.1378	8822.12	3.9610	3.9609	-0.8132	25.14	-0.03	-0.750			
0.1403	8979.28	3.9580	3.9582	-0.8139	25.14	-0.03	-0.750			
0.1427	9134.48	3.9550	3.9549	-0.8241	25.15	-0.02	-0.750			
0.1452	9291.85	3.9520	3.9520	-0.8212	25.15	-0.02	-0.750			
0.1476	9448.93	3.9490	3.9490	-0.8134	25.16	-0.01	-0.750			
0.1501	9609.03	3.9460	3.9459	-0.8207	25.17	-0.00	-0.750			
0.1526	9767.62	3.9430	3.9432	-0.8131	25.17	0.00	-0.750			
0.1551	9927.63	3.9400	3.9398	-0.7890	25.17	0.00	-0.750			
0.1574	10074.81	3.9370	3.9371	-0.7723	25.17	0.00	-0.750			
0.1596	10213.45	3.9340	3.9344	-0.7541	25.18	0.01	-0.750			
0.1618	10356.72	3.9310	3.9309	-0.7690	25.18	0.01	-0.750			
0.1641	10503.43	3.9280	3.9276	-0.7733	25.18	0.01	-0.750			
0.1664	10648.58	3.9250	3.9251	-0.7860	25.18	0.01	-0.750			
0.1688	10803.26	3.9220	3.9222	-0.8200	25.18	0.01	-0.750			
0.1715	10974.40	3.9190	3.9189	-0.8462	25.18	0.01	-0.750			
0.1740	11135.43	3.9160	3.9158	-0.8428	25.18	0.01	-0.750			
0.1766	11300.34	3.9130	3.9131	-0.8456	25.18	0.01	-0.750			
0.1791	11464.10	3.9100	3.9099	-0.8456	25.18	0.01	-0.750			
0.1817	11627.83	3.9070	3.9068	-0.8536	25.18	0.01	-0.750			
0.1842	11789.15	3.9040	3.9039	-0.8409	25.19	0.02	-0.750			
0.1867	11951.54	3.9010	3.9008	-0.8460	25.19	0.02	-0.750			
0.1893	12112.64	3.8980	3.8985	-0.8403	25.19	0.02	-0.750			
0.1918	12274.06	3.8950	3.8948	-0.8392	25.19	0.02	-0.750			
0.1943	12433.80	3.8920	3.8920	-0.8459	25.20	0.03	-0.750			
0.1968	12595.27	3.8890	3.8889	-0.8466	25.20	0.03	-0.750			
0.1994	12759.96	3.8860	3.8859	-0.8577	25.21	0.04	-0.750			
0.2019	12924.74	3.8830	3.8833	-0.8571	25.21	0.04	-0.750			
0.2045	13088.92	3.8800	3.8800	-0.8576	25.21	0.04	-0.750			
0.2071	13255.01	3.8770	3.8769	-0.8657	25.21	0.04	-0.750			
0.2097	13421.49	3.8740	3.8739	-0.8583	25.22	0.05	-0.750			
0.2123	13588.56	3.8710	3.8709	-0.8582	25.22	0.05	-0.750			
0.2149	13751.85	3.8680	3.8685	-0.8503	25.22	0.05	-0.750			
0.2174	13914.94	3.8650	3.8650	-0.8460	25.23	0.06	-0.750			
0.2200	14077.53	3.8620	3.8619	-0.8527	25.23	0.06	-0.750			
0.2225	14237.74	3.8590	3.8588	-0.8487	25.24	0.07	-0.750			
0.2251	14406.69	3.8560	3.8559	-0.8564	25.25	0.08	-0.750			
0.2277	14570.39	3.8530	3.8534	-0.8513	25.25	0.08	-0.750			
0.2302	14734.20	3.8500	3.8498	-0.8541	25.25	0.08	-0.750			
0.2328	14897.70	3.8470	3.8470	-0.8456	25.25	0.08	-0.750			
0.2352	15052.46	3.8440	3.8439	-0.8336	25.25	0.08	-0.750			
0.2378	15218.43	3.8410	3.8410	-0.8458	25.25	0.08	-0.750			
0.2403	15381.11	3.8380	3.8380	-0.8413	25.25	0.08	-0.750			
0.2429	15542.89	3.8350	3.8350	-0.8411	25.26	0.09	-0.750			
0.2454	15707.19	3.8320	3.8320	-0.8409	25.26	0.09	-0.750			
0.2479	15868.06	3.8290	3.8289	-0.8368	25.26	0.09	-0.750			
0.2505	16029.97	3.8260	3.8259	-0.8352	25.27	0.10	-0.750			
0.2530	16188.82	3.8230	3.8229	-0.8271	25.27	0.10	-0.750			
0.2554	16344.73	3.8200	3.8199	-0.8376	25.27	0.10	-0.750			
0.2579	16506.96	3.8170	3.8169	-0.8280	25.27	0.10	-0.750			
0.2604	16663.57	3.8140	3.8139	-0.8159	25.28	0.11	-0.750			
0.2629	16825.76	3.8110	3.8110	-0.8218	25.28	0.11	-0.750			
0.2653	16982.35	3.8080	3.8080	-0.8083	25.28	0.11	-0.750			
0.2677	17135.52	3.8050	3.8049	-0.8021	25.28	0.11	-0.750			
0.2701	17285.05	3.8020	3.8020	-0.7924	25.29	0.12	-0.750			
0.2724	17434.61	3.7990	3.7991	-0.7826	25.29	0.12	-0.750			
0.2748	17590.21	3.7960	3.7959	-0.7924	25.30	0.13	-0.750			
0.2772	17741.24	3.7930	3.7931	-0.7890	25.30	0.13	-0.750			
0.2796	17892.41	3.7900	3.7900	-0.7824	25.30	0.13	-0.750			
0.2819	18042.13	3.7870	3.7870	-0.7846	25.31	0.14	-0.750			
0.2843	18192.63	3.7840	3.7840	-0.7777	25.31	0.14	-0.750			
0.2866	18340.85	3.7810	3.7810	-0.7761	25.32	0.15	-0.750			
0.2889	18490.33	3.7780	3.7779	-0.7773	25.32	0.15	-0.750			
0.2912	18639.32	3.7750	3.7749	-0.7750	25.32	0.15	-0.750			
0.2935	18784.50	3.7720	3.7720	-0.7901	25.32	0.15	-0.750			
0.2959	18937.23	3.7690	3.7690	-0.7857	25.32	0.15	-0.750			
0.2983	19088.65	3.7660	3.7659	-0.7855	25.33	0.16	-0.750			
0.3007	19242.98	3.7630	3.7628	-0.7911	25.33	0.16	-0.750			
0.3030	19393.99	3.7600	3.7599	-0.7893	25.33	0.16	-0.750			
0.3054	19543.56	3.7570	3.7570	-0.7972	25.33	0.16	-0.750			
0.3078	19696.89	3.7540	3.7540	-0.8009	25.33	0.16	-0.750			
0.3102	19850.42	3.7510	3.7509	-0.8116	25.34	0.17	-0.750			
0.3126	20006.14	3.7480	3.7478	-0.8183	25.34	0.17	-0.750			
0.3151	20164.46	3.7450	3.7452	-0.8270	25.34	0.17	-0.750			
0.3176	20323.26	3.7420	3.7420	-0.8351	25.34	0.17	-0.750			
0.3201	20487.32	3.7390	3.7389	-0.8521	25.34	0.17	-0.750			
0.3227	20651.81	3.7360	3.7359	-0.8614	25.35	0.18	-0.750			
0.3253	20819.43	3.7330	3.7328	-0.8721	25.35	0.18	-0.750			
0.3279	20987.37	3.7300	3.7301	-0.8774	25.35	0.18	-0.750			
0.3306	21155.85	3.7270	3.7269	-0.8916	25.35	0.18	-0.750			
0.3332	21327.37	3.7240	3.7240	-0.9028	25.35	0.18	-0.750			
0.3359	21498.69	3.7210	3.7209	-0.9039	25.35	0.18	-0.750			
0.3387	21679.41	3.7180	3.7178	-0.9305	25.35	0.18	-0.750			
0.3415	21855.98	3.7150	3.7150	-0.9538	25.35	0.18	-0.750			
0.3444	22043.23	3.7120	3.7120	-0.9667	25.34	0.17	-0.750			
0.3474	22231.93	3.7090	3.7088	-0.9731	25.34	0.17	-0.750			
0.3503	22417.85	3.7060	3.7061	-0.9909	25.33	0.16	-0.750			
0.3532	22607.34	3.7030	3.7031	-1.0261	25.33	0.16	-0.750			
0.3564	22809.29	3.7000	3.6998	-1.0370	25.33	0.16	-0.750			
0.3596	23011.66	3.6970	3.6972	-1.0437	25.32	0.15	-0.750	0.397	0.528	
0.3627	23212.46	3.6940	3.6939	-1.0585	25.32	0.15	-0.750			
0.3660	23421.67	3.6910	3.6911	-1.0962	25.32	0.15	-0.750			
0.3693	23635.49	3.6880	3.6877	-1.1071	25.31	0.14	-0.750			
0.3726	23845.96	3.6850	3.6850	-1.1181	25.31	0.14	-0.750			
0.3760	24062.13	3.6820	3.6823	-1.1442	25.30	0.13	-0.750			
0.3795	24286.26	3.6790	3.6788	-1.1548	25.30	0.13	-0.750			
0.3830	24513.86	3.6760	3.6758	-1.1514	25.29	0.12	-0.750			
0.3864	24728.18	3.6730	3.6731	-1.1558	25.29	0.12	-0.750			
0.3898	24945.96	3.6700	3.6705	-1.1923	25.28	0.11	-0.750			
0.3935	25185.01	3.6670	3.6665	-1.2260	25.28	0.11	-0.750			
0.3972	25423.12	3.6640	3.6637	-1.2432	25.27	0.10	-0.750			
0.4010	25663.58	3.6610	3.6609	-1.2847	25.27	0.10	-0.750			
0.4051	25924.35	3.6580	3.6578	-1.3272	25.26	0.09	-0.750			
0.4091	26180.12	3.6550	3.6548	-1.3362	25.25	0.08	-0.750			
0.4129	26428.78	3.6520	3.6518	-1.3514	25.24	0.07	-0.750			
0.4171	26696.38	3.6490	3.6488	-1.3926	25.23	0.06	-0.750			
0.4212	26956.01	3.6460	3.6459	-1.4391	25.22	0.05	-0.750			
0.4255	27235.13	3.6430	3.6431	-1.4524	25.22	0.05	-0.750			
0.4301	27526.91	3.6400	3.6398	-1.4759	25.21	0.04	-0.750			
0.4345	27807.89	3.6370	3.6368	-1.5222	25.20	0.03	-0.750			
0.4392	28105.83	3.6340	3.6345	-1.5302	25.19	0.02	-0.750			
0.4437	28397.62	3.6310	3.6307	-1.5513	25.18	0.01	-0.750			
0.4485	28704.26	3.6280	3.6281	-1.5793	25.18	0.01	-0.750			
0.4533	29008.88	3.6250	3.6252	-1.6113	25.17	-0.00	-0.750			
0.4582	29324.88	3.6220	3.6219	-1.6830	25.17	-0.00	-0.750			
0.4633	29650.78	3.6190	3.6186	-1.7074	25.16	-0.01	-0.750			
0.4686	29988.16	3.6160	3.6159	-1.6964	25.15	-0.02	-0.750			
0.4737	30316.78	3.6130	3.6127	-1.7253	25.15	-0.02	-0.750			
0.4788	30641.84	3.6100	3.6096	-1.7506	25.14	-0.03	-0.750			
0.4841	30980.46	3.6070	3.6065	-1.7872	25.13	-0.04	-0.750			
0.4893	31316.35	3.6040	3.6045	-1.8413	25.12	-0.05	-0.750			
0.4950	31681.96	3.6010	3.6015	-1.9545	25.11	-0.06	-0.750			
0.5010	32061.40	3.5980	3.5980	-1.9462	25.10	-0.07	-0.750			
0.5070	32448.11	3.5950	3.5947	-1.9945	25.10	-0.07	-0.750			
0.5131	32839.77	3.5920	3.5918	-1.9990	25.10	-0.07	-0.750			
0.5192	33228.06	3.5890	3.5890	-2.0285	25.09	-0.08	-0.750			
0.5252	33613.90	3.5860	3.5864	-2.0770	25.08	-0.09	-0.750			
0.5315	34016.92	3.5830	3.5831	-2.1639	25.08	-0.09	-0.750			
0.5379	34422.94	3.5800	3.5801	-2.1072	25.08	-0.09	-0.750			
0.5441	34822.93	3.5770	3.5771	-2.1396	25.08	-0.09	-0.750			
0.5508	35251.64	3.5740	3.5739	-2.2089	25.07	-0.10	-0.750			
0.5575	35682.39	3.5710	3.5711	-2.2005	25.07	-0.10	-0.750			
0.5643	36114.08	3.5680	3.5685	-2.2024	25.06	-0.11	-0.750			
0.5710	36541.14	3.5650	3.5651	-2.2872	25.06	-0.11	-0.750			
0.5776	36966.15	3.5620	3.5618	-2.1768	25.06	-0.11	-0.750			
0.5840	37374.38	3.5590	3.5589	-2.2112	25.05	-0.12	-0.750			
0.5907	37803.54	3.5560	3.5553	-2.2260	25.05	-0.12	-0.750			
0.5975	38238.37	3.5530	3.5527	-2.1827	25.04	-0.13	-0.750			
0.6040	38655.30	3.5500	3.5497	-2.1724	25.04	-0.13	-0.750			
0.6108	39090.94	3.5470	3.5468	-2.1297	25.05	-0.12	-0.750			
0.6169	39483.33	3.5440	3.5444	-2.0642	25.06	-0.11	-0.750			
0.6231	39880.80	3.5410	3.5413	-2.0442	25.06	-0.11	-0.750			
0.6292	40272.00	3.5380	3.5376	-2.0053	25.06	-0.11	-0.750			
0.6351	40646.40	3.5350	3.5348	-1.9945	25.07	-0.10	-0.750			
0.6410	41023.78	3.5320	3.5320	-1.9433	25.08	-0.09	-0.750			
0.6471	41412.88	3.5290	3.5286	-1.9234	25.09	-0.08	-0.750			
0.6526	41769.15	3.5260	3.5260	-1.8603	25.10	-0.07	-0.750			
0.6581	42120.01	3.5230	3.5228	-1.8132	25.11	-0.06	-0.750			
0.6635	42464.39	3.5200	3.5202	-1.7822	25.12	-0.05	-0.750			
0.6688	42800.36	3.5170	3.5174	-1.7399	25.13	-0.04	-0.750			
0.6740	43137.65	3.5140	3.5135	-1.6763	25.15	-0.02	-0.750			
0.6791	43459.54	3.5110	3.5105	-1.6114	25.17	-0.00	-0.750			
0.6838	43765.85	3.5080	3.5078	-1.5770	25.18	0.01	-0.750			
0.6887	44076.10	3.5050	3.5048	-1.5398	25.20	0.03	-0.750			
0.6930	44353.90	3.5020	3.5016	-1.4615	25.21	0.04	-0.750			
0.6973	44625.35	3.4990	3.4999	-1.4117	25.22	0.05	-0.750			
0.7015	44894.00	3.4960	3.4959	-1.4053	25.24	0.07	-0.750			
0.7057	45164.46	3.4930	3.4928	-1.3961	25.25	0.08	-0.750			
0.7098	45427.01	3.4900	3.4900	-1.4313	25.26	0.09	-0.750			
0.7142	45708.12	3.4870	3.4866	-1.4902	25.28	0.11	-0.750			
