Ah_balance (normalized)	Ah_balance (mAh)	Voltage - fit (V)	Voltage -  interpolate (V)	dQ/dV (1/V)	Temperature (°C)	Temperature - diff (°C)	Current (C)	R_DC 0ms (mOhm)	R_DC 50ms (mOhm)	R_DC 50 ms PEC (mOhm)
0.0002	13.16	4.1660	4.1659	-0.1275	24.87	0.02	-0.750			
0.0007	43.28	4.1630	4.1630	-0.1790	24.87	0.02	-0.750			
0.0013	81.88	4.1600	4.1599	-0.2231	24.87	0.02	-0.750			
0.0020	128.84	4.1570	4.1570	-0.2673	24.87	0.02	-0.750			
0.0029	184.25	4.1540	4.1541	-0.3122	24.87	0.02	-0.750			
0.0039	248.94	4.1510	4.1510	-0.3553	24.86	0.01	-0.750			
0.0050	321.76	4.1480	4.1480	-0.3977	24.86	0.01	-0.750			
0.0063	402.29	4.1450	4.1450	-0.4391	24.86	0.01	-0.750			
0.0077	491.88	4.1420	4.1420	-0.4781	24.85	0.00	-0.750			
0.0092	588.13	4.1390	4.1390	-0.5097	24.85	0.00	-0.750			
0.0108	689.59	4.1360	4.1360	-0.5461	24.85	-0.00	-0.750			
0.0125	797.64	4.1330	4.1331	-0.5787	24.84	-0.01	-0.750			
0.0143	912.27	4.1300	4.1299	-0.6074	24.84	-0.01	-0.750			
0.0161	1032.40	4.1270	4.1271	-0.6292	24.83	-0.02	-0.750			
0.0181	1158.16	4.1240	4.1240	-0.6479	24.83	-0.02	-0.750			
0.0201	1284.97	4.1210	4.1210	-0.6645	24.82	-0.03	-0.750			
0.0221	1415.62	4.1180	4.1182	-0.6791	24.82	-0.03	-0.750			
0.0241	1545.38	4.1150	4.1150	-0.6868	24.82	-0.03	-0.750			
0.0262	1679.19	4.1120	4.1119	-0.6935	24.81	-0.04	-0.750			
0.0283	1813.82	4.1090	4.1091	-0.7000	24.81	-0.04	-0.750			
0.0305	1949.45	4.1060	4.1060	-0.7074	24.81	-0.04	-0.750			
0.0326	2085.19	4.1030	4.1030	-0.7093	24.80	-0.05	-0.750			
0.0347	2219.97	4.1000	4.1002	-0.7145	24.80	-0.05	-0.750			
0.0368	2357.63	4.0970	4.0969	-0.7226	24.80	-0.05	-0.750			
0.0390	2496.77	4.0940	4.0941	-0.7368	24.79	-0.06	-0.750			
0.0413	2640.60	4.0910	4.0909	-0.7504	24.79	-0.06	-0.750			
0.0436	2787.35	4.0880	4.0880	-0.7582	24.79	-0.06	-0.750			
0.0458	2934.19	4.0850	4.0849	-0.7618	24.78	-0.07	-0.750			
0.0482	3082.03	4.0820	4.0819	-0.7654	24.78	-0.07	-0.750			
0.0504	3227.36	4.0790	4.0790	-0.7719	24.78	-0.07	-0.750			
0.0527	3374.91	4.0760	4.0758	-0.7708	24.78	-0.07	-0.750			
0.0550	3521.02	4.0730	4.0731	-0.7716	24.78	-0.07	-0.750			
0.0574	3673.09	4.0700	4.0700	-0.7797	24.78	-0.07	-0.750			
0.0597	3823.93	4.0670	4.0673	-0.7823	24.78	-0.07	-0.750			
0.0621	3974.10	4.0640	4.0639	-0.7831	24.78	-0.07	-0.750			
0.0644	4123.19	4.0610	4.0611	-0.7857	24.78	-0.07	-0.750			
0.0668	4273.72	4.0580	4.0579	-0.7862	24.78	-0.07	-0.750			
0.0692	4426.11	4.0550	4.0550	-0.7899	24.78	-0.07	-0.750			
0.0715	4576.95	4.0520	4.0519	-0.7903	24.78	-0.07	-0.750			
0.0739	4729.38	4.0490	4.0490	-0.7922	24.78	-0.07	-0.750			
0.0763	4880.96	4.0460	4.0459	-0.8015	24.78	-0.07	-0.750			
0.0787	5035.27	4.0430	4.0430	-0.8016	24.79	-0.06	-0.750			
0.0811	5191.05	4.0400	4.0398	-0.7994	24.79	-0.06	-0.750			
0.0836	5347.39	4.0370	4.0371	-0.7966	24.79	-0.06	-0.750			
0.0859	5498.25	4.0340	4.0339	-0.7991	24.79	-0.06	-0.750			
0.0883	5648.44	4.0310	4.0310	-0.8014	24.79	-0.06	-0.750			
0.0907	5802.31	4.0280	4.0278	-0.8041	24.80	-0.05	-0.750			
0.0930	5953.46	4.0250	4.0250	-0.8034	24.80	-0.05	-0.750			
0.0955	6113.91	4.0220	4.0220	-0.8107	24.80	-0.05	-0.750			
0.0980	6269.65	4.0190	4.0191	-0.8131	24.80	-0.05	-0.750			
0.1004	6426.34	4.0160	4.0160	-0.8191	24.80	-0.05	-0.750			
0.1028	6581.13	4.0130	4.0128	-0.8184	24.80	-0.05	-0.750			
0.1053	6737.81	4.0100	4.0100	-0.8195	24.81	-0.04	-0.750			
0.1078	6898.15	4.0070	4.0070	-0.8258	24.81	-0.04	-0.750			
0.1103	7058.88	4.0040	4.0041	-0.8309	24.81	-0.04	-0.750			
0.1128	7218.33	4.0010	4.0010	-0.8347	24.81	-0.04	-0.750			
0.1153	7377.93	3.9980	3.9979	-0.8268	24.81	-0.04	-0.750			
0.1177	7535.85	3.9950	3.9949	-0.8244	24.82	-0.03	-0.750			
0.1202	7694.38	3.9920	3.9920	-0.8249	24.82	-0.03	-0.750			
0.1227	7853.33	3.9890	3.9890	-0.8283	24.82	-0.03	-0.750			
0.1252	8010.47	3.9860	3.9859	-0.8329	24.82	-0.03	-0.750			
0.1277	8171.43	3.9830	3.9830	-0.8306	24.82	-0.03	-0.750			
0.1302	8330.41	3.9800	3.9799	-0.8334	24.83	-0.02	-0.750			
0.1327	8493.74	3.9770	3.9770	-0.8384	24.83	-0.02	-0.750			
0.1352	8654.16	3.9740	3.9740	-0.8360	24.83	-0.02	-0.750			
0.1377	8814.47	3.9710	3.9709	-0.8329	24.83	-0.02	-0.750			
0.1402	8973.43	3.9680	3.9680	-0.8285	24.83	-0.02	-0.750			
0.1427	9130.88	3.9650	3.9650	-0.8318	24.84	-0.01	-0.750			
0.1452	9292.33	3.9620	3.9619	-0.8425	24.84	-0.01	-0.750			
0.1477	9454.08	3.9590	3.9590	-0.8390	24.84	-0.01	-0.750			
0.1503	9616.16	3.9560	3.9562	-0.8450	24.85	-0.00	-0.750			
0.1528	9781.15	3.9530	3.9530	-0.8508	24.85	-0.00	-0.750			
0.1554	9944.48	3.9500	3.9499	-0.8516	24.85	0.00	-0.750			
0.1580	10109.11	3.9470	3.9469	-0.8481	24.86	0.01	-0.750			
0.1605	10269.54	3.9440	3.9439	-0.8521	24.86	0.01	-0.750			
0.1630	10432.00	3.9410	3.9410	-0.8652	24.86	0.01	-0.750			
0.1656	10600.22	3.9380	3.9379	-0.8758	24.86	0.01	-0.750			
0.1683	10769.39	3.9350	3.9348	-0.8749	24.86	0.01	-0.750			
0.1710	10942.50	3.9320	3.9319	-0.8841	24.86	0.01	-0.750			
0.1736	11112.49	3.9290	3.9291	-0.8861	24.86	0.01	-0.750			
0.1763	11283.90	3.9260	3.9260	-0.8842	24.86	0.01	-0.750			
0.1789	11449.42	3.9230	3.9229	-0.8739	24.87	0.02	-0.750			
0.1815	11615.26	3.9200	3.9200	-0.8736	24.87	0.02	-0.750			
0.1841	11784.95	3.9170	3.9171	-0.8821	24.87	0.02	-0.750			
0.1868	11953.78	3.9140	3.9140	-0.8877	24.87	0.02	-0.750			
0.1895	12127.31	3.9110	3.9110	-0.8865	24.88	0.03	-0.750			
0.1921	12296.90	3.9080	3.9080	-0.8846	24.88	0.03	-0.750			
0.1948	12466.70	3.9050	3.9049	-0.8847	24.89	0.04	-0.750			
0.1975	12637.08	3.9020	3.9022	-0.8868	24.89	0.04	-0.750			
0.2001	12806.26	3.8990	3.8989	-0.8885	24.89	0.04	-0.750			
0.2027	12975.96	3.8960	3.8960	-0.8905	24.89	0.04	-0.750			
0.2054	13147.44	3.8930	3.8930	-0.8949	24.90	0.05	-0.750			
0.2082	13322.09	3.8900	3.8899	-0.8964	24.90	0.05	-0.750			
0.2108	13493.43	3.8870	3.8870	-0.8955	24.90	0.05	-0.750			
0.2135	13664.44	3.8840	3.8841	-0.9012	24.90	0.05	-0.750			
0.2162	13838.30	3.8810	3.8809	-0.8996	24.91	0.06	-0.750			
0.2189	14010.06	3.8780	3.8779	-0.9015	24.91	0.06	-0.750			
0.2216	14183.68	3.8750	3.8750	-0.9053	24.91	0.06	-0.750			
0.2243	14357.06	3.8720	3.8720	-0.9103	24.91	0.06	-0.750			
0.2271	14533.95	3.8690	3.8689	-0.9100	24.91	0.06	-0.750			
0.2298	14708.60	3.8660	3.8660	-0.9040	24.92	0.07	-0.750			
0.2325	14881.46	3.8630	3.8629	-0.9035	24.92	0.07	-0.750			
0.2353	15056.74	3.8600	3.8602	-0.9074	24.92	0.07	-0.750			
0.2380	15229.27	3.8570	3.8569	-0.9109	24.93	0.08	-0.750			
0.2407	15403.54	3.8540	3.8540	-0.9122	24.93	0.08	-0.750			
0.2434	15578.08	3.8510	3.8510	-0.9086	24.93	0.08	-0.750			
0.2462	15755.72	3.8480	3.8480	-0.9126	24.94	0.09	-0.750			
0.2489	15932.72	3.8450	3.8450	-0.9132	24.94	0.09	-0.750			
0.2517	16107.26	3.8420	3.8419	-0.9033	24.94	0.09	-0.750			
0.2543	16276.22	3.8390	3.8391	-0.9126	24.95	0.10	-0.750			
0.2571	16451.31	3.8360	3.8361	-0.9172	24.95	0.10	-0.750			
0.2598	16630.09	3.8330	3.8329	-0.9256	24.95	0.10	-0.750			
0.2626	16809.48	3.8300	3.8301	-0.9339	24.95	0.10	-0.750			
0.2655	16992.07	3.8270	3.8270	-0.9362	24.95	0.10	-0.750			
0.2683	17173.20	3.8240	3.8240	-0.9294	24.96	0.11	-0.750			
0.2711	17352.38	3.8210	3.8210	-0.9260	24.96	0.11	-0.750			
0.2738	17524.46	3.8180	3.8181	-0.9197	24.96	0.11	-0.750			
0.2766	17702.64	3.8150	3.8150	-0.9208	24.97	0.12	-0.750			
0.2793	17878.14	3.8120	3.8119	-0.9148	24.97	0.12	-0.750			
0.2821	18053.22	3.8090	3.8090	-0.9104	24.98	0.13	-0.750			
0.2849	18230.86	3.8060	3.8062	-0.9112	24.98	0.13	-0.750			
0.2876	18403.60	3.8030	3.8029	-0.9116	24.99	0.14	-0.750			
0.2903	18577.54	3.8000	3.8000	-0.9055	24.99	0.14	-0.750			
0.2930	18750.96	3.7970	3.7969	-0.9049	24.99	0.14	-0.750			
0.2957	18925.99	3.7940	3.7940	-0.9077	25.00	0.15	-0.750			
0.2984	19100.21	3.7910	3.7911	-0.9094	25.00	0.15	-0.750			
0.3012	19274.73	3.7880	3.7879	-0.9175	25.01	0.16	-0.750			
0.3039	19451.10	3.7850	3.7850	-0.9183	25.01	0.16	-0.750			
0.3067	19625.69	3.7820	3.7819	-0.9165	25.02	0.17	-0.750			
0.3094	19804.27	3.7790	3.7792	-0.9180	25.02	0.17	-0.750			
0.3122	19980.95	3.7760	3.7760	-0.9206	25.02	0.17	-0.750			
0.3150	20157.86	3.7730	3.7731	-0.9182	25.02	0.17	-0.750			
0.3177	20333.12	3.7700	3.7698	-0.9125	25.03	0.18	-0.750			
0.3205	20508.82	3.7670	3.7671	-0.9145	25.03	0.18	-0.750			
0.3232	20684.35	3.7640	3.7641	-0.9139	25.03	0.18	-0.750			
0.3259	20859.58	3.7610	3.7609	-0.9226	25.03	0.18	-0.750			
0.3287	21039.66	3.7580	3.7579	-0.9188	25.04	0.19	-0.750			
0.3315	21213.85	3.7550	3.7549	-0.9136	25.04	0.19	-0.750			
0.3342	21389.18	3.7520	3.7524	-0.9185	25.04	0.19	-0.750			
0.3369	21564.37	3.7490	3.7490	-0.9265	25.04	0.19	-0.750			
0.3397	21742.55	3.7460	3.7458	-0.9276	25.05	0.20	-0.750			
0.3425	21919.43	3.7430	3.7430	-0.9306	25.05	0.20	-0.750			
0.3453	22101.52	3.7400	3.7400	-0.9393	25.06	0.21	-0.750			
0.3482	22283.09	3.7370	3.7371	-0.9429	25.06	0.21	-0.750			
0.3510	22464.28	3.7340	3.7339	-0.9463	25.06	0.21	-0.750			
0.3538	22645.18	3.7310	3.7309	-0.9481	25.06	0.21	-0.750			
0.3566	22825.00	3.7280	3.7280	-0.9509	25.06	0.21	-0.750			
0.3595	23010.26	3.7250	3.7252	-0.9633	25.06	0.21	-0.750			
0.3624	23196.37	3.7220	3.7220	-0.9724	25.06	0.21	-0.750			
0.3654	23384.01	3.7190	3.7189	-0.9826	25.06	0.21	-0.750			
0.3683	23571.39	3.7160	3.7160	-0.9915	25.06	0.21	-0.750			
0.3713	23763.17	3.7130	3.7131	-1.0115	25.06	0.21	-0.750			
0.3743	23957.88	3.7100	3.7101	-1.0320	25.06	0.21	-0.750	0.381	0.472	
0.3775	24157.84	3.7070	3.7069	-1.0495	25.06	0.21	-0.750			
0.3807	24363.10	3.7040	3.7040	-1.0622	25.06	0.21	-0.750			
0.3839	24568.95	3.7010	3.7011	-1.0737	25.06	0.21	-0.750			
0.3872	24778.44	3.6980	3.6980	-1.0924	25.06	0.21	-0.750			
0.3904	24987.02	3.6950	3.6949	-1.1061	25.06	0.21	-0.750			
0.3937	25199.79	3.6920	3.6919	-1.1212	25.06	0.21	-0.750			
0.3971	25413.72	3.6890	3.6892	-1.1447	25.06	0.21	-0.750			
0.4006	25638.85	3.6860	3.6859	-1.1715	25.05	0.20	-0.750			
0.4042	25867.49	3.6830	3.6830	-1.1910	25.05	0.20	-0.750			
0.4078	26097.06	3.6800	3.6799	-1.2133	25.04	0.19	-0.750			
0.4115	26334.14	3.6770	3.6770	-1.2335	25.04	0.19	-0.750			
0.4152	26570.43	3.6740	3.6740	-1.2523	25.04	0.19	-0.750			
0.4189	26806.67	3.6710	3.6710	-1.2898	25.04	0.19	-0.750			
0.4228	27056.42	3.6680	3.6682	-1.3143	25.04	0.19	-0.750			
0.4268	27313.23	3.6650	3.6649	-1.3569	25.03	0.18	-0.750			
0.4309	27576.67	3.6620	3.6620	-1.4028	25.02	0.17	-0.750			
0.4352	27850.12	3.6590	3.6592	-1.4386	25.01	0.16	-0.750			
0.4396	28134.62	3.6560	3.6558	-1.4752	25.01	0.16	-0.750			
0.4441	28420.81	3.6530	3.6530	-1.4970	25.00	0.15	-0.750			
0.4486	28712.11	3.6500	3.6498	-1.5139	25.00	0.15	-0.750			
0.4532	29007.24	3.6470	3.6471	-1.5624	24.99	0.14	-0.750			
0.4579	29304.86	3.6440	3.6439	-1.5880	24.98	0.13	-0.750			
0.4627	29614.37	3.6410	3.6408	-1.6290	24.97	0.12	-0.750			
0.4678	29936.24	3.6380	3.6381	-1.6860	24.95	0.10	-0.750			
0.4731	30275.99	3.6350	3.6349	-1.6751	24.94	0.09	-0.750			
0.4782	30601.74	3.6320	3.6321	-1.6559	24.94	0.09	-0.750			
0.4832	30922.96	3.6290	3.6294	-1.6796	24.94	0.09	-0.750			
0.4880	31233.77	3.6260	3.6258	-1.7016	24.93	0.08	-0.750			
0.4931	31555.76	3.6230	3.6228	-1.7465	24.92	0.07	-0.750			
0.4983	31889.92	3.6200	3.6199	-1.8156	24.91	0.06	-0.750			
0.5038	32241.88	3.6170	3.6173	-1.9112	24.89	0.04	-0.750			
0.5100	32637.07	3.6140	3.6141	-1.9813	24.88	0.03	-0.750			
0.5159	33020.19	3.6110	3.6112	-2.0292	24.87	0.02	-0.750			
0.5220	33405.08	3.6080	3.6081	-2.0377	24.86	0.01	-0.750			
0.5281	33797.87	3.6050	3.6047	-2.0940	24.86	0.01	-0.750			
0.5344	34200.32	3.6020	3.6023	-2.0861	24.85	-0.00	-0.750			
0.5407	34604.90	3.5990	3.5992	-2.1194	24.84	-0.01	-0.750			
0.5471	35013.45	3.5960	3.5963	-2.2110	24.84	-0.01	-0.750			
0.5540	35453.13	3.5930	3.5931	-2.2608	24.83	-0.02	-0.750			
0.5607	35881.93	3.5900	3.5899	-2.2241	24.82	-0.03	-0.750			
0.5676	36326.88	3.5870	3.5866	-2.2824	24.81	-0.04	-0.750			
0.5744	36758.46	3.5840	3.5833	-2.2804	24.80	-0.05	-0.750			
0.5812	37196.62	3.5810	3.5808	-2.3567	24.80	-0.05	-0.750			
0.5883	37649.67	3.5780	3.5777	-2.4060	24.79	-0.06	-0.750			
0.5955	38111.75	3.5750	3.5751	-2.3974	24.78	-0.07	-0.750			
0.6028	38577.16	3.5720	3.5716	-2.4665	24.78	-0.07	-0.750			
0.6102	39055.00	3.5690	3.5689	-2.4552	24.78	-0.07	-0.750			
0.6175	39520.24	3.5660	3.5665	-2.4005	24.78	-0.07	-0.750			
0.6248	39987.54	3.5630	3.5626	-2.4164	24.78	-0.07	-0.750			
0.6320	40448.39	3.5600	3.5601	-2.4184	24.78	-0.07	-0.750			
0.6392	40910.42	3.5570	3.5569	-2.4334	24.78	-0.07	-0.750			
0.6462	41358.83	3.5540	3.5538	-2.3443	24.78	-0.07	-0.750			
0.6535	41822.57	3.5510	3.5511	-2.3955	24.78	-0.07	-0.750			
0.6605	42272.62	3.5480	3.5480	-2.3470	24.78	-0.07	-0.750			
0.6675	42721.63	3.5450	3.5453	-2.3149	24.79	-0.06	-0.750			
0.6744	43162.09	3.5420	3.5420	-2.2753	24.80	-0.05	-0.750			
0.6811	43590.92	3.5390	3.5384	-2.2057	24.81	-0.04	-0.750			
0.6877	44013.56	3.5360	3.5357	-2.1465	24.82	-0.03	-0.750			
0.6942	44428.58	3.5330	3.5329	-2.1301	24.82	-0.03	-0.750			
0.7004	44823.22	3.5300	3.5297	-2.0750	24.83	-0.02	-0.750			
0.7065	45215.44	3.5270	3.5271	-1.9951	24.84	-0.01	-0.750			
0.7124	45594.24	3.5240	3.5244	-1.9523	24.85	0.00	-0.750			
0.7182	45963.82	3.5210	3.5212	-1.8994	24.86	0.01	-0.750			
0.7238	46325.87	3.5180	3.5178	-1.8441	24.87	0.02	-0.750			
0.7293	46677.22	3.5150	3.5147	-1.8032	24.89	0.04	-0.750			
0.7348	47027.01	3.5120	3.5121	-1.7437	24.90	0.05	-0.750			
0.7401	47363.91	3.5090	3.5093	-1.6649	24.92	0.07	-0.750			
0.7448	47670.27	3.5060	3.5062	-1.5481	24.93	0.08	-0.750			
0.7494	47959.87	3.5030	3.5028	-1.5046	24.95	0.10	-0.750			
