Ah_balance (normalized)	Ah_balance (mAh)	Voltage - fit (V)	Voltage -  interpolate (V)	dQ/dV (1/V)	Temperature (°C)	Temperature - diff (°C)	Current (C)	R_DC 0ms (mOhm)	R_DC 50ms (mOhm)	R_DC 50 ms PEC (mOhm)
0.0004	22.75	4.1620	4.1616	-0.1315	25.10	0.00	-0.750			
0.0008	51.15	4.1590	4.1591	-0.1703	25.10	-0.00	-0.750			
0.0014	87.61	4.1560	4.1560	-0.2126	25.10	-0.00	-0.750			
0.0021	133.58	4.1530	4.1529	-0.2531	25.10	-0.00	-0.750			
0.0029	185.83	4.1500	4.1501	-0.2942	25.10	-0.00	-0.750			
0.0039	246.62	4.1470	4.1470	-0.3327	25.09	-0.01	-0.750			
0.0049	315.18	4.1440	4.1441	-0.3703	25.09	-0.01	-0.750			
0.0061	389.40	4.1410	4.1410	-0.4068	25.09	-0.01	-0.750			
0.0073	470.32	4.1380	4.1380	-0.4439	25.09	-0.01	-0.750			
0.0087	559.40	4.1350	4.1350	-0.4776	25.09	-0.01	-0.750			
0.0103	656.06	4.1320	4.1319	-0.5034	25.08	-0.02	-0.750			
0.0118	756.76	4.1290	4.1291	-0.5292	25.08	-0.02	-0.750			
0.0135	861.29	4.1260	4.1263	-0.5539	25.08	-0.02	-0.750			
0.0152	971.06	4.1230	4.1229	-0.5731	25.08	-0.02	-0.750			
0.0169	1082.34	4.1200	4.1199	-0.5868	25.07	-0.03	-0.750			
0.0187	1193.98	4.1170	4.1171	-0.6067	25.07	-0.03	-0.750			
0.0206	1315.29	4.1140	4.1141	-0.6202	25.07	-0.03	-0.750			
0.0224	1436.60	4.1110	4.1108	-0.6332	25.07	-0.03	-0.750			
0.0244	1558.86	4.1080	4.1080	-0.6456	25.06	-0.04	-0.750			
0.0263	1683.20	4.1050	4.1051	-0.6595	25.06	-0.04	-0.750			
0.0283	1813.38	4.1020	4.1019	-0.6682	25.06	-0.04	-0.750			
0.0304	1942.70	4.0990	4.0990	-0.6732	25.06	-0.04	-0.750			
0.0324	2071.06	4.0960	4.0961	-0.6823	25.05	-0.05	-0.750			
0.0345	2206.55	4.0930	4.0930	-0.6895	25.05	-0.05	-0.750			
0.0365	2338.60	4.0900	4.0898	-0.6908	25.05	-0.05	-0.750			
0.0386	2470.42	4.0870	4.0872	-0.6963	25.05	-0.05	-0.750			
0.0407	2603.70	4.0840	4.0840	-0.7010	25.05	-0.05	-0.750			
0.0428	2738.67	4.0810	4.0809	-0.7163	25.05	-0.05	-0.750			
0.0450	2877.29	4.0780	4.0780	-0.7169	25.04	-0.06	-0.750			
0.0471	3016.96	4.0750	4.0750	-0.7266	25.04	-0.06	-0.750			
0.0493	3157.84	4.0720	4.0719	-0.7286	25.04	-0.06	-0.750			
0.0515	3298.33	4.0690	4.0690	-0.7305	25.04	-0.06	-0.750			
0.0537	3438.11	4.0660	4.0660	-0.7317	25.04	-0.06	-0.750			
0.0559	3577.90	4.0630	4.0629	-0.7400	25.04	-0.06	-0.750			
0.0581	3720.01	4.0600	4.0600	-0.7375	25.05	-0.05	-0.750			
0.0604	3865.76	4.0570	4.0568	-0.7395	25.05	-0.05	-0.750			
0.0626	4007.07	4.0540	4.0542	-0.7398	25.05	-0.05	-0.750			
0.0648	4148.70	4.0510	4.0509	-0.7436	25.05	-0.05	-0.750			
0.0670	4290.01	4.0480	4.0477	-0.7413	25.05	-0.05	-0.750			
0.0692	4431.44	4.0450	4.0450	-0.7508	25.05	-0.05	-0.750			
0.0715	4574.83	4.0420	4.0420	-0.7490	25.06	-0.04	-0.750			
0.0738	4724.66	4.0390	4.0390	-0.7617	25.06	-0.04	-0.750			
0.0761	4871.49	4.0360	4.0362	-0.7599	25.06	-0.04	-0.750			
0.0784	5017.01	4.0330	4.0329	-0.7503	25.06	-0.04	-0.750			
0.0806	5159.94	4.0300	4.0300	-0.7557	25.06	-0.04	-0.750			
0.0829	5302.49	4.0270	4.0271	-0.7591	25.06	-0.04	-0.750			
0.0852	5450.09	4.0240	4.0238	-0.7592	25.06	-0.04	-0.750			
0.0874	5596.39	4.0210	4.0207	-0.7613	25.06	-0.04	-0.750			
0.0897	5742.15	4.0180	4.0180	-0.7636	25.06	-0.04	-0.750			
0.0920	5888.24	4.0150	4.0150	-0.7737	25.07	-0.03	-0.750			
0.0944	6039.20	4.0120	4.0119	-0.7748	25.07	-0.03	-0.750			
0.0966	6185.31	4.0090	4.0090	-0.7660	25.07	-0.03	-0.750			
0.0990	6335.38	4.0060	4.0060	-0.7713	25.08	-0.02	-0.750			
0.1013	6485.46	4.0030	4.0033	-0.7743	25.08	-0.02	-0.750			
0.1036	6632.46	4.0000	3.9999	-0.7739	25.08	-0.02	-0.750			
0.1059	6779.76	3.9970	3.9969	-0.7754	25.08	-0.02	-0.750			
0.1082	6926.33	3.9940	3.9941	-0.7753	25.09	-0.01	-0.750			
0.1106	7079.13	3.9910	3.9910	-0.7820	25.09	-0.01	-0.750			
0.1130	7231.13	3.9880	3.9880	-0.7866	25.09	-0.01	-0.750			
0.1153	7380.99	3.9850	3.9851	-0.7881	25.09	-0.01	-0.750			
0.1177	7531.86	3.9820	3.9819	-0.7923	25.09	-0.01	-0.750			
0.1201	7684.89	3.9790	3.9789	-0.7920	25.10	-0.00	-0.750			
0.1225	7837.51	3.9760	3.9759	-0.7923	25.10	-0.00	-0.750			
0.1249	7991.33	3.9730	3.9731	-0.7911	25.10	-0.00	-0.750			
0.1272	8141.93	3.9700	3.9699	-0.7965	25.10	0.00	-0.750			
0.1296	8291.39	3.9670	3.9670	-0.8040	25.11	0.01	-0.750			
0.1320	8448.58	3.9640	3.9640	-0.7995	25.11	0.01	-0.750			
0.1344	8600.78	3.9610	3.9610	-0.8035	25.11	0.01	-0.750			
0.1369	8759.39	3.9580	3.9580	-0.8086	25.12	0.02	-0.750			
0.1393	8914.56	3.9550	3.9549	-0.8050	25.12	0.02	-0.750			
0.1417	9067.71	3.9520	3.9519	-0.8042	25.12	0.02	-0.750			
0.1440	9218.34	3.9490	3.9490	-0.8013	25.12	0.02	-0.750			
0.1464	9371.63	3.9460	3.9461	-0.7997	25.12	0.02	-0.750			
0.1489	9528.38	3.9430	3.9428	-0.8141	25.12	0.02	-0.750			
0.1513	9684.47	3.9400	3.9402	-0.8102	25.12	0.02	-0.750			
0.1537	9839.79	3.9370	3.9371	-0.8242	25.12	0.02	-0.750			
0.1562	9999.41	3.9340	3.9339	-0.8262	25.13	0.03	-0.750			
0.1588	10160.58	3.9310	3.9310	-0.8198	25.13	0.03	-0.750			
0.1612	10317.32	3.9280	3.9279	-0.8199	25.14	0.04	-0.750			
0.1637	10475.31	3.9250	3.9252	-0.8204	25.14	0.04	-0.750			
0.1661	10629.83	3.9220	3.9220	-0.8173	25.14	0.04	-0.750			
0.1686	10789.54	3.9190	3.9189	-0.8275	25.14	0.04	-0.750			
0.1711	10947.25	3.9160	3.9158	-0.8230	25.14	0.04	-0.750			
0.1736	11108.74	3.9130	3.9129	-0.8336	25.14	0.04	-0.750			
0.1761	11269.33	3.9100	3.9104	-0.8324	25.14	0.04	-0.750			
0.1786	11428.50	3.9070	3.9068	-0.8283	25.15	0.05	-0.750			
0.1810	11587.16	3.9040	3.9039	-0.8272	25.15	0.05	-0.750			
0.1834	11740.56	3.9010	3.9011	-0.8145	25.16	0.06	-0.750			
0.1860	11901.88	3.8980	3.8980	-0.8317	25.16	0.06	-0.750			
0.1885	12061.96	3.8950	3.8950	-0.8315	25.17	0.07	-0.750			
0.1910	12221.46	3.8920	3.8920	-0.8285	25.17	0.07	-0.750			
0.1935	12380.88	3.8890	3.8890	-0.8380	25.17	0.07	-0.750			
0.1960	12544.06	3.8860	3.8860	-0.8351	25.17	0.07	-0.750			
0.1985	12705.20	3.8830	3.8829	-0.8302	25.17	0.07	-0.750			
0.2010	12863.68	3.8800	3.8803	-0.8298	25.17	0.07	-0.750			
0.2035	13021.20	3.8770	3.8770	-0.8266	25.17	0.07	-0.750			
0.2059	13180.52	3.8740	3.8739	-0.8374	25.17	0.07	-0.750			
0.2085	13342.88	3.8710	3.8708	-0.8272	25.18	0.08	-0.750			
0.2110	13504.12	3.8680	3.8679	-0.8270	25.18	0.08	-0.750			
0.2135	13662.50	3.8650	3.8654	-0.8231	25.18	0.08	-0.750			
0.2159	13820.38	3.8620	3.8619	-0.8177	25.18	0.08	-0.750			
0.2183	13974.11	3.8590	3.8589	-0.8174	25.19	0.09	-0.750			
0.2207	14126.49	3.8560	3.8560	-0.8032	25.19	0.09	-0.750			
0.2232	14286.04	3.8530	3.8530	-0.8194	25.20	0.10	-0.750			
0.2257	14444.32	3.8500	3.8502	-0.8185	25.20	0.10	-0.750			
0.2282	14601.93	3.8470	3.8469	-0.8150	25.20	0.10	-0.750			
0.2306	14757.84	3.8440	3.8440	-0.8173	25.20	0.10	-0.750			
0.2331	14915.28	3.8410	3.8410	-0.8099	25.20	0.10	-0.750			
0.2355	15072.63	3.8380	3.8378	-0.8065	25.20	0.10	-0.750			
0.2379	15227.48	3.8350	3.8353	-0.7971	25.20	0.10	-0.750			
0.2403	15378.07	3.8320	3.8320	-0.7870	25.20	0.10	-0.750			
0.2426	15527.22	3.8290	3.8290	-0.7837	25.21	0.11	-0.750			
0.2449	15675.09	3.8260	3.8260	-0.7779	25.21	0.11	-0.750			
0.2473	15825.84	3.8230	3.8230	-0.7779	25.21	0.11	-0.750			
0.2496	15974.53	3.8200	3.8199	-0.7782	25.22	0.12	-0.750			
0.2519	16124.60	3.8170	3.8169	-0.7778	25.22	0.12	-0.750			
0.2543	16272.23	3.8140	3.8140	-0.7777	25.22	0.12	-0.750			
0.2566	16421.55	3.8110	3.8109	-0.7762	25.22	0.12	-0.750			
0.2589	16570.18	3.8080	3.8080	-0.7681	25.23	0.13	-0.750			
0.2612	16718.98	3.8050	3.8050	-0.7692	25.23	0.13	-0.750			
0.2635	16866.08	3.8020	3.8023	-0.7694	25.23	0.13	-0.750			
0.2658	17011.59	3.7990	3.7989	-0.7648	25.23	0.13	-0.750			
0.2681	17158.74	3.7960	3.7960	-0.7703	25.23	0.13	-0.750			
0.2704	17306.57	3.7930	3.7929	-0.7724	25.24	0.14	-0.750			
0.2728	17457.09	3.7900	3.7900	-0.7700	25.24	0.14	-0.750			
0.2751	17605.57	3.7870	3.7868	-0.7683	25.24	0.14	-0.750			
0.2774	17752.15	3.7840	3.7840	-0.7636	25.24	0.14	-0.750			
0.2796	17896.41	3.7810	3.7809	-0.7708	25.24	0.14	-0.750			
0.2819	18043.42	3.7780	3.7780	-0.7641	25.25	0.15	-0.750			
0.2842	18188.81	3.7750	3.7750	-0.7692	25.25	0.15	-0.750			
0.2865	18339.12	3.7720	3.7720	-0.7749	25.25	0.15	-0.750			
0.2889	18488.88	3.7690	3.7689	-0.7829	25.25	0.15	-0.750			
0.2913	18640.10	3.7660	3.7659	-0.7843	25.25	0.15	-0.750			
0.2936	18790.92	3.7630	3.7631	-0.7949	25.25	0.15	-0.750			
0.2960	18941.73	3.7600	3.7599	-0.7989	25.26	0.16	-0.750			
0.2984	19098.84	3.7570	3.7571	-0.8152	25.26	0.16	-0.750			
0.3009	19254.51	3.7540	3.7543	-0.8159	25.26	0.16	-0.750			
0.3033	19412.10	3.7510	3.7510	-0.8268	25.26	0.16	-0.750			
0.3058	19571.91	3.7480	3.7481	-0.8378	25.26	0.16	-0.750			
0.3084	19735.52	3.7450	3.7448	-0.8433	25.25	0.15	-0.750			
0.3109	19899.15	3.7420	3.7420	-0.8534	25.25	0.15	-0.750			
0.3135	20063.41	3.7390	3.7393	-0.8594	25.25	0.15	-0.750			
0.3160	20226.23	3.7360	3.7360	-0.8802	25.25	0.15	-0.750			
0.3187	20398.70	3.7330	3.7329	-0.8803	25.25	0.15	-0.750			
0.3214	20566.66	3.7300	3.7300	-0.8796	25.25	0.15	-0.750			
0.3240	20738.42	3.7270	3.7269	-0.8989	25.25	0.15	-0.750			
0.3267	20910.56	3.7240	3.7239	-0.9020	25.25	0.15	-0.750			
0.3294	21081.21	3.7210	3.7209	-0.9141	25.24	0.14	-0.750			
0.3321	21256.34	3.7180	3.7180	-0.9359	25.24	0.14	-0.750			
0.3350	21438.22	3.7150	3.7150	-0.9577	25.24	0.14	-0.750			
0.3379	21624.27	3.7120	3.7119	-0.9741	25.23	0.13	-0.750			
0.3408	21812.80	3.7090	3.7091	-1.0010	25.23	0.13	-0.750			
0.3439	22008.67	3.7060	3.7060	-1.0061	25.22	0.12	-0.750			
0.3470	22205.34	3.7030	3.7029	-1.0187	25.22	0.12	-0.750			
0.3500	22399.52	3.7000	3.6999	-1.0295	25.21	0.11	-0.750			
0.3531	22597.17	3.6970	3.6969	-1.0506	25.20	0.10	-0.750	0.388	0.536	
0.3563	22803.28	3.6940	3.6938	-1.0646	25.20	0.10	-0.750			
0.3595	23008.41	3.6910	3.6908	-1.0725	25.19	0.09	-0.750			
0.3627	23215.96	3.6880	3.6885	-1.0880	25.18	0.08	-0.750			
0.3661	23428.96	3.6850	3.6849	-1.1032	25.18	0.08	-0.750			
0.3693	23637.42	3.6820	3.6820	-1.1147	25.18	0.08	-0.750			
0.3727	23850.10	3.6790	3.6790	-1.1322	25.17	0.07	-0.750			
0.3761	24069.61	3.6760	3.6760	-1.1674	25.17	0.07	-0.750			
0.3796	24297.24	3.6730	3.6729	-1.1852	25.16	0.06	-0.750			
0.3833	24529.23	3.6700	3.6699	-1.2045	25.15	0.05	-0.750			
0.3868	24757.88	3.6670	3.6670	-1.2447	25.14	0.04	-0.750			
0.3907	25001.84	3.6640	3.6638	-1.2480	25.14	0.04	-0.750			
0.3944	25241.75	3.6610	3.6609	-1.2601	25.13	0.03	-0.750			
0.3981	25481.25	3.6580	3.6579	-1.2772	25.12	0.02	-0.750			
0.4021	25731.39	3.6550	3.6548	-1.3075	25.12	0.02	-0.750			
0.4060	25982.99	3.6520	3.6519	-1.3221	25.11	0.01	-0.750			
0.4099	26232.27	3.6490	3.6489	-1.3612	25.11	0.01	-0.750			
0.4140	26498.63	3.6460	3.6462	-1.3943	25.10	-0.00	-0.750			
0.4183	26770.60	3.6430	3.6429	-1.4118	25.09	-0.01	-0.750			
0.4225	27040.85	3.6400	3.6400	-1.4421	25.09	-0.01	-0.750			
0.4269	27323.28	3.6370	3.6368	-1.4550	25.08	-0.02	-0.750			
0.4314	27607.04	3.6340	3.6340	-1.4680	25.07	-0.03	-0.750			
0.4358	27889.37	3.6310	3.6307	-1.5020	25.06	-0.04	-0.750			
0.4403	28177.20	3.6280	3.6279	-1.5243	25.06	-0.04	-0.750			
0.4451	28483.22	3.6250	3.6247	-1.5560	25.05	-0.05	-0.750			
0.4497	28777.92	3.6220	3.6224	-1.5989	25.04	-0.06	-0.750			
0.4544	29079.07	3.6190	3.6190	-1.6276	25.03	-0.07	-0.750			
0.4595	29407.94	3.6160	3.6157	-1.6782	25.03	-0.07	-0.750			
0.4646	29733.86	3.6130	3.6128	-1.7008	25.02	-0.08	-0.750			
0.4697	30063.65	3.6100	3.6100	-1.7402	25.01	-0.09	-0.750			
0.4750	30401.57	3.6070	3.6075	-1.7619	25.01	-0.09	-0.750			
0.4803	30741.46	3.6040	3.6041	-1.7808	25.01	-0.09	-0.750			
0.4857	31083.48	3.6010	3.6010	-1.7983	25.00	-0.10	-0.750			
0.4910	31422.50	3.5980	3.5978	-1.8694	25.00	-0.10	-0.750			
0.4970	31806.05	3.5950	3.5945	-1.9223	24.99	-0.11	-0.750			
0.5029	32183.09	3.5920	3.5915	-1.9325	24.98	-0.12	-0.750			
0.5088	32562.96	3.5890	3.5893	-1.9737	24.98	-0.12	-0.750			
0.5147	32941.74	3.5860	3.5860	-1.9821	24.98	-0.12	-0.750			
0.5207	33323.14	3.5830	3.5826	-2.0189	24.98	-0.12	-0.750			
0.5266	33700.41	3.5800	3.5800	-2.0413	24.98	-0.12	-0.750			
0.5329	34107.99	3.5770	3.5768	-2.0743	24.97	-0.13	-0.750			
0.5391	34502.01	3.5740	3.5740	-2.0931	24.97	-0.13	-0.750			
0.5455	34910.95	3.5710	3.5710	-2.0950	24.97	-0.13	-0.750			
0.5518	35318.05	3.5680	3.5680	-2.0932	24.97	-0.13	-0.750			
0.5584	35736.67	3.5650	3.5653	-2.1178	24.98	-0.12	-0.750			
0.5645	36128.92	3.5620	3.5621	-2.1177	24.98	-0.12	-0.750			
0.5709	36539.29	3.5590	3.5592	-2.1091	24.98	-0.12	-0.750			
0.5771	36934.42	3.5560	3.5558	-2.1008	24.98	-0.12	-0.750			
0.5836	37352.17	3.5530	3.5533	-2.0779	24.98	-0.12	-0.750			
0.5899	37756.57	3.5500	3.5497	-2.0586	24.98	-0.12	-0.750			
0.5962	38159.57	3.5470	3.5475	-2.0538	24.99	-0.11	-0.750			
0.6021	38536.76	3.5440	3.5439	-1.9959	25.00	-0.10	-0.750			
0.6082	38924.34	3.5410	3.5409	-1.9774	25.01	-0.09	-0.750			
0.6139	39290.84	3.5380	3.5381	-1.9572	25.02	-0.08	-0.750			
0.6198	39667.59	3.5350	3.5351	-1.9285	25.03	-0.07	-0.750			
0.6255	40034.05	3.5320	3.5326	-1.8974	25.04	-0.06	-0.750			
0.6313	40401.67	3.5290	3.5292	-1.8589	25.05	-0.05	-0.750			
0.6368	40755.63	3.5260	3.5262	-1.8204	25.06	-0.04	-0.750			
0.6422	41103.53	3.5230	3.5230	-1.7827	25.07	-0.03	-0.750			
0.6476	41446.39	3.5200	3.5198	-1.7529	25.09	-0.01	-0.750			
0.6528	41781.64	3.5170	3.5167	-1.7056	25.11	0.01	-0.750			
0.6578	42096.87	3.5140	3.5137	-1.6695	25.12	0.02	-0.750			
0.6627	42413.00	3.5110	3.5115	-1.6223	25.14	0.04	-0.750			
0.6676	42726.44	3.5080	3.5081	-1.5725	25.15	0.05	-0.750			
0.6722	43019.59	3.5050	3.5050	-1.5330	25.17	0.07	-0.750			
0.6767	43310.28	3.5020	3.5020	-1.4699	25.18	0.08	-0.750			
0.6812	43599.47	3.4990	3.4991	-1.4443	25.20	0.10	-0.750			
0.6854	43863.29	3.4960	3.4957	-1.3978	25.21	0.11	-0.750			
0.6894	44123.71	3.4930	3.4930	-1.3528	25.23	0.13	-0.750			
0.6935	44385.42	3.4900	3.4899	-1.3260	25.25	0.15	-0.750			
0.6974	44636.41	3.4870	3.4868	-1.2917	25.26	0.16	-0.750			
0.7014	44886.71	3.4840	3.4843	-1.4474	25.28	0.18	-0.750			
