Ah_balance (normalized)	Ah_balance (mAh)	Voltage - fit (V)	Voltage -  interpolate (V)	dQ/dV (1/V)	Temperature (°C)	Temperature - diff (°C)	Current (C)	R_DC 0ms (mOhm)	R_DC 50ms (mOhm)	R_DC 50 ms PEC (mOhm)
0.0473	3029.36	4.1980	4.1980	0.7371	25.51	0.51	0.750			
0.0495	3168.77	4.1950	4.1951	0.7313	25.51	0.51	0.750			
0.0520	3325.20	4.1920	4.1918	0.7322	25.51	0.51	0.750			
0.0538	3444.20	4.1890	4.1892	0.7297	25.51	0.51	0.750			
0.0560	3581.32	4.1860	4.1856	0.7517	25.51	0.51	0.750	0.338	0.418	
0.0582	3726.26	4.1830	4.1839	0.7739	25.51	0.51	0.750			
0.0606	3878.66	4.1800	4.1807	0.7886	25.51	0.51	0.750			
0.0630	4035.03	4.1770	4.1774	0.8058	25.51	0.51	0.750			
0.0656	4198.71	4.1740	4.1741	0.8113	25.51	0.51	0.750			
0.0681	4356.27	4.1710	4.1710	0.7725	25.51	0.51	0.750			
0.0704	4503.73	4.1680	4.1680	0.7734	25.51	0.51	0.750			
0.0727	4650.45	4.1650	4.1651	0.7812	25.52	0.52	0.750			
0.0750	4800.33	4.1620	4.1620	0.7877	25.52	0.52	0.750			
0.0774	4953.88	4.1590	4.1590	0.7918	25.52	0.52	0.750	0.334	0.421	
0.0798	5106.79	4.1560	4.1561	0.7964	25.52	0.52	0.750			
0.0822	5263.07	4.1530	4.1531	0.7916	25.52	0.52	0.750			
0.0846	5416.86	4.1500	4.1500	0.7928	25.52	0.52	0.750			
0.0870	5565.28	4.1470	4.1470	0.7824	25.51	0.51	0.750			
0.0893	5716.29	4.1440	4.1439	0.7674	25.51	0.51	0.750			
0.0915	5857.60	4.1410	4.1412	0.7775	25.51	0.51	0.750			
0.0939	6007.35	4.1380	4.1382	0.7877	25.51	0.51	0.750			
0.0962	6158.46	4.1350	4.1343	0.7980	25.51	0.51	0.750	0.309	0.402	
0.0987	6315.21	4.1320	4.1323	0.8076	25.52	0.52	0.750			
0.1011	6471.50	4.1290	4.1292	0.8129	25.52	0.52	0.750			
0.1036	6631.37	4.1260	4.1260	0.8184	25.52	0.52	0.750			
0.1061	6791.00	4.1230	4.1230	0.8116	25.52	0.52	0.750			
0.1085	6942.64	4.1200	4.1200	0.8050	25.52	0.52	0.750			
0.1109	7096.95	4.1170	4.1171	0.7959	25.53	0.53	0.750			
0.1132	7245.59	4.1140	4.1142	0.8003	25.53	0.53	0.750			
0.1156	7399.62	4.1110	4.1108	0.8071	25.53	0.53	0.750	0.323	0.408	
0.1180	7554.71	4.1080	4.1082	0.8103	25.53	0.53	0.750			
0.1205	7712.43	4.1050	4.1052	0.8109	25.53	0.53	0.750			
0.1230	7872.18	4.1020	4.1021	0.8180	25.53	0.53	0.750			
0.1255	8029.12	4.0990	4.0991	0.8193	25.53	0.53	0.750			
0.1279	8186.73	4.0960	4.0957	0.7933	25.53	0.53	0.750			
0.1303	8336.33	4.0930	4.0931	0.7970	25.53	0.53	0.750			
0.1326	8484.46	4.0900	4.0902	0.8089	25.53	0.53	0.750			
0.1350	8638.46	4.0870	4.0878	0.8279	25.53	0.53	0.750			
0.1375	8800.51	4.0840	4.0844	0.8403	25.53	0.53	0.750	0.325	0.427	
0.1400	8962.62	4.0810	4.0812	0.8502	25.53	0.53	0.750			
0.1427	9130.39	4.0780	4.0782	0.8562	25.53	0.53	0.750			
0.1454	9305.51	4.0750	4.0748	0.8535	25.53	0.53	0.750			
0.1479	9462.90	4.0720	4.0720	0.8316	25.54	0.54	0.750			
0.1503	9618.23	4.0690	4.0689	0.8349	25.54	0.54	0.750			
0.1527	9775.96	4.0660	4.0660	0.8381	25.54	0.54	0.750			
0.1553	9938.61	4.0630	4.0631	0.8445	25.54	0.54	0.750			
0.1578	10100.73	4.0600	4.0601	0.8507	25.54	0.54	0.750	0.331	0.414	
0.1604	10263.47	4.0570	4.0572	0.8489	25.55	0.55	0.750			
0.1629	10427.73	4.0540	4.0541	0.8574	25.55	0.55	0.750			
0.1655	10592.65	4.0510	4.0505	0.8598	25.55	0.55	0.750			
0.1681	10757.13	4.0480	4.0482	0.8419	25.55	0.55	0.750			
0.1706	10917.28	4.0450	4.0452	0.8550	25.55	0.55	0.750			
0.1731	11081.52	4.0420	4.0422	0.8688	25.55	0.55	0.750			
0.1758	11252.04	4.0390	4.0385	0.8828	25.55	0.55	0.750	0.308	0.395	
0.1784	11416.09	4.0360	4.0361	0.8752	25.55	0.55	0.750			
0.1811	11588.56	4.0330	4.0332	0.8791	25.55	0.55	0.750			
0.1837	11759.85	4.0300	4.0301	0.8866	25.56	0.56	0.750			
0.1865	11938.20	4.0270	4.0269	0.8851	25.56	0.56	0.750			
0.1891	12099.62	4.0240	4.0240	0.8666	25.57	0.57	0.750			
0.1916	12262.97	4.0210	4.0212	0.8677	25.57	0.57	0.750			
0.1942	12430.86	4.0180	4.0181	0.8733	25.57	0.57	0.750			
0.1968	12596.93	4.0150	4.0135	0.8844	25.57	0.57	0.749	0.323	0.399	
0.1995	12767.28	4.0120	4.0122	0.8964	25.57	0.57	0.750			
0.2022	12942.26	4.0090	4.0092	0.9049	25.57	0.57	0.750			
0.2050	13120.10	4.0060	4.0061	0.9106	25.57	0.57	0.750			
0.2077	13295.95	4.0030	4.0030	0.8976	25.57	0.57	0.750			
0.2104	13464.48	4.0000	4.0000	0.9054	25.57	0.57	0.750			
0.2131	13639.57	3.9970	3.9971	0.9130	25.57	0.57	0.750			
0.2158	13812.87	3.9940	3.9937	0.9107	25.57	0.57	0.750	0.333	0.414	
0.2186	13989.76	3.9910	3.9911	0.9133	25.57	0.57	0.750			
0.2214	14166.69	3.9880	3.9881	0.9159	25.57	0.57	0.750			
0.2241	14345.07	3.9850	3.9851	0.9195	25.57	0.57	0.750			
0.2269	14518.87	3.9820	3.9820	0.9082	25.57	0.57	0.750			
0.2295	14690.79	3.9790	3.9790	0.9104	25.57	0.57	0.750			
0.2323	14864.50	3.9760	3.9761	0.9166	25.57	0.57	0.750			
0.2347	15020.84	3.9730	3.9734	0.8710	25.58	0.58	0.750			
0.2372	15179.30	3.9700	3.9708	0.8946	25.58	0.58	0.750	0.307	0.413	
0.2399	15352.43	3.9670	3.9680	0.9278	25.58	0.58	0.750			
0.2427	15530.45	3.9640	3.9650	0.9562	25.58	0.58	0.750			
0.2458	15733.13	3.9610	3.9617	0.9880	25.58	0.58	0.750			
0.2489	15930.86	3.9580	3.9583	0.9984	25.57	0.57	0.750			
0.2525	16157.74	3.9550	3.9545	1.0108	25.57	0.57	0.750			
0.2544	16281.79	3.9520	3.9525	0.8992	25.57	0.57	0.750			
0.2570	16445.13	3.9490	3.9495	0.9161	25.57	0.57	0.750	0.352	0.428	
0.2597	16623.86	3.9460	3.9468	0.9452	25.57	0.57	0.750			
0.2626	16807.40	3.9430	3.9438	0.9729	25.57	0.57	0.750			
0.2658	17008.43	3.9400	3.9402	0.9696	25.57	0.57	0.750			
0.2690	17214.03	3.9370	3.9372	0.9788	25.57	0.57	0.750			
0.2719	17399.02	3.9340	3.9341	0.8943	25.57	0.57	0.750			
0.2744	17558.47	3.9310	3.9314	0.8943	25.57	0.57	0.750			
0.2769	17723.71	3.9280	3.9285	0.8910	25.57	0.57	0.750	0.344	0.420	
0.2796	17894.63	3.9250	3.9253	0.9085	25.57	0.57	0.750			
0.2823	18067.93	3.9220	3.9222	0.9288	25.57	0.57	0.750			
0.2853	18257.52	3.9190	3.9191	0.9449	25.57	0.57	0.750			
0.2883	18450.53	3.9160	3.9160	0.9495	25.57	0.57	0.750			
0.2910	18625.16	3.9130	3.9132	0.9518	25.57	0.57	0.750			
0.2939	18807.41	3.9100	3.9102	0.9517	25.57	0.57	0.750			
0.2967	18991.86	3.9070	3.9068	0.9529	25.57	0.57	0.750	0.279	0.397	
0.2996	19174.68	3.9040	3.9043	0.9695	25.56	0.56	0.750			
0.3025	19362.38	3.9010	3.9012	0.9845	25.56	0.56	0.750			
0.3056	19555.74	3.8980	3.8983	0.9947	25.56	0.56	0.750			
0.3085	19743.79	3.8950	3.8952	0.9610	25.56	0.56	0.750			
0.3113	19924.79	3.8920	3.8923	0.9743	25.56	0.56	0.750			
0.3143	20113.02	3.8890	3.8892	0.9932	25.56	0.56	0.750			
0.3172	20303.51	3.8860	3.8855	1.0028	25.56	0.56	0.750	0.329	0.407	
0.3203	20496.79	3.8830	3.8833	1.0047	25.56	0.56	0.750			
0.3234	20696.02	3.8800	3.8802	1.0225	25.55	0.55	0.750			
0.3266	20904.46	3.8770	3.8770	1.0167	25.55	0.55	0.750			
0.3295	21089.07	3.8740	3.8741	0.9889	25.55	0.55	0.750			
0.3324	21271.09	3.8710	3.8712	1.0087	25.54	0.54	0.750			
0.3354	21468.08	3.8680	3.8681	1.0311	25.54	0.54	0.750	0.320	0.398	
0.3386	21668.18	3.8650	3.8649	1.0476	25.53	0.53	0.750			
0.3419	21879.00	3.8620	3.8623	1.0422	25.53	0.53	0.750			
0.3451	22087.84	3.8590	3.8592	1.0608	25.52	0.52	0.750			
0.3483	22292.19	3.8560	3.8560	1.0476	25.52	0.52	0.750			
0.3512	22474.62	3.8530	3.8533	1.0505	25.51	0.51	0.750			
0.3542	22671.81	3.8500	3.8501	1.0533	25.51	0.51	0.750			
0.3575	22877.48	3.8470	3.8475	1.0782	25.50	0.50	0.750	0.318	0.396	
0.3608	23089.15	3.8440	3.8444	1.1081	25.49	0.49	0.750			
0.3643	23314.56	3.8410	3.8411	1.1027	25.47	0.47	0.750			
0.3678	23537.81	3.8380	3.8379	1.0916	25.47	0.47	0.750			
0.3707	23727.34	3.8350	3.8352	1.0809	25.46	0.46	0.750			
0.3740	23933.64	3.8320	3.8323	1.1037	25.46	0.46	0.750			
0.3773	24148.00	3.8290	3.8289	1.1247	25.45	0.45	0.750	0.308	0.411	
0.3807	24367.14	3.8260	3.8264	1.1153	25.44	0.44	0.750			
0.3842	24591.38	3.8230	3.8232	1.1190	25.43	0.43	0.750			
0.3875	24802.37	3.8200	3.8203	1.1450	25.41	0.41	0.750			
0.3909	25017.99	3.8170	3.8161	1.1355	25.40	0.40	0.750			
0.3942	25231.86	3.8140	3.8144	1.1613	25.39	0.39	0.750			
0.3978	25461.25	3.8110	3.8113	1.1841	25.38	0.38	0.750	0.312	0.402	
0.4015	25698.00	3.8080	3.8085	1.2163	25.37	0.37	0.750			
0.4053	25939.77	3.8050	3.8051	1.1768	25.36	0.36	0.750			
0.4088	26162.98	3.8020	3.8021	1.1917	25.35	0.35	0.750			
0.4122	26379.91	3.7990	3.7993	1.1853	25.33	0.33	0.750			
0.4158	26609.93	3.7960	3.7957	1.2018	25.32	0.32	0.750	0.295	0.388	
0.4194	26838.85	3.7930	3.7933	1.2237	25.31	0.31	0.750			
0.4232	27084.58	3.7900	3.7903	1.2218	25.30	0.30	0.750			
0.4270	27326.60	3.7870	3.7871	1.2542	25.28	0.28	0.750			
0.4307	27565.86	3.7840	3.7842	1.2743	25.27	0.27	0.750			
0.4344	27801.04	3.7810	3.7813	1.2760	25.26	0.26	0.750			
0.4383	28054.13	3.7780	3.7783	1.2987	25.25	0.25	0.750	0.277	0.384	
0.4423	28309.47	3.7750	3.7752	1.3270	25.23	0.23	0.750			
0.4463	28564.79	3.7720	3.7721	1.3485	25.22	0.22	0.750			
0.4505	28829.54	3.7690	3.7692	1.3511	25.21	0.21	0.750			
0.4545	29086.20	3.7660	3.7660	1.3644	25.20	0.20	0.750			
0.4586	29349.92	3.7630	3.7633	1.3966	25.18	0.18	0.750	0.252	0.395	
0.4629	29622.84	3.7600	3.7602	1.4123	25.16	0.16	0.750			
0.4671	29893.89	3.7570	3.7572	1.4595	25.15	0.15	0.750			
0.4716	30180.71	3.7540	3.7542	1.4787	25.14	0.14	0.750			
0.4760	30462.23	3.7510	3.7513	1.5013	25.13	0.13	0.750	0.287	0.422	
0.4805	30754.00	3.7480	3.7484	1.5610	25.11	0.11	0.750			
0.4852	31055.68	3.7450	3.7443	1.5842	25.10	0.10	0.750			
0.4902	31370.27	3.7420	3.7420	1.6201	25.08	0.08	0.750			
0.4950	31680.32	3.7390	3.7393	1.6688	25.07	0.07	0.750	0.317	0.422	
0.5002	32013.40	3.7360	3.7359	1.7055	25.05	0.05	0.750			
0.5053	32341.62	3.7330	3.7324	1.7099	25.03	0.03	0.750			
0.5105	32669.34	3.7300	3.7300	1.8021	25.02	0.02	0.750			
0.5159	33019.59	3.7270	3.7273	1.8509	25.00	-0.00	0.750	0.302	0.428	
0.5215	33378.00	3.7240	3.7246	1.9411	24.98	-0.02	0.750			
0.5275	33762.57	3.7210	3.7211	1.9607	24.96	-0.04	0.750			
0.5335	34143.67	3.7180	3.7174	2.0728	24.94	-0.06	0.750			
0.5401	34567.91	3.7150	3.7147	2.1456	24.92	-0.08	0.750	0.319	0.435	
0.5464	34966.71	3.7120	3.7117	2.1986	24.90	-0.10	0.750			
0.5533	35410.29	3.7090	3.7094	2.2111	24.88	-0.12	0.750			
0.5599	35833.04	3.7060	3.7055	2.2661	24.86	-0.14	0.750	0.325	0.445	
0.5667	36267.68	3.7030	3.7034	2.3672	24.85	-0.15	0.750			
0.5738	36720.94	3.7000	3.6995	2.4779	24.82	-0.18	0.750	0.328	0.433	
0.5812	37196.19	3.6970	3.6977	2.5814	24.80	-0.20	0.750			
0.5891	37700.41	3.6940	3.6940	2.6892	24.78	-0.22	0.750			
0.5976	38246.15	3.6910	3.6905	2.7202	24.76	-0.24	0.750	0.281	0.404	
0.6057	38763.38	3.6880	3.6880	2.7886	24.74	-0.26	0.750			
0.6141	39300.66	3.6850	3.6854	2.7668	24.72	-0.28	0.750	0.298	0.428	
0.6223	39824.40	3.6820	3.6826	2.9207	24.70	-0.30	0.750			
0.6310	40384.45	3.6790	3.6795	3.0440	24.69	-0.31	0.750			
0.6406	40998.90	3.6760	3.6761	3.1911	24.67	-0.33	0.750	0.322	0.430	
0.6503	41619.62	3.6730	3.6736	3.4036	24.65	-0.35	0.750			
0.6606	42276.12	3.6700	3.6706	3.2659	24.64	-0.36	0.750	0.275	0.410	
0.6700	42882.52	3.6670	3.6676	3.3023	24.63	-0.37	0.750			
0.6799	43510.91	3.6640	3.6638	3.0164	24.62	-0.38	0.750	0.277	0.413	
0.6890	44093.71	3.6610	3.6616	2.9022	24.63	-0.37	0.750			
0.6967	44591.07	3.6580	3.6582	2.4281	24.63	-0.37	0.750	0.316	0.426	
0.7033	45010.70	3.6550	3.6554	2.1393	24.63	-0.37	0.750			
0.7094	45402.72	3.6520	3.6524	1.9442	24.64	-0.36	0.750			
0.7148	45746.73	3.6490	3.6488	1.7751	24.64	-0.36	0.750			
0.7196	46053.93	3.6460	3.6466	1.6118	24.64	-0.36	0.750	0.325	0.451	
0.7243	46355.62	3.6430	3.6433	1.5063	24.64	-0.36	0.750			
0.7286	46630.11	3.6400	3.6393	1.4037	24.64	-0.36	0.750			
0.7324	46871.51	3.6370	3.6374	1.3242	24.65	-0.35	0.750			
0.7361	47110.58	3.6340	3.6339	1.2399	24.65	-0.35	0.750	0.351	0.473	
0.7398	47346.71	3.6310	3.6312	1.2333	24.66	-0.34	0.750			
0.7436	47587.43	3.6280	3.6280	1.2319	24.66	-0.34	0.750			
0.7470	47808.78	3.6250	3.6252	1.2042	24.67	-0.33	0.750			
0.7505	48034.97	3.6220	3.6223	1.2288	24.67	-0.33	0.750			
0.7541	48264.86	3.6190	3.6194	1.2296	24.67	-0.33	0.750			
0.7579	48502.77	3.6160	3.6167	1.2219	24.67	-0.33	0.750	0.365	0.474	
0.7616	48740.08	3.6130	3.6135	1.2318	24.68	-0.32	0.750			
0.7653	48979.23	3.6100	3.6096	1.2140	24.68	-0.32	0.750			
0.7690	49214.71	3.6070	3.6073	1.2026	24.68	-0.32	0.750			
0.7724	49435.03	3.6040	3.6043	1.1742	24.67	-0.33	0.750			
0.7760	49662.53	3.6010	3.6011	1.1850	24.67	-0.33	0.750	0.332	0.465	
0.7796	49897.12	3.5980	3.5980	1.2034	24.67	-0.33	0.750			
0.7830	50114.48	3.5950	3.5952	1.1893	24.67	-0.33	0.750			
0.7866	50344.17	3.5920	3.5921	1.1938	24.68	-0.32	0.750			
0.7903	50578.97	3.5890	3.5883	1.2088	24.68	-0.32	0.750			
0.7937	50796.23	3.5860	3.5864	1.2669	24.68	-0.32	0.750			
0.7975	51039.82	3.5830	3.5822	1.3224	24.68	-0.32	0.750	0.358	0.492	
0.8016	51304.99	3.5800	3.5803	1.3583	24.68	-0.32	0.750			
0.8058	51573.69	3.5770	3.5774	1.4238	24.68	-0.32	0.750			
0.8103	51858.18	3.5740	3.5743	1.4597	24.68	-0.32	0.750			
0.8149	52151.78	3.5710	3.5709	1.4807	24.68	-0.32	0.750			
0.8191	52423.10	3.5680	3.5685	1.4836	24.68	-0.32	0.750	0.328	0.481	
0.8236	52709.10	3.5650	3.5644	1.5353	24.68	-0.32	0.750			
0.8283	53011.43	3.5620	3.5618	1.5675	24.68	-0.32	0.750			
0.8330	53315.03	3.5590	3.5589	1.6097	24.68	-0.32	0.750			
0.8378	53620.15	3.5560	3.5558	1.6427	24.68	-0.32	0.750	0.295	0.462	
0.8429	53947.40	3.5530	3.5525	1.6518	24.68	-0.32	0.750			
0.8480	54274.57	3.5500	3.5497	1.6854	24.69	-0.31	0.750			
0.8532	54604.61	3.5470	3.5472	1.6743	24.69	-0.31	0.750			
0.8583	54931.49	3.5440	3.5442	1.7062	24.69	-0.31	0.750	0.316	0.477	
0.8634	55258.98	3.5410	3.5415	1.6876	24.70	-0.30	0.750			
0.8683	55572.56	3.5380	3.5379	1.7242	24.70	-0.30	0.750			
0.8739	55929.68	3.5350	3.5353	1.6813	24.71	-0.29	0.750			
0.8793	56272.49	3.5320	3.5323	1.5840	24.72	-0.28	0.750	0.316	0.480	
0.8842	56585.84	3.5290	3.5298	1.3705	24.74	-0.26	0.750			
0.8879	56826.43	3.5260	3.5271	1.0936	24.75	-0.25	0.750			
0.8908	57012.28	3.5230	3.5231	0.8581	24.76	-0.24	0.750			
0.8926	57125.54	3.5200	3.5197	0.5967	24.77	-0.23	0.750			
0.8937	57199.85	3.5170	3.5167	0.4385	24.78	-0.22	0.750			
0.8948	57269.45	3.5140	3.5141	0.3868	24.78	-0.22	0.750			
0.8958	57332.52	3.5110	3.5111	0.3492	24.79	-0.21	0.750			
0.8968	57395.39	3.5080	3.5078	0.3323	24.80	-0.20	0.750			
0.8977	57455.88	3.5050	3.5054	0.3173	24.80	-0.20	0.750	0.281	0.462	
0.8987	57516.33	3.5020	3.5023	0.3099	24.81	-0.19	0.750			
0.8996	57576.05	3.4990	3.4992	0.3026	24.81	-0.19	0.750			
0.9005	57634.96	3.4960	3.4958	0.2922	24.82	-0.18	0.750			
0.9014	57687.98	3.4930	3.4931	0.2764	24.82	-0.18	0.750			
0.9022	57740.01	3.4900	3.4901	0.2701	24.83	-0.17	0.750			
0.9030	57790.88	3.4870	3.4863	0.2652	24.83	-0.17	0.750			
0.9038	57840.40	3.4840	3.4841	0.2599	24.84	-0.16	0.750			
0.9045	57889.26	3.4810	3.4811	0.2575	24.84	-0.16	0.750			
0.9053	57939.89	3.4780	3.4780	0.2548	24.85	-0.15	0.750			
0.9061	57989.30	3.4750	3.4750	0.2524	24.85	-0.15	0.750			
0.9068	58036.59	3.4720	3.4721	0.2453	24.86	-0.14	0.750			
0.9076	58083.29	3.4690	3.4690	0.2412	24.86	-0.14	0.750			
0.9083	58129.02	3.4660	3.4658	0.2367	24.87	-0.13	0.750			
0.9090	58173.75	3.4630	3.4630	0.2318	24.87	-0.13	0.750			
0.9096	58217.34	3.4600	3.4600	0.2287	24.88	-0.12	0.750			
0.9103	58261.03	3.4570	3.4571	0.2267	24.88	-0.12	0.750			
0.9110	58304.74	3.4540	3.4539	0.2238	24.89	-0.11	0.750			
0.9117	58347.09	3.4510	3.4509	0.2206	24.89	-0.11	0.750			
0.9123	58389.59	3.4480	3.4481	0.2186	24.90	-0.10	0.750			
0.9130	58432.18	3.4450	3.4450	0.2117	24.90	-0.10	0.750			
0.9136	58472.15	3.4420	3.4419	0.2092	24.91	-0.09	0.750			
0.9142	58511.89	3.4390	3.4391	0.2037	24.91	-0.09	0.750			
0.9149	58550.56	3.4360	3.4361	0.1976	24.92	-0.08	0.750			
0.9154	58587.98	3.4330	3.4323	0.1920	24.92	-0.08	0.750			
0.9160	58623.00	3.4300	3.4304	0.1960	24.92	-0.08	0.750			
0.9166	58660.83	3.4270	3.4272	0.1981	24.93	-0.07	0.750			
0.9172	58698.36	3.4240	3.4239	0.1976	24.93	-0.07	0.750	0.289	0.479	
0.9178	58737.51	3.4210	3.4215	0.1989	24.93	-0.07	0.750			
0.9184	58775.89	3.4180	3.4184	0.1952	24.94	-0.06	0.750			
0.9190	58815.78	3.4150	3.4150	0.1967	24.94	-0.06	0.750			
0.9196	58854.00	3.4120	3.4118	0.1920	24.95	-0.05	0.750			
0.9201	58887.81	3.4090	3.4092	0.1824	24.95	-0.05	0.750			
0.9207	58923.14	3.4060	3.4061	0.1808	24.95	-0.05	0.750			
0.9212	58957.50	3.4030	3.4029	0.1771	24.96	-0.04	0.750			
0.9217	58990.97	3.4000	3.3999	0.1736	24.96	-0.04	0.750			
0.9222	59023.13	3.3970	3.3972	0.1713	24.96	-0.04	0.750			
0.9228	59056.48	3.3940	3.3939	0.1698	24.97	-0.03	0.750			
0.9233	59088.86	3.3910	3.3910	0.1675	24.97	-0.03	0.750			
0.9238	59120.89	3.3880	3.3879	0.1654	24.97	-0.03	0.750			
0.9243	59152.09	3.3850	3.3852	0.1629	24.98	-0.02	0.750			
0.9247	59183.66	3.3820	3.3820	0.1614	24.98	-0.02	0.750			
0.9252	59214.38	3.3790	3.3789	0.1586	24.98	-0.02	0.750			
0.9257	59244.55	3.3760	3.3760	0.1565	24.99	-0.01	0.750			
0.9262	59273.96	3.3730	3.3731	0.1533	24.99	-0.01	0.750			
0.9266	59303.70	3.3700	3.3700	0.1522	24.99	-0.01	0.750			
0.9271	59332.64	3.3670	3.3668	0.1493	24.99	-0.01	0.750			
0.9275	59360.88	3.3640	3.3640	0.1465	25.00	-0.00	0.750			
0.9279	59388.70	3.3610	3.3611	0.1439	25.00	-0.00	0.750			
0.9284	59416.29	3.3580	3.3580	0.1418	25.00	0.00	0.750			
0.9288	59443.24	3.3550	3.3549	0.1389	25.01	0.01	0.750			
0.9292	59469.32	3.3520	3.3520	0.1365	25.01	0.01	0.750			
0.9296	59495.44	3.3490	3.3492	0.1341	25.01	0.01	0.750			
0.9300	59521.00	3.3460	3.3460	0.1318	25.01	0.01	0.750			
0.9304	59546.07	3.3430	3.3428	0.1293	25.02	0.02	0.750			
0.9308	59570.56	3.3400	3.3401	0.1275	25.02	0.02	0.750			
0.9312	59594.81	3.3370	3.3370	0.1254	25.02	0.02	0.750			
0.9315	59618.84	3.3340	3.3339	0.1232	25.02	0.02	0.750			
0.9319	59642.26	3.3310	3.3309	0.1208	25.03	0.03	0.750			
0.9323	59665.35	3.3280	3.3280	0.1174	25.03	0.03	0.750			
0.9326	59687.62	3.3250	3.3252	0.1145	25.03	0.03	0.750			
0.9330	59709.60	3.3220	3.3221	0.1122	25.03	0.03	0.750			
0.9333	59730.82	3.3190	3.3188	0.1089	25.03	0.03	0.750			
0.9336	59751.06	3.3160	3.3160	0.1058	25.04	0.04	0.750			
0.9339	59771.13	3.3130	3.3129	0.1033	25.04	0.04	0.750			
0.9342	59790.63	3.3100	3.3101	0.1005	25.04	0.04	0.750			
0.9345	59809.70	3.3070	3.3068	0.0981	25.04	0.04	0.750			
0.9348	59828.82	3.3040	3.3040	0.0949	25.04	0.04	0.750			
0.9351	59846.68	3.3010	3.3010	0.0912	25.05	0.05	0.750			
0.9354	59863.68	3.2980	3.2982	0.0881	25.05	0.05	0.750			
0.9356	59880.28	3.2950	3.2951	0.0848	25.05	0.05	0.750			
0.9359	59896.06	3.2920	3.2922	0.0813	25.05	0.05	0.750			
0.9361	59913.01	3.2890	3.2887	0.0747	25.05	0.05	0.750			
0.9364	59927.23	3.2860	3.2861	0.0706	25.05	0.05	0.750			
0.9366	59940.13	3.2830	3.2830	0.0639	25.06	0.06	0.750			
0.9367	59951.75	3.2800	3.2809	0.0572	25.06	0.06	0.751			
0.9369	59964.46	3.2770	3.2766	0.0519	25.06	0.06	0.750			
0.9371	59973.56	3.2740	3.2739	0.0429	25.06	0.06	0.750			
0.9372	59980.94	3.2710	3.2717	0.0339	25.06	0.06	0.750			
0.9373	59986.59	3.2680	3.2693	0.0249	25.06	0.06	0.750			
0.9374	59990.51	3.2650	3.2669	0.0159	25.06	0.06	0.750			
