Ah_balance (normalized)	Ah_balance (mAh)	Voltage - fit (V)	Voltage -  interpolate (V)	dQ/dV (1/V)	Temperature (°C)	Temperature - diff (°C)	Current (C)	R_DC 0ms (mOhm)	R_DC 50ms (mOhm)	R_DC 50 ms PEC (mOhm)
0.0004	28.18	4.1620	4.1614	-0.1447	25.04	0.00	-0.750			
0.0009	58.64	4.1590	4.1589	-0.1844	25.04	0.00	-0.750			
0.0015	98.08	4.1560	4.1558	-0.2280	25.04	0.00	-0.750			
0.0023	146.48	4.1530	4.1531	-0.2704	25.04	-0.00	-0.750			
0.0032	202.84	4.1500	4.1500	-0.3111	25.04	-0.00	-0.750			
0.0042	267.57	4.1470	4.1469	-0.3515	25.03	-0.01	-0.750			
0.0053	339.15	4.1440	4.1441	-0.3885	25.03	-0.01	-0.750			
0.0065	418.38	4.1410	4.1411	-0.4251	25.03	-0.01	-0.750			
0.0078	500.58	4.1380	4.1380	-0.4673	25.03	-0.01	-0.750			
0.0093	594.88	4.1350	4.1351	-0.5055	25.02	-0.02	-0.750			
0.0109	698.58	4.1320	4.1318	-0.5302	25.02	-0.02	-0.750			
0.0126	804.33	4.1290	4.1289	-0.5530	25.01	-0.03	-0.750			
0.0143	914.29	4.1260	4.1265	-0.5802	25.01	-0.03	-0.750			
0.0161	1027.51	4.1230	4.1229	-0.5995	25.01	-0.03	-0.750			
0.0179	1144.06	4.1200	4.1198	-0.6165	25.00	-0.04	-0.750			
0.0197	1262.67	4.1170	4.1170	-0.6316	25.00	-0.04	-0.750			
0.0217	1388.68	4.1140	4.1140	-0.6486	24.99	-0.05	-0.750			
0.0237	1516.23	4.1110	4.1110	-0.6611	24.99	-0.05	-0.750			
0.0257	1643.09	4.1080	4.1081	-0.6728	24.98	-0.06	-0.750			
0.0277	1771.32	4.1050	4.1051	-0.6835	24.98	-0.06	-0.750			
0.0297	1903.93	4.1020	4.1019	-0.6907	24.98	-0.06	-0.750			
0.0319	2038.62	4.0990	4.0989	-0.7021	24.98	-0.06	-0.750			
0.0340	2175.94	4.0960	4.0962	-0.7113	24.97	-0.07	-0.750			
0.0362	2315.42	4.0930	4.0929	-0.7144	24.97	-0.07	-0.750			
0.0383	2452.80	4.0900	4.0898	-0.7192	24.97	-0.07	-0.750			
0.0405	2590.61	4.0870	4.0867	-0.7170	24.97	-0.07	-0.750			
0.0426	2726.12	4.0840	4.0840	-0.7206	24.97	-0.07	-0.750			
0.0448	2866.98	4.0810	4.0808	-0.7375	24.97	-0.07	-0.750			
0.0470	3007.74	4.0780	4.0780	-0.7314	24.97	-0.07	-0.750			
0.0493	3155.67	4.0750	4.0749	-0.7421	24.97	-0.07	-0.750			
0.0515	3297.63	4.0720	4.0725	-0.7426	24.97	-0.07	-0.750			
0.0538	3440.49	4.0690	4.0688	-0.7415	24.97	-0.07	-0.750			
0.0559	3579.33	4.0660	4.0660	-0.7416	24.97	-0.07	-0.750			
0.0581	3719.37	4.0630	4.0630	-0.7411	24.97	-0.07	-0.750			
0.0604	3863.29	4.0600	4.0600	-0.7536	24.96	-0.08	-0.750			
0.0626	4007.25	4.0570	4.0568	-0.7530	24.96	-0.08	-0.750			
0.0649	4153.96	4.0540	4.0542	-0.7559	24.96	-0.08	-0.750			
0.0672	4297.79	4.0510	4.0509	-0.7557	24.96	-0.08	-0.750			
0.0694	4442.37	4.0480	4.0481	-0.7687	24.96	-0.08	-0.750			
0.0718	4593.01	4.0450	4.0450	-0.7681	24.97	-0.07	-0.750			
0.0741	4741.52	4.0420	4.0418	-0.7703	24.97	-0.07	-0.750			
0.0764	4889.88	4.0390	4.0389	-0.7660	24.97	-0.07	-0.750			
0.0787	5035.98	4.0360	4.0360	-0.7701	24.97	-0.07	-0.750			
0.0810	5181.77	4.0330	4.0329	-0.7850	24.97	-0.07	-0.750			
0.0833	5332.17	4.0300	4.0299	-0.7804	24.98	-0.06	-0.750			
0.0857	5486.76	4.0270	4.0268	-0.7814	24.98	-0.06	-0.750			
0.0881	5638.13	4.0240	4.0238	-0.7799	24.98	-0.06	-0.750			
0.0904	5787.48	4.0210	4.0208	-0.7762	24.98	-0.06	-0.750			
0.0927	5934.67	4.0180	4.0179	-0.7770	24.98	-0.06	-0.750			
0.0950	6081.44	4.0150	4.0148	-0.7735	24.98	-0.06	-0.750			
0.0973	6229.22	4.0120	4.0120	-0.7863	24.98	-0.06	-0.750			
0.0997	6379.47	4.0090	4.0090	-0.7865	24.98	-0.06	-0.750			
0.1021	6533.00	4.0060	4.0061	-0.7902	24.98	-0.06	-0.750			
0.1045	6685.12	4.0030	4.0029	-0.7867	24.98	-0.06	-0.750			
0.1068	6834.43	4.0000	4.0000	-0.7938	24.98	-0.06	-0.750			
0.1092	6989.49	3.9970	3.9970	-0.7866	24.99	-0.05	-0.750			
0.1116	7140.26	3.9940	3.9939	-0.7956	24.99	-0.05	-0.750			
0.1139	7291.52	3.9910	3.9913	-0.7922	24.99	-0.05	-0.750			
0.1163	7443.03	3.9880	3.9877	-0.7969	24.99	-0.05	-0.750			
0.1187	7596.71	3.9850	3.9849	-0.8057	24.99	-0.05	-0.750			
0.1211	7753.15	3.9820	3.9820	-0.8056	25.00	-0.04	-0.750			
0.1235	7906.57	3.9790	3.9790	-0.7972	25.00	-0.04	-0.750			
0.1261	8067.31	3.9760	3.9758	-0.8055	25.00	-0.04	-0.750			
0.1284	8216.62	3.9730	3.9729	-0.8040	25.00	-0.04	-0.750			
0.1308	8369.07	3.9700	3.9699	-0.8060	25.01	-0.03	-0.750			
0.1332	8522.42	3.9670	3.9669	-0.8124	25.01	-0.03	-0.750			
0.1356	8677.77	3.9640	3.9640	-0.8168	25.01	-0.03	-0.750			
0.1382	8841.65	3.9610	3.9611	-0.8252	25.02	-0.02	-0.750			
0.1406	9000.67	3.9580	3.9581	-0.8227	25.02	-0.02	-0.750			
0.1431	9156.16	3.9550	3.9551	-0.8307	25.02	-0.02	-0.750			
0.1456	9317.11	3.9520	3.9518	-0.8227	25.02	-0.02	-0.750			
0.1480	9474.39	3.9490	3.9489	-0.8205	25.02	-0.02	-0.750			
0.1505	9631.24	3.9460	3.9459	-0.8198	25.02	-0.02	-0.750			
0.1530	9791.18	3.9430	3.9429	-0.8211	25.02	-0.02	-0.750			
0.1554	9947.74	3.9400	3.9399	-0.8372	25.02	-0.02	-0.750			
0.1579	10108.59	3.9370	3.9369	-0.8335	25.02	-0.02	-0.750			
0.1605	10269.62	3.9340	3.9338	-0.8258	25.02	-0.02	-0.750			
0.1630	10432.90	3.9310	3.9309	-0.8349	25.02	-0.02	-0.750			
0.1655	10591.47	3.9280	3.9278	-0.8351	25.02	-0.02	-0.750			
0.1680	10749.33	3.9250	3.9249	-0.8399	25.03	-0.01	-0.750			
0.1704	10908.64	3.9220	3.9219	-0.8363	25.03	-0.01	-0.750			
0.1729	11066.17	3.9190	3.9190	-0.8290	25.03	-0.01	-0.750			
0.1755	11234.87	3.9160	3.9160	-0.8516	25.04	-0.00	-0.750			
0.1781	11397.82	3.9130	3.9131	-0.8513	25.04	0.00	-0.750			
0.1806	11559.73	3.9100	3.9099	-0.8553	25.05	0.01	-0.750			
0.1832	11725.68	3.9070	3.9069	-0.8526	25.05	0.01	-0.750			
0.1858	11888.62	3.9040	3.9040	-0.8507	25.05	0.01	-0.750			
0.1884	12054.47	3.9010	3.9009	-0.8592	25.06	0.02	-0.750			
0.1910	12222.17	3.8980	3.8979	-0.8580	25.06	0.02	-0.750			
0.1935	12383.75	3.8950	3.8949	-0.8585	25.06	0.02	-0.750			
0.1961	12548.70	3.8920	3.8919	-0.8529	25.07	0.03	-0.750			
0.1986	12710.88	3.8890	3.8890	-0.8491	25.07	0.03	-0.750			
0.2012	12878.82	3.8860	3.8859	-0.8617	25.07	0.03	-0.750			
0.2038	13041.70	3.8830	3.8829	-0.8562	25.07	0.03	-0.750			
0.2063	13206.35	3.8800	3.8798	-0.8613	25.07	0.03	-0.750			
0.2089	13370.92	3.8770	3.8770	-0.8630	25.08	0.04	-0.750			
0.2115	13534.81	3.8740	3.8740	-0.8537	25.08	0.04	-0.750			
0.2141	13704.08	3.8710	3.8712	-0.8663	25.08	0.04	-0.750			
0.2167	13866.49	3.8680	3.8680	-0.8766	25.08	0.04	-0.750			
0.2193	14036.17	3.8650	3.8648	-0.8736	25.08	0.04	-0.750			
0.2220	14205.36	3.8620	3.8619	-0.8652	25.08	0.04	-0.750			
0.2246	14371.51	3.8590	3.8590	-0.8600	25.08	0.04	-0.750			
0.2272	14538.22	3.8560	3.8566	-0.8642	25.08	0.04	-0.750			
0.2297	14700.90	3.8530	3.8527	-0.8899	25.08	0.04	-0.750			
0.2324	14870.77	3.8500	3.8499	-0.8725	25.09	0.05	-0.750			
0.2350	15039.27	3.8470	3.8469	-0.8709	25.09	0.05	-0.750			
0.2377	15211.26	3.8440	3.8438	-0.8696	25.10	0.06	-0.750			
0.2403	15378.67	3.8410	3.8407	-0.8649	25.10	0.06	-0.750			
0.2428	15540.77	3.8380	3.8379	-0.8622	25.11	0.07	-0.750			
0.2454	15703.41	3.8350	3.8349	-0.8520	25.11	0.07	-0.750			
0.2479	15865.46	3.8320	3.8320	-0.8606	25.11	0.07	-0.750			
0.2505	16030.74	3.8290	3.8289	-0.8595	25.12	0.08	-0.750			
0.2531	16195.98	3.8260	3.8260	-0.8557	25.12	0.08	-0.750			
0.2556	16360.28	3.8230	3.8229	-0.8605	25.12	0.08	-0.750			
0.2582	16525.16	3.8200	3.8200	-0.8529	25.12	0.08	-0.750			
0.2608	16690.68	3.8170	3.8169	-0.8417	25.12	0.08	-0.750			
0.2633	16853.61	3.8140	3.8139	-0.8431	25.12	0.08	-0.750			
0.2658	17014.16	3.8110	3.8109	-0.8339	25.12	0.08	-0.750			
0.2683	17173.10	3.8080	3.8079	-0.8441	25.13	0.09	-0.750			
0.2709	17335.96	3.8050	3.8047	-0.8345	25.13	0.09	-0.750			
0.2734	17495.28	3.8020	3.8019	-0.8209	25.13	0.09	-0.750			
0.2759	17658.70	3.7990	3.7990	-0.8246	25.14	0.10	-0.750			
0.2784	17814.41	3.7960	3.7957	-0.8179	25.14	0.10	-0.750			
0.2808	17969.67	3.7930	3.7928	-0.8116	25.14	0.10	-0.750			
0.2831	18118.44	3.7900	3.7900	-0.8018	25.14	0.10	-0.750			
0.2854	18268.35	3.7870	3.7871	-0.8002	25.15	0.11	-0.750			
0.2880	18432.99	3.7840	3.7840	-0.8148	25.15	0.11	-0.750			
0.2904	18588.13	3.7810	3.7810	-0.8096	25.15	0.11	-0.750			
0.2929	18743.48	3.7780	3.7779	-0.8041	25.16	0.12	-0.750			
0.2953	18899.38	3.7750	3.7750	-0.8031	25.16	0.12	-0.750			
0.2977	19055.00	3.7720	3.7718	-0.7942	25.16	0.12	-0.750			
0.3001	19205.89	3.7690	3.7689	-0.7903	25.17	0.13	-0.750			
0.3024	19356.73	3.7660	3.7663	-0.7842	25.17	0.13	-0.750			
0.3048	19506.39	3.7630	3.7628	-0.7799	25.17	0.13	-0.750			
0.3071	19653.04	3.7600	3.7599	-0.7877	25.17	0.13	-0.750			
0.3095	19804.88	3.7570	3.7570	-0.7872	25.17	0.13	-0.750			
0.3119	19962.01	3.7540	3.7538	-0.8066	25.17	0.13	-0.750			
0.3144	20118.68	3.7510	3.7512	-0.8115	25.17	0.13	-0.750			
0.3168	20273.06	3.7480	3.7479	-0.8117	25.17	0.13	-0.750			
0.3192	20428.06	3.7450	3.7449	-0.8152	25.17	0.13	-0.750			
0.3216	20583.42	3.7420	3.7420	-0.8179	25.18	0.14	-0.750			
0.3241	20740.88	3.7390	3.7390	-0.8349	25.18	0.14	-0.750			
0.3266	20903.36	3.7360	3.7359	-0.8474	25.18	0.14	-0.750			
0.3291	21061.36	3.7330	3.7331	-0.8694	25.18	0.14	-0.750			
0.3318	21234.22	3.7300	3.7300	-0.8790	25.18	0.14	-0.750			
0.3345	21406.06	3.7270	3.7269	-0.8921	25.17	0.13	-0.750			
0.3372	21580.58	3.7240	3.7238	-0.8996	25.17	0.13	-0.750			
0.3399	21753.61	3.7210	3.7214	-0.9180	25.17	0.13	-0.750			
0.3427	21930.03	3.7180	3.7178	-0.9501	25.17	0.13	-0.750			
0.3456	22119.31	3.7150	3.7146	-0.9516	25.17	0.13	-0.750			
0.3484	22300.47	3.7120	3.7118	-0.9542	25.17	0.13	-0.750			
0.3514	22488.77	3.7090	3.7097	-0.9953	25.17	0.13	-0.750			
0.3544	22681.90	3.7060	3.7058	-1.0088	25.16	0.12	-0.750			
0.3574	22876.71	3.7030	3.7026	-1.0151	25.16	0.12	-0.750			
0.3605	23069.48	3.7000	3.6998	-1.0219	25.15	0.11	-0.750			
0.3636	23270.36	3.6970	3.6970	-1.0518	25.14	0.10	-0.750	0.404	0.515	
0.3668	23475.09	3.6940	3.6939	-1.0827	25.14	0.10	-0.750			
0.3700	23681.58	3.6910	3.6908	-1.0898	25.13	0.09	-0.750			
0.3733	23888.85	3.6880	3.6879	-1.0970	25.13	0.09	-0.750			
0.3767	24107.33	3.6850	3.6857	-1.1477	25.12	0.08	-0.750			
0.3803	24336.07	3.6820	3.6818	-1.1731	25.11	0.07	-0.750			
0.3838	24563.31	3.6790	3.6787	-1.1814	25.10	0.06	-0.750			
0.3873	24788.21	3.6760	3.6758	-1.1902	25.10	0.06	-0.750			
0.3910	25023.94	3.6730	3.6728	-1.2214	25.09	0.05	-0.750			
0.3946	25255.52	3.6700	3.6699	-1.2370	25.08	0.04	-0.750			
0.3983	25490.88	3.6670	3.6669	-1.2482	25.08	0.04	-0.750			
0.4020	25725.54	3.6640	3.6644	-1.2837	25.07	0.03	-0.750			
0.4061	25991.41	3.6610	3.6608	-1.3285	25.06	0.02	-0.750			
0.4102	26250.68	3.6580	3.6579	-1.3408	25.05	0.01	-0.750			
0.4142	26508.11	3.6550	3.6557	-1.3957	25.04	0.00	-0.750			
0.4185	26786.47	3.6520	3.6518	-1.4257	25.03	-0.01	-0.750			
0.4228	27058.48	3.6490	3.6486	-1.4393	25.03	-0.01	-0.750			
0.4271	27337.22	3.6460	3.6468	-1.4425	25.02	-0.02	-0.750			
0.4316	27621.41	3.6430	3.6433	-1.4823	25.01	-0.03	-0.750			
0.4361	27907.61	3.6400	3.6397	-1.5220	25.01	-0.03	-0.750			
0.4406	28198.56	3.6370	3.6368	-1.5040	25.00	-0.04	-0.750			
0.4454	28503.46	3.6340	3.6341	-1.5622	24.98	-0.06	-0.750			
0.4502	28810.55	3.6310	3.6314	-1.5995	24.97	-0.07	-0.750			
0.4550	29120.55	3.6280	3.6275	-1.6073	24.96	-0.08	-0.750			
0.4600	29436.95	3.6250	3.6255	-1.6289	24.96	-0.08	-0.750			
0.4647	29741.41	3.6220	3.6225	-1.6448	24.96	-0.08	-0.750			
0.4696	30054.47	3.6190	3.6193	-1.6714	24.95	-0.09	-0.750			
0.4746	30376.27	3.6160	3.6157	-1.7328	24.94	-0.10	-0.750			
0.4798	30707.02	3.6130	3.6126	-1.7939	24.93	-0.11	-0.750			
0.4854	31064.83	3.6100	3.6096	-1.8347	24.92	-0.12	-0.750			
0.4909	31419.99	3.6070	3.6068	-1.9035	24.92	-0.12	-0.750			
0.4969	31800.39	3.6040	3.6036	-1.9339	24.91	-0.13	-0.750			
0.5027	32174.97	3.6010	3.6012	-1.9183	24.91	-0.13	-0.750			
0.5086	32552.71	3.5980	3.5982	-1.9680	24.90	-0.14	-0.750			
0.5144	32918.91	3.5950	3.5949	-2.0033	24.90	-0.14	-0.750			
0.5207	33322.20	3.5920	3.5916	-2.0590	24.89	-0.15	-0.750			
0.5268	33716.36	3.5890	3.5892	-2.0548	24.88	-0.16	-0.750			
0.5331	34118.03	3.5860	3.5865	-2.1140	24.88	-0.16	-0.750			
0.5395	34526.99	3.5830	3.5835	-2.1748	24.88	-0.16	-0.750			
0.5460	34947.13	3.5800	3.5799	-2.1161	24.88	-0.16	-0.750			
0.5523	35347.02	3.5770	3.5771	-2.0780	24.88	-0.16	-0.750			
0.5586	35750.45	3.5740	3.5740	-2.1487	24.88	-0.16	-0.750			
0.5651	36164.33	3.5710	3.5711	-2.1450	24.88	-0.16	-0.750			
0.5715	36578.82	3.5680	3.5677	-2.2189	24.88	-0.16	-0.750			
0.5786	37028.95	3.5650	3.5645	-2.2848	24.88	-0.16	-0.750			
0.5852	37452.00	3.5620	3.5616	-2.2031	24.88	-0.16	-0.750			
0.5918	37873.82	3.5590	3.5594	-2.2468	24.88	-0.16	-0.750			
0.5988	38324.14	3.5560	3.5559	-2.2834	24.88	-0.16	-0.750			
0.6057	38764.07	3.5530	3.5527	-2.2503	24.88	-0.16	-0.750			
0.6124	39191.88	3.5500	3.5504	-2.2518	24.89	-0.15	-0.750			
0.6190	39616.10	3.5470	3.5469	-2.1659	24.89	-0.15	-0.750			
0.6253	40022.07	3.5440	3.5440	-2.1568	24.90	-0.14	-0.750			
0.6316	40422.59	3.5410	3.5408	-2.1319	24.91	-0.13	-0.750			
0.6384	40854.70	3.5380	3.5379	-2.1375	24.92	-0.12	-0.750			
0.6448	41268.67	3.5350	3.5355	-2.0319	24.93	-0.11	-0.750			
0.6509	41659.09	3.5320	3.5325	-1.9800	24.94	-0.10	-0.750			
0.6566	42020.92	3.5290	3.5295	-1.9010	24.95	-0.09	-0.750			
0.6620	42370.54	3.5260	3.5260	-1.8411	24.96	-0.08	-0.750			
0.6674	42712.72	3.5230	3.5225	-1.7961	24.97	-0.07	-0.750			
0.6728	43057.57	3.5200	3.5198	-1.7661	24.99	-0.05	-0.750			
0.6781	43398.80	3.5170	3.5166	-1.7299	25.00	-0.04	-0.750			
0.6834	43739.11	3.5140	3.5135	-1.6920	25.02	-0.02	-0.750			
0.6883	44051.47	3.5110	3.5112	-1.6532	25.04	-0.00	-0.750			
0.6932	44367.83	3.5080	3.5085	-1.6084	25.05	0.01	-0.750			
0.6980	44670.35	3.5050	3.5058	-1.5687	25.07	0.03	-0.750			
0.7027	44972.23	3.5020	3.5020	-1.5146	25.08	0.04	-0.750			
0.7074	45271.67	3.4990	3.4988	-1.4913	25.10	0.06	-0.750			
0.7118	45553.33	3.4960	3.4958	-1.4467	25.12	0.08	-0.750			
0.7161	45829.41	3.4930	3.4928	-1.3862	25.14	0.10	-0.750			
0.7200	46078.84	3.4900	3.4900	-1.3842	25.15	0.11	-0.750			
0.7241	46339.59	3.4870	3.4871	-1.2955	25.17	0.13	-0.750			
