Ah_balance (normalized)	Ah_balance (mAh)	Voltage - fit (V)	Voltage -  interpolate (V)	dQ/dV (1/V)	Temperature (°C)	Temperature - diff (°C)	Current (C)	R_DC 0ms (mOhm)	R_DC 50ms (mOhm)	R_DC 50 ms PEC (mOhm)
0.0004	25.62	4.1600	4.1601	-0.1446	24.73	0.01	-0.750			
0.0009	57.99	4.1570	4.1570	-0.1892	24.73	0.01	-0.750			
0.0015	98.68	4.1540	4.1539	-0.2304	24.73	0.01	-0.750			
0.0023	146.82	4.1510	4.1512	-0.2721	24.72	0.00	-0.750			
0.0032	203.55	4.1480	4.1480	-0.3112	24.72	0.00	-0.750			
0.0042	268.95	4.1450	4.1449	-0.3468	24.72	-0.00	-0.750			
0.0053	338.67	4.1420	4.1421	-0.3844	24.72	-0.00	-0.750			
0.0065	415.70	4.1390	4.1392	-0.4197	24.71	-0.01	-0.750			
0.0078	499.58	4.1360	4.1360	-0.4540	24.71	-0.01	-0.750			
0.0092	590.68	4.1330	4.1328	-0.4868	24.70	-0.02	-0.750			
0.0107	687.40	4.1300	4.1301	-0.5249	24.70	-0.02	-0.750			
0.0124	794.84	4.1270	4.1269	-0.5500	24.69	-0.03	-0.750			
0.0142	906.16	4.1240	4.1239	-0.5786	24.69	-0.03	-0.750			
0.0159	1018.77	4.1210	4.1214	-0.5899	24.68	-0.04	-0.750			
0.0177	1133.07	4.1180	4.1178	-0.6025	24.68	-0.04	-0.750			
0.0195	1250.16	4.1150	4.1149	-0.6152	24.67	-0.05	-0.750			
0.0214	1366.62	4.1120	4.1118	-0.6346	24.67	-0.05	-0.750			
0.0233	1493.96	4.1090	4.1089	-0.6449	24.67	-0.05	-0.750			
0.0253	1618.34	4.1060	4.1059	-0.6516	24.67	-0.05	-0.750			
0.0272	1743.78	4.1030	4.1030	-0.6614	24.66	-0.06	-0.750			
0.0293	1873.12	4.1000	4.1000	-0.6684	24.66	-0.06	-0.750			
0.0313	2000.27	4.0970	4.0968	-0.6760	24.66	-0.06	-0.750			
0.0333	2131.20	4.0940	4.0942	-0.6801	24.65	-0.07	-0.750			
0.0353	2260.07	4.0910	4.0909	-0.6904	24.65	-0.07	-0.750			
0.0375	2397.31	4.0880	4.0880	-0.7064	24.65	-0.07	-0.750			
0.0396	2531.80	4.0850	4.0850	-0.7119	24.64	-0.08	-0.750			
0.0417	2670.43	4.0820	4.0822	-0.7150	24.64	-0.08	-0.750			
0.0439	2811.08	4.0790	4.0789	-0.7240	24.64	-0.08	-0.750			
0.0461	2949.93	4.0760	4.0761	-0.7334	24.64	-0.08	-0.750			
0.0483	3093.81	4.0730	4.0730	-0.7355	24.64	-0.08	-0.750			
0.0506	3235.82	4.0700	4.0698	-0.7360	24.64	-0.08	-0.750			
0.0528	3377.22	4.0670	4.0667	-0.7326	24.64	-0.08	-0.750			
0.0549	3516.55	4.0640	4.0638	-0.7317	24.64	-0.08	-0.750			
0.0571	3657.12	4.0610	4.0609	-0.7328	24.64	-0.08	-0.750			
0.0593	3795.16	4.0580	4.0580	-0.7429	24.64	-0.08	-0.750			
0.0616	3943.46	4.0550	4.0548	-0.7506	24.63	-0.09	-0.750			
0.0639	4087.66	4.0520	4.0518	-0.7511	24.63	-0.09	-0.750			
0.0661	4230.75	4.0490	4.0498	-0.7505	24.63	-0.09	-0.750			
0.0684	4375.24	4.0460	4.0458	-0.7495	24.63	-0.09	-0.750			
0.0706	4516.65	4.0430	4.0429	-0.7489	24.63	-0.09	-0.750			
0.0728	4656.69	4.0400	4.0400	-0.7457	24.62	-0.10	-0.750			
0.0751	4805.42	4.0370	4.0371	-0.7598	24.62	-0.10	-0.750			
0.0773	4950.06	4.0340	4.0338	-0.7639	24.62	-0.10	-0.750			
0.0796	5097.55	4.0310	4.0310	-0.7573	24.62	-0.10	-0.750			
0.0819	5243.28	4.0280	4.0281	-0.7602	24.62	-0.10	-0.750			
0.0842	5389.08	4.0250	4.0249	-0.7699	24.62	-0.10	-0.750			
0.0865	5536.69	4.0220	4.0222	-0.7653	24.62	-0.10	-0.750			
0.0888	5685.34	4.0190	4.0188	-0.7715	24.62	-0.10	-0.750			
0.0912	5834.28	4.0160	4.0160	-0.7766	24.62	-0.10	-0.750			
0.0935	5983.02	4.0130	4.0129	-0.7746	24.62	-0.10	-0.750			
0.0958	6130.84	4.0100	4.0100	-0.7837	24.62	-0.10	-0.750			
0.0982	6283.32	4.0070	4.0070	-0.7842	24.62	-0.10	-0.750			
0.1006	6437.77	4.0040	4.0038	-0.7840	24.62	-0.10	-0.750			
0.1029	6588.55	4.0010	4.0008	-0.7761	24.62	-0.10	-0.750			
0.1052	6735.56	3.9980	3.9980	-0.7750	24.62	-0.10	-0.750			
0.1075	6881.87	3.9950	3.9949	-0.7768	24.62	-0.10	-0.750			
0.1098	7028.12	3.9920	3.9919	-0.7782	24.62	-0.10	-0.750			
0.1122	7180.26	3.9890	3.9889	-0.7885	24.62	-0.10	-0.750			
0.1146	7333.30	3.9860	3.9859	-0.7892	24.62	-0.10	-0.750			
0.1170	7485.96	3.9830	3.9833	-0.7891	24.62	-0.10	-0.750			
0.1193	7633.35	3.9800	3.9801	-0.8026	24.62	-0.10	-0.750			
0.1217	7788.88	3.9770	3.9769	-0.8003	24.62	-0.10	-0.750			
0.1241	7943.14	3.9740	3.9738	-0.7978	24.62	-0.10	-0.750			
0.1265	8098.63	3.9710	3.9707	-0.8003	24.62	-0.10	-0.750			
0.1290	8255.35	3.9680	3.9687	-0.8063	24.62	-0.10	-0.750			
0.1313	8404.72	3.9650	3.9650	-0.8180	24.62	-0.10	-0.750			
0.1338	8562.44	3.9620	3.9618	-0.8056	24.62	-0.10	-0.750			
0.1361	8713.03	3.9590	3.9590	-0.7916	24.62	-0.10	-0.750			
0.1386	8872.48	3.9560	3.9559	-0.8101	24.62	-0.10	-0.750			
0.1411	9028.92	3.9530	3.9535	-0.8089	24.62	-0.10	-0.750			
0.1435	9182.91	3.9500	3.9498	-0.8030	24.62	-0.10	-0.750			
0.1459	9334.61	3.9470	3.9471	-0.8003	24.63	-0.09	-0.750			
0.1482	9485.83	3.9440	3.9438	-0.8056	24.63	-0.09	-0.750			
0.1507	9644.33	3.9410	3.9411	-0.8156	24.64	-0.08	-0.750			
0.1531	9799.61	3.9380	3.9381	-0.8180	24.64	-0.08	-0.750			
0.1556	9957.75	3.9350	3.9349	-0.8215	24.64	-0.08	-0.750			
0.1581	10116.47	3.9320	3.9319	-0.8399	24.64	-0.08	-0.750			
0.1606	10280.53	3.9290	3.9289	-0.8357	24.64	-0.08	-0.750			
0.1631	10441.15	3.9260	3.9258	-0.8348	24.64	-0.08	-0.750			
0.1657	10603.46	3.9230	3.9233	-0.8343	24.64	-0.08	-0.750			
0.1682	10765.77	3.9200	3.9199	-0.8240	24.64	-0.08	-0.750			
0.1706	10921.48	3.9170	3.9168	-0.8292	24.64	-0.08	-0.750			
0.1731	11080.21	3.9140	3.9139	-0.8247	24.64	-0.08	-0.750			
0.1756	11238.25	3.9110	3.9109	-0.8315	24.64	-0.08	-0.750			
0.1781	11397.81	3.9080	3.9085	-0.8302	24.64	-0.08	-0.750			
0.1806	11556.60	3.9050	3.9048	-0.8262	24.64	-0.08	-0.750			
0.1830	11713.86	3.9020	3.9020	-0.8361	24.65	-0.07	-0.750			
0.1855	11874.68	3.8990	3.8989	-0.8380	24.65	-0.07	-0.750			
0.1881	12039.34	3.8960	3.8959	-0.8441	24.65	-0.07	-0.750			
0.1906	12199.25	3.8930	3.8932	-0.8402	24.66	-0.06	-0.750			
0.1931	12360.59	3.8900	3.8900	-0.8366	24.66	-0.06	-0.750			
0.1957	12522.61	3.8870	3.8869	-0.8455	24.66	-0.06	-0.750			
0.1982	12683.78	3.8840	3.8839	-0.8371	24.66	-0.06	-0.750			
0.2007	12844.09	3.8810	3.8809	-0.8289	24.66	-0.06	-0.750			
0.2032	13005.91	3.8780	3.8784	-0.8400	24.66	-0.06	-0.750			
0.2057	13166.50	3.8750	3.8746	-0.8397	24.66	-0.06	-0.750			
0.2082	13323.87	3.8720	3.8721	-0.8491	24.66	-0.06	-0.750			
0.2108	13492.52	3.8690	3.8689	-0.8445	24.66	-0.06	-0.750			
0.2134	13658.78	3.8660	3.8658	-0.8606	24.66	-0.06	-0.750			
0.2160	13822.80	3.8630	3.8636	-0.8523	24.66	-0.06	-0.750			
0.2185	13985.16	3.8600	3.8599	-0.8477	24.66	-0.06	-0.750			
0.2210	14143.89	3.8570	3.8568	-0.8392	24.67	-0.05	-0.750			
0.2235	14301.17	3.8540	3.8541	-0.8327	24.67	-0.05	-0.750			
0.2260	14465.35	3.8510	3.8509	-0.8416	24.68	-0.04	-0.750			
0.2286	14628.39	3.8480	3.8481	-0.8361	24.68	-0.04	-0.750			
0.2310	14781.57	3.8450	3.8451	-0.8443	24.68	-0.04	-0.750			
0.2335	14946.97	3.8420	3.8420	-0.8423	24.68	-0.04	-0.750			
0.2361	15110.56	3.8390	3.8388	-0.8323	24.68	-0.04	-0.750			
0.2386	15270.47	3.8360	3.8359	-0.8282	24.68	-0.04	-0.750			
0.2411	15430.88	3.8330	3.8337	-0.8277	24.68	-0.04	-0.750			
0.2436	15589.22	3.8300	3.8299	-0.8218	24.68	-0.04	-0.750			
0.2460	15746.41	3.8270	3.8268	-0.8176	24.68	-0.04	-0.750			
0.2484	15900.02	3.8240	3.8240	-0.8105	24.69	-0.03	-0.750			
0.2509	16058.80	3.8210	3.8209	-0.8141	24.69	-0.03	-0.750			
0.2533	16213.35	3.8180	3.8179	-0.8092	24.69	-0.03	-0.750			
0.2558	16368.11	3.8150	3.8149	-0.7986	24.69	-0.03	-0.750			
0.2581	16520.13	3.8120	3.8120	-0.7913	24.69	-0.03	-0.750			
0.2605	16669.94	3.8090	3.8090	-0.7876	24.70	-0.02	-0.750			
0.2629	16822.96	3.8060	3.8061	-0.7895	24.70	-0.02	-0.750			
0.2652	16972.27	3.8030	3.8029	-0.7808	24.70	-0.02	-0.750			
0.2675	17122.50	3.8000	3.8001	-0.7807	24.70	-0.02	-0.750			
0.2698	17268.95	3.7970	3.7971	-0.7847	24.70	-0.02	-0.750			
0.2722	17420.88	3.7940	3.7939	-0.7838	24.70	-0.02	-0.750			
0.2746	17572.40	3.7910	3.7909	-0.7853	24.70	-0.02	-0.750			
0.2769	17723.24	3.7880	3.7880	-0.7837	24.70	-0.02	-0.750			
0.2793	17876.23	3.7850	3.7853	-0.7833	24.70	-0.02	-0.750			
0.2816	18022.61	3.7820	3.7820	-0.7906	24.70	-0.02	-0.750			
0.2840	18174.26	3.7790	3.7789	-0.7801	24.70	-0.02	-0.750			
0.2863	18324.12	3.7760	3.7761	-0.7730	24.70	-0.02	-0.750			
0.2887	18474.15	3.7730	3.7728	-0.7711	24.70	-0.02	-0.750			
0.2909	18620.56	3.7700	3.7703	-0.7711	24.70	-0.02	-0.750			
0.2933	18768.62	3.7670	3.7667	-0.7683	24.70	-0.02	-0.750			
0.2955	18913.09	3.7640	3.7640	-0.7745	24.70	-0.02	-0.750			
0.2978	19060.16	3.7610	3.7609	-0.7801	24.71	-0.01	-0.750			
0.3002	19212.63	3.7580	3.7581	-0.7979	24.71	-0.01	-0.750			
0.3026	19366.43	3.7550	3.7550	-0.8063	24.71	-0.01	-0.750			
0.3050	19522.21	3.7520	3.7519	-0.8159	24.71	-0.01	-0.750			
0.3075	19679.09	3.7490	3.7490	-0.8307	24.71	-0.01	-0.750			
0.3100	19841.52	3.7460	3.7460	-0.8407	24.71	-0.01	-0.750			
0.3126	20004.29	3.7430	3.7429	-0.8439	24.72	-0.00	-0.750			
0.3151	20168.52	3.7400	3.7398	-0.8458	24.72	-0.00	-0.750			
0.3176	20325.26	3.7370	3.7370	-0.8685	24.72	-0.00	-0.750			
0.3202	20494.36	3.7340	3.7339	-0.8714	24.71	-0.01	-0.750			
0.3229	20662.79	3.7310	3.7308	-0.8717	24.71	-0.01	-0.750			
0.3255	20832.12	3.7280	3.7278	-0.8895	24.71	-0.01	-0.750			
0.3282	21002.89	3.7250	3.7252	-0.8968	24.70	-0.02	-0.750			
0.3309	21174.45	3.7220	3.7218	-0.9098	24.70	-0.02	-0.750			
0.3336	21348.65	3.7190	3.7189	-0.9183	24.70	-0.02	-0.750			
0.3363	21522.33	3.7160	3.7159	-0.9291	24.70	-0.02	-0.750			
0.3392	21706.34	3.7130	3.7130	-0.9580	24.70	-0.02	-0.750			
0.3420	21886.31	3.7100	3.7102	-0.9903	24.70	-0.02	-0.750			
0.3450	22081.06	3.7070	3.7069	-0.9972	24.69	-0.03	-0.750			
0.3481	22276.95	3.7040	3.7039	-1.0109	24.69	-0.03	-0.750			
0.3511	22472.59	3.7010	3.7006	-1.0163	24.68	-0.04	-0.750			
0.3542	22666.18	3.6980	3.6982	-1.0527	24.68	-0.04	-0.750	0.389	0.530	
0.3574	22870.42	3.6950	3.6949	-1.0521	24.67	-0.05	-0.750			
0.3605	23072.93	3.6920	3.6918	-1.0607	24.67	-0.05	-0.750			
0.3636	23271.91	3.6890	3.6889	-1.0637	24.66	-0.06	-0.750			
0.3669	23484.67	3.6860	3.6862	-1.1062	24.66	-0.06	-0.750			
0.3703	23696.19	3.6830	3.6829	-1.1195	24.65	-0.07	-0.750			
0.3736	23913.01	3.6800	3.6798	-1.1289	24.64	-0.08	-0.750			
0.3770	24124.83	3.6770	3.6771	-1.1744	24.63	-0.09	-0.750			
0.3805	24354.93	3.6740	3.6741	-1.1918	24.63	-0.09	-0.750			
0.3842	24588.38	3.6710	3.6708	-1.2063	24.62	-0.10	-0.750			
0.3877	24815.14	3.6680	3.6680	-1.2450	24.62	-0.10	-0.750			
0.3915	25058.30	3.6650	3.6657	-1.2466	24.61	-0.11	-0.750			
0.3954	25302.81	3.6620	3.6619	-1.2662	24.60	-0.12	-0.750			
0.3992	25547.90	3.6590	3.6589	-1.2874	24.59	-0.13	-0.750			
0.4030	25793.52	3.6560	3.6561	-1.2982	24.58	-0.14	-0.750			
0.4070	26046.41	3.6530	3.6529	-1.3275	24.57	-0.15	-0.750			
0.4108	26293.85	3.6500	3.6500	-1.3691	24.57	-0.15	-0.750			
0.4150	26559.99	3.6470	3.6470	-1.3845	24.56	-0.16	-0.750			
0.4193	26838.11	3.6440	3.6438	-1.4205	24.56	-0.16	-0.750			
0.4236	27111.97	3.6410	3.6409	-1.4278	24.55	-0.17	-0.750			
0.4280	27389.98	3.6380	3.6382	-1.4589	24.54	-0.18	-0.750			
0.4324	27674.31	3.6350	3.6349	-1.4978	24.53	-0.19	-0.750			
0.4370	27970.44	3.6320	3.6316	-1.5187	24.53	-0.19	-0.750			
0.4416	28265.59	3.6290	3.6292	-1.5133	24.52	-0.20	-0.750			
0.4462	28555.14	3.6260	3.6267	-1.5959	24.52	-0.20	-0.750			
0.4511	28867.76	3.6230	3.6232	-1.6102	24.51	-0.21	-0.750			
0.4559	29176.98	3.6200	3.6195	-1.6334	24.51	-0.21	-0.750			
0.4609	29497.11	3.6170	3.6169	-1.6660	24.50	-0.22	-0.750			
0.4660	29824.89	3.6140	3.6139	-1.6996	24.50	-0.22	-0.750			
0.4713	30162.30	3.6110	3.6106	-1.7477	24.49	-0.23	-0.750			
0.4763	30482.40	3.6080	3.6078	-1.7495	24.48	-0.24	-0.750			
0.4817	30826.69	3.6050	3.6048	-1.8215	24.48	-0.24	-0.750			
0.4872	31183.66	3.6020	3.6019	-2.0143	24.47	-0.25	-0.750			
0.4934	31575.06	3.5990	3.5991	-2.1006	24.46	-0.26	-0.750			
0.5001	32004.83	3.5960	3.5957	-2.1461	24.45	-0.27	-0.750			
0.5068	32434.05	3.5930	3.5928	-2.1460	24.44	-0.28	-0.750			
0.5131	32839.26	3.5900	3.5902	-2.1039	24.44	-0.28	-0.750			
0.5192	33230.41	3.5870	3.5868	-2.0795	24.44	-0.28	-0.750			
0.5255	33630.07	3.5840	3.5836	-2.1046	24.44	-0.28	-0.750			
0.5318	34038.07	3.5810	3.5811	-2.0708	24.44	-0.28	-0.750			
0.5383	34448.80	3.5780	3.5780	-2.0820	24.44	-0.28	-0.750			
0.5445	34845.24	3.5750	3.5752	-2.0926	24.44	-0.28	-0.750			
0.5504	35228.29	3.5720	3.5716	-2.0682	24.44	-0.28	-0.750			
0.5565	35618.92	3.5690	3.5687	-2.1335	24.44	-0.28	-0.750			
0.5631	36040.63	3.5660	3.5662	-2.1638	24.44	-0.28	-0.750			
0.5699	36471.41	3.5630	3.5632	-2.2336	24.44	-0.28	-0.750			
0.5768	36914.52	3.5600	3.5601	-2.1927	24.44	-0.28	-0.750			
0.5832	37322.13	3.5570	3.5568	-2.1620	24.44	-0.28	-0.750			
0.5895	37727.46	3.5540	3.5539	-2.1245	24.44	-0.28	-0.750			
0.5959	38139.98	3.5510	3.5509	-2.1224	24.45	-0.27	-0.750			
0.6024	38550.77	3.5480	3.5480	-2.0913	24.46	-0.26	-0.750			
0.6087	38958.72	3.5450	3.5451	-2.1289	24.46	-0.26	-0.750			
0.6149	39351.79	3.5420	3.5417	-2.0230	24.47	-0.25	-0.750			
0.6208	39731.61	3.5390	3.5390	-2.0073	24.48	-0.24	-0.750			
0.6268	40115.34	3.5360	3.5358	-1.9625	24.50	-0.22	-0.750			
0.6327	40493.61	3.5330	3.5329	-1.9275	24.51	-0.21	-0.750			
0.6385	40864.79	3.5300	3.5302	-1.8970	24.52	-0.20	-0.750			
0.6441	41222.62	3.5270	3.5269	-1.8484	24.53	-0.19	-0.750			
0.6497	41578.42	3.5240	3.5238	-1.8182	24.55	-0.17	-0.750			
0.6550	41920.80	3.5210	3.5211	-1.7693	24.56	-0.16	-0.750			
0.6604	42263.18	3.5180	3.5180	-1.7555	24.58	-0.14	-0.750			
0.6655	42592.55	3.5150	3.5152	-1.6938	24.59	-0.13	-0.750			
0.6705	42914.85	3.5120	3.5120	-1.6399	24.61	-0.11	-0.750			
0.6754	43227.48	3.5090	3.5089	-1.6171	24.63	-0.09	-0.750			
0.6802	43535.14	3.5060	3.5060	-1.5667	24.64	-0.08	-0.750			
0.6848	43827.38	3.5030	3.5028	-1.5265	24.66	-0.06	-0.750			
0.6894	44121.01	3.5000	3.5000	-1.4806	24.67	-0.05	-0.750			
0.6938	44401.78	3.4970	3.4969	-1.4490	24.69	-0.03	-0.750			
0.6982	44681.67	3.4940	3.4941	-1.4037	24.71	-0.01	-0.750			
0.7023	44946.69	3.4910	3.4910	-1.3382	24.73	0.01	-0.750			
0.7062	45194.91	3.4880	3.4878	-1.2931	24.75	0.03	-0.750			
0.7099	45432.71	3.4850	3.4850	-1.1648	24.77	0.05	-0.750			
