Ah_balance (normalized)	Ah_balance (mAh)	Voltage - fit (V)	Voltage -  interpolate (V)	dQ/dV (1/V)	Temperature (°C)	Temperature - diff (°C)	Current (C)	R_DC 0ms (mOhm)	R_DC 50ms (mOhm)	R_DC 50 ms PEC (mOhm)
0.0002	13.30	4.1620	4.1614	-0.0888	25.29	0.01	-0.750			
0.0006	36.60	4.1590	4.1590	-0.1436	25.29	0.01	-0.750			
0.0011	69.90	4.1560	4.1557	-0.1867	25.29	0.01	-0.750			
0.0017	108.37	4.1530	4.1531	-0.2277	25.29	0.01	-0.750			
0.0024	156.21	4.1500	4.1501	-0.2691	25.29	0.01	-0.750			
0.0033	212.35	4.1470	4.1469	-0.3063	25.29	0.01	-0.750			
0.0043	276.15	4.1440	4.1440	-0.3433	25.29	0.01	-0.750			
0.0054	345.82	4.1410	4.1411	-0.3793	25.28	0.00	-0.750			
0.0066	422.61	4.1380	4.1380	-0.4165	25.28	0.00	-0.750			
0.0079	508.13	4.1350	4.1349	-0.4490	25.28	0.00	-0.750			
0.0093	597.15	4.1320	4.1319	-0.4755	25.28	0.00	-0.750			
0.0108	693.43	4.1290	4.1291	-0.4992	25.28	0.00	-0.750			
0.0124	790.75	4.1260	4.1259	-0.5264	25.28	-0.00	-0.750			
0.0140	894.24	4.1230	4.1230	-0.5481	25.28	-0.00	-0.750			
0.0156	1000.26	4.1200	4.1200	-0.5671	25.28	-0.00	-0.750			
0.0173	1109.12	4.1170	4.1170	-0.5896	25.28	-0.00	-0.750			
0.0192	1229.70	4.1140	4.1141	-0.6092	25.27	-0.01	-0.750			
0.0211	1348.57	4.1110	4.1109	-0.6216	25.27	-0.01	-0.750			
0.0230	1471.90	4.1080	4.1081	-0.6344	25.27	-0.01	-0.750			
0.0249	1592.15	4.1050	4.1051	-0.6379	25.27	-0.01	-0.750			
0.0268	1716.16	4.1020	4.1019	-0.6480	25.26	-0.02	-0.750			
0.0288	1840.30	4.0990	4.0989	-0.6568	25.26	-0.02	-0.750			
0.0307	1967.98	4.0960	4.0960	-0.6682	25.25	-0.03	-0.750			
0.0328	2099.67	4.0930	4.0930	-0.6790	25.25	-0.03	-0.750			
0.0349	2231.97	4.0900	4.0898	-0.6846	25.24	-0.04	-0.750			
0.0369	2363.69	4.0870	4.0872	-0.6910	25.24	-0.04	-0.750			
0.0390	2496.38	4.0840	4.0839	-0.6846	25.24	-0.04	-0.750			
0.0410	2625.20	4.0810	4.0810	-0.6937	25.23	-0.05	-0.750			
0.0430	2755.17	4.0780	4.0782	-0.6937	25.23	-0.05	-0.750			
0.0452	2893.78	4.0750	4.0744	-0.7122	25.23	-0.05	-0.750			
0.0474	3032.30	4.0720	4.0720	-0.7165	25.22	-0.06	-0.750			
0.0496	3172.04	4.0690	4.0693	-0.7168	25.22	-0.06	-0.750			
0.0517	3311.31	4.0660	4.0660	-0.7207	25.22	-0.06	-0.750			
0.0539	3451.24	4.0630	4.0630	-0.7259	25.22	-0.06	-0.750			
0.0560	3582.96	4.0600	4.0600	-0.7169	25.22	-0.06	-0.750			
0.0582	3722.40	4.0570	4.0570	-0.7301	25.22	-0.06	-0.750			
0.0604	3865.32	4.0540	4.0539	-0.7312	25.22	-0.06	-0.750			
0.0626	4006.34	4.0510	4.0511	-0.7343	25.22	-0.06	-0.750			
0.0648	4148.99	4.0480	4.0480	-0.7406	25.22	-0.06	-0.750			
0.0670	4289.67	4.0450	4.0450	-0.7458	25.22	-0.06	-0.750			
0.0693	4433.54	4.0420	4.0418	-0.7420	25.23	-0.05	-0.750			
0.0715	4577.43	4.0390	4.0388	-0.7434	25.23	-0.05	-0.750			
0.0738	4720.15	4.0360	4.0363	-0.7478	25.23	-0.05	-0.750			
0.0760	4865.49	4.0330	4.0329	-0.7496	25.23	-0.05	-0.750			
0.0782	5006.60	4.0300	4.0300	-0.7570	25.23	-0.05	-0.750			
0.0805	5154.51	4.0270	4.0269	-0.7538	25.24	-0.04	-0.750			
0.0828	5300.90	4.0240	4.0239	-0.7564	25.24	-0.04	-0.750			
0.0851	5446.23	4.0210	4.0209	-0.7578	25.24	-0.04	-0.750			
0.0874	5590.92	4.0180	4.0181	-0.7579	25.24	-0.04	-0.750			
0.0896	5734.51	4.0150	4.0148	-0.7529	25.24	-0.04	-0.750			
0.0918	5877.87	4.0120	4.0120	-0.7577	25.24	-0.04	-0.750			
0.0941	6023.68	4.0090	4.0090	-0.7514	25.25	-0.03	-0.750			
0.0964	6172.53	4.0060	4.0058	-0.7610	25.25	-0.03	-0.750			
0.0987	6319.28	4.0030	4.0033	-0.7600	25.25	-0.03	-0.750			
0.1010	6463.61	4.0000	3.9999	-0.7605	25.25	-0.03	-0.750			
0.1033	6608.41	3.9970	3.9969	-0.7666	25.25	-0.03	-0.750			
0.1056	6756.83	3.9940	3.9939	-0.7734	25.26	-0.02	-0.750			
0.1079	6905.71	3.9910	3.9910	-0.7779	25.26	-0.02	-0.750			
0.1103	7057.00	3.9880	3.9879	-0.7786	25.26	-0.02	-0.750			
0.1126	7207.60	3.9850	3.9849	-0.7743	25.26	-0.02	-0.750			
0.1149	7352.53	3.9820	3.9819	-0.7824	25.26	-0.02	-0.750			
0.1172	7502.96	3.9790	3.9792	-0.7852	25.26	-0.02	-0.750			
0.1196	7653.45	3.9760	3.9758	-0.7806	25.27	-0.01	-0.750			
0.1220	7805.80	3.9730	3.9730	-0.7881	25.27	-0.01	-0.750			
0.1243	7957.63	3.9700	3.9705	-0.7927	25.27	-0.01	-0.750			
0.1267	8110.12	3.9670	3.9670	-0.7923	25.27	-0.01	-0.750			
0.1291	8260.45	3.9640	3.9637	-0.7968	25.27	-0.01	-0.750			
0.1314	8411.61	3.9610	3.9612	-0.7894	25.27	-0.01	-0.750			
0.1338	8566.07	3.9580	3.9580	-0.7987	25.27	-0.01	-0.750			
0.1363	8723.34	3.9550	3.9550	-0.8055	25.27	-0.01	-0.750			
0.1387	8876.36	3.9520	3.9519	-0.8011	25.27	-0.01	-0.750			
0.1411	9027.80	3.9490	3.9489	-0.8045	25.27	-0.01	-0.750			
0.1435	9183.31	3.9460	3.9460	-0.8091	25.28	-0.00	-0.750			
0.1459	9339.56	3.9430	3.9429	-0.8090	25.28	-0.00	-0.750			
0.1484	9496.36	3.9400	3.9402	-0.8078	25.28	-0.00	-0.750			
0.1508	9651.49	3.9370	3.9369	-0.8029	25.28	0.00	-0.750			
0.1532	9803.83	3.9340	3.9339	-0.8070	25.28	0.00	-0.750			
0.1556	9959.11	3.9310	3.9310	-0.8027	25.29	0.01	-0.750			
0.1580	10111.18	3.9280	3.9279	-0.7956	25.29	0.01	-0.750			
0.1604	10266.46	3.9250	3.9251	-0.8012	25.29	0.01	-0.750			
0.1628	10420.71	3.9220	3.9219	-0.8021	25.29	0.01	-0.750			
0.1652	10572.13	3.9190	3.9189	-0.8110	25.29	0.01	-0.750			
0.1676	10728.96	3.9160	3.9159	-0.8110	25.29	0.01	-0.750			
0.1700	10882.74	3.9130	3.9130	-0.8079	25.30	0.02	-0.750			
0.1726	11044.92	3.9100	3.9099	-0.8153	25.30	0.02	-0.750			
0.1750	11201.37	3.9070	3.9071	-0.8060	25.30	0.02	-0.750			
0.1774	11350.58	3.9040	3.9040	-0.8135	25.31	0.03	-0.750			
0.1798	11509.08	3.9010	3.9009	-0.8091	25.31	0.03	-0.750			
0.1822	11662.12	3.8980	3.8979	-0.8014	25.31	0.03	-0.750			
0.1847	11820.68	3.8950	3.8949	-0.8038	25.32	0.04	-0.750			
0.1871	11976.67	3.8920	3.8922	-0.8021	25.32	0.04	-0.750			
0.1895	12128.22	3.8890	3.8889	-0.8058	25.32	0.04	-0.750			
0.1919	12281.38	3.8860	3.8860	-0.7991	25.32	0.04	-0.750			
0.1942	12430.37	3.8830	3.8829	-0.7887	25.33	0.05	-0.750			
0.1967	12587.12	3.8800	3.8801	-0.8026	25.33	0.05	-0.750			
0.1991	12741.32	3.8770	3.8775	-0.8036	25.33	0.05	-0.750			
0.2015	12896.22	3.8740	3.8739	-0.8008	25.33	0.05	-0.750			
0.2039	13050.66	3.8710	3.8710	-0.7955	25.34	0.06	-0.750			
0.2063	13202.47	3.8680	3.8680	-0.7871	25.34	0.06	-0.750			
0.2087	13355.86	3.8650	3.8650	-0.7874	25.35	0.07	-0.750			
0.2110	13505.28	3.8620	3.8620	-0.7814	25.35	0.07	-0.750			
0.2133	13652.47	3.8590	3.8589	-0.7777	25.35	0.07	-0.750			
0.2156	13800.26	3.8560	3.8561	-0.7820	25.35	0.07	-0.750			
0.2180	13951.29	3.8530	3.8529	-0.7789	25.36	0.08	-0.750			
0.2203	14101.34	3.8500	3.8500	-0.7748	25.36	0.08	-0.750			
0.2227	14251.94	3.8470	3.8469	-0.7746	25.36	0.08	-0.750			
0.2250	14399.70	3.8440	3.8439	-0.7681	25.36	0.08	-0.750			
0.2272	14542.37	3.8410	3.8410	-0.7764	25.36	0.08	-0.750			
0.2296	14692.76	3.8380	3.8380	-0.7716	25.36	0.08	-0.750			
0.2319	14843.12	3.8350	3.8349	-0.7598	25.37	0.09	-0.750			
0.2342	14990.02	3.8320	3.8319	-0.7591	25.37	0.09	-0.750			
0.2365	15135.32	3.8290	3.8298	-0.7584	25.37	0.09	-0.750			
0.2387	15279.63	3.8260	3.8258	-0.7514	25.37	0.09	-0.750			
0.2409	15420.79	3.8230	3.8229	-0.7541	25.37	0.09	-0.750			
0.2432	15564.47	3.8200	3.8201	-0.7556	25.38	0.10	-0.750			
0.2455	15712.17	3.8170	3.8169	-0.7653	25.38	0.10	-0.750			
0.2478	15861.05	3.8140	3.8139	-0.7608	25.38	0.10	-0.750			
0.2501	16005.25	3.8110	3.8111	-0.7578	25.38	0.10	-0.750			
0.2523	16149.75	3.8080	3.8081	-0.7601	25.38	0.10	-0.750			
0.2546	16296.39	3.8050	3.8049	-0.7574	25.38	0.10	-0.750			
0.2569	16440.47	3.8020	3.8020	-0.7485	25.39	0.11	-0.750			
0.2591	16584.50	3.7990	3.7990	-0.7542	25.39	0.11	-0.750			
0.2614	16729.00	3.7960	3.7965	-0.7589	25.39	0.11	-0.750			
0.2637	16875.42	3.7930	3.7928	-0.7635	25.39	0.11	-0.750			
0.2659	17019.74	3.7900	3.7900	-0.7684	25.39	0.11	-0.750			
0.2683	17169.14	3.7870	3.7870	-0.7795	25.40	0.12	-0.750			
0.2707	17321.86	3.7840	3.7839	-0.7862	25.40	0.12	-0.750			
0.2730	17474.10	3.7810	3.7809	-0.7855	25.40	0.12	-0.750			
0.2754	17623.59	3.7780	3.7780	-0.7846	25.40	0.12	-0.750			
0.2777	17773.99	3.7750	3.7749	-0.7894	25.40	0.12	-0.750			
0.2801	17926.17	3.7720	3.7721	-0.7868	25.40	0.12	-0.750			
0.2824	18075.23	3.7690	3.7690	-0.7863	25.40	0.12	-0.750			
0.2848	18227.60	3.7660	3.7660	-0.7972	25.40	0.12	-0.750			
0.2872	18381.50	3.7630	3.7631	-0.8072	25.40	0.12	-0.750			
0.2896	18533.37	3.7600	3.7599	-0.8199	25.40	0.12	-0.750			
0.2921	18694.66	3.7570	3.7569	-0.8211	25.40	0.12	-0.750			
0.2946	18855.64	3.7540	3.7540	-0.8238	25.40	0.12	-0.750			
0.2971	19014.17	3.7510	3.7509	-0.8351	25.40	0.12	-0.750			
0.2996	19174.87	3.7480	3.7481	-0.8358	25.40	0.12	-0.750			
0.3021	19332.31	3.7450	3.7449	-0.8527	25.40	0.12	-0.750			
0.3046	19496.11	3.7420	3.7419	-0.8541	25.40	0.12	-0.750			
0.3072	19660.84	3.7390	3.7390	-0.8599	25.39	0.11	-0.750			
0.3099	19832.55	3.7360	3.7359	-0.8789	25.39	0.11	-0.750			
0.3126	20003.25	3.7330	3.7329	-0.8833	25.39	0.11	-0.750			
0.3152	20170.52	3.7300	3.7299	-0.8872	25.39	0.11	-0.750			
0.3178	20340.27	3.7270	3.7269	-0.8932	25.38	0.10	-0.750			
0.3206	20516.53	3.7240	3.7240	-0.8536	25.38	0.10	-0.750			
0.3232	20684.23	3.7210	3.7211	-0.8491	25.38	0.10	-0.750			
0.3256	20835.54	3.7180	3.7184	-0.8714	25.38	0.10	-0.750			
0.3282	21001.65	3.7150	3.7144	-0.8734	25.37	0.09	-0.750			
0.3307	21164.29	3.7120	3.7116	-0.8835	25.37	0.09	-0.750			
0.3334	21334.83	3.7090	3.7088	-0.9099	25.36	0.08	-0.750			
0.3362	21515.74	3.7060	3.7067	-0.9567	25.36	0.08	-0.750			
0.3392	21711.19	3.7030	3.7029	-1.0007	25.36	0.08	-0.750			
0.3423	21905.23	3.7000	3.6997	-1.0024	25.35	0.07	-0.750			
0.3453	22097.13	3.6970	3.6967	-1.0126	25.35	0.07	-0.750	0.372	0.548	
0.3484	22296.10	3.6940	3.6940	-1.0352	25.34	0.06	-0.750			
0.3515	22495.13	3.6910	3.6909	-1.0468	25.33	0.05	-0.750			
0.3546	22694.69	3.6880	3.6879	-1.0535	25.33	0.05	-0.750			
0.3577	22894.76	3.6850	3.6848	-1.0698	25.32	0.04	-0.750			
0.3610	23104.31	3.6820	3.6822	-1.0952	25.31	0.03	-0.750			
0.3644	23319.79	3.6790	3.6788	-1.1272	25.30	0.02	-0.750			
0.3678	23539.92	3.6760	3.6758	-1.1416	25.29	0.01	-0.750			
0.3713	23763.14	3.6730	3.6728	-1.1443	25.29	0.01	-0.750			
0.3748	23985.69	3.6700	3.6701	-1.1838	25.28	-0.00	-0.750			
0.3784	24216.24	3.6670	3.6668	-1.1803	25.27	-0.01	-0.750			
0.3819	24441.11	3.6640	3.6636	-1.1849	25.27	-0.01	-0.750			
0.3853	24660.47	3.6610	3.6614	-1.1905	25.26	-0.02	-0.750			
0.3891	24900.23	3.6580	3.6578	-1.2285	25.26	-0.02	-0.750			
0.3927	25134.07	3.6550	3.6548	-1.2582	25.25	-0.03	-0.750			
0.3965	25374.52	3.6520	3.6518	-1.2979	25.24	-0.04	-0.750			
0.4005	25633.94	3.6490	3.6491	-1.3212	25.24	-0.04	-0.750			
0.4046	25891.45	3.6460	3.6460	-1.3341	25.23	-0.05	-0.750			
0.4085	26145.70	3.6430	3.6428	-1.3502	25.22	-0.06	-0.750			
0.4125	26401.68	3.6400	3.6398	-1.3570	25.21	-0.07	-0.750			
0.4167	26666.44	3.6370	3.6369	-1.3848	25.20	-0.08	-0.750			
0.4207	26925.53	3.6340	3.6338	-1.4050	25.20	-0.08	-0.750			
0.4251	27205.27	3.6310	3.6312	-1.4386	25.19	-0.09	-0.750			
0.4296	27492.35	3.6280	3.6279	-1.4739	25.18	-0.10	-0.750			
0.4340	27779.09	3.6250	3.6248	-1.5317	25.17	-0.11	-0.750			
0.4387	28078.64	3.6220	3.6219	-1.5618	25.17	-0.11	-0.750			
0.4435	28382.93	3.6190	3.6187	-1.6275	25.16	-0.12	-0.750			
0.4485	28702.15	3.6160	3.6166	-1.6314	25.16	-0.12	-0.750			
0.4535	29022.67	3.6130	3.6137	-1.6116	25.15	-0.13	-0.750			
0.4583	29331.83	3.6100	3.6100	-1.6243	25.14	-0.14	-0.750			
0.4630	29632.14	3.6070	3.6066	-1.6639	25.14	-0.14	-0.750			
0.4680	29955.19	3.6040	3.6036	-1.7063	25.13	-0.15	-0.750			
0.4732	30286.25	3.6010	3.6011	-1.7548	25.12	-0.16	-0.750			
0.4785	30621.97	3.5980	3.5982	-1.8096	25.11	-0.17	-0.750			
0.4839	30972.33	3.5950	3.5957	-1.8208	25.10	-0.18	-0.750			
0.4897	31341.11	3.5920	3.5920	-1.8426	25.10	-0.18	-0.750			
0.4950	31680.90	3.5890	3.5894	-1.8799	25.09	-0.19	-0.750			
0.5008	32051.60	3.5860	3.5857	-1.8696	25.09	-0.19	-0.750			
0.5064	32408.96	3.5830	3.5827	-1.9503	25.08	-0.20	-0.750			
0.5123	32786.77	3.5800	3.5796	-1.9387	25.08	-0.20	-0.750			
0.5181	33157.41	3.5770	3.5769	-1.9763	25.07	-0.21	-0.750			
0.5241	33544.92	3.5740	3.5744	-2.0066	25.07	-0.21	-0.750			
0.5303	33941.33	3.5710	3.5707	-2.0613	25.06	-0.22	-0.750			
0.5361	34308.24	3.5680	3.5677	-2.0625	25.06	-0.22	-0.750			
0.5424	34715.38	3.5650	3.5646	-2.0569	25.06	-0.22	-0.750			
0.5485	35107.19	3.5620	3.5617	-2.0270	25.07	-0.21	-0.750			
0.5547	35498.36	3.5590	3.5588	-2.0722	25.07	-0.21	-0.750			
0.5609	35896.39	3.5560	3.5566	-2.0260	25.06	-0.22	-0.750			
0.5670	36288.49	3.5530	3.5528	-2.0266	25.06	-0.22	-0.750			
0.5730	36672.86	3.5500	3.5494	-2.0222	25.06	-0.22	-0.750			
0.5788	37044.09	3.5470	3.5473	-1.9438	25.06	-0.22	-0.750			
0.5846	37417.20	3.5440	3.5447	-1.9466	25.07	-0.21	-0.750			
0.5904	37784.58	3.5410	3.5409	-1.9675	25.07	-0.21	-0.750			
0.5966	38185.14	3.5380	3.5377	-1.9939	25.07	-0.21	-0.750			
0.6026	38568.26	3.5350	3.5350	-1.9420	25.08	-0.20	-0.750			
0.6086	38951.96	3.5320	3.5320	-1.9470	25.09	-0.19	-0.750			
0.6145	39326.56	3.5290	3.5287	-1.8893	25.10	-0.18	-0.750			
0.6199	39673.92	3.5260	3.5257	-1.8008	25.11	-0.17	-0.750			
0.6251	40009.10	3.5230	3.5231	-1.7437	25.12	-0.16	-0.750			
0.6303	40339.70	3.5200	3.5200	-1.7194	25.13	-0.15	-0.750			
0.6355	40673.23	3.5170	3.5170	-1.6695	25.14	-0.14	-0.750			
0.6404	40987.90	3.5140	3.5141	-1.6113	25.15	-0.13	-0.750			
0.6452	41289.82	3.5110	3.5111	-1.5732	25.17	-0.11	-0.750			
0.6499	41592.63	3.5080	3.5083	-1.5346	25.18	-0.10	-0.750			
0.6544	41881.10	3.5050	3.5049	-1.4939	25.20	-0.08	-0.750			
0.6588	42162.55	3.5020	3.5020	-1.4727	25.21	-0.07	-0.750			
0.6632	42447.81	3.4990	3.4990	-1.4353	25.23	-0.05	-0.750			
0.6677	42730.07	3.4960	3.4958	-1.4120	25.25	-0.03	-0.750			
0.6718	42996.12	3.4930	3.4930	-1.3754	25.26	-0.02	-0.750			
0.6758	43254.03	3.4900	3.4900	-1.3236	25.28	-0.00	-0.750			
0.6798	43507.37	3.4870	3.4867	-1.2791	25.29	0.01	-0.750			
0.6835	43742.66	3.4840	3.4839	-1.2535	25.30	0.02	-0.750			
0.6873	43985.92	3.4810	3.4811	-1.3612	25.31	0.03	-0.750			
