Ah_balance (normalized)	Ah_balance (mAh)	Voltage - fit (V)	Voltage -  interpolate (V)	dQ/dV (1/V)	Temperature (°C)	Temperature - diff (°C)	Current (C)	R_DC 0ms (mOhm)	R_DC 50ms (mOhm)	R_DC 50 ms PEC (mOhm)
0.0004	24.19	4.1600	4.1603	-0.1425	25.20	0.03	-0.750			
0.0009	55.92	4.1570	4.1569	-0.1837	25.20	0.03	-0.750			
0.0015	94.62	4.1540	4.1540	-0.2232	25.20	0.03	-0.750			
0.0022	141.74	4.1510	4.1511	-0.2611	25.20	0.03	-0.750			
0.0031	195.29	4.1480	4.1480	-0.3015	25.19	0.02	-0.750			
0.0040	256.83	4.1450	4.1450	-0.3408	25.19	0.02	-0.750			
0.0051	326.55	4.1420	4.1419	-0.3773	25.18	0.01	-0.750			
0.0063	403.32	4.1390	4.1390	-0.4135	25.18	0.01	-0.750			
0.0076	487.29	4.1360	4.1360	-0.4434	25.17	0.00	-0.750			
0.0090	576.56	4.1330	4.1330	-0.4724	25.17	-0.00	-0.750			
0.0105	669.97	4.1300	4.1301	-0.5004	25.16	-0.01	-0.750			
0.0120	767.25	4.1270	4.1270	-0.5254	25.16	-0.01	-0.750			
0.0136	869.42	4.1240	4.1240	-0.5531	25.15	-0.02	-0.750			
0.0153	979.71	4.1210	4.1210	-0.5814	25.14	-0.03	-0.750			
0.0171	1096.65	4.1180	4.1180	-0.5980	25.14	-0.03	-0.750			
0.0190	1215.24	4.1150	4.1150	-0.6107	25.13	-0.04	-0.750			
0.0209	1334.83	4.1120	4.1122	-0.6241	25.12	-0.05	-0.750			
0.0227	1454.98	4.1090	4.1089	-0.6287	25.12	-0.05	-0.750			
0.0246	1573.66	4.1060	4.1060	-0.6381	25.11	-0.06	-0.750			
0.0265	1696.84	4.1030	4.1030	-0.6493	25.11	-0.06	-0.750			
0.0285	1823.80	4.1000	4.1000	-0.6630	25.11	-0.06	-0.750			
0.0305	1953.54	4.0970	4.0970	-0.6739	25.10	-0.07	-0.750			
0.0326	2084.57	4.0940	4.0940	-0.6824	25.10	-0.07	-0.750			
0.0346	2216.38	4.0910	4.0911	-0.6832	25.10	-0.07	-0.750			
0.0367	2347.74	4.0880	4.0880	-0.6916	25.10	-0.07	-0.750			
0.0388	2480.17	4.0850	4.0850	-0.6981	25.10	-0.07	-0.750			
0.0409	2615.65	4.0820	4.0819	-0.7052	25.09	-0.08	-0.750			
0.0430	2751.76	4.0790	4.0789	-0.7087	25.09	-0.08	-0.750			
0.0451	2888.80	4.0760	4.0761	-0.7164	25.09	-0.08	-0.750			
0.0473	3027.44	4.0730	4.0729	-0.7205	25.09	-0.08	-0.750			
0.0495	3167.89	4.0700	4.0699	-0.7231	25.09	-0.08	-0.750			
0.0517	3306.30	4.0670	4.0670	-0.7312	25.09	-0.08	-0.750			
0.0539	3447.60	4.0640	4.0640	-0.7295	25.08	-0.09	-0.750			
0.0561	3591.15	4.0610	4.0608	-0.7340	25.08	-0.09	-0.750			
0.0583	3731.41	4.0580	4.0587	-0.7329	25.08	-0.09	-0.750			
0.0605	3870.78	4.0550	4.0548	-0.7272	25.08	-0.09	-0.750			
0.0626	4008.59	4.0520	4.0520	-0.7330	25.08	-0.09	-0.750			
0.0648	4147.02	4.0490	4.0491	-0.7336	25.08	-0.09	-0.750			
0.0671	4292.62	4.0460	4.0459	-0.7442	25.08	-0.09	-0.750			
0.0693	4434.44	4.0430	4.0430	-0.7420	25.08	-0.09	-0.750			
0.0715	4577.25	4.0400	4.0401	-0.7422	25.08	-0.09	-0.750			
0.0737	4719.37	4.0370	4.0367	-0.7437	25.08	-0.09	-0.750			
0.0760	4862.67	4.0340	4.0341	-0.7490	25.08	-0.09	-0.750			
0.0782	5005.06	4.0310	4.0310	-0.7530	25.08	-0.09	-0.750			
0.0805	5152.60	4.0280	4.0279	-0.7564	25.08	-0.09	-0.750			
0.0828	5298.48	4.0250	4.0250	-0.7605	25.08	-0.09	-0.750			
0.0851	5443.90	4.0220	4.0219	-0.7628	25.08	-0.09	-0.750			
0.0873	5588.95	4.0190	4.0191	-0.7733	25.08	-0.09	-0.750			
0.0897	5738.43	4.0160	4.0159	-0.7710	25.08	-0.09	-0.750			
0.0920	5886.53	4.0130	4.0130	-0.7741	25.08	-0.09	-0.750			
0.0943	6037.51	4.0100	4.0099	-0.7756	25.08	-0.09	-0.750			
0.0967	6187.86	4.0070	4.0071	-0.7766	25.08	-0.09	-0.750			
0.0990	6336.34	4.0040	4.0039	-0.7714	25.08	-0.09	-0.750			
0.1013	6484.53	4.0010	4.0010	-0.7686	25.08	-0.09	-0.750			
0.1036	6628.75	3.9980	3.9981	-0.7668	25.08	-0.09	-0.750			
0.1059	6779.11	3.9950	3.9950	-0.7713	25.08	-0.09	-0.750			
0.1082	6926.20	3.9920	3.9921	-0.7718	25.08	-0.09	-0.750			
0.1105	7074.28	3.9890	3.9889	-0.7766	25.08	-0.09	-0.750			
0.1129	7222.61	3.9860	3.9860	-0.7831	25.08	-0.09	-0.750			
0.1152	7375.35	3.9830	3.9829	-0.7824	25.09	-0.08	-0.750			
0.1176	7526.04	3.9800	3.9800	-0.7820	25.09	-0.08	-0.750			
0.1199	7676.38	3.9770	3.9770	-0.7838	25.09	-0.08	-0.750			
0.1223	7827.53	3.9740	3.9741	-0.7874	25.09	-0.08	-0.750			
0.1246	7976.12	3.9710	3.9710	-0.7919	25.09	-0.08	-0.750			
0.1270	8129.26	3.9680	3.9679	-0.7888	25.09	-0.08	-0.750			
0.1294	8279.84	3.9650	3.9650	-0.7920	25.10	-0.07	-0.750			
0.1318	8434.12	3.9620	3.9620	-0.8034	25.10	-0.07	-0.750			
0.1342	8588.43	3.9590	3.9586	-0.8014	25.10	-0.07	-0.750			
0.1366	8742.76	3.9560	3.9560	-0.7997	25.10	-0.07	-0.750			
0.1390	8896.89	3.9530	3.9531	-0.8003	25.10	-0.07	-0.750			
0.1414	9048.64	3.9500	3.9501	-0.8002	25.10	-0.07	-0.750			
0.1438	9204.99	3.9470	3.9469	-0.8079	25.10	-0.07	-0.750			
0.1462	9356.33	3.9440	3.9441	-0.8028	25.10	-0.07	-0.750			
0.1486	9510.10	3.9410	3.9410	-0.8080	25.10	-0.07	-0.750			
0.1511	9668.48	3.9380	3.9381	-0.8173	25.11	-0.06	-0.750			
0.1536	9827.37	3.9350	3.9348	-0.8143	25.11	-0.06	-0.750			
0.1560	9984.12	3.9320	3.9320	-0.8137	25.12	-0.05	-0.750			
0.1584	10138.63	3.9290	3.9294	-0.8153	25.12	-0.05	-0.750			
0.1609	10295.32	3.9260	3.9259	-0.8114	25.12	-0.05	-0.750			
0.1633	10451.99	3.9230	3.9229	-0.8241	25.12	-0.05	-0.750			
0.1658	10610.68	3.9200	3.9199	-0.8157	25.12	-0.05	-0.750			
0.1683	10771.14	3.9170	3.9170	-0.8207	25.12	-0.05	-0.750			
0.1707	10926.18	3.9140	3.9147	-0.8179	25.12	-0.05	-0.750			
0.1731	11081.19	3.9110	3.9108	-0.8139	25.12	-0.05	-0.750			
0.1756	11235.86	3.9080	3.9079	-0.8147	25.12	-0.05	-0.750			
0.1780	11389.39	3.9050	3.9049	-0.8148	25.13	-0.04	-0.750			
0.1805	11551.62	3.9020	3.9021	-0.8279	25.13	-0.04	-0.750			
0.1830	11710.92	3.8990	3.8990	-0.8245	25.13	-0.04	-0.750			
0.1854	11868.58	3.8960	3.8959	-0.8259	25.13	-0.04	-0.750			
0.1879	12025.63	3.8930	3.8930	-0.8294	25.13	-0.04	-0.750			
0.1904	12184.29	3.8900	3.8899	-0.8272	25.14	-0.03	-0.750			
0.1929	12344.66	3.8870	3.8870	-0.8218	25.14	-0.03	-0.750			
0.1954	12504.56	3.8840	3.8841	-0.8204	25.14	-0.03	-0.750			
0.1978	12660.30	3.8810	3.8811	-0.8215	25.14	-0.03	-0.750			
0.2003	12816.99	3.8780	3.8778	-0.8271	25.14	-0.03	-0.750			
0.2028	12976.55	3.8750	3.8749	-0.8212	25.15	-0.02	-0.750			
0.2052	13134.10	3.8720	3.8719	-0.8159	25.15	-0.02	-0.750			
0.2077	13295.72	3.8690	3.8692	-0.8164	25.15	-0.02	-0.750			
0.2102	13451.07	3.8660	3.8658	-0.8116	25.15	-0.02	-0.750			
0.2125	13603.14	3.8630	3.8629	-0.8029	25.16	-0.01	-0.750			
0.2149	13754.70	3.8600	3.8600	-0.7908	25.16	-0.01	-0.750			
0.2172	13902.41	3.8570	3.8570	-0.7879	25.16	-0.01	-0.750			
0.2197	14058.99	3.8540	3.8541	-0.8002	25.17	-0.00	-0.750			
0.2221	14211.37	3.8510	3.8507	-0.7986	25.17	0.00	-0.750			
0.2245	14365.16	3.8480	3.8480	-0.7989	25.17	0.00	-0.750			
0.2269	14518.44	3.8450	3.8451	-0.7927	25.17	0.00	-0.750			
0.2292	14671.88	3.8420	3.8420	-0.7900	25.18	0.01	-0.750			
0.2316	14825.39	3.8390	3.8388	-0.7848	25.18	0.01	-0.750			
0.2339	14972.50	3.8360	3.8362	-0.7791	25.18	0.01	-0.750			
0.2363	15120.90	3.8330	3.8331	-0.7758	25.18	0.01	-0.750			
0.2386	15270.44	3.8300	3.8299	-0.7770	25.18	0.01	-0.750			
0.2410	15421.09	3.8270	3.8271	-0.7718	25.19	0.02	-0.750			
0.2433	15569.75	3.8240	3.8239	-0.7687	25.19	0.02	-0.750			
0.2455	15714.82	3.8210	3.8210	-0.7672	25.19	0.02	-0.750			
0.2478	15861.65	3.8180	3.8179	-0.7654	25.19	0.02	-0.750			
0.2501	16006.57	3.8150	3.8149	-0.7635	25.19	0.02	-0.750			
0.2524	16153.82	3.8120	3.8120	-0.7580	25.20	0.03	-0.750			
0.2547	16301.27	3.8090	3.8091	-0.7646	25.20	0.03	-0.750			
0.2570	16446.61	3.8060	3.8059	-0.7619	25.20	0.03	-0.750			
0.2592	16591.38	3.8030	3.8029	-0.7622	25.20	0.03	-0.750			
0.2615	16736.95	3.8000	3.8000	-0.7619	25.20	0.03	-0.750			
0.2638	16884.23	3.7970	3.7970	-0.7626	25.20	0.03	-0.750			
0.2661	17030.95	3.7940	3.7940	-0.7626	25.21	0.04	-0.750			
0.2684	17180.11	3.7910	3.7910	-0.7706	25.21	0.04	-0.750			
0.2707	17326.74	3.7880	3.7880	-0.7660	25.21	0.04	-0.750			
0.2730	17472.75	3.7850	3.7849	-0.7675	25.21	0.04	-0.750			
0.2753	17618.50	3.7820	3.7822	-0.7717	25.21	0.04	-0.750			
0.2776	17769.24	3.7790	3.7789	-0.7770	25.22	0.05	-0.750			
0.2800	17918.69	3.7760	3.7758	-0.7811	25.22	0.05	-0.750			
0.2823	18070.19	3.7730	3.7730	-0.7816	25.22	0.05	-0.750			
0.2847	18219.90	3.7700	3.7699	-0.7821	25.22	0.05	-0.750			
0.2870	18370.26	3.7670	3.7670	-0.7910	25.22	0.05	-0.750			
0.2894	18522.27	3.7640	3.7640	-0.7942	25.22	0.05	-0.750			
0.2918	18672.28	3.7610	3.7609	-0.7973	25.22	0.05	-0.750			
0.2942	18828.55	3.7580	3.7579	-0.8127	25.22	0.05	-0.750			
0.2966	18985.28	3.7550	3.7553	-0.8178	25.22	0.05	-0.750			
0.2991	19142.72	3.7520	3.7518	-0.8374	25.22	0.05	-0.750			
0.3017	19307.26	3.7490	3.7490	-0.8351	25.22	0.05	-0.750			
0.3041	19465.45	3.7460	3.7460	-0.8393	25.22	0.05	-0.750			
0.3067	19628.67	3.7430	3.7429	-0.8474	25.22	0.05	-0.750			
0.3092	19791.44	3.7400	3.7399	-0.8555	25.22	0.05	-0.750			
0.3118	19954.70	3.7370	3.7369	-0.8726	25.22	0.05	-0.750			
0.3144	20124.53	3.7340	3.7340	-0.8825	25.22	0.05	-0.750			
0.3171	20294.27	3.7310	3.7309	-0.8891	25.22	0.05	-0.750			
0.3199	20471.71	3.7280	3.7280	-0.9100	25.22	0.05	-0.750			
0.3226	20644.40	3.7250	3.7250	-0.9135	25.22	0.05	-0.750			
0.3253	20821.64	3.7220	3.7219	-0.9234	25.21	0.04	-0.750			
0.3281	20997.37	3.7190	3.7190	-0.9242	25.21	0.04	-0.750			
0.3308	21174.20	3.7160	3.7160	-0.9364	25.20	0.03	-0.750			
0.3337	21358.90	3.7130	3.7133	-0.9547	25.20	0.03	-0.750			
0.3366	21542.65	3.7100	3.7100	-0.9747	25.19	0.02	-0.750			
0.3396	21731.56	3.7070	3.7069	-0.9895	25.19	0.02	-0.750			
0.3426	21923.53	3.7040	3.7038	-1.0037	25.19	0.02	-0.750			
0.3456	22119.10	3.7010	3.7013	-1.0143	25.18	0.01	-0.750			
0.3487	22317.00	3.6980	3.6988	-1.0299	25.18	0.01	-0.750	0.390	0.543	
0.3518	22516.80	3.6950	3.6948	-1.0350	25.18	0.01	-0.750			
0.3549	22715.61	3.6920	3.6919	-1.0390	25.17	0.00	-0.750			
0.3580	22913.26	3.6890	3.6890	-1.0624	25.17	0.00	-0.750			
0.3612	23117.98	3.6860	3.6860	-1.0789	25.17	-0.00	-0.750			
0.3644	23324.44	3.6830	3.6828	-1.0937	25.17	-0.00	-0.750			
0.3677	23532.81	3.6800	3.6800	-1.1160	25.16	-0.01	-0.750			
0.3711	23752.53	3.6770	3.6773	-1.1538	25.16	-0.01	-0.750			
0.3746	23976.69	3.6740	3.6740	-1.1627	25.15	-0.02	-0.750			
0.3782	24204.36	3.6710	3.6709	-1.1778	25.14	-0.03	-0.750			
0.3817	24426.97	3.6680	3.6680	-1.2003	25.13	-0.04	-0.750			
0.3853	24661.37	3.6650	3.6649	-1.2159	25.13	-0.04	-0.750			
0.3890	24896.93	3.6620	3.6619	-1.2300	25.12	-0.05	-0.750			
0.3926	25127.75	3.6590	3.6589	-1.2586	25.12	-0.05	-0.750			
0.3965	25374.08	3.6560	3.6566	-1.2710	25.11	-0.06	-0.750			
0.4004	25625.89	3.6530	3.6528	-1.2918	25.11	-0.06	-0.750			
0.4043	25875.27	3.6500	3.6499	-1.3065	25.10	-0.07	-0.750			
0.4082	26122.44	3.6470	3.6474	-1.3268	25.10	-0.07	-0.750			
0.4123	26385.93	3.6440	3.6438	-1.3550	25.09	-0.08	-0.750			
0.4162	26637.87	3.6410	3.6409	-1.4045	25.09	-0.08	-0.750			
0.4205	26914.99	3.6380	3.6383	-1.4180	25.08	-0.09	-0.750			
0.4249	27190.71	3.6350	3.6348	-1.4758	25.07	-0.10	-0.750			
0.4293	27477.24	3.6320	3.6317	-1.5035	25.07	-0.10	-0.750			
0.4338	27761.71	3.6290	3.6297	-1.5763	25.06	-0.11	-0.750			
0.4387	28077.04	3.6260	3.6258	-1.6437	25.05	-0.12	-0.750			
0.4438	28404.12	3.6230	3.6225	-1.6822	25.04	-0.13	-0.750			
0.4490	28738.30	3.6200	3.6204	-1.7280	25.04	-0.13	-0.750			
0.4543	29074.28	3.6170	3.6173	-1.7379	25.03	-0.14	-0.750			
0.4595	29408.70	3.6140	3.6139	-1.7293	25.02	-0.15	-0.750			
0.4646	29735.75	3.6110	3.6112	-1.7222	25.02	-0.15	-0.750			
0.4697	30062.29	3.6080	3.6081	-1.7310	25.01	-0.16	-0.750			
0.4749	30392.75	3.6050	3.6050	-1.7754	25.01	-0.16	-0.750			
0.4803	30741.92	3.6020	3.6019	-1.7924	25.00	-0.17	-0.750			
0.4857	31083.65	3.5990	3.5988	-1.8358	25.00	-0.17	-0.750			
0.4914	31446.56	3.5960	3.5962	-1.8687	25.00	-0.17	-0.750			
0.4969	31802.80	3.5930	3.5931	-1.8921	25.00	-0.17	-0.750			
0.5027	32173.18	3.5900	3.5901	-1.9216	24.99	-0.18	-0.750			
0.5084	32538.63	3.5870	3.5874	-1.9627	24.98	-0.19	-0.750			
0.5145	32927.76	3.5840	3.5841	-2.0037	24.98	-0.19	-0.750			
0.5205	33311.11	3.5810	3.5808	-1.9932	24.98	-0.19	-0.750			
0.5266	33700.44	3.5780	3.5782	-2.0365	24.98	-0.19	-0.750			
0.5326	34089.51	3.5750	3.5750	-2.0303	24.98	-0.19	-0.750			
0.5387	34478.64	3.5720	3.5718	-2.0670	24.98	-0.19	-0.750			
0.5450	34877.47	3.5690	3.5689	-2.0518	24.98	-0.19	-0.750			
0.5512	35276.38	3.5660	3.5661	-2.0557	24.98	-0.19	-0.750			
0.5575	35678.62	3.5630	3.5626	-2.0785	24.98	-0.19	-0.750			
0.5636	36073.27	3.5600	3.5601	-2.0914	24.98	-0.19	-0.750			
0.5699	36472.80	3.5570	3.5568	-2.0541	24.98	-0.19	-0.750			
0.5762	36879.25	3.5540	3.5538	-2.0999	24.98	-0.19	-0.750			
0.5822	37263.36	3.5510	3.5512	-2.0343	24.98	-0.19	-0.750			
0.5885	37661.11	3.5480	3.5479	-2.0252	24.98	-0.19	-0.750			
0.5946	38051.29	3.5450	3.5447	-2.0019	24.99	-0.18	-0.750			
0.6004	38426.26	3.5420	3.5422	-1.9763	25.00	-0.17	-0.750			
0.6064	38812.13	3.5390	3.5389	-1.9359	25.01	-0.16	-0.750			
0.6121	39174.41	3.5360	3.5361	-1.8904	25.02	-0.15	-0.750			
0.6177	39532.14	3.5330	3.5332	-1.8548	25.02	-0.15	-0.750			
0.6233	39890.30	3.5300	3.5298	-1.8372	25.04	-0.13	-0.750			
0.6287	40237.34	3.5270	3.5269	-1.7962	25.05	-0.12	-0.750			
0.6341	40581.55	3.5240	3.5239	-1.7807	25.06	-0.11	-0.750			
0.6394	40919.79	3.5210	3.5212	-1.7636	25.07	-0.10	-0.750			
0.6446	41253.86	3.5180	3.5181	-1.7130	25.09	-0.08	-0.750			
0.6498	41585.75	3.5150	3.5148	-1.6734	25.10	-0.07	-0.750			
0.6547	41900.95	3.5120	3.5117	-1.6298	25.11	-0.06	-0.750			
0.6596	42214.71	3.5090	3.5088	-1.5885	25.12	-0.05	-0.750			
0.6642	42510.42	3.5060	3.5061	-1.5288	25.14	-0.03	-0.750			
0.6687	42795.08	3.5030	3.5031	-1.4851	25.16	-0.01	-0.750			
0.6731	43075.75	3.5000	3.4999	-1.4445	25.18	0.01	-0.750			
0.6775	43357.47	3.4970	3.4968	-1.4173	25.20	0.03	-0.750			
0.6816	43621.16	3.4940	3.4940	-1.3740	25.21	0.04	-0.750			
0.6856	43880.84	3.4910	3.4909	-1.3279	25.23	0.06	-0.750			
0.6896	44134.45	3.4880	3.4879	-1.2801	25.24	0.07	-0.750			
0.6933	44372.57	3.4850	3.4849	-1.2384	25.26	0.09	-0.750			
0.6970	44609.74	3.4820	3.4821	-1.2714	25.27	0.10	-0.750			
