Ah_balance (normalized)	Ah_balance (mAh)	Voltage - fit (V)	Voltage -  interpolate (V)	dQ/dV (1/V)	Temperature (°C)	Temperature - diff (°C)	Current (C)	R_DC 0ms (mOhm)	R_DC 50ms (mOhm)	R_DC 50 ms PEC (mOhm)
0.0003	19.97	4.1590	4.1586	-0.1028	25.37	0.00	-0.750			
0.0007	45.64	4.1560	4.1557	-0.1506	25.37	0.00	-0.750			
0.0012	78.16	4.1530	4.1530	-0.1947	25.37	0.00	-0.750			
0.0019	120.98	4.1500	4.1501	-0.2369	25.37	-0.00	-0.750			
0.0027	171.07	4.1470	4.1469	-0.2750	25.37	-0.00	-0.750			
0.0036	230.04	4.1440	4.1439	-0.3118	25.36	-0.01	-0.750			
0.0046	292.95	4.1410	4.1412	-0.3463	25.36	-0.01	-0.750			
0.0057	362.32	4.1380	4.1380	-0.3841	25.36	-0.01	-0.750			
0.0069	439.49	4.1350	4.1349	-0.4197	25.35	-0.02	-0.750			
0.0082	521.70	4.1320	4.1319	-0.4563	25.35	-0.02	-0.750			
0.0096	615.86	4.1290	4.1291	-0.4866	25.34	-0.03	-0.750			
0.0112	715.88	4.1260	4.1259	-0.5173	25.34	-0.03	-0.750			
0.0128	818.65	4.1230	4.1230	-0.5379	25.33	-0.04	-0.750			
0.0145	924.87	4.1200	4.1206	-0.5538	25.33	-0.04	-0.750			
0.0161	1031.77	4.1170	4.1168	-0.5687	25.33	-0.04	-0.750			
0.0178	1142.22	4.1140	4.1140	-0.5826	25.32	-0.05	-0.750			
0.0196	1252.63	4.1110	4.1111	-0.6055	25.32	-0.05	-0.750			
0.0215	1374.34	4.1080	4.1080	-0.6192	25.31	-0.06	-0.750			
0.0234	1495.85	4.1050	4.1049	-0.6321	25.31	-0.06	-0.750			
0.0253	1619.39	4.1020	4.1019	-0.6372	25.30	-0.07	-0.750			
0.0272	1743.80	4.0990	4.0991	-0.6458	25.30	-0.07	-0.750			
0.0292	1865.87	4.0960	4.0960	-0.6555	25.30	-0.07	-0.750			
0.0311	1989.75	4.0930	4.0930	-0.6649	25.30	-0.07	-0.750			
0.0331	2116.80	4.0900	4.0900	-0.6710	25.29	-0.08	-0.750			
0.0352	2253.05	4.0870	4.0870	-0.6868	25.29	-0.08	-0.750			
0.0373	2386.55	4.0840	4.0840	-0.6931	25.29	-0.08	-0.750			
0.0394	2521.66	4.0810	4.0812	-0.6985	25.29	-0.08	-0.750			
0.0415	2654.36	4.0780	4.0780	-0.6996	25.29	-0.08	-0.750			
0.0435	2785.00	4.0750	4.0750	-0.7116	25.29	-0.08	-0.750			
0.0457	2925.63	4.0720	4.0720	-0.7135	25.28	-0.09	-0.750			
0.0479	3065.61	4.0690	4.0688	-0.7184	25.28	-0.09	-0.750			
0.0501	3204.10	4.0660	4.0661	-0.7170	25.28	-0.09	-0.750			
0.0522	3342.61	4.0630	4.0627	-0.7148	25.28	-0.09	-0.750			
0.0543	3476.76	4.0600	4.0598	-0.7229	25.28	-0.09	-0.750			
0.0564	3611.90	4.0570	4.0569	-0.7259	25.28	-0.09	-0.750			
0.0586	3753.54	4.0540	4.0539	-0.7249	25.28	-0.09	-0.750			
0.0609	3894.93	4.0510	4.0511	-0.7275	25.28	-0.09	-0.750			
0.0631	4039.94	4.0480	4.0480	-0.7322	25.28	-0.09	-0.750			
0.0653	4179.57	4.0450	4.0449	-0.7324	25.28	-0.09	-0.750			
0.0675	4317.40	4.0420	4.0419	-0.7343	25.28	-0.09	-0.750			
0.0696	4456.47	4.0390	4.0389	-0.7388	25.28	-0.09	-0.750			
0.0719	4599.62	4.0360	4.0360	-0.7473	25.29	-0.08	-0.750			
0.0742	4747.03	4.0330	4.0330	-0.7506	25.29	-0.08	-0.750			
0.0765	4893.73	4.0300	4.0301	-0.7517	25.29	-0.08	-0.750			
0.0787	5036.77	4.0270	4.0270	-0.7482	25.29	-0.08	-0.750			
0.0809	5175.96	4.0240	4.0239	-0.7550	25.29	-0.08	-0.750			
0.0832	5321.77	4.0210	4.0210	-0.7577	25.28	-0.09	-0.750			
0.0854	5468.02	4.0180	4.0178	-0.7573	25.28	-0.09	-0.750			
0.0878	5616.89	4.0150	4.0149	-0.7581	25.28	-0.09	-0.750			
0.0900	5762.33	4.0120	4.0120	-0.7623	25.28	-0.09	-0.750			
0.0923	5908.42	4.0090	4.0089	-0.7648	25.28	-0.09	-0.750			
0.0946	6055.46	4.0060	4.0058	-0.7726	25.29	-0.08	-0.750			
0.0969	6203.99	4.0030	4.0029	-0.7617	25.29	-0.08	-0.750			
0.0993	6356.20	4.0000	3.9999	-0.7650	25.30	-0.07	-0.750			
0.1016	6502.34	3.9970	3.9976	-0.7627	25.30	-0.07	-0.750			
0.1038	6646.22	3.9940	3.9940	-0.7582	25.30	-0.07	-0.750			
0.1060	6784.92	3.9910	3.9908	-0.7588	25.30	-0.07	-0.750			
0.1083	6931.28	3.9880	3.9880	-0.7634	25.30	-0.07	-0.750			
0.1106	7081.17	3.9850	3.9849	-0.7729	25.30	-0.07	-0.750			
0.1130	7230.44	3.9820	3.9820	-0.7740	25.30	-0.07	-0.750			
0.1153	7381.19	3.9790	3.9789	-0.7783	25.30	-0.07	-0.750			
0.1176	7526.15	3.9760	3.9760	-0.7857	25.30	-0.07	-0.750			
0.1199	7675.95	3.9730	3.9730	-0.7828	25.30	-0.07	-0.750			
0.1223	7827.15	3.9700	3.9699	-0.7883	25.31	-0.06	-0.750			
0.1248	7984.26	3.9670	3.9668	-0.7904	25.31	-0.06	-0.750			
0.1272	8138.01	3.9640	3.9640	-0.7916	25.31	-0.06	-0.750			
0.1295	8286.57	3.9610	3.9611	-0.7937	25.31	-0.06	-0.750			
0.1318	8436.61	3.9580	3.9581	-0.7936	25.31	-0.06	-0.750			
0.1342	8587.53	3.9550	3.9548	-0.7865	25.32	-0.05	-0.750			
0.1366	8743.85	3.9520	3.9519	-0.7962	25.32	-0.05	-0.750			
0.1390	8896.70	3.9490	3.9493	-0.7948	25.32	-0.05	-0.750			
0.1414	9049.61	3.9460	3.9461	-0.7946	25.32	-0.05	-0.750			
0.1438	9201.14	3.9430	3.9430	-0.7961	25.32	-0.05	-0.750			
0.1462	9354.07	3.9400	3.9398	-0.7910	25.33	-0.04	-0.750			
0.1485	9505.63	3.9370	3.9370	-0.7908	25.33	-0.04	-0.750			
0.1509	9659.04	3.9340	3.9341	-0.7917	25.33	-0.04	-0.750			
0.1533	9812.31	3.9310	3.9310	-0.7916	25.33	-0.04	-0.750			
0.1556	9960.09	3.9280	3.9280	-0.8019	25.34	-0.03	-0.750			
0.1580	10110.96	3.9250	3.9250	-0.8047	25.34	-0.03	-0.750			
0.1604	10267.99	3.9220	3.9219	-0.8013	25.34	-0.03	-0.750			
0.1629	10427.56	3.9190	3.9189	-0.8084	25.35	-0.02	-0.750			
0.1653	10581.17	3.9160	3.9159	-0.8043	25.35	-0.02	-0.750			
0.1678	10736.32	3.9130	3.9128	-0.8033	25.35	-0.02	-0.750			
0.1702	10889.97	3.9100	3.9100	-0.8001	25.35	-0.02	-0.750			
0.1725	11040.94	3.9070	3.9068	-0.7853	25.36	-0.01	-0.750			
0.1749	11194.76	3.9040	3.9041	-0.7933	25.36	-0.01	-0.750			
0.1773	11348.92	3.9010	3.9009	-0.7907	25.36	-0.01	-0.750			
0.1797	11497.89	3.8980	3.8981	-0.7899	25.36	-0.01	-0.750			
0.1820	11647.58	3.8950	3.8949	-0.7881	25.36	-0.01	-0.750			
0.1843	11796.30	3.8920	3.8921	-0.7841	25.37	-0.00	-0.750			
0.1868	11952.28	3.8890	3.8889	-0.7953	25.37	-0.00	-0.750			
0.1891	12105.17	3.8860	3.8861	-0.7934	25.37	-0.00	-0.750			
0.1915	12256.32	3.8830	3.8831	-0.7878	25.37	0.00	-0.750			
0.1939	12407.42	3.8800	3.8799	-0.7932	25.38	0.01	-0.750			
0.1963	12561.37	3.8770	3.8769	-0.7790	25.38	0.01	-0.750			
0.1986	12710.61	3.8740	3.8739	-0.7714	25.39	0.02	-0.750			
0.2009	12857.33	3.8710	3.8708	-0.7658	25.39	0.02	-0.750			
0.2032	13004.66	3.8680	3.8679	-0.7589	25.39	0.02	-0.750			
0.2054	13148.45	3.8650	3.8648	-0.7502	25.39	0.02	-0.750			
0.2076	13289.56	3.8620	3.8620	-0.7610	25.39	0.02	-0.750			
0.2100	13438.89	3.8590	3.8589	-0.7710	25.40	0.03	-0.750			
0.2124	13590.42	3.8560	3.8557	-0.7684	25.40	0.03	-0.750			
0.2147	13737.67	3.8530	3.8534	-0.7668	25.40	0.03	-0.750			
0.2169	13884.61	3.8500	3.8501	-0.7588	25.40	0.03	-0.750			
0.2192	14030.14	3.8470	3.8467	-0.7570	25.41	0.04	-0.750			
0.2214	14168.74	3.8440	3.8441	-0.7369	25.41	0.04	-0.750			
0.2237	14317.17	3.8410	3.8410	-0.7461	25.42	0.05	-0.750			
0.2259	14460.30	3.8380	3.8379	-0.7467	25.42	0.05	-0.750			
0.2282	14603.04	3.8350	3.8349	-0.7443	25.42	0.05	-0.750			
0.2303	14736.90	3.8320	3.8322	-0.7536	25.42	0.05	-0.750			
0.2326	14888.92	3.8290	3.8287	-0.7473	25.42	0.05	-0.750			
0.2349	15031.97	3.8260	3.8259	-0.7436	25.43	0.06	-0.750			
0.2372	15177.84	3.8230	3.8228	-0.7473	25.43	0.06	-0.750			
0.2394	15320.35	3.8200	3.8207	-0.7438	25.43	0.06	-0.750			
0.2416	15461.55	3.8170	3.8168	-0.7405	25.43	0.06	-0.750			
0.2438	15603.17	3.8140	3.8139	-0.7459	25.43	0.06	-0.750			
0.2460	15745.39	3.8110	3.8110	-0.7600	25.44	0.07	-0.750			
0.2483	15892.38	3.8080	3.8079	-0.7639	25.44	0.07	-0.750			
0.2506	16038.77	3.8050	3.8050	-0.7626	25.44	0.07	-0.750			
0.2529	16185.78	3.8020	3.8018	-0.7633	25.44	0.07	-0.750			
0.2552	16330.14	3.7990	3.7991	-0.7685	25.44	0.07	-0.750			
0.2575	16479.19	3.7960	3.7958	-0.7665	25.44	0.07	-0.750			
0.2598	16625.45	3.7930	3.7931	-0.7596	25.45	0.08	-0.750			
0.2621	16773.30	3.7900	3.7900	-0.7705	25.45	0.08	-0.750			
0.2644	16921.20	3.7870	3.7874	-0.7741	25.45	0.08	-0.750			
0.2667	17070.02	3.7840	3.7839	-0.7811	25.45	0.08	-0.750			
0.2691	17219.76	3.7810	3.7809	-0.7893	25.45	0.08	-0.750			
0.2714	17372.55	3.7780	3.7780	-0.7910	25.45	0.08	-0.750			
0.2739	17528.19	3.7750	3.7749	-0.8000	25.45	0.08	-0.750			
0.2763	17681.35	3.7720	3.7718	-0.7969	25.45	0.08	-0.750			
0.2786	17832.40	3.7690	3.7689	-0.7935	25.45	0.08	-0.750			
0.2810	17985.39	3.7660	3.7660	-0.8047	25.45	0.08	-0.750			
0.2834	18138.09	3.7630	3.7630	-0.8039	25.45	0.08	-0.750			
0.2859	18295.75	3.7600	3.7599	-0.8194	25.45	0.08	-0.750			
0.2883	18452.33	3.7570	3.7570	-0.8201	25.45	0.08	-0.750			
0.2908	18609.71	3.7540	3.7539	-0.8295	25.45	0.08	-0.750			
0.2933	18770.00	3.7510	3.7509	-0.8390	25.45	0.08	-0.750			
0.2958	18929.88	3.7480	3.7480	-0.8450	25.45	0.08	-0.750			
0.2983	19093.26	3.7450	3.7451	-0.8519	25.45	0.08	-0.750			
0.3010	19262.92	3.7420	3.7420	-0.8604	25.45	0.08	-0.750			
0.3035	19424.00	3.7390	3.7390	-0.8754	25.45	0.08	-0.750			
0.3061	19593.47	3.7360	3.7360	-0.8799	25.44	0.07	-0.750			
0.3088	19763.79	3.7330	3.7329	-0.8817	25.44	0.07	-0.750			
0.3115	19933.57	3.7300	3.7297	-0.8855	25.43	0.06	-0.750			
0.3141	20103.91	3.7270	3.7271	-0.9001	25.43	0.06	-0.750			
0.3168	20277.01	3.7240	3.7239	-0.9184	25.43	0.06	-0.750			
0.3196	20457.40	3.7210	3.7207	-0.9228	25.43	0.06	-0.750			
0.3224	20632.08	3.7180	3.7180	-0.9253	25.43	0.06	-0.750			
0.3252	20812.34	3.7150	3.7151	-0.9361	25.43	0.06	-0.750			
0.3280	20995.08	3.7120	3.7119	-0.9497	25.43	0.06	-0.750			
0.3308	21172.82	3.7090	3.7089	-0.9815	25.42	0.05	-0.750			
0.3338	21362.78	3.7060	3.7057	-0.9832	25.41	0.04	-0.750			
0.3368	21557.60	3.7030	3.7028	-0.9967	25.41	0.04	-0.750			
0.3399	21752.00	3.7000	3.7000	-1.0156	25.40	0.03	-0.750			
0.3430	21949.89	3.6970	3.6970	-1.0174	25.40	0.03	-0.750	0.380	0.554	
0.3460	22146.43	3.6940	3.6937	-1.0129	25.40	0.03	-0.750			
0.3490	22333.47	3.6910	3.6906	-1.0092	25.40	0.03	-0.750			
0.3520	22526.60	3.6880	3.6887	-1.0386	25.40	0.03	-0.750			
0.3551	22728.95	3.6850	3.6849	-1.0589	25.39	0.02	-0.750			
0.3584	22936.17	3.6820	3.6818	-1.0717	25.39	0.02	-0.750			
0.3615	23137.45	3.6790	3.6789	-1.0805	25.38	0.01	-0.750			
0.3649	23352.32	3.6760	3.6763	-1.1247	25.38	0.01	-0.750			
0.3683	23574.18	3.6730	3.6727	-1.1394	25.37	0.00	-0.750			
0.3717	23790.95	3.6700	3.6698	-1.1548	25.37	-0.00	-0.750			
0.3752	24012.20	3.6670	3.6671	-1.1571	25.36	-0.01	-0.750			
0.3788	24244.05	3.6640	3.6638	-1.1931	25.36	-0.01	-0.750			
0.3824	24475.88	3.6610	3.6607	-1.2015	25.35	-0.02	-0.750			
0.3860	24703.88	3.6580	3.6578	-1.1997	25.35	-0.02	-0.750			
0.3896	24932.99	3.6550	3.6550	-1.2225	25.34	-0.03	-0.750			
0.3934	25177.56	3.6520	3.6518	-1.2465	25.33	-0.04	-0.750			
0.3971	25413.70	3.6490	3.6487	-1.2550	25.33	-0.04	-0.750			
0.4008	25652.83	3.6460	3.6463	-1.2766	25.32	-0.05	-0.750			
0.4047	25898.75	3.6430	3.6428	-1.3023	25.32	-0.05	-0.750			
0.4086	26148.76	3.6400	3.6400	-1.3630	25.31	-0.06	-0.750			
0.4128	26420.77	3.6370	3.6370	-1.4074	25.30	-0.07	-0.750			
0.4173	26707.78	3.6340	3.6336	-1.4596	25.30	-0.07	-0.750			
0.4218	26993.52	3.6310	3.6304	-1.4793	25.29	-0.08	-0.750			
0.4264	27287.74	3.6280	3.6280	-1.4742	25.29	-0.08	-0.750			
0.4308	27571.37	3.6250	3.6255	-1.4673	25.29	-0.08	-0.750			
0.4352	27849.90	3.6220	3.6212	-1.4802	25.28	-0.09	-0.750			
0.4394	28120.23	3.6190	3.6191	-1.4615	25.28	-0.09	-0.750			
0.4439	28407.04	3.6160	3.6167	-1.5085	25.28	-0.09	-0.750			
0.4484	28697.21	3.6130	3.6124	-1.5255	25.28	-0.09	-0.750			
0.4530	28994.98	3.6100	3.6095	-1.5833	25.28	-0.09	-0.750			
0.4580	29312.90	3.6070	3.6063	-1.6402	25.27	-0.10	-0.750			
0.4630	29633.20	3.6040	3.6041	-1.6402	25.27	-0.10	-0.750			
0.4681	29955.78	3.6010	3.6015	-1.7138	25.26	-0.11	-0.750			
0.4732	30285.73	3.5980	3.5990	-1.7579	25.26	-0.11	-0.750			
0.4786	30629.28	3.5950	3.5944	-1.7688	25.25	-0.12	-0.750			
0.4840	30978.46	3.5920	3.5927	-1.8518	25.25	-0.12	-0.750			
0.4898	31344.43	3.5890	3.5887	-1.8506	25.25	-0.12	-0.750			
0.4955	31711.91	3.5860	3.5864	-1.8842	25.25	-0.12	-0.750			
0.5010	32064.59	3.5830	3.5823	-1.8789	25.25	-0.12	-0.750			
0.5066	32425.48	3.5800	3.5800	-1.9161	25.24	-0.13	-0.750			
0.5124	32796.55	3.5770	3.5763	-1.9000	25.23	-0.14	-0.750			
0.5181	33160.63	3.5740	3.5741	-1.9720	25.23	-0.14	-0.750			
0.5243	33553.61	3.5710	3.5715	-2.0144	25.22	-0.15	-0.750			
0.5303	33937.58	3.5680	3.5676	-2.0679	25.22	-0.15	-0.750			
0.5364	34328.05	3.5650	3.5649	-2.0520	25.23	-0.14	-0.750			
0.5426	34728.46	3.5620	3.5617	-1.9848	25.23	-0.14	-0.750			
0.5487	35113.80	3.5590	3.5585	-2.0056	25.23	-0.14	-0.750			
0.5544	35479.18	3.5560	3.5554	-1.9641	25.23	-0.14	-0.750			
0.5604	35867.50	3.5530	3.5532	-1.9731	25.24	-0.13	-0.750			
0.5665	36258.05	3.5500	3.5505	-2.0052	25.25	-0.12	-0.750			
0.5726	36646.47	3.5470	3.5472	-2.0152	25.25	-0.12	-0.750			
0.5784	37015.09	3.5440	3.5436	-1.9221	25.25	-0.12	-0.750			
0.5840	37373.23	3.5410	3.5407	-1.8993	25.26	-0.11	-0.750			
0.5896	37735.64	3.5380	3.5381	-1.9108	25.27	-0.10	-0.750			
0.5952	38090.58	3.5350	3.5355	-1.9084	25.28	-0.09	-0.750			
0.6011	38473.39	3.5320	3.5323	-1.8990	25.29	-0.08	-0.750			
0.6070	38846.71	3.5290	3.5295	-1.8744	25.30	-0.07	-0.750			
0.6123	39189.11	3.5260	3.5263	-1.8037	25.32	-0.05	-0.750			
0.6177	39532.05	3.5230	3.5232	-1.7630	25.33	-0.04	-0.750			
0.6230	39869.21	3.5200	3.5204	-1.7085	25.36	-0.01	-0.750			
0.6280	40192.21	3.5170	3.5168	-1.6684	25.37	0.00	-0.750			
0.6328	40501.44	3.5140	3.5138	-1.6624	25.39	0.02	-0.750			
0.6378	40818.59	3.5110	3.5107	-1.6443	25.41	0.04	-0.750			
0.6427	41134.87	3.5080	3.5077	-1.5982	25.42	0.05	-0.750			
0.6475	41440.46	3.5050	3.5050	-1.5632	25.44	0.07	-0.750			
0.6523	41747.66	3.5020	3.5023	-1.4995	25.45	0.08	-0.750			
0.6569	42039.14	3.4990	3.4992	-1.4457	25.47	0.10	-0.750			
0.6609	42297.73	3.4960	3.4961	-1.3647	25.49	0.12	-0.750			
0.6648	42549.44	3.4930	3.4933	-1.3108	25.51	0.14	-0.750			
0.6688	42804.79	3.4900	3.4898	-1.2809	25.53	0.16	-0.750			
0.6726	43046.23	3.4870	3.4870	-1.2534	25.54	0.17	-0.750			
0.6762	43278.09	3.4840	3.4840	-1.2251	25.56	0.19	-0.750			
0.6799	43514.55	3.4810	3.4809	-1.1837	25.57	0.20	-0.750			
0.6834	43736.95	3.4780	3.4780	-1.1287	25.59	0.22	-0.750			
