Ah_balance (normalized)	Ah_balance (mAh)	Voltage - fit (V)	Voltage -  interpolate (V)	dQ/dV (1/V)	Temperature (°C)	Temperature - diff (°C)	Current (C)	R_DC 0ms (mOhm)	R_DC 50ms (mOhm)	R_DC 50 ms PEC (mOhm)
0.0004	28.37	4.1630	4.1627	-0.1367	25.15	0.01	-0.750			
0.0009	59.07	4.1600	4.1600	-0.1845	25.15	0.01	-0.750			
0.0016	100.52	4.1570	4.1569	-0.2291	25.15	0.01	-0.750			
0.0023	148.77	4.1540	4.1540	-0.2710	25.15	0.01	-0.750			
0.0032	204.74	4.1510	4.1511	-0.3130	25.15	0.01	-0.750			
0.0042	269.43	4.1480	4.1479	-0.3547	25.15	0.01	-0.750			
0.0053	341.88	4.1450	4.1450	-0.3938	25.14	0.00	-0.750			
0.0066	421.57	4.1420	4.1419	-0.4309	25.14	0.00	-0.750			
0.0079	508.58	4.1390	4.1391	-0.4669	25.14	-0.00	-0.750			
0.0094	602.82	4.1360	4.1361	-0.5008	25.14	-0.00	-0.750			
0.0110	702.86	4.1330	4.1329	-0.5303	25.13	-0.01	-0.750			
0.0126	808.14	4.1300	4.1300	-0.5552	25.13	-0.01	-0.750			
0.0144	918.51	4.1270	4.1270	-0.5817	25.13	-0.01	-0.750			
0.0162	1033.88	4.1240	4.1239	-0.5980	25.13	-0.01	-0.750			
0.0180	1151.86	4.1210	4.1210	-0.6139	25.12	-0.02	-0.750			
0.0199	1271.05	4.1180	4.1182	-0.6237	25.12	-0.02	-0.750			
0.0217	1391.36	4.1150	4.1149	-0.6387	25.12	-0.02	-0.750			
0.0237	1514.09	4.1120	4.1119	-0.6534	25.11	-0.03	-0.750			
0.0256	1640.27	4.1090	4.1090	-0.6685	25.11	-0.03	-0.750			
0.0277	1771.31	4.1060	4.1060	-0.6801	25.11	-0.03	-0.750			
0.0298	1908.57	4.1030	4.1029	-0.6921	25.10	-0.04	-0.750			
0.0319	2041.79	4.1000	4.0999	-0.6947	25.10	-0.04	-0.750			
0.0340	2175.56	4.0970	4.0969	-0.6999	25.10	-0.04	-0.750			
0.0361	2308.58	4.0940	4.0939	-0.7006	25.10	-0.04	-0.750			
0.0381	2441.09	4.0910	4.0909	-0.7065	25.10	-0.04	-0.750			
0.0403	2576.42	4.0880	4.0880	-0.7125	25.09	-0.05	-0.750			
0.0425	2719.08	4.0850	4.0850	-0.7264	25.09	-0.05	-0.750			
0.0447	2859.16	4.0820	4.0822	-0.7298	25.09	-0.05	-0.750			
0.0469	2999.71	4.0790	4.0789	-0.7303	25.09	-0.05	-0.750			
0.0491	3140.15	4.0760	4.0760	-0.7308	25.09	-0.05	-0.750			
0.0512	3278.69	4.0730	4.0731	-0.7407	25.09	-0.05	-0.750			
0.0535	3421.94	4.0700	4.0698	-0.7440	25.09	-0.05	-0.750			
0.0557	3567.95	4.0670	4.0670	-0.7501	25.09	-0.05	-0.750			
0.0580	3713.57	4.0640	4.0644	-0.7484	25.09	-0.05	-0.750			
0.0603	3858.42	4.0610	4.0610	-0.7510	25.09	-0.05	-0.750			
0.0625	4002.08	4.0580	4.0580	-0.7602	25.09	-0.05	-0.750			
0.0648	4145.33	4.0550	4.0550	-0.7565	25.09	-0.05	-0.750			
0.0671	4293.53	4.0520	4.0518	-0.7589	25.09	-0.05	-0.750			
0.0694	4438.81	4.0490	4.0489	-0.7617	25.09	-0.05	-0.750			
0.0717	4586.16	4.0460	4.0459	-0.7625	25.09	-0.05	-0.750			
0.0739	4732.09	4.0430	4.0429	-0.7617	25.09	-0.05	-0.750			
0.0762	4875.07	4.0400	4.0400	-0.7648	25.09	-0.05	-0.750			
0.0785	5021.32	4.0370	4.0370	-0.7632	25.09	-0.05	-0.750			
0.0808	5174.32	4.0340	4.0339	-0.7711	25.09	-0.05	-0.750			
0.0832	5322.20	4.0310	4.0312	-0.7731	25.09	-0.05	-0.750			
0.0855	5469.88	4.0280	4.0280	-0.7715	25.09	-0.05	-0.750			
0.0878	5619.77	4.0250	4.0249	-0.7732	25.09	-0.05	-0.750			
0.0901	5765.68	4.0220	4.0221	-0.7712	25.10	-0.04	-0.750			
0.0924	5914.24	4.0190	4.0190	-0.7748	25.10	-0.04	-0.750			
0.0947	6063.09	4.0160	4.0159	-0.7816	25.10	-0.04	-0.750			
0.0971	6214.81	4.0130	4.0129	-0.7838	25.10	-0.04	-0.750			
0.0994	6362.64	4.0100	4.0100	-0.7900	25.10	-0.04	-0.750			
0.1018	6516.29	4.0070	4.0070	-0.7912	25.10	-0.04	-0.750			
0.1042	6669.39	4.0040	4.0040	-0.7932	25.10	-0.04	-0.750			
0.1066	6823.43	4.0010	4.0008	-0.7932	25.10	-0.04	-0.750			
0.1090	6975.78	3.9980	3.9980	-0.7935	25.10	-0.04	-0.750			
0.1114	7126.78	3.9950	3.9950	-0.7921	25.10	-0.04	-0.750			
0.1137	7279.77	3.9920	3.9920	-0.7923	25.10	-0.04	-0.750			
0.1161	7429.46	3.9890	3.9890	-0.7904	25.11	-0.03	-0.750			
0.1185	7584.19	3.9860	3.9860	-0.7944	25.11	-0.03	-0.750			
0.1209	7735.68	3.9830	3.9830	-0.7978	25.11	-0.03	-0.750			
0.1233	7889.79	3.9800	3.9800	-0.7996	25.11	-0.03	-0.750			
0.1257	8044.34	3.9770	3.9770	-0.8083	25.11	-0.03	-0.750			
0.1282	8201.69	3.9740	3.9740	-0.8065	25.11	-0.03	-0.750			
0.1306	8357.44	3.9710	3.9709	-0.8107	25.11	-0.03	-0.750			
0.1330	8512.76	3.9680	3.9684	-0.8084	25.11	-0.03	-0.750			
0.1354	8667.05	3.9650	3.9649	-0.8142	25.11	-0.03	-0.750			
0.1379	8822.55	3.9620	3.9620	-0.8201	25.11	-0.03	-0.750			
0.1403	8981.17	3.9590	3.9589	-0.8180	25.12	-0.02	-0.750			
0.1429	9143.21	3.9560	3.9559	-0.8282	25.12	-0.02	-0.750			
0.1453	9300.52	3.9530	3.9535	-0.8275	25.12	-0.02	-0.750			
0.1478	9459.08	3.9500	3.9499	-0.8235	25.12	-0.02	-0.750			
0.1503	9616.61	3.9470	3.9469	-0.8271	25.13	-0.01	-0.750			
0.1527	9771.04	3.9440	3.9441	-0.8242	25.13	-0.01	-0.750			
0.1552	9933.59	3.9410	3.9410	-0.8375	25.14	-0.00	-0.750			
0.1577	10094.00	3.9380	3.9380	-0.8359	25.14	-0.00	-0.750			
0.1602	10254.59	3.9350	3.9350	-0.8358	25.14	0.00	-0.750			
0.1627	10414.76	3.9320	3.9320	-0.8418	25.14	0.00	-0.750			
0.1653	10579.49	3.9290	3.9290	-0.8406	25.14	0.00	-0.750			
0.1678	10741.19	3.9260	3.9259	-0.8311	25.14	0.00	-0.750			
0.1703	10899.97	3.9230	3.9234	-0.8349	25.14	0.00	-0.750			
0.1728	11059.47	3.9200	3.9199	-0.8344	25.14	0.00	-0.750			
0.1753	11217.95	3.9170	3.9169	-0.8471	25.14	0.00	-0.750			
0.1779	11382.76	3.9140	3.9139	-0.8452	25.15	0.01	-0.750			
0.1804	11546.93	3.9110	3.9109	-0.8536	25.15	0.01	-0.750			
0.1830	11711.49	3.9080	3.9085	-0.8555	25.15	0.01	-0.750			
0.1856	11878.02	3.9050	3.9049	-0.8519	25.15	0.01	-0.750			
0.1881	12037.94	3.9020	3.9019	-0.8470	25.15	0.01	-0.750			
0.1906	12197.41	3.8990	3.8989	-0.8464	25.15	0.01	-0.750			
0.1931	12361.25	3.8960	3.8961	-0.8578	25.15	0.01	-0.750			
0.1957	12527.68	3.8930	3.8931	-0.8577	25.15	0.01	-0.750			
0.1983	12691.45	3.8900	3.8900	-0.8623	25.15	0.01	-0.750			
0.2009	12859.13	3.8870	3.8871	-0.8615	25.16	0.02	-0.750			
0.2035	13025.44	3.8840	3.8838	-0.8614	25.16	0.02	-0.750			
0.2061	13189.99	3.8810	3.8810	-0.8623	25.17	0.03	-0.750			
0.2087	13356.02	3.8780	3.8781	-0.8532	25.17	0.03	-0.750			
0.2112	13518.15	3.8750	3.8749	-0.8613	25.17	0.03	-0.750			
0.2138	13686.02	3.8720	3.8719	-0.8612	25.17	0.03	-0.750			
0.2164	13850.50	3.8690	3.8690	-0.8528	25.17	0.03	-0.750			
0.2190	14015.09	3.8660	3.8658	-0.8552	25.17	0.03	-0.750			
0.2215	14177.64	3.8630	3.8629	-0.8582	25.17	0.03	-0.750			
0.2241	14341.66	3.8600	3.8599	-0.8586	25.17	0.03	-0.750			
0.2266	14505.34	3.8570	3.8569	-0.8618	25.17	0.03	-0.750			
0.2292	14671.44	3.8540	3.8540	-0.8727	25.17	0.03	-0.750			
0.2319	14841.46	3.8510	3.8511	-0.8717	25.17	0.03	-0.750			
0.2345	15009.05	3.8480	3.8479	-0.8678	25.17	0.03	-0.750			
0.2371	15174.55	3.8450	3.8451	-0.8652	25.17	0.03	-0.750			
0.2397	15340.51	3.8420	3.8420	-0.8610	25.18	0.04	-0.750			
0.2423	15506.54	3.8390	3.8389	-0.8581	25.18	0.04	-0.750			
0.2448	15670.27	3.8360	3.8359	-0.8548	25.18	0.04	-0.750			
0.2474	15833.14	3.8330	3.8330	-0.8545	25.18	0.04	-0.750			
0.2500	15997.41	3.8300	3.8299	-0.8640	25.19	0.05	-0.750			
0.2526	16165.13	3.8270	3.8269	-0.8567	25.19	0.05	-0.750			
0.2552	16331.79	3.8240	3.8238	-0.8565	25.20	0.06	-0.750			
0.2577	16495.05	3.8210	3.8215	-0.8479	25.20	0.06	-0.750			
0.2603	16658.53	3.8180	3.8179	-0.8382	25.20	0.06	-0.750			
0.2628	16816.30	3.8150	3.8149	-0.8332	25.20	0.06	-0.750			
0.2652	16973.95	3.8120	3.8119	-0.8294	25.20	0.06	-0.750			
0.2677	17132.99	3.8090	3.8090	-0.8290	25.20	0.06	-0.750			
0.2702	17291.99	3.8060	3.8062	-0.8281	25.20	0.06	-0.750			
0.2727	17451.87	3.8030	3.8030	-0.8248	25.20	0.06	-0.750			
0.2751	17609.33	3.8000	3.8001	-0.8300	25.21	0.07	-0.750			
0.2777	17770.14	3.7970	3.7969	-0.8227	25.21	0.07	-0.750			
0.2801	17929.04	3.7940	3.7940	-0.8158	25.22	0.08	-0.750			
0.2826	18084.71	3.7910	3.7914	-0.8073	25.22	0.08	-0.750			
0.2850	18239.00	3.7880	3.7879	-0.8018	25.22	0.08	-0.750			
0.2873	18389.82	3.7850	3.7850	-0.7960	25.22	0.08	-0.750			
0.2897	18540.46	3.7820	3.7819	-0.7928	25.22	0.08	-0.750			
0.2921	18693.82	3.7790	3.7789	-0.7875	25.22	0.08	-0.750			
0.2945	18845.06	3.7760	3.7759	-0.7880	25.22	0.08	-0.750			
0.2968	18994.85	3.7730	3.7730	-0.7909	25.22	0.08	-0.750			
0.2991	19145.02	3.7700	3.7700	-0.7915	25.23	0.09	-0.750			
0.3015	19297.57	3.7670	3.7668	-0.7921	25.23	0.09	-0.750			
0.3039	19447.91	3.7640	3.7640	-0.7949	25.23	0.09	-0.750			
0.3063	19603.02	3.7610	3.7611	-0.8029	25.24	0.10	-0.750			
0.3087	19759.52	3.7580	3.7581	-0.8065	25.24	0.10	-0.750			
0.3111	19911.28	3.7550	3.7549	-0.8082	25.24	0.10	-0.750			
0.3136	20067.92	3.7520	3.7520	-0.8087	25.24	0.10	-0.750			
0.3160	20222.78	3.7490	3.7490	-0.8131	25.23	0.09	-0.750			
0.3184	20379.47	3.7460	3.7457	-0.8224	25.23	0.09	-0.750			
0.3209	20536.12	3.7430	3.7432	-0.8317	25.23	0.09	-0.750			
0.3234	20695.52	3.7400	3.7400	-0.8531	25.23	0.09	-0.750			
0.3260	20863.42	3.7370	3.7370	-0.8608	25.23	0.09	-0.750			
0.3286	21028.07	3.7340	3.7339	-0.8648	25.22	0.08	-0.750			
0.3313	21200.02	3.7310	3.7308	-0.8800	25.22	0.08	-0.750			
0.3339	21369.46	3.7280	3.7277	-0.8823	25.22	0.08	-0.750			
0.3365	21537.45	3.7250	3.7250	-0.8947	25.22	0.08	-0.750			
0.3392	21706.50	3.7220	3.7220	-0.9019	25.22	0.08	-0.750			
0.3419	21878.92	3.7190	3.7190	-0.9161	25.22	0.08	-0.750			
0.3447	22062.67	3.7160	3.7160	-0.9483	25.22	0.08	-0.750			
0.3476	22246.12	3.7130	3.7130	-0.9718	25.22	0.08	-0.750			
0.3506	22437.36	3.7100	3.7099	-0.9885	25.21	0.07	-0.750			
0.3536	22631.55	3.7070	3.7069	-1.0120	25.21	0.07	-0.750			
0.3567	22827.44	3.7040	3.7039	-1.0185	25.20	0.06	-0.750			
0.3598	23026.32	3.7010	3.7007	-1.0418	25.20	0.06	-0.750			
0.3629	23227.22	3.6980	3.6979	-1.0490	25.19	0.05	-0.750	0.357	0.492	
0.3661	23428.74	3.6950	3.6947	-1.0542	25.19	0.05	-0.750			
0.3692	23628.26	3.6920	3.6923	-1.0634	25.18	0.04	-0.750			
0.3724	23834.07	3.6890	3.6889	-1.0851	25.18	0.04	-0.750			
0.3758	24050.42	3.6860	3.6859	-1.1203	25.18	0.04	-0.750			
0.3792	24265.74	3.6830	3.6829	-1.1388	25.17	0.03	-0.750			
0.3825	24480.27	3.6800	3.6803	-1.1701	25.17	0.03	-0.750			
0.3862	24717.22	3.6770	3.6769	-1.2006	25.16	0.02	-0.750			
0.3899	24950.68	3.6740	3.6739	-1.2218	25.15	0.01	-0.750			
0.3935	25184.67	3.6710	3.6709	-1.2456	25.14	-0.00	-0.750			
0.3973	25427.33	3.6680	3.6680	-1.2668	25.13	-0.01	-0.750			
0.4011	25671.86	3.6650	3.6649	-1.2893	25.12	-0.02	-0.750			
0.4050	25919.29	3.6620	3.6620	-1.3131	25.11	-0.03	-0.750			
0.4090	26174.84	3.6590	3.6589	-1.3345	25.10	-0.04	-0.750			
0.4130	26432.71	3.6560	3.6560	-1.3585	25.09	-0.05	-0.750			
0.4171	26692.81	3.6530	3.6529	-1.3802	25.09	-0.05	-0.750			
0.4213	26963.04	3.6500	3.6500	-1.4088	25.08	-0.06	-0.750			
0.4256	27237.94	3.6470	3.6469	-1.4469	25.07	-0.07	-0.750			
0.4300	27517.44	3.6440	3.6440	-1.4713	25.06	-0.08	-0.750			
0.4345	27806.39	3.6410	3.6410	-1.4891	25.05	-0.09	-0.750			
0.4390	28098.50	3.6380	3.6379	-1.5251	25.04	-0.10	-0.750			
0.4436	28391.23	3.6350	3.6348	-1.5414	25.03	-0.11	-0.750			
0.4483	28688.64	3.6320	3.6318	-1.5566	25.02	-0.12	-0.750			
0.4531	28995.59	3.6290	3.6294	-1.6121	25.01	-0.13	-0.750			
0.4578	29301.87	3.6260	3.6262	-1.6409	25.00	-0.14	-0.750			
0.4628	29618.07	3.6230	3.6233	-1.6665	24.99	-0.15	-0.750			
0.4679	29948.67	3.6200	3.6202	-1.7136	24.98	-0.16	-0.750			
0.4732	30285.04	3.6170	3.6167	-1.7422	24.98	-0.16	-0.750			
0.4785	30623.04	3.6140	3.6136	-1.7577	24.97	-0.17	-0.750			
0.4838	30963.20	3.6110	3.6109	-1.7855	24.97	-0.17	-0.750			
0.4891	31300.48	3.6080	3.6081	-1.8297	24.96	-0.18	-0.750			
0.4945	31650.92	3.6050	3.6051	-1.8852	24.96	-0.18	-0.750			
0.5002	32013.34	3.6020	3.6020	-1.9519	24.95	-0.19	-0.750			
0.5062	32399.83	3.5990	3.5992	-1.9623	24.94	-0.20	-0.750			
0.5123	32786.47	3.5960	3.5959	-2.0008	24.94	-0.20	-0.750			
0.5184	33177.45	3.5930	3.5925	-2.0101	24.94	-0.20	-0.750			
0.5244	33562.06	3.5900	3.5899	-2.0571	24.93	-0.21	-0.750			
0.5306	33959.43	3.5870	3.5870	-2.0766	24.92	-0.22	-0.750			
0.5369	34364.73	3.5840	3.5839	-2.1160	24.92	-0.22	-0.750			
0.5435	34781.90	3.5810	3.5808	-2.1454	24.93	-0.21	-0.750			
0.5499	35196.31	3.5780	3.5780	-2.1837	24.92	-0.22	-0.750			
0.5567	35626.80	3.5750	3.5748	-2.1805	24.90	-0.24	-0.750			
0.5633	36049.82	3.5720	3.5720	-2.2441	24.90	-0.24	-0.750			
0.5698	36468.87	3.5690	3.5687	-2.1795	24.90	-0.24	-0.750			
0.5764	36890.87	3.5660	3.5656	-2.2271	24.90	-0.24	-0.750			
0.5832	37324.54	3.5630	3.5633	-2.2584	24.90	-0.24	-0.750			
0.5900	37762.33	3.5600	3.5599	-2.2560	24.90	-0.24	-0.750			
0.5969	38203.94	3.5570	3.5568	-2.2365	24.90	-0.24	-0.750			
0.6037	38635.26	3.5540	3.5536	-2.2320	24.90	-0.24	-0.750			
0.6101	39044.35	3.5510	3.5512	-2.2089	24.90	-0.24	-0.750			
0.6169	39484.65	3.5480	3.5474	-2.1821	24.91	-0.23	-0.750			
0.6234	39899.36	3.5450	3.5446	-2.1630	24.91	-0.23	-0.750			
0.6298	40309.10	3.5420	3.5423	-2.0942	24.91	-0.23	-0.750			
0.6361	40710.92	3.5390	3.5388	-2.1060	24.92	-0.22	-0.750			
0.6423	41108.08	3.5360	3.5359	-2.0199	24.93	-0.21	-0.750			
0.6483	41489.34	3.5330	3.5326	-1.9649	24.93	-0.21	-0.750			
0.6543	41876.95	3.5300	3.5306	-1.9521	24.94	-0.20	-0.750			
0.6601	42245.64	3.5270	3.5266	-1.8889	24.96	-0.18	-0.750			
0.6656	42600.83	3.5240	3.5237	-1.8368	24.97	-0.17	-0.750			
0.6710	42942.02	3.5210	3.5213	-1.7804	24.98	-0.16	-0.750			
0.6764	43286.65	3.5180	3.5180	-1.7295	24.99	-0.15	-0.750			
0.6815	43613.57	3.5150	3.5152	-1.6863	25.01	-0.13	-0.750			
0.6864	43930.01	3.5120	3.5119	-1.6342	25.02	-0.12	-0.750			
0.6913	44243.90	3.5090	3.5089	-1.6154	25.04	-0.10	-0.750			
0.6961	44551.76	3.5060	3.5061	-1.5578	25.05	-0.09	-0.750			
0.7007	44845.37	3.5030	3.5027	-1.5075	25.07	-0.07	-0.750			
0.7051	45128.27	3.5000	3.5001	-1.4663	25.09	-0.05	-0.750			
0.7095	45409.14	3.4970	3.4969	-1.4260	25.11	-0.03	-0.750			
0.7137	45676.60	3.4940	3.4938	-1.3804	25.12	-0.02	-0.750			
0.7177	45931.58	3.4910	3.4909	-1.3751	25.14	-0.00	-0.750			
0.7219	46200.16	3.4880	3.4879	-1.4708	25.16	0.02	-0.750			
