Ah_balance (normalized)	Ah_balance (mAh)	Voltage - fit (V)	Voltage -  interpolate (V)	dQ/dV (1/V)	Temperature (°C)	Temperature - diff (°C)	Current (C)	R_DC 0ms (mOhm)	R_DC 50ms (mOhm)	R_DC 50 ms PEC (mOhm)
0.0005	33.69	4.1630	4.1630	-0.1614	24.79	0.01	-0.750			
0.0011	68.88	4.1600	4.1600	-0.2074	24.79	0.01	-0.750			
0.0018	113.12	4.1570	4.1570	-0.2544	24.79	0.01	-0.750			
0.0026	166.92	4.1540	4.1540	-0.2996	24.79	0.01	-0.750			
0.0036	228.83	4.1510	4.1510	-0.3446	24.79	0.01	-0.750			
0.0047	299.84	4.1480	4.1480	-0.3885	24.79	0.01	-0.750			
0.0059	379.53	4.1450	4.1451	-0.4306	24.79	0.01	-0.750			
0.0073	466.71	4.1420	4.1420	-0.4723	24.78	0.00	-0.750			
0.0088	562.17	4.1390	4.1390	-0.5102	24.78	0.00	-0.750			
0.0104	664.89	4.1360	4.1359	-0.5419	24.78	0.00	-0.750			
0.0121	773.83	4.1330	4.1330	-0.5723	24.78	0.00	-0.750			
0.0139	886.52	4.1300	4.1299	-0.5973	24.78	-0.00	-0.750			
0.0157	1003.71	4.1270	4.1270	-0.6229	24.78	-0.00	-0.750			
0.0176	1124.68	4.1240	4.1240	-0.6460	24.78	-0.00	-0.750			
0.0196	1251.76	4.1210	4.1210	-0.6569	24.77	-0.01	-0.750			
0.0216	1382.26	4.1180	4.1179	-0.6745	24.77	-0.01	-0.750			
0.0237	1514.20	4.1150	4.1149	-0.6835	24.77	-0.01	-0.750			
0.0257	1646.27	4.1120	4.1118	-0.6940	24.77	-0.01	-0.750			
0.0278	1778.66	4.1090	4.1091	-0.7053	24.77	-0.01	-0.750			
0.0299	1914.71	4.1060	4.1060	-0.7226	24.77	-0.01	-0.750			
0.0321	2056.98	4.1030	4.1028	-0.7322	24.76	-0.02	-0.750			
0.0344	2203.83	4.1000	4.0999	-0.7375	24.76	-0.02	-0.750			
0.0367	2346.04	4.0970	4.0971	-0.7373	24.76	-0.02	-0.750			
0.0389	2486.54	4.0940	4.0938	-0.7399	24.76	-0.02	-0.750			
0.0410	2625.39	4.0910	4.0908	-0.7380	24.76	-0.02	-0.750			
0.0432	2765.53	4.0880	4.0879	-0.7466	24.76	-0.02	-0.750			
0.0454	2908.57	4.0850	4.0851	-0.7491	24.76	-0.02	-0.750			
0.0478	3060.39	4.0820	4.0819	-0.7671	24.76	-0.02	-0.750			
0.0501	3209.43	4.0790	4.0792	-0.7633	24.76	-0.02	-0.750			
0.0524	3355.09	4.0760	4.0760	-0.7622	24.76	-0.02	-0.750			
0.0547	3498.90	4.0730	4.0731	-0.7683	24.76	-0.02	-0.750			
0.0569	3643.08	4.0700	4.0699	-0.7757	24.76	-0.02	-0.750			
0.0593	3794.62	4.0670	4.0669	-0.7917	24.76	-0.02	-0.750			
0.0617	3948.93	4.0640	4.0640	-0.7991	24.76	-0.02	-0.750			
0.0642	4107.02	4.0610	4.0609	-0.8083	24.76	-0.02	-0.750			
0.0666	4265.17	4.0580	4.0581	-0.8153	24.77	-0.01	-0.750			
0.0691	4422.21	4.0550	4.0549	-0.8056	24.77	-0.01	-0.750			
0.0715	4574.82	4.0520	4.0519	-0.7966	24.77	-0.01	-0.750			
0.0738	4725.90	4.0490	4.0490	-0.7912	24.78	-0.00	-0.750			
0.0762	4877.11	4.0460	4.0458	-0.7905	24.78	0.00	-0.750			
0.0786	5028.41	4.0430	4.0428	-0.7926	24.78	0.00	-0.750			
0.0809	5178.38	4.0400	4.0400	-0.7952	24.78	0.00	-0.750			
0.0833	5330.42	4.0370	4.0371	-0.7924	24.78	0.00	-0.750			
0.0858	5488.23	4.0340	4.0339	-0.8064	24.78	0.00	-0.750			
0.0882	5642.49	4.0310	4.0311	-0.8055	24.78	0.00	-0.750			
0.0906	5795.47	4.0280	4.0280	-0.8074	24.78	0.00	-0.750			
0.0930	5952.53	4.0250	4.0249	-0.8076	24.79	0.01	-0.750			
0.0954	6107.34	4.0220	4.0219	-0.8116	24.79	0.01	-0.750			
0.0979	6262.83	4.0190	4.0191	-0.8114	24.80	0.02	-0.750			
0.1003	6416.68	4.0160	4.0160	-0.8345	24.80	0.02	-0.750			
0.1028	6576.09	4.0130	4.0130	-0.8462	24.80	0.02	-0.750			
0.1054	6743.90	4.0100	4.0098	-0.8490	24.80	0.02	-0.750			
0.1080	6909.60	4.0070	4.0070	-0.8516	24.80	0.02	-0.750			
0.1106	7077.90	4.0040	4.0042	-0.8557	24.80	0.02	-0.750			
0.1131	7240.65	4.0010	4.0011	-0.8442	24.80	0.02	-0.750			
0.1157	7402.07	3.9980	3.9979	-0.8325	24.81	0.03	-0.750			
0.1180	7555.02	3.9950	3.9950	-0.8232	24.81	0.03	-0.750			
0.1205	7713.27	3.9920	3.9920	-0.8274	24.82	0.04	-0.750			
0.1230	7874.41	3.9890	3.9889	-0.8324	24.83	0.05	-0.750			
0.1255	8033.89	3.9860	3.9860	-0.8302	24.83	0.05	-0.750			
0.1280	8193.35	3.9830	3.9830	-0.8274	24.83	0.05	-0.750			
0.1305	8352.98	3.9800	3.9801	-0.8304	24.83	0.05	-0.750			
0.1330	8511.63	3.9770	3.9769	-0.8333	24.84	0.06	-0.750			
0.1355	8670.67	3.9740	3.9740	-0.8344	24.84	0.06	-0.750			
0.1380	8831.25	3.9710	3.9711	-0.8398	24.84	0.06	-0.750			
0.1405	8993.62	3.9680	3.9680	-0.8451	24.84	0.06	-0.750			
0.1431	9158.37	3.9650	3.9650	-0.8507	24.85	0.07	-0.750			
0.1457	9322.80	3.9620	3.9619	-0.8506	24.85	0.07	-0.750			
0.1482	9486.24	3.9590	3.9590	-0.8517	24.86	0.08	-0.750			
0.1508	9648.54	3.9560	3.9562	-0.8500	24.86	0.08	-0.750			
0.1533	9810.43	3.9530	3.9529	-0.8546	24.87	0.09	-0.750			
0.1559	9974.80	3.9500	3.9499	-0.8557	24.87	0.09	-0.750			
0.1584	10137.74	3.9470	3.9471	-0.8547	24.87	0.09	-0.750			
0.1610	10305.76	3.9440	3.9440	-0.8618	24.88	0.10	-0.750			
0.1636	10471.98	3.9410	3.9410	-0.8656	24.88	0.10	-0.750			
0.1662	10637.62	3.9380	3.9379	-0.8680	24.89	0.11	-0.750			
0.1688	10802.66	3.9350	3.9349	-0.8651	24.89	0.11	-0.750			
0.1714	10968.91	3.9320	3.9320	-0.8676	24.89	0.11	-0.750			
0.1740	11136.16	3.9290	3.9291	-0.8738	24.90	0.12	-0.750			
0.1766	11305.02	3.9260	3.9260	-0.8768	24.90	0.12	-0.750			
0.1793	11474.67	3.9230	3.9229	-0.8757	24.90	0.12	-0.750			
0.1819	11641.80	3.9200	3.9200	-0.8717	24.90	0.12	-0.750			
0.1845	11808.97	3.9170	3.9171	-0.8738	24.90	0.12	-0.750			
0.1871	11977.31	3.9140	3.9140	-0.8799	24.90	0.12	-0.750			
0.1898	12145.79	3.9110	3.9109	-0.8812	24.90	0.12	-0.750			
0.1924	12314.86	3.9080	3.9080	-0.8816	24.91	0.13	-0.750			
0.1951	12484.39	3.9050	3.9050	-0.8859	24.91	0.13	-0.750			
0.1978	12657.14	3.9020	3.9020	-0.8957	24.92	0.14	-0.750			
0.2004	12826.99	3.8990	3.8990	-0.8925	24.92	0.14	-0.750			
0.2031	12998.23	3.8960	3.8960	-0.8924	24.92	0.14	-0.750			
0.2058	13168.93	3.8930	3.8930	-0.8924	24.93	0.15	-0.750			
0.2085	13341.16	3.8900	3.8900	-0.8967	24.93	0.15	-0.750			
0.2112	13514.18	3.8870	3.8870	-0.8983	24.94	0.16	-0.750			
0.2138	13686.27	3.8840	3.8839	-0.8965	24.94	0.16	-0.750			
0.2165	13858.67	3.8810	3.8810	-0.8973	24.94	0.16	-0.750			
0.2192	14031.78	3.8780	3.8780	-0.8976	24.95	0.17	-0.750			
0.2219	14204.13	3.8750	3.8750	-0.8956	24.95	0.17	-0.750			
0.2246	14375.06	3.8720	3.8718	-0.8960	24.95	0.17	-0.750			
0.2273	14545.21	3.8690	3.8690	-0.9013	24.95	0.17	-0.750			
0.2300	14719.77	3.8660	3.8659	-0.9022	24.95	0.17	-0.750			
0.2327	14893.99	3.8630	3.8630	-0.9021	24.96	0.18	-0.750			
0.2354	15067.02	3.8600	3.8601	-0.9028	24.96	0.18	-0.750			
0.2381	15241.29	3.8570	3.8571	-0.9083	24.96	0.18	-0.750			
0.2409	15415.82	3.8540	3.8540	-0.9123	24.97	0.19	-0.750			
0.2436	15590.66	3.8510	3.8509	-0.9065	24.97	0.19	-0.750			
0.2463	15765.04	3.8480	3.8480	-0.9059	24.97	0.19	-0.750			
0.2491	15941.51	3.8450	3.8451	-0.9093	24.98	0.20	-0.750			
0.2518	16114.08	3.8420	3.8420	-0.9089	24.98	0.20	-0.750			
0.2545	16287.46	3.8390	3.8389	-0.9070	24.99	0.21	-0.750			
0.2572	16460.72	3.8360	3.8360	-0.9068	24.99	0.21	-0.750			
0.2599	16634.81	3.8330	3.8330	-0.9059	25.00	0.22	-0.750			
0.2627	16811.80	3.8300	3.8303	-0.9119	25.00	0.22	-0.750			
0.2654	16984.78	3.8270	3.8270	-0.9127	25.00	0.22	-0.750			
0.2681	17161.30	3.8240	3.8240	-0.9100	25.01	0.23	-0.750			
0.2709	17334.73	3.8210	3.8210	-0.9109	25.01	0.23	-0.750			
0.2736	17510.61	3.8180	3.8180	-0.9107	25.02	0.24	-0.750			
0.2763	17686.07	3.8150	3.8151	-0.9095	25.02	0.24	-0.750			
0.2791	17860.76	3.8120	3.8119	-0.9149	25.03	0.25	-0.750			
0.2818	18035.82	3.8090	3.8090	-0.9127	25.03	0.25	-0.750			
0.2845	18210.69	3.8060	3.8059	-0.9075	25.04	0.26	-0.750			
0.2873	18385.80	3.8030	3.8032	-0.9139	25.04	0.26	-0.750			
0.2900	18559.22	3.8000	3.8000	-0.9183	25.04	0.26	-0.750			
0.2928	18738.44	3.7970	3.7970	-0.9157	25.05	0.27	-0.750			
0.2955	18914.00	3.7940	3.7939	-0.9117	25.05	0.27	-0.750			
0.2983	19090.51	3.7910	3.7909	-0.9115	25.06	0.28	-0.750			
0.3010	19264.17	3.7880	3.7880	-0.9071	25.06	0.28	-0.750			
0.3037	19437.35	3.7850	3.7850	-0.9046	25.06	0.28	-0.750			
0.3064	19608.50	3.7820	3.7820	-0.8988	25.07	0.29	-0.750			
0.3090	19779.07	3.7790	3.7790	-0.9004	25.07	0.29	-0.750			
0.3118	19955.55	3.7760	3.7760	-0.9127	25.07	0.29	-0.750			
0.3145	20129.94	3.7730	3.7730	-0.9160	25.07	0.29	-0.750			
0.3173	20306.84	3.7700	3.7700	-0.9204	25.07	0.29	-0.750			
0.3201	20484.34	3.7670	3.7670	-0.9204	25.08	0.30	-0.750			
0.3229	20662.43	3.7640	3.7639	-0.9210	25.08	0.30	-0.750			
0.3256	20839.98	3.7610	3.7611	-0.9177	25.08	0.30	-0.750			
0.3284	21014.96	3.7580	3.7580	-0.9199	25.09	0.31	-0.750			
0.3311	21191.78	3.7550	3.7550	-0.9199	25.09	0.31	-0.750			
0.3339	21368.93	3.7520	3.7518	-0.9163	25.09	0.31	-0.750			
0.3366	21543.67	3.7490	3.7492	-0.9197	25.10	0.32	-0.750			
0.3394	21718.78	3.7460	3.7459	-0.9274	25.10	0.32	-0.750			
0.3422	21897.98	3.7430	3.7429	-0.9298	25.10	0.32	-0.750			
0.3449	22076.27	3.7400	3.7399	-0.9328	25.10	0.32	-0.750			
0.3477	22252.36	3.7370	3.7370	-0.9358	25.10	0.32	-0.750			
0.3506	22437.73	3.7340	3.7342	-0.9448	25.10	0.32	-0.750			
0.3534	22619.70	3.7310	3.7308	-0.9540	25.10	0.32	-0.750			
0.3563	22801.75	3.7280	3.7280	-0.9554	25.10	0.32	-0.750			
0.3592	22986.66	3.7250	3.7250	-0.9606	25.10	0.32	-0.750			
0.3621	23171.75	3.7220	3.7221	-0.9738	25.10	0.32	-0.750			
0.3650	23357.60	3.7190	3.7190	-0.9880	25.10	0.32	-0.750			
0.3679	23547.51	3.7160	3.7159	-0.9947	25.10	0.32	-0.750			
0.3709	23740.58	3.7130	3.7129	-1.0041	25.10	0.32	-0.750			
0.3740	23933.23	3.7100	3.7100	-1.0173	25.10	0.32	-0.750	0.381	0.484	
0.3771	24132.02	3.7070	3.7069	-1.0398	25.10	0.32	-0.750			
0.3802	24333.21	3.7040	3.7039	-1.0544	25.10	0.32	-0.750			
0.3834	24534.59	3.7010	3.7010	-1.0646	25.10	0.32	-0.750			
0.3866	24739.92	3.6980	3.6980	-1.0797	25.10	0.32	-0.750			
0.3899	24952.15	3.6950	3.6950	-1.1102	25.10	0.32	-0.750			
0.3933	25168.03	3.6920	3.6918	-1.1267	25.10	0.32	-0.750			
0.3966	25383.76	3.6890	3.6891	-1.1428	25.09	0.31	-0.750			
0.4001	25604.11	3.6860	3.6863	-1.1708	25.09	0.31	-0.750			
0.4037	25834.81	3.6830	3.6829	-1.1984	25.09	0.31	-0.750			
0.4073	26067.56	3.6800	3.6799	-1.2210	25.08	0.30	-0.750			
0.4110	26301.07	3.6770	3.6770	-1.2447	25.08	0.30	-0.750			
0.4149	26552.10	3.6740	3.6738	-1.2434	25.08	0.30	-0.750			
0.4186	26791.15	3.6710	3.6709	-1.2362	25.07	0.29	-0.750			
0.4222	27020.21	3.6680	3.6682	-1.2493	25.06	0.28	-0.750			
0.4259	27254.47	3.6650	3.6652	-1.2640	25.06	0.28	-0.750			
0.4296	27495.26	3.6620	3.6616	-1.3018	25.06	0.28	-0.750			
0.4334	27738.87	3.6590	3.6590	-1.3887	25.05	0.27	-0.750			
0.4378	28022.19	3.6560	3.6564	-1.4357	25.05	0.27	-0.750			
0.4424	28316.19	3.6530	3.6528	-1.5032	25.04	0.26	-0.750			
0.4471	28615.74	3.6500	3.6500	-1.5401	25.03	0.25	-0.750			
0.4517	28911.73	3.6470	3.6469	-1.5708	25.03	0.25	-0.750			
0.4564	29210.37	3.6440	3.6440	-1.6172	25.02	0.24	-0.750			
0.4613	29525.53	3.6410	3.6408	-1.6392	25.01	0.23	-0.750			
0.4662	29838.78	3.6380	3.6379	-1.6719	25.00	0.22	-0.750			
0.4715	30175.48	3.6350	3.6348	-1.7426	24.99	0.21	-0.750			
0.4768	30515.60	3.6320	3.6317	-1.7687	24.98	0.20	-0.750			
0.4822	30863.95	3.6290	3.6289	-1.7934	24.97	0.19	-0.750			
0.4875	31202.83	3.6260	3.6264	-1.8331	24.96	0.18	-0.750			
0.4931	31556.67	3.6230	3.6233	-1.8770	24.95	0.17	-0.750			
0.4989	31927.71	3.6200	3.6200	-1.8990	24.94	0.16	-0.750			
0.5044	32282.74	3.6170	3.6172	-1.9394	24.93	0.15	-0.750			
0.5105	32672.50	3.6140	3.6140	-1.9717	24.92	0.14	-0.750			
0.5165	33058.26	3.6110	3.6110	-1.9938	24.91	0.13	-0.750			
0.5224	33431.43	3.6080	3.6081	-2.0329	24.90	0.12	-0.750			
0.5286	33832.23	3.6050	3.6046	-2.0571	24.90	0.12	-0.750			
0.5347	34222.89	3.6020	3.6020	-2.1179	24.89	0.11	-0.750			
0.5411	34631.31	3.5990	3.5992	-2.1458	24.89	0.11	-0.750			
0.5478	35061.06	3.5960	3.5959	-2.1751	24.88	0.10	-0.750			
0.5543	35474.28	3.5930	3.5930	-2.2140	24.87	0.09	-0.750			
0.5609	35897.96	3.5900	3.5902	-2.2520	24.86	0.08	-0.750			
0.5678	36342.25	3.5870	3.5872	-2.2682	24.86	0.08	-0.750			
0.5747	36778.68	3.5840	3.5839	-2.3431	24.85	0.07	-0.750			
0.5817	37226.63	3.5810	3.5813	-2.4560	24.84	0.06	-0.750			
0.5894	37721.38	3.5780	3.5779	-2.4494	24.84	0.06	-0.750			
0.5969	38200.07	3.5750	3.5752	-2.4597	24.84	0.06	-0.750			
0.6044	38684.13	3.5720	3.5718	-2.4483	24.83	0.05	-0.750			
0.6115	39134.15	3.5690	3.5688	-2.4074	24.82	0.04	-0.750			
0.6186	39589.03	3.5660	3.5663	-2.4203	24.82	0.04	-0.750			
0.6260	40061.73	3.5630	3.5632	-2.4020	24.82	0.04	-0.750			
0.6333	40529.24	3.5600	3.5599	-2.3975	24.82	0.04	-0.750			
0.6406	40996.00	3.5570	3.5567	-2.3903	24.82	0.04	-0.750			
0.6475	41440.72	3.5540	3.5542	-2.3718	24.82	0.04	-0.750			
0.6547	41903.08	3.5510	3.5511	-2.3195	24.82	0.04	-0.750			
0.6616	42342.94	3.5480	3.5478	-2.3143	24.82	0.04	-0.750			
0.6685	42781.64	3.5450	3.5447	-2.2568	24.82	0.04	-0.750			
0.6752	43211.67	3.5420	3.5423	-2.2545	24.82	0.04	-0.750			
0.6820	43649.46	3.5390	3.5392	-2.2063	24.83	0.05	-0.750			
0.6886	44070.43	3.5360	3.5359	-2.1699	24.84	0.06	-0.750			
0.6950	44479.71	3.5330	3.5330	-2.0901	24.85	0.07	-0.750			
0.7012	44878.24	3.5300	3.5302	-2.0431	24.86	0.08	-0.750			
0.7073	45264.60	3.5270	3.5268	-1.9885	24.87	0.09	-0.750			
0.7131	45639.87	3.5240	3.5241	-1.9215	24.88	0.10	-0.750			
0.7188	46006.17	3.5210	3.5212	-1.8682	24.90	0.12	-0.750			
0.7243	46357.43	3.5180	3.5181	-1.8002	24.91	0.13	-0.750			
0.7296	46697.40	3.5150	3.5150	-1.7404	24.92	0.14	-0.750			
0.7348	47029.48	3.5120	3.5120	-1.7065	24.93	0.15	-0.750			
0.7398	47349.90	3.5090	3.5089	-1.6585	24.95	0.17	-0.750			
0.7447	47659.44	3.5060	3.5060	-1.6440	24.96	0.18	-0.750			
0.7496	47973.04	3.5030	3.5029	-1.6100	24.98	0.20	-0.750			
