Ah_balance (normalized)	Ah_balance (mAh)	Voltage - fit (V)	Voltage -  interpolate (V)	dQ/dV (1/V)	Temperature (°C)	Temperature - diff (°C)	Current (C)	R_DC 0ms (mOhm)	R_DC 50ms (mOhm)	R_DC 50 ms PEC (mOhm)
0.0003	22.23	4.1600	4.1596	-0.1256	25.48	0.01	-0.750			
0.0008	50.28	4.1570	4.1570	-0.1662	25.47	0.00	-0.750			
0.0013	85.65	4.1540	4.1540	-0.2072	25.47	0.00	-0.750			
0.0020	128.98	4.1510	4.1512	-0.2506	25.47	0.00	-0.750			
0.0028	181.73	4.1480	4.1479	-0.2894	25.47	-0.00	-0.750			
0.0038	242.09	4.1450	4.1449	-0.3286	25.47	-0.00	-0.750			
0.0048	309.68	4.1420	4.1420	-0.3658	25.46	-0.01	-0.750			
0.0060	383.51	4.1390	4.1391	-0.4015	25.46	-0.01	-0.750			
0.0073	464.62	4.1360	4.1362	-0.4366	25.45	-0.02	-0.750			
0.0086	550.25	4.1330	4.1330	-0.4709	25.45	-0.02	-0.750			
0.0101	645.17	4.1300	4.1300	-0.4974	25.44	-0.03	-0.750			
0.0117	745.96	4.1270	4.1270	-0.5235	25.44	-0.03	-0.750			
0.0133	848.57	4.1240	4.1237	-0.5468	25.43	-0.04	-0.750			
0.0150	957.54	4.1210	4.1215	-0.5680	25.43	-0.04	-0.750			
0.0167	1068.18	4.1180	4.1179	-0.5858	25.43	-0.04	-0.750			
0.0185	1182.82	4.1150	4.1150	-0.6008	25.42	-0.05	-0.750			
0.0203	1296.36	4.1120	4.1121	-0.6164	25.42	-0.05	-0.750			
0.0222	1420.96	4.1090	4.1090	-0.6352	25.41	-0.06	-0.750			
0.0242	1546.04	4.1060	4.1059	-0.6439	25.41	-0.06	-0.750			
0.0261	1669.16	4.1030	4.1028	-0.6503	25.40	-0.07	-0.750			
0.0281	1795.81	4.1000	4.1000	-0.6611	25.40	-0.07	-0.750			
0.0301	1923.53	4.0970	4.0969	-0.6648	25.40	-0.07	-0.750			
0.0320	2050.92	4.0940	4.0939	-0.6729	25.40	-0.07	-0.750			
0.0340	2177.38	4.0910	4.0912	-0.6785	25.40	-0.07	-0.750			
0.0361	2313.44	4.0880	4.0880	-0.6868	25.40	-0.07	-0.750			
0.0382	2446.55	4.0850	4.0849	-0.6935	25.40	-0.07	-0.750			
0.0403	2579.21	4.0820	4.0821	-0.6973	25.40	-0.07	-0.750			
0.0424	2712.46	4.0790	4.0787	-0.7047	25.40	-0.07	-0.750			
0.0445	2849.17	4.0760	4.0760	-0.7190	25.40	-0.07	-0.750			
0.0467	2988.50	4.0730	4.0730	-0.7214	25.40	-0.07	-0.750			
0.0489	3130.94	4.0700	4.0699	-0.7236	25.40	-0.07	-0.750			
0.0511	3271.73	4.0670	4.0668	-0.7246	25.40	-0.07	-0.750			
0.0533	3408.25	4.0640	4.0639	-0.7256	25.40	-0.07	-0.750			
0.0554	3546.92	4.0610	4.0608	-0.7254	25.40	-0.07	-0.750			
0.0575	3682.80	4.0580	4.0579	-0.7337	25.40	-0.07	-0.750			
0.0598	3826.23	4.0550	4.0550	-0.7250	25.40	-0.07	-0.750			
0.0621	3972.53	4.0520	4.0520	-0.7391	25.40	-0.07	-0.750			
0.0643	4114.02	4.0490	4.0494	-0.7357	25.40	-0.07	-0.750			
0.0665	4252.99	4.0460	4.0457	-0.7359	25.40	-0.07	-0.750			
0.0686	4392.50	4.0430	4.0429	-0.7346	25.40	-0.07	-0.750			
0.0708	4531.44	4.0400	4.0400	-0.7373	25.40	-0.07	-0.750			
0.0731	4677.39	4.0370	4.0370	-0.7503	25.39	-0.08	-0.750			
0.0754	4823.43	4.0340	4.0340	-0.7537	25.39	-0.08	-0.750			
0.0776	4966.35	4.0310	4.0311	-0.7487	25.39	-0.08	-0.750			
0.0798	5110.10	4.0280	4.0279	-0.7442	25.39	-0.08	-0.750			
0.0821	5251.68	4.0250	4.0251	-0.7569	25.39	-0.08	-0.750			
0.0844	5398.53	4.0220	4.0219	-0.7571	25.40	-0.07	-0.750			
0.0867	5545.84	4.0190	4.0188	-0.7608	25.40	-0.07	-0.750			
0.0889	5691.95	4.0160	4.0157	-0.7572	25.40	-0.07	-0.750			
0.0912	5837.01	4.0130	4.0129	-0.7598	25.40	-0.07	-0.750			
0.0935	5982.77	4.0100	4.0099	-0.7607	25.40	-0.07	-0.750			
0.0958	6130.60	4.0070	4.0069	-0.7687	25.40	-0.07	-0.750			
0.0981	6281.36	4.0040	4.0039	-0.7705	25.40	-0.07	-0.750			
0.1005	6429.63	4.0010	4.0009	-0.7696	25.40	-0.07	-0.750			
0.1028	6576.15	3.9980	3.9983	-0.7620	25.40	-0.07	-0.750			
0.1050	6720.51	3.9950	3.9948	-0.7651	25.40	-0.07	-0.750			
0.1073	6864.78	3.9920	3.9919	-0.7690	25.40	-0.07	-0.750			
0.1095	7008.14	3.9890	3.9891	-0.7630	25.41	-0.06	-0.750			
0.1119	7162.03	3.9860	3.9860	-0.7844	25.41	-0.06	-0.750			
0.1143	7315.35	3.9830	3.9831	-0.7905	25.41	-0.06	-0.750			
0.1167	7466.32	3.9800	3.9799	-0.7875	25.41	-0.06	-0.750			
0.1190	7618.24	3.9770	3.9769	-0.7957	25.42	-0.05	-0.750			
0.1214	7772.10	3.9740	3.9740	-0.7894	25.42	-0.05	-0.750			
0.1238	7923.85	3.9710	3.9708	-0.7849	25.42	-0.05	-0.750			
0.1262	8077.88	3.9680	3.9682	-0.7879	25.43	-0.04	-0.750			
0.1285	8225.59	3.9650	3.9647	-0.7885	25.43	-0.04	-0.750			
0.1308	8373.87	3.9620	3.9619	-0.7937	25.43	-0.04	-0.750			
0.1332	8527.80	3.9590	3.9589	-0.7907	25.43	-0.04	-0.750			
0.1356	8676.57	3.9560	3.9561	-0.7870	25.44	-0.03	-0.750			
0.1381	8836.32	3.9530	3.9530	-0.8017	25.44	-0.03	-0.750			
0.1405	8989.10	3.9500	3.9501	-0.7957	25.44	-0.03	-0.750			
0.1428	9139.29	3.9470	3.9469	-0.7937	25.44	-0.03	-0.750			
0.1452	9290.11	3.9440	3.9440	-0.7938	25.44	-0.03	-0.750			
0.1475	9440.58	3.9410	3.9411	-0.7999	25.45	-0.02	-0.750			
0.1500	9597.62	3.9380	3.9379	-0.8126	25.45	-0.02	-0.750			
0.1524	9755.66	3.9350	3.9354	-0.8104	25.45	-0.02	-0.750			
0.1549	9911.22	3.9320	3.9320	-0.8090	25.45	-0.02	-0.750			
0.1573	10069.57	3.9290	3.9291	-0.8267	25.45	-0.02	-0.750			
0.1599	10230.95	3.9260	3.9257	-0.8177	25.46	-0.01	-0.750			
0.1623	10387.85	3.9230	3.9228	-0.8119	25.46	-0.01	-0.750			
0.1647	10541.60	3.9200	3.9210	-0.8056	25.46	-0.01	-0.750			
0.1671	10695.17	3.9170	3.9169	-0.8083	25.46	-0.01	-0.750			
0.1695	10850.00	3.9140	3.9139	-0.8138	25.46	-0.01	-0.750			
0.1719	11000.76	3.9110	3.9108	-0.7947	25.47	-0.00	-0.750			
0.1744	11162.39	3.9080	3.9081	-0.8193	25.47	-0.00	-0.750			
0.1769	11320.52	3.9050	3.9050	-0.8148	25.47	-0.00	-0.750			
0.1794	11478.54	3.9020	3.9019	-0.8079	25.47	0.00	-0.750			
0.1817	11631.30	3.8990	3.8989	-0.8065	25.47	0.00	-0.750			
0.1841	11781.46	3.8960	3.8961	-0.7963	25.48	0.01	-0.750			
0.1865	11936.14	3.8930	3.8929	-0.8008	25.48	0.01	-0.750			
0.1889	12089.64	3.8900	3.8900	-0.7985	25.48	0.01	-0.750			
0.1913	12242.18	3.8870	3.8871	-0.7964	25.48	0.01	-0.750			
0.1937	12395.83	3.8840	3.8840	-0.8093	25.48	0.01	-0.750			
0.1962	12554.91	3.8810	3.8809	-0.8083	25.49	0.02	-0.750			
0.1986	12710.58	3.8780	3.8778	-0.7956	25.49	0.02	-0.750			
0.2010	12864.53	3.8750	3.8748	-0.7937	25.49	0.02	-0.750			
0.2034	13015.03	3.8720	3.8718	-0.7857	25.49	0.02	-0.750			
0.2057	13164.32	3.8690	3.8688	-0.7748	25.50	0.03	-0.750			
0.2080	13311.81	3.8660	3.8659	-0.7782	25.50	0.03	-0.750			
0.2103	13458.69	3.8630	3.8630	-0.7678	25.50	0.03	-0.750			
0.2127	13614.15	3.8600	3.8598	-0.7814	25.51	0.04	-0.750			
0.2150	13762.89	3.8570	3.8575	-0.7781	25.51	0.04	-0.750			
0.2174	13910.58	3.8540	3.8538	-0.7704	25.51	0.04	-0.750			
0.2197	14057.90	3.8510	3.8509	-0.7702	25.52	0.05	-0.750			
0.2219	14200.61	3.8480	3.8481	-0.7577	25.52	0.05	-0.750			
0.2243	14353.47	3.8450	3.8450	-0.7749	25.53	0.06	-0.750			
0.2266	14502.45	3.8420	3.8420	-0.7748	25.53	0.06	-0.750			
0.2289	14650.41	3.8390	3.8388	-0.7671	25.53	0.06	-0.750			
0.2312	14794.16	3.8360	3.8360	-0.7733	25.53	0.06	-0.750			
0.2335	14945.66	3.8330	3.8331	-0.7719	25.54	0.07	-0.750			
0.2358	15093.07	3.8300	3.8300	-0.7680	25.54	0.07	-0.750			
0.2382	15243.17	3.8270	3.8268	-0.7698	25.54	0.07	-0.750			
0.2405	15390.66	3.8240	3.8239	-0.7625	25.54	0.07	-0.750			
0.2427	15535.59	3.8210	3.8209	-0.7594	25.54	0.07	-0.750			
0.2450	15681.08	3.8180	3.8180	-0.7670	25.54	0.07	-0.750			
0.2473	15827.53	3.8150	3.8149	-0.7554	25.55	0.08	-0.750			
0.2496	15975.74	3.8120	3.8118	-0.7634	25.55	0.08	-0.750			
0.2519	16121.63	3.8090	3.8095	-0.7611	25.55	0.08	-0.750			
0.2542	16267.91	3.8060	3.8059	-0.7619	25.55	0.08	-0.750			
0.2565	16414.07	3.8030	3.8028	-0.7606	25.56	0.09	-0.750			
0.2587	16555.77	3.8000	3.8001	-0.7555	25.56	0.09	-0.750			
0.2610	16703.89	3.7970	3.7969	-0.7678	25.56	0.09	-0.750			
0.2633	16851.91	3.7940	3.7940	-0.7697	25.57	0.10	-0.750			
0.2656	16998.54	3.7910	3.7909	-0.7682	25.57	0.10	-0.750			
0.2679	17144.55	3.7880	3.7881	-0.7786	25.57	0.10	-0.750			
0.2703	17296.16	3.7850	3.7850	-0.7808	25.57	0.10	-0.750			
0.2726	17448.04	3.7820	3.7819	-0.7833	25.57	0.10	-0.750			
0.2750	17599.43	3.7790	3.7789	-0.7884	25.57	0.10	-0.750			
0.2773	17750.26	3.7760	3.7769	-0.7916	25.57	0.10	-0.750			
0.2797	17898.78	3.7730	3.7729	-0.8065	25.57	0.10	-0.750			
0.2821	18055.33	3.7700	3.7700	-0.8033	25.57	0.10	-0.750			
0.2845	18210.28	3.7670	3.7669	-0.8049	25.57	0.10	-0.750			
0.2870	18366.47	3.7640	3.7640	-0.8150	25.57	0.10	-0.750			
0.2894	18524.19	3.7610	3.7613	-0.8186	25.57	0.10	-0.750			
0.2919	18680.02	3.7580	3.7578	-0.8191	25.57	0.10	-0.750			
0.2943	18836.31	3.7550	3.7551	-0.8267	25.57	0.10	-0.750			
0.2968	18995.49	3.7520	3.7520	-0.8341	25.57	0.10	-0.750			
0.2994	19159.92	3.7490	3.7489	-0.8467	25.57	0.10	-0.750			
0.3019	19322.54	3.7460	3.7462	-0.8491	25.57	0.10	-0.750			
0.3044	19480.93	3.7430	3.7430	-0.8705	25.57	0.10	-0.750			
0.3071	19651.94	3.7400	3.7400	-0.8771	25.57	0.10	-0.750			
0.3097	19821.17	3.7370	3.7368	-0.8810	25.56	0.09	-0.750			
0.3124	19990.94	3.7340	3.7340	-0.8903	25.56	0.09	-0.750			
0.3151	20165.80	3.7310	3.7307	-0.9047	25.56	0.09	-0.750			
0.3178	20340.39	3.7280	3.7279	-0.9202	25.56	0.09	-0.750			
0.3206	20519.64	3.7250	3.7249	-0.9201	25.55	0.08	-0.750			
0.3233	20694.33	3.7220	3.7220	-0.9207	25.55	0.08	-0.750			
0.3262	20875.92	3.7190	3.7189	-0.9409	25.54	0.07	-0.750			
0.3290	21054.05	3.7160	3.7159	-0.9587	25.54	0.07	-0.750			
0.3319	21238.88	3.7130	3.7128	-0.9596	25.54	0.07	-0.750			
0.3347	21422.27	3.7100	3.7099	-0.9672	25.53	0.06	-0.750			
0.3376	21607.45	3.7070	3.7071	-1.0003	25.53	0.06	-0.750			
0.3408	21810.28	3.7040	3.7037	-1.0275	25.53	0.06	-0.750			
0.3439	22011.69	3.7010	3.7007	-1.0161	25.52	0.05	-0.750			
0.3470	22207.12	3.6980	3.6973	-1.0157	25.52	0.05	-0.750	0.391	0.548	
0.3500	22399.84	3.6950	3.6949	-1.0227	25.51	0.04	-0.750			
0.3531	22596.46	3.6920	3.6917	-1.0539	25.51	0.04	-0.750			
0.3561	22792.69	3.6890	3.6888	-1.0414	25.50	0.03	-0.750			
0.3594	22998.96	3.6860	3.6859	-1.0636	25.50	0.03	-0.750			
0.3625	23203.14	3.6830	3.6829	-1.0743	25.49	0.02	-0.750			
0.3658	23412.22	3.6800	3.6800	-1.1098	25.49	0.02	-0.750			
0.3691	23623.53	3.6770	3.6768	-1.1144	25.48	0.01	-0.750			
0.3725	23838.61	3.6740	3.6737	-1.1251	25.48	0.01	-0.750			
0.3758	24049.64	3.6710	3.6713	-1.1915	25.47	0.00	-0.750			
0.3795	24285.56	3.6680	3.6680	-1.1958	25.47	-0.00	-0.750			
0.3832	24522.36	3.6650	3.6646	-1.2045	25.46	-0.01	-0.750			
0.3868	24753.18	3.6620	3.6617	-1.2102	25.45	-0.02	-0.750			
0.3904	24983.63	3.6590	3.6591	-1.2345	25.45	-0.02	-0.750			
0.3942	25228.88	3.6560	3.6558	-1.2586	25.44	-0.03	-0.750			
0.3979	25468.73	3.6530	3.6528	-1.2725	25.44	-0.03	-0.750			
0.4018	25712.69	3.6500	3.6506	-1.3065	25.43	-0.04	-0.750			
0.4057	25964.17	3.6470	3.6468	-1.3187	25.42	-0.05	-0.750			
0.4095	26210.32	3.6440	3.6441	-1.3709	25.41	-0.06	-0.750			
0.4137	26477.31	3.6410	3.6410	-1.3786	25.40	-0.07	-0.750			
0.4180	26753.23	3.6380	3.6378	-1.4036	25.40	-0.07	-0.750			
0.4221	27013.01	3.6350	3.6350	-1.4656	25.39	-0.08	-0.750			
0.4265	27294.65	3.6320	3.6324	-1.4909	25.39	-0.08	-0.750			
0.4312	27596.26	3.6290	3.6285	-1.5044	25.38	-0.09	-0.750			
0.4358	27888.10	3.6260	3.6261	-1.5301	25.38	-0.09	-0.750			
0.4403	28180.36	3.6230	3.6232	-1.5842	25.37	-0.10	-0.750			
0.4453	28496.79	3.6200	3.6199	-1.6345	25.36	-0.11	-0.750			
0.4502	28814.32	3.6170	3.6167	-1.6625	25.35	-0.12	-0.750			
0.4552	29133.06	3.6140	3.6146	-1.6838	25.35	-0.12	-0.750			
0.4604	29467.41	3.6110	3.6111	-1.7030	25.34	-0.13	-0.750			
0.4658	29809.03	3.6080	3.6079	-1.7441	25.33	-0.14	-0.750			
0.4708	30130.91	3.6050	3.6050	-1.7399	25.33	-0.14	-0.750			
0.4760	30466.01	3.6020	3.6023	-1.7706	25.32	-0.15	-0.750			
0.4813	30800.91	3.5990	3.5989	-1.7795	25.32	-0.15	-0.750			
0.4867	31146.39	3.5960	3.5961	-1.8390	25.31	-0.16	-0.750			
0.4923	31508.59	3.5930	3.5927	-1.8754	25.31	-0.16	-0.750			
0.4983	31890.77	3.5900	3.5893	-1.9187	25.30	-0.17	-0.750			
0.5041	32261.95	3.5870	3.5866	-1.9188	25.30	-0.17	-0.750			
0.5098	32629.68	3.5840	3.5837	-1.9406	25.29	-0.18	-0.750			
0.5156	32997.86	3.5810	3.5810	-1.9398	25.28	-0.19	-0.750			
0.5213	33363.05	3.5780	3.5780	-1.9508	25.28	-0.19	-0.750			
0.5273	33744.45	3.5750	3.5751	-2.0172	25.28	-0.19	-0.750			
0.5333	34134.38	3.5720	3.5724	-2.0429	25.28	-0.19	-0.750			
0.5396	34531.97	3.5690	3.5694	-2.0779	25.28	-0.19	-0.750			
0.5460	34941.91	3.5660	3.5662	-2.0915	25.27	-0.20	-0.750			
0.5522	35342.32	3.5630	3.5633	-2.0582	25.27	-0.20	-0.750			
0.5584	35736.76	3.5600	3.5603	-2.0447	25.27	-0.20	-0.750			
0.5645	36130.31	3.5570	3.5572	-2.0434	25.27	-0.20	-0.750			
0.5706	36519.49	3.5540	3.5542	-2.0382	25.27	-0.20	-0.750			
0.5768	36912.91	3.5510	3.5514	-2.0059	25.27	-0.20	-0.750			
0.5829	37308.09	3.5480	3.5483	-2.0224	25.27	-0.20	-0.750			
0.5888	37682.66	3.5450	3.5450	-2.0683	25.28	-0.19	-0.750			
0.5949	38072.75	3.5420	3.5419	-2.0882	25.28	-0.19	-0.750			
0.6013	38484.02	3.5390	3.5386	-2.1035	25.28	-0.19	-0.750			
0.6078	38901.32	3.5360	3.5366	-2.0901	25.29	-0.18	-0.750			
0.6142	39311.67	3.5330	3.5333	-2.0369	25.30	-0.17	-0.750			
0.6204	39704.01	3.5300	3.5302	-1.9473	25.32	-0.15	-0.750			
0.6260	40062.74	3.5270	3.5270	-1.8866	25.35	-0.12	-0.750			
0.6312	40394.65	3.5240	3.5240	-1.7796	25.36	-0.11	-0.750			
0.6365	40734.44	3.5210	3.5208	-1.7390	25.36	-0.11	-0.750			
0.6417	41066.40	3.5180	3.5179	-1.6886	25.38	-0.09	-0.750			
0.6466	41382.72	3.5150	3.5150	-1.6392	25.40	-0.07	-0.750			
0.6515	41693.56	3.5120	3.5119	-1.5998	25.42	-0.05	-0.750			
0.6563	42001.30	3.5090	3.5088	-1.5509	25.43	-0.04	-0.750			
0.6609	42296.54	3.5060	3.5061	-1.5027	25.44	-0.03	-0.750			
0.6652	42575.63	3.5030	3.5033	-1.4570	25.45	-0.02	-0.750			
0.6696	42857.40	3.5000	3.4998	-1.4203	25.47	-0.00	-0.750			
0.6738	43123.53	3.4970	3.4969	-1.3684	25.49	0.02	-0.750			
0.6778	43378.57	3.4940	3.4942	-1.3174	25.50	0.03	-0.750			
0.6817	43630.30	3.4910	3.4909	-1.2812	25.52	0.05	-0.750			
0.6855	43871.11	3.4880	3.4880	-1.2348	25.53	0.06	-0.750			
0.6891	44101.03	3.4850	3.4849	-1.1916	25.55	0.08	-0.750			
0.6926	44327.05	3.4820	3.4819	-1.1485	25.56	0.09	-0.750			
0.6960	44542.41	3.4790	3.4790	-1.0924	25.58	0.11	-0.750			
