Ah_balance (normalized)	Ah_balance (mAh)	Voltage - fit (V)	Voltage -  interpolate (V)	dQ/dV (1/V)	Temperature (°C)	Temperature - diff (°C)	Current (C)	R_DC 0ms (mOhm)	R_DC 50ms (mOhm)	R_DC 50 ms PEC (mOhm)
0.0004	25.97	4.1620	4.1623	-0.1359	24.63	0.02	-0.750			
0.0009	59.18	4.1590	4.1591	-0.1913	24.63	0.02	-0.750			
0.0016	100.20	4.1560	4.1556	-0.2385	24.63	0.02	-0.750			
0.0024	151.57	4.1530	4.1532	-0.2823	24.63	0.02	-0.750			
0.0033	209.74	4.1500	4.1501	-0.3281	24.63	0.02	-0.750			
0.0044	279.12	4.1470	4.1469	-0.3677	24.62	0.01	-0.750			
0.0055	354.27	4.1440	4.1440	-0.4096	24.62	0.01	-0.750			
0.0068	437.08	4.1410	4.1409	-0.4439	24.62	0.01	-0.750			
0.0082	525.75	4.1380	4.1381	-0.4797	24.61	0.00	-0.750			
0.0097	621.36	4.1350	4.1349	-0.5131	24.61	0.00	-0.750			
0.0113	723.90	4.1320	4.1320	-0.5433	24.61	-0.00	-0.750			
0.0130	831.42	4.1290	4.1290	-0.5686	24.60	-0.01	-0.750			
0.0148	945.35	4.1260	4.1260	-0.5908	24.60	-0.01	-0.750			
0.0166	1060.96	4.1230	4.1230	-0.6127	24.59	-0.02	-0.750			
0.0185	1183.47	4.1200	4.1201	-0.6307	24.59	-0.02	-0.750			
0.0204	1305.07	4.1170	4.1169	-0.6414	24.59	-0.02	-0.750			
0.0224	1431.01	4.1140	4.1139	-0.6468	24.58	-0.03	-0.750			
0.0243	1556.39	4.1110	4.1109	-0.6518	24.58	-0.03	-0.750			
0.0263	1680.91	4.1080	4.1081	-0.6609	24.57	-0.04	-0.750			
0.0282	1807.12	4.1050	4.1049	-0.6752	24.57	-0.04	-0.750			
0.0303	1939.17	4.1020	4.1019	-0.6827	24.57	-0.04	-0.750			
0.0324	2072.15	4.0990	4.0989	-0.6895	24.56	-0.05	-0.750			
0.0345	2205.41	4.0960	4.0960	-0.7017	24.56	-0.05	-0.750			
0.0366	2343.25	4.0930	4.0930	-0.7090	24.56	-0.05	-0.750			
0.0387	2476.05	4.0900	4.0898	-0.7122	24.56	-0.05	-0.750			
0.0408	2611.01	4.0870	4.0870	-0.7185	24.56	-0.05	-0.750			
0.0429	2746.71	4.0840	4.0842	-0.7271	24.56	-0.05	-0.750			
0.0452	2893.97	4.0810	4.0808	-0.7338	24.56	-0.05	-0.750			
0.0474	3036.29	4.0780	4.0781	-0.7396	24.56	-0.05	-0.750			
0.0496	3177.24	4.0750	4.0752	-0.7422	24.56	-0.05	-0.750			
0.0519	3318.79	4.0720	4.0718	-0.7604	24.56	-0.05	-0.750			
0.0542	3467.84	4.0690	4.0689	-0.7588	24.56	-0.05	-0.750			
0.0565	3614.03	4.0660	4.0658	-0.7599	24.56	-0.05	-0.750			
0.0588	3761.48	4.0630	4.0629	-0.7614	24.56	-0.05	-0.750			
0.0610	3906.56	4.0600	4.0599	-0.7965	24.56	-0.05	-0.750			
0.0633	4052.36	4.0570	4.0569	-0.8264	24.56	-0.05	-0.750			
0.0659	4219.96	4.0540	4.0535	-0.8365	24.56	-0.05	-0.750			
0.0686	4387.99	4.0510	4.0500	-0.8482	24.57	-0.04	-0.750			
0.0712	4558.89	4.0480	4.0482	-0.8435	24.57	-0.04	-0.750			
0.0737	4719.76	4.0450	4.0450	-0.8204	24.57	-0.04	-0.750			
0.0761	4871.04	4.0420	4.0417	-0.8050	24.57	-0.04	-0.750			
0.0783	5009.65	4.0390	4.0389	-0.7749	24.57	-0.04	-0.750			
0.0806	5156.43	4.0360	4.0360	-0.7742	24.58	-0.03	-0.750			
0.0830	5310.50	4.0330	4.0330	-0.7888	24.58	-0.03	-0.750			
0.0854	5465.12	4.0300	4.0304	-0.7921	24.58	-0.03	-0.750			
0.0878	5617.03	4.0270	4.0269	-0.7862	24.58	-0.03	-0.750			
0.0901	5765.55	4.0240	4.0240	-0.7854	24.58	-0.03	-0.750			
0.0925	5917.48	4.0210	4.0208	-0.7840	24.58	-0.03	-0.750			
0.0948	6068.57	4.0180	4.0180	-0.7844	24.58	-0.03	-0.750			
0.0972	6218.37	4.0150	4.0150	-0.7853	24.58	-0.03	-0.750			
0.0995	6369.53	4.0120	4.0119	-0.7851	24.58	-0.03	-0.750			
0.1019	6519.64	4.0090	4.0090	-0.7953	24.59	-0.02	-0.750			
0.1042	6671.51	4.0060	4.0060	-0.7979	24.59	-0.02	-0.750			
0.1067	6826.01	4.0030	4.0030	-0.7950	24.59	-0.02	-0.750			
0.1091	6982.20	4.0000	3.9999	-0.8007	24.60	-0.01	-0.750			
0.1115	7134.83	3.9970	3.9970	-0.7997	24.60	-0.01	-0.750			
0.1139	7286.85	3.9940	3.9940	-0.8014	24.60	-0.01	-0.750			
0.1163	7441.12	3.9910	3.9909	-0.8046	24.60	-0.01	-0.750			
0.1186	7592.45	3.9880	3.9880	-0.8039	24.60	-0.01	-0.750			
0.1211	7752.16	3.9850	3.9849	-0.8089	24.60	-0.01	-0.750			
0.1236	7907.81	3.9820	3.9822	-0.8131	24.60	-0.01	-0.750			
0.1260	8061.73	3.9790	3.9790	-0.8218	24.61	-0.00	-0.750			
0.1285	8222.88	3.9760	3.9759	-0.8172	24.61	-0.00	-0.750			
0.1309	8379.42	3.9730	3.9729	-0.8123	24.61	0.00	-0.750			
0.1334	8535.36	3.9700	3.9700	-0.8168	24.62	0.01	-0.750			
0.1358	8693.33	3.9670	3.9672	-0.8176	24.62	0.01	-0.750			
0.1382	8847.81	3.9640	3.9638	-0.8326	24.62	0.01	-0.750			
0.1407	9007.05	3.9610	3.9610	-0.8256	24.62	0.01	-0.750			
0.1432	9166.00	3.9580	3.9580	-0.8251	24.62	0.01	-0.750			
0.1458	9330.65	3.9550	3.9547	-0.8323	24.62	0.01	-0.750			
0.1483	9491.51	3.9520	3.9520	-0.8277	24.62	0.01	-0.750			
0.1507	9645.33	3.9490	3.9490	-0.8361	24.62	0.01	-0.750			
0.1532	9805.55	3.9460	3.9460	-0.8333	24.63	0.02	-0.750			
0.1557	9962.31	3.9430	3.9429	-0.8248	24.63	0.02	-0.750			
0.1583	10128.32	3.9400	3.9400	-0.8456	24.64	0.03	-0.750			
0.1608	10292.58	3.9370	3.9371	-0.8470	24.64	0.03	-0.750			
0.1633	10453.65	3.9340	3.9340	-0.8530	24.64	0.03	-0.750			
0.1659	10617.85	3.9310	3.9309	-0.8474	24.64	0.03	-0.750			
0.1684	10778.27	3.9280	3.9281	-0.8411	24.64	0.03	-0.750			
0.1710	10942.73	3.9250	3.9248	-0.8516	24.64	0.03	-0.750			
0.1735	11106.25	3.9220	3.9220	-0.8509	24.64	0.03	-0.750			
0.1761	11268.86	3.9190	3.9189	-0.8546	24.64	0.03	-0.750			
0.1786	11433.47	3.9160	3.9158	-0.8573	24.64	0.03	-0.750			
0.1812	11598.88	3.9130	3.9130	-0.8421	24.64	0.03	-0.750			
0.1838	11764.97	3.9100	3.9098	-0.8498	24.64	0.03	-0.750			
0.1864	11927.44	3.9070	3.9068	-0.8493	24.64	0.03	-0.750			
0.1889	12087.56	3.9040	3.9040	-0.8610	24.65	0.04	-0.750			
0.1914	12251.97	3.9010	3.9007	-0.8583	24.65	0.04	-0.750			
0.1940	12416.83	3.8980	3.8980	-0.8525	24.65	0.04	-0.750			
0.1967	12587.47	3.8950	3.8950	-0.8673	24.66	0.05	-0.750			
0.1993	12754.94	3.8920	3.8920	-0.8672	24.66	0.05	-0.750			
0.2018	12918.11	3.8890	3.8890	-0.8689	24.67	0.06	-0.750			
0.2044	13083.10	3.8860	3.8859	-0.8695	24.67	0.06	-0.750			
0.2070	13249.51	3.8830	3.8829	-0.8736	24.67	0.06	-0.750			
0.2098	13424.37	3.8800	3.8801	-0.8831	24.68	0.07	-0.750			
0.2124	13591.32	3.8770	3.8770	-0.8837	24.68	0.07	-0.750			
0.2150	13762.22	3.8740	3.8741	-0.8828	24.68	0.07	-0.750			
0.2177	13931.16	3.8710	3.8709	-0.8800	24.69	0.08	-0.750			
0.2203	14098.73	3.8680	3.8678	-0.8766	24.69	0.08	-0.750			
0.2229	14266.85	3.8650	3.8655	-0.8734	24.69	0.08	-0.750			
0.2255	14433.97	3.8620	3.8621	-0.8737	24.69	0.08	-0.750			
0.2282	14603.08	3.8590	3.8590	-0.8793	24.69	0.08	-0.750			
0.2308	14770.76	3.8560	3.8558	-0.8738	24.70	0.09	-0.750			
0.2334	14938.09	3.8530	3.8530	-0.8756	24.70	0.09	-0.750			
0.2360	15106.11	3.8500	3.8500	-0.8750	24.70	0.09	-0.750			
0.2387	15275.11	3.8470	3.8471	-0.8829	24.71	0.10	-0.750			
0.2413	15444.91	3.8440	3.8439	-0.8818	24.71	0.10	-0.750			
0.2440	15613.65	3.8410	3.8409	-0.8777	24.71	0.10	-0.750			
0.2466	15783.22	3.8380	3.8379	-0.8793	24.72	0.11	-0.750			
0.2492	15948.22	3.8350	3.8350	-0.8924	24.72	0.11	-0.750			
0.2519	16121.30	3.8320	3.8320	-0.8874	24.72	0.11	-0.750			
0.2546	16293.71	3.8290	3.8288	-0.8809	24.72	0.11	-0.750			
0.2572	16461.36	3.8260	3.8260	-0.8753	24.72	0.11	-0.750			
0.2599	16631.37	3.8230	3.8233	-0.8787	24.72	0.11	-0.750			
0.2625	16799.77	3.8200	3.8198	-0.8716	24.72	0.11	-0.750			
0.2651	16965.33	3.8170	3.8169	-0.8708	24.73	0.12	-0.750			
0.2677	17131.89	3.8140	3.8140	-0.8662	24.73	0.12	-0.750			
0.2703	17301.15	3.8110	3.8109	-0.8712	24.74	0.13	-0.750			
0.2730	17468.83	3.8080	3.8083	-0.8658	24.74	0.13	-0.750			
0.2755	17632.76	3.8050	3.8050	-0.8593	24.74	0.13	-0.750			
0.2781	17798.23	3.8020	3.8019	-0.8619	24.75	0.14	-0.750			
0.2807	17963.33	3.7990	3.7990	-0.8565	24.75	0.14	-0.750			
0.2833	18128.50	3.7960	3.7958	-0.8584	24.76	0.15	-0.750			
0.2858	18292.44	3.7930	3.7932	-0.8541	24.76	0.15	-0.750			
0.2884	18454.58	3.7900	3.7899	-0.8621	24.76	0.15	-0.750			
0.2910	18622.19	3.7870	3.7868	-0.8540	24.76	0.15	-0.750			
0.2935	18783.78	3.7840	3.7841	-0.8468	24.76	0.15	-0.750			
0.2961	18951.10	3.7810	3.7808	-0.8492	24.76	0.15	-0.750			
0.2987	19115.65	3.7780	3.7779	-0.8417	24.76	0.15	-0.750			
0.3011	19273.24	3.7750	3.7749	-0.8416	24.77	0.16	-0.750			
0.3036	19432.05	3.7720	3.7721	-0.8293	24.77	0.16	-0.750			
0.3061	19588.80	3.7690	3.7689	-0.8183	24.77	0.16	-0.750			
0.3086	19751.67	3.7660	3.7659	-0.8245	24.78	0.17	-0.750			
0.3111	19907.61	3.7630	3.7631	-0.8215	24.78	0.17	-0.750			
0.3135	20063.55	3.7600	3.7600	-0.8294	24.79	0.18	-0.750			
0.3160	20224.58	3.7570	3.7568	-0.8245	24.79	0.18	-0.750			
0.3185	20380.88	3.7540	3.7540	-0.8167	24.79	0.18	-0.750			
0.3209	20540.45	3.7510	3.7509	-0.8323	24.80	0.19	-0.750			
0.3235	20700.88	3.7480	3.7482	-0.8386	24.80	0.19	-0.750			
0.3260	20861.61	3.7450	3.7448	-0.8520	24.80	0.19	-0.750			
0.3285	21025.25	3.7420	3.7419	-0.8517	24.80	0.19	-0.750			
0.3311	21190.32	3.7390	3.7390	-0.8545	24.81	0.20	-0.750			
0.3337	21359.02	3.7360	3.7359	-0.8694	24.81	0.20	-0.750			
0.3363	21525.57	3.7330	3.7328	-0.8783	24.81	0.20	-0.750			
0.3389	21692.27	3.7300	3.7299	-0.8876	24.81	0.20	-0.750			
0.3416	21861.00	3.7270	3.7269	-0.8945	24.82	0.21	-0.750			
0.3443	22036.56	3.7240	3.7239	-0.9169	24.82	0.21	-0.750			
0.3471	22214.71	3.7210	3.7210	-0.9299	24.82	0.21	-0.750			
0.3499	22391.83	3.7180	3.7179	-0.9462	24.82	0.21	-0.750			
0.3527	22575.36	3.7150	3.7148	-0.9518	24.81	0.20	-0.750			
0.3556	22757.46	3.7120	3.7120	-0.9641	24.81	0.20	-0.750			
0.3585	22943.31	3.7090	3.7090	-0.9825	24.80	0.19	-0.750			
0.3615	23137.69	3.7060	3.7059	-1.0115	24.80	0.19	-0.750			
0.3646	23333.68	3.7030	3.7028	-1.0197	24.80	0.19	-0.750			
0.3676	23529.23	3.7000	3.6999	-1.0324	24.80	0.19	-0.750	0.380	0.497	
0.3707	23727.51	3.6970	3.6968	-1.0462	24.80	0.19	-0.750			
0.3739	23932.11	3.6940	3.6937	-1.0775	24.80	0.19	-0.750			
0.3771	24137.56	3.6910	3.6911	-1.0901	24.79	0.18	-0.750			
0.3805	24352.14	3.6880	3.6879	-1.1158	24.79	0.18	-0.750			
0.3838	24564.86	3.6850	3.6851	-1.1269	24.78	0.17	-0.750			
0.3873	24790.15	3.6820	3.6819	-1.1753	24.78	0.17	-0.750			
0.3909	25018.06	3.6790	3.6789	-1.1873	24.78	0.17	-0.750			
0.3945	25248.74	3.6760	3.6758	-1.2013	24.77	0.16	-0.750			
0.3981	25480.78	3.6730	3.6734	-1.2328	24.77	0.16	-0.750			
0.4019	25723.70	3.6700	3.6698	-1.2623	24.76	0.15	-0.750			
0.4057	25966.91	3.6670	3.6668	-1.2816	24.75	0.14	-0.750			
0.4095	26210.05	3.6640	3.6639	-1.3131	24.74	0.13	-0.750			
0.4136	26473.32	3.6610	3.6608	-1.3290	24.73	0.12	-0.750			
0.4178	26737.73	3.6580	3.6578	-1.2824	24.73	0.12	-0.750			
0.4216	26980.84	3.6550	3.6553	-1.2859	24.72	0.11	-0.750			
0.4253	27220.90	3.6520	3.6525	-1.3061	24.71	0.10	-0.750			
0.4291	27461.27	3.6490	3.6483	-1.3493	24.70	0.09	-0.750			
0.4332	27722.15	3.6460	3.6453	-1.3723	24.69	0.08	-0.750			
0.4374	27992.26	3.6430	3.6427	-1.4420	24.68	0.07	-0.750			
0.4421	28295.38	3.6400	3.6406	-1.5427	24.67	0.06	-0.750			
0.4470	28605.88	3.6370	3.6366	-1.5625	24.66	0.05	-0.750			
0.4517	28906.80	3.6340	3.6336	-1.5916	24.65	0.04	-0.750			
0.4563	29204.24	3.6310	3.6310	-1.6035	24.63	0.02	-0.750			
0.4613	29524.77	3.6280	3.6277	-1.6594	24.62	0.01	-0.750			
0.4662	29837.13	3.6250	3.6255	-1.7536	24.61	0.00	-0.750			
0.4715	30177.61	3.6220	3.6222	-1.7066	24.60	-0.01	-0.750			
0.4768	30517.17	3.6190	3.6192	-1.7404	24.59	-0.02	-0.750			
0.4823	30864.62	3.6160	3.6167	-1.7640	24.58	-0.03	-0.750			
0.4875	31200.05	3.6130	3.6130	-1.8220	24.57	-0.04	-0.750			
0.4930	31550.53	3.6100	3.6102	-1.8226	24.56	-0.05	-0.750			
0.4984	31900.54	3.6070	3.6070	-1.8802	24.55	-0.06	-0.750			
0.5044	32282.34	3.6040	3.6036	-1.9587	24.54	-0.07	-0.750			
0.5104	32667.90	3.6010	3.6012	-1.9910	24.53	-0.08	-0.750			
0.5165	33054.43	3.5980	3.5983	-1.9967	24.52	-0.09	-0.750			
0.5223	33424.50	3.5950	3.5955	-2.0424	24.52	-0.09	-0.750			
0.5287	33836.31	3.5920	3.5916	-2.0878	24.51	-0.10	-0.750			
0.5347	34223.33	3.5890	3.5888	-2.1781	24.50	-0.11	-0.750			
0.5411	34631.39	3.5860	3.5866	-2.2467	24.49	-0.12	-0.750			
0.5481	35076.18	3.5830	3.5831	-2.2147	24.48	-0.13	-0.750			
0.5548	35507.74	3.5800	3.5796	-2.2348	24.47	-0.14	-0.750			
0.5615	35934.67	3.5770	3.5765	-2.3021	24.46	-0.15	-0.750			
0.5684	36380.09	3.5740	3.5738	-2.2796	24.46	-0.15	-0.750			
0.5748	36789.77	3.5710	3.5712	-2.2355	24.46	-0.15	-0.750			
0.5821	37251.31	3.5680	3.5681	-2.3376	24.44	-0.17	-0.750			
0.5887	37677.82	3.5650	3.5648	-2.2885	24.44	-0.17	-0.750			
0.5957	38127.18	3.5620	3.5625	-2.3374	24.44	-0.17	-0.750			
0.6028	38576.92	3.5590	3.5589	-2.3730	24.44	-0.17	-0.750			
0.6094	39003.46	3.5560	3.5557	-2.3019	24.44	-0.17	-0.750			
0.6163	39446.37	3.5530	3.5528	-2.3448	24.44	-0.17	-0.750			
0.6236	39913.54	3.5500	3.5497	-2.2571	24.44	-0.17	-0.750			
0.6303	40341.01	3.5470	3.5467	-2.2005	24.44	-0.17	-0.750			
0.6370	40767.54	3.5440	3.5436	-2.1738	24.44	-0.17	-0.750			
0.6434	41177.54	3.5410	3.5412	-2.1639	24.44	-0.17	-0.750			
0.6499	41592.38	3.5380	3.5377	-2.1621	24.44	-0.17	-0.750			
0.6565	42016.36	3.5350	3.5346	-2.1563	24.45	-0.16	-0.750			
0.6629	42427.89	3.5320	3.5315	-2.0778	24.46	-0.15	-0.750			
0.6693	42835.72	3.5290	3.5288	-2.0086	24.46	-0.15	-0.750			
0.6750	43198.46	3.5260	3.5259	-1.9059	24.46	-0.15	-0.750			
0.6806	43555.22	3.5230	3.5229	-1.8744	24.47	-0.14	-0.750			
0.6861	43908.54	3.5200	3.5199	-1.8016	24.48	-0.13	-0.750			
0.6914	44248.30	3.5170	3.5172	-1.7732	24.50	-0.11	-0.750			
0.6969	44601.81	3.5140	3.5136	-1.7417	24.51	-0.10	-0.750			
0.7020	44931.19	3.5110	3.5117	-1.6815	24.52	-0.09	-0.750			
0.7069	45241.38	3.5080	3.5081	-1.5892	24.53	-0.08	-0.750			
0.7117	45546.55	3.5050	3.5047	-1.5361	24.55	-0.06	-0.750			
0.7162	45836.53	3.5020	3.5016	-1.4926	24.56	-0.05	-0.750			
0.7206	46121.52	3.4990	3.4988	-1.4545	24.58	-0.03	-0.750			
0.7250	46400.80	3.4960	3.4958	-1.4178	24.60	-0.01	-0.750			
0.7290	46656.64	3.4930	3.4930	-1.4143	24.62	0.01	-0.750			
0.7333	46929.77	3.4900	3.4900	-1.4424	24.63	0.02	-0.750			
