Ah_balance (normalized)	Ah_balance (mAh)	Voltage - fit (V)	Voltage -  interpolate (V)	dQ/dV (1/V)	Temperature (°C)	Temperature - diff (°C)	Current (C)	R_DC 0ms (mOhm)	R_DC 50ms (mOhm)	R_DC 50 ms PEC (mOhm)
0.0003	18.59	4.1620	4.1617	-0.1186	24.82	0.00	-0.750			
0.0007	44.96	4.1590	4.1590	-0.1588	24.82	0.00	-0.750			
0.0013	80.40	4.1560	4.1559	-0.2001	24.82	-0.00	-0.750			
0.0019	122.90	4.1530	4.1530	-0.2382	24.82	-0.00	-0.750			
0.0027	172.24	4.1500	4.1500	-0.2771	24.81	-0.01	-0.750			
0.0036	229.23	4.1470	4.1471	-0.3166	24.81	-0.01	-0.750			
0.0046	293.95	4.1440	4.1440	-0.3543	24.81	-0.01	-0.750			
0.0057	365.76	4.1410	4.1410	-0.3914	24.80	-0.02	-0.750			
0.0070	445.62	4.1380	4.1379	-0.4256	24.80	-0.02	-0.750			
0.0083	531.09	4.1350	4.1351	-0.4616	24.80	-0.02	-0.750			
0.0098	625.01	4.1320	4.1319	-0.4906	24.79	-0.03	-0.750			
0.0113	722.15	4.1290	4.1290	-0.5149	24.79	-0.03	-0.750			
0.0129	824.18	4.1260	4.1259	-0.5378	24.78	-0.04	-0.750			
0.0145	929.65	4.1230	4.1230	-0.5585	24.78	-0.04	-0.750			
0.0162	1038.97	4.1200	4.1200	-0.5776	24.78	-0.04	-0.750			
0.0180	1152.15	4.1170	4.1170	-0.5940	24.77	-0.05	-0.750			
0.0198	1267.70	4.1140	4.1140	-0.6130	24.77	-0.05	-0.750			
0.0217	1391.14	4.1110	4.1109	-0.6286	24.77	-0.05	-0.750			
0.0236	1512.63	4.1080	4.1080	-0.6362	24.76	-0.06	-0.750			
0.0256	1636.12	4.1050	4.1052	-0.6471	24.76	-0.06	-0.750			
0.0275	1761.11	4.1020	4.1019	-0.6523	24.76	-0.06	-0.750			
0.0295	1885.94	4.0990	4.0990	-0.6598	24.76	-0.06	-0.750			
0.0314	2012.30	4.0960	4.0960	-0.6741	24.76	-0.06	-0.750			
0.0335	2145.20	4.0930	4.0930	-0.6864	24.76	-0.06	-0.750			
0.0356	2278.58	4.0900	4.0899	-0.6912	24.76	-0.06	-0.750			
0.0377	2412.19	4.0870	4.0870	-0.6950	24.76	-0.06	-0.750			
0.0398	2546.23	4.0840	4.0840	-0.6956	24.76	-0.06	-0.750			
0.0419	2679.70	4.0810	4.0809	-0.6992	24.76	-0.06	-0.750			
0.0439	2812.04	4.0780	4.0781	-0.7052	24.76	-0.06	-0.750			
0.0460	2946.97	4.0750	4.0750	-0.7093	24.76	-0.06	-0.750			
0.0483	3088.22	4.0720	4.0718	-0.7172	24.76	-0.06	-0.750			
0.0504	3225.84	4.0690	4.0692	-0.7184	24.76	-0.06	-0.750			
0.0526	3363.37	4.0660	4.0660	-0.7246	24.76	-0.06	-0.750			
0.0547	3502.76	4.0630	4.0631	-0.7285	24.76	-0.06	-0.750			
0.0569	3641.20	4.0600	4.0599	-0.7348	24.76	-0.06	-0.750			
0.0591	3784.21	4.0570	4.0569	-0.7365	24.77	-0.05	-0.750			
0.0614	3928.92	4.0540	4.0540	-0.7425	24.77	-0.05	-0.750			
0.0636	4071.73	4.0510	4.0513	-0.7392	24.77	-0.05	-0.750			
0.0658	4213.58	4.0480	4.0479	-0.7394	24.77	-0.05	-0.750			
0.0680	4353.62	4.0450	4.0450	-0.7434	24.77	-0.05	-0.750			
0.0703	4496.65	4.0420	4.0417	-0.7358	24.78	-0.04	-0.750			
0.0725	4639.79	4.0390	4.0390	-0.7415	24.78	-0.04	-0.750			
0.0747	4781.20	4.0360	4.0360	-0.7470	24.78	-0.04	-0.750			
0.0770	4925.28	4.0330	4.0330	-0.7492	24.78	-0.04	-0.750			
0.0792	5068.51	4.0300	4.0298	-0.7583	24.78	-0.04	-0.750			
0.0814	5212.69	4.0270	4.0271	-0.7551	24.78	-0.04	-0.750			
0.0837	5359.00	4.0240	4.0240	-0.7585	24.79	-0.03	-0.750			
0.0861	5507.87	4.0210	4.0210	-0.7650	24.79	-0.03	-0.750			
0.0884	5654.58	4.0180	4.0184	-0.7606	24.79	-0.03	-0.750			
0.0906	5798.97	4.0150	4.0150	-0.7619	24.79	-0.03	-0.750			
0.0929	5946.50	4.0120	4.0120	-0.7645	24.79	-0.03	-0.750			
0.0952	6091.91	4.0090	4.0089	-0.7672	24.80	-0.02	-0.750			
0.0975	6241.46	4.0060	4.0060	-0.7753	24.80	-0.02	-0.750			
0.0998	6390.31	4.0030	4.0030	-0.7718	24.80	-0.02	-0.750			
0.1022	6539.02	4.0000	3.9998	-0.7765	24.80	-0.02	-0.750			
0.1045	6689.25	3.9970	3.9970	-0.7752	24.81	-0.01	-0.750			
0.1068	6835.82	3.9940	3.9940	-0.7719	24.81	-0.01	-0.750			
0.1091	6984.29	3.9910	3.9910	-0.7735	24.81	-0.01	-0.750			
0.1114	7132.51	3.9880	3.9881	-0.7761	24.82	-0.00	-0.750			
0.1138	7282.19	3.9850	3.9849	-0.7820	24.82	0.00	-0.750			
0.1161	7433.57	3.9820	3.9820	-0.7880	24.82	0.00	-0.750			
0.1185	7585.65	3.9790	3.9790	-0.7917	24.83	0.01	-0.750			
0.1209	7740.29	3.9760	3.9760	-0.7888	24.83	0.01	-0.750			
0.1233	7892.82	3.9730	3.9729	-0.7908	24.84	0.02	-0.750			
0.1257	8044.01	3.9700	3.9704	-0.7915	24.84	0.02	-0.750			
0.1280	8194.21	3.9670	3.9669	-0.7889	24.84	0.02	-0.750			
0.1304	8345.11	3.9640	3.9639	-0.7940	24.85	0.03	-0.750			
0.1328	8496.45	3.9610	3.9611	-0.7969	24.85	0.03	-0.750			
0.1352	8654.61	3.9580	3.9579	-0.8065	24.86	0.04	-0.750			
0.1376	8808.56	3.9550	3.9549	-0.8055	24.86	0.04	-0.750			
0.1400	8963.14	3.9520	3.9520	-0.8009	24.86	0.04	-0.750			
0.1424	9115.94	3.9490	3.9490	-0.8069	24.87	0.05	-0.750			
0.1449	9271.22	3.9460	3.9459	-0.8059	24.87	0.05	-0.750			
0.1473	9425.99	3.9430	3.9430	-0.8050	24.87	0.05	-0.750			
0.1497	9582.32	3.9400	3.9399	-0.8062	24.88	0.06	-0.750			
0.1521	9736.93	3.9370	3.9370	-0.8085	24.88	0.06	-0.750			
0.1545	9889.62	3.9340	3.9340	-0.8136	24.88	0.06	-0.750			
0.1570	10048.10	3.9310	3.9310	-0.8140	24.88	0.06	-0.750			
0.1594	10202.33	3.9280	3.9280	-0.8151	24.88	0.06	-0.750			
0.1619	10363.06	3.9250	3.9249	-0.8152	24.88	0.06	-0.750			
0.1644	10520.03	3.9220	3.9220	-0.8186	24.88	0.06	-0.750			
0.1668	10675.50	3.9190	3.9190	-0.8226	24.89	0.07	-0.750			
0.1693	10835.77	3.9160	3.9158	-0.8065	24.89	0.07	-0.750			
0.1717	10989.40	3.9130	3.9130	-0.7961	24.90	0.08	-0.750			
0.1742	11148.85	3.9100	3.9099	-0.7592	24.91	0.09	-0.750			
0.1764	11291.12	3.9070	3.9071	-0.7372	24.91	0.09	-0.750			
0.1785	11424.93	3.9040	3.9042	-0.7367	24.91	0.09	-0.750			
0.1805	11553.92	3.9010	3.9005	-0.7298	24.92	0.10	-0.750			
0.1827	11690.62	3.8980	3.8977	-0.7415	24.92	0.10	-0.750			
0.1850	11840.99	3.8950	3.8950	-0.7734	24.92	0.10	-0.750			
0.1874	11995.04	3.8920	3.8921	-0.7953	24.93	0.11	-0.750			
0.1899	12156.32	3.8890	3.8889	-0.8205	24.93	0.11	-0.750			
0.1924	12311.85	3.8860	3.8860	-0.8186	24.93	0.11	-0.750			
0.1949	12471.38	3.8830	3.8829	-0.8155	24.94	0.12	-0.750			
0.1973	12627.08	3.8800	3.8800	-0.8137	24.94	0.12	-0.750			
0.1998	12786.19	3.8770	3.8771	-0.8164	24.94	0.12	-0.750			
0.2022	12941.48	3.8740	3.8738	-0.8100	24.94	0.12	-0.750			
0.2046	13096.80	3.8710	3.8709	-0.8206	24.95	0.13	-0.750			
0.2071	13254.12	3.8680	3.8679	-0.8144	24.95	0.13	-0.750			
0.2096	13412.65	3.8650	3.8648	-0.8024	24.95	0.13	-0.750			
0.2121	13571.57	3.8620	3.8620	-0.8086	24.96	0.14	-0.750			
0.2144	13723.24	3.8590	3.8588	-0.7965	24.96	0.14	-0.750			
0.2168	13873.51	3.8560	3.8559	-0.7910	24.96	0.14	-0.750			
0.2191	14022.04	3.8530	3.8529	-0.7949	24.96	0.14	-0.750			
0.2214	14172.27	3.8500	3.8500	-0.7798	24.97	0.15	-0.750			
0.2239	14331.47	3.8470	3.8469	-0.7950	24.97	0.15	-0.750			
0.2263	14482.87	3.8440	3.8442	-0.7962	24.97	0.15	-0.750			
0.2287	14634.83	3.8410	3.8410	-0.7885	24.97	0.15	-0.750			
0.2310	14786.45	3.8380	3.8378	-0.7980	24.98	0.16	-0.750			
0.2334	14939.98	3.8350	3.8350	-0.7858	24.98	0.16	-0.750			
0.2358	15093.12	3.8320	3.8319	-0.7846	24.99	0.17	-0.750			
0.2382	15244.41	3.8290	3.8295	-0.7793	24.99	0.17	-0.750			
0.2405	15391.62	3.8260	3.8259	-0.7730	24.99	0.17	-0.750			
0.2428	15537.91	3.8230	3.8229	-0.7772	24.99	0.17	-0.750			
0.2451	15686.42	3.8200	3.8198	-0.7700	25.00	0.18	-0.750			
0.2474	15835.91	3.8170	3.8169	-0.7742	25.00	0.18	-0.750			
0.2498	15986.30	3.8140	3.8141	-0.7688	25.00	0.18	-0.750			
0.2521	16133.62	3.8110	3.8108	-0.7666	25.00	0.18	-0.750			
0.2544	16278.97	3.8080	3.8079	-0.7618	25.01	0.19	-0.750			
0.2566	16420.64	3.8050	3.8050	-0.7529	25.01	0.19	-0.750			
0.2588	16565.06	3.8020	3.8021	-0.7543	25.01	0.19	-0.750			
0.2612	16715.59	3.7990	3.7989	-0.7605	25.02	0.20	-0.750			
0.2634	16859.60	3.7960	3.7961	-0.7559	25.02	0.20	-0.750			
0.2657	17003.85	3.7930	3.7929	-0.7606	25.02	0.20	-0.750			
0.2679	17148.69	3.7900	3.7902	-0.7653	25.02	0.20	-0.750			
0.2702	17295.54	3.7870	3.7869	-0.7693	25.03	0.21	-0.750			
0.2726	17446.22	3.7840	3.7839	-0.7788	25.03	0.21	-0.750			
0.2750	17596.93	3.7810	3.7811	-0.7786	25.03	0.21	-0.750			
0.2773	17747.80	3.7780	3.7779	-0.7843	25.03	0.21	-0.750			
0.2796	17895.23	3.7750	3.7750	-0.7915	25.03	0.21	-0.750			
0.2820	18045.31	3.7720	3.7720	-0.7874	25.03	0.21	-0.750			
0.2844	18199.09	3.7690	3.7689	-0.7893	25.04	0.22	-0.750			
0.2868	18353.03	3.7660	3.7659	-0.7971	25.04	0.22	-0.750			
0.2892	18505.72	3.7630	3.7629	-0.7976	25.04	0.22	-0.750			
0.2915	18658.58	3.7600	3.7600	-0.8053	25.04	0.22	-0.750			
0.2939	18811.50	3.7570	3.7569	-0.8099	25.04	0.22	-0.750			
0.2963	18965.58	3.7540	3.7539	-0.8102	25.04	0.22	-0.750			
0.2988	19125.33	3.7510	3.7510	-0.8255	25.04	0.22	-0.750			
0.3013	19285.33	3.7480	3.7482	-0.8334	25.04	0.22	-0.750			
0.3038	19441.88	3.7450	3.7452	-0.8579	25.04	0.22	-0.750			
0.3064	19611.38	3.7420	3.7419	-0.8623	25.04	0.22	-0.750			
0.3090	19776.16	3.7390	3.7388	-0.8683	25.03	0.21	-0.750			
0.3117	19945.94	3.7360	3.7359	-0.8752	25.03	0.21	-0.750			
0.3143	20115.27	3.7330	3.7330	-0.8836	25.03	0.21	-0.750			
0.3170	20288.20	3.7300	3.7299	-0.8963	25.03	0.21	-0.750			
0.3197	20461.67	3.7270	3.7269	-0.8960	25.02	0.20	-0.750			
0.3224	20631.76	3.7240	3.7239	-0.9083	25.02	0.20	-0.750			
0.3251	20805.42	3.7210	3.7208	-0.9151	25.02	0.20	-0.750			
0.3278	20979.55	3.7180	3.7179	-0.9274	25.02	0.20	-0.750			
0.3306	21158.36	3.7150	3.7148	-0.9407	25.01	0.19	-0.750			
0.3334	21337.37	3.7120	3.7120	-0.9496	25.01	0.19	-0.750			
0.3363	21525.54	3.7090	3.7090	-0.9755	25.00	0.18	-0.750			
0.3393	21713.84	3.7060	3.7061	-0.9901	25.00	0.18	-0.750			
0.3423	21907.79	3.7030	3.7029	-1.0072	24.99	0.17	-0.750			
0.3454	22104.29	3.7000	3.6998	-1.0180	24.99	0.17	-0.750			
0.3484	22299.62	3.6970	3.6980	-1.0268	24.98	0.16	-0.750	0.400	0.557	
0.3515	22497.57	3.6940	3.6942	-1.0569	24.98	0.16	-0.750			
0.3548	22705.46	3.6910	3.6908	-1.0583	24.97	0.15	-0.750			
0.3579	22907.23	3.6880	3.6879	-1.0624	24.97	0.15	-0.750			
0.3611	23108.50	3.6850	3.6849	-1.0613	24.96	0.14	-0.750			
0.3643	23317.24	3.6820	3.6820	-1.1010	24.96	0.14	-0.750			
0.3676	23527.74	3.6790	3.6788	-1.1130	24.95	0.13	-0.750			
0.3710	23741.62	3.6760	3.6759	-1.1284	24.94	0.12	-0.750			
0.3743	23952.37	3.6730	3.6731	-1.1627	24.93	0.11	-0.750			
0.3780	24191.75	3.6700	3.6700	-1.1925	24.93	0.11	-0.750			
0.3816	24420.84	3.6670	3.6669	-1.1996	24.93	0.11	-0.750			
0.3852	24652.78	3.6640	3.6639	-1.2127	24.92	0.10	-0.750			
0.3888	24885.52	3.6610	3.6612	-1.2489	24.92	0.10	-0.750			
0.3927	25133.21	3.6580	3.6578	-1.2664	24.91	0.09	-0.750			
0.3965	25378.26	3.6550	3.6548	-1.2778	24.89	0.07	-0.750			
0.4004	25625.77	3.6520	3.6523	-1.3073	24.88	0.06	-0.750			
0.4043	25877.18	3.6490	3.6487	-1.3173	24.87	0.05	-0.750			
0.4081	26117.44	3.6460	3.6461	-1.3437	24.87	0.05	-0.750			
0.4122	26379.52	3.6430	3.6430	-1.3693	24.86	0.04	-0.750			
0.4165	26653.72	3.6400	3.6398	-1.4051	24.85	0.03	-0.750			
0.4206	26920.93	3.6370	3.6367	-1.4563	24.85	0.03	-0.750			
0.4251	27208.98	3.6340	3.6342	-1.4531	24.84	0.02	-0.750			
0.4295	27486.31	3.6310	3.6307	-1.4769	24.83	0.01	-0.750			
0.4339	27769.55	3.6280	3.6278	-1.4927	24.83	0.01	-0.750			
0.4383	28049.42	3.6250	3.6261	-1.4959	24.82	-0.00	-0.750			
0.4430	28351.88	3.6220	3.6218	-1.5427	24.81	-0.01	-0.750			
0.4477	28655.64	3.6190	3.6187	-1.5980	24.80	-0.02	-0.750			
0.4525	28962.10	3.6160	3.6159	-1.6285	24.80	-0.02	-0.750			
0.4577	29289.71	3.6130	3.6128	-1.6962	24.79	-0.03	-0.750			
0.4629	29623.85	3.6100	3.6102	-1.7001	24.79	-0.03	-0.750			
0.4681	29957.48	3.6070	3.6073	-1.7319	24.78	-0.04	-0.750			
0.4734	30295.51	3.6040	3.6045	-1.7227	24.77	-0.05	-0.750			
0.4785	30623.86	3.6010	3.6010	-1.7425	24.77	-0.05	-0.750			
0.4837	30959.05	3.5980	3.5984	-1.7895	24.76	-0.06	-0.750			
0.4891	31301.09	3.5950	3.5947	-1.8425	24.76	-0.06	-0.750			
0.4948	31665.63	3.5920	3.5921	-1.8930	24.75	-0.07	-0.750			
0.5006	32039.40	3.5890	3.5892	-1.9074	24.74	-0.08	-0.750			
0.5064	32409.46	3.5860	3.5862	-1.9478	24.73	-0.09	-0.750			
0.5123	32787.65	3.5830	3.5835	-1.9533	24.72	-0.10	-0.750			
0.5180	33150.81	3.5800	3.5802	-1.9722	24.72	-0.10	-0.750			
0.5241	33542.22	3.5770	3.5772	-1.9838	24.72	-0.10	-0.750			
0.5300	33920.40	3.5740	3.5740	-1.9722	24.72	-0.10	-0.750			
0.5361	34312.99	3.5710	3.5708	-2.0545	24.71	-0.11	-0.750			
0.5423	34706.18	3.5680	3.5678	-2.0808	24.71	-0.11	-0.750			
0.5486	35111.78	3.5650	3.5648	-2.1004	24.71	-0.11	-0.750			
0.5550	35518.73	3.5620	3.5624	-2.1097	24.71	-0.11	-0.750			
0.5612	35918.26	3.5590	3.5590	-2.0476	24.71	-0.11	-0.750			
0.5671	36296.10	3.5560	3.5558	-2.0447	24.71	-0.11	-0.750			
0.5732	36687.55	3.5530	3.5530	-2.0361	24.71	-0.11	-0.750			
0.5795	37085.51	3.5500	3.5499	-2.0405	24.71	-0.11	-0.750			
0.5857	37486.32	3.5470	3.5471	-2.0055	24.72	-0.10	-0.750			
0.5916	37864.94	3.5440	3.5440	-1.9688	24.72	-0.10	-0.750			
0.5976	38246.17	3.5410	3.5413	-1.9664	24.72	-0.10	-0.750			
0.6034	38616.00	3.5380	3.5383	-1.9248	24.72	-0.10	-0.750			
0.6092	38991.27	3.5350	3.5355	-1.9220	24.73	-0.09	-0.750			
0.6150	39360.56	3.5320	3.5315	-1.8820	24.74	-0.08	-0.750			
0.6207	39722.42	3.5290	3.5285	-1.8492	24.75	-0.07	-0.750			
0.6260	40065.99	3.5260	3.5265	-1.8295	24.76	-0.06	-0.750			
0.6314	40408.81	3.5230	3.5227	-1.7919	24.77	-0.05	-0.750			
0.6367	40751.57	3.5200	3.5204	-1.7497	24.78	-0.04	-0.750			
0.6419	41078.97	3.5170	3.5171	-1.7029	24.79	-0.03	-0.750			
0.6472	41417.90	3.5140	3.5143	-1.6683	24.81	-0.01	-0.750			
0.6523	41746.08	3.5110	3.5106	-1.6412	24.82	0.00	-0.750			
0.6570	42047.89	3.5080	3.5076	-1.5772	24.84	0.02	-0.750			
0.6617	42346.08	3.5050	3.5047	-1.5261	24.85	0.03	-0.750			
0.6664	42648.09	3.5020	3.5020	-1.5000	24.87	0.05	-0.750			
0.6706	42915.21	3.4990	3.4991	-1.4186	24.88	0.06	-0.750			
0.6747	43183.81	3.4960	3.4960	-1.3887	24.90	0.08	-0.750			
0.6791	43460.45	3.4930	3.4928	-1.3792	24.91	0.09	-0.750			
0.6830	43710.12	3.4900	3.4900	-1.3239	24.92	0.10	-0.750			
0.6869	43961.40	3.4870	3.4872	-1.2975	24.94	0.12	-0.750			
0.6908	44211.38	3.4840	3.4839	-1.2516	24.95	0.13	-0.750			
0.6944	44441.66	3.4810	3.4810	-1.1056	24.96	0.14	-0.750			
