Ah_balance (normalized)	Ah_balance (mAh)	Voltage - fit (V)	Voltage -  interpolate (V)	dQ/dV (1/V)	Temperature (°C)	Temperature - diff (°C)	Current (C)	R_DC 0ms (mOhm)	R_DC 50ms (mOhm)	R_DC 50 ms PEC (mOhm)
0.0002	11.37	4.1600	4.1602	-0.1205	25.37	0.02	-0.750			
0.0006	38.86	4.1570	4.1570	-0.1618	25.37	0.02	-0.750			
0.0012	74.46	4.1540	4.1540	-0.1979	25.37	0.02	-0.750			
0.0018	115.38	4.1510	4.1509	-0.2318	25.37	0.02	-0.750			
0.0025	162.39	4.1480	4.1482	-0.2701	25.36	0.01	-0.750			
0.0034	218.24	4.1450	4.1449	-0.3088	25.36	0.01	-0.750			
0.0044	280.99	4.1420	4.1419	-0.3442	25.36	0.01	-0.750			
0.0055	350.81	4.1390	4.1390	-0.3794	25.35	0.00	-0.750			
0.0067	428.21	4.1360	4.1362	-0.4155	25.35	-0.00	-0.750			
0.0080	512.35	4.1330	4.1327	-0.4460	25.35	-0.00	-0.750			
0.0094	600.00	4.1300	4.1302	-0.4771	25.34	-0.01	-0.750			
0.0108	694.37	4.1270	4.1272	-0.5042	25.34	-0.01	-0.750			
0.0125	797.01	4.1240	4.1239	-0.5343	25.33	-0.02	-0.750			
0.0141	901.69	4.1210	4.1211	-0.5557	25.33	-0.02	-0.750			
0.0158	1010.40	4.1180	4.1180	-0.5726	25.32	-0.03	-0.750			
0.0175	1122.18	4.1150	4.1150	-0.5887	25.31	-0.04	-0.750			
0.0194	1238.40	4.1120	4.1121	-0.6048	25.31	-0.04	-0.750			
0.0212	1354.71	4.1090	4.1088	-0.6166	25.31	-0.04	-0.750			
0.0230	1471.39	4.1060	4.1062	-0.6458	25.31	-0.04	-0.750			
0.0250	1599.70	4.1030	4.1031	-0.6584	25.31	-0.04	-0.750			
0.0270	1730.78	4.1000	4.0997	-0.6662	25.30	-0.05	-0.750			
0.0291	1861.58	4.0970	4.0969	-0.6727	25.30	-0.05	-0.750			
0.0311	1991.56	4.0940	4.0942	-0.6787	25.30	-0.05	-0.750			
0.0332	2122.78	4.0910	4.0906	-0.6739	25.30	-0.05	-0.750			
0.0352	2249.93	4.0880	4.0881	-0.6726	25.30	-0.05	-0.750			
0.0371	2376.90	4.0850	4.0851	-0.6775	25.30	-0.05	-0.750			
0.0392	2511.24	4.0820	4.0819	-0.6917	25.30	-0.05	-0.750			
0.0413	2642.52	4.0790	4.0788	-0.6990	25.30	-0.05	-0.750			
0.0434	2776.39	4.0760	4.0759	-0.7016	25.30	-0.05	-0.750			
0.0455	2912.30	4.0730	4.0728	-0.7039	25.30	-0.05	-0.750			
0.0477	3050.16	4.0700	4.0700	-0.7138	25.30	-0.05	-0.750			
0.0498	3184.56	4.0670	4.0671	-0.7199	25.30	-0.05	-0.750			
0.0519	3324.00	4.0640	4.0640	-0.7178	25.30	-0.05	-0.750			
0.0541	3463.32	4.0610	4.0609	-0.7355	25.30	-0.05	-0.750			
0.0563	3603.88	4.0580	4.0583	-0.7471	25.30	-0.05	-0.750			
0.0586	3750.20	4.0550	4.0549	-0.7601	25.30	-0.05	-0.750			
0.0609	3899.24	4.0520	4.0517	-0.7650	25.30	-0.05	-0.750			
0.0633	4048.38	4.0490	4.0492	-0.7628	25.30	-0.05	-0.750			
0.0656	4197.28	4.0460	4.0460	-0.7679	25.30	-0.05	-0.750			
0.0679	4344.73	4.0430	4.0429	-0.7606	25.30	-0.05	-0.750			
0.0701	4485.22	4.0400	4.0398	-0.7425	25.30	-0.05	-0.750			
0.0723	4627.75	4.0370	4.0369	-0.7413	25.30	-0.05	-0.750			
0.0745	4769.92	4.0340	4.0341	-0.7435	25.30	-0.05	-0.750			
0.0768	4912.20	4.0310	4.0310	-0.7445	25.29	-0.06	-0.750			
0.0790	5058.16	4.0280	4.0280	-0.7485	25.29	-0.06	-0.750			
0.0813	5200.52	4.0250	4.0252	-0.7491	25.29	-0.06	-0.750			
0.0835	5344.50	4.0220	4.0219	-0.7530	25.29	-0.06	-0.750			
0.0858	5489.13	4.0190	4.0191	-0.7578	25.29	-0.06	-0.750			
0.0880	5634.81	4.0160	4.0159	-0.7577	25.30	-0.05	-0.750			
0.0903	5779.78	4.0130	4.0131	-0.7597	25.30	-0.05	-0.750			
0.0926	5927.26	4.0100	4.0100	-0.7644	25.30	-0.05	-0.750			
0.0949	6074.50	4.0070	4.0070	-0.7653	25.30	-0.05	-0.750			
0.0972	6220.10	4.0040	4.0040	-0.7711	25.31	-0.04	-0.750			
0.0995	6369.71	4.0010	4.0010	-0.7737	25.31	-0.04	-0.750			
0.1019	6520.55	3.9980	3.9979	-0.7687	25.31	-0.04	-0.750			
0.1042	6669.47	3.9950	3.9950	-0.7644	25.32	-0.03	-0.750			
0.1065	6813.18	3.9920	3.9925	-0.7669	25.32	-0.03	-0.750			
0.1087	6959.79	3.9890	3.9889	-0.7675	25.32	-0.03	-0.750			
0.1110	7106.49	3.9860	3.9859	-0.7694	25.32	-0.03	-0.750			
0.1133	7253.49	3.9830	3.9830	-0.7721	25.33	-0.02	-0.750			
0.1157	7407.20	3.9800	3.9800	-0.7762	25.33	-0.02	-0.750			
0.1181	7561.60	3.9770	3.9769	-0.7540	25.33	-0.02	-0.750			
0.1204	7705.76	3.9740	3.9739	-0.7368	25.33	-0.02	-0.750			
0.1225	7841.18	3.9710	3.9713	-0.7153	25.34	-0.01	-0.750			
0.1245	7970.91	3.9680	3.9683	-0.7151	25.34	-0.01	-0.750			
0.1266	8104.34	3.9650	3.9647	-0.7199	25.34	-0.01	-0.750			
0.1288	8241.59	3.9620	3.9618	-0.7273	25.35	-0.00	-0.750			
0.1310	8384.68	3.9590	3.9593	-0.7478	25.35	-0.00	-0.750			
0.1334	8537.54	3.9560	3.9560	-0.7787	25.35	0.00	-0.750			
0.1357	8686.23	3.9530	3.9530	-0.7904	25.36	0.01	-0.750			
0.1382	8841.93	3.9500	3.9498	-0.7906	25.36	0.01	-0.750			
0.1405	8994.42	3.9470	3.9468	-0.7881	25.36	0.01	-0.750			
0.1430	9149.76	3.9440	3.9442	-0.7952	25.37	0.02	-0.750			
0.1453	9302.27	3.9410	3.9406	-0.7914	25.37	0.02	-0.750			
0.1477	9452.22	3.9380	3.9377	-0.7908	25.37	0.02	-0.750			
0.1500	9601.69	3.9350	3.9349	-0.7882	25.37	0.02	-0.750			
0.1523	9747.89	3.9320	3.9320	-0.7850	25.38	0.03	-0.750			
0.1548	9906.70	3.9290	3.9289	-0.7929	25.38	0.03	-0.750			
0.1572	10062.70	3.9260	3.9255	-0.7981	25.38	0.03	-0.750			
0.1596	10213.85	3.9230	3.9229	-0.7909	25.38	0.03	-0.750			
0.1620	10367.06	3.9200	3.9200	-0.7958	25.38	0.03	-0.750			
0.1643	10514.93	3.9170	3.9169	-0.7988	25.39	0.04	-0.750			
0.1667	10671.99	3.9140	3.9139	-0.7997	25.39	0.04	-0.750			
0.1692	10827.20	3.9110	3.9114	-0.8028	25.39	0.04	-0.750			
0.1716	10982.81	3.9080	3.9080	-0.7995	25.39	0.04	-0.750			
0.1740	11137.95	3.9050	3.9048	-0.8171	25.39	0.04	-0.750			
0.1765	11296.43	3.9020	3.9017	-0.8017	25.40	0.05	-0.750			
0.1790	11454.03	3.8990	3.8988	-0.7968	25.40	0.05	-0.750			
0.1813	11602.34	3.8960	3.8970	-0.7826	25.40	0.05	-0.750			
0.1837	11754.42	3.8930	3.8928	-0.7796	25.41	0.06	-0.750			
0.1859	11898.60	3.8900	3.8898	-0.7809	25.41	0.06	-0.750			
0.1882	12044.67	3.8870	3.8869	-0.7704	25.42	0.07	-0.750			
0.1906	12197.36	3.8840	3.8839	-0.7807	25.42	0.07	-0.750			
0.1929	12348.11	3.8810	3.8811	-0.7779	25.43	0.08	-0.750			
0.1953	12497.83	3.8780	3.8778	-0.7783	25.43	0.08	-0.750			
0.1976	12646.16	3.8750	3.8748	-0.7713	25.44	0.09	-0.750			
0.1999	12790.91	3.8720	3.8721	-0.7738	25.44	0.09	-0.750			
0.2022	12939.72	3.8690	3.8690	-0.7677	25.44	0.09	-0.750			
0.2046	13093.21	3.8660	3.8658	-0.7799	25.45	0.10	-0.750			
0.2069	13241.77	3.8630	3.8633	-0.7706	25.45	0.10	-0.750			
0.2092	13389.60	3.8600	3.8598	-0.7607	25.45	0.10	-0.750			
0.2115	13532.80	3.8570	3.8568	-0.7645	25.46	0.11	-0.750			
0.2137	13678.78	3.8540	3.8538	-0.7522	25.46	0.11	-0.750			
0.2160	13826.73	3.8510	3.8508	-0.7586	25.47	0.12	-0.750			
0.2183	13971.30	3.8480	3.8478	-0.7540	25.47	0.12	-0.750			
0.2205	14112.76	3.8450	3.8449	-0.7510	25.47	0.12	-0.750			
0.2228	14257.96	3.8420	3.8420	-0.7637	25.47	0.12	-0.750			
0.2251	14403.91	3.8390	3.8388	-0.7569	25.47	0.12	-0.750			
0.2274	14551.38	3.8360	3.8360	-0.7612	25.48	0.13	-0.750			
0.2297	14698.40	3.8330	3.8329	-0.7573	25.48	0.13	-0.750			
0.2319	14842.29	3.8300	3.8302	-0.7623	25.48	0.13	-0.750			
0.2342	14989.99	3.8270	3.8270	-0.7546	25.49	0.14	-0.750			
0.2364	15130.08	3.8240	3.8239	-0.7506	25.49	0.14	-0.750			
0.2386	15272.90	3.8210	3.8209	-0.7476	25.50	0.15	-0.750			
0.2410	15422.75	3.8180	3.8178	-0.7526	25.50	0.15	-0.750			
0.2432	15567.31	3.8150	3.8147	-0.7478	25.51	0.16	-0.750			
0.2455	15709.31	3.8120	3.8122	-0.7402	25.51	0.16	-0.750			
0.2476	15843.38	3.8090	3.8091	-0.7496	25.51	0.16	-0.750			
0.2499	15993.27	3.8060	3.8059	-0.7618	25.51	0.16	-0.750			
0.2521	16137.36	3.8030	3.8028	-0.7637	25.51	0.16	-0.750			
0.2545	16289.44	3.8000	3.7999	-0.7685	25.51	0.16	-0.750			
0.2569	16438.97	3.7970	3.7971	-0.7705	25.51	0.16	-0.750			
0.2592	16586.90	3.7940	3.7940	-0.7677	25.51	0.16	-0.750			
0.2614	16731.00	3.7910	3.7908	-0.7756	25.51	0.16	-0.750			
0.2637	16877.13	3.7880	3.7880	-0.7690	25.51	0.16	-0.750			
0.2661	17029.64	3.7850	3.7847	-0.7860	25.51	0.16	-0.750			
0.2685	17181.97	3.7820	3.7824	-0.7888	25.51	0.16	-0.750			
0.2709	17335.14	3.7790	3.7789	-0.7930	25.51	0.16	-0.750			
0.2732	17486.09	3.7760	3.7760	-0.7955	25.51	0.16	-0.750			
0.2756	17638.06	3.7730	3.7729	-0.7986	25.52	0.17	-0.750			
0.2780	17790.59	3.7700	3.7700	-0.8070	25.52	0.17	-0.750			
0.2804	17947.08	3.7670	3.7670	-0.8081	25.52	0.17	-0.750			
0.2827	18093.96	3.7640	3.7641	-0.8322	25.52	0.17	-0.750			
0.2853	18261.15	3.7610	3.7610	-0.8394	25.52	0.17	-0.750			
0.2879	18425.63	3.7580	3.7578	-0.8366	25.51	0.16	-0.750			
0.2904	18588.71	3.7550	3.7545	-0.8355	25.51	0.16	-0.750			
0.2930	18749.79	3.7520	3.7518	-0.8370	25.51	0.16	-0.750			
0.2955	18910.18	3.7490	3.7487	-0.8376	25.51	0.16	-0.750			
0.2979	19068.54	3.7460	3.7459	-0.8513	25.51	0.16	-0.750			
0.3004	19227.00	3.7430	3.7430	-0.8461	25.51	0.16	-0.750			
0.3031	19396.30	3.7400	3.7398	-0.8672	25.51	0.16	-0.750			
0.3057	19565.65	3.7370	3.7373	-0.8734	25.51	0.16	-0.750			
0.3083	19732.63	3.7340	3.7339	-0.8753	25.51	0.16	-0.750			
0.3110	19900.84	3.7310	3.7309	-0.8838	25.51	0.16	-0.750			
0.3136	20071.50	3.7280	3.7279	-0.8857	25.51	0.16	-0.750			
0.3162	20237.58	3.7250	3.7252	-0.8886	25.51	0.16	-0.750			
0.3189	20412.27	3.7220	3.7225	-0.9198	25.51	0.16	-0.750			
0.3217	20589.03	3.7190	3.7188	-0.9360	25.50	0.15	-0.750			
0.3245	20770.77	3.7160	3.7158	-0.9418	25.50	0.15	-0.750			
0.3274	20953.93	3.7130	3.7128	-0.9447	25.49	0.14	-0.750			
0.3303	21142.31	3.7100	3.7102	-0.9593	25.48	0.13	-0.750			
0.3332	21323.51	3.7070	3.7068	-0.9850	25.48	0.13	-0.750			
0.3361	21512.12	3.7040	3.7038	-0.9801	25.48	0.13	-0.750			
0.3390	21695.38	3.7010	3.7009	-0.9847	25.48	0.13	-0.750			
0.3420	21890.78	3.6980	3.6979	-0.9999	25.48	0.13	-0.750	0.398	0.570	
0.3452	22091.19	3.6950	3.6948	-1.0204	25.48	0.13	-0.750			
0.3482	22287.88	3.6920	3.6919	-1.0304	25.48	0.13	-0.750			
0.3513	22480.85	3.6890	3.6890	-1.0457	25.47	0.12	-0.750			
0.3544	22682.47	3.6860	3.6859	-1.0492	25.47	0.12	-0.750			
0.3577	22890.85	3.6830	3.6830	-1.0922	25.47	0.12	-0.750			
0.3610	23104.79	3.6800	3.6796	-1.0946	25.47	0.12	-0.750			
0.3644	23319.49	3.6770	3.6765	-1.0973	25.47	0.12	-0.750			
0.3676	23529.30	3.6740	3.6742	-1.0989	25.47	0.12	-0.750			
0.3710	23742.64	3.6710	3.6708	-1.1287	25.47	0.12	-0.750			
0.3742	23951.69	3.6680	3.6679	-1.1373	25.46	0.11	-0.750			
0.3777	24171.27	3.6650	3.6649	-1.1800	25.46	0.11	-0.750			
0.3814	24407.73	3.6620	3.6620	-1.2123	25.45	0.10	-0.750			
0.3851	24645.34	3.6590	3.6586	-1.2136	25.44	0.09	-0.750			
0.3888	24880.27	3.6560	3.6556	-1.2130	25.44	0.09	-0.750			
0.3924	25110.88	3.6530	3.6526	-1.2541	25.43	0.08	-0.750			
0.3962	25357.64	3.6500	3.6497	-1.2726	25.43	0.08	-0.750			
0.3999	25595.59	3.6470	3.6466	-1.2753	25.43	0.08	-0.750			
0.4038	25844.10	3.6440	3.6435	-1.3055	25.42	0.07	-0.750			
0.4079	26105.84	3.6410	3.6406	-1.3625	25.42	0.07	-0.750			
0.4120	26367.27	3.6380	3.6376	-1.3790	25.41	0.06	-0.750			
0.4161	26631.94	3.6350	3.6345	-1.3809	25.40	0.05	-0.750			
0.4202	26893.72	3.6320	3.6334	-1.3984	25.40	0.05	-0.750			
0.4247	27179.47	3.6290	3.6283	-1.4507	25.40	0.05	-0.750			
0.4290	27454.54	3.6260	3.6266	-1.4609	25.39	0.04	-0.750			
0.4334	27736.05	3.6230	3.6223	-1.4782	25.39	0.04	-0.750			
0.4379	28023.57	3.6200	3.6193	-1.5281	25.38	0.03	-0.750			
0.4425	28321.85	3.6170	3.6176	-1.5615	25.38	0.03	-0.750			
0.4474	28632.47	3.6140	3.6131	-1.5894	25.38	0.03	-0.750			
0.4521	28935.96	3.6110	3.6101	-1.6014	25.37	0.02	-0.750			
0.4569	29240.36	3.6080	3.6079	-1.6452	25.37	0.02	-0.750			
0.4620	29568.75	3.6050	3.6046	-1.6890	25.37	0.02	-0.750			
0.4671	29892.56	3.6020	3.6018	-1.6970	25.36	0.01	-0.750			
0.4722	30223.53	3.5990	3.5984	-1.7259	25.36	0.01	-0.750			
0.4775	30559.72	3.5960	3.5956	-1.7657	25.35	0.00	-0.750			
0.4828	30900.20	3.5930	3.5919	-1.8008	25.35	-0.00	-0.750			
0.4883	31249.09	3.5900	3.5903	-1.8028	25.34	-0.01	-0.750			
0.4937	31597.57	3.5870	3.5871	-1.8179	25.33	-0.02	-0.750			
0.4991	31941.88	3.5840	3.5842	-1.8548	25.33	-0.02	-0.750			
0.5046	32295.10	3.5810	3.5801	-1.9062	25.34	-0.01	-0.750			
0.5105	32669.92	3.5780	3.5775	-1.9359	25.33	-0.02	-0.750			
0.5163	33040.56	3.5750	3.5750	-1.9488	25.32	-0.03	-0.750			
0.5224	33434.84	3.5720	3.5721	-2.0098	25.32	-0.03	-0.750			
0.5283	33814.09	3.5690	3.5687	-1.9793	25.32	-0.03	-0.750			
0.5341	34179.42	3.5660	3.5655	-2.0078	25.32	-0.03	-0.750			
0.5401	34568.70	3.5630	3.5631	-1.9930	25.32	-0.03	-0.750			
0.5463	34962.19	3.5600	3.5605	-2.0322	25.32	-0.03	-0.750			
0.5525	35357.75	3.5570	3.5569	-2.0136	25.32	-0.03	-0.750			
0.5585	35742.08	3.5540	3.5534	-2.0116	25.32	-0.03	-0.750			
0.5643	36116.83	3.5510	3.5510	-1.9543	25.34	-0.01	-0.750			
0.5702	36494.96	3.5480	3.5474	-1.9474	25.35	0.00	-0.750			
0.5761	36870.16	3.5450	3.5446	-1.9654	25.36	0.01	-0.750			
0.5821	37253.67	3.5420	3.5416	-1.9425	25.36	0.01	-0.750			
0.5880	37629.08	3.5390	3.5388	-1.9166	25.37	0.02	-0.750			
0.5936	37991.36	3.5360	3.5369	-1.8957	25.38	0.03	-0.750			
0.5992	38349.04	3.5330	3.5322	-1.8839	25.39	0.04	-0.750			
0.6047	38702.69	3.5300	3.5303	-1.8204	25.40	0.05	-0.750			
0.6101	39044.30	3.5270	3.5270	-1.8229	25.41	0.06	-0.750			
0.6157	39407.20	3.5240	3.5242	-1.7979	25.43	0.08	-0.750			
0.6211	39753.20	3.5210	3.5202	-1.7416	25.45	0.10	-0.750			
0.6263	40085.05	3.5180	3.5176	-1.7289	25.46	0.11	-0.750			
0.6315	40417.92	3.5150	3.5156	-1.6605	25.47	0.12	-0.750			
0.6365	40737.40	3.5120	3.5114	-1.6006	25.49	0.14	-0.750			
0.6411	41032.62	3.5090	3.5087	-1.5401	25.50	0.15	-0.750			
0.6456	41315.29	3.5060	3.5057	-1.5093	25.52	0.17	-0.750			
0.6499	41594.80	3.5030	3.5026	-1.4689	25.53	0.18	-0.750			
0.6544	41881.39	3.5000	3.4994	-1.4342	25.54	0.19	-0.750			
0.6588	42164.17	3.4970	3.4965	-1.4396	25.56	0.21	-0.750			
0.6632	42444.99	3.4940	3.4932	-1.3807	25.57	0.22	-0.750			
0.6673	42707.27	3.4910	3.4921	-1.3160	25.58	0.23	-0.750			
0.6711	42947.39	3.4880	3.4875	-1.2859	25.60	0.25	-0.750			
0.6747	43182.48	3.4850	3.4853	-1.2452	25.61	0.26	-0.750			
0.6784	43417.85	3.4820	3.4815	-1.2450	25.62	0.27	-0.750			
0.6823	43667.88	3.4790	3.4784	-1.4117	25.63	0.28	-0.750			
