Ah_balance (normalized)	Ah_balance (mAh)	Voltage - fit (V)	Voltage -  interpolate (V)	dQ/dV (1/V)	Temperature (°C)	Temperature - diff (°C)	Current (C)	R_DC 0ms (mOhm)	R_DC 50ms (mOhm)	R_DC 50 ms PEC (mOhm)
0.0005	32.48	4.1610	4.1605	-0.1450	25.09	0.03	-0.750			
0.0010	64.40	4.1580	4.1579	-0.1874	25.09	0.03	-0.750			
0.0016	105.31	4.1550	4.1550	-0.2290	25.09	0.03	-0.750			
0.0024	153.06	4.1520	4.1520	-0.2716	25.09	0.03	-0.750			
0.0033	209.42	4.1490	4.1489	-0.3119	25.08	0.02	-0.750			
0.0043	274.52	4.1460	4.1460	-0.3508	25.08	0.02	-0.750			
0.0054	345.45	4.1430	4.1431	-0.3897	25.08	0.02	-0.750			
0.0066	424.78	4.1400	4.1399	-0.4335	25.07	0.01	-0.750			
0.0080	513.32	4.1370	4.1370	-0.4650	25.07	0.01	-0.750			
0.0095	606.88	4.1340	4.1337	-0.4966	25.06	0.00	-0.750			
0.0110	705.46	4.1310	4.1315	-0.5195	25.06	-0.00	-0.750			
0.0126	808.97	4.1280	4.1278	-0.5467	25.05	-0.01	-0.750			
0.0143	915.31	4.1250	4.1250	-0.5697	25.05	-0.01	-0.750			
0.0160	1024.92	4.1220	4.1221	-0.5897	25.04	-0.02	-0.750			
0.0179	1144.33	4.1190	4.1189	-0.6106	25.04	-0.02	-0.750			
0.0198	1264.22	4.1160	4.1160	-0.6233	25.03	-0.03	-0.750			
0.0217	1385.99	4.1130	4.1131	-0.6353	25.03	-0.03	-0.750			
0.0236	1509.80	4.1100	4.1100	-0.6439	25.02	-0.04	-0.750			
0.0255	1632.92	4.1070	4.1070	-0.6522	25.02	-0.04	-0.750			
0.0275	1756.92	4.1040	4.1040	-0.6697	25.02	-0.04	-0.750			
0.0295	1886.05	4.1010	4.1011	-0.6824	25.02	-0.04	-0.750			
0.0316	2022.50	4.0980	4.0978	-0.6909	25.01	-0.05	-0.750			
0.0337	2155.67	4.0950	4.0950	-0.6951	25.01	-0.05	-0.750			
0.0358	2290.62	4.0920	4.0926	-0.7008	25.01	-0.05	-0.750			
0.0379	2425.34	4.0890	4.0889	-0.7031	25.01	-0.05	-0.750			
0.0399	2555.11	4.0860	4.0860	-0.7183	25.01	-0.05	-0.750			
0.0421	2696.66	4.0830	4.0829	-0.7245	25.00	-0.06	-0.750			
0.0444	2839.86	4.0800	4.0799	-0.7346	25.00	-0.06	-0.750			
0.0466	2984.39	4.0770	4.0769	-0.7353	25.00	-0.06	-0.750			
0.0489	3127.07	4.0740	4.0743	-0.7351	25.00	-0.06	-0.750			
0.0510	3266.13	4.0710	4.0710	-0.7371	25.00	-0.06	-0.750			
0.0532	3404.00	4.0680	4.0680	-0.7325	25.00	-0.06	-0.750			
0.0553	3541.54	4.0650	4.0648	-0.7274	25.01	-0.05	-0.750			
0.0576	3686.70	4.0620	4.0620	-0.7423	25.01	-0.05	-0.750			
0.0599	3830.55	4.0590	4.0591	-0.7480	25.01	-0.05	-0.750			
0.0621	3973.67	4.0560	4.0560	-0.7506	25.01	-0.05	-0.750			
0.0643	4116.31	4.0530	4.0530	-0.7550	25.01	-0.05	-0.750			
0.0666	4261.39	4.0500	4.0500	-0.7589	25.01	-0.05	-0.750			
0.0689	4409.16	4.0470	4.0470	-0.7601	25.02	-0.04	-0.750			
0.0712	4556.21	4.0440	4.0439	-0.7631	25.02	-0.04	-0.750			
0.0735	4703.90	4.0410	4.0417	-0.7641	25.02	-0.04	-0.750			
0.0758	4850.21	4.0380	4.0379	-0.7604	25.02	-0.04	-0.750			
0.0780	4994.47	4.0350	4.0350	-0.7666	25.02	-0.04	-0.750			
0.0804	5143.82	4.0320	4.0319	-0.7652	25.03	-0.03	-0.750			
0.0827	5290.84	4.0290	4.0289	-0.7692	25.03	-0.03	-0.750			
0.0850	5438.70	4.0260	4.0259	-0.7705	25.03	-0.03	-0.750			
0.0873	5586.92	4.0230	4.0230	-0.7687	25.03	-0.03	-0.750			
0.0896	5733.93	4.0200	4.0199	-0.7710	25.03	-0.03	-0.750			
0.0919	5880.46	4.0170	4.0171	-0.7720	25.03	-0.03	-0.750			
0.0942	6027.49	4.0140	4.0140	-0.7638	25.04	-0.02	-0.750			
0.0965	6178.97	4.0110	4.0109	-0.7750	25.04	-0.02	-0.750			
0.0988	6326.28	4.0080	4.0083	-0.7690	25.04	-0.02	-0.750			
0.1011	6473.50	4.0050	4.0049	-0.7684	25.04	-0.02	-0.750			
0.1034	6620.73	4.0020	4.0020	-0.7762	25.05	-0.01	-0.750			
0.1058	6768.57	3.9990	3.9991	-0.7748	25.05	-0.01	-0.750			
0.1081	6918.16	3.9960	3.9959	-0.7847	25.06	-0.00	-0.750			
0.1105	7072.14	3.9930	3.9929	-0.7847	25.06	-0.00	-0.750			
0.1128	7221.34	3.9900	3.9899	-0.7865	25.06	0.00	-0.750			
0.1152	7373.39	3.9870	3.9871	-0.7939	25.07	0.01	-0.750			
0.1176	7526.25	3.9840	3.9840	-0.7932	25.07	0.01	-0.750			
0.1200	7679.98	3.9810	3.9808	-0.7960	25.07	0.01	-0.750			
0.1224	7832.58	3.9780	3.9780	-0.7954	25.08	0.02	-0.750			
0.1248	7985.08	3.9750	3.9749	-0.7939	25.08	0.02	-0.750			
0.1271	8137.50	3.9720	3.9720	-0.8010	25.09	0.03	-0.750			
0.1295	8289.78	3.9690	3.9689	-0.7935	25.09	0.03	-0.750			
0.1319	8441.64	3.9660	3.9661	-0.7997	25.09	0.03	-0.750			
0.1344	8598.56	3.9630	3.9628	-0.8067	25.10	0.04	-0.750			
0.1368	8753.20	3.9600	3.9601	-0.8093	25.10	0.04	-0.750			
0.1392	8906.00	3.9570	3.9569	-0.8223	25.10	0.04	-0.750			
0.1417	9068.25	3.9540	3.9541	-0.8215	25.10	0.04	-0.750			
0.1442	9226.67	3.9510	3.9508	-0.8214	25.11	0.05	-0.750			
0.1467	9386.70	3.9480	3.9479	-0.8238	25.11	0.05	-0.750			
0.1491	9543.97	3.9450	3.9451	-0.8209	25.11	0.05	-0.750			
0.1516	9699.60	3.9420	3.9419	-0.8303	25.11	0.05	-0.750			
0.1540	9858.86	3.9390	3.9390	-0.8262	25.11	0.05	-0.750			
0.1565	10016.44	3.9360	3.9359	-0.8230	25.12	0.06	-0.750			
0.1591	10181.10	3.9330	3.9330	-0.8362	25.12	0.06	-0.750			
0.1616	10341.58	3.9300	3.9301	-0.8342	25.12	0.06	-0.750			
0.1641	10501.05	3.9270	3.9270	-0.8337	25.13	0.07	-0.750			
0.1666	10659.61	3.9240	3.9240	-0.8286	25.13	0.07	-0.750			
0.1690	10816.76	3.9210	3.9210	-0.8270	25.13	0.07	-0.750			
0.1715	10978.83	3.9180	3.9179	-0.8335	25.14	0.08	-0.750			
0.1740	11138.08	3.9150	3.9151	-0.8322	25.14	0.08	-0.750			
0.1765	11296.50	3.9120	3.9120	-0.8345	25.14	0.08	-0.750			
0.1791	11460.33	3.9090	3.9090	-0.8439	25.14	0.08	-0.750			
0.1816	11622.89	3.9060	3.9057	-0.8492	25.15	0.09	-0.750			
0.1842	11787.26	3.9030	3.9029	-0.8497	25.15	0.09	-0.750			
0.1867	11950.04	3.9000	3.9000	-0.8524	25.15	0.09	-0.750			
0.1893	12113.91	3.8970	3.8969	-0.8609	25.16	0.10	-0.750			
0.1919	12280.98	3.8940	3.8938	-0.8527	25.16	0.10	-0.750			
0.1944	12440.31	3.8910	3.8910	-0.8414	25.16	0.10	-0.750			
0.1970	12607.24	3.8880	3.8879	-0.8488	25.17	0.11	-0.750			
0.1995	12768.82	3.8850	3.8850	-0.8406	25.17	0.11	-0.750			
0.2020	12928.73	3.8820	3.8819	-0.8466	25.17	0.11	-0.750			
0.2045	13087.60	3.8790	3.8790	-0.8408	25.17	0.11	-0.750			
0.2070	13248.73	3.8760	3.8760	-0.8423	25.17	0.11	-0.750			
0.2096	13414.79	3.8730	3.8729	-0.8527	25.17	0.11	-0.750			
0.2122	13580.26	3.8700	3.8700	-0.8494	25.17	0.11	-0.750			
0.2147	13742.48	3.8670	3.8669	-0.8591	25.17	0.11	-0.750			
0.2173	13908.47	3.8640	3.8640	-0.8553	25.18	0.12	-0.750			
0.2199	14072.90	3.8610	3.8609	-0.8432	25.18	0.12	-0.750			
0.2225	14237.27	3.8580	3.8579	-0.8400	25.18	0.12	-0.750			
0.2250	14396.99	3.8550	3.8550	-0.8420	25.18	0.12	-0.750			
0.2275	14557.71	3.8520	3.8518	-0.8463	25.19	0.13	-0.750			
0.2300	14718.99	3.8490	3.8488	-0.8447	25.19	0.13	-0.750			
0.2325	14880.20	3.8460	3.8460	-0.8323	25.19	0.13	-0.750			
0.2351	15046.22	3.8430	3.8431	-0.8436	25.20	0.14	-0.750			
0.2376	15206.87	3.8400	3.8399	-0.8429	25.20	0.14	-0.750			
0.2401	15366.41	3.8370	3.8368	-0.8411	25.20	0.14	-0.750			
0.2426	15526.39	3.8340	3.8339	-0.8314	25.21	0.15	-0.750			
0.2451	15685.42	3.8310	3.8310	-0.8251	25.21	0.15	-0.750			
0.2477	15850.35	3.8280	3.8282	-0.8290	25.21	0.15	-0.750			
0.2501	16008.13	3.8250	3.8249	-0.8266	25.21	0.15	-0.750			
0.2526	16163.76	3.8220	3.8220	-0.8218	25.21	0.15	-0.750			
0.2550	16320.75	3.8190	3.8189	-0.8185	25.22	0.16	-0.750			
0.2575	16477.91	3.8160	3.8158	-0.8086	25.22	0.16	-0.750			
0.2600	16637.87	3.8130	3.8132	-0.8132	25.22	0.16	-0.750			
0.2624	16792.09	3.8100	3.8098	-0.7984	25.22	0.16	-0.750			
0.2647	16943.34	3.8070	3.8069	-0.7948	25.23	0.17	-0.750			
0.2671	17092.94	3.8040	3.8040	-0.7874	25.23	0.17	-0.750			
0.2694	17239.85	3.8010	3.8009	-0.7819	25.24	0.18	-0.750			
0.2718	17394.12	3.7980	3.7979	-0.7877	25.25	0.19	-0.750			
0.2742	17545.93	3.7950	3.7951	-0.7895	25.25	0.19	-0.750			
0.2765	17698.47	3.7920	3.7920	-0.7852	25.26	0.20	-0.750			
0.2789	17851.50	3.7890	3.7890	-0.7782	25.26	0.20	-0.750			
0.2812	17996.75	3.7860	3.7860	-0.7692	25.26	0.20	-0.750			
0.2835	18144.12	3.7830	3.7831	-0.7754	25.27	0.21	-0.750			
0.2858	18291.26	3.7800	3.7800	-0.7754	25.27	0.21	-0.750			
0.2881	18440.24	3.7770	3.7769	-0.7728	25.27	0.21	-0.750			
0.2904	18588.17	3.7740	3.7741	-0.7798	25.27	0.21	-0.750			
0.2928	18740.66	3.7710	3.7711	-0.7816	25.27	0.21	-0.750			
0.2952	18892.29	3.7680	3.7679	-0.7813	25.27	0.21	-0.750			
0.2975	19040.54	3.7650	3.7649	-0.7807	25.27	0.21	-0.750			
0.2999	19190.42	3.7620	3.7619	-0.7811	25.27	0.21	-0.750			
0.3022	19338.28	3.7590	3.7589	-0.7941	25.27	0.21	-0.750			
0.3046	19492.25	3.7560	3.7560	-0.8013	25.27	0.21	-0.750			
0.3070	19646.67	3.7530	3.7529	-0.7995	25.27	0.21	-0.750			
0.3094	19804.02	3.7500	3.7498	-0.8155	25.27	0.21	-0.750			
0.3119	19960.35	3.7470	3.7470	-0.8213	25.27	0.21	-0.750			
0.3143	20116.36	3.7440	3.7440	-0.8308	25.27	0.21	-0.750			
0.3168	20276.71	3.7410	3.7408	-0.8473	25.27	0.21	-0.750			
0.3194	20438.68	3.7380	3.7381	-0.8515	25.27	0.21	-0.750			
0.3220	20607.55	3.7350	3.7350	-0.8685	25.27	0.21	-0.750			
0.3246	20776.24	3.7320	3.7320	-0.8797	25.27	0.21	-0.750			
0.3273	20946.36	3.7290	3.7290	-0.8995	25.27	0.21	-0.750			
0.3300	21120.19	3.7260	3.7258	-0.9026	25.27	0.21	-0.750			
0.3327	21294.45	3.7230	3.7229	-0.9123	25.27	0.21	-0.750			
0.3355	21469.80	3.7200	3.7206	-0.9242	25.27	0.21	-0.750			
0.3383	21649.45	3.7170	3.7168	-0.9447	25.27	0.21	-0.750			
0.3411	21833.10	3.7140	3.7139	-0.9449	25.26	0.20	-0.750			
0.3439	22010.92	3.7110	3.7111	-0.9513	25.26	0.20	-0.750			
0.3469	22200.10	3.7080	3.7080	-0.9958	25.25	0.19	-0.750			
0.3499	22393.23	3.7050	3.7049	-1.0088	25.25	0.19	-0.750			
0.3530	22589.73	3.7020	3.7016	-1.0156	25.24	0.18	-0.750			
0.3560	22785.05	3.6990	3.7000	-1.0261	25.23	0.17	-0.750	0.384	0.505	
0.3591	22982.32	3.6960	3.6960	-1.0449	25.22	0.16	-0.750			
0.3623	23186.96	3.6930	3.6930	-1.0777	25.22	0.16	-0.750			
0.3655	23391.54	3.6900	3.6897	-1.0838	25.21	0.15	-0.750			
0.3688	23605.42	3.6870	3.6870	-1.1105	25.21	0.15	-0.750			
0.3722	23821.77	3.6840	3.6841	-1.1290	25.20	0.14	-0.750			
0.3757	24042.19	3.6810	3.6808	-1.1603	25.20	0.14	-0.750			
0.3792	24266.84	3.6780	3.6778	-1.1639	25.19	0.13	-0.750			
0.3827	24489.69	3.6750	3.6749	-1.1729	25.19	0.13	-0.750			
0.3861	24713.09	3.6720	3.6726	-1.1898	25.18	0.12	-0.750			
0.3899	24950.51	3.6690	3.6688	-1.2241	25.18	0.12	-0.750			
0.3935	25185.21	3.6660	3.6659	-1.2397	25.17	0.11	-0.750			
0.3972	25419.14	3.6630	3.6629	-1.2620	25.17	0.11	-0.750			
0.4012	25675.44	3.6600	3.6599	-1.3091	25.16	0.10	-0.750			
0.4052	25931.11	3.6570	3.6569	-1.3194	25.15	0.09	-0.750			
0.4092	26186.21	3.6540	3.6541	-1.3492	25.14	0.08	-0.750			
0.4132	26445.91	3.6510	3.6508	-1.3546	25.13	0.07	-0.750			
0.4173	26708.91	3.6480	3.6478	-1.3744	25.12	0.06	-0.750			
0.4215	26973.12	3.6450	3.6451	-1.3957	25.11	0.05	-0.750			
0.4255	27232.89	3.6420	3.6420	-1.4287	25.10	0.04	-0.750			
0.4301	27523.58	3.6390	3.6389	-1.4581	25.09	0.03	-0.750			
0.4345	27805.98	3.6360	3.6359	-1.4984	25.08	0.02	-0.750			
0.4390	28094.73	3.6330	3.6329	-1.5268	25.07	0.01	-0.750			
0.4438	28401.03	3.6300	3.6297	-1.5935	25.07	0.01	-0.750			
0.4486	28712.27	3.6270	3.6274	-1.6010	25.06	-0.00	-0.750			
0.4534	29019.89	3.6240	3.6243	-1.6154	25.05	-0.01	-0.750			
0.4583	29331.97	3.6210	3.6213	-1.6189	25.04	-0.02	-0.750			
0.4633	29648.96	3.6180	3.6176	-1.6574	25.04	-0.02	-0.750			
0.4682	29966.49	3.6150	3.6146	-1.6927	25.03	-0.03	-0.750			
0.4734	30297.85	3.6120	3.6120	-1.7251	25.02	-0.04	-0.750			
0.4786	30633.11	3.6090	3.6094	-1.7961	25.01	-0.05	-0.750			
0.4840	30975.57	3.6060	3.6060	-1.8152	25.00	-0.06	-0.750			
0.4894	31324.52	3.6030	3.6030	-1.8501	24.99	-0.07	-0.750			
0.4952	31695.47	3.6000	3.6001	-1.8879	24.98	-0.08	-0.750			
0.5010	32064.18	3.5970	3.5965	-1.9160	24.98	-0.08	-0.750			
0.5068	32432.46	3.5940	3.5935	-1.9515	24.97	-0.09	-0.750			
0.5126	32809.58	3.5910	3.5913	-2.0199	24.97	-0.09	-0.750			
0.5188	33205.84	3.5880	3.5882	-2.0395	24.96	-0.10	-0.750			
0.5249	33596.76	3.5850	3.5846	-2.0482	24.96	-0.10	-0.750			
0.5312	33996.97	3.5820	3.5819	-2.0736	24.95	-0.11	-0.750			
0.5374	34396.50	3.5790	3.5789	-2.1374	24.95	-0.11	-0.750			
0.5439	34809.05	3.5760	3.5755	-2.1184	24.94	-0.12	-0.750			
0.5504	35222.97	3.5730	3.5735	-2.1161	24.94	-0.12	-0.750			
0.5569	35642.82	3.5700	3.5701	-2.1514	24.94	-0.12	-0.750			
0.5633	36050.63	3.5670	3.5667	-2.1503	24.94	-0.12	-0.750			
0.5698	36466.46	3.5640	3.5636	-2.1591	24.94	-0.12	-0.750			
0.5766	36901.51	3.5610	3.5608	-2.1857	24.94	-0.12	-0.750			
0.5833	37328.47	3.5580	3.5579	-2.1843	24.93	-0.13	-0.750			
0.5897	37737.61	3.5550	3.5552	-2.1603	24.93	-0.13	-0.750			
0.5962	38156.08	3.5520	3.5514	-2.1228	24.93	-0.13	-0.750			
0.6024	38555.85	3.5490	3.5489	-2.0949	24.93	-0.13	-0.750			
0.6088	38964.74	3.5460	3.5463	-2.0803	24.94	-0.12	-0.750			
0.6151	39366.17	3.5430	3.5429	-2.0519	24.95	-0.11	-0.750			
0.6215	39773.47	3.5400	3.5400	-2.0492	24.96	-0.10	-0.750			
0.6273	40145.38	3.5370	3.5371	-2.0138	24.96	-0.10	-0.750			
0.6333	40530.23	3.5340	3.5336	-1.9715	24.97	-0.09	-0.750			
0.6392	40910.56	3.5310	3.5307	-1.9296	24.98	-0.08	-0.750			
0.6450	41277.26	3.5280	3.5279	-1.8623	24.99	-0.07	-0.750			
0.6505	41632.50	3.5250	3.5246	-1.8135	25.00	-0.06	-0.750			
0.6560	41982.74	3.5220	3.5216	-1.7692	25.01	-0.05	-0.750			
0.6613	42322.28	3.5190	3.5189	-1.7259	25.02	-0.04	-0.750			
0.6661	42628.61	3.5160	3.5157	-1.7419	25.04	-0.02	-0.750			
0.6714	42972.35	3.5130	3.5128	-1.7300	25.05	-0.01	-0.750			
0.6766	43303.90	3.5100	3.5101	-1.7301	25.07	0.01	-0.750			
0.6822	43660.39	3.5070	3.5070	-1.7140	25.09	0.03	-0.750			
0.6873	43985.56	3.5040	3.5042	-1.6341	25.11	0.05	-0.750			
0.6923	44305.75	3.5010	3.5008	-1.5855	25.13	0.07	-0.750			
0.6967	44586.09	3.4980	3.4978	-1.4999	25.14	0.08	-0.750			
0.7009	44858.61	3.4950	3.4947	-1.4126	25.16	0.10	-0.750			
0.7051	45125.18	3.4920	3.4918	-1.3646	25.18	0.12	-0.750			
0.7090	45375.05	3.4890	3.4890	-1.3276	25.19	0.13	-0.750			
0.7130	45632.75	3.4860	3.4858	-1.2767	25.21	0.15	-0.750	0.388	0.564	
0.7169	45880.07	3.4830	3.4828	-1.2337	25.23	0.17	-0.750			
0.7204	46106.68	3.4800	3.4799	-1.1865	25.25	0.19	-0.750			
0.7239	46326.88	3.4770	3.4774	-1.1497	25.26	0.20	-0.750			
0.7273	46545.30	3.4740	3.4738	-1.1167	25.27	0.21	-0.750			
0.7305	46752.35	3.4710	3.4709	-1.0771	25.28	0.22	-0.750			
0.7336	46951.84	3.4680	3.4682	-1.0647	25.29	0.23	-0.750			
0.7367	47150.99	3.4650	3.4652	-1.0525	25.30	0.24	-0.750			
0.7398	47349.43	3.4620	3.4619	-1.0443	25.32	0.26	-0.750			
0.7429	47545.42	3.4590	3.4588	-1.0497	25.33	0.27	-0.750			
0.7460	47745.35	3.4560	3.4561	-1.0660	25.34	0.28	-0.750			
0.7492	47950.16	3.4530	3.4533	-1.1160	25.35	0.29	-0.750			
0.7526	48167.40	3.4500	3.4499	-1.1595	25.36	0.30	-0.750			
0.7562	48394.76	3.4470	3.4468	-1.2076	25.37	0.31	-0.750			
0.7598	48629.29	3.4440	3.4441	-1.2561	25.38	0.32	-0.750			
0.7638	48880.40	3.4410	3.4409	-1.2990	25.39	0.33	-0.750			
0.7678	49137.76	3.4380	3.4380	-1.3296	25.40	0.34	-0.750			
0.7719	49398.47	3.4350	3.4350	-1.3510	25.42	0.36	-0.750			
0.7759	49659.16	3.4320	3.4320	-1.3425	25.43	0.37	-0.750			
0.7801	49928.12	3.4290	3.4289	-1.3397	25.44	0.38	-0.750			
0.7841	50183.75	3.4260	3.4260	-1.3161	25.45	0.39	-0.750			
0.7881	50435.28	3.4230	3.4230	-1.2864	25.45	0.39	-0.750			
0.7919	50680.06	3.4200	3.4199	-1.2521	25.46	0.40	-0.750			
0.7956	50916.26	3.4170	3.4169	-1.2108	25.47	0.41	-0.750			
0.7991	51139.85	3.4140	3.4142	-1.1770	25.47	0.41	-0.750			
0.8027	51370.15	3.4110	3.4110	-1.1550	25.48	0.42	-0.750			
0.8061	51588.66	3.4080	3.4079	-1.1120	25.49	0.43	-0.750			
0.8093	51797.84	3.4050	3.4049	-1.0700	25.50	0.44	-0.750			
0.8125	52000.12	3.4020	3.4021	-1.0325	25.50	0.44	-0.750			
0.8156	52196.65	3.3990	3.3989	-1.0043	25.51	0.45	-0.750			
0.8186	52387.25	3.3960	3.3959	-0.9633	25.52	0.46	-0.750			
0.8214	52567.33	3.3930	3.3928	-0.9116	25.53	0.47	-0.750			
0.8241	52741.12	3.3900	3.3903	-0.8713	25.53	0.47	-0.750			
0.8266	52905.52	3.3870	3.3869	-0.8278	25.54	0.48	-0.750			
0.8290	53058.12	3.3840	3.3840	-0.7773	25.54	0.48	-0.750			
0.8312	53197.62	3.3810	3.3810	-0.7201	25.55	0.49	-0.750			
0.8334	53335.69	3.3780	3.3780	-0.6857	25.55	0.49	-0.750			
0.8354	53463.65	3.3750	3.3750	-0.6415	25.56	0.50	-0.750			
0.8372	53581.89	3.3720	3.3720	-0.6013	25.57	0.51	-0.750			
0.8389	53692.34	3.3690	3.3689	-0.5617	25.58	0.52	-0.750			
0.8406	53795.85	3.3660	3.3661	-0.5232	25.58	0.52	-0.750			
0.8421	53891.68	3.3630	3.3630	-0.4902	25.59	0.53	-0.750			
0.8435	53982.33	3.3600	3.3600	-0.4610	25.60	0.54	-0.750			
0.8448	54067.97	3.3570	3.3568	-0.4332	25.60	0.54	-0.750			
0.8461	54147.22	3.3540	3.3540	-0.4079	25.61	0.55	-0.750			
0.8472	54222.39	3.3510	3.3511	-0.3830	25.61	0.55	-0.750			
0.8483	54294.19	3.3480	3.3480	-0.3613	25.62	0.56	-0.750			
0.8494	54361.29	3.3450	3.3450	-0.3463	25.63	0.57	-0.750			
0.8504	54423.59	3.3420	3.3421	-0.3282	25.63	0.57	-0.750			
0.8513	54485.11	3.3390	3.3389	-0.3170	25.64	0.58	-0.750			
0.8523	54544.42	3.3360	3.3360	-0.3075	25.64	0.58	-0.750			
0.8532	54602.78	3.3330	3.3331	-0.2986	25.65	0.59	-0.750			
0.8541	54660.39	3.3300	3.3299	-0.2910	25.65	0.59	-0.750			
0.8549	54715.53	3.3270	3.3270	-0.2806	25.66	0.60	-0.750			
0.8557	54767.65	3.3240	3.3241	-0.2703	25.66	0.60	-0.750			
0.8565	54818.33	3.3210	3.3210	-0.2611	25.67	0.61	-0.750			
0.8573	54867.70	3.3180	3.3179	-0.2522	25.67	0.61	-0.750			
0.8580	54914.47	3.3150	3.3150	-0.2422	25.67	0.61	-0.750			
0.8588	54960.26	3.3120	3.3121	-0.2375	25.68	0.62	-0.750			
0.8595	55005.54	3.3090	3.3090	-0.2321	25.68	0.62	-0.750			
0.8602	55050.00	3.3060	3.3057	-0.2246	25.69	0.63	-0.750			
0.8608	55091.95	3.3030	3.3035	-0.2199	25.69	0.63	-0.750			
0.8615	55132.94	3.3000	3.3000	-0.2161	25.69	0.63	-0.750			
0.8621	55174.26	3.2970	3.2970	-0.2118	25.70	0.64	-0.750			
0.8627	55214.80	3.2940	3.2941	-0.2072	25.70	0.64	-0.750			
0.8633	55253.44	3.2910	3.2910	-0.2015	25.71	0.65	-0.750			
0.8640	55292.81	3.2880	3.2882	-0.1999	25.71	0.65	-0.750			
0.8645	55330.49	3.2850	3.2850	-0.1970	25.71	0.65	-0.750			
0.8651	55367.16	3.2820	3.2819	-0.1914	25.72	0.66	-0.750			
0.8657	55403.69	3.2790	3.2790	-0.1892	25.72	0.66	-0.750			
0.8662	55439.55	3.2760	3.2760	-0.1858	25.72	0.66	-0.750			
0.8668	55475.43	3.2730	3.2732	-0.1841	25.73	0.67	-0.750			
0.8674	55510.66	3.2700	3.2699	-0.1821	25.73	0.67	-0.750			
0.8679	55545.30	3.2670	3.2671	-0.1788	25.74	0.68	-0.750			
0.8684	55579.06	3.2640	3.2639	-0.1758	25.74	0.68	-0.750			
0.8689	55612.48	3.2610	3.2611	-0.1723	25.74	0.68	-0.750			
0.8695	55645.54	3.2580	3.2578	-0.1700	25.75	0.69	-0.750			
0.8700	55677.72	3.2550	3.2552	-0.1681	25.75	0.69	-0.750			
0.8705	55709.81	3.2520	3.2520	-0.1658	25.75	0.69	-0.750			
0.8710	55740.92	3.2490	3.2489	-0.1640	25.75	0.69	-0.750			
0.8714	55772.01	3.2460	3.2460	-0.1624	25.76	0.70	-0.750			
0.8719	55803.39	3.2430	3.2431	-0.1602	25.76	0.70	-0.750			
0.8724	55834.15	3.2400	3.2399	-0.1584	25.76	0.70	-0.750			
0.8729	55864.60	3.2370	3.2369	-0.1569	25.77	0.71	-0.750			
0.8734	55894.49	3.2340	3.2343	-0.1544	25.77	0.71	-0.750			
0.8738	55923.56	3.2310	3.2309	-0.1533	25.77	0.71	-0.750			
0.8743	55953.07	3.2280	3.2279	-0.1509	25.78	0.72	-0.750			
0.8747	55981.62	3.2250	3.2249	-0.1483	25.78	0.72	-0.750			
0.8752	56009.95	3.2220	3.2221	-0.1467	25.79	0.73	-0.750			
0.8756	56038.29	3.2190	3.2191	-0.1457	25.79	0.73	-0.750			
0.8760	56065.78	3.2160	3.2159	-0.1444	25.79	0.73	-0.750			
0.8765	56093.27	3.2130	3.2129	-0.1426	25.80	0.74	-0.750			
0.8769	56120.55	3.2100	3.2100	-0.1416	25.80	0.74	-0.750			
0.8773	56147.54	3.2070	3.2070	-0.1392	25.80	0.74	-0.750			
0.8777	56174.75	3.2040	3.2042	-0.1380	25.81	0.75	-0.750			
0.8781	56200.92	3.2010	3.2010	-0.1359	25.81	0.75	-0.750			
0.8785	56226.78	3.1980	3.1980	-0.1334	25.81	0.75	-0.750			
0.8789	56251.76	3.1950	3.1950	-0.1324	25.82	0.76	-0.750			
0.8793	56276.60	3.1920	3.1920	-0.1309	25.82	0.76	-0.750			
0.8797	56301.53	3.1890	3.1890	-0.1304	25.82	0.76	-0.750			
0.8801	56326.79	3.1860	3.1860	-0.1297	25.83	0.77	-0.750			
0.8805	56351.84	3.1830	3.1830	-0.1293	25.83	0.77	-0.750			
0.8809	56377.01	3.1800	3.1799	-0.1280	25.83	0.77	-0.750			
0.8813	56401.64	3.1770	3.1770	-0.1265	25.84	0.78	-0.750			
0.8816	56425.53	3.1740	3.1741	-0.1249	25.84	0.78	-0.750			
0.8820	56449.18	3.1710	3.1709	-0.1229	25.84	0.78	-0.750			
0.8824	56472.55	3.1680	3.1681	-0.1217	25.85	0.79	-0.750			
0.8827	56495.55	3.1650	3.1649	-0.1202	25.85	0.79	-0.750			
0.8831	56518.65	3.1620	3.1621	-0.1187	25.85	0.79	-0.750			
0.8835	56541.32	3.1590	3.1590	-0.1174	25.85	0.79	-0.750			
