Ah_balance (normalized)	Ah_balance (mAh)	Voltage - fit (V)	Voltage -  interpolate (V)	dQ/dV (1/V)	Temperature (°C)	Temperature - diff (°C)	Current (C)	R_DC 0ms (mOhm)	R_DC 50ms (mOhm)	R_DC 50 ms PEC (mOhm)
0.0002	15.39	4.1630	4.1632	-0.1254	25.04	0.03	-0.750			
0.0007	43.84	4.1600	4.1601	-0.1719	25.04	0.03	-0.750			
0.0013	81.84	4.1570	4.1569	-0.2178	25.04	0.03	-0.750			
0.0020	128.92	4.1540	4.1540	-0.2589	25.03	0.02	-0.750			
0.0029	182.51	4.1510	4.1511	-0.3015	25.03	0.02	-0.750			
0.0038	245.01	4.1480	4.1480	-0.3430	25.03	0.02	-0.750			
0.0049	315.41	4.1450	4.1450	-0.3815	25.03	0.02	-0.750			
0.0061	392.50	4.1420	4.1421	-0.4167	25.02	0.01	-0.750			
0.0075	477.29	4.1390	4.1390	-0.4504	25.02	0.01	-0.750			
0.0089	567.63	4.1360	4.1360	-0.4833	25.02	0.01	-0.750			
0.0104	664.13	4.1330	4.1330	-0.5159	25.01	0.00	-0.750			
0.0120	765.93	4.1300	4.1298	-0.5410	25.01	0.00	-0.750			
0.0136	873.33	4.1270	4.1270	-0.5677	25.01	-0.00	-0.750			
0.0154	985.84	4.1240	4.1239	-0.5890	25.00	-0.01	-0.750			
0.0172	1098.19	4.1210	4.1212	-0.6266	25.00	-0.01	-0.750			
0.0191	1225.31	4.1180	4.1178	-0.6399	24.99	-0.02	-0.750			
0.0211	1351.06	4.1150	4.1149	-0.6448	24.99	-0.02	-0.750			
0.0231	1477.04	4.1120	4.1117	-0.6568	24.98	-0.03	-0.750			
0.0251	1604.27	4.1090	4.1093	-0.6642	24.98	-0.03	-0.750			
0.0271	1731.88	4.1060	4.1059	-0.6704	24.98	-0.03	-0.750			
0.0291	1859.92	4.1030	4.1030	-0.6750	24.98	-0.03	-0.750			
0.0311	1989.63	4.1000	4.1000	-0.6940	24.98	-0.03	-0.750			
0.0332	2123.15	4.0970	4.0970	-0.7013	24.98	-0.03	-0.750			
0.0353	2259.87	4.0940	4.0940	-0.7115	24.98	-0.03	-0.750			
0.0374	2395.40	4.0910	4.0913	-0.7157	24.98	-0.03	-0.750			
0.0396	2534.47	4.0880	4.0878	-0.7252	24.98	-0.03	-0.750			
0.0418	2675.92	4.0850	4.0851	-0.7359	24.98	-0.03	-0.750			
0.0440	2818.44	4.0820	4.0819	-0.7402	24.97	-0.04	-0.750			
0.0463	2964.37	4.0790	4.0789	-0.7426	24.97	-0.04	-0.750			
0.0485	3105.83	4.0760	4.0760	-0.7396	24.97	-0.04	-0.750			
0.0507	3247.04	4.0730	4.0727	-0.7395	24.97	-0.04	-0.750			
0.0529	3387.80	4.0700	4.0699	-0.7400	24.97	-0.04	-0.750			
0.0551	3527.16	4.0670	4.0668	-0.7529	24.97	-0.04	-0.750			
0.0574	3674.67	4.0640	4.0640	-0.7517	24.98	-0.03	-0.750			
0.0598	3825.03	4.0610	4.0608	-0.7600	24.98	-0.03	-0.750			
0.0621	3971.91	4.0580	4.0588	-0.7584	24.98	-0.03	-0.750			
0.0643	4117.14	4.0550	4.0549	-0.7476	24.98	-0.03	-0.750			
0.0665	4255.41	4.0520	4.0520	-0.7508	24.98	-0.03	-0.750			
0.0687	4398.28	4.0490	4.0489	-0.7529	24.98	-0.03	-0.750			
0.0710	4543.73	4.0460	4.0459	-0.7640	24.98	-0.03	-0.750			
0.0733	4691.70	4.0430	4.0429	-0.7639	24.98	-0.03	-0.750			
0.0756	4840.07	4.0400	4.0401	-0.7666	24.98	-0.03	-0.750			
0.0779	4986.02	4.0370	4.0370	-0.7756	24.99	-0.02	-0.750			
0.0802	5135.53	4.0340	4.0340	-0.7762	24.99	-0.02	-0.750			
0.0825	5282.79	4.0310	4.0309	-0.7696	24.99	-0.02	-0.750			
0.0849	5433.50	4.0280	4.0280	-0.7739	25.00	-0.01	-0.750			
0.0872	5582.43	4.0250	4.0257	-0.7774	25.00	-0.01	-0.750			
0.0896	5732.03	4.0220	4.0220	-0.7791	25.00	-0.01	-0.750			
0.0919	5881.23	4.0190	4.0189	-0.7878	25.00	-0.01	-0.750			
0.0943	6037.07	4.0160	4.0159	-0.7776	25.00	-0.01	-0.750			
0.0967	6190.68	4.0130	4.0128	-0.7715	25.00	-0.01	-0.750			
0.0990	6337.84	4.0100	4.0098	-0.7543	25.00	-0.01	-0.750			
0.1013	6480.20	4.0070	4.0070	-0.7525	25.00	-0.01	-0.750			
0.1034	6619.78	4.0040	4.0037	-0.7483	25.01	-0.00	-0.750			
0.1056	6756.07	4.0010	4.0009	-0.7553	25.01	-0.00	-0.750			
0.1079	6905.20	3.9980	3.9980	-0.7717	25.01	0.00	-0.750			
0.1102	7055.62	3.9950	3.9951	-0.7871	25.02	0.01	-0.750			
0.1127	7211.17	3.9920	3.9922	-0.8027	25.02	0.01	-0.750			
0.1151	7364.60	3.9890	3.9888	-0.8072	25.02	0.01	-0.750			
0.1175	7521.24	3.9860	3.9859	-0.8119	25.02	0.01	-0.750			
0.1200	7679.23	3.9830	3.9830	-0.8040	25.02	0.01	-0.750			
0.1224	7836.30	3.9800	3.9800	-0.8083	25.02	0.01	-0.750			
0.1248	7989.45	3.9770	3.9775	-0.8059	25.02	0.01	-0.750			
0.1272	8140.69	3.9740	3.9738	-0.8004	25.02	0.01	-0.750			
0.1297	8298.13	3.9710	3.9708	-0.8151	25.03	0.02	-0.750			
0.1321	8454.91	3.9680	3.9678	-0.8152	25.03	0.02	-0.750			
0.1347	8619.57	3.9650	3.9648	-0.8233	25.04	0.03	-0.750			
0.1371	8775.98	3.9620	3.9632	-0.8150	25.04	0.03	-0.750			
0.1395	8930.33	3.9590	3.9587	-0.8059	25.04	0.03	-0.750			
0.1419	9081.80	3.9560	3.9560	-0.8060	25.05	0.04	-0.750			
0.1441	9224.99	3.9530	3.9529	-0.7914	25.05	0.04	-0.750			
0.1467	9388.87	3.9500	3.9501	-0.8228	25.06	0.05	-0.750			
0.1492	9547.65	3.9470	3.9472	-0.8265	25.06	0.05	-0.750			
0.1517	9708.78	3.9440	3.9439	-0.8301	25.06	0.05	-0.750			
0.1542	9868.28	3.9410	3.9409	-0.8364	25.06	0.05	-0.750			
0.1567	10030.69	3.9380	3.9380	-0.8403	25.06	0.05	-0.750			
0.1593	10193.18	3.9350	3.9350	-0.8397	25.06	0.05	-0.750			
0.1618	10356.14	3.9320	3.9322	-0.8345	25.06	0.05	-0.750			
0.1642	10511.05	3.9290	3.9290	-0.8585	25.06	0.05	-0.750			
0.1668	10674.73	3.9260	3.9261	-0.8519	25.07	0.06	-0.750			
0.1694	10842.27	3.9230	3.9227	-0.8406	25.07	0.06	-0.750			
0.1720	11006.21	3.9200	3.9197	-0.8455	25.08	0.07	-0.750			
0.1745	11167.42	3.9170	3.9180	-0.8376	25.08	0.07	-0.750			
0.1770	11328.45	3.9140	3.9137	-0.8343	25.08	0.07	-0.750			
0.1795	11485.32	3.9110	3.9109	-0.8382	25.09	0.08	-0.750			
0.1819	11638.46	3.9080	3.9081	-0.8282	25.09	0.08	-0.750			
0.1845	11805.09	3.9050	3.9049	-0.8545	25.10	0.09	-0.750			
0.1871	11971.79	3.9020	3.9023	-0.8577	25.10	0.09	-0.750			
0.1896	12133.66	3.8990	3.8990	-0.8653	25.10	0.09	-0.750			
0.1922	12302.96	3.8960	3.8960	-0.8625	25.11	0.10	-0.750			
0.1948	12467.93	3.8930	3.8929	-0.8606	25.11	0.10	-0.750			
0.1974	12635.65	3.8900	3.8899	-0.8602	25.12	0.11	-0.750			
0.2000	12799.01	3.8870	3.8874	-0.8592	25.12	0.11	-0.750			
0.2025	12963.00	3.8840	3.8840	-0.8557	25.12	0.11	-0.750			
0.2051	13127.77	3.8810	3.8809	-0.8673	25.12	0.11	-0.750			
0.2077	13294.32	3.8780	3.8780	-0.8579	25.12	0.11	-0.750			
0.2104	13462.79	3.8750	3.8749	-0.8691	25.12	0.11	-0.750			
0.2130	13629.14	3.8720	3.8717	-0.8620	25.12	0.11	-0.750			
0.2155	13793.80	3.8690	3.8689	-0.8711	25.12	0.11	-0.750			
0.2181	13960.37	3.8660	3.8659	-0.8620	25.12	0.11	-0.750			
0.2207	14122.32	3.8630	3.8630	-0.8533	25.13	0.12	-0.750			
0.2233	14290.60	3.8600	3.8599	-0.8684	25.13	0.12	-0.750			
0.2259	14458.21	3.8570	3.8569	-0.8688	25.13	0.12	-0.750			
0.2285	14624.52	3.8540	3.8539	-0.8691	25.13	0.12	-0.750			
0.2311	14792.63	3.8510	3.8509	-0.8696	25.14	0.13	-0.750			
0.2337	14959.23	3.8480	3.8480	-0.8565	25.14	0.13	-0.750			
0.2364	15127.17	3.8450	3.8448	-0.8588	25.14	0.13	-0.750			
0.2389	15289.11	3.8420	3.8419	-0.8594	25.14	0.13	-0.750			
0.2415	15454.49	3.8390	3.8389	-0.8643	25.15	0.14	-0.750			
0.2441	15621.10	3.8360	3.8358	-0.8588	25.16	0.15	-0.750			
0.2466	15784.49	3.8330	3.8330	-0.8522	25.16	0.15	-0.750			
0.2493	15952.79	3.8300	3.8307	-0.8629	25.17	0.16	-0.750			
0.2519	16120.05	3.8270	3.8268	-0.8544	25.17	0.16	-0.750			
0.2544	16281.44	3.8240	3.8238	-0.8517	25.17	0.16	-0.750			
0.2569	16442.86	3.8210	3.8210	-0.8446	25.18	0.17	-0.750			
0.2594	16603.51	3.8180	3.8181	-0.8387	25.18	0.17	-0.750			
0.2620	16771.03	3.8150	3.8153	-0.8463	25.18	0.17	-0.750			
0.2646	16931.53	3.8120	3.8119	-0.8403	25.18	0.17	-0.750			
0.2671	17092.40	3.8090	3.8090	-0.8444	25.18	0.17	-0.750			
0.2696	17256.44	3.8060	3.8059	-0.8374	25.18	0.17	-0.750			
0.2722	17418.62	3.8030	3.8028	-0.8343	25.18	0.17	-0.750			
0.2746	17576.31	3.8000	3.8008	-0.8293	25.18	0.17	-0.750			
0.2771	17735.06	3.7970	3.7967	-0.8230	25.18	0.17	-0.750			
0.2796	17892.18	3.7940	3.7939	-0.8288	25.19	0.18	-0.750			
0.2821	18052.62	3.7910	3.7909	-0.8161	25.19	0.18	-0.750			
0.2846	18213.26	3.7880	3.7878	-0.8188	25.20	0.19	-0.750			
0.2870	18368.85	3.7850	3.7859	-0.8059	25.20	0.19	-0.750			
0.2894	18521.03	3.7820	3.7817	-0.7947	25.20	0.19	-0.750			
0.2917	18668.81	3.7790	3.7790	-0.7937	25.21	0.20	-0.750			
0.2940	18818.13	3.7760	3.7760	-0.7845	25.21	0.20	-0.750			
0.2965	18974.02	3.7730	3.7729	-0.7979	25.21	0.20	-0.750			
0.2988	19126.12	3.7700	3.7699	-0.7925	25.22	0.21	-0.750			
0.3012	19276.24	3.7670	3.7670	-0.7913	25.22	0.21	-0.750			
0.3035	19427.08	3.7640	3.7639	-0.8009	25.22	0.21	-0.750			
0.3059	19580.74	3.7610	3.7610	-0.7981	25.22	0.21	-0.750			
0.3084	19734.54	3.7580	3.7579	-0.7949	25.22	0.21	-0.750			
0.3108	19892.90	3.7550	3.7549	-0.8057	25.22	0.21	-0.750			
0.3132	20045.69	3.7520	3.7520	-0.8027	25.22	0.21	-0.750			
0.3155	20194.58	3.7490	3.7488	-0.8166	25.22	0.21	-0.750			
0.3180	20352.64	3.7460	3.7460	-0.8220	25.22	0.21	-0.750			
0.3204	20506.65	3.7430	3.7430	-0.8293	25.22	0.21	-0.750			
0.3231	20675.81	3.7400	3.7398	-0.8529	25.22	0.21	-0.750			
0.3257	20842.41	3.7370	3.7367	-0.8498	25.22	0.21	-0.750			
0.3282	21002.42	3.7340	3.7338	-0.8611	25.22	0.21	-0.750			
0.3308	21168.30	3.7310	3.7309	-0.8633	25.22	0.21	-0.750			
0.3333	21331.23	3.7280	3.7279	-0.8599	25.22	0.21	-0.750			
0.3360	21501.82	3.7250	3.7249	-0.8861	25.22	0.21	-0.750			
0.3385	21665.39	3.7220	3.7222	-0.9015	25.22	0.21	-0.750			
0.3413	21845.94	3.7190	3.7189	-0.9313	25.22	0.21	-0.750			
0.3442	22027.94	3.7160	3.7158	-0.9440	25.22	0.21	-0.750			
0.3470	22206.78	3.7130	3.7130	-0.9558	25.22	0.21	-0.750			
0.3500	22398.77	3.7100	3.7104	-0.9835	25.22	0.21	-0.750			
0.3530	22589.19	3.7070	3.7067	-0.9905	25.21	0.20	-0.750			
0.3559	22780.11	3.7040	3.7040	-0.9918	25.21	0.20	-0.750			
0.3588	22966.09	3.7010	3.7012	-1.0179	25.21	0.20	-0.750			
0.3620	23165.37	3.6980	3.6992	-1.0504	25.20	0.19	-0.750	0.417	0.522	
0.3651	23369.31	3.6950	3.6948	-1.0816	25.20	0.19	-0.750			
0.3684	23580.37	3.6920	3.6921	-1.0899	25.19	0.18	-0.750			
0.3718	23792.88	3.6890	3.6890	-1.1120	25.19	0.18	-0.750			
0.3752	24011.21	3.6860	3.6863	-1.1425	25.19	0.18	-0.750			
0.3786	24233.49	3.6830	3.6827	-1.1542	25.18	0.17	-0.750			
0.3821	24451.45	3.6800	3.6799	-1.1603	25.18	0.17	-0.750			
0.3855	24668.86	3.6770	3.6770	-1.2165	25.17	0.16	-0.750			
0.3893	24912.30	3.6740	3.6738	-1.2307	25.16	0.15	-0.750			
0.3931	25155.46	3.6710	3.6706	-1.2396	25.15	0.14	-0.750			
0.3968	25392.70	3.6680	3.6679	-1.2485	25.14	0.13	-0.750			
0.4005	25630.84	3.6650	3.6650	-1.2687	25.13	0.12	-0.750			
0.4044	25881.06	3.6620	3.6618	-1.3031	25.12	0.11	-0.750			
0.4083	26132.75	3.6590	3.6588	-1.3089	25.11	0.10	-0.750			
0.4122	26383.69	3.6560	3.6563	-1.3704	25.10	0.09	-0.750			
0.4164	26651.57	3.6530	3.6530	-1.3869	25.09	0.08	-0.750			
0.4207	26922.31	3.6500	3.6498	-1.4513	25.09	0.08	-0.750			
0.4251	27207.05	3.6470	3.6474	-1.4690	25.08	0.07	-0.750			
0.4297	27500.03	3.6440	3.6437	-1.4842	25.06	0.05	-0.750			
0.4341	27784.21	3.6410	3.6412	-1.5107	25.05	0.04	-0.750			
0.4387	28076.41	3.6380	3.6378	-1.5231	25.04	0.03	-0.750			
0.4432	28367.77	3.6350	3.6346	-1.5395	25.03	0.02	-0.750			
0.4479	28665.26	3.6320	3.6323	-1.5434	25.02	0.01	-0.750			
0.4524	28956.66	3.6290	3.6286	-1.5743	25.02	0.01	-0.750			
0.4574	29271.78	3.6260	3.6256	-1.6127	25.01	-0.00	-0.750			
0.4625	29597.49	3.6230	3.6230	-1.6526	25.00	-0.01	-0.750			
0.4675	29919.67	3.6200	3.6202	-1.6815	24.99	-0.02	-0.750			
0.4725	30238.78	3.6170	3.6168	-1.6907	24.98	-0.03	-0.750			
0.4776	30563.73	3.6140	3.6142	-1.7268	24.98	-0.03	-0.750			
0.4829	30904.32	3.6110	3.6114	-1.7747	24.97	-0.04	-0.750			
0.4881	31240.48	3.6080	3.6080	-1.7919	24.96	-0.05	-0.750			
0.4938	31601.57	3.6050	3.6050	-1.9255	24.95	-0.06	-0.750			
0.4997	31982.51	3.6020	3.6022	-1.9445	24.94	-0.07	-0.750			
0.5057	32367.41	3.5990	3.5989	-1.9554	24.94	-0.07	-0.750			
0.5116	32745.07	3.5960	3.5965	-1.9695	24.93	-0.08	-0.750			
0.5175	33119.36	3.5930	3.5930	-2.0096	24.92	-0.09	-0.750			
0.5236	33511.39	3.5900	3.5895	-2.0466	24.90	-0.11	-0.750			
0.5294	33882.99	3.5870	3.5869	-2.0871	24.90	-0.11	-0.750			
0.5359	34299.61	3.5840	3.5839	-2.1233	24.90	-0.11	-0.750			
0.5427	34730.33	3.5810	3.5813	-2.1518	24.89	-0.12	-0.750			
0.5489	35131.31	3.5780	3.5788	-2.2839	24.88	-0.13	-0.750			
0.5556	35559.59	3.5750	3.5747	-2.3807	24.88	-0.13	-0.750			
0.5630	36029.32	3.5720	3.5717	-2.4681	24.88	-0.13	-0.750			
0.5710	36544.09	3.5690	3.5689	-2.4998	24.88	-0.13	-0.750			
0.5786	37029.92	3.5660	3.5657	-2.4116	24.88	-0.13	-0.750			
0.5857	37481.80	3.5630	3.5628	-2.3717	24.88	-0.13	-0.750			
0.5922	37898.35	3.5600	3.5601	-2.2421	24.88	-0.13	-0.750			
0.5988	38325.48	3.5570	3.5570	-2.2034	24.88	-0.13	-0.750			
0.6054	38746.82	3.5540	3.5538	-2.2641	24.88	-0.13	-0.750			
0.6123	39185.60	3.5510	3.5511	-2.1870	24.89	-0.12	-0.750			
0.6188	39601.30	3.5480	3.5483	-2.1691	24.90	-0.11	-0.750			
0.6253	40017.75	3.5450	3.5453	-2.1447	24.90	-0.11	-0.750			
0.6318	40436.71	3.5420	3.5419	-2.1129	24.90	-0.11	-0.750			
0.6379	40825.07	3.5390	3.5391	-2.0579	24.90	-0.11	-0.750			
0.6443	41234.46	3.5360	3.5360	-2.0686	24.91	-0.10	-0.750			
0.6503	41618.72	3.5330	3.5331	-1.9718	24.92	-0.09	-0.750			
0.6562	41997.52	3.5300	3.5301	-1.9439	24.93	-0.08	-0.750			
0.6620	42369.16	3.5270	3.5273	-1.8720	24.94	-0.07	-0.750			
0.6676	42724.77	3.5240	3.5237	-1.8310	24.95	-0.06	-0.750			
0.6730	43073.02	3.5210	3.5206	-1.7738	24.97	-0.04	-0.750			
0.6782	43404.99	3.5180	3.5179	-1.7252	24.98	-0.03	-0.750			
0.6834	43735.81	3.5150	3.5148	-1.6906	24.99	-0.02	-0.750			
0.6883	44048.43	3.5120	3.5119	-1.6139	25.00	-0.01	-0.750			
0.6931	44357.24	3.5090	3.5093	-1.5806	25.02	0.01	-0.750			
0.6978	44657.19	3.5060	3.5058	-1.5359	25.03	0.02	-0.750			
0.7023	44948.14	3.5030	3.5028	-1.4853	25.05	0.04	-0.750			
0.7068	45232.75	3.5000	3.5003	-1.4537	25.07	0.06	-0.750			
0.7111	45507.48	3.4970	3.4970	-1.4311	25.09	0.08	-0.750			
0.7151	45767.27	3.4940	3.4940	-1.3979	25.10	0.09	-0.750			
0.7193	46037.67	3.4910	3.4908	-1.3847	25.12	0.11	-0.750			
0.7235	46306.97	3.4880	3.4879	-1.4889	25.14	0.13	-0.750			
