Ah_balance (normalized)	Ah_balance (mAh)	Voltage - fit (V)	Voltage -  interpolate (V)	dQ/dV (1/V)	Temperature (°C)	Temperature - diff (°C)	Current (C)	R_DC 0ms (mOhm)	R_DC 50ms (mOhm)	R_DC 50 ms PEC (mOhm)
0.0003	21.16	4.1640	4.1636	-0.1267	24.73	0.03	-0.750			
0.0008	49.48	4.1610	4.1609	-0.1731	24.72	0.02	-0.750			
0.0014	88.91	4.1580	4.1579	-0.2208	24.72	0.02	-0.750			
0.0021	135.75	4.1550	4.1550	-0.2645	24.72	0.02	-0.750			
0.0030	190.63	4.1520	4.1520	-0.3088	24.72	0.02	-0.750			
0.0040	256.17	4.1490	4.1490	-0.3508	24.71	0.01	-0.750			
0.0051	327.45	4.1460	4.1459	-0.3904	24.71	0.01	-0.750			
0.0063	405.20	4.1430	4.1431	-0.4323	24.71	0.01	-0.750			
0.0077	492.62	4.1400	4.1402	-0.4704	24.70	0.00	-0.750			
0.0092	587.43	4.1370	4.1367	-0.5086	24.70	-0.00	-0.750			
0.0108	689.41	4.1340	4.1340	-0.5419	24.69	-0.01	-0.750			
0.0125	797.32	4.1310	4.1312	-0.5727	24.69	-0.01	-0.750			
0.0142	911.45	4.1280	4.1280	-0.6048	24.68	-0.02	-0.750			
0.0161	1033.09	4.1250	4.1251	-0.6293	24.67	-0.03	-0.750			
0.0181	1157.73	4.1220	4.1219	-0.6410	24.67	-0.03	-0.750			
0.0201	1284.72	4.1190	4.1189	-0.6561	24.66	-0.04	-0.750			
0.0220	1410.84	4.1160	4.1160	-0.6655	24.66	-0.04	-0.750			
0.0240	1538.47	4.1130	4.1129	-0.6749	24.66	-0.04	-0.750			
0.0261	1667.65	4.1100	4.1099	-0.6866	24.66	-0.04	-0.750			
0.0281	1800.54	4.1070	4.1070	-0.6917	24.66	-0.04	-0.750			
0.0303	1938.04	4.1040	4.1039	-0.7053	24.66	-0.04	-0.750			
0.0324	2074.95	4.1010	4.1009	-0.7120	24.66	-0.04	-0.750			
0.0346	2211.36	4.0980	4.0978	-0.7197	24.66	-0.04	-0.750			
0.0367	2348.59	4.0950	4.0951	-0.7254	24.65	-0.05	-0.750			
0.0389	2488.25	4.0920	4.0919	-0.7297	24.65	-0.05	-0.750			
0.0411	2630.37	4.0890	4.0891	-0.7349	24.65	-0.05	-0.750			
0.0434	2775.41	4.0860	4.0860	-0.7474	24.64	-0.06	-0.750			
0.0456	2918.00	4.0830	4.0829	-0.7481	24.64	-0.06	-0.750			
0.0478	3062.11	4.0800	4.0800	-0.7515	24.64	-0.06	-0.750			
0.0501	3205.04	4.0770	4.0769	-0.7617	24.64	-0.06	-0.750			
0.0524	3352.32	4.0740	4.0740	-0.7624	24.63	-0.07	-0.750			
0.0547	3501.07	4.0710	4.0709	-0.7715	24.63	-0.07	-0.750			
0.0570	3649.35	4.0680	4.0679	-0.7694	24.63	-0.07	-0.750			
0.0593	3797.86	4.0650	4.0649	-0.7668	24.63	-0.07	-0.750			
0.0616	3942.63	4.0620	4.0621	-0.7776	24.63	-0.07	-0.750			
0.0639	4092.51	4.0590	4.0589	-0.7749	24.63	-0.07	-0.750			
0.0663	4240.83	4.0560	4.0559	-0.7778	24.64	-0.06	-0.750			
0.0687	4394.60	4.0530	4.0528	-0.7728	24.64	-0.06	-0.750			
0.0710	4543.09	4.0500	4.0507	-0.7692	24.64	-0.06	-0.750			
0.0733	4690.71	4.0470	4.0470	-0.7660	24.64	-0.06	-0.750			
0.0756	4835.37	4.0440	4.0439	-0.7717	24.64	-0.06	-0.750			
0.0778	4977.75	4.0410	4.0410	-0.7675	24.64	-0.06	-0.750			
0.0802	5131.22	4.0380	4.0379	-0.7788	24.64	-0.06	-0.750			
0.0825	5282.62	4.0350	4.0349	-0.7835	24.64	-0.06	-0.750			
0.0849	5435.12	4.0320	4.0320	-0.7908	24.64	-0.06	-0.750			
0.0873	5584.97	4.0290	4.0290	-0.7929	24.65	-0.05	-0.750			
0.0896	5736.95	4.0260	4.0259	-0.7855	24.65	-0.05	-0.750			
0.0920	5885.55	4.0230	4.0229	-0.7817	24.65	-0.05	-0.750			
0.0943	6037.68	4.0200	4.0200	-0.7873	24.66	-0.04	-0.750			
0.0967	6189.51	4.0170	4.0169	-0.7925	24.66	-0.04	-0.750			
0.0990	6339.14	4.0140	4.0140	-0.8025	24.67	-0.03	-0.750			
0.1015	6494.86	4.0110	4.0110	-0.8036	24.67	-0.03	-0.750			
0.1039	6649.79	4.0080	4.0080	-0.8046	24.67	-0.03	-0.750			
0.1064	6808.76	4.0050	4.0048	-0.7998	24.68	-0.02	-0.750			
0.1088	6962.13	4.0020	4.0020	-0.7965	24.68	-0.02	-0.750			
0.1111	7113.10	3.9990	3.9990	-0.7969	24.68	-0.02	-0.750			
0.1135	7262.56	3.9960	3.9958	-0.8015	24.68	-0.02	-0.750			
0.1159	7414.88	3.9930	3.9929	-0.7997	24.69	-0.01	-0.750			
0.1183	7572.89	3.9900	3.9900	-0.8177	24.69	-0.01	-0.750			
0.1208	7733.27	3.9870	3.9873	-0.8229	24.69	-0.01	-0.750			
0.1233	7893.04	3.9840	3.9839	-0.8234	24.69	-0.01	-0.750			
0.1258	8049.94	3.9810	3.9810	-0.8327	24.69	-0.01	-0.750			
0.1283	8212.06	3.9780	3.9780	-0.8256	24.70	-0.00	-0.750			
0.1308	8371.29	3.9750	3.9748	-0.8276	24.70	-0.00	-0.750			
0.1333	8528.22	3.9720	3.9728	-0.8408	24.70	0.00	-0.750			
0.1357	8687.57	3.9690	3.9688	-0.8485	24.70	0.00	-0.750			
0.1384	8856.23	3.9660	3.9657	-0.8672	24.71	0.01	-0.750			
0.1410	9024.71	3.9630	3.9630	-0.8686	24.71	0.01	-0.750			
0.1437	9198.12	3.9600	3.9599	-0.8747	24.72	0.02	-0.750			
0.1464	9367.75	3.9570	3.9570	-0.8621	24.72	0.02	-0.750			
0.1489	9528.49	3.9540	3.9539	-0.8550	24.73	0.03	-0.750			
0.1514	9687.55	3.9510	3.9508	-0.8446	24.73	0.03	-0.750			
0.1538	9843.09	3.9480	3.9481	-0.8333	24.73	0.03	-0.750			
0.1564	10011.70	3.9450	3.9447	-0.8508	24.74	0.04	-0.750			
0.1590	10175.47	3.9420	3.9421	-0.8518	24.74	0.04	-0.750			
0.1615	10337.92	3.9390	3.9390	-0.8609	24.74	0.04	-0.750			
0.1641	10503.36	3.9360	3.9360	-0.8622	24.74	0.04	-0.750			
0.1667	10666.51	3.9330	3.9329	-0.8535	24.75	0.05	-0.750			
0.1693	10835.12	3.9300	3.9299	-0.8640	24.75	0.05	-0.750			
0.1719	11001.10	3.9270	3.9270	-0.8673	24.75	0.05	-0.750			
0.1745	11169.16	3.9240	3.9239	-0.8746	24.75	0.05	-0.750			
0.1772	11338.14	3.9210	3.9209	-0.8731	24.76	0.06	-0.750			
0.1798	11504.59	3.9180	3.9179	-0.8668	24.76	0.06	-0.750			
0.1824	11674.23	3.9150	3.9148	-0.8717	24.76	0.06	-0.750			
0.1850	11841.65	3.9120	3.9118	-0.8727	24.76	0.06	-0.750			
0.1876	12006.97	3.9090	3.9089	-0.8750	24.77	0.07	-0.750			
0.1902	12171.92	3.9060	3.9060	-0.8745	24.77	0.07	-0.750			
0.1929	12344.59	3.9030	3.9029	-0.8916	24.78	0.08	-0.750			
0.1955	12515.18	3.9000	3.9002	-0.8879	24.78	0.08	-0.750			
0.1982	12684.88	3.8970	3.8970	-0.8935	24.78	0.08	-0.750			
0.2009	12857.63	3.8940	3.8940	-0.8904	24.78	0.08	-0.750			
0.2036	13028.29	3.8910	3.8909	-0.8867	24.78	0.08	-0.750			
0.2062	13198.87	3.8880	3.8878	-0.8868	24.78	0.08	-0.750			
0.2089	13367.48	3.8850	3.8852	-0.8867	24.78	0.08	-0.750			
0.2115	13538.51	3.8820	3.8820	-0.8949	24.79	0.09	-0.750			
0.2142	13711.60	3.8790	3.8790	-0.8940	24.79	0.09	-0.750			
0.2169	13883.12	3.8760	3.8758	-0.8861	24.79	0.09	-0.750			
0.2196	14055.67	3.8730	3.8729	-0.8894	24.80	0.10	-0.750			
0.2222	14223.37	3.8700	3.8699	-0.8936	24.80	0.10	-0.750			
0.2249	14393.08	3.8670	3.8669	-0.8982	24.81	0.11	-0.750			
0.2275	14563.04	3.8640	3.8640	-0.9017	24.81	0.11	-0.750			
0.2303	14740.42	3.8610	3.8609	-0.9238	24.82	0.12	-0.750			
0.2332	14922.41	3.8580	3.8583	-0.9224	24.82	0.12	-0.750			
0.2359	15099.46	3.8550	3.8551	-0.9260	24.82	0.12	-0.750			
0.2387	15278.68	3.8520	3.8519	-0.9201	24.82	0.12	-0.750			
0.2415	15453.43	3.8490	3.8489	-0.9100	24.82	0.12	-0.750			
0.2442	15626.77	3.8460	3.8459	-0.8987	24.82	0.12	-0.750			
0.2468	15798.26	3.8430	3.8431	-0.8909	24.82	0.12	-0.750			
0.2495	15969.18	3.8400	3.8400	-0.8923	24.83	0.13	-0.750			
0.2522	16140.45	3.8370	3.8370	-0.8918	24.83	0.13	-0.750			
0.2548	16308.59	3.8340	3.8339	-0.8853	24.83	0.13	-0.750			
0.2575	16480.83	3.8310	3.8308	-0.8917	24.84	0.14	-0.750			
0.2602	16651.93	3.8280	3.8280	-0.8973	24.84	0.14	-0.750			
0.2629	16825.11	3.8250	3.8251	-0.9028	24.85	0.15	-0.750			
0.2656	16999.79	3.8220	3.8218	-0.8975	24.85	0.15	-0.750			
0.2683	17170.96	3.8190	3.8190	-0.8941	24.86	0.16	-0.750			
0.2710	17344.20	3.8160	3.8163	-0.8930	24.86	0.16	-0.750			
0.2737	17513.91	3.8130	3.8129	-0.8966	24.86	0.16	-0.750			
0.2764	17687.01	3.8100	3.8100	-0.8923	24.87	0.17	-0.750			
0.2790	17857.10	3.8070	3.8070	-0.8909	24.87	0.17	-0.750			
0.2817	18028.78	3.8040	3.8039	-0.8902	24.88	0.18	-0.750			
0.2844	18201.20	3.8010	3.8010	-0.8905	24.88	0.18	-0.750			
0.2870	18370.06	3.7980	3.7980	-0.8943	24.88	0.18	-0.750			
0.2897	18543.01	3.7950	3.7949	-0.8898	24.88	0.18	-0.750			
0.2924	18712.69	3.7920	3.7920	-0.8843	24.88	0.18	-0.750			
0.2951	18884.24	3.7890	3.7889	-0.8881	24.88	0.18	-0.750			
0.2977	19054.97	3.7860	3.7859	-0.8812	24.88	0.18	-0.750			
0.3004	19224.05	3.7830	3.7829	-0.8809	24.89	0.19	-0.750			
0.3030	19391.89	3.7800	3.7800	-0.8722	24.90	0.20	-0.750			
0.3056	19557.76	3.7770	3.7770	-0.8672	24.90	0.20	-0.750			
0.3082	19726.85	3.7740	3.7742	-0.8712	24.91	0.21	-0.750			
0.3108	19892.66	3.7710	3.7709	-0.8638	24.91	0.21	-0.750			
0.3134	20055.44	3.7680	3.7680	-0.8687	24.92	0.22	-0.750			
0.3160	20224.93	3.7650	3.7650	-0.8650	24.92	0.22	-0.750			
0.3186	20392.43	3.7620	3.7619	-0.8630	24.93	0.23	-0.750			
0.3212	20557.16	3.7590	3.7592	-0.8636	24.93	0.23	-0.750			
0.3238	20720.13	3.7560	3.7560	-0.8670	24.93	0.23	-0.750			
0.3264	20887.24	3.7530	3.7528	-0.8678	24.93	0.23	-0.750			
0.3290	21053.36	3.7500	3.7500	-0.8693	24.94	0.24	-0.750			
0.3316	21221.51	3.7470	3.7469	-0.8708	24.94	0.24	-0.750			
0.3342	21391.26	3.7440	3.7442	-0.8782	24.94	0.24	-0.750			
0.3369	21558.78	3.7410	3.7409	-0.8862	24.95	0.25	-0.750			
0.3395	21727.72	3.7380	3.7380	-0.8871	24.95	0.25	-0.750			
0.3421	21897.54	3.7350	3.7349	-0.8892	24.95	0.25	-0.750			
0.3449	22071.53	3.7320	3.7319	-0.8988	24.96	0.26	-0.750			
0.3475	22242.80	3.7290	3.7291	-0.9178	24.96	0.26	-0.750			
0.3503	22421.13	3.7260	3.7260	-0.9265	24.96	0.26	-0.750			
0.3531	22599.94	3.7230	3.7229	-0.9336	24.96	0.26	-0.750			
0.3559	22778.64	3.7200	3.7199	-0.9422	24.96	0.26	-0.750			
0.3588	22963.24	3.7170	3.7172	-0.9604	24.96	0.26	-0.750			
0.3617	23147.49	3.7140	3.7140	-0.9825	24.96	0.26	-0.750			
0.3647	23338.88	3.7110	3.7108	-0.9914	24.96	0.26	-0.750			
0.3676	23527.62	3.7080	3.7080	-0.9953	24.96	0.26	-0.750			
0.3707	23722.51	3.7050	3.7058	-1.0276	24.96	0.26	-0.750	0.401	0.506	
0.3738	23921.26	3.7020	3.7019	-1.0456	24.96	0.26	-0.750			
0.3769	24122.74	3.6990	3.6989	-1.0603	24.96	0.26	-0.750			
0.3801	24327.70	3.6960	3.6959	-1.0676	24.96	0.26	-0.750			
0.3833	24531.20	3.6930	3.6935	-1.1078	24.96	0.26	-0.750			
0.3867	24750.15	3.6900	3.6899	-1.1298	24.95	0.25	-0.750			
0.3901	24968.57	3.6870	3.6869	-1.1485	24.95	0.25	-0.750			
0.3935	25184.93	3.6840	3.6839	-1.1846	24.94	0.24	-0.750			
0.3971	25417.46	3.6810	3.6810	-1.2002	24.94	0.24	-0.750			
0.4008	25652.20	3.6780	3.6779	-1.2184	24.94	0.24	-0.750			
0.4045	25889.98	3.6750	3.6747	-1.2341	24.94	0.24	-0.750			
0.4081	26121.19	3.6720	3.6728	-1.2440	24.94	0.24	-0.750			
0.4120	26366.00	3.6690	3.6689	-1.2838	24.93	0.23	-0.750			
0.4158	26611.68	3.6660	3.6660	-1.3075	24.92	0.22	-0.750			
0.4198	26864.36	3.6630	3.6629	-1.3482	24.91	0.21	-0.750			
0.4239	27131.10	3.6600	3.6600	-1.3859	24.90	0.20	-0.750			
0.4281	27399.96	3.6570	3.6569	-1.4257	24.89	0.19	-0.750			
0.4325	27680.94	3.6540	3.6541	-1.4662	24.88	0.18	-0.750			
0.4370	27966.74	3.6510	3.6507	-1.4968	24.88	0.18	-0.750			
0.4416	28263.32	3.6480	3.6482	-1.5201	24.87	0.17	-0.750			
0.4464	28569.36	3.6450	3.6450	-1.4599	24.87	0.17	-0.750			
0.4507	28841.90	3.6420	3.6425	-1.4461	24.86	0.16	-0.750			
0.4549	29111.61	3.6390	3.6396	-1.4844	24.85	0.15	-0.750			
0.4592	29387.59	3.6360	3.6350	-1.4886	24.84	0.14	-0.750			
0.4634	29658.62	3.6330	3.6330	-1.5759	24.83	0.13	-0.750			
0.4683	29968.64	3.6300	3.6303	-1.6305	24.82	0.12	-0.750			
0.4736	30307.25	3.6270	3.6266	-1.7240	24.82	0.12	-0.750			
0.4789	30652.41	3.6240	3.6239	-1.7441	24.81	0.11	-0.750			
0.4841	30980.15	3.6210	3.6207	-1.7520	24.80	0.10	-0.750			
0.4895	31325.46	3.6180	3.6177	-1.8036	24.79	0.09	-0.750			
0.4948	31667.50	3.6150	3.6148	-1.8465	24.78	0.08	-0.750			
0.5005	32030.13	3.6120	3.6122	-1.9228	24.77	0.07	-0.750			
0.5061	32392.96	3.6090	3.6098	-1.9306	24.76	0.06	-0.750			
0.5123	32788.58	3.6060	3.6061	-1.9675	24.76	0.06	-0.750			
0.5182	33163.13	3.6030	3.6034	-1.9890	24.76	0.06	-0.750			
0.5241	33540.25	3.6000	3.6002	-2.0196	24.75	0.05	-0.750			
0.5303	33939.66	3.5970	3.5976	-2.1376	24.74	0.04	-0.750			
0.5367	34348.66	3.5940	3.5943	-2.2071	24.73	0.03	-0.750			
0.5435	34785.79	3.5910	3.5904	-2.1644	24.72	0.02	-0.750			
0.5501	35205.90	3.5880	3.5878	-2.1801	24.72	0.02	-0.750			
0.5564	35608.15	3.5850	3.5849	-2.1757	24.72	0.02	-0.750			
0.5628	36019.86	3.5820	3.5820	-2.2636	24.72	0.02	-0.750			
0.5698	36464.52	3.5790	3.5789	-2.2731	24.71	0.01	-0.750			
0.5769	36920.44	3.5760	3.5757	-2.4119	24.71	0.01	-0.750			
0.5840	37377.70	3.5730	3.5730	-2.3721	24.70	0.00	-0.750			
0.5911	37830.29	3.5700	3.5708	-2.3464	24.70	0.00	-0.750			
0.5980	38274.88	3.5670	3.5671	-2.3504	24.70	0.00	-0.750			
0.6051	38727.78	3.5640	3.5639	-2.4092	24.70	0.00	-0.750			
0.6121	39173.41	3.5610	3.5611	-2.4055	24.70	0.00	-0.750			
0.6198	39665.79	3.5580	3.5578	-2.4105	24.70	0.00	-0.750			
0.6268	40112.48	3.5550	3.5556	-2.3941	24.70	0.00	-0.750			
0.6341	40579.48	3.5520	3.5513	-2.3815	24.71	0.01	-0.750			
0.6410	41022.96	3.5490	3.5488	-2.2843	24.72	0.02	-0.750			
0.6475	41443.00	3.5460	3.5461	-2.2273	24.72	0.02	-0.750			
0.6543	41876.02	3.5430	3.5437	-2.2637	24.72	0.02	-0.750			
0.6610	42306.86	3.5400	3.5396	-2.1958	24.72	0.02	-0.750			
0.6677	42732.68	3.5370	3.5368	-2.1081	24.72	0.02	-0.750			
0.6739	43132.74	3.5340	3.5341	-2.1326	24.73	0.03	-0.750			
0.6801	43528.25	3.5310	3.5311	-2.0657	24.74	0.04	-0.750			
0.6861	43911.55	3.5280	3.5275	-2.0240	24.74	0.04	-0.750			
0.6922	44300.09	3.5250	3.5248	-1.9682	24.75	0.05	-0.750			
0.6981	44680.26	3.5220	3.5217	-1.9230	24.77	0.07	-0.750			
0.7038	45043.61	3.5190	3.5184	-1.8372	24.78	0.08	-0.750			
0.7090	45374.78	3.5160	3.5156	-1.7432	24.79	0.09	-0.750			
0.7142	45709.13	3.5130	3.5129	-1.6658	24.81	0.11	-0.750			
0.7192	46025.81	3.5100	3.5102	-1.6142	24.83	0.13	-0.750			
0.7241	46340.85	3.5070	3.5067	-1.5676	24.84	0.14	-0.750			
0.7283	46613.53	3.5040	3.5039	-1.4909	24.85	0.15	-0.750			
0.7328	46896.66	3.5010	3.5015	-1.4605	24.86	0.16	-0.750			
0.7370	47170.93	3.4980	3.4979	-1.4038	24.87	0.17	-0.750			
