Ah_balance (normalized)	Ah_balance (mAh)	Voltage - fit (V)	Voltage -  interpolate (V)	dQ/dV (1/V)	Temperature (°C)	Temperature - diff (°C)	Current (C)	R_DC 0ms (mOhm)	R_DC 50ms (mOhm)	R_DC 50 ms PEC (mOhm)
0.0003	20.22	4.1620	4.1623	-0.1577	25.08	0.02	-0.750			
0.0009	55.16	4.1590	4.1591	-0.1989	25.08	0.02	-0.750			
0.0015	96.67	4.1560	4.1559	-0.2362	25.08	0.02	-0.750			
0.0023	145.13	4.1530	4.1531	-0.2753	25.08	0.02	-0.750			
0.0032	201.72	4.1500	4.1499	-0.3154	25.08	0.02	-0.750			
0.0042	266.41	4.1470	4.1470	-0.3582	25.07	0.01	-0.750			
0.0053	340.38	4.1440	4.1438	-0.3940	25.07	0.01	-0.750			
0.0066	420.86	4.1410	4.1410	-0.4291	25.06	0.00	-0.750			
0.0079	507.88	4.1380	4.1385	-0.4591	25.06	-0.00	-0.750			
0.0094	599.20	4.1350	4.1349	-0.4891	25.06	-0.00	-0.750			
0.0109	695.59	4.1320	4.1320	-0.5149	25.05	-0.01	-0.750			
0.0124	796.65	4.1290	4.1290	-0.5341	25.05	-0.01	-0.750			
0.0141	902.48	4.1260	4.1259	-0.5717	25.04	-0.02	-0.750			
0.0159	1014.91	4.1230	4.1230	-0.5938	25.03	-0.03	-0.750			
0.0177	1133.03	4.1200	4.1198	-0.6125	25.03	-0.03	-0.750			
0.0196	1252.71	4.1170	4.1169	-0.6304	25.02	-0.04	-0.750			
0.0215	1376.46	4.1140	4.1139	-0.6444	25.02	-0.04	-0.750			
0.0235	1502.40	4.1110	4.1109	-0.6572	25.02	-0.04	-0.750			
0.0255	1628.96	4.1080	4.1080	-0.6692	25.01	-0.05	-0.750			
0.0274	1756.73	4.1050	4.1051	-0.6720	25.01	-0.05	-0.750			
0.0295	1890.39	4.1020	4.1019	-0.6875	25.01	-0.05	-0.750			
0.0316	2023.52	4.0990	4.0990	-0.6934	25.00	-0.06	-0.750			
0.0337	2156.63	4.0960	4.0960	-0.6987	25.00	-0.06	-0.750			
0.0358	2291.86	4.0930	4.0930	-0.7043	25.00	-0.06	-0.750			
0.0379	2427.80	4.0900	4.0900	-0.7177	25.00	-0.06	-0.750			
0.0401	2567.93	4.0870	4.0869	-0.7193	25.00	-0.06	-0.750			
0.0423	2708.19	4.0840	4.0839	-0.7223	25.00	-0.06	-0.750			
0.0445	2847.58	4.0810	4.0810	-0.7223	25.00	-0.06	-0.750			
0.0466	2985.39	4.0780	4.0779	-0.7248	25.00	-0.06	-0.750			
0.0488	3123.41	4.0750	4.0749	-0.7226	25.00	-0.06	-0.750			
0.0510	3261.57	4.0720	4.0720	-0.7403	25.00	-0.06	-0.750			
0.0532	3404.35	4.0690	4.0689	-0.7367	25.00	-0.06	-0.750			
0.0555	3554.28	4.0660	4.0658	-0.7482	25.00	-0.06	-0.750			
0.0578	3696.88	4.0630	4.0639	-0.7470	25.00	-0.06	-0.750			
0.0600	3840.59	4.0600	4.0599	-0.7449	25.00	-0.06	-0.750			
0.0622	3980.69	4.0570	4.0569	-0.7474	24.99	-0.07	-0.750			
0.0644	4120.92	4.0540	4.0541	-0.7426	24.99	-0.07	-0.750			
0.0667	4266.42	4.0510	4.0510	-0.7588	24.99	-0.07	-0.750			
0.0689	4412.76	4.0480	4.0480	-0.7586	24.98	-0.08	-0.750			
0.0713	4560.29	4.0450	4.0449	-0.7599	24.98	-0.08	-0.750			
0.0735	4703.70	4.0420	4.0421	-0.7641	24.98	-0.08	-0.750			
0.0758	4851.28	4.0390	4.0390	-0.7656	24.99	-0.07	-0.750			
0.0781	4998.30	4.0360	4.0360	-0.7637	24.99	-0.07	-0.750			
0.0804	5147.59	4.0330	4.0329	-0.7656	25.00	-0.06	-0.750			
0.0827	5292.72	4.0300	4.0303	-0.7637	25.00	-0.06	-0.750			
0.0850	5439.80	4.0270	4.0270	-0.7684	25.00	-0.06	-0.750			
0.0873	5586.01	4.0240	4.0240	-0.7758	25.00	-0.06	-0.750			
0.0896	5734.82	4.0210	4.0208	-0.7777	25.00	-0.06	-0.750			
0.0920	5886.61	4.0180	4.0180	-0.7829	25.00	-0.06	-0.750			
0.0943	6038.22	4.0150	4.0149	-0.7813	25.00	-0.06	-0.750			
0.0967	6190.93	4.0120	4.0119	-0.7832	25.00	-0.06	-0.750			
0.0991	6339.61	4.0090	4.0089	-0.7766	25.00	-0.06	-0.750			
0.1013	6485.35	4.0060	4.0060	-0.7761	25.00	-0.06	-0.750			
0.1037	6634.19	4.0030	4.0030	-0.7771	25.01	-0.05	-0.750			
0.1060	6785.84	4.0000	3.9998	-0.7875	25.01	-0.05	-0.750			
0.1084	6937.47	3.9970	3.9972	-0.7909	25.01	-0.05	-0.750			
0.1108	7090.69	3.9940	3.9940	-0.7953	25.01	-0.05	-0.750			
0.1132	7244.42	3.9910	3.9910	-0.8037	25.01	-0.05	-0.750			
0.1156	7401.02	3.9880	3.9879	-0.7890	25.02	-0.04	-0.750			
0.1180	7554.57	3.9850	3.9849	-0.7946	25.02	-0.04	-0.750			
0.1204	7705.17	3.9820	3.9827	-0.7940	25.02	-0.04	-0.750			
0.1227	7855.40	3.9790	3.9788	-0.7892	25.02	-0.04	-0.750			
0.1251	8006.05	3.9760	3.9759	-0.8017	25.02	-0.04	-0.750			
0.1275	8159.20	3.9730	3.9730	-0.7990	25.02	-0.04	-0.750			
0.1300	8317.64	3.9700	3.9699	-0.8166	25.02	-0.04	-0.750			
0.1324	8475.21	3.9670	3.9667	-0.8156	25.02	-0.04	-0.750			
0.1349	8630.47	3.9640	3.9639	-0.8090	25.02	-0.04	-0.750			
0.1373	8785.26	3.9610	3.9609	-0.8152	25.03	-0.03	-0.750			
0.1397	8940.35	3.9580	3.9580	-0.8152	25.03	-0.03	-0.750			
0.1422	9098.15	3.9550	3.9549	-0.8203	25.03	-0.03	-0.750			
0.1446	9256.53	3.9520	3.9520	-0.8198	25.04	-0.02	-0.750			
0.1471	9413.79	3.9490	3.9490	-0.8153	25.04	-0.02	-0.750			
0.1495	9570.16	3.9460	3.9460	-0.8283	25.04	-0.02	-0.750			
0.1520	9729.56	3.9430	3.9430	-0.8285	25.04	-0.02	-0.750			
0.1545	9888.23	3.9400	3.9397	-0.8277	25.04	-0.02	-0.750			
0.1570	10049.39	3.9370	3.9371	-0.8331	25.04	-0.02	-0.750			
0.1595	10210.32	3.9340	3.9339	-0.8328	25.04	-0.02	-0.750			
0.1620	10370.60	3.9310	3.9309	-0.8468	25.05	-0.01	-0.750			
0.1646	10535.99	3.9280	3.9279	-0.8391	25.05	-0.01	-0.750			
0.1671	10694.05	3.9250	3.9249	-0.8241	25.05	-0.01	-0.750			
0.1697	10858.57	3.9220	3.9223	-0.8315	25.06	-0.00	-0.750			
0.1721	11016.51	3.9190	3.9189	-0.8287	25.06	0.00	-0.750			
0.1746	11171.99	3.9160	3.9158	-0.8337	25.06	0.00	-0.750			
0.1770	11330.52	3.9130	3.9129	-0.8373	25.07	0.01	-0.750			
0.1796	11495.06	3.9100	3.9100	-0.8434	25.07	0.01	-0.750			
0.1821	11657.51	3.9070	3.9072	-0.8448	25.07	0.01	-0.750			
0.1847	11819.49	3.9040	3.9040	-0.8508	25.07	0.01	-0.750			
0.1872	11982.07	3.9010	3.9010	-0.8568	25.07	0.01	-0.750			
0.1898	12148.56	3.8980	3.8977	-0.8528	25.08	0.02	-0.750			
0.1924	12311.58	3.8950	3.8950	-0.8454	25.08	0.02	-0.750			
0.1950	12477.75	3.8920	3.8924	-0.8512	25.08	0.02	-0.750			
0.1975	12640.69	3.8890	3.8888	-0.8500	25.08	0.02	-0.750			
0.2000	12801.00	3.8860	3.8860	-0.8569	25.08	0.02	-0.750			
0.2026	12966.01	3.8830	3.8828	-0.8540	25.09	0.03	-0.750			
0.2052	13134.85	3.8800	3.8798	-0.8659	25.09	0.03	-0.750			
0.2078	13300.36	3.8770	3.8779	-0.8636	25.09	0.03	-0.750			
0.2104	13466.97	3.8740	3.8738	-0.8606	25.09	0.03	-0.750			
0.2130	13629.94	3.8710	3.8709	-0.8546	25.10	0.04	-0.750			
0.2154	13788.72	3.8680	3.8680	-0.8442	25.10	0.04	-0.750			
0.2181	13955.58	3.8650	3.8650	-0.8596	25.11	0.05	-0.750			
0.2206	14119.88	3.8620	3.8621	-0.8582	25.11	0.05	-0.750			
0.2231	14280.54	3.8590	3.8590	-0.8734	25.11	0.05	-0.750			
0.2258	14450.89	3.8560	3.8559	-0.8635	25.11	0.05	-0.750			
0.2284	14618.13	3.8530	3.8529	-0.8629	25.12	0.06	-0.750			
0.2310	14785.31	3.8500	3.8498	-0.8649	25.12	0.06	-0.750			
0.2336	14950.58	3.8470	3.8471	-0.8589	25.12	0.06	-0.750			
0.2361	15111.78	3.8440	3.8439	-0.8622	25.12	0.06	-0.750			
0.2387	15278.41	3.8410	3.8410	-0.8578	25.12	0.06	-0.750			
0.2413	15445.41	3.8380	3.8379	-0.8586	25.13	0.07	-0.750			
0.2439	15609.33	3.8350	3.8349	-0.8467	25.13	0.07	-0.750			
0.2464	15769.50	3.8320	3.8318	-0.8460	25.13	0.07	-0.750			
0.2489	15930.93	3.8290	3.8289	-0.8384	25.13	0.07	-0.750			
0.2514	16088.96	3.8260	3.8258	-0.8351	25.13	0.07	-0.750			
0.2539	16246.89	3.8230	3.8231	-0.8272	25.14	0.08	-0.750			
0.2564	16411.44	3.8200	3.8200	-0.8405	25.14	0.08	-0.750			
0.2590	16574.02	3.8170	3.8170	-0.8329	25.14	0.08	-0.750			
0.2614	16731.93	3.8140	3.8141	-0.8389	25.14	0.08	-0.750			
0.2640	16893.32	3.8110	3.8109	-0.8343	25.14	0.08	-0.750			
0.2665	17056.84	3.8080	3.8079	-0.8292	25.14	0.08	-0.750			
0.2690	17214.71	3.8050	3.8048	-0.8182	25.14	0.08	-0.750			
0.2714	17372.29	3.8020	3.8020	-0.8135	25.14	0.08	-0.750			
0.2738	17523.83	3.7990	3.7988	-0.8176	25.15	0.09	-0.750			
0.2763	17680.21	3.7960	3.7960	-0.8067	25.15	0.09	-0.750			
0.2787	17835.43	3.7930	3.7929	-0.8068	25.15	0.09	-0.750			
0.2811	17991.90	3.7900	3.7899	-0.8052	25.16	0.10	-0.750			
0.2835	18146.27	3.7870	3.7869	-0.7998	25.16	0.10	-0.750			
0.2859	18296.65	3.7840	3.7838	-0.7885	25.16	0.10	-0.750			
0.2882	18445.28	3.7810	3.7810	-0.7896	25.16	0.10	-0.750			
0.2905	18592.87	3.7780	3.7781	-0.7897	25.17	0.11	-0.750			
0.2930	18750.74	3.7750	3.7747	-0.8028	25.17	0.11	-0.750			
0.2954	18906.43	3.7720	3.7723	-0.7957	25.17	0.11	-0.750			
0.2978	19058.71	3.7690	3.7690	-0.7902	25.17	0.11	-0.750			
0.3002	19211.14	3.7660	3.7663	-0.7911	25.17	0.11	-0.750			
0.3025	19362.63	3.7630	3.7629	-0.7867	25.17	0.11	-0.750			
0.3049	19510.72	3.7600	3.7599	-0.7837	25.17	0.11	-0.750			
0.3072	19659.60	3.7570	3.7570	-0.7840	25.17	0.11	-0.750			
0.3095	19810.53	3.7540	3.7538	-0.7923	25.17	0.11	-0.750			
0.3119	19961.93	3.7510	3.7510	-0.8094	25.17	0.11	-0.750			
0.3143	20116.14	3.7480	3.7480	-0.8165	25.17	0.11	-0.750			
0.3169	20279.02	3.7450	3.7447	-0.8300	25.17	0.11	-0.750			
0.3193	20437.90	3.7420	3.7419	-0.8372	25.17	0.11	-0.750			
0.3219	20599.11	3.7390	3.7390	-0.8442	25.17	0.11	-0.750			
0.3244	20760.98	3.7360	3.7359	-0.8582	25.17	0.11	-0.750			
0.3270	20925.59	3.7330	3.7329	-0.8712	25.17	0.11	-0.750			
0.3296	21091.63	3.7300	3.7299	-0.8713	25.17	0.11	-0.750			
0.3323	21264.93	3.7270	3.7271	-0.8877	25.17	0.11	-0.750			
0.3349	21433.21	3.7240	3.7241	-0.9221	25.17	0.11	-0.750			
0.3377	21612.34	3.7210	3.7209	-0.9237	25.17	0.11	-0.750			
0.3405	21791.62	3.7180	3.7178	-0.9412	25.16	0.10	-0.750			
0.3433	21971.38	3.7150	3.7149	-0.9594	25.16	0.10	-0.750			
0.3462	22154.21	3.7120	3.7117	-1.0112	25.16	0.10	-0.750			
0.3494	22360.03	3.7090	3.7088	-1.0040	25.15	0.09	-0.750			
0.3524	22553.99	3.7060	3.7059	-1.0104	25.15	0.09	-0.750			
0.3554	22743.81	3.7030	3.7030	-1.0130	25.14	0.08	-0.750			
0.3585	22943.92	3.7000	3.6997	-1.0546	25.14	0.08	-0.750			
0.3616	23143.69	3.6970	3.6972	-1.0532	25.13	0.07	-0.750	0.386	0.508	
0.3648	23345.31	3.6940	3.6939	-1.0670	25.13	0.07	-0.750			
0.3680	23553.84	3.6910	3.6909	-1.1076	25.12	0.06	-0.750			
0.3714	23769.43	3.6880	3.6880	-1.1343	25.12	0.06	-0.750			
0.3748	23989.05	3.6850	3.6848	-1.1382	25.11	0.05	-0.750			
0.3783	24209.06	3.6820	3.6819	-1.1507	25.11	0.05	-0.750			
0.3816	24422.65	3.6790	3.6793	-1.1937	25.10	0.04	-0.750			
0.3854	24663.91	3.6760	3.6757	-1.2106	25.10	0.04	-0.750			
0.3891	24899.62	3.6730	3.6727	-1.2151	25.09	0.03	-0.750			
0.3927	25132.26	3.6700	3.6698	-1.2248	25.08	0.02	-0.750			
0.3963	25365.41	3.6670	3.6670	-1.2464	25.08	0.02	-0.750			
0.4002	25613.82	3.6640	3.6638	-1.2794	25.07	0.01	-0.750			
0.4040	25857.74	3.6610	3.6609	-1.2914	25.06	-0.00	-0.750			
0.4079	26106.42	3.6580	3.6584	-1.3380	25.05	-0.01	-0.750			
0.4119	26362.63	3.6550	3.6550	-1.3822	25.04	-0.02	-0.750			
0.4161	26632.46	3.6520	3.6519	-1.4075	25.03	-0.03	-0.750			
0.4204	26906.72	3.6490	3.6494	-1.4127	25.02	-0.04	-0.750			
0.4248	27185.89	3.6460	3.6456	-1.4289	25.01	-0.05	-0.750			
0.4290	27457.38	3.6430	3.6431	-1.4424	25.01	-0.05	-0.750			
0.4332	27725.24	3.6400	3.6405	-1.4789	25.00	-0.06	-0.750			
0.4377	28011.32	3.6370	3.6370	-1.5169	24.99	-0.07	-0.750			
0.4423	28304.41	3.6340	3.6337	-1.5175	24.98	-0.08	-0.750			
0.4471	28611.94	3.6310	3.6307	-1.5803	24.98	-0.08	-0.750			
0.4518	28916.21	3.6280	3.6283	-1.6549	24.97	-0.09	-0.750			
0.4569	29240.94	3.6250	3.6248	-1.6621	24.96	-0.10	-0.750			
0.4618	29556.61	3.6220	3.6222	-1.6628	24.95	-0.11	-0.750			
0.4667	29870.77	3.6190	3.6191	-1.6726	24.95	-0.11	-0.750			
0.4719	30202.63	3.6160	3.6157	-1.7325	24.94	-0.12	-0.750			
0.4771	30532.99	3.6130	3.6127	-1.7957	24.94	-0.12	-0.750			
0.4825	30879.33	3.6100	3.6097	-1.8198	24.94	-0.12	-0.750			
0.4880	31234.10	3.6070	3.6066	-1.9108	24.93	-0.13	-0.750			
0.4940	31613.77	3.6040	3.6036	-1.9428	24.92	-0.14	-0.750			
0.4998	31988.64	3.6010	3.6012	-1.9747	24.91	-0.15	-0.750			
0.5057	32367.30	3.5980	3.5980	-1.9783	24.90	-0.16	-0.750			
0.5118	32752.87	3.5950	3.5951	-2.0456	24.90	-0.16	-0.750			
0.5179	33144.88	3.5920	3.5920	-2.0192	24.90	-0.16	-0.750			
0.5239	33528.66	3.5890	3.5893	-2.0638	24.90	-0.16	-0.750			
0.5302	33932.48	3.5860	3.5859	-2.0736	24.89	-0.17	-0.750			
0.5364	34330.19	3.5830	3.5827	-2.1267	24.89	-0.17	-0.750			
0.5429	34747.29	3.5800	3.5801	-2.1326	24.88	-0.18	-0.750			
0.5492	35150.49	3.5770	3.5770	-2.1610	24.88	-0.18	-0.750			
0.5555	35555.19	3.5740	3.5743	-2.1052	24.88	-0.18	-0.750			
0.5615	35939.04	3.5710	3.5712	-2.1277	24.88	-0.18	-0.750			
0.5682	36364.86	3.5680	3.5674	-2.1667	24.88	-0.18	-0.750			
0.5750	36800.91	3.5650	3.5652	-2.1914	24.88	-0.18	-0.750			
0.5818	37237.45	3.5620	3.5627	-2.2558	24.88	-0.18	-0.750			
0.5885	37666.39	3.5590	3.5585	-2.2764	24.88	-0.18	-0.750			
0.5950	38081.41	3.5560	3.5558	-2.1689	24.88	-0.18	-0.750			
0.6013	38483.96	3.5530	3.5528	-2.2541	24.89	-0.17	-0.750			
0.6086	38949.79	3.5500	3.5501	-2.2089	24.90	-0.16	-0.750			
0.6150	39362.77	3.5470	3.5465	-2.1524	24.90	-0.16	-0.750			
0.6215	39777.35	3.5440	3.5435	-2.0938	24.90	-0.16	-0.750			
0.6277	40175.52	3.5410	3.5401	-2.1055	24.91	-0.15	-0.750			
0.6338	40561.51	3.5380	3.5381	-2.0463	24.92	-0.14	-0.750			
0.6403	40978.87	3.5350	3.5352	-2.0648	24.93	-0.13	-0.750			
0.6466	41379.42	3.5320	3.5318	-2.0540	24.93	-0.13	-0.750			
0.6526	41768.24	3.5290	3.5287	-1.9494	24.94	-0.12	-0.750			
0.6583	42132.71	3.5260	3.5263	-1.9544	24.95	-0.11	-0.750			
0.6637	42478.87	3.5230	3.5228	-1.9268	24.96	-0.10	-0.750			
0.6696	42853.82	3.5200	3.5195	-1.8994	24.98	-0.08	-0.750			
0.6755	43233.38	3.5170	3.5173	-1.8684	25.00	-0.06	-0.750			
0.6813	43604.21	3.5140	3.5145	-1.7965	25.02	-0.04	-0.750			
0.6867	43949.75	3.5110	3.5108	-1.7322	25.03	-0.03	-0.750			
0.6919	44278.86	3.5080	3.5077	-1.6346	25.05	-0.01	-0.750			
0.6963	44563.91	3.5050	3.5051	-1.5253	25.06	0.00	-0.750			
0.7008	44849.06	3.5020	3.5018	-1.4798	25.09	0.03	-0.750			
0.7051	45128.28	3.4990	3.4988	-1.4384	25.11	0.05	-0.750			
0.7093	45392.05	3.4960	3.4960	-1.4174	25.13	0.07	-0.750			
0.7136	45670.44	3.4930	3.4928	-1.4142	25.14	0.08	-0.750			
0.7177	45930.63	3.4900	3.4900	-1.4745	25.16	0.10	-0.750			
0.7220	46210.95	3.4870	3.4869	-1.4104	25.18	0.12	-0.750			
