Ah_balance (normalized)	Ah_balance (mAh)	Voltage - fit (V)	Voltage -  interpolate (V)	dQ/dV (1/V)	Temperature (°C)	Temperature - diff (°C)	Current (C)	R_DC 0ms (mOhm)	R_DC 50ms (mOhm)	R_DC 50 ms PEC (mOhm)
0.0004	27.07	4.1610	4.1606	-0.1395	25.00	0.00	-0.750			
0.0009	57.19	4.1580	4.1579	-0.1787	25.00	0.00	-0.750			
0.0015	95.86	4.1550	4.1554	-0.2195	25.00	0.00	-0.750			
0.0022	142.27	4.1520	4.1519	-0.2583	25.00	-0.00	-0.750			
0.0031	195.22	4.1490	4.1490	-0.2998	25.00	-0.00	-0.750			
0.0040	256.48	4.1460	4.1461	-0.3411	25.00	-0.00	-0.750			
0.0051	325.61	4.1430	4.1430	-0.3800	24.99	-0.01	-0.750			
0.0063	404.25	4.1400	4.1399	-0.4167	24.99	-0.01	-0.750			
0.0076	488.19	4.1370	4.1370	-0.4515	24.99	-0.01	-0.750			
0.0091	579.25	4.1340	4.1341	-0.4837	24.99	-0.01	-0.750			
0.0106	676.75	4.1310	4.1310	-0.5113	24.99	-0.01	-0.750			
0.0121	777.39	4.1280	4.1279	-0.5329	24.98	-0.02	-0.750			
0.0138	882.27	4.1250	4.1250	-0.5545	24.98	-0.02	-0.750			
0.0155	991.28	4.1220	4.1220	-0.5768	24.98	-0.02	-0.750			
0.0173	1104.08	4.1190	4.1191	-0.5950	24.97	-0.03	-0.750			
0.0191	1219.34	4.1160	4.1159	-0.6137	24.97	-0.03	-0.750			
0.0209	1339.76	4.1130	4.1131	-0.6271	24.97	-0.03	-0.750			
0.0229	1463.32	4.1100	4.1100	-0.6408	24.97	-0.03	-0.750			
0.0248	1587.55	4.1070	4.1069	-0.6495	24.96	-0.04	-0.750			
0.0268	1713.47	4.1040	4.1044	-0.6595	24.96	-0.04	-0.750			
0.0288	1841.10	4.1010	4.1010	-0.6644	24.96	-0.04	-0.750			
0.0308	1971.89	4.0980	4.0980	-0.6654	24.95	-0.05	-0.750			
0.0328	2098.82	4.0950	4.0949	-0.6774	24.95	-0.05	-0.750			
0.0348	2230.07	4.0920	4.0921	-0.6866	24.95	-0.05	-0.750			
0.0369	2362.14	4.0890	4.0890	-0.6886	24.94	-0.06	-0.750			
0.0390	2494.25	4.0860	4.0864	-0.6974	24.94	-0.06	-0.750			
0.0411	2628.41	4.0830	4.0830	-0.7052	24.94	-0.06	-0.750			
0.0432	2765.28	4.0800	4.0800	-0.7122	24.94	-0.06	-0.750			
0.0454	2902.80	4.0770	4.0770	-0.7186	24.95	-0.05	-0.750			
0.0476	3043.69	4.0740	4.0740	-0.7191	24.95	-0.05	-0.750			
0.0497	3181.75	4.0710	4.0710	-0.7210	24.95	-0.05	-0.750			
0.0519	3319.69	4.0680	4.0682	-0.7269	24.95	-0.05	-0.750			
0.0540	3458.19	4.0650	4.0649	-0.7258	24.95	-0.05	-0.750			
0.0562	3597.77	4.0620	4.0619	-0.7398	24.95	-0.05	-0.750			
0.0585	3742.16	4.0590	4.0590	-0.7431	24.96	-0.04	-0.750			
0.0607	3887.61	4.0560	4.0559	-0.7473	24.96	-0.04	-0.750			
0.0630	4031.38	4.0530	4.0530	-0.7455	24.96	-0.04	-0.750			
0.0652	4173.19	4.0500	4.0498	-0.7442	24.96	-0.04	-0.750			
0.0674	4314.65	4.0470	4.0467	-0.7457	24.96	-0.04	-0.750			
0.0696	4455.67	4.0440	4.0442	-0.7523	24.96	-0.04	-0.750			
0.0719	4601.87	4.0410	4.0410	-0.7475	24.97	-0.03	-0.750			
0.0743	4753.37	4.0380	4.0379	-0.7569	24.97	-0.03	-0.750			
0.0765	4896.60	4.0350	4.0355	-0.7570	24.97	-0.03	-0.750			
0.0787	5039.45	4.0320	4.0319	-0.7531	24.97	-0.03	-0.750			
0.0810	5181.84	4.0290	4.0289	-0.7553	24.97	-0.03	-0.750			
0.0832	5326.55	4.0260	4.0260	-0.7571	24.98	-0.02	-0.750			
0.0855	5472.82	4.0230	4.0230	-0.7684	24.98	-0.02	-0.750			
0.0879	5623.14	4.0200	4.0199	-0.7680	24.98	-0.02	-0.750			
0.0902	5770.67	4.0170	4.0169	-0.7693	24.98	-0.02	-0.750			
0.0924	5914.90	4.0140	4.0141	-0.7720	24.98	-0.02	-0.750			
0.0948	6064.28	4.0110	4.0111	-0.7737	24.98	-0.02	-0.750			
0.0971	6213.42	4.0080	4.0078	-0.7701	24.98	-0.02	-0.750			
0.0994	6363.14	4.0050	4.0050	-0.7747	24.98	-0.02	-0.750			
0.1017	6511.19	4.0020	4.0025	-0.7757	24.98	-0.02	-0.750			
0.1041	6661.07	3.9990	3.9990	-0.7785	24.98	-0.02	-0.750			
0.1064	6809.86	3.9960	3.9959	-0.7792	24.99	-0.01	-0.750			
0.1087	6959.68	3.9930	3.9930	-0.7812	24.99	-0.01	-0.750			
0.1111	7111.64	3.9900	3.9900	-0.7874	25.00	-0.00	-0.750			
0.1135	7262.86	3.9870	3.9871	-0.7870	25.00	-0.00	-0.750			
0.1158	7414.18	3.9840	3.9839	-0.7840	25.00	0.00	-0.750			
0.1182	7563.31	3.9810	3.9810	-0.7883	25.00	0.00	-0.750			
0.1205	7714.12	3.9780	3.9780	-0.7865	25.01	0.01	-0.750			
0.1229	7864.81	3.9750	3.9749	-0.7873	25.01	0.01	-0.750			
0.1253	8018.43	3.9720	3.9720	-0.7889	25.01	0.01	-0.750			
0.1276	8169.10	3.9690	3.9690	-0.7916	25.01	0.01	-0.750			
0.1300	8318.83	3.9660	3.9660	-0.8061	25.01	0.01	-0.750			
0.1325	8477.82	3.9630	3.9629	-0.8046	25.01	0.01	-0.750			
0.1349	8630.72	3.9600	3.9599	-0.8058	25.02	0.02	-0.750			
0.1373	8788.06	3.9570	3.9569	-0.8077	25.02	0.02	-0.750			
0.1398	8944.90	3.9540	3.9541	-0.8056	25.02	0.02	-0.750			
0.1421	9096.19	3.9510	3.9509	-0.8140	25.02	0.02	-0.750			
0.1446	9251.32	3.9480	3.9479	-0.8087	25.03	0.03	-0.750			
0.1469	9404.72	3.9450	3.9451	-0.8059	25.03	0.03	-0.750			
0.1495	9565.63	3.9420	3.9418	-0.8192	25.04	0.04	-0.750			
0.1519	9723.38	3.9390	3.9393	-0.8162	25.04	0.04	-0.750			
0.1544	9881.32	3.9360	3.9359	-0.8175	25.04	0.04	-0.750			
0.1568	10036.28	3.9330	3.9330	-0.8234	25.04	0.04	-0.750			
0.1593	10192.12	3.9300	3.9299	-0.8112	25.04	0.04	-0.750			
0.1618	10352.90	3.9270	3.9269	-0.8215	25.04	0.04	-0.750			
0.1642	10510.74	3.9240	3.9243	-0.8187	25.04	0.04	-0.750			
0.1667	10667.40	3.9210	3.9209	-0.8219	25.04	0.04	-0.750			
0.1691	10825.59	3.9180	3.9179	-0.8334	25.05	0.05	-0.750			
0.1717	10985.99	3.9150	3.9149	-0.8274	25.05	0.05	-0.750			
0.1742	11147.97	3.9120	3.9118	-0.8276	25.06	0.06	-0.750			
0.1767	11307.73	3.9090	3.9096	-0.8264	25.06	0.06	-0.750			
0.1792	11466.67	3.9060	3.9060	-0.8202	25.06	0.06	-0.750			
0.1816	11620.88	3.9030	3.9028	-0.8272	25.07	0.07	-0.750			
0.1840	11775.82	3.9000	3.9001	-0.8197	25.07	0.07	-0.750			
0.1865	11938.50	3.8970	3.8968	-0.8304	25.08	0.08	-0.750			
0.1890	12098.70	3.8940	3.8944	-0.8275	25.08	0.08	-0.750			
0.1916	12259.37	3.8910	3.8910	-0.8284	25.08	0.08	-0.750			
0.1940	12417.01	3.8880	3.8880	-0.8296	25.08	0.08	-0.750			
0.1965	12576.32	3.8850	3.8849	-0.8242	25.09	0.09	-0.750			
0.1990	12734.27	3.8820	3.8818	-0.8253	25.09	0.09	-0.750			
0.2014	12892.64	3.8790	3.8795	-0.8274	25.09	0.09	-0.750			
0.2040	13052.88	3.8760	3.8760	-0.8276	25.09	0.09	-0.750			
0.2064	13210.43	3.8730	3.8729	-0.8360	25.09	0.09	-0.750			
0.2089	13372.03	3.8700	3.8699	-0.8284	25.10	0.10	-0.750			
0.2115	13534.68	3.8670	3.8669	-0.8334	25.10	0.10	-0.750			
0.2140	13693.28	3.8640	3.8646	-0.8277	25.10	0.10	-0.750			
0.2164	13852.58	3.8610	3.8609	-0.8199	25.10	0.10	-0.750			
0.2189	14008.48	3.8580	3.8579	-0.8253	25.10	0.10	-0.750			
0.2214	14167.06	3.8550	3.8549	-0.8132	25.11	0.11	-0.750			
0.2238	14325.59	3.8520	3.8519	-0.8162	25.11	0.11	-0.750			
0.2263	14480.90	3.8490	3.8496	-0.8120	25.11	0.11	-0.750			
0.2287	14636.17	3.8460	3.8459	-0.8054	25.11	0.11	-0.750			
0.2311	14788.12	3.8430	3.8428	-0.8023	25.11	0.11	-0.750			
0.2334	14939.18	3.8400	3.8400	-0.7954	25.11	0.11	-0.750			
0.2359	15095.69	3.8370	3.8371	-0.8034	25.11	0.11	-0.750			
0.2383	15249.69	3.8340	3.8340	-0.7991	25.11	0.11	-0.750			
0.2407	15402.93	3.8310	3.8310	-0.7958	25.11	0.11	-0.750			
0.2431	15555.55	3.8280	3.8280	-0.7988	25.11	0.11	-0.750			
0.2455	15709.36	3.8250	3.8248	-0.7948	25.12	0.12	-0.750			
0.2478	15862.17	3.8220	3.8219	-0.7868	25.12	0.12	-0.750			
0.2502	16014.18	3.8190	3.8189	-0.7866	25.12	0.12	-0.750			
0.2526	16163.76	3.8160	3.8158	-0.7802	25.12	0.12	-0.750			
0.2549	16313.27	3.8130	3.8128	-0.7707	25.13	0.13	-0.750			
0.2572	16459.15	3.8100	3.8101	-0.7725	25.13	0.13	-0.750			
0.2595	16606.32	3.8070	3.8070	-0.7649	25.13	0.13	-0.750			
0.2619	16759.08	3.8040	3.8038	-0.7696	25.14	0.14	-0.750			
0.2642	16905.70	3.8010	3.8015	-0.7625	25.14	0.14	-0.750			
0.2664	17050.12	3.7980	3.7981	-0.7560	25.14	0.14	-0.750			
0.2686	17193.29	3.7950	3.7950	-0.7579	25.14	0.14	-0.750			
0.2709	17338.77	3.7920	3.7919	-0.7573	25.14	0.14	-0.750			
0.2732	17484.06	3.7890	3.7890	-0.7602	25.14	0.14	-0.750			
0.2755	17630.50	3.7860	3.7861	-0.7604	25.14	0.14	-0.750			
0.2778	17778.47	3.7830	3.7829	-0.7629	25.14	0.14	-0.750			
0.2800	17922.50	3.7800	3.7800	-0.7735	25.14	0.14	-0.750			
0.2823	18070.08	3.7770	3.7771	-0.7758	25.14	0.14	-0.750			
0.2847	18220.12	3.7740	3.7738	-0.7818	25.14	0.14	-0.750			
0.2871	18372.91	3.7710	3.7709	-0.7844	25.14	0.14	-0.750			
0.2894	18524.68	3.7680	3.7685	-0.7862	25.14	0.14	-0.750			
0.2918	18673.07	3.7650	3.7651	-0.7977	25.14	0.14	-0.750			
0.2942	18826.40	3.7620	3.7618	-0.8009	25.14	0.14	-0.750			
0.2966	18979.68	3.7590	3.7590	-0.8025	25.15	0.15	-0.750			
0.2990	19135.75	3.7560	3.7560	-0.8104	25.15	0.15	-0.750			
0.3015	19293.68	3.7530	3.7535	-0.8186	25.15	0.15	-0.750			
0.3039	19452.24	3.7500	3.7499	-0.8199	25.15	0.15	-0.750			
0.3064	19606.87	3.7470	3.7470	-0.8294	25.15	0.15	-0.750			
0.3088	19764.92	3.7440	3.7439	-0.8373	25.14	0.14	-0.750			
0.3114	19927.58	3.7410	3.7410	-0.8545	25.14	0.14	-0.750			
0.3140	20093.72	3.7380	3.7383	-0.8649	25.14	0.14	-0.750			
0.3166	20260.89	3.7350	3.7350	-0.8826	25.14	0.14	-0.750			
0.3193	20432.25	3.7320	3.7320	-0.8902	25.14	0.14	-0.750			
0.3219	20603.15	3.7290	3.7290	-0.9004	25.13	0.13	-0.750			
0.3246	20777.52	3.7260	3.7259	-0.9072	25.13	0.13	-0.750			
0.3274	20952.38	3.7230	3.7231	-0.9126	25.13	0.13	-0.750			
0.3301	21128.31	3.7200	3.7200	-0.9383	25.13	0.13	-0.750			
0.3330	21312.75	3.7170	3.7168	-0.9421	25.12	0.12	-0.750			
0.3358	21493.40	3.7140	3.7138	-0.9487	25.12	0.12	-0.750			
0.3386	21671.78	3.7110	3.7117	-0.9898	25.12	0.12	-0.750			
0.3416	21864.81	3.7080	3.7078	-0.9937	25.12	0.12	-0.750			
0.3447	22059.62	3.7050	3.7048	-1.0074	25.11	0.11	-0.750			
0.3477	22254.43	3.7020	3.7019	-1.0037	25.11	0.11	-0.750			
0.3508	22452.39	3.6990	3.6990	-1.0223	25.10	0.10	-0.750	0.383	0.514	
0.3539	22649.58	3.6960	3.6959	-1.0472	25.10	0.10	-0.750			
0.3570	22847.05	3.6930	3.6928	-1.0497	25.09	0.09	-0.750			
0.3601	23047.70	3.6900	3.6897	-1.0606	25.09	0.09	-0.750			
0.3633	23253.91	3.6870	3.6867	-1.1054	25.08	0.08	-0.750			
0.3667	23468.43	3.6840	3.6839	-1.1140	25.07	0.07	-0.750			
0.3701	23685.01	3.6810	3.6809	-1.1264	25.07	0.07	-0.750			
0.3734	23899.89	3.6780	3.6779	-1.1306	25.06	0.06	-0.750			
0.3769	24119.67	3.6750	3.6754	-1.1602	25.05	0.05	-0.750			
0.3804	24343.27	3.6720	3.6719	-1.1745	25.04	0.04	-0.750			
0.3839	24568.71	3.6690	3.6689	-1.1893	25.04	0.04	-0.750			
0.3874	24794.24	3.6660	3.6660	-1.2193	25.03	0.03	-0.750			
0.3912	25036.11	3.6630	3.6629	-1.2451	25.02	0.02	-0.750			
0.3949	25276.46	3.6600	3.6599	-1.2604	25.02	0.02	-0.750			
0.3987	25518.21	3.6570	3.6570	-1.2869	25.01	0.01	-0.750			
0.4026	25764.45	3.6540	3.6541	-1.3068	25.00	-0.00	-0.750			
0.4066	26022.40	3.6510	3.6509	-1.3301	24.99	-0.01	-0.750			
0.4106	26278.49	3.6480	3.6478	-1.3619	24.98	-0.02	-0.750			
0.4147	26541.46	3.6450	3.6452	-1.3766	24.97	-0.03	-0.750			
0.4189	26810.46	3.6420	3.6419	-1.4195	24.96	-0.04	-0.750			
0.4232	27082.62	3.6390	3.6391	-1.4543	24.95	-0.05	-0.750			
0.4277	27370.28	3.6360	3.6358	-1.4591	24.94	-0.06	-0.750			
0.4321	27651.94	3.6330	3.6328	-1.4964	24.93	-0.07	-0.750			
0.4366	27944.55	3.6300	3.6300	-1.5172	24.92	-0.08	-0.750			
0.4412	28236.37	3.6270	3.6267	-1.5384	24.92	-0.08	-0.750			
0.4459	28537.44	3.6240	3.6242	-1.5840	24.91	-0.09	-0.750			
0.4507	28843.32	3.6210	3.6210	-1.5912	24.90	-0.10	-0.750			
0.4556	29155.21	3.6180	3.6180	-1.6271	24.89	-0.11	-0.750			
0.4605	29469.12	3.6150	3.6150	-1.6691	24.89	-0.11	-0.750			
0.4653	29779.20	3.6120	3.6119	-1.7057	24.88	-0.12	-0.750			
0.4706	30115.87	3.6090	3.6089	-1.7439	24.87	-0.13	-0.750			
0.4758	30453.42	3.6060	3.6062	-1.7708	24.87	-0.13	-0.750			
0.4812	30799.13	3.6030	3.6029	-1.7968	24.86	-0.14	-0.750			
0.4868	31158.19	3.6000	3.5996	-1.8289	24.85	-0.15	-0.750			
0.4923	31508.28	3.5970	3.5967	-1.8633	24.83	-0.17	-0.750			
0.4980	31875.00	3.5940	3.5937	-1.9085	24.83	-0.17	-0.750			
0.5038	32240.01	3.5910	3.5907	-1.9578	24.82	-0.18	-0.750			
0.5098	32625.36	3.5880	3.5877	-1.9894	24.82	-0.18	-0.750			
0.5158	33012.77	3.5850	3.5844	-2.0096	24.82	-0.18	-0.750			
0.5218	33397.61	3.5820	3.5816	-2.0046	24.81	-0.19	-0.750			
0.5278	33778.06	3.5790	3.5790	-2.0499	24.81	-0.19	-0.750			
0.5341	34183.07	3.5760	3.5758	-2.0700	24.80	-0.20	-0.750			
0.5401	34569.55	3.5730	3.5731	-2.0908	24.80	-0.20	-0.750			
0.5466	34985.05	3.5700	3.5702	-2.1137	24.79	-0.21	-0.750			
0.5529	35383.60	3.5670	3.5670	-2.1097	24.79	-0.21	-0.750			
0.5593	35794.29	3.5640	3.5635	-2.1359	24.78	-0.22	-0.750			
0.5655	36190.54	3.5610	3.5609	-2.1025	24.78	-0.22	-0.750			
0.5720	36608.53	3.5580	3.5578	-2.0974	24.78	-0.22	-0.750			
0.5783	37012.03	3.5550	3.5553	-2.0817	24.78	-0.22	-0.750			
0.5846	37413.17	3.5520	3.5524	-2.0979	24.78	-0.22	-0.750			
0.5907	37804.44	3.5490	3.5489	-2.0773	24.78	-0.22	-0.750			
0.5967	38190.90	3.5460	3.5459	-2.0326	24.79	-0.21	-0.750			
0.6030	38591.70	3.5430	3.5430	-2.0123	24.79	-0.21	-0.750			
0.6092	38991.35	3.5400	3.5402	-2.0146	24.80	-0.20	-0.750			
0.6152	39370.62	3.5370	3.5372	-1.9504	24.80	-0.20	-0.750			
0.6209	39738.34	3.5340	3.5339	-1.9202	24.81	-0.19	-0.750			
0.6267	40111.32	3.5310	3.5314	-1.8813	24.81	-0.19	-0.750			
0.6323	40466.98	3.5280	3.5282	-1.8116	24.82	-0.18	-0.750			
0.6377	40815.03	3.5250	3.5254	-1.8032	24.84	-0.16	-0.750			
0.6431	41159.40	3.5220	3.5219	-1.7561	24.85	-0.15	-0.750			
0.6482	41485.07	3.5190	3.5188	-1.7107	24.85	-0.15	-0.750			
0.6532	41807.18	3.5160	3.5157	-1.6772	24.87	-0.13	-0.750			
0.6583	42129.73	3.5130	3.5129	-1.6583	24.88	-0.12	-0.750			
0.6631	42440.58	3.5100	3.5103	-1.6049	24.90	-0.10	-0.750			
0.6678	42741.46	3.5070	3.5066	-1.5729	24.91	-0.09	-0.750			
0.6725	43042.18	3.5040	3.5042	-1.5440	24.92	-0.08	-0.750			
0.6773	43347.43	3.5010	3.5009	-1.5108	24.93	-0.07	-0.750			
0.6819	43638.51	3.4980	3.4985	-1.4772	24.95	-0.05	-0.750			
0.6861	43909.87	3.4950	3.4952	-1.4011	24.96	-0.04	-0.750			
0.6903	44182.36	3.4920	3.4918	-1.3754	24.98	-0.02	-0.750			
0.6943	44435.37	3.4890	3.4889	-1.3236	24.99	-0.01	-0.750			
0.6982	44686.94	3.4860	3.4859	-1.2865	25.01	0.01	-0.750			
0.7021	44933.01	3.4830	3.4831	-1.3211	25.02	0.02	-0.750			
