Ah_balance (normalized)	Ah_balance (mAh)	Voltage - fit (V)	Voltage -  interpolate (V)	dQ/dV (1/V)	Temperature (°C)	Temperature - diff (°C)	Current (C)	R_DC 0ms (mOhm)	R_DC 50ms (mOhm)	R_DC 50 ms PEC (mOhm)
-0.0061	-392.98	4.1990	4.1989	0.8372	24.54	-0.10	0.050			
-0.0053	-339.51	4.1980	4.1981	0.8317	24.54	-0.10	0.050			
-0.0045	-286.51	4.1970	4.1971	0.8281	24.55	-0.09	0.050			
-0.0037	-233.76	4.1960	4.1961	0.8266	24.54	-0.10	0.050			
-0.0028	-180.96	4.1950	4.1950	0.8268	24.54	-0.10	0.050			
-0.0020	-127.95	4.1940	4.1940	0.8275	24.55	-0.09	0.050			
-0.0012	-75.33	4.1930	4.1930	0.8283	24.54	-0.10	0.050			
-0.0004	-22.57	4.1920	4.1921	0.8299	24.56	-0.08	0.050			
0.0005	30.49	4.1910	4.1910	0.8319	24.55	-0.09	0.050			
0.0013	83.84	4.1900	4.1900	0.8336	24.56	-0.08	0.050	0.171	0.309	
0.0021	137.19	4.1890	4.1891	0.8357	24.56	-0.08	0.050			
0.0030	190.48	4.1880	4.1879	0.8358	24.56	-0.08	0.050			
0.0038	244.01	4.1870	4.1871	0.8381	24.56	-0.08	0.050			
0.0047	297.82	4.1860	4.1861	0.8404	24.56	-0.08	0.050			
0.0055	351.96	4.1850	4.1850	0.8424	24.56	-0.08	0.050			
0.0063	405.84	4.1840	4.1839	0.8435	24.56	-0.08	0.050			
0.0072	460.05	4.1830	4.1831	0.8443	24.56	-0.08	0.050			
0.0080	514.78	4.1820	4.1821	0.8445	24.57	-0.07	0.050			
0.0089	569.22	4.1810	4.1810	0.8455	24.56	-0.08	0.050			
0.0097	623.90	4.1800	4.1800	0.8470	24.56	-0.08	0.050			
0.0106	677.70	4.1790	4.1790	0.8467	24.55	-0.09	0.050			
0.0114	731.87	4.1780	4.1780	0.8484	24.55	-0.09	0.050			
0.0123	786.11	4.1770	4.1770	0.8481	24.56	-0.08	0.050			
0.0131	840.33	4.1760	4.1760	0.8488	24.56	-0.08	0.050			
0.0140	894.73	4.1750	4.1751	0.8496	24.56	-0.08	0.050			
0.0148	949.03	4.1740	4.1739	0.8495	24.56	-0.08	0.050			
0.0157	1003.15	4.1730	4.1729	0.8491	24.56	-0.08	0.050			
0.0165	1057.59	4.1720	4.1720	0.8489	24.56	-0.08	0.050			
0.0174	1112.06	4.1710	4.1710	0.8489	24.56	-0.08	0.050			
0.0182	1166.61	4.1700	4.1700	0.8493	24.57	-0.07	0.050			
0.0191	1220.90	4.1690	4.1690	0.8492	24.56	-0.08	0.050			
0.0199	1275.54	4.1680	4.1681	0.8486	24.56	-0.08	0.050			
0.0208	1329.83	4.1670	4.1671	0.8487	24.56	-0.08	0.050	-0.066	0.332	
0.0216	1383.94	4.1660	4.1660	0.8485	24.56	-0.08	0.050			
0.0225	1438.55	4.1650	4.1650	0.8488	24.56	-0.08	0.050			
0.0233	1493.14	4.1640	4.1640	0.8486	24.56	-0.08	0.050			
0.0242	1547.35	4.1630	4.1630	0.8487	24.56	-0.08	0.050			
0.0250	1602.04	4.1620	4.1620	0.8478	24.56	-0.08	0.050			
0.0259	1656.22	4.1610	4.1609	0.8470	24.56	-0.08	0.050			
0.0267	1709.83	4.1600	4.1600	0.8468	24.56	-0.08	0.050			
0.0276	1763.36	4.1590	4.1590	0.8469	24.56	-0.08	0.050			
0.0284	1817.48	4.1580	4.1581	0.8473	24.56	-0.08	0.050			
0.0292	1871.83	4.1570	4.1571	0.8475	24.56	-0.08	0.050			
0.0301	1926.06	4.1560	4.1560	0.8481	24.56	-0.08	0.050			
0.0309	1980.23	4.1550	4.1550	0.8475	24.56	-0.08	0.050			
0.0318	2034.71	4.1540	4.1540	0.8479	24.56	-0.08	0.050			
0.0326	2088.91	4.1530	4.1530	0.8485	24.56	-0.08	0.050			
0.0335	2143.18	4.1520	4.1520	0.8492	24.56	-0.08	0.050			
0.0343	2197.45	4.1510	4.1509	0.8499	24.56	-0.08	0.050			
0.0352	2251.82	4.1500	4.1500	0.8509	24.56	-0.08	0.050			
0.0360	2306.18	4.1490	4.1491	0.8516	24.55	-0.09	0.050			
0.0369	2360.86	4.1480	4.1480	0.8521	24.54	-0.10	0.050			
0.0377	2415.75	4.1470	4.1469	0.8524	24.54	-0.10	0.050			
0.0386	2470.14	4.1460	4.1460	0.8522	24.54	-0.10	0.050			
0.0394	2524.80	4.1450	4.1449	0.8527	24.54	-0.10	0.050			
0.0403	2579.24	4.1440	4.1441	0.8543	24.54	-0.10	0.050			
0.0412	2634.12	4.1430	4.1430	0.8537	24.54	-0.10	0.050	0.332	0.456	
0.0420	2688.70	4.1420	4.1420	0.8539	24.54	-0.10	0.050			
0.0429	2743.69	4.1410	4.1410	0.8540	24.54	-0.10	0.050			
0.0437	2798.09	4.1400	4.1400	0.8526	24.54	-0.10	0.050			
0.0446	2852.84	4.1390	4.1391	0.8523	24.54	-0.10	0.050			
0.0454	2907.36	4.1380	4.1380	0.8524	24.53	-0.11	0.050			
0.0463	2962.33	4.1370	4.1369	0.8537	24.54	-0.10	0.050			
0.0471	3016.99	4.1360	4.1359	0.8529	24.54	-0.10	0.050			
0.0480	3071.59	4.1350	4.1350	0.8526	24.54	-0.10	0.050			
0.0488	3126.12	4.1340	4.1341	0.8522	24.53	-0.11	0.050			
0.0497	3180.46	4.1330	4.1330	0.8510	24.52	-0.12	0.050			
0.0505	3234.72	4.1320	4.1321	0.8514	24.52	-0.12	0.050			
0.0514	3289.16	4.1310	4.1310	0.8509	24.52	-0.12	0.050			
0.0522	3343.71	4.1300	4.1301	0.8504	24.52	-0.12	0.050			
0.0531	3398.12	4.1290	4.1290	0.8509	24.52	-0.12	0.050			
0.0539	3452.76	4.1280	4.1280	0.8501	24.52	-0.12	0.050			
0.0548	3507.51	4.1270	4.1270	0.8495	24.52	-0.12	0.050			
0.0557	3561.77	4.1260	4.1259	0.8480	24.52	-0.12	0.050			
0.0565	3616.04	4.1250	4.1250	0.8464	24.52	-0.12	0.050			
0.0573	3670.39	4.1240	4.1240	0.8452	24.52	-0.12	0.050			
0.0582	3724.57	4.1230	4.1230	0.8449	24.53	-0.11	0.050			
0.0590	3778.69	4.1220	4.1221	0.8455	24.52	-0.12	0.050			
0.0599	3832.33	4.1210	4.1210	0.8458	24.52	-0.12	0.050			
0.0607	3886.31	4.1200	4.1200	0.8456	24.52	-0.12	0.050			
0.0616	3940.28	4.1190	4.1190	0.8454	24.52	-0.12	0.050	0.072	0.284	
0.0624	3993.64	4.1180	4.1180	0.8456	24.52	-0.12	0.050			
0.0632	4047.72	4.1170	4.1170	0.8461	24.52	-0.12	0.050			
0.0641	4101.38	4.1160	4.1160	0.8480	24.52	-0.12	0.050			
0.0649	4155.23	4.1150	4.1150	0.8493	24.52	-0.12	0.050			
0.0658	4209.49	4.1140	4.1140	0.8510	24.52	-0.12	0.050			
0.0666	4263.72	4.1130	4.1130	0.8532	24.53	-0.11	0.050			
0.0675	4318.08	4.1120	4.1120	0.8548	24.53	-0.11	0.050			
0.0683	4372.99	4.1110	4.1110	0.8580	24.52	-0.12	0.050			
0.0692	4427.94	4.1100	4.1100	0.8607	24.52	-0.12	0.050			
0.0700	4483.18	4.1090	4.1090	0.8634	24.52	-0.12	0.050			
0.0709	4538.74	4.1080	4.1080	0.8660	24.52	-0.12	0.050			
0.0718	4594.81	4.1070	4.1069	0.8688	24.52	-0.12	0.050			
0.0727	4651.07	4.1060	4.1060	0.8703	24.52	-0.12	0.050			
0.0736	4707.24	4.1050	4.1050	0.8707	24.52	-0.12	0.050			
0.0744	4763.31	4.1040	4.1040	0.8717	24.51	-0.13	0.050			
0.0753	4819.10	4.1030	4.1030	0.8720	24.52	-0.12	0.050			
0.0762	4874.81	4.1020	4.1020	0.8723	24.52	-0.12	0.050			
0.0770	4931.01	4.1010	4.1010	0.8728	24.51	-0.13	0.050			
0.0779	4987.03	4.1000	4.1001	0.8728	24.50	-0.14	0.050			
0.0788	5043.18	4.0990	4.0991	0.8726	24.50	-0.14	0.050			
0.0797	5099.12	4.0980	4.0981	0.8717	24.50	-0.14	0.050			
0.0805	5155.05	4.0970	4.0970	0.8708	24.50	-0.14	0.050			
0.0814	5210.83	4.0960	4.0961	0.8688	24.50	-0.14	0.050	0.111	0.357	
0.0823	5265.98	4.0950	4.0949	0.8688	24.50	-0.14	0.050			
0.0831	5321.50	4.0940	4.0940	0.8690	24.50	-0.14	0.050			
0.0840	5377.08	4.0930	4.0930	0.8678	24.50	-0.14	0.050			
0.0849	5432.47	4.0920	4.0920	0.8677	24.50	-0.14	0.050			
0.0857	5487.86	4.0910	4.0910	0.8663	24.50	-0.14	0.050			
0.0866	5543.02	4.0900	4.0900	0.8665	24.50	-0.14	0.050			
0.0875	5598.48	4.0890	4.0890	0.8664	24.50	-0.14	0.050			
0.0883	5654.14	4.0880	4.0880	0.8673	24.50	-0.14	0.050			
0.0892	5709.47	4.0870	4.0869	0.8678	24.50	-0.14	0.050			
0.0901	5765.19	4.0860	4.0859	0.8676	24.50	-0.14	0.050			
0.0910	5820.87	4.0850	4.0851	0.8664	24.49	-0.15	0.050			
0.0918	5876.53	4.0840	4.0841	0.8658	24.48	-0.16	0.050			
0.0927	5931.48	4.0830	4.0830	0.8655	24.47	-0.17	0.050			
0.0935	5986.83	4.0820	4.0820	0.8651	24.49	-0.15	0.050			
0.0944	6042.55	4.0810	4.0809	0.8655	24.49	-0.15	0.050			
0.0953	6097.86	4.0800	4.0801	0.8663	24.49	-0.15	0.050			
0.0961	6153.11	4.0790	4.0790	0.8668	24.48	-0.16	0.050			
0.0970	6208.40	4.0780	4.0781	0.8677	24.50	-0.14	0.050			
0.0979	6263.59	4.0770	4.0770	0.8679	24.49	-0.15	0.050			
0.0987	6319.33	4.0760	4.0760	0.8684	24.49	-0.15	0.050			
0.0996	6374.37	4.0750	4.0750	0.8680	24.50	-0.14	0.050			
0.1005	6430.04	4.0740	4.0739	0.8690	24.50	-0.14	0.050			
0.1013	6485.70	4.0730	4.0730	0.8706	24.50	-0.14	0.050	-0.115	0.287	
0.1022	6541.32	4.0720	4.0721	0.8716	24.50	-0.14	0.050			
0.1031	6596.97	4.0710	4.0709	0.8725	24.50	-0.14	0.050			
0.1040	6652.87	4.0700	4.0701	0.8728	24.48	-0.16	0.050			
0.1048	6709.02	4.0690	4.0690	0.8739	24.50	-0.14	0.050			
0.1057	6765.24	4.0680	4.0680	0.8741	24.49	-0.15	0.050			
0.1066	6821.34	4.0670	4.0670	0.8752	24.49	-0.15	0.050			
0.1075	6877.32	4.0660	4.0659	0.8766	24.48	-0.16	0.050			
0.1083	6933.68	4.0650	4.0650	0.8788	24.49	-0.15	0.050			
0.1092	6990.07	4.0640	4.0639	0.8795	24.49	-0.15	0.050			
0.1101	7046.01	4.0630	4.0631	0.8795	24.49	-0.15	0.050			
0.1110	7102.35	4.0620	4.0620	0.8797	24.50	-0.14	0.050			
0.1119	7158.78	4.0610	4.0610	0.8810	24.49	-0.15	0.050			
0.1127	7214.82	4.0600	4.0601	0.8811	24.48	-0.16	0.050			
0.1136	7271.41	4.0590	4.0590	0.8819	24.49	-0.15	0.050			
0.1145	7328.24	4.0580	4.0579	0.8812	24.48	-0.16	0.050			
0.1154	7384.71	4.0570	4.0569	0.8813	24.47	-0.17	0.050			
0.1163	7441.32	4.0560	4.0560	0.8815	24.47	-0.17	0.050			
0.1172	7497.86	4.0550	4.0551	0.8816	24.47	-0.17	0.050			
0.1180	7554.35	4.0540	4.0540	0.8812	24.47	-0.17	0.050			
0.1189	7610.54	4.0530	4.0530	0.8818	24.47	-0.17	0.050			
0.1198	7666.67	4.0520	4.0520	0.8832	24.48	-0.16	0.050			
0.1207	7722.91	4.0510	4.0511	0.8852	24.48	-0.16	0.050			
0.1216	7779.63	4.0500	4.0500	0.8864	24.47	-0.17	0.050	0.194	0.404	
0.1224	7836.18	4.0490	4.0490	0.8887	24.49	-0.15	0.050			
0.1233	7892.96	4.0480	4.0479	0.8895	24.50	-0.14	0.050			
0.1242	7949.30	4.0470	4.0470	0.8901	24.50	-0.14	0.050			
0.1251	8006.13	4.0460	4.0460	0.8916	24.50	-0.14	0.050			
0.1260	8063.19	4.0450	4.0449	0.8930	24.50	-0.14	0.050			
0.1269	8120.28	4.0440	4.0439	0.8957	24.50	-0.14	0.050			
0.1278	8177.82	4.0430	4.0430	0.8975	24.50	-0.14	0.050			
0.1287	8235.68	4.0420	4.0421	0.8988	24.50	-0.14	0.050			
0.1296	8293.25	4.0410	4.0410	0.9011	24.50	-0.14	0.050			
0.1305	8351.32	4.0400	4.0400	0.9026	24.48	-0.16	0.050			
0.1314	8409.32	4.0390	4.0391	0.9049	24.50	-0.14	0.050			
0.1323	8467.71	4.0380	4.0380	0.9078	24.47	-0.17	0.050			
0.1332	8525.75	4.0370	4.0370	0.9095	24.47	-0.17	0.050			
0.1341	8583.75	4.0360	4.0361	0.9115	24.47	-0.17	0.050			
0.1350	8642.07	4.0350	4.0350	0.9132	24.48	-0.16	0.050			
0.1359	8700.43	4.0340	4.0340	0.9147	24.47	-0.17	0.050			
0.1369	8758.67	4.0330	4.0330	0.9154	24.47	-0.17	0.050			
0.1378	8817.50	4.0320	4.0319	0.9161	24.48	-0.16	0.050			
0.1387	8876.41	4.0310	4.0310	0.9170	24.49	-0.15	0.050			
0.1396	8935.36	4.0300	4.0300	0.9180	24.48	-0.16	0.050			
0.1405	8994.52	4.0290	4.0291	0.9181	24.48	-0.16	0.050			
0.1415	9053.57	4.0280	4.0280	0.9188	24.47	-0.17	0.050	0.305	0.457	
0.1424	9112.84	4.0270	4.0270	0.9187	24.49	-0.15	0.050			
0.1433	9171.61	4.0260	4.0261	0.9189	24.48	-0.16	0.050			
0.1442	9230.71	4.0250	4.0250	0.9189	24.48	-0.16	0.050			
0.1451	9289.43	4.0240	4.0240	0.9190	24.48	-0.16	0.050			
0.1461	9348.38	4.0230	4.0231	0.9195	24.48	-0.16	0.050			
0.1470	9407.45	4.0220	4.0220	0.9191	24.47	-0.17	0.050			
0.1479	9466.09	4.0210	4.0210	0.9180	24.48	-0.16	0.050			
0.1488	9524.78	4.0200	4.0199	0.9173	24.48	-0.16	0.050			
0.1497	9583.25	4.0190	4.0190	0.9172	24.48	-0.16	0.050			
0.1506	9641.54	4.0180	4.0180	0.9158	24.48	-0.16	0.050			
0.1516	9699.88	4.0170	4.0170	0.9152	24.48	-0.16	0.050			
0.1525	9758.14	4.0160	4.0160	0.9156	24.49	-0.15	0.050			
0.1534	9816.77	4.0150	4.0150	0.9165	24.50	-0.14	0.050			
0.1543	9875.07	4.0140	4.0141	0.9179	24.50	-0.14	0.050			
0.1552	9933.74	4.0130	4.0131	0.9194	24.50	-0.14	0.050			
0.1561	9992.55	4.0120	4.0120	0.9216	24.50	-0.14	0.050			
0.1571	10051.80	4.0110	4.0110	0.9228	24.51	-0.13	0.050			
0.1580	10110.93	4.0100	4.0099	0.9238	24.51	-0.13	0.050			
0.1589	10169.93	4.0090	4.0090	0.9249	24.50	-0.14	0.050			
0.1598	10229.10	4.0080	4.0079	0.9264	24.51	-0.13	0.050			
0.1608	10288.46	4.0070	4.0069	0.9273	24.51	-0.13	0.050			
0.1617	10347.68	4.0060	4.0060	0.9290	24.51	-0.13	0.050	0.069	0.251	
0.1626	10407.39	4.0050	4.0050	0.9296	24.52	-0.12	0.050			
0.1635	10467.15	4.0040	4.0040	0.9305	24.52	-0.12	0.050			
0.1645	10526.69	4.0030	4.0030	0.9324	24.53	-0.11	0.050			
0.1654	10586.37	4.0020	4.0020	0.9344	24.52	-0.12	0.050			
0.1663	10646.19	4.0010	4.0010	0.9366	24.52	-0.12	0.050			
0.1673	10706.29	4.0000	3.9999	0.9370	24.53	-0.11	0.050			
0.1682	10766.76	3.9990	3.9990	0.9371	24.52	-0.12	0.050			
0.1692	10826.78	3.9980	3.9980	0.9380	24.53	-0.11	0.050			
0.1701	10886.96	3.9970	3.9970	0.9384	24.52	-0.12	0.050			
0.1710	10946.79	3.9960	3.9961	0.9389	24.52	-0.12	0.050			
0.1720	11006.84	3.9950	3.9949	0.9396	24.52	-0.12	0.050			
0.1729	11066.87	3.9940	3.9939	0.9397	24.53	-0.11	0.050			
0.1739	11127.35	3.9930	3.9930	0.9399	24.52	-0.12	0.050			
0.1748	11187.71	3.9920	3.9921	0.9401	24.52	-0.12	0.050			
0.1758	11248.38	3.9910	3.9911	0.9402	24.53	-0.11	0.050			
0.1767	11308.71	3.9900	3.9899	0.9393	24.52	-0.12	0.050			
0.1776	11368.97	3.9890	3.9889	0.9382	24.52	-0.12	0.050			
0.1786	11429.16	3.9880	3.9880	0.9367	24.53	-0.11	0.050			
0.1795	11489.56	3.9870	3.9870	0.9352	24.54	-0.10	0.050			
0.1805	11549.44	3.9860	3.9860	0.9341	24.53	-0.11	0.050			
0.1814	11608.93	3.9850	3.9850	0.9328	24.52	-0.12	0.050	0.262	0.419	
0.1823	11668.67	3.9840	3.9840	0.9309	24.53	-0.11	0.050			
0.1832	11727.32	3.9830	3.9830	0.9305	24.52	-0.12	0.050			
0.1842	11786.38	3.9820	3.9820	0.9310	24.53	-0.11	0.050			
0.1851	11845.71	3.9810	3.9810	0.9317	24.54	-0.10	0.050			
0.1860	11905.14	3.9800	3.9800	0.9331	24.54	-0.10	0.050			
0.1869	11964.28	3.9790	3.9790	0.9350	24.56	-0.08	0.050			
0.1879	12023.58	3.9780	3.9780	0.9368	24.56	-0.08	0.050			
0.1888	12082.75	3.9770	3.9768	0.9388	24.56	-0.08	0.050			
0.1897	12142.88	3.9760	3.9760	0.9413	24.55	-0.09	0.050			
0.1907	12202.75	3.9750	3.9749	0.9444	24.56	-0.08	0.050			
0.1916	12263.33	3.9740	3.9739	0.9490	24.56	-0.08	0.050			
0.1926	12323.85	3.9730	3.9730	0.9531	24.56	-0.08	0.050			
0.1935	12384.87	3.9720	3.9721	0.9572	24.56	-0.08	0.050			
0.1945	12446.56	3.9710	3.9711	0.9613	24.55	-0.09	0.050			
0.1954	12508.73	3.9700	3.9701	0.9659	24.56	-0.08	0.050			
0.1964	12571.15	3.9690	3.9690	0.9685	24.54	-0.10	0.050			
0.1974	12633.92	3.9680	3.9680	0.9711	24.56	-0.08	0.050			
0.1984	12696.75	3.9670	3.9671	0.9734	24.56	-0.08	0.050			
0.1994	12759.31	3.9660	3.9659	0.9742	24.55	-0.09	0.050			
0.2003	12822.05	3.9650	3.9650	0.9759	24.56	-0.08	0.050			
0.2013	12884.64	3.9640	3.9640	0.9772	24.55	-0.09	0.050			
0.2023	12947.20	3.9630	3.9630	0.9772	24.56	-0.08	0.050			
0.2033	13009.67	3.9620	3.9621	0.9779	24.54	-0.10	0.050			
0.2043	13072.67	3.9610	3.9610	0.9800	24.54	-0.10	0.050			
0.2052	13135.54	3.9600	3.9600	0.9800	24.54	-0.10	0.050			
0.2062	13197.84	3.9590	3.9590	0.9810	24.54	-0.10	0.050			
0.2072	13260.45	3.9580	3.9580	0.9822	24.54	-0.10	0.050			
0.2082	13323.17	3.9570	3.9569	0.9835	24.53	-0.11	0.050			
0.2092	13386.13	3.9560	3.9559	0.9842	24.54	-0.10	0.050			
0.2101	13449.22	3.9550	3.9550	0.9846	24.52	-0.12	0.050			
0.2111	13512.01	3.9540	3.9540	0.9832	24.53	-0.11	0.050			
0.2121	13575.03	3.9530	3.9529	0.9834	24.52	-0.12	0.050			
0.2131	13638.17	3.9520	3.9519	0.9843	24.52	-0.12	0.050			
0.2141	13701.51	3.9510	3.9510	0.9854	24.52	-0.12	0.050			
0.2151	13764.87	3.9500	3.9500	0.9865	24.51	-0.13	0.050			
0.2161	13828.09	3.9490	3.9489	0.9875	24.50	-0.14	0.050			
0.2171	13891.52	3.9480	3.9481	0.9883	24.50	-0.14	0.050			
0.2180	13954.63	3.9470	3.9469	0.9892	24.50	-0.14	0.050			
0.2190	14017.77	3.9460	3.9460	0.9897	24.50	-0.14	0.050			
0.2200	14080.87	3.9450	3.9450	0.9903	24.50	-0.14	0.050			
0.2210	14144.25	3.9440	3.9439	0.9905	24.50	-0.14	0.050	0.416	0.461	
0.2220	14207.80	3.9430	3.9429	0.9912	24.50	-0.14	0.050			
0.2230	14271.30	3.9420	3.9419	0.9904	24.50	-0.14	0.050			
0.2240	14334.41	3.9410	3.9410	0.9913	24.50	-0.14	0.050			
0.2250	14397.80	3.9400	3.9400	0.9918	24.50	-0.14	0.050			
0.2260	14460.97	3.9390	3.9390	0.9922	24.50	-0.14	0.050			
0.2269	14524.51	3.9380	3.9379	0.9934	24.50	-0.14	0.050			
0.2279	14588.45	3.9370	3.9370	0.9952	24.50	-0.14	0.050			
0.2289	14652.35	3.9360	3.9361	0.9966	24.51	-0.13	0.050			
0.2299	14716.26	3.9350	3.9350	0.9980	24.51	-0.13	0.050			
0.2309	14780.24	3.9340	3.9340	0.9990	24.50	-0.14	0.050			
0.2319	14844.19	3.9330	3.9330	0.9991	24.50	-0.14	0.050			
0.2329	14907.98	3.9320	3.9319	0.9995	24.50	-0.14	0.050			
0.2339	14971.98	3.9310	3.9310	1.0006	24.50	-0.14	0.050			
0.2349	15035.81	3.9300	3.9300	1.0011	24.50	-0.14	0.050			
0.2359	15099.80	3.9290	3.9291	1.0019	24.50	-0.14	0.050			
0.2369	15164.05	3.9280	3.9280	1.0028	24.50	-0.14	0.050			
0.2379	15228.46	3.9270	3.9270	1.0023	24.50	-0.14	0.050			
0.2390	15293.05	3.9260	3.9260	1.0018	24.50	-0.14	0.050			
0.2400	15357.48	3.9250	3.9251	1.0022	24.50	-0.14	0.050			
0.2410	15422.07	3.9240	3.9239	1.0026	24.50	-0.14	0.050	0.259	0.465	
0.2420	15486.12	3.9230	3.9229	1.0024	24.50	-0.14	0.050			
0.2430	15550.24	3.9220	3.9220	1.0029	24.50	-0.14	0.050			
0.2440	15614.28	3.9210	3.9210	1.0021	24.50	-0.14	0.050			
0.2450	15678.12	3.9200	3.9200	1.0029	24.50	-0.14	0.050			
0.2460	15741.85	3.9190	3.9191	1.0037	24.50	-0.14	0.050			
0.2470	15806.06	3.9180	3.9180	1.0043	24.50	-0.14	0.050			
0.2480	15870.01	3.9170	3.9171	1.0057	24.50	-0.14	0.050			
0.2490	15934.24	3.9160	3.9159	1.0066	24.50	-0.14	0.050			
0.2500	15998.24	3.9150	3.9150	1.0086	24.50	-0.14	0.050			
0.2510	16062.76	3.9140	3.9140	1.0099	24.50	-0.14	0.050			
0.2520	16127.30	3.9130	3.9130	1.0115	24.52	-0.12	0.050			
0.2530	16191.99	3.9120	3.9121	1.0131	24.51	-0.13	0.050			
0.2540	16256.65	3.9110	3.9109	1.0162	24.51	-0.13	0.050			
0.2550	16321.65	3.9100	3.9100	1.0190	24.50	-0.14	0.050			
0.2560	16386.72	3.9090	3.9090	1.0232	24.50	-0.14	0.050			
0.2571	16452.47	3.9080	3.9079	1.0267	24.50	-0.14	0.050			
0.2581	16519.01	3.9070	3.9070	1.0291	24.50	-0.14	0.050			
0.2591	16585.31	3.9060	3.9060	1.0309	24.50	-0.14	0.050			
0.2602	16651.54	3.9050	3.9051	1.0312	24.50	-0.14	0.050			
0.2612	16717.92	3.9040	3.9040	1.0326	24.49	-0.15	0.050			
0.2623	16784.34	3.9030	3.9030	1.0322	24.50	-0.14	0.050			
0.2633	16850.99	3.9020	3.9019	1.0320	24.49	-0.15	0.050			
0.2643	16917.23	3.9010	3.9010	1.0322	24.49	-0.15	0.050			
0.2654	16983.26	3.9000	3.9000	1.0322	24.50	-0.14	0.050			
0.2664	17049.30	3.8990	3.8991	1.0333	24.48	-0.16	0.050			
0.2674	17115.46	3.8980	3.8980	1.0329	24.47	-0.17	0.050			
0.2685	17181.38	3.8970	3.8970	1.0338	24.47	-0.17	0.050			
0.2695	17247.73	3.8960	3.8960	1.0339	24.48	-0.16	0.050			
0.2705	17313.55	3.8950	3.8950	1.0345	24.47	-0.17	0.050			
0.2716	17379.66	3.8940	3.8939	1.0350	24.48	-0.16	0.050			
0.2726	17445.12	3.8930	3.8929	1.0359	24.48	-0.16	0.050			
0.2736	17511.41	3.8920	3.8919	1.0374	24.47	-0.17	0.050			
0.2746	17577.11	3.8910	3.8911	1.0371	24.47	-0.17	0.050			
0.2757	17643.52	3.8900	3.8901	1.0378	24.48	-0.16	0.050			
0.2767	17709.81	3.8890	3.8890	1.0392	24.47	-0.17	0.050			
0.2778	17776.58	3.8880	3.8880	1.0422	24.47	-0.17	0.050			
0.2788	17844.04	3.8870	3.8870	1.0445	24.47	-0.17	0.050			
0.2799	17911.15	3.8860	3.8859	1.0453	24.47	-0.17	0.050			
0.2809	17978.28	3.8850	3.8850	1.0469	24.47	-0.17	0.050			
0.2820	18045.52	3.8840	3.8840	1.0483	24.46	-0.18	0.050			
0.2830	18112.77	3.8830	3.8831	1.0491	24.47	-0.17	0.050			
0.2841	18179.96	3.8820	3.8819	1.0506	24.47	-0.17	0.050			
0.2851	18247.09	3.8810	3.8809	1.0504	24.47	-0.17	0.050			
0.2862	18314.38	3.8800	3.8800	1.0509	24.47	-0.17	0.050			
0.2872	18381.44	3.8790	3.8789	1.0519	24.47	-0.17	0.050			
0.2883	18448.70	3.8780	3.8780	1.0536	24.47	-0.17	0.050			
0.2893	18515.92	3.8770	3.8770	1.0549	24.47	-0.17	0.050			
0.2904	18583.73	3.8760	3.8759	1.0558	24.47	-0.17	0.050			
0.2914	18650.52	3.8750	3.8750	1.0574	24.48	-0.16	0.050			
0.2925	18717.92	3.8740	3.8740	1.0604	24.48	-0.16	0.050			
0.2935	18785.41	3.8730	3.8730	1.0627	24.47	-0.17	0.050			
0.2946	18853.71	3.8720	3.8721	1.0658	24.49	-0.15	0.050			
0.2957	18922.29	3.8710	3.8709	1.0671	24.48	-0.16	0.050			
0.2967	18990.95	3.8700	3.8699	1.0689	24.48	-0.16	0.050			
0.2978	19059.78	3.8690	3.8689	1.0696	24.50	-0.14	0.050			
0.2989	19128.61	3.8680	3.8680	1.0697	24.50	-0.14	0.050			
0.3000	19197.82	3.8670	3.8670	1.0714	24.48	-0.16	0.050			
0.3011	19267.27	3.8660	3.8660	1.0703	24.50	-0.14	0.050	0.165	0.330	
0.3021	19336.22	3.8650	3.8651	1.0683	24.50	-0.14	0.050			
0.3032	19405.32	3.8640	3.8641	1.0660	24.50	-0.14	0.050			
0.3043	19473.65	3.8630	3.8630	1.0655	24.50	-0.14	0.050			
0.3053	19542.13	3.8620	3.8621	1.0634	24.50	-0.14	0.050			
0.3064	19610.08	3.8610	3.8610	1.0625	24.50	-0.14	0.050			
0.3075	19677.92	3.8600	3.8601	1.0606	24.50	-0.14	0.050			
0.3085	19745.00	3.8590	3.8590	1.0589	24.50	-0.14	0.050			
0.3096	19812.28	3.8580	3.8581	1.0578	24.50	-0.14	0.050			
