Ah_balance (normalized)	Ah_balance (mAh)	Voltage - fit (V)	Voltage -  interpolate (V)	dQ/dV (1/V)	Temperature (°C)	Temperature - diff (°C)	Current (C)	R_DC 0ms (mOhm)	R_DC 50ms (mOhm)	R_DC 50 ms PEC (mOhm)
-0.0054	-344.61	4.1990	4.1990	0.8646	24.61	-0.12	0.050			
-0.0045	-289.32	4.1980	4.1979	0.8657	24.61	-0.12	0.050			
-0.0037	-234.97	4.1970	4.1970	0.8450	24.61	-0.12	0.050			
-0.0028	-181.88	4.1960	4.1959	0.8308	24.61	-0.12	0.050			
-0.0020	-130.41	4.1950	4.1950	0.8187	24.61	-0.12	0.050			
-0.0012	-78.77	4.1940	4.1939	0.8124	24.61	-0.12	0.050			
-0.0004	-27.53	4.1930	4.1931	0.8080	24.61	-0.12	0.050			
0.0003	19.68	4.1920	4.1922	0.8114	24.61	-0.12	0.050			
0.0011	71.01	4.1910	4.1913	0.8163	24.60	-0.13	0.050			
0.0019	123.46	4.1900	4.1902	0.8207	24.59	-0.14	0.050			
0.0027	174.95	4.1890	4.1887	0.8253	24.59	-0.14	0.050			
0.0036	227.57	4.1880	4.1877	0.8296	24.59	-0.14	0.050			
0.0044	280.35	4.1870	4.1870	0.8334	24.59	-0.14	0.050			
0.0052	333.93	4.1860	4.1858	0.8357	24.59	-0.14	0.050			
0.0061	387.71	4.1850	4.1848	0.8395	24.58	-0.15	0.050			
0.0069	442.23	4.1840	4.1838	0.8420	24.59	-0.14	0.050			
0.0078	497.16	4.1830	4.1827	0.8461	24.59	-0.14	0.050			
0.0086	552.08	4.1820	4.1823	0.8507	24.59	-0.14	0.050	0.092	0.475	
0.0095	607.85	4.1810	4.1812	0.8532	24.59	-0.14	0.050			
0.0104	665.18	4.1800	4.1801	0.8595	24.58	-0.15	0.050			
0.0113	720.44	4.1790	4.1791	0.8568	24.58	-0.15	0.050			
0.0122	778.32	4.1780	4.1780	0.8575	24.57	-0.16	0.050			
0.0130	832.06	4.1770	4.1771	0.8553	24.57	-0.16	0.050			
0.0139	886.48	4.1760	4.1760	0.8520	24.57	-0.16	0.050			
0.0147	940.47	4.1750	4.1750	0.8511	24.57	-0.16	0.050			
0.0155	994.32	4.1740	4.1740	0.8490	24.57	-0.16	0.050			
0.0164	1047.53	4.1730	4.1730	0.8467	24.57	-0.16	0.050			
0.0172	1099.38	4.1720	4.1721	0.8433	24.57	-0.16	0.050			
0.0180	1153.23	4.1710	4.1712	0.8453	24.57	-0.16	0.050			
0.0189	1207.18	4.1700	4.1701	0.8487	24.57	-0.16	0.050			
0.0197	1261.12	4.1690	4.1691	0.8495	24.57	-0.16	0.050			
0.0206	1315.93	4.1680	4.1677	0.8506	24.57	-0.16	0.050			
0.0214	1370.71	4.1670	4.1670	0.8528	24.57	-0.16	0.050			
0.0223	1425.42	4.1660	4.1660	0.8541	24.57	-0.16	0.050			
0.0231	1480.34	4.1650	4.1651	0.8556	24.56	-0.17	0.050			
0.0240	1535.51	4.1640	4.1640	0.8565	24.55	-0.18	0.050			
0.0249	1591.23	4.1630	4.1630	0.8533	24.55	-0.18	0.050			
0.0257	1647.45	4.1620	4.1619	0.8482	24.55	-0.18	0.050			
0.0266	1703.68	4.1610	4.1610	0.8459	24.55	-0.18	0.050			
0.0275	1758.66	4.1600	4.1601	0.8416	24.55	-0.18	0.050			
0.0283	1813.03	4.1590	4.1590	0.8367	24.54	-0.19	0.050			
0.0292	1867.12	4.1580	4.1578	0.8288	24.54	-0.19	0.050			
0.0300	1919.77	4.1570	4.1571	0.8205	24.53	-0.20	0.050			
0.0308	1969.61	4.1560	4.1561	0.8276	24.54	-0.19	0.050			
0.0316	2020.57	4.1550	4.1552	0.8268	24.53	-0.20	0.050			
0.0324	2072.06	4.1540	4.1543	0.8276	24.53	-0.20	0.050			
0.0332	2122.67	4.1530	4.1533	0.8326	24.53	-0.20	0.050			
0.0340	2173.82	4.1520	4.1518	0.8339	24.52	-0.21	0.050			
0.0348	2226.90	4.1510	4.1508	0.8361	24.53	-0.20	0.050			
0.0356	2279.55	4.1500	4.1499	0.8379	24.53	-0.20	0.050			
0.0365	2333.57	4.1490	4.1488	0.8424	24.53	-0.20	0.050			
0.0373	2389.06	4.1480	4.1475	0.8428	24.51	-0.22	0.050			
0.0382	2443.26	4.1470	4.1467	0.8471	24.53	-0.20	0.050			
0.0390	2497.86	4.1460	4.1463	0.8510	24.53	-0.20	0.050			
0.0399	2553.91	4.1450	4.1452	0.8546	24.53	-0.20	0.050			
0.0408	2609.89	4.1440	4.1441	0.8592	24.53	-0.20	0.050			
0.0417	2666.93	4.1430	4.1433	0.8628	24.53	-0.20	0.050			
0.0426	2725.78	4.1420	4.1421	0.8599	24.53	-0.20	0.050			
0.0435	2780.98	4.1410	4.1411	0.8622	24.53	-0.20	0.050			
0.0443	2836.39	4.1400	4.1401	0.8602	24.53	-0.20	0.050			
0.0452	2890.77	4.1390	4.1389	0.8587	24.53	-0.20	0.050			
0.0460	2945.43	4.1380	4.1379	0.8560	24.53	-0.20	0.050			
0.0469	2999.49	4.1370	4.1370	0.8529	24.53	-0.20	0.050			
0.0477	3049.88	4.1360	4.1360	0.8434	24.53	-0.20	0.050			
0.0485	3103.83	4.1350	4.1351	0.8446	24.53	-0.20	0.050	0.149	0.489	
0.0493	3157.24	4.1340	4.1340	0.8458	24.53	-0.20	0.050			
0.0502	3211.28	4.1330	4.1330	0.8468	24.53	-0.20	0.050			
0.0510	3266.00	4.1320	4.1314	0.8481	24.54	-0.19	0.050			
0.0519	3320.93	4.1310	4.1311	0.8491	24.53	-0.20	0.050			
0.0527	3375.33	4.1300	4.1300	0.8498	24.53	-0.20	0.050			
0.0536	3429.92	4.1290	4.1291	0.8518	24.53	-0.20	0.050			
0.0545	3484.86	4.1280	4.1281	0.8524	24.53	-0.20	0.050			
0.0553	3540.22	4.1270	4.1270	0.8522	24.53	-0.20	0.050			
0.0562	3594.13	4.1260	4.1261	0.8510	24.53	-0.20	0.050			
0.0570	3649.26	4.1250	4.1251	0.8517	24.53	-0.20	0.050			
0.0579	3703.79	4.1240	4.1241	0.8532	24.53	-0.20	0.050			
0.0587	3758.28	4.1230	4.1231	0.8539	24.53	-0.20	0.050			
0.0596	3813.19	4.1220	4.1219	0.8546	24.53	-0.20	0.050			
0.0604	3866.36	4.1210	4.1210	0.8515	24.55	-0.18	0.050			
0.0613	3920.86	4.1200	4.1201	0.8537	24.54	-0.19	0.050			
0.0621	3975.65	4.1190	4.1190	0.8545	24.54	-0.19	0.050			
0.0630	4030.47	4.1180	4.1180	0.8558	24.55	-0.18	0.050			
0.0638	4085.18	4.1170	4.1166	0.8563	24.54	-0.19	0.050			
0.0647	4140.29	4.1160	4.1160	0.8560	24.55	-0.18	0.050			
0.0656	4195.21	4.1150	4.1148	0.8556	24.55	-0.18	0.050			
0.0664	4250.18	4.1140	4.1140	0.8561	24.55	-0.18	0.050			
0.0673	4305.49	4.1130	4.1130	0.8568	24.56	-0.17	0.050			
0.0681	4360.58	4.1120	4.1119	0.8575	24.57	-0.16	0.050			
0.0690	4415.54	4.1110	4.1110	0.8577	24.57	-0.16	0.050	0.424	0.448	
0.0699	4470.61	4.1100	4.1101	0.8580	24.57	-0.16	0.050			
0.0707	4525.53	4.1090	4.1089	0.8568	24.57	-0.16	0.050			
0.0716	4580.73	4.1080	4.1080	0.8580	24.57	-0.16	0.050			
0.0724	4635.62	4.1070	4.1070	0.8567	24.57	-0.16	0.050			
0.0733	4690.57	4.1060	4.1058	0.8568	24.58	-0.15	0.050			
0.0741	4744.98	4.1050	4.1050	0.8553	24.58	-0.15	0.050			
0.0750	4798.93	4.1040	4.1039	0.8539	24.59	-0.14	0.050			
0.0758	4853.41	4.1030	4.1029	0.8544	24.59	-0.14	0.050			
0.0767	4908.16	4.1020	4.1020	0.8542	24.59	-0.14	0.050			
0.0775	4962.13	4.1010	4.1010	0.8547	24.59	-0.14	0.050			
0.0784	5016.90	4.1000	4.1000	0.8553	24.59	-0.14	0.050			
0.0792	5071.87	4.0990	4.0990	0.8556	24.59	-0.14	0.050			
0.0801	5126.83	4.0980	4.0980	0.8563	24.59	-0.14	0.050			
0.0810	5182.11	4.0970	4.0969	0.8571	24.61	-0.12	0.050			
0.0818	5236.81	4.0960	4.0962	0.8583	24.61	-0.12	0.050			
0.0827	5291.58	4.0950	4.0950	0.8586	24.60	-0.13	0.050			
0.0835	5346.94	4.0940	4.0939	0.8597	24.61	-0.12	0.050			
0.0844	5402.05	4.0930	4.0931	0.8585	24.61	-0.12	0.050			
0.0853	5456.92	4.0920	4.0919	0.8582	24.61	-0.12	0.050			
0.0861	5512.09	4.0910	4.0911	0.8581	24.61	-0.12	0.050			
0.0870	5567.03	4.0900	4.0900	0.8577	24.61	-0.12	0.050			
0.0879	5622.51	4.0890	4.0889	0.8571	24.61	-0.12	0.050			
0.0887	5677.13	4.0880	4.0880	0.8572	24.61	-0.12	0.050			
0.0896	5731.76	4.0870	4.0868	0.8566	24.61	-0.12	0.050			
0.0904	5786.36	4.0860	4.0861	0.8576	24.61	-0.12	0.050			
0.0913	5841.30	4.0850	4.0850	0.8575	24.61	-0.12	0.050			
0.0921	5895.74	4.0840	4.0840	0.8573	24.61	-0.12	0.050			
0.0930	5950.29	4.0830	4.0830	0.8572	24.61	-0.12	0.050			
0.0938	6005.06	4.0820	4.0820	0.8588	24.61	-0.12	0.050			
0.0947	6059.76	4.0810	4.0809	0.8587	24.61	-0.12	0.050			
0.0956	6115.36	4.0800	4.0799	0.8587	24.61	-0.12	0.050			
0.0964	6170.66	4.0790	4.0789	0.8587	24.61	-0.12	0.050			
0.0973	6225.13	4.0780	4.0780	0.8595	24.61	-0.12	0.050			
0.0981	6280.51	4.0770	4.0770	0.8602	24.61	-0.12	0.050			
0.0990	6335.15	4.0760	4.0761	0.8596	24.61	-0.12	0.050			
0.0999	6390.74	4.0750	4.0750	0.8603	24.61	-0.12	0.050			
0.1007	6445.90	4.0740	4.0741	0.8605	24.62	-0.11	0.050			
0.1016	6501.04	4.0730	4.0730	0.8630	24.61	-0.12	0.050			
0.1024	6556.24	4.0720	4.0721	0.8642	24.62	-0.11	0.050			
0.1033	6611.41	4.0710	4.0710	0.8646	24.62	-0.11	0.050			
0.1042	6667.07	4.0700	4.0699	0.8644	24.61	-0.12	0.050			
0.1050	6722.03	4.0690	4.0689	0.8640	24.61	-0.12	0.050			
0.1059	6777.31	4.0680	4.0681	0.8636	24.62	-0.11	0.050			
0.1068	6832.09	4.0670	4.0670	0.8645	24.61	-0.12	0.050			
0.1076	6887.57	4.0660	4.0659	0.8654	24.61	-0.12	0.050			
0.1085	6943.07	4.0650	4.0650	0.8667	24.62	-0.11	0.050	0.341	0.434	
0.1093	6998.29	4.0640	4.0640	0.8675	24.61	-0.12	0.050			
0.1102	7053.65	4.0630	4.0632	0.8689	24.62	-0.11	0.050			
0.1111	7109.37	4.0620	4.0622	0.8700	24.62	-0.11	0.050			
0.1120	7165.40	4.0610	4.0610	0.8727	24.61	-0.12	0.050			
0.1128	7221.57	4.0600	4.0599	0.8738	24.61	-0.12	0.050			
0.1137	7277.77	4.0590	4.0590	0.8735	24.61	-0.12	0.050			
0.1146	7333.74	4.0580	4.0579	0.8717	24.61	-0.12	0.050			
0.1155	7389.64	4.0570	4.0571	0.8743	24.61	-0.12	0.050			
0.1163	7445.68	4.0560	4.0560	0.8753	24.61	-0.12	0.050			
0.1172	7501.85	4.0550	4.0550	0.8750	24.61	-0.12	0.050			
0.1181	7558.07	4.0540	4.0541	0.8741	24.61	-0.12	0.050			
0.1190	7613.66	4.0530	4.0530	0.8740	24.61	-0.12	0.050			
0.1198	7669.68	4.0520	4.0519	0.8750	24.61	-0.12	0.050			
0.1207	7726.32	4.0510	4.0512	0.8748	24.61	-0.12	0.050			
0.1216	7782.46	4.0500	4.0499	0.8737	24.60	-0.13	0.050			
0.1225	7837.79	4.0490	4.0489	0.8754	24.59	-0.14	0.050			
0.1233	7893.70	4.0480	4.0479	0.8746	24.60	-0.13	0.050			
0.1242	7948.99	4.0470	4.0472	0.8759	24.60	-0.13	0.050			
0.1251	8005.09	4.0460	4.0460	0.8765	24.60	-0.13	0.050			
0.1260	8061.35	4.0450	4.0449	0.8770	24.61	-0.12	0.050			
0.1268	8116.98	4.0440	4.0441	0.8773	24.60	-0.13	0.050			
0.1277	8173.54	4.0430	4.0430	0.8780	24.61	-0.12	0.050			
0.1286	8229.76	4.0420	4.0420	0.8783	24.61	-0.12	0.050	0.239	0.528	
0.1295	8285.82	4.0410	4.0408	0.8795	24.60	-0.13	0.050			
0.1304	8342.85	4.0400	4.0399	0.8798	24.61	-0.12	0.050			
0.1312	8399.62	4.0390	4.0392	0.8793	24.61	-0.12	0.050			
0.1321	8455.95	4.0380	4.0379	0.8799	24.61	-0.12	0.050			
0.1330	8511.26	4.0370	4.0369	0.8803	24.61	-0.12	0.050			
0.1339	8568.08	4.0360	4.0360	0.8821	24.61	-0.12	0.050			
0.1348	8624.08	4.0350	4.0349	0.8849	24.62	-0.11	0.050			
0.1356	8680.85	4.0340	4.0341	0.8860	24.62	-0.11	0.050			
0.1365	8737.99	4.0330	4.0330	0.8856	24.63	-0.10	0.050			
0.1374	8794.54	4.0320	4.0319	0.8861	24.63	-0.10	0.050			
0.1383	8850.93	4.0310	4.0310	0.8871	24.61	-0.12	0.050			
0.1392	8908.27	4.0300	4.0300	0.8877	24.62	-0.11	0.050			
0.1401	8964.47	4.0290	4.0289	0.8859	24.61	-0.12	0.050			
0.1410	9021.08	4.0280	4.0280	0.8878	24.62	-0.11	0.050			
0.1418	9078.00	4.0270	4.0272	0.8884	24.62	-0.11	0.050			
0.1427	9134.94	4.0260	4.0259	0.8888	24.61	-0.12	0.050			
0.1436	9192.56	4.0250	4.0250	0.8904	24.61	-0.12	0.050			
0.1445	9249.02	4.0240	4.0242	0.8925	24.61	-0.12	0.050			
0.1454	9306.11	4.0230	4.0228	0.8951	24.61	-0.12	0.050			
0.1463	9363.56	4.0220	4.0220	0.8976	24.61	-0.12	0.050			
0.1472	9420.59	4.0210	4.0210	0.8990	24.61	-0.12	0.050			
0.1481	9478.14	4.0200	4.0201	0.9017	24.61	-0.12	0.050			
0.1490	9535.93	4.0190	4.0190	0.9026	24.61	-0.12	0.050	-0.209	0.346	
0.1499	9593.36	4.0180	4.0179	0.9042	24.61	-0.12	0.050			
0.1508	9650.75	4.0170	4.0169	0.9038	24.61	-0.12	0.050			
0.1517	9709.12	4.0160	4.0160	0.9046	24.61	-0.12	0.050			
0.1526	9767.45	4.0150	4.0149	0.9053	24.61	-0.12	0.050			
0.1535	9825.86	4.0140	4.0140	0.9067	24.60	-0.13	0.050			
0.1544	9884.35	4.0130	4.0131	0.9094	24.61	-0.12	0.050			
0.1554	9942.86	4.0120	4.0120	0.9092	24.61	-0.12	0.050			
0.1563	10001.72	4.0110	4.0111	0.9089	24.61	-0.12	0.050			
0.1572	10060.35	4.0100	4.0101	0.9089	24.61	-0.12	0.050			
0.1581	10118.75	4.0090	4.0092	0.9089	24.61	-0.12	0.050			
0.1590	10175.94	4.0080	4.0081	0.9105	24.61	-0.12	0.050			
0.1599	10233.85	4.0070	4.0071	0.9104	24.61	-0.12	0.050			
0.1608	10292.17	4.0060	4.0059	0.9116	24.60	-0.13	0.050			
0.1617	10350.60	4.0050	4.0050	0.9121	24.61	-0.12	0.050			
0.1626	10408.03	4.0040	4.0039	0.9102	24.61	-0.12	0.050			
0.1635	10466.09	4.0030	4.0030	0.9113	24.61	-0.12	0.050			
0.1644	10524.08	4.0020	4.0020	0.9139	24.61	-0.12	0.050			
0.1654	10582.57	4.0010	4.0008	0.9159	24.61	-0.12	0.050			
0.1663	10641.15	4.0000	4.0000	0.9176	24.61	-0.12	0.050			
0.1672	10700.35	3.9990	3.9990	0.9195	24.61	-0.12	0.050			
0.1681	10759.78	3.9980	3.9981	0.9199	24.61	-0.12	0.050			
0.1690	10819.11	3.9970	3.9970	0.9214	24.61	-0.12	0.050	0.361	0.468	
0.1700	10877.74	3.9960	3.9961	0.9230	24.61	-0.12	0.050			
0.1709	10937.18	3.9950	3.9949	0.9247	24.61	-0.12	0.050			
0.1718	10996.31	3.9940	3.9940	0.9261	24.60	-0.13	0.050			
0.1727	11055.86	3.9930	3.9929	0.9266	24.59	-0.14	0.050			
0.1737	11115.54	3.9920	3.9921	0.9281	24.59	-0.14	0.050			
0.1746	11175.31	3.9910	3.9911	0.9290	24.59	-0.14	0.050			
0.1755	11234.09	3.9900	3.9900	0.9297	24.59	-0.14	0.050			
0.1765	11293.43	3.9890	3.9890	0.9309	24.59	-0.14	0.050			
0.1774	11352.49	3.9880	3.9880	0.9302	24.59	-0.14	0.050			
0.1783	11412.40	3.9870	3.9869	0.9328	24.59	-0.14	0.050			
0.1792	11471.77	3.9860	3.9860	0.9344	24.58	-0.15	0.050			
0.1802	11532.02	3.9850	3.9850	0.9345	24.58	-0.15	0.050			
0.1811	11592.08	3.9840	3.9840	0.9346	24.57	-0.16	0.050			
0.1821	11651.77	3.9830	3.9828	0.9344	24.57	-0.16	0.050			
0.1830	11710.92	3.9820	3.9820	0.9371	24.57	-0.16	0.050			
0.1839	11770.70	3.9810	3.9810	0.9413	24.57	-0.16	0.050			
0.1849	11831.59	3.9800	3.9800	0.9446	24.57	-0.16	0.050			
0.1858	11892.17	3.9790	3.9791	0.9454	24.57	-0.16	0.050			
0.1868	11952.75	3.9780	3.9780	0.9474	24.56	-0.17	0.050			
0.1877	12013.47	3.9770	3.9769	0.9477	24.56	-0.17	0.050			
0.1887	12073.67	3.9760	3.9760	0.9491	24.56	-0.17	0.050	0.447	0.547	
0.1896	12134.57	3.9750	3.9748	0.9506	24.57	-0.16	0.050			
0.1906	12195.76	3.9740	3.9741	0.9530	24.55	-0.18	0.050			
0.1915	12257.59	3.9730	3.9728	0.9530	24.55	-0.18	0.050			
0.1925	12318.37	3.9720	3.9721	0.9549	24.55	-0.18	0.050			
0.1934	12379.69	3.9710	3.9710	0.9545	24.55	-0.18	0.050			
0.1944	12440.88	3.9700	3.9700	0.9550	24.56	-0.17	0.050			
0.1953	12501.98	3.9690	3.9689	0.9569	24.55	-0.18	0.050			
0.1963	12563.86	3.9680	3.9681	0.9579	24.55	-0.18	0.050			
0.1973	12625.01	3.9670	3.9669	0.9575	24.55	-0.18	0.050			
0.1982	12686.75	3.9660	3.9660	0.9579	24.55	-0.18	0.050			
0.1992	12747.66	3.9650	3.9651	0.9573	24.55	-0.18	0.050			
0.2002	12809.63	3.9640	3.9640	0.9574	24.55	-0.18	0.050			
0.2011	12870.45	3.9630	3.9627	0.9581	24.56	-0.17	0.050			
0.2021	12931.33	3.9620	3.9620	0.9550	24.55	-0.18	0.050			
0.2030	12992.69	3.9610	3.9610	0.9552	24.55	-0.18	0.050			
0.2040	13054.09	3.9600	3.9599	0.9553	24.55	-0.18	0.050			
0.2049	13115.40	3.9590	3.9590	0.9565	24.56	-0.17	0.050			
0.2059	13176.64	3.9580	3.9579	0.9551	24.56	-0.17	0.050			
0.2068	13237.59	3.9570	3.9571	0.9561	24.56	-0.17	0.050			
0.2078	13297.76	3.9560	3.9560	0.9590	24.55	-0.18	0.050			
0.2087	13358.56	3.9550	3.9551	0.9619	24.56	-0.17	0.050	0.282	0.529	
0.2097	13420.29	3.9540	3.9540	0.9641	24.56	-0.17	0.050			
0.2107	13482.15	3.9530	3.9531	0.9651	24.55	-0.18	0.050			
0.2116	13543.97	3.9520	3.9521	0.9639	24.55	-0.18	0.050			
0.2126	13606.01	3.9510	3.9508	0.9660	24.55	-0.18	0.050			
0.2136	13667.76	3.9500	3.9499	0.9675	24.55	-0.18	0.050			
0.2145	13729.93	3.9490	3.9491	0.9669	24.55	-0.18	0.050			
0.2155	13792.02	3.9480	3.9479	0.9675	24.55	-0.18	0.050			
0.2165	13854.42	3.9470	3.9470	0.9692	24.55	-0.18	0.050			
0.2174	13916.53	3.9460	3.9461	0.9695	24.55	-0.18	0.050			
0.2184	13978.98	3.9450	3.9451	0.9699	24.55	-0.18	0.050			
0.2194	14041.25	3.9440	3.9442	0.9699	24.55	-0.18	0.050			
0.2204	14103.48	3.9430	3.9430	0.9702	24.55	-0.18	0.050			
0.2213	14166.33	3.9420	3.9419	0.9720	24.54	-0.19	0.050			
0.2223	14228.71	3.9410	3.9410	0.9712	24.53	-0.20	0.050			
0.2233	14290.47	3.9400	3.9400	0.9696	24.53	-0.20	0.050			
0.2243	14352.28	3.9390	3.9390	0.9680	24.54	-0.19	0.050			
0.2252	14413.78	3.9380	3.9379	0.9676	24.55	-0.18	0.050			
0.2262	14475.45	3.9370	3.9372	0.9662	24.55	-0.18	0.050			
0.2271	14536.86	3.9360	3.9359	0.9628	24.55	-0.18	0.050			
0.2281	14598.70	3.9350	3.9350	0.9638	24.55	-0.18	0.050			
0.2291	14660.92	3.9340	3.9339	0.9637	24.55	-0.18	0.050	0.147	0.483	
0.2300	14723.01	3.9330	3.9329	0.9640	24.55	-0.18	0.050			
0.2310	14785.16	3.9320	3.9320	0.9624	24.55	-0.18	0.050			
0.2320	14846.64	3.9310	3.9310	0.9595	24.56	-0.17	0.050			
0.2329	14907.88	3.9300	3.9300	0.9569	24.57	-0.16	0.050			
0.2339	14969.67	3.9290	3.9290	0.9564	24.57	-0.16	0.050			
0.2349	15030.83	3.9280	3.9280	0.9544	24.57	-0.16	0.050			
0.2358	15091.61	3.9270	3.9270	0.9514	24.57	-0.16	0.050			
0.2368	15152.67	3.9260	3.9262	0.9493	24.58	-0.15	0.050			
0.2377	15213.20	3.9250	3.9251	0.9473	24.59	-0.14	0.050			
0.2387	15274.04	3.9240	3.9240	0.9441	24.59	-0.14	0.050			
0.2396	15334.39	3.9230	3.9230	0.9408	24.59	-0.14	0.050			
0.2405	15394.48	3.9220	3.9220	0.9388	24.60	-0.13	0.050			
0.2415	15454.53	3.9210	3.9209	0.9358	24.60	-0.13	0.050			
0.2424	15514.48	3.9200	3.9199	0.9326	24.60	-0.13	0.050			
0.2433	15573.79	3.9190	3.9190	0.9297	24.61	-0.12	0.050			
0.2443	15633.15	3.9180	3.9182	0.9273	24.60	-0.13	0.050			
0.2452	15692.41	3.9170	3.9171	0.9247	24.61	-0.12	0.050			
0.2461	15751.84	3.9160	3.9160	0.9224	24.61	-0.12	0.050			
0.2470	15810.93	3.9150	3.9150	0.9197	24.59	-0.14	0.050			
0.2480	15869.60	3.9140	3.9139	0.9163	24.61	-0.12	0.050			
0.2489	15928.25	3.9130	3.9130	0.9117	24.61	-0.12	0.050	0.329	0.364	
0.2498	15986.99	3.9120	3.9121	0.9089	24.61	-0.12	0.050			
0.2507	16045.33	3.9110	3.9109	0.9050	24.61	-0.12	0.050			
0.2516	16102.84	3.9100	3.9100	0.9011	24.61	-0.12	0.050			
0.2525	16159.98	3.9090	3.9090	0.8965	24.61	-0.12	0.050			
0.2534	16217.43	3.9080	3.9081	0.8941	24.61	-0.12	0.050			
0.2543	16274.65	3.9070	3.9071	0.8906	24.60	-0.13	0.050			
0.2552	16331.54	3.9060	3.9060	0.8869	24.61	-0.12	0.050			
0.2561	16387.89	3.9050	3.9050	0.8830	24.60	-0.13	0.050			
0.2569	16444.53	3.9040	3.9041	0.8805	24.61	-0.12	0.050			
0.2578	16500.81	3.9030	3.9029	0.8765	24.61	-0.12	0.050			
0.2587	16556.64	3.9020	3.9019	0.8712	24.62	-0.11	0.050			
0.2596	16612.76	3.9010	3.9009	0.8685	24.61	-0.12	0.050			
0.2604	16668.06	3.9000	3.9000	0.8636	24.61	-0.12	0.050			
0.2613	16722.98	3.8990	3.8990	0.8604	24.61	-0.12	0.050			
0.2621	16777.53	3.8980	3.8980	0.8572	24.61	-0.12	0.050			
0.2630	16832.42	3.8970	3.8972	0.8542	24.63	-0.10	0.050			
0.2639	16887.16	3.8960	3.8961	0.8497	24.61	-0.12	0.050			
0.2647	16942.17	3.8950	3.8950	0.8445	24.61	-0.12	0.050			
0.2656	16996.08	3.8940	3.8942	0.8410	24.63	-0.10	0.050			
0.2664	17049.75	3.8930	3.8930	0.8377	24.63	-0.10	0.050			
0.2672	17103.47	3.8920	3.8920	0.8323	24.64	-0.09	0.050			
0.2681	17156.55	3.8910	3.8911	0.8275	24.65	-0.08	0.050			
0.2689	17209.36	3.8900	3.8898	0.8221	24.63	-0.10	0.050	0.156	0.389	
0.2697	17261.71	3.8890	3.8891	0.8172	24.64	-0.09	0.050			
0.2705	17313.95	3.8880	3.8880	0.8127	24.65	-0.08	0.050			
0.2713	17365.67	3.8870	3.8871	0.8095	24.65	-0.08	0.050			
0.2721	17417.32	3.8860	3.8860	0.8047	24.66	-0.07	0.050			
0.2729	17468.54	3.8850	3.8850	0.8000	24.66	-0.07	0.050			
0.2737	17519.33	3.8840	3.8841	0.7967	24.67	-0.06	0.050			
0.2745	17569.94	3.8830	3.8831	0.7935	24.66	-0.07	0.050			
0.2753	17620.63	3.8820	3.8819	0.7895	24.67	-0.06	0.050			
0.2761	17670.93	3.8810	3.8812	0.7858	24.66	-0.07	0.050			
0.2769	17720.47	3.8800	3.8800	0.7832	24.66	-0.07	0.050			
0.2777	17770.10	3.8790	3.8790	0.7785	24.67	-0.06	0.050			
0.2784	17820.36	3.8780	3.8780	0.7755	24.67	-0.06	0.050			
0.2792	17869.56	3.8770	3.8770	0.7730	24.66	-0.07	0.050			
0.2800	17919.40	3.8760	3.8760	0.7709	24.66	-0.07	0.050			
0.2808	17968.70	3.8750	3.8749	0.7686	24.67	-0.06	0.050			
0.2815	18017.60	3.8740	3.8740	0.7647	24.67	-0.06	0.050			
0.2823	18066.45	3.8730	3.8730	0.7609	24.67	-0.06	0.050			
0.2831	18115.35	3.8720	3.8721	0.7583	24.68	-0.05	0.050			
0.2838	18164.10	3.8710	3.8710	0.7560	24.68	-0.05	0.050			
0.2846	18212.17	3.8700	3.8700	0.7539	24.68	-0.05	0.050			
0.2853	18260.07	3.8690	3.8688	0.7526	24.67	-0.06	0.050			
0.2861	18307.53	3.8680	3.8679	0.7516	24.68	-0.05	0.050			
0.2868	18355.10	3.8670	3.8671	0.7496	24.67	-0.06	0.050			
0.2875	18402.63	3.8660	3.8661	0.7489	24.67	-0.06	0.050			
0.2883	18450.52	3.8650	3.8650	0.7486	24.67	-0.06	0.050			
0.2890	18497.70	3.8640	3.8640	0.7468	24.67	-0.06	0.050	0.427	0.505	
0.2898	18545.69	3.8630	3.8629	0.7464	24.67	-0.06	0.050			
0.2905	18593.22	3.8620	3.8620	0.7461	24.67	-0.06	0.050			
0.2913	18641.07	3.8610	3.8609	0.7467	24.68	-0.05	0.050			
0.2920	18688.40	3.8600	3.8600	0.7475	24.67	-0.06	0.050			
0.2928	18736.12	3.8590	3.8591	0.7479	24.67	-0.06	0.050			
0.2935	18784.54	3.8580	3.8581	0.7488	24.67	-0.06	0.050			
