Ah_balance (normalized)	Ah_balance (mAh)	Voltage - fit (V)	Voltage -  interpolate (V)	dQ/dV (1/V)	Temperature (°C)	Temperature - diff (°C)	Current (C)	R_DC 0ms (mOhm)	R_DC 50ms (mOhm)	R_DC 50 ms PEC (mOhm)
-0.0048	-307.38	4.1990	4.1991	0.8560	24.05	-0.19	0.050	0.525	0.684	
-0.0039	-252.61	4.1980	4.1979	0.8832	24.05	-0.19	0.050			
-0.0031	-195.98	4.1970	4.1969	0.8854	24.05	-0.19	0.050			
-0.0022	-139.31	4.1960	4.1959	0.8849	24.04	-0.20	0.050			
-0.0013	-81.36	4.1950	4.1947	0.8891	24.03	-0.21	0.050			
-0.0004	-24.86	4.1940	4.1939	0.8844	24.04	-0.20	0.050			
0.0005	31.70	4.1930	4.1932	0.8808	24.04	-0.20	0.050			
0.0014	87.57	4.1920	4.1923	0.8773	24.03	-0.21	0.050			
0.0022	143.37	4.1910	4.1910	0.8746	24.04	-0.20	0.050			
0.0031	199.07	4.1900	4.1902	0.8723	24.04	-0.20	0.050			
0.0040	255.36	4.1890	4.1891	0.8676	24.04	-0.20	0.050			
0.0049	310.96	4.1880	4.1881	0.8663	24.04	-0.20	0.050			
0.0057	367.14	4.1870	4.1870	0.8648	24.04	-0.20	0.050			
0.0066	421.41	4.1860	4.1859	0.8630	24.04	-0.20	0.050			
0.0074	476.50	4.1850	4.1851	0.8604	24.04	-0.20	0.050			
0.0083	530.44	4.1840	4.1835	0.8576	24.04	-0.20	0.050			
0.0091	583.71	4.1830	4.1830	0.8510	24.04	-0.20	0.050			
0.0100	637.84	4.1820	4.1819	0.8507	24.05	-0.19	0.050			
0.0108	692.85	4.1810	4.1811	0.8508	24.05	-0.19	0.050			
0.0117	747.57	4.1800	4.1801	0.8520	24.06	-0.18	0.050			
0.0125	802.32	4.1790	4.1786	0.8523	24.06	-0.18	0.050			
0.0134	856.23	4.1780	4.1781	0.8527	24.06	-0.18	0.050			
0.0142	911.35	4.1770	4.1768	0.8538	24.07	-0.17	0.050			
0.0151	965.53	4.1760	4.1761	0.8531	24.08	-0.16	0.050			
0.0159	1020.22	4.1750	4.1747	0.8552	24.07	-0.17	0.050	0.181	0.556	
0.0168	1075.28	4.1740	4.1740	0.8554	24.07	-0.17	0.050			
0.0177	1130.87	4.1730	4.1729	0.8488	24.07	-0.17	0.050			
0.0185	1186.17	4.1720	4.1721	0.8452	24.07	-0.17	0.050			
0.0194	1240.67	4.1710	4.1709	0.8413	24.08	-0.16	0.050			
0.0202	1295.04	4.1700	4.1699	0.8377	24.06	-0.18	0.050			
0.0211	1348.29	4.1690	4.1689	0.8377	24.06	-0.18	0.050			
0.0219	1401.47	4.1680	4.1680	0.8357	24.06	-0.18	0.050			
0.0227	1454.21	4.1670	4.1671	0.8328	24.06	-0.18	0.050			
0.0235	1506.18	4.1660	4.1661	0.8352	24.05	-0.19	0.050			
0.0243	1557.52	4.1650	4.1653	0.8419	24.05	-0.19	0.050			
0.0252	1609.90	4.1640	4.1643	0.8444	24.05	-0.19	0.050			
0.0260	1663.43	4.1630	4.1626	0.8483	24.05	-0.19	0.050			
0.0268	1716.83	4.1620	4.1619	0.8546	24.04	-0.20	0.050			
0.0277	1771.01	4.1610	4.1609	0.8594	24.04	-0.20	0.050			
0.0285	1825.58	4.1600	4.1597	0.8612	24.04	-0.20	0.050			
0.0294	1880.79	4.1590	4.1588	0.8680	24.04	-0.20	0.050			
0.0303	1936.12	4.1580	4.1580	0.8719	24.04	-0.20	0.050			
0.0311	1993.37	4.1570	4.1569	0.8740	24.04	-0.20	0.050			
0.0320	2050.63	4.1560	4.1558	0.8792	24.03	-0.21	0.050			
0.0329	2108.19	4.1550	4.1553	0.8850	24.03	-0.21	0.050			
0.0339	2166.75	4.1540	4.1542	0.8900	24.02	-0.22	0.050			
0.0348	2225.66	4.1530	4.1530	0.8934	24.02	-0.22	0.050			
0.0357	2286.51	4.1520	4.1521	0.8906	24.03	-0.21	0.050			
0.0366	2344.28	4.1510	4.1510	0.8869	24.02	-0.22	0.050			
0.0375	2400.73	4.1500	4.1498	0.8849	24.02	-0.22	0.050			
0.0384	2456.21	4.1490	4.1491	0.8845	24.01	-0.23	0.050			
0.0393	2512.11	4.1480	4.1481	0.8817	24.01	-0.23	0.050			
0.0401	2567.85	4.1470	4.1470	0.8807	24.01	-0.23	0.050			
0.0410	2622.96	4.1460	4.1459	0.8763	24.00	-0.24	0.050			
0.0418	2677.25	4.1450	4.1452	0.8734	24.00	-0.24	0.050			
0.0427	2733.45	4.1440	4.1441	0.8736	24.00	-0.24	0.050			
0.0436	2789.45	4.1430	4.1430	0.8746	23.99	-0.25	0.050			
0.0445	2845.08	4.1420	4.1419	0.8741	23.99	-0.25	0.050			
0.0453	2900.82	4.1410	4.1410	0.8740	23.99	-0.25	0.050			
0.0462	2957.18	4.1400	4.1399	0.8751	24.00	-0.24	0.050			
0.0471	3012.94	4.1390	4.1392	0.8759	23.98	-0.26	0.050			
0.0480	3069.01	4.1380	4.1381	0.8767	23.99	-0.25	0.050			
0.0488	3126.06	4.1370	4.1370	0.8765	24.00	-0.24	0.050			
0.0497	3182.47	4.1360	4.1360	0.8748	24.00	-0.24	0.050			
0.0506	3238.63	4.1350	4.1350	0.8733	23.99	-0.25	0.050			
0.0515	3295.24	4.1340	4.1340	0.8734	24.00	-0.24	0.050			
0.0524	3351.75	4.1330	4.1330	0.8729	24.00	-0.24	0.050			
0.0533	3408.12	4.1320	4.1321	0.8726	24.00	-0.24	0.050			
0.0541	3463.50	4.1310	4.1310	0.8710	24.00	-0.24	0.050			
0.0550	3518.38	4.1300	4.1301	0.8656	24.01	-0.23	0.050			
0.0558	3572.96	4.1290	4.1292	0.8648	24.02	-0.22	0.050			
0.0567	3628.47	4.1280	4.1281	0.8639	24.02	-0.22	0.050			
0.0576	3683.72	4.1270	4.1270	0.8651	24.03	-0.21	0.050			
0.0584	3738.49	4.1260	4.1259	0.8653	24.04	-0.20	0.050			
0.0593	3793.67	4.1250	4.1251	0.8650	24.05	-0.19	0.050			
0.0601	3848.40	4.1240	4.1239	0.8667	24.05	-0.19	0.050			
0.0610	3904.10	4.1230	4.1229	0.8683	24.06	-0.18	0.050			
0.0619	3959.22	4.1220	4.1219	0.8680	24.06	-0.18	0.050			
0.0627	4014.45	4.1210	4.1209	0.8695	24.07	-0.17	0.050			
0.0636	4070.24	4.1200	4.1200	0.8703	24.07	-0.17	0.050			
0.0645	4125.71	4.1190	4.1189	0.8712	24.08	-0.16	0.050			
0.0653	4182.02	4.1180	4.1179	0.8730	24.08	-0.16	0.050			
0.0662	4238.17	4.1170	4.1171	0.8777	24.08	-0.16	0.050			
0.0671	4294.72	4.1160	4.1160	0.8791	24.08	-0.16	0.050			
0.0680	4351.00	4.1150	4.1150	0.8811	24.07	-0.17	0.050			
0.0689	4407.79	4.1140	4.1142	0.8803	24.07	-0.17	0.050			
0.0697	4463.89	4.1130	4.1130	0.8828	24.08	-0.16	0.050			
0.0706	4520.74	4.1120	4.1120	0.8833	24.07	-0.17	0.050			
0.0715	4576.97	4.1110	4.1111	0.8839	24.07	-0.17	0.050			
0.0724	4634.25	4.1100	4.1097	0.8834	24.07	-0.17	0.050			
0.0733	4691.11	4.1090	4.1090	0.8834	24.06	-0.18	0.050			
0.0742	4747.32	4.1080	4.1078	0.8864	24.06	-0.18	0.050			
0.0751	4803.44	4.1070	4.1070	0.8871	24.05	-0.19	0.050			
0.0759	4860.46	4.1060	4.1058	0.8887	24.06	-0.18	0.050	0.630	0.557	
0.0768	4917.76	4.1050	4.1050	0.8872	24.06	-0.18	0.050			
0.0777	4975.19	4.1040	4.1038	0.8862	24.05	-0.19	0.050			
0.0786	5031.46	4.1030	4.1031	0.8888	24.04	-0.20	0.050			
0.0795	5088.11	4.1020	4.1019	0.8918	24.04	-0.20	0.050			
0.0804	5144.60	4.1010	4.1010	0.8934	24.03	-0.21	0.050			
0.0813	5201.91	4.1000	4.1000	0.8950	24.04	-0.20	0.050			
0.0822	5259.64	4.0990	4.0989	0.8940	24.02	-0.22	0.050			
0.0831	5317.78	4.0980	4.0981	0.8910	24.02	-0.22	0.050			
0.0840	5374.54	4.0970	4.0971	0.8908	24.02	-0.22	0.050			
0.0849	5431.39	4.0960	4.0961	0.8920	24.02	-0.22	0.050			
0.0858	5488.56	4.0950	4.0950	0.8941	24.00	-0.24	0.050			
0.0867	5546.28	4.0940	4.0937	0.8937	24.00	-0.24	0.050			
0.0876	5603.58	4.0930	4.0932	0.8923	24.00	-0.24	0.050			
0.0885	5661.18	4.0920	4.0922	0.8921	24.00	-0.24	0.050			
0.0894	5718.63	4.0910	4.0911	0.8921	24.00	-0.24	0.050			
0.0902	5775.51	4.0900	4.0901	0.8926	24.00	-0.24	0.050			
0.0911	5832.35	4.0890	4.0889	0.8934	24.00	-0.24	0.050			
0.0920	5888.13	4.0880	4.0877	0.8918	24.00	-0.24	0.050			
0.0929	5944.83	4.0870	4.0870	0.8930	24.00	-0.24	0.050			
0.0938	6002.52	4.0860	4.0860	0.8957	24.00	-0.24	0.050			
0.0947	6060.19	4.0850	4.0852	0.8962	24.00	-0.24	0.050			
0.0956	6117.35	4.0840	4.0841	0.8978	24.00	-0.24	0.050	0.372	0.507	
0.0965	6173.57	4.0830	4.0829	0.8943	24.00	-0.24	0.050			
0.0974	6231.22	4.0820	4.0818	0.8943	24.00	-0.24	0.050			
0.0983	6288.92	4.0810	4.0808	0.8976	24.01	-0.23	0.050			
0.0992	6346.75	4.0800	4.0800	0.8993	24.01	-0.23	0.050			
0.1001	6404.77	4.0790	4.0790	0.9021	24.01	-0.23	0.050			
0.1010	6462.91	4.0780	4.0781	0.9030	24.00	-0.24	0.050			
0.1019	6520.34	4.0770	4.0769	0.9027	24.00	-0.24	0.050			
0.1028	6578.12	4.0760	4.0762	0.9009	24.00	-0.24	0.050			
0.1037	6635.93	4.0750	4.0749	0.9009	23.98	-0.26	0.050			
0.1046	6694.74	4.0740	4.0739	0.9030	23.98	-0.26	0.050			
0.1055	6752.72	4.0730	4.0728	0.9036	23.97	-0.27	0.050			
0.1064	6810.31	4.0720	4.0720	0.9023	23.98	-0.26	0.050			
0.1073	6867.79	4.0710	4.0711	0.9001	23.98	-0.26	0.050			
0.1082	6925.04	4.0700	4.0699	0.9011	23.97	-0.27	0.050			
0.1091	6981.59	4.0690	4.0692	0.9027	23.97	-0.27	0.050			
0.1100	7039.73	4.0680	4.0681	0.9028	23.96	-0.28	0.050			
0.1109	7096.92	4.0670	4.0670	0.9055	23.96	-0.28	0.050			
0.1118	7155.02	4.0660	4.0659	0.9052	23.96	-0.28	0.050			
0.1127	7213.57	4.0650	4.0647	0.9060	23.96	-0.28	0.050			
0.1136	7271.49	4.0640	4.0641	0.9062	23.96	-0.28	0.050			
0.1145	7329.55	4.0630	4.0630	0.9071	23.95	-0.29	0.050			
0.1154	7387.94	4.0620	4.0620	0.9077	23.95	-0.29	0.050			
0.1163	7445.49	4.0610	4.0610	0.9089	23.96	-0.28	0.050			
0.1172	7503.62	4.0600	4.0601	0.9096	23.96	-0.28	0.050			
0.1182	7561.97	4.0590	4.0592	0.9112	23.96	-0.28	0.050			
0.1191	7620.54	4.0580	4.0578	0.9126	23.96	-0.28	0.050			
0.1200	7678.81	4.0570	4.0571	0.9141	23.95	-0.29	0.050			
0.1209	7737.62	4.0560	4.0559	0.9168	23.96	-0.28	0.050			
0.1218	7796.26	4.0550	4.0549	0.9177	23.96	-0.28	0.050			
0.1227	7854.90	4.0540	4.0539	0.9178	23.97	-0.27	0.050			
0.1237	7914.36	4.0530	4.0529	0.9188	23.98	-0.26	0.050			
0.1246	7972.29	4.0520	4.0520	0.9198	23.98	-0.26	0.050			
0.1255	8031.48	4.0510	4.0511	0.9197	23.98	-0.26	0.050			
0.1264	8090.39	4.0500	4.0501	0.9175	23.97	-0.27	0.050			
0.1273	8148.94	4.0490	4.0491	0.9185	23.97	-0.27	0.050			
0.1282	8207.96	4.0480	4.0481	0.9216	23.97	-0.27	0.050			
0.1292	8267.25	4.0470	4.0470	0.9210	23.97	-0.27	0.050			
0.1301	8326.65	4.0460	4.0461	0.9215	23.98	-0.26	0.050			
0.1310	8385.93	4.0450	4.0449	0.9239	23.98	-0.26	0.050			
0.1320	8445.23	4.0440	4.0439	0.9227	23.98	-0.26	0.050			
0.1329	8503.75	4.0430	4.0430	0.9244	23.98	-0.26	0.050			
0.1338	8563.13	4.0420	4.0422	0.9235	23.97	-0.27	0.050			
0.1347	8621.74	4.0410	4.0409	0.9240	23.98	-0.26	0.050			
0.1356	8681.54	4.0400	4.0401	0.9241	23.99	-0.25	0.050	0.280	0.435	
0.1366	8740.67	4.0390	4.0390	0.9239	23.99	-0.25	0.050			
0.1375	8799.85	4.0380	4.0380	0.9232	24.00	-0.24	0.050			
0.1384	8858.50	4.0370	4.0369	0.9228	24.00	-0.24	0.050			
0.1393	8917.69	4.0360	4.0361	0.9238	24.00	-0.24	0.050			
0.1403	8976.50	4.0350	4.0352	0.9238	24.01	-0.23	0.050			
0.1412	9036.48	4.0340	4.0340	0.9238	24.01	-0.23	0.050			
0.1421	9094.80	4.0330	4.0333	0.9248	24.02	-0.22	0.050			
0.1430	9153.99	4.0320	4.0320	0.9247	24.02	-0.22	0.050			
0.1440	9213.07	4.0310	4.0310	0.9280	24.03	-0.21	0.050			
0.1449	9273.11	4.0300	4.0299	0.9285	24.03	-0.21	0.050			
0.1458	9331.08	4.0290	4.0289	0.9301	24.04	-0.20	0.050			
0.1467	9390.74	4.0280	4.0281	0.9306	24.04	-0.20	0.050			
0.1477	9450.62	4.0270	4.0271	0.9324	24.04	-0.20	0.050			
0.1486	9510.03	4.0260	4.0260	0.9343	24.04	-0.20	0.050			
0.1495	9569.93	4.0250	4.0250	0.9376	24.04	-0.20	0.050			
0.1505	9629.29	4.0240	4.0239	0.9398	24.05	-0.19	0.050			
0.1514	9689.98	4.0230	4.0228	0.9402	24.04	-0.20	0.050			
0.1524	9750.57	4.0220	4.0220	0.9451	24.04	-0.20	0.050			
0.1533	9811.57	4.0210	4.0210	0.9467	24.05	-0.19	0.050			
0.1542	9871.90	4.0200	4.0197	0.9485	24.04	-0.20	0.050			
0.1552	9933.39	4.0190	4.0191	0.9504	24.04	-0.20	0.050			
0.1562	9993.72	4.0180	4.0181	0.9520	24.04	-0.20	0.050			
0.1571	10055.29	4.0170	4.0172	0.9541	24.04	-0.20	0.050			
0.1581	10116.97	4.0160	4.0158	0.9543	24.04	-0.20	0.050			
0.1590	10178.57	4.0150	4.0152	0.9550	24.03	-0.21	0.050			
0.1600	10239.95	4.0140	4.0140	0.9541	24.03	-0.21	0.050			
0.1610	10301.16	4.0130	4.0126	0.9525	24.02	-0.22	0.050			
0.1619	10361.83	4.0120	4.0122	0.9521	24.01	-0.23	0.050			
0.1629	10422.59	4.0110	4.0109	0.9544	24.02	-0.22	0.050			
0.1638	10484.33	4.0100	4.0100	0.9540	24.01	-0.23	0.050			
0.1648	10545.12	4.0090	4.0091	0.9522	24.02	-0.22	0.050			
0.1657	10606.33	4.0080	4.0081	0.9546	24.01	-0.23	0.050			
0.1667	10667.26	4.0070	4.0072	0.9526	24.02	-0.22	0.050			
0.1676	10727.61	4.0060	4.0059	0.9554	24.01	-0.23	0.050			
0.1686	10787.79	4.0050	4.0050	0.9554	24.01	-0.23	0.050			
0.1695	10849.34	4.0040	4.0039	0.9564	24.00	-0.24	0.050			
0.1705	10910.32	4.0030	4.0028	0.9573	24.02	-0.22	0.050			
0.1714	10971.27	4.0020	4.0021	0.9575	24.01	-0.23	0.050			
0.1724	11032.96	4.0010	4.0012	0.9589	24.02	-0.22	0.050			
0.1733	11094.15	4.0000	3.9999	0.9593	24.02	-0.22	0.050			
0.1743	11155.11	3.9990	3.9988	0.9625	24.02	-0.22	0.050			
0.1753	11217.17	3.9980	3.9981	0.9647	24.03	-0.21	0.050			
0.1762	11279.07	3.9970	3.9970	0.9667	24.03	-0.21	0.050			
0.1772	11341.71	3.9960	3.9961	0.9697	24.03	-0.21	0.050			
0.1782	11404.21	3.9950	3.9952	0.9685	24.04	-0.20	0.050			
0.1792	11466.18	3.9940	3.9939	0.9684	24.04	-0.20	0.050			
0.1801	11527.66	3.9930	3.9931	0.9719	24.06	-0.18	0.050			
0.1811	11589.74	3.9920	3.9920	0.9721	24.06	-0.18	0.050			
0.1821	11652.25	3.9910	3.9909	0.9718	24.07	-0.17	0.050			
0.1831	11715.33	3.9900	3.9899	0.9737	24.07	-0.17	0.050			
0.1840	11778.00	3.9890	3.9891	0.9726	24.08	-0.16	0.050			
0.1850	11839.78	3.9880	3.9881	0.9720	24.08	-0.16	0.050			
0.1860	11902.13	3.9870	3.9870	0.9745	24.08	-0.16	0.050			
0.1869	11963.53	3.9860	3.9860	0.9746	24.08	-0.16	0.050			
0.1879	12025.77	3.9850	3.9848	0.9763	24.08	-0.16	0.050			
0.1889	12089.73	3.9840	3.9839	0.9772	24.08	-0.16	0.050			
0.1899	12152.15	3.9830	3.9830	0.9771	24.08	-0.16	0.050			
0.1909	12214.58	3.9820	3.9821	0.9779	24.08	-0.16	0.050			
0.1918	12276.74	3.9810	3.9810	0.9800	24.07	-0.17	0.050			
0.1928	12338.95	3.9800	3.9799	0.9814	24.07	-0.17	0.050			
0.1938	12401.24	3.9790	3.9790	0.9825	24.06	-0.18	0.050			
0.1948	12464.92	3.9780	3.9780	0.9831	24.07	-0.17	0.050			
0.1958	12528.50	3.9770	3.9768	0.9843	24.06	-0.18	0.050	0.316	0.544	
0.1967	12591.14	3.9760	3.9758	0.9865	24.06	-0.18	0.050			
0.1977	12654.28	3.9750	3.9751	0.9896	24.06	-0.18	0.050			
0.1987	12717.49	3.9740	3.9739	0.9892	24.06	-0.18	0.050			
0.1997	12780.48	3.9730	3.9732	0.9900	24.05	-0.19	0.050			
0.2007	12843.95	3.9720	3.9720	0.9941	24.04	-0.20	0.050			
0.2017	12908.35	3.9710	3.9712	0.9969	24.03	-0.21	0.050			
0.2027	12972.22	3.9700	3.9701	0.9976	24.02	-0.22	0.050			
0.2037	13036.46	3.9690	3.9689	0.9982	24.02	-0.22	0.050			
0.2047	13100.03	3.9680	3.9676	0.9971	24.01	-0.23	0.050			
0.2057	13164.21	3.9670	3.9669	0.9957	24.00	-0.24	0.050			
0.2067	13228.85	3.9660	3.9662	0.9998	24.00	-0.24	0.050			
0.2077	13292.08	3.9650	3.9651	1.0002	23.99	-0.25	0.050			
0.2087	13357.49	3.9640	3.9638	1.0013	23.97	-0.27	0.050			
0.2097	13420.61	3.9630	3.9631	1.0007	23.97	-0.27	0.050			
0.2107	13484.84	3.9620	3.9622	1.0015	23.97	-0.27	0.050			
0.2117	13548.01	3.9610	3.9612	1.0018	23.95	-0.29	0.050			
0.2127	13612.14	3.9600	3.9600	1.0036	23.94	-0.30	0.050			
0.2137	13676.57	3.9590	3.9589	1.0068	23.94	-0.30	0.050			
0.2147	13741.41	3.9580	3.9579	1.0060	23.94	-0.30	0.050			
0.2157	13805.49	3.9570	3.9573	1.0061	23.94	-0.30	0.050	0.049	0.184	
0.2167	13869.56	3.9560	3.9561	1.0055	23.93	-0.31	0.050			
0.2177	13934.27	3.9550	3.9550	1.0062	23.94	-0.30	0.050			
0.2187	13999.21	3.9540	3.9540	1.0082	23.94	-0.30	0.050			
0.2198	14064.04	3.9530	3.9529	1.0059	23.94	-0.30	0.050			
0.2208	14129.55	3.9520	3.9519	1.0036	23.95	-0.29	0.050			
0.2218	14193.93	3.9510	3.9509	1.0044	23.96	-0.28	0.050			
0.2228	14258.31	3.9500	3.9501	1.0046	23.96	-0.28	0.050			
0.2238	14322.79	3.9490	3.9490	1.0040	23.98	-0.26	0.050			
0.2248	14386.54	3.9480	3.9481	1.0041	23.98	-0.26	0.050			
0.2258	14449.69	3.9470	3.9472	1.0068	23.98	-0.26	0.050			
0.2268	14513.15	3.9460	3.9462	1.0062	23.99	-0.25	0.050			
0.2278	14577.80	3.9450	3.9450	1.0054	23.98	-0.26	0.050			
0.2288	14642.07	3.9440	3.9441	1.0078	24.00	-0.24	0.050			
0.2298	14704.48	3.9430	3.9429	1.0123	24.00	-0.24	0.050			
0.2308	14768.74	3.9420	3.9419	1.0170	24.02	-0.22	0.050			
0.2318	14833.66	3.9410	3.9411	1.0195	24.02	-0.22	0.050			
0.2328	14899.03	3.9400	3.9400	1.0231	24.02	-0.22	0.050			
0.2338	14965.34	3.9390	3.9391	1.0252	24.03	-0.21	0.050			
0.2349	15031.90	3.9380	3.9380	1.0294	24.02	-0.22	0.050			
0.2359	15099.27	3.9370	3.9370	1.0276	24.03	-0.21	0.050			
0.2370	15166.36	3.9360	3.9361	1.0271	24.03	-0.21	0.050			
0.2380	15232.81	3.9350	3.9347	1.0279	24.04	-0.20	0.050			
0.2391	15299.66	3.9340	3.9338	1.0281	24.04	-0.20	0.050			
0.2401	15365.79	3.9330	3.9332	1.0304	24.03	-0.21	0.050			
0.2411	15432.17	3.9320	3.9321	1.0302	24.02	-0.22	0.050			
0.2421	15497.15	3.9310	3.9310	1.0285	24.03	-0.21	0.050			
0.2432	15563.12	3.9300	3.9299	1.0269	24.03	-0.21	0.050			
0.2442	15628.57	3.9290	3.9290	1.0256	24.03	-0.21	0.050			
0.2452	15692.57	3.9280	3.9281	1.0267	24.03	-0.21	0.050			
0.2462	15757.52	3.9270	3.9269	1.0249	24.03	-0.21	0.050			
0.2472	15823.58	3.9260	3.9257	1.0222	24.03	-0.21	0.050			
0.2483	15889.57	3.9250	3.9250	1.0231	24.02	-0.22	0.050			
0.2493	15953.54	3.9240	3.9238	1.0231	24.02	-0.22	0.050			
0.2503	16018.09	3.9230	3.9232	1.0207	24.02	-0.22	0.050			
0.2513	16083.51	3.9220	3.9222	1.0259	24.02	-0.22	0.050			
0.2523	16149.73	3.9210	3.9210	1.0295	24.02	-0.22	0.050			
0.2534	16217.01	3.9200	3.9198	1.0291	24.02	-0.22	0.050			
0.2544	16283.88	3.9190	3.9188	1.0301	24.02	-0.22	0.050			
0.2555	16350.01	3.9180	3.9181	1.0300	24.03	-0.21	0.050	0.121	0.551	
0.2565	16417.00	3.9170	3.9171	1.0312	24.03	-0.21	0.050			
0.2576	16483.43	3.9160	3.9158	1.0300	24.04	-0.20	0.050			
0.2586	16547.30	3.9150	3.9148	1.0298	24.04	-0.20	0.050			
0.2596	16612.61	3.9140	3.9142	1.0311	24.04	-0.20	0.050			
0.2606	16677.08	3.9130	3.9131	1.0322	24.05	-0.19	0.050			
0.2616	16742.71	3.9120	3.9121	1.0365	24.05	-0.19	0.050			
0.2626	16809.45	3.9110	3.9111	1.0379	24.06	-0.18	0.050			
0.2637	16876.45	3.9100	3.9098	1.0385	24.06	-0.18	0.050			
0.2647	16943.18	3.9090	3.9089	1.0382	24.06	-0.18	0.050			
0.2658	17009.15	3.9080	3.9080	1.0401	24.07	-0.17	0.050			
0.2668	17076.51	3.9070	3.9068	1.0412	24.07	-0.17	0.050			
0.2679	17143.90	3.9060	3.9058	1.0467	24.07	-0.17	0.050			
0.2689	17210.34	3.9050	3.9051	1.0462	24.08	-0.16	0.050			
0.2700	17277.01	3.9040	3.9040	1.0467	24.08	-0.16	0.050			
0.2710	17344.13	3.9030	3.9030	1.0524	24.09	-0.15	0.050			
0.2721	17411.70	3.9020	3.9022	1.0538	24.10	-0.14	0.050			
0.2731	17479.14	3.9010	3.9011	1.0574	24.08	-0.16	0.050			
0.2742	17549.03	3.9000	3.8998	1.0597	24.08	-0.16	0.050			
0.2753	17616.40	3.8990	3.8989	1.0615	24.08	-0.16	0.050	0.053	0.606	
0.2763	17684.33	3.8980	3.8979	1.0623	24.08	-0.16	0.050			
0.2774	17752.19	3.8970	3.8968	1.0627	24.07	-0.17	0.050			
0.2784	17819.99	3.8960	3.8960	1.0638	24.07	-0.17	0.050			
0.2795	17886.90	3.8950	3.8948	1.0614	24.07	-0.17	0.050			
0.2806	17955.70	3.8940	3.8940	1.0617	24.06	-0.18	0.050			
0.2816	18023.70	3.8930	3.8931	1.0644	24.06	-0.18	0.050			
0.2827	18092.57	3.8920	3.8919	1.0665	24.06	-0.18	0.050			
0.2838	18162.01	3.8910	3.8910	1.0679	24.05	-0.19	0.050			
0.2849	18230.59	3.8900	3.8897	1.0697	24.04	-0.20	0.050			
0.2859	18298.36	3.8890	3.8892	1.0694	24.03	-0.21	0.050			
0.2870	18366.76	3.8880	3.8880	1.0676	24.03	-0.21	0.050			
0.2881	18435.23	3.8870	3.8870	1.0697	24.02	-0.22	0.050			
0.2891	18502.74	3.8860	3.8861	1.0705	24.02	-0.22	0.050			
0.2902	18571.79	3.8850	3.8850	1.0704	24.00	-0.24	0.050			
0.2913	18640.74	3.8840	3.8838	1.0694	24.00	-0.24	0.050			
0.2923	18708.18	3.8830	3.8832	1.0712	24.00	-0.24	0.050			
0.2934	18776.93	3.8820	3.8820	1.0737	24.00	-0.24	0.050			
0.2945	18845.80	3.8810	3.8808	1.0748	24.00	-0.24	0.050			
0.2955	18914.72	3.8800	3.8802	1.0787	24.01	-0.23	0.050			
0.2966	18982.78	3.8790	3.8791	1.0785	24.00	-0.24	0.050			
0.2977	19052.62	3.8780	3.8778	1.0811	24.00	-0.24	0.050			
0.2988	19122.21	3.8770	3.8771	1.0821	24.00	-0.24	0.050			
0.2999	19192.36	3.8760	3.8762	1.0817	23.99	-0.25	0.050			
0.3010	19261.59	3.8750	3.8750	1.0837	23.99	-0.25	0.050			
0.3020	19330.92	3.8740	3.8737	1.0862	24.00	-0.24	0.050			
0.3031	19399.14	3.8730	3.8731	1.0888	23.99	-0.25	0.050			
0.3042	19469.32	3.8720	3.8720	1.0920	23.99	-0.25	0.050			
0.3053	19539.85	3.8710	3.8709	1.0919	24.00	-0.24	0.050			
0.3064	19608.95	3.8700	3.8700	1.0927	24.00	-0.24	0.050			
0.3075	19679.50	3.8690	3.8688	1.0934	24.00	-0.24	0.050			
0.3086	19749.88	3.8680	3.8680	1.0955	24.00	-0.24	0.050			
0.3097	19819.66	3.8670	3.8667	1.0953	24.00	-0.24	0.050			
0.3108	19889.58	3.8660	3.8659	1.0973	24.02	-0.22	0.050			
0.3119	19960.65	3.8650	3.8652	1.1007	24.01	-0.23	0.050			
0.3130	20030.21	3.8640	3.8640	1.1056	24.03	-0.21	0.050			
0.3141	20100.18	3.8630	3.8632	1.1041	24.04	-0.20	0.050			
0.3152	20172.02	3.8620	3.8621	1.1040	24.04	-0.20	0.050			
0.3163	20242.53	3.8610	3.8611	1.1070	24.05	-0.19	0.050	0.427	0.280	
0.3174	20312.46	3.8600	3.8600	1.1107	24.06	-0.18	0.050			
0.3185	20384.53	3.8590	3.8590	1.1130	24.06	-0.18	0.050			
0.3196	20456.64	3.8580	3.8579	1.1156	24.05	-0.19	0.050			
