Ah_balance (normalized)	Ah_balance (mAh)	Voltage - fit (V)	Voltage -  interpolate (V)	dQ/dV (1/V)	Temperature (°C)	Temperature - diff (°C)	Current (C)	R_DC 0ms (mOhm)	R_DC 50ms (mOhm)	R_DC 50 ms PEC (mOhm)
-0.0075	-478.74	4.2000	4.1965	0.8201	25.06	-0.30	0.050	0.293	0.531	
-0.0067	-426.14	4.1990	4.1989	0.8238	25.07	-0.29	0.050			
-0.0058	-373.21	4.1980	4.1980	0.8308	25.08	-0.28	0.050	0.393	0.475	
-0.0050	-319.98	4.1970	4.1972	0.8330	25.07	-0.29	0.050			
-0.0042	-266.26	4.1960	4.1960	0.8367	25.10	-0.26	0.050			
-0.0033	-212.36	4.1950	4.1949	0.8385	25.09	-0.27	0.050			
-0.0025	-158.50	4.1940	4.1940	0.8392	25.09	-0.27	0.050			
-0.0016	-104.70	4.1930	4.1930	0.8395	25.09	-0.27	0.050			
-0.0008	-50.94	4.1920	4.1919	0.8396	25.10	-0.26	0.050			
0.0000	2.71	4.1910	4.1910	0.8399	25.10	-0.26	0.050			
0.0009	56.62	4.1900	4.1901	0.8397	25.09	-0.27	0.050			
0.0017	111.10	4.1890	4.1889	0.8404	25.09	-0.27	0.050			
0.0026	164.71	4.1880	4.1880	0.8396	25.09	-0.27	0.050			
0.0034	218.09	4.1870	4.1871	0.8380	25.10	-0.26	0.050			
0.0042	271.87	4.1860	4.1860	0.8391	25.10	-0.26	0.050			
0.0051	325.58	4.1850	4.1849	0.8387	25.09	-0.27	0.050			
0.0059	379.19	4.1840	4.1839	0.8383	25.09	-0.27	0.050			
0.0068	432.59	4.1830	4.1830	0.8380	25.10	-0.26	0.050			
0.0076	486.19	4.1820	4.1820	0.8382	25.10	-0.26	0.050			
0.0084	539.59	4.1810	4.1811	0.8377	25.09	-0.27	0.050			
0.0093	592.97	4.1800	4.1800	0.8381	25.10	-0.26	0.050			
0.0101	646.43	4.1790	4.1790	0.8383	25.10	-0.26	0.050			
0.0109	700.00	4.1780	4.1779	0.8393	25.10	-0.26	0.050			
0.0118	753.90	4.1770	4.1769	0.8400	25.10	-0.26	0.050			
0.0126	807.62	4.1760	4.1759	0.8405	25.10	-0.26	0.050			
0.0135	861.57	4.1750	4.1750	0.8412	25.10	-0.26	0.050			
0.0143	915.41	4.1740	4.1740	0.8409	25.10	-0.26	0.050	0.375	0.373	
0.0151	969.26	4.1730	4.1730	0.8415	25.10	-0.26	0.050			
0.0160	1023.26	4.1720	4.1719	0.8425	25.10	-0.26	0.050			
0.0168	1077.18	4.1710	4.1710	0.8429	25.11	-0.25	0.050			
0.0177	1131.34	4.1700	4.1700	0.8429	25.11	-0.25	0.050			
0.0185	1185.38	4.1690	4.1691	0.8439	25.10	-0.26	0.050			
0.0194	1239.60	4.1680	4.1681	0.8439	25.10	-0.26	0.050			
0.0202	1293.54	4.1670	4.1670	0.8435	25.10	-0.26	0.050			
0.0211	1347.35	4.1660	4.1660	0.8442	25.10	-0.26	0.050			
0.0219	1401.46	4.1650	4.1650	0.8445	25.10	-0.26	0.050			
0.0227	1455.21	4.1640	4.1639	0.8459	25.10	-0.26	0.050			
0.0236	1509.04	4.1630	4.1631	0.8458	25.10	-0.26	0.050			
0.0244	1563.39	4.1620	4.1621	0.8461	25.09	-0.27	0.050			
0.0253	1617.62	4.1610	4.1610	0.8464	25.08	-0.28	0.050			
0.0261	1671.99	4.1600	4.1600	0.8459	25.10	-0.26	0.050			
0.0270	1726.12	4.1590	4.1590	0.8458	25.10	-0.26	0.050			
0.0278	1780.50	4.1580	4.1579	0.8458	25.10	-0.26	0.050			
0.0287	1834.67	4.1570	4.1570	0.8458	25.10	-0.26	0.050			
0.0295	1889.01	4.1560	4.1560	0.8460	25.10	-0.26	0.050			
0.0304	1943.09	4.1550	4.1550	0.8462	25.10	-0.26	0.050			
0.0312	1997.31	4.1540	4.1540	0.8466	25.10	-0.26	0.050			
0.0321	2051.55	4.1530	4.1532	0.8462	25.10	-0.26	0.050			
0.0329	2105.60	4.1520	4.1520	0.8458	25.10	-0.26	0.050			
0.0337	2159.81	4.1510	4.1510	0.8459	25.10	-0.26	0.050	0.250	0.401	
0.0346	2214.03	4.1500	4.1499	0.8452	25.10	-0.26	0.050			
0.0354	2268.00	4.1490	4.1490	0.8446	25.10	-0.26	0.050			
0.0363	2321.72	4.1480	4.1480	0.8444	25.10	-0.26	0.050			
0.0371	2375.54	4.1470	4.1470	0.8451	25.10	-0.26	0.050			
0.0380	2429.46	4.1460	4.1460	0.8454	25.10	-0.26	0.050			
0.0388	2483.18	4.1450	4.1450	0.8458	25.10	-0.26	0.050			
0.0396	2537.13	4.1440	4.1441	0.8466	25.10	-0.26	0.050			
0.0405	2591.18	4.1430	4.1430	0.8472	25.10	-0.26	0.050			
0.0413	2645.92	4.1420	4.1419	0.8490	25.09	-0.27	0.050			
0.0422	2700.37	4.1410	4.1410	0.8499	25.09	-0.27	0.050			
0.0430	2754.61	4.1400	4.1400	0.8511	25.09	-0.27	0.050			
0.0439	2809.60	4.1390	4.1390	0.8516	25.10	-0.26	0.050			
0.0448	2864.05	4.1380	4.1380	0.8517	25.09	-0.27	0.050			
0.0456	2918.61	4.1370	4.1370	0.8525	25.10	-0.26	0.050			
0.0465	2973.27	4.1360	4.1360	0.8526	25.10	-0.26	0.050			
0.0473	3028.05	4.1350	4.1350	0.8528	25.10	-0.26	0.050			
0.0482	3082.82	4.1340	4.1340	0.8523	25.09	-0.27	0.050			
0.0490	3137.67	4.1330	4.1330	0.8524	25.10	-0.26	0.050			
0.0499	3192.36	4.1320	4.1320	0.8532	25.09	-0.27	0.050			
0.0507	3247.01	4.1310	4.1311	0.8521	25.10	-0.26	0.050			
0.0516	3301.66	4.1300	4.1300	0.8521	25.10	-0.26	0.050			
0.0524	3355.97	4.1290	4.1290	0.8522	25.10	-0.26	0.050			
0.0533	3410.25	4.1280	4.1280	0.8518	25.10	-0.26	0.050			
0.0541	3464.59	4.1270	4.1269	0.8514	25.11	-0.25	0.050	0.395	0.461	
0.0550	3518.92	4.1260	4.1260	0.8511	25.12	-0.24	0.050			
0.0558	3573.32	4.1250	4.1251	0.8516	25.11	-0.25	0.050			
0.0567	3627.70	4.1240	4.1239	0.8520	25.11	-0.25	0.050			
0.0575	3682.22	4.1230	4.1230	0.8522	25.12	-0.24	0.050			
0.0584	3736.98	4.1220	4.1220	0.8520	25.12	-0.24	0.050			
0.0592	3791.30	4.1210	4.1210	0.8522	25.11	-0.25	0.050			
0.0601	3845.89	4.1200	4.1200	0.8524	25.11	-0.25	0.050			
0.0609	3900.63	4.1190	4.1191	0.8535	25.12	-0.24	0.050			
0.0618	3955.16	4.1180	4.1180	0.8535	25.11	-0.25	0.050			
0.0627	4009.65	4.1170	4.1170	0.8543	25.10	-0.26	0.050			
0.0635	4064.43	4.1160	4.1160	0.8551	25.10	-0.26	0.050			
0.0644	4119.26	4.1150	4.1150	0.8558	25.10	-0.26	0.050			
0.0652	4173.97	4.1140	4.1140	0.8570	25.11	-0.25	0.050			
0.0661	4228.53	4.1130	4.1130	0.8576	25.10	-0.26	0.050			
0.0669	4283.55	4.1120	4.1120	0.8580	25.10	-0.26	0.050			
0.0678	4338.51	4.1110	4.1109	0.8580	25.10	-0.26	0.050			
0.0687	4393.67	4.1100	4.1099	0.8579	25.11	-0.25	0.050			
0.0695	4448.67	4.1090	4.1090	0.8574	25.10	-0.26	0.050			
0.0704	4503.81	4.1080	4.1080	0.8578	25.10	-0.26	0.050			
0.0712	4558.79	4.1070	4.1070	0.8581	25.10	-0.26	0.050			
0.0721	4613.59	4.1060	4.1060	0.8587	25.10	-0.26	0.050			
0.0729	4668.47	4.1050	4.1050	0.8593	25.10	-0.26	0.050			
0.0738	4723.56	4.1040	4.1040	0.8592	25.10	-0.26	0.050			
0.0747	4778.58	4.1030	4.1030	0.8598	25.10	-0.26	0.050			
0.0755	4833.75	4.1020	4.1020	0.8602	25.10	-0.26	0.050			
0.0764	4888.88	4.1010	4.1010	0.8601	25.10	-0.26	0.050			
0.0772	4943.79	4.1000	4.1000	0.8594	25.10	-0.26	0.050			
0.0781	4998.72	4.0990	4.0989	0.8596	25.10	-0.26	0.050			
0.0790	5053.79	4.0980	4.0979	0.8586	25.11	-0.25	0.050			
0.0798	5108.62	4.0970	4.0970	0.8583	25.10	-0.26	0.050			
0.0807	5163.62	4.0960	4.0961	0.8581	25.10	-0.26	0.050			
0.0815	5218.48	4.0950	4.0951	0.8583	25.10	-0.26	0.050			
0.0824	5273.42	4.0940	4.0940	0.8575	25.10	-0.26	0.050			
0.0833	5328.31	4.0930	4.0931	0.8579	25.10	-0.26	0.050			
0.0841	5383.46	4.0920	4.0921	0.8588	25.10	-0.26	0.050			
0.0850	5438.52	4.0910	4.0910	0.8593	25.10	-0.26	0.050			
0.0858	5493.31	4.0900	4.0900	0.8599	25.10	-0.26	0.050			
0.0867	5548.23	4.0890	4.0891	0.8595	25.10	-0.26	0.050			
0.0875	5602.77	4.0880	4.0879	0.8604	25.10	-0.26	0.050			
0.0884	5657.68	4.0870	4.0870	0.8610	25.10	-0.26	0.050			
0.0893	5712.46	4.0860	4.0860	0.8609	25.10	-0.26	0.050			
0.0901	5767.73	4.0850	4.0851	0.8622	25.11	-0.25	0.050			
0.0910	5822.94	4.0840	4.0839	0.8625	25.10	-0.26	0.050			
0.0918	5877.91	4.0830	4.0830	0.8645	25.10	-0.26	0.050			
0.0927	5933.42	4.0820	4.0819	0.8656	25.10	-0.26	0.050			
0.0936	5989.07	4.0810	4.0810	0.8666	25.10	-0.26	0.050			
0.0945	6044.80	4.0800	4.0799	0.8673	25.10	-0.26	0.050	0.322	0.444	
0.0953	6100.44	4.0790	4.0790	0.8678	25.11	-0.25	0.050			
0.0962	6156.24	4.0780	4.0780	0.8691	25.12	-0.24	0.050			
0.0971	6211.68	4.0770	4.0771	0.8693	25.11	-0.25	0.050			
0.0979	6267.68	4.0760	4.0760	0.8691	25.11	-0.25	0.050			
0.0988	6323.62	4.0750	4.0750	0.8691	25.11	-0.25	0.050			
0.0997	6379.30	4.0740	4.0740	0.8696	25.11	-0.25	0.050			
0.1005	6434.95	4.0730	4.0731	0.8691	25.11	-0.25	0.050			
0.1014	6490.64	4.0720	4.0721	0.8695	25.10	-0.26	0.050			
0.1023	6545.99	4.0710	4.0710	0.8697	25.12	-0.24	0.050			
0.1031	6601.57	4.0700	4.0700	0.8697	25.10	-0.26	0.050			
0.1040	6657.36	4.0690	4.0690	0.8697	25.12	-0.24	0.050			
0.1049	6712.84	4.0680	4.0680	0.8691	25.12	-0.24	0.050			
0.1058	6768.51	4.0670	4.0670	0.8690	25.11	-0.25	0.050			
0.1066	6824.31	4.0660	4.0659	0.8693	25.11	-0.25	0.050			
0.1075	6879.41	4.0650	4.0650	0.8707	25.11	-0.25	0.050			
0.1084	6935.08	4.0640	4.0640	0.8717	25.11	-0.25	0.050			
0.1092	6990.33	4.0630	4.0629	0.8719	25.10	-0.26	0.050			
0.1101	7046.73	4.0620	4.0619	0.8732	25.10	-0.26	0.050			
0.1110	7102.53	4.0610	4.0611	0.8747	25.10	-0.26	0.050			
0.1119	7158.63	4.0600	4.0601	0.8746	25.10	-0.26	0.050			
0.1127	7214.76	4.0590	4.0590	0.8749	25.11	-0.25	0.050			
0.1136	7270.78	4.0580	4.0579	0.8754	25.12	-0.24	0.050			
0.1145	7326.96	4.0570	4.0570	0.8758	25.12	-0.24	0.050	0.118	0.446	
0.1154	7383.11	4.0560	4.0559	0.8767	25.12	-0.24	0.050			
0.1162	7439.19	4.0550	4.0551	0.8776	25.12	-0.24	0.050			
0.1171	7495.33	4.0540	4.0541	0.8785	25.11	-0.25	0.050			
0.1180	7551.40	4.0530	4.0530	0.8786	25.12	-0.24	0.050			
0.1189	7607.58	4.0520	4.0521	0.8795	25.12	-0.24	0.050			
0.1198	7664.14	4.0510	4.0511	0.8803	25.12	-0.24	0.050			
0.1206	7720.57	4.0500	4.0499	0.8809	25.12	-0.24	0.050			
0.1215	7777.23	4.0490	4.0490	0.8819	25.12	-0.24	0.050			
0.1224	7833.55	4.0480	4.0480	0.8821	25.12	-0.24	0.050			
0.1233	7889.78	4.0470	4.0470	0.8823	25.12	-0.24	0.050			
0.1242	7946.42	4.0460	4.0460	0.8826	25.12	-0.24	0.050			
0.1250	8002.67	4.0450	4.0451	0.8808	25.12	-0.24	0.050			
0.1259	8059.05	4.0440	4.0440	0.8815	25.12	-0.24	0.050			
0.1268	8115.73	4.0430	4.0429	0.8828	25.12	-0.24	0.050			
0.1277	8172.48	4.0420	4.0420	0.8831	25.12	-0.24	0.050			
0.1286	8229.06	4.0410	4.0410	0.8841	25.12	-0.24	0.050			
0.1295	8285.71	4.0400	4.0400	0.8848	25.13	-0.23	0.050			
0.1303	8341.78	4.0390	4.0390	0.8858	25.13	-0.23	0.050			
0.1312	8398.47	4.0380	4.0380	0.8860	25.13	-0.23	0.050			
0.1321	8455.24	4.0370	4.0371	0.8865	25.13	-0.23	0.050			
0.1330	8511.91	4.0360	4.0360	0.8869	25.14	-0.22	0.050			
0.1339	8568.36	4.0350	4.0350	0.8875	25.14	-0.22	0.050	0.379	0.477	
0.1348	8625.13	4.0340	4.0340	0.8881	25.14	-0.22	0.050			
0.1357	8682.00	4.0330	4.0330	0.8896	25.14	-0.22	0.050			
0.1365	8738.91	4.0320	4.0319	0.8900	25.14	-0.22	0.050			
0.1374	8796.07	4.0310	4.0310	0.8908	25.13	-0.23	0.050			
0.1383	8853.20	4.0300	4.0300	0.8918	25.13	-0.23	0.050			
0.1392	8910.35	4.0290	4.0290	0.8930	25.14	-0.22	0.050			
0.1401	8967.61	4.0280	4.0280	0.8936	25.14	-0.22	0.050			
0.1410	9024.64	4.0270	4.0270	0.8958	25.13	-0.23	0.050			
0.1419	9082.04	4.0260	4.0259	0.8970	25.14	-0.22	0.050			
0.1428	9139.87	4.0250	4.0250	0.8975	25.13	-0.23	0.050			
0.1437	9197.47	4.0240	4.0240	0.8976	25.13	-0.23	0.050			
0.1446	9254.79	4.0230	4.0231	0.8980	25.13	-0.23	0.050			
0.1455	9312.40	4.0220	4.0220	0.8989	25.14	-0.22	0.050			
0.1464	9369.78	4.0210	4.0210	0.8988	25.14	-0.22	0.050			
0.1473	9427.03	4.0200	4.0200	0.9000	25.14	-0.22	0.050			
0.1482	9484.74	4.0190	4.0190	0.9001	25.14	-0.22	0.050			
0.1491	9542.52	4.0180	4.0180	0.9010	25.14	-0.22	0.050			
0.1500	9600.51	4.0170	4.0171	0.9020	25.14	-0.22	0.050			
0.1509	9658.04	4.0160	4.0160	0.9028	25.14	-0.22	0.050			
0.1518	9715.85	4.0150	4.0149	0.9023	25.14	-0.22	0.050			
0.1527	9773.91	4.0140	4.0139	0.9029	25.14	-0.22	0.050			
0.1536	9831.62	4.0130	4.0130	0.9033	25.15	-0.21	0.050			
0.1545	9889.41	4.0120	4.0120	0.9040	25.15	-0.21	0.050	0.370	0.476	
0.1554	9947.24	4.0110	4.0109	0.9047	25.15	-0.21	0.050			
0.1563	10005.09	4.0100	4.0100	0.9045	25.15	-0.21	0.050			
0.1572	10062.64	4.0090	4.0090	0.9056	25.15	-0.21	0.050			
0.1581	10120.69	4.0080	4.0080	0.9068	25.15	-0.21	0.050			
0.1590	10178.28	4.0070	4.0070	0.9074	25.15	-0.21	0.050			
0.1599	10236.54	4.0060	4.0060	0.9095	25.15	-0.21	0.050			
0.1609	10294.79	4.0050	4.0050	0.9118	25.15	-0.21	0.050			
0.1618	10352.90	4.0040	4.0040	0.9131	25.15	-0.21	0.050			
0.1627	10411.44	4.0030	4.0030	0.9133	25.15	-0.21	0.050			
0.1636	10470.01	4.0020	4.0020	0.9149	25.15	-0.21	0.050			
0.1645	10528.59	4.0010	4.0010	0.9162	25.16	-0.20	0.050			
0.1654	10587.25	4.0000	4.0000	0.9173	25.16	-0.20	0.050			
0.1663	10646.01	3.9990	3.9990	0.9190	25.17	-0.19	0.050			
0.1673	10705.12	3.9980	3.9980	0.9207	25.17	-0.19	0.050			
0.1682	10764.24	3.9970	3.9970	0.9215	25.18	-0.18	0.050			
0.1691	10823.47	3.9960	3.9960	0.9226	25.18	-0.18	0.050			
0.1700	10882.65	3.9950	3.9951	0.9239	25.20	-0.16	0.050			
0.1710	10941.98	3.9940	3.9940	0.9249	25.20	-0.16	0.050			
0.1719	11001.37	3.9930	3.9930	0.9257	25.19	-0.17	0.050			
0.1728	11060.49	3.9920	3.9919	0.9258	25.19	-0.17	0.050			
0.1737	11119.84	3.9910	3.9910	0.9269	25.18	-0.18	0.050			
0.1747	11179.14	3.9900	3.9900	0.9275	25.20	-0.16	0.050	0.342	0.460	
0.1756	11238.55	3.9890	3.9890	0.9270	25.18	-0.18	0.050			
0.1765	11297.83	3.9880	3.9880	0.9273	25.18	-0.18	0.050			
0.1775	11357.03	3.9870	3.9870	0.9286	25.18	-0.18	0.050			
0.1784	11416.53	3.9860	3.9860	0.9291	25.17	-0.19	0.050			
0.1793	11476.06	3.9850	3.9850	0.9293	25.15	-0.21	0.050			
0.1802	11535.59	3.9840	3.9840	0.9300	25.15	-0.21	0.050			
0.1812	11595.35	3.9830	3.9830	0.9314	25.15	-0.21	0.050			
0.1821	11654.80	3.9820	3.9819	0.9318	25.15	-0.21	0.050			
0.1830	11714.41	3.9810	3.9811	0.9317	25.15	-0.21	0.050			
0.1840	11774.12	3.9800	3.9800	0.9324	25.14	-0.22	0.050			
0.1849	11833.47	3.9790	3.9790	0.9335	25.14	-0.22	0.050			
0.1858	11893.26	3.9780	3.9779	0.9339	25.14	-0.22	0.050			
0.1868	11953.23	3.9770	3.9771	0.9350	25.13	-0.23	0.050			
0.1877	12013.13	3.9760	3.9760	0.9355	25.13	-0.23	0.050			
0.1886	12072.77	3.9750	3.9750	0.9361	25.12	-0.24	0.050			
0.1896	12132.56	3.9740	3.9740	0.9376	25.13	-0.23	0.050			
0.1905	12192.66	3.9730	3.9730	0.9386	25.11	-0.25	0.050			
0.1914	12252.75	3.9720	3.9721	0.9398	25.12	-0.24	0.050			
0.1924	12312.78	3.9710	3.9709	0.9408	25.11	-0.25	0.050			
0.1933	12373.04	3.9700	3.9699	0.9429	25.10	-0.26	0.050			
0.1943	12433.25	3.9690	3.9689	0.9447	25.10	-0.26	0.050	0.336	0.514	
0.1952	12493.71	3.9680	3.9680	0.9463	25.10	-0.26	0.050			
0.1962	12554.11	3.9670	3.9669	0.9469	25.10	-0.26	0.050			
0.1971	12615.02	3.9660	3.9660	0.9492	25.10	-0.26	0.050			
0.1981	12675.91	3.9650	3.9650	0.9507	25.10	-0.26	0.050			
0.1990	12736.82	3.9640	3.9641	0.9519	25.12	-0.24	0.050			
0.2000	12798.03	3.9630	3.9630	0.9525	25.11	-0.25	0.050			
0.2009	12859.12	3.9620	3.9620	0.9533	25.12	-0.24	0.050			
0.2019	12920.07	3.9610	3.9610	0.9554	25.12	-0.24	0.050			
0.2028	12981.36	3.9600	3.9601	0.9565	25.12	-0.24	0.050			
0.2038	13042.50	3.9590	3.9591	0.9575	25.13	-0.23	0.050			
0.2047	13103.80	3.9580	3.9580	0.9602	25.14	-0.22	0.050			
0.2057	13165.39	3.9570	3.9570	0.9613	25.14	-0.22	0.050			
0.2067	13227.03	3.9560	3.9560	0.9617	25.13	-0.23	0.050			
0.2076	13288.78	3.9550	3.9550	0.9618	25.14	-0.22	0.050			
0.2086	13350.45	3.9540	3.9540	0.9622	25.14	-0.22	0.050			
0.2096	13412.43	3.9530	3.9529	0.9624	25.13	-0.23	0.050			
0.2105	13474.14	3.9520	3.9519	0.9630	25.12	-0.24	0.050			
0.2115	13535.59	3.9510	3.9510	0.9630	25.12	-0.24	0.050			
0.2125	13597.27	3.9500	3.9500	0.9634	25.12	-0.24	0.050			
0.2134	13658.96	3.9490	3.9491	0.9635	25.12	-0.24	0.050			
0.2144	13720.56	3.9480	3.9479	0.9643	25.12	-0.24	0.050	0.395	0.552	
0.2153	13782.35	3.9470	3.9470	0.9652	25.11	-0.25	0.050			
0.2163	13844.03	3.9460	3.9460	0.9657	25.11	-0.25	0.050			
0.2173	13905.58	3.9450	3.9450	0.9672	25.10	-0.26	0.050			
0.2182	13967.29	3.9440	3.9440	0.9687	25.11	-0.25	0.050			
0.2192	14029.23	3.9430	3.9429	0.9695	25.12	-0.24	0.050			
0.2202	14091.24	3.9420	3.9420	0.9703	25.12	-0.24	0.050			
0.2211	14152.67	3.9410	3.9410	0.9712	25.12	-0.24	0.050			
0.2221	14214.86	3.9400	3.9400	0.9729	25.12	-0.24	0.050			
0.2231	14277.14	3.9390	3.9390	0.9744	25.13	-0.23	0.050			
0.2241	14339.73	3.9380	3.9380	0.9749	25.13	-0.23	0.050			
0.2250	14402.67	3.9370	3.9370	0.9761	25.14	-0.22	0.050			
0.2260	14465.61	3.9360	3.9360	0.9779	25.13	-0.23	0.050			
0.2270	14528.59	3.9350	3.9350	0.9794	25.14	-0.22	0.050			
0.2280	14591.23	3.9340	3.9340	0.9801	25.14	-0.22	0.050			
0.2290	14654.11	3.9330	3.9330	0.9807	25.14	-0.22	0.050			
0.2300	14717.01	3.9320	3.9320	0.9807	25.13	-0.23	0.050			
0.2309	14779.78	3.9310	3.9310	0.9819	25.13	-0.23	0.050			
0.2319	14842.61	3.9300	3.9301	0.9823	25.12	-0.24	0.050			
0.2329	14905.54	3.9290	3.9290	0.9828	25.12	-0.24	0.050			
0.2339	14968.49	3.9280	3.9280	0.9831	25.12	-0.24	0.050	0.322	0.444	
0.2349	15031.13	3.9270	3.9270	0.9834	25.12	-0.24	0.050			
0.2358	15093.94	3.9260	3.9260	0.9838	25.11	-0.25	0.050			
0.2368	15156.80	3.9250	3.9250	0.9836	25.12	-0.24	0.050			
0.2378	15219.68	3.9240	3.9240	0.9847	25.12	-0.24	0.050			
0.2388	15282.81	3.9230	3.9230	0.9851	25.12	-0.24	0.050			
0.2398	15345.80	3.9220	3.9220	0.9861	25.11	-0.25	0.050			
0.2408	15408.91	3.9210	3.9211	0.9868	25.12	-0.24	0.050			
0.2418	15472.11	3.9200	3.9201	0.9881	25.12	-0.24	0.050			
0.2427	15535.23	3.9190	3.9190	0.9901	25.12	-0.24	0.050			
0.2437	15598.66	3.9180	3.9181	0.9918	25.12	-0.24	0.050			
0.2447	15662.19	3.9170	3.9170	0.9929	25.12	-0.24	0.050			
0.2457	15725.90	3.9160	3.9160	0.9939	25.12	-0.24	0.050			
0.2467	15789.19	3.9150	3.9150	0.9947	25.12	-0.24	0.050			
0.2477	15852.79	3.9140	3.9140	0.9963	25.12	-0.24	0.050			
0.2487	15916.70	3.9130	3.9130	0.9977	25.12	-0.24	0.050			
0.2497	15980.64	3.9120	3.9120	0.9993	25.10	-0.26	0.050			
0.2507	16044.59	3.9110	3.9110	0.9997	25.10	-0.26	0.050			
0.2517	16108.91	3.9100	3.9099	1.0008	25.11	-0.25	0.050			
0.2527	16173.27	3.9090	3.9090	1.0019	25.12	-0.24	0.050			
0.2537	16237.43	3.9080	3.9080	1.0029	25.12	-0.24	0.050			
0.2547	16301.65	3.9070	3.9070	1.0042	25.12	-0.24	0.050	0.282	0.474	
0.2557	16366.16	3.9060	3.9060	1.0047	25.12	-0.24	0.050			
0.2567	16430.51	3.9050	3.9050	1.0054	25.12	-0.24	0.050			
0.2577	16494.76	3.9040	3.9040	1.0063	25.11	-0.25	0.050			
0.2587	16559.25	3.9030	3.9030	1.0074	25.12	-0.24	0.050			
0.2597	16623.75	3.9020	3.9020	1.0083	25.12	-0.24	0.050			
0.2608	16688.20	3.9010	3.9010	1.0082	25.12	-0.24	0.050			
0.2618	16752.84	3.9000	3.9000	1.0084	25.12	-0.24	0.050			
0.2628	16817.23	3.8990	3.8989	1.0084	25.12	-0.24	0.050			
0.2638	16881.76	3.8980	3.8982	1.0099	25.11	-0.25	0.050			
0.2648	16946.51	3.8970	3.8970	1.0109	25.11	-0.25	0.050			
0.2658	17011.05	3.8960	3.8960	1.0119	25.12	-0.24	0.050			
0.2668	17075.26	3.8950	3.8950	1.0135	25.12	-0.24	0.050			
0.2678	17140.04	3.8940	3.8940	1.0153	25.11	-0.25	0.050			
0.2688	17205.21	3.8930	3.8931	1.0169	25.12	-0.24	0.050			
0.2699	17270.51	3.8920	3.8920	1.0181	25.12	-0.24	0.050			
0.2709	17335.88	3.8910	3.8910	1.0192	25.12	-0.24	0.050			
0.2719	17401.42	3.8900	3.8900	1.0198	25.11	-0.25	0.050			
0.2729	17466.74	3.8890	3.8889	1.0204	25.12	-0.24	0.050			
0.2739	17531.93	3.8880	3.8880	1.0211	25.12	-0.24	0.050			
0.2750	17597.59	3.8870	3.8870	1.0221	25.12	-0.24	0.050			
0.2760	17663.14	3.8860	3.8860	1.0229	25.12	-0.24	0.050			
0.2770	17728.40	3.8850	3.8851	1.0237	25.12	-0.24	0.050			
0.2780	17793.82	3.8840	3.8840	1.0249	25.11	-0.25	0.050			
0.2791	17859.37	3.8830	3.8831	1.0266	25.12	-0.24	0.050			
0.2801	17925.25	3.8820	3.8821	1.0279	25.13	-0.23	0.050			
0.2811	17991.01	3.8810	3.8809	1.0289	25.13	-0.23	0.050			
0.2821	18056.55	3.8800	3.8800	1.0310	25.13	-0.23	0.050			
0.2832	18122.73	3.8790	3.8789	1.0324	25.14	-0.22	0.050			
0.2842	18188.64	3.8780	3.8779	1.0317	25.14	-0.22	0.050			
0.2852	18254.73	3.8770	3.8770	1.0328	25.14	-0.22	0.050			
0.2863	18320.75	3.8760	3.8760	1.0339	25.15	-0.21	0.050			
0.2873	18386.76	3.8750	3.8749	1.0351	25.14	-0.22	0.050			
0.2883	18453.39	3.8740	3.8740	1.0371	25.14	-0.22	0.050			
0.2894	18519.67	3.8730	3.8730	1.0393	25.14	-0.22	0.050			
0.2904	18586.60	3.8720	3.8720	1.0410	25.15	-0.21	0.050			
0.2915	18653.59	3.8710	3.8710	1.0415	25.14	-0.22	0.050			
0.2925	18720.61	3.8700	3.8702	1.0418	25.15	-0.21	0.050			
0.2936	18787.58	3.8690	3.8690	1.0416	25.15	-0.21	0.050			
0.2946	18854.20	3.8680	3.8680	1.0414	25.15	-0.21	0.050			
0.2956	18921.21	3.8670	3.8670	1.0417	25.15	-0.21	0.050			
0.2967	18987.67	3.8660	3.8660	1.0420	25.15	-0.21	0.050			
0.2977	19054.12	3.8650	3.8650	1.0419	25.15	-0.21	0.050			
0.2988	19120.77	3.8640	3.8640	1.0423	25.15	-0.21	0.050			
0.2998	19187.45	3.8630	3.8630	1.0424	25.14	-0.22	0.050			
0.3008	19253.94	3.8620	3.8620	1.0433	25.15	-0.21	0.050			
0.3019	19320.68	3.8610	3.8610	1.0435	25.14	-0.22	0.050			
0.3029	19387.42	3.8600	3.8600	1.0432	25.15	-0.21	0.050			
0.3040	19454.69	3.8590	3.8590	1.0440	25.15	-0.21	0.050			
