Ah_balance (normalized)	Ah_balance (mAh)	Voltage - fit (V)	Voltage -  interpolate (V)	dQ/dV (1/V)	Temperature (°C)	Temperature - diff (°C)	Current (C)	R_DC 0ms (mOhm)	R_DC 50ms (mOhm)	R_DC 50 ms PEC (mOhm)
0.0002	12.06	4.1830	4.1823	-0.2896	25.18	0.00	-0.050			
0.0005	31.43	4.1820	4.1814	-0.3151	25.18	0.00	-0.050			
0.0008	53.49	4.1810	4.1810	-0.3563	25.18	0.00	-0.050			
0.0012	76.65	4.1800	4.1794	-0.3754	25.18	0.00	-0.050			
0.0016	102.02	4.1790	4.1802	-0.3994	25.18	0.00	-0.050			
0.0019	124.27	4.1780	4.1776	-0.4141	25.18	0.00	-0.050			
0.0024	154.53	4.1770	4.1763	-0.4428	25.18	-0.00	-0.050			
0.0029	183.61	4.1760	4.1761	-0.4660	25.17	-0.01	-0.050			
0.0033	214.15	4.1750	4.1752	-0.4893	25.17	-0.01	-0.050			
0.0039	246.53	4.1740	4.1741	-0.5118	25.18	-0.00	-0.050			
0.0044	281.55	4.1730	4.1729	-0.5304	25.18	0.00	-0.050			
0.0050	317.32	4.1720	4.1717	-0.5470	25.18	-0.00	-0.050			
0.0056	355.42	4.1710	4.1708	-0.5637	25.17	-0.01	-0.050			
0.0061	392.83	4.1700	4.1695	-0.5763	25.17	-0.01	-0.050			
0.0068	432.07	4.1690	4.1685	-0.5870	25.17	-0.01	-0.050			
0.0074	472.81	4.1680	4.1673	-0.6014	25.17	-0.01	-0.050			
0.0080	512.39	4.1670	4.1665	-0.6061	25.17	-0.01	-0.050			
0.0087	553.61	4.1660	4.1653	-0.6159	25.17	-0.01	-0.050			
0.0093	596.75	4.1650	4.1649	-0.6140	25.16	-0.02	-0.050			
0.0100	637.19	4.1640	4.1640	-0.6160	25.15	-0.03	-0.050			
0.0106	677.26	4.1630	4.1626	-0.6096	25.14	-0.04	-0.050			
0.0112	717.75	4.1620	4.1617	-0.6084	25.14	-0.04	-0.050			
0.0118	758.14	4.1610	4.1606	-0.6056	25.13	-0.05	-0.050			
0.0124	796.23	4.1600	4.1598	-0.6084	25.12	-0.06	-0.050			
0.0130	833.09	4.1590	4.1586	-0.6051	25.13	-0.05	-0.050			
0.0136	870.51	4.1580	4.1580	-0.6027	25.12	-0.06	-0.050			
0.0142	907.82	4.1570	4.1571	-0.6062	25.12	-0.06	-0.050			
0.0147	942.46	4.1560	4.1566	-0.6215	25.12	-0.06	-0.050			
0.0153	978.28	4.1550	4.1546	-0.6243	25.11	-0.07	-0.050			
0.0159	1016.80	4.1540	4.1540	-0.6301	25.11	-0.07	-0.050			
0.0165	1056.49	4.1530	4.1531	-0.6385	25.10	-0.08	-0.050			
0.0171	1097.37	4.1520	4.1522	-0.6474	25.10	-0.08	-0.050			
0.0178	1139.74	4.1510	4.1513	-0.6530	25.10	-0.08	-0.050			
0.0185	1182.16	4.1500	4.1501	-0.6607	25.10	-0.08	-0.050			
0.0191	1225.13	4.1490	4.1491	-0.6682	25.10	-0.08	-0.050			
0.0198	1269.44	4.1480	4.1477	-0.6756	25.10	-0.08	-0.050	-0.084	0.876	
0.0205	1313.36	4.1470	4.1466	-0.6847	25.09	-0.09	-0.050			
0.0213	1361.22	4.1460	4.1463	-0.6888	25.09	-0.09	-0.050			
0.0220	1407.25	4.1450	4.1453	-0.6971	25.09	-0.09	-0.050			
0.0227	1453.66	4.1440	4.1444	-0.6902	25.09	-0.09	-0.050			
0.0235	1504.38	4.1430	4.1431	-0.6926	25.09	-0.09	-0.050			
0.0242	1548.66	4.1420	4.1420	-0.6905	25.09	-0.09	-0.050			
0.0249	1592.01	4.1410	4.1404	-0.6833	25.09	-0.09	-0.050			
0.0256	1635.47	4.1400	4.1397	-0.6795	25.09	-0.09	-0.050			
0.0262	1677.50	4.1390	4.1388	-0.6754	25.09	-0.09	-0.050			
0.0269	1719.19	4.1380	4.1377	-0.6721	25.09	-0.09	-0.050			
0.0275	1757.69	4.1370	4.1370	-0.6791	25.09	-0.09	-0.050			
0.0281	1796.19	4.1360	4.1375	-0.6733	25.09	-0.09	-0.050			
0.0287	1838.80	4.1350	4.1349	-0.6795	25.09	-0.09	-0.050			
0.0294	1882.51	4.1340	4.1335	-0.6879	25.09	-0.09	-0.050			
0.0301	1926.61	4.1330	4.1327	-0.6933	25.09	-0.09	-0.050			
0.0308	1971.10	4.1320	4.1320	-0.6977	25.10	-0.08	-0.050			
0.0315	2015.98	4.1310	4.1311	-0.7034	25.10	-0.08	-0.050			
0.0322	2062.47	4.1300	4.1301	-0.7061	25.11	-0.07	-0.050			
0.0329	2107.63	4.1290	4.1288	-0.7104	25.12	-0.06	-0.050			
0.0337	2156.05	4.1280	4.1276	-0.7121	25.12	-0.06	-0.050			
0.0344	2202.46	4.1270	4.1268	-0.7191	25.12	-0.06	-0.050			
0.0352	2249.91	4.1260	4.1263	-0.7264	25.12	-0.06	-0.050			
0.0359	2298.47	4.1250	4.1255	-0.7174	25.12	-0.06	-0.050			
0.0367	2349.82	4.1240	4.1239	-0.7229	25.12	-0.06	-0.050			
0.0375	2397.03	4.1230	4.1227	-0.7206	25.13	-0.05	-0.050			
0.0382	2442.80	4.1220	4.1217	-0.7146	25.14	-0.04	-0.050			
0.0389	2488.49	4.1210	4.1210	-0.7104	25.12	-0.06	-0.050			
0.0396	2531.86	4.1200	4.1202	-0.7086	25.13	-0.05	-0.050			
0.0402	2573.99	4.1190	4.1187	-0.7105	25.14	-0.04	-0.050	0.902	1.003	
0.0409	2617.10	4.1180	4.1185	-0.7101	25.14	-0.04	-0.050			
0.0415	2658.69	4.1170	4.1182	-0.7070	25.14	-0.04	-0.050			
0.0422	2702.56	4.1160	4.1158	-0.7124	25.14	-0.04	-0.050			
0.0429	2748.74	4.1150	4.1147	-0.7201	25.14	-0.04	-0.050			
0.0437	2794.49	4.1140	4.1136	-0.7269	25.14	-0.04	-0.050			
0.0444	2841.20	4.1130	4.1128	-0.7315	25.14	-0.04	-0.050			
0.0451	2888.31	4.1120	4.1118	-0.7376	25.14	-0.04	-0.050			
0.0459	2936.20	4.1110	4.1111	-0.7414	25.14	-0.04	-0.050			
0.0466	2983.57	4.1100	4.1101	-0.7467	25.14	-0.04	-0.050			
0.0474	3033.00	4.1090	4.1079	-0.7502	25.13	-0.05	-0.050			
0.0482	3084.99	4.1080	4.1092	-0.7503	25.14	-0.04	-0.050			
0.0490	3134.86	4.1070	4.1074	-0.7435	25.13	-0.05	-0.050			
0.0497	3183.23	4.1060	4.1063	-0.7360	25.12	-0.06	-0.050			
0.0506	3236.82	4.1050	4.1045	-0.7414	25.12	-0.06	-0.050			
0.0513	3283.13	4.1040	4.1041	-0.7383	25.12	-0.06	-0.050			
0.0520	3329.74	4.1030	4.1032	-0.7337	25.11	-0.07	-0.050			
0.0527	3372.39	4.1020	4.1023	-0.7388	25.10	-0.08	-0.050			
0.0534	3419.49	4.1010	4.1016	-0.7355	25.10	-0.08	-0.050			
0.0541	3463.02	4.1000	4.1005	-0.7329	25.10	-0.08	-0.050			
0.0548	3505.93	4.0990	4.1004	-0.7284	25.10	-0.08	-0.050			
0.0555	3554.09	4.0980	4.0969	-0.7402	25.10	-0.08	-0.050			
0.0562	3598.53	4.0970	4.0963	-0.7380	25.10	-0.08	-0.050			
0.0570	3645.35	4.0960	4.0955	-0.7427	25.09	-0.09	-0.050			
0.0577	3692.96	4.0950	4.0951	-0.7480	25.09	-0.09	-0.050			
0.0585	3741.00	4.0940	4.0943	-0.7543	25.08	-0.10	-0.050			
0.0592	3789.88	4.0930	4.0927	-0.7560	25.08	-0.10	-0.050			
0.0600	3838.44	4.0920	4.0914	-0.7647	25.07	-0.11	-0.050	0.523	0.634	
0.0608	3891.55	4.0910	4.0907	-0.7630	25.06	-0.12	-0.050			
0.0616	3943.91	4.0900	4.0906	-0.7612	25.06	-0.12	-0.050			
0.0624	3994.95	4.0890	4.0886	-0.7595	25.06	-0.12	-0.050			
0.0632	4047.35	4.0880	4.0880	-0.7608	25.06	-0.12	-0.050			
0.0640	4098.19	4.0870	4.0872	-0.7622	25.05	-0.13	-0.050			
0.0648	4146.56	4.0860	4.0860	-0.7558	25.04	-0.14	-0.050			
0.0655	4193.68	4.0850	4.0845	-0.7476	25.04	-0.14	-0.050			
0.0662	4239.47	4.0840	4.0840	-0.7402	25.05	-0.13	-0.050			
0.0669	4283.13	4.0830	4.0830	-0.7435	25.05	-0.13	-0.050			
0.0676	4327.04	4.0820	4.0825	-0.7410	25.06	-0.12	-0.050			
0.0683	4373.05	4.0810	4.0811	-0.7488	25.06	-0.12	-0.050			
0.0691	4419.67	4.0800	4.0799	-0.7553	25.06	-0.12	-0.050			
0.0698	4465.19	4.0790	4.0787	-0.7569	25.06	-0.12	-0.050			
0.0705	4512.38	4.0780	4.0774	-0.7609	25.07	-0.11	-0.050			
0.0713	4562.74	4.0770	4.0767	-0.7633	25.06	-0.12	-0.050			
0.0721	4611.23	4.0760	4.0760	-0.7715	25.08	-0.10	-0.050			
0.0729	4662.83	4.0750	4.0750	-0.7736	25.09	-0.09	-0.050			
0.0736	4712.49	4.0740	4.0732	-0.7815	25.09	-0.09	-0.050			
0.0745	4766.24	4.0730	4.0725	-0.7810	25.09	-0.09	-0.050			
0.0753	4818.51	4.0720	4.0725	-0.7801	25.09	-0.09	-0.050			
0.0761	4872.01	4.0710	4.0710	-0.7791	25.09	-0.09	-0.050			
0.0770	4927.53	4.0700	4.0700	-0.7827	25.09	-0.09	-0.050			
0.0778	4977.23	4.0690	4.0693	-0.7758	25.09	-0.09	-0.050			
0.0785	5024.75	4.0680	4.0682	-0.7716	25.10	-0.08	-0.050			
0.0793	5073.16	4.0670	4.0669	-0.7649	25.10	-0.08	-0.050			
0.0800	5117.98	4.0660	4.0661	-0.7680	25.09	-0.09	-0.050	0.753	0.859	
0.0807	5164.93	4.0650	4.0652	-0.7669	25.09	-0.09	-0.050			
0.0814	5212.01	4.0640	4.0653	-0.7668	25.09	-0.09	-0.050			
0.0821	5257.14	4.0630	4.0629	-0.7621	25.09	-0.09	-0.050			
0.0829	5306.53	4.0620	4.0617	-0.7737	25.09	-0.09	-0.050			
0.0836	5352.83	4.0610	4.0602	-0.7710	25.08	-0.10	-0.050			
0.0844	5401.86	4.0600	4.0595	-0.7782	25.07	-0.11	-0.050			
0.0852	5451.94	4.0590	4.0591	-0.7834	25.06	-0.12	-0.050			
0.0860	5502.54	4.0580	4.0583	-0.7913	25.05	-0.13	-0.050			
0.0869	5558.53	4.0570	4.0567	-0.7879	25.04	-0.14	-0.050			
0.0876	5609.09	4.0560	4.0556	-0.7922	25.04	-0.14	-0.050			
0.0885	5663.60	4.0550	4.0549	-0.7926	25.03	-0.15	-0.050			
0.0893	5715.24	4.0540	4.0539	-0.7850	25.02	-0.16	-0.050			
0.0902	5770.81	4.0530	4.0531	-0.7894	25.01	-0.17	-0.050			
0.0910	5823.52	4.0520	4.0521	-0.7859	25.01	-0.17	-0.050			
0.0918	5872.67	4.0510	4.0508	-0.7829	25.01	-0.17	-0.050			
0.0925	5922.63	4.0500	4.0500	-0.7773	25.00	-0.18	-0.050			
0.0932	5965.89	4.0490	4.0492	-0.7857	24.99	-0.19	-0.050			
0.0940	6014.15	4.0480	4.0485	-0.7803	24.98	-0.20	-0.050			
0.0947	6061.45	4.0470	4.0483	-0.7839	24.98	-0.20	-0.050			
0.0954	6107.84	4.0460	4.0452	-0.7796	24.98	-0.20	-0.050			
0.0962	6157.33	4.0450	4.0444	-0.7856	24.98	-0.20	-0.050			
0.0970	6208.55	4.0440	4.0438	-0.7910	24.98	-0.20	-0.050			
0.0978	6259.38	4.0430	4.0429	-0.7962	24.99	-0.19	-0.050			
0.0986	6309.71	4.0420	4.0415	-0.7987	24.99	-0.19	-0.050			
0.0995	6365.93	4.0410	4.0405	-0.7975	25.00	-0.18	-0.050			
0.1003	6417.58	4.0400	4.0396	-0.8041	25.01	-0.17	-0.050			
0.1011	6471.66	4.0390	4.0401	-0.7995	25.01	-0.17	-0.050			
0.1020	6526.76	4.0380	4.0384	-0.8013	25.02	-0.16	-0.050			
0.1028	6580.65	4.0370	4.0373	-0.7997	25.02	-0.16	-0.050			
0.1036	6631.09	4.0360	4.0359	-0.7929	25.02	-0.16	-0.050			
0.1045	6688.14	4.0350	4.0350	-0.7966	25.04	-0.14	-0.050			
0.1053	6738.28	4.0340	4.0343	-0.7868	25.04	-0.14	-0.050			
0.1060	6784.27	4.0330	4.0332	-0.7912	25.04	-0.14	-0.050			
0.1068	6832.65	4.0320	4.0319	-0.7889	25.04	-0.14	-0.050			
0.1075	6878.79	4.0310	4.0311	-0.7834	25.04	-0.14	-0.050			
0.1082	6926.49	4.0300	4.0296	-0.7854	25.04	-0.14	-0.050			
0.1089	6970.68	4.0290	4.0286	-0.7784	25.05	-0.13	-0.050			
0.1097	7020.81	4.0280	4.0280	-0.7895	25.04	-0.14	-0.050			
0.1105	7070.83	4.0270	4.0264	-0.7951	25.04	-0.14	-0.050			
0.1113	7122.96	4.0260	4.0259	-0.7989	25.04	-0.14	-0.050			
0.1121	7175.78	4.0250	4.0251	-0.8039	25.04	-0.14	-0.050			
0.1129	7226.96	4.0240	4.0236	-0.8119	25.03	-0.15	-0.050			
0.1138	7283.20	4.0230	4.0227	-0.8097	25.04	-0.14	-0.050			
0.1147	7337.63	4.0220	4.0232	-0.8083	25.05	-0.13	-0.050			
0.1155	7393.40	4.0210	4.0207	-0.8145	25.06	-0.12	-0.050			
0.1163	7445.73	4.0200	4.0203	-0.8071	25.06	-0.12	-0.050			
0.1173	7504.41	4.0190	4.0191	-0.8166	25.06	-0.12	-0.050			
0.1181	7555.71	4.0180	4.0179	-0.8078	25.06	-0.12	-0.050			
0.1189	7606.69	4.0170	4.0173	-0.8000	25.06	-0.12	-0.050			
0.1196	7653.41	4.0160	4.0163	-0.8044	25.08	-0.10	-0.050			
0.1204	7702.91	4.0150	4.0151	-0.8018	25.08	-0.10	-0.050			
0.1211	7752.25	4.0140	4.0153	-0.8006	25.09	-0.09	-0.050			
0.1219	7799.68	4.0130	4.0127	-0.7965	25.10	-0.08	-0.050			
0.1227	7850.17	4.0120	4.0118	-0.8000	25.10	-0.08	-0.050			
0.1234	7898.53	4.0110	4.0111	-0.8012	25.10	-0.08	-0.050			
0.1242	7949.61	4.0100	4.0095	-0.8050	25.10	-0.08	-0.050			
0.1250	8000.66	4.0090	4.0087	-0.8077	25.11	-0.07	-0.050			
0.1259	8056.66	4.0080	4.0082	-0.8080	25.12	-0.06	-0.050			
0.1267	8108.45	4.0070	4.0066	-0.8133	25.12	-0.06	-0.050			
0.1275	8161.43	4.0060	4.0056	-0.8209	25.13	-0.05	-0.050			
0.1284	8218.01	4.0050	4.0053	-0.8192	25.13	-0.05	-0.050			
0.1292	8271.11	4.0040	4.0038	-0.8137	25.14	-0.04	-0.050			
0.1301	8328.53	4.0030	4.0031	-0.8206	25.14	-0.04	-0.050			
0.1310	8382.56	4.0020	4.0020	-0.8200	25.15	-0.03	-0.050			
0.1318	8434.27	4.0010	4.0008	-0.8115	25.16	-0.02	-0.050			
0.1325	8482.06	4.0000	4.0000	-0.8164	25.17	-0.01	-0.050			
0.1333	8531.30	3.9990	3.9993	-0.8136	25.17	-0.01	-0.050			
0.1341	8581.40	3.9980	3.9985	-0.8146	25.18	0.00	-0.050			
0.1349	8630.81	3.9970	3.9966	-0.8184	25.18	0.00	-0.050			
0.1357	8681.72	3.9960	3.9955	-0.8185	25.18	0.00	-0.050			
0.1364	8732.26	3.9950	3.9951	-0.8189	25.18	0.00	-0.050			
0.1373	8784.65	3.9940	3.9938	-0.8234	25.18	0.00	-0.050			
0.1381	8837.39	3.9930	3.9925	-0.8294	25.18	0.00	-0.050			
0.1390	8895.37	3.9920	3.9921	-0.8274	25.18	0.00	-0.050			
0.1398	8948.15	3.9910	3.9906	-0.8312	25.18	0.00	-0.050	0.526	0.663	
0.1407	9001.74	3.9900	3.9896	-0.8369	25.18	0.00	-0.050			
0.1416	9059.60	3.9890	3.9886	-0.8271	25.18	0.00	-0.050			
0.1425	9117.00	3.9880	3.9880	-0.8318	25.18	0.00	-0.050			
0.1433	9169.64	3.9870	3.9873	-0.8226	25.18	0.00	-0.050			
0.1441	9221.66	3.9860	3.9863	-0.8148	25.18	-0.00	-0.050			
0.1450	9278.80	3.9850	3.9847	-0.8198	25.17	-0.01	-0.050			
0.1458	9328.40	3.9840	3.9843	-0.8182	25.16	-0.02	-0.050			
0.1465	9378.40	3.9830	3.9835	-0.8141	25.16	-0.02	-0.050			
0.1473	9428.06	3.9820	3.9821	-0.8121	25.14	-0.04	-0.050			
0.1481	9476.16	3.9810	3.9813	-0.8137	25.14	-0.04	-0.050			
0.1488	9522.29	3.9800	3.9795	-0.8032	25.13	-0.05	-0.050			
0.1496	9573.21	3.9790	3.9790	-0.8100	25.12	-0.06	-0.050			
0.1504	9624.84	3.9780	3.9778	-0.8151	25.12	-0.06	-0.050			
0.1512	9676.89	3.9770	3.9767	-0.8174	25.12	-0.06	-0.050			
0.1520	9729.80	3.9760	3.9759	-0.8250	25.12	-0.06	-0.050			
0.1529	9786.76	3.9750	3.9747	-0.8226	25.11	-0.07	-0.050			
0.1537	9839.18	3.9740	3.9735	-0.8276	25.10	-0.08	-0.050			
0.1546	9896.13	3.9730	3.9741	-0.8231	25.12	-0.06	-0.050			
0.1555	9952.33	3.9720	3.9719	-0.8315	25.12	-0.06	-0.050			
0.1563	10005.49	3.9710	3.9713	-0.8262	25.12	-0.06	-0.050			
0.1572	10057.98	3.9700	3.9706	-0.8226	25.12	-0.06	-0.050			
0.1581	10117.87	3.9690	3.9689	-0.8275	25.12	-0.06	-0.050			
0.1589	10170.15	3.9680	3.9682	-0.8213	25.12	-0.06	-0.050			
0.1597	10217.66	3.9670	3.9676	-0.8286	25.12	-0.06	-0.050			
0.1604	10268.44	3.9660	3.9661	-0.8269	25.12	-0.06	-0.050	0.434	0.659	
0.1612	10318.48	3.9650	3.9663	-0.8241	25.12	-0.06	-0.050			
0.1620	10369.81	3.9640	3.9630	-0.8257	25.12	-0.06	-0.050			
0.1628	10421.35	3.9630	3.9630	-0.8295	25.12	-0.06	-0.050			
0.1636	10472.58	3.9620	3.9613	-0.8302	25.12	-0.06	-0.050			
0.1645	10524.99	3.9610	3.9607	-0.8336	25.13	-0.05	-0.050			
0.1653	10578.41	3.9600	3.9603	-0.8404	25.13	-0.05	-0.050			
0.1662	10637.56	3.9590	3.9585	-0.8346	25.13	-0.05	-0.050			
0.1671	10691.80	3.9580	3.9580	-0.8404	25.12	-0.06	-0.050			
0.1679	10748.48	3.9570	3.9582	-0.8334	25.13	-0.05	-0.050			
0.1688	10804.10	3.9560	3.9560	-0.8329	25.13	-0.05	-0.050			
0.1697	10860.80	3.9550	3.9554	-0.8382	25.13	-0.05	-0.050			
0.1705	10913.87	3.9540	3.9536	-0.8291	25.12	-0.06	-0.050			
0.1714	10970.74	3.9530	3.9532	-0.8297	25.12	-0.06	-0.050			
0.1722	11020.99	3.9520	3.9524	-0.8319	25.12	-0.06	-0.050			
0.1730	11071.70	3.9510	3.9508	-0.8272	25.12	-0.06	-0.050			
0.1738	11121.74	3.9500	3.9502	-0.8225	25.11	-0.07	-0.050			
0.1745	11171.19	3.9490	3.9503	-0.8249	25.11	-0.07	-0.050			
0.1753	11221.70	3.9480	3.9470	-0.8255	25.11	-0.07	-0.050			
0.1761	11269.55	3.9470	3.9464	-0.8198	25.10	-0.08	-0.050			
0.1769	11323.32	3.9460	3.9457	-0.8280	25.10	-0.08	-0.050			
0.1778	11376.61	3.9450	3.9450	-0.8320	25.10	-0.08	-0.050			
0.1786	11432.72	3.9440	3.9432	-0.8328	25.10	-0.08	-0.050			
0.1795	11485.55	3.9430	3.9429	-0.8376	25.09	-0.09	-0.050			
0.1803	11542.15	3.9420	3.9419	-0.8335	25.09	-0.09	-0.050	1.089	1.318	
0.1812	11597.21	3.9410	3.9421	-0.8326	25.09	-0.09	-0.050			
0.1821	11653.79	3.9400	3.9403	-0.8330	25.08	-0.10	-0.050			
0.1830	11708.96	3.9390	3.9391	-0.8338	25.08	-0.10	-0.050			
0.1838	11761.94	3.9380	3.9383	-0.8272	25.07	-0.11	-0.050			
0.1847	11819.58	3.9370	3.9374	-0.8310	25.06	-0.12	-0.050			
0.1855	11870.25	3.9360	3.9360	-0.8317	25.06	-0.12	-0.050			
0.1863	11921.32	3.9350	3.9351	-0.8274	25.06	-0.12	-0.050			
0.1870	11970.97	3.9340	3.9343	-0.8283	25.06	-0.12	-0.050			
0.1878	12021.97	3.9330	3.9337	-0.8279	25.04	-0.14	-0.050			
0.1886	12071.10	3.9320	3.9313	-0.8244	25.04	-0.14	-0.050			
0.1894	12124.06	3.9310	3.9308	-0.8300	25.04	-0.14	-0.050			
0.1902	12175.28	3.9300	3.9300	-0.8311	25.03	-0.15	-0.050			
0.1911	12227.37	3.9290	3.9288	-0.8341	25.03	-0.15	-0.050			
0.1920	12286.43	3.9280	3.9279	-0.8311	25.02	-0.16	-0.050			
0.1928	12339.66	3.9270	3.9271	-0.8358	25.02	-0.16	-0.050			
0.1937	12393.96	3.9260	3.9254	-0.8426	25.02	-0.16	-0.050			
0.1946	12452.66	3.9250	3.9257	-0.8321	25.02	-0.16	-0.050			
0.1955	12509.44	3.9240	3.9240	-0.8352	25.02	-0.16	-0.050			
0.1963	12562.45	3.9230	3.9229	-0.8266	25.01	-0.17	-0.050			
0.1972	12620.24	3.9220	3.9223	-0.8300	25.01	-0.17	-0.050			
0.1980	12673.39	3.9210	3.9209	-0.8218	25.01	-0.17	-0.050			
0.1988	12722.02	3.9200	3.9200	-0.8240	25.01	-0.17	-0.050			
0.1996	12772.00	3.9190	3.9194	-0.8218	25.01	-0.17	-0.050			
0.2003	12822.31	3.9180	3.9179	-0.8196	25.01	-0.17	-0.050	0.567	0.657	
0.2011	12870.98	3.9170	3.9183	-0.8168	25.01	-0.17	-0.050			
0.2019	12918.95	3.9160	3.9153	-0.8135	25.01	-0.17	-0.050			
0.2027	12972.37	3.9150	3.9148	-0.8218	25.01	-0.17	-0.050			
0.2035	13021.32	3.9140	3.9140	-0.8194	25.01	-0.17	-0.050			
0.2043	13074.53	3.9130	3.9123	-0.8229	25.01	-0.17	-0.050			
0.2051	13126.42	3.9120	3.9119	-0.8316	25.02	-0.16	-0.050			
0.2060	13181.84	3.9110	3.9110	-0.8297	25.02	-0.16	-0.050			
0.2069	13238.60	3.9100	3.9094	-0.8269	25.03	-0.15	-0.050			
0.2077	13293.54	3.9090	3.9101	-0.8252	25.04	-0.14	-0.050			
0.2087	13353.80	3.9080	3.9078	-0.8435	25.06	-0.12	-0.050			
0.2095	13407.17	3.9070	3.9073	-0.8333	25.06	-0.12	-0.050			
0.2103	13459.91	3.9060	3.9066	-0.8237	25.06	-0.12	-0.050			
0.2112	13517.43	3.9050	3.9049	-0.8231	25.08	-0.10	-0.050			
0.2120	13565.72	3.9040	3.9040	-0.8225	25.07	-0.11	-0.050			
0.2128	13618.49	3.9030	3.9035	-0.8100	25.08	-0.10	-0.050			
0.2135	13666.10	3.9020	3.9022	-0.8116	25.09	-0.09	-0.050			
0.2143	13715.41	3.9010	3.9023	-0.8094	25.08	-0.10	-0.050			
0.2150	13761.70	3.9000	3.8993	-0.8092	25.08	-0.10	-0.050			
0.2158	13811.80	3.8990	3.8989	-0.8126	25.09	-0.09	-0.050			
0.2166	13862.26	3.8980	3.8979	-0.8150	25.09	-0.09	-0.050			
0.2174	13914.60	3.8970	3.8966	-0.8197	25.09	-0.09	-0.050			
0.2182	13966.79	3.8960	3.8959	-0.8239	25.09	-0.09	-0.050			
0.2191	14020.95	3.8950	3.8951	-0.8277	25.09	-0.09	-0.050			
0.2200	14077.35	3.8940	3.8936	-0.8247	25.09	-0.09	-0.050	1.013	1.115	
0.2208	14132.99	3.8930	3.8934	-0.8235	25.09	-0.09	-0.050			
0.2217	14188.02	3.8920	3.8922	-0.8196	25.09	-0.09	-0.050			
0.2226	14243.40	3.8910	3.8910	-0.8164	25.09	-0.09	-0.050			
0.2234	14300.54	3.8900	3.8905	-0.8222	25.09	-0.09	-0.050			
0.2243	14353.91	3.8890	3.8888	-0.8167	25.08	-0.10	-0.050			
0.2251	14405.27	3.8880	3.8880	-0.8074	25.07	-0.11	-0.050			
0.2258	14451.83	3.8870	3.8874	-0.8162	25.06	-0.12	-0.050			
0.2266	14502.28	3.8860	3.8865	-0.8137	25.06	-0.12	-0.050			
0.2274	14552.22	3.8850	3.8851	-0.8120	25.06	-0.12	-0.050			
0.2281	14600.43	3.8840	3.8834	-0.8089	25.06	-0.12	-0.050			
0.2289	14650.18	3.8830	3.8827	-0.8121	25.04	-0.14	-0.050			
0.2297	14699.09	3.8820	3.8820	-0.8116	25.04	-0.14	-0.050			
0.2305	14751.33	3.8810	3.8802	-0.8165	25.03	-0.15	-0.050			
0.2313	14804.14	3.8800	3.8797	-0.8146	25.03	-0.15	-0.050			
0.2321	14856.45	3.8790	3.8791	-0.8236	25.02	-0.16	-0.050			
0.2330	14914.20	3.8780	3.8774	-0.8177	25.02	-0.16	-0.050			
0.2339	14967.72	3.8770	3.8770	-0.8241	25.02	-0.16	-0.050			
0.2348	15025.18	3.8760	3.8761	-0.8148	25.02	-0.16	-0.050			
0.2356	15079.52	3.8750	3.8748	-0.8144	25.02	-0.16	-0.050			
0.2365	15134.63	3.8740	3.8743	-0.8153	25.01	-0.17	-0.050			
0.2373	15189.55	3.8730	3.8728	-0.8135	25.01	-0.17	-0.050			
0.2381	15239.71	3.8720	3.8719	-0.8087	25.01	-0.17	-0.050			
0.2389	15288.32	3.8710	3.8712	-0.8086	25.01	-0.17	-0.050			
0.2396	15335.28	3.8700	3.8704	-0.8021	25.02	-0.16	-0.050			
0.2404	15383.63	3.8690	3.8694	-0.8004	25.02	-0.16	-0.050	-0.096	0.515	
0.2411	15432.83	3.8680	3.8671	-0.7994	25.03	-0.15	-0.050			
0.2419	15480.30	3.8670	3.8664	-0.7984	25.03	-0.15	-0.050			
0.2426	15528.84	3.8660	3.8655	-0.8010	25.04	-0.14	-0.050			
0.2434	15580.37	3.8650	3.8651	-0.8083	25.05	-0.13	-0.050			
0.2443	15632.54	3.8640	3.8634	-0.8123	25.06	-0.12	-0.050			
0.2451	15684.02	3.8630	3.8628	-0.8163	25.06	-0.12	-0.050			
0.2459	15738.03	3.8620	3.8623	-0.8192	25.06	-0.12	-0.050			
0.2468	15793.94	3.8610	3.8604	-0.8164	25.07	-0.11	-0.050			
0.2477	15850.30	3.8600	3.8609	-0.8180	25.09	-0.09	-0.050			
0.2485	15905.17	3.8590	3.8593	-0.8157	25.09	-0.09	-0.050			
0.2494	15959.62	3.8580	3.8578	-0.8159	25.09	-0.09	-0.050			
0.2502	16011.36	3.8570	3.8573	-0.8079	25.10	-0.08	-0.050			
0.2511	16067.80	3.8560	3.8561	-0.8124	25.10	-0.08	-0.050			
0.2519	16119.06	3.8550	3.8549	-0.7989	25.11	-0.07	-0.050			
0.2526	16167.99	3.8540	3.8544	-0.7939	25.11	-0.07	-0.050			
0.2534	16214.97	3.8530	3.8534	-0.7962	25.11	-0.07	-0.050			
0.2541	16261.92	3.8520	3.8533	-0.7926	25.11	-0.07	-0.050			
