Ah_balance (normalized)	Ah_balance (mAh)	Voltage - fit (V)	Voltage -  interpolate (V)	dQ/dV (1/V)	Temperature (°C)	Temperature - diff (°C)	Current (C)	R_DC 0ms (mOhm)	R_DC 50ms (mOhm)	R_DC 50 ms PEC (mOhm)
0.0001	8.34	4.1860	4.1859	-0.3165	25.58	0.01	-0.050			
0.0005	29.81	4.1850	4.1848	-0.3564	25.57	0.00	-0.050			
0.0008	54.38	4.1840	4.1836	-0.3989	25.57	-0.00	-0.050			
0.0013	81.92	4.1830	4.1825	-0.4349	25.56	-0.01	-0.050			
0.0018	112.64	4.1820	4.1818	-0.4675	25.56	-0.01	-0.050			
0.0022	143.71	4.1810	4.1810	-0.4888	25.57	-0.00	-0.050			
0.0027	175.36	4.1800	4.1799	-0.5083	25.56	-0.01	-0.050			
0.0033	210.17	4.1790	4.1792	-0.5275	25.55	-0.02	-0.050			
0.0038	245.04	4.1780	4.1780	-0.5441	25.55	-0.02	-0.050			
0.0044	281.34	4.1770	4.1769	-0.5585	25.55	-0.02	-0.050			
0.0050	318.66	4.1760	4.1757	-0.5704	25.55	-0.02	-0.050			
0.0056	356.12	4.1750	4.1752	-0.5818	25.54	-0.03	-0.050			
0.0062	394.77	4.1740	4.1742	-0.5897	25.54	-0.03	-0.050			
0.0068	437.52	4.1730	4.1728	-0.6063	25.53	-0.04	-0.050			
0.0074	476.53	4.1720	4.1716	-0.6166	25.53	-0.04	-0.050			
0.0081	515.64	4.1710	4.1710	-0.6216	25.52	-0.05	-0.050			
0.0087	556.07	4.1700	4.1704	-0.6280	25.52	-0.05	-0.050			
0.0093	596.44	4.1690	4.1690	-0.6334	25.52	-0.05	-0.050			
0.0100	637.22	4.1680	4.1681	-0.6398	25.52	-0.05	-0.050			
0.0106	679.12	4.1670	4.1672	-0.6463	25.51	-0.06	-0.050			
0.0113	721.17	4.1660	4.1662	-0.6519	25.51	-0.06	-0.050			
0.0119	763.63	4.1650	4.1650	-0.6541	25.51	-0.06	-0.050			
0.0126	805.41	4.1640	4.1638	-0.6586	25.51	-0.06	-0.050			
0.0133	848.24	4.1630	4.1630	-0.6634	25.50	-0.07	-0.050			
0.0139	891.65	4.1620	4.1621	-0.6661	25.49	-0.08	-0.050			
0.0146	934.84	4.1610	4.1610	-0.6689	25.48	-0.09	-0.050			
0.0153	977.44	4.1600	4.1601	-0.6696	25.48	-0.09	-0.050			
0.0159	1020.50	4.1590	4.1589	-0.6720	25.48	-0.09	-0.050			
0.0166	1064.65	4.1580	4.1583	-0.6761	25.48	-0.09	-0.050			
0.0173	1107.41	4.1570	4.1569	-0.6795	25.47	-0.10	-0.050			
0.0180	1151.24	4.1560	4.1561	-0.6831	25.47	-0.10	-0.050			
0.0187	1195.03	4.1550	4.1551	-0.6858	25.47	-0.10	-0.050			
0.0194	1238.44	4.1540	4.1541	-0.6881	25.47	-0.10	-0.050			
0.0200	1281.89	4.1530	4.1528	-0.6929	25.47	-0.10	-0.050	0.377	0.638	
0.0207	1324.89	4.1520	4.1519	-0.6937	25.46	-0.11	-0.050			
0.0214	1369.45	4.1510	4.1510	-0.6964	25.47	-0.10	-0.050			
0.0221	1414.62	4.1500	4.1498	-0.7011	25.46	-0.11	-0.050			
0.0228	1459.80	4.1490	4.1488	-0.7048	25.45	-0.12	-0.050			
0.0235	1506.13	4.1480	4.1477	-0.7050	25.46	-0.11	-0.050			
0.0242	1551.41	4.1470	4.1471	-0.7079	25.46	-0.11	-0.050			
0.0249	1596.71	4.1460	4.1458	-0.7133	25.44	-0.13	-0.050			
0.0257	1642.67	4.1450	4.1449	-0.7165	25.44	-0.13	-0.050			
0.0264	1689.07	4.1440	4.1441	-0.7192	25.45	-0.12	-0.050			
0.0271	1735.53	4.1430	4.1430	-0.7216	25.45	-0.12	-0.050			
0.0279	1782.43	4.1420	4.1424	-0.7240	25.45	-0.12	-0.050			
0.0286	1829.82	4.1410	4.1410	-0.7249	25.45	-0.12	-0.050			
0.0293	1876.07	4.1400	4.1401	-0.7249	25.44	-0.13	-0.050			
0.0300	1921.67	4.1390	4.1390	-0.7280	25.44	-0.13	-0.050			
0.0308	1968.15	4.1380	4.1382	-0.7285	25.43	-0.14	-0.050			
0.0315	2015.38	4.1370	4.1368	-0.7269	25.43	-0.14	-0.050			
0.0322	2061.13	4.1360	4.1360	-0.7283	25.44	-0.13	-0.050			
0.0329	2107.97	4.1350	4.1350	-0.7304	25.43	-0.14	-0.050			
0.0337	2154.73	4.1340	4.1341	-0.7302	25.43	-0.14	-0.050			
0.0344	2200.92	4.1330	4.1330	-0.7313	25.44	-0.13	-0.050			
0.0351	2247.36	4.1320	4.1318	-0.7338	25.44	-0.13	-0.050			
0.0359	2294.98	4.1310	4.1310	-0.7370	25.44	-0.13	-0.050			
0.0366	2342.77	4.1300	4.1300	-0.7378	25.43	-0.14	-0.050			
0.0373	2389.66	4.1290	4.1291	-0.7396	25.44	-0.13	-0.050			
0.0381	2436.91	4.1280	4.1281	-0.7417	25.44	-0.13	-0.050			
0.0388	2484.41	4.1270	4.1270	-0.7436	25.43	-0.14	-0.050			
0.0396	2531.63	4.1260	4.1257	-0.7428	25.43	-0.14	-0.050			
0.0403	2578.61	4.1250	4.1253	-0.7468	25.43	-0.14	-0.050	0.269	0.500	
0.0410	2626.74	4.1240	4.1241	-0.7509	25.43	-0.14	-0.050			
0.0418	2675.23	4.1230	4.1229	-0.7524	25.43	-0.14	-0.050			
0.0426	2723.86	4.1220	4.1222	-0.7562	25.42	-0.15	-0.050			
0.0433	2772.33	4.1210	4.1209	-0.7575	25.42	-0.15	-0.050			
0.0441	2820.83	4.1200	4.1198	-0.7598	25.41	-0.16	-0.050			
0.0448	2868.67	4.1190	4.1189	-0.7602	25.42	-0.15	-0.050			
0.0456	2918.05	4.1180	4.1181	-0.7639	25.40	-0.17	-0.050			
0.0464	2967.93	4.1170	4.1172	-0.7656	25.41	-0.16	-0.050			
0.0472	3017.66	4.1160	4.1158	-0.7659	25.40	-0.17	-0.050			
0.0479	3066.06	4.1150	4.1150	-0.7648	25.39	-0.18	-0.050			
0.0487	3115.62	4.1140	4.1141	-0.7675	25.39	-0.18	-0.050			
0.0495	3165.13	4.1130	4.1129	-0.7691	25.39	-0.18	-0.050			
0.0502	3213.47	4.1120	4.1122	-0.7700	25.38	-0.19	-0.050			
0.0510	3263.47	4.1110	4.1109	-0.7701	25.37	-0.20	-0.050			
0.0518	3313.46	4.1100	4.1100	-0.7707	25.37	-0.20	-0.050			
0.0525	3362.94	4.1090	4.1091	-0.7689	25.37	-0.20	-0.050			
0.0533	3412.02	4.1080	4.1078	-0.7682	25.36	-0.21	-0.050			
0.0541	3460.70	4.1070	4.1069	-0.7697	25.36	-0.21	-0.050			
0.0548	3509.25	4.1060	4.1061	-0.7727	25.35	-0.22	-0.050			
0.0556	3558.37	4.1050	4.1049	-0.7709	25.34	-0.23	-0.050			
0.0564	3607.79	4.1040	4.1040	-0.7707	25.35	-0.22	-0.050			
0.0571	3657.19	4.1030	4.1030	-0.7740	25.35	-0.22	-0.050			
0.0579	3707.23	4.1020	4.1022	-0.7745	25.34	-0.23	-0.050			
0.0587	3756.29	4.1010	4.1010	-0.7752	25.34	-0.23	-0.050			
0.0595	3806.30	4.1000	4.1001	-0.7738	25.34	-0.23	-0.050			
0.0603	3856.63	4.0990	4.0992	-0.7742	25.34	-0.23	-0.050	0.253	0.736	
0.0610	3905.83	4.0980	4.0978	-0.7751	25.33	-0.24	-0.050			
0.0618	3955.85	4.0970	4.0972	-0.7759	25.34	-0.23	-0.050			
0.0626	4005.17	4.0960	4.0964	-0.7776	25.33	-0.24	-0.050			
0.0634	4055.33	4.0950	4.0949	-0.7770	25.33	-0.24	-0.050			
0.0641	4104.86	4.0940	4.0939	-0.7758	25.32	-0.25	-0.050			
0.0649	4154.11	4.0930	4.0932	-0.7775	25.32	-0.25	-0.050			
0.0657	4203.96	4.0920	4.0922	-0.7777	25.32	-0.25	-0.050			
0.0665	4253.38	4.0910	4.0914	-0.7839	25.32	-0.25	-0.050			
0.0672	4303.67	4.0900	4.0898	-0.7868	25.32	-0.25	-0.050			
0.0680	4353.54	4.0890	4.0890	-0.7867	25.32	-0.25	-0.050			
0.0688	4403.70	4.0880	4.0881	-0.7861	25.32	-0.25	-0.050			
0.0696	4453.97	4.0870	4.0870	-0.7861	25.32	-0.25	-0.050			
0.0704	4503.98	4.0860	4.0862	-0.7871	25.32	-0.25	-0.050			
0.0712	4554.91	4.0850	4.0850	-0.7889	25.31	-0.26	-0.050			
0.0720	4607.55	4.0840	4.0837	-0.7883	25.32	-0.25	-0.050			
0.0728	4657.57	4.0830	4.0831	-0.7890	25.31	-0.26	-0.050			
0.0736	4707.97	4.0820	4.0818	-0.7910	25.31	-0.26	-0.050			
0.0744	4758.59	4.0810	4.0814	-0.7958	25.30	-0.27	-0.050			
0.0751	4808.89	4.0800	4.0801	-0.7987	25.31	-0.26	-0.050			
0.0759	4860.13	4.0790	4.0790	-0.8003	25.31	-0.26	-0.050			
0.0767	4910.83	4.0780	4.0779	-0.8019	25.30	-0.27	-0.050			
0.0775	4962.09	4.0770	4.0770	-0.8031	25.30	-0.27	-0.050			
0.0783	5013.38	4.0760	4.0762	-0.8051	25.30	-0.27	-0.050			
0.0792	5066.12	4.0750	4.0748	-0.8058	25.30	-0.27	-0.050			
0.0800	5117.81	4.0740	4.0739	-0.8072	25.30	-0.27	-0.050	0.104	0.456	
0.0808	5169.10	4.0730	4.0730	-0.8071	25.30	-0.27	-0.050			
0.0816	5221.00	4.0720	4.0719	-0.8049	25.30	-0.27	-0.050			
0.0824	5272.77	4.0710	4.0710	-0.8032	25.30	-0.27	-0.050			
0.0832	5325.28	4.0700	4.0699	-0.8042	25.29	-0.28	-0.050			
0.0840	5377.01	4.0690	4.0690	-0.8063	25.29	-0.28	-0.050			
0.0848	5429.29	4.0680	4.0682	-0.8097	25.29	-0.28	-0.050			
0.0856	5481.42	4.0670	4.0671	-0.8088	25.29	-0.28	-0.050			
0.0865	5533.15	4.0660	4.0661	-0.8097	25.29	-0.28	-0.050			
0.0873	5584.39	4.0650	4.0649	-0.8107	25.29	-0.28	-0.050			
0.0881	5636.17	4.0640	4.0641	-0.8118	25.28	-0.29	-0.050			
0.0889	5687.12	4.0630	4.0631	-0.8120	25.28	-0.29	-0.050			
0.0897	5738.14	4.0620	4.0618	-0.8096	25.28	-0.29	-0.050			
0.0904	5788.75	4.0610	4.0610	-0.8110	25.28	-0.29	-0.050			
0.0913	5841.08	4.0600	4.0598	-0.8116	25.28	-0.29	-0.050			
0.0921	5892.66	4.0590	4.0590	-0.8149	25.28	-0.29	-0.050			
0.0929	5945.15	4.0580	4.0581	-0.8178	25.28	-0.29	-0.050			
0.0937	5998.16	4.0570	4.0567	-0.8204	25.28	-0.29	-0.050			
0.0945	6051.01	4.0560	4.0563	-0.8226	25.28	-0.29	-0.050			
0.0954	6103.97	4.0550	4.0549	-0.8243	25.28	-0.29	-0.050			
0.0962	6157.09	4.0540	4.0539	-0.8256	25.28	-0.29	-0.050			
0.0970	6210.83	4.0530	4.0530	-0.8273	25.28	-0.29	-0.050			
0.0979	6264.58	4.0520	4.0522	-0.8269	25.28	-0.29	-0.050			
0.0987	6318.03	4.0510	4.0509	-0.8269	25.28	-0.29	-0.050			
0.0995	6370.96	4.0500	4.0498	-0.8265	25.28	-0.29	-0.050			
0.1004	6423.40	4.0490	4.0494	-0.8262	25.28	-0.29	-0.050	0.349	0.570	
0.1012	6475.57	4.0480	4.0480	-0.8263	25.28	-0.29	-0.050			
0.1020	6529.28	4.0470	4.0471	-0.8268	25.28	-0.29	-0.050			
0.1028	6581.24	4.0460	4.0460	-0.8282	25.29	-0.28	-0.050			
0.1037	6633.72	4.0450	4.0449	-0.8272	25.28	-0.29	-0.050			
0.1045	6686.29	4.0440	4.0441	-0.8285	25.28	-0.29	-0.050			
0.1053	6739.48	4.0430	4.0429	-0.8287	25.28	-0.29	-0.050			
0.1061	6792.72	4.0420	4.0418	-0.8304	25.28	-0.29	-0.050			
0.1070	6845.34	4.0410	4.0410	-0.8341	25.28	-0.29	-0.050			
0.1078	6899.35	4.0400	4.0399	-0.8314	25.28	-0.29	-0.050			
0.1086	6952.63	4.0390	4.0388	-0.8321	25.28	-0.29	-0.050			
0.1095	7006.10	4.0380	4.0381	-0.8338	25.28	-0.29	-0.050			
0.1103	7059.79	4.0370	4.0369	-0.8356	25.28	-0.29	-0.050			
0.1111	7113.43	4.0360	4.0362	-0.8370	25.28	-0.29	-0.050			
0.1120	7166.72	4.0350	4.0349	-0.8399	25.28	-0.29	-0.050			
0.1128	7220.78	4.0340	4.0342	-0.8399	25.28	-0.29	-0.050			
0.1137	7275.54	4.0330	4.0329	-0.8401	25.28	-0.29	-0.050			
0.1145	7329.70	4.0320	4.0321	-0.8413	25.28	-0.29	-0.050			
0.1154	7383.35	4.0310	4.0314	-0.8409	25.28	-0.29	-0.050			
0.1162	7436.84	4.0300	4.0303	-0.8412	25.28	-0.29	-0.050			
0.1170	7489.72	4.0290	4.0289	-0.8435	25.28	-0.29	-0.050			
0.1179	7543.26	4.0280	4.0283	-0.8432	25.29	-0.28	-0.050			
0.1187	7597.46	4.0270	4.0270	-0.8455	25.28	-0.29	-0.050			
0.1196	7651.45	4.0260	4.0261	-0.8455	25.29	-0.28	-0.050			
0.1204	7706.02	4.0250	4.0248	-0.8477	25.29	-0.28	-0.050	0.187	0.521	
0.1213	7760.50	4.0240	4.0239	-0.8481	25.28	-0.29	-0.050			
0.1221	7815.45	4.0230	4.0229	-0.8489	25.29	-0.28	-0.050			
0.1230	7869.87	4.0220	4.0220	-0.8496	25.29	-0.28	-0.050			
0.1238	7924.36	4.0210	4.0211	-0.8479	25.29	-0.28	-0.050			
0.1247	7978.76	4.0200	4.0200	-0.8524	25.29	-0.28	-0.050			
0.1255	8034.26	4.0190	4.0192	-0.8537	25.29	-0.28	-0.050			
0.1264	8088.14	4.0180	4.0180	-0.8515	25.30	-0.27	-0.050			
0.1272	8142.29	4.0170	4.0171	-0.8528	25.29	-0.28	-0.050			
0.1281	8195.95	4.0160	4.0159	-0.8555	25.30	-0.27	-0.050			
0.1289	8250.51	4.0150	4.0147	-0.8575	25.29	-0.28	-0.050			
0.1298	8306.17	4.0140	4.0142	-0.8619	25.29	-0.28	-0.050			
0.1307	8361.65	4.0130	4.0129	-0.8633	25.30	-0.27	-0.050			
0.1315	8416.46	4.0120	4.0120	-0.8623	25.29	-0.28	-0.050			
0.1324	8471.47	4.0110	4.0108	-0.8636	25.30	-0.27	-0.050			
0.1332	8527.31	4.0100	4.0101	-0.8624	25.29	-0.28	-0.050			
0.1341	8582.41	4.0090	4.0089	-0.8622	25.30	-0.27	-0.050			
0.1350	8638.69	4.0080	4.0078	-0.8623	25.30	-0.27	-0.050			
0.1359	8694.53	4.0070	4.0069	-0.8630	25.30	-0.27	-0.050			
0.1367	8749.99	4.0060	4.0062	-0.8662	25.30	-0.27	-0.050			
0.1376	8805.84	4.0050	4.0052	-0.8642	25.30	-0.27	-0.050			
0.1385	8861.46	4.0040	4.0039	-0.8643	25.30	-0.27	-0.050			
0.1393	8916.92	4.0030	4.0029	-0.8663	25.30	-0.27	-0.050			
0.1402	8972.58	4.0020	4.0018	-0.8632	25.30	-0.27	-0.050	0.463	0.700	
0.1410	9026.07	4.0010	4.0012	-0.8668	25.30	-0.27	-0.050			
0.1419	9080.30	4.0000	4.0001	-0.8667	25.30	-0.27	-0.050			
0.1427	9135.42	3.9990	3.9989	-0.8698	25.30	-0.27	-0.050			
0.1436	9191.06	3.9980	3.9980	-0.8719	25.31	-0.26	-0.050			
0.1445	9246.14	3.9970	3.9970	-0.8722	25.30	-0.27	-0.050			
0.1453	9301.42	3.9960	3.9962	-0.8724	25.31	-0.26	-0.050			
0.1462	9357.97	3.9950	3.9951	-0.8752	25.31	-0.26	-0.050			
0.1471	9414.63	3.9940	3.9938	-0.8766	25.31	-0.26	-0.050			
0.1480	9470.89	3.9930	3.9931	-0.8804	25.32	-0.25	-0.050			
0.1489	9527.20	3.9920	3.9918	-0.8848	25.31	-0.26	-0.050			
0.1498	9585.20	3.9910	3.9911	-0.8863	25.31	-0.26	-0.050			
0.1507	9642.16	3.9900	3.9903	-0.8884	25.32	-0.25	-0.050			
0.1516	9699.73	3.9890	3.9891	-0.8907	25.32	-0.25	-0.050			
0.1525	9757.35	3.9880	3.9881	-0.8894	25.32	-0.25	-0.050			
0.1534	9815.00	3.9870	3.9870	-0.8900	25.32	-0.25	-0.050			
0.1542	9871.55	3.9860	3.9861	-0.8877	25.32	-0.25	-0.050			
0.1551	9928.29	3.9850	3.9848	-0.8895	25.32	-0.25	-0.050			
0.1560	9984.93	3.9840	3.9839	-0.8920	25.32	-0.25	-0.050			
0.1569	10041.22	3.9830	3.9832	-0.8897	25.32	-0.25	-0.050			
0.1578	10098.76	3.9820	3.9821	-0.8892	25.32	-0.25	-0.050			
0.1586	10153.57	3.9810	3.9811	-0.8876	25.33	-0.24	-0.050			
0.1595	10209.84	3.9800	3.9803	-0.8920	25.32	-0.25	-0.050			
0.1604	10267.70	3.9790	3.9791	-0.8945	25.32	-0.25	-0.050			
0.1613	10325.48	3.9780	3.9780	-0.8970	25.33	-0.24	-0.050			
0.1622	10383.27	3.9770	3.9771	-0.8977	25.33	-0.24	-0.050			
0.1631	10440.75	3.9760	3.9757	-0.8991	25.32	-0.25	-0.050			
0.1640	10499.19	3.9750	3.9752	-0.8984	25.33	-0.24	-0.050			
0.1649	10556.17	3.9740	3.9739	-0.8996	25.32	-0.25	-0.050			
0.1658	10613.06	3.9730	3.9731	-0.9044	25.33	-0.24	-0.050			
0.1667	10670.97	3.9720	3.9717	-0.9052	25.32	-0.25	-0.050			
0.1677	10730.27	3.9710	3.9711	-0.9060	25.33	-0.24	-0.050			
0.1686	10788.99	3.9700	3.9699	-0.9080	25.33	-0.24	-0.050			
0.1695	10846.95	3.9690	3.9691	-0.9086	25.32	-0.25	-0.050			
0.1704	10905.14	3.9680	3.9680	-0.9085	25.33	-0.24	-0.050			
0.1713	10964.26	3.9670	3.9670	-0.9084	25.33	-0.24	-0.050			
0.1722	11020.98	3.9660	3.9660	-0.9102	25.33	-0.24	-0.050			
0.1731	11078.81	3.9650	3.9649	-0.9083	25.33	-0.24	-0.050			
0.1740	11137.59	3.9640	3.9641	-0.9094	25.32	-0.25	-0.050			
0.1749	11195.28	3.9630	3.9633	-0.9096	25.33	-0.24	-0.050			
0.1758	11254.33	3.9620	3.9620	-0.9113	25.33	-0.24	-0.050			
0.1767	11311.78	3.9610	3.9609	-0.9102	25.34	-0.23	-0.050			
0.1777	11369.77	3.9600	3.9600	-0.9128	25.33	-0.24	-0.050			
0.1786	11427.98	3.9590	3.9590	-0.9143	25.33	-0.24	-0.050			
0.1795	11487.51	3.9580	3.9578	-0.9162	25.33	-0.24	-0.050			
0.1804	11547.07	3.9570	3.9569	-0.9161	25.33	-0.24	-0.050	0.283	0.488	
0.1813	11605.06	3.9560	3.9560	-0.9187	25.33	-0.24	-0.050			
0.1822	11663.48	3.9550	3.9547	-0.9194	25.33	-0.24	-0.050			
0.1832	11721.72	3.9540	3.9540	-0.9198	25.32	-0.25	-0.050			
0.1841	11780.42	3.9530	3.9532	-0.9198	25.33	-0.24	-0.050			
0.1850	11840.52	3.9520	3.9517	-0.9232	25.33	-0.24	-0.050			
0.1859	11900.20	3.9510	3.9510	-0.9257	25.33	-0.24	-0.050			
0.1869	11958.64	3.9500	3.9498	-0.9289	25.32	-0.25	-0.050			
0.1878	12018.00	3.9490	3.9490	-0.9288	25.33	-0.24	-0.050			
0.1887	12077.60	3.9480	3.9479	-0.9292	25.33	-0.24	-0.050			
0.1896	12137.43	3.9470	3.9467	-0.9302	25.32	-0.25	-0.050			
0.1906	12195.86	3.9460	3.9465	-0.9294	25.32	-0.25	-0.050			
0.1915	12256.54	3.9450	3.9449	-0.9346	25.33	-0.24	-0.050			
0.1924	12316.73	3.9440	3.9441	-0.9358	25.32	-0.25	-0.050			
0.1934	12376.33	3.9430	3.9429	-0.9354	25.32	-0.25	-0.050			
0.1943	12437.44	3.9420	3.9421	-0.9351	25.32	-0.25	-0.050			
0.1953	12497.12	3.9410	3.9409	-0.9347	25.32	-0.25	-0.050			
0.1962	12557.36	3.9400	3.9402	-0.9324	25.32	-0.25	-0.050			
0.1971	12617.40	3.9390	3.9390	-0.9319	25.32	-0.25	-0.050			
0.1981	12677.29	3.9380	3.9381	-0.9333	25.32	-0.25	-0.050			
0.1990	12736.72	3.9370	3.9370	-0.9315	25.32	-0.25	-0.050			
0.1999	12795.28	3.9360	3.9359	-0.9306	25.32	-0.25	-0.050	0.286	0.577	
0.2009	12855.05	3.9350	3.9349	-0.9332	25.31	-0.26	-0.050			
0.2018	12914.24	3.9340	3.9340	-0.9343	25.32	-0.25	-0.050			
0.2027	12973.45	3.9330	3.9330	-0.9397	25.31	-0.26	-0.050			
0.2036	13033.41	3.9320	3.9319	-0.9376	25.32	-0.25	-0.050			
0.2046	13093.00	3.9310	3.9309	-0.9405	25.31	-0.26	-0.050			
0.2055	13152.44	3.9300	3.9299	-0.9408	25.31	-0.26	-0.050			
0.2065	13213.00	3.9290	3.9289	-0.9436	25.31	-0.26	-0.050			
0.2074	13274.30	3.9280	3.9280	-0.9442	25.31	-0.26	-0.050			
0.2084	13334.79	3.9270	3.9270	-0.9452	25.31	-0.26	-0.050			
0.2093	13395.62	3.9260	3.9260	-0.9450	25.32	-0.25	-0.050			
0.2102	13455.65	3.9250	3.9251	-0.9485	25.31	-0.26	-0.050			
0.2112	13517.75	3.9240	3.9239	-0.9508	25.32	-0.25	-0.050			
0.2122	13579.35	3.9230	3.9230	-0.9521	25.31	-0.26	-0.050			
0.2131	13641.31	3.9220	3.9222	-0.9535	25.31	-0.26	-0.050			
0.2141	13702.63	3.9210	3.9211	-0.9516	25.31	-0.26	-0.050			
0.2151	13763.83	3.9200	3.9202	-0.9525	25.32	-0.25	-0.050			
0.2160	13824.47	3.9190	3.9189	-0.9527	25.31	-0.26	-0.050			
0.2170	13884.99	3.9180	3.9179	-0.9494	25.31	-0.26	-0.050			
0.2179	13945.31	3.9170	3.9171	-0.9496	25.31	-0.26	-0.050			
0.2188	14005.72	3.9160	3.9158	-0.9474	25.31	-0.26	-0.050			
0.2198	14066.29	3.9150	3.9152	-0.9477	25.30	-0.27	-0.050	0.476	0.700	
0.2207	14126.72	3.9140	3.9139	-0.9461	25.30	-0.27	-0.050			
0.2217	14186.53	3.9130	3.9131	-0.9463	25.30	-0.27	-0.050			
0.2226	14247.34	3.9120	3.9120	-0.9471	25.30	-0.27	-0.050			
0.2236	14307.75	3.9110	3.9108	-0.9487	25.31	-0.26	-0.050			
0.2245	14368.62	3.9100	3.9101	-0.9510	25.30	-0.27	-0.050			
0.2255	14429.91	3.9090	3.9090	-0.9516	25.30	-0.27	-0.050			
0.2264	14490.28	3.9080	3.9079	-0.9547	25.30	-0.27	-0.050			
0.2274	14550.61	3.9070	3.9071	-0.9557	25.30	-0.27	-0.050			
0.2283	14612.92	3.9060	3.9059	-0.9550	25.29	-0.28	-0.050			
0.2293	14673.77	3.9050	3.9052	-0.9540	25.29	-0.28	-0.050			
0.2302	14735.34	3.9040	3.9038	-0.9550	25.29	-0.28	-0.050			
0.2312	14797.26	3.9030	3.9032	-0.9565	25.28	-0.29	-0.050			
0.2322	14858.89	3.9020	3.9020	-0.9588	25.27	-0.30	-0.050			
0.2331	14920.47	3.9010	3.9011	-0.9567	25.28	-0.29	-0.050			
0.2341	14980.86	3.9000	3.9003	-0.9580	25.28	-0.29	-0.050			
0.2350	15042.35	3.8990	3.8989	-0.9586	25.28	-0.29	-0.050			
0.2360	15104.25	3.8980	3.8980	-0.9579	25.27	-0.30	-0.050			
0.2370	15165.80	3.8970	3.8970	-0.9574	25.27	-0.30	-0.050			
0.2379	15226.79	3.8960	3.8959	-0.9591	25.26	-0.31	-0.050			
0.2389	15287.81	3.8950	3.8950	-0.9607	25.26	-0.31	-0.050			
0.2398	15349.26	3.8940	3.8940	-0.9619	25.26	-0.31	-0.050	-0.069	0.433	
0.2408	15410.10	3.8930	3.8930	-0.9614	25.26	-0.31	-0.050			
0.2417	15471.43	3.8920	3.8922	-0.9638	25.26	-0.31	-0.050			
0.2427	15532.55	3.8910	3.8908	-0.9645	25.26	-0.31	-0.050			
0.2437	15594.29	3.8900	3.8900	-0.9658	25.25	-0.32	-0.050			
0.2446	15656.25	3.8890	3.8890	-0.9697	25.26	-0.31	-0.050			
0.2456	15717.92	3.8880	3.8877	-0.9696	25.26	-0.31	-0.050			
0.2466	15780.58	3.8870	3.8869	-0.9717	25.26	-0.31	-0.050			
0.2476	15844.78	3.8860	3.8860	-0.9742	25.26	-0.31	-0.050			
0.2486	15907.40	3.8850	3.8853	-0.9742	25.25	-0.32	-0.050			
0.2495	15969.54	3.8840	3.8844	-0.9736	25.26	-0.31	-0.050			
0.2505	16032.65	3.8830	3.8829	-0.9708	25.26	-0.31	-0.050			
0.2515	16095.26	3.8820	3.8820	-0.9691	25.26	-0.31	-0.050			
0.2524	16156.63	3.8810	3.8805	-0.9707	25.26	-0.31	-0.050			
0.2534	16218.90	3.8800	3.8801	-0.9683	25.26	-0.31	-0.050			
0.2544	16280.30	3.8790	3.8791	-0.9694	25.26	-0.31	-0.050			
0.2554	16342.90	3.8780	3.8781	-0.9704	25.25	-0.32	-0.050			
0.2563	16404.28	3.8770	3.8770	-0.9736	25.26	-0.31	-0.050			
0.2573	16465.36	3.8760	3.8759	-0.9711	25.26	-0.31	-0.050			
0.2582	16526.93	3.8750	3.8749	-0.9713	25.25	-0.32	-0.050			
0.2592	16590.17	3.8740	3.8740	-0.9735	25.25	-0.32	-0.050			
0.2602	16651.32	3.8730	3.8730	-0.9745	25.26	-0.31	-0.050	0.009	0.438	
0.2612	16713.72	3.8720	3.8721	-0.9750	25.26	-0.31	-0.050			
0.2621	16776.22	3.8710	3.8713	-0.9768	25.26	-0.31	-0.050			
0.2631	16839.36	3.8700	3.8699	-0.9759	25.26	-0.31	-0.050			
0.2641	16902.22	3.8690	3.8691	-0.9764	25.26	-0.31	-0.050			
0.2651	16965.18	3.8680	3.8679	-0.9759	25.26	-0.31	-0.050			
0.2661	17028.91	3.8670	3.8671	-0.9770	25.26	-0.31	-0.050			
0.2671	17092.45	3.8660	3.8660	-0.9768	25.26	-0.31	-0.050			
0.2680	17154.32	3.8650	3.8651	-0.9777	25.26	-0.31	-0.050			
0.2690	17217.29	3.8640	3.8639	-0.9780	25.26	-0.31	-0.050			
0.2700	17280.17	3.8630	3.8629	-0.9773	25.27	-0.30	-0.050			
0.2710	17342.61	3.8620	3.8619	-0.9743	25.25	-0.32	-0.050			
0.2719	17403.82	3.8610	3.8610	-0.9717	25.26	-0.31	-0.050			
0.2729	17466.15	3.8600	3.8602	-0.9723	25.26	-0.31	-0.050			
0.2739	17527.68	3.8590	3.8590	-0.9709	25.26	-0.31	-0.050			
0.2748	17589.71	3.8580	3.8581	-0.9714	25.26	-0.31	-0.050			
0.2758	17651.40	3.8570	3.8570	-0.9702	25.26	-0.31	-0.050			
0.2768	17713.88	3.8560	3.8559	-0.9719	25.26	-0.31	-0.050			
