Ah_balance (normalized)	Ah_balance (mAh)	Voltage - fit (V)	Voltage -  interpolate (V)	dQ/dV (1/V)	Temperature (°C)	Temperature - diff (°C)	Current (C)	R_DC 0ms (mOhm)	R_DC 50ms (mOhm)	R_DC 50 ms PEC (mOhm)
-0.0074	-474.98	4.1990	4.1990	0.8202	24.68	-0.22	0.050			
-0.0066	-422.21	4.1980	4.1976	0.8289	24.68	-0.22	0.050			
-0.0058	-368.33	4.1970	4.1972	0.8489	24.69	-0.21	0.050			
-0.0049	-314.54	4.1960	4.1960	0.8480	24.70	-0.20	0.050			
-0.0040	-259.14	4.1950	4.1950	0.8578	24.70	-0.20	0.050			
-0.0032	-203.91	4.1940	4.1940	0.8619	24.70	-0.20	0.050			
-0.0023	-148.25	4.1930	4.1931	0.8655	24.70	-0.20	0.050			
-0.0014	-92.12	4.1920	4.1920	0.8680	24.71	-0.19	0.050			
-0.0006	-35.73	4.1910	4.1911	0.8687	24.70	-0.20	0.050			
0.0003	19.59	4.1900	4.1898	0.8701	24.71	-0.19	0.050	0.027	0.502	
0.0012	75.78	4.1890	4.1891	0.8695	24.70	-0.20	0.050			
0.0021	131.89	4.1880	4.1880	0.8720	24.70	-0.20	0.050			
0.0029	187.99	4.1870	4.1867	0.8706	24.70	-0.20	0.050			
0.0038	244.81	4.1860	4.1858	0.8701	24.70	-0.20	0.050	0.325	0.590	
0.0047	300.54	4.1850	4.1848	0.8680	24.70	-0.20	0.050			
0.0056	357.17	4.1840	4.1838	0.8641	24.70	-0.20	0.050			
0.0065	413.02	4.1830	4.1830	0.8605	24.70	-0.20	0.050			
0.0073	467.98	4.1820	4.1821	0.8586	24.70	-0.20	0.050			
0.0082	522.98	4.1810	4.1809	0.8550	24.70	-0.20	0.050			
0.0090	576.64	4.1800	4.1801	0.8532	24.70	-0.20	0.050			
0.0099	630.65	4.1790	4.1790	0.8496	24.68	-0.22	0.050			
0.0107	684.44	4.1780	4.1782	0.8479	24.68	-0.22	0.050			
0.0115	737.89	4.1770	4.1772	0.8512	24.68	-0.22	0.050			
0.0124	791.87	4.1760	4.1759	0.8476	24.68	-0.22	0.050			
0.0132	845.26	4.1750	4.1750	0.8499	24.68	-0.22	0.050			
0.0141	900.22	4.1740	4.1738	0.8480	24.68	-0.22	0.050			
0.0149	953.84	4.1730	4.1729	0.8479	24.68	-0.22	0.050			
0.0158	1008.51	4.1720	4.1721	0.8480	24.68	-0.22	0.050			
0.0166	1062.18	4.1710	4.1709	0.8517	24.68	-0.22	0.050			
0.0175	1116.93	4.1700	4.1700	0.8518	24.68	-0.22	0.050			
0.0183	1171.14	4.1690	4.1688	0.8517	24.68	-0.22	0.050			
0.0191	1225.57	4.1680	4.1680	0.8538	24.68	-0.22	0.050			
0.0200	1280.76	4.1670	4.1672	0.8581	24.68	-0.22	0.050			
0.0209	1336.86	4.1660	4.1659	0.8611	24.67	-0.23	0.050			
0.0218	1392.45	4.1650	4.1651	0.8614	24.67	-0.23	0.050			
0.0226	1448.22	4.1640	4.1641	0.8596	24.66	-0.24	0.050			
0.0235	1503.77	4.1630	4.1630	0.8598	24.66	-0.24	0.050			
0.0243	1556.91	4.1620	4.1620	0.8612	24.66	-0.24	0.050	0.436	0.546	
0.0252	1612.08	4.1610	4.1612	0.8637	24.66	-0.24	0.050			
0.0260	1666.40	4.1600	4.1600	0.8639	24.66	-0.24	0.050			
0.0269	1721.31	4.1590	4.1590	0.8661	24.66	-0.24	0.050			
0.0278	1776.47	4.1580	4.1580	0.8696	24.66	-0.24	0.050			
0.0286	1831.30	4.1570	4.1570	0.8714	24.66	-0.24	0.050			
0.0295	1887.68	4.1560	4.1562	0.8759	24.66	-0.24	0.050			
0.0304	1943.09	4.1550	4.1549	0.8801	24.66	-0.24	0.050			
0.0312	1999.47	4.1540	4.1539	0.8850	24.66	-0.24	0.050			
0.0322	2058.64	4.1530	4.1527	0.8853	24.66	-0.24	0.050			
0.0331	2116.02	4.1520	4.1520	0.8821	24.66	-0.24	0.050			
0.0339	2172.79	4.1510	4.1509	0.8817	24.66	-0.24	0.050			
0.0349	2230.81	4.1500	4.1500	0.8841	24.66	-0.24	0.050			
0.0357	2287.98	4.1490	4.1489	0.8836	24.66	-0.24	0.050			
0.0366	2344.36	4.1480	4.1481	0.8827	24.66	-0.24	0.050			
0.0375	2402.52	4.1470	4.1470	0.8803	24.66	-0.24	0.050			
0.0384	2458.84	4.1460	4.1459	0.8782	24.67	-0.23	0.050			
0.0393	2516.02	4.1450	4.1452	0.8763	24.67	-0.23	0.050			
0.0402	2571.88	4.1440	4.1442	0.8747	24.66	-0.24	0.050			
0.0410	2627.19	4.1430	4.1431	0.8690	24.66	-0.24	0.050			
0.0419	2681.41	4.1420	4.1418	0.8631	24.65	-0.25	0.050			
0.0427	2735.53	4.1410	4.1408	0.8632	24.66	-0.24	0.050			
0.0436	2790.47	4.1400	4.1401	0.8617	24.65	-0.25	0.050			
0.0445	2845.23	4.1390	4.1390	0.8602	24.66	-0.24	0.050	0.398	0.524	
0.0453	2899.53	4.1380	4.1381	0.8561	24.66	-0.24	0.050			
0.0462	2954.28	4.1370	4.1371	0.8553	24.66	-0.24	0.050			
0.0470	3008.00	4.1360	4.1358	0.8567	24.66	-0.24	0.050			
0.0479	3062.62	4.1350	4.1349	0.8551	24.66	-0.24	0.050			
0.0487	3117.85	4.1340	4.1340	0.8563	24.66	-0.24	0.050			
0.0496	3173.03	4.1330	4.1328	0.8640	24.66	-0.24	0.050			
0.0505	3229.35	4.1320	4.1320	0.8658	24.66	-0.24	0.050			
0.0513	3283.80	4.1310	4.1311	0.8668	24.66	-0.24	0.050			
0.0522	3338.19	4.1300	4.1300	0.8670	24.66	-0.24	0.050			
0.0530	3393.87	4.1290	4.1290	0.8692	24.67	-0.23	0.050			
0.0539	3448.98	4.1280	4.1278	0.8724	24.68	-0.22	0.050			
0.0548	3505.26	4.1270	4.1270	0.8773	24.68	-0.22	0.050			
0.0557	3561.94	4.1260	4.1262	0.8803	24.68	-0.22	0.050			
0.0565	3618.09	4.1250	4.1248	0.8792	24.69	-0.21	0.050			
0.0574	3674.33	4.1240	4.1239	0.8827	24.70	-0.20	0.050			
0.0583	3730.83	4.1230	4.1231	0.8864	24.70	-0.20	0.050			
0.0592	3787.76	4.1220	4.1222	0.8896	24.70	-0.20	0.050			
0.0601	3844.63	4.1210	4.1210	0.8912	24.71	-0.19	0.050			
0.0610	3902.38	4.1200	4.1201	0.8936	24.72	-0.18	0.050			
0.0619	3960.90	4.1190	4.1187	0.8964	24.72	-0.18	0.050			
0.0628	4018.53	4.1180	4.1181	0.8978	24.72	-0.18	0.050			
0.0637	4076.14	4.1170	4.1171	0.8993	24.73	-0.17	0.050			
0.0646	4133.48	4.1160	4.1160	0.8983	24.74	-0.16	0.050			
0.0655	4191.18	4.1150	4.1149	0.8983	24.75	-0.15	0.050			
0.0664	4249.62	4.1140	4.1140	0.8986	24.75	-0.15	0.050			
0.0673	4306.90	4.1130	4.1131	0.8941	24.75	-0.15	0.050			
0.0682	4365.20	4.1120	4.1121	0.8948	24.76	-0.14	0.050			
0.0691	4423.00	4.1110	4.1110	0.8931	24.76	-0.14	0.050			
0.0700	4479.97	4.1100	4.1101	0.8893	24.76	-0.14	0.050			
0.0709	4537.52	4.1090	4.1088	0.8874	24.76	-0.14	0.050			
0.0718	4594.08	4.1080	4.1081	0.8839	24.76	-0.14	0.050			
0.0727	4650.83	4.1070	4.1070	0.8812	24.76	-0.14	0.050			
0.0735	4706.47	4.1060	4.1059	0.8819	24.76	-0.14	0.050			
0.0744	4763.01	4.1050	4.1051	0.8791	24.76	-0.14	0.050			
0.0753	4818.28	4.1040	4.1038	0.8750	24.76	-0.14	0.050			
0.0762	4873.95	4.1030	4.1031	0.8721	24.75	-0.15	0.050			
0.0770	4929.13	4.1020	4.1018	0.8724	24.75	-0.15	0.050			
0.0779	4984.88	4.1010	4.1011	0.8718	24.75	-0.15	0.050			
0.0788	5040.20	4.1000	4.0998	0.8708	24.74	-0.16	0.050			
0.0796	5095.79	4.0990	4.0990	0.8713	24.74	-0.16	0.050			
0.0805	5150.49	4.0980	4.0983	0.8708	24.74	-0.16	0.050			
0.0813	5206.14	4.0970	4.0968	0.8723	24.73	-0.17	0.050			
0.0822	5262.16	4.0960	4.0963	0.8721	24.73	-0.17	0.050			
0.0831	5317.74	4.0950	4.0952	0.8747	24.73	-0.17	0.050			
0.0840	5373.77	4.0940	4.0940	0.8779	24.72	-0.18	0.050	-0.158	0.175	
0.0848	5429.58	4.0930	4.0931	0.8818	24.72	-0.18	0.050			
0.0857	5486.04	4.0920	4.0921	0.8866	24.72	-0.18	0.050			
0.0866	5542.51	4.0910	4.0910	0.8889	24.72	-0.18	0.050			
0.0875	5598.71	4.0900	4.0902	0.8935	24.71	-0.19	0.050			
0.0884	5656.03	4.0890	4.0890	0.8971	24.71	-0.19	0.050			
0.0893	5713.82	4.0880	4.0882	0.8980	24.71	-0.19	0.050			
0.0902	5772.26	4.0870	4.0868	0.9012	24.70	-0.20	0.050			
0.0911	5829.24	4.0860	4.0858	0.9020	24.70	-0.20	0.050			
0.0920	5888.57	4.0850	4.0850	0.9062	24.69	-0.21	0.050			
0.0929	5947.43	4.0840	4.0838	0.9077	24.68	-0.22	0.050			
0.0938	6005.86	4.0830	4.0831	0.9076	24.68	-0.22	0.050			
0.0948	6064.93	4.0820	4.0821	0.9060	24.68	-0.22	0.050			
0.0957	6123.20	4.0810	4.0810	0.9075	24.67	-0.23	0.050			
0.0966	6181.64	4.0800	4.0801	0.9090	24.67	-0.23	0.050			
0.0975	6240.21	4.0790	4.0792	0.9072	24.66	-0.24	0.050			
0.0984	6298.46	4.0780	4.0777	0.9061	24.66	-0.24	0.050			
0.0993	6357.46	4.0770	4.0769	0.9046	24.66	-0.24	0.050			
0.1002	6415.30	4.0760	4.0760	0.9007	24.66	-0.24	0.050			
0.1011	6472.15	4.0750	4.0752	0.8977	24.65	-0.25	0.050			
0.1020	6529.38	4.0740	4.0739	0.8943	24.65	-0.25	0.050			
0.1029	6586.70	4.0730	4.0731	0.8893	24.64	-0.26	0.050			
0.1038	6642.75	4.0720	4.0721	0.8885	24.64	-0.26	0.050			
0.1047	6698.60	4.0710	4.0711	0.8912	24.64	-0.26	0.050	0.362	0.468	
0.1056	6755.44	4.0700	4.0703	0.8879	24.64	-0.26	0.050			
0.1064	6811.56	4.0690	4.0689	0.8906	24.62	-0.28	0.050			
0.1073	6868.36	4.0680	4.0679	0.8941	24.62	-0.28	0.050			
0.1082	6925.02	4.0670	4.0671	0.8942	24.62	-0.28	0.050			
0.1091	6982.42	4.0660	4.0659	0.8938	24.62	-0.28	0.050			
0.1100	7040.07	4.0650	4.0651	0.8943	24.62	-0.28	0.050			
0.1109	7098.15	4.0640	4.0639	0.8960	24.62	-0.28	0.050			
0.1118	7154.95	4.0630	4.0628	0.8975	24.61	-0.29	0.050			
0.1127	7211.47	4.0620	4.0619	0.9005	24.61	-0.29	0.050			
0.1136	7269.17	4.0610	4.0613	0.9035	24.60	-0.30	0.050			
0.1145	7327.57	4.0600	4.0598	0.9024	24.60	-0.30	0.050			
0.1154	7385.20	4.0590	4.0591	0.9089	24.60	-0.30	0.050			
0.1163	7443.60	4.0580	4.0581	0.9123	24.60	-0.30	0.050			
0.1172	7502.39	4.0570	4.0573	0.9142	24.60	-0.30	0.050			
0.1181	7561.50	4.0560	4.0559	0.9167	24.60	-0.30	0.050			
0.1191	7620.70	4.0550	4.0547	0.9155	24.60	-0.30	0.050			
0.1200	7679.05	4.0540	4.0540	0.9188	24.60	-0.30	0.050			
0.1209	7737.67	4.0530	4.0530	0.9222	24.60	-0.30	0.050			
0.1218	7795.74	4.0520	4.0522	0.9215	24.60	-0.30	0.050			
0.1227	7854.40	4.0510	4.0508	0.9225	24.62	-0.28	0.050			
0.1237	7914.04	4.0500	4.0497	0.9272	24.62	-0.28	0.050			
0.1246	7973.85	4.0490	4.0488	0.9259	24.62	-0.28	0.050	-0.184	0.291	
0.1255	8033.53	4.0480	4.0481	0.9284	24.62	-0.28	0.050			
0.1265	8093.92	4.0470	4.0470	0.9319	24.64	-0.26	0.050			
0.1274	8154.44	4.0460	4.0462	0.9359	24.63	-0.27	0.050			
0.1283	8214.32	4.0450	4.0446	0.9360	24.64	-0.26	0.050			
0.1293	8273.67	4.0440	4.0441	0.9346	24.64	-0.26	0.050			
0.1302	8333.39	4.0430	4.0431	0.9347	24.66	-0.24	0.050			
0.1312	8393.79	4.0420	4.0420	0.9319	24.66	-0.24	0.050			
0.1321	8454.55	4.0410	4.0409	0.9316	24.66	-0.24	0.050			
0.1330	8515.15	4.0400	4.0399	0.9269	24.66	-0.24	0.050			
0.1340	8573.86	4.0390	4.0391	0.9254	24.68	-0.22	0.050			
0.1349	8633.80	4.0380	4.0378	0.9238	24.68	-0.22	0.050			
0.1358	8693.07	4.0370	4.0369	0.9228	24.68	-0.22	0.050			
0.1367	8751.39	4.0360	4.0361	0.9240	24.68	-0.22	0.050			
0.1377	8811.02	4.0350	4.0352	0.9210	24.68	-0.22	0.050			
0.1386	8868.15	4.0340	4.0341	0.9185	24.70	-0.20	0.050			
0.1395	8926.90	4.0330	4.0331	0.9163	24.70	-0.20	0.050			
0.1404	8984.77	4.0320	4.0322	0.9190	24.70	-0.20	0.050			
0.1413	9043.19	4.0310	4.0310	0.9181	24.70	-0.20	0.050			
0.1422	9100.97	4.0300	4.0296	0.9224	24.70	-0.20	0.050			
0.1431	9158.91	4.0290	4.0293	0.9253	24.71	-0.19	0.050			
0.1440	9218.14	4.0280	4.0281	0.9309	24.71	-0.19	0.050	-0.418	0.075	
0.1450	9276.91	4.0270	4.0270	0.9325	24.72	-0.18	0.050			
0.1459	9335.60	4.0260	4.0261	0.9367	24.71	-0.19	0.050			
0.1468	9396.16	4.0250	4.0251	0.9398	24.71	-0.19	0.050			
0.1478	9458.46	4.0240	4.0240	0.9408	24.71	-0.19	0.050			
0.1487	9518.92	4.0230	4.0228	0.9441	24.72	-0.18	0.050			
0.1497	9581.02	4.0220	4.0220	0.9472	24.72	-0.18	0.050			
0.1507	9643.30	4.0210	4.0209	0.9498	24.72	-0.18	0.050			
0.1516	9703.89	4.0200	4.0201	0.9492	24.72	-0.18	0.050			
0.1526	9763.67	4.0190	4.0191	0.9506	24.72	-0.18	0.050			
0.1535	9825.25	4.0180	4.0178	0.9528	24.72	-0.18	0.050			
0.1545	9887.11	4.0170	4.0169	0.9531	24.72	-0.18	0.050			
0.1554	9947.56	4.0160	4.0161	0.9518	24.72	-0.18	0.050			
0.1564	10008.39	4.0150	4.0150	0.9545	24.72	-0.18	0.050			
0.1573	10069.07	4.0140	4.0140	0.9549	24.72	-0.18	0.050			
0.1583	10130.66	4.0130	4.0130	0.9533	24.72	-0.18	0.050			
0.1592	10190.98	4.0120	4.0118	0.9516	24.72	-0.18	0.050			
0.1602	10252.27	4.0110	4.0108	0.9492	24.72	-0.18	0.050			
0.1611	10312.72	4.0100	4.0101	0.9464	24.72	-0.18	0.050			
0.1621	10372.72	4.0090	4.0091	0.9480	24.71	-0.19	0.050			
0.1630	10433.84	4.0080	4.0083	0.9495	24.71	-0.19	0.050			
0.1640	10494.44	4.0070	4.0069	0.9503	24.71	-0.19	0.050			
0.1649	10556.38	4.0060	4.0062	0.9493	24.71	-0.19	0.050			
0.1659	10617.42	4.0050	4.0051	0.9505	24.71	-0.19	0.050			
0.1669	10678.55	4.0040	4.0042	0.9540	24.71	-0.19	0.050			
0.1678	10740.31	4.0030	4.0028	0.9530	24.70	-0.20	0.050			
0.1688	10800.32	4.0020	4.0021	0.9523	24.70	-0.20	0.050			
0.1697	10861.54	4.0010	4.0007	0.9504	24.70	-0.20	0.050			
0.1706	10921.19	4.0000	3.9999	0.9501	24.70	-0.20	0.050			
0.1716	10981.41	3.9990	3.9992	0.9493	24.69	-0.21	0.050			
0.1725	11042.71	3.9980	3.9979	0.9485	24.69	-0.21	0.050			
0.1735	11103.74	3.9970	3.9971	0.9507	24.68	-0.22	0.050			
0.1744	11164.59	3.9960	3.9957	0.9487	24.68	-0.22	0.050			
0.1754	11224.65	3.9950	3.9952	0.9493	24.68	-0.22	0.050			
0.1763	11285.57	3.9940	3.9942	0.9532	24.68	-0.22	0.050			
0.1773	11347.21	3.9930	3.9929	0.9560	24.68	-0.22	0.050			
0.1782	11407.97	3.9920	3.9921	0.9569	24.68	-0.22	0.050			
0.1792	11468.95	3.9910	3.9909	0.9590	24.66	-0.24	0.050			
0.1802	11529.93	3.9900	3.9901	0.9597	24.66	-0.24	0.050			
0.1811	11591.17	3.9890	3.9890	0.9591	24.66	-0.24	0.050			
0.1821	11653.13	3.9880	3.9877	0.9614	24.66	-0.24	0.050			
0.1830	11714.87	3.9870	3.9872	0.9631	24.66	-0.24	0.050			
0.1840	11776.92	3.9860	3.9859	0.9664	24.66	-0.24	0.050	-0.138	0.121	
0.1850	11837.78	3.9850	3.9850	0.9670	24.66	-0.24	0.050			
0.1859	11899.48	3.9840	3.9842	0.9692	24.65	-0.25	0.050			
0.1869	11961.59	3.9830	3.9831	0.9740	24.66	-0.24	0.050			
0.1879	12023.31	3.9820	3.9822	0.9781	24.66	-0.24	0.050			
0.1889	12086.84	3.9810	3.9812	0.9826	24.65	-0.25	0.050			
0.1898	12149.85	3.9800	3.9799	0.9832	24.66	-0.24	0.050			
0.1908	12213.26	3.9790	3.9788	0.9869	24.66	-0.24	0.050			
0.1918	12277.18	3.9780	3.9779	0.9896	24.66	-0.24	0.050			
0.1928	12340.99	3.9770	3.9769	0.9891	24.66	-0.24	0.050			
0.1938	12404.73	3.9760	3.9760	0.9907	24.66	-0.24	0.050			
0.1948	12468.22	3.9750	3.9752	0.9919	24.67	-0.23	0.050			
0.1958	12530.54	3.9740	3.9739	0.9950	24.68	-0.22	0.050			
0.1968	12594.83	3.9730	3.9731	0.9994	24.68	-0.22	0.050			
0.1978	12659.50	3.9720	3.9720	0.9983	24.68	-0.22	0.050			
0.1988	12723.94	3.9710	3.9712	0.9990	24.70	-0.20	0.050			
0.1998	12787.82	3.9700	3.9698	1.0032	24.70	-0.20	0.050			
0.2008	12852.08	3.9690	3.9690	1.0040	24.70	-0.20	0.050			
0.2018	12916.99	3.9680	3.9681	1.0025	24.70	-0.20	0.050			
0.2028	12981.68	3.9670	3.9669	0.9997	24.71	-0.19	0.050			
0.2038	13046.08	3.9660	3.9659	0.9983	24.72	-0.18	0.050			
0.2048	13108.83	3.9650	3.9648	0.9985	24.72	-0.18	0.050	0.198	0.277	
0.2058	13173.21	3.9640	3.9641	0.9948	24.71	-0.19	0.050			
0.2068	13237.02	3.9630	3.9632	0.9941	24.71	-0.19	0.050			
0.2078	13300.91	3.9620	3.9619	0.9926	24.71	-0.19	0.050			
0.2088	13365.40	3.9610	3.9608	0.9927	24.72	-0.18	0.050			
0.2098	13428.80	3.9600	3.9601	0.9948	24.71	-0.19	0.050			
0.2108	13491.66	3.9590	3.9589	0.9925	24.71	-0.19	0.050			
0.2118	13555.76	3.9580	3.9580	0.9913	24.71	-0.19	0.050			
0.2128	13619.16	3.9570	3.9568	0.9882	24.70	-0.20	0.050			
0.2138	13681.84	3.9560	3.9560	0.9862	24.70	-0.20	0.050			
0.2147	13742.92	3.9550	3.9552	0.9877	24.71	-0.19	0.050			
0.2157	13805.12	3.9540	3.9542	0.9871	24.70	-0.20	0.050			
0.2167	13869.17	3.9530	3.9526	0.9873	24.71	-0.19	0.050			
0.2177	13931.96	3.9520	3.9518	0.9928	24.72	-0.18	0.050			
0.2187	13994.90	3.9510	3.9510	0.9954	24.71	-0.19	0.050			
0.2196	14057.56	3.9500	3.9500	0.9962	24.72	-0.18	0.050			
0.2207	14122.02	3.9490	3.9492	1.0011	24.72	-0.18	0.050			
0.2217	14186.47	3.9480	3.9481	1.0057	24.72	-0.18	0.050			
0.2227	14250.89	3.9470	3.9467	1.0114	24.72	-0.18	0.050			
0.2237	14315.48	3.9460	3.9458	1.0111	24.72	-0.18	0.050			
0.2247	14379.90	3.9450	3.9450	1.0135	24.72	-0.18	0.050			
0.2257	14446.89	3.9440	3.9440	1.0175	24.72	-0.18	0.050			
0.2268	14512.24	3.9430	3.9428	1.0186	24.72	-0.18	0.050			
0.2278	14578.14	3.9420	3.9420	1.0185	24.72	-0.18	0.050			
0.2288	14644.18	3.9410	3.9412	1.0183	24.72	-0.18	0.050			
0.2298	14709.66	3.9400	3.9399	1.0178	24.72	-0.18	0.050			
0.2309	14774.81	3.9390	3.9391	1.0169	24.72	-0.18	0.050			
0.2319	14841.81	3.9380	3.9380	1.0191	24.72	-0.18	0.050			
0.2329	14906.24	3.9370	3.9373	1.0178	24.70	-0.20	0.050			
0.2339	14970.36	3.9360	3.9360	1.0179	24.71	-0.19	0.050			
0.2349	15035.44	3.9350	3.9350	1.0127	24.70	-0.20	0.050			
0.2359	15100.24	3.9340	3.9340	1.0151	24.70	-0.20	0.050			
0.2370	15165.46	3.9330	3.9331	1.0158	24.70	-0.20	0.050			
0.2380	15229.61	3.9320	3.9320	1.0100	24.70	-0.20	0.050			
0.2390	15293.83	3.9310	3.9307	1.0111	24.70	-0.20	0.050			
0.2400	15359.09	3.9300	3.9299	1.0121	24.70	-0.20	0.050			
0.2410	15423.65	3.9290	3.9286	1.0106	24.70	-0.20	0.050			
0.2420	15487.64	3.9280	3.9277	1.0112	24.69	-0.21	0.050			
0.2430	15551.93	3.9270	3.9270	1.0132	24.68	-0.22	0.050			
0.2440	15617.22	3.9260	3.9258	1.0174	24.68	-0.22	0.050			
0.2450	15682.80	3.9250	3.9250	1.0179	24.68	-0.22	0.050			
0.2461	15747.56	3.9240	3.9241	1.0229	24.68	-0.22	0.050			
0.2471	15813.40	3.9230	3.9230	1.0244	24.68	-0.22	0.050			
0.2481	15878.95	3.9220	3.9218	1.0260	24.68	-0.22	0.050			
0.2491	15944.95	3.9210	3.9212	1.0274	24.68	-0.22	0.050			
0.2501	16009.17	3.9200	3.9200	1.0326	24.68	-0.22	0.050			
0.2512	16074.66	3.9190	3.9189	1.0378	24.66	-0.24	0.050			
0.2522	16140.27	3.9180	3.9182	1.0429	24.66	-0.24	0.050			
0.2532	16206.99	3.9170	3.9170	1.0473	24.66	-0.24	0.050			
0.2543	16275.01	3.9160	3.9159	1.0509	24.66	-0.24	0.050			
0.2554	16344.14	3.9150	3.9146	1.0533	24.66	-0.24	0.050			
0.2564	16411.28	3.9140	3.9142	1.0529	24.66	-0.24	0.050			
0.2575	16479.64	3.9130	3.9129	1.0581	24.65	-0.25	0.050			
0.2585	16547.17	3.9120	3.9121	1.0637	24.65	-0.25	0.050			
0.2596	16616.13	3.9110	3.9108	1.0627	24.65	-0.25	0.050			
0.2607	16685.52	3.9100	3.9101	1.0639	24.66	-0.24	0.050			
0.2618	16754.46	3.9090	3.9093	1.0630	24.65	-0.25	0.050			
0.2628	16821.87	3.9080	3.9081	1.0617	24.65	-0.25	0.050			
0.2639	16890.65	3.9070	3.9070	1.0607	24.66	-0.24	0.050			
0.2650	16960.00	3.9060	3.9059	1.0553	24.66	-0.24	0.050			
0.2661	17027.86	3.9050	3.9048	1.0505	24.65	-0.25	0.050			
0.2671	17096.59	3.9040	3.9037	1.0451	24.66	-0.24	0.050			
0.2682	17164.33	3.9030	3.9029	1.0407	24.65	-0.25	0.050			
0.2692	17228.07	3.9020	3.9023	1.0407	24.65	-0.25	0.050			
0.2702	17294.79	3.9010	3.9011	1.0377	24.66	-0.24	0.050			
0.2712	17357.76	3.9000	3.9001	1.0308	24.65	-0.25	0.050			
0.2722	17423.49	3.8990	3.8991	1.0309	24.66	-0.24	0.050			
0.2733	17489.19	3.8980	3.8981	1.0331	24.66	-0.24	0.050			
0.2743	17555.03	3.8970	3.8973	1.0363	24.66	-0.24	0.050			
0.2753	17620.44	3.8960	3.8957	1.0402	24.67	-0.23	0.050			
0.2764	17686.77	3.8950	3.8951	1.0411	24.68	-0.22	0.050			
0.2774	17753.06	3.8940	3.8938	1.0414	24.68	-0.22	0.050			
0.2784	17819.33	3.8930	3.8929	1.0394	24.68	-0.22	0.050			
0.2795	17885.32	3.8920	3.8922	1.0432	24.68	-0.22	0.050			
0.2805	17952.78	3.8910	3.8912	1.0520	24.68	-0.22	0.050			
0.2816	18021.67	3.8900	3.8899	1.0542	24.68	-0.22	0.050			
0.2827	18089.81	3.8890	3.8892	1.0533	24.68	-0.22	0.050			
0.2837	18157.87	3.8880	3.8882	1.0560	24.69	-0.21	0.050			
0.2848	18225.05	3.8870	3.8868	1.0645	24.70	-0.20	0.050	0.480	0.412	
0.2858	18293.19	3.8860	3.8861	1.0737	24.70	-0.20	0.050			
0.2869	18361.68	3.8850	3.8852	1.0771	24.70	-0.20	0.050			
0.2880	18430.87	3.8840	3.8838	1.0797	24.70	-0.20	0.050			
0.2891	18499.61	3.8830	3.8829	1.0809	24.70	-0.20	0.050			
0.2901	18568.37	3.8820	3.8820	1.0781	24.70	-0.20	0.050			
0.2912	18638.77	3.8810	3.8811	1.0802	24.72	-0.18	0.050			
0.2923	18708.16	3.8800	3.8799	1.0804	24.71	-0.19	0.050			
0.2934	18777.54	3.8790	3.8786	1.0820	24.72	-0.18	0.050			
0.2945	18847.23	3.8780	3.8780	1.0843	24.72	-0.18	0.050			
0.2956	18916.38	3.8770	3.8773	1.0835	24.72	-0.18	0.050			
0.2967	18986.78	3.8760	3.8763	1.0850	24.73	-0.17	0.050			
0.2978	19057.78	3.8750	3.8751	1.0868	24.73	-0.17	0.050			
0.2989	19128.06	3.8740	3.8742	1.0870	24.72	-0.18	0.050			
0.3000	19197.21	3.8730	3.8732	1.0854	24.72	-0.18	0.050			
0.3010	19265.50	3.8720	3.8718	1.0838	24.72	-0.18	0.050			
0.3021	19335.15	3.8710	3.8709	1.0829	24.72	-0.18	0.050			
0.3032	19404.70	3.8700	3.8698	1.0858	24.72	-0.18	0.050			
0.3043	19473.22	3.8690	3.8688	1.0859	24.72	-0.18	0.050	0.142	0.276	
0.3053	19540.72	3.8680	3.8682	1.0825	24.72	-0.18	0.050			
0.3064	19608.42	3.8670	3.8671	1.0800	24.72	-0.18	0.050			
0.3075	19677.59	3.8660	3.8660	1.0841	24.71	-0.19	0.050			
0.3086	19747.52	3.8650	3.8652	1.0904	24.70	-0.20	0.050			
0.3097	19818.39	3.8640	3.8641	1.0929	24.70	-0.20	0.050			
0.3108	19888.59	3.8630	3.8628	1.0976	24.70	-0.20	0.050			
0.3118	19958.29	3.8620	3.8621	1.1030	24.69	-0.21	0.050			
0.3130	20028.95	3.8610	3.8609	1.1044	24.69	-0.21	0.050			
0.3140	20099.03	3.8600	3.8602	1.1089	24.68	-0.22	0.050			
0.3151	20169.17	3.8590	3.8587	1.1151	24.68	-0.22	0.050			
0.3162	20239.79	3.8580	3.8582	1.1237	24.67	-0.23	0.050			
