Ah_balance (normalized)	Ah_balance (mAh)	Voltage - fit (V)	Voltage -  interpolate (V)	dQ/dV (1/V)	Temperature (°C)	Temperature - diff (°C)	Current (C)	R_DC 0ms (mOhm)	R_DC 50ms (mOhm)	R_DC 50 ms PEC (mOhm)
-0.0065	-416.96	4.1990	4.1990	0.8440	24.58	-0.16	0.050			
-0.0057	-362.53	4.1980	4.1981	0.8625	24.58	-0.16	0.050			
-0.0048	-306.89	4.1970	4.1968	0.8668	24.58	-0.16	0.050			
-0.0039	-251.56	4.1960	4.1957	0.8633	24.57	-0.17	0.050			
-0.0031	-196.64	4.1950	4.1950	0.8592	24.58	-0.16	0.050			
-0.0022	-141.91	4.1940	4.1940	0.8561	24.58	-0.16	0.050			
-0.0014	-89.48	4.1930	4.1930	0.8544	24.59	-0.15	0.050			
-0.0006	-35.73	4.1920	4.1922	0.8571	24.59	-0.15	0.050			
0.0003	18.50	4.1910	4.1911	0.8614	24.60	-0.14	0.050			
0.0011	73.57	4.1900	4.1902	0.8659	24.59	-0.15	0.050			
0.0020	128.80	4.1890	4.1892	0.8704	24.59	-0.15	0.050			
0.0029	184.47	4.1880	4.1878	0.8755	24.60	-0.14	0.050			
0.0038	240.65	4.1870	4.1870	0.8793	24.60	-0.14	0.050			
0.0047	297.97	4.1860	4.1857	0.8782	24.60	-0.14	0.050	0.347	0.471	
0.0056	355.87	4.1850	4.1847	0.8743	24.60	-0.14	0.050			
0.0065	413.21	4.1840	4.1838	0.8706	24.60	-0.14	0.050			
0.0073	470.21	4.1830	4.1831	0.8677	24.60	-0.14	0.050			
0.0082	527.03	4.1820	4.1822	0.8629	24.60	-0.14	0.050			
0.0091	583.49	4.1810	4.1810	0.8616	24.60	-0.14	0.050			
0.0100	639.14	4.1800	4.1802	0.8588	24.60	-0.14	0.050			
0.0108	694.25	4.1790	4.1791	0.8575	24.60	-0.14	0.050			
0.0117	749.14	4.1780	4.1782	0.8554	24.60	-0.14	0.050			
0.0126	803.22	4.1770	4.1772	0.8557	24.60	-0.14	0.050			
0.0134	856.82	4.1760	4.1762	0.8509	24.59	-0.15	0.050			
0.0142	910.19	4.1750	4.1748	0.8477	24.59	-0.15	0.050			
0.0150	962.25	4.1740	4.1737	0.8462	24.60	-0.14	0.050			
0.0158	1014.03	4.1730	4.1728	0.8397	24.60	-0.14	0.050			
0.0167	1066.12	4.1720	4.1718	0.8427	24.60	-0.14	0.050			
0.0175	1119.22	4.1710	4.1710	0.8442	24.60	-0.14	0.050			
0.0183	1172.66	4.1700	4.1700	0.8480	24.60	-0.14	0.050			
0.0192	1227.04	4.1690	4.1688	0.8490	24.59	-0.15	0.050			
0.0200	1281.62	4.1680	4.1682	0.8542	24.59	-0.15	0.050			
0.0209	1337.09	4.1670	4.1672	0.8589	24.59	-0.15	0.050			
0.0218	1394.41	4.1660	4.1659	0.8661	24.59	-0.15	0.050			
0.0227	1452.03	4.1650	4.1651	0.8695	24.60	-0.14	0.050			
0.0236	1508.75	4.1640	4.1639	0.8731	24.59	-0.15	0.050			
0.0244	1564.63	4.1630	4.1631	0.8723	24.60	-0.14	0.050	0.220	0.347	
0.0253	1620.65	4.1620	4.1620	0.8702	24.59	-0.15	0.050			
0.0262	1675.67	4.1610	4.1611	0.8716	24.59	-0.15	0.050			
0.0270	1730.93	4.1600	4.1601	0.8707	24.58	-0.16	0.050			
0.0279	1786.12	4.1590	4.1589	0.8707	24.58	-0.16	0.050			
0.0288	1841.41	4.1580	4.1580	0.8711	24.58	-0.16	0.050			
0.0296	1897.39	4.1570	4.1570	0.8710	24.58	-0.16	0.050			
0.0305	1953.77	4.1560	4.1561	0.8715	24.58	-0.16	0.050			
0.0314	2009.59	4.1550	4.1548	0.8714	24.58	-0.16	0.050			
0.0323	2064.91	4.1540	4.1540	0.8725	24.58	-0.16	0.050			
0.0331	2121.18	4.1530	4.1532	0.8710	24.58	-0.16	0.050			
0.0340	2176.64	4.1520	4.1518	0.8693	24.58	-0.16	0.050			
0.0349	2232.19	4.1510	4.1511	0.8711	24.56	-0.18	0.050			
0.0358	2288.12	4.1500	4.1500	0.8734	24.56	-0.18	0.050			
0.0366	2344.39	4.1490	4.1490	0.8742	24.56	-0.18	0.050			
0.0375	2400.43	4.1480	4.1480	0.8730	24.56	-0.18	0.050			
0.0384	2456.45	4.1470	4.1470	0.8733	24.56	-0.18	0.050			
0.0393	2512.82	4.1460	4.1460	0.8731	24.56	-0.18	0.050			
0.0401	2568.55	4.1450	4.1450	0.8728	24.55	-0.19	0.050			
0.0410	2624.25	4.1440	4.1440	0.8718	24.56	-0.18	0.050			
0.0419	2679.68	4.1430	4.1431	0.8717	24.54	-0.20	0.050			
0.0427	2735.73	4.1420	4.1418	0.8718	24.54	-0.20	0.050			
0.0436	2790.89	4.1410	4.1407	0.8704	24.54	-0.20	0.050			
0.0445	2846.36	4.1400	4.1401	0.8707	24.54	-0.20	0.050	0.396	0.313	
0.0454	2902.65	4.1390	4.1390	0.8710	24.54	-0.20	0.050			
0.0462	2958.96	4.1380	4.1380	0.8710	24.53	-0.21	0.050			
0.0471	3014.85	4.1370	4.1371	0.8719	24.53	-0.21	0.050			
0.0480	3070.67	4.1360	4.1360	0.8724	24.53	-0.21	0.050			
0.0489	3126.72	4.1350	4.1352	0.8704	24.52	-0.22	0.050			
0.0497	3182.05	4.1340	4.1341	0.8692	24.53	-0.21	0.050			
0.0506	3237.76	4.1330	4.1329	0.8701	24.52	-0.22	0.050			
0.0514	3292.34	4.1320	4.1321	0.8754	24.52	-0.22	0.050			
0.0523	3346.70	4.1310	4.1312	0.8766	24.52	-0.22	0.050			
0.0531	3401.48	4.1300	4.1301	0.8821	24.52	-0.22	0.050			
0.0540	3458.08	4.1290	4.1289	0.8876	24.52	-0.22	0.050			
0.0549	3515.44	4.1280	4.1281	0.8907	24.52	-0.22	0.050			
0.0558	3572.95	4.1270	4.1270	0.8933	24.52	-0.22	0.050			
0.0567	3630.14	4.1260	4.1257	0.8954	24.52	-0.22	0.050			
0.0576	3688.30	4.1250	4.1249	0.8958	24.53	-0.21	0.050			
0.0585	3746.42	4.1240	4.1240	0.8966	24.52	-0.22	0.050			
0.0594	3804.76	4.1230	4.1228	0.8979	24.53	-0.21	0.050			
0.0604	3863.06	4.1220	4.1221	0.8963	24.53	-0.21	0.050			
0.0613	3921.42	4.1210	4.1213	0.8974	24.54	-0.20	0.050			
0.0622	3980.07	4.1200	4.1202	0.8954	24.53	-0.21	0.050			
0.0631	4037.70	4.1190	4.1191	0.8931	24.53	-0.21	0.050			
0.0640	4095.75	4.1180	4.1180	0.8921	24.53	-0.21	0.050			
0.0649	4153.84	4.1170	4.1167	0.8891	24.54	-0.20	0.050	0.349	0.538	
0.0658	4210.97	4.1160	4.1161	0.8844	24.54	-0.20	0.050			
0.0667	4267.05	4.1150	4.1147	0.8778	24.53	-0.21	0.050			
0.0675	4322.56	4.1140	4.1141	0.8735	24.54	-0.20	0.050			
0.0684	4377.81	4.1130	4.1131	0.8688	24.53	-0.21	0.050			
0.0692	4430.59	4.1120	4.1119	0.8629	24.53	-0.21	0.050			
0.0701	4484.63	4.1110	4.1111	0.8619	24.53	-0.21	0.050			
0.0709	4538.86	4.1100	4.1100	0.8626	24.52	-0.22	0.050			
0.0718	4594.19	4.1090	4.1091	0.8649	24.52	-0.22	0.050			
0.0727	4649.87	4.1080	4.1082	0.8645	24.52	-0.22	0.050			
0.0735	4705.19	4.1070	4.1068	0.8652	24.52	-0.22	0.050			
0.0744	4760.64	4.1060	4.1061	0.8656	24.52	-0.22	0.050			
0.0752	4815.84	4.1050	4.1049	0.8663	24.52	-0.22	0.050			
0.0761	4870.38	4.1040	4.1039	0.8677	24.52	-0.22	0.050			
0.0770	4925.62	4.1030	4.1030	0.8715	24.52	-0.22	0.050			
0.0778	4981.72	4.1020	4.1019	0.8757	24.52	-0.22	0.050			
0.0787	5037.79	4.1010	4.1011	0.8795	24.52	-0.22	0.050			
0.0796	5093.92	4.1000	4.1001	0.8815	24.52	-0.22	0.050			
0.0805	5150.54	4.0990	4.0990	0.8837	24.51	-0.23	0.050			
0.0814	5207.48	4.0980	4.0980	0.8847	24.52	-0.22	0.050			
0.0823	5265.18	4.0970	4.0969	0.8891	24.52	-0.22	0.050			
0.0832	5321.90	4.0960	4.0960	0.8919	24.52	-0.22	0.050			
0.0840	5379.14	4.0950	4.0949	0.8937	24.52	-0.22	0.050			
0.0849	5436.28	4.0940	4.0941	0.8947	24.52	-0.22	0.050			
0.0858	5494.18	4.0930	4.0931	0.8955	24.52	-0.22	0.050			
0.0867	5551.19	4.0920	4.0921	0.8953	24.52	-0.22	0.050			
0.0876	5609.02	4.0910	4.0911	0.8946	24.52	-0.22	0.050			
0.0886	5667.36	4.0900	4.0900	0.8956	24.52	-0.22	0.050			
0.0895	5725.39	4.0890	4.0891	0.8956	24.52	-0.22	0.050			
0.0904	5783.58	4.0880	4.0878	0.8933	24.51	-0.23	0.050			
0.0913	5841.54	4.0870	4.0869	0.8904	24.52	-0.22	0.050			
0.0922	5898.06	4.0860	4.0861	0.8893	24.52	-0.22	0.050			
0.0930	5954.84	4.0850	4.0851	0.8862	24.52	-0.22	0.050			
0.0939	6010.00	4.0840	4.0841	0.8855	24.52	-0.22	0.050			
0.0948	6066.34	4.0830	4.0829	0.8828	24.52	-0.22	0.050			
0.0957	6123.29	4.0820	4.0821	0.8816	24.52	-0.22	0.050			
0.0965	6178.93	4.0810	4.0810	0.8817	24.52	-0.22	0.050			
0.0974	6234.60	4.0800	4.0800	0.8833	24.52	-0.22	0.050			
0.0983	6290.82	4.0790	4.0790	0.8848	24.52	-0.22	0.050			
0.0992	6347.43	4.0780	4.0778	0.8844	24.52	-0.22	0.050			
0.1001	6403.56	4.0770	4.0771	0.8817	24.52	-0.22	0.050			
0.1009	6459.16	4.0760	4.0760	0.8827	24.52	-0.22	0.050			
0.1018	6515.79	4.0750	4.0750	0.8851	24.52	-0.22	0.050			
0.1027	6572.47	4.0740	4.0741	0.8883	24.52	-0.22	0.050			
0.1036	6629.32	4.0730	4.0732	0.8913	24.52	-0.22	0.050			
0.1045	6686.26	4.0720	4.0721	0.8945	24.52	-0.22	0.050			
0.1054	6744.17	4.0710	4.0709	0.8975	24.52	-0.22	0.050			
0.1063	6802.53	4.0700	4.0703	0.8980	24.52	-0.22	0.050			
0.1072	6860.74	4.0690	4.0690	0.8985	24.52	-0.22	0.050			
0.1081	6918.43	4.0680	4.0680	0.9008	24.52	-0.22	0.050			
0.1090	6976.24	4.0670	4.0668	0.9008	24.52	-0.22	0.050			
0.1099	7032.37	4.0660	4.0660	0.9033	24.52	-0.22	0.050			
0.1108	7089.92	4.0650	4.0652	0.9067	24.52	-0.22	0.050			
0.1117	7147.74	4.0640	4.0639	0.9078	24.53	-0.21	0.050			
0.1126	7205.70	4.0630	4.0631	0.9120	24.53	-0.21	0.050			
0.1135	7265.26	4.0620	4.0620	0.9147	24.54	-0.20	0.050			
0.1144	7323.03	4.0610	4.0612	0.9148	24.54	-0.20	0.050			
0.1154	7382.50	4.0600	4.0599	0.9126	24.54	-0.20	0.050			
0.1163	7442.94	4.0590	4.0589	0.9123	24.54	-0.20	0.050			
0.1172	7502.69	4.0580	4.0579	0.9094	24.54	-0.20	0.050			
0.1182	7561.69	4.0570	4.0570	0.9054	24.54	-0.20	0.050			
0.1191	7619.56	4.0560	4.0561	0.9009	24.54	-0.20	0.050			
0.1200	7677.56	4.0550	4.0553	0.8988	24.54	-0.20	0.050			
0.1209	7735.13	4.0540	4.0539	0.8983	24.54	-0.20	0.050			
0.1217	7791.88	4.0530	4.0532	0.8944	24.55	-0.19	0.050			
0.1226	7848.69	4.0520	4.0522	0.8949	24.55	-0.19	0.050			
0.1235	7905.65	4.0510	4.0509	0.8935	24.55	-0.19	0.050			
0.1244	7962.07	4.0500	4.0499	0.8943	24.55	-0.19	0.050	0.250	0.433	
0.1253	8018.35	4.0490	4.0489	0.8934	24.55	-0.19	0.050			
0.1261	8073.47	4.0480	4.0479	0.8901	24.56	-0.18	0.050			
0.1270	8129.93	4.0470	4.0469	0.8895	24.56	-0.18	0.050			
0.1279	8185.28	4.0460	4.0461	0.8872	24.56	-0.18	0.050			
0.1288	8242.10	4.0450	4.0453	0.8903	24.56	-0.18	0.050			
0.1297	8298.96	4.0440	4.0441	0.8944	24.56	-0.18	0.050			
0.1306	8356.24	4.0430	4.0432	0.8962	24.56	-0.18	0.050			
0.1315	8414.33	4.0420	4.0421	0.9021	24.57	-0.17	0.050			
0.1324	8473.47	4.0410	4.0411	0.9064	24.57	-0.17	0.050			
0.1333	8531.73	4.0400	4.0402	0.9101	24.57	-0.17	0.050			
0.1342	8591.24	4.0390	4.0391	0.9152	24.58	-0.16	0.050			
0.1351	8649.38	4.0380	4.0381	0.9176	24.58	-0.16	0.050			
0.1361	8708.88	4.0370	4.0366	0.9173	24.57	-0.17	0.050			
0.1370	8767.10	4.0360	4.0360	0.9187	24.58	-0.16	0.050			
0.1379	8826.61	4.0350	4.0349	0.9205	24.58	-0.16	0.050			
0.1388	8884.75	4.0340	4.0340	0.9205	24.58	-0.16	0.050			
0.1397	8943.99	4.0330	4.0328	0.9211	24.58	-0.16	0.050			
0.1407	9002.96	4.0320	4.0322	0.9210	24.58	-0.16	0.050			
0.1416	9062.01	4.0310	4.0308	0.9228	24.59	-0.15	0.050			
0.1425	9121.53	4.0300	4.0301	0.9223	24.58	-0.16	0.050			
0.1435	9181.36	4.0290	4.0290	0.9219	24.58	-0.16	0.050			
0.1444	9240.41	4.0280	4.0281	0.9215	24.58	-0.16	0.050	0.439	0.333	
0.1453	9299.92	4.0270	4.0267	0.9239	24.58	-0.16	0.050			
0.1462	9357.92	4.0260	4.0262	0.9246	24.58	-0.16	0.050			
0.1471	9416.96	4.0250	4.0248	0.9257	24.58	-0.16	0.050			
0.1481	9476.20	4.0240	4.0242	0.9273	24.58	-0.16	0.050			
0.1490	9535.61	4.0230	4.0230	0.9270	24.58	-0.16	0.050			
0.1499	9594.37	4.0220	4.0220	0.9286	24.58	-0.16	0.050			
0.1508	9654.20	4.0210	4.0212	0.9280	24.58	-0.16	0.050			
0.1518	9713.13	4.0200	4.0198	0.9278	24.58	-0.16	0.050			
0.1527	9771.84	4.0190	4.0188	0.9317	24.57	-0.17	0.050			
0.1536	9831.36	4.0180	4.0179	0.9332	24.58	-0.16	0.050			
0.1546	9891.41	4.0170	4.0170	0.9355	24.57	-0.17	0.050			
0.1555	9951.45	4.0160	4.0161	0.9370	24.56	-0.18	0.050			
0.1564	10011.80	4.0150	4.0150	0.9375	24.56	-0.18	0.050			
0.1574	10072.89	4.0140	4.0139	0.9380	24.56	-0.18	0.050			
0.1583	10133.55	4.0130	4.0129	0.9374	24.55	-0.19	0.050			
0.1593	10194.48	4.0120	4.0121	0.9372	24.55	-0.19	0.050			
0.1602	10254.88	4.0110	4.0107	0.9368	24.54	-0.20	0.050			
0.1611	10313.55	4.0100	4.0101	0.9448	24.54	-0.20	0.050			
0.1621	10373.67	4.0090	4.0091	0.9470	24.54	-0.20	0.050			
0.1630	10432.56	4.0080	4.0082	0.9486	24.54	-0.20	0.050			
0.1639	10492.48	4.0070	4.0070	0.9507	24.54	-0.20	0.050			
0.1649	10552.73	4.0060	4.0059	0.9542	24.54	-0.20	0.050			
0.1658	10613.97	4.0050	4.0050	0.9593	24.54	-0.20	0.050			
0.1668	10675.94	4.0040	4.0039	0.9617	24.54	-0.20	0.050			
0.1678	10738.30	4.0030	4.0027	0.9636	24.54	-0.20	0.050			
0.1688	10800.58	4.0020	4.0018	0.9630	24.54	-0.20	0.050			
0.1697	10863.14	4.0010	4.0006	0.9629	24.54	-0.20	0.050			
0.1707	10925.40	4.0000	4.0003	0.9617	24.54	-0.20	0.050			
0.1717	10987.16	3.9990	3.9989	0.9613	24.54	-0.20	0.050			
0.1726	11049.51	3.9980	3.9981	0.9621	24.54	-0.20	0.050			
0.1736	11112.36	3.9970	3.9970	0.9642	24.54	-0.20	0.050			
0.1746	11174.29	3.9960	3.9961	0.9646	24.53	-0.21	0.050			
0.1756	11237.03	3.9950	3.9952	0.9651	24.53	-0.21	0.050			
0.1765	11298.91	3.9940	3.9940	0.9654	24.53	-0.21	0.050			
0.1775	11360.51	3.9930	3.9930	0.9627	24.52	-0.22	0.050			
0.1785	11421.62	3.9920	3.9917	0.9561	24.53	-0.21	0.050			
0.1794	11482.03	3.9910	3.9912	0.9534	24.52	-0.22	0.050			
0.1803	11540.04	3.9900	3.9899	0.9484	24.52	-0.22	0.050			
0.1813	11601.06	3.9890	3.9891	0.9487	24.52	-0.22	0.050			
0.1822	11661.61	3.9880	3.9879	0.9473	24.52	-0.22	0.050			
0.1832	11722.51	3.9870	3.9872	0.9466	24.52	-0.22	0.050			
0.1841	11783.30	3.9860	3.9861	0.9464	24.52	-0.22	0.050			
0.1851	11843.27	3.9850	3.9851	0.9495	24.52	-0.22	0.050	0.391	0.519	
0.1860	11904.29	3.9840	3.9841	0.9534	24.51	-0.23	0.050			
0.1870	11965.13	3.9830	3.9831	0.9574	24.52	-0.22	0.050			
0.1879	12026.52	3.9820	3.9818	0.9597	24.52	-0.22	0.050			
0.1889	12087.53	3.9810	3.9810	0.9598	24.51	-0.23	0.050			
0.1898	12148.99	3.9800	3.9801	0.9597	24.51	-0.23	0.050			
0.1908	12211.16	3.9790	3.9789	0.9594	24.51	-0.23	0.050			
0.1918	12272.66	3.9780	3.9779	0.9582	24.51	-0.23	0.050			
0.1927	12333.65	3.9770	3.9769	0.9593	24.52	-0.22	0.050			
0.1937	12394.75	3.9760	3.9758	0.9612	24.52	-0.22	0.050			
0.1946	12456.93	3.9750	3.9750	0.9627	24.51	-0.23	0.050			
0.1956	12518.92	3.9740	3.9741	0.9628	24.52	-0.22	0.050			
0.1966	12581.08	3.9730	3.9731	0.9635	24.52	-0.22	0.050			
0.1976	12643.86	3.9720	3.9720	0.9640	24.52	-0.22	0.050			
0.1985	12705.01	3.9710	3.9711	0.9643	24.52	-0.22	0.050			
0.1995	12766.11	3.9700	3.9700	0.9642	24.52	-0.22	0.050			
0.2004	12828.02	3.9690	3.9690	0.9654	24.52	-0.22	0.050			
0.2014	12889.02	3.9680	3.9679	0.9701	24.52	-0.22	0.050			
0.2024	12951.10	3.9670	3.9670	0.9714	24.52	-0.22	0.050			
0.2033	13012.46	3.9660	3.9661	0.9700	24.53	-0.21	0.050			
0.2043	13073.02	3.9650	3.9651	0.9707	24.53	-0.21	0.050	0.216	0.287	
0.2052	13134.88	3.9640	3.9639	0.9748	24.53	-0.21	0.050			
0.2062	13197.46	3.9630	3.9630	0.9782	24.54	-0.20	0.050			
0.2072	13261.08	3.9620	3.9618	0.9806	24.54	-0.20	0.050			
0.2082	13324.92	3.9610	3.9611	0.9826	24.54	-0.20	0.050			
0.2092	13388.56	3.9600	3.9599	0.9847	24.54	-0.20	0.050			
0.2102	13451.66	3.9590	3.9589	0.9876	24.54	-0.20	0.050			
0.2112	13515.63	3.9580	3.9581	0.9888	24.54	-0.20	0.050			
0.2122	13578.10	3.9570	3.9570	0.9893	24.54	-0.20	0.050			
0.2132	13642.10	3.9560	3.9560	0.9914	24.55	-0.19	0.050			
0.2142	13706.86	3.9550	3.9551	0.9916	24.56	-0.18	0.050			
0.2152	13771.27	3.9540	3.9542	0.9903	24.56	-0.18	0.050			
0.2162	13834.79	3.9530	3.9530	0.9893	24.56	-0.18	0.050			
0.2172	13897.96	3.9520	3.9517	0.9896	24.56	-0.18	0.050			
0.2181	13960.77	3.9510	3.9511	0.9867	24.56	-0.18	0.050			
0.2191	14022.05	3.9500	3.9500	0.9913	24.56	-0.18	0.050			
0.2201	14083.65	3.9490	3.9491	0.9963	24.56	-0.18	0.050			
0.2210	14145.72	3.9480	3.9482	1.0006	24.56	-0.18	0.050			
0.2220	14209.57	3.9470	3.9472	1.0067	24.57	-0.17	0.050			
0.2230	14274.32	3.9460	3.9461	1.0111	24.58	-0.16	0.050			
0.2241	14339.37	3.9450	3.9450	1.0096	24.57	-0.17	0.050			
0.2251	14406.39	3.9440	3.9438	1.0093	24.57	-0.17	0.050			
0.2261	14472.34	3.9430	3.9427	1.0113	24.57	-0.17	0.050			
0.2272	14538.05	3.9420	3.9419	1.0111	24.58	-0.16	0.050			
0.2282	14603.78	3.9410	3.9408	1.0089	24.58	-0.16	0.050			
0.2292	14669.63	3.9400	3.9401	1.0043	24.58	-0.16	0.050			
0.2302	14734.98	3.9390	3.9392	0.9990	24.58	-0.16	0.050			
0.2312	14799.64	3.9380	3.9382	0.9974	24.58	-0.16	0.050			
0.2323	14864.46	3.9370	3.9371	0.9937	24.58	-0.16	0.050			
0.2332	14927.38	3.9360	3.9361	0.9940	24.58	-0.16	0.050			
0.2342	14990.79	3.9350	3.9349	0.9952	24.58	-0.16	0.050			
0.2352	15054.06	3.9340	3.9340	0.9914	24.58	-0.16	0.050			
0.2362	15114.36	3.9330	3.9329	0.9891	24.58	-0.16	0.050			
0.2371	15175.23	3.9320	3.9320	0.9855	24.58	-0.16	0.050			
0.2381	15237.55	3.9310	3.9311	0.9854	24.58	-0.16	0.050			
0.2390	15297.34	3.9300	3.9297	0.9836	24.58	-0.16	0.050			
0.2400	15359.34	3.9290	3.9290	0.9861	24.58	-0.16	0.050			
0.2410	15423.46	3.9280	3.9279	0.9873	24.57	-0.17	0.050			
0.2420	15487.53	3.9270	3.9269	0.9927	24.57	-0.17	0.050			
0.2430	15551.65	3.9260	3.9261	0.9983	24.57	-0.17	0.050			
0.2440	15616.91	3.9250	3.9251	1.0045	24.58	-0.16	0.050			
0.2450	15682.50	3.9240	3.9242	1.0084	24.57	-0.17	0.050	0.363	0.458	
0.2461	15747.85	3.9230	3.9231	1.0125	24.58	-0.16	0.050			
0.2471	15812.77	3.9220	3.9222	1.0151	24.58	-0.16	0.050			
0.2481	15879.20	3.9210	3.9210	1.0158	24.58	-0.16	0.050			
0.2491	15944.75	3.9200	3.9200	1.0189	24.58	-0.16	0.050			
0.2502	16010.10	3.9190	3.9190	1.0177	24.58	-0.16	0.050			
0.2512	16074.38	3.9180	3.9178	1.0163	24.58	-0.16	0.050			
0.2522	16139.09	3.9170	3.9168	1.0169	24.58	-0.16	0.050			
0.2532	16203.33	3.9160	3.9162	1.0142	24.58	-0.16	0.050			
0.2542	16267.78	3.9150	3.9151	1.0174	24.58	-0.16	0.050			
0.2552	16333.45	3.9140	3.9138	1.0190	24.57	-0.17	0.050			
0.2562	16398.32	3.9130	3.9132	1.0177	24.57	-0.17	0.050			
0.2573	16464.18	3.9120	3.9120	1.0193	24.57	-0.17	0.050			
0.2583	16529.42	3.9110	3.9108	1.0218	24.57	-0.17	0.050			
0.2593	16594.46	3.9100	3.9102	1.0217	24.56	-0.18	0.050			
0.2603	16659.84	3.9090	3.9089	1.0249	24.56	-0.18	0.050			
0.2613	16725.78	3.9080	3.9081	1.0297	24.56	-0.18	0.050			
0.2624	16791.45	3.9070	3.9071	1.0317	24.56	-0.18	0.050			
0.2634	16857.28	3.9060	3.9059	1.0297	24.56	-0.18	0.050			
0.2644	16924.11	3.9050	3.9050	1.0290	24.56	-0.18	0.050	0.297	0.359	
0.2655	16990.65	3.9040	3.9039	1.0300	24.56	-0.18	0.050			
0.2665	17056.00	3.9030	3.9029	1.0305	24.55	-0.19	0.050			
0.2675	17122.43	3.9020	3.9021	1.0308	24.56	-0.18	0.050			
0.2686	17189.02	3.9010	3.9008	1.0312	24.55	-0.19	0.050			
0.2696	17255.13	3.9000	3.9000	1.0285	24.55	-0.19	0.050			
0.2706	17321.58	3.8990	3.8992	1.0280	24.56	-0.18	0.050			
0.2716	17385.13	3.8980	3.8981	1.0351	24.55	-0.19	0.050			
0.2726	17449.58	3.8970	3.8971	1.0410	24.55	-0.19	0.050			
0.2737	17515.92	3.8960	3.8959	1.0478	24.56	-0.18	0.050			
0.2747	17582.58	3.8950	3.8948	1.0489	24.56	-0.18	0.050			
0.2758	17650.23	3.8940	3.8940	1.0533	24.56	-0.18	0.050			
0.2769	17718.65	3.8930	3.8931	1.0564	24.56	-0.18	0.050			
0.2779	17786.16	3.8920	3.8920	1.0562	24.56	-0.18	0.050			
0.2790	17853.89	3.8910	3.8908	1.0563	24.56	-0.18	0.050			
0.2800	17922.59	3.8900	3.8898	1.0537	24.57	-0.17	0.050			
0.2811	17990.60	3.8890	3.8886	1.0553	24.57	-0.17	0.050			
0.2822	18058.91	3.8880	3.8883	1.0570	24.56	-0.18	0.050			
0.2833	18128.39	3.8870	3.8873	1.0589	24.57	-0.17	0.050			
0.2843	18197.37	3.8860	3.8862	1.0574	24.57	-0.17	0.050	0.353	0.561	
0.2854	18265.43	3.8850	3.8850	1.0578	24.57	-0.17	0.050			
0.2865	18333.09	3.8840	3.8841	1.0534	24.56	-0.18	0.050			
0.2875	18401.16	3.8830	3.8831	1.0488	24.57	-0.17	0.050			
0.2886	18467.93	3.8820	3.8820	1.0500	24.56	-0.18	0.050			
0.2896	18535.22	3.8810	3.8807	1.0468	24.57	-0.17	0.050			
0.2906	18600.64	3.8800	3.8798	1.0425	24.56	-0.18	0.050			
0.2917	18665.79	3.8790	3.8790	1.0412	24.57	-0.17	0.050			
0.2926	18728.70	3.8780	3.8781	1.0328	24.56	-0.18	0.050			
0.2937	18794.95	3.8770	3.8771	1.0345	24.56	-0.18	0.050			
0.2947	18860.85	3.8760	3.8759	1.0398	24.56	-0.18	0.050			
0.2958	18928.58	3.8750	3.8751	1.0437	24.56	-0.18	0.050			
0.2968	18995.19	3.8740	3.8741	1.0482	24.56	-0.18	0.050			
0.2978	19062.38	3.8730	3.8727	1.0489	24.56	-0.18	0.050			
0.2989	19129.74	3.8720	3.8721	1.0515	24.56	-0.18	0.050			
0.3000	19197.52	3.8710	3.8710	1.0530	24.56	-0.18	0.050			
0.3010	19265.49	3.8700	3.8700	1.0554	24.56	-0.18	0.050			
0.3021	19332.68	3.8690	3.8690	1.0558	24.56	-0.18	0.050			
0.3031	19400.57	3.8680	3.8682	1.0573	24.55	-0.19	0.050			
0.3042	19468.95	3.8670	3.8668	1.0603	24.55	-0.19	0.050			
0.3053	19537.55	3.8660	3.8661	1.0606	24.56	-0.18	0.050	0.154	0.412	
0.3063	19605.20	3.8650	3.8649	1.0611	24.56	-0.18	0.050			
0.3074	19673.39	3.8640	3.8641	1.0630	24.55	-0.19	0.050			
0.3085	19742.05	3.8630	3.8630	1.0631	24.55	-0.19	0.050			
0.3095	19809.68	3.8620	3.8621	1.0611	24.55	-0.19	0.050			
0.3106	19877.84	3.8610	3.8612	1.0622	24.55	-0.19	0.050			
0.3116	19945.59	3.8600	3.8598	1.0617	24.55	-0.19	0.050			
0.3127	20012.72	3.8590	3.8589	1.0626	24.54	-0.20	0.050			
0.3138	20081.25	3.8580	3.8580	1.0620	24.55	-0.19	0.050			
