Ah_balance (normalized)	Ah_balance (mAh)	Voltage - fit (V)	Voltage -  interpolate (V)	dQ/dV (1/V)	Temperature (°C)	Temperature - diff (°C)	Current (C)	R_DC 0ms (mOhm)	R_DC 50ms (mOhm)	R_DC 50 ms PEC (mOhm)
0.0001	5.70	4.1820	4.1821	-0.1443	25.79	0.01	-0.250			
0.0007	43.40	4.1790	4.1788	-0.2495	25.79	0.01	-0.250			
0.0016	104.42	4.1760	4.1760	-0.3616	25.78	0.00	-0.250			
0.0029	186.49	4.1730	4.1734	-0.4588	25.78	0.00	-0.250			
0.0045	285.72	4.1700	4.1697	-0.5351	25.78	-0.00	-0.250			
0.0063	403.56	4.1670	4.1669	-0.5970	25.77	-0.01	-0.250			
0.0082	526.08	4.1640	4.1643	-0.6363	25.76	-0.02	-0.250			
0.0103	656.87	4.1610	4.1610	-0.6646	25.75	-0.03	-0.250			
0.0123	785.04	4.1580	4.1576	-0.6768	25.73	-0.05	-0.250			
0.0143	916.48	4.1550	4.1551	-0.6917	25.72	-0.06	-0.250			
0.0164	1052.07	4.1520	4.1519	-0.7072	25.71	-0.07	-0.250			
0.0186	1189.91	4.1490	4.1492	-0.7147	25.69	-0.09	-0.250			
0.0207	1327.26	4.1460	4.1462	-0.7249	25.69	-0.09	-0.250	0.351	0.513	
0.0230	1470.32	4.1430	4.1430	-0.7346	25.68	-0.10	-0.250			
0.0252	1611.59	4.1400	4.1400	-0.7378	25.67	-0.11	-0.250			
0.0274	1752.06	4.1370	4.1370	-0.7472	25.65	-0.13	-0.250			
0.0297	1898.06	4.1340	4.1341	-0.7549	25.64	-0.14	-0.250			
0.0319	2044.07	4.1310	4.1310	-0.7646	25.62	-0.16	-0.250			
0.0342	2191.63	4.1280	4.1281	-0.7735	25.61	-0.17	-0.250			
0.0366	2341.06	4.1250	4.1251	-0.7778	25.60	-0.18	-0.250			
0.0390	2493.09	4.1220	4.1219	-0.7735	25.59	-0.19	-0.250	0.358	0.508	
0.0413	2640.32	4.1190	4.1190	-0.7758	25.58	-0.20	-0.250			
0.0436	2787.31	4.1160	4.1163	-0.7776	25.57	-0.21	-0.250			
0.0459	2937.44	4.1130	4.1128	-0.7782	25.56	-0.22	-0.250			
0.0482	3085.89	4.1100	4.1099	-0.7811	25.54	-0.24	-0.250			
0.0506	3235.68	4.1070	4.1072	-0.7860	25.52	-0.26	-0.250			
0.0530	3389.71	4.1040	4.1038	-0.8027	25.51	-0.27	-0.250			
0.0554	3544.62	4.1010	4.1009	-0.8049	25.50	-0.28	-0.250			
0.0578	3698.61	4.0980	4.0980	-0.8047	25.49	-0.29	-0.250			
0.0603	3856.52	4.0950	4.0951	-0.8095	25.48	-0.30	-0.250	0.376	0.500	
0.0627	4013.39	4.0920	4.0919	-0.8028	25.47	-0.31	-0.250			
0.0651	4165.76	4.0890	4.0891	-0.8054	25.46	-0.32	-0.250			
0.0675	4321.71	4.0860	4.0859	-0.7958	25.45	-0.33	-0.250			
0.0699	4471.38	4.0830	4.0830	-0.7948	25.45	-0.33	-0.250			
0.0723	4624.87	4.0800	4.0802	-0.8009	25.46	-0.32	-0.250			
0.0746	4777.32	4.0770	4.0769	-0.8073	25.46	-0.32	-0.250			
0.0771	4934.38	4.0740	4.0740	-0.8040	25.45	-0.33	-0.250			
0.0795	5089.05	4.0710	4.0709	-0.8077	25.45	-0.33	-0.250	0.379	0.525	
0.0819	5243.91	4.0680	4.0680	-0.8170	25.45	-0.33	-0.250			
0.0844	5402.70	4.0650	4.0647	-0.8194	25.44	-0.34	-0.250			
0.0868	5558.33	4.0620	4.0620	-0.8158	25.44	-0.34	-0.250			
0.0893	5715.29	4.0590	4.0592	-0.8174	25.44	-0.34	-0.250			
0.0918	5872.54	4.0560	4.0561	-0.8194	25.44	-0.34	-0.250			
0.0942	6030.07	4.0530	4.0530	-0.8234	25.44	-0.34	-0.250			
0.0967	6190.63	4.0500	4.0499	-0.8213	25.44	-0.34	-0.250			
0.0992	6349.97	4.0470	4.0469	-0.8182	25.44	-0.34	-0.250	0.346	0.486	
0.1017	6507.50	4.0440	4.0442	-0.8180	25.44	-0.34	-0.250			
0.1041	6662.36	4.0410	4.0410	-0.8159	25.44	-0.34	-0.250			
0.1065	6816.24	4.0380	4.0379	-0.8212	25.43	-0.35	-0.250			
0.1089	6972.64	4.0350	4.0351	-0.8204	25.43	-0.35	-0.250			
0.1115	7132.99	4.0320	4.0316	-0.8305	25.42	-0.36	-0.250			
0.1140	7294.34	4.0290	4.0293	-0.8376	25.42	-0.36	-0.250			
0.1165	7458.40	4.0260	4.0258	-0.8325	25.42	-0.36	-0.250			
0.1190	7617.23	4.0230	4.0231	-0.8341	25.43	-0.35	-0.250	0.395	0.512	
0.1215	7773.92	4.0200	4.0202	-0.8284	25.43	-0.35	-0.250			
0.1240	7934.62	4.0170	4.0167	-0.8298	25.43	-0.35	-0.250			
0.1265	8093.80	4.0140	4.0139	-0.8279	25.42	-0.36	-0.250			
0.1289	8251.28	4.0110	4.0113	-0.8391	25.42	-0.36	-0.250			
0.1315	8414.67	4.0080	4.0080	-0.8437	25.43	-0.35	-0.250			
0.1340	8578.77	4.0050	4.0046	-0.8357	25.43	-0.35	-0.250			
0.1365	8735.72	4.0020	4.0022	-0.8437	25.43	-0.35	-0.250			
0.1391	8902.26	3.9990	3.9990	-0.8506	25.42	-0.36	-0.250	0.371	0.509	
0.1417	9067.24	3.9960	3.9958	-0.8412	25.42	-0.36	-0.250			
0.1442	9226.56	3.9930	3.9932	-0.8325	25.42	-0.36	-0.250			
0.1466	9383.34	3.9900	3.9903	-0.8416	25.42	-0.36	-0.250			
0.1492	9546.84	3.9870	3.9868	-0.8433	25.42	-0.36	-0.250			
0.1517	9706.52	3.9840	3.9839	-0.8325	25.42	-0.36	-0.250			
0.1542	9869.67	3.9810	3.9812	-0.8399	25.42	-0.36	-0.250			
0.1568	10034.58	3.9780	3.9780	-0.8495	25.42	-0.36	-0.250			
0.1593	10198.30	3.9750	3.9748	-0.8419	25.43	-0.35	-0.250	0.413	0.500	
0.1618	10355.45	3.9720	3.9721	-0.8382	25.43	-0.35	-0.250			
0.1643	10514.85	3.9690	3.9690	-0.8445	25.44	-0.34	-0.250			
0.1669	10680.96	3.9660	3.9659	-0.8506	25.44	-0.34	-0.250			
0.1694	10844.29	3.9630	3.9631	-0.8542	25.45	-0.33	-0.250			
0.1721	11011.52	3.9600	3.9600	-0.8525	25.46	-0.32	-0.250			
0.1746	11174.33	3.9570	3.9570	-0.8475	25.46	-0.32	-0.250			
0.1771	11336.75	3.9540	3.9541	-0.8614	25.47	-0.31	-0.250			
0.1797	11499.35	3.9510	3.9510	-0.8619	25.48	-0.30	-0.250	0.321	0.486	
0.1823	11665.97	3.9480	3.9479	-0.8644	25.49	-0.29	-0.250			
0.1849	11834.73	3.9450	3.9453	-0.8653	25.50	-0.28	-0.250			
0.1875	12000.10	3.9420	3.9419	-0.8648	25.50	-0.28	-0.250			
0.1901	12168.95	3.9390	3.9389	-0.8657	25.51	-0.27	-0.250			
0.1927	12332.26	3.9360	3.9359	-0.8540	25.52	-0.26	-0.250			
0.1953	12496.15	3.9330	3.9329	-0.8629	25.53	-0.25	-0.250			
0.1978	12660.34	3.9300	3.9303	-0.8715	25.54	-0.24	-0.250			
0.2005	12831.73	3.9270	3.9268	-0.8756	25.55	-0.23	-0.250	0.376	0.486	
0.2031	13000.67	3.9240	3.9240	-0.8789	25.56	-0.22	-0.250			
0.2058	13169.70	3.9210	3.9211	-0.8691	25.57	-0.21	-0.250			
0.2084	13337.91	3.9180	3.9180	-0.8773	25.58	-0.20	-0.250			
0.2110	13505.02	3.9150	3.9148	-0.8752	25.59	-0.19	-0.250			
0.2136	13669.13	3.9120	3.9116	-0.8713	25.60	-0.18	-0.250			
0.2162	13834.92	3.9090	3.9093	-0.8783	25.60	-0.18	-0.250			
0.2189	14008.98	3.9060	3.9058	-0.8920	25.60	-0.18	-0.250	0.385	0.491	
0.2216	14181.63	3.9030	3.9030	-0.8886	25.60	-0.18	-0.250			
0.2242	14351.18	3.9000	3.9000	-0.8922	25.61	-0.17	-0.250			
0.2269	14524.24	3.8970	3.8971	-0.8995	25.63	-0.15	-0.250			
0.2296	14696.99	3.8940	3.8937	-0.8907	25.64	-0.14	-0.250			
0.2323	14868.31	3.8910	3.8911	-0.8959	25.65	-0.13	-0.250			
0.2350	15039.56	3.8880	3.8881	-0.8915	25.66	-0.12	-0.250			
0.2377	15211.05	3.8850	3.8848	-0.8965	25.66	-0.12	-0.250			
0.2404	15383.45	3.8820	3.8821	-0.8931	25.67	-0.11	-0.250	0.390	0.499	
0.2430	15552.78	3.8790	3.8789	-0.9001	25.68	-0.10	-0.250			
0.2458	15729.14	3.8760	3.8759	-0.9099	25.69	-0.09	-0.250			
0.2485	15905.70	3.8730	3.8728	-0.9100	25.68	-0.10	-0.250			
0.2513	16081.87	3.8700	3.8701	-0.9077	25.70	-0.08	-0.250			
0.2540	16256.12	3.8670	3.8669	-0.9066	25.71	-0.07	-0.250			
0.2567	16429.28	3.8640	3.8639	-0.9070	25.71	-0.07	-0.250			
0.2594	16604.10	3.8610	3.8607	-0.8992	25.71	-0.07	-0.250	0.386	0.504	
0.2621	16774.49	3.8580	3.8578	-0.8979	25.71	-0.07	-0.250			
0.2648	16945.36	3.8550	3.8553	-0.9070	25.72	-0.06	-0.250			
0.2676	17123.66	3.8520	3.8517	-0.9205	25.73	-0.05	-0.250			
0.2703	17301.25	3.8490	3.8487	-0.9097	25.73	-0.05	-0.250			
0.2730	17475.16	3.8460	3.8462	-0.9069	25.73	-0.05	-0.250			
0.2758	17653.61	3.8430	3.8434	-0.9161	25.73	-0.05	-0.250			
0.2786	17827.29	3.8400	3.8398	-0.9152	25.73	-0.05	-0.250			
0.2812	17999.21	3.8370	3.8369	-0.9086	25.74	-0.04	-0.250	0.373	0.496	
0.2840	18173.87	3.8340	3.8339	-0.9173	25.74	-0.04	-0.250			
0.2868	18356.01	3.8310	3.8311	-0.9269	25.73	-0.05	-0.250			
0.2896	18536.03	3.8280	3.8279	-0.9159	25.74	-0.04	-0.250			
0.2923	18709.99	3.8250	3.8248	-0.9041	25.74	-0.04	-0.250			
0.2950	18882.73	3.8220	3.8221	-0.8886	25.73	-0.05	-0.250			
0.2977	19053.44	3.8190	3.8187	-0.8758	25.73	-0.05	-0.250			
0.3003	19219.13	3.8160	3.8159	-0.8564	25.73	-0.05	-0.250	0.386	0.494	
0.3028	19379.75	3.8130	3.8130	-0.8441	25.73	-0.05	-0.250			
0.3054	19543.20	3.8100	3.8101	-0.8424	25.74	-0.04	-0.250			
0.3078	19701.58	3.8070	3.8070	-0.8394	25.74	-0.04	-0.250			
0.3104	19863.02	3.8040	3.8041	-0.8400	25.74	-0.04	-0.250			
0.3129	20025.76	3.8010	3.8009	-0.8444	25.74	-0.04	-0.250			
0.3155	20188.84	3.7980	3.7981	-0.8435	25.75	-0.03	-0.250			
0.3180	20352.37	3.7950	3.7949	-0.8424	25.74	-0.04	-0.250			
0.3205	20513.28	3.7920	3.7923	-0.8395	25.74	-0.04	-0.250	0.411	0.494	
0.3230	20673.76	3.7890	3.7890	-0.8326	25.75	-0.03	-0.250			
0.3255	20832.69	3.7860	3.7858	-0.8217	25.75	-0.03	-0.250			
0.3280	20990.89	3.7830	3.7831	-0.8184	25.75	-0.03	-0.250			
0.3305	21150.61	3.7800	3.7800	-0.8129	25.75	-0.03	-0.250			
0.3329	21302.68	3.7770	3.7767	-0.8043	25.75	-0.03	-0.250			
0.3352	21455.28	3.7740	3.7743	-0.7927	25.76	-0.02	-0.250			
0.3376	21605.99	3.7710	3.7710	-0.7952	25.76	-0.02	-0.250			
0.3400	21758.02	3.7680	3.7679	-0.8020	25.75	-0.03	-0.250	0.369	0.506	
0.3424	21911.52	3.7650	3.7647	-0.8078	25.75	-0.03	-0.250			
0.3448	22069.20	3.7620	3.7620	-0.8203	25.75	-0.03	-0.250			
0.3473	22228.80	3.7590	3.7589	-0.8316	25.75	-0.03	-0.250			
0.3498	22387.95	3.7560	3.7560	-0.8388	25.75	-0.03	-0.250			
0.3524	22551.05	3.7530	3.7528	-0.8484	25.76	-0.02	-0.250			
0.3549	22714.81	3.7500	3.7500	-0.8630	25.75	-0.03	-0.250			
0.3575	22881.08	3.7470	3.7470	-0.8728	25.74	-0.04	-0.250			
0.3602	23050.42	3.7440	3.7438	-0.8858	25.74	-0.04	-0.250	0.469	0.493	
0.3628	23221.88	3.7410	3.7411	-0.9041	25.74	-0.04	-0.250			
0.3656	23395.79	3.7380	3.7381	-0.9358	25.74	-0.04	-0.250			
0.3684	23578.84	3.7350	3.7347	-0.9564	25.74	-0.04	-0.250			
0.3713	23764.23	3.7320	3.7319	-0.9789	25.74	-0.04	-0.250			
0.3743	23955.11	3.7290	3.7293	-1.0132	25.73	-0.05	-0.250			
0.3774	24153.80	3.7260	3.7260	-1.0480	25.70	-0.08	-0.250			
0.3806	24357.86	3.7230	3.7230	-1.0646	25.70	-0.08	-0.250	0.296	0.499	
0.3838	24564.50	3.7200	3.7200	-1.0893	25.69	-0.09	-0.250			
0.3872	24778.84	3.7170	3.7172	-1.1163	25.68	-0.10	-0.250			
0.3906	24995.43	3.7140	3.7139	-1.1522	25.68	-0.10	-0.250			
0.3940	25216.83	3.7110	3.7109	-1.1736	25.65	-0.13	-0.250			
0.3976	25444.90	3.7080	3.7078	-1.1987	25.64	-0.14	-0.250			
0.4013	25680.23	3.7050	3.7052	-1.2263	25.63	-0.15	-0.250	0.470	0.527	
0.4050	25917.84	3.7020	3.7023	-1.2597	25.60	-0.18	-0.250			
0.4088	26162.89	3.6990	3.6991	-1.2880	25.59	-0.19	-0.250			
0.4127	26409.91	3.6960	3.6958	-1.3211	25.58	-0.20	-0.250			
0.4167	26670.64	3.6930	3.6931	-1.3532	25.56	-0.22	-0.250			
0.4209	26937.21	3.6900	3.6900	-1.3841	25.55	-0.23	-0.250	0.414	0.486	
0.4251	27204.53	3.6870	3.6871	-1.4256	25.53	-0.25	-0.250			
0.4293	27474.16	3.6840	3.6840	-1.4584	25.51	-0.27	-0.250			
0.4337	27759.33	3.6810	3.6809	-1.5027	25.47	-0.31	-0.250			
0.4383	28054.09	3.6780	3.6784	-1.5404	25.44	-0.34	-0.250	0.357	0.496	
0.4431	28356.08	3.6750	3.6752	-1.5734	25.41	-0.37	-0.250			
0.4478	28662.39	3.6720	3.6720	-1.6149	25.38	-0.40	-0.250			
0.4527	28972.03	3.6690	3.6689	-1.6426	25.36	-0.42	-0.250			
0.4577	29289.89	3.6660	3.6659	-1.6900	25.33	-0.45	-0.250			
0.4628	29618.69	3.6630	3.6630	-1.7423	25.30	-0.48	-0.250	0.378	0.516	
0.4681	29960.50	3.6600	3.6601	-1.7906	25.27	-0.51	-0.250			
0.4735	30307.08	3.6570	3.6570	-1.8417	25.24	-0.54	-0.250			
0.4791	30664.75	3.6540	3.6542	-1.9019	25.21	-0.57	-0.250	0.386	0.521	
0.4848	31029.97	3.6510	3.6509	-1.9738	25.19	-0.59	-0.250			
0.4910	31420.86	3.6480	3.6480	-2.0334	25.16	-0.62	-0.250			
0.4971	31816.54	3.6450	3.6449	-2.1061	25.15	-0.63	-0.250			
0.5036	32230.43	3.6420	3.6421	-2.1799	25.12	-0.66	-0.250	0.381	0.530	
0.5102	32653.72	3.6390	3.6388	-2.2375	25.09	-0.69	-0.250			
0.5170	33089.62	3.6360	3.6360	-2.2936	25.07	-0.71	-0.250	0.422	0.499	
0.5240	33534.69	3.6330	3.6330	-2.3612	25.04	-0.74	-0.250			
0.5312	33995.38	3.6300	3.6303	-2.4702	24.99	-0.79	-0.250			
0.5386	34472.36	3.6270	3.6269	-2.5493	24.95	-0.83	-0.250	0.397	0.518	
0.5464	34972.58	3.6240	3.6240	-2.6459	24.92	-0.86	-0.250			
0.5546	35491.46	3.6210	3.6212	-2.7372	24.90	-0.88	-0.250			
0.5630	36034.21	3.6180	3.6181	-2.8186	24.89	-0.89	-0.250	0.370	0.512	
0.5716	36581.64	3.6150	3.6146	-2.8344	24.89	-0.89	-0.250			
0.5801	37128.56	3.6120	3.6120	-2.8869	24.88	-0.90	-0.250	0.407	0.527	
0.5889	37691.73	3.6090	3.6087	-2.8941	24.89	-0.89	-0.250			
0.5976	38246.59	3.6060	3.6060	-2.9111	24.89	-0.89	-0.250	0.438	0.551	
0.6064	38810.90	3.6030	3.6032	-2.9503	24.89	-0.89	-0.250			
0.6154	39388.13	3.6000	3.6002	-2.9603	24.91	-0.87	-0.250			
0.6243	39953.84	3.5970	3.5972	-2.9449	24.94	-0.84	-0.250	0.322	0.531	
0.6333	40528.23	3.5940	3.5939	-2.9402	24.99	-0.79	-0.250			
0.6420	41085.12	3.5910	3.5910	-2.8621	25.03	-0.75	-0.250	0.413	0.530	
0.6506	41636.39	3.5880	3.5879	-2.7817	25.08	-0.70	-0.250			
0.6587	42159.22	3.5850	3.5849	-2.6667	25.12	-0.66	-0.250	0.380	0.531	
0.6666	42659.33	3.5820	3.5820	-2.5340	25.18	-0.60	-0.250			
0.6739	43129.16	3.5790	3.5788	-2.4193	25.24	-0.54	-0.250			
0.6810	43583.39	3.5760	3.5761	-2.3052	25.29	-0.49	-0.250	0.412	0.545	
0.6877	44013.55	3.5730	3.5728	-2.1873	25.35	-0.43	-0.250			
0.6942	44427.88	3.5700	3.5701	-2.0728	25.42	-0.36	-0.250			
0.7001	44809.30	3.5670	3.5671	-1.9663	25.48	-0.30	-0.250	0.402	0.530	
0.7059	45176.67	3.5640	3.5640	-1.8759	25.55	-0.23	-0.250			
0.7112	45517.55	3.5610	3.5609	-1.7834	25.59	-0.19	-0.250			
0.7165	45855.06	3.5580	3.5581	-1.7375	25.63	-0.15	-0.250			
0.7216	46182.46	3.5550	3.5549	-1.6871	25.67	-0.11	-0.250	0.396	0.526	
0.7266	46502.55	3.5520	3.5519	-1.6526	25.71	-0.07	-0.250			
0.7314	46812.37	3.5490	3.5490	-1.6120	25.73	-0.05	-0.250			
0.7363	47122.67	3.5460	3.5459	-1.5711	25.76	-0.02	-0.250			
0.7410	47422.31	3.5430	3.5431	-1.5358	25.79	0.01	-0.250	0.402	0.519	
0.7455	47713.64	3.5400	3.5402	-1.4720	25.82	0.04	-0.250			
0.7499	47992.46	3.5370	3.5370	-1.4145	25.85	0.07	-0.250			
0.7541	48260.70	3.5340	3.5342	-1.3422	25.88	0.10	-0.250			
0.7579	48508.45	3.5310	3.5309	-1.2692	25.90	0.12	-0.250			
0.7617	48746.30	3.5280	3.5282	-1.2195	25.92	0.14	-0.250	0.411	0.541	
0.7652	48970.52	3.5250	3.5249	-1.1448	25.94	0.16	-0.250			
0.7686	49188.56	3.5220	3.5221	-1.0987	25.96	0.18	-0.250			
0.7717	49389.98	3.5190	3.5192	-1.0439	25.97	0.19	-0.250			
0.7748	49585.74	3.5160	3.5159	-1.0145	25.98	0.20	-0.250			
0.7777	49775.17	3.5130	3.5130	-0.9897	26.00	0.22	-0.250			
0.7806	49957.60	3.5100	3.5099	-0.9649	26.01	0.23	-0.250	0.382	0.536	
0.7835	50140.99	3.5070	3.5069	-0.9559	26.01	0.23	-0.250			
0.7864	50329.11	3.5040	3.5041	-0.9436	26.02	0.24	-0.250			
0.7892	50509.74	3.5010	3.5011	-0.9332	26.02	0.24	-0.250			
0.7920	50687.63	3.4980	3.4981	-0.9128	26.02	0.24	-0.250			
0.7947	50858.42	3.4950	3.4948	-0.8935	26.03	0.25	-0.250			
0.7973	51026.60	3.4920	3.4920	-0.8964	26.04	0.26	-0.250			
0.7999	51191.65	3.4890	3.4890	-0.9195	26.05	0.27	-0.250	0.367	0.529	
0.8025	51360.02	3.4860	3.4861	-0.9851	26.06	0.28	-0.250			
0.8053	51537.58	3.4830	3.4831	-1.1072	26.06	0.28	-0.250			
0.8086	51751.60	3.4800	3.4801	-1.3091	26.06	0.28	-0.250			
0.8128	52018.37	3.4770	3.4769	-1.5501	26.06	0.28	-0.250			
0.8179	52346.82	3.4740	3.4741	-1.7865	26.07	0.29	-0.250	0.337	0.552	
0.8238	52724.38	3.4710	3.4709	-1.9877	26.07	0.29	-0.250			
0.8304	53144.45	3.4680	3.4680	-2.1244	26.08	0.30	-0.250			
0.8372	53578.03	3.4650	3.4649	-2.1508	26.09	0.31	-0.250			
0.8438	54000.10	3.4620	3.4621	-2.1095	26.09	0.31	-0.250	0.373	0.555	
0.8501	54404.62	3.4590	3.4590	-2.0206	26.09	0.31	-0.250			
0.8560	54785.00	3.4560	3.4559	-1.9165	26.10	0.32	-0.250			
0.8616	55144.51	3.4530	3.4530	-1.7768	26.08	0.30	-0.250	0.319	0.561	
0.8667	55471.59	3.4500	3.4499	-1.6338	26.09	0.31	-0.250			
0.8715	55778.18	3.4470	3.4472	-1.4980	26.10	0.32	-0.250			
0.8758	56049.96	3.4440	3.4438	-1.3413	26.11	0.33	-0.250			
0.8795	56288.76	3.4410	3.4410	-1.2038	26.12	0.34	-0.250	0.359	0.570	
0.8828	56501.81	3.4380	3.4382	-1.0741	26.11	0.33	-0.250			
0.8859	56695.40	3.4350	3.4350	-0.9588	26.11	0.33	-0.250			
0.8885	56867.02	3.4320	3.4319	-0.8505	26.11	0.33	-0.250			
0.8909	57018.06	3.4290	3.4292	-0.7594	26.11	0.33	-0.250			
0.8930	57153.60	3.4260	3.4257	-0.6788	26.11	0.33	-0.250			
0.8949	57271.48	3.4230	3.4229	-0.6044	26.11	0.33	-0.250			
0.8965	57376.00	3.4200	3.4204	-0.5356	26.12	0.34	-0.250			
0.8980	57473.61	3.4170	3.4166	-0.4886	26.12	0.34	-0.250			
0.8994	57562.82	3.4140	3.4138	-0.4442	26.13	0.35	-0.250			
0.9006	57640.35	3.4110	3.4111	-0.4014	26.13	0.35	-0.250	0.350	0.595	
0.9018	57713.86	3.4080	3.4079	-0.3705	26.14	0.36	-0.250			
0.9028	57780.36	3.4050	3.4051	-0.3421	26.15	0.37	-0.250			
0.9038	57840.66	3.4020	3.4020	-0.3172	26.15	0.37	-0.250			
0.9047	57897.72	3.3990	3.3989	-0.2995	26.16	0.38	-0.250			
0.9055	57953.48	3.3960	3.3960	-0.2859	26.16	0.38	-0.250			
0.9063	58006.00	3.3930	3.3929	-0.2731	26.17	0.39	-0.250			
0.9071	58057.33	3.3900	3.3901	-0.2622	26.17	0.39	-0.250			
0.9079	58105.87	3.3870	3.3870	-0.2542	26.18	0.40	-0.250			
0.9086	58153.43	3.3840	3.3840	-0.2478	26.19	0.41	-0.250			
0.9094	58199.12	3.3810	3.3811	-0.2411	26.20	0.42	-0.250			
0.9101	58245.31	3.3780	3.3778	-0.2393	26.21	0.43	-0.250			
0.9108	58291.03	3.3750	3.3750	-0.2359	26.22	0.44	-0.250			
0.9115	58336.25	3.3720	3.3720	-0.2326	26.22	0.44	-0.250			
0.9122	58381.14	3.3690	3.3690	-0.2300	26.23	0.45	-0.250			
0.9129	58425.48	3.3660	3.3660	-0.2264	26.23	0.45	-0.250			
0.9136	58467.80	3.3630	3.3630	-0.2197	26.23	0.45	-0.250			
0.9142	58509.69	3.3600	3.3601	-0.2173	26.24	0.46	-0.250			
0.9149	58550.59	3.3570	3.3570	-0.2130	26.24	0.46	-0.250			
0.9155	58591.25	3.3540	3.3540	-0.2101	26.24	0.46	-0.250			
0.9161	58631.24	3.3510	3.3509	-0.2072	26.25	0.47	-0.250			
0.9167	58670.69	3.3480	3.3481	-0.2041	26.25	0.47	-0.250			
0.9173	58709.34	3.3450	3.3451	-0.2024	26.26	0.48	-0.250			
0.9179	58748.52	3.3420	3.3419	-0.2006	26.27	0.49	-0.250			
0.9185	58786.60	3.3390	3.3390	-0.1985	26.27	0.49	-0.250			
0.9191	58824.24	3.3360	3.3359	-0.1954	26.28	0.50	-0.250			
0.9197	58861.92	3.3330	3.3331	-0.1928	26.28	0.50	-0.250			
0.9203	58898.93	3.3300	3.3299	-0.1903	26.29	0.51	-0.250			
0.9209	58935.10	3.3270	3.3271	-0.1865	26.29	0.51	-0.250	0.315	0.582	
0.9214	58970.42	3.3240	3.3240	-0.1843	26.29	0.51	-0.250			
0.9220	59004.98	3.3210	3.3210	-0.1817	26.30	0.52	-0.250			
0.9225	59039.62	3.3180	3.3179	-0.1800	26.30	0.52	-0.250			
0.9230	59073.73	3.3150	3.3149	-0.1778	26.31	0.53	-0.250			
0.9236	59108.07	3.3120	3.3122	-0.1761	26.31	0.53	-0.250			
0.9241	59141.85	3.3090	3.3090	-0.1751	26.31	0.53	-0.250			
0.9246	59175.27	3.3060	3.3060	-0.1730	26.31	0.53	-0.250			
0.9251	59208.35	3.3030	3.3030	-0.1717	26.32	0.54	-0.250			
0.9256	59240.70	3.3000	3.3000	-0.1698	26.32	0.54	-0.250			
0.9261	59273.54	3.2970	3.2969	-0.1680	26.32	0.54	-0.250			
0.9267	59305.63	3.2940	3.2940	-0.1662	26.32	0.54	-0.250			
0.9272	59337.60	3.2910	3.2910	-0.1644	26.33	0.55	-0.250			
0.9276	59369.21	3.2880	3.2880	-0.1628	26.33	0.55	-0.250			
0.9281	59400.10	3.2850	3.2850	-0.1598	26.33	0.55	-0.250			
0.9286	59430.43	3.2820	3.2819	-0.1581	26.34	0.56	-0.250			
0.9291	59460.34	3.2790	3.2790	-0.1561	26.34	0.56	-0.250			
0.9295	59489.80	3.2760	3.2761	-0.1546	26.34	0.56	-0.250			
0.9300	59519.44	3.2730	3.2730	-0.1541	26.35	0.57	-0.250			
0.9305	59549.23	3.2700	3.2700	-0.1528	26.35	0.57	-0.250			
0.9309	59578.42	3.2670	3.2670	-0.1513	26.35	0.57	-0.250			
0.9314	59607.48	3.2640	3.2640	-0.1502	26.36	0.58	-0.250			
0.9318	59636.15	3.2610	3.2611	-0.1486	26.36	0.58	-0.250			
0.9323	59664.58	3.2580	3.2580	-0.1471	26.36	0.58	-0.250			
0.9327	59692.68	3.2550	3.2550	-0.1455	26.37	0.59	-0.250			
0.9331	59720.46	3.2520	3.2520	-0.1438	26.37	0.59	-0.250			
0.9336	59747.76	3.2490	3.2490	-0.1418	26.38	0.60	-0.250			
0.9340	59774.90	3.2460	3.2460	-0.1409	26.38	0.60	-0.250			
0.9344	59801.70	3.2430	3.2430	-0.1392	26.38	0.60	-0.250			
0.9348	59828.36	3.2400	3.2400	-0.1374	26.39	0.61	-0.250			
0.9352	59854.57	3.2370	3.2370	-0.1359	26.39	0.61	-0.250			
0.9356	59880.53	3.2340	3.2340	-0.1343	26.40	0.62	-0.250			
0.9360	59906.20	3.2310	3.2311	-0.1328	26.40	0.62	-0.250			
0.9364	59931.28	3.2280	3.2280	-0.1322	26.40	0.62	-0.250			
0.9368	59956.50	3.2250	3.2250	-0.1313	26.40	0.62	-0.250			
0.9372	59981.59	3.2220	3.2220	-0.1293	26.41	0.63	-0.250			
0.9376	60006.33	3.2190	3.2189	-0.1284	26.41	0.63	-0.250			
0.9380	60031.23	3.2160	3.2161	-0.1270	26.41	0.63	-0.250			
0.9384	60055.12	3.2130	3.2131	-0.1262	26.41	0.63	-0.250			
0.9387	60079.26	3.2100	3.2100	-0.1253	26.41	0.63	-0.250			
