Ah_balance (normalized)	Ah_balance (mAh)	Voltage - fit (V)	Voltage -  interpolate (V)	dQ/dV (1/V)	Temperature (°C)	Temperature - diff (°C)	Current (C)	R_DC 0ms (mOhm)	R_DC 50ms (mOhm)	R_DC 50 ms PEC (mOhm)
0.1020	6530.25	4.0200	4.0195	-0.0850	6.01	0.01	-0.400			
0.1024	6551.67	4.0170	4.0168	-0.1337	6.01	0.01	-0.400			
0.1028	6580.69	4.0140	4.0141	-0.1786	6.01	0.01	-0.400			
0.1034	6620.76	4.0110	4.0109	-0.2239	6.00	0.00	-0.400			
0.1042	6668.84	4.0080	4.0080	-0.2640	6.00	0.00	-0.400			
0.1051	6723.76	4.0050	4.0050	-0.3029	6.00	0.00	-0.400			
0.1060	6786.39	4.0020	4.0021	-0.3456	6.00	0.00	-0.400			
0.1071	6855.96	3.9990	3.9990	-0.3890	6.00	-0.00	-0.400			
0.1083	6933.93	3.9960	3.9960	-0.4314	6.00	-0.00	-0.400			
0.1097	7020.21	3.9930	3.9929	-0.4707	5.99	-0.01	-0.400			
0.1112	7116.05	3.9900	3.9900	-0.5105	5.99	-0.01	-0.400			
0.1128	7220.52	3.9870	3.9871	-0.5500	5.99	-0.01	-0.400			
0.1145	7330.24	3.9840	3.9840	-0.5812	5.99	-0.01	-0.400			
0.1163	7445.17	3.9810	3.9810	-0.6087	5.99	-0.01	-0.400			
0.1182	7564.63	3.9780	3.9780	-0.6369	5.99	-0.01	-0.400			
0.1202	7690.09	3.9750	3.9750	-0.6660	5.99	-0.01	-0.400			
0.1222	7823.22	3.9720	3.9718	-0.6816	5.99	-0.01	-0.400			
0.1243	7956.63	3.9690	3.9690	-0.6926	6.00	-0.00	-0.400			
0.1264	8091.58	3.9660	3.9664	-0.7104	6.00	0.00	-0.400			
0.1285	8226.14	3.9630	3.9628	-0.7371	6.00	0.00	-0.400			
0.1308	8369.35	3.9600	3.9599	-0.7518	6.00	0.00	-0.400			
0.1330	8513.93	3.9570	3.9571	-0.7618	6.00	0.00	-0.400			
0.1354	8666.68	3.9540	3.9538	-0.7774	6.00	0.00	-0.400			
0.1378	8818.54	3.9510	3.9515	-0.7840	6.01	0.01	-0.400			
0.1402	8970.89	3.9480	3.9479	-0.7812	6.01	0.01	-0.400			
0.1425	9117.67	3.9450	3.9450	-0.7814	6.01	0.01	-0.400			
0.1448	9265.08	3.9420	3.9420	-0.7791	6.01	0.01	-0.400			
0.1471	9415.92	3.9390	3.9390	-0.7908	6.01	0.01	-0.400			
0.1495	9566.59	3.9360	3.9359	-0.7979	6.02	0.02	-0.400			
0.1519	9720.39	3.9330	3.9327	-0.8125	6.03	0.03	-0.400			
0.1543	9877.90	3.9300	3.9301	-0.8211	6.03	0.03	-0.400			
0.1569	10039.23	3.9270	3.9269	-0.8242	6.03	0.03	-0.400			
0.1594	10198.83	3.9240	3.9242	-0.8163	6.03	0.03	-0.400			
0.1618	10356.60	3.9210	3.9211	-0.8082	6.03	0.03	-0.400			
0.1642	10509.49	3.9180	3.9180	-0.8136	6.04	0.04	-0.400			
0.1666	10662.75	3.9150	3.9151	-0.8174	6.04	0.04	-0.400			
0.1691	10819.50	3.9120	3.9118	-0.8286	6.04	0.04	-0.400			
0.1716	10979.92	3.9090	3.9089	-0.8423	6.05	0.05	-0.400			
0.1741	11144.02	3.9060	3.9062	-0.8561	6.05	0.05	-0.400			
0.1768	11313.14	3.9030	3.9030	-0.8743	6.06	0.06	-0.400			
0.1794	11482.19	3.9000	3.8998	-0.8726	6.06	0.06	-0.400			
0.1820	11647.72	3.8970	3.8970	-0.8649	6.06	0.06	-0.400			
0.1846	11816.56	3.8940	3.8941	-0.8679	6.07	0.07	-0.400			
0.1872	11982.10	3.8910	3.8910	-0.8677	6.07	0.07	-0.400			
0.1899	12150.63	3.8880	3.8880	-0.8684	6.08	0.08	-0.400			
0.1924	12314.09	3.8850	3.8854	-0.8672	6.08	0.08	-0.400			
0.1950	12480.29	3.8820	3.8819	-0.8672	6.09	0.09	-0.400			
0.1976	12647.60	3.8790	3.8788	-0.8709	6.09	0.09	-0.400			
0.2002	12814.18	3.8760	3.8760	-0.8695	6.10	0.10	-0.400			
0.2028	12979.62	3.8730	3.8728	-0.8750	6.10	0.10	-0.400			
0.2055	13149.62	3.8700	3.8700	-0.8764	6.11	0.11	-0.400			
0.2081	13318.97	3.8670	3.8671	-0.8798	6.11	0.11	-0.400			
0.2107	13487.31	3.8640	3.8641	-0.8766	6.12	0.12	-0.400			
0.2134	13655.12	3.8610	3.8613	-0.8741	6.12	0.12	-0.400			
0.2160	13821.60	3.8580	3.8578	-0.8847	6.12	0.12	-0.400			
0.2186	13990.79	3.8550	3.8549	-0.8834	6.12	0.12	-0.400			
0.2213	14161.68	3.8520	3.8518	-0.8798	6.12	0.12	-0.400			
0.2240	14333.27	3.8490	3.8488	-0.8888	6.13	0.13	-0.400			
0.2266	14501.82	3.8460	3.8458	-0.8903	6.14	0.14	-0.400			
0.2293	14673.10	3.8430	3.8430	-0.9004	6.14	0.14	-0.400			
0.2320	14846.38	3.8400	3.8399	-0.8974	6.15	0.15	-0.400			
0.2347	15020.86	3.8370	3.8368	-0.8912	6.15	0.15	-0.400			
0.2374	15196.05	3.8340	3.8339	-0.8942	6.16	0.16	-0.400			
0.2401	15367.90	3.8310	3.8312	-0.8965	6.16	0.16	-0.400			
0.2428	15536.09	3.8280	3.8282	-0.8984	6.17	0.17	-0.400			
0.2454	15708.44	3.8250	3.8248	-0.8975	6.18	0.18	-0.400			
0.2481	15879.39	3.8220	3.8219	-0.8969	6.18	0.18	-0.400			
0.2509	16057.53	3.8190	3.8192	-0.8988	6.18	0.18	-0.400			
0.2536	16232.89	3.8160	3.8161	-0.9008	6.18	0.18	-0.400			
0.2562	16398.65	3.8130	3.8128	-0.8971	6.19	0.19	-0.400			
0.2589	16568.64	3.8100	3.8098	-0.9003	6.21	0.21	-0.400			
0.2616	16742.42	3.8070	3.8069	-0.9103	6.21	0.21	-0.400			
0.2644	16922.28	3.8040	3.8037	-0.9099	6.21	0.21	-0.400			
0.2671	17096.26	3.8010	3.8011	-0.9102	6.21	0.21	-0.400			
0.2699	17273.56	3.7980	3.7982	-0.9116	6.22	0.22	-0.400			
0.2727	17449.95	3.7950	3.7948	-0.9092	6.22	0.22	-0.400			
0.2754	17622.46	3.7920	3.7919	-0.8978	6.22	0.22	-0.400			
0.2781	17796.51	3.7890	3.7891	-0.9062	6.23	0.23	-0.400			
0.2808	17968.62	3.7860	3.7863	-0.9170	6.23	0.23	-0.400			
0.2836	18147.50	3.7830	3.7829	-0.9190	6.24	0.24	-0.400			
0.2863	18323.42	3.7800	3.7802	-0.9149	6.24	0.24	-0.400			
0.2891	18499.85	3.7770	3.7769	-0.9190	6.24	0.24	-0.400			
0.2918	18674.05	3.7740	3.7742	-0.9295	6.25	0.25	-0.400			
0.2946	18854.84	3.7710	3.7708	-0.9326	6.25	0.25	-0.400			
0.2975	19036.91	3.7680	3.7681	-0.9315	6.26	0.26	-0.400			
0.3002	19215.45	3.7650	3.7650	-0.9255	6.26	0.26	-0.400			
0.3031	19395.63	3.7620	3.7623	-0.9300	6.27	0.27	-0.400			
0.3059	19575.10	3.7590	3.7590	-0.9244	6.27	0.27	-0.400			
0.3086	19751.16	3.7560	3.7560	-0.9197	6.27	0.27	-0.400			
0.3113	19921.78	3.7530	3.7529	-0.9190	6.28	0.28	-0.400			
0.3141	20100.88	3.7500	3.7501	-0.9212	6.28	0.28	-0.400			
0.3168	20278.14	3.7470	3.7469	-0.9149	6.29	0.29	-0.400			
0.3196	20454.07	3.7440	3.7441	-0.9137	6.29	0.29	-0.400			
0.3223	20628.64	3.7410	3.7409	-0.9241	6.29	0.29	-0.400			
0.3251	20804.62	3.7380	3.7379	-0.9308	6.30	0.30	-0.400			
0.3279	20985.56	3.7350	3.7350	-0.9234	6.30	0.30	-0.400			
0.3307	21164.83	3.7320	3.7321	-0.9223	6.31	0.31	-0.400			
0.3335	21345.06	3.7290	3.7292	-0.9279	6.31	0.31	-0.400			
0.3363	21520.61	3.7260	3.7259	-0.9311	6.31	0.31	-0.400			
0.3390	21698.54	3.7230	3.7232	-0.9319	6.32	0.32	-0.400			
0.3418	21875.97	3.7200	3.7199	-0.9241	6.32	0.32	-0.400			
0.3446	22057.21	3.7170	3.7168	-0.9259	6.33	0.33	-0.400			
0.3475	22236.93	3.7140	3.7140	-0.9264	6.33	0.33	-0.400			
0.3502	22412.82	3.7110	3.7110	-0.9176	6.34	0.34	-0.400			
0.3529	22585.20	3.7080	3.7082	-0.9184	6.34	0.34	-0.400			
0.3556	22758.98	3.7050	3.7048	-0.9247	6.34	0.34	-0.400			
0.3584	22940.49	3.7020	3.7019	-0.9347	6.35	0.35	-0.400			
0.3613	23122.01	3.6990	3.6988	-0.9511	6.35	0.35	-0.400			
0.3642	23309.16	3.6960	3.6962	-0.9591	6.35	0.35	-0.400			
0.3670	23490.93	3.6930	3.6930	-0.9661	6.35	0.35	-0.400			
0.3700	23676.97	3.6900	3.6900	-0.9684	6.36	0.36	-0.400			
0.3728	23859.65	3.6870	3.6869	-0.9702	6.36	0.36	-0.400			
0.3758	24048.51	3.6840	3.6840	-0.9832	6.36	0.36	-0.400			
0.3787	24239.72	3.6810	3.6810	-1.0010	6.37	0.37	-0.400			
0.3817	24430.51	3.6780	3.6781	-1.0053	6.37	0.37	-0.400			
0.3848	24624.30	3.6750	3.6750	-1.0282	6.37	0.37	-0.400			
0.3878	24820.25	3.6720	3.6719	-1.0516	6.37	0.37	-0.400			
0.3911	25027.95	3.6690	3.6688	-1.0843	6.38	0.38	-0.400			
0.3944	25240.87	3.6660	3.6660	-1.1000	6.38	0.38	-0.400			
0.3977	25454.41	3.6630	3.6631	-1.1242	6.38	0.38	-0.400			
0.4011	25671.45	3.6600	3.6602	-1.1478	6.38	0.38	-0.400			
0.4046	25895.89	3.6570	3.6568	-1.1664	6.38	0.38	-0.400			
0.4081	26118.87	3.6540	3.6538	-1.1890	6.38	0.38	-0.400			
0.4117	26349.55	3.6510	3.6512	-1.2194	6.39	0.39	-0.400			
0.4155	26589.11	3.6480	3.6479	-1.2517	6.39	0.39	-0.400			
0.4192	26830.45	3.6450	3.6449	-1.2788	6.38	0.38	-0.400			
0.4230	27073.47	3.6420	3.6421	-1.3066	6.38	0.38	-0.400			
0.4270	27330.49	3.6390	3.6389	-1.3496	6.38	0.38	-0.400			
0.4312	27597.37	3.6360	3.6359	-1.3810	6.38	0.38	-0.400			
0.4354	27866.49	3.6330	3.6330	-1.4057	6.38	0.38	-0.400			
0.4397	28141.77	3.6300	3.6301	-1.4295	6.38	0.38	-0.400			
0.4440	28416.20	3.6270	3.6270	-1.4535	6.38	0.38	-0.400	0.420	1.315	
0.4484	28694.48	3.6240	3.6241	-1.4857	6.38	0.38	-0.400			
0.4528	28979.23	3.6210	3.6210	-1.5267	6.38	0.38	-0.400			
0.4575	29277.81	3.6180	3.6179	-1.5694	6.37	0.37	-0.400			
0.4623	29587.90	3.6150	3.6150	-1.6150	6.37	0.37	-0.400			
0.4672	29902.00	3.6120	3.6122	-1.6579	6.37	0.37	-0.400			
0.4723	30225.53	3.6090	3.6090	-1.6888	6.36	0.36	-0.400			
0.4774	30553.22	3.6060	3.6058	-1.6924	6.36	0.36	-0.400			
0.4824	30875.85	3.6030	3.6030	-1.7335	6.36	0.36	-0.400			
0.4877	31211.19	3.6000	3.6002	-1.7847	6.35	0.35	-0.400			
0.4931	31555.75	3.5970	3.5968	-1.8293	6.35	0.35	-0.400			
0.4986	31907.71	3.5940	3.5941	-1.8611	6.34	0.34	-0.400			
0.5043	32274.35	3.5910	3.5912	-1.9130	6.35	0.35	-0.400			
0.5102	32652.75	3.5880	3.5880	-1.9594	6.34	0.34	-0.400			
0.5160	33023.98	3.5850	3.5849	-1.9657	6.33	0.33	-0.400			
0.5220	33405.12	3.5820	3.5822	-2.0029	6.34	0.34	-0.400			
0.5281	33796.25	3.5790	3.5792	-2.0515	6.34	0.34	-0.400			
0.5343	34197.11	3.5760	3.5760	-2.0726	6.33	0.33	-0.400			
0.5405	34595.08	3.5730	3.5730	-2.0685	6.33	0.33	-0.400			
0.5468	34995.36	3.5700	3.5700	-2.0692	6.33	0.33	-0.400			
0.5530	35390.45	3.5670	3.5670	-2.0894	6.32	0.32	-0.400			
0.5592	35791.03	3.5640	3.5640	-2.1194	6.31	0.31	-0.400			
0.5657	36203.25	3.5610	3.5609	-2.1269	6.31	0.31	-0.400			
0.5722	36617.80	3.5580	3.5581	-2.1524	6.31	0.31	-0.400			
0.5786	37027.30	3.5550	3.5550	-2.1985	6.31	0.31	-0.400			
0.5852	37452.47	3.5520	3.5519	-2.1808	6.30	0.30	-0.400			
0.5918	37876.50	3.5490	3.5491	-2.1873	6.30	0.30	-0.400			
0.5985	38302.98	3.5460	3.5459	-2.1844	6.31	0.31	-0.400			
0.6049	38712.66	3.5430	3.5430	-2.1511	6.30	0.30	-0.400			
0.6112	39117.15	3.5400	3.5400	-2.1178	6.31	0.31	-0.400			
0.6177	39532.88	3.5370	3.5368	-2.1320	6.31	0.31	-0.400			
0.6241	39941.33	3.5340	3.5339	-2.0977	6.32	0.32	-0.400			
0.6304	40342.51	3.5310	3.5311	-2.0646	6.31	0.31	-0.400			
0.6365	40733.05	3.5280	3.5281	-2.0270	6.32	0.32	-0.400			
0.6425	41117.36	3.5250	3.5250	-1.9969	6.32	0.32	-0.400			
0.6484	41495.99	3.5220	3.5221	-1.9705	6.33	0.33	-0.400			
0.6543	41875.45	3.5190	3.5190	-1.9349	6.33	0.33	-0.400			
0.6601	42246.56	3.5160	3.5160	-1.9076	6.33	0.33	-0.400			
0.6657	42607.70	3.5130	3.5130	-1.8649	6.34	0.34	-0.400			
0.6713	42961.28	3.5100	3.5099	-1.8287	6.35	0.35	-0.400			
0.6767	43309.80	3.5070	3.5071	-1.7835	6.35	0.35	-0.400			
0.6820	43647.29	3.5040	3.5040	-1.7510	6.35	0.35	-0.400			
0.6872	43983.18	3.5010	3.5010	-1.7205	6.36	0.36	-0.400			
0.6924	44311.40	3.4980	3.4981	-1.6681	6.37	0.37	-0.400			
0.6973	44627.74	3.4950	3.4950	-1.6192	6.38	0.38	-0.400			
0.7021	44932.42	3.4920	3.4921	-1.5713	6.39	0.39	-0.400			
0.7067	45225.82	3.4890	3.4890	-1.5373	6.40	0.40	-0.400			
0.7112	45518.06	3.4860	3.4858	-1.5030	6.41	0.41	-0.400			
0.7156	45798.98	3.4830	3.4830	-1.4643	6.42	0.42	-0.400			
0.7200	46079.87	3.4800	3.4799	-1.4413	6.43	0.43	-0.400			
0.7244	46359.52	3.4770	3.4769	-1.4057	6.44	0.44	-0.400			
0.7285	46624.14	3.4740	3.4740	-1.3561	6.45	0.45	-0.400			
0.7325	46880.85	3.4710	3.4711	-1.3130	6.46	0.46	-0.400			
0.7363	47123.24	3.4680	3.4680	-1.2714	6.47	0.47	-0.400			
0.7401	47366.45	3.4650	3.4650	-1.2424	6.48	0.48	-0.400			
0.7438	47600.50	3.4620	3.4618	-1.2007	6.50	0.50	-0.400			
0.7473	47829.54	3.4590	3.4591	-1.1744	6.51	0.51	-0.400			
0.7508	48053.63	3.4560	3.4563	-1.1476	6.52	0.52	-0.400			
0.7542	48271.83	3.4530	3.4529	-1.1191	6.53	0.53	-0.400			
0.7575	48480.91	3.4500	3.4499	-1.0808	6.54	0.54	-0.400			
0.7607	48682.08	3.4470	3.4470	-1.0559	6.55	0.55	-0.400			
0.7639	48887.58	3.4440	3.4442	-1.0364	6.56	0.56	-0.400			
0.7669	49082.75	3.4410	3.4409	-0.9977	6.57	0.57	-0.400			
0.7699	49270.90	3.4380	3.4380	-0.9597	6.58	0.58	-0.400			
0.7727	49452.15	3.4350	3.4348	-0.9212	6.59	0.59	-0.400			
0.7754	49624.24	3.4320	3.4320	-0.8834	6.60	0.60	-0.400			
0.7780	49792.14	3.4290	3.4291	-0.8347	6.62	0.62	-0.400			
0.7805	49948.82	3.4260	3.4260	-0.8239	6.63	0.63	-0.400			
